Photon Energy (eV)	#1	#2	#3	#4	#5	#6	#7	#8	#9	#10	#11	#12	#13	#14	#15	#16	#17	#18	#19	#20	#21	#22	#23	#24	#25	#26	#27	#28	#29	#30	#31	#32	#33	#34	#35	#36	#37	#38	#39	#40	#41	#42	#43	#44	#45	#46	#47	#48	#49	#50	#51	#52	#53	#54	#55	#56	#57	#58	#59	#60	#61	#62	#63	#64	#65	#66	#67	#68	#69	#70	#71	#72	#73	#74	#75	#76	#77	#78	#79	#80	#81	#82	#83	#84	#85	#86	#87	#88	#89	#90	#91	#92	#93	#94	#95	#96	#97	#98	#99	#100	#101	#102	#103	#104	#105	#106	#107	#108	#109	#110	#111	#112	#113	#114	#115	#116	#117	#118	#119	#120	#121	#122	#123	#124	#125	#126	#127	#128	#129	#130	#131	#132	#133	#134	#135	#136	#137	#138	#139	#140	#141	#142	#143	#144	#145	#146	#147	#148	#149	#150	#151	#152	#153	#154	#155	#156	#157	#158	#159	#160	#161	#162	#163	#164	#165	#166	
5.300520E+2	-3.969098E-3	-8.959068E-3	-1.944527E-3	-6.000166E-3	-1.150348E-2	-4.170397E-3	2.549857E-3	-2.183512E-3	-7.997028E-3	-4.751634E-3	-2.089406E-3	-1.217058E-2	-6.646639E-3	-1.025796E-2	-1.202793E-2	-9.046856E-3	-3.373246E-3	-6.324315E-3	-5.374193E-3	-5.409441E-3	-6.998581E-3	7.982817E-4	-2.077112E-3	-1.426260E-2	-1.284220E-2	-6.475480E-3	-7.216902E-3	-1.837019E-2	-5.390740E-3	-3.842629E-3	-9.103772E-3	-1.604954E-3	2.230034E-3	-1.080147E-2	-8.656599E-3	-6.546823E-3	-2.113324E-3	-1.537841E-3	-1.027838E-2	-4.389861E-3	-1.002648E-2	-1.163421E-2	-9.889805E-3	-1.164916E-2	-6.349392E-3	-8.202782E-3	-6.887565E-3	-9.200146E-3	-5.148210E-3	-3.739477E-4	-2.342982E-3	-4.254694E-3	-1.038423E-2	-4.910614E-3	-1.415846E-2	-1.031935E-2	2.744985E-3	4.832212E-4	-2.802593E-3	-1.265527E-2	-2.559844E-3	-1.162269E-2	-4.948742E-3	1.204578E-3	3.741367E-3	-1.825839E-4	-1.576593E-2	-1.237542E-3	9.759354E-4	7.498593E-4	2.293054E-3	-6.002859E-3	-7.232531E-3	-1.256708E-2	-1.961701E-3	-6.862437E-4	-6.795273E-3	1.345897E-3	-5.728477E-3	1.985245E-3	-4.508090E-4	-7.989968E-3	-4.425477E-3	-8.522827E-3	-1.955393E-3	-7.412834E-4	-7.167712E-3	-5.652300E-3	-1.602404E-3	-1.390644E-2	-2.481551E-3	9.924036E-5	-1.802560E-3	-1.100431E-2	-1.338525E-2	-8.681647E-3	-6.313795E-3	-1.440866E-2	-1.341034E-2	-3.588972E-3	1.045881E-3	-8.095439E-3	3.762592E-3	-2.705344E-3	-6.543666E-3	-1.184132E-2	-5.280205E-3	-3.118159E-3	-8.300438E-3	-7.910905E-3	-1.125724E-2	-1.023510E-3	-1.760244E-4	-1.443957E-2	-5.237457E-3	-1.063798E-2	-3.067446E-3	-1.500044E-3	-8.587533E-3	-7.891720E-3	-1.384180E-2	-1.875745E-2	1.661827E-3	-1.272288E-2	-7.109126E-3	-4.562484E-3	5.550113E-3	2.215811E-3	-4.996460E-4	-9.989799E-3	-1.164275E-2	-3.963336E-3	-1.015616E-2	-4.529147E-3	-9.169282E-3	1.270627E-3	-4.493349E-4	-4.095368E-3	-8.605371E-3	-4.931436E-3	-9.043227E-3	1.259766E-3	-6.654363E-3	-1.012808E-2	-7.601586E-3	-3.788002E-3	-1.386671E-3	-6.436617E-3	-1.320306E-2	1.760205E-3	-8.679133E-5	-1.013914E-2	2.124633E-3	-9.992396E-3	-6.497847E-3	-5.409808E-3	-1.284406E-2	1.182031E-3	-5.779824E-3	-7.718302E-3	-3.971063E-4	-3.447662E-3	9.536164E-4	-1.000335E-2	-1.281268E-2	-1.985729E-2
5.305180E+2	-1.508263E-2	-4.583747E-3	-6.959251E-3	-2.379382E-3	1.697250E-3	-2.383059E-3	-1.099074E-2	-7.046778E-3	-6.151569E-3	-7.360320E-3	-9.964801E-3	9.362072E-4	-8.214956E-3	-7.362545E-3	-9.705250E-3	-1.030090E-2	-2.797340E-3	-9.486454E-3	-1.039007E-2	-6.040551E-3	-3.619937E-3	1.357100E-3	-6.148233E-3	-2.585628E-3	-5.245421E-3	-5.250396E-3	-5.433877E-3	-2.524788E-3	-5.953965E-3	-9.222240E-3	-2.916730E-3	-6.926659E-3	-1.003511E-2	-8.301950E-3	-1.923691E-3	-3.890132E-3	-4.480306E-3	-1.060307E-2	-1.284788E-3	-9.511389E-3	-1.710943E-2	-6.337311E-3	1.865982E-3	8.960856E-4	-8.491385E-3	-1.308957E-2	-5.437313E-4	-1.322520E-2	-7.550727E-3	-1.019053E-2	-6.127801E-3	1.810647E-4	-6.179047E-3	-1.693095E-4	3.808714E-3	-8.689999E-3	-1.286717E-2	-1.101715E-2	-5.868002E-3	-8.257352E-3	-3.086851E-3	-6.577145E-3	-7.884448E-3	-9.034528E-3	-8.106260E-3	-1.488176E-2	-3.851909E-3	-1.323243E-2	-2.661691E-4	-1.106082E-2	-1.031873E-2	4.617401E-4	-4.669070E-3	-4.825755E-3	-1.242395E-2	-6.090525E-3	-2.878021E-3	-8.075383E-3	-7.001489E-3	-1.488968E-3	4.598149E-3	-3.096106E-3	-4.707673E-4	-3.722613E-3	-5.688532E-3	-4.633234E-3	-6.590975E-3	-8.695884E-3	-6.221130E-3	-7.890077E-4	-1.178730E-2	-1.309755E-2	-1.551761E-2	-7.923087E-3	-1.277685E-2	2.741357E-4	-8.702881E-3	-1.883482E-3	1.664038E-3	-1.196327E-2	-6.275364E-3	3.238197E-3	-8.807835E-3	-9.591660E-3	-8.892605E-3	6.578325E-4	-4.608126E-3	-4.365472E-3	5.706578E-3	-1.231580E-2	-1.307571E-2	-5.202921E-3	-2.024062E-3	-1.285733E-3	-1.092637E-2	-2.514419E-3	-6.748475E-3	3.529446E-4	2.720797E-3	-1.214106E-2	-2.477827E-3	-9.426334E-3	-8.678318E-3	-7.325324E-3	-9.873761E-3	-6.558562E-3	-3.668711E-3	-7.090689E-3	-6.911982E-3	-1.156728E-3	-3.755730E-3	8.917483E-4	7.371275E-4	-1.428422E-2	8.557945E-3	-1.533236E-2	2.696154E-3	-5.428741E-3	-6.574897E-3	-7.586839E-3	-1.562031E-3	-1.511718E-2	-1.571167E-2	-7.745004E-3	-8.965996E-3	-1.925587E-2	-1.248009E-2	5.668072E-3	-4.621098E-3	4.498283E-3	-7.376914E-3	-2.060816E-3	-3.229432E-3	-5.957024E-3	-7.664105E-3	-4.226450E-3	-5.504606E-3	-1.674516E-2	-2.619013E-3	-4.613228E-3	4.050377E-3	-1.441749E-2	-9.893826E-3	4.445935E-3	-1.682856E-2	-1.470913E-2
5.310250E+2	8.930165E-4	4.896247E-3	1.637522E-3	-3.103535E-3	-9.429034E-4	-5.361922E-3	-1.653008E-2	-9.927016E-5	-1.045766E-2	1.118014E-3	-8.839744E-3	-5.617207E-3	1.194892E-3	5.377167E-3	-2.737370E-3	-5.911782E-3	-6.252871E-3	-6.324181E-4	-7.255149E-3	-6.040551E-3	-3.619974E-3	-4.789785E-3	-7.311400E-3	-7.840243E-3	-7.144590E-3	-1.575121E-3	-2.462255E-3	3.569565E-3	-1.448259E-3	-2.647131E-3	-3.535445E-3	-1.604981E-3	5.575059E-4	-5.177531E-3	-7.310001E-3	-7.875118E-3	-3.296883E-3	-1.537809E-3	5.139503E-4	-7.804258E-3	-2.943548E-3	-1.702555E-3	-1.446154E-2	8.960770E-4	4.360412E-3	-8.202807E-3	-1.450011E-2	6.325071E-3	-3.432159E-4	2.243809E-3	-4.866177E-3	-4.254700E-3	-4.376813E-3	4.233038E-4	-1.184011E-2	-3.801876E-3	-1.458265E-3	4.832212E-4	-1.576470E-3	-7.629068E-3	-7.303031E-3	-9.730609E-3	-2.013022E-3	4.818423E-3	-7.482706E-3	-5.934470E-3	1.791571E-3	-3.236701E-3	-1.392930E-2	-7.780048E-3	-5.732630E-3	-1.154401E-3	-1.464796E-3	8.042758E-4	-9.154537E-3	-6.862575E-4	-6.795255E-3	-7.402424E-3	-1.782191E-2	-4.963100E-3	-5.499753E-3	-3.795215E-3	-9.039313E-3	-6.465549E-3	-8.799397E-3	-3.335948E-3	3.789806E-3	2.260919E-3	-7.540777E-3	-4.931338E-3	-1.116694E-2	-4.762735E-3	-1.253951E-3	-1.901541E-2	-1.216837E-3	5.391778E-3	-8.105622E-3	4.049495E-3	-7.928754E-3	-3.588995E-3	-1.528610E-2	8.521430E-4	1.368204E-3	5.328692E-3	-3.607417E-3	-1.249918E-2	-1.670460E-2	1.870905E-3	-7.781688E-3	2.157534E-3	2.078219E-3	-9.979357E-3	-1.408053E-3	-1.285688E-3	-5.869571E-3	-6.576188E-3	-2.453998E-3	-1.076521E-2	5.696710E-3	3.642322E-3	-6.835591E-4	-5.427288E-3	-5.447010E-3	2.120483E-3	6.714181E-3	-1.901052E-3	-1.288759E-2	-7.090672E-3	-7.494910E-3	-1.146198E-2	-1.361449E-2	-4.656893E-3	-2.129527E-3	9.580841E-4	-7.335398E-3	-1.101236E-3	-1.051488E-2	5.714538E-4	1.933963E-4	-1.621683E-2	-1.076964E-2	-1.574703E-2	-8.317865E-4	1.683476E-8	-1.169475E-2	1.367888E-3	-2.773324E-3	-3.746677E-3	-1.122261E-2	-1.124573E-2	-7.376919E-3	-2.060795E-3	-6.798789E-3	8.839443E-3	1.666119E-3	2.873975E-3	-1.162079E-2	-8.471064E-3	-7.676335E-3	-7.718293E-3	-1.262757E-2	1.671568E-3	-7.390524E-3	-7.780372E-3	-8.796754E-3	-1.838638E-3
5.315130E+2	-4.663705E-3	5.625457E-3	1.637479E-3	-2.379418E-3	-8.863298E-3	-1.787301E-3	5.011795E-3	-1.488784E-3	-1.845489E-3	-2.795043E-3	1.848321E-3	-8.893884E-3	-8.961770E-4	2.481785E-3	7.714444E-3	-5.911817E-3	6.581859E-4	1.264832E-3	7.792580E-3	-9.917338E-4	-8.124772E-3	-6.466189E-3	-2.077120E-3	-7.840259E-3	1.718348E-3	-1.198840E-2	1.103763E-3	-8.705838E-5	-1.448280E-3	-6.233567E-3	1.414179E-3	-3.970160E-3	-1.672518E-3	1.044433E-2	4.135940E-3	2.751552E-3	4.987509E-3	1.618606E-4	5.138841E-4	-1.544588E-3	-9.382593E-3	1.607976E-3	-5.318106E-3	-1.603999E-2	4.360446E-3	-5.759400E-3	-6.887571E-3	-3.450076E-3	7.464946E-3	-1.346274E-2	-1.054342E-2	8.147195E-4	2.832058E-3	-1.320776E-2	2.649537E-3	-5.431331E-4	-6.862483E-3	-2.222755E-3	-1.077254E-2	-5.115965E-3	-1.505800E-3	-7.838541E-3	2.096909E-3	-3.613800E-3	-3.117762E-3	-9.129927E-3	-4.478992E-3	-1.903931E-3	-2.750352E-3	-1.218560E-3	-3.439576E-3	-4.925409E-3	-4.669105E-3	8.042887E-4	-2.615579E-3	-4.889556E-3	2.718134E-3	-6.729430E-4	4.455505E-3	-2.646979E-3	-6.130886E-3	-9.987267E-4	-6.402853E-3	3.918578E-4	-7.110701E-4	-4.633255E-3	-4.860843E-3	-6.261033E-3	3.770565E-4	3.353307E-3	-3.722304E-3	-1.984491E-3	6.975073E-3	1.320531E-3	1.825272E-3	2.741386E-4	1.040931E-2	7.534178E-4	2.349262E-3	-7.975554E-4	1.045899E-3	1.448667E-3	-6.413516E-3	9.345722E-3	-9.479839E-3	-6.578598E-4	-1.920081E-3	-4.989098E-3	-4.150259E-3	-7.910920E-3	8.659531E-4	-4.264442E-4	-5.104177E-3	7.714304E-3	3.612056E-3	-1.160539E-3	-4.907999E-3	-4.588462E-3	-9.777906E-3	-3.191370E-9	-6.664544E-3	-3.427733E-3	-1.061708E-2	4.144601E-3	-9.320868E-3	-8.554625E-3	-7.619677E-3	-2.127203E-3	-3.414385E-3	-2.628890E-3	8.450479E-4	-4.954409E-4	-7.289510E-3	-2.090381E-3	-6.112848E-3	-5.844916E-3	4.583386E-3	-7.619282E-4	-1.160272E-3	3.698599E-3	-6.741325E-3	1.889656E-3	-8.595193E-3	-2.383094E-3	3.995687E-3	-8.943949E-3	1.248009E-2	-1.450637E-2	-8.581987E-3	5.182811E-3	-3.731854E-3	-9.067767E-4	-8.498585E-4	-7.974747E-3	-1.832735E-3	-8.368268E-3	2.446502E-3	-1.576029E-3	-5.147651E-3	-8.871844E-4	-3.732681E-3	9.402402E-4	-1.239707E-2	-1.556078E-2	-7.648955E-4	-1.838674E-3
5.320120E+2	6.449825E-3	-4.583693E-3	-1.944514E-3	6.310534E-3	7.637532E-3	3.574616E-3	5.011747E-3	-3.573016E-3	-2.460646E-3	-7.360380E-3	5.785968E-3	2.902214E-3	6.721249E-4	-5.625329E-3	1.177903E-2	6.628398E-3	-4.936348E-4	-5.059435E-3	2.686965E-4	-9.917338E-4	4.826618E-3	4.151154E-3	-3.323218E-4	7.923641E-3	-1.030992E-2	-2.187676E-3	-3.056576E-3	-1.227580E-2	-4.827494E-3	-2.647123E-3	-4.154124E-3	1.351531E-3	4.460047E-3	1.356879E-2	2.789343E-3	7.590505E-4	-6.847278E-3	-5.503897E-3	-1.884345E-3	5.853147E-3	2.759602E-4	2.932177E-3	2.519145E-3	1.523370E-3	-9.944852E-4	-2.617889E-4	1.359409E-3	9.200179E-3	2.573850E-4	-3.646157E-3	-8.020166E-3	-1.086330E-3	3.432783E-3	-8.466558E-3	1.490370E-3	9.776247E-3	-4.460603E-3	-1.546264E-3	5.780367E-3	6.193027E-3	6.926596E-3	2.252466E-3	-2.516257E-4	-6.023218E-4	-7.482700E-3	-8.216834E-4	6.180993E-3	5.426250E-3	-2.750375E-3	-3.187003E-3	-4.586079E-3	-3.309270E-3	2.380327E-3	-1.306973E-3	3.269480E-3	5.146676E-4	-7.354880E-3	-6.729709E-4	-4.455471E-3	3.722338E-3	2.073692E-3	1.098634E-3	-2.448134E-3	-5.779854E-3	-5.688477E-3	-4.633249E-3	1.482994E-3	4.695759E-3	-1.281933E-2	-5.621762E-3	-2.481569E-3	4.961174E-3	-3.996950E-3	3.169267E-3	-3.650513E-3	-5.483166E-3	-8.105583E-3	4.708697E-3	-6.558315E-3	3.389607E-3	-1.769954E-3	-1.346399E-2	-2.821931E-3	-5.574638E-3	2.265126E-3	3.289241E-3	4.128133E-3	1.247262E-3	-3.631464E-3	4.674603E-3	-7.620281E-3	-1.023529E-3	4.400071E-4	-5.933808E-4	2.979914E-3	8.703722E-4	6.135101E-4	-2.735437E-3	-8.502552E-4	3.642310E-3	6.493663E-3	2.570833E-3	-2.861994E-3	7.710997E-4	5.055376E-3	7.604319E-4	-1.693235E-3	5.938450E-3	9.993202E-3	7.676346E-3	6.760326E-3	-6.044127E-3	1.638214E-4	-8.187295E-3	6.112959E-4	-2.287135E-3	-2.965713E-3	-9.524333E-5	2.223842E-3	-2.845172E-4	4.192769E-3	1.889630E-3	-6.654333E-3	1.787311E-3	3.995718E-3	5.787257E-3	-2.080004E-3	-8.454084E-3	1.320312E-3	-9.192213E-3	2.950740E-3	-2.060769E-3	6.883771E-3	-3.939285E-3	-2.415857E-3	2.873981E-3	6.727835E-3	-1.576026E-3	5.418993E-4	1.215414E-2	7.147740E-4	-5.641646E-3	1.013223E-2	2.000671E-2	1.396008E-2	8.457747E-3
5.325070E+2	5.755233E-3	-3.854467E-3	3.070252E-3	1.965596E-3	3.771583E-4	-2.383070E-3	8.089189E-3	1.290279E-3	7.381887E-3	3.726769E-3	1.028628E-2	2.246871E-3	7.468131E-3	-9.927156E-4	-3.898699E-3	1.227148E-2	-1.069576E-3	8.854011E-3	6.538604E-3	1.163031E-2	-8.044354E-4	7.982817E-4	1.420736E-2	1.084293E-2	9.948165E-3	1.251344E-2	-1.867895E-3	2.063381E-2	2.494219E-3	-2.561518E-4	1.414174E-3	4.899341E-3	-1.282265E-8	-8.034036E-4	-1.250383E-3	-1.897625E-3	5.579257E-3	5.261061E-3	-2.483949E-3	6.991317E-3	1.186623E-2	2.270110E-3	-9.330300E-5	1.281409E-2	2.218487E-3	1.928530E-2	9.606327E-3	-1.150028E-3	8.580411E-4	4.861536E-3	3.965077E-3	5.884151E-3	7.037255E-3	1.583244E-2	6.706625E-3	-2.172503E-3	4.546385E-3	-1.546298E-3	1.129806E-2	1.184747E-2	5.345550E-3	1.801963E-2	9.226527E-4	-4.818392E-3	7.482685E-3	1.515568E-2	1.164532E-3	9.519365E-5	7.186447E-3	6.655253E-3	5.159360E-3	-7.696288E-5	7.507151E-3	1.508030E-3	7.846723E-3	1.115180E-3	1.279109E-2	-3.364736E-3	1.336641E-2	-2.646979E-3	-3.606382E-3	-2.396959E-3	1.883348E-4	5.192046E-3	5.510746E-3	-3.984570E-3	-8.238961E-4	4.087093E-3	9.614468E-3	4.734113E-3	1.302811E-2	-1.101388E-2	9.404597E-4	1.549403E-2	1.460209E-2	-3.564052E-3	1.450469E-3	7.533814E-4	7.830849E-3	-7.975715E-4	1.005665E-2	2.641634E-3	6.156936E-3	-5.574646E-3	1.166112E-2	9.209922E-3	1.958468E-2	-1.870878E-3	1.037559E-2	8.989760E-4	1.238297E-2	-4.264662E-4	-2.640111E-3	1.483474E-3	4.876242E-3	1.034785E-2	-1.840499E-3	5.294374E-3	3.911145E-3	-1.153401E-2	5.895590E-3	9.235903E-3	7.478097E-3	8.867465E-3	8.925913E-3	1.273693E-2	-3.668705E-3	-3.368075E-3	5.329737E-3	-4.206013E-4	3.474057E-3	7.134008E-3	3.603790E-3	3.396852E-3	6.112903E-4	1.372289E-2	-2.336657E-3	-3.428649E-3	-4.834191E-4	9.009367E-3	1.455139E-2	5.668969E-3	1.663587E-2	6.553466E-3	4.677893E-3	9.470104E-3	3.466659E-3	6.340525E-3	5.281213E-3	3.129261E-3	-2.516834E-3	6.017544E-3	-3.824295E-3	1.441236E-3	-8.331467E-5	-1.859584E-3	9.785928E-3	6.698062E-3	3.702687E-3	-2.661690E-4	5.162188E-3	2.402950E-3	7.628943E-3	7.780396E-3	1.396004E-2	8.457759E-3
5.330280E+2	1.061736E-2	1.145927E-2	4.503039E-3	5.586371E-3	1.159774E-2	1.251113E-2	6.858236E-3	1.310108E-2	2.153051E-2	1.742259E-2	2.973388E-3	2.059638E-2	6.422623E-3	1.637960E-2	8.875776E-3	1.227147E-2	1.332848E-2	1.138378E-2	8.419532E-3	7.843701E-3	1.834108E-2	4.151157E-3	3.738823E-3	1.376216E-2	2.387562E-2	1.496363E-2	1.893374E-2	9.054458E-3	1.657452E-2	2.484884E-2	1.688172E-2	7.855881E-3	4.460057E-3	1.071242E-3	1.221539E-2	1.669909E-2	6.171025E-3	1.375970E-2	1.490362E-2	1.040563E-2	2.731986E-2	1.286381E-2	2.537763E-2	1.155953E-2	4.895917E-3	1.623105E-2	1.785324E-2	1.150020E-2	4.461781E-3	2.056803E-2	2.793547E-2	2.715789E-3	7.637994E-3	1.049850E-2	1.134332E-2	1.575061E-2	1.835715E-2	1.536603E-2	3.941183E-3	1.561715E-2	2.183380E-3	1.549689E-2	1.207828E-2	1.204604E-2	1.496538E-2	1.579474E-2	1.495974E-2	1.408916E-2	1.153382E-2	1.584132E-2	1.662460E-2	1.500716E-2	8.148024E-3	1.558322E-2	1.503957E-2	1.072274E-2	8.314204E-3	1.884256E-2	1.718542E-2	6.038443E-3	9.015989E-3	1.717834E-2	2.259821E-2	1.890694E-2	1.733212E-2	2.196154E-2	1.417063E-2	9.565445E-3	1.819211E-2	1.716113E-2	1.861156E-2	2.579824E-2	1.465554E-2	1.795898E-2	1.460209E-2	1.178881E-2	1.936810E-2	6.027151E-3	1.605326E-2	1.734675E-2	1.118299E-2	1.337879E-2	6.755550E-3	8.771874E-3	1.459729E-2	1.184137E-2	4.800196E-3	1.122544E-2	7.781684E-3	2.040651E-2	1.662609E-2	1.808223E-2	1.091242E-2	8.406596E-3	1.056519E-2	9.670897E-3	1.840491E-2	1.394183E-2	6.887042E-3	2.428216E-2	1.127848E-2	2.523207E-2	1.846448E-2	4.144558E-3	5.608284E-3	8.079365E-3	2.398780E-2	1.152238E-2	2.997983E-3	1.798165E-2	1.793354E-2	7.134040E-3	1.507046E-2	2.473611E-2	1.283700E-2	9.572133E-3	8.987049E-3	1.323848E-2	1.440672E-2	1.631166E-2	9.372069E-3	2.015619E-2	2.181148E-2	1.191538E-2	1.559303E-2	1.536258E-2	2.773345E-3	2.113515E-2	3.102722E-2	5.867384E-3	1.813857E-2	1.121076E-2	5.693970E-3	1.758277E-2	1.682774E-2	1.411615E-2	1.100919E-2	2.048818E-2	1.697824E-2	9.049033E-3	6.830016E-3	1.849204E-2	1.096663E-2	1.111459E-3	1.128278E-2	2.132823E-2
5.331680E+2	9.228224E-3	3.333613E-2	1.596529E-2	3.238022E-2	2.413838E-2	1.787312E-2	5.011790E-3	2.074339E-2	2.153053E-2	1.090078E-2	2.828718E-2	1.142160E-2	1.896913E-2	1.232604E-2	5.391833E-3	2.857374E-2	1.563221E-2	1.897294E-2	1.907833E-2	2.867005E-2	2.735076E-2	2.817993E-2	2.118646E-2	2.135221E-2	1.374659E-2	3.937814E-3	1.358476E-2	1.758661E-2	2.051705E-2	5.123470E-3	2.183137E-2	2.441229E-2	1.839772E-2	2.231703E-2	2.837442E-2	2.087388E-3	1.800582E-2	2.792408E-2	1.790148E-2	1.268189E-2	8.002757E-3	1.485012E-2	1.362181E-2	1.720494E-2	1.988970E-2	2.172873E-2	3.896881E-3	1.437523E-2	1.106869E-2	2.449467E-2	1.847346E-2	1.665672E-2	-7.723774E-4	1.820309E-2	1.540042E-2	2.118183E-2	2.556269E-2	3.295483E-2	2.294649E-2	9.334403E-3	1.114281E-2	7.297981E-3	5.619785E-3	1.565981E-2	2.057740E-2	2.602026E-2	1.433267E-2	1.608834E-2	2.084960E-2	8.623663E-3	2.063749E-2	1.285229E-2	1.840171E-2	1.417569E-2	1.830901E-2	2.453354E-2	1.502952E-2	1.951549E-2	1.082045E-2	1.009163E-2	1.532718E-2	2.486866E-2	1.798442E-2	1.753543E-2	2.604256E-2	2.650208E-2	1.071036E-2	2.173970E-2	2.017151E-2	2.889771E-2	2.047272E-2	1.468512E-2	2.398178E-2	2.535388E-2	2.737892E-2	1.114907E-2	1.877083E-2	2.580377E-2	1.468286E-2	1.246173E-2	1.906742E-2	1.874729E-2	7.354130E-3	9.919565E-3	1.812078E-2	2.236698E-2	1.353646E-2	7.483654E-3	1.141316E-2	2.669926E-2	1.602001E-2	3.300867E-2	2.138484E-2	2.086814E-2	2.763208E-2	2.253315E-2	2.699386E-2	2.073625E-2	6.887028E-3	7.891702E-3	1.426897E-2	2.856460E-2	1.458695E-2	2.775904E-2	3.949518E-3	1.805984E-2	2.530475E-2	1.338365E-2	3.580909E-3	1.577333E-2	2.384885E-2	2.100570E-2	1.277713E-2	2.290701E-2	2.139494E-2	3.447663E-2	1.276163E-2	1.857197E-2	1.237623E-2	8.345524E-3	1.397590E-2	2.708492E-2	1.340109E-2	1.489427E-2	1.081764E-2	1.536267E-2	2.080014E-2	1.172037E-2	1.848428E-2	2.366491E-2	2.178365E-2	1.582697E-2	1.640207E-2	6.149182E-3	3.140619E-2	1.589126E-2	1.406729E-2	1.428261E-2	2.709294E-2	1.712225E-2	1.516897E-2	3.750635E-2	1.788000E-3	7.780386E-3	3.537822E-2	1.103191E-2
5.333080E+2	1.686873E-2	3.260686E-2	3.387504E-2	1.137963E-2	2.875865E-2	5.957706E-3	2.224531E-2	2.213290E-2	2.214564E-2	1.090074E-2	2.153680E-2	8.800252E-3	2.471958E-2	2.911932E-2	2.339220E-2	2.230361E-2	2.484700E-2	2.782696E-2	2.911015E-2	3.119446E-2	3.016623E-2	2.706222E-2	3.165505E-2	1.668140E-2	1.311350E-2	1.557620E-2	2.190543E-2	6.616740E-3	1.488493E-2	2.245789E-2	2.987450E-2	3.742092E-2	1.616769E-2	1.669318E-2	2.500792E-2	2.998246E-2	2.747367E-2	2.112518E-2	3.888652E-2	2.633934E-2	1.830525E-2	1.749857E-2	2.603072E-2	2.222302E-2	1.881869E-2	3.028059E-2	3.054083E-2	3.277551E-2	1.707489E-2	3.038463E-2	1.216544E-2	3.376604E-2	8.238739E-3	3.124154E-2	2.177584E-2	2.987184E-2	2.195992E-2	2.551343E-2	1.804184E-2	2.504127E-2	2.800761E-2	2.432650E-2	1.853684E-2	1.445522E-2	2.182453E-2	3.241123E-2	2.373847E-2	2.741680E-2	2.084959E-2	1.649745E-2	6.305908E-3	2.955257E-2	2.609197E-2	2.262083E-2	2.942523E-2	2.873686E-2	3.349666E-2	3.162849E-2	2.800581E-2	2.051419E-2	2.037613E-2	1.717831E-2	2.853028E-2	1.753540E-2	1.422121E-2	1.742096E-2	2.051444E-2	2.539202E-2	3.072864E-2	3.580166E-2	2.915812E-2	1.815798E-2	1.575274E-2	2.781888E-2	3.285476E-2	1.242850E-2	1.996534E-2	1.459701E-2	2.770164E-2	1.595106E-2	1.287251E-2	1.934381E-2	2.351612E-2	3.976031E-2	1.753357E-2	1.249917E-2	3.033706E-2	1.870907E-2	2.334508E-2	2.418216E-2	2.329389E-2	1.032052E-2	2.076881E-2	2.363739E-2	1.751834E-2	3.742640E-2	2.515336E-2	1.950092E-2	1.462437E-2	1.396222E-2	2.503481E-2	1.923352E-2	2.298827E-2	1.291567E-2	1.666695E-2	3.336312E-2	2.398780E-2	1.152239E-2	1.232500E-2	1.062075E-2	2.187706E-2	2.932872E-2	2.883046E-2	1.559066E-2	1.283698E-2	2.024552E-2	2.282718E-2	1.257177E-2	1.846767E-2	3.091629E-2	2.606094E-2	2.645502E-2	3.410357E-2	2.144773E-2	3.537667E-2	7.260449E-3	2.010679E-2	2.785995E-2	1.782411E-2	3.324823E-2	1.813859E-2	2.736744E-2	2.711018E-2	1.354737E-2	2.440850E-2	2.713349E-2	1.773699E-2	4.393135E-2	1.128870E-2	1.774320E-2	1.850456E-2	2.068594E-2	1.931077E-2	2.334112E-2	2.065319E-2	2.132819E-2
5.334580E+2	2.798233E-2	3.260686E-2	3.817339E-2	1.789708E-2	2.809860E-2	1.846887E-2	3.086200E-2	2.143815E-2	2.091535E-2	3.111838E-2	3.785020E-2	2.846042E-2	3.099289E-2	2.738209E-2	3.036004E-2	3.045475E-2	2.311918E-2	2.023782E-2	3.475305E-2	4.192322E-2	2.171972E-2	1.532724E-2	2.700232E-2	3.653230E-2	1.564576E-2	1.680126E-2	1.774509E-2	2.977535E-2	2.840201E-2	2.843525E-2	4.162982E-2	4.747305E-2	2.285774E-2	2.481654E-2	3.443403E-2	2.998243E-2	2.924890E-2	3.358986E-2	3.049251E-2	3.146088E-2	2.731987E-2	1.749859E-2	4.170515E-2	1.595040E-2	3.006404E-2	3.577832E-2	2.165959E-2	4.025066E-2	1.587369E-2	4.936336E-2	4.181309E-2	3.376603E-2	2.385795E-2	3.479746E-2	2.757167E-2	3.204435E-2	1.835712E-2	1.130711E-2	3.030331E-2	2.692610E-2	3.222385E-2	2.369582E-2	1.501397E-2	3.734263E-2	2.182454E-2	3.305030E-2	2.750078E-2	4.407634E-2	1.836538E-2	2.830819E-2	3.783534E-2	1.823947E-2	3.506396E-2	3.317716E-2	3.923358E-2	3.894492E-2	3.573514E-2	3.432034E-2	3.309782E-2	1.761904E-2	3.299856E-2	1.787743E-2	4.434905E-2	1.822119E-2	2.790913E-2	2.909675E-2	3.781577E-2	2.904425E-2	2.479029E-2	2.406500E-2	2.233386E-2	1.537970E-2	3.714832E-2	3.459749E-2	1.946945E-2	1.306821E-2	2.772967E-2	4.426198E-2	4.551681E-2	1.804463E-2	1.850425E-2	3.485300E-2	1.513580E-2	3.172625E-2	2.986576E-2	2.631409E-2	3.302510E-2	2.057999E-2	2.230754E-2	3.173342E-2	2.693083E-2	4.017331E-2	2.200083E-2	4.925282E-2	2.826416E-2	3.133369E-2	2.760736E-2	3.741353E-2	3.605078E-2	2.428211E-2	1.905376E-2	2.856459E-2	3.203587E-2	2.168675E-2	3.214901E-2	4.001676E-2	2.464631E-2	2.331066E-2	1.407382E-2	4.374483E-2	3.107862E-2	2.724793E-2	1.507048E-2	2.717501E-2	2.322879E-2	1.905955E-2	1.779439E-2	2.390547E-2	2.185178E-2	3.888245E-2	3.757051E-2	3.590327E-2	3.669128E-2	1.787309E-2	2.241493E-2	3.745952E-2	3.882691E-2	2.248012E-2	3.234751E-2	2.708755E-2	2.178365E-2	2.448232E-2	2.889487E-2	2.229075E-2	1.624462E-2	2.121652E-2	2.629970E-2	3.910484E-2	3.088594E-2	2.084833E-2	1.906051E-2	1.702937E-2	3.099257E-2	1.000333E-2	1.931456E-2	2.390227E-2
5.336080E+2	3.631744E-2	2.458537E-2	3.172587E-2	5.120834E-2	4.129929E-2	2.323504E-2	3.332392E-2	3.255424E-2	3.690942E-2	2.916187E-2	3.334992E-2	3.304780E-2	3.203835E-2	4.475435E-2	3.500536E-2	6.055133E-2	3.290997E-2	4.616742E-2	2.722915E-2	4.570984E-2	3.861282E-2	4.382635E-2	3.747093E-2	4.996088E-2	4.033537E-2	3.272748E-2	1.774508E-2	4.744914E-2	3.853983E-2	3.740145E-2	4.348599E-2	4.924693E-2	2.118527E-2	2.856577E-2	5.261289E-2	4.326579E-2	2.747371E-2	4.605456E-2	4.068522E-2	3.032277E-2	3.053940E-2	4.663133E-2	3.582728E-2	3.727735E-2	3.756092E-2	4.616260E-2	3.371264E-2	4.657587E-2	3.809695E-2	5.394457E-2	4.559787E-2	3.313236E-2	3.587279E-2	4.783600E-2	3.162882E-2	4.725179E-2	2.556271E-2	3.769026E-2	4.624316E-2	4.263300E-2	3.116978E-2	5.775287E-2	3.321536E-2	3.794496E-2	3.990768E-2	3.688493E-2	3.251727E-2	5.407202E-2	4.569164E-2	4.011886E-2	3.210278E-2	4.302053E-2	3.057799E-2	3.036213E-2	4.315695E-2	4.254770E-2	3.629471E-2	3.970388E-2	3.437078E-2	3.730597E-2	3.741636E-2	2.137306E-2	3.907616E-2	6.142300E-2	3.413084E-2	4.336711E-2	2.455143E-2	4.182721E-2	3.072865E-2	4.201512E-2	3.908435E-2	4.038416E-2	3.111363E-2	4.938726E-2	2.494523E-2	3.609744E-2	4.086928E-2	4.294354E-2	4.620202E-2	5.084393E-2	3.258353E-2	3.246697E-2	2.291755E-2	3.287397E-2	3.162751E-2	3.947108E-2	4.579366E-2	3.866544E-2	3.268309E-2	4.494835E-2	3.966032E-2	2.703815E-2	3.308930E-2	3.194513E-2	4.406681E-2	2.794889E-2	3.190184E-2	4.050192E-2	2.890861E-2	2.913860E-2	2.623101E-2	3.856223E-2	4.043723E-2	4.800005E-2	3.933718E-2	3.535916E-2	3.584062E-2	2.641284E-2	2.864735E-2	2.902295E-2	4.028019E-2	3.210304E-2	3.341715E-2	2.717486E-2	3.912218E-2	2.261735E-2	4.107090E-2	2.857225E-2	3.471149E-2	2.958862E-2	3.296669E-2	5.102045E-2	5.157121E-2	3.693775E-2	3.469447E-2	3.377673E-2	4.021359E-2	3.458479E-2	5.875366E-2	3.119466E-2	4.243906E-2	2.852152E-2	4.138763E-2	3.843238E-2	3.082308E-2	4.429264E-2	3.241589E-2	2.738324E-2	3.720763E-2	3.140553E-2	3.184688E-2	4.481960E-2	2.932374E-2	1.556074E-2	3.805553E-2	2.905056E-2
5.337580E+2	6.132294E-2	6.906838E-2	6.682909E-2	4.034598E-2	3.733912E-2	2.919274E-2	5.978975E-2	4.158603E-2	3.998527E-2	3.046621E-2	4.572562E-2	5.139710E-2	4.563040E-2	5.112423E-2	3.036010E-2	3.923291E-2	4.788385E-2	6.134593E-2	5.105467E-2	5.833186E-2	4.593328E-2	3.320906E-2	4.619481E-2	4.762552E-2	4.539987E-2	4.069060E-2	4.032979E-2	5.110568E-2	4.811446E-2	3.620588E-2	5.957221E-2	5.161221E-2	5.352064E-2	5.231112E-2	4.655323E-2	5.522083E-2	4.404242E-2	4.378827E-2	3.468946E-2	5.820663E-2	3.633454E-2	4.001020E-2	4.823617E-2	4.041355E-2	6.058698E-2	4.188665E-2	6.479732E-2	6.152617E-2	3.569438E-2	5.721660E-2	4.749031E-2	5.467745E-2	3.647351E-2	4.605803E-2	5.771020E-2	4.942440E-2	3.517018E-2	5.595560E-2	4.685632E-2	4.640269E-2	3.749413E-2	5.586099E-2	5.200391E-2	5.059326E-2	3.616636E-2	5.669686E-2	4.882087E-2	6.606679E-2	5.003901E-2	6.242801E-2	3.783537E-2	3.332360E-2	4.531769E-2	5.499376E-2	4.184923E-2	3.714346E-2	4.189072E-2	3.970392E-2	4.328173E-2	7.262662E-2	5.761224E-2	3.395721E-2	5.159941E-2	6.073739E-2	3.226438E-2	5.634015E-2	3.896918E-2	3.817491E-2	5.184281E-2	5.168061E-2	5.149204E-2	5.358099E-2	3.989128E-2	4.630616E-2	4.989056E-2	6.296500E-2	5.341158E-2	4.821730E-2	6.470267E-2	3.758462E-2	3.877839E-2	3.783556E-2	3.429078E-2	6.271462E-2	5.100672E-2	4.276038E-2	4.915376E-2	4.427818E-2	3.942736E-2	5.627522E-2	5.299581E-2	5.808501E-2	3.308928E-2	5.063751E-2	6.176585E-2	5.164259E-2	4.785276E-2	4.420799E-2	5.569171E-2	4.370784E-2	3.580061E-2	4.589385E-2	4.496100E-2	3.450600E-2	2.551382E-2	5.731613E-2	5.559524E-2	3.571939E-2	2.689850E-2	5.478630E-2	4.488089E-2	4.458754E-2	3.628393E-2	4.546576E-2	5.195917E-2	5.404434E-2	5.742744E-2	3.790587E-2	4.892482E-2	4.087402E-2	5.253298E-2	6.298823E-2	4.704265E-2	3.455466E-2	3.878763E-2	3.598653E-2	4.992030E-2	4.870690E-2	3.630841E-2	5.720662E-2	3.575644E-2	4.814021E-2	3.960298E-2	3.910489E-2	2.324226E-2	4.015079E-2	4.097856E-2	5.496338E-2	4.479382E-2	4.630998E-2	3.240280E-2	4.701359E-2	3.099256E-2	4.223629E-2	4.207146E-2	5.736560E-2
5.339140E+2	5.159855E-2	6.979745E-2	6.181432E-2	5.120835E-2	5.318000E-2	6.076855E-2	5.978966E-2	5.478630E-2	7.197356E-2	5.655352E-2	6.710166E-2	7.236794E-2	6.706399E-2	6.907564E-2	6.403822E-2	5.867020E-2	4.385234E-2	7.715652E-2	4.917383E-2	7.600267E-2	6.170000E-2	5.723772E-2	5.898969E-2	7.623427E-2	6.692403E-2	6.519239E-2	5.637681E-2	6.816992E-2	6.501103E-2	6.190854E-2	7.132752E-2	9.182045E-2	5.352075E-2	7.293207E-2	5.597934E-2	6.186269E-2	6.297821E-2	5.908593E-2	7.366164E-2	7.641658E-2	4.341744E-2	4.994180E-2	6.195137E-2	6.048601E-2	4.666429E-2	7.487234E-2	6.733467E-2	7.302619E-2	7.353393E-2	7.292311E-2	6.893781E-2	6.545013E-2	6.230522E-2	5.020660E-2	4.669816E-2	5.051059E-2	6.159087E-2	6.745607E-2	7.076624E-2	7.341851E-2	4.381851E-2	6.595188E-2	5.435235E-2	7.046912E-2	5.861446E-2	6.117053E-2	5.634520E-2	9.272221E-2	5.997579E-2	6.767711E-2	7.509724E-2	5.433350E-2	7.671964E-2	4.795612E-2	6.211998E-2	6.836792E-2	4.133119E-2	8.681024E-2	8.147151E-2	6.683652E-2	4.814543E-2	6.961235E-2	6.544073E-2	8.405256E-2	8.079425E-2	6.023212E-2	6.030756E-2	7.469757E-2	8.813268E-2	5.858464E-2	5.335318E-2	6.747239E-2	5.689798E-2	6.787444E-2	5.293275E-2	6.488420E-2	6.177309E-2	6.865307E-2	5.305402E-2	7.875805E-2	5.961586E-2	7.064334E-2	5.943156E-2	7.017489E-2	6.333887E-2	4.802315E-2	7.805082E-2	6.485813E-2	7.262919E-2	6.193883E-2	6.693718E-2	8.853475E-2	7.682713E-2	5.202209E-2	6.429436E-2	8.075210E-2	5.950936E-2	6.088507E-2	6.878544E-2	7.041817E-2	6.809808E-2	6.722214E-2	6.305636E-2	6.554224E-2	6.366613E-2	6.197372E-2	6.876504E-2	8.783595E-2	5.079914E-2	8.496585E-2	5.079615E-2	9.244475E-2	5.520385E-2	8.143758E-2	6.479619E-2	5.404460E-2	7.126748E-2	6.390669E-2	6.719923E-2	6.211717E-2	6.289147E-2	5.416981E-2	7.162654E-2	5.540678E-2	6.198233E-2	5.513713E-2	5.754706E-2	4.467199E-2	5.545274E-2	7.226618E-2	7.888999E-2	6.487407E-2	4.495700E-2	5.121113E-2	6.114631E-2	5.790168E-2	4.892967E-2	6.668515E-2	7.577017E-2	6.618234E-2	5.964355E-2	8.211692E-2	8.189206E-2	6.780035E-2	6.215100E-2	4.449517E-2
5.340640E+2	8.285561E-2	9.240352E-2	8.545507E-2	8.524371E-2	9.806212E-2	7.447122E-2	9.425678E-2	7.493423E-2	8.058564E-2	8.264078E-2	9.747835E-2	7.498958E-2	9.111157E-2	1.026620E-1	9.190989E-2	1.044420E-1	9.165395E-2	9.170274E-2	1.037214E-1	1.176555E-1	8.084539E-2	1.064126E-1	8.865080E-2	8.966254E-2	7.262180E-2	8.724411E-2	9.500848E-2	8.340604E-2	8.697597E-2	7.326548E-2	9.978790E-2	9.300325E-2	7.080328E-2	9.292803E-2	8.964382E-2	9.706320E-2	9.197338E-2	8.968101E-2	8.205571E-2	1.008863E-1	9.042252E-2	8.701993E-2	1.115869E-1	7.930395E-2	9.432303E-2	8.708934E-2	9.968817E-2	9.545161E-2	9.335457E-2	9.190154E-2	1.004777E-1	1.123423E-1	8.693543E-2	1.071017E-1	7.741622E-2	8.852927E-2	8.440850E-2	9.519232E-2	1.001935E-1	9.603647E-2	7.280482E-2	1.037930E-1	7.548954E-2	1.029933E-1	8.230980E-2	9.632058E-2	9.083334E-2	9.138935E-2	7.674416E-2	9.523541E-2	7.337758E-2	8.504070E-2	7.928300E-2	8.666278E-2	8.435231E-2	8.638206E-2	8.218283E-2	1.063256E-1	9.674741E-2	1.038943E-1	8.664367E-2	8.988657E-2	8.587330E-2	1.135395E-1	9.074912E-2	9.720529E-2	8.568277E-2	1.069594E-1	7.163728E-2	9.034242E-2	1.017432E-1	1.112300E-1	7.939052E-2	1.140926E-1	9.187152E-2	1.077440E-1	7.192656E-2	9.106655E-2	9.759198E-2	8.852832E-2	8.495842E-2	8.853844E-2	8.636844E-2	9.485103E-2	1.073823E-1	1.026247E-1	8.409886E-2	8.044896E-2	8.507988E-2	1.085051E-1	1.008822E-1	1.046555E-1	8.113919E-2	7.279121E-2	9.463541E-2	1.024148E-1	7.668731E-2	8.929815E-2	9.735401E-2	9.409344E-2	1.015916E-1	8.921672E-2	9.149192E-2	8.375917E-2	8.688912E-2	1.045569E-1	9.181217E-2	8.907697E-2	6.537270E-2	9.674338E-2	1.053480E-1	9.591295E-2	7.183065E-2	7.838895E-2	8.680245E-2	9.377300E-2	8.888219E-2	7.457359E-2	8.953420E-2	1.052672E-1	8.245771E-2	8.377413E-2	1.046212E-1	1.143879E-1	7.699050E-2	9.712133E-2	9.914720E-2	1.240250E-1	8.383951E-2	9.553978E-2	8.678751E-2	9.257140E-2	8.957409E-2	9.223763E-2	7.455836E-2	8.156968E-2	7.278285E-2	1.059869E-1	9.599940E-2	8.791787E-2	6.742641E-2	9.016164E-2	9.691132E-2	8.447255E-2	4.608731E-2	8.053257E-2
5.342090E+2	1.537040E-1	1.500128E-1	1.198420E-1	1.229000E-1	1.026827E-1	9.770635E-2	1.361095E-1	1.332936E-1	1.433315E-1	1.361196E-1	1.452932E-1	1.326591E-1	1.418201E-1	1.478303E-1	1.430076E-1	1.696509E-1	1.106596E-1	1.258540E-1	1.325630E-1	1.529973E-1	1.365929E-1	1.516761E-1	1.148220E-1	1.392898E-1	1.144041E-1	1.350229E-1	1.051119E-1	1.419119E-1	1.269643E-1	1.348330E-1	1.598021E-1	1.503594E-1	1.154037E-1	1.166736E-1	1.509136E-1	1.588308E-1	1.339872E-1	1.282081E-1	1.414132E-1	1.373059E-1	1.193979E-1	1.333676E-1	1.239959E-1	1.526935E-1	1.323428E-1	1.561150E-1	1.605886E-1	1.466275E-1	1.287912E-1	1.383667E-1	1.837432E-1	1.522641E-1	1.289873E-1	1.408831E-1	1.261011E-1	1.406690E-1	1.420533E-1	1.364583E-1	1.283948E-1	1.305917E-1	1.165480E-1	1.681232E-1	1.406619E-1	1.632234E-1	1.321947E-1	1.333880E-1	1.447600E-1	1.593602E-1	1.338807E-1	1.346045E-1	1.255445E-1	1.346029E-1	1.376006E-1	1.436670E-1	1.412409E-1	1.356209E-1	1.157593E-1	1.776579E-1	1.457579E-1	1.525328E-1	1.447067E-1	1.367278E-1	1.504667E-1	1.629130E-1	1.399010E-1	1.348274E-1	1.202854E-1	1.410472E-1	1.468564E-1	1.345275E-1	1.445501E-1	1.535990E-1	1.238276E-1	1.442881E-1	1.289851E-1	1.838688E-1	1.101507E-1	1.484189E-1	1.421301E-1	1.464506E-1	1.300122E-1	1.320834E-1	1.156994E-1	1.556800E-1	1.114931E-1	1.289389E-1	1.472692E-1	1.559089E-1	1.115378E-1	1.632522E-1	1.530122E-1	1.721227E-1	1.070122E-1	1.593299E-1	1.407790E-1	1.416785E-1	1.226993E-1	1.603312E-1	1.229467E-1	1.371943E-1	1.326932E-1	1.345393E-1	1.386681E-1	1.208674E-1	1.079006E-1	1.584511E-1	1.701728E-1	1.604267E-1	1.160883E-1	1.298671E-1	1.230940E-1	1.520931E-1	1.194170E-1	1.137511E-1	1.369275E-1	1.447680E-1	1.215953E-1	1.339088E-1	1.281135E-1	1.377959E-1	1.192882E-1	1.669189E-1	1.673753E-1	1.596666E-1	1.506673E-1	1.589925E-1	1.435207E-1	1.563038E-1	1.472140E-1	1.270282E-1	1.445012E-1	1.335399E-1	1.080157E-1	1.164499E-1	1.136288E-1	1.076041E-1	1.327217E-1	1.645946E-1	1.693309E-1	1.754807E-1	1.030062E-1	1.442796E-1	1.394670E-1	1.467158E-1	8.624645E-2	1.191437E-1
5.343550E+2	2.169127E-1	2.418950E-1	2.058089E-1	1.924191E-1	2.168686E-1	1.805185E-1	2.099675E-1	2.069378E-1	2.011564E-1	2.163383E-1	2.054837E-1	2.335811E-1	1.951426E-1	2.538014E-1	2.393969E-1	2.486537E-1	1.895609E-1	2.333672E-1	2.209681E-1	2.306228E-1	2.075439E-1	2.092331E-1	1.968263E-1	2.169415E-1	2.175935E-1	2.122035E-1	1.805926E-1	2.284517E-1	2.120095E-1	2.442189E-1	2.049671E-1	2.520631E-1	1.806318E-1	2.004070E-1	2.323815E-1	2.292328E-1	1.937528E-1	2.160275E-1	2.271523E-1	2.312008E-1	2.153394E-1	2.161307E-1	2.154299E-1	2.392559E-1	1.923180E-1	2.135348E-1	2.221238E-1	2.535793E-1	1.804453E-1	2.391505E-1	2.108677E-1	2.536527E-1	2.058822E-1	2.208923E-1	2.060841E-1	2.085598E-1	1.948942E-1	2.196665E-1	2.105466E-1	2.311160E-1	1.998177E-1	2.324537E-1	2.416500E-1	2.662170E-1	1.864439E-1	2.119970E-1	1.911621E-1	2.539866E-1	1.730072E-1	2.389322E-1	2.224262E-1	2.278010E-1	1.978414E-1	2.330445E-1	2.177465E-1	2.310958E-1	2.131318E-1	2.698522E-1	2.355035E-1	2.422823E-1	2.507345E-1	2.269139E-1	2.532886E-1	2.650888E-1	1.952748E-1	2.262874E-1	2.171729E-1	2.226142E-1	2.266947E-1	2.380858E-1	2.227183E-1	2.508382E-1	2.061178E-1	2.225508E-1	2.385006E-1	2.791843E-1	1.883910E-1	2.558716E-1	2.360026E-1	2.315891E-1	2.156142E-1	1.988921E-1	2.120729E-1	2.354465E-1	2.130871E-1	2.013026E-1	2.339605E-1	2.051763E-1	1.940236E-1	2.494627E-1	2.306009E-1	2.270516E-1	1.969516E-1	2.237146E-1	2.197921E-1	2.398385E-1	2.306746E-1	2.183924E-1	2.235320E-1	2.027561E-1	2.230068E-1	2.325160E-1	2.336680E-1	1.910362E-1	2.074282E-1	2.555938E-1	2.617026E-1	2.454268E-1	1.813774E-1	2.410169E-1	2.085364E-1	2.478080E-1	1.887905E-1	1.930112E-1	1.778838E-1	2.313408E-1	2.178465E-1	2.119109E-1	2.255763E-1	2.599434E-1	2.113650E-1	2.393549E-1	2.644181E-1	2.418824E-1	2.059254E-1	2.569556E-1	2.322676E-1	2.349842E-1	1.993663E-1	2.194384E-1	1.997848E-1	2.166316E-1	2.014141E-1	1.944677E-1	1.865213E-1	2.087842E-1	1.755351E-1	2.245822E-1	2.009392E-1	2.574543E-1	1.697177E-1	2.393515E-1	2.254115E-1	2.456369E-1	2.160945E-1	2.169596E-1
5.345050E+2	4.113992E-1	4.103466E-1	3.383414E-1	4.357362E-1	3.383150E-1	2.716713E-1	3.761475E-1	3.785422E-1	3.574065E-1	3.559053E-1	3.551165E-1	4.164208E-1	3.441326E-1	4.130476E-1	4.153360E-1	4.411463E-1	3.439083E-1	3.977990E-1	4.272472E-1	4.540328E-1	3.652131E-1	3.651400E-1	3.858427E-1	3.926805E-1	3.340778E-1	3.849416E-1	3.232325E-1	3.753264E-1	3.545022E-1	3.834923E-1	3.825354E-1	4.412793E-1	3.110885E-1	3.859955E-1	4.108036E-1	3.813275E-1	3.683164E-1	3.236774E-1	3.782443E-1	3.694822E-1	3.872621E-1	3.849685E-1	3.689087E-1	3.854080E-1	3.974111E-1	4.364937E-1	4.384474E-1	3.979069E-1	3.095799E-1	4.112674E-1	4.247093E-1	4.412214E-1	3.602726E-1	3.702415E-1	3.585154E-1	3.910494E-1	3.360039E-1	4.090844E-1	3.889508E-1	3.687081E-1	3.668847E-1	4.159834E-1	4.236635E-1	4.529303E-1	3.535576E-1	3.960560E-1	4.131394E-1	4.052549E-1	3.630489E-1	4.042820E-1	3.611559E-1	3.894166E-1	3.516463E-1	4.146140E-1	3.871048E-1	3.373793E-1	3.407232E-1	4.394349E-1	3.927183E-1	4.194654E-1	3.561317E-1	4.268622E-1	4.141126E-1	4.111519E-1	3.800620E-1	4.014233E-1	3.740381E-1	4.161846E-1	3.777925E-1	4.182773E-1	3.927043E-1	4.223968E-1	3.712473E-1	4.542568E-1	4.295452E-1	4.320728E-1	3.293431E-1	4.477048E-1	4.134688E-1	4.018666E-1	3.485230E-1	3.897743E-1	3.569323E-1	3.903888E-1	3.358222E-1	4.012898E-1	3.912136E-1	3.947614E-1	3.361692E-1	4.137038E-1	4.154799E-1	4.652771E-1	3.343249E-1	4.210221E-1	3.778185E-1	3.989245E-1	3.411043E-1	3.962831E-1	3.943476E-1	3.721242E-1	3.641584E-1	4.138061E-1	4.081574E-1	3.732049E-1	3.357083E-1	4.385683E-1	4.671509E-1	4.464476E-1	3.434348E-1	4.103181E-1	3.925678E-1	4.073321E-1	3.590705E-1	3.460437E-1	3.392630E-1	3.872901E-1	3.656840E-1	3.839158E-1	4.137338E-1	4.166116E-1	3.799801E-1	4.106827E-1	4.656193E-1	4.557639E-1	3.710167E-1	4.256278E-1	4.222419E-1	4.152095E-1	3.723264E-1	4.364321E-1	3.692806E-1	3.880078E-1	3.400247E-1	3.538656E-1	3.089805E-1	3.058223E-1	3.559634E-1	4.190224E-1	3.994403E-1	4.245071E-1	2.786803E-1	4.170624E-1	3.806125E-1	4.612650E-1	4.035037E-1	4.203134E-1
5.346870E+2	7.434158E-1	6.750566E-1	6.557021E-1	7.753665E-1	6.498516E-1	5.355974E-1	6.623466E-1	7.307827E-1	6.416090E-1	6.552565E-1	6.825086E-1	7.978280E-1	6.175412E-1	7.425423E-1	7.701180E-1	7.678181E-1	6.295662E-1	7.038959E-1	7.144072E-1	7.550688E-1	6.416975E-1	6.657777E-1	6.132435E-1	6.851889E-1	6.107276E-1	6.654882E-1	5.354098E-1	6.605431E-1	6.248442E-1	7.307781E-1	6.844618E-1	7.422517E-1	5.469139E-1	7.053077E-1	7.743801E-1	7.021205E-1	6.150727E-1	6.148970E-1	6.648395E-1	6.949843E-1	6.841012E-1	6.385558E-1	6.686820E-1	7.078208E-1	6.415952E-1	6.942715E-1	7.765718E-1	7.394629E-1	6.321164E-1	6.959480E-1	7.085698E-1	7.434868E-1	6.744595E-1	7.299849E-1	6.123736E-1	6.593524E-1	6.122184E-1	7.128292E-1	6.856779E-1	6.784483E-1	6.293434E-1	7.691683E-1	7.266275E-1	7.733545E-1	6.672070E-1	6.548894E-1	7.022119E-1	7.517730E-1	6.325855E-1	7.579469E-1	6.409082E-1	6.625470E-1	6.092706E-1	7.826793E-1	6.480089E-1	6.784470E-1	5.919880E-1	7.301479E-1	7.103301E-1	7.124540E-1	6.634873E-1	7.897048E-1	7.449885E-1	7.073936E-1	6.818180E-1	6.816417E-1	6.508590E-1	7.028876E-1	6.964844E-1	6.785550E-1	6.631921E-1	6.995299E-1	6.312850E-1	7.864106E-1	7.252369E-1	7.461664E-1	6.070664E-1	7.430359E-1	7.149573E-1	7.661479E-1	6.222247E-1	6.576055E-1	6.538340E-1	6.859266E-1	6.335569E-1	6.466683E-1	6.949687E-1	6.816338E-1	6.038594E-1	7.434437E-1	7.191659E-1	8.050017E-1	5.881269E-1	7.062534E-1	7.039846E-1	7.814085E-1	6.404905E-1	6.754728E-1	6.972930E-1	6.416562E-1	6.608165E-1	7.590577E-1	7.118980E-1	6.943613E-1	5.994564E-1	7.406421E-1	7.970538E-1	7.206803E-1	5.871035E-1	7.261007E-1	6.889881E-1	8.089177E-1	6.233770E-1	6.618646E-1	6.131183E-1	6.902943E-1	6.399690E-1	7.019252E-1	6.560376E-1	7.326025E-1	6.429737E-1	7.539685E-1	7.502773E-1	7.876080E-1	6.582207E-1	7.799146E-1	6.815502E-1	7.514506E-1	6.159228E-1	7.280391E-1	6.195758E-1	6.580557E-1	5.952343E-1	5.798482E-1	5.218259E-1	6.359886E-1	5.737001E-1	7.623962E-1	6.801229E-1	7.132783E-1	5.116152E-1	7.549335E-1	7.110422E-1	7.035679E-1	6.042990E-1	7.008898E-1
5.348070E+2	1.012225E+0	1.025085E+0	9.830934E-1	1.117168E+0	9.204658E-1	8.197798E-1	9.257725E-1	1.004516E+0	9.621075E-1	9.324335E-1	9.688371E-1	1.066516E+0	8.977458E-1	1.070878E+0	1.109222E+0	1.117063E+0	9.175275E-1	1.066279E+0	1.005328E+0	1.095863E+0	9.502765E-1	1.012238E+0	9.912764E-1	1.007473E+0	8.880103E-1	9.319462E-1	8.082084E-1	9.719662E-1	9.002560E-1	1.052363E+0	1.042072E+0	1.077518E+0	7.883146E-1	9.915003E-1	1.115065E+0	1.066086E+0	9.630157E-1	8.936524E-1	1.005996E+0	1.003414E+0	9.352229E-1	9.636508E-1	1.009601E+0	1.034624E+0	9.693157E-1	1.037567E+0	1.097567E+0	1.083892E+0	9.408385E-1	1.036256E+0	1.099036E+0	1.082504E+0	9.417889E-1	9.871993E-1	9.433173E-1	9.575279E-1	9.010431E-1	9.550134E-1	9.879227E-1	9.705972E-1	8.707210E-1	1.116048E+0	1.007281E+0	1.091369E+0	9.440671E-1	9.936094E-1	1.044582E+0	1.058976E+0	9.704380E-1	1.056495E+0	9.602158E-1	9.609961E-1	8.950922E-1	1.077554E+0	9.533771E-1	9.036242E-1	9.070484E-1	1.123823E+0	1.080772E+0	1.049449E+0	9.550644E-1	1.063060E+0	1.044227E+0	1.133926E+0	9.767301E-1	1.012454E+0	9.790078E-1	1.045592E+0	9.841644E-1	1.062411E+0	9.678019E-1	1.048203E+0	8.858365E-1	1.114250E+0	1.049525E+0	1.113355E+0	9.218196E-1	1.041005E+0	1.053445E+0	1.043197E+0	9.190162E-1	9.964215E-1	9.597133E-1	9.958102E-1	8.819631E-1	9.295445E-1	9.637777E-1	1.000934E+0	8.788133E-1	1.024729E+0	1.107715E+0	1.110693E+0	8.801220E-1	1.100869E+0	1.034577E+0	1.046101E+0	9.159508E-1	9.873991E-1	9.794063E-1	9.973885E-1	9.000569E-1	1.046989E+0	1.018224E+0	9.703136E-1	8.587815E-1	1.140523E+0	1.080204E+0	1.042066E+0	8.855692E-1	1.045564E+0	1.029446E+0	1.059995E+0	9.238038E-1	9.898790E-1	9.279298E-1	9.849967E-1	9.079634E-1	9.292649E-1	1.022877E+0	1.049259E+0	9.053908E-1	1.058201E+0	1.080222E+0	1.064642E+0	9.181367E-1	1.160718E+0	1.028912E+0	1.066172E+0	9.334567E-1	9.730984E-1	9.518844E-1	9.500293E-1	8.528233E-1	9.208388E-1	7.883211E-1	8.708920E-1	8.556569E-1	1.114734E+0	1.055631E+0	1.044899E+0	7.517772E-1	1.034299E+0	9.964123E-1	1.058131E+0	8.613169E-1	9.171139E-1
5.349630E+2	1.709599E+0	1.493982E+0	1.443016E+0	1.596559E+0	1.677525E+0	1.146856E+0	1.342451E+0	1.533225E+0	1.536662E+0	1.351134E+0	1.453735E+0	1.611759E+0	1.359351E+0	1.535301E+0	1.567942E+0	1.625566E+0	1.356383E+0	1.520365E+0	1.478702E+0	1.573610E+0	1.410332E+0	1.402287E+0	1.351282E+0	1.509585E+0	1.340021E+0	1.416470E+0	1.235534E+0	1.386383E+0	1.310273E+0	1.490504E+0	1.492485E+0	1.585447E+0	1.193062E+0	1.434540E+0	1.581656E+0	1.487166E+0	1.380784E+0	1.326518E+0	1.354947E+0	1.398912E+0	1.373721E+0	1.364224E+0	1.432158E+0	1.439211E+0	1.319528E+0	1.483485E+0	1.550516E+0	1.549650E+0	1.301815E+0	1.525120E+0	1.580970E+0	1.521009E+0	1.340681E+0	1.392577E+0	1.417997E+0	1.421354E+0	1.291948E+0	1.402852E+0	1.312238E+0	1.363269E+0	1.298666E+0	1.523471E+0	1.524551E+0	1.503944E+0	1.292012E+0	1.386653E+0	1.467846E+0	1.532105E+0	1.319468E+0	1.471837E+0	1.390735E+0	1.376888E+0	1.307163E+0	1.494882E+0	1.342443E+0	1.358181E+0	1.257364E+0	1.578060E+0	1.504679E+0	1.504566E+0	1.364029E+0	1.458062E+0	1.518133E+0	1.626975E+0	1.439007E+0	1.352996E+0	1.375783E+0	1.506387E+0	1.446698E+0	1.413820E+0	1.349338E+0	1.549682E+0	1.303321E+0	1.564722E+0	1.532004E+0	1.552832E+0	1.227614E+0	1.484661E+0	1.535828E+0	1.519135E+0	1.278884E+0	1.379378E+0	1.423025E+0	1.370542E+0	1.277179E+0	1.384119E+0	1.355569E+0	1.423761E+0	1.225876E+0	1.463965E+0	1.521720E+0	1.565648E+0	1.199837E+0	1.541174E+0	1.415736E+0	1.548408E+0	1.280982E+0	1.448803E+0	1.381152E+0	1.384690E+0	1.284634E+0	1.448892E+0	1.453154E+0	1.362312E+0	1.201047E+0	1.571012E+0	1.479249E+0	1.465822E+0	1.233584E+0	1.510037E+0	1.450743E+0	1.484469E+0	1.263216E+0	1.377645E+0	1.335658E+0	1.423789E+0	1.302407E+0	1.319943E+0	1.402577E+0	1.507976E+0	1.374984E+0	1.537538E+0	1.606840E+0	1.538281E+0	1.389533E+0	1.584242E+0	1.436594E+0	1.481765E+0	1.259573E+0	1.484436E+0	1.304242E+0	1.345867E+0	1.271032E+0	1.305546E+0	1.146368E+0	1.229458E+0	1.204282E+0	1.581531E+0	1.437459E+0	1.484577E+0	1.047532E+0	1.550610E+0	1.405277E+0	1.488274E+0	1.254877E+0	1.367583E+0
5.351090E+2	2.075653E+0	1.849112E+0	1.836318E+0	1.976019E+0	2.006886E+0	1.499554E+0	1.594803E+0	1.907696E+0	1.832553E+0	1.758094E+0	1.725440E+0	1.963676E+0	1.752998E+0	2.002615E+0	1.929110E+0	1.975439E+0	1.825183E+0	1.910577E+0	1.890637E+0	1.855713E+0	1.931767E+0	1.822506E+0	1.767696E+0	1.810852E+0	1.833810E+0	1.709879E+0	1.489909E+0	1.693541E+0	1.699455E+0	1.878435E+0	1.902686E+0	1.901200E+0	1.443385E+0	1.791346E+0	1.988993E+0	1.833865E+0	1.819857E+0	1.659098E+0	1.759061E+0	1.761971E+0	1.798053E+0	1.716466E+0	1.784181E+0	1.818079E+0	1.616728E+0	1.910467E+0	1.931778E+0	1.863030E+0	1.606934E+0	1.838596E+0	1.845275E+0	1.875240E+0	1.750383E+0	1.788472E+0	1.677073E+0	1.699436E+0	1.688254E+0	1.867598E+0	1.719318E+0	1.663584E+0	1.647555E+0	1.886116E+0	1.866264E+0	1.976152E+0	1.638710E+0	1.717065E+0	1.856620E+0	1.897279E+0	1.678438E+0	1.803192E+0	1.720362E+0	1.703892E+0	1.641688E+0	1.869283E+0	1.638659E+0	1.693845E+0	1.531013E+0	1.981828E+0	1.962953E+0	1.849088E+0	1.680854E+0	1.908992E+0	1.865482E+0	1.896472E+0	1.733923E+0	1.720134E+0	1.689515E+0	1.833874E+0	1.757469E+0	1.856360E+0	1.724673E+0	1.845566E+0	1.579268E+0	1.938780E+0	1.912875E+0	1.833021E+0	1.585965E+0	1.874918E+0	1.828408E+0	1.880629E+0	1.610591E+0	1.770686E+0	1.704365E+0	1.745845E+0	1.546726E+0	1.622921E+0	1.684188E+0	1.730592E+0	1.584871E+0	1.889984E+0	1.932697E+0	1.956122E+0	1.600870E+0	1.852716E+0	1.836718E+0	1.836797E+0	1.581592E+0	1.763816E+0	1.735282E+0	1.693072E+0	1.641702E+0	1.848130E+0	1.784686E+0	1.680771E+0	1.493547E+0	1.918996E+0	1.917144E+0	1.870346E+0	1.529717E+0	1.872929E+0	1.724817E+0	1.939460E+0	1.603202E+0	1.623346E+0	1.621125E+0	1.690032E+0	1.637086E+0	1.687954E+0	1.699024E+0	1.833259E+0	1.671928E+0	1.940034E+0	1.897318E+0	1.925530E+0	1.634442E+0	2.005557E+0	1.867848E+0	1.817334E+0	1.582387E+0	1.883513E+0	1.614074E+0	1.654575E+0	1.572052E+0	1.617618E+0	1.365627E+0	1.546020E+0	1.485625E+0	1.903530E+0	1.823716E+0	1.816198E+0	1.351625E+0	1.832903E+0	1.786606E+0	1.863955E+0	1.566777E+0	1.676473E+0
5.352650E+2	2.234716E+0	2.109446E+0	2.046932E+0	2.301163E+0	2.232617E+0	1.625260E+0	1.935779E+0	2.094584E+0	2.106301E+0	1.954407E+0	1.927948E+0	2.210737E+0	1.915580E+0	2.107425E+0	2.192730E+0	2.220600E+0	1.974922E+0	2.097774E+0	2.083119E+0	2.176312E+0	2.119846E+0	1.943208E+0	1.917746E+0	1.982504E+0	1.996509E+0	1.968990E+0	1.631955E+0	2.008620E+0	1.876866E+0	2.060150E+0	2.103149E+0	2.160784E+0	1.651338E+0	1.980680E+0	2.256293E+0	2.106170E+0	2.118094E+0	1.847769E+0	1.949122E+0	2.041379E+0	2.068492E+0	1.959463E+0	2.038886E+0	2.073999E+0	1.796117E+0	2.057070E+0	2.248968E+0	2.127535E+0	2.001544E+0	2.065032E+0	2.188427E+0	2.123641E+0	2.279638E+0	1.945525E+0	1.943686E+0	1.905821E+0	2.005899E+0	1.962310E+0	1.892202E+0	1.990288E+0	1.864691E+0	2.144697E+0	2.168055E+0	2.186955E+0	1.913701E+0	1.934356E+0	2.049124E+0	2.063876E+0	2.088952E+0	2.027600E+0	1.918139E+0	1.870354E+0	2.048630E+0	2.133895E+0	1.949909E+0	1.836758E+0	1.857827E+0	2.156125E+0	2.100438E+0	2.077227E+0	1.838632E+0	2.098459E+0	2.067176E+0	2.185854E+0	1.978436E+0	1.974405E+0	1.914434E+0	2.049969E+0	2.006223E+0	2.042074E+0	1.856195E+0	2.088666E+0	1.791031E+0	2.170484E+0	2.087490E+0	2.126004E+0	1.832035E+0	2.071363E+0	2.070967E+0	2.083005E+0	1.820653E+0	1.938899E+0	1.890527E+0	1.967357E+0	1.746981E+0	1.961712E+0	1.938213E+0	1.937014E+0	1.716123E+0	2.186373E+0	2.089695E+0	2.071360E+0	1.770892E+0	2.106099E+0	2.030142E+0	2.021607E+0	1.809205E+0	1.980008E+0	1.909670E+0	1.877011E+0	1.825321E+0	2.118731E+0	1.933328E+0	1.824481E+0	1.677120E+0	2.188467E+0	2.164078E+0	2.171259E+0	1.672538E+0	2.116577E+0	1.966686E+0	2.077483E+0	1.749978E+0	1.856251E+0	1.855857E+0	1.934334E+0	1.869216E+0	1.952629E+0	1.981938E+0	2.054324E+0	1.856081E+0	2.048374E+0	2.110812E+0	2.150733E+0	1.869802E+0	2.234628E+0	2.008596E+0	2.035891E+0	1.736205E+0	2.100508E+0	1.830955E+0	1.867502E+0	1.710065E+0	1.783067E+0	1.558645E+0	1.686841E+0	1.679510E+0	2.073836E+0	1.981126E+0	1.998774E+0	1.438909E+0	2.103492E+0	1.949312E+0	2.006224E+0	1.597566E+0	1.807751E+0
5.354170E+2	2.270136E+0	2.038714E+0	2.040487E+0	2.305509E+0	2.278157E+0	1.594282E+0	1.884692E+0	2.161979E+0	2.101993E+0	1.896360E+0	1.950449E+0	2.214015E+0	1.952174E+0	2.121903E+0	2.240924E+0	2.242544E+0	1.973196E+0	2.085125E+0	2.078729E+0	2.119513E+0	2.153069E+0	1.966676E+0	1.945081E+0	2.042638E+0	2.059816E+0	1.973272E+0	1.700899E+0	1.933050E+0	1.943328E+0	2.087047E+0	2.085207E+0	2.115255E+0	1.677538E+0	1.992556E+0	2.192330E+0	2.090236E+0	2.107444E+0	1.853433E+0	1.986297E+0	1.987886E+0	2.069138E+0	1.887950E+0	1.959862E+0	2.044517E+0	1.847521E+0	2.123655E+0	2.259750E+0	2.144787E+0	1.950491E+0	2.036892E+0	2.177708E+0	2.108432E+0	2.206948E+0	2.023162E+0	1.932667E+0	1.875409E+0	2.071353E+0	1.981928E+0	1.920407E+0	1.922436E+0	1.852043E+0	2.144067E+0	2.058849E+0	2.147805E+0	1.893746E+0	1.935635E+0	2.075462E+0	2.020563E+0	2.133669E+0	2.095838E+0	1.911831E+0	1.860657E+0	1.918538E+0	2.185972E+0	2.025110E+0	1.833755E+0	1.888604E+0	2.253028E+0	2.132901E+0	2.103862E+0	1.932037E+0	2.192137E+0	2.088923E+0	2.127566E+0	2.177532E+0	2.031492E+0	1.942690E+0	2.109012E+0	2.042512E+0	1.941968E+0	1.915131E+0	2.043521E+0	1.864544E+0	2.138443E+0	2.093578E+0	2.096575E+0	2.004046E+0	2.026537E+0	2.129209E+0	2.136742E+0	2.105056E+0	1.913845E+0	1.884539E+0	1.926609E+0	1.980705E+0	1.996580E+0	1.921412E+0	1.920174E+0	1.886285E+0	2.123445E+0	2.075146E+0	2.117331E+0	1.820176E+0	2.106100E+0	2.016867E+0	2.098779E+0	1.987730E+0	1.984948E+0	1.930499E+0	1.866086E+0	1.928792E+0	2.084076E+0	1.944310E+0	1.884529E+0	1.718036E+0	2.177157E+0	2.119956E+0	2.157607E+0	1.683030E+0	2.124672E+0	1.995606E+0	2.102455E+0	1.795271E+0	1.821496E+0	1.820407E+0	1.994222E+0	1.814488E+0	1.925960E+0	1.919672E+0	2.051000E+0	1.878524E+0	2.103802E+0	2.123103E+0	2.131667E+0	1.898451E+0	2.190432E+0	2.028012E+0	2.069514E+0	1.751384E+0	2.071072E+0	1.818198E+0	1.864039E+0	1.720179E+0	1.795177E+0	1.537657E+0	1.671456E+0	1.660550E+0	2.132443E+0	2.026642E+0	2.073297E+0	1.455027E+0	2.078629E+0	1.954324E+0	2.005113E+0	1.718044E+0	1.758843E+0
5.355630E+2	2.150667E+0	2.045273E+0	1.949504E+0	2.125194E+0	2.140870E+0	1.538875E+0	1.748059E+0	2.004268E+0	1.983885E+0	1.741794E+0	1.819943E+0	2.059355E+0	1.849712E+0	2.015355E+0	2.056853E+0	2.058204E+0	1.912151E+0	1.950417E+0	1.967131E+0	2.051984E+0	2.050583E+0	1.871682E+0	1.798523E+0	1.922366E+0	1.940166E+0	1.809113E+0	1.824518E+0	1.822741E+0	1.819417E+0	1.938213E+0	1.954036E+0	2.008821E+0	1.564361E+0	1.925068E+0	2.053631E+0	1.935481E+0	1.973116E+0	1.749185E+0	1.844197E+0	1.899684E+0	1.926190E+0	1.881332E+0	1.881492E+0	1.920319E+0	1.761308E+0	1.962389E+0	2.025667E+0	2.032660E+0	1.805140E+0	2.012024E+0	1.984678E+0	1.936702E+0	2.008704E+0	1.867889E+0	1.843993E+0	1.753203E+0	1.903823E+0	1.891279E+0	1.794727E+0	1.819400E+0	1.737150E+0	2.024236E+0	2.027146E+0	2.011687E+0	1.757811E+0	1.783531E+0	1.909917E+0	1.890617E+0	1.987100E+0	1.977072E+0	1.804630E+0	1.796011E+0	1.899956E+0	2.037479E+0	1.789709E+0	1.676430E+0	1.783398E+0	2.064604E+0	1.978234E+0	1.981688E+0	1.831060E+0	2.022251E+0	1.974240E+0	2.115913E+0	2.002700E+0	1.858297E+0	1.786981E+0	1.880137E+0	1.931664E+0	1.860501E+0	1.730258E+0	1.919192E+0	1.790484E+0	2.063877E+0	2.020564E+0	1.963520E+0	1.798589E+0	1.915790E+0	1.979151E+0	2.017407E+0	2.003685E+0	1.821389E+0	1.760033E+0	1.847992E+0	1.849162E+0	1.860405E+0	1.780958E+0	1.824759E+0	1.738431E+0	1.974306E+0	1.944823E+0	2.012248E+0	1.785061E+0	2.005026E+0	1.993480E+0	1.863872E+0	1.960122E+0	1.883030E+0	1.767421E+0	1.756814E+0	2.014318E+0	1.945441E+0	1.871928E+0	1.796145E+0	1.664954E+0	2.010152E+0	1.994843E+0	1.998158E+0	1.760560E+0	2.033394E+0	1.847724E+0	2.001885E+0	1.893310E+0	1.767848E+0	1.756220E+0	1.828786E+0	1.942824E+0	1.746622E+0	1.767387E+0	1.858489E+0	1.770335E+0	2.023812E+0	1.981424E+0	1.982126E+0	1.792028E+0	2.048279E+0	1.895583E+0	1.921570E+0	1.616058E+0	1.868453E+0	1.691833E+0	1.770558E+0	1.633324E+0	1.667388E+0	1.462429E+0	1.580930E+0	1.557798E+0	1.886290E+0	1.878082E+0	1.835452E+0	1.356631E+0	1.930170E+0	1.908428E+0	1.935088E+0	1.610954E+0	1.776860E+0
5.357090E+2	1.862408E+0	1.739730E+0	1.779717E+0	1.913017E+0	1.908539E+0	1.360142E+0	1.599726E+0	1.693713E+0	1.831939E+0	1.604834E+0	1.661309E+0	1.852267E+0	1.655765E+0	1.856688E+0	1.926207E+0	1.929040E+0	1.741098E+0	1.750569E+0	1.698777E+0	1.849402E+0	1.853497E+0	1.619105E+0	1.711283E+0	1.660802E+0	1.708462E+0	1.616160E+0	1.678907E+0	1.656365E+0	1.612157E+0	1.767258E+0	1.802456E+0	1.807778E+0	1.369794E+0	1.658245E+0	1.837505E+0	1.811281E+0	1.745299E+0	1.536151E+0	1.679915E+0	1.668645E+0	1.738813E+0	1.617813E+0	1.671845E+0	1.754092E+0	1.576562E+0	1.814565E+0	1.804899E+0	1.761828E+0	1.660388E+0	1.757445E+0	1.818779E+0	1.754203E+0	1.785227E+0	1.717944E+0	1.629545E+0	1.623400E+0	1.718881E+0	1.730274E+0	1.643295E+0	1.578768E+0	1.580096E+0	1.841337E+0	1.732984E+0	1.794856E+0	1.616887E+0	1.623754E+0	1.695468E+0	1.755344E+0	1.826867E+0	1.723143E+0	1.628642E+0	1.584834E+0	1.698083E+0	1.830576E+0	1.624927E+0	1.553335E+0	1.521503E+0	1.792059E+0	1.812105E+0	1.766287E+0	1.615846E+0	1.772665E+0	1.713887E+0	1.822414E+0	1.781207E+0	1.740244E+0	1.603010E+0	1.712131E+0	1.724478E+0	1.668574E+0	1.590047E+0	1.725407E+0	1.511245E+0	1.799510E+0	1.747383E+0	1.764572E+0	1.633746E+0	1.718685E+0	1.740700E+0	1.780135E+0	1.758142E+0	1.645419E+0	1.576862E+0	1.642550E+0	1.690017E+0	1.634759E+0	1.651257E+0	1.733705E+0	1.578128E+0	1.771680E+0	1.799948E+0	1.825969E+0	1.580540E+0	1.762714E+0	1.677427E+0	1.750143E+0	1.804295E+0	1.698961E+0	1.616842E+0	1.538276E+0	1.799002E+0	1.746821E+0	1.581758E+0	1.637588E+0	1.521746E+0	1.907686E+0	1.867096E+0	1.722063E+0	1.648055E+0	1.814043E+0	1.665664E+0	1.727919E+0	1.771763E+0	1.599571E+0	1.621739E+0	1.666906E+0	1.711317E+0	1.589282E+0	1.669245E+0	1.742312E+0	1.704155E+0	1.794532E+0	1.798985E+0	1.779565E+0	1.655590E+0	1.847197E+0	1.728486E+0	1.745380E+0	1.771851E+0	1.656249E+0	1.584912E+0	1.535133E+0	1.718395E+0	1.515386E+0	1.347551E+0	1.447795E+0	1.546178E+0	1.802862E+0	1.721938E+0	1.652251E+0	1.293809E+0	1.780247E+0	1.700658E+0	1.802823E+0	1.609615E+0	1.671323E+0
5.358550E+2	1.688760E+0	1.536273E+0	1.439432E+0	1.638564E+0	1.631321E+0	1.170688E+0	1.404002E+0	1.485980E+0	1.572957E+0	1.342004E+0	1.470610E+0	1.628143E+0	1.450313E+0	1.543986E+0	1.598714E+0	1.608010E+0	1.472716E+0	1.536809E+0	1.494379E+0	1.560987E+0	1.547731E+0	1.418492E+0	1.468760E+0	1.439521E+0	1.519812E+0	1.422597E+0	1.452465E+0	1.429653E+0	1.381241E+0	1.532344E+0	1.558068E+0	1.583675E+0	1.241567E+0	1.425166E+0	1.665142E+0	1.509749E+0	1.532271E+0	1.375810E+0	1.470062E+0	1.458095E+0	1.525039E+0	1.384090E+0	1.462854E+0	1.512602E+0	1.386464E+0	1.560451E+0	1.624102E+0	1.604855E+0	1.489209E+0	1.529702E+0	1.552579E+0	1.597687E+0	1.602003E+0	1.469029E+0	1.412202E+0	1.368132E+0	1.556153E+0	1.473882E+0	1.421980E+0	1.393428E+0	1.356113E+0	1.596631E+0	1.575046E+0	1.621997E+0	1.440420E+0	1.410299E+0	1.511739E+0	1.516777E+0	1.593353E+0	1.502679E+0	1.422265E+0	1.404364E+0	1.534024E+0	1.570889E+0	1.421564E+0	1.328757E+0	1.431405E+0	1.622479E+0	1.616702E+0	1.526571E+0	1.399373E+0	1.596490E+0	1.529993E+0	1.586518E+0	1.580243E+0	1.452889E+0	1.419615E+0	1.538039E+0	1.490905E+0	1.489074E+0	1.383461E+0	1.567739E+0	1.316491E+0	1.586905E+0	1.586151E+0	1.622556E+0	1.405595E+0	1.535420E+0	1.554327E+0	1.562406E+0	1.528370E+0	1.453344E+0	1.394292E+0	1.426204E+0	1.522061E+0	1.432141E+0	1.472502E+0	1.426881E+0	1.372174E+0	1.597371E+0	1.586582E+0	1.591323E+0	1.405590E+0	1.595870E+0	1.509288E+0	1.583610E+0	1.587117E+0	1.433979E+0	1.432337E+0	1.442359E+0	1.535839E+0	1.540868E+0	1.506146E+0	1.398073E+0	1.340936E+0	1.610268E+0	1.569459E+0	1.558267E+0	1.399140E+0	1.594689E+0	1.461916E+0	1.510132E+0	1.598043E+0	1.375204E+0	1.377223E+0	1.480122E+0	1.523848E+0	1.373946E+0	1.469581E+0	1.542498E+0	1.421594E+0	1.577855E+0	1.590020E+0	1.634196E+0	1.515058E+0	1.629906E+0	1.569715E+0	1.526151E+0	1.590306E+0	1.505656E+0	1.437286E+0	1.394340E+0	1.563129E+0	1.278643E+0	1.211096E+0	1.237744E+0	1.401833E+0	1.551192E+0	1.541135E+0	1.532395E+0	1.174284E+0	1.568162E+0	1.452002E+0	1.483828E+0	1.455671E+0	1.274913E+0
5.360170E+2	1.350494E+0	1.275209E+0	1.208041E+0	1.406832E+0	1.350809E+0	1.029491E+0	1.139344E+0	1.283805E+0	1.249384E+0	1.108523E+0	1.185408E+0	1.310957E+0	1.175338E+0	1.332623E+0	1.300839E+0	1.376644E+0	1.208370E+0	1.286999E+0	1.185276E+0	1.345150E+0	1.332063E+0	1.226260E+0	1.149468E+0	1.242181E+0	1.312798E+0	1.175128E+0	1.212356E+0	1.190143E+0	1.168346E+0	1.262168E+0	1.226444E+0	1.308717E+0	1.034174E+0	1.233329E+0	1.329847E+0	1.261353E+0	1.260070E+0	1.102720E+0	1.230236E+0	1.207705E+0	1.239789E+0	1.149039E+0	1.244065E+0	1.214021E+0	1.124074E+0	1.240368E+0	1.340535E+0	1.293772E+0	1.229741E+0	1.266616E+0	1.271246E+0	1.363856E+0	1.348489E+0	1.183369E+0	1.132843E+0	1.151965E+0	1.223493E+0	1.187051E+0	1.163262E+0	1.154054E+0	1.103137E+0	1.272455E+0	1.289694E+0	1.321449E+0	1.165432E+0	1.205788E+0	1.206362E+0	1.291543E+0	1.309531E+0	1.313706E+0	1.200984E+0	1.149550E+0	1.239232E+0	1.266161E+0	1.209702E+0	1.115589E+0	1.096755E+0	1.334454E+0	1.241168E+0	1.301907E+0	1.213823E+0	1.285379E+0	1.324351E+0	1.307420E+0	1.317063E+0	1.215485E+0	1.217766E+0	1.312208E+0	1.279102E+0	1.256409E+0	1.199208E+0	1.209344E+0	1.137646E+0	1.363829E+0	1.281941E+0	1.351325E+0	1.270017E+0	1.271730E+0	1.270654E+0	1.293030E+0	1.358292E+0	1.261269E+0	1.146475E+0	1.205270E+0	1.290099E+0	1.268996E+0	1.231915E+0	1.220455E+0	1.180741E+0	1.290913E+0	1.281682E+0	1.311901E+0	1.165342E+0	1.345254E+0	1.270981E+0	1.327717E+0	1.326993E+0	1.180731E+0	1.232950E+0	1.136406E+0	1.299586E+0	1.256939E+0	1.226319E+0	1.154507E+0	1.136908E+0	1.364751E+0	1.340308E+0	1.331188E+0	1.209102E+0	1.266392E+0	1.171412E+0	1.358237E+0	1.337750E+0	1.150837E+0	1.150437E+0	1.237601E+0	1.230059E+0	1.155271E+0	1.193437E+0	1.276294E+0	1.211548E+0	1.313932E+0	1.324769E+0	1.288651E+0	1.219668E+0	1.309503E+0	1.304168E+0	1.313647E+0	1.340771E+0	1.263336E+0	1.098903E+0	1.195266E+0	1.271035E+0	1.096378E+0	9.982516E-1	1.023551E+0	1.116818E+0	1.313310E+0	1.183327E+0	1.306347E+0	1.023627E+0	1.358273E+0	1.254247E+0	1.260420E+0	1.260231E+0	1.092153E+0
5.362580E+2	1.030979E+0	9.908116E-1	9.243495E-1	1.015063E+0	1.047192E+0	8.716117E-1	8.796114E-1	1.013548E+0	9.504188E-1	8.724330E-1	8.985202E-1	1.014089E+0	8.365826E-1	9.585373E-1	9.837996E-1	1.066275E+0	9.250142E-1	9.973433E-1	9.852661E-1	1.006880E+0	9.874418E-1	8.893013E-1	8.726333E-1	9.572614E-1	9.456197E-1	9.135696E-1	9.068679E-1	8.543440E-1	8.974394E-1	9.393890E-1	9.505037E-1	9.468407E-1	7.788369E-1	8.902709E-1	9.709809E-1	9.777504E-1	9.494062E-1	8.216981E-1	8.650967E-1	9.362646E-1	9.242769E-1	8.802249E-1	9.096762E-1	9.317547E-1	8.927400E-1	9.496055E-1	1.012561E+0	9.832668E-1	9.186154E-1	9.603406E-1	9.974776E-1	9.697101E-1	9.898488E-1	8.870395E-1	8.447873E-1	8.847503E-1	9.598896E-1	8.981879E-1	9.137404E-1	8.581353E-1	8.427888E-1	9.608972E-1	9.661805E-1	1.003433E+0	8.630042E-1	9.412036E-1	9.655730E-1	9.670143E-1	9.785127E-1	9.810375E-1	8.507223E-1	8.667205E-1	9.591777E-1	9.853621E-1	8.736020E-1	8.393739E-1	8.829856E-1	9.885601E-1	9.668383E-1	9.921270E-1	9.064681E-1	1.023910E+0	9.321772E-1	9.926624E-1	1.024639E+0	9.268322E-1	9.103798E-1	9.652429E-1	9.907623E-1	9.567814E-1	8.691606E-1	9.634661E-1	8.710236E-1	1.000247E+0	1.008152E+0	9.707017E-1	9.122629E-1	9.381653E-1	1.021241E+0	9.608500E-1	1.000677E+0	8.962077E-1	9.160180E-1	9.298171E-1	9.401002E-1	8.979675E-1	8.730547E-1	9.304645E-1	8.777770E-1	9.769050E-1	1.002242E+0	1.021731E+0	8.493213E-1	9.596384E-1	9.802148E-1	9.865286E-1	1.020858E+0	9.176022E-1	9.050098E-1	9.172588E-1	1.014891E+0	9.130208E-1	9.271023E-1	8.603378E-1	8.355582E-1	9.961408E-1	1.006454E+0	9.942922E-1	8.861522E-1	9.888849E-1	9.236275E-1	9.927175E-1	9.845776E-1	8.112391E-1	8.808607E-1	9.185872E-1	9.891167E-1	8.839298E-1	8.719446E-1	9.510083E-1	9.560340E-1	1.049382E+0	9.864141E-1	1.071790E+0	9.222297E-1	1.040658E+0	9.401651E-1	9.552125E-1	1.024559E+0	9.956872E-1	8.723009E-1	8.744391E-1	9.087432E-1	8.387863E-1	7.113465E-1	7.987050E-1	8.978594E-1	9.609736E-1	9.778745E-1	9.734830E-1	7.456618E-1	9.911506E-1	9.822269E-1	9.436478E-1	9.831324E-1	8.913728E-1
5.365090E+2	7.593920E-1	7.392281E-1	7.122971E-1	8.021602E-1	7.818584E-1	6.779863E-1	6.666544E-1	7.252246E-1	7.240404E-1	6.819961E-1	6.813833E-1	7.925852E-1	6.447253E-1	7.442797E-1	7.434075E-1	7.784773E-1	7.004047E-1	7.159114E-1	7.357247E-1	7.222514E-1	7.464343E-1	7.462462E-1	6.725657E-1	6.962821E-1	7.082196E-1	7.298058E-1	6.929079E-1	6.617624E-1	7.093263E-1	7.505036E-1	7.389074E-1	7.487562E-1	5.998774E-1	7.303027E-1	7.878462E-1	7.446273E-1	7.801685E-1	6.097981E-1	7.337902E-1	6.961224E-1	7.117893E-1	6.325964E-1	6.961121E-1	7.366752E-1	6.544471E-1	7.413066E-1	7.296276E-1	7.549876E-1	7.264150E-1	6.900580E-1	7.987745E-1	7.821409E-1	7.970103E-1	7.442090E-1	6.726506E-1	6.783623E-1	7.443214E-1	7.195947E-1	6.979396E-1	6.803333E-1	6.857351E-1	7.344807E-1	7.618560E-1	7.546832E-1	6.403944E-1	6.606411E-1	7.373260E-1	7.377791E-1	7.661118E-1	7.408865E-1	7.188720E-1	6.668570E-1	7.156530E-1	7.988660E-1	6.558550E-1	6.700403E-1	6.496277E-1	7.698522E-1	8.019854E-1	7.373523E-1	6.798962E-1	7.428640E-1	7.357610E-1	7.896824E-1	7.633233E-1	7.309389E-1	6.796949E-1	7.260189E-1	7.703837E-1	7.344762E-1	6.898691E-1	7.175885E-1	6.757217E-1	8.141414E-1	7.891214E-1	7.327325E-1	6.876957E-1	7.140302E-1	7.581246E-1	7.584714E-1	7.872338E-1	6.719214E-1	6.670031E-1	7.008467E-1	7.122487E-1	7.216631E-1	7.144576E-1	7.078264E-1	7.024275E-1	8.063715E-1	7.470491E-1	8.211223E-1	6.903866E-1	7.041765E-1	7.400150E-1	7.719315E-1	7.380365E-1	7.150043E-1	6.877702E-1	6.677591E-1	7.774466E-1	7.583908E-1	6.782935E-1	6.930122E-1	6.503263E-1	8.011899E-1	8.023215E-1	7.802420E-1	7.229288E-1	8.026542E-1	7.205363E-1	7.790934E-1	7.540975E-1	7.002752E-1	6.993092E-1	7.436618E-1	7.494312E-1	6.692570E-1	7.304879E-1	7.843827E-1	6.999461E-1	7.413704E-1	7.962111E-1	7.858208E-1	7.612321E-1	8.366303E-1	7.987243E-1	7.480880E-1	8.073675E-1	7.437828E-1	6.766817E-1	6.730581E-1	7.737022E-1	6.854407E-1	5.801403E-1	6.271132E-1	6.892964E-1	7.617070E-1	7.294321E-1	7.710324E-1	6.077915E-1	7.644412E-1	7.335710E-1	7.669225E-1	7.261139E-1	6.185183E-1
5.367600E+2	6.704837E-1	5.671304E-1	5.826302E-1	6.319828E-1	6.155295E-1	5.248733E-1	5.472518E-1	6.043374E-1	6.249998E-1	5.848210E-1	5.829412E-1	6.412018E-1	5.474897E-1	6.035639E-1	6.098561E-1	6.367729E-1	5.408744E-1	5.925879E-1	5.802317E-1	6.439948E-1	6.084742E-1	5.830747E-1	5.713696E-1	5.666670E-1	5.999653E-1	5.662557E-1	5.942485E-1	5.800975E-1	5.510633E-1	6.195987E-1	6.058862E-1	6.239917E-1	4.906060E-1	5.590866E-1	6.309695E-1	5.832344E-1	6.227654E-1	5.338771E-1	5.575160E-1	5.743439E-1	6.338765E-1	5.425502E-1	5.602671E-1	5.654321E-1	5.291421E-1	6.002009E-1	6.725335E-1	6.635609E-1	5.576390E-1	6.331218E-1	5.868254E-1	6.256226E-1	6.282026E-1	5.664115E-1	5.764390E-1	5.876605E-1	6.434426E-1	5.836197E-1	5.489629E-1	5.333168E-1	5.255193E-1	6.354628E-1	6.227041E-1	6.197676E-1	5.892625E-1	5.609423E-1	5.686490E-1	6.144984E-1	6.269961E-1	6.142499E-1	5.738362E-1	5.634227E-1	6.041437E-1	6.531881E-1	5.636563E-1	5.403387E-1	5.472189E-1	6.265141E-1	6.498629E-1	6.169142E-1	5.662944E-1	6.086331E-1	6.355754E-1	6.580197E-1	6.407545E-1	5.791546E-1	5.672361E-1	6.298428E-1	5.717792E-1	5.888042E-1	5.980519E-1	6.286842E-1	5.308906E-1	6.631623E-1	5.907760E-1	6.335794E-1	5.670502E-1	6.441526E-1	6.114917E-1	6.286701E-1	6.464411E-1	5.365151E-1	5.383053E-1	5.677116E-1	5.818795E-1	5.960139E-1	5.551876E-1	5.625196E-1	5.270800E-1	6.383553E-1	6.221798E-1	6.145407E-1	6.152319E-1	6.321765E-1	5.775636E-1	6.365382E-1	6.791409E-1	6.192641E-1	6.109920E-1	5.414922E-1	6.362943E-1	6.117591E-1	5.949256E-1	5.654943E-1	5.502452E-1	6.408380E-1	6.732578E-1	6.679429E-1	5.597058E-1	6.834071E-1	5.568805E-1	6.382961E-1	6.176437E-1	5.819948E-1	5.923345E-1	5.681443E-1	6.034818E-1	5.565878E-1	5.524830E-1	6.077995E-1	5.992371E-1	6.317716E-1	6.512939E-1	6.607089E-1	5.729460E-1	6.068228E-1	6.378701E-1	5.920724E-1	6.542114E-1	5.877120E-1	5.515344E-1	5.472666E-1	6.339026E-1	5.764851E-1	4.716764E-1	5.389506E-1	5.296637E-1	6.293222E-1	6.282849E-1	6.350306E-1	4.932698E-1	6.364597E-1	5.917204E-1	5.668560E-1	6.042990E-1	6.005002E-1
5.370280E+2	5.711564E-1	5.153556E-1	4.959472E-1	5.581188E-1	6.023286E-1	4.825737E-1	4.610839E-1	5.209669E-1	5.179627E-1	5.039503E-1	5.069999E-1	5.317608E-1	4.884170E-1	5.416024E-1	5.401771E-1	5.627857E-1	4.982557E-1	5.166961E-1	5.263112E-1	5.404941E-1	5.065520E-1	4.662837E-1	4.550517E-1	4.901829E-1	5.138684E-1	4.933628E-1	5.235225E-1	5.112306E-1	4.919262E-1	5.072239E-1	4.957575E-1	5.938350E-1	4.108826E-1	4.959736E-1	5.609476E-1	5.413916E-1	5.286780E-1	4.789190E-1	4.885656E-1	5.231284E-1	5.057401E-1	5.114306E-1	4.962633E-1	5.321874E-1	4.788062E-1	5.391162E-1	5.323353E-1	5.347590E-1	4.849627E-1	5.113965E-1	5.325764E-1	5.381745E-1	5.633223E-1	4.864030E-1	4.848648E-1	5.213991E-1	5.443661E-1	5.004110E-1	5.091128E-1	4.774003E-1	5.076007E-1	5.818540E-1	5.534215E-1	5.547189E-1	4.869987E-1	5.008675E-1	5.172306E-1	5.085440E-1	5.437753E-1	5.584772E-1	4.935795E-1	4.950053E-1	5.201915E-1	5.652180E-1	4.943437E-1	4.784900E-1	4.699927E-1	6.150739E-1	5.314746E-1	5.260066E-1	5.012891E-1	5.261368E-1	5.492312E-1	5.757307E-1	5.449388E-1	5.084511E-1	5.055281E-1	5.440140E-1	5.236121E-1	5.135516E-1	4.994107E-1	5.036616E-1	4.639609E-1	5.448444E-1	5.317596E-1	5.856011E-1	4.959772E-1	5.360406E-1	5.484535E-1	5.679563E-1	5.580229E-1	4.834258E-1	5.089745E-1	5.028653E-1	5.407721E-1	5.078618E-1	5.115058E-1	5.138760E-1	5.208548E-1	5.515149E-1	5.518658E-1	6.067792E-1	4.846344E-1	5.615611E-1	5.055033E-1	5.160393E-1	5.423314E-1	5.148771E-1	4.711258E-1	4.625754E-1	5.591393E-1	5.397761E-1	5.283615E-1	4.973492E-1	4.894234E-1	5.796245E-1	5.659240E-1	5.885273E-1	4.938337E-1	5.560637E-1	5.292757E-1	5.467425E-1	5.190304E-1	4.844443E-1	4.774131E-1	5.129985E-1	5.814628E-1	4.639179E-1	4.922457E-1	5.181801E-1	5.244252E-1	5.517764E-1	5.426063E-1	5.630026E-1	5.408833E-1	5.729410E-1	5.484294E-1	5.416364E-1	5.571692E-1	5.480094E-1	4.531178E-1	4.734074E-1	5.101642E-1	5.220072E-1	3.976172E-1	4.797812E-1	4.697246E-1	5.452015E-1	5.479998E-1	5.288376E-1	4.471272E-1	5.786849E-1	5.132853E-1	5.312876E-1	5.333510E-1	5.335742E-1
5.372640E+2	5.864376E-1	5.678603E-1	5.174393E-1	5.660845E-1	5.297252E-1	5.689607E-1	4.598529E-1	5.188823E-1	5.185777E-1	6.037342E-1	4.844984E-1	5.809110E-1	4.889399E-1	5.508676E-1	5.436614E-1	5.508728E-1	5.022873E-1	4.945610E-1	5.231761E-1	5.600582E-1	5.352702E-1	4.936656E-1	4.434198E-1	5.193758E-1	4.885457E-1	4.774363E-1	5.080702E-1	4.874629E-1	4.682711E-1	5.347198E-1	5.471096E-1	5.690006E-1	4.153426E-1	5.278425E-1	5.239160E-1	5.473696E-1	5.209856E-1	4.579556E-1	4.717772E-1	4.986587E-1	4.864225E-1	4.981887E-1	5.060600E-1	5.039610E-1	4.664897E-1	5.000222E-1	5.259918E-1	5.399343E-1	5.216012E-1	5.369197E-1	5.458235E-1	5.432439E-1	5.471023E-1	4.911437E-1	4.593633E-1	4.985882E-1	5.179457E-1	5.220583E-1	4.760071E-1	4.799132E-1	4.638570E-1	5.187852E-1	5.123215E-1	5.270133E-1	4.545740E-1	4.906420E-1	5.303987E-1	5.478605E-1	5.419121E-1	4.889250E-1	4.798210E-1	5.149380E-1	5.144243E-1	5.159556E-1	4.910738E-1	5.079132E-1	4.711121E-1	5.592194E-1	5.359298E-1	5.497466E-1	4.766759E-1	5.471106E-1	5.070479E-1	5.805307E-1	5.474277E-1	5.220734E-1	4.691952E-1	5.172308E-1	5.711187E-1	5.142418E-1	4.764562E-1	5.106071E-1	4.601208E-1	5.454613E-1	5.214161E-1	5.516969E-1	5.425626E-1	5.156050E-1	5.135083E-1	5.358548E-1	5.445068E-1	4.786538E-1	4.850306E-1	4.942572E-1	5.460570E-1	4.920729E-1	4.980655E-1	4.976614E-1	4.777962E-1	5.106124E-1	5.615641E-1	5.715528E-1	4.797064E-1	5.262533E-1	5.194097E-1	5.478567E-1	5.429450E-1	5.068472E-1	5.121932E-1	4.947490E-1	5.585414E-1	5.284455E-1	5.128513E-1	4.912771E-1	4.838941E-1	5.896050E-1	5.883125E-1	5.457173E-1	4.862549E-1	5.678410E-1	4.911554E-1	5.779539E-1	5.178836E-1	4.917606E-1	5.140898E-1	5.118124E-1	5.393137E-1	4.625849E-1	4.908918E-1	5.068941E-1	5.025572E-1	5.372888E-1	5.574865E-1	5.701521E-1	5.272389E-1	5.493713E-1	5.414961E-1	5.328937E-1	5.644310E-1	5.213129E-1	4.762030E-1	4.826396E-1	5.327703E-1	4.655120E-1	4.191942E-1	4.626217E-1	5.082571E-1	5.817455E-1	5.201843E-1	5.108278E-1	4.254457E-1	5.362686E-1	4.949281E-1	5.335113E-1	6.176860E-1	5.207039E-1
5.375060E+2	5.774081E-1	5.634847E-1	5.281852E-1	5.986714E-1	5.633867E-1	5.802801E-1	5.109383E-1	5.598732E-1	5.499510E-1	5.691688E-1	5.368133E-1	5.501102E-1	4.638468E-1	5.827172E-1	5.529516E-1	5.690562E-1	5.120777E-1	5.540096E-1	5.639303E-1	5.821469E-1	5.713088E-1	5.881039E-1	5.172819E-1	5.088661E-1	5.600824E-1	5.527796E-1	5.276835E-1	4.917292E-1	4.964319E-1	5.819416E-1	5.755698E-1	5.902874E-1	4.387575E-1	5.003480E-1	5.427685E-1	5.320938E-1	5.221689E-1	4.891175E-1	5.251393E-1	5.362168E-1	5.276323E-1	5.134172E-1	5.269589E-1	5.553963E-1	5.007613E-1	5.812647E-1	5.684950E-1	5.474089E-1	5.222019E-1	5.336471E-1	5.622239E-1	5.736606E-1	5.933596E-1	5.195914E-1	4.981952E-1	5.360636E-1	5.419639E-1	5.443832E-1	4.894944E-1	5.012746E-1	4.801950E-1	5.452744E-1	5.422659E-1	5.697763E-1	4.583151E-1	4.931985E-1	5.178577E-1	5.751819E-1	5.530912E-1	5.302628E-1	5.193764E-1	5.030863E-1	5.541573E-1	5.434017E-1	5.316158E-1	5.151191E-1	4.946155E-1	5.888289E-1	5.454772E-1	5.590115E-1	5.252718E-1	5.694821E-1	5.479131E-1	5.921883E-1	5.573823E-1	5.188296E-1	4.963009E-1	5.050565E-1	5.387877E-1	5.259787E-1	5.391153E-1	5.654781E-1	5.105925E-1	5.651806E-1	5.421026E-1	5.344254E-1	5.294236E-1	5.465882E-1	5.779165E-1	5.630709E-1	5.873078E-1	5.335320E-1	4.892208E-1	5.321322E-1	5.272653E-1	5.848302E-1	5.276350E-1	5.182409E-1	4.959533E-1	5.546614E-1	5.755060E-1	5.876734E-1	5.086596E-1	5.643302E-1	5.649215E-1	5.701962E-1	5.730061E-1	5.513199E-1	5.074313E-1	4.844294E-1	5.770822E-1	5.457749E-1	5.270687E-1	5.506510E-1	5.071170E-1	5.696440E-1	5.514372E-1	5.792207E-1	5.043265E-1	5.855075E-1	5.194169E-1	6.126328E-1	5.362304E-1	4.752983E-1	5.036984E-1	5.207073E-1	5.562992E-1	4.999192E-1	5.301481E-1	5.487165E-1	5.186707E-1	5.845299E-1	6.234755E-1	6.070898E-1	5.320145E-1	6.171343E-1	5.505092E-1	5.416362E-1	6.311066E-1	5.206288E-1	4.719503E-1	5.045665E-1	5.684638E-1	5.603439E-1	4.320230E-1	4.484211E-1	5.217125E-1	5.789875E-1	5.517925E-1	5.623724E-1	4.777032E-1	5.435818E-1	5.291387E-1	6.046461E-1	5.828809E-1	5.284256E-1
5.377630E+2	6.433946E-1	7.034961E-1	6.248973E-1	6.638462E-1	6.742728E-1	6.976464E-1	5.201702E-1	6.383800E-1	6.151574E-1	6.343869E-1	5.947539E-1	6.457897E-1	5.830381E-1	6.910048E-1	6.092754E-1	6.229789E-1	5.944345E-1	6.767012E-1	5.513907E-1	6.515683E-1	6.692893E-1	6.875714E-1	6.021935E-1	5.941086E-1	6.012314E-1	6.759015E-1	6.203992E-1	5.770507E-1	5.814768E-1	6.787748E-1	6.052682E-1	6.594694E-1	5.223837E-1	6.715645E-1	6.538612E-1	6.350389E-1	6.032377E-1	6.324614E-1	6.228696E-1	6.016586E-1	6.203543E-1	6.637156E-1	6.484360E-1	6.112224E-1	5.842978E-1	6.099745E-1	6.680927E-1	6.566607E-1	5.744564E-1	6.285409E-1	6.511674E-1	6.541378E-1	6.624443E-1	5.800425E-1	5.289137E-1	5.958073E-1	6.068140E-1	5.978256E-1	5.710333E-1	5.816943E-1	5.697895E-1	6.543835E-1	6.244653E-1	6.402461E-1	5.836507E-1	5.877842E-1	6.100343E-1	6.264934E-1	6.089858E-1	6.201553E-1	5.726896E-1	5.671937E-1	5.996578E-1	6.799308E-1	6.015822E-1	5.391379E-1	5.600902E-1	6.588158E-1	6.511360E-1	6.099657E-1	5.738677E-1	6.128274E-1	6.283250E-1	6.545910E-1	6.712412E-1	5.882356E-1	5.545485E-1	5.939284E-1	5.935526E-1	6.571525E-1	5.757178E-1	6.293786E-1	5.511894E-1	6.570001E-1	6.072033E-1	6.291006E-1	5.987048E-1	6.065773E-1	6.162883E-1	6.537931E-1	6.774150E-1	6.116746E-1	5.508762E-1	6.044385E-1	6.476511E-1	5.716734E-1	6.136539E-1	6.367322E-1	5.540567E-1	6.421305E-1	6.361220E-1	6.485727E-1	5.770384E-1	6.640226E-1	6.129619E-1	6.338311E-1	6.423312E-1	6.384123E-1	5.615927E-1	5.821647E-1	6.560317E-1	6.377528E-1	6.078514E-1	5.641448E-1	5.557752E-1	6.607988E-1	6.666724E-1	6.499505E-1	5.538766E-1	6.031743E-1	6.009166E-1	6.438447E-1	6.279638E-1	5.643137E-1	6.015034E-1	6.001642E-1	6.531797E-1	5.232533E-1	5.775257E-1	6.695374E-1	6.216807E-1	6.229529E-1	6.370609E-1	6.660709E-1	6.131958E-1	6.620653E-1	6.378701E-1	6.182993E-1	6.878800E-1	6.636939E-1	5.715825E-1	5.945827E-1	6.475848E-1	6.571930E-1	4.600136E-1	5.395423E-1	5.999998E-1	6.713815E-1	6.150095E-1	6.437243E-1	4.793712E-1	6.401160E-1	6.267657E-1	6.335446E-1	6.832784E-1	5.850561E-1
5.380110E+2	7.580027E-1	8.019415E-1	7.115809E-1	7.768141E-1	7.937394E-1	7.840330E-1	6.438819E-1	7.050766E-1	7.301922E-1	7.543882E-1	6.481943E-1	7.585080E-1	6.760914E-1	7.616518E-1	7.126327E-1	8.142171E-1	6.307180E-1	7.500628E-1	6.918358E-1	7.209896E-1	7.216578E-1	8.172145E-1	6.644234E-1	7.213876E-1	7.246790E-1	7.353186E-1	6.536821E-1	6.251959E-1	6.490623E-1	7.481129E-1	7.333390E-1	6.979042E-1	5.692147E-1	7.709199E-1	7.319633E-1	7.266952E-1	7.464391E-1	7.537086E-1	6.816278E-1	6.568573E-1	7.253107E-1	7.921645E-1	6.902341E-1	7.159752E-1	6.255307E-1	7.706274E-1	7.264556E-1	7.624629E-1	6.729594E-1	7.986945E-1	7.136160E-1	7.529918E-1	7.279254E-1	7.773978E-1	6.257041E-1	6.300241E-1	6.578542E-1	8.359510E-1	6.813862E-1	6.910140E-1	6.346138E-1	7.363723E-1	7.307376E-1	7.311935E-1	6.366525E-1	6.612801E-1	7.235314E-1	7.057926E-1	7.468594E-1	7.382624E-1	6.305897E-1	6.792472E-1	7.015540E-1	7.608631E-1	6.552010E-1	6.460219E-1	6.171702E-1	7.476448E-1	7.504296E-1	7.367735E-1	6.212021E-1	7.526514E-1	6.916000E-1	7.313946E-1	7.259928E-1	7.017500E-1	6.889218E-1	7.564547E-1	6.991233E-1	7.538073E-1	6.439605E-1	7.488442E-1	6.433542E-1	7.586802E-1	7.301042E-1	7.224976E-1	6.894876E-1	7.193039E-1	7.300313E-1	7.424207E-1	7.658333E-1	6.456753E-1	6.682003E-1	6.773187E-1	7.198828E-1	6.874546E-1	6.606955E-1	7.178046E-1	6.500309E-1	7.522539E-1	7.603843E-1	7.739547E-1	6.860745E-1	7.249454E-1	7.330617E-1	7.082964E-1	7.496931E-1	6.940031E-1	6.877701E-1	6.944700E-1	7.331869E-1	7.137347E-1	7.060819E-1	6.640000E-1	6.392679E-1	7.732447E-1	7.555690E-1	7.461179E-1	6.821230E-1	7.790992E-1	6.449524E-1	7.437207E-1	7.535237E-1	6.258927E-1	6.296228E-1	6.814003E-1	7.550934E-1	6.572569E-1	6.756655E-1	7.206531E-1	6.694457E-1	7.344423E-1	7.599816E-1	7.637774E-1	7.434950E-1	7.460329E-1	7.370174E-1	7.084119E-1	7.598360E-1	7.335151E-1	6.602791E-1	6.776741E-1	7.308700E-1	7.829631E-1	5.632292E-1	6.229712E-1	6.746176E-1	7.520538E-1	7.376502E-1	7.468127E-1	5.710997E-1	7.644409E-1	7.252265E-1	7.269091E-1	7.515484E-1	6.133704E-1
5.382900E+2	9.191488E-1	9.084091E-1	8.383823E-1	9.527848E-1	9.382864E-1	9.329757E-1	8.020609E-1	8.405541E-1	8.372291E-1	9.819997E-1	7.961397E-1	9.393812E-1	7.999880E-1	9.127904E-1	8.682490E-1	8.856958E-1	8.380500E-1	9.650899E-1	8.385504E-1	8.831823E-1	9.018506E-1	9.088585E-1	7.778335E-1	8.463312E-1	8.500261E-1	9.270463E-1	8.248499E-1	8.019329E-1	7.763486E-1	8.814088E-1	8.954393E-1	8.823900E-1	7.069186E-1	9.471347E-1	9.245243E-1	9.007068E-1	8.624205E-1	9.100834E-1	8.519060E-1	8.156249E-1	8.817790E-1	9.378279E-1	8.541629E-1	8.546006E-1	7.438743E-1	8.677520E-1	9.085225E-1	8.918402E-1	8.255188E-1	9.603408E-1	9.198884E-1	9.209165E-1	9.165576E-1	9.848278E-1	8.076938E-1	8.467309E-1	8.680173E-1	9.550135E-1	7.954176E-1	8.028470E-1	7.848155E-1	9.255791E-1	8.751740E-1	8.552676E-1	7.813181E-1	7.910163E-1	8.658728E-1	9.203672E-1	8.592693E-1	9.961298E-1	7.933957E-1	7.740618E-1	8.560002E-1	9.206164E-1	7.872880E-1	8.159555E-1	8.107953E-1	9.071330E-1	9.050978E-1	8.826882E-1	7.953908E-1	9.491041E-1	9.011988E-1	8.815724E-1	9.350444E-1	9.346163E-1	8.071478E-1	8.812403E-1	8.297673E-1	9.995857E-1	8.096035E-1	8.849795E-1	7.497835E-1	9.281462E-1	8.761252E-1	9.406358E-1	8.441763E-1	9.315727E-1	8.725530E-1	8.582651E-1	8.790312E-1	8.711545E-1	8.352077E-1	8.047157E-1	8.819633E-1	8.920466E-1	8.468462E-1	7.982538E-1	8.253789E-1	8.485329E-1	8.973769E-1	9.632215E-1	7.790945E-1	9.000994E-1	8.455769E-1	8.910763E-1	9.233128E-1	9.126596E-1	8.443016E-1	7.679232E-1	9.018514E-1	8.856939E-1	8.120686E-1	8.043372E-1	7.564890E-1	8.976675E-1	8.767309E-1	8.695847E-1	7.992940E-1	9.439838E-1	8.033498E-1	9.129549E-1	9.306845E-1	8.094098E-1	8.142305E-1	8.806363E-1	9.060758E-1	7.805940E-1	9.078165E-1	9.012192E-1	8.328814E-1	9.221463E-1	9.113684E-1	9.008046E-1	8.335445E-1	9.382761E-1	9.013385E-1	8.496326E-1	9.255347E-1	8.930093E-1	7.975768E-1	7.930793E-1	8.563924E-1	9.403433E-1	6.617793E-1	7.383522E-1	8.000000E-1	9.223617E-1	8.387969E-1	8.610794E-1	6.678314E-1	9.275257E-1	8.462170E-1	9.080803E-1	8.733637E-1	8.192980E-1
5.385060E+2	1.131001E+0	1.080506E+0	1.040404E+0	1.083858E+0	1.098677E+0	1.164134E+0	9.270034E-1	1.033000E+0	1.060531E+0	1.113089E+0	1.007088E+0	1.078313E+0	9.709346E-1	1.129366E+0	1.031413E+0	1.142143E+0	9.445947E-1	1.124463E+0	1.047338E+0	1.079455E+0	1.074160E+0	1.167586E+0	9.383519E-1	1.008642E+0	1.029184E+0	1.098560E+0	1.004933E+0	9.652619E-1	9.216567E-1	1.072088E+0	1.058159E+0	1.074563E+0	8.546579E-1	1.143973E+0	1.105639E+0	1.043503E+0	1.064202E+0	1.144647E+0	9.934049E-1	1.004554E+0	1.080746E+0	1.153012E+0	1.030500E+0	1.043406E+0	9.050580E-1	1.099876E+0	1.149587E+0	1.105167E+0	1.002702E+0	1.151434E+0	1.044155E+0	1.078702E+0	1.084164E+0	1.141290E+0	9.815701E-1	9.738201E-1	9.941145E-1	1.085575E+0	9.873095E-1	9.925865E-1	9.445045E-1	1.146319E+0	1.043095E+0	1.029333E+0	9.322192E-1	9.737973E-1	1.034552E+0	1.016992E+0	1.058005E+0	1.110299E+0	9.372862E-1	9.744653E-1	1.021341E+0	1.135262E+0	1.003727E+0	9.180356E-1	9.299915E-1	1.106997E+0	1.086501E+0	1.029762E+0	9.784159E-1	1.143459E+0	1.010614E+0	1.085238E+0	1.070679E+0	1.122075E+0	9.530550E-1	1.049854E+0	9.927416E-1	1.145948E+0	9.299580E-1	1.041952E+0	9.450848E-1	1.164782E+0	1.064129E+0	1.118471E+0	9.439184E-1	1.114837E+0	1.028093E+0	1.060644E+0	1.020950E+0	1.140775E+0	9.621088E-1	9.854816E-1	1.020556E+0	1.132161E+0	9.886419E-1	1.000310E+0	9.457353E-1	1.158765E+0	1.078617E+0	1.084423E+0	9.392607E-1	1.143100E+0	1.041529E+0	9.932981E-1	1.058895E+0	1.111551E+0	1.002024E+0	9.385056E-1	1.046591E+0	1.079647E+0	1.028565E+0	9.433252E-1	9.035678E-1	1.159154E+0	1.040038E+0	1.109693E+0	9.963263E-1	1.053661E+0	1.003155E+0	1.083577E+0	1.075739E+0	8.990347E-1	9.193717E-1	1.000414E+0	1.047623E+0	9.912662E-1	9.876823E-1	1.085106E+0	1.015309E+0	1.088434E+0	1.031700E+0	1.098005E+0	9.918138E-1	1.134938E+0	1.071899E+0	1.028513E+0	1.033800E+0	1.053872E+0	9.725403E-1	9.644551E-1	1.049732E+0	1.070148E+0	8.273913E-1	8.525496E-1	9.834871E-1	1.106460E+0	1.022758E+0	1.025028E+0	8.012552E-1	1.061357E+0	1.034795E+0	1.061465E+0	1.052743E+0	9.299849E-1
5.387600E+2	1.338685E+0	1.413035E+0	1.175802E+0	1.334418E+0	1.337608E+0	1.367290E+0	1.117186E+0	1.240733E+0	1.227237E+0	1.304179E+0	1.188223E+0	1.290643E+0	1.102150E+0	1.306564E+0	1.253805E+0	1.323975E+0	1.145018E+0	1.316089E+0	1.224774E+0	1.289613E+0	1.315733E+0	1.336905E+0	1.143651E+0	1.173871E+0	1.157695E+0	1.321524E+0	1.188583E+0	1.196236E+0	1.139622E+0	1.382909E+0	1.259855E+0	1.281519E+0	9.594702E-1	1.288944E+0	1.288100E+0	1.285925E+0	1.238177E+0	1.342946E+0	1.134303E+0	1.200309E+0	1.210170E+0	1.366211E+0	1.178752E+0	1.278630E+0	1.126750E+0	1.328939E+0	1.317062E+0	1.304698E+0	1.166073E+0	1.337952E+0	1.276290E+0	1.256134E+0	1.279407E+0	1.336867E+0	1.110817E+0	1.121010E+0	1.191669E+0	1.335200E+0	1.115441E+0	1.171646E+0	1.103667E+0	1.344987E+0	1.225696E+0	1.340723E+0	1.109933E+0	1.111842E+0	1.224547E+0	1.264220E+0	1.258605E+0	1.333389E+0	1.163152E+0	1.160860E+0	1.168097E+0	1.348501E+0	1.161972E+0	1.140809E+0	1.077729E+0	1.329742E+0	1.291450E+0	1.231844E+0	1.175324E+0	1.331522E+0	1.261076E+0	1.275874E+0	1.268531E+0	1.343268E+0	1.110497E+0	1.233684E+0	1.269204E+0	1.314406E+0	1.155158E+0	1.314219E+0	1.107473E+0	1.326855E+0	1.294719E+0	1.298229E+0	1.203126E+0	1.383800E+0	1.221318E+0	1.267907E+0	1.277757E+0	1.350150E+0	1.156054E+0	1.145013E+0	1.248993E+0	1.427539E+0	1.177482E+0	1.176176E+0	1.098256E+0	1.369576E+0	1.236825E+0	1.288618E+0	1.151174E+0	1.352871E+0	1.182488E+0	1.186232E+0	1.316564E+0	1.342561E+0	1.196644E+0	1.144298E+0	1.259517E+0	1.334254E+0	1.171387E+0	1.160580E+0	1.091013E+0	1.328155E+0	1.277749E+0	1.267903E+0	1.120494E+0	1.346623E+0	1.179297E+0	1.284717E+0	1.272965E+0	1.251439E+0	1.141880E+0	1.215662E+0	1.255854E+0	1.221938E+0	1.139964E+0	1.221857E+0	1.154574E+0	1.318974E+0	1.307301E+0	1.227286E+0	1.228535E+0	1.354436E+0	1.289605E+0	1.218826E+0	1.262873E+0	1.203783E+0	1.139605E+0	1.109290E+0	1.297804E+0	1.320341E+0	9.294405E-1	1.044850E+0	1.116821E+0	1.391224E+0	1.240857E+0	1.270328E+0	1.000278E+0	1.267591E+0	1.207519E+0	1.298211E+0	1.300390E+0	1.092152E+0
5.390390E+2	1.607491E+0	1.610656E+0	1.430838E+0	1.555285E+0	1.540237E+0	1.582960E+0	1.331376E+0	1.501960E+0	1.470228E+0	1.598962E+0	1.384546E+0	1.556051E+0	1.327987E+0	1.569465E+0	1.471549E+0	1.608013E+0	1.431251E+0	1.558311E+0	1.478706E+0	1.535743E+0	1.479594E+0	1.581661E+0	1.316382E+0	1.420839E+0	1.414088E+0	1.557357E+0	1.350242E+0	1.381508E+0	1.348009E+0	1.593314E+0	1.466501E+0	1.484336E+0	1.170205E+0	1.525772E+0	1.558762E+0	1.491818E+0	1.460670E+0	1.576376E+0	1.403512E+0	1.367044E+0	1.514738E+0	1.533725E+0	1.373379E+0	1.395300E+0	1.312032E+0	1.589772E+0	1.518796E+0	1.507675E+0	1.391310E+0	1.547372E+0	1.565198E+0	1.502633E+0	1.536523E+0	1.615417E+0	1.324106E+0	1.383881E+0	1.532734E+0	1.502972E+0	1.365574E+0	1.289132E+0	1.297611E+0	1.632578E+0	1.476994E+0	1.552130E+0	1.305109E+0	1.347667E+0	1.406394E+0	1.416821E+0	1.473491E+0	1.595195E+0	1.364366E+0	1.304699E+0	1.435974E+0	1.580742E+0	1.348981E+0	1.292130E+0	1.261841E+0	1.594213E+0	1.518680E+0	1.490668E+0	1.338787E+0	1.630745E+0	1.476607E+0	1.515199E+0	1.493760E+0	1.611160E+0	1.386164E+0	1.424212E+0	1.435480E+0	1.562947E+0	1.356785E+0	1.468419E+0	1.285771E+0	1.588757E+0	1.443176E+0	1.497176E+0	1.348856E+0	1.541351E+0	1.444696E+0	1.408178E+0	1.519921E+0	1.606049E+0	1.357778E+0	1.336109E+0	1.428691E+0	1.568977E+0	1.325325E+0	1.331461E+0	1.322369E+0	1.602405E+0	1.496264E+0	1.498183E+0	1.327972E+0	1.609026E+0	1.388555E+0	1.495604E+0	1.474235E+0	1.534043E+0	1.300208E+0	1.336124E+0	1.495166E+0	1.620187E+0	1.375605E+0	1.320484E+0	1.312185E+0	1.616259E+0	1.522708E+0	1.507391E+0	1.356002E+0	1.560090E+0	1.404735E+0	1.458806E+0	1.509177E+0	1.595914E+0	1.329543E+0	1.368646E+0	1.511265E+0	1.569280E+0	1.427618E+0	1.445574E+0	1.348512E+0	1.547620E+0	1.538910E+0	1.549002E+0	1.414091E+0	1.552569E+0	1.526033E+0	1.405102E+0	1.493267E+0	1.536463E+0	1.299379E+0	1.311822E+0	1.472108E+0	1.577265E+0	1.119545E+0	1.162007E+0	1.349235E+0	1.553947E+0	1.425450E+0	1.447317E+0	1.127032E+0	1.474554E+0	1.355210E+0	1.450484E+0	1.450317E+0	1.328970E+0
5.392720E+2	1.837404E+0	1.817028E+0	1.633578E+0	1.861601E+0	1.752769E+0	1.876673E+0	1.471089E+0	1.692323E+0	1.636933E+0	1.764617E+0	1.581432E+0	1.784111E+0	1.528209E+0	1.731025E+0	1.768851E+0	1.785454E+0	1.579838E+0	1.803694E+0	1.641096E+0	1.780612E+0	1.786486E+0	1.853243E+0	1.521105E+0	1.668391E+0	1.616670E+0	1.774197E+0	1.639086E+0	1.530820E+0	1.527111E+0	1.804316E+0	1.677480E+0	1.711985E+0	1.359761E+0	1.731979E+0	1.743245E+0	1.723611E+0	1.685532E+0	1.797909E+0	1.537214E+0	1.583856E+0	1.657040E+0	1.873384E+0	1.628086E+0	1.622371E+0	1.526229E+0	1.804791E+0	1.794749E+0	1.735380E+0	1.575701E+0	1.758102E+0	1.725420E+0	1.744700E+0	1.713139E+0	1.858406E+0	1.489287E+0	1.596785E+0	1.599989E+0	1.812805E+0	1.528042E+0	1.532276E+0	1.505786E+0	1.790883E+0	1.658421E+0	1.760525E+0	1.497787E+0	1.594998E+0	1.643421E+0	1.739350E+0	1.736817E+0	1.729705E+0	1.557555E+0	1.487325E+0	1.586576E+0	1.751050E+0	1.561499E+0	1.509501E+0	1.515903E+0	1.765139E+0	1.648526E+0	1.594894E+0	1.565989E+0	1.825098E+0	1.632156E+0	1.749721E+0	1.666727E+0	1.788243E+0	1.586863E+0	1.653696E+0	1.643321E+0	1.805270E+0	1.537317E+0	1.689982E+0	1.460774E+0	1.778558E+0	1.660381E+0	1.769689E+0	1.593133E+0	1.857119E+0	1.693423E+0	1.658009E+0	1.746879E+0	1.867916E+0	1.531968E+0	1.542701E+0	1.563174E+0	1.853167E+0	1.612954E+0	1.551606E+0	1.469703E+0	1.817617E+0	1.693266E+0	1.753725E+0	1.491218E+0	1.843024E+0	1.590829E+0	1.650629E+0	1.687727E+0	1.910209E+0	1.566849E+0	1.517635E+0	1.706298E+0	1.794146E+0	1.597271E+0	1.499953E+0	1.489675E+0	1.815202E+0	1.693914E+0	1.678635E+0	1.484830E+0	1.799323E+0	1.544728E+0	1.683525E+0	1.709271E+0	1.822110E+0	1.531266E+0	1.651489E+0	1.635825E+0	1.785290E+0	1.527789E+0	1.687213E+0	1.577548E+0	1.800199E+0	1.626895E+0	1.699733E+0	1.579182E+0	1.791218E+0	1.715316E+0	1.696959E+0	1.749406E+0	1.776044E+0	1.445186E+0	1.500513E+0	1.673774E+0	1.833513E+0	1.215762E+0	1.354900E+0	1.486237E+0	1.815271E+0	1.639121E+0	1.644798E+0	1.269349E+0	1.723205E+0	1.674793E+0	1.656107E+0	1.629694E+0	1.787158E+0
5.395260E+2	1.983270E+0	2.105068E+0	1.874999E+0	2.091885E+0	2.109190E+0	2.050045E+0	1.722206E+0	1.908391E+0	1.927905E+0	2.000057E+0	1.700126E+0	2.003652E+0	1.791162E+0	2.119588E+0	1.961629E+0	2.046292E+0	1.798690E+0	2.006074E+0	1.789690E+0	1.976884E+0	1.908116E+0	2.041558E+0	1.737454E+0	1.819024E+0	1.866096E+0	1.938974E+0	1.801340E+0	1.780079E+0	1.725360E+0	1.955546E+0	1.878559E+0	1.996404E+0	1.506383E+0	1.997555E+0	2.053631E+0	1.847149E+0	1.884358E+0	1.971849E+0	1.733277E+0	1.746037E+0	1.840554E+0	2.024345E+0	1.790708E+0	1.851321E+0	1.715256E+0	2.043633E+0	1.927970E+0	1.911908E+0	1.828566E+0	2.010057E+0	1.873659E+0	1.886644E+0	1.997889E+0	2.058131E+0	1.683448E+0	1.730936E+0	1.780727E+0	2.033341E+0	1.693570E+0	1.714476E+0	1.737151E+0	2.028651E+0	1.878010E+0	1.930373E+0	1.721020E+0	1.702367E+0	1.801439E+0	1.909277E+0	1.858542E+0	1.977731E+0	1.759919E+0	1.682878E+0	1.784601E+0	1.960770E+0	1.722355E+0	1.670427E+0	1.699455E+0	1.975098E+0	1.926040E+0	1.872249E+0	1.715564E+0	1.955137E+0	1.841099E+0	1.962305E+0	1.941107E+0	2.094409E+0	1.701628E+0	1.829615E+0	1.845889E+0	1.932301E+0	1.690552E+0	1.883073E+0	1.671438E+0	2.020124E+0	1.949377E+0	1.910423E+0	1.765141E+0	2.074002E+0	1.817442E+0	1.906450E+0	1.947930E+0	2.070131E+0	1.710347E+0	1.746423E+0	1.792788E+0	2.013685E+0	1.718458E+0	1.792330E+0	1.683440E+0	2.039125E+0	1.859959E+0	1.929856E+0	1.711135E+0	2.002255E+0	1.794999E+0	1.863873E+0	1.816567E+0	2.039920E+0	1.754925E+0	1.682146E+0	1.874363E+0	2.034087E+0	1.721350E+0	1.722603E+0	1.657212E+0	1.967568E+0	1.919117E+0	1.858560E+0	1.664377E+0	2.029720E+0	1.718905E+0	1.843049E+0	1.831393E+0	2.060499E+0	1.648634E+0	1.812184E+0	1.823926E+0	1.999960E+0	1.705117E+0	1.860478E+0	1.724295E+0	2.020033E+0	1.861737E+0	1.939233E+0	1.740864E+0	2.070374E+0	1.877554E+0	1.851631E+0	1.920387E+0	1.990984E+0	1.618931E+0	1.661499E+0	1.844515E+0	2.023847E+0	1.449019E+0	1.505189E+0	1.620795E+0	1.983510E+0	1.843943E+0	1.823650E+0	1.463922E+0	1.955036E+0	1.776593E+0	1.823941E+0	1.752849E+0	2.106347E+0
5.397910E+2	2.193037E+0	2.280085E+0	2.005383E+0	2.144748E+0	2.174530E+0	2.230564E+0	1.805911E+0	2.037616E+0	2.065701E+0	2.166361E+0	1.986449E+0	2.168145E+0	1.900418E+0	2.227872E+0	2.117825E+0	2.241289E+0	1.938641E+0	2.235645E+0	2.059296E+0	2.091745E+0	2.163202E+0	2.305318E+0	1.876457E+0	2.018702E+0	2.019301E+0	2.195628E+0	1.914261E+0	1.899531E+0	1.801396E+0	2.168340E+0	2.039416E+0	2.097513E+0	1.598371E+0	2.140025E+0	2.050266E+0	2.100195E+0	2.007441E+0	2.138989E+0	1.922739E+0	1.941794E+0	2.008611E+0	2.172661E+0	1.957249E+0	2.010644E+0	1.862518E+0	2.190847E+0	2.096085E+0	2.106260E+0	1.926465E+0	2.209009E+0	2.074886E+0	2.058373E+0	2.083794E+0	2.168958E+0	1.837039E+0	1.894416E+0	1.979483E+0	2.200433E+0	1.901401E+0	1.902956E+0	1.826219E+0	2.150375E+0	2.143986E+0	2.126724E+0	1.800835E+0	1.885146E+0	1.924340E+0	2.052547E+0	1.969089E+0	2.145048E+0	1.902660E+0	1.884358E+0	1.969808E+0	2.154304E+0	1.957104E+0	1.851768E+0	1.809699E+0	2.076715E+0	2.019604E+0	2.003689E+0	1.947186E+0	2.242473E+0	2.032241E+0	2.105623E+0	2.063675E+0	2.183922E+0	1.767946E+0	2.012836E+0	1.979170E+0	2.279568E+0	1.831999E+0	1.991428E+0	1.774023E+0	2.155081E+0	2.035167E+0	2.063311E+0	1.858912E+0	2.204530E+0	2.009984E+0	1.986001E+0	2.046485E+0	2.195398E+0	1.825280E+0	1.879555E+0	1.912585E+0	2.179463E+0	1.921413E+0	1.882758E+0	1.825065E+0	2.149875E+0	2.128489E+0	2.070759E+0	1.831261E+0	2.239025E+0	1.990320E+0	2.038530E+0	2.012268E+0	2.110953E+0	1.882288E+0	1.864265E+0	2.083099E+0	2.194048E+0	1.871284E+0	1.884529E+0	1.758400E+0	2.143224E+0	2.033037E+0	2.111697E+0	1.802533E+0	2.176199E+0	1.913448E+0	1.933219E+0	2.030911E+0	2.145248E+0	1.793505E+0	1.869701E+0	2.015799E+0	2.136632E+0	1.911551E+0	1.980635E+0	1.839968E+0	2.146009E+0	2.104344E+0	2.097110E+0	1.918235E+0	2.224314E+0	2.061981E+0	1.988145E+0	2.121732E+0	2.104612E+0	1.807262E+0	1.795949E+0	1.975388E+0	2.239072E+0	1.565065E+0	1.605779E+0	1.811009E+0	2.160716E+0	1.969746E+0	1.914938E+0	1.556208E+0	2.164923E+0	1.932627E+0	1.980659E+0	1.987111E+0	2.222181E+0
5.400140E+2	2.265276E+0	2.288838E+0	1.942342E+0	2.333756E+0	2.185096E+0	2.261544E+0	1.892692E+0	2.075829E+0	2.078615E+0	2.266799E+0	2.011202E+0	2.178629E+0	1.858074E+0	2.201817E+0	2.195054E+0	2.248817E+0	1.973193E+0	2.244499E+0	2.024183E+0	2.177576E+0	2.161517E+0	2.244404E+0	1.870638E+0	2.037382E+0	2.018666E+0	2.190115E+0	1.996281E+0	1.946457E+0	1.836314E+0	2.181493E+0	2.075304E+0	2.161376E+0	1.663600E+0	2.145649E+0	2.127023E+0	2.037098E+0	2.070160E+0	2.213775E+0	1.972502E+0	1.944071E+0	2.026638E+0	2.187226E+0	2.016030E+0	1.991824E+0	1.838418E+0	2.250711E+0	2.150642E+0	2.106834E+0	1.999742E+0	2.218826E+0	2.180230E+0	2.091954E+0	2.194331E+0	2.245411E+0	1.815595E+0	1.912884E+0	2.006501E+0	2.215319E+0	1.923470E+0	1.925577E+0	1.797756E+0	2.241822E+0	2.064720E+0	2.100825E+0	1.822659E+0	1.866612E+0	2.041602E+0	2.104527E+0	2.165340E+0	2.164734E+0	1.916989E+0	1.810556E+0	1.980060E+0	2.161341E+0	1.860982E+0	1.869781E+0	1.844395E+0	2.228131E+0	2.118259E+0	2.065644E+0	1.875236E+0	2.266942E+0	2.045422E+0	2.115910E+0	2.154514E+0	2.177437E+0	1.892516E+0	1.956224E+0	1.981151E+0	2.231933E+0	1.872323E+0	1.955307E+0	1.814621E+0	2.189589E+0	2.077144E+0	2.055635E+0	1.871453E+0	2.239463E+0	2.016834E+0	2.059279E+0	2.096048E+0	2.274734E+0	1.845629E+0	1.903657E+0	2.010654E+0	2.157756E+0	1.893859E+0	1.940757E+0	1.839073E+0	2.231051E+0	2.029080E+0	2.120314E+0	1.808471E+0	2.188486E+0	1.975150E+0	2.103516E+0	2.044786E+0	2.192483E+0	1.919192E+0	1.802346E+0	2.075327E+0	2.188716E+0	1.988256E+0	1.873736E+0	1.754530E+0	2.232383E+0	2.080446E+0	2.071987E+0	1.845088E+0	2.235087E+0	1.904247E+0	2.118404E+0	2.004537E+0	2.195850E+0	1.846690E+0	1.945007E+0	2.013912E+0	2.221304E+0	1.882445E+0	2.052327E+0	1.890037E+0	2.191359E+0	2.107575E+0	2.055408E+0	1.919601E+0	2.210319E+0	2.024546E+0	2.000248E+0	2.125695E+0	2.261367E+0	1.781747E+0	1.767673E+0	2.045587E+0	2.220909E+0	1.600633E+0	1.654888E+0	1.811011E+0	2.242763E+0	2.014631E+0	1.999399E+0	1.556210E+0	2.173699E+0	1.847516E+0	2.030675E+0	2.098218E+0	2.152680E+0
5.402630E+2	2.204848E+0	2.260398E+0	1.974579E+0	2.236716E+0	2.257698E+0	2.267501E+0	1.840993E+0	2.105704E+0	2.065084E+0	2.273970E+0	1.911072E+0	2.182558E+0	1.930217E+0	2.246984E+0	2.231634E+0	2.155388E+0	1.953037E+0	2.202755E+0	2.003493E+0	2.156117E+0	2.134484E+0	2.261172E+0	1.815388E+0	1.995346E+0	1.985748E+0	2.109874E+0	1.933286E+0	1.908673E+0	1.824487E+0	2.244252E+0	2.020860E+0	2.071496E+0	1.610080E+0	2.142523E+0	2.129713E+0	2.093552E+0	2.124012E+0	2.184881E+0	1.932333E+0	1.959436E+0	1.977056E+0	2.218345E+0	1.893898E+0	1.949173E+0	1.870012E+0	2.123043E+0	2.190604E+0	2.150539E+0	1.918060E+0	2.213589E+0	2.081195E+0	2.048231E+0	2.126450E+0	2.164217E+0	1.831243E+0	1.906910E+0	2.013106E+0	2.248465E+0	1.888525E+0	1.838876E+0	1.784582E+0	2.157310E+0	2.081159E+0	2.127329E+0	1.772150E+0	1.829544E+0	1.982657E+0	2.088533E+0	2.073426E+0	2.171293E+0	1.912976E+0	1.888131E+0	1.951223E+0	2.190899E+0	1.899560E+0	1.774907E+0	1.796267E+0	2.149393E+0	2.057155E+0	2.090544E+0	1.801395E+0	2.205419E+0	2.090900E+0	2.122080E+0	2.031320E+0	2.205326E+0	1.852150E+0	2.010399E+0	2.055708E+0	2.193270E+0	1.844408E+0	2.058104E+0	1.770732E+0	2.136594E+0	2.102094E+0	2.029405E+0	1.839201E+0	2.277043E+0	1.988059E+0	2.059279E+0	2.072392E+0	2.111288E+0	1.789962E+0	1.888736E+0	1.909648E+0	2.130779E+0	1.911330E+0	1.918303E+0	1.802239E+0	2.188263E+0	2.042413E+0	2.104792E+0	1.794920E+0	2.212719E+0	1.954289E+0	1.953911E+0	2.034970E+0	2.118982E+0	1.922166E+0	1.824198E+0	2.022093E+0	2.162054E+0	1.875161E+0	1.788048E+0	1.758401E+0	2.194457E+0	2.062668E+0	2.052136E+0	1.834593E+0	2.143807E+0	1.849698E+0	2.075402E+0	2.055562E+0	2.181827E+0	1.792288E+0	1.908243E+0	2.017055E+0	2.113966E+0	1.927116E+0	1.951428E+0	1.861260E+0	2.204585E+0	2.057118E+0	2.080429E+0	1.914142E+0	2.157289E+0	1.930249E+0	1.976041E+0	2.012147E+0	2.117620E+0	1.787821E+0	1.763057E+0	1.989664E+0	2.202077E+0	1.500334E+0	1.672640E+0	1.809174E+0	2.171747E+0	1.996929E+0	1.992568E+0	1.497281E+0	2.146640E+0	1.925949E+0	2.107369E+0	2.021916E+0	2.124365E+0
5.405080E+2	2.123579E+0	2.133513E+0	1.920132E+0	2.096955E+0	2.071566E+0	2.143581E+0	1.876076E+0	1.974395E+0	1.941435E+0	2.117448E+0	1.927951E+0	2.086880E+0	1.804753E+0	2.069788E+0	2.120145E+0	2.129056E+0	1.897748E+0	2.125604E+0	1.924493E+0	2.033054E+0	2.026367E+0	2.184614E+0	1.878780E+0	1.865732E+0	1.931935E+0	2.045557E+0	1.875037E+0	1.810549E+0	1.804214E+0	2.129489E+0	1.849478E+0	2.044888E+0	1.573841E+0	2.091911E+0	2.071813E+0	1.958061E+0	1.942939E+0	2.082899E+0	1.846597E+0	1.839930E+0	1.926835E+0	2.115716E+0	1.858632E+0	1.921576E+0	1.713114E+0	2.116323E+0	2.081493E+0	1.993557E+0	1.846584E+0	2.111496E+0	1.980266E+0	1.944940E+0	2.027926E+0	2.081837E+0	1.758793E+0	1.813492E+0	1.915232E+0	2.149020E+0	1.822314E+0	1.787982E+0	1.728193E+0	2.098026E+0	1.950226E+0	2.018914E+0	1.794600E+0	1.793118E+0	1.917444E+0	1.937929E+0	1.950457E+0	2.082715E+0	1.770238E+0	1.775539E+0	1.816003E+0	2.141637E+0	1.828940E+0	1.783917E+0	1.725200E+0	2.086138E+0	1.955953E+0	1.939420E+0	1.843051E+0	2.100557E+0	1.921508E+0	2.040477E+0	2.010789E+0	2.100245E+0	1.755839E+0	1.923964E+0	1.963332E+0	2.094546E+0	1.786087E+0	1.860852E+0	1.738914E+0	2.108865E+0	1.937211E+0	2.051158E+0	1.832633E+0	2.137290E+0	1.969556E+0	1.905049E+0	1.972146E+0	2.175117E+0	1.754045E+0	1.829633E+0	1.797485E+0	2.111702E+0	1.834048E+0	1.836605E+0	1.717680E+0	2.098274E+0	2.006044E+0	2.023591E+0	1.823873E+0	2.102642E+0	1.896136E+0	1.842886E+0	1.933129E+0	2.129485E+0	1.813841E+0	1.770170E+0	1.940753E+0	2.136729E+0	1.879687E+0	1.738120E+0	1.664403E+0	2.167176E+0	2.053450E+0	1.898889E+0	1.726166E+0	2.067993E+0	1.803691E+0	2.026851E+0	1.923696E+0	2.113541E+0	1.693872E+0	1.835307E+0	1.915147E+0	2.057299E+0	1.742343E+0	1.863135E+0	1.802562E+0	2.066012E+0	1.974308E+0	1.965446E+0	1.907318E+0	2.093206E+0	1.958679E+0	1.909464E+0	2.061662E+0	2.082710E+0	1.662673E+0	1.788446E+0	1.914708E+0	2.066219E+0	1.423360E+0	1.536552E+0	1.735778E+0	2.021434E+0	1.831935E+0	1.857806E+0	1.417228E+0	2.050838E+0	1.813306E+0	1.920642E+0	1.900100E+0	2.067736E+0
5.407630E+2	2.058980E+0	2.049648E+0	2.057680E+0	1.998471E+0	1.965302E+0	2.029191E+0	2.020099E+0	1.863927E+0	1.926674E+0	1.962228E+0	2.055080E+0	1.989234E+0	1.736791E+0	2.019989E+0	2.105630E+0	1.991114E+0	1.727276E+0	1.960537E+0	1.934523E+0	1.963631E+0	1.907555E+0	2.053293E+0	1.836327E+0	1.772899E+0	1.844575E+0	2.026568E+0	1.899403E+0	1.716698E+0	1.682558E+0	1.987824E+0	1.934862E+0	1.933133E+0	1.457323E+0	1.948812E+0	1.931764E+0	1.951424E+0	1.850629E+0	1.969581E+0	1.757862E+0	1.789285E+0	1.805133E+0	2.006467E+0	1.735849E+0	1.791730E+0	1.689552E+0	1.975220E+0	1.886737E+0	1.890058E+0	1.769105E+0	2.004822E+0	1.853477E+0	1.870167E+0	1.967853E+0	1.991754E+0	1.671860E+0	1.739085E+0	1.868395E+0	2.027930E+0	1.721772E+0	1.632799E+0	1.704999E+0	2.014144E+0	1.812250E+0	1.940012E+0	1.669264E+0	1.756049E+0	1.829029E+0	1.916606E+0	1.900774E+0	1.992163E+0	1.727244E+0	1.637089E+0	1.799980E+0	1.949510E+0	1.730858E+0	1.649409E+0	1.664203E+0	1.968372E+0	1.866846E+0	1.819557E+0	1.755324E+0	2.015261E+0	1.791007E+0	1.980818E+0	1.876399E+0	2.033432E+0	1.690671E+0	1.853961E+0	1.800362E+0	1.974413E+0	1.684348E+0	1.898354E+0	1.642358E+0	1.967742E+0	1.849597E+0	1.886756E+0	1.692276E+0	2.024563E+0	1.802369E+0	1.878533E+0	1.872464E+0	1.993183E+0	1.634928E+0	1.695346E+0	1.786324E+0	2.016313E+0	1.792383E+0	1.751167E+0	1.711970E+0	1.949766E+0	1.862991E+0	1.974632E+0	1.719763E+0	2.027872E+0	1.801952E+0	1.833410E+0	1.904294E+0	2.019537E+0	1.715640E+0	1.675470E+0	1.889319E+0	1.995429E+0	1.797613E+0	1.741493E+0	1.569297E+0	2.057392E+0	1.911215E+0	1.819473E+0	1.683032E+0	2.043704E+0	1.795141E+0	1.847907E+0	1.847444E+0	1.979407E+0	1.616238E+0	1.742808E+0	1.839022E+0	2.004631E+0	1.729485E+0	1.811355E+0	1.708762E+0	1.965861E+0	1.967189E+0	1.880248E+0	1.734723E+0	1.922325E+0	1.892116E+0	1.809937E+0	1.907842E+0	1.941698E+0	1.638374E+0	1.718626E+0	1.830235E+0	1.997620E+0	1.391869E+0	1.508149E+0	1.639142E+0	1.977310E+0	1.778831E+0	1.774592E+0	1.405553E+0	1.968929E+0	1.774088E+0	1.846171E+0	1.826475E+0	1.910716E+0
5.410190E+2	1.992299E+0	1.967975E+0	1.946640E+0	1.875364E+0	1.853097E+0	2.005361E+0	1.934547E+0	1.836829E+0	1.834399E+0	1.943968E+0	1.975764E+0	1.925667E+0	1.674583E+0	1.927914E+0	1.947108E+0	1.870730E+0	1.657587E+0	1.898559E+0	1.876213E+0	1.826680E+0	1.764527E+0	1.953270E+0	1.913676E+0	1.659633E+0	1.735053E+0	1.869145E+0	1.927932E+0	1.660018E+0	1.631306E+0	1.878434E+0	1.958989E+0	1.795359E+0	1.434464E+0	1.861956E+0	1.933110E+0	1.798661E+0	1.755358E+0	1.835872E+0	1.756662E+0	1.678887E+0	1.721428E+0	1.933640E+0	1.775034E+0	1.772284E+0	1.627972E+0	1.901306E+0	1.899425E+0	1.865332E+0	1.653782E+0	1.943962E+0	1.837706E+0	1.819472E+0	1.906580E+0	1.913520E+0	1.611000E+0	1.679339E+0	1.726087E+0	1.946750E+0	1.678854E+0	1.667984E+0	1.592221E+0	1.857106E+0	1.855698E+0	1.862917E+0	1.624990E+0	1.656989E+0	1.725567E+0	1.823981E+0	1.769731E+0	1.906209E+0	1.616027E+0	1.672107E+0	1.742944E+0	1.893915E+0	1.622312E+0	1.582760E+0	1.611037E+0	1.907133E+0	1.864933E+0	1.736756E+0	1.608273E+0	1.911092E+0	1.739593E+0	1.834070E+0	1.812314E+0	1.923162E+0	1.604740E+0	1.774828E+0	1.778583E+0	1.861194E+0	1.651466E+0	1.698318E+0	1.538125E+0	1.842030E+0	1.828303E+0	1.852211E+0	1.649871E+0	1.953364E+0	1.778389E+0	1.833871E+0	1.865144E+0	1.965743E+0	1.615772E+0	1.645996E+0	1.733473E+0	1.951849E+0	1.659324E+0	1.664486E+0	1.607699E+0	1.854117E+0	1.782978E+0	1.836714E+0	1.636602E+0	1.940638E+0	1.681219E+0	1.714941E+0	1.809814E+0	1.863264E+0	1.674575E+0	1.664540E+0	1.824124E+0	1.891453E+0	1.725229E+0	1.581592E+0	1.495205E+0	1.979547E+0	1.770299E+0	1.790931E+0	1.620656E+0	1.898691E+0	1.649892E+0	1.822245E+0	1.803870E+0	1.847715E+0	1.545327E+0	1.669871E+0	1.754727E+0	1.909292E+0	1.698347E+0	1.773515E+0	1.701277E+0	1.910432E+0	1.820332E+0	1.829610E+0	1.677420E+0	1.907590E+0	1.714624E+0	1.749415E+0	1.827965E+0	1.795896E+0	1.564864E+0	1.568024E+0	1.774908E+0	1.912872E+0	1.665362E+0	1.487440E+0	1.585933E+0	1.854572E+0	1.741532E+0	1.704414E+0	1.336062E+0	1.881169E+0	1.687308E+0	1.742804E+0	1.734108E+0	1.843789E+0
5.412640E+2	1.875610E+0	1.851302E+0	1.871421E+0	1.768910E+0	1.785772E+0	1.862376E+0	1.874231E+0	1.760410E+0	1.685529E+0	1.799183E+0	1.853133E+0	1.789356E+0	1.607667E+0	1.766352E+0	1.905305E+0	1.836243E+0	1.648952E+0	1.782823E+0	1.879975E+0	1.776193E+0	1.763399E+0	1.863858E+0	1.852608E+0	1.650877E+0	1.637563E+0	1.783387E+0	1.891083E+0	1.572259E+0	1.507963E+0	1.795949E+0	1.838962E+0	1.703115E+0	1.414395E+0	1.852582E+0	1.860398E+0	1.722285E+0	1.715119E+0	1.791110E+0	1.865784E+0	1.624257E+0	1.664768E+0	1.914437E+0	1.929818E+0	1.723985E+0	1.526764E+0	1.809677E+0	1.843595E+0	1.734801E+0	1.614743E+0	1.831400E+0	1.852842E+0	1.721887E+0	1.786431E+0	1.847739E+0	1.721122E+0	1.633176E+0	1.636013E+0	1.771538E+0	1.740776E+0	1.581281E+0	1.564285E+0	1.865933E+0	1.824576E+0	1.762332E+0	1.547669E+0	1.626954E+0	1.565666E+0	1.773337E+0	1.734950E+0	1.758574E+0	1.547811E+0	1.547663E+0	1.714747E+0	1.798905E+0	1.568038E+0	1.486082E+0	1.463862E+0	1.853297E+0	1.734452E+0	1.763971E+0	1.596282E+0	1.856562E+0	1.652590E+0	1.756579E+0	1.740141E+0	1.860243E+0	1.581093E+0	1.727958E+0	1.709302E+0	1.808032E+0	1.567095E+0	1.612886E+0	1.498627E+0	1.837100E+0	1.692625E+0	1.746658E+0	1.578799E+0	1.810971E+0	1.685884E+0	1.727797E+0	1.763210E+0	1.811248E+0	1.508625E+0	1.559915E+0	1.640688E+0	1.879482E+0	1.624376E+0	1.589646E+0	1.530917E+0	1.819506E+0	1.727818E+0	1.819996E+0	1.526333E+0	1.817409E+0	1.612319E+0	1.680417E+0	1.739265E+0	1.841028E+0	1.548992E+0	1.553451E+0	1.659647E+0	1.806804E+0	1.610843E+0	1.549203E+0	1.504054E+0	1.895045E+0	1.788739E+0	1.676153E+0	1.579849E+0	1.814042E+0	1.609143E+0	1.784094E+0	1.677163E+0	1.815403E+0	1.508038E+0	1.622433E+0	1.724530E+0	1.829959E+0	1.611714E+0	1.675931E+0	1.584458E+0	1.842406E+0	1.712941E+0	1.765862E+0	1.650814E+0	1.811840E+0	1.690356E+0	1.744704E+0	1.717716E+0	1.801371E+0	1.403874E+0	1.578410E+0	1.621427E+0	1.861083E+0	1.496253E+0	1.347205E+0	1.444650E+0	1.890428E+0	1.704237E+0	1.669015E+0	1.314381E+0	1.882633E+0	1.629734E+0	1.669445E+0	1.676547E+0	1.738250E+0
5.415140E+2	1.787398E+0	1.822862E+0	1.775420E+0	1.816704E+0	1.798312E+0	1.780159E+0	1.848379E+0	1.583247E+0	1.667692E+0	1.807662E+0	1.767062E+0	1.674019E+0	1.474361E+0	1.732763E+0	1.793236E+0	1.789843E+0	1.515336E+0	1.720843E+0	1.784050E+0	1.740221E+0	1.728487E+0	1.843741E+0	1.724077E+0	1.607087E+0	1.574887E+0	1.719680E+0	1.730021E+0	1.522289E+0	1.485434E+0	1.701507E+0	1.727593E+0	1.695429E+0	1.295643E+0	1.767600E+0	1.770850E+0	1.675128E+0	1.609787E+0	1.693661E+0	1.768650E+0	1.558246E+0	1.607458E+0	1.726397E+0	1.735195E+0	1.606688E+0	1.451260E+0	1.715609E+0	1.789040E+0	1.663502E+0	1.519841E+0	1.766607E+0	1.791023E+0	1.642677E+0	1.668682E+0	1.739281E+0	1.770965E+0	1.513688E+0	1.514119E+0	1.752599E+0	1.776331E+0	1.472589E+0	1.449921E+0	1.715831E+0	1.804617E+0	1.679217E+0	1.562636E+0	1.517667E+0	1.766323E+0	1.678708E+0	1.675950E+0	1.739548E+0	1.671063E+0	1.483552E+0	1.575041E+0	1.706013E+0	1.752435E+0	1.445249E+0	1.452671E+0	1.660835E+0	1.706448E+0	1.630792E+0	1.524335E+0	1.739109E+0	1.560971E+0	1.699665E+0	1.638727E+0	1.772674E+0	1.424228E+0	1.615956E+0	1.620890E+0	1.725877E+0	1.467214E+0	1.564963E+0	1.422370E+0	1.744050E+0	1.619007E+0	1.604007E+0	1.492794E+0	1.758234E+0	1.568031E+0	1.579849E+0	1.651140E+0	1.789178E+0	1.426616E+0	1.535241E+0	1.562583E+0	1.743306E+0	1.535670E+0	1.505457E+0	1.427680E+0	1.778602E+0	1.661745E+0	1.655807E+0	1.538652E+0	1.784871E+0	1.567441E+0	1.597149E+0	1.598773E+0	1.714404E+0	1.499593E+0	1.451466E+0	1.657251E+0	1.726828E+0	1.519073E+0	1.485106E+0	1.401761E+0	1.769288E+0	1.633336E+0	1.625897E+0	1.415460E+0	1.672713E+0	1.549334E+0	1.643302E+0	1.662831E+0	1.723948E+0	1.429183E+0	1.565512E+0	1.603739E+0	1.723290E+0	1.552155E+0	1.603568E+0	1.537267E+0	1.692490E+0	1.696765E+0	1.670540E+0	1.498685E+0	1.729341E+0	1.605766E+0	1.569858E+0	1.717721E+0	1.717176E+0	1.416630E+0	1.438769E+0	1.630348E+0	1.738006E+0	1.502084E+0	1.322355E+0	1.439757E+0	1.735289E+0	1.631536E+0	1.564066E+0	1.219315E+0	1.697608E+0	1.557139E+0	1.695010E+0	1.538668E+0	1.681620E+0
5.417650E+2	1.661674E+0	1.637638E+0	1.656500E+0	1.583525E+0	1.595682E+0	1.665178E+0	1.589261E+0	1.483202E+0	1.524978E+0	1.589181E+0	1.610119E+0	1.584234E+0	1.354123E+0	1.528350E+0	1.593492E+0	1.655664E+0	1.419731E+0	1.620923E+0	1.691252E+0	1.592543E+0	1.510567E+0	1.578867E+0	1.610086E+0	1.438353E+0	1.423586E+0	1.573896E+0	1.690202E+0	1.377850E+0	1.367159E+0	1.571199E+0	1.616849E+0	1.534004E+0	1.234318E+0	1.553892E+0	1.618689E+0	1.549597E+0	1.473687E+0	1.591110E+0	1.619359E+0	1.403466E+0	1.450346E+0	1.661511E+0	1.638539E+0	1.429171E+0	1.325417E+0	1.620317E+0	1.667240E+0	1.571501E+0	1.394913E+0	1.624597E+0	1.642155E+0	1.446869E+0	1.622426E+0	1.620156E+0	1.588397E+0	1.430590E+0	1.460680E+0	1.625416E+0	1.653721E+0	1.407877E+0	1.340827E+0	1.610506E+0	1.615560E+0	1.552732E+0	1.364967E+0	1.380903E+0	1.641538E+0	1.514780E+0	1.482803E+0	1.594537E+0	1.613160E+0	1.422141E+0	1.466095E+0	1.567371E+0	1.591579E+0	1.373192E+0	1.307171E+0	1.586812E+0	1.594424E+0	1.542783E+0	1.432820E+0	1.540558E+0	1.613704E+0	1.561827E+0	1.524248E+0	1.639703E+0	1.560909E+0	1.465602E+0	1.501461E+0	1.636124E+0	1.519326E+0	1.389239E+0	1.333496E+0	1.586289E+0	1.623267E+0	1.555393E+0	1.413356E+0	1.636281E+0	1.490605E+0	1.520532E+0	1.501898E+0	1.626929E+0	1.311090E+0	1.337258E+0	1.406964E+0	1.631473E+0	1.393200E+0	1.376364E+0	1.335339E+0	1.584785E+0	1.464138E+0	1.564456E+0	1.356308E+0	1.604177E+0	1.430273E+0	1.483418E+0	1.578530E+0	1.593341E+0	1.375201E+0	1.342197E+0	1.498160E+0	1.634181E+0	1.432475E+0	1.396046E+0	1.285643E+0	1.678137E+0	1.591193E+0	1.426118E+0	1.346093E+0	1.600577E+0	1.408022E+0	1.487242E+0	1.502294E+0	1.640423E+0	1.338100E+0	1.335441E+0	1.524474E+0	1.591952E+0	1.370766E+0	1.500009E+0	1.388217E+0	1.649660E+0	1.553787E+0	1.500745E+0	1.435923E+0	1.588660E+0	1.500383E+0	1.505304E+0	1.526934E+0	1.636399E+0	1.356487E+0	1.404726E+0	1.442957E+0	1.661333E+0	1.393035E+0	1.175026E+0	1.350457E+0	1.571877E+0	1.461484E+0	1.485197E+0	1.140927E+0	1.605461E+0	1.431978E+0	1.462710E+0	1.515911E+0	1.601824E+0
5.420110E+2	1.474131E+0	1.443662E+0	1.472388E+0	1.439417E+0	1.451793E+0	1.424487E+0	1.455704E+0	1.363011E+0	1.346580E+0	1.451574E+0	1.441361E+0	1.403361E+0	1.237547E+0	1.469282E+0	1.476199E+0	1.446873E+0	1.287847E+0	1.417910E+0	1.412245E+0	1.392482E+0	1.339383E+0	1.467107E+0	1.479231E+0	1.264950E+0	1.286211E+0	1.417084E+0	1.455440E+0	1.302282E+0	1.203829E+0	1.452248E+0	1.431857E+0	1.331188E+0	1.101076E+0	1.397672E+0	1.479988E+0	1.341717E+0	1.363032E+0	1.470993E+0	1.468264E+0	1.283962E+0	1.322209E+0	1.429774E+0	1.442605E+0	1.323168E+0	1.188869E+0	1.344212E+0	1.458529E+0	1.343222E+0	1.289802E+0	1.471457E+0	1.463640E+0	1.329007E+0	1.386937E+0	1.434654E+0	1.426690E+0	1.258962E+0	1.299752E+0	1.395408E+0	1.469187E+0	1.222537E+0	1.152150E+0	1.375257E+0	1.418867E+0	1.382279E+0	1.251482E+0	1.193647E+0	1.424579E+0	1.380171E+0	1.385297E+0	1.393757E+0	1.449782E+0	1.247597E+0	1.312291E+0	1.416766E+0	1.411102E+0	1.218271E+0	1.172861E+0	1.425978E+0	1.468399E+0	1.352858E+0	1.225182E+0	1.471346E+0	1.391579E+0	1.349936E+0	1.402299E+0	1.416566E+0	1.433457E+0	1.321947E+0	1.292299E+0	1.451101E+0	1.438674E+0	1.317001E+0	1.226520E+0	1.430381E+0	1.465685E+0	1.382030E+0	1.264644E+0	1.435877E+0	1.443323E+0	1.396313E+0	1.415733E+0	1.471241E+0	1.473307E+0	1.217321E+0	1.250169E+0	1.415040E+0	1.453011E+0	1.222949E+0	1.196824E+0	1.436907E+0	1.478079E+0	1.427731E+0	1.203535E+0	1.453945E+0	1.310172E+0	1.328394E+0	1.376688E+0	1.463010E+0	1.281758E+0	1.247495E+0	1.308558E+0	1.458224E+0	1.299346E+0	1.253014E+0	1.154598E+0	1.477863E+0	1.380474E+0	1.328087E+0	1.145560E+0	1.434955E+0	1.298916E+0	1.347833E+0	1.327430E+0	1.436782E+0	1.209732E+0	1.322987E+0	1.299890E+0	1.411946E+0	1.311880E+0	1.304839E+0	1.238017E+0	1.458175E+0	1.450277E+0	1.339888E+0	1.315172E+0	1.419988E+0	1.295154E+0	1.316338E+0	1.431871E+0	1.448843E+0	1.201571E+0	1.200458E+0	1.396556E+0	1.479068E+0	1.310232E+0	1.118813E+0	1.193884E+0	1.428459E+0	1.331887E+0	1.371553E+0	1.038081E+0	1.472361E+0	1.282617E+0	1.353784E+0	1.361967E+0	1.362433E+0
5.422670E+2	1.277560E+0	1.219789E+0	1.258902E+0	1.236655E+0	1.238603E+0	1.274352E+0	1.319067E+0	1.128181E+0	1.136810E+0	1.224612E+0	1.240538E+0	1.211346E+0	1.041510E+0	1.211014E+0	1.254386E+0	1.298895E+0	1.081665E+0	1.192134E+0	1.254245E+0	1.194316E+0	1.204237E+0	1.258113E+0	1.270442E+0	1.105559E+0	1.135540E+0	1.232093E+0	1.343704E+0	1.093853E+0	1.032046E+0	1.234670E+0	1.299451E+0	1.228894E+0	9.148678E-1	1.197086E+0	1.288103E+0	1.153090E+0	1.112137E+0	1.252864E+0	1.234434E+0	1.118363E+0	1.161876E+0	1.278152E+0	1.258434E+0	1.091706E+0	1.029291E+0	1.253808E+0	1.291053E+0	1.228221E+0	1.123429E+0	1.217535E+0	1.288275E+0	1.188963E+0	1.239756E+0	1.272268E+0	1.187324E+0	1.058005E+0	1.168851E+0	1.203287E+0	1.232540E+0	1.045991E+0	1.038315E+0	1.299576E+0	1.247422E+0	1.207012E+0	1.044461E+0	1.043460E+0	1.265932E+0	1.098957E+0	1.179111E+0	1.256620E+0	1.243981E+0	1.083824E+0	1.127724E+0	1.267569E+0	1.261360E+0	9.972964E-1	1.048071E+0	1.242932E+0	1.253263E+0	1.178571E+0	1.109057E+0	1.307053E+0	1.284143E+0	1.203186E+0	1.193872E+0	1.288132E+0	1.304848E+0	1.219684E+0	1.147800E+0	1.270218E+0	1.193004E+0	1.145442E+0	1.051516E+0	1.255369E+0	1.268557E+0	1.170290E+0	1.102191E+0	1.278323E+0	1.275450E+0	1.267209E+0	1.228758E+0	1.256497E+0	1.256616E+0	1.081316E+0	1.124498E+0	1.288733E+0	1.259470E+0	1.099470E+0	1.075431E+0	1.260078E+0	1.239252E+0	1.277869E+0	1.023657E+0	1.314794E+0	1.280465E+0	1.175402E+0	1.175459E+0	1.232618E+0	1.297826E+0	1.058702E+0	1.142887E+0	1.248273E+0	1.239889E+0	1.088384E+0	1.061708E+0	1.264283E+0	1.293554E+0	1.192833E+0	1.101255E+0	1.298778E+0	1.103056E+0	1.186920E+0	1.147404E+0	1.253267E+0	1.147380E+0	1.153401E+0	1.157715E+0	1.240606E+0	1.123724E+0	1.199286E+0	1.102781E+0	1.247797E+0	1.201848E+0	1.235629E+0	1.144627E+0	1.270467E+0	1.144700E+0	1.187221E+0	1.207422E+0	1.168189E+0	1.003524E+0	1.051007E+0	1.116361E+0	1.283351E+0	1.106132E+0	9.572794E-1	1.115596E+0	1.251945E+0	1.183962E+0	1.175313E+0	8.935398E-1	1.305618E+0	1.140765E+0	1.151495E+0	1.151802E+0	1.269765E+0
5.425080E+2	1.106690E+0	1.075402E+0	1.131386E+0	1.117169E+0	1.078875E+0	1.114091E+0	1.138731E+0	1.018411E+0	9.977841E-1	1.106566E+0	1.113969E+0	1.074380E+0	9.881869E-1	1.100992E+0	1.096448E+0	1.115811E+0	9.929752E-1	1.080191E+0	1.120069E+0	1.059260E+0	1.069658E+0	1.151383E+0	1.090147E+0	9.969645E-1	1.019688E+0	1.097334E+0	1.129742E+0	9.957322E-1	9.312325E-1	1.057143E+0	1.094661E+0	1.055050E+0	8.200927E-1	1.075859E+0	1.099580E+0	1.056786E+0	1.005621E+0	1.091956E+0	1.098331E+0	9.556134E-1	1.013779E+0	1.088127E+0	1.164384E+0	1.044662E+0	9.120202E-1	1.049173E+0	1.125480E+0	1.062618E+0	9.372345E-1	1.135075E+0	1.101560E+0	1.066030E+0	1.103388E+0	1.121139E+0	1.143856E+0	9.651327E-1	9.773034E-1	1.106547E+0	1.068847E+0	9.454660E-1	9.192071E-1	1.100909E+0	1.097114E+0	1.078117E+0	9.228659E-1	9.686849E-1	1.083460E+0	1.003665E+0	1.046828E+0	1.133264E+0	1.100665E+0	9.286741E-1	1.025187E+0	1.122594E+0	1.131891E+0	9.084280E-1	9.092871E-1	1.145357E+0	1.146968E+0	1.054083E+0	9.639001E-1	1.123883E+0	1.103547E+0	1.074266E+0	1.032726E+0	1.070834E+0	1.093773E+0	9.938521E-1	1.046847E+0	1.087956E+0	1.108628E+0	1.070429E+0	9.593501E-1	1.172176E+0	1.126185E+0	1.031473E+0	9.469037E-1	1.118791E+0	1.213098E+0	1.050874E+0	1.035593E+0	1.122881E+0	1.118940E+0	9.906474E-1	1.040519E+0	1.151240E+0	1.165384E+0	1.009043E+0	9.592237E-1	1.121637E+0	1.091348E+0	1.074871E+0	9.287879E-1	1.097408E+0	1.116117E+0	1.036624E+0	1.095091E+0	1.119581E+0	1.097253E+0	9.269716E-1	1.043602E+0	1.130968E+0	1.117748E+0	9.588429E-1	9.096510E-1	1.125221E+0	1.171075E+0	1.069364E+0	9.438637E-1	1.153769E+0	1.091884E+0	1.090513E+0	9.977636E-1	1.125229E+0	1.122931E+0	1.019983E+0	1.050139E+0	1.135272E+0	1.079054E+0	9.968133E-1	9.358915E-1	1.136935E+0	1.140387E+0	1.045576E+0	9.993181E-1	1.141567E+0	1.037232E+0	1.073568E+0	1.093212E+0	1.130538E+0	1.001700E+0	9.800359E-1	1.036645E+0	1.132698E+0	9.930013E-1	8.472245E-1	9.804275E-1	1.089911E+0	1.049941E+0	1.030616E+0	8.073703E-1	1.106700E+0	9.939091E-1	9.981103E-1	1.035340E+0	1.056115E+0
5.427600E+2	1.019171E+0	1.023627E+0	1.083388E+0	1.023028E+0	1.012211E+0	1.044980E+0	1.016864E+0	9.607461E-1	9.602615E-1	1.015261E+0	1.028465E+0	1.009502E+0	8.768361E-1	1.030921E+0	1.049995E+0	1.028654E+0	8.726056E-1	1.051732E+0	1.014108E+0	1.020763E+0	9.468997E-1	1.079295E+0	1.029079E+0	8.778589E-1	9.405550E-1	1.003002E+0	1.054856E+0	9.427126E-1	8.456239E-1	9.830241E-1	1.010518E+0	9.811369E-1	7.353513E-1	1.023994E+0	1.008012E+0	9.339151E-1	9.535495E-1	1.044929E+0	1.055160E+0	9.032597E-1	9.468138E-1	1.025227E+0	1.019397E+0	8.997630E-1	8.541857E-1	1.022908E+0	1.026518E+0	9.832663E-1	9.096062E-1	1.019894E+0	1.017663E+0	9.684429E-1	9.856420E-1	1.024535E+0	1.073725E+0	8.923521E-1	9.484801E-1	1.076106E+0	1.000185E+0	8.593919E-1	8.696665E-1	9.873875E-1	1.031354E+0	1.007650E+0	8.729816E-1	8.824066E-1	1.020130E+0	9.483558E-1	1.035026E+0	1.023032E+0	1.031301E+0	8.780334E-1	9.591781E-1	1.002956E+0	1.016804E+0	8.796050E-1	8.633991E-1	9.744277E-1	1.055311E+0	9.782305E-1	9.222459E-1	9.987412E-1	1.049501E+0	1.026264E+0	9.947736E-1	1.000130E+0	1.031488E+0	9.469815E-1	9.300596E-1	1.004419E+0	1.069544E+0	9.752733E-1	8.726710E-1	1.063102E+0	1.012410E+0	9.988486E-1	8.925541E-1	1.052210E+0	1.030149E+0	1.009701E+0	9.539329E-1	9.904556E-1	1.045913E+0	8.638229E-1	9.547833E-1	9.966446E-1	1.017540E+0	9.317116E-1	8.528730E-1	1.069410E+0	9.955759E-1	1.018150E+0	8.622572E-1	1.047562E+0	1.087672E+0	1.000744E+0	9.938647E-1	1.074493E+0	1.044284E+0	8.893342E-1	9.927627E-1	1.064318E+0	1.042782E+0	8.549394E-1	8.444048E-1	1.028079E+0	1.032793E+0	9.558262E-1	8.983935E-1	1.066911E+0	1.014987E+0	1.038493E+0	9.639367E-1	1.040484E+0	1.056911E+0	9.304453E-1	1.030009E+0	1.017934E+0	1.011370E+0	9.297650E-1	8.846742E-1	1.079616E+0	1.051756E+0	1.025917E+0	9.413315E-1	1.060546E+0	1.000485E+0	9.679897E-1	1.010694E+0	1.030598E+0	1.052123E+0	8.577058E-1	9.093381E-1	1.043919E+0	1.050732E+0	7.992967E-1	8.874618E-1	1.028545E+0	1.061320E+0	9.641673E-1	7.289844E-1	1.105237E+0	9.638696E-1	9.091920E-1	9.670696E-1	1.079282E+0
5.430330E+2	1.079601E+0	1.043316E+0	1.100581E+0	1.080961E+0	1.045874E+0	1.055109E+0	1.080257E+0	9.635252E-1	9.910179E-1	1.103959E+0	1.108905E+0	1.026541E+0	9.029744E-1	1.062192E+0	1.082512E+0	1.087592E+0	9.509300E-1	1.096006E+0	1.109410E+0	1.035279E+0	1.021793E+0	1.065325E+0	1.092471E+0	9.607645E-1	9.779057E-1	1.037304E+0	1.105374E+0	9.256488E-1	8.968751E-1	1.088227E+0	1.115698E+0	1.046772E+0	7.849696E-1	1.020247E+0	1.086788E+0	9.897054E-1	1.006806E+0	9.990364E-1	1.037174E+0	9.595979E-1	1.020864E+0	1.070250E+0	1.068380E+0	9.656261E-1	8.772117E-1	1.062002E+0	1.134996E+0	1.058016E+0	9.222193E-1	1.080104E+0	1.095253E+0	1.030543E+0	1.060736E+0	1.075503E+0	1.047643E+0	9.374316E-1	9.556862E-1	1.091665E+0	1.085402E+0	9.372980E-1	8.802084E-1	1.037842E+0	1.060711E+0	1.028129E+0	9.097712E-1	9.175569E-1	1.099765E+0	1.041648E+0	1.000869E+0	1.103083E+0	1.092066E+0	8.780340E-1	9.905797E-1	1.082480E+0	1.104428E+0	8.862105E-1	8.337392E-1	1.026918E+0	1.119597E+0	1.039606E+0	9.285570E-1	1.085431E+0	1.061364E+0	1.056437E+0	1.057613E+0	1.064994E+0	1.091467E+0	9.445467E-1	9.973603E-1	1.045152E+0	1.080092E+0	1.015558E+0	8.896767E-1	1.104390E+0	1.113409E+0	1.031473E+0	9.361527E-1	1.081875E+0	1.123335E+0	1.004816E+0	1.051361E+0	1.084704E+0	1.083024E+0	9.372785E-1	1.017620E+0	1.123611E+0	1.136489E+0	9.666352E-1	9.426222E-1	1.076958E+0	1.081650E+0	1.027106E+0	9.337159E-1	1.134791E+0	1.092096E+0	1.026469E+0	1.025766E+0	1.104756E+0	1.107370E+0	9.391126E-1	9.819971E-1	1.146964E+0	1.066694E+0	9.257830E-1	8.770275E-1	1.114574E+0	1.080862E+0	1.045788E+0	8.937305E-1	1.105923E+0	1.083340E+0	1.041962E+0	1.017830E+0	1.054504E+0	1.140658E+0	9.541634E-1	1.037558E+0	1.095935E+0	1.108835E+0	1.044611E+0	1.003798E+0	1.072688E+0	1.100276E+0	1.041405E+0	9.624793E-1	1.071594E+0	1.071205E+0	1.009683E+0	1.050964E+0	1.127801E+0	1.092827E+0	9.079070E-1	9.831046E-1	1.070148E+0	1.093886E+0	7.768122E-1	8.868501E-1	1.104391E+0	1.053101E+0	1.007639E+0	7.929160E-1	1.128639E+0	1.058993E+0	9.847726E-1	9.831327E-1	9.814654E-1
5.432640E+2	1.135863E+0	1.107488E+0	1.136401E+0	1.082408E+0	1.112537E+0	1.149239E+0	1.136269E+0	1.065654E+0	1.063607E+0	1.104611E+0	1.146032E+0	1.079622E+0	9.798209E-1	1.121260E+0	1.137674E+0	1.123332E+0	1.007949E+0	1.104225E+0	1.145775E+0	1.107223E+0	1.136664E+0	1.168144E+0	1.146563E+0	1.048927E+0	1.035516E+0	1.044042E+0	1.192147E+0	9.835462E-1	9.779788E-1	1.116319E+0	1.186229E+0	1.081068E+0	8.039246E-1	1.123977E+0	1.177682E+0	1.098629E+0	1.069529E+0	1.162211E+0	1.161885E+0	1.010813E+0	1.062715E+0	1.138446E+0	1.163732E+0	1.076024E+0	9.532513E-1	1.111480E+0	1.174962E+0	1.120694E+0	1.032736E+0	1.163870E+0	1.153915E+0	1.055258E+0	1.091374E+0	1.166181E+0	1.153129E+0	9.586134E-1	9.995200E-1	1.090988E+0	1.130769E+0	9.731109E-1	9.360730E-1	1.139383E+0	1.120598E+0	1.113052E+0	1.002057E+0	9.801886E-1	1.164976E+0	1.030987E+0	1.086574E+0	1.134577E+0	1.160856E+0	9.577659E-1	1.068124E+0	1.183822E+0	1.139737E+0	9.594682E-1	1.014493E+0	1.116420E+0	1.125961E+0	1.056396E+0	9.777843E-1	1.144159E+0	1.165505E+0	1.082495E+0	1.106764E+0	1.168130E+0	1.158940E+0	1.100377E+0	1.003299E+0	1.127999E+0	1.183698E+0	1.064873E+0	9.785507E-1	1.138283E+0	1.174857E+0	1.127428E+0	9.385427E-1	1.166915E+0	1.161024E+0	1.082277E+0	1.058683E+0	1.159864E+0	1.162038E+0	1.018766E+0	1.058723E+0	1.155844E+0	1.124392E+0	1.031494E+0	9.612986E-1	1.119750E+0	1.149539E+0	1.135771E+0	9.632851E-1	1.147948E+0	1.147723E+0	1.084688E+0	1.049079E+0	1.165908E+0	1.125821E+0	9.530749E-1	1.097432E+0	1.184289E+0	1.131318E+0	9.561448E-1	9.638366E-1	1.138529E+0	1.184904E+0	1.085497E+0	9.549381E-1	1.169227E+0	1.148407E+0	1.097449E+0	1.092937E+0	1.108158E+0	1.156549E+0	1.006938E+0	1.084110E+0	1.118604E+0	1.153503E+0	1.084441E+0	9.980423E-1	1.140715E+0	1.188911E+0	1.141498E+0	9.815810E-1	1.201966E+0	1.196701E+0	1.060792E+0	1.169133E+0	1.107265E+0	1.166338E+0	9.725326E-1	1.042595E+0	1.171706E+0	1.179607E+0	8.543249E-1	9.590220E-1	1.196095E+0	1.185859E+0	1.061665E+0	8.273835E-1	1.129371E+0	1.144938E+0	1.117039E+0	1.090224E+0	1.189968E+0
5.435110E+2	1.387306E+0	1.378033E+0	1.361349E+0	1.326451E+0	1.310547E+0	1.384570E+0	1.397847E+0	1.281027E+0	1.250616E+0	1.318529E+0	1.399733E+0	1.266394E+0	1.190495E+0	1.337834E+0	1.389681E+0	1.358461E+0	1.161142E+0	1.345181E+0	1.347666E+0	1.322430E+0	1.226762E+0	1.312875E+0	1.359422E+0	1.189636E+0	1.224800E+0	1.347251E+0	1.347862E+0	1.155407E+0	1.149758E+0	1.318355E+0	1.371841E+0	1.282110E+0	9.990511E-1	1.348308E+0	1.312340E+0	1.225485E+0	1.280188E+0	1.325384E+0	1.312374E+0	1.138281E+0	1.263614E+0	1.356944E+0	1.368154E+0	1.236602E+0	1.149777E+0	1.327717E+0	1.335462E+0	1.322521E+0	1.219530E+0	1.288215E+0	1.371542E+0	1.278313E+0	1.294422E+0	1.365906E+0	1.380324E+0	1.165544E+0	1.219890E+0	1.332495E+0	1.404199E+0	1.180439E+0	1.110516E+0	1.321651E+0	1.349581E+0	1.238330E+0	1.168547E+0	1.167443E+0	1.370024E+0	1.260223E+0	1.269785E+0	1.356356E+0	1.372964E+0	1.137156E+0	1.211676E+0	1.357650E+0	1.352904E+0	1.129403E+0	1.111865E+0	1.316959E+0	1.353829E+0	1.259058E+0	1.127993E+0	1.317540E+0	1.351375E+0	1.282733E+0	1.272889E+0	1.360781E+0	1.339450E+0	1.253771E+0	1.222359E+0	1.330284E+0	1.296605E+0	1.223928E+0	1.098146E+0	1.350886E+0	1.327574E+0	1.294392E+0	1.194167E+0	1.342266E+0	1.383712E+0	1.256044E+0	1.255228E+0	1.401449E+0	1.330245E+0	1.138127E+0	1.247818E+0	1.311757E+0	1.380433E+0	1.146243E+0	1.109669E+0	1.272664E+0	1.347753E+0	1.262943E+0	1.193679E+0	1.305795E+0	1.294370E+0	1.255957E+0	1.277913E+0	1.330210E+0	1.336514E+0	1.068415E+0	1.253536E+0	1.338920E+0	1.329075E+0	1.127517E+0	1.103177E+0	1.365415E+0	1.398913E+0	1.326225E+0	1.081439E+0	1.371652E+0	1.326524E+0	1.297896E+0	1.303348E+0	1.379471E+0	1.307538E+0	1.237602E+0	1.248304E+0	1.326612E+0	1.347755E+0	1.253059E+0	1.133857E+0	1.388889E+0	1.358410E+0	1.320822E+0	1.186919E+0	1.398629E+0	1.401233E+0	1.242362E+0	1.295220E+0	1.279764E+0	1.324289E+0	1.118523E+0	1.231176E+0	1.390964E+0	1.358631E+0	1.020592E+0	1.155350E+0	1.325722E+0	1.343267E+0	1.253560E+0	9.702583E-1	1.334873E+0	1.396096E+0	1.227076E+0	1.237474E+0	1.354710E+0
5.437640E+2	1.487331E+0	1.471371E+0	1.506775E+0	1.561801E+0	1.497338E+0	1.519810E+0	1.511712E+0	1.425540E+0	1.391486E+0	1.518093E+0	1.485801E+0	1.480694E+0	1.306032E+0	1.505767E+0	1.494780E+0	1.452511E+0	1.288999E+0	1.528585E+0	1.513190E+0	1.462533E+0	1.475653E+0	1.540312E+0	1.542041E+0	1.309323E+0	1.340654E+0	1.439748E+0	1.589164E+0	1.390040E+0	1.279299E+0	1.505448E+0	1.507335E+0	1.458910E+0	1.111110E+0	1.475781E+0	1.550011E+0	1.454624E+0	1.393804E+0	1.506689E+0	1.544411E+0	1.380132E+0	1.427166E+0	1.501284E+0	1.551678E+0	1.453009E+0	1.275618E+0	1.479212E+0	1.553688E+0	1.415098E+0	1.295809E+0	1.515302E+0	1.556366E+0	1.436097E+0	1.486060E+0	1.495697E+0	1.564633E+0	1.293178E+0	1.369407E+0	1.544915E+0	1.524361E+0	1.337510E+0	1.282327E+0	1.512749E+0	1.535118E+0	1.410589E+0	1.266447E+0	1.293984E+0	1.501706E+0	1.400828E+0	1.426908E+0	1.500709E+0	1.544370E+0	1.248673E+0	1.387910E+0	1.542036E+0	1.512456E+0	1.254901E+0	1.237780E+0	1.502691E+0	1.551780E+0	1.439715E+0	1.288296E+0	1.544054E+0	1.477265E+0	1.508341E+0	1.429055E+0	1.511268E+0	1.538417E+0	1.404731E+0	1.343106E+0	1.550518E+0	1.516842E+0	1.389930E+0	1.261079E+0	1.514191E+0	1.511924E+0	1.399301E+0	1.293311E+0	1.540032E+0	1.490601E+0	1.400500E+0	1.433194E+0	1.478396E+0	1.533764E+0	1.296514E+0	1.346478E+0	1.534767E+0	1.561208E+0	1.332710E+0	1.264785E+0	1.513047E+0	1.531420E+0	1.445641E+0	1.281770E+0	1.530099E+0	1.478946E+0	1.315532E+0	1.470553E+0	1.551956E+0	1.566847E+0	1.297881E+0	1.380931E+0	1.577529E+0	1.520366E+0	1.278653E+0	1.225375E+0	1.533752E+0	1.547073E+0	1.480095E+0	1.257484E+0	1.512982E+0	1.546045E+0	1.426902E+0	1.400241E+0	1.520920E+0	1.515983E+0	1.319429E+0	1.431997E+0	1.488613E+0	1.476348E+0	1.395124E+0	1.305349E+0	1.486521E+0	1.558968E+0	1.457850E+0	1.378617E+0	1.565089E+0	1.540593E+0	1.401068E+0	1.462238E+0	1.485120E+0	1.488927E+0	1.294516E+0	1.413214E+0	1.568521E+0	1.498001E+0	1.183307E+0	1.279510E+0	1.485687E+0	1.496882E+0	1.390805E+0	1.109240E+0	1.512584E+0	1.508744E+0	1.401579E+0	1.404804E+0	1.568360E+0
5.440280E+2	1.681814E+0	1.635449E+0	1.619248E+0	1.636393E+0	1.643203E+0	1.651477E+0	1.677276E+0	1.474866E+0	1.496063E+0	1.632880E+0	1.711940E+0	1.569818E+0	1.382354E+0	1.654587E+0	1.648653E+0	1.681371E+0	1.502087E+0	1.650012E+0	1.613508E+0	1.632303E+0	1.523517E+0	1.673863E+0	1.618812E+0	1.482143E+0	1.473599E+0	1.586759E+0	1.652160E+0	1.405884E+0	1.358709E+0	1.635756E+0	1.646545E+0	1.600824E+0	1.192506E+0	1.607008E+0	1.608588E+0	1.515063E+0	1.542334E+0	1.614339E+0	1.639743E+0	1.447851E+0	1.521819E+0	1.705210E+0	1.588904E+0	1.462419E+0	1.390212E+0	1.608098E+0	1.660262E+0	1.561150E+0	1.455577E+0	1.610854E+0	1.693882E+0	1.521645E+0	1.603207E+0	1.645046E+0	1.659107E+0	1.411037E+0	1.473888E+0	1.647066E+0	1.598544E+0	1.350076E+0	1.317639E+0	1.609874E+0	1.660179E+0	1.547313E+0	1.441041E+0	1.412854E+0	1.605172E+0	1.501451E+0	1.521931E+0	1.639813E+0	1.661887E+0	1.368809E+0	1.447508E+0	1.682083E+0	1.619697E+0	1.368388E+0	1.382158E+0	1.567968E+0	1.654891E+0	1.523672E+0	1.385490E+0	1.553842E+0	1.634794E+0	1.567318E+0	1.509315E+0	1.663055E+0	1.650877E+0	1.505778E+0	1.497502E+0	1.658219E+0	1.616104E+0	1.510786E+0	1.352148E+0	1.631278E+0	1.672548E+0	1.543872E+0	1.412166E+0	1.626389E+0	1.633125E+0	1.550539E+0	1.517666E+0	1.636474E+0	1.615772E+0	1.388905E+0	1.473323E+0	1.598579E+0	1.651930E+0	1.448706E+0	1.321332E+0	1.633870E+0	1.596887E+0	1.581772E+0	1.353228E+0	1.573023E+0	1.570601E+0	1.473265E+0	1.546015E+0	1.647078E+0	1.631720E+0	1.368908E+0	1.499355E+0	1.664176E+0	1.636046E+0	1.415616E+0	1.338726E+0	1.686785E+0	1.674160E+0	1.557646E+0	1.338512E+0	1.622659E+0	1.628858E+0	1.511517E+0	1.473057E+0	1.605667E+0	1.558775E+0	1.437429E+0	1.483586E+0	1.571948E+0	1.682784E+0	1.472128E+0	1.400305E+0	1.609347E+0	1.635953E+0	1.583557E+0	1.474127E+0	1.645374E+0	1.635582E+0	1.436037E+0	1.510430E+0	1.602858E+0	1.609215E+0	1.374142E+0	1.457830E+0	1.619634E+0	1.591305E+0	1.167333E+0	1.362690E+0	1.631862E+0	1.658721E+0	1.451041E+0	1.228211E+0	1.574015E+0	1.633908E+0	1.583862E+0	1.568118E+0	1.565786E+0
5.442810E+2	1.722796E+0	1.761603E+0	1.732437E+0	1.707354E+0	1.635282E+0	1.741434E+0	1.701279E+0	1.512381E+0	1.577881E+0	1.652441E+0	1.677062E+0	1.609139E+0	1.436200E+0	1.636059E+0	1.683491E+0	1.700181E+0	1.487694E+0	1.681631E+0	1.715079E+0	1.608949E+0	1.600097E+0	1.686717E+0	1.676389E+0	1.457038E+0	1.578050E+0	1.645562E+0	1.724671E+0	1.480845E+0	1.479238E+0	1.668630E+0	1.709653E+0	1.618560E+0	1.250488E+0	1.635124E+0	1.704193E+0	1.551590E+0	1.513337E+0	1.663063E+0	1.680515E+0	1.525812E+0	1.496062E+0	1.699914E+0	1.673803E+0	1.525143E+0	1.416987E+0	1.647806E+0	1.691982E+0	1.614052E+0	1.482003E+0	1.693312E+0	1.767687E+0	1.617966E+0	1.674690E+0	1.740467E+0	1.664322E+0	1.423527E+0	1.516521E+0	1.709301E+0	1.653717E+0	1.478871E+0	1.364543E+0	1.681774E+0	1.703628E+0	1.611155E+0	1.389287E+0	1.426914E+0	1.730581E+0	1.584080E+0	1.607637E+0	1.729703E+0	1.662461E+0	1.397900E+0	1.481473E+0	1.691937E+0	1.709277E+0	1.431440E+0	1.369848E+0	1.657471E+0	1.725544E+0	1.536412E+0	1.434713E+0	1.712544E+0	1.632156E+0	1.640692E+0	1.601398E+0	1.708459E+0	1.679710E+0	1.587956E+0	1.521256E+0	1.694115E+0	1.645885E+0	1.553154E+0	1.359279E+0	1.676876E+0	1.703580E+0	1.576498E+0	1.471292E+0	1.675831E+0	1.692050E+0	1.557520E+0	1.583558E+0	1.658542E+0	1.698377E+0	1.526631E+0	1.497397E+0	1.680150E+0	1.714430E+0	1.447456E+0	1.400705E+0	1.679804E+0	1.662351E+0	1.634909E+0	1.430849E+0	1.707330E+0	1.678059E+0	1.569393E+0	1.566871E+0	1.663137E+0	1.683503E+0	1.350695E+0	1.555574E+0	1.709496E+0	1.668360E+0	1.416962E+0	1.327113E+0	1.681465E+0	1.659675E+0	1.517320E+0	1.420124E+0	1.700684E+0	1.638063E+0	1.582262E+0	1.561923E+0	1.738580E+0	1.608900E+0	1.491981E+0	1.550897E+0	1.689286E+0	1.617807E+0	1.535858E+0	1.427929E+0	1.679894E+0	1.694176E+0	1.593089E+0	1.455703E+0	1.641693E+0	1.664704E+0	1.550359E+0	1.595591E+0	1.681580E+0	1.727069E+0	1.438192E+0	1.524458E+0	1.679497E+0	1.650785E+0	1.265554E+0	1.382263E+0	1.693920E+0	1.666305E+0	1.583936E+0	1.225431E+0	1.634713E+0	1.634740E+0	1.522730E+0	1.525281E+0	1.558065E+0
5.445400E+2	1.745022E+0	1.663160E+0	1.751064E+0	1.709532E+0	1.746169E+0	1.692583E+0	1.682816E+0	1.686764E+0	1.534818E+0	1.721574E+0	1.702373E+0	1.664187E+0	1.488998E+0	1.694546E+0	1.739817E+0	1.678237E+0	1.480205E+0	1.703768E+0	1.740158E+0	1.662594E+0	1.615864E+0	1.703485E+0	1.736871E+0	1.576726E+0	1.505249E+0	1.645560E+0	1.722887E+0	1.654536E+0	1.452203E+0	1.705688E+0	1.713362E+0	1.691290E+0	1.338573E+0	1.668243E+0	1.740552E+0	1.590115E+0	1.602688E+0	1.625102E+0	1.696702E+0	1.523536E+0	1.546931E+0	1.708524E+0	1.671193E+0	1.545846E+0	1.393962E+0	1.658188E+0	1.700863E+0	1.639351E+0	1.500623E+0	1.648157E+0	1.714065E+0	1.596418E+0	1.661475E+0	1.706685E+0	1.751840E+0	1.384968E+0	1.541143E+0	1.686303E+0	1.707059E+0	1.421699E+0	1.371394E+0	1.662223E+0	1.670749E+0	1.597904E+0	1.439797E+0	1.503606E+0	1.699855E+0	1.572755E+0	1.618198E+0	1.639812E+0	1.654435E+0	1.449615E+0	1.528258E+0	1.694751E+0	1.631465E+0	1.415224E+0	1.437559E+0	1.686407E+0	1.762458E+0	1.573472E+0	1.454279E+0	1.731418E+0	1.692795E+0	1.637947E+0	1.590199E+0	1.685106E+0	1.691824E+0	1.557520E+0	1.539070E+0	1.679620E+0	1.643402E+0	1.605940E+0	1.415787E+0	1.670716E+0	1.742515E+0	1.626397E+0	1.422917E+0	1.685722E+0	1.698221E+0	1.581247E+0	1.573984E+0	1.702682E+0	1.681019E+0	1.457193E+0	1.469800E+0	1.665679E+0	1.699644E+0	1.471783E+0	1.417305E+0	1.689244E+0	1.693266E+0	1.566247E+0	1.445630E+0	1.663718E+0	1.652142E+0	1.522006E+0	1.537424E+0	1.681047E+0	1.669815E+0	1.376798E+0	1.626152E+0	1.694837E+0	1.692916E+0	1.450024E+0	1.390149E+0	1.678802E+0	1.734743E+0	1.576261E+0	1.415460E+0	1.670507E+0	1.623601E+0	1.596137E+0	1.561923E+0	1.714194E+0	1.669417E+0	1.529337E+0	1.610033E+0	1.713952E+0	1.634050E+0	1.543160E+0	1.460728E+0	1.692492E+0	1.666359E+0	1.534108E+0	1.551213E+0	1.677788E+0	1.737502E+0	1.546325E+0	1.655666E+0	1.708964E+0	1.747120E+0	1.402416E+0	1.514345E+0	1.659991E+0	1.665947E+0	1.308157E+0	1.389603E+0	1.661512E+0	1.649869E+0	1.558477E+0	1.218760E+0	1.719547E+0	1.691480E+0	1.556074E+0	1.549376E+0	1.722808E+0
5.447610E+2	1.598461E+0	1.665346E+0	1.665098E+0	1.749359E+0	1.695350E+0	1.692583E+0	1.714823E+0	1.645776E+0	1.538511E+0	1.665485E+0	1.632057E+0	1.594065E+0	1.461815E+0	1.674858E+0	1.747944E+0	1.697673E+0	1.484236E+0	1.620287E+0	1.714451E+0	1.676479E+0	1.566878E+0	1.680013E+0	1.617649E+0	1.638029E+0	1.543866E+0	1.656589E+0	1.678907E+0	1.649050E+0	1.400951E+0	1.590325E+0	1.651494E+0	1.685375E+0	1.485755E+0	1.637627E+0	1.690053E+0	1.623989E+0	1.589667E+0	1.645500E+0	1.647537E+0	1.639623E+0	1.521177E+0	1.632379E+0	1.698623E+0	1.577208E+0	1.346302E+0	1.686287E+0	1.708477E+0	1.689953E+0	1.465185E+0	1.636375E+0	1.736145E+0	1.599587E+0	1.618823E+0	1.667570E+0	1.679971E+0	1.441993E+0	1.499107E+0	1.661949E+0	1.588120E+0	1.431123E+0	1.418827E+0	1.721507E+0	1.664879E+0	1.549116E+0	1.454760E+0	1.454396E+0	1.639031E+0	1.580086E+0	1.565405E+0	1.660807E+0	1.725522E+0	1.422141E+0	1.465453E+0	1.648305E+0	1.758972E+0	1.407418E+0	1.398389E+0	1.699193E+0	1.680990E+0	1.586788E+0	1.472583E+0	1.758686E+0	1.630838E+0	1.585145E+0	1.581489E+0	1.653970E+0	1.698168E+0	1.496037E+0	1.513337E+0	1.623697E+0	1.634716E+0	1.577466E+0	1.348856E+0	1.676261E+0	1.667073E+0	1.572021E+0	1.443224E+0	1.579587E+0	1.614623E+0	1.559612E+0	1.519356E+0	1.737877E+0	1.643907E+0	1.460639E+0	1.540268E+0	1.685415E+0	1.657307E+0	1.483007E+0	1.376324E+0	1.673512E+0	1.705388E+0	1.635504E+0	1.427150E+0	1.704562E+0	1.669209E+0	1.531482E+0	1.579139E+0	1.748375E+0	1.667432E+0	1.380442E+0	1.552586E+0	1.686168E+0	1.674173E+0	1.363663E+0	1.352550E+0	1.650855E+0	1.680087E+0	1.542758E+0	1.469092E+0	1.669769E+0	1.640033E+0	1.560070E+0	1.549883E+0	1.744676E+0	1.659635E+0	1.503842E+0	1.519442E+0	1.706621E+0	1.613744E+0	1.631453E+0	1.416416E+0	1.616904E+0	1.698707E+0	1.618110E+0	1.517105E+0	1.749970E+0	1.718088E+0	1.501270E+0	1.623975E+0	1.670629E+0	1.608000E+0	1.366644E+0	1.495904E+0	1.698998E+0	1.641450E+0	1.254310E+0	1.394497E+0	1.660132E+0	1.603722E+0	1.492028E+0	1.237106E+0	1.655191E+0	1.714844E+0	1.490497E+0	1.427561E+0	1.614695E+0
5.450150E+2	1.612356E+0	1.647845E+0	1.624981E+0	1.628425E+0	1.608882E+0	1.620493E+0	1.604652E+0	1.624239E+0	1.471457E+0	1.572226E+0	1.587618E+0	1.640593E+0	1.346284E+0	1.606524E+0	1.620783E+0	1.587320E+0	1.431253E+0	1.536176E+0	1.555197E+0	1.542054E+0	1.519576E+0	1.571606E+0	1.562398E+0	1.520677E+0	1.443845E+0	1.502839E+0	1.620068E+0	1.596030E+0	1.386308E+0	1.519194E+0	1.637263E+0	1.612647E+0	1.363664E+0	1.606383E+0	1.630129E+0	1.641254E+0	1.484341E+0	1.550317E+0	1.561199E+0	1.585565E+0	1.470308E+0	1.564847E+0	1.596086E+0	1.549607E+0	1.296502E+0	1.587942E+0	1.602534E+0	1.608876E+0	1.386504E+0	1.566348E+0	1.574658E+0	1.588180E+0	1.539525E+0	1.572152E+0	1.617955E+0	1.661416E+0	1.418643E+0	1.565886E+0	1.633486E+0	1.618979E+0	1.296556E+0	1.557526E+0	1.599704E+0	1.653315E+0	1.387417E+0	1.329773E+0	1.575070E+0	1.472796E+0	1.489634E+0	1.566323E+0	1.583353E+0	1.463086E+0	1.448152E+0	1.615225E+0	1.670698E+0	1.432042E+0	1.322838E+0	1.551146E+0	1.556235E+0	1.504565E+0	1.384224E+0	1.562231E+0	1.615679E+0	1.536454E+0	1.541046E+0	1.622838E+0	1.623772E+0	1.415690E+0	1.420962E+0	1.571920E+0	1.658291E+0	1.421880E+0	1.260532E+0	1.586293E+0	1.608055E+0	1.512529E+0	1.370953E+0	1.549264E+0	1.568029E+0	1.477960E+0	1.510345E+0	1.623348E+0	1.594822E+0	1.363084E+0	1.455706E+0	1.531478E+0	1.543064E+0	1.353914E+0	1.349862E+0	1.606182E+0	1.553241E+0	1.554306E+0	1.352610E+0	1.602100E+0	1.527618E+0	1.493574E+0	1.550305E+0	1.588398E+0	1.588273E+0	1.299095E+0	1.472438E+0	1.585526E+0	1.563665E+0	1.314410E+0	1.292833E+0	1.584985E+0	1.643213E+0	1.534691E+0	1.335015E+0	1.628546E+0	1.521726E+0	1.508051E+0	1.472483E+0	1.641641E+0	1.522098E+0	1.429720E+0	1.494279E+0	1.513282E+0	1.596149E+0	1.446903E+0	1.427350E+0	1.586671E+0	1.629483E+0	1.542447E+0	1.324041E+0	1.599709E+0	1.573873E+0	1.448141E+0	1.445736E+0	1.542620E+0	1.604961E+0	1.322787E+0	1.465562E+0	1.594080E+0	1.584890E+0	1.193368E+0	1.328441E+0	1.609108E+0	1.560101E+0	1.475260E+0	1.147042E+0	1.578404E+0	1.588845E+0	1.402690E+0	1.489138E+0	1.560638E+0
5.452640E+2	1.544284E+0	1.539920E+0	1.574831E+0	1.471284E+0	1.507238E+0	1.531724E+0	1.485244E+0	1.461667E+0	1.431470E+0	1.463311E+0	1.549365E+0	1.525909E+0	1.280937E+0	1.493026E+0	1.566779E+0	1.503301E+0	1.355807E+0	1.541234E+0	1.498768E+0	1.513023E+0	1.435672E+0	1.546456E+0	1.506564E+0	1.475719E+0	1.350782E+0	1.445873E+0	1.509521E+0	1.503395E+0	1.268595E+0	1.400843E+0	1.453510E+0	1.466004E+0	1.314045E+0	1.489529E+0	1.554723E+0	1.519049E+0	1.400311E+0	1.455696E+0	1.490451E+0	1.468336E+0	1.400764E+0	1.538360E+0	1.492242E+0	1.512598E+0	1.235457E+0	1.468216E+0	1.571451E+0	1.503074E+0	1.348062E+0	1.474075E+0	1.546901E+0	1.492495E+0	1.462631E+0	1.495700E+0	1.512472E+0	1.512603E+0	1.341784E+0	1.519209E+0	1.518842E+0	1.564948E+0	1.297611E+0	1.575815E+0	1.515159E+0	1.555139E+0	1.239634E+0	1.279283E+0	1.553752E+0	1.494119E+0	1.376604E+0	1.520392E+0	1.507682E+0	1.513721E+0	1.364197E+0	1.471658E+0	1.482376E+0	1.508299E+0	1.211475E+0	1.469045E+0	1.546051E+0	1.510936E+0	1.268729E+0	1.502107E+0	1.481877E+0	1.517942E+0	1.414121E+0	1.533971E+0	1.487088E+0	1.436994E+0	1.387314E+0	1.498047E+0	1.524289E+0	1.380207E+0	1.223228E+0	1.509879E+0	1.496106E+0	1.468391E+0	1.274797E+0	1.514322E+0	1.492659E+0	1.393522E+0	1.397147E+0	1.520154E+0	1.530773E+0	1.328075E+0	1.345300E+0	1.542662E+0	1.522230E+0	1.344557E+0	1.256487E+0	1.538848E+0	1.544149E+0	1.462361E+0	1.254664E+0	1.526641E+0	1.463144E+0	1.436033E+0	1.421471E+0	1.511807E+0	1.485904E+0	1.244463E+0	1.426983E+0	1.582193E+0	1.543633E+0	1.219953E+0	1.229246E+0	1.519781E+0	1.494394E+0	1.390131E+0	1.250489E+0	1.514454E+0	1.515811E+0	1.381123E+0	1.409990E+0	1.516042E+0	1.415734E+0	1.344335E+0	1.382300E+0	1.465283E+0	1.493271E+0	1.385831E+0	1.297866E+0	1.512977E+0	1.508504E+0	1.479299E+0	1.319948E+0	1.461973E+0	1.474032E+0	1.473022E+0	1.392263E+0	1.513871E+0	1.530845E+0	1.272584E+0	1.317437E+0	1.491174E+0	1.439105E+0	1.156682E+0	1.258105E+0	1.513268E+0	1.469067E+0	1.372792E+0	1.036414E+0	1.491372E+0	1.425300E+0	1.348227E+0	1.339210E+0	1.540047E+0
5.455070E+2	1.481078E+0	1.509293E+0	1.438000E+0	1.491559E+0	1.473576E+0	1.487637E+0	1.483400E+0	1.513771E+0	1.341656E+0	1.458093E+0	1.485238E+0	1.468894E+0	1.290869E+0	1.406166E+0	1.439039E+0	1.401726E+0	1.229680E+0	1.445735E+0	1.441712E+0	1.430977E+0	1.382176E+0	1.493371E+0	1.437935E+0	1.482145E+0	1.323559E+0	1.431786E+0	1.478021E+0	1.429653E+0	1.168906E+0	1.422961E+0	1.472069E+0	1.500889E+0	1.314601E+0	1.397048E+0	1.486048E+0	1.398170E+0	1.345875E+0	1.381478E+0	1.456274E+0	1.485406E+0	1.314482E+0	1.455594E+0	1.458281E+0	1.484998E+0	1.207074E+0	1.424235E+0	1.431884E+0	1.492153E+0	1.239349E+0	1.440699E+0	1.472470E+0	1.452573E+0	1.395947E+0	1.419840E+0	1.451612E+0	1.423529E+0	1.320170E+0	1.416382E+0	1.431175E+0	1.455626E+0	1.173761E+0	1.449678E+0	1.461726E+0	1.483467E+0	1.204715E+0	1.275451E+0	1.398243E+0	1.441477E+0	1.382814E+0	1.416722E+0	1.481312E+0	1.458772E+0	1.282169E+0	1.451248E+0	1.428758E+0	1.422431E+0	1.202523E+0	1.441454E+0	1.434663E+0	1.474455E+0	1.242855E+0	1.458761E+0	1.470674E+0	1.371878E+0	1.337595E+0	1.485324E+0	1.405197E+0	1.472296E+0	1.293620E+0	1.458006E+0	1.426888E+0	1.403127E+0	1.179339E+0	1.466124E+0	1.472378E+0	1.426808E+0	1.276588E+0	1.540033E+0	1.449493E+0	1.456326E+0	1.417422E+0	1.399061E+0	1.426018E+0	1.456048E+0	1.320051E+0	1.459116E+0	1.424115E+0	1.428125E+0	1.184374E+0	1.459561E+0	1.444742E+0	1.428329E+0	1.218321E+0	1.492023E+0	1.422689E+0	1.371046E+0	1.344171E+0	1.469187E+0	1.381152E+0	1.306379E+0	1.319326E+0	1.460222E+0	1.454447E+0	1.215902E+0	1.227034E+0	1.466553E+0	1.439737E+0	1.326846E+0	1.136817E+0	1.467345E+0	1.448116E+0	1.331185E+0	1.337751E+0	1.460561E+0	1.426127E+0	1.267250E+0	1.303035E+0	1.433277E+0	1.437771E+0	1.297535E+0	1.273697E+0	1.432352E+0	1.462567E+0	1.391719E+0	1.313810E+0	1.500273E+0	1.462941E+0	1.300865E+0	1.446394E+0	1.472116E+0	1.428784E+0	1.198727E+0	1.337067E+0	1.450820E+0	1.482841E+0	1.064376E+0	1.201223E+0	1.485688E+0	1.469700E+0	1.336154E+0	1.025852E+0	1.419705E+0	1.391927E+0	1.399355E+0	1.348582E+0	1.491137E+0
5.457670E+2	1.349105E+0	1.386053E+0	1.400750E+0	1.414073E+0	1.362686E+0	1.383376E+0	1.381844E+0	1.385240E+0	1.280142E+0	1.337440E+0	1.320980E+0	1.387633E+0	1.170112E+0	1.369104E+0	1.418713E+0	1.353444E+0	1.206643E+0	1.349609E+0	1.385283E+0	1.370393E+0	1.311789E+0	1.376578E+0	1.370472E+0	1.407994E+0	1.246324E+0	1.284159E+0	1.420372E+0	1.353473E+0	1.184115E+0	1.353620E+0	1.398443E+0	1.377902E+0	1.236551E+0	1.332058E+0	1.366204E+0	1.335739E+0	1.263029E+0	1.391107E+0	1.368138E+0	1.393791E+0	1.233350E+0	1.347008E+0	1.378603E+0	1.395303E+0	1.144958E+0	1.374143E+0	1.397630E+0	1.359324E+0	1.223133E+0	1.339260E+0	1.365235E+0	1.346115E+0	1.243360E+0	1.381317E+0	1.384963E+0	1.363243E+0	1.230699E+0	1.300022E+0	1.345342E+0	1.402851E+0	1.136866E+0	1.348140E+0	1.360739E+0	1.373248E+0	1.143605E+0	1.203233E+0	1.324877E+0	1.343520E+0	1.307669E+0	1.332078E+0	1.347167E+0	1.392511E+0	1.236667E+0	1.386504E+0	1.361408E+0	1.398413E+0	1.064857E+0	1.312248E+0	1.413018E+0	1.349967E+0	1.153868E+0	1.409124E+0	1.322373E+0	1.303991E+0	1.274755E+0	1.356242E+0	1.316384E+0	1.382210E+0	1.232254E+0	1.377227E+0	1.326386E+0	1.394099E+0	1.156846E+0	1.339797E+0	1.342176E+0	1.323178E+0	1.200140E+0	1.381820E+0	1.337803E+0	1.364211E+0	1.280010E+0	1.387133E+0	1.349401E+0	1.322911E+0	1.183221E+0	1.331492E+0	1.366319E+0	1.328344E+0	1.105519E+0	1.359503E+0	1.347755E+0	1.425938E+0	1.161644E+0	1.345947E+0	1.367063E+0	1.369687E+0	1.303066E+0	1.311678E+0	1.322229E+0	1.377406E+0	1.272078E+0	1.392240E+0	1.303870E+0	1.347472E+0	1.103177E+0	1.318840E+0	1.383767E+0	1.307613E+0	1.150224E+0	1.426123E+0	1.368587E+0	1.258359E+0	1.301060E+0	1.371547E+0	1.312430E+0	1.262504E+0	1.279129E+0	1.383277E+0	1.343691E+0	1.298866E+0	1.172990E+0	1.369362E+0	1.444456E+0	1.386951E+0	1.254460E+0	1.397154E+0	1.367262E+0	1.230259E+0	1.320966E+0	1.364643E+0	1.410559E+0	1.150835E+0	1.276387E+0	1.338503E+0	1.329476E+0	1.157274E+0	1.091742E+0	1.330549E+0	1.353384E+0	1.285232E+0	9.797093E-1	1.381678E+0	1.351873E+0	1.293765E+0	1.266924E+0	1.444804E+0
5.460060E+2	1.351885E+0	1.308753E+0	1.296873E+0	1.343830E+0	1.301967E+0	1.330353E+0	1.344917E+0	1.328967E+0	1.201404E+0	1.221352E+0	1.308605E+0	1.301129E+0	1.086988E+0	1.338412E+0	1.275870E+0	1.310182E+0	1.102398E+0	1.277512E+0	1.343275E+0	1.285194E+0	1.231829E+0	1.264817E+0	1.318710E+0	1.331511E+0	1.215307E+0	1.292736E+0	1.367475E+0	1.316296E+0	1.067530E+0	1.296239E+0	1.296358E+0	1.327050E+0	1.147904E+0	1.250199E+0	1.272616E+0	1.293895E+0	1.232259E+0	1.246063E+0	1.344155E+0	1.262334E+0	1.158659E+0	1.316553E+0	1.283250E+0	1.309992E+0	1.092478E+0	1.287406E+0	1.301206E+0	1.246622E+0	1.152861E+0	1.300648E+0	1.331169E+0	1.326471E+0	1.274598E+0	1.259821E+0	1.353664E+0	1.259504E+0	1.175456E+0	1.283113E+0	1.283425E+0	1.362013E+0	1.069408E+0	1.319128E+0	1.295566E+0	1.299165E+0	1.076885E+0	1.129096E+0	1.314845E+0	1.353514E+0	1.196501E+0	1.284834E+0	1.304748E+0	1.332174E+0	1.191808E+0	1.283050E+0	1.311057E+0	1.341367E+0	1.100114E+0	1.310227E+0	1.322642E+0	1.332597E+0	1.138721E+0	1.344808E+0	1.336874E+0	1.277247E+0	1.257335E+0	1.289429E+0	1.289279E+0	1.335338E+0	1.163636E+0	1.375849E+0	1.261243E+0	1.314917E+0	1.026279E+0	1.307750E+0	1.318446E+0	1.256007E+0	1.099803E+0	1.317876E+0	1.268597E+0	1.355139E+0	1.247910E+0	1.338813E+0	1.306898E+0	1.247160E+0	1.180870E+0	1.355833E+0	1.323311E+0	1.344558E+0	1.074394E+0	1.271405E+0	1.379275E+0	1.337575E+0	1.121602E+0	1.262176E+0	1.272250E+0	1.333812E+0	1.203067E+0	1.298706E+0	1.271045E+0	1.400474E+0	1.247552E+0	1.342919E+0	1.323256E+0	1.337351E+0	1.048991E+0	1.291561E+0	1.321871E+0	1.299544E+0	1.084934E+0	1.386371E+0	1.270658E+0	1.315234E+0	1.216776E+0	1.318504E+0	1.265970E+0	1.336032E+0	1.196717E+0	1.322610E+0	1.368057E+0	1.345334E+0	1.182772E+0	1.256613E+0	1.291126E+0	1.265417E+0	1.169184E+0	1.329390E+0	1.301394E+0	1.229584E+0	1.263531E+0	1.282501E+0	1.330973E+0	1.230464E+0	1.221657E+0	1.310927E+0	1.246669E+0	1.272061E+0	1.099081E+0	1.284353E+0	1.316083E+0	1.240520E+0	9.641437E-1	1.309275E+0	1.310986E+0	1.195955E+0	1.145108E+0	1.349562E+0
5.467660E+2	1.251860E+0	1.172390E+0	1.248158E+0	1.250414E+0	1.265666E+0	1.267201E+0	1.301215E+0	1.276164E+0	1.165725E+0	1.253308E+0	1.256290E+0	1.302440E+0	1.031052E+0	1.248656E+0	1.247998E+0	1.282592E+0	1.043078E+0	1.216796E+0	1.306282E+0	1.241648E+0	1.177773E+0	1.245260E+0	1.296029E+0	1.296479E+0	1.133641E+0	1.238220E+0	1.269412E+0	1.296186E+0	1.095127E+0	1.177291E+0	1.271611E+0	1.267918E+0	1.091040E+0	1.178341E+0	1.276655E+0	1.215521E+0	1.186103E+0	1.248329E+0	1.309380E+0	1.286237E+0	1.101350E+0	1.198038E+0	1.251247E+0	1.246641E+0	1.027686E+0	1.255030E+0	1.277096E+0	1.190271E+0	1.112016E+0	1.263346E+0	1.293322E+0	1.212410E+0	1.161059E+0	1.257451E+0	1.289908E+0	1.252443E+0	1.102799E+0	1.238462E+0	1.232540E+0	1.246413E+0	1.020923E+0	1.228308E+0	1.248007E+0	1.265434E+0	1.060673E+0	1.071579E+0	1.287882E+0	1.240896E+0	1.133774E+0	1.273025E+0	1.279522E+0	1.252983E+0	1.136695E+0	1.238012E+0	1.251551E+0	1.242892E+0	1.032958E+0	1.213998E+0	1.206798E+0	1.233003E+0	9.891444E-1	1.288179E+0	1.230098E+0	1.282045E+0	1.206936E+0	1.205754E+0	1.229879E+0	1.293948E+0	1.162315E+0	1.337186E+0	1.224021E+0	1.209344E+0	1.001593E+0	1.262763E+0	1.243610E+0	1.225303E+0	1.135037E+0	1.287555E+0	1.259689E+0	1.297219E+0	1.160617E+0	1.243374E+0	1.248836E+0	1.278151E+0	1.118036E+0	1.289390E+0	1.192939E+0	1.290301E+0	1.017326E+0	1.222952E+0	1.224705E+0	1.282645E+0	1.042753E+0	1.297485E+0	1.267190E+0	1.286424E+0	1.172392E+0	1.277707E+0	1.237713E+0	1.256603E+0	1.181761E+0	1.226279E+0	1.248938E+0	1.238168E+0	1.057836E+0	1.264281E+0	1.256020E+0	1.290862E+0	1.048791E+0	1.229586E+0	1.224649E+0	1.276394E+0	1.164030E+0	1.249608E+0	1.286142E+0	1.225148E+0	1.128777E+0	1.189271E+0	1.229309E+0	1.320108E+0	1.055592E+0	1.272991E+0	1.267839E+0	1.246350E+0	1.099601E+0	1.295508E+0	1.248007E+0	1.218151E+0	1.198838E+0	1.233218E+0	1.304242E+0	1.230466E+0	1.103867E+0	1.268555E+0	1.264745E+0	1.247803E+0	1.059938E+0	1.230573E+0	1.201030E+0	1.238657E+0	8.690784E-1	1.252233E+0	1.232552E+0	1.225965E+0	1.169204E+0	1.328970E+0
5.475340E+2	1.380362E+0	1.378032E+0	1.346304E+0	1.391624E+0	1.353449E+0	1.363717E+0	1.382459E+0	1.394968E+0	1.319514E+0	1.332222E+0	1.318166E+0	1.358796E+0	1.154950E+0	1.330307E+0	1.423936E+0	1.428686E+0	1.175540E+0	1.344549E+0	1.322585E+0	1.384277E+0	1.302219E+0	1.386081E+0	1.390248E+0	1.349609E+0	1.231131E+0	1.309886E+0	1.349052E+0	1.366883E+0	1.154827E+0	1.342864E+0	1.386070E+0	1.377309E+0	1.172439E+0	1.382050E+0	1.279349E+0	1.362970E+0	1.327530E+0	1.365046E+0	1.404111E+0	1.334607E+0	1.287440E+0	1.401305E+0	1.336804E+0	1.379618E+0	1.167984E+0	1.320999E+0	1.433155E+0	1.367947E+0	1.229740E+0	1.380491E+0	1.416329E+0	1.367663E+0	1.310041E+0	1.339237E+0	1.340333E+0	1.349664E+0	1.238506E+0	1.387965E+0	1.336762E+0	1.351959E+0	1.131599E+0	1.373999E+0	1.359566E+0	1.396133E+0	1.112427E+0	1.228155E+0	1.354977E+0	1.412824E+0	1.316364E+0	1.344545E+0	1.405641E+0	1.390894E+0	1.229620E+0	1.369613E+0	1.358137E+0	1.347371E+0	1.130332E+0	1.403768E+0	1.340460E+0	1.396865E+0	1.113474E+0	1.315440E+0	1.339510E+0	1.318391E+0	1.332617E+0	1.386727E+0	1.423077E+0	1.388906E+0	1.246112E+0	1.327521E+0	1.362986E+0	1.382987E+0	1.125575E+0	1.387245E+0	1.407885E+0	1.383310E+0	1.179235E+0	1.373909E+0	1.406322E+0	1.368398E+0	1.297467E+0	1.351936E+0	1.383519E+0	1.371113E+0	1.193206E+0	1.372935E+0	1.365650E+0	1.293419E+0	1.122121E+0	1.349435E+0	1.362906E+0	1.429523E+0	1.149939E+0	1.362561E+0	1.351260E+0	1.423170E+0	1.228836E+0	1.371594E+0	1.373414E+0	1.396224E+0	1.284039E+0	1.390906E+0	1.370435E+0	1.348819E+0	1.104836E+0	1.386045E+0	1.391009E+0	1.317540E+0	1.198025E+0	1.381221E+0	1.293004E+0	1.382512E+0	1.236272E+0	1.372157E+0	1.368667E+0	1.391771E+0	1.252706E+0	1.335276E+0	1.391747E+0	1.395786E+0	1.168385E+0	1.358023E+0	1.378464E+0	1.380994E+0	1.229900E+0	1.341913E+0	1.388756E+0	1.368117E+0	1.297202E+0	1.365331E+0	1.316391E+0	1.404150E+0	1.263298E+0	1.417193E+0	1.331808E+0	1.324132E+0	1.130886E+0	1.393983E+0	1.292062E+0	1.334913E+0	9.630306E-1	1.377290E+0	1.401936E+0	1.268201E+0	1.274956E+0	1.331544E+0
5.482660E+2	1.467879E+0	1.438556E+0	1.468806E+0	1.452456E+0	1.453114E+0	1.495980E+0	1.474167E+0	1.492928E+0	1.325050E+0	1.444398E+0	1.463860E+0	1.435471E+0	1.243819E+0	1.438014E+0	1.473294E+0	1.496404E+0	1.275176E+0	1.437517E+0	1.414752E+0	1.436657E+0	1.355149E+0	1.462077E+0	1.501326E+0	1.452368E+0	1.328624E+0	1.431172E+0	1.444144E+0	1.477800E+0	1.182988E+0	1.407420E+0	1.458460E+0	1.413970E+0	1.275576E+0	1.416417E+0	1.466520E+0	1.438019E+0	1.321613E+0	1.370145E+0	1.450278E+0	1.492805E+0	1.324785E+0	1.444340E+0	1.444564E+0	1.528281E+0	1.180835E+0	1.408962E+0	1.488345E+0	1.440400E+0	1.300615E+0	1.430229E+0	1.463008E+0	1.399347E+0	1.406762E+0	1.475550E+0	1.471319E+0	1.439278E+0	1.299755E+0	1.440734E+0	1.426268E+0	1.482015E+0	1.222247E+0	1.464185E+0	1.421801E+0	1.512980E+0	1.240881E+0	1.224323E+0	1.418936E+0	1.458805E+0	1.350522E+0	1.414752E+0	1.447489E+0	1.446381E+0	1.305239E+0	1.434362E+0	1.452951E+0	1.463262E+0	1.163351E+0	1.461644E+0	1.437209E+0	1.498196E+0	1.270622E+0	1.440586E+0	1.429150E+0	1.415080E+0	1.340080E+0	1.452889E+0	1.465172E+0	1.447341E+0	1.288341E+0	1.402773E+0	1.445499E+0	1.443412E+0	1.159590E+0	1.393408E+0	1.437696E+0	1.435766E+0	1.251506E+0	1.414123E+0	1.446064E+0	1.463307E+0	1.387011E+0	1.439030E+0	1.440982E+0	1.441124E+0	1.365268E+0	1.375569E+0	1.425457E+0	1.443717E+0	1.233658E+0	1.423691E+0	1.428373E+0	1.474898E+0	1.212777E+0	1.424870E+0	1.447973E+0	1.489513E+0	1.342942E+0	1.363562E+0	1.475784E+0	1.464821E+0	1.331290E+0	1.472224E+0	1.448633E+0	1.407517E+0	1.212656E+0	1.463888E+0	1.425909E+0	1.449691E+0	1.182868E+0	1.465873E+0	1.448774E+0	1.464357E+0	1.336604E+0	1.462998E+0	1.451189E+0	1.415491E+0	1.345815E+0	1.470614E+0	1.448599E+0	1.460841E+0	1.268519E+0	1.386368E+0	1.525324E+0	1.401250E+0	1.295390E+0	1.426617E+0	1.459476E+0	1.373496E+0	1.363874E+0	1.433781E+0	1.401445E+0	1.448580E+0	1.307918E+0	1.449477E+0	1.471178E+0	1.490397E+0	1.200000E+0	1.411910E+0	1.424186E+0	1.380867E+0	1.034746E+0	1.486257E+0	1.462849E+0	1.471602E+0	1.360629E+0	1.385600E+0
5.490160E+2	1.423427E+0	1.491060E+0	1.491015E+0	1.494455E+0	1.412852E+0	1.441168E+0	1.522172E+0	1.423456E+0	1.353348E+0	1.421571E+0	1.422798E+0	1.433507E+0	1.226046E+0	1.443227E+0	1.498262E+0	1.428060E+0	1.273449E+0	1.473565E+0	1.441714E+0	1.400689E+0	1.364161E+0	1.447548E+0	1.437936E+0	1.438357E+0	1.327358E+0	1.443423E+0	1.452467E+0	1.452202E+0	1.231423E+0	1.443878E+0	1.432475E+0	1.457726E+0	1.298989E+0	1.431412E+0	1.502208E+0	1.448645E+0	1.421025E+0	1.417736E+0	1.441885E+0	1.397773E+0	1.299030E+0	1.416529E+0	1.402117E+0	1.422273E+0	1.200651E+0	1.416901E+0	1.486444E+0	1.438674E+0	1.274187E+0	1.453789E+0	1.422635E+0	1.443701E+0	1.374322E+0	1.447695E+0	1.430170E+0	1.447969E+0	1.368206E+0	1.478620E+0	1.432399E+0	1.492696E+0	1.213815E+0	1.420037E+0	1.481103E+0	1.520812E+0	1.232152E+0	1.226878E+0	1.484151E+0	1.420155E+0	1.375364E+0	1.544013E+0	1.476153E+0	1.491094E+0	1.309086E+0	1.460401E+0	1.471261E+0	1.454256E+0	1.185733E+0	1.462315E+0	1.431482E+0	1.458243E+0	1.282615E+0	1.381160E+0	1.448923E+0	1.436342E+0	1.378035E+0	1.449648E+0	1.408658E+0	1.491168E+0	1.334528E+0	1.415892E+0	1.416342E+0	1.370484E+0	1.224322E+0	1.443941E+0	1.437697E+0	1.394823E+0	1.265837E+0	1.422031E+0	1.428935E+0	1.454234E+0	1.358290E+0	1.490327E+0	1.430806E+0	1.491053E+0	1.274834E+0	1.420303E+0	1.474516E+0	1.412537E+0	1.207719E+0	1.445084E+0	1.412008E+0	1.496991E+0	1.180743E+0	1.528717E+0	1.483369E+0	1.442124E+0	1.309815E+0	1.425949E+0	1.405554E+0	1.466035E+0	1.388707E+0	1.428895E+0	1.464787E+0	1.462167E+0	1.181141E+0	1.525102E+0	1.425250E+0	1.437902E+0	1.193944E+0	1.428331E+0	1.431026E+0	1.367254E+0	1.363552E+0	1.391668E+0	1.424292E+0	1.423200E+0	1.313100E+0	1.452614E+0	1.437769E+0	1.481421E+0	1.246649E+0	1.395819E+0	1.491036E+0	1.366696E+0	1.263326E+0	1.460499E+0	1.419260E+0	1.448143E+0	1.440453E+0	1.414615E+0	1.483459E+0	1.432999E+0	1.320410E+0	1.381547E+0	1.400618E+0	1.485071E+0	1.185321E+0	1.390535E+0	1.464011E+0	1.415022E+0	1.022517E+0	1.486988E+0	1.496228E+0	1.441592E+0	1.368661E+0	1.401042E+0
5.497570E+2	1.417870E+0	1.422514E+0	1.408630E+0	1.422761E+0	1.377871E+0	1.378610E+0	1.391691E+0	1.376905E+0	1.305363E+0	1.327005E+0	1.466674E+0	1.434161E+0	1.164361E+0	1.333779E+0	1.414067E+0	1.402352E+0	1.208943E+0	1.429928E+0	1.410365E+0	1.393114E+0	1.346138E+0	1.308403E+0	1.375125E+0	1.412080E+0	1.309000E+0	1.370530E+0	1.496449E+0	1.403448E+0	1.201573E+0	1.394270E+0	1.399062E+0	1.437622E+0	1.253831E+0	1.350810E+0	1.430166E+0	1.345698E+0	1.326347E+0	1.375809E+0	1.388526E+0	1.397202E+0	1.249448E+0	1.439706E+0	1.420399E+0	1.440466E+0	1.153526E+0	1.418735E+0	1.464239E+0	1.391525E+0	1.295206E+0	1.370676E+0	1.402452E+0	1.387938E+0	1.357501E+0	1.389021E+0	1.369894E+0	1.383879E+0	1.254118E+0	1.372410E+0	1.342277E+0	1.412904E+0	1.176394E+0	1.369582E+0	1.424741E+0	1.476841E+0	1.154829E+0	1.196841E+0	1.355600E+0	1.426816E+0	1.302700E+0	1.371446E+0	1.382711E+0	1.449075E+0	1.291782E+0	1.385800E+0	1.370561E+0	1.442248E+0	1.140965E+0	1.355989E+0	1.455029E+0	1.491827E+0	1.166490E+0	1.383954E+0	1.396196E+0	1.383536E+0	1.331369E+0	1.425646E+0	1.429418E+0	1.402300E+0	1.248752E+0	1.393797E+0	1.443019E+0	1.386458E+0	1.127771E+0	1.385396E+0	1.424310E+0	1.434485E+0	1.216267E+0	1.383138E+0	1.392620E+0	1.441674E+0	1.295215E+0	1.376397E+0	1.380528E+0	1.387759E+0	1.242536E+0	1.363067E+0	1.414032E+0	1.404426E+0	1.182817E+0	1.402925E+0	1.396852E+0	1.360264E+0	1.119757E+0	1.402715E+0	1.377175E+0	1.361568E+0	1.314721E+0	1.426565E+0	1.424006E+0	1.450860E+0	1.331288E+0	1.429567E+0	1.385944E+0	1.364337E+0	1.073872E+0	1.423303E+0	1.421959E+0	1.431081E+0	1.186368E+0	1.328223E+0	1.415911E+0	1.356157E+0	1.340616E+0	1.438003E+0	1.382724E+0	1.414301E+0	1.291083E+0	1.391278E+0	1.408669E+0	1.471465E+0	1.223055E+0	1.407157E+0	1.408872E+0	1.400061E+0	1.216936E+0	1.453869E+0	1.406780E+0	1.374840E+0	1.350015E+0	1.389288E+0	1.401443E+0	1.387416E+0	1.340043E+0	1.406430E+0	1.344634E+0	1.363773E+0	1.196330E+0	1.407775E+0	1.371716E+0	1.339258E+0	1.009173E+0	1.436527E+0	1.426972E+0	1.322663E+0	1.245506E+0	1.429358E+0
5.505110E+2	1.417175E+0	1.424701E+0	1.427255E+0	1.446662E+0	1.346189E+0	1.407210E+0	1.389233E+0	1.398442E+0	1.321359E+0	1.345917E+0	1.415482E+0	1.355520E+0	1.190496E+0	1.349415E+0	1.445421E+0	1.446868E+0	1.213552E+0	1.378701E+0	1.377760E+0	1.319907E+0	1.326428E+0	1.373787E+0	1.410601E+0	1.433685E+0	1.273548E+0	1.303764E+0	1.375798E+0	1.407715E+0	1.163839E+0	1.323136E+0	1.419480E+0	1.385588E+0	1.263866E+0	1.385797E+0	1.395152E+0	1.354996E+0	1.352383E+0	1.372411E+0	1.388521E+0	1.341436E+0	1.260396E+0	1.370846E+0	1.409296E+0	1.375856E+0	1.170126E+0	1.357653E+0	1.391920E+0	1.404174E+0	1.214123E+0	1.407976E+0	1.437144E+0	1.389206E+0	1.397150E+0	1.432285E+0	1.355980E+0	1.392027E+0	1.213884E+0	1.333173E+0	1.388258E+0	1.379604E+0	1.157423E+0	1.358859E+0	1.378939E+0	1.418419E+0	1.166677E+0	1.150189E+0	1.405766E+0	1.380837E+0	1.251773E+0	1.406222E+0	1.414239E+0	1.388200E+0	1.221929E+0	1.414655E+0	1.305826E+0	1.391206E+0	1.093960E+0	1.403767E+0	1.387564E+0	1.325647E+0	1.135565E+0	1.389548E+0	1.336875E+0	1.321134E+0	1.270397E+0	1.349108E+0	1.352139E+0	1.341426E+0	1.321331E+0	1.368945E+0	1.369813E+0	1.439941E+0	1.126124E+0	1.368760E+0	1.411536E+0	1.360921E+0	1.199543E+0	1.412804E+0	1.370692E+0	1.422134E+0	1.295216E+0	1.385341E+0	1.345805E+0	1.367673E+0	1.239596E+0	1.423590E+0	1.350863E+0	1.358279E+0	1.127826E+0	1.422431E+0	1.356241E+0	1.432507E+0	1.157334E+0	1.390945E+0	1.372118E+0	1.373752E+0	1.255829E+0	1.428417E+0	1.409721E+0	1.357981E+0	1.286430E+0	1.364246E+0	1.368496E+0	1.381203E+0	1.171186E+0	1.391368E+0	1.361379E+0	1.407505E+0	1.136818E+0	1.368706E+0	1.356754E+0	1.394305E+0	1.283286E+0	1.397761E+0	1.331379E+0	1.388214E+0	1.255224E+0	1.377279E+0	1.382271E+0	1.375871E+0	1.205791E+0	1.336608E+0	1.415989E+0	1.346439E+0	1.220349E+0	1.350014E+0	1.433128E+0	1.427968E+0	1.311066E+0	1.385865E+0	1.422099E+0	1.401262E+0	1.279957E+0	1.360027E+0	1.346385E+0	1.425906E+0	1.153518E+0	1.356751E+0	1.371715E+0	1.339262E+0	9.924948E-1	1.389720E+0	1.346033E+0	1.333778E+0	1.325824E+0	1.295507E+0
5.512570E+2	1.349799E+0	1.412306E+0	1.314783E+0	1.348898E+0	1.352787E+0	1.428060E+0	1.390463E+0	1.406779E+0	1.307825E+0	1.353744E+0	1.400297E+0	1.367972E+0	1.245910E+0	1.352310E+0	1.434392E+0	1.364105E+0	1.279782E+0	1.350872E+0	1.312554E+0	1.376072E+0	1.345011E+0	1.414579E+0	1.376291E+0	1.323335E+0	1.234931E+0	1.313562E+0	1.346082E+0	1.379072E+0	1.166655E+0	1.374542E+0	1.390401E+0	1.361936E+0	1.216481E+0	1.365180E+0	1.382361E+0	1.390200E+0	1.324570E+0	1.292523E+0	1.323768E+0	1.452403E+0	1.219184E+0	1.392034E+0	1.403422E+0	1.350140E+0	1.101581E+0	1.376589E+0	1.374157E+0	1.389796E+0	1.205713E+0	1.362166E+0	1.349464E+0	1.382236E+0	1.290218E+0	1.349905E+0	1.377427E+0	1.378448E+0	1.197671E+0	1.360908E+0	1.349021E+0	1.378979E+0	1.125800E+0	1.324174E+0	1.365435E+0	1.370235E+0	1.163558E+0	1.180225E+0	1.435864E+0	1.377506E+0	1.231901E+0	1.408192E+0	1.402773E+0	1.375272E+0	1.291141E+0	1.387207E+0	1.348984E+0	1.341369E+0	1.144323E+0	1.354642E+0	1.421297E+0	1.384706E+0	1.172802E+0	1.378365E+0	1.320397E+0	1.316334E+0	1.280977E+0	1.351701E+0	1.385591E+0	1.333515E+0	1.249409E+0	1.344782E+0	1.395247E+0	1.355202E+0	1.138192E+0	1.366910E+0	1.347651E+0	1.385868E+0	1.189388E+0	1.382481E+0	1.387824E+0	1.331412E+0	1.280009E+0	1.328675E+0	1.361969E+0	1.376851E+0	1.188506E+0	1.363725E+0	1.392529E+0	1.371999E+0	1.135608E+0	1.346921E+0	1.351391E+0	1.374595E+0	1.128995E+0	1.357025E+0	1.293108E+0	1.381875E+0	1.296317E+0	1.338238E+0	1.289496E+0	1.407150E+0	1.258916E+0	1.382243E+0	1.329074E+0	1.342748E+0	1.094330E+0	1.407999E+0	1.399572E+0	1.436041E+0	1.179953E+0	1.362817E+0	1.354785E+0	1.387364E+0	1.289019E+0	1.401420E+0	1.352162E+0	1.371018E+0	1.218737E+0	1.347944E+0	1.385655E+0	1.358609E+0	1.197734E+0	1.382589E+0	1.421812E+0	1.381591E+0	1.189649E+0	1.352226E+0	1.394300E+0	1.368788E+0	1.285979E+0	1.347535E+0	1.385041E+0	1.381066E+0	1.260324E+0	1.390291E+0	1.350467E+0	1.409336E+0	1.118656E+0	1.352612E+0	1.335682E+0	1.342364E+0	9.469079E-1	1.377290E+0	1.402773E+0	1.350450E+0	1.236136E+0	1.365007E+0
5.520150E+2	1.433845E+0	1.361988E+0	1.382837E+0	1.372072E+0	1.402292E+0	1.454274E+0	1.415080E+0	1.394273E+0	1.350885E+0	1.373310E+0	1.373291E+0	1.356176E+0	1.331646E+0	1.332043E+0	1.341485E+0	1.376019E+0	1.360987E+0	1.357195E+0	1.442341E+0	1.376076E+0	1.362471E+0	1.408432E+0	1.357680E+0	1.401571E+0	1.298236E+0	1.339290E+0	1.391251E+0	1.305937E+0	1.343503E+0	1.430732E+0	1.353897E+0	1.404509E+0	1.334112E+0	1.330811E+0	1.405928E+0	1.351676E+0	1.339364E+0	1.299323E+0	1.356145E+0	1.375579E+0	1.224979E+0	1.388062E+0	1.456322E+0	1.362683E+0	1.117646E+0	1.332606E+0	1.494691E+0	1.381172E+0	1.210518E+0	1.403394E+0	1.379742E+0	1.384136E+0	1.297426E+0	1.399096E+0	1.380906E+0	1.361613E+0	1.172454E+0	1.353466E+0	1.348410E+0	1.361382E+0	1.147936E+0	1.336787E+0	1.378352E+0	1.437090E+0	1.145475E+0	1.217931E+0	1.408902E+0	1.335523E+0	1.285932E+0	1.334700E+0	1.380418E+0	1.423756E+0	1.246922E+0	1.347091E+0	1.368598E+0	1.309543E+0	1.112425E+0	1.408477E+0	1.419388E+0	1.343018E+0	1.148186E+0	1.350399E+0	1.286780E+0	1.322503E+0	1.317060E+0	1.343267E+0	1.351561E+0	1.374905E+0	1.273164E+0	1.394487E+0	1.344997E+0	1.326027E+0	1.131062E+0	1.376769E+0	1.387199E+0	1.332772E+0	1.189986E+0	1.355454E+0	1.321359E+0	1.445860E+0	1.232139E+0	1.434256E+0	1.396687E+0	1.389479E+0	1.231378E+0	1.382146E+0	1.325998E+0	1.368259E+0	1.166736E+0	1.360762E+0	1.368365E+0	1.391310E+0	1.172117E+0	1.377794E+0	1.332931E+0	1.358858E+0	1.319631E+0	1.388272E+0	1.303182E+0	1.345842E+0	1.312747E+0	1.402238E+0	1.365909E+0	1.350845E+0	1.104837E+0	1.402678E+0	1.384426E+0	1.398197E+0	1.139146E+0	1.386375E+0	1.337696E+0	1.428981E+0	1.278697E+0	1.386181E+0	1.279416E+0	1.402444E+0	1.277241E+0	1.417278E+0	1.394456E+0	1.428979E+0	1.178745E+0	1.398336E+0	1.390759E+0	1.358355E+0	1.269468E+0	1.400838E+0	1.389449E+0	1.395688E+0	1.297200E+0	1.378338E+0	1.400229E+0	1.413958E+0	1.264490E+0	1.362717E+0	1.374377E+0	1.353715E+0	1.083181E+0	1.396742E+0	1.312925E+0	1.388318E+0	1.025851E+0	1.343649E+0	1.309318E+0	1.347116E+0	1.225425E+0	1.447379E+0
5.527650E+2	1.306733E+0	1.379489E+0	1.351319E+0	1.327899E+0	1.316485E+0	1.322014E+0	1.392924E+0	1.307429E+0	1.347810E+0	1.303526E+0	1.339543E+0	1.351590E+0	1.297140E+0	1.297298E+0	1.319419E+0	1.349683E+0	1.339103E+0	1.336328E+0	1.373370E+0	1.302236E+0	1.312919E+0	1.258112E+0	1.340230E+0	1.332096E+0	1.344452E+0	1.276811E+0	1.354401E+0	1.313861E+0	1.401517E+0	1.274724E+0	1.301927E+0	1.375537E+0	1.321291E+0	1.298316E+0	1.370241E+0	1.312491E+0	1.371319E+0	1.346348E+0	1.356748E+0	1.335174E+0	1.261682E+0	1.290732E+0	1.300883E+0	1.360802E+0	1.264369E+0	1.301453E+0	1.362738E+0	1.365649E+0	1.274188E+0	1.379182E+0	1.338740E+0	1.258669E+0	1.318453E+0	1.269898E+0	1.366413E+0	1.352920E+0	1.254718E+0	1.326407E+0	1.317756E+0	1.284106E+0	1.033573E+0	1.321021E+0	1.321400E+0	1.370236E+0	1.141112E+0	1.126541E+0	1.408277E+0	1.316866E+0	1.258605E+0	1.316986E+0	1.359208E+0	1.366653E+0	1.223212E+0	1.302756E+0	1.302558E+0	1.289729E+0	1.064300E+0	1.329744E+0	1.359557E+0	1.366178E+0	1.128622E+0	1.353895E+0	1.400148E+0	1.260787E+0	1.208803E+0	1.357537E+0	1.243717E+0	1.304904E+0	1.273824E+0	1.276433E+0	1.307772E+0	1.286442E+0	1.085528E+0	1.287414E+0	1.322706E+0	1.362839E+0	1.109956E+0	1.325129E+0	1.328212E+0	1.306291E+0	1.288458E+0	1.329270E+0	1.298517E+0	1.282741E+0	1.185571E+0	1.367016E+0	1.338096E+0	1.333335E+0	1.109668E+0	1.326152E+0	1.307747E+0	1.361457E+0	1.112979E+0	1.363945E+0	1.290577E+0	1.376459E+0	1.268098E+0	1.352445E+0	1.394841E+0	1.327021E+0	1.219444E+0	1.334920E+0	1.305163E+0	1.362987E+0	1.075530E+0	1.283578E+0	1.327796E+0	1.340497E+0	1.119329E+0	1.359875E+0	1.251597E+0	1.303443E+0	1.235123E+0	1.333743E+0	1.286141E+0	1.371611E+0	1.216221E+0	1.327944E+0	1.367381E+0	1.378527E+0	1.145942E+0	1.277400E+0	1.336415E+0	1.292821E+0	1.165771E+0	1.312449E+0	1.333288E+0	1.317009E+0	1.307103E+0	1.346163E+0	1.289662E+0	1.293936E+0	1.207973E+0	1.342538E+0	1.372043E+0	1.392768E+0	1.140060E+0	1.382264E+0	1.297751E+0	1.259151E+0	9.491329E-1	1.287336E+0	1.334350E+0	1.309325E+0	1.181252E+0	1.231155E+0
5.535550E+2	1.308124E+0	1.258438E+0	1.276097E+0	1.320657E+0	1.263684E+0	1.286864E+0	1.288906E+0	1.331746E+0	1.272763E+0	1.241570E+0	1.306915E+0	1.246735E+0	1.244866E+0	1.257919E+0	1.277613E+0	1.261274E+0	1.268840E+0	1.219960E+0	1.238567E+0	1.258057E+0	1.282510E+0	1.234644E+0	1.250667E+0	1.240431E+0	1.309001E+0	1.254144E+0	1.295561E+0	1.279122E+0	1.283802E+0	1.225706E+0	1.247480E+0	1.264963E+0	1.259407E+0	1.216457E+0	1.244339E+0	1.224158E+0	1.242908E+0	1.250029E+0	1.317772E+0	1.240711E+0	1.243010E+0	1.284112E+0	1.293698E+0	1.248522E+0	1.231708E+0	1.288014E+0	1.275831E+0	1.267319E+0	1.273587E+0	1.263346E+0	1.293323E+0	1.276410E+0	1.289619E+0	1.223075E+0	1.249919E+0	1.293179E+0	1.266727E+0	1.300702E+0	1.260128E+0	1.225677E+0	1.250704E+0	1.244706E+0	1.245073E+0	1.303378E+0	1.233399E+0	1.130374E+0	1.280355E+0	1.286211E+0	1.251775E+0	1.206755E+0	1.286402E+0	1.275070E+0	1.106573E+0	1.235194E+0	1.276400E+0	1.272314E+0	1.082207E+0	1.270523E+0	1.288268E+0	1.217946E+0	1.033323E+0	1.254617E+0	1.244598E+0	1.318391E+0	1.138498E+0	1.288780E+0	1.241988E+0	1.361516E+0	1.229616E+0	1.192895E+0	1.274272E+0	1.257961E+0	1.015306E+0	1.281253E+0	1.325749E+0	1.248971E+0	1.103383E+0	1.254590E+0	1.267226E+0	1.285352E+0	1.148226E+0	1.292288E+0	1.303305E+0	1.231667E+0	1.130369E+0	1.178212E+0	1.213100E+0	1.269723E+0	1.069725E+0	1.294060E+0	1.288350E+0	1.226521E+0	1.090801E+0	1.251100E+0	1.242537E+0	1.262052E+0	1.177914E+0	1.236940E+0	1.251403E+0	1.266315E+0	1.220640E+0	1.268269E+0	1.283836E+0	1.232096E+0	1.062812E+0	1.293558E+0	1.298163E+0	1.272868E+0	1.067446E+0	1.252406E+0	1.271317E+0	1.262521E+0	1.174351E+0	1.231927E+0	1.261692E+0	1.280294E+0	1.147019E+0	1.219939E+0	1.250967E+0	1.303511E+0	1.114867E+0	1.244645E+0	1.280776E+0	1.230267E+0	1.132346E+0	1.277094E+0	1.320113E+0	1.294143E+0	1.221284E+0	1.307143E+0	1.276296E+0	1.295668E+0	1.192507E+0	1.313619E+0	1.276410E+0	1.250170E+0	9.957196E-1	1.294005E+0	1.254762E+0	1.269087E+0	9.135529E-1	1.280755E+0	1.294299E+0	1.244859E+0	1.171882E+0	1.174522E+0
5.542640E+2	1.278255E+0	1.203018E+0	1.211622E+0	1.222171E+0	1.142897E+0	1.199881E+0	1.211972E+0	1.254627E+0	1.169416E+0	1.163306E+0	1.192161E+0	1.242148E+0	1.134039E+0	1.154268E+0	1.189934E+0	1.200454E+0	1.248109E+0	1.118139E+0	1.167091E+0	1.210726E+0	1.173830E+0	1.204467E+0	1.212864E+0	1.178540E+0	1.214040E+0	1.177576E+0	1.186205E+0	1.214524E+0	1.166654E+0	1.148597E+0	1.212836E+0	1.176858E+0	1.189719E+0	1.153345E+0	1.180375E+0	1.221501E+0	1.177818E+0	1.141816E+0	1.196060E+0	1.209414E+0	1.177332E+0	1.174863E+0	1.197039E+0	1.175759E+0	1.203325E+0	1.123697E+0	1.165447E+0	1.144269E+0	1.164273E+0	1.187431E+0	1.174730E+0	1.164884E+0	1.199505E+0	1.172108E+0	1.207029E+0	1.305672E+0	1.169450E+0	1.177578E+0	1.173071E+0	1.165991E+0	1.162167E+0	1.242814E+0	1.180487E+0	1.214239E+0	1.207210E+0	1.080528E+0	1.173131E+0	1.184920E+0	1.162343E+0	1.214627E+0	1.204999E+0	1.264836E+0	1.191809E+0	1.166229E+0	1.217551E+0	1.239287E+0	1.168945E+0	1.186406E+0	1.194704E+0	1.187259E+0	1.203725E+0	1.179812E+0	1.176052E+0	1.164784E+0	1.192625E+0	1.194728E+0	1.168169E+0	1.226381E+0	1.083797E+0	1.204632E+0	1.219677E+0	1.169752E+0	9.796484E-1	1.202373E+0	1.142007E+0	1.192678E+0	1.064562E+0	1.156367E+0	1.167187E+0	1.193934E+0	1.101484E+0	1.212356E+0	1.162637E+0	1.154196E+0	1.039347E+0	1.154528E+0	1.149930E+0	1.190519E+0	1.047936E+0	1.161285E+0	1.199851E+0	1.243241E+0	9.866946E-1	1.163871E+0	1.160997E+0	1.219406E+0	1.130061E+0	1.197410E+0	1.177006E+0	1.242032E+0	1.129130E+0	1.204952E+0	1.190774E+0	1.156530E+0	9.931418E-1	1.221697E+0	1.157246E+0	1.184146E+0	1.037135E+0	1.168491E+0	1.170096E+0	1.144613E+0	1.130204E+0	1.147790E+0	1.122317E+0	1.177120E+0	1.099837E+0	1.167939E+0	1.182607E+0	1.156137E+0	1.033146E+0	1.170950E+0	1.157855E+0	1.211203E+0	1.053211E+0	1.260155E+0	1.153020E+0	1.185202E+0	1.132825E+0	1.179824E+0	1.174235E+0	1.227579E+0	1.077694E+0	1.213406E+0	1.168527E+0	1.200466E+0	1.023854E+0	1.196093E+0	1.163102E+0	1.153577E+0	8.423937E-1	1.184951E+0	1.154116E+0	1.191509E+0	1.012583E+0	1.148782E+0
5.550360E+2	1.053901E+0	1.135198E+0	1.118491E+0	1.097617E+0	1.118476E+0	1.115282E+0	1.116573E+0	1.108035E+0	1.073450E+0	1.089612E+0	1.100468E+0	1.107804E+0	1.075488E+0	1.084777E+0	1.091222E+0	1.087593E+0	1.041927E+0	1.087782E+0	1.126338E+0	1.058631E+0	1.084296E+0	1.075940E+0	1.051179E+0	1.133002E+0	1.112748E+0	1.073444E+0	1.092893E+0	1.044488E+0	1.145817E+0	1.076270E+0	1.116937E+0	1.075747E+0	1.113340E+0	1.060864E+0	1.092846E+0	1.046824E+0	1.068939E+0	1.057394E+0	1.086339E+0	1.088205E+0	1.123886E+0	1.044429E+0	1.109525E+0	1.076025E+0	1.093016E+0	1.132249E+0	1.039839E+0	1.080442E+0	1.076580E+0	1.080758E+0	1.049833E+0	1.102783E+0	1.106993E+0	1.087356E+0	1.081838E+0	1.114491E+0	1.081182E+0	1.093694E+0	1.090305E+0	1.086828E+0	1.110516E+0	1.083883E+0	1.034289E+0	1.107030E+0	1.135501E+0	9.392862E-1	1.097255E+0	1.089628E+0	1.102721E+0	1.134576E+0	1.126463E+0	1.122615E+0	1.092476E+0	1.063478E+0	1.078923E+0	1.064550E+0	1.073812E+0	1.060565E+0	1.105594E+0	1.103877E+0	1.119153E+0	1.122487E+0	1.069273E+0	1.066723E+0	1.101789E+0	1.181104E+0	1.084547E+0	1.126551E+0	1.117448E+0	1.106595E+0	1.087535E+0	1.110714E+0	1.122283E+0	1.029826E+0	1.062301E+0	1.042987E+0	1.115929E+0	1.050892E+0	1.104151E+0	1.070415E+0	1.090784E+0	1.109160E+0	1.087215E+0	1.087629E+0	9.647653E-1	1.084798E+0	1.010820E+0	1.129403E+0	9.172031E-1	1.090174E+0	1.107107E+0	1.121441E+0	9.712924E-1	1.147948E+0	1.107899E+0	1.089427E+0	1.013497E+0	1.093021E+0	1.109749E+0	1.121835E+0	1.040013E+0	1.164295E+0	1.115162E+0	1.066796E+0	8.963806E-1	1.077982E+0	1.097982E+0	1.107212E+0	8.657491E-1	1.057341E+0	1.097800E+0	1.028784E+0	9.702430E-1	1.114867E+0	1.115593E+0	1.147470E+0	9.727598E-1	1.091936E+0	1.037090E+0	1.146844E+0	9.825058E-1	1.055052E+0	1.077634E+0	1.054514E+0	9.590684E-1	1.100320E+0	1.113499E+0	1.082312E+0	1.093214E+0	1.038128E+0	1.128672E+0	1.066012E+0	9.759645E-1	1.125973E+0	1.072894E+0	1.063784E+0	8.911312E-1	1.083016E+0	1.076492E+0	1.085266E+0	8.107053E-1	1.110357E+0	1.158289E+0	1.070357E+0	1.015261E+0	1.048392E+0
5.557600E+2	1.017087E+0	1.005396E+0	9.479903E-1	9.795787E-1	1.011551E+0	1.018766E+0	9.934767E-1	9.989580E-1	1.002706E+0	1.001566E+0	9.750248E-1	9.754251E-1	1.028438E+0	9.932817E-1	1.029091E+0	9.966770E-1	9.877898E-1	1.037186E+0	1.004075E+0	1.007509E+0	9.941995E-1	9.904426E-1	1.016285E+0	1.013897E+0	9.905669E-1	9.913622E-1	1.019791E+0	9.567299E-1	1.075414E+0	9.495514E-1	9.721584E-1	9.699040E-1	1.013547E+0	1.000249E+0	1.005992E+0	9.598179E-1	1.050003E+0	1.013198E+0	9.832118E-1	9.886195E-1	1.029233E+0	9.934449E-1	9.900082E-1	9.800530E-1	9.773500E-1	1.013744E+0	1.026517E+0	1.018917E+0	1.023724E+0	9.845553E-1	9.627822E-1	9.798487E-1	1.048720E+0	1.001422E+0	1.023300E+0	1.016729E+0	1.005525E+0	9.935733E-1	1.010605E+0	1.027770E+0	9.861404E-1	9.899090E-1	1.011979E+0	1.019695E+0	1.022636E+0	8.709035E-1	1.084089E+0	1.056309E+0	1.014534E+0	9.882552E-1	1.022700E+0	1.061200E+0	1.015573E+0	1.019846E+0	1.018766E+0	9.870890E-1	9.898728E-1	9.710632E-1	1.029851E+0	1.016443E+0	1.047206E+0	1.014821E+0	1.017862E+0	9.871765E-1	1.032103E+0	9.949418E-1	9.916957E-1	9.938514E-1	9.821850E-1	1.016846E+0	9.789689E-1	9.968050E-1	1.053708E+0	1.005176E+0	9.649551E-1	9.604660E-1	1.017379E+0	1.000132E+0	9.999999E-1	9.964409E-1	1.010814E+0	1.047124E+0	1.021369E+0	9.671180E-1	9.859065E-1	1.001908E+0	1.011492E+0	1.019644E+0	1.024589E+0	1.044238E+0	1.026489E+0	1.002029E+0	1.005792E+0	1.015023E+0	1.044691E+0	9.899131E-1	9.760722E-1	9.935757E-1	1.022856E+0	1.065987E+0	9.879777E-1	1.012330E+0	1.060877E+0	1.020915E+0	8.598864E-1	1.020094E+0	1.037402E+0	1.013525E+0	8.704139E-1	9.888847E-1	1.001183E+0	1.023929E+0	9.736836E-1	1.015485E+0	1.003729E+0	1.089953E+0	9.740185E-1	1.011933E+0	9.870048E-1	1.058551E+0	8.887030E-1	1.039305E+0	1.026524E+0	9.997012E-1	9.167724E-1	1.039922E+0	1.026832E+0	1.008339E+0	9.770270E-1	1.016223E+0	1.046656E+0	1.031391E+0	9.503861E-1	1.036520E+0	1.016329E+0	1.038342E+0	8.574923E-1	1.050610E+0	1.021494E+0	9.691374E-1	6.828420E-1	1.026986E+0	9.613665E-1	1.028121E+0	8.907679E-1	9.608753E-1
5.560190E+2	1.025422E+0	1.006125E+0	1.033241E+0	1.003476E+0	1.010230E+0	1.000894E+0	9.762424E-1	9.885365E-1	1.010090E+0	1.052435E+0	9.367732E-1	9.610075E-1	9.745935E-1	1.036134E+0	1.002381E+0	9.822556E-1	1.052293E+0	1.018214E+0	9.833846E-1	1.004355E+0	1.052762E+0	9.837397E-1	1.043618E+0	9.899586E-1	9.886679E-1	9.852367E-1	1.008499E+0	1.009142E+0	9.853015E-1	9.919894E-1	1.015468E+0	9.988766E-1	1.001840E+0	1.000873E+0	1.004646E+0	1.013616E+0	9.937860E-1	9.412456E-1	1.029379E+0	1.042110E+0	9.648425E-1	1.006025E+0	1.003723E+0	1.002633E+0	9.730641E-1	9.990829E-1	9.694228E-1	9.959176E-1	1.011712E+0	1.034947E+0	9.949534E-1	1.041316E+0	1.023490E+0	9.605289E-1	9.879445E-1	9.618735E-1	1.015733E+0	1.049722E+0	1.037583E+0	1.003896E+0	1.056233E+0	1.011351E+0	9.896661E-1	1.026320E+0	1.006422E+0	8.606781E-1	1.038314E+0	1.049645E+0	9.586363E-1	9.528233E-1	1.007223E+0	1.025105E+0	1.013009E+0	9.952146E-1	1.017458E+0	1.006905E+0	9.876320E-1	1.012786E+0	1.033033E+0	9.967585E-1	1.038373E+0	9.637858E-1	1.038295E+0	9.467179E-1	9.785982E-1	1.038400E+0	1.015342E+0	9.835025E-1	1.018475E+0	1.004419E+0	1.043487E+0	9.634656E-1	1.049868E+0	1.037837E+0	1.005111E+0	1.006524E+0	1.023353E+0	9.816738E-1	9.650551E-1	1.031334E+0	1.011377E+0	9.719627E-1	9.968269E-1	9.504759E-1	9.459722E-1	1.029537E+0	1.013508E+0	1.018397E+0	9.867187E-1	1.003964E+0	1.025278E+0	1.022927E+0	9.873113E-1	9.845611E-1	1.011821E+0	9.824667E-1	9.950911E-1	9.935773E-1	1.019880E+0	1.004068E+0	9.652499E-1	1.063652E+0	9.658776E-1	9.851566E-1	1.052308E+0	9.968061E-1	1.036742E+0	9.837435E-1	9.870018E-1	1.008760E+0	9.985543E-1	9.698289E-1	9.971891E-1	1.018535E+0	9.976163E-1	1.018204E+0	9.324982E-1	9.652667E-1	1.012724E+0	1.032661E+0	8.547494E-1	9.882847E-1	9.592425E-1	1.009830E+0	9.167721E-1	9.972013E-1	1.028912E+0	1.002959E+0	9.757066E-1	1.014854E+0	1.019318E+0	1.041778E+0	9.188564E-1	9.921311E-1	1.013413E+0	9.815392E-1	8.366973E-1	9.561469E-1	1.044884E+0	9.747250E-1	8.385024E-1	1.047463E+0	1.013935E+0	1.001445E+0	8.947839E-1	9.428564E-1
5.565030E+2	9.781897E-1	9.835192E-1	1.046135E+0	1.027373E+0	9.666684E-1	9.597865E-1	1.039021E+0	9.829790E-1	1.015625E+0	9.774345E-1	9.710865E-1	1.022609E+0	9.960284E-1	9.568009E-1	9.919296E-1	9.734774E-1	9.653303E-1	9.865918E-1	9.871468E-1	9.772172E-1	9.789955E-1	1.006092E+0	1.030242E+0	9.992987E-1	9.468855E-1	9.846240E-1	9.900747E-1	9.798893E-1	1.020219E+0	9.704716E-1	9.950499E-1	9.616243E-1	1.000167E+0	1.008999E+0	1.018785E+0	9.936900E-1	1.022783E+0	9.707058E-1	1.021585E+0	1.001137E+0	9.828720E-1	9.848377E-1	9.913140E-1	9.750357E-1	1.004125E+0	9.807587E-1	9.979692E-1	1.006269E+0	1.000902E+0	1.002880E+0	9.968465E-1	9.766804E-1	1.021688E+0	1.016831E+0	9.925804E-1	9.955452E-1	1.001921E+0	9.908672E-1	1.006314E+0	1.018347E+0	1.001422E+0	1.011352E+0	1.030179E+0	9.570567E-1	9.640198E-1	8.568434E-1	1.003199E+0	1.010329E+0	9.834800E-1	9.836625E-1	1.003784E+0	1.031031E+0	9.873747E-1	9.769169E-1	9.971880E-1	9.972982E-1	9.898696E-1	9.999997E-1	1.016485E+0	9.851763E-1	1.059198E+0	1.021113E+0	9.980887E-1	9.954059E-1	9.929074E-1	9.858597E-1	1.014187E+0	1.006634E+0	9.967012E-1	1.029273E+0	9.752465E-1	9.711061E-1	9.686753E-1	9.638892E-1	9.844234E-1	9.911725E-1	9.958790E-1	9.915619E-1	1.018500E+0	1.029240E+0	1.001238E+0	1.002982E+0	9.824616E-1	1.037128E+0	1.004699E+0	9.900668E-1	1.008804E+0	9.697524E-1	1.000206E+0	9.750173E-1	1.014973E+0	9.900895E-1	9.836140E-1	9.873308E-1	9.865357E-1	9.987138E-1	9.754601E-1	1.000370E+0	1.003810E+0	9.998189E-1	1.038219E+0	1.018996E+0	1.027918E+0	1.016193E+0	1.004757E+0	1.043381E+0	9.511402E-1	1.056335E+0	1.033052E+0	9.925655E-1	9.926387E-1	9.559575E-1	1.024712E+0	1.010000E+0	1.017789E+0	1.029472E+0	9.589198E-1	1.021934E+0	1.029645E+0	9.921663E-1	1.017035E+0	9.819852E-1	9.980595E-1	9.955308E-1	1.011597E+0	9.611094E-1	9.963256E-1	1.000269E+0	9.816476E-1	1.043604E+0	1.010207E+0	9.967701E-1	9.932180E-1	9.672459E-1	9.865875E-1	1.033607E+0	9.455656E-1	9.988969E-1	1.008851E+0	1.005156E+0	9.513556E-1	9.831064E-1	1.022279E+0	9.847728E-1	9.576991E-1	9.788930E-1
5.570440E+2	1.064320E+0	9.754980E-1	9.680490E-1	9.839234E-1	9.917494E-1	1.014596E+0	1.016864E+0	9.947890E-1	1.016855E+0	1.001565E+0	9.817730E-1	1.023920E+0	1.021643E+0	9.770677E-1	1.007027E+0	1.023012E+0	1.010251E+0	1.017582E+0	1.005956E+0	1.057368E+0	9.761802E-1	1.013355E+0	1.012796E+0	1.003972E+0	1.007661E+0	9.864636E-1	9.918576E-1	9.920772E-1	1.014024E+0	9.830239E-1	1.029698E+0	1.014842E+0	1.037520E+0	9.702551E-1	1.029558E+0	1.017601E+0	9.860931E-1	1.016035E+0	9.814130E-1	9.960175E-1	9.493890E-1	1.007350E+0	1.005029E+0	1.016433E+0	9.901996E-1	9.746506E-1	9.764010E-1	1.014317E+0	9.666665E-1	1.045417E+0	1.014508E+0	1.038147E+0	1.000061E+0	9.883826E-1	9.908431E-1	1.021617E+0	9.833070E-1	9.583961E-1	9.591092E-1	1.005152E+0	1.005112E+0	1.009461E+0	9.972993E-1	1.035356E+0	1.002682E+0	8.536477E-1	9.818778E-1	1.013661E+0	9.841008E-1	9.705377E-1	1.013529E+0	1.007864E+0	1.028389E+0	9.368025E-1	9.926103E-1	9.468580E-1	9.943481E-1	9.946162E-1	1.016485E+0	1.026866E+0	1.038372E+0	9.973429E-1	9.941340E-1	1.018035E+0	9.879298E-1	9.916969E-1	1.017071E+0	1.047419E+0	9.815250E-1	1.013394E+0	1.006266E+0	1.020420E+0	1.040541E+0	1.017501E+0	9.789496E-1	1.036591E+0	9.815450E-1	9.625565E-1	1.010278E+0	1.011794E+0	9.967331E-1	1.011931E+0	1.033940E+0	1.010157E+0	9.759240E-1	1.038089E+0	9.644498E-1	1.020267E+0	1.031336E+0	9.813114E-1	9.713287E-1	1.002627E+0	9.700609E-1	9.776382E-1	9.429210E-1	1.048132E+0	1.005523E+0	1.022607E+0	1.018688E+0	1.016816E+0	9.766143E-1	1.056320E+0	9.936660E-1	9.959520E-1	9.892734E-1	9.648690E-1	9.787970E-1	1.065023E+0	1.019064E+0	1.020537E+0	1.017614E+0	9.386178E-1	9.570584E-1	1.023413E+0	9.970037E-1	1.016426E+0	9.834549E-1	1.013267E+0	1.024907E+0	9.908391E-1	9.911377E-1	1.019778E+0	9.857674E-1	1.014596E+0	1.048436E+0	9.986745E-1	9.755251E-1	1.004304E+0	9.578822E-1	1.011432E+0	1.025395E+0	1.047547E+0	1.016419E+0	9.645559E-1	1.049567E+0	9.868652E-1	1.029970E+0	1.031303E+0	9.848278E-1	9.654097E-1	1.010286E+0	1.018210E+0	1.043139E+0	1.032566E+0	9.590379E-1	1.030375E+0
5.575190E+2	1.003890E+0	1.017064E+0	1.058314E+0	9.860959E-1	1.007591E+0	9.919556E-1	1.034713E+0	1.033001E+0	1.007014E+0	9.741735E-1	1.047591E+0	1.037026E+0	1.030005E+0	9.851752E-1	1.007027E+0	9.747313E-1	9.785742E-1	9.922844E-1	9.476466E-1	9.608075E-1	1.008842E+0	1.021181E+0	1.042456E+0	9.993000E-1	9.836033E-1	9.717607E-1	1.000775E+0	1.010360E+0	9.537594E-1	9.848173E-1	1.003093E+0	9.846858E-1	9.594699E-1	9.540089E-1	9.709812E-1	9.990038E-1	9.612418E-1	9.684429E-1	9.892076E-1	9.726855E-1	9.899547E-1	9.901347E-1	1.003069E+0	1.015180E+0	1.004123E+0	1.013744E+0	1.010023E+0	1.013168E+0	9.894884E-1	9.924086E-1	9.684589E-1	9.950571E-1	9.712249E-1	1.009128E+0	9.972196E-1	9.814256E-1	1.001922E+0	9.854559E-1	1.017351E+0	1.003895E+0	1.021977E+0	9.716186E-1	1.004932E+0	1.028731E+0	9.808586E-1	8.223321E-1	1.024517E+0	9.830072E-1	1.026333E+0	9.515110E-1	1.020408E+0	9.701541E-1	9.790443E-1	1.057146E+0	9.723396E-1	1.012910E+0	9.792380E-1	1.031629E+0	9.961173E-1	9.955996E-1	1.016914E+0	1.006432E+0	1.003361E+0	9.618043E-1	9.916632E-1	9.871577E-1	1.032065E+0	9.731556E-1	1.003959E+0	9.837068E-1	9.771082E-1	1.032228E+0	9.560581E-1	9.971653E-1	1.011195E+0	1.011003E+0	1.014393E+0	1.007383E+0	9.753329E-1	9.392165E-1	1.009687E+0	9.815072E-1	1.010596E+0	9.883506E-1	9.794465E-1	9.946714E-1	1.037701E+0	9.554087E-1	1.033928E+0	1.005222E+0	9.804212E-1	1.000239E+0	1.048296E+0	9.817924E-1	9.713658E-1	9.980367E-1	1.007976E+0	1.026931E+0	1.004404E+0	9.864629E-1	9.915661E-1	9.456795E-1	9.852654E-1	9.865062E-1	9.931429E-1	9.788415E-1	1.032135E+0	9.713353E-1	9.945784E-1	9.793157E-1	9.932962E-1	1.070399E+0	9.954704E-1	1.004512E+0	9.762204E-1	1.012274E+0	1.002957E+0	9.992661E-1	9.897125E-1	9.450334E-1	1.017609E+0	9.441927E-1	9.915900E-1	9.854026E-1	9.945426E-1	1.002357E+0	1.011579E+0	1.044653E+0	1.020597E+0	1.043604E+0	1.018711E+0	9.886910E-1	9.735865E-1	1.044591E+0	1.033822E+0	1.011716E+0	9.951063E-1	1.005102E+0	1.013908E+0	9.765878E-1	1.006392E+0	1.007971E+0	1.023947E+0	9.625434E-1	1.008567E+0	9.196887E-1
5.580230E+2	9.955545E-1	1.019981E+0	9.759293E-1	1.048374E+0	9.917497E-1	1.029490E+0	9.276206E-1	1.014243E+0	1.030388E+0	1.019828E+0	1.034651E+0	1.012125E+0	1.024258E+0	9.996541E-1	1.045348E+0	1.056241E+0	1.036169E+0	1.018846E+0	1.066774E+0	1.004985E+0	1.029675E+0	1.020620E+0	9.848793E-1	1.008640E+0	1.029817E+0	1.004226E+0	1.030488E+0	1.045099E+0	1.037116E+0	1.002151E+0	1.008044E+0	1.011887E+0	1.029159E+0	1.022121E+0	1.023498E+0	1.052137E+0	1.041720E+0	9.984703E-1	9.562317E-1	1.031866E+0	9.783644E-1	1.013308E+0	1.042256E+0	1.012670E+0	1.027686E+0	1.025349E+0	1.023346E+0	1.001667E+0	9.900902E-1	1.019240E+0	1.064342E+0	1.003295E+0	1.042712E+0	1.028092E+0	1.004172E+0	1.007493E+0	1.039750E+0	1.088281E+0	1.054135E+0	1.021487E+0	1.034625E+0	1.037842E+0	1.023719E+0	1.023910E+0	1.046954E+0	8.849630E-1	1.039567E+0	1.023657E+0	9.909328E-1	1.002692E+0	1.052511E+0	9.976308E-1	1.009804E+0	1.007882E+0	1.034461E+0	1.078961E+0	1.018971E+0	9.751010E-1	1.015849E+0	1.025708E+0	1.011234E+0	1.081937E+0	1.027749E+0	9.947197E-1	1.038949E+0	1.046183E+0	1.058016E+0	9.768081E-1	1.017155E+0	1.074837E+0	1.018054E+0	1.002361E+0	1.046575E+0	1.040917E+0	1.024580E+0	9.834956E-1	1.012601E+0	1.006724E+0	1.034260E+0	1.067622E+0	1.035029E+0	9.785268E-1	1.014187E+0	1.043443E+0	1.035822E+0	1.005855E+0	1.006788E+0	1.045838E+0	1.057793E+0	9.989299E-1	1.019216E+0	1.057556E+0	1.035976E+0	1.030253E+0	1.022566E+0	1.013607E+0	1.010428E+0	9.886349E-1	9.889305E-1	1.039276E+0	1.020875E+0	1.040324E+0	1.043429E+0	1.035759E+0	1.005309E+0	9.934795E-1	1.013038E+0	1.012906E+0	9.566875E-1	1.059550E+0	1.023529E+0	9.906366E-1	1.030443E+0	1.011218E+0	1.048353E+0	9.796616E-1	1.018683E+0	1.050601E+0	9.890350E-1	1.026687E+0	1.013580E+0	1.051272E+0	9.579477E-1	1.025319E+0	1.004093E+0	1.028136E+0	9.928587E-1	1.060120E+0	1.078031E+0	1.036074E+0	9.579592E-1	1.023311E+0	1.018204E+0	1.000874E+0	1.014578E+0	1.001656E+0	1.007952E+0	9.775220E-1	1.022126E+0	9.827977E-1	1.062543E+0	1.040881E+0	1.036464E+0	1.067023E+0	9.991969E-1	1.027801E+0
5.585220E+2	1.028895E+0	1.001750E+0	9.866749E-1	1.023752E+0	1.047852E+0	1.033066E+0	1.041484E+0	1.052452E+0	1.023623E+0	1.042652E+0	1.011025E+0	1.027851E+0	1.018504E+0	9.683830E-1	9.611548E-1	1.026772E+0	1.066117E+0	1.013787E+0	1.036052E+0	1.026444E+0	9.818112E-1	9.910013E-1	9.651034E-1	1.043089E+0	1.050075E+0	9.974897E-1	1.038214E+0	1.007922E+0	1.055702E+0	9.453660E-1	1.011755E+0	1.031398E+0	1.017450E+0	9.877521E-1	1.069955E+0	1.015608E+0	1.003253E+0	1.058527E+0	1.026980E+0	9.994321E-1	1.045974E+0	9.742440E-1	1.001763E+0	1.060971E+0	1.036253E+0	9.972510E-1	1.012561E+0	1.018344E+0	9.810798E-1	9.426710E-1	1.046049E+0	1.028643E+0	1.019282E+0	1.066614E+0	1.022140E+0	9.825104E-1	1.054762E+0	1.030104E+0	1.019188E+0	1.013947E+0	1.020397E+0	1.009460E+0	1.020785E+0	9.654885E-1	9.839746E-1	1.168083E+0	1.011977E+0	1.024323E+0	1.010807E+0	1.097831E+0	1.001491E+0	1.014867E+0	1.030954E+0	1.038848E+0	1.052115E+0	9.948956E-1	1.041914E+0	1.001346E+0	9.973912E-1	9.909684E-1	9.815726E-1	9.749714E-1	9.882019E-1	1.028321E+0	1.018418E+0	1.044886E+0	9.974618E-1	9.828951E-1	1.019135E+0	1.027201E+0	9.975804E-1	1.007223E+0	1.019695E+0	1.000247E+0	1.070213E+0	1.005246E+0	1.015587E+0	1.000791E+0	9.924635E-1	1.015981E+0	1.030524E+0	1.006562E+0	1.001617E+0	1.046310E+0	9.723986E-1	1.029538E+0	1.045092E+0	1.029622E+0	1.031336E+0	1.006482E+0	1.034974E+0	1.003224E+0	1.026119E+0	1.027486E+0	1.027624E+0	1.010899E+0	1.013497E+0	9.941936E-1	9.794070E-1	1.016815E+0	1.063938E+0	1.010331E+0	1.031797E+0	1.024963E+0	1.017472E+0	1.008783E+0	1.032134E+0	9.967747E-1	1.000408E+0	1.018329E+0	1.020243E+0	1.024622E+0	1.018977E+0	1.020363E+0	1.023290E+0	9.855918E-1	1.032524E+0	9.672655E-1	9.782059E-1	1.014073E+0	1.041779E+0	1.039933E+0	1.018116E+0	1.030086E+0	1.015690E+0	1.048024E+0	1.026139E+0	1.016408E+0	9.889089E-1	9.792587E-1	1.007776E+0	1.018696E+0	1.017015E+0	9.968389E-1	1.007580E+0	9.768063E-1	1.020184E+0	1.043025E+0	1.029080E+0	1.009501E+0	1.000834E+0	9.904196E-1	1.044809E+0	1.049239E+0	9.991968E-1	9.814653E-1
5.590210E+2	9.844411E-1	1.013418E+0	9.888241E-1	9.774064E-1	9.514872E-1	1.005065E+0	9.590089E-1	9.697784E-1	9.873277E-1	9.722169E-1	9.626489E-1	9.361049E-1	1.036804E+0	9.990723E-1	9.808962E-1	1.008589E+0	1.000461E+0	9.796364E-1	1.028528E+0	1.022025E+0	9.840639E-1	9.630636E-1	9.936037E-1	9.934613E-1	9.563829E-1	9.705361E-1	9.912635E-1	9.262584E-1	1.000506E+0	9.447696E-1	9.604030E-1	9.982838E-1	9.672741E-1	9.746295E-1	9.615551E-1	9.551688E-1	9.665661E-1	9.525757E-1	9.838114E-1	9.977239E-1	1.006696E+0	9.365037E-1	1.005682E+0	9.813072E-1	9.896652E-1	9.722072E-1	9.954329E-1	1.007417E+0	1.029130E+0	9.753930E-1	9.703521E-1	9.944233E-1	9.862421E-1	9.374165E-1	9.850472E-1	1.005324E+0	9.556858E-1	9.726023E-1	1.018575E+0	9.649409E-1	9.993147E-1	9.861251E-1	9.697048E-1	9.956023E-1	1.005176E+0	1.080525E+0	1.020755E+0	1.018992E+0	9.754070E-1	9.803804E-1	9.848654E-1	9.879337E-1	9.944249E-1	9.923990E-1	9.991502E-1	9.894915E-1	1.010018E+0	1.005383E+0	9.553811E-1	1.008917E+0	9.424418E-1	9.302279E-1	9.618374E-1	1.015978E+0	9.829523E-1	9.436972E-1	1.008419E+0	9.768078E-1	1.002639E+0	9.664475E-1	1.041008E+0	1.007918E+0	9.807446E-1	9.657367E-1	9.454851E-1	9.898927E-1	1.004838E+0	9.724447E-1	1.019186E+0	1.007606E+0	9.674483E-1	1.005965E+0	9.776731E-1	9.774470E-1	9.947159E-1	9.966447E-1	9.704985E-1	9.990646E-1	9.317284E-1	9.800515E-1	9.931488E-1	1.015762E+0	1.003327E+0	9.838694E-1	9.751578E-1	9.668964E-1	9.840489E-1	9.639274E-1	1.002023E+0	1.017423E+0	9.431208E-1	9.996666E-1	9.917277E-1	9.473738E-1	1.029083E+0	9.914828E-1	1.024890E+0	9.843646E-1	9.631003E-1	9.763715E-1	1.004469E+0	9.920237E-1	1.013244E+0	1.016705E+0	9.523809E-1	1.002786E+0	9.520003E-1	9.946003E-1	9.707614E-1	9.901754E-1	1.015885E+0	9.429329E-1	1.053049E+0	9.562113E-1	1.015691E+0	9.368032E-1	9.443248E-1	9.814393E-1	9.578818E-1	9.737828E-1	9.871196E-1	9.298328E-1	1.002142E+0	1.033157E+0	9.469344E-1	9.868631E-1	1.014067E+0	9.961392E-1	9.873566E-1	9.970819E-1	1.004168E+0	1.044538E+0	9.613666E-1	9.747693E-1	1.050065E+0	1.040671E+0
5.595050E+2	9.497113E-1	1.001750E+0	1.005301E+0	9.614750E-1	9.990100E-1	1.018767E+0	1.006399E+0	1.041338E+0	9.688728E-1	9.800434E-1	9.772740E-1	1.014745E+0	9.500226E-1	9.759092E-1	1.032574E+0	1.000440E+0	1.009674E+0	9.676178E-1	9.652020E-1	9.892078E-1	1.025734E+0	9.943560E-1	9.813904E-1	9.864537E-1	1.026019E+0	9.405213E-1	9.668954E-1	1.006094E+0	9.869889E-1	9.465636E-1	9.863889E-1	1.006563E+0	9.633712E-1	9.227654E-1	1.000606E+0	9.790788E-1	1.019231E+0	9.865716E-1	1.006594E+0	9.926015E-1	9.738573E-1	1.026551E+0	9.991511E-1	1.006398E+0	9.853801E-1	9.459406E-1	1.007486E+0	9.838423E-1	9.828811E-1	9.937176E-1	9.533204E-1	9.893539E-1	1.024690E+0	9.581585E-1	1.040687E+0	9.933735E-1	9.634920E-1	9.841021E-1	9.713693E-1	9.875602E-1	9.745446E-1	1.025228E+0	9.673549E-1	9.691019E-1	1.019517E+0	1.059436E+0	9.624390E-1	9.776764E-1	9.791317E-1	1.058463E+0	9.590678E-1	9.825453E-1	9.764807E-1	9.698792E-1	9.769177E-1	9.870896E-1	9.797971E-1	9.818304E-1	1.011393E+0	9.886500E-1	1.001136E+0	1.003636E+0	1.018521E+0	1.007063E+0	9.997499E-1	1.005967E+0	9.622844E-1	1.024896E+0	9.868036E-1	9.878492E-1	1.004403E+0	9.530471E-1	9.631882E-1	9.663530E-1	9.527875E-1	9.937309E-1	9.654202E-1	1.009361E+0	9.486101E-1	9.831816E-1	1.004619E+0	9.898593E-1	1.008799E+0	9.757252E-1	9.688744E-1	9.861196E-1	1.002083E+0	9.915811E-1	1.018365E+0	9.932671E-1	1.010728E+0	9.781489E-1	9.639002E-1	9.928688E-1	1.041529E+0	9.953289E-1	1.004908E+0	9.861639E-1	9.663123E-1	9.470044E-1	9.772114E-1	9.490117E-1	9.691090E-1	9.730119E-1	9.881661E-1	1.018098E+0	9.287514E-1	9.731974E-1	9.916641E-1	9.682741E-1	9.821227E-1	1.001734E+0	9.891630E-1	9.703695E-1	9.694969E-1	9.855898E-1	1.018056E+0	1.018600E+0	9.836207E-1	9.994692E-1	9.957410E-1	9.807259E-1	1.014879E+0	1.018768E+0	9.529286E-1	9.773139E-1	9.880056E-1	1.004976E+0	9.737257E-1	9.854193E-1	9.974496E-1	9.967689E-1	9.819144E-1	1.010963E+0	9.335220E-1	1.007575E+0	1.011619E+0	9.582157E-1	1.016436E+0	9.871434E-1	1.000278E+0	9.962703E-1	9.738830E-1	9.969990E-1	9.991971E-1	9.685955E-1
5.600410E+2	9.538786E-1	9.740391E-1	9.616015E-1	9.419226E-1	9.910894E-1	9.955314E-1	9.768583E-1	9.676942E-1	9.590321E-1	1.023086E+0	1.029588E+0	9.465898E-1	9.646603E-1	1.004284E+0	9.965735E-1	9.728497E-1	9.687852E-1	9.922850E-1	1.000313E+0	1.021395E+0	1.004899E+0	9.669739E-1	9.918574E-1	9.963803E-1	9.842364E-1	9.625737E-1	9.704613E-1	1.004265E+0	9.847379E-1	9.686775E-1	9.987634E-1	1.003607E+0	1.028043E+0	9.627574E-1	9.703082E-1	9.850563E-1	9.979297E-1	9.843070E-1	1.027580E+0	9.994319E-1	1.035030E+0	9.537190E-1	1.003722E+0	9.675077E-1	9.709223E-1	9.722056E-1	9.694230E-1	9.430166E-1	9.960965E-1	8.981693E-1	9.886463E-1	9.880870E-1	9.736281E-1	9.664560E-1	9.885243E-1	1.034109E+0	9.773027E-1	9.496014E-1	9.860833E-1	1.008293E+0	9.334367E-1	9.659430E-1	9.679422E-1	1.007649E+0	9.783626E-1	1.100336E+0	9.912850E-1	9.770097E-1	1.026954E+0	9.508545E-1	9.607882E-1	1.000324E+0	9.777624E-1	9.839546E-1	1.007650E+0	9.804858E-1	9.702855E-1	9.905791E-1	9.420149E-1	9.770715E-1	9.727356E-1	9.861571E-1	9.578824E-1	9.871764E-1	9.941516E-1	9.696435E-1	9.357548E-1	1.004808E+0	1.013856E+0	9.885394E-1	1.027359E+0	9.905537E-1	1.019145E+0	1.039685E+0	9.947672E-1	9.822167E-1	1.017380E+0	9.994730E-1	1.013018E+0	9.859731E-1	9.595640E-1	1.026843E+0	9.411580E-1	9.688398E-1	1.010570E+0	9.999347E-1	1.006787E+0	9.953230E-1	9.670062E-1	1.050532E+0	1.009518E+0	9.781479E-1	9.977822E-1	1.006715E+0	9.707334E-1	9.601269E-1	9.957056E-1	1.009636E+0	1.000238E+0	9.961748E-1	1.003529E+0	9.656747E-1	9.923738E-1	1.008096E+0	9.981203E-1	1.019428E+0	1.042671E+0	9.800216E-1	9.986594E-1	9.756358E-1	9.742359E-1	1.009363E+0	9.794187E-1	9.917092E-1	9.676634E-1	9.600932E-1	9.878595E-1	9.799329E-1	1.031675E+0	9.795536E-1	9.594860E-1	1.005291E+0	9.482442E-1	9.949370E-1	9.945423E-1	1.044341E+0	1.016432E+0	9.478150E-1	1.007393E+0	9.546163E-1	1.029646E+0	1.008308E+0	9.890530E-1	1.018361E+0	9.999996E-1	1.011715E+0	9.688066E-1	1.006482E+0	9.886209E-1	9.921131E-1	1.016956E+0	9.267950E-1	9.329962E-1	9.592085E-1	1.015261E+0	1.061264E+0
5.604980E+2	9.934708E-1	1.040399E+0	1.032524E+0	1.061409E+0	1.047192E+0	1.008639E+0	1.027943E+0	1.003821E+0	1.046997E+0	1.008740E+0	1.006527E+0	1.000983E+0	9.918466E-1	1.058720E+0	1.027929E+0	9.759868E-1	9.923971E-1	1.000506E+0	9.902817E-1	9.822661E-1	1.006589E+0	9.943555E-1	1.000580E+0	9.619322E-1	1.010192E+0	1.122449E+0	9.989893E-1	1.009142E+0	9.892433E-1	1.117516E+0	9.993812E-1	1.008928E+0	1.012989E+0	1.090233E+0	9.521290E-1	1.000332E+0	1.033433E+0	1.032467E+0	1.018588E+0	1.016502E+0	9.893110E-1	1.026551E+0	9.619247E-1	9.806804E-1	1.004659E+0	9.367780E-1	9.979697E-1	1.021216E+0	1.060363E+0	9.884819E-1	9.955841E-1	1.002662E+0	9.994592E-1	9.972746E-1	1.019242E+0	9.830557E-1	1.015732E+0	1.032133E+0	9.756602E-1	9.768793E-1	1.030937E+0	1.015136E+0	9.855550E-1	1.004034E+0	1.009540E+0	1.106730E+0	9.875219E-1	1.020991E+0	1.035647E+0	9.882550E-1	1.024422E+0	1.006249E+0	1.024545E+0	1.002955E+0	9.736482E-1	1.015312E+0	1.004982E+0	1.012113E+0	1.024759E+0	9.851769E-1	9.904075E-1	1.011327E+0	1.030385E+0	9.810050E-1	9.785957E-1	1.001428E+0	1.002652E+0	1.032202E+0	1.001320E+0	9.636858E-1	9.994405E-1	1.011391E+0	1.007624E+0	9.768295E-1	1.028838E+0	9.975693E-1	1.033508E+0	1.027160E+0	9.869816E-1	9.720161E-1	1.029961E+0	1.028631E+0	1.010595E+0	9.831866E-1	1.017030E+0	9.676994E-1	1.018212E+0	9.822277E-1	9.519599E-1	1.008370E+0	9.367781E-1	9.733707E-1	9.860779E-1	9.990997E-1	1.042792E+0	1.059640E+0	1.041105E+0	1.003460E+0	1.056185E+0	1.009531E+0	1.029246E+0	1.015663E+0	9.781567E-1	9.534459E-1	9.671564E-1	1.000798E+0	1.013696E+0	9.880878E-1	1.033635E+0	9.881488E-1	9.992113E-1	1.009363E+0	1.004644E+0	1.002072E+0	1.050799E+0	1.024726E+0	1.035670E+0	9.859331E-1	9.809136E-1	1.037972E+0	9.848072E-1	9.908038E-1	1.010998E+0	1.011618E+0	1.012961E+0	1.016352E+0	1.010885E+0	1.003632E+0	1.051625E+0	9.717294E-1	9.628201E-1	9.731115E-1	1.006305E+0	9.759897E-1	9.965025E-1	9.720714E-1	1.014680E+0	9.982072E-1	9.608058E-1	1.018816E+0	9.924959E-1	9.926136E-1	9.930742E-1	1.003668E+0	1.005890E+0	9.582990E-1
5.610070E+2	1.047649E+0	9.725810E-1	9.766457E-1	9.882687E-1	1.005610E+0	9.431040E-1	9.700873E-1	9.399041E-1	9.442661E-1	1.000261E+0	9.778367E-1	9.780459E-1	9.662283E-1	1.074933E+0	9.495404E-1	9.878995E-1	9.722410E-1	1.030864E+0	9.720994E-1	9.582836E-1	1.003210E+0	1.029002E+0	9.970927E-1	1.007472E+0	1.005128E+0	1.059356E+0	1.020981E+0	1.018893E+0	9.577028E-1	1.136644E+0	1.007424E+0	9.781809E-1	9.845567E-1	1.106479E+0	1.002625E+0	1.002325E+0	9.677498E-1	1.031899E+0	9.880081E-1	9.926015E-1	1.048551E+0	1.086801E+0	9.860889E-1	9.838163E-1	9.869868E-1	1.181115E+0	1.009389E+0	9.907427E-1	1.003303E+0	1.141622E+0	1.001892E+0	9.836509E-1	9.610132E-1	1.031647E+0	9.595446E-1	9.955469E-1	1.006125E+0	1.008456E+0	9.922141E-1	9.994975E-1	9.782339E-1	9.678347E-1	1.032528E+0	1.013070E+0	1.008916E+0	1.067105E+0	9.768612E-1	9.503547E-1	9.872071E-1	1.015813E+0	9.791332E-1	1.001401E+0	9.912208E-1	1.033217E+0	9.939197E-1	9.966982E-1	1.010578E+0	1.007402E+0	1.024123E+0	1.015867E+0	9.859890E-1	9.868562E-1	1.019839E+0	1.010492E+0	1.014683E+0	1.023482E+0	9.720879E-1	9.743732E-1	9.769061E-1	9.650663E-1	9.535331E-1	1.003750E+0	9.977515E-1	1.031676E+0	1.008760E+0	1.009083E+0	9.588489E-1	1.022545E+0	1.001370E+0	9.873689E-1	9.651964E-1	9.671929E-1	1.018975E+0	9.694131E-1	1.040519E+0	9.913821E-1	9.395849E-1	1.010915E+0	9.763424E-1	1.000817E+0	1.028913E+0	1.000835E+0	9.848460E-1	1.012946E+0	1.018774E+0	9.486185E-1	9.613488E-1	1.004077E+0	9.800030E-1	9.706790E-1	9.556811E-1	9.983337E-1	9.865579E-1	1.058698E+0	1.007520E+0	9.808384E-1	9.827474E-1	9.719552E-1	1.009152E+0	1.021273E+0	9.926391E-1	1.007283E+0	9.868700E-1	9.496394E-1	9.970048E-1	1.003381E+0	1.009875E+0	9.685989E-1	1.021523E+0	1.024031E+0	9.629395E-1	1.043085E+0	1.021349E+0	9.675300E-1	9.495178E-1	9.868887E-1	1.037925E+0	9.363834E-1	9.823081E-1	1.000479E+0	1.002917E+0	1.016964E+0	1.002143E+0	9.874230E-1	1.030907E+0	1.011125E+0	9.920491E-1	9.851068E-1	9.879893E-1	1.065393E+0	9.546910E-1	9.991953E-1	9.680419E-1	9.692121E-1	1.005889E+0	1.032948E+0
