Photon Energy (eV)	#1	#2	#3	#4	#5	#6	#7	#8	#9	#10	#11	#12	#13	#14	#15	#16	#17	#18	#19	#20	#21	#22	#23	#24	#25	#26	#27	#28	#29	#30	#31	#32	#33	#34	#35	#36	#37	#38	#39	#40	#41	#42	#43	#44	#45	#46	#47	#48	#49	#50	#51	#52	#53	#54	#55	#56	#57	#58	#59	#60	#61	#62	#63	#64	#65	#66	#67	#68	#69	#70	#71	#72	#73	#74	#75	#76	#77	#78	#79	#80	#81	#82	#83	#84	#85	#86	#87	#88	#89	#90	#91	#92	#93	#94	#95	#96	#97	#98	#99	#100	#101	#102	#103	#104	#105	#106	#107	#108	#109	#110	#111	#112	#113	#114	#115	#116	#117	#118	#119	#120	#121	#122	#123	#124	#125	#126	#127	#128	#129	#130	#131	#132	#133	#134	#135	#136	#137	#138	#139	#140	#141	#142	#143	#144	#145	#146	#147	#148	#149	#150	#151	#152	#153	#154	#155	#156	#157	#158	#159	#160	#161	#162	#163	#164	#165	#166	
5.300220E+2	-1.170661E-2	-1.003495E-2	-7.960388E-3	2.416489E-3	-1.103366E-2	-7.535038E-3	-6.811696E-3	2.228860E-3	-6.008966E-3	-1.306449E-4	-5.144632E-3	6.962992E-4	-5.638792E-3	-6.083572E-3	-1.395648E-2	-7.033833E-3	-8.080105E-3	-3.556725E-3	-2.739019E-3	7.710415E-4	-9.910280E-3	-1.872351E-3	-1.101950E-2	-3.408720E-3	-8.427073E-3	-3.780370E-3	-5.812583E-3	-9.908401E-4	-1.257618E-2	-1.260910E-2	-5.138782E-3	-8.269247E-3	3.837774E-4	-1.046785E-2	-1.128986E-2	-3.627838E-3	-6.756109E-3	-1.025664E-2	-2.528161E-3	-4.571802E-3	-7.116283E-3	-2.502017E-3	-2.000811E-3	-1.209934E-2	-7.821689E-3	-7.667013E-3	-8.328715E-3	-1.244317E-2	-5.048933E-3	-5.545860E-3	-8.058566E-3	-1.531707E-2	-8.182212E-3	-7.064127E-3	-1.415065E-2	-1.030735E-2	-3.865534E-3	-1.393111E-3	-1.202811E-2	-4.962753E-3	-4.810579E-3	-1.309100E-2	-1.381618E-2	1.615682E-3	-1.060836E-2	-5.583966E-3	-2.707665E-3	-1.173029E-2	-4.885543E-3	-1.360659E-2	-8.041458E-3	-1.829922E-2	-8.848667E-3	-2.899848E-4	-7.184256E-3	-1.282323E-2	-8.137419E-3	-7.812294E-3	1.112579E-3	-2.574537E-3	-1.192752E-2	-9.891559E-3	-6.113196E-3	-3.936949E-3	-8.952235E-3	-3.112764E-3	-5.106037E-3	-3.577517E-3	-1.559722E-2	-3.736189E-3	-4.421017E-3	-9.028924E-3	-1.249597E-3	-2.089503E-2	-9.119572E-3	-1.187965E-2	-7.244056E-3	-4.138826E-3	-2.923475E-3	-1.217404E-2	-5.826900E-3	-8.824863E-3	-1.875474E-2	-3.849182E-3	-7.687544E-3	-1.325349E-2	-2.760153E-3	-1.244616E-2	-7.259049E-3	-1.082605E-2	-1.277220E-2	-3.960982E-3	-9.933033E-3	-4.679736E-3	1.859164E-3	-1.163453E-2	-1.946302E-3	-1.097442E-2	-1.499918E-2	3.030914E-4	-9.746129E-3	-4.813443E-3	-4.134810E-3	-1.172657E-2	-4.006354E-3	-1.174859E-2	-7.802600E-4	-8.364720E-3	-3.462549E-3	-4.367884E-3	-9.461098E-3	-3.905934E-3	-1.395758E-2	-4.019546E-3	-1.656534E-2	-2.157126E-3	-5.731323E-3	-2.176368E-3	-3.999489E-3	-2.777369E-3	-7.261621E-3	-5.510345E-3	-1.077698E-2	-7.422661E-3	-1.848389E-2	-1.425923E-2	-5.793096E-3	-7.420688E-3	-6.550373E-4	-6.326492E-3	-1.023914E-2	-3.188291E-3	-4.708201E-3	-1.753615E-2	-5.446634E-3	-8.084075E-3	-1.038746E-2	-7.318047E-3	-1.129057E-3	-8.762033E-3	-2.786988E-3	2.171192E-4	-1.110026E-2	-1.184176E-2	8.403673E-3	7.742307E-3
5.305080E+2	-9.273376E-3	-6.019878E-3	-7.596706E-3	2.625366E-3	-9.328632E-3	-9.412946E-3	-6.605212E-3	-6.519070E-3	-1.177331E-2	6.479706E-5	-4.676531E-4	-4.902703E-3	-1.059501E-2	-2.258224E-3	2.267047E-3	-9.443729E-4	-8.088902E-6	-9.345763E-3	-9.089983E-3	3.015839E-4	-1.108088E-3	-2.306530E-3	-8.016767E-3	-1.507951E-3	-3.908372E-3	-6.643362E-3	7.977405E-4	-7.034763E-3	-4.842753E-3	-6.502441E-3	-8.907656E-3	-8.639611E-3	-9.292875E-3	-1.341284E-3	-2.644585E-3	3.825400E-4	-2.189192E-2	-2.812385E-3	-1.191987E-2	-1.514400E-2	-7.536412E-3	-1.143629E-2	-1.100297E-2	-7.567073E-3	-3.790111E-3	-1.027687E-2	-1.199050E-2	-9.690002E-3	-1.081399E-2	-7.272303E-3	-9.542408E-3	-5.452107E-3	-5.446139E-3	-1.560011E-2	-6.376422E-3	-7.387353E-3	-9.733566E-3	-8.569305E-3	-5.278396E-3	-9.805645E-3	-9.224483E-3	-1.011097E-2	-6.035236E-3	-4.602499E-3	4.817345E-4	-6.651586E-3	1.932820E-3	-6.039145E-3	-8.838900E-3	-7.367656E-3	-7.258467E-3	-9.463453E-3	-2.321918E-3	-3.794190E-3	-7.612154E-3	1.620423E-3	-1.517034E-3	-7.015219E-3	-1.079405E-3	-3.561431E-3	-1.758296E-3	-1.093309E-2	-1.072982E-2	-7.631022E-4	6.687776E-3	-1.233582E-2	-6.683740E-3	-1.166539E-2	-5.233151E-3	-8.264120E-3	-9.199128E-3	-9.440671E-3	-9.001861E-3	-6.599930E-3	-1.278060E-3	-3.293262E-3	-7.705038E-3	-1.081277E-2	4.991676E-3	-5.340993E-3	-6.267322E-3	-3.405441E-3	-5.528356E-3	-9.254631E-3	-4.758316E-3	-9.689856E-3	-3.208112E-3	-4.010638E-3	-1.010044E-2	-4.139179E-3	-5.524253E-3	-1.010124E-2	-1.001723E-3	-8.410975E-3	-4.410870E-3	-8.218315E-3	-5.513004E-3	1.511266E-3	-5.582946E-3	-4.318908E-3	1.758977E-3	-1.194317E-2	-5.138960E-3	-7.052110E-3	-3.824761E-3	1.148341E-3	-1.460509E-2	-4.658845E-3	-8.604448E-3	1.306853E-3	-3.855999E-3	-7.314912E-3	-1.120610E-2	1.283170E-3	-4.666958E-3	-6.436331E-3	-1.225627E-2	-8.976947E-3	-4.453318E-3	-8.883077E-3	-3.337509E-3	-4.751309E-3	-2.860612E-3	-9.226174E-3	1.442928E-3	-9.978101E-3	-3.769152E-3	-9.078470E-3	3.190280E-3	-3.590400E-3	-7.058398E-3	-1.206885E-2	-5.804105E-3	-1.655632E-3	-7.793145E-3	-3.578804E-3	-5.288336E-3	-5.344159E-3	-4.941381E-3	3.240266E-3	1.374113E-3	-8.689398E-3	-1.064003E-2	-6.311490E-3	-1.267891E-2	-7.094830E-3
5.310350E+2	6.595552E-3	5.121256E-3	-5.982749E-3	-6.881107E-3	1.071890E-2	-7.823444E-3	-6.431844E-3	-6.371376E-3	-1.593849E-3	-7.047891E-3	-2.556367E-3	-1.058202E-2	-8.152514E-3	-5.045655E-4	-3.432228E-3	-6.703193E-3	-7.110970E-3	-7.403160E-3	-6.563904E-3	1.106759E-3	-4.380357E-3	-1.257549E-2	-6.144851E-3	-1.907086E-3	-1.536829E-2	-4.653048E-3	-1.246828E-2	-1.179666E-2	-7.361682E-3	4.505653E-3	-1.152104E-2	-1.789221E-3	1.332030E-3	-1.327434E-2	-4.159625E-3	-5.672770E-5	-2.476151E-3	-1.109163E-2	-6.718974E-3	-1.047948E-2	-4.798726E-3	-8.684330E-3	-7.781346E-3	-8.026019E-3	1.354409E-3	9.549383E-4	-1.952660E-3	2.964723E-4	-3.310022E-3	-2.629035E-3	-1.002925E-3	1.338796E-3	7.315773E-3	-2.066835E-3	-2.129426E-3	-1.109067E-2	-2.103282E-3	-9.070367E-3	-1.350136E-2	1.125769E-3	-4.485657E-3	-8.829695E-3	-4.312870E-4	-7.050616E-3	6.419237E-3	1.880190E-3	-9.425440E-3	-4.046872E-3	-4.548140E-3	-8.401412E-3	-4.123647E-3	-6.070111E-3	-9.096064E-3	-1.206446E-2	-4.823858E-3	-1.276031E-3	-5.437441E-3	-3.838625E-3	-3.762312E-3	-6.572592E-3	-6.859146E-3	4.239431E-3	-3.333877E-3	-8.405226E-3	-1.291407E-2	2.896206E-3	2.877563E-3	-7.378776E-3	-5.728441E-3	-1.012510E-2	9.171129E-4	-1.955474E-3	-1.063839E-2	-5.853118E-3	-5.481193E-3	-3.104263E-3	3.185619E-3	3.179227E-3	-5.129688E-3	-1.058409E-2	-5.457972E-3	-7.304317E-3	3.910769E-3	-7.419547E-3	-5.393737E-4	-3.353298E-4	-5.715846E-3	-1.013544E-2	-4.523735E-3	2.033386E-4	-4.497413E-4	-4.712592E-3	-2.147728E-3	-9.550690E-3	-4.232353E-3	-5.069741E-4	-1.033852E-2	-4.430614E-3	-3.672587E-3	-5.891789E-3	-2.689179E-3	-1.180308E-2	-4.372238E-3	-1.449938E-2	-1.114636E-2	-3.878432E-4	-6.630300E-3	-4.980781E-3	-7.100245E-3	-5.357049E-3	5.644943E-3	-5.947408E-3	-9.152337E-3	-3.632300E-3	3.266464E-3	-2.358816E-3	3.538562E-3	-3.161176E-3	-1.086687E-2	4.134899E-4	1.086832E-3	-5.152531E-3	3.419844E-3	1.367817E-3	-3.981941E-4	-9.139880E-3	-1.263295E-2	-1.073158E-2	-1.436686E-2	-6.547560E-3	-3.105553E-4	-7.743949E-3	1.631524E-4	-9.243188E-3	-1.171127E-3	-9.891267E-4	-2.338150E-3	-1.108462E-2	-6.983292E-3	-1.189222E-2	-1.989836E-3	-7.916159E-3	-1.847462E-3	-3.083649E-3	-9.388395E-3	7.414159E-3
5.315230E+2	-7.805528E-3	5.844183E-4	5.299139E-4	-7.008876E-3	-7.111261E-3	-1.293831E-2	6.601715E-4	-9.837627E-4	-6.380264E-3	-7.169340E-3	2.972826E-3	-4.151396E-3	-5.401221E-3	-1.167096E-2	-8.888006E-3	6.714289E-3	-2.358672E-3	-6.923018E-3	9.723110E-4	-2.140244E-3	-4.914436E-3	1.017174E-3	-3.450089E-3	-5.011078E-3	1.074703E-3	-2.971057E-3	4.007866E-3	5.944364E-3	-4.165994E-3	3.808184E-3	-3.858093E-3	-3.043155E-3	-4.954802E-3	6.148215E-4	-9.516184E-4	-5.323922E-3	-9.147885E-4	5.070693E-3	-6.765611E-4	6.298773E-3	-8.142376E-3	-9.264355E-4	-1.109370E-3	2.805738E-3	-2.633272E-3	-6.360315E-3	-7.558675E-3	-5.504885E-3	-7.448107E-3	-1.041261E-2	-4.473355E-3	1.140388E-2	-4.153314E-3	-2.781918E-3	5.938934E-5	-6.886720E-4	-9.697875E-3	-1.809456E-3	-3.288441E-3	-1.292448E-2	-4.608558E-3	3.867657E-3	4.856571E-3	-8.670537E-4	-5.846509E-3	-4.041165E-3	-3.779338E-3	-2.962138E-3	-5.849372E-3	-7.206121E-4	-1.290772E-3	8.053822E-4	-4.168279E-3	-2.533540E-3	2.869265E-3	1.672757E-3	-4.978636E-3	-3.367547E-3	-8.474900E-3	-8.822309E-3	2.901089E-3	2.129198E-3	-2.859081E-3	4.106734E-3	-1.178861E-2	-6.027480E-3	-3.702416E-3	-3.986080E-3	-4.522377E-3	-7.939798E-4	-4.810091E-3	1.886368E-3	7.330470E-4	-9.202511E-4	-1.325217E-2	5.165550E-3	-1.032446E-2	-8.261713E-3	-8.480366E-3	-7.087523E-3	-8.094292E-3	4.222684E-3	-6.707748E-3	4.055515E-3	-4.041363E-3	8.309855E-4	-5.171953E-3	-1.445943E-3	-1.073206E-3	-7.576638E-3	2.683283E-3	9.105313E-4	-2.951688E-3	-3.123751E-3	-5.510911E-3	-1.889187E-3	-7.956910E-3	-6.386183E-3	8.271662E-3	-2.484852E-3	-4.814936E-3	7.490302E-3	-9.431112E-4	-1.927004E-3	-3.770508E-3	-6.279239E-3	3.304331E-3	1.566051E-3	-1.461947E-2	3.420723E-3	-1.312271E-2	-8.442227E-3	2.653661E-3	4.552464E-3	-5.906702E-3	8.256318E-4	-7.495064E-3	-8.973785E-3	1.461189E-3	-2.756068E-3	-8.914993E-4	2.348366E-3	-7.210561E-3	-5.881271E-3	-7.921831E-3	3.271399E-3	-7.231214E-4	-5.993556E-3	2.548110E-3	-4.178362E-3	-2.245873E-3	-4.925329E-3	9.649419E-6	2.639507E-3	-9.662569E-3	-6.539935E-3	-1.124908E-3	-3.490305E-3	-7.102194E-3	1.130977E-3	-1.527868E-2	8.830506E-3	3.541171E-3	-3.211074E-3	2.487041E-3	-2.604838E-2
5.320120E+2	5.262903E-4	-6.538674E-3	5.555515E-4	6.024289E-4	-1.662824E-3	1.411213E-2	1.576557E-2	-2.363416E-3	2.276183E-3	7.492854E-4	-6.085919E-3	6.037350E-3	3.721057E-3	6.206519E-3	-1.102202E-2	-8.669244E-3	-2.347368E-3	3.619748E-3	-4.331638E-3	-9.579484E-3	3.792240E-3	3.720367E-3	-5.145873E-3	-3.243388E-3	1.207464E-2	-1.158038E-3	-4.966319E-3	-4.529324E-3	-2.574663E-3	-3.738396E-3	4.475327E-3	1.086406E-2	-4.929125E-3	6.994850E-3	4.573783E-3	-2.859903E-3	8.834584E-3	5.672442E-3	1.002307E-3	-6.652232E-3	-1.631474E-3	-4.888492E-3	6.177661E-3	2.144829E-3	4.027818E-3	-6.911894E-3	6.631715E-4	-1.367266E-3	-2.789505E-3	-1.105322E-2	1.560862E-2	1.205755E-3	8.719986E-4	7.071907E-4	5.871812E-3	-4.555591E-3	5.880931E-3	2.178977E-3	4.368015E-3	4.102621E-3	-3.462732E-3	1.056499E-2	9.741490E-3	-2.948972E-3	-1.412943E-2	5.580714E-3	-1.210891E-3	4.922027E-3	1.215491E-3	-1.100235E-4	2.263295E-3	5.121352E-3	1.478126E-2	-2.529323E-3	-5.607448E-3	-1.409767E-3	5.010518E-3	-3.631593E-4	-3.300896E-3	5.614929E-3	-8.958134E-3	8.349184E-4	5.577225E-3	-1.293443E-3	3.673550E-3	2.438775E-4	4.077356E-4	8.348230E-3	4.199259E-3	-2.815426E-3	-4.599410E-4	5.663516E-4	1.042998E-2	9.782267E-3	2.092058E-3	-2.089553E-3	7.702262E-3	3.678286E-3	-2.674053E-3	9.787110E-3	-4.329587E-3	5.985974E-3	-1.772742E-3	2.420070E-3	1.341282E-3	-4.704019E-4	-3.159152E-3	1.051732E-2	6.721575E-3	7.700302E-3	2.710206E-3	-1.001253E-4	1.058169E-3	-6.385507E-3	-7.817943E-3	1.893343E-3	-1.708759E-3	9.551938E-3	4.272009E-3	-6.951674E-4	-1.859654E-4	1.123577E-2	2.622230E-3	1.140885E-2	2.487330E-3	4.122581E-3	1.656620E-3	4.161642E-3	8.266891E-3	1.376493E-3	-6.456851E-3	1.083558E-3	1.611727E-4	-8.889449E-3	-1.379541E-3	-8.570936E-3	7.482745E-3	3.766433E-3	1.536246E-3	-7.580726E-3	-2.114916E-4	-2.848504E-3	-1.675739E-3	3.429465E-3	-5.872080E-3	-5.279546E-3	8.372841E-3	-1.672897E-3	-6.289528E-3	2.729102E-4	-1.622314E-3	-3.077846E-3	-8.645814E-3	2.632616E-3	-1.758140E-5	2.186594E-4	-2.473816E-3	3.616632E-3	2.995907E-3	-1.148890E-3	-4.316454E-3	-2.644307E-3	-2.016844E-3	6.854650E-3	-5.539426E-4	2.497505E-3
5.325120E+2	1.136902E-2	7.284180E-3	3.121057E-3	5.819237E-3	8.808788E-3	5.296348E-3	1.002375E-3	-5.530979E-3	1.953068E-3	3.061916E-3	4.642859E-4	8.604835E-3	1.096558E-2	-3.493214E-3	1.234282E-2	1.724020E-3	4.086515E-3	9.369822E-3	1.141132E-2	3.933771E-5	8.229442E-3	1.013682E-2	4.853549E-3	4.810168E-3	8.768376E-3	5.885454E-3	8.213918E-3	9.456113E-3	1.191786E-2	-3.949578E-3	1.325165E-2	4.553660E-3	6.509932E-3	7.396318E-3	1.114020E-2	6.963132E-3	1.256865E-3	2.407684E-3	6.977176E-3	1.010037E-2	1.228592E-2	7.251658E-3	4.103428E-3	4.322365E-3	5.490218E-3	1.228312E-2	1.203331E-2	1.090792E-2	1.430910E-2	1.999579E-2	4.245463E-3	-1.476272E-3	3.156731E-3	6.318352E-3	4.499884E-3	1.582908E-2	1.311286E-2	4.580859E-3	7.329092E-3	9.600410E-3	1.121666E-2	1.042290E-2	-4.582203E-3	1.056594E-2	7.922675E-3	-4.371861E-3	6.242274E-3	7.123722E-3	6.921215E-3	8.690828E-3	9.762860E-3	1.199002E-2	6.232772E-4	1.479496E-2	4.549424E-3	-4.713264E-4	1.190180E-2	7.813939E-3	8.559452E-3	8.700016E-3	3.259762E-3	1.035947E-2	1.140256E-2	-9.655447E-4	9.035259E-3	4.374829E-3	1.494979E-4	2.270865E-3	2.212923E-2	1.451249E-2	8.619027E-3	9.600170E-3	-4.966099E-3	1.472572E-2	9.043473E-3	-7.230548E-5	-2.621437E-3	8.440205E-3	1.535119E-3	8.387459E-3	1.364082E-2	4.020669E-3	9.710514E-3	6.127690E-3	9.125875E-3	9.754646E-3	-1.504111E-3	9.021578E-3	2.322612E-3	1.043255E-3	7.435270E-3	-2.816286E-4	8.775480E-3	1.106178E-2	9.996271E-3	1.233277E-2	4.880453E-3	2.535683E-3	5.796797E-3	2.030133E-3	2.135497E-3	7.874955E-3	1.069366E-2	9.917717E-3	4.725352E-3	-1.684805E-4	4.809240E-3	6.074621E-3	9.991299E-3	-3.776611E-3	7.202172E-3	7.410660E-3	1.062197E-2	6.907775E-3	1.516170E-2	5.662431E-3	9.913092E-3	1.681506E-2	2.510335E-3	8.585862E-3	5.570770E-3	5.824307E-3	3.089931E-4	5.486202E-3	1.455387E-2	1.295816E-2	2.047194E-3	1.215234E-2	2.240295E-3	3.767011E-3	7.676050E-3	9.173562E-3	3.994296E-3	5.131373E-3	1.625351E-3	1.936307E-3	-7.931427E-4	1.890479E-2	5.114493E-3	2.616166E-3	-3.413521E-4	-5.895990E-3	5.443271E-3	1.331287E-2	-3.238468E-3	1.965225E-2
5.330280E+2	1.029465E-2	9.603646E-3	1.733332E-2	2.426463E-3	9.608686E-3	1.830126E-2	2.420638E-3	1.953974E-2	2.152714E-2	1.047188E-2	1.081746E-2	4.297635E-3	1.510090E-2	1.780402E-2	2.268887E-2	1.491233E-2	1.581869E-2	1.423910E-2	1.034091E-2	9.501006E-3	8.291478E-3	1.880007E-3	2.892353E-2	1.026805E-2	5.786013E-3	1.332042E-2	1.022766E-2	8.951106E-3	1.960341E-2	1.848567E-2	1.169860E-2	6.323518E-3	1.095106E-2	1.007748E-2	3.331714E-3	4.522719E-3	2.194752E-2	1.100984E-2	1.386408E-2	2.044836E-2	1.693935E-2	2.118590E-2	1.161341E-2	1.841950E-2	3.372628E-3	1.797804E-2	1.713407E-2	1.780092E-2	1.510145E-2	1.691724E-2	3.223170E-3	8.297025E-3	6.437162E-3	2.048745E-2	1.222541E-2	1.820056E-2	6.406464E-3	1.408240E-2	2.239920E-2	1.286408E-2	1.537535E-2	7.176115E-3	1.026685E-2	3.287516E-3	1.576065E-2	1.318768E-2	8.948240E-3	1.273269E-2	1.598525E-2	2.151547E-2	8.688189E-3	1.591603E-2	9.030389E-3	6.416547E-3	1.780903E-2	1.268718E-2	3.158210E-3	1.458291E-2	6.945481E-3	7.215924E-3	2.334224E-2	3.261635E-3	6.056195E-3	1.125753E-2	1.425833E-2	1.396115E-2	1.205740E-2	1.598867E-2	4.752694E-3	1.122233E-2	9.354037E-3	8.372179E-3	1.469292E-2	9.760340E-3	1.799546E-2	1.527348E-2	1.700711E-2	7.915588E-3	1.268079E-2	1.701207E-2	1.633525E-2	5.305294E-3	1.914231E-2	7.920086E-3	6.559440E-3	1.316344E-2	2.151933E-2	8.499280E-3	1.391224E-2	1.359497E-2	5.917435E-3	1.824604E-2	6.200523E-3	2.108888E-2	1.011664E-2	8.022892E-3	2.258304E-2	8.192333E-3	5.914249E-3	1.105749E-2	1.354174E-2	1.958662E-3	1.273228E-3	1.387850E-2	1.553530E-2	1.331323E-2	1.224546E-2	6.202030E-3	1.552852E-2	7.397474E-3	2.004954E-2	1.711626E-2	2.087921E-2	3.797887E-3	1.009038E-2	1.303515E-2	4.548263E-3	2.706780E-3	1.381191E-2	1.299789E-2	5.044518E-3	1.009002E-2	1.879506E-2	1.224662E-2	1.667920E-2	2.242720E-2	1.249828E-2	2.274485E-2	1.333274E-2	1.660289E-2	1.380023E-2	2.183070E-2	1.499102E-2	1.803147E-2	2.246571E-2	1.703697E-2	2.240581E-2	4.715709E-3	1.204552E-2	1.481573E-2	2.333920E-2	1.609823E-2	1.662015E-2	4.280461E-3	1.496900E-2	-4.163007E-3
5.331730E+2	1.360903E-2	2.027021E-2	2.119811E-2	1.718983E-2	1.231706E-2	6.450703E-3	5.216381E-3	1.345265E-2	1.689523E-2	1.265643E-2	3.037082E-2	1.613218E-2	1.898060E-2	6.832382E-3	2.876785E-2	2.102108E-2	7.313188E-3	1.614144E-2	1.576408E-2	1.525463E-2	5.446955E-3	1.521600E-2	2.050628E-2	9.790163E-3	1.265971E-2	1.588873E-2	1.606542E-2	-2.131751E-3	1.752684E-2	1.590593E-2	2.923542E-2	1.597808E-2	2.224907E-2	2.496592E-2	2.548604E-2	2.435592E-2	1.350607E-2	2.696507E-2	2.021729E-2	1.376180E-2	1.511954E-2	2.725337E-2	2.102305E-2	1.368048E-2	2.968542E-2	1.757141E-2	2.392753E-2	1.012455E-2	2.802986E-2	-2.880117E-3	2.137158E-2	3.085202E-2	1.607292E-2	5.372800E-3	2.291354E-2	1.331694E-2	1.268494E-2	2.232168E-2	8.847835E-3	1.105782E-2	1.898051E-2	5.617734E-3	1.642405E-2	2.249158E-2	2.426407E-2	4.053442E-2	4.541929E-3	1.837232E-2	2.921493E-2	5.295532E-3	2.137448E-2	1.660709E-2	1.298793E-2	1.202830E-2	1.202409E-2	1.655820E-2	1.752517E-2	1.351384E-2	1.866863E-2	3.110857E-2	1.816861E-2	1.390285E-2	2.017050E-2	2.111448E-2	1.816446E-2	1.410339E-2	2.877458E-2	1.496332E-2	2.523387E-2	2.492170E-3	1.889092E-2	1.118793E-2	1.178346E-2	1.672375E-2	1.371722E-2	3.069605E-2	1.988577E-2	3.216282E-2	1.802067E-2	2.202667E-2	1.720822E-2	1.131244E-2	2.239475E-2	1.196438E-2	1.966247E-2	1.329412E-2	1.219636E-2	1.497640E-2	1.045632E-2	5.994300E-3	1.482467E-2	1.946296E-2	1.507403E-2	2.654069E-2	2.727248E-2	1.766277E-2	2.525986E-2	2.007441E-2	1.126900E-2	1.894032E-2	7.666580E-3	8.845442E-3	1.153578E-2	3.128161E-3	1.819781E-2	2.569853E-2	1.690119E-2	2.291659E-2	2.857930E-2	1.863244E-2	2.825879E-2	1.907069E-2	1.659509E-2	1.234352E-2	1.216884E-2	1.708483E-2	2.116641E-2	2.912367E-2	2.922866E-2	2.238001E-2	2.544140E-2	1.917565E-2	1.392866E-2	1.240793E-2	2.020628E-2	1.060912E-2	1.496487E-2	1.298787E-2	2.035685E-2	2.887062E-2	8.526091E-3	1.298703E-2	2.607856E-2	2.464972E-2	1.872781E-2	1.583167E-2	8.269471E-3	2.401467E-2	6.519110E-3	2.360882E-2	1.244122E-2	2.663652E-2	1.836161E-2	7.464208E-3	3.626951E-2	1.032546E-2
5.333080E+2	1.863540E-2	2.741322E-2	9.563151E-3	2.256836E-2	2.166512E-2	1.500786E-2	1.289050E-2	2.765611E-2	1.357305E-2	1.962696E-2	2.587966E-2	1.132162E-2	2.745139E-2	1.343256E-2	2.398801E-2	1.581868E-2	2.081166E-2	2.712745E-2	2.888099E-2	1.609977E-2	2.741191E-2	1.721951E-2	1.436276E-2	1.771921E-2	3.020670E-2	1.134910E-2	1.106819E-2	1.609036E-2	1.855770E-2	2.476343E-2	1.531823E-2	9.947637E-3	2.848163E-2	1.799377E-2	2.444012E-2	4.889936E-3	3.411611E-2	2.038662E-2	2.593166E-2	1.896947E-2	1.207362E-2	2.075272E-2	2.427182E-2	2.360072E-2	2.917701E-2	1.879164E-2	2.125359E-2	2.218501E-2	2.681963E-2	1.467407E-2	3.548082E-2	1.946919E-2	2.696817E-2	1.665628E-2	1.834043E-2	9.540472E-3	2.313123E-2	3.190403E-2	2.591992E-2	2.890621E-2	1.451537E-2	5.806292E-3	1.708037E-2	2.150787E-2	2.312186E-2	1.675040E-2	2.860377E-2	2.764705E-2	1.390386E-2	2.841784E-2	1.436500E-2	2.374589E-2	1.382253E-2	1.160504E-2	1.945239E-2	3.732658E-3	9.400829E-3	3.234731E-2	6.691475E-3	9.642807E-3	2.233639E-2	3.112016E-2	1.970164E-2	1.461278E-2	2.329084E-2	1.492960E-2	1.885902E-2	1.039571E-2	3.549793E-2	1.838057E-2	2.652039E-2	1.808363E-2	7.693445E-3	2.135274E-2	2.980721E-2	3.185792E-2	1.937307E-2	2.344665E-2	1.886120E-2	2.215527E-2	1.171674E-2	1.676567E-2	1.635311E-2	2.098199E-2	2.323094E-2	1.943482E-2	2.117518E-2	1.643659E-2	3.164858E-2	2.629103E-2	2.094896E-2	2.268963E-2	3.068712E-2	2.075015E-2	2.502131E-2	2.794392E-2	3.101897E-2	9.168233E-3	1.662932E-2	2.082513E-2	2.585130E-2	2.566680E-2	1.885651E-2	2.885077E-2	2.775766E-2	2.232290E-2	1.983299E-2	1.009940E-2	2.265160E-2	7.793238E-3	3.041726E-2	1.681482E-2	2.809841E-2	8.664691E-3	1.821680E-2	1.497609E-2	1.381416E-2	2.082247E-2	1.552139E-2	1.640164E-2	2.311143E-2	9.307563E-3	1.960656E-2	7.688079E-3	1.297572E-2	1.222966E-2	1.813445E-2	1.928311E-2	2.733029E-2	2.266732E-2	1.760221E-2	1.850850E-2	1.609892E-2	2.133152E-2	2.665284E-2	1.127754E-2	2.474866E-2	3.129428E-2	1.228760E-2	4.261785E-2	1.269563E-2	2.321199E-2	2.475595E-2	7.999712E-3	4.614557E-2	3.623990E-2
5.334580E+2	2.971941E-2	3.411873E-2	1.450992E-2	4.270877E-2	1.731513E-2	2.010989E-2	1.656769E-2	4.379611E-2	2.356580E-2	2.903448E-2	1.971890E-2	3.262132E-2	2.981359E-2	3.379228E-2	2.685558E-2	2.664937E-2	2.478978E-2	2.019048E-2	3.502755E-2	2.177458E-2	2.653112E-2	2.302578E-2	2.706989E-2	1.363500E-2	2.662024E-2	3.176931E-2	2.586670E-2	2.742181E-2	2.675665E-2	2.940921E-2	2.161865E-2	2.752042E-2	2.409935E-2	1.868604E-2	2.629089E-2	2.395669E-2	2.400281E-2	2.386656E-2	3.011527E-2	1.230432E-2	1.957026E-2	3.357333E-2	2.433872E-2	3.231048E-2	2.499665E-2	3.023841E-2	2.807340E-2	3.233595E-2	2.958019E-2	3.796099E-2	2.894642E-2	3.231552E-2	3.415073E-2	2.681987E-2	2.138021E-2	1.690335E-2	3.913603E-2	1.576944E-2	3.058710E-2	2.904884E-2	2.735594E-2	2.221862E-2	3.256980E-2	2.540531E-2	1.217461E-2	2.326072E-2	2.160467E-2	2.656167E-2	2.587484E-2	2.980352E-2	3.419636E-2	2.992537E-2	2.662909E-2	2.263545E-2	1.948665E-2	1.925230E-2	1.595363E-2	3.072532E-2	2.818859E-2	2.216855E-2	2.837865E-2	2.136415E-2	2.220975E-2	2.438905E-2	1.273412E-2	1.812726E-2	3.971556E-2	2.709082E-2	2.138198E-2	1.976739E-2	2.664007E-2	2.011013E-2	2.241860E-2	2.663779E-2	2.889685E-2	1.903453E-2	1.537012E-2	2.986047E-2	2.476419E-2	2.899573E-2	2.952253E-2	4.636479E-2	2.199854E-2	2.339313E-2	2.463959E-2	2.476701E-2	4.912627E-3	4.193662E-2	2.279540E-2	2.708528E-2	3.430084E-2	4.086887E-2	2.808849E-2	3.340389E-2	4.281970E-2	2.486617E-2	3.116644E-2	2.710955E-2	2.953286E-2	3.051268E-2	1.856154E-2	4.299386E-2	3.328394E-2	2.193686E-2	2.598231E-2	2.711328E-2	2.390264E-2	2.213169E-2	3.151530E-2	2.857824E-2	2.240625E-2	2.409905E-2	2.442427E-2	2.033798E-2	2.475192E-2	3.357696E-2	2.891920E-2	3.641896E-2	3.273248E-2	2.811587E-2	2.440890E-2	3.497650E-2	3.036185E-2	1.519502E-2	2.100681E-2	1.815522E-2	3.335092E-2	1.932172E-2	3.286841E-2	3.546965E-2	1.462668E-2	3.060221E-2	2.553519E-2	1.058323E-2	2.409096E-2	3.450871E-2	2.547731E-2	2.794523E-2	1.580904E-2	3.827872E-2	3.985626E-2	2.585723E-2	3.490265E-2	3.296502E-2	2.582967E-2	2.760411E-2
5.336080E+2	2.885229E-2	3.602767E-2	3.462583E-2	3.531941E-2	3.071572E-2	4.518597E-2	3.319350E-2	3.995531E-2	2.679923E-2	2.803815E-2	3.829973E-2	4.769617E-2	5.221818E-2	3.722181E-2	3.629446E-2	2.575421E-2	3.927323E-2	3.611907E-2	3.055242E-2	3.464891E-2	2.675022E-2	3.884846E-2	2.277308E-2	2.173917E-2	2.635094E-2	3.084358E-2	3.327123E-2	3.830883E-2	3.698358E-2	3.348853E-2	3.313357E-2	3.339598E-2	3.725079E-2	1.845977E-2	4.580254E-2	2.558890E-2	3.356342E-2	2.982383E-2	3.379974E-2	3.884740E-2	2.488644E-2	3.266156E-2	3.960956E-2	6.512759E-2	4.358696E-2	4.563308E-2	5.106432E-2	4.406596E-2	3.722643E-2	2.448882E-2	4.225395E-2	2.784304E-2	3.275022E-2	3.370354E-2	3.411170E-2	3.859999E-2	3.714324E-2	2.273803E-2	2.966284E-2	2.876696E-2	2.628870E-2	2.717570E-2	3.502938E-2	4.109258E-2	3.682219E-2	2.688035E-2	3.557863E-2	4.098493E-2	2.620220E-2	3.745034E-2	3.032037E-2	2.966460E-2	2.877024E-2	3.762450E-2	3.173323E-2	3.520884E-2	3.850357E-2	3.773244E-2	3.719088E-2	3.110225E-2	4.072662E-2	2.835395E-2	3.959364E-2	3.810066E-2	2.938382E-2	3.560907E-2	3.526412E-2	2.739526E-2	4.551232E-2	3.996300E-2	4.077774E-2	4.664099E-2	2.398406E-2	3.604118E-2	2.366438E-2	2.728686E-2	3.264332E-2	5.181587E-2	3.164534E-2	4.757218E-2	5.331980E-2	3.367685E-2	3.666981E-2	3.708816E-2	4.134414E-2	2.053390E-2	3.916090E-2	3.335479E-2	2.978774E-2	2.681755E-2	4.390150E-2	3.582791E-2	5.135621E-2	3.045854E-2	3.663075E-2	3.285780E-2	3.465732E-2	4.912354E-2	2.345196E-2	3.261252E-2	4.833854E-2	4.417438E-2	4.196800E-2	3.384856E-2	4.274137E-2	4.085384E-2	4.228119E-2	3.589671E-2	3.597952E-2	4.144668E-2	3.759852E-2	3.705472E-2	4.826226E-2	2.913632E-2	3.165176E-2	3.217682E-2	2.108903E-2	3.977127E-2	4.313463E-2	3.094992E-2	2.972215E-2	3.587891E-2	4.572389E-2	3.383937E-2	2.549356E-2	4.339177E-2	4.710249E-2	4.074325E-2	4.293385E-2	3.208409E-2	4.807723E-2	3.455987E-2	4.122886E-2	3.103501E-2	2.774108E-2	3.555197E-2	3.266224E-2	3.545224E-2	2.689158E-2	5.066445E-2	5.067356E-2	2.192092E-2	3.152046E-2	3.685138E-2	5.733981E-2	4.180293E-2
5.337630E+2	4.239150E-2	4.265569E-2	3.025152E-2	5.069751E-2	4.488682E-2	4.010734E-2	3.442525E-2	3.500349E-2	3.896132E-2	5.403831E-2	5.193309E-2	5.569662E-2	5.107603E-2	6.484179E-2	4.702845E-2	4.833958E-2	5.170251E-2	4.568861E-2	3.824623E-2	4.709694E-2	4.953106E-2	3.657446E-2	4.500124E-2	4.732141E-2	5.301774E-2	5.165260E-2	6.017207E-2	4.010392E-2	4.901238E-2	4.818884E-2	3.644955E-2	4.350219E-2	4.193252E-2	5.047230E-2	5.139527E-2	2.616945E-2	4.310559E-2	4.199766E-2	3.996714E-2	3.139364E-2	5.426596E-2	3.920269E-2	5.880112E-2	4.425720E-2	3.716566E-2	3.943418E-2	3.993626E-2	4.193914E-2	5.682967E-2	4.573889E-2	5.516380E-2	4.719110E-2	3.784378E-2	5.080516E-2	4.402869E-2	4.134797E-2	6.225979E-2	5.402479E-2	5.239088E-2	3.063345E-2	4.977017E-2	4.518111E-2	4.538212E-2	3.468809E-2	4.942471E-2	5.013464E-2	3.939802E-2	3.786893E-2	4.892867E-2	4.787785E-2	5.001798E-2	5.247904E-2	5.383758E-2	3.705214E-2	3.036041E-2	4.264347E-2	4.807410E-2	4.861337E-2	4.236081E-2	4.995703E-2	4.184746E-2	4.701883E-2	4.930832E-2	4.903944E-2	3.660299E-2	3.822698E-2	5.070561E-2	5.536508E-2	3.294497E-2	4.483827E-2	4.894013E-2	3.598663E-2	4.038172E-2	3.059720E-2	4.522866E-2	4.654097E-2	3.471839E-2	4.993887E-2	4.201628E-2	3.538950E-2	4.374481E-2	4.622972E-2	4.662092E-2	4.826705E-2	3.923314E-2	4.715296E-2	4.587543E-2	4.097003E-2	3.526167E-2	5.066366E-2	4.277976E-2	3.635119E-2	3.575375E-2	4.233454E-2	4.951166E-2	3.790188E-2	5.222556E-2	4.105578E-2	3.619851E-2	3.733152E-2	4.478931E-2	4.185236E-2	5.147982E-2	3.699503E-2	4.395406E-2	5.191557E-2	4.282206E-2	5.815721E-2	4.612380E-2	4.834909E-2	5.234489E-2	4.062047E-2	3.171798E-2	3.550503E-2	2.900990E-2	3.651385E-2	3.890650E-2	6.117780E-2	5.448033E-2	4.637282E-2	5.315734E-2	4.834608E-2	3.789041E-2	3.701639E-2	3.770148E-2	4.010670E-2	3.181872E-2	4.018014E-2	6.557749E-2	4.107729E-2	3.966810E-2	5.205110E-2	4.626827E-2	4.811314E-2	4.395425E-2	3.278550E-2	4.417907E-2	5.998626E-2	4.043211E-2	6.093068E-2	5.277697E-2	4.566636E-2	4.795969E-2	3.882996E-2	1.954002E-2	4.163738E-2
5.339090E+2	6.129918E-2	7.150968E-2	4.180867E-2	5.681367E-2	4.985256E-2	4.796598E-2	6.408346E-2	7.099424E-2	6.788602E-2	5.718339E-2	5.177751E-2	6.796944E-2	4.662352E-2	6.202393E-2	6.573682E-2	5.359153E-2	6.060574E-2	5.928564E-2	4.119290E-2	6.128249E-2	7.237274E-2	5.028345E-2	5.967750E-2	7.514937E-2	5.175245E-2	6.374427E-2	5.125267E-2	6.416062E-2	5.524487E-2	5.677274E-2	6.095519E-2	5.067300E-2	5.656652E-2	7.157175E-2	6.703756E-2	7.046042E-2	4.549848E-2	5.772222E-2	6.580666E-2	4.717413E-2	5.353782E-2	7.137149E-2	6.174506E-2	7.308537E-2	6.676078E-2	5.993734E-2	5.804522E-2	6.473378E-2	6.201663E-2	6.618126E-2	6.344727E-2	8.032374E-2	5.769895E-2	5.949589E-2	5.265919E-2	7.027265E-2	6.442112E-2	6.743837E-2	6.977159E-2	6.310274E-2	5.180787E-2	6.023103E-2	6.108198E-2	7.268803E-2	6.331341E-2	7.580941E-2	7.412198E-2	5.665356E-2	6.056725E-2	6.530163E-2	5.105065E-2	6.209766E-2	5.612949E-2	3.812418E-2	6.503615E-2	5.740522E-2	5.725564E-2	6.053603E-2	5.782987E-2	6.489248E-2	6.521642E-2	6.264627E-2	6.067204E-2	6.160999E-2	5.330134E-2	6.163250E-2	6.177315E-2	6.821996E-2	5.557708E-2	4.464964E-2	5.002071E-2	6.460315E-2	5.038691E-2	7.199605E-2	7.271038E-2	7.350305E-2	6.655388E-2	5.124980E-2	4.383077E-2	5.472544E-2	6.632350E-2	6.689461E-2	6.209499E-2	7.000478E-2	6.379436E-2	6.091498E-2	7.610714E-2	5.741203E-2	5.770374E-2	4.891858E-2	7.443755E-2	5.627339E-2	5.088740E-2	4.947494E-2	6.810424E-2	6.183499E-2	5.839564E-2	7.088386E-2	3.783676E-2	7.170453E-2	5.749374E-2	4.555544E-2	6.144832E-2	6.816435E-2	5.834972E-2	7.739011E-2	5.282158E-2	6.371502E-2	6.820430E-2	5.524534E-2	8.233432E-2	6.266845E-2	5.227152E-2	6.594885E-2	5.683022E-2	5.261825E-2	5.978892E-2	7.320117E-2	7.603103E-2	5.904280E-2	6.974567E-2	7.146487E-2	6.506896E-2	5.305875E-2	5.694662E-2	6.796899E-2	7.113907E-2	6.650082E-2	4.953640E-2	6.691801E-2	4.963721E-2	5.538318E-2	5.698031E-2	4.936277E-2	6.644045E-2	6.671359E-2	7.254142E-2	6.045428E-2	4.770172E-2	6.885365E-2	6.364690E-2	6.930722E-2	3.991688E-2	5.183299E-2	8.724431E-2	5.835155E-2
5.340640E+2	8.127124E-2	9.003726E-2	1.011635E-1	9.332847E-2	7.336683E-2	8.710413E-2	7.842845E-2	9.468965E-2	7.270841E-2	9.537702E-2	8.223042E-2	8.697266E-2	7.762383E-2	1.013251E-1	1.023155E-1	8.247170E-2	8.929289E-2	9.620415E-2	7.699955E-2	8.578546E-2	7.890439E-2	9.723700E-2	8.047986E-2	7.471101E-2	9.267230E-2	8.849220E-2	8.932247E-2	8.425538E-2	1.105824E-1	8.882817E-2	7.576703E-2	8.806076E-2	8.816055E-2	8.914730E-2	8.821169E-2	8.520387E-2	9.033750E-2	1.033026E-1	8.587812E-2	9.475853E-2	7.097421E-2	7.996982E-2	7.926367E-2	8.179576E-2	8.891445E-2	9.777369E-2	8.713083E-2	8.597093E-2	1.035003E-1	7.982216E-2	9.649339E-2	8.476779E-2	9.045195E-2	9.052458E-2	7.212424E-2	9.475907E-2	8.221048E-2	8.998474E-2	1.091473E-1	9.711550E-2	1.009351E-1	9.842227E-2	7.828795E-2	8.309383E-2	1.051899E-1	8.498424E-2	8.919013E-2	7.506996E-2	7.935580E-2	8.552940E-2	8.227971E-2	1.060873E-1	7.408381E-2	8.952031E-2	9.215745E-2	9.059057E-2	8.615621E-2	8.738057E-2	9.756649E-2	8.957657E-2	7.645452E-2	8.180691E-2	7.901749E-2	7.137343E-2	9.004767E-2	7.827242E-2	8.982831E-2	6.892423E-2	7.227921E-2	9.904082E-2	8.711721E-2	8.273844E-2	9.197876E-2	9.804853E-2	9.743960E-2	8.567127E-2	9.322209E-2	7.409547E-2	7.828917E-2	8.779928E-2	9.430926E-2	9.389539E-2	8.903549E-2	8.484914E-2	8.856391E-2	8.023799E-2	8.968382E-2	7.008934E-2	1.016428E-1	1.042706E-1	8.573010E-2	9.363201E-2	9.617666E-2	7.858542E-2	8.000555E-2	1.007406E-1	7.898282E-2	8.540530E-2	1.044419E-1	8.627220E-2	8.678291E-2	8.533394E-2	8.006829E-2	7.784077E-2	1.079657E-1	8.637972E-2	1.074224E-1	9.109294E-2	7.885808E-2	9.695262E-2	8.378594E-2	9.668497E-2	8.198045E-2	7.377407E-2	7.514999E-2	9.833958E-2	9.597208E-2	9.194148E-2	9.342586E-2	8.879047E-2	9.196472E-2	9.835861E-2	8.605255E-2	9.129621E-2	8.483691E-2	9.286415E-2	9.371185E-2	8.831085E-2	8.348995E-2	1.167558E-1	9.197115E-2	8.138078E-2	6.899707E-2	7.138846E-2	8.800516E-2	7.209590E-2	7.909206E-2	8.646670E-2	6.528263E-2	9.099399E-2	9.666597E-2	9.221182E-2	9.415086E-2	9.392697E-2	9.652810E-2	1.178203E-1
5.342090E+2	1.403710E-1	1.307545E-1	1.253386E-1	1.230719E-1	1.134954E-1	1.324152E-1	1.431442E-1	1.297434E-1	1.291281E-1	1.196104E-1	1.356425E-1	1.394687E-1	1.270991E-1	1.371572E-1	1.467575E-1	1.246038E-1	1.315370E-1	1.409153E-1	1.410752E-1	1.298630E-1	1.244513E-1	1.323533E-1	1.345063E-1	1.203567E-1	1.111684E-1	1.434702E-1	1.315043E-1	1.276284E-1	1.254547E-1	1.415964E-1	1.311079E-1	1.180664E-1	1.483311E-1	1.443861E-1	1.479163E-1	1.198237E-1	1.187390E-1	1.149807E-1	1.314165E-1	1.285353E-1	1.140168E-1	1.146823E-1	1.395457E-1	1.312763E-1	1.311728E-1	1.252948E-1	1.328239E-1	1.468628E-1	1.520071E-1	1.272822E-1	1.310844E-1	1.323890E-1	1.250240E-1	1.292276E-1	1.329826E-1	1.324803E-1	1.481947E-1	1.421023E-1	1.340276E-1	1.421129E-1	1.454719E-1	1.364092E-1	1.179774E-1	1.348723E-1	1.258022E-1	1.390865E-1	1.321937E-1	1.428094E-1	1.410692E-1	1.405521E-1	1.238238E-1	1.399477E-1	1.281247E-1	1.306336E-1	1.253054E-1	1.313451E-1	1.179624E-1	1.422236E-1	1.389363E-1	1.292228E-1	1.177228E-1	1.303169E-1	1.255693E-1	1.093680E-1	1.318948E-1	1.226375E-1	1.339338E-1	1.167621E-1	1.302606E-1	1.343044E-1	1.375798E-1	1.320470E-1	1.141472E-1	1.410101E-1	1.419478E-1	1.249824E-1	1.103301E-1	1.400964E-1	1.189468E-1	1.209093E-1	1.287469E-1	1.333174E-1	1.228885E-1	1.377220E-1	1.389259E-1	1.453245E-1	1.284653E-1	1.641484E-1	1.430562E-1	1.217551E-1	1.238482E-1	1.329126E-1	1.240920E-1	1.391972E-1	1.284426E-1	1.224592E-1	1.342346E-1	1.447627E-1	1.470568E-1	1.102622E-1	1.515010E-1	1.423238E-1	1.389478E-1	1.262040E-1	1.186637E-1	1.438801E-1	1.261096E-1	1.265433E-1	1.451337E-1	1.299050E-1	1.554558E-1	1.256884E-1	1.163069E-1	1.373696E-1	1.433445E-1	1.367374E-1	1.181363E-1	1.435387E-1	1.325930E-1	1.321468E-1	1.269425E-1	1.145707E-1	1.309905E-1	1.332591E-1	1.408169E-1	1.323579E-1	1.358688E-1	1.494160E-1	1.404396E-1	1.259714E-1	1.263087E-1	1.326572E-1	1.171089E-1	1.197961E-1	1.473736E-1	1.408582E-1	1.409379E-1	1.209349E-1	1.328818E-1	1.393104E-1	1.304670E-1	1.173493E-1	1.625388E-1	1.271371E-1	1.315683E-1	1.642821E-1
5.343600E+2	1.858872E-1	2.096504E-1	2.189033E-1	2.115536E-1	2.034966E-1	1.998427E-1	1.925266E-1	2.344837E-1	2.093377E-1	2.092823E-1	1.987901E-1	2.097380E-1	2.038916E-1	2.276762E-1	2.165052E-1	2.071986E-1	2.197199E-1	2.007528E-1	2.110767E-1	2.032698E-1	2.269747E-1	2.219957E-1	2.209915E-1	1.982754E-1	2.143782E-1	2.196433E-1	2.349601E-1	2.081316E-1	2.259890E-1	2.035338E-1	2.114785E-1	2.087557E-1	2.169396E-1	2.057559E-1	2.094727E-1	2.484442E-1	2.188221E-1	2.357665E-1	2.262000E-1	2.025182E-1	2.163955E-1	2.341827E-1	1.828139E-1	2.189643E-1	2.074220E-1	2.132318E-1	2.172432E-1	2.235309E-1	2.211503E-1	2.069980E-1	2.198344E-1	2.043437E-1	2.164055E-1	2.114807E-1	2.282789E-1	2.019447E-1	2.476341E-1	2.379144E-1	2.249963E-1	2.236353E-1	2.340737E-1	2.115623E-1	1.885600E-1	2.051286E-1	2.113195E-1	2.447162E-1	2.180860E-1	2.074025E-1	2.217939E-1	2.244163E-1	2.256461E-1	2.031218E-1	2.118573E-1	2.283216E-1	1.931201E-1	2.064086E-1	1.938682E-1	2.148303E-1	2.261191E-1	2.154857E-1	2.226079E-1	2.257782E-1	2.050466E-1	2.015881E-1	2.145302E-1	2.059271E-1	2.246941E-1	2.184566E-1	2.062017E-1	2.107182E-1	2.278339E-1	2.154756E-1	2.093280E-1	2.442146E-1	1.831957E-1	2.175149E-1	2.363763E-1	2.335810E-1	1.991535E-1	2.295230E-1	2.191559E-1	2.195192E-1	2.377053E-1	2.071954E-1	2.090360E-1	2.304438E-1	2.014768E-1	2.191865E-1	2.133037E-1	2.186077E-1	2.320685E-1	2.280600E-1	2.503606E-1	2.397750E-1	2.308753E-1	2.091337E-1	2.088450E-1	2.336512E-1	2.198535E-1	1.935400E-1	2.146182E-1	2.282984E-1	2.238496E-1	2.059651E-1	1.997727E-1	2.151022E-1	2.298657E-1	2.073559E-1	2.163990E-1	2.335506E-1	2.249690E-1	2.360143E-1	2.049843E-1	2.337956E-1	2.351759E-1	2.101367E-1	2.147187E-1	2.023916E-1	2.252243E-1	2.307517E-1	1.907518E-1	2.271262E-1	2.127741E-1	2.102782E-1	2.160086E-1	2.483009E-1	2.221506E-1	2.004382E-1	2.037440E-1	2.350860E-1	2.269079E-1	2.185964E-1	2.103567E-1	2.309719E-1	2.198961E-1	2.148086E-1	2.187780E-1	2.450487E-1	2.093301E-1	2.155780E-1	2.128208E-1	2.313927E-1	1.949223E-1	2.123884E-1	2.170640E-1	2.648869E-1
5.345110E+2	3.635361E-1	4.071116E-1	3.741393E-1	3.546091E-1	3.817752E-1	3.639122E-1	3.705203E-1	3.919600E-1	3.905180E-1	3.905225E-1	3.565782E-1	3.985119E-1	3.917321E-1	3.590893E-1	3.854566E-1	3.592781E-1	3.812573E-1	3.968730E-1	3.570444E-1	3.766511E-1	3.491554E-1	3.717485E-1	3.499864E-1	4.372400E-1	3.592517E-1	3.946089E-1	3.798009E-1	3.957777E-1	3.956251E-1	3.730943E-1	3.552356E-1	3.652537E-1	3.824110E-1	4.052912E-1	3.950007E-1	3.503533E-1	3.576762E-1	3.896766E-1	3.748031E-1	3.669222E-1	3.914575E-1	3.708936E-1	3.660408E-1	3.844965E-1	3.795022E-1	3.589844E-1	4.014757E-1	3.761190E-1	4.011902E-1	3.821573E-1	3.844980E-1	3.640112E-1	3.419834E-1	3.836579E-1	3.810825E-1	3.894662E-1	3.740149E-1	3.789418E-1	3.636153E-1	3.702665E-1	3.974002E-1	4.050496E-1	3.751907E-1	3.812993E-1	3.648026E-1	4.172293E-1	3.943395E-1	3.834521E-1	4.057225E-1	3.973859E-1	3.666929E-1	3.586358E-1	4.131256E-1	4.261048E-1	3.768652E-1	3.595100E-1	3.795217E-1	3.990662E-1	3.488248E-1	3.811226E-1	3.797662E-1	3.758745E-1	3.831561E-1	3.727370E-1	3.756190E-1	3.972458E-1	3.776867E-1	3.839066E-1	3.733642E-1	3.794548E-1	3.565413E-1	3.959716E-1	3.577785E-1	3.807116E-1	3.606584E-1	3.945239E-1	3.822179E-1	4.153862E-1	3.689622E-1	3.905904E-1	3.970259E-1	4.025844E-1	3.598854E-1	3.752029E-1	3.724283E-1	3.699007E-1	3.516288E-1	4.028151E-1	3.893659E-1	4.052247E-1	3.781747E-1	3.847634E-1	3.657637E-1	3.621149E-1	3.832248E-1	3.851852E-1	3.741387E-1	4.080332E-1	3.517811E-1	3.929470E-1	3.767830E-1	3.735433E-1	3.739227E-1	3.595460E-1	3.882529E-1	4.086912E-1	3.557496E-1	3.955958E-1	3.860882E-1	3.927948E-1	4.072864E-1	3.871067E-1	3.939265E-1	4.178560E-1	3.795907E-1	3.970474E-1	3.711270E-1	3.965474E-1	3.821908E-1	3.829216E-1	3.910602E-1	3.729491E-1	3.720563E-1	3.665764E-1	3.930889E-1	3.849691E-1	3.854027E-1	4.013345E-1	3.560511E-1	3.921561E-1	3.766626E-1	3.755782E-1	3.727470E-1	3.845461E-1	3.987617E-1	4.013798E-1	3.520010E-1	4.069186E-1	3.662834E-1	3.741332E-1	3.916089E-1	3.742723E-1	3.926267E-1	4.277488E-1	3.769451E-1	3.546149E-1
5.346620E+2	6.388497E-1	6.424908E-1	6.198799E-1	6.300300E-1	6.246123E-1	6.158262E-1	6.499525E-1	6.007820E-1	6.124309E-1	6.143873E-1	6.360471E-1	6.325250E-1	6.283697E-1	6.104116E-1	6.471441E-1	6.089270E-1	6.390195E-1	6.059883E-1	6.090388E-1	6.035250E-1	6.244295E-1	6.508185E-1	6.056972E-1	6.392141E-1	6.188356E-1	6.586794E-1	5.961028E-1	6.389988E-1	6.450291E-1	6.383693E-1	6.308386E-1	6.015691E-1	6.153039E-1	6.033577E-1	6.100330E-1	6.080832E-1	6.254040E-1	6.482863E-1	6.336863E-1	6.536206E-1	6.045308E-1	6.267813E-1	6.294411E-1	6.399803E-1	6.466620E-1	6.287488E-1	6.244056E-1	6.224070E-1	6.572676E-1	6.145170E-1	6.205338E-1	6.671032E-1	6.151118E-1	6.197161E-1	6.126344E-1	5.888639E-1	6.182293E-1	6.439937E-1	6.275356E-1	6.447080E-1	6.126912E-1	6.185870E-1	6.269591E-1	6.540073E-1	6.718995E-1	6.312861E-1	6.652498E-1	6.151159E-1	6.218269E-1	6.009608E-1	6.422931E-1	6.086125E-1	6.354072E-1	6.380829E-1	5.929649E-1	5.910507E-1	6.186365E-1	6.404244E-1	6.302089E-1	6.252337E-1	6.209333E-1	6.592882E-1	5.733642E-1	6.114863E-1	5.791940E-1	6.078611E-1	6.409940E-1	6.436788E-1	6.213619E-1	6.514927E-1	6.224305E-1	6.438483E-1	6.423621E-1	6.151374E-1	6.263527E-1	6.164639E-1	6.557383E-1	6.719927E-1	6.267500E-1	6.475357E-1	6.519627E-1	6.265100E-1	6.407208E-1	6.340405E-1	6.034512E-1	5.988990E-1	6.577604E-1	6.441273E-1	6.509774E-1	6.231041E-1	6.358246E-1	6.176174E-1	6.237774E-1	6.472652E-1	6.019851E-1	6.166218E-1	6.050570E-1	6.208763E-1	5.998577E-1	6.450752E-1	6.093163E-1	6.582837E-1	6.447947E-1	6.080366E-1	6.445131E-1	6.342026E-1	6.189152E-1	6.373120E-1	6.167749E-1	6.465339E-1	6.211065E-1	6.301596E-1	6.559439E-1	6.638436E-1	6.149940E-1	6.770402E-1	6.191543E-1	6.641665E-1	6.286764E-1	6.170483E-1	6.304050E-1	6.314770E-1	6.390219E-1	6.255283E-1	6.103731E-1	6.287773E-1	6.184611E-1	6.046950E-1	5.996489E-1	6.399579E-1	6.826564E-1	6.006742E-1	6.435851E-1	6.722440E-1	6.047014E-1	6.502541E-1	5.898709E-1	6.567123E-1	6.535910E-1	6.362143E-1	6.321250E-1	6.597643E-1	6.489266E-1	5.976507E-1	6.810332E-1	6.750626E-1
5.348070E+2	9.592541E-1	9.505644E-1	9.440117E-1	9.900059E-1	9.588375E-1	9.780686E-1	9.676660E-1	1.014433E+0	9.396245E-1	9.735291E-1	9.560403E-1	1.003643E+0	9.758588E-1	1.004436E+0	9.715010E-1	9.960078E-1	9.716551E-1	9.904882E-1	1.022216E+0	9.597303E-1	9.854059E-1	9.681918E-1	8.936005E-1	1.057231E+0	9.404254E-1	9.989527E-1	1.002411E+0	9.739299E-1	9.704275E-1	9.790587E-1	9.827686E-1	9.874621E-1	9.544262E-1	1.002822E+0	9.721313E-1	1.014459E+0	9.756045E-1	9.871494E-1	9.456194E-1	9.750299E-1	9.566345E-1	9.555554E-1	9.332047E-1	9.612879E-1	9.596303E-1	9.355582E-1	9.668435E-1	9.529896E-1	1.009885E+0	1.009123E+0	9.495932E-1	9.604600E-1	9.487866E-1	1.024193E+0	9.628502E-1	9.618004E-1	9.382447E-1	9.757542E-1	9.894760E-1	9.868607E-1	9.772308E-1	9.805882E-1	9.752452E-1	9.808332E-1	1.023463E+0	9.725020E-1	9.868786E-1	9.689778E-1	9.838383E-1	9.884532E-1	9.985873E-1	1.003917E+0	9.462355E-1	9.513617E-1	9.578656E-1	9.325310E-1	9.472979E-1	9.782303E-1	9.506073E-1	9.729500E-1	1.005842E+0	9.753137E-1	9.339200E-1	8.923865E-1	9.894466E-1	9.456466E-1	9.964293E-1	9.784547E-1	8.921964E-1	9.629261E-1	9.720138E-1	9.616887E-1	9.809639E-1	9.457275E-1	9.466910E-1	9.946807E-1	9.494924E-1	9.867717E-1	9.712511E-1	9.546055E-1	1.015230E+0	9.401066E-1	9.585736E-1	1.004913E+0	9.698217E-1	9.588706E-1	9.433479E-1	9.706314E-1	9.413766E-1	9.944914E-1	9.645311E-1	9.751674E-1	9.206220E-1	9.726686E-1	9.451580E-1	9.829012E-1	9.431827E-1	9.564000E-1	9.768291E-1	9.970981E-1	9.320496E-1	1.021869E+0	9.221000E-1	9.125488E-1	9.784089E-1	9.292002E-1	9.416290E-1	9.762820E-1	9.651941E-1	9.791947E-1	9.764964E-1	9.550128E-1	9.727034E-1	1.036457E+0	1.001059E+0	9.709795E-1	1.001507E+0	9.971678E-1	9.965175E-1	9.712041E-1	9.483378E-1	9.523180E-1	9.888309E-1	1.001792E+0	9.781822E-1	1.020742E+0	9.348468E-1	9.673848E-1	9.740307E-1	9.790359E-1	9.768392E-1	9.680129E-1	9.801422E-1	1.011250E+0	9.516094E-1	9.838405E-1	9.894013E-1	9.723370E-1	9.413158E-1	9.985372E-1	9.753567E-1	9.930033E-1	9.782444E-1	9.251447E-1	9.998332E-1	9.900126E-1
5.349580E+2	1.459999E+0	1.427377E+0	1.390462E+0	1.381079E+0	1.340328E+0	1.359600E+0	1.397757E+0	1.422217E+0	1.394151E+0	1.368091E+0	1.414127E+0	1.440374E+0	1.423976E+0	1.421107E+0	1.447335E+0	1.383176E+0	1.395237E+0	1.400316E+0	1.413425E+0	1.456634E+0	1.395822E+0	1.472674E+0	1.371057E+0	1.478077E+0	1.389647E+0	1.408561E+0	1.472752E+0	1.415490E+0	1.370154E+0	1.393690E+0	1.397137E+0	1.406914E+0	1.364390E+0	1.474540E+0	1.381290E+0	1.360798E+0	1.387636E+0	1.443866E+0	1.399537E+0	1.422321E+0	1.430934E+0	1.375207E+0	1.451676E+0	1.409677E+0	1.371817E+0	1.479993E+0	1.381350E+0	1.387594E+0	1.409539E+0	1.407590E+0	1.389576E+0	1.363691E+0	1.415378E+0	1.430761E+0	1.403419E+0	1.404446E+0	1.380183E+0	1.444597E+0	1.407173E+0	1.399049E+0	1.406583E+0	1.379822E+0	1.372844E+0	1.363164E+0	1.408640E+0	1.434889E+0	1.434470E+0	1.352429E+0	1.378223E+0	1.408282E+0	1.404465E+0	1.358935E+0	1.443147E+0	1.441384E+0	1.400492E+0	1.376079E+0	1.365499E+0	1.388219E+0	1.412275E+0	1.427040E+0	1.421644E+0	1.484451E+0	1.342134E+0	1.450972E+0	1.364377E+0	1.389957E+0	1.441266E+0	1.403458E+0	1.370188E+0	1.396799E+0	1.395369E+0	1.414616E+0	1.389526E+0	1.415331E+0	1.419251E+0	1.324525E+0	1.464066E+0	1.388410E+0	1.419602E+0	1.325779E+0	1.366411E+0	1.368375E+0	1.388774E+0	1.433145E+0	1.383212E+0	1.407923E+0	1.366942E+0	1.323962E+0	1.403407E+0	1.432160E+0	1.391723E+0	1.357944E+0	1.372054E+0	1.391855E+0	1.378174E+0	1.340825E+0	1.463312E+0	1.473230E+0	1.380111E+0	1.345191E+0	1.470241E+0	1.355703E+0	1.384530E+0	1.370590E+0	1.389900E+0	1.397804E+0	1.347562E+0	1.390946E+0	1.371831E+0	1.419786E+0	1.396147E+0	1.421842E+0	1.388360E+0	1.442985E+0	1.394644E+0	1.411439E+0	1.331284E+0	1.393698E+0	1.375958E+0	1.421970E+0	1.358404E+0	1.407475E+0	1.305004E+0	1.388130E+0	1.344436E+0	1.404084E+0	1.331298E+0	1.370482E+0	1.369533E+0	1.370586E+0	1.350267E+0	1.392912E+0	1.389816E+0	1.374353E+0	1.345242E+0	1.401693E+0	1.359635E+0	1.386811E+0	1.349684E+0	1.427423E+0	1.396309E+0	1.440486E+0	1.341904E+0	1.334100E+0	1.378537E+0	1.358890E+0
5.351090E+2	1.821837E+0	1.780289E+0	1.766159E+0	1.773456E+0	1.748891E+0	1.780234E+0	1.844228E+0	1.815094E+0	1.803371E+0	1.811645E+0	1.816447E+0	1.777038E+0	1.759838E+0	1.790970E+0	1.818020E+0	1.820655E+0	1.791925E+0	1.843471E+0	1.797466E+0	1.773458E+0	1.740652E+0	1.822511E+0	1.769002E+0	1.838393E+0	1.742977E+0	1.815724E+0	1.793019E+0	1.804208E+0	1.804076E+0	1.788660E+0	1.826437E+0	1.786614E+0	1.784186E+0	1.814489E+0	1.851450E+0	1.756617E+0	1.763636E+0	1.841504E+0	1.831105E+0	1.867544E+0	1.773477E+0	1.738562E+0	1.784510E+0	1.754840E+0	1.752866E+0	1.771002E+0	1.791924E+0	1.766571E+0	1.890525E+0	1.830505E+0	1.803143E+0	1.810723E+0	1.711672E+0	1.797511E+0	1.707983E+0	1.753473E+0	1.790686E+0	1.859251E+0	1.788255E+0	1.827036E+0	1.788152E+0	1.746912E+0	1.751923E+0	1.809356E+0	1.715427E+0	1.784687E+0	1.845709E+0	1.789705E+0	1.702609E+0	1.818829E+0	1.764386E+0	1.804102E+0	1.775955E+0	1.717931E+0	1.807425E+0	1.735905E+0	1.746879E+0	1.846829E+0	1.743307E+0	1.767740E+0	1.716136E+0	1.769605E+0	1.753341E+0	1.719871E+0	1.751000E+0	1.756654E+0	1.763245E+0	1.742437E+0	1.772614E+0	1.788375E+0	1.716690E+0	1.707955E+0	1.781770E+0	1.836547E+0	1.721364E+0	1.779625E+0	1.739352E+0	1.787806E+0	1.759031E+0	1.771541E+0	1.746016E+0	1.734188E+0	1.719753E+0	1.833711E+0	1.782251E+0	1.736460E+0	1.743436E+0	1.785184E+0	1.786994E+0	1.841559E+0	1.778625E+0	1.753581E+0	1.796842E+0	1.768243E+0	1.716142E+0	1.829713E+0	1.765856E+0	1.797837E+0	1.758267E+0	1.774042E+0	1.762129E+0	1.830951E+0	1.770207E+0	1.767740E+0	1.778267E+0	1.746742E+0	1.745739E+0	1.682151E+0	1.741148E+0	1.813778E+0	1.747150E+0	1.722959E+0	1.744102E+0	1.810962E+0	1.792234E+0	1.799487E+0	1.720490E+0	1.768026E+0	1.727659E+0	1.733114E+0	1.757321E+0	1.726991E+0	1.732307E+0	1.788987E+0	1.708570E+0	1.779774E+0	1.711143E+0	1.756350E+0	1.692161E+0	1.751833E+0	1.685936E+0	1.772906E+0	1.778858E+0	1.845532E+0	1.756801E+0	1.739231E+0	1.768723E+0	1.738281E+0	1.651296E+0	1.732244E+0	1.691638E+0	1.767607E+0	1.809255E+0	1.663742E+0	1.781751E+0	1.784170E+0
5.352500E+2	2.054483E+0	2.012907E+0	1.918324E+0	1.929354E+0	1.955935E+0	2.015919E+0	2.145836E+0	2.003089E+0	1.942733E+0	1.954863E+0	2.036733E+0	2.066592E+0	2.018345E+0	1.959889E+0	2.041835E+0	2.002094E+0	2.054765E+0	2.004475E+0	2.005157E+0	2.002725E+0	1.986524E+0	1.982984E+0	2.031156E+0	2.065349E+0	1.974105E+0	2.043175E+0	2.028731E+0	2.110790E+0	2.065950E+0	2.054049E+0	2.037573E+0	1.994741E+0	1.971472E+0	2.071590E+0	2.028473E+0	1.993954E+0	2.023670E+0	1.997595E+0	1.961953E+0	2.036544E+0	1.983091E+0	2.028190E+0	1.993862E+0	2.044846E+0	1.953975E+0	2.018650E+0	1.999015E+0	1.960528E+0	2.094812E+0	2.047064E+0	2.025507E+0	2.096819E+0	1.947549E+0	1.962399E+0	2.019581E+0	1.946584E+0	2.045799E+0	2.008565E+0	1.937833E+0	2.009054E+0	1.981434E+0	2.026109E+0	1.970036E+0	1.972993E+0	1.953864E+0	1.976023E+0	2.100206E+0	1.940433E+0	2.004483E+0	2.044949E+0	1.981535E+0	1.964183E+0	2.007339E+0	1.987808E+0	1.983919E+0	1.965775E+0	1.999202E+0	2.048380E+0	1.992651E+0	1.988697E+0	2.000176E+0	2.023366E+0	1.916118E+0	1.971557E+0	1.939212E+0	1.988962E+0	1.963554E+0	1.984528E+0	1.977762E+0	2.029994E+0	2.034541E+0	2.023729E+0	2.004447E+0	1.999581E+0	1.924275E+0	1.894862E+0	1.997529E+0	2.016053E+0	1.930182E+0	1.990477E+0	1.960207E+0	2.015730E+0	2.001601E+0	2.033771E+0	2.039901E+0	1.936539E+0	1.930965E+0	1.973265E+0	2.016195E+0	1.993995E+0	1.989937E+0	1.977749E+0	1.961549E+0	1.995410E+0	1.932578E+0	1.960440E+0	1.897046E+0	2.023989E+0	1.921709E+0	1.875038E+0	1.945034E+0	1.995148E+0	1.918936E+0	1.978755E+0	2.003674E+0	1.911368E+0	1.972481E+0	1.943912E+0	1.889682E+0	1.971824E+0	1.968823E+0	1.899314E+0	1.972589E+0	1.965563E+0	1.991568E+0	1.966453E+0	1.918044E+0	1.957100E+0	1.883820E+0	1.932261E+0	1.919648E+0	2.016213E+0	1.936771E+0	1.911757E+0	1.925616E+0	1.964888E+0	1.892692E+0	1.918171E+0	1.912546E+0	1.973977E+0	1.894826E+0	1.913267E+0	1.974752E+0	1.959798E+0	1.946190E+0	1.977249E+0	1.945365E+0	1.950236E+0	1.972981E+0	1.938358E+0	1.946082E+0	1.955917E+0	1.908425E+0	1.886982E+0	1.969405E+0	1.939521E+0
5.354110E+2	2.049857E+0	2.075857E+0	2.026062E+0	2.008452E+0	1.967904E+0	2.053124E+0	2.104810E+0	2.093716E+0	1.980729E+0	2.017429E+0	2.124632E+0	2.151923E+0	2.066721E+0	2.002324E+0	2.093941E+0	2.011881E+0	2.070358E+0	2.026960E+0	2.075765E+0	2.028483E+0	2.096687E+0	2.033336E+0	2.132555E+0	2.047950E+0	1.992190E+0	2.099096E+0	2.160306E+0	2.086764E+0	2.098529E+0	2.034649E+0	2.020843E+0	2.035721E+0	2.046145E+0	2.056172E+0	1.996146E+0	2.034150E+0	2.033112E+0	1.959837E+0	2.011863E+0	2.060452E+0	2.035052E+0	2.018319E+0	2.058724E+0	2.092318E+0	1.979389E+0	2.130640E+0	2.081274E+0	2.049885E+0	2.126117E+0	2.026984E+0	1.992712E+0	2.097051E+0	1.979389E+0	2.056403E+0	2.017864E+0	2.113167E+0	2.054046E+0	2.042341E+0	2.018103E+0	2.003563E+0	2.080002E+0	2.034905E+0	1.973620E+0	2.020579E+0	2.082710E+0	2.037903E+0	2.117080E+0	2.051136E+0	2.038805E+0	2.040551E+0	2.003049E+0	1.997923E+0	2.104927E+0	2.071105E+0	2.035435E+0	1.959963E+0	2.046606E+0	2.096320E+0	2.030954E+0	2.065406E+0	2.070625E+0	2.082790E+0	2.010923E+0	1.989516E+0	1.995155E+0	1.987645E+0	2.123701E+0	2.050839E+0	1.949835E+0	2.036575E+0	2.052940E+0	2.000731E+0	1.993470E+0	2.033517E+0	1.987547E+0	1.939204E+0	2.028009E+0	2.051030E+0	1.990385E+0	2.041707E+0	2.060059E+0	2.045205E+0	2.000665E+0	2.061883E+0	2.003008E+0	2.028627E+0	2.021798E+0	1.990674E+0	2.082661E+0	2.020880E+0	2.019362E+0	1.965947E+0	1.983664E+0	2.001851E+0	1.902674E+0	2.031393E+0	1.990742E+0	2.080482E+0	1.981004E+0	2.041035E+0	1.967267E+0	2.024169E+0	1.982181E+0	1.990297E+0	2.006272E+0	2.087891E+0	2.002102E+0	2.038806E+0	2.007682E+0	2.004520E+0	1.932664E+0	2.007882E+0	1.924730E+0	2.067962E+0	1.981579E+0	2.003767E+0	2.002294E+0	2.013240E+0	1.940287E+0	1.916658E+0	1.985176E+0	1.928420E+0	1.940822E+0	2.021598E+0	1.936491E+0	2.006656E+0	1.910554E+0	1.910197E+0	2.008132E+0	2.073719E+0	1.987539E+0	1.951777E+0	2.026996E+0	2.027000E+0	1.874591E+0	2.050804E+0	1.942712E+0	1.990860E+0	1.886316E+0	1.969800E+0	1.966092E+0	2.041957E+0	1.928400E+0	1.942422E+0	1.987516E+0	2.048370E+0
5.355630E+2	1.959766E+0	1.969411E+0	1.923722E+0	1.837696E+0	1.869006E+0	1.893429E+0	1.954185E+0	1.906603E+0	1.911201E+0	1.978166E+0	1.893557E+0	1.923579E+0	1.927642E+0	1.887710E+0	1.884506E+0	1.905972E+0	1.935462E+0	1.935226E+0	1.982979E+0	1.862482E+0	1.913687E+0	1.885509E+0	1.918579E+0	2.005862E+0	1.875683E+0	1.913521E+0	1.993391E+0	1.918948E+0	1.990314E+0	1.920381E+0	1.917409E+0	1.941367E+0	1.892662E+0	1.901222E+0	1.895405E+0	1.858655E+0	1.884237E+0	1.858326E+0	1.919699E+0	1.938515E+0	1.870399E+0	1.871075E+0	1.874376E+0	1.923922E+0	1.918969E+0	1.896217E+0	1.909584E+0	1.902464E+0	1.896581E+0	1.898714E+0	1.966104E+0	1.945110E+0	1.884263E+0	1.889704E+0	1.883857E+0	1.932057E+0	1.888997E+0	1.901355E+0	1.934560E+0	1.940843E+0	1.860112E+0	1.893088E+0	1.826669E+0	1.862980E+0	1.899498E+0	1.819576E+0	1.983082E+0	1.843637E+0	1.856168E+0	1.887495E+0	1.949497E+0	1.840309E+0	1.853275E+0	1.931288E+0	1.877432E+0	1.861648E+0	1.913710E+0	1.871810E+0	1.853707E+0	1.845370E+0	1.936154E+0	1.898354E+0	1.834344E+0	1.849241E+0	1.843653E+0	1.872444E+0	1.851928E+0	1.892820E+0	1.868697E+0	1.944153E+0	1.904459E+0	1.833637E+0	1.908416E+0	1.883864E+0	1.821238E+0	1.910407E+0	1.861016E+0	1.868513E+0	1.862797E+0	1.877746E+0	1.871922E+0	1.881386E+0	1.858440E+0	1.917486E+0	1.899421E+0	1.932051E+0	1.811797E+0	1.859241E+0	1.884469E+0	1.919311E+0	1.863701E+0	1.875099E+0	1.814176E+0	1.920707E+0	1.872198E+0	1.951344E+0	1.869396E+0	1.883465E+0	1.897607E+0	1.868513E+0	1.913265E+0	1.914978E+0	1.878012E+0	1.853013E+0	1.860893E+0	1.890743E+0	1.803193E+0	1.763310E+0	1.858534E+0	1.968390E+0	1.834033E+0	1.872855E+0	1.843718E+0	1.890004E+0	1.866222E+0	1.867188E+0	1.860458E+0	1.935765E+0	1.816426E+0	1.854315E+0	1.858833E+0	1.907452E+0	1.810774E+0	1.896322E+0	1.843469E+0	1.902469E+0	1.777099E+0	1.807993E+0	1.798574E+0	1.927032E+0	1.798464E+0	1.857158E+0	1.902665E+0	1.841064E+0	1.842760E+0	1.855736E+0	1.832909E+0	1.873422E+0	1.852511E+0	1.845568E+0	1.843624E+0	1.808530E+0	1.814759E+0	1.875340E+0	1.940600E+0	2.008586E+0
5.357040E+2	1.718298E+0	1.737633E+0	1.735887E+0	1.706709E+0	1.650147E+0	1.690243E+0	1.734217E+0	1.722580E+0	1.708869E+0	1.750689E+0	1.675032E+0	1.766263E+0	1.659199E+0	1.642796E+0	1.729127E+0	1.678537E+0	1.651772E+0	1.713496E+0	1.715674E+0	1.640996E+0	1.703427E+0	1.715739E+0	1.736749E+0	1.783803E+0	1.653340E+0	1.735968E+0	1.720254E+0	1.786825E+0	1.680542E+0	1.749680E+0	1.739831E+0	1.796133E+0	1.710009E+0	1.727130E+0	1.695838E+0	1.701796E+0	1.660090E+0	1.688789E+0	1.762447E+0	1.783136E+0	1.668676E+0	1.646160E+0	1.755589E+0	1.653788E+0	1.643298E+0	1.709860E+0	1.656493E+0	1.705481E+0	1.778771E+0	1.661744E+0	1.668680E+0	1.742224E+0	1.702231E+0	1.639221E+0	1.632354E+0	1.742233E+0	1.700747E+0	1.735641E+0	1.705282E+0	1.696251E+0	1.709004E+0	1.680138E+0	1.624615E+0	1.647196E+0	1.635271E+0	1.741941E+0	1.737365E+0	1.657439E+0	1.660426E+0	1.761903E+0	1.715002E+0	1.691727E+0	1.724033E+0	1.720620E+0	1.674271E+0	1.698782E+0	1.682528E+0	1.685686E+0	1.664430E+0	1.696736E+0	1.698122E+0	1.701906E+0	1.656218E+0	1.699088E+0	1.649007E+0	1.648679E+0	1.716380E+0	1.733106E+0	1.634101E+0	1.659106E+0	1.669508E+0	1.649199E+0	1.684292E+0	1.654781E+0	1.656706E+0	1.697122E+0	1.680755E+0	1.668866E+0	1.707724E+0	1.675595E+0	1.731606E+0	1.682111E+0	1.682296E+0	1.768211E+0	1.699557E+0	1.644475E+0	1.628218E+0	1.658968E+0	1.647542E+0	1.680220E+0	1.671845E+0	1.692346E+0	1.681070E+0	1.648972E+0	1.677437E+0	1.692289E+0	1.646039E+0	1.670537E+0	1.686298E+0	1.658023E+0	1.675750E+0	1.711783E+0	1.680008E+0	1.674466E+0	1.706121E+0	1.657857E+0	1.641521E+0	1.667714E+0	1.709262E+0	1.769573E+0	1.694635E+0	1.653208E+0	1.639589E+0	1.753648E+0	1.711637E+0	1.662182E+0	1.624740E+0	1.724893E+0	1.695985E+0	1.644242E+0	1.728498E+0	1.719518E+0	1.655026E+0	1.670249E+0	1.666580E+0	1.747684E+0	1.607804E+0	1.693137E+0	1.636229E+0	1.727945E+0	1.645649E+0	1.574441E+0	1.740520E+0	1.670957E+0	1.697488E+0	1.687493E+0	1.649953E+0	1.622397E+0	1.613914E+0	1.654054E+0	1.713544E+0	1.637741E+0	1.678259E+0	1.601793E+0	1.632653E+0	1.622339E+0
5.358600E+2	1.494805E+0	1.494455E+0	1.400305E+0	1.474626E+0	1.455022E+0	1.450339E+0	1.455115E+0	1.489690E+0	1.497236E+0	1.517887E+0	1.443970E+0	1.535372E+0	1.505648E+0	1.454862E+0	1.506350E+0	1.526995E+0	1.503001E+0	1.454497E+0	1.452918E+0	1.465897E+0	1.443277E+0	1.451263E+0	1.505726E+0	1.524677E+0	1.435635E+0	1.442508E+0	1.489761E+0	1.550386E+0	1.449001E+0	1.505296E+0	1.457942E+0	1.476326E+0	1.481027E+0	1.490237E+0	1.450003E+0	1.463400E+0	1.500867E+0	1.405309E+0	1.493037E+0	1.473660E+0	1.487343E+0	1.481914E+0	1.492697E+0	1.489158E+0	1.429042E+0	1.487207E+0	1.447800E+0	1.439524E+0	1.476249E+0	1.486598E+0	1.485164E+0	1.442677E+0	1.471063E+0	1.403603E+0	1.480733E+0	1.503594E+0	1.522928E+0	1.461800E+0	1.455715E+0	1.435099E+0	1.488395E+0	1.462493E+0	1.443782E+0	1.456639E+0	1.507213E+0	1.512703E+0	1.584813E+0	1.479535E+0	1.476659E+0	1.443777E+0	1.504864E+0	1.458787E+0	1.456504E+0	1.479550E+0	1.471830E+0	1.456793E+0	1.508566E+0	1.490156E+0	1.442247E+0	1.411975E+0	1.470547E+0	1.454668E+0	1.450740E+0	1.520971E+0	1.467811E+0	1.420077E+0	1.438686E+0	1.445567E+0	1.453568E+0	1.478408E+0	1.456991E+0	1.477443E+0	1.442275E+0	1.486656E+0	1.432295E+0	1.428237E+0	1.447306E+0	1.447803E+0	1.421144E+0	1.413758E+0	1.523089E+0	1.449547E+0	1.533389E+0	1.425605E+0	1.445341E+0	1.446466E+0	1.407647E+0	1.473188E+0	1.474489E+0	1.490134E+0	1.465296E+0	1.423430E+0	1.422949E+0	1.457279E+0	1.474352E+0	1.462754E+0	1.427005E+0	1.462149E+0	1.477074E+0	1.470300E+0	1.471819E+0	1.481645E+0	1.448294E+0	1.425151E+0	1.456259E+0	1.448560E+0	1.490237E+0	1.441560E+0	1.442396E+0	1.469849E+0	1.452105E+0	1.450814E+0	1.449630E+0	1.488369E+0	1.498561E+0	1.457572E+0	1.466300E+0	1.521802E+0	1.466755E+0	1.426143E+0	1.443982E+0	1.422303E+0	1.405282E+0	1.463374E+0	1.484593E+0	1.465276E+0	1.467954E+0	1.436968E+0	1.467079E+0	1.513011E+0	1.441918E+0	1.450711E+0	1.478616E+0	1.447597E+0	1.402806E+0	1.457753E+0	1.428389E+0	1.432458E+0	1.428381E+0	1.420913E+0	1.426897E+0	1.451627E+0	1.459225E+0	1.396081E+0	1.444335E+0	1.405951E+0
5.360070E+2	1.242234E+0	1.231225E+0	1.180556E+0	1.250369E+0	1.193904E+0	1.318349E+0	1.297524E+0	1.244175E+0	1.216907E+0	1.270919E+0	1.202073E+0	1.269157E+0	1.255534E+0	1.259268E+0	1.273538E+0	1.271099E+0	1.222942E+0	1.231159E+0	1.280714E+0	1.237683E+0	1.226197E+0	1.192027E+0	1.323477E+0	1.284149E+0	1.193450E+0	1.302863E+0	1.248397E+0	1.275189E+0	1.235449E+0	1.260896E+0	1.254522E+0	1.235697E+0	1.268313E+0	1.252081E+0	1.216795E+0	1.254355E+0	1.229906E+0	1.262979E+0	1.248134E+0	1.257486E+0	1.197999E+0	1.260092E+0	1.280644E+0	1.253889E+0	1.209531E+0	1.278724E+0	1.262359E+0	1.183144E+0	1.244921E+0	1.247698E+0	1.229844E+0	1.206675E+0	1.209449E+0	1.237520E+0	1.269304E+0	1.262898E+0	1.194339E+0	1.288430E+0	1.231142E+0	1.296320E+0	1.229077E+0	1.216256E+0	1.211767E+0	1.172979E+0	1.221838E+0	1.314622E+0	1.316913E+0	1.234109E+0	1.243430E+0	1.279292E+0	1.252500E+0	1.281017E+0	1.276723E+0	1.282384E+0	1.317360E+0	1.222880E+0	1.247498E+0	1.308677E+0	1.163237E+0	1.214189E+0	1.314554E+0	1.247610E+0	1.231306E+0	1.235917E+0	1.229502E+0	1.188103E+0	1.263703E+0	1.239007E+0	1.242861E+0	1.269705E+0	1.305780E+0	1.221309E+0	1.276531E+0	1.278041E+0	1.224605E+0	1.185934E+0	1.237916E+0	1.261319E+0	1.168639E+0	1.225188E+0	1.291896E+0	1.188986E+0	1.200224E+0	1.285567E+0	1.236789E+0	1.212361E+0	1.320354E+0	1.260059E+0	1.267858E+0	1.227351E+0	1.205174E+0	1.265267E+0	1.306997E+0	1.269558E+0	1.185776E+0	1.241467E+0	1.294750E+0	1.249813E+0	1.214317E+0	1.207956E+0	1.275001E+0	1.214013E+0	1.231901E+0	1.209775E+0	1.266379E+0	1.211499E+0	1.243593E+0	1.200156E+0	1.194889E+0	1.267041E+0	1.255104E+0	1.207698E+0	1.251692E+0	1.250920E+0	1.311063E+0	1.226326E+0	1.185409E+0	1.267520E+0	1.227730E+0	1.205075E+0	1.221805E+0	1.259674E+0	1.239895E+0	1.299574E+0	1.257171E+0	1.170782E+0	1.255411E+0	1.225439E+0	1.256896E+0	1.254539E+0	1.269653E+0	1.199458E+0	1.259359E+0	1.191258E+0	1.187449E+0	1.271871E+0	1.270757E+0	1.231002E+0	1.260447E+0	1.249405E+0	1.292469E+0	1.242702E+0	1.231405E+0	1.246935E+0	1.226578E+0	1.260411E+0
5.362630E+2	9.591713E-1	9.667879E-1	8.795951E-1	8.912824E-1	9.378187E-1	9.571493E-1	9.171491E-1	9.501313E-1	9.159597E-1	9.596626E-1	8.820593E-1	9.392101E-1	9.431238E-1	9.594154E-1	9.765272E-1	9.060819E-1	9.934347E-1	9.506817E-1	9.049250E-1	9.406387E-1	9.230438E-1	8.967449E-1	9.550024E-1	9.627533E-1	9.211798E-1	8.980389E-1	9.327017E-1	9.088205E-1	9.054029E-1	9.470839E-1	9.627693E-1	9.255681E-1	9.190779E-1	9.618809E-1	9.198060E-1	9.066184E-1	9.258420E-1	9.289930E-1	9.079785E-1	9.401661E-1	9.520151E-1	8.970799E-1	9.330358E-1	9.406554E-1	8.995473E-1	9.494612E-1	9.477009E-1	9.166484E-1	9.736924E-1	9.019511E-1	9.405473E-1	9.648484E-1	9.134555E-1	9.571592E-1	9.428769E-1	9.379813E-1	9.254196E-1	9.302666E-1	9.392036E-1	9.658510E-1	9.377226E-1	9.687055E-1	9.045942E-1	9.226549E-1	8.989561E-1	9.084598E-1	9.641561E-1	9.258256E-1	9.221121E-1	9.305997E-1	9.458049E-1	9.568092E-1	9.500438E-1	9.529747E-1	8.625603E-1	9.656812E-1	8.980951E-1	9.635153E-1	9.302246E-1	8.945649E-1	9.740113E-1	9.647600E-1	9.174409E-1	9.009798E-1	9.179462E-1	9.244722E-1	9.435005E-1	9.982331E-1	9.726345E-1	9.497764E-1	9.360834E-1	9.559428E-1	9.264884E-1	9.127784E-1	9.015375E-1	9.402403E-1	9.308689E-1	8.877726E-1	9.292336E-1	9.180161E-1	9.018710E-1	9.327725E-1	9.722518E-1	9.533252E-1	1.001335E+0	9.059455E-1	9.136587E-1	9.271608E-1	1.031996E+0	9.278833E-1	9.575285E-1	9.581206E-1	9.615583E-1	9.429103E-1	9.175537E-1	9.942946E-1	9.412528E-1	9.222307E-1	9.197385E-1	9.775514E-1	9.397787E-1	9.136956E-1	9.691443E-1	9.418427E-1	9.660410E-1	9.515777E-1	9.101436E-1	9.269835E-1	9.509095E-1	9.768864E-1	9.222442E-1	9.636118E-1	9.372844E-1	9.761816E-1	9.561973E-1	9.129318E-1	9.685798E-1	9.231365E-1	9.022836E-1	9.138700E-1	9.207572E-1	9.106271E-1	9.418510E-1	9.601999E-1	9.321018E-1	9.664766E-1	9.244619E-1	8.986682E-1	9.550983E-1	9.156402E-1	9.133723E-1	9.512425E-1	9.287673E-1	9.234950E-1	9.888325E-1	9.918672E-1	9.573854E-1	9.649205E-1	9.549854E-1	9.566927E-1	9.247206E-1	9.284457E-1	9.183431E-1	9.154713E-1	9.623664E-1	9.571289E-1
5.365090E+2	7.430283E-1	7.720856E-1	6.935466E-1	6.724205E-1	6.661971E-1	6.739964E-1	6.641351E-1	7.002915E-1	6.811438E-1	7.404973E-1	7.337400E-1	7.541169E-1	6.840989E-1	6.946484E-1	7.125878E-1	6.777180E-1	7.085178E-1	7.136060E-1	7.191069E-1	7.251874E-1	6.777245E-1	6.886675E-1	7.175875E-1	7.424914E-1	7.090563E-1	7.407850E-1	7.279837E-1	7.472120E-1	7.151667E-1	7.024749E-1	7.295871E-1	7.021608E-1	6.910837E-1	7.192779E-1	7.207656E-1	6.776505E-1	7.646055E-1	7.299965E-1	7.385860E-1	7.133360E-1	7.145326E-1	7.098919E-1	7.090510E-1	7.093000E-1	7.110665E-1	7.315456E-1	7.059916E-1	6.989458E-1	7.411243E-1	6.772950E-1	7.315763E-1	7.192110E-1	7.121975E-1	6.618555E-1	7.466991E-1	6.766446E-1	7.638719E-1	6.890742E-1	7.292036E-1	6.859908E-1	7.470641E-1	7.292736E-1	6.915949E-1	7.201655E-1	6.853765E-1	7.013986E-1	7.535975E-1	7.238762E-1	6.983943E-1	7.312181E-1	7.429746E-1	6.929921E-1	7.471185E-1	7.498178E-1	7.167548E-1	6.881895E-1	7.067970E-1	7.516929E-1	7.255112E-1	7.234105E-1	7.494191E-1	7.007472E-1	7.121597E-1	7.332609E-1	7.278550E-1	7.108042E-1	7.142673E-1	7.344396E-1	7.243665E-1	7.438218E-1	7.276408E-1	7.484259E-1	7.430839E-1	7.063498E-1	7.010815E-1	7.306524E-1	7.441959E-1	7.092048E-1	6.819794E-1	7.430844E-1	7.001826E-1	7.187130E-1	7.348800E-1	7.057614E-1	7.375864E-1	6.804565E-1	7.566075E-1	7.237504E-1	7.208268E-1	7.118019E-1	7.222212E-1	7.171264E-1	7.099671E-1	7.541937E-1	7.087345E-1	7.322192E-1	7.374744E-1	7.448555E-1	7.239508E-1	7.115048E-1	7.555206E-1	7.375512E-1	7.274936E-1	7.207571E-1	6.698705E-1	7.341259E-1	6.905491E-1	7.048248E-1	6.984960E-1	6.958960E-1	6.708656E-1	6.939787E-1	7.203351E-1	7.657451E-1	7.502373E-1	7.400294E-1	6.903791E-1	6.977129E-1	6.986597E-1	7.858720E-1	7.229787E-1	7.182780E-1	6.861703E-1	7.329736E-1	7.293343E-1	7.605621E-1	7.200783E-1	7.279298E-1	7.184059E-1	7.535260E-1	7.495076E-1	7.660463E-1	7.438804E-1	7.262973E-1	7.387006E-1	7.942046E-1	7.713955E-1	7.349848E-1	7.242019E-1	7.361410E-1	7.474786E-1	7.437013E-1	7.418454E-1	7.131768E-1	7.135560E-1	7.238713E-1
5.367760E+2	5.742938E-1	5.953892E-1	5.869304E-1	5.939215E-1	5.501049E-1	5.960882E-1	6.172462E-1	5.775683E-1	5.688007E-1	6.100511E-1	5.867282E-1	5.811292E-1	5.743061E-1	5.802780E-1	5.777079E-1	6.079596E-1	5.539807E-1	5.495296E-1	5.892675E-1	5.918651E-1	5.726870E-1	5.598694E-1	6.081342E-1	5.964144E-1	5.755425E-1	5.963260E-1	6.185016E-1	5.813296E-1	6.092965E-1	5.633909E-1	6.201307E-1	5.742065E-1	5.619947E-1	6.459338E-1	5.870084E-1	5.747217E-1	5.361181E-1	6.033933E-1	5.646695E-1	5.869581E-1	5.730475E-1	5.811530E-1	6.109430E-1	5.744291E-1	5.779874E-1	6.377579E-1	6.091463E-1	5.656166E-1	5.951398E-1	5.732790E-1	5.758275E-1	6.378110E-1	5.712438E-1	5.858348E-1	6.149480E-1	5.903710E-1	5.694294E-1	5.647869E-1	5.832646E-1	6.265438E-1	6.060763E-1	5.810543E-1	5.767431E-1	5.828232E-1	5.867267E-1	5.779586E-1	6.146421E-1	5.670031E-1	5.493146E-1	5.848182E-1	6.290902E-1	5.773107E-1	5.928999E-1	5.929046E-1	5.763257E-1	5.909680E-1	5.775097E-1	6.056532E-1	5.553596E-1	5.695466E-1	5.695547E-1	6.242504E-1	5.831805E-1	5.856727E-1	5.599837E-1	5.714569E-1	5.992945E-1	5.958252E-1	5.963808E-1	5.685662E-1	6.066573E-1	5.702137E-1	6.110106E-1	5.791398E-1	6.097209E-1	5.539868E-1	5.809523E-1	5.669486E-1	5.840058E-1	5.601567E-1	5.983525E-1	6.030049E-1	6.112331E-1	5.726267E-1	5.996875E-1	5.780792E-1	5.948739E-1	5.472581E-1	6.325428E-1	5.951946E-1	6.524666E-1	6.014944E-1	6.227823E-1	6.170228E-1	5.891490E-1	5.787507E-1	5.866787E-1	5.634246E-1	5.936932E-1	5.928148E-1	5.873517E-1	5.964434E-1	5.819977E-1	6.413658E-1	5.974540E-1	6.062462E-1	5.859620E-1	5.612787E-1	5.736003E-1	5.802233E-1	6.182082E-1	5.440600E-1	5.973717E-1	5.862832E-1	6.276686E-1	5.967808E-1	5.912331E-1	6.156947E-1	5.957106E-1	6.034565E-1	6.038737E-1	6.112862E-1	5.885381E-1	5.830902E-1	5.951455E-1	5.707286E-1	6.073202E-1	5.889977E-1	5.878164E-1	5.989876E-1	5.770191E-1	5.696256E-1	6.427998E-1	5.876888E-1	5.777959E-1	5.986013E-1	5.811960E-1	5.925239E-1	5.856447E-1	5.627202E-1	6.341783E-1	6.202093E-1	5.769843E-1	5.235449E-1	5.850285E-1	6.058882E-1
5.370230E+2	4.927714E-1	5.454911E-1	5.109656E-1	5.156954E-1	5.295785E-1	5.065268E-1	5.339235E-1	5.188784E-1	4.988743E-1	5.156003E-1	5.425891E-1	5.029843E-1	5.314876E-1	5.171563E-1	5.401779E-1	5.169330E-1	5.014057E-1	4.904873E-1	4.959010E-1	5.260522E-1	5.118122E-1	5.249994E-1	5.078505E-1	5.336412E-1	4.848475E-1	5.293269E-1	5.272219E-1	5.157784E-1	5.306997E-1	5.303917E-1	5.079452E-1	5.101765E-1	4.807891E-1	5.232659E-1	4.667612E-1	5.348908E-1	5.166750E-1	4.853437E-1	5.287584E-1	5.140402E-1	5.202256E-1	5.368571E-1	4.913696E-1	5.085548E-1	5.535447E-1	5.477726E-1	5.220120E-1	5.108848E-1	5.281056E-1	5.312290E-1	5.473679E-1	5.118153E-1	4.872209E-1	5.235543E-1	5.170701E-1	5.499068E-1	4.819425E-1	5.228984E-1	5.296118E-1	5.253721E-1	5.165008E-1	5.410025E-1	5.004728E-1	5.032180E-1	5.441787E-1	5.244286E-1	5.438806E-1	5.032348E-1	5.043404E-1	5.341822E-1	5.360545E-1	5.105807E-1	5.370389E-1	5.112925E-1	5.520635E-1	5.031936E-1	5.221270E-1	5.461816E-1	5.340162E-1	5.293884E-1	5.256631E-1	5.342324E-1	5.007383E-1	5.420872E-1	5.124735E-1	5.248034E-1	5.497899E-1	5.371887E-1	5.160659E-1	5.125448E-1	5.257533E-1	5.345274E-1	5.178507E-1	5.466746E-1	4.973218E-1	4.938564E-1	5.252599E-1	5.203754E-1	5.412164E-1	5.113559E-1	5.637680E-1	5.331012E-1	5.075924E-1	5.386077E-1	5.339159E-1	4.879119E-1	5.137730E-1	4.948271E-1	4.996356E-1	5.128314E-1	5.179755E-1	5.035085E-1	5.451041E-1	5.350477E-1	5.014351E-1	5.119323E-1	5.302908E-1	5.256783E-1	5.229497E-1	5.152506E-1	4.861335E-1	5.339851E-1	5.373353E-1	5.303310E-1	5.070702E-1	5.202820E-1	4.954667E-1	5.222721E-1	4.986277E-1	5.114098E-1	5.457540E-1	5.212080E-1	5.220225E-1	5.178302E-1	5.145025E-1	5.216292E-1	5.283667E-1	5.109155E-1	5.160220E-1	4.941616E-1	5.494479E-1	5.233139E-1	4.972849E-1	5.189981E-1	5.781703E-1	5.503076E-1	5.229210E-1	4.902675E-1	5.088209E-1	5.451559E-1	5.071157E-1	5.307150E-1	5.384015E-1	4.890517E-1	4.883987E-1	5.610475E-1	4.925136E-1	5.055421E-1	5.113904E-1	5.141383E-1	5.238813E-1	5.148973E-1	5.444763E-1	4.631932E-1	5.469443E-1	4.663101E-1
5.372640E+2	4.745384E-1	5.234616E-1	4.703696E-1	4.708380E-1	5.051051E-1	4.988168E-1	5.229242E-1	4.785075E-1	4.487383E-1	4.982665E-1	4.731446E-1	5.012809E-1	5.019585E-1	5.182902E-1	4.821574E-1	5.026176E-1	5.158698E-1	4.888050E-1	4.964794E-1	5.465101E-1	4.949000E-1	4.943166E-1	4.819716E-1	5.017880E-1	4.896216E-1	5.221800E-1	4.877961E-1	4.865081E-1	4.970462E-1	4.669796E-1	4.861864E-1	5.140115E-1	4.907975E-1	4.980341E-1	4.810590E-1	5.188029E-1	4.882208E-1	5.020761E-1	5.061986E-1	4.854717E-1	4.735897E-1	4.959939E-1	5.031234E-1	5.238860E-1	4.630956E-1	4.928555E-1	4.837825E-1	4.896925E-1	5.045390E-1	4.956351E-1	4.773996E-1	4.966919E-1	4.734252E-1	5.069686E-1	4.694179E-1	4.929191E-1	5.098252E-1	4.923248E-1	5.270327E-1	5.181965E-1	4.954111E-1	5.205343E-1	4.775705E-1	4.877819E-1	5.094228E-1	5.140766E-1	4.754355E-1	4.757897E-1	4.968723E-1	4.756578E-1	4.939968E-1	4.689931E-1	5.048785E-1	4.782435E-1	4.905771E-1	5.099159E-1	5.106630E-1	5.015820E-1	5.080198E-1	4.807501E-1	5.212934E-1	4.999252E-1	4.662754E-1	4.804670E-1	5.083023E-1	4.770323E-1	5.129311E-1	4.713010E-1	5.114705E-1	5.090537E-1	5.078547E-1	5.016070E-1	4.846968E-1	4.840315E-1	4.508838E-1	4.754864E-1	5.075186E-1	4.896138E-1	4.875032E-1	5.005923E-1	4.724912E-1	5.015317E-1	4.912458E-1	5.482733E-1	4.945725E-1	5.206156E-1	4.924496E-1	5.110001E-1	5.135264E-1	4.777980E-1	4.747074E-1	4.892711E-1	5.154152E-1	4.718836E-1	4.731380E-1	5.054183E-1	4.957894E-1	4.877306E-1	5.027587E-1	5.053803E-1	5.362231E-1	5.166677E-1	5.113697E-1	4.786516E-1	5.500484E-1	4.955925E-1	5.194880E-1	4.924675E-1	5.051154E-1	4.847213E-1	5.111311E-1	5.163105E-1	5.176317E-1	5.055173E-1	5.281179E-1	4.940848E-1	4.761414E-1	5.161365E-1	4.878336E-1	4.865219E-1	5.033681E-1	5.223357E-1	4.844630E-1	4.975893E-1	4.968669E-1	5.085659E-1	5.112328E-1	4.754870E-1	5.358207E-1	4.847056E-1	5.075176E-1	4.707936E-1	5.053166E-1	4.943759E-1	5.289493E-1	5.189748E-1	4.623776E-1	5.020734E-1	5.020659E-1	5.053048E-1	5.034567E-1	5.086630E-1	5.037324E-1	4.919563E-1	4.984740E-1	4.921221E-1
5.375060E+2	5.429476E-1	5.317086E-1	5.415472E-1	5.311593E-1	5.326741E-1	4.974659E-1	5.170918E-1	5.271554E-1	5.157623E-1	5.266370E-1	5.147745E-1	5.800359E-1	5.409807E-1	5.151446E-1	5.030873E-1	5.282290E-1	5.469024E-1	5.361046E-1	5.324584E-1	5.099282E-1	5.405214E-1	5.385514E-1	4.982562E-1	5.093473E-1	5.131239E-1	5.715130E-1	5.335532E-1	5.241160E-1	5.365845E-1	5.452399E-1	5.380967E-1	5.366057E-1	5.279787E-1	5.671240E-1	4.944579E-1	5.283476E-1	5.210001E-1	5.097396E-1	5.163392E-1	5.523225E-1	5.141832E-1	5.384130E-1	5.696618E-1	5.158756E-1	5.743042E-1	5.400774E-1	5.172425E-1	5.294992E-1	5.713122E-1	5.040320E-1	5.143443E-1	5.457740E-1	5.387725E-1	5.194916E-1	5.283779E-1	5.357847E-1	5.382763E-1	5.279812E-1	5.362778E-1	4.992069E-1	5.270004E-1	5.188269E-1	5.002410E-1	5.462399E-1	5.316726E-1	5.559986E-1	5.773198E-1	5.664953E-1	5.213543E-1	5.346081E-1	5.222235E-1	5.169693E-1	5.540918E-1	5.189223E-1	5.266175E-1	4.942249E-1	5.540837E-1	5.454549E-1	5.400300E-1	5.026864E-1	5.498198E-1	5.523730E-1	5.249787E-1	5.358677E-1	4.813353E-1	5.137076E-1	5.672629E-1	5.199664E-1	5.158365E-1	5.436111E-1	5.434933E-1	5.502303E-1	5.447663E-1	5.226122E-1	5.338118E-1	5.035019E-1	5.696614E-1	5.205515E-1	4.988601E-1	5.460888E-1	5.104857E-1	5.277834E-1	5.231321E-1	5.346547E-1	5.206243E-1	5.191634E-1	5.408467E-1	5.285787E-1	5.276205E-1	5.284119E-1	5.308328E-1	5.622030E-1	5.019220E-1	5.122477E-1	5.394545E-1	5.444257E-1	5.367712E-1	5.165967E-1	5.056918E-1	5.336094E-1	4.967951E-1	5.502904E-1	5.625435E-1	5.116619E-1	5.632094E-1	5.341760E-1	5.571020E-1	5.433655E-1	5.355861E-1	5.747390E-1	5.551520E-1	5.442663E-1	5.255585E-1	5.902839E-1	5.560966E-1	5.442100E-1	5.096249E-1	5.255187E-1	5.065087E-1	5.459014E-1	5.745227E-1	5.563118E-1	5.433745E-1	5.239809E-1	5.555358E-1	5.436219E-1	5.264621E-1	5.383579E-1	5.139436E-1	5.302583E-1	4.814723E-1	5.504435E-1	5.315903E-1	5.280206E-1	5.272013E-1	5.333349E-1	5.189388E-1	5.563422E-1	4.979811E-1	5.318246E-1	5.957408E-1	5.795080E-1	5.444186E-1	5.158668E-1	5.618763E-1	5.952494E-1
5.377690E+2	6.015190E-1	6.343720E-1	5.706662E-1	5.879994E-1	5.933377E-1	5.874074E-1	5.829018E-1	5.750605E-1	5.648263E-1	6.094783E-1	5.908364E-1	6.169840E-1	6.066944E-1	6.104856E-1	5.841257E-1	5.915301E-1	6.408817E-1	6.064749E-1	5.805510E-1	6.337547E-1	5.957970E-1	5.782481E-1	5.997464E-1	6.149065E-1	5.661732E-1	5.889365E-1	5.700385E-1	5.841958E-1	5.734902E-1	5.575638E-1	6.017615E-1	6.196683E-1	5.984815E-1	6.444741E-1	5.873526E-1	6.448393E-1	5.910381E-1	6.090558E-1	6.382001E-1	5.904118E-1	5.858723E-1	5.786725E-1	6.363041E-1	6.033525E-1	5.732508E-1	5.692678E-1	6.102351E-1	5.837891E-1	5.970205E-1	5.986792E-1	6.159218E-1	5.873566E-1	5.820521E-1	6.106741E-1	6.175699E-1	6.019741E-1	5.969647E-1	6.107082E-1	6.007688E-1	5.806639E-1	6.068408E-1	5.969787E-1	5.879374E-1	6.073701E-1	5.694991E-1	5.824574E-1	6.141159E-1	5.916186E-1	5.945335E-1	6.127218E-1	6.073861E-1	6.061654E-1	6.014225E-1	5.957875E-1	6.021006E-1	6.174353E-1	5.928570E-1	6.058444E-1	5.663806E-1	5.833856E-1	6.081236E-1	6.210380E-1	6.004832E-1	6.020002E-1	6.021326E-1	5.790133E-1	6.099430E-1	5.822034E-1	5.997974E-1	5.618402E-1	6.344497E-1	6.161216E-1	6.435059E-1	6.103777E-1	6.267830E-1	5.790027E-1	5.880511E-1	6.039966E-1	5.984363E-1	5.955658E-1	6.197509E-1	5.580948E-1	6.114640E-1	6.146422E-1	5.859297E-1	6.178880E-1	5.616494E-1	6.057907E-1	6.353343E-1	5.954465E-1	5.901749E-1	5.647628E-1	6.337638E-1	5.746808E-1	5.810222E-1	5.973771E-1	5.954085E-1	6.478522E-1	6.261376E-1	6.187890E-1	5.794692E-1	6.124345E-1	5.880622E-1	5.795201E-1	6.181239E-1	6.305924E-1	6.042528E-1	5.970691E-1	6.237455E-1	6.029269E-1	6.000483E-1	6.039700E-1	5.467519E-1	6.071959E-1	5.735537E-1	5.998783E-1	5.933178E-1	5.924017E-1	5.983503E-1	5.718343E-1	5.850627E-1	5.431516E-1	5.770053E-1	5.699384E-1	6.009723E-1	5.921387E-1	5.559867E-1	5.938560E-1	5.615052E-1	6.179423E-1	6.367231E-1	5.693525E-1	6.252201E-1	6.146984E-1	5.887499E-1	6.119202E-1	6.164091E-1	6.051814E-1	6.309645E-1	6.226438E-1	6.899885E-1	6.122297E-1	5.790731E-1	6.390795E-1	6.164254E-1	6.375243E-1
5.380160E+2	7.015519E-1	6.676734E-1	6.496336E-1	6.430953E-1	6.744102E-1	6.752686E-1	6.825392E-1	7.118552E-1	6.854059E-1	6.871822E-1	6.646952E-1	7.147197E-1	6.994661E-1	6.846335E-1	6.966228E-1	6.995755E-1	6.953140E-1	6.854394E-1	6.977401E-1	7.012315E-1	6.814171E-1	6.764886E-1	7.107618E-1	7.373908E-1	6.646427E-1	7.223553E-1	7.100732E-1	7.228206E-1	6.704298E-1	7.412316E-1	6.857104E-1	6.515593E-1	6.757996E-1	7.157753E-1	7.093093E-1	7.158288E-1	6.775502E-1	7.345048E-1	6.712102E-1	6.904202E-1	6.698362E-1	7.085008E-1	6.865711E-1	6.918047E-1	6.932044E-1	7.033435E-1	6.715056E-1	7.122272E-1	6.858858E-1	6.871429E-1	7.028314E-1	7.337787E-1	6.948308E-1	7.181712E-1	7.115078E-1	7.224315E-1	6.994872E-1	7.380232E-1	6.848516E-1	6.831367E-1	6.837764E-1	6.870673E-1	6.865196E-1	6.988183E-1	7.077073E-1	7.318990E-1	7.416538E-1	6.836193E-1	6.909920E-1	6.928253E-1	6.832929E-1	6.902171E-1	6.925874E-1	6.901312E-1	6.990487E-1	6.794236E-1	6.839530E-1	7.095099E-1	7.138305E-1	7.201321E-1	7.567280E-1	6.747142E-1	6.640707E-1	6.931655E-1	6.922311E-1	6.834300E-1	7.168856E-1	6.821991E-1	6.498931E-1	6.952362E-1	7.155810E-1	6.728128E-1	6.895118E-1	6.931823E-1	6.652525E-1	6.618380E-1	6.919680E-1	6.784036E-1	7.297998E-1	6.947206E-1	6.967028E-1	6.673339E-1	7.026726E-1	7.134187E-1	7.122853E-1	6.776620E-1	7.018920E-1	6.831485E-1	6.691111E-1	6.662357E-1	6.616313E-1	6.976590E-1	7.144342E-1	6.630838E-1	6.767119E-1	6.858253E-1	6.879830E-1	6.947213E-1	6.931841E-1	6.740589E-1	6.401290E-1	7.287072E-1	7.027746E-1	6.974804E-1	7.335849E-1	6.597338E-1	6.971773E-1	6.573092E-1	7.139505E-1	7.141773E-1	7.230926E-1	6.877641E-1	7.281367E-1	7.181235E-1	7.044390E-1	7.038692E-1	7.259333E-1	7.200429E-1	7.451904E-1	7.018204E-1	7.010380E-1	7.128320E-1	6.729130E-1	6.851480E-1	6.809221E-1	7.191765E-1	6.810492E-1	6.670264E-1	6.829576E-1	7.408216E-1	6.815483E-1	6.915015E-1	7.034788E-1	6.761175E-1	6.800378E-1	7.083148E-1	6.842629E-1	7.222177E-1	6.992829E-1	7.076238E-1	6.942986E-1	6.788246E-1	7.005158E-1	6.382703E-1	6.794068E-1	6.409899E-1
5.382690E+2	8.265396E-1	8.334093E-1	7.522513E-1	8.247661E-1	8.078570E-1	7.968031E-1	8.438144E-1	8.272883E-1	7.932466E-1	8.147976E-1	8.064587E-1	8.262215E-1	8.317984E-1	8.697500E-1	8.025355E-1	8.038960E-1	8.115656E-1	8.133255E-1	8.064224E-1	8.042088E-1	8.076530E-1	7.949219E-1	8.120521E-1	8.177706E-1	8.035595E-1	8.220862E-1	8.041890E-1	8.185496E-1	8.343184E-1	8.002927E-1	7.989824E-1	8.197762E-1	8.663491E-1	8.443813E-1	8.295965E-1	8.146510E-1	7.782261E-1	7.905933E-1	8.383683E-1	8.259518E-1	7.890566E-1	8.150147E-1	8.309622E-1	8.052377E-1	8.133843E-1	8.122678E-1	8.103893E-1	7.946678E-1	8.520543E-1	8.320908E-1	8.091765E-1	8.373780E-1	8.082038E-1	8.001670E-1	8.260628E-1	8.171941E-1	7.780289E-1	7.788971E-1	7.842190E-1	8.651768E-1	8.131036E-1	8.319877E-1	8.211087E-1	8.266983E-1	8.119507E-1	8.245407E-1	8.558742E-1	8.543660E-1	8.584527E-1	8.058342E-1	8.267658E-1	7.966220E-1	8.465063E-1	8.123617E-1	8.223246E-1	8.264587E-1	7.890239E-1	8.562729E-1	8.076767E-1	8.040869E-1	8.484421E-1	8.080845E-1	8.146772E-1	8.099781E-1	8.151322E-1	7.967736E-1	7.994992E-1	7.541495E-1	8.242624E-1	8.139423E-1	8.245675E-1	8.352898E-1	8.063879E-1	8.591791E-1	7.943092E-1	8.115633E-1	8.027069E-1	8.760218E-1	8.232029E-1	8.026881E-1	8.290965E-1	7.946705E-1	8.085060E-1	8.146854E-1	8.421261E-1	8.336927E-1	8.181071E-1	8.408764E-1	8.337204E-1	8.396286E-1	8.037137E-1	8.271082E-1	8.033429E-1	8.585224E-1	8.040664E-1	7.830294E-1	8.111927E-1	8.498077E-1	8.037712E-1	8.172000E-1	8.028666E-1	8.025171E-1	8.049356E-1	8.452466E-1	8.578667E-1	8.253111E-1	8.137161E-1	7.902066E-1	7.777516E-1	7.847734E-1	8.834745E-1	7.974819E-1	8.122324E-1	8.860395E-1	8.076656E-1	7.884786E-1	8.403242E-1	8.258732E-1	8.198010E-1	8.072212E-1	7.797172E-1	7.974551E-1	8.241800E-1	8.093017E-1	8.724303E-1	8.109810E-1	7.933300E-1	8.635100E-1	8.264629E-1	8.142246E-1	8.068685E-1	8.186995E-1	8.083691E-1	8.264356E-1	8.091966E-1	8.155158E-1	8.160420E-1	8.405777E-1	8.327113E-1	8.116418E-1	8.349024E-1	8.685180E-1	7.842924E-1	7.941792E-1	7.807622E-1	8.501907E-1
5.385110E+2	9.306915E-1	9.928370E-1	9.608848E-1	1.009644E+0	9.483638E-1	9.754119E-1	1.003037E+0	1.072377E+0	9.673514E-1	1.015415E+0	9.776167E-1	1.033680E+0	1.015669E+0	9.825602E-1	9.935715E-1	1.029838E+0	1.040258E+0	9.945698E-1	9.800224E-1	1.005597E+0	1.016312E+0	9.939417E-1	9.578234E-1	1.064024E+0	9.997459E-1	9.988760E-1	1.034931E+0	9.981080E-1	9.916213E-1	1.079189E+0	9.709103E-1	1.019261E+0	9.757915E-1	1.001779E+0	9.577158E-1	1.026717E+0	9.987722E-1	9.957947E-1	9.987458E-1	1.026618E+0	1.053763E+0	1.016862E+0	1.068116E+0	9.978699E-1	1.008533E+0	9.972242E-1	1.006242E+0	1.008136E+0	1.038482E+0	1.013904E+0	1.026189E+0	1.022672E+0	9.497657E-1	9.524982E-1	9.739027E-1	1.054493E+0	9.830103E-1	9.810698E-1	9.952496E-1	1.007500E+0	9.933444E-1	9.739555E-1	9.464504E-1	1.005655E+0	9.762914E-1	1.047841E+0	1.005543E+0	9.710466E-1	1.000200E+0	1.044826E+0	9.595761E-1	9.733733E-1	1.017846E+0	9.987632E-1	9.948179E-1	1.004130E+0	1.041970E+0	1.032430E+0	1.020335E+0	9.584712E-1	1.013249E+0	1.026400E+0	9.510859E-1	9.731471E-1	1.009017E+0	1.031999E+0	9.827566E-1	1.009424E+0	9.765507E-1	1.015375E+0	9.900917E-1	1.053139E+0	1.077149E+0	1.006325E+0	9.723980E-1	9.840364E-1	9.998488E-1	1.033712E+0	1.004880E+0	1.029955E+0	9.749184E-1	9.981459E-1	9.856625E-1	1.007216E+0	1.045301E+0	1.001974E+0	1.026423E+0	9.671649E-1	1.040371E+0	9.673382E-1	9.616791E-1	1.003609E+0	1.044159E+0	9.766479E-1	9.973756E-1	1.034652E+0	9.896076E-1	9.908019E-1	1.014452E+0	1.045594E+0	1.029490E+0	1.019250E+0	1.026179E+0	9.775300E-1	1.042733E+0	1.000357E+0	9.729430E-1	9.863675E-1	9.887439E-1	9.995261E-1	1.034561E+0	1.051662E+0	1.022184E+0	1.008649E+0	1.024207E+0	1.041413E+0	9.580943E-1	1.001326E+0	1.005163E+0	1.028564E+0	1.006009E+0	1.001083E+0	9.657357E-1	1.037114E+0	1.034389E+0	1.006714E+0	9.805194E-1	9.223881E-1	1.019808E+0	1.038320E+0	9.819803E-1	1.015418E+0	1.015871E+0	1.015209E+0	9.980854E-1	1.067540E+0	9.315726E-1	1.031061E+0	9.684818E-1	1.011225E+0	1.001399E+0	1.027106E+0	1.010364E+0	8.988179E-1	1.046008E+0	1.081617E+0
5.387650E+2	1.191044E+0	1.297199E+0	1.163952E+0	1.175320E+0	1.186408E+0	1.224493E+0	1.186382E+0	1.177621E+0	1.192201E+0	1.182244E+0	1.173069E+0	1.211510E+0	1.171672E+0	1.228632E+0	1.225466E+0	1.148610E+0	1.191593E+0	1.221189E+0	1.155223E+0	1.141050E+0	1.190782E+0	1.186756E+0	1.233657E+0	1.237691E+0	1.174315E+0	1.204401E+0	1.250456E+0	1.226348E+0	1.167616E+0	1.196596E+0	1.186460E+0	1.128942E+0	1.219410E+0	1.196425E+0	1.167082E+0	1.181555E+0	1.172445E+0	1.230684E+0	1.179887E+0	1.219620E+0	1.182769E+0	1.180530E+0	1.185335E+0	1.213431E+0	1.207941E+0	1.174979E+0	1.190407E+0	1.171632E+0	1.263907E+0	1.185144E+0	1.145078E+0	1.210734E+0	1.196094E+0	1.205417E+0	1.108752E+0	1.181563E+0	1.123062E+0	1.170071E+0	1.183015E+0	1.225674E+0	1.177231E+0	1.202635E+0	1.161097E+0	1.190990E+0	1.236333E+0	1.189515E+0	1.259041E+0	1.209000E+0	1.194091E+0	1.209811E+0	1.147381E+0	1.198101E+0	1.209156E+0	1.186782E+0	1.154268E+0	1.192297E+0	1.210486E+0	1.204609E+0	1.175782E+0	1.208241E+0	1.254517E+0	1.162129E+0	1.217708E+0	1.146788E+0	1.146105E+0	1.153774E+0	1.135903E+0	1.170034E+0	1.160161E+0	1.209357E+0	1.158607E+0	1.172297E+0	1.159650E+0	1.157315E+0	1.143552E+0	1.209009E+0	1.201370E+0	1.136786E+0	1.177690E+0	1.140324E+0	1.205684E+0	1.160548E+0	1.177759E+0	1.203876E+0	1.111046E+0	1.153530E+0	1.141060E+0	1.204024E+0	1.251696E+0	1.168158E+0	1.177294E+0	1.198230E+0	1.245211E+0	1.184860E+0	1.109374E+0	1.191742E+0	1.217327E+0	1.168988E+0	1.160809E+0	1.208599E+0	1.190722E+0	1.153853E+0	1.149414E+0	1.206544E+0	1.183735E+0	1.187393E+0	1.190211E+0	1.205988E+0	1.188348E+0	1.265289E+0	1.207713E+0	1.180305E+0	1.215920E+0	1.230253E+0	1.168749E+0	1.201985E+0	1.117506E+0	1.180821E+0	1.231789E+0	1.256032E+0	1.185194E+0	1.231398E+0	1.151972E+0	1.161460E+0	1.258371E+0	1.229192E+0	1.178232E+0	1.189166E+0	1.248430E+0	1.222314E+0	1.207886E+0	1.168280E+0	1.237484E+0	1.134787E+0	1.149449E+0	1.153254E+0	1.187921E+0	1.229817E+0	1.127241E+0	1.251976E+0	1.165677E+0	1.203147E+0	1.081784E+0	1.211004E+0	1.219937E+0	1.219481E+0
5.390340E+2	1.392623E+0	1.452140E+0	1.357795E+0	1.394280E+0	1.466123E+0	1.419205E+0	1.418071E+0	1.411297E+0	1.390940E+0	1.384129E+0	1.412724E+0	1.439116E+0	1.393639E+0	1.383616E+0	1.447593E+0	1.396761E+0	1.417035E+0	1.414877E+0	1.355789E+0	1.344300E+0	1.441665E+0	1.380415E+0	1.374899E+0	1.461521E+0	1.372082E+0	1.467673E+0	1.463029E+0	1.452930E+0	1.459734E+0	1.466767E+0	1.413836E+0	1.401762E+0	1.421443E+0	1.439294E+0	1.432829E+0	1.353795E+0	1.362017E+0	1.396228E+0	1.396347E+0	1.463647E+0	1.431802E+0	1.406065E+0	1.408658E+0	1.510418E+0	1.359530E+0	1.369708E+0	1.408873E+0	1.395397E+0	1.461347E+0	1.425071E+0	1.402846E+0	1.428905E+0	1.391614E+0	1.397718E+0	1.405423E+0	1.465074E+0	1.442321E+0	1.414746E+0	1.352619E+0	1.396089E+0	1.423805E+0	1.419587E+0	1.423942E+0	1.413516E+0	1.390377E+0	1.492621E+0	1.415866E+0	1.413346E+0	1.389739E+0	1.398764E+0	1.412539E+0	1.387551E+0	1.405749E+0	1.441745E+0	1.392090E+0	1.459970E+0	1.420905E+0	1.476146E+0	1.429538E+0	1.443222E+0	1.442451E+0	1.450091E+0	1.403592E+0	1.398292E+0	1.454282E+0	1.416033E+0	1.424968E+0	1.435123E+0	1.432534E+0	1.390294E+0	1.400225E+0	1.442622E+0	1.419925E+0	1.368026E+0	1.340469E+0	1.406413E+0	1.393955E+0	1.361304E+0	1.382024E+0	1.372694E+0	1.421408E+0	1.392072E+0	1.332120E+0	1.409312E+0	1.456206E+0	1.371873E+0	1.397451E+0	1.446922E+0	1.456339E+0	1.447567E+0	1.420881E+0	1.427343E+0	1.418568E+0	1.378892E+0	1.374942E+0	1.442878E+0	1.357521E+0	1.437507E+0	1.387710E+0	1.481040E+0	1.376046E+0	1.396264E+0	1.369841E+0	1.388123E+0	1.420225E+0	1.390480E+0	1.381956E+0	1.390269E+0	1.425805E+0	1.401140E+0	1.421575E+0	1.393888E+0	1.404563E+0	1.438231E+0	1.410721E+0	1.420854E+0	1.417023E+0	1.414069E+0	1.363976E+0	1.391760E+0	1.390676E+0	1.392044E+0	1.387138E+0	1.394241E+0	1.341974E+0	1.383000E+0	1.397661E+0	1.392849E+0	1.415193E+0	1.365694E+0	1.387374E+0	1.411956E+0	1.424220E+0	1.347388E+0	1.394287E+0	1.369547E+0	1.385410E+0	1.398310E+0	1.390662E+0	1.399818E+0	1.407176E+0	1.432795E+0	1.359773E+0	1.342936E+0	1.416652E+0	1.436086E+0
5.392560E+2	1.635553E+0	1.743215E+0	1.527657E+0	1.631595E+0	1.679209E+0	1.607564E+0	1.639712E+0	1.702929E+0	1.636361E+0	1.609493E+0	1.648675E+0	1.674814E+0	1.580005E+0	1.671385E+0	1.644719E+0	1.584052E+0	1.642711E+0	1.600385E+0	1.604518E+0	1.654263E+0	1.617614E+0	1.610366E+0	1.606717E+0	1.662126E+0	1.612854E+0	1.688027E+0	1.700842E+0	1.617412E+0	1.636083E+0	1.637995E+0	1.661190E+0	1.633971E+0	1.625136E+0	1.724430E+0	1.616319E+0	1.630248E+0	1.639898E+0	1.616495E+0	1.628512E+0	1.677926E+0	1.643390E+0	1.651037E+0	1.600432E+0	1.564462E+0	1.561059E+0	1.681711E+0	1.675931E+0	1.603660E+0	1.608311E+0	1.617955E+0	1.577457E+0	1.634821E+0	1.553137E+0	1.609386E+0	1.596141E+0	1.756371E+0	1.573020E+0	1.591197E+0	1.510746E+0	1.635326E+0	1.630138E+0	1.673545E+0	1.538829E+0	1.653986E+0	1.630139E+0	1.642478E+0	1.631980E+0	1.568600E+0	1.567674E+0	1.664667E+0	1.612147E+0	1.622922E+0	1.589423E+0	1.623527E+0	1.575683E+0	1.591943E+0	1.589640E+0	1.724522E+0	1.588495E+0	1.635904E+0	1.653892E+0	1.634382E+0	1.563715E+0	1.535404E+0	1.678058E+0	1.641519E+0	1.566410E+0	1.664221E+0	1.623245E+0	1.571488E+0	1.532877E+0	1.657015E+0	1.648513E+0	1.567973E+0	1.569959E+0	1.651969E+0	1.670958E+0	1.634184E+0	1.582463E+0	1.645662E+0	1.597187E+0	1.562845E+0	1.609532E+0	1.614060E+0	1.628920E+0	1.585556E+0	1.625764E+0	1.589836E+0	1.635072E+0	1.594283E+0	1.581215E+0	1.594962E+0	1.589011E+0	1.604954E+0	1.591040E+0	1.591884E+0	1.593287E+0	1.598881E+0	1.566887E+0	1.638017E+0	1.631049E+0	1.580237E+0	1.646787E+0	1.649434E+0	1.643299E+0	1.636103E+0	1.566815E+0	1.576212E+0	1.593714E+0	1.651868E+0	1.618303E+0	1.593447E+0	1.647010E+0	1.633869E+0	1.554952E+0	1.633179E+0	1.588810E+0	1.646475E+0	1.574554E+0	1.601113E+0	1.606584E+0	1.573771E+0	1.538685E+0	1.633974E+0	1.549122E+0	1.646104E+0	1.570979E+0	1.579674E+0	1.546193E+0	1.649633E+0	1.626665E+0	1.593198E+0	1.603186E+0	1.589755E+0	1.574807E+0	1.611440E+0	1.608440E+0	1.594957E+0	1.584631E+0	1.582836E+0	1.541805E+0	1.587820E+0	1.543039E+0	1.513793E+0	1.516872E+0	1.531528E+0
5.395160E+2	1.846913E+0	1.895867E+0	1.815661E+0	1.801578E+0	1.792465E+0	1.880713E+0	1.906543E+0	1.848190E+0	1.879248E+0	1.899774E+0	1.819309E+0	1.926149E+0	1.807407E+0	1.861312E+0	1.811827E+0	1.878834E+0	1.894600E+0	1.798526E+0	1.882199E+0	1.856177E+0	1.849404E+0	1.871300E+0	1.891110E+0	1.854596E+0	1.804750E+0	1.889810E+0	1.904337E+0	1.930868E+0	1.883479E+0	1.833229E+0	1.842550E+0	1.892544E+0	1.841573E+0	1.894580E+0	1.875724E+0	1.828967E+0	1.858441E+0	1.884757E+0	1.767854E+0	1.872470E+0	1.834682E+0	1.853146E+0	1.841482E+0	1.909959E+0	1.809393E+0	1.885474E+0	1.874598E+0	1.846928E+0	1.930917E+0	1.892404E+0	1.821442E+0	1.828771E+0	1.828432E+0	1.835861E+0	1.816242E+0	1.872268E+0	1.883715E+0	1.890007E+0	1.792767E+0	1.846941E+0	1.919597E+0	1.862608E+0	1.801719E+0	1.889081E+0	1.829012E+0	1.883173E+0	1.824529E+0	1.831175E+0	1.814204E+0	1.813134E+0	1.819654E+0	1.760978E+0	1.790810E+0	1.831769E+0	1.806091E+0	1.814714E+0	1.888567E+0	1.871471E+0	1.740642E+0	1.841434E+0	1.865678E+0	1.865844E+0	1.771179E+0	1.847767E+0	1.834447E+0	1.773540E+0	1.809748E+0	1.932467E+0	1.851715E+0	1.794443E+0	1.771913E+0	1.882388E+0	1.866888E+0	1.778695E+0	1.817331E+0	1.872093E+0	1.883131E+0	1.805255E+0	1.752125E+0	1.833658E+0	1.859552E+0	1.786545E+0	1.782927E+0	1.847323E+0	1.841945E+0	1.763993E+0	1.775329E+0	1.853531E+0	1.849954E+0	1.747898E+0	1.826521E+0	1.814553E+0	1.886194E+0	1.848492E+0	1.794879E+0	1.813035E+0	1.823091E+0	1.846172E+0	1.790870E+0	1.848728E+0	1.837345E+0	1.828823E+0	1.810783E+0	1.854308E+0	1.851491E+0	1.815292E+0	1.739534E+0	1.758372E+0	1.814987E+0	1.884067E+0	1.893317E+0	1.786579E+0	1.713059E+0	1.816903E+0	1.790018E+0	1.790247E+0	1.778702E+0	1.847194E+0	1.785377E+0	1.822817E+0	1.852866E+0	1.836322E+0	1.747798E+0	1.817867E+0	1.832692E+0	1.830771E+0	1.794190E+0	1.765942E+0	1.765266E+0	1.809388E+0	1.728591E+0	1.791749E+0	1.815467E+0	1.766619E+0	1.787166E+0	1.840570E+0	1.777964E+0	1.834529E+0	1.756387E+0	1.814346E+0	1.803957E+0	1.799990E+0	1.733220E+0	1.735405E+0	1.816728E+0	1.836669E+0
5.397810E+2	2.041357E+0	2.058967E+0	1.991438E+0	2.011220E+0	1.974236E+0	2.051854E+0	2.044480E+0	2.058173E+0	1.971226E+0	1.959553E+0	1.967363E+0	2.053891E+0	2.004715E+0	2.007891E+0	2.060454E+0	2.048389E+0	1.970806E+0	1.948430E+0	2.096295E+0	1.965106E+0	1.940421E+0	2.019057E+0	1.961851E+0	2.065629E+0	1.956153E+0	2.032361E+0	1.995271E+0	2.073145E+0	1.945982E+0	2.021439E+0	1.973505E+0	2.056948E+0	1.934702E+0	2.073405E+0	2.015137E+0	2.049059E+0	1.995814E+0	1.960340E+0	1.993499E+0	1.967559E+0	1.979677E+0	1.963810E+0	1.927199E+0	2.032359E+0	2.011226E+0	2.007143E+0	1.988948E+0	2.008082E+0	2.020529E+0	1.984579E+0	2.000085E+0	2.045397E+0	1.937272E+0	2.041511E+0	1.905340E+0	1.974527E+0	2.001363E+0	2.062563E+0	1.892054E+0	2.050269E+0	2.009086E+0	1.959421E+0	1.887312E+0	1.922355E+0	1.961788E+0	1.972673E+0	1.975887E+0	1.981550E+0	1.959513E+0	1.998902E+0	1.901815E+0	1.970441E+0	2.064025E+0	1.929235E+0	1.883615E+0	1.949566E+0	1.972283E+0	1.990367E+0	1.912406E+0	1.999095E+0	1.961064E+0	1.966452E+0	1.948154E+0	1.983960E+0	1.965858E+0	1.966102E+0	1.947966E+0	1.999689E+0	1.921481E+0	1.975730E+0	1.917526E+0	2.027120E+0	2.039669E+0	1.914205E+0	1.904832E+0	1.975272E+0	2.018226E+0	1.912923E+0	1.965823E+0	1.927892E+0	1.986995E+0	1.926896E+0	1.912597E+0	2.034339E+0	1.921650E+0	1.986637E+0	1.916543E+0	1.973319E+0	1.993336E+0	1.941600E+0	1.961516E+0	1.941302E+0	1.938078E+0	1.945415E+0	1.934763E+0	1.890784E+0	1.952475E+0	1.971713E+0	1.940357E+0	1.966241E+0	1.931267E+0	1.947204E+0	1.913138E+0	2.011438E+0	2.005016E+0	1.885932E+0	1.923046E+0	1.896522E+0	1.898107E+0	1.870792E+0	1.918164E+0	1.880108E+0	1.919519E+0	1.993966E+0	1.929536E+0	1.929917E+0	1.913550E+0	1.889561E+0	1.935309E+0	1.948286E+0	1.951240E+0	1.993665E+0	1.862956E+0	1.895081E+0	1.931757E+0	2.043322E+0	1.948681E+0	1.907805E+0	1.940523E+0	1.952354E+0	1.960123E+0	1.961970E+0	1.968390E+0	1.935749E+0	1.914950E+0	1.940487E+0	1.976662E+0	2.016923E+0	1.861118E+0	1.913306E+0	1.921453E+0	1.998330E+0	1.830154E+0	1.909370E+0	1.971035E+0	2.066916E+0
5.400090E+2	2.123286E+0	2.046378E+0	2.010358E+0	2.073464E+0	2.005305E+0	1.982505E+0	2.028257E+0	2.171243E+0	2.092743E+0	2.022838E+0	2.007536E+0	2.130578E+0	2.101232E+0	2.013830E+0	2.116526E+0	2.050537E+0	2.142111E+0	2.071728E+0	2.070135E+0	2.104758E+0	2.111510E+0	2.099928E+0	2.044192E+0	2.124625E+0	2.004374E+0	2.100220E+0	2.013640E+0	2.093285E+0	2.054824E+0	2.022220E+0	2.022161E+0	2.058684E+0	2.056943E+0	2.079138E+0	2.092005E+0	2.085839E+0	2.034060E+0	1.999476E+0	1.990759E+0	2.092819E+0	2.107154E+0	2.048282E+0	1.929121E+0	2.044542E+0	2.091626E+0	2.063610E+0	2.001239E+0	1.982880E+0	2.092200E+0	1.992626E+0	2.032785E+0	2.101808E+0	2.013181E+0	2.065462E+0	2.035099E+0	2.053276E+0	2.029054E+0	2.083893E+0	1.977693E+0	2.108270E+0	2.085979E+0	1.946201E+0	1.993426E+0	2.086067E+0	1.956842E+0	2.057670E+0	2.054245E+0	2.035143E+0	2.042209E+0	2.101475E+0	2.001882E+0	1.997496E+0	2.020579E+0	1.957365E+0	2.018832E+0	2.062869E+0	2.012242E+0	2.066242E+0	2.076620E+0	2.026930E+0	2.032158E+0	1.988104E+0	2.006083E+0	2.023319E+0	2.020537E+0	1.938455E+0	1.956590E+0	2.021850E+0	2.075718E+0	2.030942E+0	1.968519E+0	2.106838E+0	2.015599E+0	2.038870E+0	1.937528E+0	1.979804E+0	2.011082E+0	1.985280E+0	1.971271E+0	1.971274E+0	1.992407E+0	2.002685E+0	2.013274E+0	2.045308E+0	2.029117E+0	1.935892E+0	1.990763E+0	2.007674E+0	2.047300E+0	2.048284E+0	1.968609E+0	2.004580E+0	2.066203E+0	2.085738E+0	1.977949E+0	2.063727E+0	1.937943E+0	1.958539E+0	1.991754E+0	1.972010E+0	1.946735E+0	1.961136E+0	1.986196E+0	2.024906E+0	2.055702E+0	1.958056E+0	1.856768E+0	1.995644E+0	2.077206E+0	2.058539E+0	2.028811E+0	2.029811E+0	1.966253E+0	2.096784E+0	1.896072E+0	1.986857E+0	1.950277E+0	2.052530E+0	1.959605E+0	1.983173E+0	2.001339E+0	1.920186E+0	1.974270E+0	2.087371E+0	1.955821E+0	1.918709E+0	1.902977E+0	1.976581E+0	1.959233E+0	2.007717E+0	1.954306E+0	2.040097E+0	2.010240E+0	1.948898E+0	1.922335E+0	1.957934E+0	2.061433E+0	1.965736E+0	1.922839E+0	2.056023E+0	1.966181E+0	1.937218E+0	1.989523E+0	1.906079E+0	1.942459E+0	1.862758E+0
5.402690E+2	2.029383E+0	2.059676E+0	2.016486E+0	2.033517E+0	2.046520E+0	1.999968E+0	2.043120E+0	2.080114E+0	2.009303E+0	2.056087E+0	2.002985E+0	2.126933E+0	2.010133E+0	1.980357E+0	2.043661E+0	2.050315E+0	2.036387E+0	2.080007E+0	2.079030E+0	2.046709E+0	2.065532E+0	1.997667E+0	2.051588E+0	2.117671E+0	2.026603E+0	2.108488E+0	2.008648E+0	2.104146E+0	2.057865E+0	2.080664E+0	2.042484E+0	2.014397E+0	2.028758E+0	2.072998E+0	1.980234E+0	2.118826E+0	2.060236E+0	2.031936E+0	1.982007E+0	2.037198E+0	2.021973E+0	2.004873E+0	1.970520E+0	2.011659E+0	2.052215E+0	2.045574E+0	2.013381E+0	2.025482E+0	2.068047E+0	2.040816E+0	1.997364E+0	2.024791E+0	1.977873E+0	1.965919E+0	1.995280E+0	2.027613E+0	1.979917E+0	2.024505E+0	1.972256E+0	1.988160E+0	2.010526E+0	2.002397E+0	1.967933E+0	2.033794E+0	1.995821E+0	2.036109E+0	1.990866E+0	2.045847E+0	2.014991E+0	2.041639E+0	2.011405E+0	2.138586E+0	2.000396E+0	2.068526E+0	1.924451E+0	2.028940E+0	2.075944E+0	2.096684E+0	1.959744E+0	2.004501E+0	2.045682E+0	2.038995E+0	1.980077E+0	2.022420E+0	1.984975E+0	1.954985E+0	1.984047E+0	2.032059E+0	2.041746E+0	1.936831E+0	1.969530E+0	2.073353E+0	2.054282E+0	2.006147E+0	1.951424E+0	2.013532E+0	2.094716E+0	2.025577E+0	1.922090E+0	2.028965E+0	2.048880E+0	1.923704E+0	1.921996E+0	2.002674E+0	1.962388E+0	2.014407E+0	1.979689E+0	1.991804E+0	2.007093E+0	2.034398E+0	1.996534E+0	1.986568E+0	1.986329E+0	2.045543E+0	1.949239E+0	1.951572E+0	1.955064E+0	1.985173E+0	1.988661E+0	2.016212E+0	1.984985E+0	1.989001E+0	1.902172E+0	2.012158E+0	2.112650E+0	1.925778E+0	1.925033E+0	1.938913E+0	2.022596E+0	2.033709E+0	1.939879E+0	1.936555E+0	1.991676E+0	2.011811E+0	1.970408E+0	2.046290E+0	1.920619E+0	2.027916E+0	1.886260E+0	1.922660E+0	2.028874E+0	1.962441E+0	1.908428E+0	1.966315E+0	2.047260E+0	1.891138E+0	1.925749E+0	1.981342E+0	1.957895E+0	1.995933E+0	1.930019E+0	1.929843E+0	1.986997E+0	1.911116E+0	1.943340E+0	1.983356E+0	1.952200E+0	2.006469E+0	1.960393E+0	1.973701E+0	1.954319E+0	2.060820E+0	1.928591E+0	1.987283E+0	2.007587E+0	2.003936E+0
5.405020E+2	1.996071E+0	1.990132E+0	1.863311E+0	1.882586E+0	1.965761E+0	2.003694E+0	2.031016E+0	1.923244E+0	1.867287E+0	1.923305E+0	1.864643E+0	2.041403E+0	1.977041E+0	2.023642E+0	1.930261E+0	2.056114E+0	1.962105E+0	1.997818E+0	1.954054E+0	1.947197E+0	1.979461E+0	1.948182E+0	1.929215E+0	2.027775E+0	1.896693E+0	1.996527E+0	1.993541E+0	2.030350E+0	1.956699E+0	1.925272E+0	1.982381E+0	2.005328E+0	1.957055E+0	2.070013E+0	1.934628E+0	1.985821E+0	1.977720E+0	1.853626E+0	1.920868E+0	1.972950E+0	1.960779E+0	1.919130E+0	1.932944E+0	1.937847E+0	1.961748E+0	1.945665E+0	1.959510E+0	1.966568E+0	1.975498E+0	1.921736E+0	1.876707E+0	2.034894E+0	1.832731E+0	1.867365E+0	1.866102E+0	1.956337E+0	1.974333E+0	1.968536E+0	1.890258E+0	1.943470E+0	1.899424E+0	1.970396E+0	1.913522E+0	1.925015E+0	2.013783E+0	1.997885E+0	1.943170E+0	1.938730E+0	1.982406E+0	1.931263E+0	1.913892E+0	1.932118E+0	1.941543E+0	1.966554E+0	1.866814E+0	1.897289E+0	2.003911E+0	1.887797E+0	1.884060E+0	1.935659E+0	1.978711E+0	1.928079E+0	1.842083E+0	1.896901E+0	1.921784E+0	1.950604E+0	1.884819E+0	1.903881E+0	1.912959E+0	1.923785E+0	1.949294E+0	1.937983E+0	1.938069E+0	1.958071E+0	1.837381E+0	1.889910E+0	1.976565E+0	1.894943E+0	1.901250E+0	1.861339E+0	1.937818E+0	1.869723E+0	1.896316E+0	1.892349E+0	1.986040E+0	1.910945E+0	1.924333E+0	1.897685E+0	1.960055E+0	1.888803E+0	1.901195E+0	1.860404E+0	1.913934E+0	1.922082E+0	1.884167E+0	1.950969E+0	1.937070E+0	1.891691E+0	1.846033E+0	1.972256E+0	1.908789E+0	1.888043E+0	1.843882E+0	1.920411E+0	1.927857E+0	1.881517E+0	1.895745E+0	1.838079E+0	1.901906E+0	1.872293E+0	1.872120E+0	1.901427E+0	1.932390E+0	2.020117E+0	1.879834E+0	1.945436E+0	1.873688E+0	1.869159E+0	1.805856E+0	1.869237E+0	1.880592E+0	1.842806E+0	1.838090E+0	1.893788E+0	1.873680E+0	1.924537E+0	1.872775E+0	1.883213E+0	1.895287E+0	1.936533E+0	1.904303E+0	1.928451E+0	2.003269E+0	1.885673E+0	1.894694E+0	1.891387E+0	1.837823E+0	1.916861E+0	1.861075E+0	1.889997E+0	1.824965E+0	1.907803E+0	1.781847E+0	1.845462E+0	1.820551E+0	1.925735E+0
5.407580E+2	1.937636E+0	1.900668E+0	1.773597E+0	1.840791E+0	1.872540E+0	1.878066E+0	1.926258E+0	1.963680E+0	1.831894E+0	1.824228E+0	1.817244E+0	1.886018E+0	1.911391E+0	1.896522E+0	1.899541E+0	1.914357E+0	1.956750E+0	1.860940E+0	1.850764E+0	1.885593E+0	1.841998E+0	1.866292E+0	1.797842E+0	1.977195E+0	1.841948E+0	1.861677E+0	1.880803E+0	1.895287E+0	1.900769E+0	1.874274E+0	1.862800E+0	1.958951E+0	1.820575E+0	2.020557E+0	1.828206E+0	1.881125E+0	1.891400E+0	1.811757E+0	1.808019E+0	1.856658E+0	1.799906E+0	1.827746E+0	1.848491E+0	1.869317E+0	1.868035E+0	1.862645E+0	1.807369E+0	1.883369E+0	1.949125E+0	1.864269E+0	1.807899E+0	1.818315E+0	1.794710E+0	1.853065E+0	1.838088E+0	1.814363E+0	1.849013E+0	1.836558E+0	1.869100E+0	1.886149E+0	1.852761E+0	1.779381E+0	1.829759E+0	1.828400E+0	1.883876E+0	1.861098E+0	1.914234E+0	1.805188E+0	1.831228E+0	1.880372E+0	1.858704E+0	1.874363E+0	1.859840E+0	1.840186E+0	1.823168E+0	1.901773E+0	1.803488E+0	1.880662E+0	1.822844E+0	1.810009E+0	1.850172E+0	1.902249E+0	1.787175E+0	1.813384E+0	1.848158E+0	1.859749E+0	1.824985E+0	1.858235E+0	1.857325E+0	1.847712E+0	1.849971E+0	1.823622E+0	1.835153E+0	1.807950E+0	1.800026E+0	1.813195E+0	1.905685E+0	1.808632E+0	1.799883E+0	1.931571E+0	1.871052E+0	1.794312E+0	1.829466E+0	1.825918E+0	1.860646E+0	1.804457E+0	1.756634E+0	1.790308E+0	1.869508E+0	1.848191E+0	1.789514E+0	1.825982E+0	1.864708E+0	1.816314E+0	1.800307E+0	1.882830E+0	1.808325E+0	1.840204E+0	1.787524E+0	1.796550E+0	1.838962E+0	1.814297E+0	1.810460E+0	1.875115E+0	1.874929E+0	1.814256E+0	1.792465E+0	1.800459E+0	1.804709E+0	1.795419E+0	1.812806E+0	1.805569E+0	1.822247E+0	1.855558E+0	1.754355E+0	1.882563E+0	1.833412E+0	1.763873E+0	1.776398E+0	1.795048E+0	1.845970E+0	1.844744E+0	1.760899E+0	1.907684E+0	1.833958E+0	1.837620E+0	1.779621E+0	1.747602E+0	1.743357E+0	1.833134E+0	1.753987E+0	1.786103E+0	1.852235E+0	1.722090E+0	1.776601E+0	1.837850E+0	1.795798E+0	1.790627E+0	1.794231E+0	1.829747E+0	1.814169E+0	1.797174E+0	1.848957E+0	1.729487E+0	1.834869E+0	1.784412E+0
5.410080E+2	1.840830E+0	1.816913E+0	1.671078E+0	1.833576E+0	1.735564E+0	1.842937E+0	1.782784E+0	1.741658E+0	1.697619E+0	1.784374E+0	1.780512E+0	1.785169E+0	1.816091E+0	1.736397E+0	1.784157E+0	1.738843E+0	1.794057E+0	1.809853E+0	1.762180E+0	1.818201E+0	1.755694E+0	1.765469E+0	1.768841E+0	1.800444E+0	1.750531E+0	1.803211E+0	1.830335E+0	1.781882E+0	1.785198E+0	1.794464E+0	1.791493E+0	1.787274E+0	1.860386E+0	1.772981E+0	1.765332E+0	1.728543E+0	1.698132E+0	1.813006E+0	1.786607E+0	1.882590E+0	1.714904E+0	1.778197E+0	1.699379E+0	1.849793E+0	1.760855E+0	1.807146E+0	1.717721E+0	1.735812E+0	1.779544E+0	1.782386E+0	1.755218E+0	1.787528E+0	1.774847E+0	1.708132E+0	1.735967E+0	1.799743E+0	1.765128E+0	1.777882E+0	1.769269E+0	1.773101E+0	1.788092E+0	1.765336E+0	1.709020E+0	1.765946E+0	1.794362E+0	1.802021E+0	1.838511E+0	1.754754E+0	1.756912E+0	1.789739E+0	1.676010E+0	1.802726E+0	1.751548E+0	1.796786E+0	1.744052E+0	1.785923E+0	1.803863E+0	1.795759E+0	1.743459E+0	1.831810E+0	1.750738E+0	1.813755E+0	1.709496E+0	1.739694E+0	1.708682E+0	1.722961E+0	1.769848E+0	1.734585E+0	1.712443E+0	1.762609E+0	1.750043E+0	1.746316E+0	1.728170E+0	1.756723E+0	1.697489E+0	1.752261E+0	1.817174E+0	1.698266E+0	1.701003E+0	1.702036E+0	1.782772E+0	1.790946E+0	1.751842E+0	1.782116E+0	1.741035E+0	1.692480E+0	1.732814E+0	1.708445E+0	1.782946E+0	1.757641E+0	1.726849E+0	1.705694E+0	1.788984E+0	1.750157E+0	1.725470E+0	1.687208E+0	1.730124E+0	1.719114E+0	1.708628E+0	1.796490E+0	1.782728E+0	1.731979E+0	1.710068E+0	1.740668E+0	1.811271E+0	1.723920E+0	1.762380E+0	1.678991E+0	1.739692E+0	1.773799E+0	1.700453E+0	1.727242E+0	1.773886E+0	1.766136E+0	1.657708E+0	1.721892E+0	1.721417E+0	1.769859E+0	1.696199E+0	1.677600E+0	1.705274E+0	1.768443E+0	1.654993E+0	1.752008E+0	1.704004E+0	1.792084E+0	1.674055E+0	1.738341E+0	1.764044E+0	1.728214E+0	1.677473E+0	1.760469E+0	1.729009E+0	1.717399E+0	1.757427E+0	1.776831E+0	1.702322E+0	1.706890E+0	1.694172E+0	1.722094E+0	1.743870E+0	1.729292E+0	1.714634E+0	1.791790E+0	1.646815E+0	1.767238E+0
5.412640E+2	1.731324E+0	1.681833E+0	1.654512E+0	1.708093E+0	1.641146E+0	1.722826E+0	1.755951E+0	1.711863E+0	1.682352E+0	1.704363E+0	1.626320E+0	1.754654E+0	1.696786E+0	1.719725E+0	1.734072E+0	1.678986E+0	1.728529E+0	1.660150E+0	1.805470E+0	1.656377E+0	1.773289E+0	1.690395E+0	1.706905E+0	1.716453E+0	1.640174E+0	1.705714E+0	1.697585E+0	1.728656E+0	1.701445E+0	1.726624E+0	1.710380E+0	1.705467E+0	1.667953E+0	1.788291E+0	1.758173E+0	1.661141E+0	1.686055E+0	1.698759E+0	1.643596E+0	1.715030E+0	1.720428E+0	1.706489E+0	1.610769E+0	1.711472E+0	1.653408E+0	1.741164E+0	1.722323E+0	1.714849E+0	1.788054E+0	1.652612E+0	1.678822E+0	1.703842E+0	1.696940E+0	1.698117E+0	1.647514E+0	1.775100E+0	1.697083E+0	1.713541E+0	1.704460E+0	1.705405E+0	1.671549E+0	1.710235E+0	1.642725E+0	1.653426E+0	1.703396E+0	1.723478E+0	1.689860E+0	1.670916E+0	1.712439E+0	1.708264E+0	1.717009E+0	1.683030E+0	1.682815E+0	1.635564E+0	1.698352E+0	1.674774E+0	1.651695E+0	1.730573E+0	1.665618E+0	1.698427E+0	1.689166E+0	1.690403E+0	1.604618E+0	1.649102E+0	1.643309E+0	1.667733E+0	1.642402E+0	1.718010E+0	1.657391E+0	1.646224E+0	1.680480E+0	1.693438E+0	1.660859E+0	1.663574E+0	1.693960E+0	1.668055E+0	1.691521E+0	1.684468E+0	1.636865E+0	1.714760E+0	1.674254E+0	1.663876E+0	1.691043E+0	1.700955E+0	1.764559E+0	1.655290E+0	1.654471E+0	1.655102E+0	1.644081E+0	1.685844E+0	1.644942E+0	1.649464E+0	1.708169E+0	1.674249E+0	1.691643E+0	1.636934E+0	1.644058E+0	1.707740E+0	1.696724E+0	1.652466E+0	1.699719E+0	1.698202E+0	1.640597E+0	1.693708E+0	1.720498E+0	1.575134E+0	1.617162E+0	1.611354E+0	1.651403E+0	1.679914E+0	1.713048E+0	1.618038E+0	1.675481E+0	1.663487E+0	1.656097E+0	1.677186E+0	1.655426E+0	1.671433E+0	1.632013E+0	1.657988E+0	1.677237E+0	1.633937E+0	1.563829E+0	1.649920E+0	1.646766E+0	1.703353E+0	1.689923E+0	1.679928E+0	1.690348E+0	1.645841E+0	1.608663E+0	1.727926E+0	1.691683E+0	1.619770E+0	1.569586E+0	1.706425E+0	1.649128E+0	1.667254E+0	1.638210E+0	1.676957E+0	1.647223E+0	1.635266E+0	1.542563E+0	1.675093E+0	1.653408E+0	1.613028E+0
5.415140E+2	1.610183E+0	1.614090E+0	1.570184E+0	1.645860E+0	1.622316E+0	1.673116E+0	1.635583E+0	1.666318E+0	1.642623E+0	1.599329E+0	1.602036E+0	1.681133E+0	1.661118E+0	1.633217E+0	1.663435E+0	1.626255E+0	1.678936E+0	1.610002E+0	1.610800E+0	1.623107E+0	1.574725E+0	1.625010E+0	1.563864E+0	1.619130E+0	1.594913E+0	1.632799E+0	1.724352E+0	1.614034E+0	1.660195E+0	1.628467E+0	1.615880E+0	1.625400E+0	1.572978E+0	1.663479E+0	1.659550E+0	1.632770E+0	1.647790E+0	1.604256E+0	1.591477E+0	1.654342E+0	1.604411E+0	1.608273E+0	1.582175E+0	1.604758E+0	1.588873E+0	1.624197E+0	1.607433E+0	1.649103E+0	1.665111E+0	1.619699E+0	1.632591E+0	1.622106E+0	1.593439E+0	1.627394E+0	1.646482E+0	1.623064E+0	1.658248E+0	1.644526E+0	1.578062E+0	1.559390E+0	1.633869E+0	1.612469E+0	1.582646E+0	1.631260E+0	1.657191E+0	1.632916E+0	1.651777E+0	1.653230E+0	1.613492E+0	1.644355E+0	1.571010E+0	1.567087E+0	1.629760E+0	1.682007E+0	1.544290E+0	1.594429E+0	1.648046E+0	1.610183E+0	1.540247E+0	1.584318E+0	1.575564E+0	1.632053E+0	1.555492E+0	1.585561E+0	1.553332E+0	1.630655E+0	1.619200E+0	1.672236E+0	1.625690E+0	1.588126E+0	1.586732E+0	1.591980E+0	1.687006E+0	1.625720E+0	1.546722E+0	1.570014E+0	1.650406E+0	1.667708E+0	1.513196E+0	1.649334E+0	1.598806E+0	1.583144E+0	1.544090E+0	1.693069E+0	1.676567E+0	1.597728E+0	1.647398E+0	1.564618E+0	1.636235E+0	1.632110E+0	1.606616E+0	1.658002E+0	1.578089E+0	1.619048E+0	1.543233E+0	1.582274E+0	1.624572E+0	1.582778E+0	1.523165E+0	1.593126E+0	1.607006E+0	1.578430E+0	1.560645E+0	1.579668E+0	1.643228E+0	1.616941E+0	1.532875E+0	1.636243E+0	1.625526E+0	1.637476E+0	1.608692E+0	1.602445E+0	1.583065E+0	1.637657E+0	1.675194E+0	1.570784E+0	1.587735E+0	1.612793E+0	1.575639E+0	1.577731E+0	1.591697E+0	1.608158E+0	1.552075E+0	1.628030E+0	1.620199E+0	1.602717E+0	1.525276E+0	1.553577E+0	1.562643E+0	1.575919E+0	1.547225E+0	1.642017E+0	1.664046E+0	1.617183E+0	1.588021E+0	1.644580E+0	1.623705E+0	1.568167E+0	1.615971E+0	1.609547E+0	1.600011E+0	1.533752E+0	1.573150E+0	1.611596E+0	1.561972E+0	1.575148E+0
5.417540E+2	1.541924E+0	1.482542E+0	1.473499E+0	1.486220E+0	1.523167E+0	1.443469E+0	1.528389E+0	1.481362E+0	1.479242E+0	1.459935E+0	1.457264E+0	1.505823E+0	1.511272E+0	1.530192E+0	1.503188E+0	1.447158E+0	1.574092E+0	1.434855E+0	1.444300E+0	1.513682E+0	1.488774E+0	1.439856E+0	1.511365E+0	1.567680E+0	1.480062E+0	1.509246E+0	1.538092E+0	1.482321E+0	1.493439E+0	1.528704E+0	1.530679E+0	1.474460E+0	1.518847E+0	1.514280E+0	1.490386E+0	1.503343E+0	1.472835E+0	1.525215E+0	1.450258E+0	1.480814E+0	1.550221E+0	1.447672E+0	1.495306E+0	1.498556E+0	1.490996E+0	1.483322E+0	1.427206E+0	1.465981E+0	1.556025E+0	1.534854E+0	1.455121E+0	1.500437E+0	1.443274E+0	1.499644E+0	1.485159E+0	1.503836E+0	1.495340E+0	1.497231E+0	1.460496E+0	1.523519E+0	1.528633E+0	1.541823E+0	1.469719E+0	1.439923E+0	1.559832E+0	1.528409E+0	1.507664E+0	1.504599E+0	1.481918E+0	1.554822E+0	1.487322E+0	1.477752E+0	1.525923E+0	1.443701E+0	1.450643E+0	1.487701E+0	1.525345E+0	1.521289E+0	1.440714E+0	1.475203E+0	1.546749E+0	1.438010E+0	1.508612E+0	1.446246E+0	1.508375E+0	1.515989E+0	1.466228E+0	1.468326E+0	1.481446E+0	1.476794E+0	1.433678E+0	1.485335E+0	1.453161E+0	1.515043E+0	1.444468E+0	1.466866E+0	1.548337E+0	1.506804E+0	1.452114E+0	1.508713E+0	1.460140E+0	1.438792E+0	1.453953E+0	1.503790E+0	1.523815E+0	1.453723E+0	1.493181E+0	1.552709E+0	1.537942E+0	1.473899E+0	1.526039E+0	1.510045E+0	1.507185E+0	1.469894E+0	1.504748E+0	1.470471E+0	1.404413E+0	1.443965E+0	1.464552E+0	1.514910E+0	1.485243E+0	1.489330E+0	1.401991E+0	1.519103E+0	1.517128E+0	1.473962E+0	1.399287E+0	1.410474E+0	1.538488E+0	1.510034E+0	1.486292E+0	1.500059E+0	1.512834E+0	1.461249E+0	1.498558E+0	1.500275E+0	1.449030E+0	1.429904E+0	1.451255E+0	1.497488E+0	1.512779E+0	1.488270E+0	1.422714E+0	1.457965E+0	1.493495E+0	1.470781E+0	1.430809E+0	1.456565E+0	1.496801E+0	1.430337E+0	1.452920E+0	1.486421E+0	1.593248E+0	1.459952E+0	1.411162E+0	1.520273E+0	1.467819E+0	1.463444E+0	1.429295E+0	1.517482E+0	1.477146E+0	1.445514E+0	1.479593E+0	1.457925E+0	1.424007E+0	1.491548E+0
5.420160E+2	1.386513E+0	1.373543E+0	1.314953E+0	1.289262E+0	1.270143E+0	1.369738E+0	1.371075E+0	1.390065E+0	1.304941E+0	1.337909E+0	1.322669E+0	1.349692E+0	1.351193E+0	1.300813E+0	1.334912E+0	1.313700E+0	1.339215E+0	1.319211E+0	1.330727E+0	1.327324E+0	1.296729E+0	1.323620E+0	1.340494E+0	1.333062E+0	1.326246E+0	1.368214E+0	1.337701E+0	1.345673E+0	1.381881E+0	1.354350E+0	1.334054E+0	1.332686E+0	1.391491E+0	1.367970E+0	1.333640E+0	1.350377E+0	1.378980E+0	1.314766E+0	1.339179E+0	1.332679E+0	1.307597E+0	1.386917E+0	1.323950E+0	1.305257E+0	1.303707E+0	1.376337E+0	1.330930E+0	1.319178E+0	1.397616E+0	1.320112E+0	1.351961E+0	1.314205E+0	1.315154E+0	1.326375E+0	1.306235E+0	1.317464E+0	1.321860E+0	1.401373E+0	1.323967E+0	1.311513E+0	1.404972E+0	1.333674E+0	1.279069E+0	1.341660E+0	1.303787E+0	1.340174E+0	1.308939E+0	1.330279E+0	1.340810E+0	1.313411E+0	1.342322E+0	1.314205E+0	1.358258E+0	1.312908E+0	1.294538E+0	1.360753E+0	1.275601E+0	1.367540E+0	1.311558E+0	1.315134E+0	1.342644E+0	1.314838E+0	1.282277E+0	1.282892E+0	1.346120E+0	1.272496E+0	1.355895E+0	1.353138E+0	1.313422E+0	1.323568E+0	1.331942E+0	1.317331E+0	1.329980E+0	1.294100E+0	1.324115E+0	1.266346E+0	1.320237E+0	1.332299E+0	1.283836E+0	1.344686E+0	1.410470E+0	1.339007E+0	1.338408E+0	1.320047E+0	1.312477E+0	1.327090E+0	1.294154E+0	1.350177E+0	1.323737E+0	1.257773E+0	1.271905E+0	1.324915E+0	1.320540E+0	1.329046E+0	1.303291E+0	1.322853E+0	1.363945E+0	1.337575E+0	1.293868E+0	1.386174E+0	1.250900E+0	1.330519E+0	1.308547E+0	1.332602E+0	1.355393E+0	1.297916E+0	1.297275E+0	1.302707E+0	1.326513E+0	1.327523E+0	1.362696E+0	1.371870E+0	1.372417E+0	1.326881E+0	1.304892E+0	1.363231E+0	1.300727E+0	1.364947E+0	1.313487E+0	1.261813E+0	1.344560E+0	1.273663E+0	1.286575E+0	1.361745E+0	1.290342E+0	1.337412E+0	1.296506E+0	1.333426E+0	1.251366E+0	1.358154E+0	1.262902E+0	1.288576E+0	1.377758E+0	1.314031E+0	1.275293E+0	1.352645E+0	1.308925E+0	1.364514E+0	1.233998E+0	1.357678E+0	1.346644E+0	1.333347E+0	1.314124E+0	1.266614E+0	1.273459E+0	1.348490E+0
5.422670E+2	1.170893E+0	1.188539E+0	1.103075E+0	1.114757E+0	1.173862E+0	1.134946E+0	1.215531E+0	1.147299E+0	1.137019E+0	1.163462E+0	1.103296E+0	1.122414E+0	1.148860E+0	1.195191E+0	1.130916E+0	1.172335E+0	1.204331E+0	1.189807E+0	1.154446E+0	1.121422E+0	1.186513E+0	1.161867E+0	1.174733E+0	1.188308E+0	1.152490E+0	1.196716E+0	1.218575E+0	1.198116E+0	1.191221E+0	1.101224E+0	1.170697E+0	1.170448E+0	1.148245E+0	1.178049E+0	1.173714E+0	1.143849E+0	1.152711E+0	1.153984E+0	1.147687E+0	1.211843E+0	1.173034E+0	1.127367E+0	1.154429E+0	1.152580E+0	1.156515E+0	1.180874E+0	1.153373E+0	1.150149E+0	1.219127E+0	1.170167E+0	1.171975E+0	1.197244E+0	1.127968E+0	1.170949E+0	1.155565E+0	1.183688E+0	1.140966E+0	1.156406E+0	1.173711E+0	1.108836E+0	1.165625E+0	1.176564E+0	1.159322E+0	1.096372E+0	1.182061E+0	1.216782E+0	1.175002E+0	1.159715E+0	1.186398E+0	1.147917E+0	1.137805E+0	1.179062E+0	1.175092E+0	1.181395E+0	1.095537E+0	1.184139E+0	1.171749E+0	1.204920E+0	1.202524E+0	1.128129E+0	1.207783E+0	1.213285E+0	1.092640E+0	1.147183E+0	1.192980E+0	1.136348E+0	1.164119E+0	1.138122E+0	1.174227E+0	1.205740E+0	1.167028E+0	1.199513E+0	1.204318E+0	1.166070E+0	1.169968E+0	1.148080E+0	1.237279E+0	1.125616E+0	1.152007E+0	1.183426E+0	1.148468E+0	1.158036E+0	1.193677E+0	1.134414E+0	1.231375E+0	1.149620E+0	1.166532E+0	1.169048E+0	1.176199E+0	1.161708E+0	1.131600E+0	1.129065E+0	1.133836E+0	1.176184E+0	1.165401E+0	1.162044E+0	1.139138E+0	1.202204E+0	1.149487E+0	1.167879E+0	1.229096E+0	1.171631E+0	1.170256E+0	1.134851E+0	1.204293E+0	1.209044E+0	1.115818E+0	1.127334E+0	1.195065E+0	1.181338E+0	1.163821E+0	1.213333E+0	1.194026E+0	1.175549E+0	1.138329E+0	1.228584E+0	1.172366E+0	1.191500E+0	1.124925E+0	1.200684E+0	1.204737E+0	1.216338E+0	1.140503E+0	1.153570E+0	1.164234E+0	1.107261E+0	1.131296E+0	1.143093E+0	1.174749E+0	1.161591E+0	1.124607E+0	1.179611E+0	1.204438E+0	1.105965E+0	1.099646E+0	1.165290E+0	1.137713E+0	1.178737E+0	1.110998E+0	1.180214E+0	1.135885E+0	1.194883E+0	1.147752E+0	1.143656E+0	1.126008E+0	1.176532E+0
5.425140E+2	1.050991E+0	1.076059E+0	9.617880E-1	1.056038E+0	9.825982E-1	1.078076E+0	1.080266E+0	1.022430E+0	1.056710E+0	1.014403E+0	1.016482E+0	1.057764E+0	1.084075E+0	1.014096E+0	1.110335E+0	1.077966E+0	1.034365E+0	1.013636E+0	1.022933E+0	1.038192E+0	9.924295E-1	1.078800E+0	1.048674E+0	1.090331E+0	1.024052E+0	1.057771E+0	1.086142E+0	1.053464E+0	1.021524E+0	1.017153E+0	1.070154E+0	1.028724E+0	1.053262E+0	1.103743E+0	1.038463E+0	1.034729E+0	9.898156E-1	1.041616E+0	1.043235E+0	1.040280E+0	1.031812E+0	1.056082E+0	9.634085E-1	1.032241E+0	1.080687E+0	1.038741E+0	1.026145E+0	1.031943E+0	1.047852E+0	1.057259E+0	1.008071E+0	1.049774E+0	1.001474E+0	1.001261E+0	1.021184E+0	1.017820E+0	1.100041E+0	1.078585E+0	1.014586E+0	1.020500E+0	1.004953E+0	1.028854E+0	1.000166E+0	1.033758E+0	1.038504E+0	1.047020E+0	1.029307E+0	1.023011E+0	1.072887E+0	1.049558E+0	1.034017E+0	1.032235E+0	1.053319E+0	1.002532E+0	9.775955E-1	9.967644E-1	1.079654E+0	1.075136E+0	1.030835E+0	1.029879E+0	1.115452E+0	1.053690E+0	1.010883E+0	1.040703E+0	1.074746E+0	1.032750E+0	9.887726E-1	1.056922E+0	1.045468E+0	1.019336E+0	1.023230E+0	1.000298E+0	1.042952E+0	1.017948E+0	1.048590E+0	1.017527E+0	1.107716E+0	1.046454E+0	1.044686E+0	1.009866E+0	1.015887E+0	1.057146E+0	1.023964E+0	1.026951E+0	1.043734E+0	1.084575E+0	1.036294E+0	1.026407E+0	1.063731E+0	1.063748E+0	1.033171E+0	1.054881E+0	1.022546E+0	1.021332E+0	1.004044E+0	1.044220E+0	1.064064E+0	9.997828E-1	1.049237E+0	1.048087E+0	1.111678E+0	1.037714E+0	1.033840E+0	1.061930E+0	1.101558E+0	1.063769E+0	1.011830E+0	1.011762E+0	1.040750E+0	1.024352E+0	1.045390E+0	1.060116E+0	1.064594E+0	1.077864E+0	1.045160E+0	1.018285E+0	1.053694E+0	1.037667E+0	1.048354E+0	1.064908E+0	1.076713E+0	1.085715E+0	9.882897E-1	1.050271E+0	1.052703E+0	1.076175E+0	1.073634E+0	1.036357E+0	1.014314E+0	1.006372E+0	9.864674E-1	1.019205E+0	1.119286E+0	1.051060E+0	1.060328E+0	1.028659E+0	1.016014E+0	1.044092E+0	1.062701E+0	1.061234E+0	1.054675E+0	1.024671E+0	1.013601E+0	1.031338E+0	1.046941E+0	1.099503E+0
5.427810E+2	9.677051E-1	9.902057E-1	9.046793E-1	9.182219E-1	9.749163E-1	1.008341E+0	9.723143E-1	9.892786E-1	9.735713E-1	9.820628E-1	9.630850E-1	9.609303E-1	1.003881E+0	9.469579E-1	9.832628E-1	9.678405E-1	1.007313E+0	9.607112E-1	1.024104E+0	1.003677E+0	9.598378E-1	9.584121E-1	9.456084E-1	1.022190E+0	9.391074E-1	9.748592E-1	9.915824E-1	9.489321E-1	9.719939E-1	9.891855E-1	9.713629E-1	9.454436E-1	9.820610E-1	9.860705E-1	9.399276E-1	9.207234E-1	9.530049E-1	9.678135E-1	9.539537E-1	9.890455E-1	1.016289E+0	1.001859E+0	9.182603E-1	9.753723E-1	9.469362E-1	9.631372E-1	9.475085E-1	9.817273E-1	9.926185E-1	9.584406E-1	9.632539E-1	9.891736E-1	9.981602E-1	9.953611E-1	9.659314E-1	9.224239E-1	9.960961E-1	1.065045E+0	9.073944E-1	9.721744E-1	9.874075E-1	9.755461E-1	9.327519E-1	9.589927E-1	9.983940E-1	1.009123E+0	1.013620E+0	9.835721E-1	9.231800E-1	9.809613E-1	9.688836E-1	9.730909E-1	9.616461E-1	9.547769E-1	9.832668E-1	9.395803E-1	9.500382E-1	9.890077E-1	9.787088E-1	9.647063E-1	9.610337E-1	9.689082E-1	9.746034E-1	9.208759E-1	9.932438E-1	9.938682E-1	1.008677E+0	9.856807E-1	9.339114E-1	9.433409E-1	9.872069E-1	9.583249E-1	9.545948E-1	1.001314E+0	9.674313E-1	9.775062E-1	1.021274E+0	9.547365E-1	9.872386E-1	9.648698E-1	1.004159E+0	9.738538E-1	9.393834E-1	9.854067E-1	9.704191E-1	9.748650E-1	9.307751E-1	9.604048E-1	9.986338E-1	1.022561E+0	9.473321E-1	9.397263E-1	9.950597E-1	1.034434E+0	9.501859E-1	1.010797E+0	9.477939E-1	9.947152E-1	9.664619E-1	1.011968E+0	1.007863E+0	9.573427E-1	9.680028E-1	9.452753E-1	1.045810E+0	9.878795E-1	9.321132E-1	9.961237E-1	9.778545E-1	1.004766E+0	9.667959E-1	9.899853E-1	9.612762E-1	1.007343E+0	9.826708E-1	9.732063E-1	9.761130E-1	9.967740E-1	1.009746E+0	9.406888E-1	9.606178E-1	1.018943E+0	9.457569E-1	1.041322E+0	9.787062E-1	9.905533E-1	1.001413E+0	9.326696E-1	1.025799E+0	9.893033E-1	9.204071E-1	9.604727E-1	1.001191E+0	1.018204E+0	9.574626E-1	9.663627E-1	1.029968E+0	9.559221E-1	9.955813E-1	9.410368E-1	1.015177E+0	9.894410E-1	9.458651E-1	1.023483E+0	9.344968E-1	8.508417E-1
5.430120E+2	1.034084E+0	9.552866E-1	9.400195E-1	9.540446E-1	9.930786E-1	1.055406E+0	1.019688E+0	9.595666E-1	9.817575E-1	9.555487E-1	1.006739E+0	9.965119E-1	9.909075E-1	9.724540E-1	1.003204E+0	9.790520E-1	9.784343E-1	9.736284E-1	9.854545E-1	9.476009E-1	1.019715E+0	9.513304E-1	9.624481E-1	1.003835E+0	9.677397E-1	1.012357E+0	9.504331E-1	9.604032E-1	9.523137E-1	9.788723E-1	9.762200E-1	9.636605E-1	9.878496E-1	1.046302E+0	9.886439E-1	9.817156E-1	1.014809E+0	9.529774E-1	9.473770E-1	1.042139E+0	9.847898E-1	9.816542E-1	1.000146E+0	9.488892E-1	9.823599E-1	1.021963E+0	1.003175E+0	9.879517E-1	1.006954E+0	9.964012E-1	9.446959E-1	9.790457E-1	9.810777E-1	9.940651E-1	9.769520E-1	1.000016E+0	1.001745E+0	1.001709E+0	9.728818E-1	9.831048E-1	9.556245E-1	1.006082E+0	9.458093E-1	1.017813E+0	9.790731E-1	1.029664E+0	9.899738E-1	9.897406E-1	9.930665E-1	9.810901E-1	9.367642E-1	9.661547E-1	9.822392E-1	9.832573E-1	9.682923E-1	1.016787E+0	9.823748E-1	1.009970E+0	1.030368E+0	1.000845E+0	1.040878E+0	9.544384E-1	9.929563E-1	9.762645E-1	9.961624E-1	1.001034E+0	9.760531E-1	1.036650E+0	9.612303E-1	9.861036E-1	9.690002E-1	1.019685E+0	1.021410E+0	9.460638E-1	9.303595E-1	9.402852E-1	1.049405E+0	9.931932E-1	9.606939E-1	9.491108E-1	9.667089E-1	9.715350E-1	9.822512E-1	9.825426E-1	9.810671E-1	1.001287E+0	9.728742E-1	9.699234E-1	1.032756E+0	1.015947E+0	9.384521E-1	9.994944E-1	9.441313E-1	9.548996E-1	9.833283E-1	9.950795E-1	9.991540E-1	9.838912E-1	9.589109E-1	1.007827E+0	1.033342E+0	9.958530E-1	9.877337E-1	9.818581E-1	9.995496E-1	1.005938E+0	9.600502E-1	9.642023E-1	9.943962E-1	1.087970E+0	1.024545E+0	9.773321E-1	9.735773E-1	9.935476E-1	1.008944E+0	1.001499E+0	9.821962E-1	1.010011E+0	9.400988E-1	9.663595E-1	1.042293E+0	9.593942E-1	9.442345E-1	9.986171E-1	1.056575E+0	1.000178E+0	9.842780E-1	9.696255E-1	9.845136E-1	1.004290E+0	9.920190E-1	9.540422E-1	9.836763E-1	1.011932E+0	9.969791E-1	9.486473E-1	9.877281E-1	1.045547E+0	9.297127E-1	1.022668E+0	1.023908E+0	1.008559E+0	9.699895E-1	9.734092E-1	1.027238E+0	9.797734E-1
5.432960E+2	1.108062E+0	1.139942E+0	1.103459E+0	1.094300E+0	1.080764E+0	1.097865E+0	1.095554E+0	1.092907E+0	1.102750E+0	1.127312E+0	1.089315E+0	1.103696E+0	1.093847E+0	1.046588E+0	1.143042E+0	1.098516E+0	1.084149E+0	1.111983E+0	1.101208E+0	1.121320E+0	1.125573E+0	1.076731E+0	1.082330E+0	1.104283E+0	1.085212E+0	1.133847E+0	1.123780E+0	1.092029E+0	1.096339E+0	1.070575E+0	1.138842E+0	1.059591E+0	1.094843E+0	1.146618E+0	1.084266E+0	1.087435E+0	1.122167E+0	1.137484E+0	1.079693E+0	1.144034E+0	1.078787E+0	1.093871E+0	1.117346E+0	1.070294E+0	1.065734E+0	1.119588E+0	1.090051E+0	1.054632E+0	1.116507E+0	1.084145E+0	1.119614E+0	1.085777E+0	1.032139E+0	1.080396E+0	1.043635E+0	1.081925E+0	1.122802E+0	1.110850E+0	1.023620E+0	1.117168E+0	1.138395E+0	1.060539E+0	1.060582E+0	1.092133E+0	1.107005E+0	1.082907E+0	1.162804E+0	1.118373E+0	1.114274E+0	1.160075E+0	1.114884E+0	1.074791E+0	1.074034E+0	1.095869E+0	1.129008E+0	1.081691E+0	1.124412E+0	1.130369E+0	1.098967E+0	1.114885E+0	1.118801E+0	1.105139E+0	1.097350E+0	1.056644E+0	1.104511E+0	1.090559E+0	1.100415E+0	1.102017E+0	1.077537E+0	1.104433E+0	1.080340E+0	1.127906E+0	1.076030E+0	1.085948E+0	1.039962E+0	1.065713E+0	1.113341E+0	1.134990E+0	1.071228E+0	1.066651E+0	1.069452E+0	1.119993E+0	1.078578E+0	1.086812E+0	1.114695E+0	1.069899E+0	1.113071E+0	1.097877E+0	1.159905E+0	1.128234E+0	1.084386E+0	1.108088E+0	1.138732E+0	1.104443E+0	1.068770E+0	1.112977E+0	1.101706E+0	1.134340E+0	1.089889E+0	1.062700E+0	1.162231E+0	1.099560E+0	1.059322E+0	1.127288E+0	1.158608E+0	1.095245E+0	1.047752E+0	1.090331E+0	1.104300E+0	1.097023E+0	1.090164E+0	1.082515E+0	1.092187E+0	1.135837E+0	1.127106E+0	1.092650E+0	1.115609E+0	1.114855E+0	1.041975E+0	1.079913E+0	1.140127E+0	1.084819E+0	1.064490E+0	1.136426E+0	1.092633E+0	1.105110E+0	1.040252E+0	1.076222E+0	1.114883E+0	1.131616E+0	1.062628E+0	1.092278E+0	1.171278E+0	1.114824E+0	1.106181E+0	1.091645E+0	1.126548E+0	1.143830E+0	1.106774E+0	1.127533E+0	1.077597E+0	1.081441E+0	1.085432E+0	1.031245E+0	1.154639E+0	1.104951E+0
5.435330E+2	1.286585E+0	1.283620E+0	1.238790E+0	1.271874E+0	1.249938E+0	1.211905E+0	1.286934E+0	1.264350E+0	1.243568E+0	1.261274E+0	1.280121E+0	1.230391E+0	1.271446E+0	1.284229E+0	1.314909E+0	1.270287E+0	1.356152E+0	1.300352E+0	1.261845E+0	1.251221E+0	1.224043E+0	1.230850E+0	1.245349E+0	1.285950E+0	1.209151E+0	1.268906E+0	1.310927E+0	1.287078E+0	1.278156E+0	1.293289E+0	1.325357E+0	1.241848E+0	1.309783E+0	1.285670E+0	1.245965E+0	1.273373E+0	1.248467E+0	1.272814E+0	1.274783E+0	1.253326E+0	1.282333E+0	1.260754E+0	1.271529E+0	1.211109E+0	1.235146E+0	1.254937E+0	1.226728E+0	1.231019E+0	1.255564E+0	1.249615E+0	1.280431E+0	1.294298E+0	1.228059E+0	1.230041E+0	1.230218E+0	1.287201E+0	1.249140E+0	1.239041E+0	1.252671E+0	1.251079E+0	1.279672E+0	1.272543E+0	1.254043E+0	1.248492E+0	1.308116E+0	1.350684E+0	1.311547E+0	1.250211E+0	1.259334E+0	1.260833E+0	1.209992E+0	1.203122E+0	1.235963E+0	1.242923E+0	1.213305E+0	1.221701E+0	1.301264E+0	1.280898E+0	1.229260E+0	1.225207E+0	1.274206E+0	1.273153E+0	1.235877E+0	1.248761E+0	1.231292E+0	1.274500E+0	1.232432E+0	1.249155E+0	1.249958E+0	1.267247E+0	1.237132E+0	1.256409E+0	1.262297E+0	1.214447E+0	1.235123E+0	1.289351E+0	1.303080E+0	1.224817E+0	1.253274E+0	1.257660E+0	1.309254E+0	1.283962E+0	1.223101E+0	1.260739E+0	1.278885E+0	1.164023E+0	1.212369E+0	1.235001E+0	1.252439E+0	1.245857E+0	1.276665E+0	1.175045E+0	1.242186E+0	1.242116E+0	1.150851E+0	1.260389E+0	1.234298E+0	1.236466E+0	1.198927E+0	1.228071E+0	1.226367E+0	1.245358E+0	1.256833E+0	1.211869E+0	1.257691E+0	1.251843E+0	1.182295E+0	1.214677E+0	1.255698E+0	1.252068E+0	1.244516E+0	1.181984E+0	1.257374E+0	1.280482E+0	1.223257E+0	1.274641E+0	1.286382E+0	1.242811E+0	1.232085E+0	1.240699E+0	1.245913E+0	1.298298E+0	1.236402E+0	1.250340E+0	1.325329E+0	1.304994E+0	1.187650E+0	1.232868E+0	1.237190E+0	1.223178E+0	1.260189E+0	1.244512E+0	1.310192E+0	1.197163E+0	1.178918E+0	1.218839E+0	1.202840E+0	1.164197E+0	1.207963E+0	1.296845E+0	1.246439E+0	1.246231E+0	1.170041E+0	1.238730E+0	1.316533E+0	1.236716E+0
5.437640E+2	1.362199E+0	1.439366E+0	1.430103E+0	1.329285E+0	1.344659E+0	1.390076E+0	1.437879E+0	1.340063E+0	1.467953E+0	1.408211E+0	1.393226E+0	1.377032E+0	1.426359E+0	1.406786E+0	1.400419E+0	1.352771E+0	1.412039E+0	1.422624E+0	1.482039E+0	1.399966E+0	1.384942E+0	1.413082E+0	1.382146E+0	1.439807E+0	1.389036E+0	1.402729E+0	1.457896E+0	1.404363E+0	1.425959E+0	1.356295E+0	1.441034E+0	1.366486E+0	1.433612E+0	1.448640E+0	1.432812E+0	1.407768E+0	1.458196E+0	1.406713E+0	1.430490E+0	1.368797E+0	1.392726E+0	1.364141E+0	1.458399E+0	1.393684E+0	1.381257E+0	1.450481E+0	1.379111E+0	1.397852E+0	1.443763E+0	1.417284E+0	1.387440E+0	1.393622E+0	1.373576E+0	1.428829E+0	1.377401E+0	1.370632E+0	1.383338E+0	1.423231E+0	1.428507E+0	1.370393E+0	1.440993E+0	1.404569E+0	1.363379E+0	1.379798E+0	1.367547E+0	1.435406E+0	1.444638E+0	1.419424E+0	1.390988E+0	1.427617E+0	1.352778E+0	1.382315E+0	1.427106E+0	1.438262E+0	1.374637E+0	1.352475E+0	1.394628E+0	1.438708E+0	1.392318E+0	1.382146E+0	1.383332E+0	1.360536E+0	1.352236E+0	1.363741E+0	1.408448E+0	1.365183E+0	1.438871E+0	1.365793E+0	1.468043E+0	1.365424E+0	1.423974E+0	1.392542E+0	1.387375E+0	1.433447E+0	1.367340E+0	1.371140E+0	1.464353E+0	1.371377E+0	1.324662E+0	1.342273E+0	1.379826E+0	1.446541E+0	1.359098E+0	1.404054E+0	1.448360E+0	1.372238E+0	1.412379E+0	1.360050E+0	1.416706E+0	1.399060E+0	1.383127E+0	1.376018E+0	1.424199E+0	1.425980E+0	1.320839E+0	1.408259E+0	1.432457E+0	1.414603E+0	1.421426E+0	1.377255E+0	1.427759E+0	1.457493E+0	1.387319E+0	1.393797E+0	1.427692E+0	1.388633E+0	1.328823E+0	1.327147E+0	1.420518E+0	1.403680E+0	1.377992E+0	1.387209E+0	1.377449E+0	1.438936E+0	1.405057E+0	1.358269E+0	1.397255E+0	1.391753E+0	1.364325E+0	1.371520E+0	1.412528E+0	1.421259E+0	1.435935E+0	1.399840E+0	1.379812E+0	1.396241E+0	1.365656E+0	1.355051E+0	1.356726E+0	1.331789E+0	1.344975E+0	1.335334E+0	1.494435E+0	1.375516E+0	1.336360E+0	1.430513E+0	1.377309E+0	1.385695E+0	1.361370E+0	1.379114E+0	1.439217E+0	1.369012E+0	1.391364E+0	1.414877E+0	1.359518E+0	1.381761E+0
5.440170E+2	1.550739E+0	1.546572E+0	1.470945E+0	1.500977E+0	1.564366E+0	1.541725E+0	1.507061E+0	1.542944E+0	1.537689E+0	1.552470E+0	1.543195E+0	1.583313E+0	1.601465E+0	1.491032E+0	1.546296E+0	1.504321E+0	1.561964E+0	1.545111E+0	1.512290E+0	1.521996E+0	1.490633E+0	1.515312E+0	1.538177E+0	1.542509E+0	1.469788E+0	1.583505E+0	1.531946E+0	1.516916E+0	1.543629E+0	1.543579E+0	1.542184E+0	1.497769E+0	1.609089E+0	1.529190E+0	1.505206E+0	1.537590E+0	1.520367E+0	1.464729E+0	1.497424E+0	1.510451E+0	1.469565E+0	1.499947E+0	1.451972E+0	1.489445E+0	1.508841E+0	1.484709E+0	1.516702E+0	1.492233E+0	1.592060E+0	1.528652E+0	1.494357E+0	1.551876E+0	1.527072E+0	1.557783E+0	1.515833E+0	1.510359E+0	1.581316E+0	1.562486E+0	1.517826E+0	1.449229E+0	1.554502E+0	1.501337E+0	1.467943E+0	1.488140E+0	1.488531E+0	1.559411E+0	1.584861E+0	1.503370E+0	1.529129E+0	1.547747E+0	1.493468E+0	1.466686E+0	1.519231E+0	1.542734E+0	1.507016E+0	1.470053E+0	1.560382E+0	1.549294E+0	1.454526E+0	1.491262E+0	1.528215E+0	1.576923E+0	1.490052E+0	1.514800E+0	1.481683E+0	1.446875E+0	1.497684E+0	1.506554E+0	1.486478E+0	1.529789E+0	1.520992E+0	1.557879E+0	1.537259E+0	1.505837E+0	1.532356E+0	1.430246E+0	1.580115E+0	1.435911E+0	1.508737E+0	1.547704E+0	1.533047E+0	1.580001E+0	1.486509E+0	1.553287E+0	1.505071E+0	1.504500E+0	1.476380E+0	1.433628E+0	1.592108E+0	1.487218E+0	1.547510E+0	1.582982E+0	1.505847E+0	1.575901E+0	1.444260E+0	1.460118E+0	1.490436E+0	1.548758E+0	1.504412E+0	1.467785E+0	1.545554E+0	1.496673E+0	1.436126E+0	1.481627E+0	1.507863E+0	1.507749E+0	1.419304E+0	1.515931E+0	1.559587E+0	1.496174E+0	1.514456E+0	1.462756E+0	1.534701E+0	1.469877E+0	1.497750E+0	1.487535E+0	1.511913E+0	1.502266E+0	1.441750E+0	1.538722E+0	1.548450E+0	1.543173E+0	1.485587E+0	1.472643E+0	1.494288E+0	1.513004E+0	1.460107E+0	1.442600E+0	1.514197E+0	1.453084E+0	1.433752E+0	1.396074E+0	1.573305E+0	1.495162E+0	1.439520E+0	1.474395E+0	1.464444E+0	1.561160E+0	1.462892E+0	1.463412E+0	1.482961E+0	1.486249E+0	1.528907E+0	1.473696E+0	1.521074E+0	1.464136E+0
5.442920E+2	1.646388E+0	1.593099E+0	1.521983E+0	1.554313E+0	1.620986E+0	1.621852E+0	1.600261E+0	1.632377E+0	1.631257E+0	1.557715E+0	1.531069E+0	1.599235E+0	1.581276E+0	1.622886E+0	1.597089E+0	1.525358E+0	1.587166E+0	1.570000E+0	1.618212E+0	1.619147E+0	1.621742E+0	1.569532E+0	1.612616E+0	1.590606E+0	1.503576E+0	1.610437E+0	1.625445E+0	1.584729E+0	1.617879E+0	1.635997E+0	1.588598E+0	1.614585E+0	1.628742E+0	1.687802E+0	1.569930E+0	1.607032E+0	1.582881E+0	1.566393E+0	1.575169E+0	1.600945E+0	1.587807E+0	1.585544E+0	1.610687E+0	1.532296E+0	1.605605E+0	1.550316E+0	1.549605E+0	1.594891E+0	1.585613E+0	1.535745E+0	1.537450E+0	1.576348E+0	1.514256E+0	1.522875E+0	1.567428E+0	1.556607E+0	1.564573E+0	1.580012E+0	1.553821E+0	1.579839E+0	1.591939E+0	1.555530E+0	1.535245E+0	1.553192E+0	1.604149E+0	1.543459E+0	1.644510E+0	1.629869E+0	1.596813E+0	1.593946E+0	1.511111E+0	1.493413E+0	1.612224E+0	1.607794E+0	1.561120E+0	1.543670E+0	1.575367E+0	1.593625E+0	1.582041E+0	1.557291E+0	1.586371E+0	1.616779E+0	1.494576E+0	1.569381E+0	1.547223E+0	1.539251E+0	1.557672E+0	1.566082E+0	1.562993E+0	1.584586E+0	1.547918E+0	1.556946E+0	1.558231E+0	1.562520E+0	1.551427E+0	1.623230E+0	1.591214E+0	1.543990E+0	1.536102E+0	1.551448E+0	1.588198E+0	1.572428E+0	1.550050E+0	1.552144E+0	1.554072E+0	1.525425E+0	1.510603E+0	1.566257E+0	1.577303E+0	1.512897E+0	1.538837E+0	1.544410E+0	1.613631E+0	1.615860E+0	1.471140E+0	1.525577E+0	1.525436E+0	1.598834E+0	1.572387E+0	1.601728E+0	1.609708E+0	1.575089E+0	1.556661E+0	1.553775E+0	1.633579E+0	1.565369E+0	1.538689E+0	1.539705E+0	1.568968E+0	1.537753E+0	1.597736E+0	1.549912E+0	1.615352E+0	1.617447E+0	1.543665E+0	1.580941E+0	1.598380E+0	1.598037E+0	1.517088E+0	1.495248E+0	1.599504E+0	1.606875E+0	1.500595E+0	1.532138E+0	1.598945E+0	1.626774E+0	1.540223E+0	1.517399E+0	1.548156E+0	1.591428E+0	1.545243E+0	1.491759E+0	1.601223E+0	1.454024E+0	1.513615E+0	1.520455E+0	1.525953E+0	1.577337E+0	1.537447E+0	1.585122E+0	1.545581E+0	1.569962E+0	1.537945E+0	1.525484E+0	1.592140E+0	1.540597E+0
5.445070E+2	1.644732E+0	1.672130E+0	1.562093E+0	1.583809E+0	1.539706E+0	1.672058E+0	1.641011E+0	1.550759E+0	1.569979E+0	1.601287E+0	1.563044E+0	1.660022E+0	1.618744E+0	1.618102E+0	1.650507E+0	1.587881E+0	1.619559E+0	1.588199E+0	1.579219E+0	1.541272E+0	1.643481E+0	1.623260E+0	1.555683E+0	1.645577E+0	1.599440E+0	1.593618E+0	1.669503E+0	1.630428E+0	1.624709E+0	1.655651E+0	1.669079E+0	1.662988E+0	1.610615E+0	1.646627E+0	1.597040E+0	1.593791E+0	1.638330E+0	1.647762E+0	1.611165E+0	1.624356E+0	1.636611E+0	1.587710E+0	1.579524E+0	1.563466E+0	1.558299E+0	1.590958E+0	1.608546E+0	1.583059E+0	1.675100E+0	1.597078E+0	1.602516E+0	1.618892E+0	1.560223E+0	1.576310E+0	1.632122E+0	1.552973E+0	1.615190E+0	1.598047E+0	1.547473E+0	1.574533E+0	1.610097E+0	1.610321E+0	1.549087E+0	1.581252E+0	1.598487E+0	1.625991E+0	1.718359E+0	1.584060E+0	1.657985E+0	1.645573E+0	1.526564E+0	1.536306E+0	1.642262E+0	1.589174E+0	1.509013E+0	1.565206E+0	1.598931E+0	1.611534E+0	1.609385E+0	1.595604E+0	1.636074E+0	1.647164E+0	1.574558E+0	1.604252E+0	1.593660E+0	1.563539E+0	1.599993E+0	1.603554E+0	1.550686E+0	1.597988E+0	1.590713E+0	1.597744E+0	1.633288E+0	1.624184E+0	1.574893E+0	1.501615E+0	1.626440E+0	1.609070E+0	1.542630E+0	1.606760E+0	1.613110E+0	1.581117E+0	1.576910E+0	1.609465E+0	1.610984E+0	1.498414E+0	1.569977E+0	1.611627E+0	1.709623E+0	1.582140E+0	1.625716E+0	1.551422E+0	1.628082E+0	1.620714E+0	1.583491E+0	1.548259E+0	1.661951E+0	1.604661E+0	1.555461E+0	1.557759E+0	1.582711E+0	1.582903E+0	1.530441E+0	1.555087E+0	1.645114E+0	1.509516E+0	1.549821E+0	1.564285E+0	1.600188E+0	1.634084E+0	1.622192E+0	1.556106E+0	1.624554E+0	1.662734E+0	1.608284E+0	1.548605E+0	1.577187E+0	1.612120E+0	1.531118E+0	1.551892E+0	1.626774E+0	1.534548E+0	1.530565E+0	1.589354E+0	1.569438E+0	1.609250E+0	1.521031E+0	1.552972E+0	1.572103E+0	1.611439E+0	1.480156E+0	1.502063E+0	1.638846E+0	1.489937E+0	1.516161E+0	1.588505E+0	1.543282E+0	1.493752E+0	1.540894E+0	1.567530E+0	1.537794E+0	1.570573E+0	1.488697E+0	1.507788E+0	1.491575E+0	1.585450E+0
5.447720E+2	1.584358E+0	1.594519E+0	1.561772E+0	1.583368E+0	1.513567E+0	1.553636E+0	1.571211E+0	1.555375E+0	1.493309E+0	1.580441E+0	1.570028E+0	1.610112E+0	1.584475E+0	1.566318E+0	1.571908E+0	1.595717E+0	1.556239E+0	1.605014E+0	1.549481E+0	1.563421E+0	1.556955E+0	1.532373E+0	1.606764E+0	1.615466E+0	1.575767E+0	1.605203E+0	1.629502E+0	1.536270E+0	1.566374E+0	1.523897E+0	1.569951E+0	1.600358E+0	1.553819E+0	1.632497E+0	1.594866E+0	1.521501E+0	1.562033E+0	1.526841E+0	1.546438E+0	1.555534E+0	1.513071E+0	1.580578E+0	1.536099E+0	1.536894E+0	1.555534E+0	1.538475E+0	1.549075E+0	1.533259E+0	1.632131E+0	1.591182E+0	1.507051E+0	1.596290E+0	1.539952E+0	1.518946E+0	1.536508E+0	1.542930E+0	1.533870E+0	1.558659E+0	1.544695E+0	1.555822E+0	1.584037E+0	1.590876E+0	1.536493E+0	1.556101E+0	1.558376E+0	1.607117E+0	1.608616E+0	1.565864E+0	1.566573E+0	1.553348E+0	1.569393E+0	1.527323E+0	1.612810E+0	1.557278E+0	1.563775E+0	1.463780E+0	1.617622E+0	1.616048E+0	1.564174E+0	1.527765E+0	1.560668E+0	1.525168E+0	1.485043E+0	1.510964E+0	1.568590E+0	1.484409E+0	1.468990E+0	1.523822E+0	1.499625E+0	1.528921E+0	1.530794E+0	1.538818E+0	1.510013E+0	1.511027E+0	1.517423E+0	1.542434E+0	1.578082E+0	1.502549E+0	1.532175E+0	1.512319E+0	1.635946E+0	1.521514E+0	1.558955E+0	1.525990E+0	1.594909E+0	1.511818E+0	1.488455E+0	1.554929E+0	1.596565E+0	1.525215E+0	1.517546E+0	1.515902E+0	1.574854E+0	1.565975E+0	1.499369E+0	1.544961E+0	1.562485E+0	1.515479E+0	1.550994E+0	1.554814E+0	1.490623E+0	1.539709E+0	1.511150E+0	1.531478E+0	1.530230E+0	1.525604E+0	1.509421E+0	1.517771E+0	1.489871E+0	1.609134E+0	1.539617E+0	1.508361E+0	1.462994E+0	1.539441E+0	1.522747E+0	1.550100E+0	1.558553E+0	1.573865E+0	1.497233E+0	1.452409E+0	1.574306E+0	1.544403E+0	1.457899E+0	1.545569E+0	1.577872E+0	1.520595E+0	1.535883E+0	1.529833E+0	1.522626E+0	1.583507E+0	1.511263E+0	1.511713E+0	1.543563E+0	1.565759E+0	1.531943E+0	1.527768E+0	1.537922E+0	1.564502E+0	1.502349E+0	1.544544E+0	1.563692E+0	1.532829E+0	1.533208E+0	1.470720E+0	1.523739E+0	1.524725E+0
5.450150E+2	1.494543E+0	1.467585E+0	1.433791E+0	1.498817E+0	1.496426E+0	1.550990E+0	1.456074E+0	1.531376E+0	1.443757E+0	1.540027E+0	1.414932E+0	1.515751E+0	1.446179E+0	1.534970E+0	1.482295E+0	1.454467E+0	1.523017E+0	1.535951E+0	1.511010E+0	1.490967E+0	1.502949E+0	1.527934E+0	1.509744E+0	1.498955E+0	1.482578E+0	1.518466E+0	1.568428E+0	1.519065E+0	1.487348E+0	1.493095E+0	1.460756E+0	1.543014E+0	1.512306E+0	1.542835E+0	1.512330E+0	1.487141E+0	1.544135E+0	1.515075E+0	1.493216E+0	1.547568E+0	1.495903E+0	1.558028E+0	1.448122E+0	1.467213E+0	1.458359E+0	1.494209E+0	1.499298E+0	1.500806E+0	1.494429E+0	1.487985E+0	1.419322E+0	1.537319E+0	1.483099E+0	1.437939E+0	1.481283E+0	1.499817E+0	1.482162E+0	1.547014E+0	1.500585E+0	1.440745E+0	1.533241E+0	1.498279E+0	1.464476E+0	1.482130E+0	1.471278E+0	1.487523E+0	1.549159E+0	1.454852E+0	1.484741E+0	1.477406E+0	1.471489E+0	1.450250E+0	1.543585E+0	1.512584E+0	1.463917E+0	1.450306E+0	1.489408E+0	1.522517E+0	1.422219E+0	1.481709E+0	1.501114E+0	1.542457E+0	1.459505E+0	1.414472E+0	1.497574E+0	1.441632E+0	1.483042E+0	1.484918E+0	1.510671E+0	1.458102E+0	1.507218E+0	1.491631E+0	1.504304E+0	1.456395E+0	1.403410E+0	1.486428E+0	1.525078E+0	1.480942E+0	1.449792E+0	1.462716E+0	1.516626E+0	1.415541E+0	1.512288E+0	1.491703E+0	1.514753E+0	1.482405E+0	1.448582E+0	1.442036E+0	1.466811E+0	1.511888E+0	1.483927E+0	1.484780E+0	1.521078E+0	1.431515E+0	1.427813E+0	1.468875E+0	1.485463E+0	1.501474E+0	1.453863E+0	1.499482E+0	1.503351E+0	1.501763E+0	1.385934E+0	1.525083E+0	1.528337E+0	1.441330E+0	1.505224E+0	1.456359E+0	1.460246E+0	1.551807E+0	1.462082E+0	1.483035E+0	1.488714E+0	1.504458E+0	1.509701E+0	1.480973E+0	1.498521E+0	1.513767E+0	1.449537E+0	1.425700E+0	1.486821E+0	1.516185E+0	1.408877E+0	1.447642E+0	1.479309E+0	1.537912E+0	1.502123E+0	1.440831E+0	1.473982E+0	1.485346E+0	1.467763E+0	1.478279E+0	1.480127E+0	1.461389E+0	1.445118E+0	1.465599E+0	1.512918E+0	1.418320E+0	1.459427E+0	1.521888E+0	1.480528E+0	1.497355E+0	1.426526E+0	1.423002E+0	1.466552E+0	1.417609E+0
5.452580E+2	1.430739E+0	1.451607E+0	1.432782E+0	1.427624E+0	1.370331E+0	1.399845E+0	1.501368E+0	1.441472E+0	1.439849E+0	1.470773E+0	1.408737E+0	1.444817E+0	1.466716E+0	1.458111E+0	1.487109E+0	1.394980E+0	1.456440E+0	1.419396E+0	1.481187E+0	1.410095E+0	1.432934E+0	1.423325E+0	1.456417E+0	1.481560E+0	1.427065E+0	1.455031E+0	1.472726E+0	1.462140E+0	1.428856E+0	1.457237E+0	1.456050E+0	1.417618E+0	1.480399E+0	1.505486E+0	1.420408E+0	1.495211E+0	1.431702E+0	1.391754E+0	1.427558E+0	1.462943E+0	1.453212E+0	1.445984E+0	1.383140E+0	1.460322E+0	1.423320E+0	1.461668E+0	1.439403E+0	1.369431E+0	1.505814E+0	1.464782E+0	1.489651E+0	1.413584E+0	1.390026E+0	1.443857E+0	1.455462E+0	1.462477E+0	1.437995E+0	1.501337E+0	1.456921E+0	1.449412E+0	1.419541E+0	1.384691E+0	1.402933E+0	1.378400E+0	1.424830E+0	1.497862E+0	1.404478E+0	1.442991E+0	1.390430E+0	1.420612E+0	1.409966E+0	1.410397E+0	1.407251E+0	1.444440E+0	1.412446E+0	1.348245E+0	1.376120E+0	1.502221E+0	1.411171E+0	1.454041E+0	1.453628E+0	1.423149E+0	1.437495E+0	1.381165E+0	1.409846E+0	1.435546E+0	1.388598E+0	1.350547E+0	1.430029E+0	1.439128E+0	1.412155E+0	1.393394E+0	1.400726E+0	1.397624E+0	1.450030E+0	1.441660E+0	1.480210E+0	1.361655E+0	1.417470E+0	1.444710E+0	1.399021E+0	1.409075E+0	1.400781E+0	1.439509E+0	1.460694E+0	1.422064E+0	1.429539E+0	1.401429E+0	1.493874E+0	1.419999E+0	1.402180E+0	1.405500E+0	1.432716E+0	1.460193E+0	1.366844E+0	1.395735E+0	1.410852E+0	1.417186E+0	1.406168E+0	1.444045E+0	1.395553E+0	1.411701E+0	1.445406E+0	1.441574E+0	1.463894E+0	1.381861E+0	1.422077E+0	1.402635E+0	1.398306E+0	1.413414E+0	1.399555E+0	1.409416E+0	1.443162E+0	1.429546E+0	1.413458E+0	1.427270E+0	1.374645E+0	1.470953E+0	1.389642E+0	1.429371E+0	1.426014E+0	1.396866E+0	1.403759E+0	1.405361E+0	1.445423E+0	1.456258E+0	1.341530E+0	1.450187E+0	1.451524E+0	1.412491E+0	1.380758E+0	1.375118E+0	1.471386E+0	1.433782E+0	1.389595E+0	1.422519E+0	1.411683E+0	1.442484E+0	1.428771E+0	1.399225E+0	1.439857E+0	1.421462E+0	1.386620E+0	1.440288E+0	1.376887E+0	1.329800E+0
5.455130E+2	1.394544E+0	1.411430E+0	1.354343E+0	1.353345E+0	1.375219E+0	1.361855E+0	1.433499E+0	1.403009E+0	1.325721E+0	1.316876E+0	1.385968E+0	1.400009E+0	1.347764E+0	1.338623E+0	1.412165E+0	1.311010E+0	1.380162E+0	1.390173E+0	1.408641E+0	1.397789E+0	1.346017E+0	1.327606E+0	1.316491E+0	1.429760E+0	1.355762E+0	1.416038E+0	1.389546E+0	1.295333E+0	1.436446E+0	1.373476E+0	1.405251E+0	1.349068E+0	1.387706E+0	1.402647E+0	1.408092E+0	1.340771E+0	1.350166E+0	1.359621E+0	1.335564E+0	1.353184E+0	1.354945E+0	1.343690E+0	1.363006E+0	1.382304E+0	1.338985E+0	1.381146E+0	1.396832E+0	1.378390E+0	1.401249E+0	1.389064E+0	1.371361E+0	1.353747E+0	1.323111E+0	1.375278E+0	1.372543E+0	1.398120E+0	1.403620E+0	1.382385E+0	1.343911E+0	1.382599E+0	1.393286E+0	1.382595E+0	1.338747E+0	1.313290E+0	1.344680E+0	1.429286E+0	1.407694E+0	1.339214E+0	1.411717E+0	1.400314E+0	1.341494E+0	1.344730E+0	1.365570E+0	1.354165E+0	1.335241E+0	1.285556E+0	1.351626E+0	1.380222E+0	1.305899E+0	1.348106E+0	1.342130E+0	1.377433E+0	1.320434E+0	1.352749E+0	1.345396E+0	1.350876E+0	1.332622E+0	1.313869E+0	1.377043E+0	1.343085E+0	1.353457E+0	1.334793E+0	1.349255E+0	1.376324E+0	1.323997E+0	1.331065E+0	1.318319E+0	1.312562E+0	1.275168E+0	1.371194E+0	1.345718E+0	1.356277E+0	1.367165E+0	1.372982E+0	1.317553E+0	1.361057E+0	1.311536E+0	1.339663E+0	1.411520E+0	1.348820E+0	1.334749E+0	1.365324E+0	1.406635E+0	1.323926E+0	1.319587E+0	1.375273E+0	1.354519E+0	1.350106E+0	1.364520E+0	1.368893E+0	1.346581E+0	1.376119E+0	1.362612E+0	1.366883E+0	1.391460E+0	1.303170E+0	1.342575E+0	1.314949E+0	1.403813E+0	1.415299E+0	1.342471E+0	1.359663E+0	1.359905E+0	1.377626E+0	1.387168E+0	1.336371E+0	1.358746E+0	1.434679E+0	1.356757E+0	1.289280E+0	1.349469E+0	1.310640E+0	1.359885E+0	1.374045E+0	1.377241E+0	1.371887E+0	1.304803E+0	1.355781E+0	1.426064E+0	1.336728E+0	1.386316E+0	1.299449E+0	1.361228E+0	1.297124E+0	1.331149E+0	1.339461E+0	1.382259E+0	1.366810E+0	1.340486E+0	1.315364E+0	1.384189E+0	1.350601E+0	1.305172E+0	1.288846E+0	1.331032E+0	1.341322E+0
5.457890E+2	1.327429E+0	1.351199E+0	1.309055E+0	1.269827E+0	1.237398E+0	1.306063E+0	1.299735E+0	1.286870E+0	1.280479E+0	1.271684E+0	1.267703E+0	1.360925E+0	1.243586E+0	1.298969E+0	1.355644E+0	1.259133E+0	1.277477E+0	1.327371E+0	1.295692E+0	1.294022E+0	1.334071E+0	1.316800E+0	1.311853E+0	1.291907E+0	1.254038E+0	1.308418E+0	1.401871E+0	1.246790E+0	1.285972E+0	1.279846E+0	1.325137E+0	1.324368E+0	1.271528E+0	1.303785E+0	1.286354E+0	1.296321E+0	1.324601E+0	1.356420E+0	1.302887E+0	1.327744E+0	1.313878E+0	1.289721E+0	1.307699E+0	1.276122E+0	1.283939E+0	1.352981E+0	1.309633E+0	1.294206E+0	1.310091E+0	1.316653E+0	1.302363E+0	1.308723E+0	1.280484E+0	1.304184E+0	1.273401E+0	1.234407E+0	1.308450E+0	1.290758E+0	1.276081E+0	1.282338E+0	1.251326E+0	1.308127E+0	1.277625E+0	1.291152E+0	1.306431E+0	1.377698E+0	1.332794E+0	1.273405E+0	1.273986E+0	1.295433E+0	1.276189E+0	1.306103E+0	1.299381E+0	1.330613E+0	1.289864E+0	1.247903E+0	1.276480E+0	1.313203E+0	1.271628E+0	1.276890E+0	1.339295E+0	1.294754E+0	1.284463E+0	1.286811E+0	1.255986E+0	1.243013E+0	1.269974E+0	1.306358E+0	1.290867E+0	1.278665E+0	1.318948E+0	1.298907E+0	1.318754E+0	1.257175E+0	1.265161E+0	1.279067E+0	1.353238E+0	1.307312E+0	1.285875E+0	1.256518E+0	1.307413E+0	1.334972E+0	1.237355E+0	1.344980E+0	1.348749E+0	1.253187E+0	1.216161E+0	1.258398E+0	1.284758E+0	1.307472E+0	1.290101E+0	1.257536E+0	1.327847E+0	1.278412E+0	1.180763E+0	1.245000E+0	1.328905E+0	1.298406E+0	1.286612E+0	1.297437E+0	1.277299E+0	1.256098E+0	1.278236E+0	1.220891E+0	1.308742E+0	1.314404E+0	1.266923E+0	1.274815E+0	1.304744E+0	1.288322E+0	1.274666E+0	1.253598E+0	1.308495E+0	1.272412E+0	1.293513E+0	1.260104E+0	1.260915E+0	1.271888E+0	1.217373E+0	1.270304E+0	1.297312E+0	1.308716E+0	1.267747E+0	1.284981E+0	1.297357E+0	1.313701E+0	1.194259E+0	1.266057E+0	1.259190E+0	1.268221E+0	1.210541E+0	1.280422E+0	1.301150E+0	1.371992E+0	1.271924E+0	1.279204E+0	1.277019E+0	1.323128E+0	1.283673E+0	1.284426E+0	1.262948E+0	1.294030E+0	1.319756E+0	1.245629E+0	1.286802E+0	1.155538E+0
5.460060E+2	1.254316E+0	1.278430E+0	1.206375E+0	1.166596E+0	1.227039E+0	1.199181E+0	1.285982E+0	1.198272E+0	1.231133E+0	1.262695E+0	1.219424E+0	1.297918E+0	1.199257E+0	1.239353E+0	1.218515E+0	1.273256E+0	1.201414E+0	1.229533E+0	1.187976E+0	1.224503E+0	1.212221E+0	1.263436E+0	1.185095E+0	1.226343E+0	1.206964E+0	1.256193E+0	1.273443E+0	1.276462E+0	1.252133E+0	1.311554E+0	1.252515E+0	1.249104E+0	1.293649E+0	1.239295E+0	1.208390E+0	1.225993E+0	1.181305E+0	1.226129E+0	1.220562E+0	1.209960E+0	1.233030E+0	1.231685E+0	1.239694E+0	1.198066E+0	1.226118E+0	1.250753E+0	1.206596E+0	1.260661E+0	1.237147E+0	1.264249E+0	1.223640E+0	1.239155E+0	1.228542E+0	1.226447E+0	1.217715E+0	1.205633E+0	1.191756E+0	1.209026E+0	1.179886E+0	1.230640E+0	1.197349E+0	1.268576E+0	1.224609E+0	1.209973E+0	1.227898E+0	1.267817E+0	1.241841E+0	1.156565E+0	1.196324E+0	1.245498E+0	1.253728E+0	1.173348E+0	1.230755E+0	1.271855E+0	1.240691E+0	1.162568E+0	1.167806E+0	1.270812E+0	1.240545E+0	1.177032E+0	1.229231E+0	1.286318E+0	1.201204E+0	1.236215E+0	1.183821E+0	1.268506E+0	1.218746E+0	1.181231E+0	1.231709E+0	1.227751E+0	1.238457E+0	1.249833E+0	1.226255E+0	1.221739E+0	1.219991E+0	1.229618E+0	1.246505E+0	1.185401E+0	1.227459E+0	1.221293E+0	1.221952E+0	1.179391E+0	1.166560E+0	1.207817E+0	1.279123E+0	1.191770E+0	1.253780E+0	1.212670E+0	1.236914E+0	1.243370E+0	1.241752E+0	1.250571E+0	1.258699E+0	1.253560E+0	1.211618E+0	1.222374E+0	1.177587E+0	1.273383E+0	1.207708E+0	1.226625E+0	1.236403E+0	1.303993E+0	1.236726E+0	1.201221E+0	1.296046E+0	1.181429E+0	1.186666E+0	1.193156E+0	1.173553E+0	1.243649E+0	1.210955E+0	1.260026E+0	1.214971E+0	1.286638E+0	1.234856E+0	1.218243E+0	1.188392E+0	1.305830E+0	1.217092E+0	1.215969E+0	1.213234E+0	1.192875E+0	1.218190E+0	1.268583E+0	1.165034E+0	1.260948E+0	1.214515E+0	1.194592E+0	1.229788E+0	1.232195E+0	1.189993E+0	1.232122E+0	1.219881E+0	1.196903E+0	1.195716E+0	1.263547E+0	1.240881E+0	1.194479E+0	1.182398E+0	1.225777E+0	1.258906E+0	1.264302E+0	1.160318E+0	1.186580E+0	1.218454E+0	1.234709E+0
5.467600E+2	1.249655E+0	1.245798E+0	1.196501E+0	1.202060E+0	1.255650E+0	1.287146E+0	1.206445E+0	1.209445E+0	1.188762E+0	1.246606E+0	1.158705E+0	1.240842E+0	1.143559E+0	1.185038E+0	1.218649E+0	1.255901E+0	1.225163E+0	1.212679E+0	1.228830E+0	1.172818E+0	1.202601E+0	1.184530E+0	1.207346E+0	1.206812E+0	1.163328E+0	1.196731E+0	1.245308E+0	1.182928E+0	1.215364E+0	1.196048E+0	1.195305E+0	1.198716E+0	1.233935E+0	1.187652E+0	1.218400E+0	1.197399E+0	1.216253E+0	1.158829E+0	1.266859E+0	1.205698E+0	1.193693E+0	1.248107E+0	1.158720E+0	1.206926E+0	1.170494E+0	1.204770E+0	1.198142E+0	1.169014E+0	1.223627E+0	1.193000E+0	1.247125E+0	1.212974E+0	1.168684E+0	1.190752E+0	1.213943E+0	1.156200E+0	1.169794E+0	1.217297E+0	1.196793E+0	1.205955E+0	1.182338E+0	1.168996E+0	1.169798E+0	1.176860E+0	1.184859E+0	1.233735E+0	1.245964E+0	1.185095E+0	1.240568E+0	1.245203E+0	1.175770E+0	1.195092E+0	1.194247E+0	1.136216E+0	1.201344E+0	1.172465E+0	1.206082E+0	1.253292E+0	1.192007E+0	1.287542E+0	1.212639E+0	1.264428E+0	1.191680E+0	1.202696E+0	1.133732E+0	1.165323E+0	1.175233E+0	1.248919E+0	1.195140E+0	1.181625E+0	1.204256E+0	1.139628E+0	1.213279E+0	1.197476E+0	1.162139E+0	1.151713E+0	1.207419E+0	1.205099E+0	1.167051E+0	1.172562E+0	1.181778E+0	1.228542E+0	1.188714E+0	1.196600E+0	1.203003E+0	1.155878E+0	1.180821E+0	1.169692E+0	1.206468E+0	1.226789E+0	1.216993E+0	1.173152E+0	1.188694E+0	1.213919E+0	1.166851E+0	1.221453E+0	1.236165E+0	1.194128E+0	1.236333E+0	1.216256E+0	1.156039E+0	1.169197E+0	1.132709E+0	1.243086E+0	1.158221E+0	1.169404E+0	1.227010E+0	1.146501E+0	1.133126E+0	1.210917E+0	1.237753E+0	1.180902E+0	1.188240E+0	1.237242E+0	1.180514E+0	1.173304E+0	1.136888E+0	1.201145E+0	1.176135E+0	1.171338E+0	1.183171E+0	1.222654E+0	1.120704E+0	1.166275E+0	1.092599E+0	1.237870E+0	1.163542E+0	1.202742E+0	1.165936E+0	1.173979E+0	1.158850E+0	1.197178E+0	1.221352E+0	1.210942E+0	1.196089E+0	1.178993E+0	1.194447E+0	1.253697E+0	1.157449E+0	1.197895E+0	1.153598E+0	1.209959E+0	1.184442E+0	1.252064E+0	1.237624E+0	1.141915E+0
5.475230E+2	1.342029E+0	1.293777E+0	1.292062E+0	1.310188E+0	1.301095E+0	1.268366E+0	1.331678E+0	1.268939E+0	1.263459E+0	1.309445E+0	1.255408E+0	1.347471E+0	1.304451E+0	1.336807E+0	1.292737E+0	1.310513E+0	1.265347E+0	1.311623E+0	1.374401E+0	1.327880E+0	1.292419E+0	1.335274E+0	1.309189E+0	1.346349E+0	1.247574E+0	1.321250E+0	1.304038E+0	1.303113E+0	1.308390E+0	1.311902E+0	1.337544E+0	1.292297E+0	1.318654E+0	1.250838E+0	1.261236E+0	1.247065E+0	1.326056E+0	1.320310E+0	1.273109E+0	1.315981E+0	1.270989E+0	1.289166E+0	1.267387E+0	1.276912E+0	1.265735E+0	1.293571E+0	1.280085E+0	1.299333E+0	1.288421E+0	1.321600E+0	1.293322E+0	1.353509E+0	1.307716E+0	1.260686E+0	1.365763E+0	1.311670E+0	1.262785E+0	1.356656E+0	1.230568E+0	1.305725E+0	1.332255E+0	1.292866E+0	1.328181E+0	1.270722E+0	1.263487E+0	1.380909E+0	1.306202E+0	1.265263E+0	1.318553E+0	1.335966E+0	1.239053E+0	1.290055E+0	1.284324E+0	1.280689E+0	1.287445E+0	1.264353E+0	1.303496E+0	1.350315E+0	1.288695E+0	1.281628E+0	1.255922E+0	1.318914E+0	1.259241E+0	1.255798E+0	1.327438E+0	1.240193E+0	1.251497E+0	1.296886E+0	1.284636E+0	1.274263E+0	1.257727E+0	1.308722E+0	1.300052E+0	1.296457E+0	1.281655E+0	1.292947E+0	1.304333E+0	1.289001E+0	1.341687E+0	1.273766E+0	1.260469E+0	1.252814E+0	1.307598E+0	1.270385E+0	1.292960E+0	1.310504E+0	1.282294E+0	1.224438E+0	1.314296E+0	1.308663E+0	1.339991E+0	1.260690E+0	1.251048E+0	1.261020E+0	1.276994E+0	1.304240E+0	1.277692E+0	1.240779E+0	1.288054E+0	1.284473E+0	1.249460E+0	1.363476E+0	1.296698E+0	1.291025E+0	1.338042E+0	1.301417E+0	1.277390E+0	1.315687E+0	1.297451E+0	1.387201E+0	1.308601E+0	1.259520E+0	1.314953E+0	1.301895E+0	1.256761E+0	1.342814E+0	1.365972E+0	1.364222E+0	1.274383E+0	1.255335E+0	1.307649E+0	1.288376E+0	1.235553E+0	1.299032E+0	1.290826E+0	1.307969E+0	1.273327E+0	1.244953E+0	1.272149E+0	1.285565E+0	1.252933E+0	1.181058E+0	1.267346E+0	1.289714E+0	1.316458E+0	1.275021E+0	1.270985E+0	1.299822E+0	1.286605E+0	1.264825E+0	1.243193E+0	1.295672E+0	1.268771E+0	1.197711E+0	1.179602E+0	1.346528E+0
5.482600E+2	1.429753E+0	1.346950E+0	1.346852E+0	1.394505E+0	1.328161E+0	1.408027E+0	1.428353E+0	1.375157E+0	1.384386E+0	1.430047E+0	1.320395E+0	1.428074E+0	1.425443E+0	1.453690E+0	1.401562E+0	1.384511E+0	1.383730E+0	1.402537E+0	1.377358E+0	1.334067E+0	1.409244E+0	1.399594E+0	1.441836E+0	1.473668E+0	1.409438E+0	1.425355E+0	1.464045E+0	1.377732E+0	1.439186E+0	1.408316E+0	1.445199E+0	1.377083E+0	1.362694E+0	1.409829E+0	1.384375E+0	1.406100E+0	1.342162E+0	1.398387E+0	1.336590E+0	1.397354E+0	1.396303E+0	1.418675E+0	1.423547E+0	1.406124E+0	1.351707E+0	1.388739E+0	1.349132E+0	1.386806E+0	1.443295E+0	1.396409E+0	1.355643E+0	1.369373E+0	1.399048E+0	1.380429E+0	1.363399E+0	1.424893E+0	1.409005E+0	1.401455E+0	1.375367E+0	1.322933E+0	1.376354E+0	1.453307E+0	1.348974E+0	1.337331E+0	1.388710E+0	1.426656E+0	1.395924E+0	1.401654E+0	1.348565E+0	1.408640E+0	1.343638E+0	1.340387E+0	1.346614E+0	1.405723E+0	1.407885E+0	1.363351E+0	1.340259E+0	1.423478E+0	1.340673E+0	1.403295E+0	1.375848E+0	1.443692E+0	1.365098E+0	1.350669E+0	1.434683E+0	1.372345E+0	1.422800E+0	1.394898E+0	1.306291E+0	1.376340E+0	1.355140E+0	1.368647E+0	1.381019E+0	1.454671E+0	1.320847E+0	1.340546E+0	1.365250E+0	1.403661E+0	1.383462E+0	1.405969E+0	1.420340E+0	1.345959E+0	1.363790E+0	1.333960E+0	1.359699E+0	1.377832E+0	1.340020E+0	1.362273E+0	1.437797E+0	1.408830E+0	1.368434E+0	1.375109E+0	1.373560E+0	1.399685E+0	1.371332E+0	1.396956E+0	1.369703E+0	1.409209E+0	1.367490E+0	1.370317E+0	1.400814E+0	1.377720E+0	1.365249E+0	1.395978E+0	1.463519E+0	1.371894E+0	1.329913E+0	1.377886E+0	1.390706E+0	1.398098E+0	1.421823E+0	1.373329E+0	1.420663E+0	1.444143E+0	1.361129E+0	1.362348E+0	1.416860E+0	1.343370E+0	1.303764E+0	1.365890E+0	1.379993E+0	1.345164E+0	1.315658E+0	1.324751E+0	1.410704E+0	1.385883E+0	1.370316E+0	1.310870E+0	1.347557E+0	1.366791E+0	1.386862E+0	1.381000E+0	1.409079E+0	1.389889E+0	1.413082E+0	1.430064E+0	1.323537E+0	1.409002E+0	1.363048E+0	1.384312E+0	1.364625E+0	1.419818E+0	1.337133E+0	1.369482E+0	1.374216E+0	1.402470E+0
5.490100E+2	1.426744E+0	1.431225E+0	1.376785E+0	1.370563E+0	1.361471E+0	1.383180E+0	1.447496E+0	1.404941E+0	1.349627E+0	1.422428E+0	1.391371E+0	1.422933E+0	1.399656E+0	1.424308E+0	1.405475E+0	1.393195E+0	1.422722E+0	1.414987E+0	1.406936E+0	1.363605E+0	1.396016E+0	1.390443E+0	1.351154E+0	1.377930E+0	1.347966E+0	1.429801E+0	1.469998E+0	1.403141E+0	1.404385E+0	1.390449E+0	1.462791E+0	1.364730E+0	1.412096E+0	1.464084E+0	1.397597E+0	1.362064E+0	1.350515E+0	1.382287E+0	1.380528E+0	1.385827E+0	1.388418E+0	1.415249E+0	1.431155E+0	1.389549E+0	1.370080E+0	1.391510E+0	1.376728E+0	1.377470E+0	1.377923E+0	1.468952E+0	1.431600E+0	1.348119E+0	1.344514E+0	1.402869E+0	1.361078E+0	1.430190E+0	1.421549E+0	1.401372E+0	1.408593E+0	1.358158E+0	1.426162E+0	1.417367E+0	1.403432E+0	1.440270E+0	1.396357E+0	1.418682E+0	1.435813E+0	1.421344E+0	1.366170E+0	1.390276E+0	1.353257E+0	1.399910E+0	1.394462E+0	1.359118E+0	1.376478E+0	1.404350E+0	1.370389E+0	1.476286E+0	1.369213E+0	1.396673E+0	1.441481E+0	1.369629E+0	1.347223E+0	1.393305E+0	1.400763E+0	1.392923E+0	1.356657E+0	1.387236E+0	1.397567E+0	1.435162E+0	1.421101E+0	1.422589E+0	1.411383E+0	1.419505E+0	1.393389E+0	1.368958E+0	1.409056E+0	1.386728E+0	1.363411E+0	1.346668E+0	1.439653E+0	1.368880E+0	1.379816E+0	1.390504E+0	1.375859E+0	1.361382E+0	1.347888E+0	1.405404E+0	1.351873E+0	1.414804E+0	1.392560E+0	1.338997E+0	1.378332E+0	1.375073E+0	1.287878E+0	1.365690E+0	1.383596E+0	1.340195E+0	1.389915E+0	1.362707E+0	1.359974E+0	1.426997E+0	1.369985E+0	1.463967E+0	1.347623E+0	1.424411E+0	1.299908E+0	1.353232E+0	1.365723E+0	1.476755E+0	1.427351E+0	1.400416E+0	1.372214E+0	1.414720E+0	1.375268E+0	1.454632E+0	1.395080E+0	1.404520E+0	1.343896E+0	1.358817E+0	1.343314E+0	1.419052E+0	1.361098E+0	1.380434E+0	1.423270E+0	1.369136E+0	1.365642E+0	1.388793E+0	1.409146E+0	1.423445E+0	1.366377E+0	1.399322E+0	1.384297E+0	1.384503E+0	1.397973E+0	1.352664E+0	1.293304E+0	1.350041E+0	1.327716E+0	1.401021E+0	1.358124E+0	1.391734E+0	1.337395E+0	1.379430E+0	1.379041E+0	1.313954E+0
5.497680E+2	1.385996E+0	1.368018E+0	1.349019E+0	1.363402E+0	1.403315E+0	1.308945E+0	1.367451E+0	1.363841E+0	1.340805E+0	1.358302E+0	1.372761E+0	1.387052E+0	1.347361E+0	1.324366E+0	1.374636E+0	1.323551E+0	1.441220E+0	1.378549E+0	1.348491E+0	1.324078E+0	1.326171E+0	1.356564E+0	1.335373E+0	1.377239E+0	1.319070E+0	1.359472E+0	1.384234E+0	1.360581E+0	1.365031E+0	1.372192E+0	1.393258E+0	1.330012E+0	1.356317E+0	1.430523E+0	1.332550E+0	1.406204E+0	1.337561E+0	1.320253E+0	1.283628E+0	1.407968E+0	1.403558E+0	1.358402E+0	1.334999E+0	1.319878E+0	1.279958E+0	1.378570E+0	1.412822E+0	1.361196E+0	1.387775E+0	1.373407E+0	1.300740E+0	1.314623E+0	1.317486E+0	1.354324E+0	1.308228E+0	1.394957E+0	1.376292E+0	1.379651E+0	1.351749E+0	1.300274E+0	1.356299E+0	1.336067E+0	1.303946E+0	1.359465E+0	1.360396E+0	1.400827E+0	1.419002E+0	1.377413E+0	1.315316E+0	1.402342E+0	1.305849E+0	1.368878E+0	1.325022E+0	1.352888E+0	1.349452E+0	1.329098E+0	1.290249E+0	1.420403E+0	1.330897E+0	1.296477E+0	1.365494E+0	1.355615E+0	1.348536E+0	1.333391E+0	1.349643E+0	1.309112E+0	1.380794E+0	1.354257E+0	1.384293E+0	1.312305E+0	1.301133E+0	1.290218E+0	1.366857E+0	1.371473E+0	1.284143E+0	1.283556E+0	1.322152E+0	1.365625E+0	1.264653E+0	1.313673E+0	1.369746E+0	1.355822E+0	1.374294E+0	1.305111E+0	1.389118E+0	1.315856E+0	1.347991E+0	1.313143E+0	1.396995E+0	1.323725E+0	1.362062E+0	1.309526E+0	1.377558E+0	1.377785E+0	1.327748E+0	1.340028E+0	1.295754E+0	1.320788E+0	1.315477E+0	1.289282E+0	1.330817E+0	1.350116E+0	1.309931E+0	1.373276E+0	1.368193E+0	1.303170E+0	1.335461E+0	1.338867E+0	1.346695E+0	1.379473E+0	1.369166E+0	1.354797E+0	1.285032E+0	1.353327E+0	1.339751E+0	1.297478E+0	1.291021E+0	1.384612E+0	1.295922E+0	1.324563E+0	1.321105E+0	1.410481E+0	1.304327E+0	1.356455E+0	1.299367E+0	1.412246E+0	1.316113E+0	1.344458E+0	1.313258E+0	1.332228E+0	1.311628E+0	1.348718E+0	1.337583E+0	1.344399E+0	1.301011E+0	1.354288E+0	1.224529E+0	1.307692E+0	1.323425E+0	1.326617E+0	1.297294E+0	1.370487E+0	1.356338E+0	1.391139E+0	1.374303E+0	1.275014E+0
5.505000E+2	1.370992E+0	1.322113E+0	1.275130E+0	1.329655E+0	1.299964E+0	1.378507E+0	1.372187E+0	1.335471E+0	1.276048E+0	1.313058E+0	1.320533E+0	1.340979E+0	1.295156E+0	1.341137E+0	1.385693E+0	1.293699E+0	1.299150E+0	1.365381E+0	1.361504E+0	1.329669E+0	1.347672E+0	1.281781E+0	1.329955E+0	1.341635E+0	1.280296E+0	1.366870E+0	1.324731E+0	1.351226E+0	1.348299E+0	1.364484E+0	1.374914E+0	1.347664E+0	1.332262E+0	1.350663E+0	1.255497E+0	1.306290E+0	1.321152E+0	1.306077E+0	1.300754E+0	1.292251E+0	1.333572E+0	1.352047E+0	1.368546E+0	1.328195E+0	1.326766E+0	1.329399E+0	1.277138E+0	1.305388E+0	1.374748E+0	1.302512E+0	1.368341E+0	1.348426E+0	1.258516E+0	1.313866E+0	1.293538E+0	1.252536E+0	1.280732E+0	1.333244E+0	1.279260E+0	1.306093E+0	1.328602E+0	1.286835E+0	1.295666E+0	1.314324E+0	1.299536E+0	1.351701E+0	1.348087E+0	1.290457E+0	1.300128E+0	1.354739E+0	1.307026E+0	1.240257E+0	1.294010E+0	1.317829E+0	1.337517E+0	1.243546E+0	1.326542E+0	1.363446E+0	1.342918E+0	1.276288E+0	1.323274E+0	1.357947E+0	1.291296E+0	1.302141E+0	1.227821E+0	1.326939E+0	1.295368E+0	1.320779E+0	1.335354E+0	1.265938E+0	1.311904E+0	1.346832E+0	1.314040E+0	1.319524E+0	1.267292E+0	1.290444E+0	1.308105E+0	1.329758E+0	1.328293E+0	1.329475E+0	1.284167E+0	1.337192E+0	1.348374E+0	1.259186E+0	1.370019E+0	1.316332E+0	1.287492E+0	1.292452E+0	1.337216E+0	1.330211E+0	1.317768E+0	1.330610E+0	1.278398E+0	1.372659E+0	1.306770E+0	1.295330E+0	1.296234E+0	1.350648E+0	1.285175E+0	1.294204E+0	1.294876E+0	1.325953E+0	1.249969E+0	1.301129E+0	1.371097E+0	1.308502E+0	1.262235E+0	1.346721E+0	1.341147E+0	1.348759E+0	1.316135E+0	1.313014E+0	1.342099E+0	1.308050E+0	1.282740E+0	1.305579E+0	1.315167E+0	1.262760E+0	1.288528E+0	1.315585E+0	1.330801E+0	1.306546E+0	1.221144E+0	1.326943E+0	1.330460E+0	1.380501E+0	1.310554E+0	1.258918E+0	1.326687E+0	1.359251E+0	1.324930E+0	1.315365E+0	1.310412E+0	1.248655E+0	1.317261E+0	1.295914E+0	1.282869E+0	1.325877E+0	1.284391E+0	1.303380E+0	1.329881E+0	1.316958E+0	1.323684E+0	1.258879E+0	1.274524E+0	1.334901E+0
5.512620E+2	1.306116E+0	1.317784E+0	1.305166E+0	1.326566E+0	1.348688E+0	1.369126E+0	1.384210E+0	1.312312E+0	1.260882E+0	1.296317E+0	1.310180E+0	1.343636E+0	1.308562E+0	1.325897E+0	1.354848E+0	1.299210E+0	1.362351E+0	1.359126E+0	1.380368E+0	1.278082E+0	1.312102E+0	1.315587E+0	1.317105E+0	1.349812E+0	1.297763E+0	1.317086E+0	1.345696E+0	1.334826E+0	1.333067E+0	1.359829E+0	1.359102E+0	1.286988E+0	1.331138E+0	1.340914E+0	1.289072E+0	1.296881E+0	1.345960E+0	1.347424E+0	1.252332E+0	1.354161E+0	1.254772E+0	1.362446E+0	1.285641E+0	1.303215E+0	1.233944E+0	1.350183E+0	1.347730E+0	1.274779E+0	1.350033E+0	1.300972E+0	1.327509E+0	1.427218E+0	1.292232E+0	1.334164E+0	1.279688E+0	1.249108E+0	1.355754E+0	1.354823E+0	1.350626E+0	1.312976E+0	1.315454E+0	1.321788E+0	1.294357E+0	1.289923E+0	1.313868E+0	1.317705E+0	1.368564E+0	1.325549E+0	1.296051E+0	1.346767E+0	1.346581E+0	1.289087E+0	1.314733E+0	1.343306E+0	1.271578E+0	1.330938E+0	1.294167E+0	1.337192E+0	1.321126E+0	1.340396E+0	1.297689E+0	1.338869E+0	1.311489E+0	1.294805E+0	1.307969E+0	1.305456E+0	1.330347E+0	1.294522E+0	1.294898E+0	1.340103E+0	1.303004E+0	1.290527E+0	1.291664E+0	1.308131E+0	1.307828E+0	1.292943E+0	1.361517E+0	1.369777E+0	1.251235E+0	1.329152E+0	1.267441E+0	1.328588E+0	1.329754E+0	1.324354E+0	1.348847E+0	1.307793E+0	1.303535E+0	1.290330E+0	1.339630E+0	1.312062E+0	1.270008E+0	1.284214E+0	1.301882E+0	1.257552E+0	1.303459E+0	1.265516E+0	1.284572E+0	1.320760E+0	1.305773E+0	1.320680E+0	1.279014E+0	1.290297E+0	1.261524E+0	1.288612E+0	1.308826E+0	1.362465E+0	1.208894E+0	1.336931E+0	1.270671E+0	1.334154E+0	1.327129E+0	1.300930E+0	1.238769E+0	1.339863E+0	1.303070E+0	1.317859E+0	1.300310E+0	1.348723E+0	1.282318E+0	1.316942E+0	1.286495E+0	1.325386E+0	1.273761E+0	1.301351E+0	1.234544E+0	1.368922E+0	1.239920E+0	1.267858E+0	1.254276E+0	1.353226E+0	1.307477E+0	1.243534E+0	1.310174E+0	1.303994E+0	1.294574E+0	1.347381E+0	1.282792E+0	1.272190E+0	1.267908E+0	1.348890E+0	1.308004E+0	1.309578E+0	1.230907E+0	1.241065E+0	1.268891E+0	1.369626E+0
5.520100E+2	1.297573E+0	1.308103E+0	1.268853E+0	1.298835E+0	1.281541E+0	1.328786E+0	1.369804E+0	1.317410E+0	1.293384E+0	1.255668E+0	1.266036E+0	1.262082E+0	1.327434E+0	1.291254E+0	1.295292E+0	1.373391E+0	1.344043E+0	1.341112E+0	1.367248E+0	1.244059E+0	1.278096E+0	1.291505E+0	1.312754E+0	1.318597E+0	1.317566E+0	1.307252E+0	1.283300E+0	1.312084E+0	1.275084E+0	1.314545E+0	1.321667E+0	1.365225E+0	1.325930E+0	1.331942E+0	1.307575E+0	1.320873E+0	1.302440E+0	1.360940E+0	1.287737E+0	1.318358E+0	1.291189E+0	1.339533E+0	1.235093E+0	1.300233E+0	1.252328E+0	1.381587E+0	1.287488E+0	1.328816E+0	1.372004E+0	1.342206E+0	1.334172E+0	1.328963E+0	1.262248E+0	1.320230E+0	1.321174E+0	1.269695E+0	1.279229E+0	1.292756E+0	1.253245E+0	1.317642E+0	1.335035E+0	1.295133E+0	1.269881E+0	1.352860E+0	1.288407E+0	1.397085E+0	1.293290E+0	1.306895E+0	1.278837E+0	1.322972E+0	1.299887E+0	1.261813E+0	1.262237E+0	1.320037E+0	1.309310E+0	1.252782E+0	1.333429E+0	1.311271E+0	1.272148E+0	1.319668E+0	1.351274E+0	1.360871E+0	1.270973E+0	1.261981E+0	1.312390E+0	1.284083E+0	1.239608E+0	1.267245E+0	1.312365E+0	1.276124E+0	1.317855E+0	1.292016E+0	1.288031E+0	1.326777E+0	1.263060E+0	1.277023E+0	1.285072E+0	1.303775E+0	1.286201E+0	1.273784E+0	1.290438E+0	1.310372E+0	1.301314E+0	1.335721E+0	1.332065E+0	1.324850E+0	1.281967E+0	1.270374E+0	1.362074E+0	1.291827E+0	1.266509E+0	1.300440E+0	1.282994E+0	1.332183E+0	1.250822E+0	1.292586E+0	1.279387E+0	1.300269E+0	1.282671E+0	1.278580E+0	1.294198E+0	1.290734E+0	1.342264E+0	1.361970E+0	1.258191E+0	1.306205E+0	1.245808E+0	1.251028E+0	1.305001E+0	1.301159E+0	1.339526E+0	1.269889E+0	1.334606E+0	1.330191E+0	1.262146E+0	1.223322E+0	1.248569E+0	1.312933E+0	1.250453E+0	1.277422E+0	1.274547E+0	1.312686E+0	1.257653E+0	1.334336E+0	1.267170E+0	1.284155E+0	1.283431E+0	1.292758E+0	1.275755E+0	1.342480E+0	1.277949E+0	1.270896E+0	1.261548E+0	1.282699E+0	1.275539E+0	1.307329E+0	1.239861E+0	1.289715E+0	1.271537E+0	1.313847E+0	1.272598E+0	1.339809E+0	1.243370E+0	1.223403E+0	1.347824E+0	1.334749E+0
5.527590E+2	1.323316E+0	1.272143E+0	1.236319E+0	1.220433E+0	1.199537E+0	1.267857E+0	1.249898E+0	1.242846E+0	1.276911E+0	1.258982E+0	1.290192E+0	1.312444E+0	1.269792E+0	1.198320E+0	1.271824E+0	1.230324E+0	1.309932E+0	1.269447E+0	1.280596E+0	1.281307E+0	1.257525E+0	1.240865E+0	1.247087E+0	1.253126E+0	1.215415E+0	1.321651E+0	1.342208E+0	1.298809E+0	1.263598E+0	1.275519E+0	1.269125E+0	1.283215E+0	1.325372E+0	1.251164E+0	1.309403E+0	1.272385E+0	1.269894E+0	1.267426E+0	1.273920E+0	1.319832E+0	1.217993E+0	1.286953E+0	1.263773E+0	1.267355E+0	1.221174E+0	1.377478E+0	1.223753E+0	1.222705E+0	1.343473E+0	1.284050E+0	1.247974E+0	1.289875E+0	1.243822E+0	1.307160E+0	1.240019E+0	1.219739E+0	1.274674E+0	1.270000E+0	1.246566E+0	1.242977E+0	1.237312E+0	1.289131E+0	1.228886E+0	1.317081E+0	1.259825E+0	1.296530E+0	1.293522E+0	1.208022E+0	1.286168E+0	1.284121E+0	1.249603E+0	1.232856E+0	1.254051E+0	1.288178E+0	1.297894E+0	1.208542E+0	1.227718E+0	1.256332E+0	1.245644E+0	1.245907E+0	1.274684E+0	1.298288E+0	1.318062E+0	1.283887E+0	1.221635E+0	1.248302E+0	1.272906E+0	1.234694E+0	1.276444E+0	1.240265E+0	1.262338E+0	1.272366E+0	1.279609E+0	1.298589E+0	1.306000E+0	1.231979E+0	1.267715E+0	1.279611E+0	1.219099E+0	1.275960E+0	1.300842E+0	1.273946E+0	1.246626E+0	1.277262E+0	1.321460E+0	1.282852E+0	1.248946E+0	1.222345E+0	1.279475E+0	1.259144E+0	1.223238E+0	1.227730E+0	1.233160E+0	1.294122E+0	1.232382E+0	1.263708E+0	1.253575E+0	1.254297E+0	1.227738E+0	1.290905E+0	1.307990E+0	1.288700E+0	1.186451E+0	1.249893E+0	1.284968E+0	1.292106E+0	1.258097E+0	1.205963E+0	1.233545E+0	1.293220E+0	1.331264E+0	1.242344E+0	1.304596E+0	1.296860E+0	1.248853E+0	1.220979E+0	1.227058E+0	1.305498E+0	1.252220E+0	1.259477E+0	1.288148E+0	1.304541E+0	1.276725E+0	1.278691E+0	1.228973E+0	1.349770E+0	1.228324E+0	1.285102E+0	1.233315E+0	1.228011E+0	1.249102E+0	1.206282E+0	1.245126E+0	1.276773E+0	1.232929E+0	1.228771E+0	1.211460E+0	1.287461E+0	1.263798E+0	1.231141E+0	1.211520E+0	1.304383E+0	1.278316E+0	1.174077E+0	1.271114E+0	1.288274E+0
5.535160E+2	1.189409E+0	1.256516E+0	1.219961E+0	1.213337E+0	1.237893E+0	1.197338E+0	1.256401E+0	1.214946E+0	1.243656E+0	1.173632E+0	1.167987E+0	1.216882E+0	1.236258E+0	1.201100E+0	1.219842E+0	1.242847E+0	1.241613E+0	1.223631E+0	1.257525E+0	1.189702E+0	1.243347E+0	1.220751E+0	1.209869E+0	1.239378E+0	1.198394E+0	1.235481E+0	1.281753E+0	1.190892E+0	1.230270E+0	1.235471E+0	1.271744E+0	1.255180E+0	1.158158E+0	1.258991E+0	1.222699E+0	1.184394E+0	1.237435E+0	1.203512E+0	1.201409E+0	1.263476E+0	1.229148E+0	1.233962E+0	1.209567E+0	1.240766E+0	1.210226E+0	1.247528E+0	1.259282E+0	1.211951E+0	1.273139E+0	1.218630E+0	1.196747E+0	1.242209E+0	1.228634E+0	1.190779E+0	1.211037E+0	1.223409E+0	1.203693E+0	1.206326E+0	1.228939E+0	1.195116E+0	1.252788E+0	1.226249E+0	1.222573E+0	1.253296E+0	1.166476E+0	1.235615E+0	1.204826E+0	1.256445E+0	1.154953E+0	1.263074E+0	1.159678E+0	1.215358E+0	1.267203E+0	1.229438E+0	1.213982E+0	1.115405E+0	1.211039E+0	1.209261E+0	1.173421E+0	1.228489E+0	1.252812E+0	1.249166E+0	1.158317E+0	1.197819E+0	1.251747E+0	1.204256E+0	1.230119E+0	1.234396E+0	1.186852E+0	1.225614E+0	1.219372E+0	1.265145E+0	1.194492E+0	1.257039E+0	1.173071E+0	1.219451E+0	1.252339E+0	1.255448E+0	1.218739E+0	1.275924E+0	1.217085E+0	1.219463E+0	1.212856E+0	1.232605E+0	1.189558E+0	1.163103E+0	1.201992E+0	1.229430E+0	1.236968E+0	1.201262E+0	1.229424E+0	1.201663E+0	1.260824E+0	1.257848E+0	1.149201E+0	1.185420E+0	1.248261E+0	1.228393E+0	1.221683E+0	1.240593E+0	1.251837E+0	1.213737E+0	1.183222E+0	1.263717E+0	1.226074E+0	1.282909E+0	1.180725E+0	1.207395E+0	1.206353E+0	1.230107E+0	1.148894E+0	1.225489E+0	1.232306E+0	1.273698E+0	1.224837E+0	1.178026E+0	1.197354E+0	1.271779E+0	1.232259E+0	1.213211E+0	1.191356E+0	1.219022E+0	1.191598E+0	1.289199E+0	1.220588E+0	1.236648E+0	1.212428E+0	1.203206E+0	1.207278E+0	1.194096E+0	1.195478E+0	1.207552E+0	1.185840E+0	1.211383E+0	1.195700E+0	1.206796E+0	1.197507E+0	1.220691E+0	1.193004E+0	1.197645E+0	1.229774E+0	1.235197E+0	1.201717E+0	1.177251E+0	1.238914E+0	1.163696E+0
5.542640E+2	1.114614E+0	1.162510E+0	1.182830E+0	1.108221E+0	1.153392E+0	1.119899E+0	1.152572E+0	1.112667E+0	1.100399E+0	1.146050E+0	1.150046E+0	1.185812E+0	1.136081E+0	1.149291E+0	1.129890E+0	1.135591E+0	1.157794E+0	1.145822E+0	1.124451E+0	1.114878E+0	1.136485E+0	1.111941E+0	1.145046E+0	1.157103E+0	1.067286E+0	1.168751E+0	1.152337E+0	1.151044E+0	1.093361E+0	1.105878E+0	1.150799E+0	1.155226E+0	1.161866E+0	1.146988E+0	1.087631E+0	1.129793E+0	1.148874E+0	1.161910E+0	1.162193E+0	1.171723E+0	1.164744E+0	1.118424E+0	1.213922E+0	1.145232E+0	1.158021E+0	1.105041E+0	1.121263E+0	1.126497E+0	1.177864E+0	1.113010E+0	1.143372E+0	1.136434E+0	1.125913E+0	1.134782E+0	1.145352E+0	1.144198E+0	1.124414E+0	1.183241E+0	1.103517E+0	1.152681E+0	1.146971E+0	1.140925E+0	1.098680E+0	1.126569E+0	1.122877E+0	1.154667E+0	1.164199E+0	1.173771E+0	1.134969E+0	1.159125E+0	1.135228E+0	1.140585E+0	1.173415E+0	1.139051E+0	1.163968E+0	1.142817E+0	1.125311E+0	1.174065E+0	1.156233E+0	1.157279E+0	1.122963E+0	1.168282E+0	1.187136E+0	1.093589E+0	1.155470E+0	1.138161E+0	1.098584E+0	1.092846E+0	1.116750E+0	1.107584E+0	1.180541E+0	1.148380E+0	1.104826E+0	1.148194E+0	1.118844E+0	1.118993E+0	1.140900E+0	1.149134E+0	1.109890E+0	1.113191E+0	1.171031E+0	1.121085E+0	1.172181E+0	1.187395E+0	1.109110E+0	1.152340E+0	1.164079E+0	1.153062E+0	1.108359E+0	1.113156E+0	1.123241E+0	1.114975E+0	1.122908E+0	1.205135E+0	1.106741E+0	1.124881E+0	1.044302E+0	1.176343E+0	1.131881E+0	1.159996E+0	1.167771E+0	1.136208E+0	1.154224E+0	1.149563E+0	1.162851E+0	1.131844E+0	1.130996E+0	1.115481E+0	1.063440E+0	1.126662E+0	1.167371E+0	1.113497E+0	1.140398E+0	1.188185E+0	1.113206E+0	1.180320E+0	1.143451E+0	1.140846E+0	1.122546E+0	1.118084E+0	1.157878E+0	1.134920E+0	1.109800E+0	1.196079E+0	1.132619E+0	1.159756E+0	1.148481E+0	1.113614E+0	1.075511E+0	1.170519E+0	1.111579E+0	1.141104E+0	1.107750E+0	1.124638E+0	1.126989E+0	1.124672E+0	1.123017E+0	1.162875E+0	1.122678E+0	1.138121E+0	1.126601E+0	1.181765E+0	1.137012E+0	1.127315E+0	1.157692E+0	1.135978E+0
5.550140E+2	1.049942E+0	1.040004E+0	1.040468E+0	1.004321E+0	9.914827E-1	1.100509E+0	1.098045E+0	1.051761E+0	1.071300E+0	9.930225E-1	1.031068E+0	1.042295E+0	1.034207E+0	1.059735E+0	1.075511E+0	1.047656E+0	1.053903E+0	1.053269E+0	1.063926E+0	1.028933E+0	1.058217E+0	1.042109E+0	1.106785E+0	1.037309E+0	1.013582E+0	1.078012E+0	1.068523E+0	1.097231E+0	1.061823E+0	1.037898E+0	1.027517E+0	1.070217E+0	1.095080E+0	1.050923E+0	1.033241E+0	1.124821E+0	1.029031E+0	1.058807E+0	1.057384E+0	1.062240E+0	1.074991E+0	1.088661E+0	1.047839E+0	1.051912E+0	1.047809E+0	1.049641E+0	1.020140E+0	9.871287E-1	1.052827E+0	1.048054E+0	1.039263E+0	1.052547E+0	1.000894E+0	1.062328E+0	1.049891E+0	1.034729E+0	1.021658E+0	1.069579E+0	1.035432E+0	1.049296E+0	1.055524E+0	1.052270E+0	1.021807E+0	1.020414E+0	1.052740E+0	1.014622E+0	1.123533E+0	1.067874E+0	1.076688E+0	1.078109E+0	1.050388E+0	1.003561E+0	1.071798E+0	1.051489E+0	1.025218E+0	1.064801E+0	1.033912E+0	1.087104E+0	1.064079E+0	1.048124E+0	1.042825E+0	1.042602E+0	1.067965E+0	1.014192E+0	1.037002E+0	1.050189E+0	9.906051E-1	1.039022E+0	1.022280E+0	1.024301E+0	1.041741E+0	1.080936E+0	1.086564E+0	1.017428E+0	1.088760E+0	1.044696E+0	1.073542E+0	1.017010E+0	1.042960E+0	1.034262E+0	1.067998E+0	1.039995E+0	1.057027E+0	1.049335E+0	1.097503E+0	1.063993E+0	1.042008E+0	1.024803E+0	1.031617E+0	1.007219E+0	1.068414E+0	1.008608E+0	1.020982E+0	1.066558E+0	1.035808E+0	1.029980E+0	1.033278E+0	1.016218E+0	1.100148E+0	1.050936E+0	1.050367E+0	1.065937E+0	9.924915E-1	1.041387E+0	1.062566E+0	1.035682E+0	1.084142E+0	1.033065E+0	1.069373E+0	1.065764E+0	1.044004E+0	1.045341E+0	1.034184E+0	1.077273E+0	1.070425E+0	1.027248E+0	1.046920E+0	1.085611E+0	1.086721E+0	1.023270E+0	1.022212E+0	1.067821E+0	1.024084E+0	1.048718E+0	1.073693E+0	1.035332E+0	9.590831E-1	9.763186E-1	1.024924E+0	1.067777E+0	1.054410E+0	1.073187E+0	1.085208E+0	1.057017E+0	1.014355E+0	1.012372E+0	9.652941E-1	1.081316E+0	1.018046E+0	1.033283E+0	1.001691E+0	1.055012E+0	1.024719E+0	9.589590E-1	1.069246E+0	9.394577E-1
5.558000E+2	9.488127E-1	9.698281E-1	9.581833E-1	9.572768E-1	9.698906E-1	9.850117E-1	9.897533E-1	9.906860E-1	9.873089E-1	9.844383E-1	9.579247E-1	9.909877E-1	9.591939E-1	9.689622E-1	1.000561E+0	9.255232E-1	9.797062E-1	9.606831E-1	9.945280E-1	9.401768E-1	9.717367E-1	9.508255E-1	9.613119E-1	9.899735E-1	9.350587E-1	1.017911E+0	9.996045E-1	9.054535E-1	9.744693E-1	9.496102E-1	9.926283E-1	9.468940E-1	9.592404E-1	9.781180E-1	9.367975E-1	9.683301E-1	9.565804E-1	9.323709E-1	9.669583E-1	9.429794E-1	9.759290E-1	9.518756E-1	9.514833E-1	9.439421E-1	9.277181E-1	9.529937E-1	9.839881E-1	9.532675E-1	9.933730E-1	9.702393E-1	9.727435E-1	1.009719E+0	9.412037E-1	9.608284E-1	9.926695E-1	9.778039E-1	9.935587E-1	9.664574E-1	9.491192E-1	9.964686E-1	9.630514E-1	9.310361E-1	9.511353E-1	9.657257E-1	9.593841E-1	9.743894E-1	9.781518E-1	9.295354E-1	9.788862E-1	9.726402E-1	9.742172E-1	9.488171E-1	9.614898E-1	9.826581E-1	9.811490E-1	9.643368E-1	9.457253E-1	1.012544E+0	9.453529E-1	9.649981E-1	9.592077E-1	9.807019E-1	9.611015E-1	9.706736E-1	9.521259E-1	9.498792E-1	9.670121E-1	9.650653E-1	9.381530E-1	1.012848E+0	9.525584E-1	9.293251E-1	9.965339E-1	9.483159E-1	9.827387E-1	9.544753E-1	1.007185E+0	9.497044E-1	9.634234E-1	9.590674E-1	1.004700E+0	9.404418E-1	9.980609E-1	9.534275E-1	9.751841E-1	9.211787E-1	9.822961E-1	9.412778E-1	9.644235E-1	9.622206E-1	9.309890E-1	9.791964E-1	9.844299E-1	1.025715E+0	9.726240E-1	9.673539E-1	9.479991E-1	1.014332E+0	9.310066E-1	9.674454E-1	9.503506E-1	9.822867E-1	9.907711E-1	9.514225E-1	9.873289E-1	9.585494E-1	9.504131E-1	9.359387E-1	9.680944E-1	9.758010E-1	9.665837E-1	9.154283E-1	9.894211E-1	1.032824E+0	9.477441E-1	9.932045E-1	1.007109E+0	9.778726E-1	1.003645E+0	9.473825E-1	9.714326E-1	9.686417E-1	1.027165E+0	9.648752E-1	9.204578E-1	1.015962E+0	9.654463E-1	9.859887E-1	9.506048E-1	9.705745E-1	9.916135E-1	9.310943E-1	9.245604E-1	9.811976E-1	1.001050E+0	9.594151E-1	9.691452E-1	1.009746E+0	9.362329E-1	1.010112E+0	9.769827E-1	9.472789E-1	9.788863E-1	9.340439E-1	9.814252E-1	9.846706E-1
5.560080E+2	1.028696E+0	1.009884E+0	9.246013E-1	9.840004E-1	9.172026E-1	9.942812E-1	1.016142E+0	9.816907E-1	9.733765E-1	9.958039E-1	9.253845E-1	1.006904E+0	9.833112E-1	9.647208E-1	9.468337E-1	9.426672E-1	9.837906E-1	9.871649E-1	9.863110E-1	1.006111E+0	9.899984E-1	9.946772E-1	9.703675E-1	9.561984E-1	9.167109E-1	9.956049E-1	1.019155E+0	9.646406E-1	1.003526E+0	9.715691E-1	1.053629E+0	9.893195E-1	9.803661E-1	1.027693E+0	1.041339E+0	9.571452E-1	9.967598E-1	9.597969E-1	9.697297E-1	9.779390E-1	9.612761E-1	9.781657E-1	9.737722E-1	9.643713E-1	9.838240E-1	9.503445E-1	1.030171E+0	1.024035E+0	9.811422E-1	9.755775E-1	9.784260E-1	9.763273E-1	9.834612E-1	9.245598E-1	1.022170E+0	9.717078E-1	9.887402E-1	1.004203E+0	1.022881E+0	9.613932E-1	1.042421E+0	9.875785E-1	9.981169E-1	9.875107E-1	9.866768E-1	9.573418E-1	1.035454E+0	9.649895E-1	1.034629E+0	9.622288E-1	9.707597E-1	9.874269E-1	9.584612E-1	9.830193E-1	9.647866E-1	9.639833E-1	9.385549E-1	1.016455E+0	9.833093E-1	9.648569E-1	9.714162E-1	9.827693E-1	9.453517E-1	9.373243E-1	9.605501E-1	9.406786E-1	9.630252E-1	9.377788E-1	9.853521E-1	9.661945E-1	1.006541E+0	9.792667E-1	9.800465E-1	9.654486E-1	9.984810E-1	9.327988E-1	9.983390E-1	9.495908E-1	1.005840E+0	9.956853E-1	9.810619E-1	1.018667E+0	9.632046E-1	9.768458E-1	1.043295E+0	9.999202E-1	9.771572E-1	9.892635E-1	9.724477E-1	9.901790E-1	1.009619E+0	9.535402E-1	9.703227E-1	9.698348E-1	9.427579E-1	9.980522E-1	9.698796E-1	9.596611E-1	9.658624E-1	9.663643E-1	1.002468E+0	9.585420E-1	9.925449E-1	9.452089E-1	9.523275E-1	9.882202E-1	9.678899E-1	9.513722E-1	1.009731E+0	9.983587E-1	1.010500E+0	9.978950E-1	1.002319E+0	1.012682E+0	1.001888E+0	9.751621E-1	9.643688E-1	9.543844E-1	9.239956E-1	9.483089E-1	9.970619E-1	9.848549E-1	9.943443E-1	9.983808E-1	9.857268E-1	9.912389E-1	9.498073E-1	9.643049E-1	9.658529E-1	9.929312E-1	9.485571E-1	9.981385E-1	9.404606E-1	1.024079E+0	9.873016E-1	9.848257E-1	1.017596E+0	9.942215E-1	9.916159E-1	9.499713E-1	9.959205E-1	1.011896E+0	9.292386E-1	9.830171E-1	9.866279E-1	1.021918E+0
5.565030E+2	1.007575E+0	9.907442E-1	9.623676E-1	9.620049E-1	9.595924E-1	9.504861E-1	9.652552E-1	9.977345E-1	1.010696E+0	9.317924E-1	9.635091E-1	9.530839E-1	1.020490E+0	1.006617E+0	9.924774E-1	9.839728E-1	9.799594E-1	9.543635E-1	9.823904E-1	9.978669E-1	9.786061E-1	9.886108E-1	1.001731E+0	9.922914E-1	9.569226E-1	9.588771E-1	9.722467E-1	9.825055E-1	1.002297E+0	9.689149E-1	9.758634E-1	9.797383E-1	9.632715E-1	9.655314E-1	9.695982E-1	9.651082E-1	1.013555E+0	9.965268E-1	9.674620E-1	9.675842E-1	9.647452E-1	9.437066E-1	9.742372E-1	9.587861E-1	9.781293E-1	9.310345E-1	9.684747E-1	9.890980E-1	9.490372E-1	9.513507E-1	1.003375E+0	9.674181E-1	8.996523E-1	9.610437E-1	9.868087E-1	9.244304E-1	9.603083E-1	9.767484E-1	1.008011E+0	9.724142E-1	9.780035E-1	9.838225E-1	9.702292E-1	9.801502E-1	1.006612E+0	9.916614E-1	1.004410E+0	9.943283E-1	1.009019E+0	9.806957E-1	9.708263E-1	9.713662E-1	9.495798E-1	9.709266E-1	1.012048E+0	9.775682E-1	9.031092E-1	9.660469E-1	9.616560E-1	1.001294E+0	1.001694E+0	9.273325E-1	9.391417E-1	9.893202E-1	9.817478E-1	9.841398E-1	1.010863E+0	9.916339E-1	9.366036E-1	1.013728E+0	1.039471E+0	9.935880E-1	9.461151E-1	9.340517E-1	9.315306E-1	9.494116E-1	9.528806E-1	9.892744E-1	9.575243E-1	9.932511E-1	9.796049E-1	9.550299E-1	9.532969E-1	9.593139E-1	1.037727E+0	9.398320E-1	9.818526E-1	9.676732E-1	1.011519E+0	9.618785E-1	1.017868E+0	9.655099E-1	9.921067E-1	9.762392E-1	9.535532E-1	9.483649E-1	9.001225E-1	9.786568E-1	9.651645E-1	9.716643E-1	9.652108E-1	9.534448E-1	9.742330E-1	9.682471E-1	9.723553E-1	9.162879E-1	9.326380E-1	9.734184E-1	9.568001E-1	9.505143E-1	9.669001E-1	9.960798E-1	9.744520E-1	9.620816E-1	9.262325E-1	9.606625E-1	9.518377E-1	9.561799E-1	9.964686E-1	9.597226E-1	1.001015E+0	9.409959E-1	9.452613E-1	9.670322E-1	9.786458E-1	9.356056E-1	9.346359E-1	9.847868E-1	9.543049E-1	9.578011E-1	9.466334E-1	9.631294E-1	9.883925E-1	9.827425E-1	9.445727E-1	9.409719E-1	9.478982E-1	9.683121E-1	9.508861E-1	1.014326E+0	9.591532E-1	9.838157E-1	9.760856E-1	9.409693E-1	9.429828E-1	8.612392E-1
5.570610E+2	9.663266E-1	9.719560E-1	9.800287E-1	9.372241E-1	9.627829E-1	9.293407E-1	9.561212E-1	1.007909E+0	1.033024E+0	9.914509E-1	9.752992E-1	9.911841E-1	9.601211E-1	9.717933E-1	9.712339E-1	9.602751E-1	1.006892E+0	9.503614E-1	9.761604E-1	9.703494E-1	9.280332E-1	9.826015E-1	9.848224E-1	9.770186E-1	9.128332E-1	9.951566E-1	9.774337E-1	1.003488E+0	9.933551E-1	9.359072E-1	9.712366E-1	9.325458E-1	9.960339E-1	1.001837E+0	9.213939E-1	9.596952E-1	9.925648E-1	9.490217E-1	9.355052E-1	1.017152E+0	9.578440E-1	9.493156E-1	9.810496E-1	9.819774E-1	9.395023E-1	9.705241E-1	9.547738E-1	9.462169E-1	9.862152E-1	9.791000E-1	9.504075E-1	1.010672E+0	9.562661E-1	9.736096E-1	9.546192E-1	9.386921E-1	9.391022E-1	9.963999E-1	9.536733E-1	9.897678E-1	9.514546E-1	9.612890E-1	9.111121E-1	9.633867E-1	9.821181E-1	1.019172E+0	9.879640E-1	9.532480E-1	9.454154E-1	9.772435E-1	9.547299E-1	9.683674E-1	9.809668E-1	9.648188E-1	9.866232E-1	1.001931E+0	9.449137E-1	9.964585E-1	9.784512E-1	9.492350E-1	9.213441E-1	9.940797E-1	9.241327E-1	9.982507E-1	9.697888E-1	9.310248E-1	9.922065E-1	9.772259E-1	9.407321E-1	9.548306E-1	9.955610E-1	9.575021E-1	9.508279E-1	9.580653E-1	9.460377E-1	9.499508E-1	9.774283E-1	9.918338E-1	9.509691E-1	9.463642E-1	9.843723E-1	9.745512E-1	1.006161E+0	9.745963E-1	9.601945E-1	9.858792E-1	9.896185E-1	9.676983E-1	9.732954E-1	9.585159E-1	9.808158E-1	9.904025E-1	9.276121E-1	9.234161E-1	9.579548E-1	9.696042E-1	9.475270E-1	9.724927E-1	9.596780E-1	9.623283E-1	1.012449E+0	1.011976E+0	9.407377E-1	9.646864E-1	9.898950E-1	9.675510E-1	9.408137E-1	9.349324E-1	9.358061E-1	9.773616E-1	1.014631E+0	9.442731E-1	1.023772E+0	1.000850E+0	9.637753E-1	9.205777E-1	9.974798E-1	9.950292E-1	9.332360E-1	9.726766E-1	9.884413E-1	9.891374E-1	9.673260E-1	9.762966E-1	9.704213E-1	9.689434E-1	9.922415E-1	9.678825E-1	9.982939E-1	9.802884E-1	9.572755E-1	9.752248E-1	9.837429E-1	9.389780E-1	1.022311E+0	1.019945E+0	9.540893E-1	9.823726E-1	9.577751E-1	1.041038E+0	1.018143E+0	9.971678E-1	9.503050E-1	9.027431E-1	9.779653E-1	9.244142E-1
5.575080E+2	1.016234E+0	9.991513E-1	9.782703E-1	9.869977E-1	9.652949E-1	9.825715E-1	9.938087E-1	9.638609E-1	1.013913E+0	9.477852E-1	9.551409E-1	9.810112E-1	1.014829E+0	9.858501E-1	9.815783E-1	9.838927E-1	9.852384E-1	9.911889E-1	9.921679E-1	9.846510E-1	9.694669E-1	9.641093E-1	9.721159E-1	9.772289E-1	9.893872E-1	1.012671E+0	1.040028E+0	1.000269E+0	9.661238E-1	9.810950E-1	9.808123E-1	9.150129E-1	9.929752E-1	9.903116E-1	9.983907E-1	9.653683E-1	1.009562E+0	1.013798E+0	9.916856E-1	9.455090E-1	9.957810E-1	1.012625E+0	9.778464E-1	9.779707E-1	1.009762E+0	9.930449E-1	9.841826E-1	9.636734E-1	9.172167E-1	1.009150E+0	9.799305E-1	9.648400E-1	9.992333E-1	1.003417E+0	9.681422E-1	9.867634E-1	9.150827E-1	9.391635E-1	9.637806E-1	9.874372E-1	9.884040E-1	9.959334E-1	1.006593E+0	1.012699E+0	9.597478E-1	9.898085E-1	9.698600E-1	9.750917E-1	9.965679E-1	9.441144E-1	9.993746E-1	9.614207E-1	1.010766E+0	9.824782E-1	1.029297E+0	1.023746E+0	9.911067E-1	9.795647E-1	9.608649E-1	1.002872E+0	1.019023E+0	9.938121E-1	1.024517E+0	9.606881E-1	9.856315E-1	1.018077E+0	9.337017E-1	9.903172E-1	1.003071E+0	9.875516E-1	9.761919E-1	1.005019E+0	9.922254E-1	1.012142E+0	9.893290E-1	1.015575E+0	9.548378E-1	1.008675E+0	1.029932E+0	9.791636E-1	9.971688E-1	9.645389E-1	9.691634E-1	9.878355E-1	9.633817E-1	9.921651E-1	9.974366E-1	1.023621E+0	9.864128E-1	9.543297E-1	9.755143E-1	9.844631E-1	9.408779E-1	1.000556E+0	9.897755E-1	9.835290E-1	1.004323E+0	9.589714E-1	9.820282E-1	9.503002E-1	1.014754E+0	1.009545E+0	9.600206E-1	9.739949E-1	9.999727E-1	9.740367E-1	1.012442E+0	9.957262E-1	9.565275E-1	1.006615E+0	9.692452E-1	9.825267E-1	9.727871E-1	1.014269E+0	9.887792E-1	9.801823E-1	9.934514E-1	9.874632E-1	9.854617E-1	9.825064E-1	1.021945E+0	1.039965E+0	9.644717E-1	9.860134E-1	9.859714E-1	1.015256E+0	9.674121E-1	9.562866E-1	1.030726E+0	9.684958E-1	9.757455E-1	9.818105E-1	9.703684E-1	9.959732E-1	9.652205E-1	9.695649E-1	9.919148E-1	1.012812E+0	9.700245E-1	9.909865E-1	9.846021E-1	9.787910E-1	9.740549E-1	1.000588E+0	9.736415E-1	9.861448E-1
5.580510E+2	9.993753E-1	9.798235E-1	9.848456E-1	9.397884E-1	1.006708E+0	1.032870E+0	1.046977E+0	1.002573E+0	1.014896E+0	1.032974E+0	1.003723E+0	9.948226E-1	1.014896E+0	1.013375E+0	9.555095E-1	9.397843E-1	1.023350E+0	9.707706E-1	1.002355E+0	9.816477E-1	9.699163E-1	9.772774E-1	9.996502E-1	9.827800E-1	9.467073E-1	9.474051E-1	1.003740E+0	1.005653E+0	1.033243E+0	1.016396E+0	1.005000E+0	9.727243E-1	1.012573E+0	1.004758E+0	1.066262E+0	9.770490E-1	1.018318E+0	1.015675E+0	9.798496E-1	1.041412E+0	1.030986E+0	1.012135E+0	9.914313E-1	1.007725E+0	1.003482E+0	9.950703E-1	1.018364E+0	1.001425E+0	1.048235E+0	1.049854E+0	1.012103E+0	1.001033E+0	1.000828E+0	1.038066E+0	1.008956E+0	1.016604E+0	1.032451E+0	1.029057E+0	9.972199E-1	9.818837E-1	9.660875E-1	1.007040E+0	1.009272E+0	9.906156E-1	9.829256E-1	9.997226E-1	9.863110E-1	1.003245E+0	1.002759E+0	1.017930E+0	9.576526E-1	1.019586E+0	1.009099E+0	9.916256E-1	9.824238E-1	9.946055E-1	1.005271E+0	1.024673E+0	9.966599E-1	1.010907E+0	1.005106E+0	1.023678E+0	9.761888E-1	1.017717E+0	9.715780E-1	9.786114E-1	9.769433E-1	9.491637E-1	9.448995E-1	1.006649E+0	1.031528E+0	9.853594E-1	1.028591E+0	9.949883E-1	1.028422E+0	1.035184E+0	1.058461E+0	9.948711E-1	1.045039E+0	9.845182E-1	1.009694E+0	9.937750E-1	1.018660E+0	1.019196E+0	9.960211E-1	9.994862E-1	9.935047E-1	1.012649E+0	9.656667E-1	1.039523E+0	9.857126E-1	9.669290E-1	1.022586E+0	1.037698E+0	1.007027E+0	9.988824E-1	9.713660E-1	9.548521E-1	9.939059E-1	9.954887E-1	9.899210E-1	9.995805E-1	9.965557E-1	1.037000E+0	9.854353E-1	1.019291E+0	9.495698E-1	1.008860E+0	1.038784E+0	1.006394E+0	9.855317E-1	9.825619E-1	1.024504E+0	1.000232E+0	9.664911E-1	1.000963E+0	1.028784E+0	1.013269E+0	1.043442E+0	1.013634E+0	9.803392E-1	9.953689E-1	1.041687E+0	1.014840E+0	1.002785E+0	9.939877E-1	9.794614E-1	1.008917E+0	1.040041E+0	9.884215E-1	9.569584E-1	1.017260E+0	1.007470E+0	9.639542E-1	1.004185E+0	1.019422E+0	1.014725E+0	9.746762E-1	9.997287E-1	9.890620E-1	1.018987E+0	9.515205E-1	1.048085E+0	9.651964E-1	9.937834E-1	1.036518E+0
5.585390E+2	1.025465E+0	1.030989E+0	9.994326E-1	9.987926E-1	9.985184E-1	1.027684E+0	9.780392E-1	1.040253E+0	1.007177E+0	1.016255E+0	1.007901E+0	1.013868E+0	1.002826E+0	9.930817E-1	9.756236E-1	1.038453E+0	9.898999E-1	9.994661E-1	1.033773E+0	1.022210E+0	1.041476E+0	9.854323E-1	1.045656E+0	1.011705E+0	1.031861E+0	1.006759E+0	1.014437E+0	9.944250E-1	1.016193E+0	9.927706E-1	1.023803E+0	1.013659E+0	1.011890E+0	1.013364E+0	1.034447E+0	9.941011E-1	9.798179E-1	1.018742E+0	1.001125E+0	1.002352E+0	1.031351E+0	9.746373E-1	9.835371E-1	9.848801E-1	9.379557E-1	9.850373E-1	1.065646E+0	9.844979E-1	1.005231E+0	1.011695E+0	9.949285E-1	1.028538E+0	1.019467E+0	1.035570E+0	1.042184E+0	1.003052E+0	1.009377E+0	1.052070E+0	1.032289E+0	9.974226E-1	1.029913E+0	9.656067E-1	1.028322E+0	9.863910E-1	9.754608E-1	9.728879E-1	1.024465E+0	1.025202E+0	9.965838E-1	1.027579E+0	1.032327E+0	1.026794E+0	9.654061E-1	1.004743E+0	9.661831E-1	9.939224E-1	9.784081E-1	1.010894E+0	1.038960E+0	1.026588E+0	1.015932E+0	9.961194E-1	1.042665E+0	1.035679E+0	1.009333E+0	1.009195E+0	1.050022E+0	1.053422E+0	1.019961E+0	1.050174E+0	9.965016E-1	1.033008E+0	1.028336E+0	9.912544E-1	9.986367E-1	1.017295E+0	9.723911E-1	1.002617E+0	9.682875E-1	9.902747E-1	1.008235E+0	1.024874E+0	1.066080E+0	9.903520E-1	1.005700E+0	9.651217E-1	1.018261E+0	9.809948E-1	1.009471E+0	1.033544E+0	1.011559E+0	1.016108E+0	1.043347E+0	9.886880E-1	9.716791E-1	9.987994E-1	1.005209E+0	9.915618E-1	1.014086E+0	9.623498E-1	1.010989E+0	1.024966E+0	9.625399E-1	1.036822E+0	9.778151E-1	9.967060E-1	1.015029E+0	1.015062E+0	1.010995E+0	1.015784E+0	1.022326E+0	1.007831E+0	9.937680E-1	1.004317E+0	1.030307E+0	1.010829E+0	1.036034E+0	1.028367E+0	9.742171E-1	9.632343E-1	9.982335E-1	9.706634E-1	9.854192E-1	9.946564E-1	1.005782E+0	9.967237E-1	1.023457E+0	9.840978E-1	9.725354E-1	9.954617E-1	9.766863E-1	9.953634E-1	1.009726E+0	9.779352E-1	1.006693E+0	1.023586E+0	9.715752E-1	1.037796E+0	1.056596E+0	9.829265E-1	1.024521E+0	1.028851E+0	1.046658E+0	1.015549E+0	1.005651E+0	9.688167E-1
5.590210E+2	9.416087E-1	1.006186E+0	9.604161E-1	1.033386E+0	1.006975E+0	1.000071E+0	9.937268E-1	9.719364E-1	9.817279E-1	9.721772E-1	9.972105E-1	1.000055E+0	9.409648E-1	9.869842E-1	1.027545E+0	9.993188E-1	1.025144E+0	1.001941E+0	9.567668E-1	9.834739E-1	9.819539E-1	9.619258E-1	1.026790E+0	1.019213E+0	9.903022E-1	9.491411E-1	9.365862E-1	9.748347E-1	1.002403E+0	1.011295E+0	9.764196E-1	1.010042E+0	9.837808E-1	9.730396E-1	9.522964E-1	9.509831E-1	9.647734E-1	9.678498E-1	9.677695E-1	9.730920E-1	9.867246E-1	9.673821E-1	9.734614E-1	9.677234E-1	9.772746E-1	9.826602E-1	1.000217E+0	9.815049E-1	9.432581E-1	9.350027E-1	9.984098E-1	9.745929E-1	9.563000E-1	9.751019E-1	9.925436E-1	9.680518E-1	1.030653E+0	1.007442E+0	9.890284E-1	9.911436E-1	9.884890E-1	1.017631E+0	9.841970E-1	9.816384E-1	9.600268E-1	9.463708E-1	9.834952E-1	9.903581E-1	9.555855E-1	9.571266E-1	9.743919E-1	9.709996E-1	1.000843E+0	9.806518E-1	9.858598E-1	1.014799E+0	1.005423E+0	9.876045E-1	9.882324E-1	9.670820E-1	9.984621E-1	9.653991E-1	9.734068E-1	9.463951E-1	9.859041E-1	9.864932E-1	9.732015E-1	9.952845E-1	9.631285E-1	9.862306E-1	9.654093E-1	9.364973E-1	1.010683E+0	1.001825E+0	9.214244E-1	9.768085E-1	9.894159E-1	9.622343E-1	9.640265E-1	9.912874E-1	9.658545E-1	9.974658E-1	9.698471E-1	9.672401E-1	9.823530E-1	9.781513E-1	9.957757E-1	9.892632E-1	9.849614E-1	9.896537E-1	1.012240E+0	9.849882E-1	9.938779E-1	9.848122E-1	9.983237E-1	9.324881E-1	1.010115E+0	9.895187E-1	1.000992E+0	9.675916E-1	9.966135E-1	9.921824E-1	9.695613E-1	9.433750E-1	1.055289E+0	9.715217E-1	9.552016E-1	9.535147E-1	1.019135E+0	9.213516E-1	9.540463E-1	9.995967E-1	9.665082E-1	1.025196E+0	9.376153E-1	9.651248E-1	9.854271E-1	9.709521E-1	9.886378E-1	9.340298E-1	9.601398E-1	1.033295E+0	9.526716E-1	9.549659E-1	9.508453E-1	9.833408E-1	9.526392E-1	9.591296E-1	9.780759E-1	1.018390E+0	1.045240E+0	9.566166E-1	9.871260E-1	9.824548E-1	9.704284E-1	9.968918E-1	9.907419E-1	9.717811E-1	9.763341E-1	9.958790E-1	9.857262E-1	9.314612E-1	9.568128E-1	9.343311E-1	1.006108E+0	9.693195E-1
5.595110E+2	9.799210E-1	1.004654E+0	1.033765E+0	9.801329E-1	9.802642E-1	9.818725E-1	9.759848E-1	1.015841E+0	9.733234E-1	9.825533E-1	1.038432E+0	9.821845E-1	9.647231E-1	1.022023E+0	9.975188E-1	1.020657E+0	9.794284E-1	9.973026E-1	9.456135E-1	1.042070E+0	1.014476E+0	1.004027E+0	9.842821E-1	9.659835E-1	1.036158E+0	1.000037E+0	1.011849E+0	1.003416E+0	9.622397E-1	9.852460E-1	1.018882E+0	1.022741E+0	1.043177E+0	1.025431E+0	9.698743E-1	1.065729E+0	1.037031E+0	9.910422E-1	9.898593E-1	9.777687E-1	9.858738E-1	9.753270E-1	1.012903E+0	1.002597E+0	9.881611E-1	1.001431E+0	1.015929E+0	1.005990E+0	9.997015E-1	9.861296E-1	1.019072E+0	9.994169E-1	9.960982E-1	9.616832E-1	9.706746E-1	9.852780E-1	1.024935E+0	9.888571E-1	1.031076E+0	9.584804E-1	9.609211E-1	1.005739E+0	9.913006E-1	9.636826E-1	1.029625E+0	1.039805E+0	1.011672E+0	9.799881E-1	9.783445E-1	9.535816E-1	1.008405E+0	1.005412E+0	9.858341E-1	1.023257E+0	9.774335E-1	1.025923E+0	9.829254E-1	9.988489E-1	1.018461E+0	9.978784E-1	9.833977E-1	1.014245E+0	9.869925E-1	1.030285E+0	1.021811E+0	9.883594E-1	1.004858E+0	9.932981E-1	9.784260E-1	9.828874E-1	1.020388E+0	9.774857E-1	9.488273E-1	9.719997E-1	1.022356E+0	9.747224E-1	9.905427E-1	9.833185E-1	1.015762E+0	1.020834E+0	9.945455E-1	9.759040E-1	9.516208E-1	9.660054E-1	1.005223E+0	1.040895E+0	9.956501E-1	1.019109E+0	1.041854E+0	9.948199E-1	1.008037E+0	1.015573E+0	9.748608E-1	9.844611E-1	1.020971E+0	1.015743E+0	9.699276E-1	1.014460E+0	9.657735E-1	1.046035E+0	9.946553E-1	9.976824E-1	1.026122E+0	1.017223E+0	9.570494E-1	1.025716E+0	1.006095E+0	1.005658E+0	1.019295E+0	9.905068E-1	9.988635E-1	1.037490E+0	1.019398E+0	9.523914E-1	1.029754E+0	1.007832E+0	9.801687E-1	1.015876E+0	9.663683E-1	1.030067E+0	9.877324E-1	9.991776E-1	9.800448E-1	1.005859E+0	1.034268E+0	1.010619E+0	1.025621E+0	1.034534E+0	9.511677E-1	1.006008E+0	1.015397E+0	9.906596E-1	1.031848E+0	1.020065E+0	9.929953E-1	1.049106E+0	9.910978E-1	1.000214E+0	9.853068E-1	1.030290E+0	9.872213E-1	1.087046E+0	9.772107E-1	1.047401E+0	1.041134E+0	1.067671E+0
5.600470E+2	1.033253E+0	9.865421E-1	9.878110E-1	1.073906E+0	1.014652E+0	9.979692E-1	1.007591E+0	9.905646E-1	1.033314E+0	1.016401E+0	1.012280E+0	1.048900E+0	1.059404E+0	1.014485E+0	9.950174E-1	9.983793E-1	1.013880E+0	1.037579E+0	1.050839E+0	1.016023E+0	1.046811E+0	1.009874E+0	1.033826E+0	1.057962E+0	1.008231E+0	1.057661E+0	1.025988E+0	9.960642E-1	1.027078E+0	1.032394E+0	9.841139E-1	1.038248E+0	9.826270E-1	1.011864E+0	9.851242E-1	1.062250E+0	1.046424E+0	1.005836E+0	1.042997E+0	1.006664E+0	9.869051E-1	1.013415E+0	1.009230E+0	1.030997E+0	1.057615E+0	1.006181E+0	9.717480E-1	1.061633E+0	1.050283E+0	1.030878E+0	9.896923E-1	1.021351E+0	1.003819E+0	1.010799E+0	1.014029E+0	1.006468E+0	1.010492E+0	1.054671E+0	1.016695E+0	1.045086E+0	1.023767E+0	9.849123E-1	9.824596E-1	1.035230E+0	1.032653E+0	1.063015E+0	1.041460E+0	1.024558E+0	1.016796E+0	1.013683E+0	1.004751E+0	9.991345E-1	1.010715E+0	1.040207E+0	1.045174E+0	1.017232E+0	1.033239E+0	9.831116E-1	1.023293E+0	1.017220E+0	9.863589E-1	1.006950E+0	1.026162E+0	1.016821E+0	9.760572E-1	1.012157E+0	1.045058E+0	1.004140E+0	1.050682E+0	9.941007E-1	9.785144E-1	1.043579E+0	1.039594E+0	1.038958E+0	1.015526E+0	9.833895E-1	1.019390E+0	1.047683E+0	1.018994E+0	1.054163E+0	1.009231E+0	1.044540E+0	1.021896E+0	1.031082E+0	1.015261E+0	1.028701E+0	9.961870E-1	9.728947E-1	1.001020E+0	1.028094E+0	1.015499E+0	9.992570E-1	1.025653E+0	1.035568E+0	1.013887E+0	1.025565E+0	1.059259E+0	1.036958E+0	1.029701E+0	1.011839E+0	1.014566E+0	9.979186E-1	1.090343E+0	9.694391E-1	9.851178E-1	1.019156E+0	1.012883E+0	9.843168E-1	1.002000E+0	1.004639E+0	1.006183E+0	1.001337E+0	1.009206E+0	1.039285E+0	1.001600E+0	9.817605E-1	9.954239E-1	1.037270E+0	1.015028E+0	1.053218E+0	1.052320E+0	1.009768E+0	1.041224E+0	1.011245E+0	1.033481E+0	9.993463E-1	1.030016E+0	1.042146E+0	1.008655E+0	1.021473E+0	1.039717E+0	1.045172E+0	1.012988E+0	1.014231E+0	1.040782E+0	9.979862E-1	1.015241E+0	1.026338E+0	1.004399E+0	1.044813E+0	1.032475E+0	1.014567E+0	9.999288E-1	9.967436E-1	9.904355E-1	9.668071E-1
5.605150E+2	9.829841E-1	9.965212E-1	1.016602E+0	9.768797E-1	1.048249E+0	9.713289E-1	9.903595E-1	9.662212E-1	9.751761E-1	9.677418E-1	9.967207E-1	9.668827E-1	9.831578E-1	9.781169E-1	9.876775E-1	1.036643E+0	9.756871E-1	9.790203E-1	1.003339E+0	9.688948E-1	9.643559E-1	1.040473E+0	9.483235E-1	9.643481E-1	9.939013E-1	9.725263E-1	9.984603E-1	9.886495E-1	1.001850E+0	9.869649E-1	9.828702E-1	1.004557E+0	9.868524E-1	9.898063E-1	1.006763E+0	9.733075E-1	9.569152E-1	9.928815E-1	1.001016E+0	9.957513E-1	9.665601E-1	1.037760E+0	1.008728E+0	1.019350E+0	1.010252E+0	9.668815E-1	9.575755E-1	9.814329E-1	1.000551E+0	9.768646E-1	9.757618E-1	9.965472E-1	9.954408E-1	9.624341E-1	9.783347E-1	1.002090E+0	1.008576E+0	1.010611E+0	9.660329E-1	1.054064E+0	9.934541E-1	9.941326E-1	9.870174E-1	1.023626E+0	1.035552E+0	1.015292E+0	9.831540E-1	1.016562E+0	9.986235E-1	1.044730E+0	1.010606E+0	1.010454E+0	9.865100E-1	9.882582E-1	1.009062E+0	9.517260E-1	9.709682E-1	1.010791E+0	1.005722E+0	9.855389E-1	9.680760E-1	9.918694E-1	1.003448E+0	9.646970E-1	1.019547E+0	9.929993E-1	1.008025E+0	1.009661E+0	1.051422E+0	9.808506E-1	1.030968E+0	9.954431E-1	9.429644E-1	9.881114E-1	9.904863E-1	9.609006E-1	9.839700E-1	1.008225E+0	9.716302E-1	1.001864E+0	1.008695E+0	1.006293E+0	1.008997E+0	1.022585E+0	9.821997E-1	9.909393E-1	9.797836E-1	1.006201E+0	1.032721E+0	9.953970E-1	9.906004E-1	1.023741E+0	1.006487E+0	9.772965E-1	1.019207E+0	1.045087E+0	1.009171E+0	1.011168E+0	9.914918E-1	1.071500E+0	9.879141E-1	9.528572E-1	1.002692E+0	1.029108E+0	1.021894E+0	1.013841E+0	1.003632E+0	1.011174E+0	9.662326E-1	1.028666E+0	1.004137E+0	9.945778E-1	1.016942E+0	1.001676E+0	1.027558E+0	1.036680E+0	9.967592E-1	9.868896E-1	1.011434E+0	9.955885E-1	9.659200E-1	9.624953E-1	1.024086E+0	1.004148E+0	9.892838E-1	9.750280E-1	9.814614E-1	1.018126E+0	1.028423E+0	1.015905E+0	9.551813E-1	1.016086E+0	9.937037E-1	1.024131E+0	9.840438E-1	9.708502E-1	9.903160E-1	9.583886E-1	9.974554E-1	9.663358E-1	9.726337E-1	1.019273E+0	1.004937E+0	1.016000E+0	1.048269E+0	9.537146E-1
5.610070E+2	1.021159E+0	9.961322E-1	1.038857E+0	1.010117E+0	9.793378E-1	1.005633E+0	1.013513E+0	1.048750E+0	1.000472E+0	1.064113E+0	9.885918E-1	1.012276E+0	1.019199E+0	1.006084E+0	1.079530E+0	9.828715E-1	1.007371E+0	1.022732E+0	1.015146E+0	1.001030E+0	1.011543E+0	1.056882E+0	9.893556E-1	1.020780E+0	1.003452E+0	1.053800E+0	9.689112E-1	1.036689E+0	9.908704E-1	9.938381E-1	1.028098E+0	1.023017E+0	9.861243E-1	9.914265E-1	9.868426E-1	1.011212E+0	9.871587E-1	9.941763E-1	1.025698E+0	1.057450E+0	1.015818E+0	1.006719E+0	1.042862E+0	1.008757E+0	1.015498E+0	1.069693E+0	9.863372E-1	1.019843E+0	1.035523E+0	1.000426E+0	1.030102E+0	1.013681E+0	1.028813E+0	1.012929E+0	1.025135E+0	1.031693E+0	9.684325E-1	9.181276E-1	1.003878E+0	9.844827E-1	1.048964E+0	1.029005E+0	1.010838E+0	1.006117E+0	1.024009E+0	9.730981E-1	9.995822E-1	9.849952E-1	1.054739E+0	1.041256E+0	1.012492E+0	1.006199E+0	1.030827E+0	9.887792E-1	1.004567E+0	9.780455E-1	1.032658E+0	1.004513E+0	9.678074E-1	9.919151E-1	1.023645E+0	1.007928E+0	9.666197E-1	1.027719E+0	1.030139E+0	1.014108E+0	1.008191E+0	1.004714E+0	9.884089E-1	1.011556E+0	1.000499E+0	1.023609E+0	1.008779E+0	1.000721E+0	1.033819E+0	1.036126E+0	1.030992E+0	9.923759E-1	9.863295E-1	9.778949E-1	1.006577E+0	9.926094E-1	9.937359E-1	1.015704E+0	1.049860E+0	1.004541E+0	1.023401E+0	9.952667E-1	9.778934E-1	9.646390E-1	1.000838E+0	1.008941E+0	9.923103E-1	9.909201E-1	9.791295E-1	9.999062E-1	9.706303E-1	1.042510E+0	1.022021E+0	9.948953E-1	9.905879E-1	1.025269E+0	9.921654E-1	9.930377E-1	1.017427E+0	9.797320E-1	1.045147E+0	1.025688E+0	9.870310E-1	1.026044E+0	1.059667E+0	9.940789E-1	9.968869E-1	9.626335E-1	1.017896E+0	1.016628E+0	9.839515E-1	9.599143E-1	1.015411E+0	1.027722E+0	1.033370E+0	9.892668E-1	1.010395E+0	1.028273E+0	9.975835E-1	1.025699E+0	1.039932E+0	9.967638E-1	9.903764E-1	9.858448E-1	1.035075E+0	9.970317E-1	9.867699E-1	1.021256E+0	1.035651E+0	9.725930E-1	1.034388E+0	1.017994E+0	1.010156E+0	9.997072E-1	9.938339E-1	9.884909E-1	9.923123E-1	1.024190E+0	9.409767E-1	1.051009E+0
