Photon Energy (eV)	#1	#2	#3	#4	#5	#6	#7	#8	#9	#10	#11	#12	#13	#14	#15	#16	#17	#18	#19	#20	#21	#22	#23	#24	#25	#26	#27	#28	#29	#30	#31	#32	#33	#34	#35	#36	#37	#38	#39	#40	#41	#42	#43	#44	#45	#46	#47	#48	#49	#50	#51	#52	#53	#54	#55	#56	#57	#58	#59	#60	#61	#62	#63	#64	#65	#66	#67	#68	#69	#70	#71	#72	#73	#74	#75	#76	#77	#78	#79	#80	#81	#82	#83	#84	#85	#86	#87	#88	#89	#90	#91	#92	#93	#94	#95	#96	#97	#98	#99	#100	#101	#102	#103	#104	#105	#106	#107	#108	#109	#110	#111	#112	#113	#114	#115	#116	#117	#118	#119	#120	#121	#122	#123	#124	#125	#126	#127	#128	#129	#130	#131	#132	#133	#134	#135	#136	#137	#138	#139	#140	#141	#142	#143	#144	#145	#146	#147	#148	#149	#150	#151	#152	#153	#154	#155	#156	#157	#158	#159	#160	#161	#162	#163	#164	#165	#166	#167	#168	#169	#170	#171	
5.300220E+2	-5.862617E-3	-1.091567E-2	-1.083534E-2	-9.962957E-3	-8.187386E-3	-9.966031E-4	-6.896045E-3	-7.118404E-3	-8.719864E-3	-2.095832E-3	-2.038375E-4	-9.045219E-3	-5.137507E-3	-6.531773E-3	-8.750423E-3	-7.453857E-3	1.420628E-3	-1.460103E-3	6.672875E-4	-5.379351E-3	-7.065827E-3	-6.636646E-3	-8.119224E-3	-5.726182E-3	-1.151878E-2	-3.750824E-3	-4.878603E-3	-4.841550E-3	-1.332792E-2	-1.039440E-2	-2.574432E-3	-1.725508E-3	-8.747285E-3	-3.052749E-3	-1.210835E-2	-8.674517E-3	-1.965720E-3	-5.552600E-3	-8.924589E-3	-1.003632E-2	-5.426238E-3	-3.604473E-3	-4.818100E-3	1.830619E-4	-9.222457E-3	-9.342848E-3	-8.168948E-3	-8.771696E-3	-6.102628E-3	8.652879E-4	-2.289981E-3	-4.898953E-3	-1.083533E-2	-1.342452E-2	-1.678310E-2	-3.642600E-3	-1.174644E-2	2.040413E-3	-1.252026E-2	1.824468E-4	-5.682465E-3	-4.436226E-3	-1.137413E-2	-3.986261E-3	-9.012998E-3	-2.244604E-3	6.064872E-4	-3.401241E-3	-2.565029E-3	-6.719831E-3	-7.225683E-3	-8.603155E-3	-1.033130E-2	-3.980496E-3	-9.864623E-3	-6.431628E-3	3.209904E-3	-4.119039E-3	-7.648102E-3	-3.636144E-3	-9.235107E-3	-9.716518E-3	-3.290154E-3	-2.335181E-3	-3.222859E-3	-4.863693E-4	-1.839331E-2	-5.658853E-3	-6.016444E-3	-1.065952E-2	-8.635466E-3	-4.314796E-3	-6.030162E-3	-1.106622E-3	-1.407129E-2	-5.142038E-3	2.676687E-3	3.631854E-3	-6.084776E-3	-1.690113E-2	-1.652892E-2	-1.055996E-2	-1.243790E-2	-4.808492E-3	-5.754414E-3	-1.767092E-3	-4.536949E-3	-8.456122E-3	1.185266E-3	-3.771588E-3	-5.534895E-3	-1.335282E-3	-4.477599E-3	-4.061995E-3	-7.374578E-3	-9.350383E-3	-1.108054E-2	-1.192992E-2	-5.401243E-3	-2.248783E-3	-1.742975E-3	-1.369331E-3	-1.412285E-2	5.879017E-4	-1.011962E-2	2.381136E-3	-1.656641E-4	-9.269323E-3	-9.698370E-3	-7.518798E-3	-2.706699E-3	-7.758865E-4	-3.454190E-3	-4.661299E-3	-1.016198E-2	-9.698225E-3	-5.090664E-3	-6.705829E-3	-8.788990E-3	-1.310708E-2	-1.349452E-2	-1.262028E-2	-4.469636E-3	1.242538E-3	-1.153046E-2	-4.309777E-3	-3.951579E-3	8.652438E-3	-1.334885E-3	-3.608738E-3	-3.171090E-3	-9.470458E-3	-6.588898E-3	-1.171346E-2	-8.729252E-3	-1.536323E-2	3.401685E-4	2.800625E-3	-7.511087E-3	-5.282469E-3	9.272238E-5	-9.930850E-3	-5.835049E-3	-8.479830E-3	-4.277604E-3	-1.310296E-3	-7.330804E-3	-6.056651E-3	5.885160E-4	-9.543993E-3	1.062434E-3
5.305180E+2	7.787680E-3	3.505027E-3	-2.485148E-3	-5.408486E-3	-8.187429E-3	-1.146112E-2	-5.642213E-3	3.671585E-3	-1.634981E-3	-7.335370E-3	-3.872559E-3	-2.200191E-3	-6.044125E-3	-7.965570E-3	-1.190060E-2	-7.019663E-3	-1.243052E-3	-4.745383E-3	-6.339293E-3	-2.596929E-3	3.532895E-3	-1.029826E-2	-3.096979E-3	-7.251774E-5	-3.839586E-3	-8.153971E-3	-1.020076E-2	4.841516E-4	-9.191699E-4	-5.716897E-3	2.860705E-4	-3.451080E-3	-3.932258E-3	5.088298E-4	-7.671666E-3	-6.483025E-3	-6.879995E-3	-5.096215E-3	-9.398459E-3	-3.584389E-3	-1.156410E-3	-9.011150E-3	-7.597748E-3	-1.025078E-2	-1.607592E-3	-7.644165E-3	1.633812E-3	-7.296092E-3	-1.022834E-2	-1.067203E-2	-3.875277E-3	-8.644894E-4	-3.553991E-3	1.083965E-3	-3.256422E-3	-6.829885E-3	-3.915467E-3	-7.419885E-4	-2.554648E-4	-5.291622E-3	-1.019496E-2	-6.654308E-3	1.522540E-3	-1.033163E-2	-2.067221E-3	-1.167199E-3	-1.576816E-2	-2.782786E-3	-9.515389E-3	-7.211528E-3	-1.075452E-2	-6.256889E-3	-6.590659E-3	-1.705977E-3	-3.999182E-3	-5.359688E-3	-4.814829E-3	-5.170759E-3	-6.639594E-3	-7.272323E-3	-1.345114E-2	5.829903E-3	-7.354351E-3	-3.951850E-3	-1.187368E-3	-6.809347E-3	-9.110699E-3	-5.217888E-3	-1.440561E-3	-5.459724E-3	-8.635494E-3	-9.598158E-3	-4.601977E-3	-1.285363E-2	-5.628641E-4	-4.130458E-3	-1.166273E-2	-3.073142E-3	-1.079558E-2	-3.542154E-3	-1.855302E-3	-1.202210E-2	-1.490898E-2	-2.818747E-3	-6.816746E-3	-8.463279E-3	-1.521215E-2	-7.927642E-3	-3.386574E-3	-1.219192E-2	-2.268395E-3	2.670466E-4	-2.865666E-3	-9.477954E-3	-1.174470E-2	-9.350402E-3	-2.357789E-4	-4.315095E-3	-1.088554E-2	-6.296619E-4	-5.926086E-3	7.873551E-3	-3.913559E-3	-5.291010E-3	-6.607023E-3	-6.614341E-3	-1.706425E-2	-8.739654E-3	-6.998852E-4	4.511262E-3	-2.182824E-3	-1.299540E-2	2.106206E-3	-2.207957E-3	-1.063467E-2	-9.213387E-3	1.497252E-3	-1.072935E-2	2.697625E-3	-2.279524E-3	1.074403E-2	-1.204665E-2	-1.478429E-2	-8.342689E-3	-5.859724E-3	-5.434096E-3	-1.072569E-2	-8.055693E-3	-7.842481E-3	-4.779085E-3	-8.678700E-3	-7.494016E-3	3.433614E-3	-7.680968E-4	-3.693146E-3	-3.469127E-3	8.504003E-4	-1.344289E-2	-1.007167E-2	-1.656369E-2	-1.603488E-2	-2.261450E-3	-1.001540E-2	-3.801302E-3	-9.505770E-4	-6.551589E-3	-6.819348E-3	-7.228876E-3	-1.177046E-2	1.908785E-3	-3.187360E-3
5.310250E+2	2.537562E-3	-1.902688E-3	1.689904E-3	1.992566E-3	2.851854E-3	-6.976365E-3	-7.523031E-3	-5.320081E-3	-5.450129E-4	-8.383303E-3	6.522186E-3	2.200178E-3	-8.310676E-3	-3.664196E-3	-2.975133E-3	-3.980219E-3	-4.972158E-3	2.372673E-3	-2.335525E-3	-3.709623E-4	-3.718833E-3	3.890435E-3	-1.590334E-3	-2.681854E-3	-6.582174E-3	-2.283079E-3	-1.685312E-3	1.936614E-3	-1.378720E-3	-1.559203E-3	-1.516067E-2	-4.313872E-3	-1.043258E-3	-5.596687E-3	1.201577E-3	-3.743670E-3	-6.388560E-3	-4.639855E-3	1.974448E-3	2.867294E-4	3.647127E-3	7.208950E-3	-3.706210E-3	-5.308441E-3	3.468981E-3	-1.104155E-2	-7.079755E-3	-1.885506E-3	-9.454949E-4	-1.182575E-2	-1.761199E-4	-4.322642E-3	-1.291569E-2	-9.922459E-3	-6.262365E-3	-4.097957E-3	1.789932E-2	-9.645674E-3	-3.832723E-3	-9.123510E-4	3.342617E-3	-1.109079E-3	-9.762069E-3	3.335438E-3	-2.563314E-3	2.603776E-3	2.425856E-3	-2.782869E-3	-8.272880E-5	-5.736454E-3	5.881358E-3	-4.379811E-3	1.959394E-3	-6.255125E-3	5.065650E-3	-3.751793E-3	1.069979E-3	6.134881E-4	4.202413E-4	-3.116695E-3	4.617568E-3	4.164221E-3	-7.354340E-3	8.442578E-3	1.357001E-3	-7.295733E-3	-3.438009E-3	2.719205E-3	-7.033283E-3	-2.339897E-3	3.590036E-3	-8.806495E-5	-7.934223E-4	2.979335E-3	2.814276E-3	1.938786E-3	-4.779843E-3	-4.190566E-3	-4.318245E-3	-7.792744E-3	1.686585E-4	-1.787044E-3	-4.530385E-3	-1.823902E-3	-6.816743E-3	-1.125336E-2	1.868149E-3	-3.171082E-3	-1.862590E-3	9.648010E-4	4.536737E-4	-2.670477E-4	3.044799E-3	2.437203E-3	5.189511E-3	-3.046782E-3	-2.121806E-3	-4.822729E-3	-9.888350E-3	2.608587E-3	3.485927E-3	-1.317965E-2	-2.382166E-3	5.878623E-4	-4.098033E-3	-1.322847E-3	1.822380E-3	-1.853896E-3	2.899531E-3	-3.909764E-3	-7.945516E-3	1.551690E-3	-6.487135E-3	-1.398394E-2	-4.490192E-3	3.394391E-3	-5.090685E-3	-2.682330E-3	-9.833231E-3	6.268589E-3	-4.211667E-3	1.434129E-2	-1.375240E-3	-7.810210E-3	-1.890240E-3	-3.747637E-4	-5.645325E-4	-8.055686E-3	-2.836654E-3	-8.290261E-3	-3.171074E-3	1.894079E-3	-1.327062E-2	1.017731E-2	-5.203890E-3	-6.442673E-3	-6.292876E-3	-5.601199E-3	3.755522E-3	-2.596490E-3	3.985556E-3	-5.211263E-3	3.048169E-3	-7.894967E-3	-4.752821E-3	-2.882681E-3	1.363873E-3	3.907494E-3	-1.000493E-2	-1.908785E-3	9.562022E-3
5.315180E+2	-6.387646E-3	1.101577E-3	-4.870953E-3	5.977784E-3	7.819406E-3	1.993229E-3	2.507676E-3	-2.622589E-3	-4.359935E-3	1.047889E-3	-5.095435E-3	3.666998E-3	2.115435E-3	3.982780E-3	-2.975143E-3	7.309105E-3	8.878500E-4	2.372700E-3	-6.339330E-3	-1.261361E-2	-3.161013E-3	2.288288E-4	2.427348E-3	7.973264E-4	-1.097019E-3	-8.153845E-4	-8.873398E-5	-2.904973E-3	3.676639E-3	-2.078881E-3	-4.862846E-3	1.725504E-3	-8.023547E-5	-4.579111E-3	-4.344201E-3	9.952826E-3	-2.457131E-3	-4.639866E-3	-3.948694E-4	2.867512E-3	-3.825050E-3	2.883565E-3	-3.706183E-3	3.477942E-3	1.438388E-3	6.511694E-3	8.168955E-3	1.557584E-3	-4.039783E-3	2.018992E-3	-2.289955E-3	8.644940E-4	1.100868E-2	7.587778E-3	6.763338E-3	5.463918E-3	-3.356146E-3	7.048768E-3	1.277570E-3	-4.196815E-3	-3.175432E-3	-1.663562E-3	-6.269300E-4	1.871070E-3	-8.268061E-5	-8.709199E-3	-4.245308E-3	-1.546056E-3	-1.572129E-3	-1.311199E-3	2.856658E-3	-2.033461E-3	3.028118E-3	-5.117887E-3	-3.465941E-3	4.287729E-3	-1.468525E-8	-4.119068E-3	2.941593E-3	4.155616E-3	7.026684E-3	-7.495607E-3	2.515990E-3	-5.029656E-3	-8.311650E-3	-5.836557E-3	6.875974E-3	2.278251E-3	8.219629E-3	1.299921E-3	4.754358E-3	-1.673060E-3	-2.697708E-3	-7.235445E-3	-3.939956E-3	-1.095855E-3	-7.074086E-3	2.514364E-3	2.747952E-3	3.744576E-3	4.722541E-3	9.910104E-3	5.354063E-3	-1.823948E-3	8.056163E-3	-1.013734E-2	8.006672E-4	3.699550E-3	2.709287E-3	-1.666479E-3	-3.901623E-3	-6.676345E-3	-7.164281E-4	-1.056115E-2	8.193898E-4	2.626547E-3	3.536341E-3	6.853377E-3	1.080266E-3	4.767454E-3	2.440148E-3	5.306108E-3	-3.403255E-4	-4.115227E-3	-8.360729E-5	7.937430E-4	-1.159727E-3	2.913228E-3	-6.098968E-3	-3.308262E-3	-2.706728E-3	-3.103409E-3	1.600707E-3	-1.717324E-3	-1.654300E-3	-9.698329E-4	1.497260E-3	4.789873E-3	-2.001442E-3	5.699019E-4	-4.211676E-3	-2.294651E-3	-1.375287E-3	1.775114E-4	-5.292684E-3	-2.623353E-3	-3.387077E-3	-2.983735E-4	-5.840147E-3	1.160636E-2	-3.671753E-3	-6.011702E-3	-1.577583E-3	-7.681285E-4	-3.693131E-3	4.856747E-3	-1.088496E-2	1.064227E-2	2.219207E-3	4.924335E-3	9.546765E-3	-4.916439E-4	-5.835014E-3	4.386121E-3	-9.505683E-4	-3.930911E-3	-3.239204E-3	-6.056669E-3	-5.590989E-3	8.271470E-3	-9.562044E-3
5.320020E+2	-5.337656E-3	-1.001714E-4	-4.274492E-3	-1.423271E-3	-2.667817E-3	8.471282E-3	3.134563E-3	9.741018E-4	5.449951E-3	5.763539E-3	-5.706914E-3	2.689126E-3	1.208826E-2	3.026933E-3	1.330063E-2	-7.236127E-5	-1.243007E-3	1.824945E-4	7.173427E-3	5.750301E-3	-3.719197E-4	3.890461E-3	7.951804E-3	-7.248326E-5	4.936645E-3	2.609237E-3	8.958895E-3	3.101028E-8	3.217092E-3	1.039428E-3	6.007037E-3	4.313879E-3	1.364259E-3	9.158219E-3	1.506612E-2	2.830608E-3	2.948577E-3	3.803329E-4	3.396087E-3	4.588017E-3	-2.757602E-3	-5.226490E-3	6.856500E-3	-8.054194E-3	6.007304E-3	8.210394E-3	-2.723011E-3	5.000690E-3	1.658883E-2	1.009519E-2	2.994525E-3	-2.017243E-3	4.247458E-3	9.088640E-3	5.761365E-3	2.276616E-3	-3.915460E-3	2.040443E-3	6.387851E-3	2.919517E-3	8.857871E-3	2.772622E-3	6.896109E-3	-1.057554E-3	-1.571044E-3	2.603759E-3	3.032364E-3	-3.091906E-4	3.392420E-3	9.014422E-3	3.864930E-3	1.110593E-2	3.028161E-3	1.023568E-2	1.866299E-3	5.359714E-3	-2.139937E-3	2.190963E-3	5.967204E-3	1.038880E-3	-2.007624E-4	8.328737E-4	-1.548275E-3	-6.107390E-3	-3.731772E-3	-4.863782E-4	1.151731E-2	1.396321E-3	-2.457431E-3	9.099594E-3	1.843555E-3	-1.144738E-3	5.395418E-3	3.490030E-3	1.013134E-2	-1.601634E-3	4.971010E-3	3.631809E-3	7.458783E-3	4.959021E-3	3.710599E-3	8.447976E-3	1.227317E-2	6.632504E-4	-2.567380E-3	1.218340E-2	9.874550E-3	9.513189E-3	-3.386605E-3	9.648235E-4	9.980776E-4	4.005847E-3	1.970119E-3	1.056116E-2	8.467127E-3	4.517633E-3	5.422423E-3	1.040694E-2	2.575991E-3	-4.947356E-3	-2.265836E-3	-4.963767E-3	1.191084E-2	7.054673E-3	1.095592E-2	-2.645810E-4	8.283627E-3	6.091260E-3	4.099306E-3	-4.511269E-3	4.365641E-4	9.698213E-4	-1.937705E-3	1.054928E-2	1.205262E-2	-9.698269E-4	-5.090653E-3	-3.831880E-4	9.485125E-3	-7.408312E-3	4.555471E-3	1.032571E-2	8.423562E-3	6.567672E-3	1.285364E-2	4.684551E-3	8.467686E-3	-2.685240E-3	3.670972E-3	-2.438294E-3	1.485398E-2	1.078810E-2	3.990453E-3	3.264422E-3	5.875439E-3	8.425005E-3	1.360621E-2	-2.240471E-3	8.364601E-3	-4.476522E-4	-2.131831E-3	-2.261461E-3	6.705920E-3	7.894998E-3	3.802267E-3	-2.358555E-3	1.363876E-3	3.907541E-3	1.383032E-2	-3.181347E-3	5.312241E-3
5.325170E+2	7.262677E-3	8.311925E-3	2.077602E-2	8.824364E-3	8.371372E-3	8.969574E-3	1.441905E-2	1.041539E-2	9.809841E-3	1.100308E-2	8.356560E-3	2.689108E-3	5.288610E-3	1.115183E-2	1.330066E-2	1.121699E-2	5.149739E-3	1.277619E-3	7.173434E-3	1.521055E-2	1.078470E-2	8.925177E-3	2.427385E-3	7.755711E-3	1.810092E-2	1.239402E-2	7.894519E-3	5.325727E-3	8.732083E-3	1.870995E-2	1.630484E-2	3.451076E-3	1.243878E-2	3.561498E-3	7.856513E-3	6.117777E-3	1.474283E-2	1.954820E-2	1.334738E-2	5.878450E-3	9.518173E-3	7.749596E-3	1.297174E-2	1.995241E-2	-8.462379E-5	1.330647E-2	8.168948E-3	1.139502E-2	4.727408E-3	9.518310E-3	5.636808E-3	1.123883E-2	1.204888E-2	5.586592E-3	1.377719E-2	6.829908E-3	5.034191E-3	-7.419614E-4	8.943027E-3	7.298825E-3	6.852373E-3	1.109055E-2	1.334448E-2	1.016894E-2	1.529726E-2	6.913467E-3	1.394876E-2	1.082214E-2	1.034286E-2	1.196459E-2	5.377261E-3	1.016738E-2	8.906284E-3	6.823806E-3	1.039780E-2	5.895666E-3	2.674898E-3	1.060442E-2	4.958656E-3	8.830665E-3	1.124276E-2	6.385128E-3	1.703113E-2	8.981499E-3	1.509665E-2	2.091438E-2	1.254873E-2	4.482964E-3	8.728090E-3	8.059623E-3	7.083011E-3	1.681882E-2	8.727851E-3	1.472633E-2	5.628493E-3	1.003120E-2	1.586897E-2	-2.514319E-3	1.099187E-2	1.953243E-2	9.782421E-3	6.011020E-3	1.425002E-2	1.061184E-2	1.389912E-2	1.943767E-2	7.205729E-3	6.342107E-3	4.741216E-3	1.570037E-2	1.025316E-2	4.005782E-3	3.044776E-3	1.110273E-2	4.643250E-3	1.460339E-2	4.479362E-3	3.807426E-3	2.251888E-2	4.497599E-4	4.008823E-3	6.333093E-3	8.848054E-3	1.175800E-3	9.952359E-3	5.026891E-3	8.283630E-3	1.085838E-2	9.498386E-3	1.473683E-2	1.510520E-2	1.435318E-2	8.172118E-3	1.202124E-2	1.488852E-2	1.745688E-2	1.227749E-2	1.571082E-2	8.440912E-3	1.595643E-2	6.618363E-3	2.294582E-3	1.358089E-2	8.165178E-3	1.171947E-2	8.057438E-3	1.016120E-2	1.044255E-2	1.418320E-2	7.510013E-3	3.838640E-3	1.029400E-2	1.401304E-2	-1.920457E-4	1.544398E-2	1.199328E-2	2.381055E-3	7.841666E-3	3.243429E-3	1.996597E-2	4.541666E-3	2.015667E-2	1.193137E-2	7.894980E-3	7.129303E-3	1.703403E-2	1.466161E-2	1.152716E-2	1.294755E-2	4.453870E-3	-3.187295E-3
5.330280E+2	3.193818E-2	2.994293E-2	1.898669E-2	1.565612E-2	2.548222E-2	2.989871E-2	3.134577E-2	2.210455E-2	2.234464E-2	3.038949E-2	3.464907E-2	2.273531E-2	2.251435E-2	1.449734E-2	1.855091E-2	2.597996E-2	2.379540E-2	1.825148E-2	3.069565E-2	3.023557E-2	2.975116E-3	3.272563E-2	2.653385E-2	1.949789E-2	2.248901E-2	2.853882E-2	2.386094E-2	3.050196E-2	2.435784E-2	2.182828E-2	2.717475E-2	1.466716E-2	2.014285E-2	2.340434E-2	2.116649E-2	3.625021E-2	1.375996E-2	2.000453E-2	2.661572E-2	1.405083E-2	2.713126E-2	7.749649E-3	2.575823E-2	1.116604E-2	1.463743E-2	3.312465E-2	1.960551E-2	3.549664E-2	1.865166E-2	1.644075E-2	2.254716E-2	3.083475E-2	2.973219E-2	2.559830E-2	3.081077E-2	1.457044E-2	8.390273E-3	1.706548E-2	2.274082E-2	2.098412E-2	3.442894E-2	1.275419E-2	2.731586E-2	3.408629E-2	2.819657E-2	7.990919E-3	1.880049E-2	2.442712E-2	2.176133E-2	2.573208E-2	2.453371E-2	1.861414E-2	2.760952E-2	1.876539E-2	1.732970E-2	3.001427E-2	1.765442E-2	2.585373E-2	3.168510E-2	2.960873E-2	2.328851E-2	2.026596E-2	2.864330E-2	1.922039E-2	3.087187E-2	2.091441E-2	2.440982E-2	1.021531E-2	1.686296E-2	1.221945E-2	1.639767E-2	1.681879E-2	1.777311E-2	1.625851E-2	2.983115E-2	1.610051E-2	1.701615E-2	2.151171E-2	2.689087E-2	2.256862E-2	2.597400E-2	1.770822E-2	3.105352E-2	2.006301E-2	2.399151E-2	2.445981E-2	3.122501E-2	1.479827E-2	2.048879E-2	3.096220E-2	1.188637E-2	2.590429E-2	2.077613E-2	2.518431E-2	3.304911E-2	1.082118E-2	2.899805E-2	2.563670E-2	2.152176E-2	1.880005E-2	1.917267E-2	1.352203E-2	2.773525E-2	1.410937E-2	2.099190E-2	1.349323E-2	2.766733E-2	1.456611E-2	2.749545E-2	1.834587E-2	3.344101E-2	1.609877E-2	2.636976E-2	2.085320E-2	2.812278E-2	2.327587E-2	3.503579E-2	3.812743E-2	3.350251E-2	1.367694E-2	1.951121E-2	2.351969E-2	2.286401E-2	2.201052E-2	1.852434E-2	2.211114E-2	2.258043E-2	2.237693E-2	1.368268E-2	2.799181E-2	2.586925E-2	1.968212E-2	2.570604E-2	2.400305E-2	2.350174E-2	2.626620E-2	2.483135E-2	2.352505E-2	1.246161E-2	2.104042E-2	1.399570E-2	2.959590E-2	3.231048E-2	1.257350E-2	1.853613E-2	2.856477E-2	2.642493E-2	2.793876E-2	2.089261E-2	3.881234E-2	2.018648E-2
5.331580E+2	2.826309E-2	2.874119E-2	2.017960E-2	2.362652E-2	2.272239E-2	2.940038E-2	4.200337E-2	2.435249E-2	1.798474E-2	3.877275E-2	2.914601E-2	2.909143E-2	3.203386E-2	3.313686E-2	2.800138E-2	2.120368E-2	1.793537E-2	1.606132E-2	3.319798E-2	6.306793E-3	3.254001E-2	2.860628E-2	2.301831E-2	2.602141E-2	1.974648E-2	2.071103E-2	3.503744E-2	2.856527E-2	2.114082E-2	1.819021E-2	2.660269E-2	4.055024E-2	2.255034E-2	1.882523E-2	2.782145E-2	2.419720E-2	2.506279E-2	1.863543E-2	2.898512E-2	2.222326E-2	2.019274E-2	2.234770E-2	3.520908E-2	1.555923E-2	2.631357E-2	2.916101E-2	2.614065E-2	3.156174E-2	1.813594E-2	3.143934E-2	2.307555E-2	3.659823E-2	1.933028E-2	2.209620E-2	3.131178E-2	1.639176E-2	1.510254E-2	1.706549E-2	3.398345E-2	1.988927E-2	2.791085E-2	2.384475E-2	3.215214E-2	2.432411E-2	2.670819E-2	2.522971E-2	3.032345E-2	2.690074E-2	2.672588E-2	4.392483E-2	2.705429E-2	2.518381E-2	1.852512E-2	2.388324E-2	3.012708E-2	1.983083E-2	2.407422E-2	1.481111E-2	3.269368E-2	2.701139E-2	3.051591E-2	1.915546E-2	2.922391E-2	2.245374E-2	2.069435E-2	3.404672E-2	2.492553E-2	2.741233E-2	1.635456E-2	3.561830E-2	3.095185E-2	2.844226E-2	2.205763E-2	1.932293E-2	2.532835E-2	1.913515E-2	2.217828E-2	2.989289E-2	2.865739E-2	1.285298E-2	2.799795E-2	3.232969E-2	1.770957E-2	2.453986E-2	3.567735E-2	3.059800E-2	3.069124E-2	2.272595E-2	2.607669E-2	3.780376E-2	3.039654E-2	2.750661E-2	2.292538E-2	3.060025E-2	2.977147E-2	3.414464E-2	2.994108E-2	1.599122E-2	3.348748E-2	2.905457E-2	2.283296E-2	2.789982E-2	2.365150E-2	3.527335E-2	3.253322E-2	2.248877E-2	2.766737E-2	2.515965E-2	3.229464E-2	2.736843E-2	2.505895E-2	2.831831E-2	3.041367E-2	1.643725E-2	3.852113E-2	2.424569E-2	3.323906E-2	2.893091E-2	2.775921E-2	2.279489E-2	1.590118E-2	3.040346E-2	2.389549E-2	2.893321E-2	2.419499E-2	2.492188E-2	3.274159E-2	2.715069E-2	2.319372E-2	3.325857E-2	3.287903E-2	2.363502E-2	2.626285E-2	2.630739E-2	3.609201E-2	2.031915E-2	2.483137E-2	1.512321E-2	3.857974E-2	1.996598E-2	3.123548E-2	1.071741E-2	3.387815E-2	2.076088E-2	2.851712E-2	3.695077E-2	3.307380E-2	3.028329E-2	3.766552E-2	2.990457E-2	2.868608E-2
5.333130E+2	5.608864E-2	4.135932E-2	2.495113E-2	3.444353E-2	3.762536E-2	3.388516E-2	4.576485E-2	3.424332E-2	3.814945E-2	2.567388E-2	4.382089E-2	3.398070E-2	3.702023E-2	2.740164E-2	3.640181E-2	2.988785E-2	3.018823E-2	3.139258E-2	2.919425E-2	3.301798E-2	4.369657E-2	2.723315E-2	4.059597E-2	2.993548E-2	3.894437E-2	4.468363E-2	3.769849E-2	3.485931E-2	3.768574E-2	4.105789E-2	4.605412E-2	3.839341E-2	4.084740E-2	3.663294E-2	5.665949E-2	4.775530E-2	3.439991E-2	3.004489E-2	4.841372E-2	2.523421E-2	3.300223E-2	4.235256E-2	3.576505E-2	3.917261E-2	4.103563E-2	4.841300E-2	3.703258E-2	5.517123E-2	2.999742E-2	4.355352E-2	3.681523E-2	2.103679E-2	4.637523E-2	3.360292E-2	4.183252E-2	3.915805E-2	3.915475E-2	3.375996E-2	4.215993E-2	2.700566E-2	3.793869E-2	2.717196E-2	4.666091E-2	3.799114E-2	3.067723E-2	4.031365E-2	4.487871E-2	4.483460E-2	4.459828E-2	3.654938E-2	4.721896E-2	4.817772E-2	4.577836E-2	3.639352E-2	3.972513E-2	3.430203E-2	4.654346E-2	4.110311E-2	1.857404E-2	2.649195E-2	2.991369E-2	3.969897E-2	4.373912E-2	3.161490E-2	2.934524E-2	5.593390E-2	3.317670E-2	4.460949E-2	4.025084E-2	3.873819E-2	4.375951E-2	3.848071E-2	3.538747E-2	3.260220E-2	3.039399E-2	3.531993E-2	4.225352E-2	3.268659E-2	4.691178E-2	4.199981E-2	4.469560E-2	5.377463E-2	4.736276E-2	2.851932E-2	5.161269E-2	4.175842E-2	3.389380E-2	2.906802E-2	4.893607E-2	4.411891E-2	4.400685E-2	3.872289E-2	3.205970E-2	3.168345E-2	4.342811E-2	2.847138E-2	4.078576E-2	3.680509E-2	3.249038E-2	3.984890E-2	3.642811E-2	5.152038E-2	3.130851E-2	3.997644E-2	2.651167E-2	4.259639E-2	4.307485E-2	3.151573E-2	4.429262E-2	5.804509E-2	3.920367E-2	4.693865E-2	4.810580E-2	5.274642E-2	3.946642E-2	3.394398E-2	6.198623E-2	5.019797E-2	4.342278E-2	2.849365E-2	3.652983E-2	4.474474E-2	4.865048E-2	4.011599E-2	5.028038E-2	5.471581E-2	4.685439E-2	3.311783E-2	4.521941E-2	4.320685E-2	3.287899E-2	3.944659E-2	3.962631E-2	2.515524E-2	3.861003E-2	3.161859E-2	3.503601E-2	4.480953E-2	5.343119E-2	4.521447E-2	4.680689E-2	4.257484E-2	4.223879E-2	3.245721E-2	3.374530E-2	4.376436E-2	5.608913E-2	3.848907E-2	5.179009E-2	3.626718E-2	4.993506E-2
5.334630E+2	5.083857E-2	6.058685E-2	4.761588E-2	4.981494E-2	6.191149E-2	4.135989E-2	4.701866E-2	6.526460E-2	6.049411E-2	4.348838E-2	4.810107E-2	5.696047E-2	4.110004E-2	5.273217E-2	5.162766E-2	5.290074E-2	3.924465E-2	4.343855E-2	4.821223E-2	5.694679E-2	4.537003E-2	5.103354E-2	5.817358E-2	5.689907E-2	4.223554E-2	6.718838E-2	6.164804E-2	5.374152E-2	5.606903E-2	4.261711E-2	5.520785E-2	5.047217E-2	4.373647E-2	4.019446E-2	6.331452E-2	4.282449E-2	4.668571E-2	5.012535E-2	4.035803E-2	5.276237E-2	5.862121E-2	6.127598E-2	6.800918E-2	5.564703E-2	5.575768E-2	5.350908E-2	5.827182E-2	6.058191E-2	5.423608E-2	5.162970E-2	4.844109E-2	4.063275E-2	5.001592E-2	5.511547E-2	5.285427E-2	4.553280E-2	6.041021E-2	6.325358E-2	5.442467E-2	4.233318E-2	5.849579E-2	5.822554E-2	5.418397E-2	6.337296E-2	5.399518E-2	5.270402E-2	5.094336E-2	4.978180E-2	5.998840E-2	5.818399E-2	5.780541E-2	5.850152E-2	3.990024E-2	3.980537E-2	5.785472E-2	3.912579E-2	6.152292E-2	4.793905E-2	4.681327E-2	6.545070E-2	4.316399E-2	4.303032E-2	5.999613E-2	5.101493E-2	4.410270E-2	5.836580E-2	5.535178E-2	4.549119E-2	4.940259E-2	6.629689E-2	6.006018E-2	4.746263E-2	5.395400E-2	4.383847E-2	7.485920E-2	6.414894E-2	4.971002E-2	5.391902E-2	6.457734E-2	6.993219E-2	3.508180E-2	6.449694E-2	5.428187E-2	4.642678E-2	4.789446E-2	3.896825E-2	6.058178E-2	5.443655E-2	4.792004E-2	6.464346E-2	4.400690E-2	4.940504E-2	4.656718E-2	5.388895E-2	5.763104E-2	6.818420E-2	5.163070E-2	7.437174E-2	5.243329E-2	5.873889E-2	5.211483E-2	4.741261E-2	5.478987E-2	6.643155E-2	5.561594E-2	5.582501E-2	4.605696E-2	5.270283E-2	5.929006E-2	6.165414E-2	6.539765E-2	6.439517E-2	5.821559E-2	4.980240E-2	6.215376E-2	6.109905E-2	5.180500E-2	5.996934E-2	5.386515E-2	4.501992E-2	4.581264E-2	6.711714E-2	4.400894E-2	5.076636E-2	5.368286E-2	5.640225E-2	5.870917E-2	5.758331E-2	5.923570E-2	4.964403E-2	5.691237E-2	5.278760E-2	5.577381E-2	5.511108E-2	5.120020E-2	4.886511E-2	4.983282E-2	4.144881E-2	5.957665E-2	4.575165E-2	4.291405E-2	6.971258E-2	4.746418E-2	6.520683E-2	5.323203E-2	7.154311E-2	6.324945E-2	5.490071E-2	5.885235E-2	6.553548E-2	6.480925E-2
5.336130E+2	7.446404E-2	6.839805E-2	6.371977E-2	7.201820E-2	6.246355E-2	7.474676E-2	6.331847E-2	6.301670E-2	5.885915E-2	6.182694E-2	6.033015E-2	6.722807E-2	5.787245E-2	6.898200E-2	7.787890E-2	7.678212E-2	6.694684E-2	5.493704E-2	5.021409E-2	7.085882E-2	6.433622E-2	7.803807E-2	6.420030E-2	6.385754E-2	6.253045E-2	8.039772E-2	8.506519E-2	6.681356E-2	6.020528E-2	6.184665E-2	8.838961E-2	7.333556E-2	6.058906E-2	8.344173E-2	6.886047E-2	6.583470E-2	7.617139E-2	6.244772E-2	8.205866E-2	7.684948E-2	7.143068E-2	7.857754E-2	7.301243E-2	7.651473E-2	6.844908E-2	7.276105E-2	6.807443E-2	7.632173E-2	4.804744E-2	7.008952E-2	6.006692E-2	6.829752E-2	6.457874E-2	6.762277E-2	7.139074E-2	7.877160E-2	8.278414E-2	6.547950E-2	7.690985E-2	8.065221E-2	8.155985E-2	6.321626E-2	7.406624E-2	5.117003E-2	6.639829E-2	5.539765E-2	6.185980E-2	6.153156E-2	7.190340E-2	7.883502E-2	6.990424E-2	7.211001E-2	5.432833E-2	5.174706E-2	5.785469E-2	5.466889E-2	7.757239E-2	6.003330E-2	6.547148E-2	6.493130E-2	6.785787E-2	7.023661E-2	6.870520E-2	6.071495E-2	5.886016E-2	5.885206E-2	8.423114E-2	7.106625E-2	6.618092E-2	7.565648E-2	8.625754E-2	6.225598E-2	6.109496E-2	5.711775E-2	5.966225E-2	7.122979E-2	6.634377E-2	6.397637E-2	7.046586E-2	4.928649E-2	5.835731E-2	7.765631E-2	8.739459E-2	5.587794E-2	6.223614E-2	6.854328E-2	7.659465E-2	6.183569E-2	6.671564E-2	6.622216E-2	6.088371E-2	6.596242E-2	6.805966E-2	6.634558E-2	5.763102E-2	8.142172E-2	6.719065E-2	7.234107E-2	6.589482E-2	6.359638E-2	5.995815E-2	6.384435E-2	7.418742E-2	5.702524E-2	7.618957E-2	5.582501E-2	6.693158E-2	7.547891E-2	6.228963E-2	5.744361E-2	8.163798E-2	6.730460E-2	6.377597E-2	6.206897E-2	8.105990E-2	6.400865E-2	8.414572E-2	6.399281E-2	7.788260E-2	6.667511E-2	7.314552E-2	7.744280E-2	7.237411E-2	6.780653E-2	6.105484E-2	7.888806E-2	8.072499E-2	6.772747E-2	7.925897E-2	7.656287E-2	7.443659E-2	6.464631E-2	4.686484E-2	7.642567E-2	5.019304E-2	6.849042E-2	6.054763E-2	6.833452E-2	6.930685E-2	5.971879E-2	5.792937E-2	8.033169E-2	6.157285E-2	6.462208E-2	8.792773E-2	6.734999E-2	7.552421E-2	7.131226E-2	7.562530E-2	6.044543E-2	5.843466E-2
5.337580E+2	9.756435E-2	1.254796E-1	1.090494E-1	1.010533E-1	8.674981E-2	9.816747E-2	1.329063E-1	1.142693E-1	9.918844E-2	1.084589E-1	1.196414E-1	1.019419E-1	8.824428E-2	1.119962E-1	1.020297E-1	1.063082E-1	9.997630E-2	1.047635E-1	7.523771E-2	1.031347E-1	1.005951E-1	9.726147E-2	7.976892E-2	1.173498E-1	8.611654E-2	9.165058E-2	8.772666E-2	1.026414E-1	9.467399E-2	9.666790E-2	1.072687E-1	1.074151E-1	8.947907E-2	9.666998E-2	1.015802E-1	1.041850E-1	9.926841E-2	7.066254E-2	1.128602E-1	1.116899E-1	9.331347E-2	1.110175E-1	1.019207E-1	1.226433E-1	1.009392E-1	8.182078E-2	9.094730E-2	1.141958E-1	9.394595E-2	9.085640E-2	7.697717E-2	1.190161E-1	1.035857E-1	8.213123E-2	8.792331E-2	1.133765E-1	9.509019E-2	9.886828E-2	1.075718E-1	1.145915E-1	1.006129E-1	9.926074E-2	9.341135E-2	9.754024E-2	9.765425E-2	9.903326E-2	1.097707E-1	1.159513E-1	9.176165E-2	1.044036E-1	1.026720E-1	1.152825E-1	1.002850E-1	1.017880E-1	1.063779E-1	1.039778E-1	8.238722E-2	9.789347E-2	1.032918E-1	1.028511E-1	1.027907E-1	9.189067E-2	1.267660E-1	1.113708E-1	9.244570E-2	1.104085E-1	1.327069E-1	1.116337E-1	9.617822E-2	9.541550E-2	1.217696E-1	1.103348E-1	9.584776E-2	1.230032E-1	1.142589E-1	1.132090E-1	8.010955E-2	1.176161E-1	1.010860E-1	7.964780E-2	1.044021E-1	1.068991E-1	9.876190E-2	9.766200E-2	1.126980E-1	9.644412E-2	1.011477E-1	1.025308E-1	8.957512E-2	9.727201E-2	8.810449E-2	8.839491E-2	9.653718E-2	1.069657E-1	1.002398E-1	1.034844E-1	9.312370E-2	9.924694E-2	8.683487E-2	1.170281E-1	1.070186E-1	9.259991E-2	1.109411E-1	9.053494E-2	1.143263E-1	9.074880E-2	9.227987E-2	1.152045E-1	1.000833E-1	9.473674E-2	1.041646E-1	8.068784E-2	1.188741E-1	9.347153E-2	8.956733E-2	7.758604E-2	9.792049E-2	1.042279E-1	1.107760E-1	9.858805E-2	9.944697E-2	1.009623E-1	1.172426E-1	9.602959E-2	8.770698E-2	1.064332E-1	1.049989E-1	9.338632E-2	1.107959E-1	1.198674E-1	8.645356E-2	9.478714E-2	9.308005E-2	1.046535E-1	1.096189E-1	9.703635E-2	1.141222E-1	9.634059E-2	8.108571E-2	1.048437E-1	8.406695E-2	1.092395E-1	1.117369E-1	1.032194E-1	1.083653E-1	1.281484E-1	1.128600E-1	1.123414E-1	1.074056E-1	1.189820E-1	7.330885E-2
5.339140E+2	1.626659E-1	1.885705E-1	1.442392E-1	1.500139E-1	1.656799E-1	1.639444E-1	1.636246E-1	1.605764E-1	1.716726E-1	1.299412E-1	1.575516E-1	1.430124E-1	1.340284E-1	1.435401E-1	1.608329E-1	1.818595E-1	1.436607E-1	1.343312E-1	1.372964E-1	1.560008E-1	1.653031E-1	1.448622E-1	1.485727E-1	1.556207E-1	1.651026E-1	1.498695E-1	1.723484E-1	1.539621E-1	1.355767E-1	1.465612E-1	1.639070E-1	1.954176E-1	1.385925E-1	1.572163E-1	1.753397E-1	1.891037E-1	1.602053E-1	1.441395E-1	1.792021E-1	1.947045E-1	1.717720E-1	1.694102E-1	1.775278E-1	1.764597E-1	1.329216E-1	1.803450E-1	1.519425E-1	1.796144E-1	1.393291E-1	1.670029E-1	1.536022E-1	1.622425E-1	1.472739E-1	1.316600E-1	1.660776E-1	1.848630E-1	1.582973E-1	1.695417E-1	1.515204E-1	1.627635E-1	1.447356E-1	1.957487E-1	1.304893E-1	1.761260E-1	1.661200E-1	1.372820E-1	1.710241E-1	1.549109E-1	1.448821E-1	1.422640E-1	1.692151E-1	1.697170E-1	1.462414E-1	1.671827E-1	1.559675E-1	1.468555E-1	1.476550E-1	1.515293E-1	1.572487E-1	1.636268E-1	1.720540E-1	1.529657E-1	1.604413E-1	1.717262E-1	1.570734E-1	1.566151E-1	1.786041E-1	1.760125E-1	1.541396E-1	1.572928E-1	1.764935E-1	1.589422E-1	1.458346E-1	1.444543E-1	1.863040E-1	1.698557E-1	1.391879E-1	1.416421E-1	1.676265E-1	1.598017E-1	1.438694E-1	1.678221E-1	1.704239E-1	1.399437E-1	1.482868E-1	1.622902E-1	1.700026E-1	1.532678E-1	1.515493E-1	1.598980E-1	1.425459E-1	1.637044E-1	1.475820E-1	1.513765E-1	1.619676E-1	1.665206E-1	1.421612E-1	1.489977E-1	1.661083E-1	1.683007E-1	1.598302E-1	1.639756E-1	1.548411E-1	1.663727E-1	1.770511E-1	1.510714E-1	1.678263E-1	1.692316E-1	1.408765E-1	1.566918E-1	1.549813E-1	1.737895E-1	1.684123E-1	1.543138E-1	1.798440E-1	1.483837E-1	1.925470E-1	1.835485E-1	1.499347E-1	1.903376E-1	1.510183E-1	1.560327E-1	1.502491E-1	1.647237E-1	1.585910E-1	1.491567E-1	1.620149E-1	1.470909E-1	1.613550E-1	1.795572E-1	1.710708E-1	1.600103E-1	1.548859E-1	1.847280E-1	1.514183E-1	1.678066E-1	1.656558E-1	1.618744E-1	1.691699E-1	1.580267E-1	1.513578E-1	1.753140E-1	1.556305E-1	1.535140E-1	1.444868E-1	1.789885E-1	1.532647E-1	1.357860E-1	1.692004E-1	1.507953E-1	1.561799E-1
5.340800E+2	2.802679E-1	2.793003E-1	2.187945E-1	2.638770E-1	2.440587E-1	2.581251E-1	2.708277E-1	2.716235E-1	2.545110E-1	2.593586E-1	2.651673E-1	2.525329E-1	2.197038E-1	2.099729E-1	2.605878E-1	2.700035E-1	2.214395E-1	2.673845E-1	2.228772E-1	2.639586E-1	2.556714E-1	2.533372E-1	2.716162E-1	2.713042E-1	2.610924E-1	2.511414E-1	2.798557E-1	2.580562E-1	2.265739E-1	2.557025E-1	2.434289E-1	2.653022E-1	2.368187E-1	2.538866E-1	2.829281E-1	2.800486E-1	2.304792E-1	2.262873E-1	2.782411E-1	2.798698E-1	2.609041E-1	2.553764E-1	2.603618E-1	2.670697E-1	2.278536E-1	2.613170E-1	2.570492E-1	2.863505E-1	2.543333E-1	2.679551E-1	2.344549E-1	3.120939E-1	2.590943E-1	2.672392E-1	2.427286E-1	2.904986E-1	2.427598E-1	2.647007E-1	2.746786E-1	3.122073E-1	2.249582E-1	2.855822E-1	2.659047E-1	2.879029E-1	2.807251E-1	2.423304E-1	2.510780E-1	2.835399E-1	2.486413E-1	2.371612E-1	2.765924E-1	2.729550E-1	2.579265E-1	2.405382E-1	2.524808E-1	2.674486E-1	2.498369E-1	2.561715E-1	2.379328E-1	2.695944E-1	2.678179E-1	2.606804E-1	2.928196E-1	2.660317E-1	2.517245E-1	2.679962E-1	2.616316E-1	2.677297E-1	2.817556E-1	2.862468E-1	3.231995E-1	2.698932E-1	2.324782E-1	2.466022E-1	2.949346E-1	2.826437E-1	2.286661E-1	2.472449E-1	2.406435E-1	2.909628E-1	2.344408E-1	2.667606E-1	2.504873E-1	2.424142E-1	2.497417E-1	2.521313E-1	2.607421E-1	2.193317E-1	2.460349E-1	2.677834E-1	2.546955E-1	2.683895E-1	2.550446E-1	2.434481E-1	2.586565E-1	2.717915E-1	2.567386E-1	2.302229E-1	2.384012E-1	2.805617E-1	2.848010E-1	2.476748E-1	2.385569E-1	2.804235E-1	2.407795E-1	2.727755E-1	2.448641E-1	2.714593E-1	2.674553E-1	2.673682E-1	2.471838E-1	2.680546E-1	2.452471E-1	2.544091E-1	2.493238E-1	2.633083E-1	2.428549E-1	2.525228E-1	2.658446E-1	3.111505E-1	2.459101E-1	2.420804E-1	2.301874E-1	2.802799E-1	2.504571E-1	2.542787E-1	2.698364E-1	3.016409E-1	2.799932E-1	2.983512E-1	2.657024E-1	2.953962E-1	2.545550E-1	2.607696E-1	2.556657E-1	2.891270E-1	2.416805E-1	2.738980E-1	2.454762E-1	2.826572E-1	2.547963E-1	2.596768E-1	2.543905E-1	2.552716E-1	2.552281E-1	2.780480E-1	2.632264E-1	2.776298E-1	2.724867E-1	2.869566E-1	2.857986E-1
5.342040E+2	4.697973E-1	5.046231E-1	4.347066E-1	4.454878E-1	4.212383E-1	4.569513E-1	4.952634E-1	4.635960E-1	4.240036E-1	4.285964E-1	5.280928E-1	4.481054E-1	4.055604E-1	4.360360E-1	4.653481E-1	4.558437E-1	4.196164E-1	4.185076E-1	3.815271E-1	4.503804E-1	4.207880E-1	4.538101E-1	4.564322E-1	4.478725E-1	4.382619E-1	4.292236E-1	4.432455E-1	4.628542E-1	3.998366E-1	4.162961E-1	4.871440E-1	4.680533E-1	4.173820E-1	4.574024E-1	5.158517E-1	4.586513E-1	4.309818E-1	4.325702E-1	4.350925E-1	5.246128E-1	4.642550E-1	4.570463E-1	4.699483E-1	5.147358E-1	4.217790E-1	4.402468E-1	4.737988E-1	5.268756E-1	4.394751E-1	4.658206E-1	3.961599E-1	4.821167E-1	4.291660E-1	4.698573E-1	4.847058E-1	4.999494E-1	4.665007E-1	4.705991E-1	4.550720E-1	4.862840E-1	4.280226E-1	5.046213E-1	4.416212E-1	5.368386E-1	4.553622E-1	4.249545E-1	4.566708E-1	4.808124E-1	4.482165E-1	4.500654E-1	4.585785E-1	4.545602E-1	4.535093E-1	4.600363E-1	4.337767E-1	4.453908E-1	4.504548E-1	4.496801E-1	4.542656E-1	5.007502E-1	4.201970E-1	4.305806E-1	4.826784E-1	4.681156E-1	4.344113E-1	4.367704E-1	5.055580E-1	4.445508E-1	4.612315E-1	4.604383E-1	5.269573E-1	4.801724E-1	4.257604E-1	4.468122E-1	4.621014E-1	4.824242E-1	4.156521E-1	4.578923E-1	5.126926E-1	4.834528E-1	4.337998E-1	4.368567E-1	4.373029E-1	4.065663E-1	4.436213E-1	4.479959E-1	4.790501E-1	4.132950E-1	4.466897E-1	4.830278E-1	4.294529E-1	4.553279E-1	4.500896E-1	4.465475E-1	4.351005E-1	4.419887E-1	4.354422E-1	4.343007E-1	4.448107E-1	5.514973E-1	4.636304E-1	4.546131E-1	4.376383E-1	4.532629E-1	4.319645E-1	4.569183E-1	4.252816E-1	4.642612E-1	4.534242E-1	4.526316E-1	4.614508E-1	4.600762E-1	4.893988E-1	4.428240E-1	4.572908E-1	4.330281E-1	4.967889E-1	4.559971E-1	4.616386E-1	4.866709E-1	4.197063E-1	4.537576E-1	4.349324E-1	4.879593E-1	4.477979E-1	4.274206E-1	4.617699E-1	4.842367E-1	4.291675E-1	4.943923E-1	4.454520E-1	4.836533E-1	4.332911E-1	4.767972E-1	4.384756E-1	5.121419E-1	4.508760E-1	4.805824E-1	4.411061E-1	4.776616E-1	4.449905E-1	4.761886E-1	4.252620E-1	4.406574E-1	4.192018E-1	4.814085E-1	4.401885E-1	4.722238E-1	4.596374E-1	5.198315E-1	4.940390E-1
5.343600E+2	9.181568E-1	8.651398E-1	7.245767E-1	7.403933E-1	7.662141E-1	8.252038E-1	8.500974E-1	7.980868E-1	7.809738E-1	7.859348E-1	8.325977E-1	8.074697E-1	6.911453E-1	7.696348E-1	8.260411E-1	7.849715E-1	7.579018E-1	7.716732E-1	6.587891E-1	7.809312E-1	7.761247E-1	7.925084E-1	7.437016E-1	7.749156E-1	8.107020E-1	7.824526E-1	8.471956E-1	8.298460E-1	6.797224E-1	7.546343E-1	8.590091E-1	8.416333E-1	7.423959E-1	7.657299E-1	9.007306E-1	8.394156E-1	7.857923E-1	6.968127E-1	7.800708E-1	8.691457E-1	8.271908E-1	7.663100E-1	7.896101E-1	8.936480E-1	6.822068E-1	8.179243E-1	7.956553E-1	8.879083E-1	7.365268E-1	8.315542E-1	7.021315E-1	8.717301E-1	7.817909E-1	7.905444E-1	7.552397E-1	8.751391E-1	8.004346E-1	8.284178E-1	8.071715E-1	8.596193E-1	7.253483E-1	9.177447E-1	7.667253E-1	9.082898E-1	7.927291E-1	6.986204E-1	8.326819E-1	8.821589E-1	8.160907E-1	7.824523E-1	8.291045E-1	8.327870E-1	7.965800E-1	8.438743E-1	7.921022E-1	7.680447E-1	8.147776E-1	7.809588E-1	7.497690E-1	8.321596E-1	7.990358E-1	8.025850E-1	8.391713E-1	8.189328E-1	7.427906E-1	7.689691E-1	8.644857E-1	8.264132E-1	7.790016E-1	8.161017E-1	9.059483E-1	8.362737E-1	7.561497E-1	7.670456E-1	9.033773E-1	8.759168E-1	7.443120E-1	7.841996E-1	8.259617E-1	8.162127E-1	7.561138E-1	7.682767E-1	7.872106E-1	7.562589E-1	7.984475E-1	8.001057E-1	8.195890E-1	7.304012E-1	7.900883E-1	8.172091E-1	7.316035E-1	8.078397E-1	7.574329E-1	8.408302E-1	7.847106E-1	8.088606E-1	7.164639E-1	7.840765E-1	7.619033E-1	8.510390E-1	7.940972E-1	7.971131E-1	7.832227E-1	7.583775E-1	8.128292E-1	7.849896E-1	7.806490E-1	8.408614E-1	7.845691E-1	8.189476E-1	7.956866E-1	8.010604E-1	8.179673E-1	7.259371E-1	8.037442E-1	8.170796E-1	8.189985E-1	8.152386E-1	7.869179E-1	8.291647E-1	7.492479E-1	8.168785E-1	7.815027E-1	8.857465E-1	8.141263E-1	7.708935E-1	7.728152E-1	8.213826E-1	8.006009E-1	8.443382E-1	7.233378E-1	8.255786E-1	8.041263E-1	7.867253E-1	8.292763E-1	8.386359E-1	7.376270E-1	8.065717E-1	7.780813E-1	8.778760E-1	7.458524E-1	8.608370E-1	7.591661E-1	7.517783E-1	7.861218E-1	8.661156E-1	7.649603E-1	8.110057E-1	8.136339E-1	8.303279E-1	8.000234E-1
5.345160E+2	1.289864E+0	1.277931E+0	1.113456E+0	1.142898E+0	1.157002E+0	1.138142E+0	1.300224E+0	1.236880E+0	1.117234E+0	1.133319E+0	1.230654E+0	1.157544E+0	1.035659E+0	1.060220E+0	1.228736E+0	1.183137E+0	1.151059E+0	1.134696E+0	9.755884E-1	1.137637E+0	1.176088E+0	1.120222E+0	1.125387E+0	1.118049E+0	1.163944E+0	1.180690E+0	1.179828E+0	1.130991E+0	1.038197E+0	1.045158E+0	1.278358E+0	1.193211E+0	1.041892E+0	1.113743E+0	1.292817E+0	1.195527E+0	1.093426E+0	1.083364E+0	1.161538E+0	1.306155E+0	1.194397E+0	1.164243E+0	1.122614E+0	1.273658E+0	1.019291E+0	1.194470E+0	1.118601E+0	1.306000E+0	1.088762E+0	1.238821E+0	9.996474E-1	1.209472E+0	1.106851E+0	1.149754E+0	1.153024E+0	1.205251E+0	1.212118E+0	1.189577E+0	1.189933E+0	1.234598E+0	1.035710E+0	1.260442E+0	1.144491E+0	1.247037E+0	1.165320E+0	1.061712E+0	1.212331E+0	1.239599E+0	1.089141E+0	1.130082E+0	1.196607E+0	1.196466E+0	1.174386E+0	1.136728E+0	1.176024E+0	1.107849E+0	1.120788E+0	1.134849E+0	1.129486E+0	1.152144E+0	1.090544E+0	1.171258E+0	1.215986E+0	1.172445E+0	1.155491E+0	1.097766E+0	1.272405E+0	1.158449E+0	1.137954E+0	1.180605E+0	1.272712E+0	1.190261E+0	1.116531E+0	1.146014E+0	1.230394E+0	1.214785E+0	1.109680E+0	1.145149E+0	1.158074E+0	1.243701E+0	1.109293E+0	1.110908E+0	1.137612E+0	1.113910E+0	1.074659E+0	1.169514E+0	1.150521E+0	1.069704E+0	1.062369E+0	1.171914E+0	1.100172E+0	1.205216E+0	1.085194E+0	1.186369E+0	1.128312E+0	1.195903E+0	1.100275E+0	1.117100E+0	1.107414E+0	1.273634E+0	1.139204E+0	1.189935E+0	1.113494E+0	1.154028E+0	1.064230E+0	1.134227E+0	1.087807E+0	1.131654E+0	1.112715E+0	1.142556E+0	1.089059E+0	1.181613E+0	1.161196E+0	1.076271E+0	1.093007E+0	1.163793E+0	1.174147E+0	1.125623E+0	1.140914E+0	1.253720E+0	1.055067E+0	1.153038E+0	1.146640E+0	1.322409E+0	1.087455E+0	1.104247E+0	1.149909E+0	1.193138E+0	1.144502E+0	1.208914E+0	1.097858E+0	1.172445E+0	1.119281E+0	1.142738E+0	1.111802E+0	1.198434E+0	1.073870E+0	1.154966E+0	1.098668E+0	1.288835E+0	1.077301E+0	1.182950E+0	1.107180E+0	1.122551E+0	1.128326E+0	1.191595E+0	1.085127E+0	1.120482E+0	1.175576E+0	1.184093E+0	1.116632E+0
5.346560E+2	1.812253E+0	1.770641E+0	1.541102E+0	1.576716E+0	1.668669E+0	1.561708E+0	1.787334E+0	1.592949E+0	1.555954E+0	1.526284E+0	1.757729E+0	1.593183E+0	1.616800E+0	1.472675E+0	1.604657E+0	1.627333E+0	1.723216E+0	1.521813E+0	1.299393E+0	1.565015E+0	1.698771E+0	1.541763E+0	1.526157E+0	1.538597E+0	1.670223E+0	1.594588E+0	1.674786E+0	1.559954E+0	1.590612E+0	1.426113E+0	1.798397E+0	1.616832E+0	1.657249E+0	1.556389E+0	1.800260E+0	1.652444E+0	1.571090E+0	1.505057E+0	1.628773E+0	1.718217E+0	1.695032E+0	1.567041E+0	1.571807E+0	1.723412E+0	1.521872E+0	1.605554E+0	1.582054E+0	1.757041E+0	1.487924E+0	1.626476E+0	1.429275E+0	1.650956E+0	1.611866E+0	1.598015E+0	1.560329E+0	1.655569E+0	1.598071E+0	1.718789E+0	1.633508E+0	1.663768E+0	1.433315E+0	1.705177E+0	1.551812E+0	1.761992E+0	1.557261E+0	1.461974E+0	1.607140E+0	1.714534E+0	1.566238E+0	1.603091E+0	1.627623E+0	1.637575E+0	1.602958E+0	1.525115E+0	1.622328E+0	1.538232E+0	1.518277E+0	1.530805E+0	1.615604E+0	1.626399E+0	1.572375E+0	1.649308E+0	1.686859E+0	1.583078E+0	1.510688E+0	1.540369E+0	1.704045E+0	1.577791E+0	1.589443E+0	1.588264E+0	1.854298E+0	1.629838E+0	1.465010E+0	1.552051E+0	1.632832E+0	1.748881E+0	1.452107E+0	1.512246E+0	1.586170E+0	1.708837E+0	1.519143E+0	1.530056E+0	1.546334E+0	1.479524E+0	1.522441E+0	1.562917E+0	1.569522E+0	1.404779E+0	1.433708E+0	1.564512E+0	1.470375E+0	1.615413E+0	1.466150E+0	1.609898E+0	1.509604E+0	1.627072E+0	1.451081E+0	1.519672E+0	1.563112E+0	1.638481E+0	1.523008E+0	1.566328E+0	1.536668E+0	1.551440E+0	1.530901E+0	1.540081E+0	1.531148E+0	1.593534E+0	1.566241E+0	1.576243E+0	1.539598E+0	1.582533E+0	1.590356E+0	1.536513E+0	1.540136E+0	1.600700E+0	1.598769E+0	1.507281E+0	1.561218E+0	1.667448E+0	1.443915E+0	1.598765E+0	1.493724E+0	1.728184E+0	1.516164E+0	1.481451E+0	1.483535E+0	1.592939E+0	1.531455E+0	1.675899E+0	1.461361E+0	1.691264E+0	1.501807E+0	1.578249E+0	1.533826E+0	1.645655E+0	1.440728E+0	1.601944E+0	1.485831E+0	1.645533E+0	1.404858E+0	1.681460E+0	1.475051E+0	1.463497E+0	1.535173E+0	1.662786E+0	1.471272E+0	1.531357E+0	1.541933E+0	1.632024E+0	1.543738E+0
5.348230E+2	2.067409E+0	2.074674E+0	1.808907E+0	1.876173E+0	1.949620E+0	1.920990E+0	2.133397E+0	1.966103E+0	1.881312E+0	1.946496E+0	2.090360E+0	1.938367E+0	1.988970E+0	1.727891E+0	1.992649E+0	1.900881E+0	2.122231E+0	1.829531E+0	1.598679E+0	1.961788E+0	2.008366E+0	1.853917E+0	1.858626E+0	1.857813E+0	2.014141E+0	1.900357E+0	2.009017E+0	1.898867E+0	1.975747E+0	1.771206E+0	2.039824E+0	1.989551E+0	1.983711E+0	1.821472E+0	2.126907E+0	1.978970E+0	1.922464E+0	1.783448E+0	1.870448E+0	1.995221E+0	2.130026E+0	1.959030E+0	1.811972E+0	2.010616E+0	1.972672E+0	1.939635E+0	1.929505E+0	2.085121E+0	2.083058E+0	1.934526E+0	1.701954E+0	2.033653E+0	1.958769E+0	1.848161E+0	1.882964E+0	2.028484E+0	2.090865E+0	2.030977E+0	1.920192E+0	2.077613E+0	1.983843E+0	2.065066E+0	1.842522E+0	2.041678E+0	2.018658E+0	1.771736E+0	2.008019E+0	2.044769E+0	1.926165E+0	1.841566E+0	1.867082E+0	1.955264E+0	1.971674E+0	1.939659E+0	1.925736E+0	1.790136E+0	1.833384E+0	1.840001E+0	1.837992E+0	1.998326E+0	1.967476E+0	1.913045E+0	1.960903E+0	1.965153E+0	1.822626E+0	1.858950E+0	2.060911E+0	1.883812E+0	1.923989E+0	1.892453E+0	2.130246E+0	1.953712E+0	1.789684E+0	1.803849E+0	2.016698E+0	1.967880E+0	1.776751E+0	1.776533E+0	1.980698E+0	1.998479E+0	1.770114E+0	1.803479E+0	1.824087E+0	1.817281E+0	1.785907E+0	1.858108E+0	1.907394E+0	1.734042E+0	1.736467E+0	1.911322E+0	1.763268E+0	1.958843E+0	1.869671E+0	1.883949E+0	1.808412E+0	1.948556E+0	1.785385E+0	1.820714E+0	1.770019E+0	2.097237E+0	1.832033E+0	1.884691E+0	1.793431E+0	1.854201E+0	1.744670E+0	1.907839E+0	1.831840E+0	1.935704E+0	1.822397E+0	1.886012E+0	1.806778E+0	1.871144E+0	1.888596E+0	1.702849E+0	1.791586E+0	1.912501E+0	1.837133E+0	1.791226E+0	1.868223E+0	1.995125E+0	1.762112E+0	1.932628E+0	1.759326E+0	2.080176E+0	1.826920E+0	1.758591E+0	1.810951E+0	1.953360E+0	1.895377E+0	2.024091E+0	1.711210E+0	1.975870E+0	1.829214E+0	1.891057E+0	1.796205E+0	2.061354E+0	1.712683E+0	1.852317E+0	1.790031E+0	1.921119E+0	1.716843E+0	1.889711E+0	1.726914E+0	1.773450E+0	1.753327E+0	1.919605E+0	1.819573E+0	1.762292E+0	1.936537E+0	1.881441E+0	1.805099E+0
5.349580E+2	2.154556E+0	2.071672E+0	1.760594E+0	1.869342E+0	1.865167E+0	1.871657E+0	2.055028E+0	1.930141E+0	1.873683E+0	1.880481E+0	2.004146E+0	1.893874E+0	1.918707E+0	1.701608E+0	1.987927E+0	1.903050E+0	2.001304E+0	1.831175E+0	1.536618E+0	1.872751E+0	2.045182E+0	1.861237E+0	1.840546E+0	1.838242E+0	2.073377E+0	1.819142E+0	1.958989E+0	1.916295E+0	1.990450E+0	1.748864E+0	1.986045E+0	1.889039E+0	1.989006E+0	1.798575E+0	2.067012E+0	1.956507E+0	1.909194E+0	1.715448E+0	1.884191E+0	1.973282E+0	2.152439E+0	1.854139E+0	1.834766E+0	2.007323E+0	1.941196E+0	1.874518E+0	1.861976E+0	2.055608E+0	2.042319E+0	1.975483E+0	1.692972E+0	2.084948E+0	1.928601E+0	1.864174E+0	1.822844E+0	2.005259E+0	2.019828E+0	1.931923E+0	1.863980E+0	1.981814E+0	1.966796E+0	2.006841E+0	1.835003E+0	2.029967E+0	1.998318E+0	1.655912E+0	1.914620E+0	1.981688E+0	1.920703E+0	1.803215E+0	1.959333E+0	1.953388E+0	1.983434E+0	1.848105E+0	1.858013E+0	1.744582E+0	2.094455E+0	1.795827E+0	1.813279E+0	1.938587E+0	2.045778E+0	1.888059E+0	1.991681E+0	1.862222E+0	1.905573E+0	1.825877E+0	2.025841E+0	1.837070E+0	1.905683E+0	1.767657E+0	2.091240E+0	1.888198E+0	1.869666E+0	1.773711E+0	2.002063E+0	1.977999E+0	1.958577E+0	1.797205E+0	1.908269E+0	1.999699E+0	1.812618E+0	1.788368E+0	1.813213E+0	1.804345E+0	1.808213E+0	1.816257E+0	1.896183E+0	1.659522E+0	1.845178E+0	1.819752E+0	1.789404E+0	1.867511E+0	1.783701E+0	1.841162E+0	1.746686E+0	1.880480E+0	1.767938E+0	1.792791E+0	1.769020E+0	2.013042E+0	1.800139E+0	1.870315E+0	1.804154E+0	1.794241E+0	1.734132E+0	1.838525E+0	1.759276E+0	1.841950E+0	1.845193E+0	1.851127E+0	1.729239E+0	1.854849E+0	1.823895E+0	1.751423E+0	1.723524E+0	1.805819E+0	1.856298E+0	1.835483E+0	1.841593E+0	1.930727E+0	1.738905E+0	1.860345E+0	1.760354E+0	2.027455E+0	1.718609E+0	1.731607E+0	1.770305E+0	1.907410E+0	1.815784E+0	1.987806E+0	1.731741E+0	1.922509E+0	1.810841E+0	1.849003E+0	1.792682E+0	2.001883E+0	1.701968E+0	1.835513E+0	1.675315E+0	2.012445E+0	1.687922E+0	1.905639E+0	1.721166E+0	1.757075E+0	1.719582E+0	1.899689E+0	1.731603E+0	1.737674E+0	1.784698E+0	1.793637E+0	1.749852E+0
5.351090E+2	2.203907E+0	2.168406E+0	1.870936E+0	1.938231E+0	2.013096E+0	1.957861E+0	2.129004E+0	1.989485E+0	1.982680E+0	1.978461E+0	2.117878E+0	2.020995E+0	2.036111E+0	1.842121E+0	2.011024E+0	1.948209E+0	2.112645E+0	1.867314E+0	1.611189E+0	1.952330E+0	2.101526E+0	1.901973E+0	1.907340E+0	1.891298E+0	2.063509E+0	1.910143E+0	2.075543E+0	1.949219E+0	2.035950E+0	1.880870E+0	2.135937E+0	1.967980E+0	2.084344E+0	1.919157E+0	2.172383E+0	2.002525E+0	2.000108E+0	1.841863E+0	2.009766E+0	2.070064E+0	2.141766E+0	1.968221E+0	1.953179E+0	2.053997E+0	2.082327E+0	1.908489E+0	1.946390E+0	2.149557E+0	2.106782E+0	2.049321E+0	1.697197E+0	2.027313E+0	2.020658E+0	1.961725E+0	1.946589E+0	2.107708E+0	2.192669E+0	2.021515E+0	2.018308E+0	2.104434E+0	2.043511E+0	2.100551E+0	1.937100E+0	2.036310E+0	2.099526E+0	1.750726E+0	2.043197E+0	2.157318E+0	1.964392E+0	1.872542E+0	1.977485E+0	2.058032E+0	2.045955E+0	1.949326E+0	1.989720E+0	1.843201E+0	2.177912E+0	1.870498E+0	1.926237E+0	2.027934E+0	2.140335E+0	1.961902E+0	1.978325E+0	1.951140E+0	1.959007E+0	1.824415E+0	2.125886E+0	1.932755E+0	1.926024E+0	1.883611E+0	2.198356E+0	1.993336E+0	2.056284E+0	1.903442E+0	2.059474E+0	2.042737E+0	2.002740E+0	1.913983E+0	2.062552E+0	2.139359E+0	1.907236E+0	1.815663E+0	1.918975E+0	1.859061E+0	1.973944E+0	1.920049E+0	1.927676E+0	1.783720E+0	2.044814E+0	1.960270E+0	1.814986E+0	1.985551E+0	2.053969E+0	1.909945E+0	1.852661E+0	1.988899E+0	1.847151E+0	1.882138E+0	1.879707E+0	2.094541E+0	1.962237E+0	1.987906E+0	1.890931E+0	1.920047E+0	1.956431E+0	1.897255E+0	1.861169E+0	1.944705E+0	2.009565E+0	1.884812E+0	1.816204E+0	1.970067E+0	1.931560E+0	1.799020E+0	1.822312E+0	1.933836E+0	2.026386E+0	1.899861E+0	1.900595E+0	2.080604E+0	1.910639E+0	1.901076E+0	1.839782E+0	2.106267E+0	1.894401E+0	1.803560E+0	1.777642E+0	2.012433E+0	1.864341E+0	2.084366E+0	1.842896E+0	2.011939E+0	1.889906E+0	1.930230E+0	1.899949E+0	2.057782E+0	1.835137E+0	1.905527E+0	1.779277E+0	2.077447E+0	1.785800E+0	1.967588E+0	1.841348E+0	1.847135E+0	1.796104E+0	1.963106E+0	1.817015E+0	1.815629E+0	1.904757E+0	1.896711E+0	1.713728E+0
5.352550E+2	1.914626E+0	1.982141E+0	1.671127E+0	1.749217E+0	1.799486E+0	1.716680E+0	1.907075E+0	1.797964E+0	1.709095E+0	1.723817E+0	1.869623E+0	1.731064E+0	1.787698E+0	1.621313E+0	1.730661E+0	1.761501E+0	1.837221E+0	1.739184E+0	1.512096E+0	1.740309E+0	1.854406E+0	1.699212E+0	1.743117E+0	1.731256E+0	1.936253E+0	1.673354E+0	1.856805E+0	1.789444E+0	1.804318E+0	1.649077E+0	1.933417E+0	1.735895E+0	1.848406E+0	1.661709E+0	1.935021E+0	1.752154E+0	1.759801E+0	1.599073E+0	1.776623E+0	1.885109E+0	1.898384E+0	1.710861E+0	1.679102E+0	1.813474E+0	1.784839E+0	1.841109E+0	1.688249E+0	1.896733E+0	1.875223E+0	1.801846E+0	1.500616E+0	1.834236E+0	1.754892E+0	1.722089E+0	1.705612E+0	1.845441E+0	1.921382E+0	1.823966E+0	1.761774E+0	1.876707E+0	1.826405E+0	1.888723E+0	1.743649E+0	1.852290E+0	1.946228E+0	1.583727E+0	1.848519E+0	1.877793E+0	1.725103E+0	1.680289E+0	1.773317E+0	1.747382E+0	1.861063E+0	1.723572E+0	1.692715E+0	1.612196E+0	1.918445E+0	1.711166E+0	1.711921E+0	1.782232E+0	1.907849E+0	1.721487E+0	1.861622E+0	1.775465E+0	1.794129E+0	1.684343E+0	1.900529E+0	1.722423E+0	1.826371E+0	1.678744E+0	1.925322E+0	1.785702E+0	1.930600E+0	1.656245E+0	1.836587E+0	1.824243E+0	1.721687E+0	1.646905E+0	1.762826E+0	1.858818E+0	1.671954E+0	1.686992E+0	1.705471E+0	1.672528E+0	1.759879E+0	1.704095E+0	1.678409E+0	1.548534E+0	1.855337E+0	1.692921E+0	1.614642E+0	1.712622E+0	1.864835E+0	1.717676E+0	1.672939E+0	1.818699E+0	1.652418E+0	1.667907E+0	1.623935E+0	1.848972E+0	1.737917E+0	1.681860E+0	1.606092E+0	1.707819E+0	1.746175E+0	1.679780E+0	1.681744E+0	1.764615E+0	1.845793E+0	1.703758E+0	1.690472E+0	1.746622E+0	1.774860E+0	1.624834E+0	1.671534E+0	1.700594E+0	1.831143E+0	1.737195E+0	1.702191E+0	1.853225E+0	1.895168E+0	1.708904E+0	1.584494E+0	1.874624E+0	1.879655E+0	1.583196E+0	1.705954E+0	1.736153E+0	1.848324E+0	1.829221E+0	1.587039E+0	1.827141E+0	1.750146E+0	1.790243E+0	1.674834E+0	1.816930E+0	1.863714E+0	1.721808E+0	1.682484E+0	1.862567E+0	1.732966E+0	1.792373E+0	1.663686E+0	1.678126E+0	1.650668E+0	1.763417E+0	1.630844E+0	1.624553E+0	1.703483E+0	1.672746E+0	1.700978E+0
5.354110E+2	1.555519E+0	1.558533E+0	1.406309E+0	1.389411E+0	1.389378E+0	1.443606E+0	1.562272E+0	1.396934E+0	1.330870E+0	1.349713E+0	1.540662E+0	1.405924E+0	1.438650E+0	1.278158E+0	1.423520E+0	1.441060E+0	1.480288E+0	1.318670E+0	1.166770E+0	1.399740E+0	1.511899E+0	1.376078E+0	1.336822E+0	1.385947E+0	1.491407E+0	1.393022E+0	1.487980E+0	1.381784E+0	1.444926E+0	1.321130E+0	1.445411E+0	1.428318E+0	1.492574E+0	1.375771E+0	1.649416E+0	1.460690E+0	1.440374E+0	1.354911E+0	1.418851E+0	1.443365E+0	1.540253E+0	1.418900E+0	1.341097E+0	1.528464E+0	1.470091E+0	1.406240E+0	1.429021E+0	1.561772E+0	1.553422E+0	1.471302E+0	1.203099E+0	1.452116E+0	1.422550E+0	1.351870E+0	1.401513E+0	1.473893E+0	1.563393E+0	1.473381E+0	1.409677E+0	1.526368E+0	1.445849E+0	1.502773E+0	1.410483E+0	1.503296E+0	1.503678E+0	1.278812E+0	1.466443E+0	1.525923E+0	1.391482E+0	1.351836E+0	1.380102E+0	1.402943E+0	1.436231E+0	1.356226E+0	1.378647E+0	1.317414E+0	1.595318E+0	1.377260E+0	1.330692E+0	1.448229E+0	1.565147E+0	1.411674E+0	1.510355E+0	1.362675E+0	1.421122E+0	1.349709E+0	1.503954E+0	1.382009E+0	1.441486E+0	1.427595E+0	1.546332E+0	1.445977E+0	1.497859E+0	1.386575E+0	1.493246E+0	1.538478E+0	1.411381E+0	1.391558E+0	1.497254E+0	1.535166E+0	1.400236E+0	1.359471E+0	1.368907E+0	1.335267E+0	1.423642E+0	1.384910E+0	1.351214E+0	1.198660E+0	1.526669E+0	1.354006E+0	1.321750E+0	1.461589E+0	1.426387E+0	1.406800E+0	1.392155E+0	1.419050E+0	1.354894E+0	1.345544E+0	1.329779E+0	1.548350E+0	1.410061E+0	1.395848E+0	1.353920E+0	1.385656E+0	1.477713E+0	1.406738E+0	1.367627E+0	1.415560E+0	1.497848E+0	1.417442E+0	1.320092E+0	1.363160E+0	1.473587E+0	1.300994E+0	1.336422E+0	1.443589E+0	1.487973E+0	1.313002E+0	1.366991E+0	1.515861E+0	1.542932E+0	1.447319E+0	1.270415E+0	1.556712E+0	1.518994E+0	1.344845E+0	1.299504E+0	1.431228E+0	1.400799E+0	1.547157E+0	1.318665E+0	1.465946E+0	1.407709E+0	1.392179E+0	1.341447E+0	1.516602E+0	1.477977E+0	1.394697E+0	1.303517E+0	1.459129E+0	1.489944E+0	1.450197E+0	1.310446E+0	1.337762E+0	1.329849E+0	1.458901E+0	1.300449E+0	1.343210E+0	1.479254E+0	1.399151E+0	1.273873E+0
5.355580E+2	1.421642E+0	1.435357E+0	1.528579E+0	1.252206E+0	1.319279E+0	1.265712E+0	1.501464E+0	1.289482E+0	1.240949E+0	1.258018E+0	1.393303E+0	1.314004E+0	1.345271E+0	1.201688E+0	1.281239E+0	1.257388E+0	1.406238E+0	1.240919E+0	1.079187E+0	1.256725E+0	1.365193E+0	1.274469E+0	1.215788E+0	1.231556E+0	1.377315E+0	1.311315E+0	1.315011E+0	1.298509E+0	1.286831E+0	1.203154E+0	1.401931E+0	1.287254E+0	1.342830E+0	1.228729E+0	1.402069E+0	1.311673E+0	1.317519E+0	1.215258E+0	1.295167E+0	1.348737E+0	1.423900E+0	1.319957E+0	1.282723E+0	1.377447E+0	1.315255E+0	1.265815E+0	1.309754E+0	1.399455E+0	1.425525E+0	1.309202E+0	1.145499E+0	1.360477E+0	1.345055E+0	1.244808E+0	1.241196E+0	1.358242E+0	1.402857E+0	1.305880E+0	1.270674E+0	1.300833E+0	1.362621E+0	1.352497E+0	1.236917E+0	1.402744E+0	1.374189E+0	1.141980E+0	1.340904E+0	1.350913E+0	1.284747E+0	1.233828E+0	1.308015E+0	1.362114E+0	1.294621E+0	1.285147E+0	1.318391E+0	1.246664E+0	1.410211E+0	1.248429E+0	1.224288E+0	1.294990E+0	1.443484E+0	1.285079E+0	1.360557E+0	1.293695E+0	1.306117E+0	1.241730E+0	1.377607E+0	1.297788E+0	1.316922E+0	1.237802E+0	1.421165E+0	1.316534E+0	1.347423E+0	1.201686E+0	1.387992E+0	1.350331E+0	1.422853E+0	1.211642E+0	1.311764E+0	1.363323E+0	1.301568E+0	1.230804E+0	1.259193E+0	1.220361E+0	1.340249E+0	1.278887E+0	1.225782E+0	1.127842E+0	1.415926E+0	1.234014E+0	1.194899E+0	1.301355E+0	1.372119E+0	1.270857E+0	1.240842E+0	1.301803E+0	1.249743E+0	1.206448E+0	1.195166E+0	1.324907E+0	1.330062E+0	1.288012E+0	1.237025E+0	1.249266E+0	1.367316E+0	1.269161E+0	1.240888E+0	1.311214E+0	1.339476E+0	1.297143E+0	1.219505E+0	1.278787E+0	1.334580E+0	1.208261E+0	1.246620E+0	1.286961E+0	1.447246E+0	1.274494E+0	1.269355E+0	1.335781E+0	1.362946E+0	1.262604E+0	1.204401E+0	1.385778E+0	1.381763E+0	1.222300E+0	1.214827E+0	1.286225E+0	1.300184E+0	1.416075E+0	1.215522E+0	1.342418E+0	1.343119E+0	1.255650E+0	1.194393E+0	1.381008E+0	1.401441E+0	1.283235E+0	1.216456E+0	1.382845E+0	1.333116E+0	1.297993E+0	1.209598E+0	1.282205E+0	1.263308E+0	1.279648E+0	1.249304E+0	1.259981E+0	1.353017E+0	1.238812E+0	1.237751E+0
5.357190E+2	1.171737E+0	1.185399E+0	1.219026E+0	1.049530E+0	1.112294E+0	1.058413E+0	1.248816E+0	1.113246E+0	1.094345E+0	1.045817E+0	1.139547E+0	1.034823E+0	1.112722E+0	1.008601E+0	1.089604E+0	1.065469E+0	1.162246E+0	9.687900E-1	8.870041E-1	1.055277E+0	1.159912E+0	1.053398E+0	1.022433E+0	1.009326E+0	1.168881E+0	1.037344E+0	1.102658E+0	1.066115E+0	1.100240E+0	9.963046E-1	1.155929E+0	1.138860E+0	1.074634E+0	1.001301E+0	1.193549E+0	1.123756E+0	1.067379E+0	1.007607E+0	1.053021E+0	1.128510E+0	1.195998E+0	1.033942E+0	1.157082E+0	1.135822E+0	1.126408E+0	9.974207E-1	1.055973E+0	1.139253E+0	1.190356E+0	1.113643E+0	9.182669E-1	1.127629E+0	1.076166E+0	1.073209E+0	1.047316E+0	1.091874E+0	1.168490E+0	1.146726E+0	1.070863E+0	1.152486E+0	1.125459E+0	1.119593E+0	1.070872E+0	1.187487E+0	1.202530E+0	1.021309E+0	1.119542E+0	1.126430E+0	1.071765E+0	1.017483E+0	1.109897E+0	1.108713E+0	1.133771E+0	1.034940E+0	1.037918E+0	1.007623E+0	1.165191E+0	1.043353E+0	1.023589E+0	1.085132E+0	1.177274E+0	1.112958E+0	1.150377E+0	1.068978E+0	1.093915E+0	1.056908E+0	1.145026E+0	1.081281E+0	1.086094E+0	1.066210E+0	1.181895E+0	1.112596E+0	1.142237E+0	1.029055E+0	1.096435E+0	1.144988E+0	1.082149E+0	1.048487E+0	1.090944E+0	1.214554E+0	1.034408E+0	1.043647E+0	1.043711E+0	1.029846E+0	1.121934E+0	1.103109E+0	1.010675E+0	9.957130E-1	1.189874E+0	1.109289E+0	9.689684E-1	1.128303E+0	1.155043E+0	1.069926E+0	1.019058E+0	1.083698E+0	1.066327E+0	1.036889E+0	1.028640E+0	1.165152E+0	1.068092E+0	1.077482E+0	1.000170E+0	1.024104E+0	1.119931E+0	1.053267E+0	1.005797E+0	1.088220E+0	1.187102E+0	1.037293E+0	1.042434E+0	1.101894E+0	1.086383E+0	1.003162E+0	1.065122E+0	1.119665E+0	1.184329E+0	1.084813E+0	1.080870E+0	1.153992E+0	1.180385E+0	1.114602E+0	1.044009E+0	1.158394E+0	1.176486E+0	1.031168E+0	9.935395E-1	1.140030E+0	1.070917E+0	1.169706E+0	9.897078E-1	1.135388E+0	1.117054E+0	1.035589E+0	1.009569E+0	1.124096E+0	1.213164E+0	1.053025E+0	1.006998E+0	1.158295E+0	1.121235E+0	1.126905E+0	1.025663E+0	1.014361E+0	1.104563E+0	1.095681E+0	1.041655E+0	9.686748E-1	1.112016E+0	1.036479E+0	9.742654E-1
5.358650E+2	9.386320E-1	8.987882E-1	1.004308E+0	8.109879E-1	8.374170E-1	8.396540E-1	9.554195E-1	8.641754E-1	8.496429E-1	8.472375E-1	8.851824E-1	8.187151E-1	8.629491E-1	8.164726E-1	8.265663E-1	8.210106E-1	8.964128E-1	8.225954E-1	6.933211E-1	8.193283E-1	8.575678E-1	8.410249E-1	8.180293E-1	8.018795E-1	8.781691E-1	8.181671E-1	8.887081E-1	8.472752E-1	8.391975E-1	7.806201E-1	8.813211E-1	8.399076E-1	8.945507E-1	8.038893E-1	9.129309E-1	8.646171E-1	8.398489E-1	7.912832E-1	8.212979E-1	9.306545E-1	9.179245E-1	8.198367E-1	8.212982E-1	9.254989E-1	8.867930E-1	8.632230E-1	8.256082E-1	9.021725E-1	8.654556E-1	8.355926E-1	7.285540E-1	9.351284E-1	8.317207E-1	8.610854E-1	8.308889E-1	9.006372E-1	9.111868E-1	8.913006E-1	8.879143E-1	9.072438E-1	9.168803E-1	8.717195E-1	8.586149E-1	9.063377E-1	9.038616E-1	7.169369E-1	9.078842E-1	9.031847E-1	8.483603E-1	8.168709E-1	8.835489E-1	8.431103E-1	8.842175E-1	8.319328E-1	8.272952E-1	7.734042E-1	9.158891E-1	8.451114E-1	8.208714E-1	8.861824E-1	9.508133E-1	8.647707E-1	8.740081E-1	8.108494E-1	8.695009E-1	7.874516E-1	9.036783E-1	8.396417E-1	8.410299E-1	8.244218E-1	9.455356E-1	8.447269E-1	8.984930E-1	8.635758E-1	9.084425E-1	8.865384E-1	8.343638E-1	8.283405E-1	8.842582E-1	8.848291E-1	8.385902E-1	8.097042E-1	8.435520E-1	8.368430E-1	8.382862E-1	8.564654E-1	8.313315E-1	7.462568E-1	9.170852E-1	8.340498E-1	7.963887E-1	8.751368E-1	9.111047E-1	8.559948E-1	8.409767E-1	8.756786E-1	8.117095E-1	8.429643E-1	8.042821E-1	9.265987E-1	8.986753E-1	8.494891E-1	8.179342E-1	8.547918E-1	8.770594E-1	8.807655E-1	8.079853E-1	8.742312E-1	8.871528E-1	8.460154E-1	7.941147E-1	8.557571E-1	9.170433E-1	7.965931E-1	8.429744E-1	8.442349E-1	9.884879E-1	8.554735E-1	8.172005E-1	8.701954E-1	9.673952E-1	8.771120E-1	8.036788E-1	9.485830E-1	9.485222E-1	7.686442E-1	7.914447E-1	8.595723E-1	8.836975E-1	9.414811E-1	8.289848E-1	8.675780E-1	8.737275E-1	8.293537E-1	8.222262E-1	9.379522E-1	9.141680E-1	8.306567E-1	7.924202E-1	8.961407E-1	8.770973E-1	8.832552E-1	7.910413E-1	8.330685E-1	8.802285E-1	8.797425E-1	8.334948E-1	8.414851E-1	8.966158E-1	8.723220E-1	8.956435E-1
5.360120E+2	8.215542E-1	8.338951E-1	8.832299E-1	7.272990E-1	7.640062E-1	7.788603E-1	8.895933E-1	7.760573E-1	7.564495E-1	7.256797E-1	7.940756E-1	7.194625E-1	7.790869E-1	8.002228E-1	7.562131E-1	7.324326E-1	7.962594E-1	7.837199E-1	6.182503E-1	7.497681E-1	7.956491E-1	7.531466E-1	7.321507E-1	7.370795E-1	8.277062E-1	7.173841E-1	7.774757E-1	7.499598E-1	7.973754E-1	7.016229E-1	8.246826E-1	8.131614E-1	7.886200E-1	7.540277E-1	7.831595E-1	7.906557E-1	7.341930E-1	7.196316E-1	7.502174E-1	7.981740E-1	8.362638E-1	7.646884E-1	7.523621E-1	8.112757E-1	7.644474E-1	7.528074E-1	7.324821E-1	8.205221E-1	7.886144E-1	7.623301E-1	6.223358E-1	8.140951E-1	7.802306E-1	7.620277E-1	7.502295E-1	8.368918E-1	8.183342E-1	7.811162E-1	7.729320E-1	7.775073E-1	8.045682E-1	7.924215E-1	7.812346E-1	7.857748E-1	7.966978E-1	7.013142E-1	7.550535E-1	7.850685E-1	7.599914E-1	7.711433E-1	7.786928E-1	7.989997E-1	7.784113E-1	7.130849E-1	7.542432E-1	7.530372E-1	8.613207E-1	7.488821E-1	7.321196E-1	7.661894E-1	8.960049E-1	7.459511E-1	8.316237E-1	7.456441E-1	7.382109E-1	6.940666E-1	8.041481E-1	7.567433E-1	7.927289E-1	7.256265E-1	8.424913E-1	7.844960E-1	8.185139E-1	7.496808E-1	8.195117E-1	8.673186E-1	8.108468E-1	7.467641E-1	7.694321E-1	8.356441E-1	7.601620E-1	7.141778E-1	7.802914E-1	7.368599E-1	8.106644E-1	7.956413E-1	7.373899E-1	6.971051E-1	8.317434E-1	7.593193E-1	7.441251E-1	7.859410E-1	8.417907E-1	7.406349E-1	7.431944E-1	7.691476E-1	7.244800E-1	6.987903E-1	7.185277E-1	8.197358E-1	7.888681E-1	7.621955E-1	7.469798E-1	7.236924E-1	7.982771E-1	7.331332E-1	7.498339E-1	8.159670E-1	7.995669E-1	7.136840E-1	7.380602E-1	7.370529E-1	7.785393E-1	7.293716E-1	7.191392E-1	7.482219E-1	8.327737E-1	7.652318E-1	7.414940E-1	7.955424E-1	8.446553E-1	7.727070E-1	7.211621E-1	8.511325E-1	8.334067E-1	7.214238E-1	7.332994E-1	7.545501E-1	8.251293E-1	8.185899E-1	7.318500E-1	8.255784E-1	8.052399E-1	7.199001E-1	7.330873E-1	8.267419E-1	8.126312E-1	7.735249E-1	7.181632E-1	8.402723E-1	8.114746E-1	7.688045E-1	7.199756E-1	7.529487E-1	7.813694E-1	7.775387E-1	7.061432E-1	7.436013E-1	8.330552E-1	7.285263E-1	7.171523E-1
5.362680E+2	6.546014E-1	6.434220E-1	6.917724E-1	6.020493E-1	5.901383E-1	6.104314E-1	6.551264E-1	6.002698E-1	5.744218E-1	6.072656E-1	6.277600E-1	6.187427E-1	6.090962E-1	6.654453E-1	6.286312E-1	6.147632E-1	6.103347E-1	6.446435E-1	5.071457E-1	6.006307E-1	6.411308E-1	6.098863E-1	5.438190E-1	5.879097E-1	6.214648E-1	6.126877E-1	5.906686E-1	5.780838E-1	6.094061E-1	6.834327E-1	6.204429E-1	6.186069E-1	6.460956E-1	6.822887E-1	6.589337E-1	6.312284E-1	6.054387E-1	5.868258E-1	6.639725E-1	6.493499E-1	6.553302E-1	6.024871E-1	6.144912E-1	6.750871E-1	6.624086E-1	6.271036E-1	5.963332E-1	6.773876E-1	6.457613E-1	6.734925E-1	5.393693E-1	6.060324E-1	6.080788E-1	6.149418E-1	5.613571E-1	6.165127E-1	6.410191E-1	6.230752E-1	5.772081E-1	6.483186E-1	6.541503E-1	6.598893E-1	6.103531E-1	6.500801E-1	6.543097E-1	5.316195E-1	6.289082E-1	6.286115E-1	5.951679E-1	5.744643E-1	5.977145E-1	6.230256E-1	6.245102E-1	6.431414E-1	5.846787E-1	5.472250E-1	6.885217E-1	5.653646E-1	5.828550E-1	6.274963E-1	6.502711E-1	6.082545E-1	6.377007E-1	5.866713E-1	6.150630E-1	5.622571E-1	6.808961E-1	5.750721E-1	6.361322E-1	6.003120E-1	6.672597E-1	6.138421E-1	5.885748E-1	5.842011E-1	6.208258E-1	6.468010E-1	6.255821E-1	5.802575E-1	5.980762E-1	5.976115E-1	6.028002E-1	5.713745E-1	5.939702E-1	5.732052E-1	6.417503E-1	5.746659E-1	6.151586E-1	5.596923E-1	6.417559E-1	5.609158E-1	5.835221E-1	6.241061E-1	6.349255E-1	5.841129E-1	6.060816E-1	6.437052E-1	5.872697E-1	5.744138E-1	5.874028E-1	6.567418E-1	6.116084E-1	5.953103E-1	5.948615E-1	5.784831E-1	6.256584E-1	6.040220E-1	5.833336E-1	6.146899E-1	6.441925E-1	6.114287E-1	5.609882E-1	6.166028E-1	6.097050E-1	5.954203E-1	5.636374E-1	6.129313E-1	6.465147E-1	5.904970E-1	6.005222E-1	6.308490E-1	7.116004E-1	6.143791E-1	5.721163E-1	6.535708E-1	6.666876E-1	5.561522E-1	5.825756E-1	6.023871E-1	6.198898E-1	6.360089E-1	5.681222E-1	6.165693E-1	6.159244E-1	6.092941E-1	5.850259E-1	6.959066E-1	6.697661E-1	6.267734E-1	5.906453E-1	6.200191E-1	6.618777E-1	6.154174E-1	6.149452E-1	5.739951E-1	5.979085E-1	6.051014E-1	5.936239E-1	6.123085E-1	6.582636E-1	6.356303E-1	6.194065E-1
5.365140E+2	5.254484E-1	5.178422E-1	5.402763E-1	4.750926E-1	4.924416E-1	4.978128E-1	5.366398E-1	4.613482E-1	4.398087E-1	4.778485E-1	5.103610E-1	4.740186E-1	4.980356E-1	5.062925E-1	4.831993E-1	4.562780E-1	4.979282E-1	5.066613E-1	4.135571E-1	4.731961E-1	5.223136E-1	4.675411E-1	4.519125E-1	4.796201E-1	4.761096E-1	4.854860E-1	4.773069E-1	4.706011E-1	4.871570E-1	5.166025E-1	5.094556E-1	4.999762E-1	5.026081E-1	5.398273E-1	4.864588E-1	4.871405E-1	4.781586E-1	4.768390E-1	4.919569E-1	5.319248E-1	5.267014E-1	4.770515E-1	4.593858E-1	5.037523E-1	5.035118E-1	5.489634E-1	4.759771E-1	5.194970E-1	5.065179E-1	5.067782E-1	4.305091E-1	5.138162E-1	4.707735E-1	4.873677E-1	4.606584E-1	5.140644E-1	4.899938E-1	4.611390E-1	4.714249E-1	5.448576E-1	4.846797E-1	5.240291E-1	4.464580E-1	5.148737E-1	5.213470E-1	4.599706E-1	4.627360E-1	5.043119E-1	4.760183E-1	4.707168E-1	5.049571E-1	4.939784E-1	5.219100E-1	4.776646E-1	4.807000E-1	4.180562E-1	5.611959E-1	5.106771E-1	4.552735E-1	5.246451E-1	5.454728E-1	4.977637E-1	4.820981E-1	4.778154E-1	4.476425E-1	4.922181E-1	4.900874E-1	4.846773E-1	5.013980E-1	4.801973E-1	5.182251E-1	4.917963E-1	5.014547E-1	5.060578E-1	5.178238E-1	5.360364E-1	5.257792E-1	4.863883E-1	5.032716E-1	5.174578E-1	4.854105E-1	4.738978E-1	4.743694E-1	4.667551E-1	4.728363E-1	4.597144E-1	4.774491E-1	4.138236E-1	4.919002E-1	4.640821E-1	4.550406E-1	4.750900E-1	5.349851E-1	4.649612E-1	4.574970E-1	5.006128E-1	4.764636E-1	4.495303E-1	4.712352E-1	5.067017E-1	4.578779E-1	4.900441E-1	4.396804E-1	4.532628E-1	5.313205E-1	4.558600E-1	4.501322E-1	4.971017E-1	5.308111E-1	4.959398E-1	4.431153E-1	4.845153E-1	5.126514E-1	4.801146E-1	4.416932E-1	4.926723E-1	5.650638E-1	4.922084E-1	4.898331E-1	5.197239E-1	5.439935E-1	4.933394E-1	4.328691E-1	5.220402E-1	5.436334E-1	4.240473E-1	4.770119E-1	5.140730E-1	4.932425E-1	4.897103E-1	4.554662E-1	5.271349E-1	5.474372E-1	4.646995E-1	4.989086E-1	5.198732E-1	5.386362E-1	4.805825E-1	4.569816E-1	5.039842E-1	4.878115E-1	4.785487E-1	4.503438E-1	4.763313E-1	4.923956E-1	5.018490E-1	4.427458E-1	4.769133E-1	5.143698E-1	4.791097E-1	4.664148E-1
5.367710E+2	5.322732E-1	5.076273E-1	5.700983E-1	4.887561E-1	4.786422E-1	5.013011E-1	5.642238E-1	5.009117E-1	4.752331E-1	4.862314E-1	5.323729E-1	4.877088E-1	5.003022E-1	5.583875E-1	4.695485E-1	5.075143E-1	4.878064E-1	5.230880E-1	4.996384E-1	4.637357E-1	5.044623E-1	4.798990E-1	4.624589E-1	4.783151E-1	5.128597E-1	4.996738E-1	5.113685E-1	4.735058E-1	5.193285E-1	5.462267E-1	5.003018E-1	5.008387E-1	4.833481E-1	5.286336E-1	5.247253E-1	4.909753E-1	4.889701E-1	4.741004E-1	5.308147E-1	5.487001E-1	5.149593E-1	4.959752E-1	4.716163E-1	5.218744E-1	4.689908E-1	5.591555E-1	5.086527E-1	5.391719E-1	5.519010E-1	5.413905E-1	4.299804E-1	5.045950E-1	5.066601E-1	4.793630E-1	4.716802E-1	5.095111E-1	5.039778E-1	5.051010E-1	4.704024E-1	4.753361E-1	5.107523E-1	5.234748E-1	4.894467E-1	5.021832E-1	5.362306E-1	4.939095E-1	5.057944E-1	5.179168E-1	5.008410E-1	4.594077E-1	5.180642E-1	5.108716E-1	5.545066E-1	4.907434E-1	5.052287E-1	4.695091E-1	5.665459E-1	5.348659E-1	4.809920E-1	5.204897E-1	5.520980E-1	5.332984E-1	4.879037E-1	5.160762E-1	5.168498E-1	4.888133E-1	5.488767E-1	4.745352E-1	4.917379E-1	4.651185E-1	5.496624E-1	5.039476E-1	5.476333E-1	5.484493E-1	5.088179E-1	5.092303E-1	5.292208E-1	5.344401E-1	5.191703E-1	4.992411E-1	4.606173E-1	5.163002E-1	5.035281E-1	4.354170E-1	4.855844E-1	4.976597E-1	4.646385E-1	4.286217E-1	5.609868E-1	5.319708E-1	4.615735E-1	4.964538E-1	5.349853E-1	5.613660E-1	4.919125E-1	5.239362E-1	4.429864E-1	4.972502E-1	4.841979E-1	5.115586E-1	5.049384E-1	4.982599E-1	4.616302E-1	4.609055E-1	5.268048E-1	4.791429E-1	4.531143E-1	4.828000E-1	5.494085E-1	4.790976E-1	4.745479E-1	5.095361E-1	5.202339E-1	4.693200E-1	4.809233E-1	5.018860E-1	5.656628E-1	4.761148E-1	4.955765E-1	5.277023E-1	5.574020E-1	5.248900E-1	4.442154E-1	5.502633E-1	5.084749E-1	4.437225E-1	4.815277E-1	5.075086E-1	5.187719E-1	5.277476E-1	4.704871E-1	5.350408E-1	5.285056E-1	5.171222E-1	4.681882E-1	5.371198E-1	5.503714E-1	4.592977E-1	4.595425E-1	4.975375E-1	5.734543E-1	4.997871E-1	4.728132E-1	5.190228E-1	4.900194E-1	5.170486E-1	4.483724E-1	5.044607E-1	5.073072E-1	5.121953E-1	4.685391E-1
5.370170E+2	5.973749E-1	5.755249E-1	6.124457E-1	5.052659E-1	5.343902E-1	5.132607E-1	6.093616E-1	5.373279E-1	5.024826E-1	5.622053E-1	5.592770E-1	5.190007E-1	5.474463E-1	5.607772E-1	5.430522E-1	5.344348E-1	5.341540E-1	6.008398E-1	5.386755E-1	5.533296E-1	5.457420E-1	5.508428E-1	5.483386E-1	4.770107E-1	5.304119E-1	5.774621E-1	5.480911E-1	5.291841E-1	5.418475E-1	5.784491E-1	5.672376E-1	5.271530E-1	5.488326E-1	5.805304E-1	6.095758E-1	5.709629E-1	5.223872E-1	5.188250E-1	5.189682E-1	5.598832E-1	5.774052E-1	5.424728E-1	5.433318E-1	6.113851E-1	5.552923E-1	5.852024E-1	5.260800E-1	5.863920E-1	5.405548E-1	5.633110E-1	4.431915E-1	5.887418E-1	5.435871E-1	5.318936E-1	5.237827E-1	5.677933E-1	5.789311E-1	5.434984E-1	5.506343E-1	5.317192E-1	5.543733E-1	5.950091E-1	4.948204E-1	5.505056E-1	5.843551E-1	4.470414E-1	5.409699E-1	5.451266E-1	5.499902E-1	5.100523E-1	5.422620E-1	5.333963E-1	5.790875E-1	5.396474E-1	5.302904E-1	4.791567E-1	5.900852E-1	5.927082E-1	5.228462E-1	5.662014E-1	5.960651E-1	5.788272E-1	5.372557E-1	5.705045E-1	5.321156E-1	5.583660E-1	5.421726E-1	5.353864E-1	5.685110E-1	5.852325E-1	6.102077E-1	5.610085E-1	5.419201E-1	6.357860E-1	5.684801E-1	5.749808E-1	5.613403E-1	6.081950E-1	5.256473E-1	5.581417E-1	5.324673E-1	5.806352E-1	5.094585E-1	4.881446E-1	5.562312E-1	5.768979E-1	5.463034E-1	5.216399E-1	6.077210E-1	6.282781E-1	5.034935E-1	5.268984E-1	5.844179E-1	5.987360E-1	5.164942E-1	5.422169E-1	5.170138E-1	5.520771E-1	5.205936E-1	5.633713E-1	5.525215E-1	5.670680E-1	5.075720E-1	5.332159E-1	5.463743E-1	5.997885E-1	5.117626E-1	5.299414E-1	5.614065E-1	6.210526E-1	5.353183E-1	5.008079E-1	5.303434E-1	5.306533E-1	5.111727E-1	5.600755E-1	5.207453E-1	5.393409E-1	5.624076E-1	5.767110E-1	6.069107E-1	5.702088E-1	5.174489E-1	5.694339E-1	6.269925E-1	5.297316E-1	5.599952E-1	5.522626E-1	5.678288E-1	5.675416E-1	4.960220E-1	5.725931E-1	5.474370E-1	5.015679E-1	5.326500E-1	6.072950E-1	5.835365E-1	5.954066E-1	5.307272E-1	5.834900E-1	5.862454E-1	5.912294E-1	5.005081E-1	5.342280E-1	5.285176E-1	5.568821E-1	5.117915E-1	5.314232E-1	5.691017E-1	5.745484E-1	4.664147E-1
5.372640E+2	6.220505E-1	6.308039E-1	7.054902E-1	5.462564E-1	5.851709E-1	5.431595E-1	6.400805E-1	5.908283E-1	5.564367E-1	5.574899E-1	5.892383E-1	5.561593E-1	5.900574E-1	6.558862E-1	5.834788E-1	5.687373E-1	6.076713E-1	6.544988E-1	5.727073E-1	5.878316E-1	6.154707E-1	6.204134E-1	5.719426E-1	5.670346E-1	6.313380E-1	6.288319E-1	5.986519E-1	5.805044E-1	5.776950E-1	6.714792E-1	6.067132E-1	5.828017E-1	6.234650E-1	6.222510E-1	6.456236E-1	5.961652E-1	5.902045E-1	5.713089E-1	5.791496E-1	6.003155E-1	6.515937E-1	6.354680E-1	5.794674E-1	6.382938E-1	6.253489E-1	6.480547E-1	5.930653E-1	6.336111E-1	6.308053E-1	6.884909E-1	4.965654E-1	6.273576E-1	6.028782E-1	5.844238E-1	5.733809E-1	5.969342E-1	6.454939E-1	6.030419E-1	6.058256E-1	6.532449E-1	6.090248E-1	6.465801E-1	5.910082E-1	6.242102E-1	6.220609E-1	5.149191E-1	5.870622E-1	5.884150E-1	5.614084E-1	5.552887E-1	5.861199E-1	6.066015E-1	6.351973E-1	5.993556E-1	5.676157E-1	5.499049E-1	6.318137E-1	6.358273E-1	5.677265E-1	5.791873E-1	6.123272E-1	6.515624E-1	5.877683E-1	5.656549E-1	5.809678E-1	5.758761E-1	6.494388E-1	5.671349E-1	6.086772E-1	5.711935E-1	6.468841E-1	6.170126E-1	5.909552E-1	6.674521E-1	6.045024E-1	6.270757E-1	5.997701E-1	6.579232E-1	5.809998E-1	5.812166E-1	5.952098E-1	5.923321E-1	5.588806E-1	5.433594E-1	5.843830E-1	6.014512E-1	5.804643E-1	5.126549E-1	6.453124E-1	6.551180E-1	5.214590E-1	6.144919E-1	6.343880E-1	6.588536E-1	5.552792E-1	5.932763E-1	5.735955E-1	6.018276E-1	5.440268E-1	6.567418E-1	5.886011E-1	5.989049E-1	5.524927E-1	5.667257E-1	6.432216E-1	6.876274E-1	5.624580E-1	6.025066E-1	6.045988E-1	6.306760E-1	5.877065E-1	5.851819E-1	5.874639E-1	5.762846E-1	5.579654E-1	5.746226E-1	6.171679E-1	5.801507E-1	5.566643E-1	6.268601E-1	6.244451E-1	6.424887E-1	5.798522E-1	6.205548E-1	6.496751E-1	5.966267E-1	5.289472E-1	5.767280E-1	5.948606E-1	6.184527E-1	5.285673E-1	6.047104E-1	6.348567E-1	6.409782E-1	5.482624E-1	6.697395E-1	6.447644E-1	7.163928E-1	5.460906E-1	6.533264E-1	6.157201E-1	6.997803E-1	5.804566E-1	5.658079E-1	5.708178E-1	6.653758E-1	5.286695E-1	5.753825E-1	6.070617E-1	6.394489E-1	5.875325E-1
5.375160E+2	7.648536E-1	7.359551E-1	7.132445E-1	6.282381E-1	6.210480E-1	6.308620E-1	6.983838E-1	6.555683E-1	6.327356E-1	6.863828E-1	7.109176E-1	6.397663E-1	6.829858E-1	7.108492E-1	6.554077E-1	6.329999E-1	7.030307E-1	7.070634E-1	6.823112E-1	6.351325E-1	6.751581E-1	7.018838E-1	6.688711E-1	6.344438E-1	6.675405E-1	6.611220E-1	6.928535E-1	6.260151E-1	6.558241E-1	7.068200E-1	7.085466E-1	6.570004E-1	6.942458E-1	7.016224E-1	7.221557E-1	6.914928E-1	6.649008E-1	6.269869E-1	6.374353E-1	6.695660E-1	7.097704E-1	6.630420E-1	6.083758E-1	6.932086E-1	6.700230E-1	7.341219E-1	6.300983E-1	6.887002E-1	7.189928E-1	7.571388E-1	5.589218E-1	6.919086E-1	6.694501E-1	6.619694E-1	6.525369E-1	6.561265E-1	7.411431E-1	6.776107E-1	6.528401E-1	6.773312E-1	6.912532E-1	7.630314E-1	6.678508E-1	6.988912E-1	7.138446E-1	5.941101E-1	6.944070E-1	6.805580E-1	6.696359E-1	6.103587E-1	6.642581E-1	6.525892E-1	6.886354E-1	6.772607E-1	6.422668E-1	6.040375E-1	7.158055E-1	7.388916E-1	6.221884E-1	6.410018E-1	7.038743E-1	7.503930E-1	6.847302E-1	6.513382E-1	6.359262E-1	6.502923E-1	7.066811E-1	6.478284E-1	6.666384E-1	6.455496E-1	7.475984E-1	6.936219E-1	6.780748E-1	7.302728E-1	6.658537E-1	7.135632E-1	6.766304E-1	7.048577E-1	6.875814E-1	6.947683E-1	6.367007E-1	6.576411E-1	6.517941E-1	6.348863E-1	6.635285E-1	6.806897E-1	6.172941E-1	5.887604E-1	7.093188E-1	8.119460E-1	6.047547E-1	6.940740E-1	7.047763E-1	7.384681E-1	6.372189E-1	6.474870E-1	6.509235E-1	6.876216E-1	6.357645E-1	6.983000E-1	6.659889E-1	6.620642E-1	6.438658E-1	6.496179E-1	6.868780E-1	7.908105E-1	6.429752E-1	6.517669E-1	7.113816E-1	7.497744E-1	6.044702E-1	6.294050E-1	6.718809E-1	6.695109E-1	5.849066E-1	7.128235E-1	7.483278E-1	6.226851E-1	6.584773E-1	6.798580E-1	7.363549E-1	7.308306E-1	6.123434E-1	7.169399E-1	7.239624E-1	6.477828E-1	6.452360E-1	6.984579E-1	6.419149E-1	7.208626E-1	5.926565E-1	7.005680E-1	6.710487E-1	7.043460E-1	6.706396E-1	6.988797E-1	7.126257E-1	8.020908E-1	6.070329E-1	6.898559E-1	6.869035E-1	7.841436E-1	5.966561E-1	6.248738E-1	6.416355E-1	7.513320E-1	6.345398E-1	6.621293E-1	7.156452E-1	7.094375E-1	5.726587E-1
5.377630E+2	8.457050E-1	8.843671E-1	9.500314E-1	7.722743E-1	7.678691E-1	7.549413E-1	9.209389E-1	8.007843E-1	7.646238E-1	7.958900E-1	8.203683E-1	7.884012E-1	7.985794E-1	8.895970E-1	8.333918E-1	7.758538E-1	8.282230E-1	8.828255E-1	7.944168E-1	7.931740E-1	8.006694E-1	7.851854E-1	7.728299E-1	7.509963E-1	8.041203E-1	8.181666E-1	8.259072E-1	7.731993E-1	7.858859E-1	9.027550E-1	8.229669E-1	7.713175E-1	7.761012E-1	8.232234E-1	8.524820E-1	8.328413E-1	8.300205E-1	7.921962E-1	7.701200E-1	8.377470E-1	8.538769E-1	8.684969E-1	7.629253E-1	8.453232E-1	8.177515E-1	8.615246E-1	7.760495E-1	8.736440E-1	8.056327E-1	8.632822E-1	6.963185E-1	8.440654E-1	7.911527E-1	7.980490E-1	7.727741E-1	8.273297E-1	8.809816E-1	8.195142E-1	7.943954E-1	8.048780E-1	8.281336E-1	9.060993E-1	7.688749E-1	8.682652E-1	8.587138E-1	7.120878E-1	8.387469E-1	8.512388E-1	8.319770E-1	7.672097E-1	8.008736E-1	8.046306E-1	8.120769E-1	8.336384E-1	7.659749E-1	7.273103E-1	8.613213E-1	8.834974E-1	7.588457E-1	8.222903E-1	8.990160E-1	8.908665E-1	8.165282E-1	8.372552E-1	7.977495E-1	7.811286E-1	8.619069E-1	7.757040E-1	7.983219E-1	7.797038E-1	8.366700E-1	8.463119E-1	8.256551E-1	8.921774E-1	8.487808E-1	8.334317E-1	8.309218E-1	8.976254E-1	8.012296E-1	9.036536E-1	8.036765E-1	8.014188E-1	7.689245E-1	7.542701E-1	7.995098E-1	8.201937E-1	7.907659E-1	7.245872E-1	8.485072E-1	8.961493E-1	7.348697E-1	8.057030E-1	8.718807E-1	8.809080E-1	7.825258E-1	7.867980E-1	7.857761E-1	7.820458E-1	7.604075E-1	8.629127E-1	8.123986E-1	8.279230E-1	7.311556E-1	7.419167E-1	8.243708E-1	8.955813E-1	7.726969E-1	8.027248E-1	8.019663E-1	8.790978E-1	7.967342E-1	8.097887E-1	8.154397E-1	7.676434E-1	7.437178E-1	7.763465E-1	8.591245E-1	8.204117E-1	7.780418E-1	8.644966E-1	8.518752E-1	8.782590E-1	7.717034E-1	8.724339E-1	8.572234E-1	8.023739E-1	7.739446E-1	8.333168E-1	8.286335E-1	8.396566E-1	7.418635E-1	8.043313E-1	8.386489E-1	8.241697E-1	7.471881E-1	8.719400E-1	9.014118E-1	9.258774E-1	7.616928E-1	8.628345E-1	8.637502E-1	9.062633E-1	7.565534E-1	7.693228E-1	7.770916E-1	8.797428E-1	7.716082E-1	7.617710E-1	8.153995E-1	8.965006E-1	8.488968E-1
5.380160E+2	9.512319E-1	9.564707E-1	1.010868E+0	8.753203E-1	8.583912E-1	8.795195E-1	1.040680E+0	9.154280E-1	8.861571E-1	8.723876E-1	9.817922E-1	9.101456E-1	8.987609E-1	9.971331E-1	8.953443E-1	8.917861E-1	9.949688E-1	1.000548E+0	9.440583E-1	9.044707E-1	9.473784E-1	9.517895E-1	8.818114E-1	8.536320E-1	9.357627E-1	9.492822E-1	9.094645E-1	8.889127E-1	9.233007E-1	9.921482E-1	9.047768E-1	9.214390E-1	9.085145E-1	9.738254E-1	9.889084E-1	9.555621E-1	8.776892E-1	9.058339E-1	8.990124E-1	9.405477E-1	9.659600E-1	9.106690E-1	8.446474E-1	9.403257E-1	9.274054E-1	1.024599E+0	8.615518E-1	9.695591E-1	9.500329E-1	9.705797E-1	7.983089E-1	8.936313E-1	9.211767E-1	8.580835E-1	8.759773E-1	9.229492E-1	9.531385E-1	9.168989E-1	8.894472E-1	9.132655E-1	9.489694E-1	1.013678E+0	8.570024E-1	9.697920E-1	9.961408E-1	8.182145E-1	9.018191E-1	9.798678E-1	9.029705E-1	8.630901E-1	9.143000E-1	9.336782E-1	9.419306E-1	8.808365E-1	8.774176E-1	8.355763E-1	9.560127E-1	9.965527E-1	8.632299E-1	9.085193E-1	9.857458E-1	9.486104E-1	8.960713E-1	9.256329E-1	9.249688E-1	8.983464E-1	9.676251E-1	8.643352E-1	8.959408E-1	8.883784E-1	9.705682E-1	9.007308E-1	9.275328E-1	1.020373E+0	9.422138E-1	9.426788E-1	8.968839E-1	9.618811E-1	8.919131E-1	9.643760E-1	8.856463E-1	9.247267E-1	8.741935E-1	8.497763E-1	8.988403E-1	8.988749E-1	8.622897E-1	8.112629E-1	9.567081E-1	1.014560E+0	8.579076E-1	8.831487E-1	9.524777E-1	9.762299E-1	8.874084E-1	8.857648E-1	8.357568E-1	9.064218E-1	8.591254E-1	1.002159E+0	8.991983E-1	9.475666E-1	8.837843E-1	8.830098E-1	8.971312E-1	9.844784E-1	8.621602E-1	8.842950E-1	9.639395E-1	1.040301E+0	8.747927E-1	8.895064E-1	9.079447E-1	8.770613E-1	8.533727E-1	9.126080E-1	9.699222E-1	8.744413E-1	8.897751E-1	9.528267E-1	9.730680E-1	9.625851E-1	8.372012E-1	9.182296E-1	9.587299E-1	8.940038E-1	8.377348E-1	8.959726E-1	9.307527E-1	9.561105E-1	8.500137E-1	9.575062E-1	9.093635E-1	9.347756E-1	8.494208E-1	9.795813E-1	9.794771E-1	1.003734E+0	8.687265E-1	9.117196E-1	9.655205E-1	1.019534E+0	8.673330E-1	8.880407E-1	8.702475E-1	9.777533E-1	8.355403E-1	8.391408E-1	8.851391E-1	9.652169E-1	9.700158E-1
5.382900E+2	1.171212E+0	1.158961E+0	1.288214E+0	1.080843E+0	1.101806E+0	1.098277E+0	1.285177E+0	1.053451E+0	1.129223E+0	1.121266E+0	1.264284E+0	1.062203E+0	1.109548E+0	1.242790E+0	1.262337E+0	1.107585E+0	1.175031E+0	1.219018E+0	1.189289E+0	1.045260E+0	1.123652E+0	1.110153E+0	1.101281E+0	1.079780E+0	1.151329E+0	1.177756E+0	1.132994E+0	1.087417E+0	1.115866E+0	1.220822E+0	1.186250E+0	1.100896E+0	1.136746E+0	1.207360E+0	1.275626E+0	1.119920E+0	1.055096E+0	1.067848E+0	1.093299E+0	1.144426E+0	1.217881E+0	1.129101E+0	1.106492E+0	1.157789E+0	1.119807E+0	1.255625E+0	1.093550E+0	1.223854E+0	1.177462E+0	1.173638E+0	1.180379E+0	1.150106E+0	1.137016E+0	1.082215E+0	1.088397E+0	1.124658E+0	1.181915E+0	1.125580E+0	1.150584E+0	1.140989E+0	1.135989E+0	1.234934E+0	1.147178E+0	1.175774E+0	1.153414E+0	9.868315E-1	1.169879E+0	1.106023E+0	1.121908E+0	1.092712E+0	1.106872E+0	1.128422E+0	1.162628E+0	1.096923E+0	1.070445E+0	1.044069E+0	1.178030E+0	1.228973E+0	1.055357E+0	1.058121E+0	1.182694E+0	1.212346E+0	1.137604E+0	1.101850E+0	1.084756E+0	1.063716E+0	1.177516E+0	1.071582E+0	1.103889E+0	1.113528E+0	1.235454E+0	1.158032E+0	1.191749E+0	1.227223E+0	1.162852E+0	1.134365E+0	1.130902E+0	1.206053E+0	1.148063E+0	1.117398E+0	1.053129E+0	1.068993E+0	1.040746E+0	1.028354E+0	1.081565E+0	1.091391E+0	1.101948E+0	1.005226E+0	1.183777E+0	1.287170E+0	1.014155E+0	1.091450E+0	1.142148E+0	1.254610E+0	1.016327E+0	1.137279E+0	1.055011E+0	1.101869E+0	1.031632E+0	1.158138E+0	1.085348E+0	1.181206E+0	1.051217E+0	1.031158E+0	1.119930E+0	1.239527E+0	1.079854E+0	1.066502E+0	1.139110E+0	1.179850E+0	1.017812E+0	1.103058E+0	1.072734E+0	1.097369E+0	1.041016E+0	1.079903E+0	1.222658E+0	1.066994E+0	1.107498E+0	1.164820E+0	1.210297E+0	1.191472E+0	1.016160E+0	1.195669E+0	1.208241E+0	1.098626E+0	1.014426E+0	1.064843E+0	1.130486E+0	1.176144E+0	9.872046E-1	1.158117E+0	1.148792E+0	1.154836E+0	1.070506E+0	1.134800E+0	1.192244E+0	1.268671E+0	1.049505E+0	1.127675E+0	1.130689E+0	1.305069E+0	9.901298E-1	9.862894E-1	1.083175E+0	1.180065E+0	1.002784E+0	1.029046E+0	1.134085E+0	1.208272E+0	1.048636E+0
5.385110E+2	1.376489E+0	1.425743E+0	1.540506E+0	1.227725E+0	1.235933E+0	1.233817E+0	1.507733E+0	1.245425E+0	1.261113E+0	1.288411E+0	1.429378E+0	1.301290E+0	1.326684E+0	1.436832E+0	1.507527E+0	1.286481E+0	1.368416E+0	1.396972E+0	1.424012E+0	1.225560E+0	1.294904E+0	1.290486E+0	1.256466E+0	1.236776E+0	1.346598E+0	1.345075E+0	1.304368E+0	1.237507E+0	1.336465E+0	1.418835E+0	1.432827E+0	1.294157E+0	1.302383E+0	1.382385E+0	1.384882E+0	1.370292E+0	1.259530E+0	1.245837E+0	1.288533E+0	1.336692E+0	1.389209E+0	1.291840E+0	1.298847E+0	1.344497E+0	1.336070E+0	1.479852E+0	1.407238E+0	1.381747E+0	1.336306E+0	1.379578E+0	1.380131E+0	1.373154E+0	1.303968E+0	1.266321E+0	1.367447E+0	1.340482E+0	1.362026E+0	1.303098E+0	1.314111E+0	1.302475E+0	1.337548E+0	1.409612E+0	1.423918E+0	1.395421E+0	1.356328E+0	1.141982E+0	1.389422E+0	1.354002E+0	1.329924E+0	1.183676E+0	1.317092E+0	1.260756E+0	1.365692E+0	1.370444E+0	1.285334E+0	1.237554E+0	1.401652E+0	1.458238E+0	1.386161E+0	1.323042E+0	1.371209E+0	1.401679E+0	1.394233E+0	1.242498E+0	1.277114E+0	1.304962E+0	1.437426E+0	1.259425E+0	1.313873E+0	1.297599E+0	1.428732E+0	1.328686E+0	1.334092E+0	1.437646E+0	1.352534E+0	1.345278E+0	1.296668E+0	1.356357E+0	1.307054E+0	1.357251E+0	1.256536E+0	1.261507E+0	1.270064E+0	1.213894E+0	1.372650E+0	1.337478E+0	1.236988E+0	1.181220E+0	1.411865E+0	1.408736E+0	1.205788E+0	1.268777E+0	1.359761E+0	1.407881E+0	1.210798E+0	1.289195E+0	1.199766E+0	1.290209E+0	1.214611E+0	1.350815E+0	1.289797E+0	1.361958E+0	1.254381E+0	1.191063E+0	1.316134E+0	1.436370E+0	1.196653E+0	1.263542E+0	1.343076E+0	1.359697E+0	1.167119E+0	1.265987E+0	1.277963E+0	1.250457E+0	1.205025E+0	1.218589E+0	1.403525E+0	1.269319E+0	1.221319E+0	1.369972E+0	1.394926E+0	1.368157E+0	1.199242E+0	1.385244E+0	1.348309E+0	1.245348E+0	1.199021E+0	1.320836E+0	1.237111E+0	1.366919E+0	1.153435E+0	1.317221E+0	1.298574E+0	1.290211E+0	1.167699E+0	1.431560E+0	1.369297E+0	1.436145E+0	1.187264E+0	1.348463E+0	1.309206E+0	1.493856E+0	1.153163E+0	1.185126E+0	1.215780E+0	1.381329E+0	1.209924E+0	1.150961E+0	1.270917E+0	1.345705E+0	1.267501E+0
5.387700E+2	1.650022E+0	1.681112E+0	1.791012E+0	1.441786E+0	1.562144E+0	1.484467E+0	1.771665E+0	1.521016E+0	1.548324E+0	1.548815E+0	1.638495E+0	1.480730E+0	1.555152E+0	1.691094E+0	1.783164E+0	1.462334E+0	1.615601E+0	1.643363E+0	1.690264E+0	1.492673E+0	1.563778E+0	1.534442E+0	1.531682E+0	1.444658E+0	1.595624E+0	1.594098E+0	1.559831E+0	1.502340E+0	1.553390E+0	1.719236E+0	1.666242E+0	1.507261E+0	1.549394E+0	1.648484E+0	1.672709E+0	1.529172E+0	1.499836E+0	1.450750E+0	1.491825E+0	1.600793E+0	1.668880E+0	1.570829E+0	1.560688E+0	1.583380E+0	1.548271E+0	1.661613E+0	1.639778E+0	1.582428E+0	1.585392E+0	1.657629E+0	1.655980E+0	1.600235E+0	1.513047E+0	1.522470E+0	1.620448E+0	1.605027E+0	1.646738E+0	1.549620E+0	1.619710E+0	1.525822E+0	1.573705E+0	1.678561E+0	1.666805E+0	1.601406E+0	1.622251E+0	1.321910E+0	1.681740E+0	1.543853E+0	1.522051E+0	1.467875E+0	1.557556E+0	1.552168E+0	1.644639E+0	1.523407E+0	1.622330E+0	1.442831E+0	1.655233E+0	1.639655E+0	1.757809E+0	1.514197E+0	1.687414E+0	1.627660E+0	1.782076E+0	1.566913E+0	1.543253E+0	1.518484E+0	1.644224E+0	1.419051E+0	1.528430E+0	1.501429E+0	1.684888E+0	1.455487E+0	1.557367E+0	1.676163E+0	1.782551E+0	1.505100E+0	1.575425E+0	1.642434E+0	1.597358E+0	1.589822E+0	1.451343E+0	1.478881E+0	1.476156E+0	1.445198E+0	1.538910E+0	1.574076E+0	1.536962E+0	1.354574E+0	1.636393E+0	1.655032E+0	1.552583E+0	1.564673E+0	1.555881E+0	1.691680E+0	1.544563E+0	1.699564E+0	1.456266E+0	1.449618E+0	1.494807E+0	1.633083E+0	1.450849E+0	1.527816E+0	1.452444E+0	1.487362E+0	1.587101E+0	1.662846E+0	1.436714E+0	1.520437E+0	1.581836E+0	1.605715E+0	1.466253E+0	1.512122E+0	1.531720E+0	1.420717E+0	1.376600E+0	1.506141E+0	1.600566E+0	1.453825E+0	1.480814E+0	1.566581E+0	1.654843E+0	1.645803E+0	1.394704E+0	1.657358E+0	1.591015E+0	1.442660E+0	1.385310E+0	1.496867E+0	1.514436E+0	1.563540E+0	1.363226E+0	1.579594E+0	1.510161E+0	1.630672E+0	1.428569E+0	1.598672E+0	1.644310E+0	1.743090E+0	1.441277E+0	1.588055E+0	1.499399E+0	1.679689E+0	1.394052E+0	1.388642E+0	1.457225E+0	1.619282E+0	1.408365E+0	1.380724E+0	1.562236E+0	1.549310E+0	1.409869E+0
5.390240E+2	1.868429E+0	1.848749E+0	2.012291E+0	1.700254E+0	1.780166E+0	1.667347E+0	1.946571E+0	1.703550E+0	1.634979E+0	1.776735E+0	1.987027E+0	1.659188E+0	1.742821E+0	1.906164E+0	1.927020E+0	1.712869E+0	1.747190E+0	1.844860E+0	1.840904E+0	1.679093E+0	1.799183E+0	1.724387E+0	1.731565E+0	1.567736E+0	1.829291E+0	1.814742E+0	1.756751E+0	1.665985E+0	1.729408E+0	1.846567E+0	1.881926E+0	1.694481E+0	1.721773E+0	1.870314E+0	1.837416E+0	1.748864E+0	1.665447E+0	1.668896E+0	1.675215E+0	1.798222E+0	1.842343E+0	1.812507E+0	1.787512E+0	1.796998E+0	1.715795E+0	1.871118E+0	1.919702E+0	1.843120E+0	1.842219E+0	1.805307E+0	1.910165E+0	1.802540E+0	1.693000E+0	1.723588E+0	1.769737E+0	1.753466E+0	1.793285E+0	1.738824E+0	1.784261E+0	1.761206E+0	1.755712E+0	1.853236E+0	1.860795E+0	1.786398E+0	1.759187E+0	1.494298E+0	1.860042E+0	1.776994E+0	1.687371E+0	1.656196E+0	1.700219E+0	1.687318E+0	1.807622E+0	1.716752E+0	1.781232E+0	1.638464E+0	1.832314E+0	1.895213E+0	1.953466E+0	1.732369E+0	1.806060E+0	1.839196E+0	1.913295E+0	1.720496E+0	1.710166E+0	1.663909E+0	1.867007E+0	1.636877E+0	1.661639E+0	1.739056E+0	1.909020E+0	1.767210E+0	1.840627E+0	1.874842E+0	1.893995E+0	1.740286E+0	1.721689E+0	1.783238E+0	1.782258E+0	1.737981E+0	1.652722E+0	1.707465E+0	1.692127E+0	1.596419E+0	1.723755E+0	1.768269E+0	1.709901E+0	1.493042E+0	1.781173E+0	1.947634E+0	1.833499E+0	1.739323E+0	1.810566E+0	1.899656E+0	1.819883E+0	1.857784E+0	1.637798E+0	1.717151E+0	1.679777E+0	1.834941E+0	1.688764E+0	1.725000E+0	1.752087E+0	1.681953E+0	1.737144E+0	1.893025E+0	1.928760E+0	1.650207E+0	1.752807E+0	1.750677E+0	1.830349E+0	1.598243E+0	1.664665E+0	1.635137E+0	1.670117E+0	1.691863E+0	1.773647E+0	1.591776E+0	1.733518E+0	1.768885E+0	1.840499E+0	1.794378E+0	1.772218E+0	1.791016E+0	1.776451E+0	1.610184E+0	1.730226E+0	1.667528E+0	1.705657E+0	1.766603E+0	1.582531E+0	1.693734E+0	1.752929E+0	1.718234E+0	1.607856E+0	1.708694E+0	1.781564E+0	1.868560E+0	1.544215E+0	1.759959E+0	1.721291E+0	1.925109E+0	1.564928E+0	1.556483E+0	1.625476E+0	1.775991E+0	1.593510E+0	1.570042E+0	1.789113E+0	1.858535E+0	1.484239E+0
5.392880E+2	2.115182E+0	2.104116E+0	2.218064E+0	1.935952E+0	1.916497E+0	1.780963E+0	2.192950E+0	1.905864E+0	1.852429E+0	1.892006E+0	2.116039E+0	1.884093E+0	1.905106E+0	2.024692E+0	2.224184E+0	1.861368E+0	1.948563E+0	2.085235E+0	2.025077E+0	1.818770E+0	1.957046E+0	1.879091E+0	1.877208E+0	1.807365E+0	1.946126E+0	1.958577E+0	1.995181E+0	1.854324E+0	1.948629E+0	2.082520E+0	2.097606E+0	1.858839E+0	1.869592E+0	2.036689E+0	2.072558E+0	1.927466E+0	1.873810E+0	1.888872E+0	1.905043E+0	1.926829E+0	2.051567E+0	1.946053E+0	1.989314E+0	2.055642E+0	1.865047E+0	2.157634E+0	2.120116E+0	2.112668E+0	1.953099E+0	2.044709E+0	2.092477E+0	1.921842E+0	1.844349E+0	1.868174E+0	1.986168E+0	1.916017E+0	1.979555E+0	1.973660E+0	1.932460E+0	1.963203E+0	2.035488E+0	2.102218E+0	2.051557E+0	1.988475E+0	2.045947E+0	1.712479E+0	2.017116E+0	1.946441E+0	1.927159E+0	1.794851E+0	1.852463E+0	1.928516E+0	1.983433E+0	1.873699E+0	2.016917E+0	1.753692E+0	2.017419E+0	2.079255E+0	2.033647E+0	1.861713E+0	1.964465E+0	2.062402E+0	2.188504E+0	1.848752E+0	1.872499E+0	1.828309E+0	2.081535E+0	1.785478E+0	1.826878E+0	1.936129E+0	2.076683E+0	1.908804E+0	1.980587E+0	2.067390E+0	2.091558E+0	1.981033E+0	1.899497E+0	2.044733E+0	1.975990E+0	2.034914E+0	1.804014E+0	1.855140E+0	1.877957E+0	1.761068E+0	2.049901E+0	1.908890E+0	1.922870E+0	1.643667E+0	1.950330E+0	2.076574E+0	2.057255E+0	1.934276E+0	1.919109E+0	2.099501E+0	2.085915E+0	2.066437E+0	1.764161E+0	1.883662E+0	1.857266E+0	1.990372E+0	1.898442E+0	1.958637E+0	1.912883E+0	1.816579E+0	1.894706E+0	2.051236E+0	2.081343E+0	1.855190E+0	1.917181E+0	2.008722E+0	2.051428E+0	1.791426E+0	1.861298E+0	1.795583E+0	1.853031E+0	1.850917E+0	1.945532E+0	1.780304E+0	1.935576E+0	1.918191E+0	2.042144E+0	2.043918E+0	2.065668E+0	2.019468E+0	2.029362E+0	1.806372E+0	2.005145E+0	1.850126E+0	1.841317E+0	2.017653E+0	1.792323E+0	1.895825E+0	1.886565E+0	1.911797E+0	1.887361E+0	1.997126E+0	1.936677E+0	2.099327E+0	2.019973E+0	1.965170E+0	1.869219E+0	2.147520E+0	1.989752E+0	1.779881E+0	1.789449E+0	1.938475E+0	1.881970E+0	1.799218E+0	1.850025E+0	1.933615E+0	1.807225E+0
5.395160E+2	2.017529E+0	2.105316E+0	2.160807E+0	1.896669E+0	1.914848E+0	1.822822E+0	2.078224E+0	1.871695E+0	1.876952E+0	1.960121E+0	2.226712E+0	1.858672E+0	1.860683E+0	2.183848E+0	2.171683E+0	1.868315E+0	1.995440E+0	2.033217E+0	1.991547E+0	1.854387E+0	1.970431E+0	1.841560E+0	1.924922E+0	1.809536E+0	2.005366E+0	1.998696E+0	1.946750E+0	1.780731E+0	1.878313E+0	2.062252E+0	2.069576E+0	1.888176E+0	1.948077E+0	2.000567E+0	2.054258E+0	1.925824E+0	1.884621E+0	1.803071E+0	1.842487E+0	1.917368E+0	2.092130E+0	1.922804E+0	1.939835E+0	1.952958E+0	1.898554E+0	2.104973E+0	2.032979E+0	2.019210E+0	2.025816E+0	2.018171E+0	2.042806E+0	1.928756E+0	1.882834E+0	1.879679E+0	1.937071E+0	1.900535E+0	2.054507E+0	1.931923E+0	1.995829E+0	1.946237E+0	1.930196E+0	2.085030E+0	2.042960E+0	1.969439E+0	1.926382E+0	1.820219E+0	2.001347E+0	1.935306E+0	1.859642E+0	1.730442E+0	1.880190E+0	1.831846E+0	1.965801E+0	1.932267E+0	1.975857E+0	1.706529E+0	1.996021E+0	2.046655E+0	2.053311E+0	1.872099E+0	2.069865E+0	2.073506E+0	2.154829E+0	1.872465E+0	1.852141E+0	1.857004E+0	2.062457E+0	1.777101E+0	1.889418E+0	1.908051E+0	2.111030E+0	1.851212E+0	1.917748E+0	2.053601E+0	2.085365E+0	1.939561E+0	1.819195E+0	1.974329E+0	1.942425E+0	1.963872E+0	1.832857E+0	1.883407E+0	1.811730E+0	1.743659E+0	1.823091E+0	1.878198E+0	1.919135E+0	1.609845E+0	1.943218E+0	2.050784E+0	2.033841E+0	1.855226E+0	1.974448E+0	2.009056E+0	1.995233E+0	2.082821E+0	1.787269E+0	1.846602E+0	1.860260E+0	1.924528E+0	1.868117E+0	1.872880E+0	1.830699E+0	1.760731E+0	1.870119E+0	2.005204E+0	2.118122E+0	1.748728E+0	1.957972E+0	1.953985E+0	1.947176E+0	1.839727E+0	1.889103E+0	1.829442E+0	1.817108E+0	1.775268E+0	1.935350E+0	1.766512E+0	1.918869E+0	1.951243E+0	2.019973E+0	2.050226E+0	2.051747E+0	1.991778E+0	2.023689E+0	1.770956E+0	2.067241E+0	1.850124E+0	1.832304E+0	1.966156E+0	1.756273E+0	1.882486E+0	1.874314E+0	1.935990E+0	1.891889E+0	1.901376E+0	1.922389E+0	2.069642E+0	2.061455E+0	1.907689E+0	1.822506E+0	2.090885E+0	1.971988E+0	1.772863E+0	1.775668E+0	2.013949E+0	1.823661E+0	1.696648E+0	1.876508E+0	1.973064E+0	1.856096E+0
5.397750E+2	2.136184E+0	2.100511E+0	2.215085E+0	1.935953E+0	1.981078E+0	1.885609E+0	2.194201E+0	1.898222E+0	1.869867E+0	1.928162E+0	2.211425E+0	1.905612E+0	1.950892E+0	2.120281E+0	2.269862E+0	1.908699E+0	2.063096E+0	2.049096E+0	2.045100E+0	1.935079E+0	2.029565E+0	1.878634E+0	1.935966E+0	1.815627E+0	1.988906E+0	2.070613E+0	1.972828E+0	1.871267E+0	1.975285E+0	2.113184E+0	2.126786E+0	1.874372E+0	1.963966E+0	2.046863E+0	2.117479E+0	1.915967E+0	1.852190E+0	1.842321E+0	1.981333E+0	1.993929E+0	2.038756E+0	1.955787E+0	1.963183E+0	2.063885E+0	1.949828E+0	2.154234E+0	2.116850E+0	1.991661E+0	2.065525E+0	2.052784E+0	2.151134E+0	1.940285E+0	1.905716E+0	1.832152E+0	1.987169E+0	1.981129E+0	1.963891E+0	1.994253E+0	1.967211E+0	1.953894E+0	1.923675E+0	2.102774E+0	2.053172E+0	2.002146E+0	2.004270E+0	1.716785E+0	2.083221E+0	1.975504E+0	1.927158E+0	1.815504E+0	1.929087E+0	1.930866E+0	2.009618E+0	1.944776E+0	1.962525E+0	1.760124E+0	2.040955E+0	2.145514E+0	2.093149E+0	1.903788E+0	2.114433E+0	2.093496E+0	2.139153E+0	1.918268E+0	1.910154E+0	1.901264E+0	2.173330E+0	1.813256E+0	1.919413E+0	1.871133E+0	2.065044E+0	1.927296E+0	1.939648E+0	2.037766E+0	2.129831E+0	1.982046E+0	1.935059E+0	2.017353E+0	2.099056E+0	1.970553E+0	1.848541E+0	1.895104E+0	1.812223E+0	1.783948E+0	1.832648E+0	1.961901E+0	1.947422E+0	1.657409E+0	2.073265E+0	2.145512E+0	2.016425E+0	1.895817E+0	1.896538E+0	2.117918E+0	2.022003E+0	2.069588E+0	1.760395E+0	1.850153E+0	1.837325E+0	2.112890E+0	1.865499E+0	1.892395E+0	1.945041E+0	1.840093E+0	1.916785E+0	2.122672E+0	2.037110E+0	1.811758E+0	1.951977E+0	2.038195E+0	2.066620E+0	1.920026E+0	1.875956E+0	1.786262E+0	1.875250E+0	1.855279E+0	1.983865E+0	1.867670E+0	1.941322E+0	1.938706E+0	1.988515E+0	2.047359E+0	2.073919E+0	1.977931E+0	1.993636E+0	1.846283E+0	1.989337E+0	1.813724E+0	1.849823E+0	1.953279E+0	1.855912E+0	1.935847E+0	1.923314E+0	1.864559E+0	1.983548E+0	1.970366E+0	2.028516E+0	2.109972E+0	2.119325E+0	1.931863E+0	1.979884E+0	2.115663E+0	1.943245E+0	1.923749E+0	1.879279E+0	1.996651E+0	1.815483E+0	1.829695E+0	1.860618E+0	1.937433E+0	1.911343E+0
5.400140E+2	2.009651E+0	2.018792E+0	2.128003E+0	1.831197E+0	1.909328E+0	1.835777E+0	2.033087E+0	1.842471E+0	1.781580E+0	1.904582E+0	2.094641E+0	1.847917E+0	1.850258E+0	2.036164E+0	2.133882E+0	1.824461E+0	1.956021E+0	1.999816E+0	2.033587E+0	1.834909E+0	1.928599E+0	1.865356E+0	1.790322E+0	1.765610E+0	1.931314E+0	1.873942E+0	1.931315E+0	1.786057E+0	1.885206E+0	2.044581E+0	2.027238E+0	1.818290E+0	1.919668E+0	1.983264E+0	2.040391E+0	1.879806E+0	1.799607E+0	1.769303E+0	1.824484E+0	1.885107E+0	1.953358E+0	1.888200E+0	1.875904E+0	1.990844E+0	1.851848E+0	2.009280E+0	1.913713E+0	1.985271E+0	1.962897E+0	2.029132E+0	1.991015E+0	1.922993E+0	1.843826E+0	1.872173E+0	1.903504E+0	1.861378E+0	1.952705E+0	1.907439E+0	1.914065E+0	1.918859E+0	1.901613E+0	2.047320E+0	2.008569E+0	1.966508E+0	1.993354E+0	1.658605E+0	2.021964E+0	1.981067E+0	1.802550E+0	1.760437E+0	1.854479E+0	1.824810E+0	1.887245E+0	1.827068E+0	2.000916E+0	1.732786E+0	2.038281E+0	2.009843E+0	2.060875E+0	1.862231E+0	2.025296E+0	2.011318E+0	2.100830E+0	1.822885E+0	1.789551E+0	1.824416E+0	2.053175E+0	1.772691E+0	1.829420E+0	1.820698E+0	2.023126E+0	1.842760E+0	1.876328E+0	1.998950E+0	2.065664E+0	1.879371E+0	1.910967E+0	1.967063E+0	1.898848E+0	1.900716E+0	1.774162E+0	1.800554E+0	1.761319E+0	1.723762E+0	1.892671E+0	1.901636E+0	1.870563E+0	1.657405E+0	1.945757E+0	2.015527E+0	1.898286E+0	1.833326E+0	1.917490E+0	2.006889E+0	1.977756E+0	2.064541E+0	1.733044E+0	1.822743E+0	1.799434E+0	1.908877E+0	1.786546E+0	1.920639E+0	1.859796E+0	1.750738E+0	1.911264E+0	2.012085E+0	2.054008E+0	1.775742E+0	1.913578E+0	1.961203E+0	1.949795E+0	1.856016E+0	1.788003E+0	1.736213E+0	1.829871E+0	1.761692E+0	1.953321E+0	1.793525E+0	1.859347E+0	1.913634E+0	1.937454E+0	1.946970E+0	1.986245E+0	1.958226E+0	1.906873E+0	1.718112E+0	1.998367E+0	1.855495E+0	1.799767E+0	1.869012E+0	1.774799E+0	1.808371E+0	1.869303E+0	1.841516E+0	1.869227E+0	1.819900E+0	1.955555E+0	2.023154E+0	2.020995E+0	1.815829E+0	1.808604E+0	2.066104E+0	1.929134E+0	1.807955E+0	1.775669E+0	1.888680E+0	1.803208E+0	1.723608E+0	1.861501E+0	1.783456E+0	1.847596E+0
5.402740E+2	2.014904E+0	1.941282E+0	2.023026E+0	1.777682E+0	1.808318E+0	1.831792E+0	2.063177E+0	1.734569E+0	1.760324E+0	1.897774E+0	2.128270E+0	1.873830E+0	1.835750E+0	2.012268E+0	2.142281E+0	1.995540E+0	1.916596E+0	2.015149E+0	1.956014E+0	1.970693E+0	1.904052E+0	1.808605E+0	1.866664E+0	1.754744E+0	1.940640E+0	1.856815E+0	1.799860E+0	1.819946E+0	1.846601E+0	2.001443E+0	1.979756E+0	1.907154E+0	1.858519E+0	1.927811E+0	2.065902E+0	1.915963E+0	1.790761E+0	1.731421E+0	1.839644E+0	1.905756E+0	1.899450E+0	1.913610E+0	1.922048E+0	1.944719E+0	1.856419E+0	1.971346E+0	2.083625E+0	2.009866E+0	1.853565E+0	1.988751E+0	1.986259E+0	1.911465E+0	1.793898E+0	1.840656E+0	1.845389E+0	1.849537E+0	1.902922E+0	1.896869E+0	1.922750E+0	1.928715E+0	1.854986E+0	2.052310E+0	2.009641E+0	1.892806E+0	1.928861E+0	1.952744E+0	1.994676E+0	1.893876E+0	1.816448E+0	1.748143E+0	1.805075E+0	1.780226E+0	1.850376E+0	1.849247E+0	1.906542E+0	1.710813E+0	1.930215E+0	2.017733E+0	1.996330E+0	1.770806E+0	1.899418E+0	1.975228E+0	2.021869E+0	1.782467E+0	1.765124E+0	1.724709E+0	1.969629E+0	1.732565E+0	1.838066E+0	1.799376E+0	1.948609E+0	1.820041E+0	1.862520E+0	2.026533E+0	2.030770E+0	1.858130E+0	1.855332E+0	1.879899E+0	1.891194E+0	1.932295E+0	1.728119E+0	1.841008E+0	1.695587E+0	1.669045E+0	1.751908E+0	1.853646E+0	1.767549E+0	1.595041E+0	1.867528E+0	2.030260E+0	1.933131E+0	1.774041E+0	1.875581E+0	2.087044E+0	1.949894E+0	2.070219E+0	1.661376E+0	1.741518E+0	1.781486E+0	1.959609E+0	1.772428E+0	1.890342E+0	1.835288E+0	1.794826E+0	1.831982E+0	1.988268E+0	1.948142E+0	1.765677E+0	1.877589E+0	1.896239E+0	1.956606E+0	1.729165E+0	1.811765E+0	1.720020E+0	1.746210E+0	1.750053E+0	1.930562E+0	1.742942E+0	1.875011E+0	1.848095E+0	1.934878E+0	1.909110E+0	1.989860E+0	1.892728E+0	1.872852E+0	1.785573E+0	1.950382E+0	1.811337E+0	1.802771E+0	1.969085E+0	1.704703E+0	1.766366E+0	1.823647E+0	1.826537E+0	1.823901E+0	1.866286E+0	1.869324E+0	2.047794E+0	1.989245E+0	1.804013E+0	1.825285E+0	2.010655E+0	1.944291E+0	1.785732E+0	1.704371E+0	1.821594E+0	1.742343E+0	1.696645E+0	1.765276E+0	1.868716E+0	1.824225E+0
5.405080E+2	1.929328E+0	1.887206E+0	2.080288E+0	1.764588E+0	1.758083E+0	1.734620E+0	1.962874E+0	1.791668E+0	1.688930E+0	1.817603E+0	1.977238E+0	1.828359E+0	1.789061E+0	1.903777E+0	2.081378E+0	2.009867E+0	1.909672E+0	1.973535E+0	1.923982E+0	2.003524E+0	1.803645E+0	1.761462E+0	1.689880E+0	1.733430E+0	1.832035E+0	1.836759E+0	1.779101E+0	1.717306E+0	1.779045E+0	1.953109E+0	1.972885E+0	1.928724E+0	1.779553E+0	1.925263E+0	1.889548E+0	1.933497E+0	1.760784E+0	1.667072E+0	1.793680E+0	1.867905E+0	1.886106E+0	1.775202E+0	1.816419E+0	1.884312E+0	1.769102E+0	1.953221E+0	1.866878E+0	2.021671E+0	1.809214E+0	1.897028E+0	1.856264E+0	1.973138E+0	1.767374E+0	1.717085E+0	1.811823E+0	1.794446E+0	1.878867E+0	1.820628E+0	1.836385E+0	1.800075E+0	1.833426E+0	1.949168E+0	1.943543E+0	1.962118E+0	1.856921E+0	1.921498E+0	1.889151E+0	1.817192E+0	1.699781E+0	1.645870E+0	1.780375E+0	1.744565E+0	1.799070E+0	1.747459E+0	1.782295E+0	1.645960E+0	1.912026E+0	1.907831E+0	1.964058E+0	1.874176E+0	1.931339E+0	1.972457E+0	1.952199E+0	1.764685E+0	1.686248E+0	1.675584E+0	1.914451E+0	1.721101E+0	1.734342E+0	1.703180E+0	1.982375E+0	1.717544E+0	1.853955E+0	1.926936E+0	1.938460E+0	1.808562E+0	1.785925E+0	1.883814E+0	1.789322E+0	1.863677E+0	1.666892E+0	1.681633E+0	1.693114E+0	1.610846E+0	1.722165E+0	1.805656E+0	1.793702E+0	1.545892E+0	1.784217E+0	1.946061E+0	1.919518E+0	1.760691E+0	1.837971E+0	1.891530E+0	1.859214E+0	1.967468E+0	1.647702E+0	1.669941E+0	1.709691E+0	1.843572E+0	1.697131E+0	1.787130E+0	1.774034E+0	1.674897E+0	1.772265E+0	1.879269E+0	1.944168E+0	1.687813E+0	1.825397E+0	1.795188E+0	1.839254E+0	1.736149E+0	1.718753E+0	1.706775E+0	1.639393E+0	1.677316E+0	1.771852E+0	1.709032E+0	1.732995E+0	1.805355E+0	1.862677E+0	1.835681E+0	1.949117E+0	1.835216E+0	1.803100E+0	1.649531E+0	1.865144E+0	1.729589E+0	1.778238E+0	1.803473E+0	1.677162E+0	1.783660E+0	1.780215E+0	1.762017E+0	1.712606E+0	1.819903E+0	1.829524E+0	1.958176E+0	1.921134E+0	1.770164E+0	1.740199E+0	1.954607E+0	1.849714E+0	1.760000E+0	1.626902E+0	1.798532E+0	1.723421E+0	1.663821E+0	1.733497E+0	1.724921E+0	1.720103E+0
5.407680E+2	1.822750E+0	1.751411E+0	1.989031E+0	1.622831E+0	1.647146E+0	1.612536E+0	1.881375E+0	1.625321E+0	1.609906E+0	1.662516E+0	1.942998E+0	1.715417E+0	1.693863E+0	1.786683E+0	1.879242E+0	1.853118E+0	1.717358E+0	1.808179E+0	1.737306E+0	1.810980E+0	1.713834E+0	1.580210E+0	1.664268E+0	1.604701E+0	1.668575E+0	1.674329E+0	1.640196E+0	1.609823E+0	1.677014E+0	1.824219E+0	1.816130E+0	1.825192E+0	1.683253E+0	1.732434E+0	1.819670E+0	1.848577E+0	1.608930E+0	1.619153E+0	1.651993E+0	1.756930E+0	1.753740E+0	1.645440E+0	1.705786E+0	1.725607E+0	1.709198E+0	1.845073E+0	1.776472E+0	1.855418E+0	1.713292E+0	1.810497E+0	1.746344E+0	1.770262E+0	1.619145E+0	1.636039E+0	1.650006E+0	1.733887E+0	1.815664E+0	1.689852E+0	1.723958E+0	1.644060E+0	1.691031E+0	1.711273E+0	1.774278E+0	1.867909E+0	1.729914E+0	1.763656E+0	1.767859E+0	1.839451E+0	1.663044E+0	1.592276E+0	1.655355E+0	1.694823E+0	1.610973E+0	1.678080E+0	1.714580E+0	1.529659E+0	1.763301E+0	1.848410E+0	1.862695E+0	1.761455E+0	1.747639E+0	1.747586E+0	1.851752E+0	1.783005E+0	1.635869E+0	1.549127E+0	1.836581E+0	1.640405E+0	1.597068E+0	1.664184E+0	1.865939E+0	1.685315E+0	1.688761E+0	1.789546E+0	1.829270E+0	1.768104E+0	1.660889E+0	1.781007E+0	1.764593E+0	1.738589E+0	1.641593E+0	1.699178E+0	1.552757E+0	1.587465E+0	1.625493E+0	1.697956E+0	1.666668E+0	1.439661E+0	1.658239E+0	1.875011E+0	1.783958E+0	1.747336E+0	1.747161E+0	1.795666E+0	1.722102E+0	1.837612E+0	1.515680E+0	1.604450E+0	1.566600E+0	1.746425E+0	1.625494E+0	1.704971E+0	1.672451E+0	1.831865E+0	1.684452E+0	1.745921E+0	1.808981E+0	1.764616E+0	1.618430E+0	1.797593E+0	1.738670E+0	1.690759E+0	1.616138E+0	1.547799E+0	1.587403E+0	1.635612E+0	1.680221E+0	1.661898E+0	1.648412E+0	1.699361E+0	1.731165E+0	1.723244E+0	1.805743E+0	1.728713E+0	1.707263E+0	1.571391E+0	1.742644E+0	1.618002E+0	1.567495E+0	1.732077E+0	1.593547E+0	1.666062E+0	1.629321E+0	1.718811E+0	1.574618E+0	1.668848E+0	1.729011E+0	1.833270E+0	1.807954E+0	1.618675E+0	1.702382E+0	1.791779E+0	1.711239E+0	1.655901E+0	1.587930E+0	1.752934E+0	1.596578E+0	1.474504E+0	1.604610E+0	1.681654E+0	1.671231E+0
5.410190E+2	1.670499E+0	1.675102E+0	1.810697E+0	1.541415E+0	1.495356E+0	1.473507E+0	1.710227E+0	1.455828E+0	1.478562E+0	1.560866E+0	1.705752E+0	1.557002E+0	1.429585E+0	1.665765E+0	1.733287E+0	1.723288E+0	1.629986E+0	1.638984E+0	1.685761E+0	1.646818E+0	1.560431E+0	1.494621E+0	1.479448E+0	1.486842E+0	1.600013E+0	1.584309E+0	1.560895E+0	1.515412E+0	1.537304E+0	1.648036E+0	1.625053E+0	1.677228E+0	1.581172E+0	1.601162E+0	1.685461E+0	1.722020E+0	1.531287E+0	1.428842E+0	1.492299E+0	1.593049E+0	1.658740E+0	1.499999E+0	1.602385E+0	1.589419E+0	1.527964E+0	1.689360E+0	1.600024E+0	1.728022E+0	1.518867E+0	1.627629E+0	1.625331E+0	1.685538E+0	1.526571E+0	1.515967E+0	1.576862E+0	1.550847E+0	1.640586E+0	1.536264E+0	1.577804E+0	1.597530E+0	1.508522E+0	1.660258E+0	1.664659E+0	1.715133E+0	1.584548E+0	1.605273E+0	1.629582E+0	1.668776E+0	1.512616E+0	1.469353E+0	1.503110E+0	1.567654E+0	1.596545E+0	1.543881E+0	1.611133E+0	1.439617E+0	1.640253E+0	1.669626E+0	1.658468E+0	1.638868E+0	1.647059E+0	1.639314E+0	1.712405E+0	1.608944E+0	1.515775E+0	1.442120E+0	1.660724E+0	1.505034E+0	1.515719E+0	1.519111E+0	1.697693E+0	1.567496E+0	1.580217E+0	1.678715E+0	1.760602E+0	1.673525E+0	1.523802E+0	1.665343E+0	1.574390E+0	1.676044E+0	1.450328E+0	1.521281E+0	1.493450E+0	1.451665E+0	1.509163E+0	1.494280E+0	1.573259E+0	1.319161E+0	1.613535E+0	1.681868E+0	1.632610E+0	1.571080E+0	1.592417E+0	1.641852E+0	1.593731E+0	1.654808E+0	1.414305E+0	1.464337E+0	1.479349E+0	1.592067E+0	1.455556E+0	1.520111E+0	1.530540E+0	1.710759E+0	1.519863E+0	1.698828E+0	1.643968E+0	1.733368E+0	1.593235E+0	1.606916E+0	1.652233E+0	1.630248E+0	1.499872E+0	1.457518E+0	1.492871E+0	1.494504E+0	1.561038E+0	1.517052E+0	1.493867E+0	1.681125E+0	1.627511E+0	1.591306E+0	1.622140E+0	1.690905E+0	1.578541E+0	1.467958E+0	1.655147E+0	1.570261E+0	1.498916E+0	1.610357E+0	1.434825E+0	1.474840E+0	1.495130E+0	1.563849E+0	1.550947E+0	1.598078E+0	1.556042E+0	1.645630E+0	1.654319E+0	1.692273E+0	1.536656E+0	1.779983E+0	1.597324E+0	1.624907E+0	1.461028E+0	1.593600E+0	1.455928E+0	1.462194E+0	1.487199E+0	1.523860E+0	1.516115E+0
5.412850E+2	1.542921E+0	1.481622E+0	1.650256E+0	1.351267E+0	1.445677E+0	1.399759E+0	1.545345E+0	1.367260E+0	1.394635E+0	1.428828E+0	1.566344E+0	1.424013E+0	1.419158E+0	1.506133E+0	1.595207E+0	1.624726E+0	1.503730E+0	1.515788E+0	1.545124E+0	1.581711E+0	1.446635E+0	1.473110E+0	1.398594E+0	1.388557E+0	1.456302E+0	1.460534E+0	1.452855E+0	1.389531E+0	1.423329E+0	1.547729E+0	1.499188E+0	1.515027E+0	1.429983E+0	1.494318E+0	1.589518E+0	1.514931E+0	1.410887E+0	1.327527E+0	1.391838E+0	1.542725E+0	1.528510E+0	1.478374E+0	1.452280E+0	1.467509E+0	1.401048E+0	1.550063E+0	1.545018E+0	1.604562E+0	1.456463E+0	1.507065E+0	1.540249E+0	1.575452E+0	1.437110E+0	1.392895E+0	1.413538E+0	1.499850E+0	1.433621E+0	1.488408E+0	1.491439E+0	1.495713E+0	1.493985E+0	1.546026E+0	1.546439E+0	1.550151E+0	1.462003E+0	1.461976E+0	1.540431E+0	1.514172E+0	1.410346E+0	1.357245E+0	1.435053E+0	1.426406E+0	1.454401E+0	1.406269E+0	1.462364E+0	1.342067E+0	1.567494E+0	1.527125E+0	1.584339E+0	1.500174E+0	1.508531E+0	1.527160E+0	1.589897E+0	1.534577E+0	1.452674E+0	1.344358E+0	1.580278E+0	1.400970E+0	1.434879E+0	1.422396E+0	1.504997E+0	1.436465E+0	1.462629E+0	1.471356E+0	1.556286E+0	1.489420E+0	1.389013E+0	1.532363E+0	1.451323E+0	1.519382E+0	1.372409E+0	1.398462E+0	1.369403E+0	1.320345E+0	1.362026E+0	1.398300E+0	1.441952E+0	1.317048E+0	1.465202E+0	1.616611E+0	1.559657E+0	1.514996E+0	1.458624E+0	1.574697E+0	1.458257E+0	1.540708E+0	1.340748E+0	1.361283E+0	1.378142E+0	1.533776E+0	1.436731E+0	1.424600E+0	1.422324E+0	1.602585E+0	1.434053E+0	1.578180E+0	1.541583E+0	1.724890E+0	1.545243E+0	1.480601E+0	1.501354E+0	1.487682E+0	1.348224E+0	1.310320E+0	1.412993E+0	1.390730E+0	1.467608E+0	1.385427E+0	1.466717E+0	1.503893E+0	1.516115E+0	1.478299E+0	1.563350E+0	1.580677E+0	1.474766E+0	1.344285E+0	1.555225E+0	1.410344E+0	1.396795E+0	1.434801E+0	1.342198E+0	1.437785E+0	1.432766E+0	1.473983E+0	1.404398E+0	1.469024E+0	1.488689E+0	1.559933E+0	1.507340E+0	1.563344E+0	1.443786E+0	1.565831E+0	1.456238E+0	1.517302E+0	1.366922E+0	1.449469E+0	1.402740E+0	1.406515E+0	1.405101E+0	1.470413E+0	1.448115E+0
5.415190E+2	1.433191E+0	1.439564E+0	1.494585E+0	1.245943E+0	1.288920E+0	1.256740E+0	1.469490E+0	1.273746E+0	1.265471E+0	1.282645E+0	1.419593E+0	1.369253E+0	1.253247E+0	1.351760E+0	1.475500E+0	1.469281E+0	1.391856E+0	1.376162E+0	1.403992E+0	1.414764E+0	1.338974E+0	1.263482E+0	1.341843E+0	1.289400E+0	1.307107E+0	1.318166E+0	1.297447E+0	1.274303E+0	1.286370E+0	1.407406E+0	1.382482E+0	1.423573E+0	1.340422E+0	1.369156E+0	1.373786E+0	1.438229E+0	1.273779E+0	1.256790E+0	1.279056E+0	1.345298E+0	1.448451E+0	1.297247E+0	1.335538E+0	1.397217E+0	1.307132E+0	1.432855E+0	1.476402E+0	1.419622E+0	1.368796E+0	1.379003E+0	1.380658E+0	1.433672E+0	1.329972E+0	1.269326E+0	1.293801E+0	1.310888E+0	1.401181E+0	1.330365E+0	1.371860E+0	1.344628E+0	1.345070E+0	1.427909E+0	1.408333E+0	1.421781E+0	1.311182E+0	1.363931E+0	1.423988E+0	1.437488E+0	1.316022E+0	1.239238E+0	1.277769E+0	1.307681E+0	1.348058E+0	1.266379E+0	1.311461E+0	1.193069E+0	1.494205E+0	1.447723E+0	1.424991E+0	1.377584E+0	1.411566E+0	1.399458E+0	1.479582E+0	1.430572E+0	1.243527E+0	1.198930E+0	1.373996E+0	1.249726E+0	1.272687E+0	1.307476E+0	1.426404E+0	1.315476E+0	1.294582E+0	1.409558E+0	1.470169E+0	1.392313E+0	1.341978E+0	1.411674E+0	1.317064E+0	1.402187E+0	1.258559E+0	1.273692E+0	1.267593E+0	1.230808E+0	1.275975E+0	1.346407E+0	1.330397E+0	1.138411E+0	1.386974E+0	1.408736E+0	1.407222E+0	1.356368E+0	1.343106E+0	1.413299E+0	1.323330E+0	1.471371E+0	1.209194E+0	1.266351E+0	1.240535E+0	1.345957E+0	1.233847E+0	1.319849E+0	1.322783E+0	1.451498E+0	1.354270E+0	1.404093E+0	1.438201E+0	1.479651E+0	1.367072E+0	1.375938E+0	1.339473E+0	1.343957E+0	1.284027E+0	1.226905E+0	1.276870E+0	1.278233E+0	1.349028E+0	1.292885E+0	1.329397E+0	1.307859E+0	1.368621E+0	1.369878E+0	1.382328E+0	1.384177E+0	1.337536E+0	1.245909E+0	1.431034E+0	1.279662E+0	1.299182E+0	1.320687E+0	1.260583E+0	1.297947E+0	1.340891E+0	1.358189E+0	1.321301E+0	1.378035E+0	1.423890E+0	1.455188E+0	1.451521E+0	1.417227E+0	1.324775E+0	1.454329E+0	1.372109E+0	1.396829E+0	1.246199E+0	1.347787E+0	1.246747E+0	1.238293E+0	1.363609E+0	1.368611E+0	1.290875E+0
5.417860E+2	1.233688E+0	1.238875E+0	1.317440E+0	1.080273E+0	1.137132E+0	1.073362E+0	1.256966E+0	1.141568E+0	1.131949E+0	1.126506E+0	1.291188E+0	1.181012E+0	1.106377E+0	1.199778E+0	1.308539E+0	1.262165E+0	1.164910E+0	1.256800E+0	1.208308E+0	1.266185E+0	1.177204E+0	1.103288E+0	1.125889E+0	1.098046E+0	1.169430E+0	1.151337E+0	1.155347E+0	1.165368E+0	1.109891E+0	1.259284E+0	1.239455E+0	1.228586E+0	1.165636E+0	1.210922E+0	1.195766E+0	1.272227E+0	1.126352E+0	1.114855E+0	1.182862E+0	1.168947E+0	1.209341E+0	1.124774E+0	1.182100E+0	1.181402E+0	1.155851E+0	1.255623E+0	1.248216E+0	1.303539E+0	1.192420E+0	1.225556E+0	1.216311E+0	1.215233E+0	1.102690E+0	1.126240E+0	1.144007E+0	1.182485E+0	1.219950E+0	1.168429E+0	1.188401E+0	1.113071E+0	1.128468E+0	1.244362E+0	1.248739E+0	1.269003E+0	1.152420E+0	1.194776E+0	1.193531E+0	1.214862E+0	1.091622E+0	1.055834E+0	1.136112E+0	1.127016E+0	1.119344E+0	1.146395E+0	1.190953E+0	1.146439E+0	1.250789E+0	1.263156E+0	1.244460E+0	1.218630E+0	1.201967E+0	1.241215E+0	1.293206E+0	1.235494E+0	1.148873E+0	1.094359E+0	1.228055E+0	1.122289E+0	1.081517E+0	1.098969E+0	1.259905E+0	1.121049E+0	1.168421E+0	1.234882E+0	1.302440E+0	1.246141E+0	1.162448E+0	1.218904E+0	1.163373E+0	1.277098E+0	1.099681E+0	1.170368E+0	1.094121E+0	1.008954E+0	1.160711E+0	1.108131E+0	1.105149E+0	1.029010E+0	1.195971E+0	1.268223E+0	1.209601E+0	1.214297E+0	1.205551E+0	1.239986E+0	1.221177E+0	1.304956E+0	1.096503E+0	1.107453E+0	1.137829E+0	1.261223E+0	1.160645E+0	1.206880E+0	1.142589E+0	1.296296E+0	1.177135E+0	1.204075E+0	1.238404E+0	1.265132E+0	1.219497E+0	1.259248E+0	1.185976E+0	1.239220E+0	1.143504E+0	1.066949E+0	1.079302E+0	1.121606E+0	1.174746E+0	1.161835E+0	1.159710E+0	1.179066E+0	1.239176E+0	1.221875E+0	1.268867E+0	1.220695E+0	1.204274E+0	1.091318E+0	1.192811E+0	1.188961E+0	1.112465E+0	1.179655E+0	1.106869E+0	1.162070E+0	1.130417E+0	1.214172E+0	1.156119E+0	1.231142E+0	1.212654E+0	1.282672E+0	1.294298E+0	1.269494E+0	1.133469E+0	1.306250E+0	1.234159E+0	1.220800E+0	1.091255E+0	1.199457E+0	1.100983E+0	1.098795E+0	1.101423E+0	1.171368E+0	1.169756E+0
5.420160E+2	1.144962E+0	1.123510E+0	1.149839E+0	9.755197E-1	1.068136E+0	9.936329E-1	1.156032E+0	1.044908E+0	1.056194E+0	1.034814E+0	1.144439E+0	1.075404E+0	1.029314E+0	1.139556E+0	1.182009E+0	1.121482E+0	1.069552E+0	1.130863E+0	1.118223E+0	1.109256E+0	1.005950E+0	1.024104E+0	1.005859E+0	9.941047E-1	1.046015E+0	1.021200E+0	1.056355E+0	9.968803E-1	1.015677E+0	1.126754E+0	1.062105E+0	1.123760E+0	1.011074E+0	1.050653E+0	1.101488E+0	1.116633E+0	1.001529E+0	9.815936E-1	9.990004E-1	1.078617E+0	1.097257E+0	1.021507E+0	1.019766E+0	1.076515E+0	1.043152E+0	1.133883E+0	1.124047E+0	1.159913E+0	1.063490E+0	1.096914E+0	1.070460E+0	1.108609E+0	1.028836E+0	1.026682E+0	1.001725E+0	1.035869E+0	1.099130E+0	1.052124E+0	1.035602E+0	1.050666E+0	1.082341E+0	1.097967E+0	1.175656E+0	1.164547E+0	1.062623E+0	1.079490E+0	1.117116E+0	1.124575E+0	1.016659E+0	1.013549E+0	1.009578E+0	1.030348E+0	1.056822E+0	1.083844E+0	1.040051E+0	9.556336E-1	1.126137E+0	1.141686E+0	1.144109E+0	1.112663E+0	1.115840E+0	1.123508E+0	1.167215E+0	1.114245E+0	1.022673E+0	9.815176E-1	1.129556E+0	9.816274E-1	1.013897E+0	1.009532E+0	1.124261E+0	1.035986E+0	1.047500E+0	1.136311E+0	1.150469E+0	1.111607E+0	1.059779E+0	1.098215E+0	1.059736E+0	1.128935E+0	9.504132E-1	1.030490E+0	9.656238E-1	9.786107E-1	1.018355E+0	1.038379E+0	1.024019E+0	8.974102E-1	1.057289E+0	1.142442E+0	1.149716E+0	1.116019E+0	1.077671E+0	1.078050E+0	1.120664E+0	1.149256E+0	9.564641E-1	1.005415E+0	1.020663E+0	1.071242E+0	1.013712E+0	1.004564E+0	1.027736E+0	1.160494E+0	1.046165E+0	1.092425E+0	1.174289E+0	1.197864E+0	1.028128E+0	1.081805E+0	1.085916E+0	1.142044E+0	9.999440E-1	9.776477E-1	1.004622E+0	1.040138E+0	1.098087E+0	9.112276E-1	1.090268E+0	1.046856E+0	1.074664E+0	1.101983E+0	1.086815E+0	1.090231E+0	1.017705E+0	9.828233E-1	1.153296E+0	1.023074E+0	1.006341E+0	1.033941E+0	9.706814E-1	1.057317E+0	1.032419E+0	1.003328E+0	1.067483E+0	1.076519E+0	1.066727E+0	1.150485E+0	1.111472E+0	1.137882E+0	1.042821E+0	1.214808E+0	1.137488E+0	1.100328E+0	1.018536E+0	1.049035E+0	9.961358E-1	9.774663E-1	1.006964E+0	1.018663E+0	9.848892E-1
5.422670E+2	1.021584E+0	9.432518E-1	1.043673E+0	8.895527E-1	1.028396E+0	8.725428E-1	1.011214E+0	8.893525E-1	9.864357E-1	9.069682E-1	1.025205E+0	9.326361E-1	9.255071E-1	9.746683E-1	1.028701E+0	9.864430E-1	8.942823E-1	9.665997E-1	9.420564E-1	9.601186E-1	9.864263E-1	8.932029E-1	9.194779E-1	8.671140E-1	9.736102E-1	9.302017E-1	9.254311E-1	8.976275E-1	9.081348E-1	9.978636E-1	9.814386E-1	9.952062E-1	9.817029E-1	9.407543E-1	9.561886E-1	1.009800E+0	1.035437E+0	8.163839E-1	8.762668E-1	9.710861E-1	1.036412E+0	9.014777E-1	9.497189E-1	9.293425E-1	9.527884E-1	9.991194E-1	9.868085E-1	1.022189E+0	9.299198E-1	9.619262E-1	9.890790E-1	1.004290E+0	1.007513E+0	8.690904E-1	9.035322E-1	8.437215E-1	9.945307E-1	8.907435E-1	9.517930E-1	9.373518E-1	8.903063E-1	1.030869E+0	9.800581E-1	1.017625E+0	1.008048E+0	9.744413E-1	9.721700E-1	9.582227E-1	9.039632E-1	8.606320E-1	9.243826E-1	8.956678E-1	1.017812E+0	9.132491E-1	9.504695E-1	8.629107E-1	9.656425E-1	9.749935E-1	1.022076E+0	9.713729E-1	9.857456E-1	9.630461E-1	1.009289E+0	9.827555E-1	8.995250E-1	8.618680E-1	9.949574E-1	9.220995E-1	9.111935E-1	9.180171E-1	1.041592E+0	8.642755E-1	9.361016E-1	9.825784E-1	9.861163E-1	9.821293E-1	9.272833E-1	9.641161E-1	9.396100E-1	9.680198E-1	8.512395E-1	9.037693E-1	8.613442E-1	8.751452E-1	8.749370E-1	9.585828E-1	9.151321E-1	8.033354E-1	9.455326E-1	1.023507E+0	9.825785E-1	9.728790E-1	9.411946E-1	9.930192E-1	9.622467E-1	1.020031E+0	8.475445E-1	8.627632E-1	9.000084E-1	9.730145E-1	8.829886E-1	9.352432E-1	8.863368E-1	1.002940E+0	9.734049E-1	1.004057E+0	1.034127E+0	1.077097E+0	9.675393E-1	9.320298E-1	9.235134E-1	9.948279E-1	8.917689E-1	8.540002E-1	8.897670E-1	9.096986E-1	9.729165E-1	9.307701E-1	9.325890E-1	9.488375E-1	9.720366E-1	9.757795E-1	9.800584E-1	1.014082E+0	9.417177E-1	8.850095E-1	9.924097E-1	9.413229E-1	9.182380E-1	9.414807E-1	8.735464E-1	9.570123E-1	9.032387E-1	9.664598E-1	9.189189E-1	9.355735E-1	9.136574E-1	1.067028E+0	1.018777E+0	1.004656E+0	9.032350E-1	9.918066E-1	9.378751E-1	9.453526E-1	8.944871E-1	9.798502E-1	9.388534E-1	9.276459E-1	9.848944E-1	1.000848E+0	8.531467E-1
5.425300E+2	1.007408E+0	9.907197E-1	1.046655E+0	8.719042E-1	1.001349E+0	8.182272E-1	1.018111E+0	8.677724E-1	9.619113E-1	9.080166E-1	1.000747E+0	8.993891E-1	9.082803E-1	9.560300E-1	1.039202E+0	1.012931E+0	9.262458E-1	9.748129E-1	9.585721E-1	9.339642E-1	9.696914E-1	8.529251E-1	8.707625E-1	8.840751E-1	1.003779E+0	9.424327E-1	9.376725E-1	8.860083E-1	9.306547E-1	9.604440E-1	9.156475E-1	9.844214E-1	9.701468E-1	9.244729E-1	9.706073E-1	9.961041E-1	1.013814E+0	8.656726E-1	8.634721E-1	9.091470E-1	1.047087E+0	9.155354E-1	9.002408E-1	9.469154E-1	9.406043E-1	9.526877E-1	9.721042E-1	1.037929E+0	9.799444E-1	9.371213E-1	9.404618E-1	9.875760E-1	1.054321E+0	8.986075E-1	9.135518E-1	9.020034E-1	1.016345E+0	9.369319E-1	9.180650E-1	8.760420E-1	9.720337E-1	1.024770E+0	9.908055E-1	9.956623E-1	9.767920E-1	9.130279E-1	9.533692E-1	1.002130E+0	1.022617E+0	8.591567E-1	9.284157E-1	9.036454E-1	1.020484E+0	9.098376E-1	9.632667E-1	8.173538E-1	1.034120E+0	9.991822E-1	9.837516E-1	9.360503E-1	1.043566E+0	9.336189E-1	9.831627E-1	9.757501E-1	9.773833E-1	8.774323E-1	9.485448E-1	9.035796E-1	9.732223E-1	8.925386E-1	9.548493E-1	9.488101E-1	9.651419E-1	9.698098E-1	9.939969E-1	9.942679E-1	8.779558E-1	9.311500E-1	8.925013E-1	9.868435E-1	8.487098E-1	8.925595E-1	8.608492E-1	8.512679E-1	9.285858E-1	9.373778E-1	9.081935E-1	7.811383E-1	9.668679E-1	9.824576E-1	9.771345E-1	9.109224E-1	8.955222E-1	9.876033E-1	9.005187E-1	1.002382E+0	8.442441E-1	9.013452E-1	8.885409E-1	9.552039E-1	8.646873E-1	9.249735E-1	9.031818E-1	1.028807E+0	9.081711E-1	9.590796E-1	9.789594E-1	1.037901E+0	9.291456E-1	9.500749E-1	9.848072E-1	9.639880E-1	8.841866E-1	8.397708E-1	8.699153E-1	8.975753E-1	9.393779E-1	8.945591E-1	9.785351E-1	9.026780E-1	9.699740E-1	9.654537E-1	9.852161E-1	9.432580E-1	9.315099E-1	8.495939E-1	9.602332E-1	8.989558E-1	8.756880E-1	9.145614E-1	8.344926E-1	9.130364E-1	8.715005E-1	9.727971E-1	9.012924E-1	9.278424E-1	9.478431E-1	1.033980E+0	9.603958E-1	9.713489E-1	9.538419E-1	1.037232E+0	9.896069E-1	1.003249E+0	8.692971E-1	9.384445E-1	8.718533E-1	8.872029E-1	9.239824E-1	9.893958E-1	8.935189E-1
5.427600E+2	1.125011E+0	1.054411E+0	1.115246E+0	9.339592E-1	1.112845E+0	8.924749E-1	1.110268E+0	9.675793E-1	1.028400E+0	9.871339E-1	1.142605E+0	9.888632E-1	9.703839E-1	1.011948E+0	1.067555E+0	1.083706E+0	9.608734E-1	1.048732E+0	1.030640E+0	1.056390E+0	1.065638E+0	9.412606E-1	9.506153E-1	9.658367E-1	1.036141E+0	9.688515E-1	9.562994E-1	9.591156E-1	9.710978E-1	1.059712E+0	1.068970E+0	1.049129E+0	1.086188E+0	1.044547E+0	1.043812E+0	1.049794E+0	1.048706E+0	9.428011E-1	9.587203E-1	1.000765E+0	1.140491E+0	9.723056E-1	9.891898E-1	9.957898E-1	1.033505E+0	1.030262E+0	1.090827E+0	1.045307E+0	1.022749E+0	1.015576E+0	1.056720E+0	1.076335E+0	1.075645E+0	9.621447E-1	9.982188E-1	9.980775E-1	1.131572E+0	9.614174E-1	9.855211E-1	9.674596E-1	1.077829E+0	1.086322E+0	1.071947E+0	1.086451E+0	1.067582E+0	9.760573E-1	1.000068E+0	1.047274E+0	1.113466E+0	9.348781E-1	9.581583E-1	9.660563E-1	1.136980E+0	1.013900E+0	1.029920E+0	8.773819E-1	1.087083E+0	1.048086E+0	1.112847E+0	1.039940E+0	1.150171E+0	1.011351E+0	1.144571E+0	1.056045E+0	1.112745E+0	9.304477E-1	1.035698E+0	9.397371E-1	1.046436E+0	9.320567E-1	1.067791E+0	9.197510E-1	1.017985E+0	1.064807E+0	1.037336E+0	1.053443E+0	1.082722E+0	1.050163E+0	1.002028E+0	1.083393E+0	1.080453E+0	9.281384E-1	9.458556E-1	9.005135E-1	1.068817E+0	9.730914E-1	9.247396E-1	8.720416E-1	1.053226E+0	1.087712E+0	1.005444E+0	1.024153E+0	9.997612E-1	1.054220E+0	1.026707E+0	1.047137E+0	1.013990E+0	9.444958E-1	9.678140E-1	1.011874E+0	1.054496E+0	1.000972E+0	9.741365E-1	1.121693E+0	1.016559E+0	1.073375E+0	1.071405E+0	1.107819E+0	9.927346E-1	1.005413E+0	1.027241E+0	1.045452E+0	9.458559E-1	9.521334E-1	9.686997E-1	9.518856E-1	9.896854E-1	9.882491E-1	9.759247E-1	1.009245E+0	1.043205E+0	1.011346E+0	1.053807E+0	1.093426E+0	1.023943E+0	8.979387E-1	1.049991E+0	9.747390E-1	9.567829E-1	1.002341E+0	9.211127E-1	9.891294E-1	1.006806E+0	1.014850E+0	9.687757E-1	1.028348E+0	1.001418E+0	1.051344E+0	1.095596E+0	1.117468E+0	1.004449E+0	1.084429E+0	9.660930E-1	1.075766E+0	8.788028E-1	1.019160E+0	9.270900E-1	9.405407E-1	9.910742E-1	9.855774E-1	9.253912E-1
5.430120E+2	1.230538E+0	1.161365E+0	1.280460E+0	1.089952E+0	1.234829E+0	1.024029E+0	1.247562E+0	1.066937E+0	1.152115E+0	1.101880E+0	1.241049E+0	1.111584E+0	1.114082E+0	1.159629E+0	1.232411E+0	1.190084E+0	1.119095E+0	1.179047E+0	1.164768E+0	1.213318E+0	1.231871E+0	1.103286E+0	1.102285E+0	1.081520E+0	1.211665E+0	1.126876E+0	1.136719E+0	1.081608E+0	1.115865E+0	1.178206E+0	1.130184E+0	1.150937E+0	1.192598E+0	1.157498E+0	1.136427E+0	1.200457E+0	1.229550E+0	1.007607E+0	1.043070E+0	1.116468E+0	1.226954E+0	1.137751E+0	1.079807E+0	1.114406E+0	1.150774E+0	1.251660E+0	1.177961E+0	1.211067E+0	1.160445E+0	1.129795E+0	1.198345E+0	1.229067E+0	1.258720E+0	1.065204E+0	1.138997E+0	1.080947E+0	1.270850E+0	1.046559E+0	1.137807E+0	1.129493E+0	1.143008E+0	1.172273E+0	1.184792E+0	1.258265E+0	1.246188E+0	1.099423E+0	1.111051E+0	1.172192E+0	1.242545E+0	1.089271E+0	1.093262E+0	1.072579E+0	1.310119E+0	1.079863E+0	1.136564E+0	1.059612E+0	1.255601E+0	1.181649E+0	1.163778E+0	1.204087E+0	1.227866E+0	1.238997E+0	1.229921E+0	1.170288E+0	1.235386E+0	1.039398E+0	1.151730E+0	1.072023E+0	1.215237E+0	1.084930E+0	1.161519E+0	1.061875E+0	1.190320E+0	1.171040E+0	1.248968E+0	1.173817E+0	1.193423E+0	1.148504E+0	1.164551E+0	1.184799E+0	1.213528E+0	1.070942E+0	1.056066E+0	1.022882E+0	1.192580E+0	1.069628E+0	1.083801E+0	9.328208E-1	1.154316E+0	1.195070E+0	1.169857E+0	1.159817E+0	1.195344E+0	1.212907E+0	1.226640E+0	1.199685E+0	1.271433E+0	1.047043E+0	1.046090E+0	1.159216E+0	1.191495E+0	1.116507E+0	1.166581E+0	1.219872E+0	1.159572E+0	1.182378E+0	1.237407E+0	1.279435E+0	1.215897E+0	1.135338E+0	1.180738E+0	1.174048E+0	1.267853E+0	1.056645E+0	1.055669E+0	1.109484E+0	1.237032E+0	1.069293E+0	1.132037E+0	1.118090E+0	1.196888E+0	1.077315E+0	1.174489E+0	1.168512E+0	1.213913E+0	1.090756E+0	1.151038E+0	1.083342E+0	1.196062E+0	1.164440E+0	1.087844E+0	1.111176E+0	1.232312E+0	1.173270E+0	1.129428E+0	1.122311E+0	1.184592E+0	1.205938E+0	1.266134E+0	1.213626E+0	1.108444E+0	1.224248E+0	1.141668E+0	1.116703E+0	1.093157E+0	1.085200E+0	1.045235E+0	1.057766E+0	1.158803E+0	1.153553E+0	1.210129E+0
5.433070E+2	1.459966E+0	1.384885E+0	1.473111E+0	1.190721E+0	1.459477E+0	1.215382E+0	1.417457E+0	1.233734E+0	1.331416E+0	1.242300E+0	1.390244E+0	1.293467E+0	1.277727E+0	1.419627E+0	1.436121E+0	1.431071E+0	1.302889E+0	1.352071E+0	1.334928E+0	1.320719E+0	1.424321E+0	1.221375E+0	1.215785E+0	1.251130E+0	1.363055E+0	1.300555E+0	1.276693E+0	1.255902E+0	1.295564E+0	1.354913E+0	1.349300E+0	1.384315E+0	1.342345E+0	1.352874E+0	1.390426E+0	1.392755E+0	1.415800E+0	1.183311E+0	1.205134E+0	1.343577E+0	1.416961E+0	1.268591E+0	1.308298E+0	1.340655E+0	1.304086E+0	1.405674E+0	1.370205E+0	1.438802E+0	1.381684E+0	1.403807E+0	1.338383E+0	1.412348E+0	1.366377E+0	1.230800E+0	1.286790E+0	1.352777E+0	1.461033E+0	1.308662E+0	1.293162E+0	1.310138E+0	1.283398E+0	1.374674E+0	1.357285E+0	1.435447E+0	1.406440E+0	1.282047E+0	1.356064E+0	1.406568E+0	1.396448E+0	1.213668E+0	1.245002E+0	1.277650E+0	1.458139E+0	1.284579E+0	1.307729E+0	1.197894E+0	1.409142E+0	1.380941E+0	1.433562E+0	1.330312E+0	1.476613E+0	1.315617E+0	1.485968E+0	1.370754E+0	1.432318E+0	1.232489E+0	1.370903E+0	1.241347E+0	1.424710E+0	1.269522E+0	1.359454E+0	1.265283E+0	1.364561E+0	1.354906E+0	1.392493E+0	1.414564E+0	1.333948E+0	1.359149E+0	1.355340E+0	1.325068E+0	1.416428E+0	1.268331E+0	1.225091E+0	1.250209E+0	1.400272E+0	1.229222E+0	1.233252E+0	1.194432E+0	1.387479E+0	1.382425E+0	1.382726E+0	1.359039E+0	1.398986E+0	1.371053E+0	1.391067E+0	1.441115E+0	1.407228E+0	1.274983E+0	1.240036E+0	1.350815E+0	1.448759E+0	1.271069E+0	1.317678E+0	1.416811E+0	1.328676E+0	1.365995E+0	1.359176E+0	1.475941E+0	1.365873E+0	1.331429E+0	1.327425E+0	1.401566E+0	1.461455E+0	1.192560E+0	1.199352E+0	1.253503E+0	1.427482E+0	1.261271E+0	1.256302E+0	1.271956E+0	1.346961E+0	1.367008E+0	1.373562E+0	1.395893E+0	1.441874E+0	1.239164E+0	1.383051E+0	1.260566E+0	1.408808E+0	1.341754E+0	1.237553E+0	1.311292E+0	1.412163E+0	1.308650E+0	1.243745E+0	1.367329E+0	1.373378E+0	1.385176E+0	1.377260E+0	1.391980E+0	1.350912E+0	1.416572E+0	1.299996E+0	1.354138E+0	1.442967E+0	1.304282E+0	1.238563E+0	1.180267E+0	1.411280E+0	1.378791E+0	1.303623E+0
5.435220E+2	1.550269E+0	1.541109E+0	1.558402E+0	1.329635E+0	1.586981E+0	1.336469E+0	1.554750E+0	1.334890E+0	1.495460E+0	1.412587E+0	1.555338E+0	1.376097E+0	1.474461E+0	1.481757E+0	1.563703E+0	1.549172E+0	1.451522E+0	1.460484E+0	1.424509E+0	1.468186E+0	1.544255E+0	1.356852E+0	1.357411E+0	1.331585E+0	1.509507E+0	1.426288E+0	1.383135E+0	1.316909E+0	1.438033E+0	1.459894E+0	1.485458E+0	1.485692E+0	1.445388E+0	1.475493E+0	1.510216E+0	1.522052E+0	1.544557E+0	1.343502E+0	1.375726E+0	1.434336E+0	1.525306E+0	1.390787E+0	1.419483E+0	1.435110E+0	1.462985E+0	1.516659E+0	1.525414E+0	1.580463E+0	1.509066E+0	1.486876E+0	1.474724E+0	1.520701E+0	1.564537E+0	1.357875E+0	1.349414E+0	1.410607E+0	1.561715E+0	1.348730E+0	1.374414E+0	1.442066E+0	1.498496E+0	1.485031E+0	1.471741E+0	1.537463E+0	1.498718E+0	1.471132E+0	1.451281E+0	1.537671E+0	1.578152E+0	1.341513E+0	1.352376E+0	1.364934E+0	1.537762E+0	1.358502E+0	1.367448E+0	1.285790E+0	1.539146E+0	1.484530E+0	1.536435E+0	1.463812E+0	1.553099E+0	1.462195E+0	1.535318E+0	1.467217E+0	1.551905E+0	1.300585E+0	1.487966E+0	1.341884E+0	1.527921E+0	1.329839E+0	1.492773E+0	1.377820E+0	1.452155E+0	1.457565E+0	1.528707E+0	1.514205E+0	1.431458E+0	1.460281E+0	1.446023E+0	1.450763E+0	1.569742E+0	1.372146E+0	1.339747E+0	1.314872E+0	1.481009E+0	1.389372E+0	1.387511E+0	1.358800E+0	1.490604E+0	1.521881E+0	1.502496E+0	1.511794E+0	1.525253E+0	1.493995E+0	1.430399E+0	1.526844E+0	1.567544E+0	1.386665E+0	1.341244E+0	1.444723E+0	1.491632E+0	1.370687E+0	1.434575E+0	1.539097E+0	1.502802E+0	1.523149E+0	1.489396E+0	1.573933E+0	1.485254E+0	1.437895E+0	1.465206E+0	1.433569E+0	1.529192E+0	1.336323E+0	1.360056E+0	1.382002E+0	1.595176E+0	1.348639E+0	1.384744E+0	1.430950E+0	1.544996E+0	1.438715E+0	1.478253E+0	1.509851E+0	1.481001E+0	1.322362E+0	1.514582E+0	1.388861E+0	1.603037E+0	1.411391E+0	1.335187E+0	1.403688E+0	1.566955E+0	1.384113E+0	1.334397E+0	1.424424E+0	1.468791E+0	1.527445E+0	1.505290E+0	1.480078E+0	1.496061E+0	1.540459E+0	1.425928E+0	1.472270E+0	1.581274E+0	1.392336E+0	1.363357E+0	1.313317E+0	1.556058E+0	1.509863E+0	1.380119E+0
5.437690E+2	1.699897E+0	1.633643E+0	1.718844E+0	1.429833E+0	1.739873E+0	1.428659E+0	1.683896E+0	1.423007E+0	1.561403E+0	1.524714E+0	1.684965E+0	1.525221E+0	1.493051E+0	1.607459E+0	1.718060E+0	1.601278E+0	1.601218E+0	1.611060E+0	1.539121E+0	1.578371E+0	1.648567E+0	1.458006E+0	1.500041E+0	1.447706E+0	1.621406E+0	1.496251E+0	1.492773E+0	1.459734E+0	1.472961E+0	1.601257E+0	1.662810E+0	1.575851E+0	1.564802E+0	1.588954E+0	1.568998E+0	1.631623E+0	1.608442E+0	1.432037E+0	1.418850E+0	1.526809E+0	1.690230E+0	1.534605E+0	1.478408E+0	1.503755E+0	1.518315E+0	1.609521E+0	1.606560E+0	1.691133E+0	1.589006E+0	1.614360E+0	1.527042E+0	1.611765E+0	1.714845E+0	1.476945E+0	1.488186E+0	1.499392E+0	1.699314E+0	1.470044E+0	1.530278E+0	1.502281E+0	1.548633E+0	1.594823E+0	1.657670E+0	1.621419E+0	1.608361E+0	1.510996E+0	1.565904E+0	1.601367E+0	1.676446E+0	1.351833E+0	1.475384E+0	1.515096E+0	1.707161E+0	1.459722E+0	1.600468E+0	1.367258E+0	1.683052E+0	1.592855E+0	1.618628E+0	1.618089E+0	1.648266E+0	1.589345E+0	1.692665E+0	1.633733E+0	1.676579E+0	1.400779E+0	1.549851E+0	1.486074E+0	1.696211E+0	1.470231E+0	1.607455E+0	1.475562E+0	1.577836E+0	1.595467E+0	1.630583E+0	1.580966E+0	1.584602E+0	1.573706E+0	1.556135E+0	1.552778E+0	1.653735E+0	1.463284E+0	1.387193E+0	1.352678E+0	1.620179E+0	1.524970E+0	1.447823E+0	1.550119E+0	1.631821E+0	1.643450E+0	1.623357E+0	1.589773E+0	1.599402E+0	1.581195E+0	1.551121E+0	1.602484E+0	1.690607E+0	1.426263E+0	1.387114E+0	1.576952E+0	1.700265E+0	1.518573E+0	1.480518E+0	1.630807E+0	1.514344E+0	1.567600E+0	1.669315E+0	1.663450E+0	1.623227E+0	1.525115E+0	1.542738E+0	1.598825E+0	1.639894E+0	1.367237E+0	1.453165E+0	1.441163E+0	1.622723E+0	1.442903E+0	1.500131E+0	1.512439E+0	1.647111E+0	1.583847E+0	1.656180E+0	1.577479E+0	1.596118E+0	1.397690E+0	1.573289E+0	1.457484E+0	1.695144E+0	1.553592E+0	1.411292E+0	1.493122E+0	1.616512E+0	1.502783E+0	1.471375E+0	1.548120E+0	1.553999E+0	1.655153E+0	1.618981E+0	1.663263E+0	1.621191E+0	1.682050E+0	1.534094E+0	1.601518E+0	1.642586E+0	1.546951E+0	1.489175E+0	1.468642E+0	1.640805E+0	1.462778E+0	1.475740E+0
5.440170E+2	1.724574E+0	1.591580E+0	1.731966E+0	1.460007E+0	1.710065E+0	1.434140E+0	1.643147E+0	1.521017E+0	1.588651E+0	1.513709E+0	1.678236E+0	1.528643E+0	1.561043E+0	1.634696E+0	1.712285E+0	1.640357E+0	1.579910E+0	1.584231E+0	1.598179E+0	1.641256E+0	1.663630E+0	1.437408E+0	1.508578E+0	1.404213E+0	1.661445E+0	1.512884E+0	1.498627E+0	1.458281E+0	1.491802E+0	1.644397E+0	1.581571E+0	1.630638E+0	1.570579E+0	1.570636E+0	1.618357E+0	1.665042E+0	1.673311E+0	1.427016E+0	1.441595E+0	1.601223E+0	1.702509E+0	1.513515E+0	1.545125E+0	1.558666E+0	1.528471E+0	1.596498E+0	1.645224E+0	1.675885E+0	1.589517E+0	1.560718E+0	1.636429E+0	1.689573E+0	1.690399E+0	1.474444E+0	1.484678E+0	1.526714E+0	1.674705E+0	1.535152E+0	1.531813E+0	1.539503E+0	1.524070E+0	1.548244E+0	1.640476E+0	1.663883E+0	1.654005E+0	1.579416E+0	1.630794E+0	1.592091E+0	1.686378E+0	1.430999E+0	1.442111E+0	1.495856E+0	1.721590E+0	1.489290E+0	1.556743E+0	1.377980E+0	1.656838E+0	1.608101E+0	1.641323E+0	1.556791E+0	1.653684E+0	1.593231E+0	1.675245E+0	1.593857E+0	1.680653E+0	1.429474E+0	1.626172E+0	1.432281E+0	1.564529E+0	1.489469E+0	1.631327E+0	1.481377E+0	1.595928E+0	1.567886E+0	1.702063E+0	1.612831E+0	1.598370E+0	1.553592E+0	1.504910E+0	1.608642E+0	1.625400E+0	1.434042E+0	1.403008E+0	1.411873E+0	1.614866E+0	1.508231E+0	1.464907E+0	1.440191E+0	1.561214E+0	1.687662E+0	1.622814E+0	1.586567E+0	1.634327E+0	1.588777E+0	1.551120E+0	1.702714E+0	1.669866E+0	1.409510E+0	1.455420E+0	1.521365E+0	1.720661E+0	1.443600E+0	1.471329E+0	1.687242E+0	1.575061E+0	1.598291E+0	1.618126E+0	1.706883E+0	1.656221E+0	1.548570E+0	1.514974E+0	1.604059E+0	1.655057E+0	1.418754E+0	1.417244E+0	1.478987E+0	1.644884E+0	1.396347E+0	1.550254E+0	1.509024E+0	1.591926E+0	1.632609E+0	1.591197E+0	1.570027E+0	1.645455E+0	1.417927E+0	1.578372E+0	1.484337E+0	1.680627E+0	1.553010E+0	1.402780E+0	1.478300E+0	1.675532E+0	1.520642E+0	1.488502E+0	1.521954E+0	1.565735E+0	1.663553E+0	1.610277E+0	1.617064E+0	1.591711E+0	1.640754E+0	1.559177E+0	1.540109E+0	1.590779E+0	1.506591E+0	1.431380E+0	1.363137E+0	1.674350E+0	1.536585E+0	1.441741E+0
5.442920E+2	1.721424E+0	1.721368E+0	1.726000E+0	1.412184E+0	1.740976E+0	1.730137E+0	1.697062E+0	1.477410E+0	1.529248E+0	1.749490E+0	1.749779E+0	1.574604E+0	1.556514E+0	1.639955E+0	1.728562E+0	1.655988E+0	1.593760E+0	1.653767E+0	1.634711E+0	1.671860E+0	1.663632E+0	1.568309E+0	1.474931E+0	1.486408E+0	1.634021E+0	1.551533E+0	1.510867E+0	1.454892E+0	1.496859E+0	1.662588E+0	1.571847E+0	1.652207E+0	1.600433E+0	1.587933E+0	1.664940E+0	1.669974E+0	1.687071E+0	1.419259E+0	1.474293E+0	1.566814E+0	1.717986E+0	1.499999E+0	1.526776E+0	1.620171E+0	1.521365E+0	1.654818E+0	1.688791E+0	1.729990E+0	1.616339E+0	1.617823E+0	1.618990E+0	1.637698E+0	1.654511E+0	1.460937E+0	1.515240E+0	1.514875E+0	1.674703E+0	1.473939E+0	1.537944E+0	1.544432E+0	1.569193E+0	1.653049E+0	1.587277E+0	1.643383E+0	1.661448E+0	1.572410E+0	1.577426E+0	1.582196E+0	1.675953E+0	1.397072E+0	1.461771E+0	1.535746E+0	1.677233E+0	1.501802E+0	1.578606E+0	1.389767E+0	1.607086E+0	1.574977E+0	1.655944E+0	1.646656E+0	1.728971E+0	1.594894E+0	1.737951E+0	1.610023E+0	1.676580E+0	1.411963E+0	1.661243E+0	1.497979E+0	1.697229E+0	1.522230E+0	1.641805E+0	1.440164E+0	1.616871E+0	1.646029E+0	1.661539E+0	1.607773E+0	1.570262E+0	1.586559E+0	1.546716E+0	1.594677E+0	1.651714E+0	1.468159E+0	1.446995E+0	1.363124E+0	1.636115E+0	1.499861E+0	1.514544E+0	1.500440E+0	1.620646E+0	1.657134E+0	1.568368E+0	1.604732E+0	1.555882E+0	1.640229E+0	1.600284E+0	1.674348E+0	1.651945E+0	1.415601E+0	1.465390E+0	1.595305E+0	1.711249E+0	1.547837E+0	1.503489E+0	1.617871E+0	1.566531E+0	1.610458E+0	1.590786E+0	1.662919E+0	1.689818E+0	1.494435E+0	1.569982E+0	1.595332E+0	1.666180E+0	1.453101E+0	1.462620E+0	1.493534E+0	1.743102E+0	1.491763E+0	1.465148E+0	1.543785E+0	1.589347E+0	1.597618E+0	1.563347E+0	1.538608E+0	1.655660E+0	1.425235E+0	1.599259E+0	1.527896E+0	1.696648E+0	1.582855E+0	1.412295E+0	1.494606E+0	1.643238E+0	1.494143E+0	1.438640E+0	1.547526E+0	1.596859E+0	1.689882E+0	1.600036E+0	1.569793E+0	1.663455E+0	1.651963E+0	1.514241E+0	1.570520E+0	1.600288E+0	1.548001E+0	1.414503E+0	1.425270E+0	1.669053E+0	1.481865E+0	1.547988E+0
5.445240E+2	1.683099E+0	1.664285E+0	1.669339E+0	1.404213E+0	1.661497E+0	1.694759E+0	1.604276E+0	1.449984E+0	1.503088E+0	1.671946E+0	1.615261E+0	1.522290E+0	1.494409E+0	1.609845E+0	1.690232E+0	1.632541E+0	1.533029E+0	1.641175E+0	1.499582E+0	1.581154E+0	1.574933E+0	1.668548E+0	1.414664E+0	1.436394E+0	1.525412E+0	1.649380E+0	1.466691E+0	1.448598E+0	1.432061E+0	1.711441E+0	1.578141E+0	1.593106E+0	1.534467E+0	1.678501E+0	1.535171E+0	1.617380E+0	1.594681E+0	1.552978E+0	1.433065E+0	1.578856E+0	1.627786E+0	1.655714E+0	1.461180E+0	1.538900E+0	1.477706E+0	1.660480E+0	1.573338E+0	1.662604E+0	1.525056E+0	1.601671E+0	1.582528E+0	1.586981E+0	1.642031E+0	1.410909E+0	1.455119E+0	1.448851E+0	1.675823E+0	1.521238E+0	1.548164E+0	1.478195E+0	1.531086E+0	1.576524E+0	1.529781E+0	1.615559E+0	1.616301E+0	1.545476E+0	1.496764E+0	1.576014E+0	1.656589E+0	1.419691E+0	1.424469E+0	1.454093E+0	1.693268E+0	1.485309E+0	1.490623E+0	1.370475E+0	1.640253E+0	1.577080E+0	1.618632E+0	1.555233E+0	1.686811E+0	1.614333E+0	1.667697E+0	1.569605E+0	1.691849E+0	1.419259E+0	1.577184E+0	1.429192E+0	1.645875E+0	1.474911E+0	1.592321E+0	1.453901E+0	1.537370E+0	1.572995E+0	1.629456E+0	1.566805E+0	1.542730E+0	1.512247E+0	1.527874E+0	1.571603E+0	1.627427E+0	1.464259E+0	1.374837E+0	1.391975E+0	1.650987E+0	1.445176E+0	1.449960E+0	1.452348E+0	1.585087E+0	1.617139E+0	1.555304E+0	1.562535E+0	1.620894E+0	1.612065E+0	1.539105E+0	1.643457E+0	1.664676E+0	1.414586E+0	1.358197E+0	1.540256E+0	1.601962E+0	1.523192E+0	1.477965E+0	1.671370E+0	1.574558E+0	1.562305E+0	1.599237E+0	1.688343E+0	1.546440E+0	1.556995E+0	1.566839E+0	1.573805E+0	1.593390E+0	1.359876E+0	1.449387E+0	1.456197E+0	1.637098E+0	1.394048E+0	1.495431E+0	1.512442E+0	1.591925E+0	1.521320E+0	1.512292E+0	1.597715E+0	1.629575E+0	1.439287E+0	1.571035E+0	1.433617E+0	1.648589E+0	1.485128E+0	1.370737E+0	1.497571E+0	1.625976E+0	1.482045E+0	1.492528E+0	1.538010E+0	1.551958E+0	1.560494E+0	1.532433E+0	1.587519E+0	1.613961E+0	1.618926E+0	1.518940E+0	1.525487E+0	1.637835E+0	1.540139E+0	1.425244E+0	1.355519E+0	1.609907E+0	1.527676E+0	1.522488E+0
5.447720E+2	1.619571E+0	1.665488E+0	1.626994E+0	1.335895E+0	1.559383E+0	1.633463E+0	1.556004E+0	1.403675E+0	1.494914E+0	1.581302E+0	1.655614E+0	1.467527E+0	1.444545E+0	1.595032E+0	1.593104E+0	1.598674E+0	1.488278E+0	1.575470E+0	1.460547E+0	1.518826E+0	1.557086E+0	1.598519E+0	1.361429E+0	1.375944E+0	1.437650E+0	1.587245E+0	1.348008E+0	1.375976E+0	1.419191E+0	1.583591E+0	1.508342E+0	1.518044E+0	1.493058E+0	1.601671E+0	1.554580E+0	1.516574E+0	1.524409E+0	1.558454E+0	1.346345E+0	1.476487E+0	1.607500E+0	1.609216E+0	1.416703E+0	1.466408E+0	1.474661E+0	1.613484E+0	1.552099E+0	1.482580E+0	1.501332E+0	1.577444E+0	1.559274E+0	1.503411E+0	1.610825E+0	1.644542E+0	1.405523E+0	1.432915E+0	1.617092E+0	1.602486E+0	1.444935E+0	1.440969E+0	1.464400E+0	1.609796E+0	1.526555E+0	1.544298E+0	1.554779E+0	1.558944E+0	1.496767E+0	1.486347E+0	1.593541E+0	1.532780E+0	1.404301E+0	1.349445E+0	1.568756E+0	1.525683E+0	1.453297E+0	1.327061E+0	1.562147E+0	1.596009E+0	1.519290E+0	1.490823E+0	1.523592E+0	1.476632E+0	1.587573E+0	1.538890E+0	1.593121E+0	1.392510E+0	1.486421E+0	1.384655E+0	1.594015E+0	1.370914E+0	1.537018E+0	1.394199E+0	1.481672E+0	1.531112E+0	1.541090E+0	1.515215E+0	1.540438E+0	1.564206E+0	1.440134E+0	1.502987E+0	1.574297E+0	1.372144E+0	1.344195E+0	1.326811E+0	1.522442E+0	1.417271E+0	1.389111E+0	1.311232E+0	1.539877E+0	1.543989E+0	1.515563E+0	1.528353E+0	1.504837E+0	1.493454E+0	1.468089E+0	1.596185E+0	1.529353E+0	1.361791E+0	1.330276E+0	1.442026E+0	1.515164E+0	1.402521E+0	1.426409E+0	1.522046E+0	1.457139E+0	1.517860E+0	1.529157E+0	1.588237E+0	1.529045E+0	1.416240E+0	1.439011E+0	1.516778E+0	1.560532E+0	1.317185E+0	1.369508E+0	1.381519E+0	1.640095E+0	1.358413E+0	1.435389E+0	1.411572E+0	1.553248E+0	1.463954E+0	1.508167E+0	1.540739E+0	1.603492E+0	1.330233E+0	1.481278E+0	1.391846E+0	1.569997E+0	1.457036E+0	1.312155E+0	1.388865E+0	1.608718E+0	1.405427E+0	1.364110E+0	1.504708E+0	1.500424E+0	1.578417E+0	1.506316E+0	1.509626E+0	1.514412E+0	1.538689E+0	1.426973E+0	1.457067E+0	1.567015E+0	1.435840E+0	1.360801E+0	1.323283E+0	1.574595E+0	1.453871E+0	1.246252E+0
5.450150E+2	1.464695E+0	1.500850E+0	1.425992E+0	1.231141E+0	1.468308E+0	1.511876E+0	1.425605E+0	1.242276E+0	1.341770E+0	1.467076E+0	1.416538E+0	1.369253E+0	1.298124E+0	1.444957E+0	1.494925E+0	1.412833E+0	1.348703E+0	1.517980E+0	1.359950E+0	1.394734E+0	1.431015E+0	1.430085E+0	1.278565E+0	1.292878E+0	1.349343E+0	1.475701E+0	1.255404E+0	1.264616E+0	1.347036E+0	1.497834E+0	1.359025E+0	1.345490E+0	1.394832E+0	1.436314E+0	1.430352E+0	1.449732E+0	1.386810E+0	1.428843E+0	1.269579E+0	1.343150E+0	1.463929E+0	1.455124E+0	1.291618E+0	1.356031E+0	1.348761E+0	1.435687E+0	1.367481E+0	1.466838E+0	1.336306E+0	1.426882E+0	1.408666E+0	1.403123E+0	1.398625E+0	1.422414E+0	1.269753E+0	1.314983E+0	1.455995E+0	1.488962E+0	1.307981E+0	1.290979E+0	1.386183E+0	1.452866E+0	1.362659E+0	1.446672E+0	1.407927E+0	1.471674E+0	1.391239E+0	1.347820E+0	1.476379E+0	1.422641E+0	1.304992E+0	1.247615E+0	1.451194E+0	1.514309E+0	1.265606E+0	1.187173E+0	1.454614E+0	1.440360E+0	1.418937E+0	1.346933E+0	1.457339E+0	1.481631E+0	1.410489E+0	1.320637E+0	1.445040E+0	1.400775E+0	1.380698E+0	1.199897E+0	1.411997E+0	1.408356E+0	1.400208E+0	1.250491E+0	1.325998E+0	1.499955E+0	1.451030E+0	1.396864E+0	1.389586E+0	1.382617E+0	1.344150E+0	1.366360E+0	1.411874E+0	1.371169E+0	1.234481E+0	1.246725E+0	1.357248E+0	1.328549E+0	1.306380E+0	1.321805E+0	1.340747E+0	1.418211E+0	1.394699E+0	1.371858E+0	1.399522E+0	1.387300E+0	1.332069E+0	1.431029E+0	1.407700E+0	1.207970E+0	1.253500E+0	1.323830E+0	1.418952E+0	1.262338E+0	1.299814E+0	1.508522E+0	1.320145E+0	1.405681E+0	1.471504E+0	1.412382E+0	1.347874E+0	1.365714E+0	1.349426E+0	1.401565E+0	1.404841E+0	1.218562E+0	1.243309E+0	1.268536E+0	1.465213E+0	1.222762E+0	1.303812E+0	1.322104E+0	1.399050E+0	1.318821E+0	1.363245E+0	1.430507E+0	1.419761E+0	1.252094E+0	1.350875E+0	1.330981E+0	1.445853E+0	1.342340E+0	1.218024E+0	1.345879E+0	1.495126E+0	1.343788E+0	1.269932E+0	1.368521E+0	1.376948E+0	1.391336E+0	1.398772E+0	1.410241E+0	1.410417E+0	1.497985E+0	1.336053E+0	1.405018E+0	1.432511E+0	1.316863E+0	1.237028E+0	1.237122E+0	1.451889E+0	1.353340E+0	1.244125E+0
5.452580E+2	1.382793E+0	1.316988E+0	1.386627E+0	1.137774E+0	1.352396E+0	1.362385E+0	1.352257E+0	1.168095E+0	1.273648E+0	1.364906E+0	1.383517E+0	1.253864E+0	1.250981E+0	1.352716E+0	1.410394E+0	1.306884E+0	1.228305E+0	1.347141E+0	1.335928E+0	1.360230E+0	1.328932E+0	1.402623E+0	1.179123E+0	1.196332E+0	1.343307E+0	1.409163E+0	1.256468E+0	1.217173E+0	1.224327E+0	1.352313E+0	1.325843E+0	1.312706E+0	1.287937E+0	1.396122E+0	1.282280E+0	1.351665E+0	1.315062E+0	1.363125E+0	1.186653E+0	1.293254E+0	1.375330E+0	1.407002E+0	1.194329E+0	1.265972E+0	1.201539E+0	1.386425E+0	1.308665E+0	1.349775E+0	1.315673E+0	1.348428E+0	1.237449E+0	1.307451E+0	1.335692E+0	1.352872E+0	1.205125E+0	1.210259E+0	1.359230E+0	1.399928E+0	1.279362E+0	1.235691E+0	1.296435E+0	1.395750E+0	1.325044E+0	1.382731E+0	1.311678E+0	1.359621E+0	1.322103E+0	1.239599E+0	1.404391E+0	1.364619E+0	1.208705E+0	1.205852E+0	1.404703E+0	1.349405E+0	1.263474E+0	1.113745E+0	1.335314E+0	1.409337E+0	1.297409E+0	1.323559E+0	1.392892E+0	1.380578E+0	1.344880E+0	1.316868E+0	1.361077E+0	1.347278E+0	1.306957E+0	1.228999E+0	1.335733E+0	1.372475E+0	1.294835E+0	1.192375E+0	1.233642E+0	1.388614E+0	1.355910E+0	1.301780E+0	1.340261E+0	1.385971E+0	1.252878E+0	1.278919E+0	1.364309E+0	1.354111E+0	1.169244E+0	1.147737E+0	1.379557E+0	1.384909E+0	1.241259E+0	1.210816E+0	1.288933E+0	1.393472E+0	1.295618E+0	1.328594E+0	1.307642E+0	1.372680E+0	1.219538E+0	1.388795E+0	1.350178E+0	1.314072E+0	1.208127E+0	1.264459E+0	1.330059E+0	1.331661E+0	1.235495E+0	1.348031E+0	1.273481E+0	1.351707E+0	1.332340E+0	1.400732E+0	1.335278E+0	1.326617E+0	1.289705E+0	1.282279E+0	1.310821E+0	1.229852E+0	1.179977E+0	1.224892E+0	1.416701E+0	1.234258E+0	1.190514E+0	1.227507E+0	1.360885E+0	1.291860E+0	1.306001E+0	1.300573E+0	1.340938E+0	1.186321E+0	1.311360E+0	1.191945E+0	1.377271E+0	1.225886E+0	1.142419E+0	1.223337E+0	1.343119E+0	1.199770E+0	1.221084E+0	1.254932E+0	1.255515E+0	1.357169E+0	1.319392E+0	1.329122E+0	1.298638E+0	1.344008E+0	1.227884E+0	1.292147E+0	1.384031E+0	1.210465E+0	1.203275E+0	1.101140E+0	1.357430E+0	1.223541E+0	1.120883E+0
5.455500E+2	1.342890E+0	1.288146E+0	1.272109E+0	1.130942E+0	1.287816E+0	1.316539E+0	1.277027E+0	1.077278E+0	1.228412E+0	1.310414E+0	1.269787E+0	1.127231E+0	1.127681E+0	1.266689E+0	1.294365E+0	1.241322E+0	1.205930E+0	1.286913E+0	1.221321E+0	1.204414E+0	1.246374E+0	1.259821E+0	1.119361E+0	1.118919E+0	1.238542E+0	1.346054E+0	1.138849E+0	1.093228E+0	1.124597E+0	1.272796E+0	1.222292E+0	1.243253E+0	1.204637E+0	1.270452E+0	1.227378E+0	1.271130E+0	1.251665E+0	1.298317E+0	1.104200E+0	1.208516E+0	1.304345E+0	1.284274E+0	1.167089E+0	1.184147E+0	1.168542E+0	1.323004E+0	1.192667E+0	1.296161E+0	1.177977E+0	1.331698E+0	1.228466E+0	1.220423E+0	1.274840E+0	1.277829E+0	1.131982E+0	1.167459E+0	1.287072E+0	1.290299E+0	1.127586E+0	1.174929E+0	1.185125E+0	1.291500E+0	1.249277E+0	1.279741E+0	1.208981E+0	1.280430E+0	1.233559E+0	1.228467E+0	1.265881E+0	1.320859E+0	1.111411E+0	1.126077E+0	1.268970E+0	1.254440E+0	1.162692E+0	1.049964E+0	1.286631E+0	1.301539E+0	1.221265E+0	1.159933E+0	1.288697E+0	1.321169E+0	1.329787E+0	1.192380E+0	1.254210E+0	1.301069E+0	1.234244E+0	1.110383E+0	1.253877E+0	1.324119E+0	1.219737E+0	1.096745E+0	1.221265E+0	1.298725E+0	1.256284E+0	1.200119E+0	1.200306E+0	1.228961E+0	1.120976E+0	1.183585E+0	1.239839E+0	1.312196E+0	1.062492E+0	1.065163E+0	1.245166E+0	1.295627E+0	1.121165E+0	1.123612E+0	1.198508E+0	1.305061E+0	1.180202E+0	1.241001E+0	1.274867E+0	1.270319E+0	1.209159E+0	1.274698E+0	1.276149E+0	1.256196E+0	1.092956E+0	1.204552E+0	1.228620E+0	1.244880E+0	1.116045E+0	1.304527E+0	1.251401E+0	1.270745E+0	1.251324E+0	1.274665E+0	1.251891E+0	1.332031E+0	1.169737E+0	1.180447E+0	1.278469E+0	1.282840E+0	1.107188E+0	1.124513E+0	1.308301E+0	1.298635E+0	1.140391E+0	1.131198E+0	1.252070E+0	1.258588E+0	1.233798E+0	1.316547E+0	1.270052E+0	1.093005E+0	1.235714E+0	1.182397E+0	1.238111E+0	1.207744E+0	1.073324E+0	1.185786E+0	1.246233E+0	1.141586E+0	1.133959E+0	1.150263E+0	1.188672E+0	1.247947E+0	1.255891E+0	1.238339E+0	1.258595E+0	1.247846E+0	1.155775E+0	1.228987E+0	1.289451E+0	1.229333E+0	1.086152E+0	1.102898E+0	1.255027E+0	1.238813E+0	1.120882E+0
5.457830E+2	1.301939E+0	1.256300E+0	1.256006E+0	1.066610E+0	1.233725E+0	1.303084E+0	1.209320E+0	1.106953E+0	1.159200E+0	1.245968E+0	1.266730E+0	1.145321E+0	1.182079E+0	1.257129E+0	1.251837E+0	1.234810E+0	1.128685E+0	1.299506E+0	1.186288E+0	1.217214E+0	1.198959E+0	1.287740E+0	1.085211E+0	1.090217E+0	1.207824E+0	1.249675E+0	1.129268E+0	1.070956E+0	1.143443E+0	1.312815E+0	1.191400E+0	1.175957E+0	1.169971E+0	1.261294E+0	1.223497E+0	1.245927E+0	1.252650E+0	1.229862E+0	1.045438E+0	1.193033E+0	1.248835E+0	1.276162E+0	1.198220E+0	1.157788E+0	1.208648E+0	1.312814E+0	1.218808E+0	1.259270E+0	1.177461E+0	1.233054E+0	1.189360E+0	1.210624E+0	1.246235E+0	1.297338E+0	1.127474E+0	1.164726E+0	1.283156E+0	1.263031E+0	1.110212E+0	1.133873E+0	1.168580E+0	1.263216E+0	1.207361E+0	1.239718E+0	1.174748E+0	1.263192E+0	1.222035E+0	1.220428E+0	1.257938E+0	1.286440E+0	1.121995E+0	1.054280E+0	1.279124E+0	1.265245E+0	1.165892E+0	1.048356E+0	1.234203E+0	1.253688E+0	1.234374E+0	1.216555E+0	1.232684E+0	1.241771E+0	1.252565E+0	1.226872E+0	1.277621E+0	1.294749E+0	1.194019E+0	1.057472E+0	1.225402E+0	1.266921E+0	1.207510E+0	1.112596E+0	1.196986E+0	1.230796E+0	1.243340E+0	1.199612E+0	1.204321E+0	1.284837E+0	1.145119E+0	1.216982E+0	1.208465E+0	1.299037E+0	1.064468E+0	1.075611E+0	1.257384E+0	1.250983E+0	1.120628E+0	1.122026E+0	1.187845E+0	1.307695E+0	1.197080E+0	1.222306E+0	1.244238E+0	1.240528E+0	1.164911E+0	1.274068E+0	1.251631E+0	1.286657E+0	1.095449E+0	1.157056E+0	1.185741E+0	1.237178E+0	1.095117E+0	1.216931E+0	1.132473E+0	1.292974E+0	1.263253E+0	1.271488E+0	1.221896E+0	1.229172E+0	1.178121E+0	1.183358E+0	1.219327E+0	1.247020E+0	1.065121E+0	1.076507E+0	1.255596E+0	1.272770E+0	1.120552E+0	1.160261E+0	1.243819E+0	1.296449E+0	1.190477E+0	1.249454E+0	1.215614E+0	1.041849E+0	1.267327E+0	1.221184E+0	1.277656E+0	1.208329E+0	1.070321E+0	1.166514E+0	1.234542E+0	1.160596E+0	1.123886E+0	1.211517E+0	1.246838E+0	1.252427E+0	1.216456E+0	1.221150E+0	1.212439E+0	1.256696E+0	1.120766E+0	1.185711E+0	1.278992E+0	1.310049E+0	1.085640E+0	1.083556E+0	1.244433E+0	1.261718E+0	1.103883E+0
5.460060E+2	1.295639E+0	1.226257E+0	1.254813E+0	1.056931E+0	1.303272E+0	1.267705E+0	1.224366E+0	1.063340E+0	1.190809E+0	1.253304E+0	1.222094E+0	1.134564E+0	1.111815E+0	1.227496E+0	1.252886E+0	1.230033E+0	1.146265E+0	1.280891E+0	1.143747E+0	1.157670E+0	1.234661E+0	1.287740E+0	1.064115E+0	1.088913E+0	1.232509E+0	1.276582E+0	1.112237E+0	1.035613E+0	1.106674E+0	1.262402E+0	1.193687E+0	1.185448E+0	1.183932E+0	1.185990E+0	1.160827E+0	1.253049E+0	1.258544E+0	1.215715E+0	1.090456E+0	1.143998E+0	1.247236E+0	1.202092E+0	1.137068E+0	1.125389E+0	1.141128E+0	1.242599E+0	1.163803E+0	1.261237E+0	1.188292E+0	1.306316E+0	1.206272E+0	1.218693E+0	1.242076E+0	1.230301E+0	1.093405E+0	1.141960E+0	1.263019E+0	1.236321E+0	1.137296E+0	1.195182E+0	1.176101E+0	1.257672E+0	1.206287E+0	1.239718E+0	1.198065E+0	1.222249E+0	1.186860E+0	1.239599E+0	1.239071E+0	1.257925E+0	1.113931E+0	1.109182E+0	1.224617E+0	1.253870E+0	1.157893E+0	9.985112E-1	1.289305E+0	1.252111E+0	1.226813E+0	1.174998E+0	1.248946E+0	1.261205E+0	1.231663E+0	1.209089E+0	1.217064E+0	1.278697E+0	1.219802E+0	1.050855E+0	1.235572E+0	1.236243E+0	1.203435E+0	1.096216E+0	1.202697E+0	1.274718E+0	1.172983E+0	1.170782E+0	1.118858E+0	1.231197E+0	1.186927E+0	1.182978E+0	1.218588E+0	1.289287E+0	1.074848E+0	1.030343E+0	1.223920E+0	1.257122E+0	1.133441E+0	1.069705E+0	1.194953E+0	1.295587E+0	1.197624E+0	1.195602E+0	1.215224E+0	1.234032E+0	1.105369E+0	1.199055E+0	1.207308E+0	1.252138E+0	1.046589E+0	1.151658E+0	1.236464E+0	1.211502E+0	1.111960E+0	1.281010E+0	1.128461E+0	1.292970E+0	1.203114E+0	1.284731E+0	1.179904E+0	1.270676E+0	1.212696E+0	1.192668E+0	1.239039E+0	1.239660E+0	1.096316E+0	1.072630E+0	1.263983E+0	1.271617E+0	1.151877E+0	1.153422E+0	1.199984E+0	1.237938E+0	1.217809E+0	1.246793E+0	1.205406E+0	1.093004E+0	1.237972E+0	1.215813E+0	1.239112E+0	1.188433E+0	1.052295E+0	1.201104E+0	1.235656E+0	1.131217E+0	1.097197E+0	1.115769E+0	1.205000E+0	1.210418E+0	1.234380E+0	1.207717E+0	1.205765E+0	1.260233E+0	1.158388E+0	1.221969E+0	1.257129E+0	1.239816E+0	1.045747E+0	1.064213E+0	1.304464E+0	1.265535E+0	1.112383E+0
5.467710E+2	1.289865E+0	1.307974E+0	1.283442E+0	1.181042E+0	1.296648E+0	1.352416E+0	1.268877E+0	1.152808E+0	1.214243E+0	1.327707E+0	1.270400E+0	1.157054E+0	1.197946E+0	1.296796E+0	1.293313E+0	1.277360E+0	1.217650E+0	1.314291E+0	1.188288E+0	1.262290E+0	1.236334E+0	1.328017E+0	1.171591E+0	1.154145E+0	1.204534E+0	1.349476E+0	1.145768E+0	1.095648E+0	1.159527E+0	1.272277E+0	1.244033E+0	1.281647E+0	1.208974E+0	1.353893E+0	1.226269E+0	1.249764E+0	1.274761E+0	1.276411E+0	1.103252E+0	1.224002E+0	1.301676E+0	1.307521E+0	1.162085E+0	1.200622E+0	1.176159E+0	1.321873E+0	1.296683E+0	1.275500E+0	1.246052E+0	1.268819E+0	1.241678E+0	1.264226E+0	1.317491E+0	1.341365E+0	1.191600E+0	1.190225E+0	1.302735E+0	1.330367E+0	1.183290E+0	1.194636E+0	1.215210E+0	1.270427E+0	1.249815E+0	1.267539E+0	1.216422E+0	1.307364E+0	1.196563E+0	1.238981E+0	1.327440E+0	1.335118E+0	1.145689E+0	1.108245E+0	1.318134E+0	1.362480E+0	1.170692E+0	1.074619E+0	1.293586E+0	1.339400E+0	1.268162E+0	1.211879E+0	1.232684E+0	1.283414E+0	1.258370E+0	1.222563E+0	1.292888E+0	1.312741E+0	1.253322E+0	1.170352E+0	1.288449E+0	1.246643E+0	1.236618E+0	1.140599E+0	1.216979E+0	1.290553E+0	1.343526E+0	1.248674E+0	1.214645E+0	1.277573E+0	1.175150E+0	1.176906E+0	1.290438E+0	1.309759E+0	1.047666E+0	1.065661E+0	1.229762E+0	1.348637E+0	1.180411E+0	1.136298E+0	1.222386E+0	1.330848E+0	1.207967E+0	1.241535E+0	1.209313E+0	1.327729E+0	1.213528E+0	1.313780E+0	1.295009E+0	1.312040E+0	1.138827E+0	1.247190E+0	1.265744E+0	1.285960E+0	1.178322E+0	1.333332E+0	1.225305E+0	1.346947E+0	1.300531E+0	1.261425E+0	1.261490E+0	1.322407E+0	1.215313E+0	1.239800E+0	1.288074E+0	1.309826E+0	1.093953E+0	1.128394E+0	1.277757E+0	1.335419E+0	1.125250E+0	1.201292E+0	1.271151E+0	1.294154E+0	1.283309E+0	1.237738E+0	1.288768E+0	1.116053E+0	1.209746E+0	1.272502E+0	1.308192E+0	1.186677E+0	1.125397E+0	1.169479E+0	1.307484E+0	1.217052E+0	1.150077E+0	1.174051E+0	1.271841E+0	1.260267E+0	1.235918E+0	1.286149E+0	1.284179E+0	1.317459E+0	1.233111E+0	1.189805E+0	1.322245E+0	1.315813E+0	1.147015E+0	1.097037E+0	1.234723E+0	1.303712E+0	1.225003E+0
5.475120E+2	1.431617E+0	1.442567E+0	1.425993E+0	1.330771E+0	1.370061E+0	1.407230E+0	1.379214E+0	1.271500E+0	1.321061E+0	1.389530E+0	1.371900E+0	1.246040E+0	1.191144E+0	1.396209E+0	1.417221E+0	1.378534E+0	1.257073E+0	1.429275E+0	1.428517E+0	1.326839E+0	1.345667E+0	1.414982E+0	1.412156E+0	1.220685E+0	1.403645E+0	1.395955E+0	1.371425E+0	1.197806E+0	1.274423E+0	1.363747E+0	1.368179E+0	1.358001E+0	1.298049E+0	1.407314E+0	1.418152E+0	1.343448E+0	1.327836E+0	1.368146E+0	1.314596E+0	1.296262E+0	1.397746E+0	1.370237E+0	1.379454E+0	1.282997E+0	1.269568E+0	1.456638E+0	1.391988E+0	1.415193E+0	1.295563E+0	1.373810E+0	1.265985E+0	1.327045E+0	1.397065E+0	1.378888E+0	1.236187E+0	1.274919E+0	1.412927E+0	1.401041E+0	1.228772E+0	1.255945E+0	1.284400E+0	1.404069E+0	1.313761E+0	1.377360E+0	1.315151E+0	1.398948E+0	1.356065E+0	1.321229E+0	1.415313E+0	1.360193E+0	1.245505E+0	1.200688E+0	1.382260E+0	1.371011E+0	1.324793E+0	1.157696E+0	1.333176E+0	1.397767E+0	1.335229E+0	1.320445E+0	1.351938E+0	1.353372E+0	1.421521E+0	1.316325E+0	1.373799E+0	1.399319E+0	1.320879E+0	1.242228E+0	1.348953E+0	1.409394E+0	1.346649E+0	1.180749E+0	1.323620E+0	1.384530E+0	1.381804E+0	1.326055E+0	1.306991E+0	1.404407E+0	1.330019E+0	1.301386E+0	1.297014E+0	1.430630E+0	1.176161E+0	1.149228E+0	1.394960E+0	1.434572E+0	1.255135E+0	1.216633E+0	1.302139E+0	1.412420E+0	1.367479E+0	1.321118E+0	1.314090E+0	1.330975E+0	1.297655E+0	1.387533E+0	1.407229E+0	1.446571E+0	1.194167E+0	1.331385E+0	1.393852E+0	1.350143E+0	1.221202E+0	1.349798E+0	1.283014E+0	1.404090E+0	1.321901E+0	1.383248E+0	1.358074E+0	1.407219E+0	1.245698E+0	1.346869E+0	1.375016E+0	1.393239E+0	1.169107E+0	1.222467E+0	1.400533E+0	1.430259E+0	1.241683E+0	1.238333E+0	1.359857E+0	1.368156E+0	1.358088E+0	1.319744E+0	1.342069E+0	1.214430E+0	1.304021E+0	1.359620E+0	1.418322E+0	1.300205E+0	1.192990E+0	1.258914E+0	1.361496E+0	1.269475E+0	1.261877E+0	1.284072E+0	1.292761E+0	1.389096E+0	1.368552E+0	1.377473E+0	1.392065E+0	1.367014E+0	1.278052E+0	1.351798E+0	1.375952E+0	1.362462E+0	1.178213E+0	1.162097E+0	1.397156E+0	1.278261E+0	1.235625E+0
5.482660E+2	1.439494E+0	1.479220E+0	1.477881E+0	1.432680E+0	1.424152E+0	1.476994E+0	1.497703E+0	1.318254E+0	1.436600E+0	1.409965E+0	1.475234E+0	1.337470E+0	1.294500E+0	1.436835E+0	1.499125E+0	1.424126E+0	1.400379E+0	1.473626E+0	1.456042E+0	1.431460E+0	1.338974E+0	1.480431E+0	1.503558E+0	1.229819E+0	1.449719E+0	1.466897E+0	1.515655E+0	1.340148E+0	1.287292E+0	1.511348E+0	1.491755E+0	1.360158E+0	1.406389E+0	1.505003E+0	1.496350E+0	1.447542E+0	1.442338E+0	1.429301E+0	1.525469E+0	1.351319E+0	1.444717E+0	1.464856E+0	1.500092E+0	1.397768E+0	1.317794E+0	1.552329E+0	1.493283E+0	1.458478E+0	1.422429E+0	1.481683E+0	1.456756E+0	1.465371E+0	1.382504E+0	1.436421E+0	1.479666E+0	1.329556E+0	1.477812E+0	1.503433E+0	1.415806E+0	1.332585E+0	1.326519E+0	1.506100E+0	1.501837E+0	1.471082E+0	1.347400E+0	1.468978E+0	1.436725E+0	1.418319E+0	1.461981E+0	1.450174E+0	1.381114E+0	1.305335E+0	1.496081E+0	1.443229E+0	1.443703E+0	1.164125E+0	1.459430E+0	1.562884E+0	1.419948E+0	1.353170E+0	1.422407E+0	1.430549E+0	1.486549E+0	1.356746E+0	1.437919E+0	1.479086E+0	1.407000E+0	1.251047E+0	1.435896E+0	1.499352E+0	1.388565E+0	1.305967E+0	1.354565E+0	1.538264E+0	1.408817E+0	1.412039E+0	1.372953E+0	1.383736E+0	1.335908E+0	1.371217E+0	1.417440E+0	1.478880E+0	1.219654E+0	1.253192E+0	1.372120E+0	1.476422E+0	1.329863E+0	1.282694E+0	1.392053E+0	1.533462E+0	1.332093E+0	1.398030E+0	1.449494E+0	1.460960E+0	1.365937E+0	1.398247E+0	1.412889E+0	1.410526E+0	1.184195E+0	1.337861E+0	1.475948E+0	1.494949E+0	1.288583E+0	1.456204E+0	1.383875E+0	1.429491E+0	1.397944E+0	1.474354E+0	1.350276E+0	1.467969E+0	1.335282E+0	1.385853E+0	1.441742E+0	1.440834E+0	1.257018E+0	1.230710E+0	1.450243E+0	1.434284E+0	1.300683E+0	1.343758E+0	1.390797E+0	1.396266E+0	1.374591E+0	1.433169E+0	1.436203E+0	1.214990E+0	1.406761E+0	1.390651E+0	1.443350E+0	1.416076E+0	1.210014E+0	1.356749E+0	1.389333E+0	1.335146E+0	1.318786E+0	1.351868E+0	1.400422E+0	1.419341E+0	1.390576E+0	1.429581E+0	1.412644E+0	1.461997E+0	1.339711E+0	1.343025E+0	1.453423E+0	1.429027E+0	1.241122E+0	1.242983E+0	1.413929E+0	1.329163E+0	1.337622E+0
5.490540E+2	1.477817E+0	1.453985E+0	1.498162E+0	1.370055E+0	1.462789E+0	1.483474E+0	1.437517E+0	1.246323E+0	1.398451E+0	1.436163E+0	1.407976E+0	1.270487E+0	1.265034E+0	1.379956E+0	1.448198E+0	1.376794E+0	1.316209E+0	1.425989E+0	1.485069E+0	1.397514E+0	1.333952E+0	1.446103E+0	1.414663E+0	1.254608E+0	1.339468E+0	1.472274E+0	1.442743E+0	1.225400E+0	1.271666E+0	1.448462E+0	1.423672E+0	1.392513E+0	1.354387E+0	1.380348E+0	1.452534E+0	1.388921E+0	1.433986E+0	1.411043E+0	1.459127E+0	1.300132E+0	1.414293E+0	1.453501E+0	1.461176E+0	1.279152E+0	1.306117E+0	1.443614E+0	1.478581E+0	1.434376E+0	1.321862E+0	1.404960E+0	1.430333E+0	1.441741E+0	1.421507E+0	1.438923E+0	1.405022E+0	1.245776E+0	1.445371E+0	1.489520E+0	1.429606E+0	1.310140E+0	1.348077E+0	1.458964E+0	1.458846E+0	1.431542E+0	1.332516E+0	1.416184E+0	1.444004E+0	1.367610E+0	1.499215E+0	1.429034E+0	1.483448E+0	1.250901E+0	1.434094E+0	1.432429E+0	1.438369E+0	1.317949E+0	1.432147E+0	1.425111E+0	1.428016E+0	1.406153E+0	1.417586E+0	1.426662E+0	1.447066E+0	1.373989E+0	1.412984E+0	1.456713E+0	1.512205E+0	1.267804E+0	1.393185E+0	1.410954E+0	1.432809E+0	1.264755E+0	1.364563E+0	1.373294E+0	1.389118E+0	1.345273E+0	1.362056E+0	1.376471E+0	1.338851E+0	1.310495E+0	1.374937E+0	1.430629E+0	1.425746E+0	1.228818E+0	1.372651E+0	1.461359E+0	1.381637E+0	1.269480E+0	1.386467E+0	1.455047E+0	1.395791E+0	1.323255E+0	1.384478E+0	1.392178E+0	1.400900E+0	1.441114E+0	1.424206E+0	1.442001E+0	1.363184E+0	1.351896E+0	1.411630E+0	1.447710E+0	1.315126E+0	1.373307E+0	1.310109E+0	1.459652E+0	1.421306E+0	1.420327E+0	1.410264E+0	1.409021E+0	1.341045E+0	1.357339E+0	1.419499E+0	1.429550E+0	1.203134E+0	1.244774E+0	1.456831E+0	1.405541E+0	1.269354E+0	1.303300E+0	1.398528E+0	1.395118E+0	1.384390E+0	1.362878E+0	1.389707E+0	1.215552E+0	1.334503E+0	1.403182E+0	1.490906E+0	1.346435E+0	1.185980E+0	1.318704E+0	1.366506E+0	1.302887E+0	1.222594E+0	1.288235E+0	1.419807E+0	1.446228E+0	1.395185E+0	1.379622E+0	1.446008E+0	1.451380E+0	1.305746E+0	1.376946E+0	1.417302E+0	1.392861E+0	1.236006E+0	1.237708E+0	1.454537E+0	1.355885E+0	1.142132E+0
5.497960E+2	1.469420E+0	1.423340E+0	1.415254E+0	1.388273E+0	1.433535E+0	1.482972E+0	1.467608E+0	1.301621E+0	1.359754E+0	1.438785E+0	1.450781E+0	1.310090E+0	1.251434E+0	1.468856E+0	1.398321E+0	1.407187E+0	1.291701E+0	1.494982E+0	1.427515E+0	1.364126E+0	1.364634E+0	1.399877E+0	1.441282E+0	1.222425E+0	1.404742E+0	1.425311E+0	1.452321E+0	1.224434E+0	1.295563E+0	1.400645E+0	1.395639E+0	1.348510E+0	1.319234E+0	1.408330E+0	1.423147E+0	1.390018E+0	1.407937E+0	1.414694E+0	1.446808E+0	1.253680E+0	1.418027E+0	1.422681E+0	1.436161E+0	1.333516E+0	1.257382E+0	1.404542E+0	1.441548E+0	1.420114E+0	1.370338E+0	1.407266E+0	1.463628E+0	1.347218E+0	1.417349E+0	1.406404E+0	1.437587E+0	1.254427E+0	1.405096E+0	1.426082E+0	1.435738E+0	1.306306E+0	1.320000E+0	1.493347E+0	1.433594E+0	1.380778E+0	1.416856E+0	1.407028E+0	1.453100E+0	1.339781E+0	1.373611E+0	1.429523E+0	1.429507E+0	1.221804E+0	1.406840E+0	1.444368E+0	1.440502E+0	1.298119E+0	1.372765E+0	1.422483E+0	1.442642E+0	1.378102E+0	1.381449E+0	1.402789E+0	1.413393E+0	1.316327E+0	1.389576E+0	1.450877E+0	1.485387E+0	1.222826E+0	1.406407E+0	1.455672E+0	1.428152E+0	1.233056E+0	1.292675E+0	1.400362E+0	1.382929E+0	1.368543E+0	1.268562E+0	1.401057E+0	1.400679E+0	1.289849E+0	1.435657E+0	1.438917E+0	1.446502E+0	1.214890E+0	1.418329E+0	1.413926E+0	1.358686E+0	1.272123E+0	1.348873E+0	1.419262E+0	1.433356E+0	1.374528E+0	1.359226E+0	1.428462E+0	1.435860E+0	1.395729E+0	1.460042E+0	1.362296E+0	1.478853E+0	1.367004E+0	1.374505E+0	1.440006E+0	1.413136E+0	1.453853E+0	1.349752E+0	1.443248E+0	1.415838E+0	1.440984E+0	1.365872E+0	1.410825E+0	1.384527E+0	1.352103E+0	1.379060E+0	1.389806E+0	1.397867E+0	1.196285E+0	1.468210E+0	1.437731E+0	1.393095E+0	1.256000E+0	1.376359E+0	1.352093E+0	1.420495E+0	1.371399E+0	1.365888E+0	1.230730E+0	1.385873E+0	1.356637E+0	1.386784E+0	1.303131E+0	1.287621E+0	1.280160E+0	1.398244E+0	1.298278E+0	1.307706E+0	1.317970E+0	1.388684E+0	1.403100E+0	1.367533E+0	1.393588E+0	1.321439E+0	1.420701E+0	1.343368E+0	1.312030E+0	1.403991E+0	1.460996E+0	1.187419E+0	1.208402E+0	1.429819E+0	1.313892E+0	1.305749E+0
5.505110E+2	1.433716E+0	1.405915E+0	1.461182E+0	1.380871E+0	1.394897E+0	1.449087E+0	1.403038E+0	1.231936E+0	1.295446E+0	1.392152E+0	1.422038E+0	1.294444E+0	1.260050E+0	1.429188E+0	1.428773E+0	1.375924E+0	1.292235E+0	1.407374E+0	1.396486E+0	1.359672E+0	1.336741E+0	1.390725E+0	1.441787E+0	1.229383E+0	1.372927E+0	1.381765E+0	1.399100E+0	1.248640E+0	1.261094E+0	1.383497E+0	1.434542E+0	1.321765E+0	1.326940E+0	1.378312E+0	1.417600E+0	1.382895E+0	1.389759E+0	1.392788E+0	1.415533E+0	1.285511E+0	1.434573E+0	1.387543E+0	1.421704E+0	1.311001E+0	1.309163E+0	1.430588E+0	1.425210E+0	1.409784E+0	1.305361E+0	1.368619E+0	1.420821E+0	1.425601E+0	1.324774E+0	1.406904E+0	1.401515E+0	1.209804E+0	1.381603E+0	1.398254E+0	1.406098E+0	1.286599E+0	1.319999E+0	1.437892E+0	1.439500E+0	1.405674E+0	1.327057E+0	1.415108E+0	1.390634E+0	1.316900E+0	1.439143E+0	1.447717E+0	1.414887E+0	1.209604E+0	1.397757E+0	1.405131E+0	1.384512E+0	1.280430E+0	1.382928E+0	1.413543E+0	1.409862E+0	1.359401E+0	1.411564E+0	1.427218E+0	1.418619E+0	1.327107E+0	1.351408E+0	1.422665E+0	1.395658E+0	1.232528E+0	1.372850E+0	1.387035E+0	1.417093E+0	1.235698E+0	1.348374E+0	1.399341E+0	1.408254E+0	1.374609E+0	1.359186E+0	1.352445E+0	1.395378E+0	1.318998E+0	1.353686E+0	1.425756E+0	1.431180E+0	1.138285E+0	1.376369E+0	1.432900E+0	1.383772E+0	1.207116E+0	1.314331E+0	1.419786E+0	1.421922E+0	1.319515E+0	1.341493E+0	1.416547E+0	1.346820E+0	1.366732E+0	1.397329E+0	1.423725E+0	1.399578E+0	1.306557E+0	1.391238E+0	1.452333E+0	1.373321E+0	1.402118E+0	1.288535E+0	1.377106E+0	1.401422E+0	1.460053E+0	1.326878E+0	1.397594E+0	1.436392E+0	1.269478E+0	1.380578E+0	1.448686E+0	1.442772E+0	1.222468E+0	1.422692E+0	1.403244E+0	1.398316E+0	1.270247E+0	1.316534E+0	1.412328E+0	1.431837E+0	1.361280E+0	1.380633E+0	1.212180E+0	1.403373E+0	1.387071E+0	1.456365E+0	1.338244E+0	1.385755E+0	1.259410E+0	1.405481E+0	1.312105E+0	1.411950E+0	1.288236E+0	1.355521E+0	1.395818E+0	1.396209E+0	1.330199E+0	1.328669E+0	1.397692E+0	1.363748E+0	1.313786E+0	1.384506E+0	1.385524E+0	1.312214E+0	1.162683E+0	1.390976E+0	1.381335E+0	1.367371E+0
5.512510E+2	1.380690E+0	1.404112E+0	1.397958E+0	1.323371E+0	1.338044E+0	1.436134E+0	1.364168E+0	1.212604E+0	1.269831E+0	1.337661E+0	1.327264E+0	1.227949E+0	1.231491E+0	1.405289E+0	1.346341E+0	1.336847E+0	1.229904E+0	1.331814E+0	1.355946E+0	1.348543E+0	1.306063E+0	1.405826E+0	1.344856E+0	1.142405E+0	1.325206E+0	1.338227E+0	1.354396E+0	1.187153E+0	1.209623E+0	1.333084E+0	1.362456E+0	1.304078E+0	1.309125E+0	1.349823E+0	1.385989E+0	1.342354E+0	1.334716E+0	1.348063E+0	1.370988E+0	1.241636E+0	1.374797E+0	1.384296E+0	1.395578E+0	1.222585E+0	1.266013E+0	1.353581E+0	1.389265E+0	1.336987E+0	1.279058E+0	1.361697E+0	1.401267E+0	1.230218E+0	1.322172E+0	1.410407E+0	1.382978E+0	1.248505E+0	1.372096E+0	1.319237E+0	1.321269E+0	1.238976E+0	1.257326E+0	1.346396E+0	1.347615E+0	1.344169E+0	1.273973E+0	1.355846E+0	1.341508E+0	1.326176E+0	1.375101E+0	1.367571E+0	1.352884E+0	1.162680E+0	1.388672E+0	1.312439E+0	1.346120E+0	1.181276E+0	1.355645E+0	1.349916E+0	1.325144E+0	1.286680E+0	1.366994E+0	1.333384E+0	1.387847E+0	1.323873E+0	1.361582E+0	1.326360E+0	1.395658E+0	1.172117E+0	1.324042E+0	1.362597E+0	1.347227E+0	1.186034E+0	1.266490E+0	1.370738E+0	1.387429E+0	1.287110E+0	1.278314E+0	1.370884E+0	1.305286E+0	1.291064E+0	1.294484E+0	1.370196E+0	1.352598E+0	1.145249E+0	1.304127E+0	1.346406E+0	1.337870E+0	1.230902E+0	1.303665E+0	1.395581E+0	1.354413E+0	1.328062E+0	1.314090E+0	1.356974E+0	1.339170E+0	1.385011E+0	1.307270E+0	1.329809E+0	1.380135E+0	1.279029E+0	1.348883E+0	1.326011E+0	1.354943E+0	1.373900E+0	1.303590E+0	1.356469E+0	1.397945E+0	1.393314E+0	1.326280E+0	1.333231E+0	1.332140E+0	1.297991E+0	1.336601E+0	1.333379E+0	1.380853E+0	1.169129E+0	1.350223E+0	1.358411E+0	1.338274E+0	1.267397E+0	1.329428E+0	1.309072E+0	1.348290E+0	1.314951E+0	1.325059E+0	1.119426E+0	1.345229E+0	1.336947E+0	1.391288E+0	1.257486E+0	1.334687E+0	1.277691E+0	1.305814E+0	1.223965E+0	1.332887E+0	1.218654E+0	1.326436E+0	1.315162E+0	1.363434E+0	1.362970E+0	1.306423E+0	1.339877E+0	1.337096E+0	1.303260E+0	1.326522E+0	1.378710E+0	1.321933E+0	1.155063E+0	1.306229E+0	1.409332E+0	1.414118E+0
5.520210E+2	1.325566E+0	1.357846E+0	1.356805E+0	1.248789E+0	1.343015E+0	1.312053E+0	1.389872E+0	1.159550E+0	1.221327E+0	1.304652E+0	1.303418E+0	1.194214E+0	1.163946E+0	1.276724E+0	1.264963E+0	1.289951E+0	1.208064E+0	1.280891E+0	1.328922E+0	1.275644E+0	1.273708E+0	1.322524E+0	1.305182E+0	1.133705E+0	1.274194E+0	1.352412E+0	1.305433E+0	1.141160E+0	1.159067E+0	1.329966E+0	1.289228E+0	1.278626E+0	1.254714E+0	1.295382E+0	1.322765E+0	1.275515E+0	1.239379E+0	1.291015E+0	1.341135E+0	1.236905E+0	1.333165E+0	1.294546E+0	1.340538E+0	1.179204E+0	1.199511E+0	1.355280E+0	1.327182E+0	1.284358E+0	1.221299E+0	1.322467E+0	1.341027E+0	1.293043E+0	1.301887E+0	1.283833E+0	1.360934E+0	1.164726E+0	1.270294E+0	1.296419E+0	1.327909E+0	1.160698E+0	1.237771E+0	1.339186E+0	1.317521E+0	1.309518E+0	1.241725E+0	1.304672E+0	1.300877E+0	1.273611E+0	1.300134E+0	1.259888E+0	1.312048E+0	1.172063E+0	1.322409E+0	1.342012E+0	1.299732E+0	1.163053E+0	1.275398E+0	1.292599E+0	1.286317E+0	1.230578E+0	1.323028E+0	1.331165E+0	1.325719E+0	1.255433E+0	1.323929E+0	1.274804E+0	1.316237E+0	1.154920E+0	1.261502E+0	1.320478E+0	1.344317E+0	1.187619E+0	1.262206E+0	1.303834E+0	1.330018E+0	1.253731E+0	1.242751E+0	1.323388E+0	1.271722E+0	1.233985E+0	1.287909E+0	1.291237E+0	1.297247E+0	1.085059E+0	1.283409E+0	1.346965E+0	1.318121E+0	1.087145E+0	1.286900E+0	1.350320E+0	1.288541E+0	1.264502E+0	1.275940E+0	1.288734E+0	1.321689E+0	1.333324E+0	1.280863E+0	1.322192E+0	1.333769E+0	1.296300E+0	1.296074E+0	1.279796E+0	1.248257E+0	1.345677E+0	1.165593E+0	1.286620E+0	1.330848E+0	1.322336E+0	1.284286E+0	1.316391E+0	1.306991E+0	1.249111E+0	1.308799E+0	1.300995E+0	1.315625E+0	1.113362E+0	1.358011E+0	1.298634E+0	1.281884E+0	1.196163E+0	1.240724E+0	1.302188E+0	1.291561E+0	1.268091E+0	1.289333E+0	1.128982E+0	1.320955E+0	1.261761E+0	1.339230E+0	1.258656E+0	1.299638E+0	1.222351E+0	1.266835E+0	1.191704E+0	1.350010E+0	1.173457E+0	1.258066E+0	1.263629E+0	1.348069E+0	1.250155E+0	1.212441E+0	1.318050E+0	1.343367E+0	1.233081E+0	1.253802E+0	1.303758E+0	1.312212E+0	1.105242E+0	1.279746E+0	1.307529E+0	1.269625E+0
5.527590E+2	1.289340E+0	1.314584E+0	1.268531E+0	1.195844E+0	1.284505E+0	1.257239E+0	1.304611E+0	1.137521E+0	1.184814E+0	1.322467E+0	1.223929E+0	1.166833E+0	1.159414E+0	1.242791E+0	1.248164E+0	1.263902E+0	1.140405E+0	1.246396E+0	1.259854E+0	1.222222E+0	1.216808E+0	1.300100E+0	1.270026E+0	1.091521E+0	1.180948E+0	1.257993E+0	1.269774E+0	1.128571E+0	1.128273E+0	1.257206E+0	1.290946E+0	1.152662E+0	1.154079E+0	1.312172E+0	1.267310E+0	1.203196E+0	1.230042E+0	1.246748E+0	1.262946E+0	1.168946E+0	1.266982E+0	1.248589E+0	1.245475E+0	1.215998E+0	1.140114E+0	1.255623E+0	1.270542E+0	1.283371E+0	1.196029E+0	1.257860E+0	1.297692E+0	1.225031E+0	1.218151E+0	1.259318E+0	1.257229E+0	1.137407E+0	1.292106E+0	1.276387E+0	1.277831E+0	1.168907E+0	1.151032E+0	1.254899E+0	1.224558E+0	1.247037E+0	1.214931E+0	1.231406E+0	1.253572E+0	1.172192E+0	1.269353E+0	1.274638E+0	1.211729E+0	1.072110E+0	1.283399E+0	1.249888E+0	1.261872E+0	1.142151E+0	1.268977E+0	1.278401E+0	1.270177E+0	1.221746E+0	1.226662E+0	1.258985E+0	1.297854E+0	1.176756E+0	1.292886E+0	1.245622E+0	1.262607E+0	1.097598E+0	1.189815E+0	1.240402E+0	1.305895E+0	1.116293E+0	1.214124E+0	1.280850E+0	1.263603E+0	1.173817E+0	1.099356E+0	1.219462E+0	1.268778E+0	1.158688E+0	1.227695E+0	1.277589E+0	1.247823E+0	1.098989E+0	1.240920E+0	1.261587E+0	1.237525E+0	1.112514E+0	1.218831E+0	1.259802E+0	1.250432E+0	1.203615E+0	1.259283E+0	1.260028E+0	1.202603E+0	1.294239E+0	1.249746E+0	1.285642E+0	1.271943E+0	1.173249E+0	1.222866E+0	1.290067E+0	1.256935E+0	1.298062E+0	1.185161E+0	1.226828E+0	1.212559E+0	1.261954E+0	1.201500E+0	1.255037E+0	1.245701E+0	1.168229E+0	1.248644E+0	1.199430E+0	1.263163E+0	1.101239E+0	1.281950E+0	1.216439E+0	1.257345E+0	1.175648E+0	1.219065E+0	1.315379E+0	1.299811E+0	1.205787E+0	1.251907E+0	1.114366E+0	1.252650E+0	1.254601E+0	1.266642E+0	1.224129E+0	1.272601E+0	1.215433E+0	1.233983E+0	1.078794E+0	1.261875E+0	1.188323E+0	1.208571E+0	1.258589E+0	1.250766E+0	1.199659E+0	1.231903E+0	1.280882E+0	1.255057E+0	1.197408E+0	1.238119E+0	1.234573E+0	1.253908E+0	1.036665E+0	1.286807E+0	1.243902E+0	1.346122E+0
5.535490E+2	1.253639E+0	1.207631E+0	1.263759E+0	1.197552E+0	1.225998E+0	1.246776E+0	1.250696E+0	1.179334E+0	1.114509E+0	1.216627E+0	1.199470E+0	1.143853E+0	1.119523E+0	1.170623E+0	1.207210E+0	1.199204E+0	1.159050E+0	1.258441E+0	1.215315E+0	1.132072E+0	1.234659E+0	1.283164E+0	1.208757E+0	1.050207E+0	1.208374E+0	1.215429E+0	1.227730E+0	1.068052E+0	1.094726E+0	1.229140E+0	1.258908E+0	1.142743E+0	1.180083E+0	1.228220E+0	1.292264E+0	1.161009E+0	1.189745E+0	1.212520E+0	1.243991E+0	1.100554E+0	1.253105E+0	1.192359E+0	1.245476E+0	1.094087E+0	1.094424E+0	1.262984E+0	1.150188E+0	1.259270E+0	1.110421E+0	1.182867E+0	1.191474E+0	1.169127E+0	1.217110E+0	1.231302E+0	1.235689E+0	1.119193E+0	1.212679E+0	1.225191E+0	1.212419E+0	1.093912E+0	1.097380E+0	1.235490E+0	1.233693E+0	1.184070E+0	1.176731E+0	1.207164E+0	1.217183E+0	1.154877E+0	1.168077E+0	1.208261E+0	1.222314E+0	1.094165E+0	1.256145E+0	1.194732E+0	1.133364E+0	1.107313E+0	1.189263E+0	1.191112E+0	1.166297E+0	1.189021E+0	1.215218E+0	1.255653E+0	1.217729E+0	1.142268E+0	1.202307E+0	1.281615E+0	1.215678E+0	1.030573E+0	1.215235E+0	1.213364E+0	1.246516E+0	1.052893E+0	1.115102E+0	1.202197E+0	1.218011E+0	1.154599E+0	1.116563E+0	1.184261E+0	1.205771E+0	1.130756E+0	1.154831E+0	1.224466E+0	1.158371E+0	1.012436E+0	1.167616E+0	1.221968E+0	1.157994E+0	1.032180E+0	1.105548E+0	1.211383E+0	1.191634E+0	1.182251E+0	1.212000E+0	1.224822E+0	1.245758E+0	1.229312E+0	1.174304E+0	1.238936E+0	1.213613E+0	1.177027E+0	1.171626E+0	1.216123E+0	1.246213E+0	1.194004E+0	1.135487E+0	1.190847E+0	1.205101E+0	1.207398E+0	1.180504E+0	1.202105E+0	1.224220E+0	1.139717E+0	1.185963E+0	1.205807E+0	1.163907E+0	1.081842E+0	1.250209E+0	1.170455E+0	1.215054E+0	1.085038E+0	1.169040E+0	1.184588E+0	1.202854E+0	1.113662E+0	1.203705E+0	1.202625E+0	1.187731E+0	1.185977E+0	1.225595E+0	1.196040E+0	1.214520E+0	1.081529E+0	1.228415E+0	1.101261E+0	1.215545E+0	1.148478E+0	1.146324E+0	1.144884E+0	1.210822E+0	1.194289E+0	1.192976E+0	1.173511E+0	1.211166E+0	1.126060E+0	1.214354E+0	1.202602E+0	1.158776E+0	1.060111E+0	1.262089E+0	1.165006E+0	1.114507E+0
5.542580E+2	1.168587E+0	1.128317E+0	1.174293E+0	1.157700E+0	1.152035E+0	1.138143E+0	1.149763E+0	1.118190E+0	1.071454E+0	1.128078E+0	1.189075E+0	1.130654E+0	1.000756E+0	1.131909E+0	1.132130E+0	1.129297E+0	1.064224E+0	1.140172E+0	1.124728E+0	1.171027E+0	1.165489E+0	1.128919E+0	1.135934E+0	1.140665E+0	1.131582E+0	1.148890E+0	1.126075E+0	1.127604E+0	1.039574E+0	1.142867E+0	1.179956E+0	1.181563E+0	1.102079E+0	1.133076E+0	1.153619E+0	1.124852E+0	1.157804E+0	1.129915E+0	1.174806E+0	1.082489E+0	1.127146E+0	1.181543E+0	1.162085E+0	1.079260E+0	1.061427E+0	1.153701E+0	1.169792E+0	1.157947E+0	1.095466E+0	1.137295E+0	1.122248E+0	1.031955E+0	1.108932E+0	1.126240E+0	1.136491E+0	1.028583E+0	1.177439E+0	1.200148E+0	1.161316E+0	1.037529E+0	1.043231E+0	1.164510E+0	1.146103E+0	1.119152E+0	1.099832E+0	1.117200E+0	1.168059E+0	1.119627E+0	1.164601E+0	1.135000E+0	1.151738E+0	1.044894E+0	1.138582E+0	1.157200E+0	1.144562E+0	1.021022E+0	1.149675E+0	1.154305E+0	1.154194E+0	1.105391E+0	1.142943E+0	1.190689E+0	1.164893E+0	1.112090E+0	1.101041E+0	1.140077E+0	1.155856E+0	9.609030E-1	1.120667E+0	1.124447E+0	1.144637E+0	1.035458E+0	1.057974E+0	1.179212E+0	1.206191E+0	1.122733E+0	1.071251E+0	1.142915E+0	1.173384E+0	1.078535E+0	1.104741E+0	1.178652E+0	1.178635E+0	9.442878E-1	1.159648E+0	1.177326E+0	1.161197E+0	9.640026E-1	1.100976E+0	1.161390E+0	1.103983E+0	1.085576E+0	1.084120E+0	1.113254E+0	1.087342E+0	1.144843E+0	1.121964E+0	1.129283E+0	1.179208E+0	1.070702E+0	1.136590E+0	1.115993E+0	1.170665E+0	1.128748E+0	1.075773E+0	1.126289E+0	1.171804E+0	1.138011E+0	1.136710E+0	1.146165E+0	1.164499E+0	1.077455E+0	1.152601E+0	1.149379E+0	1.148308E+0	9.882543E-1	1.171752E+0	1.179079E+0	1.133082E+0	1.067941E+0	1.167493E+0	1.149594E+0	1.150765E+0	1.091296E+0	1.112973E+0	1.137415E+0	1.149909E+0	1.074988E+0	1.157516E+0	1.169707E+0	1.170460E+0	1.049411E+0	1.125963E+0	1.048262E+0	1.174248E+0	1.070572E+0	1.101933E+0	1.153846E+0	1.177022E+0	1.089533E+0	1.142923E+0	1.126315E+0	1.140099E+0	1.065240E+0	1.139259E+0	1.155431E+0	1.104052E+0	1.022598E+0	1.121726E+0	1.140827E+0	1.186755E+0
5.550190E+2	1.085635E+0	1.087459E+0	1.080056E+0	1.055792E+0	1.067033E+0	1.075356E+0	1.038172E+0	1.057498E+0	9.504659E-1	1.091925E+0	1.117535E+0	1.051935E+0	8.942278E-1	1.055440E+0	1.043927E+0	1.074153E+0	9.805847E-1	1.088702E+0	1.058166E+0	1.043035E+0	1.015991E+0	1.110609E+0	1.081192E+0	1.054555E+0	1.013103E+0	1.062297E+0	1.048372E+0	1.048686E+0	9.688003E-1	1.094010E+0	1.076979E+0	1.103917E+0	9.773694E-1	1.116796E+0	1.047694E+0	1.039385E+0	1.020203E+0	1.058263E+0	1.076715E+0	1.093671E+0	1.072706E+0	1.030157E+0	1.090926E+0	1.093538E+0	9.548189E-1	1.045550E+0	1.051071E+0	1.076296E+0	9.892272E-1	1.053649E+0	1.107450E+0	1.055009E+0	1.065244E+0	1.020178E+0	1.084889E+0	1.055905E+0	1.076756E+0	1.050454E+0	1.068818E+0	1.016727E+0	1.014150E+0	1.051941E+0	1.074634E+0	1.076199E+0	9.882031E-1	1.018077E+0	1.074663E+0	1.036761E+0	1.024602E+0	1.041576E+0	1.063519E+0	1.062725E+0	1.040256E+0	1.072471E+0	1.051782E+0	1.044068E+0	1.060335E+0	1.015483E+0	1.049811E+0	1.088249E+0	1.086930E+0	1.032450E+0	1.062125E+0	9.859886E-1	1.074070E+0	1.029183E+0	1.115117E+0	9.635487E-1	1.045928E+0	1.043851E+0	1.061386E+0	1.016965E+0	1.025127E+0	1.055614E+0	1.087429E+0	1.008935E+0	9.903763E-1	1.056868E+0	1.066801E+0	1.022670E+0	1.017204E+0	1.105059E+0	1.061503E+0	8.826067E-1	1.023135E+0	1.105342E+0	1.049106E+0	9.708732E-1	1.019699E+0	1.068239E+0	1.079484E+0	9.899702E-1	1.064776E+0	1.041222E+0	1.079694E+0	1.006164E+0	1.080473E+0	1.050596E+0	1.083982E+0	1.008096E+0	9.750171E-1	1.038968E+0	1.077759E+0	1.009406E+0	9.999997E-1	1.010936E+0	1.109674E+0	1.072329E+0	1.023929E+0	1.092030E+0	1.123111E+0	9.994829E-1	1.076273E+0	1.094426E+0	1.076463E+0	9.038793E-1	1.127433E+0	1.089412E+0	1.063640E+0	1.001266E+0	1.050941E+0	1.052075E+0	1.114148E+0	1.015147E+0	1.076681E+0	1.084010E+0	1.090071E+0	1.048136E+0	1.038378E+0	1.074905E+0	1.122392E+0	9.743065E-1	1.082532E+0	9.751005E-1	1.078059E+0	9.593614E-1	9.463120E-1	1.042382E+0	1.075112E+0	1.071269E+0	1.048383E+0	1.060241E+0	1.043429E+0	9.979856E-1	1.080323E+0	1.065284E+0	1.039098E+0	8.678606E-1	1.062580E+0	1.035207E+0	1.040137E+0
5.557600E+2	1.004783E+0	1.048403E+0	9.768710E-1	9.869054E-1	9.803750E-1	9.971209E-1	9.917807E-1	1.012089E+0	9.390215E-1	1.019619E+0	9.897411E-1	9.658837E-1	8.992136E-1	1.014816E+0	9.609736E-1	9.999029E-1	8.767016E-1	9.791932E-1	1.030640E+0	9.923946E-1	9.802902E-1	9.682652E-1	1.044530E+0	9.988870E-1	9.253413E-1	1.017287E+0	1.010053E+0	9.813866E-1	8.888326E-1	9.885089E-1	1.000318E+0	1.015050E+0	9.022553E-1	9.946858E-1	9.772624E-1	9.719980E-1	9.631977E-1	9.692704E-1	9.852570E-1	1.012808E+0	9.750336E-1	9.550043E-1	1.024770E+0	1.040271E+0	9.055757E-1	1.037057E+0	1.006414E+0	1.022681E+0	9.567369E-1	9.942314E-1	9.779813E-1	1.012360E+0	9.919097E-1	1.035187E+0	1.004732E+0	1.022211E+0	1.003481E+0	9.808941E-1	9.890979E-1	1.020559E+0	9.559889E-1	1.055823E+0	9.822073E-1	9.751606E-1	9.514892E-1	9.501986E-1	9.964289E-1	9.879061E-1	1.015170E+0	1.008632E+0	9.879008E-1	1.014392E+0	9.766657E-1	1.005371E+0	9.957935E-1	9.942234E-1	9.849018E-1	9.560635E-1	9.953494E-1	1.021759E+0	1.003212E+0	1.041334E+0	9.587768E-1	9.811392E-1	9.748387E-1	9.946500E-1	1.025385E+0	1.017345E+0	9.594951E-1	9.876942E-1	1.029949E+0	9.720569E-1	8.961125E-1	1.008626E+0	1.023264E+0	9.811173E-1	9.450642E-1	9.657919E-1	9.820069E-1	1.001417E+0	9.772302E-1	9.978345E-1	9.616703E-1	9.228979E-1	9.599253E-1	1.042285E+0	9.685082E-1	9.603031E-1	9.587399E-1	1.025086E+0	9.869342E-1	1.022017E+0	9.395823E-1	9.713556E-1	9.769968E-1	9.815792E-1	9.762671E-1	1.008461E+0	1.033127E+0	9.363141E-1	9.352778E-1	1.030239E+0	9.843457E-1	9.529689E-1	8.971311E-1	9.654290E-1	1.023692E+0	1.000824E+0	9.255455E-1	1.016240E+0	1.038767E+0	9.133638E-1	1.025724E+0	9.771572E-1	9.828798E-1	8.456893E-1	9.926799E-1	9.612342E-1	9.774912E-1	9.129359E-1	9.555342E-1	1.007904E+0	1.003782E+0	9.437907E-1	1.024510E+0	9.339165E-1	9.957973E-1	9.556438E-1	1.000334E+0	9.830293E-1	1.012239E+0	8.912954E-1	1.022396E+0	9.480253E-1	9.521569E-1	9.189219E-1	9.825390E-1	9.219566E-1	9.798561E-1	9.702749E-1	9.710813E-1	1.026614E+0	9.958781E-1	8.886253E-1	9.505710E-1	1.017588E+0	9.889754E-1	8.303482E-1	9.972541E-1	9.715798E-1	9.530165E-1
5.560190E+2	9.937585E-1	9.420504E-1	9.947649E-1	1.014233E+0	9.798227E-1	9.657272E-1	9.641959E-1	9.500462E-1	8.627222E-1	9.315946E-1	9.940213E-1	9.893523E-1	8.511635E-1	9.660667E-1	9.473221E-1	9.586536E-1	8.751036E-1	9.731700E-1	9.911025E-1	9.918381E-1	8.960576E-1	9.787942E-1	9.460952E-1	9.710553E-1	9.593494E-1	9.434114E-1	1.008457E+0	9.625047E-1	8.695299E-1	9.646015E-1	9.293776E-1	9.330873E-1	8.984028E-1	9.901067E-1	9.706075E-1	9.665188E-1	9.646717E-1	9.345851E-1	9.563516E-1	9.568910E-1	9.430100E-1	1.022588E+0	9.919698E-1	9.710780E-1	9.106528E-1	9.770359E-1	9.884425E-1	9.661158E-1	8.829900E-1	9.734639E-1	9.631849E-1	9.385867E-1	9.289779E-1	9.551398E-1	9.761757E-1	9.980775E-1	9.341204E-1	9.692080E-1	9.599692E-1	9.559635E-1	9.158774E-1	1.017560E+0	9.676987E-1	1.015674E+0	9.693501E-1	9.593574E-1	9.557946E-1	9.872885E-1	9.565876E-1	9.422532E-1	9.873971E-1	9.857674E-1	9.766653E-1	9.672709E-1	9.435377E-1	9.315152E-1	9.629679E-1	1.006544E+0	9.353416E-1	9.589056E-1	9.616544E-1	1.000802E+0	9.338107E-1	9.380281E-1	9.616085E-1	1.023345E+0	9.892850E-1	9.657547E-1	9.172951E-1	9.648149E-1	9.979305E-1	9.329596E-1	8.827827E-1	9.565303E-1	9.472794E-1	9.912334E-1	9.507996E-1	9.043304E-1	9.902508E-1	1.008704E+0	9.544610E-1	9.841880E-1	9.992312E-1	9.507546E-1	9.285858E-1	9.809030E-1	9.711767E-1	9.814439E-1	9.018458E-1	9.966675E-1	9.559024E-1	9.627312E-1	9.444179E-1	9.729806E-1	9.425814E-1	9.885139E-1	9.790966E-1	9.170823E-1	9.882557E-1	9.854278E-1	9.457357E-1	9.814576E-1	9.736261E-1	1.041740E+0	9.172029E-1	9.548463E-1	9.476472E-1	9.626874E-1	9.075489E-1	9.783454E-1	9.968564E-1	9.581693E-1	9.989328E-1	9.864794E-1	9.507389E-1	9.514006E-1	9.860921E-1	9.232987E-1	9.445976E-1	9.551064E-1	9.297477E-1	9.706164E-1	9.816059E-1	9.235545E-1	9.507910E-1	9.311055E-1	9.591049E-1	9.562408E-1	9.718000E-1	9.941483E-1	1.004729E+0	9.654122E-1	9.862034E-1	9.065479E-1	9.420848E-1	1.001586E+0	9.330463E-1	9.499626E-1	9.839530E-1	9.299850E-1	9.683010E-1	9.758776E-1	1.028276E+0	9.313168E-1	9.553237E-1	9.945259E-1	9.894867E-1	9.487467E-1	1.012261E+0	1.012301E+0	9.636403E-1
5.565030E+2	9.774832E-1	9.799043E-1	9.548029E-1	9.897521E-1	9.312503E-1	9.966227E-1	9.811230E-1	9.779205E-1	8.986918E-1	9.803227E-1	9.554993E-1	9.673502E-1	8.665757E-1	9.698900E-1	9.425971E-1	1.008588E+0	8.814964E-1	1.001095E+0	9.535673E-1	9.417550E-1	9.434735E-1	1.003051E+0	9.948102E-1	9.358288E-1	9.675770E-1	9.732550E-1	9.722659E-1	9.746089E-1	8.938878E-1	9.521284E-1	9.888756E-1	9.736370E-1	8.488079E-1	9.259994E-1	9.462059E-1	9.495359E-1	9.528777E-1	9.482762E-1	1.012267E+0	9.749572E-1	9.675615E-1	1.003124E+0	9.730681E-1	9.672337E-1	8.639484E-1	9.883606E-1	1.019484E+0	9.887414E-1	9.139324E-1	9.561582E-1	9.383477E-1	1.026769E+0	9.711058E-1	9.616442E-1	9.220688E-1	9.825974E-1	9.783094E-1	9.441662E-1	9.405501E-1	9.849771E-1	9.304176E-1	9.643257E-1	9.230978E-1	9.507553E-1	8.840160E-1	9.388861E-1	9.897575E-1	9.693548E-1	9.536092E-1	9.825726E-1	9.652160E-1	9.562030E-1	9.611682E-1	9.695460E-1	9.808629E-1	9.701046E-1	1.001486E+0	1.014431E+0	9.817343E-1	1.000981E+0	9.845416E-1	9.697090E-1	9.831624E-1	9.374887E-1	9.631347E-1	9.406621E-1	9.800022E-1	9.864791E-1	9.223796E-1	1.038651E+0	9.769727E-1	9.958323E-1	9.075385E-1	9.912608E-1	9.275802E-1	9.538070E-1	9.181060E-1	9.551760E-1	9.908396E-1	9.734843E-1	9.539551E-1	9.841876E-1	9.888524E-1	9.243907E-1	9.344288E-1	9.585828E-1	9.514277E-1	9.227792E-1	9.109894E-1	9.877201E-1	9.945559E-1	9.830272E-1	9.600000E-1	9.610649E-1	9.464052E-1	9.563650E-1	9.654219E-1	9.988156E-1	9.623300E-1	9.530445E-1	9.598540E-1	9.835113E-1	9.200273E-1	9.706057E-1	9.011456E-1	9.373844E-1	1.018721E+0	9.891710E-1	9.573404E-1	9.687216E-1	9.701389E-1	9.575873E-1	9.499004E-1	9.359410E-1	9.686999E-1	9.843754E-1	9.537514E-1	9.721545E-1	9.691371E-1	9.784710E-1	9.704893E-1	9.235776E-1	9.599447E-1	9.592332E-1	9.887847E-1	9.204251E-1	1.021765E+0	9.454998E-1	9.462706E-1	9.561105E-1	9.611682E-1	1.007906E+0	8.948872E-1	8.316583E-1	1.000503E+0	9.867182E-1	9.366180E-1	9.157954E-1	9.906111E-1	9.831675E-1	9.577351E-1	9.505096E-1	9.723634E-1	9.418434E-1	9.729092E-1	9.981944E-1	9.787464E-1	1.005601E+0	9.804813E-1	9.410398E-1	9.466412E-1
5.570500E+2	9.942835E-1	9.420504E-1	9.679246E-1	9.829203E-1	1.010180E+0	1.011572E+0	9.993034E-1	1.000400E+0	9.324815E-1	9.897536E-1	1.006862E+0	9.917972E-1	8.597761E-1	1.006690E+0	9.971996E-1	9.786270E-1	9.044036E-1	1.022449E+0	9.650784E-1	1.001298E+0	9.641131E-1	9.733006E-1	9.787394E-1	9.919312E-1	9.428935E-1	9.928247E-1	1.010053E+0	1.008016E+0	8.667724E-1	1.016574E+0	9.802943E-1	1.000815E+0	8.911803E-1	9.834930E-1	9.961177E-1	9.917215E-1	9.705687E-1	1.032250E+0	9.961560E-1	9.835600E-1	1.014530E+0	9.977173E-1	9.536105E-1	9.930439E-1	9.172523E-1	9.951555E-1	9.721043E-1	1.015303E+0	9.500330E-1	1.001154E+0	1.011802E+0	9.708622E-1	9.471814E-1	9.981656E-1	9.741712E-1	1.034048E+0	9.682414E-1	9.675381E-1	9.696785E-1	1.023296E+0	9.228968E-1	9.859525E-1	1.013374E+0	9.995660E-1	9.743112E-1	1.016999E+0	1.032816E+0	1.007696E+0	9.779354E-1	1.012074E+0	1.001007E+0	1.012514E+0	9.723904E-1	1.003096E+0	9.824629E-1	1.015126E+0	9.463831E-1	1.012854E+0	9.933327E-1	1.006176E+0	9.761089E-1	1.004688E+0	9.924523E-1	9.978445E-1	9.387087E-1	9.713038E-1	9.702039E-1	1.030131E+0	9.798320E-1	9.481756E-1	9.979303E-1	9.752267E-1	9.584768E-1	1.019862E+0	1.000751E+0	9.715082E-1	9.525208E-1	9.920532E-1	1.022638E+0	1.017205E+0	9.929160E-1	9.520203E-1	9.745201E-1	1.002487E+0	9.524891E-1	9.730916E-1	1.012811E+0	1.003641E+0	9.094656E-1	1.029822E+0	9.482807E-1	1.032699E+0	9.653732E-1	1.002226E+0	9.983011E-1	9.828402E-1	9.508058E-1	9.846013E-1	9.797802E-1	9.929839E-1	9.582849E-1	1.009699E+0	9.547391E-1	1.002351E+0	9.257338E-1	9.998235E-1	1.001822E+0	9.859932E-1	9.375438E-1	9.879700E-1	9.952850E-1	9.913365E-1	9.478779E-1	9.835358E-1	9.833519E-1	1.002317E+0	9.765096E-1	1.006642E+0	9.936766E-1	9.727725E-1	9.508925E-1	1.030850E+0	9.914047E-1	1.007692E+0	9.842481E-1	9.592129E-1	9.794271E-1	9.413232E-1	9.948273E-1	9.695702E-1	9.872041E-1	1.003953E+0	9.889875E-1	9.197981E-1	1.027196E+0	9.974231E-1	9.396792E-1	9.544441E-1	9.952206E-1	9.552331E-1	9.493923E-1	1.004195E+0	9.619125E-1	1.000910E+0	9.719583E-1	1.007104E+0	1.018640E+0	1.002084E+0	9.743009E-1	1.016119E+0	9.785138E-1
5.575700E+2	1.000583E+0	1.068832E+0	1.046655E+0	1.019357E+0	9.963822E-1	1.066885E+0	1.009335E+0	1.015235E+0	9.352067E-1	9.913256E-1	1.009919E+0	1.024555E+0	9.205192E-1	1.036802E+0	9.872244E-1	1.019879E+0	9.400967E-1	1.027925E+0	1.034644E+0	9.840477E-1	1.000930E+0	1.040583E+0	1.078681E+0	1.036289E+0	9.615432E-1	1.053490E+0	9.791842E-1	1.044327E+0	9.324929E-1	9.983832E-1	1.045514E+0	1.013325E+0	9.542568E-1	1.035390E+0	1.014973E+0	1.030620E+0	9.715520E-1	1.012169E+0	9.530341E-1	1.014959E+0	9.873092E-1	1.023129E+0	1.030329E+0	1.034230E+0	9.609106E-1	1.024034E+0	9.584898E-1	1.049242E+0	9.613787E-1	1.005769E+0	9.964771E-1	9.887286E-1	1.021035E+0	1.045193E+0	1.026274E+0	1.026308E+0	9.861404E-1	1.034873E+0	9.931864E-1	1.040812E+0	9.354320E-1	9.804069E-1	9.994030E-1	1.042520E+0	9.351174E-1	1.054171E+0	1.019474E+0	1.049129E+0	1.049425E+0	1.027808E+0	1.035792E+0	1.016737E+0	9.980407E-1	1.005939E+0	1.002192E+0	1.059076E+0	1.014861E+0	1.023370E+0	1.020059E+0	1.047732E+0	1.008031E+0	1.019125E+0	1.032514E+0	1.039878E+0	1.033868E+0	9.956227E-1	1.026931E+0	1.045565E+0	1.011864E+0	1.050091E+0	1.038100E+0	1.034401E+0	9.380065E-1	1.028545E+0	1.028893E+0	1.057996E+0	9.548145E-1	1.025579E+0	1.024994E+0	1.040279E+0	9.843144E-1	1.030488E+0	9.878644E-1	1.041287E+0	9.891405E-1	1.031126E+0	1.030424E+0	1.033766E+0	9.699160E-1	1.033506E+0	1.030487E+0	1.047654E+0	9.782685E-1	9.821873E-1	1.007587E+0	1.028856E+0	9.998416E-1	1.023691E+0	1.041603E+0	1.028605E+0	1.000639E+0	1.053346E+0	1.062446E+0	1.011170E+0	9.809315E-1	1.003528E+0	1.030152E+0	9.875819E-1	9.891352E-1	1.034286E+0	1.048197E+0	1.027413E+0	9.908452E-1	1.057626E+0	1.007458E+0	1.045959E+0	1.007054E+0	1.037105E+0	1.052676E+0	1.043437E+0	9.967913E-1	9.797947E-1	9.712906E-1	1.011420E+0	9.944550E-1	9.878826E-1	1.013862E+0	1.039781E+0	1.008344E+0	1.056764E+0	1.085342E+0	1.014822E+0	9.784082E-1	8.886896E-1	1.011583E+0	1.061057E+0	9.835588E-1	1.003174E+0	1.014168E+0	1.019160E+0	1.014459E+0	1.026023E+0	1.055448E+0	1.002080E+0	1.002851E+0	1.031215E+0	1.029380E+0	9.786388E-1	9.884256E-1	1.056840E+0	1.106010E+0
5.580230E+2	1.052559E+0	1.036987E+0	1.013254E+0	9.931683E-1	1.029499E+0	1.006090E+0	1.057607E+0	1.005796E+0	1.002241E+0	9.949936E-1	1.001358E+0	1.012821E+0	1.014355E+0	1.048751E+0	9.919495E-1	1.035510E+0	9.736595E-1	1.024092E+0	1.029139E+0	1.020219E+0	1.050576E+0	9.993899E-1	1.003348E+0	9.849721E-1	9.719648E-1	1.017286E+0	1.065936E+0	9.983324E-1	9.311141E-1	9.895478E-1	1.000890E+0	1.041795E+0	9.552203E-1	1.050653E+0	1.047139E+0	1.027880E+0	9.877688E-1	9.980222E-1	1.040228E+0	1.038186E+0	9.835728E-1	1.018263E+0	1.044228E+0	1.039173E+0	9.522807E-1	1.030828E+0	1.023297E+0	1.058586E+0	9.670512E-1	1.024805E+0	1.047208E+0	1.016970E+0	1.007512E+0	1.008672E+0	9.992208E-1	1.013558E+0	1.009633E+0	1.004267E+0	1.017716E+0	1.033149E+0	9.188856E-1	1.021996E+0	9.644745E-1	1.007375E+0	9.380940E-1	9.959900E-1	1.012803E+0	1.000893E+0	1.017155E+0	1.014532E+0	1.014116E+0	9.815429E-1	9.943001E-1	9.985470E-1	1.041650E+0	1.039245E+0	9.913214E-1	1.011276E+0	1.018042E+0	1.019161E+0	9.887572E-1	9.991364E-1	1.014515E+0	9.989223E-1	1.017584E+0	1.001458E+0	1.055294E+0	9.988253E-1	9.523768E-1	1.005893E+0	9.822111E-1	1.058704E+0	9.403857E-1	9.994327E-1	1.045778E+0	1.030684E+0	9.513734E-1	1.004904E+0	1.047370E+0	9.959517E-1	9.944342E-1	1.076790E+0	1.065457E+0	9.950256E-1	1.009325E+0	1.016617E+0	1.068855E+0	9.893712E-1	9.536603E-1	1.043505E+0	1.033209E+0	1.010802E+0	1.022866E+0	1.058011E+0	1.040909E+0	1.056593E+0	1.044637E+0	1.040443E+0	9.917462E-1	9.919043E-1	9.948876E-1	1.025104E+0	9.925133E-1	1.058201E+0	9.949818E-1	9.897700E-1	1.031147E+0	1.024659E+0	9.537409E-1	1.011429E+0	9.759013E-1	1.020431E+0	1.001966E+0	1.021807E+0	1.013602E+0	1.022684E+0	1.010647E+0	1.052050E+0	9.785348E-1	1.041158E+0	9.740998E-1	1.016508E+0	1.024411E+0	1.014615E+0	1.007498E+0	1.008120E+0	1.028539E+0	1.026057E+0	1.006841E+0	1.012289E+0	1.021753E+0	1.071646E+0	1.012374E+0	9.451450E-1	1.007555E+0	1.001586E+0	9.871311E-1	1.000373E+0	1.012632E+0	1.059987E+0	9.427197E-1	1.012454E+0	1.040293E+0	1.054128E+0	1.005228E+0	1.029118E+0	1.030914E+0	1.039597E+0	1.033447E+0	9.843056E-1	1.089008E+0
5.585160E+2	9.895584E-1	1.005141E+0	9.893963E-1	1.034728E+0	9.958294E-1	1.015060E+0	9.967959E-1	9.797189E-1	1.034940E+0	1.041102E+0	1.031932E+0	1.023577E+0	1.051073E+0	9.751472E-1	9.914247E-1	1.024217E+0	1.044513E+0	1.019164E+0	1.010621E+0	9.985158E-1	1.012644E+0	1.014951E+0	1.012388E+0	1.034116E+0	1.017491E+0	1.000163E+0	9.903610E-1	1.008500E+0	1.054281E+0	9.900674E-1	1.011760E+0	9.809704E-1	1.031780E+0	9.804399E-1	1.032721E+0	1.041029E+0	1.016764E+0	1.010802E+0	1.029801E+0	9.999042E-1	9.963821E-1	9.809560E-1	1.020878E+0	1.030386E+0	9.979700E-1	1.011576E+0	1.044536E+0	1.002514E+0	9.918057E-1	1.027690E+0	9.790378E-1	1.023887E+0	1.050681E+0	9.976652E-1	1.014250E+0	1.008550E+0	1.037041E+0	1.007605E+0	1.055021E+0	9.658173E-1	9.630083E-1	1.029759E+0	1.025196E+0	9.702796E-1	9.916772E-1	9.782120E-1	9.988544E-1	9.984197E-1	9.660203E-1	1.025841E+0	1.021677E+0	1.014390E+0	1.013537E+0	1.025273E+0	1.030453E+0	9.979750E-1	9.533376E-1	1.020216E+0	1.011989E+0	1.015526E+0	1.033327E+0	1.015238E+0	9.872265E-1	1.011316E+0	1.009442E+0	1.033074E+0	9.815497E-1	1.016021E+0	9.579693E-1	1.031372E+0	9.833760E-1	9.783968E-1	9.651419E-1	9.938142E-1	1.030581E+0	1.017028E+0	9.312983E-1	1.004904E+0	1.000850E+0	1.009310E+0	9.686288E-1	9.895485E-1	9.918182E-1	9.995026E-1	9.832976E-1	9.965279E-1	1.011743E+0	1.008398E+0	9.587403E-1	9.771952E-1	1.010888E+0	9.830272E-1	9.530145E-1	9.870618E-1	9.633392E-1	9.929260E-1	1.032377E+0	1.031813E+0	1.001717E+0	1.016191E+0	1.003253E+0	9.937813E-1	1.006296E+0	1.022928E+0	9.417915E-1	1.031043E+0	1.006295E+0	1.037373E+0	9.873355E-1	9.693238E-1	1.019384E+0	9.785348E-1	1.003989E+0	9.629277E-1	1.012657E+0	1.016380E+0	1.018433E+0	9.681310E-1	1.020305E+0	1.016653E+0	9.627541E-1	1.034292E+0	9.908888E-1	1.006094E+0	9.785770E-1	1.025546E+0	1.007088E+0	1.005768E+0	9.998327E-1	1.018141E+0	1.001724E+0	1.021741E+0	9.906577E-1	8.996352E-1	1.025180E+0	9.968280E-1	9.294747E-1	9.690066E-1	1.014681E+0	1.014326E+0	9.421634E-1	1.010685E+0	9.707956E-1	9.658209E-1	1.034695E+0	1.002388E+0	1.038585E+0	1.009703E+0	9.831298E-1	1.007211E+0	9.381427E-1
5.590100E+2	9.927083E-1	9.841106E-1	9.977472E-1	1.053515E+0	1.021220E+0	1.007585E+0	9.616885E-1	9.873618E-1	1.018590E+0	9.646034E-1	9.903525E-1	1.010375E+0	1.043365E+0	9.837504E-1	1.011901E+0	1.015536E+0	1.000829E+0	9.764557E-1	1.004115E+0	9.718049E-1	9.920046E-1	9.797078E-1	9.541308E-1	9.788832E-1	1.033947E+0	1.012394E+0	1.012182E+0	9.750927E-1	1.063016E+0	1.013975E+0	1.012332E+0	1.024543E+0	1.039484E+0	1.001300E+0	1.001664E+0	1.002679E+0	1.016272E+0	9.720091E-1	9.762539E-1	9.930227E-1	1.007057E+0	1.001502E+0	1.004757E+0	9.650370E-1	1.012184E+0	1.007047E+0	9.258136E-1	9.690669E-1	1.078962E+0	9.913471E-1	1.017615E+0	1.034837E+0	9.919091E-1	9.536393E-1	1.021764E+0	1.006730E+0	1.006277E+0	9.959191E-1	9.972747E-1	1.004684E+0	1.068301E+0	9.953786E-1	9.838197E-1	1.021531E+0	1.051212E+0	9.959898E-1	9.879378E-1	1.054695E+0	9.699922E-1	9.712622E-1	9.909258E-1	1.009229E+0	1.024225E+0	1.005371E+0	1.006458E+0	9.845761E-1	1.024490E+0	9.665802E-1	9.983753E-1	9.957869E-1	1.002610E+0	9.325089E-1	9.936136E-1	1.011856E+0	9.794188E-1	1.006810E+0	9.516386E-1	9.719251E-1	1.028133E+0	9.710545E-1	1.001423E+0	1.017494E+0	9.937065E-1	1.017819E+0	9.562849E-1	9.710019E-1	9.674338E-1	1.012727E+0	1.003795E+0	9.540537E-1	9.939279E-1	9.910097E-1	1.019493E+0	1.006466E+0	9.291173E-1	1.031125E+0	9.770484E-1	1.007869E+0	9.587402E-1	9.650909E-1	1.005989E+0	9.851636E-1	9.648357E-1	9.816456E-1	1.020151E+0	9.841005E-1	9.668371E-1	9.754634E-1	9.757918E-1	1.017811E+0	9.744944E-1	9.742684E-1	9.853673E-1	9.741325E-1	8.750516E-1	1.000353E+0	9.998342E-1	9.515642E-1	9.675383E-1	9.566918E-1	9.842836E-1	1.004138E+0	1.017130E+0	9.854982E-1	1.011239E+0	9.596442E-1	1.004059E+0	9.807764E-1	9.633939E-1	1.017793E+0	9.978229E-1	9.654531E-1	9.733544E-1	1.005029E+0	9.780105E-1	1.001374E+0	9.799910E-1	1.006365E+0	9.928247E-1	9.818593E-1	9.796939E-1	1.018283E+0	9.700557E-1	9.537857E-1	9.984892E-1	9.575775E-1	9.662113E-1	1.002614E+0	1.002390E+0	1.003044E+0	1.000000E+0	9.876765E-1	9.864717E-1	9.728388E-1	9.752858E-1	9.997669E-1	9.746551E-1	9.833278E-1	9.584106E-1	1.047932E+0	9.338927E-1
5.595390E+2	9.921831E-1	9.738958E-1	1.004904E+0	9.738112E-1	9.671278E-1	9.712089E-1	9.967954E-1	9.959035E-1	1.001150E+0	9.923739E-1	9.432706E-1	1.008909E+0	1.043368E+0	9.866179E-1	1.033427E+0	9.886142E-1	1.042382E+0	9.348422E-1	9.745867E-1	9.935078E-1	9.641129E-1	9.815402E-1	9.717084E-1	1.020198E+0	1.025171E+0	9.766807E-1	9.983442E-1	1.005110E+0	1.043710E+0	1.009817E+0	9.911643E-1	1.015051E+0	1.043335E+0	9.875626E-1	1.009428E+0	9.802162E-1	9.853120E-1	9.720100E-1	1.008950E+0	9.904417E-1	9.878428E-1	9.679804E-1	9.702880E-1	9.589972E-1	1.012184E+0	9.747715E-1	1.008048E+0	1.006941E+0	9.902588E-1	9.746177E-1	9.816806E-1	1.004867E+0	9.919094E-1	9.786539E-1	9.551339E-1	9.821415E-1	1.007396E+0	1.024856E+0	9.901200E-1	9.587009E-1	1.026184E+0	9.720889E-1	9.983283E-1	1.006887E+0	1.045259E+0	9.555861E-1	9.636794E-1	9.860508E-1	9.913399E-1	9.835554E-1	9.314402E-1	1.008291E+0	9.980404E-1	9.689769E-1	1.005392E+0	9.969035E-1	1.000416E+0	9.607956E-1	9.444183E-1	9.547500E-1	9.923708E-1	9.935840E-1	1.017418E+0	9.746720E-1	9.946850E-1	9.888124E-1	9.794867E-1	9.803039E-1	1.024576E+0	9.788540E-1	1.003752E+0	9.778684E-1	1.074635E+0	9.933039E-1	9.810511E-1	9.770713E-1	1.048881E+0	9.808784E-1	9.425540E-1	1.009310E+0	9.939280E-1	1.001733E+0	9.651300E-1	9.776157E-1	1.018886E+0	9.596986E-1	9.450226E-1	9.777439E-1	1.056275E+0	9.845626E-1	9.820341E-1	9.509806E-1	1.027164E+0	1.000602E+0	9.551458E-1	9.336718E-1	9.998423E-1	1.001861E+0	1.001717E+0	9.481877E-1	1.021032E+0	9.809439E-1	1.007316E+0	9.882426E-1	9.989965E-1	1.026281E+0	9.660368E-1	9.918192E-1	9.831362E-1	9.837591E-1	9.889986E-1	1.006465E+0	9.468672E-1	1.010031E+0	9.928054E-1	9.935883E-1	1.015438E+0	9.974455E-1	9.801014E-1	9.619455E-1	9.673947E-1	1.011345E+0	9.908886E-1	9.576354E-1	9.763088E-1	1.019363E+0	1.005959E+0	1.001591E+0	9.552815E-1	9.701545E-1	9.726843E-1	9.318128E-1	9.605900E-1	1.062664E+0	9.853950E-1	9.968280E-1	8.906967E-1	9.785290E-1	9.813930E-1	9.713494E-1	9.660764E-1	9.918062E-1	9.948328E-1	9.909682E-1	9.895441E-1	9.615063E-1	1.001250E+0	1.010876E+0	9.848943E-1	1.033934E+0	9.763892E-1
5.600180E+2	1.005309E+0	1.007544E+0	9.959576E-1	1.002847E+0	9.985896E-1	9.657275E-1	1.000557E+0	1.007144E+0	1.017500E+0	1.015952E+0	9.683402E-1	9.678397E-1	1.013448E+0	9.861406E-1	9.998250E-1	9.612583E-1	9.859126E-1	9.819311E-1	9.795919E-1	9.567797E-1	9.858687E-1	1.042872E+0	9.762286E-1	9.662712E-1	1.032850E+0	9.781475E-1	9.616214E-1	1.001237E+0	1.043251E+0	1.000982E+0	9.785780E-1	9.611261E-1	1.021185E+0	9.814577E-1	9.722712E-1	9.829548E-1	1.019712E+0	1.001217E+0	9.790985E-1	9.869995E-1	1.009192E+0	9.944727E-1	9.930819E-1	9.870035E-1	1.054826E+0	1.003083E+0	1.033099E+0	9.641482E-1	1.027390E+0	9.936549E-1	9.885503E-1	9.789312E-1	9.872286E-1	9.981659E-1	1.050322E+0	9.543652E-1	9.570542E-1	9.769989E-1	9.783662E-1	9.920925E-1	1.043232E+0	1.021996E+0	1.014986E+0	9.805302E-1	1.024419E+0	1.033160E+0	9.794476E-1	9.359605E-1	9.888571E-1	9.550370E-1	1.020669E+0	9.585481E-1	1.004453E+0	9.911542E-1	9.616671E-1	1.005479E+0	1.034655E+0	1.000759E+0	9.686234E-1	9.853975E-1	9.893594E-1	1.013017E+0	9.471650E-1	9.983833E-1	1.026744E+0	9.635218E-1	9.995986E-1	9.944152E-1	9.900005E-1	9.975730E-1	9.944370E-1	9.942472E-1	1.050833E+0	9.442727E-1	9.849904E-1	9.790944E-1	1.043719E+0	9.847898E-1	9.749410E-1	9.668052E-1	1.000506E+0	9.437350E-1	9.883582E-1	9.681645E-1	1.019948E+0	1.019406E+0	9.781157E-1	9.671740E-1	1.074560E+0	1.001403E+0	9.863894E-1	9.953115E-1	1.021791E+0	9.886866E-1	1.005402E+0	9.569949E-1	1.018231E+0	9.505880E-1	1.015179E+0	9.956822E-1	1.055543E+0	9.881327E-1	9.899611E-1	9.935329E-1	1.096346E+0	9.649004E-1	9.963563E-1	1.028897E+0	1.092918E+0	1.051729E+0	9.979048E-1	1.010538E+0	1.016624E+0	9.653808E-1	9.776803E-1	9.688579E-1	1.032207E+0	1.002043E+0	9.983754E-1	9.590957E-1	1.029281E+0	9.453760E-1	1.032663E+0	1.015147E+0	1.003528E+0	1.000812E+0	1.027974E+0	9.580306E-1	9.873182E-1	1.014630E+0	9.947149E-1	9.891295E-1	1.042441E+0	1.137554E+0	9.692798E-1	9.968282E-1	1.077954E+0	9.953322E-1	1.019802E+0	9.987467E-1	1.051719E+0	9.864967E-1	9.953553E-1	1.004418E+0	9.885932E-1	1.018111E+0	9.521507E-1	9.716054E-1	1.014909E+0	9.639452E-1	1.014639E+0
5.605150E+2	1.004783E+0	9.829087E-1	1.018622E+0	9.698264E-1	1.008525E+0	9.592492E-1	9.930344E-1	9.896091E-1	1.032760E+0	1.027478E+0	1.016645E+0	9.908189E-1	1.027500E+0	1.013381E+0	9.625481E-1	1.005981E+0	1.059962E+0	1.003285E+0	9.835957E-1	1.008533E+0	9.819633E-1	9.888622E-1	9.958147E-1	1.002803E+0	1.012006E+0	9.835278E-1	9.930221E-1	9.901016E-1	1.027165E+0	1.010336E+0	9.802942E-1	9.675995E-1	1.024557E+0	9.616143E-1	9.589606E-1	9.856949E-1	1.042317E+0	1.018103E+0	9.895220E-1	9.891520E-1	1.013462E+0	9.836598E-1	9.908584E-1	1.016108E+0	1.039089E+0	9.753371E-1	1.006414E+0	9.543110E-1	1.009855E+0	9.994229E-1	9.605426E-1	9.668281E-1	1.005432E+0	9.911617E-1	9.751733E-1	9.816860E-1	1.045432E+0	1.003710E+0	9.885869E-1	9.773129E-1	1.080334E+0	1.020887E+0	9.972537E-1	9.839467E-1	1.040296E+0	9.512763E-1	9.915769E-1	1.009551E+0	1.012687E+0	1.019449E+0	1.014620E+0	1.015329E+0	9.633061E-1	9.991154E-1	1.005392E+0	9.663530E-1	1.049099E+0	1.009173E+0	1.040230E+0	9.739695E-1	9.815300E-1	1.013572E+0	1.024966E+0	9.967670E-1	9.890877E-1	9.854092E-1	1.005787E+0	9.758955E-1	1.015422E+0	1.004853E+0	9.682398E-1	9.863217E-1	1.044644E+0	1.008115E+0	1.012571E+0	9.917395E-1	1.084443E+0	1.003787E+0	9.702305E-1	1.003239E+0	1.013662E+0	1.026589E+0	9.947832E-1	1.016913E+0	1.029510E+0	1.008246E+0	9.882572E-1	1.031123E+0	1.075577E+0	9.619333E-1	1.007622E+0	1.013472E+0	1.041672E+0	1.008184E+0	1.005402E+0	1.007425E+0	1.018705E+0	1.008461E+0	9.962327E-1	9.870467E-1	1.013188E+0	1.000455E+0	1.022631E+0	9.753088E-1	1.113406E+0	9.744243E-1	9.884027E-1	9.965857E-1	1.071322E+0	1.002406E+0	9.947610E-1	9.796989E-1	1.040383E+0	1.024261E+0	9.932782E-1	1.020259E+0	9.818996E-1	9.922725E-1	1.036490E+0	1.024061E+0	1.056098E+0	1.021097E+0	1.023895E+0	9.895863E-1	1.053431E+0	1.014304E+0	9.794270E-1	1.024266E+0	1.042383E+0	1.004681E+0	9.781916E-1	9.767766E-1	1.025181E+0	1.125456E+0	9.773375E-1	1.007533E+0	1.099891E+0	1.009896E+0	1.008023E+0	9.928373E-1	1.047827E+0	9.711580E-1	1.006329E+0	9.722533E-1	9.900201E-1	9.594097E-1	9.495941E-1	1.005014E+0	1.025503E+0	9.664904E-1	9.976392E-1
5.609950E+2	9.680322E-1	9.985312E-1	9.655387E-1	9.698266E-1	9.726471E-1	9.966225E-1	9.848842E-1	1.018832E+0	1.025130E+0	9.824183E-1	1.031320E+0	9.693060E-1	1.026595E+0	9.627210E-1	1.024501E+0	9.703770E-1	1.048242E+0	1.009856E+0	1.018629E+0	1.065294E+0	1.047787E+0	9.787936E-1	1.028962E+0	9.845371E-1	1.002133E+0	9.854858E-1	9.892967E-1	9.692830E-1	1.038197E+0	9.703184E-1	9.991731E-1	9.947752E-1	1.039001E+0	1.018090E+0	9.667254E-1	9.572058E-1	9.897346E-1	9.834186E-1	1.026958E+0	1.003775E+0	1.000652E+0	1.032320E+0	9.919694E-1	9.760205E-1	1.053303E+0	9.781686E-1	1.028198E+0	9.798881E-1	1.023264E+0	9.815401E-1	1.017086E+0	1.014089E+0	9.971109E-1	1.028684E+0	9.836904E-1	9.926136E-1	9.827845E-1	9.842329E-1	1.010051E+0	1.004136E+0	1.041727E+0	9.715346E-1	1.003164E+0	9.873635E-1	9.996137E-1	1.018615E+0	1.013410E+0	9.576046E-1	1.026588E+0	9.904400E-1	9.697529E-1	9.834198E-1	1.031706E+0	1.002527E+0	9.643332E-1	9.352667E-1	9.854366E-1	9.949754E-1	1.004930E+0	1.001501E+0	1.027906E+0	1.009131E+0	9.901294E-1	9.703609E-1	1.010460E+0	1.053987E+0	1.029510E+0	9.869185E-1	1.039827E+0	1.012133E+0	1.030531E+0	9.773399E-1	1.034171E+0	9.948359E-1	9.590996E-1	1.003877E+0	1.065515E+0	9.903773E-1	1.012628E+0	1.003845E+0	1.057683E+0	9.880864E-1	1.012575E+0	9.925384E-1	1.068286E+0	9.641628E-1	9.877232E-1	9.809150E-1	1.043066E+0	1.002982E+0	9.951002E-1	9.808906E-1	1.025015E+0	9.913947E-1	1.003763E+0	1.056593E+0	9.687232E-1	9.830780E-1	9.962332E-1	1.021589E+0	9.786775E-1	9.742685E-1	9.787309E-1	9.741328E-1	1.072761E+0	1.009877E+0	9.799532E-1	9.955268E-1	1.017331E+0	1.002406E+0	9.952852E-1	9.814447E-1	1.034317E+0	9.889330E-1	1.007929E+0	9.703122E-1	9.537518E-1	9.635336E-1	9.764467E-1	9.630848E-1	1.064865E+0	9.952837E-1	1.001204E+0	9.927819E-1	1.023943E+0	9.833858E-1	9.777330E-1	9.968174E-1	1.012348E+0	9.719108E-1	9.786926E-1	9.718357E-1	1.031305E+0	1.067273E+0	9.979843E-1	9.843396E-1	1.125403E+0	1.086632E+0	9.516899E-1	9.853162E-1	1.085643E+0	1.009505E+0	9.885619E-1	1.036583E+0	1.041825E+0	9.913812E-1	1.004830E+0	9.991536E-1	1.036979E+0	9.232241E-1	9.657659E-1
