Photon Energy (eV)	#1	#2	#3	#4	#5	#6	#7	#8	#9	#10	#11	#12	#13	#14	#15	#16	#17	#18	#19	#20	#21	#22	#23	#24	#25	#26	#27	#28	#29	#30	#31	#32	#33	#34	#35	#36	#37	#38	#39	#40	#41	#42	#43	#44	#45	#46	#47	#48	#49	#50	#51	#52	#53	#54	#55	#56	#57	#58	#59	#60	#61	#62	#63	#64	#65	#66	#67	#68	#69	#70	#71	#72	#73	#74	#75	#76	#77	#78	#79	#80	#81	#82	#83	#84	#85	#86	#87	#88	#89	#90	#91	#92	#93	#94	#95	#96	#97	#98	#99	#100	#101	#102	#103	#104	#105	#106	#107	#108	#109	#110	#111	#112	#113	#114	#115	#116	#117	#118	#119	#120	#121	#122	#123	#124	#125	#126	#127	#128	#129	#130	#131	#132	#133	#134	#135	#136	#137	#138	#139	#140	#141	#142	#143	#144	#145	#146	#147	#148	#149	#150	#151	#152	#153	#154	#155	#156	#157	#158	#159	#160	#161	#162	#163	#164	#165	#166	#167	#168	#169	#170	
5.300220E+2	-4.655470E-3	-5.556194E-3	-6.033110E-3	-2.806578E-4	-9.274980E-3	-4.853688E-3	3.005352E-3	-1.462053E-3	-1.007234E-2	-5.831361E-3	-3.154636E-4	-7.603565E-3	-6.293705E-4	-1.201017E-3	3.606137E-3	-4.942799E-3	-7.874587E-3	-4.595741E-3	-1.061044E-2	-2.363639E-3	-8.233477E-3	-7.949935E-3	-1.067850E-3	-1.383576E-3	-1.024315E-2	3.308535E-3	-4.120377E-3	-8.343669E-3	-1.054749E-2	-1.133010E-2	-3.731671E-3	-2.193659E-3	-1.155063E-2	-3.638700E-3	-1.101691E-2	4.621368E-4	-3.928345E-3	-1.307434E-2	-5.088622E-3	-2.881701E-3	-6.128681E-4	-4.673640E-3	4.917178E-3	-6.375611E-3	-1.215722E-2	-8.859092E-3	3.067272E-4	-4.027426E-3	-2.716912E-3	-1.237599E-2	-3.791667E-3	-4.447629E-3	-6.202139E-3	-3.386362E-3	-3.049315E-3	-8.094441E-3	8.774238E-4	-1.260028E-2	-8.221743E-3	-1.090125E-2	-1.852108E-3	-2.960124E-3	-8.065610E-3	-1.044249E-2	-1.127783E-2	-6.668145E-3	3.809383E-3	-1.106194E-2	-1.317071E-2	-6.468979E-3	6.690084E-3	-6.775648E-3	-5.638183E-3	-8.564035E-3	-2.071247E-3	-4.681601E-3	-7.437021E-3	-6.378350E-3	-5.267365E-3	-5.321275E-3	-5.926978E-3	-3.143701E-3	9.451632E-4	-6.283228E-5	-4.450644E-3	-2.991400E-4	-5.876338E-3	-7.624051E-3	-1.271693E-2	-2.662660E-3	-1.900345E-3	-5.339474E-3	-1.832954E-3	-8.727884E-4	-3.708074E-3	-1.383189E-2	-3.668071E-3	-9.240837E-3	-5.279238E-3	-1.038590E-2	-5.057620E-3	-1.061029E-2	1.204493E-3	-1.118490E-2	-1.179591E-2	-5.450178E-3	1.486909E-3	-8.751057E-3	-2.474355E-3	3.696260E-3	8.879361E-4	-8.392186E-3	-6.958837E-3	-8.763487E-3	-1.161169E-2	-6.008518E-3	-5.537944E-3	4.302767E-3	-4.249310E-3	-4.934609E-3	-4.660945E-3	1.230033E-3	-2.425044E-3	-9.944202E-3	-3.775409E-3	-6.109939E-3	-6.029313E-3	-9.138544E-3	-7.579625E-3	-6.811364E-3	-2.169818E-3	6.054621E-3	-4.667697E-3	-7.282052E-3	-2.844943E-3	-5.895585E-3	-8.186415E-3	-8.823912E-3	-1.391918E-2	-7.405939E-3	-9.445991E-3	-1.173471E-2	-1.245437E-2	-7.158961E-3	-1.712744E-2	-6.418553E-3	-4.098108E-3	-7.507502E-4	-9.052256E-3	-3.986302E-3	-2.765876E-3	-2.213047E-3	1.341451E-3	-3.763921E-3	-4.552499E-3	-4.036769E-3	-5.541712E-3	-1.332498E-2	-9.347108E-3	-4.244340E-3	2.623103E-3	-4.397976E-3	-2.540600E-3	-9.157562E-3	-1.465356E-3	-8.606133E-3	-7.853026E-3	-2.906058E-3	-1.273163E-2	-1.050922E-3
5.305180E+2	-8.148197E-3	-1.218125E-2	5.614549E-3	-3.041092E-3	6.748882E-4	1.591870E-3	-2.800063E-3	-5.243246E-3	-1.052447E-2	-1.632269E-3	-7.250743E-3	-3.754961E-3	-4.060334E-3	-1.079462E-3	-9.047792E-3	-3.957445E-3	-8.867334E-3	-1.194292E-3	-8.720874E-3	-9.392104E-3	-8.133163E-3	-9.635283E-3	-2.951180E-3	-7.141696E-3	-8.072921E-3	-8.137858E-4	-8.821526E-3	-1.460853E-2	5.608026E-3	-5.454057E-3	-1.017667E-2	-1.262532E-2	-3.846071E-3	-9.018267E-3	-2.576042E-3	-9.906161E-3	-6.745137E-3	1.791729E-3	-3.502748E-3	-5.253573E-3	-4.918317E-3	-1.084856E-2	-1.448104E-2	-9.519128E-3	-1.151245E-5	6.980496E-3	-7.184539E-3	-7.955927E-4	-2.077411E-3	-2.295168E-3	-9.970071E-3	-7.973116E-3	-1.007369E-2	-4.184940E-3	-3.857146E-3	-6.852136E-3	-5.698957E-3	-6.333328E-3	-4.116435E-3	-4.901060E-3	-9.138920E-3	-8.197753E-3	-1.083830E-2	-4.922405E-3	-2.593239E-3	1.927611E-4	-6.797549E-3	-7.428313E-3	-7.623482E-3	-7.296819E-3	-3.128198E-4	-4.001405E-3	-4.493540E-3	-5.675065E-3	2.987618E-3	-8.557001E-3	-1.370802E-2	-6.744021E-3	-4.443548E-3	5.737510E-3	4.855073E-4	1.209772E-3	-3.690178E-3	-9.487521E-4	-3.331771E-3	-7.468918E-3	-9.460699E-3	-3.450049E-3	-5.826716E-3	-3.999261E-3	-9.432180E-3	-6.875914E-3	2.079447E-3	-4.726867E-3	-6.790382E-3	-4.820438E-3	-5.857762E-4	-6.899678E-3	1.428793E-3	6.553220E-4	-8.505343E-3	-1.279850E-5	-1.290452E-2	-7.841789E-3	-5.451578E-3	-9.062639E-3	-1.374853E-2	-3.776614E-3	-8.696562E-3	-5.894826E-3	-7.608575E-3	-3.207712E-3	-1.271174E-2	-6.040003E-4	-1.210777E-2	-6.105229E-4	-2.006107E-3	-9.927748E-3	-6.537324E-3	-4.811048E-3	-5.541064E-3	-3.884285E-3	-9.216445E-3	-6.255795E-3	-1.015591E-2	-1.416626E-3	-7.230159E-4	-2.406988E-3	-9.780898E-3	-3.234240E-4	-9.110470E-4	3.383270E-3	-1.231538E-2	-5.693093E-3	-5.618803E-3	-8.958348E-3	-1.825243E-3	-3.740665E-3	2.091401E-3	1.267886E-4	-3.501715E-3	-2.551130E-3	-8.554880E-3	-3.762207E-3	-2.077415E-3	-1.664849E-2	-1.237697E-2	-4.685155E-3	-4.151698E-3	-1.317194E-2	2.820204E-3	-9.420685E-3	4.152485E-4	-1.019842E-2	-4.960463E-3	-8.067560E-3	-1.433990E-2	-7.345580E-3	-5.531270E-3	-2.139188E-3	-5.195119E-3	-6.936507E-3	-4.110179E-3	-8.389815E-4	-8.487550E-4	1.421875E-3	4.811241E-3	-6.687641E-3	-6.996818E-3	-1.213483E-2
5.310250E+2	2.781521E-3	-1.646604E-4	-7.062580E-3	3.979109E-3	-3.370901E-3	-1.048895E-2	-8.103318E-3	-7.096581E-3	3.859041E-3	-2.040365E-3	-1.150747E-2	-1.510824E-3	-3.455183E-3	-7.324924E-3	-1.190999E-2	-8.040545E-4	-1.637771E-3	-1.079228E-3	-1.480682E-3	-3.253161E-3	-4.286185E-3	-1.836952E-3	-4.350611E-3	-2.620363E-3	-7.008438E-4	-6.391110E-3	-6.302756E-3	2.486144E-3	-1.537824E-3	1.492728E-3	-2.517894E-3	-6.587358E-4	-5.259453E-3	-3.420056E-3	-5.803847E-4	1.887610E-3	-1.234037E-3	-6.877361E-3	-6.467987E-3	-3.374104E-3	-4.304257E-3	3.535013E-3	-3.524744E-3	-1.643287E-3	5.040940E-3	1.666093E-3	-1.942259E-3	-2.423625E-3	-1.017375E-2	-3.244095E-3	3.537551E-3	1.176649E-3	-1.933848E-3	-9.318830E-3	-7.160203E-3	4.227525E-4	-1.966195E-3	-5.946134E-4	-5.927822E-3	-5.373769E-3	-1.275757E-2	-7.301658E-4	-4.078296E-3	-1.211415E-3	-7.257911E-3	-1.381991E-3	-3.283138E-3	6.424883E-3	-5.913241E-4	-3.753527E-3	1.850774E-3	-4.265664E-3	4.593418E-3	-1.715785E-3	-8.005777E-3	-7.775466E-3	1.203779E-2	-5.094314E-3	-9.734397E-3	-6.006206E-3	-6.287327E-3	-3.409952E-3	-2.539474E-3	3.481239E-4	-4.177131E-3	-9.605881E-4	8.967810E-6	-9.462441E-3	-2.257802E-3	8.244738E-3	-5.803340E-3	-4.214455E-3	8.096140E-4	-1.559522E-3	7.995640E-3	1.968090E-3	7.321166E-4	-5.658021E-3	-2.591155E-3	-1.740172E-4	2.916501E-3	1.593202E-3	-3.621188E-3	6.862925E-5	-1.646255E-3	-1.404283E-3	2.388584E-3	-5.874730E-3	-5.087611E-5	-4.193462E-3	-1.541159E-3	-5.500115E-3	-5.601687E-3	-1.932188E-3	1.710983E-3	-4.005103E-3	-9.628745E-3	-6.302566E-3	-3.372313E-3	-1.571695E-3	4.196206E-3	-6.660802E-3	-1.365276E-3	-4.391375E-3	-4.546984E-3	-4.361432E-3	4.437269E-3	3.334527E-3	-8.520294E-3	-8.922487E-3	-1.928189E-3	-4.389453E-3	-1.009204E-3	8.643461E-3	3.178514E-3	1.564693E-4	2.264641E-3	-3.086707E-3	2.204773E-3	-8.897506E-3	-1.260961E-3	-4.579241E-3	1.317522E-3	3.871315E-3	-5.978362E-3	-7.287379E-6	-1.168857E-2	-1.439538E-2	-3.071549E-3	-8.934877E-3	-4.369168E-3	-4.594688E-3	-9.601664E-3	-2.146207E-4	-1.020955E-2	-2.502697E-4	-3.714317E-3	1.149358E-2	2.540724E-3	1.939885E-3	5.948322E-4	2.222145E-3	-4.566205E-3	-6.024114E-3	4.937179E-3	2.974286E-3	9.372446E-3	2.030292E-3	-5.769652E-3	4.891718E-3
5.315180E+2	2.903343E-3	5.144437E-3	2.173510E-3	1.779395E-3	-2.223859E-3	1.344364E-3	-1.017153E-2	-2.582486E-3	2.878454E-3	4.238910E-3	-1.605310E-3	7.733178E-3	1.231577E-3	-1.837996E-3	3.000497E-3	1.055441E-3	1.169948E-4	-1.513540E-3	4.598008E-3	5.215230E-3	1.189549E-3	3.737596E-3	3.013934E-4	-5.333673E-4	-5.844768E-4	-6.763878E-3	5.971240E-4	7.935928E-3	3.771028E-3	-1.560382E-3	3.147134E-3	-1.803481E-3	-5.814173E-5	-2.311915E-3	-7.519805E-3	-1.178033E-3	-1.048612E-2	-2.601304E-3	6.046367E-3	2.951278E-3	5.296118E-3	4.891741E-4	-1.233636E-3	6.862382E-4	-6.926407E-3	-3.673545E-3	7.472171E-4	-5.331664E-4	4.846570E-3	5.836248E-3	-8.039688E-3	-2.978399E-3	7.126214E-4	5.156073E-3	-2.156099E-3	1.983298E-3	-3.940913E-3	1.184740E-2	8.681390E-3	4.008804E-3	5.461603E-3	3.331393E-3	3.229147E-3	5.224537E-3	6.262755E-3	-7.064263E-4	-3.724323E-3	8.355712E-4	2.510501E-3	3.728705E-3	-6.474702E-3	-2.215241E-3	7.210023E-4	-6.014560E-3	-8.086861E-4	-1.616574E-3	-4.420787E-3	1.154190E-3	3.215018E-3	-3.907035E-3	-7.917144E-3	-3.292040E-3	7.146805E-3	-1.131995E-3	-5.051217E-3	1.621526E-3	-2.086800E-3	2.175644E-3	2.730525E-3	6.386653E-3	-2.298422E-4	6.316520E-3	-1.093520E-2	-2.443390E-3	-4.779934E-3	3.520964E-3	-1.517540E-3	-1.638422E-3	2.747000E-3	-5.088928E-4	-3.623488E-3	-7.364484E-3	-4.241561E-3	-1.820443E-3	6.862662E-3	-2.881781E-3	5.419744E-3	1.162127E-2	2.216568E-3	-2.999357E-3	-2.525736E-3	-2.295591E-3	9.517738E-4	-3.792118E-3	9.736160E-4	-1.456919E-4	2.810258E-3	-1.625578E-3	1.913896E-3	-5.331073E-5	3.584351E-4	-4.582532E-3	7.734565E-3	7.497373E-3	3.135694E-3	-6.283452E-4	-6.768216E-3	-6.661967E-3	2.639016E-3	-2.389976E-3	-7.526738E-3	-1.157000E-2	-8.663785E-4	1.932706E-3	6.284702E-4	-2.221202E-3	-2.739709E-3	3.727273E-3	-5.238205E-3	1.642620E-3	-4.325339E-3	1.455951E-3	7.973067E-4	7.491969E-4	-1.810539E-3	9.993144E-3	1.309235E-2	4.262352E-3	3.305810E-3	2.610513E-3	-3.045664E-3	-4.478231E-3	-2.554455E-3	-3.387638E-3	3.844199E-3	1.051658E-3	-3.067051E-3	-2.844000E-3	-1.591188E-3	-8.813526E-3	-4.290649E-4	2.117957E-4	6.708542E-4	-6.072955E-4	-8.142403E-3	-5.892989E-3	-1.273214E-2	-3.337831E-3	3.394963E-3	-1.379490E-2
5.320020E+2	1.673615E-3	8.397487E-3	-7.739837E-4	-2.737881E-3	3.631666E-3	3.922224E-3	3.519474E-3	-6.846645E-6	1.183894E-2	-1.816081E-3	7.256661E-3	-1.829648E-3	4.413945E-3	2.208016E-3	1.646038E-3	5.988589E-3	8.507022E-3	-4.146003E-3	-5.426397E-3	1.465639E-3	1.154786E-2	2.522944E-3	2.954825E-3	1.565987E-3	4.235603E-3	3.827641E-3	2.187520E-3	1.181171E-2	-2.364659E-3	1.386509E-4	2.206783E-4	7.278045E-3	7.722943E-3	6.351947E-3	8.166885E-3	1.976069E-5	8.891008E-3	8.675492E-3	6.206584E-3	4.243509E-4	-1.556984E-3	2.216429E-3	-1.658965E-3	-4.793691E-3	6.955558E-3	5.165088E-3	3.451617E-3	-3.046831E-3	1.891513E-3	-4.092655E-3	1.435756E-3	-1.918447E-4	1.296471E-2	1.945393E-3	1.401785E-3	4.033421E-3	2.426946E-3	7.374352E-3	2.051904E-3	-8.064318E-3	1.361498E-2	2.480541E-3	3.870736E-3	3.566147E-3	7.363878E-3	1.670074E-3	2.447772E-3	3.249619E-3	8.609740E-3	5.835967E-3	2.363357E-4	7.583181E-3	-1.601968E-4	7.323739E-3	4.900731E-3	1.245823E-2	3.739983E-3	9.485572E-3	1.027896E-2	3.685496E-3	8.316176E-3	4.251399E-3	2.482047E-3	4.305653E-3	5.060992E-4	1.265336E-3	3.447580E-3	-2.063916E-4	9.690871E-3	-5.559631E-3	5.869054E-3	-2.848212E-3	-1.320948E-3	2.717507E-3	-3.163055E-3	-2.938147E-3	-3.783269E-3	9.685389E-3	-4.807738E-3	-3.701324E-3	7.838321E-3	8.123804E-3	1.091769E-2	7.038368E-3	1.751834E-3	3.139450E-3	-6.317825E-3	6.772961E-3	-1.954711E-3	1.259498E-3	7.509937E-3	7.527194E-3	9.128287E-3	1.366758E-3	7.535268E-3	5.962428E-4	4.386453E-3	6.497653E-3	2.575186E-3	8.490700E-3	-1.555426E-3	-1.089408E-3	4.848130E-3	-1.060611E-2	7.607968E-4	9.766990E-3	2.233625E-3	3.744276E-3	7.443102E-3	4.750627E-3	6.962618E-3	-5.280490E-4	1.596224E-2	-2.338913E-3	-2.493435E-3	7.300970E-3	-4.311179E-3	8.390148E-3	1.775155E-3	-3.809174E-3	-2.582258E-3	9.159513E-3	7.021084E-3	1.886659E-3	1.339618E-2	4.429349E-3	5.201626E-3	5.658459E-3	1.557823E-3	1.373849E-2	5.149544E-3	8.635213E-3	2.969843E-3	3.984338E-3	5.879148E-4	-2.842506E-3	1.309218E-3	2.153139E-3	-4.537048E-3	-2.177714E-3	-5.451434E-3	4.106205E-3	-1.814925E-3	1.946324E-3	-3.266250E-3	-1.473256E-3	5.333217E-3	7.587142E-5	6.961575E-3	9.017576E-3
5.325170E+2	5.445188E-3	4.360181E-3	6.081615E-3	3.011268E-4	1.056319E-2	8.484176E-3	1.455009E-2	1.639121E-2	2.020378E-3	7.081166E-3	1.342232E-2	6.965820E-3	2.499365E-3	9.235383E-3	1.270511E-2	2.660269E-3	9.755675E-3	1.252880E-2	2.164039E-2	8.328035E-3	7.915416E-3	1.316163E-2	5.113422E-3	1.011302E-2	1.536579E-2	6.832598E-3	1.646002E-2	7.184168E-4	5.070918E-3	1.671316E-2	1.305843E-2	1.000315E-2	1.299135E-2	1.203699E-2	1.352626E-2	8.714687E-3	1.350263E-2	1.208578E-2	2.806405E-3	8.133749E-3	6.096309E-3	9.281583E-3	1.598121E-2	2.164548E-2	7.098638E-3	-1.279040E-3	4.621236E-3	1.082664E-2	8.229985E-3	1.617166E-2	1.682812E-2	1.441434E-2	4.532351E-3	9.788666E-3	1.482098E-2	8.507105E-3	8.301695E-3	3.064645E-4	7.532708E-3	2.523160E-2	4.672013E-3	6.076109E-3	1.588232E-2	7.785626E-3	7.502344E-3	6.893728E-3	7.547855E-3	7.980181E-3	1.026528E-2	7.954654E-3	-1.989672E-3	9.674777E-3	4.977499E-3	1.464571E-2	2.997361E-3	1.017242E-2	9.788051E-3	7.576923E-3	5.951333E-3	5.811510E-3	1.132977E-2	4.384523E-3	-4.344362E-3	-2.510198E-3	1.650466E-2	5.841784E-3	1.396729E-2	1.856729E-2	8.380052E-3	-2.409838E-3	1.149665E-2	1.296154E-2	1.120005E-2	6.885060E-3	1.044580E-2	1.610142E-2	8.822539E-3	1.375157E-2	8.502338E-3	1.411481E-2	6.431629E-3	8.270566E-3	8.645082E-3	1.374014E-2	1.027925E-2	1.565943E-2	1.077112E-2	8.168961E-6	1.095994E-2	8.131889E-3	3.277598E-3	1.186841E-2	1.519220E-2	1.372504E-2	1.349959E-2	1.017359E-2	9.976084E-3	7.055472E-3	9.669866E-3	2.879963E-3	7.202795E-3	1.498700E-2	4.240695E-4	2.370011E-2	1.458182E-2	2.749352E-3	6.849651E-3	1.112870E-2	1.579870E-2	1.369662E-2	5.573175E-3	7.049608E-3	2.896418E-3	4.737891E-3	7.150197E-3	9.617696E-3	1.479791E-2	3.533863E-3	1.308605E-2	1.834321E-2	2.111626E-2	8.249617E-3	1.187334E-2	4.413996E-3	1.359758E-2	8.651835E-3	9.869677E-3	9.910470E-3	1.141187E-2	9.744112E-3	2.210961E-3	1.207144E-2	7.429577E-3	1.358026E-2	1.529040E-2	1.414545E-2	2.535376E-2	9.867844E-3	1.846589E-2	1.543488E-2	7.857682E-3	4.794337E-3	1.236106E-2	1.468163E-2	8.785585E-3	1.157622E-2	1.068264E-3	1.082537E-2	1.514156E-2	1.307136E-2
5.330280E+2	2.152557E-2	1.652623E-2	2.400181E-2	2.135755E-2	2.433768E-2	2.044367E-2	2.287926E-2	2.250916E-2	3.154697E-2	1.703455E-2	1.520067E-2	3.212664E-2	3.645554E-2	2.318513E-2	2.727517E-2	1.907389E-2	2.649914E-2	2.040980E-2	2.179610E-2	2.072846E-2	2.211556E-2	3.206679E-2	2.454784E-2	1.671578E-2	2.390968E-2	2.659496E-2	3.126719E-2	3.149130E-2	2.563214E-2	2.057818E-2	2.797189E-2	2.432337E-2	2.289161E-2	9.650890E-3	1.605297E-2	2.066879E-2	2.359101E-2	3.046329E-2	2.481395E-2	2.392945E-2	2.282466E-2	1.903717E-2	3.149421E-2	2.408572E-2	2.882037E-2	2.187184E-2	2.602881E-2	1.722685E-2	2.443618E-2	1.791190E-2	2.816296E-2	1.887115E-2	2.090624E-2	2.393972E-2	2.386361E-2	2.121007E-2	2.101646E-2	2.110841E-2	2.813773E-2	3.007908E-2	2.950243E-2	2.307273E-2	2.847068E-2	1.928990E-2	2.937467E-2	2.635209E-2	2.762583E-2	2.598756E-2	3.735831E-2	2.146407E-2	2.560722E-2	2.441627E-2	1.517275E-2	2.809796E-2	1.895821E-2	2.678036E-2	1.694287E-2	3.399492E-2	3.447289E-2	2.248831E-2	1.957257E-2	1.464664E-2	2.094866E-2	1.419379E-2	2.762358E-2	1.590106E-2	2.681310E-2	1.622402E-2	2.519467E-2	1.342716E-2	2.865118E-2	3.176889E-2	2.619006E-2	1.970064E-2	2.364001E-2	2.245140E-2	2.747061E-2	2.573721E-2	7.550911E-3	2.870160E-2	2.886984E-2	2.002800E-2	1.856661E-2	2.433961E-2	3.046063E-2	1.744788E-2	3.525203E-2	1.691510E-2	3.471270E-2	1.351106E-2	1.947510E-2	1.352297E-2	2.185469E-2	2.406718E-2	1.642662E-2	1.875758E-2	2.445060E-2	3.644695E-2	1.893476E-2	2.623392E-2	2.827384E-2	2.678306E-2	1.281892E-2	2.445573E-2	1.930090E-2	1.936960E-2	1.492108E-2	2.161518E-2	1.477698E-2	2.735098E-2	2.195762E-2	2.208818E-2	2.176035E-2	3.664098E-2	8.735230E-3	1.894970E-2	3.858859E-2	2.381524E-2	1.883341E-2	2.198461E-2	1.378143E-2	2.677926E-2	2.139539E-2	2.167458E-2	1.550375E-2	2.152048E-2	2.657279E-2	1.937681E-2	1.494791E-2	2.404741E-2	2.418032E-2	3.305633E-2	1.241364E-2	1.984522E-2	2.190062E-2	2.271184E-2	2.979532E-2	1.812887E-2	2.586420E-2	2.960240E-2	2.350202E-2	2.322705E-2	2.741432E-2	2.793387E-2	2.181771E-2	3.326945E-2	1.143110E-2	2.134334E-2	2.557595E-2	2.464646E-2
5.331580E+2	1.849671E-2	2.506936E-2	2.538233E-2	2.559460E-2	2.713318E-2	2.753051E-2	2.140579E-2	2.813481E-2	2.672299E-2	2.185486E-2	2.414995E-2	2.360824E-2	3.921287E-2	1.593329E-2	3.593626E-2	2.980967E-2	2.333053E-2	2.556650E-2	1.595518E-2	2.916148E-2	2.228411E-2	2.908408E-2	2.931385E-2	2.037541E-2	2.723950E-2	1.766147E-2	2.755027E-2	3.655171E-2	3.892999E-2	2.766448E-2	4.551950E-2	3.355237E-2	3.181222E-2	3.006324E-2	2.193093E-2	3.484677E-2	2.925507E-2	1.707974E-2	3.397166E-2	2.235453E-2	2.504202E-2	1.493188E-2	2.893227E-2	2.938948E-2	2.733817E-2	1.873097E-2	2.568144E-2	2.413077E-2	2.410447E-2	2.446696E-2	1.948848E-2	3.199736E-2	2.517126E-2	2.172246E-2	2.800802E-2	2.821397E-2	2.855104E-2	3.320914E-2	2.442855E-2	3.098387E-2	2.163450E-2	1.530959E-2	2.242873E-2	3.273884E-2	3.393270E-2	2.425391E-2	3.225442E-2	2.793124E-2	2.809698E-2	2.363715E-2	2.723675E-2	3.047058E-2	2.542276E-2	2.438827E-2	2.680717E-2	3.129326E-2	1.873174E-2	2.336620E-2	4.067693E-2	2.521198E-2	2.669931E-2	3.565388E-2	3.562935E-2	2.669748E-2	2.682308E-2	3.246565E-2	2.114953E-2	2.399957E-2	3.718233E-2	2.223336E-2	1.434605E-2	2.846049E-2	3.934149E-2	2.902931E-2	1.379832E-2	2.123538E-2	2.885934E-2	3.156995E-2	2.373251E-2	2.445289E-2	1.764234E-2	2.312590E-2	2.658095E-2	2.617771E-2	3.013811E-2	2.358046E-2	3.970561E-2	2.518838E-2	2.907278E-2	2.515368E-2	2.521165E-2	2.452696E-2	2.534561E-2	3.905796E-2	3.710510E-2	1.953374E-2	2.217802E-2	2.257513E-2	1.812478E-2	2.430629E-2	2.180806E-2	2.600594E-2	3.194375E-2	2.889809E-2	2.404654E-2	2.987733E-2	3.148931E-2	1.505781E-2	2.549655E-2	2.812116E-2	3.107937E-2	2.800434E-2	2.986040E-2	2.343017E-2	2.129896E-2	3.049894E-2	4.110331E-2	2.848587E-2	3.225425E-2	4.078446E-2	2.308697E-2	2.316785E-2	1.949606E-2	2.376119E-2	1.333857E-2	2.925885E-2	2.219632E-2	2.481215E-2	3.162244E-2	3.107077E-2	2.645995E-2	3.058477E-2	2.553413E-2	1.612497E-2	3.153468E-2	4.098044E-2	1.879681E-2	3.239081E-2	3.123166E-2	2.930642E-2	2.770453E-2	2.610024E-2	3.028372E-2	3.826979E-2	2.679697E-2	2.773449E-2	2.787845E-2	2.631632E-2	2.002844E-2	2.103993E-2
5.333130E+2	3.515123E-2	2.787872E-2	4.404964E-2	3.489276E-2	4.476775E-2	3.020848E-2	4.354431E-2	3.532755E-2	4.052807E-2	3.766654E-2	3.430884E-2	3.502444E-2	4.063793E-2	4.636816E-2	3.767714E-2	3.716779E-2	2.859107E-2	3.742810E-2	4.326423E-2	4.483877E-2	3.769362E-2	3.987730E-2	3.872367E-2	3.204314E-2	4.115406E-2	5.250317E-2	3.905354E-2	4.972600E-2	3.651073E-2	4.548443E-2	4.779468E-2	4.498492E-2	3.924511E-2	4.449031E-2	3.738699E-2	3.777814E-2	5.694653E-2	4.546832E-2	5.307702E-2	4.638464E-2	4.344668E-2	4.999540E-2	2.252489E-2	4.539578E-2	3.587592E-2	4.701678E-2	4.464961E-2	3.865268E-2	4.930155E-2	2.465437E-2	3.977975E-2	5.168374E-2	2.998743E-2	4.328365E-2	3.913740E-2	4.108075E-2	4.825108E-2	3.915994E-2	3.246399E-2	4.238942E-2	3.477255E-2	3.791294E-2	3.979600E-2	5.217757E-2	3.659306E-2	3.187651E-2	3.803445E-2	2.987658E-2	3.535580E-2	3.528747E-2	4.174095E-2	5.371568E-2	4.939877E-2	3.013729E-2	4.034568E-2	4.390063E-2	3.680269E-2	2.874039E-2	3.490735E-2	4.010847E-2	5.132883E-2	5.142497E-2	4.231930E-2	4.199101E-2	4.603719E-2	4.763512E-2	2.545698E-2	5.164761E-2	2.807637E-2	2.854504E-2	3.160527E-2	5.334615E-2	3.573539E-2	3.484376E-2	3.161071E-2	4.150747E-2	4.105395E-2	3.517484E-2	4.000218E-2	3.971328E-2	5.221170E-2	3.741627E-2	3.807866E-2	4.458246E-2	4.835107E-2	3.843747E-2	4.874759E-2	2.977872E-2	4.054835E-2	3.165288E-2	4.269786E-2	3.447068E-2	3.690396E-2	5.351892E-2	4.165853E-2	4.729640E-2	3.325072E-2	5.265444E-2	4.959624E-2	3.512301E-2	4.147919E-2	2.864436E-2	3.731546E-2	3.893109E-2	4.006219E-2	4.875186E-2	4.717285E-2	3.342384E-2	3.806492E-2	3.481691E-2	4.447699E-2	2.591168E-2	4.595221E-2	4.609702E-2	3.730069E-2	4.647882E-2	2.742524E-2	5.177411E-2	4.475013E-2	3.577718E-2	3.731070E-2	3.966886E-2	3.642089E-2	4.931522E-2	3.400922E-2	4.399167E-2	3.845968E-2	4.144593E-2	2.567839E-2	3.549913E-2	3.033177E-2	5.497305E-2	3.935364E-2	3.917589E-2	3.326305E-2	6.419746E-2	3.559937E-2	5.000041E-2	4.287282E-2	4.360116E-2	4.059999E-2	3.820593E-2	4.815664E-2	5.107140E-2	3.805275E-2	3.951157E-2	3.536728E-2	4.417011E-2	4.318112E-2	3.271812E-2
5.334630E+2	4.590380E-2	5.336506E-2	5.537662E-2	4.835051E-2	5.356666E-2	4.878787E-2	6.028956E-2	5.154303E-2	5.917590E-2	5.723002E-2	4.787750E-2	6.875362E-2	5.362258E-2	5.558494E-2	6.453518E-2	4.289105E-2	4.625788E-2	4.377902E-2	3.023312E-2	4.664929E-2	6.045268E-2	5.535820E-2	5.793147E-2	5.677400E-2	5.738084E-2	5.719044E-2	5.614579E-2	6.652059E-2	4.509534E-2	4.682621E-2	6.403702E-2	5.325072E-2	4.329561E-2	6.104321E-2	5.535547E-2	5.036173E-2	5.328746E-2	6.505887E-2	6.600139E-2	5.493305E-2	5.970513E-2	6.161971E-2	4.930136E-2	5.065149E-2	5.753916E-2	6.330438E-2	4.386998E-2	5.625820E-2	6.742385E-2	6.287833E-2	4.476138E-2	6.435398E-2	5.682234E-2	5.377528E-2	5.032584E-2	5.253719E-2	5.432678E-2	4.513830E-2	5.281707E-2	5.792916E-2	5.339804E-2	5.413532E-2	5.306028E-2	5.246284E-2	5.046394E-2	5.155768E-2	4.383959E-2	4.693462E-2	5.573396E-2	4.899134E-2	5.967292E-2	5.401144E-2	5.423671E-2	5.100927E-2	5.550387E-2	5.952779E-2	7.508821E-2	5.023982E-2	5.921926E-2	5.602545E-2	4.808564E-2	6.244424E-2	4.796017E-2	5.626129E-2	3.979274E-2	4.940678E-2	5.531440E-2	4.683912E-2	5.249828E-2	5.990519E-2	4.997376E-2	6.305455E-2	4.224735E-2	5.090767E-2	5.406894E-2	4.658179E-2	5.512050E-2	5.525615E-2	6.025068E-2	5.505484E-2	6.346232E-2	5.470486E-2	7.029979E-2	5.755118E-2	4.861158E-2	5.011429E-2	5.741840E-2	5.426302E-2	5.601232E-2	5.913453E-2	4.632892E-2	4.042862E-2	5.243442E-2	5.170485E-2	5.977986E-2	4.693025E-2	5.736370E-2	7.422390E-2	5.745866E-2	6.512771E-2	5.100044E-2	5.668547E-2	6.384735E-2	5.639347E-2	5.615348E-2	5.213433E-2	5.193757E-2	7.062741E-2	5.068830E-2	5.749349E-2	4.155544E-2	5.149644E-2	6.361476E-2	7.037520E-2	5.338087E-2	5.817332E-2	6.539168E-2	4.527046E-2	6.652408E-2	5.179216E-2	6.295912E-2	5.353629E-2	4.924257E-2	6.348979E-2	4.602732E-2	5.007564E-2	5.307116E-2	7.050647E-2	5.511045E-2	5.684078E-2	5.256361E-2	4.931371E-2	6.422432E-2	7.183071E-2	5.198409E-2	6.385696E-2	5.414109E-2	5.243262E-2	4.883886E-2	6.703173E-2	5.132228E-2	5.036099E-2	5.163227E-2	7.471406E-2	5.633257E-2	6.145056E-2	5.015610E-2	6.290498E-2	6.552910E-2	3.101265E-2
5.336130E+2	5.669617E-2	9.165358E-2	5.994070E-2	6.879721E-2	5.752270E-2	7.242166E-2	5.724386E-2	5.965687E-2	7.182797E-2	6.061583E-2	6.419278E-2	7.436031E-2	7.727963E-2	6.132436E-2	7.486391E-2	6.669668E-2	6.498136E-2	6.353625E-2	5.526877E-2	5.742749E-2	6.840576E-2	5.748811E-2	7.667668E-2	7.595973E-2	8.708785E-2	9.038637E-2	8.655732E-2	7.067117E-2	8.210468E-2	6.155539E-2	6.328317E-2	6.607333E-2	7.158878E-2	7.356125E-2	6.809462E-2	6.507933E-2	7.325658E-2	5.920801E-2	7.356112E-2	7.014533E-2	6.154013E-2	6.522289E-2	7.295910E-2	6.746300E-2	6.443400E-2	8.134965E-2	5.203126E-2	7.078933E-2	7.837934E-2	7.281480E-2	8.544716E-2	8.207867E-2	6.954786E-2	6.089077E-2	7.704789E-2	7.538006E-2	6.329432E-2	6.273133E-2	8.131298E-2	7.578846E-2	5.646456E-2	8.754135E-2	6.178891E-2	4.766942E-2	7.491239E-2	7.594144E-2	5.530357E-2	9.100263E-2	6.461826E-2	6.925304E-2	7.818120E-2	6.842665E-2	7.297671E-2	6.865624E-2	7.386840E-2	6.684946E-2	7.828254E-2	6.351767E-2	6.855938E-2	5.879408E-2	8.815441E-2	6.972915E-2	7.419033E-2	7.379163E-2	6.217286E-2	7.020517E-2	6.979589E-2	5.526731E-2	6.814024E-2	7.248133E-2	6.739754E-2	6.272793E-2	7.247815E-2	7.317412E-2	6.799353E-2	8.280993E-2	6.140356E-2	7.086650E-2	6.942980E-2	6.932350E-2	5.854035E-2	6.719480E-2	6.668349E-2	7.833346E-2	7.228903E-2	6.617378E-2	8.326690E-2	5.508367E-2	8.712214E-2	5.994679E-2	6.956125E-2	6.193748E-2	6.575516E-2	5.815703E-2	7.741714E-2	8.694701E-2	8.115818E-2	8.215029E-2	6.584933E-2	7.662089E-2	6.364817E-2	5.987930E-2	8.121686E-2	8.201887E-2	7.028928E-2	6.803966E-2	5.473185E-2	7.095629E-2	6.337396E-2	7.197993E-2	7.305507E-2	7.027035E-2	5.994109E-2	8.122802E-2	8.782112E-2	8.358081E-2	8.314294E-2	7.832083E-2	7.558778E-2	7.785899E-2	7.194622E-2	6.091425E-2	7.371783E-2	8.448684E-2	6.335594E-2	8.074304E-2	6.202140E-2	8.089057E-2	5.934482E-2	5.923431E-2	5.547595E-2	6.144741E-2	6.724859E-2	7.496505E-2	6.982160E-2	7.387174E-2	8.942450E-2	6.254956E-2	7.467969E-2	7.897547E-2	8.355039E-2	7.835504E-2	6.050592E-2	7.561438E-2	7.698236E-2	6.756058E-2	6.745684E-2	7.771493E-2	8.206671E-2	9.844477E-2
5.337580E+2	8.550825E-2	8.825794E-2	8.064265E-2	8.987845E-2	9.604540E-2	9.515327E-2	9.617161E-2	1.145649E-1	9.075308E-2	1.043642E-1	8.779247E-2	1.114345E-1	1.036410E-1	9.754481E-2	9.883720E-2	9.314886E-2	9.557170E-2	8.840267E-2	9.496213E-2	1.077889E-1	1.098374E-1	1.041036E-1	1.021850E-1	8.804324E-2	1.264384E-1	1.198392E-1	1.225233E-1	1.174005E-1	1.031983E-1	9.733064E-2	9.968889E-2	1.156098E-1	1.031053E-1	9.380789E-2	9.722590E-2	1.013064E-1	1.148796E-1	1.030555E-1	1.155272E-1	1.066406E-1	1.023148E-1	1.136662E-1	1.032705E-1	9.800633E-2	8.554418E-2	1.038688E-1	9.854399E-2	1.170628E-1	9.183351E-2	1.118418E-1	1.137574E-1	1.157277E-1	8.633459E-2	9.443299E-2	9.336222E-2	1.132658E-1	8.724200E-2	1.206832E-1	1.044173E-1	1.172373E-1	9.677920E-2	1.105154E-1	1.025010E-1	9.914988E-2	1.140423E-1	1.119119E-1	1.010064E-1	9.637540E-2	1.003789E-1	1.131763E-1	1.049371E-1	1.068347E-1	9.827527E-2	9.091240E-2	1.156741E-1	9.943796E-2	1.052745E-1	9.253579E-2	1.143314E-1	9.743136E-2	9.859333E-2	9.216869E-2	1.032735E-1	1.037544E-1	1.076509E-1	1.112466E-1	9.129012E-2	9.161079E-2	1.114116E-1	1.058416E-1	1.064395E-1	1.137959E-1	1.160373E-1	1.090244E-1	9.741675E-2	9.845279E-2	1.056830E-1	1.054137E-1	1.027764E-1	9.496854E-2	1.077594E-1	1.037912E-1	8.386708E-2	1.153109E-1	9.056281E-2	1.197896E-1	1.085433E-1	9.858152E-2	1.058015E-1	1.060627E-1	1.215817E-1	1.013877E-1	1.227234E-1	1.023189E-1	1.082786E-1	9.151635E-2	1.150345E-1	1.271211E-1	1.038002E-1	9.542750E-2	1.081720E-1	9.894119E-2	1.152063E-1	1.022087E-1	1.215041E-1	1.116491E-1	1.077144E-1	1.198959E-1	9.805363E-2	1.096897E-1	1.009563E-1	9.604612E-2	1.146948E-1	1.182786E-1	1.108395E-1	1.096300E-1	9.277654E-2	1.171438E-1	1.072759E-1	1.033994E-1	1.070167E-1	1.022598E-1	1.108956E-1	8.867071E-2	9.134962E-2	1.068348E-1	9.986957E-2	1.172028E-1	1.074822E-1	1.078042E-1	1.068422E-1	1.147333E-1	1.020127E-1	1.084053E-1	1.118252E-1	1.094906E-1	9.409187E-2	1.000562E-1	1.037566E-1	9.855734E-2	1.182320E-1	1.064607E-1	9.957677E-2	1.307816E-1	1.083250E-1	1.008380E-1	9.518017E-2	1.143997E-1	1.171727E-1	6.417606E-2
5.339140E+2	1.412627E-1	1.597129E-1	1.580407E-1	1.736811E-1	1.464741E-1	1.495152E-1	1.563403E-1	1.540082E-1	1.573650E-1	1.546394E-1	1.711389E-1	1.652184E-1	1.620430E-1	1.730399E-1	1.759951E-1	1.573990E-1	1.482706E-1	1.459051E-1	1.476230E-1	1.497840E-1	1.421121E-1	1.426066E-1	1.567320E-1	1.534376E-1	2.148002E-1	1.966610E-1	1.815231E-1	1.950985E-1	1.832091E-1	1.856095E-1	1.787250E-1	1.836775E-1	1.838236E-1	1.736659E-1	1.973577E-1	1.737507E-1	1.683602E-1	1.818322E-1	1.722550E-1	1.768790E-1	1.844240E-1	1.856689E-1	1.889336E-1	1.660074E-1	1.689071E-1	1.743925E-1	1.832426E-1	1.536955E-1	1.733678E-1	1.850504E-1	1.684984E-1	1.839466E-1	1.841921E-1	1.865326E-1	1.634154E-1	1.819628E-1	1.707211E-1	1.694690E-1	1.672689E-1	1.912718E-1	1.678817E-1	1.502073E-1	1.628628E-1	1.661697E-1	1.572568E-1	1.734239E-1	1.694208E-1	1.666970E-1	1.803870E-1	1.618487E-1	1.592767E-1	1.803933E-1	1.489594E-1	1.689575E-1	1.736901E-1	1.862322E-1	1.600767E-1	1.666687E-1	1.698968E-1	1.786951E-1	1.742554E-1	1.699229E-1	1.602351E-1	1.780730E-1	1.723791E-1	1.625189E-1	1.717006E-1	1.725985E-1	1.674888E-1	1.721458E-1	1.840877E-1	1.674318E-1	1.580532E-1	1.830309E-1	1.706564E-1	1.722576E-1	1.734732E-1	1.486642E-1	1.569238E-1	1.748177E-1	1.577685E-1	1.685457E-1	1.546573E-1	1.597771E-1	1.590467E-1	1.630371E-1	1.726032E-1	1.667720E-1	1.638585E-1	1.767627E-1	1.615104E-1	1.734142E-1	1.858392E-1	1.532759E-1	1.551671E-1	1.748350E-1	1.526682E-1	1.695854E-1	1.929854E-1	1.611948E-1	1.544157E-1	1.865908E-1	1.594405E-1	1.682244E-1	1.785628E-1	1.618380E-1	1.671586E-1	1.705380E-1	1.723050E-1	1.702448E-1	1.540883E-1	1.685581E-1	1.620946E-1	1.984838E-1	1.534533E-1	1.833892E-1	1.736086E-1	1.802907E-1	1.652449E-1	1.573565E-1	1.733904E-1	1.538339E-1	1.664333E-1	1.703961E-1	1.779812E-1	1.892295E-1	1.716654E-1	1.625207E-1	1.603124E-1	1.732009E-1	1.506465E-1	1.678203E-1	1.817594E-1	1.246895E-1	1.406045E-1	1.799858E-1	1.593031E-1	1.657804E-1	1.587544E-1	1.773022E-1	1.789676E-1	1.779011E-1	1.723798E-1	1.740073E-1	1.729668E-1	1.810270E-1	1.817697E-1	1.707433E-1	1.873998E-1	1.976255E-1
5.340800E+2	2.404996E-1	2.351760E-1	2.687516E-1	2.430910E-1	2.575679E-1	2.637316E-1	2.550370E-1	2.454773E-1	2.475349E-1	2.483484E-1	2.548523E-1	2.576896E-1	2.642416E-1	2.840047E-1	2.281769E-1	2.592823E-1	2.531099E-1	2.654482E-1	2.644876E-1	2.429310E-1	2.483752E-1	2.562750E-1	2.606397E-1	2.546007E-1	3.390338E-1	3.265345E-1	3.288665E-1	3.222738E-1	3.203596E-1	2.943078E-1	2.918266E-1	2.978425E-1	3.093547E-1	3.037382E-1	3.033081E-1	2.679695E-1	2.874258E-1	2.990903E-1	2.884207E-1	3.028656E-1	2.798151E-1	3.048007E-1	2.833629E-1	2.936812E-1	2.934211E-1	2.965822E-1	2.720242E-1	2.820362E-1	2.679538E-1	2.856374E-1	3.048895E-1	2.909409E-1	2.644208E-1	2.805721E-1	2.695044E-1	2.738309E-1	3.255621E-1	2.822204E-1	2.835715E-1	2.676892E-1	2.700621E-1	2.835203E-1	2.789057E-1	2.702098E-1	2.721970E-1	2.901478E-1	2.708593E-1	2.770333E-1	2.765880E-1	2.803160E-1	2.887217E-1	2.822394E-1	2.549493E-1	2.727444E-1	2.918116E-1	2.785103E-1	2.779232E-1	3.040946E-1	2.896306E-1	2.925187E-1	2.667607E-1	2.648851E-1	2.889219E-1	2.792199E-1	2.486004E-1	3.084770E-1	2.691511E-1	2.940175E-1	2.912211E-1	2.800769E-1	2.626108E-1	2.838155E-1	2.812310E-1	2.827236E-1	2.687810E-1	2.748018E-1	2.896862E-1	2.683379E-1	2.820932E-1	2.538389E-1	2.988232E-1	2.759845E-1	2.666180E-1	2.795204E-1	2.689996E-1	2.612815E-1	2.915490E-1	2.800564E-1	2.851237E-1	2.916888E-1	2.687525E-1	2.741936E-1	2.692286E-1	2.507794E-1	2.838993E-1	2.613688E-1	2.771223E-1	2.650932E-1	2.600825E-1	2.850254E-1	2.735551E-1	2.840294E-1	2.887353E-1	2.538051E-1	2.640515E-1	2.615927E-1	2.662453E-1	2.815154E-1	2.873239E-1	2.555253E-1	2.800275E-1	2.441750E-1	2.678301E-1	2.643943E-1	2.626544E-1	2.906445E-1	2.917953E-1	2.800577E-1	3.026392E-1	2.631684E-1	2.810599E-1	2.760675E-1	2.656201E-1	2.824134E-1	2.557611E-1	2.952084E-1	2.704400E-1	2.735819E-1	2.517179E-1	2.688219E-1	2.799923E-1	2.819901E-1	2.805033E-1	2.813065E-1	2.672316E-1	2.846486E-1	2.781151E-1	2.560763E-1	2.698629E-1	2.808754E-1	2.776052E-1	2.573758E-1	2.823964E-1	2.691957E-1	2.657856E-1	2.767624E-1	2.909123E-1	3.020401E-1	2.837704E-1	2.622787E-1
5.342040E+2	4.605516E-1	4.326920E-1	4.356261E-1	4.313583E-1	4.394695E-1	4.309095E-1	4.444530E-1	4.212190E-1	4.352995E-1	4.408506E-1	4.385994E-1	4.462256E-1	4.382692E-1	4.211847E-1	4.532704E-1	4.595214E-1	4.744709E-1	4.509034E-1	4.638078E-1	4.464574E-1	4.310713E-1	4.444060E-1	4.242201E-1	4.362028E-1	5.933832E-1	5.564335E-1	5.348143E-1	5.219874E-1	5.301715E-1	5.000404E-1	4.954980E-1	5.102635E-1	5.177017E-1	4.880588E-1	4.902307E-1	5.116927E-1	5.067822E-1	5.167316E-1	5.357310E-1	4.906786E-1	5.166602E-1	5.144605E-1	5.132522E-1	5.154742E-1	5.320357E-1	4.825997E-1	4.995071E-1	4.899134E-1	4.673776E-1	4.474086E-1	4.917010E-1	5.162895E-1	5.020981E-1	4.820212E-1	5.111317E-1	4.954100E-1	5.237017E-1	4.842293E-1	4.791924E-1	5.148948E-1	4.773923E-1	4.838264E-1	4.896573E-1	5.013451E-1	4.974978E-1	4.792365E-1	4.592547E-1	4.955946E-1	4.807735E-1	5.049348E-1	5.228382E-1	4.991754E-1	4.924449E-1	5.037366E-1	5.027906E-1	4.920489E-1	4.747507E-1	4.968447E-1	4.790918E-1	4.767791E-1	4.654102E-1	4.913554E-1	4.750697E-1	4.753937E-1	5.175169E-1	5.067440E-1	4.567802E-1	5.054501E-1	4.502655E-1	4.805722E-1	4.487101E-1	4.776146E-1	4.649729E-1	4.800708E-1	4.615265E-1	4.910052E-1	4.599966E-1	5.062480E-1	4.663045E-1	4.749281E-1	4.611354E-1	4.964630E-1	4.533545E-1	4.839827E-1	4.836189E-1	4.914354E-1	4.891214E-1	4.895423E-1	4.896708E-1	4.757044E-1	4.571609E-1	4.765237E-1	4.879249E-1	4.702133E-1	4.555220E-1	4.752302E-1	4.997676E-1	4.870097E-1	4.640512E-1	4.960826E-1	4.788138E-1	4.514888E-1	4.513014E-1	4.637907E-1	4.882271E-1	4.852101E-1	4.886725E-1	4.729333E-1	4.891721E-1	5.030012E-1	4.774556E-1	4.650584E-1	4.610644E-1	4.738646E-1	4.893822E-1	5.064923E-1	4.491073E-1	4.730864E-1	5.043022E-1	4.921511E-1	4.818432E-1	4.464886E-1	4.829188E-1	4.576137E-1	4.703466E-1	4.825689E-1	4.766839E-1	4.514636E-1	4.829998E-1	4.586863E-1	4.861343E-1	5.042437E-1	4.972289E-1	4.914179E-1	4.731679E-1	4.731198E-1	4.735906E-1	4.313409E-1	4.591377E-1	4.758056E-1	4.894587E-1	4.856586E-1	4.706955E-1	4.740540E-1	4.745443E-1	4.900031E-1	4.811744E-1	4.974541E-1	4.995592E-1	4.203548E-1
5.343600E+2	7.364205E-1	7.549361E-1	7.859398E-1	7.742333E-1	7.815680E-1	8.184004E-1	7.992382E-1	8.005369E-1	7.847293E-1	7.807648E-1	7.919960E-1	8.028405E-1	7.908585E-1	7.985190E-1	8.096282E-1	8.065615E-1	8.258021E-1	7.680027E-1	8.189715E-1	7.903065E-1	7.907184E-1	7.674210E-1	7.694695E-1	8.004101E-1	9.171269E-1	8.830782E-1	9.177405E-1	8.686647E-1	9.142950E-1	8.576750E-1	8.684194E-1	8.822683E-1	8.960666E-1	8.163403E-1	8.320822E-1	8.696523E-1	8.776150E-1	8.859079E-1	8.603459E-1	8.608721E-1	9.014872E-1	8.748980E-1	8.654499E-1	8.825494E-1	8.518563E-1	8.858814E-1	8.369011E-1	8.251834E-1	8.235800E-1	8.191547E-1	8.538049E-1	8.687433E-1	8.322431E-1	8.289265E-1	8.712864E-1	8.528228E-1	8.586775E-1	8.737134E-1	8.725249E-1	8.506811E-1	8.348099E-1	8.652809E-1	7.978237E-1	8.035089E-1	8.199096E-1	8.660373E-1	8.286245E-1	8.330576E-1	8.661770E-1	8.527643E-1	8.125608E-1	8.326310E-1	8.531641E-1	8.066899E-1	8.429148E-1	8.300866E-1	7.854770E-1	8.724078E-1	8.428514E-1	8.449116E-1	8.220299E-1	8.536575E-1	8.457507E-1	8.450266E-1	8.934393E-1	8.481628E-1	8.345997E-1	8.761977E-1	8.031744E-1	8.211264E-1	8.037083E-1	8.364193E-1	8.282071E-1	8.024374E-1	8.077811E-1	8.045544E-1	8.409466E-1	8.195933E-1	8.460790E-1	8.147833E-1	8.286595E-1	8.008482E-1	8.345530E-1	7.674404E-1	8.126133E-1	8.002124E-1	8.259746E-1	8.005417E-1	8.509915E-1	7.744782E-1	8.134970E-1	8.222729E-1	8.258205E-1	7.736840E-1	8.230570E-1	8.450109E-1	8.540451E-1	8.234194E-1	8.041323E-1	8.271290E-1	8.158544E-1	8.223777E-1	8.210755E-1	8.162869E-1	8.200884E-1	8.121954E-1	8.152409E-1	7.819023E-1	8.020803E-1	8.492690E-1	8.216451E-1	7.963757E-1	7.998832E-1	8.007789E-1	8.348172E-1	8.512636E-1	7.976751E-1	8.457091E-1	8.147686E-1	8.433001E-1	8.219381E-1	8.235467E-1	7.944245E-1	8.360510E-1	8.099373E-1	7.899648E-1	8.010892E-1	7.602106E-1	8.027676E-1	8.302365E-1	8.035017E-1	8.333044E-1	8.013126E-1	7.870746E-1	8.539852E-1	8.184355E-1	8.375123E-1	8.303357E-1	8.179642E-1	8.063892E-1	7.964377E-1	7.964666E-1	8.259570E-1	8.370211E-1	8.186365E-1	8.465407E-1	8.091246E-1	8.018798E-1	8.151263E-1	7.775308E-1
5.345160E+2	1.145014E+0	1.136320E+0	1.166185E+0	1.134767E+0	1.163724E+0	1.147367E+0	1.159299E+0	1.144882E+0	1.131653E+0	1.169026E+0	1.154951E+0	1.222148E+0	1.124770E+0	1.163028E+0	1.209523E+0	1.166070E+0	1.155745E+0	1.146820E+0	1.112410E+0	1.112588E+0	1.158469E+0	1.180138E+0	1.159043E+0	1.163056E+0	1.284252E+0	1.226444E+0	1.246388E+0	1.213289E+0	1.315359E+0	1.188554E+0	1.233561E+0	1.251502E+0	1.204425E+0	1.224662E+0	1.186180E+0	1.248588E+0	1.223970E+0	1.266930E+0	1.269567E+0	1.237184E+0	1.206013E+0	1.228812E+0	1.175968E+0	1.209098E+0	1.247173E+0	1.181772E+0	1.168970E+0	1.207249E+0	1.210700E+0	1.200197E+0	1.181281E+0	1.164435E+0	1.187220E+0	1.169215E+0	1.248468E+0	1.153519E+0	1.170887E+0	1.204540E+0	1.210305E+0	1.193166E+0	1.185393E+0	1.190458E+0	1.158865E+0	1.113735E+0	1.200437E+0	1.159077E+0	1.173600E+0	1.187603E+0	1.186516E+0	1.165302E+0	1.166430E+0	1.187718E+0	1.174164E+0	1.177475E+0	1.214871E+0	1.231566E+0	1.169540E+0	1.179334E+0	1.206231E+0	1.176471E+0	1.091378E+0	1.202483E+0	1.141865E+0	1.162168E+0	1.154119E+0	1.182572E+0	1.199492E+0	1.177098E+0	1.202169E+0	1.156571E+0	1.219697E+0	1.152822E+0	1.168733E+0	1.153758E+0	1.197182E+0	1.138063E+0	1.220415E+0	1.182164E+0	1.193607E+0	1.152253E+0	1.188733E+0	1.183516E+0	1.224926E+0	1.163012E+0	1.201013E+0	1.199558E+0	1.175076E+0	1.167849E+0	1.197455E+0	1.209810E+0	1.147923E+0	1.163381E+0	1.178320E+0	1.151131E+0	1.119181E+0	1.148040E+0	1.196787E+0	1.162064E+0	1.163918E+0	1.177462E+0	1.182718E+0	1.159478E+0	1.152125E+0	1.192934E+0	1.146833E+0	1.198906E+0	1.185193E+0	1.160515E+0	1.158865E+0	1.188497E+0	1.128987E+0	1.150530E+0	1.194107E+0	1.157919E+0	1.160454E+0	1.178044E+0	1.154969E+0	1.186819E+0	1.195204E+0	1.148588E+0	1.231205E+0	1.114620E+0	1.191825E+0	1.145414E+0	1.169598E+0	1.235350E+0	1.220239E+0	1.121294E+0	1.144416E+0	1.153387E+0	1.172666E+0	1.188895E+0	1.176552E+0	1.192016E+0	1.143682E+0	1.149044E+0	1.228345E+0	1.098164E+0	1.185178E+0	1.141014E+0	1.211006E+0	1.138902E+0	1.212738E+0	1.206992E+0	1.162437E+0	1.178332E+0	1.136848E+0	1.128801E+0	1.184001E+0	1.130460E+0
5.346560E+2	1.551010E+0	1.571973E+0	1.554324E+0	1.550658E+0	1.601367E+0	1.572088E+0	1.562000E+0	1.596128E+0	1.552136E+0	1.590044E+0	1.611381E+0	1.672155E+0	1.594046E+0	1.593089E+0	1.623641E+0	1.588222E+0	1.568129E+0	1.623088E+0	1.606365E+0	1.602806E+0	1.628565E+0	1.556815E+0	1.563897E+0	1.542265E+0	1.599024E+0	1.654723E+0	1.620743E+0	1.651586E+0	1.639212E+0	1.629399E+0	1.628672E+0	1.658495E+0	1.630936E+0	1.637694E+0	1.595890E+0	1.617257E+0	1.651152E+0	1.658694E+0	1.609166E+0	1.609585E+0	1.673236E+0	1.633866E+0	1.567036E+0	1.604333E+0	1.681157E+0	1.613647E+0	1.607373E+0	1.561814E+0	1.666883E+0	1.619846E+0	1.610594E+0	1.627620E+0	1.558234E+0	1.600892E+0	1.558307E+0	1.640842E+0	1.573805E+0	1.630394E+0	1.609694E+0	1.619294E+0	1.635680E+0	1.624718E+0	1.589428E+0	1.616217E+0	1.602394E+0	1.601706E+0	1.556441E+0	1.594369E+0	1.665222E+0	1.616883E+0	1.595651E+0	1.607001E+0	1.599448E+0	1.609193E+0	1.575790E+0	1.607747E+0	1.571345E+0	1.579561E+0	1.552921E+0	1.536973E+0	1.563950E+0	1.613669E+0	1.570339E+0	1.557050E+0	1.626164E+0	1.630938E+0	1.526243E+0	1.626120E+0	1.527276E+0	1.586447E+0	1.564748E+0	1.600168E+0	1.552563E+0	1.599058E+0	1.591494E+0	1.567069E+0	1.599425E+0	1.568476E+0	1.590976E+0	1.559314E+0	1.616017E+0	1.614466E+0	1.629851E+0	1.570793E+0	1.596721E+0	1.569146E+0	1.551672E+0	1.647440E+0	1.627180E+0	1.625859E+0	1.593459E+0	1.536036E+0	1.596138E+0	1.564084E+0	1.512782E+0	1.619793E+0	1.555391E+0	1.606842E+0	1.536057E+0	1.548430E+0	1.597898E+0	1.593021E+0	1.543203E+0	1.556118E+0	1.554086E+0	1.581862E+0	1.563292E+0	1.578284E+0	1.593070E+0	1.622770E+0	1.587554E+0	1.532245E+0	1.626030E+0	1.575390E+0	1.545646E+0	1.631296E+0	1.560296E+0	1.575086E+0	1.605340E+0	1.526787E+0	1.576624E+0	1.573076E+0	1.564606E+0	1.543248E+0	1.643858E+0	1.523521E+0	1.621614E+0	1.529561E+0	1.545925E+0	1.551223E+0	1.577537E+0	1.609474E+0	1.624127E+0	1.533307E+0	1.560576E+0	1.574611E+0	1.621780E+0	1.567676E+0	1.535147E+0	1.532009E+0	1.613388E+0	1.510105E+0	1.582417E+0	1.558759E+0	1.541430E+0	1.611780E+0	1.580851E+0	1.578067E+0	1.553269E+0	1.600092E+0
5.348230E+2	1.905799E+0	1.969015E+0	1.895385E+0	1.887460E+0	1.889908E+0	1.939847E+0	1.937590E+0	1.941514E+0	1.896140E+0	1.994199E+0	1.909073E+0	1.969239E+0	1.925168E+0	1.943349E+0	1.947808E+0	1.908356E+0	1.907063E+0	1.902192E+0	1.970989E+0	1.891526E+0	1.954769E+0	1.903805E+0	1.926059E+0	1.857197E+0	1.895244E+0	1.863794E+0	1.899841E+0	1.970215E+0	2.000034E+0	1.895505E+0	1.871861E+0	1.887988E+0	1.915705E+0	1.908720E+0	1.890803E+0	1.951175E+0	1.886624E+0	1.949917E+0	1.903221E+0	1.930638E+0	1.970644E+0	2.018669E+0	1.997838E+0	1.854594E+0	1.908529E+0	1.960935E+0	1.869676E+0	1.930824E+0	1.896066E+0	1.882148E+0	1.943589E+0	1.925568E+0	1.875538E+0	1.867671E+0	1.949592E+0	1.894707E+0	1.915068E+0	1.930216E+0	1.939740E+0	1.883695E+0	1.818261E+0	1.897387E+0	1.882853E+0	1.851869E+0	1.896194E+0	1.862191E+0	1.850016E+0	1.894457E+0	1.930235E+0	1.907291E+0	1.892178E+0	1.863379E+0	1.844033E+0	1.919201E+0	1.915686E+0	1.901826E+0	1.896412E+0	1.912031E+0	1.886997E+0	1.889444E+0	1.892943E+0	1.892674E+0	1.843394E+0	1.913728E+0	1.836334E+0	1.936006E+0	1.884652E+0	1.918207E+0	1.946361E+0	1.841247E+0	1.902633E+0	1.916356E+0	1.955184E+0	1.879826E+0	1.915694E+0	1.898395E+0	1.914980E+0	1.907902E+0	1.884499E+0	1.891041E+0	1.921853E+0	1.929015E+0	1.840307E+0	1.852168E+0	1.965133E+0	1.925358E+0	1.893677E+0	1.857024E+0	1.935694E+0	1.968308E+0	1.915508E+0	1.881058E+0	1.854738E+0	1.826728E+0	1.845206E+0	1.849947E+0	1.924650E+0	1.898435E+0	1.898039E+0	1.864927E+0	1.873148E+0	1.816721E+0	1.884715E+0	1.835411E+0	1.858321E+0	1.858947E+0	1.876686E+0	1.916209E+0	1.859303E+0	1.903648E+0	1.881835E+0	1.831337E+0	1.876529E+0	1.872643E+0	1.919390E+0	1.974408E+0	1.887452E+0	1.928606E+0	1.888720E+0	1.840601E+0	1.862916E+0	1.825437E+0	1.848971E+0	1.824587E+0	1.906417E+0	1.852372E+0	1.866721E+0	1.805505E+0	1.845286E+0	1.790664E+0	1.864506E+0	1.839600E+0	1.827480E+0	1.854715E+0	1.874048E+0	1.820038E+0	1.898504E+0	1.836645E+0	1.810468E+0	1.853378E+0	1.877544E+0	1.825755E+0	1.854857E+0	1.809439E+0	1.823387E+0	1.840437E+0	1.829873E+0	1.896441E+0	1.822187E+0	1.756128E+0
5.349580E+2	1.904417E+0	1.880284E+0	1.920929E+0	1.857473E+0	1.925846E+0	1.902425E+0	1.880148E+0	1.844738E+0	1.912170E+0	1.901642E+0	1.888660E+0	1.863241E+0	1.865699E+0	1.856291E+0	1.910093E+0	1.864535E+0	1.923321E+0	1.881419E+0	1.873539E+0	1.831078E+0	1.946217E+0	1.867661E+0	1.874714E+0	1.875224E+0	1.855001E+0	1.791668E+0	1.758155E+0	1.804938E+0	1.848002E+0	1.866824E+0	1.839634E+0	1.897978E+0	1.898093E+0	1.845026E+0	1.820115E+0	1.872658E+0	1.843830E+0	1.849367E+0	1.883430E+0	1.860721E+0	1.960145E+0	1.883131E+0	1.878614E+0	1.845791E+0	1.856788E+0	1.889129E+0	1.873099E+0	1.847912E+0	1.882598E+0	1.788441E+0	1.937186E+0	1.895058E+0	1.844504E+0	1.868956E+0	1.849086E+0	1.836173E+0	1.862742E+0	1.870374E+0	1.882385E+0	1.865610E+0	1.809116E+0	1.866410E+0	1.854251E+0	1.812663E+0	1.817374E+0	1.855896E+0	1.766564E+0	1.947386E+0	1.892683E+0	1.847990E+0	1.866425E+0	1.856472E+0	1.800987E+0	1.914905E+0	1.802527E+0	1.842512E+0	1.836730E+0	1.875154E+0	1.809411E+0	1.863849E+0	1.807160E+0	1.845840E+0	1.865014E+0	1.798082E+0	1.865394E+0	1.869446E+0	1.826532E+0	1.897108E+0	1.849631E+0	1.818593E+0	1.847217E+0	1.772686E+0	1.825734E+0	1.856630E+0	1.793268E+0	1.808121E+0	1.801681E+0	1.876299E+0	1.887941E+0	1.844668E+0	1.925664E+0	1.806634E+0	1.881125E+0	1.816280E+0	1.891332E+0	1.827289E+0	1.799102E+0	1.822754E+0	1.878610E+0	1.837763E+0	1.833593E+0	1.814471E+0	1.874153E+0	1.827109E+0	1.826789E+0	1.844169E+0	1.889064E+0	1.826396E+0	1.858751E+0	1.869740E+0	1.768099E+0	1.776233E+0	1.854803E+0	1.808159E+0	1.817413E+0	1.808573E+0	1.786694E+0	1.835624E+0	1.909182E+0	1.784772E+0	1.859088E+0	1.730030E+0	1.933551E+0	1.849066E+0	1.844499E+0	1.807964E+0	1.818935E+0	1.840061E+0	1.810656E+0	1.781180E+0	1.774571E+0	1.764270E+0	1.822451E+0	1.800096E+0	1.847229E+0	1.839634E+0	1.841903E+0	1.837162E+0	1.787388E+0	1.790711E+0	1.814513E+0	1.792821E+0	1.812985E+0	1.833096E+0	1.772323E+0	1.833571E+0	1.819411E+0	1.807267E+0	1.825284E+0	1.841666E+0	1.835320E+0	1.804420E+0	1.816385E+0	1.888185E+0	1.829015E+0	1.841204E+0	1.780634E+0	1.799937E+0	1.725919E+0	1.886839E+0
5.351090E+2	1.952462E+0	1.948173E+0	1.997488E+0	1.998601E+0	1.992324E+0	1.963073E+0	1.992628E+0	1.959625E+0	1.970591E+0	1.988783E+0	1.972823E+0	1.998636E+0	1.992543E+0	1.967139E+0	1.982198E+0	2.030743E+0	1.998420E+0	1.982543E+0	2.042716E+0	1.970646E+0	2.003364E+0	2.021566E+0	1.961595E+0	1.926024E+0	1.855677E+0	1.907853E+0	1.901033E+0	1.897071E+0	1.893861E+0	1.978553E+0	1.919339E+0	1.947650E+0	1.955014E+0	1.933758E+0	1.913401E+0	1.917907E+0	1.854647E+0	1.945638E+0	1.933099E+0	1.926140E+0	2.019246E+0	1.941147E+0	1.963396E+0	1.915216E+0	1.983233E+0	1.889594E+0	1.897661E+0	1.894994E+0	1.935418E+0	1.950217E+0	1.936782E+0	1.917580E+0	1.900455E+0	1.937006E+0	1.858011E+0	1.940969E+0	1.884849E+0	1.926672E+0	1.956130E+0	1.876647E+0	1.919557E+0	1.951834E+0	1.902858E+0	1.882680E+0	1.875562E+0	1.924895E+0	1.888334E+0	1.942569E+0	1.981458E+0	1.976158E+0	1.942509E+0	1.962052E+0	1.918123E+0	1.952156E+0	1.916599E+0	2.043194E+0	1.958814E+0	1.947966E+0	1.895468E+0	1.936140E+0	1.850702E+0	1.952452E+0	1.983783E+0	1.885321E+0	1.889363E+0	1.918494E+0	1.896747E+0	1.956525E+0	1.901891E+0	1.950624E+0	1.918066E+0	1.965653E+0	1.905275E+0	1.933835E+0	1.923388E+0	1.849295E+0	1.878914E+0	1.914117E+0	1.930891E+0	1.865631E+0	1.929501E+0	1.830339E+0	1.966929E+0	1.903575E+0	1.896210E+0	1.962334E+0	1.879034E+0	1.944072E+0	1.904715E+0	1.936909E+0	1.966104E+0	1.853548E+0	1.889082E+0	1.921510E+0	1.874130E+0	1.834901E+0	1.942395E+0	1.876077E+0	1.984465E+0	1.910972E+0	1.871525E+0	1.895000E+0	1.895968E+0	1.900980E+0	1.914164E+0	1.917077E+0	1.925923E+0	1.929770E+0	1.943123E+0	1.857649E+0	1.902691E+0	1.925164E+0	1.894100E+0	1.946257E+0	1.916473E+0	1.974235E+0	1.883277E+0	1.936427E+0	1.930564E+0	1.891233E+0	1.958456E+0	1.918278E+0	1.956087E+0	1.855390E+0	1.825412E+0	2.004966E+0	1.975282E+0	1.854549E+0	1.894861E+0	1.848654E+0	1.868014E+0	1.862793E+0	1.852553E+0	1.921128E+0	1.880175E+0	1.812616E+0	1.967659E+0	1.903329E+0	1.894742E+0	1.855933E+0	1.901316E+0	1.832820E+0	1.909634E+0	1.866185E+0	1.876156E+0	1.899241E+0	1.848906E+0	1.837826E+0	1.914055E+0	1.874609E+0
5.352550E+2	1.699016E+0	1.743255E+0	1.820872E+0	1.821288E+0	1.742524E+0	1.727464E+0	1.713034E+0	1.806607E+0	1.841953E+0	1.824705E+0	1.757874E+0	1.757176E+0	1.704124E+0	1.715178E+0	1.789231E+0	1.749430E+0	1.778269E+0	1.775941E+0	1.843929E+0	1.677923E+0	1.786432E+0	1.787280E+0	1.777176E+0	1.762809E+0	1.671790E+0	1.674248E+0	1.661303E+0	1.674636E+0	1.671742E+0	1.701341E+0	1.672557E+0	1.705125E+0	1.708457E+0	1.758666E+0	1.692337E+0	1.751191E+0	1.701837E+0	1.681121E+0	1.742190E+0	1.715894E+0	1.775627E+0	1.709557E+0	1.745438E+0	1.775048E+0	1.712749E+0	1.835562E+0	1.736182E+0	1.663530E+0	1.727188E+0	1.697511E+0	1.745335E+0	1.704402E+0	1.735160E+0	1.750268E+0	1.691756E+0	1.660410E+0	1.670391E+0	1.764783E+0	1.741958E+0	1.702666E+0	1.692604E+0	1.711641E+0	1.695841E+0	1.654651E+0	1.729563E+0	1.689286E+0	1.674135E+0	1.662055E+0	1.707360E+0	1.703089E+0	1.686200E+0	1.717580E+0	1.708738E+0	1.733925E+0	1.680736E+0	1.781788E+0	1.659863E+0	1.717056E+0	1.720281E+0	1.687635E+0	1.631607E+0	1.724209E+0	1.791295E+0	1.694443E+0	1.670915E+0	1.800326E+0	1.705163E+0	1.725091E+0	1.674144E+0	1.685595E+0	1.669028E+0	1.691759E+0	1.712425E+0	1.713046E+0	1.714619E+0	1.711854E+0	1.704867E+0	1.726835E+0	1.700358E+0	1.728918E+0	1.718913E+0	1.713796E+0	1.690916E+0	1.692396E+0	1.771529E+0	1.697636E+0	1.719803E+0	1.705484E+0	1.713292E+0	1.739073E+0	1.749295E+0	1.736430E+0	1.678187E+0	1.708885E+0	1.703662E+0	1.773404E+0	1.751720E+0	1.693113E+0	1.688967E+0	1.685014E+0	1.690451E+0	1.660129E+0	1.672801E+0	1.696360E+0	1.720742E+0	1.718958E+0	1.707430E+0	1.780978E+0	1.726336E+0	1.751565E+0	1.668085E+0	1.671569E+0	1.772847E+0	1.727539E+0	1.743982E+0	1.751212E+0	1.709340E+0	1.718077E+0	1.712806E+0	1.733590E+0	1.707555E+0	1.731747E+0	1.734687E+0	1.672783E+0	1.652813E+0	1.688828E+0	1.702244E+0	1.703306E+0	1.661152E+0	1.641043E+0	1.756100E+0	1.753591E+0	1.707679E+0	1.720158E+0	1.685891E+0	1.676333E+0	1.639401E+0	1.738387E+0	1.706122E+0	1.664120E+0	1.629065E+0	1.663983E+0	1.678850E+0	1.684473E+0	1.688451E+0	1.680780E+0	1.659134E+0	1.717263E+0	1.715025E+0	1.646933E+0
5.354110E+2	1.347883E+0	1.423541E+0	1.442087E+0	1.435255E+0	1.416048E+0	1.399730E+0	1.389702E+0	1.368392E+0	1.389351E+0	1.448722E+0	1.356223E+0	1.445651E+0	1.448765E+0	1.392207E+0	1.398177E+0	1.392653E+0	1.388145E+0	1.398619E+0	1.491944E+0	1.379120E+0	1.453194E+0	1.474129E+0	1.470487E+0	1.407810E+0	1.323968E+0	1.349605E+0	1.371991E+0	1.365144E+0	1.394854E+0	1.441015E+0	1.354746E+0	1.402519E+0	1.341107E+0	1.375688E+0	1.395983E+0	1.352845E+0	1.382951E+0	1.364867E+0	1.370110E+0	1.372648E+0	1.420299E+0	1.411589E+0	1.359537E+0	1.376438E+0	1.399676E+0	1.430482E+0	1.374965E+0	1.338240E+0	1.363676E+0	1.373315E+0	1.358066E+0	1.392717E+0	1.389174E+0	1.363990E+0	1.408677E+0	1.377423E+0	1.363392E+0	1.478927E+0	1.404609E+0	1.372814E+0	1.391154E+0	1.375187E+0	1.380617E+0	1.399044E+0	1.377210E+0	1.378018E+0	1.398147E+0	1.394010E+0	1.400418E+0	1.402825E+0	1.391386E+0	1.410343E+0	1.407972E+0	1.395170E+0	1.388189E+0	1.410678E+0	1.375016E+0	1.387564E+0	1.402769E+0	1.387208E+0	1.327319E+0	1.397742E+0	1.385295E+0	1.403924E+0	1.319464E+0	1.427376E+0	1.357120E+0	1.321698E+0	1.384151E+0	1.324250E+0	1.365012E+0	1.388021E+0	1.391726E+0	1.398772E+0	1.382523E+0	1.374033E+0	1.382911E+0	1.399254E+0	1.367188E+0	1.418774E+0	1.417425E+0	1.382182E+0	1.390346E+0	1.341493E+0	1.408377E+0	1.377095E+0	1.435831E+0	1.404765E+0	1.404430E+0	1.423947E+0	1.385395E+0	1.397630E+0	1.365798E+0	1.356438E+0	1.388441E+0	1.372947E+0	1.406863E+0	1.392103E+0	1.369207E+0	1.401933E+0	1.359384E+0	1.369235E+0	1.400736E+0	1.430095E+0	1.375944E+0	1.396179E+0	1.403935E+0	1.379121E+0	1.350383E+0	1.382906E+0	1.322878E+0	1.356779E+0	1.397582E+0	1.427286E+0	1.387409E+0	1.389547E+0	1.389975E+0	1.406710E+0	1.361717E+0	1.396308E+0	1.410381E+0	1.383580E+0	1.386708E+0	1.371721E+0	1.392679E+0	1.402187E+0	1.381139E+0	1.334138E+0	1.387892E+0	1.371422E+0	1.356620E+0	1.375631E+0	1.376923E+0	1.415954E+0	1.384998E+0	1.390194E+0	1.324416E+0	1.416500E+0	1.395486E+0	1.404970E+0	1.336581E+0	1.385636E+0	1.347673E+0	1.407571E+0	1.386514E+0	1.428177E+0	1.354577E+0	1.404613E+0	1.273098E+0	1.446852E+0
5.355580E+2	1.295660E+0	1.249758E+0	1.310334E+0	1.293126E+0	1.320742E+0	1.272101E+0	1.217195E+0	1.318181E+0	1.264697E+0	1.309981E+0	1.262373E+0	1.332606E+0	1.261129E+0	1.304670E+0	1.289809E+0	1.292819E+0	1.332754E+0	1.324787E+0	1.337619E+0	1.271490E+0	1.339417E+0	1.337131E+0	1.333133E+0	1.276845E+0	1.220631E+0	1.283803E+0	1.271388E+0	1.241870E+0	1.307713E+0	1.218487E+0	1.242711E+0	1.220483E+0	1.232899E+0	1.258960E+0	1.221807E+0	1.235479E+0	1.278499E+0	1.281603E+0	1.229368E+0	1.277019E+0	1.283440E+0	1.305196E+0	1.303782E+0	1.218900E+0	1.244687E+0	1.284791E+0	1.192626E+0	1.213834E+0	1.225237E+0	1.215782E+0	1.328130E+0	1.261646E+0	1.287601E+0	1.237945E+0	1.301932E+0	1.251782E+0	1.240225E+0	1.302162E+0	1.272090E+0	1.283542E+0	1.213756E+0	1.285402E+0	1.220629E+0	1.241752E+0	1.263137E+0	1.278784E+0	1.208535E+0	1.283055E+0	1.273432E+0	1.299652E+0	1.273564E+0	1.316800E+0	1.243616E+0	1.277897E+0	1.247703E+0	1.305622E+0	1.257458E+0	1.314044E+0	1.266749E+0	1.249071E+0	1.259433E+0	1.305947E+0	1.291841E+0	1.282330E+0	1.242814E+0	1.303332E+0	1.243835E+0	1.282105E+0	1.253177E+0	1.254932E+0	1.268644E+0	1.255474E+0	1.224943E+0	1.242851E+0	1.240692E+0	1.223391E+0	1.253244E+0	1.312058E+0	1.260336E+0	1.280492E+0	1.333902E+0	1.198800E+0	1.287734E+0	1.290662E+0	1.262891E+0	1.285065E+0	1.251277E+0	1.268504E+0	1.282216E+0	1.296689E+0	1.335664E+0	1.289475E+0	1.308243E+0	1.231751E+0	1.251171E+0	1.244546E+0	1.322044E+0	1.329630E+0	1.279855E+0	1.255430E+0	1.304230E+0	1.260544E+0	1.303051E+0	1.288071E+0	1.255613E+0	1.258320E+0	1.283001E+0	1.265482E+0	1.277405E+0	1.282643E+0	1.313139E+0	1.244432E+0	1.277425E+0	1.291604E+0	1.299387E+0	1.269419E+0	1.239804E+0	1.222850E+0	1.248534E+0	1.265343E+0	1.324797E+0	1.217248E+0	1.289826E+0	1.288742E+0	1.308624E+0	1.278030E+0	1.282521E+0	1.274159E+0	1.234876E+0	1.332406E+0	1.309269E+0	1.254969E+0	1.329490E+0	1.274370E+0	1.329233E+0	1.216925E+0	1.250034E+0	1.263381E+0	1.237841E+0	1.278341E+0	1.258658E+0	1.243446E+0	1.350818E+0	1.358982E+0	1.246544E+0	1.245567E+0	1.251444E+0	1.270505E+0	1.266370E+0	1.254969E+0
5.357190E+2	1.057466E+0	1.076910E+0	1.087202E+0	1.097350E+0	1.132690E+0	1.133919E+0	1.057265E+0	1.057958E+0	1.072398E+0	1.064022E+0	1.072107E+0	1.088775E+0	1.090756E+0	1.097755E+0	1.066126E+0	1.083230E+0	1.034070E+0	1.106356E+0	1.128971E+0	1.040773E+0	1.112354E+0	1.076658E+0	1.088034E+0	1.073743E+0	1.046365E+0	1.074749E+0	1.029937E+0	1.056702E+0	1.068078E+0	1.070743E+0	1.081175E+0	1.053534E+0	1.040553E+0	1.107040E+0	1.033108E+0	1.045005E+0	1.059607E+0	1.055716E+0	1.106228E+0	1.057925E+0	1.059990E+0	1.088754E+0	1.056989E+0	1.076465E+0	1.073035E+0	1.095229E+0	1.109408E+0	1.029675E+0	1.057796E+0	1.066874E+0	1.093573E+0	1.053550E+0	1.071346E+0	1.057994E+0	1.067465E+0	1.036669E+0	1.082495E+0	1.079424E+0	1.060021E+0	1.064204E+0	1.060884E+0	1.111895E+0	1.070673E+0	1.072155E+0	1.042809E+0	1.065182E+0	1.086938E+0	1.097185E+0	1.117404E+0	1.069012E+0	1.056278E+0	1.060685E+0	1.048846E+0	1.108981E+0	1.078958E+0	1.141104E+0	1.067686E+0	1.072788E+0	1.048512E+0	1.086145E+0	1.062116E+0	1.105978E+0	1.088074E+0	1.083854E+0	1.015087E+0	1.085905E+0	1.033749E+0	1.074436E+0	1.034012E+0	1.098896E+0	1.055879E+0	1.089041E+0	1.021491E+0	1.110056E+0	1.089061E+0	1.072814E+0	1.041729E+0	1.068340E+0	1.072241E+0	1.061961E+0	1.106721E+0	1.077183E+0	1.109602E+0	1.051499E+0	1.058069E+0	1.063487E+0	1.041856E+0	1.065371E+0	1.063509E+0	1.063048E+0	1.071535E+0	1.071078E+0	1.065219E+0	1.055246E+0	1.055529E+0	1.046231E+0	1.134197E+0	1.035867E+0	1.117672E+0	1.067218E+0	1.056250E+0	1.061080E+0	1.083360E+0	1.052871E+0	1.034908E+0	1.082420E+0	1.027120E+0	1.066722E+0	1.119982E+0	1.127756E+0	1.094376E+0	1.098398E+0	1.079754E+0	1.120670E+0	1.106385E+0	1.088989E+0	1.080031E+0	1.122250E+0	1.059601E+0	1.037014E+0	1.073877E+0	1.067979E+0	1.110125E+0	1.096606E+0	1.064354E+0	1.116659E+0	1.020913E+0	1.089294E+0	1.067833E+0	1.073903E+0	1.035426E+0	1.090849E+0	1.065351E+0	1.056714E+0	1.074240E+0	1.056705E+0	1.061971E+0	1.099824E+0	1.075611E+0	1.067402E+0	1.055839E+0	1.086908E+0	1.040335E+0	1.073869E+0	1.060054E+0	1.086782E+0	1.082071E+0	1.129610E+0	9.916538E-1	1.044151E+0
5.358650E+2	8.220388E-1	8.557513E-1	8.329828E-1	8.873891E-1	8.194173E-1	8.771353E-1	8.232705E-1	8.453382E-1	8.347126E-1	8.596064E-1	7.964403E-1	9.031646E-1	8.239612E-1	8.828463E-1	8.680481E-1	8.295758E-1	8.419735E-1	9.118331E-1	8.655311E-1	8.354840E-1	8.179823E-1	8.610030E-1	8.449817E-1	8.663130E-1	8.082430E-1	8.594899E-1	8.333267E-1	8.120057E-1	8.391123E-1	8.668340E-1	8.022808E-1	8.534567E-1	8.272642E-1	8.501460E-1	7.907534E-1	8.988449E-1	8.240025E-1	7.822562E-1	8.749969E-1	8.491355E-1	8.851421E-1	8.379755E-1	8.602492E-1	8.795667E-1	8.329698E-1	8.435556E-1	8.536433E-1	8.308847E-1	8.138069E-1	8.572690E-1	8.038538E-1	8.261073E-1	8.359689E-1	8.555191E-1	8.584677E-1	8.135039E-1	8.718674E-1	8.286046E-1	8.451609E-1	8.951159E-1	8.574860E-1	8.452071E-1	8.570711E-1	8.450671E-1	8.296640E-1	8.756471E-1	7.909508E-1	8.774341E-1	8.504446E-1	8.464103E-1	8.371391E-1	8.420492E-1	8.354151E-1	8.581197E-1	8.475685E-1	8.835107E-1	8.482310E-1	7.967689E-1	8.573325E-1	8.537076E-1	7.640096E-1	8.356967E-1	8.578190E-1	7.948378E-1	8.468988E-1	8.690127E-1	8.227774E-1	8.563273E-1	8.489760E-1	8.671830E-1	8.265970E-1	8.293513E-1	8.487891E-1	8.658818E-1	8.743908E-1	8.357469E-1	8.300004E-1	8.493366E-1	8.483007E-1	8.693654E-1	8.202360E-1	8.431522E-1	8.653385E-1	8.819592E-1	8.494218E-1	8.550368E-1	8.367378E-1	8.420983E-1	8.382966E-1	8.742933E-1	8.460973E-1	8.438915E-1	8.586064E-1	8.688680E-1	8.759961E-1	8.039145E-1	8.622007E-1	8.635927E-1	8.306705E-1	8.701660E-1	8.727753E-1	8.235569E-1	8.761002E-1	8.602487E-1	8.663834E-1	8.509149E-1	8.631622E-1	8.625149E-1	8.503438E-1	8.442122E-1	8.795870E-1	8.149848E-1	8.520689E-1	8.870330E-1	8.595560E-1	8.861972E-1	8.627705E-1	8.624813E-1	8.764030E-1	8.196285E-1	8.334964E-1	8.437484E-1	8.837624E-1	8.370566E-1	8.309653E-1	8.626860E-1	8.451507E-1	8.512473E-1	8.862511E-1	8.471720E-1	8.414901E-1	8.325122E-1	8.236064E-1	8.903143E-1	8.407961E-1	8.305571E-1	8.647422E-1	8.688575E-1	8.494981E-1	8.370689E-1	8.141948E-1	8.402847E-1	8.281315E-1	8.236550E-1	8.520968E-1	8.649090E-1	8.872109E-1	8.245966E-1	8.179477E-1	8.884581E-1
5.360120E+2	7.591509E-1	7.804925E-1	7.746732E-1	7.690755E-1	7.960180E-1	7.885741E-1	7.422171E-1	7.933602E-1	7.594996E-1	7.788894E-1	7.556740E-1	7.190907E-1	7.611304E-1	7.820290E-1	7.619591E-1	7.638711E-1	7.834715E-1	7.826270E-1	7.873764E-1	7.470719E-1	7.530001E-1	8.078926E-1	7.594139E-1	7.495858E-1	7.613216E-1	7.549756E-1	7.537582E-1	7.818347E-1	7.252422E-1	7.648663E-1	7.840929E-1	7.554829E-1	7.328240E-1	7.929543E-1	7.748865E-1	7.200736E-1	7.339048E-1	7.837877E-1	7.789610E-1	7.724778E-1	7.856892E-1	8.086249E-1	7.575714E-1	7.929340E-1	7.388072E-1	7.860566E-1	7.510696E-1	7.684742E-1	7.442593E-1	7.778509E-1	7.854823E-1	7.793635E-1	7.235432E-1	7.400284E-1	7.980892E-1	7.936279E-1	7.584461E-1	7.315112E-1	7.517493E-1	7.529161E-1	7.372129E-1	7.707977E-1	7.722118E-1	7.697405E-1	7.479358E-1	7.476562E-1	7.231966E-1	7.675826E-1	8.062735E-1	7.469131E-1	7.457658E-1	7.784131E-1	7.622141E-1	7.501412E-1	7.586190E-1	7.755527E-1	7.714161E-1	7.472006E-1	7.606151E-1	7.588566E-1	7.321887E-1	7.906703E-1	7.666920E-1	7.868828E-1	7.546822E-1	8.083290E-1	7.770883E-1	7.456694E-1	7.536883E-1	7.676227E-1	7.875189E-1	7.566103E-1	7.303756E-1	7.838735E-1	7.439184E-1	7.287991E-1	7.617699E-1	7.980028E-1	7.532961E-1	7.610485E-1	8.014039E-1	7.247138E-1	7.830401E-1	7.706324E-1	7.995306E-1	7.737547E-1	7.535093E-1	7.425339E-1	7.608330E-1	7.823961E-1	7.452075E-1	7.886436E-1	7.632677E-1	7.648439E-1	7.669195E-1	7.492295E-1	7.501938E-1	7.807100E-1	7.848592E-1	7.558484E-1	7.290423E-1	7.970738E-1	7.783878E-1	7.489287E-1	7.419594E-1	7.777138E-1	7.816617E-1	8.065057E-1	8.150106E-1	7.581647E-1	7.665666E-1	7.855916E-1	8.060869E-1	7.530519E-1	7.759809E-1	7.503459E-1	7.878536E-1	7.339986E-1	7.413051E-1	7.519007E-1	7.758942E-1	7.774822E-1	7.803145E-1	7.368032E-1	7.601999E-1	8.156301E-1	8.038522E-1	7.204200E-1	7.663570E-1	7.606687E-1	7.617829E-1	7.664516E-1	7.309165E-1	7.991775E-1	7.522919E-1	7.605241E-1	7.974769E-1	7.916726E-1	7.684272E-1	7.984728E-1	7.454027E-1	7.819049E-1	7.741080E-1	7.920552E-1	8.047678E-1	8.023100E-1	7.975479E-1	7.668868E-1	7.584031E-1	7.257329E-1
5.362680E+2	5.896156E-1	5.979596E-1	6.286260E-1	6.377496E-1	5.829508E-1	6.137443E-1	6.016437E-1	6.039253E-1	6.473160E-1	6.122798E-1	6.088323E-1	6.293443E-1	6.255608E-1	5.907662E-1	6.468468E-1	5.895334E-1	6.046518E-1	5.912524E-1	6.567941E-1	5.609875E-1	5.836582E-1	6.402303E-1	6.234709E-1	6.090787E-1	5.673187E-1	6.284419E-1	6.515236E-1	5.886840E-1	5.899829E-1	5.867807E-1	5.775206E-1	6.002703E-1	6.240503E-1	6.081288E-1	5.787728E-1	5.862368E-1	6.553687E-1	6.089922E-1	6.339496E-1	5.896275E-1	5.998157E-1	5.832744E-1	6.196480E-1	5.833340E-1	6.020245E-1	6.106092E-1	6.372722E-1	5.985666E-1	5.699824E-1	6.085169E-1	5.879462E-1	6.308570E-1	6.229789E-1	5.930370E-1	6.431095E-1	6.089290E-1	6.021986E-1	6.468740E-1	6.308582E-1	5.862819E-1	6.057091E-1	5.884705E-1	6.137890E-1	5.963809E-1	6.122001E-1	6.473308E-1	5.887901E-1	6.067399E-1	6.294116E-1	6.191111E-1	6.429040E-1	6.040913E-1	6.373652E-1	6.362960E-1	6.035444E-1	6.476426E-1	5.850799E-1	6.508178E-1	5.919478E-1	6.066405E-1	6.120618E-1	5.547745E-1	6.192312E-1	6.204524E-1	5.800513E-1	6.290849E-1	6.114548E-1	6.215624E-1	5.747202E-1	5.920137E-1	5.814249E-1	6.140169E-1	6.193210E-1	6.177227E-1	6.079398E-1	5.928124E-1	6.160396E-1	6.176239E-1	5.835929E-1	6.140360E-1	6.352316E-1	6.398918E-1	5.936682E-1	6.233744E-1	5.890064E-1	6.192308E-1	6.198157E-1	6.262020E-1	6.226885E-1	6.235833E-1	5.922206E-1	6.282765E-1	5.755815E-1	6.301098E-1	6.523377E-1	5.746791E-1	6.096332E-1	5.909488E-1	6.502715E-1	6.215933E-1	6.060154E-1	6.022862E-1	6.331957E-1	6.125722E-1	6.184123E-1	6.258724E-1	6.099174E-1	6.038331E-1	6.556620E-1	6.104599E-1	6.115351E-1	5.641136E-1	6.223868E-1	6.208754E-1	6.031689E-1	6.111545E-1	6.092206E-1	6.089623E-1	6.339838E-1	6.470498E-1	5.978506E-1	6.222160E-1	5.974239E-1	6.166180E-1	6.312817E-1	6.161264E-1	6.304583E-1	6.436418E-1	6.083694E-1	6.165663E-1	6.167726E-1	6.393566E-1	6.446675E-1	6.431028E-1	6.050525E-1	6.013455E-1	5.847301E-1	6.288089E-1	6.204503E-1	6.265059E-1	6.130687E-1	6.324476E-1	6.135321E-1	6.166608E-1	6.160558E-1	6.061407E-1	6.314546E-1	6.093194E-1	6.344119E-1	6.003859E-1
5.365140E+2	4.557888E-1	4.488855E-1	4.829578E-1	4.634591E-1	5.018341E-1	5.032492E-1	4.937241E-1	4.688028E-1	5.039747E-1	4.782077E-1	4.834339E-1	5.314498E-1	4.928071E-1	4.751787E-1	5.280631E-1	4.660332E-1	4.678713E-1	4.686867E-1	5.316867E-1	4.900902E-1	4.843194E-1	4.551421E-1	5.148837E-1	5.020621E-1	4.833076E-1	4.687602E-1	4.507613E-1	4.851117E-1	4.832761E-1	4.650135E-1	4.739269E-1	5.017253E-1	4.754795E-1	4.823759E-1	4.750332E-1	5.242108E-1	4.858150E-1	4.933586E-1	4.763863E-1	4.691320E-1	5.276898E-1	5.188830E-1	5.293471E-1	5.036188E-1	5.101620E-1	4.962158E-1	5.081820E-1	4.645477E-1	5.319649E-1	4.721867E-1	4.871290E-1	4.854330E-1	4.809613E-1	4.975985E-1	4.866837E-1	4.772504E-1	4.879131E-1	4.884124E-1	4.831858E-1	5.021347E-1	4.661448E-1	5.104006E-1	4.818615E-1	4.949737E-1	5.006628E-1	5.039817E-1	4.716155E-1	4.795671E-1	4.969334E-1	4.948442E-1	4.801082E-1	4.680173E-1	4.769955E-1	5.134050E-1	4.659413E-1	4.950738E-1	4.886640E-1	4.686904E-1	4.868518E-1	4.734451E-1	4.816867E-1	5.239871E-1	5.208207E-1	4.591039E-1	5.119944E-1	4.984371E-1	4.683805E-1	4.947411E-1	5.089141E-1	4.747519E-1	4.889500E-1	4.790659E-1	4.887494E-1	4.968226E-1	4.618039E-1	4.738802E-1	5.121205E-1	5.073599E-1	4.860888E-1	4.828792E-1	4.885358E-1	4.982952E-1	4.781699E-1	4.924444E-1	5.124822E-1	5.114740E-1	4.893404E-1	4.913334E-1	5.279883E-1	5.038879E-1	4.757516E-1	5.121736E-1	4.778341E-1	4.844480E-1	4.950077E-1	5.044779E-1	4.930075E-1	4.977787E-1	4.914666E-1	4.857418E-1	4.847996E-1	5.390581E-1	5.140560E-1	4.789391E-1	4.956434E-1	5.128300E-1	4.958260E-1	4.738188E-1	5.007068E-1	4.962573E-1	4.708482E-1	5.017882E-1	5.178671E-1	4.797191E-1	4.962194E-1	5.281505E-1	4.889524E-1	5.107624E-1	4.932921E-1	4.823553E-1	4.792537E-1	5.248887E-1	5.300552E-1	4.885288E-1	5.060637E-1	5.032467E-1	4.785267E-1	4.987257E-1	4.792684E-1	5.163533E-1	4.959919E-1	4.755344E-1	4.933443E-1	4.928839E-1	4.994272E-1	4.975687E-1	5.029940E-1	5.079631E-1	4.854684E-1	4.618242E-1	4.869543E-1	5.024237E-1	4.868005E-1	4.958936E-1	4.855031E-1	4.784205E-1	4.634758E-1	5.066752E-1	4.536649E-1	5.190559E-1
5.367710E+2	4.929470E-1	4.870282E-1	5.146583E-1	4.828981E-1	4.969538E-1	5.097666E-1	4.821798E-1	5.200985E-1	4.884761E-1	4.826077E-1	4.886873E-1	5.328919E-1	5.138596E-1	4.953214E-1	5.102828E-1	4.868472E-1	4.701591E-1	5.366975E-1	4.975395E-1	4.795869E-1	5.216183E-1	4.982177E-1	5.278568E-1	4.917947E-1	5.359125E-1	5.240116E-1	4.955251E-1	5.299767E-1	5.201211E-1	5.124539E-1	4.855370E-1	5.053905E-1	4.915418E-1	4.965333E-1	5.229038E-1	4.825955E-1	5.233272E-1	4.952685E-1	5.172125E-1	4.825650E-1	5.144520E-1	4.756927E-1	5.172152E-1	4.998227E-1	5.095667E-1	5.283929E-1	5.144844E-1	4.813700E-1	5.105392E-1	4.724020E-1	5.052173E-1	5.069849E-1	4.992216E-1	5.079729E-1	5.335709E-1	4.999258E-1	4.912505E-1	5.121876E-1	5.291142E-1	5.157551E-1	5.278621E-1	5.047952E-1	5.426412E-1	5.143500E-1	4.685020E-1	4.905043E-1	4.645883E-1	5.417048E-1	4.791764E-1	5.301591E-1	4.970457E-1	5.130874E-1	5.237879E-1	5.647192E-1	5.097635E-1	5.047325E-1	4.916063E-1	4.948415E-1	4.912041E-1	5.187564E-1	4.660629E-1	4.973503E-1	4.914710E-1	4.749941E-1	5.044299E-1	5.192357E-1	5.259426E-1	5.285058E-1	5.180243E-1	5.122614E-1	4.973873E-1	4.874697E-1	5.170574E-1	5.215435E-1	5.277713E-1	5.143973E-1	5.123084E-1	5.038530E-1	5.219431E-1	5.073929E-1	4.945219E-1	5.193348E-1	5.054244E-1	5.023958E-1	4.909273E-1	5.104466E-1	4.883112E-1	4.958486E-1	5.236353E-1	4.916824E-1	5.072886E-1	5.069634E-1	5.183751E-1	4.977952E-1	5.168131E-1	4.976437E-1	5.182109E-1	5.236112E-1	5.055763E-1	4.800063E-1	5.214599E-1	5.013742E-1	5.019828E-1	4.773196E-1	4.735104E-1	4.901191E-1	4.909868E-1	4.891450E-1	5.124312E-1	5.223010E-1	5.012984E-1	5.031382E-1	5.014231E-1	4.969672E-1	4.876004E-1	5.172438E-1	5.078988E-1	5.322126E-1	4.931490E-1	5.190046E-1	4.793375E-1	5.142177E-1	5.006188E-1	5.286465E-1	4.763262E-1	5.013764E-1	5.207973E-1	5.245327E-1	5.209934E-1	5.183053E-1	5.117993E-1	4.884120E-1	4.963122E-1	5.006638E-1	5.003433E-1	4.882175E-1	5.108470E-1	5.000135E-1	5.323905E-1	5.263405E-1	4.838390E-1	5.019997E-1	5.203249E-1	4.774762E-1	4.945557E-1	5.201963E-1	4.968023E-1	4.840946E-1	5.123670E-1	4.981680E-1
5.370170E+2	5.480461E-1	5.557160E-1	5.738925E-1	5.669171E-1	5.431737E-1	5.759172E-1	5.485790E-1	5.302461E-1	4.946752E-1	5.387354E-1	5.672152E-1	5.581113E-1	5.404816E-1	5.447554E-1	5.738654E-1	5.241979E-1	5.329997E-1	5.194734E-1	5.449558E-1	5.409296E-1	5.643855E-1	5.385243E-1	5.432444E-1	5.220133E-1	5.625372E-1	5.629999E-1	5.582143E-1	5.630358E-1	5.746749E-1	5.536091E-1	5.587625E-1	5.526857E-1	5.398356E-1	5.555314E-1	5.009075E-1	5.449486E-1	5.847715E-1	5.498732E-1	5.605684E-1	5.558252E-1	5.610048E-1	5.726361E-1	5.639982E-1	5.339643E-1	5.365263E-1	5.426531E-1	5.030268E-1	5.434438E-1	5.335649E-1	5.594263E-1	6.038392E-1	5.423274E-1	5.571570E-1	5.470106E-1	5.654526E-1	5.399597E-1	5.185515E-1	5.382913E-1	5.165396E-1	5.548473E-1	5.559930E-1	5.420942E-1	5.798863E-1	5.378324E-1	5.558389E-1	5.432314E-1	5.397252E-1	5.400632E-1	5.644343E-1	5.216038E-1	5.256691E-1	5.645256E-1	5.479703E-1	5.673224E-1	5.856666E-1	5.514953E-1	5.448940E-1	5.602459E-1	5.554699E-1	5.579187E-1	5.310942E-1	5.481498E-1	5.704584E-1	5.926602E-1	5.144171E-1	5.969422E-1	5.206727E-1	5.443703E-1	5.560140E-1	5.631863E-1	5.536569E-1	5.567936E-1	5.557058E-1	5.409840E-1	5.372596E-1	5.499670E-1	5.215419E-1	5.637422E-1	5.545296E-1	5.334992E-1	5.773227E-1	5.518951E-1	5.407348E-1	5.521496E-1	5.626409E-1	5.211234E-1	5.675606E-1	5.771854E-1	5.388033E-1	5.504261E-1	5.570294E-1	5.427201E-1	5.405757E-1	5.217480E-1	5.517200E-1	5.671045E-1	5.545922E-1	5.452906E-1	5.600195E-1	5.913950E-1	5.241135E-1	5.314938E-1	5.527172E-1	5.499717E-1	5.524982E-1	5.660663E-1	5.274759E-1	5.367950E-1	5.462143E-1	5.666106E-1	5.745110E-1	5.142112E-1	5.600995E-1	5.623760E-1	5.557906E-1	5.533134E-1	5.717088E-1	5.482091E-1	5.614075E-1	5.384149E-1	5.160308E-1	5.713051E-1	5.439278E-1	5.540780E-1	5.489829E-1	5.554695E-1	5.755146E-1	5.413706E-1	5.205014E-1	5.238042E-1	5.395373E-1	5.695634E-1	5.724572E-1	5.610434E-1	5.736856E-1	5.549634E-1	5.585913E-1	5.757457E-1	5.992371E-1	5.744469E-1	5.437781E-1	5.467306E-1	5.399484E-1	5.736507E-1	5.602500E-1	5.510334E-1	5.583604E-1	5.499787E-1	5.322849E-1	5.499550E-1
5.372640E+2	5.734976E-1	5.702784E-1	6.082659E-1	6.168528E-1	6.062222E-1	5.836697E-1	6.165576E-1	5.690868E-1	6.086285E-1	6.019825E-1	6.223946E-1	6.008380E-1	6.239051E-1	5.547657E-1	5.801045E-1	5.899300E-1	6.202319E-1	6.137100E-1	6.060504E-1	5.280660E-1	5.821719E-1	5.838247E-1	6.061923E-1	5.938527E-1	6.156836E-1	5.862240E-1	6.081599E-1	5.851899E-1	6.249670E-1	6.095717E-1	5.830328E-1	6.354227E-1	5.950500E-1	5.758967E-1	6.054337E-1	6.261149E-1	5.967985E-1	5.929568E-1	6.304618E-1	5.825197E-1	6.031267E-1	6.409018E-1	6.014873E-1	5.853465E-1	5.856707E-1	5.903165E-1	5.953658E-1	5.926939E-1	5.891706E-1	5.708017E-1	6.282013E-1	6.157621E-1	5.894698E-1	5.936911E-1	5.937166E-1	5.943955E-1	5.729045E-1	6.051643E-1	5.714032E-1	6.030807E-1	5.787802E-1	6.072715E-1	6.121553E-1	6.013504E-1	5.962914E-1	6.262152E-1	5.737229E-1	6.089280E-1	5.947027E-1	6.196582E-1	5.805490E-1	5.849497E-1	5.832388E-1	5.854861E-1	6.219040E-1	6.058575E-1	5.860072E-1	5.868993E-1	6.171669E-1	6.178396E-1	5.526083E-1	6.256185E-1	6.116725E-1	6.189011E-1	5.943115E-1	6.360609E-1	5.922819E-1	6.049670E-1	5.994951E-1	5.939558E-1	5.885050E-1	6.213937E-1	5.825561E-1	5.782287E-1	6.246081E-1	5.507765E-1	5.923155E-1	6.008027E-1	6.039116E-1	5.673603E-1	6.006574E-1	6.188350E-1	6.061231E-1	6.259862E-1	5.972195E-1	5.856671E-1	6.045635E-1	5.779317E-1	6.256769E-1	6.396465E-1	5.971320E-1	6.508913E-1	5.918064E-1	5.924161E-1	5.729242E-1	5.750857E-1	6.268346E-1	6.117315E-1	6.139219E-1	5.894337E-1	6.018428E-1	5.913858E-1	6.252182E-1	6.171261E-1	6.025197E-1	6.131877E-1	6.151421E-1	6.349737E-1	5.695718E-1	5.885349E-1	6.190498E-1	5.963569E-1	6.166174E-1	6.022059E-1	5.934960E-1	6.331199E-1	6.227431E-1	6.173927E-1	6.003093E-1	5.886252E-1	6.094046E-1	6.009710E-1	6.140840E-1	5.932142E-1	6.191013E-1	5.781473E-1	6.096247E-1	5.965590E-1	6.136283E-1	5.986425E-1	5.903805E-1	6.036552E-1	6.055301E-1	5.874210E-1	6.492666E-1	5.980262E-1	6.007866E-1	6.216112E-1	6.425408E-1	5.833781E-1	5.938972E-1	5.899431E-1	6.080321E-1	6.323711E-1	5.931850E-1	6.110909E-1	6.044777E-1	5.981912E-1	5.830604E-1	5.647595E-1
5.375160E+2	6.502456E-1	6.437102E-1	6.403090E-1	6.750869E-1	6.839285E-1	6.858669E-1	6.944180E-1	6.679790E-1	6.696290E-1	6.721302E-1	6.607185E-1	6.813874E-1	6.540946E-1	6.768942E-1	6.899043E-1	6.602422E-1	6.604852E-1	6.498801E-1	6.847164E-1	6.722832E-1	6.799802E-1	6.295242E-1	6.818034E-1	6.617148E-1	7.303712E-1	6.409979E-1	6.482205E-1	6.931973E-1	6.840479E-1	6.467840E-1	7.094625E-1	6.919301E-1	7.113213E-1	6.917957E-1	6.688258E-1	7.196852E-1	6.716169E-1	6.873592E-1	6.830529E-1	6.843896E-1	6.775615E-1	6.894372E-1	6.686010E-1	6.693926E-1	6.606264E-1	6.726898E-1	6.741452E-1	6.875681E-1	6.558008E-1	6.266667E-1	6.740940E-1	6.834944E-1	6.716699E-1	6.447212E-1	6.914292E-1	6.700247E-1	6.642258E-1	6.834872E-1	7.143760E-1	6.852491E-1	6.629380E-1	6.956986E-1	6.890389E-1	6.720314E-1	6.620743E-1	6.127460E-1	6.636341E-1	6.662998E-1	6.979607E-1	6.740092E-1	6.581208E-1	6.685500E-1	6.890054E-1	6.675420E-1	6.720652E-1	7.318823E-1	6.692535E-1	6.675696E-1	6.986614E-1	6.980094E-1	6.660453E-1	6.877446E-1	6.545280E-1	6.667038E-1	6.503021E-1	7.061625E-1	6.517984E-1	6.822339E-1	6.893015E-1	6.867885E-1	6.955519E-1	7.068599E-1	6.812025E-1	6.499182E-1	6.868260E-1	6.734001E-1	6.723533E-1	6.752940E-1	6.871542E-1	6.527465E-1	6.703640E-1	7.141834E-1	6.643028E-1	6.561479E-1	6.902168E-1	6.750769E-1	6.938817E-1	7.033793E-1	6.457938E-1	6.613553E-1	7.043411E-1	6.736396E-1	6.247212E-1	6.564034E-1	6.493012E-1	6.457115E-1	6.970072E-1	6.542345E-1	6.724090E-1	6.663758E-1	6.769079E-1	6.537949E-1	7.095680E-1	6.895851E-1	6.676665E-1	6.833627E-1	6.502827E-1	6.869566E-1	7.264200E-1	6.485557E-1	6.999555E-1	6.803843E-1	6.609533E-1	7.100063E-1	6.727238E-1	6.548485E-1	7.029115E-1	6.441840E-1	6.879740E-1	6.779653E-1	6.587901E-1	6.806678E-1	6.714619E-1	6.619359E-1	7.153917E-1	7.189687E-1	6.819550E-1	6.357440E-1	6.636970E-1	6.386578E-1	6.938053E-1	7.051610E-1	6.875208E-1	6.691010E-1	6.979248E-1	6.588207E-1	6.738548E-1	6.639073E-1	7.110238E-1	6.772272E-1	6.332715E-1	6.627363E-1	7.095547E-1	6.820918E-1	6.660716E-1	7.082868E-1	7.003040E-1	7.098640E-1	6.065035E-1	6.832585E-1
5.377630E+2	8.040264E-1	8.246042E-1	7.890028E-1	7.766235E-1	8.327599E-1	8.034134E-1	8.472403E-1	8.480543E-1	8.302072E-1	7.964418E-1	7.988892E-1	8.703238E-1	7.824839E-1	8.002393E-1	8.452638E-1	8.044271E-1	8.221384E-1	8.145657E-1	8.055759E-1	8.244994E-1	8.201394E-1	8.175989E-1	8.164922E-1	8.205443E-1	8.377691E-1	8.083345E-1	8.572138E-1	7.816204E-1	8.413148E-1	8.185354E-1	8.531019E-1	8.475503E-1	8.158873E-1	8.427726E-1	8.059519E-1	8.120711E-1	8.358061E-1	8.625080E-1	8.050892E-1	8.505160E-1	8.404475E-1	8.455552E-1	8.126921E-1	7.896832E-1	7.966313E-1	8.238056E-1	8.049713E-1	8.105067E-1	8.317321E-1	8.540976E-1	8.110876E-1	8.002340E-1	8.112775E-1	8.402662E-1	8.181859E-1	8.024149E-1	8.026584E-1	8.548306E-1	8.216705E-1	8.723259E-1	7.880480E-1	8.472282E-1	8.204129E-1	7.875000E-1	7.995556E-1	8.384690E-1	8.532515E-1	8.101221E-1	8.445199E-1	8.344936E-1	8.112420E-1	8.167576E-1	8.147262E-1	7.995460E-1	8.592061E-1	8.412398E-1	8.466392E-1	8.012106E-1	8.300353E-1	8.296563E-1	7.303985E-1	8.395812E-1	8.392764E-1	8.435638E-1	8.307694E-1	8.423237E-1	8.057549E-1	8.092134E-1	8.148970E-1	8.315433E-1	7.827503E-1	8.334372E-1	8.049728E-1	8.059976E-1	8.349384E-1	7.971136E-1	8.319746E-1	7.626845E-1	8.337154E-1	7.989484E-1	8.383272E-1	8.271437E-1	8.168839E-1	8.750404E-1	8.429694E-1	8.321302E-1	7.992222E-1	8.270934E-1	8.188811E-1	8.208263E-1	8.076678E-1	8.166489E-1	8.342513E-1	8.074322E-1	8.038200E-1	8.027396E-1	8.454538E-1	8.316004E-1	8.178943E-1	7.760959E-1	8.308498E-1	8.156069E-1	8.451315E-1	7.988128E-1	7.933981E-1	8.291020E-1	8.738930E-1	7.932271E-1	8.257329E-1	8.336372E-1	8.346536E-1	8.190470E-1	8.448915E-1	8.374597E-1	8.499797E-1	8.424932E-1	8.233395E-1	8.622601E-1	8.428745E-1	7.788367E-1	7.933130E-1	8.351001E-1	8.223663E-1	8.189131E-1	8.046983E-1	8.242970E-1	8.439318E-1	8.389546E-1	7.737947E-1	8.221547E-1	8.422429E-1	8.115850E-1	7.917124E-1	8.189890E-1	8.189591E-1	7.716969E-1	8.055773E-1	8.013984E-1	8.399155E-1	8.112105E-1	8.244508E-1	8.079646E-1	8.248574E-1	8.290315E-1	8.167360E-1	8.218301E-1	8.031895E-1	8.496380E-1	7.765758E-1	8.099984E-1
5.380160E+2	9.256340E-1	9.227095E-1	9.198252E-1	9.511181E-1	9.432749E-1	9.538092E-1	9.118818E-1	9.166916E-1	9.502300E-1	8.977990E-1	9.089045E-1	9.233743E-1	9.338044E-1	8.775839E-1	9.378827E-1	8.876016E-1	9.116743E-1	9.076804E-1	9.088651E-1	8.890121E-1	9.412543E-1	9.285070E-1	9.354834E-1	9.126390E-1	9.887349E-1	9.320397E-1	9.274137E-1	9.284374E-1	9.240385E-1	9.233792E-1	9.149290E-1	9.612612E-1	9.388395E-1	9.047931E-1	9.194292E-1	9.221121E-1	9.448396E-1	9.058516E-1	9.182389E-1	8.912609E-1	9.427888E-1	9.520708E-1	9.333381E-1	9.528449E-1	9.275742E-1	9.619309E-1	9.651754E-1	8.970933E-1	9.338221E-1	9.073649E-1	1.002957E+0	9.490863E-1	9.123863E-1	9.178621E-1	9.543227E-1	9.299822E-1	9.241518E-1	9.617214E-1	9.512342E-1	9.526713E-1	9.151046E-1	9.481112E-1	9.540745E-1	9.375870E-1	8.930852E-1	8.823606E-1	9.121096E-1	9.095096E-1	9.792583E-1	9.518668E-1	9.319398E-1	9.397493E-1	8.686864E-1	9.467023E-1	9.212226E-1	9.169327E-1	9.291821E-1	9.118066E-1	9.134991E-1	9.016624E-1	8.936509E-1	9.365283E-1	9.205578E-1	9.125485E-1	8.969665E-1	9.103944E-1	9.554130E-1	9.659505E-1	9.315198E-1	9.057571E-1	9.210498E-1	9.489757E-1	8.998495E-1	8.936030E-1	9.573514E-1	8.780201E-1	9.129723E-1	9.280584E-1	9.218222E-1	9.319312E-1	9.483415E-1	9.466821E-1	9.451750E-1	9.427741E-1	8.666310E-1	8.752359E-1	8.994387E-1	9.290986E-1	9.197378E-1	9.365098E-1	9.252980E-1	9.330403E-1	9.127675E-1	9.038515E-1	9.267286E-1	9.010029E-1	9.463204E-1	9.201147E-1	9.220697E-1	9.400716E-1	9.380205E-1	9.124952E-1	9.301222E-1	9.328246E-1	9.244103E-1	8.928223E-1	9.514907E-1	9.837083E-1	9.528991E-1	9.326805E-1	8.986059E-1	8.830103E-1	9.817081E-1	9.518026E-1	9.198028E-1	9.487210E-1	9.335340E-1	9.415926E-1	1.001897E+0	8.748653E-1	8.821561E-1	9.222631E-1	9.123046E-1	9.286006E-1	9.441751E-1	9.584947E-1	9.382982E-1	9.268715E-1	9.145544E-1	9.157609E-1	9.419107E-1	9.342362E-1	9.308183E-1	9.113332E-1	9.407039E-1	9.518160E-1	9.517372E-1	9.107300E-1	9.229725E-1	9.533418E-1	9.055923E-1	9.218682E-1	9.397419E-1	9.477851E-1	8.937194E-1	8.955296E-1	9.606451E-1	9.219075E-1	8.777067E-1	8.539923E-1
5.382900E+2	1.114647E+0	1.123319E+0	1.119059E+0	1.133232E+0	1.116158E+0	1.159793E+0	1.091731E+0	1.122398E+0	1.125082E+0	1.169398E+0	1.133766E+0	1.225506E+0	1.153395E+0	1.158288E+0	1.078566E+0	1.162845E+0	1.173052E+0	1.082607E+0	1.165969E+0	1.118412E+0	1.130305E+0	1.163868E+0	1.103564E+0	1.111966E+0	1.187250E+0	1.202429E+0	1.135710E+0	1.187899E+0	1.166007E+0	1.118724E+0	1.081483E+0	1.147192E+0	1.129768E+0	1.146698E+0	1.122837E+0	1.104712E+0	1.148760E+0	1.159427E+0	1.124722E+0	1.118829E+0	1.170449E+0	1.122307E+0	1.176942E+0	1.116886E+0	1.127154E+0	1.142365E+0	1.133443E+0	1.077709E+0	1.113729E+0	1.134286E+0	1.162171E+0	1.168286E+0	1.112593E+0	1.102444E+0	1.186709E+0	1.092445E+0	1.131943E+0	1.146873E+0	1.138506E+0	1.145961E+0	1.131491E+0	1.110997E+0	1.187732E+0	1.142443E+0	1.120879E+0	1.146931E+0	1.112778E+0	1.205275E+0	1.165040E+0	1.214147E+0	1.127993E+0	1.098836E+0	1.068610E+0	1.164958E+0	1.150778E+0	1.180824E+0	1.132348E+0	1.087186E+0	1.137294E+0	1.148433E+0	1.084171E+0	1.133448E+0	1.155273E+0	1.204314E+0	1.137877E+0	1.195345E+0	1.119880E+0	1.136519E+0	1.143601E+0	1.140055E+0	1.112437E+0	1.162349E+0	1.149814E+0	1.146374E+0	1.157171E+0	1.154806E+0	1.137551E+0	1.136709E+0	1.193150E+0	1.150652E+0	1.146503E+0	1.134048E+0	1.123887E+0	1.128339E+0	1.115759E+0	1.106270E+0	1.122638E+0	1.122973E+0	1.125695E+0	1.150440E+0	1.190107E+0	1.138420E+0	1.145490E+0	1.062650E+0	1.142954E+0	1.114897E+0	1.164695E+0	1.117972E+0	1.123315E+0	1.137232E+0	1.125971E+0	1.110506E+0	1.163292E+0	1.149253E+0	1.133916E+0	1.147299E+0	1.164707E+0	1.131258E+0	1.173179E+0	1.156678E+0	1.134652E+0	1.112876E+0	1.143080E+0	1.166580E+0	1.130352E+0	1.143034E+0	1.149207E+0	1.136787E+0	1.147034E+0	1.166331E+0	1.122635E+0	1.139361E+0	1.188257E+0	1.137685E+0	1.149921E+0	1.158135E+0	1.091081E+0	1.190832E+0	1.147327E+0	1.131772E+0	1.137292E+0	1.138232E+0	1.127949E+0	1.179243E+0	1.187671E+0	1.091472E+0	1.117798E+0	1.100208E+0	1.131980E+0	1.139196E+0	1.128131E+0	1.155604E+0	1.118230E+0	1.150191E+0	1.124740E+0	1.147987E+0	1.145879E+0	1.136064E+0	1.080579E+0	1.027316E+0
5.385110E+2	1.290083E+0	1.350012E+0	1.302870E+0	1.332842E+0	1.299327E+0	1.286079E+0	1.302950E+0	1.280908E+0	1.313535E+0	1.291262E+0	1.285168E+0	1.300970E+0	1.302382E+0	1.319267E+0	1.366844E+0	1.314920E+0	1.314949E+0	1.324411E+0	1.297351E+0	1.305063E+0	1.314970E+0	1.361836E+0	1.340380E+0	1.289424E+0	1.324823E+0	1.321461E+0	1.344577E+0	1.309362E+0	1.358235E+0	1.297381E+0	1.310232E+0	1.309312E+0	1.356285E+0	1.326197E+0	1.299091E+0	1.360572E+0	1.326068E+0	1.308983E+0	1.316234E+0	1.334406E+0	1.366534E+0	1.331307E+0	1.366781E+0	1.369418E+0	1.362582E+0	1.326617E+0	1.288134E+0	1.279572E+0	1.340343E+0	1.325731E+0	1.320563E+0	1.302711E+0	1.366103E+0	1.333599E+0	1.326901E+0	1.275685E+0	1.277911E+0	1.338285E+0	1.326814E+0	1.338826E+0	1.342484E+0	1.357028E+0	1.263196E+0	1.342705E+0	1.293649E+0	1.290160E+0	1.311262E+0	1.321738E+0	1.361310E+0	1.347824E+0	1.318605E+0	1.273321E+0	1.298556E+0	1.333884E+0	1.329576E+0	1.341052E+0	1.322458E+0	1.344165E+0	1.294441E+0	1.294702E+0	1.286651E+0	1.328244E+0	1.322486E+0	1.319282E+0	1.322034E+0	1.338876E+0	1.326081E+0	1.319072E+0	1.296715E+0	1.370316E+0	1.276769E+0	1.357330E+0	1.265462E+0	1.291680E+0	1.272282E+0	1.300716E+0	1.264617E+0	1.323662E+0	1.313356E+0	1.298746E+0	1.311490E+0	1.289207E+0	1.347288E+0	1.333914E+0	1.292920E+0	1.296999E+0	1.317038E+0	1.298381E+0	1.315978E+0	1.295031E+0	1.296897E+0	1.328608E+0	1.322905E+0	1.233640E+0	1.286270E+0	1.349596E+0	1.343739E+0	1.244117E+0	1.351994E+0	1.376661E+0	1.284634E+0	1.278207E+0	1.324896E+0	1.275707E+0	1.284110E+0	1.273717E+0	1.317804E+0	1.305912E+0	1.331169E+0	1.309005E+0	1.288156E+0	1.329714E+0	1.293314E+0	1.320770E+0	1.311318E+0	1.337211E+0	1.274211E+0	1.376459E+0	1.302485E+0	1.289460E+0	1.333238E+0	1.285443E+0	1.307104E+0	1.251414E+0	1.328144E+0	1.386851E+0	1.323235E+0	1.292184E+0	1.296374E+0	1.263873E+0	1.270361E+0	1.307800E+0	1.249129E+0	1.336964E+0	1.294510E+0	1.331849E+0	1.304399E+0	1.287572E+0	1.362620E+0	1.328897E+0	1.306425E+0	1.274593E+0	1.274241E+0	1.303373E+0	1.267122E+0	1.308907E+0	1.292181E+0	1.261907E+0	1.297856E+0	1.282106E+0
5.387700E+2	1.549466E+0	1.540402E+0	1.548426E+0	1.574943E+0	1.605377E+0	1.551439E+0	1.557847E+0	1.624387E+0	1.571425E+0	1.526207E+0	1.576014E+0	1.626367E+0	1.568211E+0	1.566382E+0	1.576509E+0	1.588013E+0	1.488696E+0	1.577666E+0	1.588217E+0	1.562305E+0	1.568374E+0	1.593105E+0	1.566553E+0	1.517609E+0	1.576412E+0	1.496593E+0	1.577795E+0	1.602232E+0	1.582371E+0	1.570751E+0	1.567239E+0	1.538967E+0	1.536526E+0	1.590843E+0	1.563463E+0	1.613178E+0	1.562300E+0	1.586480E+0	1.579151E+0	1.545696E+0	1.625240E+0	1.576382E+0	1.541846E+0	1.556687E+0	1.580417E+0	1.567199E+0	1.553339E+0	1.545115E+0	1.598529E+0	1.534819E+0	1.572659E+0	1.544313E+0	1.530547E+0	1.561414E+0	1.559216E+0	1.606687E+0	1.529896E+0	1.630091E+0	1.653451E+0	1.568082E+0	1.532941E+0	1.539214E+0	1.563272E+0	1.572254E+0	1.567461E+0	1.609205E+0	1.492003E+0	1.546482E+0	1.604438E+0	1.586076E+0	1.589108E+0	1.543710E+0	1.551937E+0	1.600634E+0	1.556800E+0	1.641207E+0	1.487950E+0	1.503836E+0	1.538971E+0	1.568558E+0	1.539027E+0	1.524883E+0	1.612016E+0	1.565694E+0	1.511587E+0	1.605647E+0	1.549767E+0	1.507905E+0	1.546958E+0	1.574457E+0	1.549606E+0	1.561325E+0	1.560283E+0	1.516740E+0	1.579344E+0	1.539026E+0	1.482120E+0	1.478158E+0	1.576847E+0	1.562948E+0	1.593429E+0	1.493170E+0	1.551499E+0	1.574317E+0	1.561907E+0	1.531127E+0	1.492728E+0	1.585960E+0	1.571310E+0	1.496358E+0	1.536751E+0	1.567268E+0	1.531353E+0	1.508189E+0	1.533195E+0	1.446948E+0	1.605094E+0	1.608561E+0	1.572659E+0	1.529263E+0	1.542856E+0	1.533136E+0	1.620218E+0	1.512338E+0	1.488841E+0	1.549720E+0	1.609255E+0	1.535515E+0	1.572957E+0	1.553953E+0	1.504451E+0	1.506851E+0	1.533624E+0	1.505375E+0	1.530007E+0	1.527389E+0	1.580961E+0	1.525581E+0	1.551235E+0	1.460983E+0	1.560097E+0	1.461104E+0	1.547127E+0	1.533128E+0	1.554423E+0	1.506967E+0	1.614522E+0	1.506836E+0	1.496317E+0	1.516449E+0	1.593611E+0	1.557616E+0	1.481699E+0	1.529585E+0	1.554805E+0	1.580205E+0	1.576343E+0	1.508754E+0	1.563881E+0	1.575850E+0	1.552092E+0	1.506973E+0	1.511981E+0	1.550532E+0	1.516273E+0	1.509093E+0	1.547403E+0	1.519498E+0	1.592140E+0	1.530281E+0
5.390240E+2	1.754026E+0	1.765931E+0	1.726832E+0	1.811055E+0	1.747892E+0	1.758255E+0	1.742772E+0	1.757506E+0	1.763101E+0	1.753769E+0	1.747556E+0	1.779811E+0	1.789925E+0	1.796362E+0	1.747531E+0	1.812169E+0	1.713658E+0	1.767974E+0	1.787560E+0	1.763784E+0	1.802351E+0	1.806484E+0	1.781402E+0	1.727486E+0	1.800068E+0	1.748632E+0	1.788143E+0	1.754888E+0	1.779721E+0	1.745178E+0	1.713427E+0	1.764762E+0	1.819684E+0	1.791158E+0	1.726726E+0	1.731073E+0	1.750346E+0	1.743559E+0	1.780128E+0	1.761027E+0	1.836928E+0	1.773711E+0	1.834270E+0	1.774678E+0	1.755239E+0	1.756511E+0	1.753962E+0	1.768149E+0	1.740014E+0	1.708202E+0	1.750488E+0	1.749047E+0	1.777204E+0	1.771215E+0	1.782961E+0	1.769901E+0	1.778640E+0	1.744657E+0	1.796019E+0	1.755788E+0	1.747854E+0	1.764051E+0	1.749073E+0	1.787194E+0	1.705864E+0	1.744056E+0	1.731459E+0	1.766052E+0	1.753557E+0	1.737913E+0	1.736627E+0	1.816265E+0	1.714379E+0	1.807928E+0	1.731085E+0	1.829388E+0	1.765265E+0	1.742337E+0	1.717516E+0	1.753619E+0	1.709764E+0	1.768381E+0	1.691728E+0	1.743836E+0	1.715580E+0	1.809734E+0	1.674853E+0	1.763713E+0	1.713038E+0	1.763892E+0	1.693519E+0	1.798041E+0	1.720007E+0	1.737690E+0	1.745419E+0	1.688665E+0	1.710969E+0	1.717792E+0	1.810234E+0	1.727454E+0	1.689092E+0	1.710743E+0	1.703897E+0	1.760933E+0	1.667866E+0	1.702297E+0	1.699041E+0	1.765168E+0	1.730205E+0	1.725360E+0	1.751553E+0	1.782425E+0	1.740554E+0	1.699442E+0	1.700074E+0	1.714293E+0	1.762806E+0	1.751293E+0	1.718172E+0	1.693047E+0	1.757294E+0	1.726173E+0	1.747148E+0	1.736527E+0	1.705338E+0	1.697523E+0	1.663934E+0	1.780650E+0	1.765605E+0	1.710079E+0	1.701949E+0	1.678135E+0	1.699707E+0	1.776260E+0	1.736727E+0	1.778629E+0	1.826581E+0	1.712717E+0	1.754497E+0	1.690239E+0	1.664914E+0	1.702278E+0	1.710233E+0	1.647174E+0	1.757831E+0	1.770332E+0	1.762039E+0	1.730045E+0	1.738122E+0	1.730264E+0	1.763677E+0	1.724074E+0	1.681655E+0	1.708868E+0	1.747589E+0	1.687609E+0	1.658379E+0	1.749211E+0	1.739494E+0	1.764980E+0	1.668946E+0	1.642343E+0	1.699494E+0	1.726876E+0	1.718676E+0	1.704623E+0	1.736726E+0	1.653068E+0	1.670362E+0	1.628198E+0
5.392880E+2	1.975328E+0	1.919171E+0	2.007651E+0	1.938434E+0	2.009989E+0	1.972238E+0	1.899390E+0	1.979954E+0	1.996932E+0	1.954566E+0	1.968615E+0	2.075724E+0	1.967346E+0	1.959372E+0	1.929777E+0	1.951611E+0	1.984733E+0	1.909974E+0	1.939835E+0	2.038324E+0	1.984023E+0	1.954254E+0	2.017058E+0	1.960232E+0	1.970000E+0	1.938099E+0	1.919379E+0	2.010760E+0	1.968834E+0	1.886145E+0	1.905032E+0	1.939890E+0	1.942736E+0	1.955610E+0	1.971294E+0	1.999676E+0	1.962866E+0	1.934255E+0	1.952523E+0	1.985173E+0	1.994172E+0	2.012086E+0	1.944914E+0	1.893337E+0	1.933567E+0	1.951550E+0	1.922996E+0	1.944938E+0	1.929015E+0	1.926657E+0	1.951422E+0	1.939197E+0	1.916403E+0	1.914521E+0	1.982456E+0	1.875766E+0	1.946195E+0	1.960396E+0	1.906352E+0	1.938385E+0	1.968881E+0	1.945870E+0	1.871963E+0	1.935324E+0	1.879482E+0	1.942963E+0	1.857321E+0	1.970969E+0	1.990269E+0	2.009528E+0	1.937270E+0	1.986637E+0	1.817371E+0	1.905565E+0	1.822350E+0	1.937083E+0	1.938129E+0	1.941517E+0	1.868371E+0	1.989069E+0	1.860173E+0	1.957501E+0	1.927242E+0	1.928124E+0	1.895901E+0	1.942242E+0	1.932840E+0	1.969516E+0	1.890130E+0	1.879969E+0	1.965886E+0	1.912182E+0	1.854904E+0	1.965232E+0	1.876117E+0	1.924039E+0	1.928414E+0	1.857684E+0	1.938072E+0	1.888192E+0	1.919797E+0	1.907335E+0	1.893654E+0	1.888732E+0	1.893654E+0	1.942055E+0	1.890065E+0	1.930606E+0	1.912353E+0	1.926973E+0	1.861204E+0	1.907151E+0	1.913480E+0	1.884012E+0	1.862568E+0	1.868577E+0	1.933949E+0	1.864011E+0	1.911672E+0	1.893549E+0	1.932071E+0	1.888688E+0	1.930157E+0	1.910933E+0	1.885521E+0	1.927026E+0	1.915991E+0	1.926788E+0	1.939395E+0	1.944054E+0	1.874239E+0	1.899804E+0	1.924155E+0	1.915021E+0	1.901663E+0	1.987802E+0	1.967261E+0	1.956445E+0	1.899620E+0	1.882867E+0	1.912882E+0	1.905220E+0	1.889747E+0	1.893405E+0	1.859833E+0	1.914295E+0	1.864009E+0	1.830187E+0	1.881041E+0	1.894399E+0	1.941740E+0	1.894289E+0	1.832347E+0	1.928329E+0	1.873168E+0	1.907126E+0	1.837584E+0	1.864276E+0	1.873408E+0	1.868629E+0	1.849448E+0	1.805712E+0	1.922380E+0	1.949960E+0	1.920064E+0	1.876622E+0	1.861373E+0	1.829386E+0	1.901753E+0	1.868348E+0
5.395160E+2	1.913442E+0	1.922652E+0	1.919713E+0	2.008267E+0	1.974515E+0	1.927862E+0	1.925972E+0	1.997107E+0	1.926108E+0	1.962886E+0	1.939528E+0	2.002361E+0	1.956585E+0	1.948259E+0	1.970614E+0	2.020217E+0	1.973097E+0	1.883995E+0	1.956869E+0	1.985501E+0	1.942609E+0	1.960077E+0	1.952366E+0	1.987845E+0	1.863921E+0	1.892185E+0	1.870019E+0	1.940208E+0	1.891175E+0	1.856635E+0	1.923631E+0	1.945778E+0	1.959956E+0	1.889177E+0	1.839290E+0	1.899917E+0	1.927715E+0	1.912287E+0	1.924967E+0	2.004090E+0	2.013705E+0	1.908528E+0	1.991851E+0	1.862238E+0	1.888561E+0	1.907458E+0	1.916454E+0	1.941249E+0	1.952030E+0	1.915687E+0	1.943253E+0	1.914757E+0	1.865133E+0	1.931667E+0	1.904743E+0	1.951962E+0	1.935876E+0	1.944127E+0	1.887708E+0	1.911362E+0	1.904835E+0	1.950203E+0	1.910811E+0	1.953633E+0	1.880067E+0	1.897979E+0	1.871824E+0	1.942687E+0	1.902826E+0	1.982409E+0	1.921134E+0	1.898129E+0	1.888601E+0	1.951582E+0	1.929382E+0	1.958398E+0	1.829922E+0	1.922212E+0	1.821441E+0	1.933721E+0	1.845645E+0	1.939690E+0	1.869505E+0	1.910104E+0	1.953211E+0	1.951563E+0	1.892231E+0	1.944032E+0	1.960545E+0	1.863204E+0	1.917174E+0	1.923023E+0	1.916901E+0	1.874159E+0	1.923667E+0	1.918666E+0	1.902519E+0	1.886877E+0	1.857179E+0	1.896729E+0	1.966098E+0	1.870440E+0	1.855167E+0	1.911654E+0	1.887370E+0	1.843100E+0	1.903623E+0	1.892193E+0	1.851355E+0	1.875590E+0	1.891264E+0	1.934351E+0	1.900508E+0	1.831318E+0	1.839684E+0	1.863457E+0	1.940869E+0	1.911490E+0	1.858153E+0	1.837718E+0	1.888958E+0	1.854838E+0	1.927714E+0	1.872908E+0	1.853382E+0	1.910340E+0	1.834727E+0	1.939854E+0	1.921009E+0	1.894829E+0	1.843496E+0	1.883156E+0	1.891629E+0	1.952594E+0	1.933936E+0	1.891348E+0	1.917166E+0	1.884998E+0	1.887922E+0	1.863195E+0	1.901316E+0	1.879469E+0	1.863292E+0	1.911878E+0	1.933527E+0	1.888113E+0	1.833043E+0	1.893339E+0	1.904472E+0	1.883089E+0	1.836282E+0	1.920013E+0	1.866975E+0	1.881920E+0	1.915362E+0	1.868946E+0	1.906151E+0	1.856478E+0	1.884190E+0	1.936747E+0	1.898473E+0	1.731823E+0	1.822153E+0	1.899107E+0	1.832021E+0	1.903696E+0	1.840423E+0	1.878763E+0	1.839103E+0	1.694350E+0
5.397750E+2	1.990556E+0	1.949584E+0	1.985730E+0	2.020897E+0	1.995314E+0	2.000470E+0	1.931561E+0	2.017922E+0	2.007218E+0	2.027724E+0	1.996442E+0	2.050929E+0	1.991602E+0	2.033518E+0	2.000503E+0	2.006794E+0	1.952820E+0	1.977753E+0	1.987846E+0	1.973760E+0	1.988325E+0	1.963390E+0	2.003181E+0	1.956496E+0	1.918947E+0	1.931667E+0	1.924053E+0	1.951082E+0	1.969679E+0	1.919505E+0	2.005639E+0	1.971569E+0	1.952348E+0	1.875905E+0	1.960325E+0	1.981237E+0	2.020568E+0	1.928258E+0	1.937566E+0	1.934704E+0	2.001455E+0	2.047639E+0	1.939529E+0	1.954211E+0	1.961166E+0	1.969460E+0	1.908617E+0	1.948139E+0	1.960283E+0	1.918461E+0	1.946327E+0	1.983041E+0	1.961455E+0	1.915819E+0	1.959081E+0	1.939966E+0	1.880128E+0	1.962263E+0	1.928166E+0	1.984804E+0	1.959985E+0	2.027723E+0	1.997691E+0	1.894708E+0	1.937821E+0	2.046481E+0	1.952642E+0	1.934899E+0	1.964838E+0	1.995429E+0	1.972366E+0	1.989585E+0	1.948853E+0	1.981097E+0	1.956415E+0	2.010289E+0	2.002281E+0	1.937476E+0	1.879103E+0	1.973291E+0	1.854493E+0	1.937827E+0	1.982715E+0	1.967787E+0	1.920607E+0	2.027306E+0	1.916817E+0	1.926510E+0	1.982074E+0	1.963361E+0	1.942273E+0	1.983494E+0	1.899272E+0	1.897254E+0	1.905899E+0	1.947407E+0	1.920948E+0	1.939086E+0	1.972185E+0	1.901763E+0	2.004337E+0	1.892708E+0	1.936119E+0	1.944429E+0	1.887011E+0	1.923314E+0	1.936597E+0	1.992456E+0	1.921074E+0	1.966727E+0	1.932246E+0	1.923533E+0	1.905668E+0	1.865876E+0	1.885281E+0	1.884143E+0	1.969979E+0	1.868864E+0	1.968616E+0	1.915427E+0	1.909445E+0	1.902895E+0	1.900502E+0	1.897082E+0	1.908129E+0	1.918286E+0	1.946125E+0	1.987478E+0	1.976926E+0	1.942075E+0	1.903554E+0	1.953611E+0	1.946740E+0	1.875602E+0	1.864317E+0	1.953359E+0	1.925995E+0	1.933657E+0	1.979649E+0	1.877077E+0	1.945866E+0	1.911948E+0	1.895362E+0	1.898747E+0	1.930158E+0	1.903235E+0	1.919170E+0	1.946915E+0	1.919129E+0	1.919438E+0	1.966801E+0	1.965884E+0	1.904275E+0	1.935878E+0	1.880824E+0	1.921306E+0	1.943152E+0	1.915343E+0	1.919436E+0	1.923429E+0	1.918542E+0	1.858168E+0	1.929121E+0	1.898583E+0	1.888788E+0	1.914979E+0	1.897551E+0	1.976064E+0	1.906372E+0	1.735443E+0
5.400140E+2	1.937099E+0	1.980112E+0	1.931108E+0	1.938706E+0	1.955088E+0	1.897994E+0	1.911632E+0	1.918135E+0	1.925347E+0	1.962693E+0	1.923898E+0	1.946362E+0	1.954198E+0	1.953685E+0	1.893496E+0	1.930927E+0	1.893550E+0	1.943356E+0	1.913446E+0	1.908560E+0	1.984521E+0	1.947331E+0	1.897670E+0	1.972861E+0	1.873157E+0	1.890223E+0	1.872056E+0	1.879368E+0	1.939143E+0	1.910630E+0	1.953593E+0	1.923676E+0	1.960564E+0	1.844034E+0	1.829778E+0	1.909195E+0	1.904805E+0	1.932703E+0	1.919452E+0	1.897721E+0	1.951116E+0	1.872864E+0	1.881406E+0	1.885986E+0	1.867012E+0	1.878291E+0	1.895396E+0	1.926172E+0	1.867112E+0	1.873817E+0	1.854800E+0	1.939915E+0	1.887822E+0	1.905230E+0	1.918828E+0	1.843907E+0	1.872569E+0	1.893537E+0	1.895167E+0	1.932523E+0	1.886875E+0	1.843283E+0	1.922896E+0	1.846139E+0	1.884383E+0	1.973901E+0	1.834657E+0	1.886490E+0	1.928236E+0	1.926914E+0	1.850035E+0	1.862397E+0	1.867412E+0	1.944670E+0	1.862551E+0	1.861016E+0	1.838033E+0	1.858079E+0	1.893636E+0	1.887954E+0	1.873077E+0	1.906457E+0	1.900059E+0	1.888297E+0	1.849406E+0	1.915151E+0	1.872036E+0	1.893161E+0	1.903015E+0	1.905631E+0	1.905185E+0	1.949664E+0	1.811412E+0	1.838684E+0	1.837098E+0	1.880679E+0	1.786882E+0	1.851158E+0	1.917620E+0	1.885204E+0	1.890371E+0	1.874330E+0	1.891961E+0	1.829095E+0	1.860855E+0	1.867345E+0	1.881331E+0	1.902489E+0	1.876327E+0	1.872890E+0	1.876711E+0	1.832894E+0	1.883849E+0	1.797581E+0	1.903270E+0	1.801056E+0	1.943197E+0	1.781130E+0	1.876108E+0	1.867617E+0	1.813061E+0	1.887212E+0	1.828817E+0	1.897661E+0	1.911753E+0	1.876164E+0	1.835170E+0	1.873360E+0	1.889142E+0	1.871930E+0	1.876212E+0	1.844214E+0	1.861682E+0	1.919957E+0	1.879334E+0	1.886329E+0	1.878250E+0	1.912358E+0	1.879861E+0	1.823954E+0	1.872132E+0	1.846232E+0	1.896509E+0	1.798273E+0	1.866664E+0	1.882325E+0	1.853811E+0	1.844040E+0	1.847833E+0	1.807531E+0	1.843905E+0	1.843391E+0	1.876330E+0	1.897021E+0	1.849031E+0	1.835981E+0	1.789091E+0	1.854034E+0	1.811425E+0	1.886963E+0	1.830669E+0	1.786571E+0	1.852399E+0	1.878762E+0	1.816354E+0	1.874940E+0	1.861343E+0	1.820115E+0	1.813575E+0	1.747664E+0
5.402740E+2	1.826930E+0	1.917836E+0	1.838910E+0	1.973011E+0	1.910929E+0	1.919806E+0	1.906588E+0	1.879745E+0	1.911370E+0	1.866337E+0	1.949313E+0	1.892524E+0	1.923336E+0	1.909092E+0	1.891174E+0	1.928695E+0	1.900150E+0	1.945556E+0	1.924758E+0	1.873343E+0	1.932528E+0	1.869501E+0	1.891123E+0	1.824367E+0	1.834709E+0	1.896797E+0	1.858223E+0	1.899281E+0	1.878828E+0	1.833255E+0	1.864901E+0	1.859744E+0	1.915308E+0	1.865304E+0	1.922909E+0	1.872552E+0	1.861944E+0	1.901457E+0	1.926985E+0	1.889133E+0	1.928980E+0	1.941433E+0	1.875825E+0	1.879827E+0	1.841682E+0	1.840067E+0	1.862517E+0	1.866174E+0	1.925677E+0	1.833523E+0	1.866021E+0	1.831653E+0	1.860824E+0	1.909699E+0	1.844430E+0	1.855542E+0	1.852265E+0	1.884956E+0	1.884958E+0	1.853532E+0	1.830560E+0	1.843930E+0	1.848523E+0	1.849241E+0	1.821890E+0	1.793891E+0	1.799383E+0	1.946603E+0	1.848572E+0	1.931971E+0	1.835401E+0	1.914952E+0	1.783589E+0	1.848261E+0	1.839012E+0	1.934505E+0	1.858579E+0	1.905044E+0	1.829500E+0	1.900469E+0	1.794510E+0	1.855355E+0	1.913944E+0	1.939812E+0	1.799695E+0	1.922567E+0	1.904677E+0	1.815988E+0	1.903056E+0	1.904953E+0	1.834357E+0	1.824270E+0	1.830808E+0	1.834730E+0	1.816532E+0	1.875038E+0	1.822032E+0	1.834680E+0	1.810522E+0	1.852231E+0	1.897457E+0	1.877609E+0	1.852987E+0	1.912686E+0	1.850134E+0	1.818962E+0	1.847028E+0	1.879782E+0	1.849074E+0	1.894604E+0	1.830967E+0	1.872078E+0	1.815745E+0	1.743294E+0	1.801943E+0	1.837013E+0	1.843940E+0	1.847765E+0	1.885890E+0	1.815940E+0	1.899624E+0	1.846380E+0	1.802587E+0	1.769615E+0	1.815458E+0	1.827660E+0	1.777758E+0	1.898175E+0	1.781003E+0	1.876197E+0	1.789317E+0	1.822039E+0	1.926238E+0	1.853821E+0	1.835955E+0	1.862630E+0	1.762552E+0	1.872772E+0	1.823305E+0	1.822307E+0	1.864970E+0	1.872693E+0	1.847212E+0	1.782976E+0	1.777706E+0	1.877194E+0	1.799345E+0	1.818838E+0	1.823998E+0	1.804921E+0	1.915870E+0	1.831435E+0	1.816644E+0	1.809931E+0	1.851846E+0	1.830743E+0	1.872406E+0	1.835293E+0	1.790349E+0	1.830676E+0	1.766203E+0	1.802390E+0	1.764745E+0	1.864672E+0	1.745229E+0	1.824461E+0	1.817500E+0	1.826563E+0	1.758659E+0	1.835770E+0
5.405080E+2	1.898957E+0	1.775752E+0	1.849566E+0	1.805800E+0	1.866877E+0	1.903698E+0	1.824950E+0	1.834371E+0	1.796599E+0	1.787177E+0	1.814095E+0	1.901525E+0	1.842563E+0	1.801736E+0	1.816085E+0	1.771541E+0	1.757505E+0	1.885597E+0	1.838920E+0	1.769067E+0	1.868012E+0	1.838416E+0	1.812780E+0	1.828071E+0	1.861075E+0	1.803751E+0	1.846545E+0	1.768112E+0	1.842444E+0	1.772324E+0	1.757627E+0	1.845705E+0	1.808807E+0	1.838114E+0	1.856099E+0	1.778082E+0	1.806650E+0	1.832946E+0	1.839179E+0	1.770764E+0	1.852955E+0	1.881290E+0	1.876331E+0	1.845396E+0	1.845916E+0	1.848044E+0	1.788669E+0	1.767127E+0	1.812613E+0	1.795636E+0	1.737510E+0	1.763998E+0	1.829589E+0	1.796281E+0	1.795664E+0	1.829683E+0	1.840652E+0	1.893649E+0	1.821634E+0	1.830051E+0	1.828052E+0	1.816943E+0	1.748373E+0	1.806463E+0	1.766846E+0	1.802832E+0	1.767988E+0	1.794532E+0	1.844346E+0	1.837842E+0	1.744189E+0	1.785301E+0	1.773157E+0	1.892823E+0	1.768619E+0	1.879689E+0	1.803189E+0	1.750743E+0	1.755028E+0	1.788584E+0	1.762329E+0	1.855961E+0	1.770184E+0	1.739101E+0	1.706336E+0	1.894694E+0	1.813469E+0	1.795678E+0	1.755937E+0	1.809796E+0	1.832216E+0	1.818456E+0	1.791565E+0	1.717628E+0	1.833881E+0	1.786965E+0	1.766193E+0	1.777755E+0	1.798333E+0	1.748842E+0	1.792681E+0	1.773910E+0	1.769790E+0	1.828044E+0	1.865689E+0	1.881251E+0	1.827761E+0	1.769036E+0	1.794104E+0	1.777308E+0	1.756588E+0	1.778266E+0	1.785394E+0	1.724159E+0	1.734947E+0	1.835834E+0	1.790257E+0	1.792369E+0	1.837900E+0	1.824627E+0	1.769706E+0	1.779248E+0	1.779425E+0	1.882108E+0	1.819968E+0	1.771216E+0	1.768409E+0	1.820134E+0	1.780486E+0	1.794404E+0	1.754201E+0	1.770580E+0	1.808633E+0	1.781075E+0	1.768681E+0	1.755801E+0	1.796905E+0	1.813720E+0	1.780666E+0	1.732273E+0	1.846721E+0	1.747493E+0	1.727620E+0	1.758096E+0	1.818467E+0	1.808068E+0	1.767222E+0	1.758400E+0	1.755438E+0	1.783701E+0	1.735426E+0	1.766038E+0	1.723493E+0	1.745194E+0	1.767594E+0	1.799084E+0	1.806681E+0	1.726400E+0	1.763061E+0	1.814239E+0	1.726272E+0	1.745786E+0	1.733695E+0	1.728295E+0	1.773311E+0	1.757082E+0	1.684127E+0	1.800284E+0	1.738566E+0	1.836436E+0
5.407680E+2	1.675434E+0	1.659938E+0	1.713604E+0	1.800188E+0	1.689169E+0	1.725217E+0	1.660190E+0	1.710222E+0	1.711322E+0	1.676405E+0	1.725937E+0	1.759039E+0	1.715328E+0	1.675816E+0	1.714283E+0	1.669954E+0	1.761026E+0	1.687154E+0	1.717865E+0	1.666269E+0	1.747670E+0	1.733421E+0	1.696749E+0	1.673906E+0	1.664898E+0	1.613587E+0	1.722091E+0	1.683332E+0	1.703395E+0	1.704415E+0	1.666038E+0	1.725421E+0	1.724095E+0	1.662775E+0	1.679314E+0	1.666212E+0	1.702945E+0	1.629377E+0	1.677265E+0	1.655131E+0	1.711831E+0	1.719056E+0	1.780397E+0	1.720227E+0	1.715621E+0	1.686830E+0	1.680886E+0	1.680396E+0	1.691093E+0	1.684537E+0	1.649943E+0	1.655480E+0	1.743975E+0	1.718181E+0	1.721074E+0	1.727371E+0	1.698803E+0	1.725752E+0	1.687068E+0	1.719677E+0	1.656703E+0	1.762690E+0	1.665609E+0	1.648080E+0	1.575765E+0	1.716176E+0	1.705239E+0	1.744926E+0	1.717153E+0	1.677268E+0	1.686103E+0	1.657759E+0	1.657443E+0	1.701114E+0	1.651566E+0	1.692373E+0	1.642203E+0	1.653302E+0	1.674885E+0	1.711761E+0	1.722154E+0	1.696290E+0	1.705340E+0	1.662684E+0	1.629344E+0	1.726663E+0	1.661773E+0	1.695889E+0	1.716879E+0	1.621587E+0	1.662137E+0	1.686097E+0	1.624721E+0	1.670568E+0	1.662138E+0	1.657737E+0	1.679500E+0	1.725120E+0	1.671733E+0	1.706414E+0	1.732954E+0	1.672050E+0	1.719005E+0	1.664281E+0	1.712395E+0	1.715482E+0	1.658792E+0	1.735411E+0	1.731278E+0	1.693086E+0	1.643181E+0	1.649482E+0	1.623750E+0	1.610593E+0	1.633776E+0	1.669426E+0	1.667235E+0	1.679929E+0	1.689557E+0	1.608858E+0	1.644457E+0	1.653828E+0	1.693748E+0	1.660556E+0	1.702192E+0	1.648977E+0	1.697977E+0	1.696938E+0	1.689381E+0	1.695939E+0	1.665630E+0	1.655171E+0	1.715738E+0	1.692864E+0	1.681102E+0	1.710810E+0	1.697154E+0	1.710769E+0	1.675505E+0	1.741748E+0	1.682494E+0	1.612790E+0	1.651060E+0	1.674208E+0	1.685182E+0	1.643445E+0	1.650251E+0	1.664471E+0	1.604278E+0	1.667363E+0	1.681574E+0	1.643790E+0	1.638012E+0	1.651068E+0	1.679308E+0	1.707168E+0	1.619821E+0	1.618113E+0	1.627085E+0	1.667979E+0	1.672384E+0	1.678792E+0	1.666659E+0	1.685530E+0	1.612543E+0	1.708165E+0	1.633867E+0	1.575206E+0	1.702549E+0	1.637902E+0
5.410190E+2	1.592114E+0	1.514589E+0	1.571167E+0	1.641601E+0	1.645100E+0	1.587881E+0	1.559395E+0	1.560136E+0	1.627864E+0	1.595326E+0	1.577429E+0	1.620072E+0	1.593817E+0	1.572542E+0	1.618293E+0	1.606774E+0	1.618300E+0	1.584677E+0	1.590794E+0	1.581133E+0	1.605217E+0	1.634346E+0	1.619259E+0	1.604913E+0	1.550580E+0	1.542853E+0	1.596573E+0	1.573424E+0	1.585383E+0	1.541213E+0	1.522635E+0	1.524277E+0	1.537165E+0	1.590637E+0	1.587904E+0	1.560539E+0	1.548995E+0	1.564232E+0	1.574479E+0	1.585090E+0	1.598581E+0	1.583400E+0	1.628515E+0	1.600868E+0	1.578983E+0	1.553104E+0	1.503914E+0	1.531606E+0	1.557694E+0	1.610738E+0	1.634067E+0	1.526079E+0	1.619698E+0	1.587226E+0	1.548083E+0	1.615322E+0	1.591912E+0	1.561517E+0	1.535945E+0	1.582784E+0	1.518597E+0	1.597516E+0	1.532449E+0	1.498396E+0	1.558987E+0	1.510091E+0	1.556856E+0	1.646736E+0	1.686587E+0	1.632060E+0	1.490056E+0	1.593875E+0	1.542790E+0	1.603934E+0	1.547844E+0	1.535854E+0	1.573825E+0	1.573476E+0	1.553331E+0	1.541711E+0	1.498011E+0	1.570229E+0	1.552625E+0	1.543617E+0	1.545372E+0	1.613739E+0	1.560914E+0	1.534957E+0	1.572671E+0	1.547579E+0	1.607228E+0	1.597389E+0	1.575120E+0	1.604218E+0	1.584526E+0	1.572871E+0	1.558073E+0	1.547322E+0	1.580467E+0	1.510794E+0	1.612736E+0	1.551283E+0	1.565412E+0	1.600176E+0	1.575387E+0	1.489660E+0	1.547762E+0	1.576694E+0	1.566835E+0	1.572495E+0	1.618335E+0	1.516090E+0	1.572556E+0	1.491050E+0	1.510303E+0	1.584218E+0	1.596592E+0	1.553755E+0	1.551670E+0	1.514543E+0	1.550474E+0	1.545277E+0	1.602730E+0	1.467285E+0	1.537092E+0	1.570477E+0	1.572843E+0	1.541127E+0	1.557090E+0	1.630400E+0	1.527679E+0	1.551512E+0	1.604801E+0	1.571675E+0	1.576221E+0	1.601297E+0	1.592492E+0	1.562522E+0	1.528267E+0	1.523843E+0	1.539461E+0	1.517322E+0	1.526789E+0	1.527414E+0	1.565367E+0	1.626694E+0	1.578807E+0	1.543516E+0	1.585288E+0	1.589147E+0	1.578237E+0	1.594459E+0	1.550423E+0	1.556156E+0	1.571022E+0	1.568271E+0	1.562566E+0	1.524519E+0	1.518251E+0	1.551294E+0	1.536390E+0	1.517968E+0	1.547163E+0	1.585331E+0	1.531952E+0	1.575268E+0	1.554157E+0	1.506894E+0	1.461112E+0	1.511187E+0
5.412850E+2	1.451290E+0	1.495989E+0	1.481025E+0	1.502819E+0	1.461866E+0	1.531712E+0	1.484004E+0	1.506015E+0	1.523300E+0	1.543354E+0	1.449860E+0	1.519243E+0	1.534870E+0	1.524206E+0	1.521924E+0	1.478007E+0	1.462265E+0	1.490025E+0	1.482899E+0	1.487948E+0	1.486250E+0	1.540300E+0	1.500900E+0	1.430730E+0	1.440952E+0	1.488089E+0	1.443215E+0	1.459520E+0	1.467672E+0	1.461737E+0	1.428056E+0	1.452591E+0	1.522356E+0	1.487948E+0	1.467366E+0	1.510983E+0	1.435455E+0	1.465559E+0	1.475861E+0	1.491406E+0	1.452630E+0	1.462641E+0	1.522653E+0	1.489040E+0	1.450361E+0	1.466982E+0	1.434869E+0	1.474462E+0	1.486976E+0	1.423716E+0	1.428701E+0	1.501541E+0	1.447641E+0	1.440726E+0	1.465894E+0	1.499167E+0	1.502611E+0	1.465485E+0	1.452922E+0	1.424923E+0	1.440075E+0	1.470090E+0	1.420676E+0	1.440164E+0	1.399900E+0	1.380819E+0	1.438558E+0	1.494748E+0	1.497015E+0	1.483472E+0	1.490750E+0	1.506521E+0	1.436167E+0	1.514115E+0	1.445256E+0	1.523107E+0	1.469828E+0	1.432727E+0	1.461318E+0	1.458671E+0	1.453406E+0	1.474198E+0	1.470245E+0	1.429140E+0	1.446185E+0	1.549751E+0	1.427742E+0	1.475545E+0	1.496357E+0	1.435094E+0	1.466402E+0	1.467082E+0	1.466803E+0	1.437714E+0	1.447684E+0	1.423686E+0	1.457368E+0	1.438143E+0	1.518803E+0	1.443765E+0	1.456452E+0	1.413208E+0	1.477992E+0	1.450135E+0	1.446036E+0	1.469717E+0	1.443880E+0	1.433754E+0	1.473304E+0	1.421475E+0	1.501807E+0	1.482443E+0	1.466070E+0	1.384062E+0	1.455762E+0	1.421478E+0	1.467825E+0	1.446744E+0	1.490311E+0	1.400721E+0	1.458951E+0	1.442434E+0	1.413825E+0	1.414350E+0	1.478840E+0	1.477936E+0	1.370129E+0	1.446422E+0	1.494884E+0	1.441151E+0	1.474258E+0	1.483574E+0	1.471852E+0	1.504575E+0	1.461879E+0	1.473081E+0	1.408668E+0	1.474907E+0	1.454317E+0	1.414283E+0	1.477307E+0	1.483946E+0	1.531815E+0	1.430705E+0	1.424041E+0	1.443834E+0	1.421618E+0	1.394967E+0	1.483179E+0	1.459959E+0	1.488534E+0	1.471698E+0	1.477059E+0	1.401810E+0	1.464848E+0	1.403145E+0	1.477253E+0	1.452359E+0	1.472903E+0	1.420351E+0	1.449462E+0	1.448450E+0	1.426123E+0	1.494311E+0	1.452512E+0	1.429342E+0	1.448864E+0	1.466474E+0	1.453619E+0	1.338122E+0
5.415190E+2	1.325341E+0	1.362067E+0	1.331516E+0	1.335611E+0	1.388923E+0	1.361943E+0	1.336277E+0	1.339230E+0	1.366605E+0	1.328275E+0	1.331932E+0	1.375435E+0	1.337677E+0	1.364277E+0	1.366279E+0	1.343788E+0	1.336723E+0	1.341506E+0	1.361525E+0	1.317144E+0	1.391135E+0	1.335611E+0	1.345362E+0	1.346806E+0	1.323015E+0	1.360740E+0	1.320829E+0	1.327696E+0	1.370546E+0	1.375658E+0	1.333203E+0	1.313008E+0	1.351795E+0	1.269864E+0	1.334686E+0	1.386769E+0	1.338421E+0	1.370139E+0	1.377557E+0	1.305744E+0	1.389822E+0	1.369101E+0	1.364608E+0	1.395832E+0	1.312410E+0	1.369409E+0	1.348011E+0	1.325782E+0	1.338670E+0	1.324473E+0	1.371712E+0	1.353278E+0	1.316005E+0	1.329192E+0	1.371287E+0	1.366958E+0	1.330587E+0	1.381826E+0	1.341918E+0	1.367578E+0	1.299926E+0	1.354342E+0	1.328504E+0	1.328338E+0	1.349872E+0	1.355815E+0	1.337409E+0	1.338628E+0	1.375300E+0	1.345647E+0	1.329447E+0	1.305637E+0	1.327272E+0	1.349118E+0	1.344495E+0	1.363467E+0	1.354870E+0	1.308976E+0	1.352626E+0	1.360926E+0	1.363154E+0	1.371314E+0	1.357565E+0	1.342617E+0	1.355451E+0	1.383694E+0	1.327729E+0	1.361090E+0	1.344022E+0	1.361245E+0	1.336669E+0	1.389382E+0	1.386033E+0	1.293351E+0	1.346270E+0	1.332068E+0	1.320036E+0	1.385799E+0	1.310112E+0	1.319251E+0	1.363707E+0	1.348227E+0	1.296069E+0	1.325964E+0	1.324599E+0	1.307254E+0	1.345425E+0	1.385275E+0	1.319573E+0	1.329495E+0	1.347668E+0	1.328078E+0	1.357247E+0	1.332535E+0	1.302156E+0	1.328973E+0	1.336890E+0	1.343104E+0	1.356556E+0	1.332554E+0	1.359984E+0	1.339751E+0	1.352432E+0	1.298470E+0	1.376020E+0	1.351612E+0	1.344084E+0	1.322753E+0	1.360272E+0	1.320404E+0	1.318436E+0	1.312195E+0	1.358587E+0	1.359585E+0	1.400546E+0	1.414310E+0	1.339292E+0	1.382463E+0	1.344257E+0	1.325620E+0	1.342300E+0	1.301099E+0	1.332741E+0	1.316658E+0	1.320404E+0	1.344877E+0	1.313788E+0	1.296977E+0	1.333629E+0	1.308226E+0	1.345311E+0	1.347115E+0	1.364297E+0	1.294463E+0	1.378121E+0	1.318535E+0	1.335748E+0	1.323489E+0	1.284192E+0	1.380452E+0	1.362691E+0	1.238816E+0	1.308115E+0	1.337397E+0	1.300348E+0	1.370195E+0	1.319301E+0	1.312365E+0	1.344559E+0	1.325640E+0
5.417860E+2	1.162632E+0	1.157019E+0	1.198071E+0	1.225275E+0	1.198536E+0	1.202727E+0	1.181902E+0	1.185551E+0	1.165835E+0	1.198935E+0	1.180623E+0	1.180826E+0	1.194680E+0	1.127508E+0	1.202759E+0	1.191638E+0	1.157436E+0	1.160574E+0	1.167975E+0	1.194099E+0	1.210529E+0	1.190850E+0	1.205859E+0	1.183278E+0	1.175176E+0	1.126969E+0	1.170422E+0	1.180497E+0	1.233146E+0	1.179273E+0	1.118101E+0	1.170547E+0	1.206450E+0	1.172925E+0	1.165473E+0	1.209774E+0	1.219680E+0	1.194159E+0	1.200584E+0	1.139347E+0	1.203063E+0	1.195852E+0	1.208807E+0	1.161264E+0	1.139891E+0	1.187551E+0	1.189819E+0	1.175640E+0	1.184244E+0	1.184461E+0	1.152174E+0	1.202838E+0	1.146808E+0	1.187938E+0	1.157813E+0	1.177712E+0	1.144765E+0	1.202574E+0	1.200885E+0	1.235259E+0	1.176027E+0	1.191007E+0	1.183119E+0	1.180678E+0	1.097495E+0	1.188028E+0	1.188993E+0	1.161771E+0	1.171356E+0	1.212603E+0	1.213752E+0	1.168225E+0	1.150488E+0	1.221177E+0	1.128234E+0	1.207270E+0	1.139152E+0	1.163024E+0	1.191405E+0	1.194686E+0	1.187205E+0	1.234627E+0	1.179288E+0	1.164613E+0	1.168122E+0	1.183204E+0	1.189210E+0	1.146607E+0	1.219127E+0	1.214147E+0	1.201488E+0	1.234602E+0	1.167930E+0	1.196909E+0	1.188633E+0	1.142100E+0	1.205120E+0	1.190041E+0	1.156560E+0	1.146580E+0	1.185632E+0	1.166480E+0	1.174353E+0	1.142581E+0	1.148442E+0	1.226408E+0	1.124274E+0	1.238785E+0	1.187080E+0	1.216648E+0	1.164254E+0	1.196912E+0	1.185399E+0	1.164985E+0	1.184764E+0	1.196638E+0	1.193556E+0	1.214897E+0	1.226446E+0	1.147692E+0	1.206537E+0	1.117986E+0	1.172213E+0	1.138190E+0	1.201911E+0	1.225101E+0	1.183004E+0	1.141894E+0	1.191110E+0	1.152365E+0	1.193411E+0	1.194397E+0	1.196474E+0	1.169412E+0	1.198802E+0	1.183522E+0	1.201463E+0	1.205439E+0	1.181204E+0	1.167678E+0	1.190391E+0	1.147209E+0	1.152860E+0	1.149355E+0	1.203467E+0	1.157971E+0	1.189624E+0	1.204121E+0	1.189596E+0	1.157062E+0	1.227648E+0	1.183905E+0	1.184002E+0	1.190686E+0	1.143216E+0	1.155035E+0	1.210459E+0	1.183830E+0	1.168247E+0	1.195800E+0	1.149865E+0	1.182771E+0	1.139289E+0	1.210537E+0	1.179904E+0	1.162677E+0	1.178919E+0	1.190640E+0	1.108094E+0	1.205076E+0
5.420160E+2	1.070539E+0	1.074260E+0	1.050329E+0	1.036857E+0	1.083842E+0	1.065952E+0	1.091895E+0	1.076272E+0	1.120567E+0	1.082503E+0	1.075390E+0	1.103293E+0	1.065084E+0	1.057281E+0	1.129512E+0	1.078944E+0	1.087030E+0	1.091685E+0	1.099692E+0	1.054063E+0	1.088670E+0	1.060383E+0	1.101796E+0	1.058122E+0	1.094592E+0	1.069301E+0	1.051672E+0	1.047794E+0	1.052803E+0	1.068768E+0	1.038319E+0	1.066198E+0	1.082377E+0	1.081901E+0	1.085491E+0	1.037056E+0	1.087190E+0	1.071212E+0	1.037713E+0	1.098515E+0	1.106714E+0	1.089434E+0	1.049147E+0	1.059089E+0	1.056485E+0	1.127533E+0	1.028031E+0	1.062256E+0	1.104551E+0	1.069955E+0	1.066779E+0	1.083816E+0	1.041802E+0	1.041807E+0	1.060965E+0	1.041077E+0	1.091854E+0	1.056619E+0	1.093301E+0	1.079563E+0	1.065072E+0	1.108715E+0	1.044560E+0	1.045776E+0	1.089626E+0	1.079334E+0	1.037823E+0	1.105615E+0	1.052558E+0	1.094661E+0	1.045054E+0	1.087931E+0	1.026099E+0	1.071277E+0	1.080169E+0	1.138699E+0	1.054181E+0	1.076043E+0	1.067480E+0	1.085302E+0	1.021213E+0	1.088870E+0	9.887902E-1	1.036104E+0	1.118224E+0	1.081508E+0	1.040480E+0	1.080406E+0	1.023981E+0	1.098733E+0	1.099683E+0	1.049017E+0	1.078262E+0	1.067112E+0	1.104178E+0	1.074262E+0	1.137330E+0	1.074612E+0	1.043394E+0	1.049883E+0	1.075813E+0	1.033168E+0	1.059782E+0	1.067700E+0	1.033650E+0	1.078589E+0	1.087704E+0	1.072559E+0	1.066744E+0	1.057660E+0	1.062181E+0	1.053122E+0	1.068240E+0	1.028460E+0	1.064778E+0	1.070946E+0	1.086385E+0	1.022170E+0	1.045430E+0	1.124275E+0	1.086140E+0	1.074911E+0	1.083954E+0	1.058002E+0	1.020655E+0	1.035224E+0	1.056335E+0	1.050126E+0	1.084906E+0	1.099492E+0	1.024101E+0	1.031859E+0	1.126886E+0	1.053001E+0	1.060658E+0	1.072740E+0	1.049967E+0	1.048794E+0	1.065427E+0	1.064496E+0	1.073230E+0	1.074707E+0	1.060055E+0	1.074097E+0	1.089373E+0	1.124863E+0	1.121009E+0	1.023306E+0	1.028827E+0	1.044120E+0	1.049711E+0	1.071892E+0	1.091811E+0	1.046419E+0	1.051779E+0	1.046718E+0	1.067705E+0	1.071311E+0	1.068232E+0	1.100414E+0	1.099372E+0	1.059279E+0	1.082922E+0	1.113104E+0	1.029039E+0	1.105383E+0	1.076485E+0	1.034351E+0	1.084120E+0	1.020391E+0
5.422670E+2	9.524321E-1	9.531770E-1	9.438578E-1	9.266496E-1	9.557092E-1	9.668987E-1	9.565626E-1	9.397213E-1	8.777120E-1	9.263133E-1	9.340481E-1	9.600796E-1	9.537476E-1	9.300587E-1	9.659895E-1	9.139080E-1	9.417100E-1	9.381521E-1	9.864738E-1	9.402287E-1	9.637132E-1	9.395171E-1	9.502045E-1	9.633314E-1	9.748441E-1	9.854676E-1	9.901390E-1	9.965976E-1	1.000583E+0	9.371413E-1	9.320168E-1	9.844165E-1	9.720683E-1	9.574665E-1	9.421297E-1	9.460774E-1	9.261119E-1	9.472899E-1	9.431885E-1	9.572062E-1	9.944835E-1	9.849935E-1	1.000489E+0	9.724398E-1	9.287757E-1	9.913893E-1	9.141119E-1	9.472233E-1	9.332587E-1	9.755314E-1	9.466585E-1	9.265442E-1	9.428027E-1	9.381605E-1	9.470777E-1	9.476949E-1	9.668350E-1	9.750590E-1	9.952532E-1	9.656961E-1	9.581104E-1	9.881776E-1	9.600437E-1	9.359298E-1	9.585486E-1	9.065006E-1	9.585144E-1	1.004712E+0	9.788866E-1	9.491579E-1	9.777865E-1	9.660491E-1	9.334396E-1	9.830981E-1	9.333662E-1	9.679541E-1	9.465513E-1	9.510463E-1	9.650954E-1	9.567059E-1	9.071289E-1	9.823299E-1	9.289601E-1	9.715537E-1	9.503378E-1	9.407400E-1	9.708609E-1	9.492322E-1	9.559605E-1	9.691695E-1	9.581623E-1	9.980701E-1	9.601871E-1	9.323004E-1	9.565823E-1	9.516135E-1	9.717339E-1	9.683343E-1	9.811204E-1	9.719553E-1	9.770593E-1	9.491969E-1	9.640348E-1	9.787782E-1	9.745014E-1	9.715707E-1	9.312924E-1	9.576788E-1	9.380913E-1	9.402939E-1	9.716890E-1	9.538851E-1	8.948770E-1	9.527034E-1	9.472081E-1	9.283559E-1	9.643898E-1	9.433208E-1	9.902996E-1	9.794814E-1	9.536582E-1	9.570096E-1	9.912862E-1	9.242343E-1	9.706490E-1	9.545711E-1	9.863793E-1	9.471027E-1	9.826333E-1	9.413024E-1	9.378289E-1	9.446418E-1	1.001175E+0	9.838994E-1	9.529585E-1	9.796676E-1	9.877268E-1	9.663615E-1	9.600245E-1	9.444070E-1	9.643030E-1	9.612490E-1	9.642052E-1	9.415633E-1	9.383868E-1	9.440410E-1	9.455339E-1	9.187395E-1	9.383454E-1	9.410427E-1	9.353026E-1	9.211489E-1	9.853482E-1	9.490482E-1	9.414772E-1	9.599401E-1	9.673868E-1	9.494424E-1	9.156084E-1	8.971561E-1	9.364820E-1	9.587199E-1	9.067580E-1	9.298792E-1	9.755911E-1	9.598195E-1	9.647453E-1	9.682732E-1	8.853358E-1	9.192593E-1
5.425300E+2	9.179224E-1	9.669319E-1	9.635432E-1	9.385771E-1	8.978711E-1	9.591519E-1	9.504683E-1	9.206648E-1	9.356044E-1	9.443504E-1	9.204691E-1	9.487987E-1	9.290372E-1	9.645431E-1	9.312208E-1	9.468171E-1	9.386142E-1	9.393779E-1	9.599363E-1	8.851807E-1	9.478639E-1	1.014707E+0	9.349129E-1	9.495941E-1	9.662241E-1	9.824439E-1	9.530178E-1	9.475905E-1	9.755012E-1	9.444541E-1	9.534507E-1	9.566217E-1	9.842549E-1	9.300749E-1	9.413122E-1	9.856000E-1	1.000488E+0	9.964673E-1	9.411196E-1	9.863527E-1	9.591783E-1	9.361649E-1	9.611257E-1	9.228282E-1	9.341895E-1	9.971080E-1	9.422583E-1	9.102437E-1	9.268680E-1	9.513173E-1	9.416389E-1	9.126863E-1	9.514133E-1	9.798680E-1	9.829374E-1	9.387606E-1	9.362804E-1	1.000586E+0	9.128590E-1	9.544161E-1	9.108417E-1	1.001380E+0	9.408181E-1	9.463580E-1	9.341850E-1	9.226008E-1	9.432319E-1	9.320186E-1	9.482957E-1	9.397438E-1	9.440971E-1	9.284560E-1	8.769870E-1	9.886994E-1	9.128562E-1	9.965573E-1	9.413963E-1	9.336677E-1	9.373939E-1	9.602482E-1	9.556234E-1	9.738766E-1	9.727902E-1	9.634277E-1	8.981999E-1	9.575894E-1	9.663864E-1	9.838243E-1	9.644279E-1	9.562726E-1	9.391846E-1	9.677375E-1	9.869090E-1	9.680615E-1	9.385567E-1	9.462655E-1	9.064137E-1	9.468956E-1	9.194521E-1	9.913143E-1	9.444747E-1	9.451332E-1	9.536970E-1	9.415143E-1	9.671624E-1	9.567354E-1	9.871101E-1	9.558949E-1	9.228428E-1	9.578714E-1	9.947138E-1	9.451899E-1	9.539158E-1	9.126544E-1	9.135593E-1	9.591396E-1	9.684007E-1	9.433631E-1	9.580431E-1	9.666415E-1	9.516193E-1	9.236705E-1	9.804484E-1	9.118194E-1	9.361646E-1	9.516038E-1	9.455349E-1	9.400565E-1	9.190380E-1	9.370478E-1	9.654879E-1	9.507564E-1	9.555438E-1	9.246292E-1	9.217955E-1	9.652252E-1	9.912174E-1	9.314769E-1	1.002194E+0	9.753586E-1	9.144223E-1	9.409819E-1	9.305953E-1	9.276617E-1	9.956238E-1	9.904703E-1	9.262750E-1	9.651549E-1	9.492992E-1	9.822693E-1	9.425505E-1	9.307934E-1	9.148266E-1	9.749454E-1	9.382822E-1	9.221164E-1	9.669386E-1	9.188967E-1	9.312813E-1	9.761226E-1	9.332026E-1	9.401142E-1	9.381343E-1	9.759548E-1	9.158067E-1	9.530083E-1	8.718643E-1	9.411052E-1	9.144729E-1	9.256603E-1
5.427600E+2	1.029208E+0	1.007825E+0	9.956609E-1	1.049542E+0	1.062040E+0	1.008348E+0	9.797735E-1	9.984317E-1	1.036437E+0	1.035302E+0	1.007114E+0	1.024605E+0	1.031448E+0	1.004844E+0	1.007841E+0	1.010320E+0	1.017675E+0	1.049010E+0	1.046602E+0	1.005030E+0	1.029378E+0	1.065255E+0	1.001078E+0	9.985257E-1	1.018151E+0	1.054852E+0	1.081724E+0	1.045124E+0	1.071560E+0	9.751725E-1	1.038982E+0	1.066715E+0	1.023589E+0	1.022293E+0	1.047174E+0	1.033127E+0	9.848923E-1	1.036706E+0	1.049489E+0	1.050445E+0	1.068484E+0	1.058114E+0	1.025600E+0	1.010690E+0	1.015277E+0	1.076849E+0	1.015689E+0	1.008636E+0	1.050662E+0	1.026109E+0	1.045132E+0	9.579658E-1	1.022599E+0	1.015913E+0	1.080874E+0	1.034322E+0	1.023149E+0	1.020967E+0	1.029351E+0	1.097986E+0	1.042926E+0	1.028457E+0	1.011941E+0	1.040018E+0	9.791703E-1	1.023188E+0	1.014194E+0	1.038197E+0	1.062651E+0	1.052981E+0	1.043500E+0	1.017991E+0	1.027589E+0	1.056850E+0	1.027437E+0	1.067878E+0	1.012506E+0	1.042003E+0	9.600958E-1	1.024336E+0	1.023236E+0	1.043910E+0	1.040214E+0	1.050392E+0	9.996477E-1	1.005963E+0	1.054052E+0	1.020989E+0	1.017902E+0	1.015329E+0	1.045688E+0	9.834279E-1	1.006256E+0	1.022557E+0	1.044000E+0	1.016057E+0	1.048515E+0	1.058126E+0	1.014461E+0	1.069944E+0	1.018651E+0	1.075631E+0	1.043169E+0	1.031561E+0	9.967260E-1	1.064931E+0	1.011988E+0	1.031078E+0	1.059749E+0	1.024425E+0	9.889047E-1	1.007388E+0	1.006605E+0	9.922768E-1	1.029728E+0	1.036677E+0	1.061309E+0	1.088617E+0	1.043505E+0	1.028448E+0	9.687910E-1	1.027816E+0	1.071036E+0	1.007521E+0	1.020397E+0	1.015614E+0	1.012780E+0	1.052563E+0	1.073384E+0	1.051426E+0	9.888542E-1	1.040822E+0	1.052158E+0	1.029730E+0	9.784216E-1	1.012476E+0	1.020536E+0	1.024769E+0	1.049881E+0	1.006285E+0	1.000761E+0	1.028319E+0	1.023314E+0	9.670285E-1	1.044528E+0	1.074975E+0	1.035543E+0	1.036795E+0	1.026237E+0	1.002740E+0	1.003436E+0	1.014443E+0	1.039079E+0	9.675696E-1	1.038207E+0	1.026012E+0	9.787872E-1	9.987157E-1	1.012394E+0	1.000002E+0	1.027956E+0	1.015464E+0	1.011070E+0	9.885673E-1	1.004259E+0	9.961469E-1	1.023439E+0	1.032230E+0	1.019945E+0	9.623369E-1
5.430120E+2	1.109895E+0	1.162147E+0	1.162425E+0	1.144180E+0	1.179958E+0	1.121575E+0	1.188327E+0	1.204789E+0	1.152591E+0	1.155032E+0	1.159210E+0	1.153212E+0	1.136776E+0	1.180551E+0	1.157207E+0	1.128595E+0	1.146981E+0	1.097080E+0	1.194656E+0	1.157058E+0	1.192955E+0	1.158153E+0	1.152927E+0	1.141059E+0	1.150945E+0	1.193694E+0	1.137079E+0	1.148839E+0	1.154645E+0	1.202810E+0	1.162361E+0	1.171837E+0	1.179730E+0	1.130597E+0	1.154230E+0	1.150183E+0	1.141434E+0	1.142998E+0	1.156125E+0	1.153347E+0	1.147453E+0	1.221239E+0	1.233114E+0	1.170430E+0	1.173689E+0	1.171314E+0	1.189936E+0	1.146015E+0	1.193043E+0	1.172087E+0	1.203615E+0	1.173524E+0	1.165180E+0	1.135373E+0	1.161894E+0	1.171829E+0	1.163674E+0	1.185175E+0	1.167022E+0	1.176742E+0	1.162698E+0	1.155100E+0	1.190654E+0	1.139753E+0	1.155990E+0	1.203797E+0	1.184554E+0	1.174730E+0	1.141106E+0	1.204731E+0	1.157197E+0	1.140337E+0	1.141006E+0	1.176386E+0	1.138296E+0	1.161658E+0	1.133291E+0	1.160174E+0	1.129353E+0	1.158085E+0	1.145287E+0	1.171613E+0	1.125843E+0	1.160892E+0	1.121590E+0	1.218441E+0	1.150159E+0	1.132874E+0	1.164260E+0	1.155131E+0	1.151593E+0	1.166337E+0	1.168940E+0	1.154814E+0	1.191965E+0	1.148532E+0	1.174165E+0	1.161385E+0	1.169198E+0	1.172490E+0	1.196362E+0	1.153976E+0	1.137804E+0	1.094512E+0	1.176390E+0	1.187011E+0	1.131245E+0	1.182740E+0	1.169570E+0	1.161919E+0	1.110987E+0	1.152435E+0	1.160468E+0	1.184586E+0	1.118415E+0	1.082153E+0	1.177978E+0	1.142875E+0	1.191452E+0	1.158054E+0	1.122511E+0	1.141915E+0	1.146323E+0	1.117689E+0	1.182895E+0	1.173982E+0	1.138252E+0	1.153572E+0	1.167576E+0	1.181240E+0	1.131854E+0	1.152596E+0	1.139302E+0	1.135282E+0	1.103264E+0	1.167158E+0	1.168750E+0	1.179646E+0	1.193790E+0	1.139950E+0	1.111544E+0	1.148773E+0	1.148707E+0	1.152022E+0	1.127244E+0	1.183617E+0	1.185146E+0	1.153326E+0	1.155866E+0	1.166063E+0	1.196151E+0	1.139739E+0	1.107207E+0	1.094440E+0	1.175616E+0	1.149868E+0	1.222790E+0	1.132887E+0	1.116328E+0	1.197988E+0	1.181302E+0	1.155823E+0	1.132246E+0	1.155769E+0	1.067427E+0	1.111784E+0	1.157378E+0	1.103167E+0	1.172933E+0	1.183115E+0
5.433070E+2	1.341780E+0	1.338417E+0	1.299208E+0	1.411764E+0	1.316094E+0	1.318002E+0	1.325501E+0	1.331059E+0	1.347693E+0	1.331265E+0	1.359781E+0	1.417475E+0	1.356232E+0	1.311257E+0	1.324272E+0	1.358176E+0	1.359875E+0	1.299595E+0	1.295277E+0	1.310706E+0	1.324445E+0	1.351067E+0	1.368453E+0	1.320434E+0	1.369044E+0	1.394846E+0	1.321407E+0	1.371021E+0	1.344991E+0	1.309206E+0	1.336120E+0	1.365992E+0	1.365156E+0	1.314523E+0	1.346488E+0	1.359489E+0	1.365834E+0	1.401894E+0	1.356486E+0	1.368691E+0	1.355756E+0	1.398382E+0	1.351234E+0	1.343702E+0	1.328141E+0	1.347132E+0	1.376394E+0	1.344777E+0	1.361617E+0	1.338200E+0	1.337906E+0	1.376240E+0	1.354141E+0	1.334945E+0	1.350827E+0	1.341471E+0	1.284962E+0	1.365957E+0	1.361351E+0	1.401750E+0	1.348191E+0	1.332348E+0	1.281416E+0	1.365806E+0	1.348938E+0	1.330469E+0	1.300513E+0	1.370698E+0	1.295226E+0	1.384264E+0	1.310813E+0	1.346901E+0	1.290563E+0	1.356664E+0	1.331468E+0	1.355657E+0	1.324057E+0	1.360945E+0	1.339605E+0	1.381431E+0	1.286771E+0	1.365851E+0	1.377946E+0	1.328099E+0	1.296367E+0	1.395032E+0	1.302333E+0	1.318037E+0	1.318997E+0	1.341200E+0	1.331389E+0	1.327824E+0	1.313122E+0	1.310925E+0	1.342377E+0	1.331238E+0	1.329738E+0	1.300334E+0	1.321474E+0	1.320527E+0	1.349815E+0	1.303828E+0	1.328541E+0	1.285824E+0	1.346486E+0	1.385451E+0	1.337207E+0	1.339182E+0	1.372219E+0	1.326937E+0	1.396207E+0	1.322393E+0	1.319789E+0	1.359522E+0	1.310407E+0	1.311233E+0	1.342205E+0	1.395024E+0	1.330746E+0	1.376873E+0	1.308051E+0	1.347940E+0	1.404280E+0	1.327182E+0	1.328874E+0	1.335345E+0	1.351059E+0	1.331552E+0	1.334707E+0	1.403236E+0	1.277483E+0	1.313791E+0	1.350337E+0	1.303760E+0	1.317603E+0	1.293643E+0	1.314799E+0	1.298196E+0	1.390365E+0	1.349171E+0	1.319095E+0	1.362987E+0	1.325316E+0	1.344780E+0	1.381614E+0	1.317401E+0	1.330795E+0	1.335488E+0	1.264888E+0	1.316827E+0	1.348339E+0	1.316963E+0	1.303439E+0	1.327722E+0	1.309089E+0	1.337980E+0	1.313607E+0	1.337556E+0	1.347350E+0	1.347799E+0	1.314962E+0	1.326758E+0	1.283075E+0	1.377951E+0	1.339051E+0	1.358512E+0	1.233761E+0	1.281037E+0	1.276388E+0	1.292957E+0
5.435220E+2	1.446194E+0	1.478252E+0	1.453347E+0	1.446982E+0	1.472264E+0	1.532497E+0	1.462511E+0	1.512429E+0	1.451839E+0	1.455847E+0	1.433535E+0	1.496209E+0	1.515895E+0	1.485030E+0	1.440409E+0	1.497676E+0	1.478629E+0	1.446218E+0	1.498274E+0	1.413579E+0	1.464396E+0	1.493036E+0	1.467402E+0	1.492060E+0	1.481915E+0	1.449247E+0	1.452201E+0	1.482666E+0	1.503752E+0	1.456364E+0	1.442343E+0	1.437346E+0	1.481264E+0	1.434785E+0	1.480618E+0	1.465565E+0	1.457301E+0	1.488059E+0	1.479418E+0	1.457142E+0	1.498398E+0	1.491259E+0	1.528902E+0	1.408814E+0	1.435133E+0	1.461153E+0	1.434562E+0	1.455090E+0	1.461614E+0	1.520759E+0	1.423026E+0	1.431740E+0	1.433412E+0	1.434452E+0	1.527406E+0	1.476904E+0	1.509501E+0	1.515164E+0	1.443001E+0	1.464971E+0	1.423889E+0	1.493071E+0	1.426961E+0	1.397287E+0	1.411055E+0	1.412518E+0	1.417962E+0	1.463766E+0	1.451466E+0	1.490498E+0	1.431720E+0	1.495738E+0	1.408130E+0	1.520292E+0	1.390129E+0	1.502553E+0	1.383960E+0	1.427040E+0	1.436793E+0	1.413071E+0	1.433607E+0	1.415719E+0	1.470936E+0	1.415244E+0	1.385960E+0	1.513174E+0	1.439752E+0	1.443622E+0	1.464999E+0	1.401014E+0	1.401083E+0	1.471362E+0	1.450510E+0	1.471159E+0	1.444160E+0	1.476773E+0	1.462882E+0	1.406446E+0	1.473077E+0	1.447260E+0	1.449470E+0	1.494623E+0	1.428167E+0	1.450838E+0	1.452727E+0	1.473727E+0	1.417426E+0	1.470883E+0	1.437790E+0	1.434723E+0	1.444359E+0	1.498306E+0	1.441648E+0	1.406568E+0	1.435340E+0	1.403971E+0	1.462103E+0	1.454125E+0	1.468469E+0	1.444076E+0	1.438540E+0	1.461224E+0	1.464018E+0	1.367183E+0	1.416303E+0	1.454889E+0	1.455913E+0	1.499814E+0	1.459401E+0	1.471352E+0	1.398284E+0	1.423475E+0	1.460467E+0	1.482951E+0	1.434156E+0	1.477792E+0	1.461577E+0	1.515896E+0	1.459837E+0	1.495466E+0	1.430531E+0	1.440472E+0	1.430791E+0	1.433186E+0	1.405274E+0	1.484886E+0	1.439820E+0	1.441380E+0	1.434570E+0	1.477070E+0	1.419209E+0	1.462350E+0	1.456155E+0	1.500909E+0	1.491493E+0	1.407681E+0	1.419403E+0	1.487585E+0	1.458956E+0	1.458752E+0	1.401112E+0	1.406191E+0	1.440971E+0	1.488040E+0	1.408910E+0	1.507132E+0	1.410575E+0	1.451021E+0	1.392959E+0	1.494454E+0
5.437690E+2	1.532750E+0	1.614342E+0	1.565562E+0	1.594336E+0	1.544578E+0	1.641284E+0	1.577194E+0	1.546974E+0	1.546815E+0	1.576555E+0	1.556523E+0	1.591972E+0	1.588553E+0	1.551187E+0	1.553311E+0	1.562967E+0	1.595000E+0	1.555546E+0	1.609643E+0	1.530522E+0	1.576000E+0	1.604484E+0	1.591165E+0	1.580221E+0	1.553763E+0	1.519299E+0	1.557458E+0	1.564621E+0	1.645662E+0	1.540592E+0	1.548584E+0	1.590732E+0	1.585192E+0	1.520124E+0	1.543906E+0	1.592314E+0	1.540119E+0	1.570430E+0	1.522599E+0	1.582799E+0	1.570431E+0	1.562530E+0	1.543985E+0	1.619191E+0	1.551301E+0	1.535140E+0	1.499842E+0	1.535979E+0	1.549479E+0	1.519535E+0	1.484207E+0	1.617636E+0	1.583665E+0	1.535650E+0	1.560490E+0	1.560101E+0	1.555207E+0	1.594830E+0	1.541675E+0	1.621221E+0	1.567294E+0	1.654409E+0	1.523733E+0	1.572330E+0	1.557401E+0	1.509277E+0	1.536829E+0	1.545897E+0	1.517313E+0	1.585947E+0	1.571183E+0	1.522038E+0	1.503821E+0	1.621721E+0	1.553959E+0	1.637356E+0	1.573301E+0	1.539411E+0	1.568966E+0	1.568227E+0	1.497948E+0	1.560581E+0	1.544533E+0	1.587297E+0	1.549386E+0	1.609180E+0	1.592276E+0	1.570859E+0	1.550468E+0	1.583830E+0	1.615606E+0	1.557808E+0	1.540670E+0	1.551500E+0	1.584454E+0	1.572784E+0	1.530104E+0	1.588454E+0	1.532469E+0	1.566502E+0	1.484178E+0	1.580691E+0	1.495816E+0	1.588125E+0	1.480999E+0	1.575580E+0	1.560843E+0	1.557594E+0	1.507197E+0	1.579582E+0	1.584132E+0	1.517309E+0	1.549440E+0	1.552616E+0	1.515094E+0	1.504784E+0	1.515449E+0	1.542854E+0	1.582850E+0	1.551072E+0	1.474171E+0	1.579103E+0	1.532616E+0	1.509427E+0	1.548831E+0	1.580513E+0	1.576465E+0	1.596355E+0	1.574476E+0	1.564019E+0	1.507504E+0	1.519233E+0	1.642848E+0	1.611422E+0	1.549983E+0	1.576816E+0	1.569736E+0	1.580122E+0	1.582634E+0	1.535455E+0	1.515735E+0	1.554467E+0	1.526405E+0	1.502807E+0	1.543100E+0	1.571793E+0	1.546615E+0	1.559458E+0	1.483908E+0	1.544290E+0	1.519972E+0	1.523289E+0	1.486088E+0	1.518893E+0	1.527928E+0	1.535860E+0	1.567255E+0	1.536026E+0	1.568623E+0	1.548403E+0	1.549098E+0	1.567272E+0	1.596308E+0	1.542643E+0	1.520465E+0	1.565150E+0	1.497556E+0	1.562379E+0	1.486494E+0	1.556175E+0
5.440170E+2	1.603789E+0	1.505465E+0	1.629484E+0	1.579408E+0	1.517132E+0	1.591119E+0	1.606930E+0	1.617662E+0	1.580337E+0	1.594697E+0	1.594210E+0	1.566417E+0	1.594822E+0	1.603200E+0	1.573694E+0	1.551768E+0	1.588811E+0	1.599264E+0	1.615700E+0	1.533101E+0	1.615179E+0	1.615131E+0	1.607345E+0	1.580910E+0	1.553084E+0	1.576633E+0	1.630789E+0	1.592310E+0	1.613718E+0	1.603261E+0	1.503397E+0	1.557196E+0	1.548967E+0	1.591782E+0	1.542661E+0	1.570273E+0	1.594927E+0	1.637680E+0	1.569115E+0	1.569368E+0	1.620852E+0	1.645336E+0	1.607189E+0	1.510042E+0	1.578969E+0	1.596030E+0	1.556881E+0	1.534470E+0	1.532883E+0	1.530445E+0	1.568540E+0	1.595965E+0	1.546055E+0	1.614085E+0	1.566854E+0	1.619460E+0	1.552491E+0	1.614736E+0	1.585042E+0	1.575775E+0	1.599119E+0	1.569995E+0	1.518893E+0	1.572303E+0	1.510764E+0	1.581767E+0	1.502844E+0	1.582308E+0	1.562943E+0	1.578152E+0	1.561868E+0	1.566809E+0	1.499286E+0	1.575186E+0	1.586459E+0	1.594038E+0	1.531578E+0	1.593839E+0	1.561547E+0	1.561336E+0	1.530488E+0	1.628192E+0	1.645995E+0	1.526305E+0	1.537655E+0	1.614097E+0	1.515892E+0	1.588279E+0	1.580271E+0	1.604033E+0	1.538913E+0	1.541356E+0	1.558657E+0	1.562411E+0	1.550892E+0	1.530700E+0	1.591977E+0	1.596242E+0	1.592107E+0	1.557397E+0	1.557117E+0	1.563643E+0	1.606840E+0	1.512076E+0	1.545911E+0	1.616398E+0	1.530085E+0	1.535518E+0	1.580192E+0	1.538782E+0	1.532757E+0	1.578778E+0	1.556147E+0	1.516998E+0	1.558305E+0	1.623448E+0	1.584601E+0	1.579216E+0	1.580861E+0	1.574705E+0	1.592718E+0	1.614729E+0	1.548454E+0	1.584787E+0	1.559497E+0	1.556438E+0	1.582864E+0	1.588356E+0	1.540673E+0	1.608179E+0	1.558158E+0	1.591532E+0	1.608077E+0	1.639883E+0	1.552065E+0	1.540322E+0	1.556367E+0	1.527860E+0	1.526473E+0	1.614345E+0	1.549949E+0	1.541870E+0	1.519603E+0	1.518882E+0	1.535264E+0	1.561392E+0	1.530705E+0	1.517772E+0	1.546060E+0	1.603838E+0	1.550282E+0	1.591360E+0	1.472318E+0	1.575796E+0	1.522185E+0	1.581866E+0	1.537013E+0	1.592577E+0	1.517248E+0	1.627721E+0	1.531192E+0	1.527470E+0	1.509697E+0	1.611685E+0	1.461986E+0	1.559127E+0	1.576216E+0	1.551093E+0	1.511684E+0	1.477186E+0
5.442920E+2	1.594818E+0	1.599068E+0	1.621184E+0	1.690084E+0	1.597382E+0	1.584070E+0	1.588323E+0	1.600817E+0	1.626172E+0	1.616569E+0	1.606614E+0	1.585894E+0	1.609245E+0	1.588557E+0	1.604186E+0	1.560899E+0	1.641197E+0	1.577792E+0	1.684241E+0	1.567484E+0	1.581221E+0	1.641956E+0	1.615082E+0	1.550867E+0	1.600284E+0	1.596428E+0	1.605280E+0	1.595225E+0	1.612976E+0	1.545014E+0	1.614011E+0	1.626646E+0	1.577345E+0	1.550993E+0	1.507155E+0	1.566123E+0	1.598381E+0	1.595559E+0	1.556975E+0	1.647552E+0	1.646666E+0	1.573130E+0	1.590853E+0	1.536407E+0	1.566246E+0	1.588922E+0	1.596927E+0	1.518891E+0	1.584192E+0	1.543400E+0	1.585724E+0	1.625194E+0	1.576779E+0	1.522854E+0	1.611515E+0	1.618683E+0	1.560530E+0	1.648195E+0	1.576178E+0	1.575993E+0	1.589820E+0	1.646329E+0	1.612869E+0	1.561195E+0	1.549638E+0	1.545520E+0	1.577742E+0	1.576515E+0	1.588077E+0	1.640680E+0	1.573717E+0	1.582427E+0	1.585982E+0	1.604409E+0	1.526368E+0	1.640759E+0	1.544138E+0	1.557033E+0	1.608477E+0	1.615967E+0	1.583967E+0	1.625037E+0	1.566362E+0	1.577143E+0	1.564010E+0	1.595727E+0	1.564134E+0	1.604221E+0	1.557771E+0	1.610932E+0	1.562945E+0	1.568172E+0	1.558005E+0	1.595010E+0	1.520584E+0	1.584403E+0	1.565222E+0	1.617414E+0	1.561052E+0	1.560015E+0	1.603969E+0	1.558555E+0	1.593196E+0	1.586378E+0	1.566512E+0	1.620204E+0	1.557373E+0	1.603941E+0	1.561181E+0	1.563996E+0	1.532300E+0	1.631666E+0	1.565432E+0	1.541649E+0	1.519559E+0	1.582043E+0	1.560597E+0	1.581114E+0	1.587937E+0	1.635927E+0	1.543458E+0	1.563292E+0	1.537368E+0	1.566053E+0	1.552387E+0	1.539239E+0	1.602559E+0	1.604137E+0	1.554787E+0	1.565711E+0	1.613787E+0	1.584960E+0	1.608556E+0	1.585018E+0	1.600452E+0	1.608889E+0	1.531325E+0	1.606597E+0	1.528009E+0	1.563101E+0	1.536936E+0	1.579132E+0	1.545285E+0	1.529089E+0	1.592680E+0	1.633703E+0	1.524274E+0	1.596523E+0	1.558562E+0	1.563697E+0	1.569281E+0	1.620025E+0	1.522683E+0	1.537371E+0	1.543863E+0	1.558493E+0	1.532719E+0	1.546777E+0	1.562178E+0	1.612018E+0	1.542150E+0	1.593040E+0	1.593580E+0	1.564795E+0	1.560697E+0	1.610354E+0	1.530378E+0	1.642217E+0	1.500494E+0	1.602044E+0
5.445240E+2	1.572973E+0	1.526221E+0	1.596009E+0	1.554703E+0	1.564985E+0	1.604033E+0	1.577168E+0	1.597495E+0	1.582804E+0	1.556630E+0	1.515863E+0	1.611501E+0	1.567770E+0	1.523131E+0	1.562213E+0	1.589773E+0	1.575741E+0	1.536050E+0	1.573780E+0	1.563140E+0	1.596167E+0	1.526992E+0	1.538810E+0	1.578676E+0	1.501712E+0	1.509393E+0	1.504108E+0	1.544241E+0	1.519003E+0	1.503474E+0	1.549667E+0	1.528091E+0	1.551255E+0	1.556093E+0	1.544644E+0	1.541286E+0	1.538627E+0	1.553694E+0	1.561529E+0	1.555791E+0	1.557643E+0	1.539031E+0	1.530967E+0	1.589724E+0	1.516677E+0	1.585835E+0	1.547754E+0	1.455306E+0	1.547392E+0	1.518603E+0	1.554488E+0	1.566751E+0	1.510725E+0	1.520467E+0	1.567255E+0	1.528677E+0	1.578755E+0	1.663517E+0	1.516830E+0	1.534187E+0	1.528615E+0	1.572865E+0	1.572531E+0	1.573601E+0	1.498751E+0	1.497309E+0	1.491329E+0	1.540414E+0	1.528220E+0	1.597750E+0	1.535634E+0	1.572692E+0	1.510692E+0	1.529927E+0	1.525573E+0	1.529097E+0	1.476994E+0	1.570590E+0	1.456660E+0	1.596161E+0	1.499608E+0	1.509830E+0	1.538963E+0	1.510463E+0	1.554552E+0	1.589999E+0	1.509337E+0	1.514752E+0	1.531714E+0	1.565220E+0	1.506703E+0	1.556507E+0	1.493035E+0	1.574728E+0	1.623444E+0	1.517134E+0	1.545140E+0	1.547533E+0	1.565760E+0	1.519367E+0	1.558997E+0	1.580777E+0	1.529315E+0	1.564363E+0	1.529494E+0	1.521406E+0	1.589977E+0	1.533989E+0	1.499048E+0	1.542786E+0	1.558051E+0	1.486237E+0	1.513490E+0	1.506983E+0	1.532926E+0	1.508284E+0	1.575688E+0	1.589334E+0	1.582049E+0	1.605271E+0	1.571469E+0	1.572943E+0	1.528930E+0	1.515896E+0	1.535088E+0	1.544729E+0	1.558645E+0	1.499925E+0	1.565452E+0	1.612149E+0	1.571804E+0	1.457920E+0	1.543923E+0	1.532568E+0	1.509671E+0	1.503777E+0	1.543024E+0	1.551195E+0	1.573724E+0	1.582751E+0	1.469275E+0	1.524700E+0	1.518092E+0	1.502982E+0	1.523431E+0	1.572787E+0	1.531323E+0	1.511697E+0	1.477153E+0	1.568670E+0	1.541715E+0	1.523351E+0	1.510651E+0	1.490861E+0	1.494923E+0	1.502932E+0	1.575832E+0	1.502952E+0	1.555820E+0	1.540411E+0	1.498129E+0	1.473515E+0	1.592181E+0	1.483949E+0	1.523456E+0	1.513342E+0	1.488554E+0	1.531495E+0	1.531688E+0	1.485122E+0
5.447720E+2	1.474366E+0	1.503132E+0	1.494676E+0	1.524594E+0	1.527408E+0	1.528983E+0	1.511286E+0	1.510740E+0	1.524154E+0	1.491121E+0	1.483010E+0	1.515808E+0	1.477526E+0	1.486336E+0	1.508766E+0	1.539724E+0	1.444980E+0	1.495705E+0	1.467673E+0	1.489615E+0	1.472940E+0	1.544692E+0	1.526179E+0	1.515514E+0	1.487877E+0	1.467082E+0	1.468606E+0	1.496095E+0	1.455607E+0	1.467257E+0	1.489898E+0	1.446594E+0	1.484832E+0	1.453934E+0	1.504692E+0	1.473545E+0	1.486995E+0	1.530751E+0	1.521080E+0	1.456585E+0	1.513569E+0	1.518587E+0	1.508336E+0	1.478711E+0	1.520252E+0	1.507795E+0	1.458060E+0	1.456930E+0	1.484262E+0	1.439915E+0	1.503280E+0	1.543414E+0	1.464366E+0	1.464036E+0	1.489096E+0	1.497764E+0	1.450776E+0	1.535807E+0	1.478485E+0	1.564492E+0	1.454172E+0	1.465931E+0	1.466805E+0	1.460427E+0	1.431115E+0	1.460456E+0	1.458289E+0	1.498492E+0	1.495525E+0	1.505767E+0	1.515640E+0	1.470647E+0	1.487239E+0	1.494018E+0	1.421343E+0	1.551233E+0	1.448991E+0	1.472970E+0	1.478187E+0	1.508636E+0	1.462283E+0	1.505859E+0	1.515578E+0	1.491121E+0	1.487254E+0	1.552368E+0	1.476202E+0	1.507859E+0	1.488342E+0	1.504579E+0	1.488883E+0	1.504102E+0	1.431899E+0	1.482581E+0	1.485116E+0	1.464619E+0	1.482187E+0	1.523785E+0	1.509400E+0	1.527401E+0	1.469878E+0	1.499511E+0	1.540154E+0	1.501014E+0	1.468398E+0	1.475689E+0	1.533889E+0	1.461560E+0	1.488907E+0	1.524051E+0	1.434200E+0	1.474970E+0	1.467931E+0	1.392638E+0	1.517615E+0	1.453769E+0	1.481602E+0	1.527607E+0	1.482071E+0	1.501282E+0	1.447074E+0	1.478365E+0	1.473917E+0	1.490126E+0	1.457757E+0	1.460582E+0	1.474434E+0	1.479937E+0	1.472039E+0	1.478505E+0	1.554351E+0	1.467022E+0	1.529552E+0	1.498303E+0	1.464445E+0	1.511864E+0	1.491564E+0	1.505881E+0	1.532777E+0	1.471874E+0	1.458414E+0	1.501378E+0	1.459556E+0	1.459957E+0	1.471939E+0	1.488762E+0	1.470331E+0	1.473890E+0	1.441914E+0	1.472930E+0	1.500158E+0	1.449851E+0	1.387004E+0	1.500823E+0	1.458992E+0	1.454021E+0	1.510436E+0	1.455823E+0	1.444090E+0	1.486725E+0	1.442896E+0	1.423511E+0	1.438679E+0	1.450012E+0	1.405462E+0	1.439449E+0	1.460221E+0	1.478737E+0	1.429521E+0	1.550073E+0
5.450150E+2	1.410080E+0	1.400877E+0	1.331258E+0	1.383526E+0	1.341063E+0	1.350467E+0	1.383275E+0	1.397594E+0	1.350828E+0	1.346732E+0	1.366844E+0	1.369845E+0	1.404259E+0	1.348238E+0	1.359605E+0	1.380403E+0	1.385084E+0	1.397496E+0	1.409041E+0	1.394234E+0	1.392568E+0	1.431560E+0	1.392928E+0	1.359382E+0	1.366233E+0	1.322979E+0	1.361072E+0	1.386233E+0	1.388310E+0	1.336718E+0	1.330469E+0	1.351343E+0	1.372374E+0	1.344892E+0	1.382645E+0	1.348386E+0	1.307650E+0	1.349696E+0	1.351828E+0	1.359677E+0	1.352365E+0	1.374750E+0	1.388334E+0	1.349984E+0	1.334597E+0	1.412511E+0	1.291761E+0	1.345897E+0	1.312306E+0	1.373708E+0	1.352667E+0	1.328117E+0	1.352796E+0	1.316441E+0	1.381771E+0	1.401296E+0	1.370334E+0	1.380666E+0	1.361870E+0	1.347389E+0	1.391709E+0	1.366979E+0	1.373824E+0	1.383941E+0	1.312532E+0	1.362089E+0	1.350089E+0	1.349549E+0	1.381027E+0	1.377115E+0	1.366876E+0	1.364888E+0	1.354877E+0	1.373792E+0	1.366502E+0	1.408765E+0	1.302147E+0	1.310866E+0	1.346838E+0	1.399571E+0	1.372317E+0	1.348865E+0	1.360145E+0	1.362604E+0	1.333677E+0	1.426737E+0	1.354509E+0	1.389678E+0	1.359192E+0	1.331472E+0	1.310023E+0	1.386537E+0	1.370314E+0	1.292777E+0	1.356793E+0	1.307718E+0	1.329913E+0	1.336373E+0	1.396496E+0	1.349606E+0	1.395700E+0	1.383881E+0	1.361113E+0	1.380865E+0	1.379772E+0	1.379279E+0	1.360788E+0	1.418141E+0	1.330325E+0	1.357031E+0	1.411004E+0	1.388386E+0	1.351773E+0	1.334954E+0	1.331688E+0	1.381575E+0	1.325625E+0	1.378902E+0	1.367177E+0	1.397209E+0	1.352563E+0	1.365697E+0	1.390589E+0	1.360682E+0	1.399408E+0	1.362587E+0	1.346489E+0	1.380315E+0	1.372340E+0	1.400610E+0	1.340962E+0	1.377849E+0	1.327917E+0	1.394849E+0	1.348779E+0	1.348216E+0	1.330798E+0	1.412624E+0	1.348808E+0	1.347834E+0	1.400073E+0	1.322550E+0	1.353254E+0	1.323386E+0	1.355750E+0	1.435925E+0	1.340505E+0	1.328142E+0	1.357134E+0	1.388355E+0	1.342965E+0	1.384514E+0	1.330053E+0	1.319749E+0	1.336977E+0	1.355953E+0	1.315486E+0	1.375280E+0	1.366718E+0	1.374606E+0	1.368422E+0	1.326446E+0	1.364294E+0	1.381748E+0	1.335203E+0	1.408957E+0	1.371175E+0	1.322781E+0	1.349004E+0	1.329852E+0
5.452580E+2	1.302489E+0	1.314424E+0	1.282509E+0	1.335883E+0	1.277996E+0	1.283431E+0	1.268818E+0	1.276613E+0	1.292785E+0	1.296833E+0	1.347610E+0	1.341754E+0	1.286683E+0	1.255696E+0	1.307044E+0	1.319180E+0	1.323356E+0	1.275503E+0	1.333851E+0	1.314281E+0	1.289422E+0	1.297728E+0	1.272678E+0	1.294583E+0	1.260890E+0	1.246913E+0	1.324512E+0	1.237348E+0	1.293309E+0	1.315009E+0	1.283770E+0	1.288253E+0	1.329306E+0	1.266133E+0	1.297428E+0	1.273323E+0	1.326692E+0	1.252310E+0	1.302882E+0	1.323083E+0	1.353242E+0	1.284198E+0	1.302819E+0	1.296357E+0	1.291411E+0	1.310760E+0	1.261882E+0	1.261098E+0	1.261547E+0	1.257055E+0	1.287306E+0	1.282647E+0	1.258872E+0	1.282385E+0	1.335807E+0	1.276561E+0	1.259170E+0	1.261835E+0	1.303338E+0	1.325306E+0	1.270047E+0	1.294945E+0	1.303381E+0	1.306955E+0	1.312744E+0	1.261438E+0	1.294473E+0	1.287726E+0	1.272511E+0	1.322554E+0	1.241228E+0	1.308661E+0	1.259641E+0	1.297647E+0	1.307753E+0	1.305012E+0	1.234758E+0	1.246265E+0	1.292435E+0	1.292797E+0	1.284831E+0	1.270947E+0	1.295402E+0	1.296766E+0	1.279911E+0	1.310523E+0	1.302525E+0	1.287933E+0	1.261998E+0	1.262033E+0	1.317403E+0	1.245323E+0	1.280717E+0	1.280358E+0	1.296573E+0	1.281626E+0	1.316287E+0	1.307685E+0	1.284999E+0	1.260549E+0	1.302147E+0	1.237399E+0	1.299249E+0	1.284952E+0	1.342262E+0	1.320968E+0	1.286624E+0	1.326980E+0	1.270461E+0	1.287533E+0	1.342723E+0	1.338965E+0	1.319987E+0	1.265987E+0	1.304644E+0	1.250578E+0	1.276860E+0	1.278917E+0	1.302160E+0	1.266545E+0	1.270828E+0	1.291101E+0	1.329325E+0	1.239152E+0	1.312430E+0	1.269046E+0	1.287392E+0	1.301051E+0	1.278007E+0	1.285703E+0	1.309920E+0	1.285325E+0	1.294570E+0	1.312270E+0	1.330696E+0	1.346717E+0	1.303079E+0	1.234179E+0	1.327835E+0	1.268265E+0	1.291039E+0	1.326075E+0	1.217707E+0	1.238729E+0	1.282326E+0	1.310600E+0	1.260848E+0	1.243942E+0	1.290817E+0	1.323980E+0	1.310171E+0	1.324092E+0	1.270963E+0	1.290589E+0	1.316092E+0	1.274959E+0	1.287831E+0	1.288738E+0	1.298505E+0	1.276638E+0	1.254411E+0	1.258981E+0	1.265676E+0	1.286683E+0	1.283103E+0	1.323086E+0	1.319735E+0	1.304899E+0	1.275457E+0	1.219649E+0
5.455500E+2	1.187504E+0	1.224271E+0	1.230245E+0	1.233641E+0	1.235146E+0	1.224808E+0	1.214740E+0	1.234128E+0	1.182963E+0	1.219231E+0	1.235385E+0	1.281277E+0	1.187159E+0	1.215270E+0	1.245954E+0	1.228782E+0	1.260833E+0	1.197691E+0	1.202362E+0	1.214947E+0	1.256535E+0	1.201831E+0	1.191001E+0	1.277794E+0	1.186333E+0	1.255914E+0	1.184430E+0	1.274344E+0	1.205917E+0	1.207925E+0	1.247438E+0	1.246183E+0	1.258861E+0	1.208584E+0	1.242312E+0	1.268272E+0	1.226177E+0	1.209535E+0	1.246170E+0	1.172366E+0	1.211587E+0	1.266158E+0	1.157031E+0	1.252928E+0	1.211336E+0	1.206115E+0	1.255233E+0	1.230423E+0	1.245467E+0	1.187889E+0	1.173027E+0	1.237019E+0	1.210315E+0	1.233079E+0	1.211087E+0	1.246681E+0	1.217036E+0	1.240107E+0	1.248938E+0	1.202802E+0	1.235110E+0	1.218547E+0	1.233650E+0	1.206041E+0	1.173848E+0	1.201215E+0	1.198091E+0	1.246905E+0	1.187249E+0	1.187585E+0	1.221855E+0	1.272902E+0	1.192780E+0	1.201122E+0	1.226980E+0	1.220807E+0	1.204339E+0	1.196476E+0	1.228345E+0	1.265229E+0	1.183249E+0	1.193375E+0	1.181061E+0	1.224433E+0	1.186858E+0	1.229641E+0	1.239217E+0	1.182508E+0	1.212896E+0	1.272235E+0	1.188417E+0	1.257907E+0	1.232338E+0	1.190735E+0	1.212198E+0	1.209655E+0	1.224125E+0	1.235084E+0	1.230522E+0	1.229480E+0	1.237247E+0	1.205738E+0	1.228486E+0	1.184283E+0	1.203364E+0	1.197455E+0	1.234579E+0	1.203562E+0	1.210532E+0	1.198248E+0	1.194659E+0	1.250822E+0	1.188705E+0	1.197254E+0	1.231375E+0	1.217217E+0	1.235150E+0	1.174148E+0	1.248243E+0	1.193186E+0	1.198248E+0	1.216558E+0	1.228345E+0	1.172095E+0	1.213334E+0	1.200193E+0	1.215844E+0	1.221394E+0	1.224580E+0	1.225682E+0	1.198238E+0	1.205927E+0	1.232759E+0	1.190000E+0	1.224562E+0	1.200049E+0	1.255418E+0	1.226701E+0	1.226736E+0	1.214006E+0	1.231257E+0	1.184538E+0	1.203612E+0	1.186907E+0	1.257159E+0	1.224936E+0	1.221899E+0	1.203013E+0	1.222554E+0	1.205949E+0	1.219030E+0	1.277398E+0	1.158306E+0	1.201719E+0	1.228776E+0	1.205514E+0	1.225725E+0	1.243998E+0	1.232101E+0	1.251638E+0	1.126423E+0	1.130006E+0	1.200143E+0	1.245210E+0	1.129223E+0	1.222901E+0	1.245750E+0	1.190467E+0	1.144240E+0	1.158124E+0
5.457830E+2	1.190832E+0	1.189357E+0	1.228913E+0	1.205983E+0	1.218148E+0	1.180806E+0	1.183614E+0	1.200300E+0	1.242665E+0	1.152595E+0	1.230317E+0	1.218034E+0	1.246513E+0	1.228818E+0	1.159860E+0	1.240655E+0	1.191323E+0	1.169204E+0	1.254867E+0	1.205820E+0	1.220588E+0	1.218331E+0	1.199949E+0	1.189580E+0	1.182475E+0	1.227968E+0	1.195457E+0	1.172819E+0	1.165345E+0	1.189503E+0	1.231836E+0	1.193522E+0	1.229054E+0	1.217826E+0	1.152162E+0	1.202201E+0	1.201278E+0	1.178948E+0	1.205117E+0	1.171159E+0	1.269077E+0	1.209015E+0	1.241882E+0	1.225861E+0	1.241327E+0	1.234212E+0	1.179045E+0	1.168141E+0	1.192496E+0	1.130390E+0	1.169014E+0	1.206721E+0	1.210442E+0	1.175697E+0	1.238114E+0	1.246628E+0	1.205401E+0	1.181756E+0	1.166103E+0	1.206756E+0	1.223357E+0	1.214251E+0	1.191858E+0	1.206915E+0	1.190479E+0	1.147531E+0	1.215980E+0	1.217752E+0	1.210047E+0	1.206948E+0	1.186053E+0	1.198630E+0	1.205405E+0	1.240977E+0	1.181861E+0	1.249005E+0	1.176144E+0	1.172479E+0	1.165783E+0	1.224462E+0	1.222888E+0	1.222787E+0	1.179536E+0	1.262992E+0	1.150727E+0	1.224354E+0	1.205027E+0	1.195568E+0	1.193616E+0	1.206515E+0	1.211562E+0	1.216513E+0	1.175094E+0	1.158136E+0	1.234814E+0	1.235341E+0	1.261042E+0	1.201467E+0	1.175744E+0	1.219848E+0	1.170065E+0	1.160488E+0	1.212505E+0	1.224001E+0	1.193770E+0	1.184957E+0	1.198121E+0	1.211228E+0	1.181121E+0	1.212629E+0	1.225051E+0	1.230856E+0	1.134633E+0	1.215163E+0	1.188156E+0	1.194256E+0	1.181941E+0	1.189735E+0	1.233430E+0	1.185380E+0	1.194367E+0	1.189141E+0	1.207521E+0	1.205514E+0	1.147909E+0	1.191886E+0	1.245072E+0	1.205631E+0	1.134929E+0	1.171108E+0	1.202360E+0	1.170735E+0	1.214954E+0	1.271322E+0	1.216009E+0	1.276152E+0	1.201786E+0	1.204572E+0	1.239334E+0	1.198472E+0	1.206322E+0	1.181116E+0	1.181241E+0	1.177105E+0	1.185629E+0	1.156457E+0	1.217632E+0	1.153418E+0	1.166627E+0	1.189715E+0	1.216693E+0	1.236972E+0	1.163161E+0	1.199127E+0	1.219057E+0	1.175290E+0	1.196443E+0	1.201025E+0	1.193333E+0	1.169699E+0	1.176225E+0	1.131862E+0	1.168451E+0	1.235152E+0	1.206835E+0	1.169798E+0	1.161646E+0	1.212456E+0	1.139663E+0	1.132773E+0
5.460060E+2	1.179748E+0	1.199234E+0	1.241353E+0	1.195357E+0	1.194015E+0	1.216530E+0	1.248732E+0	1.182488E+0	1.185369E+0	1.178415E+0	1.228863E+0	1.227645E+0	1.201896E+0	1.204761E+0	1.216049E+0	1.200398E+0	1.219509E+0	1.195364E+0	1.127129E+0	1.161769E+0	1.231344E+0	1.161499E+0	1.245665E+0	1.183454E+0	1.227076E+0	1.192384E+0	1.219310E+0	1.222529E+0	1.188162E+0	1.144321E+0	1.196819E+0	1.171524E+0	1.196184E+0	1.226045E+0	1.215136E+0	1.206333E+0	1.171763E+0	1.163728E+0	1.187802E+0	1.207823E+0	1.199958E+0	1.181156E+0	1.271947E+0	1.158136E+0	1.186676E+0	1.157169E+0	1.207587E+0	1.176457E+0	1.232870E+0	1.185869E+0	1.177096E+0	1.212319E+0	1.213679E+0	1.131008E+0	1.216363E+0	1.236609E+0	1.135629E+0	1.218278E+0	1.222079E+0	1.198244E+0	1.159139E+0	1.161880E+0	1.210679E+0	1.169814E+0	1.170594E+0	1.223993E+0	1.175212E+0	1.142142E+0	1.196141E+0	1.164015E+0	1.218500E+0	1.187199E+0	1.150086E+0	1.222589E+0	1.218456E+0	1.248694E+0	1.190637E+0	1.192741E+0	1.197110E+0	1.177879E+0	1.172299E+0	1.210895E+0	1.207925E+0	1.206037E+0	1.230405E+0	1.240122E+0	1.183084E+0	1.203480E+0	1.157150E+0	1.138161E+0	1.184409E+0	1.203294E+0	1.157022E+0	1.235477E+0	1.194443E+0	1.198255E+0	1.197377E+0	1.178415E+0	1.240020E+0	1.176798E+0	1.193665E+0	1.192735E+0	1.169269E+0	1.181000E+0	1.165541E+0	1.206506E+0	1.221129E+0	1.200973E+0	1.207316E+0	1.204020E+0	1.188790E+0	1.175272E+0	1.228233E+0	1.170647E+0	1.231180E+0	1.194190E+0	1.179774E+0	1.172028E+0	1.202490E+0	1.189948E+0	1.187993E+0	1.168666E+0	1.203631E+0	1.098189E+0	1.214808E+0	1.224919E+0	1.197001E+0	1.171564E+0	1.126513E+0	1.241355E+0	1.202890E+0	1.196365E+0	1.155918E+0	1.195511E+0	1.227502E+0	1.202774E+0	1.161111E+0	1.176522E+0	1.180826E+0	1.140581E+0	1.180052E+0	1.194431E+0	1.209890E+0	1.155126E+0	1.203835E+0	1.216342E+0	1.182585E+0	1.177097E+0	1.168136E+0	1.145061E+0	1.209302E+0	1.212738E+0	1.125719E+0	1.242798E+0	1.248954E+0	1.163858E+0	1.186702E+0	1.215039E+0	1.161239E+0	1.225779E+0	1.201030E+0	1.190376E+0	1.199869E+0	1.185589E+0	1.187098E+0	1.202138E+0	1.145189E+0	1.222493E+0	1.175945E+0	1.138806E+0
5.467710E+2	1.242526E+0	1.216035E+0	1.226354E+0	1.244361E+0	1.190105E+0	1.247659E+0	1.225419E+0	1.210901E+0	1.223936E+0	1.277220E+0	1.240134E+0	1.262967E+0	1.265343E+0	1.279302E+0	1.232019E+0	1.227769E+0	1.226807E+0	1.227369E+0	1.312861E+0	1.186512E+0	1.270658E+0	1.184028E+0	1.250135E+0	1.235353E+0	1.274997E+0	1.267586E+0	1.240772E+0	1.256055E+0	1.256576E+0	1.237801E+0	1.256996E+0	1.238536E+0	1.278423E+0	1.260421E+0	1.238762E+0	1.263261E+0	1.235359E+0	1.249354E+0	1.294247E+0	1.240696E+0	1.216927E+0	1.299888E+0	1.317500E+0	1.275176E+0	1.226648E+0	1.262399E+0	1.243653E+0	1.264960E+0	1.224347E+0	1.259543E+0	1.279471E+0	1.270565E+0	1.259929E+0	1.198953E+0	1.274885E+0	1.270140E+0	1.229398E+0	1.307938E+0	1.276276E+0	1.273447E+0	1.257517E+0	1.217787E+0	1.237961E+0	1.222702E+0	1.215556E+0	1.226150E+0	1.259269E+0	1.272427E+0	1.221926E+0	1.285998E+0	1.261544E+0	1.266225E+0	1.259955E+0	1.269969E+0	1.219945E+0	1.301155E+0	1.274843E+0	1.218081E+0	1.297317E+0	1.258267E+0	1.247839E+0	1.282708E+0	1.294751E+0	1.237156E+0	1.228476E+0	1.219436E+0	1.267419E+0	1.238295E+0	1.204480E+0	1.241913E+0	1.212153E+0	1.262818E+0	1.258353E+0	1.248270E+0	1.268615E+0	1.241933E+0	1.230042E+0	1.242548E+0	1.225997E+0	1.246508E+0	1.230858E+0	1.214275E+0	1.216659E+0	1.250264E+0	1.219598E+0	1.257843E+0	1.260155E+0	1.272651E+0	1.205238E+0	1.217081E+0	1.247072E+0	1.285510E+0	1.254659E+0	1.266241E+0	1.267168E+0	1.234872E+0	1.255330E+0	1.251088E+0	1.295868E+0	1.258521E+0	1.239988E+0	1.260143E+0	1.306149E+0	1.222902E+0	1.217633E+0	1.248717E+0	1.265702E+0	1.257141E+0	1.251383E+0	1.237241E+0	1.244942E+0	1.280144E+0	1.220891E+0	1.263480E+0	1.234615E+0	1.280039E+0	1.246362E+0	1.232296E+0	1.218273E+0	1.257763E+0	1.271723E+0	1.205786E+0	1.327498E+0	1.274682E+0	1.243265E+0	1.287092E+0	1.214772E+0	1.225906E+0	1.255794E+0	1.277871E+0	1.296976E+0	1.243592E+0	1.291958E+0	1.222505E+0	1.239264E+0	1.255867E+0	1.240123E+0	1.252864E+0	1.201166E+0	1.259261E+0	1.242770E+0	1.238198E+0	1.244367E+0	1.242630E+0	1.256042E+0	1.229583E+0	1.233282E+0	1.202786E+0	1.215883E+0	1.213669E+0
5.475120E+2	1.309234E+0	1.336038E+0	1.346094E+0	1.393746E+0	1.362781E+0	1.364118E+0	1.351876E+0	1.360353E+0	1.304987E+0	1.349587E+0	1.359970E+0	1.399027E+0	1.333629E+0	1.355653E+0	1.379620E+0	1.374597E+0	1.372813E+0	1.259513E+0	1.421877E+0	1.293184E+0	1.359930E+0	1.374452E+0	1.347222E+0	1.341121E+0	1.366857E+0	1.336030E+0	1.285299E+0	1.388869E+0	1.375581E+0	1.356762E+0	1.335565E+0	1.394854E+0	1.343282E+0	1.361981E+0	1.323671E+0	1.371952E+0	1.339615E+0	1.361099E+0	1.336325E+0	1.340843E+0	1.322028E+0	1.369045E+0	1.356335E+0	1.353447E+0	1.348914E+0	1.388799E+0	1.348424E+0	1.312913E+0	1.366321E+0	1.330011E+0	1.362794E+0	1.320140E+0	1.380035E+0	1.295849E+0	1.378755E+0	1.339477E+0	1.409773E+0	1.332793E+0	1.376800E+0	1.366127E+0	1.335145E+0	1.352055E+0	1.322439E+0	1.332513E+0	1.348577E+0	1.380840E+0	1.303809E+0	1.356877E+0	1.385796E+0	1.338306E+0	1.311982E+0	1.375464E+0	1.341047E+0	1.391757E+0	1.312061E+0	1.345116E+0	1.359046E+0	1.299121E+0	1.368544E+0	1.392367E+0	1.289496E+0	1.337133E+0	1.349966E+0	1.338221E+0	1.291983E+0	1.346490E+0	1.324906E+0	1.398620E+0	1.364455E+0	1.350728E+0	1.370706E+0	1.373456E+0	1.297330E+0	1.302209E+0	1.347048E+0	1.311589E+0	1.317770E+0	1.312402E+0	1.367617E+0	1.325695E+0	1.307689E+0	1.340896E+0	1.376446E+0	1.334741E+0	1.293704E+0	1.342311E+0	1.326529E+0	1.335015E+0	1.318991E+0	1.304281E+0	1.343066E+0	1.340626E+0	1.373629E+0	1.280122E+0	1.328897E+0	1.344147E+0	1.320274E+0	1.327267E+0	1.336531E+0	1.335940E+0	1.328876E+0	1.321314E+0	1.373558E+0	1.299892E+0	1.331848E+0	1.338553E+0	1.303287E+0	1.363593E+0	1.370917E+0	1.333044E+0	1.340824E+0	1.330373E+0	1.362610E+0	1.318002E+0	1.363621E+0	1.331278E+0	1.381646E+0	1.307676E+0	1.293676E+0	1.379739E+0	1.292988E+0	1.323509E+0	1.292282E+0	1.332612E+0	1.339737E+0	1.347503E+0	1.298519E+0	1.334905E+0	1.331263E+0	1.364581E+0	1.364867E+0	1.309915E+0	1.344752E+0	1.278515E+0	1.342219E+0	1.289172E+0	1.383980E+0	1.313345E+0	1.271737E+0	1.351296E+0	1.281774E+0	1.270581E+0	1.347706E+0	1.330757E+0	1.280662E+0	1.275452E+0	1.319590E+0	1.360316E+0	1.241083E+0	1.312112E+0
5.482660E+2	1.424794E+0	1.441757E+0	1.448681E+0	1.461899E+0	1.423793E+0	1.435562E+0	1.439360E+0	1.468380E+0	1.401495E+0	1.381931E+0	1.443020E+0	1.449452E+0	1.451917E+0	1.410644E+0	1.457673E+0	1.414266E+0	1.426715E+0	1.412745E+0	1.451848E+0	1.407272E+0	1.376007E+0	1.455372E+0	1.412510E+0	1.426537E+0	1.397990E+0	1.436283E+0	1.401726E+0	1.425826E+0	1.393463E+0	1.387186E+0	1.374586E+0	1.384933E+0	1.438855E+0	1.405302E+0	1.347153E+0	1.422256E+0	1.442668E+0	1.385297E+0	1.375720E+0	1.433577E+0	1.440257E+0	1.420677E+0	1.450453E+0	1.401216E+0	1.411486E+0	1.481930E+0	1.360689E+0	1.414130E+0	1.366568E+0	1.380685E+0	1.419282E+0	1.398406E+0	1.382746E+0	1.349351E+0	1.415494E+0	1.433085E+0	1.423015E+0	1.456004E+0	1.390115E+0	1.430466E+0	1.366964E+0	1.429981E+0	1.423131E+0	1.372378E+0	1.419391E+0	1.352131E+0	1.395863E+0	1.445980E+0	1.360089E+0	1.395861E+0	1.377152E+0	1.388871E+0	1.415721E+0	1.418894E+0	1.386352E+0	1.467505E+0	1.405770E+0	1.339010E+0	1.409348E+0	1.395416E+0	1.368272E+0	1.449391E+0	1.391083E+0	1.385487E+0	1.367255E+0	1.382345E+0	1.393934E+0	1.438615E+0	1.423954E+0	1.422062E+0	1.364229E+0	1.416652E+0	1.402269E+0	1.408764E+0	1.420376E+0	1.404216E+0	1.427671E+0	1.370386E+0	1.436556E+0	1.363925E+0	1.403733E+0	1.395605E+0	1.436677E+0	1.342838E+0	1.390232E+0	1.447714E+0	1.422735E+0	1.388571E+0	1.380730E+0	1.417167E+0	1.422253E+0	1.429049E+0	1.385005E+0	1.335428E+0	1.429642E+0	1.414024E+0	1.401536E+0	1.375252E+0	1.425266E+0	1.410750E+0	1.388634E+0	1.374755E+0	1.371963E+0	1.381692E+0	1.404183E+0	1.406903E+0	1.411276E+0	1.394766E+0	1.409748E+0	1.408003E+0	1.377874E+0	1.391870E+0	1.378205E+0	1.412493E+0	1.422543E+0	1.401046E+0	1.414784E+0	1.424023E+0	1.437911E+0	1.415576E+0	1.431726E+0	1.353094E+0	1.420513E+0	1.394433E+0	1.382615E+0	1.435740E+0	1.418214E+0	1.393634E+0	1.398614E+0	1.345179E+0	1.431984E+0	1.402502E+0	1.350489E+0	1.417528E+0	1.379183E+0	1.400590E+0	1.368740E+0	1.426867E+0	1.384790E+0	1.397268E+0	1.383684E+0	1.365698E+0	1.412167E+0	1.447462E+0	1.380306E+0	1.400828E+0	1.361617E+0	1.360166E+0	1.391907E+0	1.475411E+0
5.490540E+2	1.392256E+0	1.390021E+0	1.376238E+0	1.377791E+0	1.388403E+0	1.406145E+0	1.360451E+0	1.392066E+0	1.354369E+0	1.429740E+0	1.379612E+0	1.432386E+0	1.391557E+0	1.408932E+0	1.386435E+0	1.399352E+0	1.430736E+0	1.394509E+0	1.372244E+0	1.381414E+0	1.417085E+0	1.403320E+0	1.384624E+0	1.366168E+0	1.357474E+0	1.321035E+0	1.376973E+0	1.416937E+0	1.378555E+0	1.275945E+0	1.377521E+0	1.390746E+0	1.392154E+0	1.335503E+0	1.343858E+0	1.398496E+0	1.341667E+0	1.409668E+0	1.361828E+0	1.384029E+0	1.348760E+0	1.396937E+0	1.430213E+0	1.414513E+0	1.383401E+0	1.374674E+0	1.370571E+0	1.399017E+0	1.352818E+0	1.352557E+0	1.382910E+0	1.353804E+0	1.412252E+0	1.344295E+0	1.384927E+0	1.394831E+0	1.368248E+0	1.397989E+0	1.422804E+0	1.381067E+0	1.387802E+0	1.398209E+0	1.356750E+0	1.381044E+0	1.372693E+0	1.317829E+0	1.339434E+0	1.441093E+0	1.364213E+0	1.385835E+0	1.313350E+0	1.423847E+0	1.366560E+0	1.383855E+0	1.313589E+0	1.371632E+0	1.335958E+0	1.339473E+0	1.401766E+0	1.364698E+0	1.326062E+0	1.405436E+0	1.357263E+0	1.351371E+0	1.330773E+0	1.401021E+0	1.406993E+0	1.439061E+0	1.394348E+0	1.403415E+0	1.343358E+0	1.377068E+0	1.372310E+0	1.378497E+0	1.342293E+0	1.428307E+0	1.332135E+0	1.404156E+0	1.381775E+0	1.419238E+0	1.359867E+0	1.352987E+0	1.351796E+0	1.367822E+0	1.400536E+0	1.400971E+0	1.336530E+0	1.390722E+0	1.433566E+0	1.380122E+0	1.407407E+0	1.367511E+0	1.399843E+0	1.281932E+0	1.359055E+0	1.407985E+0	1.405172E+0	1.359126E+0	1.363373E+0	1.404731E+0	1.305270E+0	1.332726E+0	1.377211E+0	1.326462E+0	1.374457E+0	1.402879E+0	1.356100E+0	1.445507E+0	1.380585E+0	1.401187E+0	1.388204E+0	1.374685E+0	1.351722E+0	1.363187E+0	1.368339E+0	1.423222E+0	1.363632E+0	1.388592E+0	1.371022E+0	1.367217E+0	1.331140E+0	1.305954E+0	1.384916E+0	1.334638E+0	1.311668E+0	1.419391E+0	1.428372E+0	1.405312E+0	1.292035E+0	1.386167E+0	1.379176E+0	1.398547E+0	1.355018E+0	1.388079E+0	1.372396E+0	1.382382E+0	1.378713E+0	1.370374E+0	1.377882E+0	1.375168E+0	1.386900E+0	1.364771E+0	1.392593E+0	1.383415E+0	1.344540E+0	1.364524E+0	1.385819E+0	1.322270E+0	1.308161E+0	1.295685E+0
5.497960E+2	1.370861E+0	1.390379E+0	1.409115E+0	1.371174E+0	1.373772E+0	1.403178E+0	1.396054E+0	1.397126E+0	1.350753E+0	1.375988E+0	1.413501E+0	1.432704E+0	1.375773E+0	1.378409E+0	1.403039E+0	1.429134E+0	1.344390E+0	1.374484E+0	1.377448E+0	1.416913E+0	1.400846E+0	1.362186E+0	1.409592E+0	1.431133E+0	1.387168E+0	1.384562E+0	1.345862E+0	1.377344E+0	1.353895E+0	1.416601E+0	1.392832E+0	1.366186E+0	1.414231E+0	1.344367E+0	1.350909E+0	1.412965E+0	1.359262E+0	1.368928E+0	1.387824E+0	1.371582E+0	1.445012E+0	1.350826E+0	1.378799E+0	1.366463E+0	1.409503E+0	1.383422E+0	1.351817E+0	1.361298E+0	1.392584E+0	1.331259E+0	1.380513E+0	1.375968E+0	1.378969E+0	1.378723E+0	1.417659E+0	1.403377E+0	1.415357E+0	1.392446E+0	1.421633E+0	1.364794E+0	1.323438E+0	1.363386E+0	1.360745E+0	1.384768E+0	1.377261E+0	1.334596E+0	1.377962E+0	1.412982E+0	1.375144E+0	1.385808E+0	1.331790E+0	1.411231E+0	1.289767E+0	1.404303E+0	1.368650E+0	1.426083E+0	1.368640E+0	1.352581E+0	1.367396E+0	1.424493E+0	1.410250E+0	1.276415E+0	1.356034E+0	1.347071E+0	1.339142E+0	1.390564E+0	1.407322E+0	1.402348E+0	1.356506E+0	1.345761E+0	1.382844E+0	1.390849E+0	1.348272E+0	1.324719E+0	1.362994E+0	1.368519E+0	1.380171E+0	1.388090E+0	1.353698E+0	1.375915E+0	1.428598E+0	1.295234E+0	1.305572E+0	1.408245E+0	1.394474E+0	1.365719E+0	1.331875E+0	1.330059E+0	1.412426E+0	1.417942E+0	1.379334E+0	1.376590E+0	1.367561E+0	1.319727E+0	1.357177E+0	1.387431E+0	1.370644E+0	1.316588E+0	1.376150E+0	1.345244E+0	1.382022E+0	1.336723E+0	1.377632E+0	1.372575E+0	1.376604E+0	1.352409E+0	1.357382E+0	1.354877E+0	1.364267E+0	1.368161E+0	1.337605E+0	1.385029E+0	1.334760E+0	1.362079E+0	1.328081E+0	1.411359E+0	1.332120E+0	1.356790E+0	1.328499E+0	1.392626E+0	1.393644E+0	1.312095E+0	1.377108E+0	1.297607E+0	1.354585E+0	1.396941E+0	1.383220E+0	1.347640E+0	1.313672E+0	1.365992E+0	1.370212E+0	1.391148E+0	1.361324E+0	1.373321E+0	1.384657E+0	1.365641E+0	1.399631E+0	1.328970E+0	1.336676E+0	1.363237E+0	1.362185E+0	1.324531E+0	1.384234E+0	1.355692E+0	1.338697E+0	1.336148E+0	1.413503E+0	1.377604E+0	1.337511E+0	1.347891E+0
5.505110E+2	1.340441E+0	1.349555E+0	1.346389E+0	1.378554E+0	1.419999E+0	1.371806E+0	1.358133E+0	1.371591E+0	1.325045E+0	1.402157E+0	1.390617E+0	1.395660E+0	1.374306E+0	1.358761E+0	1.351478E+0	1.405709E+0	1.364388E+0	1.308652E+0	1.375545E+0	1.380236E+0	1.360712E+0	1.372110E+0	1.383187E+0	1.398519E+0	1.342879E+0	1.373714E+0	1.300247E+0	1.275998E+0	1.363276E+0	1.375066E+0	1.383106E+0	1.365472E+0	1.368946E+0	1.376085E+0	1.306398E+0	1.363990E+0	1.358866E+0	1.372175E+0	1.392920E+0	1.332668E+0	1.361818E+0	1.356796E+0	1.316312E+0	1.345973E+0	1.350731E+0	1.345831E+0	1.384126E+0	1.375763E+0	1.392692E+0	1.347030E+0	1.309617E+0	1.401096E+0	1.358111E+0	1.334012E+0	1.372107E+0	1.351769E+0	1.333319E+0	1.338439E+0	1.328946E+0	1.360177E+0	1.351781E+0	1.381599E+0	1.290417E+0	1.406358E+0	1.323378E+0	1.362628E+0	1.331883E+0	1.355155E+0	1.352108E+0	1.337086E+0	1.320871E+0	1.359149E+0	1.309141E+0	1.335339E+0	1.318699E+0	1.375144E+0	1.338366E+0	1.295945E+0	1.352492E+0	1.388714E+0	1.356591E+0	1.352925E+0	1.368202E+0	1.398428E+0	1.300897E+0	1.408637E+0	1.343085E+0	1.338699E+0	1.342804E+0	1.405577E+0	1.356963E+0	1.330240E+0	1.317554E+0	1.341266E+0	1.359639E+0	1.349453E+0	1.350515E+0	1.385913E+0	1.333980E+0	1.305064E+0	1.351525E+0	1.371604E+0	1.337566E+0	1.368228E+0	1.330992E+0	1.355066E+0	1.343356E+0	1.387861E+0	1.366327E+0	1.404531E+0	1.326822E+0	1.397564E+0	1.383368E+0	1.295529E+0	1.331599E+0	1.363279E+0	1.364748E+0	1.355806E+0	1.377821E+0	1.372497E+0	1.313472E+0	1.344734E+0	1.327559E+0	1.398029E+0	1.317021E+0	1.346125E+0	1.311740E+0	1.363969E+0	1.342347E+0	1.323633E+0	1.358157E+0	1.328572E+0	1.338807E+0	1.374046E+0	1.348067E+0	1.448042E+0	1.301273E+0	1.336276E+0	1.325517E+0	1.383077E+0	1.362667E+0	1.336682E+0	1.348510E+0	1.307561E+0	1.310679E+0	1.407337E+0	1.364327E+0	1.392512E+0	1.380158E+0	1.344271E+0	1.340110E+0	1.376683E+0	1.332463E+0	1.346563E+0	1.333441E+0	1.334152E+0	1.349040E+0	1.322651E+0	1.339298E+0	1.355948E+0	1.332512E+0	1.327956E+0	1.360751E+0	1.367284E+0	1.298437E+0	1.344327E+0	1.318281E+0	1.381210E+0	1.269973E+0	1.289998E+0
5.512510E+2	1.328938E+0	1.345626E+0	1.329048E+0	1.311295E+0	1.358486E+0	1.294920E+0	1.359678E+0	1.338574E+0	1.307691E+0	1.358939E+0	1.366167E+0	1.365901E+0	1.330402E+0	1.318029E+0	1.303657E+0	1.345396E+0	1.338094E+0	1.296403E+0	1.284842E+0	1.310768E+0	1.324625E+0	1.296894E+0	1.346860E+0	1.323962E+0	1.344327E+0	1.292999E+0	1.347941E+0	1.345811E+0	1.359007E+0	1.260749E+0	1.310005E+0	1.340968E+0	1.332480E+0	1.340660E+0	1.298413E+0	1.296520E+0	1.320023E+0	1.326421E+0	1.344981E+0	1.322161E+0	1.308412E+0	1.352721E+0	1.306121E+0	1.357687E+0	1.325788E+0	1.387215E+0	1.317852E+0	1.320845E+0	1.362736E+0	1.288638E+0	1.338703E+0	1.284915E+0	1.349854E+0	1.292461E+0	1.307498E+0	1.331013E+0	1.343511E+0	1.372333E+0	1.330357E+0	1.306353E+0	1.301072E+0	1.364055E+0	1.318903E+0	1.313951E+0	1.294134E+0	1.298722E+0	1.305986E+0	1.408743E+0	1.295482E+0	1.327248E+0	1.306098E+0	1.303300E+0	1.308356E+0	1.313047E+0	1.302486E+0	1.359978E+0	1.350048E+0	1.273474E+0	1.353062E+0	1.320433E+0	1.235673E+0	1.291894E+0	1.285660E+0	1.286181E+0	1.264538E+0	1.338008E+0	1.311452E+0	1.358264E+0	1.305120E+0	1.351063E+0	1.293046E+0	1.378179E+0	1.297997E+0	1.314904E+0	1.362398E+0	1.276420E+0	1.344932E+0	1.263771E+0	1.314330E+0	1.306799E+0	1.343629E+0	1.298660E+0	1.304976E+0	1.325913E+0	1.330702E+0	1.284619E+0	1.351455E+0	1.322456E+0	1.351534E+0	1.326749E+0	1.304164E+0	1.321183E+0	1.313774E+0	1.239597E+0	1.287699E+0	1.387922E+0	1.318533E+0	1.311983E+0	1.320941E+0	1.298325E+0	1.312617E+0	1.259899E+0	1.310586E+0	1.281978E+0	1.291479E+0	1.313725E+0	1.322161E+0	1.335211E+0	1.320049E+0	1.335405E+0	1.324862E+0	1.315194E+0	1.332858E+0	1.302331E+0	1.332317E+0	1.340238E+0	1.293555E+0	1.294067E+0	1.311327E+0	1.263767E+0	1.285829E+0	1.290105E+0	1.304966E+0	1.306797E+0	1.316842E+0	1.364895E+0	1.345394E+0	1.253809E+0	1.265514E+0	1.340367E+0	1.290695E+0	1.338959E+0	1.287453E+0	1.365091E+0	1.321200E+0	1.305244E+0	1.286622E+0	1.318911E+0	1.277399E+0	1.326009E+0	1.332551E+0	1.300478E+0	1.350497E+0	1.326734E+0	1.343525E+0	1.309627E+0	1.318337E+0	1.304303E+0	1.245411E+0	1.270187E+0
5.520210E+2	1.309271E+0	1.279377E+0	1.335080E+0	1.295319E+0	1.298002E+0	1.189071E+0	1.296664E+0	1.283091E+0	1.234775E+0	1.305062E+0	1.294678E+0	1.352130E+0	1.300355E+0	1.275773E+0	1.284824E+0	1.297356E+0	1.276315E+0	1.271232E+0	1.324413E+0	1.272890E+0	1.307538E+0	1.251932E+0	1.297715E+0	1.317924E+0	1.276466E+0	1.309432E+0	1.235233E+0	1.249202E+0	1.215911E+0	1.235963E+0	1.310808E+0	1.308402E+0	1.286772E+0	1.256824E+0	1.267799E+0	1.288025E+0	1.296653E+0	1.303603E+0	1.302683E+0	1.273497E+0	1.314797E+0	1.286151E+0	1.319582E+0	1.323131E+0	1.238326E+0	1.254257E+0	1.279391E+0	1.257832E+0	1.298129E+0	1.228349E+0	1.281639E+0	1.308743E+0	1.272611E+0	1.271546E+0	1.247790E+0	1.297335E+0	1.288776E+0	1.242002E+0	1.246498E+0	1.289492E+0	1.290029E+0	1.270237E+0	1.253873E+0	1.294494E+0	1.234809E+0	1.248435E+0	1.258883E+0	1.227989E+0	1.283758E+0	1.257305E+0	1.264939E+0	1.345871E+0	1.316156E+0	1.289536E+0	1.238757E+0	1.341251E+0	1.268558E+0	1.269087E+0	1.268528E+0	1.336773E+0	1.265262E+0	1.283682E+0	1.286357E+0	1.232004E+0	1.278475E+0	1.280400E+0	1.281491E+0	1.321361E+0	1.274685E+0	1.275433E+0	1.247821E+0	1.291879E+0	1.244522E+0	1.254927E+0	1.278612E+0	1.281048E+0	1.248815E+0	1.311551E+0	1.270225E+0	1.257752E+0	1.281145E+0	1.251107E+0	1.284064E+0	1.280901E+0	1.269548E+0	1.285499E+0	1.249407E+0	1.269574E+0	1.286770E+0	1.251942E+0	1.191898E+0	1.285781E+0	1.302162E+0	1.239113E+0	1.241853E+0	1.279189E+0	1.267279E+0	1.270326E+0	1.266655E+0	1.297627E+0	1.257920E+0	1.256645E+0	1.296528E+0	1.221137E+0	1.265850E+0	1.250755E+0	1.248666E+0	1.235276E+0	1.259938E+0	1.307451E+0	1.247100E+0	1.318860E+0	1.329713E+0	1.283759E+0	1.260963E+0	1.332969E+0	1.301603E+0	1.337192E+0	1.276230E+0	1.290211E+0	1.221626E+0	1.294633E+0	1.298376E+0	1.260208E+0	1.308898E+0	1.258698E+0	1.271887E+0	1.194460E+0	1.247240E+0	1.324246E+0	1.267587E+0	1.296901E+0	1.234767E+0	1.242550E+0	1.237622E+0	1.309717E+0	1.280358E+0	1.253187E+0	1.233506E+0	1.246851E+0	1.309571E+0	1.232062E+0	1.248698E+0	1.275394E+0	1.239656E+0	1.289428E+0	1.237469E+0	1.229090E+0	1.247553E+0	1.261691E+0
5.527590E+2	1.152157E+0	1.184983E+0	1.266465E+0	1.218328E+0	1.228498E+0	1.245209E+0	1.255218E+0	1.274741E+0	1.234199E+0	1.250399E+0	1.244551E+0	1.248173E+0	1.245151E+0	1.257978E+0	1.260745E+0	1.245833E+0	1.240706E+0	1.183712E+0	1.266099E+0	1.209550E+0	1.280001E+0	1.250524E+0	1.238828E+0	1.235932E+0	1.158748E+0	1.169615E+0	1.227521E+0	1.224786E+0	1.193999E+0	1.193201E+0	1.220845E+0	1.251531E+0	1.257142E+0	1.232005E+0	1.185430E+0	1.232123E+0	1.208045E+0	1.217406E+0	1.257611E+0	1.230776E+0	1.256994E+0	1.246763E+0	1.244671E+0	1.254739E+0	1.258136E+0	1.222240E+0	1.212055E+0	1.199392E+0	1.224295E+0	1.191191E+0	1.222404E+0	1.220131E+0	1.220929E+0	1.203654E+0	1.205062E+0	1.258294E+0	1.198112E+0	1.234444E+0	1.278428E+0	1.257823E+0	1.245833E+0	1.203587E+0	1.229619E+0	1.237656E+0	1.217295E+0	1.185189E+0	1.226362E+0	1.220655E+0	1.222983E+0	1.233805E+0	1.198179E+0	1.238911E+0	1.208949E+0	1.286624E+0	1.253798E+0	1.266269E+0	1.259704E+0	1.223249E+0	1.207607E+0	1.168015E+0	1.206752E+0	1.210342E+0	1.235745E+0	1.222451E+0	1.223949E+0	1.230393E+0	1.211777E+0	1.208164E+0	1.229239E+0	1.245849E+0	1.250386E+0	1.209867E+0	1.215621E+0	1.188550E+0	1.230437E+0	1.180948E+0	1.245547E+0	1.207490E+0	1.220508E+0	1.215235E+0	1.257383E+0	1.166213E+0	1.204747E+0	1.259404E+0	1.255958E+0	1.271195E+0	1.212466E+0	1.226489E+0	1.187504E+0	1.238680E+0	1.218031E+0	1.225725E+0	1.251990E+0	1.192908E+0	1.141985E+0	1.234942E+0	1.231383E+0	1.227178E+0	1.246251E+0	1.296083E+0	1.228139E+0	1.228819E+0	1.234177E+0	1.256362E+0	1.254848E+0	1.232299E+0	1.232538E+0	1.245809E+0	1.242323E+0	1.249010E+0	1.220314E+0	1.185489E+0	1.260210E+0	1.245596E+0	1.220316E+0	1.298870E+0	1.192969E+0	1.257519E+0	1.218492E+0	1.205060E+0	1.220127E+0	1.174627E+0	1.205279E+0	1.227921E+0	1.286241E+0	1.263550E+0	1.213485E+0	1.209596E+0	1.236881E+0	1.232977E+0	1.205502E+0	1.217068E+0	1.145941E+0	1.192142E+0	1.267549E+0	1.169536E+0	1.246610E+0	1.222235E+0	1.218627E+0	1.265777E+0	1.201591E+0	1.181156E+0	1.226527E+0	1.236048E+0	1.194921E+0	1.258806E+0	1.200882E+0	1.252609E+0	1.116783E+0	1.328346E+0
5.535490E+2	1.186067E+0	1.132944E+0	1.204587E+0	1.184424E+0	1.187052E+0	1.187633E+0	1.192001E+0	1.210664E+0	1.160945E+0	1.186331E+0	1.173637E+0	1.201851E+0	1.240016E+0	1.165525E+0	1.173360E+0	1.211826E+0	1.203715E+0	1.178845E+0	1.155970E+0	1.128432E+0	1.237058E+0	1.147496E+0	1.189530E+0	1.193261E+0	1.161327E+0	1.204425E+0	1.156698E+0	1.189002E+0	1.185013E+0	1.174336E+0	1.211861E+0	1.199426E+0	1.195092E+0	1.194237E+0	1.209814E+0	1.159547E+0	1.179119E+0	1.161640E+0	1.149747E+0	1.221004E+0	1.215475E+0	1.196543E+0	1.188420E+0	1.196494E+0	1.214983E+0	1.180813E+0	1.187484E+0	1.185790E+0	1.221191E+0	1.119590E+0	1.179271E+0	1.246593E+0	1.204418E+0	1.145904E+0	1.192883E+0	1.164222E+0	1.163465E+0	1.205744E+0	1.189593E+0	1.183326E+0	1.198849E+0	1.156709E+0	1.156463E+0	1.224752E+0	1.149854E+0	1.186837E+0	1.161725E+0	1.221299E+0	1.203073E+0	1.225323E+0	1.175319E+0	1.201807E+0	1.166607E+0	1.221488E+0	1.191451E+0	1.184755E+0	1.163119E+0	1.167130E+0	1.145027E+0	1.194175E+0	1.134215E+0	1.199107E+0	1.265229E+0	1.188735E+0	1.168793E+0	1.224866E+0	1.179693E+0	1.205423E+0	1.216084E+0	1.193721E+0	1.208597E+0	1.225901E+0	1.150671E+0	1.167644E+0	1.186952E+0	1.175429E+0	1.148551E+0	1.187486E+0	1.134713E+0	1.155395E+0	1.163726E+0	1.134161E+0	1.237620E+0	1.206249E+0	1.189332E+0	1.143118E+0	1.243880E+0	1.159368E+0	1.184415E+0	1.164299E+0	1.210033E+0	1.155056E+0	1.168032E+0	1.151778E+0	1.147858E+0	1.148512E+0	1.160846E+0	1.157977E+0	1.195648E+0	1.220674E+0	1.199543E+0	1.159429E+0	1.192296E+0	1.153019E+0	1.171963E+0	1.154255E+0	1.165378E+0	1.194055E+0	1.209278E+0	1.203456E+0	1.155945E+0	1.146065E+0	1.214517E+0	1.200150E+0	1.221398E+0	1.248756E+0	1.213131E+0	1.187327E+0	1.165449E+0	1.191705E+0	1.209632E+0	1.141784E+0	1.175723E+0	1.171791E+0	1.174280E+0	1.198273E+0	1.180539E+0	1.186550E+0	1.155706E+0	1.195555E+0	1.154191E+0	1.169366E+0	1.109021E+0	1.169780E+0	1.122811E+0	1.192005E+0	1.178732E+0	1.174288E+0	1.133263E+0	1.227492E+0	1.144084E+0	1.179264E+0	1.122335E+0	1.166343E+0	1.116409E+0	1.169275E+0	1.127224E+0	1.215084E+0	1.173343E+0	1.143015E+0
5.542580E+2	1.118757E+0	1.137600E+0	1.091312E+0	1.113403E+0	1.094209E+0	1.127635E+0	1.131421E+0	1.095045E+0	1.153861E+0	1.136100E+0	1.175920E+0	1.169940E+0	1.197546E+0	1.126341E+0	1.142026E+0	1.147763E+0	1.114465E+0	1.093674E+0	1.136085E+0	1.087386E+0	1.117712E+0	1.097861E+0	1.121003E+0	1.082662E+0	1.149023E+0	1.095882E+0	1.107760E+0	1.082187E+0	1.120078E+0	1.098263E+0	1.076465E+0	1.116099E+0	1.123183E+0	1.086373E+0	1.085411E+0	1.106053E+0	1.108980E+0	1.100140E+0	1.170705E+0	1.133178E+0	1.172829E+0	1.139004E+0	1.147744E+0	1.070535E+0	1.102252E+0	1.100696E+0	1.096317E+0	1.119618E+0	1.099514E+0	1.089677E+0	1.084214E+0	1.125508E+0	1.051879E+0	1.111389E+0	1.152356E+0	1.161356E+0	1.123346E+0	1.109870E+0	1.136361E+0	1.153524E+0	1.148795E+0	1.128961E+0	1.107884E+0	1.186958E+0	1.098823E+0	1.091857E+0	1.088461E+0	1.176421E+0	1.100628E+0	1.156896E+0	1.190942E+0	1.110200E+0	1.113519E+0	1.111379E+0	1.136527E+0	1.134112E+0	1.092701E+0	1.124522E+0	1.063499E+0	1.128082E+0	1.109775E+0	1.146005E+0	1.122013E+0	1.129388E+0	1.088430E+0	1.109965E+0	1.100133E+0	1.155631E+0	1.154790E+0	1.136385E+0	1.116492E+0	1.112193E+0	1.111364E+0	1.127183E+0	1.137434E+0	1.160344E+0	1.102260E+0	1.153440E+0	1.113658E+0	1.115518E+0	1.142393E+0	1.116071E+0	1.140544E+0	1.154744E+0	1.129536E+0	1.114029E+0	1.113846E+0	1.168071E+0	1.195436E+0	1.119014E+0	1.113127E+0	1.152556E+0	1.142482E+0	1.089512E+0	1.087704E+0	1.065657E+0	1.136169E+0	1.131247E+0	1.163030E+0	1.117550E+0	1.096921E+0	1.101450E+0	1.123831E+0	1.110745E+0	1.173306E+0	1.142222E+0	1.120252E+0	1.113991E+0	1.135738E+0	1.156544E+0	1.133528E+0	1.112819E+0	1.180251E+0	1.127789E+0	1.122050E+0	1.132508E+0	1.145088E+0	1.111233E+0	1.136906E+0	1.133512E+0	1.129755E+0	1.133043E+0	1.086621E+0	1.110205E+0	1.134168E+0	1.132665E+0	1.132100E+0	1.102115E+0	1.060486E+0	1.123409E+0	1.121830E+0	1.142264E+0	1.120660E+0	1.105231E+0	1.117956E+0	1.133110E+0	1.126477E+0	1.120038E+0	1.112903E+0	1.136576E+0	1.073681E+0	1.097308E+0	1.117443E+0	1.205266E+0	1.110629E+0	1.092565E+0	1.097936E+0	1.089396E+0	1.106342E+0	1.109518E+0
5.550190E+2	1.020918E+0	1.030835E+0	1.020140E+0	1.075095E+0	1.038803E+0	1.063997E+0	1.048470E+0	1.050202E+0	1.037828E+0	1.008741E+0	1.061427E+0	1.078335E+0	1.075373E+0	1.059603E+0	1.070981E+0	1.063046E+0	1.053748E+0	1.049657E+0	1.113037E+0	1.053005E+0	1.035560E+0	1.057609E+0	1.057587E+0	1.050325E+0	1.013726E+0	1.032378E+0	1.034310E+0	1.020255E+0	1.036485E+0	1.051237E+0	1.032697E+0	1.051050E+0	1.075382E+0	1.062751E+0	1.023034E+0	1.008439E+0	1.030941E+0	1.033638E+0	1.017321E+0	1.053849E+0	1.074354E+0	1.009944E+0	1.057114E+0	1.026276E+0	1.066364E+0	1.074866E+0	1.021048E+0	1.038362E+0	1.005924E+0	1.001609E+0	1.064478E+0	1.026549E+0	1.049323E+0	1.019705E+0	1.040841E+0	1.072189E+0	1.041654E+0	1.045445E+0	1.033373E+0	1.050523E+0	1.091980E+0	1.084026E+0	9.927244E-1	1.029940E+0	9.980376E-1	1.029741E+0	1.037253E+0	1.020729E+0	1.083161E+0	1.046077E+0	1.025985E+0	1.058494E+0	1.047963E+0	1.067061E+0	1.016848E+0	1.020920E+0	1.055119E+0	1.037795E+0	1.017882E+0	1.043029E+0	1.021635E+0	1.093091E+0	1.073667E+0	9.750660E-1	1.065815E+0	1.089430E+0	1.038068E+0	1.069606E+0	1.072130E+0	1.052445E+0	9.994369E-1	1.050138E+0	1.060601E+0	1.050086E+0	1.021296E+0	1.032300E+0	1.051149E+0	1.010596E+0	1.051146E+0	1.015271E+0	1.069107E+0	1.034441E+0	1.070796E+0	1.012565E+0	1.041591E+0	1.033052E+0	1.009782E+0	1.072611E+0	1.080836E+0	1.025413E+0	1.012569E+0	1.065511E+0	1.010064E+0	1.004949E+0	1.006007E+0	1.024599E+0	1.061121E+0	1.026077E+0	1.053303E+0	1.027592E+0	1.072953E+0	1.051010E+0	1.051632E+0	1.044200E+0	1.035170E+0	1.061351E+0	1.024954E+0	1.067027E+0	1.052978E+0	1.085751E+0	1.021189E+0	1.053986E+0	1.066918E+0	1.041831E+0	1.073737E+0	1.124904E+0	1.062308E+0	1.077028E+0	1.122059E+0	1.072096E+0	1.029423E+0	1.031949E+0	1.057479E+0	1.049229E+0	1.043674E+0	1.073591E+0	1.086777E+0	1.060818E+0	1.040593E+0	1.033858E+0	1.024209E+0	1.112059E+0	1.027530E+0	9.901670E-1	9.988555E-1	1.014717E+0	1.086950E+0	1.018150E+0	1.055150E+0	1.013900E+0	1.017428E+0	1.015661E+0	1.018423E+0	1.063168E+0	9.914616E-1	1.067294E+0	1.039890E+0	1.070885E+0	1.024482E+0	1.072555E+0
5.557600E+2	9.463596E-1	9.852736E-1	9.970192E-1	9.644316E-1	9.396110E-1	9.928239E-1	9.660779E-1	9.962912E-1	9.563297E-1	9.756915E-1	1.020719E+0	9.594861E-1	9.817320E-1	9.695463E-1	9.759709E-1	9.940537E-1	9.815887E-1	9.773046E-1	1.003573E+0	9.482688E-1	9.619864E-1	9.775024E-1	9.759551E-1	1.023137E+0	1.009278E+0	9.355819E-1	9.587897E-1	9.686486E-1	1.000123E+0	9.785381E-1	9.402834E-1	9.938594E-1	9.969112E-1	9.266568E-1	9.655532E-1	1.056197E+0	9.975556E-1	9.689145E-1	9.744462E-1	9.719269E-1	9.893491E-1	9.945243E-1	9.510682E-1	9.521277E-1	9.513238E-1	9.670479E-1	1.002870E+0	9.311539E-1	9.641903E-1	9.900175E-1	1.026394E+0	9.830700E-1	9.319383E-1	9.770303E-1	1.009652E+0	9.794322E-1	9.452995E-1	9.698188E-1	9.586307E-1	9.655359E-1	9.721545E-1	9.997441E-1	9.694761E-1	9.352209E-1	9.512218E-1	9.361513E-1	9.436456E-1	9.953583E-1	9.736168E-1	1.007890E+0	1.005740E+0	9.763043E-1	9.849886E-1	9.951020E-1	9.711195E-1	9.894424E-1	9.430596E-1	9.493012E-1	9.453804E-1	9.677183E-1	9.110619E-1	9.650633E-1	9.880551E-1	9.721541E-1	9.831092E-1	1.014444E+0	9.821085E-1	9.364743E-1	9.808582E-1	9.569214E-1	9.428545E-1	9.583894E-1	9.316780E-1	9.435369E-1	9.731529E-1	9.277368E-1	9.842724E-1	9.541476E-1	9.960421E-1	9.681265E-1	9.861308E-1	9.935444E-1	9.933726E-1	9.566834E-1	9.414016E-1	9.773247E-1	9.710906E-1	9.427229E-1	1.022532E+0	9.714576E-1	9.962693E-1	9.732234E-1	9.782842E-1	9.820648E-1	9.447755E-1	9.653622E-1	1.010407E+0	9.895478E-1	9.953439E-1	9.690701E-1	9.680699E-1	9.793632E-1	9.475144E-1	9.727509E-1	9.688852E-1	9.909180E-1	9.741257E-1	1.000606E+0	9.631083E-1	9.672745E-1	9.504812E-1	9.532491E-1	9.663949E-1	9.739586E-1	9.554702E-1	1.043157E+0	9.980821E-1	9.793365E-1	1.010270E+0	9.738588E-1	9.107387E-1	9.650824E-1	9.965721E-1	9.846096E-1	9.754257E-1	9.457294E-1	9.509924E-1	9.455634E-1	9.904092E-1	9.947372E-1	9.807540E-1	9.907038E-1	9.953200E-1	9.791372E-1	9.472058E-1	1.006442E+0	9.772573E-1	1.005327E+0	9.824690E-1	9.877102E-1	9.615928E-1	1.048583E+0	1.000187E+0	1.008913E+0	9.296332E-1	9.977679E-1	9.363700E-1	9.124664E-1	1.001577E+0	8.429541E-1
5.560190E+2	9.670416E-1	9.631506E-1	9.526993E-1	9.934067E-1	9.528318E-1	9.310790E-1	9.504486E-1	9.525350E-1	9.696121E-1	1.000482E+0	9.657351E-1	1.003684E+0	1.006271E+0	9.624307E-1	9.546733E-1	9.964482E-1	9.506563E-1	9.836777E-1	9.711354E-1	9.339831E-1	9.786945E-1	9.118340E-1	9.639734E-1	9.353170E-1	9.458694E-1	9.359205E-1	9.249307E-1	9.739185E-1	9.754299E-1	9.681030E-1	9.137962E-1	9.470707E-1	9.569933E-1	9.461949E-1	9.814721E-1	9.090397E-1	9.366480E-1	9.438130E-1	9.886022E-1	9.469609E-1	9.979897E-1	9.464230E-1	9.339243E-1	9.503105E-1	9.415780E-1	9.628620E-1	9.367941E-1	8.878367E-1	9.833944E-1	9.225548E-1	9.270531E-1	9.647497E-1	9.329569E-1	9.654845E-1	9.440678E-1	9.624743E-1	9.384798E-1	9.604315E-1	9.644481E-1	9.615972E-1	9.313044E-1	9.969454E-1	9.442429E-1	9.682617E-1	1.005900E+0	9.176203E-1	9.435933E-1	9.899831E-1	9.542432E-1	9.706815E-1	9.591385E-1	9.925273E-1	9.542362E-1	9.718412E-1	9.728519E-1	1.013276E+0	9.122184E-1	9.313978E-1	9.491091E-1	9.801989E-1	9.365200E-1	9.413998E-1	9.422798E-1	9.849611E-1	9.364119E-1	1.000474E+0	9.675533E-1	9.782773E-1	9.562189E-1	9.359362E-1	9.800489E-1	9.669256E-1	9.373474E-1	9.268105E-1	9.918744E-1	9.463678E-1	9.544387E-1	9.678114E-1	9.309424E-1	9.513654E-1	9.414203E-1	9.570606E-1	9.673317E-1	9.983131E-1	9.614229E-1	9.617792E-1	9.437427E-1	9.514870E-1	9.960675E-1	9.226467E-1	9.741169E-1	9.568962E-1	9.688935E-1	9.800293E-1	9.710469E-1	9.854173E-1	9.792735E-1	9.720518E-1	9.655147E-1	9.471359E-1	9.148418E-1	9.009255E-1	9.716423E-1	9.483979E-1	9.363345E-1	9.493911E-1	9.439257E-1	9.666672E-1	9.809039E-1	9.951842E-1	9.230276E-1	9.529064E-1	9.580282E-1	9.619015E-1	9.653017E-1	9.759855E-1	9.677620E-1	9.183597E-1	9.290852E-1	9.503371E-1	9.522089E-1	9.324154E-1	9.404911E-1	9.642037E-1	1.007240E+0	9.492352E-1	9.466811E-1	9.337497E-1	9.488712E-1	9.446320E-1	9.628135E-1	9.452922E-1	9.491384E-1	9.986083E-1	9.809238E-1	9.920613E-1	9.371728E-1	9.793708E-1	9.651393E-1	9.649559E-1	9.440391E-1	9.581362E-1	9.646943E-1	9.711334E-1	9.686427E-1	9.583473E-1	9.729764E-1	9.566120E-1	9.465648E-1	9.149983E-1
5.565030E+2	9.899364E-1	9.158665E-1	9.281167E-1	9.657263E-1	9.547119E-1	9.168152E-1	9.600136E-1	9.658642E-1	9.581389E-1	9.803495E-1	9.714979E-1	9.692277E-1	9.327712E-1	9.721418E-1	9.659641E-1	9.293220E-1	9.323601E-1	8.923830E-1	9.908575E-1	9.746481E-1	9.627919E-1	1.012905E+0	9.411882E-1	9.285565E-1	1.029521E+0	9.593851E-1	9.262733E-1	9.637083E-1	9.919803E-1	9.174027E-1	9.493673E-1	9.601051E-1	1.002635E+0	9.640843E-1	9.397776E-1	9.591343E-1	9.628458E-1	9.590912E-1	9.607058E-1	9.344833E-1	9.955788E-1	9.705480E-1	9.823409E-1	9.538165E-1	9.882963E-1	9.334447E-1	9.609396E-1	9.196726E-1	9.479267E-1	9.443068E-1	1.023553E+0	9.868580E-1	9.550485E-1	9.368935E-1	9.460768E-1	9.683108E-1	9.611038E-1	9.710944E-1	9.434241E-1	9.338941E-1	9.922487E-1	1.012521E+0	9.217539E-1	9.447438E-1	9.364881E-1	9.509429E-1	9.788838E-1	9.848847E-1	9.875386E-1	9.254460E-1	9.157418E-1	9.533886E-1	9.296458E-1	9.623061E-1	9.610763E-1	9.844477E-1	9.978851E-1	9.842620E-1	9.435050E-1	9.620675E-1	9.448594E-1	9.791663E-1	9.547300E-1	9.644856E-1	9.742444E-1	9.853725E-1	9.445352E-1	9.959604E-1	9.957821E-1	9.319761E-1	9.044988E-1	9.904262E-1	9.395189E-1	9.279964E-1	9.750929E-1	9.640244E-1	9.702783E-1	9.543795E-1	9.546783E-1	9.765622E-1	9.499101E-1	9.486229E-1	9.815555E-1	9.211932E-1	9.749943E-1	9.075784E-1	9.901984E-1	9.264640E-1	9.950401E-1	9.783940E-1	9.785612E-1	9.330213E-1	9.841049E-1	9.840572E-1	9.418198E-1	9.516714E-1	9.725275E-1	9.702945E-1	9.667839E-1	9.942157E-1	9.467417E-1	9.382773E-1	9.348733E-1	9.478344E-1	9.699384E-1	9.475609E-1	9.786359E-1	9.559957E-1	9.910795E-1	9.650982E-1	9.832628E-1	9.580675E-1	9.589175E-1	9.820441E-1	9.382668E-1	9.805755E-1	9.417830E-1	9.577879E-1	9.356011E-1	9.743588E-1	9.677673E-1	9.209291E-1	9.770130E-1	9.795656E-1	9.650142E-1	9.655750E-1	9.882933E-1	9.935534E-1	9.910637E-1	9.343349E-1	9.683155E-1	9.756682E-1	8.814770E-1	9.578113E-1	9.395554E-1	1.011212E+0	9.388871E-1	9.709216E-1	9.705577E-1	1.029943E+0	9.668897E-1	9.881773E-1	9.513773E-1	9.607990E-1	9.698763E-1	9.798299E-1	9.555624E-1	9.315783E-1	9.075522E-1	8.937407E-1
5.570500E+2	9.798956E-1	1.010189E+0	1.032765E+0	9.640578E-1	9.880260E-1	9.796271E-1	9.671826E-1	9.761722E-1	9.845395E-1	9.864548E-1	1.009398E+0	9.979182E-1	1.016598E+0	1.014964E+0	1.011028E+0	9.921051E-1	1.014927E+0	9.877980E-1	9.984313E-1	1.008978E+0	9.880615E-1	9.285103E-1	9.953923E-1	1.003397E+0	9.677205E-1	9.825755E-1	1.031223E+0	9.417634E-1	9.974336E-1	9.639455E-1	9.721834E-1	9.913818E-1	9.468728E-1	9.635216E-1	9.830050E-1	9.653100E-1	9.690634E-1	9.800892E-1	9.810456E-1	9.809189E-1	9.844526E-1	9.910329E-1	9.885711E-1	9.697225E-1	1.009319E+0	1.003757E+0	9.755457E-1	9.851697E-1	1.023842E+0	1.028548E+0	9.763693E-1	1.021432E+0	9.902200E-1	1.016819E+0	9.942779E-1	9.633723E-1	1.004857E+0	1.029709E+0	9.335640E-1	9.598198E-1	9.897348E-1	9.964350E-1	9.748610E-1	9.601746E-1	9.797739E-1	9.889168E-1	9.777119E-1	9.946634E-1	9.519027E-1	1.018400E+0	9.732035E-1	9.864955E-1	9.984951E-1	1.019007E+0	1.003067E+0	9.951758E-1	9.421039E-1	9.688083E-1	9.893036E-1	9.698286E-1	1.017943E+0	1.027404E+0	9.830824E-1	9.478328E-1	9.779195E-1	9.704484E-1	9.666714E-1	9.522901E-1	9.854771E-1	9.946064E-1	9.772040E-1	9.702388E-1	9.893046E-1	9.871597E-1	9.988365E-1	9.801259E-1	9.870663E-1	9.478665E-1	9.776220E-1	9.796309E-1	9.700360E-1	9.538007E-1	1.000564E+0	9.807773E-1	9.900783E-1	9.877799E-1	9.437357E-1	9.863208E-1	9.858839E-1	9.750205E-1	1.032955E+0	9.699319E-1	9.665577E-1	9.946898E-1	1.020925E+0	9.719824E-1	9.830475E-1	9.679091E-1	9.782638E-1	9.725980E-1	9.942760E-1	9.718250E-1	9.994788E-1	9.229875E-1	1.009712E+0	9.679893E-1	9.882174E-1	9.533006E-1	9.707408E-1	9.951110E-1	9.874721E-1	9.632582E-1	9.838899E-1	1.012361E+0	9.948616E-1	1.010746E+0	1.010434E+0	9.573732E-1	1.003162E+0	9.948471E-1	1.023427E+0	9.581587E-1	1.018512E+0	9.665391E-1	9.712487E-1	1.009171E+0	9.694090E-1	9.889272E-1	1.025097E+0	9.595908E-1	1.011053E+0	9.652100E-1	9.497565E-1	1.032988E+0	9.782248E-1	9.861823E-1	9.867678E-1	1.023862E+0	9.421239E-1	9.879477E-1	9.942310E-1	1.017005E+0	9.445917E-1	9.790906E-1	9.982211E-1	9.388871E-1	9.993106E-1	9.521652E-1	1.059714E+0	9.323996E-1
5.575700E+2	9.775884E-1	1.008194E+0	1.027900E+0	1.037277E+0	1.061924E+0	9.923918E-1	1.067567E+0	1.023339E+0	1.060392E+0	9.914831E-1	9.928547E-1	1.021790E+0	9.761187E-1	1.004022E+0	9.951032E-1	1.005882E+0	1.037913E+0	9.803087E-1	1.022785E+0	1.034745E+0	9.892680E-1	1.003947E+0	1.014071E+0	1.039274E+0	1.076628E+0	1.029809E+0	1.026439E+0	1.027317E+0	1.040529E+0	1.010032E+0	9.754893E-1	9.812965E-1	1.075111E+0	9.941290E-1	1.014096E+0	1.017581E+0	1.034054E+0	1.047565E+0	1.020718E+0	1.027709E+0	1.051790E+0	1.037166E+0	9.955288E-1	1.018607E+0	1.031827E+0	9.927576E-1	1.029072E+0	1.059090E+0	1.010367E+0	1.011349E+0	1.007653E+0	1.012208E+0	1.019803E+0	1.039806E+0	1.025541E+0	1.022332E+0	9.981130E-1	9.839772E-1	1.042887E+0	1.016452E+0	9.744100E-1	1.018139E+0	1.039802E+0	1.007046E+0	1.032272E+0	9.904698E-1	1.003373E+0	1.010666E+0	1.035028E+0	1.007044E+0	1.067219E+0	1.024985E+0	1.018702E+0	9.842119E-1	1.035724E+0	9.934436E-1	9.896298E-1	1.018589E+0	1.017382E+0	1.035661E+0	9.850376E-1	9.887574E-1	1.033703E+0	1.019952E+0	1.031412E+0	1.021753E+0	9.915148E-1	1.054694E+0	1.030752E+0	1.009271E+0	9.963539E-1	9.814735E-1	9.755734E-1	9.798925E-1	1.017795E+0	1.004947E+0	1.014972E+0	9.672423E-1	9.913554E-1	1.036251E+0	9.965291E-1	9.881242E-1	1.019258E+0	1.036303E+0	1.061945E+0	9.916292E-1	1.033846E+0	1.013621E+0	1.024739E+0	1.002715E+0	1.033031E+0	1.043898E+0	1.025978E+0	9.687923E-1	9.903764E-1	1.034003E+0	1.018417E+0	1.004957E+0	1.036944E+0	9.559427E-1	1.026279E+0	1.003373E+0	1.047586E+0	1.071630E+0	1.020196E+0	1.027460E+0	1.015298E+0	1.042558E+0	1.034165E+0	1.003214E+0	1.024737E+0	1.033508E+0	1.013970E+0	1.014569E+0	1.009955E+0	1.039463E+0	1.015229E+0	1.022094E+0	1.021564E+0	1.039421E+0	9.972254E-1	1.020245E+0	1.042555E+0	1.038702E+0	1.013388E+0	1.046943E+0	1.030693E+0	1.001907E+0	1.031149E+0	1.006618E+0	9.964955E-1	1.030422E+0	1.017729E+0	9.978760E-1	1.000918E+0	1.000861E+0	1.073920E+0	1.015116E+0	9.874031E-1	1.037989E+0	1.016443E+0	1.015402E+0	1.021303E+0	9.809206E-1	1.034664E+0	1.027874E+0	1.011454E+0	9.949149E-1	1.020100E+0	1.074367E+0
5.580230E+2	1.010682E+0	1.029957E+0	9.755026E-1	1.031758E+0	9.895782E-1	1.025458E+0	9.826548E-1	9.981673E-1	1.005101E+0	9.996461E-1	1.004754E+0	1.047520E+0	1.009897E+0	1.008484E+0	1.023600E+0	1.046461E+0	1.064209E+0	1.017537E+0	9.945703E-1	1.008893E+0	1.066469E+0	1.016760E+0	1.032228E+0	1.017740E+0	9.772897E-1	9.831694E-1	1.010358E+0	1.025533E+0	1.035528E+0	1.016243E+0	9.852038E-1	1.024589E+0	1.013434E+0	1.024765E+0	1.037682E+0	1.028451E+0	9.996560E-1	9.798490E-1	1.012513E+0	1.036003E+0	1.023335E+0	1.009532E+0	1.025235E+0	1.026777E+0	1.031565E+0	9.772964E-1	9.868921E-1	1.009514E+0	9.807150E-1	9.856357E-1	1.055733E+0	9.943092E-1	1.034039E+0	9.978548E-1	1.018525E+0	1.027197E+0	1.004187E+0	9.866057E-1	1.029370E+0	9.970755E-1	1.031101E+0	1.027819E+0	9.908851E-1	1.050825E+0	1.009395E+0	1.004788E+0	1.055512E+0	1.022967E+0	1.045107E+0	9.782021E-1	1.007158E+0	9.885641E-1	1.038760E+0	9.994417E-1	1.001862E+0	9.872649E-1	1.024293E+0	9.790900E-1	9.986318E-1	1.019275E+0	9.884740E-1	1.013539E+0	1.013050E+0	1.016841E+0	9.837268E-1	1.033637E+0	1.031542E+0	1.002001E+0	9.836745E-1	1.007811E+0	1.017643E+0	1.036281E+0	1.072866E+0	1.017256E+0	9.612609E-1	9.470886E-1	9.963188E-1	1.040414E+0	1.034481E+0	1.048921E+0	9.999639E-1	1.009028E+0	1.009607E+0	1.027749E+0	1.025304E+0	1.014833E+0	1.012920E+0	1.007286E+0	1.018464E+0	1.035318E+0	9.977730E-1	1.022676E+0	1.020925E+0	1.025857E+0	1.048390E+0	1.002455E+0	1.031010E+0	1.001777E+0	1.002591E+0	1.004301E+0	9.996724E-1	1.043311E+0	9.933234E-1	1.014715E+0	1.000762E+0	1.045967E+0	1.020003E+0	9.918346E-1	9.921018E-1	9.959447E-1	1.028529E+0	1.049553E+0	9.804359E-1	1.027657E+0	9.899095E-1	1.049584E+0	9.704961E-1	1.011075E+0	9.956861E-1	1.037930E+0	9.836668E-1	9.828727E-1	1.012408E+0	1.037633E+0	1.007385E+0	1.055909E+0	9.844764E-1	9.741842E-1	1.028478E+0	1.020293E+0	1.047244E+0	1.042457E+0	1.061748E+0	1.036314E+0	1.020795E+0	9.988810E-1	1.026986E+0	1.003953E+0	1.020492E+0	1.013589E+0	1.005536E+0	1.038172E+0	1.017940E+0	1.042604E+0	9.950611E-1	1.051305E+0	9.738836E-1	1.024555E+0	1.015857E+0	9.800596E-1
5.585160E+2	9.962671E-1	9.956161E-1	9.970247E-1	1.015191E+0	9.907314E-1	1.012075E+0	9.978027E-1	1.006187E+0	9.983475E-1	1.028538E+0	1.045039E+0	1.011334E+0	1.055331E+0	9.558806E-1	9.969935E-1	9.803271E-1	1.017690E+0	1.063922E+0	1.002769E+0	1.001219E+0	9.930814E-1	1.010974E+0	9.882668E-1	9.979856E-1	9.922754E-1	1.017023E+0	9.831602E-1	9.606203E-1	9.904354E-1	9.927497E-1	1.016524E+0	1.014799E+0	9.677428E-1	1.004145E+0	9.988405E-1	9.862796E-1	9.944148E-1	1.016894E+0	1.010189E+0	1.010549E+0	9.632327E-1	1.005843E+0	1.018017E+0	9.930035E-1	1.047891E+0	9.966342E-1	1.001142E+0	9.835113E-1	1.032090E+0	9.917932E-1	1.009940E+0	9.976017E-1	9.986081E-1	1.006743E+0	9.997996E-1	1.026693E+0	1.036329E+0	1.020167E+0	9.832097E-1	1.035692E+0	1.036181E+0	9.889173E-1	9.930597E-1	1.022245E+0	9.737233E-1	1.005803E+0	9.677727E-1	1.001999E+0	9.910024E-1	1.019530E+0	9.387522E-1	9.990596E-1	1.016942E+0	1.028653E+0	9.961708E-1	1.014075E+0	1.012399E+0	9.901926E-1	9.773599E-1	9.976809E-1	1.004456E+0	9.869022E-1	9.889050E-1	1.006094E+0	1.021219E+0	1.018900E+0	9.986251E-1	9.838536E-1	1.030378E+0	1.026461E+0	1.009948E+0	9.797969E-1	1.014019E+0	9.989871E-1	9.908042E-1	1.014509E+0	1.043570E+0	1.035989E+0	1.020173E+0	1.015901E+0	1.019039E+0	9.872585E-1	9.715937E-1	9.660975E-1	9.909554E-1	1.024370E+0	1.004511E+0	1.011954E+0	1.003485E+0	9.487538E-1	1.021029E+0	1.025301E+0	1.037778E+0	9.931131E-1	1.001528E+0	1.012954E+0	1.033556E+0	1.001859E+0	9.849370E-1	1.012275E+0	1.019555E+0	9.808523E-1	1.008228E+0	1.020533E+0	1.037390E+0	1.018243E+0	1.023103E+0	9.800451E-1	1.041625E+0	1.035330E+0	1.008141E+0	1.002490E+0	1.008982E+0	1.008565E+0	9.858192E-1	9.701762E-1	9.726436E-1	1.037880E+0	1.000286E+0	1.000423E+0	1.011308E+0	1.015966E+0	9.671999E-1	1.007800E+0	1.018926E+0	1.038171E+0	9.958817E-1	9.900861E-1	1.002007E+0	9.619661E-1	1.021577E+0	9.773756E-1	9.871159E-1	1.014757E+0	9.976477E-1	1.027296E+0	9.644514E-1	1.010216E+0	9.623404E-1	9.984603E-1	1.051266E+0	9.705592E-1	1.012683E+0	9.751539E-1	1.007641E+0	9.806076E-1	9.870950E-1	1.004360E+0	9.827954E-1	1.066128E+0
5.590100E+2	1.033056E+0	1.022020E+0	1.004594E+0	9.855231E-1	9.640455E-1	9.943566E-1	1.002583E+0	9.799404E-1	9.619172E-1	9.964466E-1	9.971901E-1	9.658689E-1	9.859991E-1	9.549176E-1	1.023628E+0	1.020665E+0	1.022328E+0	9.799934E-1	1.039078E+0	9.839391E-1	9.782464E-1	1.008324E+0	1.026966E+0	9.702278E-1	9.833289E-1	1.001215E+0	1.009943E+0	1.006223E+0	9.988944E-1	9.646300E-1	9.969987E-1	9.857183E-1	9.819299E-1	1.013315E+0	9.876906E-1	9.688448E-1	1.010008E+0	9.997918E-1	9.936513E-1	1.007027E+0	9.759074E-1	9.955732E-1	9.907141E-1	9.768869E-1	9.339162E-1	1.008612E+0	9.935112E-1	9.862756E-1	9.477846E-1	1.040979E+0	9.996029E-1	1.034131E+0	9.290071E-1	9.879652E-1	9.258010E-1	9.881883E-1	9.747426E-1	1.004796E+0	9.913065E-1	1.005164E+0	9.962214E-1	9.835889E-1	9.923365E-1	1.006540E+0	9.739331E-1	9.983323E-1	9.956978E-1	9.374189E-1	9.491032E-1	9.728292E-1	1.019884E+0	1.009285E+0	1.017531E+0	9.988023E-1	1.008495E+0	1.040578E+0	1.013766E+0	1.002583E+0	9.833988E-1	9.525489E-1	9.947046E-1	9.772086E-1	1.025183E+0	9.483462E-1	9.720784E-1	9.705744E-1	9.963541E-1	1.008286E+0	1.014136E+0	9.550253E-1	1.019866E+0	9.715009E-1	9.848355E-1	1.017286E+0	9.849392E-1	1.031994E+0	1.009131E+0	1.002039E+0	1.032415E+0	9.787885E-1	1.023483E+0	1.004873E+0	9.904047E-1	9.611304E-1	1.032827E+0	9.902513E-1	9.935202E-1	1.033001E+0	1.030159E+0	9.990753E-1	1.000337E+0	1.004604E+0	9.920587E-1	9.870151E-1	9.845058E-1	9.794565E-1	9.627741E-1	1.000335E+0	9.931428E-1	9.929821E-1	1.007677E+0	9.853952E-1	9.672805E-1	9.631133E-1	9.905569E-1	9.741174E-1	1.004203E+0	1.028306E+0	9.641174E-1	9.756498E-1	1.005533E+0	9.956510E-1	9.751189E-1	9.659177E-1	1.014054E+0	9.660649E-1	9.997742E-1	1.013750E+0	9.759369E-1	9.775474E-1	1.006498E+0	1.010095E+0	9.838250E-1	9.985002E-1	9.759890E-1	9.805552E-1	1.000888E+0	1.009444E+0	1.002784E+0	9.917828E-1	9.671052E-1	9.796570E-1	1.018189E+0	1.003442E+0	1.000615E+0	1.006538E+0	1.013274E+0	1.001095E+0	1.016129E+0	9.850796E-1	1.002741E+0	9.673451E-1	9.775124E-1	9.711933E-1	1.004868E+0	9.913230E-1	9.632729E-1	1.013160E+0	1.011401E+0	9.706374E-1
5.595390E+2	9.794936E-1	9.717863E-1	9.660072E-1	9.641923E-1	1.000429E+0	1.005308E+0	9.986173E-1	9.917787E-1	9.632177E-1	9.611427E-1	9.448888E-1	9.613692E-1	9.936365E-1	9.825964E-1	9.918291E-1	9.935381E-1	9.839854E-1	9.534533E-1	9.457829E-1	9.911979E-1	9.598824E-1	1.014289E+0	9.767854E-1	9.791311E-1	9.982664E-1	9.440696E-1	9.393223E-1	9.997154E-1	9.395330E-1	1.051193E+0	9.824750E-1	9.815841E-1	1.006890E+0	9.911725E-1	9.987904E-1	1.019260E+0	9.949330E-1	9.668132E-1	9.897720E-1	9.678000E-1	1.008633E+0	9.622281E-1	9.887812E-1	9.965400E-1	9.880768E-1	1.022969E+0	9.723008E-1	9.913418E-1	9.819578E-1	9.721983E-1	9.942122E-1	9.874192E-1	9.784370E-1	9.653901E-1	9.841609E-1	9.970089E-1	9.486373E-1	9.626597E-1	1.003224E+0	9.949525E-1	9.929476E-1	1.012335E+0	1.022156E+0	9.543855E-1	1.003351E+0	1.023488E+0	9.987425E-1	9.762216E-1	9.717287E-1	9.855351E-1	1.006591E+0	1.006486E+0	9.654613E-1	9.811885E-1	9.646940E-1	9.867991E-1	9.863518E-1	1.009048E+0	9.956939E-1	1.004559E+0	1.003062E+0	9.554738E-1	9.803867E-1	1.016311E+0	1.016896E+0	9.573479E-1	9.955152E-1	9.809079E-1	9.929896E-1	9.740158E-1	1.000010E+0	1.021216E+0	9.742531E-1	1.034764E+0	1.048734E+0	1.016456E+0	9.967329E-1	9.973048E-1	9.588366E-1	9.692627E-1	1.002703E+0	1.011132E+0	1.005769E+0	9.904143E-1	1.004239E+0	1.008503E+0	9.668365E-1	9.960590E-1	9.739185E-1	1.010234E+0	9.783493E-1	9.876566E-1	9.955611E-1	1.000697E+0	9.841871E-1	1.003256E+0	9.346129E-1	9.832636E-1	1.012764E+0	9.799767E-1	9.762347E-1	9.566473E-1	1.011912E+0	1.003866E+0	9.670959E-1	9.699932E-1	9.599632E-1	1.019549E+0	1.009937E+0	9.861639E-1	9.769722E-1	9.649906E-1	9.998734E-1	9.761566E-1	1.007988E+0	1.021000E+0	9.920075E-1	9.704342E-1	9.940467E-1	9.739512E-1	9.897652E-1	9.741191E-1	9.920755E-1	9.873213E-1	1.003051E+0	9.796759E-1	9.986539E-1	9.835616E-1	9.416345E-1	9.872858E-1	9.859086E-1	9.869893E-1	9.444582E-1	9.551940E-1	9.764731E-1	1.007371E+0	9.814493E-1	9.769040E-1	9.933438E-1	9.770753E-1	9.703767E-1	9.923346E-1	9.900097E-1	1.026515E+0	9.889915E-1	9.895339E-1	9.701572E-1	1.014058E+0	1.002478E+0	1.063573E+0
5.600180E+2	1.010735E+0	9.901237E-1	9.962041E-1	1.009184E+0	9.990831E-1	9.655539E-1	9.790234E-1	1.019573E+0	1.037263E+0	9.782633E-1	9.876405E-1	9.940555E-1	9.977107E-1	1.021683E+0	1.021913E+0	9.537317E-1	9.647507E-1	9.940872E-1	9.744923E-1	1.026031E+0	1.003741E+0	9.794337E-1	9.984875E-1	9.792486E-1	9.817703E-1	1.019164E+0	1.016078E+0	9.994791E-1	9.626270E-1	9.939817E-1	9.973580E-1	9.722266E-1	9.970863E-1	9.726668E-1	9.695711E-1	1.014027E+0	1.001826E+0	1.043815E+0	9.980969E-1	9.640582E-1	9.788223E-1	1.006036E+0	9.906630E-1	1.019519E+0	1.006819E+0	9.736096E-1	1.009238E+0	9.788679E-1	9.855151E-1	9.796001E-1	9.793634E-1	9.617067E-1	1.003977E+0	1.022426E+0	9.988214E-1	1.016731E+0	1.031817E+0	1.028318E+0	1.026112E+0	9.763316E-1	9.914184E-1	9.728480E-1	9.854759E-1	9.998174E-1	1.002251E+0	1.026396E+0	1.015451E+0	1.037836E+0	9.830880E-1	9.765156E-1	9.735548E-1	1.020642E+0	9.689409E-1	9.754906E-1	9.933497E-1	9.898623E-1	1.031454E+0	1.009992E+0	9.709578E-1	9.851695E-1	1.026926E+0	1.033119E+0	1.001308E+0	1.016006E+0	9.846111E-1	1.003943E+0	9.522148E-1	9.782522E-1	9.658859E-1	1.042879E+0	9.970674E-1	9.929886E-1	9.996058E-1	9.681226E-1	1.002357E+0	1.013427E+0	9.860199E-1	1.009259E+0	9.788931E-1	9.546350E-1	9.750236E-1	1.027269E+0	1.014269E+0	1.026819E+0	9.443709E-1	9.953447E-1	1.007833E+0	9.808765E-1	9.804934E-1	1.034132E+0	1.009911E+0	9.831694E-1	9.493133E-1	1.022782E+0	9.667121E-1	1.052505E+0	9.651494E-1	1.028533E+0	9.914066E-1	1.039764E+0	9.798400E-1	1.004429E+0	9.723409E-1	9.871968E-1	9.985125E-1	9.868222E-1	9.847620E-1	9.795658E-1	9.742781E-1	9.935508E-1	9.770176E-1	1.036900E+0	1.001402E+0	9.835589E-1	9.944009E-1	9.851078E-1	1.022276E+0	1.028367E+0	9.752861E-1	9.764447E-1	1.010610E+0	9.836483E-1	1.014452E+0	9.742336E-1	9.904727E-1	9.240255E-1	9.914873E-1	1.009726E+0	9.852708E-1	1.054804E+0	1.009038E+0	1.005619E+0	1.011488E+0	9.483375E-1	1.021273E+0	1.010192E+0	1.023118E+0	1.027921E+0	9.986330E-1	1.001128E+0	1.001703E+0	9.726018E-1	1.014970E+0	9.865798E-1	9.816589E-1	9.967509E-1	1.027273E+0	1.042846E+0	9.364019E-1	9.828290E-1
5.605150E+2	1.008685E+0	9.707379E-1	1.023877E+0	9.895034E-1	1.006888E+0	1.001525E+0	9.917668E-1	9.921112E-1	1.009183E+0	1.044847E+0	9.977500E-1	1.008108E+0	9.530426E-1	1.013629E+0	9.834559E-1	1.010788E+0	9.790469E-1	9.907827E-1	1.012396E+0	9.749605E-1	1.007196E+0	1.025466E+0	1.018585E+0	9.814855E-1	1.019329E+0	9.983096E-1	1.025960E+0	1.022977E+0	9.984539E-1	9.958944E-1	1.062534E+0	1.008860E+0	1.005802E+0	1.019688E+0	9.910714E-1	9.919622E-1	9.745334E-1	1.007832E+0	1.000178E+0	1.013474E+0	1.030169E+0	9.807318E-1	9.941496E-1	1.021932E+0	9.845245E-1	1.010674E+0	1.024673E+0	1.014471E+0	1.041088E+0	9.789974E-1	9.690762E-1	1.004181E+0	9.956775E-1	1.014149E+0	1.016045E+0	1.001124E+0	9.964387E-1	9.993249E-1	1.004610E+0	1.000407E+0	1.000744E+0	1.011099E+0	9.927415E-1	9.768354E-1	1.021857E+0	9.499193E-1	1.017693E+0	1.017224E+0	1.046840E+0	1.014283E+0	9.976757E-1	9.715547E-1	9.671043E-1	1.005401E+0	1.003764E+0	9.956899E-1	9.760234E-1	1.028286E+0	1.055872E+0	1.014238E+0	9.688966E-1	1.010902E+0	1.007179E+0	1.043498E+0	9.987038E-1	1.032194E+0	1.068964E+0	1.031871E+0	1.030816E+0	9.868092E-1	9.748868E-1	1.012710E+0	1.001996E+0	9.895246E-1	1.018885E+0	1.017001E+0	9.883995E-1	1.009269E+0	1.025785E+0	1.021900E+0	1.000223E+0	1.011539E+0	9.979362E-1	9.994967E-1	9.390454E-1	9.826040E-1	1.009250E+0	9.967270E-1	9.979023E-1	1.012108E+0	9.911932E-1	9.846203E-1	1.001589E+0	9.853566E-1	1.001793E+0	9.908700E-1	1.035094E+0	1.015671E+0	1.001130E+0	1.024331E+0	9.974576E-1	9.861310E-1	1.038064E+0	1.023097E+0	9.774406E-1	9.911238E-1	9.716383E-1	1.017641E+0	1.025667E+0	9.953253E-1	9.700070E-1	9.822624E-1	1.023486E+0	9.783252E-1	9.983315E-1	9.765229E-1	1.024260E+0	9.705730E-1	9.955695E-1	9.738600E-1	9.845942E-1	1.036802E+0	9.570198E-1	1.012895E+0	1.028523E+0	9.845015E-1	9.818905E-1	9.815058E-1	9.903385E-1	1.017405E+0	9.917303E-1	1.003947E+0	1.030576E+0	1.015582E+0	9.867200E-1	9.519454E-1	9.436493E-1	9.593498E-1	1.059648E+0	9.911999E-1	9.530694E-1	1.001735E+0	1.002954E+0	1.037122E+0	1.007888E+0	1.014717E+0	9.800287E-1	9.646027E-1	9.899134E-1	9.337228E-1
5.609950E+2	1.003597E+0	1.001376E+0	9.761243E-1	1.003313E+0	9.992952E-1	1.023704E+0	1.012803E+0	1.012731E+0	9.800386E-1	1.013178E+0	1.020485E+0	9.920371E-1	1.011665E+0	1.043823E+0	9.524488E-1	9.965024E-1	9.151493E-1	1.032118E+0	1.009694E+0	9.700367E-1	1.014055E+0	1.012295E+0	9.492183E-1	1.031511E+0	1.003391E+0	1.024664E+0	9.575164E-1	1.016372E+0	1.036566E+0	1.011330E+0	1.011234E+0	1.039544E+0	1.005131E+0	1.016598E+0	1.019254E+0	1.008284E+0	1.021512E+0	9.573508E-1	9.938366E-1	9.924601E-1	9.836579E-1	1.011857E+0	1.008340E+0	9.770120E-1	9.660613E-1	1.013690E+0	1.007625E+0	9.917592E-1	9.966399E-1	1.010900E+0	1.008050E+0	9.870115E-1	1.050231E+0	9.488468E-1	1.037028E+0	9.573529E-1	1.004878E+0	9.844424E-1	9.857168E-1	1.014105E+0	9.872419E-1	9.888191E-1	1.008682E+0	1.022132E+0	1.003444E+0	1.011887E+0	9.680457E-1	1.001004E+0	1.026200E+0	1.027661E+0	1.015961E+0	9.929282E-1	1.008063E+0	1.007804E+0	9.928732E-1	9.971118E-1	1.023979E+0	9.934103E-1	1.011400E+0	1.021039E+0	1.010500E+0	1.006695E+0	9.672033E-1	9.851194E-1	1.013433E+0	9.912025E-1	9.985984E-1	1.007844E+0	9.658909E-1	1.003121E+0	1.007021E+0	1.033794E+0	9.875468E-1	1.007008E+0	9.763891E-1	9.744505E-1	9.777890E-1	9.906172E-1	9.804387E-1	9.947107E-1	1.013001E+0	1.006975E+0	9.905975E-1	1.011213E+0	1.011234E+0	1.004685E+0	1.027548E+0	9.741543E-1	9.849541E-1	9.826448E-1	9.354213E-1	9.781431E-1	1.010239E+0	1.021697E+0	1.001582E+0	9.525180E-1	1.036338E+0	9.956957E-1	9.988205E-1	1.017829E+0	9.990084E-1	1.068036E+0	9.617862E-1	9.928625E-1	9.983351E-1	1.018284E+0	1.032812E+0	9.871997E-1	9.873680E-1	1.019711E+0	1.021592E+0	9.713871E-1	1.012841E+0	1.032890E+0	1.004681E+0	9.813354E-1	9.928796E-1	9.884541E-1	1.038463E+0	1.025576E+0	9.929048E-1	1.018092E+0	1.011952E+0	9.763760E-1	9.910171E-1	9.810480E-1	1.046620E+0	1.060658E+0	9.932398E-1	1.000255E+0	9.698485E-1	1.008323E+0	9.789390E-1	9.955102E-1	1.017334E+0	1.010733E+0	9.863831E-1	9.815824E-1	1.019887E+0	1.007532E+0	1.004633E+0	1.024846E+0	1.018036E+0	1.000821E+0	9.810068E-1	1.009002E+0	1.087525E+0	9.893381E-1	9.813408E-1	9.962831E-1
