Photon Energy (eV)	#1	#2	#3	#4	#5	#6	#7	#8	#9	#10	#11	#12	#13	#14	#15	#16	#17	#18	#19	#20	#21	#22	#23	#24	#25	#26	#27	#28	#29	#30	#31	#32	#33	#34	#35	#36	#37	#38	#39	#40	#41	#42	#43	#44	#45	#46	#47	#48	#49	#50	#51	#52	#53	#54	#55	#56	#57	#58	#59	#60	#61	#62	#63	#64	#65	#66	#67	#68	#69	#70	#71	#72	#73	#74	#75	#76	#77	#78	#79	#80	#81	#82	#83	#84	#85	#86	#87	#88	#89	#90	#91	#92	#93	#94	#95	#96	#97	#98	#99	#100	#101	#102	#103	#104	#105	#106	#107	#108	#109	#110	#111	#112	#113	#114	#115	#116	#117	#118	#119	#120	#121	#122	#123	#124	#125	#126	#127	#128	#129	#130	#131	#132	#133	#134	#135	#136	#137	#138	#139	#140	#141	#142	#143	#144	#145	#146	#147	#148	#149	#150	#151	#152	#153	#154	#155	#156	#157	#158	#159	#160	#161	#162	#163	#164	#165	#166	#167	#168	#169	#170	#171	
5.300220E+2	-5.350551E-3	-9.804204E-3	-1.145837E-2	-1.030147E-2	-8.026577E-3	-1.276785E-3	-6.230043E-3	-7.983226E-3	-8.941529E-3	-2.369663E-3	-4.699964E-4	-1.000785E-2	-6.063905E-3	-6.905748E-3	-8.452793E-3	-7.816563E-3	1.163467E-3	-1.774068E-3	4.858997E-4	-5.777175E-3	-6.985550E-3	-6.901632E-3	-8.425815E-3	-6.770871E-3	-1.113237E-2	-3.979748E-3	-4.742349E-3	-5.617369E-3	-1.538463E-2	-1.090505E-2	-2.600500E-3	-2.031251E-3	-9.581818E-3	-3.295446E-3	-9.385426E-3	-8.674074E-3	-2.340479E-3	-5.898343E-3	-6.000691E-3	-1.076150E-2	-5.319984E-3	-3.788995E-3	-3.344752E-3	-2.122580E-4	-1.013533E-2	-9.249680E-3	-7.396798E-3	-8.266247E-3	-6.349136E-3	4.547539E-4	-7.753060E-4	-4.924396E-3	-1.083123E-2	-1.329675E-2	-1.359687E-2	-4.351956E-3	-1.156641E-2	1.476745E-3	-1.014210E-2	-2.448027E-4	-6.322365E-3	-4.227396E-3	-1.048813E-2	-4.094695E-3	-9.150215E-3	-2.669111E-3	3.955990E-3	-3.607124E-3	-2.899285E-3	-6.879505E-3	-2.681319E-4	-9.324525E-3	-1.015327E-2	-4.187439E-3	-5.974281E-3	-7.614762E-3	2.888276E-3	-4.357086E-3	-6.451623E-3	-3.887141E-3	-9.350472E-3	-9.532837E-3	-8.217509E-4	-2.744451E-3	-3.505823E-3	-8.474536E-4	-1.123587E-2	-6.990384E-3	-6.056286E-3	-1.051635E-2	-3.357696E-3	-5.191296E-3	-6.377718E-3	-1.475522E-3	-1.104042E-2	-5.211462E-3	2.397047E-3	3.233983E-3	-3.272675E-3	-1.585225E-2	-1.690986E-2	-1.083168E-2	-8.561501E-3	-5.856526E-3	-6.008769E-3	-2.103467E-3	-1.583996E-3	-1.027507E-2	8.681915E-4	-4.063305E-3	-4.540411E-3	-1.699139E-3	-4.742761E-3	-4.287467E-3	-5.600171E-3	-9.375745E-3	-1.167200E-2	-1.203033E-2	-1.155839E-3	-2.613034E-3	-2.098828E-3	-1.672326E-3	-1.229385E-2	2.151075E-4	-1.041543E-2	1.888703E-3	1.170380E-3	-9.304548E-3	-9.687075E-3	-7.434827E-3	-1.276113E-3	-1.206393E-3	-3.579577E-3	-4.957391E-3	-7.273792E-3	-1.100304E-2	-5.132948E-3	-6.696269E-3	-6.901309E-3	-1.366975E-2	-1.410562E-2	-1.213131E-2	-3.758225E-3	6.764108E-4	-1.187311E-2	-4.624645E-3	-3.357759E-3	8.087919E-3	-1.650397E-3	-3.457453E-3	-1.038273E-3	-1.052609E-2	-6.743937E-3	-1.152983E-2	-7.831711E-3	-1.577247E-2	-1.033317E-5	2.299956E-3	-7.498058E-3	-5.213256E-3	-2.442308E-4	-9.397224E-3	-5.566016E-3	-8.759130E-3	-4.639233E-3	-1.565926E-3	-6.436694E-3	-7.067341E-3	2.051646E-4	-8.998242E-3	2.185743E-3
5.305180E+2	6.582923E-3	2.877020E-3	-2.753226E-3	-5.625826E-3	-7.916420E-3	-1.142866E-2	-5.047948E-3	3.772489E-3	-1.807578E-3	-7.355476E-3	-3.585486E-3	-2.558659E-3	-6.969134E-3	-8.249505E-3	-1.127749E-2	-7.261617E-3	-1.453222E-3	-4.958842E-3	-7.586710E-3	-2.869918E-3	3.145625E-3	-1.039746E-2	-3.294547E-3	-2.832451E-4	-3.818850E-3	-8.156930E-3	-9.463388E-3	3.554659E-4	-1.236417E-3	-6.036582E-3	6.371928E-5	-3.587827E-3	-4.375417E-3	3.122214E-4	-7.039996E-3	-6.400571E-3	-7.162479E-3	-5.309123E-3	-9.557178E-3	-3.886319E-3	-1.253486E-3	-8.823716E-3	-7.924019E-3	-1.049395E-2	-1.892698E-3	-7.514954E-3	1.217905E-3	-6.805312E-3	-1.030004E-2	-1.003204E-2	-4.934623E-3	-9.789084E-4	-3.658979E-3	8.384063E-4	-3.979035E-3	-7.340915E-3	-3.939245E-3	-8.678504E-4	-8.004428E-4	-5.691430E-3	-1.100184E-2	-6.031875E-3	1.095744E-3	-9.827164E-3	-2.232539E-3	-1.407702E-3	-1.464908E-2	-2.770961E-3	-9.685657E-3	-7.237569E-3	-1.014727E-2	-6.606202E-3	-6.458077E-3	-1.830016E-3	-3.673051E-3	-6.139097E-3	-4.976472E-3	-5.232887E-3	-6.608937E-3	-7.152819E-3	-1.335172E-2	5.296368E-3	-5.372695E-3	-4.147034E-3	-1.377719E-3	-6.890267E-3	-3.372560E-3	-6.289699E-3	-1.603354E-3	-5.451266E-3	-4.601154E-3	-1.066681E-2	-4.821510E-3	-1.288480E-2	9.280964E-4	-4.108018E-3	-1.224473E-2	-3.209024E-3	-7.951642E-3	-3.607688E-3	-2.111879E-3	-1.216132E-2	-1.129932E-2	-3.552011E-3	-6.917760E-3	-8.400956E-3	-1.283350E-2	-9.562848E-3	-3.737303E-3	-1.218558E-2	-9.844398E-4	-4.597335E-5	-3.037911E-3	-9.227473E-3	-1.016568E-2	-9.262531E-3	-5.381670E-4	-4.478370E-3	-7.568211E-3	-9.610536E-4	-6.021391E-3	7.106400E-3	-7.467956E-4	-5.790610E-3	-6.811898E-3	-6.507775E-3	-1.644706E-2	-8.673334E-3	-8.816554E-4	4.059820E-3	-5.840754E-4	-1.296038E-2	1.779293E-3	-2.417147E-3	-7.743162E-3	-1.036962E-2	1.219292E-3	-1.039176E-2	5.541669E-3	-2.638631E-3	1.074235E-2	-1.148818E-2	-1.446652E-2	-7.672395E-3	-6.092681E-3	-5.700905E-3	-1.040483E-2	-8.130976E-3	-7.738274E-3	-4.346456E-3	-7.656996E-3	-8.311821E-3	3.087292E-3	-9.587220E-4	-2.396601E-3	-3.776312E-3	6.602141E-4	-1.297985E-2	-1.004718E-2	-1.535333E-2	-1.690141E-2	-2.286757E-3	-9.957926E-3	-4.021724E-3	-1.179143E-3	-6.086722E-3	-5.683921E-3	-8.220666E-3	-1.160795E-2	1.553454E-3	-2.303360E-3
5.310250E+2	2.142010E-3	-1.736570E-3	1.662593E-3	1.926169E-3	2.611257E-3	-6.940077E-3	-6.578997E-3	-5.840740E-3	-6.212658E-4	-8.280820E-3	5.700214E-3	2.281878E-3	-9.417005E-3	-3.798690E-3	-2.867578E-3	-4.095071E-3	-5.194314E-3	2.330427E-3	-2.805108E-3	-5.227596E-4	-3.599794E-3	3.757516E-3	-1.675830E-3	-3.114297E-3	-6.297974E-3	-2.319060E-3	-1.620345E-3	2.069706E-3	-1.650138E-3	-1.687383E-3	-1.361536E-2	-4.313160E-3	-1.196755E-3	-5.568469E-3	6.786239E-4	-3.669444E-3	-6.558971E-3	-4.739587E-3	1.213052E-3	2.253347E-4	3.295405E-3	6.859835E-3	-4.031917E-3	-5.417735E-3	3.650782E-3	-1.068375E-2	-6.981818E-3	-1.795796E-3	-1.023256E-3	-1.099989E-2	-6.874757E-4	-4.082665E-3	-1.264499E-2	-9.703928E-3	-6.791801E-3	-4.357457E-3	1.708437E-2	-8.891224E-3	-3.995064E-3	-9.999810E-4	3.478587E-3	-1.052103E-3	-9.599396E-3	3.027836E-3	-2.605147E-3	2.678849E-3	1.231624E-3	-2.602443E-3	-1.585452E-4	-5.696777E-3	3.688003E-3	-4.498438E-3	1.783727E-3	-6.052162E-3	3.735734E-3	-4.184161E-3	1.020435E-3	5.290218E-4	-2.872680E-5	-3.045635E-3	4.440134E-3	3.871700E-3	-7.726023E-3	8.279095E-3	1.259009E-3	-7.239229E-3	-5.652113E-3	3.122754E-3	-6.705842E-3	-2.294759E-3	1.182354E-3	-8.101403E-5	-8.707274E-4	2.872153E-3	1.588032E-3	1.757388E-3	-5.015656E-3	-4.175623E-3	-3.957797E-3	-7.223131E-3	7.847170E-5	-1.867434E-3	-4.089270E-3	-2.094058E-3	-6.760800E-3	-1.091868E-2	2.153877E-3	-3.753116E-3	-1.982814E-3	8.554541E-4	4.927337E-4	-3.023660E-4	2.980390E-3	2.213316E-3	7.773774E-3	-3.119345E-3	-2.277439E-3	-4.815342E-3	-6.723029E-3	2.233599E-3	3.304922E-3	-1.245285E-2	7.528482E-4	3.750473E-4	-4.213092E-3	-1.366961E-3	3.381886E-3	-1.950647E-3	2.721648E-3	-3.809252E-3	-6.787138E-3	1.325028E-3	-6.222967E-3	-1.393369E-2	-1.464611E-4	3.344692E-3	-4.942657E-3	-2.682443E-3	-7.823322E-3	6.126931E-3	-4.406565E-3	1.331725E-2	-2.601808E-4	-7.080366E-3	-2.002202E-3	-5.537419E-4	4.288061E-4	-8.031558E-3	-2.831646E-3	-7.290148E-3	-7.998323E-4	1.772000E-3	-1.299544E-2	9.639927E-3	-3.875009E-3	-6.644162E-3	-6.567661E-3	-5.421517E-3	4.521979E-3	-2.508657E-3	4.074464E-3	-4.872556E-3	4.233058E-3	-7.970444E-3	-4.863895E-3	-2.684777E-3	4.719409E-3	4.052593E-3	-9.807541E-3	-1.827927E-3	1.173469E-2
5.315180E+2	-5.515555E-3	1.002880E-3	-5.016456E-3	6.058987E-3	7.441317E-3	1.992767E-3	2.201307E-3	-2.811975E-3	-4.318008E-3	1.062987E-3	-4.465162E-3	3.983132E-3	2.408268E-3	4.071337E-3	-2.760700E-3	7.386903E-3	9.654025E-4	2.449894E-3	-7.405400E-3	-1.268278E-2	-2.960471E-3	2.649972E-4	2.481032E-3	9.457777E-4	-1.012867E-3	-7.664259E-4	-4.804600E-5	-3.170555E-3	4.210196E-3	-2.106976E-3	-4.321629E-3	1.748102E-3	-5.170242E-5	-4.464592E-3	-3.965044E-3	9.641804E-3	-2.453326E-3	-4.621247E-3	-8.778035E-4	3.026360E-3	-3.489734E-3	2.827941E-3	-3.938690E-3	3.566527E-3	1.583913E-3	6.287868E-3	7.726990E-3	1.448857E-3	-3.969735E-3	1.908746E-3	-2.943110E-3	8.623757E-4	1.075166E-2	7.405519E-3	6.017173E-3	5.837746E-3	-3.169653E-3	6.539203E-3	8.704726E-4	-4.336422E-3	-3.352794E-3	-1.420067E-3	-7.118717E-4	1.803295E-3	-4.669378E-5	-9.144862E-3	-4.749684E-3	-1.340831E-3	-1.533852E-3	-1.256662E-3	9.903754E-4	-1.984729E-3	2.929829E-3	-4.853917E-3	-4.255835E-3	4.861018E-3	6.328142E-5	-3.975133E-3	2.576414E-3	4.050267E-3	6.936976E-3	-7.056185E-3	1.339427E-3	-4.845247E-3	-8.085037E-3	-5.701018E-3	3.559080E-3	2.753183E-3	7.861388E-3	1.302859E-3	2.297048E-3	-1.682289E-3	-2.650945E-3	-7.100359E-3	-4.198437E-3	-9.289291E-4	-7.281523E-3	2.558986E-3	9.421037E-4	3.544458E-3	4.808854E-3	9.921402E-3	2.672114E-3	-1.802441E-3	7.987674E-3	-9.730048E-3	-9.846794E-4	4.524352E-3	2.936919E-3	-1.575524E-3	-4.840094E-3	-6.262929E-3	-6.366768E-4	-9.929339E-3	-1.213974E-3	2.665474E-3	3.736041E-3	6.843063E-3	-2.635918E-3	4.778595E-3	2.504395E-3	5.071357E-3	-3.137143E-3	-4.159461E-3	-6.140327E-5	8.241210E-4	-2.487258E-3	2.888171E-3	-5.894155E-3	-3.104115E-3	-2.713005E-3	-3.011026E-3	1.555393E-3	-1.676467E-3	-1.290419E-3	-1.061702E-3	1.457069E-3	4.569251E-3	-1.817149E-3	5.972272E-4	-4.283826E-3	-2.124845E-3	-1.241316E-3	2.008513E-4	-5.315700E-3	-2.606829E-3	-2.475720E-3	-2.628446E-4	-5.589699E-3	1.012682E-2	-1.300120E-3	-6.505734E-3	-1.519660E-3	-7.155248E-4	-2.162560E-3	4.817320E-3	-1.119739E-2	1.018318E-2	3.045829E-3	4.505510E-3	1.002740E-2	-4.322003E-4	-5.254667E-3	4.343268E-3	-9.168510E-4	-3.490920E-3	-9.689451E-4	-6.718400E-3	-5.423655E-3	7.605013E-3	-9.055073E-3
5.320020E+2	-4.496511E-3	6.490756E-5	-4.293548E-3	-1.297499E-3	-2.366631E-3	8.510487E-3	2.860460E-3	1.214605E-3	5.593745E-3	5.820009E-3	-4.899682E-3	3.064614E-3	1.378356E-2	3.227736E-3	1.259856E-2	9.672008E-5	-1.123359E-3	3.549605E-4	8.586592E-3	6.006833E-3	-1.862497E-4	4.050017E-3	8.178984E-3	8.866594E-5	4.817732E-3	2.722450E-3	8.351203E-3	1.597700E-4	3.810940E-3	1.208732E-3	5.535922E-3	4.443555E-3	1.614937E-3	9.202185E-3	1.288983E-2	2.897091E-3	3.169109E-3	5.506882E-4	2.833739E-3	4.953228E-3	-2.385182E-3	-4.873170E-3	6.543622E-3	-8.003673E-3	6.618958E-3	8.049724E-3	-2.586105E-3	4.716627E-3	1.664219E-2	9.528480E-3	3.116716E-3	-1.707065E-3	4.303852E-3	9.013398E-3	5.176938E-3	2.622578E-3	-3.584834E-3	2.082079E-3	5.767150E-3	3.262667E-3	9.606556E-3	2.618130E-3	6.665528E-3	-7.997692E-4	-1.394403E-3	2.923668E-3	2.027082E-3	-7.580074E-5	3.571729E-3	9.012652E-3	2.081225E-3	1.161151E-2	3.069236E-3	1.003345E-2	9.423929E-4	6.177075E-3	-1.978566E-3	2.321734E-3	5.688158E-3	1.200972E-3	-3.808400E-5	9.924257E-4	-2.248083E-3	-5.794041E-3	-3.475566E-3	-3.104362E-4	7.812042E-3	1.882427E-3	-2.134896E-3	8.910446E-3	-6.257239E-5	-1.003987E-3	5.611036E-3	3.645550E-3	8.274793E-3	-1.268000E-3	5.336723E-3	3.787363E-3	5.419778E-3	4.795458E-3	3.925425E-3	8.615601E-3	9.591606E-3	1.070538E-3	-2.336759E-3	1.198376E-2	7.875453E-3	1.137751E-2	-3.349018E-3	1.133931E-3	1.817375E-4	4.048248E-3	2.129097E-3	1.025398E-2	6.454108E-3	4.655825E-3	5.775605E-3	1.046253E-2	-9.958208E-4	-4.380593E-3	-1.982367E-3	-4.432461E-3	9.144166E-3	7.683121E-3	1.116757E-2	-3.905182E-5	7.097924E-3	6.119277E-3	4.155652E-3	-4.127264E-3	-1.795689E-3	1.250041E-3	-1.655455E-3	1.066919E-2	6.717901E-3	-6.465243E-4	-4.684144E-3	-1.712276E-4	5.914819E-3	-7.250781E-3	4.876946E-3	9.922360E-3	7.178358E-3	6.129947E-3	1.312837E-2	4.945840E-3	7.268018E-3	-2.402714E-3	3.724452E-3	-1.940298E-3	1.196112E-2	1.191861E-2	4.093883E-3	3.365397E-3	3.808290E-3	8.772650E-3	1.428870E-2	-1.953072E-3	7.701529E-3	-2.052340E-4	-2.056863E-3	-1.915082E-3	6.862658E-3	8.058962E-3	4.027188E-3	-1.921222E-3	5.574123E-4	4.514181E-3	1.363519E-2	-2.770735E-3	4.844089E-3
5.325170E+2	6.637685E-3	7.595967E-3	2.185901E-2	9.239637E-3	8.257054E-3	9.142265E-3	1.279522E-2	1.164885E-2	1.009464E-2	1.112296E-2	7.720112E-3	3.236881E-3	6.258219E-3	1.165487E-2	1.276000E-2	1.168963E-2	5.642026E-3	1.597629E-3	8.724726E-3	1.584580E-2	1.058644E-2	9.226565E-3	2.736176E-3	9.133970E-3	1.744433E-2	1.249971E-2	7.522925E-3	6.202982E-3	1.025005E-2	1.952726E-2	1.493785E-2	3.740580E-3	1.359076E-2	3.814100E-3	6.822009E-3	6.205194E-3	1.534615E-2	2.001761E-2	1.238888E-2	6.442894E-3	9.152982E-3	7.798105E-3	1.269576E-2	2.056109E-2	1.743704E-4	1.311080E-2	8.019827E-3	1.070187E-2	4.999979E-3	9.139957E-3	6.223799E-3	1.083066E-2	1.207969E-2	5.743356E-3	1.317360E-2	7.590004E-3	5.175771E-3	-3.389530E-4	8.299980E-3	8.009969E-3	7.591856E-3	1.011331E-2	1.303813E-2	9.890497E-3	1.542900E-2	7.619158E-3	1.218407E-2	1.039716E-2	1.070561E-2	1.205786E-2	3.655798E-3	1.080238E-2	8.828557E-3	6.890083E-3	9.225040E-3	6.899928E-3	2.983046E-3	1.071435E-2	4.824715E-3	8.834356E-3	1.136316E-2	6.428528E-3	1.482912E-2	9.251678E-3	1.518514E-2	2.098840E-2	8.889424E-3	5.521719E-3	8.638990E-3	8.049069E-3	4.542020E-3	1.862540E-2	9.109865E-3	1.494298E-2	4.447941E-3	9.759022E-3	1.680814E-2	-2.195685E-3	8.820233E-3	1.834315E-2	1.020899E-2	6.323426E-3	1.168637E-2	1.223450E-2	1.403641E-2	1.916938E-2	5.372844E-3	7.689175E-3	5.264024E-3	1.583503E-2	9.690473E-3	4.262159E-3	3.307862E-3	1.097698E-2	2.751946E-3	1.443632E-2	4.975958E-3	4.018447E-3	1.907882E-2	9.424867E-4	4.293270E-3	6.379882E-3	6.280773E-3	1.676794E-3	1.033425E-2	5.200964E-3	7.284124E-3	1.092108E-2	9.585586E-3	1.441564E-2	1.315602E-2	1.460273E-2	8.123313E-3	1.231551E-2	9.735932E-3	1.973619E-2	1.208339E-2	1.537245E-2	5.085292E-3	1.683501E-2	7.176714E-3	2.504722E-3	1.254788E-2	7.745552E-3	1.215532E-2	8.540281E-3	8.541485E-3	1.074017E-2	1.408556E-2	6.907536E-3	-1.165898E-3	1.165304E-2	1.407786E-2	1.987507E-4	1.245759E-2	1.260298E-2	2.826475E-3	7.871306E-3	2.275897E-3	1.877497E-2	5.100640E-3	1.890382E-2	9.682894E-3	8.349067E-3	7.571934E-3	1.574957E-2	7.812738E-3	1.343963E-2	1.299879E-2	4.438436E-3	-7.406086E-3
5.330280E+2	2.840081E-2	2.681570E-2	2.014882E-2	1.631179E-2	2.471104E-2	3.004760E-2	2.767481E-2	2.460455E-2	2.281517E-2	3.038414E-2	3.127558E-2	2.524067E-2	2.589800E-2	1.521141E-2	1.783693E-2	2.689299E-2	2.517480E-2	1.899998E-2	3.663992E-2	3.132174E-2	3.259234E-3	3.319233E-2	2.727711E-2	2.268989E-2	2.177003E-2	2.858368E-2	2.232885E-2	3.445138E-2	2.830038E-2	2.289639E-2	2.487334E-2	1.503039E-2	2.200266E-2	2.361345E-2	1.849491E-2	3.560341E-2	1.450355E-2	2.065803E-2	2.512547E-2	1.512157E-2	2.571678E-2	7.930069E-3	2.545439E-2	1.180289E-2	1.620755E-2	3.244662E-2	1.918909E-2	3.297089E-2	1.903120E-2	1.573034E-2	2.546021E-2	2.938274E-2	2.958337E-2	2.547192E-2	3.006794E-2	1.595931E-2	8.563516E-3	1.625000E-2	2.137847E-2	2.262069E-2	3.732478E-2	1.173781E-2	2.672791E-2	3.259754E-2	2.840052E-2	8.899741E-3	1.679743E-2	2.322200E-2	2.238328E-2	2.582360E-2	2.193472E-2	1.966697E-2	2.690573E-2	1.857827E-2	1.601808E-2	3.404010E-2	1.823812E-2	2.587823E-2	3.145547E-2	2.905449E-2	2.341481E-2	1.985925E-2	2.561065E-2	1.956477E-2	3.093870E-2	2.117562E-2	1.960015E-2	1.220417E-2	1.656649E-2	1.220854E-2	1.267814E-2	1.878640E-2	1.841382E-2	1.664083E-2	2.595349E-2	1.562943E-2	1.817385E-2	2.183717E-2	2.374919E-2	2.132828E-2	2.680592E-2	1.822215E-2	2.842281E-2	2.291956E-2	2.420138E-2	2.423649E-2	2.878786E-2	1.782679E-2	2.199054E-2	3.116609E-2	1.145878E-2	2.540755E-2	2.116525E-2	2.460672E-2	3.107149E-2	1.102918E-2	3.043671E-2	2.578241E-2	1.834060E-2	1.873032E-2	1.938001E-2	1.335268E-2	2.524354E-2	1.541822E-2	2.162939E-2	1.348447E-2	2.691292E-2	1.467943E-2	2.734090E-2	1.802509E-2	3.185565E-2	1.648744E-2	2.565732E-2	2.129072E-2	2.315046E-2	2.631052E-2	3.408891E-2	3.702544E-2	2.927177E-2	1.464369E-2	2.065046E-2	2.272909E-2	2.207427E-2	2.036580E-2	1.919859E-2	2.296327E-2	2.114875E-2	2.269462E-2	1.374580E-2	2.501357E-2	2.208091E-2	2.194990E-2	2.570818E-2	2.375010E-2	2.050401E-2	2.725205E-2	2.633391E-2	2.310280E-2	1.179275E-2	1.994380E-2	1.519359E-2	2.779518E-2	3.043287E-2	1.318006E-2	1.928622E-2	2.636127E-2	2.000789E-2	3.186705E-2	2.093229E-2	3.636028E-2	1.567021E-2
5.331580E+2	2.534729E-2	2.592269E-2	2.154527E-2	2.457702E-2	2.224964E-2	2.973632E-2	3.715486E-2	2.724786E-2	1.858582E-2	3.886337E-2	2.653948E-2	3.234300E-2	3.687719E-2	3.447241E-2	2.690829E-2	2.222966E-2	1.922124E-2	1.692724E-2	3.979396E-2	6.998364E-3	3.172780E-2	2.928704E-2	2.389326E-2	3.035149E-2	1.932693E-2	2.102968E-2	3.279795E-2	3.250452E-2	2.477397E-2	1.930255E-2	2.452876E-2	4.096730E-2	2.476798E-2	1.924593E-2	2.445317E-2	2.408130E-2	2.626182E-2	1.946298E-2	2.758293E-2	2.386571E-2	1.942761E-2	2.226562E-2	3.496845E-2	1.649351E-2	2.901154E-2	2.878376E-2	2.566911E-2	2.959391E-2	1.869040E-2	2.990591E-2	2.623756E-2	3.502507E-2	1.955969E-2	2.223013E-2	3.076153E-2	1.811817E-2	1.523494E-2	1.642583E-2	3.212146E-2	2.174367E-2	3.051398E-2	2.176268E-2	3.161865E-2	2.365251E-2	2.711580E-2	2.741151E-2	2.759731E-2	2.573954E-2	2.759229E-2	4.404997E-2	2.452791E-2	2.664350E-2	1.838695E-2	2.370826E-2	2.848131E-2	2.284627E-2	2.490356E-2	1.517258E-2	3.266513E-2	2.678208E-2	3.075683E-2	1.898352E-2	2.632613E-2	2.297055E-2	2.107337E-2	3.442580E-2	2.026139E-2	3.202738E-2	1.625616E-2	3.498952E-2	2.536121E-2	3.164587E-2	2.294276E-2	1.988094E-2	2.217211E-2	1.867963E-2	2.374862E-2	3.037648E-2	2.557643E-2	1.253331E-2	2.906668E-2	3.312568E-2	1.544559E-2	2.810240E-2	3.599529E-2	3.041848E-2	2.854600E-2	2.734886E-2	2.813757E-2	3.817838E-2	3.037930E-2	2.716153E-2	2.354047E-2	2.999356E-2	2.803450E-2	3.381652E-2	3.162933E-2	1.645790E-2	3.059746E-2	2.879440E-2	2.316615E-2	2.718533E-2	2.135050E-2	3.791671E-2	3.349088E-2	2.232669E-2	2.711519E-2	2.515980E-2	3.222424E-2	2.685165E-2	2.355614E-2	2.875682E-2	2.972307E-2	1.704946E-2	3.379606E-2	2.757024E-2	3.254611E-2	2.838568E-2	2.394697E-2	2.419353E-2	1.709119E-2	2.943616E-2	2.330076E-2	2.680283E-2	2.512174E-2	2.601602E-2	3.156405E-2	2.761224E-2	2.315299E-2	2.983340E-2	2.965012E-2	2.642135E-2	2.644849E-2	2.616792E-2	3.304519E-2	2.136817E-2	2.652672E-2	1.517645E-2	3.859693E-2	1.912965E-2	3.356510E-2	1.048355E-2	3.222126E-2	2.157391E-2	2.961957E-2	3.417956E-2	2.701760E-2	3.468989E-2	3.758449E-2	2.828949E-2	2.420919E-2
5.333130E+2	5.004244E-2	3.729178E-2	2.670467E-2	3.437780E-2	3.676369E-2	3.440784E-2	4.066639E-2	3.402748E-2	3.933070E-2	2.613616E-2	3.991971E-2	3.375463E-2	4.295789E-2	2.880070E-2	3.506776E-2	2.970090E-2	3.228633E-2	3.278700E-2	3.526604E-2	3.429206E-2	4.265991E-2	2.812423E-2	4.199192E-2	3.506771E-2	3.785519E-2	4.501640E-2	3.547466E-2	3.976454E-2	4.401434E-2	4.317225E-2	4.232579E-2	3.906259E-2	4.466934E-2	3.717216E-2	4.977735E-2	4.727221E-2	3.607851E-2	3.126855E-2	4.633342E-2	2.724005E-2	3.162397E-2	4.195812E-2	3.572431E-2	4.085372E-2	4.520113E-2	4.771539E-2	3.642220E-2	5.159166E-2	3.077116E-2	4.146474E-2	4.203604E-2	2.056359E-2	4.644209E-2	3.375909E-2	4.137787E-2	4.264456E-2	3.881090E-2	3.213325E-2	4.004482E-2	2.953248E-2	4.152788E-2	2.492321E-2	4.596191E-2	3.684244E-2	3.129092E-2	4.373377E-2	4.127224E-2	4.274254E-2	4.595783E-2	3.696196E-2	4.393422E-2	5.073263E-2	4.483904E-2	3.605369E-2	3.792947E-2	3.944470E-2	4.790889E-2	4.136749E-2	1.881255E-2	2.656938E-2	3.037179E-2	3.894065E-2	3.988157E-2	3.233870E-2	2.986304E-2	5.649205E-2	2.784273E-2	5.197801E-2	3.938348E-2	3.823427E-2	3.661660E-2	4.290971E-2	3.669594E-2	3.337378E-2	2.686462E-2	3.420380E-2	4.499434E-2	3.337587E-2	4.282807E-2	3.974195E-2	4.631791E-2	5.500155E-2	4.502182E-2	3.275504E-2	5.207789E-2	4.154652E-2	3.183704E-2	3.505931E-2	5.249130E-2	4.472653E-2	4.442629E-2	3.812889E-2	3.285304E-2	3.116472E-2	4.182994E-2	2.849132E-2	4.305753E-2	3.734099E-2	2.982316E-2	3.945260E-2	3.681945E-2	4.990645E-2	2.922551E-2	4.312565E-2	2.759791E-2	4.198557E-2	4.291112E-2	3.158500E-2	4.424835E-2	5.660419E-2	3.813986E-2	4.746807E-2	4.694926E-2	5.371292E-2	3.500490E-2	3.851571E-2	6.052218E-2	4.910191E-2	3.926936E-2	3.027700E-2	3.871606E-2	4.329289E-2	4.861625E-2	3.715009E-2	5.193740E-2	5.665481E-2	4.601954E-2	3.375782E-2	4.500912E-2	3.881087E-2	2.987647E-2	4.381147E-2	3.991826E-2	2.524576E-2	3.576468E-2	3.309048E-2	3.745342E-2	4.404980E-2	5.403830E-2	4.277847E-2	5.026963E-2	4.025417E-2	4.094070E-2	3.356616E-2	3.518102E-2	4.063468E-2	5.093577E-2	4.410585E-2	5.172677E-2	3.440289E-2	4.540322E-2
5.334630E+2	4.563035E-2	5.457688E-2	5.063442E-2	4.715665E-2	6.044057E-2	4.209462E-2	4.198977E-2	5.727281E-2	6.271552E-2	4.408748E-2	4.406536E-2	4.951401E-2	4.818821E-2	5.512854E-2	4.976807E-2	4.950590E-2	4.215419E-2	4.535448E-2	5.813432E-2	5.386222E-2	4.467551E-2	5.237152E-2	6.020639E-2	5.229069E-2	4.180562E-2	6.774812E-2	5.800075E-2	4.955131E-2	6.603170E-2	4.506190E-2	5.094355E-2	4.717707E-2	4.825077E-2	4.096844E-2	5.589854E-2	4.123385E-2	4.904437E-2	5.197830E-2	3.892764E-2	5.091696E-2	5.619343E-2	6.074656E-2	6.808137E-2	5.260126E-2	6.172918E-2	5.294759E-2	5.731539E-2	5.507925E-2	5.545858E-2	4.928859E-2	5.551953E-2	3.924980E-2	5.032060E-2	5.523145E-2	5.254664E-2	4.973626E-2	5.979308E-2	5.984634E-2	5.187224E-2	4.608457E-2	6.399916E-2	5.289874E-2	5.354411E-2	6.123297E-2	5.486055E-2	5.724654E-2	4.713269E-2	4.763666E-2	6.190312E-2	5.876440E-2	5.431196E-2	6.174608E-2	3.943818E-2	3.961094E-2	5.567543E-2	4.512158E-2	6.341563E-2	4.839349E-2	4.720812E-2	6.474378E-2	4.378066E-2	4.240582E-2	5.511225E-2	5.197317E-2	4.478501E-2	5.921499E-2	4.794602E-2	5.327426E-2	4.844903E-2	6.525454E-2	5.096386E-2	5.304635E-2	5.587139E-2	4.489093E-2	6.664221E-2	6.179505E-2	5.308585E-2	5.488457E-2	5.962138E-2	6.596699E-2	3.674899E-2	6.614118E-2	5.217105E-2	5.305268E-2	4.864515E-2	3.905854E-2	5.818640E-2	6.519800E-2	5.177389E-2	6.550578E-2	4.469801E-2	4.874041E-2	4.771659E-2	5.274171E-2	5.622218E-2	6.737825E-2	5.459653E-2	7.500831E-2	5.026642E-2	5.800475E-2	5.265548E-2	4.625781E-2	5.303892E-2	7.144994E-2	5.745003E-2	5.507053E-2	4.619350E-2	5.254626E-2	5.928372E-2	6.034408E-2	6.507491E-2	6.509276E-2	5.695336E-2	5.102330E-2	5.816356E-2	6.887389E-2	5.093380E-2	5.879917E-2	4.961539E-2	4.759383E-2	4.863259E-2	6.489031E-2	4.416177E-2	4.706302E-2	5.573161E-2	5.865738E-2	5.825380E-2	5.839759E-2	5.936742E-2	4.471410E-2	5.552213E-2	5.858418E-2	5.630860E-2	5.464405E-2	4.842421E-2	5.095031E-2	5.329543E-2	4.102961E-2	6.061873E-2	4.352633E-2	4.647331E-2	6.576743E-2	4.649508E-2	6.688782E-2	5.557363E-2	6.621295E-2	5.860042E-2	6.276062E-2	5.918399E-2	6.187873E-2	6.037144E-2
5.336130E+2	6.674470E-2	6.177547E-2	6.777737E-2	6.916350E-2	6.124065E-2	7.579299E-2	5.654532E-2	5.538327E-2	6.129311E-2	6.259476E-2	5.529879E-2	5.970817E-2	6.770357E-2	7.217412E-2	7.496336E-2	7.302151E-2	7.156059E-2	5.739896E-2	6.076968E-2	6.695103E-2	6.327728E-2	7.996435E-2	6.664143E-2	5.764555E-2	6.173348E-2	8.123233E-2	8.005043E-2	6.117564E-2	7.120598E-2	6.532145E-2	8.141979E-2	6.867007E-2	6.679575E-2	8.450845E-2	6.102773E-2	6.081351E-2	7.991615E-2	6.484569E-2	7.916355E-2	6.454584E-2	6.910451E-2	7.806674E-2	7.347048E-2	6.304254E-2	7.638475E-2	7.206786E-2	6.721207E-2	6.618021E-2	4.962131E-2	6.691125E-2	6.906590E-2	6.202240E-2	6.515076E-2	6.789040E-2	7.125399E-2	6.843598E-2	8.289224E-2	6.232594E-2	7.359098E-2	6.991961E-2	9.006142E-2	5.769618E-2	7.337607E-2	4.489744E-2	6.783456E-2	6.042385E-2	5.757101E-2	5.815206E-2	7.438061E-2	7.968396E-2	6.619179E-2	7.262790E-2	5.380284E-2	5.154250E-2	5.597876E-2	5.984106E-2	8.023032E-2	6.068308E-2	6.615275E-2	6.340527E-2	6.872256E-2	6.895146E-2	6.342381E-2	6.192401E-2	5.979058E-2	5.999079E-2	7.418200E-2	8.302121E-2	6.492390E-2	7.466803E-2	7.394244E-2	6.957650E-2	6.345334E-2	5.850239E-2	5.336588E-2	6.881648E-2	7.087216E-2	6.524549E-2	6.540919E-2	4.702115E-2	6.087109E-2	7.980538E-2	8.545066E-2	6.393087E-2	6.324817E-2	6.834048E-2	7.408545E-2	7.416395E-2	7.198344E-2	6.737821E-2	6.218985E-2	6.506126E-2	6.961411E-2	6.506841E-2	5.646118E-2	8.056958E-2	7.116307E-2	7.327520E-2	6.420863E-2	6.300097E-2	6.074607E-2	6.223458E-2	7.286572E-2	6.178312E-2	7.875671E-2	5.536045E-2	6.768283E-2	7.518432E-2	6.252603E-2	5.653268E-2	8.198531E-2	6.829160E-2	6.260618E-2	6.367431E-2	7.762028E-2	7.241596E-2	8.256306E-2	6.297219E-2	7.319817E-2	7.032416E-2	7.746102E-2	7.507104E-2	7.337235E-2	6.285801E-2	6.356811E-2	8.203194E-2	8.090112E-2	6.887543E-2	7.939964E-2	6.881165E-2	7.440896E-2	7.182069E-2	4.774066E-2	7.576673E-2	4.771976E-2	7.135579E-2	6.488029E-2	6.740879E-2	7.093979E-2	5.682869E-2	6.274222E-2	7.598648E-2	6.115956E-2	6.658207E-2	9.156929E-2	6.270389E-2	7.160102E-2	8.152304E-2	7.615132E-2	5.739273E-2	5.433916E-2
5.337580E+2	8.748224E-2	1.129726E-1	1.157323E-1	9.796345E-2	8.497242E-2	9.961692E-2	1.181614E-1	1.052273E-1	1.028053E-1	1.094423E-1	1.090794E-1	9.364995E-2	1.029702E-1	1.169878E-1	9.826068E-2	1.021583E-1	1.067078E-1	1.089770E-1	9.092270E-2	9.868855E-2	9.869727E-2	9.979107E-2	8.288327E-2	1.114827E-1	8.483800E-2	9.280330E-2	8.282653E-2	9.705572E-2	1.116950E-1	1.019364E-1	9.895848E-2	1.016386E-1	9.847949E-2	9.810657E-2	9.003024E-2	9.724141E-2	1.041887E-1	7.354787E-2	1.091064E-1	9.683648E-2	9.019923E-2	1.102566E-1	1.026834E-1	1.048242E-1	1.124445E-1	8.122830E-2	8.983828E-2	1.000433E-1	9.635055E-2	8.677136E-2	8.867324E-2	1.080785E-1	1.042821E-1	8.257668E-2	8.801725E-2	9.796748E-2	9.553785E-2	9.391858E-2	1.030964E-1	9.860434E-2	1.113739E-1	9.040484E-2	9.268888E-2	8.608354E-2	9.971803E-2	1.076464E-1	1.025253E-1	1.073204E-1	9.508126E-2	1.056382E-1	9.795489E-2	1.058391E-1	9.926514E-2	1.008944E-1	1.034818E-1	1.041498E-1	8.583890E-2	9.875277E-2	1.044947E-1	9.698078E-2	1.041315E-1	9.024799E-2	1.175564E-1	1.050364E-1	9.398764E-2	1.121944E-1	1.182907E-1	1.035506E-1	9.538275E-2	9.446545E-2	1.054047E-1	9.787039E-2	1.003314E-1	1.254337E-1	1.026337E-1	1.002475E-1	8.616539E-2	1.196253E-1	9.461272E-2	7.421305E-2	1.086115E-1	1.099540E-1	9.723529E-2	1.034182E-1	1.145575E-1	9.634390E-2	9.877936E-2	1.165566E-1	9.706910E-2	9.888861E-2	9.038302E-2	8.547893E-2	9.897168E-2	1.047642E-1	9.944823E-2	1.018255E-1	9.862322E-2	1.007584E-1	8.588021E-2	1.127884E-1	1.083058E-1	9.013263E-2	1.102754E-1	9.610669E-2	1.181608E-1	8.965482E-2	9.377250E-2	1.140146E-1	1.002742E-1	9.295893E-2	1.053813E-1	8.194059E-2	1.162992E-1	9.575459E-2	8.658956E-2	8.783824E-2	9.625145E-2	1.022940E-1	1.054617E-1	1.037743E-1	1.053118E-1	9.792395E-2	1.195405E-1	8.890170E-2	9.123672E-2	1.106990E-1	1.058971E-1	9.484365E-2	1.108932E-1	1.075593E-1	8.749817E-2	1.050897E-1	9.402468E-2	1.037142E-1	1.068942E-1	1.009907E-1	1.217366E-1	9.496805E-2	8.338930E-2	9.935403E-2	9.093512E-2	1.033542E-1	1.128097E-1	1.060740E-1	1.129848E-1	1.187478E-1	1.106470E-1	1.281082E-1	1.080613E-1	1.124972E-1	6.940906E-2
5.339140E+2	1.456681E-1	1.697926E-1	1.532135E-1	1.465366E-1	1.617467E-1	1.662529E-1	1.457078E-1	1.505566E-1	1.774871E-1	1.313384E-1	1.437507E-1	1.339687E-1	1.562272E-1	1.501405E-1	1.547868E-1	1.765008E-1	1.533018E-1	1.398734E-1	1.656048E-1	1.506332E-1	1.619314E-1	1.485875E-1	1.539850E-1	1.503471E-1	1.618941E-1	1.515754E-1	1.622148E-1	1.485706E-1	1.599143E-1	1.544956E-1	1.511443E-1	1.865997E-1	1.523582E-1	1.594024E-1	1.553150E-1	1.778833E-1	1.679669E-1	1.493766E-1	1.734776E-1	1.736733E-1	1.653668E-1	1.681791E-1	1.789284E-1	1.537561E-1	1.481189E-1	1.783942E-1	1.499275E-1	1.585758E-1	1.427869E-1	1.590989E-1	1.768365E-1	1.481459E-1	1.482717E-1	1.322035E-1	1.664183E-1	1.645552E-1	1.584813E-1	1.607054E-1	1.454060E-1	1.432977E-1	1.601442E-1	1.777747E-1	1.295211E-1	1.574899E-1	1.693609E-1	1.492708E-1	1.601661E-1	1.438197E-1	1.499886E-1	1.440810E-1	1.623817E-1	1.580622E-1	1.445861E-1	1.655034E-1	1.521882E-1	1.490160E-1	1.533678E-1	1.527591E-1	1.592346E-1	1.551250E-1	1.740540E-1	1.499397E-1	1.492677E-1	1.632804E-1	1.593435E-1	1.592248E-1	1.602522E-1	1.676160E-1	1.524252E-1	1.554905E-1	1.535972E-1	1.442737E-1	1.523960E-1	1.475800E-1	1.676852E-1	1.518187E-1	1.492428E-1	1.443062E-1	1.578005E-1	1.466537E-1	1.498170E-1	1.725575E-1	1.694733E-1	1.382079E-1	1.513709E-1	1.618317E-1	1.669803E-1	1.656246E-1	1.642228E-1	1.624361E-1	1.467212E-1	1.551552E-1	1.512304E-1	1.481843E-1	1.618874E-1	1.594662E-1	1.505383E-1	1.511976E-1	1.673486E-1	1.465167E-1	1.623639E-1	1.593179E-1	1.553083E-1	1.646548E-1	1.834489E-1	1.490187E-1	1.714049E-1	1.639218E-1	1.413304E-1	1.535763E-1	1.580409E-1	1.653591E-1	1.652389E-1	1.579678E-1	1.790004E-1	1.393919E-1	1.904615E-1	1.801269E-1	1.442809E-1	1.705555E-1	1.609372E-1	1.513587E-1	1.539816E-1	1.423564E-1	1.651627E-1	1.549787E-1	1.645581E-1	1.436724E-1	1.613838E-1	1.611752E-1	1.781657E-1	1.580633E-1	1.569452E-1	1.829032E-1	1.490174E-1	1.610505E-1	1.772424E-1	1.593439E-1	1.748421E-1	1.462739E-1	1.635050E-1	1.657666E-1	1.583259E-1	1.575621E-1	1.507990E-1	1.659858E-1	1.531493E-1	1.550711E-1	1.701189E-1	1.427937E-1	1.523881E-1
5.340800E+2	2.510664E-1	2.516094E-1	2.324169E-1	2.593320E-1	2.384160E-1	2.618414E-1	2.411067E-1	2.590579E-1	2.631213E-1	2.617071E-1	2.417938E-1	2.412209E-1	2.559469E-1	2.197263E-1	2.507730E-1	2.635665E-1	2.362549E-1	2.779910E-1	2.688144E-1	2.568371E-1	2.504058E-1	2.596686E-1	2.813282E-1	2.673129E-1	2.558559E-1	2.539329E-1	2.634183E-1	2.530744E-1	2.670584E-1	2.694425E-1	2.245376E-1	2.545513E-1	2.601154E-1	2.573953E-1	2.507851E-1	2.645891E-1	2.417643E-1	2.345073E-1	2.697696E-1	2.529310E-1	2.511056E-1	2.536337E-1	2.627862E-1	2.362057E-1	2.536151E-1	2.586962E-1	2.535990E-1	2.542249E-1	2.602821E-1	2.552720E-1	2.702281E-1	2.864745E-1	2.606325E-1	2.679151E-1	2.437109E-1	2.631841E-1	2.428046E-1	2.508709E-1	2.636268E-1	2.815774E-1	2.487960E-1	2.595632E-1	2.635188E-1	2.593532E-1	2.861479E-1	2.633198E-1	2.357021E-1	2.638352E-1	2.573294E-1	2.402118E-1	2.665327E-1	2.571274E-1	2.545417E-1	2.382300E-1	2.469688E-1	2.748999E-1	2.592837E-1	2.581516E-1	2.412155E-1	2.566269E-1	2.709518E-1	2.553519E-1	2.731192E-1	2.544569E-1	2.552899E-1	2.724420E-1	2.360994E-1	2.591473E-1	2.780394E-1	2.827558E-1	2.825542E-1	2.500712E-1	2.427156E-1	2.517963E-1	2.659829E-1	2.545019E-1	2.449857E-1	2.517260E-1	2.274312E-1	2.676836E-1	2.440225E-1	2.743818E-1	2.505568E-1	2.431457E-1	2.546279E-1	2.516931E-1	2.573262E-1	2.388771E-1	2.665739E-1	2.719692E-1	2.626991E-1	2.552921E-1	2.613556E-1	2.383672E-1	2.598181E-1	2.610412E-1	2.717764E-1	2.335705E-1	2.420319E-1	2.472109E-1	2.889987E-1	2.407054E-1	2.408966E-1	2.797579E-1	2.497847E-1	2.688155E-1	2.509043E-1	2.635771E-1	2.679825E-1	2.619456E-1	2.535662E-1	2.557678E-1	2.408116E-1	2.604329E-1	2.505994E-1	2.505321E-1	2.406414E-1	2.480732E-1	2.582681E-1	2.809347E-1	2.619110E-1	2.348369E-1	2.367664E-1	2.431881E-1	2.608357E-1	2.642205E-1	2.753795E-1	2.850945E-1	2.798755E-1	2.678558E-1	2.800336E-1	2.639802E-1	2.590993E-1	2.586279E-1	2.537921E-1	2.578879E-1	2.595203E-1	2.695836E-1	2.546438E-1	2.559425E-1	2.753922E-1	2.457084E-1	2.605753E-1	2.585235E-1	2.661761E-1	2.579308E-1	2.684784E-1	2.857317E-1	2.752547E-1	2.717067E-1	2.827843E-1
5.342040E+2	4.212900E-1	4.548844E-1	4.617801E-1	4.398051E-1	4.117396E-1	4.640021E-1	4.411871E-1	4.471371E-1	4.388484E-1	4.329216E-1	4.814861E-1	4.331458E-1	4.734437E-1	4.561682E-1	4.480536E-1	4.472162E-1	4.482128E-1	4.355259E-1	4.604821E-1	4.415078E-1	4.124914E-1	4.654470E-1	4.732173E-1	4.464102E-1	4.296673E-1	4.343363E-1	4.176055E-1	4.589885E-1	4.718994E-1	4.390561E-1	4.492940E-1	4.512541E-1	4.589254E-1	4.639209E-1	4.576630E-1	4.350219E-1	4.521908E-1	4.482716E-1	4.226229E-1	4.804018E-1	4.467092E-1	4.540854E-1	4.749016E-1	4.614569E-1	4.694074E-1	4.361592E-1	4.676851E-1	4.699745E-1	4.499228E-1	4.439672E-1	4.571363E-1	4.441226E-1	4.319402E-1	4.713254E-1	4.873023E-1	4.589862E-1	4.660709E-1	4.460345E-1	4.373280E-1	4.433465E-1	4.732130E-1	4.588803E-1	4.380216E-1	4.864402E-1	4.645786E-1	4.619415E-1	4.295609E-1	4.483068E-1	4.640587E-1	4.560375E-1	4.433328E-1	4.316797E-1	4.474147E-1	4.555238E-1	4.252181E-1	4.611175E-1	4.675258E-1	4.533347E-1	4.608952E-1	4.781840E-1	4.253241E-1	4.219483E-1	4.512481E-1	4.498581E-1	4.405965E-1	4.443865E-1	4.585577E-1	4.357146E-1	4.551626E-1	4.551509E-1	4.621792E-1	4.508394E-1	4.442331E-1	4.562299E-1	4.174954E-1	4.366309E-1	4.450901E-1	4.662154E-1	4.861796E-1	4.456885E-1	4.514325E-1	4.496526E-1	4.395550E-1	4.115618E-1	4.520645E-1	4.474097E-1	4.737341E-1	4.526868E-1	4.831627E-1	4.908497E-1	4.441302E-1	4.344770E-1	4.610537E-1	4.376726E-1	4.381963E-1	4.247628E-1	4.614537E-1	4.398964E-1	4.546416E-1	4.906485E-1	4.703616E-1	4.419954E-1	4.446392E-1	4.548174E-1	4.484606E-1	4.507711E-1	4.372092E-1	4.519745E-1	4.547874E-1	4.439295E-1	4.758874E-1	4.411912E-1	4.807096E-1	4.537929E-1	4.646345E-1	4.170594E-1	4.920797E-1	4.482613E-1	4.513988E-1	4.436903E-1	4.471815E-1	4.402659E-1	4.488387E-1	4.257254E-1	4.665868E-1	4.450908E-1	4.733546E-1	4.601253E-1	4.304307E-1	4.443568E-1	4.738423E-1	4.386084E-1	4.409187E-1	4.730572E-1	4.377611E-1	4.621695E-1	4.841226E-1	4.733888E-1	4.589452E-1	4.342639E-1	4.812203E-1	4.508252E-1	4.378542E-1	4.467633E-1	4.375620E-1	4.469152E-1	4.545683E-1	4.874117E-1	4.646040E-1	4.926754E-1	4.926785E-1
5.343600E+2	8.240516E-1	7.806779E-1	7.705930E-1	7.333149E-1	7.495275E-1	8.389913E-1	7.582432E-1	7.754506E-1	8.089122E-1	7.946151E-1	7.600969E-1	7.864742E-1	8.076285E-1	8.060514E-1	7.962093E-1	7.731000E-1	8.101838E-1	8.036869E-1	7.960919E-1	7.672028E-1	7.614232E-1	8.139414E-1	7.722244E-1	7.787013E-1	7.955271E-1	7.927108E-1	7.989432E-1	8.287212E-1	8.037329E-1	7.966705E-1	7.931239E-1	8.144335E-1	8.175470E-1	7.776481E-1	8.004235E-1	7.987672E-1	8.255458E-1	7.232392E-1	7.591014E-1	8.017932E-1	7.968411E-1	7.623456E-1	7.992550E-1	8.069878E-1	7.610485E-1	8.111408E-1	7.864787E-1	7.948061E-1	7.556299E-1	7.934344E-1	8.114089E-1	8.055259E-1	7.879533E-1	7.942691E-1	7.609667E-1	8.105007E-1	8.005455E-1	7.860924E-1	7.768642E-1	7.904847E-1	8.038631E-1	8.355333E-1	7.613418E-1	8.263854E-1	8.105870E-1	7.603304E-1	7.847847E-1	8.242249E-1	8.462782E-1	7.940029E-1	8.039088E-1	7.958007E-1	7.865069E-1	8.364003E-1	7.781558E-1	7.994787E-1	8.465326E-1	7.882837E-1	7.620462E-1	7.969174E-1	8.094184E-1	7.871869E-1	7.863152E-1	7.899082E-1	7.541908E-1	7.834236E-1	7.870629E-1	8.176491E-1	7.694778E-1	8.076987E-1	7.969664E-1	7.918415E-1	7.896527E-1	7.842064E-1	8.177143E-1	7.962030E-1	7.977058E-1	7.994422E-1	7.854162E-1	7.540732E-1	7.877070E-1	7.918479E-1	7.943684E-1	7.709994E-1	8.143558E-1	7.998973E-1	8.129485E-1	8.042570E-1	8.556004E-1	8.315777E-1	7.579076E-1	7.727009E-1	7.768831E-1	8.246426E-1	7.928789E-1	7.794662E-1	7.603162E-1	7.951736E-1	7.828320E-1	7.608889E-1	8.063728E-1	7.758738E-1	7.989753E-1	7.640901E-1	8.447406E-1	7.753236E-1	8.045541E-1	8.203366E-1	7.877965E-1	8.040088E-1	8.234399E-1	7.709306E-1	8.046079E-1	7.449968E-1	8.220260E-1	7.940454E-1	8.121746E-1	8.022678E-1	7.728918E-1	7.614511E-1	7.988093E-1	7.933567E-1	8.085238E-1	7.758179E-1	8.490610E-1	8.036154E-1	7.945130E-1	7.836155E-1	8.035010E-1	7.598379E-1	7.740512E-1	7.562374E-1	8.184724E-1	7.814449E-1	8.313311E-1	7.619683E-1	7.928395E-1	7.954973E-1	8.114911E-1	8.006110E-1	8.074276E-1	8.158978E-1	7.847350E-1	7.634478E-1	8.212637E-1	8.050054E-1	7.966231E-1	8.414471E-1	8.231388E-1	7.881640E-1	8.018521E-1
5.345160E+2	1.159685E+0	1.154963E+0	1.185622E+0	1.134698E+0	1.133427E+0	1.159202E+0	1.161526E+0	1.207515E+0	1.131676E+0	1.149045E+0	1.125484E+0	1.132576E+0	1.114787E+0	1.116460E+0	1.187041E+0	1.169349E+0	1.152206E+0	1.187037E+0	1.180905E+0	1.122967E+0	1.128909E+0	1.153641E+0	1.170686E+0	1.129114E+0	1.143466E+0	1.198355E+0	1.114843E+0	1.134105E+0	1.229576E+0	1.105352E+0	1.182308E+0	1.158051E+0	1.149202E+0	1.132971E+0	1.151139E+0	1.140499E+0	1.150918E+0	1.126483E+0	1.132786E+0	1.211137E+0	1.152669E+0	1.160289E+0	1.138648E+0	1.155080E+0	1.138875E+0	1.186519E+0	1.107856E+0	1.172375E+0	1.118825E+0	1.184112E+0	1.157408E+0	1.120533E+0	1.117713E+0	1.157621E+0	1.164404E+0	1.121856E+0	1.214388E+0	1.130930E+0	1.147685E+0	1.140778E+0	1.150313E+0	1.149738E+0	1.138381E+0	1.138112E+0	1.194186E+0	1.157364E+0	1.145100E+0	1.160688E+0	1.132147E+0	1.149173E+0	1.163306E+0	1.147782E+0	1.161538E+0	1.128763E+0	1.157795E+0	1.157121E+0	1.167003E+0	1.147508E+0	1.150226E+0	1.106226E+0	1.106944E+0	1.151000E+0	1.142089E+0	1.134243E+0	1.175294E+0	1.120626E+0	1.162020E+0	1.151746E+0	1.126273E+0	1.170708E+0	1.122354E+0	1.132356E+0	1.169301E+0	1.173678E+0	1.116112E+0	1.107702E+0	1.192323E+0	1.169424E+0	1.103925E+0	1.151477E+0	1.158111E+0	1.147171E+0	1.151222E+0	1.140137E+0	1.097960E+0	1.171068E+0	1.144241E+0	1.181975E+0	1.152745E+0	1.195005E+0	1.144639E+0	1.157943E+0	1.115910E+0	1.166602E+0	1.146728E+0	1.159062E+0	1.170659E+0	1.135776E+0	1.144018E+0	1.143067E+0	1.159706E+0	1.160116E+0	1.139289E+0	1.168943E+0	1.108895E+0	1.122303E+0	1.123939E+0	1.106666E+0	1.122024E+0	1.126451E+0	1.132606E+0	1.142111E+0	1.144496E+0	1.106692E+0	1.122291E+0	1.136360E+0	1.166388E+0	1.109892E+0	1.124316E+0	1.156827E+0	1.126889E+0	1.121828E+0	1.189180E+0	1.161928E+0	1.136243E+0	1.155529E+0	1.188198E+0	1.144165E+0	1.151563E+0	1.090364E+0	1.179945E+0	1.080159E+0	1.141028E+0	1.138923E+0	1.117696E+0	1.093657E+0	1.156130E+0	1.142436E+0	1.148382E+0	1.178534E+0	1.168149E+0	1.123750E+0	1.147729E+0	1.142130E+0	1.181022E+0	1.109848E+0	1.135533E+0	1.166705E+0	1.191321E+0	1.126050E+0	1.123135E+0
5.346560E+2	1.632189E+0	1.603177E+0	1.643701E+0	1.569192E+0	1.639035E+0	1.593810E+0	1.599810E+0	1.560435E+0	1.530496E+0	1.552458E+0	1.610585E+0	1.564773E+0	1.574116E+0	1.561443E+0	1.554366E+0	1.614098E+0	1.589629E+0	1.601404E+0	1.576431E+0	1.551538E+0	1.584586E+0	1.592736E+0	1.590762E+0	1.560194E+0	1.555320E+0	1.625248E+0	1.586195E+0	1.570553E+0	1.581717E+0	1.524339E+0	1.668647E+0	1.575697E+0	1.606778E+0	1.596132E+0	1.607098E+0	1.581908E+0	1.563405E+0	1.571691E+0	1.592169E+0	1.599864E+0	1.612419E+0	1.566068E+0	1.597768E+0	1.569176E+0	1.628981E+0	1.601316E+0	1.570765E+0	1.582193E+0	1.484688E+0	1.560212E+0	1.658185E+0	1.533490E+0	1.610701E+0	1.613316E+0	1.579321E+0	1.547762E+0	1.603468E+0	1.637642E+0	1.579283E+0	1.543503E+0	1.595067E+0	1.559029E+0	1.546806E+0	1.612905E+0	1.599129E+0	1.596833E+0	1.521279E+0	1.608424E+0	1.631294E+0	1.633813E+0	1.586340E+0	1.576320E+0	1.588465E+0	1.517931E+0	1.601087E+0	1.611742E+0	1.584096E+0	1.551234E+0	1.648763E+0	1.565358E+0	1.598769E+0	1.623997E+0	1.587949E+0	1.535455E+0	1.539800E+0	1.575898E+0	1.560697E+0	1.575114E+0	1.576280E+0	1.578345E+0	1.639306E+0	1.556676E+0	1.537358E+0	1.592821E+0	1.484421E+0	1.599454E+0	1.563156E+0	1.547487E+0	1.515677E+0	1.585628E+0	1.589372E+0	1.583463E+0	1.569112E+0	1.519394E+0	1.558312E+0	1.568116E+0	1.564657E+0	1.557170E+0	1.558635E+0	1.598334E+0	1.534233E+0	1.557045E+0	1.513059E+0	1.586541E+0	1.538716E+0	1.580442E+0	1.546859E+0	1.547616E+0	1.620570E+0	1.475163E+0	1.554270E+0	1.529212E+0	1.576585E+0	1.577715E+0	1.598718E+0	1.527228E+0	1.586085E+0	1.562266E+0	1.584071E+0	1.558862E+0	1.607306E+0	1.535996E+0	1.570983E+0	1.583574E+0	1.587162E+0	1.569239E+0	1.591140E+0	1.489354E+0	1.543135E+0	1.544163E+0	1.545436E+0	1.558805E+0	1.553682E+0	1.523069E+0	1.587439E+0	1.555464E+0	1.537766E+0	1.533478E+0	1.546062E+0	1.515767E+0	1.576084E+0	1.565788E+0	1.533786E+0	1.580564E+0	1.546215E+0	1.507526E+0	1.554310E+0	1.590427E+0	1.556732E+0	1.508738E+0	1.526416E+0	1.601382E+0	1.533298E+0	1.492213E+0	1.610252E+0	1.553388E+0	1.545784E+0	1.599612E+0	1.565552E+0	1.560570E+0	1.557144E+0
5.348230E+2	1.865774E+0	1.882154E+0	1.932802E+0	1.871169E+0	1.917198E+0	1.964638E+0	1.913378E+0	1.931969E+0	1.854791E+0	1.983790E+0	1.919115E+0	1.909346E+0	1.943014E+0	1.835837E+0	1.934043E+0	1.890380E+0	1.963660E+0	1.928959E+0	1.943133E+0	1.949089E+0	1.877826E+0	1.919590E+0	1.941425E+0	1.889973E+0	1.865104E+0	1.941904E+0	1.907097E+0	1.917586E+0	1.923502E+0	1.899599E+0	1.897116E+0	1.944782E+0	1.893647E+0	1.873879E+0	1.903347E+0	1.899385E+0	1.901893E+0	1.867589E+0	1.833257E+0	1.864194E+0	1.943953E+0	1.966062E+0	1.846762E+0	1.836972E+0	1.864753E+0	1.950645E+0	1.921657E+0	1.884720E+0	1.903858E+0	1.868312E+0	1.979942E+0	1.895273E+0	1.891505E+0	1.873387E+0	1.910949E+0	1.903885E+0	1.974709E+0	1.945127E+0	1.862206E+0	1.935491E+0	1.914512E+0	1.904868E+0	1.843029E+0	1.876744E+0	1.895002E+0	1.949761E+0	1.906348E+0	1.924757E+0	1.930857E+0	1.885385E+0	1.825379E+0	1.889071E+0	1.928142E+0	1.936946E+0	1.906155E+0	1.882180E+0	1.836159E+0	1.873421E+0	1.881773E+0	1.929783E+0	1.933532E+0	1.891711E+0	1.851249E+0	1.912169E+0	1.840812E+0	1.908574E+0	1.893766E+0	1.888235E+0	1.913149E+0	1.886566E+0	1.889367E+0	1.873276E+0	1.883658E+0	1.857006E+0	1.838922E+0	1.805687E+0	1.917881E+0	1.823099E+0	1.898305E+0	1.859681E+0	1.857375E+0	1.872515E+0	1.857186E+0	1.873215E+0	1.834822E+0	1.872673E+0	1.911299E+0	1.932225E+0	1.897063E+0	1.959925E+0	1.845313E+0	1.894115E+0	1.933550E+0	1.864336E+0	1.845807E+0	1.897327E+0	1.911053E+0	1.862950E+0	1.838046E+0	1.893011E+0	1.876868E+0	1.844939E+0	1.843991E+0	1.884812E+0	1.825411E+0	1.895428E+0	1.901400E+0	1.901671E+0	1.844429E+0	1.866261E+0	1.887976E+0	1.815359E+0	1.869562E+0	1.758782E+0	1.851183E+0	1.880475E+0	1.831792E+0	1.773221E+0	1.851002E+0	1.852782E+0	1.889559E+0	1.888351E+0	1.833425E+0	1.838123E+0	1.916546E+0	1.846686E+0	1.879640E+0	1.880740E+0	1.914369E+0	1.834470E+0	1.850312E+0	1.835230E+0	1.871644E+0	1.896597E+0	1.814992E+0	1.893906E+0	1.851414E+0	1.842881E+0	1.879792E+0	1.766062E+0	1.869303E+0	1.803838E+0	1.799482E+0	1.811975E+0	1.843350E+0	1.798012E+0	1.917675E+0	1.845926E+0	1.970053E+0	1.803911E+0	1.825434E+0
5.349580E+2	1.949156E+0	1.883759E+0	1.885302E+0	1.868676E+0	1.839156E+0	1.918923E+0	1.847377E+0	1.901824E+0	1.851710E+0	1.921281E+0	1.844378E+0	1.870270E+0	1.879495E+0	1.812428E+0	1.934376E+0	1.897831E+0	1.856209E+0	1.935189E+0	1.872030E+0	1.864927E+0	1.916887E+0	1.932291E+0	1.927337E+0	1.875179E+0	1.924926E+0	1.863791E+0	1.864312E+0	1.940410E+0	1.943284E+0	1.880160E+0	1.851751E+0	1.851730E+0	1.904044E+0	1.854766E+0	1.854573E+0	1.882551E+0	1.893720E+0	1.801221E+0	1.851735E+0	1.849126E+0	1.969673E+0	1.865489E+0	1.874587E+0	1.838773E+0	1.839877E+0	1.889681E+0	1.858930E+0	1.863196E+0	1.871595E+0	1.912377E+0	1.974092E+0	1.947931E+0	1.867333E+0	1.894433E+0	1.854863E+0	1.887492E+0	1.884110E+0	1.856297E+0	1.812641E+0	1.851055E+0	1.840756E+0	1.858806E+0	1.840559E+0	1.871685E+0	1.840513E+0	1.828990E+0	1.822298E+0	1.870415E+0	1.911507E+0	1.851793E+0	1.920765E+0	1.892757E+0	1.857988E+0	1.854219E+0	1.844655E+0	1.839645E+0	1.857607E+0	1.844037E+0	1.862847E+0	1.879154E+0	1.814023E+0	1.880449E+0	1.885951E+0	1.818239E+0	1.862140E+0	1.882351E+0	1.867103E+0	1.847163E+0	1.849221E+0	1.769239E+0	1.860255E+0	1.816006E+0	1.782589E+0	1.840337E+0	1.832082E+0	1.822066E+0	1.922170E+0	1.857216E+0	1.834446E+0	1.867089E+0	1.833088E+0	1.865501E+0	1.851564E+0	1.865911E+0	1.836905E+0	1.836481E+0	1.907021E+0	1.855558E+0	1.943962E+0	1.875279E+0	1.876246E+0	1.810530E+0	1.800642E+0	1.828238E+0	1.785430E+0	1.833102E+0	1.880393E+0	1.840490E+0	1.841726E+0	1.822081E+0	1.848534E+0	1.836099E+0	1.859958E+0	1.827269E+0	1.818587E+0	1.831613E+0	1.830911E+0	1.814170E+0	1.868954E+0	1.834008E+0	1.810083E+0	1.802996E+0	1.810285E+0	1.813917E+0	1.785787E+0	1.780294E+0	1.855367E+0	1.821862E+0	1.829512E+0	1.797609E+0	1.869398E+0	1.822564E+0	1.839148E+0	1.796452E+0	1.807430E+0	1.820547E+0	1.841515E+0	1.839754E+0	1.838755E+0	1.806572E+0	1.877477E+0	1.790808E+0	1.857580E+0	1.859338E+0	1.816369E+0	1.843975E+0	1.844671E+0	1.830944E+0	1.763923E+0	1.855239E+0	1.842510E+0	1.823835E+0	1.798277E+0	1.799866E+0	1.813007E+0	1.784457E+0	1.829578E+0	1.825198E+0	1.820453E+0	1.724224E+0	1.773908E+0
5.351090E+2	1.998697E+0	1.976521E+0	2.008025E+0	1.942290E+0	1.993371E+0	2.012579E+0	1.918642E+0	1.966017E+0	1.964336E+0	2.026605E+0	1.953795E+0	2.001638E+0	2.000757E+0	1.967020E+0	1.962037E+0	1.948472E+0	1.965004E+0	1.978176E+0	1.967413E+0	1.950219E+0	1.974786E+0	1.980031E+0	2.002344E+0	1.934922E+0	1.920703E+0	1.962070E+0	1.980318E+0	1.979177E+0	1.993705E+0	2.026898E+0	1.996447E+0	1.934738E+0	2.001131E+0	1.983821E+0	1.954082E+0	1.931704E+0	1.989346E+0	1.938907E+0	1.980439E+0	1.945970E+0	1.965083E+0	1.985139E+0	2.000387E+0	1.886690E+0	1.979332E+0	1.928436E+0	1.947946E+0	1.953855E+0	1.935934E+0	1.988416E+0	1.983577E+0	1.898908E+0	1.961514E+0	1.998606E+0	1.985846E+0	1.989901E+0	2.050811E+0	1.947101E+0	1.967679E+0	1.970997E+0	1.918050E+0	1.950310E+0	1.947632E+0	1.882692E+0	1.939303E+0	1.937728E+0	1.949229E+0	2.040827E+0	1.960128E+0	1.927842E+0	1.943538E+0	1.999786E+0	1.921543E+0	1.960188E+0	1.980189E+0	1.948232E+0	1.937037E+0	1.925228E+0	1.983591E+0	1.970729E+0	1.902701E+0	1.958570E+0	1.877728E+0	1.909670E+0	1.919206E+0	1.885608E+0	1.964535E+0	1.948980E+0	1.857815E+0	1.890487E+0	1.960228E+0	1.922340E+0	1.906400E+0	1.982622E+0	1.889511E+0	1.887179E+0	1.912584E+0	1.984857E+0	1.987616E+0	2.002442E+0	1.909549E+0	1.899278E+0	1.964538E+0	1.927138E+0	1.910849E+0	1.948441E+0	1.940810E+0	1.998418E+0	1.865672E+0	2.035628E+0	1.908983E+0	1.931605E+0	1.880579E+0	1.906298E+0	1.901176E+0	1.948718E+0	1.898507E+0	1.939737E+0	1.965270E+0	1.902363E+0	1.955776E+0	1.959603E+0	1.955890E+0	1.964068E+0	1.894583E+0	1.902551E+0	1.943830E+0	1.922475E+0	1.935427E+0	1.875451E+0	1.907319E+0	1.921354E+0	1.887966E+0	1.870135E+0	1.894193E+0	1.913106E+0	1.974624E+0	1.893353E+0	1.894283E+0	1.943840E+0	1.911731E+0	1.873645E+0	1.928633E+0	1.872975E+0	1.893203E+0	1.904977E+0	1.854518E+0	1.949209E+0	1.858120E+0	1.901360E+0	2.004213E+0	1.880655E+0	1.942882E+0	1.946666E+0	1.930895E+0	1.901155E+0	1.994434E+0	1.906030E+0	1.878669E+0	1.920621E+0	1.954108E+0	1.888229E+0	1.929214E+0	1.896847E+0	1.899175E+0	1.849743E+0	1.925721E+0	1.912868E+0	1.948054E+0	1.828529E+0	1.741956E+0
5.352550E+2	1.740798E+0	1.811265E+0	1.797952E+0	1.757305E+0	1.788192E+0	1.769424E+0	1.722958E+0	1.781191E+0	1.697297E+0	1.770405E+0	1.729032E+0	1.718420E+0	1.760758E+0	1.735868E+0	1.693042E+0	1.766683E+0	1.712596E+0	1.846967E+0	1.850889E+0	1.744308E+0	1.746834E+0	1.773847E+0	1.834657E+0	1.775677E+0	1.806767E+0	1.723490E+0	1.776432E+0	1.821428E+0	1.771050E+0	1.781752E+0	1.811790E+0	1.711514E+0	1.778840E+0	1.722292E+0	1.745158E+0	1.694351E+0	1.754683E+0	1.687944E+0	1.755667E+0	1.776734E+0	1.746315E+0	1.730007E+0	1.724098E+0	1.669490E+0	1.700344E+0	1.864786E+0	1.694005E+0	1.728810E+0	1.727244E+0	1.752579E+0	1.757968E+0	1.722203E+0	1.707758E+0	1.759131E+0	1.744473E+0	1.746553E+0	1.801335E+0	1.761410E+0	1.722270E+0	1.761564E+0	1.718339E+0	1.758253E+0	1.757601E+0	1.717181E+0	1.802379E+0	1.757038E+0	1.767537E+0	1.780551E+0	1.725718E+0	1.734261E+0	1.747365E+0	1.702105E+0	1.752180E+0	1.737471E+0	1.688869E+0	1.707756E+0	1.710111E+0	1.765674E+0	1.767359E+0	1.736247E+0	1.699568E+0	1.722836E+0	1.771015E+0	1.741803E+0	1.762007E+0	1.745321E+0	1.760851E+0	1.741025E+0	1.766108E+0	1.689079E+0	1.720975E+0	1.725701E+0	1.794455E+0	1.729476E+0	1.689185E+0	1.689599E+0	1.647311E+0	1.711971E+0	1.702604E+0	1.743963E+0	1.678032E+0	1.769107E+0	1.750171E+0	1.737572E+0	1.707592E+0	1.733399E+0	1.691940E+0	1.734639E+0	1.696587E+0	1.762170E+0	1.703895E+0	1.671073E+0	1.711579E+0	1.720264E+0	1.723324E+0	1.786546E+0	1.701705E+0	1.721333E+0	1.703227E+0	1.684387E+0	1.712970E+0	1.664216E+0	1.666254E+0	1.755566E+0	1.637293E+0	1.692496E+0	1.762176E+0	1.750278E+0	1.742687E+0	1.702418E+0	1.782643E+0	1.711191E+0	1.726190E+0	1.694822E+0	1.742679E+0	1.687160E+0	1.704907E+0	1.739702E+0	1.701945E+0	1.736747E+0	1.681702E+0	1.701186E+0	1.667337E+0	1.673721E+0	1.720686E+0	1.684134E+0	1.786092E+0	1.689508E+0	1.787226E+0	1.675939E+0	1.730646E+0	1.713039E+0	1.697756E+0	1.815415E+0	1.707708E+0	1.684001E+0	1.757353E+0	1.738958E+0	1.783100E+0	1.728991E+0	1.688609E+0	1.733323E+0	1.748377E+0	1.729452E+0	1.659733E+0	1.670280E+0	1.733027E+0	1.717080E+0	1.722002E+0	1.618351E+0	1.733829E+0
5.354110E+2	1.417647E+0	1.429355E+0	1.365718E+0	1.404260E+0	1.381215E+0	1.494005E+0	1.393766E+0	1.387142E+0	1.324347E+0	1.390445E+0	1.428034E+0	1.398004E+0	1.419366E+0	1.371987E+0	1.396203E+0	1.448931E+0	1.382201E+0	1.404255E+0	1.431622E+0	1.404077E+0	1.427378E+0	1.440502E+0	1.410732E+0	1.424116E+0	1.394748E+0	1.438433E+0	1.427187E+0	1.409158E+0	1.420688E+0	1.431273E+0	1.358087E+0	1.412166E+0	1.439404E+0	1.429628E+0	1.491587E+0	1.415923E+0	1.439625E+0	1.434167E+0	1.406085E+0	1.363333E+0	1.420482E+0	1.438551E+0	1.380602E+0	1.409932E+0	1.403365E+0	1.428369E+0	1.437700E+0	1.427451E+0	1.433997E+0	1.435010E+0	1.412984E+0	1.366832E+0	1.387957E+0	1.384919E+0	1.437463E+0	1.397827E+0	1.469346E+0	1.426968E+0	1.382082E+0	1.435575E+0	1.362939E+0	1.403167E+0	1.425877E+0	1.397461E+0	1.395910E+0	1.422614E+0	1.405805E+0	1.450634E+0	1.395753E+0	1.399466E+0	1.363878E+0	1.370116E+0	1.355816E+0	1.371072E+0	1.379434E+0	1.398667E+0	1.425292E+0	1.425403E+0	1.377822E+0	1.414894E+0	1.397123E+0	1.416992E+0	1.440702E+0	1.340417E+0	1.399643E+0	1.403011E+0	1.397537E+0	1.400193E+0	1.398107E+0	1.440811E+0	1.386079E+0	1.400374E+0	1.395665E+0	1.452190E+0	1.377493E+0	1.429053E+0	1.353459E+0	1.450712E+0	1.449956E+0	1.444451E+0	1.409284E+0	1.430303E+0	1.408865E+0	1.390678E+0	1.385357E+0	1.413067E+0	1.368096E+0	1.349101E+0	1.399265E+0	1.413874E+0	1.395380E+0	1.429993E+0	1.312135E+0	1.411730E+0	1.435505E+0	1.397723E+0	1.400508E+0	1.394620E+0	1.397695E+0	1.413623E+0	1.393725E+0	1.384956E+0	1.407780E+0	1.423939E+0	1.388690E+0	1.421063E+0	1.436615E+0	1.407657E+0	1.416115E+0	1.418969E+0	1.392061E+0	1.336441E+0	1.436933E+0	1.360838E+0	1.396155E+0	1.435124E+0	1.388433E+0	1.318470E+0	1.369844E+0	1.423295E+0	1.371580E+0	1.441592E+0	1.340108E+0	1.395510E+0	1.392638E+0	1.430241E+0	1.360675E+0	1.393532E+0	1.357336E+0	1.421183E+0	1.440886E+0	1.376811E+0	1.349000E+0	1.416475E+0	1.371163E+0	1.408453E+0	1.350334E+0	1.414878E+0	1.385459E+0	1.358444E+0	1.415056E+0	1.407986E+0	1.380472E+0	1.382553E+0	1.323436E+0	1.386671E+0	1.384349E+0	1.423156E+0	1.433054E+0	1.359834E+0	1.301398E+0
5.355580E+2	1.298929E+0	1.320673E+0	1.309447E+0	1.276124E+0	1.315698E+0	1.315519E+0	1.316202E+0	1.284694E+0	1.237697E+0	1.299805E+0	1.294761E+0	1.309663E+0	1.330439E+0	1.293985E+0	1.260315E+0	1.267796E+0	1.316210E+0	1.327417E+0	1.327327E+0	1.263811E+0	1.292028E+0	1.339127E+0	1.286300E+0	1.268406E+0	1.291223E+0	1.358103E+0	1.264706E+0	1.327508E+0	1.268029E+0	1.307196E+0	1.320600E+0	1.276492E+0	1.298136E+0	1.280988E+0	1.271658E+0	1.274656E+0	1.320300E+0	1.290335E+0	1.287078E+0	1.277477E+0	1.316558E+0	1.341854E+0	1.323669E+0	1.273498E+0	1.258411E+0	1.289068E+0	1.321278E+0	1.282855E+0	1.319194E+0	1.280360E+0	1.348552E+0	1.283788E+0	1.315735E+0	1.278511E+0	1.276477E+0	1.291327E+0	1.321786E+0	1.268230E+0	1.249267E+0	1.225979E+0	1.287698E+0	1.266461E+0	1.253839E+0	1.307638E+0	1.279032E+0	1.273554E+0	1.288533E+0	1.287464E+0	1.292015E+0	1.280714E+0	1.296002E+0	1.333976E+0	1.225296E+0	1.302452E+0	1.322613E+0	1.326662E+0	1.262883E+0	1.295513E+0	1.270991E+0	1.268577E+0	1.291207E+0	1.293250E+0	1.300992E+0	1.275668E+0	1.289726E+0	1.294283E+0	1.283697E+0	1.318316E+0	1.280677E+0	1.252750E+0	1.277120E+0	1.277853E+0	1.258694E+0	1.261940E+0	1.283648E+0	1.257532E+0	1.367623E+0	1.266285E+0	1.273234E+0	1.285957E+0	1.313264E+0	1.298538E+0	1.299265E+0	1.273968E+0	1.307513E+0	1.308123E+0	1.242549E+0	1.269840E+0	1.300813E+0	1.292049E+0	1.266541E+0	1.276986E+0	1.265269E+0	1.279601E+0	1.284254E+0	1.285354E+0	1.294918E+0	1.252931E+0	1.260043E+0	1.213051E+0	1.317906E+0	1.282025E+0	1.289869E+0	1.289535E+0	1.288769E+0	1.286055E+0	1.307496E+0	1.307862E+0	1.270208E+0	1.302562E+0	1.291979E+0	1.259068E+0	1.305448E+0	1.267776E+0	1.306100E+0	1.282844E+0	1.354072E+0	1.283294E+0	1.275616E+0	1.257321E+0	1.214781E+0	1.263300E+0	1.274072E+0	1.248644E+0	1.269785E+0	1.305998E+0	1.276851E+0	1.258257E+0	1.264122E+0	1.304643E+0	1.331663E+0	1.264225E+0	1.290642E+0	1.281252E+0	1.224354E+0	1.285681E+0	1.284127E+0	1.305530E+0	1.296625E+0	1.291260E+0	1.269323E+0	1.263917E+0	1.277708E+0	1.328627E+0	1.261032E+0	1.220088E+0	1.333457E+0	1.338618E+0	1.314317E+0	1.207452E+0	1.267728E+0
5.357190E+2	1.073624E+0	1.093786E+0	1.045041E+0	1.072156E+0	1.113769E+0	1.103262E+0	1.097462E+0	1.111700E+0	1.094292E+0	1.083922E+0	1.062142E+0	1.033476E+0	1.102654E+0	1.089537E+0	1.074926E+0	1.077374E+0	1.089824E+0	1.039708E+0	1.093944E+0	1.064955E+0	1.100498E+0	1.110431E+0	1.084862E+0	1.041743E+0	1.098656E+0	1.077922E+0	1.063744E+0	1.092310E+0	1.086268E+0	1.086182E+0	1.092149E+0	1.132562E+0	1.040700E+0	1.048174E+0	1.085611E+0	1.094896E+0	1.072313E+0	1.073744E+0	1.049702E+0	1.071389E+0	1.108739E+0	1.054626E+0	1.197241E+0	1.052130E+0	1.079859E+0	1.019390E+0	1.068592E+0	1.047204E+0	1.103728E+0	1.094434E+0	1.083957E+0	1.066797E+0	1.055363E+0	1.106736E+0	1.080065E+0	1.040084E+0	1.103550E+0	1.117344E+0	1.055820E+0	1.088253E+0	1.065399E+0	1.051588E+0	1.088553E+0	1.109897E+0	1.121935E+0	1.142451E+0	1.078575E+0	1.076308E+0	1.080631E+0	1.059503E+0	1.102660E+0	1.088340E+0	1.075671E+0	1.051980E+0	1.044039E+0	1.074313E+0	1.045248E+0	1.085732E+0	1.065530E+0	1.065811E+0	1.054797E+0	1.123012E+0	1.102770E+0	1.056632E+0	1.082906E+0	1.104750E+0	1.069796E+0	1.100493E+0	1.059039E+0	1.081945E+0	1.064726E+0	1.081677E+0	1.069355E+0	1.083514E+0	1.016734E+0	1.068976E+0	1.041590E+0	1.098534E+0	1.061351E+0	1.148376E+0	1.046194E+0	1.104084E+0	1.079427E+0	1.077145E+0	1.096991E+0	1.131146E+0	1.026764E+0	1.122528E+0	1.094959E+0	1.164792E+0	1.030680E+0	1.110149E+0	1.067553E+0	1.080559E+0	1.056709E+0	1.070564E+0	1.107699E+0	1.079045E+0	1.085231E+0	1.069358E+0	1.060804E+0	1.074702E+0	1.045655E+0	1.060751E+0	1.058177E+0	1.071097E+0	1.063327E+0	1.089049E+0	1.131687E+0	1.047638E+0	1.108443E+0	1.089505E+0	1.066165E+0	1.056165E+0	1.118990E+0	1.119013E+0	1.111179E+0	1.095810E+0	1.089406E+0	1.088971E+0	1.054598E+0	1.119256E+0	1.107826E+0	1.047137E+0	1.083687E+0	1.106453E+0	1.049056E+0	1.118982E+0	1.044501E+0	1.081167E+0	1.086933E+0	1.071686E+0	1.076468E+0	1.060237E+0	1.037963E+0	1.048778E+0	1.114350E+0	1.074883E+0	1.076714E+0	1.084905E+0	1.069942E+0	1.100705E+0	1.086434E+0	1.054349E+0	1.105927E+0	1.048211E+0	1.114091E+0	1.031751E+0	1.083259E+0	1.013406E+0	1.000107E+0
5.358650E+2	8.627315E-1	8.321476E-1	8.617048E-1	8.307346E-1	8.414037E-1	8.780493E-1	8.418649E-1	8.645830E-1	8.517161E-1	8.809013E-1	8.277099E-1	8.190757E-1	8.563195E-1	8.849182E-1	8.182772E-1	8.326762E-1	8.417866E-1	8.856060E-1	8.576563E-1	8.285613E-1	8.157361E-1	8.896567E-1	8.707673E-1	8.291512E-1	8.275458E-1	8.531328E-1	8.601650E-1	8.698517E-1	8.295268E-1	8.540423E-1	8.354962E-1	8.378413E-1	8.679911E-1	8.442986E-1	8.331290E-1	8.446833E-1	8.459196E-1	8.461850E-1	8.215572E-1	8.856005E-1	8.533855E-1	8.391475E-1	8.526739E-1	8.590438E-1	8.515342E-1	8.850811E-1	8.382786E-1	8.317960E-1	8.038359E-1	8.241941E-1	8.625090E-1	8.871107E-1	8.179624E-1	8.909852E-1	8.596298E-1	8.596863E-1	8.627563E-1	8.716838E-1	8.783564E-1	8.581188E-1	8.695434E-1	8.220658E-1	8.756461E-1	8.496530E-1	8.450851E-1	8.057807E-1	8.771577E-1	8.654619E-1	8.577943E-1	8.539132E-1	8.805037E-1	8.296293E-1	8.412141E-1	8.486667E-1	8.347989E-1	8.263002E-1	8.228595E-1	8.827709E-1	8.573676E-1	8.729663E-1	8.531431E-1	8.767468E-1	8.404035E-1	8.036365E-1	8.631717E-1	8.268633E-1	8.467846E-1	8.559585E-1	8.225817E-1	8.398106E-1	8.541895E-1	8.222639E-1	8.428976E-1	9.123001E-1	8.449677E-1	8.300232E-1	8.042344E-1	8.712731E-1	8.625345E-1	8.391485E-1	8.504265E-1	8.598969E-1	8.747796E-1	8.770075E-1	8.217108E-1	8.812134E-1	8.467459E-1	8.428913E-1	8.449929E-1	8.787603E-1	8.496237E-1	8.643082E-1	8.433298E-1	8.675511E-1	8.741506E-1	8.675715E-1	8.463103E-1	8.805041E-1	8.509596E-1	8.520142E-1	8.948040E-1	8.496175E-1	8.570266E-1	8.880317E-1	8.296987E-1	8.988711E-1	8.571562E-1	8.779568E-1	8.480381E-1	8.576153E-1	8.470728E-1	8.487819E-1	9.029973E-1	8.417869E-1	8.878108E-1	8.453944E-1	9.299737E-1	8.671903E-1	8.259592E-1	8.227193E-1	8.659024E-1	8.838082E-1	8.560349E-1	8.606221E-1	8.755337E-1	8.278524E-1	8.380646E-1	8.462545E-1	8.652737E-1	8.732787E-1	9.126261E-1	8.201179E-1	8.443793E-1	8.523807E-1	8.479277E-1	8.770537E-1	8.410333E-1	8.509950E-1	8.501283E-1	8.421750E-1	8.384925E-1	8.657732E-1	8.402421E-1	8.686110E-1	8.839796E-1	8.448057E-1	8.930888E-1	8.987219E-1	8.759547E-1	8.556910E-1	9.218131E-1
5.360120E+2	7.573124E-1	7.742018E-1	7.587254E-1	7.468586E-1	7.687233E-1	8.167055E-1	7.856694E-1	7.780487E-1	7.600677E-1	7.325409E-1	7.456070E-1	7.212615E-1	7.748707E-1	7.826918E-1	7.544012E-1	7.454843E-1	7.499007E-1	7.748526E-1	7.700505E-1	7.588779E-1	7.591888E-1	7.769496E-1	7.824888E-1	7.639311E-1	7.820191E-1	7.497145E-1	7.547678E-1	7.716233E-1	7.902477E-1	7.699523E-1	7.841109E-1	8.136386E-1	7.670036E-1	7.941367E-1	7.169949E-1	7.744527E-1	7.414309E-1	7.718561E-1	7.527102E-1	7.613089E-1	7.796924E-1	7.849262E-1	7.833237E-1	7.547475E-1	7.355635E-1	7.743488E-1	7.460135E-1	7.588427E-1	7.342679E-1	7.540370E-1	7.389371E-1	7.745091E-1	7.693465E-1	7.908767E-1	7.796554E-1	8.009435E-1	7.769325E-1	7.665046E-1	7.674385E-1	7.368148E-1	7.647651E-1	7.497060E-1	7.992054E-1	7.388942E-1	7.467672E-1	7.902956E-1	7.316588E-1	7.544406E-1	7.706227E-1	8.085031E-1	7.785045E-1	7.885326E-1	7.427486E-1	7.299688E-1	7.634575E-1	8.067701E-1	7.758605E-1	7.848897E-1	7.671146E-1	7.570900E-1	8.059167E-1	7.589307E-1	8.019222E-1	7.411363E-1	7.351086E-1	7.314240E-1	7.559395E-1	7.735026E-1	7.778331E-1	7.416920E-1	7.635150E-1	7.655157E-1	7.700957E-1	7.949889E-1	7.647513E-1	8.144646E-1	7.836097E-1	7.889623E-1	7.527299E-1	7.947557E-1	7.732405E-1	7.617090E-1	8.115972E-1	7.741892E-1	7.969215E-1	8.214021E-1	7.532624E-1	7.893467E-1	7.682380E-1	8.025040E-1	7.959188E-1	7.780228E-1	7.816153E-1	7.529742E-1	7.748473E-1	7.644157E-1	7.575071E-1	7.322582E-1	7.618116E-1	7.558970E-1	7.877984E-1	7.651468E-1	7.849757E-1	7.531590E-1	7.576975E-1	7.506668E-1	7.976780E-1	8.217429E-1	7.659873E-1	7.256579E-1	7.891874E-1	7.326682E-1	7.689157E-1	7.730628E-1	7.591566E-1	7.508966E-1	7.852985E-1	7.779103E-1	7.513709E-1	7.538392E-1	7.574569E-1	7.809854E-1	7.700156E-1	7.741241E-1	7.708679E-1	7.789007E-1	7.784587E-1	7.443471E-1	8.097743E-1	7.615620E-1	8.078706E-1	7.823970E-1	7.801468E-1	7.418421E-1	7.595074E-1	7.744131E-1	7.491703E-1	7.946771E-1	7.737885E-1	7.917560E-1	7.774817E-1	7.558385E-1	7.671338E-1	7.870265E-1	7.869246E-1	7.490846E-1	7.578666E-1	7.962198E-1	8.159742E-1	7.169323E-1	7.396513E-1
5.362680E+2	6.053435E-1	5.993635E-1	5.938084E-1	6.197655E-1	5.959080E-1	6.422454E-1	5.802349E-1	6.026656E-1	5.786618E-1	5.955170E-1	5.923078E-1	6.215112E-1	6.063554E-1	5.917027E-1	6.322552E-1	6.278843E-1	5.757969E-1	5.880263E-1	6.362608E-1	6.090621E-1	6.137171E-1	6.138926E-1	5.841852E-1	6.102174E-1	5.887824E-1	5.908006E-1	5.777726E-1	5.959714E-1	6.047139E-1	6.163645E-1	5.975823E-1	6.215460E-1	6.303208E-1	6.246307E-1	6.090322E-1	6.203473E-1	6.136861E-1	5.963787E-1	6.699343E-1	6.206524E-1	6.130746E-1	6.083844E-1	6.424197E-1	6.293036E-1	6.388155E-1	6.177693E-1	6.108171E-1	6.286686E-1	6.027482E-1	6.512629E-1	6.432491E-1	5.783916E-1	6.014712E-1	6.353311E-1	5.858872E-1	5.907152E-1	6.102927E-1	6.137388E-1	5.756342E-1	6.154620E-1	6.228433E-1	6.267621E-1	6.269470E-1	6.132549E-1	6.147770E-1	6.014378E-1	6.114220E-1	6.061054E-1	6.053164E-1	6.047027E-1	5.997980E-1	6.164541E-1	5.977233E-1	6.605899E-1	5.941514E-1	5.874740E-1	6.212356E-1	5.951369E-1	6.131209E-1	6.222036E-1	5.854059E-1	6.212896E-1	6.170848E-1	5.849710E-1	6.144463E-1	5.949539E-1	6.423171E-1	5.887009E-1	6.264533E-1	6.160390E-1	6.068404E-1	5.998592E-1	5.547957E-1	6.221350E-1	5.816827E-1	6.094368E-1	6.056799E-1	6.155561E-1	5.871409E-1	5.707065E-1	6.152380E-1	6.120425E-1	6.199209E-1	6.036591E-1	6.329228E-1	5.960501E-1	6.305907E-1	6.357297E-1	5.935149E-1	5.952817E-1	6.260875E-1	6.198644E-1	5.906865E-1	5.961379E-1	6.341334E-1	6.427792E-1	6.159789E-1	6.045824E-1	6.255413E-1	6.072385E-1	6.130201E-1	6.009425E-1	6.271039E-1	6.032440E-1	5.953718E-1	6.206136E-1	6.225227E-1	6.211645E-1	6.176158E-1	6.225807E-1	6.010062E-1	6.138042E-1	6.041761E-1	6.332334E-1	5.961303E-1	6.160382E-1	6.109942E-1	6.023742E-1	6.100271E-1	5.985821E-1	6.389383E-1	6.233122E-1	6.128198E-1	5.963301E-1	6.174970E-1	6.023762E-1	6.199112E-1	5.958447E-1	6.101490E-1	5.938604E-1	6.286427E-1	5.845282E-1	5.981851E-1	6.298976E-1	6.090423E-1	6.528107E-1	6.183191E-1	6.462012E-1	6.393528E-1	5.860711E-1	6.350741E-1	6.072022E-1	6.572771E-1	6.020134E-1	6.038635E-1	5.853025E-1	6.389772E-1	6.571410E-1	6.464664E-1	6.273394E-1	6.426195E-1
5.365140E+2	4.875913E-1	4.841231E-1	4.630390E-1	4.904274E-1	4.989995E-1	5.255887E-1	4.766264E-1	4.636510E-1	4.442732E-1	4.698183E-1	4.832836E-1	4.765997E-1	4.961787E-1	4.501221E-1	4.880190E-1	4.675093E-1	4.702265E-1	4.623634E-1	4.962427E-1	4.821680E-1	5.014905E-1	4.722418E-1	4.836417E-1	4.985957E-1	4.522497E-1	4.665749E-1	4.688180E-1	4.858254E-1	4.835968E-1	4.596370E-1	4.928581E-1	5.040475E-1	4.908805E-1	4.901420E-1	4.518495E-1	4.802175E-1	4.860308E-1	4.840801E-1	4.985651E-1	5.092647E-1	4.941755E-1	4.641620E-1	4.829118E-1	4.700263E-1	4.859785E-1	4.915010E-1	4.916908E-1	4.839738E-1	4.738971E-1	4.649282E-1	5.166654E-1	4.919075E-1	4.672594E-1	4.964577E-1	4.828615E-1	4.933309E-1	4.677157E-1	4.555000E-1	4.720001E-1	5.178983E-1	4.616863E-1	4.729349E-1	4.619231E-1	4.874474E-1	4.910911E-1	5.096825E-1	4.520619E-1	4.879148E-1	4.857021E-1	4.948524E-1	5.085175E-1	4.899157E-1	5.010178E-1	4.750964E-1	4.910171E-1	4.498348E-1	5.071649E-1	4.725552E-1	4.838225E-1	5.224492E-1	4.923536E-1	4.630005E-1	4.704025E-1	4.780689E-1	4.490456E-1	5.049874E-1	4.646685E-1	4.970689E-1	4.957978E-1	4.838577E-1	4.735346E-1	4.812449E-1	4.739451E-1	4.970397E-1	4.889457E-1	5.070484E-1	5.103765E-1	4.808923E-1	4.973304E-1	4.960423E-1	4.972690E-1	4.943654E-1	4.973957E-1	4.926946E-1	4.679348E-1	4.784959E-1	4.920365E-1	4.723248E-1	4.552333E-1	4.944451E-1	4.895119E-1	4.736179E-1	4.986467E-1	4.765483E-1	4.801043E-1	5.021136E-1	5.015040E-1	4.755159E-1	5.034459E-1	4.694577E-1	4.607492E-1	4.966922E-1	4.648876E-1	4.738550E-1	5.066563E-1	4.704851E-1	4.821408E-1	5.041205E-1	5.093990E-1	5.061454E-1	4.760795E-1	4.835250E-1	5.096576E-1	5.125886E-1	4.680255E-1	4.958411E-1	5.352483E-1	5.038928E-1	4.988850E-1	4.938818E-1	4.883748E-1	5.023775E-1	4.653830E-1	4.778592E-1	5.042105E-1	4.611365E-1	5.085536E-1	5.098702E-1	4.871109E-1	4.592130E-1	5.049345E-1	5.003791E-1	5.330626E-1	4.825057E-1	5.208866E-1	4.880805E-1	4.977371E-1	4.976553E-1	4.965096E-1	4.783368E-1	4.682830E-1	4.742052E-1	4.828078E-1	5.013765E-1	4.988458E-1	4.874842E-1	4.768108E-1	5.130280E-1	5.065830E-1	4.748344E-1	4.849231E-1
5.367710E+2	4.950906E-1	4.758208E-1	4.903566E-1	5.057107E-1	4.863055E-1	5.305973E-1	5.023254E-1	5.051067E-1	4.812129E-1	4.793629E-1	5.052214E-1	4.918057E-1	4.998864E-1	4.984849E-1	4.755613E-1	5.213673E-1	4.618410E-1	4.788161E-1	4.956386E-1	4.770839E-1	4.862701E-1	4.867316E-1	4.803541E-1	4.992879E-1	4.882916E-1	4.816757E-1	5.032921E-1	4.900918E-1	5.173992E-1	4.877092E-1	4.853625E-1	5.064087E-1	4.733236E-1	4.814379E-1	4.884794E-1	4.852882E-1	4.984284E-1	4.827223E-1	5.392177E-1	5.270174E-1	4.844947E-1	4.837797E-1	4.968628E-1	4.884259E-1	4.536024E-1	5.021723E-1	5.265701E-1	5.038167E-1	5.181476E-1	4.980443E-1	5.173680E-1	4.843692E-1	5.041748E-1	4.896613E-1	4.956244E-1	4.904375E-1	4.823327E-1	4.998561E-1	4.723044E-1	4.525320E-1	4.882325E-1	4.737865E-1	5.074498E-1	4.769604E-1	5.066730E-1	5.485188E-1	4.951502E-1	5.023016E-1	5.124138E-1	4.842532E-1	5.231114E-1	5.081631E-1	5.337906E-1	4.842406E-1	5.175697E-1	5.068015E-1	5.135759E-1	4.788898E-1	5.132971E-1	5.198884E-1	4.999257E-1	4.842149E-1	4.778978E-1	5.177478E-1	5.198444E-1	4.979776E-1	5.220085E-1	4.881404E-1	4.877343E-1	4.571052E-1	5.042505E-1	4.947961E-1	5.196170E-1	4.876604E-1	4.843100E-1	4.835301E-1	5.156179E-1	4.840533E-1	5.166571E-1	4.801691E-1	4.736548E-1	5.194602E-1	5.304164E-1	4.609523E-1	4.821250E-1	5.008621E-1	4.811079E-1	4.907220E-1	5.217546E-1	5.049460E-1	5.003816E-1	4.959431E-1	5.005938E-1	5.250117E-1	5.191742E-1	5.259971E-1	4.682844E-1	5.075477E-1	5.186453E-1	4.753425E-1	5.097788E-1	5.042985E-1	4.895151E-1	4.820438E-1	5.038177E-1	4.918734E-1	4.867838E-1	4.910765E-1	5.286795E-1	4.878838E-1	5.108096E-1	5.092262E-1	5.186103E-1	5.015372E-1	5.113266E-1	5.067083E-1	5.371978E-1	4.887023E-1	5.062410E-1	5.030023E-1	5.021305E-1	5.351557E-1	4.789150E-1	5.051075E-1	4.726631E-1	4.829340E-1	5.145139E-1	5.040392E-1	5.131478E-1	4.959480E-1	5.231572E-1	5.095224E-1	5.160525E-1	5.378546E-1	4.902882E-1	5.057179E-1	5.103435E-1	4.770276E-1	5.005979E-1	4.750800E-1	5.524566E-1	4.963700E-1	5.082449E-1	5.477270E-1	4.978804E-1	5.036130E-1	4.843001E-1	5.442528E-1	5.009653E-1	5.087346E-1	4.884152E-1
5.370170E+2	5.565763E-1	5.402905E-1	5.287649E-1	5.239423E-1	5.438186E-1	5.445008E-1	5.436949E-1	5.435242E-1	5.099668E-1	5.556010E-1	5.318310E-1	5.249151E-1	5.489975E-1	5.020687E-1	5.507635E-1	5.504962E-1	5.074102E-1	5.520712E-1	5.363202E-1	5.703927E-1	5.272862E-1	5.600480E-1	5.707056E-1	4.992845E-1	5.062808E-1	5.582951E-1	5.405566E-1	5.494941E-1	5.416117E-1	5.182913E-1	5.511330E-1	5.344717E-1	5.394688E-1	5.304762E-1	5.683379E-1	5.655478E-1	5.339027E-1	5.296448E-1	5.286873E-1	5.394260E-1	5.445968E-1	5.304577E-1	5.734051E-1	5.742923E-1	5.393439E-1	5.271320E-1	5.458526E-1	5.493807E-1	5.088556E-1	5.195615E-1	5.344092E-1	5.663210E-1	5.422693E-1	5.445052E-1	5.514845E-1	5.486466E-1	5.555571E-1	5.389582E-1	5.538297E-1	5.080468E-1	5.318312E-1	5.398513E-1	5.142950E-1	5.243078E-1	5.538758E-1	4.979081E-1	5.306990E-1	5.298892E-1	5.641267E-1	5.387332E-1	5.489571E-1	5.321412E-1	5.589294E-1	5.337675E-1	5.445451E-1	5.185577E-1	5.366236E-1	5.326717E-1	5.591076E-1	5.668674E-1	5.414902E-1	5.272072E-1	5.273069E-1	5.737452E-1	5.366149E-1	5.702171E-1	5.171207E-1	5.528987E-1	5.650843E-1	5.763644E-1	5.610947E-1	5.527691E-1	5.157122E-1	5.677850E-1	5.421645E-1	5.474351E-1	5.485482E-1	5.528748E-1	5.244189E-1	5.379038E-1	5.488935E-1	5.858162E-1	5.381421E-1	5.184186E-1	5.536766E-1	5.689214E-1	5.674596E-1	5.988636E-1	5.675132E-1	5.570250E-1	5.491417E-1	5.273876E-1	5.489473E-1	5.298999E-1	5.478903E-1	5.451750E-1	5.473854E-1	5.506609E-1	5.591870E-1	5.250518E-1	5.593859E-1	5.419554E-1	5.410348E-1	5.587793E-1	5.244060E-1	5.302903E-1	5.545772E-1	5.406725E-1	5.423123E-1	5.748716E-1	5.791991E-1	5.017414E-1	5.304225E-1	5.471738E-1	5.458837E-1	5.675057E-1	4.959922E-1	5.483421E-1	5.762901E-1	5.515587E-1	5.490508E-1	5.418249E-1	5.605180E-1	5.243182E-1	5.855137E-1	5.503566E-1	5.996109E-1	5.489157E-1	5.625964E-1	5.274052E-1	5.534503E-1	5.472858E-1	5.360541E-1	5.056876E-1	5.599927E-1	5.738922E-1	5.431647E-1	5.711323E-1	5.812684E-1	5.585653E-1	5.666844E-1	5.550127E-1	5.406419E-1	5.651583E-1	5.386077E-1	5.328115E-1	5.554302E-1	5.750456E-1	5.635014E-1	5.714080E-1	4.875942E-1
5.372640E+2	5.813097E-1	5.937670E-1	6.132361E-1	5.681648E-1	5.981194E-1	5.779961E-1	5.735816E-1	6.001206E-1	5.664982E-1	5.529166E-1	5.621756E-1	5.647352E-1	5.943704E-1	5.903984E-1	5.934901E-1	5.879548E-1	5.798396E-1	6.039557E-1	5.727160E-1	6.079215E-1	5.965511E-1	6.329902E-1	5.972205E-1	5.963858E-1	6.045771E-1	6.101954E-1	5.920945E-1	6.051623E-1	5.799507E-1	6.048147E-1	5.911463E-1	5.929981E-1	6.155438E-1	5.709108E-1	6.038083E-1	5.923501E-1	6.053086E-1	5.852156E-1	5.916847E-1	5.808084E-1	6.165105E-1	6.233486E-1	6.132786E-1	6.016699E-1	6.100440E-1	5.860469E-1	6.169043E-1	5.956537E-1	5.963128E-1	6.371646E-1	6.001890E-1	6.053437E-1	6.032748E-1	6.000208E-1	6.054349E-1	5.791359E-1	6.214335E-1	5.994761E-1	6.109903E-1	6.271794E-1	5.866833E-1	5.884573E-1	6.154765E-1	5.965227E-1	5.917893E-1	5.748011E-1	5.774126E-1	5.735090E-1	5.777007E-1	5.880903E-1	5.951283E-1	6.074244E-1	6.149867E-1	5.944655E-1	5.845313E-1	5.970730E-1	5.767982E-1	5.736804E-1	6.086900E-1	5.816805E-1	5.580785E-1	5.957071E-1	5.783231E-1	5.706313E-1	5.876084E-1	5.899240E-1	6.211657E-1	5.879262E-1	6.067114E-1	5.643421E-1	5.965057E-1	6.102324E-1	5.645049E-1	5.983627E-1	5.779764E-1	5.988420E-1	5.879735E-1	6.002297E-1	5.810011E-1	5.615978E-1	6.152754E-1	5.994936E-1	5.919637E-1	5.789363E-1	5.834024E-1	5.947995E-1	6.033300E-1	5.886809E-1	6.048186E-1	5.829291E-1	5.700082E-1	6.182580E-1	5.983454E-1	5.858044E-1	5.906034E-1	5.988041E-1	6.101260E-1	6.012086E-1	5.872491E-1	6.149654E-1	5.977288E-1	5.736313E-1	5.913229E-1	5.983424E-1	6.203994E-1	6.112569E-1	6.118170E-1	6.168398E-1	5.878479E-1	5.863944E-1	6.389951E-1	5.893966E-1	5.897970E-1	5.966015E-1	5.986358E-1	5.848377E-1	5.901547E-1	5.886310E-1	5.728661E-1	6.022356E-1	5.676547E-1	5.915928E-1	6.313652E-1	5.739469E-1	6.095434E-1	6.076664E-1	5.705219E-1	5.773692E-1	5.934775E-1	5.726204E-1	5.924866E-1	5.807987E-1	6.241132E-1	6.178024E-1	5.798204E-1	6.359101E-1	6.035228E-1	6.185401E-1	6.034139E-1	6.280913E-1	5.982939E-1	6.085117E-1	6.315399E-1	6.007981E-1	5.843902E-1	6.203176E-1	5.768386E-1	6.251657E-1	6.034686E-1	5.869132E-1	6.190709E-1
5.375160E+2	7.155424E-1	6.935003E-1	6.219480E-1	6.543876E-1	6.367052E-1	6.721392E-1	6.272386E-1	6.677937E-1	6.454728E-1	6.821828E-1	6.791041E-1	6.516329E-1	6.905320E-1	6.418766E-1	6.679625E-1	6.558872E-1	6.728620E-1	6.541691E-1	6.862439E-1	6.581000E-1	6.556741E-1	7.176377E-1	7.007052E-1	6.693615E-1	6.407129E-1	6.431146E-1	6.867179E-1	6.543367E-1	6.607143E-1	6.385171E-1	6.912789E-1	6.699808E-1	6.874670E-1	6.456745E-1	6.767842E-1	6.883573E-1	6.835125E-1	6.438020E-1	6.526957E-1	6.499638E-1	6.730796E-1	6.518924E-1	6.452579E-1	6.551819E-1	6.554806E-1	6.658011E-1	6.566216E-1	6.489325E-1	6.816446E-1	7.023466E-1	6.765670E-1	6.690247E-1	6.714195E-1	6.810194E-1	6.903194E-1	6.387173E-1	7.152500E-1	6.746592E-1	6.597454E-1	6.520233E-1	6.681482E-1	6.958909E-1	6.966256E-1	6.695189E-1	6.811565E-1	6.642676E-1	6.841365E-1	6.644562E-1	6.906343E-1	6.477054E-1	6.758582E-1	6.553081E-1	6.683202E-1	6.730864E-1	6.626068E-1	6.574680E-1	6.557431E-1	6.690686E-1	6.683936E-1	6.451790E-1	6.436554E-1	6.881897E-1	6.749213E-1	6.585174E-1	6.446601E-1	6.676277E-1	6.776046E-1	6.740035E-1	6.659198E-1	6.392440E-1	6.907618E-1	6.882599E-1	6.499320E-1	6.570215E-1	6.379529E-1	6.831651E-1	6.654098E-1	6.450231E-1	6.888805E-1	6.723796E-1	6.598053E-1	6.673361E-1	6.919378E-1	6.784729E-1	6.639756E-1	6.747276E-1	6.432362E-1	6.783623E-1	6.671822E-1	7.262013E-1	6.621664E-1	6.999044E-1	6.667547E-1	6.586082E-1	6.801579E-1	6.563088E-1	6.943461E-1	6.887485E-1	6.893659E-1	6.552972E-1	6.782690E-1	6.367170E-1	6.904860E-1	6.872848E-1	6.646584E-1	7.052559E-1	7.005816E-1	6.685488E-1	6.937430E-1	6.986920E-1	6.598177E-1	6.361773E-1	6.757686E-1	6.944538E-1	6.291149E-1	7.280286E-1	7.171351E-1	6.329987E-1	6.791901E-1	6.549020E-1	6.721842E-1	6.758335E-1	6.680927E-1	6.643320E-1	6.811703E-1	6.624674E-1	6.982789E-1	7.006726E-1	6.421134E-1	6.684976E-1	6.659788E-1	6.754531E-1	6.611999E-1	6.804480E-1	7.105606E-1	6.651855E-1	6.692569E-1	6.948642E-1	6.718808E-1	6.646624E-1	6.694870E-1	6.838482E-1	6.505655E-1	6.646037E-1	6.584788E-1	7.020336E-1	6.947565E-1	7.212698E-1	7.129143E-1	6.527084E-1	6.047332E-1
5.377630E+2	7.926362E-1	8.344222E-1	8.330204E-1	8.056904E-1	7.865758E-1	8.054745E-1	8.284096E-1	8.184176E-1	7.815924E-1	7.928192E-1	7.849254E-1	8.056935E-1	8.104216E-1	8.067206E-1	8.503780E-1	8.056636E-1	7.952011E-1	8.197527E-1	8.023382E-1	8.232840E-1	7.791386E-1	8.046633E-1	8.114285E-1	7.950106E-1	7.735909E-1	7.980691E-1	8.199456E-1	8.108485E-1	7.949195E-1	8.192097E-1	8.047604E-1	7.884580E-1	7.709399E-1	7.599789E-1	8.011735E-1	8.306466E-1	8.551533E-1	8.152254E-1	7.903977E-1	8.162663E-1	8.115891E-1	8.557021E-1	8.105968E-1	8.016271E-1	8.029185E-1	7.837682E-1	8.098769E-1	8.250437E-1	7.660021E-1	8.026886E-1	8.448289E-1	8.176497E-1	7.951694E-1	8.225051E-1	8.194645E-1	8.086378E-1	8.522952E-1	8.170114E-1	8.042740E-1	7.774849E-1	8.033751E-1	8.281393E-1	8.034887E-1	8.337641E-1	8.219123E-1	7.974317E-1	8.282220E-1	8.323284E-1	8.599500E-1	8.153665E-1	8.168271E-1	8.103580E-1	7.899699E-1	8.300548E-1	7.917642E-1	7.936827E-1	7.919292E-1	8.028896E-1	8.163948E-1	8.290273E-1	8.251512E-1	8.195609E-1	8.062723E-1	8.482644E-1	8.104431E-1	8.037645E-1	8.282865E-1	8.100621E-1	7.990038E-1	7.737129E-1	7.747719E-1	8.427679E-1	7.940600E-1	8.059573E-1	8.142673E-1	7.998694E-1	8.198140E-1	8.245349E-1	8.043348E-1	8.757678E-1	8.346153E-1	8.152561E-1	8.181879E-1	8.083982E-1	8.019878E-1	8.148350E-1	8.256335E-1	8.375910E-1	8.012821E-1	8.043865E-1	8.056875E-1	8.138258E-1	8.274867E-1	7.883467E-1	8.365555E-1	7.986956E-1	8.392380E-1	7.852310E-1	8.262025E-1	8.121102E-1	8.288927E-1	7.981161E-1	7.858892E-1	7.867896E-1	8.001276E-1	8.013258E-1	8.433577E-1	8.246705E-1	7.838957E-1	8.215779E-1	8.702388E-1	8.199565E-1	8.216899E-1	7.979449E-1	8.023960E-1	7.952550E-1	8.252705E-1	8.349785E-1	8.044518E-1	8.355788E-1	7.806987E-1	8.144099E-1	8.432574E-1	8.102346E-1	8.091698E-1	8.222270E-1	8.391074E-1	8.376860E-1	8.305095E-1	7.800612E-1	8.362495E-1	7.783515E-1	8.282535E-1	7.981483E-1	7.935415E-1	8.326073E-1	8.501122E-1	8.050052E-1	8.442600E-1	8.328183E-1	8.448381E-1	7.927458E-1	8.265192E-1	8.193032E-1	7.994333E-1	8.238631E-1	8.477783E-1	8.320736E-1	8.141310E-1	8.268652E-1	8.988108E-1
5.380160E+2	8.933349E-1	9.043431E-1	8.892295E-1	9.151081E-1	8.799461E-1	9.400318E-1	9.381609E-1	9.384126E-1	9.077118E-1	8.710605E-1	9.408287E-1	9.329519E-1	9.151942E-1	9.074237E-1	9.156251E-1	9.284710E-1	9.584307E-1	9.320999E-1	9.573022E-1	9.409001E-1	9.239633E-1	9.776789E-1	9.279307E-1	9.065505E-1	9.023393E-1	9.285589E-1	9.049262E-1	9.350158E-1	9.375415E-1	9.034587E-1	8.866751E-1	9.442621E-1	9.055327E-1	9.020434E-1	9.311642E-1	9.551485E-1	9.066351E-1	9.345639E-1	9.245887E-1	9.194853E-1	9.204900E-1	8.995768E-1	8.994883E-1	8.944880E-1	9.137609E-1	9.352028E-1	9.011420E-1	9.180411E-1	9.061818E-1	9.047799E-1	9.469614E-1	8.685639E-1	9.282188E-1	8.867382E-1	9.278345E-1	9.053516E-1	9.246506E-1	9.161016E-1	9.027421E-1	8.851918E-1	9.239397E-1	9.287716E-1	8.979366E-1	9.338699E-1	9.564597E-1	9.180511E-1	8.934480E-1	9.601280E-1	9.358254E-1	9.192881E-1	9.353365E-1	9.431952E-1	9.186935E-1	8.792917E-1	9.092780E-1	9.144838E-1	8.819125E-1	9.087364E-1	9.309957E-1	9.183791E-1	9.074629E-1	8.750977E-1	8.885120E-1	9.401509E-1	9.418849E-1	9.266123E-1	9.333917E-1	9.057486E-1	8.988301E-1	8.837010E-1	9.012654E-1	8.996454E-1	8.949652E-1	9.251236E-1	9.059644E-1	9.071663E-1	8.873688E-1	8.862510E-1	8.976469E-1	9.367652E-1	9.220778E-1	9.432011E-1	9.326679E-1	9.134330E-1	9.039267E-1	8.952737E-1	9.029998E-1	9.403555E-1	9.066740E-1	9.138444E-1	9.427495E-1	8.945309E-1	9.065025E-1	8.765627E-1	9.507168E-1	9.008433E-1	8.953879E-1	9.131601E-1	9.358078E-1	9.456464E-1	9.194722E-1	9.156434E-1	9.521371E-1	9.382174E-1	8.734127E-1	8.837777E-1	9.431302E-1	9.105787E-1	9.442439E-1	9.747124E-1	9.578803E-1	9.024266E-1	9.171494E-1	9.138627E-1	9.235058E-1	9.379787E-1	9.340901E-1	8.920508E-1	9.222872E-1	9.237142E-1	8.952240E-1	8.944351E-1	9.169920E-1	8.549924E-1	9.078073E-1	9.178857E-1	9.096265E-1	9.026740E-1	9.346350E-1	8.901169E-1	9.607365E-1	9.302442E-1	9.004625E-1	9.076209E-1	9.043273E-1	9.381658E-1	9.268265E-1	8.756542E-1	9.649160E-1	8.822847E-1	9.473054E-1	8.946076E-1	9.497942E-1	9.475189E-1	8.977011E-1	9.180385E-1	9.207920E-1	9.191578E-1	8.860032E-1	8.926277E-1	1.029727E+0
5.382900E+2	1.101411E+0	1.097216E+0	1.137883E+0	1.131830E+0	1.130581E+0	1.175524E+0	1.160564E+0	1.082960E+0	1.158900E+0	1.121852E+0	1.124065E+0	1.094891E+0	1.134134E+0	1.135601E+0	1.119208E+0	1.162068E+0	1.136100E+0	1.140444E+0	1.123580E+0	1.093701E+0	1.098284E+0	1.143457E+0	1.129418E+0	1.151525E+0	1.112665E+0	1.155227E+0	1.127302E+0	1.147231E+0	1.137125E+0	1.116046E+0	1.138458E+0	1.131751E+0	1.137032E+0	1.122191E+0	1.195227E+0	1.122111E+0	1.092437E+0	1.104400E+0	1.124607E+0	1.122699E+0	1.163211E+0	1.118012E+0	1.163651E+0	1.105547E+0	1.107196E+0	1.149782E+0	1.110925E+0	1.162982E+0	1.126824E+0	1.096996E+0	1.160254E+0	1.129466E+0	1.149626E+0	1.121997E+0	1.115921E+0	1.108763E+0	1.149437E+0	1.126858E+0	1.169640E+0	1.109897E+0	1.109962E+0	1.134175E+0	1.203871E+0	1.135299E+0	1.111036E+0	1.109792E+0	1.161152E+0	1.086354E+0	1.165698E+0	1.166176E+0	1.134898E+0	1.143410E+0	1.136874E+0	1.097366E+0	1.111499E+0	1.146075E+0	1.090808E+0	1.125028E+0	1.140492E+0	1.072501E+0	1.092668E+0	1.122121E+0	1.130499E+0	1.122122E+0	1.107583E+0	1.100028E+0	1.138851E+0	1.127423E+0	1.110024E+0	1.110464E+0	1.150036E+0	1.161158E+0	1.154185E+0	1.117113E+0	1.120712E+0	1.094898E+0	1.122813E+0	1.115520E+0	1.158652E+0	1.088092E+0	1.099397E+0	1.093559E+0	1.113800E+0	1.108985E+0	1.091125E+0	1.090751E+0	1.159108E+0	1.170185E+0	1.127596E+0	1.163963E+0	1.118978E+0	1.109860E+0	1.091905E+0	1.132430E+0	1.090132E+0	1.156809E+0	1.134362E+0	1.114487E+0	1.125088E+0	1.095384E+0	1.113419E+0	1.144217E+0	1.134663E+0	1.097618E+0	1.093093E+0	1.116097E+0	1.182929E+0	1.099743E+0	1.115294E+0	1.107846E+0	1.114729E+0	1.118458E+0	1.085496E+0	1.145358E+0	1.129519E+0	1.113197E+0	1.179936E+0	1.090095E+0	1.150363E+0	1.132351E+0	1.117516E+0	1.107657E+0	1.114769E+0	1.115147E+0	1.147387E+0	1.127765E+0	1.101181E+0	1.074849E+0	1.137394E+0	1.096735E+0	1.118449E+0	1.130191E+0	1.139912E+0	1.123540E+0	1.141680E+0	1.092616E+0	1.131476E+0	1.110624E+0	1.167422E+0	1.094669E+0	1.112296E+0	1.148526E+0	1.086482E+0	1.054772E+0	1.119811E+0	1.110245E+0	1.108390E+0	1.130057E+0	1.137350E+0	1.119983E+0	1.115649E+0
5.385110E+2	1.296824E+0	1.352231E+0	1.365841E+0	1.288549E+0	1.272506E+0	1.323670E+0	1.364723E+0	1.284269E+0	1.297320E+0	1.292291E+0	1.262546E+0	1.345803E+0	1.360724E+0	1.317457E+0	1.318622E+0	1.354058E+0	1.327289E+0	1.311274E+0	1.339072E+0	1.285797E+0	1.268769E+0	1.332740E+0	1.287358E+0	1.323117E+0	1.304416E+0	1.322783E+0	1.299029E+0	1.309232E+0	1.366634E+0	1.301369E+0	1.341447E+0	1.334992E+0	1.306723E+0	1.288958E+0	1.290537E+0	1.376508E+0	1.307273E+0	1.291646E+0	1.325590E+0	1.315432E+0	1.329842E+0	1.282051E+0	1.305485E+0	1.290006E+0	1.325567E+0	1.359511E+0	1.296211E+0	1.321338E+0	1.283058E+0	1.293648E+0	1.290753E+0	1.354735E+0	1.321600E+0	1.316152E+0	1.369710E+0	1.326927E+0	1.327891E+0	1.307283E+0	1.252031E+0	1.274744E+0	1.311589E+0	1.298477E+0	1.294450E+0	1.358461E+0	1.311188E+0	1.288492E+0	1.281418E+0	1.336704E+0	1.385176E+0	1.266596E+0	1.324384E+0	1.281923E+0	1.338589E+0	1.374096E+0	1.265308E+0	1.365855E+0	1.302596E+0	1.339811E+0	1.318974E+0	1.351699E+0	1.271618E+0	1.302295E+0	1.275906E+0	1.272894E+0	1.307044E+0	1.352978E+0	1.348836E+0	1.331024E+0	1.324112E+0	1.297394E+0	1.329630E+0	1.336604E+0	1.295958E+0	1.313057E+0	1.295210E+0	1.302002E+0	1.290825E+0	1.258047E+0	1.315325E+0	1.324332E+0	1.314592E+0	1.293483E+0	1.358627E+0	1.312915E+0	1.387477E+0	1.338718E+0	1.302369E+0	1.377956E+0	1.348042E+0	1.278072E+0	1.330390E+0	1.291194E+0	1.302096E+0	1.272035E+0	1.301904E+0	1.316769E+0	1.291651E+0	1.307011E+0	1.329742E+0	1.281865E+0	1.325585E+0	1.323116E+0	1.357745E+0	1.271404E+0	1.288882E+0	1.297964E+0	1.314376E+0	1.306245E+0	1.321828E+0	1.280633E+0	1.284203E+0	1.290554E+0	1.296656E+0	1.308905E+0	1.311727E+0	1.260544E+0	1.358047E+0	1.299681E+0	1.272210E+0	1.336027E+0	1.292759E+0	1.278847E+0	1.318921E+0	1.295821E+0	1.284677E+0	1.285731E+0	1.308544E+0	1.336979E+0	1.248468E+0	1.277888E+0	1.310925E+0	1.290376E+0	1.292063E+0	1.258786E+0	1.248830E+0	1.383375E+0	1.304203E+0	1.261793E+0	1.323984E+0	1.312639E+0	1.292349E+0	1.319115E+0	1.268940E+0	1.270489E+0	1.260661E+0	1.303202E+0	1.341887E+0	1.267766E+0	1.277903E+0	1.250859E+0	1.352128E+0
5.387700E+2	1.557360E+0	1.597377E+0	1.593027E+0	1.516035E+0	1.609591E+0	1.595526E+0	1.606862E+0	1.573014E+0	1.596057E+0	1.556955E+0	1.450644E+0	1.535443E+0	1.599985E+0	1.555657E+0	1.564474E+0	1.542944E+0	1.571373E+0	1.547008E+0	1.595520E+0	1.569024E+0	1.535390E+0	1.588467E+0	1.572986E+0	1.550106E+0	1.549082E+0	1.571773E+0	1.556391E+0	1.593853E+0	1.593430E+0	1.582195E+0	1.563360E+0	1.558733E+0	1.559187E+0	1.541612E+0	1.561905E+0	1.539538E+0	1.560422E+0	1.507790E+0	1.538039E+0	1.580268E+0	1.601312E+0	1.562449E+0	1.572365E+0	1.523457E+0	1.540583E+0	1.530614E+0	1.514718E+0	1.517027E+0	1.526451E+0	1.558052E+0	1.554735E+0	1.582027E+0	1.537037E+0	1.585750E+0	1.627325E+0	1.593886E+0	1.609372E+0	1.557458E+0	1.547219E+0	1.497726E+0	1.547945E+0	1.549785E+0	1.519902E+0	1.563005E+0	1.572722E+0	1.494471E+0	1.554983E+0	1.527230E+0	1.589223E+0	1.573834E+0	1.569984E+0	1.582659E+0	1.615917E+0	1.531001E+0	1.558430E+0	1.598590E+0	1.543332E+0	1.511415E+0	1.579245E+0	1.555335E+0	1.570189E+0	1.517365E+0	1.570146E+0	1.611869E+0	1.583434E+0	1.578775E+0	1.522126E+0	1.505406E+0	1.544100E+0	1.505077E+0	1.546044E+0	1.469520E+0	1.517778E+0	1.536402E+0	1.580481E+0	1.465531E+0	1.573881E+0	1.529278E+0	1.538557E+0	1.557976E+0	1.522442E+0	1.521032E+0	1.545343E+0	1.569198E+0	1.559914E+0	1.580258E+0	1.550602E+0	1.588220E+0	1.569632E+0	1.507101E+0	1.505227E+0	1.602533E+0	1.496195E+0	1.536064E+0	1.509648E+0	1.583733E+0	1.575176E+0	1.474132E+0	1.578592E+0	1.517949E+0	1.499093E+0	1.488223E+0	1.543513E+0	1.591081E+0	1.558697E+0	1.507347E+0	1.509450E+0	1.578105E+0	1.558426E+0	1.516700E+0	1.559980E+0	1.544238E+0	1.557515E+0	1.490735E+0	1.481004E+0	1.563473E+0	1.552321E+0	1.491727E+0	1.545281E+0	1.532021E+0	1.538816E+0	1.540072E+0	1.537057E+0	1.553965E+0	1.520322E+0	1.490190E+0	1.511863E+0	1.517523E+0	1.531176E+0	1.464617E+0	1.553169E+0	1.552601E+0	1.506202E+0	1.594526E+0	1.531157E+0	1.549106E+0	1.571351E+0	1.536553E+0	1.610323E+0	1.549445E+0	1.484302E+0	1.487196E+0	1.537336E+0	1.491453E+0	1.514802E+0	1.531293E+0	1.566398E+0	1.524948E+0	1.574291E+0	1.443762E+0	1.507683E+0
5.390240E+2	1.766958E+0	1.760196E+0	1.794922E+0	1.791423E+0	1.837244E+0	1.795774E+0	1.769241E+0	1.766525E+0	1.689062E+0	1.790125E+0	1.763425E+0	1.724874E+0	1.798205E+0	1.758725E+0	1.695364E+0	1.811550E+0	1.703689E+0	1.741433E+0	1.743010E+0	1.768682E+0	1.770339E+0	1.789390E+0	1.782455E+0	1.686602E+0	1.779828E+0	1.793782E+0	1.756451E+0	1.772013E+0	1.779079E+0	1.704142E+0	1.769727E+0	1.756703E+0	1.737408E+0	1.753880E+0	1.719476E+0	1.764534E+0	1.736746E+0	1.738713E+0	1.730883E+0	1.780374E+0	1.771947E+0	1.806900E+0	1.805107E+0	1.733616E+0	1.711909E+0	1.728135E+0	1.778206E+0	1.771135E+0	1.778426E+0	1.700779E+0	1.799481E+0	1.785838E+0	1.723842E+0	1.799205E+0	1.781725E+0	1.746243E+0	1.756723E+0	1.751216E+0	1.708726E+0	1.733445E+0	1.731758E+0	1.715152E+0	1.701527E+0	1.747833E+0	1.710004E+0	1.692779E+0	1.724024E+0	1.761368E+0	1.766040E+0	1.779579E+0	1.718011E+0	1.725010E+0	1.780282E+0	1.729087E+0	1.715480E+0	1.819536E+0	1.713094E+0	1.752079E+0	1.760397E+0	1.783222E+0	1.684885E+0	1.719002E+0	1.690237E+0	1.773857E+0	1.758826E+0	1.734178E+0	1.733047E+0	1.741646E+0	1.682563E+0	1.747277E+0	1.755820E+0	1.789278E+0	1.798871E+0	1.723606E+0	1.683638E+0	1.698564E+0	1.724272E+0	1.664734E+0	1.720747E+0	1.706812E+0	1.737701E+0	1.760466E+0	1.775856E+0	1.737782E+0	1.751380E+0	1.778712E+0	1.695434E+0	1.756457E+0	1.712459E+0	1.779499E+0	1.688985E+0	1.788066E+0	1.745435E+0	1.730572E+0	1.711693E+0	1.724908E+0	1.777157E+0	1.752044E+0	1.748966E+0	1.707357E+0	1.747366E+0	1.684868E+0	1.745730E+0	1.805984E+0	1.711591E+0	1.722240E+0	1.754054E+0	1.729029E+0	1.730885E+0	1.660332E+0	1.745273E+0	1.642945E+0	1.697380E+0	1.721177E+0	1.717358E+0	1.764562E+0	1.724606E+0	1.637673E+0	1.736804E+0	1.737755E+0	1.717261E+0	1.683442E+0	1.737196E+0	1.691604E+0	1.703449E+0	1.667162E+0	1.694338E+0	1.699172E+0	1.728606E+0	1.659669E+0	1.725191E+0	1.672452E+0	1.752825E+0	1.685030E+0	1.724907E+0	1.660290E+0	1.707663E+0	1.652136E+0	1.729297E+0	1.721451E+0	1.708831E+0	1.709197E+0	1.729453E+0	1.675180E+0	1.694018E+0	1.683491E+0	1.776918E+0	1.738753E+0	1.807275E+0	1.736219E+0	1.591005E+0
5.392880E+2	2.004408E+0	2.007392E+0	1.984311E+0	2.044142E+0	1.985323E+0	1.922675E+0	1.998496E+0	1.981849E+0	1.917918E+0	1.910936E+0	1.882390E+0	1.963835E+0	1.971217E+0	1.873600E+0	1.962438E+0	1.973673E+0	1.905198E+0	1.973841E+0	1.923620E+0	1.920015E+0	1.930124E+0	1.954963E+0	1.937123E+0	1.949896E+0	1.897908E+0	1.940880E+0	1.999025E+0	1.977575E+0	2.010554E+0	1.927602E+0	1.977058E+0	1.932116E+0	1.891658E+0	1.915088E+0	1.943803E+0	1.949161E+0	1.958796E+0	1.972727E+0	1.972766E+0	1.913144E+0	1.977919E+0	1.944564E+0	2.013634E+0	1.988383E+0	1.865850E+0	1.998076E+0	1.969031E+0	2.035233E+0	1.890354E+0	1.930849E+0	1.977217E+0	1.908109E+0	1.882294E+0	1.954578E+0	2.004579E+0	1.913571E+0	1.943804E+0	1.991692E+0	1.855317E+0	1.937286E+0	2.013438E+0	1.950034E+0	1.881095E+0	1.950376E+0	1.993946E+0	1.943693E+0	1.873981E+0	1.933110E+0	2.021676E+0	1.932715E+0	1.876211E+0	1.976604E+0	1.957907E+0	1.891149E+0	1.947387E+0	1.951845E+0	1.891191E+0	1.927364E+0	1.837940E+0	1.920569E+0	1.837076E+0	1.932360E+0	1.938326E+0	1.910213E+0	1.930060E+0	1.909918E+0	1.937097E+0	1.904953E+0	1.853961E+0	1.949531E+0	1.914327E+0	1.937417E+0	1.940789E+0	1.905924E+0	1.863771E+0	1.937860E+0	1.906664E+0	1.913820E+0	1.911860E+0	2.002015E+0	1.900949E+0	1.917349E+0	1.975461E+0	1.921364E+0	2.087128E+0	1.924276E+0	1.909103E+0	1.935779E+0	1.879869E+0	1.902885E+0	1.901110E+0	1.991736E+0	1.854909E+0	1.917284E+0	1.966203E+0	1.923992E+0	1.919394E+0	1.925056E+0	1.940449E+0	1.857001E+0	1.968150E+0	1.917179E+0	1.911493E+0	1.958293E+0	1.872424E+0	1.872239E+0	1.899575E+0	1.948719E+0	1.900295E+0	1.911287E+0	1.962800E+0	1.846202E+0	1.903119E+0	1.895360E+0	1.911791E+0	1.936477E+0	1.896827E+0	1.836201E+0	1.893602E+0	1.892253E+0	1.912103E+0	1.926063E+0	1.889788E+0	1.918805E+0	1.952776E+0	1.878506E+0	1.843167E+0	1.894933E+0	1.872356E+0	1.901173E+0	1.902318E+0	1.880144E+0	1.891752E+0	1.880490E+0	1.867409E+0	1.953783E+0	1.863180E+0	1.863586E+0	1.860568E+0	1.943861E+0	1.863505E+0	1.915488E+0	1.882227E+0	1.935354E+0	1.871040E+0	1.844476E+0	1.950378E+0	2.003883E+0	1.874141E+0	1.812337E+0	1.881482E+0
5.395160E+2	1.917014E+0	2.013354E+0	1.937670E+0	2.011576E+0	1.987405E+0	1.972665E+0	1.900593E+0	1.953864E+0	1.947938E+0	1.984878E+0	1.985808E+0	1.943407E+0	1.930292E+0	2.026867E+0	1.921240E+0	1.986394E+0	1.956094E+0	1.929537E+0	1.896840E+0	1.962373E+0	1.948206E+0	1.921209E+0	1.991549E+0	1.957707E+0	1.960585E+0	1.985882E+0	1.955616E+0	1.903944E+0	1.943028E+0	1.913885E+0	1.955513E+0	1.968065E+0	1.976307E+0	1.886134E+0	1.931696E+0	1.952172E+0	1.975159E+0	1.888201E+0	1.913143E+0	1.909201E+0	2.021994E+0	1.926087E+0	1.968302E+0	1.893708E+0	1.904194E+0	1.954121E+0	1.892943E+0	1.950490E+0	1.965728E+0	1.910447E+0	1.935249E+0	1.919488E+0	1.926234E+0	1.971472E+0	1.960017E+0	1.903160E+0	2.022134E+0	1.954273E+0	1.920991E+0	1.925156E+0	1.913933E+0	1.938928E+0	1.878093E+0	1.936784E+0	1.882248E+0	2.070179E+0	1.863756E+0	1.926255E+0	1.955709E+0	1.867810E+0	1.908855E+0	1.882234E+0	1.945102E+0	1.954613E+0	1.912395E+0	1.903580E+0	1.875790E+0	1.902030E+0	1.860798E+0	1.935757E+0	1.940120E+0	1.947443E+0	1.913094E+0	1.938998E+0	1.913448E+0	1.944461E+0	1.924249E+0	1.900714E+0	1.921659E+0	1.925785E+0	1.950332E+0	1.883101E+0	1.884015E+0	1.897955E+0	1.862659E+0	1.901800E+0	1.829821E+0	1.852031E+0	1.883457E+0	1.936163E+0	1.935619E+0	1.951065E+0	1.910113E+0	1.906431E+0	1.860361E+0	1.897413E+0	1.909413E+0	1.896072E+0	1.877494E+0	1.881220E+0	1.882538E+0	1.916226E+0	1.913266E+0	1.841856E+0	1.883435E+0	1.941723E+0	1.949357E+0	1.890995E+0	1.948128E+0	1.800995E+0	1.940936E+0	1.835485E+0	1.834281E+0	1.906469E+0	1.853173E+0	1.836257E+0	1.939920E+0	1.842713E+0	1.949684E+0	1.865802E+0	1.868905E+0	1.901377E+0	1.937491E+0	1.937151E+0	1.880753E+0	1.863138E+0	1.892293E+0	1.827262E+0	1.883155E+0	1.930494E+0	1.897250E+0	1.939859E+0	1.883242E+0	1.898458E+0	1.953096E+0	1.850812E+0	1.909592E+0	1.900234E+0	1.869776E+0	1.858220E+0	1.869833E+0	1.872819E+0	1.884996E+0	1.909790E+0	1.877846E+0	1.865371E+0	1.855267E+0	1.842844E+0	1.905061E+0	1.892631E+0	1.822145E+0	1.870435E+0	1.871059E+0	1.863190E+0	1.864539E+0	1.922207E+0	1.895841E+0	1.879176E+0	1.906939E+0	1.854584E+0	1.841252E+0
5.397750E+2	2.034281E+0	2.013191E+0	1.990999E+0	2.058636E+0	2.058037E+0	2.045106E+0	2.008744E+0	1.987204E+0	1.944813E+0	1.957251E+0	1.976886E+0	1.997641E+0	2.029543E+0	1.972980E+0	2.013299E+0	2.035680E+0	2.027472E+0	1.949049E+0	1.952735E+0	2.055906E+0	2.011009E+0	1.964577E+0	2.007643E+0	1.971144E+0	1.948918E+0	2.062432E+0	1.986414E+0	2.006702E+0	2.048819E+0	1.966218E+0	2.014132E+0	1.959229E+0	1.997600E+0	1.934496E+0	1.995530E+0	1.949013E+0	1.945863E+0	1.934130E+0	2.062057E+0	1.992304E+0	1.975312E+0	1.963600E+0	1.996648E+0	2.006800E+0	1.960438E+0	2.004602E+0	1.975962E+0	1.928875E+0	2.009118E+0	1.947664E+0	2.043633E+0	1.935397E+0	1.954539E+0	1.926525E+0	2.015914E+0	1.989464E+0	1.937625E+0	2.021884E+0	1.898353E+0	1.937194E+0	1.912314E+0	1.960153E+0	1.892390E+0	1.974045E+0	1.963439E+0	1.957223E+0	1.944626E+0	1.970767E+0	2.031728E+0	1.964269E+0	1.963477E+0	1.989192E+0	1.993248E+0	1.971852E+0	1.904233E+0	1.967785E+0	1.922901E+0	1.999212E+0	1.902242E+0	1.973232E+0	1.986713E+0	1.971257E+0	1.903989E+0	1.991116E+0	1.978243E+0	1.995953E+0	2.033094E+0	1.944736E+0	1.956911E+0	1.893274E+0	1.912511E+0	1.965418E+0	1.910749E+0	1.888482E+0	1.907418E+0	1.948420E+0	1.951149E+0	1.897246E+0	2.040046E+0	1.947288E+0	1.956898E+0	1.968193E+0	1.915425E+0	1.955235E+0	1.874606E+0	1.986589E+0	1.942379E+0	1.956548E+0	2.008749E+0	1.973222E+0	1.871076E+0	1.961624E+0	1.842199E+0	1.945688E+0	1.913782E+0	1.934649E+0	1.925135E+0	1.898949E+0	1.929417E+0	1.981274E+0	1.942670E+0	1.859980E+0	1.952743E+0	1.997287E+0	1.903923E+0	1.949032E+0	1.871160E+0	1.913890E+0	1.947203E+0	1.950200E+0	1.989282E+0	1.988982E+0	1.928960E+0	1.896486E+0	1.946472E+0	1.952421E+0	1.944466E+0	1.936352E+0	1.910424E+0	1.923130E+0	1.872905E+0	1.942146E+0	1.909190E+0	1.890238E+0	1.928976E+0	1.933347E+0	1.841276E+0	1.867320E+0	1.893045E+0	1.850697E+0	1.981412E+0	1.931374E+0	1.939056E+0	1.843946E+0	1.974399E+0	1.937810E+0	1.963310E+0	1.883940E+0	1.964454E+0	1.921444E+0	1.984643E+0	1.897635E+0	1.848866E+0	1.938854E+0	1.981499E+0	1.911463E+0	1.892963E+0	2.010767E+0	1.896508E+0	1.825743E+0	1.901047E+0
5.400140E+2	1.918324E+0	1.939387E+0	1.916845E+0	1.951580E+0	1.988002E+0	1.995784E+0	1.864907E+0	1.933648E+0	1.857167E+0	1.937950E+0	1.876901E+0	1.941930E+0	1.929656E+0	1.899601E+0	1.897340E+0	1.951180E+0	1.926793E+0	1.906918E+0	1.946751E+0	1.954186E+0	1.915533E+0	1.955664E+0	1.861298E+0	1.921686E+0	1.897059E+0	1.871481E+0	1.949451E+0	1.920139E+0	1.960339E+0	1.907304E+0	1.924587E+0	1.906374E+0	1.957775E+0	1.879198E+0	1.927590E+0	1.918800E+0	1.895253E+0	1.862329E+0	1.904015E+0	1.889737E+0	1.897470E+0	1.900521E+0	1.912529E+0	1.941160E+0	1.866539E+0	1.874450E+0	1.790831E+0	1.927890E+0	1.914221E+0	1.929964E+0	1.895927E+0	1.923488E+0	1.895885E+0	1.973613E+0	1.936175E+0	1.874707E+0	1.931487E+0	1.939009E+0	1.852077E+0	1.907585E+0	1.895400E+0	1.913502E+0	1.856235E+0	1.944243E+0	1.958096E+0	1.895532E+0	1.891987E+0	1.981736E+0	1.905444E+0	1.909650E+0	1.892592E+0	1.885396E+0	1.876967E+0	1.857264E+0	1.946522E+0	1.942090E+0	1.925615E+0	1.877744E+0	1.878194E+0	1.935765E+0	1.907771E+0	1.898693E+0	1.874716E+0	1.898359E+0	1.858404E+0	1.920430E+0	1.926034E+0	1.907358E+0	1.870214E+0	1.847033E+0	1.878537E+0	1.884437E+0	1.853445E+0	1.857640E+0	1.854897E+0	1.852682E+0	1.931615E+0	1.854673E+0	1.850162E+0	1.883220E+0	1.883051E+0	1.875191E+0	1.866548E+0	1.894177E+0	1.940985E+0	1.930484E+0	1.870633E+0	1.961384E+0	1.890215E+0	1.859975E+0	1.766997E+0	1.902682E+0	1.866976E+0	1.848414E+0	1.876855E+0	1.934410E+0	1.900224E+0	1.875765E+0	1.894062E+0	1.795349E+0	1.865019E+0	1.892642E+0	1.872338E+0	1.904761E+0	1.904025E+0	1.851981E+0	1.892240E+0	1.880724E+0	1.914206E+0	1.881398E+0	1.881732E+0	1.927487E+0	1.843508E+0	1.848134E+0	1.904498E+0	1.858711E+0	1.919215E+0	1.864185E+0	1.834579E+0	1.903069E+0	1.829727E+0	1.851655E+0	1.833501E+0	1.876498E+0	1.849685E+0	1.804326E+0	1.854953E+0	1.914801E+0	1.846602E+0	1.775418E+0	1.899633E+0	1.808921E+0	1.889400E+0	1.825770E+0	1.865619E+0	1.794123E+0	1.897828E+0	1.811238E+0	1.878430E+0	1.810989E+0	1.817358E+0	1.858032E+0	1.840430E+0	1.826770E+0	1.877392E+0	1.813080E+0	1.885127E+0	1.899185E+0	1.902167E+0	1.685030E+0	1.842189E+0
5.402740E+2	1.927689E+0	1.869265E+0	1.826214E+0	1.898922E+0	1.887461E+0	1.996218E+0	1.896574E+0	1.824968E+0	1.839302E+0	1.935623E+0	1.911396E+0	1.885581E+0	1.922898E+0	1.882660E+0	1.910558E+0	1.901013E+0	1.904524E+0	1.927846E+0	1.879354E+0	1.905617E+0	1.903603E+0	1.901742E+0	1.946719E+0	1.853289E+0	1.913557E+0	1.859408E+0	1.821891E+0	1.937293E+0	1.926144E+0	1.872144E+0	1.884788E+0	1.914603E+0	1.904800E+0	1.832309E+0	1.957672E+0	1.881748E+0	1.893837E+0	1.827527E+0	1.925360E+0	1.885147E+0	1.851520E+0	1.930957E+0	1.964926E+0	1.900256E+0	1.876382E+0	1.844191E+0	1.955102E+0	1.957275E+0	1.812627E+0	1.896471E+0	1.896713E+0	1.916571E+0	1.849431E+0	1.945525E+0	1.881880E+0	1.868022E+0	1.887250E+0	1.933450E+0	1.865789E+0	1.922641E+0	1.854480E+0	1.923720E+0	1.862579E+0	1.877052E+0	1.900302E+0	1.888921E+0	1.884898E+0	1.902163E+0	1.927797E+0	1.847501E+0	1.849605E+0	1.844464E+0	1.845907E+0	1.884693E+0	1.859722E+0	1.922598E+0	1.828678E+0	1.890936E+0	1.824830E+0	1.846854E+0	1.794509E+0	1.869855E+0	1.809410E+0	1.862742E+0	1.838309E+0	1.820688E+0	1.852997E+0	1.870675E+0	1.884247E+0	1.830398E+0	1.814598E+0	1.866904E+0	1.845686E+0	1.888984E+0	1.829024E+0	1.837451E+0	1.880576E+0	1.777652E+0	1.847757E+0	1.920297E+0	1.839556E+0	1.922680E+0	1.802340E+0	1.839353E+0	1.801765E+0	1.887120E+0	1.772640E+0	1.893040E+0	1.819461E+0	1.881191E+0	1.805863E+0	1.843917E+0	1.831836E+0	1.925778E+0	1.855208E+0	1.945312E+0	1.826622E+0	1.797035E+0	1.881771E+0	1.849261E+0	1.855800E+0	1.869934E+0	1.855224E+0	1.956702E+0	1.830265E+0	1.835848E+0	1.799517E+0	1.874627E+0	1.879559E+0	1.822668E+0	1.893361E+0	1.800189E+0	1.872965E+0	1.835466E+0	1.822379E+0	1.851241E+0	1.901712E+0	1.816177E+0	1.854732E+0	1.842433E+0	1.832324E+0	1.820271E+0	1.841911E+0	1.818363E+0	1.821311E+0	1.877721E+0	1.813475E+0	1.873983E+0	1.854546E+0	1.875167E+0	1.829235E+0	1.771576E+0	1.849749E+0	1.815293E+0	1.825121E+0	1.844033E+0	1.823072E+0	1.837788E+0	1.853954E+0	1.803704E+0	1.841874E+0	1.812461E+0	1.860096E+0	1.808693E+0	1.808177E+0	1.753387E+0	1.826125E+0	1.874482E+0	1.808684E+0	1.770071E+0	1.823339E+0
5.405080E+2	1.849989E+0	1.821236E+0	1.882425E+0	1.888909E+0	1.839171E+0	1.894938E+0	1.808502E+0	1.889789E+0	1.768731E+0	1.858332E+0	1.779812E+0	1.817986E+0	1.879697E+0	1.785728E+0	1.861021E+0	1.852933E+0	1.905916E+0	1.893049E+0	1.853780E+0	1.884399E+0	1.809862E+0	1.857185E+0	1.767144E+0	1.816583E+0	1.811628E+0	1.843950E+0	1.805243E+0	1.797892E+0	1.861726E+0	1.831800E+0	1.883142E+0	1.807132E+0	1.835349E+0	1.835660E+0	1.796931E+0	1.785462E+0	1.871893E+0	1.764598E+0	1.883097E+0	1.805272E+0	1.845352E+0	1.796014E+0	1.862009E+0	1.831608E+0	1.793113E+0	1.831978E+0	1.756496E+0	1.839744E+0	1.779926E+0	1.814757E+0	1.778126E+0	1.838500E+0	1.832393E+0	1.820367E+0	1.853300E+0	1.777679E+0	1.870183E+0	1.860618E+0	1.787162E+0	1.788517E+0	1.838402E+0	1.832132E+0	1.806486E+0	1.823485E+0	1.840442E+0	1.858229E+0	1.791399E+0	1.743104E+0	1.812323E+0	1.743373E+0	1.829618E+0	1.787750E+0	1.800686E+0	1.785772E+0	1.743394E+0	1.839206E+0	1.817358E+0	1.793180E+0	1.801002E+0	1.859308E+0	1.834482E+0	1.873182E+0	1.752584E+0	1.737257E+0	1.765917E+0	1.774339E+0	1.806976E+0	1.817887E+0	1.785376E+0	1.737599E+0	1.851468E+0	1.762391E+0	1.843173E+0	1.801600E+0	1.751251E+0	1.768422E+0	1.816580E+0	1.786592E+0	1.753336E+0	1.837586E+0	1.780388E+0	1.761639E+0	1.804883E+0	1.771703E+0	1.776677E+0	1.843505E+0	1.804167E+0	1.841968E+0	1.743674E+0	1.808359E+0	1.797902E+0	1.834481E+0	1.799636E+0	1.749792E+0	1.775038E+0	1.855160E+0	1.815697E+0	1.728572E+0	1.812615E+0	1.744082E+0	1.782548E+0	1.774132E+0	1.797646E+0	1.828049E+0	1.774996E+0	1.739478E+0	1.800742E+0	1.796377E+0	1.829890E+0	1.728958E+0	1.784192E+0	1.811490E+0	1.781621E+0	1.825962E+0	1.715275E+0	1.778806E+0	1.749617E+0	1.784886E+0	1.718516E+0	1.804030E+0	1.768496E+0	1.754120E+0	1.809071E+0	1.767759E+0	1.757735E+0	1.737901E+0	1.736781E+0	1.793700E+0	1.834306E+0	1.722018E+0	1.804232E+0	1.793699E+0	1.810805E+0	1.755409E+0	1.718098E+0	1.802264E+0	1.790289E+0	1.761626E+0	1.795350E+0	1.774459E+0	1.761286E+0	1.766270E+0	1.774252E+0	1.787009E+0	1.731157E+0	1.735944E+0	1.810866E+0	1.842948E+0	1.781253E+0	1.638013E+0	1.723281E+0
5.407680E+2	1.751823E+0	1.694160E+0	1.803553E+0	1.740876E+0	1.727159E+0	1.765739E+0	1.737193E+0	1.718353E+0	1.689741E+0	1.703896E+0	1.752865E+0	1.709508E+0	1.783915E+0	1.679908E+0	1.684267E+0	1.712873E+0	1.717764E+0	1.738212E+0	1.677226E+0	1.706967E+0	1.723699E+0	1.670431E+0	1.744433E+0	1.685662E+0	1.654059E+0	1.685137E+0	1.668576E+0	1.689312E+0	1.759123E+0	1.714978E+0	1.737759E+0	1.714845E+0	1.740237E+0	1.655771E+0	1.734677E+0	1.711085E+0	1.714817E+0	1.718263E+0	1.739127E+0	1.702594E+0	1.720244E+0	1.668847E+0	1.752792E+0	1.681223E+0	1.736579E+0	1.734724E+0	1.675554E+0	1.693012E+0	1.689703E+0	1.736145E+0	1.676633E+0	1.653555E+0	1.683092E+0	1.738958E+0	1.692271E+0	1.722316E+0	1.811772E+0	1.731570E+0	1.682225E+0	1.634835E+0	1.699882E+0	1.612991E+0	1.653311E+0	1.708649E+0	1.720596E+0	1.709779E+0	1.680899E+0	1.745037E+0	1.778659E+0	1.691070E+0	1.705958E+0	1.734759E+0	1.617070E+0	1.719228E+0	1.681532E+0	1.702561E+0	1.680577E+0	1.741967E+0	1.712761E+0	1.683007E+0	1.667353E+0	1.664434E+0	1.667309E+0	1.678475E+0	1.721459E+0	1.645423E+0	1.738961E+0	1.703867E+0	1.650405E+0	1.702386E+0	1.747706E+0	1.722171E+0	1.684052E+0	1.677800E+0	1.657222E+0	1.651704E+0	1.698186E+0	1.694272E+0	1.734539E+0	1.657649E+0	1.760775E+0	1.785177E+0	1.660290E+0	1.721985E+0	1.682721E+0	1.738395E+0	1.682107E+0	1.710224E+0	1.625506E+0	1.747392E+0	1.675706E+0	1.718542E+0	1.719549E+0	1.666496E+0	1.651030E+0	1.692072E+0	1.674222E+0	1.666826E+0	1.662672E+0	1.643700E+0	1.712708E+0	1.697207E+0	1.698976E+0	1.693532E+0	1.701420E+0	1.621631E+0	1.681657E+0	1.665503E+0	1.635869E+0	1.736073E+0	1.692074E+0	1.660523E+0	1.683183E+0	1.660236E+0	1.665225E+0	1.698591E+0	1.664745E+0	1.739875E+0	1.639115E+0	1.699596E+0	1.647913E+0	1.646776E+0	1.680195E+0	1.644779E+0	1.669049E+0	1.656950E+0	1.626305E+0	1.672677E+0	1.618856E+0	1.657735E+0	1.718559E+0	1.677074E+0	1.661966E+0	1.716585E+0	1.583636E+0	1.654565E+0	1.696425E+0	1.653335E+0	1.693762E+0	1.613377E+0	1.727818E+0	1.623001E+0	1.645311E+0	1.674778E+0	1.694619E+0	1.696570E+0	1.681489E+0	1.632908E+0	1.653556E+0	1.600901E+0	1.678409E+0
5.410190E+2	1.609786E+0	1.624250E+0	1.644955E+0	1.657004E+0	1.576451E+0	1.617541E+0	1.583795E+0	1.542809E+0	1.557000E+0	1.603641E+0	1.542486E+0	1.555178E+0	1.509427E+0	1.569982E+0	1.557305E+0	1.597068E+0	1.634079E+0	1.578927E+0	1.631270E+0	1.555602E+0	1.573226E+0	1.584092E+0	1.554683E+0	1.565715E+0	1.589981E+0	1.598634E+0	1.591909E+0	1.594113E+0	1.616362E+0	1.552923E+0	1.558903E+0	1.580173E+0	1.638671E+0	1.533989E+0	1.610979E+0	1.597734E+0	1.636163E+0	1.520460E+0	1.575487E+0	1.547791E+0	1.631194E+0	1.525132E+0	1.650438E+0	1.552075E+0	1.556054E+0	1.592099E+0	1.512884E+0	1.581061E+0	1.501655E+0	1.564692E+0	1.563977E+0	1.578358E+0	1.590873E+0	1.615587E+0	1.621438E+0	1.544361E+0	1.641214E+0	1.578434E+0	1.543672E+0	1.592317E+0	1.519967E+0	1.568920E+0	1.555172E+0	1.573201E+0	1.580119E+0	1.559824E+0	1.553146E+0	1.586965E+0	1.622119E+0	1.564680E+0	1.553185E+0	1.608788E+0	1.606501E+0	1.585618E+0	1.584027E+0	1.605917E+0	1.567097E+0	1.577400E+0	1.528863E+0	1.569964E+0	1.575087E+0	1.565259E+0	1.545637E+0	1.518344E+0	1.599326E+0	1.535789E+0	1.576666E+0	1.567238E+0	1.570343E+0	1.558012E+0	1.594172E+0	1.605487E+0	1.580040E+0	1.577960E+0	1.599191E+0	1.567602E+0	1.561728E+0	1.588010E+0	1.551347E+0	1.601922E+0	1.559772E+0	1.602616E+0	1.600897E+0	1.578470E+0	1.566298E+0	1.533794E+0	1.591173E+0	1.567617E+0	1.585785E+0	1.571712E+0	1.537544E+0	1.527417E+0	1.572445E+0	1.528383E+0	1.531809E+0	1.517728E+0	1.568163E+0	1.525722E+0	1.574619E+0	1.500547E+0	1.538058E+0	1.517771E+0	1.559020E+0	1.550933E+0	1.540889E+0	1.582539E+0	1.532698E+0	1.542238E+0	1.619756E+0	1.556589E+0	1.613043E+0	1.536715E+0	1.569099E+0	1.567876E+0	1.570756E+0	1.530138E+0	1.551879E+0	1.592780E+0	1.489696E+0	1.681656E+0	1.553563E+0	1.525145E+0	1.513413E+0	1.562279E+0	1.549415E+0	1.553205E+0	1.549945E+0	1.608918E+0	1.552257E+0	1.545377E+0	1.551250E+0	1.483817E+0	1.529429E+0	1.566079E+0	1.564216E+0	1.570017E+0	1.531374E+0	1.488149E+0	1.554154E+0	1.559506E+0	1.569408E+0	1.617442E+0	1.540706E+0	1.548825E+0	1.567201E+0	1.547131E+0	1.537492E+0	1.577645E+0	1.538735E+0	1.454766E+0	1.526628E+0
5.412850E+2	1.490764E+0	1.440330E+0	1.501570E+0	1.455445E+0	1.534517E+0	1.539869E+0	1.436329E+0	1.452135E+0	1.473246E+0	1.471502E+0	1.419633E+0	1.425388E+0	1.502579E+0	1.422585E+0	1.436453E+0	1.509339E+0	1.511098E+0	1.463302E+0	1.497711E+0	1.497125E+0	1.463296E+0	1.564957E+0	1.472991E+0	1.465425E+0	1.451716E+0	1.477247E+0	1.485398E+0	1.464807E+0	1.499993E+0	1.461496E+0	1.441343E+0	1.430768E+0	1.485343E+0	1.434789E+0	1.522753E+0	1.408439E+0	1.512069E+0	1.416209E+0	1.473224E+0	1.502718E+0	1.507251E+0	1.506538E+0	1.499208E+0	1.435777E+0	1.429972E+0	1.463826E+0	1.464160E+0	1.471678E+0	1.443072E+0	1.452076E+0	1.485103E+0	1.478590E+0	1.501128E+0	1.488209E+0	1.457071E+0	1.497213E+0	1.437587E+0	1.532573E+0	1.462608E+0	1.493812E+0	1.508653E+0	1.464372E+0	1.447966E+0	1.425409E+0	1.461397E+0	1.423349E+0	1.471454E+0	1.443152E+0	1.516039E+0	1.448815E+0	1.486279E+0	1.467352E+0	1.466882E+0	1.447474E+0	1.440939E+0	1.500099E+0	1.500814E+0	1.445905E+0	1.463977E+0	1.440540E+0	1.445561E+0	1.461607E+0	1.438161E+0	1.451408E+0	1.536233E+0	1.435036E+0	1.503905E+0	1.462067E+0	1.489972E+0	1.462142E+0	1.416568E+0	1.474208E+0	1.465855E+0	1.386026E+0	1.416964E+0	1.398642E+0	1.426548E+0	1.464288E+0	1.433170E+0	1.455421E+0	1.479387E+0	1.476725E+0	1.471221E+0	1.438540E+0	1.416809E+0	1.438787E+0	1.462598E+0	1.567802E+0	1.443421E+0	1.514294E+0	1.472166E+0	1.477688E+0	1.444322E+0	1.471820E+0	1.403316E+0	1.418148E+0	1.492986E+0	1.423214E+0	1.472855E+0	1.450801E+0	1.522964E+0	1.425765E+0	1.452370E+0	1.457186E+0	1.458156E+0	1.473883E+0	1.441060E+0	1.538991E+0	1.574570E+0	1.438286E+0	1.469243E+0	1.405699E+0	1.414385E+0	1.413513E+0	1.490394E+0	1.427440E+0	1.462511E+0	1.458359E+0	1.466335E+0	1.508018E+0	1.450798E+0	1.423735E+0	1.462272E+0	1.464377E+0	1.450940E+0	1.428414E+0	1.461790E+0	1.449439E+0	1.453845E+0	1.380692E+0	1.454517E+0	1.450289E+0	1.469232E+0	1.480333E+0	1.419987E+0	1.446476E+0	1.468799E+0	1.414141E+0	1.419423E+0	1.444432E+0	1.477935E+0	1.426251E+0	1.407797E+0	1.449605E+0	1.470158E+0	1.411144E+0	1.484832E+0	1.521380E+0	1.457320E+0	1.407065E+0	1.461478E+0
5.415190E+2	1.388400E+0	1.402538E+0	1.362373E+0	1.344903E+0	1.369136E+0	1.385813E+0	1.365812E+0	1.355974E+0	1.339913E+0	1.324018E+0	1.289716E+0	1.373817E+0	1.330072E+0	1.279816E+0	1.332080E+0	1.368508E+0	1.402159E+0	1.331451E+0	1.363467E+0	1.341848E+0	1.358287E+0	1.345854E+0	1.416677E+0	1.364020E+0	1.306672E+0	1.336828E+0	1.330267E+0	1.346631E+0	1.359071E+0	1.332275E+0	1.332760E+0	1.348098E+0	1.396527E+0	1.317936E+0	1.319971E+0	1.340208E+0	1.370368E+0	1.344352E+0	1.357733E+0	1.313769E+0	1.433140E+0	1.325527E+0	1.382292E+0	1.370329E+0	1.337835E+0	1.356635E+0	1.402692E+0	1.305737E+0	1.360248E+0	1.332308E+0	1.333973E+0	1.348843E+0	1.394952E+0	1.360107E+0	1.337302E+0	1.311996E+0	1.410211E+0	1.374015E+0	1.349035E+0	1.345996E+0	1.362173E+0	1.356288E+0	1.322099E+0	1.311102E+0	1.314510E+0	1.331278E+0	1.363708E+0	1.373722E+0	1.419336E+0	1.326874E+0	1.327404E+0	1.349098E+0	1.364183E+0	1.307085E+0	1.295801E+0	1.336911E+0	1.434560E+0	1.374522E+0	1.320208E+0	1.326656E+0	1.356161E+0	1.343092E+0	1.342128E+0	1.356873E+0	1.319377E+0	1.283887E+0	1.311693E+0	1.307893E+0	1.325776E+0	1.347944E+0	1.346343E+0	1.353478E+0	1.301350E+0	1.331682E+0	1.342534E+0	1.311532E+0	1.382067E+0	1.352695E+0	1.304398E+0	1.347146E+0	1.360856E+0	1.349234E+0	1.366031E+0	1.344840E+0	1.331497E+0	1.389152E+0	1.355061E+0	1.360743E+0	1.371014E+0	1.323605E+0	1.331971E+0	1.328646E+0	1.335605E+0	1.325138E+0	1.278459E+0	1.359229E+0	1.352479E+0	1.327817E+0	1.329447E+0	1.273883E+0	1.311799E+0	1.324718E+0	1.353745E+0	1.321448E+0	1.380335E+0	1.314421E+0	1.347690E+0	1.323081E+0	1.396269E+0	1.339007E+0	1.313638E+0	1.272645E+0	1.350373E+0	1.326733E+0	1.349842E+0	1.314919E+0	1.347410E+0	1.364282E+0	1.332206E+0	1.314471E+0	1.312619E+0	1.322934E+0	1.295833E+0	1.285772E+0	1.318860E+0	1.324705E+0	1.345624E+0	1.317153E+0	1.355366E+0	1.274166E+0	1.369088E+0	1.312258E+0	1.378307E+0	1.366831E+0	1.339326E+0	1.359888E+0	1.408358E+0	1.322377E+0	1.370445E+0	1.312885E+0	1.359201E+0	1.327945E+0	1.329643E+0	1.337566E+0	1.344021E+0	1.315808E+0	1.322440E+0	1.342822E+0	1.417713E+0	1.312928E+0	1.305626E+0
5.417860E+2	1.198739E+0	1.210746E+0	1.203346E+0	1.169508E+0	1.212001E+0	1.187560E+0	1.171768E+0	1.218461E+0	1.201869E+0	1.166161E+0	1.176094E+0	1.187608E+0	1.177174E+0	1.138784E+0	1.184456E+0	1.178720E+0	1.176483E+0	1.219131E+0	1.175662E+0	1.203962E+0	1.197829E+0	1.178925E+0	1.192246E+0	1.164393E+0	1.172360E+0	1.170965E+0	1.188305E+0	1.234647E+0	1.175468E+0	1.195022E+0	1.198446E+0	1.166884E+0	1.217747E+0	1.168720E+0	1.152725E+0	1.188622E+0	1.215420E+0	1.196007E+0	1.259412E+0	1.144575E+0	1.200261E+0	1.152551E+0	1.226928E+0	1.161520E+0	1.186080E+0	1.192032E+0	1.189248E+0	1.202620E+0	1.188455E+0	1.187397E+0	1.177627E+0	1.146355E+0	1.160529E+0	1.210325E+0	1.185849E+0	1.186636E+0	1.231437E+0	1.210559E+0	1.172208E+0	1.116753E+0	1.145754E+0	1.185727E+0	1.175515E+0	1.173565E+0	1.159028E+0	1.169008E+0	1.146054E+0	1.163889E+0	1.182262E+0	1.133929E+0	1.183604E+0	1.165872E+0	1.137246E+0	1.186561E+0	1.179946E+0	1.287812E+0	1.204179E+0	1.202442E+0	1.155911E+0	1.176733E+0	1.157784E+0	1.194548E+0	1.175811E+0	1.174489E+0	1.223939E+0	1.175249E+0	1.175607E+0	1.177370E+0	1.131511E+0	1.136371E+0	1.192388E+0	1.155910E+0	1.178197E+0	1.169457E+0	1.192418E+0	1.176997E+0	1.200024E+0	1.170626E+0	1.154871E+0	1.229983E+0	1.192644E+0	1.243103E+0	1.182238E+0	1.104962E+0	1.214488E+0	1.146349E+0	1.126468E+0	1.232352E+0	1.184036E+0	1.194334E+0	1.147244E+0	1.190265E+0	1.199611E+0	1.162880E+0	1.182775E+0	1.209012E+0	1.229093E+0	1.163826E+0	1.223385E+0	1.198937E+0	1.236708E+0	1.215500E+0	1.172888E+0	1.183227E+0	1.203673E+0	1.130700E+0	1.163796E+0	1.134550E+0	1.249358E+0	1.229181E+0	1.166441E+0	1.176949E+0	1.206840E+0	1.157942E+0	1.144357E+0	1.157151E+0	1.176956E+0	1.229897E+0	1.165638E+0	1.188398E+0	1.191930E+0	1.183403E+0	1.193049E+0	1.137820E+0	1.190871E+0	1.167044E+0	1.127119E+0	1.227438E+0	1.165043E+0	1.141905E+0	1.205390E+0	1.178228E+0	1.165796E+0	1.225617E+0	1.175444E+0	1.218276E+0	1.202871E+0	1.168923E+0	1.225434E+0	1.179765E+0	1.166155E+0	1.196258E+0	1.199195E+0	1.172144E+0	1.180887E+0	1.174990E+0	1.170642E+0	1.195016E+0	1.148889E+0	1.127091E+0	1.186226E+0
5.420160E+2	1.090871E+0	1.101853E+0	1.052245E+0	1.059041E+0	1.072447E+0	1.105249E+0	1.081071E+0	1.118989E+0	1.084057E+0	1.075836E+0	1.045390E+0	1.084032E+0	1.083441E+0	1.084792E+0	1.072611E+0	1.049974E+0	1.082276E+0	1.099631E+0	1.090209E+0	1.057228E+0	1.026714E+0	1.097554E+0	1.068310E+0	1.056740E+0	1.051614E+0	1.041651E+0	1.089559E+0	1.058612E+0	1.078124E+0	1.071750E+0	1.030041E+0	1.070430E+0	1.059174E+0	1.016754E+0	1.065223E+0	1.046029E+0	1.084029E+0	1.056586E+0	1.067441E+0	1.059124E+0	1.092150E+0	1.049632E+0	1.061351E+0	1.060854E+0	1.073124E+0	1.079215E+0	1.073876E+0	1.073424E+0	1.062965E+0	1.066020E+0	1.038422E+0	1.048760E+0	1.086062E+0	1.106554E+0	1.041464E+0	1.042182E+0	1.112563E+0	1.093527E+0	1.024544E+0	1.056915E+0	1.101880E+0	1.049638E+0	1.109918E+0	1.080277E+0	1.072107E+0	1.058891E+0	1.075708E+0	1.080484E+0	1.104211E+0	1.091636E+0	1.055030E+0	1.068927E+0	1.076777E+0	1.124840E+0	1.033505E+0	1.076351E+0	1.087129E+0	1.089994E+0	1.065770E+0	1.077766E+0	1.077832E+0	1.084553E+0	1.064175E+0	1.062109E+0	1.093477E+0	1.057405E+0	1.084542E+0	1.032498E+0	1.064210E+0	1.047151E+0	1.067326E+0	1.071066E+0	1.059637E+0	1.079293E+0	1.056579E+0	1.053111E+0	1.097557E+0	1.057705E+0	1.054817E+0	1.090400E+0	1.035580E+0	1.097903E+0	1.046426E+0	1.076344E+0	1.069582E+0	1.077210E+0	1.047402E+0	1.077933E+0	1.049865E+0	1.078857E+0	1.093116E+0	1.097429E+0	1.075762E+0	1.014805E+0	1.087786E+0	1.066677E+0	1.076031E+0	1.060124E+0	1.099856E+0	1.020733E+0	1.083484E+0	1.014890E+0	1.057757E+0	1.061968E+0	1.072797E+0	1.028653E+0	1.106582E+0	1.077156E+0	1.056271E+0	1.059291E+0	1.070712E+0	1.087512E+0	1.058783E+0	1.064238E+0	1.068129E+0	1.075974E+0	1.103160E+0	9.682054E-1	1.098835E+0	1.057835E+0	1.036123E+0	1.070612E+0	1.024141E+0	1.019208E+0	1.008817E+0	1.054991E+0	1.091558E+0	1.059775E+0	1.057181E+0	1.004749E+0	1.059474E+0	1.074869E+0	1.067694E+0	1.017306E+0	1.088272E+0	1.067800E+0	1.060822E+0	1.051151E+0	1.054843E+0	1.060531E+0	1.075630E+0	1.115535E+0	1.108127E+0	1.059182E+0	1.105528E+0	1.031118E+0	1.061556E+0	1.065952E+0	1.053295E+0	9.829576E-1	1.000945E+0
5.422670E+2	9.386540E-1	9.304350E-1	9.577479E-1	9.693337E-1	9.329114E-1	9.787892E-1	9.496900E-1	9.562023E-1	9.533152E-1	9.487718E-1	9.396437E-1	9.432072E-1	9.542045E-1	9.314393E-1	9.364689E-1	9.266502E-1	8.956616E-1	9.431609E-1	9.204014E-1	9.179098E-1	9.313278E-1	9.639038E-1	9.804555E-1	9.251306E-1	9.235584E-1	9.543787E-1	9.584660E-1	9.565097E-1	9.423519E-1	9.529987E-1	9.551871E-1	9.515581E-1	9.698283E-1	9.159642E-1	9.289674E-1	9.496400E-1	9.674984E-1	8.883203E-1	9.410622E-1	9.578484E-1	9.597897E-1	9.329677E-1	9.918041E-1	9.191229E-1	9.493563E-1	9.553754E-1	9.461758E-1	9.497547E-1	9.071904E-1	9.396017E-1	9.625787E-1	9.537905E-1	9.777859E-1	9.443765E-1	9.433819E-1	8.520020E-1	9.549905E-1	9.322915E-1	9.451680E-1	9.461220E-1	8.891682E-1	9.901960E-1	9.284245E-1	9.476746E-1	1.006096E+0	9.597038E-1	9.396727E-1	9.242033E-1	9.428640E-1	9.326753E-1	9.698975E-1	9.329056E-1	1.006754E+0	9.531993E-1	9.479504E-1	9.752622E-1	9.231565E-1	9.346334E-1	9.554105E-1	9.444975E-1	9.548196E-1	9.332547E-1	9.232387E-1	9.399279E-1	9.656127E-1	9.322623E-1	9.589989E-1	9.732469E-1	9.601752E-1	9.559074E-1	9.924459E-1	8.962648E-1	9.504752E-1	9.365612E-1	9.090589E-1	9.339933E-1	9.635132E-1	9.316661E-1	9.384689E-1	9.384676E-1	9.310267E-1	9.668073E-1	9.367955E-1	9.658511E-1	9.225453E-1	9.985995E-1	9.391216E-1	9.673585E-1	9.423142E-1	9.700098E-1	9.372079E-1	9.605294E-1	9.428350E-1	9.386848E-1	9.362088E-1	9.487304E-1	9.567977E-1	9.136837E-1	9.732272E-1	9.315008E-1	9.480138E-1	9.487225E-1	9.153717E-1	9.203261E-1	1.001810E+0	9.490008E-1	9.777465E-1	9.718799E-1	9.973565E-1	9.162113E-1	9.133874E-1	9.505866E-1	9.481542E-1	9.336340E-1	9.493406E-1	9.443569E-1	9.809947E-1	9.921911E-1	9.432740E-1	9.620578E-1	9.402797E-1	9.521575E-1	9.266015E-1	9.516895E-1	9.365563E-1	9.577820E-1	9.418607E-1	9.800084E-1	9.691810E-1	9.196329E-1	9.565059E-1	9.763295E-1	9.377868E-1	9.848544E-1	9.401521E-1	9.310299E-1	9.116677E-1	9.785650E-1	9.702746E-1	9.399396E-1	9.347319E-1	9.153239E-1	9.163060E-1	9.130371E-1	9.748951E-1	9.679687E-1	1.003675E+0	1.015312E+0	1.033756E+0	9.695790E-1	8.696538E-1
5.425300E+2	9.278368E-1	9.791054E-1	9.627732E-1	9.521996E-1	9.105410E-1	9.203527E-1	9.582559E-1	9.353473E-1	9.318469E-1	9.520675E-1	9.194573E-1	9.117803E-1	9.388698E-1	9.160279E-1	9.484375E-1	9.544042E-1	9.299527E-1	9.535060E-1	9.390954E-1	8.949847E-1	9.177881E-1	9.229497E-1	9.309533E-1	9.458188E-1	9.545166E-1	9.693063E-1	9.733344E-1	9.465067E-1	9.683494E-1	9.194559E-1	8.935498E-1	9.439900E-1	9.610042E-1	9.024381E-1	9.452491E-1	9.392128E-1	9.498922E-1	9.441946E-1	9.298347E-1	8.992637E-1	9.723204E-1	9.497275E-1	9.424929E-1	9.388130E-1	9.395200E-1	9.132366E-1	9.344093E-1	9.670983E-1	9.433447E-1	9.183723E-1	9.175085E-1	9.404527E-1	9.761717E-1	9.812176E-1	9.566684E-1	9.139798E-1	9.469793E-1	9.842425E-1	9.142851E-1	8.866059E-1	9.609227E-1	9.873710E-1	9.412099E-1	9.299780E-1	9.368870E-1	9.034045E-1	9.241899E-1	9.694667E-1	9.427169E-1	9.394009E-1	9.776696E-1	9.448701E-1	9.194588E-1	9.568477E-1	9.636708E-1	9.269817E-1	9.536130E-1	9.621708E-1	9.223494E-1	9.130901E-1	9.683069E-1	9.089976E-1	9.022184E-1	9.363897E-1	9.159776E-1	9.577826E-1	9.180139E-1	9.576226E-1	9.217499E-1	9.370897E-1	9.131081E-1	9.877799E-1	9.450876E-1	9.288810E-1	9.191111E-1	9.488161E-1	9.075317E-1	9.028253E-1	8.942020E-1	9.596620E-1	9.155178E-1	9.585381E-1	9.392855E-1	9.425425E-1	9.698268E-1	9.802875E-1	9.361612E-1	9.439266E-1	9.631113E-1	9.340952E-1	9.348928E-1	9.027404E-1	9.001803E-1	9.363969E-1	8.788658E-1	9.348234E-1	9.559889E-1	9.565948E-1	9.630784E-1	9.157103E-1	9.313528E-1	9.407203E-1	9.350934E-1	9.463347E-1	9.368887E-1	9.089688E-1	9.280341E-1	9.389922E-1	9.601572E-1	9.356659E-1	9.766977E-1	9.232546E-1	9.424142E-1	9.204659E-1	9.304752E-1	9.341092E-1	9.494560E-1	9.560827E-1	9.922662E-1	9.174256E-1	9.408348E-1	9.446480E-1	9.340999E-1	8.877323E-1	9.286816E-1	9.205378E-1	9.124817E-1	9.371564E-1	9.264791E-1	8.956615E-1	9.159078E-1	9.339452E-1	9.071699E-1	9.927490E-1	9.245944E-1	9.256467E-1	9.484115E-1	9.507954E-1	9.169796E-1	9.112669E-1	9.896473E-1	9.596224E-1	9.695994E-1	9.714805E-1	9.501420E-1	9.297728E-1	9.342358E-1	9.737957E-1	9.725121E-1	9.609941E-1	9.132740E-1
5.427600E+2	1.038321E+0	1.044171E+0	1.028995E+0	1.022242E+0	1.015746E+0	1.005913E+0	1.048945E+0	1.045832E+0	9.990017E-1	1.037451E+0	1.052154E+0	1.005482E+0	1.006083E+0	9.724217E-1	9.769423E-1	1.024387E+0	9.672141E-1	1.028597E+0	1.013091E+0	1.015294E+0	1.011320E+0	1.020786E+0	1.018655E+0	1.036404E+0	9.878139E-1	9.990201E-1	9.950331E-1	1.027397E+0	1.013391E+0	1.017408E+0	1.045057E+0	1.009098E+0	1.079188E+0	1.022325E+0	1.018582E+0	9.924653E-1	9.854141E-1	1.030528E+0	1.034274E+0	9.928850E-1	1.061736E+0	1.010776E+0	1.037806E+0	9.897774E-1	1.035286E+0	9.900302E-1	1.051180E+0	9.766517E-1	9.871126E-1	9.972919E-1	1.034341E+0	1.027276E+0	9.984747E-1	1.052596E+0	1.047537E+0	1.014164E+0	1.057032E+0	1.012061E+0	9.836167E-1	9.816015E-1	1.068548E+0	1.048886E+0	1.020853E+0	1.017503E+0	1.026681E+0	9.682425E-1	9.715772E-1	1.015288E+0	1.029532E+0	1.023980E+0	1.011127E+0	1.012415E+0	1.027305E+0	1.067940E+0	1.032601E+0	9.970856E-1	1.005029E+0	1.011680E+0	1.046315E+0	1.016706E+0	1.056771E+0	9.872985E-1	1.052846E+0	1.015950E+0	1.008442E+0	1.019325E+0	1.004736E+0	9.987774E-1	9.648602E-1	9.818855E-1	1.022954E+0	9.597156E-1	9.885128E-1	1.022818E+0	9.611801E-1	1.007631E+0	1.048386E+0	1.023410E+0	1.006172E+0	1.056078E+0	9.967962E-1	1.006003E+0	1.035094E+0	1.000701E+0	9.946189E-1	1.024785E+0	9.548835E-1	1.054267E+0	1.010029E+0	1.038551E+0	9.641000E-1	1.017194E+0	9.668823E-1	1.002983E+0	1.004555E+0	9.790316E-1	1.012208E+0	1.010668E+0	1.051786E+0	9.748262E-1	1.042252E+0	1.023418E+0	1.011841E+0	1.036897E+0	1.017674E+0	1.021965E+0	1.019450E+0	1.006114E+0	1.027150E+0	9.940676E-1	1.022271E+0	1.004620E+0	1.010841E+0	1.046293E+0	1.039719E+0	9.938828E-1	1.002815E+0	1.059117E+0	9.925737E-1	1.028583E+0	1.015162E+0	9.924793E-1	1.002762E+0	1.032024E+0	1.023947E+0	9.763891E-1	1.002595E+0	1.019520E+0	1.015157E+0	9.840319E-1	1.014368E+0	1.015004E+0	1.050422E+0	1.040738E+0	9.969440E-1	1.028744E+0	1.005329E+0	9.698709E-1	1.050011E+0	1.051411E+0	1.045285E+0	1.006449E+0	9.493892E-1	1.044784E+0	9.633432E-1	1.012364E+0	9.965792E-1	1.035341E+0	1.045708E+0	9.601051E-1	9.486822E-1
5.430120E+2	1.138716E+0	1.152466E+0	1.185540E+0	1.195287E+0	1.129906E+0	1.156514E+0	1.180336E+0	1.156772E+0	1.122555E+0	1.160902E+0	1.145850E+0	1.134039E+0	1.159284E+0	1.118228E+0	1.131399E+0	1.129193E+0	1.129935E+0	1.160050E+0	1.149516E+0	1.169941E+0	1.172519E+0	1.199453E+0	1.184210E+0	1.164580E+0	1.158498E+0	1.165135E+0	1.184841E+0	1.162320E+0	1.168691E+0	1.135036E+0	1.107832E+0	1.111021E+0	1.189189E+0	1.136440E+0	1.111801E+0	1.138617E+0	1.159986E+0	1.104600E+0	1.128267E+0	1.111878E+0	1.145916E+0	1.185505E+0	1.135870E+0	1.111040E+0	1.156703E+0	1.206451E+0	1.138656E+0	1.135270E+0	1.123853E+0	1.112491E+0	1.177733E+0	1.176593E+0	1.172889E+0	1.168437E+0	1.198763E+0	1.102380E+0	1.191099E+0	1.104323E+0	1.138790E+0	1.149799E+0	1.137188E+0	1.135135E+0	1.132100E+0	1.182660E+0	1.202863E+0	1.094626E+0	1.082467E+0	1.139710E+0	1.153537E+0	1.196282E+0	1.156895E+0	1.127770E+0	1.188335E+0	1.140547E+0	1.143081E+0	1.207626E+0	1.165359E+0	1.144588E+0	1.098257E+0	1.181098E+0	1.132134E+0	1.213218E+0	1.135178E+0	1.129883E+0	1.124202E+0	1.141956E+0	1.120978E+0	1.144014E+0	1.124867E+0	1.145924E+0	1.116025E+0	1.111970E+0	1.160415E+0	1.129056E+0	1.160901E+0	1.126748E+0	1.159874E+0	1.123124E+0	1.172800E+0	1.158385E+0	1.124382E+0	1.164236E+0	1.159367E+0	1.140534E+0	1.114235E+0	1.129715E+0	1.122996E+0	1.133173E+0	1.111547E+0	1.145358E+0	1.126233E+0	1.155780E+0	1.126258E+0	1.159213E+0	1.205343E+0	1.126445E+0	1.163427E+0	1.128512E+0	1.141567E+0	1.120551E+0	1.107948E+0	1.148986E+0	1.215882E+0	1.131103E+0	1.135535E+0	1.130458E+0	1.182076E+0	1.166534E+0	1.180088E+0	1.127379E+0	1.179551E+0	1.132416E+0	1.172136E+0	1.171934E+0	1.137722E+0	1.163834E+0	1.131455E+0	1.153406E+0	1.155142E+0	1.143649E+0	1.122562E+0	1.062457E+0	1.121763E+0	1.106564E+0	1.145336E+0	1.189721E+0	1.101833E+0	1.135580E+0	1.120265E+0	1.152618E+0	1.203018E+0	1.145313E+0	1.173556E+0	1.208102E+0	1.166155E+0	1.126789E+0	1.150694E+0	1.117992E+0	1.218274E+0	1.145869E+0	1.130656E+0	1.140895E+0	1.126446E+0	1.088274E+0	1.144639E+0	1.083385E+0	1.127989E+0	1.168454E+0	1.181030E+0	1.128336E+0	1.244893E+0
5.433070E+2	1.353580E+0	1.376665E+0	1.367854E+0	1.308126E+0	1.338872E+0	1.374565E+0	1.342444E+0	1.340960E+0	1.300593E+0	1.311576E+0	1.286276E+0	1.323381E+0	1.333591E+0	1.373051E+0	1.321844E+0	1.362293E+0	1.318791E+0	1.333610E+0	1.321890E+0	1.276667E+0	1.359034E+0	1.330694E+0	1.308957E+0	1.351162E+0	1.306436E+0	1.347718E+0	1.333118E+0	1.353310E+0	1.361078E+0	1.309022E+0	1.324841E+0	1.340366E+0	1.342366E+0	1.331582E+0	1.362126E+0	1.324323E+0	1.339873E+0	1.299690E+0	1.305805E+0	1.342196E+0	1.326741E+0	1.324560E+0	1.378998E+0	1.340054E+0	1.314517E+0	1.358211E+0	1.327730E+0	1.352185E+0	1.341750E+0	1.384728E+0	1.319562E+0	1.355161E+0	1.276841E+0	1.352417E+0	1.357363E+0	1.383815E+0	1.373123E+0	1.382218E+0	1.297129E+0	1.337172E+0	1.280492E+0	1.333594E+0	1.300375E+0	1.352938E+0	1.361344E+0	1.280182E+0	1.323833E+0	1.370403E+0	1.300585E+0	1.335658E+0	1.320154E+0	1.346688E+0	1.326499E+0	1.358888E+0	1.318262E+0	1.368194E+0	1.311649E+0	1.341196E+0	1.357035E+0	1.308266E+0	1.365660E+0	1.291520E+0	1.375117E+0	1.327128E+0	1.307732E+0	1.356593E+0	1.337387E+0	1.328787E+0	1.322580E+0	1.343310E+0	1.308701E+0	1.328466E+0	1.334272E+0	1.310037E+0	1.297417E+0	1.361259E+0	1.300182E+0	1.332606E+0	1.367897E+0	1.298340E+0	1.316835E+0	1.381594E+0	1.347798E+0	1.397392E+0	1.312255E+0	1.300743E+0	1.280638E+0	1.364126E+0	1.343488E+0	1.329258E+0	1.335717E+0	1.336072E+0	1.322610E+0	1.313169E+0	1.370877E+0	1.357301E+0	1.291923E+0	1.376573E+0	1.358139E+0	1.309780E+0	1.351390E+0	1.310969E+0	1.377232E+0	1.318232E+0	1.305039E+0	1.309591E+0	1.302562E+0	1.350026E+0	1.329065E+0	1.325059E+0	1.330082E+0	1.355549E+0	1.355312E+0	1.325439E+0	1.296466E+0	1.318823E+0	1.309561E+0	1.362875E+0	1.285394E+0	1.304446E+0	1.267523E+0	1.350923E+0	1.316278E+0	1.324929E+0	1.339522E+0	1.356285E+0	1.328425E+0	1.323723E+0	1.274976E+0	1.333274E+0	1.372934E+0	1.356182E+0	1.311038E+0	1.351452E+0	1.287861E+0	1.376598E+0	1.323273E+0	1.288496E+0	1.329290E+0	1.317859E+0	1.294588E+0	1.327200E+0	1.287161E+0	1.324219E+0	1.323020E+0	1.313050E+0	1.342306E+0	1.309118E+0	1.297039E+0	1.358128E+0	1.345110E+0
5.435220E+2	1.440552E+0	1.534997E+0	1.450891E+0	1.463496E+0	1.459538E+0	1.515259E+0	1.475419E+0	1.454386E+0	1.464130E+0	1.496854E+0	1.442006E+0	1.411451E+0	1.543374E+0	1.438576E+0	1.442957E+0	1.479169E+0	1.472764E+0	1.444692E+0	1.414663E+0	1.422781E+0	1.476811E+0	1.481816E+0	1.464654E+0	1.441834E+0	1.450073E+0	1.482602E+0	1.446990E+0	1.422566E+0	1.514912E+0	1.414938E+0	1.461387E+0	1.442602E+0	1.449379E+0	1.456205E+0	1.482282E+0	1.450887E+0	1.465943E+0	1.478691E+0	1.493365E+0	1.436971E+0	1.431889E+0	1.455153E+0	1.499454E+0	1.437939E+0	1.478734E+0	1.468926E+0	1.481624E+0	1.489119E+0	1.469179E+0	1.469824E+0	1.458275E+0	1.462433E+0	1.466175E+0	1.495084E+0	1.426854E+0	1.446968E+0	1.471617E+0	1.427664E+0	1.381926E+0	1.475434E+0	1.499457E+0	1.443766E+0	1.413593E+0	1.453005E+0	1.454544E+0	1.472929E+0	1.419781E+0	1.501409E+0	1.474360E+0	1.479506E+0	1.437151E+0	1.442336E+0	1.402747E+0	1.440164E+0	1.381804E+0	1.471825E+0	1.436691E+0	1.445447E+0	1.458469E+0	1.443096E+0	1.440030E+0	1.438715E+0	1.424294E+0	1.424140E+0	1.421128E+0	1.434844E+0	1.455096E+0	1.440528E+0	1.422366E+0	1.410252E+0	1.439970E+0	1.450152E+0	1.423905E+0	1.413030E+0	1.427641E+0	1.460852E+0	1.398823E+0	1.435309E+0	1.462642E+0	1.424466E+0	1.463776E+0	1.498048E+0	1.477269E+0	1.473186E+0	1.391701E+0	1.472978E+0	1.443876E+0	1.443322E+0	1.451407E+0	1.467965E+0	1.456312E+0	1.463612E+0	1.447273E+0	1.434140E+0	1.413795E+0	1.441263E+0	1.444058E+0	1.500610E+0	1.472932E+0	1.403620E+0	1.395052E+0	1.417182E+0	1.503488E+0	1.436367E+0	1.480430E+0	1.464288E+0	1.432000E+0	1.444055E+0	1.448842E+0	1.434373E+0	1.472387E+0	1.390113E+0	1.422458E+0	1.488366E+0	1.474495E+0	1.458145E+0	1.467610E+0	1.460396E+0	1.420626E+0	1.471208E+0	1.458726E+0	1.425297E+0	1.420814E+0	1.436718E+0	1.379778E+0	1.450517E+0	1.457997E+0	1.461581E+0	1.455593E+0	1.405622E+0	1.485298E+0	1.455904E+0	1.459046E+0	1.432718E+0	1.385493E+0	1.437644E+0	1.419556E+0	1.424785E+0	1.457259E+0	1.405044E+0	1.438080E+0	1.446961E+0	1.415956E+0	1.443515E+0	1.454903E+0	1.404974E+0	1.481939E+0	1.460506E+0	1.434296E+0	1.490641E+0	1.427669E+0
5.437690E+2	1.584065E+0	1.631675E+0	1.605719E+0	1.578132E+0	1.605446E+0	1.624412E+0	1.602099E+0	1.555414E+0	1.533282E+0	1.620327E+0	1.566456E+0	1.569651E+0	1.568048E+0	1.566011E+0	1.590553E+0	1.534673E+0	1.629953E+0	1.598954E+0	1.534252E+0	1.534672E+0	1.581555E+0	1.597908E+0	1.623278E+0	1.572935E+0	1.562079E+0	1.562025E+0	1.565745E+0	1.581919E+0	1.556842E+0	1.558407E+0	1.640314E+0	1.535748E+0	1.574637E+0	1.573727E+0	1.544704E+0	1.560337E+0	1.531865E+0	1.582170E+0	1.545049E+0	1.534932E+0	1.591456E+0	1.613520E+0	1.566164E+0	1.511247E+0	1.539473E+0	1.566054E+0	1.565283E+0	1.598649E+0	1.551975E+0	1.601380E+0	1.515099E+0	1.554604E+0	1.612516E+0	1.630925E+0	1.578312E+0	1.543243E+0	1.606371E+0	1.561325E+0	1.543100E+0	1.541677E+0	1.554722E+0	1.555823E+0	1.597230E+0	1.537524E+0	1.566203E+0	1.517997E+0	1.536044E+0	1.567907E+0	1.571820E+0	1.495348E+0	1.572283E+0	1.605981E+0	1.562740E+0	1.551449E+0	1.621908E+0	1.569488E+0	1.576358E+0	1.555843E+0	1.541677E+0	1.600029E+0	1.533024E+0	1.568401E+0	1.574992E+0	1.590806E+0	1.540847E+0	1.549728E+0	1.520348E+0	1.600931E+0	1.584438E+0	1.563216E+0	1.554791E+0	1.557797E+0	1.552439E+0	1.551699E+0	1.527256E+0	1.530102E+0	1.553368E+0	1.551281E+0	1.578230E+0	1.528699E+0	1.547625E+0	1.602182E+0	1.534088E+0	1.520012E+0	1.527565E+0	1.620837E+0	1.511057E+0	1.652020E+0	1.594286E+0	1.590090E+0	1.578188E+0	1.545234E+0	1.522643E+0	1.523242E+0	1.537721E+0	1.516707E+0	1.563589E+0	1.547479E+0	1.526457E+0	1.538346E+0	1.595424E+0	1.573575E+0	1.556321E+0	1.528809E+0	1.496552E+0	1.512472E+0	1.611519E+0	1.532149E+0	1.588858E+0	1.526570E+0	1.556059E+0	1.555776E+0	1.531370E+0	1.527950E+0	1.581204E+0	1.526069E+0	1.498088E+0	1.567061E+0	1.544351E+0	1.560190E+0	1.561184E+0	1.573847E+0	1.598245E+0	1.506378E+0	1.492638E+0	1.538149E+0	1.522605E+0	1.540272E+0	1.545815E+0	1.551600E+0	1.575546E+0	1.554364E+0	1.510699E+0	1.560295E+0	1.533084E+0	1.567590E+0	1.507673E+0	1.549451E+0	1.573386E+0	1.584366E+0	1.564280E+0	1.585265E+0	1.528984E+0	1.575534E+0	1.517539E+0	1.565718E+0	1.624532E+0	1.638784E+0	1.517905E+0	1.448957E+0	1.531549E+0
5.440170E+2	1.610885E+0	1.593907E+0	1.622250E+0	1.615400E+0	1.582680E+0	1.635058E+0	1.567508E+0	1.667178E+0	1.564216E+0	1.612961E+0	1.564103E+0	1.577481E+0	1.644106E+0	1.597043E+0	1.589466E+0	1.576834E+0	1.612421E+0	1.576609E+0	1.597873E+0	1.600253E+0	1.600409E+0	1.579966E+0	1.636831E+0	1.529954E+0	1.604866E+0	1.583654E+0	1.575717E+0	1.584505E+0	1.581081E+0	1.604835E+0	1.564343E+0	1.594022E+0	1.584879E+0	1.560035E+0	1.597352E+0	1.596734E+0	1.598522E+0	1.581122E+0	1.573865E+0	1.614611E+0	1.607235E+0	1.595590E+0	1.640662E+0	1.570505E+0	1.553992E+0	1.557430E+0	1.607177E+0	1.588827E+0	1.556741E+0	1.552491E+0	1.628625E+0	1.633938E+0	1.593860E+0	1.632920E+0	1.578870E+0	1.575787E+0	1.587143E+0	1.635913E+0	1.548704E+0	1.583772E+0	1.534007E+0	1.515542E+0	1.584762E+0	1.582342E+0	1.614984E+0	1.591575E+0	1.603540E+0	1.562568E+0	1.585539E+0	1.587492E+0	1.540867E+0	1.589499E+0	1.579815E+0	1.589119E+0	1.581581E+0	1.585251E+0	1.555675E+0	1.576042E+0	1.567410E+0	1.543320E+0	1.541711E+0	1.576576E+0	1.562578E+0	1.555685E+0	1.548670E+0	1.585103E+0	1.599057E+0	1.546828E+0	1.465024E+0	1.588165E+0	1.581437E+0	1.567336E+0	1.574302E+0	1.529249E+0	1.597785E+0	1.564763E+0	1.570310E+0	1.535191E+0	1.529442E+0	1.586906E+0	1.524933E+0	1.573721E+0	1.554918E+0	1.589832E+0	1.526110E+0	1.606247E+0	1.532065E+0	1.537876E+0	1.528737E+0	1.633722E+0	1.579726E+0	1.547401E+0	1.557996E+0	1.537601E+0	1.543645E+0	1.616207E+0	1.549949E+0	1.532058E+0	1.604544E+0	1.487307E+0	1.618365E+0	1.497851E+0	1.548479E+0	1.586352E+0	1.558812E+0	1.544324E+0	1.565987E+0	1.575977E+0	1.626223E+0	1.559005E+0	1.535129E+0	1.567634E+0	1.551002E+0	1.590377E+0	1.547258E+0	1.571437E+0	1.523391E+0	1.521215E+0	1.601024E+0	1.561427E+0	1.513753E+0	1.626845E+0	1.540625E+0	1.504245E+0	1.543945E+0	1.568083E+0	1.534199E+0	1.576894E+0	1.540851E+0	1.555766E+0	1.570933E+0	1.543996E+0	1.570991E+0	1.583456E+0	1.555841E+0	1.545625E+0	1.524073E+0	1.562177E+0	1.570037E+0	1.545356E+0	1.540584E+0	1.551053E+0	1.558944E+0	1.519636E+0	1.474730E+0	1.529600E+0	1.566086E+0	1.525760E+0	1.553778E+0	1.526192E+0	1.500558E+0
5.442920E+2	1.612584E+0	1.632269E+0	1.625007E+0	1.567485E+0	1.616736E+0	1.665740E+0	1.637618E+0	1.625911E+0	1.512410E+0	1.664816E+0	1.644516E+0	1.630699E+0	1.645779E+0	1.534211E+0	1.613016E+0	1.597826E+0	1.632207E+0	1.625986E+0	1.640714E+0	1.635367E+0	1.605730E+0	1.665327E+0	1.608108E+0	1.625403E+0	1.583986E+0	1.586782E+0	1.595212E+0	1.585801E+0	1.591948E+0	1.609185E+0	1.560340E+0	1.621217E+0	1.620842E+0	1.582063E+0	1.648414E+0	1.606963E+0	1.617549E+0	1.577875E+0	1.614842E+0	1.585671E+0	1.627233E+0	1.586159E+0	1.626149E+0	1.637492E+0	1.551694E+0	1.619441E+0	1.655279E+0	1.646007E+0	1.588563E+0	1.614424E+0	1.617054E+0	1.589158E+0	1.565780E+0	1.623328E+0	1.616552E+0	1.571051E+0	1.592214E+0	1.575821E+0	1.560118E+0	1.594232E+0	1.584777E+0	1.623199E+0	1.538763E+0	1.568720E+0	1.628160E+0	1.589952E+0	1.556316E+0	1.557939E+0	1.581733E+0	1.555272E+0	1.567245E+0	1.637624E+0	1.544595E+0	1.607903E+0	1.609316E+0	1.604101E+0	1.514290E+0	1.549302E+0	1.587426E+0	1.638207E+0	1.617470E+0	1.583746E+0	1.626766E+0	1.577030E+0	1.550759E+0	1.571548E+0	1.639548E+0	1.623820E+0	1.595305E+0	1.630496E+0	1.597131E+0	1.528860E+0	1.601030E+0	1.612880E+0	1.565285E+0	1.565569E+0	1.547923E+0	1.573680E+0	1.576927E+0	1.578217E+0	1.555538E+0	1.616685E+0	1.609101E+0	1.540284E+0	1.552170E+0	1.602882E+0	1.589544E+0	1.608078E+0	1.593157E+0	1.611803E+0	1.533126E+0	1.570382E+0	1.489499E+0	1.591550E+0	1.597452E+0	1.594254E+0	1.539005E+0	1.544288E+0	1.621059E+0	1.565337E+0	1.615622E+0	1.611481E+0	1.588715E+0	1.527189E+0	1.556672E+0	1.562776E+0	1.546509E+0	1.541529E+0	1.664229E+0	1.508153E+0	1.596056E+0	1.562684E+0	1.567056E+0	1.633909E+0	1.602168E+0	1.592205E+0	1.619704E+0	1.629443E+0	1.517946E+0	1.602323E+0	1.516519E+0	1.596977E+0	1.520184E+0	1.479226E+0	1.558527E+0	1.579922E+0	1.568347E+0	1.623760E+0	1.560723E+0	1.590142E+0	1.592997E+0	1.565778E+0	1.545739E+0	1.560450E+0	1.509957E+0	1.575941E+0	1.559689E+0	1.591953E+0	1.565828E+0	1.505365E+0	1.615587E+0	1.566650E+0	1.520069E+0	1.554288E+0	1.489316E+0	1.576612E+0	1.553344E+0	1.600449E+0	1.554099E+0	1.476371E+0	1.616402E+0
5.445240E+2	1.580187E+0	1.562885E+0	1.575796E+0	1.562041E+0	1.546745E+0	1.581686E+0	1.554588E+0	1.599881E+0	1.490474E+0	1.557915E+0	1.523482E+0	1.580272E+0	1.584114E+0	1.495050E+0	1.581728E+0	1.579389E+0	1.573753E+0	1.533069E+0	1.511444E+0	1.550759E+0	1.524547E+0	1.546865E+0	1.557544E+0	1.576091E+0	1.484412E+0	1.531566E+0	1.560199E+0	1.583199E+0	1.527824E+0	1.588398E+0	1.573410E+0	1.567727E+0	1.558463E+0	1.596771E+0	1.527674E+0	1.560783E+0	1.533922E+0	1.524477E+0	1.583344E+0	1.603432E+0	1.547665E+0	1.606802E+0	1.566368E+0	1.559557E+0	1.511860E+0	1.572963E+0	1.548378E+0	1.586413E+0	1.503245E+0	1.590804E+0	1.585419E+0	1.544233E+0	1.558539E+0	1.544559E+0	1.557958E+0	1.506947E+0	1.597654E+0	1.608114E+0	1.575454E+0	1.529597E+0	1.550304E+0	1.543805E+0	1.487564E+0	1.546704E+0	1.588563E+0	1.566613E+0	1.481064E+0	1.555922E+0	1.568096E+0	1.584516E+0	1.531542E+0	1.554937E+0	1.563626E+0	1.594265E+0	1.523832E+0	1.585794E+0	1.549703E+0	1.555624E+0	1.556268E+0	1.551688E+0	1.582227E+0	1.607399E+0	1.565458E+0	1.541666E+0	1.569498E+0	1.583844E+0	1.561218E+0	1.553579E+0	1.551395E+0	1.584195E+0	1.553373E+0	1.547682E+0	1.526815E+0	1.545846E+0	1.539519E+0	1.530165E+0	1.524888E+0	1.504060E+0	1.561844E+0	1.559404E+0	1.537224E+0	1.616755E+0	1.533233E+0	1.577063E+0	1.570850E+0	1.548829E+0	1.526306E+0	1.560816E+0	1.562909E+0	1.577770E+0	1.525570E+0	1.531664E+0	1.557002E+0	1.566320E+0	1.537206E+0	1.567057E+0	1.555210E+0	1.546877E+0	1.505906E+0	1.516938E+0	1.517183E+0	1.590867E+0	1.568101E+0	1.581082E+0	1.570920E+0	1.520980E+0	1.558860E+0	1.569809E+0	1.526586E+0	1.571338E+0	1.595182E+0	1.544741E+0	1.502677E+0	1.533239E+0	1.591784E+0	1.556447E+0	1.524975E+0	1.526728E+0	1.553303E+0	1.573621E+0	1.522934E+0	1.524552E+0	1.474751E+0	1.539779E+0	1.537694E+0	1.596823E+0	1.546022E+0	1.525843E+0	1.519280E+0	1.496027E+0	1.549866E+0	1.572919E+0	1.533561E+0	1.551635E+0	1.570884E+0	1.569967E+0	1.519729E+0	1.473803E+0	1.504967E+0	1.526325E+0	1.571355E+0	1.538971E+0	1.533110E+0	1.512942E+0	1.528809E+0	1.572601E+0	1.572179E+0	1.525700E+0	1.502901E+0	1.525429E+0	1.594912E+0
5.447720E+2	1.523902E+0	1.567180E+0	1.538867E+0	1.489137E+0	1.454898E+0	1.528183E+0	1.511044E+0	1.552319E+0	1.485552E+0	1.476814E+0	1.564702E+0	1.526729E+0	1.534781E+0	1.484891E+0	1.494280E+0	1.550581E+0	1.531055E+0	1.474868E+0	1.475308E+0	1.492855E+0	1.510639E+0	1.485769E+0	1.502389E+0	1.513372E+0	1.402250E+0	1.477502E+0	1.437802E+0	1.507279E+0	1.517749E+0	1.473033E+0	1.507284E+0	1.497892E+0	1.520143E+0	1.492485E+0	1.552093E+0	1.467154E+0	1.470260E+0	1.447255E+0	1.496085E+0	1.503935E+0	1.533001E+0	1.501976E+0	1.525312E+0	1.489649E+0	1.512807E+0	1.506227E+0	1.532212E+0	1.418689E+0	1.483784E+0	1.474988E+0	1.569853E+0	1.467309E+0	1.533806E+0	1.529219E+0	1.520407E+0	1.495932E+0	1.547890E+0	1.492878E+0	1.482467E+0	1.495456E+0	1.487926E+0	1.497776E+0	1.491669E+0	1.482925E+0	1.532937E+0	1.505412E+0	1.488567E+0	1.471916E+0	1.513590E+0	1.531185E+0	1.522172E+0	1.448292E+0	1.454107E+0	1.506898E+0	1.494993E+0	1.540106E+0	1.480714E+0	1.523560E+0	1.467166E+0	1.491991E+0	1.433345E+0	1.473143E+0	1.494828E+0	1.516092E+0	1.482532E+0	1.558648E+0	1.476112E+0	1.509790E+0	1.507044E+0	1.476803E+0	1.503862E+0	1.488086E+0	1.475843E+0	1.509045E+0	1.460699E+0	1.484506E+0	1.527171E+0	1.560211E+0	1.476982E+0	1.495908E+0	1.491653E+0	1.519980E+0	1.503820E+0	1.507563E+0	1.452685E+0	1.523253E+0	1.466705E+0	1.413536E+0	1.522804E+0	1.512126E+0	1.491014E+0	1.501634E+0	1.449199E+0	1.455425E+0	1.471964E+0	1.527845E+0	1.432752E+0	1.495202E+0	1.480474E+0	1.421922E+0	1.439619E+0	1.471333E+0	1.517286E+0	1.441084E+0	1.457534E+0	1.481180E+0	1.493911E+0	1.479930E+0	1.512261E+0	1.432136E+0	1.467861E+0	1.491668E+0	1.475166E+0	1.488392E+0	1.507407E+0	1.479884E+0	1.531213E+0	1.490875E+0	1.494451E+0	1.471805E+0	1.489492E+0	1.470639E+0	1.474130E+0	1.488265E+0	1.516371E+0	1.478395E+0	1.458152E+0	1.483745E+0	1.449303E+0	1.470947E+0	1.485174E+0	1.462135E+0	1.521030E+0	1.474986E+0	1.439301E+0	1.539255E+0	1.472864E+0	1.494146E+0	1.482953E+0	1.454931E+0	1.477609E+0	1.465938E+0	1.443498E+0	1.448231E+0	1.466627E+0	1.470185E+0	1.504509E+0	1.493175E+0	1.473560E+0	1.455264E+0	1.308585E+0
5.450150E+2	1.381499E+0	1.415684E+0	1.350947E+0	1.375442E+0	1.374697E+0	1.417698E+0	1.387796E+0	1.377084E+0	1.336242E+0	1.373353E+0	1.342058E+0	1.427674E+0	1.382226E+0	1.348121E+0	1.405436E+0	1.373650E+0	1.390517E+0	1.424149E+0	1.376334E+0	1.373839E+0	1.391466E+0	1.332520E+0	1.414297E+0	1.425303E+0	1.319233E+0	1.376940E+0	1.342435E+0	1.388333E+0	1.443783E+0	1.396357E+0	1.361460E+0	1.331165E+0	1.423354E+0	1.341366E+0	1.431823E+0	1.405676E+0	1.340668E+0	1.330136E+0	1.414371E+0	1.371577E+0	1.399418E+0	1.361224E+0	1.393834E+0	1.380483E+0	1.386642E+0	1.343114E+0	1.353278E+0	1.407081E+0	1.323749E+0	1.337312E+0	1.420993E+0	1.372616E+0	1.334753E+0	1.325808E+0	1.377086E+0	1.376076E+0	1.396806E+0	1.390354E+0	1.345338E+0	1.342620E+0	1.411531E+0	1.355236E+0	1.334662E+0	1.392749E+0	1.391523E+0	1.377444E+0	1.389197E+0	1.338275E+0	1.406074E+0	1.325635E+0	1.423202E+0	1.342980E+0	1.349076E+0	1.418125E+0	1.308417E+0	1.381177E+0	1.382541E+0	1.345510E+0	1.374856E+0	1.351576E+0	1.374274E+0	1.387214E+0	1.335079E+0	1.304753E+0	1.348734E+0	1.304269E+0	1.386563E+0	1.312991E+0	1.340524E+0	1.313620E+0	1.383366E+0	1.338675E+0	1.325519E+0	1.396907E+0	1.382604E+0	1.372477E+0	1.381409E+0	1.349990E+0	1.383552E+0	1.363955E+0	1.341652E+0	1.430256E+0	1.389070E+0	1.420973E+0	1.299074E+0	1.361187E+0	1.387261E+0	1.429497E+0	1.329429E+0	1.367075E+0	1.376716E+0	1.353640E+0	1.351939E+0	1.356172E+0	1.340629E+0	1.373838E+0	1.323288E+0	1.330748E+0	1.400061E+0	1.310189E+0	1.352620E+0	1.327597E+0	1.386086E+0	1.433434E+0	1.323705E+0	1.375151E+0	1.441567E+0	1.319388E+0	1.336260E+0	1.385993E+0	1.381024E+0	1.382123E+0	1.331489E+0	1.380695E+0	1.372046E+0	1.362146E+0	1.370865E+0	1.345556E+0	1.360883E+0	1.381747E+0	1.344656E+0	1.328406E+0	1.335867E+0	1.385617E+0	1.345570E+0	1.396244E+0	1.334707E+0	1.423950E+0	1.339684E+0	1.358740E+0	1.384291E+0	1.420377E+0	1.417112E+0	1.413784E+0	1.343554E+0	1.403233E+0	1.355071E+0	1.320431E+0	1.380631E+0	1.362724E+0	1.379340E+0	1.430653E+0	1.354772E+0	1.399659E+0	1.344352E+0	1.352293E+0	1.370708E+0	1.399512E+0	1.362237E+0	1.358139E+0	1.309575E+0
5.452580E+2	1.307346E+0	1.245436E+0	1.316428E+0	1.274125E+0	1.267981E+0	1.280629E+0	1.319544E+0	1.298086E+0	1.271379E+0	1.280751E+0	1.313658E+0	1.310317E+0	1.335188E+0	1.265002E+0	1.329158E+0	1.273978E+0	1.269263E+0	1.266545E+0	1.355230E+0	1.342997E+0	1.295305E+0	1.310469E+0	1.307794E+0	1.322150E+0	1.316451E+0	1.318188E+0	1.346574E+0	1.339359E+0	1.315223E+0	1.263509E+0	1.331433E+0	1.302302E+0	1.317502E+0	1.307126E+0	1.287456E+0	1.313798E+0	1.274577E+0	1.272449E+0	1.325791E+0	1.324268E+0	1.318173E+0	1.319502E+0	1.292037E+0	1.291869E+0	1.238106E+0	1.300238E+0	1.298332E+0	1.298418E+0	1.306670E+0	1.266928E+0	1.250777E+0	1.282383E+0	1.278022E+0	1.264510E+0	1.310575E+0	1.269876E+0	1.307296E+0	1.310682E+0	1.319304E+0	1.288190E+0	1.323379E+0	1.305442E+0	1.301229E+0	1.334949E+0	1.299950E+0	1.275541E+0	1.323497E+0	1.234108E+0	1.341180E+0	1.275103E+0	1.321981E+0	1.301630E+0	1.309418E+0	1.266872E+0	1.309533E+0	1.298968E+0	1.272312E+0	1.320124E+0	1.260498E+0	1.331700E+0	1.316771E+0	1.296135E+0	1.276318E+0	1.304495E+0	1.273911E+0	1.258104E+0	1.316295E+0	1.348620E+0	1.271735E+0	1.283773E+0	1.282950E+0	1.279758E+0	1.236708E+0	1.296760E+0	1.295630E+0	1.282856E+0	1.335808E+0	1.300555E+0	1.295909E+0	1.280691E+0	1.300544E+0	1.262195E+0	1.327502E+0	1.313028E+0	1.325722E+0	1.295199E+0	1.328747E+0	1.315231E+0	1.282911E+0	1.300760E+0	1.283966E+0	1.313674E+0	1.266717E+0	1.294622E+0	1.232320E+0	1.337804E+0	1.272568E+0	1.267025E+0	1.357606E+0	1.253011E+0	1.273558E+0	1.272071E+0	1.326248E+0	1.282231E+0	1.280904E+0	1.272619E+0	1.310393E+0	1.311895E+0	1.327324E+0	1.313946E+0	1.323314E+0	1.267392E+0	1.246009E+0	1.313646E+0	1.308583E+0	1.318976E+0	1.329262E+0	1.294496E+0	1.247929E+0	1.286023E+0	1.311399E+0	1.274354E+0	1.283945E+0	1.263308E+0	1.274021E+0	1.324316E+0	1.298668E+0	1.276970E+0	1.278268E+0	1.244345E+0	1.299313E+0	1.294215E+0	1.275855E+0	1.265454E+0	1.295102E+0	1.289674E+0	1.238318E+0	1.291115E+0	1.305701E+0	1.287784E+0	1.272892E+0	1.286922E+0	1.248276E+0	1.290319E+0	1.302454E+0	1.246710E+0	1.336606E+0	1.248910E+0	1.276640E+0	1.231049E+0	1.182623E+0
5.455500E+2	1.273523E+0	1.222070E+0	1.211765E+0	1.270354E+0	1.214512E+0	1.241961E+0	1.250291E+0	1.201306E+0	1.230148E+0	1.233839E+0	1.209691E+0	1.181771E+0	1.207470E+0	1.188594E+0	1.223966E+0	1.214474E+0	1.250111E+0	1.213892E+0	1.242621E+0	1.192879E+0	1.218856E+0	1.181321E+0	1.245581E+0	1.240765E+0	1.217795E+0	1.263541E+0	1.225042E+0	1.206870E+0	1.212011E+0	1.193011E+0	1.231682E+0	1.237992E+0	1.236217E+0	1.193330E+0	1.236536E+0	1.239505E+0	1.217219E+0	1.216221E+0	1.238161E+0	1.241875E+0	1.254167E+0	1.208283E+0	1.266279E+0	1.212102E+0	1.207921E+0	1.244657E+0	1.187212E+0	1.251207E+0	1.173738E+0	1.255131E+0	1.245582E+0	1.200808E+0	1.223696E+0	1.198358E+0	1.235034E+0	1.228957E+0	1.241713E+0	1.211961E+0	1.166917E+0	1.228409E+0	1.213412E+0	1.212003E+0	1.230636E+0	1.239810E+0	1.201998E+0	1.204696E+0	1.238505E+0	1.226393E+0	1.212772E+0	1.238286E+0	1.219586E+0	1.219387E+0	1.186470E+0	1.181255E+0	1.208751E+0	1.227973E+0	1.229633E+0	1.222784E+0	1.190149E+0	1.170842E+0	1.221508E+0	1.244032E+0	1.265537E+0	1.184648E+0	1.177455E+0	1.218922E+0	1.246902E+0	1.222042E+0	1.197392E+0	1.242213E+0	1.211910E+0	1.180286E+0	1.228119E+0	1.216337E+0	1.203922E+0	1.186314E+0	1.199219E+0	1.156203E+0	1.162739E+0	1.188628E+0	1.185374E+0	1.226957E+0	1.209803E+0	1.221846E+0	1.199885E+0	1.215003E+0	1.201494E+0	1.220438E+0	1.195761E+0	1.220955E+0	1.173095E+0	1.232898E+0	1.239088E+0	1.191626E+0	1.226091E+0	1.230896E+0	1.209099E+0	1.176568E+0	1.234825E+0	1.201773E+0	1.180155E+0	1.164435E+0	1.204341E+0	1.248251E+0	1.264271E+0	1.189606E+0	1.236390E+0	1.198796E+0	1.249371E+0	1.251378E+0	1.207615E+0	1.173119E+0	1.220974E+0	1.199138E+0	1.240348E+0	1.216733E+0	1.233816E+0	1.220043E+0	1.205584E+0	1.190000E+0	1.212086E+0	1.182291E+0	1.220139E+0	1.284107E+0	1.211710E+0	1.225377E+0	1.229771E+0	1.228219E+0	1.156791E+0	1.173395E+0	1.228856E+0	1.249737E+0	1.189292E+0	1.190300E+0	1.208273E+0	1.186323E+0	1.177124E+0	1.187379E+0	1.247844E+0	1.204665E+0	1.238361E+0	1.178908E+0	1.180445E+0	1.231969E+0	1.218589E+0	1.175609E+0	1.215020E+0	1.256129E+0	1.185325E+0	1.180344E+0	1.189897E+0
5.457830E+2	1.237752E+0	1.194649E+0	1.199489E+0	1.200848E+0	1.166110E+0	1.232244E+0	1.187375E+0	1.237352E+0	1.163406E+0	1.175746E+0	1.211007E+0	1.203467E+0	1.268916E+0	1.182586E+0	1.187241E+0	1.211430E+0	1.172736E+0	1.228774E+0	1.209843E+0	1.208385E+0	1.175209E+0	1.210727E+0	1.211153E+0	1.211931E+0	1.190305E+0	1.175865E+0	1.219089E+0	1.184995E+0	1.235390E+0	1.233676E+0	1.204317E+0	1.174164E+0	1.203693E+0	1.187650E+0	1.235866E+0	1.217801E+0	1.221263E+0	1.155153E+0	1.175650E+0	1.229308E+0	1.203864E+0	1.203612E+0	1.303251E+0	1.187886E+0	1.252426E+0	1.238102E+0	1.216255E+0	1.218844E+0	1.176078E+0	1.165003E+0	1.208751E+0	1.194038E+0	1.199291E+0	1.220037E+0	1.233145E+0	1.229349E+0	1.241033E+0	1.189443E+0	1.151836E+0	1.188234E+0	1.199483E+0	1.188485E+0	1.192347E+0	1.204294E+0	1.171025E+0	1.191425E+0	1.229840E+0	1.221260E+0	1.208497E+0	1.209362E+0	1.234236E+0	1.144828E+0	1.199260E+0	1.194456E+0	1.215056E+0	1.228831E+0	1.182433E+0	1.180859E+0	1.206117E+0	1.231017E+0	1.171161E+0	1.172303E+0	1.195073E+0	1.222016E+0	1.202800E+0	1.216574E+0	1.209608E+0	1.166973E+0	1.173394E+0	1.191763E+0	1.202795E+0	1.200276E+0	1.207000E+0	1.155760E+0	1.194546E+0	1.188988E+0	1.206267E+0	1.212082E+0	1.190575E+0	1.225032E+0	1.158557E+0	1.218257E+0	1.215138E+0	1.236835E+0	1.214968E+0	1.176212E+0	1.203859E+0	1.221797E+0	1.188298E+0	1.227519E+0	1.192914E+0	1.218200E+0	1.212204E+0	1.166966E+0	1.183785E+0	1.232444E+0	1.189864E+0	1.208854E+0	1.241958E+0	1.157514E+0	1.141903E+0	1.160383E+0	1.184686E+0	1.167408E+0	1.147143E+0	1.213726E+0	1.251576E+0	1.199073E+0	1.222428E+0	1.157070E+0	1.219361E+0	1.178248E+0	1.167728E+0	1.168900E+0	1.196335E+0	1.167770E+0	1.187040E+0	1.198809E+0	1.187611E+0	1.223444E+0	1.207349E+0	1.220969E+0	1.180372E+0	1.222063E+0	1.162606E+0	1.171615E+0	1.264473E+0	1.187846E+0	1.198201E+0	1.177335E+0	1.228217E+0	1.213227E+0	1.182002E+0	1.212843E+0	1.200733E+0	1.252353E+0	1.238092E+0	1.194661E+0	1.211800E+0	1.191148E+0	1.195897E+0	1.184606E+0	1.147848E+0	1.191534E+0	1.212333E+0	1.229617E+0	1.218768E+0	1.237442E+0	1.178555E+0	1.186058E+0	1.175511E+0
5.460060E+2	1.235627E+0	1.169787E+0	1.202204E+0	1.193490E+0	1.235940E+0	1.202918E+0	1.205855E+0	1.192564E+0	1.198839E+0	1.186720E+0	1.172126E+0	1.195906E+0	1.197405E+0	1.158642E+0	1.192210E+0	1.211106E+0	1.194793E+0	1.215213E+0	1.170301E+0	1.152989E+0	1.214217E+0	1.215216E+0	1.191996E+0	1.214613E+0	1.218444E+0	1.205451E+0	1.205263E+0	1.149546E+0	1.199642E+0	1.190219E+0	1.210914E+0	1.187968E+0	1.222291E+0	1.120637E+0	1.177044E+0	1.228943E+0	1.231406E+0	1.146155E+0	1.230807E+0	1.183133E+0	1.206344E+0	1.137385E+0	1.242777E+0	1.158179E+0	1.186107E+0	1.175580E+0	1.166252E+0	1.224985E+0	1.190841E+0	1.238104E+0	1.230572E+0	1.205870E+0	1.199458E+0	1.161049E+0	1.200470E+0	1.209642E+0	1.225419E+0	1.168082E+0	1.185685E+0	1.256283E+0	1.210965E+0	1.187056E+0	1.196873E+0	1.208431E+0	1.198198E+0	1.156452E+0	1.199127E+0	1.244020E+0	1.194465E+0	1.186702E+0	1.229432E+0	1.208231E+0	1.151943E+0	1.187433E+0	1.211214E+0	1.173830E+0	1.239185E+0	1.183316E+0	1.203065E+0	1.192836E+0	1.190186E+0	1.194508E+0	1.178902E+0	1.208064E+0	1.149600E+0	1.205830E+0	1.239511E+0	1.163529E+0	1.186998E+0	1.166771E+0	1.202195E+0	1.186084E+0	1.216842E+0	1.201132E+0	1.130634E+0	1.164218E+0	1.123790E+0	1.165033E+0	1.237315E+0	1.194360E+0	1.172192E+0	1.213358E+0	1.230543E+0	1.188345E+0	1.186362E+0	1.185710E+0	1.221140E+0	1.168152E+0	1.199139E+0	1.218381E+0	1.197138E+0	1.195661E+0	1.188255E+0	1.165957E+0	1.128268E+0	1.165709E+0	1.152168E+0	1.180256E+0	1.189557E+0	1.155496E+0	1.194414E+0	1.139759E+0	1.206762E+0	1.234534E+0	1.146755E+0	1.218063E+0	1.196696E+0	1.216371E+0	1.184794E+0	1.202760E+0	1.260199E+0	1.194682E+0	1.191327E+0	1.166789E+0	1.235944E+0	1.167914E+0	1.199257E+0	1.202192E+0	1.225138E+0	1.220468E+0	1.169190E+0	1.169960E+0	1.212112E+0	1.223997E+0	1.157094E+0	1.233387E+0	1.239430E+0	1.186837E+0	1.167261E+0	1.162114E+0	1.214389E+0	1.254008E+0	1.187442E+0	1.186341E+0	1.176522E+0	1.157343E+0	1.201023E+0	1.158755E+0	1.234311E+0	1.182429E+0	1.193601E+0	1.192190E+0	1.190829E+0	1.232209E+0	1.196438E+0	1.168308E+0	1.178011E+0	1.219704E+0	1.239914E+0	1.193884E+0	1.188471E+0
5.467710E+2	1.233135E+0	1.250230E+0	1.232314E+0	1.241750E+0	1.233179E+0	1.287291E+0	1.249473E+0	1.275317E+0	1.226523E+0	1.260537E+0	1.220699E+0	1.222758E+0	1.293790E+0	1.227404E+0	1.233547E+0	1.261362E+0	1.272142E+0	1.250123E+0	1.219333E+0	1.260369E+0	1.218929E+0	1.257027E+0	1.315356E+0	1.290950E+0	1.193906E+0	1.278071E+0	1.244508E+0	1.219147E+0	1.260439E+0	1.202732E+0	1.264836E+0	1.287887E+0	1.251655E+0	1.283121E+0	1.246183E+0	1.228957E+0	1.250958E+0	1.207323E+0	1.248593E+0	1.269590E+0	1.262454E+0	1.240587E+0	1.273118E+0	1.238544E+0	1.225777E+0	1.253947E+0	1.302546E+0	1.242257E+0	1.252211E+0	1.205915E+0	1.270441E+0	1.254185E+0	1.276153E+0	1.269858E+0	1.311555E+0	1.264397E+0	1.267446E+0	1.260345E+0	1.236809E+0	1.258953E+0	1.254790E+0	1.202361E+0	1.243464E+0	1.239230E+0	1.220208E+0	1.241069E+0	1.212280E+0	1.246803E+0	1.283795E+0	1.263444E+0	1.268365E+0	1.210781E+0	1.243548E+0	1.293798E+0	1.229418E+0	1.266292E+0	1.246742E+0	1.269616E+0	1.248067E+0	1.233787E+0	1.177918E+0	1.219115E+0	1.208189E+0	1.225147E+0	1.225112E+0	1.241866E+0	1.277483E+0	1.300005E+0	1.241371E+0	1.179990E+0	1.240460E+0	1.237386E+0	1.234897E+0	1.219673E+0	1.299467E+0	1.245090E+0	1.223452E+0	1.212437E+0	1.228926E+0	1.191371E+0	1.245213E+0	1.236573E+0	1.202919E+0	1.232335E+0	1.195435E+0	1.275791E+0	1.275082E+0	1.244465E+0	1.230342E+0	1.256394E+0	1.210805E+0	1.244936E+0	1.185438E+0	1.256981E+0	1.240752E+0	1.278901E+0	1.239314E+0	1.240840E+0	1.297056E+0	1.254931E+0	1.226122E+0	1.213574E+0	1.282169E+0	1.287168E+0	1.249044E+0	1.272617E+0	1.297170E+0	1.197525E+0	1.269766E+0	1.254023E+0	1.266242E+0	1.243224E+0	1.242044E+0	1.236664E+0	1.236654E+0	1.231940E+0	1.215490E+0	1.265956E+0	1.199975E+0	1.274278E+0	1.242110E+0	1.226386E+0	1.280862E+0	1.218362E+0	1.241922E+0	1.260949E+0	1.214252E+0	1.245597E+0	1.236658E+0	1.163286E+0	1.301239E+0	1.224384E+0	1.259972E+0	1.279189E+0	1.236440E+0	1.220653E+0	1.271261E+0	1.209742E+0	1.239305E+0	1.262380E+0	1.274817E+0	1.249554E+0	1.271145E+0	1.202911E+0	1.262446E+0	1.243382E+0	1.295714E+0	1.260677E+0	1.176802E+0	1.233139E+0	1.312066E+0
5.475120E+2	1.371127E+0	1.381533E+0	1.370095E+0	1.333489E+0	1.308080E+0	1.343360E+0	1.321680E+0	1.394898E+0	1.338543E+0	1.322792E+0	1.312906E+0	1.320309E+0	1.289511E+0	1.325213E+0	1.352522E+0	1.365060E+0	1.316403E+0	1.363159E+0	1.377206E+0	1.332304E+0	1.330494E+0	1.343946E+0	1.369767E+0	1.377118E+0	1.395450E+0	1.327096E+0	1.324760E+0	1.342581E+0	1.389627E+0	1.293823E+0	1.314901E+0	1.370773E+0	1.347810E+0	1.338083E+0	1.392663E+0	1.326378E+0	1.307017E+0	1.298475E+0	1.351150E+0	1.353249E+0	1.359968E+0	1.304769E+0	1.402088E+0	1.331141E+0	1.326907E+0	1.386201E+0	1.361124E+0	1.383325E+0	1.305557E+0	1.309384E+0	1.295751E+0	1.320019E+0	1.357089E+0	1.309391E+0	1.359217E+0	1.358493E+0	1.378410E+0	1.330903E+0	1.284578E+0	1.327169E+0	1.329999E+0	1.331975E+0	1.309087E+0	1.350511E+0	1.322956E+0	1.332077E+0	1.376738E+0	1.333023E+0	1.372979E+0	1.291034E+0	1.382057E+0	1.315260E+0	1.307779E+0	1.305318E+0	1.394427E+0	1.367647E+0	1.288574E+0	1.328663E+0	1.317925E+0	1.347851E+0	1.295570E+0	1.289073E+0	1.368262E+0	1.322839E+0	1.305689E+0	1.327952E+0	1.349912E+0	1.384052E+0	1.303390E+0	1.337939E+0	1.354324E+0	1.284508E+0	1.347138E+0	1.312564E+0	1.340352E+0	1.325972E+0	1.320119E+0	1.336758E+0	1.394160E+0	1.320239E+0	1.255202E+0	1.355109E+0	1.353447E+0	1.332388E+0	1.359987E+0	1.361240E+0	1.359314E+0	1.336490E+0	1.314610E+0	1.338586E+0	1.374484E+0	1.327236E+0	1.291332E+0	1.262314E+0	1.330109E+0	1.352975E+0	1.350053E+0	1.372213E+0	1.364420E+0	1.343145E+0	1.354415E+0	1.278708E+0	1.332508E+0	1.306007E+0	1.311058E+0	1.330389E+0	1.322171E+0	1.316951E+0	1.369747E+0	1.336770E+0	1.300841E+0	1.353138E+0	1.329355E+0	1.319335E+0	1.324948E+0	1.338151E+0	1.335574E+0	1.359455E+0	1.327263E+0	1.316877E+0	1.332546E+0	1.299982E+0	1.359153E+0	1.302233E+0	1.297804E+0	1.373139E+0	1.312256E+0	1.334888E+0	1.344544E+0	1.277160E+0	1.383175E+0	1.321756E+0	1.315516E+0	1.337391E+0	1.359905E+0	1.338170E+0	1.295700E+0	1.336720E+0	1.376067E+0	1.356970E+0	1.385594E+0	1.299721E+0	1.320909E+0	1.373989E+0	1.317386E+0	1.290897E+0	1.334276E+0	1.341441E+0	1.334906E+0	1.212189E+0	1.326512E+0
5.482660E+2	1.381515E+0	1.419671E+0	1.423214E+0	1.438885E+0	1.362830E+0	1.413593E+0	1.437939E+0	1.449618E+0	1.458738E+0	1.345542E+0	1.414587E+0	1.420538E+0	1.404926E+0	1.367337E+0	1.433976E+0	1.413930E+0	1.469722E+0	1.408818E+0	1.396282E+0	1.441136E+0	1.327008E+0	1.410073E+0	1.437273E+0	1.391815E+0	1.444471E+0	1.398304E+0	1.447123E+0	1.506310E+0	1.407123E+0	1.437820E+0	1.426572E+0	1.376932E+0	1.463977E+0	1.434685E+0	1.429927E+0	1.434164E+0	1.423749E+0	1.360550E+0	1.452723E+0	1.418875E+0	1.409610E+0	1.399268E+0	1.435119E+0	1.457589E+0	1.380954E+0	1.481451E+0	1.427738E+0	1.430397E+0	1.436867E+0	1.415590E+0	1.395402E+0	1.465431E+0	1.347048E+0	1.368432E+0	1.411117E+0	1.428862E+0	1.446556E+0	1.433398E+0	1.350262E+0	1.418162E+0	1.377495E+0	1.432985E+0	1.434998E+0	1.448479E+0	1.359061E+0	1.403142E+0	1.407565E+0	1.436366E+0	1.422485E+0	1.380810E+0	1.393513E+0	1.439181E+0	1.420130E+0	1.378734E+0	1.431040E+0	1.382929E+0	1.414611E+0	1.490251E+0	1.373147E+0	1.386314E+0	1.366632E+0	1.366377E+0	1.431402E+0	1.367322E+0	1.370572E+0	1.407889E+0	1.421928E+0	1.398674E+0	1.391278E+0	1.427377E+0	1.385615E+0	1.424903E+0	1.382394E+0	1.462414E+0	1.365209E+0	1.415780E+0	1.390241E+0	1.320453E+0	1.403485E+0	1.394466E+0	1.375833E+0	1.404935E+0	1.406748E+0	1.456498E+0	1.341210E+0	1.404519E+0	1.443401E+0	1.412852E+0	1.409135E+0	1.457031E+0	1.342325E+0	1.409095E+0	1.427928E+0	1.389538E+0	1.403220E+0	1.366388E+0	1.360299E+0	1.341866E+0	1.356367E+0	1.353141E+0	1.438229E+0	1.418983E+0	1.409444E+0	1.413507E+0	1.418265E+0	1.358224E+0	1.402087E+0	1.407565E+0	1.365075E+0	1.398444E+0	1.397963E+0	1.396184E+0	1.397503E+0	1.368379E+0	1.428048E+0	1.350679E+0	1.386288E+0	1.366881E+0	1.393686E+0	1.432280E+0	1.366505E+0	1.330166E+0	1.379395E+0	1.417439E+0	1.392424E+0	1.376659E+0	1.419251E+0	1.369061E+0	1.372565E+0	1.393924E+0	1.407913E+0	1.428360E+0	1.346033E+0	1.409898E+0	1.424957E+0	1.412267E+0	1.407566E+0	1.369407E+0	1.402044E+0	1.412181E+0	1.409665E+0	1.393326E+0	1.388142E+0	1.368867E+0	1.395724E+0	1.357594E+0	1.409137E+0	1.438843E+0	1.354524E+0	1.263659E+0	1.439610E+0
5.490540E+2	1.421471E+0	1.398877E+0	1.446241E+0	1.379307E+0	1.403388E+0	1.423695E+0	1.383606E+0	1.374141E+0	1.423518E+0	1.374146E+0	1.353338E+0	1.352786E+0	1.376451E+0	1.316663E+0	1.388890E+0	1.370821E+0	1.384786E+0	1.366720E+0	1.428116E+0	1.410367E+0	1.325381E+0	1.381433E+0	1.355886E+0	1.423600E+0	1.338184E+0	1.407337E+0	1.381225E+0	1.380867E+0	1.393658E+0	1.381444E+0	1.365065E+0	1.413781E+0	1.413543E+0	1.319336E+0	1.391806E+0	1.379652E+0	1.419369E+0	1.347067E+0	1.393680E+0	1.369059E+0	1.383563E+0	1.392006E+0	1.401453E+0	1.337380E+0	1.372247E+0	1.381289E+0	1.417520E+0	1.410678E+0	1.338865E+0	1.345823E+0	1.373722E+0	1.445478E+0	1.388801E+0	1.374760E+0	1.343675E+0	1.342554E+0	1.418496E+0	1.423971E+0	1.367227E+0	1.397752E+0	1.403612E+0	1.391976E+0	1.397682E+0	1.413645E+0	1.347771E+0	1.356269E+0	1.386740E+0	1.390122E+0	1.463136E+0	1.364848E+0	1.418018E+0	1.386623E+0	1.365474E+0	1.372788E+0	1.377219E+0	1.419240E+0	1.397450E+0	1.363818E+0	1.366434E+0	1.411924E+0	1.367288E+0	1.366499E+0	1.388781E+0	1.388705E+0	1.350730E+0	1.390940E+0	1.444682E+0	1.425213E+0	1.354447E+0	1.347854E+0	1.371969E+0	1.386535E+0	1.396997E+0	1.309731E+0	1.329695E+0	1.353688E+0	1.382900E+0	1.317308E+0	1.310457E+0	1.340986E+0	1.339231E+0	1.364071E+0	1.416960E+0	1.443102E+0	1.347153E+0	1.396279E+0	1.357874E+0	1.409283E+0	1.408235E+0	1.387767E+0	1.351469E+0	1.336266E+0	1.367941E+0	1.326954E+0	1.405383E+0	1.415537E+0	1.373419E+0	1.376631E+0	1.465906E+0	1.372227E+0	1.380800E+0	1.380934E+0	1.374846E+0	1.335744E+0	1.346319E+0	1.390973E+0	1.404275E+0	1.360698E+0	1.429178E+0	1.344710E+0	1.406761E+0	1.368965E+0	1.379989E+0	1.361720E+0	1.370356E+0	1.369824E+0	1.396001E+0	1.342867E+0	1.363480E+0	1.392623E+0	1.377828E+0	1.332575E+0	1.392992E+0	1.351950E+0	1.351003E+0	1.380122E+0	1.349907E+0	1.384902E+0	1.420721E+0	1.329044E+0	1.379598E+0	1.392140E+0	1.327318E+0	1.379066E+0	1.324699E+0	1.349239E+0	1.431011E+0	1.399103E+0	1.410638E+0	1.366963E+0	1.446947E+0	1.386784E+0	1.356693E+0	1.407119E+0	1.365087E+0	1.327022E+0	1.406861E+0	1.436575E+0	1.397102E+0	1.292531E+0	1.232328E+0
5.497960E+2	1.416526E+0	1.372660E+0	1.369138E+0	1.400902E+0	1.378658E+0	1.426968E+0	1.415656E+0	1.438740E+0	1.387364E+0	1.380187E+0	1.397522E+0	1.398404E+0	1.365063E+0	1.405348E+0	1.344388E+0	1.404990E+0	1.362216E+0	1.436552E+0	1.376137E+0	1.380076E+0	1.359131E+0	1.341036E+0	1.385159E+0	1.390792E+0	1.406584E+0	1.366039E+0	1.393900E+0	1.383047E+0	1.423476E+0	1.339160E+0	1.341546E+0	1.373073E+0	1.380326E+0	1.349624E+0	1.367186E+0	1.384164E+0	1.397305E+0	1.354439E+0	1.385869E+0	1.323836E+0	1.390704E+0	1.365964E+0	1.380924E+0	1.397412E+0	1.324298E+0	1.347144E+0	1.385528E+0	1.400404E+0	1.391429E+0	1.351350E+0	1.409600E+0	1.354175E+0	1.388330E+0	1.347384E+0	1.378643E+0	1.355405E+0	1.382477E+0	1.366891E+0	1.376763E+0	1.396878E+0	1.377831E+0	1.428272E+0	1.377017E+0	1.367302E+0	1.436733E+0	1.350919E+0	1.398846E+0	1.365052E+0	1.344057E+0	1.369046E+0	1.370139E+0	1.357866E+0	1.342864E+0	1.387620E+0	1.382839E+0	1.401194E+0	1.342867E+0	1.364918E+0	1.384137E+0	1.387341E+0	1.335571E+0	1.347107E+0	1.359761E+0	1.333792E+0	1.331867E+0	1.389205E+0	1.422852E+0	1.378218E+0	1.370821E+0	1.394235E+0	1.370863E+0	1.354946E+0	1.326974E+0	1.339128E+0	1.327058E+0	1.380576E+0	1.290998E+0	1.344206E+0	1.347067E+0	1.324248E+0	1.402369E+0	1.376042E+0	1.385595E+0	1.433216E+0	1.395855E+0	1.354936E+0	1.302471E+0	1.417604E+0	1.373634E+0	1.357234E+0	1.374811E+0	1.392743E+0	1.346450E+0	1.365991E+0	1.375359E+0	1.375884E+0	1.412927E+0	1.304615E+0	1.416729E+0	1.397201E+0	1.349204E+0	1.377726E+0	1.354716E+0	1.423983E+0	1.391264E+0	1.380095E+0	1.355737E+0	1.386388E+0	1.387966E+0	1.351318E+0	1.348538E+0	1.372210E+0	1.345295E+0	1.328740E+0	1.377463E+0	1.328790E+0	1.411882E+0	1.379234E+0	1.361495E+0	1.351633E+0	1.359993E+0	1.295958E+0	1.373507E+0	1.366441E+0	1.331582E+0	1.401210E+0	1.384446E+0	1.343508E+0	1.325524E+0	1.290185E+0	1.426122E+0	1.358001E+0	1.362334E+0	1.378197E+0	1.373912E+0	1.385998E+0	1.403536E+0	1.361200E+0	1.366753E+0	1.385470E+0	1.325730E+0	1.361256E+0	1.398956E+0	1.344611E+0	1.356440E+0	1.395747E+0	1.354909E+0	1.406557E+0	1.377036E+0	1.255632E+0	1.412144E+0
5.505110E+2	1.385345E+0	1.359022E+0	1.416882E+0	1.396817E+0	1.344756E+0	1.397903E+0	1.356608E+0	1.365153E+0	1.324815E+0	1.338785E+0	1.373014E+0	1.385123E+0	1.377962E+0	1.370831E+0	1.376998E+0	1.377472E+0	1.365964E+0	1.355473E+0	1.349473E+0	1.378741E+0	1.334545E+0	1.335951E+0	1.389179E+0	1.402202E+0	1.378019E+0	1.327732E+0	1.346256E+0	1.413706E+0	1.388970E+0	1.326046E+0	1.382140E+0	1.349505E+0	1.391789E+0	1.324075E+0	1.365173E+0	1.380317E+0	1.382784E+0	1.337044E+0	1.359575E+0	1.361064E+0	1.410316E+0	1.335492E+0	1.370373E+0	1.377094E+0	1.382183E+0	1.375357E+0	1.373152E+0	1.393777E+0	1.328635E+0	1.317423E+0	1.371595E+0	1.436132E+0	1.300966E+0	1.351376E+0	1.347548E+0	1.310567E+0	1.362642E+0	1.343532E+0	1.351834E+0	1.378903E+0	1.381158E+0	1.378678E+0	1.386075E+0	1.395381E+0	1.349081E+0	1.362013E+0	1.341886E+0	1.344884E+0	1.411925E+0	1.390107E+0	1.359703E+0	1.347601E+0	1.337618E+0	1.353155E+0	1.332333E+0	1.385269E+0	1.356032E+0	1.359628E+0	1.356094E+0	1.371849E+0	1.367759E+0	1.373856E+0	1.367950E+0	1.347910E+0	1.298560E+0	1.365777E+0	1.340406E+0	1.392551E+0	1.341416E+0	1.331793E+0	1.363346E+0	1.360784E+0	1.387540E+0	1.341556E+0	1.354431E+0	1.390044E+0	1.386328E+0	1.300581E+0	1.345084E+0	1.357002E+0	1.325473E+0	1.366978E+0	1.374464E+0	1.345984E+0	1.357668E+0	1.376361E+0	1.329798E+0	1.347988E+0	1.341592E+0	1.359799E+0	1.366185E+0	1.343262E+0	1.333264E+0	1.360748E+0	1.293964E+0	1.349929E+0	1.357787E+0	1.367111E+0	1.343992E+0	1.339265E+0	1.368874E+0	1.392244E+0	1.319126E+0	1.376969E+0	1.331715E+0	1.320744E+0	1.346078E+0	1.408841E+0	1.351984E+0	1.344623E+0	1.381559E+0	1.292993E+0	1.350839E+0	1.389503E+0	1.385052E+0	1.363659E+0	1.372085E+0	1.350303E+0	1.343658E+0	1.371896E+0	1.304582E+0	1.357500E+0	1.376224E+0	1.360765E+0	1.349715E+0	1.385967E+0	1.346537E+0	1.379954E+0	1.396520E+0	1.328903E+0	1.331145E+0	1.348069E+0	1.374403E+0	1.398386E+0	1.351033E+0	1.365232E+0	1.374264E+0	1.358839E+0	1.341025E+0	1.328645E+0	1.336771E+0	1.343271E+0	1.342618E+0	1.353692E+0	1.342064E+0	1.328424E+0	1.323475E+0	1.364455E+0	1.344221E+0	1.324871E+0	1.360636E+0
5.512510E+2	1.337317E+0	1.360245E+0	1.358217E+0	1.342135E+0	1.292993E+0	1.388723E+0	1.321843E+0	1.347266E+0	1.301594E+0	1.289423E+0	1.284451E+0	1.318229E+0	1.349915E+0	1.351259E+0	1.300738E+0	1.342524E+0	1.302986E+0	1.285487E+0	1.313203E+0	1.370789E+0	1.306780E+0	1.354061E+0	1.298889E+0	1.306241E+0	1.333315E+0	1.289083E+0	1.306523E+0	1.347491E+0	1.335451E+0	1.280744E+0	1.315888E+0	1.335123E+0	1.376427E+0	1.299879E+0	1.337987E+0	1.342999E+0	1.331262E+0	1.297562E+0	1.320341E+0	1.318184E+0	1.354939E+0	1.335660E+0	1.348455E+0	1.287242E+0	1.339787E+0	1.304398E+0	1.341777E+0	1.325363E+0	1.305061E+0	1.313865E+0	1.355954E+0	1.242691E+0	1.301699E+0	1.358343E+0	1.333281E+0	1.355893E+0	1.356570E+0	1.270848E+0	1.273625E+0	1.330861E+0	1.318775E+0	1.294334E+0	1.300815E+0	1.338013E+0	1.298532E+0	1.308024E+0	1.297611E+0	1.357460E+0	1.352677E+0	1.316668E+0	1.303606E+0	1.298783E+0	1.332230E+0	1.266908E+0	1.298632E+0	1.280824E+0	1.332511E+0	1.301671E+0	1.277812E+0	1.301904E+0	1.327690E+0	1.286873E+0	1.341566E+0	1.348011E+0	1.311828E+0	1.276767E+0	1.343976E+0	1.327765E+0	1.297117E+0	1.311681E+0	1.299375E+0	1.309151E+0	1.306705E+0	1.317513E+0	1.337703E+0	1.305212E+0	1.306882E+0	1.321591E+0	1.261349E+0	1.331432E+0	1.270876E+0	1.317444E+0	1.302406E+0	1.357337E+0	1.289714E+0	1.296468E+0	1.288948E+0	1.377780E+0	1.334077E+0	1.340207E+0	1.304909E+0	1.355424E+0	1.311122E+0	1.307126E+0	1.291438E+0	1.372460E+0	1.274036E+0	1.280429E+0	1.328956E+0	1.314311E+0	1.331001E+0	1.274672E+0	1.304699E+0	1.352583E+0	1.350872E+0	1.304485E+0	1.346573E+0	1.348087E+0	1.354699E+0	1.286695E+0	1.284548E+0	1.325134E+0	1.311406E+0	1.282379E+0	1.329258E+0	1.307516E+0	1.305523E+0	1.310464E+0	1.289436E+0	1.372115E+0	1.320956E+0	1.261607E+0	1.299331E+0	1.318143E+0	1.298619E+0	1.284353E+0	1.293928E+0	1.333404E+0	1.339441E+0	1.252088E+0	1.285519E+0	1.371292E+0	1.280287E+0	1.308015E+0	1.278874E+0	1.294676E+0	1.348332E+0	1.283661E+0	1.313149E+0	1.364816E+0	1.317668E+0	1.291027E+0	1.290193E+0	1.347585E+0	1.289624E+0	1.325700E+0	1.275239E+0	1.361998E+0	1.265984E+0	1.355673E+0	1.365208E+0
5.520210E+2	1.286975E+0	1.318730E+0	1.321280E+0	1.269641E+0	1.301063E+0	1.272017E+0	1.349628E+0	1.292088E+0	1.254861E+0	1.260783E+0	1.264122E+0	1.286257E+0	1.278988E+0	1.230588E+0	1.225192E+0	1.299495E+0	1.282864E+0	1.239341E+0	1.290207E+0	1.300044E+0	1.277670E+0	1.277301E+0	1.263675E+0	1.300644E+0	1.285189E+0	1.306094E+0	1.262307E+0	1.301073E+0	1.282617E+0	1.280873E+0	1.248214E+0	1.314072E+0	1.322428E+0	1.250504E+0	1.280305E+0	1.279825E+0	1.239279E+0	1.245907E+0	1.295060E+0	1.316865E+0	1.317201E+0	1.251988E+0	1.298426E+0	1.245131E+0	1.272465E+0	1.309120E+0	1.284959E+0	1.276935E+0	1.249210E+0	1.279117E+0	1.300672E+0	1.309015E+0	1.284890E+0	1.239621E+0	1.315435E+0	1.268312E+0	1.259038E+0	1.251931E+0	1.283320E+0	1.250028E+0	1.301384E+0	1.290504E+0	1.274946E+0	1.307145E+0	1.268832E+0	1.261544E+0	1.261229E+0	1.306810E+0	1.282216E+0	1.216078E+0	1.267473E+0	1.312356E+0	1.271859E+0	1.298520E+0	1.256986E+0	1.263995E+0	1.256605E+0	1.249510E+0	1.243502E+0	1.248310E+0	1.287861E+0	1.287827E+0	1.284546E+0	1.281412E+0	1.278787E+0	1.230416E+0	1.270879E+0	1.311512E+0	1.239026E+0	1.274342E+0	1.299545E+0	1.313787E+0	1.305558E+0	1.256265E+0	1.285495E+0	1.274565E+0	1.273299E+0	1.278706E+0	1.231710E+0	1.275687E+0	1.267643E+0	1.244826E+0	1.252334E+0	1.289034E+0	1.272289E+0	1.300061E+0	1.273023E+0	1.219278E+0	1.320031E+0	1.299019E+0	1.243474E+0	1.293968E+0	1.277008E+0	1.244565E+0	1.278771E+0	1.326482E+0	1.251575E+0	1.276597E+0	1.287742E+0	1.335325E+0	1.282003E+0	1.233387E+0	1.203800E+0	1.328237E+0	1.209848E+0	1.240253E+0	1.285549E+0	1.283120E+0	1.317867E+0	1.274288E+0	1.264170E+0	1.279456E+0	1.287954E+0	1.255019E+0	1.270156E+0	1.248713E+0	1.316492E+0	1.256343E+0	1.238631E+0	1.298454E+0	1.236175E+0	1.258315E+0	1.248241E+0	1.274926E+0	1.267295E+0	1.298951E+0	1.274259E+0	1.262153E+0	1.294781E+0	1.256483E+0	1.255297E+0	1.315548E+0	1.245435E+0	1.276899E+0	1.299203E+0	1.249849E+0	1.282410E+0	1.236719E+0	1.302154E+0	1.255714E+0	1.226005E+0	1.273395E+0	1.300006E+0	1.278340E+0	1.222524E+0	1.257386E+0	1.269464E+0	1.306814E+0	1.243580E+0	1.261193E+0	1.228512E+0
5.527590E+2	1.254834E+0	1.279694E+0	1.237819E+0	1.218573E+0	1.247393E+0	1.221965E+0	1.269980E+0	1.270768E+0	1.220182E+0	1.281248E+0	1.190020E+0	1.259775E+0	1.277119E+0	1.200849E+0	1.211864E+0	1.276681E+0	1.213803E+0	1.208951E+0	1.225805E+0	1.248700E+0	1.223660E+0	1.259097E+0	1.232925E+0	1.255563E+0	1.194247E+0	1.218097E+0	1.230955E+0	1.289895E+0	1.251535E+0	1.213718E+0	1.252805E+0	1.188037E+0	1.219421E+0	1.270072E+0	1.230066E+0	1.210604E+0	1.233282E+0	1.206719E+0	1.223060E+0	1.248388E+0	1.255241E+0	1.210647E+0	1.209323E+0	1.287687E+0	1.212287E+0	1.215857E+0	1.233169E+0	1.279666E+0	1.226476E+0	1.219879E+0	1.261803E+0	1.243739E+0	1.205629E+0	1.219492E+0	1.218557E+0	1.242591E+0	1.284046E+0	1.235859E+0	1.238215E+0	1.263420E+0	1.213187E+0	1.212658E+0	1.188085E+0	1.249043E+0	1.244887E+0	1.193640E+0	1.218416E+0	1.206575E+0	1.255464E+0	1.233844E+0	1.173831E+0	1.204753E+0	1.237788E+0	1.212434E+0	1.223484E+0	1.246120E+0	1.253505E+0	1.239063E+0	1.231188E+0	1.243656E+0	1.197128E+0	1.221230E+0	1.260818E+0	1.204836E+0	1.252269E+0	1.205651E+0	1.222548E+0	1.250059E+0	1.171911E+0	1.200304E+0	1.265675E+0	1.238811E+0	1.259388E+0	1.237469E+0	1.224722E+0	1.197368E+0	1.129214E+0	1.181321E+0	1.231987E+0	1.201474E+0	1.211610E+0	1.235207E+0	1.208014E+0	1.308696E+0	1.233423E+0	1.220913E+0	1.198400E+0	1.250981E+0	1.253540E+0	1.215673E+0	1.210442E+0	1.235620E+0	1.263215E+0	1.220609E+0	1.166358E+0	1.290802E+0	1.224980E+0	1.244927E+0	1.231528E+0	1.212245E+0	1.212584E+0	1.247039E+0	1.216791E+0	1.284317E+0	1.234140E+0	1.185748E+0	1.174333E+0	1.227818E+0	1.235666E+0	1.218019E+0	1.208027E+0	1.199723E+0	1.232192E+0	1.160280E+0	1.222839E+0	1.238326E+0	1.245929E+0	1.179931E+0	1.218125E+0	1.279333E+0	1.217723E+0	1.274218E+0	1.259625E+0	1.215702E+0	1.233616E+0	1.285159E+0	1.211312E+0	1.258483E+0	1.227745E+0	1.225237E+0	1.232533E+0	1.311522E+0	1.216287E+0	1.159208E+0	1.217575E+0	1.268621E+0	1.235154E+0	1.234945E+0	1.211207E+0	1.208273E+0	1.248857E+0	1.240685E+0	1.217602E+0	1.244486E+0	1.210736E+0	1.194153E+0	1.216156E+0	1.229153E+0	1.253726E+0	1.202972E+0	1.306085E+0
5.535490E+2	1.223004E+0	1.178728E+0	1.235950E+0	1.197801E+0	1.194588E+0	1.215079E+0	1.220745E+0	1.234272E+0	1.154697E+0	1.182219E+0	1.169938E+0	1.177239E+0	1.238996E+0	1.134195E+0	1.175543E+0	1.191152E+0	1.238040E+0	1.223806E+0	1.185501E+0	1.157665E+0	1.244644E+0	1.246217E+0	1.176683E+0	1.206355E+0	1.225204E+0	1.180134E+0	1.193537E+0	1.219074E+0	1.217565E+0	1.189691E+0	1.224907E+0	1.179440E+0	1.250282E+0	1.191967E+0	1.257523E+0	1.171117E+0	1.196158E+0	1.176979E+0	1.208196E+0	1.178804E+0	1.244805E+0	1.159179E+0	1.212466E+0	1.161694E+0	1.166673E+0	1.226088E+0	1.119342E+0	1.259140E+0	1.141890E+0	1.150335E+0	1.161141E+0	1.190326E+0	1.208027E+0	1.195840E+0	1.201084E+0	1.226132E+0	1.208342E+0	1.189543E+0	1.178084E+0	1.185407E+0	1.159602E+0	1.197198E+0	1.200178E+0	1.189519E+0	1.209166E+0	1.173238E+0	1.186232E+0	1.191948E+0	1.158653E+0	1.173013E+0	1.187445E+0	1.233047E+0	1.214867E+0	1.162042E+0	1.101875E+0	1.211623E+0	1.177898E+0	1.157639E+0	1.133594E+0	1.214003E+0	1.189072E+0	1.221415E+0	1.186278E+0	1.172786E+0	1.167917E+0	1.244212E+0	1.180505E+0	1.177481E+0	1.200343E+0	1.177330E+0	1.211477E+0	1.173092E+0	1.160055E+0	1.164587E+0	1.183787E+0	1.182092E+0	1.149802E+0	1.150137E+0	1.173773E+0	1.176126E+0	1.142771E+0	1.187292E+0	1.124478E+0	1.209043E+0	1.163714E+0	1.185719E+0	1.124420E+0	1.163545E+0	1.140052E+0	1.172464E+0	1.157447E+0	1.216516E+0	1.218717E+0	1.189853E+0	1.211715E+0	1.229111E+0	1.153589E+0	1.203134E+0	1.178455E+0	1.219741E+0	1.164950E+0	1.178936E+0	1.209376E+0	1.184233E+0	1.185198E+0	1.153658E+0	1.170330E+0	1.177842E+0	1.217913E+0	1.169735E+0	1.190879E+0	1.174537E+0	1.173871E+0	1.169978E+0	1.129828E+0	1.219894E+0	1.218371E+0	1.138556E+0	1.180594E+0	1.184178E+0	1.171111E+0	1.150776E+0	1.168899E+0	1.126417E+0	1.191200E+0	1.169981E+0	1.155985E+0	1.193852E+0	1.194545E+0	1.162646E+0	1.180740E+0	1.170079E+0	1.215415E+0	1.186020E+0	1.176204E+0	1.229191E+0	1.175199E+0	1.126675E+0	1.175870E+0	1.206333E+0	1.212940E+0	1.139987E+0	1.178354E+0	1.173443E+0	1.191149E+0	1.166595E+0	1.126428E+0	1.260131E+0	1.232973E+0	1.129700E+0	1.083658E+0
5.542580E+2	1.142786E+0	1.103961E+0	1.150710E+0	1.133436E+0	1.126242E+0	1.112017E+0	1.125387E+0	1.090944E+0	1.117137E+0	1.099365E+0	1.163282E+0	1.104056E+0	1.112749E+0	1.099515E+0	1.105581E+0	1.100118E+0	1.140801E+0	1.111252E+0	1.099470E+0	1.144776E+0	1.180097E+0	1.099503E+0	1.108997E+0	1.111645E+0	1.160516E+0	1.119629E+0	1.099554E+0	1.100464E+0	1.166950E+0	1.109495E+0	1.152557E+0	1.149769E+0	1.174127E+0	1.102621E+0	1.126744E+0	1.117845E+0	1.167881E+0	1.099907E+0	1.144577E+0	1.109312E+0	1.125721E+0	1.152139E+0	1.134860E+0	1.102847E+0	1.136187E+0	1.122986E+0	1.141572E+0	1.145878E+0	1.130223E+0	1.108926E+0	1.096358E+0	1.047162E+0	1.104196E+0	1.097059E+0	1.107888E+0	1.111336E+0	1.177574E+0	1.168694E+0	1.131731E+0	1.110639E+0	1.106055E+0	1.131675E+0	1.117953E+0	1.122514E+0	1.133723E+0	1.088545E+0	1.141374E+0	1.158481E+0	1.158762E+0	1.105131E+0	1.122169E+0	1.181040E+0	1.104485E+0	1.128622E+0	1.115763E+0	1.120096E+0	1.141914E+0	1.125026E+0	1.124991E+0	1.132004E+0	1.121475E+0	1.161547E+0	1.137970E+0	1.145034E+0	1.072810E+0	1.110105E+0	1.125852E+0	1.101105E+0	1.110404E+0	1.094237E+0	1.115901E+0	1.156835E+0	1.104176E+0	1.145763E+0	1.175684E+0	1.153030E+0	1.106334E+0	1.113188E+0	1.145525E+0	1.125189E+0	1.096484E+0	1.146309E+0	1.147756E+0	1.130998E+0	1.159160E+0	1.145736E+0	1.131003E+0	1.089716E+0	1.138838E+0	1.129019E+0	1.075438E+0	1.120261E+0	1.091748E+0	1.083405E+0	1.058637E+0	1.145215E+0	1.106003E+0	1.099486E+0	1.148223E+0	1.112095E+0	1.133634E+0	1.085410E+0	1.140351E+0	1.122078E+0	1.127271E+0	1.095049E+0	1.141347E+0	1.113161E+0	1.173173E+0	1.117187E+0	1.134948E+0	1.111246E+0	1.143719E+0	1.118052E+0	1.117662E+0	1.117209E+0	1.144638E+0	1.149749E+0	1.103608E+0	1.168306E+0	1.172527E+0	1.119692E+0	1.120990E+0	1.106614E+0	1.103190E+0	1.108442E+0	1.121606E+0	1.084291E+0	1.132989E+0	1.139634E+0	1.140708E+0	1.138196E+0	1.118162E+0	1.131705E+0	1.139215E+0	1.148527E+0	1.132986E+0	1.138175E+0	1.145909E+0	1.103582E+0	1.165717E+0	1.096920E+0	1.111768E+0	1.112524E+0	1.123710E+0	1.123604E+0	1.075680E+0	1.218573E+0	1.101754E+0	1.108539E+0	1.157092E+0
5.550190E+2	1.064441E+0	1.066674E+0	1.060630E+0	1.036115E+0	1.045884E+0	1.053424E+0	1.019107E+0	1.034394E+0	9.935337E-1	1.066795E+0	1.096130E+0	1.029566E+0	9.967580E-1	1.027771E+0	1.022176E+0	1.049287E+0	1.053774E+0	1.063656E+0	1.036665E+0	1.021985E+0	1.031592E+0	1.084676E+0	1.058252E+0	1.030192E+0	1.041841E+0	1.037920E+0	1.026455E+0	1.025856E+0	1.090240E+0	1.064633E+0	1.054876E+0	1.077290E+0	1.043901E+0	1.089515E+0	1.026361E+0	1.018138E+0	1.032406E+0	1.032971E+0	1.052090E+0	1.067553E+0	1.077121E+0	1.007499E+0	1.068586E+0	1.071217E+0	1.026523E+0	1.020459E+0	1.028747E+0	1.052341E+0	1.024067E+0	1.030034E+0	1.084676E+0	1.033143E+0	1.064911E+0	9.965775E-1	1.060666E+0	1.031194E+0	1.085529E+0	1.026739E+0	1.045478E+0	9.956728E-1	1.081922E+0	1.025753E+0	1.051685E+0	1.051508E+0	1.022738E+0	9.942511E-1	1.053093E+0	1.026076E+0	1.023812E+0	1.017165E+0	1.039502E+0	1.064636E+0	1.017740E+0	1.049731E+0	1.029228E+0	1.043081E+0	1.060139E+0	9.926185E-1	1.026590E+0	1.073758E+0	1.071168E+0	1.010171E+0	1.040694E+0	9.975812E-1	1.050369E+0	1.005116E+0	1.089591E+0	1.040207E+0	1.042418E+0	1.019127E+0	1.038414E+0	1.082184E+0	1.074998E+0	1.028505E+0	1.063390E+0	1.019295E+0	1.026541E+0	1.032115E+0	1.044403E+0	1.069344E+0	1.012679E+0	1.077964E+0	1.036492E+0	1.060171E+0	1.025741E+0	1.078582E+0	1.024454E+0	1.100063E+0	1.057610E+0	1.040646E+0	1.054371E+0	1.024930E+0	1.076145E+0	1.016887E+0	1.054563E+0	1.010090E+0	1.068370E+0	1.025804E+0	1.058018E+0	1.050431E+0	9.757306E-1	1.013258E+0	1.052073E+0	1.005862E+0	1.051107E+0	9.856955E-1	1.083777E+0	1.051909E+0	1.060519E+0	1.067555E+0	1.097819E+0	1.034160E+0	1.071182E+0	1.067647E+0	1.050548E+0	1.024688E+0	1.104215E+0	1.065109E+0	1.038845E+0	1.098307E+0	1.058398E+0	1.027621E+0	1.088374E+0	1.032753E+0	1.070589E+0	1.059408E+0	1.066029E+0	1.060467E+0	1.019460E+0	1.050326E+0	1.096789E+0	1.059698E+0	1.078016E+0	1.055828E+0	1.048937E+0	1.032289E+0	9.761685E-1	1.031187E+0	1.049590E+0	1.088135E+0	1.072115E+0	1.035401E+0	1.020061E+0	1.045027E+0	1.068707E+0	1.039118E+0	1.014901E+0	1.037524E+0	1.046603E+0	1.008790E+0	1.016518E+0
5.557600E+2	9.876383E-1	1.030565E+0	9.608340E-1	9.703085E-1	9.631538E-1	9.789798E-1	9.758167E-1	9.922282E-1	9.837001E-1	9.985221E-1	9.732633E-1	9.472440E-1	1.004632E+0	9.903832E-1	9.432054E-1	9.790925E-1	9.443019E-1	9.584780E-1	1.011801E+0	9.744354E-1	9.975811E-1	9.479886E-1	1.024845E+0	9.780736E-1	9.541833E-1	9.963265E-1	9.913640E-1	9.620426E-1	1.002442E+0	9.639372E-1	9.821246E-1	9.931915E-1	9.659402E-1	9.726393E-1	9.599908E-1	9.542936E-1	9.771835E-1	9.485538E-1	9.654332E-1	9.912238E-1	9.817238E-1	9.362516E-1	1.006112E+0	1.021227E+0	9.757613E-1	1.014408E+0	9.873948E-1	1.002597E+0	9.928155E-1	9.743997E-1	9.594250E-1	9.939114E-1	9.941873E-1	1.013892E+0	9.848892E-1	1.000946E+0	1.014281E+0	9.612416E-1	9.700536E-1	1.001823E+0	1.022290E+0	1.032014E+0	9.636787E-1	9.555447E-1	9.873038E-1	9.300255E-1	9.789283E-1	9.703885E-1	1.017472E+0	9.877478E-1	9.682617E-1	9.932373E-1	9.592573E-1	9.867005E-1	9.771913E-1	9.755418E-1	9.881037E-1	9.370453E-1	9.760874E-1	1.002261E+0	9.914996E-1	1.021598E+0	9.420441E-1	9.626471E-1	9.572253E-1	9.742785E-1	1.005235E+0	9.955447E-1	9.639960E-1	9.677011E-1	1.011478E+0	9.533019E-1	9.459070E-1	9.858085E-1	1.004265E+0	9.614128E-1	9.838326E-1	9.458107E-1	9.642861E-1	9.998172E-1	9.773410E-1	9.764936E-1	9.420434E-1	9.514692E-1	9.718297E-1	1.021097E+0	9.497081E-1	9.763155E-1	1.001978E+0	1.002430E+0	9.672305E-1	1.015909E+0	9.533332E-1	9.517668E-1	9.594651E-1	9.894436E-1	9.683106E-1	9.884119E-1	1.012842E+0	9.675183E-1	9.402450E-1	1.008943E+0	9.640533E-1	9.481507E-1	9.452928E-1	9.433569E-1	1.001963E+0	9.832017E-1	9.610640E-1	9.959007E-1	1.017156E+0	9.474195E-1	1.023472E+0	9.555689E-1	9.611412E-1	9.609022E-1	9.744545E-1	9.418919E-1	9.566103E-1	1.003599E+0	9.644945E-1	9.867856E-1	9.824379E-1	9.627213E-1	1.021260E+0	9.149053E-1	9.760003E-1	9.690996E-1	9.848250E-1	9.630874E-1	9.907773E-1	9.717078E-1	1.020478E+0	1.028712E+0	9.283152E-1	9.907929E-1	1.015672E+0	9.142488E-1	9.586172E-1	9.883090E-1	9.952940E-1	1.004884E+0	9.757483E-1	9.328127E-1	9.427276E-1	9.951837E-1	9.679428E-1	9.950995E-1	9.846111E-1	9.490365E-1	9.332686E-1
5.560190E+2	9.798049E-1	9.293416E-1	9.813566E-1	1.000282E+0	9.656334E-1	9.512699E-1	9.515832E-1	9.344666E-1	9.066724E-1	9.152830E-1	9.803096E-1	9.736795E-1	9.540718E-1	9.459293E-1	9.328152E-1	9.421317E-1	9.453753E-1	9.556620E-1	9.759055E-1	9.769552E-1	9.149381E-1	9.617392E-1	9.313398E-1	9.541631E-1	9.920964E-1	9.271343E-1	9.930309E-1	9.467085E-1	9.838429E-1	9.436704E-1	9.156224E-1	9.163590E-1	9.649706E-1	9.713281E-1	9.565224E-1	9.519428E-1	9.820111E-1	9.179290E-1	9.405462E-1	9.399485E-1	9.527021E-1	1.005734E+0	9.770460E-1	9.562961E-1	9.842772E-1	9.587460E-1	9.729080E-1	9.505913E-1	9.193601E-1	9.570006E-1	9.479921E-1	9.245523E-1	9.342827E-1	9.388344E-1	9.602665E-1	9.809330E-1	9.474215E-1	9.529869E-1	9.447595E-1	9.412706E-1	9.825217E-1	9.979787E-1	9.525750E-1	9.986295E-1	1.009139E+0	9.421106E-1	9.420052E-1	9.728419E-1	9.621589E-1	9.259965E-1	9.712166E-1	9.687946E-1	9.625261E-1	9.524562E-1	9.290953E-1	9.167482E-1	9.691645E-1	9.898125E-1	9.203578E-1	9.439096E-1	9.533883E-1	9.851264E-1	9.204769E-1	9.234442E-1	9.475283E-1	1.006032E+0	9.733067E-1	9.484493E-1	9.247267E-1	9.485009E-1	9.832749E-1	9.178869E-1	9.350566E-1	9.380605E-1	9.330699E-1	9.747326E-1	9.928179E-1	8.884839E-1	9.754448E-1	9.932893E-1	9.584537E-1	9.667430E-1	9.825732E-1	9.344365E-1	9.455750E-1	9.644995E-1	9.559545E-1	9.642295E-1	9.472381E-1	9.782772E-1	9.403147E-1	9.467412E-1	9.625000E-1	9.564734E-1	9.287298E-1	9.966015E-1	9.751137E-1	9.016159E-1	9.717395E-1	9.736461E-1	9.559659E-1	9.656264E-1	9.574321E-1	1.025414E+0	9.703543E-1	9.364135E-1	9.309962E-1	9.463029E-1	9.464676E-1	9.620532E-1	9.797635E-1	9.423694E-1	1.002499E+0	9.686959E-1	9.336110E-1	9.344470E-1	9.783629E-1	9.088305E-1	9.288155E-1	9.397465E-1	9.457992E-1	9.540388E-1	9.648536E-1	9.086422E-1	9.518427E-1	9.155253E-1	9.434094E-1	9.409622E-1	9.614207E-1	9.774464E-1	9.875317E-1	9.486149E-1	9.928186E-1	9.879702E-1	9.227146E-1	9.852500E-1	9.711296E-1	9.453701E-1	9.667320E-1	9.149194E-1	9.975512E-1	9.586650E-1	1.011583E+0	9.355079E-1	9.527520E-1	9.766421E-1	9.725672E-1	9.881643E-1	1.009431E+0	9.930082E-1	9.481275E-1
5.565030E+2	9.668181E-1	9.687127E-1	9.441254E-1	9.784260E-1	9.207410E-1	9.842126E-1	9.703853E-1	9.646187E-1	9.467618E-1	9.656613E-1	9.446140E-1	9.544343E-1	9.746115E-1	9.522392E-1	9.305507E-1	9.940747E-1	9.552553E-1	9.854703E-1	9.411026E-1	9.298317E-1	9.656822E-1	9.882275E-1	9.818608E-1	9.219974E-1	1.002915E+0	9.589560E-1	9.599842E-1	9.613211E-1	1.014049E+0	9.338696E-1	9.763130E-1	9.590359E-1	9.139909E-1	9.106919E-1	9.348673E-1	9.374443E-1	9.724988E-1	9.338880E-1	9.981435E-1	9.605204E-1	9.798118E-1	9.891386E-1	9.608205E-1	9.549329E-1	9.361622E-1	9.721741E-1	1.005994E+0	9.752786E-1	9.537729E-1	9.422333E-1	9.256634E-1	1.013642E+0	9.789968E-1	9.476392E-1	9.094404E-1	9.683740E-1	9.945474E-1	9.308183E-1	9.281013E-1	9.722938E-1	1.000615E+0	9.483960E-1	9.109358E-1	9.374136E-1	9.227853E-1	9.241079E-1	9.775694E-1	9.573685E-1	9.615895E-1	9.681256E-1	9.518547E-1	9.422884E-1	9.496087E-1	9.569935E-1	9.682096E-1	9.573145E-1	1.010341E+0	1.000060E+0	9.683894E-1	9.876022E-1	9.793041E-1	9.567338E-1	9.711055E-1	9.251930E-1	9.515824E-1	9.271550E-1	9.666754E-1	9.716577E-1	9.321460E-1	1.023408E+0	9.648310E-1	9.823497E-1	9.634322E-1	9.744214E-1	9.157690E-1	9.402976E-1	9.607894E-1	9.405577E-1	9.782188E-1	9.609231E-1	9.603069E-1	9.692345E-1	9.748470E-1	9.107462E-1	9.536830E-1	9.446381E-1	9.386496E-1	9.082462E-1	9.589493E-1	9.717225E-1	9.828610E-1	9.696533E-1	9.825363E-1	9.471684E-1	9.338800E-1	9.653334E-1	9.642413E-1	9.842402E-1	9.483463E-1	9.448405E-1	9.723832E-1	9.683727E-1	9.071930E-1	9.580991E-1	9.562536E-1	9.221368E-1	1.004201E+0	9.752839E-1	1.002822E+0	9.555449E-1	9.583534E-1	9.463385E-1	9.563509E-1	9.219288E-1	9.543867E-1	9.701158E-1	9.488988E-1	9.595631E-1	9.559078E-1	9.656114E-1	9.902100E-1	9.104030E-1	9.464332E-1	9.464219E-1	9.948431E-1	9.077291E-1	1.009902E+0	9.337539E-1	9.397319E-1	9.428473E-1	9.473710E-1	9.936608E-1	9.035769E-1	9.094392E-1	9.831200E-1	9.733311E-1	9.777319E-1	9.140085E-1	9.762346E-1	9.698249E-1	9.893363E-1	9.363884E-1	9.591822E-1	9.296562E-1	9.738870E-1	9.831209E-1	9.649025E-1	9.906290E-1	9.833116E-1	9.262036E-1	9.344472E-1
5.570500E+2	9.855473E-1	9.335958E-1	9.593463E-1	9.739898E-1	1.001013E+0	1.001556E+0	9.905329E-1	9.896201E-1	9.848613E-1	9.774232E-1	9.972603E-1	9.811169E-1	9.702223E-1	9.908624E-1	9.866130E-1	9.671099E-1	9.831275E-1	1.008870E+0	9.549587E-1	9.910851E-1	9.895004E-1	9.615024E-1	9.685939E-1	9.804199E-1	9.800284E-1	9.808783E-1	9.996153E-1	9.969888E-1	9.866273E-1	9.997580E-1	9.701387E-1	9.885807E-1	9.626072E-1	9.696978E-1	9.862486E-1	9.814286E-1	9.933706E-1	1.019550E+0	9.850227E-1	9.718600E-1	1.030276E+0	9.863870E-1	9.438786E-1	9.827609E-1	9.976788E-1	9.812094E-1	9.616875E-1	1.004059E+0	9.947552E-1	9.887737E-1	1.001206E+0	9.609096E-1	9.577387E-1	9.862644E-1	9.633976E-1	1.022134E+0	9.868858E-1	9.562056E-1	9.592433E-1	1.012789E+0	9.953861E-1	9.719615E-1	1.002484E+0	9.881211E-1	1.019669E+0	1.003893E+0	1.022459E+0	9.975817E-1	9.888890E-1	9.999401E-1	9.899023E-1	1.000763E+0	9.631887E-1	9.924732E-1	9.723091E-1	1.004632E+0	9.571701E-1	1.001178E+0	9.824984E-1	9.954447E-1	9.734362E-1	9.938084E-1	9.826647E-1	9.873654E-1	9.300206E-1	9.600994E-1	9.596551E-1	1.018001E+0	9.926219E-1	9.369120E-1	9.878592E-1	9.645353E-1	1.020125E+0	1.005271E+0	9.901343E-1	9.603489E-1	9.992491E-1	9.793523E-1	1.012120E+0	1.006441E+0	1.002261E+0	9.403086E-1	9.634613E-1	9.910325E-1	9.746597E-1	9.614380E-1	1.001970E+0	9.912630E-1	9.599185E-1	1.016053E+0	9.391367E-1	1.020837E+0	9.898579E-1	9.904273E-1	9.878505E-1	9.943204E-1	9.524077E-1	9.733914E-1	9.691619E-1	9.871689E-1	9.732487E-1	9.970859E-1	9.435996E-1	9.924192E-1	9.848051E-1	9.860503E-1	9.902866E-1	9.747640E-1	9.836822E-1	9.773267E-1	9.854151E-1	9.820453E-1	9.569576E-1	9.716142E-1	9.717958E-1	9.907565E-1	9.739153E-1	9.960875E-1	9.828047E-1	9.625170E-1	9.727859E-1	1.018419E+0	9.802158E-1	9.965751E-1	9.925000E-1	9.484473E-1	9.704501E-1	9.324097E-1	9.911006E-1	9.584497E-1	9.760119E-1	9.925922E-1	1.000928E+0	1.007394E+0	1.012244E+0	9.863812E-1	9.834855E-1	9.548888E-1	9.835516E-1	9.449282E-1	9.832351E-1	9.915606E-1	9.514297E-1	9.904824E-1	9.757827E-1	9.945979E-1	1.007456E+0	9.901042E-1	9.796388E-1	1.002390E+0	9.685547E-1
5.575700E+2	9.940796E-1	1.060593E+0	1.039754E+0	1.012310E+0	9.893528E-1	1.058903E+0	1.002570E+0	1.007050E+0	9.901069E-1	9.813979E-1	1.002542E+0	1.016215E+0	1.041333E+0	1.022959E+0	9.790756E-1	1.010594E+0	1.024020E+0	1.016515E+0	1.026913E+0	9.763336E-1	1.029592E+0	1.030805E+0	1.070502E+0	1.027530E+0	1.001868E+0	1.043516E+0	9.715953E-1	1.035836E+0	1.064004E+0	9.841749E-1	1.036684E+0	1.003697E+0	1.033255E+0	1.023401E+0	1.007335E+0	1.022464E+0	9.971432E-1	1.002636E+0	9.452199E-1	1.005994E+0	1.005661E+0	1.014064E+0	1.022414E+0	1.026043E+0	1.048209E+0	1.012084E+0	9.505636E-1	1.040225E+0	1.009388E+0	9.957476E-1	9.886479E-1	9.811089E-1	1.035280E+0	1.035705E+0	1.017863E+0	1.017463E+0	1.008283E+0	1.025284E+0	9.849684E-1	1.032620E+0	1.013099E+0	9.689510E-1	9.911618E-1	1.033248E+0	9.823680E-1	1.043448E+0	1.011816E+0	1.041105E+0	1.064475E+0	1.018458E+0	1.027214E+0	1.007907E+0	9.915587E-1	9.979062E-1	9.943596E-1	1.051091E+0	1.030343E+0	1.014298E+0	1.011659E+0	1.039294E+0	1.008629E+0	1.010717E+0	1.024855E+0	1.031736E+0	1.027353E+0	9.869986E-1	1.018416E+0	1.036578E+0	1.027765E+0	1.040264E+0	1.030010E+0	1.026151E+0	1.001329E+0	1.016686E+0	1.020586E+0	1.048621E+0	1.004357E+0	1.015189E+0	1.017103E+0	1.031886E+0	9.963663E-1	1.020870E+0	9.795754E-1	1.032643E+0	1.014813E+0	1.021544E+0	1.022254E+0	1.024405E+0	1.026555E+0	1.022610E+0	1.021833E+0	1.038339E+0	1.004854E+0	9.731520E-1	1.000515E+0	1.044231E+0	1.004305E+0	1.014877E+0	1.032775E+0	1.024457E+0	1.018771E+0	1.044085E+0	1.053730E+0	1.002932E+0	1.045911E+0	9.921422E-1	1.021020E+0	9.787588E-1	1.039146E+0	1.024532E+0	1.039229E+0	1.018567E+0	1.002747E+0	1.047593E+0	9.985428E-1	1.036950E+0	1.006697E+0	1.028661E+0	1.043964E+0	1.035114E+0	1.022275E+0	9.704150E-1	9.626975E-1	1.002702E+0	1.003865E+0	9.789601E-1	1.005534E+0	1.031240E+0	1.006085E+0	1.046587E+0	1.076715E+0	1.006204E+0	9.926916E-1	9.758165E-1	9.995090E-1	1.051852E+0	1.031992E+0	1.005969E+0	1.004928E+0	1.010441E+0	1.053180E+0	1.015442E+0	1.046889E+0	9.940957E-1	1.009640E+0	1.021003E+0	1.020956E+0	9.696451E-1	9.962860E-1	1.044978E+0	1.097939E+0
5.580230E+2	1.047771E+0	1.031638E+0	1.008775E+0	9.886367E-1	1.024541E+0	1.001052E+0	1.052584E+0	1.000375E+0	1.010618E+0	9.895262E-1	9.968537E-1	1.007794E+0	1.035046E+0	1.042316E+0	9.870249E-1	1.029764E+0	9.869837E-1	1.018238E+0	1.024217E+0	1.015219E+0	1.052945E+0	9.936713E-1	9.983304E-1	9.794121E-1	1.011135E+0	1.010565E+0	1.060252E+0	9.929220E-1	1.054690E+0	9.785000E-1	9.951410E-1	1.035021E+0	1.030569E+0	1.041466E+0	1.041589E+0	1.022380E+0	1.014276E+0	9.915074E-1	1.034538E+0	1.032241E+0	1.004503E+0	1.012120E+0	1.038927E+0	1.033670E+0	1.041340E+0	1.021330E+0	1.017375E+0	1.052129E+0	1.017831E+0	1.017043E+0	1.042081E+0	1.011585E+0	1.024290E+0	1.002495E+0	9.939044E-1	1.007802E+0	1.035081E+0	9.977476E-1	1.012109E+0	1.027649E+0	9.976749E-1	1.012316E+0	9.589703E-1	1.001235E+0	9.880183E-1	9.882923E-1	1.007844E+0	9.958666E-1	1.034782E+0	1.008222E+0	1.008649E+0	9.758203E-1	9.906219E-1	9.933214E-1	1.036107E+0	1.033923E+0	1.009648E+0	1.004856E+0	1.012367E+0	1.013628E+0	9.922384E-1	9.936322E-1	1.009543E+0	9.938481E-1	1.014102E+0	9.956514E-1	1.049317E+0	9.929208E-1	9.702714E-1	9.992091E-1	9.771059E-1	1.052964E+0	1.007263E+0	9.905343E-1	1.039680E+0	1.024323E+0	1.003752E+0	9.972334E-1	1.041865E+0	9.905528E-1	1.009554E+0	1.069691E+0	1.059415E+0	9.892031E-1	1.038102E+0	1.009504E+0	1.062901E+0	9.836808E-1	1.011694E+0	1.035029E+0	1.029145E+0	1.005446E+0	1.054511E+0	1.051023E+0	1.035394E+0	1.073324E+0	1.052373E+0	1.033923E+0	9.864608E-1	9.910810E-1	1.015304E+0	1.017651E+0	9.865459E-1	1.053444E+0	1.063996E+0	9.815649E-1	1.025266E+0	1.018524E+0	1.005768E+0	1.004977E+0	9.719109E-1	1.016075E+0	1.016921E+0	1.015321E+0	1.007852E+0	1.016965E+0	1.012943E+0	1.046384E+0	9.733120E-1	1.035839E+0	1.001996E+0	1.009426E+0	1.018573E+0	1.008879E+0	1.021464E+0	1.002184E+0	1.024287E+0	1.022250E+0	1.008789E+0	1.006436E+0	1.016351E+0	1.066007E+0	1.029867E+0	1.044578E+0	9.982892E-1	9.955804E-1	1.038655E+0	1.007198E+0	1.006228E+0	1.053709E+0	9.813150E-1	1.005221E+0	1.034763E+0	1.048556E+0	1.015102E+0	1.021976E+0	1.025569E+0	1.033605E+0	1.044460E+0	9.762679E-1	1.083984E+0
5.585160E+2	9.874650E-1	1.002200E+0	9.870782E-1	1.032331E+0	9.933773E-1	1.012374E+0	9.945767E-1	9.768681E-1	1.009221E+0	1.039264E+0	1.029578E+0	1.021255E+0	1.001451E+0	9.746677E-1	9.892575E-1	1.021773E+0	1.008437E+0	1.017921E+0	1.008255E+0	9.962814E-1	9.969663E-1	1.012445E+0	1.009847E+0	1.031533E+0	9.920499E-1	9.984478E-1	9.881840E-1	1.006163E+0	9.842128E-1	9.907596E-1	1.009784E+0	9.788286E-1	9.874483E-1	9.798798E-1	1.030228E+0	1.038949E+0	9.976113E-1	1.008613E+0	1.027050E+0	9.972056E-1	9.990444E-1	9.784097E-1	1.018409E+0	1.028029E+0	1.015200E+0	1.008238E+0	1.041612E+0	9.999053E-1	1.001593E+0	1.024521E+0	9.764919E-1	1.021233E+0	1.052935E+0	9.950211E-1	1.011614E+0	1.005889E+0	1.060275E+0	1.004146E+0	1.052088E+0	9.631632E-1	1.033381E+0	1.023519E+0	1.022037E+0	9.672539E-1	1.037295E+0	9.736502E-1	9.964215E-1	9.957348E-1	9.819252E-1	1.022532E+0	1.019063E+0	1.011531E+0	1.012452E+0	1.022884E+0	1.027839E+0	9.954630E-1	9.736598E-1	1.016590E+0	1.009136E+0	1.012684E+0	1.039479E+0	1.012338E+0	9.850191E-1	1.008855E+0	1.008850E+0	1.030208E+0	9.790577E-1	1.013319E+0	9.787814E-1	1.027487E+0	9.808288E-1	9.756133E-1	1.036563E+0	9.878259E-1	1.027340E+0	1.013713E+0	9.851004E-1	1.000010E+0	9.983835E-1	1.006454E+0	9.862882E-1	9.861082E-1	9.890016E-1	9.967028E-1	1.014256E+0	9.924278E-1	1.008857E+0	1.005795E+0	1.019967E+0	9.721247E-1	1.008246E+0	9.803896E-1	9.848797E-1	9.833164E-1	9.610131E-1	1.013734E+0	1.043066E+0	1.028031E+0	9.981961E-1	1.017258E+0	1.026857E+0	9.905875E-1	1.003412E+0	1.020020E+0	1.009593E+0	1.024922E+0	1.003087E+0	1.033747E+0	1.043461E+0	9.654299E-1	1.016674E+0	9.751731E-1	1.021453E+0	9.593226E-1	1.009516E+0	1.013331E+0	1.022979E+0	9.653949E-1	1.017436E+0	1.013899E+0	9.928437E-1	1.029618E+0	9.877518E-1	1.003005E+0	9.943249E-1	1.022117E+0	1.004087E+0	1.002707E+0	1.003263E+0	1.015421E+0	9.988614E-1	1.018850E+0	1.010205E+0	1.000064E+0	1.018339E+0	9.932636E-1	9.805455E-1	9.790432E-1	1.010867E+0	1.011082E+0	9.831617E-1	1.006193E+0	9.679349E-1	9.629120E-1	1.047553E+0	9.991330E-1	1.035988E+0	1.006482E+0	9.959601E-1	1.005361E+0	9.352280E-1
5.590100E+2	9.927759E-1	9.835945E-1	9.976861E-1	1.053582E+0	1.021093E+0	1.007509E+0	9.619896E-1	9.872285E-1	9.957368E-1	9.653454E-1	9.905509E-1	1.010648E+0	9.968741E-1	9.857615E-1	1.012031E+0	1.015913E+0	9.685746E-1	9.775654E-1	1.004257E+0	9.719765E-1	9.791033E-1	9.800381E-1	9.542008E-1	9.789162E-1	1.010470E+0	1.013252E+0	1.012366E+0	9.752435E-1	9.952921E-1	1.017192E+0	1.012769E+0	1.025152E+0	9.975753E-1	1.003243E+0	1.001906E+0	1.003178E+0	9.998102E-1	9.725747E-1	9.763968E-1	9.931910E-1	9.904396E-1	1.002306E+0	1.004951E+0	9.653653E-1	9.532018E-1	1.010086E+0	9.263300E-1	9.698584E-1	1.041425E+0	9.932161E-1	1.017994E+0	1.035062E+0	9.781292E-1	9.543650E-1	1.021923E+0	1.007051E+0	9.832602E-1	9.971323E-1	9.976124E-1	1.005144E+0	1.002027E+0	9.986876E-1	9.843799E-1	1.022150E+0	1.007448E+0	9.983413E-1	9.883591E-1	1.055006E+0	9.531729E-1	9.722307E-1	9.912369E-1	1.009537E+0	1.023696E+0	1.005781E+0	1.006704E+0	9.849020E-1	1.018168E+0	9.671147E-1	9.986473E-1	9.960768E-1	1.000549E+0	9.329958E-1	9.938164E-1	1.012044E+0	9.790207E-1	1.007032E+0	9.520009E-1	9.720856E-1	1.030546E+0	9.713060E-1	1.001650E+0	1.017834E+0	9.997921E-1	1.017860E+0	9.567395E-1	9.712552E-1	9.730019E-1	1.012725E+0	1.004029E+0	9.544260E-1	9.960945E-1	9.912226E-1	1.019722E+0	1.006763E+0	9.607918E-1	1.029818E+0	9.770739E-1	1.008209E+0	1.022806E+0	9.628901E-1	1.005112E+0	9.851610E-1	9.982106E-1	9.808302E-1	1.020391E+0	1.007159E+0	9.795402E-1	9.748997E-1	9.754279E-1	1.021542E+0	1.000405E+0	9.742067E-1	9.851799E-1	9.735422E-1	9.406466E-1	9.971704E-1	9.993913E-1	9.509401E-1	1.024537E+0	9.552030E-1	9.835826E-1	1.003075E+0	1.037659E+0	9.847222E-1	1.011107E+0	9.593031E-1	1.011071E+0	9.804610E-1	9.631939E-1	1.017631E+0	1.031741E+0	9.638055E-1	9.729457E-1	1.004719E+0	9.950831E-1	1.000598E+0	9.796843E-1	1.005627E+0	9.990056E-1	9.820395E-1	9.795257E-1	1.018282E+0	9.917649E-1	1.007237E+0	9.962532E-1	9.568803E-1	1.022338E+0	1.008276E+0	1.001709E+0	1.002661E+0	1.046344E+0	9.859881E-1	9.863187E-1	9.724658E-1	9.903256E-1	9.994181E-1	9.744960E-1	9.830539E-1	9.735471E-1	1.048534E+0	9.334382E-1
5.595390E+2	9.944583E-1	9.756534E-1	1.007120E+0	9.760264E-1	9.694725E-1	9.735932E-1	9.990970E-1	9.985853E-1	9.810943E-1	9.956500E-1	9.459206E-1	1.011822E+0	9.997451E-1	9.911793E-1	1.036064E+0	9.916947E-1	1.011452E+0	9.381259E-1	9.769047E-1	9.960461E-1	9.538913E-1	9.845591E-1	9.742710E-1	1.023380E+0	1.004477E+0	9.801336E-1	1.001104E+0	1.008110E+0	9.799541E-1	1.015626E+0	9.941025E-1	1.018531E+0	1.004080E+0	9.918438E-1	1.012048E+0	9.830721E-1	9.718952E-1	9.752521E-1	1.011763E+0	9.935002E-1	9.741070E-1	9.712305E-1	9.729466E-1	9.617881E-1	9.558804E-1	9.801303E-1	1.010948E+0	1.010278E+0	9.582056E-1	9.789290E-1	9.843002E-1	1.007627E+0	9.806898E-1	9.819386E-1	9.579157E-1	9.852628E-1	9.869174E-1	1.028574E+0	9.930404E-1	9.614669E-1	9.650671E-1	9.779688E-1	1.001407E+0	1.010296E+0	1.004561E+0	9.601820E-1	9.665477E-1	9.890883E-1	9.768761E-1	9.872151E-1	9.343475E-1	1.011469E+0	9.995098E-1	9.718525E-1	1.008217E+0	9.999013E-1	9.822933E-1	9.645199E-1	9.473275E-1	9.578149E-1	9.876233E-1	9.967585E-1	1.020085E+0	9.775345E-1	9.957983E-1	9.918645E-1	9.824122E-1	9.834480E-1	1.003092E+0	9.828922E-1	1.006664E+0	9.809155E-1	1.001630E+0	9.999498E-1	9.845609E-1	9.807595E-1	9.937542E-1	9.862815E-1	9.456483E-1	1.012595E+0	9.763183E-1	1.005778E+0	9.681358E-1	9.807507E-1	9.832220E-1	9.644239E-1	9.482187E-1	9.812756E-1	9.846543E-1	9.906501E-1	9.843995E-1	9.532314E-1	9.887074E-1	1.003346E+0	9.571216E-1	9.574155E-1	9.859469E-1	1.005640E+0	1.005514E+0	9.546744E-1	1.014274E+0	9.854042E-1	1.010160E+0	9.906405E-1	9.772835E-1	1.029883E+0	9.687457E-1	9.944624E-1	9.643802E-1	9.859583E-1	9.909030E-1	1.008408E+0	9.426786E-1	1.013145E+0	9.955475E-1	9.964547E-1	1.024436E+0	9.998074E-1	9.826256E-1	9.643410E-1	1.002902E+0	1.012243E+0	9.930712E-1	9.600399E-1	9.947358E-1	1.021210E+0	1.008012E+0	1.003266E+0	9.638689E-1	9.729993E-1	9.752805E-1	9.342678E-1	9.846795E-1	9.528926E-1	9.920871E-1	9.998989E-1	9.462217E-1	9.624998E-1	9.842960E-1	9.733391E-1	1.013407E+0	9.925155E-1	9.971849E-1	9.930454E-1	1.007584E+0	9.642696E-1	1.004123E+0	1.013784E+0	1.003291E+0	1.037342E+0	9.786587E-1
5.600180E+2	1.009790E+0	1.011576E+0	1.000537E+0	1.007646E+0	1.003435E+0	9.706039E-1	1.005112E+0	1.012665E+0	9.995608E-1	1.021787E+0	9.731304E-1	9.730133E-1	9.735771E-1	9.933421E-1	1.005052E+0	9.669844E-1	9.589937E-1	9.878646E-1	9.845351E-1	9.615400E-1	9.778208E-1	1.048933E+0	9.813507E-1	9.717175E-1	1.014464E+0	9.841801E-1	9.668452E-1	1.006900E+0	9.823287E-1	1.009247E+0	9.839973E-1	9.672150E-1	9.853321E-1	9.882196E-1	9.774683E-1	9.882453E-1	1.008473E+0	1.007259E+0	9.845442E-1	9.928341E-1	9.976311E-1	1.000204E+0	9.982259E-1	9.923405E-1	9.990552E-1	1.010987E+0	1.038563E+0	9.700253E-1	9.967584E-1	1.000289E+0	9.937655E-1	9.840981E-1	9.785539E-1	1.004149E+0	1.056031E+0	9.599842E-1	9.400343E-1	9.832109E-1	9.838124E-1	9.975352E-1	9.838752E-1	1.030328E+0	1.020580E+0	9.864899E-1	9.871141E-1	1.040722E+0	9.845224E-1	9.411667E-1	9.769898E-1	9.610742E-1	1.026370E+0	9.641701E-1	1.008452E+0	9.964343E-1	9.669018E-1	1.011098E+0	1.018505E+0	1.007091E+0	9.740578E-1	9.909268E-1	9.868571E-1	1.018588E+0	9.519976E-1	1.003672E+0	1.030441E+0	9.690066E-1	1.005043E+0	1.000445E+0	9.717793E-1	1.004119E+0	9.996465E-1	9.999019E-1	9.821046E-1	9.529849E-1	9.907676E-1	9.852386E-1	9.912058E-1	9.924642E-1	9.803059E-1	9.723907E-1	9.852685E-1	9.499957E-1	9.939530E-1	9.736906E-1	9.834687E-1	1.026811E+0	9.837780E-1	9.729916E-1	9.982760E-1	1.010335E+0	9.911227E-1	1.001670E+0	9.826077E-1	9.958532E-1	1.010372E+0	9.836445E-1	1.005904E+0	9.564552E-1	1.020341E+0	1.005355E+0	1.019116E+0	9.953195E-1	9.960157E-1	9.991212E-1	9.922402E-1	9.750238E-1	1.002757E+0	1.035447E+0	1.007002E+0	1.058486E+0	1.003083E+0	1.015886E+0	9.907870E-1	9.722525E-1	9.834294E-1	9.747307E-1	1.022680E+0	1.007998E+0	1.004059E+0	9.645028E-1	9.691733E-1	9.540182E-1	1.038831E+0	1.021265E+0	9.737385E-1	1.007203E+0	1.033309E+0	9.627027E-1	9.800793E-1	1.021013E+0	1.000624E+0	9.951153E-1	1.013219E+0	1.025675E+0	9.791558E-1	1.003306E+0	9.990437E-1	9.882556E-1	1.026750E+0	1.004764E+0	9.874909E-1	9.949246E-1	1.000940E+0	1.010071E+0	9.709731E-1	1.025407E+0	9.574122E-1	9.775529E-1	1.021225E+0	9.706973E-1	1.020091E+0
5.605150E+2	1.011360E+0	9.919888E-1	1.025515E+0	9.766253E-1	1.015708E+0	9.670676E-1	9.997388E-1	9.976051E-1	1.016911E+0	1.036178E+0	1.023516E+0	9.986582E-1	9.899112E-1	1.023456E+0	9.700222E-1	1.014695E+0	1.033725E+0	1.012109E+0	9.909720E-1	1.015927E+0	9.762299E-1	9.974299E-1	1.003454E+0	1.011420E+0	9.963699E-1	9.921110E-1	1.000638E+0	9.981745E-1	9.698308E-1	1.021182E+0	9.879648E-1	9.764198E-1	9.912481E-1	9.705774E-1	9.665264E-1	9.933018E-1	1.033548E+0	1.026918E+0	9.975386E-1	9.977832E-1	1.004259E+0	9.916858E-1	9.983556E-1	1.024033E+0	9.866212E-1	9.853436E-1	1.014259E+0	9.626431E-1	9.822128E-1	1.008401E+0	9.678139E-1	9.742408E-1	9.990317E-1	9.996825E-1	9.830519E-1	9.902638E-1	1.029173E+0	1.012349E+0	9.964881E-1	9.849975E-1	1.021774E+0	1.031716E+0	1.005262E+0	9.925607E-1	1.005106E+0	9.604159E-1	9.988705E-1	1.017115E+0	1.003147E+0	1.028424E+0	1.022885E+0	1.024095E+0	9.696496E-1	1.006747E+0	1.013206E+0	9.740397E-1	1.035297E+0	1.018041E+0	1.048633E+0	9.819186E-1	9.812104E-1	1.021536E+0	1.032300E+0	1.004544E+0	9.951693E-1	9.935732E-1	1.013780E+0	9.845584E-1	9.992281E-1	1.013939E+0	9.756922E-1	9.943012E-1	9.790829E-1	1.019857E+0	1.020676E+0	1.000433E+0	1.032532E+0	1.013887E+0	9.777482E-1	1.011125E+0	1.000786E+0	1.036080E+0	1.003025E+0	1.025596E+0	9.952175E-1	1.018005E+0	9.964360E-1	1.040351E+0	1.001903E+0	9.732363E-1	1.015882E+0	1.022505E+0	1.005068E+0	1.018210E+0	1.013213E+0	9.649701E-1	1.011385E+0	1.017620E+0	1.004432E+0	9.860608E-1	9.812692E-1	1.009987E+0	1.031561E+0	9.832670E-1	1.010004E+0	9.872963E-1	9.975955E-1	1.005791E+0	9.897301E-1	1.012652E+0	1.002902E+0	9.885005E-1	1.016896E+0	1.034413E+0	1.002171E+0	1.029627E+0	9.753789E-1	1.000765E+0	1.045243E+0	1.032542E+0	9.975129E-1	1.032752E+0	1.032967E+0	9.984313E-1	1.025150E+0	1.024089E+0	9.868472E-1	1.032466E+0	1.037354E+0	1.013660E+0	9.866455E-1	9.854314E-1	9.840006E-1	1.018195E+0	9.901606E-1	1.016842E+0	9.857706E-1	1.007293E+0	1.017973E+0	1.001952E+0	9.570946E-1	9.834693E-1	1.014852E+0	9.804269E-1	9.647108E-1	9.696590E-1	9.575020E-1	1.014349E+0	9.859297E-1	9.778054E-1	1.005881E+0
5.609950E+2	9.767538E-1	1.009160E+0	9.741876E-1	9.788528E-1	9.820084E-1	1.007341E+0	9.937983E-1	1.030002E+0	1.011891E+0	9.934288E-1	1.040648E+0	9.794773E-1	9.918400E-1	9.754551E-1	1.034859E+0	9.814714E-1	1.024687E+0	1.022790E+0	1.028988E+0	1.075590E+0	1.043951E+0	9.906176E-1	1.039451E+0	9.956709E-1	9.891391E-1	9.969155E-1	9.993995E-1	9.796633E-1	9.830599E-1	9.835603E-1	1.009418E+0	1.006556E+0	1.007885E+0	1.031672E+0	9.766509E-1	9.669808E-1	9.838727E-1	9.956908E-1	1.037927E+0	1.015392E+0	9.940796E-1	1.043593E+0	1.001891E+0	9.859700E-1	1.002813E+0	9.905910E-1	1.038662E+0	9.908777E-1	9.978310E-1	9.930789E-1	1.027699E+0	1.024136E+0	9.933512E-1	1.040380E+0	9.942995E-1	1.004149E+0	9.700902E-1	9.953509E-1	1.020638E+0	1.014635E+0	9.877161E-1	9.845522E-1	1.013719E+0	9.986451E-1	9.684201E-1	1.031055E+0	1.023160E+0	9.673355E-1	1.019742E+0	1.001905E+0	9.803317E-1	9.947068E-1	1.040871E+0	1.012600E+0	9.743570E-1	9.449500E-1	9.749158E-1	1.006311E+0	1.015674E+0	1.012213E+0	1.029978E+0	1.019626E+0	9.997190E-1	9.804021E-1	1.019244E+0	1.065566E+0	1.040318E+0	9.986437E-1	1.025915E+0	1.023871E+0	1.040544E+0	9.877835E-1	9.721108E-1	1.009031E+0	9.695157E-1	1.015308E+0	1.017047E+0	1.002858E+0	1.022798E+0	1.014130E+0	1.047063E+0	9.999451E-1	1.023711E+0	1.003618E+0	1.035469E+0	9.760288E-1	9.985117E-1	9.920295E-1	9.742263E-1	1.017073E+0	1.005124E+0	9.924218E-1	9.913036E-1	1.003843E+0	1.014131E+0	9.612013E-1	9.650725E-1	9.951618E-1	1.007691E+0	1.012403E+0	9.507549E-1	9.856722E-1	9.897954E-1	9.846152E-1	9.755207E-1	1.025947E+0	9.918506E-1	1.007566E+0	9.422927E-1	1.015435E+0	1.006300E+0	9.922709E-1	1.013901E+0	1.001616E+0	1.020039E+0	9.818819E-1	9.498998E-1	9.744417E-1	9.873617E-1	9.736158E-1	1.008770E+0	1.009304E+0	1.012946E+0	1.004384E+0	9.991380E-1	9.951910E-1	9.877894E-1	1.007331E+0	1.010455E+0	9.833949E-1	9.899844E-1	9.832496E-1	9.926437E-1	9.681478E-1	1.013962E+0	9.959957E-1	1.011948E+0	1.086577E+0	9.636962E-1	9.971234E-1	9.947712E-1	1.024687E+0	9.996875E-1	1.047944E+0	1.018329E+0	1.004537E+0	1.016498E+0	1.011424E+0	9.996626E-1	9.366255E-1	9.762256E-1
