Photon Energy (eV)	#1	#2	#3	#4	#5	#6	#7	#8	#9	#10	#11	#12	#13	#14	#15	#16	#17	#18	#19	#20	#21	#22	#23	#24	#25	#26	#27	#28	#29	#30	#31	#32	#33	#34	#35	#36	#37	#38	#39	#40	#41	#42	#43	#44	#45	#46	#47	#48	#49	#50	#51	#52	#53	#54	#55	#56	#57	#58	#59	#60	#61	#62	#63	#64	#65	#66	#67	#68	#69	#70	#71	#72	#73	#74	#75	#76	#77	#78	#79	#80	#81	#82	#83	#84	#85	#86	#87	#88	#89	#90	#91	#92	#93	#94	#95	#96	#97	#98	#99	#100	#101	#102	#103	#104	#105	#106	#107	#108	#109	#110	#111	#112	#113	#114	#115	#116	#117	#118	#119	#120	#121	#122	#123	#124	#125	#126	#127	#128	#129	#130	#131	#132	#133	#134	#135	#136	#137	#138	#139	#140	#141	#142	#143	#144	#145	#146	#147	#148	#149	#150	#151	#152	#153	#154	#155	#156	#157	#158	#159	#160	#161	#162	#163	#164	#165	#166	#167	#168	#169	#170	
5.300220E+2	-4.995754E-3	-5.827361E-3	-6.296155E-3	-8.394088E-4	-9.358007E-3	-5.172148E-3	2.262148E-3	-1.965040E-3	-1.011004E-2	-6.086004E-3	-8.908820E-4	-7.776596E-3	-1.134162E-3	-1.697087E-3	2.843242E-3	-5.237382E-3	-8.041060E-3	-4.975397E-3	-1.072191E-2	-2.798204E-3	-8.365392E-3	-8.131680E-3	-1.580925E-3	-1.884809E-3	-1.028388E-2	2.597771E-3	-4.505336E-3	-8.467424E-3	-1.056161E-2	-1.130560E-2	-4.065213E-3	-2.644270E-3	-1.154312E-2	-4.000439E-3	-1.101007E-2	-1.772034E-4	-4.266565E-3	-1.293052E-2	-5.410959E-3	-3.298375E-3	-1.195600E-3	-5.044287E-3	4.073168E-3	-6.603498E-3	-1.210995E-2	-8.922643E-3	-2.646249E-4	-4.412959E-3	-3.174018E-3	-1.230076E-2	-4.151277E-3	-4.771970E-3	-6.484627E-3	-3.810582E-3	-3.463612E-3	-8.227505E-3	2.884846E-4	-1.253907E-2	-8.363605E-3	-1.096782E-2	-2.369657E-3	-3.384122E-3	-8.208176E-3	-1.047783E-2	-1.124246E-2	-6.897106E-3	3.062144E-3	-1.107030E-2	-1.309530E-2	-6.707994E-3	5.796846E-3	-7.017382E-3	-5.893436E-3	-8.659242E-3	-2.524028E-3	-5.058224E-3	-7.614744E-3	-6.625362E-3	-5.537917E-3	-5.603459E-3	-6.165178E-3	-3.548410E-3	3.530455E-4	-5.857219E-4	-4.794632E-3	-8.501668E-4	-6.180667E-3	-7.838691E-3	-1.265713E-2	-3.139733E-3	-2.423735E-3	-5.646133E-3	-2.273605E-3	-1.399652E-3	-4.114377E-3	-1.372642E-2	-4.072538E-3	-9.329670E-3	-5.595599E-3	-1.045487E-2	-5.363299E-3	-1.061420E-2	5.726367E-4	-1.118608E-2	-1.176370E-2	-5.735638E-3	8.428588E-4	-8.918111E-3	-2.903943E-3	2.875844E-3	2.374622E-4	-8.569504E-3	-7.195719E-3	-8.853620E-3	-1.155663E-2	-6.272998E-3	-5.834635E-3	3.533120E-3	-4.643363E-3	-5.264953E-3	-4.969774E-3	6.381142E-4	-2.860856E-3	-1.005493E-2	-4.161610E-3	-6.357051E-3	-6.282935E-3	-9.243172E-3	-7.800888E-3	-7.062156E-3	-2.641511E-3	5.141530E-3	-5.001092E-3	-7.474769E-3	-3.295059E-3	-6.134452E-3	-8.312446E-3	-8.953371E-3	-1.377378E-2	-7.645629E-3	-9.581085E-3	-1.171475E-2	-1.241884E-2	-7.329670E-3	-1.690668E-2	-6.691681E-3	-4.545416E-3	-1.304830E-3	-9.203943E-3	-4.356391E-3	-3.191811E-3	-2.659812E-3	7.077006E-4	-4.193526E-3	-4.911851E-3	-4.382278E-3	-5.872870E-3	-1.322445E-2	-9.449196E-3	-4.609567E-3	1.928306E-3	-4.727411E-3	-3.024539E-3	-9.251738E-3	-1.975173E-3	-8.724529E-3	-8.024800E-3	-3.296353E-3	-1.263534E-2	-1.640327E-3
5.305180E+2	-7.707008E-3	-1.158442E-2	5.490509E-3	-2.794661E-3	7.450226E-4	1.630458E-3	-2.556806E-3	-4.926790E-3	-9.993107E-3	-1.471218E-3	-6.842037E-3	-3.514395E-3	-3.782074E-3	-9.252257E-4	-8.572526E-3	-3.686377E-3	-8.406859E-3	-1.035093E-3	-8.279837E-3	-8.913941E-3	-7.702706E-3	-9.149590E-3	-2.714835E-3	-6.741919E-3	-7.657871E-3	-6.544294E-4	-8.364643E-3	-1.391336E-2	5.472407E-3	-5.150278E-3	-9.679254E-3	-1.199989E-2	-3.595687E-3	-8.548770E-3	-2.370482E-3	-9.375845E-3	-6.358658E-3	1.803254E-3	-3.251105E-3	-4.937630E-3	-4.602028E-3	-1.029263E-2	-1.377722E-2	-9.057967E-3	1.014865E-4	6.809084E-3	-6.776260E-3	-6.558638E-4	-1.886056E-3	-2.135057E-3	-9.461003E-3	-7.552575E-3	-9.541969E-3	-3.911924E-3	-3.598818E-3	-6.480431E-3	-5.351736E-3	-5.982257E-3	-3.862935E-3	-4.629731E-3	-8.644827E-3	-7.755506E-3	-1.031763E-2	-4.631326E-3	-2.405243E-3	2.922382E-4	-6.398267E-3	-7.027348E-3	-7.216194E-3	-6.900521E-3	-1.534932E-4	-3.727283E-3	-4.208222E-3	-5.350655E-3	2.985119E-3	-8.087033E-3	-1.304201E-2	-6.362358E-3	-4.163023E-3	5.617616E-3	5.745802E-4	1.281240E-3	-3.422432E-3	-7.857949E-4	-3.094554E-3	-7.051705E-3	-8.965952E-3	-3.221132E-3	-5.491847E-3	-3.711761E-3	-8.928157E-3	-6.507667E-3	2.110609E-3	-4.414775E-3	-6.396019E-3	-4.543421E-3	-4.489721E-4	-6.523752E-3	1.472767E-3	7.231818E-4	-8.041989E-3	9.566868E-5	-1.225407E-2	-7.428709E-3	-5.149451E-3	-8.596534E-3	-1.308985E-2	-3.516060E-3	-8.246393E-3	-5.516052E-3	-7.161763E-3	-2.967747E-3	-1.209598E-2	-4.885578E-4	-1.153560E-2	-4.840506E-4	-1.823918E-3	-9.402381E-3	-6.159286E-3	-4.493404E-3	-5.214463E-3	-3.625044E-3	-8.733732E-3	-5.933677E-3	-9.649891E-3	-1.243884E-3	-5.763629E-4	-2.200636E-3	-9.286152E-3	-2.043077E-4	-7.417548E-4	3.395439E-3	-1.169018E-2	-5.358260E-3	-5.274913E-3	-8.493717E-3	-1.663490E-3	-3.481424E-3	2.099913E-3	2.134108E-4	-3.263686E-3	-2.348132E-3	-8.109527E-3	-3.508683E-3	-1.885231E-3	-1.587781E-2	-1.176710E-2	-4.385891E-3	-3.883445E-3	-1.252891E-2	2.830609E-3	-8.925797E-3	5.184090E-4	-9.664737E-3	-4.665517E-3	-7.649597E-3	-1.366494E-2	-6.947401E-3	-5.218927E-3	-1.940202E-3	-4.869997E-3	-6.544636E-3	-3.831863E-3	-7.159319E-4	-6.880203E-4	1.466131E-3	4.753099E-3	-6.312385E-3	-6.638386E-3	-1.149118E-2
5.310250E+2	2.556747E-3	-2.547670E-4	-6.863594E-3	3.713677E-3	-3.333569E-3	-1.013379E-2	-7.834219E-3	-6.888450E-3	3.590004E-3	-2.058409E-3	-1.109965E-2	-1.559425E-3	-3.388213E-3	-7.097713E-3	-1.148175E-2	-8.621695E-4	-1.671373E-3	-1.147178E-3	-1.561211E-3	-3.210143E-3	-4.200044E-3	-1.873825E-3	-4.252371E-3	-2.602256E-3	-7.859848E-4	-6.186498E-3	-6.138572E-3	2.278023E-3	-1.587473E-3	1.307740E-3	-2.507329E-3	-7.208091E-4	-5.148422E-3	-3.364656E-3	-6.628648E-4	1.706923E-3	-1.266886E-3	-6.688852E-3	-6.288397E-3	-3.327388E-3	-4.220844E-3	3.272297E-3	-3.461258E-3	-1.688812E-3	4.711485E-3	1.501246E-3	-1.943206E-3	-2.427080E-3	-9.835603E-3	-3.233860E-3	3.286158E-3	1.023744E-3	-1.948960E-3	-9.021409E-3	-6.950162E-3	2.987495E-4	-1.963253E-3	-6.889996E-4	-5.783825E-3	-5.284552E-3	-1.229432E-2	-7.974953E-4	-4.013474E-3	-1.275268E-3	-7.054557E-3	-1.427214E-3	-3.217051E-3	6.028891E-3	-6.887904E-4	-3.695285E-3	1.706020E-3	-4.184418E-3	4.294364E-3	-1.742032E-3	-7.746579E-3	-7.536677E-3	1.140976E-2	-4.972999E-3	-9.404213E-3	-5.840827E-3	-6.106422E-3	-3.353128E-3	-2.510859E-3	2.573911E-4	-4.100018E-3	-1.010212E-3	-1.024323E-4	-9.173596E-3	-2.278545E-3	7.777441E-3	-5.651800E-3	-4.146188E-3	6.870634E-4	-1.582024E-3	7.540948E-3	1.743865E-3	5.933941E-4	-5.518619E-3	-2.591326E-3	-2.935570E-4	2.695519E-3	1.421348E-3	-3.542525E-3	-4.959250E-5	-1.698446E-3	-1.447559E-3	2.185870E-3	-5.735188E-3	-1.493499E-4	-4.100570E-3	-1.559731E-3	-5.372906E-3	-5.467365E-3	-1.955799E-3	1.524981E-3	-3.938359E-3	-9.316181E-3	-6.101316E-3	-3.334082E-3	-1.599120E-3	3.913714E-3	-6.457430E-3	-1.398973E-3	-4.345489E-3	-4.457443E-3	-4.265455E-3	4.145953E-3	3.080828E-3	-8.265338E-3	-8.644548E-3	-1.932087E-3	-4.274595E-3	-1.052589E-3	8.158561E-3	2.935084E-3	5.462495E-5	2.053547E-3	-3.059741E-3	1.986944E-3	-8.637574E-3	-1.334773E-3	-4.494501E-3	1.137184E-3	3.603051E-3	-5.853509E-3	-1.219647E-4	-1.129768E-2	-1.386494E-2	-3.060873E-3	-8.639396E-3	-4.268328E-3	-4.483717E-3	-9.268518E-3	-3.125330E-4	-9.877716E-3	-3.448605E-4	-3.672273E-3	1.087194E-2	2.305396E-3	1.750749E-3	4.798835E-4	2.030519E-3	-4.476444E-3	-5.876287E-3	4.626228E-3	2.734836E-3	8.868315E-3	1.848158E-3	-5.639727E-3	4.584061E-3
5.315180E+2	3.142306E-3	5.293226E-3	2.416305E-3	2.066525E-3	-1.830710E-3	1.617921E-3	-9.448597E-3	-2.161618E-3	3.110767E-3	4.398025E-3	-1.199790E-3	7.766816E-3	1.515844E-3	-1.445199E-3	3.229764E-3	1.348007E-3	4.450527E-4	-1.110530E-3	4.774711E-3	5.350615E-3	1.471995E-3	3.932320E-3	6.314461E-4	-1.766095E-4	-2.503630E-4	-6.184332E-3	9.105194E-4	7.985097E-3	3.938808E-3	-1.203542E-3	3.329237E-3	-1.396301E-3	2.687946E-4	-1.905487E-3	-6.929352E-3	-7.620024E-4	-9.782029E-3	-2.222509E-3	6.170995E-3	3.171825E-3	5.464219E-3	8.334970E-4	-8.371304E-4	9.542216E-4	-6.337958E-3	-3.229854E-3	1.060614E-3	-1.778168E-4	5.011975E-3	5.909775E-3	-7.425541E-3	-2.555104E-3	1.054982E-3	5.309013E-3	-1.755296E-3	2.226238E-3	-3.467464E-3	1.175419E-2	8.679154E-3	4.175467E-3	5.634416E-3	3.553124E-3	3.417863E-3	5.355705E-3	6.335925E-3	-3.508331E-4	-3.247484E-3	1.137394E-3	2.759275E-3	3.924221E-3	-5.878227E-3	-1.790546E-3	1.015821E-3	-5.493248E-3	-4.446361E-4	-1.188657E-3	-3.922080E-3	1.451082E-3	3.415867E-3	-3.442018E-3	-7.314483E-3	-2.832220E-3	7.228382E-3	-7.568000E-4	-4.546434E-3	1.904482E-3	-1.659997E-3	2.419490E-3	2.968769E-3	6.527095E-3	1.463034E-4	6.406083E-3	-1.022354E-2	-2.008787E-3	-4.252436E-3	3.711928E-3	-1.120072E-3	-1.259578E-3	2.975925E-3	-1.652799E-4	-3.145630E-3	-6.775162E-3	-3.729182E-3	-1.430085E-3	6.925650E-3	-2.455162E-3	5.555083E-3	1.155701E-2	2.457032E-3	-2.503981E-3	-2.052412E-3	-1.864151E-3	1.257113E-3	-3.356888E-3	1.241277E-3	1.832191E-4	3.036630E-3	-1.223092E-3	2.200127E-3	3.052155E-4	6.659512E-4	-4.112290E-3	7.796249E-3	7.533952E-3	3.348761E-3	-2.674189E-4	-6.186578E-3	-6.087975E-3	2.884469E-3	-1.966133E-3	-6.893890E-3	-1.077321E-2	-4.723035E-4	2.194515E-3	9.578546E-4	-1.820544E-3	-2.343488E-3	3.934002E-3	-4.738008E-3	1.910409E-3	-3.835164E-3	1.733839E-3	1.109736E-3	1.038267E-3	-1.376088E-3	9.980143E-3	1.298831E-2	4.450042E-3	3.529082E-3	2.859172E-3	-2.590281E-3	-3.979645E-3	-2.124340E-3	-2.897348E-3	4.029920E-3	1.323428E-3	-2.619302E-3	-2.406603E-3	-1.219870E-3	-8.159518E-3	-7.848194E-5	5.389450E-4	9.970568E-4	-2.790109E-4	-7.495903E-3	-5.363585E-3	-1.190882E-2	-2.899849E-3	3.569839E-3	-1.288654E-2
5.320020E+2	1.420949E-3	7.846850E-3	-9.225334E-4	-2.777103E-3	3.284732E-3	3.564508E-3	3.195549E-3	-1.838770E-4	1.112925E-2	-1.911331E-3	6.751129E-3	-1.932363E-3	4.059431E-3	1.941127E-3	1.402845E-3	5.551840E-3	7.942514E-3	-4.150243E-3	-5.406167E-3	1.229075E-3	1.084799E-2	2.214839E-3	2.654403E-3	1.324676E-3	3.855327E-3	3.507422E-3	1.899838E-3	1.110302E-2	-2.444695E-3	-5.738217E-5	4.440641E-5	6.782409E-3	7.175878E-3	5.897085E-3	7.614969E-3	-1.571720E-4	8.329439E-3	8.102912E-3	5.743665E-3	2.318165E-4	-1.670296E-3	1.930278E-3	-1.749994E-3	-4.762559E-3	6.456338E-3	4.771018E-3	3.136609E-3	-3.093311E-3	1.619932E-3	-4.108298E-3	1.203650E-3	-3.545894E-4	1.219332E-2	1.669200E-3	1.160681E-3	3.674708E-3	2.163203E-3	6.842938E-3	1.770759E-3	-7.921363E-3	1.281262E-2	2.194469E-3	3.510509E-3	3.213904E-3	6.845166E-3	1.414647E-3	2.186868E-3	2.914595E-3	8.015595E-3	5.390473E-3	9.030088E-5	7.054772E-3	-3.201954E-4	6.820937E-3	4.513501E-3	1.170361E-2	3.400001E-3	8.875539E-3	9.644329E-3	3.347405E-3	7.772464E-3	3.891251E-3	2.216375E-3	3.965614E-3	3.037047E-4	1.043324E-3	3.101298E-3	-4.010208E-4	9.052859E-3	-5.487356E-3	5.415986E-3	-2.908647E-3	-1.416755E-3	2.428631E-3	-3.196924E-3	-3.017498E-3	-3.792854E-3	9.061076E-3	-4.777142E-3	-3.735942E-3	7.314792E-3	7.580022E-3	1.026512E-2	6.528901E-3	1.475874E-3	2.819457E-3	-6.199004E-3	6.265112E-3	-2.037011E-3	1.028058E-3	7.002685E-3	6.990686E-3	8.523683E-3	1.127323E-3	7.013351E-3	3.869708E-4	4.001619E-3	6.054658E-3	2.268911E-3	7.929176E-3	-1.653011E-3	-1.196106E-3	4.462283E-3	-1.034647E-2	5.429725E-4	9.153533E-3	1.962931E-3	3.392766E-3	6.905254E-3	4.341774E-3	6.480211E-3	-6.607824E-4	1.507024E-2	-2.409793E-3	-2.558926E-3	6.805057E-3	-4.295934E-3	7.823636E-3	1.500778E-3	-3.844915E-3	-2.672073E-3	8.549325E-3	6.501588E-3	1.633547E-3	1.255572E-2	4.036658E-3	4.753681E-3	5.220275E-3	1.284251E-3	1.293843E-2	4.750098E-3	8.078388E-3	2.672526E-3	3.615192E-3	3.686012E-4	-2.888502E-3	1.050962E-3	1.864074E-3	-4.526096E-3	-2.256801E-3	-5.363804E-3	3.753931E-3	-1.921800E-3	1.668606E-3	-3.286338E-3	-1.586278E-3	4.923297E-3	-8.939664E-5	6.453466E-3	8.429278E-3
5.325170E+2	5.582761E-3	4.526468E-3	6.175469E-3	6.309703E-4	1.049253E-2	8.493049E-3	1.438193E-2	1.612577E-2	2.273125E-3	7.128937E-3	1.328123E-2	7.015964E-3	2.729174E-3	9.224098E-3	1.257842E-2	2.886081E-3	9.731726E-3	1.241844E-2	2.119442E-2	8.342598E-3	7.948162E-3	1.300794E-2	5.262282E-3	1.008092E-2	1.512277E-2	6.920067E-3	1.619819E-2	1.014647E-3	5.182563E-3	1.640907E-2	1.287815E-2	9.978857E-3	1.284255E-2	1.192227E-2	1.335780E-2	8.765300E-3	1.334470E-2	1.193571E-2	3.035802E-3	8.159751E-3	6.224549E-3	9.300841E-3	1.575244E-2	2.115861E-2	7.178601E-3	-9.288518E-4	4.786868E-3	1.076703E-2	8.263771E-3	1.586820E-2	1.654801E-2	1.421049E-2	4.727249E-3	9.765702E-3	1.460721E-2	8.508242E-3	8.330766E-3	6.131968E-4	7.560451E-3	2.462800E-2	4.861769E-3	6.189530E-3	1.561091E-2	7.814820E-3	7.521171E-3	6.968269E-3	7.613790E-3	8.016764E-3	1.022541E-2	7.989107E-3	-1.561446E-3	9.664856E-3	5.111668E-3	1.442424E-2	3.216625E-3	1.016698E-2	9.769080E-3	7.634098E-3	6.044958E-3	5.921284E-3	1.123904E-2	4.561267E-3	-3.864512E-3	-2.094688E-3	1.623193E-2	5.964278E-3	1.380775E-2	1.821495E-2	8.405895E-3	-1.965686E-3	1.144140E-2	1.280255E-2	1.111623E-2	6.976608E-3	1.041881E-2	1.583154E-2	8.841041E-3	1.357054E-2	8.515376E-3	1.392647E-2	6.540606E-3	8.292323E-3	8.688013E-3	1.356556E-2	1.021007E-2	1.541544E-2	1.070504E-2	3.472341E-4	1.087967E-2	8.216701E-3	3.533759E-3	1.178362E-2	1.497827E-2	1.352754E-2	1.331262E-2	1.012522E-2	9.936486E-3	7.139012E-3	9.667692E-3	3.123084E-3	7.257583E-3	1.475276E-2	7.350296E-4	2.314661E-2	1.437721E-2	2.980276E-3	6.936991E-3	1.105819E-2	1.556265E-2	1.353537E-2	5.729032E-3	7.171622E-3	3.145926E-3	4.889746E-3	7.235959E-3	9.589031E-3	1.456181E-2	3.736898E-3	1.292415E-2	1.800430E-2	2.068678E-2	8.274219E-3	1.177986E-2	4.563488E-3	1.346580E-2	8.674653E-3	9.868207E-3	9.885343E-3	1.133493E-2	9.727094E-3	2.469715E-3	1.197058E-2	7.494222E-3	1.345295E-2	1.505656E-2	1.394181E-2	2.477842E-2	9.842441E-3	1.810869E-2	1.521534E-2	7.904093E-3	4.948652E-3	1.225759E-2	1.445436E-2	8.819206E-3	1.147342E-2	1.388911E-3	1.074983E-2	1.489015E-2	1.300470E-2
5.330280E+2	2.055585E-2	1.577747E-2	2.291996E-2	2.040882E-2	2.324127E-2	1.951508E-2	2.186766E-2	2.149563E-2	3.015350E-2	1.625134E-2	1.450700E-2	3.069241E-2	3.486408E-2	2.215057E-2	2.606680E-2	1.821849E-2	2.531860E-2	1.947629E-2	2.077530E-2	1.979781E-2	2.112005E-2	3.062599E-2	2.345913E-2	1.595958E-2	2.282640E-2	2.543400E-2	2.987278E-2	3.009591E-2	2.447398E-2	1.963155E-2	2.672479E-2	2.324380E-2	2.184681E-2	9.196714E-3	1.531323E-2	1.974231E-2	2.254806E-2	2.910310E-2	2.370117E-2	2.285880E-2	2.179745E-2	1.817360E-2	3.010660E-2	2.299098E-2	2.753666E-2	2.089687E-2	2.488172E-2	1.643664E-2	2.333566E-2	1.706899E-2	2.691580E-2	1.801783E-2	1.996656E-2	2.286029E-2	2.279130E-2	2.025166E-2	2.008774E-2	2.014067E-2	2.686982E-2	2.869752E-2	2.819078E-2	2.204079E-2	2.719211E-2	1.840203E-2	2.805570E-2	2.517144E-2	2.641741E-2	2.481713E-2	3.568633E-2	2.049348E-2	2.450213E-2	2.331971E-2	1.448165E-2	2.684775E-2	1.810996E-2	2.558282E-2	1.617535E-2	3.248763E-2	3.295142E-2	2.148074E-2	1.869319E-2	1.398205E-2	2.002394E-2	1.356371E-2	2.638860E-2	1.518384E-2	2.560652E-2	1.545770E-2	2.405223E-2	1.280841E-2	2.737247E-2	3.034134E-2	2.503506E-2	1.881982E-2	2.258167E-2	2.140829E-2	2.624372E-2	2.457663E-2	7.170484E-3	2.740194E-2	2.759396E-2	1.912163E-2	1.774635E-2	2.323763E-2	2.909043E-2	1.665066E-2	3.369742E-2	1.612908E-2	3.318126E-2	1.289780E-2	1.861435E-2	1.288777E-2	2.086216E-2	2.298061E-2	1.566756E-2	1.790118E-2	2.334708E-2	3.486093E-2	1.807041E-2	2.506443E-2	2.702084E-2	2.559890E-2	1.223298E-2	2.331715E-2	1.842117E-2	1.849965E-2	1.424278E-2	2.063825E-2	1.408109E-2	2.611869E-2	2.098473E-2	2.111971E-2	2.079524E-2	3.502280E-2	8.316592E-3	1.809967E-2	3.687949E-2	2.274206E-2	1.796235E-2	2.096895E-2	1.312087E-2	2.556873E-2	2.041554E-2	2.070364E-2	1.475974E-2	2.054353E-2	2.536254E-2	1.849636E-2	1.424317E-2	2.297130E-2	2.310921E-2	3.160254E-2	1.184736E-2	1.894662E-2	2.089914E-2	2.168832E-2	2.845653E-2	1.729555E-2	2.468461E-2	2.828686E-2	2.246291E-2	2.219396E-2	2.618148E-2	2.667185E-2	2.084711E-2	3.178889E-2	1.090972E-2	2.038963E-2	2.441638E-2	2.355773E-2
5.331580E+2	1.815798E-2	2.448868E-2	2.478010E-2	2.501180E-2	2.646344E-2	2.684943E-2	2.098340E-2	2.744027E-2	2.608649E-2	2.136703E-2	2.361584E-2	2.305734E-2	3.812527E-2	1.567478E-2	3.497077E-2	2.905772E-2	2.281507E-2	2.497867E-2	1.570387E-2	2.842612E-2	2.179494E-2	2.834930E-2	2.858984E-2	1.996866E-2	2.656407E-2	1.735496E-2	2.688321E-2	3.555582E-2	3.782747E-2	2.695999E-2	4.417126E-2	3.267528E-2	3.098088E-2	2.929491E-2	2.145351E-2	3.394766E-2	2.852599E-2	1.674462E-2	3.307690E-2	2.186498E-2	2.448237E-2	1.474015E-2	2.823010E-2	2.861735E-2	2.668671E-2	1.836039E-2	2.508620E-2	2.358698E-2	2.356177E-2	2.385996E-2	1.910483E-2	3.115809E-2	2.461591E-2	2.126501E-2	2.731406E-2	2.750400E-2	2.784936E-2	3.233024E-2	2.384463E-2	3.016380E-2	2.120586E-2	1.508500E-2	2.191536E-2	3.186691E-2	3.300098E-2	2.369870E-2	3.142835E-2	2.724490E-2	2.740760E-2	2.310276E-2	2.661268E-2	2.970675E-2	2.482085E-2	2.381115E-2	2.616918E-2	3.051876E-2	1.838366E-2	2.284911E-2	3.952203E-2	2.462043E-2	2.605152E-2	3.470333E-2	3.467633E-2	2.606169E-2	2.617252E-2	3.162755E-2	2.072258E-2	2.344342E-2	3.616782E-2	2.178442E-2	1.417972E-2	2.773687E-2	3.824424E-2	2.831828E-2	1.364276E-2	2.077243E-2	2.815191E-2	3.074103E-2	2.319190E-2	2.388573E-2	1.734141E-2	2.260683E-2	2.597311E-2	2.554929E-2	2.935333E-2	2.304448E-2	3.859551E-2	2.461558E-2	2.833827E-2	2.461577E-2	2.467435E-2	2.397965E-2	2.475882E-2	3.794650E-2	3.606811E-2	1.914295E-2	2.169364E-2	2.209549E-2	1.781066E-2	2.376976E-2	2.133448E-2	2.537034E-2	3.112241E-2	2.814865E-2	2.349555E-2	2.913010E-2	3.068701E-2	1.483841E-2	2.490352E-2	2.743361E-2	3.031263E-2	2.736565E-2	2.913373E-2	2.290638E-2	2.086884E-2	2.971854E-2	3.992036E-2	2.778710E-2	3.139828E-2	3.963241E-2	2.257721E-2	2.264903E-2	1.912108E-2	2.321369E-2	1.320692E-2	2.853722E-2	2.174149E-2	2.424389E-2	3.081331E-2	3.027965E-2	2.584388E-2	2.981283E-2	2.494282E-2	1.589746E-2	3.070978E-2	3.981036E-2	1.844613E-2	3.155139E-2	3.040634E-2	2.858156E-2	2.703493E-2	2.548554E-2	2.952672E-2	3.718860E-2	2.617741E-2	2.704484E-2	2.722726E-2	2.567898E-2	1.959510E-2	2.067651E-2
5.333130E+2	3.374052E-2	2.677384E-2	4.226748E-2	3.350730E-2	4.295475E-2	2.899481E-2	4.180566E-2	3.390760E-2	3.890241E-2	3.614297E-2	3.293900E-2	3.360734E-2	3.901609E-2	4.449886E-2	3.617019E-2	3.568137E-2	2.745451E-2	3.591475E-2	4.148576E-2	4.303406E-2	3.617597E-2	3.825388E-2	3.717658E-2	3.076846E-2	3.948488E-2	5.040129E-2	3.747821E-2	4.771384E-2	3.503012E-2	4.362721E-2	4.585483E-2	4.317699E-2	3.765082E-2	4.269638E-2	3.587861E-2	3.626869E-2	5.465084E-2	4.362194E-2	5.092578E-2	4.451274E-2	4.169552E-2	4.797501E-2	2.164767E-2	4.354468E-2	3.443776E-2	4.512233E-2	4.286144E-2	3.709503E-2	4.730315E-2	2.364508E-2	3.818400E-2	4.959445E-2	2.879807E-2	4.153509E-2	3.755922E-2	3.942179E-2	4.631775E-2	3.757006E-2	3.114748E-2	4.063859E-2	3.338352E-2	3.639316E-2	3.818059E-2	5.004988E-2	3.510653E-2	3.059718E-2	3.652559E-2	2.867585E-2	3.391958E-2	3.386772E-2	4.009744E-2	5.153799E-2	4.740753E-2	2.893041E-2	3.873245E-2	4.213105E-2	3.532718E-2	2.759354E-2	3.350645E-2	3.849523E-2	4.925575E-2	4.935235E-2	4.063190E-2	4.031855E-2	4.417362E-2	4.571984E-2	2.444208E-2	4.953306E-2	2.694617E-2	2.741471E-2	3.034454E-2	5.116394E-2	3.431143E-2	3.345550E-2	3.035174E-2	3.980261E-2	3.940022E-2	3.375135E-2	3.838044E-2	3.809575E-2	5.010508E-2	3.590816E-2	3.657013E-2	4.277198E-2	4.638075E-2	3.688747E-2	4.677828E-2	2.858053E-2	3.891695E-2	3.040252E-2	4.100290E-2	3.308350E-2	3.541455E-2	5.133885E-2	3.997008E-2	4.538012E-2	3.191063E-2	5.054288E-2	4.758569E-2	3.371721E-2	3.981209E-2	2.750613E-2	3.582650E-2	3.732394E-2	3.844498E-2	4.678729E-2	4.527454E-2	3.208193E-2	3.652094E-2	3.341064E-2	4.269905E-2	2.491264E-2	4.411055E-2	4.423544E-2	3.580391E-2	4.461085E-2	2.632030E-2	4.967371E-2	4.292707E-2	3.431868E-2	3.579144E-2	3.805750E-2	3.494710E-2	4.732473E-2	3.262092E-2	4.221432E-2	3.689634E-2	3.977199E-2	2.464688E-2	3.407563E-2	2.913325E-2	5.275446E-2	3.778020E-2	3.760378E-2	3.191506E-2	6.158534E-2	3.416117E-2	4.797160E-2	4.111749E-2	4.184456E-2	3.897949E-2	3.667817E-2	4.620055E-2	4.898357E-2	3.653660E-2	3.791277E-2	3.396290E-2	4.239161E-2	4.142382E-2	3.143413E-2
5.334630E+2	4.458772E-2	5.178125E-2	5.371199E-2	4.696031E-2	5.196144E-2	4.735274E-2	5.848212E-2	5.001805E-2	5.738851E-2	5.548488E-2	4.650034E-2	6.660078E-2	5.202840E-2	5.391491E-2	6.255588E-2	4.167840E-2	4.493288E-2	4.254368E-2	2.947489E-2	4.529801E-2	5.860516E-2	5.368657E-2	5.619212E-2	5.507414E-2	5.563713E-2	5.547964E-2	5.446472E-2	6.445858E-2	4.378033E-2	4.544319E-2	6.203539E-2	5.167484E-2	4.206030E-2	5.917347E-2	5.368972E-2	4.891178E-2	5.170706E-2	6.302601E-2	6.396764E-2	5.328738E-2	5.790974E-2	5.976050E-2	4.787605E-2	4.912796E-2	5.581616E-2	6.134987E-2	4.263089E-2	5.457287E-2	6.533824E-2	6.091203E-2	4.348110E-2	6.236897E-2	5.513664E-2	5.218025E-2	4.884096E-2	5.096641E-2	5.271216E-2	4.383959E-2	5.122549E-2	5.615025E-2	5.183394E-2	5.252816E-2	5.146090E-2	5.089255E-2	4.894978E-2	5.003152E-2	4.260594E-2	4.557463E-2	5.405906E-2	4.755709E-2	5.789636E-2	5.241149E-2	5.261507E-2	4.948966E-2	5.384901E-2	5.774530E-2	7.272461E-2	4.876601E-2	5.740977E-2	5.433942E-2	4.668087E-2	6.054274E-2	4.657445E-2	5.457535E-2	3.868498E-2	4.796979E-2	5.366484E-2	4.547159E-2	5.094296E-2	5.811013E-2	4.853212E-2	6.109742E-2	4.105330E-2	4.941895E-2	5.247453E-2	4.521648E-2	5.348022E-2	5.358501E-2	5.840946E-2	5.339982E-2	6.152491E-2	5.305998E-2	6.813378E-2	5.580724E-2	4.717596E-2	4.863592E-2	5.568225E-2	5.265386E-2	5.432426E-2	5.737873E-2	4.504269E-2	3.931822E-2	5.088401E-2	5.014879E-2	5.794232E-2	4.556732E-2	5.562752E-2	7.190333E-2	5.573963E-2	6.312848E-2	4.949275E-2	5.496205E-2	6.189531E-2	5.466708E-2	5.446380E-2	5.059819E-2	5.041111E-2	6.842414E-2	4.919897E-2	5.576009E-2	4.042022E-2	5.002187E-2	6.168398E-2	6.818163E-2	5.180658E-2	5.641478E-2	6.335068E-2	4.397747E-2	6.445085E-2	5.025396E-2	6.102706E-2	5.193509E-2	4.780964E-2	6.153349E-2	4.472172E-2	4.861799E-2	5.151071E-2	6.830631E-2	5.346862E-2	5.513209E-2	5.102122E-2	4.787867E-2	6.225569E-2	6.961105E-2	5.043384E-2	6.187854E-2	5.253401E-2	5.088413E-2	4.738785E-2	6.496505E-2	4.981715E-2	4.888637E-2	5.011507E-2	7.233581E-2	5.466315E-2	5.956134E-2	4.871123E-2	6.096699E-2	6.348595E-2	3.029628E-2
5.336130E+2	5.385038E-2	8.721299E-2	5.695262E-2	6.541074E-2	5.464831E-2	6.885229E-2	5.439004E-2	5.668077E-2	6.830051E-2	5.759884E-2	6.100516E-2	7.070608E-2	7.352159E-2	5.828376E-2	7.119739E-2	6.341171E-2	6.176843E-2	6.035187E-2	5.243186E-2	5.457270E-2	6.502863E-2	5.458669E-2	7.292749E-2	7.224094E-2	8.284068E-2	8.602841E-2	8.232960E-2	6.718844E-2	7.809439E-2	5.848118E-2	6.015817E-2	6.280920E-2	6.804063E-2	6.995380E-2	6.472647E-2	6.183638E-2	6.967680E-2	5.626780E-2	6.993552E-2	6.669416E-2	5.846192E-2	6.197251E-2	6.937201E-2	6.412639E-2	6.123304E-2	7.739740E-2	4.942885E-2	6.729086E-2	7.452642E-2	6.922283E-2	8.129313E-2	7.808325E-2	6.609748E-2	5.784996E-2	7.326953E-2	7.168718E-2	6.018063E-2	5.959247E-2	7.732867E-2	7.200970E-2	5.361932E-2	8.327837E-2	5.871485E-2	4.523544E-2	7.123422E-2	7.220685E-2	5.255797E-2	8.656222E-2	6.137672E-2	6.583145E-2	7.439210E-2	6.503383E-2	6.940652E-2	6.528118E-2	7.025488E-2	6.351571E-2	7.444301E-2	6.035702E-2	6.518726E-2	5.586725E-2	8.387862E-2	6.629687E-2	7.057590E-2	7.019828E-2	5.907975E-2	6.675441E-2	6.632171E-2	5.246359E-2	6.474819E-2	6.889335E-2	6.403848E-2	5.959097E-2	6.893750E-2	6.957777E-2	6.462055E-2	7.871742E-2	5.833920E-2	6.736045E-2	6.598734E-2	6.587226E-2	5.562112E-2	6.386827E-2	6.340089E-2	7.448009E-2	6.872165E-2	6.289710E-2	7.920779E-2	5.228797E-2	8.289287E-2	5.693958E-2	6.613419E-2	5.883326E-2	6.248016E-2	5.525525E-2	7.362914E-2	8.270821E-2	7.717896E-2	7.816370E-2	6.256458E-2	7.284419E-2	6.050590E-2	5.692308E-2	7.726309E-2	7.795871E-2	6.682163E-2	6.468460E-2	5.199211E-2	6.744910E-2	6.019697E-2	6.841095E-2	6.946494E-2	6.681303E-2	5.695668E-2	7.725771E-2	8.352898E-2	7.952583E-2	7.908941E-2	7.446975E-2	7.186041E-2	7.400585E-2	6.836253E-2	5.785786E-2	7.006468E-2	8.038497E-2	6.013125E-2	7.678099E-2	5.888161E-2	7.691988E-2	5.635510E-2	5.627439E-2	5.270612E-2	5.840198E-2	6.393605E-2	7.125773E-2	6.635601E-2	7.024912E-2	8.505014E-2	5.942595E-2	7.097720E-2	7.510396E-2	7.949589E-2	7.452984E-2	5.746490E-2	7.188612E-2	7.321048E-2	6.421522E-2	6.411715E-2	7.392325E-2	7.805917E-2	9.364220E-2
5.337580E+2	8.231862E-2	8.497355E-2	7.764587E-2	8.653758E-2	9.244635E-2	9.158107E-2	9.259006E-2	1.102423E-1	8.737342E-2	1.004312E-1	8.452463E-2	1.072313E-1	9.976352E-2	9.389079E-2	9.514134E-2	8.967178E-2	9.200888E-2	8.509481E-2	9.137912E-2	1.037455E-1	1.056979E-1	1.001667E-1	9.836141E-2	8.476952E-2	1.216505E-1	1.153386E-1	1.178971E-1	1.129640E-1	9.931425E-2	9.366011E-2	9.593474E-2	1.112521E-1	9.921980E-2	9.029549E-2	9.357730E-2	9.750894E-2	1.105609E-1	9.917990E-2	1.111691E-1	1.026346E-1	9.847667E-2	1.093866E-1	9.940027E-2	9.431438E-2	8.236591E-2	9.996921E-2	9.486225E-2	1.126473E-1	8.839953E-2	1.076078E-1	1.094754E-1	1.113701E-1	8.312377E-2	9.090328E-2	8.986675E-2	1.089957E-1	8.400510E-2	1.161125E-1	1.004762E-1	1.127703E-1	9.315609E-2	1.063589E-1	9.864062E-2	9.541673E-2	1.097289E-1	1.076890E-1	9.723358E-2	9.275742E-2	9.659245E-2	1.089082E-1	1.010318E-1	1.028169E-1	9.460098E-2	8.751351E-2	1.113277E-1	9.570971E-2	1.013126E-1	8.907153E-2	1.100191E-1	9.378124E-2	9.490047E-2	8.873229E-2	9.941546E-2	9.987150E-2	1.035975E-1	1.070660E-1	8.786728E-2	8.816538E-2	1.072057E-1	1.018671E-1	1.024345E-1	1.094784E-1	1.116700E-1	1.049243E-1	9.376978E-2	9.472930E-2	1.017122E-1	1.014316E-1	9.890472E-2	9.139893E-2	1.037092E-1	9.987985E-2	8.076835E-2	1.109517E-1	8.717037E-2	1.152606E-1	1.044580E-1	9.487683E-2	1.018290E-1	1.020809E-1	1.170219E-1	9.758116E-2	1.180776E-1	9.846089E-2	1.041980E-1	8.809344E-2	1.106888E-1	1.223276E-1	9.989752E-2	9.184848E-2	1.041101E-1	9.523199E-2	1.108781E-1	9.833289E-2	1.169164E-1	1.074505E-1	1.036711E-1	1.153625E-1	9.436638E-2	1.055492E-1	9.718623E-2	9.247863E-2	1.103798E-1	1.138175E-1	1.066646E-1	1.055186E-1	8.929576E-2	1.127198E-1	1.032258E-1	9.949834E-2	1.029738E-1	9.840280E-2	1.067137E-1	8.536586E-2	8.791053E-2	1.028244E-1	9.610491E-2	1.127707E-1	1.034347E-1	1.037426E-1	1.028393E-1	1.104152E-1	9.819098E-2	1.043325E-1	1.075944E-1	1.053647E-1	9.057030E-2	9.630267E-2	9.982299E-2	9.486745E-2	1.137890E-1	1.024674E-1	9.583080E-2	1.258022E-1	1.042655E-1	9.704249E-2	9.162765E-2	1.100866E-1	1.127486E-1	6.185869E-2
5.339140E+2	1.357442E-1	1.534866E-1	1.518747E-1	1.668985E-1	1.407647E-1	1.436694E-1	1.502507E-1	1.479916E-1	1.512341E-1	1.485926E-1	1.644453E-1	1.587609E-1	1.557335E-1	1.662719E-1	1.691207E-1	1.512608E-1	1.425096E-1	1.401926E-1	1.418216E-1	1.439584E-1	1.365681E-1	1.370138E-1	1.506250E-1	1.474610E-1	2.063716E-1	1.889828E-1	1.744209E-1	1.874391E-1	1.760393E-1	1.783171E-1	1.717213E-1	1.764812E-1	1.766083E-1	1.668671E-1	1.896151E-1	1.669371E-1	1.617932E-1	1.747287E-1	1.655117E-1	1.699657E-1	1.771934E-1	1.783907E-1	1.815315E-1	1.595074E-1	1.623118E-1	1.675790E-1	1.760800E-1	1.476957E-1	1.665795E-1	1.777976E-1	1.619177E-1	1.767594E-1	1.769644E-1	1.792336E-1	1.570261E-1	1.748439E-1	1.640671E-1	1.628260E-1	1.607135E-1	1.837236E-1	1.613012E-1	1.443494E-1	1.564927E-1	1.596569E-1	1.511069E-1	1.666283E-1	1.628127E-1	1.601664E-1	1.732885E-1	1.555212E-1	1.530935E-1	1.733240E-1	1.431649E-1	1.623580E-1	1.669158E-1	1.789160E-1	1.538097E-1	1.601401E-1	1.632544E-1	1.717028E-1	1.674458E-1	1.632839E-1	1.540023E-1	1.711200E-1	1.656322E-1	1.561765E-1	1.649510E-1	1.658179E-1	1.609256E-1	1.654016E-1	1.768549E-1	1.608511E-1	1.518933E-1	1.758583E-1	1.639725E-1	1.654765E-1	1.666840E-1	1.428400E-1	1.507792E-1	1.679587E-1	1.516037E-1	1.619357E-1	1.486367E-1	1.535224E-1	1.528345E-1	1.566595E-1	1.658495E-1	1.602301E-1	1.574658E-1	1.698250E-1	1.552280E-1	1.666199E-1	1.785459E-1	1.472795E-1	1.491094E-1	1.679941E-1	1.466998E-1	1.629688E-1	1.854039E-1	1.548712E-1	1.484012E-1	1.792928E-1	1.532318E-1	1.616034E-1	1.715800E-1	1.555205E-1	1.606308E-1	1.638573E-1	1.655424E-1	1.635670E-1	1.480847E-1	1.619837E-1	1.557615E-1	1.907074E-1	1.474548E-1	1.762360E-1	1.668153E-1	1.732237E-1	1.587707E-1	1.511895E-1	1.665792E-1	1.478033E-1	1.599161E-1	1.637471E-1	1.709511E-1	1.818257E-1	1.649059E-1	1.561531E-1	1.540408E-1	1.664093E-1	1.447823E-1	1.612651E-1	1.746487E-1	1.198431E-1	1.351041E-1	1.729426E-1	1.530772E-1	1.592982E-1	1.525067E-1	1.703657E-1	1.719878E-1	1.709506E-1	1.656082E-1	1.671703E-1	1.662127E-1	1.739254E-1	1.746445E-1	1.640675E-1	1.800731E-1	1.898676E-1
5.340800E+2	2.313387E-1	2.262637E-1	2.585414E-1	2.338669E-1	2.477861E-1	2.536806E-1	2.453522E-1	2.361435E-1	2.381488E-1	2.389002E-1	2.451586E-1	2.478988E-1	2.542170E-1	2.731859E-1	2.195324E-1	2.494310E-1	2.435269E-1	2.553084E-1	2.543669E-1	2.337327E-1	2.389281E-1	2.464770E-1	2.507414E-1	2.449374E-1	3.260976E-1	3.141079E-1	3.163254E-1	3.099518E-1	3.081565E-1	2.830659E-1	2.806980E-1	2.864751E-1	2.975367E-1	2.921462E-1	2.917368E-1	2.577381E-1	2.764947E-1	2.877269E-1	2.774221E-1	2.913332E-1	2.691440E-1	2.931626E-1	2.725617E-1	2.824876E-1	2.822546E-1	2.852918E-1	2.616809E-1	2.712963E-1	2.577492E-1	2.747661E-1	2.932742E-1	2.798808E-1	2.543346E-1	2.699002E-1	2.592446E-1	2.634172E-1	3.131677E-1	2.714537E-1	2.727556E-1	2.574431E-1	2.597495E-1	2.727217E-1	2.682871E-1	2.599068E-1	2.618357E-1	2.790748E-1	2.605641E-1	2.664663E-1	2.660069E-1	2.696373E-1	2.777596E-1	2.714769E-1	2.452838E-1	2.623771E-1	2.807206E-1	2.678674E-1	2.673110E-1	2.924741E-1	2.785991E-1	2.813734E-1	2.566201E-1	2.548105E-1	2.779507E-1	2.686005E-1	2.391479E-1	2.967184E-1	2.588547E-1	2.827771E-1	2.801055E-1	2.693865E-1	2.525834E-1	2.729568E-1	2.705371E-1	2.719385E-1	2.585318E-1	2.642880E-1	2.786425E-1	2.580881E-1	2.713267E-1	2.441691E-1	2.874140E-1	2.654446E-1	2.564844E-1	2.688603E-1	2.587783E-1	2.513342E-1	2.804339E-1	2.693579E-1	2.742837E-1	2.805238E-1	2.585530E-1	2.637410E-1	2.589630E-1	2.412330E-1	2.730987E-1	2.514292E-1	2.665591E-1	2.550173E-1	2.501654E-1	2.741129E-1	2.631659E-1	2.732236E-1	2.777634E-1	2.441105E-1	2.540178E-1	2.516471E-1	2.561212E-1	2.707757E-1	2.763462E-1	2.457832E-1	2.693674E-1	2.349079E-1	2.576256E-1	2.543418E-1	2.526430E-1	2.796114E-1	2.806840E-1	2.693789E-1	2.910868E-1	2.531348E-1	2.703207E-1	2.655188E-1	2.555025E-1	2.716827E-1	2.459525E-1	2.839747E-1	2.600804E-1	2.631379E-1	2.421426E-1	2.585631E-1	2.693446E-1	2.712533E-1	2.698225E-1	2.705759E-1	2.570335E-1	2.738138E-1	2.675267E-1	2.463400E-1	2.595255E-1	2.701804E-1	2.670674E-1	2.476017E-1	2.715939E-1	2.589145E-1	2.556834E-1	2.662054E-1	2.798005E-1	2.905255E-1	2.729944E-1	2.522800E-1
5.342040E+2	4.484157E-1	4.213975E-1	4.242596E-1	4.200934E-1	4.279861E-1	4.196120E-1	4.328326E-1	4.102117E-1	4.239445E-1	4.292808E-1	4.271216E-1	4.345483E-1	4.268156E-1	4.101728E-1	4.414004E-1	4.474613E-1	4.620725E-1	4.390463E-1	4.515978E-1	4.348017E-1	4.197812E-1	4.326920E-1	4.131589E-1	4.248149E-1	5.776219E-1	5.417045E-1	5.206958E-1	5.081417E-1	5.161751E-1	4.868076E-1	4.823858E-1	4.967561E-1	5.040098E-1	4.751676E-1	4.773039E-1	4.981332E-1	4.934152E-1	5.031242E-1	5.215402E-1	4.777669E-1	5.030039E-1	5.008735E-1	4.996789E-1	5.018452E-1	5.180006E-1	4.698858E-1	4.863330E-1	4.770240E-1	4.550994E-1	4.356949E-1	4.787475E-1	5.026817E-1	4.888229E-1	4.693741E-1	4.976270E-1	4.823588E-1	5.098776E-1	4.714726E-1	4.665579E-1	5.012347E-1	4.647977E-1	4.710906E-1	4.767558E-1	4.880960E-1	4.843717E-1	4.666005E-1	4.471974E-1	4.825099E-1	4.680691E-1	4.916065E-1	5.090481E-1	4.860044E-1	4.795053E-1	4.904534E-1	4.895624E-1	4.790486E-1	4.622108E-1	4.837086E-1	4.664704E-1	4.642297E-1	4.531835E-1	4.784074E-1	4.626086E-1	4.628734E-1	5.038355E-1	4.933691E-1	4.447322E-1	4.920802E-1	4.384607E-1	4.679108E-1	4.369175E-1	4.649756E-1	4.527562E-1	4.674033E-1	4.493915E-1	4.780155E-1	4.479274E-1	4.928177E-1	4.540290E-1	4.624360E-1	4.489999E-1	4.833086E-1	4.414746E-1	4.712266E-1	4.709297E-1	4.784677E-1	4.762149E-1	4.766268E-1	4.767928E-1	4.631435E-1	4.452301E-1	4.639973E-1	4.750584E-1	4.578145E-1	4.435782E-1	4.627403E-1	4.865744E-1	4.741697E-1	4.518482E-1	4.829168E-1	4.662416E-1	4.396298E-1	4.395034E-1	4.515761E-1	4.753956E-1	4.724373E-1	4.758075E-1	4.604772E-1	4.762653E-1	4.897038E-1	4.649070E-1	4.528592E-1	4.489399E-1	4.614166E-1	4.764670E-1	4.931768E-1	4.373301E-1	4.606394E-1	4.909841E-1	4.791829E-1	4.691436E-1	4.347472E-1	4.702226E-1	4.456252E-1	4.579157E-1	4.699208E-1	4.640892E-1	4.395870E-1	4.703131E-1	4.466011E-1	4.733528E-1	4.909313E-1	4.841064E-1	4.784750E-1	4.606913E-1	4.606776E-1	4.611744E-1	4.200876E-1	4.469882E-1	4.633023E-1	4.766023E-1	4.728825E-1	4.582731E-1	4.615268E-1	4.620881E-1	4.770578E-1	4.684763E-1	4.843126E-1	4.864440E-1	4.094021E-1
5.343600E+2	7.143971E-1	7.324767E-1	7.625577E-1	7.511443E-1	7.583107E-1	7.939138E-1	7.753817E-1	7.766226E-1	7.613744E-1	7.574590E-1	7.683364E-1	7.789319E-1	7.673139E-1	7.746693E-1	7.854854E-1	7.824958E-1	8.012670E-1	7.450007E-1	7.944011E-1	7.668224E-1	7.670993E-1	7.444033E-1	7.465496E-1	7.765577E-1	8.897165E-1	8.567133E-1	8.903099E-1	8.426126E-1	8.870105E-1	8.319909E-1	8.424291E-1	8.558059E-1	8.692228E-1	7.919196E-1	8.072111E-1	8.434999E-1	8.513918E-1	8.595439E-1	8.345922E-1	8.351726E-1	8.744483E-1	8.486799E-1	8.395163E-1	8.561779E-1	8.264401E-1	8.594031E-1	8.118945E-1	8.005485E-1	7.989648E-1	7.947765E-1	8.282969E-1	8.428402E-1	8.072746E-1	8.042153E-1	8.452238E-1	8.273714E-1	8.330544E-1	8.475547E-1	8.464144E-1	8.251495E-1	8.097419E-1	8.393965E-1	7.740406E-1	7.794927E-1	7.954531E-1	8.400902E-1	8.038652E-1	8.081251E-1	8.401474E-1	8.272675E-1	7.883321E-1	8.077166E-1	8.277486E-1	7.826534E-1	8.177880E-1	8.051651E-1	7.619423E-1	8.462386E-1	8.176685E-1	8.196578E-1	7.974980E-1	8.281255E-1	8.205456E-1	8.197613E-1	8.666976E-1	8.228066E-1	8.095004E-1	8.499277E-1	7.791721E-1	7.965160E-1	7.795901E-1	8.113115E-1	8.034882E-1	7.784112E-1	7.835896E-1	7.804426E-1	8.157988E-1	7.950130E-1	8.207419E-1	7.904350E-1	8.038309E-1	7.768453E-1	8.096016E-1	7.445319E-1	7.884412E-1	7.763052E-1	8.012758E-1	7.765718E-1	8.256151E-1	7.512228E-1	7.892437E-1	7.976832E-1	8.011045E-1	7.505857E-1	7.985302E-1	8.197774E-1	8.284927E-1	7.988036E-1	7.800529E-1	8.022406E-1	7.915574E-1	7.978340E-1	7.966170E-1	7.918545E-1	7.956472E-1	7.879433E-1	7.908986E-1	7.585287E-1	7.780753E-1	8.238146E-1	7.970808E-1	7.725693E-1	7.759331E-1	7.768971E-1	8.098003E-1	8.259272E-1	7.739058E-1	8.203971E-1	7.904296E-1	8.180791E-1	7.973255E-1	7.988570E-1	7.707104E-1	8.111405E-1	7.855364E-1	7.664558E-1	7.770076E-1	7.374666E-1	7.788156E-1	8.053329E-1	7.795343E-1	8.083929E-1	7.773730E-1	7.635403E-1	8.283915E-1	7.940237E-1	8.125185E-1	8.055507E-1	7.933701E-1	7.823169E-1	7.727351E-1	7.727189E-1	8.011545E-1	8.119302E-1	7.941930E-1	8.211904E-1	7.848609E-1	7.779291E-1	7.909200E-1	7.542272E-1
5.345160E+2	1.101380E+0	1.093241E+0	1.122005E+0	1.091665E+0	1.119634E+0	1.103745E+0	1.115242E+0	1.101382E+0	1.088764E+0	1.124638E+0	1.111032E+0	1.175839E+0	1.082165E+0	1.118852E+0	1.163628E+0	1.121819E+0	1.112036E+0	1.103077E+0	1.069963E+0	1.070503E+0	1.114451E+0	1.135101E+0	1.115062E+0	1.118940E+0	1.235542E+0	1.179949E+0	1.199090E+0	1.167107E+0	1.265539E+0	1.143382E+0	1.186736E+0	1.203860E+0	1.158631E+0	1.178101E+0	1.141120E+0	1.200893E+0	1.177534E+0	1.219057E+0	1.221276E+0	1.190257E+0	1.160091E+0	1.182017E+0	1.131216E+0	1.163257E+0	1.199843E+0	1.136961E+0	1.124583E+0	1.161399E+0	1.164673E+0	1.154787E+0	1.136451E+0	1.120338E+0	1.141930E+0	1.124868E+0	1.201044E+0	1.109794E+0	1.126505E+0	1.158740E+0	1.164337E+0	1.147689E+0	1.140143E+0	1.145223E+0	1.114930E+0	1.071413E+0	1.154931E+0	1.114993E+0	1.129029E+0	1.142427E+0	1.141247E+0	1.121042E+0	1.122172E+0	1.142528E+0	1.129716E+0	1.132862E+0	1.168823E+0	1.184538E+0	1.124969E+0	1.134432E+0	1.160455E+0	1.131800E+0	1.049992E+0	1.156786E+0	1.098619E+0	1.118045E+0	1.110287E+0	1.137651E+0	1.153661E+0	1.132299E+0	1.156443E+0	1.112475E+0	1.173115E+0	1.108895E+0	1.124408E+0	1.109828E+0	1.151562E+0	1.094701E+0	1.174011E+0	1.137129E+0	1.148199E+0	1.108454E+0	1.143466E+0	1.138432E+0	1.178351E+0	1.118803E+0	1.155550E+0	1.153974E+0	1.130424E+0	1.123341E+0	1.152082E+0	1.163528E+0	1.104325E+0	1.119117E+0	1.133479E+0	1.107425E+0	1.076797E+0	1.104477E+0	1.151301E+0	1.117913E+0	1.119565E+0	1.132458E+0	1.137918E+0	1.115524E+0	1.108468E+0	1.147539E+0	1.103358E+0	1.153366E+0	1.140176E+0	1.116359E+0	1.114734E+0	1.143236E+0	1.086052E+0	1.106728E+0	1.148609E+0	1.113976E+0	1.116253E+0	1.133477E+0	1.111205E+0	1.141676E+0	1.149804E+0	1.104923E+0	1.184305E+0	1.072163E+0	1.146513E+0	1.102043E+0	1.124765E+0	1.188491E+0	1.173549E+0	1.078583E+0	1.100936E+0	1.109438E+0	1.128145E+0	1.143721E+0	1.131841E+0	1.146597E+0	1.100163E+0	1.105484E+0	1.181700E+0	1.056479E+0	1.139931E+0	1.097674E+0	1.165120E+0	1.095693E+0	1.166444E+0	1.161055E+0	1.118271E+0	1.133524E+0	1.093490E+0	1.085948E+0	1.139264E+0	1.087256E+0
5.346560E+2	1.492734E+0	1.513215E+0	1.496282E+0	1.492584E+0	1.541558E+0	1.513162E+0	1.503471E+0	1.536333E+0	1.494140E+0	1.530528E+0	1.550959E+0	1.609699E+0	1.534507E+0	1.533430E+0	1.562907E+0	1.528802E+0	1.509666E+0	1.562038E+0	1.545922E+0	1.543025E+0	1.567553E+0	1.498247E+0	1.505390E+0	1.484597E+0	1.539260E+0	1.592877E+0	1.560123E+0	1.589608E+0	1.578035E+0	1.568354E+0	1.567737E+0	1.596254E+0	1.569808E+0	1.576315E+0	1.536127E+0	1.556353E+0	1.589396E+0	1.596928E+0	1.548839E+0	1.549410E+0	1.610414E+0	1.572526E+0	1.508242E+0	1.544383E+0	1.618263E+0	1.553328E+0	1.547194E+0	1.503349E+0	1.604407E+0	1.559445E+0	1.550335E+0	1.566852E+0	1.499629E+0	1.541029E+0	1.499972E+0	1.579520E+0	1.514994E+0	1.569283E+0	1.549434E+0	1.558457E+0	1.574108E+0	1.563851E+0	1.530029E+0	1.555657E+0	1.542525E+0	1.541643E+0	1.498166E+0	1.534580E+0	1.602579E+0	1.556336E+0	1.535948E+0	1.546721E+0	1.539759E+0	1.549090E+0	1.516917E+0	1.547222E+0	1.512304E+0	1.520271E+0	1.494837E+0	1.479448E+0	1.505468E+0	1.553213E+0	1.511701E+0	1.498769E+0	1.565271E+0	1.569855E+0	1.468760E+0	1.565108E+0	1.470022E+0	1.526804E+0	1.505837E+0	1.540055E+0	1.494519E+0	1.539021E+0	1.531704E+0	1.508207E+0	1.539477E+0	1.509575E+0	1.531313E+0	1.500885E+0	1.555341E+0	1.553832E+0	1.568752E+0	1.511930E+0	1.537149E+0	1.510371E+0	1.493549E+0	1.585530E+0	1.566400E+0	1.564526E+0	1.533775E+0	1.478423E+0	1.536255E+0	1.505545E+0	1.456309E+0	1.559192E+0	1.497123E+0	1.546644E+0	1.478352E+0	1.490080E+0	1.538233E+0	1.533486E+0	1.485556E+0	1.497760E+0	1.496009E+0	1.522629E+0	1.504758E+0	1.519080E+0	1.533258E+0	1.561843E+0	1.528013E+0	1.474724E+0	1.564939E+0	1.516451E+0	1.487604E+0	1.570455E+0	1.502019E+0	1.516026E+0	1.545232E+0	1.469573E+0	1.517431E+0	1.513994E+0	1.505972E+0	1.485644E+0	1.581719E+0	1.466572E+0	1.560443E+0	1.472117E+0	1.488024E+0	1.492946E+0	1.518491E+0	1.549182E+0	1.563271E+0	1.475716E+0	1.502034E+0	1.515765E+0	1.561075E+0	1.508998E+0	1.477379E+0	1.474639E+0	1.553124E+0	1.453626E+0	1.522871E+0	1.500289E+0	1.483692E+0	1.551358E+0	1.521391E+0	1.518999E+0	1.495430E+0	1.539767E+0
5.348230E+2	1.840156E+0	1.901566E+0	1.830542E+0	1.822679E+0	1.825247E+0	1.873202E+0	1.871044E+0	1.874856E+0	1.831223E+0	1.925783E+0	1.843473E+0	1.901856E+0	1.859281E+0	1.876650E+0	1.881044E+0	1.842932E+0	1.841936E+0	1.836617E+0	1.903009E+0	1.826904E+0	1.887654E+0	1.838146E+0	1.860026E+0	1.793571E+0	1.830350E+0	1.799983E+0	1.834744E+0	1.902446E+0	1.931645E+0	1.830435E+0	1.807694E+0	1.823060E+0	1.849914E+0	1.843164E+0	1.825924E+0	1.883808E+0	1.821978E+0	1.883412E+0	1.837838E+0	1.864503E+0	1.902836E+0	1.949197E+0	1.929114E+0	1.791112E+0	1.843125E+0	1.893761E+0	1.805539E+0	1.864587E+0	1.830958E+0	1.817871E+0	1.876951E+0	1.859706E+0	1.810879E+0	1.803698E+0	1.882702E+0	1.829840E+0	1.849491E+0	1.863921E+0	1.873198E+0	1.818846E+0	1.755545E+0	1.832256E+0	1.818388E+0	1.788297E+0	1.831290E+0	1.798205E+0	1.786541E+0	1.829355E+0	1.863685E+0	1.841848E+0	1.827302E+0	1.799335E+0	1.781003E+0	1.853527E+0	1.850108E+0	1.836200E+0	1.831094E+0	1.846249E+0	1.822321E+0	1.824636E+0	1.828081E+0	1.827698E+0	1.780336E+0	1.848072E+0	1.773342E+0	1.869559E+0	1.819572E+0	1.852255E+0	1.879481E+0	1.777811E+0	1.836963E+0	1.850368E+0	1.888187E+0	1.815141E+0	1.849727E+0	1.833043E+0	1.849206E+0	1.842226E+0	1.819739E+0	1.826111E+0	1.855714E+0	1.862608E+0	1.777102E+0	1.788574E+0	1.897966E+0	1.859262E+0	1.828668E+0	1.793084E+0	1.869450E+0	1.900220E+0	1.849764E+0	1.816400E+0	1.790979E+0	1.764087E+0	1.782101E+0	1.786548E+0	1.858570E+0	1.833256E+0	1.832679E+0	1.800495E+0	1.809076E+0	1.754524E+0	1.820208E+0	1.772348E+0	1.794702E+0	1.795169E+0	1.812296E+0	1.850328E+0	1.795337E+0	1.838151E+0	1.817157E+0	1.768330E+0	1.811917E+0	1.808453E+0	1.853318E+0	1.906942E+0	1.822864E+0	1.862327E+0	1.823927E+0	1.777406E+0	1.798826E+0	1.762613E+0	1.785488E+0	1.762201E+0	1.840355E+0	1.788939E+0	1.802179E+0	1.743364E+0	1.781967E+0	1.729018E+0	1.800563E+0	1.776462E+0	1.764747E+0	1.790870E+0	1.809622E+0	1.757731E+0	1.833403E+0	1.773668E+0	1.748024E+0	1.789782E+0	1.813300E+0	1.763189E+0	1.790884E+0	1.747247E+0	1.760808E+0	1.777223E+0	1.766794E+0	1.831389E+0	1.760053E+0	1.695470E+0
5.349580E+2	1.841336E+0	1.818373E+0	1.857740E+0	1.796181E+0	1.862488E+0	1.839582E+0	1.818071E+0	1.783857E+0	1.849224E+0	1.838924E+0	1.826260E+0	1.801962E+0	1.804319E+0	1.795046E+0	1.847149E+0	1.803081E+0	1.860173E+0	1.819051E+0	1.811420E+0	1.770949E+0	1.881963E+0	1.805722E+0	1.812926E+0	1.813452E+0	1.793941E+0	1.732707E+0	1.700268E+0	1.745270E+0	1.787277E+0	1.805206E+0	1.779001E+0	1.835209E+0	1.835417E+0	1.784103E+0	1.760079E+0	1.810496E+0	1.783092E+0	1.788747E+0	1.821218E+0	1.799451E+0	1.895288E+0	1.820840E+0	1.816496E+0	1.785045E+0	1.795622E+0	1.826917E+0	1.811314E+0	1.786978E+0	1.820442E+0	1.729742E+0	1.873322E+0	1.832744E+0	1.783363E+0	1.807408E+0	1.788103E+0	1.775744E+0	1.801424E+0	1.808617E+0	1.820303E+0	1.803853E+0	1.749112E+0	1.804813E+0	1.793217E+0	1.752839E+0	1.757579E+0	1.794578E+0	1.708304E+0	1.883024E+0	1.829936E+0	1.787034E+0	1.804901E+0	1.795120E+0	1.741814E+0	1.851901E+0	1.743226E+0	1.781384E+0	1.775906E+0	1.813124E+0	1.749796E+0	1.802384E+0	1.747639E+0	1.784919E+0	1.803672E+0	1.738789E+0	1.803862E+0	1.807765E+0	1.765887E+0	1.834391E+0	1.788540E+0	1.758350E+0	1.785917E+0	1.714015E+0	1.765605E+0	1.795200E+0	1.733916E+0	1.748285E+0	1.742205E+0	1.814193E+0	1.825554E+0	1.783778E+0	1.861934E+0	1.746849E+0	1.818992E+0	1.756326E+0	1.829196E+0	1.766992E+0	1.739734E+0	1.762414E+0	1.816809E+0	1.776654E+0	1.773106E+0	1.754517E+0	1.812199E+0	1.766865E+0	1.766727E+0	1.783403E+0	1.826706E+0	1.766114E+0	1.797211E+0	1.807610E+0	1.709977E+0	1.717772E+0	1.793773E+0	1.748428E+0	1.757603E+0	1.748923E+0	1.727772E+0	1.774956E+0	1.846012E+0	1.725751E+0	1.797654E+0	1.672825E+0	1.869515E+0	1.788130E+0	1.783459E+0	1.748604E+0	1.759104E+0	1.779275E+0	1.750948E+0	1.722395E+0	1.715889E+0	1.705897E+0	1.762296E+0	1.740927E+0	1.785681E+0	1.779073E+0	1.780665E+0	1.776353E+0	1.728435E+0	1.731431E+0	1.754693E+0	1.733667E+0	1.753147E+0	1.772428E+0	1.713758E+0	1.773217E+0	1.759447E+0	1.747694E+0	1.764737E+0	1.780908E+0	1.774952E+0	1.744972E+0	1.756151E+0	1.825761E+0	1.768660E+0	1.780395E+0	1.721621E+0	1.740589E+0	1.669367E+0	1.824131E+0
5.351090E+2	1.887376E+0	1.883610E+0	1.931353E+0	1.932205E+0	1.926354E+0	1.897809E+0	1.926399E+0	1.894521E+0	1.905303E+0	1.922763E+0	1.907216E+0	1.932463E+0	1.926551E+0	1.901806E+0	1.916453E+0	1.963354E+0	1.932378E+0	1.916389E+0	1.974524E+0	1.905497E+0	1.936799E+0	1.954070E+0	1.896519E+0	1.862170E+0	1.794213E+0	1.844647E+0	1.838013E+0	1.833944E+0	1.831229E+0	1.912817E+0	1.855668E+0	1.882826E+0	1.890043E+0	1.869488E+0	1.849872E+0	1.853835E+0	1.793168E+0	1.881442E+0	1.868837E+0	1.862304E+0	1.952003E+0	1.876523E+0	1.898049E+0	1.851777E+0	1.917462E+0	1.826978E+0	1.834669E+0	1.832106E+0	1.871107E+0	1.885772E+0	1.872533E+0	1.854126E+0	1.837052E+0	1.872802E+0	1.796350E+0	1.876667E+0	1.822411E+0	1.862645E+0	1.891198E+0	1.814135E+0	1.855465E+0	1.886996E+0	1.839822E+0	1.820141E+0	1.813454E+0	1.860885E+0	1.825638E+0	1.877967E+0	1.915339E+0	1.910537E+0	1.878057E+0	1.896780E+0	1.854680E+0	1.887518E+0	1.853123E+0	1.974934E+0	1.893513E+0	1.883109E+0	1.832608E+0	1.871875E+0	1.789357E+0	1.887585E+0	1.918099E+0	1.822742E+0	1.826646E+0	1.854787E+0	1.833362E+0	1.891427E+0	1.838668E+0	1.885570E+0	1.854000E+0	1.900145E+0	1.842116E+0	1.869433E+0	1.859298E+0	1.787705E+0	1.816482E+0	1.850356E+0	1.866677E+0	1.803659E+0	1.865246E+0	1.769387E+0	1.901536E+0	1.840326E+0	1.833523E+0	1.897145E+0	1.816622E+0	1.879284E+0	1.841657E+0	1.872076E+0	1.900804E+0	1.791910E+0	1.826241E+0	1.857738E+0	1.812115E+0	1.774065E+0	1.877865E+0	1.813758E+0	1.918322E+0	1.847068E+0	1.809593E+0	1.832214E+0	1.833183E+0	1.837770E+0	1.850753E+0	1.853426E+0	1.861977E+0	1.865569E+0	1.878421E+0	1.795816E+0	1.839413E+0	1.861054E+0	1.830990E+0	1.881694E+0	1.852638E+0	1.908971E+0	1.820927E+0	1.872035E+0	1.866476E+0	1.828398E+0	1.893242E+0	1.854375E+0	1.891083E+0	1.794009E+0	1.764219E+0	1.938508E+0	1.909166E+0	1.792777E+0	1.831945E+0	1.787060E+0	1.806032E+0	1.800929E+0	1.791017E+0	1.857126E+0	1.817632E+0	1.752583E+0	1.902366E+0	1.840173E+0	1.831485E+0	1.794318E+0	1.838370E+0	1.772052E+0	1.845889E+0	1.804109E+0	1.813846E+0	1.836110E+0	1.787230E+0	1.776841E+0	1.850901E+0	1.811923E+0
5.352550E+2	1.642823E+0	1.685925E+0	1.761035E+0	1.761237E+0	1.685274E+0	1.670476E+0	1.656554E+0	1.747031E+0	1.781373E+0	1.764579E+0	1.699864E+0	1.699446E+0	1.648132E+0	1.658658E+0	1.730336E+0	1.691834E+0	1.719954E+0	1.717133E+0	1.782838E+0	1.622894E+0	1.727527E+0	1.728064E+0	1.718663E+0	1.704804E+0	1.616838E+0	1.619215E+0	1.606665E+0	1.619342E+0	1.616883E+0	1.645257E+0	1.617502E+0	1.648815E+0	1.652123E+0	1.700653E+0	1.636582E+0	1.693130E+0	1.645846E+0	1.626086E+0	1.684714E+0	1.659462E+0	1.716958E+0	1.653089E+0	1.687794E+0	1.716683E+0	1.656399E+0	1.775164E+0	1.678983E+0	1.608755E+0	1.670236E+0	1.641851E+0	1.687877E+0	1.648436E+0	1.677708E+0	1.692694E+0	1.636035E+0	1.605841E+0	1.615486E+0	1.706574E+0	1.684575E+0	1.646376E+0	1.636532E+0	1.655226E+0	1.640092E+0	1.600114E+0	1.672713E+0	1.633548E+0	1.618982E+0	1.607224E+0	1.650838E+0	1.646983E+0	1.630698E+0	1.660889E+0	1.652654E+0	1.676952E+0	1.625507E+0	1.722729E+0	1.604975E+0	1.660330E+0	1.663659E+0	1.632058E+0	1.577945E+0	1.667369E+0	1.732433E+0	1.638629E+0	1.615879E+0	1.740979E+0	1.648616E+0	1.668137E+0	1.618927E+0	1.629830E+0	1.613724E+0	1.635822E+0	1.656090E+0	1.656438E+0	1.657927E+0	1.655263E+0	1.648648E+0	1.669747E+0	1.644249E+0	1.671913E+0	1.662111E+0	1.657142E+0	1.635150E+0	1.636597E+0	1.713393E+0	1.641683E+0	1.663107E+0	1.649092E+0	1.657003E+0	1.681310E+0	1.691649E+0	1.679111E+0	1.622794E+0	1.652602E+0	1.647712E+0	1.715025E+0	1.693965E+0	1.637299E+0	1.633127E+0	1.629105E+0	1.634935E+0	1.605551E+0	1.617839E+0	1.640384E+0	1.664172E+0	1.662322E+0	1.651178E+0	1.722167E+0	1.669295E+0	1.693687E+0	1.613047E+0	1.616350E+0	1.714211E+0	1.670674E+0	1.686330E+0	1.693765E+0	1.653174E+0	1.661387E+0	1.656384E+0	1.676424E+0	1.651142E+0	1.674495E+0	1.677487E+0	1.617865E+0	1.597831E+0	1.633305E+0	1.645722E+0	1.646996E+0	1.606430E+0	1.586790E+0	1.698258E+0	1.695778E+0	1.651379E+0	1.663294E+0	1.630239E+0	1.621225E+0	1.585449E+0	1.681138E+0	1.649591E+0	1.609298E+0	1.575565E+0	1.609232E+0	1.623247E+0	1.628864E+0	1.632806E+0	1.625341E+0	1.604216E+0	1.660696E+0	1.658868E+0	1.592302E+0
5.354110E+2	1.308778E+0	1.382471E+0	1.400525E+0	1.393745E+0	1.375239E+0	1.359209E+0	1.349516E+0	1.328829E+0	1.349303E+0	1.406828E+0	1.316988E+0	1.403976E+0	1.406983E+0	1.351953E+0	1.357821E+0	1.352436E+0	1.348255E+0	1.357990E+0	1.448556E+0	1.339457E+0	1.411135E+0	1.431231E+0	1.427997E+0	1.367184E+0	1.285820E+0	1.310705E+0	1.332421E+0	1.325592E+0	1.354698E+0	1.399304E+0	1.315612E+0	1.361869E+0	1.302335E+0	1.335878E+0	1.355628E+0	1.313515E+0	1.343039E+0	1.325686E+0	1.330472E+0	1.333060E+0	1.379133E+0	1.370682E+0	1.320166E+0	1.336744E+0	1.359293E+0	1.389186E+0	1.335237E+0	1.299609E+0	1.324249E+0	1.333824E+0	1.318865E+0	1.352606E+0	1.348825E+0	1.324667E+0	1.367960E+0	1.337708E+0	1.324088E+0	1.436104E+0	1.364008E+0	1.332994E+0	1.350712E+0	1.335434E+0	1.340801E+0	1.358570E+0	1.337501E+0	1.338124E+0	1.357726E+0	1.353651E+0	1.359729E+0	1.362276E+0	1.351213E+0	1.369499E+0	1.367435E+0	1.354955E+0	1.348180E+0	1.369657E+0	1.335105E+0	1.347342E+0	1.362253E+0	1.347125E+0	1.289035E+0	1.357319E+0	1.345387E+0	1.363335E+0	1.281362E+0	1.386098E+0	1.317634E+0	1.283447E+0	1.344102E+0	1.285845E+0	1.325329E+0	1.347732E+0	1.351557E+0	1.358207E+0	1.342423E+0	1.334181E+0	1.342913E+0	1.358649E+0	1.327613E+0	1.377731E+0	1.376313E+0	1.342079E+0	1.350119E+0	1.302709E+0	1.367851E+0	1.337276E+0	1.394278E+0	1.364009E+0	1.363952E+0	1.382431E+0	1.345382E+0	1.357168E+0	1.326253E+0	1.317244E+0	1.348442E+0	1.333320E+0	1.366168E+0	1.351833E+0	1.329500E+0	1.361087E+0	1.320239E+0	1.329734E+0	1.360363E+0	1.388670E+0	1.336282E+0	1.355825E+0	1.363355E+0	1.339182E+0	1.311262E+0	1.342825E+0	1.284618E+0	1.317477E+0	1.357033E+0	1.386063E+0	1.347177E+0	1.349582E+0	1.349907E+0	1.365985E+0	1.322377E+0	1.355924E+0	1.369495E+0	1.343447E+0	1.346613E+0	1.332221E+0	1.352010E+0	1.361761E+0	1.340900E+0	1.295458E+0	1.347791E+0	1.331626E+0	1.317452E+0	1.335857E+0	1.337100E+0	1.374890E+0	1.344878E+0	1.350094E+0	1.286216E+0	1.375584E+0	1.354886E+0	1.364357E+0	1.298095E+0	1.345636E+0	1.308519E+0	1.366773E+0	1.346436E+0	1.386816E+0	1.315241E+0	1.364007E+0	1.236598E+0	1.404711E+0
5.355580E+2	1.261480E+0	1.217043E+0	1.276044E+0	1.259169E+0	1.286163E+0	1.238652E+0	1.185271E+0	1.283531E+0	1.231603E+0	1.275569E+0	1.229201E+0	1.297709E+0	1.228128E+0	1.270387E+0	1.255996E+0	1.258901E+0	1.297957E+0	1.289801E+0	1.302292E+0	1.238287E+0	1.304190E+0	1.301768E+0	1.298148E+0	1.243393E+0	1.188700E+0	1.250178E+0	1.238092E+0	1.209192E+0	1.273511E+0	1.186493E+0	1.210097E+0	1.188386E+0	1.200535E+0	1.225866E+0	1.189760E+0	1.202863E+0	1.244983E+0	1.248184E+0	1.197087E+0	1.243566E+0	1.249665E+0	1.270840E+0	1.269457E+0	1.186998E+0	1.212107E+0	1.251108E+0	1.161372E+0	1.182035E+0	1.193087E+0	1.184061E+0	1.293267E+0	1.228660E+0	1.253624E+0	1.205556E+0	1.267744E+0	1.219013E+0	1.207765E+0	1.267936E+0	1.238696E+0	1.249710E+0	1.181746E+0	1.251644E+0	1.188685E+0	1.209145E+0	1.230059E+0	1.245149E+0	1.176842E+0	1.249312E+0	1.239826E+0	1.265524E+0	1.240174E+0	1.282149E+0	1.211129E+0	1.244444E+0	1.215067E+0	1.271127E+0	1.224301E+0	1.279416E+0	1.233524E+0	1.216304E+0	1.226424E+0	1.271630E+0	1.258035E+0	1.248652E+0	1.210211E+0	1.269097E+0	1.210961E+0	1.248370E+0	1.220261E+0	1.221863E+0	1.235136E+0	1.222371E+0	1.192859E+0	1.210131E+0	1.208025E+0	1.191183E+0	1.220337E+0	1.277443E+0	1.227198E+0	1.246861E+0	1.298730E+0	1.167239E+0	1.253890E+0	1.256742E+0	1.229913E+0	1.251302E+0	1.218413E+0	1.235091E+0	1.248658E+0	1.262346E+0	1.300605E+0	1.255571E+0	1.273811E+0	1.199428E+0	1.218449E+0	1.211938E+0	1.287290E+0	1.294659E+0	1.246134E+0	1.222209E+0	1.270096E+0	1.227509E+0	1.268937E+0	1.254189E+0	1.222756E+0	1.225302E+0	1.249323E+0	1.232195E+0	1.243776E+0	1.248871E+0	1.278598E+0	1.211704E+0	1.243761E+0	1.257731E+0	1.265147E+0	1.236273E+0	1.207363E+0	1.190736E+0	1.215779E+0	1.232120E+0	1.289896E+0	1.185205E+0	1.255954E+0	1.255027E+0	1.273888E+0	1.244586E+0	1.248571E+0	1.240578E+0	1.202508E+0	1.297236E+0	1.274908E+0	1.222019E+0	1.294526E+0	1.240823E+0	1.294222E+0	1.185077E+0	1.217291E+0	1.230264E+0	1.205134E+0	1.244789E+0	1.225739E+0	1.210866E+0	1.315098E+0	1.323150E+0	1.213843E+0	1.212828E+0	1.218432E+0	1.237146E+0	1.233369E+0	1.221818E+0
5.357190E+2	1.029376E+0	1.048481E+0	1.058532E+0	1.068303E+0	1.102778E+0	1.103823E+0	1.029302E+0	1.029960E+0	1.044110E+0	1.035868E+0	1.043712E+0	1.060049E+0	1.061965E+0	1.068679E+0	1.037969E+0	1.054588E+0	1.006913E+0	1.076919E+0	1.098921E+0	1.013397E+0	1.082871E+0	1.047990E+0	1.059277E+0	1.045391E+0	1.018764E+0	1.046379E+0	1.002782E+0	1.028671E+0	1.039935E+0	1.042374E+0	1.052545E+0	1.025597E+0	1.013024E+0	1.077676E+0	1.005796E+0	1.017211E+0	1.031619E+0	1.027971E+0	1.076905E+0	1.030001E+0	1.031898E+0	1.059884E+0	1.028974E+0	1.048029E+0	1.044714E+0	1.066272E+0	1.080034E+0	1.002488E+0	1.029808E+0	1.038782E+0	1.064651E+0	1.025789E+0	1.042872E+0	1.030088E+0	1.039228E+0	1.009325E+0	1.053913E+0	1.050840E+0	1.031977E+0	1.035943E+0	1.032670E+0	1.082443E+0	1.042400E+0	1.043761E+0	1.015291E+0	1.036953E+0	1.058164E+0	1.068092E+0	1.087655E+0	1.040734E+0	1.028383E+0	1.032589E+0	1.021228E+0	1.079691E+0	1.050494E+0	1.110696E+0	1.039309E+0	1.044318E+0	1.020801E+0	1.057403E+0	1.034055E+0	1.076681E+0	1.059372E+0	1.055159E+0	9.882707E-1	1.057164E+0	1.006233E+0	1.045946E+0	1.006659E+0	1.069691E+0	1.027793E+0	1.060077E+0	9.945315E-1	1.080561E+0	1.060138E+0	1.044320E+0	1.014176E+0	1.039954E+0	1.043820E+0	1.033862E+0	1.077320E+0	1.048555E+0	1.080197E+0	1.023669E+0	1.030220E+0	1.035336E+0	1.014285E+0	1.037098E+0	1.035461E+0	1.034708E+0	1.043234E+0	1.042710E+0	1.036989E+0	1.027320E+0	1.027699E+0	1.018604E+0	1.104128E+0	1.008460E+0	1.087970E+0	1.038757E+0	1.028409E+0	1.033045E+0	1.054780E+0	1.024976E+0	1.007628E+0	1.053779E+0	9.999852E-1	1.038445E+0	1.090238E+0	1.097797E+0	1.065375E+0	1.069258E+0	1.051080E+0	1.091024E+0	1.076996E+0	1.060313E+0	1.051517E+0	1.092484E+0	1.031577E+0	1.009595E+0	1.045394E+0	1.039619E+0	1.080728E+0	1.067677E+0	1.035923E+0	1.087181E+0	9.937335E-1	1.060350E+0	1.039610E+0	1.045365E+0	1.008085E+0	1.061960E+0	1.037145E+0	1.028702E+0	1.045747E+0	1.028807E+0	1.033934E+0	1.070745E+0	1.046945E+0	1.039174E+0	1.028009E+0	1.058178E+0	1.012678E+0	1.045365E+0	1.032026E+0	1.057965E+0	1.053292E+0	1.099672E+0	9.656491E-1	1.016387E+0
5.358650E+2	7.953032E-1	8.280570E-1	8.060620E-1	8.586003E-1	7.929354E-1	8.486410E-1	7.965911E-1	8.179180E-1	8.077230E-1	8.317269E-1	7.706218E-1	8.739296E-1	7.973289E-1	8.541961E-1	8.399322E-1	8.027122E-1	8.148178E-1	8.821061E-1	8.373309E-1	8.085173E-1	7.914608E-1	8.329316E-1	8.176201E-1	8.382626E-1	7.821075E-1	8.316804E-1	8.063630E-1	7.856360E-1	8.119995E-1	8.386869E-1	7.762878E-1	8.257233E-1	8.004306E-1	8.225478E-1	7.651413E-1	8.695204E-1	7.973357E-1	7.570612E-1	8.465855E-1	8.216516E-1	8.563667E-1	8.107633E-1	8.323014E-1	8.510757E-1	8.060199E-1	8.162452E-1	8.259718E-1	8.039711E-1	7.874268E-1	8.295747E-1	7.778377E-1	7.994172E-1	8.087635E-1	8.278324E-1	8.306315E-1	7.871960E-1	8.436479E-1	8.017273E-1	8.177547E-1	8.659606E-1	8.295462E-1	8.178005E-1	8.293227E-1	8.176449E-1	8.028186E-1	8.471975E-1	7.653412E-1	8.489277E-1	8.227439E-1	8.189696E-1	8.100443E-1	8.147136E-1	8.084326E-1	8.303567E-1	8.201605E-1	8.547065E-1	8.206259E-1	7.708984E-1	8.295493E-1	8.260319E-1	7.393117E-1	8.086014E-1	8.300854E-1	7.690985E-1	8.194413E-1	8.408274E-1	7.959531E-1	8.285004E-1	8.214210E-1	8.389592E-1	7.996726E-1	8.023638E-1	8.213047E-1	8.377232E-1	8.459423E-1	8.085603E-1	8.030845E-1	8.216999E-1	8.207513E-1	8.411491E-1	7.935886E-1	8.157227E-1	8.372586E-1	8.533215E-1	8.219856E-1	8.272954E-1	8.095973E-1	8.147148E-1	8.111923E-1	8.457383E-1	8.186987E-1	8.164987E-1	8.307136E-1	8.406773E-1	8.476542E-1	7.778996E-1	8.342223E-1	8.355721E-1	8.036672E-1	8.417511E-1	8.445475E-1	7.969038E-1	8.477562E-1	8.322948E-1	8.383443E-1	8.233297E-1	8.351756E-1	8.344918E-1	8.227035E-1	8.167746E-1	8.510240E-1	7.885359E-1	8.243599E-1	8.582815E-1	8.316049E-1	8.575696E-1	8.348472E-1	8.344754E-1	8.479705E-1	7.930512E-1	8.064134E-1	8.163037E-1	8.550785E-1	8.100053E-1	8.037922E-1	8.347745E-1	8.175587E-1	8.235562E-1	8.575035E-1	8.196069E-1	8.142337E-1	8.055210E-1	7.969021E-1	8.613545E-1	8.134802E-1	8.036808E-1	8.367272E-1	8.406987E-1	8.217882E-1	8.099394E-1	7.878922E-1	8.130768E-1	8.011602E-1	7.968926E-1	8.244731E-1	8.368160E-1	8.583030E-1	7.978717E-1	7.915898E-1	8.594721E-1
5.360120E+2	7.314112E-1	7.521135E-1	7.465284E-1	7.410670E-1	7.670865E-1	7.598110E-1	7.151890E-1	7.644425E-1	7.319007E-1	7.505191E-1	7.281272E-1	6.929779E-1	7.334833E-1	7.535384E-1	7.342447E-1	7.360763E-1	7.550585E-1	7.539971E-1	7.585544E-1	7.199762E-1	7.255662E-1	7.783092E-1	7.317878E-1	7.223320E-1	7.336409E-1	7.275459E-1	7.263463E-1	7.532960E-1	6.989203E-1	7.369829E-1	7.555396E-1	7.279198E-1	7.061193E-1	7.640391E-1	7.466570E-1	6.937347E-1	7.072245E-1	7.553816E-1	7.505578E-1	7.443865E-1	7.570071E-1	7.790987E-1	7.299371E-1	7.640901E-1	7.119461E-1	7.574660E-1	7.237316E-1	7.404946E-1	7.171427E-1	7.496160E-1	7.568934E-1	7.510564E-1	6.971038E-1	7.131272E-1	7.690147E-1	7.647673E-1	7.308853E-1	7.048546E-1	7.243713E-1	7.253951E-1	7.102498E-1	7.427169E-1	7.441288E-1	7.416806E-1	7.207470E-1	7.203933E-1	6.968810E-1	7.395851E-1	7.767634E-1	7.197163E-1	7.186534E-1	7.500165E-1	7.345484E-1	7.228886E-1	7.310585E-1	7.471686E-1	7.432242E-1	7.199295E-1	7.329374E-1	7.312293E-1	7.055661E-1	7.618577E-1	7.388499E-1	7.582291E-1	7.271999E-1	7.788765E-1	7.486186E-1	7.184599E-1	7.262085E-1	7.395678E-1	7.586851E-1	7.289578E-1	7.038256E-1	7.552494E-1	7.167542E-1	7.021745E-1	7.340073E-1	7.688357E-1	7.258210E-1	7.333078E-1	7.721342E-1	6.982532E-1	7.545015E-1	7.425388E-1	7.704974E-1	7.455583E-1	7.260573E-1	7.154119E-1	7.331923E-1	7.537083E-1	7.180938E-1	7.598685E-1	7.354195E-1	7.369864E-1	7.390573E-1	7.219713E-1	7.228599E-1	7.522658E-1	7.561794E-1	7.281539E-1	7.025758E-1	7.680816E-1	7.501036E-1	7.215986E-1	7.149954E-1	7.493892E-1	7.531933E-1	7.770669E-1	7.852330E-1	7.304852E-1	7.386193E-1	7.569204E-1	7.766326E-1	7.256536E-1	7.476402E-1	7.231341E-1	7.592106E-1	7.072428E-1	7.143095E-1	7.244929E-1	7.475565E-1	7.490724E-1	7.518692E-1	7.100563E-1	7.322668E-1	7.859605E-1	7.743570E-1	6.941184E-1	7.384402E-1	7.328763E-1	7.340597E-1	7.385312E-1	7.042980E-1	7.699819E-1	7.248406E-1	7.328719E-1	7.684388E-1	7.628437E-1	7.402862E-1	7.693801E-1	7.183362E-1	7.534535E-1	7.457774E-1	7.631336E-1	7.754433E-1	7.730395E-1	7.683745E-1	7.389617E-1	7.309222E-1	6.991738E-1
5.362680E+2	5.677318E-1	5.758753E-1	6.054115E-1	6.141420E-1	5.614354E-1	5.910006E-1	5.793819E-1	5.815668E-1	6.233975E-1	5.896182E-1	5.862801E-1	6.060971E-1	6.024647E-1	5.689085E-1	6.229248E-1	5.677440E-1	5.823751E-1	5.692887E-1	6.323510E-1	5.403240E-1	5.620569E-1	6.164084E-1	6.004186E-1	5.865726E-1	5.463696E-1	6.052331E-1	6.274264E-1	5.668628E-1	5.682156E-1	5.650479E-1	5.561623E-1	5.780207E-1	6.009255E-1	5.856040E-1	5.573605E-1	5.644495E-1	6.311324E-1	5.865622E-1	6.104565E-1	5.678481E-1	5.775787E-1	5.616596E-1	5.966775E-1	5.617814E-1	5.797787E-1	5.880455E-1	6.136891E-1	5.764266E-1	5.488903E-1	5.860659E-1	5.662156E-1	6.075678E-1	5.998326E-1	5.711295E-1	6.192985E-1	5.864326E-1	5.799651E-1	6.228951E-1	6.074971E-1	5.645057E-1	5.831964E-1	5.666974E-1	5.911030E-1	5.742932E-1	5.895756E-1	6.233257E-1	5.670190E-1	5.842534E-1	6.060072E-1	5.961945E-1	6.191401E-1	5.817060E-1	6.138448E-1	6.127897E-1	5.812651E-1	6.235502E-1	5.633672E-1	6.266610E-1	5.700640E-1	5.841977E-1	5.894369E-1	5.342628E-1	5.963793E-1	5.974996E-1	5.585949E-1	6.058002E-1	5.886981E-1	5.985029E-1	5.534371E-1	5.700411E-1	5.598171E-1	5.912081E-1	5.964311E-1	5.948078E-1	5.853806E-1	5.707989E-1	5.932235E-1	5.946905E-1	5.619696E-1	5.912874E-1	6.116610E-1	6.161281E-1	5.716999E-1	6.002774E-1	5.672821E-1	5.962993E-1	5.968633E-1	6.029477E-1	5.996935E-1	6.003584E-1	5.703335E-1	6.049835E-1	5.542555E-1	6.067785E-1	6.282367E-1	5.534412E-1	5.870570E-1	5.690870E-1	6.261186E-1	5.984482E-1	5.836497E-1	5.800347E-1	6.098113E-1	5.898456E-1	5.955634E-1	6.027089E-1	5.873519E-1	5.814509E-1	6.313163E-1	5.878113E-1	5.888851E-1	5.432284E-1	5.992908E-1	5.979132E-1	5.807932E-1	5.886266E-1	5.867154E-1	5.863978E-1	6.105049E-1	6.230624E-1	5.756696E-1	5.991111E-1	5.753024E-1	5.938601E-1	6.077041E-1	5.933627E-1	6.069586E-1	6.197380E-1	5.858499E-1	5.936741E-1	5.939631E-1	6.156810E-1	6.207886E-1	6.192309E-1	5.826142E-1	5.791269E-1	5.631120E-1	6.055404E-1	5.973571E-1	6.033144E-1	5.904419E-1	6.090601E-1	5.907198E-1	5.937815E-1	5.932581E-1	5.836798E-1	6.079916E-1	5.867743E-1	6.110351E-1	5.780610E-1
5.365140E+2	4.397985E-1	4.332219E-1	4.660898E-1	4.472557E-1	4.842896E-1	4.855903E-1	4.764398E-1	4.523903E-1	4.863573E-1	4.614600E-1	4.664974E-1	5.128487E-1	4.755909E-1	4.585435E-1	5.095709E-1	4.497425E-1	4.515778E-1	4.522243E-1	5.129536E-1	4.729920E-1	4.673505E-1	4.391435E-1	4.968595E-1	4.845016E-1	4.664085E-1	4.523994E-1	4.350252E-1	4.680897E-1	4.663967E-1	4.487161E-1	4.573290E-1	4.841167E-1	4.588192E-1	4.654686E-1	4.584014E-1	5.057509E-1	4.688288E-1	4.761522E-1	4.596986E-1	4.527411E-1	5.091556E-1	5.006670E-1	5.107585E-1	4.859855E-1	4.923135E-1	4.788540E-1	4.903832E-1	4.483046E-1	5.132982E-1	4.557006E-1	4.700860E-1	4.684814E-1	4.640707E-1	4.801984E-1	4.696413E-1	4.605693E-1	4.708658E-1	4.712913E-1	4.662566E-1	4.844670E-1	4.497739E-1	4.925122E-1	4.650074E-1	4.776155E-1	4.831390E-1	4.862965E-1	4.551211E-1	4.627545E-1	4.794499E-1	4.775102E-1	4.633405E-1	4.516235E-1	4.603528E-1	4.954439E-1	4.496818E-1	4.776640E-1	4.714957E-1	4.522535E-1	4.698112E-1	4.568786E-1	4.648403E-1	5.056139E-1	5.026164E-1	4.430535E-1	4.940478E-1	4.809809E-1	4.519034E-1	4.773709E-1	4.910593E-1	4.580926E-1	4.717545E-1	4.622267E-1	4.716557E-1	4.793821E-1	4.456131E-1	4.572304E-1	4.941633E-1	4.895178E-1	4.690389E-1	4.659571E-1	4.713929E-1	4.807823E-1	4.614360E-1	4.751798E-1	4.945734E-1	4.935366E-1	4.721937E-1	4.740775E-1	5.095151E-1	4.861358E-1	4.591344E-1	4.942026E-1	4.610809E-1	4.674721E-1	4.777024E-1	4.868148E-1	4.757277E-1	4.803419E-1	4.742100E-1	4.686353E-1	4.678688E-1	5.201704E-1	4.960850E-1	4.621267E-1	4.783135E-1	4.948611E-1	4.784658E-1	4.572091E-1	4.831223E-1	4.788329E-1	4.543687E-1	4.841955E-1	4.996729E-1	4.629409E-1	4.787982E-1	5.097035E-1	4.718526E-1	4.928416E-1	4.760056E-1	4.654501E-1	4.624346E-1	5.064242E-1	5.114575E-1	4.714662E-1	4.881840E-1	4.856525E-1	4.616710E-1	4.812029E-1	4.624937E-1	4.981958E-1	4.786372E-1	4.588901E-1	4.760604E-1	4.755909E-1	4.818906E-1	4.801590E-1	4.853863E-1	4.901740E-1	4.683672E-1	4.456741E-1	4.699524E-1	4.848417E-1	4.696793E-1	4.784727E-1	4.685145E-1	4.616466E-1	4.472126E-1	4.889185E-1	4.378682E-1	5.007879E-1
5.367710E+2	4.744605E-1	4.688573E-1	4.954538E-1	4.648578E-1	4.784133E-1	4.906773E-1	4.641640E-1	5.006341E-1	4.702570E-1	4.645664E-1	4.704056E-1	5.129938E-1	4.946917E-1	4.768021E-1	4.912245E-1	4.686672E-1	4.526690E-1	5.165329E-1	4.788449E-1	4.617307E-1	5.020955E-1	4.794977E-1	5.081323E-1	4.734391E-1	5.158871E-1	5.044581E-1	4.770220E-1	5.101096E-1	5.007151E-1	4.932626E-1	4.673882E-1	4.864612E-1	4.731451E-1	4.779534E-1	5.033377E-1	4.644801E-1	5.037798E-1	4.768346E-1	4.978488E-1	4.645567E-1	4.951751E-1	4.578876E-1	4.978429E-1	4.811525E-1	4.905367E-1	5.086538E-1	4.952536E-1	4.633855E-1	4.914333E-1	4.547947E-1	4.863425E-1	4.880774E-1	4.804913E-1	4.890043E-1	5.136074E-1	4.812634E-1	4.729290E-1	4.930099E-1	5.093101E-1	4.963825E-1	5.080301E-1	4.859171E-1	5.223588E-1	4.950915E-1	4.510172E-1	4.721422E-1	4.472450E-1	5.214023E-1	4.611891E-1	5.103224E-1	4.785030E-1	4.938717E-1	5.042569E-1	5.436222E-1	4.907464E-1	4.857777E-1	4.731717E-1	4.763003E-1	4.728543E-1	4.993578E-1	4.486716E-1	4.787550E-1	4.731551E-1	4.572581E-1	4.855658E-1	4.998184E-1	5.061578E-1	5.086858E-1	4.986220E-1	4.930442E-1	4.787068E-1	4.691790E-1	4.977464E-1	5.019930E-1	5.079746E-1	4.950840E-1	4.931361E-1	4.849510E-1	5.023854E-1	4.883971E-1	4.759969E-1	4.998510E-1	4.865248E-1	4.835910E-1	4.726264E-1	4.913466E-1	4.700503E-1	4.772530E-1	5.040917E-1	4.731977E-1	4.883424E-1	4.879779E-1	4.989507E-1	4.791763E-1	4.975235E-1	4.790511E-1	4.988136E-1	5.040266E-1	4.866166E-1	4.619659E-1	5.020051E-1	4.826557E-1	4.832602E-1	4.594314E-1	4.558467E-1	4.718033E-1	4.726396E-1	4.708302E-1	4.932159E-1	5.027140E-1	4.825443E-1	4.843051E-1	4.826325E-1	4.784024E-1	4.693311E-1	4.979732E-1	4.889358E-1	5.122747E-1	4.747039E-1	4.995661E-1	4.613736E-1	4.949233E-1	4.818856E-1	5.089230E-1	4.583721E-1	4.826622E-1	5.011848E-1	5.048529E-1	5.014987E-1	4.988590E-1	4.926761E-1	4.701554E-1	4.777533E-1	4.819021E-1	4.815934E-1	4.699924E-1	4.917513E-1	4.813253E-1	5.123589E-1	5.066507E-1	4.658067E-1	4.832518E-1	5.007727E-1	4.595858E-1	4.760733E-1	5.007106E-1	4.781666E-1	4.660045E-1	4.932885E-1	4.794596E-1
5.370170E+2	5.251234E-1	5.325839E-1	5.500137E-1	5.432804E-1	5.205724E-1	5.518771E-1	5.256994E-1	5.081268E-1	4.740901E-1	5.162763E-1	5.435373E-1	5.348874E-1	5.180079E-1	5.220438E-1	5.499646E-1	5.023638E-1	5.108595E-1	4.977205E-1	5.221074E-1	5.184566E-1	5.408434E-1	5.159644E-1	5.206164E-1	5.002768E-1	5.391116E-1	5.395834E-1	5.349566E-1	5.395188E-1	5.507759E-1	5.305051E-1	5.354841E-1	5.296052E-1	5.172975E-1	5.323553E-1	4.800178E-1	5.221159E-1	5.604256E-1	5.270544E-1	5.371686E-1	5.326832E-1	5.375582E-1	5.487024E-1	5.404450E-1	5.117315E-1	5.141745E-1	5.200691E-1	4.820680E-1	5.207839E-1	5.112972E-1	5.361691E-1	5.786835E-1	5.197759E-1	5.338334E-1	5.242246E-1	5.418771E-1	5.174846E-1	4.969816E-1	5.158167E-1	4.949982E-1	5.316146E-1	5.327038E-1	5.194850E-1	5.557408E-1	5.153849E-1	5.326998E-1	5.205497E-1	5.172365E-1	5.175089E-1	5.407915E-1	4.998528E-1	5.037928E-1	5.409476E-1	5.251948E-1	5.437218E-1	5.612999E-1	5.283892E-1	5.221075E-1	5.368336E-1	5.323325E-1	5.346643E-1	5.089800E-1	5.252901E-1	5.467422E-1	5.679709E-1	4.929668E-1	5.720545E-1	4.988419E-1	5.216160E-1	5.327917E-1	5.396185E-1	5.304559E-1	5.334999E-1	5.325751E-1	5.183810E-1	5.147934E-1	5.269480E-1	4.997757E-1	5.401688E-1	5.313688E-1	5.112232E-1	5.531993E-1	5.288234E-1	5.181820E-1	5.291022E-1	5.392427E-1	4.993862E-1	5.438887E-1	5.530324E-1	5.163894E-1	5.273313E-1	5.338082E-1	5.200458E-1	5.179905E-1	4.999973E-1	5.287691E-1	5.434730E-1	5.314504E-1	5.225615E-1	5.365922E-1	5.665954E-1	5.023184E-1	5.093793E-1	5.297232E-1	5.269774E-1	5.294950E-1	5.424666E-1	5.054869E-1	5.143740E-1	5.233726E-1	5.429210E-1	5.505295E-1	4.927361E-1	5.366865E-1	5.389427E-1	5.325542E-1	5.303305E-1	5.479168E-1	5.253177E-1	5.379887E-1	5.159278E-1	4.944459E-1	5.474082E-1	5.212176E-1	5.310406E-1	5.258765E-1	5.323328E-1	5.513434E-1	5.187327E-1	4.987780E-1	5.019003E-1	5.170556E-1	5.458129E-1	5.485828E-1	5.375792E-1	5.497136E-1	5.318608E-1	5.352969E-1	5.517374E-1	5.741237E-1	5.504886E-1	5.211650E-1	5.239595E-1	5.173287E-1	5.496818E-1	5.368854E-1	5.280308E-1	5.349935E-1	5.270598E-1	5.101857E-1	5.268929E-1
5.372640E+2	5.565939E-1	5.535679E-1	5.904192E-1	5.987027E-1	5.884288E-1	5.664855E-1	5.984188E-1	5.523678E-1	5.907669E-1	5.842587E-1	6.040554E-1	5.832029E-1	6.055738E-1	5.384815E-1	5.630874E-1	5.725996E-1	6.020732E-1	5.955757E-1	5.881511E-1	5.126665E-1	5.650488E-1	5.665705E-1	5.883820E-1	5.764261E-1	5.975890E-1	5.690334E-1	5.903036E-1	5.679450E-1	6.066119E-1	5.915955E-1	5.658702E-1	6.166560E-1	5.775379E-1	5.589502E-1	5.876135E-1	6.075919E-1	5.792684E-1	5.755993E-1	6.118740E-1	5.654304E-1	5.853636E-1	6.219925E-1	5.837690E-1	5.681499E-1	5.685018E-1	5.729719E-1	5.778638E-1	5.752854E-1	5.718487E-1	5.540849E-1	6.097094E-1	5.976871E-1	5.720890E-1	5.762797E-1	5.762572E-1	5.769425E-1	5.561142E-1	5.873466E-1	5.546073E-1	5.852676E-1	5.617123E-1	5.894031E-1	5.941549E-1	5.836389E-1	5.787682E-1	6.077389E-1	5.568754E-1	5.909828E-1	5.771396E-1	6.014122E-1	5.635296E-1	5.677441E-1	5.661578E-1	5.683064E-1	6.036414E-1	5.879634E-1	5.687166E-1	5.696053E-1	5.989972E-1	5.996490E-1	5.364116E-1	6.071899E-1	5.937239E-1	6.006721E-1	5.768337E-1	6.173192E-1	5.747682E-1	5.871292E-1	5.818511E-1	5.764501E-1	5.711344E-1	6.030088E-1	5.654512E-1	5.611989E-1	6.061677E-1	5.345631E-1	5.748993E-1	5.830555E-1	5.861131E-1	5.506977E-1	5.829459E-1	6.005407E-1	5.882908E-1	6.075316E-1	5.797200E-1	5.684397E-1	5.867591E-1	5.609159E-1	6.072917E-1	6.206834E-1	5.796230E-1	6.316851E-1	5.743825E-1	5.749728E-1	5.561293E-1	5.582106E-1	6.083586E-1	5.937164E-1	5.958083E-1	5.719931E-1	5.841859E-1	5.740040E-1	6.068571E-1	5.989151E-1	5.848351E-1	5.951442E-1	5.970425E-1	6.162299E-1	5.528151E-1	5.711974E-1	6.008204E-1	5.788129E-1	5.984204E-1	5.845102E-1	5.760068E-1	6.145456E-1	6.044272E-1	5.991985E-1	5.826450E-1	5.713170E-1	5.914344E-1	5.832327E-1	5.960138E-1	5.758178E-1	6.007306E-1	5.612198E-1	5.915760E-1	5.789585E-1	5.955857E-1	5.809711E-1	5.730472E-1	5.858912E-1	5.877034E-1	5.701380E-1	6.300751E-1	5.804550E-1	5.831484E-1	6.033305E-1	6.234701E-1	5.662449E-1	5.764879E-1	5.726215E-1	5.900579E-1	6.136749E-1	5.757617E-1	5.930704E-1	5.866318E-1	5.805845E-1	5.660139E-1	5.481406E-1
5.375160E+2	6.276510E-1	6.214643E-1	6.181981E-1	6.517014E-1	6.602830E-1	6.620639E-1	6.703476E-1	6.448259E-1	6.464831E-1	6.488387E-1	6.378122E-1	6.578287E-1	6.314994E-1	6.534344E-1	6.660239E-1	6.373926E-1	6.377158E-1	6.272830E-1	6.608765E-1	6.490828E-1	6.564026E-1	6.076231E-1	6.582039E-1	6.388307E-1	7.050780E-1	6.188574E-1	6.258078E-1	6.691167E-1	6.604104E-1	6.243584E-1	6.848611E-1	6.679001E-1	6.866322E-1	6.677909E-1	6.456493E-1	6.946030E-1	6.483798E-1	6.636536E-1	6.593594E-1	6.607093E-1	6.540397E-1	6.654994E-1	6.454014E-1	6.462292E-1	6.377810E-1	6.494140E-1	6.507967E-1	6.637493E-1	6.330752E-1	6.050444E-1	6.507578E-1	6.598757E-1	6.483123E-1	6.224373E-1	6.674647E-1	6.468513E-1	6.412663E-1	6.597779E-1	6.895962E-1	6.614079E-1	6.398726E-1	6.715787E-1	6.651901E-1	6.487244E-1	6.391725E-1	5.915149E-1	6.406528E-1	6.431834E-1	6.736570E-1	6.506553E-1	6.353664E-1	6.453575E-1	6.652053E-1	6.444653E-1	6.488386E-1	7.063762E-1	6.459869E-1	6.443872E-1	6.744569E-1	6.738178E-1	6.429978E-1	6.639037E-1	6.319271E-1	6.436144E-1	6.277811E-1	6.816812E-1	6.290966E-1	6.585393E-1	6.653831E-1	6.629089E-1	6.713241E-1	6.822568E-1	6.576274E-1	6.273584E-1	6.629561E-1	6.499833E-1	6.490447E-1	6.518151E-1	6.632992E-1	6.301220E-1	6.470844E-1	6.893368E-1	6.412849E-1	6.334015E-1	6.663739E-1	6.516728E-1	6.698156E-1	6.789183E-1	6.234857E-1	6.383052E-1	6.799493E-1	6.502691E-1	6.030640E-1	6.336592E-1	6.268679E-1	6.233722E-1	6.728297E-1	6.315722E-1	6.490446E-1	6.431474E-1	6.535168E-1	6.311821E-1	6.850272E-1	6.656298E-1	6.445808E-1	6.596853E-1	6.277706E-1	6.631066E-1	7.011599E-1	6.260424E-1	6.756703E-1	6.567730E-1	6.380000E-1	6.854096E-1	6.493563E-1	6.322617E-1	6.785868E-1	6.218527E-1	6.641235E-1	6.544512E-1	6.359135E-1	6.570039E-1	6.481862E-1	6.390719E-1	6.903650E-1	6.940864E-1	6.581622E-1	6.136689E-1	6.407080E-1	6.164743E-1	6.697762E-1	6.807072E-1	6.636823E-1	6.458684E-1	6.736779E-1	6.360340E-1	6.505272E-1	6.409240E-1	6.862259E-1	6.537634E-1	6.114128E-1	6.398057E-1	6.848346E-1	6.583929E-1	6.430037E-1	6.836928E-1	6.759333E-1	6.852504E-1	5.856246E-1	6.594639E-1
5.377630E+2	7.769480E-1	7.969748E-1	7.626059E-1	7.505796E-1	8.048713E-1	7.764153E-1	8.187826E-1	8.195585E-1	8.023993E-1	7.697153E-1	7.720560E-1	8.411584E-1	7.563033E-1	7.733799E-1	8.169153E-1	7.774547E-1	7.946750E-1	7.871084E-1	7.784165E-1	7.969346E-1	7.925922E-1	7.900117E-1	7.891174E-1	7.930444E-1	8.096884E-1	7.812673E-1	8.284658E-1	7.553419E-1	8.131529E-1	7.910283E-1	8.244498E-1	8.190265E-1	7.884767E-1	8.144392E-1	7.788993E-1	7.846759E-1	8.077799E-1	8.336888E-1	7.780450E-1	8.219988E-1	8.121685E-1	8.171047E-1	7.853675E-1	7.632268E-1	7.699461E-1	7.961889E-1	7.779662E-1	7.833181E-1	8.037906E-1	8.255171E-1	7.838889E-1	7.734619E-1	7.839406E-1	8.121021E-1	7.907242E-1	7.755374E-1	7.757810E-1	8.260928E-1	7.940823E-1	8.429086E-1	7.614871E-1	8.187690E-1	7.929159E-1	7.610566E-1	7.727695E-1	8.102709E-1	8.245973E-1	7.828924E-1	8.160298E-1	8.064744E-1	7.840555E-1	7.893033E-1	7.874754E-1	7.727774E-1	8.304178E-1	8.128544E-1	8.181019E-1	7.742577E-1	8.021868E-1	8.018083E-1	7.059518E-1	8.113806E-1	8.111777E-1	8.152406E-1	8.028765E-1	8.140388E-1	7.785524E-1	7.819970E-1	7.875145E-1	8.035278E-1	7.563618E-1	8.053449E-1	7.779942E-1	7.788789E-1	8.068210E-1	7.702718E-1	8.040231E-1	7.370211E-1	8.056764E-1	7.721201E-1	8.101054E-1	7.992812E-1	7.894510E-1	8.456143E-1	8.147647E-1	8.041761E-1	7.723875E-1	7.992389E-1	7.914625E-1	7.930881E-1	7.805910E-1	7.892005E-1	8.061899E-1	7.803263E-1	7.769132E-1	7.758270E-1	8.170438E-1	8.036688E-1	7.903570E-1	7.498963E-1	8.030339E-1	7.882693E-1	8.168234E-1	7.719523E-1	7.668329E-1	8.012705E-1	8.445377E-1	7.665656E-1	7.979415E-1	8.055764E-1	8.066013E-1	7.915057E-1	8.164353E-1	8.093661E-1	8.213546E-1	8.143214E-1	7.957554E-1	8.332581E-1	8.145661E-1	7.526918E-1	7.666286E-1	8.069680E-1	7.947467E-1	7.915059E-1	7.774526E-1	7.966858E-1	8.153917E-1	8.106928E-1	7.478468E-1	7.944590E-1	8.139813E-1	7.843383E-1	7.651367E-1	7.914305E-1	7.914094E-1	7.458560E-1	7.785687E-1	7.745251E-1	8.115457E-1	7.839867E-1	7.968520E-1	7.808795E-1	7.970306E-1	8.011276E-1	7.893251E-1	7.942020E-1	7.761272E-1	8.211031E-1	7.506663E-1	7.826687E-1
5.380160E+2	8.911175E-1	8.884809E-1	8.857309E-1	9.157634E-1	9.083019E-1	9.183153E-1	8.779837E-1	8.826111E-1	9.149845E-1	8.644470E-1	8.750925E-1	8.891440E-1	8.991888E-1	8.449796E-1	9.030670E-1	8.546547E-1	8.779448E-1	8.738085E-1	8.749295E-1	8.561120E-1	9.062548E-1	8.938331E-1	9.007498E-1	8.787737E-1	9.520385E-1	8.974768E-1	8.929904E-1	8.938637E-1	8.898061E-1	8.890381E-1	8.809498E-1	9.254595E-1	9.039132E-1	8.711453E-1	8.852577E-1	8.876654E-1	9.097699E-1	8.723694E-1	8.840802E-1	8.582005E-1	9.076688E-1	9.166032E-1	8.985879E-1	9.174894E-1	8.931449E-1	9.262331E-1	9.293083E-1	8.637711E-1	8.990916E-1	8.737737E-1	9.656978E-1	9.139128E-1	8.783425E-1	8.838036E-1	9.188553E-1	8.954861E-1	8.898803E-1	9.259372E-1	9.158789E-1	9.171335E-1	8.809356E-1	9.128605E-1	9.186716E-1	9.027136E-1	8.599654E-1	8.495337E-1	8.782238E-1	8.756638E-1	9.426902E-1	9.164858E-1	8.973476E-1	9.047667E-1	8.365260E-1	9.115999E-1	8.870677E-1	8.826904E-1	8.945335E-1	8.778441E-1	8.795846E-1	8.681706E-1	8.604899E-1	9.017100E-1	8.864459E-1	8.786532E-1	8.636401E-1	8.765661E-1	9.196917E-1	9.299686E-1	8.968556E-1	8.719782E-1	8.866446E-1	9.135821E-1	8.664641E-1	8.603208E-1	9.216564E-1	8.452906E-1	8.790192E-1	8.934626E-1	8.875120E-1	8.972663E-1	9.130061E-1	9.113911E-1	9.100206E-1	9.077032E-1	8.345471E-1	8.427081E-1	8.660045E-1	8.944548E-1	8.856434E-1	9.014663E-1	8.909216E-1	8.983061E-1	8.787864E-1	8.702712E-1	8.923791E-1	8.675543E-1	9.111265E-1	8.859134E-1	8.876941E-1	9.049139E-1	9.032546E-1	8.786478E-1	8.956369E-1	8.980879E-1	8.901206E-1	8.596541E-1	9.161280E-1	9.470713E-1	9.173859E-1	8.979290E-1	8.651774E-1	8.501378E-1	9.451025E-1	9.164540E-1	8.855270E-1	9.136003E-1	8.989151E-1	9.065491E-1	9.646422E-1	8.423320E-1	8.492947E-1	8.878830E-1	8.783761E-1	8.941926E-1	9.087613E-1	9.229253E-1	9.031767E-1	8.923207E-1	8.805594E-1	8.816195E-1	9.069225E-1	8.995060E-1	8.962094E-1	8.773724E-1	9.056708E-1	9.164988E-1	9.163789E-1	8.769014E-1	8.884911E-1	9.179022E-1	8.720321E-1	8.876461E-1	9.046461E-1	9.124836E-1	8.605088E-1	8.622162E-1	9.247878E-1	8.876573E-1	8.452663E-1	8.220885E-1
5.382900E+2	1.071045E+0	1.079598E+0	1.075538E+0	1.089041E+0	1.072748E+0	1.114523E+0	1.049145E+0	1.078618E+0	1.081303E+0	1.123815E+0	1.089507E+0	1.177834E+0	1.108536E+0	1.113122E+0	1.036568E+0	1.117542E+0	1.127498E+0	1.040223E+0	1.120284E+0	1.074975E+0	1.086219E+0	1.118275E+0	1.060579E+0	1.068670E+0	1.141034E+0	1.155636E+0	1.091478E+0	1.141488E+0	1.120686E+0	1.075084E+0	1.039359E+0	1.102377E+0	1.085680E+0	1.101955E+0	1.079056E+0	1.061415E+0	1.104028E+0	1.114461E+0	1.080823E+0	1.075277E+0	1.124701E+0	1.078446E+0	1.130962E+0	1.073424E+0	1.083254E+0	1.097902E+0	1.089264E+0	1.035705E+0	1.070275E+0	1.090232E+0	1.116894E+0	1.122862E+0	1.069033E+0	1.059521E+0	1.140442E+0	1.049939E+0	1.087899E+0	1.102112E+0	1.094124E+0	1.101127E+0	1.087159E+0	1.067668E+0	1.141500E+0	1.097869E+0	1.077267E+0	1.102150E+0	1.069402E+0	1.158206E+0	1.119413E+0	1.166798E+0	1.084059E+0	1.055927E+0	1.027092E+0	1.119646E+0	1.106006E+0	1.134545E+0	1.088054E+0	1.044705E+0	1.092996E+0	1.103670E+0	1.041961E+0	1.089238E+0	1.110350E+0	1.157369E+0	1.093513E+0	1.148730E+0	1.075966E+0	1.092119E+0	1.098952E+0	1.095434E+0	1.068839E+0	1.116882E+0	1.105049E+0	1.101566E+0	1.111910E+0	1.109634E+0	1.093158E+0	1.092262E+0	1.146553E+0	1.105748E+0	1.101691E+0	1.089709E+0	1.080033E+0	1.084310E+0	1.072405E+0	1.063125E+0	1.078852E+0	1.079042E+0	1.081913E+0	1.105272E+0	1.143691E+0	1.093953E+0	1.100742E+0	1.021241E+0	1.098511E+0	1.071468E+0	1.119255E+0	1.074374E+0	1.079375E+0	1.092620E+0	1.082192E+0	1.067295E+0	1.118033E+0	1.104362E+0	1.089784E+0	1.102567E+0	1.119294E+0	1.087074E+0	1.127311E+0	1.111462E+0	1.090349E+0	1.069384E+0	1.098376E+0	1.121128E+0	1.086156E+0	1.098642E+0	1.104502E+0	1.092403E+0	1.102310E+0	1.120806E+0	1.078746E+0	1.094803E+0	1.141878E+0	1.093458E+0	1.104674E+0	1.113043E+0	1.048243E+0	1.144255E+0	1.102571E+0	1.087504E+0	1.092969E+0	1.093840E+0	1.083951E+0	1.133117E+0	1.141270E+0	1.048999E+0	1.074232E+0	1.057328E+0	1.087626E+0	1.094770E+0	1.084257E+0	1.110590E+0	1.074424E+0	1.105261E+0	1.080873E+0	1.103177E+0	1.101012E+0	1.091787E+0	1.038669E+0	9.870253E-1
5.385110E+2	1.250421E+0	1.308735E+0	1.263099E+0	1.292007E+0	1.259658E+0	1.246646E+0	1.263030E+0	1.241670E+0	1.273406E+0	1.251728E+0	1.245769E+0	1.261250E+0	1.262607E+0	1.278847E+0	1.325016E+0	1.274682E+0	1.274892E+0	1.283649E+0	1.257429E+0	1.265280E+0	1.274671E+0	1.319872E+0	1.299361E+0	1.250008E+0	1.284331E+0	1.281075E+0	1.303456E+0	1.269159E+0	1.316777E+0	1.257616E+0	1.270116E+0	1.269114E+0	1.314692E+0	1.285523E+0	1.259304E+0	1.318626E+0	1.285504E+0	1.269143E+0	1.275874E+0	1.293604E+0	1.324557E+0	1.290430E+0	1.324804E+0	1.327539E+0	1.320900E+0	1.286047E+0	1.248699E+0	1.240418E+0	1.299253E+0	1.285311E+0	1.280152E+0	1.262952E+0	1.324041E+0	1.292829E+0	1.286262E+0	1.236715E+0	1.238873E+0	1.297251E+0	1.286176E+0	1.297660E+0	1.301126E+0	1.315433E+0	1.224605E+0	1.301537E+0	1.254123E+0	1.250589E+0	1.271098E+0	1.281189E+0	1.319389E+0	1.306532E+0	1.278260E+0	1.234275E+0	1.258945E+0	1.293133E+0	1.288957E+0	1.299736E+0	1.281782E+0	1.302868E+0	1.254837E+0	1.255067E+0	1.247306E+0	1.287538E+0	1.282104E+0	1.278873E+0	1.281542E+0	1.297854E+0	1.285187E+0	1.278585E+0	1.256961E+0	1.328147E+0	1.237451E+0	1.315572E+0	1.226778E+0	1.252007E+0	1.233198E+0	1.260741E+0	1.225876E+0	1.282967E+0	1.273063E+0	1.258951E+0	1.271202E+0	1.249586E+0	1.305970E+0	1.293016E+0	1.253501E+0	1.257261E+0	1.276671E+0	1.258483E+0	1.275787E+0	1.255062E+0	1.257207E+0	1.287846E+0	1.282303E+0	1.195887E+0	1.247007E+0	1.308294E+0	1.302547E+0	1.206015E+0	1.310423E+0	1.334154E+0	1.245426E+0	1.239138E+0	1.284425E+0	1.236582E+0	1.244886E+0	1.234725E+0	1.277445E+0	1.265838E+0	1.290278E+0	1.268805E+0	1.248658E+0	1.288877E+0	1.253572E+0	1.280358E+0	1.271029E+0	1.296438E+0	1.235299E+0	1.334214E+0	1.262602E+0	1.249952E+0	1.292285E+0	1.245947E+0	1.267053E+0	1.213241E+0	1.287054E+0	1.344445E+0	1.282386E+0	1.252475E+0	1.256685E+0	1.225032E+0	1.231497E+0	1.267730E+0	1.210872E+0	1.295882E+0	1.254783E+0	1.291130E+0	1.264496E+0	1.248179E+0	1.320607E+0	1.288190E+0	1.266535E+0	1.235617E+0	1.235018E+0	1.263359E+0	1.228328E+0	1.268762E+0	1.252420E+0	1.223280E+0	1.258363E+0	1.242591E+0
5.387700E+2	1.498934E+0	1.490464E+0	1.498280E+0	1.523761E+0	1.553363E+0	1.500976E+0	1.507204E+0	1.571569E+0	1.520491E+0	1.476648E+0	1.524739E+0	1.573670E+0	1.517400E+0	1.515482E+0	1.525354E+0	1.536461E+0	1.440598E+0	1.526163E+0	1.536354E+0	1.511776E+0	1.517392E+0	1.541062E+0	1.515709E+0	1.468395E+0	1.525304E+0	1.448097E+0	1.526612E+0	1.550043E+0	1.531152E+0	1.519685E+0	1.516354E+0	1.488857E+0	1.486573E+0	1.539097E+0	1.512666E+0	1.560433E+0	1.511614E+0	1.535252E+0	1.527782E+0	1.495576E+0	1.572286E+0	1.525037E+0	1.491650E+0	1.506226E+0	1.529143E+0	1.516371E+0	1.502885E+0	1.494944E+0	1.546548E+0	1.485197E+0	1.521610E+0	1.494314E+0	1.480595E+0	1.510780E+0	1.508572E+0	1.554593E+0	1.480310E+0	1.577066E+0	1.599721E+0	1.516957E+0	1.482872E+0	1.489196E+0	1.512591E+0	1.521137E+0	1.516656E+0	1.556828E+0	1.443549E+0	1.496167E+0	1.552048E+0	1.534543E+0	1.537519E+0	1.493477E+0	1.501713E+0	1.548765E+0	1.506353E+0	1.587560E+0	1.439441E+0	1.454864E+0	1.489030E+0	1.517613E+0	1.489102E+0	1.475330E+0	1.559788E+0	1.514833E+0	1.462497E+0	1.553463E+0	1.499091E+0	1.458832E+0	1.496644E+0	1.523086E+0	1.498969E+0	1.510411E+0	1.509669E+0	1.467331E+0	1.527849E+0	1.488862E+0	1.433951E+0	1.429996E+0	1.525530E+0	1.512138E+0	1.541499E+0	1.444515E+0	1.501044E+0	1.523126E+0	1.511378E+0	1.481371E+0	1.444225E+0	1.534243E+0	1.520402E+0	1.447381E+0	1.486841E+0	1.516261E+0	1.481512E+0	1.459218E+0	1.483550E+0	1.400026E+0	1.552906E+0	1.556254E+0	1.521381E+0	1.479231E+0	1.492894E+0	1.483429E+0	1.567700E+0	1.463138E+0	1.440602E+0	1.499378E+0	1.556962E+0	1.485539E+0	1.521709E+0	1.503332E+0	1.455515E+0	1.457780E+0	1.483632E+0	1.456534E+0	1.480153E+0	1.478003E+0	1.529729E+0	1.475958E+0	1.500850E+0	1.413514E+0	1.509274E+0	1.413506E+0	1.496835E+0	1.483494E+0	1.503422E+0	1.458128E+0	1.561641E+0	1.457730E+0	1.447724E+0	1.467009E+0	1.541855E+0	1.506992E+0	1.433553E+0	1.479742E+0	1.504190E+0	1.528967E+0	1.525169E+0	1.459784E+0	1.512778E+0	1.524645E+0	1.501815E+0	1.458085E+0	1.462610E+0	1.500051E+0	1.467010E+0	1.460018E+0	1.496890E+0	1.470155E+0	1.540727E+0	1.480227E+0
5.390240E+2	1.705227E+0	1.717130E+0	1.679190E+0	1.760861E+0	1.699651E+0	1.709485E+0	1.694476E+0	1.708801E+0	1.714403E+0	1.705209E+0	1.699086E+0	1.730680E+0	1.740487E+0	1.746578E+0	1.699207E+0	1.762005E+0	1.666497E+0	1.718743E+0	1.737774E+0	1.715183E+0	1.752382E+0	1.756122E+0	1.732112E+0	1.679740E+0	1.750322E+0	1.700319E+0	1.738704E+0	1.706147E+0	1.730637E+0	1.696808E+0	1.666008E+0	1.715743E+0	1.769218E+0	1.741468E+0	1.678911E+0	1.682810E+0	1.701942E+0	1.695616E+0	1.730752E+0	1.712354E+0	1.785879E+0	1.724448E+0	1.783306E+0	1.725639E+0	1.706718E+0	1.707951E+0	1.705390E+0	1.719204E+0	1.691795E+0	1.661166E+0	1.702057E+0	1.700794E+0	1.727708E+0	1.722265E+0	1.733580E+0	1.721000E+0	1.729487E+0	1.696299E+0	1.746273E+0	1.706972E+0	1.699145E+0	1.715170E+0	1.700749E+0	1.737646E+0	1.658761E+0	1.695669E+0	1.683502E+0	1.717052E+0	1.704728E+0	1.689791E+0	1.688582E+0	1.765841E+0	1.667120E+0	1.757990E+0	1.683290E+0	1.778368E+0	1.716142E+0	1.693935E+0	1.670010E+0	1.705067E+0	1.662498E+0	1.719371E+0	1.645057E+0	1.695538E+0	1.668086E+0	1.759581E+0	1.628152E+0	1.714755E+0	1.665553E+0	1.714807E+0	1.646330E+0	1.748008E+0	1.672456E+0	1.689401E+0	1.696892E+0	1.641746E+0	1.663558E+0	1.670039E+0	1.759984E+0	1.679596E+0	1.642177E+0	1.663188E+0	1.656670E+0	1.712118E+0	1.621937E+0	1.655145E+0	1.651971E+0	1.716086E+0	1.682449E+0	1.677157E+0	1.703063E+0	1.732961E+0	1.692249E+0	1.652401E+0	1.653177E+0	1.666893E+0	1.713952E+0	1.702746E+0	1.670414E+0	1.645789E+0	1.708796E+0	1.678466E+0	1.698908E+0	1.688358E+0	1.658254E+0	1.650533E+0	1.617890E+0	1.731212E+0	1.716553E+0	1.662592E+0	1.654752E+0	1.631548E+0	1.652464E+0	1.727114E+0	1.688462E+0	1.729616E+0	1.776115E+0	1.665225E+0	1.705916E+0	1.643424E+0	1.618706E+0	1.654973E+0	1.662861E+0	1.601768E+0	1.708608E+0	1.721426E+0	1.712809E+0	1.681949E+0	1.690002E+0	1.682140E+0	1.714857E+0	1.676310E+0	1.635069E+0	1.661396E+0	1.699077E+0	1.641000E+0	1.612547E+0	1.700812E+0	1.690998E+0	1.716092E+0	1.622908E+0	1.596958E+0	1.652161E+0	1.678934E+0	1.671078E+0	1.657358E+0	1.688364E+0	1.607326E+0	1.624465E+0	1.582815E+0
5.392880E+2	1.898554E+0	1.844965E+0	1.930087E+0	1.863330E+0	1.932333E+0	1.895771E+0	1.825765E+0	1.903230E+0	1.919732E+0	1.878895E+0	1.892260E+0	1.995532E+0	1.891333E+0	1.883476E+0	1.855113E+0	1.876084E+0	1.908175E+0	1.835677E+0	1.864345E+0	1.959675E+0	1.907146E+0	1.878212E+0	1.938988E+0	1.884400E+0	1.893838E+0	1.863179E+0	1.845124E+0	1.932721E+0	1.892834E+0	1.813071E+0	1.831326E+0	1.864601E+0	1.867428E+0	1.879808E+0	1.894937E+0	1.921784E+0	1.886934E+0	1.859761E+0	1.876810E+0	1.908402E+0	1.916736E+0	1.933948E+0	1.869429E+0	1.820166E+0	1.858752E+0	1.876097E+0	1.848528E+0	1.869619E+0	1.854243E+0	1.852353E+0	1.875903E+0	1.864310E+0	1.841846E+0	1.840468E+0	1.905684E+0	1.803268E+0	1.870960E+0	1.884397E+0	1.832545E+0	1.863073E+0	1.892228E+0	1.870470E+0	1.799607E+0	1.860324E+0	1.806857E+0	1.867605E+0	1.785389E+0	1.894518E+0	1.912841E+0	1.931691E+0	1.862285E+0	1.909554E+0	1.747226E+0	1.831952E+0	1.751927E+0	1.861659E+0	1.862807E+0	1.866138E+0	1.796089E+0	1.912051E+0	1.788226E+0	1.881644E+0	1.852794E+0	1.853468E+0	1.822478E+0	1.867004E+0	1.857537E+0	1.893089E+0	1.816831E+0	1.806865E+0	1.889323E+0	1.837893E+0	1.783173E+0	1.888913E+0	1.803218E+0	1.849292E+0	1.853652E+0	1.785537E+0	1.862899E+0	1.815008E+0	1.845247E+0	1.833255E+0	1.820233E+0	1.815526E+0	1.820577E+0	1.866810E+0	1.816834E+0	1.855574E+0	1.838471E+0	1.851793E+0	1.789091E+0	1.833149E+0	1.839229E+0	1.811084E+0	1.790642E+0	1.796276E+0	1.859005E+0	1.791787E+0	1.837380E+0	1.819747E+0	1.857447E+0	1.815685E+0	1.855562E+0	1.836810E+0	1.812631E+0	1.852386E+0	1.841779E+0	1.852028E+0	1.864080E+0	1.868565E+0	1.801531E+0	1.826018E+0	1.849387E+0	1.840910E+0	1.827794E+0	1.911111E+0	1.891254E+0	1.880560E+0	1.826057E+0	1.809879E+0	1.838598E+0	1.831210E+0	1.816490E+0	1.820295E+0	1.787140E+0	1.840261E+0	1.791296E+0	1.759093E+0	1.808159E+0	1.820787E+0	1.866555E+0	1.820894E+0	1.761345E+0	1.853397E+0	1.800490E+0	1.833405E+0	1.766446E+0	1.792096E+0	1.800501E+0	1.796241E+0	1.777999E+0	1.735851E+0	1.847560E+0	1.874306E+0	1.845657E+0	1.803867E+0	1.788963E+0	1.758568E+0	1.828496E+0	1.795492E+0
5.395160E+2	1.878670E+0	1.888059E+0	1.885250E+0	1.971948E+0	1.939019E+0	1.892969E+0	1.891174E+0	1.960974E+0	1.891481E+0	1.927423E+0	1.904434E+0	1.966349E+0	1.921384E+0	1.913042E+0	1.935087E+0	1.983729E+0	1.937779E+0	1.849756E+0	1.921279E+0	1.949890E+0	1.907484E+0	1.924342E+0	1.917163E+0	1.952018E+0	1.830435E+0	1.858149E+0	1.836408E+0	1.905011E+0	1.857271E+0	1.823103E+0	1.888889E+0	1.910481E+0	1.924515E+0	1.855004E+0	1.806129E+0	1.865298E+0	1.892974E+0	1.878118E+0	1.890155E+0	1.967971E+0	1.977165E+0	1.873971E+0	1.955714E+0	1.828760E+0	1.854603E+0	1.873100E+0	1.881856E+0	1.906237E+0	1.916745E+0	1.881380E+0	1.908203E+0	1.880384E+0	1.831249E+0	1.896925E+0	1.870374E+0	1.916829E+0	1.901030E+0	1.908983E+0	1.853653E+0	1.876682E+0	1.870155E+0	1.914961E+0	1.876434E+0	1.918303E+0	1.846268E+0	1.863635E+0	1.838038E+0	1.907518E+0	1.868224E+0	1.946588E+0	1.886493E+0	1.863794E+0	1.854739E+0	1.916478E+0	1.894696E+0	1.922710E+0	1.796707E+0	1.887347E+0	1.788649E+0	1.898812E+0	1.812431E+0	1.904631E+0	1.835945E+0	1.875597E+0	1.917934E+0	1.916300E+0	1.857719E+0	1.908820E+0	1.925079E+0	1.829394E+0	1.882244E+0	1.888070E+0	1.882357E+0	1.840174E+0	1.888747E+0	1.883848E+0	1.868151E+0	1.852619E+0	1.823603E+0	1.862492E+0	1.930391E+0	1.836486E+0	1.821659E+0	1.877109E+0	1.853579E+0	1.809842E+0	1.869218E+0	1.857880E+0	1.818126E+0	1.841328E+0	1.857192E+0	1.899356E+0	1.866112E+0	1.798294E+0	1.806685E+0	1.829920E+0	1.905790E+0	1.876924E+0	1.824473E+0	1.804181E+0	1.855049E+0	1.821455E+0	1.893066E+0	1.839057E+0	1.820104E+0	1.875860E+0	1.801664E+0	1.904710E+0	1.886193E+0	1.860497E+0	1.810191E+0	1.849046E+0	1.857296E+0	1.917390E+0	1.898839E+0	1.857480E+0	1.882695E+0	1.850921E+0	1.853875E+0	1.829588E+0	1.866881E+0	1.845377E+0	1.829692E+0	1.877551E+0	1.898087E+0	1.854210E+0	1.799617E+0	1.858974E+0	1.870145E+0	1.848889E+0	1.803220E+0	1.885317E+0	1.833253E+0	1.847829E+0	1.880669E+0	1.835338E+0	1.871841E+0	1.823068E+0	1.849846E+0	1.901782E+0	1.864376E+0	1.700729E+0	1.789036E+0	1.864689E+0	1.799003E+0	1.869251E+0	1.806982E+0	1.844852E+0	1.806308E+0	1.663615E+0
5.397750E+2	1.929576E+0	1.890247E+0	1.925355E+0	1.959219E+0	1.934638E+0	1.939361E+0	1.872607E+0	1.956322E+0	1.946134E+0	1.965879E+0	1.935445E+0	1.988552E+0	1.931019E+0	1.971457E+0	1.939555E+0	1.945627E+0	1.893579E+0	1.917117E+0	1.926888E+0	1.913841E+0	1.927637E+0	1.903163E+0	1.942131E+0	1.896917E+0	1.860565E+0	1.872888E+0	1.865477E+0	1.891421E+0	1.909847E+0	1.860933E+0	1.944497E+0	1.911274E+0	1.892751E+0	1.818645E+0	1.900528E+0	1.920401E+0	1.959007E+0	1.869847E+0	1.878400E+0	1.875815E+0	1.940228E+0	1.984985E+0	1.880233E+0	1.894751E+0	1.901441E+0	1.909498E+0	1.850423E+0	1.888748E+0	1.900446E+0	1.860257E+0	1.887023E+0	1.922765E+0	1.901316E+0	1.857511E+0	1.899340E+0	1.880942E+0	1.822933E+0	1.902357E+0	1.869382E+0	1.924039E+0	1.899843E+0	1.965827E+0	1.936889E+0	1.836896E+0	1.878874E+0	1.983929E+0	1.893075E+0	1.875792E+0	1.904599E+0	1.934559E+0	1.912249E+0	1.928777E+0	1.889654E+0	1.920844E+0	1.896901E+0	1.948581E+0	1.940935E+0	1.878214E+0	1.821871E+0	1.913119E+0	1.798039E+0	1.878692E+0	1.922422E+0	1.907766E+0	1.862043E+0	1.965439E+0	1.857951E+0	1.867635E+0	1.921533E+0	1.903200E+0	1.882658E+0	1.922750E+0	1.841448E+0	1.839216E+0	1.847561E+0	1.887801E+0	1.862311E+0	1.879733E+0	1.911924E+0	1.843736E+0	1.942992E+0	1.834786E+0	1.876999E+0	1.885076E+0	1.829738E+0	1.864633E+0	1.877497E+0	1.931441E+0	1.862666E+0	1.906220E+0	1.873318E+0	1.864764E+0	1.847435E+0	1.809008E+0	1.827994E+0	1.826764E+0	1.909855E+0	1.811843E+0	1.908337E+0	1.856562E+0	1.851413E+0	1.844985E+0	1.842710E+0	1.839142E+0	1.850084E+0	1.859787E+0	1.886770E+0	1.926721E+0	1.916444E+0	1.882671E+0	1.845405E+0	1.893839E+0	1.887135E+0	1.818478E+0	1.807286E+0	1.894068E+0	1.867428E+0	1.874594E+0	1.919274E+0	1.819806E+0	1.886348E+0	1.853437E+0	1.837530E+0	1.841057E+0	1.870670E+0	1.845331E+0	1.860156E+0	1.887314E+0	1.860604E+0	1.860664E+0	1.906838E+0	1.905888E+0	1.846162E+0	1.876631E+0	1.823354E+0	1.862843E+0	1.883942E+0	1.856975E+0	1.860544E+0	1.864765E+0	1.860211E+0	1.801585E+0	1.869949E+0	1.840558E+0	1.831174E+0	1.856502E+0	1.839383E+0	1.915799E+0	1.848629E+0	1.682181E+0
5.400140E+2	1.886593E+0	1.928842E+0	1.881199E+0	1.888388E+0	1.904539E+0	1.848684E+0	1.862004E+0	1.868342E+0	1.875544E+0	1.911770E+0	1.873904E+0	1.896046E+0	1.903646E+0	1.902968E+0	1.844462E+0	1.880879E+0	1.844751E+0	1.892644E+0	1.863531E+0	1.859322E+0	1.932973E+0	1.896468E+0	1.848509E+0	1.921756E+0	1.824713E+0	1.841318E+0	1.823614E+0	1.830480E+0	1.889065E+0	1.861024E+0	1.902921E+0	1.873616E+0	1.909640E+0	1.796153E+0	1.782341E+0	1.859304E+0	1.855470E+0	1.882938E+0	1.869588E+0	1.848608E+0	1.900338E+0	1.824160E+0	1.832480E+0	1.837199E+0	1.818698E+0	1.829672E+0	1.846237E+0	1.876233E+0	1.818660E+0	1.825506E+0	1.806757E+0	1.889785E+0	1.838580E+0	1.855931E+0	1.869060E+0	1.796229E+0	1.824129E+0	1.844380E+0	1.846024E+0	1.882181E+0	1.837611E+0	1.795474E+0	1.873137E+0	1.798236E+0	1.835648E+0	1.922570E+0	1.787081E+0	1.837474E+0	1.877921E+0	1.876926E+0	1.802113E+0	1.814009E+0	1.819211E+0	1.894374E+0	1.814404E+0	1.812436E+0	1.790145E+0	1.809739E+0	1.844571E+0	1.839003E+0	1.824577E+0	1.856972E+0	1.850949E+0	1.839311E+0	1.801461E+0	1.865457E+0	1.823102E+0	1.843945E+0	1.853589E+0	1.855952E+0	1.855414E+0	1.898836E+0	1.764536E+0	1.790837E+0	1.789273E+0	1.831711E+0	1.740538E+0	1.802955E+0	1.867776E+0	1.836284E+0	1.841160E+0	1.825511E+0	1.842823E+0	1.781637E+0	1.812862E+0	1.818893E+0	1.832498E+0	1.852938E+0	1.827833E+0	1.823855E+0	1.828063E+0	1.785294E+0	1.834879E+0	1.750999E+0	1.854089E+0	1.754446E+0	1.892744E+0	1.734932E+0	1.827252E+0	1.818753E+0	1.766246E+0	1.838361E+0	1.781561E+0	1.848355E+0	1.862302E+0	1.827509E+0	1.787598E+0	1.824663E+0	1.839990E+0	1.823231E+0	1.827464E+0	1.796244E+0	1.813198E+0	1.870211E+0	1.830409E+0	1.837676E+0	1.829693E+0	1.862666E+0	1.831122E+0	1.776648E+0	1.823436E+0	1.798171E+0	1.847293E+0	1.751856E+0	1.817695E+0	1.833649E+0	1.805303E+0	1.796028E+0	1.799942E+0	1.760463E+0	1.796132E+0	1.795569E+0	1.827623E+0	1.847637E+0	1.800972E+0	1.788497E+0	1.742797E+0	1.806011E+0	1.764138E+0	1.838023E+0	1.783376E+0	1.740337E+0	1.804058E+0	1.829902E+0	1.769262E+0	1.826236E+0	1.812789E+0	1.772935E+0	1.766930E+0	1.702033E+0
5.402740E+2	1.768871E+0	1.857233E+0	1.780889E+0	1.910504E+0	1.850608E+0	1.858940E+0	1.846173E+0	1.820205E+0	1.850996E+0	1.807276E+0	1.887491E+0	1.832795E+0	1.862604E+0	1.848633E+0	1.831377E+0	1.867677E+0	1.840300E+0	1.883640E+0	1.863499E+0	1.814311E+0	1.871300E+0	1.809993E+0	1.831310E+0	1.766715E+0	1.776768E+0	1.836873E+0	1.799495E+0	1.839000E+0	1.819584E+0	1.775195E+0	1.805909E+0	1.800727E+0	1.854611E+0	1.806191E+0	1.862017E+0	1.812893E+0	1.803084E+0	1.841646E+0	1.865891E+0	1.829436E+0	1.867734E+0	1.879789E+0	1.816300E+0	1.820455E+0	1.783475E+0	1.781931E+0	1.803565E+0	1.807122E+0	1.864654E+0	1.775775E+0	1.807005E+0	1.773879E+0	1.801622E+0	1.849345E+0	1.786060E+0	1.796941E+0	1.793761E+0	1.825227E+0	1.825301E+0	1.794652E+0	1.772284E+0	1.785539E+0	1.790140E+0	1.790666E+0	1.764371E+0	1.737029E+0	1.742431E+0	1.884860E+0	1.789766E+0	1.870798E+0	1.777354E+0	1.854206E+0	1.727370E+0	1.789925E+0	1.780952E+0	1.872882E+0	1.799502E+0	1.844556E+0	1.771655E+0	1.840317E+0	1.737801E+0	1.796591E+0	1.853527E+0	1.878389E+0	1.742746E+0	1.861679E+0	1.843958E+0	1.758395E+0	1.842724E+0	1.844369E+0	1.775938E+0	1.766312E+0	1.772948E+0	1.776476E+0	1.758830E+0	1.815472E+0	1.764311E+0	1.776407E+0	1.753127E+0	1.793561E+0	1.837196E+0	1.817959E+0	1.794262E+0	1.852074E+0	1.791827E+0	1.761366E+0	1.788527E+0	1.820049E+0	1.790714E+0	1.834119E+0	1.773014E+0	1.812704E+0	1.758159E+0	1.688156E+0	1.745105E+0	1.778934E+0	1.785541E+0	1.789234E+0	1.825961E+0	1.758036E+0	1.839674E+0	1.788050E+0	1.745692E+0	1.713530E+0	1.758133E+0	1.769813E+0	1.721506E+0	1.837954E+0	1.724485E+0	1.816631E+0	1.732597E+0	1.764199E+0	1.865013E+0	1.795199E+0	1.777650E+0	1.803941E+0	1.706937E+0	1.813394E+0	1.765608E+0	1.764588E+0	1.805765E+0	1.813203E+0	1.788699E+0	1.726751E+0	1.720876E+0	1.817892E+0	1.741941E+0	1.761066E+0	1.766265E+0	1.747574E+0	1.855235E+0	1.773439E+0	1.759106E+0	1.752455E+0	1.793103E+0	1.772921E+0	1.813180E+0	1.777239E+0	1.733358E+0	1.772725E+0	1.710481E+0	1.745413E+0	1.708595E+0	1.805513E+0	1.689993E+0	1.766640E+0	1.759682E+0	1.768763E+0	1.703372E+0	1.777232E+0
5.405080E+2	1.833464E+0	1.714879E+0	1.786213E+0	1.743755E+0	1.802922E+0	1.838214E+0	1.762213E+0	1.771327E+0	1.735028E+0	1.725817E+0	1.751694E+0	1.836383E+0	1.779434E+0	1.739841E+0	1.753778E+0	1.710752E+0	1.697433E+0	1.820510E+0	1.775437E+0	1.708570E+0	1.803806E+0	1.774940E+0	1.750569E+0	1.765364E+0	1.797272E+0	1.741925E+0	1.783200E+0	1.707252E+0	1.779387E+0	1.711423E+0	1.697315E+0	1.782154E+0	1.746625E+0	1.774911E+0	1.792332E+0	1.716646E+0	1.744677E+0	1.770366E+0	1.775924E+0	1.710055E+0	1.789134E+0	1.816486E+0	1.811725E+0	1.782144E+0	1.782585E+0	1.784672E+0	1.727244E+0	1.706456E+0	1.750304E+0	1.734246E+0	1.677897E+0	1.703612E+0	1.766440E+0	1.734685E+0	1.734001E+0	1.766969E+0	1.777553E+0	1.828529E+0	1.759081E+0	1.766974E+0	1.764911E+0	1.754506E+0	1.688457E+0	1.744375E+0	1.706310E+0	1.740814E+0	1.707264E+0	1.732801E+0	1.780688E+0	1.774711E+0	1.684338E+0	1.723874E+0	1.712482E+0	1.827969E+0	1.708023E+0	1.814744E+0	1.741018E+0	1.690461E+0	1.694818E+0	1.727173E+0	1.701887E+0	1.792168E+0	1.709564E+0	1.679390E+0	1.647751E+0	1.829585E+0	1.750778E+0	1.733880E+0	1.695556E+0	1.747368E+0	1.768907E+0	1.755773E+0	1.730122E+0	1.658479E+0	1.770664E+0	1.725388E+0	1.705479E+0	1.716502E+0	1.736467E+0	1.688742E+0	1.730931E+0	1.712790E+0	1.708940E+0	1.765198E+0	1.801853E+0	1.816592E+0	1.764944E+0	1.708062E+0	1.732650E+0	1.715788E+0	1.696253E+0	1.717080E+0	1.723950E+0	1.664976E+0	1.675553E+0	1.772836E+0	1.728734E+0	1.730769E+0	1.774538E+0	1.761511E+0	1.709110E+0	1.718258E+0	1.718460E+0	1.817344E+0	1.757585E+0	1.710384E+0	1.707675E+0	1.757492E+0	1.719165E+0	1.732604E+0	1.693856E+0	1.709596E+0	1.746290E+0	1.719960E+0	1.707746E+0	1.695765E+0	1.735349E+0	1.751329E+0	1.719518E+0	1.672739E+0	1.783106E+0	1.687286E+0	1.668248E+0	1.697915E+0	1.755388E+0	1.746078E+0	1.706060E+0	1.697809E+0	1.695140E+0	1.722213E+0	1.675857E+0	1.705359E+0	1.664272E+0	1.685064E+0	1.706767E+0	1.737415E+0	1.744664E+0	1.667146E+0	1.702180E+0	1.751910E+0	1.667155E+0	1.685896E+0	1.673846E+0	1.668827E+0	1.712379E+0	1.696666E+0	1.626028E+0	1.738466E+0	1.679218E+0	1.772897E+0
5.407680E+2	1.633330E+0	1.618541E+0	1.670906E+0	1.755099E+0	1.647079E+0	1.681977E+0	1.618658E+0	1.667411E+0	1.668643E+0	1.634488E+0	1.682686E+0	1.715177E+0	1.672550E+0	1.633891E+0	1.671467E+0	1.628238E+0	1.717240E+0	1.644721E+0	1.674649E+0	1.624839E+0	1.703898E+0	1.689753E+0	1.654365E+0	1.632134E+0	1.623386E+0	1.573368E+0	1.679104E+0	1.641101E+0	1.660987E+0	1.661736E+0	1.624386E+0	1.682115E+0	1.680921E+0	1.621133E+0	1.637314E+0	1.624247E+0	1.660412E+0	1.588961E+0	1.635267E+0	1.613846E+0	1.668887E+0	1.675932E+0	1.735700E+0	1.677297E+0	1.672796E+0	1.644718E+0	1.638853E+0	1.638406E+0	1.648769E+0	1.642654E+0	1.608739E+0	1.614262E+0	1.700080E+0	1.675309E+0	1.678022E+0	1.684266E+0	1.656418E+0	1.682535E+0	1.644881E+0	1.676476E+0	1.615010E+0	1.718550E+0	1.624067E+0	1.606846E+0	1.536513E+0	1.673154E+0	1.662568E+0	1.701177E+0	1.673943E+0	1.635330E+0	1.643978E+0	1.616234E+0	1.616199E+0	1.658699E+0	1.610410E+0	1.649763E+0	1.600944E+0	1.611829E+0	1.633041E+0	1.668950E+0	1.679130E+0	1.653835E+0	1.662835E+0	1.621099E+0	1.588626E+0	1.683451E+0	1.619890E+0	1.653372E+0	1.673873E+0	1.580869E+0	1.620288E+0	1.643722E+0	1.584178E+0	1.628635E+0	1.620408E+0	1.616124E+0	1.637464E+0	1.681763E+0	1.629848E+0	1.663707E+0	1.689427E+0	1.630049E+0	1.675942E+0	1.622631E+0	1.669792E+0	1.672536E+0	1.617282E+0	1.691809E+0	1.688107E+0	1.650333E+0	1.602142E+0	1.608179E+0	1.583081E+0	1.570344E+0	1.593095E+0	1.627743E+0	1.625521E+0	1.637871E+0	1.647127E+0	1.568295E+0	1.603507E+0	1.612556E+0	1.651525E+0	1.618966E+0	1.659740E+0	1.607757E+0	1.655510E+0	1.654391E+0	1.646997E+0	1.653384E+0	1.623911E+0	1.613662E+0	1.672625E+0	1.650579E+0	1.638902E+0	1.668253E+0	1.654835E+0	1.667901E+0	1.633618E+0	1.698138E+0	1.640293E+0	1.572325E+0	1.609772E+0	1.632511E+0	1.642547E+0	1.602495E+0	1.608620E+0	1.622674E+0	1.564220E+0	1.625470E+0	1.639553E+0	1.602674E+0	1.597030E+0	1.609652E+0	1.637205E+0	1.664562E+0	1.579409E+0	1.577727E+0	1.586117E+0	1.626276E+0	1.630714E+0	1.636866E+0	1.624714E+0	1.643250E+0	1.572246E+0	1.665358E+0	1.592788E+0	1.535859E+0	1.660296E+0	1.596640E+0
5.410190E+2	1.564001E+0	1.488173E+0	1.543780E+0	1.612769E+0	1.616352E+0	1.559960E+0	1.532061E+0	1.532771E+0	1.599412E+0	1.567331E+0	1.549726E+0	1.591778E+0	1.565968E+0	1.544948E+0	1.589954E+0	1.578611E+0	1.590172E+0	1.556692E+0	1.562721E+0	1.553618E+0	1.577015E+0	1.605381E+0	1.590892E+0	1.576837E+0	1.523517E+0	1.515911E+0	1.568673E+0	1.545711E+0	1.557754E+0	1.514165E+0	1.495946E+0	1.497475E+0	1.510223E+0	1.562660E+0	1.560049E+0	1.532941E+0	1.521905E+0	1.537081E+0	1.546835E+0	1.557377E+0	1.570453E+0	1.555561E+0	1.599823E+0	1.572860E+0	1.551404E+0	1.525935E+0	1.477599E+0	1.504832E+0	1.530386E+0	1.582687E+0	1.605410E+0	1.499505E+0	1.591069E+0	1.559510E+0	1.520967E+0	1.587067E+0	1.564077E+0	1.534131E+0	1.509041E+0	1.554886E+0	1.491800E+0	1.569482E+0	1.505694E+0	1.472151E+0	1.531750E+0	1.483593E+0	1.529554E+0	1.617745E+0	1.656711E+0	1.603410E+0	1.464037E+0	1.565858E+0	1.515934E+0	1.575900E+0	1.520849E+0	1.508743E+0	1.546035E+0	1.545764E+0	1.526131E+0	1.514711E+0	1.471847E+0	1.542683E+0	1.525549E+0	1.516545E+0	1.518305E+0	1.585409E+0	1.533270E+0	1.508002E+0	1.545074E+0	1.520316E+0	1.578778E+0	1.569168E+0	1.547545E+0	1.575922E+0	1.556597E+0	1.545154E+0	1.530753E+0	1.520038E+0	1.552682E+0	1.484356E+0	1.584288E+0	1.523921E+0	1.537936E+0	1.572073E+0	1.547981E+0	1.463580E+0	1.520605E+0	1.548926E+0	1.539494E+0	1.544596E+0	1.589995E+0	1.489523E+0	1.544916E+0	1.464944E+0	1.483995E+0	1.556495E+0	1.568563E+0	1.526478E+0	1.524355E+0	1.487710E+0	1.523445E+0	1.518243E+0	1.574741E+0	1.441591E+0	1.510289E+0	1.542950E+0	1.545279E+0	1.514051E+0	1.529709E+0	1.601662E+0	1.500887E+0	1.524238E+0	1.576484E+0	1.544177E+0	1.548457E+0	1.573417E+0	1.564662E+0	1.535088E+0	1.501520E+0	1.497171E+0	1.512414E+0	1.490619E+0	1.500075E+0	1.500807E+0	1.537545E+0	1.598286E+0	1.550814E+0	1.516323E+0	1.557538E+0	1.561088E+0	1.550601E+0	1.566463E+0	1.523218E+0	1.528796E+0	1.543388E+0	1.540856E+0	1.535269E+0	1.497893E+0	1.491393E+0	1.524130E+0	1.509613E+0	1.491446E+0	1.519833E+0	1.557401E+0	1.505139E+0	1.547575E+0	1.526716E+0	1.480501E+0	1.435852E+0	1.484515E+0
5.412850E+2	1.421002E+0	1.465005E+0	1.450417E+0	1.471596E+0	1.431652E+0	1.499800E+0	1.453177E+0	1.474700E+0	1.491757E+0	1.511256E+0	1.419731E+0	1.487803E+0	1.503070E+0	1.492502E+0	1.490354E+0	1.447348E+0	1.432162E+0	1.458888E+0	1.451934E+0	1.457245E+0	1.455351E+0	1.508019E+0	1.469770E+0	1.401131E+0	1.411153E+0	1.457267E+0	1.413366E+0	1.429109E+0	1.437365E+0	1.431347E+0	1.398413E+0	1.422336E+0	1.490689E+0	1.456975E+0	1.436899E+0	1.479334E+0	1.405726E+0	1.435389E+0	1.445177E+0	1.460510E+0	1.422407E+0	1.432210E+0	1.490910E+0	1.458189E+0	1.420359E+0	1.436575E+0	1.405105E+0	1.443887E+0	1.456079E+0	1.394378E+0	1.399102E+0	1.470492E+0	1.417425E+0	1.410944E+0	1.435470E+0	1.468114E+0	1.471479E+0	1.435042E+0	1.422766E+0	1.395239E+0	1.409988E+0	1.439561E+0	1.391292E+0	1.410254E+0	1.370962E+0	1.352149E+0	1.408699E+0	1.463637E+0	1.465717E+0	1.452670E+0	1.459828E+0	1.475159E+0	1.406534E+0	1.482757E+0	1.415384E+0	1.491222E+0	1.439128E+0	1.402893E+0	1.431006E+0	1.428402E+0	1.423288E+0	1.443571E+0	1.439847E+0	1.399474E+0	1.416181E+0	1.517514E+0	1.397864E+0	1.444832E+0	1.465242E+0	1.405180E+0	1.435731E+0	1.436444E+0	1.436395E+0	1.407758E+0	1.417514E+0	1.394029E+0	1.427102E+0	1.408144E+0	1.487167E+0	1.413805E+0	1.426095E+0	1.383744E+0	1.447265E+0	1.420015E+0	1.416226E+0	1.439178E+0	1.413885E+0	1.403896E+0	1.442833E+0	1.391697E+0	1.470663E+0	1.451618E+0	1.435566E+0	1.355365E+0	1.425671E+0	1.392053E+0	1.437333E+0	1.416680E+0	1.459226E+0	1.371387E+0	1.428800E+0	1.412547E+0	1.384629E+0	1.384971E+0	1.448243E+0	1.447252E+0	1.341764E+0	1.416331E+0	1.463732E+0	1.411152E+0	1.443600E+0	1.452672E+0	1.441149E+0	1.473366E+0	1.431413E+0	1.442695E+0	1.379556E+0	1.444234E+0	1.424145E+0	1.384960E+0	1.446543E+0	1.452983E+0	1.499976E+0	1.401161E+0	1.394150E+0	1.414009E+0	1.391854E+0	1.365917E+0	1.452420E+0	1.429485E+0	1.457652E+0	1.441120E+0	1.446352E+0	1.372670E+0	1.434350E+0	1.374129E+0	1.446657E+0	1.422275E+0	1.442047E+0	1.390911E+0	1.419510E+0	1.418441E+0	1.396334E+0	1.463151E+0	1.422378E+0	1.399628E+0	1.418602E+0	1.436013E+0	1.423725E+0	1.310235E+0
5.415190E+2	1.277539E+0	1.313197E+0	1.283793E+0	1.287599E+0	1.339125E+0	1.312933E+0	1.288220E+0	1.291074E+0	1.317586E+0	1.280552E+0	1.284001E+0	1.326126E+0	1.289724E+0	1.315232E+0	1.317225E+0	1.295532E+0	1.288896E+0	1.293076E+0	1.312348E+0	1.270002E+0	1.341103E+0	1.287372E+0	1.297051E+0	1.298466E+0	1.275558E+0	1.311931E+0	1.273423E+0	1.279879E+0	1.321449E+0	1.326179E+0	1.285322E+0	1.265723E+0	1.303165E+0	1.224199E+0	1.286713E+0	1.336635E+0	1.290381E+0	1.321169E+0	1.327982E+0	1.258900E+0	1.339737E+0	1.319767E+0	1.315458E+0	1.345754E+0	1.265305E+0	1.320269E+0	1.299570E+0	1.278149E+0	1.290521E+0	1.277073E+0	1.322448E+0	1.304785E+0	1.268501E+0	1.281496E+0	1.322003E+0	1.317923E+0	1.282865E+0	1.332107E+0	1.293698E+0	1.318251E+0	1.252974E+0	1.305644E+0	1.280849E+0	1.280566E+0	1.301459E+0	1.307011E+0	1.289343E+0	1.290444E+0	1.325638E+0	1.297282E+0	1.281712E+0	1.258640E+0	1.279738E+0	1.300752E+0	1.296283E+0	1.314197E+0	1.305997E+0	1.261819E+0	1.304056E+0	1.312023E+0	1.314219E+0	1.321998E+0	1.308906E+0	1.294374E+0	1.306734E+0	1.333948E+0	1.279720E+0	1.312068E+0	1.295654E+0	1.312121E+0	1.288363E+0	1.339265E+0	1.336280E+0	1.246753E+0	1.297723E+0	1.284036E+0	1.272555E+0	1.335827E+0	1.262958E+0	1.271804E+0	1.314557E+0	1.299619E+0	1.249453E+0	1.278271E+0	1.277172E+0	1.260258E+0	1.297044E+0	1.335304E+0	1.272273E+0	1.281363E+0	1.299229E+0	1.280265E+0	1.308369E+0	1.284657E+0	1.255497E+0	1.281256E+0	1.288815E+0	1.294808E+0	1.307631E+0	1.284346E+0	1.311241E+0	1.291688E+0	1.303937E+0	1.251730E+0	1.326655E+0	1.303032E+0	1.295777E+0	1.275128E+0	1.311247E+0	1.272827E+0	1.270984E+0	1.264919E+0	1.309595E+0	1.310758E+0	1.350045E+0	1.363674E+0	1.291273E+0	1.332696E+0	1.295945E+0	1.277936E+0	1.293926E+0	1.254196E+0	1.284803E+0	1.269487E+0	1.272504E+0	1.296624E+0	1.266226E+0	1.250223E+0	1.285686E+0	1.261051E+0	1.296980E+0	1.298679E+0	1.315228E+0	1.247805E+0	1.328483E+0	1.271239E+0	1.287768E+0	1.275946E+0	1.237803E+0	1.330821E+0	1.313839E+0	1.194359E+0	1.260871E+0	1.289233E+0	1.253604E+0	1.320884E+0	1.271676E+0	1.265216E+0	1.296502E+0	1.277683E+0
5.417860E+2	1.116046E+0	1.110887E+0	1.150336E+0	1.176324E+0	1.150780E+0	1.154641E+0	1.134666E+0	1.138179E+0	1.119362E+0	1.151066E+0	1.133410E+0	1.133781E+0	1.147082E+0	1.082479E+0	1.154771E+0	1.144084E+0	1.111395E+0	1.114025E+0	1.121102E+0	1.146585E+0	1.162161E+0	1.143070E+0	1.157735E+0	1.136077E+0	1.128319E+0	1.082056E+0	1.123725E+0	1.133261E+0	1.184045E+0	1.132151E+0	1.073491E+0	1.123709E+0	1.158218E+0	1.126047E+0	1.118922E+0	1.161197E+0	1.171027E+0	1.146717E+0	1.152579E+0	1.093915E+0	1.154896E+0	1.147972E+0	1.160435E+0	1.114974E+0	1.094412E+0	1.140204E+0	1.142310E+0	1.128693E+0	1.136908E+0	1.137335E+0	1.106198E+0	1.154932E+0	1.100813E+0	1.140550E+0	1.111580E+0	1.130766E+0	1.099138E+0	1.154495E+0	1.152931E+0	1.185754E+0	1.128828E+0	1.143420E+0	1.135950E+0	1.133491E+0	1.053758E+0	1.140514E+0	1.141512E+0	1.115305E+0	1.124370E+0	1.164169E+0	1.165318E+0	1.121490E+0	1.104690E+0	1.172521E+0	1.083273E+0	1.158805E+0	1.093512E+0	1.116468E+0	1.143868E+0	1.146986E+0	1.139849E+0	1.185292E+0	1.132314E+0	1.118122E+0	1.121470E+0	1.135944E+0	1.141441E+0	1.100724E+0	1.170367E+0	1.165465E+0	1.153247E+0	1.185135E+0	1.121354E+0	1.148987E+0	1.141010E+0	1.096342E+0	1.156941E+0	1.142378E+0	1.110300E+0	1.100748E+0	1.138163E+0	1.119766E+0	1.127410E+0	1.096912E+0	1.102727E+0	1.177404E+0	1.079359E+0	1.189135E+0	1.139782E+0	1.167716E+0	1.117745E+0	1.149019E+0	1.137965E+0	1.118476E+0	1.137572E+0	1.148884E+0	1.145858E+0	1.166358E+0	1.177297E+0	1.101579E+0	1.158476E+0	1.073427E+0	1.125498E+0	1.092652E+0	1.153988E+0	1.176168E+0	1.135756E+0	1.096211E+0	1.143410E+0	1.106225E+0	1.145675E+0	1.146574E+0	1.148542E+0	1.122743E+0	1.150786E+0	1.136435E+0	1.153586E+0	1.157225E+0	1.134026E+0	1.120993E+0	1.142717E+0	1.101256E+0	1.106772E+0	1.103586E+0	1.154961E+0	1.111787E+0	1.141772E+0	1.155885E+0	1.142058E+0	1.110706E+0	1.178631E+0	1.136606E+0	1.136691E+0	1.142981E+0	1.097474E+0	1.108989E+0	1.162124E+0	1.136558E+0	1.121362E+0	1.148029E+0	1.104056E+0	1.135577E+0	1.093574E+0	1.162100E+0	1.132759E+0	1.116193E+0	1.131636E+0	1.143105E+0	1.064065E+0	1.156633E+0
5.420160E+2	1.023596E+0	1.027373E+0	1.004514E+0	9.915190E-1	1.036569E+0	1.019313E+0	1.044131E+0	1.029204E+0	1.071670E+0	1.035204E+0	1.028320E+0	1.055177E+0	1.018639E+0	1.011065E+0	1.080189E+0	1.031820E+0	1.039682E+0	1.043766E+0	1.051386E+0	1.008146E+0	1.041066E+0	1.013828E+0	1.053670E+0	1.011918E+0	1.046818E+0	1.022653E+0	1.005734E+0	1.001912E+0	1.006914E+0	1.022029E+0	9.929799E-1	1.019510E+0	1.035015E+0	1.034583E+0	1.038036E+0	9.914868E-1	1.039728E+0	1.024622E+0	9.922967E-1	1.050565E+0	1.058220E+0	1.041691E+0	1.003201E+0	1.012878E+0	1.010334E+0	1.078338E+0	9.831038E-1	1.015819E+0	1.056227E+0	1.023351E+0	1.020185E+0	1.036566E+0	9.960685E-1	9.963066E-1	1.014592E+0	9.956495E-1	1.044220E+0	1.010379E+0	1.045521E+0	1.032213E+0	1.018292E+0	1.060232E+0	9.989743E-1	1.000029E+0	1.042091E+0	1.032092E+0	9.924652E-1	1.057217E+0	1.006349E+0	1.046808E+0	9.994136E-1	1.040293E+0	9.813785E-1	1.024561E+0	1.033045E+0	1.088680E+0	1.007960E+0	1.028902E+0	1.020867E+0	1.037877E+0	9.766260E-1	1.041253E+0	9.456734E-1	9.908388E-1	1.069346E+0	1.034230E+0	9.947447E-1	1.033083E+0	9.791490E-1	1.050521E+0	1.051367E+0	1.003026E+0	1.031201E+0	1.020358E+0	1.055765E+0	1.027154E+0	1.087568E+0	1.027516E+0	9.977147E-1	1.003938E+0	1.028679E+0	9.878899E-1	1.013415E+0	1.020986E+0	9.885954E-1	1.031425E+0	1.040144E+0	1.025512E+0	1.020218E+0	1.011116E+0	1.015725E+0	1.006993E+0	1.021453E+0	9.835224E-1	1.018353E+0	1.024165E+0	1.038868E+0	9.774788E-1	9.995778E-1	1.074852E+0	1.038784E+0	1.028020E+0	1.036667E+0	1.011664E+0	9.761028E-1	9.899676E-1	1.010156E+0	1.004141E+0	1.037353E+0	1.051309E+0	9.792636E-1	9.866391E-1	1.077487E+0	1.006999E+0	1.014164E+0	1.026017E+0	1.004169E+0	1.002880E+0	1.018848E+0	1.017904E+0	1.026183E+0	1.027593E+0	1.013659E+0	1.027276E+0	1.041325E+0	1.075745E+0	1.071667E+0	9.784432E-1	9.838132E-1	9.983409E-1	1.003838E+0	1.025023E+0	1.044067E+0	1.000527E+0	1.005717E+0	1.001041E+0	1.021029E+0	1.024480E+0	1.021324E+0	1.052297E+0	1.051428E+0	1.013015E+0	1.035366E+0	1.064371E+0	9.840293E-1	1.057020E+0	1.029239E+0	9.891582E-1	1.036950E+0	9.754961E-1
5.422670E+2	9.206235E-1	9.215212E-1	9.125445E-1	8.958284E-1	9.239913E-1	9.346759E-1	9.247229E-1	9.084419E-1	8.486083E-1	8.955016E-1	9.029420E-1	9.282140E-1	9.220940E-1	8.991136E-1	9.338827E-1	8.835409E-1	9.105343E-1	9.068050E-1	9.534789E-1	9.090797E-1	9.316222E-1	9.080965E-1	9.186227E-1	9.313228E-1	9.424578E-1	9.527344E-1	9.572275E-1	9.633400E-1	9.673801E-1	9.059332E-1	9.010168E-1	9.515748E-1	9.396858E-1	9.255690E-1	9.107801E-1	9.144304E-1	8.953489E-1	9.159444E-1	9.117760E-1	9.254077E-1	9.613020E-1	9.521356E-1	9.671126E-1	9.401274E-1	8.979316E-1	9.584338E-1	8.837205E-1	9.157223E-1	9.021945E-1	9.431894E-1	9.151887E-1	8.958200E-1	9.113040E-1	9.070074E-1	9.155699E-1	9.162240E-1	9.347261E-1	9.425754E-1	9.621159E-1	9.334386E-1	9.260690E-1	9.552718E-1	9.281497E-1	9.047675E-1	9.267093E-1	8.763105E-1	9.266199E-1	9.712069E-1	9.461520E-1	9.175768E-1	9.452815E-1	9.338492E-1	9.024984E-1	9.504517E-1	9.023956E-1	9.355766E-1	9.149398E-1	9.193200E-1	9.330010E-1	9.248779E-1	8.770003E-1	9.496186E-1	8.981512E-1	9.392218E-1	9.187167E-1	9.094424E-1	9.383482E-1	9.175819E-1	9.241132E-1	9.367948E-1	9.261078E-1	9.647121E-1	9.282769E-1	9.012037E-1	9.246519E-1	9.198380E-1	9.393683E-1	9.359948E-1	9.484076E-1	9.395825E-1	9.444503E-1	9.175071E-1	9.319304E-1	9.461699E-1	9.421888E-1	9.392167E-1	9.002941E-1	9.257064E-1	9.069634E-1	9.087923E-1	9.393720E-1	9.220983E-1	8.650715E-1	9.209977E-1	9.157772E-1	8.975060E-1	9.322757E-1	9.119217E-1	9.572251E-1	9.466570E-1	9.220174E-1	9.252120E-1	9.583697E-1	8.934323E-1	9.384110E-1	9.228108E-1	9.535483E-1	9.155324E-1	9.498378E-1	9.099053E-1	9.065945E-1	9.131492E-1	9.677357E-1	9.511780E-1	9.211588E-1	9.471981E-1	9.549175E-1	9.341577E-1	9.280748E-1	9.129610E-1	9.321274E-1	9.291541E-1	9.320992E-1	9.103336E-1	9.068816E-1	9.127005E-1	9.138482E-1	8.880838E-1	9.071315E-1	9.096226E-1	9.042106E-1	8.905018E-1	9.525276E-1	9.173868E-1	9.100877E-1	9.280496E-1	9.352203E-1	9.178727E-1	8.849788E-1	8.673298E-1	9.054163E-1	9.268515E-1	8.764555E-1	8.988712E-1	9.431177E-1	9.278334E-1	9.324995E-1	9.360486E-1	8.560674E-1	8.885115E-1
5.425300E+2	8.816505E-1	9.289068E-1	9.256795E-1	9.016041E-1	8.625935E-1	9.213297E-1	9.130095E-1	8.843872E-1	8.988250E-1	9.071634E-1	8.841722E-1	9.115149E-1	8.925384E-1	9.265466E-1	8.945838E-1	9.095553E-1	9.017935E-1	9.022194E-1	9.219369E-1	8.504531E-1	9.105128E-1	9.745438E-1	8.981221E-1	9.122378E-1	9.282245E-1	9.438239E-1	9.155176E-1	9.101947E-1	9.371902E-1	9.072291E-1	9.159245E-1	9.188698E-1	9.454428E-1	8.934157E-1	9.042306E-1	9.465692E-1	9.611257E-1	9.574155E-1	9.040096E-1	9.475552E-1	9.213067E-1	8.992047E-1	9.231971E-1	8.865455E-1	8.974319E-1	9.578940E-1	9.051565E-1	8.743999E-1	8.903329E-1	9.139819E-1	9.045813E-1	8.768421E-1	9.137806E-1	9.413158E-1	9.442209E-1	9.018538E-1	8.994785E-1	9.611265E-1	8.769093E-1	9.166876E-1	8.747970E-1	9.619150E-1	9.038230E-1	9.090537E-1	8.974602E-1	8.862131E-1	9.060879E-1	8.952546E-1	9.107781E-1	9.027274E-1	9.069532E-1	8.918273E-1	8.425645E-1	9.498439E-1	8.769830E-1	9.571002E-1	9.041963E-1	8.968076E-1	9.005078E-1	9.224353E-1	9.180287E-1	9.354987E-1	9.345745E-1	9.254961E-1	8.628267E-1	9.198690E-1	9.281004E-1	9.449870E-1	9.263850E-1	9.184628E-1	9.020001E-1	9.294928E-1	9.480885E-1	9.298360E-1	9.014754E-1	9.088683E-1	8.706840E-1	9.094903E-1	8.831831E-1	9.522242E-1	9.071841E-1	9.078018E-1	9.161031E-1	9.043966E-1	9.291867E-1	9.190341E-1	9.482080E-1	9.181136E-1	8.865828E-1	9.198843E-1	9.555241E-1	9.078924E-1	9.162692E-1	8.767195E-1	8.776723E-1	9.213886E-1	9.302303E-1	9.061982E-1	9.201820E-1	9.283332E-1	9.142360E-1	8.873598E-1	9.419106E-1	8.758356E-1	8.993545E-1	9.141220E-1	9.082934E-1	9.029643E-1	8.827438E-1	9.000446E-1	9.274041E-1	9.132214E-1	9.177948E-1	8.882394E-1	8.853892E-1	9.273510E-1	9.522548E-1	8.947377E-1	9.627071E-1	9.368929E-1	8.783076E-1	9.038050E-1	8.939054E-1	8.912302E-1	9.560419E-1	9.515051E-1	8.895329E-1	9.270224E-1	9.118872E-1	9.434509E-1	9.054425E-1	8.941230E-1	8.787815E-1	9.364225E-1	9.012527E-1	8.858610E-1	9.288591E-1	8.827134E-1	8.944162E-1	9.376624E-1	8.965393E-1	9.031220E-1	9.010070E-1	9.374352E-1	8.797268E-1	9.154271E-1	8.373942E-1	9.040508E-1	8.786334E-1	8.889778E-1
5.427600E+2	9.821729E-1	9.619718E-1	9.503863E-1	1.001714E+0	1.013760E+0	9.623633E-1	9.350919E-1	9.529171E-1	9.892940E-1	9.881551E-1	9.611650E-1	9.780247E-1	9.845690E-1	9.590622E-1	9.619629E-1	9.643251E-1	9.714637E-1	1.001020E+0	9.986813E-1	9.593920E-1	9.824649E-1	1.016523E+0	9.554954E-1	9.530738E-1	9.718276E-1	1.006893E+0	1.032481E+0	9.974323E-1	1.022884E+0	9.307167E-1	9.917059E-1	1.018040E+0	9.769029E-1	9.756941E-1	9.994616E-1	9.858162E-1	9.400721E-1	9.897081E-1	1.001621E+0	1.002655E+0	1.019687E+0	1.009785E+0	9.787887E-1	9.647251E-1	9.690442E-1	1.027885E+0	9.694259E-1	9.626733E-1	1.002752E+0	9.795210E-1	9.975571E-1	9.144222E-1	9.758128E-1	9.696628E-1	1.031645E+0	9.872833E-1	9.766237E-1	9.743965E-1	9.824639E-1	1.047805E+0	9.951863E-1	9.815790E-1	9.659100E-1	9.926046E-1	9.346385E-1	9.765104E-1	9.679972E-1	9.908286E-1	1.014037E+0	1.005006E+0	9.960034E-1	9.715275E-1	9.809112E-1	1.008818E+0	9.807148E-1	1.018989E+0	9.662391E-1	9.944283E-1	9.163903E-1	9.776823E-1	9.766746E-1	9.963312E-1	9.929426E-1	1.002572E+0	9.540969E-1	9.601244E-1	1.005773E+0	9.743749E-1	9.714513E-1	9.688894E-1	9.978048E-1	9.384888E-1	9.604793E-1	9.758646E-1	9.962905E-1	9.696153E-1	1.000696E+0	1.009803E+0	9.681711E-1	1.021149E+0	9.721359E-1	1.026516E+0	9.956031E-1	9.845205E-1	9.514358E-1	1.016402E+0	9.658665E-1	9.839370E-1	1.011578E+0	9.774421E-1	9.438139E-1	9.613919E-1	9.606492E-1	9.470878E-1	9.829319E-1	9.894773E-1	1.012930E+0	1.039024E+0	9.958065E-1	9.813310E-1	9.247528E-1	9.810872E-1	1.022339E+0	9.615244E-1	9.739715E-1	9.693383E-1	9.666316E-1	1.004529E+0	1.024354E+0	1.003403E+0	9.437256E-1	9.932844E-1	1.004088E+0	9.828428E-1	9.337120E-1	9.665073E-1	9.741409E-1	9.780111E-1	1.002045E+0	9.603714E-1	9.550283E-1	9.813343E-1	9.766281E-1	9.230811E-1	9.965122E-1	1.026047E+0	9.880329E-1	9.894282E-1	9.794361E-1	9.569181E-1	9.577264E-1	9.682106E-1	9.917217E-1	9.233295E-1	9.908215E-1	9.793475E-1	9.341744E-1	9.532022E-1	9.660630E-1	9.544189E-1	9.812267E-1	9.692376E-1	9.647908E-1	9.434507E-1	9.584725E-1	9.507143E-1	9.766244E-1	9.852289E-1	9.736820E-1	9.181965E-1
5.430120E+2	1.074293E+0	1.125063E+0	1.125371E+0	1.107602E+0	1.142330E+0	1.085682E+0	1.150305E+0	1.166229E+0	1.115833E+0	1.118107E+0	1.122102E+0	1.116449E+0	1.100537E+0	1.142787E+0	1.120259E+0	1.092555E+0	1.110504E+0	1.061870E+0	1.156260E+0	1.120228E+0	1.154777E+0	1.120924E+0	1.116108E+0	1.104643E+0	1.114225E+0	1.155599E+0	1.100794E+0	1.112023E+0	1.117863E+0	1.164301E+0	1.125206E+0	1.134277E+0	1.141971E+0	1.094418E+0	1.117323E+0	1.113201E+0	1.104997E+0	1.106675E+0	1.119121E+0	1.116540E+0	1.110688E+0	1.182078E+0	1.193574E+0	1.133075E+0	1.136219E+0	1.133918E+0	1.151886E+0	1.109399E+0	1.154859E+0	1.134770E+0	1.165148E+0	1.136120E+0	1.127756E+0	1.099153E+0	1.124750E+0	1.134436E+0	1.126547E+0	1.147238E+0	1.129708E+0	1.138974E+0	1.125326E+0	1.118159E+0	1.152645E+0	1.103291E+0	1.119107E+0	1.165228E+0	1.146669E+0	1.137106E+0	1.104456E+0	1.166196E+0	1.120242E+0	1.103827E+0	1.104668E+0	1.138864E+0	1.102005E+0	1.124318E+0	1.096925E+0	1.122980E+0	1.093286E+0	1.121068E+0	1.108722E+0	1.134133E+0	1.089970E+0	1.123777E+0	1.085747E+0	1.179457E+0	1.113152E+0	1.096589E+0	1.126990E+0	1.118056E+0	1.114570E+0	1.128897E+0	1.131614E+0	1.117787E+0	1.153714E+0	1.111686E+0	1.136589E+0	1.124119E+0	1.131749E+0	1.134973E+0	1.157986E+0	1.116953E+0	1.101405E+0	1.059515E+0	1.138925E+0	1.149028E+0	1.095065E+0	1.144786E+0	1.132274E+0	1.124489E+0	1.075511E+0	1.115536E+0	1.123293E+0	1.146701E+0	1.082777E+0	1.047622E+0	1.140286E+0	1.106319E+0	1.153216E+0	1.120766E+0	1.086746E+0	1.105471E+0	1.109775E+0	1.081905E+0	1.145150E+0	1.136444E+0	1.101873E+0	1.116620E+0	1.130142E+0	1.143362E+0	1.095630E+0	1.115661E+0	1.102763E+0	1.099031E+0	1.067909E+0	1.130006E+0	1.131467E+0	1.141869E+0	1.155609E+0	1.103485E+0	1.075932E+0	1.111924E+0	1.111966E+0	1.115311E+0	1.090873E+0	1.145850E+0	1.146957E+0	1.116328E+0	1.118916E+0	1.128638E+0	1.157916E+0	1.103292E+0	1.071806E+0	1.059378E+0	1.137940E+0	1.113176E+0	1.183705E+0	1.096704E+0	1.080439E+0	1.159669E+0	1.143633E+0	1.118912E+0	1.095866E+0	1.118728E+0	1.033336E+0	1.076207E+0	1.120203E+0	1.067920E+0	1.135650E+0	1.145036E+0
5.433070E+2	1.294766E+0	1.291780E+0	1.253991E+0	1.362450E+0	1.270279E+0	1.271942E+0	1.279204E+0	1.284572E+0	1.300747E+0	1.284805E+0	1.312245E+0	1.368109E+0	1.309005E+0	1.265481E+0	1.278102E+0	1.310799E+0	1.312617E+0	1.254032E+0	1.249851E+0	1.265147E+0	1.278190E+0	1.303660E+0	1.320718E+0	1.274409E+0	1.321337E+0	1.346240E+0	1.275345E+0	1.323045E+0	1.298201E+0	1.263479E+0	1.289508E+0	1.318195E+0	1.317451E+0	1.268596E+0	1.299476E+0	1.311753E+0	1.318209E+0	1.353223E+0	1.309073E+0	1.320984E+0	1.308308E+0	1.349430E+0	1.303963E+0	1.296887E+0	1.281840E+0	1.300182E+0	1.328344E+0	1.297845E+0	1.314042E+0	1.291684E+0	1.291242E+0	1.328337E+0	1.306650E+0	1.288419E+0	1.303676E+0	1.294737E+0	1.240212E+0	1.318221E+0	1.313830E+0	1.352631E+0	1.300877E+0	1.285821E+0	1.236782E+0	1.318086E+0	1.301947E+0	1.283955E+0	1.255123E+0	1.322767E+0	1.249813E+0	1.335929E+0	1.265104E+0	1.299800E+0	1.245682E+0	1.309422E+0	1.285100E+0	1.308074E+0	1.277668E+0	1.313307E+0	1.292884E+0	1.333210E+0	1.241922E+0	1.318141E+0	1.329970E+0	1.281748E+0	1.251125E+0	1.346312E+0	1.256596E+0	1.271937E+0	1.272899E+0	1.294191E+0	1.284653E+0	1.281309E+0	1.267355E+0	1.265042E+0	1.295359E+0	1.284611E+0	1.283279E+0	1.254804E+0	1.275273E+0	1.274399E+0	1.302561E+0	1.258176E+0	1.282121E+0	1.240913E+0	1.299659E+0	1.337053E+0	1.290502E+0	1.292270E+0	1.324433E+0	1.280273E+0	1.347453E+0	1.276153E+0	1.273632E+0	1.312068E+0	1.264801E+0	1.265510E+0	1.295322E+0	1.346285E+0	1.284134E+0	1.328471E+0	1.262529E+0	1.300968E+0	1.355360E+0	1.280773E+0	1.282581E+0	1.288731E+0	1.303892E+0	1.284983E+0	1.287988E+0	1.354103E+0	1.232837E+0	1.267817E+0	1.303038E+0	1.258297E+0	1.271474E+0	1.248686E+0	1.269017E+0	1.252824E+0	1.341818E+0	1.302029E+0	1.272926E+0	1.315246E+0	1.279019E+0	1.297980E+0	1.332910E+0	1.271502E+0	1.283992E+0	1.288715E+0	1.220743E+0	1.270699E+0	1.301289E+0	1.270977E+0	1.257918E+0	1.281231E+0	1.263305E+0	1.291360E+0	1.267786E+0	1.290885E+0	1.300055E+0	1.300740E+0	1.269187E+0	1.280493E+0	1.238069E+0	1.329737E+0	1.292290E+0	1.311024E+0	1.190524E+0	1.236341E+0	1.232098E+0	1.247534E+0
5.435220E+2	1.392107E+0	1.423250E+0	1.399325E+0	1.393041E+0	1.417532E+0	1.475308E+0	1.407963E+0	1.456026E+0	1.397839E+0	1.401607E+0	1.380040E+0	1.440588E+0	1.459531E+0	1.429672E+0	1.386787E+0	1.441898E+0	1.423755E+0	1.392081E+0	1.442157E+0	1.361111E+0	1.409794E+0	1.437118E+0	1.412757E+0	1.436518E+0	1.426782E+0	1.395345E+0	1.398143E+0	1.427289E+0	1.447889E+0	1.402058E+0	1.388635E+0	1.383668E+0	1.426005E+0	1.381270E+0	1.425427E+0	1.410635E+0	1.403058E+0	1.432907E+0	1.424213E+0	1.402922E+0	1.442408E+0	1.435536E+0	1.471792E+0	1.356421E+0	1.381709E+0	1.406790E+0	1.381110E+0	1.400871E+0	1.407097E+0	1.464309E+0	1.370041E+0	1.378542E+0	1.379754E+0	1.381069E+0	1.470479E+0	1.421968E+0	1.453346E+0	1.458632E+0	1.389236E+0	1.410188E+0	1.370554E+0	1.437396E+0	1.373884E+0	1.345185E+0	1.358586E+0	1.359805E+0	1.365123E+0	1.409130E+0	1.397128E+0	1.434942E+0	1.378409E+0	1.439890E+0	1.355835E+0	1.463766E+0	1.338445E+0	1.446249E+0	1.332211E+0	1.373729E+0	1.383301E+0	1.360429E+0	1.380248E+0	1.362937E+0	1.416262E+0	1.362521E+0	1.334319E+0	1.456762E+0	1.385773E+0	1.389715E+0	1.410326E+0	1.348599E+0	1.348588E+0	1.416342E+0	1.396529E+0	1.416181E+0	1.390162E+0	1.421554E+0	1.408308E+0	1.353879E+0	1.418090E+0	1.393280E+0	1.395307E+0	1.438748E+0	1.374892E+0	1.396722E+0	1.398780E+0	1.418777E+0	1.364580E+0	1.415871E+0	1.384342E+0	1.380865E+0	1.390519E+0	1.442356E+0	1.387816E+0	1.354172E+0	1.382001E+0	1.351701E+0	1.407579E+0	1.399905E+0	1.413552E+0	1.389909E+0	1.385080E+0	1.406868E+0	1.409577E+0	1.316155E+0	1.363624E+0	1.400665E+0	1.401651E+0	1.443807E+0	1.404862E+0	1.416369E+0	1.346099E+0	1.370287E+0	1.405859E+0	1.427722E+0	1.380550E+0	1.422935E+0	1.407236E+0	1.459309E+0	1.405432E+0	1.439673E+0	1.377075E+0	1.386622E+0	1.377423E+0	1.379938E+0	1.352419E+0	1.429627E+0	1.385768E+0	1.387493E+0	1.381088E+0	1.421829E+0	1.366342E+0	1.407827E+0	1.401853E+0	1.444784E+0	1.435793E+0	1.355323E+0	1.366531E+0	1.432157E+0	1.404302E+0	1.404373E+0	1.349035E+0	1.353842E+0	1.387002E+0	1.432471E+0	1.356384E+0	1.450891E+0	1.357776E+0	1.396960E+0	1.341335E+0	1.438373E+0
5.437690E+2	1.464857E+0	1.543169E+0	1.496587E+0	1.523915E+0	1.476527E+0	1.568753E+0	1.507493E+0	1.478636E+0	1.478627E+0	1.506974E+0	1.487702E+0	1.521844E+0	1.518573E+0	1.482692E+0	1.484786E+0	1.494008E+0	1.524823E+0	1.486577E+0	1.538239E+0	1.463172E+0	1.506389E+0	1.533343E+0	1.520954E+0	1.510519E+0	1.485263E+0	1.452335E+0	1.488743E+0	1.495416E+0	1.573220E+0	1.472545E+0	1.480284E+0	1.520368E+0	1.515136E+0	1.452961E+0	1.475727E+0	1.521641E+0	1.472195E+0	1.501440E+0	1.455289E+0	1.513008E+0	1.500918E+0	1.493360E+0	1.475680E+0	1.547840E+0	1.482849E+0	1.467472E+0	1.433625E+0	1.468154E+0	1.481002E+0	1.452687E+0	1.418717E+0	1.546400E+0	1.513445E+0	1.467907E+0	1.491596E+0	1.491341E+0	1.486660E+0	1.524343E+0	1.473622E+0	1.549420E+0	1.497759E+0	1.581331E+0	1.456568E+0	1.502864E+0	1.488776E+0	1.442545E+0	1.468973E+0	1.477541E+0	1.450036E+0	1.515917E+0	1.501853E+0	1.454715E+0	1.437614E+0	1.550288E+0	1.485471E+0	1.564703E+0	1.503622E+0	1.471287E+0	1.499760E+0	1.499004E+0	1.431882E+0	1.491639E+0	1.476498E+0	1.517242E+0	1.480972E+0	1.538120E+0	1.521589E+0	1.501369E+0	1.481910E+0	1.513628E+0	1.543906E+0	1.488831E+0	1.472738E+0	1.482832E+0	1.514277E+0	1.503134E+0	1.462470E+0	1.518142E+0	1.464706E+0	1.497270E+0	1.418485E+0	1.510725E+0	1.429697E+0	1.517946E+0	1.415798E+0	1.505988E+0	1.491900E+0	1.488586E+0	1.440792E+0	1.509366E+0	1.514139E+0	1.450179E+0	1.480894E+0	1.484098E+0	1.448365E+0	1.438385E+0	1.448494E+0	1.474707E+0	1.512733E+0	1.482192E+0	1.409236E+0	1.509516E+0	1.465070E+0	1.442666E+0	1.480546E+0	1.510721E+0	1.506850E+0	1.525750E+0	1.504774E+0	1.494788E+0	1.440829E+0	1.451971E+0	1.570096E+0	1.540317E+0	1.481352E+0	1.507439E+0	1.500581E+0	1.510254E+0	1.512754E+0	1.467581E+0	1.448624E+0	1.485637E+0	1.458927E+0	1.436629E+0	1.474365E+0	1.502462E+0	1.477853E+0	1.490406E+0	1.418333E+0	1.475897E+0	1.452869E+0	1.456002E+0	1.420432E+0	1.451606E+0	1.460342E+0	1.468162E+0	1.498055E+0	1.468202E+0	1.499058E+0	1.480008E+0	1.480846E+0	1.498127E+0	1.525504E+0	1.474423E+0	1.453283E+0	1.495977E+0	1.431156E+0	1.493425E+0	1.421161E+0	1.487011E+0
5.440170E+2	1.535613E+0	1.441770E+0	1.560598E+0	1.512460E+0	1.452993E+0	1.523635E+0	1.538782E+0	1.549086E+0	1.513489E+0	1.527154E+0	1.526568E+0	1.500203E+0	1.527403E+0	1.535266E+0	1.507075E+0	1.486066E+0	1.521737E+0	1.531214E+0	1.546915E+0	1.468370E+0	1.546715E+0	1.546397E+0	1.539284E+0	1.513995E+0	1.487382E+0	1.509951E+0	1.561750E+0	1.524718E+0	1.545550E+0	1.535304E+0	1.439762E+0	1.491088E+0	1.483272E+0	1.524290E+0	1.477287E+0	1.503382E+0	1.527427E+0	1.568649E+0	1.502551E+0	1.502964E+0	1.552002E+0	1.575441E+0	1.538956E+0	1.446183E+0	1.512116E+0	1.528519E+0	1.490924E+0	1.469451E+0	1.467875E+0	1.465844E+0	1.502128E+0	1.528523E+0	1.480263E+0	1.545765E+0	1.500472E+0	1.550968E+0	1.486829E+0	1.546249E+0	1.517900E+0	1.508795E+0	1.531029E+0	1.503439E+0	1.454647E+0	1.505640E+0	1.446882E+0	1.514654E+0	1.439167E+0	1.515165E+0	1.496437E+0	1.511278E+0	1.495732E+0	1.500305E+0	1.435952E+0	1.508602E+0	1.519367E+0	1.526152E+0	1.466476E+0	1.526151E+0	1.495448E+0	1.495198E+0	1.465716E+0	1.559167E+0	1.576423E+0	1.461657E+0	1.472500E+0	1.545694E+0	1.451301E+0	1.520852E+0	1.513218E+0	1.535800E+0	1.473364E+0	1.475855E+0	1.492706E+0	1.496047E+0	1.484969E+0	1.465643E+0	1.524452E+0	1.528428E+0	1.524548E+0	1.491346E+0	1.490977E+0	1.497215E+0	1.538684E+0	1.447952E+0	1.480614E+0	1.547884E+0	1.465226E+0	1.470232E+0	1.513389E+0	1.473129E+0	1.467771E+0	1.511752E+0	1.490083E+0	1.452751E+0	1.492450E+0	1.554711E+0	1.517419E+0	1.512276E+0	1.513655E+0	1.507586E+0	1.525403E+0	1.546442E+0	1.482971E+0	1.517527E+0	1.493524E+0	1.490482E+0	1.515787E+0	1.520936E+0	1.475218E+0	1.539865E+0	1.492027E+0	1.523913E+0	1.539730E+0	1.570444E+0	1.486113E+0	1.475292E+0	1.490571E+0	1.463028E+0	1.461792E+0	1.545870E+0	1.484096E+0	1.476349E+0	1.455142E+0	1.454702E+0	1.469630E+0	1.495307E+0	1.465390E+0	1.453273E+0	1.480507E+0	1.535669E+0	1.484607E+0	1.523905E+0	1.409898E+0	1.508808E+0	1.457570E+0	1.514958E+0	1.471892E+0	1.525102E+0	1.452665E+0	1.558728E+0	1.466457E+0	1.462801E+0	1.445428E+0	1.543286E+0	1.399999E+0	1.492997E+0	1.509146E+0	1.485397E+0	1.447942E+0	1.414179E+0
5.442920E+2	1.530828E+0	1.535225E+0	1.556512E+0	1.622470E+0	1.533658E+0	1.520662E+0	1.524756E+0	1.536771E+0	1.561261E+0	1.551948E+0	1.542279E+0	1.522635E+0	1.545046E+0	1.525027E+0	1.540100E+0	1.498532E+0	1.575823E+0	1.514427E+0	1.616563E+0	1.505037E+0	1.517965E+0	1.575995E+0	1.550543E+0	1.488924E+0	1.536400E+0	1.532710E+0	1.541150E+0	1.531311E+0	1.548681E+0	1.483207E+0	1.549531E+0	1.561466E+0	1.514213E+0	1.488927E+0	1.446884E+0	1.503154E+0	1.534542E+0	1.532099E+0	1.494643E+0	1.581764E+0	1.580650E+0	1.510064E+0	1.527110E+0	1.475095E+0	1.503672E+0	1.525492E+0	1.533078E+0	1.458162E+0	1.520789E+0	1.481931E+0	1.522363E+0	1.560386E+0	1.513449E+0	1.462035E+0	1.547081E+0	1.554078E+0	1.498247E+0	1.582219E+0	1.513166E+0	1.512768E+0	1.525925E+0	1.580461E+0	1.548491E+0	1.498728E+0	1.487805E+0	1.483634E+0	1.514651E+0	1.513381E+0	1.524296E+0	1.575065E+0	1.510831E+0	1.519039E+0	1.522765E+0	1.540409E+0	1.465459E+0	1.574802E+0	1.482188E+0	1.494623E+0	1.544220E+0	1.551364E+0	1.520705E+0	1.560018E+0	1.503888E+0	1.514097E+0	1.501470E+0	1.531906E+0	1.501226E+0	1.539946E+0	1.495395E+0	1.546255E+0	1.500111E+0	1.505272E+0	1.495793E+0	1.531065E+0	1.459586E+0	1.520849E+0	1.502570E+0	1.552554E+0	1.498537E+0	1.497580E+0	1.539664E+0	1.496061E+0	1.529419E+0	1.522888E+0	1.504082E+0	1.555388E+0	1.495072E+0	1.539579E+0	1.498903E+0	1.501011E+0	1.471002E+0	1.566291E+0	1.502713E+0	1.480032E+0	1.458964E+0	1.518832E+0	1.498157E+0	1.517861E+0	1.524223E+0	1.570101E+0	1.481904E+0	1.500900E+0	1.476023E+0	1.503327E+0	1.490419E+0	1.477686E+0	1.538469E+0	1.539873E+0	1.492448E+0	1.502941E+0	1.549146E+0	1.521407E+0	1.544026E+0	1.521681E+0	1.536264E+0	1.544796E+0	1.470237E+0	1.542258E+0	1.466911E+0	1.500533E+0	1.475312E+0	1.515797E+0	1.483431E+0	1.468124E+0	1.528409E+0	1.568457E+0	1.462888E+0	1.532487E+0	1.496206E+0	1.500965E+0	1.506546E+0	1.555215E+0	1.461763E+0	1.475697E+0	1.482014E+0	1.496286E+0	1.471446E+0	1.484937E+0	1.499410E+0	1.547535E+0	1.480630E+0	1.529393E+0	1.529547E+0	1.502114E+0	1.498253E+0	1.545889E+0	1.468917E+0	1.576568E+0	1.440803E+0	1.537548E+0
5.445240E+2	1.509833E+0	1.465265E+0	1.532315E+0	1.492487E+0	1.502529E+0	1.539797E+0	1.514021E+0	1.533555E+0	1.519600E+0	1.494382E+0	1.455142E+0	1.547193E+0	1.505202E+0	1.462196E+0	1.499780E+0	1.526223E+0	1.512951E+0	1.474337E+0	1.510519E+0	1.500839E+0	1.532285E+0	1.465629E+0	1.477298E+0	1.515593E+0	1.441743E+0	1.449129E+0	1.444000E+0	1.482347E+0	1.458432E+0	1.443305E+0	1.487734E+0	1.466841E+0	1.489142E+0	1.493797E+0	1.482846E+0	1.479291E+0	1.477152E+0	1.491874E+0	1.498988E+0	1.493646E+0	1.495175E+0	1.477307E+0	1.469601E+0	1.526254E+0	1.456061E+0	1.522503E+0	1.485848E+0	1.397099E+0	1.485438E+0	1.458096E+0	1.492351E+0	1.504250E+0	1.450027E+0	1.459717E+0	1.504567E+0	1.467643E+0	1.515715E+0	1.596899E+0	1.456169E+0	1.472615E+0	1.467159E+0	1.509914E+0	1.509738E+0	1.510609E+0	1.438925E+0	1.437330E+0	1.431674E+0	1.478701E+0	1.466820E+0	1.533828E+0	1.474247E+0	1.509667E+0	1.450454E+0	1.468875E+0	1.464670E+0	1.467610E+0	1.417717E+0	1.507610E+0	1.398452E+0	1.532324E+0	1.439695E+0	1.449403E+0	1.477557E+0	1.450062E+0	1.492363E+0	1.526380E+0	1.448611E+0	1.454040E+0	1.470357E+0	1.502354E+0	1.446107E+0	1.494049E+0	1.433397E+0	1.511570E+0	1.558284E+0	1.456255E+0	1.483266E+0	1.485453E+0	1.503029E+0	1.458535E+0	1.496471E+0	1.517363E+0	1.468075E+0	1.501729E+0	1.468514E+0	1.460522E+0	1.526342E+0	1.472413E+0	1.439226E+0	1.480630E+0	1.495694E+0	1.426673E+0	1.452829E+0	1.446726E+0	1.471771E+0	1.447998E+0	1.512616E+0	1.525725E+0	1.518545E+0	1.540653E+0	1.508769E+0	1.510138E+0	1.467895E+0	1.455155E+0	1.473784E+0	1.482930E+0	1.496288E+0	1.439818E+0	1.502659E+0	1.547487E+0	1.508821E+0	1.399447E+0	1.481965E+0	1.471304E+0	1.449105E+0	1.443852E+0	1.481442E+0	1.489051E+0	1.510769E+0	1.519369E+0	1.410343E+0	1.463526E+0	1.457302E+0	1.443033E+0	1.461932E+0	1.509950E+0	1.469625E+0	1.451042E+0	1.418033E+0	1.505712E+0	1.480058E+0	1.462389E+0	1.450188E+0	1.431031E+0	1.435012E+0	1.442921E+0	1.512806E+0	1.442842E+0	1.493281E+0	1.478771E+0	1.438343E+0	1.414626E+0	1.528178E+0	1.424486E+0	1.462479E+0	1.452740E+0	1.428751E+0	1.470253E+0	1.470729E+0	1.425318E+0
5.447720E+2	1.411868E+0	1.439717E+0	1.431667E+0	1.460154E+0	1.463019E+0	1.464318E+0	1.447377E+0	1.446878E+0	1.459867E+0	1.428143E+0	1.420264E+0	1.451914E+0	1.415243E+0	1.423532E+0	1.445077E+0	1.474718E+0	1.384151E+0	1.432242E+0	1.405363E+0	1.426899E+0	1.410682E+0	1.479140E+0	1.461739E+0	1.451549E+0	1.425112E+0	1.405210E+0	1.406607E+0	1.432766E+0	1.394291E+0	1.405238E+0	1.427013E+0	1.385356E+0	1.422036E+0	1.392461E+0	1.441108E+0	1.410952E+0	1.424242E+0	1.466409E+0	1.456736E+0	1.395128E+0	1.449458E+0	1.454259E+0	1.444482E+0	1.416354E+0	1.456068E+0	1.444198E+0	1.396465E+0	1.395372E+0	1.421494E+0	1.379306E+0	1.439812E+0	1.478377E+0	1.402227E+0	1.402242E+0	1.426187E+0	1.434598E+0	1.389590E+0	1.470851E+0	1.416032E+0	1.498180E+0	1.392429E+0	1.403963E+0	1.404938E+0	1.398681E+0	1.370771E+0	1.398665E+0	1.396676E+0	1.435086E+0	1.432067E+0	1.442140E+0	1.451645E+0	1.408401E+0	1.424593E+0	1.431043E+0	1.361404E+0	1.485357E+0	1.387574E+0	1.410591E+0	1.415793E+0	1.444911E+0	1.400573E+0	1.442201E+0	1.451701E+0	1.428143E+0	1.424414E+0	1.486767E+0	1.413480E+0	1.444026E+0	1.425368E+0	1.440758E+0	1.425644E+0	1.440364E+0	1.371484E+0	1.419786E+0	1.422167E+0	1.402546E+0	1.419497E+0	1.459232E+0	1.445531E+0	1.462806E+0	1.407620E+0	1.435989E+0	1.475012E+0	1.437539E+0	1.406551E+0	1.413315E+0	1.469054E+0	1.399594E+0	1.426141E+0	1.459212E+0	1.373567E+0	1.412528E+0	1.405788E+0	1.333823E+0	1.453662E+0	1.392390E+0	1.418964E+0	1.463039E+0	1.419242E+0	1.437474E+0	1.386087E+0	1.416022E+0	1.411764E+0	1.427060E+0	1.396262E+0	1.398864E+0	1.412130E+0	1.417296E+0	1.409676E+0	1.415876E+0	1.488568E+0	1.404871E+0	1.464727E+0	1.435037E+0	1.402392E+0	1.448217E+0	1.428686E+0	1.442163E+0	1.468014E+0	1.409616E+0	1.396624E+0	1.437758E+0	1.397819E+0	1.398443E+0	1.409188E+0	1.425929E+0	1.407770E+0	1.411433E+0	1.380949E+0	1.410502E+0	1.436788E+0	1.388568E+0	1.328369E+0	1.437203E+0	1.397235E+0	1.392693E+0	1.446623E+0	1.394316E+0	1.382793E+0	1.423886E+0	1.382068E+0	1.363415E+0	1.377606E+0	1.388645E+0	1.346041E+0	1.378567E+0	1.398264E+0	1.416283E+0	1.369413E+0	1.484145E+0
5.450150E+2	1.362894E+0	1.354271E+0	1.287034E+0	1.337405E+0	1.296504E+0	1.305410E+0	1.337143E+0	1.350985E+0	1.305919E+0	1.301867E+0	1.321233E+0	1.324324E+0	1.357574E+0	1.303303E+0	1.314355E+0	1.334436E+0	1.339145E+0	1.350698E+0	1.361840E+0	1.347963E+0	1.346128E+0	1.383582E+0	1.346545E+0	1.314150E+0	1.320794E+0	1.278998E+0	1.315783E+0	1.339923E+0	1.342204E+0	1.292148E+0	1.286165E+0	1.306210E+0	1.326598E+0	1.300032E+0	1.336557E+0	1.303193E+0	1.264148E+0	1.304989E+0	1.306730E+0	1.314446E+0	1.307191E+0	1.328822E+0	1.341962E+0	1.305091E+0	1.290195E+0	1.365504E+0	1.248744E+0	1.301068E+0	1.268559E+0	1.328129E+0	1.307632E+0	1.284010E+0	1.307510E+0	1.272662E+0	1.335726E+0	1.354686E+0	1.324763E+0	1.334608E+0	1.316493E+0	1.302334E+0	1.345072E+0	1.321407E+0	1.328128E+0	1.337782E+0	1.268902E+0	1.316626E+0	1.305100E+0	1.304510E+0	1.334780E+0	1.331220E+0	1.321367E+0	1.319325E+0	1.309894E+0	1.328128E+0	1.321075E+0	1.361546E+0	1.258605E+0	1.267082E+0	1.302001E+0	1.352933E+0	1.326642E+0	1.303898E+0	1.314953E+0	1.317201E+0	1.289243E+0	1.379166E+0	1.309084E+0	1.343264E+0	1.313842E+0	1.286930E+0	1.266134E+0	1.340152E+0	1.324712E+0	1.249593E+0	1.311427E+0	1.264006E+0	1.285566E+0	1.291697E+0	1.349872E+0	1.304603E+0	1.349045E+0	1.337602E+0	1.315710E+0	1.334803E+0	1.333971E+0	1.333288E+0	1.315414E+0	1.370698E+0	1.286121E+0	1.311464E+0	1.363975E+0	1.342031E+0	1.306641E+0	1.290483E+0	1.287451E+0	1.335576E+0	1.281435E+0	1.332918E+0	1.321457E+0	1.350309E+0	1.307629E+0	1.320266E+0	1.344357E+0	1.315259E+0	1.352862E+0	1.317180E+0	1.301625E+0	1.334222E+0	1.326479E+0	1.353797E+0	1.296215E+0	1.331807E+0	1.283525E+0	1.348399E+0	1.303698E+0	1.303488E+0	1.286568E+0	1.365466E+0	1.303867E+0	1.302887E+0	1.353277E+0	1.278342E+0	1.308129E+0	1.279438E+0	1.310133E+0	1.388146E+0	1.295499E+0	1.283743E+0	1.311906E+0	1.341908E+0	1.298240E+0	1.338349E+0	1.285711E+0	1.275646E+0	1.292337E+0	1.310855E+0	1.271697E+0	1.329471E+0	1.320911E+0	1.328790E+0	1.322945E+0	1.282301E+0	1.318589E+0	1.335594E+0	1.290704E+0	1.361928E+0	1.325262E+0	1.278718E+0	1.304319E+0	1.285249E+0
5.452580E+2	1.251202E+0	1.262926E+0	1.232305E+0	1.283441E+0	1.227968E+0	1.233015E+0	1.218994E+0	1.226494E+0	1.242150E+0	1.245960E+0	1.294651E+0	1.289228E+0	1.236316E+0	1.206420E+0	1.255806E+0	1.267452E+0	1.271631E+0	1.225235E+0	1.281250E+0	1.262898E+0	1.238802E+0	1.246565E+0	1.222778E+0	1.243842E+0	1.211497E+0	1.198085E+0	1.272587E+0	1.188703E+0	1.242718E+0	1.263377E+0	1.233438E+0	1.237600E+0	1.277089E+0	1.216412E+0	1.246508E+0	1.223086E+0	1.274692E+0	1.203434E+0	1.251694E+0	1.271239E+0	1.300001E+0	1.233679E+0	1.251593E+0	1.245584E+0	1.240783E+0	1.259410E+0	1.212378E+0	1.211619E+0	1.212004E+0	1.207922E+0	1.236832E+0	1.232458E+0	1.209260E+0	1.232126E+0	1.283390E+0	1.226564E+0	1.209858E+0	1.212272E+0	1.252202E+0	1.273121E+0	1.219961E+0	1.244107E+0	1.252325E+0	1.255632E+0	1.261334E+0	1.211870E+0	1.243678E+0	1.237119E+0	1.222357E+0	1.270649E+0	1.192569E+0	1.257217E+0	1.210374E+0	1.246850E+0	1.256541E+0	1.253535E+0	1.186149E+0	1.197248E+0	1.241767E+0	1.242080E+0	1.234475E+0	1.221052E+0	1.244703E+0	1.245896E+0	1.229686E+0	1.259088E+0	1.251112E+0	1.237292E+0	1.212410E+0	1.212318E+0	1.265425E+0	1.196303E+0	1.230533E+0	1.229989E+0	1.245530E+0	1.231172E+0	1.264581E+0	1.256220E+0	1.234498E+0	1.211042E+0	1.250918E+0	1.188711E+0	1.248215E+0	1.234486E+0	1.289762E+0	1.269107E+0	1.236113E+0	1.274724E+0	1.220728E+0	1.236652E+0	1.290011E+0	1.286319E+0	1.268085E+0	1.216329E+0	1.253586E+0	1.201548E+0	1.226726E+0	1.228713E+0	1.250889E+0	1.216538E+0	1.221095E+0	1.240532E+0	1.277269E+0	1.190444E+0	1.261016E+0	1.219248E+0	1.236871E+0	1.249903E+0	1.227722E+0	1.235120E+0	1.258434E+0	1.234758E+0	1.243610E+0	1.260810E+0	1.278322E+0	1.294068E+0	1.252061E+0	1.185684E+0	1.275725E+0	1.218447E+0	1.240237E+0	1.273876E+0	1.169882E+0	1.190266E+0	1.231543E+0	1.259239E+0	1.211017E+0	1.194985E+0	1.240137E+0	1.271851E+0	1.258773E+0	1.272110E+0	1.221064E+0	1.239783E+0	1.264345E+0	1.225019E+0	1.237309E+0	1.238177E+0	1.247297E+0	1.226529E+0	1.205309E+0	1.209626E+0	1.215771E+0	1.236100E+0	1.232729E+0	1.271105E+0	1.267720E+0	1.253709E+0	1.225663E+0	1.171484E+0
5.455500E+2	1.156204E+0	1.192199E+0	1.198056E+0	1.201242E+0	1.202815E+0	1.192590E+0	1.182841E+0	1.201695E+0	1.152018E+0	1.187214E+0	1.202899E+0	1.247710E+0	1.156098E+0	1.183349E+0	1.213276E+0	1.196541E+0	1.227914E+0	1.166101E+0	1.170650E+0	1.183214E+0	1.223493E+0	1.170085E+0	1.159790E+0	1.244274E+0	1.155281E+0	1.222994E+0	1.153426E+0	1.240749E+0	1.174394E+0	1.176175E+0	1.214656E+0	1.213353E+0	1.225757E+0	1.176804E+0	1.209674E+0	1.234725E+0	1.194023E+0	1.177994E+0	1.213397E+0	1.141677E+0	1.179709E+0	1.232813E+0	1.126621E+0	1.220075E+0	1.179611E+0	1.174499E+0	1.222257E+0	1.198138E+0	1.212733E+0	1.156873E+0	1.142285E+0	1.204650E+0	1.178388E+0	1.200780E+0	1.179297E+0	1.214007E+0	1.185157E+0	1.207509E+0	1.216124E+0	1.171106E+0	1.202482E+0	1.186545E+0	1.201317E+0	1.174353E+0	1.143120E+0	1.169627E+0	1.166639E+0	1.214094E+0	1.155933E+0	1.156426E+0	1.189813E+0	1.239391E+0	1.161612E+0	1.169682E+0	1.194858E+0	1.188567E+0	1.172576E+0	1.164977E+0	1.196109E+0	1.231987E+0	1.152243E+0	1.162044E+0	1.150180E+0	1.192269E+0	1.155718E+0	1.197346E+0	1.206427E+0	1.151415E+0	1.181023E+0	1.238657E+0	1.157042E+0	1.224697E+0	1.200015E+0	1.159381E+0	1.180261E+0	1.177777E+0	1.191961E+0	1.202504E+0	1.198146E+0	1.197179E+0	1.204640E+0	1.173949E+0	1.196196E+0	1.153183E+0	1.171936E+0	1.166006E+0	1.202124E+0	1.171862E+0	1.178852E+0	1.166538E+0	1.163353E+0	1.217917E+0	1.157452E+0	1.165817E+0	1.199141E+0	1.185301E+0	1.202690E+0	1.143317E+0	1.215334E+0	1.161613E+0	1.166909E+0	1.184660E+0	1.196191E+0	1.141293E+0	1.181568E+0	1.168697E+0	1.183930E+0	1.189254E+0	1.192335E+0	1.193404E+0	1.166751E+0	1.174198E+0	1.200260E+0	1.158813E+0	1.192300E+0	1.168716E+0	1.222518E+0	1.194443E+0	1.194526E+0	1.182123E+0	1.198837E+0	1.153338E+0	1.172018E+0	1.155875E+0	1.223782E+0	1.192874E+0	1.189554E+0	1.171311E+0	1.190477E+0	1.174152E+0	1.187052E+0	1.243804E+0	1.127905E+0	1.170092E+0	1.196427E+0	1.173932E+0	1.193594E+0	1.211360E+0	1.199508E+0	1.218762E+0	1.097005E+0	1.100431E+0	1.168458E+0	1.212399E+0	1.099639E+0	1.190732E+0	1.212851E+0	1.159217E+0	1.114454E+0	1.127565E+0
5.457830E+2	1.145857E+0	1.144670E+0	1.182773E+0	1.160582E+0	1.172410E+0	1.136316E+0	1.139039E+0	1.155101E+0	1.195980E+0	1.109233E+0	1.183945E+0	1.172303E+0	1.199706E+0	1.182557E+0	1.116261E+0	1.193990E+0	1.146676E+0	1.125010E+0	1.207397E+0	1.160611E+0	1.174623E+0	1.172252E+0	1.154825E+0	1.144867E+0	1.138050E+0	1.181839E+0	1.150515E+0	1.128591E+0	1.121630E+0	1.144707E+0	1.185503E+0	1.148510E+0	1.182747E+0	1.171948E+0	1.108800E+0	1.156705E+0	1.156122E+0	1.134819E+0	1.159706E+0	1.127153E+0	1.221183E+0	1.163398E+0	1.195040E+0	1.179806E+0	1.194650E+0	1.187832E+0	1.134682E+0	1.124189E+0	1.147579E+0	1.088023E+0	1.125057E+0	1.161434E+0	1.164683E+0	1.131511E+0	1.191513E+0	1.199791E+0	1.160122E+0	1.137236E+0	1.122225E+0	1.161178E+0	1.177076E+0	1.168529E+0	1.147081E+0	1.161456E+0	1.145765E+0	1.104287E+0	1.170213E+0	1.171847E+0	1.164297E+0	1.161518E+0	1.141458E+0	1.153440E+0	1.160186E+0	1.194378E+0	1.137480E+0	1.201742E+0	1.131729E+0	1.128246E+0	1.121953E+0	1.178385E+0	1.176915E+0	1.176740E+0	1.135266E+0	1.215459E+0	1.107425E+0	1.178263E+0	1.159402E+0	1.150479E+0	1.148631E+0	1.160925E+0	1.165713E+0	1.170571E+0	1.130934E+0	1.114441E+0	1.188182E+0	1.188686E+0	1.213524E+0	1.156110E+0	1.131427E+0	1.173892E+0	1.125918E+0	1.116688E+0	1.166825E+0	1.177888E+0	1.148996E+0	1.140341E+0	1.153005E+0	1.165481E+0	1.136779E+0	1.166660E+0	1.178934E+0	1.184440E+0	1.091857E+0	1.169437E+0	1.143560E+0	1.149347E+0	1.137432E+0	1.144941E+0	1.186845E+0	1.140484E+0	1.149538E+0	1.144469E+0	1.162174E+0	1.160058E+0	1.104792E+0	1.147027E+0	1.198202E+0	1.160170E+0	1.092109E+0	1.126920E+0	1.157038E+0	1.126567E+0	1.169080E+0	1.223497E+0	1.170105E+0	1.228298E+0	1.156658E+0	1.159169E+0	1.192680E+0	1.153319E+0	1.160793E+0	1.136526E+0	1.136744E+0	1.132936E+0	1.140593E+0	1.113006E+0	1.171467E+0	1.109879E+0	1.122706E+0	1.144789E+0	1.170915E+0	1.190391E+0	1.119365E+0	1.153854E+0	1.173081E+0	1.131138E+0	1.151430E+0	1.155835E+0	1.148188E+0	1.125670E+0	1.132071E+0	1.089315E+0	1.124262E+0	1.188566E+0	1.161393E+0	1.125723E+0	1.117742E+0	1.166834E+0	1.097003E+0	1.089877E+0
5.460060E+2	1.143921E+0	1.163029E+0	1.203899E+0	1.159193E+0	1.158002E+0	1.179664E+0	1.210914E+0	1.146702E+0	1.149606E+0	1.142774E+0	1.191625E+0	1.190602E+0	1.165633E+0	1.168298E+0	1.179303E+0	1.164113E+0	1.182807E+0	1.159032E+0	1.092901E+0	1.126801E+0	1.194052E+0	1.126179E+0	1.208000E+0	1.147719E+0	1.190021E+0	1.156394E+0	1.182480E+0	1.185437E+0	1.152357E+0	1.109691E+0	1.160616E+0	1.136007E+0	1.159966E+0	1.188892E+0	1.178361E+0	1.169617E+0	1.136375E+0	1.128751E+0	1.151833E+0	1.171347E+0	1.163572E+0	1.145353E+0	1.233348E+0	1.123183E+0	1.150847E+0	1.122233E+0	1.171056E+0	1.140898E+0	1.195532E+0	1.150160E+0	1.141528E+0	1.175761E+0	1.176784E+0	1.096897E+0	1.179561E+0	1.199261E+0	1.101378E+0	1.181381E+0	1.185096E+0	1.161859E+0	1.123901E+0	1.126737E+0	1.174118E+0	1.134407E+0	1.135266E+0	1.186889E+0	1.139666E+0	1.107562E+0	1.159777E+0	1.128819E+0	1.181669E+0	1.151230E+0	1.115450E+0	1.185688E+0	1.181684E+0	1.210684E+0	1.154470E+0	1.156558E+0	1.160923E+0	1.142263E+0	1.136890E+0	1.174240E+0	1.171491E+0	1.169545E+0	1.193168E+0	1.202582E+0	1.147060E+0	1.166992E+0	1.122124E+0	1.103622E+0	1.148377E+0	1.166737E+0	1.122085E+0	1.197967E+0	1.158187E+0	1.161873E+0	1.161127E+0	1.142640E+0	1.202421E+0	1.141186E+0	1.157447E+0	1.156518E+0	1.133879E+0	1.145249E+0	1.130448E+0	1.169981E+0	1.184149E+0	1.164514E+0	1.170890E+0	1.167309E+0	1.152859E+0	1.139676E+0	1.190988E+0	1.135239E+0	1.194031E+0	1.158105E+0	1.144071E+0	1.136558E+0	1.165985E+0	1.153685E+0	1.152172E+0	1.133379E+0	1.167317E+0	1.064952E+0	1.178136E+0	1.187852E+0	1.160794E+0	1.136063E+0	1.092376E+0	1.203676E+0	1.166449E+0	1.160086E+0	1.120848E+0	1.159384E+0	1.190236E+0	1.166555E+0	1.126086E+0	1.140890E+0	1.145113E+0	1.106081E+0	1.144266E+0	1.158170E+0	1.173266E+0	1.120316E+0	1.167055E+0	1.179628E+0	1.146540E+0	1.141369E+0	1.132821E+0	1.110308E+0	1.172737E+0	1.176026E+0	1.091673E+0	1.205069E+0	1.211061E+0	1.128730E+0	1.150849E+0	1.178304E+0	1.125903E+0	1.188685E+0	1.164804E+0	1.154409E+0	1.163371E+0	1.149634E+0	1.151189E+0	1.165713E+0	1.110405E+0	1.185496E+0	1.140602E+0	1.104167E+0
5.467710E+2	1.213888E+0	1.188243E+0	1.198363E+0	1.215827E+0	1.162955E+0	1.218986E+0	1.197330E+0	1.183137E+0	1.195980E+0	1.247896E+0	1.211663E+0	1.234097E+0	1.236400E+0	1.249918E+0	1.203826E+0	1.199650E+0	1.198895E+0	1.199083E+0	1.282549E+0	1.159501E+0	1.241470E+0	1.156727E+0	1.221506E+0	1.207096E+0	1.245818E+0	1.238573E+0	1.212401E+0	1.227140E+0	1.227884E+0	1.209374E+0	1.228135E+0	1.210044E+0	1.249058E+0	1.231444E+0	1.210352E+0	1.234076E+0	1.207077E+0	1.220908E+0	1.264494E+0	1.212313E+0	1.188979E+0	1.269974E+0	1.287152E+0	1.245969E+0	1.198613E+0	1.233474E+0	1.215134E+0	1.235970E+0	1.196274E+0	1.230807E+0	1.250133E+0	1.241529E+0	1.230873E+0	1.171582E+0	1.245630E+0	1.241066E+0	1.201286E+0	1.277875E+0	1.246978E+0	1.244098E+0	1.228487E+0	1.189874E+0	1.209639E+0	1.194648E+0	1.187762E+0	1.197985E+0	1.230367E+0	1.243173E+0	1.193761E+0	1.256479E+0	1.232641E+0	1.237124E+0	1.231187E+0	1.240912E+0	1.192084E+0	1.271086E+0	1.245425E+0	1.190069E+0	1.267544E+0	1.229405E+0	1.219257E+0	1.253248E+0	1.265132E+0	1.208770E+0	1.200316E+0	1.191486E+0	1.238100E+0	1.209837E+0	1.176866E+0	1.213312E+0	1.184197E+0	1.233686E+0	1.229521E+0	1.219528E+0	1.239391E+0	1.213334E+0	1.201831E+0	1.213911E+0	1.197838E+0	1.217915E+0	1.202535E+0	1.186309E+0	1.188754E+0	1.221561E+0	1.191807E+0	1.228964E+0	1.231211E+0	1.243340E+0	1.177721E+0	1.188940E+0	1.218529E+0	1.255965E+0	1.225819E+0	1.237165E+0	1.238194E+0	1.206604E+0	1.226516E+0	1.222355E+0	1.266000E+0	1.229378E+0	1.211663E+0	1.231266E+0	1.276258E+0	1.194821E+0	1.189819E+0	1.220082E+0	1.236669E+0	1.228234E+0	1.222599E+0	1.208787E+0	1.216356E+0	1.250687E+0	1.192796E+0	1.234533E+0	1.206209E+0	1.250829E+0	1.217855E+0	1.204005E+0	1.190358E+0	1.228906E+0	1.242462E+0	1.178045E+0	1.296998E+0	1.245543E+0	1.214443E+0	1.257660E+0	1.186697E+0	1.197683E+0	1.227023E+0	1.248391E+0	1.267225E+0	1.215055E+0	1.262263E+0	1.194415E+0	1.210770E+0	1.227117E+0	1.211753E+0	1.224174E+0	1.173425E+0	1.230383E+0	1.214378E+0	1.209848E+0	1.215647E+0	1.214030E+0	1.227240E+0	1.201336E+0	1.204845E+0	1.175215E+0	1.188242E+0	1.185679E+0
5.475120E+2	1.274881E+0	1.301211E+0	1.311047E+0	1.357291E+0	1.327279E+0	1.328396E+0	1.316529E+0	1.324770E+0	1.271008E+0	1.314312E+0	1.324373E+0	1.362561E+0	1.298885E+0	1.320201E+0	1.343603E+0	1.338689E+0	1.337150E+0	1.226479E+0	1.384482E+0	1.259595E+0	1.324353E+0	1.338284E+0	1.312059E+0	1.306144E+0	1.331214E+0	1.301203E+0	1.251821E+0	1.352437E+0	1.339770E+0	1.321256E+0	1.300660E+0	1.358266E+0	1.308150E+0	1.326320E+0	1.289086E+0	1.335842E+0	1.304659E+0	1.325765E+0	1.301365E+0	1.305879E+0	1.287409E+0	1.333171E+0	1.320795E+0	1.318146E+0	1.313740E+0	1.352536E+0	1.313186E+0	1.278649E+0	1.330581E+0	1.295441E+0	1.327203E+0	1.285786E+0	1.343763E+0	1.262101E+0	1.342709E+0	1.304559E+0	1.372981E+0	1.297942E+0	1.340800E+0	1.330271E+0	1.300048E+0	1.316706E+0	1.287966E+0	1.297665E+0	1.313413E+0	1.344664E+0	1.269750E+0	1.321349E+0	1.349359E+0	1.303338E+0	1.277755E+0	1.339438E+0	1.306156E+0	1.355464E+0	1.277897E+0	1.309751E+0	1.323349E+0	1.265089E+0	1.332792E+0	1.355960E+0	1.255872E+0	1.302176E+0	1.314805E+0	1.303240E+0	1.258251E+0	1.311296E+0	1.290033E+0	1.361956E+0	1.328748E+0	1.315271E+0	1.334638E+0	1.337376E+0	1.263498E+0	1.268082E+0	1.311711E+0	1.277198E+0	1.283324E+0	1.277973E+0	1.331795E+0	1.291046E+0	1.273418E+0	1.305702E+0	1.340419E+0	1.299834E+0	1.260096E+0	1.307209E+0	1.291840E+0	1.300006E+0	1.284645E+0	1.269925E+0	1.308008E+0	1.305544E+0	1.337639E+0	1.246692E+0	1.294295E+0	1.309067E+0	1.285764E+0	1.292556E+0	1.301479E+0	1.300735E+0	1.294279E+0	1.286847E+0	1.337760E+0	1.265885E+0	1.297147E+0	1.303579E+0	1.269258E+0	1.327867E+0	1.334971E+0	1.298111E+0	1.305736E+0	1.295524E+0	1.326848E+0	1.283617E+0	1.327850E+0	1.296679E+0	1.345616E+0	1.273473E+0	1.259902E+0	1.343645E+0	1.259137E+0	1.288797E+0	1.258536E+0	1.297921E+0	1.304354E+0	1.312397E+0	1.264328E+0	1.299884E+0	1.296504E+0	1.328745E+0	1.329216E+0	1.275683E+0	1.309577E+0	1.245046E+0	1.307057E+0	1.255581E+0	1.347848E+0	1.279082E+0	1.238302E+0	1.315984E+0	1.248427E+0	1.237461E+0	1.312270E+0	1.295882E+0	1.247234E+0	1.242100E+0	1.284932E+0	1.324749E+0	1.208940E+0	1.277606E+0
5.482660E+2	1.393710E+0	1.410549E+0	1.417374E+0	1.430152E+0	1.393027E+0	1.404340E+0	1.408110E+0	1.436466E+0	1.371212E+0	1.351967E+0	1.411652E+0	1.418112E+0	1.420499E+0	1.380024E+0	1.426082E+0	1.383616E+0	1.395998E+0	1.381920E+0	1.420156E+0	1.376937E+0	1.346153E+0	1.423532E+0	1.381918E+0	1.395658E+0	1.367767E+0	1.405192E+0	1.371418E+0	1.394773E+0	1.363402E+0	1.357065E+0	1.344770E+0	1.354804E+0	1.407600E+0	1.374756E+0	1.317970E+0	1.391163E+0	1.411401E+0	1.355502E+0	1.345867E+0	1.402543E+0	1.408915E+0	1.389784E+0	1.418874E+0	1.370897E+0	1.380960E+0	1.449786E+0	1.331210E+0	1.383490E+0	1.336944E+0	1.350938E+0	1.388522E+0	1.368216E+0	1.352603E+0	1.320225E+0	1.384792E+0	1.402069E+0	1.392221E+0	1.424366E+0	1.359972E+0	1.399286E+0	1.337144E+0	1.398941E+0	1.392329E+0	1.342605E+0	1.388676E+0	1.322777E+0	1.365581E+0	1.414530E+0	1.330443E+0	1.365598E+0	1.347344E+0	1.358707E+0	1.385165E+0	1.388209E+0	1.356407E+0	1.435414E+0	1.375103E+0	1.309908E+0	1.378798E+0	1.365163E+0	1.338663E+0	1.417906E+0	1.361041E+0	1.355429E+0	1.337630E+0	1.352375E+0	1.363448E+0	1.407314E+0	1.393028E+0	1.391059E+0	1.334459E+0	1.385742E+0	1.371899E+0	1.378078E+0	1.389430E+0	1.373628E+0	1.396672E+0	1.340531E+0	1.405309E+0	1.334367E+0	1.373164E+0	1.365180E+0	1.405459E+0	1.313731E+0	1.360276E+0	1.416259E+0	1.391828E+0	1.358351E+0	1.350910E+0	1.386117E+0	1.391451E+0	1.397998E+0	1.354914E+0	1.306491E+0	1.398738E+0	1.383401E+0	1.371122E+0	1.345404E+0	1.394215E+0	1.379841E+0	1.358652E+0	1.344998E+0	1.342344E+0	1.351686E+0	1.373834E+0	1.376392E+0	1.380671E+0	1.364446E+0	1.379075E+0	1.377364E+0	1.347966E+0	1.361608E+0	1.348199E+0	1.381901E+0	1.391558E+0	1.370851E+0	1.384185E+0	1.393077E+0	1.406710E+0	1.384863E+0	1.400567E+0	1.323651E+0	1.389700E+0	1.364325E+0	1.352292E+0	1.404707E+0	1.387156E+0	1.363273E+0	1.368324E+0	1.315890E+0	1.400940E+0	1.372064E+0	1.321204E+0	1.386683E+0	1.349204E+0	1.370285E+0	1.339152E+0	1.395958E+0	1.354510E+0	1.366980E+0	1.353808E+0	1.336150E+0	1.381321E+0	1.415922E+0	1.350396E+0	1.370382E+0	1.331934E+0	1.330679E+0	1.361988E+0	1.443113E+0
5.490540E+2	1.363504E+0	1.361564E+0	1.348126E+0	1.349513E+0	1.360018E+0	1.377196E+0	1.332537E+0	1.363459E+0	1.326694E+0	1.400344E+0	1.351254E+0	1.403068E+0	1.363080E+0	1.379966E+0	1.358028E+0	1.370641E+0	1.401572E+0	1.365700E+0	1.343932E+0	1.353240E+0	1.387935E+0	1.374267E+0	1.356246E+0	1.338208E+0	1.329714E+0	1.294035E+0	1.348802E+0	1.387708E+0	1.350407E+0	1.249783E+0	1.349218E+0	1.362084E+0	1.363546E+0	1.308057E+0	1.316293E+0	1.369551E+0	1.314198E+0	1.380948E+0	1.333853E+0	1.355689E+0	1.321031E+0	1.368185E+0	1.400730E+0	1.385518E+0	1.355094E+0	1.346499E+0	1.342444E+0	1.370323E+0	1.325059E+0	1.324986E+0	1.354551E+0	1.326162E+0	1.383067E+0	1.316830E+0	1.356499E+0	1.366269E+0	1.340246E+0	1.369259E+0	1.393561E+0	1.352588E+0	1.359109E+0	1.369486E+0	1.328986E+0	1.352663E+0	1.344593E+0	1.290761E+0	1.311954E+0	1.411407E+0	1.336045E+0	1.357388E+0	1.286481E+0	1.394533E+0	1.338667E+0	1.355537E+0	1.286778E+0	1.343291E+0	1.308401E+0	1.311901E+0	1.372992E+0	1.336700E+0	1.298919E+0	1.376550E+0	1.329533E+0	1.323628E+0	1.303495E+0	1.372241E+0	1.377829E+0	1.409402E+0	1.365690E+0	1.374449E+0	1.315610E+0	1.348630E+0	1.344182E+0	1.350077E+0	1.314652E+0	1.398818E+0	1.304813E+0	1.375153E+0	1.353346E+0	1.390071E+0	1.331850E+0	1.325076E+0	1.324039E+0	1.339727E+0	1.371958E+0	1.372171E+0	1.309091E+0	1.362055E+0	1.404212E+0	1.351503E+0	1.378557E+0	1.339418E+0	1.371028E+0	1.255664E+0	1.331283E+0	1.379113E+0	1.376289E+0	1.331200E+0	1.335287E+0	1.375573E+0	1.278646E+0	1.305434E+0	1.349056E+0	1.299223E+0	1.346350E+0	1.374069E+0	1.328290E+0	1.415707E+0	1.352157E+0	1.372313E+0	1.359662E+0	1.346393E+0	1.323868E+0	1.335264E+0	1.340149E+0	1.394165E+0	1.335737E+0	1.360037E+0	1.342893E+0	1.339162E+0	1.303778E+0	1.279077E+0	1.356496E+0	1.307394E+0	1.284479E+0	1.390355E+0	1.398730E+0	1.376302E+0	1.265625E+0	1.357546E+0	1.350900E+0	1.369802E+0	1.327188E+0	1.359497E+0	1.344146E+0	1.354068E+0	1.350490E+0	1.342306E+0	1.349341E+0	1.346957E+0	1.358544E+0	1.336811E+0	1.363792E+0	1.354901E+0	1.316980E+0	1.336460E+0	1.357183E+0	1.295149E+0	1.281601E+0	1.268966E+0
5.497960E+2	1.336761E+0	1.356034E+0	1.374347E+0	1.337229E+0	1.339885E+0	1.368360E+0	1.361467E+0	1.362501E+0	1.317433E+0	1.341919E+0	1.378435E+0	1.397328E+0	1.341816E+0	1.344263E+0	1.368345E+0	1.393753E+0	1.311352E+0	1.340273E+0	1.343170E+0	1.382003E+0	1.366120E+0	1.328243E+0	1.374722E+0	1.395743E+0	1.352911E+0	1.350363E+0	1.312644E+0	1.343133E+0	1.320540E+0	1.381461E+0	1.358329E+0	1.332265E+0	1.379167E+0	1.311043E+0	1.317474E+0	1.377717E+0	1.325669E+0	1.335284E+0	1.353416E+0	1.337703E+0	1.409104E+0	1.317324E+0	1.344575E+0	1.332711E+0	1.374672E+0	1.349220E+0	1.318366E+0	1.327637E+0	1.358078E+0	1.298505E+0	1.346366E+0	1.342039E+0	1.344647E+0	1.344684E+0	1.382542E+0	1.368704E+0	1.380378E+0	1.357936E+0	1.386408E+0	1.330874E+0	1.290502E+0	1.329630E+0	1.327142E+0	1.350447E+0	1.343245E+0	1.301514E+0	1.343835E+0	1.377915E+0	1.340908E+0	1.351497E+0	1.298886E+0	1.376209E+0	1.258033E+0	1.369623E+0	1.334880E+0	1.390523E+0	1.334587E+0	1.318997E+0	1.333572E+0	1.389205E+0	1.375363E+0	1.244860E+0	1.322594E+0	1.313723E+0	1.306012E+0	1.356123E+0	1.372186E+0	1.367534E+0	1.322900E+0	1.312315E+0	1.348376E+0	1.356233E+0	1.314954E+0	1.291832E+0	1.329127E+0	1.334506E+0	1.345976E+0	1.353558E+0	1.320132E+0	1.341838E+0	1.393068E+0	1.263067E+0	1.273261E+0	1.373329E+0	1.360126E+0	1.331889E+0	1.298895E+0	1.297039E+0	1.377552E+0	1.382490E+0	1.345228E+0	1.342461E+0	1.333637E+0	1.287073E+0	1.323706E+0	1.353124E+0	1.336693E+0	1.283993E+0	1.341951E+0	1.311662E+0	1.347930E+0	1.303700E+0	1.343639E+0	1.338534E+0	1.342624E+0	1.318945E+0	1.323795E+0	1.321270E+0	1.330400E+0	1.334191E+0	1.304466E+0	1.350641E+0	1.301606E+0	1.328412E+0	1.295114E+0	1.376590E+0	1.299257E+0	1.323161E+0	1.295644E+0	1.358125E+0	1.359034E+0	1.279517E+0	1.343011E+0	1.265652E+0	1.320694E+0	1.362461E+0	1.348672E+0	1.314152E+0	1.281216E+0	1.332017E+0	1.336323E+0	1.356676E+0	1.327597E+0	1.339222E+0	1.350283E+0	1.331909E+0	1.365028E+0	1.296142E+0	1.303355E+0	1.329502E+0	1.328589E+0	1.291814E+0	1.349742E+0	1.322032E+0	1.305582E+0	1.303030E+0	1.378285E+0	1.343486E+0	1.304672E+0	1.314304E+0
5.505110E+2	1.296155E+0	1.305223E+0	1.302208E+0	1.333163E+0	1.373372E+0	1.326590E+0	1.313403E+0	1.326416E+0	1.281543E+0	1.356000E+0	1.344773E+0	1.349842E+0	1.329185E+0	1.314027E+0	1.307052E+0	1.359464E+0	1.319699E+0	1.265393E+0	1.330040E+0	1.334996E+0	1.315898E+0	1.326702E+0	1.337696E+0	1.352543E+0	1.298773E+0	1.328589E+0	1.257533E+0	1.233926E+0	1.318564E+0	1.329766E+0	1.337597E+0	1.320420E+0	1.323844E+0	1.330736E+0	1.263409E+0	1.318826E+0	1.314198E+0	1.327275E+0	1.347007E+0	1.288889E+0	1.316882E+0	1.312029E+0	1.272907E+0	1.301763E+0	1.306340E+0	1.301609E+0	1.338566E+0	1.330491E+0	1.346807E+0	1.302892E+0	1.266564E+0	1.355114E+0	1.313200E+0	1.290189E+0	1.326946E+0	1.307371E+0	1.289534E+0	1.294350E+0	1.285218E+0	1.315246E+0	1.307048E+0	1.336099E+0	1.248046E+0	1.360017E+0	1.279924E+0	1.317703E+0	1.288050E+0	1.310481E+0	1.307392E+0	1.293083E+0	1.277449E+0	1.314335E+0	1.266224E+0	1.291508E+0	1.275414E+0	1.329625E+0	1.294148E+0	1.253194E+0	1.308016E+0	1.343006E+0	1.311996E+0	1.308373E+0	1.323297E+0	1.352390E+0	1.258097E+0	1.362249E+0	1.298596E+0	1.294550E+0	1.298555E+0	1.359105E+0	1.312040E+0	1.286298E+0	1.274261E+0	1.296994E+0	1.314732E+0	1.304885E+0	1.306027E+0	1.340130E+0	1.290007E+0	1.262095E+0	1.306913E+0	1.326299E+0	1.293503E+0	1.323150E+0	1.287368E+0	1.310442E+0	1.299117E+0	1.342008E+0	1.321473E+0	1.357926E+0	1.283171E+0	1.351471E+0	1.337735E+0	1.252910E+0	1.287908E+0	1.318451E+0	1.319799E+0	1.311152E+0	1.332305E+0	1.326995E+0	1.270383E+0	1.300554E+0	1.283984E+0	1.351919E+0	1.273778E+0	1.301822E+0	1.268581E+0	1.318984E+0	1.298047E+0	1.279958E+0	1.313385E+0	1.284738E+0	1.294595E+0	1.328856E+0	1.303560E+0	1.400561E+0	1.258564E+0	1.292236E+0	1.281900E+0	1.337508E+0	1.317690E+0	1.292543E+0	1.304096E+0	1.264677E+0	1.267134E+0	1.361093E+0	1.319073E+0	1.346508E+0	1.334720E+0	1.299862E+0	1.296029E+0	1.331343E+0	1.288583E+0	1.302107E+0	1.289466E+0	1.290329E+0	1.304675E+0	1.279153E+0	1.294965E+0	1.311313E+0	1.288783E+0	1.284302E+0	1.315722E+0	1.322174E+0	1.255707E+0	1.300022E+0	1.274697E+0	1.335746E+0	1.228447E+0	1.247277E+0
5.512510E+2	1.299910E+0	1.316461E+0	1.300304E+0	1.282822E+0	1.329070E+0	1.266752E+0	1.330110E+0	1.309464E+0	1.279399E+0	1.329384E+0	1.336419E+0	1.336317E+0	1.301591E+0	1.289381E+0	1.275408E+0	1.316182E+0	1.309244E+0	1.268103E+0	1.256821E+0	1.282477E+0	1.295819E+0	1.268530E+0	1.317632E+0	1.295272E+0	1.315197E+0	1.265008E+0	1.318731E+0	1.316452E+0	1.329607E+0	1.233361E+0	1.281531E+0	1.311724E+0	1.303507E+0	1.311461E+0	1.270221E+0	1.268172E+0	1.291394E+0	1.297829E+0	1.315713E+0	1.293513E+0	1.279935E+0	1.323252E+0	1.277685E+0	1.328233E+0	1.297075E+0	1.357077E+0	1.289230E+0	1.292191E+0	1.333092E+0	1.260834E+0	1.309642E+0	1.257153E+0	1.320349E+0	1.264507E+0	1.279112E+0	1.302171E+0	1.314387E+0	1.342465E+0	1.301447E+0	1.277865E+0	1.272640E+0	1.334387E+0	1.290324E+0	1.285385E+0	1.266110E+0	1.270466E+0	1.277617E+0	1.378020E+0	1.267193E+0	1.298419E+0	1.277780E+0	1.274957E+0	1.280089E+0	1.284619E+0	1.274311E+0	1.330213E+0	1.320533E+0	1.245747E+0	1.323665E+0	1.291756E+0	1.208931E+0	1.263839E+0	1.257869E+0	1.258246E+0	1.237115E+0	1.308927E+0	1.282730E+0	1.328662E+0	1.276759E+0	1.321558E+0	1.264786E+0	1.348028E+0	1.269855E+0	1.286229E+0	1.332652E+0	1.248608E+0	1.315685E+0	1.236217E+0	1.285725E+0	1.278420E+0	1.314309E+0	1.270317E+0	1.276614E+0	1.297082E+0	1.301967E+0	1.256718E+0	1.322041E+0	1.293623E+0	1.322261E+0	1.297648E+0	1.275909E+0	1.292453E+0	1.285182E+0	1.212707E+0	1.259856E+0	1.357774E+0	1.289876E+0	1.283452E+0	1.292138E+0	1.269862E+0	1.284226E+0	1.232607E+0	1.282234E+0	1.254109E+0	1.263545E+0	1.285200E+0	1.293450E+0	1.306126E+0	1.291292E+0	1.306295E+0	1.296044E+0	1.286558E+0	1.303770E+0	1.274101E+0	1.303261E+0	1.311291E+0	1.265557E+0	1.265938E+0	1.282857E+0	1.236360E+0	1.257852E+0	1.261980E+0	1.276643E+0	1.278540E+0	1.287913E+0	1.335339E+0	1.315883E+0	1.226499E+0	1.238108E+0	1.311081E+0	1.262714E+0	1.309841E+0	1.259481E+0	1.335321E+0	1.292420E+0	1.276965E+0	1.258772E+0	1.290315E+0	1.249445E+0	1.297215E+0	1.303713E+0	1.272287E+0	1.320939E+0	1.297802E+0	1.314336E+0	1.281125E+0	1.289528E+0	1.275965E+0	1.218642E+0	1.242448E+0
5.520210E+2	1.278275E+0	1.249339E+0	1.303745E+0	1.264818E+0	1.267548E+0	1.161089E+0	1.266123E+0	1.252865E+0	1.205837E+0	1.274316E+0	1.264152E+0	1.320369E+0	1.269825E+0	1.245725E+0	1.254630E+0	1.266832E+0	1.246489E+0	1.241153E+0	1.293047E+0	1.243101E+0	1.276710E+0	1.222275E+0	1.267200E+0	1.286943E+0	1.246503E+0	1.278664E+0	1.206267E+0	1.219717E+0	1.187462E+0	1.206855E+0	1.279911E+0	1.277484E+0	1.256454E+0	1.227195E+0	1.237958E+0	1.257489E+0	1.266162E+0	1.273123E+0	1.271966E+0	1.243592E+0	1.283749E+0	1.255808E+0	1.288411E+0	1.292020E+0	1.209286E+0	1.224789E+0	1.249276E+0	1.228271E+0	1.267544E+0	1.199625E+0	1.251498E+0	1.278042E+0	1.242503E+0	1.241712E+0	1.218443E+0	1.266860E+0	1.258507E+0	1.212772E+0	1.217172E+0	1.259004E+0	1.259464E+0	1.240335E+0	1.224440E+0	1.263981E+0	1.205837E+0	1.219008E+0	1.229252E+0	1.199068E+0	1.253364E+0	1.227728E+0	1.235214E+0	1.314088E+0	1.285294E+0	1.259263E+0	1.209724E+0	1.309436E+0	1.238546E+0	1.239117E+0	1.238692E+0	1.305271E+0	1.235527E+0	1.253447E+0	1.256183E+0	1.203018E+0	1.248383E+0	1.250255E+0	1.251082E+0	1.290155E+0	1.244655E+0	1.245282E+0	1.218277E+0	1.261297E+0	1.215286E+0	1.225290E+0	1.248399E+0	1.250767E+0	1.219424E+0	1.280505E+0	1.240270E+0	1.228153E+0	1.250874E+0	1.221530E+0	1.253805E+0	1.250721E+0	1.239837E+0	1.255211E+0	1.219984E+0	1.239589E+0	1.256577E+0	1.222226E+0	1.163959E+0	1.255474E+0	1.271430E+0	1.209952E+0	1.212748E+0	1.249123E+0	1.237438E+0	1.240393E+0	1.236738E+0	1.266786E+0	1.228435E+0	1.227115E+0	1.266104E+0	1.192379E+0	1.236156E+0	1.221337E+0	1.219303E+0	1.206162E+0	1.230209E+0	1.276560E+0	1.217729E+0	1.287707E+0	1.298246E+0	1.253580E+0	1.231188E+0	1.301734E+0	1.271032E+0	1.305627E+0	1.246196E+0	1.259826E+0	1.192836E+0	1.264019E+0	1.267804E+0	1.230671E+0	1.277725E+0	1.229196E+0	1.241694E+0	1.166282E+0	1.217937E+0	1.292887E+0	1.237787E+0	1.266340E+0	1.205702E+0	1.213249E+0	1.208441E+0	1.278930E+0	1.250284E+0	1.223752E+0	1.204268E+0	1.217534E+0	1.278837E+0	1.203134E+0	1.219139E+0	1.245269E+0	1.210512E+0	1.259006E+0	1.208205E+0	1.200176E+0	1.218438E+0	1.231804E+0
5.527590E+2	1.131937E+0	1.164353E+0	1.244383E+0	1.197020E+0	1.207097E+0	1.223336E+0	1.233228E+0	1.252364E+0	1.212688E+0	1.228472E+0	1.222725E+0	1.226406E+0	1.223416E+0	1.235904E+0	1.238698E+0	1.224030E+0	1.219192E+0	1.162910E+0	1.243788E+0	1.188549E+0	1.257514E+0	1.228416E+0	1.217179E+0	1.214359E+0	1.138604E+0	1.149257E+0	1.206125E+0	1.203250E+0	1.173250E+0	1.172296E+0	1.199433E+0	1.229508E+0	1.235095E+0	1.210369E+0	1.164715E+0	1.210379E+0	1.186951E+0	1.196291E+0	1.235543E+0	1.209292E+0	1.234916E+0	1.224887E+0	1.222803E+0	1.232794E+0	1.236180E+0	1.200871E+0	1.190853E+0	1.178468E+0	1.202868E+0	1.170512E+0	1.201036E+0	1.198890E+0	1.199442E+0	1.182709E+0	1.183993E+0	1.236305E+0	1.177228E+0	1.212821E+0	1.255990E+0	1.235670E+0	1.223851E+0	1.182542E+0	1.208147E+0	1.215953E+0	1.196046E+0	1.164430E+0	1.204881E+0	1.199253E+0	1.201438E+0	1.212209E+0	1.177274E+0	1.217181E+0	1.187928E+0	1.264121E+0	1.231925E+0	1.243913E+0	1.237469E+0	1.201749E+0	1.186491E+0	1.147627E+0	1.185677E+0	1.189163E+0	1.214204E+0	1.201026E+0	1.202530E+0	1.208850E+0	1.190376E+0	1.186982E+0	1.207711E+0	1.223924E+0	1.228311E+0	1.188553E+0	1.194375E+0	1.167682E+0	1.208805E+0	1.160222E+0	1.223724E+0	1.186233E+0	1.199100E+0	1.193983E+0	1.235241E+0	1.145720E+0	1.183664E+0	1.237309E+0	1.234111E+0	1.248877E+0	1.191222E+0	1.204945E+0	1.166842E+0	1.216759E+0	1.196801E+0	1.204263E+0	1.230005E+0	1.172023E+0	1.122156E+0	1.213363E+0	1.209811E+0	1.205655E+0	1.224333E+0	1.273061E+0	1.206741E+0	1.207319E+0	1.212669E+0	1.234301E+0	1.232952E+0	1.210731E+0	1.210972E+0	1.223925E+0	1.220500E+0	1.227053E+0	1.198941E+0	1.164737E+0	1.238010E+0	1.223820E+0	1.198878E+0	1.276232E+0	1.172180E+0	1.235447E+0	1.197179E+0	1.184003E+0	1.198726E+0	1.154013E+0	1.184232E+0	1.206527E+0	1.263387E+0	1.241527E+0	1.192054E+0	1.188326E+0	1.215279E+0	1.211251E+0	1.184458E+0	1.195757E+0	1.125933E+0	1.171268E+0	1.245250E+0	1.149162E+0	1.224855E+0	1.200906E+0	1.197078E+0	1.243603E+0	1.180683E+0	1.160562E+0	1.204896E+0	1.214296E+0	1.174061E+0	1.236679E+0	1.179747E+0	1.230630E+0	1.097534E+0	1.304825E+0
5.535490E+2	1.158594E+0	1.106943E+0	1.176927E+0	1.157132E+0	1.159795E+0	1.160205E+0	1.164524E+0	1.182723E+0	1.134300E+0	1.158978E+0	1.146566E+0	1.174241E+0	1.211483E+0	1.138659E+0	1.146376E+0	1.183902E+0	1.176164E+0	1.151538E+0	1.129226E+0	1.102617E+0	1.208480E+0	1.120893E+0	1.162155E+0	1.165818E+0	1.134654E+0	1.176722E+0	1.130139E+0	1.161501E+0	1.157826E+0	1.147235E+0	1.183885E+0	1.171683E+0	1.167522E+0	1.166649E+0	1.181907E+0	1.132665E+0	1.151987E+0	1.135075E+0	1.123249E+0	1.192901E+0	1.187378E+0	1.168907E+0	1.160960E+0	1.168961E+0	1.187040E+0	1.153635E+0	1.160117E+0	1.158495E+0	1.193008E+0	1.093971E+0	1.152123E+0	1.217935E+0	1.176504E+0	1.119612E+0	1.165388E+0	1.137471E+0	1.136733E+0	1.177922E+0	1.162166E+0	1.155942E+0	1.171040E+0	1.130068E+0	1.129888E+0	1.196466E+0	1.123435E+0	1.159426E+0	1.134959E+0	1.193074E+0	1.175175E+0	1.197056E+0	1.148279E+0	1.174054E+0	1.139861E+0	1.193389E+0	1.164082E+0	1.157288E+0	1.136186E+0	1.140153E+0	1.118680E+0	1.166650E+0	1.108146E+0	1.171448E+0	1.236116E+0	1.161316E+0	1.141870E+0	1.196602E+0	1.152294E+0	1.177562E+0	1.188010E+0	1.166089E+0	1.180544E+0	1.197461E+0	1.124208E+0	1.140644E+0	1.159493E+0	1.148234E+0	1.122098E+0	1.159980E+0	1.108548E+0	1.128786E+0	1.136823E+0	1.107929E+0	1.209031E+0	1.178408E+0	1.162073E+0	1.116783E+0	1.215134E+0	1.132579E+0	1.157210E+0	1.137247E+0	1.182185E+0	1.128435E+0	1.141073E+0	1.125234E+0	1.121521E+0	1.122111E+0	1.134095E+0	1.131277E+0	1.167986E+0	1.192253E+0	1.171991E+0	1.132754E+0	1.164911E+0	1.126421E+0	1.145050E+0	1.127682E+0	1.138545E+0	1.166465E+0	1.181312E+0	1.175624E+0	1.129299E+0	1.119627E+0	1.186390E+0	1.172519E+0	1.193122E+0	1.220094E+0	1.185224E+0	1.159925E+0	1.138608E+0	1.164233E+0	1.181664E+0	1.115393E+0	1.148644E+0	1.144899E+0	1.146938E+0	1.170757E+0	1.153105E+0	1.159084E+0	1.129131E+0	1.167855E+0	1.127646E+0	1.142411E+0	1.083494E+0	1.142768E+0	1.096913E+0	1.164582E+0	1.151637E+0	1.147280E+0	1.106970E+0	1.199181E+0	1.117847E+0	1.152129E+0	1.096358E+0	1.139377E+0	1.090748E+0	1.142281E+0	1.101148E+0	1.187039E+0	1.146522E+0	1.116545E+0
5.542580E+2	1.085173E+0	1.103651E+0	1.058804E+0	1.080118E+0	1.061605E+0	1.093867E+0	1.097578E+0	1.062300E+0	1.119435E+0	1.102124E+0	1.140690E+0	1.135040E+0	1.161799E+0	1.092650E+0	1.107918E+0	1.113463E+0	1.081333E+0	1.060837E+0	1.101948E+0	1.055042E+0	1.084273E+0	1.064861E+0	1.087527E+0	1.050369E+0	1.114729E+0	1.063204E+0	1.074710E+0	1.049766E+0	1.086714E+0	1.065402E+0	1.044300E+0	1.082649E+0	1.089572E+0	1.053866E+0	1.052972E+0	1.072798E+0	1.075874E+0	1.067455E+0	1.135638E+0	1.099355E+0	1.137656E+0	1.104868E+0	1.113342E+0	1.038609E+0	1.069369E+0	1.067845E+0	1.063558E+0	1.086165E+0	1.066633E+0	1.057257E+0	1.051845E+0	1.091968E+0	1.020327E+0	1.078238E+0	1.117890E+0	1.126687E+0	1.089832E+0	1.076665E+0	1.102375E+0	1.118889E+0	1.114248E+0	1.095193E+0	1.074828E+0	1.151405E+0	1.066046E+0	1.059172E+0	1.055932E+0	1.141163E+0	1.067570E+0	1.122290E+0	1.155340E+0	1.076961E+0	1.080359E+0	1.078240E+0	1.102631E+0	1.100014E+0	1.059909E+0	1.090804E+0	1.031753E+0	1.094358E+0	1.076641E+0	1.111714E+0	1.088571E+0	1.095613E+0	1.055905E+0	1.076783E+0	1.067032E+0	1.120988E+0	1.120208E+0	1.102268E+0	1.082922E+0	1.078804E+0	1.078185E+0	1.093376E+0	1.103304E+0	1.125505E+0	1.069292E+0	1.118805E+0	1.080307E+0	1.082150E+0	1.108124E+0	1.082578E+0	1.106405E+0	1.120172E+0	1.095907E+0	1.080705E+0	1.080522E+0	1.133004E+0	1.159757E+0	1.085302E+0	1.079883E+0	1.118031E+0	1.108247E+0	1.056944E+0	1.055295E+0	1.033861E+0	1.102171E+0	1.097395E+0	1.128117E+0	1.083890E+0	1.064240E+0	1.068576E+0	1.090323E+0	1.077479E+0	1.138283E+0	1.108064E+0	1.086765E+0	1.080622E+0	1.101682E+0	1.121853E+0	1.099588E+0	1.079477E+0	1.144810E+0	1.094103E+0	1.088399E+0	1.098801E+0	1.110921E+0	1.077969E+0	1.102907E+0	1.099595E+0	1.095885E+0	1.099041E+0	1.054141E+0	1.077126E+0	1.099921E+0	1.098883E+0	1.097988E+0	1.069056E+0	1.028824E+0	1.089686E+0	1.088314E+0	1.108086E+0	1.087130E+0	1.072105E+0	1.084457E+0	1.099287E+0	1.092837E+0	1.086582E+0	1.079419E+0	1.102589E+0	1.041702E+0	1.064551E+0	1.083854E+0	1.169091E+0	1.077430E+0	1.059862E+0	1.064966E+0	1.056836E+0	1.073478E+0	1.076147E+0
5.550190E+2	9.970728E-1	1.006927E+0	9.965251E-1	1.050063E+0	1.014727E+0	1.039175E+0	1.024080E+0	1.025748E+0	1.013772E+0	9.852894E-1	1.036694E+0	1.053306E+0	1.050401E+0	1.034920E+0	1.046088E+0	1.038319E+0	1.029405E+0	1.025111E+0	1.086965E+0	1.028636E+0	1.011450E+0	1.032822E+0	1.033011E+0	1.025943E+0	9.902309E-1	1.008430E+0	1.010328E+0	9.964585E-1	1.012481E+0	1.026730E+0	1.008649E+0	1.026517E+0	1.050320E+0	1.037957E+0	9.992468E-1	9.848664E-1	1.007001E+0	1.009760E+0	9.936549E-1	1.029379E+0	1.049287E+0	9.864460E-1	1.032454E+0	1.002451E+0	1.041612E+0	1.049859E+0	9.973156E-1	1.014242E+0	9.825516E-1	9.784560E-1	1.039719E+0	1.002775E+0	1.024794E+0	9.960838E-1	1.016631E+0	1.047278E+0	1.017480E+0	1.021109E+0	1.009330E+0	1.025978E+0	1.066387E+0	1.058770E+0	9.697155E-1	1.005965E+0	9.748983E-1	1.005748E+0	1.013119E+0	9.969640E-1	1.057792E+0	1.021743E+0	1.002171E+0	1.033823E+0	1.023690E+0	1.042281E+0	9.932971E-1	9.970619E-1	1.030434E+0	1.013577E+0	9.942299E-1	1.018766E+0	9.979127E-1	1.067609E+0	1.048754E+0	9.524218E-1	1.041002E+0	1.064044E+0	1.013741E+0	1.044646E+0	1.047147E+0	1.027862E+0	9.760894E-1	1.025567E+0	1.035939E+0	1.025561E+0	9.974763E-1	1.008198E+0	1.026682E+0	9.869955E-1	1.026637E+0	9.916757E-1	1.044125E+0	1.010263E+0	1.045845E+0	9.890162E-1	1.017494E+0	1.009008E+0	9.862918E-1	1.047554E+0	1.055741E+0	1.001380E+0	9.891037E-1	1.040686E+0	9.865536E-1	9.815749E-1	9.827078E-1	1.000815E+0	1.036405E+0	1.002192E+0	1.028712E+0	1.003489E+0	1.048058E+0	1.026571E+0	1.027248E+0	1.019862E+0	1.011171E+0	1.036650E+0	1.001137E+0	1.042129E+0	1.028411E+0	1.060385E+0	9.974341E-1	1.029414E+0	1.041983E+0	1.017631E+0	1.048651E+0	1.098812E+0	1.037636E+0	1.051912E+0	1.095892E+0	1.047131E+0	1.005434E+0	1.007853E+0	1.032879E+0	1.024905E+0	1.019152E+0	1.048692E+0	1.061253E+0	1.036020E+0	1.016426E+0	1.009699E+0	1.000429E+0	1.086114E+0	1.003616E+0	9.671375E-1	9.755953E-1	9.911759E-1	1.061689E+0	9.945301E-1	1.030393E+0	9.903530E-1	9.938689E-1	9.920902E-1	9.946122E-1	1.038324E+0	9.684603E-1	1.042390E+0	1.015576E+0	1.045929E+0	1.000844E+0	1.047437E+0
5.557600E+2	9.293802E-1	9.677074E-1	9.792663E-1	9.472191E-1	9.229300E-1	9.750053E-1	9.488403E-1	9.784427E-1	9.393357E-1	9.582261E-1	1.002406E+0	9.424224E-1	9.642290E-1	9.521989E-1	9.585665E-1	9.762764E-1	9.642079E-1	9.597421E-1	9.855321E-1	9.314634E-1	9.447793E-1	9.598770E-1	9.585479E-1	1.004850E+0	9.912568E-1	9.189485E-1	9.417482E-1	9.512618E-1	9.823065E-1	9.609911E-1	9.234563E-1	9.760016E-1	9.790588E-1	9.100935E-1	9.482992E-1	1.037088E+0	9.797213E-1	9.517289E-1	9.570163E-1	9.546044E-1	9.716277E-1	9.767149E-1	9.340568E-1	9.351512E-1	9.344297E-1	9.497742E-1	9.849096E-1	9.146016E-1	9.469750E-1	9.724021E-1	1.008004E+0	9.655690E-1	9.152610E-1	9.596514E-1	9.915631E-1	9.619615E-1	9.284805E-1	9.524876E-1	9.414961E-1	9.482114E-1	9.546798E-1	9.818475E-1	9.521848E-1	9.185271E-1	9.342693E-1	9.194223E-1	9.268023E-1	9.775116E-1	9.561135E-1	9.898405E-1	9.877638E-1	9.588360E-1	9.674643E-1	9.773353E-1	9.538412E-1	9.716430E-1	9.261297E-1	9.322966E-1	9.285084E-1	9.504260E-1	8.948650E-1	9.478205E-1	9.704519E-1	9.547478E-1	9.655274E-1	9.962637E-1	9.643924E-1	9.197443E-1	9.633199E-1	9.397851E-1	9.259404E-1	9.411535E-1	9.150821E-1	9.266338E-1	9.557022E-1	9.111361E-1	9.666739E-1	9.370035E-1	9.781727E-1	9.508415E-1	9.684161E-1	9.756433E-1	9.755884E-1	9.395914E-1	9.247306E-1	9.598305E-1	9.537050E-1	9.258709E-1	1.004266E+0	9.539477E-1	9.785232E-1	9.558372E-1	9.607660E-1	9.644598E-1	9.279770E-1	9.481520E-1	9.922939E-1	9.718076E-1	9.774758E-1	9.515701E-1	9.508457E-1	9.618443E-1	9.306882E-1	9.553340E-1	9.516467E-1	9.731943E-1	9.567282E-1	9.826458E-1	9.458706E-1	9.499477E-1	9.335210E-1	9.362232E-1	9.490622E-1	9.565861E-1	9.383609E-1	1.024557E+0	9.802527E-1	9.618095E-1	9.921736E-1	9.564714E-1	8.945135E-1	9.477612E-1	9.787666E-1	9.670695E-1	9.578171E-1	9.289695E-1	9.338916E-1	9.286136E-1	9.727460E-1	9.768266E-1	9.632503E-1	9.729628E-1	9.774802E-1	9.616170E-1	9.302543E-1	9.884441E-1	9.598644E-1	9.873771E-1	9.647136E-1	9.700619E-1	9.444986E-1	1.029785E+0	9.821588E-1	9.907436E-1	9.131016E-1	9.798522E-1	9.195872E-1	8.961970E-1	9.838085E-1	8.280130E-1
5.560190E+2	9.509635E-1	9.472960E-1	9.370650E-1	9.769730E-1	9.371781E-1	9.156902E-1	9.347879E-1	9.368000E-1	9.536663E-1	9.838819E-1	9.497719E-1	9.871247E-1	9.896470E-1	9.465086E-1	9.389551E-1	9.799584E-1	9.351371E-1	9.673152E-1	9.550289E-1	9.187008E-1	9.624796E-1	8.967005E-1	9.480876E-1	9.199573E-1	9.303214E-1	9.205356E-1	9.097787E-1	9.577360E-1	9.593861E-1	9.520514E-1	8.986960E-1	9.313805E-1	9.411890E-1	9.305270E-1	9.652299E-1	8.939999E-1	9.212283E-1	9.283627E-1	9.722279E-1	9.313832E-1	9.814434E-1	9.308117E-1	9.184976E-1	9.346408E-1	9.261365E-1	9.469554E-1	9.213504E-1	8.733080E-1	9.671324E-1	9.074499E-1	9.117984E-1	9.488879E-1	9.175186E-1	9.496224E-1	9.284959E-1	9.466145E-1	9.230486E-1	9.445702E-1	9.484949E-1	9.456418E-1	9.158738E-1	9.804383E-1	9.286961E-1	9.522361E-1	9.892543E-1	9.024801E-1	9.280167E-1	9.735670E-1	9.383972E-1	9.546429E-1	9.433372E-1	9.760809E-1	9.385725E-1	9.558152E-1	9.568446E-1	9.963790E-1	8.971083E-1	9.159890E-1	9.334373E-1	9.639816E-1	9.210950E-1	9.258734E-1	9.268080E-1	9.686272E-1	9.209779E-1	9.838997E-1	9.514200E-1	9.620614E-1	9.404381E-1	9.204663E-1	9.637365E-1	9.508227E-1	9.218996E-1	9.114746E-1	9.753965E-1	9.306834E-1	9.386935E-1	9.517028E-1	9.155696E-1	9.356803E-1	9.258283E-1	9.411425E-1	9.513441E-1	9.817644E-1	9.456629E-1	9.458712E-1	9.281450E-1	9.357491E-1	9.796362E-1	9.073296E-1	9.581054E-1	9.411113E-1	9.528571E-1	9.637732E-1	9.550500E-1	9.691461E-1	9.630675E-1	9.559473E-1	9.495191E-1	9.313341E-1	8.998547E-1	8.861030E-1	9.556605E-1	9.327220E-1	9.209722E-1	9.337339E-1	9.283722E-1	9.506550E-1	9.646437E-1	9.786586E-1	9.078370E-1	9.371704E-1	9.421442E-1	9.460493E-1	9.493016E-1	9.599615E-1	9.518021E-1	9.032358E-1	9.137842E-1	9.346783E-1	9.364717E-1	9.169755E-1	9.250242E-1	9.483407E-1	9.903721E-1	9.336864E-1	9.309432E-1	9.182827E-1	9.332791E-1	9.289527E-1	9.469443E-1	9.296868E-1	9.334539E-1	9.820577E-1	9.646430E-1	9.756625E-1	9.218064E-1	9.632306E-1	9.490125E-1	9.490377E-1	9.285444E-1	9.423441E-1	9.486478E-1	9.549873E-1	9.526677E-1	9.424697E-1	9.567968E-1	9.407824E-1	9.311011E-1	8.999030E-1
5.565030E+2	9.754367E-1	9.026943E-1	9.147855E-1	9.517275E-1	9.409428E-1	9.035265E-1	9.461155E-1	9.518327E-1	9.443225E-1	9.660719E-1	9.573866E-1	9.552225E-1	9.193204E-1	9.579974E-1	9.519862E-1	9.158931E-1	9.190414E-1	8.794677E-1	9.763966E-1	9.606036E-1	9.487937E-1	9.979889E-1	9.276010E-1	9.151868E-1	1.014554E+0	9.455092E-1	9.129660E-1	9.496439E-1	9.776321E-1	9.040984E-1	9.355367E-1	9.461117E-1	9.880309E-1	9.500319E-1	9.261675E-1	9.451273E-1	9.488933E-1	9.452936E-1	9.467626E-1	9.210063E-1	9.810796E-1	9.564622E-1	9.680232E-1	9.399975E-1	9.740129E-1	9.199319E-1	9.469963E-1	9.064332E-1	9.342065E-1	9.307142E-1	1.008634E+0	9.725835E-1	9.411406E-1	9.234274E-1	9.323714E-1	9.542900E-1	9.472000E-1	9.569972E-1	9.297399E-1	9.203194E-1	9.777196E-1	9.977679E-1	9.084583E-1	9.310375E-1	9.229495E-1	9.371210E-1	9.646424E-1	9.705389E-1	9.730829E-1	9.120759E-1	9.025565E-1	9.395625E-1	9.162846E-1	9.483778E-1	9.472081E-1	9.700551E-1	9.832417E-1	9.698852E-1	9.298264E-1	9.481042E-1	9.311838E-1	9.649340E-1	9.409541E-1	9.504489E-1	9.600942E-1	9.710446E-1	9.307230E-1	9.814306E-1	9.812983E-1	9.184614E-1	8.913798E-1	9.758897E-1	9.259183E-1	9.145088E-1	9.608795E-1	9.499656E-1	9.562035E-1	9.404294E-1	9.408030E-1	9.623938E-1	9.360780E-1	9.347625E-1	9.672868E-1	9.078755E-1	9.609527E-1	8.944638E-1	9.757590E-1	9.130482E-1	9.806205E-1	9.640427E-1	9.644436E-1	9.195479E-1	9.697764E-1	9.696998E-1	9.282297E-1	9.379128E-1	9.583960E-1	9.561677E-1	9.527149E-1	9.795631E-1	9.330918E-1	9.246736E-1	9.214233E-1	9.340787E-1	9.559299E-1	9.338425E-1	9.644307E-1	9.420982E-1	9.766321E-1	9.510547E-1	9.689742E-1	9.441715E-1	9.449488E-1	9.678062E-1	9.246436E-1	9.664362E-1	9.281722E-1	9.438889E-1	9.220676E-1	9.602344E-1	9.537032E-1	9.075527E-1	9.628637E-1	9.653940E-1	9.508689E-1	9.516819E-1	9.737990E-1	9.790111E-1	9.767164E-1	9.207222E-1	9.542951E-1	9.614808E-1	8.687768E-1	9.439271E-1	9.259053E-1	9.964973E-1	9.253856E-1	9.568861E-1	9.562837E-1	1.014934E+0	9.529314E-1	9.738343E-1	9.374896E-1	9.467663E-1	9.558316E-1	9.655356E-1	9.416223E-1	9.180643E-1	8.945998E-1	8.808486E-1
5.570500E+2	9.681528E-1	9.981934E-1	1.020509E+0	9.526410E-1	9.763431E-1	9.679299E-1	9.557363E-1	9.645608E-1	9.729110E-1	9.746855E-1	9.973543E-1	9.860964E-1	1.004504E+0	1.002818E+0	9.990079E-1	9.803023E-1	1.002994E+0	9.759727E-1	9.865040E-1	9.970561E-1	9.762738E-1	9.174164E-1	9.835782E-1	9.914948E-1	9.562908E-1	9.709281E-1	1.018981E+0	9.305453E-1	9.856328E-1	9.524515E-1	9.605542E-1	9.795112E-1	9.356697E-1	9.520260E-1	9.713092E-1	9.537705E-1	9.575745E-1	9.685477E-1	9.693780E-1	9.693017E-1	9.727445E-1	9.792508E-1	9.767721E-1	9.582137E-1	9.973752E-1	9.917783E-1	9.639507E-1	9.735012E-1	1.011622E+0	1.016344E+0	9.647798E-1	1.009306E+0	9.783759E-1	1.004779E+0	9.824360E-1	9.519771E-1	9.929137E-1	1.017402E+0	9.225097E-1	9.483801E-1	9.778741E-1	9.845741E-1	9.633030E-1	9.487668E-1	9.681390E-1	9.771066E-1	9.660739E-1	9.827952E-1	9.405497E-1	1.006245E+0	9.616815E-1	9.747567E-1	9.866856E-1	1.006870E+0	9.911853E-1	9.832540E-1	9.308531E-1	9.572459E-1	9.775109E-1	9.583078E-1	1.005795E+0	1.015118E+0	9.714559E-1	9.365662E-1	9.662990E-1	9.589268E-1	9.550707E-1	9.409850E-1	9.737712E-1	9.827272E-1	9.655114E-1	9.585935E-1	9.775268E-1	9.753390E-1	9.868907E-1	9.684092E-1	9.753403E-1	9.365322E-1	9.659708E-1	9.680119E-1	9.584525E-1	9.423834E-1	9.886407E-1	9.691095E-1	9.784178E-1	9.760029E-1	9.325346E-1	9.745659E-1	9.742134E-1	9.633181E-1	1.020709E+0	9.584470E-1	9.550742E-1	9.827874E-1	1.008779E+0	9.604756E-1	9.713513E-1	9.563798E-1	9.666090E-1	9.608745E-1	9.825020E-1	9.602541E-1	9.876499E-1	9.120824E-1	9.977436E-1	9.565100E-1	9.764753E-1	9.419752E-1	9.591964E-1	9.832254E-1	9.757346E-1	9.518390E-1	9.721292E-1	1.000318E+0	9.829695E-1	9.987986E-1	9.984043E-1	9.460217E-1	9.912090E-1	9.830350E-1	1.011186E+0	9.467291E-1	1.006401E+0	9.551270E-1	9.595952E-1	9.972622E-1	9.578033E-1	9.770781E-1	1.012925E+0	9.481177E-1	9.990270E-1	9.537445E-1	9.384863E-1	1.020638E+0	9.665493E-1	9.744669E-1	9.751254E-1	1.011696E+0	9.308057E-1	9.762225E-1	9.824680E-1	1.004890E+0	9.333255E-1	9.673550E-1	9.863697E-1	9.277330E-1	9.873163E-1	9.408420E-1	1.047170E+0	9.213760E-1
5.575700E+2	9.632278E-1	9.935012E-1	1.012934E+0	1.022079E+0	1.046401E+0	9.778410E-1	1.051892E+0	1.008333E+0	1.044896E+0	9.769696E-1	9.783433E-1	1.006895E+0	9.619253E-1	9.893113E-1	9.806041E-1	9.911798E-1	1.022873E+0	9.659228E-1	1.007750E+0	1.019694E+0	9.747897E-1	9.891147E-1	9.992672E-1	1.024089E+0	1.060852E+0	1.014758E+0	1.011484E+0	1.012176E+0	1.025355E+0	9.951959E-1	9.611870E-1	9.669059E-1	1.059290E+0	9.795391E-1	9.992451E-1	1.002571E+0	1.018912E+0	1.032321E+0	1.005758E+0	1.012697E+0	1.036329E+0	1.021952E+0	9.809407E-1	1.003705E+0	1.016792E+0	9.782480E-1	1.013985E+0	1.043574E+0	9.955930E-1	9.966440E-1	9.929257E-1	9.974739E-1	1.004793E+0	1.024648E+0	1.010513E+0	1.007397E+0	9.835645E-1	9.696159E-1	1.027564E+0	1.001497E+0	9.601093E-1	1.003236E+0	1.024580E+0	9.922889E-1	1.017161E+0	9.759587E-1	9.886823E-1	9.958483E-1	1.019748E+0	9.923182E-1	1.051566E+0	1.009955E+0	1.003878E+0	9.698792E-1	1.020615E+0	9.788463E-1	9.750593E-1	1.003603E+0	1.002473E+0	1.020469E+0	9.706672E-1	9.743132E-1	1.018619E+0	1.004973E+0	1.016293E+0	1.006785E+0	9.768857E-1	1.039164E+0	1.015649E+0	9.944551E-1	9.816952E-1	9.670214E-1	9.613439E-1	9.655162E-1	1.002836E+0	9.901740E-1	1.000125E+0	9.530286E-1	9.768362E-1	1.021071E+0	9.818917E-1	9.735729E-1	1.004327E+0	1.021093E+0	1.046473E+0	9.771196E-1	1.018651E+0	9.987484E-1	1.009790E+0	9.879093E-1	1.017984E+0	1.028592E+0	1.010920E+0	9.546187E-1	9.759622E-1	1.018879E+0	1.003495E+0	9.902186E-1	1.021689E+0	9.418503E-1	1.011314E+0	9.886813E-1	1.032293E+0	1.055839E+0	1.005332E+0	1.012411E+0	1.000449E+0	1.027217E+0	1.018967E+0	9.885015E-1	1.009725E+0	1.018342E+0	9.990587E-1	9.997547E-1	9.951238E-1	1.024335E+0	1.000400E+0	1.007109E+0	1.006605E+0	1.024199E+0	9.826306E-1	1.005219E+0	1.027300E+0	1.023537E+0	9.983952E-1	1.031699E+0	1.015451E+0	9.871710E-1	1.016103E+0	9.917869E-1	9.819679E-1	1.015303E+0	1.002800E+0	9.832898E-1	9.862298E-1	9.862506E-1	1.058213E+0	1.000318E+0	9.727994E-1	1.022789E+0	1.001641E+0	1.000566E+0	1.006229E+0	9.665085E-1	1.019526E+0	1.012754E+0	9.965546E-1	9.803367E-1	1.005325E+0	1.058487E+0
5.580230E+2	1.010388E+0	1.029760E+0	9.754626E-1	1.031530E+0	9.894811E-1	1.025157E+0	9.825602E-1	9.979737E-1	1.004989E+0	9.994084E-1	1.004576E+0	1.047290E+0	1.009709E+0	1.008238E+0	1.023406E+0	1.046172E+0	1.064082E+0	1.017275E+0	9.944341E-1	1.008788E+0	1.066099E+0	1.016404E+0	1.032016E+0	1.017580E+0	9.772071E-1	9.830370E-1	1.010260E+0	1.025200E+0	1.035335E+0	1.015947E+0	9.849172E-1	1.024278E+0	1.013237E+0	1.024440E+0	1.037406E+0	1.028149E+0	9.994706E-1	9.797769E-1	1.012310E+0	1.035779E+0	1.023134E+0	1.009384E+0	1.024971E+0	1.026514E+0	1.031431E+0	9.771117E-1	9.867221E-1	1.009376E+0	9.806079E-1	9.855420E-1	1.055429E+0	9.941943E-1	1.033757E+0	9.977951E-1	1.018293E+0	1.026972E+0	1.004011E+0	9.864775E-1	1.029084E+0	9.968635E-1	1.030802E+0	1.027589E+0	9.907251E-1	1.050504E+0	1.009175E+0	1.004554E+0	1.055173E+0	1.022721E+0	1.044763E+0	9.780745E-1	1.006990E+0	9.884264E-1	1.038564E+0	9.992605E-1	1.001744E+0	9.870930E-1	1.023939E+0	9.788974E-1	9.984057E-1	1.019031E+0	9.883023E-1	1.013325E+0	1.012884E+0	1.016543E+0	9.835779E-1	1.033377E+0	1.031180E+0	1.001804E+0	9.835710E-1	1.007619E+0	1.017379E+0	1.035881E+0	1.072494E+0	1.016960E+0	9.611533E-1	9.469833E-1	9.961809E-1	1.040012E+0	1.034193E+0	1.048677E+0	9.997175E-1	1.008692E+0	1.009413E+0	1.027504E+0	1.025191E+0	1.014586E+0	1.012658E+0	1.007108E+0	1.018283E+0	1.034976E+0	9.977532E-1	1.022508E+0	1.020700E+0	1.025529E+0	1.048128E+0	1.002302E+0	1.030756E+0	1.001530E+0	1.002409E+0	1.003949E+0	9.995368E-1	1.042961E+0	9.932293E-1	1.014498E+0	1.000655E+0	1.045693E+0	1.019797E+0	9.916449E-1	9.919481E-1	9.957615E-1	1.028316E+0	1.049293E+0	9.802571E-1	1.027454E+0	9.897302E-1	1.049391E+0	9.703704E-1	1.010877E+0	9.955193E-1	1.037729E+0	9.835514E-1	9.826677E-1	1.012288E+0	1.037407E+0	1.007146E+0	1.055765E+0	9.842965E-1	9.739914E-1	1.028353E+0	1.019967E+0	1.047002E+0	1.042161E+0	1.061395E+0	1.036113E+0	1.020521E+0	9.986930E-1	1.026876E+0	1.003853E+0	1.020076E+0	1.013419E+0	1.005406E+0	1.037928E+0	1.017647E+0	1.042212E+0	9.949510E-1	1.050942E+0	9.737051E-1	1.024245E+0	1.015780E+0	9.799847E-1
5.585160E+2	9.941279E-1	9.936174E-1	9.950624E-1	1.013089E+0	9.887670E-1	1.009900E+0	9.957917E-1	1.004081E+0	9.963700E-1	1.026307E+0	1.042804E+0	1.009279E+0	1.053070E+0	9.539484E-1	9.949793E-1	9.783354E-1	1.015742E+0	1.061546E+0	1.000715E+0	9.992468E-1	9.910040E-1	1.008728E+0	9.862878E-1	9.959884E-1	9.902926E-1	1.014908E+0	9.812653E-1	9.586239E-1	9.884714E-1	9.906380E-1	1.014266E+0	1.012601E+0	9.658201E-1	1.001978E+0	9.967694E-1	9.842143E-1	9.923705E-1	1.014843E+0	1.008087E+0	1.008479E+0	9.613465E-1	1.003803E+0	1.015851E+0	9.909448E-1	1.045750E+0	9.945373E-1	9.990574E-1	9.815740E-1	1.029925E+0	9.898231E-1	1.007837E+0	9.956040E-1	9.965229E-1	1.004766E+0	9.977271E-1	1.024541E+0	1.034140E+0	1.018042E+0	9.811734E-1	1.033439E+0	1.033915E+0	9.869087E-1	9.910277E-1	1.020064E+0	9.717471E-1	1.003672E+0	9.658033E-1	9.999118E-1	9.889145E-1	1.017394E+0	9.369615E-1	9.970128E-1	1.014881E+0	1.026481E+0	9.941894E-1	1.011921E+0	1.010168E+0	9.881075E-1	9.753412E-1	9.956072E-1	1.002362E+0	9.848878E-1	9.869299E-1	1.003930E+0	1.019067E+0	1.016756E+0	9.964563E-1	9.818397E-1	1.028227E+0	1.024287E+0	1.007794E+0	9.776802E-1	1.011869E+0	9.968516E-1	9.887560E-1	1.012335E+0	1.041362E+0	1.033650E+0	1.017997E+0	1.013815E+0	1.016830E+0	9.851138E-1	9.696511E-1	9.641654E-1	9.890453E-1	1.022176E+0	1.002379E+0	1.009853E+0	1.001449E+0	9.468286E-1	1.019029E+0	1.023193E+0	1.035560E+0	9.909903E-1	9.994818E-1	1.010872E+0	1.031353E+0	9.997277E-1	9.829334E-1	1.009995E+0	1.017463E+0	9.787926E-1	1.006206E+0	1.018380E+0	1.035256E+0	1.016113E+0	1.020964E+0	9.780329E-1	1.039394E+0	1.033105E+0	1.006073E+0	1.000446E+0	1.006833E+0	1.006504E+0	9.837875E-1	9.683179E-1	9.706839E-1	1.035668E+0	9.982250E-1	9.984161E-1	1.009220E+0	1.013771E+0	9.653503E-1	1.005743E+0	1.016724E+0	1.036108E+0	9.937860E-1	9.879890E-1	1.000047E+0	9.599605E-1	1.019469E+0	9.753816E-1	9.850693E-1	1.012687E+0	9.955461E-1	1.025120E+0	9.626523E-1	1.008198E+0	9.602471E-1	9.964413E-1	1.049067E+0	9.686317E-1	1.010491E+0	9.730771E-1	1.005602E+0	9.785559E-1	9.850201E-1	1.002207E+0	9.809346E-1	1.063822E+0
5.590100E+2	1.034813E+0	1.023919E+0	1.006540E+0	9.874093E-1	9.659679E-1	9.961502E-1	1.004490E+0	9.817858E-1	9.638611E-1	9.982430E-1	9.990652E-1	9.677784E-1	9.878671E-1	9.567372E-1	1.025517E+0	1.022507E+0	1.024369E+0	9.818269E-1	1.040961E+0	9.858882E-1	9.800652E-1	1.010045E+0	1.028856E+0	9.721506E-1	9.852381E-1	1.003081E+0	1.011907E+0	1.007983E+0	1.000808E+0	9.664136E-1	9.987097E-1	9.875065E-1	9.838087E-1	1.015075E+0	9.895379E-1	9.706732E-1	1.011854E+0	1.001711E+0	9.955184E-1	1.008916E+0	9.778127E-1	9.974936E-1	9.925505E-1	9.787154E-1	9.359071E-1	1.010409E+0	9.953501E-1	9.882025E-1	9.496905E-1	1.042887E+0	1.001455E+0	1.036035E+0	9.308832E-1	9.899444E-1	9.276650E-1	9.900571E-1	9.766143E-1	1.006678E+0	9.931218E-1	1.006986E+0	9.980449E-1	9.854637E-1	9.941928E-1	1.008368E+0	9.757699E-1	1.000148E+0	9.975169E-1	9.392840E-1	9.509322E-1	9.746988E-1	1.021764E+0	1.011161E+0	1.019447E+0	1.000653E+0	1.010416E+0	1.042402E+0	1.015501E+0	1.004381E+0	9.852064E-1	9.543949E-1	9.965435E-1	9.790700E-1	1.027075E+0	9.501304E-1	9.739384E-1	9.724336E-1	9.981141E-1	1.010131E+0	1.016034E+0	9.569172E-1	1.021682E+0	9.732317E-1	9.866549E-1	1.019063E+0	9.867901E-1	1.033797E+0	1.011024E+0	1.003766E+0	1.034235E+0	9.807018E-1	1.025267E+0	1.006593E+0	9.922747E-1	9.629971E-1	1.034799E+0	9.920770E-1	9.953251E-1	1.034872E+0	1.032047E+0	1.000871E+0	1.002358E+0	1.006531E+0	9.939256E-1	9.887784E-1	9.863794E-1	9.813510E-1	9.646378E-1	1.002127E+0	9.950138E-1	9.946863E-1	1.009574E+0	9.871687E-1	9.692149E-1	9.649826E-1	9.924919E-1	9.759889E-1	1.006078E+0	1.030129E+0	9.660020E-1	9.775084E-1	1.007426E+0	9.975520E-1	9.769457E-1	9.678194E-1	1.015888E+0	9.680099E-1	1.001620E+0	1.015614E+0	9.778045E-1	9.794803E-1	1.008387E+0	1.011887E+0	9.857817E-1	1.000387E+0	9.778382E-1	9.825771E-1	1.002719E+0	1.011227E+0	1.004766E+0	9.935471E-1	9.690139E-1	9.814975E-1	1.020005E+0	1.005372E+0	1.002427E+0	1.008380E+0	1.015263E+0	1.003046E+0	1.017793E+0	9.869841E-1	1.004658E+0	9.692271E-1	9.793166E-1	9.729416E-1	1.006787E+0	9.931142E-1	9.650916E-1	1.014933E+0	1.013390E+0	9.725824E-1
5.595390E+2	9.852241E-1	9.776107E-1	9.718539E-1	9.699766E-1	1.006371E+0	1.011142E+0	1.004554E+0	9.976159E-1	9.690471E-1	9.668175E-1	9.506020E-1	9.671530E-1	9.994963E-1	9.883639E-1	9.977193E-1	9.993838E-1	9.899967E-1	9.591597E-1	9.515488E-1	9.971333E-1	9.655761E-1	1.020094E+0	9.826241E-1	9.849993E-1	1.004191E+0	9.497505E-1	9.451012E-1	1.005501E+0	9.452416E-1	1.057172E+0	9.881307E-1	9.873295E-1	1.012820E+0	9.969256E-1	1.004656E+0	1.025179E+0	1.000784E+0	9.726177E-1	9.956325E-1	9.735959E-1	1.014598E+0	9.680575E-1	9.946063E-1	1.002368E+0	9.940443E-1	1.028866E+0	9.780623E-1	9.972666E-1	9.878175E-1	9.780215E-1	1.000066E+0	9.933011E-1	9.842496E-1	9.712744E-1	9.899747E-1	1.002885E+0	9.543363E-1	9.684431E-1	1.009071E+0	1.000796E+0	9.987872E-1	1.018278E+0	1.028112E+0	9.600792E-1	1.009213E+0	1.029413E+0	1.004578E+0	9.820144E-1	9.774780E-1	9.913730E-1	1.012524E+0	1.012422E+0	9.712709E-1	9.869857E-1	9.705117E-1	9.926433E-1	9.920736E-1	1.014908E+0	1.001500E+0	1.010433E+0	1.008931E+0	9.611983E-1	9.862301E-1	1.022157E+0	1.022836E+0	9.630731E-1	1.001297E+0	9.867226E-1	9.989032E-1	9.798423E-1	1.005879E+0	1.027035E+0	9.799925E-1	1.040695E+0	1.054783E+0	1.022363E+0	1.002650E+0	1.003048E+0	9.645504E-1	9.750958E-1	1.008534E+0	1.016916E+0	1.011686E+0	9.962656E-1	1.010255E+0	1.014381E+0	9.725442E-1	1.001972E+0	9.797353E-1	1.016108E+0	9.843364E-1	9.935822E-1	1.001444E+0	1.006476E+0	9.900179E-1	1.009184E+0	9.402620E-1	9.890170E-1	1.018716E+0	9.856454E-1	9.820652E-1	9.622702E-1	1.017909E+0	1.009772E+0	9.729361E-1	9.757777E-1	9.657241E-1	1.025480E+0	1.015881E+0	9.920012E-1	9.828215E-1	9.708089E-1	1.005723E+0	9.819916E-1	1.013890E+0	1.027040E+0	9.978403E-1	9.762314E-1	9.999143E-1	9.798227E-1	9.956618E-1	9.798576E-1	9.980388E-1	9.931786E-1	1.008954E+0	9.856567E-1	1.004532E+0	9.893232E-1	9.474495E-1	9.930323E-1	9.917874E-1	9.928031E-1	9.501061E-1	9.610162E-1	9.822326E-1	1.013259E+0	9.874135E-1	9.828065E-1	9.990200E-1	9.829255E-1	9.762079E-1	9.982059E-1	9.958085E-1	1.032370E+0	9.949067E-1	9.953094E-1	9.758952E-1	1.019901E+0	1.008497E+0	1.069767E+0
5.600180E+2	1.014920E+0	9.943963E-1	1.000534E+0	1.013478E+0	1.003388E+0	9.696676E-1	9.832857E-1	1.023844E+0	1.041670E+0	9.824017E-1	9.918859E-1	9.983364E-1	1.001958E+0	1.025924E+0	1.026243E+0	9.578727E-1	9.691090E-1	9.983007E-1	9.787511E-1	1.030423E+0	1.007951E+0	9.835153E-1	1.002772E+0	9.835143E-1	9.860290E-1	1.023457E+0	1.020473E+0	1.003631E+0	9.668477E-1	9.981323E-1	1.001444E+0	9.763478E-1	1.001349E+0	9.767646E-1	9.737449E-1	1.018266E+0	1.006067E+0	1.048216E+0	1.002353E+0	9.682627E-1	9.830775E-1	1.010367E+0	9.948725E-1	1.023771E+0	1.011205E+0	9.777372E-1	1.013484E+0	9.831438E-1	9.897725E-1	9.838519E-1	9.835628E-1	9.659206E-1	1.008229E+0	1.026845E+0	1.003055E+0	1.021021E+0	1.036138E+0	1.032653E+0	1.030367E+0	9.805082E-1	9.956252E-1	9.770571E-1	9.896878E-1	1.004038E+0	1.006474E+0	1.030655E+0	1.019689E+0	1.042151E+0	9.872627E-1	9.807228E-1	9.777766E-1	1.024957E+0	9.731796E-1	9.796742E-1	9.976487E-1	9.940904E-1	1.035647E+0	1.014204E+0	9.750881E-1	9.893634E-1	1.031207E+0	1.037432E+0	1.005594E+0	1.020195E+0	9.888242E-1	1.008193E+0	9.562869E-1	9.824537E-1	9.701183E-1	1.047232E+0	1.001289E+0	9.970865E-1	1.003807E+0	9.722377E-1	1.006604E+0	1.017664E+0	9.902834E-1	1.013396E+0	9.830743E-1	9.588485E-1	9.791620E-1	1.031433E+0	1.018558E+0	1.031122E+0	9.486157E-1	9.995490E-1	1.012041E+0	9.851254E-1	9.847324E-1	1.038388E+0	1.014353E+0	9.874651E-1	9.534755E-1	1.026974E+0	9.708986E-1	1.056895E+0	9.693258E-1	1.032770E+0	9.956584E-1	1.043930E+0	9.840830E-1	1.008592E+0	9.766020E-1	9.914259E-1	1.002835E+0	9.910522E-1	9.889997E-1	9.837517E-1	9.784991E-1	9.977853E-1	9.812644E-1	1.041268E+0	1.005618E+0	9.878111E-1	9.986268E-1	9.894046E-1	1.026555E+0	1.032687E+0	9.794897E-1	9.807225E-1	1.014922E+0	9.878081E-1	1.018832E+0	9.784511E-1	9.947021E-1	9.282834E-1	9.957107E-1	1.013926E+0	9.896235E-1	1.059062E+0	1.013349E+0	1.009856E+0	1.015722E+0	9.525741E-1	1.025521E+0	1.014444E+0	1.027556E+0	1.032325E+0	1.002694E+0	1.005425E+0	1.006013E+0	9.768106E-1	1.019190E+0	9.906819E-1	9.859389E-1	1.000923E+0	1.031523E+0	1.047096E+0	9.406356E-1	9.871380E-1
5.605150E+2	1.016485E+0	9.784551E-1	1.031933E+0	9.973116E-1	1.014817E+0	1.009300E+0	9.996193E-1	9.998869E-1	1.017150E+0	1.052856E+0	1.005600E+0	1.016029E+0	9.606137E-1	1.021482E+0	9.912368E-1	1.018666E+0	9.869540E-1	9.985572E-1	1.020374E+0	9.827380E-1	1.015022E+0	1.033311E+0	1.026561E+0	9.892802E-1	1.027319E+0	1.006134E+0	1.034057E+0	1.030838E+0	1.006328E+0	1.003616E+0	1.070540E+0	1.016669E+0	1.013693E+0	1.027528E+0	9.988443E-1	9.997352E-1	9.822117E-1	1.015753E+0	1.008030E+0	1.021412E+0	1.038224E+0	9.885489E-1	1.001937E+0	1.029841E+0	9.924061E-1	1.018492E+0	1.032618E+0	1.022460E+0	1.049189E+0	9.867549E-1	9.767323E-1	1.012082E+0	1.003500E+0	1.022192E+0	1.023955E+0	1.008966E+0	1.004254E+0	1.007192E+0	1.012420E+0	1.008227E+0	1.008570E+0	1.019011E+0	1.000525E+0	9.845181E-1	1.029775E+0	9.574452E-1	1.025578E+0	1.025147E+0	1.054890E+0	1.022202E+0	1.005524E+0	9.792715E-1	9.748076E-1	1.013245E+0	1.011683E+0	1.003517E+0	9.836178E-1	1.036219E+0	1.063948E+0	1.022123E+0	9.765321E-1	1.018796E+0	1.015083E+0	1.051469E+0	1.006527E+0	1.040198E+0	1.077077E+0	1.039880E+0	1.038877E+0	9.946145E-1	9.825851E-1	1.020474E+0	1.009787E+0	9.972333E-1	1.026824E+0	1.024897E+0	9.962212E-1	1.017022E+0	1.033736E+0	1.029917E+0	1.007999E+0	1.019296E+0	1.005776E+0	1.007333E+0	9.466564E-1	9.903084E-1	1.017076E+0	1.004595E+0	1.005753E+0	1.019972E+0	9.991693E-1	9.924655E-1	1.009452E+0	9.929995E-1	1.009640E+0	9.986885E-1	1.043119E+0	1.023518E+0	1.009003E+0	1.032148E+0	1.005311E+0	9.937804E-1	1.046179E+0	1.031069E+0	9.852291E-1	9.989195E-1	9.793410E-1	1.025552E+0	1.033671E+0	1.003142E+0	9.777326E-1	9.900655E-1	1.031416E+0	9.860801E-1	1.006154E+0	9.843017E-1	1.032204E+0	9.782711E-1	1.003387E+0	9.816400E-1	9.924030E-1	1.044781E+0	9.647375E-1	1.020819E+0	1.036529E+0	9.924281E-1	9.896446E-1	9.891802E-1	9.982677E-1	1.025240E+0	9.995678E-1	1.011780E+0	1.038538E+0	1.023601E+0	9.944443E-1	9.594897E-1	9.513309E-1	9.670697E-1	1.067612E+0	9.990385E-1	9.607000E-1	1.009595E+0	1.010760E+0	1.045033E+0	1.015841E+0	1.022560E+0	9.877200E-1	9.721502E-1	9.978146E-1	9.413359E-1
5.609950E+2	1.012662E+0	1.010547E+0	9.851709E-1	1.012486E+0	1.008465E+0	1.032912E+0	1.022071E+0	1.021919E+0	9.891049E-1	1.022312E+0	1.029769E+0	1.001143E+0	1.020857E+0	1.053178E+0	9.612862E-1	1.005581E+0	9.238801E-1	1.041438E+0	1.018962E+0	9.790327E-1	1.023219E+0	1.021372E+0	9.580382E-1	1.040904E+0	1.012580E+0	1.033946E+0	9.664723E-1	1.025501E+0	1.045980E+0	1.020433E+0	1.020251E+0	1.048850E+0	1.014312E+0	1.025724E+0	1.028488E+0	1.017442E+0	1.030756E+0	9.662132E-1	1.002933E+0	1.001557E+0	9.927337E-1	1.021144E+0	1.017499E+0	9.859264E-1	9.750876E-1	1.022821E+0	1.016770E+0	1.000902E+0	1.005783E+0	1.020132E+0	1.017212E+0	9.960837E-1	1.059690E+0	9.577556E-1	1.046381E+0	9.661835E-1	1.014028E+0	9.934970E-1	9.946891E-1	1.023303E+0	9.962718E-1	9.978829E-1	1.017846E+0	1.031372E+0	1.012546E+0	1.021046E+0	9.769060E-1	1.010128E+0	1.035462E+0	1.036972E+0	1.025213E+0	1.002038E+0	1.017287E+0	1.016952E+0	1.002007E+0	1.006233E+0	1.033141E+0	1.002435E+0	1.020527E+0	1.030270E+0	1.019660E+0	1.015859E+0	9.761284E-1	9.940359E-1	1.022638E+0	1.000258E+0	1.007633E+0	1.017020E+0	9.748484E-1	1.012305E+0	1.016185E+0	1.042997E+0	9.965249E-1	1.016104E+0	9.853625E-1	9.833765E-1	9.868133E-1	9.995442E-1	9.894075E-1	1.003861E+0	1.022147E+0	1.016000E+0	9.996725E-1	1.020412E+0	1.020547E+0	1.013799E+0	1.036790E+0	9.831613E-1	9.939972E-1	9.916287E-1	9.443074E-1	9.872160E-1	1.019448E+0	1.030846E+0	1.010712E+0	9.613531E-1	1.045700E+0	1.004712E+0	1.007969E+0	1.026921E+0	1.008152E+0	1.077500E+0	9.707174E-1	1.001950E+0	1.007522E+0	1.027534E+0	1.042172E+0	9.962178E-1	9.964411E-1	1.028969E+0	1.030907E+0	9.803864E-1	1.022018E+0	1.042268E+0	1.013830E+0	9.904008E-1	1.001923E+0	9.975210E-1	1.047846E+0	1.034955E+0	1.002038E+0	1.027279E+0	1.021270E+0	9.853499E-1	1.000117E+0	9.902204E-1	1.056056E+0	1.070113E+0	1.002466E+0	1.009286E+0	9.788155E-1	1.017474E+0	9.878795E-1	1.004709E+0	1.026529E+0	1.019897E+0	9.955695E-1	9.906882E-1	1.028952E+0	1.016755E+0	1.013838E+0	1.034146E+0	1.027232E+0	1.009821E+0	9.900779E-1	1.018109E+0	1.097175E+0	9.982891E-1	9.904532E-1	1.005507E+0
