Photon Energy (eV)	#1	#2	#3	#4	#5	#6	#7	#8	#9	#10	#11	#12	#13	#14	#15	#16	#17	#18	#19	#20	#21	#22	#23	#24	#25	#26	#27	#28	#29	#30	#31	#32	#33	#34	#35	#36	#37	#38	#39	#40	#41	#42	#43	#44	#45	#46	#47	#48	#49	#50	#51	#52	#53	#54	#55	#56	#57	#58	#59	#60	#61	#62	#63	#64	#65	#66	#67	#68	#69	#70	#71	#72	#73	#74	#75	#76	#77	#78	#79	#80	#81	#82	#83	#84	#85	#86	#87	#88	#89	#90	#91	#92	#93	#94	#95	#96	#97	#98	#99	#100	#101	#102	#103	#104	#105	#106	#107	#108	#109	#110	#111	#112	#113	#114	#115	#116	#117	#118	#119	#120	#121	#122	#123	#124	#125	#126	#127	#128	#129	#130	#131	#132	#133	#134	#135	#136	#137	#138	#139	#140	#141	#142	#143	#144	#145	#146	#147	#148	#149	#150	#151	#152	#153	#154	#155	#156	#157	#158	#159	#160	#161	#162	#163	#164	#165	#166	#167	#168	#169	#170	#171	
5.300110E+2	-4.522189E-3	-5.851288E-3	-2.529389E-3	-9.413606E-3	-1.034774E-2	-6.870403E-3	-9.868411E-3	-8.372456E-3	-3.565618E-3	-7.655163E-3	-2.620608E-3	-9.204718E-3	2.796495E-4	2.445244E-3	-1.804039E-3	-2.865904E-3	-8.114787E-3	-8.376991E-3	-4.910436E-4	1.751591E-3	-8.854834E-3	3.088555E-3	-9.767368E-3	-8.448792E-3	-3.850785E-3	-1.260246E-2	-2.854673E-3	-1.410067E-2	-1.619010E-3	-2.314324E-3	-9.769159E-3	-3.151757E-3	2.740001E-3	-7.924374E-3	6.624187E-4	-8.132989E-3	-6.583095E-3	-1.323657E-3	2.484831E-3	-9.919636E-3	1.322848E-4	-3.280379E-3	-8.831477E-3	-1.956818E-3	-9.107312E-3	-1.796652E-3	-6.065089E-3	-5.650197E-3	-5.657895E-3	2.097371E-3	-2.360228E-3	-2.283440E-3	-5.072623E-3	-6.678715E-3	-9.832256E-3	3.800462E-3	-1.107067E-2	-1.337608E-2	-6.655083E-3	-1.778751E-3	-9.241658E-3	-9.267004E-3	-8.982688E-3	-9.109383E-3	-6.963932E-3	-4.656060E-3	-2.012513E-3	-3.362641E-3	-6.109981E-3	-1.418400E-3	-8.358215E-3	-1.096260E-2	-9.856437E-3	2.014155E-3	-6.212404E-3	-1.032699E-3	-9.411400E-3	-1.222845E-2	-1.162515E-2	-7.395679E-3	-7.079643E-3	-8.800527E-3	-9.514934E-3	-1.073393E-2	-5.265104E-3	-3.925061E-3	-1.971004E-3	-6.591912E-3	-6.529489E-4	-1.534453E-2	-1.472488E-2	7.334424E-5	-4.269264E-3	-5.388505E-3	-4.716307E-3	-2.800073E-3	3.287241E-3	-8.893348E-3	-6.771588E-3	-9.105114E-3	8.356287E-4	-1.167344E-2	-6.766934E-3	-8.815685E-3	-5.838051E-3	-1.480728E-2	-1.980754E-2	-1.195534E-2	-1.034562E-2	-4.614274E-3	-8.643272E-3	8.248488E-4	3.004454E-3	-3.889117E-3	-1.531031E-2	-1.354455E-4	-6.829226E-3	-1.021852E-2	-8.052913E-3	-7.402363E-3	-3.902626E-3	-4.485805E-3	-8.673033E-3	-7.879968E-3	-9.193764E-3	-6.378129E-3	-7.645405E-3	4.233208E-3	-8.951063E-3	-7.020120E-3	-7.599606E-3	-8.759895E-3	-2.685948E-3	-8.777198E-3	-1.429049E-3	-7.079258E-3	-9.862617E-3	-3.026584E-3	-6.045250E-3	-1.452326E-3	-7.340475E-3	-8.260522E-3	-4.919363E-3	-8.420999E-3	-1.358539E-3	-7.139848E-3	-7.573988E-3	4.054551E-4	-1.376013E-2	-4.550742E-3	-7.017635E-3	-5.621987E-3	-4.258431E-3	-7.328823E-3	-1.538806E-3	-4.576401E-3	-3.585146E-3	2.990507E-4	-1.177536E-2	-3.033861E-3	-1.406114E-2	4.000734E-4	-1.550737E-2	2.831483E-4	-1.491038E-2	4.015799E-3	-7.886000E-3	1.277562E-3	-1.086081E-2	-9.016269E-3	-1.555013E-2
5.305180E+2	-5.189789E-3	-3.992374E-3	-4.643595E-3	-3.618214E-3	-7.248236E-3	-6.613380E-3	-4.188287E-3	-1.055435E-2	-6.721550E-3	-2.941655E-3	5.110984E-4	-5.636296E-3	-6.317371E-3	-7.691018E-3	-1.062602E-3	-1.317751E-2	-3.565745E-3	1.966846E-4	-8.996484E-3	-1.353077E-2	-1.246003E-4	-9.386332E-3	-3.203073E-3	-2.411243E-3	-2.545536E-3	1.180600E-3	-5.516010E-3	-1.547553E-3	-8.758051E-4	-2.460349E-3	-4.466974E-3	-7.245530E-3	-3.692638E-4	8.686753E-3	-6.958544E-3	-9.423024E-3	-1.721821E-4	-3.677791E-3	2.949721E-3	-9.665167E-3	-6.581930E-4	-1.451871E-3	-8.583695E-3	-9.353533E-3	-6.188913E-3	-5.444950E-3	-1.973415E-3	-1.256534E-2	-5.913612E-3	-1.006729E-2	5.687214E-4	-5.040439E-3	-1.234553E-2	1.749871E-3	2.926340E-3	2.120036E-4	-7.231157E-3	-4.930578E-3	-1.410985E-3	-4.569499E-3	-6.186165E-3	-4.063912E-3	-5.077647E-3	-5.664421E-3	-7.601367E-3	-8.379944E-3	-6.507863E-3	-5.174986E-3	-9.557720E-4	-2.494124E-3	-6.447487E-3	-6.848207E-3	-6.868166E-4	-1.977085E-3	2.768453E-5	4.665029E-3	-3.574651E-3	5.250242E-4	1.352106E-3	5.773026E-3	-9.024235E-3	-7.448638E-3	2.843221E-3	-7.111931E-3	-7.446592E-3	6.789511E-3	-3.267920E-3	-2.958965E-3	-7.713720E-3	-4.432082E-3	3.433645E-4	-8.439701E-3	-7.486262E-3	-5.128424E-3	-4.427384E-3	1.860155E-4	-7.537861E-3	-6.412561E-3	-1.336128E-3	-5.178618E-3	-6.490175E-3	-6.510282E-3	-3.057793E-3	-4.629641E-3	-4.607188E-3	-1.517961E-3	3.463257E-3	-6.344491E-3	9.760862E-6	-4.333761E-3	1.386418E-3	-1.187409E-2	-1.324753E-3	-3.047516E-3	1.204900E-3	-1.182560E-2	-9.314455E-4	8.372939E-5	1.414546E-3	-1.157889E-2	-3.628096E-3	-4.766207E-3	2.853791E-3	-4.292516E-3	3.448096E-3	-4.632004E-3	9.812055E-4	-1.050124E-2	-3.593371E-3	-7.941115E-3	-2.143620E-3	-6.365742E-3	-6.085207E-3	-6.883681E-3	5.383512E-3	6.651979E-3	-4.995668E-3	-1.624642E-3	5.247828E-3	-9.215221E-3	-4.584646E-3	-7.980472E-3	1.050542E-3	-4.157991E-3	-2.134662E-3	-4.542009E-3	-1.786130E-2	-1.201254E-2	-1.198168E-3	-1.462272E-2	-4.506546E-3	-1.000897E-2	-2.515688E-3	-5.391937E-3	-3.416611E-3	-3.609015E-4	-7.850034E-3	-4.748975E-3	-7.545475E-3	-9.387492E-3	2.333940E-3	-1.006611E-2	-9.345491E-4	2.703754E-3	-5.832358E-4	-1.331255E-2	-6.677303E-3	3.552857E-3	-6.173946E-3	-2.291397E-3	3.526040E-4
5.310150E+2	-5.970249E-3	-4.327416E-3	-1.046672E-2	-7.374501E-3	1.541409E-3	-5.513864E-3	-4.572622E-3	4.567405E-3	-6.067784E-3	-8.270690E-3	-6.460130E-3	2.310421E-3	-5.693627E-3	-6.107844E-3	-9.638646E-3	4.583139E-3	9.434471E-4	-4.084417E-3	-6.736548E-3	-3.536596E-3	-7.913517E-3	-4.573017E-3	-8.227851E-3	-1.043778E-2	-4.925445E-3	-1.101380E-2	-4.824121E-3	2.242506E-3	-3.046298E-3	-1.013897E-2	-3.822742E-3	-4.881159E-3	-2.632801E-3	-3.369112E-3	-7.285229E-3	-1.561952E-3	-6.579062E-3	-6.851035E-3	-7.865253E-3	-7.651449E-3	-6.496745E-3	-7.497275E-4	6.031134E-3	-6.142458E-3	-7.085002E-3	-1.162743E-2	-7.576342E-3	2.899345E-3	-6.798007E-3	-7.190683E-3	-3.286358E-3	-1.264789E-3	-1.259978E-4	-5.286395E-3	-5.462321E-3	-1.439943E-2	4.795087E-3	3.203211E-3	-6.035281E-4	-9.028503E-3	1.077314E-3	-7.145314E-4	-1.842743E-4	-4.565202E-3	-4.241355E-3	-3.819706E-3	-1.083695E-3	-8.677844E-3	-6.606942E-3	-4.207018E-3	-1.674169E-3	-4.219529E-3	3.538650E-3	-1.701777E-3	-3.483873E-3	-1.077057E-2	4.798463E-3	-8.935910E-3	2.597301E-3	-2.350494E-3	-1.219547E-2	3.942710E-3	-6.837012E-3	-1.251790E-2	1.570500E-3	-7.162691E-3	-1.039401E-2	1.633842E-3	2.040914E-3	2.579225E-4	3.207518E-5	-7.221323E-3	-1.281399E-2	-2.311145E-3	3.034788E-3	-5.440263E-3	-5.894710E-3	-3.287441E-4	-1.096304E-2	-5.528185E-3	-6.815177E-3	-3.542010E-3	-6.312485E-3	-4.437732E-3	2.803847E-3	-3.501509E-3	-5.864333E-3	-2.381708E-3	-4.874578E-3	-9.921988E-3	-4.929370E-3	-2.370992E-3	-7.339664E-3	-4.550574E-3	-4.385436E-3	-7.996302E-3	-1.172912E-3	-5.038761E-3	-7.651981E-3	9.283447E-4	-1.207936E-2	1.723453E-3	-2.008005E-3	-7.547775E-4	-8.238394E-3	3.407934E-3	-8.261281E-3	-3.661685E-3	-4.406079E-3	-1.369424E-3	-6.589379E-3	-2.927851E-3	3.278392E-3	-3.946196E-3	-1.128501E-2	-7.191182E-3	-7.871296E-3	-5.903220E-3	-6.684906E-3	-5.288017E-3	-3.896610E-3	1.190047E-2	-1.227046E-2	-6.189185E-3	-3.346902E-4	-3.764457E-3	-1.067752E-2	-9.717323E-3	-6.431050E-3	-6.847559E-3	-3.175285E-3	-6.086151E-3	-3.302809E-3	-4.077261E-3	-5.946209E-3	9.241663E-3	-2.067596E-3	-7.976923E-3	-1.891770E-3	-4.752737E-3	-4.535716E-3	3.641317E-4	-3.922631E-3	-9.810856E-3	1.995970E-3	-1.309708E-2	-9.121042E-3	-1.525932E-2	8.922756E-3	-7.614703E-3	-9.183657E-3
5.315080E+2	3.844810E-3	-5.720885E-3	-1.196516E-4	6.876667E-3	-8.650588E-5	1.014131E-2	7.762285E-3	5.831316E-3	-1.954784E-3	4.296380E-4	7.444324E-6	-4.187800E-3	-2.265892E-3	-6.627210E-4	-6.701975E-3	3.105596E-3	3.150852E-3	-2.494196E-4	5.123531E-3	-6.983655E-3	2.824306E-3	-3.485220E-3	-7.727712E-4	4.874962E-3	7.120850E-3	2.683122E-3	-1.537568E-3	6.111618E-3	2.380313E-3	3.377345E-3	2.491911E-3	9.610187E-3	-3.981386E-3	-1.597317E-3	5.165421E-4	-2.956244E-3	7.032773E-3	1.166891E-4	-1.399784E-3	7.104768E-3	3.516757E-3	-1.049493E-3	-6.273173E-3	6.405700E-3	3.369355E-3	9.338953E-3	1.211898E-2	1.992207E-3	2.975105E-3	6.716351E-3	-5.758443E-3	2.578210E-3	2.424646E-3	-3.165243E-3	-3.160362E-3	1.185288E-3	-3.261326E-3	5.407298E-3	-2.610395E-3	7.289613E-3	3.240287E-3	-1.150274E-3	2.159639E-3	1.192754E-2	-1.249532E-3	4.478448E-3	2.396340E-3	4.843954E-4	-5.223937E-4	1.706804E-4	5.584283E-3	7.281431E-3	-2.770518E-3	-1.992578E-3	-6.092948E-3	-1.363526E-3	-2.755043E-3	1.413365E-3	-4.519723E-3	-1.615274E-3	1.436642E-3	-2.226327E-4	-1.737519E-3	6.992220E-3	1.310178E-3	-3.255729E-4	5.888470E-4	-1.552359E-3	-1.927073E-3	-5.411867E-3	-4.962602E-3	4.016675E-3	1.026238E-2	6.160533E-3	1.430006E-3	-7.965485E-3	2.728892E-3	8.868113E-3	-7.919690E-3	-5.108405E-6	2.456974E-4	2.509359E-3	7.606026E-3	2.828204E-3	4.217629E-3	-1.545894E-3	6.207366E-3	3.288840E-3	3.046163E-3	5.532073E-4	-1.989854E-3	-1.171990E-3	-1.404355E-3	2.864445E-3	-1.403493E-3	7.053248E-3	-1.283825E-3	1.468600E-2	8.271578E-3	2.710079E-3	1.404282E-3	-5.666386E-3	-5.809348E-3	4.559717E-3	-1.776852E-3	-5.252592E-4	3.935907E-4	-6.144088E-3	7.780460E-3	-4.233704E-3	-7.074420E-3	-1.174766E-3	1.219660E-3	9.689732E-3	-5.682893E-3	5.623480E-3	3.768713E-3	5.370888E-4	-1.496870E-3	6.284089E-3	-6.647529E-4	6.075985E-3	7.870129E-3	-2.331179E-3	-1.046169E-2	2.317198E-3	3.058594E-3	1.164172E-4	1.085605E-2	4.284364E-3	3.274582E-3	7.642626E-4	2.382330E-3	7.403482E-3	1.968736E-3	-3.822533E-4	-1.820449E-3	-3.372485E-3	-6.494727E-4	3.197585E-3	1.861557E-3	-8.677138E-3	-2.673159E-3	-2.744663E-5	1.799140E-3	4.655917E-3	1.019504E-2	1.364203E-3	1.852625E-3	1.363075E-2	1.942150E-2
5.320120E+2	9.577670E-3	8.128805E-3	7.718099E-3	1.022079E-2	7.631175E-3	-1.141264E-3	8.259349E-3	2.835231E-3	1.292730E-2	1.610607E-2	3.352049E-3	8.131757E-3	9.840493E-3	2.670622E-3	9.181302E-3	-1.182086E-3	6.598171E-4	1.646715E-4	3.460652E-3	1.120281E-2	1.137865E-2	6.356364E-3	9.189152E-3	8.255188E-3	4.469522E-3	8.666621E-3	2.527298E-3	3.425248E-3	5.668953E-3	2.326089E-3	3.380953E-3	-1.139054E-3	-6.775181E-5	1.602328E-3	1.064806E-2	1.212686E-2	2.782213E-4	8.824183E-3	-3.881059E-3	9.874983E-3	-9.768029E-4	6.678539E-3	7.303630E-3	-4.067938E-4	1.688561E-2	8.368982E-4	-1.705802E-4	2.383574E-3	6.671907E-3	2.807005E-4	3.103777E-3	2.004506E-3	9.181859E-3	9.092427E-3	4.663517E-3	6.306632E-4	9.734607E-3	2.527326E-3	9.584646E-3	5.132442E-3	7.033767E-3	7.646860E-3	9.004056E-3	2.592347E-4	9.371351E-3	9.006113E-4	-3.285591E-3	3.574822E-3	9.233744E-4	1.108215E-2	3.888987E-3	-6.861554E-4	6.692672E-3	1.372789E-3	1.097903E-2	2.943929E-3	5.002177E-3	4.780350E-3	9.176827E-4	1.656193E-3	9.249021E-3	4.599646E-3	9.401893E-4	5.774804E-3	-1.747863E-3	1.445577E-3	5.402318E-3	1.825639E-3	1.781442E-3	1.129647E-2	9.686234E-3	6.089209E-3	4.633003E-3	6.173002E-4	-5.458014E-3	2.550350E-3	5.211860E-3	1.922678E-3	3.836521E-3	1.237853E-2	1.055290E-2	9.874954E-3	2.834946E-3	2.787906E-3	-6.982716E-4	1.248239E-2	5.719585E-3	1.638516E-2	3.538899E-3	7.666418E-3	9.623831E-3	3.540721E-3	1.724271E-3	7.802476E-4	1.322433E-2	2.238907E-3	4.905362E-3	6.506391E-3	4.629271E-3	8.210573E-3	7.595090E-3	9.671539E-3	7.437618E-3	3.383645E-3	3.452096E-3	1.726689E-4	8.906630E-3	6.034817E-3	3.068143E-3	7.704560E-3	4.942342E-3	2.710535E-3	-2.509264E-3	3.559402E-3	2.927061E-3	2.048414E-3	7.959045E-3	3.218474E-3	1.995423E-3	-1.405497E-3	1.416605E-2	-3.524319E-3	4.702787E-4	1.398954E-2	1.342996E-2	3.545274E-3	9.629645E-3	1.307267E-2	-1.250443E-3	6.144754E-4	4.465836E-3	1.025973E-2	4.862705E-3	4.235259E-3	6.961940E-3	-1.045020E-2	5.373916E-3	1.361324E-3	9.444709E-3	8.603456E-3	1.007033E-2	8.629626E-3	4.869332E-3	2.627392E-3	2.248636E-3	8.036578E-3	4.641763E-3	7.125296E-3	9.034283E-4	6.343462E-4	1.339246E-2
5.325120E+2	2.259747E-3	1.176316E-2	1.004125E-2	3.308864E-3	8.509894E-3	9.997601E-3	2.607686E-3	5.692859E-3	5.382434E-3	2.331803E-3	5.210146E-3	8.586635E-3	4.156748E-3	9.345718E-3	1.002596E-2	9.536766E-3	6.926416E-3	1.234947E-2	7.639893E-3	1.109662E-2	2.689990E-3	7.999651E-3	1.278191E-2	8.167667E-3	-2.686056E-4	1.108592E-2	1.220507E-2	3.868856E-3	-2.508152E-3	9.210212E-3	1.218601E-2	6.807313E-3	4.311203E-3	2.601722E-3	2.416754E-3	9.947352E-3	6.023344E-3	2.911611E-3	7.711544E-3	1.025650E-2	4.482699E-3	-1.470683E-4	1.035358E-2	1.145390E-2	2.126257E-3	8.693185E-3	3.666441E-3	1.094041E-2	8.722502E-3	8.163548E-3	7.732531E-3	4.005953E-3	5.937645E-3	4.288055E-3	1.086508E-2	8.571016E-3	7.033463E-3	7.168819E-3	1.695346E-3	2.954699E-3	4.076455E-3	7.548861E-3	3.080915E-3	7.152228E-3	1.068484E-2	1.147665E-2	1.049332E-2	1.315625E-2	1.327171E-2	-3.133291E-3	7.006602E-3	1.543505E-2	3.082450E-3	2.284496E-3	4.782507E-3	5.557833E-3	5.940453E-3	1.444562E-2	1.127778E-2	3.932228E-3	1.761369E-2	7.929441E-3	1.430606E-2	1.759674E-2	1.157888E-2	3.178237E-3	9.641770E-3	7.643755E-3	6.471386E-3	1.363409E-2	9.625813E-3	5.481795E-3	9.674137E-3	6.050240E-3	1.013691E-2	1.346946E-2	2.204578E-3	4.843862E-3	2.315393E-2	7.438493E-3	1.671131E-3	9.341417E-3	5.696240E-3	1.226695E-2	4.122036E-3	8.890258E-3	1.028166E-2	1.007546E-3	8.625370E-3	1.065040E-2	4.552247E-3	1.105151E-2	5.340047E-3	7.842515E-3	6.670012E-3	1.066519E-2	5.312046E-3	-6.018843E-3	1.389499E-3	7.132256E-3	1.061071E-2	3.523407E-3	6.198977E-3	4.983899E-3	1.230882E-2	7.954790E-3	5.625259E-3	1.003899E-2	6.101910E-3	1.285980E-2	1.846468E-2	1.651772E-2	6.782366E-3	6.357942E-3	1.008638E-2	-5.343215E-5	1.100182E-2	6.798884E-3	6.983775E-3	1.107697E-2	2.320431E-3	1.788856E-3	7.798871E-3	7.109810E-3	8.596251E-4	9.583841E-3	2.342457E-2	8.135320E-3	1.178374E-2	2.112218E-2	6.959048E-3	1.069312E-2	2.831894E-3	5.159279E-3	1.970949E-3	6.528094E-3	9.949309E-3	1.443801E-2	1.241737E-2	5.373049E-3	4.331024E-3	9.349413E-3	1.816838E-2	4.224009E-3	9.449871E-3	9.701329E-3	8.847543E-3	1.939402E-3	5.355949E-3	4.657273E-3	-8.432771E-3
5.330180E+2	2.226683E-2	1.421679E-2	1.399038E-2	2.634766E-2	1.512769E-2	2.436142E-2	2.912561E-2	3.151584E-2	2.858968E-2	1.884259E-2	1.964406E-2	2.523233E-2	2.738007E-2	2.754126E-2	1.926216E-2	2.398851E-2	2.629958E-2	2.677716E-2	1.916081E-2	1.491484E-2	6.793465E-3	2.636534E-2	1.893113E-2	2.123175E-2	2.645494E-2	8.848304E-3	1.463633E-2	2.409706E-2	2.210456E-2	1.996333E-2	1.391631E-2	1.690950E-2	2.289581E-2	2.457337E-2	2.361525E-2	1.753672E-2	1.435951E-2	2.657992E-2	1.431726E-2	1.808876E-2	2.082000E-2	1.725347E-2	2.270978E-2	2.735133E-2	1.544267E-2	1.245445E-2	2.009791E-2	2.076736E-2	1.758672E-2	2.866143E-2	1.848970E-2	2.355056E-2	2.120558E-2	2.163988E-2	2.011098E-2	1.235526E-2	2.874920E-2	2.778533E-2	1.477474E-2	1.997191E-2	2.693693E-2	1.786489E-2	8.635880E-3	1.533910E-2	1.886264E-2	1.044323E-2	2.512525E-2	1.659909E-2	2.552122E-2	1.725416E-2	1.531203E-2	1.960084E-2	2.504929E-2	1.542422E-2	1.483749E-2	1.557960E-2	1.644788E-2	2.098301E-2	1.696453E-2	2.114161E-2	1.391853E-2	2.872693E-2	1.666448E-2	1.037855E-2	9.286573E-3	1.982891E-2	1.912565E-2	2.813503E-2	2.332511E-2	1.777017E-2	1.460076E-2	9.908930E-3	1.310852E-2	1.881442E-2	1.246179E-2	2.267338E-2	2.488221E-2	2.069244E-2	1.827483E-2	2.940775E-2	1.328289E-2	2.227372E-2	1.610967E-2	1.915281E-2	2.322244E-2	2.888108E-2	2.352801E-2	8.012493E-3	2.661934E-2	2.687775E-2	1.597574E-2	2.423342E-2	2.151161E-2	2.249305E-2	1.779192E-2	1.365895E-2	1.425259E-2	1.138325E-2	2.573419E-2	2.607408E-2	1.661132E-2	2.362894E-2	1.284528E-2	1.600862E-2	8.943912E-3	2.751155E-2	2.467428E-2	1.761136E-2	2.048089E-2	2.159157E-2	2.178567E-2	2.017792E-2	2.066599E-2	2.725666E-2	2.381797E-2	3.091390E-2	2.128013E-2	2.124295E-2	2.424643E-2	2.288645E-2	2.107485E-2	2.374258E-2	1.765188E-2	1.060381E-2	2.892691E-2	2.543466E-2	1.897898E-2	2.745063E-2	1.159785E-2	3.008525E-2	2.388556E-2	1.195815E-2	2.121948E-2	2.153158E-2	1.453163E-2	2.091376E-2	3.255411E-2	2.457731E-2	1.882482E-2	2.247491E-2	1.598646E-2	1.438312E-2	2.346634E-2	1.694772E-2	3.099226E-2	1.758562E-2	2.141932E-2	1.578403E-2	1.992279E-2	2.089868E-2	3.586788E-2
5.331630E+2	3.644534E-2	1.585704E-2	2.497743E-2	2.636985E-2	2.746822E-2	1.834951E-2	3.087472E-2	2.967200E-2	2.367307E-2	2.912241E-2	2.855597E-2	2.244209E-2	3.225324E-2	4.378963E-2	2.219986E-2	2.938119E-2	3.482710E-2	3.291552E-2	2.890831E-2	2.376121E-2	2.228740E-2	3.263637E-2	2.591636E-2	1.387397E-2	2.285840E-2	3.172327E-2	2.095589E-2	3.209026E-2	2.701008E-2	3.008836E-2	2.299174E-2	1.835863E-2	2.845617E-2	2.571933E-2	3.042067E-2	2.018428E-2	2.076280E-2	9.966453E-3	2.180168E-2	3.435871E-2	3.815305E-2	3.615408E-2	3.559351E-2	2.793903E-2	3.190785E-2	3.205673E-2	3.060185E-2	3.185319E-2	2.626251E-2	2.981696E-2	1.903953E-2	1.887572E-2	1.672907E-2	3.038350E-2	2.656038E-2	2.807590E-2	2.727386E-2	2.173445E-2	1.926989E-2	3.058726E-2	2.802068E-2	2.079491E-2	1.662844E-2	2.762477E-2	2.692309E-2	2.220226E-2	1.787088E-2	3.933993E-2	2.812673E-2	2.475516E-2	2.515055E-2	2.612043E-2	2.819174E-2	2.948874E-2	2.148839E-2	2.939008E-2	3.370745E-2	3.083561E-2	1.950001E-2	2.836846E-2	1.618010E-2	3.084502E-2	1.939026E-2	1.954394E-2	3.635174E-2	2.143402E-2	1.865834E-2	3.174782E-2	3.263420E-2	1.984605E-2	2.884077E-2	2.370583E-2	7.896532E-3	3.045236E-2	3.243802E-2	3.207623E-2	2.752093E-2	2.030580E-2	2.731655E-2	3.659248E-2	1.481109E-2	4.221666E-2	4.010517E-2	2.685834E-2	2.735061E-2	3.320864E-2	2.416294E-2	3.241252E-2	3.257392E-2	2.805094E-2	3.787444E-2	3.063169E-2	3.279545E-2	3.190017E-2	3.092630E-2	2.174621E-2	2.015533E-2	2.595615E-2	2.367061E-2	2.894081E-2	2.196762E-2	2.587477E-2	2.638107E-2	1.266590E-2	3.498324E-2	4.312594E-2	3.014816E-2	2.915089E-2	3.319729E-2	3.171514E-2	2.179603E-2	2.691168E-2	3.781288E-2	1.776943E-2	3.458900E-2	4.292307E-2	2.295239E-2	2.395015E-2	2.713933E-2	2.953984E-2	2.837921E-2	3.203129E-2	2.623543E-2	2.032546E-2	3.232586E-2	3.226595E-2	2.621092E-2	2.757509E-2	2.233614E-2	3.218478E-2	3.205555E-2	2.452496E-2	3.449105E-2	4.214123E-2	2.125330E-2	2.557189E-2	3.430126E-2	3.014819E-2	3.733068E-2	2.768557E-2	3.586766E-2	2.147886E-2	2.739423E-2	2.461579E-2	1.704151E-2	2.711074E-2	1.860264E-2	2.283710E-2	2.140146E-2	2.665996E-2	1.643782E-2
5.333080E+2	2.864678E-2	3.588146E-2	2.999555E-2	3.676546E-2	3.634880E-2	2.596242E-2	3.527145E-2	3.023356E-2	3.124557E-2	3.684032E-2	2.680027E-2	2.529185E-2	2.329228E-2	3.158303E-2	3.351879E-2	1.847105E-2	3.486247E-2	2.605885E-2	4.352372E-2	2.912883E-2	3.684100E-2	3.356095E-2	3.929330E-2	3.026468E-2	3.178467E-2	3.785865E-2	2.096780E-2	3.846941E-2	3.138001E-2	3.213119E-2	4.295458E-2	2.335922E-2	3.550685E-2	2.464963E-2	2.892053E-2	3.498883E-2	3.168837E-2	3.313528E-2	4.303312E-2	4.297459E-2	2.696380E-2	3.354824E-2	2.818169E-2	3.795230E-2	2.313741E-2	2.203907E-2	3.906292E-2	3.060975E-2	3.064000E-2	1.909897E-2	3.179911E-2	3.049682E-2	1.723648E-2	2.946828E-2	2.720859E-2	4.030250E-2	3.944700E-2	2.081374E-2	2.842381E-2	3.431928E-2	4.118128E-2	3.275477E-2	3.334697E-2	1.968077E-2	3.401936E-2	3.755414E-2	2.182602E-2	4.373599E-2	3.320414E-2	2.157374E-2	2.307554E-2	3.362820E-2	3.843084E-2	3.052654E-2	3.499301E-2	2.333634E-2	2.487407E-2	4.140247E-2	3.378131E-2	3.698454E-2	3.279260E-2	3.829908E-2	3.523933E-2	2.821171E-2	3.688811E-2	3.100190E-2	2.469099E-2	2.030277E-2	3.320408E-2	2.833429E-2	3.685364E-2	3.025366E-2	2.873872E-2	2.805917E-2	2.539789E-2	2.937529E-2	4.156119E-2	2.431904E-2	3.251426E-2	2.128177E-2	3.116648E-2	3.882857E-2	2.558524E-2	3.603628E-2	1.942592E-2	3.360948E-2	2.831547E-2	2.294334E-2	3.978798E-2	3.065699E-2	2.494841E-2	2.248363E-2	3.067039E-2	3.708012E-2	2.328390E-2	3.036806E-2	2.598712E-2	2.598585E-2	3.735286E-2	2.344937E-2	3.298490E-2	3.261073E-2	2.605510E-2	2.350402E-2	2.326819E-2	2.622476E-2	3.988924E-2	3.284829E-2	2.638217E-2	2.588975E-2	2.479554E-2	3.085761E-2	3.738141E-2	2.844961E-2	2.951382E-2	3.880368E-2	3.617677E-2	3.031292E-2	3.113405E-2	3.397072E-2	2.735796E-2	3.421637E-2	3.642127E-2	2.635308E-2	1.802880E-2	2.611557E-2	4.438909E-2	2.266989E-2	2.899549E-2	4.186966E-2	3.263532E-2	3.419694E-2	3.501619E-2	2.538739E-2	3.309301E-2	3.219642E-2	2.228771E-2	2.967988E-2	3.683925E-2	2.589835E-2	2.806872E-2	2.603641E-2	3.788298E-2	2.681912E-2	2.974129E-2	3.733166E-2	4.221095E-2	3.068455E-2	4.121058E-2	2.158400E-2	3.261389E-2
5.334580E+2	4.094863E-2	3.676988E-2	4.732745E-2	4.562522E-2	4.947643E-2	4.573390E-2	4.659545E-2	4.588290E-2	4.822112E-2	4.648730E-2	3.286399E-2	4.629063E-2	4.628677E-2	5.143841E-2	3.823161E-2	3.926254E-2	5.247864E-2	4.615780E-2	4.478997E-2	3.723734E-2	4.352608E-2	4.567332E-2	5.039725E-2	4.406091E-2	4.478728E-2	4.440201E-2	3.548756E-2	4.383084E-2	4.329458E-2	3.855092E-2	4.823719E-2	6.838870E-2	5.387613E-2	5.135732E-2	4.691361E-2	5.181179E-2	4.154613E-2	4.334026E-2	4.397364E-2	4.006669E-2	6.208125E-2	4.755093E-2	4.908217E-2	5.358361E-2	3.725590E-2	3.295344E-2	4.272880E-2	4.492933E-2	3.918334E-2	3.241449E-2	4.754227E-2	4.353551E-2	5.015994E-2	3.842998E-2	3.503434E-2	3.508382E-2	4.508491E-2	3.595701E-2	3.108947E-2	5.108595E-2	3.909875E-2	4.274013E-2	4.179830E-2	4.967194E-2	4.234598E-2	3.025318E-2	5.479788E-2	5.283360E-2	4.664875E-2	5.139207E-2	3.229003E-2	4.446273E-2	3.523066E-2	3.990322E-2	4.946062E-2	5.254883E-2	5.165044E-2	4.424416E-2	4.734839E-2	4.540336E-2	4.461091E-2	3.421497E-2	3.237082E-2	4.188783E-2	4.176399E-2	4.686121E-2	4.033879E-2	3.813408E-2	4.336955E-2	4.122988E-2	4.486440E-2	5.743210E-2	5.320598E-2	4.766873E-2	5.001355E-2	4.528998E-2	3.034148E-2	4.402288E-2	4.062090E-2	4.677444E-2	3.989110E-2	5.077494E-2	3.018795E-2	5.011964E-2	4.682816E-2	4.868377E-2	3.905499E-2	3.700309E-2	4.897810E-2	5.217475E-2	4.608357E-2	5.062754E-2	4.381379E-2	5.081928E-2	4.873772E-2	4.364526E-2	4.128085E-2	4.736516E-2	3.672913E-2	5.616769E-2	5.010054E-2	4.941419E-2	4.120897E-2	4.211340E-2	4.118049E-2	4.842162E-2	4.563582E-2	4.596772E-2	4.039646E-2	3.845380E-2	5.396959E-2	4.812004E-2	4.339158E-2	4.377840E-2	4.682163E-2	6.031908E-2	4.391355E-2	4.335091E-2	3.665853E-2	3.767524E-2	3.808046E-2	6.018714E-2	4.158760E-2	4.612719E-2	5.028085E-2	4.495285E-2	5.325490E-2	3.583846E-2	3.800240E-2	4.797801E-2	4.342436E-2	5.479322E-2	4.752906E-2	4.411384E-2	3.966580E-2	5.131784E-2	4.198369E-2	3.546298E-2	4.792149E-2	4.058005E-2	3.415389E-2	4.194661E-2	5.090979E-2	3.287585E-2	5.390192E-2	3.424281E-2	4.763257E-2	3.843179E-2	4.459775E-2	5.830511E-2	6.267563E-2
5.336030E+2	4.918207E-2	6.095369E-2	4.933583E-2	4.308213E-2	5.873990E-2	6.891275E-2	7.075200E-2	5.873667E-2	5.364215E-2	5.817175E-2	6.501425E-2	4.609061E-2	4.807435E-2	5.623091E-2	5.456490E-2	5.822926E-2	6.724470E-2	5.576170E-2	6.490687E-2	7.064401E-2	5.593150E-2	5.180013E-2	5.356637E-2	4.833168E-2	4.468765E-2	5.246294E-2	4.534931E-2	5.330494E-2	6.203077E-2	7.325632E-2	5.380758E-2	5.938590E-2	7.735365E-2	5.616173E-2	6.002810E-2	6.310377E-2	5.786749E-2	5.956216E-2	5.521448E-2	5.463527E-2	6.590828E-2	5.221171E-2	4.742952E-2	5.669591E-2	4.695889E-2	4.337528E-2	6.883597E-2	5.719212E-2	5.314913E-2	5.861670E-2	5.444068E-2	5.702518E-2	5.800581E-2	5.569742E-2	4.724738E-2	8.300866E-2	5.560267E-2	6.083017E-2	5.720914E-2	4.846678E-2	6.039292E-2	6.708129E-2	4.831314E-2	6.193384E-2	6.158249E-2	6.581647E-2	6.147295E-2	7.214290E-2	5.922277E-2	7.227474E-2	5.514317E-2	5.184464E-2	5.610130E-2	4.437942E-2	3.267514E-2	4.829778E-2	5.208138E-2	5.951296E-2	5.909356E-2	6.831115E-2	5.651560E-2	6.430524E-2	5.289917E-2	6.085497E-2	7.491548E-2	4.913866E-2	5.438843E-2	5.652090E-2	5.794667E-2	5.461083E-2	5.958155E-2	5.628827E-2	3.599940E-2	5.672112E-2	6.188284E-2	6.108744E-2	5.982254E-2	4.597882E-2	5.591900E-2	4.444718E-2	4.177114E-2	5.592315E-2	5.748704E-2	5.413181E-2	5.620873E-2	6.337459E-2	6.029604E-2	5.632007E-2	5.307759E-2	6.037091E-2	5.491811E-2	5.443929E-2	6.934252E-2	6.418503E-2	6.008317E-2	6.348606E-2	5.090391E-2	6.235633E-2	5.875310E-2	6.744590E-2	5.369697E-2	7.561508E-2	6.438172E-2	4.708791E-2	4.316406E-2	6.031985E-2	5.957186E-2	5.694199E-2	6.291319E-2	5.050230E-2	5.558285E-2	6.880991E-2	6.420581E-2	4.661804E-2	4.721700E-2	6.388633E-2	4.909186E-2	6.707626E-2	5.817917E-2	6.131843E-2	7.273875E-2	6.395444E-2	4.840708E-2	5.440846E-2	5.840002E-2	5.826737E-2	4.517652E-2	6.042674E-2	6.089745E-2	5.663112E-2	5.368454E-2	5.815877E-2	4.844925E-2	5.754149E-2	6.715639E-2	6.041874E-2	6.072683E-2	5.122484E-2	6.475968E-2	5.438984E-2	5.713585E-2	5.896400E-2	5.132187E-2	6.073598E-2	4.067712E-2	6.095890E-2	5.759287E-2	6.176039E-2	5.671648E-2	5.881941E-2	5.305011E-2
5.337580E+2	7.937292E-2	7.399111E-2	8.866498E-2	8.362194E-2	6.863599E-2	9.461435E-2	9.061579E-2	8.325567E-2	8.042451E-2	7.981923E-2	7.550092E-2	8.377137E-2	8.603451E-2	8.075541E-2	8.941038E-2	8.642272E-2	7.868341E-2	9.042310E-2	6.402509E-2	8.872003E-2	7.060019E-2	6.633528E-2	7.391915E-2	7.750129E-2	8.427720E-2	7.190228E-2	8.043727E-2	7.519668E-2	8.237656E-2	7.934358E-2	7.805652E-2	7.303710E-2	8.842817E-2	9.247298E-2	8.161112E-2	8.119698E-2	7.384447E-2	5.761302E-2	8.613186E-2	6.857349E-2	8.051519E-2	8.118977E-2	7.743450E-2	7.623810E-2	7.781652E-2	9.178077E-2	7.579916E-2	7.919939E-2	8.146718E-2	7.642942E-2	7.780253E-2	8.197455E-2	8.708786E-2	8.026238E-2	7.117400E-2	8.353648E-2	7.681360E-2	8.627529E-2	7.301341E-2	7.931070E-2	7.406976E-2	8.386677E-2	7.397071E-2	7.662101E-2	9.507808E-2	7.715789E-2	7.842406E-2	8.598001E-2	9.515523E-2	8.315648E-2	6.863629E-2	8.624487E-2	6.588927E-2	9.983366E-2	7.391168E-2	8.242215E-2	8.717577E-2	7.832465E-2	7.357300E-2	8.707868E-2	7.830118E-2	7.971117E-2	8.744939E-2	8.031476E-2	8.202871E-2	8.103170E-2	7.437842E-2	8.155897E-2	6.722428E-2	7.263488E-2	7.726638E-2	7.853334E-2	7.763101E-2	8.273832E-2	7.545696E-2	7.479800E-2	8.308788E-2	7.536276E-2	8.201307E-2	9.826991E-2	8.314064E-2	7.730916E-2	7.769721E-2	8.317529E-2	7.718403E-2	9.058710E-2	5.809454E-2	7.705604E-2	8.469442E-2	8.120292E-2	8.302880E-2	8.348462E-2	7.424657E-2	7.516803E-2	8.227617E-2	8.903081E-2	6.701271E-2	8.502697E-2	9.327449E-2	8.824662E-2	9.270843E-2	8.032726E-2	8.273797E-2	7.175344E-2	5.976664E-2	8.235783E-2	8.643362E-2	7.911103E-2	8.145052E-2	6.599848E-2	7.908239E-2	8.751806E-2	1.123220E-1	8.602487E-2	6.875446E-2	8.884109E-2	7.722542E-2	6.446859E-2	8.681885E-2	6.913826E-2	7.281932E-2	6.621605E-2	9.037520E-2	8.736386E-2	8.217914E-2	8.528034E-2	9.685049E-2	8.032937E-2	8.349226E-2	7.752571E-2	1.018607E-1	7.614585E-2	8.467969E-2	9.067591E-2	7.964088E-2	8.852601E-2	7.023027E-2	8.707756E-2	8.127501E-2	8.030949E-2	7.941430E-2	8.470915E-2	8.950209E-2	8.386585E-2	8.181944E-2	7.975347E-2	8.974426E-2	8.279563E-2	1.018840E-1	8.773830E-2	8.147329E-2
5.339090E+2	1.424917E-1	1.139039E-1	1.086629E-1	1.273863E-1	1.296551E-1	1.173103E-1	1.291628E-1	1.306234E-1	1.075030E-1	1.414829E-1	1.157619E-1	1.166438E-1	1.210156E-1	1.173563E-1	1.321510E-1	1.163823E-1	1.301319E-1	1.171102E-1	1.165346E-1	1.244144E-1	1.267784E-1	1.178790E-1	1.233384E-1	1.358462E-1	1.177800E-1	1.233680E-1	1.163279E-1	1.208988E-1	1.199974E-1	1.343104E-1	1.217390E-1	1.246510E-1	1.304720E-1	1.274609E-1	1.221796E-1	1.176567E-1	1.151596E-1	1.286284E-1	1.196234E-1	1.183440E-1	1.229654E-1	1.247006E-1	1.118803E-1	1.282965E-1	1.354471E-1	1.274453E-1	1.384115E-1	1.424422E-1	1.302506E-1	1.312447E-1	1.243564E-1	1.290133E-1	1.220385E-1	1.142875E-1	1.184021E-1	1.289511E-1	1.195281E-1	1.399078E-1	1.201753E-1	1.216283E-1	1.167966E-1	1.291064E-1	1.063217E-1	1.213962E-1	1.199402E-1	1.258574E-1	1.140403E-1	1.481475E-1	1.258341E-1	1.318827E-1	1.222716E-1	1.283191E-1	1.061441E-1	1.319223E-1	1.040005E-1	1.267299E-1	1.168694E-1	1.363021E-1	1.203085E-1	1.218997E-1	1.268516E-1	1.231973E-1	1.275039E-1	1.143746E-1	1.201865E-1	1.408327E-1	1.092506E-1	1.287425E-1	1.094803E-1	1.194199E-1	1.259962E-1	1.243369E-1	1.164048E-1	1.352267E-1	1.244638E-1	1.150269E-1	1.122124E-1	1.298516E-1	1.337569E-1	1.344247E-1	1.343740E-1	1.285461E-1	1.190497E-1	1.278982E-1	1.271731E-1	1.182135E-1	1.319856E-1	1.251024E-1	1.171517E-1	1.335756E-1	1.231353E-1	1.104591E-1	1.373678E-1	1.264252E-1	1.118886E-1	1.256608E-1	1.223762E-1	1.123536E-1	1.322239E-1	1.432849E-1	1.153174E-1	1.242687E-1	1.315340E-1	1.211302E-1	1.296331E-1	1.273022E-1	1.339633E-1	1.187153E-1	1.367882E-1	1.367212E-1	1.383470E-1	1.214834E-1	1.456869E-1	1.244086E-1	1.423002E-1	1.385566E-1	1.179724E-1	1.222406E-1	1.347265E-1	1.413133E-1	1.226278E-1	1.428507E-1	1.278162E-1	1.262832E-1	1.306088E-1	1.295419E-1	1.313053E-1	1.117148E-1	1.157593E-1	1.289539E-1	1.100482E-1	1.448402E-1	1.377244E-1	1.259608E-1	1.348908E-1	1.255294E-1	1.141690E-1	1.178450E-1	1.245554E-1	1.256557E-1	1.071181E-1	1.204854E-1	1.312984E-1	1.343463E-1	1.404857E-1	1.325213E-1	1.374781E-1	1.310998E-1	1.248341E-1	1.211283E-1	1.061411E-1
5.340430E+2	1.658412E-1	1.654589E-1	1.813963E-1	1.882433E-1	1.677093E-1	1.606790E-1	1.878571E-1	1.792667E-1	2.072735E-1	1.941777E-1	1.586721E-1	1.881161E-1	1.757595E-1	1.891254E-1	1.822388E-1	1.944819E-1	1.868290E-1	1.783114E-1	1.768275E-1	1.898089E-1	1.857526E-1	1.723692E-1	1.825820E-1	1.872192E-1	1.779695E-1	1.792585E-1	1.901070E-1	1.706285E-1	1.792453E-1	1.692980E-1	1.722463E-1	1.624390E-1	1.869073E-1	1.941390E-1	1.755231E-1	1.853247E-1	1.636169E-1	1.752891E-1	1.664144E-1	1.718529E-1	1.911085E-1	1.663942E-1	2.011127E-1	2.008181E-1	1.618916E-1	1.547243E-1	1.691494E-1	1.769740E-1	1.777149E-1	1.836980E-1	2.034819E-1	1.902421E-1	2.003934E-1	1.660031E-1	1.904853E-1	1.736868E-1	1.843808E-1	1.727326E-1	2.004557E-1	1.829294E-1	1.725625E-1	1.716422E-1	1.737849E-1	1.726718E-1	2.004637E-1	1.799463E-1	1.686979E-1	1.668257E-1	1.888128E-1	1.911138E-1	1.771524E-1	1.682430E-1	1.801609E-1	1.809946E-1	1.744106E-1	1.569327E-1	1.773036E-1	1.755087E-1	1.645093E-1	1.733058E-1	1.780584E-1	1.690117E-1	1.870100E-1	1.871224E-1	1.895568E-1	1.804746E-1	1.795160E-1	1.746546E-1	2.017759E-1	1.857390E-1	1.728204E-1	1.602285E-1	1.736418E-1	1.906895E-1	1.702740E-1	1.729512E-1	1.711792E-1	1.628902E-1	1.856301E-1	1.885993E-1	1.931028E-1	1.953582E-1	1.774731E-1	1.584178E-1	1.697683E-1	1.827196E-1	1.878981E-1	1.886568E-1	1.993191E-1	1.679205E-1	1.770059E-1	1.927646E-1	1.797760E-1	1.773590E-1	1.729015E-1	1.788934E-1	1.720797E-1	1.775440E-1	1.926139E-1	1.937611E-1	1.987104E-1	1.859578E-1	1.994893E-1	1.612202E-1	1.767498E-1	1.729096E-1	1.959915E-1	1.820239E-1	1.870712E-1	1.858310E-1	1.951845E-1	1.747765E-1	1.734425E-1	1.863937E-1	2.066900E-1	1.971817E-1	2.015145E-1	1.914715E-1	1.875664E-1	1.825330E-1	1.925413E-1	1.928540E-1	1.829050E-1	1.807058E-1	1.825813E-1	1.813026E-1	1.831663E-1	1.605572E-1	2.033000E-1	1.831251E-1	1.677749E-1	1.867393E-1	1.915925E-1	1.663523E-1	1.834732E-1	1.766252E-1	1.778434E-1	1.812679E-1	2.042443E-1	1.917121E-1	1.729521E-1	1.818168E-1	1.666308E-1	1.829710E-1	1.860011E-1	1.923322E-1	1.838210E-1	1.737903E-1	1.708794E-1	1.985673E-1	2.151019E-1
5.342040E+2	2.937299E-1	3.022810E-1	3.181420E-1	3.384387E-1	2.933517E-1	3.076918E-1	3.242900E-1	3.124594E-1	3.284739E-1	3.161020E-1	2.970514E-1	3.008610E-1	3.144839E-1	3.229935E-1	2.842385E-1	2.903407E-1	3.292937E-1	3.082630E-1	3.050253E-1	3.071663E-1	2.898406E-1	2.889516E-1	3.316869E-1	3.204740E-1	3.307750E-1	3.353568E-1	3.192852E-1	3.336248E-1	3.119290E-1	3.097815E-1	3.070533E-1	3.157258E-1	3.016642E-1	2.907631E-1	3.159514E-1	3.287077E-1	3.400261E-1	3.307297E-1	3.245670E-1	3.180319E-1	3.108077E-1	3.084247E-1	3.178272E-1	3.134272E-1	2.952320E-1	3.227827E-1	3.149400E-1	2.967655E-1	3.035555E-1	3.335435E-1	3.119163E-1	3.195222E-1	3.028673E-1	3.237280E-1	3.154527E-1	3.269217E-1	3.080839E-1	2.926116E-1	3.089260E-1	2.871061E-1	3.263202E-1	3.328727E-1	3.259541E-1	3.185349E-1	3.209022E-1	3.058531E-1	3.216114E-1	3.109358E-1	3.212902E-1	3.194291E-1	2.950575E-1	3.110038E-1	3.152919E-1	3.281648E-1	3.387596E-1	3.148050E-1	3.303541E-1	3.042331E-1	3.042452E-1	3.181224E-1	3.117981E-1	3.254916E-1	3.343939E-1	3.320533E-1	3.085202E-1	3.315235E-1	3.218182E-1	3.374478E-1	3.163672E-1	3.061532E-1	3.115169E-1	3.266175E-1	3.342056E-1	3.333633E-1	3.094907E-1	3.103678E-1	3.155090E-1	3.043987E-1	3.015679E-1	3.035933E-1	3.076469E-1	3.185334E-1	3.257409E-1	2.785553E-1	3.049697E-1	3.082960E-1	3.308166E-1	3.216097E-1	3.114130E-1	3.049837E-1	3.025948E-1	3.185258E-1	3.092496E-1	3.216526E-1	3.289613E-1	3.165424E-1	3.348610E-1	3.092444E-1	3.286586E-1	3.392362E-1	3.051846E-1	3.260957E-1	3.116428E-1	2.954044E-1	3.231255E-1	3.069328E-1	3.201357E-1	3.126909E-1	3.301838E-1	3.010777E-1	2.809366E-1	3.181798E-1	3.252672E-1	3.203818E-1	3.342700E-1	3.405224E-1	3.089649E-1	3.085980E-1	3.182830E-1	3.077187E-1	3.273196E-1	3.145845E-1	3.290378E-1	3.107515E-1	3.102917E-1	3.226401E-1	3.279663E-1	2.933956E-1	3.596502E-1	3.383978E-1	3.227524E-1	3.188383E-1	3.171637E-1	3.074741E-1	2.931111E-1	3.174736E-1	3.115869E-1	3.106660E-1	3.015246E-1	3.267457E-1	3.179251E-1	3.197612E-1	3.535803E-1	3.358568E-1	3.179487E-1	3.302683E-1	3.483452E-1	3.347074E-1	3.450952E-1	2.995388E-1	3.940444E-1
5.343600E+2	5.600081E-1	5.742104E-1	5.929575E-1	5.653650E-1	5.529846E-1	5.759038E-1	5.791596E-1	5.594159E-1	5.677170E-1	5.897729E-1	5.996731E-1	5.860121E-1	5.859964E-1	6.029536E-1	5.802506E-1	6.243256E-1	6.041084E-1	6.149083E-1	5.992039E-1	5.611933E-1	6.042390E-1	5.759676E-1	5.741940E-1	5.763656E-1	5.460661E-1	5.667593E-1	5.749047E-1	5.321820E-1	5.899939E-1	5.794684E-1	5.760297E-1	5.845969E-1	6.043878E-1	5.648966E-1	5.682348E-1	5.859929E-1	5.592941E-1	5.644010E-1	5.568152E-1	5.861229E-1	5.773833E-1	5.856177E-1	5.697431E-1	6.000309E-1	5.730647E-1	5.788987E-1	5.857341E-1	5.707553E-1	5.873185E-1	5.642285E-1	5.609929E-1	5.749334E-1	5.734834E-1	6.102261E-1	5.998002E-1	5.955264E-1	5.769661E-1	5.900348E-1	5.747991E-1	5.624022E-1	5.836752E-1	6.342027E-1	6.231136E-1	5.847704E-1	5.897516E-1	6.044194E-1	5.459148E-1	6.308261E-1	5.645113E-1	5.752211E-1	5.692523E-1	5.983315E-1	5.751031E-1	5.854911E-1	5.753674E-1	5.991440E-1	5.972645E-1	5.528971E-1	5.823718E-1	5.934511E-1	5.430915E-1	5.734732E-1	6.009644E-1	5.743177E-1	5.802497E-1	5.754337E-1	6.109749E-1	6.162384E-1	6.129010E-1	5.761409E-1	5.877820E-1	5.908606E-1	6.050178E-1	5.723089E-1	6.000610E-1	6.112397E-1	5.869157E-1	5.711877E-1	5.770939E-1	5.857957E-1	5.940949E-1	6.070712E-1	5.945364E-1	5.770028E-1	5.961457E-1	5.742405E-1	5.796839E-1	5.971003E-1	5.843678E-1	5.765658E-1	5.933979E-1	6.144721E-1	6.034900E-1	6.110413E-1	5.518343E-1	5.996552E-1	5.964845E-1	5.464231E-1	6.227442E-1	5.952215E-1	5.955732E-1	5.708419E-1	5.890863E-1	5.917437E-1	6.195632E-1	5.948099E-1	5.625363E-1	5.847933E-1	5.545552E-1	5.956344E-1	5.798849E-1	5.567013E-1	5.793604E-1	5.505697E-1	5.868378E-1	5.921977E-1	5.905291E-1	5.547387E-1	5.838765E-1	5.742763E-1	5.746558E-1	6.028084E-1	5.695586E-1	6.087062E-1	5.589556E-1	5.779409E-1	5.995593E-1	5.537320E-1	5.975687E-1	5.748429E-1	5.777901E-1	6.162952E-1	5.962746E-1	5.779725E-1	5.950671E-1	5.644506E-1	5.911845E-1	5.616371E-1	5.758262E-1	6.073123E-1	5.765994E-1	6.007919E-1	5.800161E-1	5.825400E-1	5.670633E-1	6.052111E-1	5.887255E-1	6.347650E-1	5.601696E-1	5.668910E-1	6.005954E-1
5.345160E+2	9.688692E-1	1.007768E+0	9.763672E-1	1.000357E+0	9.837167E-1	9.345791E-1	9.579818E-1	9.618179E-1	1.002948E+0	9.241919E-1	9.760059E-1	1.026993E+0	9.449795E-1	9.806660E-1	9.585093E-1	1.023331E+0	9.862210E-1	9.686195E-1	9.408080E-1	9.853635E-1	9.968747E-1	9.635851E-1	1.008044E+0	9.451456E-1	9.627766E-1	9.786387E-1	9.866781E-1	9.716886E-1	9.491495E-1	9.695897E-1	9.647881E-1	9.724647E-1	9.432096E-1	9.735434E-1	9.547305E-1	9.784990E-1	9.504911E-1	9.479470E-1	9.520395E-1	9.881203E-1	9.643583E-1	9.775997E-1	9.420032E-1	9.668785E-1	9.570776E-1	9.603141E-1	9.370608E-1	9.425858E-1	9.860436E-1	9.548298E-1	9.528918E-1	9.607560E-1	9.164228E-1	9.758220E-1	9.675390E-1	9.691166E-1	9.507589E-1	9.917687E-1	9.951134E-1	9.888747E-1	9.393678E-1	9.920450E-1	9.689854E-1	9.722462E-1	9.127845E-1	9.682157E-1	9.525979E-1	9.621055E-1	9.896743E-1	9.566794E-1	9.276589E-1	9.640260E-1	9.247803E-1	9.335769E-1	9.916040E-1	9.807259E-1	9.305122E-1	9.578376E-1	1.003614E+0	9.964324E-1	9.842403E-1	9.793882E-1	9.358268E-1	9.572618E-1	9.732124E-1	9.676426E-1	1.014138E+0	9.441117E-1	9.846457E-1	9.344692E-1	9.966654E-1	9.422634E-1	9.346353E-1	9.791681E-1	9.322955E-1	9.267083E-1	9.873210E-1	9.599924E-1	9.605995E-1	9.856004E-1	9.563863E-1	9.659234E-1	9.759460E-1	1.005089E+0	9.736154E-1	9.429187E-1	1.002214E+0	9.473458E-1	1.002170E+0	9.590045E-1	9.725679E-1	9.446510E-1	1.002396E+0	9.321774E-1	9.502454E-1	9.232216E-1	9.909572E-1	9.365587E-1	9.764321E-1	9.547589E-1	9.533871E-1	8.981883E-1	9.399885E-1	9.659727E-1	9.419186E-1	9.644517E-1	9.840317E-1	9.711444E-1	9.383704E-1	9.420654E-1	9.483687E-1	9.851817E-1	9.468882E-1	9.213176E-1	9.427258E-1	9.804462E-1	9.572474E-1	9.655250E-1	9.663423E-1	9.846916E-1	9.538422E-1	9.314225E-1	9.833172E-1	9.249726E-1	9.254666E-1	9.293908E-1	9.577400E-1	9.716010E-1	9.478984E-1	9.253604E-1	9.617574E-1	1.006934E+0	9.687255E-1	9.758431E-1	9.830482E-1	9.464296E-1	9.780547E-1	9.913618E-1	9.705702E-1	9.668710E-1	9.524299E-1	9.494114E-1	9.559427E-1	9.795122E-1	9.715557E-1	1.013741E+0	9.897980E-1	9.921598E-1	9.264054E-1	9.837369E-1	1.089731E+0
5.346620E+2	1.382254E+0	1.323849E+0	1.353318E+0	1.321397E+0	1.334824E+0	1.338371E+0	1.347930E+0	1.381982E+0	1.296323E+0	1.324197E+0	1.381704E+0	1.397155E+0	1.385622E+0	1.385513E+0	1.345778E+0	1.396488E+0	1.347790E+0	1.371133E+0	1.357370E+0	1.327676E+0	1.378461E+0	1.336262E+0	1.284760E+0	1.347281E+0	1.297306E+0	1.392615E+0	1.360118E+0	1.329897E+0	1.299334E+0	1.354451E+0	1.353765E+0	1.331321E+0	1.346943E+0	1.340346E+0	1.342133E+0	1.318083E+0	1.382701E+0	1.371975E+0	1.383454E+0	1.339212E+0	1.344761E+0	1.366949E+0	1.332045E+0	1.363597E+0	1.379991E+0	1.371863E+0	1.287009E+0	1.368538E+0	1.316993E+0	1.357531E+0	1.346810E+0	1.312710E+0	1.311803E+0	1.376186E+0	1.358821E+0	1.342169E+0	1.355279E+0	1.348324E+0	1.334347E+0	1.301562E+0	1.364484E+0	1.349380E+0	1.321517E+0	1.351506E+0	1.343102E+0	1.348629E+0	1.313075E+0	1.420425E+0	1.347497E+0	1.334964E+0	1.356827E+0	1.355641E+0	1.316487E+0	1.328119E+0	1.291822E+0	1.380089E+0	1.350374E+0	1.308513E+0	1.385267E+0	1.346326E+0	1.353873E+0	1.286509E+0	1.335274E+0	1.332816E+0	1.329509E+0	1.371086E+0	1.303253E+0	1.295197E+0	1.369270E+0	1.332562E+0	1.355684E+0	1.357177E+0	1.321551E+0	1.322379E+0	1.313294E+0	1.344549E+0	1.307775E+0	1.304615E+0	1.354998E+0	1.325230E+0	1.310781E+0	1.355716E+0	1.322777E+0	1.331755E+0	1.319329E+0	1.353175E+0	1.365068E+0	1.381910E+0	1.321212E+0	1.355039E+0	1.323936E+0	1.313479E+0	1.391154E+0	1.335591E+0	1.264217E+0	1.269566E+0	1.318758E+0	1.288412E+0	1.357598E+0	1.385725E+0	1.333624E+0	1.277628E+0	1.334150E+0	1.311052E+0	1.355048E+0	1.347877E+0	1.319439E+0	1.347968E+0	1.299998E+0	1.313137E+0	1.332539E+0	1.322847E+0	1.342863E+0	1.315959E+0	1.354434E+0	1.349591E+0	1.274809E+0	1.322219E+0	1.336854E+0	1.328035E+0	1.354267E+0	1.321941E+0	1.333898E+0	1.313648E+0	1.361038E+0	1.347832E+0	1.320995E+0	1.274116E+0	1.365881E+0	1.304954E+0	1.362140E+0	1.331376E+0	1.303900E+0	1.356331E+0	1.335486E+0	1.348108E+0	1.325551E+0	1.316797E+0	1.307815E+0	1.338803E+0	1.322225E+0	1.346612E+0	1.309426E+0	1.359985E+0	1.329625E+0	1.382664E+0	1.332988E+0	1.389145E+0	1.317708E+0	1.328296E+0	1.332952E+0
5.348120E+2	1.728357E+0	1.739764E+0	1.761829E+0	1.736920E+0	1.784986E+0	1.696373E+0	1.766003E+0	1.694307E+0	1.742512E+0	1.711071E+0	1.730222E+0	1.762773E+0	1.735604E+0	1.755390E+0	1.736574E+0	1.758667E+0	1.784749E+0	1.802934E+0	1.709745E+0	1.736337E+0	1.802857E+0	1.780027E+0	1.742643E+0	1.767461E+0	1.768822E+0	1.753872E+0	1.798004E+0	1.739385E+0	1.765658E+0	1.710467E+0	1.756283E+0	1.711491E+0	1.724870E+0	1.727998E+0	1.764972E+0	1.740599E+0	1.770306E+0	1.752383E+0	1.710039E+0	1.706532E+0	1.757957E+0	1.790545E+0	1.757691E+0	1.725039E+0	1.685486E+0	1.792387E+0	1.735882E+0	1.744655E+0	1.775911E+0	1.753087E+0	1.752803E+0	1.738656E+0	1.724762E+0	1.724913E+0	1.754014E+0	1.745474E+0	1.774330E+0	1.739826E+0	1.780519E+0	1.751806E+0	1.793377E+0	1.768431E+0	1.711286E+0	1.731630E+0	1.683251E+0	1.761408E+0	1.725795E+0	1.790576E+0	1.712521E+0	1.712248E+0	1.754553E+0	1.751855E+0	1.738334E+0	1.712885E+0	1.723047E+0	1.830591E+0	1.752493E+0	1.730536E+0	1.749144E+0	1.704623E+0	1.743478E+0	1.740156E+0	1.724579E+0	1.739196E+0	1.717008E+0	1.766978E+0	1.741880E+0	1.710101E+0	1.741398E+0	1.695662E+0	1.768628E+0	1.836869E+0	1.707676E+0	1.751368E+0	1.698857E+0	1.753028E+0	1.734393E+0	1.684505E+0	1.730124E+0	1.719463E+0	1.718739E+0	1.786690E+0	1.680303E+0	1.761724E+0	1.763283E+0	1.752554E+0	1.758180E+0	1.670944E+0	1.729637E+0	1.765916E+0	1.748620E+0	1.709638E+0	1.695561E+0	1.773286E+0	1.746999E+0	1.718990E+0	1.714997E+0	1.708689E+0	1.751977E+0	1.758167E+0	1.630770E+0	1.695810E+0	1.661082E+0	1.710024E+0	1.673608E+0	1.716374E+0	1.726911E+0	1.687523E+0	1.723285E+0	1.657532E+0	1.657781E+0	1.709262E+0	1.742527E+0	1.735373E+0	1.745610E+0	1.722107E+0	1.699952E+0	1.675979E+0	1.754988E+0	1.646849E+0	1.677763E+0	1.726891E+0	1.700351E+0	1.726409E+0	1.693780E+0	1.684718E+0	1.815791E+0	1.698587E+0	1.689024E+0	1.657379E+0	1.691379E+0	1.647480E+0	1.673270E+0	1.709516E+0	1.708148E+0	1.690220E+0	1.750879E+0	1.667583E+0	1.719405E+0	1.746482E+0	1.712417E+0	1.743948E+0	1.737798E+0	1.760935E+0	1.642948E+0	1.774961E+0	1.718593E+0	1.756358E+0	1.732401E+0	1.681310E+0	1.810755E+0
5.349530E+2	1.979568E+0	2.015348E+0	1.971466E+0	1.965458E+0	1.947791E+0	1.971384E+0	2.033115E+0	1.976617E+0	1.973666E+0	2.021502E+0	1.937394E+0	1.958665E+0	2.018508E+0	2.015140E+0	1.951604E+0	2.026470E+0	1.987941E+0	1.940844E+0	1.992579E+0	1.996401E+0	2.043349E+0	1.996316E+0	1.923753E+0	1.919146E+0	1.950432E+0	2.022894E+0	2.008153E+0	1.984242E+0	1.950839E+0	2.003231E+0	1.956408E+0	1.959861E+0	1.969774E+0	2.010657E+0	1.968639E+0	1.961724E+0	1.944574E+0	2.018184E+0	2.066555E+0	1.967359E+0	1.992185E+0	1.966736E+0	2.058853E+0	1.959427E+0	1.963796E+0	1.995969E+0	1.956611E+0	1.932337E+0	1.994727E+0	1.917015E+0	1.950563E+0	1.928071E+0	1.912342E+0	2.006995E+0	1.982322E+0	1.996230E+0	1.985105E+0	1.948620E+0	1.937145E+0	1.899612E+0	1.951187E+0	1.977426E+0	1.980957E+0	1.903573E+0	1.879304E+0	1.883955E+0	1.931918E+0	1.906550E+0	1.918681E+0	1.991962E+0	1.960638E+0	1.907592E+0	1.986338E+0	1.906766E+0	1.898439E+0	1.976114E+0	1.930660E+0	1.920361E+0	1.982927E+0	1.863257E+0	1.937208E+0	1.949419E+0	1.922108E+0	1.965351E+0	1.965822E+0	1.961104E+0	1.855250E+0	1.900034E+0	1.908675E+0	1.906909E+0	1.934757E+0	1.972006E+0	1.898084E+0	1.991308E+0	1.956457E+0	1.931970E+0	1.915123E+0	1.960364E+0	1.949477E+0	1.870077E+0	1.879389E+0	1.945873E+0	1.842833E+0	1.943629E+0	1.915610E+0	1.894115E+0	1.905679E+0	1.852545E+0	1.949590E+0	1.974865E+0	1.948421E+0	1.902794E+0	1.901425E+0	1.949388E+0	1.877040E+0	1.851057E+0	1.888864E+0	1.905415E+0	1.893609E+0	1.983853E+0	1.972675E+0	1.896364E+0	1.880092E+0	1.933711E+0	1.905767E+0	1.883466E+0	1.893558E+0	1.906074E+0	1.948137E+0	1.910185E+0	1.900396E+0	1.933429E+0	1.930464E+0	1.890624E+0	1.943696E+0	1.930117E+0	1.982908E+0	1.876205E+0	1.961041E+0	1.874094E+0	1.922044E+0	1.897400E+0	1.863376E+0	1.863569E+0	1.857968E+0	1.949816E+0	1.875618E+0	1.888692E+0	1.926358E+0	1.847013E+0	1.943532E+0	1.916211E+0	1.902332E+0	1.916654E+0	1.914785E+0	1.905101E+0	1.854337E+0	1.869754E+0	1.889887E+0	1.951220E+0	1.889474E+0	1.912239E+0	1.877922E+0	1.928390E+0	1.907576E+0	1.932740E+0	1.928005E+0	1.918226E+0	1.805558E+0	1.857846E+0	1.846815E+0
5.351140E+2	1.980978E+0	1.976806E+0	1.964587E+0	1.942605E+0	1.974345E+0	1.986752E+0	1.986594E+0	1.999050E+0	1.947352E+0	1.967329E+0	1.940112E+0	1.946634E+0	1.993917E+0	1.987929E+0	1.933543E+0	1.998544E+0	2.009186E+0	1.945645E+0	1.950028E+0	1.960434E+0	1.963542E+0	1.902744E+0	2.009674E+0	1.963747E+0	1.960614E+0	2.004572E+0	1.998670E+0	1.991192E+0	1.957452E+0	1.949786E+0	1.907743E+0	1.939871E+0	1.947276E+0	1.996191E+0	2.012859E+0	1.957427E+0	2.000852E+0	1.931294E+0	1.977574E+0	1.927981E+0	1.986216E+0	1.924523E+0	1.951922E+0	1.899578E+0	1.921194E+0	1.952866E+0	1.973119E+0	1.941980E+0	1.960329E+0	1.967945E+0	1.937833E+0	1.913980E+0	1.932996E+0	1.933830E+0	1.944778E+0	1.981845E+0	1.926020E+0	1.917876E+0	1.966746E+0	1.956385E+0	1.963520E+0	1.987124E+0	1.989777E+0	1.956567E+0	1.948299E+0	1.935669E+0	1.973846E+0	1.951589E+0	1.943468E+0	1.927533E+0	1.961616E+0	1.976875E+0	1.922016E+0	1.979868E+0	1.954062E+0	1.990821E+0	1.905752E+0	1.919884E+0	1.983875E+0	1.984658E+0	1.970557E+0	1.923186E+0	1.917533E+0	1.964683E+0	1.897887E+0	1.978091E+0	1.946601E+0	1.895528E+0	1.894898E+0	1.945077E+0	1.948021E+0	1.930075E+0	1.870862E+0	1.986815E+0	1.922447E+0	1.917319E+0	1.897522E+0	1.892932E+0	1.925750E+0	1.825827E+0	1.906004E+0	1.912895E+0	1.872872E+0	1.886801E+0	1.908190E+0	1.887525E+0	1.975726E+0	1.882499E+0	1.940307E+0	1.949624E+0	1.921414E+0	1.923687E+0	1.899648E+0	1.937223E+0	1.886568E+0	1.859066E+0	1.941331E+0	1.928615E+0	1.887671E+0	1.898332E+0	1.795443E+0	1.918115E+0	1.906346E+0	1.917148E+0	1.885094E+0	1.879997E+0	1.933441E+0	1.899849E+0	1.927130E+0	1.911133E+0	1.884717E+0	1.905436E+0	1.939336E+0	1.879344E+0	1.953067E+0	1.941609E+0	1.923329E+0	1.914673E+0	1.876068E+0	1.939421E+0	1.891665E+0	1.906774E+0	1.923640E+0	1.903889E+0	1.891260E+0	1.912896E+0	1.882845E+0	1.853533E+0	1.909292E+0	1.924719E+0	1.923188E+0	1.924212E+0	1.877936E+0	1.928832E+0	1.957779E+0	1.895661E+0	1.861051E+0	1.855324E+0	1.943541E+0	1.918415E+0	1.933219E+0	1.894223E+0	1.903484E+0	1.888494E+0	1.901173E+0	1.918716E+0	1.918258E+0	1.899750E+0	1.881196E+0	1.885677E+0	2.057197E+0
5.352600E+2	1.870700E+0	1.851005E+0	1.934804E+0	1.867226E+0	1.857259E+0	1.869474E+0	1.927327E+0	1.842335E+0	1.906765E+0	1.800708E+0	1.783123E+0	1.786834E+0	1.895191E+0	1.906665E+0	1.859945E+0	1.827518E+0	1.874978E+0	1.883159E+0	1.793564E+0	1.840621E+0	1.895393E+0	1.821978E+0	1.816335E+0	1.910074E+0	1.912847E+0	1.885504E+0	1.856407E+0	1.854943E+0	1.852761E+0	1.881797E+0	1.847977E+0	1.807768E+0	1.848383E+0	1.902600E+0	1.836800E+0	1.868719E+0	1.850867E+0	1.853366E+0	1.869699E+0	1.824042E+0	1.898710E+0	1.873125E+0	1.903604E+0	1.787963E+0	1.837619E+0	1.843885E+0	1.864894E+0	1.871626E+0	1.874248E+0	1.870073E+0	1.838336E+0	1.804898E+0	1.802562E+0	1.887377E+0	1.873447E+0	1.834739E+0	1.850607E+0	1.805225E+0	1.853463E+0	1.822059E+0	1.850044E+0	1.957335E+0	1.852580E+0	1.821279E+0	1.792410E+0	1.886771E+0	1.818078E+0	1.817044E+0	1.814047E+0	1.861665E+0	1.885497E+0	1.848918E+0	1.801596E+0	1.907556E+0	1.816057E+0	1.915126E+0	1.802158E+0	1.812613E+0	1.905487E+0	1.839626E+0	1.868723E+0	1.876269E+0	1.843751E+0	1.864507E+0	1.852544E+0	1.841785E+0	1.861714E+0	1.848491E+0	1.853255E+0	1.819437E+0	1.856509E+0	1.827977E+0	1.824394E+0	1.804935E+0	1.789617E+0	1.810892E+0	1.784896E+0	1.791758E+0	1.836828E+0	1.812053E+0	1.822673E+0	1.812321E+0	1.830869E+0	1.759130E+0	1.871640E+0	1.816583E+0	1.789879E+0	1.792929E+0	1.828285E+0	1.842068E+0	1.881536E+0	1.788917E+0	1.863370E+0	1.842103E+0	1.846822E+0	1.732220E+0	1.826446E+0	1.890103E+0	1.812686E+0	1.807343E+0	1.794010E+0	1.793109E+0	1.840423E+0	1.869442E+0	1.816506E+0	1.835118E+0	1.795326E+0	1.833695E+0	1.883986E+0	1.884354E+0	1.858176E+0	1.743310E+0	1.822424E+0	1.775487E+0	1.807417E+0	1.770194E+0	1.804245E+0	1.872522E+0	1.851758E+0	1.773205E+0	1.788797E+0	1.831569E+0	1.766112E+0	1.756724E+0	1.894710E+0	1.822737E+0	1.780840E+0	1.821919E+0	1.884938E+0	1.784487E+0	1.787025E+0	1.796183E+0	1.782063E+0	1.803038E+0	1.825137E+0	1.823639E+0	1.738603E+0	1.785741E+0	1.837166E+0	1.780438E+0	1.782396E+0	1.838139E+0	1.779156E+0	1.804481E+0	1.775152E+0	1.814372E+0	1.798840E+0	1.868615E+0	1.820473E+0	1.885147E+0	1.856822E+0
5.354170E+2	1.619700E+0	1.684039E+0	1.674676E+0	1.588062E+0	1.584153E+0	1.547800E+0	1.634718E+0	1.585372E+0	1.663358E+0	1.614838E+0	1.597492E+0	1.588097E+0	1.650146E+0	1.572415E+0	1.612386E+0	1.610606E+0	1.635747E+0	1.625741E+0	1.612784E+0	1.598648E+0	1.668431E+0	1.638877E+0	1.624605E+0	1.645275E+0	1.610173E+0	1.640357E+0	1.603792E+0	1.611510E+0	1.582324E+0	1.593149E+0	1.519433E+0	1.583575E+0	1.551724E+0	1.654330E+0	1.591532E+0	1.577127E+0	1.595303E+0	1.603110E+0	1.583756E+0	1.584263E+0	1.601081E+0	1.587588E+0	1.624643E+0	1.541774E+0	1.561911E+0	1.614008E+0	1.658940E+0	1.604300E+0	1.619820E+0	1.622565E+0	1.602840E+0	1.639959E+0	1.589778E+0	1.594895E+0	1.592725E+0	1.598441E+0	1.651559E+0	1.585996E+0	1.574114E+0	1.516273E+0	1.614331E+0	1.607909E+0	1.558575E+0	1.601161E+0	1.620735E+0	1.540954E+0	1.595137E+0	1.522291E+0	1.553868E+0	1.625843E+0	1.564458E+0	1.677710E+0	1.622023E+0	1.576271E+0	1.564814E+0	1.597511E+0	1.624192E+0	1.611099E+0	1.607166E+0	1.617667E+0	1.603647E+0	1.603743E+0	1.595619E+0	1.537049E+0	1.546882E+0	1.606831E+0	1.597855E+0	1.558126E+0	1.582155E+0	1.561084E+0	1.583442E+0	1.566421E+0	1.548775E+0	1.624937E+0	1.530400E+0	1.565647E+0	1.545623E+0	1.559228E+0	1.591568E+0	1.555091E+0	1.533865E+0	1.550421E+0	1.542401E+0	1.533557E+0	1.561501E+0	1.541233E+0	1.605001E+0	1.538274E+0	1.567792E+0	1.634554E+0	1.601287E+0	1.585691E+0	1.665809E+0	1.611079E+0	1.600068E+0	1.538836E+0	1.616626E+0	1.531263E+0	1.574234E+0	1.615785E+0	1.539778E+0	1.533140E+0	1.544936E+0	1.590960E+0	1.586728E+0	1.601144E+0	1.594401E+0	1.572604E+0	1.552141E+0	1.607322E+0	1.526917E+0	1.608384E+0	1.574949E+0	1.593011E+0	1.534588E+0	1.579327E+0	1.570203E+0	1.578289E+0	1.572791E+0	1.564784E+0	1.524248E+0	1.636241E+0	1.589708E+0	1.545979E+0	1.596738E+0	1.562303E+0	1.562463E+0	1.533189E+0	1.604324E+0	1.565867E+0	1.517400E+0	1.545167E+0	1.561847E+0	1.578701E+0	1.606244E+0	1.509114E+0	1.534834E+0	1.549833E+0	1.546698E+0	1.615841E+0	1.526562E+0	1.579590E+0	1.552084E+0	1.536995E+0	1.536510E+0	1.551209E+0	1.573255E+0	1.618171E+0	1.561584E+0	1.583476E+0	1.565216E+0
5.355630E+2	1.385022E+0	1.438798E+0	1.441889E+0	1.453923E+0	1.419498E+0	1.342806E+0	1.395723E+0	1.308817E+0	1.399985E+0	1.406550E+0	1.349697E+0	1.407071E+0	1.413988E+0	1.435411E+0	1.415446E+0	1.355365E+0	1.427369E+0	1.382711E+0	1.374780E+0	1.421940E+0	1.429262E+0	1.366521E+0	1.353309E+0	1.396034E+0	1.380918E+0	1.373408E+0	1.426092E+0	1.373480E+0	1.368752E+0	1.374498E+0	1.372969E+0	1.386579E+0	1.412983E+0	1.433191E+0	1.374691E+0	1.400891E+0	1.389704E+0	1.376601E+0	1.385900E+0	1.419018E+0	1.421900E+0	1.413659E+0	1.373419E+0	1.423278E+0	1.382364E+0	1.410616E+0	1.426970E+0	1.427079E+0	1.383491E+0	1.380078E+0	1.355404E+0	1.396567E+0	1.383480E+0	1.396548E+0	1.398521E+0	1.413955E+0	1.413837E+0	1.439924E+0	1.441207E+0	1.360921E+0	1.373529E+0	1.367371E+0	1.416689E+0	1.351239E+0	1.379946E+0	1.431603E+0	1.387464E+0	1.412487E+0	1.384616E+0	1.393229E+0	1.339561E+0	1.465344E+0	1.380406E+0	1.339219E+0	1.324045E+0	1.441486E+0	1.360602E+0	1.365801E+0	1.399276E+0	1.400667E+0	1.393101E+0	1.408299E+0	1.460294E+0	1.385652E+0	1.437698E+0	1.437518E+0	1.391194E+0	1.390044E+0	1.404470E+0	1.354231E+0	1.379698E+0	1.428484E+0	1.391708E+0	1.439932E+0	1.397568E+0	1.363155E+0	1.429524E+0	1.423180E+0	1.398128E+0	1.381845E+0	1.382419E+0	1.367495E+0	1.354567E+0	1.366745E+0	1.370361E+0	1.409540E+0	1.409769E+0	1.355801E+0	1.401263E+0	1.421627E+0	1.395303E+0	1.408758E+0	1.426598E+0	1.374975E+0	1.391751E+0	1.404211E+0	1.381579E+0	1.377680E+0	1.348129E+0	1.358138E+0	1.384287E+0	1.354230E+0	1.346679E+0	1.346515E+0	1.342609E+0	1.337175E+0	1.406423E+0	1.379356E+0	1.405325E+0	1.395507E+0	1.348281E+0	1.315137E+0	1.414442E+0	1.397470E+0	1.411293E+0	1.420449E+0	1.436804E+0	1.366114E+0	1.405282E+0	1.374990E+0	1.351623E+0	1.389728E+0	1.376892E+0	1.334975E+0	1.312024E+0	1.410408E+0	1.395787E+0	1.351986E+0	1.400751E+0	1.383472E+0	1.385357E+0	1.418540E+0	1.360353E+0	1.378551E+0	1.414807E+0	1.342693E+0	1.368130E+0	1.322275E+0	1.365521E+0	1.412880E+0	1.378356E+0	1.394404E+0	1.399853E+0	1.361837E+0	1.378741E+0	1.373953E+0	1.365119E+0	1.348022E+0	1.381831E+0	1.393249E+0	1.424951E+0
5.357090E+2	1.182765E+0	1.183142E+0	1.263000E+0	1.209772E+0	1.206594E+0	1.175171E+0	1.179488E+0	1.201887E+0	1.239110E+0	1.212261E+0	1.233867E+0	1.157633E+0	1.209551E+0	1.175615E+0	1.210674E+0	1.220132E+0	1.226271E+0	1.240579E+0	1.134269E+0	1.212932E+0	1.220005E+0	1.198945E+0	1.181798E+0	1.227127E+0	1.236764E+0	1.202933E+0	1.223022E+0	1.200352E+0	1.159925E+0	1.156674E+0	1.192885E+0	1.199899E+0	1.188739E+0	1.220433E+0	1.156468E+0	1.186838E+0	1.170767E+0	1.212848E+0	1.236316E+0	1.199436E+0	1.206198E+0	1.217098E+0	1.196816E+0	1.186317E+0	1.158761E+0	1.204432E+0	1.207438E+0	1.210312E+0	1.230312E+0	1.191776E+0	1.205951E+0	1.222003E+0	1.163096E+0	1.196604E+0	1.186062E+0	1.196638E+0	1.236474E+0	1.183463E+0	1.233065E+0	1.173136E+0	1.176617E+0	1.220495E+0	1.245718E+0	1.221082E+0	1.173613E+0	1.189191E+0	1.133269E+0	1.241466E+0	1.221536E+0	1.221839E+0	1.200403E+0	1.210673E+0	1.239961E+0	1.197678E+0	1.198501E+0	1.223252E+0	1.205759E+0	1.186223E+0	1.237215E+0	1.180324E+0	1.233294E+0	1.194531E+0	1.216668E+0	1.246069E+0	1.184841E+0	1.247684E+0	1.198937E+0	1.197513E+0	1.188656E+0	1.150027E+0	1.222787E+0	1.175046E+0	1.198942E+0	1.242436E+0	1.224541E+0	1.198108E+0	1.260590E+0	1.185107E+0	1.234598E+0	1.235980E+0	1.220644E+0	1.213323E+0	1.197774E+0	1.165649E+0	1.178890E+0	1.214274E+0	1.234290E+0	1.215417E+0	1.235346E+0	1.223278E+0	1.230510E+0	1.121285E+0	1.229575E+0	1.200634E+0	1.200023E+0	1.184225E+0	1.249527E+0	1.177020E+0	1.268620E+0	1.223556E+0	1.177005E+0	1.165598E+0	1.178254E+0	1.194165E+0	1.254007E+0	1.260417E+0	1.203722E+0	1.176719E+0	1.240971E+0	1.209814E+0	1.272850E+0	1.190476E+0	1.186833E+0	1.211377E+0	1.199559E+0	1.169139E+0	1.201763E+0	1.210345E+0	1.169397E+0	1.181269E+0	1.179448E+0	1.227597E+0	1.233247E+0	1.153238E+0	1.177969E+0	1.209769E+0	1.215988E+0	1.166457E+0	1.262495E+0	1.208140E+0	1.212348E+0	1.189035E+0	1.222090E+0	1.187776E+0	1.229092E+0	1.167509E+0	1.204003E+0	1.177501E+0	1.227957E+0	1.205173E+0	1.174044E+0	1.190853E+0	1.180728E+0	1.193652E+0	1.239955E+0	1.229455E+0	1.234054E+0	1.225972E+0	1.212223E+0	1.236425E+0	1.204839E+0
5.358600E+2	9.878035E-1	9.901492E-1	9.995933E-1	9.796546E-1	9.921879E-1	9.756436E-1	1.042525E+0	1.001564E+0	9.743616E-1	9.694333E-1	9.881507E-1	1.004445E+0	9.851074E-1	9.918887E-1	9.446559E-1	1.009210E+0	9.720454E-1	9.947646E-1	9.703914E-1	9.617536E-1	9.922561E-1	1.024056E+0	9.719546E-1	1.015953E+0	1.004351E+0	9.569384E-1	9.564550E-1	9.621993E-1	9.903932E-1	1.003819E+0	9.766863E-1	9.302860E-1	9.677954E-1	9.856028E-1	1.007024E+0	9.713233E-1	1.030992E+0	9.998172E-1	9.534128E-1	1.015444E+0	9.503302E-1	1.006865E+0	9.839118E-1	9.695804E-1	9.610026E-1	9.534499E-1	9.575849E-1	9.873609E-1	9.922402E-1	9.896192E-1	9.688080E-1	9.713382E-1	9.582485E-1	1.021120E+0	9.880048E-1	9.709210E-1	9.859864E-1	9.671226E-1	9.945592E-1	9.573086E-1	9.842767E-1	1.004836E+0	9.690880E-1	1.024444E+0	9.898851E-1	1.003846E+0	1.002090E+0	1.010946E+0	9.814110E-1	1.008224E+0	9.764975E-1	9.992647E-1	9.958308E-1	1.004002E+0	9.623533E-1	9.942954E-1	1.014292E+0	9.737798E-1	1.003700E+0	9.837998E-1	1.049091E+0	1.029735E+0	9.815420E-1	1.002081E+0	9.410291E-1	1.023270E+0	1.008356E+0	9.497423E-1	1.005512E+0	9.999616E-1	9.931275E-1	9.804433E-1	9.789287E-1	9.904610E-1	1.027504E+0	1.016559E+0	9.621787E-1	9.844720E-1	9.789637E-1	9.735299E-1	1.039201E+0	9.711931E-1	9.758577E-1	9.640133E-1	9.640939E-1	9.804426E-1	9.936256E-1	9.490404E-1	9.900702E-1	1.028824E+0	1.040337E+0	9.835909E-1	1.041957E+0	9.772123E-1	9.945692E-1	9.672972E-1	1.012184E+0	9.673312E-1	1.004638E+0	9.823976E-1	9.579466E-1	9.835628E-1	9.947228E-1	9.897496E-1	9.808420E-1	1.021558E+0	9.959972E-1	9.891315E-1	1.033002E+0	9.465226E-1	1.009184E+0	9.879501E-1	9.734414E-1	9.901321E-1	1.034140E+0	9.781093E-1	1.010909E+0	9.841980E-1	1.001644E+0	1.016989E+0	1.007885E+0	1.041119E+0	9.943920E-1	9.709066E-1	9.256306E-1	1.028247E+0	9.838853E-1	9.826573E-1	1.024318E+0	9.746583E-1	9.855123E-1	9.731345E-1	9.771104E-1	9.645618E-1	9.963243E-1	9.883308E-1	1.021541E+0	1.036749E+0	9.948568E-1	1.005815E+0	1.010330E+0	1.044148E+0	1.000452E+0	1.013772E+0	1.056178E+0	9.803315E-1	1.052347E+0	1.023801E+0	9.354630E-1	1.002141E+0	9.698354E-1
5.360070E+2	8.379810E-1	7.832656E-1	8.111526E-1	8.264363E-1	8.184698E-1	7.858664E-1	8.222873E-1	7.887932E-1	8.237934E-1	8.206639E-1	7.939995E-1	8.020005E-1	8.064229E-1	8.152000E-1	7.810847E-1	8.088023E-1	8.292112E-1	8.103061E-1	8.005363E-1	8.173594E-1	8.572874E-1	8.209368E-1	8.393894E-1	7.957061E-1	8.133267E-1	8.247231E-1	8.548939E-1	8.276203E-1	8.158103E-1	8.154423E-1	8.081245E-1	8.305455E-1	7.788909E-1	8.089512E-1	7.957623E-1	8.167651E-1	7.958929E-1	8.601453E-1	8.276231E-1	8.243694E-1	7.825875E-1	8.397897E-1	8.285323E-1	8.122973E-1	8.165458E-1	8.090384E-1	8.519865E-1	8.040541E-1	8.296383E-1	8.196765E-1	7.972873E-1	8.434824E-1	8.316551E-1	8.133887E-1	8.301059E-1	8.535642E-1	7.926912E-1	7.913104E-1	8.269504E-1	8.077355E-1	8.241146E-1	8.262319E-1	8.400857E-1	7.693813E-1	7.878175E-1	8.171919E-1	8.108335E-1	8.114462E-1	8.207769E-1	7.979876E-1	8.450485E-1	8.281420E-1	8.080778E-1	8.054186E-1	8.168172E-1	8.190915E-1	8.091123E-1	7.963487E-1	8.132745E-1	8.119790E-1	7.901175E-1	8.190259E-1	8.185592E-1	8.128071E-1	7.823365E-1	8.667122E-1	8.381407E-1	8.456362E-1	8.498044E-1	7.977162E-1	8.176995E-1	8.463564E-1	7.920837E-1	8.412439E-1	8.224603E-1	8.299980E-1	8.277100E-1	8.251495E-1	8.649150E-1	8.007380E-1	8.174610E-1	8.199893E-1	8.303668E-1	8.257247E-1	8.175717E-1	7.929357E-1	8.189570E-1	8.272421E-1	8.339303E-1	8.446743E-1	8.381987E-1	8.074762E-1	8.462058E-1	8.068492E-1	7.884423E-1	7.795894E-1	8.358664E-1	8.103235E-1	8.085882E-1	8.181504E-1	8.214531E-1	8.269318E-1	8.242645E-1	8.221362E-1	8.258768E-1	8.115099E-1	8.228174E-1	8.249569E-1	8.284924E-1	8.200679E-1	7.970744E-1	8.094747E-1	8.443216E-1	7.821829E-1	8.365067E-1	8.096706E-1	8.579109E-1	8.099911E-1	8.252561E-1	7.957187E-1	8.083311E-1	8.224001E-1	8.332279E-1	8.057064E-1	8.161344E-1	8.538111E-1	8.216285E-1	8.040278E-1	8.385078E-1	8.307763E-1	8.243426E-1	7.746856E-1	8.033241E-1	8.056703E-1	8.349757E-1	8.142342E-1	8.340852E-1	8.040043E-1	8.335672E-1	8.343822E-1	8.095146E-1	8.234692E-1	7.918788E-1	8.227476E-1	8.360772E-1	8.137817E-1	8.405046E-1	8.295980E-1	7.957581E-1	7.982762E-1	8.512782E-1
5.362630E+2	6.275758E-1	6.581642E-1	6.302179E-1	6.272792E-1	6.383727E-1	6.347527E-1	6.787742E-1	6.597421E-1	6.084474E-1	6.563567E-1	6.080503E-1	6.549325E-1	6.433951E-1	6.485088E-1	6.253564E-1	6.702717E-1	6.429968E-1	6.352568E-1	6.377431E-1	6.473187E-1	6.304562E-1	6.453514E-1	6.246116E-1	6.435177E-1	6.547350E-1	6.514694E-1	6.344782E-1	6.194557E-1	6.179252E-1	6.425894E-1	6.590447E-1	6.485592E-1	6.528240E-1	6.234396E-1	6.203557E-1	6.211576E-1	6.364858E-1	6.582313E-1	6.337482E-1	6.316419E-1	6.613039E-1	6.628353E-1	6.556055E-1	6.295373E-1	6.338329E-1	6.306038E-1	6.466047E-1	6.302325E-1	6.521749E-1	6.539862E-1	6.389514E-1	6.602790E-1	6.426623E-1	6.687546E-1	6.651057E-1	6.525002E-1	6.183491E-1	6.509476E-1	6.272068E-1	5.986125E-1	6.241921E-1	6.250739E-1	6.999630E-1	6.314634E-1	6.483572E-1	6.409844E-1	6.305349E-1	6.076767E-1	6.414552E-1	6.343119E-1	6.566672E-1	6.498766E-1	6.528904E-1	6.545728E-1	6.348439E-1	6.392284E-1	6.067218E-1	6.728233E-1	6.560107E-1	6.500974E-1	6.550723E-1	6.236746E-1	6.551601E-1	6.193003E-1	6.426050E-1	6.404127E-1	6.665288E-1	6.494892E-1	6.362527E-1	6.170519E-1	6.252919E-1	6.445809E-1	6.382088E-1	6.674109E-1	6.442332E-1	6.349507E-1	6.160431E-1	6.093714E-1	6.345818E-1	6.548017E-1	6.591108E-1	6.470728E-1	6.529050E-1	6.575888E-1	6.476070E-1	6.379152E-1	6.703695E-1	6.582432E-1	6.377737E-1	6.735920E-1	6.558022E-1	6.276685E-1	6.556483E-1	6.431045E-1	6.448484E-1	6.140310E-1	6.971687E-1	6.156316E-1	6.234784E-1	6.294481E-1	6.543932E-1	6.163713E-1	6.077388E-1	6.263132E-1	6.379303E-1	6.221875E-1	6.611509E-1	6.164680E-1	6.645109E-1	6.313587E-1	6.305040E-1	6.628564E-1	6.725579E-1	6.497868E-1	6.702366E-1	6.835594E-1	6.279544E-1	6.614697E-1	6.722809E-1	6.521847E-1	6.323858E-1	6.315144E-1	6.688951E-1	6.138305E-1	6.813074E-1	6.779955E-1	6.536437E-1	6.555478E-1	6.599802E-1	6.250200E-1	6.386093E-1	6.492697E-1	6.661446E-1	6.496683E-1	6.645091E-1	6.327997E-1	6.710699E-1	6.375299E-1	6.697780E-1	6.384093E-1	6.198920E-1	6.525931E-1	6.207197E-1	6.740460E-1	6.315380E-1	6.636122E-1	6.420844E-1	6.686734E-1	6.832821E-1	6.862300E-1	6.732911E-1
5.365190E+2	5.407878E-1	5.062378E-1	5.224394E-1	5.282600E-1	5.298296E-1	5.048745E-1	5.479446E-1	5.153575E-1	5.209354E-1	5.464895E-1	5.061042E-1	5.162620E-1	5.195190E-1	5.213761E-1	5.065084E-1	5.243385E-1	5.231892E-1	5.338112E-1	5.103507E-1	5.345025E-1	5.598070E-1	5.353475E-1	5.386475E-1	5.006227E-1	5.075029E-1	5.207549E-1	4.973412E-1	5.362799E-1	5.315037E-1	5.152214E-1	5.226526E-1	4.949544E-1	5.295336E-1	5.365124E-1	5.182099E-1	4.933493E-1	5.267773E-1	5.131955E-1	5.358808E-1	5.206374E-1	5.407435E-1	5.227178E-1	5.120983E-1	5.182110E-1	4.865356E-1	5.341925E-1	5.116077E-1	5.094908E-1	5.598300E-1	5.384147E-1	5.182103E-1	4.928946E-1	5.241881E-1	5.640633E-1	5.334916E-1	5.653880E-1	5.247129E-1	5.269611E-1	4.895840E-1	5.246553E-1	5.012006E-1	5.148450E-1	5.253310E-1	5.121015E-1	5.091877E-1	5.338674E-1	5.111677E-1	5.460387E-1	5.589902E-1	5.253239E-1	5.499313E-1	5.306664E-1	5.127736E-1	5.601430E-1	5.216466E-1	5.348942E-1	5.321662E-1	5.398286E-1	5.420673E-1	5.494761E-1	4.943727E-1	5.217306E-1	5.274381E-1	5.242055E-1	5.282221E-1	5.400077E-1	5.446158E-1	5.372986E-1	5.227594E-1	5.113754E-1	5.499514E-1	5.544426E-1	5.509593E-1	5.368524E-1	5.104683E-1	4.933812E-1	5.328313E-1	5.280131E-1	5.430775E-1	5.260519E-1	5.519349E-1	5.460162E-1	5.301411E-1	5.403960E-1	5.087847E-1	5.606260E-1	5.191439E-1	5.243654E-1	5.287335E-1	5.485545E-1	5.480397E-1	5.158684E-1	5.612130E-1	5.322989E-1	5.206605E-1	5.027322E-1	4.999487E-1	5.135894E-1	5.580033E-1	5.195247E-1	5.452921E-1	5.415943E-1	4.881084E-1	4.952258E-1	5.099682E-1	5.399492E-1	5.541521E-1	5.614078E-1	5.298846E-1	5.286706E-1	5.053022E-1	5.239942E-1	5.207849E-1	5.374582E-1	5.248274E-1	5.496548E-1	5.378613E-1	5.513519E-1	5.544379E-1	5.173288E-1	5.365618E-1	4.973715E-1	5.394122E-1	5.314670E-1	5.432231E-1	5.579648E-1	5.373946E-1	5.370708E-1	5.873343E-1	5.540437E-1	4.988754E-1	5.191139E-1	5.127895E-1	5.389339E-1	5.338887E-1	5.291958E-1	5.286042E-1	5.365479E-1	5.593350E-1	5.523800E-1	5.040613E-1	5.283841E-1	5.182405E-1	5.346361E-1	5.362673E-1	5.431163E-1	5.554304E-1	5.357313E-1	5.538471E-1	5.849547E-1	5.974799E-1
5.367660E+2	5.167743E-1	5.063354E-1	5.161595E-1	4.777975E-1	5.193827E-1	4.817982E-1	5.213459E-1	4.994582E-1	5.009643E-1	5.146218E-1	4.990122E-1	5.054287E-1	5.191473E-1	5.024771E-1	5.075232E-1	4.999235E-1	5.090781E-1	5.145597E-1	4.804422E-1	5.206056E-1	4.944032E-1	5.368189E-1	5.148175E-1	4.927735E-1	5.229530E-1	5.069624E-1	5.290760E-1	4.993620E-1	5.014977E-1	5.390711E-1	5.021917E-1	4.816928E-1	4.891400E-1	5.208785E-1	5.000441E-1	5.351694E-1	5.136227E-1	4.973666E-1	5.083741E-1	4.791766E-1	5.023297E-1	4.831778E-1	5.144378E-1	4.993720E-1	4.994172E-1	5.158772E-1	4.879302E-1	5.089980E-1	5.104355E-1	5.361821E-1	4.615895E-1	5.216468E-1	5.026649E-1	5.063039E-1	4.920617E-1	5.087167E-1	5.097489E-1	5.168043E-1	5.002734E-1	5.083354E-1	4.974783E-1	5.267176E-1	5.167137E-1	5.565606E-1	4.887333E-1	5.249536E-1	5.220019E-1	5.010994E-1	5.355174E-1	5.058205E-1	5.032112E-1	5.175111E-1	5.029046E-1	5.119648E-1	4.882788E-1	5.263837E-1	4.919177E-1	5.150013E-1	4.941959E-1	5.083054E-1	4.816614E-1	4.962772E-1	4.938930E-1	5.124014E-1	5.081917E-1	5.362973E-1	5.091123E-1	5.134571E-1	5.432740E-1	5.220776E-1	5.040754E-1	4.834945E-1	4.990453E-1	5.270333E-1	5.286808E-1	5.323852E-1	5.362639E-1	5.265922E-1	5.282091E-1	5.083263E-1	5.089347E-1	4.785465E-1	5.128984E-1	5.129992E-1	4.914762E-1	5.133570E-1	5.234211E-1	5.292880E-1	4.986707E-1	4.943564E-1	5.331376E-1	4.761846E-1	4.907634E-1	5.031594E-1	5.142765E-1	4.909393E-1	5.311362E-1	5.224244E-1	5.116879E-1	5.055538E-1	5.037972E-1	5.270398E-1	5.092547E-1	5.312776E-1	4.988415E-1	4.889763E-1	5.045841E-1	4.786019E-1	5.199617E-1	4.778660E-1	5.015367E-1	5.071101E-1	4.817316E-1	4.985773E-1	5.241772E-1	5.346727E-1	5.283001E-1	5.092507E-1	5.064001E-1	5.247227E-1	4.966270E-1	5.289731E-1	5.181559E-1	4.629192E-1	5.110532E-1	4.706727E-1	5.133490E-1	5.039540E-1	5.135323E-1	5.117974E-1	5.147201E-1	4.963691E-1	4.923162E-1	5.266479E-1	5.314577E-1	4.613975E-1	4.831472E-1	5.280920E-1	5.092799E-1	5.135064E-1	5.115660E-1	5.121451E-1	5.289502E-1	5.208933E-1	5.191728E-1	5.370475E-1	5.211322E-1	4.712936E-1	4.967049E-1	5.215831E-1	5.495595E-1
5.370170E+2	5.405817E-1	5.088361E-1	5.225363E-1	4.978881E-1	4.914635E-1	5.103667E-1	5.410533E-1	5.086689E-1	5.308112E-1	5.193041E-1	5.008647E-1	4.968450E-1	4.890100E-1	5.062159E-1	5.238621E-1	4.864485E-1	4.810665E-1	5.509587E-1	5.437968E-1	5.235484E-1	5.459160E-1	5.386096E-1	5.153216E-1	5.470315E-1	5.521899E-1	5.284232E-1	4.851649E-1	5.138187E-1	4.884512E-1	5.394025E-1	4.872431E-1	5.356606E-1	5.027332E-1	5.431082E-1	5.126021E-1	4.995616E-1	5.367954E-1	5.426907E-1	5.088872E-1	5.352048E-1	5.328763E-1	5.449640E-1	5.305876E-1	5.241246E-1	5.283259E-1	5.113203E-1	5.263873E-1	5.233947E-1	5.188666E-1	5.176620E-1	5.298676E-1	5.017866E-1	4.596036E-1	5.384674E-1	5.363490E-1	5.471074E-1	4.910687E-1	5.223487E-1	5.511779E-1	5.142922E-1	5.181527E-1	5.098841E-1	5.398359E-1	5.400999E-1	5.101954E-1	5.369531E-1	5.183027E-1	5.226006E-1	5.249581E-1	5.436659E-1	5.027425E-1	5.366257E-1	5.101993E-1	5.456700E-1	5.284537E-1	5.235069E-1	4.820813E-1	5.293910E-1	5.194062E-1	5.383768E-1	5.260820E-1	5.206350E-1	5.272643E-1	5.151827E-1	5.024776E-1	5.386074E-1	5.186624E-1	5.054310E-1	5.438071E-1	5.440592E-1	5.334077E-1	5.267826E-1	5.100329E-1	5.368555E-1	4.984423E-1	5.150392E-1	5.431532E-1	5.155037E-1	5.523253E-1	5.161678E-1	5.442310E-1	5.280161E-1	5.538896E-1	4.968797E-1	5.278966E-1	5.567111E-1	5.408107E-1	5.175035E-1	5.012687E-1	5.429042E-1	5.333347E-1	5.046275E-1	5.116080E-1	5.612932E-1	5.247712E-1	5.389480E-1	5.209035E-1	5.324464E-1	5.021459E-1	5.233062E-1	5.138277E-1	5.018868E-1	5.305615E-1	5.338323E-1	5.307261E-1	5.474139E-1	5.528635E-1	5.116586E-1	5.365265E-1	5.345410E-1	5.440345E-1	5.218529E-1	5.344464E-1	5.154941E-1	5.470271E-1	5.337524E-1	5.398475E-1	5.236376E-1	5.230266E-1	5.431328E-1	5.272001E-1	5.555263E-1	5.393465E-1	5.295654E-1	5.262063E-1	5.224875E-1	5.777945E-1	5.177407E-1	5.695817E-1	5.214819E-1	5.313894E-1	5.182257E-1	5.344719E-1	5.153905E-1	5.066352E-1	5.354453E-1	5.013916E-1	5.499160E-1	5.499675E-1	5.243260E-1	4.981613E-1	5.088287E-1	5.095099E-1	5.314763E-1	5.172280E-1	5.296463E-1	5.389819E-1	5.598806E-1	5.190215E-1	5.241899E-1	5.295293E-1
5.372640E+2	6.058159E-1	6.121087E-1	5.975373E-1	5.840905E-1	5.953046E-1	5.670262E-1	5.954062E-1	5.880721E-1	5.374478E-1	5.828151E-1	5.838493E-1	5.834575E-1	5.964982E-1	5.856684E-1	5.918681E-1	5.771458E-1	5.878674E-1	5.877663E-1	5.913376E-1	5.980397E-1	6.232749E-1	6.180443E-1	6.026664E-1	5.941142E-1	5.558406E-1	5.890511E-1	5.852003E-1	5.827814E-1	5.999812E-1	6.022773E-1	6.256350E-1	5.760788E-1	5.859996E-1	6.024294E-1	5.874169E-1	6.234387E-1	5.781040E-1	5.968327E-1	6.237728E-1	5.996319E-1	5.900491E-1	6.104030E-1	6.312198E-1	6.031869E-1	6.265400E-1	6.070477E-1	6.062419E-1	6.175617E-1	6.246178E-1	5.787017E-1	6.198136E-1	5.643431E-1	6.091450E-1	6.115577E-1	6.342813E-1	5.672345E-1	5.555484E-1	6.076383E-1	5.907323E-1	5.911711E-1	5.936893E-1	5.893694E-1	6.134901E-1	5.927710E-1	5.713947E-1	5.737931E-1	6.276083E-1	6.062285E-1	6.020900E-1	6.115621E-1	6.073795E-1	6.321487E-1	5.654219E-1	5.872632E-1	5.773229E-1	5.821445E-1	5.996871E-1	6.145658E-1	6.186751E-1	6.037264E-1	5.858256E-1	6.170707E-1	6.326541E-1	6.027923E-1	5.780707E-1	5.724336E-1	5.999249E-1	6.050124E-1	6.088229E-1	6.138101E-1	5.920868E-1	6.139142E-1	5.729442E-1	6.099259E-1	6.047474E-1	6.319660E-1	5.981694E-1	6.119877E-1	5.994401E-1	5.681029E-1	6.054744E-1	6.100733E-1	6.164065E-1	5.637175E-1	6.220089E-1	6.137844E-1	5.731031E-1	6.233528E-1	5.803256E-1	6.294014E-1	5.955275E-1	6.023436E-1	5.773474E-1	5.854338E-1	6.085626E-1	5.834256E-1	6.272692E-1	6.140607E-1	5.981371E-1	6.048628E-1	5.981277E-1	6.146514E-1	6.120950E-1	5.931972E-1	5.951345E-1	6.417174E-1	6.160459E-1	5.619754E-1	6.026023E-1	6.174471E-1	6.032527E-1	5.914093E-1	6.370092E-1	6.074403E-1	6.167529E-1	5.988320E-1	5.854237E-1	6.445942E-1	5.999720E-1	6.297791E-1	5.885098E-1	6.249736E-1	6.435023E-1	5.750747E-1	5.998531E-1	5.854489E-1	5.946564E-1	5.919842E-1	6.419028E-1	6.278187E-1	6.016459E-1	5.996084E-1	6.039936E-1	6.213013E-1	6.220280E-1	6.028549E-1	5.793204E-1	5.757975E-1	6.182339E-1	5.932527E-1	5.945194E-1	6.122873E-1	5.988214E-1	5.989674E-1	6.274816E-1	6.257036E-1	6.283236E-1	6.092141E-1	6.144262E-1	5.855666E-1	5.526453E-1
5.375110E+2	6.950812E-1	7.146076E-1	7.130534E-1	7.238230E-1	6.935881E-1	7.251203E-1	7.332379E-1	7.077348E-1	6.951039E-1	6.930924E-1	7.312534E-1	7.582957E-1	7.027257E-1	7.336761E-1	7.392703E-1	7.078466E-1	7.385091E-1	7.257302E-1	6.903688E-1	7.534368E-1	7.325563E-1	7.217891E-1	7.242051E-1	6.869687E-1	7.197361E-1	7.077869E-1	7.438642E-1	7.285963E-1	6.867531E-1	7.038638E-1	7.287329E-1	7.085882E-1	7.056351E-1	7.203512E-1	7.110286E-1	7.060240E-1	6.872517E-1	7.123033E-1	7.321674E-1	7.277810E-1	7.175687E-1	7.036481E-1	7.299532E-1	7.631735E-1	6.975245E-1	7.040451E-1	7.278947E-1	6.895685E-1	7.322637E-1	6.989603E-1	6.983508E-1	7.553195E-1	7.084288E-1	6.995394E-1	6.901578E-1	7.410374E-1	6.931914E-1	7.038082E-1	7.432104E-1	6.846398E-1	7.211134E-1	7.567013E-1	7.501185E-1	6.994550E-1	7.075035E-1	7.025647E-1	7.212467E-1	7.038989E-1	7.555996E-1	6.968826E-1	7.225402E-1	7.229089E-1	6.781611E-1	7.258727E-1	7.009638E-1	7.078494E-1	7.109218E-1	7.655002E-1	7.357255E-1	7.327481E-1	7.318033E-1	7.089952E-1	7.195356E-1	6.952827E-1	6.836218E-1	7.132749E-1	7.190436E-1	7.102911E-1	7.089407E-1	7.468131E-1	7.082203E-1	7.164344E-1	6.817465E-1	7.002371E-1	7.279233E-1	7.269484E-1	7.000704E-1	6.999056E-1	7.487488E-1	7.229645E-1	6.908218E-1	7.142986E-1	7.209201E-1	6.987459E-1	6.912066E-1	7.433237E-1	6.900361E-1	7.066739E-1	7.419815E-1	7.318190E-1	7.439971E-1	6.796829E-1	7.590382E-1	7.413295E-1	7.126572E-1	6.985246E-1	7.256393E-1	7.147046E-1	7.017063E-1	7.249930E-1	7.259183E-1	7.199057E-1	7.653647E-1	7.399875E-1	7.005868E-1	7.228450E-1	7.245282E-1	6.940294E-1	7.316495E-1	7.138377E-1	7.108122E-1	6.913055E-1	7.076467E-1	7.192786E-1	7.374479E-1	7.213899E-1	7.424339E-1	7.214251E-1	7.300846E-1	7.518726E-1	7.193253E-1	6.908792E-1	6.911693E-1	6.897514E-1	7.055022E-1	7.020783E-1	7.202929E-1	6.725701E-1	7.391971E-1	7.126466E-1	7.148296E-1	7.032933E-1	7.206460E-1	7.240541E-1	7.229912E-1	7.327935E-1	6.909713E-1	6.985414E-1	7.145425E-1	7.201650E-1	6.757559E-1	7.648982E-1	7.312888E-1	7.004014E-1	7.360361E-1	7.320585E-1	7.043009E-1	7.647757E-1	7.218930E-1	7.228913E-1	7.297925E-1
5.377580E+2	7.765368E-1	7.689109E-1	7.391880E-1	7.866960E-1	7.882286E-1	8.002085E-1	7.810800E-1	7.772924E-1	7.583606E-1	7.840310E-1	7.838372E-1	7.403017E-1	7.245742E-1	7.678496E-1	7.838925E-1	7.629073E-1	7.878949E-1	7.293559E-1	7.816662E-1	7.879384E-1	7.638040E-1	7.859284E-1	8.183620E-1	7.964157E-1	7.363350E-1	7.688220E-1	7.672479E-1	7.686253E-1	7.501832E-1	7.831746E-1	7.579680E-1	7.769059E-1	7.212156E-1	8.083734E-1	7.660654E-1	7.423251E-1	7.727051E-1	7.625342E-1	7.709094E-1	7.708193E-1	7.918101E-1	7.695861E-1	7.998816E-1	7.449250E-1	7.686754E-1	7.903269E-1	7.753939E-1	7.358781E-1	7.750718E-1	7.862227E-1	7.410749E-1	8.250631E-1	7.270850E-1	7.956777E-1	7.607328E-1	7.863220E-1	7.592111E-1	7.665765E-1	7.861122E-1	7.610682E-1	7.635549E-1	7.523598E-1	8.132378E-1	7.832540E-1	7.496073E-1	7.489585E-1	7.634228E-1	7.784933E-1	7.883182E-1	7.584087E-1	8.054392E-1	8.008350E-1	7.600686E-1	7.473719E-1	7.733455E-1	7.043571E-1	7.601570E-1	7.529793E-1	7.761426E-1	8.096464E-1	7.019312E-1	8.019056E-1	7.367596E-1	7.821484E-1	7.775185E-1	7.862072E-1	7.947978E-1	7.565101E-1	7.300608E-1	7.765470E-1	8.058490E-1	7.575519E-1	7.679547E-1	7.745896E-1	8.049103E-1	7.728661E-1	7.679837E-1	7.635222E-1	7.506186E-1	7.339797E-1	7.470609E-1	7.848744E-1	7.283979E-1	7.585500E-1	7.512063E-1	7.930537E-1	8.239880E-1	7.266902E-1	7.472668E-1	7.931001E-1	7.887926E-1	7.562086E-1	7.809104E-1	8.048748E-1	7.785463E-1	7.734803E-1	7.708837E-1	7.939817E-1	7.635964E-1	7.734935E-1	7.630339E-1	7.940930E-1	8.030404E-1	7.613877E-1	7.553594E-1	8.006075E-1	7.449656E-1	7.449433E-1	7.864805E-1	7.172102E-1	7.548968E-1	7.872747E-1	7.430901E-1	7.851340E-1	7.832951E-1	7.689522E-1	7.572755E-1	7.892255E-1	8.142606E-1	7.706503E-1	6.930237E-1	7.982050E-1	7.557601E-1	7.651512E-1	7.653618E-1	7.540751E-1	7.846920E-1	7.665298E-1	7.770445E-1	7.342960E-1	7.807963E-1	7.667933E-1	7.501303E-1	7.713099E-1	8.043270E-1	7.898722E-1	7.668830E-1	7.647296E-1	7.541593E-1	7.399790E-1	7.669489E-1	7.505321E-1	7.674454E-1	7.673346E-1	7.311545E-1	8.028433E-1	7.963085E-1	7.512553E-1	7.414043E-1	7.799072E-1	8.620084E-1
5.380210E+2	9.401014E-1	9.402102E-1	9.337235E-1	9.454133E-1	9.351908E-1	9.017387E-1	9.593338E-1	9.259132E-1	9.260433E-1	9.019332E-1	9.276694E-1	9.452074E-1	9.114395E-1	8.986178E-1	9.519024E-1	9.465184E-1	9.274758E-1	9.414429E-1	8.780755E-1	9.051335E-1	9.426509E-1	9.414144E-1	9.217929E-1	9.301429E-1	9.218029E-1	9.112500E-1	9.535307E-1	9.070705E-1	9.165699E-1	9.108194E-1	9.584855E-1	9.224513E-1	9.447331E-1	9.467080E-1	9.420311E-1	8.979529E-1	8.954341E-1	9.254624E-1	9.062886E-1	9.267668E-1	9.024868E-1	9.642179E-1	9.418774E-1	9.421949E-1	9.261515E-1	9.388422E-1	9.370243E-1	9.316619E-1	9.058550E-1	9.136124E-1	9.244748E-1	9.132703E-1	9.541475E-1	9.446036E-1	9.324626E-1	9.189085E-1	9.328467E-1	9.180026E-1	9.121005E-1	9.286792E-1	9.196629E-1	9.209267E-1	9.672147E-1	9.282103E-1	9.389078E-1	9.582407E-1	9.624291E-1	9.564814E-1	9.079655E-1	9.544862E-1	9.578358E-1	9.541548E-1	9.908609E-1	9.385576E-1	8.779672E-1	9.534064E-1	9.339874E-1	9.797043E-1	8.953438E-1	9.371035E-1	9.309936E-1	9.008803E-1	9.214641E-1	9.052909E-1	9.083602E-1	9.023495E-1	9.598908E-1	9.186094E-1	9.207352E-1	9.292429E-1	9.293894E-1	9.162171E-1	9.113540E-1	9.341733E-1	9.077658E-1	9.369590E-1	9.203570E-1	9.432214E-1	9.866042E-1	8.904816E-1	9.036636E-1	9.391332E-1	9.222727E-1	8.900890E-1	9.038546E-1	9.374031E-1	9.035700E-1	9.096230E-1	9.104201E-1	1.010131E+0	9.295474E-1	9.120881E-1	9.702084E-1	9.156595E-1	9.448989E-1	9.056602E-1	9.240563E-1	9.280426E-1	9.165354E-1	9.472008E-1	9.346378E-1	9.350289E-1	9.225567E-1	9.156263E-1	9.218475E-1	9.145442E-1	9.656787E-1	9.108861E-1	9.131560E-1	9.393067E-1	9.309183E-1	9.478775E-1	9.205742E-1	9.472103E-1	9.525003E-1	9.355902E-1	9.322062E-1	9.248725E-1	9.885235E-1	9.478946E-1	9.127117E-1	9.289939E-1	9.645841E-1	9.189059E-1	9.438038E-1	9.396801E-1	1.004709E+0	8.849266E-1	9.325363E-1	9.551600E-1	9.476912E-1	9.086525E-1	9.305446E-1	9.193266E-1	9.448896E-1	8.829710E-1	8.962266E-1	9.213170E-1	9.621492E-1	9.163934E-1	9.047549E-1	9.308095E-1	8.940605E-1	9.461331E-1	9.257766E-1	9.549397E-1	9.425596E-1	9.069899E-1	9.017128E-1	9.350843E-1	9.724034E-1
5.382790E+2	1.095032E+0	1.034156E+0	1.041533E+0	1.111830E+0	1.003598E+0	1.050771E+0	1.034796E+0	1.026559E+0	1.094528E+0	1.038324E+0	1.047898E+0	1.059773E+0	1.075943E+0	1.067004E+0	1.080554E+0	1.116308E+0	1.071955E+0	1.072023E+0	1.038812E+0	1.119446E+0	1.102596E+0	1.072333E+0	1.063355E+0	1.091916E+0	1.054871E+0	1.067607E+0	1.110477E+0	1.073097E+0	1.068191E+0	1.026738E+0	1.075999E+0	1.065773E+0	1.083280E+0	1.047033E+0	1.071987E+0	1.068405E+0	1.087071E+0	1.085924E+0	1.039633E+0	1.082524E+0	1.052818E+0	1.058459E+0	1.073231E+0	1.085565E+0	1.055504E+0	1.060274E+0	1.082358E+0	1.062904E+0	1.054964E+0	1.064717E+0	1.099405E+0	1.058799E+0	1.055328E+0	1.081447E+0	1.047706E+0	1.066578E+0	1.034756E+0	1.013798E+0	1.046698E+0	1.071993E+0	1.046391E+0	1.061546E+0	1.068766E+0	1.108098E+0	1.053355E+0	1.092764E+0	1.050408E+0	1.080897E+0	1.097790E+0	1.061730E+0	1.017208E+0	1.057039E+0	1.060371E+0	1.065437E+0	1.083304E+0	1.063722E+0	1.019492E+0	1.087838E+0	1.083893E+0	1.067299E+0	1.010001E+0	1.064946E+0	1.055684E+0	1.057954E+0	1.082510E+0	1.128883E+0	1.040611E+0	1.077835E+0	1.101666E+0	1.077831E+0	1.051392E+0	1.041111E+0	1.050383E+0	1.059155E+0	1.050962E+0	1.092827E+0	1.050771E+0	9.966149E-1	1.112174E+0	1.010552E+0	1.066362E+0	1.062223E+0	1.088315E+0	1.030050E+0	1.056257E+0	1.098529E+0	1.046716E+0	1.087848E+0	1.047627E+0	1.065375E+0	1.065784E+0	1.049943E+0	1.094586E+0	1.092990E+0	1.049430E+0	1.058921E+0	1.071410E+0	1.044592E+0	1.082515E+0	1.043794E+0	1.026810E+0	1.036245E+0	1.051917E+0	1.070278E+0	1.036364E+0	1.067223E+0	1.090861E+0	1.097707E+0	1.080330E+0	1.049729E+0	1.053267E+0	1.033633E+0	1.080386E+0	1.030352E+0	1.064817E+0	1.062669E+0	1.045020E+0	1.034660E+0	1.052091E+0	1.088255E+0	1.023822E+0	1.101252E+0	1.073146E+0	9.924950E-1	1.035983E+0	1.139811E+0	1.105715E+0	1.077402E+0	1.081912E+0	1.074236E+0	1.080384E+0	1.083442E+0	1.070668E+0	1.089181E+0	1.065365E+0	1.020078E+0	1.033778E+0	1.069054E+0	1.081489E+0	1.075840E+0	1.075145E+0	1.051916E+0	1.043933E+0	1.048660E+0	1.048385E+0	1.092129E+0	1.099305E+0	1.047313E+0	1.072093E+0	1.063349E+0	1.206234E+0
5.385110E+2	1.329180E+0	1.333525E+0	1.289574E+0	1.275378E+0	1.313013E+0	1.250046E+0	1.268998E+0	1.290375E+0	1.234363E+0	1.262954E+0	1.276194E+0	1.243336E+0	1.280662E+0	1.310371E+0	1.269294E+0	1.263565E+0	1.248939E+0	1.305538E+0	1.268035E+0	1.267656E+0	1.317641E+0	1.276097E+0	1.288538E+0	1.229741E+0	1.288704E+0	1.265028E+0	1.303004E+0	1.301076E+0	1.220525E+0	1.226719E+0	1.275248E+0	1.353353E+0	1.258784E+0	1.288759E+0	1.283900E+0	1.236604E+0	1.261177E+0	1.293642E+0	1.286115E+0	1.274657E+0	1.301277E+0	1.303462E+0	1.337842E+0	1.316172E+0	1.247208E+0	1.266694E+0	1.290407E+0	1.272442E+0	1.261887E+0	1.298014E+0	1.234022E+0	1.236468E+0	1.269168E+0	1.264606E+0	1.272568E+0	1.280306E+0	1.272685E+0	1.248992E+0	1.337262E+0	1.246780E+0	1.240810E+0	1.273218E+0	1.244750E+0	1.257602E+0	1.234624E+0	1.270664E+0	1.277807E+0	1.258351E+0	1.265867E+0	1.332628E+0	1.269359E+0	1.303125E+0	1.204713E+0	1.244267E+0	1.300328E+0	1.302772E+0	1.245315E+0	1.246772E+0	1.315151E+0	1.280622E+0	1.270195E+0	1.266285E+0	1.280731E+0	1.282985E+0	1.283644E+0	1.267194E+0	1.281431E+0	1.334160E+0	1.286369E+0	1.288649E+0	1.266505E+0	1.294749E+0	1.246522E+0	1.302588E+0	1.293424E+0	1.272543E+0	1.229445E+0	1.245368E+0	1.291804E+0	1.262768E+0	1.242660E+0	1.295843E+0	1.265477E+0	1.282339E+0	1.238253E+0	1.241684E+0	1.299387E+0	1.260709E+0	1.256742E+0	1.300605E+0	1.246955E+0	1.266088E+0	1.251595E+0	1.266421E+0	1.232622E+0	1.237375E+0	1.309699E+0	1.286657E+0	1.238563E+0	1.302198E+0	1.247244E+0	1.267380E+0	1.255522E+0	1.278792E+0	1.219513E+0	1.253543E+0	1.263841E+0	1.245037E+0	1.215727E+0	1.233129E+0	1.293497E+0	1.238928E+0	1.280107E+0	1.260143E+0	1.309403E+0	1.248030E+0	1.261054E+0	1.310764E+0	1.215462E+0	1.284363E+0	1.213590E+0	1.286586E+0	1.302977E+0	1.287795E+0	1.241834E+0	1.283125E+0	1.302739E+0	1.262213E+0	1.302915E+0	1.253833E+0	1.289854E+0	1.213486E+0	1.245377E+0	1.301621E+0	1.311559E+0	1.251981E+0	1.270061E+0	1.221162E+0	1.295526E+0	1.305296E+0	1.293698E+0	1.271870E+0	1.309790E+0	1.236078E+0	1.225367E+0	1.290668E+0	1.257435E+0	1.248193E+0	1.267553E+0	1.251105E+0	1.283716E+0
5.387700E+2	1.519504E+0	1.474380E+0	1.503956E+0	1.474945E+0	1.518176E+0	1.510386E+0	1.443878E+0	1.440671E+0	1.527766E+0	1.465120E+0	1.491493E+0	1.539850E+0	1.446785E+0	1.523926E+0	1.468878E+0	1.487684E+0	1.506185E+0	1.509715E+0	1.468148E+0	1.474250E+0	1.510493E+0	1.542051E+0	1.504259E+0	1.512766E+0	1.489202E+0	1.462628E+0	1.515614E+0	1.510091E+0	1.469095E+0	1.457527E+0	1.479921E+0	1.497075E+0	1.494584E+0	1.523441E+0	1.497005E+0	1.468721E+0	1.478588E+0	1.491893E+0	1.454485E+0	1.467547E+0	1.479187E+0	1.468123E+0	1.516971E+0	1.548269E+0	1.462484E+0	1.467278E+0	1.534842E+0	1.517770E+0	1.515515E+0	1.440527E+0	1.438984E+0	1.461042E+0	1.509967E+0	1.501124E+0	1.470904E+0	1.483377E+0	1.497657E+0	1.486367E+0	1.516663E+0	1.456651E+0	1.485058E+0	1.440416E+0	1.503220E+0	1.495927E+0	1.416071E+0	1.482035E+0	1.471644E+0	1.477071E+0	1.520704E+0	1.483973E+0	1.451679E+0	1.537742E+0	1.420212E+0	1.400686E+0	1.488597E+0	1.533427E+0	1.481681E+0	1.474866E+0	1.494395E+0	1.463488E+0	1.469742E+0	1.451846E+0	1.460884E+0	1.493550E+0	1.451285E+0	1.451714E+0	1.508046E+0	1.526888E+0	1.483710E+0	1.508458E+0	1.505831E+0	1.466402E+0	1.442212E+0	1.486023E+0	1.490484E+0	1.483905E+0	1.483021E+0	1.452289E+0	1.497994E+0	1.466280E+0	1.471434E+0	1.453899E+0	1.445929E+0	1.438357E+0	1.450144E+0	1.416818E+0	1.476681E+0	1.427026E+0	1.512109E+0	1.499109E+0	1.509782E+0	1.454278E+0	1.486644E+0	1.452674E+0	1.437470E+0	1.428572E+0	1.515450E+0	1.463305E+0	1.501440E+0	1.441548E+0	1.443482E+0	1.466606E+0	1.465429E+0	1.482335E+0	1.459485E+0	1.423290E+0	1.542390E+0	1.468350E+0	1.449501E+0	1.444433E+0	1.475220E+0	1.450311E+0	1.482422E+0	1.445244E+0	1.486158E+0	1.461956E+0	1.426584E+0	1.438192E+0	1.450926E+0	1.470501E+0	1.408531E+0	1.448732E+0	1.469859E+0	1.403581E+0	1.386292E+0	1.433987E+0	1.536898E+0	1.410248E+0	1.483561E+0	1.441839E+0	1.502240E+0	1.457576E+0	1.466460E+0	1.486053E+0	1.519264E+0	1.415417E+0	1.406197E+0	1.473348E+0	1.479631E+0	1.436284E+0	1.446465E+0	1.460050E+0	1.444987E+0	1.396355E+0	1.469746E+0	1.486791E+0	1.448747E+0	1.434629E+0	1.444102E+0	1.499418E+0	1.561222E+0
5.390240E+2	1.710158E+0	1.750345E+0	1.700801E+0	1.686471E+0	1.668303E+0	1.658473E+0	1.730137E+0	1.736890E+0	1.718849E+0	1.645664E+0	1.681863E+0	1.684015E+0	1.691905E+0	1.716244E+0	1.622156E+0	1.685061E+0	1.678351E+0	1.685801E+0	1.710330E+0	1.676751E+0	1.700039E+0	1.665517E+0	1.683402E+0	1.679358E+0	1.651553E+0	1.693899E+0	1.755167E+0	1.710750E+0	1.661754E+0	1.673427E+0	1.726975E+0	1.628972E+0	1.633681E+0	1.731562E+0	1.722335E+0	1.676671E+0	1.700039E+0	1.643295E+0	1.681842E+0	1.669015E+0	1.696219E+0	1.677070E+0	1.681283E+0	1.727803E+0	1.651382E+0	1.676127E+0	1.626925E+0	1.665018E+0	1.670843E+0	1.632543E+0	1.684670E+0	1.723515E+0	1.656305E+0	1.723127E+0	1.655876E+0	1.658143E+0	1.688047E+0	1.672321E+0	1.690945E+0	1.691428E+0	1.653127E+0	1.675468E+0	1.711712E+0	1.652057E+0	1.640556E+0	1.698618E+0	1.628510E+0	1.707546E+0	1.671215E+0	1.679995E+0	1.649127E+0	1.682728E+0	1.597212E+0	1.632876E+0	1.707062E+0	1.695566E+0	1.596790E+0	1.638223E+0	1.735968E+0	1.669795E+0	1.689719E+0	1.688052E+0	1.701631E+0	1.712047E+0	1.693363E+0	1.598905E+0	1.697033E+0	1.674726E+0	1.626882E+0	1.673192E+0	1.610725E+0	1.624376E+0	1.621881E+0	1.657287E+0	1.679478E+0	1.702294E+0	1.699342E+0	1.640484E+0	1.660538E+0	1.622928E+0	1.667244E+0	1.665401E+0	1.651744E+0	1.612778E+0	1.653158E+0	1.621552E+0	1.667864E+0	1.672870E+0	1.652323E+0	1.662295E+0	1.687410E+0	1.611667E+0	1.666539E+0	1.709160E+0	1.672370E+0	1.590736E+0	1.634952E+0	1.611152E+0	1.653304E+0	1.648153E+0	1.602510E+0	1.625185E+0	1.680750E+0	1.682780E+0	1.616802E+0	1.665742E+0	1.698090E+0	1.618521E+0	1.665624E+0	1.673123E+0	1.649404E+0	1.621431E+0	1.707739E+0	1.632059E+0	1.684134E+0	1.644935E+0	1.596030E+0	1.615088E+0	1.709856E+0	1.613073E+0	1.592632E+0	1.626293E+0	1.641155E+0	1.672010E+0	1.639656E+0	1.558766E+0	1.669451E+0	1.651297E+0	1.676612E+0	1.714524E+0	1.654581E+0	1.615490E+0	1.614870E+0	1.712153E+0	1.715911E+0	1.634797E+0	1.633210E+0	1.596178E+0	1.732439E+0	1.600095E+0	1.543969E+0	1.622706E+0	1.705041E+0	1.604729E+0	1.622775E+0	1.645483E+0	1.671755E+0	1.695655E+0	1.595306E+0	1.529275E+0	1.596429E+0
5.392880E+2	1.919420E+0	1.851770E+0	1.917137E+0	1.831321E+0	1.836261E+0	1.892967E+0	1.890345E+0	1.887821E+0	1.898718E+0	1.850802E+0	1.898952E+0	1.860358E+0	1.870357E+0	1.906124E+0	1.881533E+0	1.878718E+0	1.902601E+0	1.925848E+0	1.867645E+0	1.864066E+0	1.934678E+0	1.896718E+0	1.863488E+0	1.883200E+0	1.853553E+0	1.854729E+0	1.866437E+0	1.902620E+0	1.856718E+0	1.810842E+0	1.899709E+0	1.826243E+0	1.905926E+0	1.846736E+0	1.827190E+0	1.871626E+0	1.872823E+0	1.866395E+0	1.897167E+0	1.879094E+0	1.812824E+0	1.818712E+0	1.935286E+0	1.844283E+0	1.851520E+0	1.895056E+0	1.869176E+0	1.885110E+0	1.857627E+0	1.836692E+0	1.840049E+0	1.878458E+0	1.839941E+0	1.887837E+0	1.896638E+0	1.899892E+0	1.891475E+0	1.842796E+0	1.874890E+0	1.878475E+0	1.850225E+0	1.816783E+0	1.840716E+0	1.892853E+0	1.826303E+0	1.919424E+0	1.858916E+0	1.841750E+0	1.798242E+0	1.880492E+0	1.830583E+0	1.928134E+0	1.800101E+0	1.835821E+0	1.842344E+0	1.868631E+0	1.816526E+0	1.785535E+0	1.967500E+0	1.868052E+0	1.881483E+0	1.859291E+0	1.850711E+0	1.830897E+0	1.782981E+0	1.860244E+0	1.843322E+0	1.852230E+0	1.849824E+0	1.819383E+0	1.847644E+0	1.875089E+0	1.877604E+0	1.814577E+0	1.808402E+0	1.834463E+0	1.807149E+0	1.840104E+0	1.803438E+0	1.875260E+0	1.826673E+0	1.860423E+0	1.795809E+0	1.819757E+0	1.817998E+0	1.820209E+0	1.901854E+0	1.825425E+0	1.790816E+0	1.861351E+0	1.909942E+0	1.884223E+0	1.814573E+0	1.875505E+0	1.831394E+0	1.801229E+0	1.842961E+0	1.839149E+0	1.861700E+0	1.750809E+0	1.761023E+0	1.832656E+0	1.837431E+0	1.829648E+0	1.801491E+0	1.758857E+0	1.898958E+0	1.785463E+0	1.870144E+0	1.760955E+0	1.843202E+0	1.731977E+0	1.864162E+0	1.802196E+0	1.796132E+0	1.808873E+0	1.807248E+0	1.752928E+0	1.850708E+0	1.844209E+0	1.833425E+0	1.834240E+0	1.825192E+0	1.773544E+0	1.805658E+0	1.812782E+0	1.803869E+0	1.783755E+0	1.886080E+0	1.806554E+0	1.842824E+0	1.805402E+0	1.773360E+0	1.872290E+0	1.861267E+0	1.747297E+0	1.853018E+0	1.760433E+0	1.832437E+0	1.846097E+0	1.785232E+0	1.780389E+0	1.830149E+0	1.817843E+0	1.761537E+0	1.789969E+0	1.818443E+0	1.829627E+0	1.737740E+0	1.857552E+0	1.723527E+0
5.395210E+2	2.090810E+0	1.996579E+0	2.089594E+0	1.979419E+0	2.036071E+0	1.973323E+0	2.065030E+0	2.064138E+0	2.002182E+0	1.986491E+0	1.965274E+0	2.026292E+0	2.032870E+0	1.976534E+0	1.965440E+0	2.032226E+0	2.078775E+0	2.018838E+0	1.949884E+0	2.034311E+0	2.107176E+0	1.963351E+0	2.035012E+0	2.069171E+0	2.025112E+0	1.968174E+0	1.997014E+0	1.955016E+0	1.972140E+0	1.978559E+0	2.004551E+0	1.997705E+0	1.978597E+0	2.002079E+0	2.007120E+0	1.955482E+0	2.004493E+0	1.954435E+0	1.973604E+0	2.015354E+0	1.962695E+0	1.992284E+0	2.075310E+0	2.057747E+0	1.934815E+0	1.930961E+0	2.034391E+0	1.937119E+0	1.966158E+0	2.048568E+0	2.031386E+0	1.982561E+0	1.987325E+0	1.954349E+0	1.964393E+0	2.018230E+0	1.973725E+0	1.974778E+0	2.011330E+0	1.975996E+0	1.925492E+0	1.935742E+0	2.016000E+0	1.970486E+0	1.990346E+0	1.994974E+0	1.990040E+0	1.921680E+0	1.981171E+0	1.973676E+0	1.954697E+0	2.021980E+0	1.984426E+0	2.013494E+0	2.017288E+0	2.007969E+0	1.880292E+0	1.930753E+0	2.034063E+0	1.969880E+0	1.889093E+0	2.001055E+0	1.936917E+0	1.971940E+0	1.944087E+0	2.036897E+0	1.944058E+0	1.968778E+0	2.024939E+0	1.996706E+0	2.005338E+0	1.940230E+0	1.974469E+0	1.997181E+0	1.937581E+0	1.959809E+0	1.986248E+0	1.943701E+0	2.031301E+0	1.960586E+0	1.930344E+0	1.953304E+0	1.949751E+0	1.950360E+0	1.999636E+0	1.853739E+0	2.004513E+0	1.942226E+0	1.919933E+0	1.965336E+0	2.067754E+0	1.912491E+0	1.989077E+0	1.997891E+0	1.977881E+0	1.913844E+0	1.934222E+0	1.938282E+0	1.997506E+0	1.930904E+0	1.882612E+0	1.965003E+0	1.924046E+0	1.938991E+0	1.894134E+0	1.939354E+0	1.956602E+0	1.888249E+0	1.927798E+0	1.952614E+0	1.984439E+0	1.996093E+0	1.927031E+0	1.911459E+0	1.942717E+0	1.925344E+0	1.943934E+0	1.939724E+0	1.972899E+0	1.986068E+0	1.907144E+0	1.877275E+0	2.033828E+0	1.976393E+0	1.905872E+0	1.930306E+0	1.972615E+0	1.980276E+0	1.962131E+0	1.900895E+0	1.937956E+0	1.930433E+0	1.910316E+0	1.985127E+0	1.969688E+0	1.889254E+0	1.912639E+0	1.892518E+0	1.938227E+0	1.973767E+0	1.928285E+0	1.939381E+0	1.956700E+0	1.938509E+0	1.925852E+0	1.923731E+0	1.940420E+0	1.948174E+0	1.947210E+0	1.956381E+0	1.960322E+0
5.397970E+2	2.104426E+0	2.118277E+0	2.098884E+0	2.060861E+0	2.030762E+0	2.061422E+0	2.109108E+0	2.051783E+0	2.077348E+0	2.074422E+0	1.983724E+0	2.046924E+0	2.045068E+0	1.986159E+0	2.026166E+0	2.061274E+0	2.089156E+0	2.037529E+0	2.041060E+0	2.098407E+0	2.098954E+0	2.055142E+0	2.047447E+0	2.066243E+0	1.979041E+0	2.055833E+0	2.033810E+0	2.026080E+0	1.983633E+0	2.016803E+0	2.016647E+0	2.098748E+0	2.026070E+0	2.058572E+0	2.063811E+0	2.028343E+0	2.074112E+0	2.057474E+0	2.063938E+0	2.028376E+0	2.064731E+0	2.019118E+0	2.091066E+0	2.034439E+0	2.017332E+0	2.082135E+0	2.037289E+0	2.066035E+0	2.069610E+0	2.012597E+0	1.997271E+0	1.999158E+0	2.010976E+0	2.058578E+0	2.069047E+0	2.035921E+0	2.088959E+0	2.072381E+0	2.111991E+0	2.018598E+0	1.987752E+0	1.985404E+0	2.050276E+0	2.030064E+0	2.004619E+0	2.033048E+0	1.990499E+0	2.041519E+0	1.990513E+0	2.080566E+0	1.996104E+0	2.045349E+0	2.005458E+0	2.004852E+0	2.072200E+0	2.033998E+0	1.952072E+0	2.010155E+0	2.078826E+0	2.029774E+0	1.972276E+0	2.024039E+0	2.037723E+0	2.010552E+0	1.973547E+0	2.046295E+0	2.002452E+0	2.031849E+0	2.004878E+0	1.971279E+0	2.035915E+0	2.020143E+0	1.970019E+0	2.060941E+0	2.069637E+0	2.024507E+0	2.016444E+0	1.962985E+0	2.027493E+0	2.013629E+0	2.015989E+0	2.016587E+0	2.040698E+0	1.955801E+0	1.949265E+0	2.008008E+0	2.075008E+0	1.958860E+0	1.924224E+0	1.993057E+0	2.114487E+0	1.969578E+0	2.008302E+0	1.974741E+0	2.002381E+0	1.987196E+0	2.068126E+0	1.996314E+0	2.012940E+0	1.968330E+0	2.023858E+0	1.919215E+0	2.036713E+0	2.001937E+0	2.032375E+0	1.971857E+0	2.027577E+0	1.982142E+0	1.953015E+0	1.953387E+0	1.972390E+0	1.964241E+0	1.998671E+0	1.950061E+0	1.990561E+0	2.023271E+0	1.990264E+0	1.970203E+0	1.967076E+0	2.018540E+0	1.956515E+0	2.021947E+0	2.027795E+0	1.879930E+0	1.933585E+0	2.034535E+0	2.008484E+0	1.983968E+0	2.020314E+0	1.914673E+0	2.028623E+0	1.920070E+0	1.962142E+0	2.039619E+0	2.008107E+0	1.958238E+0	1.952137E+0	1.955846E+0	2.047287E+0	1.983565E+0	1.914244E+0	2.009237E+0	1.942041E+0	2.034695E+0	1.958967E+0	2.078463E+0	2.009938E+0	1.986127E+0	1.922598E+0	1.980100E+0	2.088392E+0
5.400240E+2	2.017443E+0	1.982142E+0	2.035920E+0	2.009681E+0	1.951318E+0	1.997558E+0	2.024917E+0	1.982429E+0	2.008902E+0	2.065906E+0	1.955168E+0	2.009622E+0	2.025633E+0	1.977865E+0	1.994751E+0	2.046997E+0	2.056383E+0	2.017361E+0	2.007814E+0	2.006959E+0	2.064708E+0	1.938300E+0	2.031681E+0	1.991008E+0	1.922975E+0	1.935155E+0	2.025876E+0	2.017608E+0	2.042224E+0	1.956417E+0	1.955886E+0	2.026438E+0	1.996250E+0	2.034729E+0	2.017896E+0	1.997021E+0	1.916712E+0	1.989665E+0	2.048775E+0	1.958922E+0	2.015528E+0	1.962710E+0	1.992309E+0	1.997896E+0	1.916033E+0	2.008323E+0	1.979750E+0	1.992088E+0	2.063949E+0	1.930047E+0	1.995084E+0	1.977649E+0	1.881016E+0	2.033608E+0	2.028480E+0	1.997283E+0	1.977957E+0	1.993417E+0	1.952269E+0	1.981731E+0	1.982188E+0	1.982505E+0	1.949246E+0	1.971681E+0	1.937719E+0	1.980789E+0	1.967484E+0	1.998757E+0	1.977847E+0	2.028270E+0	1.983597E+0	2.012862E+0	1.994002E+0	1.967421E+0	1.959740E+0	1.961233E+0	1.903411E+0	1.951712E+0	2.031021E+0	1.983736E+0	1.982367E+0	1.971167E+0	1.980221E+0	1.963658E+0	1.950808E+0	1.937414E+0	2.002413E+0	1.933827E+0	2.021134E+0	1.910656E+0	1.948979E+0	1.901276E+0	1.909832E+0	2.009409E+0	1.944128E+0	1.935373E+0	2.000970E+0	1.972543E+0	2.018820E+0	1.925504E+0	1.954552E+0	1.964903E+0	2.002128E+0	1.919951E+0	1.968169E+0	1.927925E+0	1.991756E+0	1.918927E+0	1.879746E+0	1.963695E+0	1.986854E+0	1.861242E+0	1.910353E+0	1.941889E+0	1.995868E+0	1.940547E+0	1.950672E+0	1.956651E+0	1.930646E+0	1.971632E+0	1.951168E+0	1.902650E+0	2.023465E+0	1.948346E+0	1.902626E+0	1.923466E+0	2.016576E+0	1.906989E+0	1.896580E+0	1.902799E+0	1.947858E+0	1.945996E+0	1.958555E+0	1.911844E+0	1.938750E+0	1.910792E+0	1.981234E+0	1.929161E+0	2.034201E+0	2.001081E+0	1.887326E+0	1.911964E+0	1.971047E+0	1.863123E+0	1.949686E+0	1.930115E+0	1.999996E+0	1.897244E+0	1.912829E+0	1.902365E+0	1.970960E+0	1.912244E+0	1.921012E+0	1.928455E+0	1.975369E+0	1.934646E+0	1.920538E+0	1.895566E+0	1.873955E+0	1.976554E+0	1.909907E+0	1.937813E+0	1.858920E+0	2.011722E+0	1.896878E+0	1.979822E+0	1.920333E+0	1.937439E+0	1.868018E+0	1.889249E+0	1.940877E+0
5.402790E+2	1.850222E+0	1.883933E+0	1.859841E+0	1.849136E+0	1.902877E+0	1.851295E+0	1.860467E+0	1.854218E+0	1.893896E+0	1.867820E+0	1.868752E+0	1.878072E+0	1.935502E+0	1.869605E+0	1.837583E+0	1.886501E+0	1.840907E+0	1.896810E+0	1.788118E+0	1.869760E+0	1.839701E+0	1.873774E+0	1.887878E+0	1.872790E+0	1.904987E+0	1.905401E+0	1.893320E+0	1.897100E+0	1.837615E+0	1.866215E+0	1.828573E+0	1.827588E+0	1.879196E+0	1.912977E+0	1.862617E+0	1.823540E+0	1.896087E+0	1.928391E+0	1.886611E+0	1.909591E+0	1.850733E+0	1.870819E+0	1.845673E+0	1.913240E+0	1.874493E+0	1.871867E+0	1.832354E+0	1.903998E+0	1.920920E+0	1.845542E+0	1.865917E+0	1.840570E+0	1.804408E+0	1.907233E+0	1.885834E+0	1.843652E+0	1.881453E+0	1.842750E+0	1.893090E+0	1.851455E+0	1.850275E+0	1.859520E+0	1.876720E+0	1.855874E+0	1.864674E+0	1.851440E+0	1.846335E+0	1.919930E+0	1.841624E+0	1.841284E+0	1.850579E+0	1.922889E+0	1.856516E+0	1.869066E+0	1.864505E+0	1.915475E+0	1.801097E+0	1.865938E+0	1.823811E+0	1.844119E+0	1.833959E+0	1.832946E+0	1.837589E+0	1.899702E+0	1.870551E+0	1.797016E+0	1.874457E+0	1.824355E+0	1.839942E+0	1.801442E+0	1.802992E+0	1.886856E+0	1.821693E+0	1.874640E+0	1.838672E+0	1.868257E+0	1.848447E+0	1.878547E+0	1.858347E+0	1.885041E+0	1.830529E+0	1.830669E+0	1.830292E+0	1.812725E+0	1.886095E+0	1.878286E+0	1.876490E+0	1.783791E+0	1.831498E+0	1.907789E+0	1.879517E+0	1.838189E+0	1.848970E+0	1.823982E+0	1.790942E+0	1.784780E+0	1.824110E+0	1.808463E+0	1.848305E+0	1.793144E+0	1.798426E+0	1.767361E+0	1.837263E+0	1.774978E+0	1.854032E+0	1.829389E+0	1.860227E+0	1.807326E+0	1.858176E+0	1.830558E+0	1.826406E+0	1.768915E+0	1.844643E+0	1.842867E+0	1.797714E+0	1.888065E+0	1.800578E+0	1.805235E+0	1.795930E+0	1.848370E+0	1.776173E+0	1.819821E+0	1.819899E+0	1.804694E+0	1.773787E+0	1.891391E+0	1.838057E+0	1.821364E+0	1.809791E+0	1.806080E+0	1.902269E+0	1.791243E+0	1.746102E+0	1.826388E+0	1.903702E+0	1.820479E+0	1.851335E+0	1.772275E+0	1.854013E+0	1.856016E+0	1.802185E+0	1.822164E+0	1.798514E+0	1.828551E+0	1.765661E+0	1.861146E+0	1.805646E+0	1.821864E+0	1.745847E+0	1.878561E+0	1.843226E+0
5.405020E+2	1.818791E+0	1.738004E+0	1.804689E+0	1.736332E+0	1.785261E+0	1.781555E+0	1.753700E+0	1.732700E+0	1.795872E+0	1.775812E+0	1.804898E+0	1.794406E+0	1.755934E+0	1.785540E+0	1.789808E+0	1.785862E+0	1.771249E+0	1.802314E+0	1.755586E+0	1.770252E+0	1.810990E+0	1.796900E+0	1.804670E+0	1.857366E+0	1.776605E+0	1.771700E+0	1.753509E+0	1.769352E+0	1.708829E+0	1.742142E+0	1.750511E+0	1.777970E+0	1.730506E+0	1.824016E+0	1.773653E+0	1.815342E+0	1.810179E+0	1.770808E+0	1.784003E+0	1.792732E+0	1.765816E+0	1.760976E+0	1.791280E+0	1.778451E+0	1.718107E+0	1.740249E+0	1.764756E+0	1.825102E+0	1.741486E+0	1.758970E+0	1.762080E+0	1.807422E+0	1.764151E+0	1.810252E+0	1.786030E+0	1.802095E+0	1.780038E+0	1.803846E+0	1.795652E+0	1.803167E+0	1.774605E+0	1.771138E+0	1.774625E+0	1.777072E+0	1.719566E+0	1.786770E+0	1.763964E+0	1.837147E+0	1.789792E+0	1.726526E+0	1.754899E+0	1.756409E+0	1.685805E+0	1.768687E+0	1.743339E+0	1.879972E+0	1.744984E+0	1.731499E+0	1.780061E+0	1.775309E+0	1.692945E+0	1.755121E+0	1.779945E+0	1.732662E+0	1.776403E+0	1.754293E+0	1.760815E+0	1.780707E+0	1.793805E+0	1.738551E+0	1.746546E+0	1.793526E+0	1.792285E+0	1.734621E+0	1.748391E+0	1.785211E+0	1.761459E+0	1.770630E+0	1.802987E+0	1.745005E+0	1.704611E+0	1.743648E+0	1.750113E+0	1.698938E+0	1.762003E+0	1.705949E+0	1.739004E+0	1.753613E+0	1.768583E+0	1.754129E+0	1.750454E+0	1.777044E+0	1.768811E+0	1.816242E+0	1.749653E+0	1.698667E+0	1.784005E+0	1.747619E+0	1.724435E+0	1.731222E+0	1.720533E+0	1.744792E+0	1.722571E+0	1.727010E+0	1.711691E+0	1.758568E+0	1.778257E+0	1.767455E+0	1.749015E+0	1.691914E+0	1.711300E+0	1.698459E+0	1.725778E+0	1.747275E+0	1.705308E+0	1.718181E+0	1.818732E+0	1.689866E+0	1.707299E+0	1.820838E+0	1.686999E+0	1.755303E+0	1.769087E+0	1.753006E+0	1.656573E+0	1.676222E+0	1.772806E+0	1.754012E+0	1.760972E+0	1.721300E+0	1.728375E+0	1.700128E+0	1.728676E+0	1.784625E+0	1.804906E+0	1.676524E+0	1.747156E+0	1.743941E+0	1.776461E+0	1.750885E+0	1.727997E+0	1.740063E+0	1.683516E+0	1.715977E+0	1.750210E+0	1.730009E+0	1.734197E+0	1.726414E+0	1.666072E+0	1.827003E+0	1.671216E+0
5.407740E+2	1.684813E+0	1.685051E+0	1.758942E+0	1.701357E+0	1.716382E+0	1.680028E+0	1.762666E+0	1.697255E+0	1.604771E+0	1.700241E+0	1.721895E+0	1.710869E+0	1.670722E+0	1.705298E+0	1.694526E+0	1.775146E+0	1.749450E+0	1.728271E+0	1.704426E+0	1.727727E+0	1.661839E+0	1.714895E+0	1.743740E+0	1.733227E+0	1.702981E+0	1.655229E+0	1.684558E+0	1.719195E+0	1.652151E+0	1.641161E+0	1.655029E+0	1.689033E+0	1.695926E+0	1.779195E+0	1.658436E+0	1.663333E+0	1.662719E+0	1.655249E+0	1.664685E+0	1.692383E+0	1.681607E+0	1.686329E+0	1.724482E+0	1.713970E+0	1.713053E+0	1.707367E+0	1.698708E+0	1.742758E+0	1.717163E+0	1.705426E+0	1.699208E+0	1.685598E+0	1.670851E+0	1.745178E+0	1.727393E+0	1.672522E+0	1.629583E+0	1.632355E+0	1.631603E+0	1.632593E+0	1.697806E+0	1.651300E+0	1.663054E+0	1.693606E+0	1.709393E+0	1.723533E+0	1.680138E+0	1.725047E+0	1.780196E+0	1.703383E+0	1.667039E+0	1.694023E+0	1.646666E+0	1.639872E+0	1.645371E+0	1.716293E+0	1.654127E+0	1.677973E+0	1.688571E+0	1.703631E+0	1.646387E+0	1.703686E+0	1.693341E+0	1.711268E+0	1.594373E+0	1.683732E+0	1.708321E+0	1.669519E+0	1.702547E+0	1.735903E+0	1.604332E+0	1.754156E+0	1.653423E+0	1.650051E+0	1.656690E+0	1.703637E+0	1.655633E+0	1.701187E+0	1.625737E+0	1.658846E+0	1.661656E+0	1.698265E+0	1.687412E+0	1.598730E+0	1.643969E+0	1.629089E+0	1.713328E+0	1.652383E+0	1.627615E+0	1.734959E+0	1.724250E+0	1.635061E+0	1.666151E+0	1.694387E+0	1.624923E+0	1.681800E+0	1.616442E+0	1.612382E+0	1.671765E+0	1.632252E+0	1.658132E+0	1.663331E+0	1.616228E+0	1.646408E+0	1.587047E+0	1.641815E+0	1.680588E+0	1.655774E+0	1.673155E+0	1.635565E+0	1.585088E+0	1.666363E+0	1.707699E+0	1.673749E+0	1.653629E+0	1.632092E+0	1.645441E+0	1.635438E+0	1.731089E+0	1.601242E+0	1.664419E+0	1.674212E+0	1.634228E+0	1.606364E+0	1.641383E+0	1.652042E+0	1.666971E+0	1.672821E+0	1.672027E+0	1.650446E+0	1.703740E+0	1.667927E+0	1.564779E+0	1.722284E+0	1.626067E+0	1.602706E+0	1.621328E+0	1.627816E+0	1.611441E+0	1.677133E+0	1.620732E+0	1.626402E+0	1.638477E+0	1.661632E+0	1.607801E+0	1.709264E+0	1.650754E+0	1.638115E+0	1.600116E+0	1.667211E+0	1.630462E+0
5.410190E+2	1.682223E+0	1.675862E+0	1.663716E+0	1.627181E+0	1.643105E+0	1.642470E+0	1.649105E+0	1.664497E+0	1.659161E+0	1.595019E+0	1.632744E+0	1.685791E+0	1.688611E+0	1.636519E+0	1.679519E+0	1.675013E+0	1.657073E+0	1.677636E+0	1.668305E+0	1.643678E+0	1.705239E+0	1.636855E+0	1.700963E+0	1.697803E+0	1.640929E+0	1.671339E+0	1.696932E+0	1.666504E+0	1.610732E+0	1.628561E+0	1.623488E+0	1.679941E+0	1.572211E+0	1.634168E+0	1.671680E+0	1.723431E+0	1.584675E+0	1.664976E+0	1.686682E+0	1.643294E+0	1.627818E+0	1.679588E+0	1.654624E+0	1.729076E+0	1.610768E+0	1.689860E+0	1.620857E+0	1.666911E+0	1.663119E+0	1.623158E+0	1.655203E+0	1.573015E+0	1.629059E+0	1.633255E+0	1.590264E+0	1.680900E+0	1.596214E+0	1.574552E+0	1.686092E+0	1.651736E+0	1.612037E+0	1.667861E+0	1.686244E+0	1.683086E+0	1.611525E+0	1.646100E+0	1.571042E+0	1.637774E+0	1.697055E+0	1.676189E+0	1.642941E+0	1.649877E+0	1.649574E+0	1.637572E+0	1.631003E+0	1.665090E+0	1.625346E+0	1.603626E+0	1.670434E+0	1.679616E+0	1.621187E+0	1.631502E+0	1.694780E+0	1.624489E+0	1.594403E+0	1.652242E+0	1.644002E+0	1.608454E+0	1.699866E+0	1.629198E+0	1.652683E+0	1.639673E+0	1.589643E+0	1.656386E+0	1.618250E+0	1.640360E+0	1.622686E+0	1.658839E+0	1.606685E+0	1.621440E+0	1.692458E+0	1.625643E+0	1.625093E+0	1.606036E+0	1.679293E+0	1.593445E+0	1.666056E+0	1.645040E+0	1.559169E+0	1.629007E+0	1.619500E+0	1.677591E+0	1.655315E+0	1.624474E+0	1.596184E+0	1.571424E+0	1.700717E+0	1.636894E+0	1.632145E+0	1.596544E+0	1.606914E+0	1.541937E+0	1.650876E+0	1.629305E+0	1.600542E+0	1.599474E+0	1.639469E+0	1.628502E+0	1.648692E+0	1.594951E+0	1.598423E+0	1.644779E+0	1.669133E+0	1.627074E+0	1.665500E+0	1.628095E+0	1.676094E+0	1.614243E+0	1.622788E+0	1.630389E+0	1.593912E+0	1.652591E+0	1.587689E+0	1.620270E+0	1.590364E+0	1.581689E+0	1.652594E+0	1.610005E+0	1.646860E+0	1.583991E+0	1.648252E+0	1.546800E+0	1.648745E+0	1.666570E+0	1.595141E+0	1.651061E+0	1.600213E+0	1.607039E+0	1.606551E+0	1.649327E+0	1.571968E+0	1.639988E+0	1.608311E+0	1.605646E+0	1.615916E+0	1.635398E+0	1.600651E+0	1.683868E+0	1.676176E+0	1.610135E+0	1.583425E+0
5.412790E+2	1.589592E+0	1.587173E+0	1.560164E+0	1.627845E+0	1.552788E+0	1.541315E+0	1.587597E+0	1.582131E+0	1.542689E+0	1.586520E+0	1.570051E+0	1.542464E+0	1.559785E+0	1.545570E+0	1.501302E+0	1.616822E+0	1.582286E+0	1.575306E+0	1.535471E+0	1.586230E+0	1.606593E+0	1.556959E+0	1.549745E+0	1.557732E+0	1.570099E+0	1.536274E+0	1.536274E+0	1.583544E+0	1.547398E+0	1.507219E+0	1.565054E+0	1.516417E+0	1.514576E+0	1.562110E+0	1.561300E+0	1.581399E+0	1.561394E+0	1.613943E+0	1.523067E+0	1.510227E+0	1.571054E+0	1.511021E+0	1.586315E+0	1.530239E+0	1.479371E+0	1.538319E+0	1.539750E+0	1.583727E+0	1.484740E+0	1.564404E+0	1.532824E+0	1.559649E+0	1.536159E+0	1.589085E+0	1.564951E+0	1.579234E+0	1.600930E+0	1.530014E+0	1.541776E+0	1.528889E+0	1.573541E+0	1.624826E+0	1.564832E+0	1.591520E+0	1.526301E+0	1.578806E+0	1.479597E+0	1.537028E+0	1.562450E+0	1.615790E+0	1.551410E+0	1.554787E+0	1.473201E+0	1.526122E+0	1.497856E+0	1.561204E+0	1.472494E+0	1.544871E+0	1.543085E+0	1.550269E+0	1.514853E+0	1.568115E+0	1.559759E+0	1.558964E+0	1.509515E+0	1.610435E+0	1.533473E+0	1.528829E+0	1.552285E+0	1.527149E+0	1.530387E+0	1.586974E+0	1.516386E+0	1.528779E+0	1.513448E+0	1.527831E+0	1.533402E+0	1.495624E+0	1.460307E+0	1.544773E+0	1.580731E+0	1.547668E+0	1.526014E+0	1.522229E+0	1.553396E+0	1.501463E+0	1.577352E+0	1.523679E+0	1.536173E+0	1.524045E+0	1.537484E+0	1.559106E+0	1.563498E+0	1.537021E+0	1.520390E+0	1.514293E+0	1.608949E+0	1.523563E+0	1.570690E+0	1.501874E+0	1.535742E+0	1.496152E+0	1.538566E+0	1.534640E+0	1.500970E+0	1.524513E+0	1.504853E+0	1.535445E+0	1.529304E+0	1.539211E+0	1.469501E+0	1.486848E+0	1.597857E+0	1.567811E+0	1.534377E+0	1.529773E+0	1.527179E+0	1.556979E+0	1.517915E+0	1.585659E+0	1.507381E+0	1.532303E+0	1.499538E+0	1.521972E+0	1.557964E+0	1.520977E+0	1.490367E+0	1.570659E+0	1.565425E+0	1.506491E+0	1.569792E+0	1.508477E+0	1.518667E+0	1.565680E+0	1.534153E+0	1.559400E+0	1.481176E+0	1.521884E+0	1.489580E+0	1.541830E+0	1.549793E+0	1.546101E+0	1.531830E+0	1.511176E+0	1.557437E+0	1.574262E+0	1.508206E+0	1.521487E+0	1.462241E+0	1.587406E+0	1.489972E+0
5.415190E+2	1.369741E+0	1.412826E+0	1.436115E+0	1.363429E+0	1.350060E+0	1.313693E+0	1.425231E+0	1.443608E+0	1.311505E+0	1.386221E+0	1.361296E+0	1.378501E+0	1.364266E+0	1.379358E+0	1.358036E+0	1.396026E+0	1.415304E+0	1.392349E+0	1.410681E+0	1.411632E+0	1.381139E+0	1.368522E+0	1.431410E+0	1.422704E+0	1.344620E+0	1.366747E+0	1.394249E+0	1.420280E+0	1.386097E+0	1.329787E+0	1.362219E+0	1.363720E+0	1.397728E+0	1.394148E+0	1.416727E+0	1.370763E+0	1.421544E+0	1.397291E+0	1.390472E+0	1.386915E+0	1.392453E+0	1.352065E+0	1.378892E+0	1.344150E+0	1.361279E+0	1.358557E+0	1.333898E+0	1.414908E+0	1.390207E+0	1.340833E+0	1.353893E+0	1.438659E+0	1.372638E+0	1.381949E+0	1.369789E+0	1.408936E+0	1.390828E+0	1.414705E+0	1.429945E+0	1.365617E+0	1.375532E+0	1.340560E+0	1.429466E+0	1.369382E+0	1.374000E+0	1.385639E+0	1.383830E+0	1.401409E+0	1.441812E+0	1.379066E+0	1.342577E+0	1.423647E+0	1.378598E+0	1.373797E+0	1.368342E+0	1.392235E+0	1.362078E+0	1.375876E+0	1.400119E+0	1.353607E+0	1.360793E+0	1.418188E+0	1.388262E+0	1.436550E+0	1.378415E+0	1.356617E+0	1.388955E+0	1.353916E+0	1.356110E+0	1.358066E+0	1.404054E+0	1.343401E+0	1.330989E+0	1.405474E+0	1.337217E+0	1.425962E+0	1.366503E+0	1.335798E+0	1.414265E+0	1.400320E+0	1.322220E+0	1.328149E+0	1.359586E+0	1.334484E+0	1.400950E+0	1.346900E+0	1.396271E+0	1.371143E+0	1.366768E+0	1.340577E+0	1.360813E+0	1.369903E+0	1.397601E+0	1.395319E+0	1.332655E+0	1.385055E+0	1.362772E+0	1.393036E+0	1.388524E+0	1.339369E+0	1.379029E+0	1.312847E+0	1.339507E+0	1.371702E+0	1.365719E+0	1.376545E+0	1.362256E+0	1.358048E+0	1.360639E+0	1.343248E+0	1.358996E+0	1.350041E+0	1.369894E+0	1.358776E+0	1.341701E+0	1.313796E+0	1.327046E+0	1.342819E+0	1.368378E+0	1.389463E+0	1.370844E+0	1.367696E+0	1.369658E+0	1.327610E+0	1.377889E+0	1.402807E+0	1.365655E+0	1.328481E+0	1.396164E+0	1.344643E+0	1.354092E+0	1.344949E+0	1.353285E+0	1.403718E+0	1.368493E+0	1.369330E+0	1.313045E+0	1.394867E+0	1.352873E+0	1.413688E+0	1.320902E+0	1.381733E+0	1.341635E+0	1.350012E+0	1.363364E+0	1.352918E+0	1.373673E+0	1.407389E+0	1.355749E+0	1.466008E+0	1.369994E+0
5.417700E+2	1.218278E+0	1.197454E+0	1.210137E+0	1.211679E+0	1.268070E+0	1.170910E+0	1.207623E+0	1.203442E+0	1.199288E+0	1.154550E+0	1.188893E+0	1.204514E+0	1.156559E+0	1.149356E+0	1.196152E+0	1.252919E+0	1.189365E+0	1.197382E+0	1.177620E+0	1.184073E+0	1.214571E+0	1.188119E+0	1.180095E+0	1.221806E+0	1.221558E+0	1.172026E+0	1.170840E+0	1.184814E+0	1.173675E+0	1.185136E+0	1.200448E+0	1.137324E+0	1.175316E+0	1.173087E+0	1.199323E+0	1.167592E+0	1.215490E+0	1.191383E+0	1.191723E+0	1.202251E+0	1.212042E+0	1.219177E+0	1.182216E+0	1.138530E+0	1.217755E+0	1.201026E+0	1.187883E+0	1.192233E+0	1.212366E+0	1.154598E+0	1.180834E+0	1.204078E+0	1.219709E+0	1.207890E+0	1.148565E+0	1.181534E+0	1.207022E+0	1.171613E+0	1.226255E+0	1.194054E+0	1.202288E+0	1.148552E+0	1.239898E+0	1.192488E+0	1.199826E+0	1.229577E+0	1.205497E+0	1.197932E+0	1.158716E+0	1.219797E+0	1.216240E+0	1.190795E+0	1.191673E+0	1.182048E+0	1.169965E+0	1.232634E+0	1.225439E+0	1.184397E+0	1.157530E+0	1.193490E+0	1.240765E+0	1.205355E+0	1.245746E+0	1.149170E+0	1.191285E+0	1.248074E+0	1.202167E+0	1.171615E+0	1.222614E+0	1.159360E+0	1.198756E+0	1.216105E+0	1.189781E+0	1.203131E+0	1.179277E+0	1.219835E+0	1.181236E+0	1.152491E+0	1.179115E+0	1.180643E+0	1.203203E+0	1.172187E+0	1.218740E+0	1.167318E+0	1.140834E+0	1.181869E+0	1.194329E+0	1.161083E+0	1.181891E+0	1.230244E+0	1.210663E+0	1.120109E+0	1.227107E+0	1.230838E+0	1.157398E+0	1.137150E+0	1.211068E+0	1.135387E+0	1.136221E+0	1.124767E+0	1.158756E+0	1.185488E+0	1.172561E+0	1.205477E+0	1.170112E+0	1.197333E+0	1.190348E+0	1.193033E+0	1.139134E+0	1.144576E+0	1.163368E+0	1.205455E+0	1.146527E+0	1.193382E+0	1.147059E+0	1.200495E+0	1.152959E+0	1.197965E+0	1.222659E+0	1.213467E+0	1.170805E+0	1.167208E+0	1.199947E+0	1.204353E+0	1.200207E+0	1.191219E+0	1.201619E+0	1.157756E+0	1.203087E+0	1.200441E+0	1.189288E+0	1.164761E+0	1.195696E+0	1.175315E+0	1.174255E+0	1.226242E+0	1.184192E+0	1.132032E+0	1.216336E+0	1.210880E+0	1.196575E+0	1.183864E+0	1.165883E+0	1.240817E+0	1.170475E+0	1.196325E+0	1.175827E+0	1.203396E+0	1.224967E+0	1.185281E+0	1.207579E+0
5.420210E+2	1.053815E+0	1.002181E+0	1.072133E+0	1.080769E+0	1.031356E+0	1.012884E+0	1.067587E+0	1.009382E+0	1.041703E+0	1.052079E+0	1.043547E+0	1.042900E+0	1.038324E+0	1.041275E+0	1.002724E+0	1.071282E+0	1.041573E+0	1.040208E+0	9.760984E-1	1.004190E+0	1.050667E+0	1.046026E+0	1.039902E+0	1.083118E+0	1.052185E+0	9.869502E-1	1.058766E+0	1.066793E+0	1.042550E+0	1.037113E+0	1.017394E+0	1.063221E+0	1.039299E+0	1.071046E+0	1.012496E+0	1.050746E+0	1.019041E+0	1.054590E+0	1.023058E+0	1.069949E+0	1.022947E+0	1.015433E+0	1.015011E+0	1.032845E+0	9.999861E-1	1.078622E+0	1.040176E+0	1.061536E+0	1.096132E+0	1.053346E+0	1.055041E+0	1.005452E+0	1.021849E+0	1.059977E+0	1.046018E+0	1.052520E+0	1.066869E+0	9.874693E-1	9.802033E-1	1.030564E+0	1.034943E+0	1.072384E+0	1.023780E+0	9.984292E-1	1.015176E+0	1.086745E+0	9.990126E-1	1.065513E+0	1.068435E+0	1.057900E+0	1.032879E+0	1.062483E+0	1.054883E+0	1.040765E+0	1.068681E+0	1.029115E+0	9.962189E-1	1.007709E+0	1.001979E+0	1.003769E+0	1.064520E+0	1.034571E+0	1.055461E+0	1.034918E+0	1.060046E+0	1.053547E+0	1.104958E+0	1.042418E+0	1.052102E+0	1.032120E+0	1.053950E+0	1.025595E+0	1.079913E+0	1.071631E+0	1.029953E+0	1.027586E+0	1.037110E+0	1.073612E+0	1.065296E+0	9.887749E-1	1.065388E+0	1.064324E+0	1.027844E+0	1.009396E+0	1.059729E+0	1.016536E+0	1.057779E+0	1.056419E+0	1.028595E+0	1.090213E+0	1.029228E+0	1.047717E+0	1.037907E+0	1.051079E+0	1.035077E+0	1.043698E+0	1.064417E+0	1.018172E+0	1.066360E+0	1.010897E+0	1.017033E+0	9.983253E-1	1.039646E+0	9.841947E-1	9.885229E-1	1.051676E+0	1.063897E+0	1.002429E+0	1.069012E+0	1.009916E+0	1.067361E+0	1.054911E+0	1.055231E+0	9.974137E-1	1.006971E+0	1.035531E+0	1.018434E+0	1.038173E+0	1.048784E+0	1.044392E+0	1.056547E+0	1.071279E+0	1.074039E+0	1.031999E+0	1.025715E+0	1.011262E+0	1.057159E+0	1.037436E+0	1.052709E+0	1.007521E+0	1.047852E+0	1.003434E+0	1.030198E+0	1.087572E+0	1.032672E+0	1.047647E+0	9.905004E-1	1.025771E+0	1.078784E+0	1.078132E+0	1.010927E+0	1.044712E+0	1.038415E+0	1.046583E+0	1.028532E+0	1.034784E+0	1.061880E+0	1.051577E+0	1.005409E+0	9.983091E-1	1.027452E+0
5.422730E+2	9.475175E-1	9.523709E-1	9.340991E-1	9.352550E-1	9.215919E-1	9.883725E-1	9.512941E-1	9.278561E-1	9.450844E-1	9.310871E-1	9.501002E-1	9.060610E-1	9.533261E-1	9.126698E-1	9.407538E-1	9.636516E-1	9.572249E-1	9.516000E-1	8.942839E-1	9.266517E-1	9.750988E-1	9.525159E-1	9.188060E-1	9.730920E-1	9.696005E-1	9.768884E-1	9.644111E-1	9.672067E-1	9.143093E-1	9.551755E-1	9.182080E-1	9.684605E-1	9.671754E-1	9.897791E-1	9.790962E-1	9.260815E-1	9.505595E-1	9.674090E-1	9.444781E-1	9.466897E-1	9.533503E-1	9.486251E-1	9.265872E-1	9.953746E-1	9.175016E-1	9.509389E-1	9.403481E-1	9.230706E-1	9.348218E-1	9.291678E-1	9.972686E-1	9.133681E-1	9.498446E-1	9.510558E-1	9.316358E-1	9.526564E-1	9.396685E-1	8.779629E-1	9.222601E-1	9.444371E-1	9.680091E-1	9.641007E-1	9.631481E-1	9.217670E-1	9.830445E-1	9.606110E-1	9.457081E-1	9.517212E-1	9.634122E-1	9.627408E-1	9.445202E-1	9.632892E-1	9.400082E-1	9.415600E-1	8.999953E-1	9.737645E-1	9.580750E-1	9.702759E-1	9.732964E-1	9.119410E-1	9.956543E-1	9.477804E-1	9.595521E-1	9.560414E-1	9.304920E-1	9.487229E-1	9.489443E-1	9.388832E-1	1.005813E+0	9.505482E-1	9.390790E-1	9.389109E-1	9.308751E-1	1.002049E+0	9.602898E-1	9.000315E-1	8.983873E-1	9.706512E-1	9.315958E-1	9.517935E-1	9.957503E-1	9.437007E-1	9.113201E-1	9.239995E-1	9.141672E-1	9.482738E-1	9.565900E-1	9.448577E-1	9.123679E-1	9.460408E-1	9.332231E-1	9.508682E-1	9.373038E-1	9.018243E-1	8.987055E-1	9.330346E-1	9.386113E-1	9.390178E-1	9.382399E-1	9.611029E-1	9.271721E-1	9.493842E-1	9.275050E-1	9.561308E-1	9.629320E-1	9.409770E-1	9.202664E-1	9.444051E-1	9.704022E-1	9.594536E-1	9.620720E-1	9.406839E-1	9.485078E-1	9.413231E-1	9.671254E-1	9.428326E-1	9.656750E-1	9.335668E-1	9.383358E-1	9.872241E-1	9.219741E-1	9.591471E-1	9.381189E-1	9.358532E-1	9.459495E-1	9.751212E-1	9.896460E-1	8.889143E-1	9.718589E-1	9.656622E-1	9.195363E-1	9.503448E-1	9.381317E-1	9.412995E-1	9.282895E-1	9.429471E-1	9.210172E-1	9.376306E-1	9.840199E-1	9.683248E-1	9.344512E-1	9.652601E-1	9.416147E-1	9.820905E-1	9.421650E-1	9.336427E-1	9.529256E-1	9.685441E-1	9.043590E-1	9.473795E-1	8.567912E-1
5.425190E+2	9.679884E-1	9.335647E-1	9.357234E-1	8.990317E-1	9.273480E-1	9.154026E-1	9.906012E-1	8.897621E-1	9.216090E-1	9.417713E-1	8.925916E-1	9.598435E-1	9.489159E-1	9.112410E-1	9.435700E-1	9.283228E-1	9.766191E-1	9.321826E-1	9.077507E-1	9.511299E-1	9.663141E-1	9.525281E-1	9.290173E-1	9.371395E-1	9.716031E-1	9.194245E-1	9.436347E-1	9.624019E-1	9.568078E-1	9.186590E-1	9.467099E-1	9.059400E-1	9.555043E-1	9.847064E-1	9.262974E-1	9.272358E-1	9.439699E-1	9.007023E-1	9.360092E-1	8.858962E-1	9.496386E-1	9.152593E-1	9.057425E-1	9.009711E-1	9.329309E-1	9.348348E-1	9.343699E-1	9.507837E-1	9.810550E-1	9.795433E-1	9.302246E-1	9.572189E-1	9.692292E-1	9.977928E-1	9.567090E-1	9.309006E-1	9.309288E-1	9.067433E-1	9.350510E-1	9.078242E-1	9.241526E-1	9.258002E-1	9.418780E-1	9.008197E-1	9.443204E-1	9.575513E-1	9.314846E-1	9.422914E-1	9.454571E-1	9.971155E-1	9.482950E-1	9.384223E-1	9.214362E-1	9.257199E-1	9.479378E-1	9.429093E-1	9.116799E-1	9.483761E-1	9.386494E-1	8.996658E-1	9.282783E-1	9.419770E-1	9.005345E-1	8.956808E-1	9.480187E-1	9.309449E-1	9.450526E-1	9.211640E-1	9.413999E-1	9.535204E-1	9.249301E-1	9.087761E-1	9.176993E-1	9.330002E-1	9.572957E-1	9.378840E-1	9.623251E-1	9.606525E-1	8.830769E-1	9.181894E-1	9.478882E-1	9.370253E-1	8.656278E-1	9.138554E-1	9.659144E-1	9.352067E-1	9.321668E-1	9.401292E-1	9.588319E-1	9.429528E-1	9.106905E-1	9.173834E-1	8.935907E-1	9.051683E-1	9.650062E-1	9.080020E-1	9.727307E-1	9.438231E-1	9.818862E-1	9.271142E-1	9.185824E-1	9.445875E-1	8.944669E-1	9.614411E-1	9.354593E-1	9.451727E-1	9.527243E-1	8.956417E-1	9.489209E-1	9.525333E-1	9.537259E-1	9.345503E-1	9.755290E-1	9.709428E-1	9.624804E-1	8.990913E-1	9.561248E-1	9.138581E-1	9.443657E-1	9.201236E-1	9.346961E-1	9.261440E-1	9.366228E-1	9.255606E-1	8.950792E-1	9.431000E-1	9.554451E-1	9.431979E-1	9.870398E-1	9.169677E-1	9.429782E-1	9.478370E-1	8.869479E-1	9.478846E-1	9.272295E-1	9.338218E-1	9.563319E-1	9.011556E-1	9.564134E-1	9.363931E-1	9.235807E-1	9.408715E-1	9.889818E-1	9.728360E-1	9.453519E-1	9.608262E-1	9.674262E-1	9.667403E-1	9.242004E-1	9.981721E-1	1.023639E+0
5.427650E+2	1.003129E+0	9.909270E-1	9.701535E-1	9.994288E-1	1.010226E+0	9.768507E-1	9.876039E-1	1.000561E+0	9.984880E-1	9.695380E-1	9.755721E-1	9.680650E-1	9.727464E-1	9.726180E-1	9.703067E-1	1.012337E+0	9.919634E-1	9.814547E-1	9.780049E-1	1.001064E+0	1.005300E+0	1.020677E+0	9.959023E-1	1.004001E+0	9.983166E-1	9.753020E-1	9.818573E-1	9.870169E-1	9.862190E-1	9.494103E-1	9.973547E-1	9.454052E-1	9.423701E-1	9.672581E-1	9.994363E-1	9.593220E-1	9.989359E-1	9.712159E-1	9.598253E-1	9.756439E-1	9.999244E-1	9.711556E-1	9.869605E-1	9.723113E-1	9.624168E-1	1.000294E+0	1.008530E+0	9.901702E-1	9.775398E-1	9.402653E-1	9.758587E-1	9.819891E-1	9.903139E-1	9.846124E-1	1.036090E+0	9.743034E-1	1.015189E+0	9.544079E-1	9.995468E-1	9.850902E-1	9.714038E-1	9.756367E-1	9.701201E-1	9.613965E-1	9.753034E-1	9.578075E-1	9.992830E-1	9.942414E-1	9.861204E-1	9.847602E-1	9.647702E-1	9.875828E-1	9.544538E-1	9.835949E-1	9.533476E-1	9.617599E-1	1.003852E+0	9.349874E-1	9.664012E-1	9.659837E-1	9.936418E-1	9.846814E-1	9.764896E-1	9.582955E-1	9.751849E-1	9.790404E-1	9.794171E-1	9.884760E-1	9.848236E-1	1.013140E+0	9.806052E-1	9.644630E-1	1.030122E+0	9.854648E-1	9.809190E-1	9.766062E-1	9.843943E-1	9.924729E-1	1.031582E+0	9.789276E-1	1.010578E+0	1.013284E+0	9.875849E-1	9.989719E-1	1.014937E+0	9.312957E-1	9.818430E-1	1.008234E+0	9.943329E-1	9.823395E-1	9.943618E-1	9.699370E-1	9.949262E-1	1.002113E+0	9.940235E-1	9.567785E-1	9.416822E-1	9.861096E-1	9.763802E-1	9.830128E-1	9.598328E-1	9.721989E-1	9.755624E-1	9.904087E-1	1.000851E+0	9.893272E-1	9.895788E-1	9.695138E-1	9.991207E-1	9.368588E-1	1.023812E+0	9.765515E-1	9.985911E-1	9.693537E-1	9.831690E-1	9.858130E-1	9.815157E-1	9.577433E-1	9.590367E-1	9.805492E-1	9.242231E-1	9.721668E-1	1.001036E+0	9.409044E-1	9.939062E-1	1.011148E+0	1.030501E+0	9.443518E-1	1.042995E+0	9.907233E-1	1.032426E+0	9.933618E-1	9.685606E-1	1.026683E+0	9.571964E-1	9.715767E-1	9.542091E-1	9.451288E-1	9.500816E-1	9.952763E-1	9.633425E-1	9.626963E-1	9.511178E-1	9.850303E-1	9.823033E-1	1.007047E+0	9.736026E-1	1.014927E+0	9.634263E-1	9.847291E-1	9.632774E-1
5.430070E+2	1.102488E+0	1.069539E+0	1.073228E+0	1.070058E+0	1.111925E+0	1.051281E+0	1.100375E+0	1.124189E+0	1.103320E+0	1.056735E+0	1.106453E+0	1.095563E+0	1.118719E+0	1.120995E+0	1.075761E+0	1.144752E+0	1.124269E+0	1.117828E+0	1.086490E+0	1.098941E+0	1.090260E+0	1.075407E+0	1.090057E+0	1.055197E+0	1.111087E+0	1.076181E+0	1.099232E+0	1.042329E+0	1.127598E+0	1.090537E+0	1.104835E+0	1.095023E+0	1.092103E+0	1.104153E+0	1.105592E+0	1.112196E+0	1.097813E+0	1.069448E+0	1.085065E+0	1.105382E+0	1.089586E+0	1.075898E+0	1.121678E+0	1.092163E+0	1.060507E+0	1.158744E+0	1.070443E+0	1.087863E+0	1.147655E+0	1.099971E+0	1.098177E+0	1.066780E+0	1.067111E+0	1.125258E+0	1.093075E+0	1.113007E+0	1.084641E+0	1.139099E+0	1.069775E+0	1.075070E+0	1.074367E+0	1.106987E+0	1.101627E+0	1.069335E+0	1.108666E+0	1.091069E+0	1.103479E+0	1.085312E+0	1.142090E+0	1.129991E+0	1.090459E+0	1.110013E+0	1.097478E+0	1.077561E+0	1.074463E+0	1.103625E+0	1.086939E+0	1.071345E+0	1.098873E+0	1.088017E+0	1.085415E+0	1.087561E+0	1.081864E+0	1.115059E+0	1.120363E+0	1.144779E+0	1.090089E+0	1.085606E+0	1.054635E+0	1.107494E+0	1.129662E+0	1.128408E+0	1.073548E+0	1.089581E+0	1.099930E+0	1.041321E+0	1.080808E+0	1.097272E+0	1.111064E+0	1.067734E+0	1.096588E+0	1.103181E+0	1.059154E+0	1.106816E+0	1.109330E+0	1.090176E+0	1.118931E+0	1.059017E+0	1.080831E+0	1.120303E+0	1.098272E+0	1.083624E+0	1.138857E+0	1.097059E+0	1.096125E+0	1.034891E+0	1.087597E+0	1.066182E+0	1.149069E+0	1.131079E+0	1.078293E+0	1.094958E+0	1.103312E+0	1.071520E+0	1.084593E+0	1.080689E+0	1.132198E+0	1.076741E+0	1.127298E+0	1.056017E+0	1.086065E+0	1.108826E+0	1.094877E+0	1.050913E+0	1.107309E+0	1.022857E+0	1.086977E+0	1.111624E+0	1.093987E+0	1.077085E+0	1.074766E+0	1.101978E+0	1.074869E+0	1.049238E+0	1.092951E+0	1.035709E+0	1.109648E+0	1.049658E+0	1.103267E+0	1.088766E+0	1.098269E+0	1.091369E+0	1.095106E+0	1.110432E+0	1.148636E+0	1.074611E+0	1.035302E+0	1.103145E+0	1.085940E+0	1.088932E+0	1.075282E+0	1.066459E+0	1.122367E+0	1.093324E+0	1.084064E+0	1.099569E+0	1.093421E+0	1.093679E+0	1.073086E+0	1.130027E+0	1.092928E+0
5.432960E+2	1.271413E+0	1.280552E+0	1.254123E+0	1.231139E+0	1.251519E+0	1.229336E+0	1.235466E+0	1.275505E+0	1.295864E+0	1.267116E+0	1.224351E+0	1.265888E+0	1.245795E+0	1.216657E+0	1.277759E+0	1.281832E+0	1.253052E+0	1.295030E+0	1.191085E+0	1.293769E+0	1.242055E+0	1.277304E+0	1.229939E+0	1.252483E+0	1.288028E+0	1.325289E+0	1.254632E+0	1.208738E+0	1.272485E+0	1.210180E+0	1.268732E+0	1.207214E+0	1.275355E+0	1.249533E+0	1.253237E+0	1.237488E+0	1.320828E+0	1.281652E+0	1.238247E+0	1.243316E+0	1.250754E+0	1.272800E+0	1.255658E+0	1.244778E+0	1.260391E+0	1.246466E+0	1.275586E+0	1.215294E+0	1.299746E+0	1.254101E+0	1.258035E+0	1.220019E+0	1.238520E+0	1.265837E+0	1.212353E+0	1.253398E+0	1.273579E+0	1.263943E+0	1.240011E+0	1.218558E+0	1.226568E+0	1.248093E+0	1.215431E+0	1.210744E+0	1.255113E+0	1.258358E+0	1.238964E+0	1.264140E+0	1.250269E+0	1.260378E+0	1.199519E+0	1.257302E+0	1.217717E+0	1.223090E+0	1.193708E+0	1.282145E+0	1.219024E+0	1.244051E+0	1.250013E+0	1.287307E+0	1.281521E+0	1.258760E+0	1.225461E+0	1.259595E+0	1.212379E+0	1.244092E+0	1.232780E+0	1.268820E+0	1.299592E+0	1.220576E+0	1.271954E+0	1.257864E+0	1.211559E+0	1.272868E+0	1.233537E+0	1.235610E+0	1.228126E+0	1.211809E+0	1.244455E+0	1.180042E+0	1.216820E+0	1.192950E+0	1.232851E+0	1.222511E+0	1.254644E+0	1.232081E+0	1.219331E+0	1.233357E+0	1.247164E+0	1.292096E+0	1.305495E+0	1.203535E+0	1.302620E+0	1.239257E+0	1.234308E+0	1.179171E+0	1.257108E+0	1.213483E+0	1.278587E+0	1.195385E+0	1.201008E+0	1.238261E+0	1.235632E+0	1.224813E+0	1.238416E+0	1.194833E+0	1.258668E+0	1.228636E+0	1.260967E+0	1.229160E+0	1.227773E+0	1.237040E+0	1.265881E+0	1.240176E+0	1.209047E+0	1.239699E+0	1.267212E+0	1.208735E+0	1.230661E+0	1.273265E+0	1.220976E+0	1.260668E+0	1.259395E+0	1.222085E+0	1.241626E+0	1.214394E+0	1.265767E+0	1.243806E+0	1.312182E+0	1.216989E+0	1.258108E+0	1.236699E+0	1.258414E+0	1.231687E+0	1.231910E+0	1.203592E+0	1.264959E+0	1.199558E+0	1.229163E+0	1.233734E+0	1.259592E+0	1.258001E+0	1.226325E+0	1.297539E+0	1.217046E+0	1.212086E+0	1.297957E+0	1.258669E+0	1.292910E+0	1.243179E+0	1.239947E+0
5.435330E+2	1.374825E+0	1.440099E+0	1.432031E+0	1.438666E+0	1.429591E+0	1.428171E+0	1.416262E+0	1.363674E+0	1.403845E+0	1.446203E+0	1.420072E+0	1.444260E+0	1.442004E+0	1.403055E+0	1.393626E+0	1.433064E+0	1.417816E+0	1.422801E+0	1.382827E+0	1.406290E+0	1.458713E+0	1.392123E+0	1.438039E+0	1.391258E+0	1.453009E+0	1.411091E+0	1.449365E+0	1.435250E+0	1.362000E+0	1.368482E+0	1.374128E+0	1.407658E+0	1.448434E+0	1.476962E+0	1.337991E+0	1.438612E+0	1.410498E+0	1.379703E+0	1.403937E+0	1.423968E+0	1.386076E+0	1.383606E+0	1.406139E+0	1.441679E+0	1.378577E+0	1.428352E+0	1.386675E+0	1.361226E+0	1.445858E+0	1.412724E+0	1.413060E+0	1.402289E+0	1.387607E+0	1.446186E+0	1.373177E+0	1.422064E+0	1.395744E+0	1.397501E+0	1.382118E+0	1.394827E+0	1.441424E+0	1.395569E+0	1.400206E+0	1.346032E+0	1.411952E+0	1.453089E+0	1.358145E+0	1.382201E+0	1.435175E+0	1.421316E+0	1.423237E+0	1.405768E+0	1.427382E+0	1.378689E+0	1.340409E+0	1.419179E+0	1.394878E+0	1.369390E+0	1.386186E+0	1.413099E+0	1.392134E+0	1.424180E+0	1.375312E+0	1.386286E+0	1.360010E+0	1.399180E+0	1.399794E+0	1.377301E+0	1.444902E+0	1.385886E+0	1.339299E+0	1.359580E+0	1.360038E+0	1.416707E+0	1.412221E+0	1.382195E+0	1.391718E+0	1.388907E+0	1.439311E+0	1.426130E+0	1.453069E+0	1.407922E+0	1.401493E+0	1.385493E+0	1.403705E+0	1.396296E+0	1.373254E+0	1.374090E+0	1.385120E+0	1.390252E+0	1.413512E+0	1.406123E+0	1.434865E+0	1.380542E+0	1.364585E+0	1.352331E+0	1.445395E+0	1.344327E+0	1.399603E+0	1.415642E+0	1.382994E+0	1.384608E+0	1.419955E+0	1.407227E+0	1.377558E+0	1.360245E+0	1.366630E+0	1.372397E+0	1.370727E+0	1.347624E+0	1.387040E+0	1.391071E+0	1.432797E+0	1.446531E+0	1.422105E+0	1.370376E+0	1.343427E+0	1.401232E+0	1.424489E+0	1.335947E+0	1.403128E+0	1.427114E+0	1.371900E+0	1.386115E+0	1.418390E+0	1.393132E+0	1.429608E+0	1.404400E+0	1.407894E+0	1.349302E+0	1.383033E+0	1.377268E+0	1.366601E+0	1.444781E+0	1.405802E+0	1.364776E+0	1.381418E+0	1.331653E+0	1.344962E+0	1.370895E+0	1.437406E+0	1.390630E+0	1.357158E+0	1.363810E+0	1.380102E+0	1.377385E+0	1.410344E+0	1.354223E+0	1.360029E+0	1.403153E+0	1.441609E+0
5.437640E+2	1.498347E+0	1.489842E+0	1.571159E+0	1.526057E+0	1.512121E+0	1.497869E+0	1.640240E+0	1.495128E+0	1.517755E+0	1.459171E+0	1.469952E+0	1.511204E+0	1.558714E+0	1.514355E+0	1.459906E+0	1.545296E+0	1.484220E+0	1.544231E+0	1.482402E+0	1.544027E+0	1.539858E+0	1.545976E+0	1.558479E+0	1.540044E+0	1.514535E+0	1.547640E+0	1.539496E+0	1.542625E+0	1.535310E+0	1.544908E+0	1.554378E+0	1.484562E+0	1.563473E+0	1.560255E+0	1.537185E+0	1.537236E+0	1.473199E+0	1.538903E+0	1.518076E+0	1.504675E+0	1.521077E+0	1.547172E+0	1.538179E+0	1.446218E+0	1.534053E+0	1.538081E+0	1.558339E+0	1.491944E+0	1.503509E+0	1.514273E+0	1.538172E+0	1.486323E+0	1.520365E+0	1.548065E+0	1.542439E+0	1.530568E+0	1.516542E+0	1.507647E+0	1.557443E+0	1.434781E+0	1.486083E+0	1.501567E+0	1.536992E+0	1.481191E+0	1.489931E+0	1.516959E+0	1.497185E+0	1.484380E+0	1.451211E+0	1.562473E+0	1.478207E+0	1.479131E+0	1.513156E+0	1.490463E+0	1.485103E+0	1.513048E+0	1.465582E+0	1.512898E+0	1.524660E+0	1.542254E+0	1.482725E+0	1.516819E+0	1.456493E+0	1.484791E+0	1.516019E+0	1.551123E+0	1.532381E+0	1.551722E+0	1.490385E+0	1.487834E+0	1.518339E+0	1.490775E+0	1.518102E+0	1.600054E+0	1.499066E+0	1.501503E+0	1.494261E+0	1.454331E+0	1.543337E+0	1.471750E+0	1.475348E+0	1.502929E+0	1.445359E+0	1.513414E+0	1.482225E+0	1.494914E+0	1.520477E+0	1.506830E+0	1.509696E+0	1.505936E+0	1.536897E+0	1.496523E+0	1.488494E+0	1.509343E+0	1.500351E+0	1.425295E+0	1.564786E+0	1.466984E+0	1.484110E+0	1.498905E+0	1.485311E+0	1.471805E+0	1.464735E+0	1.544556E+0	1.567932E+0	1.513457E+0	1.512271E+0	1.503215E+0	1.459623E+0	1.476022E+0	1.496922E+0	1.417473E+0	1.485019E+0	1.461070E+0	1.550328E+0	1.523811E+0	1.507909E+0	1.487323E+0	1.509919E+0	1.456756E+0	1.475386E+0	1.532588E+0	1.496528E+0	1.433695E+0	1.501257E+0	1.523454E+0	1.482281E+0	1.508331E+0	1.524002E+0	1.475510E+0	1.528387E+0	1.415760E+0	1.489565E+0	1.484358E+0	1.511498E+0	1.435796E+0	1.496440E+0	1.444927E+0	1.507561E+0	1.488365E+0	1.513720E+0	1.537692E+0	1.466796E+0	1.479785E+0	1.517434E+0	1.557064E+0	1.520960E+0	1.514663E+0	1.497407E+0	1.567014E+0	1.511492E+0
5.440120E+2	1.607150E+0	1.562221E+0	1.626474E+0	1.597100E+0	1.580941E+0	1.637630E+0	1.621806E+0	1.598460E+0	1.548627E+0	1.540711E+0	1.626994E+0	1.598365E+0	1.600712E+0	1.555441E+0	1.565588E+0	1.617788E+0	1.606097E+0	1.627389E+0	1.630436E+0	1.641052E+0	1.622758E+0	1.582770E+0	1.644422E+0	1.622636E+0	1.527242E+0	1.572924E+0	1.574861E+0	1.610102E+0	1.593673E+0	1.530648E+0	1.600333E+0	1.538687E+0	1.527133E+0	1.586196E+0	1.565610E+0	1.578539E+0	1.583278E+0	1.613260E+0	1.565004E+0	1.636726E+0	1.586693E+0	1.583164E+0	1.582497E+0	1.574190E+0	1.596004E+0	1.548161E+0	1.598932E+0	1.527559E+0	1.571651E+0	1.595723E+0	1.587638E+0	1.546139E+0	1.536003E+0	1.677203E+0	1.574661E+0	1.584838E+0	1.600613E+0	1.588025E+0	1.556196E+0	1.585831E+0	1.544063E+0	1.592772E+0	1.594900E+0	1.566353E+0	1.619018E+0	1.613321E+0	1.580772E+0	1.568217E+0	1.598008E+0	1.589227E+0	1.548820E+0	1.542884E+0	1.568176E+0	1.601317E+0	1.528422E+0	1.643300E+0	1.574529E+0	1.571345E+0	1.580470E+0	1.557992E+0	1.564062E+0	1.562604E+0	1.572426E+0	1.560216E+0	1.628377E+0	1.607106E+0	1.583747E+0	1.642078E+0	1.614332E+0	1.555457E+0	1.563385E+0	1.590492E+0	1.624791E+0	1.591595E+0	1.510636E+0	1.551084E+0	1.584748E+0	1.536061E+0	1.612386E+0	1.578671E+0	1.633482E+0	1.555313E+0	1.560976E+0	1.573246E+0	1.549716E+0	1.532230E+0	1.507413E+0	1.556523E+0	1.551459E+0	1.578008E+0	1.607228E+0	1.585540E+0	1.588922E+0	1.528062E+0	1.547242E+0	1.539528E+0	1.598834E+0	1.542504E+0	1.556476E+0	1.560435E+0	1.538486E+0	1.553001E+0	1.554148E+0	1.581244E+0	1.612986E+0	1.573060E+0	1.553663E+0	1.525830E+0	1.503185E+0	1.534105E+0	1.550785E+0	1.545337E+0	1.637664E+0	1.535861E+0	1.588424E+0	1.591248E+0	1.562012E+0	1.554153E+0	1.565750E+0	1.547062E+0	1.551288E+0	1.561479E+0	1.532621E+0	1.522206E+0	1.551572E+0	1.569556E+0	1.570145E+0	1.568643E+0	1.573305E+0	1.589872E+0	1.575438E+0	1.560829E+0	1.531259E+0	1.527114E+0	1.580760E+0	1.501529E+0	1.585074E+0	1.596548E+0	1.517667E+0	1.545809E+0	1.608179E+0	1.606567E+0	1.551369E+0	1.576331E+0	1.568423E+0	1.560666E+0	1.588435E+0	1.551771E+0	1.490994E+0	1.532025E+0	1.536414E+0
5.442650E+2	1.574771E+0	1.585185E+0	1.641750E+0	1.576228E+0	1.586511E+0	1.625040E+0	1.602975E+0	1.582940E+0	1.533364E+0	1.580075E+0	1.564797E+0	1.604080E+0	1.572067E+0	1.528665E+0	1.574364E+0	1.579879E+0	1.539317E+0	1.579610E+0	1.589480E+0	1.545354E+0	1.566363E+0	1.569420E+0	1.577281E+0	1.553983E+0	1.609861E+0	1.558009E+0	1.630562E+0	1.595865E+0	1.547522E+0	1.548216E+0	1.530980E+0	1.548419E+0	1.527523E+0	1.599790E+0	1.600897E+0	1.496648E+0	1.551169E+0	1.527819E+0	1.568230E+0	1.555572E+0	1.453956E+0	1.571114E+0	1.651932E+0	1.541773E+0	1.549795E+0	1.591015E+0	1.597594E+0	1.564893E+0	1.576473E+0	1.603249E+0	1.551760E+0	1.537886E+0	1.519368E+0	1.622590E+0	1.566650E+0	1.495688E+0	1.557994E+0	1.559177E+0	1.591169E+0	1.575397E+0	1.518396E+0	1.560519E+0	1.574724E+0	1.603078E+0	1.497913E+0	1.592527E+0	1.562321E+0	1.596233E+0	1.534475E+0	1.554388E+0	1.570624E+0	1.623421E+0	1.534507E+0	1.566885E+0	1.538194E+0	1.595147E+0	1.525834E+0	1.527152E+0	1.609188E+0	1.579570E+0	1.563575E+0	1.523223E+0	1.593720E+0	1.568267E+0	1.529809E+0	1.605575E+0	1.544060E+0	1.520344E+0	1.594092E+0	1.569876E+0	1.552792E+0	1.577697E+0	1.523613E+0	1.527883E+0	1.483070E+0	1.491037E+0	1.475040E+0	1.601515E+0	1.551121E+0	1.534401E+0	1.552442E+0	1.611893E+0	1.496667E+0	1.502686E+0	1.537252E+0	1.548408E+0	1.523824E+0	1.531599E+0	1.522081E+0	1.572965E+0	1.623657E+0	1.524055E+0	1.576608E+0	1.596206E+0	1.506869E+0	1.548686E+0	1.527147E+0	1.546024E+0	1.517787E+0	1.536965E+0	1.496767E+0	1.512791E+0	1.467820E+0	1.539411E+0	1.520210E+0	1.530307E+0	1.527287E+0	1.484313E+0	1.555387E+0	1.522680E+0	1.585594E+0	1.549307E+0	1.554795E+0	1.565929E+0	1.597158E+0	1.549359E+0	1.508293E+0	1.572767E+0	1.554491E+0	1.557102E+0	1.535470E+0	1.525319E+0	1.545929E+0	1.502818E+0	1.546775E+0	1.493972E+0	1.564963E+0	1.515792E+0	1.546044E+0	1.544594E+0	1.585745E+0	1.511338E+0	1.586924E+0	1.543220E+0	1.472606E+0	1.503938E+0	1.510679E+0	1.486173E+0	1.524742E+0	1.583253E+0	1.531646E+0	1.560328E+0	1.552416E+0	1.567555E+0	1.517753E+0	1.575757E+0	1.540532E+0	1.552240E+0	1.482981E+0	1.556682E+0	1.541118E+0
5.445290E+2	1.516563E+0	1.483587E+0	1.539328E+0	1.567264E+0	1.500357E+0	1.588095E+0	1.489343E+0	1.532037E+0	1.432460E+0	1.516902E+0	1.486052E+0	1.509691E+0	1.477567E+0	1.507861E+0	1.460104E+0	1.574850E+0	1.531057E+0	1.517998E+0	1.515901E+0	1.480251E+0	1.466030E+0	1.562033E+0	1.570746E+0	1.504649E+0	1.492805E+0	1.496825E+0	1.482567E+0	1.472317E+0	1.516308E+0	1.489386E+0	1.482792E+0	1.477485E+0	1.513787E+0	1.525907E+0	1.496941E+0	1.493127E+0	1.462275E+0	1.550701E+0	1.513774E+0	1.531314E+0	1.484802E+0	1.518906E+0	1.516258E+0	1.497318E+0	1.503100E+0	1.576345E+0	1.550366E+0	1.544165E+0	1.485576E+0	1.535302E+0	1.496012E+0	1.543513E+0	1.453380E+0	1.591913E+0	1.506019E+0	1.511143E+0	1.474008E+0	1.495275E+0	1.565359E+0	1.452318E+0	1.463651E+0	1.533512E+0	1.523021E+0	1.503693E+0	1.487976E+0	1.512546E+0	1.523385E+0	1.477987E+0	1.506683E+0	1.504468E+0	1.468082E+0	1.524174E+0	1.462843E+0	1.426548E+0	1.533333E+0	1.519357E+0	1.495615E+0	1.511827E+0	1.449708E+0	1.520319E+0	1.502388E+0	1.487538E+0	1.503916E+0	1.504239E+0	1.501892E+0	1.518361E+0	1.535535E+0	1.481688E+0	1.553336E+0	1.507933E+0	1.496782E+0	1.466681E+0	1.470389E+0	1.525190E+0	1.490402E+0	1.524579E+0	1.508776E+0	1.510068E+0	1.464065E+0	1.485698E+0	1.524208E+0	1.510149E+0	1.443872E+0	1.455799E+0	1.512243E+0	1.452656E+0	1.563339E+0	1.485430E+0	1.454543E+0	1.467108E+0	1.488063E+0	1.473915E+0	1.483308E+0	1.572599E+0	1.541526E+0	1.459773E+0	1.518916E+0	1.504628E+0	1.508910E+0	1.494991E+0	1.451549E+0	1.509767E+0	1.538799E+0	1.498332E+0	1.461314E+0	1.485079E+0	1.480818E+0	1.505002E+0	1.490992E+0	1.469653E+0	1.528249E+0	1.507030E+0	1.477951E+0	1.521376E+0	1.547407E+0	1.517556E+0	1.469119E+0	1.523031E+0	1.505772E+0	1.509988E+0	1.427464E+0	1.453184E+0	1.512834E+0	1.440439E+0	1.499347E+0	1.507170E+0	1.495867E+0	1.399896E+0	1.527194E+0	1.482192E+0	1.538393E+0	1.530937E+0	1.454038E+0	1.516601E+0	1.474563E+0	1.511753E+0	1.494151E+0	1.442755E+0	1.488888E+0	1.528886E+0	1.505954E+0	1.515664E+0	1.427438E+0	1.499265E+0	1.477356E+0	1.529608E+0	1.501151E+0	1.469312E+0	1.452012E+0	1.549056E+0	1.557678E+0
5.447720E+2	1.440145E+0	1.462417E+0	1.450605E+0	1.448623E+0	1.414471E+0	1.462272E+0	1.490894E+0	1.423381E+0	1.420485E+0	1.472235E+0	1.418749E+0	1.484676E+0	1.466660E+0	1.442609E+0	1.434573E+0	1.514745E+0	1.497294E+0	1.507214E+0	1.429659E+0	1.465062E+0	1.415514E+0	1.449333E+0	1.495093E+0	1.465136E+0	1.453841E+0	1.420077E+0	1.405975E+0	1.509890E+0	1.416593E+0	1.421087E+0	1.457784E+0	1.470108E+0	1.407555E+0	1.485459E+0	1.500425E+0	1.439080E+0	1.394933E+0	1.502748E+0	1.467899E+0	1.473308E+0	1.432821E+0	1.462712E+0	1.441928E+0	1.445310E+0	1.421399E+0	1.473004E+0	1.398322E+0	1.433541E+0	1.437616E+0	1.451499E+0	1.482205E+0	1.472078E+0	1.411634E+0	1.484653E+0	1.431135E+0	1.466180E+0	1.445544E+0	1.465702E+0	1.430912E+0	1.450782E+0	1.445889E+0	1.439281E+0	1.453836E+0	1.485222E+0	1.429717E+0	1.461595E+0	1.460992E+0	1.474787E+0	1.439995E+0	1.467812E+0	1.465886E+0	1.424810E+0	1.424697E+0	1.428202E+0	1.427281E+0	1.505335E+0	1.382282E+0	1.395430E+0	1.475707E+0	1.426605E+0	1.455924E+0	1.444371E+0	1.423092E+0	1.488478E+0	1.369485E+0	1.463843E+0	1.468893E+0	1.490139E+0	1.426518E+0	1.396419E+0	1.452333E+0	1.409902E+0	1.420071E+0	1.441641E+0	1.435275E+0	1.435352E+0	1.460452E+0	1.432159E+0	1.480225E+0	1.479092E+0	1.421619E+0	1.437487E+0	1.478594E+0	1.436173E+0	1.427899E+0	1.414404E+0	1.475380E+0	1.475622E+0	1.369396E+0	1.478069E+0	1.485870E+0	1.470249E+0	1.496836E+0	1.457126E+0	1.424922E+0	1.383582E+0	1.474620E+0	1.442505E+0	1.423548E+0	1.428151E+0	1.429760E+0	1.430722E+0	1.454270E+0	1.406932E+0	1.399260E+0	1.389381E+0	1.446512E+0	1.443360E+0	1.444805E+0	1.413252E+0	1.452515E+0	1.386800E+0	1.402228E+0	1.419879E+0	1.387509E+0	1.493231E+0	1.417901E+0	1.446672E+0	1.412951E+0	1.461348E+0	1.434818E+0	1.417206E+0	1.429741E+0	1.394627E+0	1.390419E+0	1.429314E+0	1.417893E+0	1.397891E+0	1.422617E+0	1.399683E+0	1.513495E+0	1.406913E+0	1.405921E+0	1.491557E+0	1.459761E+0	1.402056E+0	1.378570E+0	1.405673E+0	1.436463E+0	1.470685E+0	1.431571E+0	1.466781E+0	1.399417E+0	1.428036E+0	1.423512E+0	1.463957E+0	1.466002E+0	1.440740E+0	1.437104E+0	1.410622E+0	1.435693E+0
5.450200E+2	1.354125E+0	1.344662E+0	1.416851E+0	1.357460E+0	1.374434E+0	1.360025E+0	1.449019E+0	1.359428E+0	1.389142E+0	1.432224E+0	1.378398E+0	1.342004E+0	1.406235E+0	1.360310E+0	1.347418E+0	1.413858E+0	1.348637E+0	1.429483E+0	1.348733E+0	1.387494E+0	1.397091E+0	1.409701E+0	1.384367E+0	1.407287E+0	1.357734E+0	1.358199E+0	1.400166E+0	1.387484E+0	1.393880E+0	1.352498E+0	1.346734E+0	1.345336E+0	1.398735E+0	1.370899E+0	1.347082E+0	1.328179E+0	1.329371E+0	1.398086E+0	1.366396E+0	1.386026E+0	1.334952E+0	1.405803E+0	1.397550E+0	1.420913E+0	1.344449E+0	1.410414E+0	1.372236E+0	1.376739E+0	1.372759E+0	1.422901E+0	1.426630E+0	1.391426E+0	1.319246E+0	1.404366E+0	1.378342E+0	1.362093E+0	1.344066E+0	1.377739E+0	1.443330E+0	1.405666E+0	1.328532E+0	1.384189E+0	1.390220E+0	1.318793E+0	1.371547E+0	1.369887E+0	1.410037E+0	1.377322E+0	1.352810E+0	1.424611E+0	1.370537E+0	1.348185E+0	1.304264E+0	1.340133E+0	1.307021E+0	1.406281E+0	1.423117E+0	1.344015E+0	1.390210E+0	1.340886E+0	1.395429E+0	1.367817E+0	1.383448E+0	1.342006E+0	1.365423E+0	1.422001E+0	1.404280E+0	1.351096E+0	1.330219E+0	1.418209E+0	1.357867E+0	1.341342E+0	1.378224E+0	1.389360E+0	1.352841E+0	1.368249E+0	1.380704E+0	1.349673E+0	1.438492E+0	1.356870E+0	1.369985E+0	1.396037E+0	1.430328E+0	1.340035E+0	1.404386E+0	1.347419E+0	1.390614E+0	1.350906E+0	1.355748E+0	1.429714E+0	1.412108E+0	1.347227E+0	1.387121E+0	1.418057E+0	1.413167E+0	1.365328E+0	1.384345E+0	1.358360E+0	1.389917E+0	1.335677E+0	1.299156E+0	1.324648E+0	1.303741E+0	1.400736E+0	1.350987E+0	1.313024E+0	1.345610E+0	1.365304E+0	1.377187E+0	1.359130E+0	1.336846E+0	1.348375E+0	1.354855E+0	1.367378E+0	1.435511E+0	1.427482E+0	1.336577E+0	1.389023E+0	1.341745E+0	1.347841E+0	1.381069E+0	1.405342E+0	1.334460E+0	1.329772E+0	1.313713E+0	1.362108E+0	1.370087E+0	1.327903E+0	1.342973E+0	1.405771E+0	1.409020E+0	1.324536E+0	1.349253E+0	1.310961E+0	1.403857E+0	1.332316E+0	1.367959E+0	1.387782E+0	1.356767E+0	1.384901E+0	1.350335E+0	1.403257E+0	1.340703E+0	1.343670E+0	1.340573E+0	1.364581E+0	1.379538E+0	1.387561E+0	1.374998E+0	1.442276E+0	1.410132E+0
5.452690E+2	1.321992E+0	1.323026E+0	1.336508E+0	1.367835E+0	1.265541E+0	1.329331E+0	1.359257E+0	1.308108E+0	1.300259E+0	1.327523E+0	1.319788E+0	1.286566E+0	1.306444E+0	1.303112E+0	1.274534E+0	1.361560E+0	1.328323E+0	1.286378E+0	1.317199E+0	1.291525E+0	1.337243E+0	1.307060E+0	1.307039E+0	1.404429E+0	1.276615E+0	1.303227E+0	1.276686E+0	1.329246E+0	1.313983E+0	1.310938E+0	1.312629E+0	1.239758E+0	1.332109E+0	1.299857E+0	1.308310E+0	1.331015E+0	1.300059E+0	1.327228E+0	1.304007E+0	1.309588E+0	1.332999E+0	1.307967E+0	1.326286E+0	1.303102E+0	1.285190E+0	1.306340E+0	1.268317E+0	1.337787E+0	1.306669E+0	1.300812E+0	1.242304E+0	1.330742E+0	1.301895E+0	1.330313E+0	1.298086E+0	1.348992E+0	1.315831E+0	1.366491E+0	1.335085E+0	1.290141E+0	1.272655E+0	1.352201E+0	1.307322E+0	1.292069E+0	1.294578E+0	1.306232E+0	1.293964E+0	1.296635E+0	1.287414E+0	1.351306E+0	1.335734E+0	1.338978E+0	1.269036E+0	1.310379E+0	1.303336E+0	1.328630E+0	1.270503E+0	1.301667E+0	1.353370E+0	1.290509E+0	1.304817E+0	1.302806E+0	1.339130E+0	1.290003E+0	1.292173E+0	1.304870E+0	1.332833E+0	1.300053E+0	1.333464E+0	1.260735E+0	1.247624E+0	1.302840E+0	1.331689E+0	1.318953E+0	1.271266E+0	1.277902E+0	1.265566E+0	1.362130E+0	1.352219E+0	1.260872E+0	1.291621E+0	1.298854E+0	1.254749E+0	1.250017E+0	1.317949E+0	1.260266E+0	1.313325E+0	1.326670E+0	1.266093E+0	1.347966E+0	1.286221E+0	1.292852E+0	1.309058E+0	1.303325E+0	1.237090E+0	1.256220E+0	1.334364E+0	1.300981E+0	1.295554E+0	1.303226E+0	1.223188E+0	1.310127E+0	1.295059E+0	1.345282E+0	1.283812E+0	1.344131E+0	1.332364E+0	1.238719E+0	1.302440E+0	1.274066E+0	1.311514E+0	1.293515E+0	1.298443E+0	1.328841E+0	1.309095E+0	1.316372E+0	1.305222E+0	1.297969E+0	1.299471E+0	1.250523E+0	1.301588E+0	1.292909E+0	1.240965E+0	1.220502E+0	1.281637E+0	1.313014E+0	1.355162E+0	1.260083E+0	1.319131E+0	1.293115E+0	1.285961E+0	1.324961E+0	1.276881E+0	1.336955E+0	1.297238E+0	1.261489E+0	1.294964E+0	1.328749E+0	1.306653E+0	1.299511E+0	1.305989E+0	1.308034E+0	1.318858E+0	1.298130E+0	1.282757E+0	1.376090E+0	1.337884E+0	1.353632E+0	1.356081E+0	1.305632E+0	1.285029E+0
5.455450E+2	1.238963E+0	1.234741E+0	1.244206E+0	1.212006E+0	1.210302E+0	1.238003E+0	1.256961E+0	1.203458E+0	1.231017E+0	1.241663E+0	1.217411E+0	1.243417E+0	1.201442E+0	1.218082E+0	1.251147E+0	1.237693E+0	1.207379E+0	1.218914E+0	1.230291E+0	1.237323E+0	1.236512E+0	1.192448E+0	1.219827E+0	1.247493E+0	1.293804E+0	1.250862E+0	1.250537E+0	1.212045E+0	1.221080E+0	1.218416E+0	1.215165E+0	1.205367E+0	1.190592E+0	1.293476E+0	1.233296E+0	1.238314E+0	1.212037E+0	1.245990E+0	1.258902E+0	1.255791E+0	1.227104E+0	1.264429E+0	1.170092E+0	1.278944E+0	1.237458E+0	1.253385E+0	1.209844E+0	1.213164E+0	1.222338E+0	1.262981E+0	1.246632E+0	1.224397E+0	1.203929E+0	1.265474E+0	1.242583E+0	1.271188E+0	1.212184E+0	1.252636E+0	1.209589E+0	1.240206E+0	1.272911E+0	1.211651E+0	1.246839E+0	1.220183E+0	1.244477E+0	1.300907E+0	1.217518E+0	1.253249E+0	1.224364E+0	1.254662E+0	1.211637E+0	1.241460E+0	1.219355E+0	1.200050E+0	1.244256E+0	1.190424E+0	1.180879E+0	1.207758E+0	1.221125E+0	1.238891E+0	1.181930E+0	1.244373E+0	1.247841E+0	1.225030E+0	1.181838E+0	1.245932E+0	1.229337E+0	1.238820E+0	1.244596E+0	1.264330E+0	1.181667E+0	1.159181E+0	1.231964E+0	1.252493E+0	1.236018E+0	1.188144E+0	1.204143E+0	1.257585E+0	1.248533E+0	1.247839E+0	1.231348E+0	1.278852E+0	1.239018E+0	1.209686E+0	1.212251E+0	1.247466E+0	1.225291E+0	1.243701E+0	1.208215E+0	1.224644E+0	1.198798E+0	1.183025E+0	1.211337E+0	1.251380E+0	1.212934E+0	1.188350E+0	1.229935E+0	1.216875E+0	1.254473E+0	1.251920E+0	1.241697E+0	1.224285E+0	1.248446E+0	1.229656E+0	1.202484E+0	1.187972E+0	1.194892E+0	1.218422E+0	1.220196E+0	1.235755E+0	1.203686E+0	1.277337E+0	1.224448E+0	1.244203E+0	1.258090E+0	1.219513E+0	1.186472E+0	1.248496E+0	1.242706E+0	1.205311E+0	1.213262E+0	1.254445E+0	1.232244E+0	1.226472E+0	1.183655E+0	1.257589E+0	1.257101E+0	1.217576E+0	1.240020E+0	1.249855E+0	1.287219E+0	1.198512E+0	1.235482E+0	1.286924E+0	1.185077E+0	1.223134E+0	1.237280E+0	1.223226E+0	1.238423E+0	1.230055E+0	1.226144E+0	1.270688E+0	1.222928E+0	1.224189E+0	1.208621E+0	1.237547E+0	1.231383E+0	1.183701E+0	1.224132E+0	1.186040E+0	1.288944E+0
5.457890E+2	1.187938E+0	1.207984E+0	1.207495E+0	1.165705E+0	1.194537E+0	1.190410E+0	1.187735E+0	1.181432E+0	1.192323E+0	1.212865E+0	1.169549E+0	1.182324E+0	1.165850E+0	1.164430E+0	1.211173E+0	1.262312E+0	1.154669E+0	1.186558E+0	1.117548E+0	1.183698E+0	1.162197E+0	1.159211E+0	1.205281E+0	1.164740E+0	1.132618E+0	1.159667E+0	1.203643E+0	1.214509E+0	1.186634E+0	1.126599E+0	1.146460E+0	1.179379E+0	1.193793E+0	1.164583E+0	1.215057E+0	1.179486E+0	1.183726E+0	1.148882E+0	1.162742E+0	1.161220E+0	1.165088E+0	1.164746E+0	1.137484E+0	1.206552E+0	1.148127E+0	1.181174E+0	1.168086E+0	1.141157E+0	1.165676E+0	1.194944E+0	1.205425E+0	1.160454E+0	1.122794E+0	1.210623E+0	1.200820E+0	1.177601E+0	1.156819E+0	1.169351E+0	1.157271E+0	1.198515E+0	1.159410E+0	1.134661E+0	1.152770E+0	1.132533E+0	1.126871E+0	1.184040E+0	1.142100E+0	1.155717E+0	1.226293E+0	1.256300E+0	1.144785E+0	1.147472E+0	1.166182E+0	1.198901E+0	1.185498E+0	1.209665E+0	1.179991E+0	1.165919E+0	1.176578E+0	1.130272E+0	1.203289E+0	1.219253E+0	1.203947E+0	1.175146E+0	1.154651E+0	1.191966E+0	1.173886E+0	1.153670E+0	1.152386E+0	1.135830E+0	1.206539E+0	1.184850E+0	1.152538E+0	1.191347E+0	1.220810E+0	1.158663E+0	1.143383E+0	1.210112E+0	1.236750E+0	1.146394E+0	1.186414E+0	1.188593E+0	1.198028E+0	1.153765E+0	1.147743E+0	1.126612E+0	1.199387E+0	1.212908E+0	1.154428E+0	1.152402E+0	1.175400E+0	1.162651E+0	1.165954E+0	1.187514E+0	1.150758E+0	1.197048E+0	1.183085E+0	1.146528E+0	1.187146E+0	1.185677E+0	1.117693E+0	1.183999E+0	1.184969E+0	1.153054E+0	1.179841E+0	1.125317E+0	1.191193E+0	1.150356E+0	1.229564E+0	1.158053E+0	1.170797E+0	1.200612E+0	1.185789E+0	1.224291E+0	1.185920E+0	1.160618E+0	1.153285E+0	1.159991E+0	1.189705E+0	1.173947E+0	1.152449E+0	1.187021E+0	1.201709E+0	1.114707E+0	1.133699E+0	1.228017E+0	1.185127E+0	1.154601E+0	1.192970E+0	1.224876E+0	1.178239E+0	1.159754E+0	1.154164E+0	1.229817E+0	1.169349E+0	1.135797E+0	1.145771E+0	1.172445E+0	1.180321E+0	1.180678E+0	1.169250E+0	1.182584E+0	1.203320E+0	1.140322E+0	1.098566E+0	1.170142E+0	1.192838E+0	1.144036E+0	1.207039E+0	1.244392E+0	1.154775E+0
5.460110E+2	1.171450E+0	1.149603E+0	1.171745E+0	1.149296E+0	1.124643E+0	1.102757E+0	1.139750E+0	1.127378E+0	1.126278E+0	1.172073E+0	1.146700E+0	1.129997E+0	1.158513E+0	1.140289E+0	1.147659E+0	1.171708E+0	1.149339E+0	1.184708E+0	1.160235E+0	1.147635E+0	1.189424E+0	1.157646E+0	1.120507E+0	1.155092E+0	1.192305E+0	1.146373E+0	1.188952E+0	1.207453E+0	1.129908E+0	1.092605E+0	1.163863E+0	1.142430E+0	1.134173E+0	1.103030E+0	1.151562E+0	1.167960E+0	1.095262E+0	1.112162E+0	1.159003E+0	1.118032E+0	1.177082E+0	1.130007E+0	1.169500E+0	1.234598E+0	1.138446E+0	1.161166E+0	1.156647E+0	1.134799E+0	1.177923E+0	1.135103E+0	1.123247E+0	1.167259E+0	1.159353E+0	1.168253E+0	1.153873E+0	1.160901E+0	1.170336E+0	1.144039E+0	1.146950E+0	1.146196E+0	1.172091E+0	1.125806E+0	1.158263E+0	1.157822E+0	1.124146E+0	1.112334E+0	1.167934E+0	1.155008E+0	1.152336E+0	1.150599E+0	1.193033E+0	1.187076E+0	1.120314E+0	1.151089E+0	1.113306E+0	1.202119E+0	1.184516E+0	1.128425E+0	1.155327E+0	1.154341E+0	1.132778E+0	1.130526E+0	1.146669E+0	1.150508E+0	1.136886E+0	1.129321E+0	1.181024E+0	1.170295E+0	1.153417E+0	1.118069E+0	1.160094E+0	1.120127E+0	1.166957E+0	1.172436E+0	1.153556E+0	1.157613E+0	1.116903E+0	1.092188E+0	1.130467E+0	1.121661E+0	1.156702E+0	1.150282E+0	1.188230E+0	1.152976E+0	1.145650E+0	1.151669E+0	1.173391E+0	1.105570E+0	1.122570E+0	1.151049E+0	1.141763E+0	1.120921E+0	1.171729E+0	1.173727E+0	1.122730E+0	1.132486E+0	1.116197E+0	1.161107E+0	1.126952E+0	1.170779E+0	1.088178E+0	1.163909E+0	1.148813E+0	1.131837E+0	1.178582E+0	1.099065E+0	1.108395E+0	1.133457E+0	1.117942E+0	1.128358E+0	1.129667E+0	1.095027E+0	1.170230E+0	1.155137E+0	1.159787E+0	1.188618E+0	1.150155E+0	1.166155E+0	1.090928E+0	1.148892E+0	1.125776E+0	1.164659E+0	1.128195E+0	1.130669E+0	1.111220E+0	1.083155E+0	1.195621E+0	1.148008E+0	1.176031E+0	1.143538E+0	1.149359E+0	1.159290E+0	1.134063E+0	1.141510E+0	1.133158E+0	1.118838E+0	1.156113E+0	1.102361E+0	1.100056E+0	1.195530E+0	1.105910E+0	1.110997E+0	1.119554E+0	1.114467E+0	1.154682E+0	1.150072E+0	1.128973E+0	1.147099E+0	1.132970E+0	1.112444E+0	1.061371E+0
5.467710E+2	1.231783E+0	1.244874E+0	1.280745E+0	1.274173E+0	1.214427E+0	1.222143E+0	1.255773E+0	1.233453E+0	1.216472E+0	1.199364E+0	1.244242E+0	1.196761E+0	1.188205E+0	1.256116E+0	1.207806E+0	1.278947E+0	1.223747E+0	1.227775E+0	1.196414E+0	1.233757E+0	1.200512E+0	1.229839E+0	1.292759E+0	1.229992E+0	1.240972E+0	1.217557E+0	1.215606E+0	1.250128E+0	1.201669E+0	1.207200E+0	1.201442E+0	1.229391E+0	1.188063E+0	1.214692E+0	1.188773E+0	1.205782E+0	1.226250E+0	1.204191E+0	1.249448E+0	1.261251E+0	1.161798E+0	1.199374E+0	1.198425E+0	1.227276E+0	1.193781E+0	1.262801E+0	1.235999E+0	1.214257E+0	1.230500E+0	1.195591E+0	1.248118E+0	1.206352E+0	1.198050E+0	1.192268E+0	1.197056E+0	1.225888E+0	1.208790E+0	1.231372E+0	1.184806E+0	1.209999E+0	1.247492E+0	1.238288E+0	1.224417E+0	1.232610E+0	1.193397E+0	1.249246E+0	1.217574E+0	1.246524E+0	1.232377E+0	1.220816E+0	1.209362E+0	1.180131E+0	1.235223E+0	1.221976E+0	1.246572E+0	1.252889E+0	1.204937E+0	1.232888E+0	1.248407E+0	1.248452E+0	1.161009E+0	1.218063E+0	1.198139E+0	1.185227E+0	1.189013E+0	1.256559E+0	1.237650E+0	1.268925E+0	1.229556E+0	1.235819E+0	1.290542E+0	1.187250E+0	1.181867E+0	1.246228E+0	1.211294E+0	1.231392E+0	1.196842E+0	1.209784E+0	1.294255E+0	1.242803E+0	1.210564E+0	1.208766E+0	1.173977E+0	1.206909E+0	1.215258E+0	1.227903E+0	1.224390E+0	1.211254E+0	1.235873E+0	1.248479E+0	1.309619E+0	1.225611E+0	1.169801E+0	1.262537E+0	1.184690E+0	1.205189E+0	1.211132E+0	1.193351E+0	1.252325E+0	1.187192E+0	1.173066E+0	1.176703E+0	1.241891E+0	1.245524E+0	1.174996E+0	1.189110E+0	1.230386E+0	1.239455E+0	1.196219E+0	1.193708E+0	1.229047E+0	1.170180E+0	1.232507E+0	1.165538E+0	1.240352E+0	1.178945E+0	1.189039E+0	1.228191E+0	1.190349E+0	1.244535E+0	1.175699E+0	1.214765E+0	1.224513E+0	1.186437E+0	1.231689E+0	1.214594E+0	1.217931E+0	1.211852E+0	1.226120E+0	1.185312E+0	1.219302E+0	1.216257E+0	1.216500E+0	1.221770E+0	1.202615E+0	1.194879E+0	1.208934E+0	1.228997E+0	1.238481E+0	1.205724E+0	1.182928E+0	1.222996E+0	1.204002E+0	1.217092E+0	1.212856E+0	1.275209E+0	1.224576E+0	1.213385E+0	1.227346E+0	1.131274E+0	1.255242E+0
5.475070E+2	1.356690E+0	1.361567E+0	1.372535E+0	1.351723E+0	1.315398E+0	1.359242E+0	1.433125E+0	1.341309E+0	1.309084E+0	1.325200E+0	1.366449E+0	1.331911E+0	1.385627E+0	1.318537E+0	1.374067E+0	1.371378E+0	1.403303E+0	1.382732E+0	1.329408E+0	1.361193E+0	1.393844E+0	1.358888E+0	1.368869E+0	1.388879E+0	1.273985E+0	1.373771E+0	1.357309E+0	1.357754E+0	1.339867E+0	1.311805E+0	1.328358E+0	1.308604E+0	1.356942E+0	1.347636E+0	1.404470E+0	1.337236E+0	1.306800E+0	1.326983E+0	1.355282E+0	1.326399E+0	1.277761E+0	1.351322E+0	1.366149E+0	1.389134E+0	1.342643E+0	1.378635E+0	1.337769E+0	1.364637E+0	1.299145E+0	1.358939E+0	1.398743E+0	1.380239E+0	1.326507E+0	1.361104E+0	1.386872E+0	1.365967E+0	1.287285E+0	1.319677E+0	1.318210E+0	1.363415E+0	1.353546E+0	1.385956E+0	1.403700E+0	1.328338E+0	1.303664E+0	1.344574E+0	1.395227E+0	1.359532E+0	1.388553E+0	1.343073E+0	1.343797E+0	1.379898E+0	1.306639E+0	1.368958E+0	1.375317E+0	1.367262E+0	1.306665E+0	1.327409E+0	1.349869E+0	1.332883E+0	1.391923E+0	1.347029E+0	1.363811E+0	1.344261E+0	1.333629E+0	1.368534E+0	1.366049E+0	1.369657E+0	1.329542E+0	1.353801E+0	1.350215E+0	1.370868E+0	1.406869E+0	1.312473E+0	1.355999E+0	1.386212E+0	1.333996E+0	1.358010E+0	1.328049E+0	1.293868E+0	1.386864E+0	1.327840E+0	1.319953E+0	1.341530E+0	1.356401E+0	1.339671E+0	1.356274E+0	1.338502E+0	1.390984E+0	1.377508E+0	1.345773E+0	1.315034E+0	1.361574E+0	1.367588E+0	1.391310E+0	1.368225E+0	1.291122E+0	1.362703E+0	1.360493E+0	1.329816E+0	1.323062E+0	1.315163E+0	1.385011E+0	1.341674E+0	1.333021E+0	1.361601E+0	1.327782E+0	1.357154E+0	1.354044E+0	1.305852E+0	1.326293E+0	1.307314E+0	1.330828E+0	1.327830E+0	1.423895E+0	1.375891E+0	1.335552E+0	1.353160E+0	1.376489E+0	1.327157E+0	1.325352E+0	1.388311E+0	1.355594E+0	1.241521E+0	1.284711E+0	1.368394E+0	1.354051E+0	1.293944E+0	1.361195E+0	1.287885E+0	1.359262E+0	1.359048E+0	1.313555E+0	1.309052E+0	1.316425E+0	1.310284E+0	1.326045E+0	1.343116E+0	1.367036E+0	1.393867E+0	1.282158E+0	1.332429E+0	1.359308E+0	1.358535E+0	1.321252E+0	1.350942E+0	1.391333E+0	1.358117E+0	1.341691E+0	1.387842E+0	1.423626E+0
5.482600E+2	1.443736E+0	1.462021E+0	1.484056E+0	1.456380E+0	1.474668E+0	1.450559E+0	1.516706E+0	1.483720E+0	1.485026E+0	1.492877E+0	1.432268E+0	1.400199E+0	1.482301E+0	1.417750E+0	1.452440E+0	1.457252E+0	1.444533E+0	1.451746E+0	1.399790E+0	1.439545E+0	1.444793E+0	1.447360E+0	1.479839E+0	1.430842E+0	1.425255E+0	1.464864E+0	1.481528E+0	1.514818E+0	1.421288E+0	1.420552E+0	1.397090E+0	1.414256E+0	1.437276E+0	1.461829E+0	1.444949E+0	1.434297E+0	1.391595E+0	1.435552E+0	1.416582E+0	1.428418E+0	1.438851E+0	1.395992E+0	1.416528E+0	1.453107E+0	1.432300E+0	1.436723E+0	1.427950E+0	1.429789E+0	1.403675E+0	1.401643E+0	1.538976E+0	1.435861E+0	1.388126E+0	1.434898E+0	1.446565E+0	1.408642E+0	1.415469E+0	1.391077E+0	1.472762E+0	1.417381E+0	1.374532E+0	1.431091E+0	1.452450E+0	1.412234E+0	1.477013E+0	1.426461E+0	1.406583E+0	1.450204E+0	1.456310E+0	1.418305E+0	1.465099E+0	1.450657E+0	1.427377E+0	1.454019E+0	1.371629E+0	1.391501E+0	1.420460E+0	1.368533E+0	1.407243E+0	1.458695E+0	1.421104E+0	1.369505E+0	1.460959E+0	1.405780E+0	1.384648E+0	1.428350E+0	1.453809E+0	1.446964E+0	1.436577E+0	1.423681E+0	1.487407E+0	1.350507E+0	1.435478E+0	1.450293E+0	1.474325E+0	1.368097E+0	1.429421E+0	1.457916E+0	1.442866E+0	1.440640E+0	1.433718E+0	1.402318E+0	1.454483E+0	1.404441E+0	1.437631E+0	1.425037E+0	1.437437E+0	1.460186E+0	1.414180E+0	1.430634E+0	1.453473E+0	1.444869E+0	1.432379E+0	1.460127E+0	1.458615E+0	1.416400E+0	1.387740E+0	1.408460E+0	1.424300E+0	1.413070E+0	1.357569E+0	1.412190E+0	1.449721E+0	1.466946E+0	1.435458E+0	1.415527E+0	1.352122E+0	1.438631E+0	1.434925E+0	1.397488E+0	1.430570E+0	1.444217E+0	1.411235E+0	1.434276E+0	1.471442E+0	1.462513E+0	1.422384E+0	1.424557E+0	1.431692E+0	1.400352E+0	1.353775E+0	1.429275E+0	1.419204E+0	1.427597E+0	1.409560E+0	1.398194E+0	1.415648E+0	1.429134E+0	1.431038E+0	1.419620E+0	1.436933E+0	1.436882E+0	1.401269E+0	1.404918E+0	1.418535E+0	1.401475E+0	1.432146E+0	1.466109E+0	1.418652E+0	1.426336E+0	1.419907E+0	1.471377E+0	1.372827E+0	1.419955E+0	1.402787E+0	1.426876E+0	1.417506E+0	1.421645E+0	1.444294E+0	1.426610E+0	1.442462E+0
5.490380E+2	1.394806E+0	1.401875E+0	1.444358E+0	1.425998E+0	1.369770E+0	1.429725E+0	1.454988E+0	1.403647E+0	1.359917E+0	1.370534E+0	1.444504E+0	1.384687E+0	1.414244E+0	1.404884E+0	1.394319E+0	1.458718E+0	1.356759E+0	1.392699E+0	1.355642E+0	1.449023E+0	1.376413E+0	1.417788E+0	1.438086E+0	1.421972E+0	1.372219E+0	1.395471E+0	1.428158E+0	1.394085E+0	1.330374E+0	1.331471E+0	1.363929E+0	1.393768E+0	1.408251E+0	1.461246E+0	1.398329E+0	1.436979E+0	1.421808E+0	1.408820E+0	1.420773E+0	1.461836E+0	1.395074E+0	1.434615E+0	1.412588E+0	1.411724E+0	1.376169E+0	1.399000E+0	1.400332E+0	1.440559E+0	1.332358E+0	1.334587E+0	1.401083E+0	1.403437E+0	1.372288E+0	1.446244E+0	1.398284E+0	1.414376E+0	1.348045E+0	1.324736E+0	1.396777E+0	1.385330E+0	1.383085E+0	1.381944E+0	1.433197E+0	1.371812E+0	1.387900E+0	1.391279E+0	1.432359E+0	1.431894E+0	1.322792E+0	1.371168E+0	1.369980E+0	1.408325E+0	1.347256E+0	1.424091E+0	1.374875E+0	1.383821E+0	1.442703E+0	1.384539E+0	1.407260E+0	1.415731E+0	1.398319E+0	1.404193E+0	1.404423E+0	1.376653E+0	1.351568E+0	1.411469E+0	1.431199E+0	1.413032E+0	1.442300E+0	1.371088E+0	1.417327E+0	1.401475E+0	1.401305E+0	1.440654E+0	1.413620E+0	1.428797E+0	1.391844E+0	1.383940E+0	1.454842E+0	1.362992E+0	1.380431E+0	1.402051E+0	1.402500E+0	1.405722E+0	1.398654E+0	1.365291E+0	1.471187E+0	1.421925E+0	1.381251E+0	1.394134E+0	1.394451E+0	1.342215E+0	1.383857E+0	1.422523E+0	1.418093E+0	1.345969E+0	1.389878E+0	1.355844E+0	1.425714E+0	1.399077E+0	1.330370E+0	1.358691E+0	1.386821E+0	1.331382E+0	1.367496E+0	1.418464E+0	1.403248E+0	1.382202E+0	1.383637E+0	1.341791E+0	1.460681E+0	1.350177E+0	1.397116E+0	1.350649E+0	1.390443E+0	1.353919E+0	1.403085E+0	1.402804E+0	1.382351E+0	1.404598E+0	1.376044E+0	1.338381E+0	1.385857E+0	1.386669E+0	1.414665E+0	1.353017E+0	1.386278E+0	1.320542E+0	1.392511E+0	1.355259E+0	1.413959E+0	1.361903E+0	1.381134E+0	1.396259E+0	1.389989E+0	1.362466E+0	1.391595E+0	1.469723E+0	1.420731E+0	1.372888E+0	1.404925E+0	1.389570E+0	1.379033E+0	1.412994E+0	1.376464E+0	1.393718E+0	1.468943E+0	1.399086E+0	1.323850E+0	1.421277E+0	1.443403E+0
5.497850E+2	1.307627E+0	1.395424E+0	1.322529E+0	1.308595E+0	1.360527E+0	1.310591E+0	1.397370E+0	1.348980E+0	1.294724E+0	1.314547E+0	1.363263E+0	1.354694E+0	1.305448E+0	1.340007E+0	1.309647E+0	1.319188E+0	1.335119E+0	1.301581E+0	1.318121E+0	1.302736E+0	1.339334E+0	1.339732E+0	1.360832E+0	1.373613E+0	1.322724E+0	1.297535E+0	1.347802E+0	1.336890E+0	1.320478E+0	1.299798E+0	1.336822E+0	1.350626E+0	1.346721E+0	1.314712E+0	1.363185E+0	1.329064E+0	1.330576E+0	1.303776E+0	1.313807E+0	1.341206E+0	1.319165E+0	1.326075E+0	1.357444E+0	1.358066E+0	1.266454E+0	1.292652E+0	1.316863E+0	1.364921E+0	1.319388E+0	1.330462E+0	1.395929E+0	1.352811E+0	1.254208E+0	1.376069E+0	1.313356E+0	1.313409E+0	1.329813E+0	1.333351E+0	1.355222E+0	1.286123E+0	1.336822E+0	1.320585E+0	1.346891E+0	1.355972E+0	1.352650E+0	1.305454E+0	1.329517E+0	1.360932E+0	1.322710E+0	1.341064E+0	1.293493E+0	1.337342E+0	1.278872E+0	1.322543E+0	1.291098E+0	1.376849E+0	1.323979E+0	1.318191E+0	1.376361E+0	1.315234E+0	1.279924E+0	1.343419E+0	1.341265E+0	1.336471E+0	1.306194E+0	1.349235E+0	1.381873E+0	1.326569E+0	1.327594E+0	1.315812E+0	1.310812E+0	1.351916E+0	1.258326E+0	1.333302E+0	1.317721E+0	1.304940E+0	1.356372E+0	1.300719E+0	1.357646E+0	1.325229E+0	1.320670E+0	1.334796E+0	1.338185E+0	1.311367E+0	1.348022E+0	1.330492E+0	1.335047E+0	1.326448E+0	1.300582E+0	1.333036E+0	1.308005E+0	1.272215E+0	1.337820E+0	1.365602E+0	1.314182E+0	1.327522E+0	1.325369E+0	1.256621E+0	1.342036E+0	1.303315E+0	1.305770E+0	1.298723E+0	1.369279E+0	1.315346E+0	1.347157E+0	1.323670E+0	1.309819E+0	1.326685E+0	1.318697E+0	1.293023E+0	1.314394E+0	1.293871E+0	1.327896E+0	1.278518E+0	1.364397E+0	1.296004E+0	1.282531E+0	1.311099E+0	1.334145E+0	1.358008E+0	1.302338E+0	1.310118E+0	1.317326E+0	1.304953E+0	1.317964E+0	1.293384E+0	1.367099E+0	1.319685E+0	1.298393E+0	1.311669E+0	1.348234E+0	1.301932E+0	1.247094E+0	1.380817E+0	1.353411E+0	1.284560E+0	1.259144E+0	1.316022E+0	1.287785E+0	1.374989E+0	1.349807E+0	1.347315E+0	1.360871E+0	1.317303E+0	1.342199E+0	1.316443E+0	1.325208E+0	1.300184E+0	1.310116E+0	1.334545E+0	1.245003E+0
5.505170E+2	1.259057E+0	1.307010E+0	1.321106E+0	1.328139E+0	1.287839E+0	1.257028E+0	1.306067E+0	1.266320E+0	1.313377E+0	1.288760E+0	1.311611E+0	1.331525E+0	1.328467E+0	1.310354E+0	1.306613E+0	1.330820E+0	1.325223E+0	1.344858E+0	1.276745E+0	1.331808E+0	1.302551E+0	1.324565E+0	1.301199E+0	1.285389E+0	1.271221E+0	1.246178E+0	1.284709E+0	1.278349E+0	1.337163E+0	1.304957E+0	1.304735E+0	1.297694E+0	1.323024E+0	1.303289E+0	1.324899E+0	1.306984E+0	1.282957E+0	1.310869E+0	1.312118E+0	1.299109E+0	1.334597E+0	1.258150E+0	1.316160E+0	1.337103E+0	1.289263E+0	1.327549E+0	1.316631E+0	1.293448E+0	1.232841E+0	1.251831E+0	1.303261E+0	1.271619E+0	1.282194E+0	1.310390E+0	1.308193E+0	1.340474E+0	1.289081E+0	1.295933E+0	1.320954E+0	1.342693E+0	1.267207E+0	1.318749E+0	1.302815E+0	1.273070E+0	1.283251E+0	1.271705E+0	1.302014E+0	1.315683E+0	1.273889E+0	1.272529E+0	1.331202E+0	1.265812E+0	1.294442E+0	1.259805E+0	1.285105E+0	1.334907E+0	1.271745E+0	1.239256E+0	1.293817E+0	1.272078E+0	1.216375E+0	1.320337E+0	1.316570E+0	1.281018E+0	1.269982E+0	1.319064E+0	1.293890E+0	1.276892E+0	1.325376E+0	1.301785E+0	1.295355E+0	1.355880E+0	1.263139E+0	1.302811E+0	1.304662E+0	1.319039E+0	1.277112E+0	1.301294E+0	1.314017E+0	1.302838E+0	1.308628E+0	1.299380E+0	1.319025E+0	1.269918E+0	1.270265E+0	1.294130E+0	1.328301E+0	1.268853E+0	1.257829E+0	1.371670E+0	1.351206E+0	1.266863E+0	1.266680E+0	1.320014E+0	1.287220E+0	1.295057E+0	1.304326E+0	1.300491E+0	1.296713E+0	1.312941E+0	1.298475E+0	1.230302E+0	1.294104E+0	1.322591E+0	1.296929E+0	1.337761E+0	1.319790E+0	1.264985E+0	1.274576E+0	1.251245E+0	1.312693E+0	1.289374E+0	1.277967E+0	1.269030E+0	1.320104E+0	1.323071E+0	1.308742E+0	1.271506E+0	1.318130E+0	1.303273E+0	1.285589E+0	1.330437E+0	1.287824E+0	1.272758E+0	1.254905E+0	1.263931E+0	1.286453E+0	1.271804E+0	1.327216E+0	1.270039E+0	1.328436E+0	1.279909E+0	1.282177E+0	1.284019E+0	1.287681E+0	1.263565E+0	1.303208E+0	1.262954E+0	1.298773E+0	1.271371E+0	1.304564E+0	1.218270E+0	1.293527E+0	1.309151E+0	1.258489E+0	1.295389E+0	1.301609E+0	1.258760E+0	1.275024E+0	1.256155E+0	1.224759E+0
5.512620E+2	1.291468E+0	1.304785E+0	1.290459E+0	1.299633E+0	1.271778E+0	1.328330E+0	1.308887E+0	1.317400E+0	1.276695E+0	1.264193E+0	1.287065E+0	1.336906E+0	1.304064E+0	1.298368E+0	1.257660E+0	1.300066E+0	1.334498E+0	1.340775E+0	1.284304E+0	1.309283E+0	1.323751E+0	1.279018E+0	1.315499E+0	1.293458E+0	1.299496E+0	1.274505E+0	1.278948E+0	1.369995E+0	1.286558E+0	1.273313E+0	1.289994E+0	1.273000E+0	1.259942E+0	1.260306E+0	1.281820E+0	1.301157E+0	1.300965E+0	1.264923E+0	1.247249E+0	1.295920E+0	1.256391E+0	1.266556E+0	1.321119E+0	1.322438E+0	1.270069E+0	1.316313E+0	1.276253E+0	1.271052E+0	1.365387E+0	1.281557E+0	1.267841E+0	1.349796E+0	1.257304E+0	1.324098E+0	1.249984E+0	1.379852E+0	1.258857E+0	1.259017E+0	1.254370E+0	1.274165E+0	1.280453E+0	1.281064E+0	1.279294E+0	1.250823E+0	1.287449E+0	1.290000E+0	1.285469E+0	1.320921E+0	1.253166E+0	1.314538E+0	1.292415E+0	1.325022E+0	1.335864E+0	1.282460E+0	1.246970E+0	1.320163E+0	1.274340E+0	1.259634E+0	1.331373E+0	1.244189E+0	1.263575E+0	1.277353E+0	1.295973E+0	1.270741E+0	1.287569E+0	1.306401E+0	1.337420E+0	1.360464E+0	1.279646E+0	1.321889E+0	1.345290E+0	1.275273E+0	1.269199E+0	1.270325E+0	1.267536E+0	1.285750E+0	1.261943E+0	1.294351E+0	1.302735E+0	1.263141E+0	1.280005E+0	1.276200E+0	1.314638E+0	1.265745E+0	1.354501E+0	1.248667E+0	1.313554E+0	1.252784E+0	1.278338E+0	1.320272E+0	1.281342E+0	1.285115E+0	1.261338E+0	1.270697E+0	1.273246E+0	1.294391E+0	1.315195E+0	1.300060E+0	1.319537E+0	1.311001E+0	1.255591E+0	1.248925E+0	1.351937E+0	1.322600E+0	1.289398E+0	1.275828E+0	1.309316E+0	1.263146E+0	1.272411E+0	1.250537E+0	1.299368E+0	1.215506E+0	1.270735E+0	1.269565E+0	1.304655E+0	1.305286E+0	1.310361E+0	1.228738E+0	1.283807E+0	1.276959E+0	1.243641E+0	1.299332E+0	1.338454E+0	1.281045E+0	1.313950E+0	1.295348E+0	1.343406E+0	1.285041E+0	1.260198E+0	1.274267E+0	1.328436E+0	1.256710E+0	1.228698E+0	1.311707E+0	1.294339E+0	1.272905E+0	1.216312E+0	1.284033E+0	1.275193E+0	1.298952E+0	1.248666E+0	1.317833E+0	1.272944E+0	1.249123E+0	1.290349E+0	1.273843E+0	1.302719E+0	1.266697E+0	1.190837E+0	1.293705E+0	1.286131E+0
5.520210E+2	1.307907E+0	1.344907E+0	1.262374E+0	1.284865E+0	1.287418E+0	1.323093E+0	1.338939E+0	1.321930E+0	1.309327E+0	1.303348E+0	1.273653E+0	1.320056E+0	1.315811E+0	1.313355E+0	1.327904E+0	1.312157E+0	1.263044E+0	1.304362E+0	1.288351E+0	1.358404E+0	1.331064E+0	1.319760E+0	1.319429E+0	1.332777E+0	1.295356E+0	1.293870E+0	1.361303E+0	1.283527E+0	1.295324E+0	1.293847E+0	1.338804E+0	1.344642E+0	1.271263E+0	1.298929E+0	1.295175E+0	1.301995E+0	1.309609E+0	1.273795E+0	1.362871E+0	1.335563E+0	1.218534E+0	1.301620E+0	1.335865E+0	1.317163E+0	1.297233E+0	1.302630E+0	1.290683E+0	1.292741E+0	1.339737E+0	1.293547E+0	1.308902E+0	1.270945E+0	1.266848E+0	1.308471E+0	1.297338E+0	1.344067E+0	1.305195E+0	1.336716E+0	1.324927E+0	1.300749E+0	1.294955E+0	1.260657E+0	1.325877E+0	1.256095E+0	1.314156E+0	1.301695E+0	1.247113E+0	1.289912E+0	1.344532E+0	1.280412E+0	1.289943E+0	1.330569E+0	1.235040E+0	1.211866E+0	1.270466E+0	1.306680E+0	1.265657E+0	1.293708E+0	1.293846E+0	1.280055E+0	1.233663E+0	1.277962E+0	1.288714E+0	1.285378E+0	1.301623E+0	1.313401E+0	1.260887E+0	1.268078E+0	1.267789E+0	1.297330E+0	1.258599E+0	1.327931E+0	1.312713E+0	1.337938E+0	1.303176E+0	1.286224E+0	1.225811E+0	1.281535E+0	1.256145E+0	1.312123E+0	1.292727E+0	1.268684E+0	1.284243E+0	1.258630E+0	1.286277E+0	1.293091E+0	1.329068E+0	1.307877E+0	1.267354E+0	1.326945E+0	1.298309E+0	1.328844E+0	1.299208E+0	1.309757E+0	1.252328E+0	1.252091E+0	1.319594E+0	1.256000E+0	1.293928E+0	1.266635E+0	1.263974E+0	1.295640E+0	1.379848E+0	1.357646E+0	1.277004E+0	1.300562E+0	1.318880E+0	1.239714E+0	1.259201E+0	1.289758E+0	1.314126E+0	1.254070E+0	1.258921E+0	1.257204E+0	1.273366E+0	1.230764E+0	1.276665E+0	1.328571E+0	1.312031E+0	1.269850E+0	1.263802E+0	1.289574E+0	1.289090E+0	1.293184E+0	1.315273E+0	1.287525E+0	1.261137E+0	1.268168E+0	1.319271E+0	1.280704E+0	1.288021E+0	1.277142E+0	1.256821E+0	1.300504E+0	1.343846E+0	1.270872E+0	1.288651E+0	1.283730E+0	1.326291E+0	1.293243E+0	1.322221E+0	1.312220E+0	1.328910E+0	1.303218E+0	1.302577E+0	1.294144E+0	1.286745E+0	1.247831E+0	1.213038E+0	1.288679E+0	1.299380E+0
5.527650E+2	1.249084E+0	1.287541E+0	1.293172E+0	1.294139E+0	1.261879E+0	1.238154E+0	1.306825E+0	1.306850E+0	1.283214E+0	1.215027E+0	1.272743E+0	1.262802E+0	1.308684E+0	1.253699E+0	1.273013E+0	1.296949E+0	1.303426E+0	1.290062E+0	1.217682E+0	1.273607E+0	1.231056E+0	1.251178E+0	1.262669E+0	1.341082E+0	1.300272E+0	1.251164E+0	1.297507E+0	1.305822E+0	1.244322E+0	1.272245E+0	1.287714E+0	1.298572E+0	1.254981E+0	1.277878E+0	1.277717E+0	1.313281E+0	1.266481E+0	1.256788E+0	1.235651E+0	1.253966E+0	1.270285E+0	1.300329E+0	1.246564E+0	1.284694E+0	1.294283E+0	1.284254E+0	1.301752E+0	1.246637E+0	1.278095E+0	1.255774E+0	1.258019E+0	1.283041E+0	1.221401E+0	1.299475E+0	1.253787E+0	1.247246E+0	1.288764E+0	1.243060E+0	1.226791E+0	1.268657E+0	1.229639E+0	1.240291E+0	1.298165E+0	1.285589E+0	1.275998E+0	1.247706E+0	1.253561E+0	1.306174E+0	1.231180E+0	1.256082E+0	1.242318E+0	1.263532E+0	1.267740E+0	1.284000E+0	1.235819E+0	1.283793E+0	1.198573E+0	1.263340E+0	1.257889E+0	1.278312E+0	1.293512E+0	1.256733E+0	1.286763E+0	1.312518E+0	1.262428E+0	1.269037E+0	1.298584E+0	1.305207E+0	1.257858E+0	1.245142E+0	1.259543E+0	1.273286E+0	1.263058E+0	1.296518E+0	1.268787E+0	1.218700E+0	1.224030E+0	1.227122E+0	1.285587E+0	1.258238E+0	1.245438E+0	1.252552E+0	1.216159E+0	1.259166E+0	1.232249E+0	1.208859E+0	1.307101E+0	1.292731E+0	1.246671E+0	1.318289E+0	1.260397E+0	1.276620E+0	1.243455E+0	1.255616E+0	1.242259E+0	1.271615E+0	1.232247E+0	1.265656E+0	1.247205E+0	1.276640E+0	1.238917E+0	1.196586E+0	1.267559E+0	1.241120E+0	1.243382E+0	1.294309E+0	1.264653E+0	1.205827E+0	1.241894E+0	1.291772E+0	1.291566E+0	1.272306E+0	1.233613E+0	1.254792E+0	1.240351E+0	1.286998E+0	1.219873E+0	1.285430E+0	1.285502E+0	1.207525E+0	1.252886E+0	1.297956E+0	1.257260E+0	1.205425E+0	1.310036E+0	1.264981E+0	1.248271E+0	1.242501E+0	1.319872E+0	1.210538E+0	1.294821E+0	1.257937E+0	1.218499E+0	1.264393E+0	1.236828E+0	1.276361E+0	1.240669E+0	1.248052E+0	1.209881E+0	1.272328E+0	1.253295E+0	1.279162E+0	1.267513E+0	1.269667E+0	1.235486E+0	1.295817E+0	1.283607E+0	1.295290E+0	1.241972E+0	1.275144E+0	1.310842E+0
5.535160E+2	1.171570E+0	1.200012E+0	1.214631E+0	1.203777E+0	1.208560E+0	1.177457E+0	1.215405E+0	1.196315E+0	1.204834E+0	1.188773E+0	1.201010E+0	1.182233E+0	1.227752E+0	1.191327E+0	1.183192E+0	1.204988E+0	1.238249E+0	1.215638E+0	1.170198E+0	1.182051E+0	1.219424E+0	1.189921E+0	1.142951E+0	1.268106E+0	1.157417E+0	1.178282E+0	1.218944E+0	1.206125E+0	1.166396E+0	1.172105E+0	1.168467E+0	1.164851E+0	1.171433E+0	1.176724E+0	1.170404E+0	1.192616E+0	1.172882E+0	1.171713E+0	1.175858E+0	1.267109E+0	1.182260E+0	1.218531E+0	1.181934E+0	1.186778E+0	1.155224E+0	1.199941E+0	1.207457E+0	1.170461E+0	1.188805E+0	1.153592E+0	1.202131E+0	1.227921E+0	1.131656E+0	1.170189E+0	1.132392E+0	1.236021E+0	1.208035E+0	1.154926E+0	1.216192E+0	1.123889E+0	1.193550E+0	1.164143E+0	1.208242E+0	1.151006E+0	1.214276E+0	1.217180E+0	1.182973E+0	1.230917E+0	1.188516E+0	1.209163E+0	1.182025E+0	1.218303E+0	1.186248E+0	1.214396E+0	1.137487E+0	1.224167E+0	1.157083E+0	1.176065E+0	1.191034E+0	1.187057E+0	1.218233E+0	1.204414E+0	1.150819E+0	1.183684E+0	1.171644E+0	1.248282E+0	1.180482E+0	1.214736E+0	1.171880E+0	1.164529E+0	1.173740E+0	1.158992E+0	1.190523E+0	1.206663E+0	1.191113E+0	1.185225E+0	1.194000E+0	1.204068E+0	1.138785E+0	1.177237E+0	1.244471E+0	1.179696E+0	1.191615E+0	1.185550E+0	1.190919E+0	1.211799E+0	1.240407E+0	1.228599E+0	1.169130E+0	1.264774E+0	1.177100E+0	1.182220E+0	1.155021E+0	1.219754E+0	1.162871E+0	1.157747E+0	1.186701E+0	1.152172E+0	1.156729E+0	1.160407E+0	1.148778E+0	1.186410E+0	1.196154E+0	1.176823E+0	1.148360E+0	1.187270E+0	1.175519E+0	1.187230E+0	1.186831E+0	1.166262E+0	1.165313E+0	1.191796E+0	1.176201E+0	1.183301E+0	1.177058E+0	1.172292E+0	1.155886E+0	1.175723E+0	1.202776E+0	1.196370E+0	1.183186E+0	1.178324E+0	1.167492E+0	1.160199E+0	1.209844E+0	1.155700E+0	1.126076E+0	1.178988E+0	1.145848E+0	1.170099E+0	1.147798E+0	1.207597E+0	1.151360E+0	1.243792E+0	1.219242E+0	1.160748E+0	1.228625E+0	1.188521E+0	1.172037E+0	1.204377E+0	1.173169E+0	1.146461E+0	1.152930E+0	1.217434E+0	1.211694E+0	1.200512E+0	1.195925E+0	1.196052E+0	1.128010E+0	1.221593E+0	1.313631E+0
5.542580E+2	1.048398E+0	1.057891E+0	1.104343E+0	1.043664E+0	1.081792E+0	1.109459E+0	1.075816E+0	1.103691E+0	1.120210E+0	1.139668E+0	1.108324E+0	1.047547E+0	1.123037E+0	1.143247E+0	1.088553E+0	1.077853E+0	1.129611E+0	1.073412E+0	1.084491E+0	1.121142E+0	1.104086E+0	1.076339E+0	1.120657E+0	1.123522E+0	1.057897E+0	1.105662E+0	1.112781E+0	1.141139E+0	1.116131E+0	1.082076E+0	1.106263E+0	1.056758E+0	1.080241E+0	1.112527E+0	1.106797E+0	1.115744E+0	1.089512E+0	1.076399E+0	1.057601E+0	1.096210E+0	1.113431E+0	1.141633E+0	1.090951E+0	1.119153E+0	1.127619E+0	1.095184E+0	1.093605E+0	1.116389E+0	1.063248E+0	1.075134E+0	1.102314E+0	1.090880E+0	1.047659E+0	1.095994E+0	1.091824E+0	1.077166E+0	1.075831E+0	1.113623E+0	1.116297E+0	1.089707E+0	1.060660E+0	1.093643E+0	1.098761E+0	1.092493E+0	1.084167E+0	1.091103E+0	1.074469E+0	1.118927E+0	1.105220E+0	1.079601E+0	1.057854E+0	1.130249E+0	1.103100E+0	1.102292E+0	1.085378E+0	1.113761E+0	1.071161E+0	1.115603E+0	1.103866E+0	1.096841E+0	1.051267E+0	1.064938E+0	1.054744E+0	1.073043E+0	1.109976E+0	1.061582E+0	1.118706E+0	1.105651E+0	1.082115E+0	1.103916E+0	1.138527E+0	1.113912E+0	1.087214E+0	1.108737E+0	1.080712E+0	1.042686E+0	1.047486E+0	1.092565E+0	1.096249E+0	1.097857E+0	1.060901E+0	1.055464E+0	1.115706E+0	1.060644E+0	1.087213E+0	1.090626E+0	1.105569E+0	1.110923E+0	1.112418E+0	1.113288E+0	1.116548E+0	1.095628E+0	1.125141E+0	1.151636E+0	1.097934E+0	1.128349E+0	1.102811E+0	1.061588E+0	1.137743E+0	1.100968E+0	1.068883E+0	1.068847E+0	1.104174E+0	1.095521E+0	1.084973E+0	1.098799E+0	1.080748E+0	1.053484E+0	1.096630E+0	1.051185E+0	1.108935E+0	1.117949E+0	1.093313E+0	1.105215E+0	1.132864E+0	1.124748E+0	1.057750E+0	1.069686E+0	1.086155E+0	1.086052E+0	1.092481E+0	1.085981E+0	1.132262E+0	1.105005E+0	1.080807E+0	1.107073E+0	1.110189E+0	1.052901E+0	1.090053E+0	1.104179E+0	1.090837E+0	1.061946E+0	1.046403E+0	1.098748E+0	1.136851E+0	1.087527E+0	1.060528E+0	1.019236E+0	1.111539E+0	1.124648E+0	1.086625E+0	1.103720E+0	1.064487E+0	1.112755E+0	1.130701E+0	1.137297E+0	1.104643E+0	1.136580E+0	1.147764E+0	1.072468E+0	1.063692E+0
5.550190E+2	9.971085E-1	9.741341E-1	9.863610E-1	9.809796E-1	1.022159E+0	9.985991E-1	1.080743E+0	1.029167E+0	1.046003E+0	1.016155E+0	1.027421E+0	1.006032E+0	1.004944E+0	1.019690E+0	9.653885E-1	9.656533E-1	1.056370E+0	9.868655E-1	1.019074E+0	1.020443E+0	9.850167E-1	1.012112E+0	1.042240E+0	1.055296E+0	1.034257E+0	9.719355E-1	1.024860E+0	1.018182E+0	1.010194E+0	1.003807E+0	1.002751E+0	9.950805E-1	9.709657E-1	1.037229E+0	1.001912E+0	9.837194E-1	9.949598E-1	9.711764E-1	1.030101E+0	1.044260E+0	9.908760E-1	9.886276E-1	9.687646E-1	1.050377E+0	1.018574E+0	1.025848E+0	1.031007E+0	9.814667E-1	1.019485E+0	1.039436E+0	1.034977E+0	9.963178E-1	9.667406E-1	1.027393E+0	9.829521E-1	1.009338E+0	9.647435E-1	1.007717E+0	1.003039E+0	9.976325E-1	1.008213E+0	1.040063E+0	1.022155E+0	1.001880E+0	1.012401E+0	1.015427E+0	1.008374E+0	9.963596E-1	1.043885E+0	1.007644E+0	1.013814E+0	1.000825E+0	1.037912E+0	9.880850E-1	9.773483E-1	1.018164E+0	9.877450E-1	9.903188E-1	1.083363E+0	1.005699E+0	9.711148E-1	9.924534E-1	1.021572E+0	9.707040E-1	9.645083E-1	1.045008E+0	1.031153E+0	9.967210E-1	1.018361E+0	9.897716E-1	9.779274E-1	1.028947E+0	1.004376E+0	1.019428E+0	1.000444E+0	1.023760E+0	1.025320E+0	1.043274E+0	9.810333E-1	1.059954E+0	9.981704E-1	1.009349E+0	1.038879E+0	9.552386E-1	9.967990E-1	1.020070E+0	1.038386E+0	1.003412E+0	1.029729E+0	1.025791E+0	1.039167E+0	1.008880E+0	1.044118E+0	1.041737E+0	9.954239E-1	9.756445E-1	1.005633E+0	1.008083E+0	9.914660E-1	1.015274E+0	1.020483E+0	1.020574E+0	1.003767E+0	1.007528E+0	1.003991E+0	1.012024E+0	9.996416E-1	1.003951E+0	9.785295E-1	1.016447E+0	1.008123E+0	1.011053E+0	1.007764E+0	1.032475E+0	1.007817E+0	9.591725E-1	9.797349E-1	1.000050E+0	1.034302E+0	1.022777E+0	9.958587E-1	1.017057E+0	1.031531E+0	9.857303E-1	1.048461E+0	1.021438E+0	1.008997E+0	1.040370E+0	1.050298E+0	1.021962E+0	1.032678E+0	1.000499E+0	1.005934E+0	9.919117E-1	1.033942E+0	9.971692E-1	9.958495E-1	1.009596E+0	9.434782E-1	1.028179E+0	1.040476E+0	1.030303E+0	1.013371E+0	9.899413E-1	1.005379E+0	9.874487E-1	1.018671E+0	1.014674E+0	9.837627E-1	1.057733E+0	9.990156E-1
5.557710E+2	9.766875E-1	9.522408E-1	9.388997E-1	9.979792E-1	9.720069E-1	9.661455E-1	9.713680E-1	9.835011E-1	9.650324E-1	9.450051E-1	9.517633E-1	9.609583E-1	9.584860E-1	9.447527E-1	9.368006E-1	9.797578E-1	9.851512E-1	9.894447E-1	9.615509E-1	9.694305E-1	9.680727E-1	1.000704E+0	1.000764E+0	1.023878E+0	9.645686E-1	9.660571E-1	9.445241E-1	1.011604E+0	9.234874E-1	9.613963E-1	9.669087E-1	9.873882E-1	9.798781E-1	9.812484E-1	9.464634E-1	9.813550E-1	9.556501E-1	1.003587E+0	9.635951E-1	1.005297E+0	9.325609E-1	9.564589E-1	9.898881E-1	9.758798E-1	9.476383E-1	9.528278E-1	9.628242E-1	9.675539E-1	9.447622E-1	9.442475E-1	9.336743E-1	9.273680E-1	9.616538E-1	9.778270E-1	9.743256E-1	9.971396E-1	9.670321E-1	9.516644E-1	9.340453E-1	9.286069E-1	9.741090E-1	9.919307E-1	9.542241E-1	9.529937E-1	9.452517E-1	9.609153E-1	9.039306E-1	1.000065E+0	9.450279E-1	9.934211E-1	9.541587E-1	9.743984E-1	9.412176E-1	9.441977E-1	9.512649E-1	9.605745E-1	9.737863E-1	9.311083E-1	9.808616E-1	9.362926E-1	9.340806E-1	9.984158E-1	9.503572E-1	9.677289E-1	9.368203E-1	9.824362E-1	9.907650E-1	9.943070E-1	9.815224E-1	9.590602E-1	9.516837E-1	9.886025E-1	9.666086E-1	1.002649E+0	1.007111E+0	9.591900E-1	9.603756E-1	9.424705E-1	9.664033E-1	9.632563E-1	9.823248E-1	9.813614E-1	9.541955E-1	9.464298E-1	9.325690E-1	9.108950E-1	9.956420E-1	9.439858E-1	9.692752E-1	9.892411E-1	9.700606E-1	9.749305E-1	9.528879E-1	9.568319E-1	9.237256E-1	9.549235E-1	9.811240E-1	9.336229E-1	9.716885E-1	9.488214E-1	9.196254E-1	9.771001E-1	9.469153E-1	9.737647E-1	9.584649E-1	9.525435E-1	1.000832E+0	9.698004E-1	9.782215E-1	9.328141E-1	9.336269E-1	9.866206E-1	9.742803E-1	9.411343E-1	9.368683E-1	9.546499E-1	9.781521E-1	9.874694E-1	9.948355E-1	9.925604E-1	9.426614E-1	9.736053E-1	9.790603E-1	9.920126E-1	9.432470E-1	9.760424E-1	9.508624E-1	9.421216E-1	9.622876E-1	9.557554E-1	9.254894E-1	9.843651E-1	9.906889E-1	1.000954E+0	1.002274E+0	1.003122E+0	9.572437E-1	9.312982E-1	9.528236E-1	1.019483E+0	9.720864E-1	9.551425E-1	9.380317E-1	9.700876E-1	9.075447E-1	9.673617E-1	1.026506E+0	9.795132E-1	9.662722E-1	9.761015E-1	9.514928E-1
5.560130E+2	1.007500E+0	9.693974E-1	9.414117E-1	1.043682E+0	9.604256E-1	9.918930E-1	9.728866E-1	1.033477E+0	9.922093E-1	9.554928E-1	9.514012E-1	9.604866E-1	9.493038E-1	9.542251E-1	9.840847E-1	9.764777E-1	1.007107E+0	9.880422E-1	9.913993E-1	9.838086E-1	9.588158E-1	9.733769E-1	9.659615E-1	9.980019E-1	9.841503E-1	9.024179E-1	9.271830E-1	9.673159E-1	9.692618E-1	9.391085E-1	9.648846E-1	9.777923E-1	9.760047E-1	9.570984E-1	9.690523E-1	1.008963E+0	9.756970E-1	9.652007E-1	9.556933E-1	9.784488E-1	9.948488E-1	9.627371E-1	9.714965E-1	9.807554E-1	9.651263E-1	1.009655E+0	9.519858E-1	1.014609E+0	9.783884E-1	9.801649E-1	1.002479E+0	1.003740E+0	9.352822E-1	9.507049E-1	9.196673E-1	9.673661E-1	9.785518E-1	9.715067E-1	9.621916E-1	9.440770E-1	9.542998E-1	1.013210E+0	9.653716E-1	9.650552E-1	9.301988E-1	9.348305E-1	9.431913E-1	9.638075E-1	9.493006E-1	9.783239E-1	9.829988E-1	9.831670E-1	9.897372E-1	9.697388E-1	9.797419E-1	9.630113E-1	9.457070E-1	9.820663E-1	9.745507E-1	9.784745E-1	9.803599E-1	9.633489E-1	9.830776E-1	9.912236E-1	9.781338E-1	9.706381E-1	9.956388E-1	9.719019E-1	9.815983E-1	9.249573E-1	9.874757E-1	1.008874E+0	9.754887E-1	9.697079E-1	9.559380E-1	1.001244E+0	9.761072E-1	9.171716E-1	9.827494E-1	9.830274E-1	1.007470E+0	1.000751E+0	9.500909E-1	9.637229E-1	1.001229E+0	9.923416E-1	9.494319E-1	9.284238E-1	9.567850E-1	9.492325E-1	9.818432E-1	9.877238E-1	9.676893E-1	9.519377E-1	9.061035E-1	9.559682E-1	9.059112E-1	9.780429E-1	9.800404E-1	1.012882E+0	9.787512E-1	9.499057E-1	9.929831E-1	9.830604E-1	1.013925E+0	9.704331E-1	9.633227E-1	9.775066E-1	9.585194E-1	9.952023E-1	9.714268E-1	9.698840E-1	9.345678E-1	9.695723E-1	9.702444E-1	9.920423E-1	9.807609E-1	9.150813E-1	1.008411E+0	9.573530E-1	9.718101E-1	9.776658E-1	9.606733E-1	1.000858E+0	9.975219E-1	1.012367E+0	9.762995E-1	9.579883E-1	9.451613E-1	9.408348E-1	9.453725E-1	1.012920E+0	9.938321E-1	9.665859E-1	9.557931E-1	9.895023E-1	9.794140E-1	9.551219E-1	9.693507E-1	9.871211E-1	9.819640E-1	9.540050E-1	1.015569E+0	9.545273E-1	9.953866E-1	1.000408E+0	9.919207E-1	9.821588E-1	9.020910E-1	9.634767E-1	9.196037E-1
5.565090E+2	9.475037E-1	9.515583E-1	9.890282E-1	9.511485E-1	9.627662E-1	9.673805E-1	9.473571E-1	1.023508E+0	9.744358E-1	9.705773E-1	9.568602E-1	9.489410E-1	9.839164E-1	9.899415E-1	9.578294E-1	9.832084E-1	9.418871E-1	9.813231E-1	9.672122E-1	9.849788E-1	9.427218E-1	1.016186E+0	9.526715E-1	9.532293E-1	9.420915E-1	9.802206E-1	9.747981E-1	9.599217E-1	9.966542E-1	9.531787E-1	9.350217E-1	9.579950E-1	1.012228E+0	9.746335E-1	9.611110E-1	9.897369E-1	9.992366E-1	9.696180E-1	1.012341E+0	9.886657E-1	9.528498E-1	9.178746E-1	9.808651E-1	9.740000E-1	9.773168E-1	9.505382E-1	9.977100E-1	9.722825E-1	9.574111E-1	9.471555E-1	1.007235E+0	9.929142E-1	9.657441E-1	1.007218E+0	1.005161E+0	1.014301E+0	9.351838E-1	9.446332E-1	9.533335E-1	1.013680E+0	1.018752E+0	9.735684E-1	9.720607E-1	9.695786E-1	9.685856E-1	9.906335E-1	1.017983E+0	9.895252E-1	1.027771E+0	9.475232E-1	9.976120E-1	9.648588E-1	9.599074E-1	9.836738E-1	9.611071E-1	9.663259E-1	9.722508E-1	9.621784E-1	9.645225E-1	9.713387E-1	9.766722E-1	9.973143E-1	9.860469E-1	9.529312E-1	9.684112E-1	9.892691E-1	9.689693E-1	9.497593E-1	9.717356E-1	9.572226E-1	9.531415E-1	9.570962E-1	9.409027E-1	9.595746E-1	1.008186E+0	9.654125E-1	9.520175E-1	9.921260E-1	9.894755E-1	1.009426E+0	9.608721E-1	9.113472E-1	1.002998E+0	9.697591E-1	1.018425E+0	9.875332E-1	9.711887E-1	9.706841E-1	9.835078E-1	9.853888E-1	9.736850E-1	9.724465E-1	9.631354E-1	9.687258E-1	9.789733E-1	9.804672E-1	9.783282E-1	9.632558E-1	9.438475E-1	9.568018E-1	9.764679E-1	9.479884E-1	9.706586E-1	9.663469E-1	9.824390E-1	9.910519E-1	9.523123E-1	9.684676E-1	9.401822E-1	9.666072E-1	1.002840E+0	9.626722E-1	1.031775E+0	1.014123E+0	9.716257E-1	9.796753E-1	9.903003E-1	9.353770E-1	9.573801E-1	9.900005E-1	9.765214E-1	1.007689E+0	9.572544E-1	9.814725E-1	9.639442E-1	9.559311E-1	9.814336E-1	1.001580E+0	9.744778E-1	9.449076E-1	9.555872E-1	1.008957E+0	9.297369E-1	9.774585E-1	9.744323E-1	9.716917E-1	9.805474E-1	9.767041E-1	9.561999E-1	9.815353E-1	1.024046E+0	9.871877E-1	9.561787E-1	9.968222E-1	9.686036E-1	9.403113E-1	9.526067E-1	1.025095E+0	9.793565E-1	1.032707E+0	9.667128E-1
5.570270E+2	9.594430E-1	9.896089E-1	9.813047E-1	9.951906E-1	9.729309E-1	9.551590E-1	9.487526E-1	9.201449E-1	9.799143E-1	9.597612E-1	9.602145E-1	1.001313E+0	1.035675E+0	1.021205E+0	9.725818E-1	9.847348E-1	1.000588E+0	9.786837E-1	9.905964E-1	9.652953E-1	9.977342E-1	9.445827E-1	9.488642E-1	9.722371E-1	9.457882E-1	9.681075E-1	9.765019E-1	9.933645E-1	9.911905E-1	9.994248E-1	9.980330E-1	1.016508E+0	9.748757E-1	9.937317E-1	9.366221E-1	1.031512E+0	1.004403E+0	1.009502E+0	9.823780E-1	9.868107E-1	9.660635E-1	9.961345E-1	9.499146E-1	1.028849E+0	9.757203E-1	9.838825E-1	9.897003E-1	9.777764E-1	1.002827E+0	9.582588E-1	9.814513E-1	9.276238E-1	9.833761E-1	9.756039E-1	9.765955E-1	9.575033E-1	1.023496E+0	9.889799E-1	9.928416E-1	9.668309E-1	9.980057E-1	9.850180E-1	1.027345E+0	1.021727E+0	9.618731E-1	9.490762E-1	9.995586E-1	1.021485E+0	9.975748E-1	9.415814E-1	1.024990E+0	9.686664E-1	1.010341E+0	9.725555E-1	9.610315E-1	1.042416E+0	1.021730E+0	9.604245E-1	9.596491E-1	9.940326E-1	9.642011E-1	1.004390E+0	9.463666E-1	9.933935E-1	9.845686E-1	1.006600E+0	9.707757E-1	1.005322E+0	1.015065E+0	9.473425E-1	9.631517E-1	9.964588E-1	9.714909E-1	9.908967E-1	9.828542E-1	1.001632E+0	9.696429E-1	9.627163E-1	9.998224E-1	9.423204E-1	9.733880E-1	1.006304E+0	9.679628E-1	9.806981E-1	1.011046E+0	9.823112E-1	9.918295E-1	9.818927E-1	9.952778E-1	9.406824E-1	9.753195E-1	1.010259E+0	1.023401E+0	9.787977E-1	9.952913E-1	1.031139E+0	1.029680E+0	9.560675E-1	9.914410E-1	9.607156E-1	9.876383E-1	9.768018E-1	9.741582E-1	1.032673E+0	9.531023E-1	1.013205E+0	9.546690E-1	9.780781E-1	1.034633E+0	9.831152E-1	9.845130E-1	9.798786E-1	9.723970E-1	9.759801E-1	9.798819E-1	9.580750E-1	9.987325E-1	9.715529E-1	9.596579E-1	1.011800E+0	9.720996E-1	9.856302E-1	9.357464E-1	1.021116E+0	9.589993E-1	9.647912E-1	9.488675E-1	1.013670E+0	9.784029E-1	9.760727E-1	9.877646E-1	9.870771E-1	1.052216E+0	9.565016E-1	9.763057E-1	9.697962E-1	9.768307E-1	9.451211E-1	9.856684E-1	9.833884E-1	9.956439E-1	9.455288E-1	9.446419E-1	9.713989E-1	9.934734E-1	9.596842E-1	9.721693E-1	1.018452E+0	9.656646E-1	1.011346E+0	1.001177E+0
5.575640E+2	9.594088E-1	9.627251E-1	9.654964E-1	9.869923E-1	1.013571E+0	9.847175E-1	9.940800E-1	1.017370E+0	9.748892E-1	1.020276E+0	1.031375E+0	9.396076E-1	9.813694E-1	9.835304E-1	9.811824E-1	1.009704E+0	1.000344E+0	1.007951E+0	9.829621E-1	9.910330E-1	9.865454E-1	1.000101E+0	9.959243E-1	1.023711E+0	1.003706E+0	9.913994E-1	1.021190E+0	9.846471E-1	1.011571E+0	9.772054E-1	9.962983E-1	9.575798E-1	1.000012E+0	9.714402E-1	9.833720E-1	9.896408E-1	9.864063E-1	1.020812E+0	9.618895E-1	1.018001E+0	1.007877E+0	1.031177E+0	1.029510E+0	9.588239E-1	1.000649E+0	9.800160E-1	9.846633E-1	1.008251E+0	1.018700E+0	9.825288E-1	9.802773E-1	1.003126E+0	9.869881E-1	1.000797E+0	1.016170E+0	9.865207E-1	1.012921E+0	9.650056E-1	1.004939E+0	1.026805E+0	9.929354E-1	1.014006E+0	1.014813E+0	1.004321E+0	1.017206E+0	9.862949E-1	1.013403E+0	9.564892E-1	9.947546E-1	9.545382E-1	9.498287E-1	1.055771E+0	9.772485E-1	9.975548E-1	9.867201E-1	1.004991E+0	9.729039E-1	9.741185E-1	9.929942E-1	9.802782E-1	1.025359E+0	9.947274E-1	9.732869E-1	9.846638E-1	9.987285E-1	1.004134E+0	9.895221E-1	9.709515E-1	9.922903E-1	9.796581E-1	9.886668E-1	9.772062E-1	1.016703E+0	9.839636E-1	9.784470E-1	1.006109E+0	9.867109E-1	9.971467E-1	9.385652E-1	9.872395E-1	1.005689E+0	9.978746E-1	9.821077E-1	9.989199E-1	1.028102E+0	9.664156E-1	9.690023E-1	9.812432E-1	1.005020E+0	9.903057E-1	9.906812E-1	9.414295E-1	1.000692E+0	9.448856E-1	9.755044E-1	9.592444E-1	1.007170E+0	9.997853E-1	1.019475E+0	1.008089E+0	1.030822E+0	9.839389E-1	9.746053E-1	1.019817E+0	9.692109E-1	9.565942E-1	9.508640E-1	1.017566E+0	9.797651E-1	9.633470E-1	9.682344E-1	9.897975E-1	9.660773E-1	1.011490E+0	1.001510E+0	9.921565E-1	9.950953E-1	9.942945E-1	9.805993E-1	9.783451E-1	9.863984E-1	9.866506E-1	1.024591E+0	1.033132E+0	1.024143E+0	1.035441E+0	9.960419E-1	9.935451E-1	9.848797E-1	9.824607E-1	9.865657E-1	1.009986E+0	1.004377E+0	9.939580E-1	1.005091E+0	1.007570E+0	1.040796E+0	9.943441E-1	9.944114E-1	9.619115E-1	9.307679E-1	9.677261E-1	1.013171E+0	9.699409E-1	9.529726E-1	1.011190E+0	9.605960E-1	1.004495E+0	9.987798E-1	9.397765E-1	1.002193E+0
5.580230E+2	1.011976E+0	1.004532E+0	1.029036E+0	9.655322E-1	1.004827E+0	1.045257E+0	1.008763E+0	9.885023E-1	9.875208E-1	1.035509E+0	1.018089E+0	1.007853E+0	9.956623E-1	9.542543E-1	1.012153E+0	1.022032E+0	1.010600E+0	9.805416E-1	9.944183E-1	9.845399E-1	1.068812E+0	1.007253E+0	1.009828E+0	9.972763E-1	1.015928E+0	1.018683E+0	9.977388E-1	1.005915E+0	9.959812E-1	9.966741E-1	1.033249E+0	1.007038E+0	9.587663E-1	9.947841E-1	1.041182E+0	9.826377E-1	9.862639E-1	1.006056E+0	9.893027E-1	1.027465E+0	9.983772E-1	1.007479E+0	9.633917E-1	1.001460E+0	9.754068E-1	9.893624E-1	9.829354E-1	9.878564E-1	1.012091E+0	1.011377E+0	1.000718E+0	1.006516E+0	9.944342E-1	9.795350E-1	9.773963E-1	1.002217E+0	1.032687E+0	1.026895E+0	1.032578E+0	9.905407E-1	1.013483E+0	9.988514E-1	1.026532E+0	9.877792E-1	1.023605E+0	9.890652E-1	9.809434E-1	1.035864E+0	9.752163E-1	1.040866E+0	1.010880E+0	9.740315E-1	1.001243E+0	1.028288E+0	1.012304E+0	1.005176E+0	9.856139E-1	1.011601E+0	1.017360E+0	9.570303E-1	1.019206E+0	9.742431E-1	1.017818E+0	9.698093E-1	9.878085E-1	9.873898E-1	1.018953E+0	1.023981E+0	1.033017E+0	1.005807E+0	1.020512E+0	1.012718E+0	1.011322E+0	1.036049E+0	1.024798E+0	1.006208E+0	1.065933E+0	1.017439E+0	9.963476E-1	9.593251E-1	9.627356E-1	9.529724E-1	9.439501E-1	9.975757E-1	9.779218E-1	9.985680E-1	9.973863E-1	9.971391E-1	1.019388E+0	9.997318E-1	1.013903E+0	1.012344E+0	9.828824E-1	1.009106E+0	1.036260E+0	9.869290E-1	9.847589E-1	1.034934E+0	9.989557E-1	9.893360E-1	1.000306E+0	1.024380E+0	1.004814E+0	9.764546E-1	1.000658E+0	9.493122E-1	1.018041E+0	1.020488E+0	9.828758E-1	9.962143E-1	9.841871E-1	9.938277E-1	9.779865E-1	9.700296E-1	9.938653E-1	9.510283E-1	9.834335E-1	1.034438E+0	1.012408E+0	1.009198E+0	1.014977E+0	9.922794E-1	1.002521E+0	1.004057E+0	9.729238E-1	9.350914E-1	1.030056E+0	1.010139E+0	1.008907E+0	9.993279E-1	1.029271E+0	1.013692E+0	9.868256E-1	1.005991E+0	9.773049E-1	1.020294E+0	1.004183E+0	1.015024E+0	1.037947E+0	1.015721E+0	9.716115E-1	1.040960E+0	9.638188E-1	9.762775E-1	9.836871E-1	1.033963E+0	1.046363E+0	1.002451E+0	1.038544E+0	1.006395E+0	9.522995E-1
5.585220E+2	1.021997E+0	1.008619E+0	1.043717E+0	9.923043E-1	1.011787E+0	9.877668E-1	1.032896E+0	1.016519E+0	1.015412E+0	1.025436E+0	1.010970E+0	9.977207E-1	1.038585E+0	1.008243E+0	1.024679E+0	9.542265E-1	1.037652E+0	1.017398E+0	9.759284E-1	1.027067E+0	9.955383E-1	9.737364E-1	9.953724E-1	9.905187E-1	1.060748E+0	1.039153E+0	1.030719E+0	9.827856E-1	1.000256E+0	9.849374E-1	9.938230E-1	1.005453E+0	1.011062E+0	1.026618E+0	1.023652E+0	9.912065E-1	1.016575E+0	1.006173E+0	9.916232E-1	1.013432E+0	1.058569E+0	1.045186E+0	9.717237E-1	1.030749E+0	9.784108E-1	1.028168E+0	1.021781E+0	1.004025E+0	1.019207E+0	1.005385E+0	9.907385E-1	1.010539E+0	1.003555E+0	1.038051E+0	1.029466E+0	1.017517E+0	1.030172E+0	1.031018E+0	1.019187E+0	1.001810E+0	1.030537E+0	9.723430E-1	9.838105E-1	1.020149E+0	9.790211E-1	1.023315E+0	1.022419E+0	1.008454E+0	1.037186E+0	1.019336E+0	9.945973E-1	9.822581E-1	9.967758E-1	9.866162E-1	1.034914E+0	1.005513E+0	1.047120E+0	1.022132E+0	1.022681E+0	1.033481E+0	9.596297E-1	1.040709E+0	1.000436E+0	1.000211E+0	9.947908E-1	1.016982E+0	9.970482E-1	1.004344E+0	9.706649E-1	1.033526E+0	1.051941E+0	1.041273E+0	1.024366E+0	1.018504E+0	9.773257E-1	9.821282E-1	1.030677E+0	1.050761E+0	1.010545E+0	1.035492E+0	1.005061E+0	9.751513E-1	1.028284E+0	1.021501E+0	9.897674E-1	1.022473E+0	9.552124E-1	9.801544E-1	9.667962E-1	9.903028E-1	1.053818E+0	9.958423E-1	9.863388E-1	1.045178E+0	1.032481E+0	1.033054E+0	1.052703E+0	1.057376E+0	1.013204E+0	1.034889E+0	9.828235E-1	1.026154E+0	9.862915E-1	1.022170E+0	1.025345E+0	1.028788E+0	1.043398E+0	1.015157E+0	9.842872E-1	1.010485E+0	1.049309E+0	1.030245E+0	1.045511E+0	1.028468E+0	9.731230E-1	1.019162E+0	1.034372E+0	1.034403E+0	9.979549E-1	9.968766E-1	1.045792E+0	1.015901E+0	1.023332E+0	1.014356E+0	1.054321E+0	9.881989E-1	1.010569E+0	1.024524E+0	1.023234E+0	1.060029E+0	9.879276E-1	1.010741E+0	1.003081E+0	9.971462E-1	1.006617E+0	1.006110E+0	9.869662E-1	1.009060E+0	1.020002E+0	1.030292E+0	9.501489E-1	1.020166E+0	1.034790E+0	1.011453E+0	9.800149E-1	1.009909E+0	1.034930E+0	1.047373E+0	1.031634E+0	9.831187E-1	1.007248E+0
5.590160E+2	1.002365E+0	1.054713E+0	1.062945E+0	1.035077E+0	1.074725E+0	1.029465E+0	1.051179E+0	1.020379E+0	1.023129E+0	1.032950E+0	1.042738E+0	1.051113E+0	9.812327E-1	1.013997E+0	1.053604E+0	1.004511E+0	1.018185E+0	1.052301E+0	9.828367E-1	1.037568E+0	1.053122E+0	1.045487E+0	1.030190E+0	9.679685E-1	1.040205E+0	1.049188E+0	1.011459E+0	1.002538E+0	1.047684E+0	1.048566E+0	1.038069E+0	1.053238E+0	1.026979E+0	1.070022E+0	1.021291E+0	9.897314E-1	1.024164E+0	1.047321E+0	1.034997E+0	1.035734E+0	1.041811E+0	1.028681E+0	1.048562E+0	9.978440E-1	1.091960E+0	1.014674E+0	1.069735E+0	1.001432E+0	1.007029E+0	1.056866E+0	9.983512E-1	1.017080E+0	1.046535E+0	1.028575E+0	1.048952E+0	9.942552E-1	1.008930E+0	1.005636E+0	1.031209E+0	1.047390E+0	9.985151E-1	1.036574E+0	1.001286E+0	1.011363E+0	1.080078E+0	1.006664E+0	1.020503E+0	9.674995E-1	9.910926E-1	1.016619E+0	1.038043E+0	1.023944E+0	1.035715E+0	1.053792E+0	1.040985E+0	1.001562E+0	9.946668E-1	1.010652E+0	1.029424E+0	1.018941E+0	1.046182E+0	1.020649E+0	1.048905E+0	1.033308E+0	1.012019E+0	1.031796E+0	1.007737E+0	9.961649E-1	1.012703E+0	1.035454E+0	9.740946E-1	1.005392E+0	1.047473E+0	9.821918E-1	1.029989E+0	1.032700E+0	1.000466E+0	1.040733E+0	1.020337E+0	1.009555E+0	1.048290E+0	1.043410E+0	1.047282E+0	1.020614E+0	1.055097E+0	1.017253E+0	1.061417E+0	1.025701E+0	1.026842E+0	1.042523E+0	1.023788E+0	1.051860E+0	1.011222E+0	1.049510E+0	1.045286E+0	1.039978E+0	1.008939E+0	1.036401E+0	1.065108E+0	9.894639E-1	9.909743E-1	1.028094E+0	1.053426E+0	1.028968E+0	1.069820E+0	1.030625E+0	9.851368E-1	1.035191E+0	1.036522E+0	1.011794E+0	1.008345E+0	1.065701E+0	1.050874E+0	1.018863E+0	1.015459E+0	1.025053E+0	1.008859E+0	1.047827E+0	1.082827E+0	1.032723E+0	1.029419E+0	1.037257E+0	1.037198E+0	9.934421E-1	1.006329E+0	1.051298E+0	1.022685E+0	1.012448E+0	9.931107E-1	1.032830E+0	1.031517E+0	1.006938E+0	1.028865E+0	1.022900E+0	1.042189E+0	1.055595E+0	9.958239E-1	1.014160E+0	1.038494E+0	1.030687E+0	1.033035E+0	1.029535E+0	1.024597E+0	1.048871E+0	1.072748E+0	1.054613E+0	1.016001E+0	9.734281E-1	1.063056E+0	1.026643E+0	1.142869E+0
5.595110E+2	1.054562E+0	9.768283E-1	9.867002E-1	1.033538E+0	1.029418E+0	1.017488E+0	1.023394E+0	1.042808E+0	1.040370E+0	1.005611E+0	1.024418E+0	1.035836E+0	1.035724E+0	1.090234E+0	1.001368E+0	1.030008E+0	1.001920E+0	1.035992E+0	1.043650E+0	1.016087E+0	1.005997E+0	1.013858E+0	1.061702E+0	1.051821E+0	9.864557E-1	1.030396E+0	9.700092E-1	1.067637E+0	1.034643E+0	9.861471E-1	1.041394E+0	9.989260E-1	1.007122E+0	1.010829E+0	1.038548E+0	1.001901E+0	1.001974E+0	9.808623E-1	1.020154E+0	9.790519E-1	1.001352E+0	1.014146E+0	1.041029E+0	1.037563E+0	1.036824E+0	9.878022E-1	1.010397E+0	1.026399E+0	1.006528E+0	9.952487E-1	1.007981E+0	1.031321E+0	1.018555E+0	1.007445E+0	1.028893E+0	1.035159E+0	1.021003E+0	1.054270E+0	1.040685E+0	1.005512E+0	9.940636E-1	1.013728E+0	1.037179E+0	1.036941E+0	1.023218E+0	1.051721E+0	1.009526E+0	9.954703E-1	9.776045E-1	1.038578E+0	9.969282E-1	1.021515E+0	1.004844E+0	1.000312E+0	1.039850E+0	1.021766E+0	1.036936E+0	9.878943E-1	1.051500E+0	1.032009E+0	1.024809E+0	1.042237E+0	1.010570E+0	1.046990E+0	1.046303E+0	1.025430E+0	1.037257E+0	1.044299E+0	1.049455E+0	1.034792E+0	1.002423E+0	1.039688E+0	1.032907E+0	1.005307E+0	1.017429E+0	1.004818E+0	9.958771E-1	1.031687E+0	1.019243E+0	1.017699E+0	1.011308E+0	1.061351E+0	1.022304E+0	1.047376E+0	1.011726E+0	1.017910E+0	1.036389E+0	1.026714E+0	1.031580E+0	1.063693E+0	1.015621E+0	1.011221E+0	1.064534E+0	1.021238E+0	1.025516E+0	1.042526E+0	1.001406E+0	1.000867E+0	9.871376E-1	9.845088E-1	1.003190E+0	1.010133E+0	9.981402E-1	9.789644E-1	1.003528E+0	1.009417E+0	1.089967E+0	1.010932E+0	1.030969E+0	1.030145E+0	9.874027E-1	9.970633E-1	1.026063E+0	9.983156E-1	1.041145E+0	1.051079E+0	1.020303E+0	1.027342E+0	1.025444E+0	1.030612E+0	1.049248E+0	1.011230E+0	1.029568E+0	9.551527E-1	9.952798E-1	1.062406E+0	1.011531E+0	1.034364E+0	1.017001E+0	1.041114E+0	1.007964E+0	1.033544E+0	1.022272E+0	1.012130E+0	1.042672E+0	1.019439E+0	1.029611E+0	1.024537E+0	9.733148E-1	1.023183E+0	1.043960E+0	1.052967E+0	9.975879E-1	1.027813E+0	9.960402E-1	9.822865E-1	9.984320E-1	9.774532E-1	1.034511E+0	1.017306E+0	9.679755E-1
5.600300E+2	1.029922E+0	1.021616E+0	9.903314E-1	1.009156E+0	9.951033E-1	9.958997E-1	1.002115E+0	9.752099E-1	1.046005E+0	1.013410E+0	9.918554E-1	1.018474E+0	9.879840E-1	9.954349E-1	1.002987E+0	9.844172E-1	9.664023E-1	9.735612E-1	1.015491E+0	1.011325E+0	1.009623E+0	1.000101E+0	1.043133E+0	1.019109E+0	9.876947E-1	9.983565E-1	1.044569E+0	1.017212E+0	9.660253E-1	1.027599E+0	1.006156E+0	1.018695E+0	1.012010E+0	9.736584E-1	9.658687E-1	1.012229E+0	1.022534E+0	1.007665E+0	1.024941E+0	9.927432E-1	1.014565E+0	1.000333E+0	1.027231E+0	9.757761E-1	9.779551E-1	1.009630E+0	9.969466E-1	1.007006E+0	1.019716E+0	1.050904E+0	1.007717E+0	9.961515E-1	1.020889E+0	1.027753E+0	9.942212E-1	1.018353E+0	1.017302E+0	9.876642E-1	9.934609E-1	9.817649E-1	1.022270E+0	9.932029E-1	1.010801E+0	9.749724E-1	9.797445E-1	1.020396E+0	9.915945E-1	1.050318E+0	1.017235E+0	1.011927E+0	1.021999E+0	9.929921E-1	9.915031E-1	9.889815E-1	9.647607E-1	9.836590E-1	1.017829E+0	1.007097E+0	1.024935E+0	9.675721E-1	9.909066E-1	9.986665E-1	1.042582E+0	1.005983E+0	9.977804E-1	9.719145E-1	1.019042E+0	1.023076E+0	9.823850E-1	9.977639E-1	1.003601E+0	9.890874E-1	1.003647E+0	1.017729E+0	1.013760E+0	9.680269E-1	9.943671E-1	9.526502E-1	1.008786E+0	1.006513E+0	1.029865E+0	1.033734E+0	9.698525E-1	9.957346E-1	9.560756E-1	1.006690E+0	1.040726E+0	1.004747E+0	1.005661E+0	1.012098E+0	1.005300E+0	9.969532E-1	9.899533E-1	9.696669E-1	1.013629E+0	9.523179E-1	9.851397E-1	9.917517E-1	1.012773E+0	1.039395E+0	1.014915E+0	1.027389E+0	9.752935E-1	1.002769E+0	1.005452E+0	1.019201E+0	1.030837E+0	9.815755E-1	9.928994E-1	1.010320E+0	9.767993E-1	1.019011E+0	1.022486E+0	1.012797E+0	9.989719E-1	1.038375E+0	1.042854E+0	9.898147E-1	1.006868E+0	1.004006E+0	9.872656E-1	9.859973E-1	1.015187E+0	9.763101E-1	1.020367E+0	9.942934E-1	1.010153E+0	9.855872E-1	1.032139E+0	9.804384E-1	1.003829E+0	9.871497E-1	9.584405E-1	1.003129E+0	1.049537E+0	9.898463E-1	9.627559E-1	1.032508E+0	9.855280E-1	1.004958E+0	1.038369E+0	9.789517E-1	1.024751E+0	1.014708E+0	1.040070E+0	1.008135E+0	1.011842E+0	1.012936E+0	1.020126E+0	1.014745E+0	1.015716E+0
5.605090E+2	1.036407E+0	1.041621E+0	1.002573E+0	1.015623E+0	9.688503E-1	1.014142E+0	9.806984E-1	9.950483E-1	9.924371E-1	9.852134E-1	1.009439E+0	1.030488E+0	9.794675E-1	1.006961E+0	9.903877E-1	1.017296E+0	9.951442E-1	1.009619E+0	1.019005E+0	9.981476E-1	9.802092E-1	1.009506E+0	9.829152E-1	1.002516E+0	1.019777E+0	1.047373E+0	1.016999E+0	9.929846E-1	1.016552E+0	1.022836E+0	9.689177E-1	1.016126E+0	1.024333E+0	1.019238E+0	1.056082E+0	9.846146E-1	9.866748E-1	9.860475E-1	1.044596E+0	9.940816E-1	9.789567E-1	1.028701E+0	1.014935E+0	1.003781E+0	1.014382E+0	1.022304E+0	1.019038E+0	1.029546E+0	9.715614E-1	1.027919E+0	9.873188E-1	1.000015E+0	1.028787E+0	9.891881E-1	1.018196E+0	9.669898E-1	9.875611E-1	9.955679E-1	9.841514E-1	9.913488E-1	9.840515E-1	1.002020E+0	9.670927E-1	9.575946E-1	1.007515E+0	1.047445E+0	9.964059E-1	9.838185E-1	1.020791E+0	1.014700E+0	9.918763E-1	1.006055E+0	1.023555E+0	1.002230E+0	1.003463E+0	9.958004E-1	1.007578E+0	1.037647E+0	9.866519E-1	1.075297E+0	1.019177E+0	9.807333E-1	1.005769E+0	1.044671E+0	1.003064E+0	9.805619E-1	1.008159E+0	9.972437E-1	9.743704E-1	1.011076E+0	1.030318E+0	9.887876E-1	9.842057E-1	9.823501E-1	1.011650E+0	9.923936E-1	1.000673E+0	1.038654E+0	1.005480E+0	1.032420E+0	9.799077E-1	1.017290E+0	1.060444E+0	1.006875E+0	9.972385E-1	1.021258E+0	1.025859E+0	1.056141E+0	1.017621E+0	1.026870E+0	9.607292E-1	9.789606E-1	9.972849E-1	1.035565E+0	1.008641E+0	1.035390E+0	1.045458E+0	9.805013E-1	1.005179E+0	1.004728E+0	1.026730E+0	1.001265E+0	1.029371E+0	9.914188E-1	1.013160E+0	1.025408E+0	1.019268E+0	9.825181E-1	9.945819E-1	9.853599E-1	1.042535E+0	9.641049E-1	1.021152E+0	9.923521E-1	1.011604E+0	1.005412E+0	9.480428E-1	1.031555E+0	9.728524E-1	1.005498E+0	9.825909E-1	1.015939E+0	1.018148E+0	1.001459E+0	1.007825E+0	9.584203E-1	1.019020E+0	1.013827E+0	1.013309E+0	1.014261E+0	1.052028E+0	9.404545E-1	1.000976E+0	1.013157E+0	1.001687E+0	9.903312E-1	1.004191E+0	1.026753E+0	1.034454E+0	9.752080E-1	1.042583E+0	1.001987E+0	9.934439E-1	9.921964E-1	1.004405E+0	9.918976E-1	1.022141E+0	9.615535E-1	9.908557E-1	9.959610E-1	1.061022E+0
5.610010E+2	9.689155E-1	1.018782E+0	1.007456E+0	9.717548E-1	1.005597E+0	1.010832E+0	1.037879E+0	9.670333E-1	9.736769E-1	9.957641E-1	1.002640E+0	1.008168E+0	1.031079E+0	9.819746E-1	1.019143E+0	1.033385E+0	1.020170E+0	9.745863E-1	1.036501E+0	1.000150E+0	1.000881E+0	1.015811E+0	1.013438E+0	1.023610E+0	1.013456E+0	9.747058E-1	1.028832E+0	1.025679E+0	9.701814E-1	1.064323E+0	1.024153E+0	9.906489E-1	9.966078E-1	1.007946E+0	1.003219E+0	1.017827E+0	9.960712E-1	1.000743E+0	9.820842E-1	9.855668E-1	9.847305E-1	9.675516E-1	1.001342E+0	1.010399E+0	1.006248E+0	1.023966E+0	9.751074E-1	9.708177E-1	1.006539E+0	9.841923E-1	1.035732E+0	1.010973E+0	1.015854E+0	9.951296E-1	9.852814E-1	1.039818E+0	9.521924E-1	1.028824E+0	9.854234E-1	1.030240E+0	9.930874E-1	9.974790E-1	9.937087E-1	1.050519E+0	1.028955E+0	1.000558E+0	1.004471E+0	1.027269E+0	1.011474E+0	1.036006E+0	9.902460E-1	1.026742E+0	1.009131E+0	1.016257E+0	1.015122E+0	1.009778E+0	9.976649E-1	1.044190E+0	9.757327E-1	9.915465E-1	9.934969E-1	9.829813E-1	9.851416E-1	9.768153E-1	1.028393E+0	1.015285E+0	9.868987E-1	1.012956E+0	1.016716E+0	1.072401E+0	1.024675E+0	9.834189E-1	9.914954E-1	1.053726E+0	9.996226E-1	1.039327E+0	1.027528E+0	9.989156E-1	1.028649E+0	1.016982E+0	1.015415E+0	9.998141E-1	1.024725E+0	9.972239E-1	9.533711E-1	9.872467E-1	1.001559E+0	1.047161E+0	9.915215E-1	9.991723E-1	1.005311E+0	1.040960E+0	1.012867E+0	1.025389E+0	9.823141E-1	9.829856E-1	1.000507E+0	1.001017E+0	9.828390E-1	1.019191E+0	1.007381E+0	1.023951E+0	1.040259E+0	9.973568E-1	9.633607E-1	1.005965E+0	9.921847E-1	1.012520E+0	1.064766E+0	1.047410E+0	1.024407E+0	1.027815E+0	9.511100E-1	1.008009E+0	1.042569E+0	9.879416E-1	9.972464E-1	1.018313E+0	9.955974E-1	9.835875E-1	9.838777E-1	9.837597E-1	9.957795E-1	1.018646E+0	9.983456E-1	1.041763E+0	9.933436E-1	9.523282E-1	1.029379E+0	1.027724E+0	1.012174E+0	9.885403E-1	1.019377E+0	1.051042E+0	9.683702E-1	9.798247E-1	1.038881E+0	1.006666E+0	1.004630E+0	1.005994E+0	9.878710E-1	1.020987E+0	1.031452E+0	1.035991E+0	1.012598E+0	1.007603E+0	9.929982E-1	9.946031E-1	9.753811E-1	1.008526E+0	9.631830E-1
