Photon Energy (eV)	#1	#2	#3	#4	#5	#6	#7	#8	#9	#10	#11	#12	#13	#14	#15	#16	#17	#18	#19	#20	#21	#22	#23	#24	#25	#26	#27	#28	#29	#30	#31	#32	#33	#34	#35	#36	#37	#38	#39	#40	#41	#42	#43	#44	#45	#46	#47	#48	#49	#50	#51	#52	#53	#54	#55	#56	#57	#58	#59	#60	#61	#62	#63	#64	#65	#66	#67	#68	#69	#70	#71	#72	#73	#74	#75	#76	#77	#78	#79	#80	#81	#82	#83	#84	#85	#86	#87	#88	#89	#90	#91	#92	#93	#94	#95	#96	#97	#98	#99	#100	#101	#102	#103	#104	#105	#106	#107	#108	#109	#110	#111	#112	#113	#114	#115	#116	#117	#118	#119	#120	#121	#122	#123	#124	#125	#126	#127	#128	#129	#130	#131	#132	#133	#134	#135	#136	#137	#138	#139	#140	#141	#142	#143	#144	#145	#146	#147	#148	#149	#150	#151	#152	#153	#154	#155	#156	#157	#158	#159	#160	#161	#162	#163	#164	#165	#166	#167	#168	#169	#170	#171	
5.300110E+2	-4.308790E-3	-5.684893E-3	-2.173508E-3	-9.495401E-3	-1.046599E-2	-6.781542E-3	-9.983347E-3	-8.407967E-3	-3.306517E-3	-7.644263E-3	-2.307067E-3	-9.248288E-3	7.526797E-4	3.043700E-3	-1.441907E-3	-2.525665E-3	-8.138466E-3	-8.428512E-3	-3.494086E-5	2.335621E-3	-8.859405E-3	3.733542E-3	-9.875152E-3	-8.456838E-3	-3.614761E-3	-1.285308E-2	-2.523127E-3	-1.449944E-2	-1.273664E-3	-1.991821E-3	-9.870392E-3	-2.860420E-3	3.315447E-3	-7.941565E-3	1.209913E-3	-8.146085E-3	-6.507415E-3	-9.230044E-4	3.092327E-3	-1.000723E-2	5.778105E-4	-3.001288E-3	-8.904449E-3	-1.624708E-3	-9.132046E-3	-1.398627E-3	-5.955097E-3	-5.495251E-3	-5.499526E-3	2.700103E-3	-2.051381E-3	-1.947122E-3	-4.895284E-3	-6.588432E-3	-9.910451E-3	4.501085E-3	-1.125081E-2	-1.370473E-2	-6.549383E-3	-1.389373E-3	-9.335826E-3	-9.331060E-3	-9.030308E-3	-9.159441E-3	-6.904036E-3	-4.416267E-3	-1.665632E-3	-3.104927E-3	-6.023823E-3	-1.010560E-3	-8.340459E-3	-1.112913E-2	-9.988572E-3	2.602106E-3	-6.096023E-3	-5.928775E-4	-9.533388E-3	-1.248892E-2	-1.181688E-2	-7.391510E-3	-6.964592E-3	-8.868716E-3	-9.609504E-3	-1.084292E-2	-5.141616E-3	-3.694976E-3	-1.596982E-3	-6.539405E-3	-1.870665E-4	-1.575873E-2	-1.514744E-2	5.737684E-4	-3.998353E-3	-5.240551E-3	-4.515276E-3	-2.505808E-3	3.966507E-3	-8.914532E-3	-6.708700E-3	-9.186819E-3	1.392324E-3	-1.186609E-2	-6.681262E-3	-8.865035E-3	-5.685269E-3	-1.520715E-2	-2.049630E-2	-1.216179E-2	-1.049949E-2	-4.391196E-3	-8.681680E-3	1.354369E-3	3.658579E-3	-3.630907E-3	-1.573430E-2	3.689559E-4	-6.728459E-3	-1.033271E-2	-8.053440E-3	-7.360865E-3	-3.662589E-3	-4.325498E-3	-8.712600E-3	-7.821504E-3	-9.247414E-3	-6.261313E-3	-7.622832E-3	4.941774E-3	-8.964237E-3	-6.970892E-3	-7.572177E-3	-8.844480E-3	-2.426368E-3	-8.815722E-3	-1.047315E-3	-7.074816E-3	-9.922383E-3	-2.726214E-3	-5.927219E-3	-1.072062E-3	-7.306889E-3	-8.232246E-3	-4.732595E-3	-8.432727E-3	-9.814214E-4	-7.058397E-3	-7.508770E-3	9.454374E-4	-1.408373E-2	-4.351474E-3	-6.911948E-3	-5.462604E-3	-4.054380E-3	-7.248051E-3	-1.136396E-3	-4.398786E-3	-3.295862E-3	7.881215E-4	-1.199217E-2	-2.716647E-3	-1.439759E-2	9.242949E-4	-1.594824E-2	7.826801E-4	-1.534535E-2	4.824869E-3	-7.872108E-3	1.817271E-3	-1.101573E-2	-9.011595E-3	-1.590099E-2
5.305180E+2	-5.184223E-3	-3.904328E-3	-4.597799E-3	-3.515497E-3	-7.345793E-3	-6.675289E-3	-4.121616E-3	-1.086001E-2	-6.812379E-3	-2.812158E-3	8.242570E-4	-5.643201E-3	-6.402404E-3	-7.860090E-3	-8.404275E-4	-1.362089E-2	-3.481679E-3	4.859475E-4	-9.213342E-3	-1.401514E-2	2.004162E-4	-9.648515E-3	-3.082770E-3	-2.232237E-3	-2.402119E-3	1.572713E-3	-5.527048E-3	-1.348558E-3	-6.588054E-4	-2.318286E-3	-4.415931E-3	-7.361211E-3	-1.532775E-4	9.460711E-3	-7.049546E-3	-9.661408E-3	1.105076E-4	-3.596083E-3	3.383579E-3	-9.888009E-3	-4.339962E-4	-1.247761E-3	-8.790848E-3	-9.607808E-3	-6.209081E-3	-5.443178E-3	-1.788181E-3	-1.297618E-2	-5.940577E-3	-1.035230E-2	8.681810E-4	-5.041148E-3	-1.274941E-2	2.150577E-3	3.410856E-3	5.028870E-4	-7.339876E-3	-4.908519E-3	-1.182077E-3	-4.524521E-3	-6.248124E-3	-3.988831E-3	-5.058775E-3	-5.670973E-3	-7.736293E-3	-8.538788E-3	-6.596783E-3	-5.187314E-3	-7.322836E-4	-2.338729E-3	-6.489777E-3	-6.924850E-3	-4.420592E-4	-1.817624E-3	3.278032E-4	5.231035E-3	-3.504818E-3	8.572846E-4	1.741514E-3	6.374195E-3	-9.198848E-3	-7.586398E-3	3.300178E-3	-7.172952E-3	-7.601521E-3	7.455985E-3	-3.154263E-3	-2.854161E-3	-7.855246E-3	-4.360105E-3	6.555695E-4	-8.618242E-3	-7.581571E-3	-5.129059E-3	-4.388558E-3	4.712768E-4	-7.680833E-3	-6.455474E-3	-1.124115E-3	-5.178894E-3	-6.555405E-3	-6.556756E-3	-2.924056E-3	-4.592213E-3	-4.562451E-3	-1.290695E-3	3.992033E-3	-6.377430E-3	3.044048E-4	-4.271587E-3	1.763226E-3	-1.226424E-2	-1.123321E-3	-2.921661E-3	1.592230E-3	-1.218618E-2	-6.718053E-4	4.079868E-4	1.798631E-3	-1.193316E-2	-3.540584E-3	-4.777382E-3	3.312095E-3	-4.207494E-3	3.952891E-3	-4.592726E-3	1.337595E-3	-1.083282E-2	-3.467757E-3	-8.102698E-3	-1.968711E-3	-6.451698E-3	-6.177839E-3	-6.964790E-3	5.968389E-3	7.294286E-3	-4.943052E-3	-1.425055E-3	5.838994E-3	-9.453193E-3	-4.548929E-3	-8.114968E-3	1.409847E-3	-4.085094E-3	-1.985335E-3	-4.484749E-3	-1.854481E-2	-1.238102E-2	-9.413982E-4	-1.515922E-2	-4.437108E-3	-1.026713E-2	-2.377491E-3	-5.373384E-3	-3.311359E-3	-1.160581E-4	-7.991643E-3	-4.739390E-3	-7.663488E-3	-9.614043E-3	2.792349E-3	-1.034647E-2	-6.746368E-4	3.144936E-3	-3.234810E-4	-1.373204E-2	-6.745973E-3	4.032355E-3	-6.217422E-3	-2.075552E-3	7.592304E-4
5.310150E+2	-6.089450E-3	-4.352267E-3	-1.083094E-2	-7.560772E-3	1.846264E-3	-5.596619E-3	-4.607989E-3	5.021843E-3	-6.199748E-3	-8.516444E-3	-6.625367E-3	2.654888E-3	-5.820326E-3	-6.262777E-3	-9.980070E-3	5.049584E-3	1.192519E-3	-4.119049E-3	-6.903145E-3	-3.536733E-3	-8.120588E-3	-4.641767E-3	-8.469291E-3	-1.079095E-2	-4.997303E-3	-1.139353E-2	-4.884641E-3	2.567656E-3	-3.033377E-3	-1.050508E-2	-3.820460E-3	-4.943358E-3	-2.624317E-3	-3.370564E-3	-7.478135E-3	-1.439694E-3	-6.738602E-3	-7.029856E-3	-8.126835E-3	-7.837409E-3	-6.677560E-3	-5.983417E-4	6.555547E-3	-6.286781E-3	-7.239943E-3	-1.205166E-2	-7.784206E-3	3.270195E-3	-6.956793E-3	-7.388027E-3	-3.291359E-3	-1.140264E-3	7.767101E-5	-5.374033E-3	-5.549355E-3	-1.500700E-2	5.268743E-3	3.592721E-3	-4.269966E-4	-9.314379E-3	1.338533E-3	-5.423965E-4	2.001446E-5	-4.592964E-3	-4.267200E-3	-3.809374E-3	-9.531177E-4	-8.961006E-3	-6.780585E-3	-4.237686E-3	-1.539499E-3	-4.230387E-3	3.926439E-3	-1.617332E-3	-3.474940E-3	-1.116842E-2	5.248538E-3	-9.217150E-3	2.950495E-3	-2.298858E-3	-1.262889E-2	4.356158E-3	-7.013147E-3	-1.296297E-2	1.840449E-3	-7.372189E-3	-1.076198E-2	1.908684E-3	2.354152E-3	4.996423E-4	2.361321E-4	-7.410559E-3	-1.328626E-2	-2.236918E-3	3.397699E-3	-5.559394E-3	-6.025317E-3	-1.205804E-4	-1.137191E-2	-5.624925E-3	-6.983228E-3	-3.507720E-3	-6.445996E-3	-4.472434E-3	3.166864E-3	-3.473722E-3	-5.953124E-3	-2.278818E-3	-4.938796E-3	-1.025566E-2	-4.996786E-3	-2.306190E-3	-7.562357E-3	-4.597909E-3	-4.404239E-3	-8.218504E-3	-1.026214E-3	-5.089395E-3	-7.861647E-3	1.193700E-3	-1.253993E-2	1.993778E-3	-1.920969E-3	-5.687348E-4	-8.482582E-3	3.801681E-3	-8.510077E-3	-3.685991E-3	-4.419027E-3	-1.244172E-3	-6.751167E-3	-2.897110E-3	3.627109E-3	-3.943237E-3	-1.172692E-2	-7.404639E-3	-8.068153E-3	-6.031806E-3	-6.858545E-3	-5.380837E-3	-3.904274E-3	1.277762E-2	-1.273913E-2	-6.314156E-3	-1.745768E-4	-3.753990E-3	-1.102428E-2	-1.003264E-2	-6.555831E-3	-7.014768E-3	-3.125311E-3	-6.202551E-3	-3.292355E-3	-4.074562E-3	-6.069738E-3	9.922286E-3	-1.972430E-3	-8.228979E-3	-1.776295E-3	-4.800000E-3	-4.559669E-3	5.814746E-4	-3.920651E-3	-1.016251E-2	2.309509E-3	-1.358482E-2	-9.400656E-3	-1.590917E-2	9.627254E-3	-7.792043E-3	-9.413814E-3
5.315080E+2	3.564145E-3	-6.463845E-3	-5.986942E-4	6.745245E-3	-5.542924E-4	1.011454E-2	7.669631E-3	5.652030E-3	-2.470304E-3	3.304291E-5	-4.563351E-4	-4.854476E-3	-2.796056E-3	-1.130188E-3	-7.442456E-3	2.743780E-3	2.841462E-3	-6.934650E-4	4.889990E-3	-7.730844E-3	2.459274E-3	-4.079606E-3	-1.234659E-3	4.636089E-3	6.982899E-3	2.344725E-3	-2.090341E-3	5.962390E-3	2.046678E-3	3.084936E-3	2.151500E-3	9.570601E-3	-4.584089E-3	-2.134881E-3	6.006798E-5	-3.506485E-3	6.886657E-3	-3.354607E-4	-1.941584E-3	6.976346E-3	3.229258E-3	-1.565040E-3	-6.973609E-3	6.263156E-3	3.057882E-3	9.269978E-3	1.219634E-2	1.615902E-3	2.645764E-3	6.552562E-3	-6.461283E-3	2.226045E-3	2.093395E-3	-3.774884E-3	-3.793408E-3	7.658668E-4	-3.849167E-3	5.202366E-3	-3.212043E-3	7.138275E-3	2.958507E-3	-1.660254E-3	1.798228E-3	1.198774E-2	-1.736449E-3	4.182170E-3	2.037545E-3	7.670414E-5	-9.780193E-4	-2.982456E-4	5.341461E-3	7.150320E-3	-3.335638E-3	-2.559911E-3	-6.828040E-3	-1.927848E-3	-3.299194E-3	1.044331E-3	-5.219483E-3	-2.137826E-3	1.023303E-3	-6.627320E-4	-2.271694E-3	6.829004E-3	9.425145E-4	-8.132973E-4	1.481085E-4	-2.058469E-3	-2.514927E-3	-6.108916E-3	-5.601430E-3	3.724670E-3	1.023253E-2	5.977301E-3	1.001976E-3	-8.772293E-3	2.379296E-3	8.772415E-3	-8.701922E-3	-4.150831E-4	-2.244751E-4	2.164742E-3	7.474909E-3	2.506986E-3	3.903541E-3	-2.046352E-3	6.028412E-3	2.981472E-3	2.741606E-3	1.156031E-4	-2.528900E-3	-1.681128E-3	-1.945028E-3	2.510163E-3	-1.909415E-3	6.884269E-3	-1.840254E-3	1.486114E-2	8.175716E-3	2.388975E-3	1.031756E-3	-6.322860E-3	-6.533364E-3	4.249011E-3	-2.331521E-3	-1.043450E-3	-3.928271E-5	-6.852223E-3	7.627181E-3	-4.851119E-3	-7.837878E-3	-1.627901E-3	8.512893E-4	9.666212E-3	-6.401288E-3	5.445434E-3	3.452379E-3	9.023630E-5	-2.041586E-3	6.112771E-3	-1.121717E-3	5.814399E-3	7.752903E-3	-2.875509E-3	-1.136584E-2	1.935531E-3	2.762011E-3	-3.425605E-4	1.086639E-2	4.051494E-3	2.916160E-3	3.552438E-4	2.043152E-3	7.238895E-3	1.577836E-3	-8.880707E-4	-2.380315E-3	-3.978446E-3	-1.112995E-3	2.876770E-3	1.473911E-3	-9.540256E-3	-3.234851E-3	-5.135852E-4	1.446547E-3	4.337065E-3	1.020389E-2	9.711031E-4	1.448930E-3	1.371268E-2	1.975293E-2
5.320120E+2	9.730032E-3	8.171540E-3	7.763222E-3	1.042176E-2	7.681034E-3	-1.469574E-3	8.374391E-3	2.700225E-3	1.322877E-2	1.656583E-2	3.202971E-3	8.184120E-3	1.000002E-2	2.506039E-3	9.292670E-3	-1.548689E-3	4.105176E-4	-1.047666E-4	3.334429E-3	1.140822E-2	1.158767E-2	6.348568E-3	9.331769E-3	8.351720E-3	4.396893E-3	8.776479E-3	2.327005E-3	3.329292E-3	5.643875E-3	2.156085E-3	3.254507E-3	-1.463612E-3	-3.611492E-4	1.367686E-3	1.082152E-2	1.239940E-2	1.618371E-5	8.926620E-3	-4.373474E-3	1.005981E-2	-1.298782E-3	6.672783E-3	7.347314E-3	-6.794765E-4	1.736511E-2	5.891008E-4	-4.398561E-4	2.200379E-3	6.686547E-3	1.389729E-5	2.938256E-3	1.800098E-3	9.323332E-3	9.192122E-3	4.551438E-3	3.554070E-4	9.882765E-3	2.373887E-3	9.698308E-3	5.077327E-3	7.087282E-3	7.696101E-3	9.123705E-3	4.318923E-6	9.517543E-3	6.364650E-4	-3.726439E-3	3.463478E-3	6.874206E-4	1.127492E-2	3.766254E-3	-9.835024E-4	6.703239E-3	1.116282E-3	1.116061E-2	2.746336E-3	4.949879E-3	4.727896E-3	6.281947E-4	1.434764E-3	9.371227E-3	4.531589E-3	6.866749E-4	5.757660E-3	-2.094913E-3	1.202059E-3	5.347852E-3	1.623043E-3	1.531940E-3	1.150975E-2	9.845047E-3	6.071614E-3	4.560434E-3	3.685810E-4	-6.017879E-3	2.352620E-3	5.148450E-3	1.720105E-3	3.716873E-3	1.267531E-2	1.071897E-2	1.004088E-2	2.683057E-3	2.637888E-3	-1.041639E-3	1.276857E-2	5.709536E-3	1.684963E-2	3.426734E-3	7.719628E-3	9.762879E-3	3.403961E-3	1.486615E-3	5.130152E-4	1.353768E-2	2.050123E-3	4.803069E-3	6.533133E-3	4.562950E-3	8.307477E-3	7.663724E-3	9.830413E-3	7.459876E-3	3.219313E-3	3.299136E-3	-1.392684E-4	9.021758E-3	6.007873E-3	2.908074E-3	7.768638E-3	4.862000E-3	2.576420E-3	-2.890763E-3	3.458230E-3	2.742877E-3	1.879615E-3	8.022272E-3	3.062021E-3	1.772584E-3	-1.739612E-3	1.452776E-2	-4.011336E-3	2.133630E-4	1.433326E-2	1.372017E-2	3.402173E-3	9.804537E-3	1.336536E-2	-1.576333E-3	3.886497E-4	4.354175E-3	1.044168E-2	4.801388E-3	4.130497E-3	6.971870E-3	-1.124047E-2	5.305417E-3	1.120459E-3	9.595805E-3	8.703555E-3	1.023164E-2	8.690318E-3	4.804412E-3	2.430438E-3	2.081190E-3	8.075346E-3	4.597920E-3	7.153388E-3	6.379580E-4	3.631728E-4	1.371046E-2
5.325120E+2	2.288285E-3	1.223379E-2	1.043772E-2	3.404662E-3	8.838782E-3	1.040849E-2	2.668930E-3	5.893878E-3	5.560177E-3	2.373992E-3	5.361542E-3	8.906956E-3	4.266083E-3	9.703316E-3	1.041219E-2	9.901885E-3	7.175647E-3	1.285985E-2	7.927009E-3	1.153887E-2	2.732636E-3	8.287779E-3	1.333010E-2	8.492218E-3	-3.656090E-4	1.155269E-2	1.269815E-2	3.988661E-3	-2.724707E-3	9.574165E-3	1.270078E-2	7.058000E-3	4.407386E-3	2.618613E-3	2.436178E-3	1.035427E-2	6.232668E-3	2.957784E-3	7.965987E-3	1.069650E-2	4.603270E-3	-2.603537E-4	1.076605E-2	1.193562E-2	2.158079E-3	9.034389E-3	3.771005E-3	1.138495E-2	9.064585E-3	8.473764E-3	7.997587E-3	4.102391E-3	6.150294E-3	4.394650E-3	1.129092E-2	8.881757E-3	7.288341E-3	7.444271E-3	1.672192E-3	3.012670E-3	4.199627E-3	7.826441E-3	3.147135E-3	7.431315E-3	1.112643E-2	1.194579E-2	1.090443E-2	1.371307E-2	1.382729E-2	-3.389699E-3	7.262020E-3	1.611755E-2	3.136591E-3	2.276479E-3	4.910592E-3	5.711774E-3	6.138982E-3	1.507656E-2	1.171616E-2	4.019235E-3	1.839780E-2	8.230099E-3	1.490749E-2	1.839218E-2	1.205509E-2	3.222419E-3	1.001726E-2	7.920307E-3	6.671148E-3	1.421836E-2	1.001212E-2	5.658749E-3	1.007322E-2	6.260645E-3	1.052204E-2	1.401360E-2	2.211898E-3	4.998066E-3	2.418977E-2	7.730413E-3	1.651810E-3	9.724945E-3	5.893348E-3	1.278481E-2	4.218955E-3	9.249349E-3	1.071945E-2	9.869334E-4	8.965538E-3	1.108321E-2	4.681261E-3	1.149323E-2	5.485512E-3	8.127300E-3	6.918042E-3	1.110133E-2	5.463663E-3	-6.380157E-3	1.377791E-3	7.403870E-3	1.104762E-2	3.601549E-3	6.394963E-3	5.129409E-3	1.280949E-2	8.235076E-3	5.812839E-3	1.042139E-2	6.315767E-3	1.340024E-2	1.926793E-2	1.724477E-2	7.016571E-3	6.599308E-3	1.046425E-2	-1.398816E-4	1.145894E-2	7.030817E-3	7.215773E-3	1.153293E-2	2.354051E-3	1.766529E-3	8.095612E-3	7.374225E-3	7.870014E-4	9.959432E-3	2.451132E-2	8.445429E-3	1.229090E-2	2.208532E-2	7.204031E-3	1.113536E-2	2.879686E-3	5.326604E-3	1.967788E-3	6.721099E-3	1.033483E-2	1.503823E-2	1.294914E-2	5.550366E-3	4.459363E-3	9.690642E-3	1.897396E-2	4.318036E-3	9.831586E-3	1.007958E-2	9.216923E-3	1.935056E-3	5.519014E-3	4.803335E-3	-8.907809E-3
5.330180E+2	2.309218E-2	1.463551E-2	1.441426E-2	2.737747E-2	1.561223E-2	2.528577E-2	3.028667E-2	3.276917E-2	2.970377E-2	1.952207E-2	2.032663E-2	2.617252E-2	2.843382E-2	2.859722E-2	1.992650E-2	2.486854E-2	2.730564E-2	2.780226E-2	1.983956E-2	1.538138E-2	6.885712E-3	2.736098E-2	1.960953E-2	2.201529E-2	2.747364E-2	9.054885E-3	1.507963E-2	2.502707E-2	2.291200E-2	2.068414E-2	1.435586E-2	1.748863E-2	2.372403E-2	2.547752E-2	2.448331E-2	1.814798E-2	1.481761E-2	2.758908E-2	1.473385E-2	1.873983E-2	2.156586E-2	1.782123E-2	2.354652E-2	2.842279E-2	1.595725E-2	1.282074E-2	2.083183E-2	2.151152E-2	1.819038E-2	2.977745E-2	1.911082E-2	2.441631E-2	2.198900E-2	2.240977E-2	2.080291E-2	1.269551E-2	2.986408E-2	2.887577E-2	1.522186E-2	2.068438E-2	2.798480E-2	1.847318E-2	8.825900E-3	1.585506E-2	1.953386E-2	1.070195E-2	2.606261E-2	1.716344E-2	2.648934E-2	1.782581E-2	1.580236E-2	2.031281E-2	2.599065E-2	1.589398E-2	1.529066E-2	1.605206E-2	1.699979E-2	2.175858E-2	1.750174E-2	2.189444E-2	1.435073E-2	2.984650E-2	1.721279E-2	1.066136E-2	9.512910E-3	2.051081E-2	1.978877E-2	2.922132E-2	2.415824E-2	1.837998E-2	1.507210E-2	1.015089E-2	1.351189E-2	1.947961E-2	1.279983E-2	2.348467E-2	2.581037E-2	2.143943E-2	1.890166E-2	3.057626E-2	1.366793E-2	2.310581E-2	1.665017E-2	1.983505E-2	2.405966E-2	3.001673E-2	2.442735E-2	8.187601E-3	2.764878E-2	2.790820E-2	1.649610E-2	2.513358E-2	2.226804E-2	2.331036E-2	1.841146E-2	1.407810E-2	1.467201E-2	1.171751E-2	2.672126E-2	2.708017E-2	1.717821E-2	2.451314E-2	1.320557E-2	1.651642E-2	9.126726E-3	2.854768E-2	2.560620E-2	1.819796E-2	2.121631E-2	2.238148E-2	2.256784E-2	2.091808E-2	2.140904E-2	2.832390E-2	2.468188E-2	3.214034E-2	2.205110E-2	2.200272E-2	2.513182E-2	2.374018E-2	2.184716E-2	2.459757E-2	1.826167E-2	1.088611E-2	3.002568E-2	2.638985E-2	1.967416E-2	2.850373E-2	1.193977E-2	3.129089E-2	2.476600E-2	1.230688E-2	2.199161E-2	2.231511E-2	1.497758E-2	2.163005E-2	3.383246E-2	2.548615E-2	1.949708E-2	2.330344E-2	1.651426E-2	1.480201E-2	2.434358E-2	1.749400E-2	3.222601E-2	1.816448E-2	2.222672E-2	1.629175E-2	2.061718E-2	2.165063E-2	3.733740E-2
5.331630E+2	3.741042E-2	1.593235E-2	2.544869E-2	2.695482E-2	2.804877E-2	1.858425E-2	3.164457E-2	3.037926E-2	2.412936E-2	2.981684E-2	2.918146E-2	2.279661E-2	3.305363E-2	4.504644E-2	2.257046E-2	3.001589E-2	3.572698E-2	3.374083E-2	2.956915E-2	2.419703E-2	2.264343E-2	3.343606E-2	2.647051E-2	1.393489E-2	2.328821E-2	3.249087E-2	2.125249E-2	3.292133E-2	2.760290E-2	3.081266E-2	2.341614E-2	1.860431E-2	2.909917E-2	2.622419E-2	3.110900E-2	2.050826E-2	2.110306E-2	9.853448E-3	2.213658E-2	3.525446E-2	3.918833E-2	3.707593E-2	3.652129E-2	2.859723E-2	3.268137E-2	3.283249E-2	3.134952E-2	3.261331E-2	2.680649E-2	3.051619E-2	1.928155E-2	1.911740E-2	1.691495E-2	3.106470E-2	2.706693E-2	2.867697E-2	2.785540E-2	2.212402E-2	1.949212E-2	3.130482E-2	2.866943E-2	2.110893E-2	1.678827E-2	2.824534E-2	2.751329E-2	2.255586E-2	1.807351E-2	4.043262E-2	2.876216E-2	2.521915E-2	2.562828E-2	2.668053E-2	2.881637E-2	3.013084E-2	2.181119E-2	3.000704E-2	3.457153E-2	3.159077E-2	1.971176E-2	2.899518E-2	1.629841E-2	3.159057E-2	1.964835E-2	1.981876E-2	3.733135E-2	2.176283E-2	1.888498E-2	3.252443E-2	3.338151E-2	2.011731E-2	2.950729E-2	2.414117E-2	7.702237E-3	3.118211E-2	3.319640E-2	3.282993E-2	2.810741E-2	2.060161E-2	2.790183E-2	3.758974E-2	1.486780E-2	4.341014E-2	4.121395E-2	2.744117E-2	2.789808E-2	3.404478E-2	2.464237E-2	3.321917E-2	3.339334E-2	2.866057E-2	3.887618E-2	3.134532E-2	3.357480E-2	3.265420E-2	3.166283E-2	2.210199E-2	2.040544E-2	2.650955E-2	2.412651E-2	2.961109E-2	2.236237E-2	2.643479E-2	2.690223E-2	1.261529E-2	3.584476E-2	4.430677E-2	3.085372E-2	2.980686E-2	3.400366E-2	3.248963E-2	2.214299E-2	2.752872E-2	3.884607E-2	1.800322E-2	3.544146E-2	4.417241E-2	2.334184E-2	2.438937E-2	2.768766E-2	3.023720E-2	2.902824E-2	3.274581E-2	2.678975E-2	2.063439E-2	3.309000E-2	3.302731E-2	2.678143E-2	2.815771E-2	2.273897E-2	3.301142E-2	3.279633E-2	2.500642E-2	3.538179E-2	4.330926E-2	2.157665E-2	2.604954E-2	3.513814E-2	3.083571E-2	3.833457E-2	2.828553E-2	3.678685E-2	2.178150E-2	2.798439E-2	2.506364E-2	1.724374E-2	2.763000E-2	1.888253E-2	2.324365E-2	2.172288E-2	2.718986E-2	1.656297E-2
5.333080E+2	2.954142E-2	3.704729E-2	3.092330E-2	3.802890E-2	3.756012E-2	2.673949E-2	3.647529E-2	3.120356E-2	3.225130E-2	3.810427E-2	2.759257E-2	2.600626E-2	2.395307E-2	3.259700E-2	3.460144E-2	1.888760E-2	3.602242E-2	2.683848E-2	4.506105E-2	3.002379E-2	3.806605E-2	3.465156E-2	4.065744E-2	3.123304E-2	3.281843E-2	3.915044E-2	2.149267E-2	3.981772E-2	3.238848E-2	3.318514E-2	4.446943E-2	2.402818E-2	3.668104E-2	2.534208E-2	2.980005E-2	3.616323E-2	3.271325E-2	3.420690E-2	4.450858E-2	4.450299E-2	2.778060E-2	3.462671E-2	2.904999E-2	3.926944E-2	2.379145E-2	2.263864E-2	4.041830E-2	3.157283E-2	3.161173E-2	1.957811E-2	3.280160E-2	3.145140E-2	1.764614E-2	3.036497E-2	2.799408E-2	4.167337E-2	4.079496E-2	2.138106E-2	2.926765E-2	3.544950E-2	4.262801E-2	3.380852E-2	3.443668E-2	2.019743E-2	3.515173E-2	3.880906E-2	2.240615E-2	4.528828E-2	3.429251E-2	2.213536E-2	2.370568E-2	3.474744E-2	3.973749E-2	3.146132E-2	3.612864E-2	2.394730E-2	2.560744E-2	4.286148E-2	3.484285E-2	3.822201E-2	3.384905E-2	3.960942E-2	3.639797E-2	2.908699E-2	3.814712E-2	3.196553E-2	2.539327E-2	2.083094E-2	3.424436E-2	2.920087E-2	3.810604E-2	3.120171E-2	2.963173E-2	2.893050E-2	2.611254E-2	3.026701E-2	4.299565E-2	2.501299E-2	3.356260E-2	2.187932E-2	3.213874E-2	4.016696E-2	2.634586E-2	3.725138E-2	1.987960E-2	3.472121E-2	2.920752E-2	2.359834E-2	4.116981E-2	3.162540E-2	2.566599E-2	2.309390E-2	3.161635E-2	3.831786E-2	2.394345E-2	3.132422E-2	2.672084E-2	2.677498E-2	3.862501E-2	2.412462E-2	3.407236E-2	3.368270E-2	2.680405E-2	2.413286E-2	2.389481E-2	2.697134E-2	4.126509E-2	3.390336E-2	2.716113E-2	2.666235E-2	2.549780E-2	3.186845E-2	3.865294E-2	2.934848E-2	3.041040E-2	4.014964E-2	3.737649E-2	3.125952E-2	3.209890E-2	3.509877E-2	2.820082E-2	3.529756E-2	3.764977E-2	2.714091E-2	1.842969E-2	2.687412E-2	4.598242E-2	2.328673E-2	2.991315E-2	4.336105E-2	3.367062E-2	3.532521E-2	3.618563E-2	2.612332E-2	3.415335E-2	3.319510E-2	2.287313E-2	3.059498E-2	3.809317E-2	2.666383E-2	2.892407E-2	2.676786E-2	3.916953E-2	2.759750E-2	3.069233E-2	3.855646E-2	4.371502E-2	3.164863E-2	4.261952E-2	2.214650E-2	3.367134E-2
5.334580E+2	4.277592E-2	3.837993E-2	4.944984E-2	4.768739E-2	5.170816E-2	4.779579E-2	4.870851E-2	4.793823E-2	5.038914E-2	4.858443E-2	3.428481E-2	4.836593E-2	4.835782E-2	5.374908E-2	3.990853E-2	4.099497E-2	5.484885E-2	4.821906E-2	4.680134E-2	3.886843E-2	4.547586E-2	4.770439E-2	5.268376E-2	4.604672E-2	4.679453E-2	4.640380E-2	3.703512E-2	4.580937E-2	4.521483E-2	4.026590E-2	5.041792E-2	7.152889E-2	5.628174E-2	5.365756E-2	4.901586E-2	5.415872E-2	4.339579E-2	4.526709E-2	4.590712E-2	4.186861E-2	6.489139E-2	4.967238E-2	5.128679E-2	5.601609E-2	3.891913E-2	3.439829E-2	4.464450E-2	4.693730E-2	4.092383E-2	3.382785E-2	4.965381E-2	4.546706E-2	5.243648E-2	4.011523E-2	3.655633E-2	3.660492E-2	4.710107E-2	3.755537E-2	3.242292E-2	5.339355E-2	4.083781E-2	4.464341E-2	4.366368E-2	5.192998E-2	4.424453E-2	3.156066E-2	5.726535E-2	5.522527E-2	4.873522E-2	5.370847E-2	3.369817E-2	4.646891E-2	3.677194E-2	4.164518E-2	5.167569E-2	5.490327E-2	5.397888E-2	4.623902E-2	4.945392E-2	4.742251E-2	4.661983E-2	3.571271E-2	3.377187E-2	4.377888E-2	4.362367E-2	4.894240E-2	4.212363E-2	3.981434E-2	4.528360E-2	4.307791E-2	4.687803E-2	6.003677E-2	5.562934E-2	4.981746E-2	5.224924E-2	4.729550E-2	3.164508E-2	4.599969E-2	4.242064E-2	4.888701E-2	4.165089E-2	5.308824E-2	3.150345E-2	5.238595E-2	4.890866E-2	5.088589E-2	4.081284E-2	3.866309E-2	5.118973E-2	5.453736E-2	4.814249E-2	5.290541E-2	4.574961E-2	5.310950E-2	5.094414E-2	4.560051E-2	4.310488E-2	4.950920E-2	3.835563E-2	5.872592E-2	5.236531E-2	5.163469E-2	4.302940E-2	4.398312E-2	4.299788E-2	5.058556E-2	4.768560E-2	4.800759E-2	4.220546E-2	4.015814E-2	5.640484E-2	5.029038E-2	4.531278E-2	4.574905E-2	4.890330E-2	6.305955E-2	4.588295E-2	4.528226E-2	3.825358E-2	3.934206E-2	3.976907E-2	6.291322E-2	4.344329E-2	4.819906E-2	5.251951E-2	4.696403E-2	5.569360E-2	3.741369E-2	3.970478E-2	5.015682E-2	4.536645E-2	5.727531E-2	4.966441E-2	4.609686E-2	4.141501E-2	5.359557E-2	4.384507E-2	3.700645E-2	5.009040E-2	4.238573E-2	3.565726E-2	4.379248E-2	5.321360E-2	3.428996E-2	5.635100E-2	3.573684E-2	4.979669E-2	4.011429E-2	4.658548E-2	6.097025E-2	6.557936E-2
5.336030E+2	5.123132E-2	6.352733E-2	5.137754E-2	4.486448E-2	6.122212E-2	7.187514E-2	7.381138E-2	6.121652E-2	5.589067E-2	6.064120E-2	6.777306E-2	4.798241E-2	5.006438E-2	5.858961E-2	5.684147E-2	6.067895E-2	7.011777E-2	5.810021E-2	6.768241E-2	7.366053E-2	5.828559E-2	5.394927E-2	5.582585E-2	5.035011E-2	4.652901E-2	5.466987E-2	4.719999E-2	5.556270E-2	6.465288E-2	7.642391E-2	5.607430E-2	6.190659E-2	8.066137E-2	5.850698E-2	6.256395E-2	6.579453E-2	6.030981E-2	6.207331E-2	5.750266E-2	5.694964E-2	6.870426E-2	5.437720E-2	4.938853E-2	5.909809E-2	4.891486E-2	4.515534E-2	7.179174E-2	5.959758E-2	5.537650E-2	6.109522E-2	5.670171E-2	5.941483E-2	6.047154E-2	5.802135E-2	4.917893E-2	8.658877E-2	5.793634E-2	6.342768E-2	5.960309E-2	5.047688E-2	6.295740E-2	6.994220E-2	5.031799E-2	6.458342E-2	6.420892E-2	6.862501E-2	6.406566E-2	7.524739E-2	6.172228E-2	7.537779E-2	5.745794E-2	5.402696E-2	5.845784E-2	4.617085E-2	3.393845E-2	5.027043E-2	5.425768E-2	6.204985E-2	6.156439E-2	7.122164E-2	5.890293E-2	6.704023E-2	5.510167E-2	6.345731E-2	7.814515E-2	5.115584E-2	5.666199E-2	5.889861E-2	6.036645E-2	5.691582E-2	6.211009E-2	5.865173E-2	3.744528E-2	5.911929E-2	6.448888E-2	6.365546E-2	6.234623E-2	4.787841E-2	5.826722E-2	4.628985E-2	4.345756E-2	5.829614E-2	5.992250E-2	5.640958E-2	5.854693E-2	6.608043E-2	6.287870E-2	5.872134E-2	5.530834E-2	6.293149E-2	5.721554E-2	5.671778E-2	7.229295E-2	6.691496E-2	6.263904E-2	6.619107E-2	5.300785E-2	6.501983E-2	6.124286E-2	7.033874E-2	5.595562E-2	7.887372E-2	6.711207E-2	4.901858E-2	4.491000E-2	6.285700E-2	6.209809E-2	5.932224E-2	6.560431E-2	5.261004E-2	5.790914E-2	7.176541E-2	6.692441E-2	4.855801E-2	4.914740E-2	6.660617E-2	5.113003E-2	6.994142E-2	6.061305E-2	6.392268E-2	7.586739E-2	6.665263E-2	5.041857E-2	5.669304E-2	6.083794E-2	6.072350E-2	4.706277E-2	6.298122E-2	6.350246E-2	5.904236E-2	5.593228E-2	6.061223E-2	5.046073E-2	5.997695E-2	7.001439E-2	6.293804E-2	6.328983E-2	5.334710E-2	6.753377E-2	5.667258E-2	5.955057E-2	6.143178E-2	5.346723E-2	6.329106E-2	4.234027E-2	6.353348E-2	6.004776E-2	6.436030E-2	5.909465E-2	6.131031E-2	5.529779E-2
5.337580E+2	8.307430E-2	7.743239E-2	9.281007E-2	8.753338E-2	7.182052E-2	9.905880E-2	9.487196E-2	8.712179E-2	8.416596E-2	8.354135E-2	7.899881E-2	8.769252E-2	9.004302E-2	8.450251E-2	9.357691E-2	9.046375E-2	8.234201E-2	9.463254E-2	6.699125E-2	9.285129E-2	7.388757E-2	6.938587E-2	7.736646E-2	8.112581E-2	8.820802E-2	7.525801E-2	8.418365E-2	7.870758E-2	8.619414E-2	8.305183E-2	8.170325E-2	7.643488E-2	9.251641E-2	9.678364E-2	8.541826E-2	8.498380E-2	7.726983E-2	6.025314E-2	9.012300E-2	7.176883E-2	8.423886E-2	8.496030E-2	8.103004E-2	7.978527E-2	8.146271E-2	9.608657E-2	7.932686E-2	8.288314E-2	8.526878E-2	7.998293E-2	8.139677E-2	8.578005E-2	9.117241E-2	8.398799E-2	7.446809E-2	8.741346E-2	8.038255E-2	9.032151E-2	7.639559E-2	8.300594E-2	7.750749E-2	8.777696E-2	7.741101E-2	8.020564E-2	9.954334E-2	8.075803E-2	8.205668E-2	8.999335E-2	9.959547E-2	8.703834E-2	7.182223E-2	9.028881E-2	6.893076E-2	1.044897E-1	7.733602E-2	8.625209E-2	9.123904E-2	8.198776E-2	7.697539E-2	9.113066E-2	8.196605E-2	8.341300E-2	9.152416E-2	8.408891E-2	8.584714E-2	8.478538E-2	7.782881E-2	8.535371E-2	7.032008E-2	7.603290E-2	8.086558E-2	8.218403E-2	8.126225E-2	8.660390E-2	7.894944E-2	7.825336E-2	8.695610E-2	7.887954E-2	8.583298E-2	1.028784E-1	8.701296E-2	8.093425E-2	8.132603E-2	8.706010E-2	8.075207E-2	9.483207E-2	6.079751E-2	8.068079E-2	8.865078E-2	8.499588E-2	8.689121E-2	8.737574E-2	7.767834E-2	7.866434E-2	8.612795E-2	9.320232E-2	7.011031E-2	8.900768E-2	9.764311E-2	9.237703E-2	9.704922E-2	8.405997E-2	8.659217E-2	7.508371E-2	6.250546E-2	8.619152E-2	9.047761E-2	8.276985E-2	8.527905E-2	6.905461E-2	8.275874E-2	9.160306E-2	1.175609E-1	9.004829E-2	7.192376E-2	9.297667E-2	8.082850E-2	6.744788E-2	9.085565E-2	7.234009E-2	7.619913E-2	6.926693E-2	9.460388E-2	9.144609E-2	8.597978E-2	8.926693E-2	1.014155E-1	8.407004E-2	8.741492E-2	8.115301E-2	1.066655E-1	7.968129E-2	8.863008E-2	9.493969E-2	8.334207E-2	9.262246E-2	7.348326E-2	9.113275E-2	8.507797E-2	8.405305E-2	8.312766E-2	8.865008E-2	9.369361E-2	8.776579E-2	8.564021E-2	8.347854E-2	9.395818E-2	8.662699E-2	1.066637E-1	9.185935E-2	8.532302E-2
5.339090E+2	1.492405E-1	1.192907E-1	1.137823E-1	1.334072E-1	1.357918E-1	1.228583E-1	1.352825E-1	1.367612E-1	1.125534E-1	1.481726E-1	1.212087E-1	1.221688E-1	1.267156E-1	1.228710E-1	1.383865E-1	1.218832E-1	1.362736E-1	1.226084E-1	1.220431E-1	1.302723E-1	1.327938E-1	1.234154E-1	1.291747E-1	1.422936E-1	1.233301E-1	1.292165E-1	1.218199E-1	1.266148E-1	1.256265E-1	1.406821E-1	1.275021E-1	1.305423E-1	1.365834E-1	1.334682E-1	1.279572E-1	1.232041E-1	1.205773E-1	1.346948E-1	1.252379E-1	1.239371E-1	1.287308E-1	1.305781E-1	1.171412E-1	1.343498E-1	1.418855E-1	1.334817E-1	1.449531E-1	1.491792E-1	1.364112E-1	1.374454E-1	1.301994E-1	1.350899E-1	1.278175E-1	1.196615E-1	1.239888E-1	1.350242E-1	1.251607E-1	1.465486E-1	1.258454E-1	1.273704E-1	1.222893E-1	1.352053E-1	1.113284E-1	1.271475E-1	1.256134E-1	1.318238E-1	1.193939E-1	1.551599E-1	1.317562E-1	1.381314E-1	1.280554E-1	1.343985E-1	1.111330E-1	1.381357E-1	1.088863E-1	1.327136E-1	1.223688E-1	1.427689E-1	1.259801E-1	1.276378E-1	1.328728E-1	1.289936E-1	1.335165E-1	1.198037E-1	1.258472E-1	1.474759E-1	1.143900E-1	1.348186E-1	1.146296E-1	1.250970E-1	1.319501E-1	1.302009E-1	1.219153E-1	1.416314E-1	1.303311E-1	1.204313E-1	1.174938E-1	1.360086E-1	1.400808E-1	1.407775E-1	1.407287E-1	1.346580E-1	1.246822E-1	1.339446E-1	1.331543E-1	1.237967E-1	1.382671E-1	1.310642E-1	1.226780E-1	1.399065E-1	1.289358E-1	1.156605E-1	1.438573E-1	1.324090E-1	1.171775E-1	1.316095E-1	1.281654E-1	1.176563E-1	1.384753E-1	1.500721E-1	1.207545E-1	1.301223E-1	1.377574E-1	1.268576E-1	1.357453E-1	1.333194E-1	1.403096E-1	1.242863E-1	1.433139E-1	1.431948E-1	1.448920E-1	1.272058E-1	1.525310E-1	1.302833E-1	1.490341E-1	1.450820E-1	1.235497E-1	1.280231E-1	1.410825E-1	1.479914E-1	1.284071E-1	1.496169E-1	1.338566E-1	1.322472E-1	1.367480E-1	1.356766E-1	1.375382E-1	1.169751E-1	1.212488E-1	1.350652E-1	1.152601E-1	1.516787E-1	1.442382E-1	1.319425E-1	1.412648E-1	1.314160E-1	1.195543E-1	1.233930E-1	1.304527E-1	1.315918E-1	1.121785E-1	1.261667E-1	1.375135E-1	1.406945E-1	1.471385E-1	1.388143E-1	1.439953E-1	1.372545E-1	1.307317E-1	1.268744E-1	1.111966E-1
5.340430E+2	1.737127E-1	1.733471E-1	1.900267E-1	1.971845E-1	1.756809E-1	1.683171E-1	1.967995E-1	1.877275E-1	2.171162E-1	2.033947E-1	1.661863E-1	1.971083E-1	1.840921E-1	1.980892E-1	1.908872E-1	2.037646E-1	1.956968E-1	1.867442E-1	1.852455E-1	1.988128E-1	1.946220E-1	1.805244E-1	1.912715E-1	1.961434E-1	1.864125E-1	1.878040E-1	1.991690E-1	1.787344E-1	1.877132E-1	1.773584E-1	1.804458E-1	1.701487E-1	1.957219E-1	2.033613E-1	1.838791E-1	1.941235E-1	1.713609E-1	1.836007E-1	1.742837E-1	1.800145E-1	2.001371E-1	1.742814E-1	2.106662E-1	2.103503E-1	1.696059E-1	1.620761E-1	1.771651E-1	1.853720E-1	1.861611E-1	1.924228E-1	2.131320E-1	1.992627E-1	2.099508E-1	1.738687E-1	1.995578E-1	1.819134E-1	1.931329E-1	1.809545E-1	2.100054E-1	1.916235E-1	1.807261E-1	1.797896E-1	1.820406E-1	1.808939E-1	2.100190E-1	1.885302E-1	1.766790E-1	1.747349E-1	1.977577E-1	2.002279E-1	1.855850E-1	1.762442E-1	1.887159E-1	1.895739E-1	1.826968E-1	1.643774E-1	1.857075E-1	1.838644E-1	1.723180E-1	1.815194E-1	1.865544E-1	1.770048E-1	1.958872E-1	1.960672E-1	1.985509E-1	1.890263E-1	1.880417E-1	1.829411E-1	2.113929E-1	1.946340E-1	1.810278E-1	1.678190E-1	1.819130E-1	1.997669E-1	1.783521E-1	1.811494E-1	1.793037E-1	1.706416E-1	1.944545E-1	1.975508E-1	2.022916E-1	2.047008E-1	1.859238E-1	1.659322E-1	1.777972E-1	1.914058E-1	1.968805E-1	1.976976E-1	2.087978E-1	1.759086E-1	1.853970E-1	2.019374E-1	1.883128E-1	1.858053E-1	1.811332E-1	1.874107E-1	1.802770E-1	1.859796E-1	2.017691E-1	2.029752E-1	2.081582E-1	1.947762E-1	2.089990E-1	1.688858E-1	1.851305E-1	1.811322E-1	2.053297E-1	1.906374E-1	1.960383E-1	1.946710E-1	2.044713E-1	1.830538E-1	1.816121E-1	1.952430E-1	2.165363E-1	2.065136E-1	2.111213E-1	2.006028E-1	1.964691E-1	1.911906E-1	2.016765E-1	2.020375E-1	1.915967E-1	1.892877E-1	1.912198E-1	1.899378E-1	1.918942E-1	1.681682E-1	2.130163E-1	1.918430E-1	1.757885E-1	1.955859E-1	2.006995E-1	1.742889E-1	1.921887E-1	1.849703E-1	1.863063E-1	1.898741E-1	2.139810E-1	2.008285E-1	1.811931E-1	1.904653E-1	1.745476E-1	1.916677E-1	1.948431E-1	2.015244E-1	1.925646E-1	1.819895E-1	1.789996E-1	2.080603E-1	2.254441E-1
5.342040E+2	3.060987E-1	3.150833E-1	3.315821E-1	3.527181E-1	3.057150E-1	3.206848E-1	3.379950E-1	3.255429E-1	3.423139E-1	3.294100E-1	3.095579E-1	3.136077E-1	3.277385E-1	3.365996E-1	2.961874E-1	3.026031E-1	3.431854E-1	3.212075E-1	3.179160E-1	3.200905E-1	3.020853E-1	3.010808E-1	3.457175E-1	3.340306E-1	3.447313E-1	3.495650E-1	3.327980E-1	3.477292E-1	3.250217E-1	3.228973E-1	3.200309E-1	3.290525E-1	3.142990E-1	3.029976E-1	3.293162E-1	3.425716E-1	3.543620E-1	3.446820E-1	3.382485E-1	3.314329E-1	3.238421E-1	3.214247E-1	3.312238E-1	3.266249E-1	3.077061E-1	3.364368E-1	3.281982E-1	3.092484E-1	3.163501E-1	3.476316E-1	3.250388E-1	3.329744E-1	3.156650E-1	3.373779E-1	3.287797E-1	3.407055E-1	3.210536E-1	3.049612E-1	3.219650E-1	2.991857E-1	3.400438E-1	3.469297E-1	3.397176E-1	3.320053E-1	3.344746E-1	3.187941E-1	3.351510E-1	3.240422E-1	3.348104E-1	3.329570E-1	3.074983E-1	3.241361E-1	3.285957E-1	3.420103E-1	3.530927E-1	3.281096E-1	3.442894E-1	3.170872E-1	3.170766E-1	3.315377E-1	3.249899E-1	3.391848E-1	3.485058E-1	3.461391E-1	3.215157E-1	3.455038E-1	3.353991E-1	3.517109E-1	3.297403E-1	3.191539E-1	3.246603E-1	3.403916E-1	3.483531E-1	3.474693E-1	3.225426E-1	3.234514E-1	3.288259E-1	3.172589E-1	3.142842E-1	3.163667E-1	3.206237E-1	3.320425E-1	3.395260E-1	2.902681E-1	3.177711E-1	3.212908E-1	3.448569E-1	3.352872E-1	3.245437E-1	3.178669E-1	3.153206E-1	3.319844E-1	3.222996E-1	3.352718E-1	3.428830E-1	3.299225E-1	3.490646E-1	3.222733E-1	3.425284E-1	3.535677E-1	3.180434E-1	3.398515E-1	3.248187E-1	3.078657E-1	3.367394E-1	3.198971E-1	3.336726E-1	3.258397E-1	3.442437E-1	3.137798E-1	2.927552E-1	3.315741E-1	3.389040E-1	3.338764E-1	3.484217E-1	3.548526E-1	3.219998E-1	3.216575E-1	3.316989E-1	3.206715E-1	3.411071E-1	3.278650E-1	3.429337E-1	3.238433E-1	3.233325E-1	3.362888E-1	3.418319E-1	3.057325E-1	3.749286E-1	3.527234E-1	3.364635E-1	3.322350E-1	3.305509E-1	3.204998E-1	3.054467E-1	3.308187E-1	3.247530E-1	3.237690E-1	3.142487E-1	3.405384E-1	3.313790E-1	3.332807E-1	3.685490E-1	3.500666E-1	3.313694E-1	3.442753E-1	3.630767E-1	3.487630E-1	3.597036E-1	3.122024E-1	4.108832E-1
5.343600E+2	5.898392E-1	6.050180E-1	6.246184E-1	5.954127E-1	5.825064E-1	6.066318E-1	6.099983E-1	5.890095E-1	5.978911E-1	6.210923E-1	6.316262E-1	6.174450E-1	6.171672E-1	6.349944E-1	6.111665E-1	6.577463E-1	6.362428E-1	6.475265E-1	6.311876E-1	5.910602E-1	6.365923E-1	6.065834E-1	6.048011E-1	6.071292E-1	5.751146E-1	5.970382E-1	6.056639E-1	5.604996E-1	6.212662E-1	6.104119E-1	6.067803E-1	6.157373E-1	6.363872E-1	5.950108E-1	5.986193E-1	6.171545E-1	5.890175E-1	5.944520E-1	5.864769E-1	6.172908E-1	6.079683E-1	6.168384E-1	6.000583E-1	6.318807E-1	6.037003E-1	6.098096E-1	6.168486E-1	6.011530E-1	6.186232E-1	5.942726E-1	5.908337E-1	6.055149E-1	6.040828E-1	6.427455E-1	6.318747E-1	6.272309E-1	6.076801E-1	6.215029E-1	6.055183E-1	5.923759E-1	6.146234E-1	6.679962E-1	6.563136E-1	6.159657E-1	6.212066E-1	6.367751E-1	5.749492E-1	6.643743E-1	5.944897E-1	6.059924E-1	5.996642E-1	6.302222E-1	6.057460E-1	6.166958E-1	6.060936E-1	6.311936E-1	6.290141E-1	5.823920E-1	6.135143E-1	6.250483E-1	5.721614E-1	6.039113E-1	6.329666E-1	6.050508E-1	6.110891E-1	6.060744E-1	6.435401E-1	6.490481E-1	6.456863E-1	6.070658E-1	6.190853E-1	6.223214E-1	6.373220E-1	6.028240E-1	6.320844E-1	6.438233E-1	6.182102E-1	6.017117E-1	6.078646E-1	6.169063E-1	6.258078E-1	6.395541E-1	6.262687E-1	6.077348E-1	6.278621E-1	6.048219E-1	6.106878E-1	6.291128E-1	6.154687E-1	6.073621E-1	6.249728E-1	6.472510E-1	6.356989E-1	6.437084E-1	5.812994E-1	6.316731E-1	6.284398E-1	5.755087E-1	6.558811E-1	6.269039E-1	6.272641E-1	6.011828E-1	6.205804E-1	6.234044E-1	6.525662E-1	6.266194E-1	5.925589E-1	6.158688E-1	5.843522E-1	6.273874E-1	6.108260E-1	5.862428E-1	6.099923E-1	5.798348E-1	6.181874E-1	6.235672E-1	6.220576E-1	5.844114E-1	6.150000E-1	6.048038E-1	6.051879E-1	6.350449E-1	5.998969E-1	6.411123E-1	5.886803E-1	6.088346E-1	6.315123E-1	5.832394E-1	6.295003E-1	6.054633E-1	6.088078E-1	6.490054E-1	6.280262E-1	6.089331E-1	6.267954E-1	5.944739E-1	6.227842E-1	5.915836E-1	6.065337E-1	6.396669E-1	6.074266E-1	6.329208E-1	6.109465E-1	6.136489E-1	5.972552E-1	6.376674E-1	6.200493E-1	6.683998E-1	5.900896E-1	5.972545E-1	6.328648E-1
5.345160E+2	1.008355E+0	1.049186E+0	1.016262E+0	1.041027E+0	1.023892E+0	9.727167E-1	9.970158E-1	1.000686E+0	1.043737E+0	9.617161E-1	1.015820E+0	1.069208E+0	9.834509E-1	1.020565E+0	9.975936E-1	1.065304E+0	1.026379E+0	1.007929E+0	9.792512E-1	1.025488E+0	1.037738E+0	1.002779E+0	1.049187E+0	9.837394E-1	1.001958E+0	1.018645E+0	1.027098E+0	1.011264E+0	9.876302E-1	1.009264E+0	1.004212E+0	1.012113E+0	9.814240E-1	1.013274E+0	9.937979E-1	1.018312E+0	9.891159E-1	9.865508E-1	9.908518E-1	1.028296E+0	1.003434E+0	1.017494E+0	9.803503E-1	1.006163E+0	9.962152E-1	9.995510E-1	9.751230E-1	9.809656E-1	1.026259E+0	9.937333E-1	9.916757E-1	9.998459E-1	9.538361E-1	1.015608E+0	1.007124E+0	1.008604E+0	9.894596E-1	1.032274E+0	1.035816E+0	1.029199E+0	9.774461E-1	1.032504E+0	1.008492E+0	1.011939E+0	9.500336E-1	1.007891E+0	9.913438E-1	1.001279E+0	1.029892E+0	9.958639E-1	9.655415E-1	1.003343E+0	9.624802E-1	9.716487E-1	1.032142E+0	1.020893E+0	9.683644E-1	9.969449E-1	1.044689E+0	1.037067E+0	1.024531E+0	1.019150E+0	9.739412E-1	9.964415E-1	1.012818E+0	1.007071E+0	1.055525E+0	9.825990E-1	1.024976E+0	9.728691E-1	1.037308E+0	9.806285E-1	9.727955E-1	1.019144E+0	9.703584E-1	9.645138E-1	1.027630E+0	9.992368E-1	9.998054E-1	1.025654E+0	9.954440E-1	1.005496E+0	1.015823E+0	1.046066E+0	1.013209E+0	9.813135E-1	1.043258E+0	9.862416E-1	1.043004E+0	9.982030E-1	1.012155E+0	9.832277E-1	1.043384E+0	9.703247E-1	9.890525E-1	9.609236E-1	1.031611E+0	9.746547E-1	1.016193E+0	9.936345E-1	9.922053E-1	9.347175E-1	9.784550E-1	1.005503E+0	9.802778E-1	1.003929E+0	1.024238E+0	1.010641E+0	9.769661E-1	9.805046E-1	9.870850E-1	1.025192E+0	9.851744E-1	9.587352E-1	9.812882E-1	1.020195E+0	9.963157E-1	1.005076E+0	1.005753E+0	1.024750E+0	9.925950E-1	9.695008E-1	1.023401E+0	9.626206E-1	9.630980E-1	9.673847E-1	9.967737E-1	1.011181E+0	9.866612E-1	9.630790E-1	1.001285E+0	1.047802E+0	1.008224E+0	1.015859E+0	1.023160E+0	9.849337E-1	1.018072E+0	1.031836E+0	1.010175E+0	1.006278E+0	9.913839E-1	9.882709E-1	9.949356E-1	1.019565E+0	1.011147E+0	1.055355E+0	1.030098E+0	1.032375E+0	9.642386E-1	1.024039E+0	1.134574E+0
5.346620E+2	1.452406E+0	1.391544E+0	1.422182E+0	1.388290E+0	1.402709E+0	1.406405E+0	1.416311E+0	1.451619E+0	1.361974E+0	1.391200E+0	1.451893E+0	1.468584E+0	1.455882E+0	1.455708E+0	1.414129E+0	1.467754E+0	1.416127E+0	1.440464E+0	1.426429E+0	1.395015E+0	1.448793E+0	1.403972E+0	1.350013E+0	1.415791E+0	1.363059E+0	1.463487E+0	1.429477E+0	1.397310E+0	1.364984E+0	1.423398E+0	1.422629E+0	1.398902E+0	1.414957E+0	1.408462E+0	1.410525E+0	1.384872E+0	1.452713E+0	1.441589E+0	1.453722E+0	1.407037E+0	1.412664E+0	1.436418E+0	1.399596E+0	1.432585E+0	1.450260E+0	1.441661E+0	1.352150E+0	1.437984E+0	1.383880E+0	1.426417E+0	1.415109E+0	1.379258E+0	1.378500E+0	1.446091E+0	1.428077E+0	1.410291E+0	1.424023E+0	1.416849E+0	1.402308E+0	1.367653E+0	1.433420E+0	1.417915E+0	1.388625E+0	1.420194E+0	1.411373E+0	1.417435E+0	1.379626E+0	1.492442E+0	1.415694E+0	1.403035E+0	1.425881E+0	1.424486E+0	1.383348E+0	1.395612E+0	1.357575E+0	1.450473E+0	1.418806E+0	1.375017E+0	1.455871E+0	1.414672E+0	1.422881E+0	1.351578E+0	1.403048E+0	1.400742E+0	1.396867E+0	1.440684E+0	1.369464E+0	1.360948E+0	1.439105E+0	1.400719E+0	1.424493E+0	1.426042E+0	1.388778E+0	1.389575E+0	1.380110E+0	1.412896E+0	1.374245E+0	1.371034E+0	1.423862E+0	1.392290E+0	1.377469E+0	1.424841E+0	1.390058E+0	1.399342E+0	1.386218E+0	1.421825E+0	1.434616E+0	1.452504E+0	1.388222E+0	1.424008E+0	1.391073E+0	1.380280E+0	1.461955E+0	1.403661E+0	1.328517E+0	1.334164E+0	1.386102E+0	1.353721E+0	1.426446E+0	1.456007E+0	1.401253E+0	1.342367E+0	1.402148E+0	1.377891E+0	1.423845E+0	1.416589E+0	1.386542E+0	1.416260E+0	1.366545E+0	1.379862E+0	1.400305E+0	1.389737E+0	1.410545E+0	1.382577E+0	1.423429E+0	1.417735E+0	1.339644E+0	1.389630E+0	1.404780E+0	1.395310E+0	1.422824E+0	1.389316E+0	1.401600E+0	1.380292E+0	1.430035E+0	1.416485E+0	1.388051E+0	1.338789E+0	1.435421E+0	1.371187E+0	1.431823E+0	1.398705E+0	1.370088E+0	1.425557E+0	1.403354E+0	1.416477E+0	1.393082E+0	1.383724E+0	1.374261E+0	1.406774E+0	1.389575E+0	1.415270E+0	1.375957E+0	1.429225E+0	1.397081E+0	1.453318E+0	1.400554E+0	1.459316E+0	1.384772E+0	1.396057E+0	1.401149E+0
5.348120E+2	1.801099E+0	1.813612E+0	1.836200E+0	1.809808E+0	1.860288E+0	1.767886E+0	1.840308E+0	1.765014E+0	1.815674E+0	1.782835E+0	1.803124E+0	1.837590E+0	1.808594E+0	1.829144E+0	1.809732E+0	1.833151E+0	1.859800E+0	1.878516E+0	1.781913E+0	1.809362E+0	1.879195E+0	1.854828E+0	1.816058E+0	1.842021E+0	1.843171E+0	1.827916E+0	1.874105E+0	1.812513E+0	1.839610E+0	1.782726E+0	1.830405E+0	1.783542E+0	1.797070E+0	1.800845E+0	1.839604E+0	1.813726E+0	1.844625E+0	1.826121E+0	1.782079E+0	1.778160E+0	1.831534E+0	1.866038E+0	1.831618E+0	1.797398E+0	1.756670E+0	1.868048E+0	1.808715E+0	1.818062E+0	1.850717E+0	1.826869E+0	1.826521E+0	1.811739E+0	1.797513E+0	1.797568E+0	1.828179E+0	1.818950E+0	1.848959E+0	1.813179E+0	1.855758E+0	1.825577E+0	1.868479E+0	1.842923E+0	1.783344E+0	1.804627E+0	1.754219E+0	1.835983E+0	1.798318E+0	1.865878E+0	1.784371E+0	1.784701E+0	1.828619E+0	1.825642E+0	1.811567E+0	1.785087E+0	1.795801E+0	1.908083E+0	1.826148E+0	1.803499E+0	1.823101E+0	1.776395E+0	1.817196E+0	1.813111E+0	1.797164E+0	1.812726E+0	1.789149E+0	1.841372E+0	1.815276E+0	1.782111E+0	1.815094E+0	1.767654E+0	1.843090E+0	1.914175E+0	1.779715E+0	1.825200E+0	1.770547E+0	1.826958E+0	1.807520E+0	1.755631E+0	1.803064E+0	1.791592E+0	1.791266E+0	1.862297E+0	1.751190E+0	1.835876E+0	1.837387E+0	1.826279E+0	1.832509E+0	1.741788E+0	1.802385E+0	1.840488E+0	1.822143E+0	1.781768E+0	1.767151E+0	1.848293E+0	1.820703E+0	1.791538E+0	1.787674E+0	1.780485E+0	1.825652E+0	1.832113E+0	1.699325E+0	1.767075E+0	1.731317E+0	1.782334E+0	1.744042E+0	1.788967E+0	1.799768E+0	1.758404E+0	1.796523E+0	1.727383E+0	1.727695E+0	1.780911E+0	1.815306E+0	1.808191E+0	1.819406E+0	1.794180E+0	1.771632E+0	1.746882E+0	1.828949E+0	1.716002E+0	1.748156E+0	1.799893E+0	1.771914E+0	1.799024E+0	1.764968E+0	1.755895E+0	1.892232E+0	1.770060E+0	1.760355E+0	1.727139E+0	1.763194E+0	1.716498E+0	1.743711E+0	1.781916E+0	1.780136E+0	1.761289E+0	1.824887E+0	1.737878E+0	1.791855E+0	1.820011E+0	1.784772E+0	1.817732E+0	1.811024E+0	1.835327E+0	1.712058E+0	1.850228E+0	1.790817E+0	1.829883E+0	1.805537E+0	1.752448E+0	1.887643E+0
5.349530E+2	2.071221E+0	2.109417E+0	2.062998E+0	2.056203E+0	2.038163E+0	2.062809E+0	2.127208E+0	2.067426E+0	2.064838E+0	2.114797E+0	2.027187E+0	2.050061E+0	2.111892E+0	2.108284E+0	2.042040E+0	2.120855E+0	2.079893E+0	2.030352E+0	2.085086E+0	2.088777E+0	2.138492E+0	2.088600E+0	2.012889E+0	2.008177E+0	2.040611E+0	2.116825E+0	2.101613E+0	2.076001E+0	2.040740E+0	2.096297E+0	2.047212E+0	2.050623E+0	2.060504E+0	2.103900E+0	2.060182E+0	2.052394E+0	2.034383E+0	2.111609E+0	2.162344E+0	2.058224E+0	2.083936E+0	2.057933E+0	2.154115E+0	2.049850E+0	2.055028E+0	2.088626E+0	2.046934E+0	2.021780E+0	2.087148E+0	2.005757E+0	2.040807E+0	2.017232E+0	2.001051E+0	2.100006E+0	2.074514E+0	2.088673E+0	2.076956E+0	2.038974E+0	2.027168E+0	1.987601E+0	2.041085E+0	2.069050E+0	2.072726E+0	1.991829E+0	1.966454E+0	1.971658E+0	2.021238E+0	1.994729E+0	2.007251E+0	2.084663E+0	2.051673E+0	1.995962E+0	2.078384E+0	1.995179E+0	1.986604E+0	2.068089E+0	2.019913E+0	2.009405E+0	2.075149E+0	1.949549E+0	2.027293E+0	2.039343E+0	2.011106E+0	2.056734E+0	2.056684E+0	2.051927E+0	1.941229E+0	1.988037E+0	1.997505E+0	1.995926E+0	2.024345E+0	2.063284E+0	1.986161E+0	2.083635E+0	2.047282E+0	2.021582E+0	2.003934E+0	2.051421E+0	2.039876E+0	1.956379E+0	1.966620E+0	2.036405E+0	1.928342E+0	2.033612E+0	2.004187E+0	1.981762E+0	1.994263E+0	1.938904E+0	2.039791E+0	2.066580E+0	2.038549E+0	1.991091E+0	1.989728E+0	2.040054E+0	1.964130E+0	1.936977E+0	1.976887E+0	1.993500E+0	1.981201E+0	2.075638E+0	2.063933E+0	1.984027E+0	1.967530E+0	2.023657E+0	1.994024E+0	1.971075E+0	1.981417E+0	1.994163E+0	2.039161E+0	1.998739E+0	1.988570E+0	2.022599E+0	2.019193E+0	1.977904E+0	2.034057E+0	2.019000E+0	2.074903E+0	1.963495E+0	2.051952E+0	1.960686E+0	2.010784E+0	1.985627E+0	1.949645E+0	1.949797E+0	1.943884E+0	2.040433E+0	1.962451E+0	1.976131E+0	2.015837E+0	1.932527E+0	2.034277E+0	2.004573E+0	1.990429E+0	2.005918E+0	2.003557E+0	1.993242E+0	1.940529E+0	1.956457E+0	1.977476E+0	2.041587E+0	1.977279E+0	2.001210E+0	1.964958E+0	2.017979E+0	1.995860E+0	2.022860E+0	2.017139E+0	2.006590E+0	1.889384E+0	1.944307E+0	1.933016E+0
5.351140E+2	2.065327E+0	2.061694E+0	2.048477E+0	2.025067E+0	2.058595E+0	2.071494E+0	2.071146E+0	2.083466E+0	2.030063E+0	2.050806E+0	2.022807E+0	2.030205E+0	2.078752E+0	2.072425E+0	2.015941E+0	2.084175E+0	2.094654E+0	2.028141E+0	2.033296E+0	2.043845E+0	2.047634E+0	1.983610E+0	2.095327E+0	2.047540E+0	2.043974E+0	2.090186E+0	2.084239E+0	2.075878E+0	2.040385E+0	2.033112E+0	1.989176E+0	2.022486E+0	2.029736E+0	2.081334E+0	2.098966E+0	2.040617E+0	2.085826E+0	2.013497E+0	2.061869E+0	2.009846E+0	2.070315E+0	2.006589E+0	2.034965E+0	1.980173E+0	2.003279E+0	2.036243E+0	2.056871E+0	2.024637E+0	2.043853E+0	2.051729E+0	2.020276E+0	1.995361E+0	2.015471E+0	2.016234E+0	2.027962E+0	2.066246E+0	2.007957E+0	1.999663E+0	2.050814E+0	2.039725E+0	2.046691E+0	2.071800E+0	2.074549E+0	2.040003E+0	2.031405E+0	2.018564E+0	2.057766E+0	2.034599E+0	2.025959E+0	2.010043E+0	2.045383E+0	2.061104E+0	2.003920E+0	2.064308E+0	2.037535E+0	2.076060E+0	1.986763E+0	2.001761E+0	2.068740E+0	2.069206E+0	2.054846E+0	2.004745E+0	1.999175E+0	2.048709E+0	1.978546E+0	2.062340E+0	2.029573E+0	1.976267E+0	1.976011E+0	2.028624E+0	2.030977E+0	2.012219E+0	1.950692E+0	2.071544E+0	2.004523E+0	1.999107E+0	1.978445E+0	1.973788E+0	2.007876E+0	1.903287E+0	1.987365E+0	1.994758E+0	1.952797E+0	1.967120E+0	1.989306E+0	1.967833E+0	2.060215E+0	1.963236E+0	2.022860E+0	2.032900E+0	2.003134E+0	2.005790E+0	1.980788E+0	2.020101E+0	1.967068E+0	1.938422E+0	2.024561E+0	2.010594E+0	1.967956E+0	1.979083E+0	1.871793E+0	1.999659E+0	1.987900E+0	1.999161E+0	1.965358E+0	1.960427E+0	2.015955E+0	1.980580E+0	2.009978E+0	1.992616E+0	1.965134E+0	1.986232E+0	2.021273E+0	1.959105E+0	2.036592E+0	2.023813E+0	2.005377E+0	1.996622E+0	1.956032E+0	2.021825E+0	1.971959E+0	1.988315E+0	2.005544E+0	1.984893E+0	1.971675E+0	1.994658E+0	1.962996E+0	1.932424E+0	1.990862E+0	2.006680E+0	2.005799E+0	2.005780E+0	1.957910E+0	2.011470E+0	2.041256E+0	1.976300E+0	1.940608E+0	1.934440E+0	2.026386E+0	2.000112E+0	2.015853E+0	1.975283E+0	1.984613E+0	1.969182E+0	1.982085E+0	2.001008E+0	1.999803E+0	1.980191E+0	1.961523E+0	1.966390E+0	2.145562E+0
5.352600E+2	1.953750E+0	1.933858E+0	2.020953E+0	1.949884E+0	1.939889E+0	1.952611E+0	2.012862E+0	1.923469E+0	1.991224E+0	1.880375E+0	1.862358E+0	1.866788E+0	1.979265E+0	1.991170E+0	1.942592E+0	1.909134E+0	1.958137E+0	1.966431E+0	1.873402E+0	1.922275E+0	1.980024E+0	1.902725E+0	1.897033E+0	1.995057E+0	1.997657E+0	1.969458E+0	1.939255E+0	1.937195E+0	1.934620E+0	1.965640E+0	1.930226E+0	1.888037E+0	1.930007E+0	1.987209E+0	1.918703E+0	1.951536E+0	1.932825E+0	1.935625E+0	1.952790E+0	1.904810E+0	1.982549E+0	1.956413E+0	1.988057E+0	1.867066E+0	1.919481E+0	1.925961E+0	1.947437E+0	1.954696E+0	1.957515E+0	1.953088E+0	1.919884E+0	1.884920E+0	1.882744E+0	1.971244E+0	1.956996E+0	1.916200E+0	1.932705E+0	1.885487E+0	1.936060E+0	1.902984E+0	1.931765E+0	2.044311E+0	1.934868E+0	1.902251E+0	1.872115E+0	1.971015E+0	1.898669E+0	1.897626E+0	1.894333E+0	1.944749E+0	1.969449E+0	1.931052E+0	1.881639E+0	1.992383E+0	1.896931E+0	2.000613E+0	1.882037E+0	1.893208E+0	1.990471E+0	1.921329E+0	1.952059E+0	1.959254E+0	1.925608E+0	1.947644E+0	1.934647E+0	1.923570E+0	1.944456E+0	1.930593E+0	1.935971E+0	1.900896E+0	1.938942E+0	1.909099E+0	1.905573E+0	1.885174E+0	1.869271E+0	1.891430E+0	1.864260E+0	1.871555E+0	1.918502E+0	1.892234E+0	1.903797E+0	1.893178E+0	1.912342E+0	1.837208E+0	1.954619E+0	1.897181E+0	1.869664E+0	1.873091E+0	1.909392E+0	1.924099E+0	1.964991E+0	1.868515E+0	1.946360E+0	1.924264E+0	1.928996E+0	1.809311E+0	1.908073E+0	1.973891E+0	1.893082E+0	1.887511E+0	1.873577E+0	1.872588E+0	1.922512E+0	1.952830E+0	1.897162E+0	1.916980E+0	1.875204E+0	1.914950E+0	1.968420E+0	1.968132E+0	1.940855E+0	1.820386E+0	1.902723E+0	1.854068E+0	1.887989E+0	1.848340E+0	1.884495E+0	1.956082E+0	1.934069E+0	1.851757E+0	1.867974E+0	1.913236E+0	1.844510E+0	1.834655E+0	1.978732E+0	1.903965E+0	1.859890E+0	1.902794E+0	1.968909E+0	1.863712E+0	1.867037E+0	1.875585E+0	1.861193E+0	1.883565E+0	1.906273E+0	1.904534E+0	1.816088E+0	1.865143E+0	1.918816E+0	1.859491E+0	1.861820E+0	1.920154E+0	1.858220E+0	1.884865E+0	1.853922E+0	1.895498E+0	1.878575E+0	1.951144E+0	1.901529E+0	1.969292E+0	1.939951E+0
5.354170E+2	1.680872E+0	1.748242E+0	1.738132E+0	1.647838E+0	1.644102E+0	1.606339E+0	1.696444E+0	1.644691E+0	1.726029E+0	1.675603E+0	1.657888E+0	1.648596E+0	1.712431E+0	1.631675E+0	1.673339E+0	1.671831E+0	1.697465E+0	1.686868E+0	1.673892E+0	1.658964E+0	1.731849E+0	1.700667E+0	1.686031E+0	1.707569E+0	1.670893E+0	1.702514E+0	1.664704E+0	1.672312E+0	1.641755E+0	1.653571E+0	1.576950E+0	1.643393E+0	1.609967E+0	1.716933E+0	1.651921E+0	1.636561E+0	1.655372E+0	1.663628E+0	1.643619E+0	1.643907E+0	1.661178E+0	1.647633E+0	1.685956E+0	1.599777E+0	1.621103E+0	1.675143E+0	1.721400E+0	1.664856E+0	1.681037E+0	1.683843E+0	1.663317E+0	1.701812E+0	1.649959E+0	1.655163E+0	1.653148E+0	1.658807E+0	1.713886E+0	1.646001E+0	1.633782E+0	1.573528E+0	1.674960E+0	1.668671E+0	1.617446E+0	1.661732E+0	1.682077E+0	1.599481E+0	1.655270E+0	1.579697E+0	1.612337E+0	1.687610E+0	1.623696E+0	1.741141E+0	1.683349E+0	1.635884E+0	1.624092E+0	1.658180E+0	1.685445E+0	1.672065E+0	1.668140E+0	1.678797E+0	1.664493E+0	1.664051E+0	1.655870E+0	1.595343E+0	1.605185E+0	1.667522E+0	1.658260E+0	1.616994E+0	1.642235E+0	1.620585E+0	1.643251E+0	1.625531E+0	1.607385E+0	1.686420E+0	1.588329E+0	1.624879E+0	1.604081E+0	1.618302E+0	1.651779E+0	1.613599E+0	1.591919E+0	1.609284E+0	1.600785E+0	1.591443E+0	1.620332E+0	1.599375E+0	1.665902E+0	1.596819E+0	1.626947E+0	1.696505E+0	1.661683E+0	1.645729E+0	1.728964E+0	1.672239E+0	1.660643E+0	1.597094E+0	1.678127E+0	1.588961E+0	1.633613E+0	1.676756E+0	1.597854E+0	1.590937E+0	1.603559E+0	1.651327E+0	1.646636E+0	1.661922E+0	1.654767E+0	1.631860E+0	1.611354E+0	1.668125E+0	1.584687E+0	1.668875E+0	1.633929E+0	1.652967E+0	1.592790E+0	1.638611E+0	1.629597E+0	1.638229E+0	1.632243E+0	1.623737E+0	1.581598E+0	1.698319E+0	1.649742E+0	1.604296E+0	1.656946E+0	1.621529E+0	1.621450E+0	1.591042E+0	1.665143E+0	1.625017E+0	1.575214E+0	1.603212E+0	1.620847E+0	1.638710E+0	1.666987E+0	1.566007E+0	1.593026E+0	1.608453E+0	1.605162E+0	1.676878E+0	1.584422E+0	1.639556E+0	1.610746E+0	1.595236E+0	1.594500E+0	1.610212E+0	1.632568E+0	1.678920E+0	1.620723E+0	1.643603E+0	1.624843E+0
5.355630E+2	1.454912E+0	1.511953E+0	1.514842E+0	1.527101E+0	1.491276E+0	1.410675E+0	1.466123E+0	1.374387E+0	1.470479E+0	1.477311E+0	1.417867E+0	1.478597E+0	1.485278E+0	1.507719E+0	1.486926E+0	1.424137E+0	1.499327E+0	1.452226E+0	1.444326E+0	1.493648E+0	1.501770E+0	1.435367E+0	1.421651E+0	1.466617E+0	1.450509E+0	1.442902E+0	1.498402E+0	1.442703E+0	1.437513E+0	1.444066E+0	1.442411E+0	1.456563E+0	1.483925E+0	1.505611E+0	1.444342E+0	1.471469E+0	1.459668E+0	1.446050E+0	1.455891E+0	1.490470E+0	1.493287E+0	1.485093E+0	1.442670E+0	1.494873E+0	1.452352E+0	1.481975E+0	1.498780E+0	1.499081E+0	1.453353E+0	1.449708E+0	1.423745E+0	1.466961E+0	1.453419E+0	1.467081E+0	1.469392E+0	1.485311E+0	1.485140E+0	1.512687E+0	1.514193E+0	1.429630E+0	1.442524E+0	1.436422E+0	1.488217E+0	1.419521E+0	1.449689E+0	1.504225E+0	1.457384E+0	1.483691E+0	1.454290E+0	1.463866E+0	1.407346E+0	1.539334E+0	1.450112E+0	1.406887E+0	1.391053E+0	1.514583E+0	1.429157E+0	1.434820E+0	1.470186E+0	1.471366E+0	1.463702E+0	1.479119E+0	1.533991E+0	1.455866E+0	1.510121E+0	1.510072E+0	1.461469E+0	1.460207E+0	1.475691E+0	1.423102E+0	1.449326E+0	1.500552E+0	1.462098E+0	1.512683E+0	1.468266E+0	1.432052E+0	1.501768E+0	1.495220E+0	1.468779E+0	1.451369E+0	1.452349E+0	1.436822E+0	1.423071E+0	1.435711E+0	1.439438E+0	1.480640E+0	1.481185E+0	1.424668E+0	1.471926E+0	1.493571E+0	1.465655E+0	1.479996E+0	1.498789E+0	1.444652E+0	1.462132E+0	1.475251E+0	1.451729E+0	1.447112E+0	1.416105E+0	1.426627E+0	1.454084E+0	1.422459E+0	1.414923E+0	1.414769E+0	1.410383E+0	1.404951E+0	1.477541E+0	1.448837E+0	1.476854E+0	1.466012E+0	1.416456E+0	1.381256E+0	1.485323E+0	1.467808E+0	1.482775E+0	1.491760E+0	1.509458E+0	1.435366E+0	1.476277E+0	1.444245E+0	1.419653E+0	1.460153E+0	1.446377E+0	1.402312E+0	1.378154E+0	1.481838E+0	1.466233E+0	1.420218E+0	1.471658E+0	1.453289E+0	1.455823E+0	1.489864E+0	1.429012E+0	1.448509E+0	1.486296E+0	1.410397E+0	1.437433E+0	1.389096E+0	1.434501E+0	1.484201E+0	1.448163E+0	1.465094E+0	1.470571E+0	1.430775E+0	1.448290E+0	1.443761E+0	1.433916E+0	1.415724E+0	1.451756E+0	1.463916E+0	1.497437E+0
5.357090E+2	1.231364E+0	1.232156E+0	1.315064E+0	1.259348E+0	1.256281E+0	1.223538E+0	1.227940E+0	1.250864E+0	1.289919E+0	1.261916E+0	1.284634E+0	1.205575E+0	1.259220E+0	1.223829E+0	1.260468E+0	1.270580E+0	1.276620E+0	1.291360E+0	1.180996E+0	1.262736E+0	1.270431E+0	1.248125E+0	1.230406E+0	1.277676E+0	1.287530E+0	1.252515E+0	1.273550E+0	1.249638E+0	1.207339E+0	1.204380E+0	1.242036E+0	1.249224E+0	1.237315E+0	1.270668E+0	1.204184E+0	1.235518E+0	1.218740E+0	1.262674E+0	1.287173E+0	1.248597E+0	1.255485E+0	1.267189E+0	1.245957E+0	1.234908E+0	1.206534E+0	1.254064E+0	1.256908E+0	1.260029E+0	1.280912E+0	1.240744E+0	1.255463E+0	1.272155E+0	1.210990E+0	1.245803E+0	1.235002E+0	1.245809E+0	1.287253E+0	1.232179E+0	1.283930E+0	1.221355E+0	1.224714E+0	1.270686E+0	1.296950E+0	1.271352E+0	1.221927E+0	1.238333E+0	1.179737E+0	1.292451E+0	1.271585E+0	1.272325E+0	1.249866E+0	1.260465E+0	1.290975E+0	1.246959E+0	1.247901E+0	1.273787E+0	1.255240E+0	1.235056E+0	1.288283E+0	1.228840E+0	1.284212E+0	1.243424E+0	1.266667E+0	1.297520E+0	1.233449E+0	1.298975E+0	1.248253E+0	1.246751E+0	1.237749E+0	1.197685E+0	1.273057E+0	1.223300E+0	1.248325E+0	1.293591E+0	1.274998E+0	1.247428E+0	1.312501E+0	1.233963E+0	1.285428E+0	1.286624E+0	1.270935E+0	1.263452E+0	1.247119E+0	1.213537E+0	1.227232E+0	1.264151E+0	1.285252E+0	1.265752E+0	1.286093E+0	1.273715E+0	1.281027E+0	1.167445E+0	1.280271E+0	1.250207E+0	1.249452E+0	1.233015E+0	1.301237E+0	1.225304E+0	1.320729E+0	1.273807E+0	1.225326E+0	1.213422E+0	1.226891E+0	1.243454E+0	1.305552E+0	1.312479E+0	1.253308E+0	1.224969E+0	1.292480E+0	1.259609E+0	1.325295E+0	1.239208E+0	1.235226E+0	1.261013E+0	1.249062E+0	1.216910E+0	1.251236E+0	1.260350E+0	1.217486E+0	1.229708E+0	1.227766E+0	1.278258E+0	1.283941E+0	1.200579E+0	1.226295E+0	1.259675E+0	1.265967E+0	1.214364E+0	1.314586E+0	1.257814E+0	1.262611E+0	1.237674E+0	1.272341E+0	1.236886E+0	1.279672E+0	1.215417E+0	1.253681E+0	1.225960E+0	1.278490E+0	1.254709E+0	1.222467E+0	1.240025E+0	1.229294E+0	1.242869E+0	1.290914E+0	1.280345E+0	1.284711E+0	1.276078E+0	1.262183E+0	1.287516E+0	1.254775E+0
5.358600E+2	1.025074E+0	1.027816E+0	1.037411E+0	1.016507E+0	1.029698E+0	1.012513E+0	1.081891E+0	1.039027E+0	1.011023E+0	1.005879E+0	1.025468E+0	1.042666E+0	1.022249E+0	1.029248E+0	9.802972E-1	1.047528E+0	1.008674E+0	1.032137E+0	1.007112E+0	9.979855E-1	1.029905E+0	1.062641E+0	1.008662E+0	1.054391E+0	1.042204E+0	9.931354E-1	9.927073E-1	9.984734E-1	1.027571E+0	1.041872E+0	1.013637E+0	9.653683E-1	1.004093E+0	1.022841E+0	1.045198E+0	1.007896E+0	1.069807E+0	1.037527E+0	9.893845E-1	1.053666E+0	9.859542E-1	1.044914E+0	1.021004E+0	1.006045E+0	9.973766E-1	9.895023E-1	9.935869E-1	1.024587E+0	1.029699E+0	1.026958E+0	1.005309E+0	1.007916E+0	9.944808E-1	1.059677E+0	1.025428E+0	1.007536E+0	1.023145E+0	1.003677E+0	1.032212E+0	9.934218E-1	1.021218E+0	1.042773E+0	1.005654E+0	1.063189E+0	1.027317E+0	1.041945E+0	1.039836E+0	1.049074E+0	1.018318E+0	1.046485E+0	1.013426E+0	1.037006E+0	1.033444E+0	1.041937E+0	9.987518E-1	1.031998E+0	1.052526E+0	1.010593E+0	1.041721E+0	1.020933E+0	1.088881E+0	1.068451E+0	1.018561E+0	1.040068E+0	9.764608E-1	1.061892E+0	1.046445E+0	9.855814E-1	1.043648E+0	1.038044E+0	1.030616E+0	1.017404E+0	1.015941E+0	1.027902E+0	1.066386E+0	1.054995E+0	9.985266E-1	1.021735E+0	1.015958E+0	1.010141E+0	1.078530E+0	1.008030E+0	1.012768E+0	1.000372E+0	1.000359E+0	1.017407E+0	1.031298E+0	9.851166E-1	1.027408E+0	1.067790E+0	1.079565E+0	1.020792E+0	1.081425E+0	1.014254E+0	1.032188E+0	1.003879E+0	1.050640E+0	1.003756E+0	1.042516E+0	1.019432E+0	9.940470E-1	1.020632E+0	1.032435E+0	1.027247E+0	1.017822E+0	1.060297E+0	1.033677E+0	1.026372E+0	1.072398E+0	9.822711E-1	1.047350E+0	1.025090E+0	1.009873E+0	1.027376E+0	1.073355E+0	1.014808E+0	1.049119E+0	1.021534E+0	1.039471E+0	1.055301E+0	1.045807E+0	1.080574E+0	1.031918E+0	1.007497E+0	9.604531E-1	1.067210E+0	1.021009E+0	1.019706E+0	1.063136E+0	1.011457E+0	1.023023E+0	1.009662E+0	1.013994E+0	1.001170E+0	1.033959E+0	1.025562E+0	1.060256E+0	1.075960E+0	1.032446E+0	1.043777E+0	1.048611E+0	1.083766E+0	1.038245E+0	1.052167E+0	1.096066E+0	1.017561E+0	1.092042E+0	1.062217E+0	9.708178E-1	1.040153E+0	1.006726E+0
5.360070E+2	8.673395E-1	8.108744E-1	8.396108E-1	8.552986E-1	8.471751E-1	8.134029E-1	8.510923E-1	8.161361E-1	8.525663E-1	8.493081E-1	8.218017E-1	8.302939E-1	8.346346E-1	8.436918E-1	8.084172E-1	8.372737E-1	8.582250E-1	8.385450E-1	8.286471E-1	8.459396E-1	8.874983E-1	8.496253E-1	8.688384E-1	8.236151E-1	8.417656E-1	8.536924E-1	8.850069E-1	8.566090E-1	8.442250E-1	8.441359E-1	8.364976E-1	8.596526E-1	8.059767E-1	8.373040E-1	8.237217E-1	8.453113E-1	8.236614E-1	8.902764E-1	8.566187E-1	8.531556E-1	8.097968E-1	8.692442E-1	8.575296E-1	8.406604E-1	8.452362E-1	8.374346E-1	8.817548E-1	8.321660E-1	8.587065E-1	8.483792E-1	8.251489E-1	8.729807E-1	8.608704E-1	8.418573E-1	8.592784E-1	8.834687E-1	8.203857E-1	8.190616E-1	8.559950E-1	8.360135E-1	8.528243E-1	8.551708E-1	8.695259E-1	7.963327E-1	8.154440E-1	8.459591E-1	8.391578E-1	8.398378E-1	8.494257E-1	8.260616E-1	8.747235E-1	8.571740E-1	8.363916E-1	8.336322E-1	8.454896E-1	8.478991E-1	8.374034E-1	8.242834E-1	8.418317E-1	8.404174E-1	8.178654E-1	8.475836E-1	8.472043E-1	8.413872E-1	8.096731E-1	8.970868E-1	8.675210E-1	8.752967E-1	8.797212E-1	8.258883E-1	8.463456E-1	8.759851E-1	8.198509E-1	8.707797E-1	8.513176E-1	8.591130E-1	8.567459E-1	8.541358E-1	8.952911E-1	8.286807E-1	8.461358E-1	8.488656E-1	8.595318E-1	8.546440E-1	8.460988E-1	8.206582E-1	8.477760E-1	8.564616E-1	8.631312E-1	8.743648E-1	8.675139E-1	8.358106E-1	8.759468E-1	8.352253E-1	8.160878E-1	8.069208E-1	8.653303E-1	8.386393E-1	8.368639E-1	8.467753E-1	8.502005E-1	8.558744E-1	8.532620E-1	8.510259E-1	8.547657E-1	8.400349E-1	8.517070E-1	8.537818E-1	8.578053E-1	8.488360E-1	8.250147E-1	8.377172E-1	8.736729E-1	8.094548E-1	8.659368E-1	8.378665E-1	8.880120E-1	8.385037E-1	8.541655E-1	8.235086E-1	8.365371E-1	8.512781E-1	8.624178E-1	8.338757E-1	8.446463E-1	8.838392E-1	8.504031E-1	8.321365E-1	8.680020E-1	8.599142E-1	8.534617E-1	8.016285E-1	8.314629E-1	8.340444E-1	8.642464E-1	8.426803E-1	8.634094E-1	8.321870E-1	8.628068E-1	8.636063E-1	8.379555E-1	8.524302E-1	8.196070E-1	8.516498E-1	8.653720E-1	8.424418E-1	8.699242E-1	8.584674E-1	8.236634E-1	8.263372E-1	8.813577E-1
5.362630E+2	6.489330E-1	6.807570E-1	6.517027E-1	6.485719E-1	6.601356E-1	6.563965E-1	7.019470E-1	6.820266E-1	6.290777E-1	6.786598E-1	6.287297E-1	6.774185E-1	6.653001E-1	6.705659E-1	6.466409E-1	6.932473E-1	6.648746E-1	6.567888E-1	6.595318E-1	6.693345E-1	6.520113E-1	6.672869E-1	6.458975E-1	6.654873E-1	6.770228E-1	6.737291E-1	6.561681E-1	6.405449E-1	6.388374E-1	6.645918E-1	6.815764E-1	6.706680E-1	6.749463E-1	6.446698E-1	6.415344E-1	6.422538E-1	6.580940E-1	6.806447E-1	6.553173E-1	6.530811E-1	6.837155E-1	6.854481E-1	6.779320E-1	6.509201E-1	6.554803E-1	6.521195E-1	6.685687E-1	6.516525E-1	6.743990E-1	6.762737E-1	6.606739E-1	6.827370E-1	6.646174E-1	6.915424E-1	6.878391E-1	6.747167E-1	6.393452E-1	6.731840E-1	6.485918E-1	6.189483E-1	6.453259E-1	6.463349E-1	7.238678E-1	6.530009E-1	6.705014E-1	6.629175E-1	6.519449E-1	6.283290E-1	6.632324E-1	6.560133E-1	6.790820E-1	6.720399E-1	6.751585E-1	6.768875E-1	6.564985E-1	6.610712E-1	6.273278E-1	6.958332E-1	6.784130E-1	6.722546E-1	6.774708E-1	6.448071E-1	6.774674E-1	6.404505E-1	6.644771E-1	6.622001E-1	6.892609E-1	6.716406E-1	6.579896E-1	6.382234E-1	6.465827E-1	6.665065E-1	6.599760E-1	6.902187E-1	6.662047E-1	6.565893E-1	6.370214E-1	6.301410E-1	6.562187E-1	6.770599E-1	6.816062E-1	6.692383E-1	6.752128E-1	6.800024E-1	6.695737E-1	6.596186E-1	6.933465E-1	6.808699E-1	6.594843E-1	6.966335E-1	6.781066E-1	6.490771E-1	6.780487E-1	6.651040E-1	6.668605E-1	6.349554E-1	7.211068E-1	6.365314E-1	6.446699E-1	6.508554E-1	6.766825E-1	6.373308E-1	6.284780E-1	6.476761E-1	6.596088E-1	6.434229E-1	6.837462E-1	6.373828E-1	6.873884E-1	6.528886E-1	6.519925E-1	6.853901E-1	6.953227E-1	6.718578E-1	6.931831E-1	7.067727E-1	6.493274E-1	6.841400E-1	6.952047E-1	6.743680E-1	6.538459E-1	6.530414E-1	6.917067E-1	6.346753E-1	7.044957E-1	7.011931E-1	6.759212E-1	6.778537E-1	6.825666E-1	6.463272E-1	6.605254E-1	6.712662E-1	6.888799E-1	6.719302E-1	6.871710E-1	6.542801E-1	6.940272E-1	6.592642E-1	6.926507E-1	6.601376E-1	6.410457E-1	6.749074E-1	6.418479E-1	6.970999E-1	6.530437E-1	6.863492E-1	6.639385E-1	6.913240E-1	7.066405E-1	7.097445E-1	6.964279E-1
5.365190E+2	5.636011E-1	5.277120E-1	5.445086E-1	5.504866E-1	5.522078E-1	5.261834E-1	5.710720E-1	5.369127E-1	5.428461E-1	5.694829E-1	5.274378E-1	5.381735E-1	5.414025E-1	5.433150E-1	5.278551E-1	5.465530E-1	5.452245E-1	5.562334E-1	5.319191E-1	5.570158E-1	5.835499E-1	5.578794E-1	5.613957E-1	5.217616E-1	5.288638E-1	5.427713E-1	5.183748E-1	5.588973E-1	5.538103E-1	5.370245E-1	5.447456E-1	5.158119E-1	5.517375E-1	5.591579E-1	5.401321E-1	5.140982E-1	5.489332E-1	5.348084E-1	5.584765E-1	5.425427E-1	5.634276E-1	5.447697E-1	5.336619E-1	5.400026E-1	5.070931E-1	5.567770E-1	5.331152E-1	5.309443E-1	5.834684E-1	5.611226E-1	5.400195E-1	5.136152E-1	5.463435E-1	5.878695E-1	5.560576E-1	5.892394E-1	5.468113E-1	5.492268E-1	5.102488E-1	5.467810E-1	5.222227E-1	5.365481E-1	5.474875E-1	5.337258E-1	5.306895E-1	5.564913E-1	5.326659E-1	5.690601E-1	5.825118E-1	5.475721E-1	5.731851E-1	5.530673E-1	5.343978E-1	5.837935E-1	5.436838E-1	5.575359E-1	5.545795E-1	5.626478E-1	5.649956E-1	5.726602E-1	5.152744E-1	5.436448E-1	5.496653E-1	5.464029E-1	5.504677E-1	5.627695E-1	5.676026E-1	5.599710E-1	5.448783E-1	5.331013E-1	5.731644E-1	5.778214E-1	5.742577E-1	5.595329E-1	5.320110E-1	5.141766E-1	5.553281E-1	5.503420E-1	5.660167E-1	5.481785E-1	5.752632E-1	5.691710E-1	5.525513E-1	5.631927E-1	5.301632E-1	5.842786E-1	5.411301E-1	5.466411E-1	5.510203E-1	5.717631E-1	5.711285E-1	5.376536E-1	5.849519E-1	5.548367E-1	5.426588E-1	5.239619E-1	5.211187E-1	5.352107E-1	5.815347E-1	5.414140E-1	5.682837E-1	5.644159E-1	5.087358E-1	5.161508E-1	5.314380E-1	5.628050E-1	5.775885E-1	5.850478E-1	5.524289E-1	5.509951E-1	5.266231E-1	5.460192E-1	5.425814E-1	5.600719E-1	5.470251E-1	5.727342E-1	5.605767E-1	5.747235E-1	5.778379E-1	5.390973E-1	5.591327E-1	5.183724E-1	5.621669E-1	5.538623E-1	5.660883E-1	5.815857E-1	5.600754E-1	5.597081E-1	6.122326E-1	5.774490E-1	5.200484E-1	5.409029E-1	5.344115E-1	5.617938E-1	5.564177E-1	5.514596E-1	5.509627E-1	5.592012E-1	5.829734E-1	5.756888E-1	5.253712E-1	5.507415E-1	5.401062E-1	5.572387E-1	5.588875E-1	5.661576E-1	5.788551E-1	5.581973E-1	5.772670E-1	6.097737E-1	6.229259E-1
5.367660E+2	5.357002E-1	5.249812E-1	5.350887E-1	4.952142E-1	5.384274E-1	4.994288E-1	5.404602E-1	5.175780E-1	5.192477E-1	5.334170E-1	5.172708E-1	5.240481E-1	5.381536E-1	5.208318E-1	5.260999E-1	5.182913E-1	5.276947E-1	5.333228E-1	4.980500E-1	5.396438E-1	5.125568E-1	5.564592E-1	5.336976E-1	5.108333E-1	5.420923E-1	5.255665E-1	5.485391E-1	5.176469E-1	5.197581E-1	5.589364E-1	5.206180E-1	4.993038E-1	5.069249E-1	5.399706E-1	5.183956E-1	5.547597E-1	5.323786E-1	5.155388E-1	5.269704E-1	4.966408E-1	5.206077E-1	5.008379E-1	5.332603E-1	5.176080E-1	5.177440E-1	5.348117E-1	5.057220E-1	5.276038E-1	5.291223E-1	5.558410E-1	4.783974E-1	5.407139E-1	5.211115E-1	5.248139E-1	5.100843E-1	5.273188E-1	5.283783E-1	5.357783E-1	5.186031E-1	5.269402E-1	5.155936E-1	5.460117E-1	5.356366E-1	5.770299E-1	5.066426E-1	5.442725E-1	5.410795E-1	5.194281E-1	5.550922E-1	5.244140E-1	5.216475E-1	5.364842E-1	5.213192E-1	5.307066E-1	5.061534E-1	5.457296E-1	5.098884E-1	5.339090E-1	5.122906E-1	5.269127E-1	4.993113E-1	5.143586E-1	5.119346E-1	5.312354E-1	5.267818E-1	5.559386E-1	5.277481E-1	5.322735E-1	5.632624E-1	5.413615E-1	5.225325E-1	5.011375E-1	5.173302E-1	5.463853E-1	5.480751E-1	5.519144E-1	5.559477E-1	5.459369E-1	5.475923E-1	5.268925E-1	5.275811E-1	4.961189E-1	5.317246E-1	5.317831E-1	5.093664E-1	5.321410E-1	5.426906E-1	5.488426E-1	5.169091E-1	5.124799E-1	5.526425E-1	4.936091E-1	5.087389E-1	5.216417E-1	5.331463E-1	5.089231E-1	5.506966E-1	5.415345E-1	5.304043E-1	5.240442E-1	5.222249E-1	5.463465E-1	5.279603E-1	5.507946E-1	5.170511E-1	5.068983E-1	5.230915E-1	4.960404E-1	5.391789E-1	4.953507E-1	5.199054E-1	5.256248E-1	4.992101E-1	5.167673E-1	5.434443E-1	5.541871E-1	5.476656E-1	5.279805E-1	5.249213E-1	5.439167E-1	5.147404E-1	5.483840E-1	5.371342E-1	4.797877E-1	5.297104E-1	4.878944E-1	5.321530E-1	5.223658E-1	5.324074E-1	5.305701E-1	5.337033E-1	5.144298E-1	5.103330E-1	5.460499E-1	5.509390E-1	4.781743E-1	5.008438E-1	5.474639E-1	5.279476E-1	5.323002E-1	5.303509E-1	5.309480E-1	5.483474E-1	5.400150E-1	5.381970E-1	5.568273E-1	5.402155E-1	4.883900E-1	5.148948E-1	5.407585E-1	5.698693E-1
5.370170E+2	5.601374E-1	5.273199E-1	5.414447E-1	5.158117E-1	5.092023E-1	5.288224E-1	5.606423E-1	5.268793E-1	5.499543E-1	5.380165E-1	5.189418E-1	5.148852E-1	5.066337E-1	5.244586E-1	5.427948E-1	5.040567E-1	4.983841E-1	5.708171E-1	5.635350E-1	5.424358E-1	5.657552E-1	5.580493E-1	5.339630E-1	5.668730E-1	5.721576E-1	5.475758E-1	5.027122E-1	5.323930E-1	5.059771E-1	5.590120E-1	5.048575E-1	5.550439E-1	5.207782E-1	5.627710E-1	5.311726E-1	5.175592E-1	5.561566E-1	5.623043E-1	5.272477E-1	5.545115E-1	5.520363E-1	5.646913E-1	5.497552E-1	5.430315E-1	5.474840E-1	5.298251E-1	5.453642E-1	5.422820E-1	5.376119E-1	5.363625E-1	5.489894E-1	5.198524E-1	4.761874E-1	5.579245E-1	5.557848E-1	5.668879E-1	5.087456E-1	5.412716E-1	5.711641E-1	5.328642E-1	5.367861E-1	5.282852E-1	5.593632E-1	5.596766E-1	5.286617E-1	5.564587E-1	5.369813E-1	5.414801E-1	5.438738E-1	5.634264E-1	5.209071E-1	5.560534E-1	5.286343E-1	5.654158E-1	5.475873E-1	5.424796E-1	4.994393E-1	5.485791E-1	5.381968E-1	5.578528E-1	5.451542E-1	5.393728E-1	5.463032E-1	5.338627E-1	5.206016E-1	5.580669E-1	5.373993E-1	5.236912E-1	5.635426E-1	5.639092E-1	5.527072E-1	5.457970E-1	5.284772E-1	5.563116E-1	5.164385E-1	5.336530E-1	5.628267E-1	5.341683E-1	5.723464E-1	5.347717E-1	5.639429E-1	5.472036E-1	5.739928E-1	5.148052E-1	5.468959E-1	5.768546E-1	5.604699E-1	5.363491E-1	5.193541E-1	5.625973E-1	5.525804E-1	5.228765E-1	5.301175E-1	5.817046E-1	5.437755E-1	5.584819E-1	5.398112E-1	5.516684E-1	5.202504E-1	5.422050E-1	5.323771E-1	5.199947E-1	5.498108E-1	5.531773E-1	5.498747E-1	5.672831E-1	5.729244E-1	5.300878E-1	5.561068E-1	5.539039E-1	5.637415E-1	5.406626E-1	5.536343E-1	5.340630E-1	5.668891E-1	5.529678E-1	5.593791E-1	5.426518E-1	5.419145E-1	5.627506E-1	5.462016E-1	5.756671E-1	5.588565E-1	5.486853E-1	5.451722E-1	5.414135E-1	5.987454E-1	5.364132E-1	5.902990E-1	5.403606E-1	5.507413E-1	5.368485E-1	5.538159E-1	5.341042E-1	5.249220E-1	5.547514E-1	5.195279E-1	5.698402E-1	5.699000E-1	5.432660E-1	5.161858E-1	5.272486E-1	5.279155E-1	5.507333E-1	5.359205E-1	5.488759E-1	5.584699E-1	5.800262E-1	5.377967E-1	5.431998E-1	5.488066E-1
5.372640E+2	6.300644E-1	6.367856E-1	6.214947E-1	6.073979E-1	6.191604E-1	5.897292E-1	6.192392E-1	6.114067E-1	5.588564E-1	6.060597E-1	6.072123E-1	6.069594E-1	6.203494E-1	6.090521E-1	6.155538E-1	6.003380E-1	6.113593E-1	6.111810E-1	6.150649E-1	6.219383E-1	6.483570E-1	6.427401E-1	6.268162E-1	6.179386E-1	5.780248E-1	6.126820E-1	6.087053E-1	6.060917E-1	6.238742E-1	6.264838E-1	6.507590E-1	5.991247E-1	6.093087E-1	6.265597E-1	6.110000E-1	6.483655E-1	6.011615E-1	6.206956E-1	6.487510E-1	6.235732E-1	6.135220E-1	6.348564E-1	6.564826E-1	6.272682E-1	6.517187E-1	6.314055E-1	6.304422E-1	6.422670E-1	6.496416E-1	6.018420E-1	6.445956E-1	5.868563E-1	6.335912E-1	6.360334E-1	6.597682E-1	5.898927E-1	5.777179E-1	6.320125E-1	6.144223E-1	6.148257E-1	6.173322E-1	6.129480E-1	6.380572E-1	6.165316E-1	5.942877E-1	5.968450E-1	6.526937E-1	6.304782E-1	6.261130E-1	6.361593E-1	6.317406E-1	6.574941E-1	5.880375E-1	6.107630E-1	6.004570E-1	6.055122E-1	6.236555E-1	6.392246E-1	6.435147E-1	6.278915E-1	6.093455E-1	6.416829E-1	6.579824E-1	6.270196E-1	6.011611E-1	5.953020E-1	6.239427E-1	6.292417E-1	6.332861E-1	6.385896E-1	6.157844E-1	6.384703E-1	5.958977E-1	6.343840E-1	6.289891E-1	6.573072E-1	6.221349E-1	6.365577E-1	6.234604E-1	5.907566E-1	6.297474E-1	6.346225E-1	6.411475E-1	5.862495E-1	6.468427E-1	6.383444E-1	5.961241E-1	6.485093E-1	6.035252E-1	6.546819E-1	6.193178E-1	6.264992E-1	6.004852E-1	6.089467E-1	6.329762E-1	6.068137E-1	6.525306E-1	6.386107E-1	6.220514E-1	6.290567E-1	6.220479E-1	6.392366E-1	6.366944E-1	6.170060E-1	6.189205E-1	6.675247E-1	6.407673E-1	5.843815E-1	6.269399E-1	6.422069E-1	6.274322E-1	6.149972E-1	6.623410E-1	6.316897E-1	6.415324E-1	6.226787E-1	6.088637E-1	6.705492E-1	6.239829E-1	6.549585E-1	6.119864E-1	6.500675E-1	6.692885E-1	5.980477E-1	6.238035E-1	6.089362E-1	6.184598E-1	6.156471E-1	6.677183E-1	6.529925E-1	6.259106E-1	6.234922E-1	6.281806E-1	6.463225E-1	6.469515E-1	6.269275E-1	6.025589E-1	5.988460E-1	6.430207E-1	6.169856E-1	6.183874E-1	6.368885E-1	6.228044E-1	6.229968E-1	6.526154E-1	6.509044E-1	6.534709E-1	6.334563E-1	6.390752E-1	6.090905E-1	5.748954E-1
5.375110E+2	7.160427E-1	7.363444E-1	7.346153E-1	7.456255E-1	7.145246E-1	7.470623E-1	7.554176E-1	7.288808E-1	7.160066E-1	7.139266E-1	7.533668E-1	7.814330E-1	7.239237E-1	7.558160E-1	7.616309E-1	7.293215E-1	7.608137E-1	7.475514E-1	7.112620E-1	7.761936E-1	7.548019E-1	7.435426E-1	7.461204E-1	7.077267E-1	7.414492E-1	7.292092E-1	7.664638E-1	7.506347E-1	7.073435E-1	7.252339E-1	7.508256E-1	7.299903E-1	7.268092E-1	7.421320E-1	7.325751E-1	7.272908E-1	7.079022E-1	7.337823E-1	7.542943E-1	7.496967E-1	7.391036E-1	7.248931E-1	7.519961E-1	7.862256E-1	7.186321E-1	7.253429E-1	7.498198E-1	7.103203E-1	7.543935E-1	7.200475E-1	7.193811E-1	7.781203E-1	7.298846E-1	7.206155E-1	7.110071E-1	7.634268E-1	7.140513E-1	7.251067E-1	7.657327E-1	7.052688E-1	7.427761E-1	7.795908E-1	7.728089E-1	7.205997E-1	7.289173E-1	7.238667E-1	7.429752E-1	7.251356E-1	7.783880E-1	7.180149E-1	7.443941E-1	7.447677E-1	6.986135E-1	7.478125E-1	7.221526E-1	7.292901E-1	7.323656E-1	7.887455E-1	7.580077E-1	7.549072E-1	7.539914E-1	7.302986E-1	7.412429E-1	7.163353E-1	7.042179E-1	7.347863E-1	7.407604E-1	7.317616E-1	7.304151E-1	7.696213E-1	7.296127E-1	7.380325E-1	7.023184E-1	7.214147E-1	7.499482E-1	7.489403E-1	7.212204E-1	7.210743E-1	7.714392E-1	7.447446E-1	7.116715E-1	7.359933E-1	7.427577E-1	7.198235E-1	7.119368E-1	7.657796E-1	7.109506E-1	7.281972E-1	7.644129E-1	7.540023E-1	7.664448E-1	7.002121E-1	7.820782E-1	7.638547E-1	7.342194E-1	7.196403E-1	7.476851E-1	7.362372E-1	7.228519E-1	7.468764E-1	7.478392E-1	7.416509E-1	7.886423E-1	7.624156E-1	7.216687E-1	7.447563E-1	7.464772E-1	7.149053E-1	7.539934E-1	7.354352E-1	7.322988E-1	7.120931E-1	7.288343E-1	7.409263E-1	7.598393E-1	7.430726E-1	7.648814E-1	7.433446E-1	7.521370E-1	7.745772E-1	7.409755E-1	7.117302E-1	7.120089E-1	7.105108E-1	7.267308E-1	7.233180E-1	7.420457E-1	6.927792E-1	7.616409E-1	7.342079E-1	7.365932E-1	7.243773E-1	7.424388E-1	7.460605E-1	7.448326E-1	7.548762E-1	7.118651E-1	7.196422E-1	7.361468E-1	7.419017E-1	6.961747E-1	7.881455E-1	7.534012E-1	7.215893E-1	7.582975E-1	7.542903E-1	7.255387E-1	7.877589E-1	7.437330E-1	7.448088E-1	7.520088E-1
5.377580E+2	8.056452E-1	7.979472E-1	7.669273E-1	8.161129E-1	8.178334E-1	8.302726E-1	8.103691E-1	8.061765E-1	7.867018E-1	8.133334E-1	8.132459E-1	7.682377E-1	7.516793E-1	7.965747E-1	8.132972E-1	7.916504E-1	8.174067E-1	7.565429E-1	8.110636E-1	8.174452E-1	7.925725E-1	8.153365E-1	8.491076E-1	8.263530E-1	7.638725E-1	7.977195E-1	7.961356E-1	7.974288E-1	7.781423E-1	8.126714E-1	7.864475E-1	8.060419E-1	7.480581E-1	8.387354E-1	7.948889E-1	7.700778E-1	8.015864E-1	7.910865E-1	7.998088E-1	7.996322E-1	8.213296E-1	7.984568E-1	8.298583E-1	7.727522E-1	7.975832E-1	8.200398E-1	8.043733E-1	7.634059E-1	8.041344E-1	8.157003E-1	7.687895E-1	8.559705E-1	7.543764E-1	8.255146E-1	7.893300E-1	8.157912E-1	7.876203E-1	7.953673E-1	8.156702E-1	7.895905E-1	7.920233E-1	7.805470E-1	8.437574E-1	8.126739E-1	7.777492E-1	7.771584E-1	7.919711E-1	8.076579E-1	8.177839E-1	7.869692E-1	8.357191E-1	8.308986E-1	7.885719E-1	7.753852E-1	8.024041E-1	7.308124E-1	7.886046E-1	7.812517E-1	8.053249E-1	8.400306E-1	7.282862E-1	8.318616E-1	7.643317E-1	8.115985E-1	8.066303E-1	8.156707E-1	8.246216E-1	7.848745E-1	7.575056E-1	8.059142E-1	8.360906E-1	7.859079E-1	7.967938E-1	8.036780E-1	8.351622E-1	8.018730E-1	7.968072E-1	7.922186E-1	7.787796E-1	7.613852E-1	7.750922E-1	8.144620E-1	7.557367E-1	7.869710E-1	7.792574E-1	8.227740E-1	8.550580E-1	7.541128E-1	7.752441E-1	8.229308E-1	8.183221E-1	7.846050E-1	8.102662E-1	8.352052E-1	8.077978E-1	8.025431E-1	7.999480E-1	8.237080E-1	7.921828E-1	8.024642E-1	7.916074E-1	8.238463E-1	8.332940E-1	7.900161E-1	7.836280E-1	8.307585E-1	7.729351E-1	7.727800E-1	8.162566E-1	7.440951E-1	7.832260E-1	8.166945E-1	7.707078E-1	8.144831E-1	8.127784E-1	7.976226E-1	7.856763E-1	8.189752E-1	8.448225E-1	7.994788E-1	7.188626E-1	8.282291E-1	7.840757E-1	7.937958E-1	7.939820E-1	7.824167E-1	8.141174E-1	7.952289E-1	8.062836E-1	7.618227E-1	8.103125E-1	7.953857E-1	7.782480E-1	8.003922E-1	8.345203E-1	8.194317E-1	7.957223E-1	7.934267E-1	7.824492E-1	7.676859E-1	7.957937E-1	7.787601E-1	7.962313E-1	7.961762E-1	7.585314E-1	8.331408E-1	8.261438E-1	7.792236E-1	7.692298E-1	8.092797E-1	8.946512E-1
5.380210E+2	9.720427E-1	9.724226E-1	9.655184E-1	9.774420E-1	9.670171E-1	9.324003E-1	9.919502E-1	9.570623E-1	9.574095E-1	9.324438E-1	9.592068E-1	9.775999E-1	9.423676E-1	9.290633E-1	9.842764E-1	9.788767E-1	9.589448E-1	9.732827E-1	9.079650E-1	9.358181E-1	9.748584E-1	9.733360E-1	9.531411E-1	9.618153E-1	9.530672E-1	9.422834E-1	9.861079E-1	9.378637E-1	9.475263E-1	9.419025E-1	9.911674E-1	9.537958E-1	9.766487E-1	9.789255E-1	9.741818E-1	9.283717E-1	9.257315E-1	9.568721E-1	9.370677E-1	9.581474E-1	9.329324E-1	9.970377E-1	9.738557E-1	9.741183E-1	9.577223E-1	9.708293E-1	9.687562E-1	9.632775E-1	9.366158E-1	9.446339E-1	9.558334E-1	9.442182E-1	9.866719E-1	9.766978E-1	9.642521E-1	9.501013E-1	9.644911E-1	9.492507E-1	9.431617E-1	9.602295E-1	9.507230E-1	9.522051E-1	1.000107E+0	9.598000E-1	9.708862E-1	9.909997E-1	9.950777E-1	9.889721E-1	9.386876E-1	9.871131E-1	9.904680E-1	9.866136E-1	1.024603E+0	9.704788E-1	9.078282E-1	9.859674E-1	9.656783E-1	1.013104E+0	9.258267E-1	9.689574E-1	9.627477E-1	9.313252E-1	9.527409E-1	9.361600E-1	9.391650E-1	9.329646E-1	9.925417E-1	9.498348E-1	9.521515E-1	9.611108E-1	9.609748E-1	9.472962E-1	9.423598E-1	9.659756E-1	9.386476E-1	9.688439E-1	9.516650E-1	9.753738E-1	1.020223E+0	9.206065E-1	9.343985E-1	9.712279E-1	9.536827E-1	9.202921E-1	9.344291E-1	9.692254E-1	9.343974E-1	9.407742E-1	9.413160E-1	1.044620E+0	9.610667E-1	9.431367E-1	1.003303E+0	9.469066E-1	9.770844E-1	9.364844E-1	9.556441E-1	9.595046E-1	9.476244E-1	9.793617E-1	9.663673E-1	9.667710E-1	9.540385E-1	9.468314E-1	9.531180E-1	9.457329E-1	9.985985E-1	9.417407E-1	9.444865E-1	9.712804E-1	9.626019E-1	9.799742E-1	9.515822E-1	9.792909E-1	9.850198E-1	9.672007E-1	9.639036E-1	9.564680E-1	1.022165E+0	9.800416E-1	9.435993E-1	9.606445E-1	9.973789E-1	9.500749E-1	9.758061E-1	9.717208E-1	1.038895E+0	9.149153E-1	9.643436E-1	9.876642E-1	9.801895E-1	9.393293E-1	9.621803E-1	9.507474E-1	9.770234E-1	9.128639E-1	9.267569E-1	9.526577E-1	9.949018E-1	9.475052E-1	9.355841E-1	9.625732E-1	9.244279E-1	9.783937E-1	9.572244E-1	9.876065E-1	9.745505E-1	9.375758E-1	9.323925E-1	9.670051E-1	1.005749E+0
5.382790E+2	1.138429E+0	1.075446E+0	1.082891E+0	1.155773E+0	1.043408E+0	1.092466E+0	1.075775E+0	1.066865E+0	1.137796E+0	1.079312E+0	1.089444E+0	1.102098E+0	1.118543E+0	1.109200E+0	1.123402E+0	1.160822E+0	1.114383E+0	1.114316E+0	1.080082E+0	1.163778E+0	1.146542E+0	1.114740E+0	1.105528E+0	1.135285E+0	1.096602E+0	1.110032E+0	1.154721E+0	1.115586E+0	1.110298E+0	1.067567E+0	1.118752E+0	1.108013E+0	1.125965E+0	1.088565E+0	1.114646E+0	1.110658E+0	1.130031E+0	1.128935E+0	1.080835E+0	1.125305E+0	1.094282E+0	1.100445E+0	1.115720E+0	1.128449E+0	1.097467E+0	1.102392E+0	1.125116E+0	1.104988E+0	1.096778E+0	1.106896E+0	1.142932E+0	1.100678E+0	1.097235E+0	1.124317E+0	1.089373E+0	1.108828E+0	1.075695E+0	1.054017E+0	1.088299E+0	1.114483E+0	1.087625E+0	1.103620E+0	1.111128E+0	1.152094E+0	1.095167E+0	1.136316E+0	1.091942E+0	1.123691E+0	1.141160E+0	1.104017E+0	1.057589E+0	1.098946E+0	1.102417E+0	1.107699E+0	1.126357E+0	1.106074E+0	1.059806E+0	1.131033E+0	1.127013E+0	1.109601E+0	1.050161E+0	1.106968E+0	1.097495E+0	1.100052E+0	1.125341E+0	1.173634E+0	1.081862E+0	1.120570E+0	1.145549E+0	1.120922E+0	1.093053E+0	1.082320E+0	1.092085E+0	1.101185E+0	1.092691E+0	1.136209E+0	1.092461E+0	1.036194E+0	1.156331E+0	1.050441E+0	1.108707E+0	1.104532E+0	1.131554E+0	1.070841E+0	1.098005E+0	1.142040E+0	1.088368E+0	1.131296E+0	1.089100E+0	1.107716E+0	1.107954E+0	1.091634E+0	1.138098E+0	1.136512E+0	1.091096E+0	1.100983E+0	1.114139E+0	1.085900E+0	1.125370E+0	1.085106E+0	1.067442E+0	1.077237E+0	1.093780E+0	1.112864E+0	1.077393E+0	1.109699E+0	1.134197E+0	1.141121E+0	1.123560E+0	1.091376E+0	1.095075E+0	1.074417E+0	1.122863E+0	1.071034E+0	1.107181E+0	1.104539E+0	1.086478E+0	1.075856E+0	1.093800E+0	1.131294E+0	1.064244E+0	1.145064E+0	1.115669E+0	1.031751E+0	1.076943E+0	1.185172E+0	1.149544E+0	1.120073E+0	1.124943E+0	1.116826E+0	1.123571E+0	1.126174E+0	1.113111E+0	1.132614E+0	1.107619E+0	1.060412E+0	1.074880E+0	1.111478E+0	1.124396E+0	1.118473E+0	1.117909E+0	1.093781E+0	1.085325E+0	1.090337E+0	1.089907E+0	1.135707E+0	1.142818E+0	1.088556E+0	1.114686E+0	1.105693E+0	1.254500E+0
5.385110E+2	1.381940E+0	1.386909E+0	1.340887E+0	1.325832E+0	1.365234E+0	1.299722E+0	1.319336E+0	1.341137E+0	1.283200E+0	1.312889E+0	1.326883E+0	1.293068E+0	1.331439E+0	1.362283E+0	1.319696E+0	1.314004E+0	1.298432E+0	1.357128E+0	1.318500E+0	1.317904E+0	1.370242E+0	1.326637E+0	1.339723E+0	1.278627E+0	1.339770E+0	1.315370E+0	1.354992E+0	1.352666E+0	1.268685E+0	1.275575E+0	1.325988E+0	1.407100E+0	1.308443E+0	1.339979E+0	1.335076E+0	1.285565E+0	1.311075E+0	1.344957E+0	1.337191E+0	1.325094E+0	1.352618E+0	1.355266E+0	1.390906E+0	1.368241E+0	1.296863E+0	1.317090E+0	1.341453E+0	1.322903E+0	1.311981E+0	1.349521E+0	1.282921E+0	1.285439E+0	1.319644E+0	1.314806E+0	1.323277E+0	1.331105E+0	1.323134E+0	1.298633E+0	1.390541E+0	1.296259E+0	1.289771E+0	1.323764E+0	1.294150E+0	1.307579E+0	1.283695E+0	1.321373E+0	1.328422E+0	1.308229E+0	1.315931E+0	1.385818E+0	1.319861E+0	1.354880E+0	1.252531E+0	1.293693E+0	1.352094E+0	1.354747E+0	1.294644E+0	1.296327E+0	1.367572E+0	1.331459E+0	1.320817E+0	1.316321E+0	1.331544E+0	1.334125E+0	1.334499E+0	1.317472E+0	1.332327E+0	1.387154E+0	1.337683E+0	1.340251E+0	1.316768E+0	1.346101E+0	1.296085E+0	1.354370E+0	1.344884E+0	1.323126E+0	1.278292E+0	1.294935E+0	1.343154E+0	1.312705E+0	1.292074E+0	1.347547E+0	1.315815E+0	1.333221E+0	1.287267E+0	1.290908E+0	1.351190E+0	1.311119E+0	1.306569E+0	1.352387E+0	1.296359E+0	1.316446E+0	1.301406E+0	1.316912E+0	1.281629E+0	1.286592E+0	1.362034E+0	1.337628E+0	1.287646E+0	1.353835E+0	1.296681E+0	1.317599E+0	1.305571E+0	1.329763E+0	1.267867E+0	1.303510E+0	1.314107E+0	1.294325E+0	1.264423E+0	1.282118E+0	1.344940E+0	1.287883E+0	1.330502E+0	1.309983E+0	1.361600E+0	1.297262E+0	1.311171E+0	1.363070E+0	1.263711E+0	1.335223E+0	1.261573E+0	1.337847E+0	1.354691E+0	1.338859E+0	1.291018E+0	1.334236E+0	1.354441E+0	1.312271E+0	1.354814E+0	1.303601E+0	1.341499E+0	1.261386E+0	1.294804E+0	1.353607E+0	1.363678E+0	1.301588E+0	1.320660E+0	1.269676E+0	1.347001E+0	1.357107E+0	1.345239E+0	1.322586E+0	1.361831E+0	1.285280E+0	1.273960E+0	1.342251E+0	1.307253E+0	1.297422E+0	1.317988E+0	1.301001E+0	1.335095E+0
5.387700E+2	1.578417E+0	1.532027E+0	1.562427E+0	1.531938E+0	1.577165E+0	1.569048E+0	1.499816E+0	1.496004E+0	1.586849E+0	1.521704E+0	1.549374E+0	1.600077E+0	1.502810E+0	1.582904E+0	1.525862E+0	1.545719E+0	1.564514E+0	1.567988E+0	1.525232E+0	1.531342E+0	1.569404E+0	1.601737E+0	1.562637E+0	1.571550E+0	1.546847E+0	1.519492E+0	1.574701E+0	1.568580E+0	1.525740E+0	1.514254E+0	1.537449E+0	1.555131E+0	1.552193E+0	1.582607E+0	1.555311E+0	1.525539E+0	1.535739E+0	1.549704E+0	1.510907E+0	1.524265E+0	1.536182E+0	1.525113E+0	1.575738E+0	1.608105E+0	1.519376E+0	1.524311E+0	1.594161E+0	1.576587E+0	1.574309E+0	1.496347E+0	1.494696E+0	1.517584E+0	1.568649E+0	1.559356E+0	1.528172E+0	1.540878E+0	1.555660E+0	1.544093E+0	1.575691E+0	1.513130E+0	1.542311E+0	1.496269E+0	1.561524E+0	1.554017E+0	1.471051E+0	1.539827E+0	1.528588E+0	1.534271E+0	1.579472E+0	1.541823E+0	1.508098E+0	1.597413E+0	1.475295E+0	1.455031E+0	1.546490E+0	1.593215E+0	1.539030E+0	1.532145E+0	1.552584E+0	1.520239E+0	1.526971E+0	1.507879E+0	1.517499E+0	1.551716E+0	1.507439E+0	1.507980E+0	1.566572E+0	1.586130E+0	1.541540E+0	1.567486E+0	1.564226E+0	1.523207E+0	1.498234E+0	1.543726E+0	1.548419E+0	1.541538E+0	1.540611E+0	1.508765E+0	1.556169E+0	1.522920E+0	1.528615E+0	1.510559E+0	1.502112E+0	1.494093E+0	1.506229E+0	1.471679E+0	1.534185E+0	1.482766E+0	1.570694E+0	1.557419E+0	1.568243E+0	1.510787E+0	1.544468E+0	1.509257E+0	1.493309E+0	1.484084E+0	1.574622E+0	1.519922E+0	1.559589E+0	1.497365E+0	1.499374E+0	1.523375E+0	1.522512E+0	1.540065E+0	1.516042E+0	1.478713E+0	1.602352E+0	1.525147E+0	1.506252E+0	1.500501E+0	1.532532E+0	1.506292E+0	1.539422E+0	1.501073E+0	1.544031E+0	1.518293E+0	1.481960E+0	1.494237E+0	1.507217E+0	1.527377E+0	1.462932E+0	1.505115E+0	1.526834E+0	1.457917E+0	1.439912E+0	1.489775E+0	1.596490E+0	1.464867E+0	1.541285E+0	1.497742E+0	1.561019E+0	1.513797E+0	1.523328E+0	1.544036E+0	1.578246E+0	1.470196E+0	1.460909E+0	1.530560E+0	1.537056E+0	1.491951E+0	1.502748E+0	1.516933E+0	1.501048E+0	1.450649E+0	1.526701E+0	1.544851E+0	1.504811E+0	1.489894E+0	1.500233E+0	1.557866E+0	1.622306E+0
5.390240E+2	1.783085E+0	1.825625E+0	1.773533E+0	1.758173E+0	1.739590E+0	1.729308E+0	1.803891E+0	1.810352E+0	1.791972E+0	1.715590E+0	1.753656E+0	1.756413E+0	1.763993E+0	1.789302E+0	1.691374E+0	1.757354E+0	1.749843E+0	1.757389E+0	1.783477E+0	1.748193E+0	1.772952E+0	1.736411E+0	1.755248E+0	1.751121E+0	1.721870E+0	1.766345E+0	1.830425E+0	1.783622E+0	1.732259E+0	1.745048E+0	1.800819E+0	1.698441E+0	1.702954E+0	1.805528E+0	1.796117E+0	1.748034E+0	1.772343E+0	1.713337E+0	1.753627E+0	1.739993E+0	1.768144E+0	1.748689E+0	1.752918E+0	1.801242E+0	1.722042E+0	1.747792E+0	1.696074E+0	1.735988E+0	1.742134E+0	1.702138E+0	1.756449E+0	1.796921E+0	1.727079E+0	1.796671E+0	1.726795E+0	1.728849E+0	1.759971E+0	1.743747E+0	1.763325E+0	1.763589E+0	1.723250E+0	1.746959E+0	1.784745E+0	1.722606E+0	1.710631E+0	1.771471E+0	1.697833E+0	1.780291E+0	1.742255E+0	1.752015E+0	1.719642E+0	1.754529E+0	1.665361E+0	1.702598E+0	1.780092E+0	1.768259E+0	1.664759E+0	1.708189E+0	1.810337E+0	1.741026E+0	1.762098E+0	1.759753E+0	1.774196E+0	1.785381E+0	1.765450E+0	1.667078E+0	1.769477E+0	1.746173E+0	1.696615E+0	1.745162E+0	1.679406E+0	1.693601E+0	1.691189E+0	1.728058E+0	1.751285E+0	1.775024E+0	1.771932E+0	1.710660E+0	1.731457E+0	1.691894E+0	1.738519E+0	1.736780E+0	1.722344E+0	1.681531E+0	1.723533E+0	1.690645E+0	1.739288E+0	1.744732E+0	1.722725E+0	1.733397E+0	1.759289E+0	1.680542E+0	1.737828E+0	1.782395E+0	1.743845E+0	1.658733E+0	1.705134E+0	1.679729E+0	1.723731E+0	1.718369E+0	1.670768E+0	1.694373E+0	1.752762E+0	1.754874E+0	1.685737E+0	1.737114E+0	1.770674E+0	1.687391E+0	1.737332E+0	1.744569E+0	1.719886E+0	1.690285E+0	1.780008E+0	1.701432E+0	1.756258E+0	1.714679E+0	1.664198E+0	1.684305E+0	1.782860E+0	1.681702E+0	1.660326E+0	1.695929E+0	1.711131E+0	1.743260E+0	1.709473E+0	1.625464E+0	1.740636E+0	1.721694E+0	1.748354E+0	1.787658E+0	1.725753E+0	1.684064E+0	1.683741E+0	1.785623E+0	1.789187E+0	1.704436E+0	1.703131E+0	1.664339E+0	1.806408E+0	1.668324E+0	1.610032E+0	1.692239E+0	1.777832E+0	1.673383E+0	1.691939E+0	1.716151E+0	1.742934E+0	1.767572E+0	1.663514E+0	1.594801E+0	1.665066E+0
5.392880E+2	1.982882E+0	1.913583E+0	1.980730E+0	1.891616E+0	1.897085E+0	1.955671E+0	1.952814E+0	1.949584E+0	1.961302E+0	1.911718E+0	1.961816E+0	1.922454E+0	1.932131E+0	1.969017E+0	1.943798E+0	1.941273E+0	1.965427E+0	1.989208E+0	1.929603E+0	1.925615E+0	1.999086E+0	1.959295E+0	1.925154E+0	1.945613E+0	1.914713E+0	1.916240E+0	1.928520E+0	1.965459E+0	1.917721E+0	1.870972E+0	1.962720E+0	1.886614E+0	1.968541E+0	1.907890E+0	1.887891E+0	1.933353E+0	1.934526E+0	1.928057E+0	1.959965E+0	1.940993E+0	1.872318E+0	1.878913E+0	1.999227E+0	1.905003E+0	1.912964E+0	1.957908E+0	1.930726E+0	1.947387E+0	1.919062E+0	1.897385E+0	1.900800E+0	1.940446E+0	1.900916E+0	1.950288E+0	1.959660E+0	1.962710E+0	1.953932E+0	1.903829E+0	1.937132E+0	1.940597E+0	1.910991E+0	1.876849E+0	1.901575E+0	1.955547E+0	1.886795E+0	1.983324E+0	1.920237E+0	1.902554E+0	1.857432E+0	1.943063E+0	1.891262E+0	1.991940E+0	1.859642E+0	1.896599E+0	1.903456E+0	1.930786E+0	1.876451E+0	1.844652E+0	2.032908E+0	1.929841E+0	1.943995E+0	1.920449E+0	1.911869E+0	1.891707E+0	1.841778E+0	1.921738E+0	1.904309E+0	1.913501E+0	1.911345E+0	1.880140E+0	1.908727E+0	1.937028E+0	1.939829E+0	1.874655E+0	1.868336E+0	1.895226E+0	1.866982E+0	1.901147E+0	1.863145E+0	1.937006E+0	1.887210E+0	1.922300E+0	1.855315E+0	1.879882E+0	1.877918E+0	1.880303E+0	1.965062E+0	1.886297E+0	1.849932E+0	1.923105E+0	1.972998E+0	1.946701E+0	1.874767E+0	1.937862E+0	1.892075E+0	1.860926E+0	1.904358E+0	1.899797E+0	1.923160E+0	1.808571E+0	1.819129E+0	1.893137E+0	1.898504E+0	1.890423E+0	1.860990E+0	1.817275E+0	1.961923E+0	1.844312E+0	1.932686E+0	1.819226E+0	1.904275E+0	1.788911E+0	1.925215E+0	1.861511E+0	1.855788E+0	1.868250E+0	1.867065E+0	1.811197E+0	1.911950E+0	1.905011E+0	1.893790E+0	1.895141E+0	1.885507E+0	1.832068E+0	1.865215E+0	1.872946E+0	1.863453E+0	1.842644E+0	1.948694E+0	1.866277E+0	1.904368E+0	1.864713E+0	1.831976E+0	1.934638E+0	1.922875E+0	1.804928E+0	1.914560E+0	1.818700E+0	1.893073E+0	1.907115E+0	1.844472E+0	1.839551E+0	1.890698E+0	1.878167E+0	1.819705E+0	1.849586E+0	1.878423E+0	1.889677E+0	1.795313E+0	1.919320E+0	1.780985E+0
5.395210E+2	2.153301E+0	2.056864E+0	2.152268E+0	2.038297E+0	2.097059E+0	2.032378E+0	2.126717E+0	2.125123E+0	2.061791E+0	2.045553E+0	2.024045E+0	2.087483E+0	2.093557E+0	2.035435E+0	2.024200E+0	2.093423E+0	2.140822E+0	2.078817E+0	2.008338E+0	2.095022E+0	2.170627E+0	2.021849E+0	2.095893E+0	2.131182E+0	2.085505E+0	2.027167E+0	2.057074E+0	2.013333E+0	2.030656E+0	2.037976E+0	2.064642E+0	2.057402E+0	2.037284E+0	2.062013E+0	2.067425E+0	2.013728E+0	2.064154E+0	2.012761E+0	2.032621E+0	2.075325E+0	2.020874E+0	2.051906E+0	2.137277E+0	2.118987E+0	1.992830E+0	1.988805E+0	2.094922E+0	1.994904E+0	2.024907E+0	2.109779E+0	2.092018E+0	2.041659E+0	2.046863E+0	2.012740E+0	2.023369E+0	2.078529E+0	2.032588E+0	2.033894E+0	2.071693E+0	2.035034E+0	1.982578E+0	1.993566E+0	2.076253E+0	2.029450E+0	2.049950E+0	2.055001E+0	2.049350E+0	1.978984E+0	2.040102E+0	2.033040E+0	2.013253E+0	2.082436E+0	2.043773E+0	2.073766E+0	2.077797E+0	2.068362E+0	1.936307E+0	1.988536E+0	2.095164E+0	2.028754E+0	1.945770E+0	2.060513E+0	1.994732E+0	2.031150E+0	2.002027E+0	2.097767E+0	2.002170E+0	2.027632E+0	2.085852E+0	2.057040E+0	2.065263E+0	1.998109E+0	2.033593E+0	2.056970E+0	1.995621E+0	2.018480E+0	2.045708E+0	2.001970E+0	2.092130E+0	2.018883E+0	1.988149E+0	2.012026E+0	2.008157E+0	2.008588E+0	2.059195E+0	1.908987E+0	2.064731E+0	2.000793E+0	1.977198E+0	2.024264E+0	2.129448E+0	1.969765E+0	2.048746E+0	2.057946E+0	2.037120E+0	1.971164E+0	1.992469E+0	1.996010E+0	2.057090E+0	1.988481E+0	1.938732E+0	2.023602E+0	1.981843E+0	1.997200E+0	1.950635E+0	1.997611E+0	2.015212E+0	1.944462E+0	1.986081E+0	2.011039E+0	2.043874E+0	2.055421E+0	1.983988E+0	1.968273E+0	2.001062E+0	1.982416E+0	2.002078E+0	1.998050E+0	2.031893E+0	2.045231E+0	1.963839E+0	1.933566E+0	2.094598E+0	2.035350E+0	1.962651E+0	1.988208E+0	2.031504E+0	2.039375E+0	2.020991E+0	1.957669E+0	1.996475E+0	1.987699E+0	1.967381E+0	2.044894E+0	2.028599E+0	1.945556E+0	1.970027E+0	1.949130E+0	1.996177E+0	2.032715E+0	1.986130E+0	1.997657E+0	2.015199E+0	1.996655E+0	1.983330E+0	1.981662E+0	1.998241E+0	2.005909E+0	2.005557E+0	2.015175E+0	2.019471E+0
5.397970E+2	2.168029E+0	2.183007E+0	2.162540E+0	2.122883E+0	2.092265E+0	2.123842E+0	2.172832E+0	2.113078E+0	2.139919E+0	2.136827E+0	2.043716E+0	2.109431E+0	2.106804E+0	2.046012E+0	2.087446E+0	2.124048E+0	2.152213E+0	2.098750E+0	2.102971E+0	2.161760E+0	2.162853E+0	2.117102E+0	2.109386E+0	2.128851E+0	2.038698E+0	2.118181E+0	2.095674E+0	2.087221E+0	2.043155E+0	2.078058E+0	2.077777E+0	2.162209E+0	2.086859E+0	2.120910E+0	2.126535E+0	2.089468E+0	2.136567E+0	2.119611E+0	2.126389E+0	2.089414E+0	2.126667E+0	2.080228E+0	2.154205E+0	2.095650E+0	2.078536E+0	2.145277E+0	2.098584E+0	2.128419E+0	2.132191E+0	2.073386E+0	2.057533E+0	2.059424E+0	2.071903E+0	2.120823E+0	2.131912E+0	2.097434E+0	2.152010E+0	2.135154E+0	2.176130E+0	2.079601E+0	2.047374E+0	2.045398E+0	2.112253E+0	2.091514E+0	2.065323E+0	2.094918E+0	2.050486E+0	2.103132E+0	2.050389E+0	2.143891E+0	2.056587E+0	2.107194E+0	2.066110E+0	2.065529E+0	2.135073E+0	2.095866E+0	2.010909E+0	2.071021E+0	2.141989E+0	2.091141E+0	2.032152E+0	2.084864E+0	2.099276E+0	2.071612E+0	2.033034E+0	2.108132E+0	2.063005E+0	2.093294E+0	2.065845E+0	2.031489E+0	2.097445E+0	2.081118E+0	2.029664E+0	2.123354E+0	2.132391E+0	2.085821E+0	2.077495E+0	2.022497E+0	2.088881E+0	2.074196E+0	2.077075E+0	2.077914E+0	2.102552E+0	2.014845E+0	2.007948E+0	2.068600E+0	2.138068E+0	2.018590E+0	1.982259E+0	2.053494E+0	2.178300E+0	2.029248E+0	2.069227E+0	2.034747E+0	2.063034E+0	2.047412E+0	2.131168E+0	2.056463E+0	2.073662E+0	2.027697E+0	2.084930E+0	1.977066E+0	2.098632E+0	2.062738E+0	2.093751E+0	2.031765E+0	2.089024E+0	2.041857E+0	2.012726E+0	2.012486E+0	2.032116E+0	2.023262E+0	2.058442E+0	2.008690E+0	2.051030E+0	2.083961E+0	2.050482E+0	2.030117E+0	2.026549E+0	2.079356E+0	2.015352E+0	2.083335E+0	2.089056E+0	1.936590E+0	1.991848E+0	2.096296E+0	2.069130E+0	2.043840E+0	2.081620E+0	1.972502E+0	2.090606E+0	1.977663E+0	2.021433E+0	2.101733E+0	2.068855E+0	2.017286E+0	2.011383E+0	2.015036E+0	2.109233E+0	2.043470E+0	1.972299E+0	2.070321E+0	2.000742E+0	2.096454E+0	2.018101E+0	2.141835E+0	2.070532E+0	2.045665E+0	1.980836E+0	2.040281E+0	2.152171E+0
5.400240E+2	2.091141E+0	2.055224E+0	2.110532E+0	2.082846E+0	2.022746E+0	2.070663E+0	2.098861E+0	2.054152E+0	2.082084E+0	2.141100E+0	2.026663E+0	2.083716E+0	2.099574E+0	2.049968E+0	2.067691E+0	2.122302E+0	2.131432E+0	2.090714E+0	2.081405E+0	2.080208E+0	2.140634E+0	2.008950E+0	2.105983E+0	2.063909E+0	1.993085E+0	2.006053E+0	2.100333E+0	2.091231E+0	2.116426E+0	2.028186E+0	2.027533E+0	2.100495E+0	2.068734E+0	2.109207E+0	2.091987E+0	2.069817E+0	1.986490E+0	2.062315E+0	2.123720E+0	2.030240E+0	2.088695E+0	2.034517E+0	2.065022E+0	2.070609E+0	1.986269E+0	2.081910E+0	2.051808E+0	2.064819E+0	2.139414E+0	2.000521E+0	2.067899E+0	2.049774E+0	1.949862E+0	2.107963E+0	2.102955E+0	2.070251E+0	2.050131E+0	2.066374E+0	2.023865E+0	2.054150E+0	2.054167E+0	2.054968E+0	2.020470E+0	2.043821E+0	2.008635E+0	2.053605E+0	2.039218E+0	2.071695E+0	2.049840E+0	2.102824E+0	2.056273E+0	2.086446E+0	2.066918E+0	2.039406E+0	2.031570E+0	2.033293E+0	1.972801E+0	2.023134E+0	2.105588E+0	2.056238E+0	2.055131E+0	2.042844E+0	2.052549E+0	2.035724E+0	2.021929E+0	2.008181E+0	2.075645E+0	2.004499E+0	2.095418E+0	1.981113E+0	2.020176E+0	1.970658E+0	1.979740E+0	2.082947E+0	2.015341E+0	2.006205E+0	2.074209E+0	2.044853E+0	2.092713E+0	1.995560E+0	2.026138E+0	2.037087E+0	2.075469E+0	1.990055E+0	2.039908E+0	1.998275E+0	2.064863E+0	1.989590E+0	1.948322E+0	2.035670E+0	2.059336E+0	1.929378E+0	1.980367E+0	2.013190E+0	2.068960E+0	2.011629E+0	2.022456E+0	2.027974E+0	2.001072E+0	2.043577E+0	2.022359E+0	1.972023E+0	2.097792E+0	2.019863E+0	1.972091E+0	1.994085E+0	2.090445E+0	1.976475E+0	1.966582E+0	1.972395E+0	2.019172E+0	2.016755E+0	2.029476E+0	1.981409E+0	2.009905E+0	1.980134E+0	2.053740E+0	2.000034E+0	2.108617E+0	2.074013E+0	1.956001E+0	1.982104E+0	2.043043E+0	1.931081E+0	2.020787E+0	2.000900E+0	2.073043E+0	1.966491E+0	1.982949E+0	1.971854E+0	2.043663E+0	1.981712E+0	1.991197E+0	1.999368E+0	2.047625E+0	2.005226E+0	1.990993E+0	1.964914E+0	1.942455E+0	2.048762E+0	1.979946E+0	2.008984E+0	1.926859E+0	2.085512E+0	1.966118E+0	2.052714E+0	1.990339E+0	2.007754E+0	1.936434E+0	1.958628E+0	2.012418E+0
5.402790E+2	1.912672E+0	1.948166E+0	1.922820E+0	1.911328E+0	1.967280E+0	1.913907E+0	1.923247E+0	1.916173E+0	1.957652E+0	1.930618E+0	1.931920E+0	1.942094E+0	2.000815E+0	1.932594E+0	1.899670E+0	1.950650E+0	1.902967E+0	1.960537E+0	1.848665E+0	1.932818E+0	1.902204E+0	1.936904E+0	1.951691E+0	1.936174E+0	1.969207E+0	1.969959E+0	1.957647E+0	1.961089E+0	1.899276E+0	1.929521E+0	1.890484E+0	1.889292E+0	1.942242E+0	1.977701E+0	1.925826E+0	1.884946E+0	1.959900E+0	1.993487E+0	1.950383E+0	1.973852E+0	1.912788E+0	1.934088E+0	1.907916E+0	1.977602E+0	1.938032E+0	1.935261E+0	1.893967E+0	1.968249E+0	1.985830E+0	1.907831E+0	1.928847E+0	1.902589E+0	1.865462E+0	1.971679E+0	1.949824E+0	1.905885E+0	1.944901E+0	1.905081E+0	1.957282E+0	1.913978E+0	1.912345E+0	1.922330E+0	1.940109E+0	1.918636E+0	1.927768E+0	1.914354E+0	1.908536E+0	1.984699E+0	1.903557E+0	1.903832E+0	1.913237E+0	1.987874E+0	1.919257E+0	1.932279E+0	1.927679E+0	1.980564E+0	1.861776E+0	1.929066E+0	1.885665E+0	1.906405E+0	1.896167E+0	1.894517E+0	1.899604E+0	1.964170E+0	1.933589E+0	1.857660E+0	1.937811E+0	1.885977E+0	1.902431E+0	1.862865E+0	1.863851E+0	1.950519E+0	1.883327E+0	1.938053E+0	1.900921E+0	1.931472E+0	1.910969E+0	1.942208E+0	1.921205E+0	1.948439E+0	1.892488E+0	1.892836E+0	1.892247E+0	1.873892E+0	1.949623E+0	1.941646E+0	1.940168E+0	1.844516E+0	1.893265E+0	1.972449E+0	1.942880E+0	1.900417E+0	1.911626E+0	1.885891E+0	1.851529E+0	1.845185E+0	1.886159E+0	1.869361E+0	1.910619E+0	1.853585E+0	1.859051E+0	1.826904E+0	1.899627E+0	1.835166E+0	1.916600E+0	1.891478E+0	1.923203E+0	1.868179E+0	1.921626E+0	1.892454E+0	1.888204E+0	1.828325E+0	1.906346E+0	1.904836E+0	1.858693E+0	1.951400E+0	1.861445E+0	1.866542E+0	1.856601E+0	1.910612E+0	1.835882E+0	1.881523E+0	1.881320E+0	1.865534E+0	1.833530E+0	1.955536E+0	1.900081E+0	1.882798E+0	1.871117E+0	1.867059E+0	1.967172E+0	1.851346E+0	1.805036E+0	1.888477E+0	1.968077E+0	1.881844E+0	1.914127E+0	1.832190E+0	1.916680E+0	1.918675E+0	1.863269E+0	1.884022E+0	1.859272E+0	1.890526E+0	1.825212E+0	1.924487E+0	1.866471E+0	1.882940E+0	1.804927E+0	1.942366E+0	1.906042E+0
5.405020E+2	1.878547E+0	1.795640E+0	1.864166E+0	1.793139E+0	1.844041E+0	1.840190E+0	1.811273E+0	1.789004E+0	1.854690E+0	1.833900E+0	1.864273E+0	1.853936E+0	1.813555E+0	1.844074E+0	1.848666E+0	1.844949E+0	1.829355E+0	1.861226E+0	1.813453E+0	1.828333E+0	1.870887E+0	1.855809E+0	1.864030E+0	1.918567E+0	1.834865E+0	1.830092E+0	1.811457E+0	1.827411E+0	1.764596E+0	1.799638E+0	1.808184E+0	1.836394E+0	1.786966E+0	1.884068E+0	1.832220E+0	1.874853E+0	1.869456E+0	1.828942E+0	1.842673E+0	1.851417E+0	1.823420E+0	1.818912E+0	1.850072E+0	1.836648E+0	1.774743E+0	1.797576E+0	1.822498E+0	1.885031E+0	1.798705E+0	1.816734E+0	1.819895E+0	1.866700E+0	1.822254E+0	1.869764E+0	1.844992E+0	1.861303E+0	1.838437E+0	1.863239E+0	1.854893E+0	1.862432E+0	1.832527E+0	1.829344E+0	1.832940E+0	1.835553E+0	1.776158E+0	1.845862E+0	1.821784E+0	1.897457E+0	1.848368E+0	1.783583E+0	1.812707E+0	1.814136E+0	1.741202E+0	1.826884E+0	1.800797E+0	1.942162E+0	1.802196E+0	1.788482E+0	1.838820E+0	1.833661E+0	1.748791E+0	1.812484E+0	1.838402E+0	1.789843E+0	1.834652E+0	1.811911E+0	1.818708E+0	1.839252E+0	1.853103E+0	1.796247E+0	1.803920E+0	1.852402E+0	1.851311E+0	1.791695E+0	1.805982E+0	1.843988E+0	1.819431E+0	1.829007E+0	1.862343E+0	1.802086E+0	1.760728E+0	1.801266E+0	1.807760E+0	1.754702E+0	1.819723E+0	1.761903E+0	1.796408E+0	1.811732E+0	1.826628E+0	1.811952E+0	1.807851E+0	1.835592E+0	1.827137E+0	1.876265E+0	1.807264E+0	1.754602E+0	1.843077E+0	1.804885E+0	1.780984E+0	1.788007E+0	1.776966E+0	1.802013E+0	1.779452E+0	1.784003E+0	1.767862E+0	1.816649E+0	1.836838E+0	1.825375E+0	1.807125E+0	1.747556E+0	1.767624E+0	1.753963E+0	1.781924E+0	1.804435E+0	1.761587E+0	1.774226E+0	1.878597E+0	1.745694E+0	1.763411E+0	1.880522E+0	1.742168E+0	1.813216E+0	1.827195E+0	1.810517E+0	1.710836E+0	1.731477E+0	1.831021E+0	1.811579E+0	1.819052E+0	1.777849E+0	1.785720E+0	1.755617E+0	1.785474E+0	1.843682E+0	1.864288E+0	1.731474E+0	1.804808E+0	1.801330E+0	1.834891E+0	1.808388E+0	1.784989E+0	1.797541E+0	1.738835E+0	1.772553E+0	1.807675E+0	1.787275E+0	1.791042E+0	1.782711E+0	1.720925E+0	1.887401E+0	1.726591E+0
5.407740E+2	1.732722E+0	1.733492E+0	1.809175E+0	1.749554E+0	1.765329E+0	1.727903E+0	1.812826E+0	1.744963E+0	1.650206E+0	1.748382E+0	1.770954E+0	1.760068E+0	1.718190E+0	1.753702E+0	1.742776E+0	1.826084E+0	1.799173E+0	1.777168E+0	1.753113E+0	1.776823E+0	1.709421E+0	1.763570E+0	1.793434E+0	1.782686E+0	1.751336E+0	1.702458E+0	1.732792E+0	1.768069E+0	1.698809E+0	1.688085E+0	1.702251E+0	1.737093E+0	1.743828E+0	1.829960E+0	1.705855E+0	1.710504E+0	1.709815E+0	1.702273E+0	1.712071E+0	1.740320E+0	1.729069E+0	1.734376E+0	1.773502E+0	1.762536E+0	1.762002E+0	1.756105E+0	1.746822E+0	1.792306E+0	1.766041E+0	1.753937E+0	1.747485E+0	1.733435E+0	1.718516E+0	1.794866E+0	1.776800E+0	1.720077E+0	1.675821E+0	1.678865E+0	1.678174E+0	1.679006E+0	1.745760E+0	1.698260E+0	1.710353E+0	1.741877E+0	1.758156E+0	1.772932E+0	1.727805E+0	1.774081E+0	1.830670E+0	1.752188E+0	1.714583E+0	1.742244E+0	1.693536E+0	1.686568E+0	1.692321E+0	1.765449E+0	1.701075E+0	1.725816E+0	1.736836E+0	1.752131E+0	1.693430E+0	1.751886E+0	1.741487E+0	1.760216E+0	1.639589E+0	1.731614E+0	1.756970E+0	1.717045E+0	1.751300E+0	1.785888E+0	1.649931E+0	1.804035E+0	1.700546E+0	1.697068E+0	1.703938E+0	1.752219E+0	1.702808E+0	1.749773E+0	1.672042E+0	1.705807E+0	1.709036E+0	1.746908E+0	1.735563E+0	1.644140E+0	1.690537E+0	1.675335E+0	1.762357E+0	1.699840E+0	1.673833E+0	1.784532E+0	1.773218E+0	1.681687E+0	1.713730E+0	1.742888E+0	1.671230E+0	1.729787E+0	1.662765E+0	1.658077E+0	1.719234E+0	1.678585E+0	1.705222E+0	1.710567E+0	1.662439E+0	1.693452E+0	1.632083E+0	1.688761E+0	1.728537E+0	1.702726E+0	1.721349E+0	1.682152E+0	1.630227E+0	1.713514E+0	1.755787E+0	1.721135E+0	1.700918E+0	1.678151E+0	1.692281E+0	1.682258E+0	1.780402E+0	1.646611E+0	1.711545E+0	1.722039E+0	1.680674E+0	1.651939E+0	1.687940E+0	1.699225E+0	1.714349E+0	1.720339E+0	1.719793E+0	1.697406E+0	1.752763E+0	1.715034E+0	1.609248E+0	1.771684E+0	1.672336E+0	1.648159E+0	1.667634E+0	1.674183E+0	1.657292E+0	1.724820E+0	1.667007E+0	1.672912E+0	1.685099E+0	1.709092E+0	1.653475E+0	1.758308E+0	1.697592E+0	1.684310E+0	1.645724E+0	1.714911E+0	1.677276E+0
5.410190E+2	1.729699E+0	1.723675E+0	1.710817E+0	1.672888E+0	1.689568E+0	1.688902E+0	1.695621E+0	1.710913E+0	1.705817E+0	1.639782E+0	1.678862E+0	1.733893E+0	1.736240E+0	1.682584E+0	1.726975E+0	1.722658E+0	1.703767E+0	1.724715E+0	1.715583E+0	1.689986E+0	1.753729E+0	1.682921E+0	1.749052E+0	1.745869E+0	1.687138E+0	1.718682E+0	1.745167E+0	1.713498E+0	1.655854E+0	1.674770E+0	1.669445E+0	1.727379E+0	1.616214E+0	1.680362E+0	1.719130E+0	1.771977E+0	1.629177E+0	1.711928E+0	1.734349E+0	1.689462E+0	1.673386E+0	1.727081E+0	1.701266E+0	1.777713E+0	1.656388E+0	1.737728E+0	1.666377E+0	1.713903E+0	1.710073E+0	1.668936E+0	1.701852E+0	1.617253E+0	1.675159E+0	1.679339E+0	1.635319E+0	1.728340E+0	1.641144E+0	1.619046E+0	1.733895E+0	1.698354E+0	1.657178E+0	1.714948E+0	1.733858E+0	1.730692E+0	1.657095E+0	1.692879E+0	1.615214E+0	1.683930E+0	1.744767E+0	1.723841E+0	1.689432E+0	1.696465E+0	1.696178E+0	1.683852E+0	1.677186E+0	1.712391E+0	1.671115E+0	1.648965E+0	1.717812E+0	1.727062E+0	1.667147E+0	1.677272E+0	1.742607E+0	1.670555E+0	1.639281E+0	1.698858E+0	1.690430E+0	1.653863E+0	1.748178E+0	1.675696E+0	1.699335E+0	1.685879E+0	1.634569E+0	1.703235E+0	1.664032E+0	1.686750E+0	1.668556E+0	1.705836E+0	1.652093E+0	1.666977E+0	1.740377E+0	1.671815E+0	1.671082E+0	1.651316E+0	1.726528E+0	1.638318E+0	1.713348E+0	1.691932E+0	1.603070E+0	1.675141E+0	1.665085E+0	1.725100E+0	1.702225E+0	1.670584E+0	1.641314E+0	1.615858E+0	1.749151E+0	1.682950E+0	1.678117E+0	1.641501E+0	1.652177E+0	1.585329E+0	1.697749E+0	1.675500E+0	1.645628E+0	1.644839E+0	1.685870E+0	1.674317E+0	1.695814E+0	1.640016E+0	1.643610E+0	1.690958E+0	1.715760E+0	1.672765E+0	1.712782E+0	1.673693E+0	1.723470E+0	1.660099E+0	1.668603E+0	1.676256E+0	1.638661E+0	1.699433E+0	1.632446E+0	1.665904E+0	1.635102E+0	1.626479E+0	1.699203E+0	1.655356E+0	1.693542E+0	1.628686E+0	1.695291E+0	1.590084E+0	1.695304E+0	1.713982E+0	1.640171E+0	1.697567E+0	1.645561E+0	1.652459E+0	1.651918E+0	1.695855E+0	1.616483E+0	1.686547E+0	1.653713E+0	1.651128E+0	1.661481E+0	1.681923E+0	1.645697E+0	1.731024E+0	1.723647E+0	1.655821E+0	1.628516E+0
5.412790E+2	1.645039E+0	1.643058E+0	1.614735E+0	1.684452E+0	1.607057E+0	1.595160E+0	1.642960E+0	1.636779E+0	1.596329E+0	1.641647E+0	1.624875E+0	1.596747E+0	1.614140E+0	1.599361E+0	1.553682E+0	1.673620E+0	1.637414E+0	1.629988E+0	1.589195E+0	1.641505E+0	1.662998E+0	1.611148E+0	1.603850E+0	1.612190E+0	1.624775E+0	1.590016E+0	1.590156E+0	1.638732E+0	1.601054E+0	1.560009E+0	1.619806E+0	1.569303E+0	1.567056E+0	1.616687E+0	1.616024E+0	1.636443E+0	1.615679E+0	1.670227E+0	1.576220E+0	1.562702E+0	1.625497E+0	1.563779E+0	1.641602E+0	1.583405E+0	1.531127E+0	1.592120E+0	1.593249E+0	1.638934E+0	1.536514E+0	1.618961E+0	1.586216E+0	1.613950E+0	1.589865E+0	1.644549E+0	1.619786E+0	1.634318E+0	1.656717E+0	1.583471E+0	1.595750E+0	1.582215E+0	1.628100E+0	1.681553E+0	1.619431E+0	1.647139E+0	1.579637E+0	1.634227E+0	1.531062E+0	1.590571E+0	1.616750E+0	1.672514E+0	1.605668E+0	1.609048E+0	1.524595E+0	1.579415E+0	1.550243E+0	1.615969E+0	1.523730E+0	1.598858E+0	1.597139E+0	1.604362E+0	1.567914E+0	1.622558E+0	1.614146E+0	1.613596E+0	1.562052E+0	1.666626E+0	1.586995E+0	1.582176E+0	1.606733E+0	1.580929E+0	1.583763E+0	1.642294E+0	1.569377E+0	1.582184E+0	1.566357E+0	1.581211E+0	1.586971E+0	1.547941E+0	1.511286E+0	1.598445E+0	1.636017E+0	1.601960E+0	1.579370E+0	1.575295E+0	1.607434E+0	1.553758E+0	1.632646E+0	1.577264E+0	1.589699E+0	1.577367E+0	1.591016E+0	1.613633E+0	1.618227E+0	1.590906E+0	1.573531E+0	1.567240E+0	1.665510E+0	1.576575E+0	1.625410E+0	1.554175E+0	1.589241E+0	1.548237E+0	1.592504E+0	1.588407E+0	1.553268E+0	1.577944E+0	1.557454E+0	1.588865E+0	1.583214E+0	1.592978E+0	1.520829E+0	1.538450E+0	1.653116E+0	1.622297E+0	1.588144E+0	1.582783E+0	1.580513E+0	1.611611E+0	1.570888E+0	1.640844E+0	1.559746E+0	1.585961E+0	1.551809E+0	1.574984E+0	1.612206E+0	1.574225E+0	1.542304E+0	1.625409E+0	1.620243E+0	1.559039E+0	1.625087E+0	1.560778E+0	1.571645E+0	1.620669E+0	1.587714E+0	1.613715E+0	1.533027E+0	1.575046E+0	1.541564E+0	1.595596E+0	1.604069E+0	1.600315E+0	1.585299E+0	1.564065E+0	1.611741E+0	1.629596E+0	1.560698E+0	1.574187E+0	1.513347E+0	1.643097E+0	1.542381E+0
5.415190E+2	1.406740E+0	1.451434E+0	1.475082E+0	1.400107E+0	1.386593E+0	1.349210E+0	1.463775E+0	1.482192E+0	1.346766E+0	1.423513E+0	1.398111E+0	1.416147E+0	1.401094E+0	1.416550E+0	1.394750E+0	1.434048E+0	1.453521E+0	1.429763E+0	1.448988E+0	1.449741E+0	1.418714E+0	1.405402E+0	1.470186E+0	1.461289E+0	1.380863E+0	1.403801E+0	1.432184E+0	1.458674E+0	1.423306E+0	1.365911E+0	1.399152E+0	1.400577E+0	1.435246E+0	1.431906E+0	1.455253E+0	1.407701E+0	1.459839E+0	1.435028E+0	1.428089E+0	1.424236E+0	1.429802E+0	1.388636E+0	1.416114E+0	1.380311E+0	1.398204E+0	1.395374E+0	1.369755E+0	1.453117E+0	1.427792E+0	1.377034E+0	1.390408E+0	1.477488E+0	1.409851E+0	1.419290E+0	1.406964E+0	1.447020E+0	1.428350E+0	1.453065E+0	1.468780E+0	1.402512E+0	1.412435E+0	1.376756E+0	1.468137E+0	1.406456E+0	1.411232E+0	1.423351E+0	1.421131E+0	1.439261E+0	1.480655E+0	1.416598E+0	1.378922E+0	1.462182E+0	1.415899E+0	1.410974E+0	1.405441E+0	1.430101E+0	1.398815E+0	1.413158E+0	1.438136E+0	1.390192E+0	1.397728E+0	1.456325E+0	1.425758E+0	1.475619E+0	1.415607E+0	1.393245E+0	1.426524E+0	1.390528E+0	1.392962E+0	1.395182E+0	1.442032E+0	1.379625E+0	1.366999E+0	1.443568E+0	1.373419E+0	1.464620E+0	1.403499E+0	1.371995E+0	1.452595E+0	1.438017E+0	1.357993E+0	1.364249E+0	1.396431E+0	1.370504E+0	1.438666E+0	1.383225E+0	1.434239E+0	1.408579E+0	1.403663E+0	1.376913E+0	1.397488E+0	1.407036E+0	1.435540E+0	1.433274E+0	1.368729E+0	1.422604E+0	1.399887E+0	1.430586E+0	1.425994E+0	1.375483E+0	1.416254E+0	1.348243E+0	1.375892E+0	1.408934E+0	1.402561E+0	1.413950E+0	1.399174E+0	1.394629E+0	1.397869E+0	1.379599E+0	1.395793E+0	1.386332E+0	1.406528E+0	1.395311E+0	1.378140E+0	1.349005E+0	1.362897E+0	1.379343E+0	1.405370E+0	1.426917E+0	1.407720E+0	1.404788E+0	1.406659E+0	1.363386E+0	1.415031E+0	1.440899E+0	1.402529E+0	1.364284E+0	1.434083E+0	1.380998E+0	1.391073E+0	1.381005E+0	1.389870E+0	1.441971E+0	1.405501E+0	1.406246E+0	1.348642E+0	1.432655E+0	1.389462E+0	1.451902E+0	1.356712E+0	1.419296E+0	1.377893E+0	1.386629E+0	1.400192E+0	1.389742E+0	1.410721E+0	1.445127E+0	1.392477E+0	1.505927E+0	1.407374E+0
5.417700E+2	1.259179E+0	1.238007E+0	1.250872E+0	1.252221E+0	1.310763E+0	1.210265E+0	1.248160E+0	1.243438E+0	1.239426E+0	1.193130E+0	1.228833E+0	1.245313E+0	1.195326E+0	1.187829E+0	1.236331E+0	1.295285E+0	1.229233E+0	1.237377E+0	1.217273E+0	1.223758E+0	1.255592E+0	1.227908E+0	1.219743E+0	1.262931E+0	1.262513E+0	1.211474E+0	1.210341E+0	1.224554E+0	1.212831E+0	1.225107E+0	1.240868E+0	1.175475E+0	1.214512E+0	1.212509E+0	1.239772E+0	1.206681E+0	1.256169E+0	1.231341E+0	1.231749E+0	1.242473E+0	1.252470E+0	1.260170E+0	1.221853E+0	1.176584E+0	1.258796E+0	1.241459E+0	1.227608E+0	1.232209E+0	1.253085E+0	1.193323E+0	1.220411E+0	1.244420E+0	1.260778E+0	1.248445E+0	1.187241E+0	1.221173E+0	1.247486E+0	1.211010E+0	1.267580E+0	1.234139E+0	1.242408E+0	1.187081E+0	1.281554E+0	1.232586E+0	1.240195E+0	1.271122E+0	1.245880E+0	1.238107E+0	1.197447E+0	1.261000E+0	1.257179E+0	1.230791E+0	1.231710E+0	1.221766E+0	1.209338E+0	1.274255E+0	1.266530E+0	1.224235E+0	1.196508E+0	1.233569E+0	1.282626E+0	1.245631E+0	1.287574E+0	1.187891E+0	1.231210E+0	1.289990E+0	1.242553E+0	1.210959E+0	1.263890E+0	1.198638E+0	1.239008E+0	1.256898E+0	1.229799E+0	1.243600E+0	1.218946E+0	1.260871E+0	1.220946E+0	1.191275E+0	1.218753E+0	1.220123E+0	1.243687E+0	1.211749E+0	1.259777E+0	1.206476E+0	1.178969E+0	1.221493E+0	1.234619E+0	1.200375E+0	1.221526E+0	1.271700E+0	1.251239E+0	1.157758E+0	1.268458E+0	1.272393E+0	1.196315E+0	1.175385E+0	1.252017E+0	1.173378E+0	1.174274E+0	1.162437E+0	1.197592E+0	1.225230E+0	1.212105E+0	1.246119E+0	1.209335E+0	1.237719E+0	1.230407E+0	1.232982E+0	1.177749E+0	1.183030E+0	1.202478E+0	1.245758E+0	1.184648E+0	1.233291E+0	1.185712E+0	1.240551E+0	1.191676E+0	1.238420E+0	1.263744E+0	1.254116E+0	1.209949E+0	1.206508E+0	1.240225E+0	1.244736E+0	1.240414E+0	1.231354E+0	1.241947E+0	1.196553E+0	1.243637E+0	1.240772E+0	1.229585E+0	1.203614E+0	1.235857E+0	1.215018E+0	1.213693E+0	1.267351E+0	1.224098E+0	1.170055E+0	1.257227E+0	1.251527E+0	1.236901E+0	1.223795E+0	1.205032E+0	1.282650E+0	1.209742E+0	1.236764E+0	1.215223E+0	1.243519E+0	1.266216E+0	1.225267E+0	1.248480E+0
5.420210E+2	1.089875E+0	1.036731E+0	1.108928E+0	1.117654E+0	1.066698E+0	1.047578E+0	1.104131E+0	1.043562E+0	1.077242E+0	1.087951E+0	1.079284E+0	1.078891E+0	1.073822E+0	1.076833E+0	1.037025E+0	1.108182E+0	1.077167E+0	1.075627E+0	1.009562E+0	1.038475E+0	1.086824E+0	1.081742E+0	1.075524E+0	1.120293E+0	1.088139E+0	1.020781E+0	1.095195E+0	1.103296E+0	1.078024E+0	1.072769E+0	1.052291E+0	1.099627E+0	1.074644E+0	1.107765E+0	1.047271E+0	1.086629E+0	1.053782E+0	1.090655E+0	1.058066E+0	1.106458E+0	1.057712E+0	1.050197E+0	1.049690E+0	1.068068E+0	1.034293E+0	1.115656E+0	1.075643E+0	1.097833E+0	1.133686E+0	1.089391E+0	1.091102E+0	1.039759E+0	1.056894E+0	1.096256E+0	1.081946E+0	1.088526E+0	1.103337E+0	1.021293E+0	1.013800E+0	1.065821E+0	1.070147E+0	1.109102E+0	1.058802E+0	1.032622E+0	1.049972E+0	1.124177E+0	1.033089E+0	1.101956E+0	1.104882E+0	1.094315E+0	1.068294E+0	1.098878E+0	1.091020E+0	1.076413E+0	1.105370E+0	1.064490E+0	1.030226E+0	1.042243E+0	1.036352E+0	1.038101E+0	1.101112E+0	1.069804E+0	1.091564E+0	1.070482E+0	1.096279E+0	1.089589E+0	1.142834E+0	1.078115E+0	1.088287E+0	1.067767E+0	1.090032E+0	1.060638E+0	1.116967E+0	1.108389E+0	1.065263E+0	1.062793E+0	1.072650E+0	1.110486E+0	1.101824E+0	1.022458E+0	1.101934E+0	1.100967E+0	1.063097E+0	1.043905E+0	1.095883E+0	1.051268E+0	1.094162E+0	1.092886E+0	1.063757E+0	1.127670E+0	1.064371E+0	1.083661E+0	1.073529E+0	1.087229E+0	1.070570E+0	1.079503E+0	1.101098E+0	1.052921E+0	1.102819E+0	1.045429E+0	1.051784E+0	1.032421E+0	1.075389E+0	1.017956E+0	1.022270E+0	1.087831E+0	1.100409E+0	1.036618E+0	1.105996E+0	1.044508E+0	1.103971E+0	1.090875E+0	1.091041E+0	1.031390E+0	1.041555E+0	1.070754E+0	1.053299E+0	1.073898E+0	1.084690E+0	1.080050E+0	1.092583E+0	1.108077E+0	1.110808E+0	1.067260E+0	1.060723E+0	1.045964E+0	1.093335E+0	1.072891E+0	1.088877E+0	1.042004E+0	1.084039E+0	1.037547E+0	1.065462E+0	1.125060E+0	1.068027E+0	1.083428E+0	1.024484E+0	1.060914E+0	1.115766E+0	1.115039E+0	1.045626E+0	1.080629E+0	1.073972E+0	1.082519E+0	1.063712E+0	1.070419E+0	1.098177E+0	1.087323E+0	1.039868E+0	1.032602E+0	1.062895E+0
5.422730E+2	9.802519E-1	9.855517E-1	9.664369E-1	9.674599E-1	9.534668E-1	1.022610E+0	9.841679E-1	9.595956E-1	9.776441E-1	9.631320E-1	9.829556E-1	9.375936E-1	9.862464E-1	9.441182E-1	9.732716E-1	9.971567E-1	9.902668E-1	9.843276E-1	9.252457E-1	9.586082E-1	1.008996E+0	9.853600E-1	9.505699E-1	1.006811E+0	1.003070E+0	1.010764E+0	9.979157E-1	1.000630E+0	9.457036E-1	9.883461E-1	9.500051E-1	1.001951E+0	1.000410E+0	1.024056E+0	1.013097E+0	9.579992E-1	9.833035E-1	1.000823E+0	9.771214E-1	9.792955E-1	9.860886E-1	9.814381E-1	9.585580E-1	1.029697E+0	9.492911E-1	9.838861E-1	9.727257E-1	9.549106E-1	9.671198E-1	9.612551E-1	1.031718E+0	9.448365E-1	9.827555E-1	9.839132E-1	9.639259E-1	9.855615E-1	9.720814E-1	9.083141E-1	9.542003E-1	9.770699E-1	1.001284E+0	9.974270E-1	9.964433E-1	9.536540E-1	1.017115E+0	9.939977E-1	9.783106E-1	9.845832E-1	9.965973E-1	9.962016E-1	9.772235E-1	9.966097E-1	9.725113E-1	9.741187E-1	9.311368E-1	1.007590E+0	9.911414E-1	1.003895E+0	1.007059E+0	9.434352E-1	1.030233E+0	9.803823E-1	9.926958E-1	9.892264E-1	9.625889E-1	9.814877E-1	9.817509E-1	9.713438E-1	1.040778E+0	9.837041E-1	9.715317E-1	9.713101E-1	9.630895E-1	1.036780E+0	9.935485E-1	9.311392E-1	9.294388E-1	1.004311E+0	9.638254E-1	9.845767E-1	1.030261E+0	9.764898E-1	9.428645E-1	9.559039E-1	9.456190E-1	9.810098E-1	9.898111E-1	9.777801E-1	9.438472E-1	9.788288E-1	9.653981E-1	9.838069E-1	9.697793E-1	9.330994E-1	9.297905E-1	9.653426E-1	9.712429E-1	9.713916E-1	9.706128E-1	9.942891E-1	9.591662E-1	9.821587E-1	9.596859E-1	9.892963E-1	9.961772E-1	9.736247E-1	9.521238E-1	9.769556E-1	1.004297E+0	9.926705E-1	9.953862E-1	9.730614E-1	9.810110E-1	9.737316E-1	1.000703E+0	9.752236E-1	9.990866E-1	9.659952E-1	9.707605E-1	1.021291E+0	9.537035E-1	9.923975E-1	9.705239E-1	9.681405E-1	9.785609E-1	1.008953E+0	1.023868E+0	9.195468E-1	1.005588E+0	9.990754E-1	9.515679E-1	9.830005E-1	9.705609E-1	9.740244E-1	9.603711E-1	9.754580E-1	9.529372E-1	9.700701E-1	1.018089E+0	1.001790E+0	9.668481E-1	9.987771E-1	9.741707E-1	1.016162E+0	9.747140E-1	9.660938E-1	9.858136E-1	1.001802E+0	9.356450E-1	9.802692E-1	8.865649E-1
5.425190E+2	9.908732E-1	9.558034E-1	9.578519E-1	9.201226E-1	9.492505E-1	9.370207E-1	1.014069E+0	9.104368E-1	9.432633E-1	9.639135E-1	9.136215E-1	9.827587E-1	9.713262E-1	9.326794E-1	9.658649E-1	9.503682E-1	9.996924E-1	9.540495E-1	9.292425E-1	9.735494E-1	9.892929E-1	9.749732E-1	9.509805E-1	9.593239E-1	9.945478E-1	9.411754E-1	9.660446E-1	9.851778E-1	9.792678E-1	9.404922E-1	9.691589E-1	9.273021E-1	9.779312E-1	1.008051E+0	9.482543E-1	9.490561E-1	9.661698E-1	9.218855E-1	9.581076E-1	9.066432E-1	9.718993E-1	9.368559E-1	9.270652E-1	9.221414E-1	9.550302E-1	9.569657E-1	9.563319E-1	9.731934E-1	1.004264E+0	1.002723E+0	9.521353E-1	9.797710E-1	9.922451E-1	1.021394E+0	9.793815E-1	9.528471E-1	9.528368E-1	9.281836E-1	9.571733E-1	9.292069E-1	9.457997E-1	9.476209E-1	9.641093E-1	9.220879E-1	9.666984E-1	9.803219E-1	9.533952E-1	9.645369E-1	9.676934E-1	1.020898E+0	9.707249E-1	9.605970E-1	9.431991E-1	9.475741E-1	9.703875E-1	9.652813E-1	9.331504E-1	9.708591E-1	9.608573E-1	9.208744E-1	9.502559E-1	9.640910E-1	9.217137E-1	9.168649E-1	9.704021E-1	9.528870E-1	9.673716E-1	9.429303E-1	9.637323E-1	9.763191E-1	9.467685E-1	9.301437E-1	9.393682E-1	9.550878E-1	9.799608E-1	9.600645E-1	9.851190E-1	9.834305E-1	9.038996E-1	9.397635E-1	9.703095E-1	9.593030E-1	8.860392E-1	9.353945E-1	9.886049E-1	9.572448E-1	9.543040E-1	9.625758E-1	9.814843E-1	9.652990E-1	9.320866E-1	9.390844E-1	9.147051E-1	9.266212E-1	9.878794E-1	9.294516E-1	9.959035E-1	9.660416E-1	1.005082E+0	9.489572E-1	9.402270E-1	9.669025E-1	9.156412E-1	9.842302E-1	9.574684E-1	9.675931E-1	9.753110E-1	9.166683E-1	9.716259E-1	9.750975E-1	9.763014E-1	9.565294E-1	9.983754E-1	9.937969E-1	9.853638E-1	9.201416E-1	9.787033E-1	9.355619E-1	9.666549E-1	9.417706E-1	9.566581E-1	9.480213E-1	9.587295E-1	9.473433E-1	9.160817E-1	9.654449E-1	9.780070E-1	9.654067E-1	1.010520E+0	9.386437E-1	9.654773E-1	9.700371E-1	9.078556E-1	9.704399E-1	9.491045E-1	9.557847E-1	9.790189E-1	9.224229E-1	9.790488E-1	9.584735E-1	9.454487E-1	9.631903E-1	1.012405E+0	9.959350E-1	9.676909E-1	9.836690E-1	9.902716E-1	9.893873E-1	9.460400E-1	1.021920E+0	1.048130E+0
5.427650E+2	1.033556E+0	1.021241E+0	9.996207E-1	1.029640E+0	1.040929E+0	1.006512E+0	1.017557E+0	1.030591E+0	1.028680E+0	9.988087E-1	1.005168E+0	9.976629E-1	1.002212E+0	1.002040E+0	9.997307E-1	1.043249E+0	1.022009E+0	1.011057E+0	1.007764E+0	1.031382E+0	1.035972E+0	1.051585E+0	1.026151E+0	1.034536E+0	1.028553E+0	1.004956E+0	1.011784E+0	1.016948E+0	1.015947E+0	9.783308E-1	1.027705E+0	9.740482E-1	9.707284E-1	9.966111E-1	1.029892E+0	9.883220E-1	1.029133E+0	1.000622E+0	9.889147E-1	1.005108E+0	1.030052E+0	1.000620E+0	1.016860E+0	1.001694E+0	9.916822E-1	1.030723E+0	1.039019E+0	1.020155E+0	1.007175E+0	9.687325E-1	1.005396E+0	1.011692E+0	1.020440E+0	1.014451E+0	1.067665E+0	1.003818E+0	1.045942E+0	9.833925E-1	1.029957E+0	1.014958E+0	1.000666E+0	1.005205E+0	9.995207E-1	9.905821E-1	1.004944E+0	9.869913E-1	1.029520E+0	1.024376E+0	1.015911E+0	1.014798E+0	9.940611E-1	1.017553E+0	9.833965E-1	1.013446E+0	9.823020E-1	9.910389E-1	1.034267E+0	9.633676E-1	9.957755E-1	9.952713E-1	1.023898E+0	1.014391E+0	1.006065E+0	9.874570E-1	1.004712E+0	1.008701E+0	1.009121E+0	1.018484E+0	1.014828E+0	1.044202E+0	1.010349E+0	9.936460E-1	1.061458E+0	1.015413E+0	1.010718E+0	1.006259E+0	1.014293E+0	1.022667E+0	1.062962E+0	1.008503E+0	1.041301E+0	1.044224E+0	1.017619E+0	1.029270E+0	1.045610E+0	9.594522E-1	1.011769E+0	1.039113E+0	1.024473E+0	1.012220E+0	1.024455E+0	9.994130E-1	1.025203E+0	1.032675E+0	1.024243E+0	9.858364E-1	9.703823E-1	1.015939E+0	1.005937E+0	1.012784E+0	9.888886E-1	1.001648E+0	1.005282E+0	1.020550E+0	1.031162E+0	1.019463E+0	1.019672E+0	9.988202E-1	1.029769E+0	9.652771E-1	1.054950E+0	1.006042E+0	1.028613E+0	9.986177E-1	1.013121E+0	1.015529E+0	1.011287E+0	9.869390E-1	9.880939E-1	1.010209E+0	9.520863E-1	1.001710E+0	1.031400E+0	9.693483E-1	1.023975E+0	1.041940E+0	1.061778E+0	9.729001E-1	1.074807E+0	1.020810E+0	1.064076E+0	1.023295E+0	9.979402E-1	1.058063E+0	9.862087E-1	1.000952E+0	9.832221E-1	9.737972E-1	9.788941E-1	1.025449E+0	9.926427E-1	9.920001E-1	9.799446E-1	1.015001E+0	1.012088E+0	1.037797E+0	1.003074E+0	1.045498E+0	9.926841E-1	1.014727E+0	9.927095E-1
5.430070E+2	1.148087E+0	1.114120E+0	1.117721E+0	1.114180E+0	1.158011E+0	1.094818E+0	1.145878E+0	1.170308E+0	1.148843E+0	1.100283E+0	1.152260E+0	1.141237E+0	1.164959E+0	1.167283E+0	1.120277E+0	1.192396E+0	1.170729E+0	1.163875E+0	1.131555E+0	1.144350E+0	1.135600E+0	1.119794E+0	1.135184E+0	1.098920E+0	1.156983E+0	1.120815E+0	1.144927E+0	1.085385E+0	1.174015E+0	1.135816E+0	1.150656E+0	1.140326E+0	1.137020E+0	1.149887E+0	1.151520E+0	1.158119E+0	1.143097E+0	1.113650E+0	1.129968E+0	1.150986E+0	1.134392E+0	1.120446E+0	1.168042E+0	1.137191E+0	1.104510E+0	1.206821E+0	1.114573E+0	1.132830E+0	1.195168E+0	1.145462E+0	1.143551E+0	1.110823E+0	1.111336E+0	1.171832E+0	1.138467E+0	1.159042E+0	1.129455E+0	1.186312E+0	1.114162E+0	1.119543E+0	1.118569E+0	1.152800E+0	1.147211E+0	1.113626E+0	1.154613E+0	1.136444E+0	1.149043E+0	1.130155E+0	1.189196E+0	1.176985E+0	1.135677E+0	1.155962E+0	1.142907E+0	1.122175E+0	1.119024E+0	1.149500E+0	1.131826E+0	1.115729E+0	1.144504E+0	1.133029E+0	1.130498E+0	1.132362E+0	1.126596E+0	1.161389E+0	1.166637E+0	1.192142E+0	1.135212E+0	1.130526E+0	1.098453E+0	1.153704E+0	1.176408E+0	1.175065E+0	1.118041E+0	1.134715E+0	1.145533E+0	1.084437E+0	1.125575E+0	1.142801E+0	1.157095E+0	1.111748E+0	1.142049E+0	1.149051E+0	1.103055E+0	1.152596E+0	1.155123E+0	1.135237E+0	1.165424E+0	1.103136E+0	1.125500E+0	1.166791E+0	1.143641E+0	1.128542E+0	1.186118E+0	1.142644E+0	1.141564E+0	1.077783E+0	1.132868E+0	1.110199E+0	1.196570E+0	1.177837E+0	1.122848E+0	1.140185E+0	1.149156E+0	1.116019E+0	1.129436E+0	1.125583E+0	1.179149E+0	1.121176E+0	1.174384E+0	1.099743E+0	1.131072E+0	1.154518E+0	1.139814E+0	1.094233E+0	1.153300E+0	1.064907E+0	1.132006E+0	1.157845E+0	1.139272E+0	1.121537E+0	1.119079E+0	1.147734E+0	1.119319E+0	1.092585E+0	1.138082E+0	1.078678E+0	1.155552E+0	1.093037E+0	1.149064E+0	1.133817E+0	1.144086E+0	1.136304E+0	1.140418E+0	1.156646E+0	1.196218E+0	1.118991E+0	1.078264E+0	1.148844E+0	1.130904E+0	1.133973E+0	1.119916E+0	1.110762E+0	1.168847E+0	1.138692E+0	1.128887E+0	1.145360E+0	1.138586E+0	1.138657E+0	1.117580E+0	1.177020E+0	1.138512E+0
5.432960E+2	1.316120E+0	1.325991E+0	1.298335E+0	1.274270E+0	1.295607E+0	1.272620E+0	1.278887E+0	1.319931E+0	1.341319E+0	1.311507E+0	1.267425E+0	1.310796E+0	1.289558E+0	1.259330E+0	1.322733E+0	1.327205E+0	1.297055E+0	1.340368E+0	1.233068E+0	1.339226E+0	1.285976E+0	1.322133E+0	1.273219E+0	1.296622E+0	1.333263E+0	1.372071E+0	1.298989E+0	1.251184E+0	1.316987E+0	1.252906E+0	1.313481E+0	1.249648E+0	1.319938E+0	1.293532E+0	1.297506E+0	1.280898E+0	1.367160E+0	1.326702E+0	1.281806E+0	1.286884E+0	1.294449E+0	1.317624E+0	1.299768E+0	1.288392E+0	1.304874E+0	1.290412E+0	1.320291E+0	1.257965E+0	1.345490E+0	1.298189E+0	1.302219E+0	1.262817E+0	1.282172E+0	1.310362E+0	1.255132E+0	1.297457E+0	1.318311E+0	1.308480E+0	1.283756E+0	1.261393E+0	1.269431E+0	1.291987E+0	1.258156E+0	1.253364E+0	1.299341E+0	1.302871E+0	1.282429E+0	1.308551E+0	1.294072E+0	1.304955E+0	1.241770E+0	1.301542E+0	1.260553E+0	1.266132E+0	1.235774E+0	1.327484E+0	1.261801E+0	1.287880E+0	1.294140E+0	1.332609E+0	1.326796E+0	1.302821E+0	1.268516E+0	1.304091E+0	1.254919E+0	1.287820E+0	1.276147E+0	1.313473E+0	1.345559E+0	1.263888E+0	1.316698E+0	1.302054E+0	1.254227E+0	1.317716E+0	1.277005E+0	1.279123E+0	1.271368E+0	1.254535E+0	1.288282E+0	1.221349E+0	1.259683E+0	1.235102E+0	1.276304E+0	1.265472E+0	1.298635E+0	1.275352E+0	1.262393E+0	1.277080E+0	1.290979E+0	1.337699E+0	1.351352E+0	1.245934E+0	1.348603E+0	1.283045E+0	1.277799E+0	1.220701E+0	1.301621E+0	1.256041E+0	1.323503E+0	1.237341E+0	1.243168E+0	1.281738E+0	1.279285E+0	1.268048E+0	1.281921E+0	1.237012E+0	1.303041E+0	1.271722E+0	1.305781E+0	1.272437E+0	1.271019E+0	1.280348E+0	1.310018E+0	1.283620E+0	1.251729E+0	1.283020E+0	1.311837E+0	1.251458E+0	1.273950E+0	1.317942E+0	1.263740E+0	1.305167E+0	1.303677E+0	1.264990E+0	1.285193E+0	1.257234E+0	1.310270E+0	1.287498E+0	1.358532E+0	1.259789E+0	1.302764E+0	1.279936E+0	1.302688E+0	1.275268E+0	1.275257E+0	1.245814E+0	1.309627E+0	1.241777E+0	1.272420E+0	1.277097E+0	1.304060E+0	1.302461E+0	1.269469E+0	1.343353E+0	1.259810E+0	1.254980E+0	1.343548E+0	1.302638E+0	1.338519E+0	1.287114E+0	1.283920E+0
5.435330E+2	1.420052E+0	1.487966E+0	1.479314E+0	1.485867E+0	1.476755E+0	1.475276E+0	1.462871E+0	1.408075E+0	1.449909E+0	1.493634E+0	1.466872E+0	1.492267E+0	1.489448E+0	1.449139E+0	1.439528E+0	1.480569E+0	1.464429E+0	1.469404E+0	1.428490E+0	1.452519E+0	1.507057E+0	1.437837E+0	1.485444E+0	1.437153E+0	1.500781E+0	1.457689E+0	1.497377E+0	1.482470E+0	1.406541E+0	1.413730E+0	1.419480E+0	1.454007E+0	1.495832E+0	1.525700E+0	1.382207E+0	1.485875E+0	1.456771E+0	1.425069E+0	1.450185E+0	1.470683E+0	1.431381E+0	1.429201E+0	1.452377E+0	1.488981E+0	1.424111E+0	1.475519E+0	1.432136E+0	1.405962E+0	1.493490E+0	1.459221E+0	1.459520E+0	1.448353E+0	1.433395E+0	1.493823E+0	1.418555E+0	1.468871E+0	1.441614E+0	1.443595E+0	1.427767E+0	1.440741E+0	1.488594E+0	1.441512E+0	1.446302E+0	1.390382E+0	1.458538E+0	1.501250E+0	1.402725E+0	1.427638E+0	1.482254E+0	1.468397E+0	1.470219E+0	1.452071E+0	1.474425E+0	1.424118E+0	1.384634E+0	1.466166E+0	1.440712E+0	1.414544E+0	1.431996E+0	1.459640E+0	1.438160E+0	1.470841E+0	1.420544E+0	1.432123E+0	1.404677E+0	1.445222E+0	1.445903E+0	1.422657E+0	1.492757E+0	1.431959E+0	1.383358E+0	1.404261E+0	1.404878E+0	1.463435E+0	1.458832E+0	1.427766E+0	1.437604E+0	1.434772E+0	1.486794E+0	1.472906E+0	1.501045E+0	1.454546E+0	1.447752E+0	1.431077E+0	1.449768E+0	1.442205E+0	1.418667E+0	1.419705E+0	1.430664E+0	1.436163E+0	1.459962E+0	1.452536E+0	1.482283E+0	1.426216E+0	1.409587E+0	1.396939E+0	1.493351E+0	1.388442E+0	1.445608E+0	1.462192E+0	1.428457E+0	1.430115E+0	1.466953E+0	1.453760E+0	1.422849E+0	1.405221E+0	1.411714E+0	1.417442E+0	1.416332E+0	1.392027E+0	1.432786E+0	1.436652E+0	1.479548E+0	1.493984E+0	1.469158E+0	1.415178E+0	1.387668E+0	1.447639E+0	1.471426E+0	1.379775E+0	1.449140E+0	1.474290E+0	1.417034E+0	1.431673E+0	1.464992E+0	1.439166E+0	1.476662E+0	1.450584E+0	1.454425E+0	1.393715E+0	1.428996E+0	1.422320E+0	1.411589E+0	1.492694E+0	1.452125E+0	1.409601E+0	1.427074E+0	1.375524E+0	1.389252E+0	1.415992E+0	1.484936E+0	1.436642E+0	1.401843E+0	1.408849E+0	1.425504E+0	1.423044E+0	1.456690E+0	1.398459E+0	1.404897E+0	1.449591E+0	1.489520E+0
5.437640E+2	1.543348E+0	1.535041E+0	1.618543E+0	1.571737E+0	1.557650E+0	1.542949E+0	1.689583E+0	1.539537E+0	1.563208E+0	1.502790E+0	1.514142E+0	1.557067E+0	1.605535E+0	1.559757E+0	1.503777E+0	1.592085E+0	1.528736E+0	1.590394E+0	1.527095E+0	1.590374E+0	1.586448E+0	1.592338E+0	1.605391E+0	1.586452E+0	1.559961E+0	1.594321E+0	1.586061E+0	1.588956E+0	1.581160E+0	1.591602E+0	1.601263E+0	1.529166E+0	1.610163E+0	1.607251E+0	1.583633E+0	1.583324E+0	1.517278E+0	1.585122E+0	1.563734E+0	1.549702E+0	1.566454E+0	1.593754E+0	1.584364E+0	1.489468E+0	1.580346E+0	1.584456E+0	1.604997E+0	1.536709E+0	1.548694E+0	1.559765E+0	1.584347E+0	1.530869E+0	1.566188E+0	1.594610E+0	1.589021E+0	1.576557E+0	1.562038E+0	1.553050E+0	1.604455E+0	1.477849E+0	1.530419E+0	1.546688E+0	1.583198E+0	1.525760E+0	1.534797E+0	1.562850E+0	1.542055E+0	1.528917E+0	1.494603E+0	1.609767E+0	1.522722E+0	1.523583E+0	1.558674E+0	1.535303E+0	1.529864E+0	1.558787E+0	1.509517E+0	1.558466E+0	1.570687E+0	1.588641E+0	1.527472E+0	1.562158E+0	1.500198E+0	1.529611E+0	1.561495E+0	1.597744E+0	1.578475E+0	1.598414E+0	1.535423E+0	1.533017E+0	1.563978E+0	1.535504E+0	1.563825E+0	1.648286E+0	1.544227E+0	1.546709E+0	1.539238E+0	1.498152E+0	1.589823E+0	1.515767E+0	1.519768E+0	1.548375E+0	1.488878E+0	1.558877E+0	1.526589E+0	1.539769E+0	1.566417E+0	1.552540E+0	1.555017E+0	1.551348E+0	1.583002E+0	1.541615E+0	1.533378E+0	1.554959E+0	1.545541E+0	1.468193E+0	1.612214E+0	1.510923E+0	1.528620E+0	1.543878E+0	1.529874E+0	1.515951E+0	1.508969E+0	1.591209E+0	1.615036E+0	1.559183E+0	1.557844E+0	1.548259E+0	1.503977E+0	1.520435E+0	1.541997E+0	1.459811E+0	1.529191E+0	1.504754E+0	1.597189E+0	1.569292E+0	1.553272E+0	1.532299E+0	1.555323E+0	1.500379E+0	1.519514E+0	1.578844E+0	1.541479E+0	1.476664E+0	1.546261E+0	1.569433E+0	1.526781E+0	1.553599E+0	1.570000E+0	1.519858E+0	1.574813E+0	1.457965E+0	1.534339E+0	1.529275E+0	1.556963E+0	1.478811E+0	1.541604E+0	1.488389E+0	1.552914E+0	1.533060E+0	1.559405E+0	1.584181E+0	1.510882E+0	1.524413E+0	1.563020E+0	1.604251E+0	1.566580E+0	1.559831E+0	1.542527E+0	1.614408E+0	1.557347E+0
5.440120E+2	1.664206E+0	1.618180E+0	1.684399E+0	1.653606E+0	1.637182E+0	1.695893E+0	1.679373E+0	1.654661E+0	1.603429E+0	1.595174E+0	1.684835E+0	1.655631E+0	1.657496E+0	1.610536E+0	1.621207E+0	1.675618E+0	1.663053E+0	1.684902E+0	1.688529E+0	1.699272E+0	1.680739E+0	1.638842E+0	1.702885E+0	1.680391E+0	1.581347E+0	1.628934E+0	1.631088E+0	1.667214E+0	1.649933E+0	1.585211E+0	1.657320E+0	1.593307E+0	1.580992E+0	1.642603E+0	1.621452E+0	1.634454E+0	1.639307E+0	1.670513E+0	1.620605E+0	1.694661E+0	1.642660E+0	1.639452E+0	1.638623E+0	1.629868E+0	1.652882E+0	1.603265E+0	1.655496E+0	1.581723E+0	1.627467E+0	1.652368E+0	1.643942E+0	1.600915E+0	1.590649E+0	1.736816E+0	1.630814E+0	1.641096E+0	1.657374E+0	1.644513E+0	1.611642E+0	1.642147E+0	1.598536E+0	1.649346E+0	1.651544E+0	1.622046E+0	1.676632E+0	1.670965E+0	1.636779E+0	1.623824E+0	1.654541E+0	1.645985E+0	1.603942E+0	1.597675E+0	1.623895E+0	1.658259E+0	1.582836E+0	1.702000E+0	1.630331E+0	1.627236E+0	1.636829E+0	1.613317E+0	1.619837E+0	1.617815E+0	1.628229E+0	1.615855E+0	1.686103E+0	1.664168E+0	1.640023E+0	1.700438E+0	1.671985E+0	1.611208E+0	1.618889E+0	1.646916E+0	1.682624E+0	1.648201E+0	1.564378E+0	1.606243E+0	1.641111E+0	1.590761E+0	1.669742E+0	1.634505E+0	1.691645E+0	1.610835E+0	1.616532E+0	1.629083E+0	1.604580E+0	1.586555E+0	1.561153E+0	1.612238E+0	1.606479E+0	1.634217E+0	1.664211E+0	1.641980E+0	1.645532E+0	1.582571E+0	1.602288E+0	1.594319E+0	1.656020E+0	1.597134E+0	1.611653E+0	1.615764E+0	1.593028E+0	1.608044E+0	1.609597E+0	1.637645E+0	1.670239E+0	1.629189E+0	1.608951E+0	1.579850E+0	1.557090E+0	1.588636E+0	1.605950E+0	1.599944E+0	1.695320E+0	1.590168E+0	1.645089E+0	1.647391E+0	1.617544E+0	1.609642E+0	1.621382E+0	1.601839E+0	1.606153E+0	1.617139E+0	1.587005E+0	1.576164E+0	1.606544E+0	1.625497E+0	1.625867E+0	1.624289E+0	1.629371E+0	1.646342E+0	1.631908E+0	1.615931E+0	1.585624E+0	1.581672E+0	1.636946E+0	1.554725E+0	1.641595E+0	1.653337E+0	1.571580E+0	1.600669E+0	1.665519E+0	1.663922E+0	1.606485E+0	1.632504E+0	1.624080E+0	1.616480E+0	1.644732E+0	1.606489E+0	1.544042E+0	1.586693E+0	1.591433E+0
5.442650E+2	1.641981E+0	1.653408E+0	1.712033E+0	1.643306E+0	1.654371E+0	1.694528E+0	1.671371E+0	1.649946E+0	1.598641E+0	1.647287E+0	1.631652E+0	1.673110E+0	1.639108E+0	1.593781E+0	1.641616E+0	1.647720E+0	1.604940E+0	1.646751E+0	1.657520E+0	1.611252E+0	1.633597E+0	1.636286E+0	1.644661E+0	1.620445E+0	1.678482E+0	1.624699E+0	1.700537E+0	1.663908E+0	1.613240E+0	1.614536E+0	1.596485E+0	1.614519E+0	1.592353E+0	1.668184E+0	1.669536E+0	1.560393E+0	1.617194E+0	1.592996E+0	1.635224E+0	1.621787E+0	1.515637E+0	1.638270E+0	1.722399E+0	1.607352E+0	1.616170E+0	1.659108E+0	1.665576E+0	1.631658E+0	1.643802E+0	1.671675E+0	1.617929E+0	1.603428E+0	1.584343E+0	1.691907E+0	1.633811E+0	1.559510E+0	1.624432E+0	1.625831E+0	1.659340E+0	1.642667E+0	1.582859E+0	1.627165E+0	1.641968E+0	1.671612E+0	1.561946E+0	1.660892E+0	1.628895E+0	1.664300E+0	1.599757E+0	1.621078E+0	1.637849E+0	1.692767E+0	1.600049E+0	1.633858E+0	1.604044E+0	1.663596E+0	1.590849E+0	1.592433E+0	1.678182E+0	1.647017E+0	1.630607E+0	1.587971E+0	1.661746E+0	1.635496E+0	1.594983E+0	1.674121E+0	1.610023E+0	1.585254E+0	1.662497E+0	1.637463E+0	1.619073E+0	1.645007E+0	1.588782E+0	1.593183E+0	1.546513E+0	1.554773E+0	1.538079E+0	1.670102E+0	1.617427E+0	1.599670E+0	1.618866E+0	1.681055E+0	1.560685E+0	1.566802E+0	1.602748E+0	1.614452E+0	1.589132E+0	1.597446E+0	1.586988E+0	1.640312E+0	1.692894E+0	1.589248E+0	1.644114E+0	1.664662E+0	1.571316E+0	1.614959E+0	1.592756E+0	1.611899E+0	1.582494E+0	1.602504E+0	1.560578E+0	1.577252E+0	1.530738E+0	1.605412E+0	1.585086E+0	1.595926E+0	1.592615E+0	1.547522E+0	1.622407E+0	1.587752E+0	1.653421E+0	1.615167E+0	1.620645E+0	1.632562E+0	1.665624E+0	1.615115E+0	1.572775E+0	1.640245E+0	1.620910E+0	1.623422E+0	1.600805E+0	1.590688E+0	1.611908E+0	1.566903E+0	1.612699E+0	1.557963E+0	1.631755E+0	1.580463E+0	1.612255E+0	1.610530E+0	1.654025E+0	1.575549E+0	1.654683E+0	1.609487E+0	1.535517E+0	1.568051E+0	1.575407E+0	1.549691E+0	1.589884E+0	1.650845E+0	1.597263E+0	1.627256E+0	1.618744E+0	1.634694E+0	1.582501E+0	1.643498E+0	1.606182E+0	1.618128E+0	1.546440E+0	1.623474E+0	1.607448E+0
5.445290E+2	1.574533E+0	1.540785E+0	1.598347E+0	1.627002E+0	1.557826E+0	1.648937E+0	1.546247E+0	1.590078E+0	1.487042E+0	1.574677E+0	1.542908E+0	1.567901E+0	1.533990E+0	1.565390E+0	1.515946E+0	1.635460E+0	1.589524E+0	1.575766E+0	1.574032E+0	1.536768E+0	1.522385E+0	1.621649E+0	1.630870E+0	1.562294E+0	1.549776E+0	1.554213E+0	1.539542E+0	1.528530E+0	1.573964E+0	1.546552E+0	1.539623E+0	1.533968E+0	1.571319E+0	1.584337E+0	1.554426E+0	1.550083E+0	1.517992E+0	1.609967E+0	1.571694E+0	1.589683E+0	1.541206E+0	1.577058E+0	1.574170E+0	1.554352E+0	1.560766E+0	1.636798E+0	1.609446E+0	1.603171E+0	1.542386E+0	1.593993E+0	1.553137E+0	1.602436E+0	1.509049E+0	1.652833E+0	1.563844E+0	1.568907E+0	1.530281E+0	1.552534E+0	1.625445E+0	1.507834E+0	1.519273E+0	1.592173E+0	1.581269E+0	1.561266E+0	1.544963E+0	1.570712E+0	1.581519E+0	1.534417E+0	1.564083E+0	1.562303E+0	1.524341E+0	1.582481E+0	1.518796E+0	1.481127E+0	1.592145E+0	1.577759E+0	1.552693E+0	1.569730E+0	1.505343E+0	1.578466E+0	1.560078E+0	1.544150E+0	1.561394E+0	1.562002E+0	1.559204E+0	1.576408E+0	1.594300E+0	1.538353E+0	1.613060E+0	1.566114E+0	1.554006E+0	1.522695E+0	1.526712E+0	1.583596E+0	1.547520E+0	1.582975E+0	1.566552E+0	1.567988E+0	1.520110E+0	1.542286E+0	1.582627E+0	1.568196E+0	1.499185E+0	1.511423E+0	1.569928E+0	1.508123E+0	1.623397E+0	1.542660E+0	1.510084E+0	1.523358E+0	1.544863E+0	1.530388E+0	1.540189E+0	1.633041E+0	1.600605E+0	1.515712E+0	1.577394E+0	1.562036E+0	1.566528E+0	1.552081E+0	1.506963E+0	1.567400E+0	1.597928E+0	1.555870E+0	1.517143E+0	1.542121E+0	1.537556E+0	1.562409E+0	1.548567E+0	1.525907E+0	1.586807E+0	1.564400E+0	1.533974E+0	1.579343E+0	1.606845E+0	1.575228E+0	1.525359E+0	1.581585E+0	1.563390E+0	1.567583E+0	1.481824E+0	1.508945E+0	1.570665E+0	1.495429E+0	1.556568E+0	1.565011E+0	1.553037E+0	1.453342E+0	1.585797E+0	1.538865E+0	1.597759E+0	1.589179E+0	1.509626E+0	1.574958E+0	1.530986E+0	1.569474E+0	1.551504E+0	1.497978E+0	1.545862E+0	1.587343E+0	1.563751E+0	1.573907E+0	1.482030E+0	1.556783E+0	1.533802E+0	1.588520E+0	1.558443E+0	1.525125E+0	1.507658E+0	1.608610E+0	1.617768E+0
5.447720E+2	1.494045E+0	1.517649E+0	1.505056E+0	1.502673E+0	1.467514E+0	1.517110E+0	1.546700E+0	1.476161E+0	1.473500E+0	1.527150E+0	1.471899E+0	1.540753E+0	1.521523E+0	1.496503E+0	1.488311E+0	1.571837E+0	1.553296E+0	1.563399E+0	1.483338E+0	1.519854E+0	1.468801E+0	1.503479E+0	1.551134E+0	1.520112E+0	1.508181E+0	1.473386E+0	1.458877E+0	1.566379E+0	1.469322E+0	1.474501E+0	1.512512E+0	1.525163E+0	1.459918E+0	1.541169E+0	1.556877E+0	1.492836E+0	1.446972E+0	1.558995E+0	1.522903E+0	1.528300E+0	1.486119E+0	1.517552E+0	1.495853E+0	1.499224E+0	1.474791E+0	1.528308E+0	1.450467E+0	1.487162E+0	1.491454E+0	1.505826E+0	1.537646E+0	1.527102E+0	1.464589E+0	1.540272E+0	1.484936E+0	1.521066E+0	1.499594E+0	1.520678E+0	1.484667E+0	1.505109E+0	1.499707E+0	1.493180E+0	1.508280E+0	1.540925E+0	1.483338E+0	1.516642E+0	1.515585E+0	1.529949E+0	1.493712E+0	1.523080E+0	1.520918E+0	1.478171E+0	1.478068E+0	1.481733E+0	1.480870E+0	1.562019E+0	1.433918E+0	1.447746E+0	1.531200E+0	1.480022E+0	1.510675E+0	1.498202E+0	1.476341E+0	1.544469E+0	1.420633E+0	1.518645E+0	1.523938E+0	1.545972E+0	1.480199E+0	1.449162E+0	1.506711E+0	1.462627E+0	1.473339E+0	1.495696E+0	1.489138E+0	1.489177E+0	1.515223E+0	1.485943E+0	1.535744E+0	1.534277E+0	1.474956E+0	1.491593E+0	1.534101E+0	1.489921E+0	1.481219E+0	1.467295E+0	1.530878E+0	1.531321E+0	1.420587E+0	1.533593E+0	1.541430E+0	1.525436E+0	1.553077E+0	1.511952E+0	1.478378E+0	1.435490E+0	1.530223E+0	1.496398E+0	1.476767E+0	1.481552E+0	1.483223E+0	1.484199E+0	1.508984E+0	1.459821E+0	1.451599E+0	1.441622E+0	1.500796E+0	1.497270E+0	1.499451E+0	1.466225E+0	1.507009E+0	1.438475E+0	1.454265E+0	1.472838E+0	1.439660E+0	1.548813E+0	1.471051E+0	1.501133E+0	1.465878E+0	1.515935E+0	1.488345E+0	1.470462E+0	1.483252E+0	1.446762E+0	1.442355E+0	1.483020E+0	1.470949E+0	1.450169E+0	1.476060E+0	1.452084E+0	1.570710E+0	1.459295E+0	1.458556E+0	1.547777E+0	1.514475E+0	1.454453E+0	1.430362E+0	1.458367E+0	1.490293E+0	1.525749E+0	1.485368E+0	1.521982E+0	1.451835E+0	1.481679E+0	1.476774E+0	1.519168E+0	1.520800E+0	1.494337E+0	1.491051E+0	1.463696E+0	1.489906E+0
5.450200E+2	1.412398E+0	1.402998E+0	1.478006E+0	1.415711E+0	1.433710E+0	1.418654E+0	1.511378E+0	1.417455E+0	1.448788E+0	1.493673E+0	1.437781E+0	1.400216E+0	1.466714E+0	1.418746E+0	1.405448E+0	1.475081E+0	1.406612E+0	1.490766E+0	1.406939E+0	1.447164E+0	1.457564E+0	1.470275E+0	1.444004E+0	1.467991E+0	1.416082E+0	1.416820E+0	1.460745E+0	1.447140E+0	1.453582E+0	1.410916E+0	1.404839E+0	1.403246E+0	1.458613E+0	1.429987E+0	1.405304E+0	1.385228E+0	1.386424E+0	1.458243E+0	1.425249E+0	1.445529E+0	1.392075E+0	1.466400E+0	1.457656E+0	1.481878E+0	1.402508E+0	1.471287E+0	1.431116E+0	1.435969E+0	1.431877E+0	1.484145E+0	1.487989E+0	1.451233E+0	1.376133E+0	1.464857E+0	1.437921E+0	1.420713E+0	1.401857E+0	1.437134E+0	1.505694E+0	1.466199E+0	1.385411E+0	1.443803E+0	1.450086E+0	1.375628E+0	1.430683E+0	1.429176E+0	1.470636E+0	1.436543E+0	1.410849E+0	1.486258E+0	1.429686E+0	1.406242E+0	1.360426E+0	1.397881E+0	1.363427E+0	1.467127E+0	1.484286E+0	1.401951E+0	1.450303E+0	1.398608E+0	1.455758E+0	1.426457E+0	1.442990E+0	1.400010E+0	1.424088E+0	1.483220E+0	1.464785E+0	1.409267E+0	1.387754E+0	1.479785E+0	1.416314E+0	1.399038E+0	1.437678E+0	1.449249E+0	1.411208E+0	1.427239E+0	1.440226E+0	1.407945E+0	1.500517E+0	1.415078E+0	1.429092E+0	1.456435E+0	1.492051E+0	1.397696E+0	1.464736E+0	1.405371E+0	1.450725E+0	1.409470E+0	1.414053E+0	1.491451E+0	1.472827E+0	1.405339E+0	1.447008E+0	1.479384E+0	1.474136E+0	1.424245E+0	1.444323E+0	1.416728E+0	1.449686E+0	1.393109E+0	1.355004E+0	1.381565E+0	1.360093E+0	1.461304E+0	1.409126E+0	1.369784E+0	1.403650E+0	1.423948E+0	1.437025E+0	1.417705E+0	1.394494E+0	1.406177E+0	1.412721E+0	1.426053E+0	1.497568E+0	1.488595E+0	1.394199E+0	1.449115E+0	1.399545E+0	1.405727E+0	1.440338E+0	1.466087E+0	1.391886E+0	1.386956E+0	1.370159E+0	1.420950E+0	1.429055E+0	1.385031E+0	1.400966E+0	1.466299E+0	1.470197E+0	1.381285E+0	1.407337E+0	1.367711E+0	1.464362E+0	1.389587E+0	1.427070E+0	1.447610E+0	1.415223E+0	1.444520E+0	1.408668E+0	1.463956E+0	1.398460E+0	1.401689E+0	1.398245E+0	1.423724E+0	1.438831E+0	1.446960E+0	1.434346E+0	1.504696E+0	1.471345E+0
5.452690E+2	1.379117E+0	1.380662E+0	1.394422E+0	1.426786E+0	1.320326E+0	1.386874E+0	1.417983E+0	1.364173E+0	1.356306E+0	1.384701E+0	1.376874E+0	1.342596E+0	1.362848E+0	1.359316E+0	1.329640E+0	1.420755E+0	1.385665E+0	1.341729E+0	1.374280E+0	1.347282E+0	1.395357E+0	1.363438E+0	1.363568E+0	1.465269E+0	1.331692E+0	1.359703E+0	1.332125E+0	1.386629E+0	1.370484E+0	1.367794E+0	1.369496E+0	1.293326E+0	1.389364E+0	1.356104E+0	1.365087E+0	1.388432E+0	1.356087E+0	1.384562E+0	1.360397E+0	1.366033E+0	1.390284E+0	1.364563E+0	1.383553E+0	1.359227E+0	1.340913E+0	1.362936E+0	1.322947E+0	1.395578E+0	1.363166E+0	1.357012E+0	1.295917E+0	1.388171E+0	1.358269E+0	1.387841E+0	1.354413E+0	1.407293E+0	1.372643E+0	1.425651E+0	1.392990E+0	1.345908E+0	1.327362E+0	1.410678E+0	1.363838E+0	1.347983E+0	1.350616E+0	1.362990E+0	1.349784E+0	1.352606E+0	1.342868E+0	1.410011E+0	1.393618E+0	1.396883E+0	1.323906E+0	1.367078E+0	1.359823E+0	1.386340E+0	1.325310E+0	1.358007E+0	1.412111E+0	1.346287E+0	1.361447E+0	1.358882E+0	1.397000E+0	1.345985E+0	1.347911E+0	1.361256E+0	1.390488E+0	1.356254E+0	1.391386E+0	1.315666E+0	1.301529E+0	1.359110E+0	1.389371E+0	1.376033E+0	1.326326E+0	1.333207E+0	1.320329E+0	1.421193E+0	1.410752E+0	1.315172E+0	1.347565E+0	1.355264E+0	1.309085E+0	1.304013E+0	1.374805E+0	1.314680E+0	1.370319E+0	1.384423E+0	1.320754E+0	1.406402E+0	1.341732E+0	1.348843E+0	1.365795E+0	1.359901E+0	1.290648E+0	1.310633E+0	1.392410E+0	1.357110E+0	1.351481E+0	1.359494E+0	1.275977E+0	1.366658E+0	1.351272E+0	1.403686E+0	1.339279E+0	1.402493E+0	1.390075E+0	1.292121E+0	1.359251E+0	1.329188E+0	1.368306E+0	1.349190E+0	1.354124E+0	1.386098E+0	1.365895E+0	1.372945E+0	1.361725E+0	1.354338E+0	1.355678E+0	1.304436E+0	1.357667E+0	1.349002E+0	1.294572E+0	1.273185E+0	1.336932E+0	1.369964E+0	1.413735E+0	1.314508E+0	1.376333E+0	1.349005E+0	1.342000E+0	1.381972E+0	1.332067E+0	1.395086E+0	1.353359E+0	1.315929E+0	1.351141E+0	1.386262E+0	1.363179E+0	1.355673E+0	1.362636E+0	1.364829E+0	1.375911E+0	1.354410E+0	1.338163E+0	1.435990E+0	1.395623E+0	1.411820E+0	1.414857E+0	1.362345E+0	1.341018E+0
5.455450E+2	1.279194E+0	1.275206E+0	1.284725E+0	1.251213E+0	1.249664E+0	1.278280E+0	1.297789E+0	1.242118E+0	1.270869E+0	1.281831E+0	1.256974E+0	1.284174E+0	1.240407E+0	1.257548E+0	1.291820E+0	1.278153E+0	1.246521E+0	1.258288E+0	1.270384E+0	1.277452E+0	1.276910E+0	1.231059E+0	1.259478E+0	1.288112E+0	1.335791E+0	1.291623E+0	1.291391E+0	1.251370E+0	1.260493E+0	1.258177E+0	1.254737E+0	1.244506E+0	1.228986E+0	1.335589E+0	1.273539E+0	1.278441E+0	1.251252E+0	1.286431E+0	1.299830E+0	1.296443E+0	1.266683E+0	1.305567E+0	1.208012E+0	1.320363E+0	1.277798E+0	1.294220E+0	1.248973E+0	1.252505E+0	1.262037E+0	1.304010E+0	1.287074E+0	1.264072E+0	1.243117E+0	1.306594E+0	1.283109E+0	1.312483E+0	1.251475E+0	1.293418E+0	1.248991E+0	1.280491E+0	1.314020E+0	1.250990E+0	1.287346E+0	1.259871E+0	1.284994E+0	1.343463E+0	1.256957E+0	1.293924E+0	1.263972E+0	1.295670E+0	1.251066E+0	1.281809E+0	1.258984E+0	1.239048E+0	1.284797E+0	1.229260E+0	1.219136E+0	1.247054E+0	1.260929E+0	1.279148E+0	1.220446E+0	1.284596E+0	1.288353E+0	1.264993E+0	1.220128E+0	1.286389E+0	1.269285E+0	1.279089E+0	1.285241E+0	1.305830E+0	1.220021E+0	1.196734E+0	1.272057E+0	1.293262E+0	1.276259E+0	1.226769E+0	1.243298E+0	1.298579E+0	1.289163E+0	1.288222E+0	1.271426E+0	1.320665E+0	1.279373E+0	1.248947E+0	1.251473E+0	1.287946E+0	1.265281E+0	1.284460E+0	1.247407E+0	1.264543E+0	1.237633E+0	1.221515E+0	1.250796E+0	1.292249E+0	1.252405E+0	1.227017E+0	1.270162E+0	1.256293E+0	1.295172E+0	1.292543E+0	1.281987E+0	1.263995E+0	1.289212E+0	1.269757E+0	1.241474E+0	1.226709E+0	1.233776E+0	1.257883E+0	1.260256E+0	1.275960E+0	1.242838E+0	1.318671E+0	1.263851E+0	1.284461E+0	1.299164E+0	1.258863E+0	1.225012E+0	1.289302E+0	1.283094E+0	1.244343E+0	1.252504E+0	1.295347E+0	1.272257E+0	1.266246E+0	1.221978E+0	1.298605E+0	1.297929E+0	1.257063E+0	1.280458E+0	1.290489E+0	1.329470E+0	1.237179E+0	1.275633E+0	1.329042E+0	1.223565E+0	1.262776E+0	1.277633E+0	1.263015E+0	1.278694E+0	1.269990E+0	1.266120E+0	1.312195E+0	1.262670E+0	1.264087E+0	1.247849E+0	1.278027E+0	1.271308E+0	1.221838E+0	1.263988E+0	1.224726E+0	1.331219E+0
5.457890E+2	1.229622E+0	1.250761E+0	1.249993E+0	1.206467E+0	1.236542E+0	1.232260E+0	1.229411E+0	1.222492E+0	1.234049E+0	1.255284E+0	1.210621E+0	1.224176E+0	1.206720E+0	1.205201E+0	1.253723E+0	1.306938E+0	1.195123E+0	1.228000E+0	1.156857E+0	1.225185E+0	1.203203E+0	1.199790E+0	1.247636E+0	1.205697E+0	1.172274E+0	1.200472E+0	1.246123E+0	1.257118E+0	1.228046E+0	1.166287E+0	1.186789E+0	1.220777E+0	1.235440E+0	1.205501E+0	1.257912E+0	1.220788E+0	1.225135E+0	1.189150E+0	1.203559E+0	1.201826E+0	1.205704E+0	1.205662E+0	1.177337E+0	1.248765E+0	1.188543E+0	1.222738E+0	1.208926E+0	1.181141E+0	1.206587E+0	1.236878E+0	1.247689E+0	1.201087E+0	1.162264E+0	1.253130E+0	1.243143E+0	1.218912E+0	1.197344E+0	1.210463E+0	1.198005E+0	1.240592E+0	1.199849E+0	1.174459E+0	1.193215E+0	1.172316E+0	1.166470E+0	1.225836E+0	1.182070E+0	1.196221E+0	1.269200E+0	1.300686E+0	1.185034E+0	1.187747E+0	1.207134E+0	1.241036E+0	1.227227E+0	1.252353E+0	1.221336E+0	1.206912E+0	1.218024E+0	1.169921E+0	1.245712E+0	1.261866E+0	1.246192E+0	1.216568E+0	1.195092E+0	1.233790E+0	1.215106E+0	1.194168E+0	1.193016E+0	1.176044E+0	1.248904E+0	1.226393E+0	1.193051E+0	1.233237E+0	1.263779E+0	1.199380E+0	1.183551E+0	1.252734E+0	1.280258E+0	1.186464E+0	1.228145E+0	1.230546E+0	1.240192E+0	1.194230E+0	1.187880E+0	1.166079E+0	1.241691E+0	1.255851E+0	1.194895E+0	1.192956E+0	1.216574E+0	1.203544E+0	1.206994E+0	1.229402E+0	1.191217E+0	1.239177E+0	1.224889E+0	1.186660E+0	1.228758E+0	1.227245E+0	1.156841E+0	1.225501E+0	1.226760E+0	1.193668E+0	1.221211E+0	1.164957E+0	1.233107E+0	1.190612E+0	1.273200E+0	1.198745E+0	1.211961E+0	1.242584E+0	1.227051E+0	1.267126E+0	1.227730E+0	1.201094E+0	1.193790E+0	1.200920E+0	1.231487E+0	1.215046E+0	1.192734E+0	1.228832E+0	1.243889E+0	1.153741E+0	1.173375E+0	1.271303E+0	1.226710E+0	1.195065E+0	1.235003E+0	1.267915E+0	1.219969E+0	1.200216E+0	1.194673E+0	1.273289E+0	1.210416E+0	1.175558E+0	1.186119E+0	1.213653E+0	1.221790E+0	1.222104E+0	1.210435E+0	1.224290E+0	1.245599E+0	1.180454E+0	1.137062E+0	1.211482E+0	1.234642E+0	1.183897E+0	1.249527E+0	1.288327E+0	1.195634E+0
5.460110E+2	1.220338E+0	1.197961E+0	1.220775E+0	1.197116E+0	1.171656E+0	1.148834E+0	1.187294E+0	1.174023E+0	1.173150E+0	1.220825E+0	1.194591E+0	1.177519E+0	1.206817E+0	1.187779E+0	1.195582E+0	1.220896E+0	1.197247E+0	1.233948E+0	1.208793E+0	1.195477E+0	1.239347E+0	1.205865E+0	1.167298E+0	1.203397E+0	1.242002E+0	1.194347E+0	1.238831E+0	1.257810E+0	1.176815E+0	1.138353E+0	1.212561E+0	1.190113E+0	1.181232E+0	1.149104E+0	1.199821E+0	1.216614E+0	1.140823E+0	1.158535E+0	1.207402E+0	1.164553E+0	1.225929E+0	1.177214E+0	1.218267E+0	1.285978E+0	1.186113E+0	1.209752E+0	1.204766E+0	1.182123E+0	1.227112E+0	1.182457E+0	1.170060E+0	1.215900E+0	1.207842E+0	1.217033E+0	1.202222E+0	1.209341E+0	1.219134E+0	1.191859E+0	1.194975E+0	1.194042E+0	1.220758E+0	1.172799E+0	1.206619E+0	1.206217E+0	1.171134E+0	1.158993E+0	1.216593E+0	1.203160E+0	1.200271E+0	1.198861E+0	1.242964E+0	1.236657E+0	1.167090E+0	1.199181E+0	1.159885E+0	1.252552E+0	1.233882E+0	1.175590E+0	1.203733E+0	1.202526E+0	1.180245E+0	1.177508E+0	1.194509E+0	1.198728E+0	1.184245E+0	1.176435E+0	1.230361E+0	1.219161E+0	1.201789E+0	1.165118E+0	1.208515E+0	1.166831E+0	1.215768E+0	1.221443E+0	1.201809E+0	1.206000E+0	1.163571E+0	1.137888E+0	1.177705E+0	1.168309E+0	1.205085E+0	1.198531E+0	1.237948E+0	1.201086E+0	1.193360E+0	1.199698E+0	1.222578E+0	1.152036E+0	1.169373E+0	1.199228E+0	1.189346E+0	1.167793E+0	1.220777E+0	1.222939E+0	1.169676E+0	1.179861E+0	1.163064E+0	1.209485E+0	1.173925E+0	1.219602E+0	1.133526E+0	1.212415E+0	1.196970E+0	1.179266E+0	1.227763E+0	1.145116E+0	1.154739E+0	1.180650E+0	1.165027E+0	1.175503E+0	1.176895E+0	1.140529E+0	1.218694E+0	1.203197E+0	1.208384E+0	1.237957E+0	1.198232E+0	1.215073E+0	1.136469E+0	1.196736E+0	1.172605E+0	1.213454E+0	1.175266E+0	1.177808E+0	1.157502E+0	1.128495E+0	1.245531E+0	1.195895E+0	1.225288E+0	1.191274E+0	1.197733E+0	1.207452E+0	1.181398E+0	1.189431E+0	1.180490E+0	1.165455E+0	1.204547E+0	1.148414E+0	1.145996E+0	1.245440E+0	1.152217E+0	1.157561E+0	1.166308E+0	1.161112E+0	1.202854E+0	1.198393E+0	1.176014E+0	1.194697E+0	1.180369E+0	1.159090E+0	1.106000E+0
5.467710E+2	1.260252E+0	1.273984E+0	1.310485E+0	1.303536E+0	1.242534E+0	1.250443E+0	1.284833E+0	1.261577E+0	1.244465E+0	1.226922E+0	1.273053E+0	1.224702E+0	1.215617E+0	1.285113E+0	1.235727E+0	1.308797E+0	1.251986E+0	1.255970E+0	1.224172E+0	1.262222E+0	1.228420E+0	1.258189E+0	1.322758E+0	1.258510E+0	1.269617E+0	1.245794E+0	1.243881E+0	1.279053E+0	1.229216E+0	1.235298E+0	1.229301E+0	1.257827E+0	1.215282E+0	1.242812E+0	1.216366E+0	1.233551E+0	1.254468E+0	1.231966E+0	1.278373E+0	1.290289E+0	1.188364E+0	1.227107E+0	1.226069E+0	1.255541E+0	1.221458E+0	1.292127E+0	1.264443E+0	1.242254E+0	1.258944E+0	1.223195E+0	1.276941E+0	1.234132E+0	1.225826E+0	1.219767E+0	1.224804E+0	1.254205E+0	1.236641E+0	1.259931E+0	1.212242E+0	1.237944E+0	1.276121E+0	1.266911E+0	1.252711E+0	1.261173E+0	1.221041E+0	1.278355E+0	1.245620E+0	1.275336E+0	1.260737E+0	1.249246E+0	1.237358E+0	1.207385E+0	1.263826E+0	1.250256E+0	1.275507E+0	1.282056E+0	1.232728E+0	1.261489E+0	1.277395E+0	1.277357E+0	1.187895E+0	1.246033E+0	1.225772E+0	1.212724E+0	1.216429E+0	1.285613E+0	1.266282E+0	1.298346E+0	1.258153E+0	1.264764E+0	1.320456E+0	1.214598E+0	1.209193E+0	1.275139E+0	1.239348E+0	1.259926E+0	1.224537E+0	1.237833E+0	1.324313E+0	1.271419E+0	1.238589E+0	1.236901E+0	1.201157E+0	1.234778E+0	1.243173E+0	1.256240E+0	1.252875E+0	1.239565E+0	1.264428E+0	1.277478E+0	1.339887E+0	1.254042E+0	1.196900E+0	1.291955E+0	1.212107E+0	1.233110E+0	1.239346E+0	1.220809E+0	1.281244E+0	1.214552E+0	1.200099E+0	1.203844E+0	1.270799E+0	1.274451E+0	1.202033E+0	1.216707E+0	1.258931E+0	1.268028E+0	1.224226E+0	1.221338E+0	1.257524E+0	1.197050E+0	1.260687E+0	1.192279E+0	1.269219E+0	1.205954E+0	1.216484E+0	1.256812E+0	1.217827E+0	1.273237E+0	1.202691E+0	1.242916E+0	1.252810E+0	1.213759E+0	1.260076E+0	1.242774E+0	1.246051E+0	1.239781E+0	1.254607E+0	1.212721E+0	1.247813E+0	1.244119E+0	1.244646E+0	1.250241E+0	1.230404E+0	1.222384E+0	1.236991E+0	1.257472E+0	1.267163E+0	1.233550E+0	1.210351E+0	1.251428E+0	1.231828E+0	1.245341E+0	1.240882E+0	1.304962E+0	1.252827E+0	1.241150E+0	1.255794E+0	1.157459E+0	1.284578E+0
5.475070E+2	1.382599E+0	1.387923E+0	1.398855E+0	1.377398E+0	1.340531E+0	1.385271E+0	1.460587E+0	1.366495E+0	1.333923E+0	1.350335E+0	1.392602E+0	1.357670E+0	1.412113E+0	1.343624E+0	1.400364E+0	1.397835E+0	1.430112E+0	1.408970E+0	1.354925E+0	1.387137E+0	1.420725E+0	1.384766E+0	1.395088E+0	1.415539E+0	1.298186E+0	1.400147E+0	1.383448E+0	1.383705E+0	1.365225E+0	1.337053E+0	1.353830E+0	1.333572E+0	1.382640E+0	1.373435E+0	1.431537E+0	1.362674E+0	1.331581E+0	1.352263E+0	1.381198E+0	1.351547E+0	1.301851E+0	1.377176E+0	1.392226E+0	1.415592E+0	1.368405E+0	1.405102E+0	1.363163E+0	1.390651E+0	1.323898E+0	1.384904E+0	1.425459E+0	1.406539E+0	1.351942E+0	1.387084E+0	1.413527E+0	1.392054E+0	1.311728E+0	1.344949E+0	1.343453E+0	1.389462E+0	1.379160E+0	1.412450E+0	1.430559E+0	1.353754E+0	1.328616E+0	1.370466E+0	1.421822E+0	1.385489E+0	1.414968E+0	1.368954E+0	1.369517E+0	1.406309E+0	1.331595E+0	1.395170E+0	1.401719E+0	1.393586E+0	1.331539E+0	1.352843E+0	1.375760E+0	1.358353E+0	1.418694E+0	1.372561E+0	1.389838E+0	1.370085E+0	1.359054E+0	1.394669E+0	1.392168E+0	1.395893E+0	1.355093E+0	1.380059E+0	1.376025E+0	1.397010E+0	1.433861E+0	1.337592E+0	1.381983E+0	1.412802E+0	1.359527E+0	1.384067E+0	1.353466E+0	1.318396E+0	1.413460E+0	1.353406E+0	1.345239E+0	1.367134E+0	1.382130E+0	1.365193E+0	1.382385E+0	1.364412E+0	1.417570E+0	1.403974E+0	1.371380E+0	1.340222E+0	1.387731E+0	1.393938E+0	1.418014E+0	1.394470E+0	1.315958E+0	1.388636E+0	1.386430E+0	1.355145E+0	1.348272E+0	1.340241E+0	1.411708E+0	1.367406E+0	1.358383E+0	1.387791E+0	1.353227E+0	1.382989E+0	1.380343E+0	1.330825E+0	1.351668E+0	1.332106E+0	1.355897E+0	1.353009E+0	1.451381E+0	1.401971E+0	1.361039E+0	1.379261E+0	1.402811E+0	1.352396E+0	1.350491E+0	1.414963E+0	1.381485E+0	1.265052E+0	1.309087E+0	1.394679E+0	1.379887E+0	1.318521E+0	1.387363E+0	1.312478E+0	1.385599E+0	1.384745E+0	1.338648E+0	1.334253E+0	1.341547E+0	1.335180E+0	1.351486E+0	1.368833E+0	1.393208E+0	1.420508E+0	1.306702E+0	1.358036E+0	1.385299E+0	1.384632E+0	1.346464E+0	1.376968E+0	1.417888E+0	1.383769E+0	1.367388E+0	1.414559E+0	1.451215E+0
5.482600E+2	1.472016E+0	1.491066E+0	1.513273E+0	1.484771E+0	1.503657E+0	1.479055E+0	1.546496E+0	1.512357E+0	1.514025E+0	1.522001E+0	1.460364E+0	1.427960E+0	1.511364E+0	1.445434E+0	1.480941E+0	1.486088E+0	1.472788E+0	1.479983E+0	1.427333E+0	1.467682E+0	1.473334E+0	1.475633E+0	1.508930E+0	1.458964E+0	1.453103E+0	1.493713E+0	1.510834E+0	1.544568E+0	1.448876E+0	1.448615E+0	1.424552E+0	1.441958E+0	1.465188E+0	1.490563E+0	1.473459E+0	1.462295E+0	1.418670E+0	1.463633E+0	1.444343E+0	1.456220E+0	1.466762E+0	1.423349E+0	1.444225E+0	1.481464E+0	1.460495E+0	1.464983E+0	1.455758E+0	1.457727E+0	1.431139E+0	1.429067E+0	1.569172E+0	1.463892E+0	1.415401E+0	1.462983E+0	1.475057E+0	1.436193E+0	1.443097E+0	1.418387E+0	1.501778E+0	1.445123E+0	1.401152E+0	1.459109E+0	1.480914E+0	1.439949E+0	1.506101E+0	1.454637E+0	1.434009E+0	1.478602E+0	1.484703E+0	1.446327E+0	1.493907E+0	1.479115E+0	1.455381E+0	1.482574E+0	1.398545E+0	1.418916E+0	1.448225E+0	1.395384E+0	1.434907E+0	1.487326E+0	1.449079E+0	1.396072E+0	1.489569E+0	1.433459E+0	1.411689E+0	1.456303E+0	1.482324E+0	1.475377E+0	1.464929E+0	1.451985E+0	1.516617E+0	1.376818E+0	1.463665E+0	1.478817E+0	1.503342E+0	1.394907E+0	1.457493E+0	1.486625E+0	1.471222E+0	1.468717E+0	1.461879E+0	1.430002E+0	1.483116E+0	1.431914E+0	1.465609E+0	1.452886E+0	1.465813E+0	1.489211E+0	1.441838E+0	1.458790E+0	1.481868E+0	1.473305E+0	1.460586E+0	1.488986E+0	1.487306E+0	1.444229E+0	1.415149E+0	1.435914E+0	1.452129E+0	1.440678E+0	1.384054E+0	1.439820E+0	1.478356E+0	1.495860E+0	1.463502E+0	1.443423E+0	1.378639E+0	1.466716E+0	1.463503E+0	1.424911E+0	1.458670E+0	1.472358E+0	1.438499E+0	1.462198E+0	1.500526E+0	1.490940E+0	1.450239E+0	1.452722E+0	1.459743E+0	1.427658E+0	1.380063E+0	1.457376E+0	1.446984E+0	1.455484E+0	1.437051E+0	1.425685E+0	1.443331E+0	1.457047E+0	1.459236E+0	1.447472E+0	1.465482E+0	1.464748E+0	1.428729E+0	1.432680E+0	1.446329E+0	1.428808E+0	1.460360E+0	1.494942E+0	1.446474E+0	1.454243E+0	1.447859E+0	1.500448E+0	1.399679E+0	1.447909E+0	1.430241E+0	1.455071E+0	1.445192E+0	1.449170E+0	1.472692E+0	1.454730E+0	1.471058E+0
5.490380E+2	1.424898E+0	1.432504E+0	1.475675E+0	1.456645E+0	1.399366E+0	1.460679E+0	1.486445E+0	1.433496E+0	1.389104E+0	1.399928E+0	1.475768E+0	1.414931E+0	1.444762E+0	1.435137E+0	1.424440E+0	1.490536E+0	1.385955E+0	1.422542E+0	1.385014E+0	1.480279E+0	1.406322E+0	1.448315E+0	1.469219E+0	1.452784E+0	1.401751E+0	1.425708E+0	1.459245E+0	1.424171E+0	1.358798E+0	1.360381E+0	1.393464E+0	1.423864E+0	1.438408E+0	1.492917E+0	1.428701E+0	1.467931E+0	1.452370E+0	1.439198E+0	1.451489E+0	1.493272E+0	1.424907E+0	1.465667E+0	1.443054E+0	1.442080E+0	1.405989E+0	1.429310E+0	1.430401E+0	1.471628E+0	1.361051E+0	1.363332E+0	1.431275E+0	1.433639E+0	1.402009E+0	1.477487E+0	1.428608E+0	1.444902E+0	1.377016E+0	1.353358E+0	1.427047E+0	1.415214E+0	1.412668E+0	1.411747E+0	1.464160E+0	1.401468E+0	1.417954E+0	1.421541E+0	1.463205E+0	1.462803E+0	1.351130E+0	1.400986E+0	1.399596E+0	1.438757E+0	1.376334E+0	1.454906E+0	1.404643E+0	1.413882E+0	1.473832E+0	1.414516E+0	1.437779E+0	1.446336E+0	1.428656E+0	1.434300E+0	1.434709E+0	1.406517E+0	1.380658E+0	1.441927E+0	1.462140E+0	1.443597E+0	1.473691E+0	1.401071E+0	1.447956E+0	1.431667E+0	1.431622E+0	1.471886E+0	1.444239E+0	1.459747E+0	1.421955E+0	1.413919E+0	1.486381E+0	1.392235E+0	1.410286E+0	1.432567E+0	1.432894E+0	1.436060E+0	1.428665E+0	1.394675E+0	1.503234E+0	1.453027E+0	1.411023E+0	1.424356E+0	1.424454E+0	1.371245E+0	1.413858E+0	1.453478E+0	1.448814E+0	1.375068E+0	1.420150E+0	1.384963E+0	1.456450E+0	1.429224E+0	1.358987E+0	1.387964E+0	1.416957E+0	1.360184E+0	1.396911E+0	1.449294E+0	1.433658E+0	1.411923E+0	1.413945E+0	1.370779E+0	1.492353E+0	1.379124E+0	1.426907E+0	1.379593E+0	1.420657E+0	1.382870E+0	1.433385E+0	1.433354E+0	1.412182E+0	1.434825E+0	1.405566E+0	1.367313E+0	1.415752E+0	1.416519E+0	1.445118E+0	1.382314E+0	1.416160E+0	1.348900E+0	1.422728E+0	1.384524E+0	1.444893E+0	1.390995E+0	1.410969E+0	1.426669E+0	1.420007E+0	1.391753E+0	1.421785E+0	1.501596E+0	1.451466E+0	1.402473E+0	1.435410E+0	1.419755E+0	1.408803E+0	1.443661E+0	1.406156E+0	1.424051E+0	1.500643E+0	1.428976E+0	1.352439E+0	1.452167E+0	1.474948E+0
5.497850E+2	1.328818E+0	1.418488E+0	1.344056E+0	1.329679E+0	1.382691E+0	1.331894E+0	1.420140E+0	1.370480E+0	1.315583E+0	1.335726E+0	1.385466E+0	1.377047E+0	1.326603E+0	1.361711E+0	1.330906E+0	1.340806E+0	1.356754E+0	1.322490E+0	1.339650E+0	1.323787E+0	1.361272E+0	1.361410E+0	1.383013E+0	1.396050E+0	1.344136E+0	1.318657E+0	1.369895E+0	1.358621E+0	1.341693E+0	1.321098E+0	1.358652E+0	1.372594E+0	1.368390E+0	1.336094E+0	1.385519E+0	1.350551E+0	1.352043E+0	1.324868E+0	1.335135E+0	1.362828E+0	1.340327E+0	1.347635E+0	1.379482E+0	1.380044E+0	1.287045E+0	1.313683E+0	1.338087E+0	1.387049E+0	1.340783E+0	1.352062E+0	1.418617E+0	1.374704E+0	1.274597E+0	1.398426E+0	1.334754E+0	1.334690E+0	1.351318E+0	1.355100E+0	1.377345E+0	1.306937E+0	1.358300E+0	1.341989E+0	1.368763E+0	1.378081E+0	1.374739E+0	1.326812E+0	1.351002E+0	1.383046E+0	1.344041E+0	1.363075E+0	1.314491E+0	1.359082E+0	1.299618E+0	1.344042E+0	1.312099E+0	1.399435E+0	1.345432E+0	1.339681E+0	1.398857E+0	1.336599E+0	1.300749E+0	1.365054E+0	1.363012E+0	1.358316E+0	1.327352E+0	1.371135E+0	1.404373E+0	1.348158E+0	1.349308E+0	1.337527E+0	1.332092E+0	1.373821E+0	1.278708E+0	1.355043E+0	1.339165E+0	1.326160E+0	1.378489E+0	1.321894E+0	1.379793E+0	1.346611E+0	1.342150E+0	1.356693E+0	1.360024E+0	1.332624E+0	1.369732E+0	1.352035E+0	1.356917E+0	1.348323E+0	1.321643E+0	1.354794E+0	1.329120E+0	1.292901E+0	1.359678E+0	1.388016E+0	1.335572E+0	1.349152E+0	1.347113E+0	1.276834E+0	1.363777E+0	1.324393E+0	1.326910E+0	1.319776E+0	1.391748E+0	1.336775E+0	1.368957E+0	1.345301E+0	1.331163E+0	1.348130E+0	1.340496E+0	1.314048E+0	1.335774E+0	1.314713E+0	1.349135E+0	1.299062E+0	1.386782E+0	1.316809E+0	1.303272E+0	1.332598E+0	1.355801E+0	1.380002E+0	1.323304E+0	1.331424E+0	1.338689E+0	1.326034E+0	1.339250E+0	1.314443E+0	1.389301E+0	1.341010E+0	1.319578E+0	1.333005E+0	1.370486E+0	1.322773E+0	1.267287E+0	1.403541E+0	1.375418E+0	1.305269E+0	1.279618E+0	1.337437E+0	1.308680E+0	1.397330E+0	1.371871E+0	1.369375E+0	1.383012E+0	1.338800E+0	1.364011E+0	1.337987E+0	1.346661E+0	1.320975E+0	1.331426E+0	1.356355E+0	1.265348E+0
5.505170E+2	1.290611E+0	1.340169E+0	1.354374E+0	1.361349E+0	1.320209E+0	1.288597E+0	1.338851E+0	1.297662E+0	1.346223E+0	1.320939E+0	1.344576E+0	1.365337E+0	1.361809E+0	1.343174E+0	1.339438E+0	1.364503E+0	1.358453E+0	1.378439E+0	1.308910E+0	1.365198E+0	1.335463E+0	1.357740E+0	1.333907E+0	1.317727E+0	1.303040E+0	1.277516E+0	1.317149E+0	1.310409E+0	1.370516E+0	1.337936E+0	1.337610E+0	1.330275E+0	1.356005E+0	1.336063E+0	1.358358E+0	1.339699E+0	1.315005E+0	1.343740E+0	1.345085E+0	1.331558E+0	1.367851E+0	1.289733E+0	1.349169E+0	1.370564E+0	1.321745E+0	1.361002E+0	1.349539E+0	1.325848E+0	1.263722E+0	1.283203E+0	1.335921E+0	1.303421E+0	1.314475E+0	1.343271E+0	1.341174E+0	1.374136E+0	1.321351E+0	1.328548E+0	1.354249E+0	1.376427E+0	1.298744E+0	1.351857E+0	1.335513E+0	1.305065E+0	1.315541E+0	1.303820E+0	1.334597E+0	1.348687E+0	1.305695E+0	1.304675E+0	1.364721E+0	1.297574E+0	1.326967E+0	1.291431E+0	1.317456E+0	1.368650E+0	1.303589E+0	1.270400E+0	1.326412E+0	1.304003E+0	1.246965E+0	1.353294E+0	1.349597E+0	1.313317E+0	1.301786E+0	1.352167E+0	1.326376E+0	1.308963E+0	1.358867E+0	1.334860E+0	1.327878E+0	1.389903E+0	1.294873E+0	1.335597E+0	1.337498E+0	1.352235E+0	1.309212E+0	1.334075E+0	1.347083E+0	1.335396E+0	1.341556E+0	1.332227E+0	1.352259E+0	1.301754E+0	1.301958E+0	1.326555E+0	1.361869E+0	1.301022E+0	1.289335E+0	1.406297E+0	1.385076E+0	1.298735E+0	1.298574E+0	1.353375E+0	1.319602E+0	1.327655E+0	1.337337E+0	1.333030E+0	1.329197E+0	1.345855E+0	1.331025E+0	1.261099E+0	1.326779E+0	1.355951E+0	1.329413E+0	1.371559E+0	1.353042E+0	1.296608E+0	1.306971E+0	1.282678E+0	1.345728E+0	1.321573E+0	1.309681E+0	1.300697E+0	1.353454E+0	1.356057E+0	1.341613E+0	1.303635E+0	1.351240E+0	1.335892E+0	1.317691E+0	1.363974E+0	1.320129E+0	1.304614E+0	1.286271E+0	1.295753E+0	1.318704E+0	1.303634E+0	1.360712E+0	1.301935E+0	1.362188E+0	1.311761E+0	1.314376E+0	1.316489E+0	1.320011E+0	1.295163E+0	1.336073E+0	1.294687E+0	1.331413E+0	1.303234E+0	1.337459E+0	1.248947E+0	1.326010E+0	1.342161E+0	1.290038E+0	1.328145E+0	1.334216E+0	1.290034E+0	1.307091E+0	1.287815E+0	1.255726E+0
5.512620E+2	1.319373E+0	1.333331E+0	1.318429E+0	1.327593E+0	1.299295E+0	1.357138E+0	1.337200E+0	1.345481E+0	1.304155E+0	1.291345E+0	1.314914E+0	1.366201E+0	1.332246E+0	1.326371E+0	1.284833E+0	1.328408E+0	1.363337E+0	1.369601E+0	1.312199E+0	1.337537E+0	1.352605E+0	1.306568E+0	1.344009E+0	1.321505E+0	1.327535E+0	1.302141E+0	1.306776E+0	1.399687E+0	1.314143E+0	1.301041E+0	1.317996E+0	1.300513E+0	1.286929E+0	1.287572E+0	1.309683E+0	1.329202E+0	1.328960E+0	1.292198E+0	1.274183E+0	1.323779E+0	1.283270E+0	1.293947E+0	1.349671E+0	1.350940E+0	1.297622E+0	1.344893E+0	1.303683E+0	1.298444E+0	1.394972E+0	1.309247E+0	1.295172E+0	1.378937E+0	1.284563E+0	1.352728E+0	1.277072E+0	1.409749E+0	1.285959E+0	1.286291E+0	1.281543E+0	1.301681E+0	1.307887E+0	1.308730E+0	1.306926E+0	1.277883E+0	1.315372E+0	1.318095E+0	1.313153E+0	1.349479E+0	1.280082E+0	1.343209E+0	1.320415E+0	1.353720E+0	1.364828E+0	1.310212E+0	1.273973E+0	1.348917E+0	1.301826E+0	1.286927E+0	1.360310E+0	1.271061E+0	1.290987E+0	1.304763E+0	1.323956E+0	1.298338E+0	1.315362E+0	1.334631E+0	1.366389E+0	1.389991E+0	1.307471E+0	1.350888E+0	1.374442E+0	1.302762E+0	1.296665E+0	1.297848E+0	1.294984E+0	1.313603E+0	1.289254E+0	1.322441E+0	1.330977E+0	1.290287E+0	1.307723E+0	1.303993E+0	1.343187E+0	1.293068E+0	1.383666E+0	1.275564E+0	1.342166E+0	1.280161E+0	1.305934E+0	1.348963E+0	1.308940E+0	1.312992E+0	1.288697E+0	1.298338E+0	1.300829E+0	1.322462E+0	1.343904E+0	1.328067E+0	1.348029E+0	1.339309E+0	1.282663E+0	1.275868E+0	1.381425E+0	1.351345E+0	1.317193E+0	1.303551E+0	1.337742E+0	1.290330E+0	1.300305E+0	1.277599E+0	1.327531E+0	1.241577E+0	1.297860E+0	1.296831E+0	1.333061E+0	1.333294E+0	1.338706E+0	1.255461E+0	1.311551E+0	1.304461E+0	1.270333E+0	1.327517E+0	1.367426E+0	1.308658E+0	1.342280E+0	1.323476E+0	1.372469E+0	1.312738E+0	1.287553E+0	1.301846E+0	1.357554E+0	1.283588E+0	1.255231E+0	1.340332E+0	1.322336E+0	1.300314E+0	1.242653E+0	1.311848E+0	1.302781E+0	1.327011E+0	1.275741E+0	1.346527E+0	1.300457E+0	1.276207E+0	1.318243E+0	1.301574E+0	1.330831E+0	1.293772E+0	1.216542E+0	1.321831E+0	1.314216E+0
5.520210E+2	1.330425E+0	1.368437E+0	1.284127E+0	1.306838E+0	1.309608E+0	1.345953E+0	1.362046E+0	1.344303E+0	1.331761E+0	1.325650E+0	1.295583E+0	1.343133E+0	1.338474E+0	1.335922E+0	1.350824E+0	1.334982E+0	1.284705E+0	1.326637E+0	1.310662E+0	1.381793E+0	1.354207E+0	1.342425E+0	1.342223E+0	1.355847E+0	1.317603E+0	1.316238E+0	1.385012E+0	1.305629E+0	1.317413E+0	1.316350E+0	1.362022E+0	1.367863E+0	1.292918E+0	1.321349E+0	1.317626E+0	1.324330E+0	1.332037E+0	1.295655E+0	1.386433E+0	1.358437E+0	1.239201E+0	1.324070E+0	1.358878E+0	1.339764E+0	1.319679E+0	1.325155E+0	1.312759E+0	1.314923E+0	1.362842E+0	1.315813E+0	1.331400E+0	1.292705E+0	1.288741E+0	1.330974E+0	1.319771E+0	1.367240E+0	1.327592E+0	1.359873E+0	1.347861E+0	1.323133E+0	1.317021E+0	1.282295E+0	1.348724E+0	1.277734E+0	1.336901E+0	1.324308E+0	1.268433E+0	1.312096E+0	1.367596E+0	1.302652E+0	1.312187E+0	1.353535E+0	1.256272E+0	1.232660E+0	1.292393E+0	1.329353E+0	1.287378E+0	1.316078E+0	1.316203E+0	1.302101E+0	1.254929E+0	1.299761E+0	1.310851E+0	1.307630E+0	1.324014E+0	1.336004E+0	1.282554E+0	1.289930E+0	1.289735E+0	1.320033E+0	1.280244E+0	1.350762E+0	1.335376E+0	1.361111E+0	1.325685E+0	1.308419E+0	1.246889E+0	1.303673E+0	1.277790E+0	1.334604E+0	1.315028E+0	1.290702E+0	1.306438E+0	1.280244E+0	1.308220E+0	1.315293E+0	1.352177E+0	1.330748E+0	1.289120E+0	1.349939E+0	1.320570E+0	1.351865E+0	1.321703E+0	1.332513E+0	1.273906E+0	1.273669E+0	1.342574E+0	1.277474E+0	1.316144E+0	1.288359E+0	1.285667E+0	1.317946E+0	1.403898E+0	1.381197E+0	1.298877E+0	1.323106E+0	1.341715E+0	1.260907E+0	1.281219E+0	1.312030E+0	1.336832E+0	1.275493E+0	1.280252E+0	1.278652E+0	1.295440E+0	1.251693E+0	1.298600E+0	1.351723E+0	1.334630E+0	1.291602E+0	1.285380E+0	1.311829E+0	1.311267E+0	1.315370E+0	1.337842E+0	1.309788E+0	1.282776E+0	1.289883E+0	1.342157E+0	1.302795E+0	1.310511E+0	1.298849E+0	1.278455E+0	1.323129E+0	1.367046E+0	1.292630E+0	1.310951E+0	1.305880E+0	1.349199E+0	1.315471E+0	1.345139E+0	1.334991E+0	1.351838E+0	1.325787E+0	1.325017E+0	1.316609E+0	1.308833E+0	1.268985E+0	1.233879E+0	1.310989E+0	1.322013E+0
5.527650E+2	1.270677E+0	1.310155E+0	1.315655E+0	1.316441E+0	1.283754E+0	1.259602E+0	1.329505E+0	1.329113E+0	1.305330E+0	1.235870E+0	1.294813E+0	1.284963E+0	1.331378E+0	1.275331E+0	1.295080E+0	1.319651E+0	1.325990E+0	1.312236E+0	1.238837E+0	1.295598E+0	1.252489E+0	1.272743E+0	1.284575E+0	1.364472E+0	1.322770E+0	1.272898E+0	1.320191E+0	1.328493E+0	1.265639E+0	1.294506E+0	1.310148E+0	1.321108E+0	1.276497E+0	1.300068E+0	1.300002E+0	1.335985E+0	1.288278E+0	1.278491E+0	1.257021E+0	1.275507E+0	1.292047E+0	1.322917E+0	1.268093E+0	1.306863E+0	1.316834E+0	1.306599E+0	1.324192E+0	1.268127E+0	1.300224E+0	1.277502E+0	1.279740E+0	1.305182E+0	1.242606E+0	1.321974E+0	1.275568E+0	1.268793E+0	1.311020E+0	1.264645E+0	1.248057E+0	1.290609E+0	1.250673E+0	1.261708E+0	1.320663E+0	1.307931E+0	1.298197E+0	1.269468E+0	1.275155E+0	1.328818E+0	1.252329E+0	1.278025E+0	1.263836E+0	1.285423E+0	1.289732E+0	1.306284E+0	1.257258E+0	1.306199E+0	1.219215E+0	1.285308E+0	1.279734E+0	1.300485E+0	1.316050E+0	1.278302E+0	1.309024E+0	1.335436E+0	1.284259E+0	1.290982E+0	1.321107E+0	1.327903E+0	1.279776E+0	1.267021E+0	1.281362E+0	1.295272E+0	1.284962E+0	1.319088E+0	1.290817E+0	1.239799E+0	1.245227E+0	1.248405E+0	1.307935E+0	1.279893E+0	1.267019E+0	1.274427E+0	1.237248E+0	1.280947E+0	1.253356E+0	1.229666E+0	1.329965E+0	1.315479E+0	1.268212E+0	1.341286E+0	1.282118E+0	1.298834E+0	1.265072E+0	1.277522E+0	1.263805E+0	1.293712E+0	1.253749E+0	1.287465E+0	1.268718E+0	1.298706E+0	1.260305E+0	1.217227E+0	1.289679E+0	1.262658E+0	1.264792E+0	1.316897E+0	1.286643E+0	1.226549E+0	1.263742E+0	1.314241E+0	1.314015E+0	1.294218E+0	1.254640E+0	1.276352E+0	1.261966E+0	1.309105E+0	1.240912E+0	1.307938E+0	1.307771E+0	1.228287E+0	1.274421E+0	1.320528E+0	1.279008E+0	1.226151E+0	1.332672E+0	1.286983E+0	1.269828E+0	1.263899E+0	1.342933E+0	1.231491E+0	1.317599E+0	1.279451E+0	1.239580E+0	1.286502E+0	1.258208E+0	1.298378E+0	1.262232E+0	1.269699E+0	1.230796E+0	1.294329E+0	1.275091E+0	1.301478E+0	1.289467E+0	1.291772E+0	1.256848E+0	1.318475E+0	1.305796E+0	1.317466E+0	1.263503E+0	1.297360E+0	1.333853E+0
5.535160E+2	1.192584E+0	1.221852E+0	1.236539E+0	1.225296E+0	1.230327E+0	1.198638E+0	1.237281E+0	1.217444E+0	1.226386E+0	1.210000E+0	1.222625E+0	1.203740E+0	1.249845E+0	1.212677E+0	1.204456E+0	1.226844E+0	1.260510E+0	1.237333E+0	1.191322E+0	1.203213E+0	1.241530E+0	1.211224E+0	1.163474E+0	1.291063E+0	1.178125E+0	1.199520E+0	1.241045E+0	1.227835E+0	1.187137E+0	1.193352E+0	1.189536E+0	1.185763E+0	1.192273E+0	1.197893E+0	1.191538E+0	1.213967E+0	1.193814E+0	1.192698E+0	1.196976E+0	1.289813E+0	1.203275E+0	1.240488E+0	1.203131E+0	1.208013E+0	1.176029E+0	1.221592E+0	1.229044E+0	1.191397E+0	1.210147E+0	1.174272E+0	1.223695E+0	1.249938E+0	1.152020E+0	1.191146E+0	1.152732E+0	1.258260E+0	1.229681E+0	1.175719E+0	1.238148E+0	1.143983E+0	1.214792E+0	1.184999E+0	1.229956E+0	1.171692E+0	1.236213E+0	1.239259E+0	1.204127E+0	1.253068E+0	1.209747E+0	1.231109E+0	1.203284E+0	1.240243E+0	1.207594E+0	1.236273E+0	1.157925E+0	1.246350E+0	1.177803E+0	1.197270E+0	1.212500E+0	1.208405E+0	1.240255E+0	1.225900E+0	1.171405E+0	1.205061E+0	1.192656E+0	1.270751E+0	1.201677E+0	1.236641E+0	1.193043E+0	1.185739E+0	1.194827E+0	1.179712E+0	1.211948E+0	1.228444E+0	1.212566E+0	1.206566E+0	1.215510E+0	1.225801E+0	1.159239E+0	1.198263E+0	1.266942E+0	1.201069E+0	1.213116E+0	1.206833E+0	1.212133E+0	1.233543E+0	1.262930E+0	1.251038E+0	1.190091E+0	1.287695E+0	1.198143E+0	1.203540E+0	1.175832E+0	1.241879E+0	1.183791E+0	1.178571E+0	1.208215E+0	1.172731E+0	1.177418E+0	1.181174E+0	1.169340E+0	1.207726E+0	1.217811E+0	1.198020E+0	1.168851E+0	1.208722E+0	1.196710E+0	1.208473E+0	1.208506E+0	1.187253E+0	1.186265E+0	1.213100E+0	1.197039E+0	1.204411E+0	1.198349E+0	1.193159E+0	1.176581E+0	1.197035E+0	1.224387E+0	1.217797E+0	1.204303E+0	1.199521E+0	1.188431E+0	1.180938E+0	1.231512E+0	1.176507E+0	1.146198E+0	1.200072E+0	1.166504E+0	1.191156E+0	1.168641E+0	1.229069E+0	1.172037E+0	1.266421E+0	1.241185E+0	1.181476E+0	1.250860E+0	1.209928E+0	1.193105E+0	1.225999E+0	1.194327E+0	1.167130E+0	1.173602E+0	1.239452E+0	1.233498E+0	1.222255E+0	1.217371E+0	1.217285E+0	1.148244E+0	1.243700E+0	1.337654E+0
5.542580E+2	1.066742E+0	1.076640E+0	1.123796E+0	1.061829E+0	1.100796E+0	1.129005E+0	1.094705E+0	1.122755E+0	1.139821E+0	1.159629E+0	1.127832E+0	1.066112E+0	1.142798E+0	1.163346E+0	1.107679E+0	1.096918E+0	1.149464E+0	1.092089E+0	1.103644E+0	1.140810E+0	1.123625E+0	1.095156E+0	1.140424E+0	1.143364E+0	1.076394E+0	1.125174E+0	1.132494E+0	1.161275E+0	1.135594E+0	1.101267E+0	1.125809E+0	1.075286E+0	1.099037E+0	1.132135E+0	1.126375E+0	1.135302E+0	1.108536E+0	1.095242E+0	1.076133E+0	1.115336E+0	1.132818E+0	1.161775E+0	1.110087E+0	1.138777E+0	1.147560E+0	1.114493E+0	1.112706E+0	1.135962E+0	1.081866E+0	1.093995E+0	1.121643E+0	1.109955E+0	1.066099E+0	1.115203E+0	1.111057E+0	1.096039E+0	1.094629E+0	1.133296E+0	1.135991E+0	1.108826E+0	1.079074E+0	1.112824E+0	1.118051E+0	1.111734E+0	1.103283E+0	1.110411E+0	1.093234E+0	1.138609E+0	1.124542E+0	1.098714E+0	1.076404E+0	1.150169E+0	1.122525E+0	1.121686E+0	1.104491E+0	1.133470E+0	1.089927E+0	1.135319E+0	1.123317E+0	1.116135E+0	1.069743E+0	1.083461E+0	1.073176E+0	1.091963E+0	1.129487E+0	1.080154E+0	1.138386E+0	1.125138E+0	1.101216E+0	1.123618E+0	1.158607E+0	1.133442E+0	1.106327E+0	1.128310E+0	1.099716E+0	1.060972E+0	1.065866E+0	1.111822E+0	1.115563E+0	1.117052E+0	1.079515E+0	1.074118E+0	1.135418E+0	1.079221E+0	1.106123E+0	1.109730E+0	1.125159E+0	1.130743E+0	1.131970E+0	1.132956E+0	1.136106E+0	1.114957E+0	1.145046E+0	1.172103E+0	1.117281E+0	1.148276E+0	1.122365E+0	1.080106E+0	1.157736E+0	1.120276E+0	1.087604E+0	1.087604E+0	1.123723E+0	1.114819E+0	1.103928E+0	1.118211E+0	1.099796E+0	1.071863E+0	1.116215E+0	1.069654E+0	1.128475E+0	1.137525E+0	1.112271E+0	1.124515E+0	1.152968E+0	1.144387E+0	1.076243E+0	1.088626E+0	1.105203E+0	1.105057E+0	1.111551E+0	1.105068E+0	1.152195E+0	1.124362E+0	1.099688E+0	1.126615E+0	1.129683E+0	1.071257E+0	1.109311E+0	1.123651E+0	1.110246E+0	1.080340E+0	1.064760E+0	1.118233E+0	1.156875E+0	1.106533E+0	1.079194E+0	1.037081E+0	1.131119E+0	1.144411E+0	1.105790E+0	1.123236E+0	1.083147E+0	1.132422E+0	1.150624E+0	1.157472E+0	1.124022E+0	1.156354E+0	1.168045E+0	1.091362E+0	1.082514E+0
5.550190E+2	1.019558E+0	9.962571E-1	1.008605E+0	1.002957E+0	1.045240E+0	1.021130E+0	1.105199E+0	1.052067E+0	1.069526E+0	1.038957E+0	1.050619E+0	1.028939E+0	1.027579E+0	1.042636E+0	9.871022E-1	9.875083E-1	1.080200E+0	1.008937E+0	1.042165E+0	1.043399E+0	1.007314E+0	1.034860E+0	1.065814E+0	1.079205E+0	1.057557E+0	9.938651E-1	1.048116E+0	1.041162E+0	1.032800E+0	1.026606E+0	1.025433E+0	1.017504E+0	9.926477E-1	1.060679E+0	1.024597E+0	1.005796E+0	1.017266E+0	9.929811E-1	1.053350E+0	1.067715E+0	1.013003E+0	1.010904E+0	9.905261E-1	1.074026E+0	1.041630E+0	1.049061E+0	1.054164E+0	1.003495E+0	1.042465E+0	1.062899E+0	1.058291E+0	1.018682E+0	9.885686E-1	1.050535E+0	1.005133E+0	1.032064E+0	9.863667E-1	1.030505E+0	1.025694E+0	1.020090E+0	1.030763E+0	1.063521E+0	1.045197E+0	1.024503E+0	1.035302E+0	1.038468E+0	1.031022E+0	1.018791E+0	1.067347E+0	1.030517E+0	1.036700E+0	1.023389E+0	1.061373E+0	1.010345E+0	9.993933E-1	1.041240E+0	1.009956E+0	1.012696E+0	1.107942E+0	1.028380E+0	9.930305E-1	1.014662E+0	1.044575E+0	9.926340E-1	9.861805E-1	1.068577E+0	1.054420E+0	1.019211E+0	1.041439E+0	1.012330E+0	9.999470E-1	1.052107E+0	1.027040E+0	1.042487E+0	1.023022E+0	1.046896E+0	1.048495E+0	1.066905E+0	1.003158E+0	1.083806E+0	1.020685E+0	1.032266E+0	1.062412E+0	9.766938E-1	1.019093E+0	1.043031E+0	1.061977E+0	1.026283E+0	1.052948E+0	1.049016E+0	1.062548E+0	1.031694E+0	1.067788E+0	1.065405E+0	1.017897E+0	9.976468E-1	1.028460E+0	1.030723E+0	1.013746E+0	1.038127E+0	1.043474E+0	1.043593E+0	1.026515E+0	1.030296E+0	1.026535E+0	1.034942E+0	1.022237E+0	1.026499E+0	1.000839E+0	1.039424E+0	1.030884E+0	1.033751E+0	1.030235E+0	1.055653E+0	1.030664E+0	9.805900E-1	1.001757E+0	1.022754E+0	1.057631E+0	1.045782E+0	1.018177E+0	1.040027E+0	1.054801E+0	1.007860E+0	1.072057E+0	1.044555E+0	1.031717E+0	1.063786E+0	1.074140E+0	1.045065E+0	1.056239E+0	1.022836E+0	1.028636E+0	1.014416E+0	1.057277E+0	1.019547E+0	1.018365E+0	1.032397E+0	9.646900E-1	1.051348E+0	1.064061E+0	1.053668E+0	1.036223E+0	1.012314E+0	1.028043E+0	1.009805E+0	1.041604E+0	1.037325E+0	1.005944E+0	1.081743E+0	1.021713E+0
5.557710E+2	9.917727E-1	9.670836E-1	9.533645E-1	1.013346E+0	9.870251E-1	9.810856E-1	9.863950E-1	9.984231E-1	9.798451E-1	9.594750E-1	9.664440E-1	9.759721E-1	9.732749E-1	9.592724E-1	9.512196E-1	9.950245E-1	1.000361E+0	1.004626E+0	9.764885E-1	9.843426E-1	9.831089E-1	1.016149E+0	1.016313E+0	1.039834E+0	9.794286E-1	9.810241E-1	9.591640E-1	1.027337E+0	9.375484E-1	9.764147E-1	9.819176E-1	1.002681E+0	9.948982E-1	9.964499E-1	9.611233E-1	9.964720E-1	9.702954E-1	1.019099E+0	9.784633E-1	1.020757E+0	9.467554E-1	9.712166E-1	1.005190E+0	9.909218E-1	9.622944E-1	9.675652E-1	9.775951E-1	9.824245E-1	9.592895E-1	9.587929E-1	9.479955E-1	9.415471E-1	9.765854E-1	9.928852E-1	9.894024E-1	1.012556E+0	9.818889E-1	9.664091E-1	9.484280E-1	9.428593E-1	9.890117E-1	1.007249E+0	9.689134E-1	9.677283E-1	9.598854E-1	9.758451E-1	9.177120E-1	1.015561E+0	9.595004E-1	1.008945E+0	9.688653E-1	9.894683E-1	9.557378E-1	9.587429E-1	9.659596E-1	9.754664E-1	9.888230E-1	9.455064E-1	9.960375E-1	9.507202E-1	9.484832E-1	1.013751E+0	9.649585E-1	9.827433E-1	9.512472E-1	9.975933E-1	1.006085E+0	1.009753E+0	9.967741E-1	9.740894E-1	9.663743E-1	1.003837E+0	9.815391E-1	1.018259E+0	1.022748E+0	9.740171E-1	9.752273E-1	9.570217E-1	9.813680E-1	9.780531E-1	9.975236E-1	9.966808E-1	9.689729E-1	9.610010E-1	9.467342E-1	9.248233E-1	1.011191E+0	9.587504E-1	9.842376E-1	1.004615E+0	9.849610E-1	9.900623E-1	9.676468E-1	9.717032E-1	9.379528E-1	9.696825E-1	9.964178E-1	9.479065E-1	9.866551E-1	9.634072E-1	9.337350E-1	9.922310E-1	9.616033E-1	9.888240E-1	9.731494E-1	9.672906E-1	1.016410E+0	9.847145E-1	9.936029E-1	9.472163E-1	9.480067E-1	1.001823E+0	9.891357E-1	9.555184E-1	9.513940E-1	9.692607E-1	9.932183E-1	1.002909E+0	1.010209E+0	1.007875E+0	9.570790E-1	9.886334E-1	9.941884E-1	1.007302E+0	9.576904E-1	9.911739E-1	9.654881E-1	9.565384E-1	9.772326E-1	9.705608E-1	9.398878E-1	9.993872E-1	1.006064E+0	1.016608E+0	1.017788E+0	1.018578E+0	9.720628E-1	9.456535E-1	9.675356E-1	1.035270E+0	9.871644E-1	9.699415E-1	9.524591E-1	9.851369E-1	9.214798E-1	9.823664E-1	1.042420E+0	9.944456E-1	9.812048E-1	9.912371E-1	9.662803E-1
5.560130E+2	1.019891E+0	9.814186E-1	9.528925E-1	1.056495E+0	9.721609E-1	1.004097E+0	9.848297E-1	1.045940E+0	1.004312E+0	9.670849E-1	9.630255E-1	9.724014E-1	9.608998E-1	9.658545E-1	9.961623E-1	9.885495E-1	1.019475E+0	1.000045E+0	1.003678E+0	9.958167E-1	9.706056E-1	9.852456E-1	9.778246E-1	1.010320E+0	9.961985E-1	9.133861E-1	9.385373E-1	9.792108E-1	9.809993E-1	9.507370E-1	9.767669E-1	9.897938E-1	9.878488E-1	9.688182E-1	9.809902E-1	1.021326E+0	9.875617E-1	9.769662E-1	9.673626E-1	9.903226E-1	1.006919E+0	9.745152E-1	9.833791E-1	9.927529E-1	9.769837E-1	1.022136E+0	9.635278E-1	1.027035E+0	9.903546E-1	9.921880E-1	1.014769E+0	1.016008E+0	9.467637E-1	9.622450E-1	9.308329E-1	9.791756E-1	9.904699E-1	9.834824E-1	9.739652E-1	9.555639E-1	9.658194E-1	1.025649E+0	9.771562E-1	9.769040E-1	9.415918E-1	9.462979E-1	9.546168E-1	9.756068E-1	9.608090E-1	9.904487E-1	9.950439E-1	9.952399E-1	1.001922E+0	9.816135E-1	9.917829E-1	9.748479E-1	9.572427E-1	9.941961E-1	9.864814E-1	9.904934E-1	9.924089E-1	9.750122E-1	9.950886E-1	1.003461E+0	9.901414E-1	9.824839E-1	1.007854E+0	9.838587E-1	9.936965E-1	9.364120E-1	9.996204E-1	1.021226E+0	9.874402E-1	9.816521E-1	9.676252E-1	1.013589E+0	9.881022E-1	9.283344E-1	9.948488E-1	9.950205E-1	1.019871E+0	1.013199E+0	9.617504E-1	9.755027E-1	1.013351E+0	1.004481E+0	9.611372E-1	9.399324E-1	9.684730E-1	9.608708E-1	9.937997E-1	9.999135E-1	9.796003E-1	9.636672E-1	9.171130E-1	9.676753E-1	9.169738E-1	9.899493E-1	9.920132E-1	1.025321E+0	9.907375E-1	9.615417E-1	1.005283E+0	9.951170E-1	1.026307E+0	9.823702E-1	9.751706E-1	9.894268E-1	9.704718E-1	1.007491E+0	9.833395E-1	9.817106E-1	9.457762E-1	9.813353E-1	9.822354E-1	1.004122E+0	9.927197E-1	9.263278E-1	1.020787E+0	9.690090E-1	9.836131E-1	9.896161E-1	9.724108E-1	1.013096E+0	1.009698E+0	1.024878E+0	9.882305E-1	9.695991E-1	9.567775E-1	9.523760E-1	9.570706E-1	1.025185E+0	1.006087E+0	9.785366E-1	9.674437E-1	1.001559E+0	9.914706E-1	9.668237E-1	9.812398E-1	9.991942E-1	9.940602E-1	9.657155E-1	1.028073E+0	9.662440E-1	1.007639E+0	1.012766E+0	1.004079E+0	9.939965E-1	9.130122E-1	9.752905E-1	9.308599E-1
5.565090E+2	9.638105E-1	9.681248E-1	1.006150E+0	9.674462E-1	9.793760E-1	9.840976E-1	9.636918E-1	1.040945E+0	9.911720E-1	9.872349E-1	9.733644E-1	9.654751E-1	1.000917E+0	1.007017E+0	9.743457E-1	1.000323E+0	9.580694E-1	9.981414E-1	9.840007E-1	1.001940E+0	9.590385E-1	1.033730E+0	9.691267E-1	9.697055E-1	9.582771E-1	9.972103E-1	9.917342E-1	9.765127E-1	1.013746E+0	9.697822E-1	9.511822E-1	9.745232E-1	1.029616E+0	9.914888E-1	9.777715E-1	1.006787E+0	1.016427E+0	9.863094E-1	1.029875E+0	1.005636E+0	9.691083E-1	9.336414E-1	9.977890E-1	9.907688E-1	9.942591E-1	9.669638E-1	1.014874E+0	9.889983E-1	9.738931E-1	9.634677E-1	1.024631E+0	1.010006E+0	9.824958E-1	1.024606E+0	1.022598E+0	1.031845E+0	9.511981E-1	9.609709E-1	9.697850E-1	1.031221E+0	1.036244E+0	9.903407E-1	9.888182E-1	9.863552E-1	9.853740E-1	1.007879E+0	1.035544E+0	1.006631E+0	1.045498E+0	9.639768E-1	1.014878E+0	9.815155E-1	9.764870E-1	1.000679E+0	9.777185E-1	9.830766E-1	9.890193E-1	9.788517E-1	9.811742E-1	9.881236E-1	9.935876E-1	1.014434E+0	1.003045E+0	9.694257E-1	9.851240E-1	1.006336E+0	9.856756E-1	9.661650E-1	9.885868E-1	9.739627E-1	9.695844E-1	9.735313E-1	9.571052E-1	9.761869E-1	1.025670E+0	9.820979E-1	9.684541E-1	1.009333E+0	1.006628E+0	1.026825E+0	9.774498E-1	9.271183E-1	1.020429E+0	9.864853E-1	1.035898E+0	1.004555E+0	9.880800E-1	9.876756E-1	1.000492E+0	1.002485E+0	9.904129E-1	9.892991E-1	9.798191E-1	9.855622E-1	9.959244E-1	9.974450E-1	9.953546E-1	9.797894E-1	9.600532E-1	9.732583E-1	9.933118E-1	9.643386E-1	9.875203E-1	9.830399E-1	9.993177E-1	1.008266E+0	9.687869E-1	9.851124E-1	9.566138E-1	9.833393E-1	1.020225E+0	9.792089E-1	1.049449E+0	1.031575E+0	9.885143E-1	9.964736E-1	1.007375E+0	9.516176E-1	9.738521E-1	1.007062E+0	9.932795E-1	1.025140E+0	9.737466E-1	9.983626E-1	9.804876E-1	9.724559E-1	9.983598E-1	1.018828E+0	9.914009E-1	9.612390E-1	9.722534E-1	1.026220E+0	9.457582E-1	9.944825E-1	9.912398E-1	9.883749E-1	9.975506E-1	9.936080E-1	9.727048E-1	9.984553E-1	1.041876E+0	1.004336E+0	9.726532E-1	1.014140E+0	9.853317E-1	9.565656E-1	9.689926E-1	1.042646E+0	9.962939E-1	1.050698E+0	9.835315E-1
5.570270E+2	9.567350E-1	9.869829E-1	9.785673E-1	9.924113E-1	9.701852E-1	9.524627E-1	9.461073E-1	9.172327E-1	9.771403E-1	9.570106E-1	9.575181E-1	9.987199E-1	1.032984E+0	1.018484E+0	9.698770E-1	9.820756E-1	9.978623E-1	9.758837E-1	9.879872E-1	9.625292E-1	9.950335E-1	9.418534E-1	9.462195E-1	9.695670E-1	9.430920E-1	9.654214E-1	9.738362E-1	9.907585E-1	9.883905E-1	9.969283E-1	9.953938E-1	1.013814E+0	9.721178E-1	9.910407E-1	9.339576E-1	1.028743E+0	1.001609E+0	1.006736E+0	9.796588E-1	9.839776E-1	9.632630E-1	9.934126E-1	9.472213E-1	1.026145E+0	9.730262E-1	9.811969E-1	9.869279E-1	9.749772E-1	1.000068E+0	9.555763E-1	9.787131E-1	9.248576E-1	9.807713E-1	9.727999E-1	9.738244E-1	9.547703E-1	1.020683E+0	9.863589E-1	9.900857E-1	9.640893E-1	9.951844E-1	9.822420E-1	1.024582E+0	1.019045E+0	9.592551E-1	9.464090E-1	9.967705E-1	1.018801E+0	9.948074E-1	9.389797E-1	1.022207E+0	9.659733E-1	1.007663E+0	9.698393E-1	9.583198E-1	1.039706E+0	1.019039E+0	9.578191E-1	9.568603E-1	9.913591E-1	9.614567E-1	1.001574E+0	9.436097E-1	9.906939E-1	9.819255E-1	1.003836E+0	9.680295E-1	1.002686E+0	1.012351E+0	9.448089E-1	9.604889E-1	9.936623E-1	9.687448E-1	9.882708E-1	9.801234E-1	9.989387E-1	9.669651E-1	9.600071E-1	9.971531E-1	9.396045E-1	9.706394E-1	1.003698E+0	9.653129E-1	9.779860E-1	1.008090E+0	9.795476E-1	9.892197E-1	9.793828E-1	9.925790E-1	9.380140E-1	9.725189E-1	1.007603E+0	1.020738E+0	9.761730E-1	9.925931E-1	1.028420E+0	1.027008E+0	9.532848E-1	9.886896E-1	9.579853E-1	9.849333E-1	9.741897E-1	9.715167E-1	1.029875E+0	9.502526E-1	1.010495E+0	9.520281E-1	9.753304E-1	1.032110E+0	9.804725E-1	9.817979E-1	9.771805E-1	9.695784E-1	9.731786E-1	9.772706E-1	9.553465E-1	9.958912E-1	9.689809E-1	9.568879E-1	1.009059E+0	9.693137E-1	9.828033E-1	9.330488E-1	1.018311E+0	9.562152E-1	9.620743E-1	9.461251E-1	1.010820E+0	9.757684E-1	9.734727E-1	9.851607E-1	9.841564E-1	1.049551E+0	9.538681E-1	9.735473E-1	9.669891E-1	9.741259E-1	9.424540E-1	9.829758E-1	9.806206E-1	9.929423E-1	9.428351E-1	9.419133E-1	9.687271E-1	9.908039E-1	9.569191E-1	9.694626E-1	1.015533E+0	9.629230E-1	1.008587E+0	9.984655E-1
5.575640E+2	9.665607E-1	9.700448E-1	9.727109E-1	9.943346E-1	1.021232E+0	9.921345E-1	1.001603E+0	1.024796E+0	9.821200E-1	1.027932E+0	1.039228E+0	9.467257E-1	9.887560E-1	9.909020E-1	9.885528E-1	1.017437E+0	1.007870E+0	1.015452E+0	9.904479E-1	9.984312E-1	9.940195E-1	1.007597E+0	1.003478E+0	1.031529E+0	1.011266E+0	9.989033E-1	1.029020E+0	9.921187E-1	1.019103E+0	9.847331E-1	1.003888E+0	9.647431E-1	1.007456E+0	9.787389E-1	9.908252E-1	9.970371E-1	9.937360E-1	1.028509E+0	9.690664E-1	1.025590E+0	1.015356E+0	1.039021E+0	1.037323E+0	9.659721E-1	1.008243E+0	9.874110E-1	9.919851E-1	1.015795E+0	1.026391E+0	9.899176E-1	9.875990E-1	1.010621E+0	9.945088E-1	1.008275E+0	1.023861E+0	9.939081E-1	1.020506E+0	9.723013E-1	1.012528E+0	1.034575E+0	1.000281E+0	1.021635E+0	1.022469E+0	1.011950E+0	1.024996E+0	9.937891E-1	1.020997E+0	9.636430E-1	1.002176E+0	9.617703E-1	9.568656E-1	1.063857E+0	9.846129E-1	1.005077E+0	9.941580E-1	1.012633E+0	9.802023E-1	9.815072E-1	1.000444E+0	9.876657E-1	1.033160E+0	1.002106E+0	9.805273E-1	9.921106E-1	1.006293E+0	1.011677E+0	9.969413E-1	9.782841E-1	9.998056E-1	9.872233E-1	9.961337E-1	9.844630E-1	1.024396E+0	9.914340E-1	9.857888E-1	1.013741E+0	9.941627E-1	1.004690E+0	9.455708E-1	9.946102E-1	1.013276E+0	1.005530E+0	9.895459E-1	1.006448E+0	1.035706E+0	9.735925E-1	9.763678E-1	9.888314E-1	1.012613E+0	9.978097E-1	9.980497E-1	9.484792E-1	1.008311E+0	9.520051E-1	9.828456E-1	9.664224E-1	1.014876E+0	1.007244E+0	1.027160E+0	1.015676E+0	1.038650E+0	9.913886E-1	9.819978E-1	1.027529E+0	9.763423E-1	9.637634E-1	9.580066E-1	1.025220E+0	9.873444E-1	9.706055E-1	9.754880E-1	9.972136E-1	9.731420E-1	1.019035E+0	1.009182E+0	9.995446E-1	1.002508E+0	1.001937E+0	9.879127E-1	9.856488E-1	9.937202E-1	9.940112E-1	1.032362E+0	1.040915E+0	1.031831E+0	1.043352E+0	1.003512E+0	1.000922E+0	9.923690E-1	9.899235E-1	9.941424E-1	1.017414E+0	1.012016E+0	1.001559E+0	1.012653E+0	1.015090E+0	1.048773E+0	1.001872E+0	1.001925E+0	9.690484E-1	9.376886E-1	9.750106E-1	1.020825E+0	9.772531E-1	9.601016E-1	1.018866E+0	9.677536E-1	1.011876E+0	1.006309E+0	9.467499E-1	1.009840E+0
5.580230E+2	1.013088E+0	1.005738E+0	1.030199E+0	9.664329E-1	1.005896E+0	1.046500E+0	1.009916E+0	9.892881E-1	9.884903E-1	1.036638E+0	1.019239E+0	1.009101E+0	9.967593E-1	9.551839E-1	1.013278E+0	1.023261E+0	1.011701E+0	9.814584E-1	9.955845E-1	9.855076E-1	1.070168E+0	1.008316E+0	1.010993E+0	9.983894E-1	1.017052E+0	1.019857E+0	9.988712E-1	1.007108E+0	9.969489E-1	9.979562E-1	1.034520E+0	1.008167E+0	9.596480E-1	9.958716E-1	1.042459E+0	9.836189E-1	9.872206E-1	1.007111E+0	9.903405E-1	1.028509E+0	9.993359E-1	1.008581E+0	9.643522E-1	1.002556E+0	9.764296E-1	9.904391E-1	9.838940E-1	9.888105E-1	1.013173E+0	1.012510E+0	1.001769E+0	1.007539E+0	9.956004E-1	9.804602E-1	9.783572E-1	1.003274E+0	1.033788E+0	1.028154E+0	1.033744E+0	9.915566E-1	1.014488E+0	9.998692E-1	1.027665E+0	9.888601E-1	1.024850E+0	9.901656E-1	9.818885E-1	1.037093E+0	9.761581E-1	1.042206E+0	1.011949E+0	9.750390E-1	1.002367E+0	1.029460E+0	1.013433E+0	1.006299E+0	9.866726E-1	1.012816E+0	1.018442E+0	9.580053E-1	1.020337E+0	9.751387E-1	1.018902E+0	9.708133E-1	9.889036E-1	9.883847E-1	1.020062E+0	1.025215E+0	1.034233E+0	1.007106E+0	1.021696E+0	1.013762E+0	1.012413E+0	1.037334E+0	1.025953E+0	1.007335E+0	1.067267E+0	1.018589E+0	9.974624E-1	9.602399E-1	9.636605E-1	9.540071E-1	9.449016E-1	9.986441E-1	9.787065E-1	9.995909E-1	9.985679E-1	9.984226E-1	1.020542E+0	1.000853E+0	1.014937E+0	1.013529E+0	9.839651E-1	1.010314E+0	1.037484E+0	9.879760E-1	9.858466E-1	1.036042E+0	9.999927E-1	9.903509E-1	1.001389E+0	1.025619E+0	1.005991E+0	9.773945E-1	1.001602E+0	9.502367E-1	1.019248E+0	1.021588E+0	9.841000E-1	9.973484E-1	9.852170E-1	9.948812E-1	9.788627E-1	9.709152E-1	9.950303E-1	9.519054E-1	9.843476E-1	1.035785E+0	1.013472E+0	1.010281E+0	1.016017E+0	9.932416E-1	1.003606E+0	1.005072E+0	9.738326E-1	9.359525E-1	1.031193E+0	1.011132E+0	1.010099E+0	1.000505E+0	1.030591E+0	1.014604E+0	9.879257E-1	1.007185E+0	9.782669E-1	1.021342E+0	1.005298E+0	1.016191E+0	1.039174E+0	1.016800E+0	9.726184E-1	1.042214E+0	9.647545E-1	9.773218E-1	9.847526E-1	1.035144E+0	1.047584E+0	1.003342E+0	1.039735E+0	1.007476E+0	9.532386E-1
5.585220E+2	1.029546E+0	1.016197E+0	1.051482E+0	9.995071E-1	1.019237E+0	9.950243E-1	1.040588E+0	1.023744E+0	1.022829E+0	1.032945E+0	1.018437E+0	1.005218E+0	1.046314E+0	1.015655E+0	1.032267E+0	9.612367E-1	1.045332E+0	1.024794E+0	9.831606E-1	1.034609E+0	1.002909E+0	9.807990E-1	1.002732E+0	9.978305E-1	1.068643E+0	1.046916E+0	1.038445E+0	9.900528E-1	1.007493E+0	9.923519E-1	1.001199E+0	1.012878E+0	1.018416E+0	1.034247E+0	1.031299E+0	9.984286E-1	1.023993E+0	1.013540E+0	9.988940E-1	1.020786E+0	1.066315E+0	1.052965E+0	9.788074E-1	1.038370E+0	9.856039E-1	1.035828E+0	1.029254E+0	1.011337E+0	1.026708E+0	1.012798E+0	9.979701E-1	1.017912E+0	1.011043E+0	1.045687E+0	1.037088E+0	1.025005E+0	1.037723E+0	1.038746E+0	1.026719E+0	1.009152E+0	1.038034E+0	9.793900E-1	9.909841E-1	1.027734E+0	9.862610E-1	1.030973E+0	1.029904E+0	1.015905E+0	1.044806E+0	1.027002E+0	1.001873E+0	9.894602E-1	1.004136E+0	9.938459E-1	1.042618E+0	1.012968E+0	1.054917E+0	1.029783E+0	1.030222E+0	1.041177E+0	9.666117E-1	1.048317E+0	1.007742E+0	1.007616E+0	1.002130E+0	1.024454E+0	1.004349E+0	1.011802E+0	9.777840E-1	1.041424E+0	1.059806E+0	1.048937E+0	1.031937E+0	1.026110E+0	9.844697E-1	9.893435E-1	1.038352E+0	1.058618E+0	1.018044E+0	1.043115E+0	1.012450E+0	9.824007E-1	1.035967E+0	1.029048E+0	9.968211E-1	1.029983E+0	9.622623E-1	9.875446E-1	9.738455E-1	9.976176E-1	1.061581E+0	1.003223E+0	9.936315E-1	1.053068E+0	1.040170E+0	1.040742E+0	1.060652E+0	1.065174E+0	1.020638E+0	1.042531E+0	9.900122E-1	1.033805E+0	9.936086E-1	1.029710E+0	1.032812E+0	1.036460E+0	1.051226E+0	1.022595E+0	9.917225E-1	1.018000E+0	1.057138E+0	1.037841E+0	1.053103E+0	1.035976E+0	9.803348E-1	1.026606E+0	1.041963E+0	1.042237E+0	1.005243E+0	1.004164E+0	1.053470E+0	1.023350E+0	1.030896E+0	1.021768E+0	1.062093E+0	9.954662E-1	1.017984E+0	1.031998E+0	1.030896E+0	1.068024E+0	9.953283E-1	1.017983E+0	1.010517E+0	1.004587E+0	1.014001E+0	1.013425E+0	9.942349E-1	1.016536E+0	1.027565E+0	1.037880E+0	9.570741E-1	1.027764E+0	1.042451E+0	1.018972E+0	9.872124E-1	1.017379E+0	1.042588E+0	1.054950E+0	1.039282E+0	9.903239E-1	1.014750E+0
5.590160E+2	1.002692E+0	1.055308E+0	1.063425E+0	1.035420E+0	1.075222E+0	1.029881E+0	1.051683E+0	1.020493E+0	1.023444E+0	1.033296E+0	1.043187E+0	1.051727E+0	9.815455E-1	1.014357E+0	1.054076E+0	1.004919E+0	1.018546E+0	1.052653E+0	9.832234E-1	1.037929E+0	1.053628E+0	1.045889E+0	1.030649E+0	9.682529E-1	1.040626E+0	1.049676E+0	1.011877E+0	1.002969E+0	1.048027E+0	1.049240E+0	1.038576E+0	1.053728E+0	1.027301E+0	1.070560E+0	1.021729E+0	9.899912E-1	1.024472E+0	1.047725E+0	1.035410E+0	1.036026E+0	1.042122E+0	1.029080E+0	1.049013E+0	9.981815E-1	1.092563E+0	1.015073E+0	1.070165E+0	1.001676E+0	1.007336E+0	1.057356E+0	9.986439E-1	1.017373E+0	1.047091E+0	1.028889E+0	1.049372E+0	9.945381E-1	1.009195E+0	1.006069E+0	1.031593E+0	1.047807E+0	9.987250E-1	1.036938E+0	1.001582E+0	1.011762E+0	1.080703E+0	1.007067E+0	1.020809E+0	9.677799E-1	9.913400E-1	1.017108E+0	1.038423E+0	1.024347E+0	1.036176E+0	1.054258E+0	1.041428E+0	1.001916E+0	9.950080E-1	1.011105E+0	1.029771E+0	1.019355E+0	1.046617E+0	1.020924E+0	1.049303E+0	1.033753E+0	1.012433E+0	1.032162E+0	1.008051E+0	9.965591E-1	1.013083E+0	1.036081E+0	9.743937E-1	1.005655E+0	1.047898E+0	9.825580E-1	1.030386E+0	1.033141E+0	1.000827E+0	1.041179E+0	1.020765E+0	1.009870E+0	1.048717E+0	1.043976E+0	1.047796E+0	1.020991E+0	1.055337E+0	1.017571E+0	1.062022E+0	1.026314E+0	1.027249E+0	1.043006E+0	1.024085E+0	1.052390E+0	1.011641E+0	1.050070E+0	1.045756E+0	1.040423E+0	1.009351E+0	1.036735E+0	1.065560E+0	9.897347E-1	9.912820E-1	1.028575E+0	1.053981E+0	1.029315E+0	1.070188E+0	1.031058E+0	9.854904E-1	1.035562E+0	1.037163E+0	1.012220E+0	1.008697E+0	1.066181E+0	1.051181E+0	1.019137E+0	1.015935E+0	1.025388E+0	1.009098E+0	1.048433E+0	1.083314E+0	1.033107E+0	1.029732E+0	1.037593E+0	1.037618E+0	9.936740E-1	1.006589E+0	1.051769E+0	1.023028E+0	1.012686E+0	9.935011E-1	1.033343E+0	1.032066E+0	1.007072E+0	1.029332E+0	1.023383E+0	1.042585E+0	1.055965E+0	9.961575E-1	1.014560E+0	1.038943E+0	1.031040E+0	1.033476E+0	1.029973E+0	1.024964E+0	1.049377E+0	1.073301E+0	1.055071E+0	1.016362E+0	9.734975E-1	1.063530E+0	1.027020E+0	1.143643E+0
5.595110E+2	1.049436E+0	9.719728E-1	9.817167E-1	1.028404E+0	1.024322E+0	1.012467E+0	1.018406E+0	1.037456E+0	1.035216E+0	1.000562E+0	1.019381E+0	1.030889E+0	1.030692E+0	1.085026E+0	9.963835E-1	1.025004E+0	9.969243E-1	1.030822E+0	1.038666E+0	1.010999E+0	1.001005E+0	1.008805E+0	1.056622E+0	1.046749E+0	9.815080E-1	1.025358E+0	9.651339E-1	1.062594E+0	1.029483E+0	9.814191E-1	1.036386E+0	9.939739E-1	1.002072E+0	1.005842E+0	1.033511E+0	9.968756E-1	9.969121E-1	9.758798E-1	1.015112E+0	9.739997E-1	9.962675E-1	1.009118E+0	1.035948E+0	1.032514E+0	1.031765E+0	9.828709E-1	1.005328E+0	1.021255E+0	1.001483E+0	9.902978E-1	1.002950E+0	1.026179E+0	1.013634E+0	1.002343E+0	1.023774E+0	1.030057E+0	1.015876E+0	1.049247E+0	1.035556E+0	1.000476E+0	9.889954E-1	1.008642E+0	1.032062E+0	1.031906E+0	1.018267E+0	1.046656E+0	1.004446E+0	9.905433E-1	9.726319E-1	1.033610E+0	9.918821E-1	1.016490E+0	9.998909E-1	9.953183E-1	1.034763E+0	1.016733E+0	1.031896E+0	9.830415E-1	1.046309E+0	1.026989E+0	1.019724E+0	1.037047E+0	1.005499E+0	1.041904E+0	1.041273E+0	1.020336E+0	1.032140E+0	1.039290E+0	1.044355E+0	1.029909E+0	9.974761E-1	1.034520E+0	1.027801E+0	1.000400E+0	1.012380E+0	9.998451E-1	9.909326E-1	1.026622E+0	1.014259E+0	1.012646E+0	1.006253E+0	1.056333E+0	1.017323E+0	1.042271E+0	1.006470E+0	1.012826E+0	1.031421E+0	1.021871E+0	1.026534E+0	1.058590E+0	1.010502E+0	1.006271E+0	1.059453E+0	1.016289E+0	1.020484E+0	1.037440E+0	9.964534E-1	9.957954E-1	9.821486E-1	9.795359E-1	9.982074E-1	1.005226E+0	9.932267E-1	9.739381E-1	9.983802E-1	1.004411E+0	1.084829E+0	1.005882E+0	1.026101E+0	1.025157E+0	9.824428E-1	9.921038E-1	1.020895E+0	9.932411E-1	1.036166E+0	1.045928E+0	1.015135E+0	1.022434E+0	1.020329E+0	1.025533E+0	1.044054E+0	1.006095E+0	1.024507E+0	9.501986E-1	9.902244E-1	1.057262E+0	1.006471E+0	1.029160E+0	1.012051E+0	1.036139E+0	1.003064E+0	1.028258E+0	1.017305E+0	1.007190E+0	1.037531E+0	1.014303E+0	1.024559E+0	1.019528E+0	9.684151E-1	1.018082E+0	1.038880E+0	1.047871E+0	9.925783E-1	1.022799E+0	9.911140E-1	9.772756E-1	9.934531E-1	9.723414E-1	1.029406E+0	1.012229E+0	9.630482E-1
5.600300E+2	1.026758E+0	1.018560E+0	9.871755E-1	1.005948E+0	9.919338E-1	9.927741E-1	9.990303E-1	9.718510E-1	1.042764E+0	1.010209E+0	9.887337E-1	1.015453E+0	9.848971E-1	9.923085E-1	9.998524E-1	9.813433E-1	9.632844E-1	9.703560E-1	1.012451E+0	1.008118E+0	1.006496E+0	9.969300E-1	1.040022E+0	1.016000E+0	9.845676E-1	9.952442E-1	1.041458E+0	1.014171E+0	9.628346E-1	1.024668E+0	1.003093E+0	1.015574E+0	1.008809E+0	9.705637E-1	9.627932E-1	1.009045E+0	1.019304E+0	1.004478E+0	1.021781E+0	9.894908E-1	1.011312E+0	9.971900E-1	1.024078E+0	9.726904E-1	9.748490E-1	1.006515E+0	9.937532E-1	1.003774E+0	1.016524E+0	1.047750E+0	1.004547E+0	9.929408E-1	1.017847E+0	1.024502E+0	9.910288E-1	1.015173E+0	1.014065E+0	9.846294E-1	9.902865E-1	9.786061E-1	1.019007E+0	9.900070E-1	1.007619E+0	9.718943E-1	9.767106E-1	1.017294E+0	9.883937E-1	1.047184E+0	1.014033E+0	1.008893E+0	1.018787E+0	9.898745E-1	9.884157E-1	9.858457E-1	9.616420E-1	9.805392E-1	1.014714E+0	1.004057E+0	1.021706E+0	9.645010E-1	9.877407E-1	9.954355E-1	1.039356E+0	1.002859E+0	9.947145E-1	9.687534E-1	1.015855E+0	1.020006E+0	9.792604E-1	9.948117E-1	1.000505E+0	9.858781E-1	1.000471E+0	1.014669E+0	1.010597E+0	9.649354E-1	9.912655E-1	9.495415E-1	1.005692E+0	1.003344E+0	1.026671E+0	1.030691E+0	9.667946E-1	9.925998E-1	9.527380E-1	1.003496E+0	1.037671E+0	1.001814E+0	1.002538E+0	1.008990E+0	1.002066E+0	9.938813E-1	9.868805E-1	9.666353E-1	1.010501E+0	9.492149E-1	9.820536E-1	9.885379E-1	1.009589E+0	1.036199E+0	1.011775E+0	1.024327E+0	9.722414E-1	9.995516E-1	1.002163E+0	1.016063E+0	1.027746E+0	9.784150E-1	9.899554E-1	1.007247E+0	9.736753E-1	1.015867E+0	1.019208E+0	1.009554E+0	9.959384E-1	1.035166E+0	1.039563E+0	9.868248E-1	1.003662E+0	1.000849E+0	9.840588E-1	9.827542E-1	1.012036E+0	9.731106E-1	1.017133E+0	9.911531E-1	1.006965E+0	9.823327E-1	1.029061E+0	9.774262E-1	1.000803E+0	9.838145E-1	9.554050E-1	1.000070E+0	1.046319E+0	9.866165E-1	9.596475E-1	1.029386E+0	9.824217E-1	1.001762E+0	1.035224E+0	9.758421E-1	1.021569E+0	1.011602E+0	1.036949E+0	1.004943E+0	1.008695E+0	1.009597E+0	1.016945E+0	1.011558E+0	1.012576E+0
5.605090E+2	1.023742E+0	1.028967E+0	9.901839E-1	1.003106E+0	9.567702E-1	1.001691E+0	9.686349E-1	9.825535E-1	9.801388E-1	9.730074E-1	9.970399E-1	1.017976E+0	9.674058E-1	9.946047E-1	9.781649E-1	1.004841E+0	9.828769E-1	9.971360E-1	1.006616E+0	9.857861E-1	9.680500E-1	9.970769E-1	9.708236E-1	9.902085E-1	1.007285E+0	1.034618E+0	1.004543E+0	9.808774E-1	1.004016E+0	1.010543E+0	9.569673E-1	1.003692E+0	1.011766E+0	1.006762E+0	1.043262E+0	9.724185E-1	9.744231E-1	9.738167E-1	1.031848E+0	9.816997E-1	9.667744E-1	1.016099E+0	1.002493E+0	9.914927E-1	1.001925E+0	1.009792E+0	1.006495E+0	1.016847E+0	9.594627E-1	1.015365E+0	9.751025E-1	9.876212E-1	1.016313E+0	9.768593E-1	1.005608E+0	9.549557E-1	9.752691E-1	9.833935E-1	9.719076E-1	9.790718E-1	9.718106E-1	9.896058E-1	9.550428E-1	9.457179E-1	9.952218E-1	1.034699E+0	9.840563E-1	9.717188E-1	1.008243E+0	1.002337E+0	9.795424E-1	9.936940E-1	1.011064E+0	9.898779E-1	9.910897E-1	9.834955E-1	9.952482E-1	1.025084E+0	9.743349E-1	1.062318E+0	1.006607E+0	9.685244E-1	9.933328E-1	1.031922E+0	9.908175E-1	9.683803E-1	9.957154E-1	9.850524E-1	9.622572E-1	9.988091E-1	1.017765E+0	9.764884E-1	9.719772E-1	9.702973E-1	9.991861E-1	9.801681E-1	9.883776E-1	1.025951E+0	9.931591E-1	1.019788E+0	9.677176E-1	1.004906E+0	1.047612E+0	9.944950E-1	9.846856E-1	1.008683E+0	1.013393E+0	1.043494E+0	1.005165E+0	1.014322E+0	9.486894E-1	9.669011E-1	9.850422E-1	1.022989E+0	9.962477E-1	1.022727E+0	1.032725E+0	9.682867E-1	9.927791E-1	9.923423E-1	1.014177E+0	9.890679E-1	1.016832E+0	9.790535E-1	1.000545E+0	1.012831E+0	1.006832E+0	9.703431E-1	9.824659E-1	9.732567E-1	1.029802E+0	9.521833E-1	1.008553E+0	9.800223E-1	9.992723E-1	9.930508E-1	9.360530E-1	1.019076E+0	9.607108E-1	9.931280E-1	9.703723E-1	1.003309E+0	1.005659E+0	9.890401E-1	9.953521E-1	9.464560E-1	1.006471E+0	1.001230E+0	1.000934E+0	1.001939E+0	1.039301E+0	9.285025E-1	9.887354E-1	1.000765E+0	9.892905E-1	9.780002E-1	9.918147E-1	1.014218E+0	1.021828E+0	9.630610E-1	1.029856E+0	9.896359E-1	9.811499E-1	9.799763E-1	9.921066E-1	9.795393E-1	1.009625E+0	9.494325E-1	9.785662E-1	9.835902E-1	1.048081E+0
5.610010E+2	9.477411E-1	9.966860E-1	9.854958E-1	9.504954E-1	9.836648E-1	9.888702E-1	1.015510E+0	9.457008E-1	9.523733E-1	9.740809E-1	9.808457E-1	9.863130E-1	1.008830E+0	9.606069E-1	9.970404E-1	1.011011E+0	9.980584E-1	9.532582E-1	1.014184E+0	9.783331E-1	9.790473E-1	9.937575E-1	9.915085E-1	1.001449E+0	9.914848E-1	9.534097E-1	1.006543E+0	1.003627E+0	9.489593E-1	1.041642E+0	1.002028E+0	9.691136E-1	9.749483E-1	9.860671E-1	9.814029E-1	9.957285E-1	9.743415E-1	9.789294E-1	9.606515E-1	9.639626E-1	9.632272E-1	9.463761E-1	9.795951E-1	9.885557E-1	9.843529E-1	1.001774E+0	9.537951E-1	9.494961E-1	9.846058E-1	9.627725E-1	1.013306E+0	9.889428E-1	9.939312E-1	9.733343E-1	9.636549E-1	1.017298E+0	9.312279E-1	1.006648E+0	9.638305E-1	1.007880E+0	9.714121E-1	9.756827E-1	9.720207E-1	1.027872E+0	1.006769E+0	9.787711E-1	9.825736E-1	1.005094E+0	9.894980E-1	1.013669E+0	9.685490E-1	1.004509E+0	9.872654E-1	9.941851E-1	9.930465E-1	9.877849E-1	9.760407E-1	1.021740E+0	9.542548E-1	9.700137E-1	9.717494E-1	9.614875E-1	9.635944E-1	9.554419E-1	1.006245E+0	9.931972E-1	9.653285E-1	9.910816E-1	9.945873E-1	1.049452E+0	1.002530E+0	9.618778E-1	9.698169E-1	1.031088E+0	9.778203E-1	1.016866E+0	1.005294E+0	9.771359E-1	1.006418E+0	9.949372E-1	9.932938E-1	9.781412E-1	1.002567E+0	9.755299E-1	9.321955E-1	9.656739E-1	9.798584E-1	1.024718E+0	9.699697E-1	9.774419E-1	9.833586E-1	1.018511E+0	9.909187E-1	1.003227E+0	9.608811E-1	9.615152E-1	9.787058E-1	9.791619E-1	9.613766E-1	9.970641E-1	9.855253E-1	1.001922E+0	1.017801E+0	9.754757E-1	9.420893E-1	9.840463E-1	9.706366E-1	9.905246E-1	1.041953E+0	1.024864E+0	1.002176E+0	1.005630E+0	9.302517E-1	9.860308E-1	1.020121E+0	9.664688E-1	9.753461E-1	9.963464E-1	9.738296E-1	9.621584E-1	9.623697E-1	9.620872E-1	9.741096E-1	9.964536E-1	9.765444E-1	1.019180E+0	9.716585E-1	9.312919E-1	1.007142E+0	1.005612E+0	9.902196E-1	9.667897E-1	9.973675E-1	1.028373E+0	9.471229E-1	9.583357E-1	1.016369E+0	9.848237E-1	9.828083E-1	9.840570E-1	9.663041E-1	9.988029E-1	1.009069E+0	1.013587E+0	9.906884E-1	9.855316E-1	9.714045E-1	9.727877E-1	9.539977E-1	9.864771E-1	9.419666E-1
