Photon Energy (eV)	#1	#2	#3	#4	#5	#6	#7	#8	#9	#10	#11	#12	#13	#14	#15	#16	#17	#18	#19	#20	#21	#22	#23	#24	#25	#26	#27	#28	#29	#30	#31	#32	#33	#34	#35	#36	#37	#38	#39	#40	#41	#42	#43	#44	#45	#46	#47	#48	#49	#50	#51	#52	#53	#54	#55	#56	#57	#58	#59	#60	#61	#62	#63	#64	#65	#66	#67	#68	#69	#70	#71	#72	#73	#74	#75	#76	#77	#78	#79	#80	#81	#82	#83	#84	#85	#86	#87	#88	#89	#90	#91	#92	#93	#94	#95	#96	#97	#98	#99	#100	#101	#102	#103	#104	#105	#106	#107	#108	#109	#110	#111	#112	#113	#114	#115	#116	#117	#118	#119	#120	#121	#122	#123	#124	#125	#126	#127	#128	#129	#130	#131	#132	#133	#134	#135	#136	#137	#138	#139	#140	#141	#142	#143	#144	#145	#146	#147	#148	#149	#150	#151	#152	#153	#154	#155	#156	#157	#158	#159	#160	#161	#162	#163	#164	#165	#166	#167	#168	#169	#170	
5.300110E+2	-2.995669E-3	-3.775219E-4	2.577073E-3	-6.094989E-3	-1.656852E-2	-1.268287E-2	-2.669607E-3	-1.701268E-3	2.397237E-3	-1.597211E-2	-5.370069E-3	-2.826587E-3	-1.498556E-2	-5.330797E-3	-6.416979E-3	-8.494487E-3	-5.204915E-3	-5.577859E-3	-1.338998E-2	-5.102752E-3	-4.850756E-3	-6.418483E-3	8.969036E-3	-5.132805E-4	-3.903489E-3	-9.762777E-3	-6.418743E-3	-4.878886E-3	-7.031945E-3	-8.856229E-3	-1.056113E-2	-4.910613E-3	-5.743045E-3	-1.083914E-2	-8.813049E-3	-7.432362E-3	-7.772945E-3	-1.052767E-3	2.116354E-3	2.855701E-3	-3.408976E-3	-4.100477E-3	-6.643223E-3	-7.038301E-3	-3.489441E-3	-7.987703E-3	-6.181597E-3	-1.291485E-2	-2.169605E-3	-8.400330E-4	-1.031412E-2	3.615499E-3	-9.129089E-3	-4.253399E-3	-1.917416E-3	-3.531357E-3	3.525545E-4	-1.750757E-3	-9.281380E-3	4.764831E-3	1.941542E-3	8.999022E-4	-1.422482E-3	7.652275E-4	-1.049940E-2	-9.603956E-4	-1.087320E-2	-2.906016E-3	-9.408709E-3	-9.905155E-3	-2.521097E-3	-5.176778E-3	-1.210529E-2	-9.629293E-3	-1.260157E-2	-5.513801E-3	-2.579766E-3	-8.069895E-3	-7.499069E-3	1.589840E-3	-5.392675E-3	-1.122023E-3	-4.297014E-3	-5.858420E-3	1.621421E-3	-5.040321E-3	-1.005595E-2	-1.171371E-2	-9.946825E-3	-6.715537E-3	-6.361525E-3	-7.260926E-3	-6.414276E-3	-3.204770E-3	-2.840742E-3	1.658748E-3	-1.196827E-2	-4.244048E-3	-1.003823E-2	-1.887237E-3	-5.923317E-3	-1.185720E-2	-1.031508E-2	-3.029210E-4	-6.309571E-3	-6.718515E-3	-4.646209E-3	-1.266595E-3	-1.329641E-3	-2.664197E-3	-2.560280E-3	-8.080565E-3	-4.461609E-3	-5.986016E-3	-8.416303E-3	-2.426315E-4	-1.085431E-2	-6.906895E-3	4.937004E-3	-1.125148E-2	-9.166047E-3	-4.587421E-3	2.072394E-3	-8.146053E-3	1.738854E-3	-1.145757E-2	-1.051196E-2	-2.005138E-4	-2.931772E-3	-2.993990E-3	-1.192107E-2	-4.309557E-4	-8.082711E-3	-8.381771E-3	-2.814845E-4	-7.646611E-3	-1.013660E-2	-1.596728E-3	-8.113641E-4	-1.189097E-2	-1.073948E-2	-9.759782E-3	-1.068448E-2	-5.454407E-3	-5.550823E-3	-2.930952E-3	-2.929815E-4	-2.354530E-3	-8.522863E-3	-5.511256E-3	-1.519651E-2	-2.213061E-4	4.382148E-4	-1.350715E-4	-8.146614E-3	-7.023536E-3	-5.061729E-3	1.465131E-3	-6.675183E-3	1.878065E-3	-6.235925E-3	-7.456593E-3	-6.660938E-3	-6.570124E-3	-4.220018E-3	2.572713E-3	-2.102441E-3	5.119025E-4	-1.781517E-2	-2.212308E-3
5.305180E+2	-5.855940E-3	-2.983672E-3	-4.247637E-3	2.179767E-3	1.554592E-3	-9.171445E-3	-2.560172E-3	-1.599472E-3	2.517771E-3	-7.477387E-3	-3.745841E-3	-1.547614E-3	3.439249E-3	-2.199292E-3	-3.445364E-3	-3.486404E-4	-6.097315E-3	8.632686E-4	-2.041179E-3	-6.192357E-3	4.414024E-3	-5.110242E-3	-2.107761E-3	-1.383004E-3	-2.147603E-3	-3.704255E-3	-2.547002E-3	2.958114E-3	-1.437262E-3	-4.441293E-3	-4.688617E-3	1.644913E-3	-5.626581E-3	-4.705851E-3	-8.572661E-4	-4.070828E-3	2.222211E-3	-4.855211E-3	-4.727864E-3	5.697491E-4	-6.159722E-3	-7.176161E-3	-7.752445E-5	-3.698427E-3	-7.902085E-3	-3.804520E-3	7.721300E-5	-7.066470E-3	-7.633586E-3	5.350019E-3	-2.030125E-3	-9.189826E-3	-2.344942E-3	9.031074E-4	-5.327053E-4	-4.931954E-3	-4.354690E-3	-8.784996E-3	1.667104E-4	-5.434026E-3	-7.485339E-3	-1.164424E-2	-4.594851E-3	-1.259046E-2	-6.989865E-3	-6.683458E-3	-3.265330E-3	-1.645334E-3	-4.109532E-3	-2.451422E-3	-5.697324E-3	-5.160308E-4	-3.016116E-3	-1.607672E-3	-1.575586E-3	-8.756476E-3	-8.438921E-3	-2.887180E-3	-7.888558E-3	-2.629864E-3	-4.684285E-3	-8.753432E-3	-3.602402E-3	-4.186802E-4	-3.371769E-3	-4.374847E-3	-9.405780E-3	-1.161185E-2	-8.187424E-3	-8.237706E-3	1.273562E-3	3.279860E-3	-7.365524E-3	-4.651536E-3	-3.725260E-3	-5.813374E-3	-3.112077E-3	-2.938862E-3	-6.930340E-3	-4.603913E-3	-3.786034E-3	-8.877187E-3	6.876991E-3	-8.689258E-3	-6.212933E-3	-1.001889E-2	-1.238510E-2	-1.701272E-3	-4.396630E-3	3.390502E-3	-8.142985E-3	-3.031617E-3	-1.087502E-2	-5.473754E-4	-4.899144E-3	-1.232195E-3	2.255080E-3	1.103608E-3	-4.798491E-3	-3.367526E-3	-1.974153E-3	-3.911497E-3	-9.700031E-3	5.870483E-3	-2.992197E-3	5.230805E-3	-9.855742E-3	-1.477362E-3	-2.274520E-3	-2.244630E-3	-2.659439E-3	-9.515025E-3	-3.146688E-3	-2.436836E-3	-8.725088E-3	-1.263676E-3	-2.429984E-3	-8.536287E-3	-1.000526E-2	-3.253222E-3	3.259139E-3	-4.590951E-3	1.046341E-3	-2.939243E-3	-3.762141E-3	2.317161E-4	1.071590E-3	-5.628505E-4	-9.939854E-3	-1.298461E-3	-2.439576E-3	-2.584593E-3	1.111582E-3	-2.882251E-3	-1.766397E-3	-7.411998E-3	-4.416180E-3	-6.160459E-3	-1.223804E-2	-3.148358E-3	-2.902511E-3	-2.571109E-3	-1.394991E-3	-4.755849E-3	-3.111314E-3	3.860167E-3	-7.406324E-5	-2.617707E-3	-6.613986E-4	1.073303E-2
5.310150E+2	2.284020E-4	-7.247952E-3	-9.993519E-4	-3.574248E-3	-3.351905E-3	-1.731026E-3	-8.179457E-3	-4.041816E-3	-5.709783E-3	2.629440E-3	-1.382311E-2	-1.321224E-2	-1.286212E-3	9.426100E-4	3.872628E-3	-4.037775E-3	-3.498432E-3	-5.636543E-3	-6.404466E-3	-4.898460E-3	-3.195994E-3	-9.972551E-4	-4.187789E-3	-7.902770E-3	-6.350941E-3	-2.536266E-3	-5.593621E-3	-5.781242E-3	-4.318146E-3	-8.005935E-3	7.150662E-4	-1.068132E-2	-8.154479E-3	-9.032240E-3	2.378909E-3	-1.102673E-2	-4.707218E-3	-1.140925E-2	-1.074297E-2	-4.205548E-3	-2.002226E-3	-6.029214E-4	5.947495E-3	-3.053178E-3	-3.282079E-3	2.493245E-3	3.273070E-3	6.779246E-3	-5.857767E-3	-8.438451E-3	-7.661185E-4	1.258145E-4	2.552486E-3	-3.175772E-4	-5.680331E-3	-1.099515E-2	-2.585733E-3	-4.130422E-3	3.256899E-3	-7.512526E-3	-4.354872E-3	5.261204E-3	-6.166187E-4	3.952252E-3	-3.491473E-3	-7.939627E-3	4.712641E-3	-7.607293E-3	-1.361908E-3	-2.180328E-3	1.030445E-3	-8.692561E-4	-2.854026E-3	-6.045073E-3	6.702549E-3	-8.084403E-4	-2.337547E-3	-2.295481E-3	-1.612789E-4	-1.034556E-2	-8.116088E-3	1.972251E-3	-1.178303E-2	-9.747127E-3	-3.729991E-3	-1.332109E-2	-2.935565E-4	-3.714258E-3	-8.230358E-4	-8.307804E-3	-8.812352E-3	-6.502913E-3	-2.490629E-3	-7.504589E-3	-3.569046E-3	-3.750551E-3	-2.988641E-3	-7.797413E-3	-3.194739E-3	-3.901533E-3	-6.750679E-3	3.283663E-3	-2.145933E-3	-3.227024E-3	1.372944E-3	4.862127E-3	1.403629E-3	-6.660290E-3	-3.211372E-3	-1.008677E-2	-8.798650E-6	-3.890148E-3	-1.185215E-2	-6.362371E-3	-2.493237E-3	5.616326E-4	3.837553E-3	-1.007809E-2	-1.326854E-2	-1.573341E-2	-5.119382E-3	-3.797628E-3	-3.014833E-3	-6.173586E-3	-4.500164E-3	-9.169104E-3	2.592530E-4	-4.168719E-3	-4.849128E-3	-5.301500E-3	-3.157448E-3	-8.269419E-3	3.655586E-4	-4.671613E-3	-5.979703E-4	1.481833E-3	-8.819715E-3	1.009875E-3	-1.128687E-3	5.432829E-3	-8.398744E-3	-6.725291E-3	5.071465E-3	-4.095749E-4	-6.454233E-3	-1.190182E-2	-1.732200E-2	-6.052839E-3	-2.453954E-5	-1.229649E-2	-4.041933E-3	-8.489461E-3	-3.531204E-3	-3.911575E-3	-3.348571E-3	5.476217E-3	-4.841161E-3	-3.965905E-3	-1.113680E-4	-9.620500E-3	-3.844930E-3	-6.336346E-5	-7.526823E-3	-2.365558E-3	-9.921162E-3	-4.951590E-3	-7.172481E-3	-4.986200E-3	-7.805789E-3	-1.545450E-3
5.315080E+2	-5.611043E-3	2.693531E-3	4.163779E-3	7.092499E-3	3.808639E-3	3.787082E-3	3.385133E-3	3.701779E-3	-8.746026E-3	1.169814E-3	2.073625E-3	-6.060887E-3	7.557157E-3	-9.618732E-4	3.987866E-3	-5.359588E-3	6.222684E-4	-2.686817E-3	6.584778E-3	-2.990885E-3	-6.760000E-4	9.134446E-4	-2.641831E-4	-4.215138E-3	-3.553410E-3	7.698689E-4	7.196365E-3	-1.350350E-4	4.304649E-3	3.116265E-3	-4.471739E-3	4.835214E-5	-1.194169E-3	-7.730462E-5	3.986576E-4	-3.869123E-3	6.062563E-4	1.026464E-2	7.225738E-3	4.232447E-3	-7.263620E-4	1.674420E-3	4.463782E-3	-7.734411E-4	-3.405197E-4	-2.544833E-3	8.253691E-4	3.373078E-3	1.052794E-2	-5.542225E-3	-1.750405E-3	-1.928194E-3	4.119551E-3	-3.606374E-3	2.047214E-3	4.817466E-4	-2.891156E-4	2.931637E-3	-3.626814E-3	-4.681695E-3	1.318850E-3	-4.408557E-3	-4.934050E-3	-2.206733E-3	1.076393E-2	1.813391E-3	-2.137834E-3	2.502486E-3	-3.830536E-3	-2.050634E-3	-6.847163E-3	-4.309940E-3	-5.937315E-3	-1.794660E-3	-1.282631E-3	3.800361E-3	1.589675E-3	1.899871E-3	-9.710640E-3	2.506321E-3	3.799747E-3	2.515210E-3	-1.347895E-3	-1.151992E-4	-2.572612E-3	3.864506E-3	7.762347E-3	1.628998E-3	4.907000E-3	6.941323E-3	-5.982444E-3	-4.742047E-3	3.018444E-4	6.357627E-3	-2.408305E-3	2.320490E-4	7.576160E-3	2.724058E-3	9.214034E-3	3.131851E-3	4.599619E-3	7.898743E-3	-2.387719E-3	-9.014115E-4	6.822828E-5	-6.954963E-4	1.657407E-3	-2.594304E-3	-3.058547E-3	-2.491962E-3	-3.852965E-3	2.197050E-3	4.146367E-3	2.248892E-4	8.662270E-3	-3.192769E-3	-2.770219E-3	3.084731E-4	-3.681138E-3	5.450957E-4	1.036950E-2	3.714035E-3	1.712014E-4	-2.375543E-4	-3.291100E-3	2.063802E-3	-2.375114E-3	-2.479824E-4	-1.476978E-3	-3.371974E-3	7.447661E-3	5.134068E-3	-4.810574E-3	3.208780E-3	1.866272E-3	-2.072741E-3	3.827690E-3	1.795834E-3	-9.778973E-4	4.272043E-4	4.605651E-3	2.829255E-3	-8.818801E-4	-7.509622E-4	-2.966907E-3	-3.222064E-3	1.968961E-3	3.041105E-3	-9.187291E-4	7.179932E-3	-2.188152E-3	4.260902E-3	8.623544E-4	3.713521E-3	4.227825E-3	-7.130592E-3	6.687965E-4	2.404735E-3	1.089000E-3	2.830496E-3	4.890753E-3	3.661094E-3	3.411038E-3	-1.095629E-3	3.097357E-3	6.617492E-4	-7.726654E-3	-7.393475E-3	8.172479E-3	-1.359069E-2
5.320120E+2	4.555246E-3	7.189225E-3	-3.337606E-3	-1.030396E-3	6.960182E-3	5.885982E-3	-1.091672E-3	4.324439E-3	2.871396E-3	9.753041E-3	1.599424E-2	8.208852E-3	-3.020775E-3	8.795182E-3	3.128780E-3	6.186391E-3	2.746597E-3	2.647615E-3	3.905685E-3	6.800017E-3	-1.058287E-3	5.510112E-3	4.766489E-3	-5.107990E-4	8.451783E-3	5.148271E-3	1.262749E-2	4.414851E-3	5.933581E-3	3.231928E-3	4.830069E-3	1.267984E-2	7.374217E-3	2.251627E-3	6.805186E-3	1.203628E-2	9.257655E-3	1.137958E-3	1.826737E-4	-4.979104E-3	5.207541E-3	4.497610E-3	-1.900855E-3	4.239815E-4	4.312505E-3	1.000378E-2	-1.123168E-3	4.397194E-3	5.039767E-3	4.110498E-3	6.546484E-3	4.713249E-3	8.937542E-4	6.260296E-3	2.706791E-3	5.263519E-3	-1.763035E-4	4.551298E-3	-2.937623E-3	6.367958E-3	2.450440E-3	7.955114E-3	7.172843E-4	2.290581E-3	3.082445E-3	1.503966E-3	4.847299E-3	4.200318E-3	8.759189E-3	-5.242284E-4	8.683330E-3	3.857867E-3	4.707337E-3	1.286322E-2	4.043627E-3	2.209261E-3	-4.779564E-4	4.914838E-4	6.181624E-3	1.985103E-4	6.835140E-3	1.096558E-3	1.131609E-2	1.012423E-2	6.038069E-4	1.147173E-2	6.769288E-3	1.055853E-2	1.005925E-2	1.120044E-2	1.419086E-2	6.990102E-3	6.838031E-3	1.832910E-3	4.397093E-3	2.793363E-3	6.207732E-3	4.460056E-3	-2.820154E-3	-2.465506E-3	1.263298E-3	4.699465E-3	1.449559E-3	8.906110E-3	9.239795E-3	-4.094260E-5	5.572853E-3	6.027034E-3	2.976555E-3	2.404273E-3	-4.887383E-3	3.833613E-3	7.040702E-3	9.442017E-3	3.354315E-4	8.665433E-4	2.234406E-3	3.807890E-3	6.353379E-4	1.796375E-2	-2.621943E-3	7.445578E-3	9.983513E-3	3.979574E-3	4.999202E-3	4.521798E-3	1.228248E-2	4.634582E-3	8.952609E-3	1.253192E-2	3.530592E-3	6.683300E-4	5.564340E-3	9.315815E-3	-6.360327E-3	-4.563187E-3	2.112285E-4	-7.641716E-4	3.439245E-3	7.445877E-3	9.076392E-3	4.909380E-3	-1.817627E-3	2.285567E-3	3.366403E-3	6.221975E-3	1.536829E-3	2.048998E-3	6.492341E-3	2.878768E-4	1.023023E-2	-2.665430E-3	4.222782E-3	-2.697096E-3	4.976147E-3	5.819840E-3	7.832653E-3	-2.680553E-4	4.928205E-3	1.093776E-3	7.319056E-4	4.987921E-3	4.122994E-3	7.561916E-3	4.228138E-3	3.007416E-4	1.798923E-3	5.438998E-3	4.636590E-3	3.962144E-3
5.325120E+2	9.679004E-3	7.263896E-4	1.843743E-3	1.427368E-3	7.597016E-3	1.391227E-2	1.111577E-2	-6.836615E-4	6.669405E-3	9.897205E-3	4.871162E-3	1.543847E-2	8.296145E-3	-1.245830E-3	-1.126931E-3	1.205410E-2	1.143180E-2	1.039034E-2	1.134517E-2	1.238444E-2	5.367014E-3	6.102424E-3	-7.175792E-3	1.452499E-2	7.503660E-3	1.008516E-2	-5.264485E-3	3.422198E-3	2.549124E-3	1.495526E-2	1.417635E-2	1.218822E-3	1.334406E-2	2.240291E-2	8.756116E-5	1.436277E-2	3.940413E-4	5.914636E-3	5.946072E-3	1.526755E-3	7.089745E-3	5.707530E-3	-1.789675E-3	1.413936E-2	1.070162E-2	1.840030E-3	3.129114E-3	5.431802E-3	9.325711E-5	5.360191E-3	8.314289E-3	2.663457E-3	3.908239E-3	1.013947E-3	3.376447E-3	1.371320E-2	7.053288E-3	7.183241E-3	1.242221E-2	6.495458E-3	6.129379E-3	1.936576E-3	1.085072E-2	7.789133E-3	7.134356E-3	1.226612E-2	6.716420E-3	5.455839E-3	9.951496E-3	1.711177E-2	5.351809E-3	7.014139E-3	1.920541E-2	6.213480E-3	4.713608E-3	9.069095E-3	1.224451E-2	1.086120E-2	1.907792E-2	8.680754E-3	7.558161E-3	4.291435E-3	9.714245E-3	6.015197E-3	7.449145E-3	7.400016E-3	5.223655E-3	1.485229E-2	3.991036E-3	5.119281E-3	5.691899E-3	8.235923E-3	9.130554E-3	7.170358E-3	8.146260E-3	4.879763E-3	4.285098E-3	7.796209E-3	1.376943E-2	9.726337E-3	1.059711E-2	4.852516E-3	6.522183E-3	4.214505E-3	1.841536E-3	1.261171E-2	8.397416E-3	6.195427E-3	9.019635E-3	9.448157E-3	1.945241E-2	8.971667E-3	1.600171E-2	3.228857E-3	6.810983E-3	3.239420E-3	5.297492E-3	1.176502E-2	1.617583E-2	1.184356E-2	8.512025E-3	1.136933E-3	4.877550E-4	4.707135E-3	4.045404E-3	8.810270E-3	1.020108E-2	1.459996E-3	2.579788E-3	1.380171E-3	6.759700E-3	1.241300E-2	1.011007E-2	2.965626E-3	1.409860E-2	1.406438E-2	1.734738E-2	8.091478E-3	9.483965E-3	1.838284E-3	2.197045E-3	1.333739E-2	7.266180E-3	7.268621E-3	1.536770E-2	1.160115E-2	1.303760E-2	3.880116E-3	1.291365E-2	1.163840E-2	1.363594E-2	9.699888E-3	-3.103729E-3	5.912472E-3	4.057609E-3	1.027007E-2	5.817621E-3	6.524553E-3	1.300738E-2	6.966521E-3	7.360707E-3	1.442051E-3	8.048720E-3	7.225244E-3	9.926999E-3	-2.443781E-3	1.527672E-2	9.046482E-3	1.347329E-2	2.653273E-3
5.330180E+2	1.992704E-2	1.570524E-2	2.361698E-2	1.159128E-2	2.346148E-2	1.950300E-2	1.707616E-2	2.561357E-2	1.363655E-2	1.535113E-2	2.304917E-2	1.380274E-2	3.433518E-2	1.570372E-2	2.671547E-2	2.226982E-2	2.672679E-2	2.390588E-2	2.221283E-2	2.530698E-2	2.742402E-2	2.373666E-2	2.266070E-2	3.860045E-3	2.610724E-2	2.788222E-2	1.566222E-2	3.814083E-2	1.980649E-2	1.087147E-2	1.922304E-2	1.111862E-2	2.198592E-2	2.869310E-2	2.129602E-2	1.559691E-2	1.717083E-2	2.829227E-2	2.252825E-2	1.743850E-2	1.072508E-2	2.380924E-2	8.085324E-3	1.973713E-2	2.111375E-2	1.549426E-2	3.643078E-2	2.303270E-2	1.037214E-2	2.184922E-2	1.720996E-2	2.464563E-2	3.196601E-2	2.222072E-2	2.486899E-2	2.062506E-2	1.101436E-2	1.031863E-2	1.431278E-2	3.301130E-2	1.949145E-2	2.667870E-2	2.993379E-2	9.879771E-3	1.953686E-2	1.750542E-2	1.664397E-2	2.455335E-2	2.419198E-2	2.485666E-2	1.510404E-2	2.230731E-2	3.373464E-2	2.779589E-2	2.501876E-2	1.021114E-2	1.826854E-2	2.678257E-2	1.962997E-2	1.866923E-2	2.490191E-2	2.750073E-2	1.374767E-2	2.577419E-2	2.463185E-2	2.027031E-2	1.769646E-2	9.210025E-3	2.697273E-2	2.323070E-2	1.994494E-2	2.717787E-2	2.592518E-2	3.437733E-2	2.642224E-2	1.146649E-2	2.390266E-2	7.048742E-3	1.891384E-2	6.446313E-3	2.369834E-2	2.205764E-2	2.228262E-2	1.356553E-2	2.081494E-2	1.281634E-2	2.620421E-2	1.334927E-2	2.002770E-2	2.347903E-2	2.312642E-2	3.821032E-2	1.344567E-2	1.884564E-2	1.739381E-2	2.592638E-2	1.768856E-2	7.075548E-3	2.442171E-2	1.886820E-2	2.082464E-2	2.233513E-2	1.817218E-2	1.543082E-2	1.624219E-2	3.028060E-2	2.273281E-2	1.641281E-2	3.706662E-2	1.345508E-2	2.558896E-2	1.666193E-2	1.664828E-2	2.671563E-2	2.476414E-2	2.802980E-2	2.359294E-2	2.192900E-2	3.097913E-2	2.159219E-2	2.997201E-2	1.684905E-2	3.887741E-2	2.104629E-2	2.291102E-2	1.752085E-2	2.009512E-2	2.554740E-2	1.622917E-2	1.030031E-2	2.143724E-2	1.905401E-2	2.773351E-2	2.147144E-2	3.199020E-2	1.744288E-2	1.684517E-2	1.339714E-2	2.587653E-2	3.533985E-2	2.486542E-2	2.322777E-2	3.252138E-2	1.310730E-2	2.463233E-2	2.369919E-2	1.890184E-2	1.262144E-2	8.717816E-3	2.719653E-2
5.331630E+2	3.627190E-2	2.303960E-2	2.379136E-2	1.883991E-2	2.568067E-2	2.314919E-2	1.723947E-2	3.247208E-2	3.013839E-2	2.456563E-2	2.940779E-2	2.286209E-2	3.355876E-2	2.660303E-2	2.884588E-2	3.061708E-2	1.730379E-2	2.505065E-2	2.126646E-2	2.914065E-2	3.689222E-2	1.763885E-2	2.286807E-2	2.414706E-2	2.900887E-2	3.664236E-2	1.640457E-2	2.715686E-2	2.351972E-2	2.850726E-2	2.185526E-2	2.388604E-2	2.270159E-2	2.496069E-2	1.935094E-2	3.331995E-2	2.354889E-2	3.418247E-2	3.878083E-2	3.690544E-2	3.373780E-2	2.506531E-2	2.247311E-2	3.301960E-2	3.673312E-2	2.974077E-2	1.641524E-2	2.726594E-2	2.297455E-2	2.200934E-2	2.837406E-2	2.975414E-2	2.299447E-2	3.272425E-2	2.670118E-2	1.870626E-2	3.807702E-2	2.900542E-2	2.390388E-2	2.328420E-2	3.548333E-2	2.376061E-2	2.062544E-2	3.255922E-2	2.857024E-2	2.882214E-2	3.310878E-2	2.976627E-2	2.280587E-2	3.741281E-2	1.353780E-2	3.011045E-2	3.393066E-2	1.800743E-2	3.391314E-2	3.409520E-2	2.886381E-2	2.946665E-2	3.458914E-2	4.454428E-2	2.926157E-2	2.410625E-2	1.619696E-2	1.337728E-2	2.689008E-2	3.660350E-2	4.217517E-2	2.872784E-2	4.568362E-2	3.273755E-2	3.479875E-2	3.843240E-2	2.229240E-2	3.557973E-2	2.308823E-2	1.938354E-2	3.200097E-2	2.260098E-2	4.013727E-2	1.756890E-2	3.575367E-2	1.213033E-2	4.441604E-2	2.241370E-2	2.558319E-2	3.041406E-2	2.856649E-2	2.784464E-2	2.192171E-2	3.276021E-2	2.390023E-2	2.540052E-2	2.857393E-2	2.224920E-2	2.396640E-2	3.008458E-2	2.131635E-2	3.030228E-2	3.313165E-2	2.131038E-2	3.056151E-2	2.645907E-2	2.876910E-2	3.215567E-2	3.777674E-2	2.061253E-2	3.361450E-2	2.138041E-2	2.637376E-2	2.500230E-2	2.641752E-2	2.092466E-2	3.009483E-2	2.342859E-2	3.372251E-2	3.249052E-2	2.213613E-2	3.472753E-2	3.771050E-2	2.928329E-2	3.342729E-2	3.645681E-2	2.503386E-2	2.125195E-2	2.650571E-2	2.925596E-2	2.467296E-2	2.574853E-2	2.427985E-2	2.170081E-2	3.281437E-2	3.253723E-2	2.794032E-2	3.433448E-2	3.217864E-2	2.572433E-2	2.301019E-2	2.237330E-2	1.602283E-2	2.026138E-2	3.323756E-2	3.227293E-2	3.505856E-2	2.589695E-2	2.432205E-2	3.599724E-2	3.614916E-2	1.877293E-2	1.009485E-2	3.895978E-2
5.333080E+2	4.107356E-2	2.216133E-2	2.487659E-2	3.157408E-2	2.236799E-2	2.540973E-2	3.643787E-2	3.019642E-2	2.563721E-2	2.428321E-2	2.471494E-2	3.621456E-2	2.842241E-2	2.531054E-2	4.465425E-2	2.124357E-2	3.429929E-2	2.483606E-2	3.115474E-2	3.490126E-2	3.717565E-2	2.827715E-2	3.086521E-2	2.958449E-2	3.145444E-2	1.272708E-2	3.484933E-2	4.311528E-2	1.870519E-2	3.302726E-2	4.267278E-2	4.008199E-2	3.526055E-2	1.455425E-2	3.604370E-2	2.974572E-2	4.011548E-2	2.303624E-2	3.805357E-2	3.224167E-2	2.283931E-2	1.161461E-2	2.545064E-2	3.878945E-2	3.012388E-2	1.955472E-2	3.857091E-2	2.891826E-2	3.574635E-2	3.020788E-2	3.029992E-2	1.959671E-2	3.442024E-2	3.844101E-2	4.030263E-2	3.310448E-2	2.240677E-2	4.487209E-2	2.782865E-2	4.400367E-2	4.245218E-2	4.135099E-2	3.606153E-2	3.435597E-2	3.133107E-2	3.379662E-2	3.339668E-2	3.343641E-2	3.306538E-2	3.344872E-2	1.674168E-2	4.522123E-2	2.672252E-2	2.825894E-2	3.723138E-2	2.814378E-2	3.194513E-2	3.095769E-2	3.503084E-2	3.198738E-2	1.757180E-2	3.264500E-2	3.135753E-2	3.761600E-2	3.184603E-2	3.158321E-2	2.945579E-2	3.478836E-2	2.799677E-2	2.313921E-2	2.200722E-2	4.332200E-2	3.559086E-2	3.127521E-2	4.244109E-2	2.847414E-2	3.329897E-2	3.027781E-2	4.328605E-2	2.589981E-2	3.190963E-2	3.468154E-2	2.575640E-2	3.025886E-2	3.549790E-2	3.371338E-2	2.343069E-2	3.381439E-2	3.722641E-2	3.304676E-2	2.528990E-2	4.631987E-2	3.883295E-2	3.320937E-2	2.420851E-2	2.409903E-2	3.140320E-2	2.272016E-2	2.550787E-2	2.543722E-2	2.860156E-2	2.674338E-2	5.061298E-2	3.893527E-2	2.979370E-2	4.384276E-2	3.444780E-2	2.643551E-2	2.991813E-2	3.667215E-2	3.792384E-2	3.463035E-2	2.497327E-2	3.480811E-2	2.988100E-2	2.581080E-2	2.515303E-2	3.390784E-2	3.024290E-2	3.939846E-2	3.805788E-2	3.338727E-2	2.810069E-2	3.619215E-2	3.130673E-2	2.545218E-2	3.498376E-2	3.455172E-2	2.297154E-2	2.196434E-2	2.421775E-2	2.719042E-2	2.549486E-2	3.571021E-2	3.011007E-2	3.195009E-2	4.130299E-2	3.769535E-2	2.795473E-2	2.534861E-2	3.244134E-2	3.204669E-2	2.485844E-2	2.559954E-2	2.861094E-2	3.202179E-2	3.505717E-2	4.559553E-2	2.761971E-2	4.260512E-2
5.334580E+2	4.874417E-2	4.450897E-2	4.929441E-2	3.991267E-2	5.431750E-2	4.110327E-2	4.548684E-2	5.885685E-2	4.283713E-2	4.866385E-2	4.962639E-2	4.612615E-2	5.077179E-2	5.018087E-2	4.161644E-2	5.915665E-2	5.844330E-2	4.333777E-2	5.487241E-2	5.230996E-2	4.877145E-2	3.943969E-2	4.926856E-2	5.226409E-2	4.542436E-2	3.671471E-2	4.068754E-2	5.485734E-2	4.886740E-2	4.338622E-2	4.857737E-2	5.777904E-2	4.674879E-2	3.386062E-2	5.446467E-2	5.214087E-2	5.865159E-2	5.143582E-2	4.473709E-2	5.697718E-2	4.486757E-2	3.923817E-2	3.977380E-2	5.609702E-2	4.932379E-2	3.548760E-2	5.276466E-2	4.092070E-2	5.594409E-2	4.409933E-2	4.489758E-2	4.573655E-2	4.632735E-2	6.490993E-2	4.773032E-2	4.541072E-2	5.685642E-2	5.570660E-2	4.820692E-2	4.980432E-2	5.708682E-2	4.779582E-2	5.543232E-2	4.842979E-2	5.834187E-2	4.900579E-2	6.008877E-2	5.119755E-2	4.436594E-2	5.273441E-2	4.645408E-2	4.244809E-2	3.607101E-2	5.700152E-2	6.106516E-2	4.549862E-2	5.119056E-2	4.518471E-2	4.724385E-2	5.062051E-2	4.892841E-2	5.306096E-2	6.379924E-2	4.385559E-2	5.455991E-2	5.926798E-2	3.978799E-2	5.346386E-2	3.951397E-2	4.951339E-2	5.702326E-2	5.035504E-2	4.911007E-2	5.044519E-2	5.150878E-2	4.802710E-2	5.251398E-2	4.201447E-2	4.836778E-2	4.871360E-2	5.544753E-2	4.951420E-2	5.099434E-2	4.135725E-2	5.743254E-2	4.289211E-2	4.671889E-2	5.391479E-2	5.532828E-2	4.236558E-2	3.594184E-2	4.805557E-2	5.294122E-2	4.629566E-2	4.245215E-2	5.095518E-2	4.590648E-2	3.771616E-2	4.756097E-2	5.246130E-2	5.055657E-2	4.001967E-2	4.252116E-2	4.092836E-2	5.754618E-2	3.882654E-2	5.445276E-2	5.503892E-2	5.154205E-2	3.459882E-2	4.250962E-2	3.599942E-2	5.231415E-2	4.718942E-2	5.651998E-2	5.328125E-2	3.698493E-2	4.789654E-2	4.177461E-2	5.821696E-2	5.902893E-2	5.088817E-2	4.865135E-2	6.750424E-2	4.234299E-2	4.708939E-2	5.346597E-2	5.381568E-2	5.575561E-2	5.501339E-2	5.753705E-2	5.057977E-2	4.631179E-2	5.975556E-2	6.237079E-2	4.409239E-2	3.768312E-2	4.676877E-2	4.094258E-2	5.275769E-2	5.231562E-2	5.056895E-2	3.843787E-2	4.911178E-2	5.862743E-2	4.396881E-2	4.143664E-2	4.506481E-2	4.267556E-2	6.942390E-2
5.336030E+2	5.264917E-2	4.859815E-2	5.975798E-2	5.570250E-2	5.198545E-2	5.231665E-2	5.647434E-2	5.387401E-2	6.432731E-2	6.447656E-2	6.539721E-2	5.952879E-2	6.136620E-2	7.463561E-2	5.494620E-2	6.037089E-2	6.685752E-2	5.514661E-2	4.672892E-2	6.400790E-2	6.316651E-2	6.426915E-2	6.600204E-2	6.219646E-2	5.506140E-2	5.805125E-2	6.314252E-2	6.477423E-2	6.233530E-2	6.444858E-2	6.188016E-2	6.938612E-2	7.704640E-2	5.718224E-2	6.089608E-2	6.210315E-2	6.282745E-2	6.638889E-2	7.036575E-2	5.808647E-2	6.937453E-2	5.437854E-2	5.405083E-2	5.588767E-2	6.455251E-2	6.517665E-2	5.565869E-2	5.794519E-2	5.335418E-2	6.660374E-2	7.841523E-2	5.082552E-2	5.540899E-2	5.932216E-2	5.983582E-2	7.322398E-2	4.778059E-2	5.405449E-2	6.072365E-2	6.357170E-2	5.734603E-2	5.863729E-2	7.097275E-2	7.741541E-2	7.056993E-2	4.414466E-2	7.554950E-2	4.269125E-2	4.520224E-2	5.352791E-2	6.618400E-2	4.883084E-2	3.796263E-2	4.729137E-2	6.592251E-2	6.779295E-2	5.424853E-2	4.701993E-2	7.143292E-2	5.844202E-2	5.402608E-2	5.804611E-2	6.288533E-2	6.408605E-2	6.115745E-2	7.099302E-2	5.758067E-2	6.220276E-2	4.656227E-2	6.546391E-2	5.449829E-2	4.668245E-2	6.392205E-2	4.754790E-2	6.221088E-2	5.077933E-2	6.126364E-2	5.511920E-2	6.407088E-2	3.851467E-2	6.041038E-2	5.861948E-2	8.077956E-2	6.401922E-2	4.649080E-2	4.895566E-2	6.422166E-2	6.172635E-2	5.289690E-2	5.174555E-2	5.719416E-2	6.859439E-2	6.547423E-2	5.085202E-2	6.723002E-2	5.292367E-2	7.287929E-2	5.825713E-2	5.651368E-2	6.672951E-2	5.420914E-2	5.338281E-2	5.349474E-2	4.770314E-2	6.223605E-2	6.426436E-2	4.846998E-2	5.919252E-2	6.170858E-2	7.152362E-2	6.285038E-2	5.859457E-2	5.704844E-2	6.677907E-2	6.738821E-2	5.570179E-2	5.389860E-2	4.981798E-2	6.955274E-2	6.608336E-2	6.752566E-2	4.499429E-2	4.663842E-2	6.191445E-2	5.230059E-2	6.944196E-2	5.752504E-2	7.703245E-2	7.715269E-2	5.944469E-2	5.959639E-2	6.376932E-2	6.727118E-2	5.505256E-2	5.213454E-2	4.980546E-2	5.990687E-2	7.002634E-2	5.133652E-2	6.473883E-2	5.655761E-2	6.866175E-2	4.683477E-2	6.103658E-2	6.603098E-2	6.123270E-2	6.370358E-2	6.864752E-2	5.534314E-2	8.310012E-2
5.337580E+2	8.757797E-2	8.392032E-2	7.370590E-2	7.757515E-2	8.513869E-2	8.061284E-2	7.777827E-2	9.278845E-2	8.431258E-2	8.466847E-2	7.470284E-2	8.981767E-2	9.577256E-2	8.938344E-2	8.735290E-2	7.762948E-2	8.708117E-2	8.056727E-2	7.396278E-2	8.332642E-2	8.278705E-2	8.103752E-2	7.057925E-2	8.463998E-2	1.066729E-1	7.673595E-2	7.849755E-2	8.484995E-2	8.044486E-2	1.000480E-1	8.482961E-2	6.637316E-2	9.617082E-2	8.455355E-2	9.431497E-2	7.627300E-2	7.808677E-2	7.662151E-2	8.955400E-2	8.696803E-2	7.613726E-2	8.497454E-2	7.138459E-2	7.657476E-2	8.042042E-2	7.861946E-2	8.047310E-2	8.730964E-2	8.223248E-2	8.288336E-2	1.102367E-1	7.888153E-2	8.302971E-2	8.695175E-2	9.280465E-2	9.153420E-2	7.855496E-2	9.129360E-2	8.966278E-2	8.001138E-2	7.927601E-2	7.884147E-2	9.982412E-2	7.722983E-2	7.633788E-2	8.524613E-2	8.953251E-2	9.431197E-2	8.943619E-2	8.953187E-2	5.957303E-2	8.711682E-2	8.253641E-2	9.009398E-2	9.273459E-2	8.197562E-2	8.212428E-2	8.727448E-2	8.296412E-2	7.579879E-2	9.160002E-2	7.965166E-2	8.451160E-2	9.316059E-2	1.082592E-1	8.474262E-2	8.151584E-2	9.052956E-2	8.479687E-2	7.884264E-2	8.439555E-2	8.205359E-2	8.274253E-2	8.804166E-2	6.948489E-2	8.801174E-2	8.183371E-2	8.287856E-2	7.616362E-2	9.188574E-2	9.107416E-2	8.169496E-2	9.481567E-2	7.287887E-2	8.365654E-2	9.495513E-2	8.619409E-2	9.969105E-2	6.960707E-2	8.601738E-2	8.199973E-2	8.522835E-2	9.712483E-2	9.165836E-2	7.609873E-2	8.123297E-2	9.357994E-2	7.098753E-2	8.635507E-2	8.547675E-2	7.807702E-2	7.338821E-2	8.726055E-2	8.431116E-2	7.970179E-2	8.668548E-2	8.028933E-2	7.888700E-2	9.626212E-2	7.646079E-2	8.330500E-2	9.609714E-2	9.406730E-2	8.594722E-2	9.542255E-2	9.739213E-2	8.203160E-2	9.218553E-2	8.124249E-2	8.390936E-2	7.387799E-2	7.555632E-2	8.387413E-2	9.733521E-2	8.012452E-2	7.966101E-2	7.681007E-2	8.426112E-2	8.490078E-2	9.278482E-2	9.377739E-2	1.080527E-1	8.176311E-2	1.010361E-1	7.642129E-2	8.058634E-2	9.823259E-2	7.979379E-2	9.287324E-2	7.041719E-2	7.575436E-2	9.260820E-2	1.062371E-1	7.352447E-2	1.004304E-1	8.731821E-2	9.918840E-2	7.067888E-2	6.931578E-2	1.085432E-1
5.339090E+2	1.149426E-1	1.283140E-1	1.329220E-1	1.266429E-1	1.184315E-1	1.311125E-1	1.377696E-1	1.376380E-1	1.305620E-1	1.335617E-1	1.208061E-1	1.262573E-1	1.268602E-1	1.078109E-1	1.267478E-1	1.222374E-1	1.289330E-1	1.323124E-1	1.303424E-1	1.109373E-1	1.280156E-1	1.238667E-1	1.380085E-1	1.300160E-1	1.418132E-1	1.471473E-1	1.271055E-1	1.561303E-1	1.303570E-1	1.315055E-1	1.325544E-1	1.225593E-1	1.396484E-1	1.193832E-1	1.526644E-1	1.245162E-1	1.253563E-1	1.347286E-1	1.467018E-1	1.602894E-1	1.310296E-1	1.416791E-1	1.230706E-1	1.405475E-1	1.351695E-1	1.407597E-1	1.326070E-1	1.391451E-1	1.502486E-1	1.422436E-1	1.360823E-1	1.455421E-1	1.391854E-1	1.391457E-1	1.406020E-1	1.338536E-1	1.122245E-1	1.302217E-1	1.192875E-1	1.345328E-1	1.328441E-1	1.647431E-1	1.130473E-1	1.162799E-1	1.400633E-1	1.491280E-1	1.237252E-1	1.454351E-1	1.194850E-1	1.362030E-1	1.338745E-1	1.341928E-1	1.240027E-1	1.388764E-1	1.452456E-1	1.190261E-1	1.375185E-1	1.284425E-1	1.274187E-1	1.433887E-1	1.329896E-1	1.336959E-1	1.236676E-1	1.227280E-1	1.449887E-1	1.500734E-1	1.336863E-1	1.361955E-1	1.112527E-1	1.185075E-1	1.338988E-1	1.425767E-1	1.460947E-1	1.548595E-1	1.204532E-1	1.279825E-1	1.430633E-1	1.231620E-1	1.389689E-1	1.533391E-1	1.302661E-1	1.278718E-1	1.290708E-1	1.345304E-1	1.326241E-1	1.242355E-1	1.297870E-1	1.467911E-1	1.494017E-1	1.237254E-1	1.439903E-1	1.442497E-1	1.351003E-1	1.397213E-1	1.448571E-1	1.353570E-1	1.363360E-1	1.266676E-1	1.215592E-1	1.234381E-1	1.291619E-1	1.415065E-1	1.207713E-1	1.238312E-1	1.217133E-1	1.330395E-1	1.353436E-1	1.419757E-1	1.343199E-1	1.437194E-1	1.442683E-1	1.524382E-1	1.323262E-1	1.410446E-1	1.458114E-1	1.365818E-1	1.327219E-1	1.259750E-1	1.457972E-1	1.183840E-1	1.485149E-1	1.338719E-1	1.331966E-1	1.488336E-1	1.224808E-1	1.396500E-1	1.410613E-1	1.471665E-1	1.447764E-1	1.419693E-1	1.342459E-1	1.368596E-1	1.194143E-1	1.278376E-1	1.390526E-1	1.266601E-1	1.439350E-1	1.369060E-1	1.219918E-1	1.235319E-1	1.319122E-1	1.389193E-1	1.423464E-1	1.152189E-1	1.395829E-1	1.288913E-1	1.514361E-1	1.368949E-1	1.420591E-1	1.575429E-1
5.340430E+2	1.741936E-1	1.706914E-1	2.027234E-1	1.825996E-1	1.818635E-1	1.894330E-1	1.944747E-1	1.874675E-1	1.797473E-1	1.838104E-1	1.853716E-1	1.743686E-1	2.148667E-1	1.569893E-1	1.977273E-1	1.919992E-1	2.018445E-1	1.843638E-1	1.648405E-1	1.986343E-1	1.925424E-1	1.660378E-1	1.729022E-1	1.813345E-1	2.126616E-1	1.836264E-1	1.760063E-1	1.976298E-1	1.815793E-1	2.169933E-1	2.023991E-1	1.956788E-1	1.974570E-1	2.066520E-1	2.054152E-1	2.116548E-1	1.976979E-1	2.090553E-1	2.023366E-1	2.027943E-1	1.916356E-1	2.026239E-1	1.621893E-1	1.993401E-1	2.006971E-1	1.995327E-1	1.971313E-1	1.986422E-1	1.801170E-1	1.967924E-1	1.989581E-1	2.126334E-1	1.996941E-1	2.022350E-1	1.936829E-1	1.967733E-1	1.908098E-1	1.781187E-1	1.773789E-1	1.821188E-1	2.018232E-1	2.147869E-1	1.934196E-1	1.810328E-1	1.992414E-1	2.158591E-1	2.044189E-1	2.072768E-1	1.929740E-1	1.893830E-1	1.727027E-1	1.722809E-1	2.157946E-1	2.206163E-1	1.703670E-1	1.905264E-1	1.864173E-1	2.244989E-1	1.793503E-1	2.098878E-1	2.170887E-1	1.933649E-1	2.145962E-1	1.970000E-1	1.799109E-1	1.964365E-1	1.822800E-1	1.879626E-1	1.806570E-1	1.896819E-1	1.809189E-1	1.700818E-1	1.934295E-1	1.849903E-1	2.043813E-1	1.825973E-1	1.985453E-1	1.841706E-1	1.815195E-1	1.827096E-1	2.124170E-1	1.913034E-1	1.931479E-1	1.959791E-1	1.966201E-1	2.041434E-1	1.918107E-1	1.988836E-1	2.025763E-1	1.838082E-1	2.000736E-1	1.953084E-1	1.878307E-1	1.895780E-1	1.954930E-1	1.697147E-1	1.841885E-1	2.024820E-1	2.031348E-1	2.067084E-1	1.983920E-1	1.960326E-1	1.919727E-1	1.877607E-1	1.984411E-1	1.880195E-1	1.908808E-1	1.872718E-1	2.108427E-1	1.939152E-1	1.845601E-1	1.761676E-1	1.886972E-1	2.015015E-1	1.913259E-1	1.876225E-1	1.914737E-1	1.793917E-1	1.795787E-1	2.123056E-1	1.986749E-1	1.817057E-1	1.818498E-1	1.965549E-1	1.909832E-1	1.969386E-1	1.903103E-1	1.942537E-1	2.065595E-1	1.966260E-1	2.165107E-1	2.061720E-1	2.034100E-1	1.968552E-1	2.190330E-1	1.949756E-1	1.826638E-1	1.727333E-1	1.737246E-1	1.984945E-1	1.861370E-1	1.844316E-1	1.936297E-1	2.099300E-1	1.966373E-1	2.017666E-1	2.107112E-1	1.997252E-1	1.954549E-1	1.735739E-1
5.342040E+2	3.369507E-1	3.051491E-1	3.474275E-1	3.343194E-1	3.144305E-1	3.255703E-1	3.480193E-1	3.492794E-1	3.300230E-1	3.286019E-1	3.386776E-1	3.615906E-1	3.361061E-1	3.410035E-1	3.327860E-1	3.119554E-1	3.260105E-1	3.296641E-1	3.382830E-1	3.394736E-1	3.280036E-1	3.172027E-1	3.225532E-1	3.193554E-1	3.637140E-1	3.911267E-1	3.277021E-1	3.392338E-1	3.356922E-1	3.517977E-1	3.511997E-1	3.405256E-1	3.463990E-1	3.533217E-1	3.574327E-1	3.421895E-1	3.320706E-1	3.744185E-1	3.428258E-1	3.389859E-1	3.490049E-1	3.310014E-1	3.391637E-1	3.478467E-1	3.408990E-1	3.285432E-1	3.512668E-1	3.228923E-1	3.426027E-1	3.534503E-1	3.490756E-1	3.415224E-1	3.469860E-1	3.211452E-1	3.624633E-1	3.528038E-1	3.601839E-1	3.429887E-1	3.314997E-1	3.438358E-1	3.406165E-1	3.508964E-1	3.377698E-1	3.473251E-1	3.378932E-1	3.414426E-1	3.369531E-1	3.288832E-1	3.354731E-1	3.065420E-1	3.359543E-1	3.482282E-1	3.349988E-1	3.490869E-1	3.191028E-1	3.221039E-1	3.302789E-1	3.398187E-1	3.459182E-1	3.594342E-1	3.492542E-1	3.308313E-1	3.361103E-1	3.333010E-1	3.421089E-1	3.574383E-1	3.057233E-1	3.421906E-1	3.251194E-1	3.444685E-1	2.991480E-1	3.560178E-1	3.358830E-1	3.214812E-1	3.271313E-1	3.449725E-1	3.619004E-1	3.320512E-1	3.249331E-1	3.330027E-1	3.652654E-1	3.301970E-1	3.433638E-1	3.398439E-1	3.348967E-1	3.277384E-1	3.410903E-1	3.410871E-1	3.307548E-1	3.246477E-1	3.453486E-1	3.450215E-1	3.535066E-1	3.632451E-1	3.633989E-1	3.196035E-1	3.153199E-1	3.637921E-1	3.304578E-1	3.679451E-1	3.350987E-1	3.690548E-1	3.293173E-1	3.511214E-1	3.296399E-1	3.690407E-1	3.571124E-1	3.465691E-1	3.377872E-1	3.625239E-1	3.563513E-1	3.351801E-1	3.473672E-1	3.418666E-1	3.557871E-1	3.529442E-1	3.290700E-1	3.067635E-1	3.107895E-1	3.331076E-1	3.485993E-1	3.391977E-1	3.643732E-1	3.615810E-1	3.540224E-1	3.249354E-1	3.401138E-1	3.588659E-1	3.229131E-1	3.139001E-1	3.119689E-1	3.497169E-1	3.482380E-1	3.414286E-1	3.565134E-1	3.326438E-1	3.609275E-1	3.570180E-1	3.520819E-1	3.565919E-1	3.404763E-1	3.504068E-1	3.321570E-1	3.555353E-1	3.239538E-1	3.708582E-1	3.545095E-1	3.216259E-1	3.203571E-1	2.803771E-1
5.343600E+2	5.962241E-1	5.820568E-1	5.879975E-1	6.166935E-1	6.341297E-1	6.121490E-1	6.107308E-1	6.097294E-1	6.285093E-1	6.100966E-1	6.064074E-1	6.110832E-1	6.274775E-1	6.099705E-1	5.773718E-1	6.019745E-1	6.115258E-1	6.078859E-1	6.029021E-1	6.072991E-1	5.971017E-1	6.088065E-1	6.092739E-1	5.973859E-1	6.719092E-1	6.861801E-1	6.241223E-1	6.556016E-1	6.482912E-1	6.171148E-1	6.344090E-1	6.430219E-1	6.412079E-1	6.324847E-1	6.611994E-1	6.521398E-1	6.419557E-1	6.386586E-1	6.425201E-1	6.612647E-1	6.351699E-1	6.616820E-1	5.564013E-1	6.603745E-1	6.498610E-1	6.211370E-1	6.475509E-1	6.122548E-1	6.544036E-1	5.975320E-1	6.191267E-1	6.105442E-1	6.244952E-1	6.111194E-1	6.268746E-1	6.534012E-1	6.162299E-1	6.351745E-1	6.386777E-1	6.338334E-1	6.271326E-1	6.518883E-1	6.389131E-1	6.191809E-1	6.469560E-1	6.315232E-1	6.248979E-1	6.593739E-1	6.328271E-1	6.149310E-1	6.181311E-1	6.403191E-1	6.257089E-1	6.526648E-1	6.028012E-1	6.166801E-1	6.340238E-1	6.336721E-1	6.387293E-1	6.058827E-1	6.165695E-1	6.314551E-1	5.839052E-1	6.106394E-1	5.753249E-1	6.121940E-1	6.455979E-1	6.271253E-1	6.335344E-1	6.275276E-1	6.088171E-1	6.293121E-1	6.496912E-1	6.497163E-1	6.055054E-1	6.411147E-1	6.692121E-1	6.324053E-1	6.340474E-1	6.093389E-1	6.343885E-1	6.110083E-1	6.454170E-1	5.964656E-1	6.010367E-1	6.139605E-1	6.291612E-1	6.492839E-1	6.407226E-1	6.352702E-1	6.434847E-1	6.240747E-1	6.309398E-1	6.416377E-1	6.633230E-1	6.114569E-1	6.093066E-1	6.073640E-1	6.287844E-1	6.698201E-1	6.135288E-1	5.974035E-1	6.205233E-1	6.045109E-1	6.037934E-1	6.266869E-1	6.226125E-1	6.013553E-1	6.222929E-1	5.971760E-1	6.304115E-1	6.097889E-1	6.389395E-1	6.000058E-1	6.161952E-1	6.266307E-1	6.126905E-1	6.376495E-1	6.477570E-1	6.211654E-1	6.036812E-1	6.435830E-1	6.039887E-1	6.240313E-1	6.292730E-1	6.132266E-1	6.458930E-1	6.168624E-1	6.303548E-1	6.381986E-1	6.202461E-1	6.511073E-1	6.180852E-1	6.192895E-1	6.066301E-1	6.162675E-1	6.142313E-1	6.185562E-1	6.235209E-1	6.415816E-1	6.454054E-1	6.141049E-1	6.053105E-1	6.313598E-1	6.027905E-1	6.184401E-1	6.542084E-1	6.601715E-1	5.870007E-1	6.516716E-1
5.345160E+2	1.022729E+0	9.943547E-1	1.020236E+0	1.020749E+0	1.005479E+0	9.848939E-1	1.003216E+0	1.019712E+0	1.011628E+0	1.026541E+0	1.018411E+0	1.023527E+0	1.043537E+0	1.006222E+0	9.623400E-1	9.903421E-1	1.019050E+0	1.003298E+0	9.524317E-1	1.007195E+0	9.906434E-1	1.036302E+0	1.036631E+0	1.007561E+0	1.107056E+0	1.101821E+0	1.023196E+0	1.082132E+0	1.050115E+0	1.046885E+0	1.007052E+0	1.043262E+0	1.092725E+0	1.026891E+0	1.070845E+0	1.018426E+0	1.037658E+0	1.049285E+0	1.026108E+0	1.068075E+0	1.024457E+0	1.023555E+0	9.623194E-1	1.031843E+0	1.038070E+0	1.058820E+0	1.042726E+0	1.008290E+0	1.005471E+0	1.040984E+0	1.041548E+0	1.042073E+0	9.971461E-1	1.024646E+0	9.905157E-1	1.019439E+0	9.965538E-1	1.020200E+0	1.033176E+0	1.006746E+0	1.026439E+0	1.035092E+0	1.033988E+0	9.971037E-1	1.048083E+0	1.038462E+0	1.026131E+0	1.040630E+0	1.023620E+0	9.961415E-1	9.760183E-1	1.016260E+0	1.029486E+0	1.019486E+0	1.007304E+0	1.032456E+0	9.980518E-1	1.007363E+0	1.007549E+0	1.045662E+0	1.002516E+0	1.009887E+0	1.047296E+0	1.080490E+0	1.021735E+0	1.005769E+0	9.476587E-1	1.036262E+0	1.059443E+0	1.011924E+0	1.067939E+0	1.040728E+0	9.665995E-1	1.048714E+0	9.901334E-1	1.037753E+0	9.944622E-1	1.001405E+0	1.000496E+0	1.039502E+0	1.018709E+0	9.879578E-1	9.881871E-1	1.043257E+0	1.006542E+0	1.027528E+0	1.012210E+0	9.532906E-1	1.002655E+0	1.002822E+0	1.033717E+0	9.994757E-1	9.845974E-1	1.004715E+0	1.028151E+0	9.355929E-1	1.031208E+0	9.952809E-1	1.026167E+0	1.069456E+0	1.050884E+0	1.006000E+0	1.026877E+0	1.002224E+0	1.024773E+0	1.024444E+0	1.019241E+0	1.073152E+0	9.972926E-1	1.015404E+0	9.977391E-1	1.024172E+0	1.016685E+0	1.054861E+0	9.963085E-1	1.005130E+0	1.042926E+0	9.735900E-1	1.016560E+0	1.018537E+0	1.034723E+0	9.837685E-1	1.026646E+0	1.028743E+0	9.716566E-1	9.762065E-1	9.806265E-1	1.024130E+0	1.014530E+0	9.977728E-1	1.017170E+0	1.007483E+0	9.960963E-1	1.018986E+0	1.045453E+0	1.051342E+0	1.020108E+0	9.993644E-1	9.655573E-1	1.051545E+0	1.051880E+0	9.879644E-1	1.009688E+0	1.021121E+0	9.930239E-1	9.703831E-1	1.048263E+0	1.068365E+0	1.064384E+0	1.036836E+0
5.346620E+2	1.395726E+0	1.333849E+0	1.447233E+0	1.397573E+0	1.459994E+0	1.400239E+0	1.401615E+0	1.395538E+0	1.415910E+0	1.411906E+0	1.495669E+0	1.487363E+0	1.382521E+0	1.429334E+0	1.388958E+0	1.386609E+0	1.453866E+0	1.425869E+0	1.417593E+0	1.426776E+0	1.426203E+0	1.461561E+0	1.411675E+0	1.446556E+0	1.484669E+0	1.438584E+0	1.415156E+0	1.476448E+0	1.502069E+0	1.392279E+0	1.441011E+0	1.409461E+0	1.419094E+0	1.455308E+0	1.409442E+0	1.380515E+0	1.435789E+0	1.439635E+0	1.374921E+0	1.471222E+0	1.397466E+0	1.475182E+0	1.431234E+0	1.391085E+0	1.482090E+0	1.468249E+0	1.466029E+0	1.394872E+0	1.441927E+0	1.434114E+0	1.456707E+0	1.402936E+0	1.418383E+0	1.459947E+0	1.438209E+0	1.416811E+0	1.455034E+0	1.425982E+0	1.463386E+0	1.352672E+0	1.471919E+0	1.496076E+0	1.409533E+0	1.367585E+0	1.372270E+0	1.396419E+0	1.469959E+0	1.407294E+0	1.441468E+0	1.421342E+0	1.424084E+0	1.411076E+0	1.397179E+0	1.395495E+0	1.361259E+0	1.375119E+0	1.411158E+0	1.449790E+0	1.422307E+0	1.412008E+0	1.437887E+0	1.409238E+0	1.415349E+0	1.414542E+0	1.382936E+0	1.438382E+0	1.404500E+0	1.434332E+0	1.353917E+0	1.421825E+0	1.399868E+0	1.371366E+0	1.400552E+0	1.381754E+0	1.393006E+0	1.404442E+0	1.435268E+0	1.442815E+0	1.427433E+0	1.423971E+0	1.421885E+0	1.414236E+0	1.405692E+0	1.473091E+0	1.416225E+0	1.376076E+0	1.401390E+0	1.383472E+0	1.374884E+0	1.482757E+0	1.480175E+0	1.379159E+0	1.401670E+0	1.413745E+0	1.444777E+0	1.421426E+0	1.414356E+0	1.392162E+0	1.390381E+0	1.420971E+0	1.399442E+0	1.385873E+0	1.392892E+0	1.416408E+0	1.369115E+0	1.359966E+0	1.437654E+0	1.360284E+0	1.462294E+0	1.363058E+0	1.428217E+0	1.367151E+0	1.336979E+0	1.428214E+0	1.466737E+0	1.407481E+0	1.422597E+0	1.427942E+0	1.453169E+0	1.415411E+0	1.447244E+0	1.384039E+0	1.458128E+0	1.390205E+0	1.428528E+0	1.353206E+0	1.408391E+0	1.368352E+0	1.411180E+0	1.406569E+0	1.413775E+0	1.425472E+0	1.406367E+0	1.384564E+0	1.385430E+0	1.403088E+0	1.425861E+0	1.377181E+0	1.381617E+0	1.422086E+0	1.344000E+0	1.395826E+0	1.447067E+0	1.447817E+0	1.438206E+0	1.393828E+0	1.412271E+0	1.459909E+0	1.321738E+0	1.439428E+0
5.348120E+2	1.820642E+0	1.834706E+0	1.842974E+0	1.822678E+0	1.813848E+0	1.859027E+0	1.810318E+0	1.815012E+0	1.818189E+0	1.765228E+0	1.842476E+0	1.843001E+0	1.876724E+0	1.851220E+0	1.782074E+0	1.835546E+0	1.844655E+0	1.838647E+0	1.812582E+0	1.816037E+0	1.781266E+0	1.829086E+0	1.835819E+0	1.846808E+0	1.822010E+0	1.880371E+0	1.837429E+0	1.866748E+0	1.807145E+0	1.795720E+0	1.783995E+0	1.784053E+0	1.855915E+0	1.828880E+0	1.824804E+0	1.801604E+0	1.856873E+0	1.770971E+0	1.826251E+0	1.810012E+0	1.833667E+0	1.828181E+0	1.828235E+0	1.858107E+0	1.820539E+0	1.821060E+0	1.867294E+0	1.847708E+0	1.906963E+0	1.848487E+0	1.823575E+0	1.780850E+0	1.819409E+0	1.865470E+0	1.808649E+0	1.882701E+0	1.780256E+0	1.850969E+0	1.876394E+0	1.840472E+0	1.888296E+0	1.802871E+0	1.812201E+0	1.792095E+0	1.784204E+0	1.806115E+0	1.780478E+0	1.814248E+0	1.824045E+0	1.798404E+0	1.777121E+0	1.843500E+0	1.788397E+0	1.879809E+0	1.777330E+0	1.822206E+0	1.773594E+0	1.784894E+0	1.822782E+0	1.834532E+0	1.776832E+0	1.733233E+0	1.813924E+0	1.768893E+0	1.763464E+0	1.790221E+0	1.807980E+0	1.829633E+0	1.781215E+0	1.838428E+0	1.801410E+0	1.838254E+0	1.791997E+0	1.851982E+0	1.864482E+0	1.758768E+0	1.828741E+0	1.853745E+0	1.785468E+0	1.772328E+0	1.843188E+0	1.825956E+0	1.798807E+0	1.826188E+0	1.798936E+0	1.746995E+0	1.757234E+0	1.807610E+0	1.841943E+0	1.824084E+0	1.780371E+0	1.824311E+0	1.803088E+0	1.800369E+0	1.834807E+0	1.783991E+0	1.759674E+0	1.782014E+0	1.773528E+0	1.774740E+0	1.850271E+0	1.784545E+0	1.818926E+0	1.792262E+0	1.780889E+0	1.786486E+0	1.820226E+0	1.772571E+0	1.831365E+0	1.782784E+0	1.824220E+0	1.793785E+0	1.785916E+0	1.785410E+0	1.804964E+0	1.803275E+0	1.792110E+0	1.822116E+0	1.762404E+0	1.767027E+0	1.769030E+0	1.854149E+0	1.790830E+0	1.758455E+0	1.751873E+0	1.736257E+0	1.806699E+0	1.745820E+0	1.725444E+0	1.769131E+0	1.744492E+0	1.822228E+0	1.761513E+0	1.730613E+0	1.767578E+0	1.822288E+0	1.750068E+0	1.729659E+0	1.782271E+0	1.820638E+0	1.787452E+0	1.770611E+0	1.840479E+0	1.807294E+0	1.740637E+0	1.764249E+0	1.829759E+0	1.862340E+0	1.714913E+0	1.726530E+0
5.349530E+2	2.138192E+0	2.012506E+0	2.145996E+0	2.092152E+0	2.036070E+0	2.050114E+0	2.092348E+0	2.027945E+0	2.072601E+0	2.030788E+0	2.017849E+0	2.072706E+0	2.043873E+0	2.059993E+0	2.040583E+0	2.034778E+0	2.065639E+0	2.094226E+0	2.071030E+0	2.074624E+0	2.061981E+0	2.002991E+0	2.023348E+0	2.054505E+0	2.026605E+0	2.081770E+0	2.036218E+0	2.050180E+0	2.006873E+0	1.982282E+0	2.021007E+0	2.034955E+0	2.092547E+0	2.054936E+0	2.012684E+0	2.067587E+0	2.079270E+0	2.095886E+0	2.073341E+0	2.031310E+0	2.089031E+0	2.091026E+0	1.956595E+0	2.032790E+0	2.082450E+0	2.120725E+0	2.071722E+0	1.991465E+0	2.057572E+0	2.104367E+0	2.014162E+0	2.044961E+0	2.022298E+0	2.058104E+0	1.998130E+0	2.041792E+0	2.075646E+0	2.020220E+0	2.027125E+0	1.990139E+0	2.114702E+0	2.054960E+0	2.009418E+0	2.027713E+0	2.039230E+0	2.030031E+0	2.063327E+0	1.996779E+0	2.023426E+0	2.042979E+0	2.030216E+0	2.031993E+0	1.990257E+0	2.074907E+0	2.084097E+0	1.989714E+0	2.032145E+0	2.018904E+0	2.035746E+0	2.078823E+0	2.077105E+0	1.978961E+0	2.099864E+0	2.015615E+0	1.976395E+0	2.031038E+0	1.989636E+0	2.049729E+0	1.935496E+0	2.043136E+0	2.035466E+0	2.014628E+0	1.991215E+0	2.039548E+0	2.029560E+0	1.989432E+0	2.012870E+0	2.054742E+0	2.028682E+0	1.984548E+0	1.955630E+0	2.050442E+0	1.990736E+0	2.051246E+0	2.047476E+0	1.980989E+0	2.106082E+0	2.016655E+0	1.997300E+0	2.037890E+0	2.025702E+0	1.975949E+0	2.033067E+0	2.067021E+0	2.062602E+0	1.966671E+0	2.013216E+0	2.006631E+0	1.984324E+0	2.013227E+0	2.097267E+0	1.954601E+0	2.034640E+0	2.109894E+0	1.948873E+0	2.004084E+0	2.017558E+0	1.991683E+0	1.978580E+0	2.082010E+0	2.013766E+0	2.023681E+0	1.968619E+0	2.008898E+0	1.987763E+0	2.018772E+0	2.040125E+0	2.003803E+0	2.002656E+0	2.063851E+0	1.946326E+0	2.010700E+0	2.010817E+0	1.990676E+0	1.987062E+0	2.021165E+0	2.021549E+0	2.035086E+0	1.993990E+0	1.969616E+0	1.958499E+0	2.021351E+0	1.975096E+0	1.996367E+0	1.967418E+0	1.965649E+0	1.984574E+0	1.935040E+0	1.991396E+0	1.977700E+0	1.972973E+0	2.013269E+0	2.038361E+0	2.021204E+0	1.994341E+0	1.981710E+0	1.980964E+0	1.984792E+0	1.880933E+0	1.875273E+0
5.351140E+2	2.042971E+0	2.052562E+0	1.990160E+0	2.014305E+0	2.016350E+0	2.080806E+0	2.053707E+0	2.015316E+0	2.063852E+0	2.029469E+0	2.030317E+0	2.078055E+0	2.068567E+0	2.079711E+0	2.023282E+0	1.955900E+0	2.038372E+0	2.026815E+0	1.982749E+0	1.939794E+0	2.082365E+0	2.015965E+0	2.025718E+0	2.058862E+0	2.049728E+0	2.048545E+0	2.027265E+0	2.038692E+0	2.011636E+0	1.996328E+0	2.028739E+0	1.998768E+0	2.055553E+0	2.049508E+0	1.996757E+0	2.037916E+0	2.028323E+0	2.076853E+0	2.018284E+0	2.033018E+0	2.092402E+0	2.014327E+0	1.958971E+0	2.039573E+0	2.013445E+0	1.986614E+0	2.053996E+0	2.010315E+0	2.059648E+0	2.016634E+0	1.965504E+0	2.047867E+0	2.085609E+0	2.046171E+0	1.999192E+0	1.977068E+0	2.021504E+0	1.976863E+0	2.064969E+0	1.978048E+0	2.028726E+0	2.022032E+0	1.965272E+0	1.996700E+0	2.064567E+0	2.026727E+0	2.023756E+0	2.044635E+0	2.029141E+0	2.012051E+0	2.015777E+0	1.933869E+0	2.053690E+0	2.048427E+0	1.992352E+0	2.002923E+0	2.026041E+0	2.001142E+0	2.060322E+0	2.051337E+0	2.001910E+0	2.043221E+0	2.028655E+0	1.986757E+0	2.013067E+0	1.931533E+0	1.992104E+0	2.014768E+0	2.097746E+0	2.022268E+0	1.999248E+0	1.960615E+0	2.093960E+0	2.010191E+0	1.947395E+0	2.009945E+0	2.005660E+0	1.987317E+0	1.950950E+0	2.009398E+0	2.075068E+0	2.015534E+0	1.968234E+0	2.006890E+0	1.979925E+0	1.959055E+0	2.062116E+0	1.941963E+0	2.015764E+0	2.002799E+0	2.028908E+0	2.004768E+0	1.982505E+0	1.992007E+0	2.030774E+0	1.945378E+0	1.977065E+0	2.000447E+0	2.012266E+0	1.993851E+0	2.041760E+0	1.948923E+0	1.990082E+0	1.995090E+0	2.024348E+0	2.004197E+0	1.962401E+0	1.985977E+0	1.960537E+0	2.017531E+0	1.990382E+0	1.945199E+0	2.026540E+0	1.981276E+0	1.963627E+0	1.968565E+0	1.978232E+0	1.966032E+0	2.010022E+0	2.033440E+0	1.932832E+0	1.949158E+0	2.036701E+0	1.967217E+0	1.953084E+0	1.915007E+0	1.913142E+0	1.997599E+0	1.948216E+0	1.979979E+0	2.021907E+0	1.995842E+0	2.007221E+0	1.984181E+0	1.929718E+0	2.071229E+0	2.002235E+0	1.976098E+0	1.993242E+0	1.993664E+0	1.894779E+0	1.977288E+0	1.982906E+0	1.967793E+0	1.933698E+0	1.917175E+0	2.016733E+0	2.001151E+0	1.969472E+0	1.962844E+0
5.352600E+2	1.958911E+0	1.940968E+0	1.946815E+0	1.969025E+0	1.878010E+0	1.949952E+0	1.884054E+0	1.914509E+0	1.990659E+0	1.930425E+0	1.949301E+0	1.924658E+0	1.935358E+0	1.947169E+0	1.928333E+0	1.913129E+0	2.021814E+0	2.001757E+0	1.911818E+0	1.917542E+0	1.875228E+0	1.973963E+0	1.963637E+0	1.931477E+0	1.960405E+0	1.965571E+0	1.899971E+0	2.024890E+0	1.917657E+0	1.932920E+0	1.967620E+0	1.932480E+0	1.961759E+0	1.889558E+0	1.899840E+0	1.881152E+0	1.934232E+0	1.900178E+0	1.948495E+0	1.944714E+0	1.954482E+0	1.961871E+0	1.954794E+0	1.901275E+0	1.982886E+0	1.931496E+0	1.945033E+0	1.876862E+0	1.962956E+0	1.949966E+0	1.919383E+0	1.926021E+0	1.966574E+0	1.933400E+0	1.910543E+0	1.861209E+0	1.905468E+0	1.960494E+0	1.954270E+0	1.903298E+0	1.988442E+0	1.921242E+0	1.933093E+0	1.910532E+0	1.854148E+0	1.926504E+0	1.899156E+0	1.898081E+0	1.890339E+0	1.941600E+0	1.910505E+0	1.878730E+0	1.953456E+0	1.971526E+0	1.930532E+0	1.902306E+0	1.929488E+0	1.907199E+0	1.921905E+0	1.973504E+0	1.942582E+0	1.978473E+0	1.982037E+0	1.912400E+0	1.896237E+0	1.902172E+0	1.921617E+0	1.895429E+0	1.930902E+0	1.911004E+0	1.914073E+0	1.906965E+0	1.892513E+0	1.946974E+0	1.937135E+0	1.915979E+0	1.882748E+0	1.910432E+0	1.956997E+0	1.949718E+0	1.879595E+0	1.845829E+0	1.837444E+0	1.928216E+0	1.835673E+0	1.819544E+0	1.904767E+0	1.861791E+0	1.950958E+0	1.903154E+0	1.933773E+0	1.915161E+0	1.924100E+0	1.876723E+0	1.885039E+0	1.910913E+0	1.927414E+0	1.891971E+0	1.927062E+0	1.931553E+0	1.877874E+0	1.841319E+0	1.867410E+0	1.886778E+0	1.909749E+0	1.920027E+0	1.937240E+0	1.870308E+0	1.942694E+0	1.885449E+0	1.941530E+0	1.838161E+0	1.897343E+0	1.863601E+0	1.860978E+0	1.837516E+0	1.825626E+0	1.901610E+0	1.902271E+0	1.850768E+0	1.922001E+0	1.865384E+0	1.888584E+0	1.890532E+0	1.807975E+0	1.850068E+0	1.907701E+0	1.818528E+0	1.879535E+0	1.852979E+0	1.814698E+0	1.918338E+0	1.894339E+0	1.860499E+0	1.890269E+0	1.871171E+0	1.909288E+0	1.886579E+0	1.874948E+0	1.925058E+0	1.875386E+0	1.897071E+0	1.905143E+0	1.848695E+0	1.879243E+0	1.838740E+0	1.875086E+0	1.914720E+0	1.862273E+0	1.778141E+0
5.354170E+2	1.658714E+0	1.671751E+0	1.663306E+0	1.667471E+0	1.618371E+0	1.668034E+0	1.629560E+0	1.675517E+0	1.637876E+0	1.648091E+0	1.640848E+0	1.676769E+0	1.738800E+0	1.673333E+0	1.659105E+0	1.611590E+0	1.602373E+0	1.667321E+0	1.694567E+0	1.637675E+0	1.652016E+0	1.677425E+0	1.679948E+0	1.679316E+0	1.638340E+0	1.708532E+0	1.585391E+0	1.667353E+0	1.641203E+0	1.621710E+0	1.617357E+0	1.606987E+0	1.701171E+0	1.610971E+0	1.657952E+0	1.656158E+0	1.682969E+0	1.697773E+0	1.689486E+0	1.634540E+0	1.655335E+0	1.625739E+0	1.623792E+0	1.643699E+0	1.691710E+0	1.628614E+0	1.655558E+0	1.633705E+0	1.679917E+0	1.648953E+0	1.632370E+0	1.679528E+0	1.680251E+0	1.698022E+0	1.662669E+0	1.635308E+0	1.670355E+0	1.670096E+0	1.617869E+0	1.637240E+0	1.664897E+0	1.697778E+0	1.603767E+0	1.656350E+0	1.669410E+0	1.643239E+0	1.628467E+0	1.657850E+0	1.635438E+0	1.628336E+0	1.617765E+0	1.583379E+0	1.741502E+0	1.691499E+0	1.629026E+0	1.595082E+0	1.648019E+0	1.702031E+0	1.605211E+0	1.630649E+0	1.639394E+0	1.654709E+0	1.649912E+0	1.648663E+0	1.640851E+0	1.642625E+0	1.603784E+0	1.637819E+0	1.603552E+0	1.657277E+0	1.620729E+0	1.676485E+0	1.696930E+0	1.641244E+0	1.587459E+0	1.663924E+0	1.676748E+0	1.646586E+0	1.600900E+0	1.631752E+0	1.645066E+0	1.624054E+0	1.615411E+0	1.638663E+0	1.646315E+0	1.615976E+0	1.657297E+0	1.602077E+0	1.652015E+0	1.660185E+0	1.632664E+0	1.604750E+0	1.622739E+0	1.650485E+0	1.669474E+0	1.565674E+0	1.563185E+0	1.611585E+0	1.699832E+0	1.635657E+0	1.740287E+0	1.651760E+0	1.577365E+0	1.592069E+0	1.591335E+0	1.610801E+0	1.665466E+0	1.582758E+0	1.663790E+0	1.725266E+0	1.650640E+0	1.635491E+0	1.630721E+0	1.590330E+0	1.599304E+0	1.609261E+0	1.631391E+0	1.581679E+0	1.605484E+0	1.641775E+0	1.629510E+0	1.660427E+0	1.631943E+0	1.612217E+0	1.581337E+0	1.583884E+0	1.632817E+0	1.601329E+0	1.701704E+0	1.582450E+0	1.619545E+0	1.663867E+0	1.654347E+0	1.546344E+0	1.618218E+0	1.656978E+0	1.595495E+0	1.657503E+0	1.627111E+0	1.689698E+0	1.577120E+0	1.647547E+0	1.646252E+0	1.626903E+0	1.591342E+0	1.603586E+0	1.651446E+0	1.618345E+0	1.592411E+0	1.602780E+0
5.355630E+2	1.529562E+0	1.431952E+0	1.471395E+0	1.452426E+0	1.477314E+0	1.504463E+0	1.458879E+0	1.445253E+0	1.472837E+0	1.506611E+0	1.477837E+0	1.476589E+0	1.441916E+0	1.501389E+0	1.418017E+0	1.464366E+0	1.465526E+0	1.464342E+0	1.435362E+0	1.501518E+0	1.433066E+0	1.528741E+0	1.498049E+0	1.473451E+0	1.458465E+0	1.439419E+0	1.453128E+0	1.465236E+0	1.436676E+0	1.474231E+0	1.408363E+0	1.425837E+0	1.491522E+0	1.441228E+0	1.498104E+0	1.402338E+0	1.455219E+0	1.427613E+0	1.448264E+0	1.460479E+0	1.486228E+0	1.459056E+0	1.451993E+0	1.430034E+0	1.448784E+0	1.465498E+0	1.447714E+0	1.460162E+0	1.537341E+0	1.443979E+0	1.464416E+0	1.448937E+0	1.463238E+0	1.427679E+0	1.453816E+0	1.459179E+0	1.467334E+0	1.507436E+0	1.462641E+0	1.471779E+0	1.485369E+0	1.474029E+0	1.493367E+0	1.429208E+0	1.451717E+0	1.497898E+0	1.483230E+0	1.464472E+0	1.500376E+0	1.471599E+0	1.473452E+0	1.442614E+0	1.470172E+0	1.452155E+0	1.433177E+0	1.430033E+0	1.472386E+0	1.493684E+0	1.437191E+0	1.444858E+0	1.428061E+0	1.482155E+0	1.461560E+0	1.447129E+0	1.422520E+0	1.436982E+0	1.470258E+0	1.469588E+0	1.380652E+0	1.456897E+0	1.405203E+0	1.458184E+0	1.440797E+0	1.444140E+0	1.397565E+0	1.494965E+0	1.475463E+0	1.469426E+0	1.433997E+0	1.423508E+0	1.454988E+0	1.451068E+0	1.501538E+0	1.430361E+0	1.446693E+0	1.472935E+0	1.429988E+0	1.432085E+0	1.459116E+0	1.428200E+0	1.481450E+0	1.460497E+0	1.481963E+0	1.455368E+0	1.473445E+0	1.406538E+0	1.457962E+0	1.440044E+0	1.436457E+0	1.419287E+0	1.478909E+0	1.477184E+0	1.410789E+0	1.465470E+0	1.455360E+0	1.472744E+0	1.485155E+0	1.458493E+0	1.469110E+0	1.418405E+0	1.424345E+0	1.434465E+0	1.457565E+0	1.415247E+0	1.434551E+0	1.447561E+0	1.485402E+0	1.414131E+0	1.446289E+0	1.462523E+0	1.464135E+0	1.455390E+0	1.404217E+0	1.483629E+0	1.420391E+0	1.412941E+0	1.483949E+0	1.416860E+0	1.480995E+0	1.470079E+0	1.427876E+0	1.417018E+0	1.448633E+0	1.427568E+0	1.466354E+0	1.387797E+0	1.473622E+0	1.495385E+0	1.483236E+0	1.424953E+0	1.427511E+0	1.414210E+0	1.441263E+0	1.456754E+0	1.424549E+0	1.442228E+0	1.427635E+0	1.426294E+0	1.364203E+0	1.430249E+0
5.357090E+2	1.304479E+0	1.234426E+0	1.329025E+0	1.245217E+0	1.260933E+0	1.236799E+0	1.231946E+0	1.225258E+0	1.269147E+0	1.265482E+0	1.271799E+0	1.245974E+0	1.243216E+0	1.273421E+0	1.272025E+0	1.248242E+0	1.281777E+0	1.240754E+0	1.251618E+0	1.242821E+0	1.240812E+0	1.263408E+0	1.239380E+0	1.245811E+0	1.209953E+0	1.262239E+0	1.175231E+0	1.270197E+0	1.229816E+0	1.226437E+0	1.204149E+0	1.252046E+0	1.231412E+0	1.259031E+0	1.256197E+0	1.257946E+0	1.240138E+0	1.262880E+0	1.243978E+0	1.275574E+0	1.251687E+0	1.259218E+0	1.217134E+0	1.249383E+0	1.274300E+0	1.228132E+0	1.195205E+0	1.270322E+0	1.228192E+0	1.309593E+0	1.246536E+0	1.226160E+0	1.216968E+0	1.256494E+0	1.254657E+0	1.188775E+0	1.235121E+0	1.288008E+0	1.224410E+0	1.258031E+0	1.260907E+0	1.228933E+0	1.259582E+0	1.244996E+0	1.256901E+0	1.244645E+0	1.238823E+0	1.252226E+0	1.227513E+0	1.254791E+0	1.253071E+0	1.207014E+0	1.268771E+0	1.257593E+0	1.194274E+0	1.289268E+0	1.232295E+0	1.206600E+0	1.227372E+0	1.249592E+0	1.252991E+0	1.168843E+0	1.283934E+0	1.211306E+0	1.219984E+0	1.258387E+0	1.238430E+0	1.253769E+0	1.243770E+0	1.239374E+0	1.209772E+0	1.266475E+0	1.191603E+0	1.261952E+0	1.220799E+0	1.231335E+0	1.234519E+0	1.223946E+0	1.260727E+0	1.264394E+0	1.261729E+0	1.260781E+0	1.260939E+0	1.187876E+0	1.235898E+0	1.209924E+0	1.188664E+0	1.200087E+0	1.259226E+0	1.229530E+0	1.238611E+0	1.226943E+0	1.216646E+0	1.227979E+0	1.269177E+0	1.218852E+0	1.295263E+0	1.238284E+0	1.256901E+0	1.247022E+0	1.255483E+0	1.198954E+0	1.266542E+0	1.248513E+0	1.245228E+0	1.283352E+0	1.203929E+0	1.241904E+0	1.276296E+0	1.314706E+0	1.245026E+0	1.264351E+0	1.256452E+0	1.277792E+0	1.234224E+0	1.261922E+0	1.229136E+0	1.275724E+0	1.275052E+0	1.250366E+0	1.219637E+0	1.260753E+0	1.191393E+0	1.246557E+0	1.238779E+0	1.180600E+0	1.244529E+0	1.205624E+0	1.211028E+0	1.256806E+0	1.229730E+0	1.228393E+0	1.259456E+0	1.270922E+0	1.239696E+0	1.263583E+0	1.259706E+0	1.158003E+0	1.226341E+0	1.272415E+0	1.225906E+0	1.232034E+0	1.239477E+0	1.264588E+0	1.224823E+0	1.221534E+0	1.222979E+0	1.243356E+0	1.220839E+0	1.262419E+0
5.358600E+2	1.039253E+0	9.743438E-1	1.040243E+0	1.042530E+0	1.017757E+0	9.913950E-1	1.040309E+0	1.044061E+0	1.020632E+0	1.016034E+0	1.024282E+0	1.051646E+0	1.026102E+0	1.049422E+0	1.008700E+0	1.017354E+0	1.040981E+0	1.024853E+0	1.011271E+0	1.012312E+0	1.012293E+0	1.042925E+0	1.000608E+0	1.014354E+0	1.006281E+0	1.055761E+0	1.012586E+0	1.073286E+0	9.985396E-1	1.021672E+0	9.891864E-1	9.706015E-1	1.021715E+0	1.036423E+0	9.948558E-1	1.025062E+0	1.052635E+0	1.059750E+0	1.064540E+0	9.834710E-1	1.036668E+0	1.022489E+0	1.033956E+0	1.013162E+0	1.033987E+0	1.055164E+0	9.907773E-1	1.003353E+0	1.037357E+0	1.036899E+0	1.050546E+0	1.027289E+0	1.019810E+0	1.016394E+0	1.017470E+0	1.038310E+0	1.003844E+0	9.898202E-1	9.924763E-1	1.031233E+0	1.022910E+0	9.930179E-1	1.061970E+0	1.020935E+0	1.027333E+0	1.027956E+0	1.026665E+0	1.038725E+0	1.071508E+0	1.027925E+0	9.979953E-1	1.001187E+0	1.078664E+0	1.014106E+0	9.999184E-1	1.001133E+0	1.052964E+0	9.754799E-1	1.026501E+0	9.759798E-1	9.983485E-1	9.958906E-1	1.044871E+0	1.013622E+0	1.019369E+0	1.001501E+0	1.059080E+0	1.043282E+0	1.033591E+0	1.027919E+0	1.027256E+0	1.070445E+0	1.034843E+0	1.040851E+0	9.890495E-1	1.015047E+0	1.033217E+0	1.046208E+0	1.036711E+0	1.043717E+0	1.016594E+0	1.038812E+0	9.893258E-1	1.002566E+0	9.935165E-1	1.029348E+0	1.014409E+0	1.003130E+0	1.050669E+0	9.989020E-1	1.029007E+0	1.022303E+0	1.050835E+0	1.066162E+0	1.015261E+0	9.707905E-1	1.042083E+0	1.049275E+0	1.017471E+0	1.019323E+0	1.003641E+0	9.875588E-1	1.059903E+0	1.011338E+0	9.941778E-1	1.045378E+0	9.995681E-1	1.035460E+0	1.022545E+0	1.053753E+0	1.019043E+0	1.050067E+0	1.015573E+0	9.856183E-1	1.025048E+0	1.017356E+0	1.031518E+0	1.051425E+0	1.052371E+0	1.010840E+0	1.036774E+0	9.959108E-1	1.000527E+0	1.011479E+0	1.031345E+0	1.039222E+0	1.029735E+0	1.017074E+0	1.005612E+0	1.018040E+0	1.089053E+0	1.036836E+0	1.024996E+0	1.041752E+0	1.043635E+0	1.036861E+0	1.050262E+0	9.981640E-1	1.026292E+0	1.001529E+0	1.046040E+0	1.010963E+0	1.032308E+0	9.903317E-1	9.866232E-1	9.764610E-1	1.008764E+0	1.019707E+0	9.972519E-1	1.030089E+0
5.360070E+2	8.672149E-1	8.543681E-1	8.234045E-1	8.600725E-1	8.172980E-1	8.519115E-1	8.307471E-1	8.505721E-1	8.574777E-1	8.484713E-1	8.349342E-1	8.656769E-1	8.560861E-1	8.557319E-1	8.271769E-1	8.126324E-1	8.348706E-1	8.916136E-1	8.281935E-1	8.619081E-1	8.491923E-1	8.342645E-1	8.397355E-1	8.072104E-1	8.462822E-1	8.645031E-1	8.242741E-1	8.457147E-1	7.972294E-1	8.176956E-1	8.134481E-1	8.145573E-1	8.804783E-1	8.023494E-1	8.589780E-1	8.078769E-1	8.353529E-1	8.588060E-1	8.502734E-1	8.525562E-1	8.436445E-1	8.448224E-1	8.633292E-1	8.650254E-1	8.468955E-1	8.405643E-1	8.012859E-1	8.066768E-1	8.418731E-1	8.565650E-1	8.549152E-1	8.581375E-1	8.467576E-1	8.887928E-1	8.166902E-1	8.428816E-1	8.359879E-1	8.490568E-1	8.544530E-1	8.437206E-1	8.100020E-1	8.421735E-1	8.238583E-1	8.118525E-1	8.396131E-1	8.911037E-1	8.665278E-1	8.554622E-1	8.636165E-1	8.425444E-1	8.316568E-1	8.249493E-1	8.543817E-1	8.810180E-1	8.298273E-1	8.317172E-1	8.438794E-1	7.955669E-1	8.428212E-1	8.363270E-1	8.387172E-1	8.300420E-1	8.447391E-1	8.383547E-1	8.432987E-1	8.349270E-1	8.487237E-1	8.614347E-1	8.378635E-1	8.045057E-1	8.101153E-1	8.252795E-1	8.042922E-1	8.425846E-1	8.626757E-1	8.425197E-1	8.534934E-1	8.626072E-1	8.571409E-1	8.425852E-1	8.488796E-1	8.374641E-1	8.490241E-1	8.685180E-1	8.101328E-1	8.102756E-1	8.223378E-1	8.445306E-1	8.425852E-1	8.831964E-1	8.393838E-1	8.129868E-1	8.384056E-1	8.484228E-1	8.645181E-1	8.441567E-1	8.733031E-1	8.494893E-1	8.742954E-1	8.336331E-1	8.471908E-1	8.347486E-1	8.731929E-1	8.721408E-1	8.407395E-1	8.242419E-1	8.771705E-1	8.259417E-1	8.448014E-1	8.857817E-1	8.564175E-1	8.619184E-1	8.556133E-1	8.528335E-1	8.184398E-1	8.695620E-1	8.773959E-1	8.026633E-1	8.252160E-1	8.643048E-1	8.189518E-1	8.392249E-1	8.315478E-1	8.822054E-1	8.681441E-1	8.271982E-1	8.493060E-1	8.003125E-1	8.769590E-1	8.660683E-1	8.446029E-1	8.687702E-1	8.298435E-1	8.250168E-1	8.306538E-1	8.411655E-1	8.740449E-1	8.684268E-1	7.725036E-1	8.808713E-1	8.269880E-1	8.621585E-1	8.308880E-1	8.213325E-1	8.356981E-1	8.563585E-1	8.876428E-1	8.975399E-1	8.092043E-1	8.750985E-1
5.362630E+2	6.476313E-1	6.616680E-1	6.536439E-1	6.118822E-1	6.455113E-1	6.466747E-1	6.517838E-1	6.665654E-1	6.454633E-1	6.510246E-1	6.752032E-1	6.469485E-1	6.587907E-1	6.766854E-1	6.591466E-1	6.366312E-1	6.605449E-1	6.602644E-1	6.534796E-1	6.355110E-1	6.498692E-1	6.599501E-1	6.479614E-1	6.351065E-1	6.714206E-1	7.014804E-1	6.120279E-1	7.137751E-1	6.138336E-1	6.417051E-1	6.456046E-1	6.494595E-1	6.779763E-1	6.950177E-1	6.530287E-1	6.735117E-1	6.565526E-1	6.463151E-1	6.676573E-1	6.650517E-1	6.578925E-1	6.834056E-1	6.733912E-1	7.081947E-1	6.716773E-1	6.809675E-1	6.739211E-1	6.535685E-1	6.746799E-1	6.780310E-1	6.536731E-1	6.244901E-1	6.582659E-1	6.833051E-1	6.471678E-1	6.564080E-1	6.658507E-1	6.504806E-1	6.434646E-1	6.432438E-1	6.599933E-1	6.717383E-1	6.755256E-1	6.441996E-1	6.694552E-1	6.786799E-1	6.450983E-1	6.612080E-1	6.799264E-1	6.407065E-1	6.716467E-1	6.383707E-1	6.532517E-1	6.682059E-1	6.098412E-1	6.407165E-1	6.643601E-1	7.042008E-1	6.623778E-1	6.527710E-1	6.813618E-1	6.544347E-1	6.679346E-1	6.451568E-1	6.808993E-1	6.460623E-1	6.464105E-1	6.828140E-1	6.927506E-1	6.778187E-1	6.719305E-1	6.712557E-1	6.661738E-1	6.886169E-1	6.765918E-1	6.909290E-1	6.825108E-1	6.798126E-1	6.656053E-1	6.155182E-1	6.822987E-1	6.324852E-1	6.586363E-1	6.649142E-1	6.435493E-1	6.192305E-1	6.827077E-1	6.408913E-1	6.610810E-1	6.742697E-1	6.651334E-1	6.531404E-1	6.596759E-1	6.708787E-1	6.884802E-1	6.784962E-1	6.442427E-1	6.574185E-1	6.595279E-1	6.510287E-1	6.658236E-1	6.583919E-1	6.655184E-1	6.780382E-1	6.653974E-1	6.735932E-1	6.793286E-1	6.460869E-1	6.992760E-1	6.633659E-1	6.615174E-1	6.405736E-1	6.395221E-1	6.645788E-1	6.615638E-1	6.516469E-1	6.343818E-1	6.914301E-1	6.363566E-1	6.874689E-1	6.622609E-1	6.722852E-1	7.032369E-1	6.623052E-1	7.164291E-1	6.339524E-1	6.621526E-1	6.923408E-1	6.492742E-1	6.888783E-1	6.476902E-1	6.749176E-1	6.789181E-1	6.543716E-1	6.553461E-1	6.826023E-1	6.834711E-1	6.994882E-1	6.562242E-1	6.364008E-1	7.038706E-1	6.844171E-1	6.422987E-1	6.927220E-1	6.718759E-1	6.436509E-1	7.046791E-1	6.305906E-1	7.157710E-1	6.583514E-1
5.365190E+2	5.267577E-1	5.255012E-1	5.526284E-1	5.305864E-1	5.487845E-1	5.355383E-1	5.694314E-1	5.432925E-1	5.521645E-1	5.255691E-1	5.447438E-1	5.453771E-1	5.122681E-1	5.361650E-1	5.335879E-1	5.634470E-1	5.505560E-1	5.023349E-1	5.583945E-1	5.298111E-1	5.503365E-1	5.444013E-1	5.674431E-1	5.718668E-1	5.612197E-1	5.643661E-1	5.135548E-1	5.009211E-1	5.234964E-1	5.379165E-1	5.555745E-1	5.366292E-1	5.492096E-1	5.665188E-1	5.695378E-1	5.341376E-1	5.287958E-1	5.472020E-1	5.720878E-1	5.577295E-1	5.805701E-1	5.339609E-1	5.349883E-1	5.651410E-1	5.716176E-1	5.432433E-1	5.458605E-1	5.277640E-1	5.308703E-1	5.458209E-1	5.608150E-1	5.498071E-1	5.719878E-1	5.574612E-1	5.334347E-1	5.571887E-1	5.441567E-1	5.616435E-1	5.701968E-1	5.544034E-1	5.146826E-1	5.417447E-1	5.296265E-1	5.394008E-1	5.650286E-1	5.420985E-1	5.456273E-1	5.384538E-1	5.834519E-1	5.556502E-1	5.520899E-1	5.496296E-1	5.469201E-1	5.643218E-1	5.408177E-1	5.556511E-1	5.478392E-1	5.602572E-1	5.771207E-1	5.598408E-1	5.393776E-1	5.257291E-1	5.507891E-1	5.518763E-1	5.538568E-1	5.632832E-1	5.610258E-1	5.799485E-1	5.667305E-1	5.528584E-1	5.472151E-1	5.733316E-1	5.361098E-1	5.633158E-1	5.745482E-1	5.423900E-1	5.642345E-1	5.349383E-1	5.276293E-1	5.778761E-1	5.477469E-1	5.470455E-1	5.199201E-1	5.372199E-1	5.137197E-1	5.560810E-1	5.626795E-1	5.308652E-1	5.469579E-1	5.776112E-1	5.824233E-1	5.541087E-1	5.239815E-1	5.590157E-1	5.758797E-1	5.165787E-1	5.362616E-1	5.585766E-1	5.449760E-1	5.204577E-1	5.586887E-1	5.581008E-1	5.317670E-1	5.525652E-1	5.560655E-1	5.805035E-1	5.630801E-1	5.542126E-1	5.335789E-1	5.456007E-1	5.367461E-1	5.484190E-1	5.552390E-1	5.552971E-1	5.453669E-1	5.788103E-1	5.238579E-1	5.347236E-1	5.721904E-1	5.579861E-1	5.607039E-1	5.208120E-1	5.741724E-1	5.846355E-1	5.621898E-1	5.669616E-1	5.462568E-1	5.579756E-1	5.179168E-1	5.554617E-1	5.679819E-1	5.468517E-1	5.600698E-1	5.562926E-1	5.717371E-1	5.514612E-1	5.434141E-1	5.528498E-1	5.356029E-1	5.621079E-1	5.120831E-1	5.338920E-1	5.440902E-1	5.645421E-1	5.907935E-1	5.491545E-1	5.280637E-1	5.576026E-1	5.224414E-1	5.443771E-1
5.367660E+2	5.162855E-1	5.054271E-1	5.372983E-1	5.175642E-1	5.102654E-1	5.290696E-1	5.268493E-1	5.046668E-1	5.091272E-1	5.211670E-1	5.118844E-1	5.426779E-1	5.242303E-1	5.255052E-1	5.140196E-1	5.226462E-1	5.058063E-1	5.224730E-1	4.740705E-1	5.131444E-1	4.823508E-1	5.267031E-1	5.158823E-1	5.353918E-1	5.512079E-1	5.117480E-1	5.175106E-1	5.222591E-1	5.169461E-1	5.190148E-1	5.211392E-1	5.094155E-1	5.288514E-1	5.170481E-1	5.466068E-1	5.170983E-1	5.175208E-1	5.485511E-1	5.111228E-1	5.186009E-1	5.228417E-1	5.201590E-1	5.027329E-1	5.136682E-1	5.316205E-1	5.284974E-1	5.258679E-1	5.244685E-1	5.225081E-1	5.146729E-1	5.115783E-1	5.458732E-1	5.206398E-1	4.977358E-1	5.245626E-1	5.087318E-1	5.011610E-1	5.016374E-1	5.403040E-1	5.350513E-1	5.188536E-1	5.157324E-1	5.420633E-1	5.199915E-1	5.165989E-1	5.377049E-1	5.369022E-1	5.391366E-1	5.119623E-1	5.327768E-1	5.077955E-1	5.113007E-1	5.262379E-1	5.438220E-1	5.142245E-1	5.244315E-1	4.959575E-1	5.484471E-1	5.366028E-1	5.357529E-1	4.975875E-1	5.516158E-1	5.610911E-1	4.993278E-1	5.422153E-1	5.243565E-1	5.378410E-1	5.459865E-1	5.079707E-1	5.028087E-1	5.470072E-1	5.265109E-1	5.355809E-1	5.108416E-1	5.321910E-1	5.371886E-1	5.394185E-1	5.337693E-1	5.244441E-1	5.286462E-1	5.652195E-1	5.679677E-1	5.439200E-1	5.361190E-1	5.120216E-1	5.115552E-1	5.729900E-1	5.252886E-1	5.116822E-1	5.068667E-1	5.393434E-1	5.364876E-1	5.207039E-1	5.334126E-1	5.383632E-1	5.354874E-1	5.564291E-1	5.154176E-1	5.317679E-1	5.175011E-1	5.308971E-1	4.935026E-1	5.492836E-1	5.253825E-1	5.217410E-1	5.059410E-1	5.489296E-1	4.806480E-1	5.172148E-1	5.394878E-1	5.501490E-1	5.349893E-1	5.464765E-1	5.210332E-1	5.049654E-1	5.424351E-1	5.389105E-1	5.363864E-1	5.521282E-1	5.150734E-1	5.465027E-1	5.449159E-1	5.435736E-1	5.423483E-1	5.328538E-1	5.131985E-1	5.444307E-1	5.112877E-1	5.621383E-1	5.044462E-1	5.189842E-1	5.291243E-1	5.095808E-1	5.226310E-1	6.039721E-1	4.999501E-1	5.295173E-1	5.415273E-1	5.342516E-1	5.352543E-1	5.409339E-1	5.672085E-1	5.304480E-1	5.382372E-1	5.418336E-1	5.492089E-1	5.350639E-1	5.233500E-1	5.055590E-1	5.640220E-1
5.370170E+2	5.518718E-1	5.129180E-1	5.329211E-1	5.208218E-1	5.734531E-1	5.460997E-1	5.290505E-1	5.167585E-1	5.266834E-1	5.302821E-1	5.182907E-1	5.409794E-1	5.435458E-1	5.133309E-1	5.678032E-1	5.297591E-1	5.261508E-1	5.477261E-1	5.424647E-1	5.452755E-1	5.176218E-1	5.483665E-1	5.446610E-1	5.613888E-1	5.459665E-1	5.550592E-1	5.539674E-1	5.712057E-1	5.493415E-1	5.330869E-1	5.369558E-1	5.318164E-1	5.425104E-1	5.583082E-1	5.338542E-1	5.593162E-1	5.314394E-1	5.206359E-1	5.346983E-1	5.666225E-1	5.425331E-1	5.957117E-1	5.228899E-1	5.850725E-1	5.203950E-1	5.262884E-1	5.330703E-1	5.498209E-1	5.327178E-1	5.260413E-1	5.543791E-1	5.313442E-1	5.204245E-1	5.513167E-1	5.412728E-1	5.395609E-1	5.448105E-1	5.541994E-1	4.993790E-1	5.290359E-1	5.343586E-1	5.420734E-1	5.658283E-1	5.557760E-1	4.965862E-1	5.317927E-1	5.688708E-1	5.388053E-1	5.300867E-1	5.353647E-1	5.409727E-1	5.202032E-1	5.411603E-1	5.339095E-1	5.502835E-1	5.459222E-1	5.147588E-1	5.555012E-1	5.414392E-1	5.382490E-1	5.337542E-1	5.345389E-1	5.530229E-1	5.928049E-1	5.491621E-1	5.515992E-1	5.832972E-1	5.612140E-1	5.522796E-1	5.423726E-1	5.619444E-1	5.514265E-1	5.728876E-1	5.189498E-1	5.641663E-1	5.248375E-1	5.607215E-1	5.426212E-1	5.686170E-1	5.626753E-1	5.544139E-1	5.520589E-1	5.383501E-1	5.382649E-1	5.334800E-1	5.880556E-1	5.312975E-1	5.034290E-1	5.216551E-1	5.760102E-1	5.313961E-1	5.492569E-1	5.436802E-1	5.413887E-1	5.446483E-1	5.355708E-1	5.731779E-1	5.527676E-1	5.694782E-1	5.183491E-1	5.259556E-1	5.188247E-1	5.403740E-1	5.401842E-1	5.172753E-1	5.421653E-1	5.618684E-1	5.308338E-1	5.632568E-1	5.606080E-1	5.399331E-1	5.182817E-1	5.338831E-1	5.464132E-1	5.407263E-1	5.291585E-1	5.423011E-1	5.773849E-1	5.459803E-1	5.292199E-1	5.358760E-1	5.502286E-1	5.393695E-1	5.197825E-1	5.226766E-1	5.766904E-1	5.371687E-1	5.642623E-1	5.319059E-1	5.394242E-1	5.556735E-1	5.343947E-1	5.443461E-1	5.439140E-1	5.597916E-1	5.409693E-1	5.338319E-1	5.712213E-1	5.530285E-1	5.661939E-1	5.233977E-1	5.713678E-1	5.815389E-1	5.260313E-1	5.283742E-1	5.404772E-1	5.765517E-1	5.364133E-1	5.339952E-1	5.665401E-1
5.372640E+2	5.951801E-1	5.928061E-1	6.217237E-1	6.415051E-1	6.089154E-1	6.626096E-1	6.381225E-1	6.395016E-1	6.224207E-1	6.402991E-1	6.163278E-1	6.283353E-1	6.446534E-1	5.891141E-1	6.013945E-1	6.248520E-1	5.837113E-1	6.330441E-1	6.117769E-1	6.128439E-1	6.248855E-1	6.114653E-1	6.270937E-1	6.372934E-1	6.024179E-1	6.483873E-1	6.151558E-1	6.430733E-1	5.975864E-1	6.475430E-1	6.260294E-1	6.172099E-1	6.205763E-1	6.535291E-1	6.199114E-1	6.674428E-1	6.627444E-1	6.348175E-1	6.366926E-1	6.122929E-1	6.060629E-1	6.234307E-1	5.978054E-1	6.032466E-1	6.289538E-1	6.104160E-1	6.376104E-1	5.895431E-1	6.310528E-1	6.470972E-1	6.284521E-1	6.032459E-1	6.354094E-1	6.420897E-1	5.807871E-1	6.277631E-1	5.818986E-1	6.500235E-1	6.614457E-1	6.424491E-1	6.240106E-1	6.027178E-1	6.142264E-1	6.254154E-1	6.415966E-1	6.649760E-1	6.335304E-1	6.206249E-1	6.238423E-1	6.021605E-1	6.300266E-1	6.308599E-1	6.060768E-1	6.245114E-1	6.414771E-1	6.129975E-1	6.266815E-1	6.524870E-1	6.222887E-1	6.320792E-1	5.859623E-1	6.607588E-1	6.311976E-1	6.209527E-1	6.474586E-1	6.258085E-1	6.478236E-1	6.438883E-1	6.553726E-1	6.436447E-1	6.512360E-1	6.248536E-1	6.043900E-1	6.444079E-1	6.038904E-1	6.131064E-1	6.166735E-1	6.245325E-1	5.994397E-1	6.400283E-1	6.335891E-1	6.204794E-1	6.327147E-1	6.172086E-1	6.137899E-1	6.089020E-1	6.177569E-1	6.494686E-1	6.232562E-1	6.536510E-1	6.012454E-1	6.325337E-1	6.406130E-1	6.396757E-1	6.688298E-1	6.265997E-1	6.454840E-1	6.287762E-1	6.702763E-1	6.096524E-1	6.097745E-1	6.251533E-1	6.598913E-1	5.984597E-1	6.201980E-1	6.530057E-1	6.321305E-1	6.250070E-1	6.362007E-1	6.643951E-1	5.909839E-1	6.265997E-1	6.483003E-1	6.215829E-1	6.662146E-1	6.454979E-1	6.039202E-1	6.281239E-1	6.360895E-1	6.236266E-1	6.441716E-1	6.467434E-1	6.288351E-1	6.438497E-1	6.354516E-1	6.197391E-1	5.935476E-1	6.125806E-1	6.319231E-1	6.080466E-1	6.565479E-1	6.300581E-1	6.262459E-1	6.410053E-1	6.485359E-1	6.383377E-1	6.145661E-1	6.092846E-1	6.350770E-1	6.250016E-1	6.492407E-1	6.455949E-1	6.182251E-1	6.376540E-1	5.981839E-1	5.931507E-1	6.129535E-1	6.441003E-1	5.777282E-1	6.838316E-1
5.375110E+2	7.131760E-1	7.557965E-1	7.274087E-1	7.503851E-1	7.553632E-1	7.619691E-1	7.382405E-1	6.988835E-1	7.551166E-1	6.911097E-1	7.325508E-1	7.353920E-1	8.125924E-1	7.493501E-1	7.401511E-1	6.541705E-1	7.471969E-1	7.788120E-1	7.229966E-1	7.914262E-1	7.112881E-1	7.227875E-1	7.050874E-1	7.212825E-1	7.794526E-1	7.596037E-1	7.334152E-1	7.635570E-1	7.422608E-1	7.434457E-1	7.330935E-1	7.355740E-1	7.271291E-1	7.437987E-1	7.544985E-1	7.241346E-1	7.399925E-1	7.140160E-1	7.499548E-1	7.369525E-1	7.396072E-1	7.088044E-1	7.347190E-1	7.686338E-1	7.163070E-1	7.561274E-1	7.493619E-1	7.263297E-1	7.368013E-1	7.494427E-1	7.422130E-1	7.288807E-1	7.425107E-1	7.245976E-1	7.465999E-1	7.292269E-1	7.451568E-1	7.347988E-1	7.611553E-1	7.629576E-1	7.494918E-1	7.246049E-1	7.395205E-1	7.418838E-1	7.278116E-1	7.541189E-1	7.187929E-1	7.484041E-1	7.258409E-1	7.829681E-1	7.332105E-1	7.502723E-1	7.554457E-1	7.930487E-1	7.706080E-1	7.996514E-1	7.349879E-1	7.548503E-1	7.349052E-1	7.325535E-1	6.956471E-1	7.402958E-1	7.428406E-1	7.403286E-1	7.436702E-1	7.344175E-1	7.416776E-1	7.200902E-1	7.391661E-1	7.610001E-1	7.310407E-1	7.326502E-1	6.938883E-1	7.873922E-1	7.804364E-1	7.533141E-1	7.216695E-1	7.773495E-1	7.175479E-1	7.534012E-1	7.356319E-1	7.367505E-1	7.084114E-1	7.375801E-1	7.235141E-1	7.159372E-1	7.444046E-1	7.613339E-1	7.213914E-1	7.165722E-1	7.417783E-1	7.366612E-1	7.773868E-1	7.737894E-1	7.350321E-1	7.277821E-1	7.574970E-1	7.533499E-1	7.276465E-1	7.727143E-1	7.589441E-1	7.067765E-1	6.755566E-1	7.274913E-1	7.085792E-1	7.749023E-1	7.674759E-1	7.502561E-1	7.196930E-1	7.386703E-1	7.438465E-1	7.224309E-1	7.414106E-1	6.925983E-1	8.069067E-1	7.541761E-1	7.284715E-1	7.653373E-1	7.705294E-1	7.836350E-1	7.195027E-1	7.840221E-1	7.477320E-1	7.209921E-1	7.371622E-1	7.201917E-1	7.523616E-1	7.426469E-1	7.327532E-1	7.151641E-1	7.458644E-1	7.520810E-1	7.321558E-1	7.441695E-1	7.143513E-1	7.609741E-1	7.349778E-1	7.458541E-1	7.464273E-1	7.382748E-1	7.725887E-1	7.354486E-1	7.465552E-1	7.241265E-1	7.560679E-1	6.999776E-1	7.889466E-1	6.981733E-1	7.160131E-1	7.877177E-1
5.377580E+2	8.279914E-1	7.928175E-1	7.284599E-1	8.064210E-1	8.022984E-1	7.891397E-1	7.811808E-1	8.040802E-1	7.775758E-1	7.883905E-1	7.965373E-1	8.142325E-1	7.743274E-1	7.896720E-1	8.117887E-1	8.133927E-1	8.456288E-1	8.091554E-1	8.171996E-1	7.796528E-1	7.983286E-1	7.591740E-1	7.894364E-1	7.872440E-1	8.364662E-1	7.946188E-1	8.108545E-1	7.523463E-1	7.926740E-1	7.881161E-1	7.779921E-1	8.311757E-1	8.298931E-1	7.533645E-1	8.050758E-1	7.854315E-1	7.885371E-1	7.869712E-1	8.148001E-1	7.813884E-1	7.917100E-1	8.081419E-1	7.770632E-1	7.856601E-1	8.310137E-1	8.165599E-1	7.680157E-1	7.612542E-1	7.981250E-1	8.258087E-1	7.829991E-1	7.837783E-1	8.016282E-1	8.081604E-1	7.795374E-1	7.628434E-1	8.252021E-1	7.792314E-1	8.252836E-1	7.789374E-1	8.112350E-1	8.026232E-1	8.008788E-1	7.906696E-1	7.946967E-1	8.223402E-1	7.979429E-1	8.086580E-1	7.925927E-1	8.053901E-1	7.930021E-1	7.801904E-1	7.884268E-1	8.357117E-1	8.260908E-1	7.652497E-1	7.601260E-1	7.949785E-1	8.436196E-1	7.883630E-1	7.810367E-1	8.105629E-1	7.848819E-1	7.540438E-1	7.618997E-1	8.525624E-1	7.885304E-1	8.085355E-1	7.901781E-1	8.373514E-1	7.989193E-1	8.060404E-1	7.573705E-1	8.097768E-1	8.384338E-1	8.019423E-1	7.996264E-1	7.585425E-1	8.264169E-1	8.443748E-1	7.959224E-1	7.583005E-1	8.247805E-1	8.470574E-1	7.678077E-1	7.867008E-1	8.336658E-1	8.394698E-1	7.335196E-1	7.929432E-1	8.194482E-1	8.300313E-1	7.999967E-1	7.725609E-1	7.900384E-1	8.085844E-1	7.887781E-1	8.056166E-1	8.350096E-1	7.623959E-1	8.077385E-1	8.442458E-1	7.760606E-1	7.668510E-1	7.639592E-1	8.238725E-1	7.821778E-1	7.716956E-1	7.823606E-1	8.298099E-1	8.359966E-1	7.885324E-1	7.914581E-1	7.304373E-1	8.208240E-1	7.975962E-1	7.996719E-1	8.054208E-1	7.839846E-1	8.033258E-1	7.928556E-1	7.916875E-1	8.008444E-1	8.356554E-1	7.977071E-1	7.793691E-1	8.497957E-1	7.982857E-1	8.234983E-1	7.805449E-1	8.434660E-1	8.190935E-1	8.121232E-1	7.921311E-1	7.451589E-1	8.122768E-1	8.026593E-1	8.089583E-1	8.190366E-1	8.408122E-1	8.338257E-1	8.119537E-1	8.384166E-1	8.259048E-1	7.713643E-1	8.159628E-1	8.605271E-1	8.639022E-1	7.949445E-1	8.095158E-1
5.380210E+2	1.008481E+0	9.204176E-1	9.998059E-1	9.211869E-1	9.654927E-1	9.637799E-1	9.248205E-1	1.003418E+0	9.456104E-1	9.990253E-1	9.490689E-1	9.839506E-1	9.152403E-1	9.567850E-1	9.673538E-1	9.550934E-1	9.398454E-1	9.873348E-1	9.605519E-1	9.588897E-1	9.650908E-1	9.625896E-1	9.374552E-1	9.287719E-1	9.664355E-1	1.021137E+0	9.423773E-1	9.731202E-1	9.158935E-1	9.696040E-1	9.480284E-1	9.623200E-1	9.963885E-1	9.315669E-1	9.894177E-1	9.399274E-1	9.536568E-1	9.589448E-1	9.746966E-1	9.887484E-1	9.595236E-1	9.576339E-1	9.700423E-1	9.749987E-1	9.663836E-1	1.009576E+0	9.920434E-1	9.620752E-1	1.011285E+0	9.892518E-1	9.471322E-1	9.628558E-1	9.478299E-1	9.527855E-1	9.809245E-1	9.253551E-1	8.863666E-1	9.338225E-1	9.535075E-1	9.441305E-1	9.454897E-1	9.521132E-1	9.579102E-1	9.256264E-1	9.268561E-1	9.584542E-1	9.624577E-1	9.754816E-1	9.581623E-1	9.669294E-1	9.806015E-1	9.363141E-1	9.585775E-1	9.484184E-1	9.591915E-1	9.236793E-1	9.447088E-1	9.444599E-1	1.046245E+0	9.537481E-1	9.865533E-1	9.985491E-1	1.009084E+0	9.937159E-1	9.647646E-1	9.864946E-1	9.502688E-1	9.594124E-1	1.001989E+0	9.604617E-1	9.163263E-1	9.193711E-1	9.147920E-1	9.670058E-1	9.615033E-1	9.610608E-1	9.536829E-1	9.484458E-1	9.653384E-1	9.440974E-1	9.773511E-1	9.735184E-1	9.157188E-1	9.355730E-1	9.747421E-1	9.416250E-1	9.614914E-1	9.525730E-1	9.708604E-1	9.660356E-1	9.776649E-1	9.641894E-1	9.456021E-1	9.754125E-1	9.886849E-1	9.654459E-1	9.807772E-1	9.512842E-1	9.690240E-1	9.751649E-1	9.872140E-1	9.698339E-1	9.110082E-1	9.271898E-1	9.407551E-1	9.434537E-1	9.909543E-1	9.566431E-1	9.480437E-1	9.848794E-1	9.806393E-1	9.643231E-1	9.820628E-1	9.966615E-1	9.303861E-1	9.391054E-1	9.632500E-1	1.012273E+0	9.576262E-1	9.753076E-1	9.576841E-1	9.738536E-1	9.689333E-1	9.446472E-1	9.513927E-1	9.440813E-1	9.558935E-1	9.378461E-1	9.497487E-1	9.430567E-1	9.495389E-1	9.653842E-1	9.914574E-1	9.658013E-1	9.752942E-1	9.560796E-1	9.645014E-1	9.540491E-1	9.868065E-1	9.351280E-1	9.165729E-1	1.002815E+0	9.607199E-1	9.326098E-1	9.114905E-1	9.416635E-1	9.897750E-1	1.007384E+0	9.839606E-1	9.841886E-1
5.382790E+2	1.080953E+0	1.073131E+0	1.128422E+0	1.081607E+0	1.063386E+0	1.147118E+0	1.141940E+0	1.126550E+0	1.110351E+0	1.125741E+0	1.114748E+0	1.098533E+0	1.110667E+0	1.125179E+0	1.094484E+0	1.118702E+0	1.103914E+0	1.104702E+0	1.056470E+0	1.101242E+0	1.064093E+0	1.093786E+0	1.107808E+0	1.118906E+0	1.131904E+0	1.096093E+0	1.141009E+0	1.150917E+0	1.108365E+0	1.128820E+0	1.118009E+0	1.129814E+0	1.128761E+0	1.124155E+0	1.091224E+0	1.092670E+0	1.115545E+0	1.126125E+0	1.085866E+0	1.092219E+0	1.128109E+0	1.149049E+0	1.056876E+0	1.100782E+0	1.057439E+0	1.081923E+0	1.105886E+0	1.067206E+0	1.092046E+0	1.125449E+0	1.120358E+0	1.108867E+0	1.132689E+0	1.134756E+0	1.140236E+0	1.087919E+0	1.084986E+0	1.103339E+0	1.186431E+0	1.096550E+0	1.095434E+0	1.080685E+0	1.071657E+0	1.157157E+0	1.078703E+0	1.118915E+0	1.163986E+0	1.103823E+0	1.093471E+0	1.105007E+0	1.119169E+0	1.102564E+0	1.145408E+0	1.102004E+0	1.126779E+0	1.063292E+0	1.065570E+0	1.130371E+0	1.119703E+0	1.126825E+0	1.098731E+0	1.077973E+0	1.108956E+0	1.149314E+0	1.077005E+0	1.134788E+0	1.094224E+0	1.171532E+0	1.107899E+0	1.070767E+0	1.111911E+0	1.141708E+0	1.068309E+0	1.134503E+0	1.155286E+0	1.082680E+0	1.128898E+0	1.115532E+0	1.124548E+0	1.112713E+0	1.151634E+0	1.164067E+0	1.045846E+0	1.096356E+0	1.099468E+0	1.069561E+0	1.156700E+0	1.129075E+0	1.074646E+0	1.126223E+0	1.059811E+0	1.124692E+0	1.094178E+0	1.137527E+0	1.154122E+0	1.068084E+0	1.091081E+0	1.080647E+0	1.118607E+0	1.130847E+0	1.143521E+0	1.119873E+0	1.114797E+0	1.074312E+0	1.065822E+0	1.143392E+0	1.042852E+0	1.092150E+0	1.106149E+0	1.142382E+0	1.136771E+0	1.053921E+0	1.108412E+0	1.121737E+0	1.133536E+0	1.080128E+0	1.095200E+0	1.124939E+0	1.095319E+0	1.083047E+0	1.080275E+0	1.073120E+0	1.104583E+0	1.105627E+0	1.124239E+0	1.046457E+0	1.132912E+0	1.078073E+0	1.096262E+0	1.115684E+0	1.087194E+0	1.091479E+0	1.086265E+0	1.189592E+0	1.095431E+0	1.109344E+0	1.058315E+0	1.164867E+0	1.093435E+0	1.170038E+0	1.087872E+0	1.104893E+0	1.099575E+0	1.137420E+0	1.091204E+0	1.087287E+0	1.135597E+0	1.107103E+0	1.050102E+0	1.078666E+0
5.385110E+2	1.375122E+0	1.291809E+0	1.407037E+0	1.337786E+0	1.352069E+0	1.315234E+0	1.331096E+0	1.280552E+0	1.387461E+0	1.342573E+0	1.344161E+0	1.396098E+0	1.338329E+0	1.332382E+0	1.343300E+0	1.356922E+0	1.277704E+0	1.327641E+0	1.347020E+0	1.285611E+0	1.324240E+0	1.320785E+0	1.333038E+0	1.316111E+0	1.331992E+0	1.373114E+0	1.369334E+0	1.406410E+0	1.310973E+0	1.337767E+0	1.317831E+0	1.311130E+0	1.365644E+0	1.331622E+0	1.356709E+0	1.313050E+0	1.343124E+0	1.370778E+0	1.390548E+0	1.333291E+0	1.360708E+0	1.331480E+0	1.309921E+0	1.376196E+0	1.318963E+0	1.341834E+0	1.371894E+0	1.299210E+0	1.309937E+0	1.343990E+0	1.326320E+0	1.334742E+0	1.314870E+0	1.380646E+0	1.340546E+0	1.333496E+0	1.362376E+0	1.357525E+0	1.359279E+0	1.344759E+0	1.298917E+0	1.337016E+0	1.330800E+0	1.330910E+0	1.320295E+0	1.301639E+0	1.297998E+0	1.337779E+0	1.355220E+0	1.291438E+0	1.349119E+0	1.320296E+0	1.276812E+0	1.337196E+0	1.343829E+0	1.311722E+0	1.253040E+0	1.332641E+0	1.309674E+0	1.354997E+0	1.324023E+0	1.347175E+0	1.332368E+0	1.336289E+0	1.301737E+0	1.346500E+0	1.303497E+0	1.312163E+0	1.379760E+0	1.330240E+0	1.326227E+0	1.372754E+0	1.291687E+0	1.300596E+0	1.326028E+0	1.343682E+0	1.324433E+0	1.314806E+0	1.358702E+0	1.360360E+0	1.354543E+0	1.332054E+0	1.296866E+0	1.311446E+0	1.295007E+0	1.266908E+0	1.329194E+0	1.359510E+0	1.313605E+0	1.306032E+0	1.316946E+0	1.271103E+0	1.318821E+0	1.352846E+0	1.307102E+0	1.316101E+0	1.282071E+0	1.342616E+0	1.348992E+0	1.315212E+0	1.333605E+0	1.306394E+0	1.363392E+0	1.330615E+0	1.265984E+0	1.333000E+0	1.364758E+0	1.288658E+0	1.344531E+0	1.352585E+0	1.345333E+0	1.309766E+0	1.330857E+0	1.285455E+0	1.307351E+0	1.313791E+0	1.333366E+0	1.373448E+0	1.351515E+0	1.330567E+0	1.289960E+0	1.260910E+0	1.329106E+0	1.295924E+0	1.313377E+0	1.298229E+0	1.323064E+0	1.336846E+0	1.296957E+0	1.283453E+0	1.330186E+0	1.305216E+0	1.370857E+0	1.325746E+0	1.311655E+0	1.290650E+0	1.330150E+0	1.352798E+0	1.312065E+0	1.350935E+0	1.313252E+0	1.306767E+0	1.343480E+0	1.350603E+0	1.312396E+0	1.316616E+0	1.316348E+0	1.333410E+0	1.257848E+0	1.330605E+0
5.387700E+2	1.592755E+0	1.566343E+0	1.598024E+0	1.530488E+0	1.577295E+0	1.514086E+0	1.553893E+0	1.484071E+0	1.564305E+0	1.558986E+0	1.563290E+0	1.554832E+0	1.496595E+0	1.541262E+0	1.545676E+0	1.556356E+0	1.585943E+0	1.494028E+0	1.557134E+0	1.537040E+0	1.517612E+0	1.553452E+0	1.572601E+0	1.577769E+0	1.556607E+0	1.596814E+0	1.574876E+0	1.569549E+0	1.584737E+0	1.509684E+0	1.548266E+0	1.531105E+0	1.548639E+0	1.531966E+0	1.505327E+0	1.594343E+0	1.549126E+0	1.541318E+0	1.528719E+0	1.554326E+0	1.568820E+0	1.544557E+0	1.520263E+0	1.551506E+0	1.520819E+0	1.567580E+0	1.581077E+0	1.534902E+0	1.605747E+0	1.523983E+0	1.542787E+0	1.498933E+0	1.539240E+0	1.539770E+0	1.533835E+0	1.567808E+0	1.543396E+0	1.542490E+0	1.530591E+0	1.535726E+0	1.536603E+0	1.508606E+0	1.582137E+0	1.518250E+0	1.524348E+0	1.566899E+0	1.553693E+0	1.505343E+0	1.599093E+0	1.522201E+0	1.565134E+0	1.552878E+0	1.568498E+0	1.555014E+0	1.507547E+0	1.529017E+0	1.509525E+0	1.510496E+0	1.565322E+0	1.538522E+0	1.535392E+0	1.554026E+0	1.585528E+0	1.541844E+0	1.494452E+0	1.535495E+0	1.572439E+0	1.523146E+0	1.578406E+0	1.553974E+0	1.503050E+0	1.585861E+0	1.529123E+0	1.567486E+0	1.561204E+0	1.499511E+0	1.539616E+0	1.538691E+0	1.598438E+0	1.488252E+0	1.517312E+0	1.500426E+0	1.534084E+0	1.505541E+0	1.494178E+0	1.480731E+0	1.519421E+0	1.512349E+0	1.469106E+0	1.576069E+0	1.563995E+0	1.525034E+0	1.601734E+0	1.540385E+0	1.544763E+0	1.577011E+0	1.563889E+0	1.497913E+0	1.548373E+0	1.491186E+0	1.500182E+0	1.528921E+0	1.578945E+0	1.503755E+0	1.506274E+0	1.550547E+0	1.584522E+0	1.446085E+0	1.528040E+0	1.602903E+0	1.576654E+0	1.478002E+0	1.527406E+0	1.539421E+0	1.542035E+0	1.561940E+0	1.518076E+0	1.524979E+0	1.544130E+0	1.560481E+0	1.499393E+0	1.457968E+0	1.547112E+0	1.532325E+0	1.553436E+0	1.495793E+0	1.570810E+0	1.476543E+0	1.554371E+0	1.467759E+0	1.495697E+0	1.510763E+0	1.533223E+0	1.528328E+0	1.569250E+0	1.523823E+0	1.542111E+0	1.503425E+0	1.568189E+0	1.568146E+0	1.451049E+0	1.509232E+0	1.537065E+0	1.532963E+0	1.527010E+0	1.447985E+0	1.574698E+0	1.529739E+0	1.475302E+0	1.516418E+0
5.390240E+2	1.783497E+0	1.746440E+0	1.777823E+0	1.716801E+0	1.756611E+0	1.738763E+0	1.775728E+0	1.777599E+0	1.764415E+0	1.718917E+0	1.758618E+0	1.725857E+0	1.812757E+0	1.722771E+0	1.681091E+0	1.745771E+0	1.814371E+0	1.777062E+0	1.759546E+0	1.777828E+0	1.734022E+0	1.791268E+0	1.738396E+0	1.798475E+0	1.766450E+0	1.755044E+0	1.772505E+0	1.810345E+0	1.751663E+0	1.750312E+0	1.716225E+0	1.785114E+0	1.721658E+0	1.761304E+0	1.783168E+0	1.744187E+0	1.825543E+0	1.772778E+0	1.811326E+0	1.774597E+0	1.704742E+0	1.771816E+0	1.795256E+0	1.711301E+0	1.729227E+0	1.791784E+0	1.790904E+0	1.738605E+0	1.855939E+0	1.755876E+0	1.745282E+0	1.767282E+0	1.735739E+0	1.713465E+0	1.686719E+0	1.721370E+0	1.740303E+0	1.734385E+0	1.770357E+0	1.736271E+0	1.756357E+0	1.701320E+0	1.751907E+0	1.738822E+0	1.711641E+0	1.757411E+0	1.685626E+0	1.752862E+0	1.729768E+0	1.720337E+0	1.781082E+0	1.744061E+0	1.738605E+0	1.745505E+0	1.820547E+0	1.695920E+0	1.679325E+0	1.739736E+0	1.777920E+0	1.807451E+0	1.732902E+0	1.710790E+0	1.796068E+0	1.744840E+0	1.706458E+0	1.769414E+0	1.763853E+0	1.786362E+0	1.778878E+0	1.700630E+0	1.765151E+0	1.743432E+0	1.707378E+0	1.687846E+0	1.771286E+0	1.784004E+0	1.702290E+0	1.752733E+0	1.737033E+0	1.671923E+0	1.745674E+0	1.772119E+0	1.767066E+0	1.693050E+0	1.727250E+0	1.663815E+0	1.775748E+0	1.681541E+0	1.727994E+0	1.740880E+0	1.774825E+0	1.771198E+0	1.801886E+0	1.781380E+0	1.762089E+0	1.647975E+0	1.700748E+0	1.745887E+0	1.783551E+0	1.700284E+0	1.767787E+0	1.779034E+0	1.716297E+0	1.751893E+0	1.686969E+0	1.747486E+0	1.749384E+0	1.718887E+0	1.714741E+0	1.731680E+0	1.780924E+0	1.728791E+0	1.701221E+0	1.657039E+0	1.727813E+0	1.770937E+0	1.740447E+0	1.658899E+0	1.728609E+0	1.697582E+0	1.681626E+0	1.684524E+0	1.804816E+0	1.745223E+0	1.690382E+0	1.727830E+0	1.746156E+0	1.669991E+0	1.673254E+0	1.760276E+0	1.743121E+0	1.733291E+0	1.749426E+0	1.750692E+0	1.744013E+0	1.781292E+0	1.678756E+0	1.723907E+0	1.777297E+0	1.689276E+0	1.726800E+0	1.665171E+0	1.741307E+0	1.711890E+0	1.611457E+0	1.714877E+0	1.708233E+0	1.689718E+0	1.590012E+0	1.692159E+0
5.392880E+2	2.015986E+0	1.918116E+0	1.966303E+0	1.919863E+0	1.920086E+0	1.933154E+0	1.947693E+0	1.895179E+0	1.961821E+0	1.971139E+0	1.929044E+0	1.982663E+0	1.949016E+0	1.978831E+0	1.915418E+0	1.950024E+0	1.901836E+0	1.930107E+0	1.876268E+0	1.950330E+0	1.914433E+0	1.960894E+0	1.964232E+0	1.946235E+0	1.920398E+0	1.972038E+0	1.884148E+0	1.944457E+0	1.891831E+0	1.953423E+0	1.963839E+0	1.897280E+0	1.893082E+0	1.905248E+0	1.971769E+0	1.936122E+0	1.967654E+0	1.982686E+0	1.935292E+0	1.909772E+0	1.941991E+0	1.912297E+0	1.922263E+0	1.933449E+0	1.926963E+0	1.930454E+0	1.953558E+0	1.906418E+0	1.942353E+0	1.888492E+0	1.933228E+0	1.895196E+0	1.937073E+0	1.866534E+0	1.929146E+0	1.916819E+0	1.909616E+0	1.894747E+0	1.985970E+0	1.926896E+0	1.912557E+0	1.928623E+0	1.989571E+0	1.954429E+0	1.882930E+0	1.924216E+0	1.867053E+0	1.915541E+0	1.938829E+0	1.921042E+0	1.862891E+0	1.851178E+0	1.935593E+0	1.918851E+0	2.022518E+0	1.913764E+0	1.849002E+0	1.862727E+0	1.932833E+0	1.905148E+0	1.868563E+0	1.905044E+0	1.989397E+0	1.886313E+0	1.887583E+0	1.924353E+0	1.922394E+0	1.906764E+0	1.924290E+0	1.848605E+0	1.929114E+0	1.985197E+0	1.883621E+0	1.844135E+0	1.955010E+0	1.914671E+0	1.934298E+0	1.931666E+0	1.892373E+0	1.928372E+0	1.894735E+0	1.880817E+0	1.842020E+0	1.877639E+0	1.880209E+0	1.799368E+0	1.939485E+0	1.877915E+0	1.858274E+0	1.856511E+0	1.900840E+0	1.901690E+0	1.868746E+0	1.885178E+0	1.908690E+0	1.851611E+0	1.909468E+0	1.910265E+0	1.916426E+0	1.878466E+0	1.903325E+0	1.878064E+0	1.877171E+0	1.887176E+0	1.812453E+0	1.879887E+0	1.965658E+0	1.854081E+0	1.894859E+0	1.894853E+0	1.871296E+0	1.868184E+0	1.871998E+0	1.888084E+0	1.885043E+0	1.878389E+0	1.908409E+0	1.898780E+0	1.873350E+0	1.906369E+0	1.834712E+0	1.874753E+0	1.976318E+0	1.875017E+0	1.887548E+0	1.830985E+0	1.906287E+0	1.871434E+0	1.891490E+0	1.862018E+0	1.848345E+0	1.900467E+0	1.960152E+0	1.834863E+0	1.833413E+0	1.879920E+0	1.869726E+0	1.834211E+0	1.886589E+0	1.899508E+0	1.858678E+0	1.926132E+0	1.904792E+0	1.864990E+0	1.848563E+0	1.959823E+0	1.888302E+0	1.873738E+0	1.839994E+0	1.833111E+0
5.395210E+2	2.065762E+0	2.058080E+0	2.048281E+0	2.053032E+0	2.102640E+0	2.039261E+0	2.074979E+0	2.076113E+0	2.056974E+0	2.082988E+0	2.089188E+0	2.087742E+0	2.050878E+0	2.032071E+0	2.095236E+0	2.078069E+0	2.026914E+0	2.070846E+0	2.007905E+0	2.090017E+0	2.048961E+0	2.033291E+0	2.033904E+0	2.085794E+0	2.015293E+0	2.031457E+0	2.055164E+0	2.054978E+0	2.061777E+0	2.034011E+0	2.061484E+0	2.047488E+0	2.033449E+0	2.020785E+0	2.027444E+0	2.085248E+0	2.134905E+0	2.022458E+0	2.114600E+0	2.097493E+0	2.081142E+0	2.062140E+0	1.990483E+0	2.058481E+0	1.978165E+0	2.059927E+0	2.170945E+0	2.112451E+0	2.077207E+0	2.090369E+0	2.004923E+0	2.084446E+0	1.981307E+0	2.020929E+0	2.023058E+0	2.042202E+0	2.023718E+0	2.066720E+0	2.046943E+0	2.019877E+0	2.043584E+0	2.040802E+0	2.074276E+0	2.127548E+0	1.987072E+0	2.013917E+0	2.006937E+0	2.060928E+0	2.023314E+0	2.007950E+0	2.024373E+0	2.055507E+0	2.028653E+0	2.040226E+0	2.064879E+0	2.014439E+0	2.015102E+0	1.985138E+0	2.106809E+0	2.090706E+0	1.999037E+0	2.040650E+0	2.070294E+0	2.070382E+0	2.041811E+0	2.030207E+0	2.042889E+0	2.040164E+0	2.036432E+0	1.981045E+0	1.999370E+0	2.019447E+0	1.973118E+0	1.966588E+0	2.070524E+0	2.062901E+0	2.114245E+0	2.023387E+0	1.990874E+0	2.029484E+0	2.029837E+0	2.074066E+0	1.979492E+0	2.086934E+0	1.953429E+0	1.998481E+0	2.024991E+0	1.912889E+0	1.977415E+0	2.105347E+0	2.071668E+0	2.036698E+0	2.054490E+0	2.012609E+0	1.998599E+0	1.976553E+0	2.034770E+0	2.009788E+0	2.051500E+0	2.003423E+0	1.989415E+0	2.008098E+0	1.971465E+0	2.052172E+0	2.001752E+0	1.995366E+0	2.098004E+0	1.961935E+0	1.997034E+0	2.080525E+0	2.019281E+0	2.005962E+0	1.958474E+0	2.018926E+0	2.011094E+0	2.039573E+0	2.036998E+0	1.904892E+0	2.031748E+0	1.996886E+0	1.938399E+0	1.980038E+0	2.017462E+0	1.994636E+0	2.000173E+0	1.997370E+0	2.028222E+0	1.988642E+0	2.048435E+0	2.017085E+0	1.989802E+0	2.034422E+0	2.005718E+0	1.933542E+0	1.979063E+0	1.967654E+0	1.935184E+0	1.948961E+0	2.031598E+0	2.061964E+0	1.961688E+0	2.021696E+0	2.038759E+0	1.911780E+0	1.963371E+0	1.944144E+0	1.978740E+0	2.046910E+0	1.904561E+0	1.934933E+0
5.397970E+2	2.189391E+0	2.158537E+0	2.140301E+0	2.063989E+0	2.143916E+0	2.173295E+0	2.123832E+0	2.103889E+0	2.089824E+0	2.164279E+0	2.112457E+0	2.117456E+0	2.123167E+0	2.080629E+0	2.022280E+0	2.125542E+0	2.163795E+0	2.122765E+0	2.121714E+0	2.141565E+0	2.102732E+0	2.104467E+0	2.093299E+0	2.161271E+0	2.151046E+0	2.129095E+0	2.016624E+0	2.151532E+0	2.062723E+0	2.104686E+0	2.037357E+0	2.069779E+0	2.161874E+0	2.092789E+0	2.066037E+0	2.088341E+0	2.089479E+0	2.132347E+0	2.130620E+0	2.040309E+0	2.111632E+0	2.101177E+0	2.092267E+0	2.079592E+0	2.089721E+0	2.003202E+0	2.165288E+0	2.041149E+0	2.092952E+0	2.090194E+0	2.053635E+0	2.110600E+0	2.069784E+0	2.109649E+0	2.061710E+0	2.051836E+0	2.116731E+0	2.102891E+0	2.166949E+0	2.061257E+0	2.087095E+0	1.996322E+0	2.134824E+0	2.123532E+0	2.083551E+0	2.089032E+0	2.135511E+0	2.058342E+0	2.077930E+0	2.024009E+0	2.113144E+0	2.124521E+0	2.034988E+0	2.066748E+0	2.070594E+0	2.066344E+0	2.040289E+0	2.070631E+0	2.077265E+0	2.058263E+0	2.069160E+0	2.024101E+0	2.042399E+0	2.109113E+0	1.980368E+0	2.142213E+0	2.058410E+0	2.147964E+0	2.072668E+0	2.071174E+0	2.039777E+0	2.085988E+0	2.119226E+0	2.046848E+0	2.120092E+0	2.076103E+0	2.156154E+0	2.107941E+0	2.072491E+0	2.072830E+0	2.092443E+0	2.115410E+0	2.114774E+0	2.090913E+0	2.059181E+0	1.993547E+0	2.091201E+0	2.074578E+0	2.009786E+0	2.094382E+0	2.153952E+0	1.967686E+0	2.127192E+0	2.045432E+0	2.096664E+0	2.021515E+0	1.997488E+0	1.959480E+0	2.065196E+0	2.086960E+0	2.020378E+0	1.988078E+0	2.081477E+0	2.084132E+0	2.073879E+0	2.048831E+0	2.120950E+0	2.073774E+0	2.024789E+0	2.048819E+0	2.111257E+0	2.001657E+0	2.029939E+0	2.066043E+0	2.045679E+0	1.981723E+0	2.045853E+0	2.088129E+0	2.147691E+0	2.081008E+0	2.015120E+0	2.001895E+0	2.097892E+0	2.082201E+0	1.982506E+0	2.055658E+0	2.048151E+0	2.038857E+0	2.037730E+0	2.079161E+0	1.979511E+0	2.044925E+0	2.028197E+0	1.971065E+0	2.008364E+0	2.069281E+0	2.014980E+0	2.013681E+0	2.098839E+0	2.062304E+0	1.984480E+0	2.020353E+0	2.049044E+0	2.055497E+0	2.063305E+0	2.043671E+0	2.059292E+0	2.063739E+0	2.001914E+0	1.923720E+0
5.400240E+2	2.090103E+0	2.063210E+0	2.120252E+0	2.114426E+0	2.069833E+0	2.026426E+0	2.102182E+0	2.092852E+0	2.088560E+0	2.089831E+0	2.097475E+0	2.055386E+0	2.053076E+0	2.102712E+0	2.041894E+0	2.089403E+0	2.047271E+0	2.072494E+0	2.107196E+0	2.042501E+0	2.072184E+0	2.060286E+0	2.043906E+0	2.046297E+0	2.080513E+0	2.087345E+0	1.935783E+0	2.127535E+0	2.081242E+0	1.981229E+0	1.977794E+0	1.981479E+0	2.059760E+0	2.095025E+0	1.997912E+0	2.073723E+0	2.057485E+0	2.110563E+0	2.118313E+0	2.047445E+0	2.020594E+0	2.059054E+0	2.006948E+0	2.051138E+0	2.027901E+0	2.005595E+0	2.094552E+0	2.073705E+0	2.105933E+0	2.041749E+0	2.048203E+0	2.066616E+0	2.061235E+0	2.057499E+0	2.109350E+0	2.073997E+0	2.061243E+0	2.039426E+0	2.052513E+0	2.042059E+0	2.017476E+0	2.002976E+0	2.047591E+0	2.041212E+0	2.012749E+0	2.060102E+0	1.952410E+0	2.058073E+0	1.989110E+0	2.080054E+0	2.078758E+0	2.002095E+0	2.036218E+0	2.050126E+0	2.048883E+0	2.064251E+0	2.046294E+0	2.033851E+0	2.022832E+0	2.068265E+0	1.994798E+0	1.991362E+0	2.064874E+0	1.988248E+0	2.054533E+0	2.068295E+0	2.035828E+0	2.027476E+0	2.038004E+0	2.033859E+0	2.058826E+0	2.080923E+0	2.072405E+0	2.048215E+0	2.046047E+0	2.027323E+0	2.006445E+0	1.995064E+0	2.086148E+0	2.000431E+0	2.006180E+0	2.042673E+0	2.092288E+0	2.022745E+0	2.076857E+0	2.047439E+0	2.033537E+0	1.948270E+0	1.985049E+0	2.036016E+0	2.048425E+0	1.968241E+0	1.967827E+0	2.051849E+0	2.046056E+0	1.962932E+0	1.950395E+0	2.022875E+0	2.029278E+0	1.991331E+0	2.053385E+0	2.004469E+0	2.051119E+0	2.009979E+0	1.907917E+0	2.025699E+0	2.057131E+0	2.026254E+0	2.005542E+0	2.041307E+0	2.023710E+0	2.017741E+0	1.996271E+0	1.981046E+0	1.970146E+0	1.966024E+0	2.044240E+0	1.962769E+0	2.061678E+0	1.964497E+0	2.052675E+0	2.020201E+0	2.026673E+0	1.994752E+0	2.017127E+0	2.107529E+0	1.990477E+0	1.968078E+0	1.967302E+0	2.056027E+0	2.028167E+0	1.990399E+0	2.002774E+0	1.937541E+0	1.944703E+0	2.004951E+0	1.919553E+0	2.033062E+0	2.059710E+0	1.957243E+0	1.977782E+0	2.012715E+0	2.031408E+0	1.985807E+0	1.932472E+0	1.948461E+0	1.968328E+0	1.995982E+0	1.950186E+0	2.016279E+0
5.402790E+2	1.989802E+0	1.924177E+0	1.952035E+0	1.917347E+0	1.961261E+0	1.933632E+0	1.922543E+0	1.901896E+0	1.927280E+0	1.940087E+0	1.921676E+0	1.946341E+0	1.914171E+0	1.928982E+0	1.890137E+0	1.933075E+0	1.907801E+0	1.988920E+0	1.958125E+0	1.915271E+0	1.949849E+0	1.983897E+0	1.956862E+0	2.024296E+0	1.986729E+0	1.947680E+0	1.941864E+0	1.999290E+0	1.917486E+0	1.862376E+0	1.929937E+0	1.870438E+0	1.939808E+0	1.894592E+0	1.891839E+0	1.938735E+0	1.987172E+0	1.979312E+0	1.919344E+0	1.897567E+0	1.947912E+0	1.918260E+0	1.880550E+0	1.905163E+0	1.915515E+0	1.909523E+0	1.919687E+0	1.949337E+0	1.913449E+0	1.981458E+0	1.923187E+0	1.904428E+0	1.932401E+0	1.893952E+0	1.901310E+0	1.983194E+0	1.919112E+0	1.913841E+0	1.920497E+0	1.915088E+0	1.962028E+0	1.931253E+0	1.976138E+0	1.862408E+0	1.964842E+0	1.921444E+0	1.966688E+0	1.940321E+0	1.905177E+0	1.910256E+0	1.918337E+0	1.938523E+0	1.875851E+0	1.938274E+0	1.918146E+0	1.968807E+0	1.921862E+0	1.949913E+0	1.876152E+0	1.940668E+0	1.893054E+0	1.887387E+0	1.925813E+0	1.887698E+0	1.852955E+0	1.904211E+0	1.890120E+0	1.883127E+0	1.919881E+0	1.920531E+0	1.931154E+0	1.922644E+0	1.895316E+0	1.906367E+0	1.889094E+0	1.978586E+0	1.913739E+0	1.940446E+0	1.850144E+0	1.893658E+0	1.948440E+0	1.869284E+0	1.920310E+0	1.925804E+0	1.861139E+0	1.862620E+0	1.958639E+0	1.892351E+0	1.871649E+0	1.877416E+0	1.955309E+0	1.876661E+0	1.941663E+0	1.884980E+0	1.918148E+0	1.888883E+0	1.901811E+0	1.885482E+0	1.945031E+0	1.822904E+0	1.917755E+0	1.860054E+0	1.844889E+0	1.857022E+0	1.835949E+0	1.974339E+0	1.896936E+0	1.922712E+0	1.887890E+0	1.880427E+0	1.910282E+0	1.817684E+0	1.915211E+0	1.899444E+0	1.931776E+0	1.904766E+0	1.857743E+0	1.872609E+0	1.969892E+0	1.858691E+0	1.852678E+0	1.860085E+0	1.968463E+0	1.873656E+0	1.784123E+0	1.884481E+0	1.876909E+0	1.873125E+0	1.867434E+0	1.932393E+0	1.874393E+0	1.929011E+0	1.915119E+0	1.943923E+0	1.882150E+0	1.876828E+0	1.850213E+0	1.819321E+0	1.924965E+0	1.875485E+0	1.808426E+0	1.826986E+0	1.879447E+0	1.865014E+0	1.860532E+0	1.807204E+0	1.823736E+0	1.884769E+0	1.789607E+0	1.914458E+0
5.405020E+2	1.844474E+0	1.780073E+0	1.825243E+0	1.857089E+0	1.798942E+0	1.839436E+0	1.833060E+0	1.795008E+0	1.843903E+0	1.816104E+0	1.847480E+0	1.866700E+0	1.923601E+0	1.824197E+0	1.826251E+0	1.813382E+0	1.797552E+0	1.927186E+0	1.864435E+0	1.803142E+0	1.848761E+0	1.812363E+0	1.855581E+0	1.791938E+0	1.841282E+0	1.861457E+0	1.804712E+0	1.908979E+0	1.813904E+0	1.755325E+0	1.748124E+0	1.853905E+0	1.900974E+0	1.831883E+0	1.799941E+0	1.875996E+0	1.849327E+0	1.857959E+0	1.848249E+0	1.827739E+0	1.833178E+0	1.816810E+0	1.835297E+0	1.825085E+0	1.829575E+0	1.800048E+0	1.843149E+0	1.850356E+0	1.801063E+0	1.815612E+0	1.833969E+0	1.894908E+0	1.847656E+0	1.864471E+0	1.845657E+0	1.792226E+0	1.786443E+0	1.806639E+0	1.808079E+0	1.831904E+0	1.816314E+0	1.787575E+0	1.797684E+0	1.809848E+0	1.789615E+0	1.826358E+0	1.763317E+0	1.841300E+0	1.823944E+0	1.762767E+0	1.840700E+0	1.816258E+0	1.803004E+0	1.813460E+0	1.846153E+0	1.794881E+0	1.831150E+0	1.788715E+0	1.845459E+0	1.811743E+0	1.814012E+0	1.783676E+0	1.868426E+0	1.821853E+0	1.798263E+0	1.802072E+0	1.793186E+0	1.854477E+0	1.780546E+0	1.790878E+0	1.776952E+0	1.879909E+0	1.804087E+0	1.829611E+0	1.802832E+0	1.813926E+0	1.848929E+0	1.838472E+0	1.801889E+0	1.800120E+0	1.865577E+0	1.808579E+0	1.793536E+0	1.785732E+0	1.734701E+0	1.766066E+0	1.761706E+0	1.770632E+0	1.760260E+0	1.819250E+0	1.807177E+0	1.816181E+0	1.785046E+0	1.806345E+0	1.831281E+0	1.763278E+0	1.774760E+0	1.787480E+0	1.808202E+0	1.757371E+0	1.751585E+0	1.841203E+0	1.779763E+0	1.807041E+0	1.789128E+0	1.735277E+0	1.769348E+0	1.833019E+0	1.797539E+0	1.882974E+0	1.829924E+0	1.769856E+0	1.866801E+0	1.807672E+0	1.770524E+0	1.802497E+0	1.766023E+0	1.814731E+0	1.795586E+0	1.808460E+0	1.758741E+0	1.787619E+0	1.810470E+0	1.808766E+0	1.751745E+0	1.851736E+0	1.806835E+0	1.770251E+0	1.774889E+0	1.809516E+0	1.764000E+0	1.827984E+0	1.792929E+0	1.818737E+0	1.836675E+0	1.783906E+0	1.722858E+0	1.750770E+0	1.801953E+0	1.880270E+0	1.793454E+0	1.818434E+0	1.794223E+0	1.826931E+0	1.804462E+0	1.795164E+0	1.816373E+0	1.798876E+0	1.665459E+0	1.765457E+0
5.407740E+2	1.805688E+0	1.734233E+0	1.764114E+0	1.633673E+0	1.760215E+0	1.731931E+0	1.781720E+0	1.787917E+0	1.775577E+0	1.741783E+0	1.733456E+0	1.796899E+0	1.711585E+0	1.715501E+0	1.721530E+0	1.738471E+0	1.724252E+0	1.730123E+0	1.799216E+0	1.715301E+0	1.765718E+0	1.796112E+0	1.742663E+0	1.737867E+0	1.668201E+0	1.773226E+0	1.676239E+0	1.761596E+0	1.740907E+0	1.704490E+0	1.725641E+0	1.713254E+0	1.782420E+0	1.755780E+0	1.694333E+0	1.707167E+0	1.668532E+0	1.691390E+0	1.667321E+0	1.698388E+0	1.764181E+0	1.745065E+0	1.705257E+0	1.739658E+0	1.764944E+0	1.702939E+0	1.750146E+0	1.738425E+0	1.762350E+0	1.770542E+0	1.777196E+0	1.717375E+0	1.751195E+0	1.695400E+0	1.708109E+0	1.709120E+0	1.732602E+0	1.705385E+0	1.726425E+0	1.711729E+0	1.684174E+0	1.690670E+0	1.788059E+0	1.752150E+0	1.709114E+0	1.739842E+0	1.725994E+0	1.701049E+0	1.680366E+0	1.713450E+0	1.719676E+0	1.749452E+0	1.757198E+0	1.686746E+0	1.713472E+0	1.734978E+0	1.729578E+0	1.708858E+0	1.707593E+0	1.789859E+0	1.738290E+0	1.643824E+0	1.702580E+0	1.740176E+0	1.701720E+0	1.720633E+0	1.734832E+0	1.715542E+0	1.789015E+0	1.722251E+0	1.678534E+0	1.762261E+0	1.725382E+0	1.728428E+0	1.684447E+0	1.711048E+0	1.693131E+0	1.734543E+0	1.712114E+0	1.759513E+0	1.691511E+0	1.686916E+0	1.714254E+0	1.713525E+0	1.745338E+0	1.657609E+0	1.674105E+0	1.721651E+0	1.674905E+0	1.682489E+0	1.730922E+0	1.702557E+0	1.736116E+0	1.733503E+0	1.741181E+0	1.714465E+0	1.687457E+0	1.765901E+0	1.707674E+0	1.702742E+0	1.653705E+0	1.736390E+0	1.696590E+0	1.697575E+0	1.663522E+0	1.707717E+0	1.719896E+0	1.698727E+0	1.698281E+0	1.746194E+0	1.664572E+0	1.631319E+0	1.745033E+0	1.684652E+0	1.752956E+0	1.661353E+0	1.642328E+0	1.691069E+0	1.697459E+0	1.760335E+0	1.634627E+0	1.710048E+0	1.685871E+0	1.741726E+0	1.645783E+0	1.665445E+0	1.722381E+0	1.668613E+0	1.701773E+0	1.699277E+0	1.742066E+0	1.676346E+0	1.757501E+0	1.688178E+0	1.644491E+0	1.690508E+0	1.683488E+0	1.680582E+0	1.698657E+0	1.798504E+0	1.718213E+0	1.712879E+0	1.634176E+0	1.718109E+0	1.638086E+0	1.675451E+0	1.703977E+0	1.758639E+0	1.549184E+0	1.634648E+0
5.410190E+2	1.685447E+0	1.702358E+0	1.714751E+0	1.649626E+0	1.688715E+0	1.747805E+0	1.693246E+0	1.659846E+0	1.749424E+0	1.713472E+0	1.705227E+0	1.710104E+0	1.734143E+0	1.691609E+0	1.687014E+0	1.687926E+0	1.726272E+0	1.716764E+0	1.669710E+0	1.682311E+0	1.663288E+0	1.732161E+0	1.720412E+0	1.710150E+0	1.712366E+0	1.636430E+0	1.639433E+0	1.655460E+0	1.664184E+0	1.691524E+0	1.660352E+0	1.695745E+0	1.732393E+0	1.716096E+0	1.744794E+0	1.688417E+0	1.657401E+0	1.670619E+0	1.682947E+0	1.713634E+0	1.665679E+0	1.677509E+0	1.621481E+0	1.654266E+0	1.630835E+0	1.733408E+0	1.687963E+0	1.740272E+0	1.728532E+0	1.754972E+0	1.671132E+0	1.700028E+0	1.685622E+0	1.696964E+0	1.777220E+0	1.674416E+0	1.678397E+0	1.673489E+0	1.692134E+0	1.714265E+0	1.730537E+0	1.689759E+0	1.688180E+0	1.714845E+0	1.696837E+0	1.655921E+0	1.682957E+0	1.699731E+0	1.661603E+0	1.719369E+0	1.718665E+0	1.655295E+0	1.702696E+0	1.715486E+0	1.663617E+0	1.658014E+0	1.635716E+0	1.651660E+0	1.679302E+0	1.675512E+0	1.643555E+0	1.722886E+0	1.676972E+0	1.733301E+0	1.684035E+0	1.661657E+0	1.643424E+0	1.710127E+0	1.683177E+0	1.670646E+0	1.667164E+0	1.677670E+0	1.670225E+0	1.695201E+0	1.653862E+0	1.664700E+0	1.694373E+0	1.700070E+0	1.687711E+0	1.715426E+0	1.704465E+0	1.719070E+0	1.697085E+0	1.718959E+0	1.690789E+0	1.686389E+0	1.683508E+0	1.608734E+0	1.656279E+0	1.708965E+0	1.705557E+0	1.683355E+0	1.716207E+0	1.719004E+0	1.729827E+0	1.663805E+0	1.666798E+0	1.670972E+0	1.683757E+0	1.673188E+0	1.690919E+0	1.706237E+0	1.652628E+0	1.630347E+0	1.663135E+0	1.651076E+0	1.659294E+0	1.680168E+0	1.633652E+0	1.582701E+0	1.649484E+0	1.685928E+0	1.656202E+0	1.685783E+0	1.684218E+0	1.640097E+0	1.669058E+0	1.659784E+0	1.675007E+0	1.751376E+0	1.633694E+0	1.584382E+0	1.699027E+0	1.678474E+0	1.593201E+0	1.657071E+0	1.654664E+0	1.608925E+0	1.593387E+0	1.681949E+0	1.639109E+0	1.633859E+0	1.694405E+0	1.654432E+0	1.667717E+0	1.644226E+0	1.575324E+0	1.660818E+0	1.637896E+0	1.693750E+0	1.698616E+0	1.633295E+0	1.663853E+0	1.747954E+0	1.697875E+0	1.657331E+0	1.638055E+0	1.727955E+0	1.660495E+0	1.664632E+0
5.412790E+2	1.632138E+0	1.602162E+0	1.611453E+0	1.545730E+0	1.633020E+0	1.607702E+0	1.644605E+0	1.565413E+0	1.630337E+0	1.556449E+0	1.618517E+0	1.616729E+0	1.567025E+0	1.595024E+0	1.566051E+0	1.630391E+0	1.551779E+0	1.621932E+0	1.515539E+0	1.597265E+0	1.648105E+0	1.584353E+0	1.595546E+0	1.613461E+0	1.566788E+0	1.500732E+0	1.587614E+0	1.610402E+0	1.569391E+0	1.578032E+0	1.602221E+0	1.538379E+0	1.566931E+0	1.566584E+0	1.542990E+0	1.600798E+0	1.611982E+0	1.637824E+0	1.578191E+0	1.609176E+0	1.595825E+0	1.605955E+0	1.562987E+0	1.604903E+0	1.614145E+0	1.580600E+0	1.558640E+0	1.636475E+0	1.657209E+0	1.611545E+0	1.606486E+0	1.609268E+0	1.617401E+0	1.578915E+0	1.639775E+0	1.537295E+0	1.604208E+0	1.610287E+0	1.587353E+0	1.569968E+0	1.608787E+0	1.611230E+0	1.567630E+0	1.554588E+0	1.600878E+0	1.577573E+0	1.580238E+0	1.597027E+0	1.581714E+0	1.562624E+0	1.568452E+0	1.620464E+0	1.580432E+0	1.593524E+0	1.590965E+0	1.587957E+0	1.600740E+0	1.588581E+0	1.566664E+0	1.652810E+0	1.624086E+0	1.588140E+0	1.576575E+0	1.545451E+0	1.571432E+0	1.557022E+0	1.582728E+0	1.597593E+0	1.609718E+0	1.573497E+0	1.542332E+0	1.605709E+0	1.563470E+0	1.637230E+0	1.625856E+0	1.573982E+0	1.618428E+0	1.602753E+0	1.609455E+0	1.619717E+0	1.623358E+0	1.566980E+0	1.621853E+0	1.580273E+0	1.555827E+0	1.530215E+0	1.624010E+0	1.614953E+0	1.529847E+0	1.592376E+0	1.568110E+0	1.588279E+0	1.618818E+0	1.606730E+0	1.632925E+0	1.561339E+0	1.525649E+0	1.585350E+0	1.582644E+0	1.600383E+0	1.565034E+0	1.617753E+0	1.514330E+0	1.637481E+0	1.533362E+0	1.598757E+0	1.600683E+0	1.598003E+0	1.634970E+0	1.640675E+0	1.565271E+0	1.558508E+0	1.585603E+0	1.581583E+0	1.581325E+0	1.593341E+0	1.595446E+0	1.509082E+0	1.614901E+0	1.588971E+0	1.530261E+0	1.515426E+0	1.614059E+0	1.640050E+0	1.579898E+0	1.545597E+0	1.528061E+0	1.564325E+0	1.657551E+0	1.538218E+0	1.564561E+0	1.577789E+0	1.621551E+0	1.542149E+0	1.630855E+0	1.585441E+0	1.594627E+0	1.588726E+0	1.551783E+0	1.659371E+0	1.573193E+0	1.559685E+0	1.596645E+0	1.554188E+0	1.567015E+0	1.607466E+0	1.570798E+0	1.609506E+0	1.511988E+0	1.467272E+0
5.415190E+2	1.459620E+0	1.429442E+0	1.460913E+0	1.413378E+0	1.467795E+0	1.455843E+0	1.383742E+0	1.435181E+0	1.400646E+0	1.481429E+0	1.410655E+0	1.438830E+0	1.439451E+0	1.440803E+0	1.385133E+0	1.385703E+0	1.412301E+0	1.418032E+0	1.416282E+0	1.445241E+0	1.400250E+0	1.398286E+0	1.404667E+0	1.405342E+0	1.415000E+0	1.418083E+0	1.400394E+0	1.454438E+0	1.341061E+0	1.398503E+0	1.391260E+0	1.436660E+0	1.445622E+0	1.393945E+0	1.384636E+0	1.397258E+0	1.466754E+0	1.410134E+0	1.431483E+0	1.460303E+0	1.384383E+0	1.384712E+0	1.428637E+0	1.380709E+0	1.388271E+0	1.441422E+0	1.472763E+0	1.388404E+0	1.406954E+0	1.388065E+0	1.414716E+0	1.426800E+0	1.394749E+0	1.421909E+0	1.417704E+0	1.401883E+0	1.445937E+0	1.421702E+0	1.412416E+0	1.415652E+0	1.375636E+0	1.441544E+0	1.447461E+0	1.394905E+0	1.444708E+0	1.479002E+0	1.427386E+0	1.434844E+0	1.378502E+0	1.377678E+0	1.476181E+0	1.401163E+0	1.438273E+0	1.417880E+0	1.403879E+0	1.410500E+0	1.442818E+0	1.378911E+0	1.429510E+0	1.449800E+0	1.404093E+0	1.398040E+0	1.415882E+0	1.403901E+0	1.369156E+0	1.433400E+0	1.391545E+0	1.392409E+0	1.417871E+0	1.470579E+0	1.369166E+0	1.411143E+0	1.359446E+0	1.404050E+0	1.377263E+0	1.424644E+0	1.468222E+0	1.429313E+0	1.420058E+0	1.395252E+0	1.394836E+0	1.438711E+0	1.326799E+0	1.393038E+0	1.406051E+0	1.362511E+0	1.377031E+0	1.389503E+0	1.371910E+0	1.433267E+0	1.424052E+0	1.425905E+0	1.452244E+0	1.419548E+0	1.463909E+0	1.419546E+0	1.425111E+0	1.419434E+0	1.385442E+0	1.435032E+0	1.425938E+0	1.373528E+0	1.411511E+0	1.440777E+0	1.402813E+0	1.467925E+0	1.367946E+0	1.426713E+0	1.434029E+0	1.424184E+0	1.486685E+0	1.421295E+0	1.407017E+0	1.418594E+0	1.399893E+0	1.450960E+0	1.421014E+0	1.396771E+0	1.442604E+0	1.419294E+0	1.361113E+0	1.345038E+0	1.440386E+0	1.416273E+0	1.404260E+0	1.316038E+0	1.406229E+0	1.347904E+0	1.403478E+0	1.391941E+0	1.355602E+0	1.408402E+0	1.426770E+0	1.414211E+0	1.398043E+0	1.401958E+0	1.429308E+0	1.348512E+0	1.366109E+0	1.406226E+0	1.418961E+0	1.396840E+0	1.418972E+0	1.378784E+0	1.401770E+0	1.421347E+0	1.357222E+0	1.449143E+0	1.376116E+0	1.406149E+0
5.417700E+2	1.234338E+0	1.211700E+0	1.268355E+0	1.212785E+0	1.218349E+0	1.212938E+0	1.220075E+0	1.169353E+0	1.216554E+0	1.219945E+0	1.228490E+0	1.269571E+0	1.244741E+0	1.255455E+0	1.256801E+0	1.247187E+0	1.225121E+0	1.279470E+0	1.260678E+0	1.249447E+0	1.201616E+0	1.202923E+0	1.286543E+0	1.212352E+0	1.232415E+0	1.222275E+0	1.193657E+0	1.289051E+0	1.210854E+0	1.275984E+0	1.231537E+0	1.201879E+0	1.223745E+0	1.215902E+0	1.208525E+0	1.249210E+0	1.276909E+0	1.255421E+0	1.199176E+0	1.239680E+0	1.213695E+0	1.216136E+0	1.168350E+0	1.240878E+0	1.207833E+0	1.215980E+0	1.211807E+0	1.217401E+0	1.285831E+0	1.261376E+0	1.296334E+0	1.258316E+0	1.295316E+0	1.232560E+0	1.247639E+0	1.213219E+0	1.183930E+0	1.171863E+0	1.202668E+0	1.252525E+0	1.201408E+0	1.250883E+0	1.239126E+0	1.222123E+0	1.236058E+0	1.261620E+0	1.211068E+0	1.205326E+0	1.252124E+0	1.252251E+0	1.224400E+0	1.229471E+0	1.218222E+0	1.234202E+0	1.210406E+0	1.214061E+0	1.246069E+0	1.237311E+0	1.199985E+0	1.221014E+0	1.239592E+0	1.213820E+0	1.269899E+0	1.252055E+0	1.199665E+0	1.191460E+0	1.252543E+0	1.266546E+0	1.239571E+0	1.246181E+0	1.147576E+0	1.296267E+0	1.222646E+0	1.212876E+0	1.203293E+0	1.254119E+0	1.233269E+0	1.233139E+0	1.212922E+0	1.256249E+0	1.240946E+0	1.181939E+0	1.211586E+0	1.247610E+0	1.216027E+0	1.197837E+0	1.209042E+0	1.198975E+0	1.215949E+0	1.195645E+0	1.189901E+0	1.237544E+0	1.205875E+0	1.237306E+0	1.235891E+0	1.196776E+0	1.184245E+0	1.169064E+0	1.250837E+0	1.244324E+0	1.188357E+0	1.210286E+0	1.237893E+0	1.225666E+0	1.222431E+0	1.211690E+0	1.261643E+0	1.222309E+0	1.275215E+0	1.269179E+0	1.226451E+0	1.226807E+0	1.237681E+0	1.251413E+0	1.228019E+0	1.218581E+0	1.250461E+0	1.245344E+0	1.257390E+0	1.278079E+0	1.159080E+0	1.207875E+0	1.194100E+0	1.236394E+0	1.258319E+0	1.234918E+0	1.274098E+0	1.207760E+0	1.228589E+0	1.216003E+0	1.223569E+0	1.282930E+0	1.242699E+0	1.218391E+0	1.237236E+0	1.255644E+0	1.255501E+0	1.239514E+0	1.191716E+0	1.245962E+0	1.222218E+0	1.291260E+0	1.210062E+0	1.221690E+0	1.197574E+0	1.231980E+0	1.264044E+0	1.216050E+0	1.148247E+0	1.273370E+0
5.420210E+2	1.097166E+0	1.099700E+0	1.095532E+0	1.115464E+0	1.066972E+0	1.119878E+0	1.056207E+0	1.042454E+0	1.052978E+0	1.078529E+0	1.077554E+0	1.094625E+0	1.064481E+0	1.087112E+0	1.061755E+0	1.059014E+0	1.123839E+0	1.083890E+0	1.049750E+0	1.061471E+0	1.105411E+0	1.057448E+0	1.059240E+0	1.070472E+0	1.054677E+0	1.093336E+0	1.118160E+0	1.093584E+0	1.049636E+0	1.108350E+0	1.052357E+0	1.052587E+0	1.097347E+0	1.015353E+0	1.046614E+0	1.143283E+0	1.133392E+0	1.071303E+0	1.100968E+0	1.070463E+0	1.106328E+0	1.073690E+0	1.048003E+0	1.096911E+0	1.053184E+0	1.086328E+0	1.066709E+0	1.074140E+0	1.099790E+0	1.077752E+0	1.066209E+0	1.050262E+0	1.065991E+0	1.108955E+0	1.102656E+0	1.052780E+0	1.092653E+0	1.069638E+0	1.059939E+0	1.079280E+0	1.083426E+0	1.046573E+0	1.039631E+0	1.079740E+0	1.086519E+0	1.058943E+0	1.096341E+0	1.070044E+0	1.051152E+0	1.052473E+0	1.113776E+0	1.059582E+0	1.076424E+0	1.109200E+0	1.120031E+0	1.061968E+0	1.082702E+0	1.072629E+0	1.062811E+0	1.067569E+0	1.115940E+0	1.076731E+0	1.074297E+0	1.070976E+0	1.083518E+0	1.078060E+0	1.080872E+0	1.085562E+0	1.020819E+0	1.087895E+0	1.052181E+0	1.100505E+0	1.107864E+0	1.095624E+0	1.109229E+0	1.060747E+0	1.088262E+0	1.077029E+0	1.090632E+0	1.034437E+0	1.093559E+0	1.058767E+0	1.076833E+0	1.108833E+0	1.067780E+0	1.096704E+0	1.074250E+0	1.088949E+0	1.054288E+0	1.084782E+0	1.106731E+0	1.052814E+0	1.043711E+0	1.093291E+0	1.077279E+0	1.119718E+0	1.066370E+0	1.035257E+0	1.105954E+0	1.110923E+0	1.058817E+0	1.067479E+0	1.062504E+0	1.085614E+0	1.049781E+0	1.143057E+0	1.079973E+0	1.046281E+0	1.098566E+0	1.107313E+0	1.127367E+0	1.055645E+0	1.087473E+0	1.045949E+0	1.064352E+0	1.087188E+0	1.040089E+0	1.003892E+0	1.087233E+0	1.124453E+0	1.034992E+0	1.100530E+0	1.062162E+0	1.175458E+0	1.079296E+0	1.060194E+0	1.014742E+0	1.060912E+0	1.063260E+0	1.095838E+0	1.055142E+0	1.096657E+0	1.082168E+0	1.086120E+0	1.099918E+0	1.102861E+0	1.033729E+0	1.084850E+0	1.059119E+0	1.085324E+0	1.104716E+0	1.059703E+0	1.085571E+0	1.079828E+0	1.117431E+0	1.075720E+0	1.049841E+0	1.161021E+0	9.728219E-1	1.091673E+0
5.422730E+2	9.685416E-1	9.880038E-1	1.005299E+0	9.732484E-1	9.582269E-1	9.462943E-1	9.715228E-1	9.941209E-1	9.163799E-1	9.565631E-1	1.008551E+0	9.646798E-1	1.025554E+0	9.530913E-1	9.831019E-1	9.679180E-1	9.809466E-1	9.785866E-1	9.854233E-1	9.368170E-1	9.878770E-1	1.005644E+0	9.588672E-1	1.015204E+0	9.884902E-1	9.525781E-1	9.773310E-1	9.976711E-1	9.831409E-1	1.010837E+0	9.883660E-1	9.837129E-1	1.016215E+0	9.803676E-1	1.010353E+0	9.937318E-1	9.972680E-1	9.756450E-1	1.012779E+0	9.846254E-1	9.286229E-1	9.986837E-1	1.004697E+0	9.915121E-1	9.801699E-1	9.938593E-1	9.736627E-1	9.601085E-1	9.739633E-1	9.993147E-1	1.003705E+0	9.662020E-1	9.888297E-1	9.915024E-1	9.597744E-1	9.441461E-1	9.906858E-1	9.856233E-1	9.799719E-1	9.059425E-1	9.753089E-1	9.779740E-1	9.857602E-1	9.272283E-1	9.915392E-1	9.835464E-1	9.804631E-1	1.001996E+0	9.582796E-1	9.787170E-1	9.979185E-1	9.998692E-1	9.665769E-1	9.752162E-1	9.396805E-1	9.909782E-1	9.960669E-1	9.596115E-1	9.982293E-1	9.946521E-1	9.926503E-1	1.028140E+0	9.937965E-1	1.016481E+0	9.462954E-1	9.986959E-1	9.652619E-1	9.802630E-1	1.016401E+0	1.026632E+0	9.929426E-1	1.005334E+0	9.618032E-1	9.865991E-1	9.671018E-1	9.770183E-1	9.702507E-1	9.701842E-1	9.922790E-1	1.008326E+0	9.953256E-1	9.630432E-1	9.749243E-1	9.749687E-1	9.420614E-1	9.439565E-1	9.681543E-1	9.810311E-1	9.276800E-1	1.000574E+0	9.817641E-1	9.986718E-1	9.633462E-1	9.574208E-1	9.876138E-1	9.389515E-1	9.866946E-1	9.296931E-1	9.654980E-1	9.761062E-1	9.019696E-1	9.923543E-1	1.025070E+0	1.015604E+0	9.673409E-1	1.021203E+0	9.686932E-1	1.002964E+0	9.778961E-1	9.856004E-1	9.785780E-1	9.649451E-1	9.943202E-1	9.781796E-1	9.929944E-1	1.001644E+0	9.806714E-1	9.577684E-1	1.029500E+0	1.027409E+0	9.450848E-1	9.442359E-1	9.529956E-1	1.038432E+0	9.555809E-1	9.391697E-1	9.448019E-1	9.609922E-1	1.004018E+0	1.003480E+0	9.633826E-1	1.007778E+0	1.027999E+0	9.594639E-1	9.612095E-1	1.017203E+0	9.923889E-1	9.823632E-1	9.603316E-1	1.015419E+0	9.327177E-1	1.017844E+0	1.007407E+0	9.768743E-1	9.518153E-1	9.719915E-1	1.015266E+0	9.924059E-1	9.310116E-1	1.012499E+0
5.425190E+2	9.623679E-1	9.692996E-1	9.780046E-1	9.499589E-1	9.808238E-1	9.497503E-1	9.369248E-1	9.697224E-1	9.671055E-1	9.702758E-1	9.723863E-1	9.168771E-1	9.730526E-1	9.441040E-1	9.458191E-1	9.710174E-1	9.111499E-1	9.597497E-1	9.507967E-1	9.595663E-1	9.633333E-1	9.192818E-1	9.681460E-1	9.980593E-1	9.443478E-1	9.944606E-1	9.342558E-1	1.041620E+0	9.651763E-1	9.727205E-1	9.449003E-1	9.416475E-1	1.023918E+0	9.780620E-1	9.751418E-1	9.588877E-1	9.944352E-1	1.007844E+0	9.843651E-1	9.365425E-1	9.781110E-1	9.635556E-1	9.538794E-1	9.756549E-1	9.837820E-1	9.992498E-1	9.610699E-1	9.808688E-1	9.937553E-1	9.459474E-1	9.832055E-1	9.949595E-1	9.356896E-1	9.463753E-1	9.767381E-1	9.724789E-1	9.770499E-1	9.563851E-1	9.779708E-1	9.364490E-1	9.484105E-1	9.523566E-1	9.436223E-1	9.468543E-1	9.979020E-1	9.257404E-1	9.745095E-1	9.901927E-1	9.704358E-1	9.552096E-1	9.434692E-1	9.688732E-1	9.530655E-1	1.004098E+0	9.633332E-1	9.818231E-1	9.514203E-1	9.413122E-1	9.234538E-1	9.588426E-1	9.776992E-1	9.570629E-1	9.580817E-1	9.374091E-1	9.772278E-1	9.206118E-1	9.204962E-1	9.836362E-1	9.545015E-1	9.515748E-1	9.375183E-1	9.657183E-1	9.483900E-1	9.535798E-1	9.190562E-1	9.415254E-1	1.005853E+0	1.022821E+0	9.599494E-1	9.844457E-1	9.920111E-1	9.926868E-1	1.022349E+0	9.377409E-1	9.977857E-1	1.026288E+0	9.681462E-1	9.808635E-1	9.589744E-1	9.841812E-1	9.630615E-1	9.337270E-1	9.642431E-1	9.611786E-1	9.778053E-1	9.723657E-1	9.971475E-1	9.678580E-1	9.766500E-1	9.711842E-1	9.429837E-1	9.514804E-1	9.756792E-1	9.855864E-1	9.310336E-1	9.598857E-1	9.706747E-1	9.386087E-1	9.393544E-1	9.781920E-1	9.968237E-1	9.175488E-1	9.596115E-1	9.359738E-1	9.282251E-1	9.845565E-1	9.773483E-1	9.655134E-1	9.554150E-1	9.087307E-1	9.298554E-1	9.307471E-1	9.796900E-1	9.713223E-1	9.956866E-1	9.264696E-1	9.646533E-1	9.744259E-1	1.009545E+0	9.716080E-1	9.406935E-1	9.755193E-1	1.007024E+0	9.769404E-1	9.338951E-1	9.642388E-1	9.377550E-1	9.643507E-1	9.483014E-1	9.532544E-1	9.819698E-1	9.910523E-1	9.760346E-1	9.025642E-1	9.703444E-1	9.691225E-1	9.852629E-1	9.598003E-1	8.985369E-1	9.024497E-1
5.427650E+2	1.025181E+0	9.979115E-1	1.022865E+0	1.008889E+0	1.032184E+0	1.004108E+0	9.857636E-1	9.928004E-1	1.008487E+0	1.037567E+0	9.862897E-1	1.016682E+0	1.002900E+0	1.015923E+0	1.013783E+0	1.010174E+0	9.807243E-1	1.035345E+0	1.026140E+0	1.005855E+0	9.945399E-1	1.020331E+0	9.726447E-1	1.034090E+0	1.081822E+0	9.959933E-1	1.007095E+0	1.043440E+0	9.838803E-1	1.026395E+0	9.797065E-1	1.010706E+0	1.077012E+0	9.938075E-1	1.056806E+0	1.004693E+0	9.994968E-1	1.013718E+0	1.025321E+0	1.045422E+0	1.034369E+0	1.021111E+0	9.594561E-1	9.883807E-1	1.039988E+0	1.016458E+0	1.024566E+0	9.981730E-1	1.026328E+0	1.036126E+0	1.030642E+0	9.886027E-1	1.042639E+0	9.816508E-1	1.022660E+0	1.037486E+0	9.638341E-1	9.929911E-1	1.007923E+0	1.021400E+0	9.999543E-1	1.008697E+0	1.003390E+0	1.003320E+0	1.033421E+0	1.011927E+0	9.388442E-1	1.041171E+0	1.020450E+0	1.037611E+0	1.033873E+0	1.031415E+0	9.946486E-1	1.020826E+0	9.953265E-1	1.021808E+0	9.879166E-1	1.001051E+0	9.980333E-1	9.721859E-1	9.885619E-1	1.028382E+0	9.756868E-1	1.018600E+0	9.881905E-1	1.025746E+0	1.016670E+0	1.056070E+0	1.004061E+0	1.029022E+0	1.003642E+0	1.042115E+0	9.953685E-1	1.023692E+0	1.007419E+0	1.048299E+0	1.015733E+0	1.035279E+0	1.009243E+0	1.021321E+0	1.020293E+0	9.968655E-1	9.869267E-1	1.042818E+0	9.840375E-1	1.022900E+0	9.953214E-1	9.988767E-1	9.788584E-1	1.055543E+0	1.024624E+0	1.001226E+0	1.016254E+0	1.032406E+0	1.034297E+0	1.024680E+0	1.000903E+0	1.019193E+0	1.010802E+0	1.006966E+0	1.072791E+0	1.027836E+0	1.018560E+0	9.864561E-1	9.997369E-1	1.029863E+0	9.973763E-1	1.020249E+0	9.643333E-1	1.071726E+0	1.019017E+0	9.490377E-1	1.075397E+0	1.017748E+0	1.010591E+0	1.004838E+0	1.023934E+0	1.026242E+0	1.035177E+0	1.011106E+0	9.765441E-1	9.837822E-1	9.834959E-1	9.914348E-1	1.017623E+0	1.031097E+0	1.073310E+0	9.879130E-1	1.024518E+0	1.044381E+0	1.021050E+0	1.022060E+0	1.037256E+0	9.842081E-1	9.858001E-1	9.912120E-1	9.665664E-1	1.018262E+0	9.904749E-1	1.034246E+0	9.963760E-1	1.026640E+0	1.030724E+0	1.028693E+0	1.063495E+0	1.038481E+0	9.873536E-1	1.037059E+0	9.992871E-1	1.038222E+0
5.430070E+2	1.116152E+0	1.114789E+0	1.189931E+0	1.126677E+0	1.164200E+0	1.164710E+0	1.133683E+0	1.126133E+0	1.181282E+0	1.098388E+0	1.157072E+0	1.125291E+0	1.137851E+0	1.135866E+0	1.104849E+0	1.140076E+0	1.172448E+0	1.159236E+0	1.141207E+0	1.111316E+0	1.141294E+0	1.153133E+0	1.131474E+0	1.167489E+0	1.158364E+0	1.176083E+0	1.119045E+0	1.192159E+0	1.131219E+0	1.147183E+0	1.108602E+0	1.130690E+0	1.173431E+0	1.128906E+0	1.140272E+0	1.127145E+0	1.128867E+0	1.162778E+0	1.211816E+0	1.106956E+0	1.144658E+0	1.135259E+0	1.138026E+0	1.160929E+0	1.115906E+0	1.136539E+0	1.158940E+0	1.098385E+0	1.184842E+0	1.153346E+0	1.168116E+0	1.149986E+0	1.123201E+0	1.131504E+0	1.140805E+0	1.131489E+0	1.149995E+0	1.129727E+0	1.113377E+0	1.084646E+0	1.144219E+0	1.162086E+0	1.156154E+0	1.074487E+0	1.204478E+0	1.141389E+0	1.133901E+0	1.130250E+0	1.154248E+0	1.157432E+0	1.144745E+0	1.126391E+0	1.125240E+0	1.084994E+0	1.177212E+0	1.065268E+0	1.136530E+0	1.153946E+0	1.139930E+0	1.147939E+0	1.172139E+0	1.157733E+0	1.155438E+0	1.108044E+0	1.119735E+0	1.177306E+0	1.123342E+0	1.104299E+0	1.121209E+0	1.116089E+0	1.118936E+0	1.128080E+0	1.123701E+0	1.170220E+0	1.161990E+0	1.126110E+0	1.110222E+0	1.103434E+0	1.112257E+0	1.116445E+0	1.108263E+0	1.131210E+0	1.129276E+0	1.150436E+0	1.116535E+0	1.144235E+0	1.120885E+0	1.149007E+0	1.149550E+0	1.140785E+0	1.128064E+0	1.144299E+0	1.174883E+0	1.127098E+0	1.156839E+0	1.155279E+0	1.099427E+0	1.164066E+0	1.189158E+0	1.107041E+0	1.147370E+0	1.144366E+0	1.100868E+0	1.124670E+0	1.085336E+0	1.160653E+0	1.118353E+0	1.137917E+0	1.161500E+0	1.175542E+0	1.130272E+0	1.097754E+0	1.214385E+0	1.149069E+0	1.131433E+0	1.100389E+0	1.093216E+0	1.142922E+0	1.141889E+0	1.111963E+0	1.148545E+0	1.105019E+0	1.136127E+0	1.130997E+0	1.091205E+0	1.183389E+0	1.102240E+0	1.115902E+0	1.170426E+0	1.160481E+0	1.104660E+0	1.138773E+0	1.185233E+0	1.121117E+0	1.109588E+0	1.144506E+0	1.124601E+0	1.108082E+0	1.132373E+0	1.133744E+0	1.129877E+0	1.086626E+0	1.109933E+0	1.123680E+0	1.106951E+0	1.134614E+0	1.137188E+0	1.130509E+0	1.136180E+0	1.195843E+0
5.432960E+2	1.297153E+0	1.286758E+0	1.281185E+0	1.251306E+0	1.283956E+0	1.251543E+0	1.234862E+0	1.261724E+0	1.243476E+0	1.282698E+0	1.307288E+0	1.297383E+0	1.298137E+0	1.291041E+0	1.264329E+0	1.303414E+0	1.301692E+0	1.287512E+0	1.303085E+0	1.279144E+0	1.332728E+0	1.279864E+0	1.261319E+0	1.359846E+0	1.305003E+0	1.325445E+0	1.309996E+0	1.293258E+0	1.303900E+0	1.278953E+0	1.271396E+0	1.251245E+0	1.312099E+0	1.310526E+0	1.293118E+0	1.324646E+0	1.327004E+0	1.331972E+0	1.308516E+0	1.326330E+0	1.311664E+0	1.294007E+0	1.254710E+0	1.261266E+0	1.327893E+0	1.306624E+0	1.284311E+0	1.315264E+0	1.340676E+0	1.300870E+0	1.304812E+0	1.312363E+0	1.267071E+0	1.285901E+0	1.274613E+0	1.241094E+0	1.312103E+0	1.307322E+0	1.278818E+0	1.270404E+0	1.307672E+0	1.258344E+0	1.305927E+0	1.314697E+0	1.299122E+0	1.300621E+0	1.271245E+0	1.263823E+0	1.339280E+0	1.302749E+0	1.306002E+0	1.265270E+0	1.267986E+0	1.296131E+0	1.292580E+0	1.308363E+0	1.242794E+0	1.302288E+0	1.304931E+0	1.270163E+0	1.332394E+0	1.321513E+0	1.313076E+0	1.269128E+0	1.289382E+0	1.263875E+0	1.300980E+0	1.332830E+0	1.310535E+0	1.246619E+0	1.239160E+0	1.262294E+0	1.315737E+0	1.289918E+0	1.289424E+0	1.299634E+0	1.292490E+0	1.316005E+0	1.268584E+0	1.272461E+0	1.311248E+0	1.326423E+0	1.324160E+0	1.288280E+0	1.246123E+0	1.280693E+0	1.288462E+0	1.271409E+0	1.261591E+0	1.278615E+0	1.283514E+0	1.285756E+0	1.291690E+0	1.305174E+0	1.269639E+0	1.268413E+0	1.317657E+0	1.313303E+0	1.325286E+0	1.250679E+0	1.316719E+0	1.263796E+0	1.289830E+0	1.246134E+0	1.335210E+0	1.276455E+0	1.310841E+0	1.275602E+0	1.342850E+0	1.302235E+0	1.307382E+0	1.239993E+0	1.282429E+0	1.307179E+0	1.321539E+0	1.273450E+0	1.282454E+0	1.256289E+0	1.314673E+0	1.275509E+0	1.276662E+0	1.305899E+0	1.296174E+0	1.239903E+0	1.327418E+0	1.297702E+0	1.279322E+0	1.262057E+0	1.268300E+0	1.312180E+0	1.306307E+0	1.293449E+0	1.330930E+0	1.283339E+0	1.290915E+0	1.290911E+0	1.301502E+0	1.311752E+0	1.306939E+0	1.294604E+0	1.262548E+0	1.287089E+0	1.315519E+0	1.254778E+0	1.285057E+0	1.270941E+0	1.278088E+0	1.288002E+0	1.274497E+0	1.250752E+0
5.435330E+2	1.428133E+0	1.463451E+0	1.449014E+0	1.431053E+0	1.415089E+0	1.444403E+0	1.441330E+0	1.480421E+0	1.492765E+0	1.487944E+0	1.524012E+0	1.496657E+0	1.467825E+0	1.467400E+0	1.420464E+0	1.471947E+0	1.441698E+0	1.505955E+0	1.476504E+0	1.448732E+0	1.497842E+0	1.431121E+0	1.476385E+0	1.461541E+0	1.424387E+0	1.456886E+0	1.397319E+0	1.475684E+0	1.494970E+0	1.445712E+0	1.414800E+0	1.388397E+0	1.471449E+0	1.448458E+0	1.418764E+0	1.441004E+0	1.453590E+0	1.456490E+0	1.480805E+0	1.470068E+0	1.444921E+0	1.514708E+0	1.403076E+0	1.488095E+0	1.479893E+0	1.470074E+0	1.445542E+0	1.385916E+0	1.480153E+0	1.486128E+0	1.460272E+0	1.399721E+0	1.438034E+0	1.467605E+0	1.490702E+0	1.427125E+0	1.481013E+0	1.458676E+0	1.481431E+0	1.460246E+0	1.449726E+0	1.425950E+0	1.466573E+0	1.400576E+0	1.421770E+0	1.441768E+0	1.388189E+0	1.445216E+0	1.463766E+0	1.434272E+0	1.444885E+0	1.482440E+0	1.391959E+0	1.485282E+0	1.413580E+0	1.430606E+0	1.391517E+0	1.447455E+0	1.422439E+0	1.470346E+0	1.462753E+0	1.466158E+0	1.475459E+0	1.485790E+0	1.429282E+0	1.417302E+0	1.400004E+0	1.471513E+0	1.479838E+0	1.430710E+0	1.450136E+0	1.439975E+0	1.451684E+0	1.468144E+0	1.391552E+0	1.439060E+0	1.469897E+0	1.488569E+0	1.472326E+0	1.412838E+0	1.439952E+0	1.465346E+0	1.481402E+0	1.440549E+0	1.426558E+0	1.401736E+0	1.438326E+0	1.424310E+0	1.423242E+0	1.431292E+0	1.453784E+0	1.451541E+0	1.447149E+0	1.462350E+0	1.432685E+0	1.444332E+0	1.472607E+0	1.469932E+0	1.446374E+0	1.425717E+0	1.434108E+0	1.411913E+0	1.426263E+0	1.462648E+0	1.455729E+0	1.481757E+0	1.481665E+0	1.445008E+0	1.446363E+0	1.462636E+0	1.441091E+0	1.425999E+0	1.436252E+0	1.432754E+0	1.432268E+0	1.389204E+0	1.476813E+0	1.439093E+0	1.416089E+0	1.416601E+0	1.431588E+0	1.425781E+0	1.446572E+0	1.434469E+0	1.413877E+0	1.433788E+0	1.494225E+0	1.410252E+0	1.417412E+0	1.416239E+0	1.413648E+0	1.418836E+0	1.418495E+0	1.429396E+0	1.413694E+0	1.414263E+0	1.443616E+0	1.430821E+0	1.432238E+0	1.427345E+0	1.467183E+0	1.410242E+0	1.429398E+0	1.490174E+0	1.413385E+0	1.470209E+0	1.372722E+0	1.516968E+0	1.371867E+0	1.559652E+0
5.437640E+2	1.555087E+0	1.573928E+0	1.599938E+0	1.609217E+0	1.522830E+0	1.607519E+0	1.523889E+0	1.541657E+0	1.550880E+0	1.571616E+0	1.630854E+0	1.628782E+0	1.542085E+0	1.526355E+0	1.503422E+0	1.526579E+0	1.562202E+0	1.594192E+0	1.572114E+0	1.650576E+0	1.573209E+0	1.563024E+0	1.609268E+0	1.599426E+0	1.549464E+0	1.604608E+0	1.540267E+0	1.608407E+0	1.579516E+0	1.505764E+0	1.539047E+0	1.562652E+0	1.554281E+0	1.562054E+0	1.584355E+0	1.560261E+0	1.582271E+0	1.633428E+0	1.591051E+0	1.536101E+0	1.538477E+0	1.579641E+0	1.527885E+0	1.549199E+0	1.555875E+0	1.574222E+0	1.565438E+0	1.533862E+0	1.573705E+0	1.642354E+0	1.541563E+0	1.530043E+0	1.609017E+0	1.559780E+0	1.536628E+0	1.612928E+0	1.589117E+0	1.574328E+0	1.552339E+0	1.524297E+0	1.528799E+0	1.571071E+0	1.595473E+0	1.486295E+0	1.585419E+0	1.574364E+0	1.508303E+0	1.518785E+0	1.559080E+0	1.636653E+0	1.559982E+0	1.556024E+0	1.600929E+0	1.577106E+0	1.569216E+0	1.497252E+0	1.560753E+0	1.579103E+0	1.596469E+0	1.551930E+0	1.572990E+0	1.587206E+0	1.581701E+0	1.556727E+0	1.523797E+0	1.536817E+0	1.542577E+0	1.579988E+0	1.529730E+0	1.559724E+0	1.554049E+0	1.532391E+0	1.531792E+0	1.558669E+0	1.584330E+0	1.554502E+0	1.603216E+0	1.593202E+0	1.579892E+0	1.535117E+0	1.562156E+0	1.533317E+0	1.530387E+0	1.529293E+0	1.557240E+0	1.467004E+0	1.507540E+0	1.521220E+0	1.522175E+0	1.605041E+0	1.573250E+0	1.582736E+0	1.616383E+0	1.539845E+0	1.587202E+0	1.556770E+0	1.574679E+0	1.617337E+0	1.561136E+0	1.502072E+0	1.498617E+0	1.536106E+0	1.478331E+0	1.508731E+0	1.540266E+0	1.542496E+0	1.545986E+0	1.521625E+0	1.573846E+0	1.614668E+0	1.544342E+0	1.523785E+0	1.554537E+0	1.497975E+0	1.543109E+0	1.497370E+0	1.585284E+0	1.535824E+0	1.576267E+0	1.518412E+0	1.518185E+0	1.510501E+0	1.534151E+0	1.540898E+0	1.525938E+0	1.517069E+0	1.556991E+0	1.496236E+0	1.567087E+0	1.532398E+0	1.542790E+0	1.519756E+0	1.563052E+0	1.549030E+0	1.542836E+0	1.557214E+0	1.528505E+0	1.526160E+0	1.490447E+0	1.582969E+0	1.472692E+0	1.508347E+0	1.528336E+0	1.520755E+0	1.508929E+0	1.526721E+0	1.514645E+0	1.559167E+0	1.491542E+0	1.589792E+0
5.440120E+2	1.631981E+0	1.656174E+0	1.704485E+0	1.628446E+0	1.633199E+0	1.683079E+0	1.646132E+0	1.679543E+0	1.606830E+0	1.615154E+0	1.642988E+0	1.643655E+0	1.668327E+0	1.615079E+0	1.624055E+0	1.636362E+0	1.658414E+0	1.614192E+0	1.607128E+0	1.587530E+0	1.598489E+0	1.693300E+0	1.596913E+0	1.654627E+0	1.554144E+0	1.678067E+0	1.596935E+0	1.752442E+0	1.603992E+0	1.639438E+0	1.607965E+0	1.596123E+0	1.628243E+0	1.674975E+0	1.647817E+0	1.620707E+0	1.675132E+0	1.666646E+0	1.667370E+0	1.637258E+0	1.633883E+0	1.599136E+0	1.635222E+0	1.638348E+0	1.620801E+0	1.637059E+0	1.664504E+0	1.637117E+0	1.578581E+0	1.706162E+0	1.633145E+0	1.602855E+0	1.572977E+0	1.665784E+0	1.681520E+0	1.625809E+0	1.614324E+0	1.650803E+0	1.604461E+0	1.621101E+0	1.644940E+0	1.651691E+0	1.639756E+0	1.589021E+0	1.608250E+0	1.629566E+0	1.678452E+0	1.639981E+0	1.665620E+0	1.628179E+0	1.658915E+0	1.614688E+0	1.628965E+0	1.582971E+0	1.540535E+0	1.685211E+0	1.571662E+0	1.586443E+0	1.580940E+0	1.585436E+0	1.647162E+0	1.574363E+0	1.611021E+0	1.597275E+0	1.624833E+0	1.651508E+0	1.588488E+0	1.676908E+0	1.668615E+0	1.630680E+0	1.596674E+0	1.628435E+0	1.599262E+0	1.633686E+0	1.678070E+0	1.651956E+0	1.692914E+0	1.647771E+0	1.655127E+0	1.596939E+0	1.730960E+0	1.630291E+0	1.634753E+0	1.628843E+0	1.605667E+0	1.612664E+0	1.566107E+0	1.634368E+0	1.580914E+0	1.637731E+0	1.640423E+0	1.605080E+0	1.617403E+0	1.658550E+0	1.582680E+0	1.697919E+0	1.634680E+0	1.605529E+0	1.637571E+0	1.601115E+0	1.637973E+0	1.610758E+0	1.591343E+0	1.646027E+0	1.574395E+0	1.599422E+0	1.617728E+0	1.625543E+0	1.602986E+0	1.624012E+0	1.603505E+0	1.611341E+0	1.582417E+0	1.608580E+0	1.620274E+0	1.556670E+0	1.658851E+0	1.672488E+0	1.614595E+0	1.576803E+0	1.649174E+0	1.562610E+0	1.623758E+0	1.656994E+0	1.616696E+0	1.632537E+0	1.547649E+0	1.595892E+0	1.640001E+0	1.637262E+0	1.577981E+0	1.646912E+0	1.624201E+0	1.602951E+0	1.585841E+0	1.595531E+0	1.625957E+0	1.599670E+0	1.619427E+0	1.553228E+0	1.669820E+0	1.626987E+0	1.569186E+0	1.574543E+0	1.572339E+0	1.554127E+0	1.619745E+0	1.567047E+0	1.496054E+0	1.667535E+0
5.442650E+2	1.630548E+0	1.697158E+0	1.640120E+0	1.612051E+0	1.627772E+0	1.693030E+0	1.619109E+0	1.622741E+0	1.626485E+0	1.618251E+0	1.686723E+0	1.645230E+0	1.660818E+0	1.637053E+0	1.580611E+0	1.615841E+0	1.634359E+0	1.676746E+0	1.608835E+0	1.678127E+0	1.652423E+0	1.639866E+0	1.609721E+0	1.620708E+0	1.624708E+0	1.636377E+0	1.594140E+0	1.633137E+0	1.612771E+0	1.656688E+0	1.611556E+0	1.595800E+0	1.590676E+0	1.619357E+0	1.593774E+0	1.647170E+0	1.603940E+0	1.678004E+0	1.677964E+0	1.606620E+0	1.625191E+0	1.611765E+0	1.570255E+0	1.642463E+0	1.565093E+0	1.657452E+0	1.644634E+0	1.629555E+0	1.618353E+0	1.636319E+0	1.649113E+0	1.666393E+0	1.588703E+0	1.675976E+0	1.665552E+0	1.622063E+0	1.602561E+0	1.665767E+0	1.636362E+0	1.577274E+0	1.689112E+0	1.624394E+0	1.610286E+0	1.691029E+0	1.646377E+0	1.603110E+0	1.649628E+0	1.646863E+0	1.635334E+0	1.659965E+0	1.607994E+0	1.676415E+0	1.618555E+0	1.673596E+0	1.621899E+0	1.621203E+0	1.580518E+0	1.610828E+0	1.605951E+0	1.639822E+0	1.596966E+0	1.598151E+0	1.657111E+0	1.627158E+0	1.574556E+0	1.695207E+0	1.603659E+0	1.694049E+0	1.636093E+0	1.649575E+0	1.623170E+0	1.602041E+0	1.660522E+0	1.603164E+0	1.643746E+0	1.615133E+0	1.675863E+0	1.649840E+0	1.608936E+0	1.652962E+0	1.643579E+0	1.604570E+0	1.621007E+0	1.631546E+0	1.568296E+0	1.588424E+0	1.596347E+0	1.613405E+0	1.580493E+0	1.616026E+0	1.567948E+0	1.588936E+0	1.592249E+0	1.631666E+0	1.617542E+0	1.599092E+0	1.593527E+0	1.558916E+0	1.620944E+0	1.651446E+0	1.591103E+0	1.604888E+0	1.612957E+0	1.592330E+0	1.627765E+0	1.644672E+0	1.628961E+0	1.591231E+0	1.651747E+0	1.637774E+0	1.572355E+0	1.590283E+0	1.664817E+0	1.574947E+0	1.602704E+0	1.578911E+0	1.627970E+0	1.568570E+0	1.580944E+0	1.600646E+0	1.591083E+0	1.594775E+0	1.617628E+0	1.654838E+0	1.584443E+0	1.614788E+0	1.595767E+0	1.566544E+0	1.602239E+0	1.623406E+0	1.633945E+0	1.589484E+0	1.648665E+0	1.587010E+0	1.628338E+0	1.618615E+0	1.618143E+0	1.604912E+0	1.584651E+0	1.585316E+0	1.589280E+0	1.667760E+0	1.643101E+0	1.542433E+0	1.613269E+0	1.615198E+0	1.631116E+0	1.561755E+0	1.546852E+0	1.583952E+0
5.445290E+2	1.582024E+0	1.510837E+0	1.615529E+0	1.583521E+0	1.500165E+0	1.579831E+0	1.566077E+0	1.583415E+0	1.602277E+0	1.536312E+0	1.583369E+0	1.617374E+0	1.553812E+0	1.575270E+0	1.543178E+0	1.582694E+0	1.532633E+0	1.629906E+0	1.544025E+0	1.545696E+0	1.587660E+0	1.583856E+0	1.581635E+0	1.589257E+0	1.547349E+0	1.552265E+0	1.614480E+0	1.584796E+0	1.505013E+0	1.552480E+0	1.549279E+0	1.538576E+0	1.545724E+0	1.561692E+0	1.544103E+0	1.496410E+0	1.543841E+0	1.622857E+0	1.583256E+0	1.592843E+0	1.523572E+0	1.579475E+0	1.534212E+0	1.571814E+0	1.462365E+0	1.557871E+0	1.535325E+0	1.499478E+0	1.541578E+0	1.584342E+0	1.502513E+0	1.661250E+0	1.487023E+0	1.627218E+0	1.596082E+0	1.539606E+0	1.562781E+0	1.630588E+0	1.575274E+0	1.543485E+0	1.554702E+0	1.610805E+0	1.580910E+0	1.557048E+0	1.554069E+0	1.588053E+0	1.545199E+0	1.563302E+0	1.528579E+0	1.566801E+0	1.506744E+0	1.527619E+0	1.562209E+0	1.575414E+0	1.564702E+0	1.532761E+0	1.531156E+0	1.547882E+0	1.546446E+0	1.554654E+0	1.527863E+0	1.548590E+0	1.609552E+0	1.521018E+0	1.556173E+0	1.565334E+0	1.615287E+0	1.569858E+0	1.555744E+0	1.553973E+0	1.532403E+0	1.548603E+0	1.570716E+0	1.553610E+0	1.536439E+0	1.518948E+0	1.532032E+0	1.585480E+0	1.585013E+0	1.580889E+0	1.574858E+0	1.540479E+0	1.577954E+0	1.538046E+0	1.503533E+0	1.538834E+0	1.584011E+0	1.555688E+0	1.565273E+0	1.508949E+0	1.574374E+0	1.570638E+0	1.596947E+0	1.606448E+0	1.567017E+0	1.570853E+0	1.533301E+0	1.547704E+0	1.547499E+0	1.507369E+0	1.547696E+0	1.527325E+0	1.533470E+0	1.529556E+0	1.465406E+0	1.556293E+0	1.547889E+0	1.529130E+0	1.523974E+0	1.566612E+0	1.534569E+0	1.496412E+0	1.518628E+0	1.497799E+0	1.580890E+0	1.580324E+0	1.534408E+0	1.586762E+0	1.585086E+0	1.548926E+0	1.542062E+0	1.538626E+0	1.594919E+0	1.524727E+0	1.494227E+0	1.542504E+0	1.545923E+0	1.550558E+0	1.553912E+0	1.512437E+0	1.553743E+0	1.562286E+0	1.576208E+0	1.539681E+0	1.567434E+0	1.513406E+0	1.513996E+0	1.536061E+0	1.521249E+0	1.532004E+0	1.522144E+0	1.565801E+0	1.485632E+0	1.489402E+0	1.517370E+0	1.499738E+0	1.576551E+0	1.533043E+0	1.466134E+0	1.524744E+0
5.447720E+2	1.485892E+0	1.501384E+0	1.520574E+0	1.535685E+0	1.514556E+0	1.539165E+0	1.478752E+0	1.442938E+0	1.542172E+0	1.509789E+0	1.530748E+0	1.529903E+0	1.477473E+0	1.491576E+0	1.501358E+0	1.481256E+0	1.525527E+0	1.513086E+0	1.524190E+0	1.509316E+0	1.524328E+0	1.490330E+0	1.521978E+0	1.517035E+0	1.465643E+0	1.469271E+0	1.460905E+0	1.567587E+0	1.516551E+0	1.506349E+0	1.526332E+0	1.465552E+0	1.506128E+0	1.520570E+0	1.523889E+0	1.462892E+0	1.511600E+0	1.485483E+0	1.525583E+0	1.546038E+0	1.506918E+0	1.488671E+0	1.508546E+0	1.485610E+0	1.450320E+0	1.458628E+0	1.525972E+0	1.502298E+0	1.508286E+0	1.564072E+0	1.461997E+0	1.498799E+0	1.446933E+0	1.493345E+0	1.550159E+0	1.482336E+0	1.483671E+0	1.488680E+0	1.557077E+0	1.489172E+0	1.508523E+0	1.499908E+0	1.513918E+0	1.465794E+0	1.511219E+0	1.515510E+0	1.510593E+0	1.457457E+0	1.482004E+0	1.515968E+0	1.489938E+0	1.481253E+0	1.447556E+0	1.510141E+0	1.491648E+0	1.508040E+0	1.483890E+0	1.489703E+0	1.462828E+0	1.483763E+0	1.499153E+0	1.500838E+0	1.538057E+0	1.452984E+0	1.507440E+0	1.501119E+0	1.487209E+0	1.530706E+0	1.463588E+0	1.488681E+0	1.481790E+0	1.486392E+0	1.489444E+0	1.470148E+0	1.503270E+0	1.498602E+0	1.500631E+0	1.573692E+0	1.489237E+0	1.494455E+0	1.468377E+0	1.520803E+0	1.499649E+0	1.499859E+0	1.477209E+0	1.516871E+0	1.458457E+0	1.482329E+0	1.481787E+0	1.459929E+0	1.480974E+0	1.434998E+0	1.518474E+0	1.533455E+0	1.500003E+0	1.533534E+0	1.463548E+0	1.486611E+0	1.529566E+0	1.521373E+0	1.507935E+0	1.493416E+0	1.524301E+0	1.470701E+0	1.453302E+0	1.510028E+0	1.500982E+0	1.477434E+0	1.517386E+0	1.521155E+0	1.573884E+0	1.494781E+0	1.488296E+0	1.489084E+0	1.489055E+0	1.498326E+0	1.459138E+0	1.481532E+0	1.487558E+0	1.511610E+0	1.471281E+0	1.502872E+0	1.564343E+0	1.475599E+0	1.513688E+0	1.510203E+0	1.508678E+0	1.490222E+0	1.429572E+0	1.522860E+0	1.462899E+0	1.513663E+0	1.498287E+0	1.490187E+0	1.449810E+0	1.451828E+0	1.435290E+0	1.424887E+0	1.475013E+0	1.516712E+0	1.467128E+0	1.515875E+0	1.454520E+0	1.493299E+0	1.468699E+0	1.522702E+0	1.471120E+0	1.473330E+0	1.349993E+0	1.500009E+0
5.450200E+2	1.439922E+0	1.433876E+0	1.416402E+0	1.402468E+0	1.445462E+0	1.389107E+0	1.426795E+0	1.438890E+0	1.405953E+0	1.399123E+0	1.461782E+0	1.399762E+0	1.478908E+0	1.414848E+0	1.401289E+0	1.431953E+0	1.476160E+0	1.464020E+0	1.462525E+0	1.402936E+0	1.449776E+0	1.462953E+0	1.418147E+0	1.482611E+0	1.400157E+0	1.467870E+0	1.424207E+0	1.450927E+0	1.446441E+0	1.391635E+0	1.393401E+0	1.407133E+0	1.474410E+0	1.402475E+0	1.402271E+0	1.423707E+0	1.407275E+0	1.470282E+0	1.442644E+0	1.438587E+0	1.400349E+0	1.473089E+0	1.431582E+0	1.390691E+0	1.371676E+0	1.432614E+0	1.452206E+0	1.391864E+0	1.482233E+0	1.465532E+0	1.395404E+0	1.440016E+0	1.388945E+0	1.441516E+0	1.385766E+0	1.471044E+0	1.483135E+0	1.424007E+0	1.398047E+0	1.440892E+0	1.419945E+0	1.436319E+0	1.438999E+0	1.449175E+0	1.453730E+0	1.404560E+0	1.482810E+0	1.452334E+0	1.423583E+0	1.435437E+0	1.404542E+0	1.438786E+0	1.399324E+0	1.517397E+0	1.429395E+0	1.409472E+0	1.382230E+0	1.447355E+0	1.419314E+0	1.402855E+0	1.442353E+0	1.475993E+0	1.416469E+0	1.417360E+0	1.413432E+0	1.415531E+0	1.418158E+0	1.488288E+0	1.415354E+0	1.458218E+0	1.387395E+0	1.435262E+0	1.398014E+0	1.442767E+0	1.430678E+0	1.429873E+0	1.418121E+0	1.482610E+0	1.359967E+0	1.403829E+0	1.497728E+0	1.392956E+0	1.474172E+0	1.477899E+0	1.392679E+0	1.376496E+0	1.428852E+0	1.377948E+0	1.368314E+0	1.431219E+0	1.444873E+0	1.407156E+0	1.417427E+0	1.458784E+0	1.424938E+0	1.435459E+0	1.391791E+0	1.391636E+0	1.440366E+0	1.434764E+0	1.400168E+0	1.401090E+0	1.448790E+0	1.383367E+0	1.367300E+0	1.431624E+0	1.437945E+0	1.383261E+0	1.425170E+0	1.469279E+0	1.446842E+0	1.431537E+0	1.422000E+0	1.449273E+0	1.395321E+0	1.386947E+0	1.433598E+0	1.455858E+0	1.452317E+0	1.426853E+0	1.321074E+0	1.437889E+0	1.420938E+0	1.443807E+0	1.387418E+0	1.393444E+0	1.470487E+0	1.393462E+0	1.413086E+0	1.461809E+0	1.345606E+0	1.404000E+0	1.431153E+0	1.390778E+0	1.428070E+0	1.430116E+0	1.425325E+0	1.385853E+0	1.344596E+0	1.434550E+0	1.439946E+0	1.427553E+0	1.426675E+0	1.408145E+0	1.392882E+0	1.403696E+0	1.459887E+0	1.455543E+0	1.368141E+0	1.299525E+0
5.452690E+2	1.397860E+0	1.427313E+0	1.363825E+0	1.353143E+0	1.306370E+0	1.373165E+0	1.372953E+0	1.369732E+0	1.326747E+0	1.306796E+0	1.437305E+0	1.365955E+0	1.363644E+0	1.391191E+0	1.333442E+0	1.368963E+0	1.321782E+0	1.405960E+0	1.369816E+0	1.330324E+0	1.311345E+0	1.426431E+0	1.386860E+0	1.434591E+0	1.308166E+0	1.380184E+0	1.352889E+0	1.402822E+0	1.394373E+0	1.362714E+0	1.348478E+0	1.367758E+0	1.361252E+0	1.365710E+0	1.358377E+0	1.363932E+0	1.338073E+0	1.387887E+0	1.373578E+0	1.380058E+0	1.371415E+0	1.365790E+0	1.309810E+0	1.398197E+0	1.371832E+0	1.378432E+0	1.386210E+0	1.339583E+0	1.418615E+0	1.374767E+0	1.386679E+0	1.337877E+0	1.318058E+0	1.327219E+0	1.410267E+0	1.331303E+0	1.382246E+0	1.400580E+0	1.372780E+0	1.350604E+0	1.356373E+0	1.385883E+0	1.363188E+0	1.285219E+0	1.347107E+0	1.376936E+0	1.298646E+0	1.343401E+0	1.344046E+0	1.366533E+0	1.400890E+0	1.357747E+0	1.338909E+0	1.397331E+0	1.320037E+0	1.393353E+0	1.375971E+0	1.359425E+0	1.332436E+0	1.369242E+0	1.310822E+0	1.389591E+0	1.379671E+0	1.373395E+0	1.316527E+0	1.373605E+0	1.320105E+0	1.343172E+0	1.379967E+0	1.264854E+0	1.350114E+0	1.362369E+0	1.301306E+0	1.360684E+0	1.387280E+0	1.337245E+0	1.313050E+0	1.367922E+0	1.317755E+0	1.373192E+0	1.325992E+0	1.412427E+0	1.305717E+0	1.367588E+0	1.307099E+0	1.365819E+0	1.304752E+0	1.311682E+0	1.359965E+0	1.386037E+0	1.362203E+0	1.287834E+0	1.327419E+0	1.347514E+0	1.373483E+0	1.346317E+0	1.303133E+0	1.455741E+0	1.391419E+0	1.324577E+0	1.362128E+0	1.289255E+0	1.341420E+0	1.398398E+0	1.313635E+0	1.421603E+0	1.368114E+0	1.334062E+0	1.354922E+0	1.399814E+0	1.451987E+0	1.265710E+0	1.340435E+0	1.391799E+0	1.348046E+0	1.379157E+0	1.307004E+0	1.388259E+0	1.377956E+0	1.385295E+0	1.317443E+0	1.341176E+0	1.341837E+0	1.341372E+0	1.254272E+0	1.387140E+0	1.382409E+0	1.281055E+0	1.348901E+0	1.372087E+0	1.326602E+0	1.364316E+0	1.300300E+0	1.339056E+0	1.333813E+0	1.407116E+0	1.336360E+0	1.318436E+0	1.350562E+0	1.358400E+0	1.331778E+0	1.376559E+0	1.339344E+0	1.379712E+0	1.377539E+0	1.363126E+0	1.339100E+0	1.390108E+0	1.352107E+0	1.406618E+0
5.455450E+2	1.321559E+0	1.220009E+0	1.277555E+0	1.241291E+0	1.278750E+0	1.215135E+0	1.292890E+0	1.265019E+0	1.280567E+0	1.221181E+0	1.258580E+0	1.309158E+0	1.237875E+0	1.282031E+0	1.241188E+0	1.252425E+0	1.230341E+0	1.261174E+0	1.296831E+0	1.307479E+0	1.275917E+0	1.235240E+0	1.247567E+0	1.321033E+0	1.285366E+0	1.320339E+0	1.274624E+0	1.309816E+0	1.261247E+0	1.280294E+0	1.250208E+0	1.278790E+0	1.317311E+0	1.243767E+0	1.301629E+0	1.254984E+0	1.257948E+0	1.295556E+0	1.296414E+0	1.251907E+0	1.289371E+0	1.300416E+0	1.263469E+0	1.256803E+0	1.235275E+0	1.328424E+0	1.306544E+0	1.244708E+0	1.255607E+0	1.277893E+0	1.270643E+0	1.221568E+0	1.296310E+0	1.294312E+0	1.302475E+0	1.258341E+0	1.254867E+0	1.288050E+0	1.342601E+0	1.221569E+0	1.279654E+0	1.260717E+0	1.281563E+0	1.260816E+0	1.259775E+0	1.280091E+0	1.287539E+0	1.291703E+0	1.293802E+0	1.273365E+0	1.257774E+0	1.284006E+0	1.233566E+0	1.259016E+0	1.225399E+0	1.274244E+0	1.245480E+0	1.263227E+0	1.254787E+0	1.265647E+0	1.267890E+0	1.243354E+0	1.290585E+0	1.274982E+0	1.237522E+0	1.285294E+0	1.315017E+0	1.308035E+0	1.247688E+0	1.269278E+0	1.240811E+0	1.256970E+0	1.245489E+0	1.300118E+0	1.251768E+0	1.239643E+0	1.269023E+0	1.314159E+0	1.268118E+0	1.314559E+0	1.272315E+0	1.333415E+0	1.240347E+0	1.272406E+0	1.260492E+0	1.240164E+0	1.299846E+0	1.240884E+0	1.252696E+0	1.258099E+0	1.270477E+0	1.241336E+0	1.255172E+0	1.267972E+0	1.295042E+0	1.271013E+0	1.288698E+0	1.270301E+0	1.321398E+0	1.277810E+0	1.236674E+0	1.264570E+0	1.252251E+0	1.257594E+0	1.242075E+0	1.272167E+0	1.289058E+0	1.285752E+0	1.254920E+0	1.355640E+0	1.279464E+0	1.223925E+0	1.280456E+0	1.243743E+0	1.306272E+0	1.302243E+0	1.267743E+0	1.279340E+0	1.210955E+0	1.274396E+0	1.220731E+0	1.283215E+0	1.300772E+0	1.258907E+0	1.235845E+0	1.278988E+0	1.288065E+0	1.245102E+0	1.273217E+0	1.333993E+0	1.253899E+0	1.299720E+0	1.284382E+0	1.279168E+0	1.318542E+0	1.272779E+0	1.272050E+0	1.277359E+0	1.245569E+0	1.260439E+0	1.240288E+0	1.249734E+0	1.308460E+0	1.262602E+0	1.262356E+0	1.326425E+0	1.286904E+0	1.248877E+0	1.224797E+0	1.176796E+0
5.457890E+2	1.177846E+0	1.186665E+0	1.291699E+0	1.210693E+0	1.221893E+0	1.215285E+0	1.244854E+0	1.245476E+0	1.221570E+0	1.218196E+0	1.238848E+0	1.218469E+0	1.227633E+0	1.227855E+0	1.215649E+0	1.207007E+0	1.191893E+0	1.251799E+0	1.280508E+0	1.225468E+0	1.157321E+0	1.204396E+0	1.211427E+0	1.241861E+0	1.170123E+0	1.168369E+0	1.205777E+0	1.290340E+0	1.192193E+0	1.201006E+0	1.210265E+0	1.185379E+0	1.293372E+0	1.189777E+0	1.249478E+0	1.243353E+0	1.221415E+0	1.226076E+0	1.210164E+0	1.187605E+0	1.263006E+0	1.212500E+0	1.243842E+0	1.196338E+0	1.222070E+0	1.208418E+0	1.232048E+0	1.204010E+0	1.225957E+0	1.199706E+0	1.201493E+0	1.225339E+0	1.158693E+0	1.240173E+0	1.235008E+0	1.212841E+0	1.198143E+0	1.223867E+0	1.248130E+0	1.168488E+0	1.182406E+0	1.206825E+0	1.229329E+0	1.223330E+0	1.243982E+0	1.203409E+0	1.213881E+0	1.205131E+0	1.217814E+0	1.221615E+0	1.219196E+0	1.223034E+0	1.215718E+0	1.226221E+0	1.180452E+0	1.192176E+0	1.221138E+0	1.202408E+0	1.204031E+0	1.180037E+0	1.155050E+0	1.222743E+0	1.253770E+0	1.222802E+0	1.238437E+0	1.224454E+0	1.201243E+0	1.231001E+0	1.161269E+0	1.234151E+0	1.192089E+0	1.178333E+0	1.255986E+0	1.206652E+0	1.182277E+0	1.185876E+0	1.191535E+0	1.252365E+0	1.233073E+0	1.237583E+0	1.212708E+0	1.189520E+0	1.185267E+0	1.237640E+0	1.212211E+0	1.204566E+0	1.177388E+0	1.205745E+0	1.222822E+0	1.246959E+0	1.199153E+0	1.221113E+0	1.219527E+0	1.208954E+0	1.230890E+0	1.196255E+0	1.182944E+0	1.201916E+0	1.237902E+0	1.192921E+0	1.206893E+0	1.222153E+0	1.211093E+0	1.238727E+0	1.206888E+0	1.233908E+0	1.203798E+0	1.221226E+0	1.240912E+0	1.257947E+0	1.279423E+0	1.205648E+0	1.215764E+0	1.224524E+0	1.261754E+0	1.259612E+0	1.176547E+0	1.236636E+0	1.241358E+0	1.215861E+0	1.202487E+0	1.185286E+0	1.195528E+0	1.217977E+0	1.167692E+0	1.163535E+0	1.184673E+0	1.204741E+0	1.194818E+0	1.233051E+0	1.193923E+0	1.187845E+0	1.204361E+0	1.140340E+0	1.215116E+0	1.191348E+0	1.202051E+0	1.169943E+0	1.242662E+0	1.174790E+0	1.219804E+0	1.201819E+0	1.204999E+0	1.181109E+0	1.225972E+0	1.183741E+0	1.232548E+0	1.222454E+0	1.098437E+0	1.273324E+0
5.460110E+2	1.219356E+0	1.165109E+0	1.210457E+0	1.151332E+0	1.161759E+0	1.210897E+0	1.213400E+0	1.238344E+0	1.217275E+0	1.224135E+0	1.193311E+0	1.209558E+0	1.178638E+0	1.186028E+0	1.184135E+0	1.192725E+0	1.197794E+0	1.235393E+0	1.235545E+0	1.177266E+0	1.164491E+0	1.155846E+0	1.198301E+0	1.254919E+0	1.208992E+0	1.228965E+0	1.208198E+0	1.246230E+0	1.208892E+0	1.193303E+0	1.146707E+0	1.176684E+0	1.198609E+0	1.147263E+0	1.150814E+0	1.182895E+0	1.200270E+0	1.184597E+0	1.220541E+0	1.226039E+0	1.177189E+0	1.199037E+0	1.188267E+0	1.208577E+0	1.203950E+0	1.187149E+0	1.172817E+0	1.178888E+0	1.218848E+0	1.189880E+0	1.179563E+0	1.159384E+0	1.203811E+0	1.288404E+0	1.192625E+0	1.236645E+0	1.189348E+0	1.222595E+0	1.206027E+0	1.167272E+0	1.246731E+0	1.178871E+0	1.209119E+0	1.234867E+0	1.144587E+0	1.205505E+0	1.217706E+0	1.209866E+0	1.160788E+0	1.203419E+0	1.162456E+0	1.127584E+0	1.192700E+0	1.200116E+0	1.227833E+0	1.188161E+0	1.181920E+0	1.191926E+0	1.166032E+0	1.191849E+0	1.180832E+0	1.219171E+0	1.172717E+0	1.184996E+0	1.143392E+0	1.192547E+0	1.205083E+0	1.212243E+0	1.234427E+0	1.229598E+0	1.158393E+0	1.193544E+0	1.174583E+0	1.182581E+0	1.168389E+0	1.159011E+0	1.210599E+0	1.196727E+0	1.149677E+0	1.206319E+0	1.187453E+0	1.155504E+0	1.179055E+0	1.176255E+0	1.144947E+0	1.149247E+0	1.228082E+0	1.192567E+0	1.160744E+0	1.214615E+0	1.177611E+0	1.164907E+0	1.180987E+0	1.281123E+0	1.206066E+0	1.174357E+0	1.174673E+0	1.220924E+0	1.182359E+0	1.117614E+0	1.186543E+0	1.161469E+0	1.171992E+0	1.188027E+0	1.125488E+0	1.200350E+0	1.161508E+0	1.175517E+0	1.181340E+0	1.225259E+0	1.147639E+0	1.208020E+0	1.184393E+0	1.191026E+0	1.191733E+0	1.217353E+0	1.184106E+0	1.193740E+0	1.191984E+0	1.214644E+0	1.164247E+0	1.195383E+0	1.185753E+0	1.158407E+0	1.148504E+0	1.212191E+0	1.159842E+0	1.167069E+0	1.173929E+0	1.232642E+0	1.182766E+0	1.233192E+0	1.209628E+0	1.183973E+0	1.163763E+0	1.178376E+0	1.170068E+0	1.213399E+0	1.164790E+0	1.205688E+0	1.196385E+0	1.214998E+0	1.191551E+0	1.154179E+0	1.185516E+0	1.178604E+0	1.185870E+0	1.224929E+0	1.192864E+0	1.167955E+0
5.467710E+2	1.269203E+0	1.227334E+0	1.270521E+0	1.236651E+0	1.215264E+0	1.265359E+0	1.314667E+0	1.240723E+0	1.191535E+0	1.275100E+0	1.266786E+0	1.240775E+0	1.257208E+0	1.258503E+0	1.222285E+0	1.260046E+0	1.250346E+0	1.228860E+0	1.229645E+0	1.230239E+0	1.246092E+0	1.244321E+0	1.305518E+0	1.306937E+0	1.230457E+0	1.250369E+0	1.212128E+0	1.281679E+0	1.236444E+0	1.239863E+0	1.260205E+0	1.225008E+0	1.287007E+0	1.216802E+0	1.246715E+0	1.238727E+0	1.237551E+0	1.248467E+0	1.277331E+0	1.293674E+0	1.278804E+0	1.221559E+0	1.226624E+0	1.258842E+0	1.241655E+0	1.251724E+0	1.280366E+0	1.251234E+0	1.294155E+0	1.270542E+0	1.282427E+0	1.259107E+0	1.248946E+0	1.265033E+0	1.309099E+0	1.260928E+0	1.276993E+0	1.244731E+0	1.258568E+0	1.260109E+0	1.203509E+0	1.221913E+0	1.263155E+0	1.229111E+0	1.295993E+0	1.261276E+0	1.249090E+0	1.253621E+0	1.251737E+0	1.257476E+0	1.276842E+0	1.280185E+0	1.225347E+0	1.265847E+0	1.246134E+0	1.274201E+0	1.249891E+0	1.305000E+0	1.264648E+0	1.242404E+0	1.244799E+0	1.251933E+0	1.285895E+0	1.263606E+0	1.259000E+0	1.228778E+0	1.255438E+0	1.249401E+0	1.228832E+0	1.283744E+0	1.234462E+0	1.298169E+0	1.270175E+0	1.230409E+0	1.264249E+0	1.258904E+0	1.285347E+0	1.242917E+0	1.257356E+0	1.250648E+0	1.249559E+0	1.220127E+0	1.243171E+0	1.274955E+0	1.218854E+0	1.174683E+0	1.227031E+0	1.230796E+0	1.237448E+0	1.174992E+0	1.283374E+0	1.271402E+0	1.282426E+0	1.242413E+0	1.259891E+0	1.277416E+0	1.209262E+0	1.221827E+0	1.215839E+0	1.265065E+0	1.243423E+0	1.216504E+0	1.203879E+0	1.269427E+0	1.258030E+0	1.311996E+0	1.242504E+0	1.233477E+0	1.264349E+0	1.197971E+0	1.262268E+0	1.229378E+0	1.257758E+0	1.245617E+0	1.241801E+0	1.271569E+0	1.247371E+0	1.257020E+0	1.276744E+0	1.272628E+0	1.218882E+0	1.195568E+0	1.230227E+0	1.214819E+0	1.200563E+0	1.219692E+0	1.250786E+0	1.240839E+0	1.269936E+0	1.261406E+0	1.236850E+0	1.269509E+0	1.289875E+0	1.283168E+0	1.239935E+0	1.270236E+0	1.224996E+0	1.217866E+0	1.249344E+0	1.256637E+0	1.237542E+0	1.265667E+0	1.259961E+0	1.246512E+0	1.256174E+0	1.251061E+0	1.268065E+0	1.216089E+0	1.252119E+0	1.273967E+0
5.475070E+2	1.388165E+0	1.402823E+0	1.360572E+0	1.404762E+0	1.361487E+0	1.396333E+0	1.402710E+0	1.377367E+0	1.335908E+0	1.402800E+0	1.418611E+0	1.385637E+0	1.375844E+0	1.359983E+0	1.343476E+0	1.359940E+0	1.371562E+0	1.359377E+0	1.380975E+0	1.388109E+0	1.383600E+0	1.374374E+0	1.415549E+0	1.420492E+0	1.368365E+0	1.442096E+0	1.419912E+0	1.403526E+0	1.380566E+0	1.361693E+0	1.383002E+0	1.403057E+0	1.363401E+0	1.350816E+0	1.407331E+0	1.397852E+0	1.379295E+0	1.409169E+0	1.446975E+0	1.362318E+0	1.411468E+0	1.374278E+0	1.354892E+0	1.386000E+0	1.357844E+0	1.412195E+0	1.399378E+0	1.370620E+0	1.379861E+0	1.353220E+0	1.352567E+0	1.420289E+0	1.393814E+0	1.391616E+0	1.377260E+0	1.349756E+0	1.340238E+0	1.370065E+0	1.381790E+0	1.368713E+0	1.349489E+0	1.350112E+0	1.429379E+0	1.346323E+0	1.376053E+0	1.404371E+0	1.417165E+0	1.392421E+0	1.385678E+0	1.348839E+0	1.374867E+0	1.381158E+0	1.309894E+0	1.392086E+0	1.345285E+0	1.383322E+0	1.359146E+0	1.423645E+0	1.417613E+0	1.364127E+0	1.370360E+0	1.393636E+0	1.415459E+0	1.376048E+0	1.329305E+0	1.358133E+0	1.412151E+0	1.403733E+0	1.378629E+0	1.370449E+0	1.331262E+0	1.354615E+0	1.398920E+0	1.349440E+0	1.395067E+0	1.371786E+0	1.372799E+0	1.399765E+0	1.353559E+0	1.398618E+0	1.407995E+0	1.381308E+0	1.420740E+0	1.408661E+0	1.382142E+0	1.348789E+0	1.356527E+0	1.354518E+0	1.366361E+0	1.388945E+0	1.385998E+0	1.308494E+0	1.381049E+0	1.404900E+0	1.356264E+0	1.345708E+0	1.344786E+0	1.396082E+0	1.406593E+0	1.367882E+0	1.303925E+0	1.376397E+0	1.350444E+0	1.353964E+0	1.426136E+0	1.350645E+0	1.366818E+0	1.325585E+0	1.447032E+0	1.372491E+0	1.420689E+0	1.374882E+0	1.357331E+0	1.327285E+0	1.415704E+0	1.419420E+0	1.339366E+0	1.349162E+0	1.390189E+0	1.402918E+0	1.365205E+0	1.378587E+0	1.387955E+0	1.371698E+0	1.348447E+0	1.354908E+0	1.419319E+0	1.336417E+0	1.366394E+0	1.356604E+0	1.354269E+0	1.325506E+0	1.356413E+0	1.286352E+0	1.369251E+0	1.344883E+0	1.356121E+0	1.396437E+0	1.382476E+0	1.370891E+0	1.341252E+0	1.338052E+0	1.428054E+0	1.400711E+0	1.382719E+0	1.368377E+0	1.370605E+0	1.379146E+0	1.306714E+0	1.401361E+0
5.482600E+2	1.454740E+0	1.508719E+0	1.501575E+0	1.462722E+0	1.480636E+0	1.471021E+0	1.506650E+0	1.475764E+0	1.518973E+0	1.472832E+0	1.507547E+0	1.460679E+0	1.479933E+0	1.481749E+0	1.444128E+0	1.393815E+0	1.427695E+0	1.512722E+0	1.480343E+0	1.453006E+0	1.407559E+0	1.521224E+0	1.499765E+0	1.556117E+0	1.449103E+0	1.471009E+0	1.408741E+0	1.484148E+0	1.428533E+0	1.496174E+0	1.429394E+0	1.448318E+0	1.462421E+0	1.480202E+0	1.430283E+0	1.461802E+0	1.481152E+0	1.465494E+0	1.442831E+0	1.486772E+0	1.514283E+0	1.441799E+0	1.415514E+0	1.469405E+0	1.441021E+0	1.456377E+0	1.477768E+0	1.460520E+0	1.509233E+0	1.474840E+0	1.493657E+0	1.506920E+0	1.429065E+0	1.459898E+0	1.532276E+0	1.423285E+0	1.472797E+0	1.460268E+0	1.489862E+0	1.472534E+0	1.419230E+0	1.451056E+0	1.471857E+0	1.498528E+0	1.438772E+0	1.460305E+0	1.487065E+0	1.444461E+0	1.483012E+0	1.495103E+0	1.475157E+0	1.485852E+0	1.467901E+0	1.505874E+0	1.478066E+0	1.474414E+0	1.427431E+0	1.450958E+0	1.435687E+0	1.474546E+0	1.481501E+0	1.467517E+0	1.465406E+0	1.476843E+0	1.415100E+0	1.468696E+0	1.519345E+0	1.487496E+0	1.454798E+0	1.439713E+0	1.433373E+0	1.410413E+0	1.447306E+0	1.500713E+0	1.459111E+0	1.442973E+0	1.478012E+0	1.420731E+0	1.473647E+0	1.432768E+0	1.455998E+0	1.482323E+0	1.495313E+0	1.420856E+0	1.429889E+0	1.424907E+0	1.452159E+0	1.460087E+0	1.450781E+0	1.460885E+0	1.437402E+0	1.454387E+0	1.497828E+0	1.459860E+0	1.489128E+0	1.426834E+0	1.419383E+0	1.475942E+0	1.513072E+0	1.458527E+0	1.486543E+0	1.469583E+0	1.482386E+0	1.441160E+0	1.427119E+0	1.417129E+0	1.512378E+0	1.466472E+0	1.478559E+0	1.489784E+0	1.541642E+0	1.421658E+0	1.463844E+0	1.451966E+0	1.523619E+0	1.438613E+0	1.492177E+0	1.439714E+0	1.453145E+0	1.403016E+0	1.468514E+0	1.406896E+0	1.486477E+0	1.440517E+0	1.414086E+0	1.392924E+0	1.418339E+0	1.427702E+0	1.425875E+0	1.455863E+0	1.419406E+0	1.466348E+0	1.439499E+0	1.355260E+0	1.420759E+0	1.455410E+0	1.417237E+0	1.430495E+0	1.455164E+0	1.425775E+0	1.451757E+0	1.473176E+0	1.496433E+0	1.395500E+0	1.416583E+0	1.431992E+0	1.530712E+0	1.417493E+0	1.362490E+0	1.473295E+0
5.490380E+2	1.410052E+0	1.403160E+0	1.402505E+0	1.452559E+0	1.444939E+0	1.459233E+0	1.504442E+0	1.410622E+0	1.419822E+0	1.408516E+0	1.436878E+0	1.435699E+0	1.423637E+0	1.488726E+0	1.377868E+0	1.466595E+0	1.383860E+0	1.418014E+0	1.489890E+0	1.419312E+0	1.422549E+0	1.447727E+0	1.472378E+0	1.435274E+0	1.413893E+0	1.451066E+0	1.389053E+0	1.431703E+0	1.431769E+0	1.465364E+0	1.401138E+0	1.436255E+0	1.419677E+0	1.424466E+0	1.416408E+0	1.461752E+0	1.437323E+0	1.438160E+0	1.502701E+0	1.415074E+0	1.401960E+0	1.418443E+0	1.391128E+0	1.455077E+0	1.374962E+0	1.424930E+0	1.435389E+0	1.407832E+0	1.455733E+0	1.413282E+0	1.444910E+0	1.402809E+0	1.438971E+0	1.475215E+0	1.466420E+0	1.405455E+0	1.436110E+0	1.417992E+0	1.419368E+0	1.435290E+0	1.475111E+0	1.427260E+0	1.456189E+0	1.406427E+0	1.430112E+0	1.451669E+0	1.460898E+0	1.477891E+0	1.406766E+0	1.461254E+0	1.418877E+0	1.426539E+0	1.433050E+0	1.423361E+0	1.376166E+0	1.450881E+0	1.380213E+0	1.386964E+0	1.446500E+0	1.384563E+0	1.386974E+0	1.442272E+0	1.435092E+0	1.447263E+0	1.430826E+0	1.435696E+0	1.421806E+0	1.406771E+0	1.433320E+0	1.391395E+0	1.375739E+0	1.443544E+0	1.460059E+0	1.458068E+0	1.457528E+0	1.400588E+0	1.447968E+0	1.439572E+0	1.416263E+0	1.419287E+0	1.426363E+0	1.411750E+0	1.441909E+0	1.450743E+0	1.383230E+0	1.376461E+0	1.437698E+0	1.418770E+0	1.377046E+0	1.437983E+0	1.449386E+0	1.429768E+0	1.374695E+0	1.389282E+0	1.464946E+0	1.412887E+0	1.391057E+0	1.404579E+0	1.463134E+0	1.403010E+0	1.364897E+0	1.439386E+0	1.447363E+0	1.477387E+0	1.380838E+0	1.435212E+0	1.438120E+0	1.396111E+0	1.478749E+0	1.397920E+0	1.434561E+0	1.437031E+0	1.411933E+0	1.399157E+0	1.474389E+0	1.368073E+0	1.435849E+0	1.457841E+0	1.457897E+0	1.375401E+0	1.406324E+0	1.290795E+0	1.413038E+0	1.392304E+0	1.418608E+0	1.367509E+0	1.456259E+0	1.334142E+0	1.385739E+0	1.425841E+0	1.400922E+0	1.418201E+0	1.408951E+0	1.446247E+0	1.438837E+0	1.400333E+0	1.422072E+0	1.432574E+0	1.423809E+0	1.419386E+0	1.452427E+0	1.438275E+0	1.430979E+0	1.427980E+0	1.350733E+0	1.390448E+0	1.404170E+0	1.497819E+0	1.364757E+0	1.343829E+0
5.497850E+2	1.366428E+0	1.364632E+0	1.405021E+0	1.359478E+0	1.372755E+0	1.385912E+0	1.336017E+0	1.365069E+0	1.382443E+0	1.352083E+0	1.363259E+0	1.380024E+0	1.376476E+0	1.364622E+0	1.341643E+0	1.339444E+0	1.402732E+0	1.390329E+0	1.372976E+0	1.308855E+0	1.310025E+0	1.318829E+0	1.408756E+0	1.377325E+0	1.389761E+0	1.391309E+0	1.341178E+0	1.322950E+0	1.318453E+0	1.322797E+0	1.331782E+0	1.304897E+0	1.289408E+0	1.355744E+0	1.359115E+0	1.351216E+0	1.329743E+0	1.362423E+0	1.360808E+0	1.320359E+0	1.383856E+0	1.340503E+0	1.333879E+0	1.353150E+0	1.299547E+0	1.334610E+0	1.354781E+0	1.375420E+0	1.363688E+0	1.376509E+0	1.311083E+0	1.334850E+0	1.336974E+0	1.335829E+0	1.404522E+0	1.341785E+0	1.298129E+0	1.317681E+0	1.343879E+0	1.327866E+0	1.402623E+0	1.306370E+0	1.353817E+0	1.331035E+0	1.342090E+0	1.357749E+0	1.350990E+0	1.361757E+0	1.359209E+0	1.334956E+0	1.349771E+0	1.385944E+0	1.360010E+0	1.341952E+0	1.352653E+0	1.395623E+0	1.335653E+0	1.302795E+0	1.328489E+0	1.358608E+0	1.378177E+0	1.324908E+0	1.333478E+0	1.342940E+0	1.339022E+0	1.359896E+0	1.377138E+0	1.373546E+0	1.356751E+0	1.301463E+0	1.365936E+0	1.332094E+0	1.350029E+0	1.329340E+0	1.317834E+0	1.328293E+0	1.335197E+0	1.365756E+0	1.314641E+0	1.331262E+0	1.371992E+0	1.338957E+0	1.417584E+0	1.310561E+0	1.337042E+0	1.303889E+0	1.344082E+0	1.371341E+0	1.380652E+0	1.293566E+0	1.323029E+0	1.339461E+0	1.320069E+0	1.368890E+0	1.374486E+0	1.353149E+0	1.300371E+0	1.324977E+0	1.389587E+0	1.341014E+0	1.303901E+0	1.338485E+0	1.390536E+0	1.322276E+0	1.318512E+0	1.349759E+0	1.383253E+0	1.382539E+0	1.343693E+0	1.336545E+0	1.380792E+0	1.339111E+0	1.338298E+0	1.338597E+0	1.356119E+0	1.315072E+0	1.324576E+0	1.307702E+0	1.351487E+0	1.323006E+0	1.318564E+0	1.341443E+0	1.328418E+0	1.349076E+0	1.278711E+0	1.310497E+0	1.362155E+0	1.340019E+0	1.345281E+0	1.298969E+0	1.324665E+0	1.343218E+0	1.331267E+0	1.378298E+0	1.373771E+0	1.288816E+0	1.349391E+0	1.326125E+0	1.309852E+0	1.394454E+0	1.327161E+0	1.369525E+0	1.347101E+0	1.358634E+0	1.289659E+0	1.345973E+0	1.342266E+0	1.357640E+0	1.275180E+0	1.328629E+0
5.505170E+2	1.354856E+0	1.278925E+0	1.353541E+0	1.378918E+0	1.318153E+0	1.314317E+0	1.361391E+0	1.347282E+0	1.318149E+0	1.314395E+0	1.370387E+0	1.336523E+0	1.350593E+0	1.355954E+0	1.275671E+0	1.327538E+0	1.319190E+0	1.310192E+0	1.338847E+0	1.368427E+0	1.308891E+0	1.341918E+0	1.325260E+0	1.352052E+0	1.322036E+0	1.320757E+0	1.297407E+0	1.378578E+0	1.366175E+0	1.353110E+0	1.351087E+0	1.333351E+0	1.334576E+0	1.350431E+0	1.360069E+0	1.359850E+0	1.322840E+0	1.304122E+0	1.335929E+0	1.356477E+0	1.308212E+0	1.305100E+0	1.343042E+0	1.352766E+0	1.334337E+0	1.333640E+0	1.371579E+0	1.299995E+0	1.371484E+0	1.340048E+0	1.366579E+0	1.347668E+0	1.318452E+0	1.336433E+0	1.385428E+0	1.333811E+0	1.355980E+0	1.318684E+0	1.359125E+0	1.292654E+0	1.271734E+0	1.314636E+0	1.313059E+0	1.321413E+0	1.371226E+0	1.351103E+0	1.335164E+0	1.291715E+0	1.306452E+0	1.323919E+0	1.370576E+0	1.339021E+0	1.334921E+0	1.362858E+0	1.340803E+0	1.288097E+0	1.299191E+0	1.320044E+0	1.303765E+0	1.319663E+0	1.332669E+0	1.352822E+0	1.352719E+0	1.309287E+0	1.297288E+0	1.336773E+0	1.373287E+0	1.309839E+0	1.319595E+0	1.322807E+0	1.375864E+0	1.335173E+0	1.322065E+0	1.352709E+0	1.290337E+0	1.343979E+0	1.317737E+0	1.316881E+0	1.318827E+0	1.322638E+0	1.342512E+0	1.305626E+0	1.358625E+0	1.285904E+0	1.277077E+0	1.236179E+0	1.370842E+0	1.344459E+0	1.345570E+0	1.376207E+0	1.336604E+0	1.343190E+0	1.275908E+0	1.306316E+0	1.290107E+0	1.336898E+0	1.290794E+0	1.308653E+0	1.350839E+0	1.308056E+0	1.345255E+0	1.328397E+0	1.368550E+0	1.327939E+0	1.311210E+0	1.341845E+0	1.359069E+0	1.327763E+0	1.298675E+0	1.310397E+0	1.380140E+0	1.294608E+0	1.329668E+0	1.282631E+0	1.380517E+0	1.244349E+0	1.343220E+0	1.361531E+0	1.347518E+0	1.314613E+0	1.318240E+0	1.315421E+0	1.337170E+0	1.351957E+0	1.265382E+0	1.278281E+0	1.352510E+0	1.330474E+0	1.331835E+0	1.280925E+0	1.326195E+0	1.331433E+0	1.289767E+0	1.356732E+0	1.307315E+0	1.331782E+0	1.287642E+0	1.310924E+0	1.335110E+0	1.344445E+0	1.352580E+0	1.331732E+0	1.377071E+0	1.305754E+0	1.268628E+0	1.318688E+0	1.375294E+0	1.423397E+0	1.295511E+0	1.302486E+0
5.512620E+2	1.286795E+0	1.294650E+0	1.345248E+0	1.343909E+0	1.319855E+0	1.340354E+0	1.339526E+0	1.367469E+0	1.273539E+0	1.261241E+0	1.337312E+0	1.298575E+0	1.302659E+0	1.344331E+0	1.254611E+0	1.319716E+0	1.347389E+0	1.321173E+0	1.277052E+0	1.317882E+0	1.284158E+0	1.314192E+0	1.286072E+0	1.388309E+0	1.293955E+0	1.313493E+0	1.303826E+0	1.367291E+0	1.331906E+0	1.341455E+0	1.332095E+0	1.361308E+0	1.327540E+0	1.302963E+0	1.300286E+0	1.363352E+0	1.343320E+0	1.303379E+0	1.338143E+0	1.280345E+0	1.276974E+0	1.285682E+0	1.300674E+0	1.311233E+0	1.306168E+0	1.285914E+0	1.333989E+0	1.315591E+0	1.324139E+0	1.325383E+0	1.313510E+0	1.276268E+0	1.270163E+0	1.286990E+0	1.291562E+0	1.297753E+0	1.279992E+0	1.342183E+0	1.317278E+0	1.324849E+0	1.306713E+0	1.296149E+0	1.332138E+0	1.308650E+0	1.361141E+0	1.255459E+0	1.309077E+0	1.305462E+0	1.317537E+0	1.297695E+0	1.361765E+0	1.293807E+0	1.311307E+0	1.329837E+0	1.254291E+0	1.361430E+0	1.293639E+0	1.284099E+0	1.300522E+0	1.327171E+0	1.320973E+0	1.347211E+0	1.330369E+0	1.270539E+0	1.284428E+0	1.309666E+0	1.341893E+0	1.348689E+0	1.305485E+0	1.345403E+0	1.305226E+0	1.285415E+0	1.314456E+0	1.371576E+0	1.316809E+0	1.323355E+0	1.291181E+0	1.355693E+0	1.323273E+0	1.338160E+0	1.288340E+0	1.282852E+0	1.329095E+0	1.288822E+0	1.339779E+0	1.273401E+0	1.332737E+0	1.321476E+0	1.265086E+0	1.298856E+0	1.363615E+0	1.283411E+0	1.308991E+0	1.354029E+0	1.290821E+0	1.284512E+0	1.271597E+0	1.349532E+0	1.304304E+0	1.366074E+0	1.304943E+0	1.373859E+0	1.269865E+0	1.344643E+0	1.242760E+0	1.311479E+0	1.317291E+0	1.307654E+0	1.321141E+0	1.331283E+0	1.291960E+0	1.268740E+0	1.324707E+0	1.273172E+0	1.343519E+0	1.302574E+0	1.299388E+0	1.263119E+0	1.336287E+0	1.359981E+0	1.311385E+0	1.243760E+0	1.315648E+0	1.361089E+0	1.319219E+0	1.292566E+0	1.313170E+0	1.285193E+0	1.305109E+0	1.312396E+0	1.345647E+0	1.350312E+0	1.290850E+0	1.326379E+0	1.317960E+0	1.316886E+0	1.295482E+0	1.282435E+0	1.300379E+0	1.275575E+0	1.346112E+0	1.312033E+0	1.333401E+0	1.315435E+0	1.314696E+0	1.318834E+0	1.329217E+0	1.321587E+0	1.241259E+0	1.234264E+0
5.520210E+2	1.361729E+0	1.311813E+0	1.319342E+0	1.238836E+0	1.333324E+0	1.285956E+0	1.362663E+0	1.365589E+0	1.375281E+0	1.358699E+0	1.339539E+0	1.402514E+0	1.301496E+0	1.293754E+0	1.339687E+0	1.269965E+0	1.298720E+0	1.291886E+0	1.349155E+0	1.332423E+0	1.324701E+0	1.328969E+0	1.332541E+0	1.373133E+0	1.278916E+0	1.366888E+0	1.314998E+0	1.329444E+0	1.323170E+0	1.320589E+0	1.296141E+0	1.278803E+0	1.308369E+0	1.343804E+0	1.309572E+0	1.294370E+0	1.280665E+0	1.350964E+0	1.338009E+0	1.354271E+0	1.301359E+0	1.323181E+0	1.288268E+0	1.336314E+0	1.298420E+0	1.297192E+0	1.313024E+0	1.313138E+0	1.336913E+0	1.347637E+0	1.294866E+0	1.326675E+0	1.313722E+0	1.332116E+0	1.311657E+0	1.311220E+0	1.304158E+0	1.325653E+0	1.345631E+0	1.308163E+0	1.359604E+0	1.314037E+0	1.297176E+0	1.314847E+0	1.339202E+0	1.304387E+0	1.336813E+0	1.336365E+0	1.283371E+0	1.353961E+0	1.329067E+0	1.294395E+0	1.326692E+0	1.335720E+0	1.278539E+0	1.303102E+0	1.345808E+0	1.304674E+0	1.351038E+0	1.330693E+0	1.336978E+0	1.293946E+0	1.346318E+0	1.313261E+0	1.332680E+0	1.304627E+0	1.292365E+0	1.299933E+0	1.308596E+0	1.335985E+0	1.345978E+0	1.240325E+0	1.356667E+0	1.309534E+0	1.300173E+0	1.274362E+0	1.362164E+0	1.341746E+0	1.273678E+0	1.340077E+0	1.320575E+0	1.295413E+0	1.338890E+0	1.347280E+0	1.288916E+0	1.321768E+0	1.311191E+0	1.305306E+0	1.257390E+0	1.364997E+0	1.346387E+0	1.312887E+0	1.280345E+0	1.362756E+0	1.353976E+0	1.303114E+0	1.320934E+0	1.313634E+0	1.306954E+0	1.321179E+0	1.240310E+0	1.333847E+0	1.330817E+0	1.313195E+0	1.284249E+0	1.325760E+0	1.311380E+0	1.339430E+0	1.319218E+0	1.317250E+0	1.323320E+0	1.239056E+0	1.340029E+0	1.298286E+0	1.347190E+0	1.271719E+0	1.293036E+0	1.315945E+0	1.374030E+0	1.354205E+0	1.281851E+0	1.261553E+0	1.330508E+0	1.295883E+0	1.292567E+0	1.231331E+0	1.293508E+0	1.287877E+0	1.303059E+0	1.348263E+0	1.322572E+0	1.286431E+0	1.320851E+0	1.348123E+0	1.334354E+0	1.312882E+0	1.312556E+0	1.347413E+0	1.285663E+0	1.315519E+0	1.351294E+0	1.296050E+0	1.337490E+0	1.291343E+0	1.295582E+0	1.337436E+0	1.319479E+0	1.343537E+0	1.278175E+0	1.239650E+0
5.527650E+2	1.241469E+0	1.280186E+0	1.246369E+0	1.284012E+0	1.275171E+0	1.265306E+0	1.263137E+0	1.298740E+0	1.304824E+0	1.270234E+0	1.342013E+0	1.314202E+0	1.309970E+0	1.274504E+0	1.251364E+0	1.272901E+0	1.293814E+0	1.280253E+0	1.270870E+0	1.278796E+0	1.286376E+0	1.259158E+0	1.251015E+0	1.291125E+0	1.313794E+0	1.283328E+0	1.283618E+0	1.296818E+0	1.257409E+0	1.257706E+0	1.282421E+0	1.262994E+0	1.300382E+0	1.303422E+0	1.289297E+0	1.319869E+0	1.329648E+0	1.276106E+0	1.306621E+0	1.337685E+0	1.261109E+0	1.243783E+0	1.289169E+0	1.269907E+0	1.237399E+0	1.286540E+0	1.331321E+0	1.283440E+0	1.297980E+0	1.274217E+0	1.294851E+0	1.259620E+0	1.233755E+0	1.268061E+0	1.289295E+0	1.318958E+0	1.279030E+0	1.276590E+0	1.329031E+0	1.274994E+0	1.324149E+0	1.241001E+0	1.277455E+0	1.289685E+0	1.240624E+0	1.283227E+0	1.256129E+0	1.236916E+0	1.248917E+0	1.311656E+0	1.296645E+0	1.281497E+0	1.285402E+0	1.288631E+0	1.294416E+0	1.242201E+0	1.235841E+0	1.261596E+0	1.241100E+0	1.262232E+0	1.294610E+0	1.238017E+0	1.334973E+0	1.304941E+0	1.265508E+0	1.287070E+0	1.286454E+0	1.303281E+0	1.265129E+0	1.277935E+0	1.278677E+0	1.292934E+0	1.292738E+0	1.282295E+0	1.296611E+0	1.306164E+0	1.248815E+0	1.281689E+0	1.274585E+0	1.271682E+0	1.267221E+0	1.259742E+0	1.242717E+0	1.281630E+0	1.223484E+0	1.258999E+0	1.242739E+0	1.294408E+0	1.263220E+0	1.341352E+0	1.261873E+0	1.298699E+0	1.290511E+0	1.339326E+0	1.244357E+0	1.315496E+0	1.327084E+0	1.280788E+0	1.298000E+0	1.258923E+0	1.301284E+0	1.249879E+0	1.301159E+0	1.227677E+0	1.257693E+0	1.255169E+0	1.261551E+0	1.305139E+0	1.240471E+0	1.317155E+0	1.253659E+0	1.305125E+0	1.296884E+0	1.295038E+0	1.269451E+0	1.241789E+0	1.244327E+0	1.281261E+0	1.324619E+0	1.301471E+0	1.269146E+0	1.246066E+0	1.365087E+0	1.314597E+0	1.271522E+0	1.237301E+0	1.334260E+0	1.282347E+0	1.243461E+0	1.250897E+0	1.329716E+0	1.305622E+0	1.313567E+0	1.298636E+0	1.250565E+0	1.275374E+0	1.286642E+0	1.256683E+0	1.291294E+0	1.316269E+0	1.280534E+0	1.256498E+0	1.247059E+0	1.293244E+0	1.264262E+0	1.263692E+0	1.290171E+0	1.280808E+0	1.239944E+0	1.374819E+0
5.535160E+2	1.212822E+0	1.222809E+0	1.232075E+0	1.206123E+0	1.205950E+0	1.229327E+0	1.188870E+0	1.200283E+0	1.225742E+0	1.205264E+0	1.205412E+0	1.197124E+0	1.249266E+0	1.257123E+0	1.193413E+0	1.231848E+0	1.234581E+0	1.180742E+0	1.161805E+0	1.192839E+0	1.216730E+0	1.199807E+0	1.165130E+0	1.246073E+0	1.214875E+0	1.255659E+0	1.174566E+0	1.263711E+0	1.188384E+0	1.193516E+0	1.196533E+0	1.197149E+0	1.209795E+0	1.183600E+0	1.209348E+0	1.222226E+0	1.213292E+0	1.221079E+0	1.206952E+0	1.202957E+0	1.216583E+0	1.266037E+0	1.148041E+0	1.228359E+0	1.221230E+0	1.267350E+0	1.182953E+0	1.195415E+0	1.182277E+0	1.216628E+0	1.220105E+0	1.186203E+0	1.206005E+0	1.180377E+0	1.202959E+0	1.215712E+0	1.183208E+0	1.194612E+0	1.186775E+0	1.206965E+0	1.220629E+0	1.202686E+0	1.209232E+0	1.234484E+0	1.204160E+0	1.155431E+0	1.204211E+0	1.212098E+0	1.215679E+0	1.177485E+0	1.225988E+0	1.191622E+0	1.247071E+0	1.186191E+0	1.198424E+0	1.189224E+0	1.141970E+0	1.207941E+0	1.187228E+0	1.194942E+0	1.191024E+0	1.185408E+0	1.181155E+0	1.239051E+0	1.167323E+0	1.178499E+0	1.242223E+0	1.225790E+0	1.210102E+0	1.179911E+0	1.188125E+0	1.206488E+0	1.200872E+0	1.216900E+0	1.167534E+0	1.217797E+0	1.198920E+0	1.240581E+0	1.187954E+0	1.266540E+0	1.238394E+0	1.166012E+0	1.190463E+0	1.232632E+0	1.192822E+0	1.171522E+0	1.207529E+0	1.205955E+0	1.196363E+0	1.258396E+0	1.197489E+0	1.237167E+0	1.194525E+0	1.199023E+0	1.238128E+0	1.309774E+0	1.207110E+0	1.232067E+0	1.201793E+0	1.241457E+0	1.160355E+0	1.164870E+0	1.190974E+0	1.165844E+0	1.187170E+0	1.204664E+0	1.254227E+0	1.204788E+0	1.232898E+0	1.234809E+0	1.198873E+0	1.168756E+0	1.177650E+0	1.196652E+0	1.201945E+0	1.241325E+0	1.240056E+0	1.150729E+0	1.216515E+0	1.242173E+0	1.216875E+0	1.173368E+0	1.230082E+0	1.236672E+0	1.133336E+0	1.191758E+0	1.233737E+0	1.178988E+0	1.211430E+0	1.239183E+0	1.161200E+0	1.217044E+0	1.208809E+0	1.178123E+0	1.210648E+0	1.198521E+0	1.137676E+0	1.173425E+0	1.165239E+0	1.203471E+0	1.174802E+0	1.168312E+0	1.190918E+0	1.221645E+0	1.160372E+0	1.178641E+0	1.212466E+0	1.268231E+0	1.148320E+0	1.174798E+0
5.542580E+2	1.100132E+0	1.114551E+0	1.118600E+0	1.089291E+0	1.096628E+0	1.167822E+0	1.112586E+0	1.124614E+0	1.098562E+0	1.120080E+0	1.102224E+0	1.157722E+0	1.140650E+0	1.079256E+0	1.056615E+0	1.050211E+0	1.156140E+0	1.121307E+0	1.101712E+0	1.105462E+0	1.101740E+0	1.112446E+0	1.121301E+0	1.159963E+0	1.083377E+0	1.128441E+0	1.094864E+0	1.140243E+0	1.087936E+0	1.104710E+0	1.067968E+0	1.109311E+0	1.127717E+0	1.089013E+0	1.066120E+0	1.105757E+0	1.131850E+0	1.117730E+0	1.081322E+0	1.103137E+0	1.115254E+0	1.138476E+0	1.047222E+0	1.109861E+0	1.144239E+0	1.063331E+0	1.155455E+0	1.076695E+0	1.148309E+0	1.093835E+0	1.132878E+0	1.112907E+0	1.122060E+0	1.138270E+0	1.134412E+0	1.134859E+0	1.118929E+0	1.118440E+0	1.114409E+0	1.087914E+0	1.104861E+0	1.096367E+0	1.123852E+0	1.108662E+0	1.094178E+0	1.061280E+0	1.133927E+0	1.132825E+0	1.076631E+0	1.087152E+0	1.113490E+0	1.068973E+0	1.078612E+0	1.130369E+0	1.119869E+0	1.074550E+0	1.074659E+0	1.115182E+0	1.126457E+0	1.190255E+0	1.110479E+0	1.137666E+0	1.067547E+0	1.183163E+0	1.116632E+0	1.122517E+0	1.095869E+0	1.091293E+0	1.084474E+0	1.092665E+0	1.079269E+0	1.127540E+0	1.129592E+0	1.096719E+0	1.130955E+0	1.082207E+0	1.122595E+0	1.162998E+0	1.102658E+0	1.099763E+0	1.152000E+0	1.080961E+0	1.071259E+0	1.138511E+0	1.075406E+0	1.113715E+0	1.093895E+0	1.171084E+0	1.100603E+0	1.178294E+0	1.124727E+0	1.125027E+0	1.100132E+0	1.155741E+0	1.136096E+0	1.100226E+0	1.085923E+0	1.052998E+0	1.103496E+0	1.105972E+0	1.139732E+0	1.114067E+0	1.123028E+0	1.089904E+0	1.074954E+0	1.084749E+0	1.091255E+0	1.103349E+0	1.119625E+0	1.072765E+0	1.125648E+0	1.100231E+0	1.088838E+0	1.093202E+0	1.065507E+0	1.130852E+0	1.146621E+0	1.130253E+0	1.085587E+0	1.112895E+0	1.102734E+0	1.082692E+0	1.086889E+0	1.060113E+0	1.138719E+0	1.068916E+0	1.090540E+0	1.086374E+0	1.035994E+0	1.087854E+0	1.073322E+0	1.138343E+0	1.143372E+0	1.115866E+0	1.079566E+0	1.117164E+0	1.090473E+0	1.120764E+0	1.058244E+0	1.104653E+0	1.100638E+0	1.080005E+0	1.074652E+0	1.140825E+0	1.086794E+0	1.117387E+0	1.084896E+0	1.108328E+0	1.049793E+0	1.203730E+0
5.550190E+2	1.024558E+0	1.053246E+0	1.051176E+0	1.065440E+0	9.935419E-1	1.024413E+0	1.008349E+0	1.071432E+0	1.032320E+0	1.047231E+0	1.043463E+0	1.043298E+0	1.012007E+0	1.040852E+0	9.676683E-1	9.887079E-1	1.055014E+0	1.067569E+0	9.972233E-1	1.032943E+0	1.014609E+0	9.942048E-1	1.012947E+0	1.003253E+0	1.013632E+0	1.056015E+0	9.715700E-1	1.102838E+0	1.020873E+0	1.016243E+0	1.001696E+0	1.005200E+0	1.007784E+0	9.985648E-1	9.917983E-1	9.948651E-1	1.043375E+0	1.021914E+0	1.047145E+0	1.023840E+0	1.025604E+0	1.043907E+0	9.992890E-1	1.081753E+0	1.066438E+0	1.019722E+0	1.036014E+0	9.913228E-1	1.056598E+0	1.044856E+0	1.039700E+0	1.073458E+0	1.049509E+0	1.023294E+0	1.024624E+0	1.040408E+0	1.071110E+0	1.004930E+0	1.011911E+0	1.035388E+0	1.068356E+0	1.029968E+0	1.005338E+0	1.038332E+0	1.070688E+0	1.000935E+0	1.023285E+0	1.055913E+0	1.043891E+0	9.731276E-1	1.048951E+0	1.033093E+0	1.004255E+0	1.028858E+0	1.021861E+0	9.999297E-1	1.041853E+0	1.027532E+0	1.058191E+0	1.044840E+0	1.025428E+0	9.650417E-1	1.066277E+0	1.015101E+0	1.007541E+0	1.032132E+0	1.070857E+0	1.071493E+0	1.031773E+0	1.019564E+0	1.044897E+0	1.067321E+0	1.044019E+0	1.026078E+0	1.084263E+0	1.037434E+0	1.029089E+0	1.048250E+0	1.023482E+0	1.099710E+0	1.041250E+0	9.999344E-1	9.924763E-1	1.072395E+0	9.855603E-1	1.026302E+0	1.007745E+0	1.010808E+0	9.613199E-1	1.027560E+0	1.032045E+0	1.036214E+0	1.029095E+0	1.040494E+0	1.050455E+0	1.064667E+0	9.836185E-1	1.021621E+0	1.036575E+0	1.006139E+0	9.981834E-1	1.021618E+0	1.005154E+0	1.009595E+0	9.943394E-1	1.065704E+0	1.051903E+0	1.057835E+0	9.436039E-1	1.062837E+0	1.001464E+0	1.033688E+0	1.051477E+0	1.029785E+0	1.004196E+0	9.987734E-1	1.030570E+0	1.021503E+0	1.034598E+0	1.050942E+0	1.040203E+0	9.983406E-1	1.030651E+0	1.051902E+0	1.054154E+0	1.062858E+0	1.035400E+0	1.078958E+0	1.055156E+0	1.024402E+0	1.007894E+0	1.078137E+0	1.046797E+0	1.011692E+0	1.025952E+0	1.101211E+0	1.004597E+0	1.043274E+0	9.666001E-1	1.078604E+0	1.076476E+0	1.036960E+0	1.034076E+0	1.079631E+0	1.001682E+0	1.073584E+0	1.026944E+0	1.011761E+0	1.045976E+0	9.957074E-1
5.557710E+2	9.723402E-1	9.641842E-1	9.936999E-1	9.937978E-1	9.781499E-1	9.798871E-1	1.001143E+0	9.714660E-1	9.787349E-1	9.756787E-1	9.750893E-1	9.628203E-1	9.960595E-1	1.007770E+0	9.337073E-1	9.723138E-1	9.467180E-1	9.850916E-1	9.681201E-1	9.839369E-1	1.044401E+0	9.656092E-1	9.156675E-1	1.007774E+0	9.371689E-1	9.707891E-1	9.699758E-1	9.962077E-1	9.546768E-1	9.892871E-1	9.737616E-1	1.009069E+0	9.961516E-1	9.541619E-1	9.593083E-1	9.609574E-1	9.714670E-1	9.850970E-1	9.882721E-1	9.947121E-1	9.691018E-1	9.871948E-1	9.239748E-1	9.233785E-1	9.846465E-1	9.863330E-1	9.812665E-1	9.600167E-1	9.813362E-1	9.635592E-1	9.953707E-1	9.487962E-1	9.533513E-1	9.904959E-1	9.867284E-1	9.588329E-1	1.010546E+0	9.484822E-1	9.631026E-1	9.795549E-1	9.742741E-1	1.001781E+0	1.003668E+0	9.503080E-1	9.986917E-1	9.541172E-1	1.008760E+0	9.953481E-1	1.025676E+0	9.964401E-1	9.703216E-1	1.016796E+0	9.640498E-1	9.580596E-1	9.920978E-1	9.850653E-1	9.778622E-1	9.833077E-1	9.903544E-1	9.908257E-1	9.838432E-1	1.007120E+0	9.839445E-1	9.758111E-1	9.921070E-1	9.414975E-1	9.631284E-1	1.046805E+0	9.466584E-1	9.862937E-1	9.630612E-1	1.006965E+0	9.680877E-1	1.033032E+0	9.518778E-1	9.920027E-1	9.967561E-1	9.640821E-1	9.654777E-1	9.530579E-1	9.653978E-1	9.592726E-1	1.013555E+0	1.020074E+0	9.770864E-1	9.569995E-1	9.382871E-1	1.022563E+0	9.705099E-1	9.709267E-1	9.487908E-1	1.015311E+0	9.518587E-1	9.833213E-1	9.799752E-1	9.354554E-1	9.701432E-1	1.037598E+0	1.034008E+0	9.715504E-1	9.708368E-1	9.466550E-1	9.810857E-1	1.006172E+0	9.722468E-1	1.018432E+0	9.402218E-1	9.704793E-1	9.826052E-1	9.729231E-1	1.013812E+0	1.008879E+0	9.676210E-1	9.663106E-1	9.870693E-1	9.789236E-1	9.602462E-1	9.568247E-1	9.626316E-1	9.991589E-1	9.529733E-1	9.829386E-1	9.654436E-1	1.019094E+0	9.949174E-1	1.007109E+0	9.695028E-1	1.001589E+0	9.639006E-1	9.678760E-1	9.515244E-1	1.025755E+0	9.724461E-1	9.988388E-1	9.696684E-1	1.021947E+0	9.621777E-1	1.011013E+0	9.940343E-1	1.023916E+0	9.457972E-1	9.973288E-1	9.443730E-1	1.049992E+0	9.699856E-1	9.726506E-1	1.004692E+0	1.004243E+0	9.659499E-1	1.023024E+0
5.560130E+2	9.718761E-1	9.776610E-1	9.810229E-1	9.603891E-1	9.967830E-1	9.689102E-1	1.023452E+0	1.029822E+0	9.778119E-1	9.878091E-1	9.936677E-1	9.600728E-1	9.853234E-1	9.480247E-1	1.011230E+0	9.562698E-1	9.654433E-1	9.862689E-1	9.660221E-1	9.488265E-1	1.042031E+0	9.763376E-1	9.891146E-1	9.965944E-1	1.013693E+0	9.641911E-1	9.977243E-1	9.746415E-1	9.766241E-1	9.698550E-1	9.515366E-1	9.763147E-1	9.855252E-1	1.013000E+0	9.447245E-1	9.989732E-1	1.022340E+0	9.636172E-1	9.530802E-1	1.003409E+0	1.000807E+0	9.632431E-1	9.520914E-1	9.986297E-1	9.842817E-1	9.985992E-1	9.981922E-1	9.921793E-1	9.849349E-1	9.849253E-1	9.787186E-1	9.672026E-1	9.939923E-1	9.760887E-1	9.513805E-1	9.577518E-1	9.595492E-1	9.811746E-1	9.660510E-1	1.036615E+0	9.430225E-1	9.627688E-1	1.012574E+0	9.594489E-1	1.016040E+0	9.945996E-1	9.473412E-1	9.805932E-1	9.745392E-1	9.964829E-1	9.729965E-1	9.692212E-1	9.884060E-1	9.826083E-1	1.000634E+0	1.023718E+0	9.188222E-1	1.006996E+0	1.006779E+0	9.970181E-1	1.010171E+0	9.381755E-1	9.597923E-1	9.982014E-1	9.863709E-1	1.004077E+0	9.804998E-1	1.027637E+0	9.391595E-1	1.001184E+0	9.992994E-1	9.706310E-1	9.919950E-1	9.724255E-1	1.033834E+0	9.431767E-1	9.646128E-1	9.941736E-1	9.610395E-1	9.895691E-1	9.633998E-1	9.893462E-1	1.000955E+0	9.713325E-1	9.787434E-1	9.815740E-1	9.851492E-1	1.033289E+0	1.000769E+0	9.789759E-1	9.834520E-1	9.684608E-1	1.019116E+0	9.679189E-1	1.007555E+0	1.014930E+0	9.544490E-1	9.897582E-1	9.763163E-1	9.845431E-1	9.725891E-1	9.887053E-1	9.900089E-1	9.975677E-1	9.248389E-1	9.789697E-1	9.807101E-1	9.804065E-1	1.015456E+0	9.193362E-1	1.007095E+0	9.894709E-1	1.013115E+0	1.002451E+0	9.687876E-1	9.925674E-1	9.525197E-1	9.763300E-1	9.836787E-1	9.618459E-1	9.818775E-1	9.359039E-1	1.006024E+0	9.839966E-1	9.761326E-1	9.922156E-1	9.700347E-1	9.857271E-1	9.821253E-1	9.692530E-1	9.674524E-1	9.746059E-1	9.919527E-1	9.735593E-1	9.463252E-1	9.465878E-1	9.571841E-1	9.864321E-1	9.705346E-1	9.662884E-1	9.941742E-1	9.667857E-1	1.015298E+0	1.012621E+0	9.544002E-1	1.006287E+0	9.683589E-1	9.941941E-1	1.004331E+0	9.649236E-1
5.565090E+2	1.054670E+0	9.923626E-1	9.523333E-1	1.011440E+0	9.945916E-1	9.823552E-1	1.000658E+0	9.738942E-1	1.006039E+0	9.884173E-1	9.551248E-1	9.594178E-1	1.006788E+0	1.018405E+0	9.793324E-1	1.004179E+0	9.918069E-1	9.818996E-1	1.015966E+0	1.020487E+0	1.026192E+0	9.857010E-1	9.859377E-1	1.001202E+0	9.718720E-1	9.705762E-1	1.006219E+0	1.018252E+0	9.763383E-1	9.847767E-1	1.005240E+0	1.010361E+0	1.023151E+0	1.004439E+0	9.953624E-1	9.810987E-1	9.789609E-1	9.829276E-1	9.835276E-1	9.926101E-1	1.010307E+0	1.010376E+0	9.673119E-1	9.834757E-1	1.020945E+0	9.965703E-1	9.579888E-1	9.812417E-1	9.816869E-1	9.705158E-1	9.799875E-1	9.849993E-1	9.750754E-1	9.687370E-1	9.794361E-1	1.003013E+0	1.021729E+0	9.989737E-1	9.800595E-1	1.006006E+0	9.820596E-1	9.539912E-1	9.623600E-1	9.924027E-1	9.877209E-1	9.599591E-1	9.921932E-1	1.016539E+0	9.646848E-1	9.921475E-1	9.990996E-1	9.993255E-1	9.754151E-1	9.833622E-1	9.624109E-1	1.045690E+0	9.920749E-1	9.926805E-1	1.005244E+0	1.010608E+0	9.959281E-1	1.016768E+0	1.027158E+0	1.007790E+0	9.797590E-1	9.743334E-1	9.834913E-1	9.924082E-1	9.909485E-1	9.536372E-1	9.745431E-1	1.020063E+0	9.756630E-1	9.652942E-1	9.800437E-1	9.953219E-1	1.003593E+0	1.004494E+0	9.980076E-1	9.589376E-1	1.016080E+0	9.938339E-1	9.963770E-1	1.003037E+0	9.918543E-1	1.028751E+0	1.011325E+0	9.768426E-1	9.541279E-1	9.857257E-1	9.512424E-1	1.014635E+0	1.019442E+0	9.719008E-1	1.026523E+0	9.886383E-1	1.011574E+0	9.795188E-1	1.001032E+0	9.961181E-1	1.020185E+0	1.012240E+0	1.014427E+0	9.868317E-1	9.339499E-1	1.022006E+0	9.853609E-1	9.686975E-1	1.001149E+0	1.004374E+0	1.006176E+0	1.020509E+0	1.025659E+0	9.890120E-1	1.010249E+0	9.867456E-1	9.885608E-1	9.619911E-1	1.025970E+0	9.845445E-1	1.014664E+0	9.864357E-1	9.900493E-1	1.032753E+0	1.017824E+0	1.002088E+0	9.779302E-1	1.008152E+0	1.000865E+0	1.009020E+0	1.022745E+0	9.940643E-1	9.870005E-1	1.017021E+0	9.876161E-1	1.009011E+0	1.002223E+0	9.940436E-1	9.846411E-1	1.015684E+0	1.024263E+0	9.866411E-1	9.776578E-1	9.965372E-1	9.804357E-1	9.832309E-1	9.975414E-1	1.014616E+0	9.770197E-1	1.022956E+0
5.570270E+2	1.002719E+0	9.686740E-1	9.795748E-1	9.849722E-1	1.004397E+0	1.021187E+0	9.640938E-1	9.356370E-1	9.780238E-1	9.453597E-1	9.811832E-1	9.885798E-1	9.957319E-1	9.648097E-1	1.007165E+0	1.006093E+0	9.934213E-1	1.005345E+0	9.728600E-1	9.738452E-1	1.008494E+0	9.754565E-1	9.775504E-1	1.014668E+0	9.763480E-1	9.755553E-1	9.701063E-1	9.950271E-1	9.416017E-1	9.609495E-1	9.782516E-1	9.807467E-1	9.698963E-1	9.730544E-1	9.963872E-1	9.614203E-1	9.980401E-1	9.737603E-1	9.998259E-1	9.636406E-1	9.521461E-1	1.015445E+0	9.701881E-1	9.472613E-1	9.439187E-1	9.420269E-1	9.720719E-1	9.782050E-1	9.729413E-1	9.937533E-1	9.812832E-1	9.927771E-1	1.006782E+0	9.990698E-1	9.707261E-1	9.733143E-1	9.916531E-1	9.470359E-1	1.004488E+0	9.954072E-1	1.010898E+0	9.648973E-1	9.911981E-1	1.024657E+0	9.803176E-1	9.586995E-1	1.000047E+0	9.622751E-1	9.789545E-1	9.976515E-1	1.018865E+0	9.827308E-1	9.885465E-1	9.640215E-1	9.999598E-1	9.636554E-1	9.368880E-1	9.483164E-1	9.622277E-1	1.009575E+0	9.810151E-1	9.396756E-1	9.941740E-1	9.902299E-1	1.005832E+0	1.020378E+0	9.987502E-1	1.004245E+0	1.032148E+0	9.564487E-1	9.716752E-1	9.820195E-1	1.004400E+0	9.647794E-1	9.915511E-1	9.461667E-1	9.928766E-1	9.930662E-1	1.019482E+0	9.725692E-1	9.290663E-1	9.716098E-1	9.926279E-1	9.387141E-1	9.978995E-1	9.825545E-1	9.718924E-1	1.018924E+0	1.003204E+0	9.459824E-1	9.662859E-1	9.623235E-1	9.829920E-1	9.884699E-1	9.922333E-1	9.678014E-1	9.886317E-1	9.134170E-1	9.684825E-1	9.921324E-1	1.013413E+0	9.889526E-1	9.601312E-1	9.542458E-1	1.010081E+0	9.571440E-1	1.002899E+0	9.819681E-1	9.646819E-1	9.729050E-1	1.011247E+0	9.682122E-1	9.800866E-1	1.024818E+0	9.887349E-1	1.026044E+0	9.593385E-1	1.003865E+0	9.385699E-1	9.475530E-1	9.679677E-1	1.005723E+0	9.028449E-1	9.981917E-1	9.723644E-1	9.895486E-1	9.807250E-1	1.004892E+0	9.978547E-1	9.864160E-1	9.185410E-1	1.015377E+0	9.897280E-1	1.002731E+0	9.685526E-1	9.698638E-1	1.005601E+0	1.000261E+0	9.748887E-1	1.007278E+0	1.014590E+0	9.914668E-1	9.330372E-1	9.848131E-1	9.875629E-1	9.990311E-1	9.593225E-1	1.014626E+0	9.641483E-1	1.065393E+0
5.575640E+2	9.659502E-1	9.998584E-1	1.005466E+0	1.000919E+0	1.007369E+0	1.012409E+0	1.016487E+0	9.790768E-1	1.030132E+0	9.847111E-1	1.010628E+0	9.384044E-1	9.781621E-1	9.838762E-1	9.751936E-1	9.868543E-1	1.021957E+0	9.962117E-1	9.752910E-1	9.998712E-1	9.803538E-1	1.020011E+0	9.820776E-1	9.800792E-1	9.948311E-1	1.021196E+0	1.007841E+0	9.996814E-1	1.035908E+0	1.019601E+0	9.871304E-1	9.837057E-1	9.829095E-1	1.063692E+0	9.852270E-1	9.802007E-1	1.014738E+0	1.019314E+0	9.901694E-1	9.806613E-1	9.457522E-1	9.872124E-1	1.022285E+0	1.015018E+0	9.761918E-1	9.616175E-1	9.994662E-1	1.034115E+0	1.016596E+0	9.881693E-1	9.449277E-1	9.605798E-1	1.014387E+0	1.000266E+0	1.021492E+0	1.017330E+0	1.007740E+0	9.834042E-1	1.008152E+0	1.001083E+0	1.026465E+0	1.027131E+0	1.028777E+0	1.008710E+0	9.592650E-1	1.027045E+0	1.001975E+0	1.000604E+0	9.846985E-1	9.930929E-1	9.940505E-1	9.686524E-1	9.883599E-1	9.742612E-1	1.027247E+0	9.912403E-1	1.048474E+0	9.782714E-1	9.922114E-1	9.541403E-1	9.805629E-1	1.048044E+0	9.918345E-1	1.012113E+0	1.045949E+0	1.002588E+0	9.968708E-1	1.000677E+0	9.971537E-1	1.015302E+0	9.931856E-1	9.977573E-1	1.005101E+0	1.007227E+0	9.761730E-1	1.068048E+0	9.665900E-1	1.004301E+0	9.782585E-1	9.822769E-1	9.551565E-1	1.009636E+0	1.009276E+0	1.015131E+0	1.000521E+0	1.003594E+0	9.764422E-1	9.971055E-1	9.784826E-1	1.004237E+0	1.031425E+0	1.014849E+0	9.995414E-1	1.000873E+0	9.752808E-1	9.929400E-1	9.880769E-1	1.014826E+0	1.012188E+0	9.971455E-1	9.685682E-1	1.020824E+0	9.864303E-1	1.011894E+0	9.777439E-1	1.029648E+0	1.014010E+0	1.004165E+0	9.818525E-1	1.006950E+0	9.641378E-1	9.758657E-1	9.866888E-1	9.632779E-1	9.986646E-1	9.868725E-1	9.873340E-1	1.064193E+0	1.018444E+0	1.040647E+0	9.692922E-1	1.040040E+0	1.041415E+0	9.895484E-1	1.020033E+0	9.874454E-1	1.034702E+0	1.010058E+0	9.934168E-1	9.679012E-1	9.922439E-1	1.019356E+0	1.004619E+0	9.573531E-1	1.038301E+0	1.008065E+0	1.000734E+0	1.001187E+0	1.013302E+0	1.026952E+0	9.691859E-1	9.432276E-1	9.635672E-1	1.021022E+0	9.995323E-1	9.767385E-1	1.030295E+0	9.869677E-1	9.473302E-1	1.040000E+0
5.580230E+2	9.986105E-1	9.791641E-1	9.679624E-1	1.000923E+0	9.614460E-1	1.012803E+0	1.032952E+0	1.041631E+0	1.015188E+0	9.646036E-1	1.008807E+0	1.056470E+0	1.036402E+0	9.982192E-1	1.024168E+0	1.046840E+0	1.020397E+0	9.944300E-1	1.024176E+0	1.022901E+0	9.932619E-1	9.467309E-1	1.015804E+0	9.931580E-1	1.036511E+0	1.024252E+0	9.756399E-1	9.813461E-1	1.019040E+0	1.029189E+0	1.016424E+0	9.798958E-1	1.010124E+0	1.003949E+0	1.005580E+0	9.968860E-1	1.042535E+0	9.907510E-1	9.878532E-1	9.744018E-1	9.999747E-1	1.007465E+0	1.005486E+0	1.021359E+0	9.825694E-1	1.001323E+0	9.992914E-1	1.009417E+0	1.031228E+0	1.010450E+0	1.029380E+0	1.017462E+0	9.745138E-1	1.020308E+0	1.013246E+0	1.016214E+0	9.948208E-1	1.031365E+0	1.003029E+0	9.600075E-1	9.897987E-1	9.652548E-1	9.837250E-1	1.028003E+0	1.003791E+0	9.899063E-1	1.022615E+0	1.009847E+0	1.011545E+0	1.000483E+0	9.855606E-1	1.002552E+0	1.006243E+0	1.046207E+0	9.981114E-1	1.010100E+0	9.747915E-1	1.000291E+0	1.019034E+0	1.034524E+0	9.838684E-1	9.635458E-1	1.028950E+0	1.013478E+0	9.911361E-1	1.005687E+0	9.957060E-1	1.000127E+0	1.013344E+0	9.973417E-1	9.707951E-1	1.026117E+0	1.016331E+0	1.019712E+0	9.715974E-1	1.027802E+0	9.804480E-1	9.766182E-1	9.813294E-1	1.007983E+0	1.042509E+0	1.013117E+0	1.018128E+0	1.006602E+0	9.749050E-1	1.008475E+0	1.022015E+0	9.505070E-1	1.011966E+0	1.008965E+0	9.627890E-1	9.783473E-1	1.005488E+0	1.008036E+0	9.988140E-1	1.016531E+0	9.979975E-1	1.020720E+0	9.889581E-1	1.008430E+0	9.956397E-1	1.034166E+0	1.035416E+0	9.872363E-1	1.010743E+0	1.004590E+0	1.008225E+0	9.808769E-1	9.797184E-1	9.988921E-1	1.029981E+0	1.020240E+0	1.013309E+0	9.912005E-1	1.000238E+0	1.000659E+0	1.022014E+0	1.001062E+0	1.006921E+0	1.007721E+0	9.827948E-1	1.020161E+0	1.003885E+0	1.009664E+0	1.017570E+0	9.897228E-1	1.010519E+0	9.590830E-1	9.774562E-1	9.932498E-1	1.022073E+0	1.019552E+0	1.026341E+0	1.015808E+0	1.027600E+0	1.023171E+0	1.015858E+0	9.759574E-1	1.002705E+0	9.926385E-1	1.001783E+0	1.003789E+0	1.006861E+0	9.797135E-1	1.038455E+0	1.002743E+0	9.941732E-1	9.762453E-1	9.743766E-1	9.734938E-1
5.585220E+2	9.670718E-1	1.036797E+0	1.083731E+0	1.029635E+0	1.032316E+0	1.023480E+0	9.666171E-1	1.025559E+0	1.019716E+0	1.044283E+0	9.709758E-1	1.032547E+0	1.033939E+0	1.019575E+0	1.022567E+0	1.005910E+0	1.018057E+0	1.023607E+0	1.016443E+0	1.008222E+0	9.959848E-1	1.049970E+0	1.032496E+0	1.006213E+0	1.022476E+0	9.947976E-1	9.867567E-1	1.022363E+0	1.017270E+0	1.040059E+0	1.009729E+0	1.010583E+0	9.922043E-1	1.027713E+0	9.964719E-1	9.974180E-1	1.008441E+0	1.007732E+0	1.026733E+0	1.037427E+0	1.007711E+0	9.819302E-1	1.044592E+0	1.027848E+0	1.090594E+0	1.023920E+0	1.007694E+0	1.026074E+0	1.025810E+0	9.832432E-1	1.001591E+0	1.015163E+0	1.011579E+0	1.015149E+0	1.026914E+0	1.043506E+0	1.026554E+0	1.031541E+0	1.023522E+0	1.003053E+0	1.060541E+0	1.024545E+0	9.729478E-1	1.020054E+0	9.900772E-1	1.010474E+0	1.024799E+0	1.046036E+0	1.017111E+0	1.001022E+0	1.002484E+0	1.016877E+0	1.027452E+0	1.034146E+0	1.021848E+0	1.012423E+0	1.051369E+0	1.011527E+0	1.011158E+0	1.036713E+0	1.048033E+0	1.020307E+0	1.018235E+0	9.687879E-1	1.029460E+0	1.019258E+0	1.059151E+0	9.956596E-1	1.043881E+0	1.004098E+0	1.017847E+0	1.023885E+0	1.065722E+0	1.041193E+0	9.806279E-1	1.029204E+0	1.028089E+0	1.000756E+0	1.014228E+0	1.020922E+0	1.020454E+0	1.003566E+0	9.928075E-1	1.028141E+0	1.030285E+0	1.049477E+0	1.019892E+0	1.033619E+0	1.001734E+0	1.045183E+0	1.012995E+0	1.072504E+0	9.910649E-1	9.855265E-1	1.033125E+0	1.005090E+0	1.026991E+0	1.033450E+0	1.036542E+0	9.963393E-1	1.048809E+0	1.026804E+0	1.050981E+0	1.066327E+0	1.058768E+0	9.766818E-1	1.017371E+0	1.014653E+0	1.048011E+0	1.021886E+0	9.787574E-1	1.002686E+0	9.738904E-1	1.005931E+0	1.019693E+0	1.045504E+0	1.034081E+0	1.014015E+0	1.012790E+0	1.008990E+0	1.024332E+0	9.844898E-1	1.043909E+0	9.864599E-1	9.947800E-1	9.993001E-1	9.951527E-1	1.029321E+0	1.046131E+0	1.060233E+0	1.011227E+0	1.012202E+0	1.024711E+0	9.840056E-1	9.991167E-1	9.878090E-1	1.029582E+0	1.043536E+0	1.049025E+0	1.013758E+0	1.005518E+0	1.045090E+0	1.042589E+0	1.005630E+0	9.925879E-1	1.039948E+0	1.011980E+0	9.930587E-1	1.044423E+0	9.797380E-1
5.590160E+2	1.038819E+0	1.014308E+0	1.042764E+0	1.017671E+0	1.022814E+0	1.035356E+0	1.044670E+0	1.020896E+0	1.014370E+0	1.049766E+0	1.010524E+0	9.965535E-1	1.022501E+0	1.004141E+0	1.051995E+0	9.626879E-1	1.001048E+0	1.008204E+0	9.961597E-1	1.023613E+0	1.028308E+0	1.005439E+0	1.032905E+0	1.029865E+0	1.033974E+0	1.050106E+0	1.017313E+0	1.057041E+0	1.034203E+0	1.029923E+0	1.074584E+0	1.065041E+0	1.032969E+0	1.011921E+0	1.049975E+0	1.036283E+0	1.013933E+0	1.001087E+0	1.020742E+0	1.007612E+0	1.036657E+0	1.069265E+0	1.029526E+0	1.018718E+0	1.030690E+0	1.018921E+0	1.013559E+0	1.006625E+0	1.007457E+0	1.055800E+0	1.060711E+0	1.040100E+0	1.010220E+0	1.033195E+0	1.039623E+0	1.035467E+0	1.049549E+0	1.010653E+0	1.012806E+0	1.035912E+0	1.018211E+0	1.017641E+0	1.045047E+0	1.022885E+0	9.977769E-1	1.029581E+0	1.022986E+0	1.041628E+0	1.021575E+0	9.857897E-1	1.026738E+0	1.045513E+0	1.038670E+0	1.046332E+0	1.031672E+0	1.049370E+0	1.042869E+0	1.025698E+0	1.007625E+0	1.008925E+0	1.021417E+0	1.033481E+0	1.019150E+0	1.020761E+0	9.992864E-1	1.049121E+0	1.010144E+0	1.004566E+0	1.013468E+0	1.028435E+0	1.051037E+0	9.779126E-1	9.842944E-1	1.027878E+0	1.025575E+0	1.003607E+0	1.031624E+0	1.027830E+0	1.036064E+0	1.064467E+0	1.021397E+0	1.041342E+0	1.041155E+0	1.012974E+0	1.036316E+0	9.660842E-1	9.952643E-1	1.023205E+0	1.036745E+0	1.042526E+0	1.028947E+0	1.032790E+0	1.010150E+0	1.031869E+0	1.019891E+0	1.075585E+0	1.038757E+0	1.020765E+0	1.038681E+0	1.048817E+0	9.962750E-1	9.784381E-1	1.032794E+0	9.901502E-1	1.063327E+0	1.051676E+0	1.049235E+0	1.005859E+0	1.005964E+0	1.049941E+0	9.927389E-1	9.858784E-1	1.071599E+0	1.032805E+0	1.047376E+0	1.028938E+0	1.003318E+0	9.826447E-1	1.053004E+0	1.071326E+0	1.074478E+0	1.028763E+0	9.853401E-1	9.948983E-1	1.050346E+0	1.036787E+0	1.000138E+0	1.032150E+0	1.047391E+0	1.029284E+0	1.063064E+0	1.001501E+0	1.030334E+0	1.029983E+0	1.007773E+0	1.013191E+0	1.002564E+0	9.879417E-1	9.938074E-1	9.791142E-1	1.054169E+0	1.031366E+0	1.022337E+0	1.051251E+0	1.073500E+0	9.843366E-1	1.016662E+0	1.028203E+0	1.035162E+0	9.969189E-1
5.595110E+2	1.043176E+0	1.038183E+0	1.028311E+0	1.020673E+0	1.007662E+0	1.060101E+0	1.035463E+0	1.009780E+0	1.006982E+0	1.061074E+0	1.082583E+0	1.026508E+0	9.824929E-1	9.878771E-1	1.007073E+0	1.044772E+0	1.027724E+0	9.816610E-1	9.989239E-1	1.015065E+0	1.006708E+0	1.030594E+0	1.003232E+0	1.022640E+0	1.024421E+0	1.032449E+0	1.051700E+0	1.024564E+0	1.012811E+0	1.032496E+0	9.778435E-1	1.024404E+0	1.031023E+0	9.836564E-1	1.021397E+0	1.016645E+0	1.025188E+0	1.020895E+0	1.002721E+0	1.015114E+0	1.031276E+0	1.017245E+0	1.013392E+0	1.037004E+0	1.077307E+0	1.028697E+0	1.024206E+0	1.004107E+0	1.014522E+0	1.001049E+0	1.010340E+0	1.039533E+0	9.914973E-1	9.974332E-1	1.019334E+0	1.022766E+0	1.020044E+0	1.000374E+0	1.016147E+0	9.857716E-1	1.037836E+0	1.007224E+0	1.010487E+0	9.744762E-1	1.080033E+0	1.034081E+0	9.846440E-1	1.003720E+0	9.986341E-1	1.053251E+0	1.009196E+0	1.031118E+0	1.009159E+0	1.017594E+0	9.898984E-1	1.014582E+0	1.067455E+0	1.017522E+0	9.744063E-1	9.776656E-1	9.895268E-1	1.008335E+0	1.011180E+0	9.761916E-1	1.009323E+0	9.974604E-1	1.020778E+0	1.013611E+0	9.808005E-1	1.005548E+0	1.051172E+0	9.838116E-1	1.003263E+0	1.018095E+0	1.051122E+0	9.886423E-1	1.047205E+0	9.638334E-1	9.940615E-1	1.006270E+0	1.036341E+0	1.021129E+0	1.040608E+0	9.789516E-1	1.023288E+0	9.983136E-1	1.028848E+0	1.005768E+0	1.015172E+0	1.002255E+0	1.045359E+0	1.005989E+0	9.969289E-1	1.022176E+0	1.043144E+0	1.015029E+0	1.033591E+0	1.066557E+0	9.941762E-1	9.957548E-1	1.046307E+0	1.026892E+0	1.042327E+0	1.017303E+0	1.011099E+0	1.043843E+0	1.033480E+0	1.040434E+0	1.009084E+0	1.038567E+0	1.015657E+0	1.018311E+0	1.012501E+0	1.033062E+0	9.917411E-1	1.005431E+0	1.013846E+0	1.046630E+0	9.853442E-1	1.000619E+0	1.028629E+0	1.031890E+0	1.040901E+0	1.043079E+0	1.032399E+0	9.859198E-1	1.046880E+0	9.976821E-1	1.008671E+0	1.038101E+0	1.009092E+0	1.012218E+0	9.812671E-1	1.030856E+0	1.039393E+0	1.051233E+0	1.019177E+0	1.057680E+0	1.021845E+0	9.892533E-1	9.667256E-1	1.016009E+0	1.015944E+0	9.793150E-1	1.028023E+0	9.925490E-1	1.019609E+0	1.018119E+0	9.840788E-1	1.039692E+0
5.600300E+2	9.825721E-1	1.009992E+0	9.766306E-1	1.029989E+0	9.876441E-1	9.198516E-1	9.808053E-1	1.011897E+0	1.005098E+0	9.972258E-1	9.772581E-1	9.981635E-1	1.021667E+0	1.044515E+0	9.725447E-1	9.998574E-1	1.008684E+0	9.968598E-1	1.040342E+0	9.926133E-1	9.894714E-1	9.797209E-1	9.971569E-1	1.026851E+0	9.897006E-1	1.001380E+0	1.059804E+0	9.503810E-1	9.890220E-1	9.837433E-1	9.947638E-1	1.003375E+0	9.861423E-1	1.003573E+0	1.040368E+0	9.936117E-1	9.841298E-1	1.017008E+0	1.020396E+0	9.984376E-1	1.055339E+0	1.032259E+0	1.019535E+0	9.804670E-1	9.653615E-1	1.009345E+0	1.028716E+0	1.004016E+0	9.752076E-1	1.001465E+0	9.898556E-1	1.017420E+0	1.024842E+0	1.041078E+0	9.981996E-1	9.690781E-1	9.964536E-1	1.017644E+0	1.001319E+0	1.025925E+0	1.003355E+0	1.032561E+0	1.011040E+0	9.989883E-1	9.902284E-1	1.009226E+0	1.001846E+0	9.892009E-1	1.060951E+0	1.003709E+0	1.021600E+0	9.887163E-1	9.959728E-1	9.934840E-1	9.720120E-1	9.730836E-1	1.005104E+0	1.032371E+0	9.816370E-1	9.744812E-1	1.013005E+0	1.041937E+0	9.981770E-1	9.963834E-1	9.881993E-1	9.479449E-1	9.947003E-1	9.922187E-1	1.017476E+0	9.899038E-1	9.892214E-1	1.012069E+0	9.826180E-1	1.006350E+0	1.001976E+0	1.013343E+0	1.008182E+0	1.030800E+0	1.007536E+0	1.030957E+0	9.893885E-1	9.990909E-1	9.710513E-1	1.005100E+0	9.824085E-1	1.014678E+0	1.000624E+0	1.007040E+0	1.005681E+0	9.998958E-1	1.040544E+0	9.993064E-1	9.611885E-1	1.002084E+0	9.814958E-1	9.702922E-1	9.669455E-1	1.028286E+0	9.734693E-1	9.881420E-1	9.844509E-1	9.680149E-1	9.658711E-1	9.976156E-1	1.019486E+0	9.768574E-1	9.784371E-1	1.054597E+0	1.040364E+0	1.024190E+0	1.002994E+0	1.005671E+0	9.882496E-1	9.855190E-1	9.859229E-1	9.827996E-1	1.010194E+0	1.000661E+0	1.015816E+0	1.005679E+0	1.006213E+0	1.013242E+0	1.042609E+0	9.743458E-1	1.002347E+0	1.001036E+0	1.012203E+0	1.005313E+0	1.011825E+0	9.833189E-1	1.002482E+0	9.806264E-1	9.778528E-1	9.993008E-1	9.964293E-1	9.950732E-1	9.832002E-1	9.933632E-1	1.046122E+0	1.005580E+0	1.012885E+0	1.042909E+0	1.005076E+0	1.016511E+0	9.932406E-1	1.017345E+0	9.997493E-1	9.770873E-1	1.002162E+0	9.817315E-1
5.605090E+2	9.898721E-1	1.011012E+0	1.002254E+0	9.565800E-1	9.798795E-1	9.836090E-1	9.864215E-1	1.015516E+0	9.703475E-1	9.852391E-1	9.976713E-1	1.040212E+0	9.754752E-1	1.005014E+0	9.880748E-1	9.860602E-1	1.030922E+0	1.021239E+0	9.912725E-1	1.001989E+0	9.821401E-1	1.025852E+0	9.825716E-1	9.692386E-1	9.931246E-1	9.999891E-1	9.688873E-1	9.849195E-1	9.793260E-1	9.615611E-1	1.010775E+0	9.945163E-1	9.857006E-1	9.349568E-1	9.755150E-1	9.864006E-1	9.620678E-1	1.014700E+0	1.020475E+0	1.020839E+0	9.937916E-1	9.433324E-1	1.008586E+0	1.013341E+0	9.701366E-1	9.916997E-1	1.006531E+0	1.028460E+0	9.659799E-1	1.004983E+0	1.034424E+0	9.780950E-1	9.964729E-1	9.880020E-1	9.835663E-1	9.678140E-1	9.772544E-1	1.010156E+0	9.863421E-1	9.781798E-1	9.480401E-1	1.050952E+0	9.835656E-1	9.798725E-1	1.009833E+0	1.001459E+0	9.969669E-1	1.000374E+0	1.001966E+0	1.006646E+0	9.788726E-1	9.825380E-1	1.012399E+0	9.823565E-1	1.012234E+0	9.608545E-1	1.023002E+0	9.959426E-1	1.046416E+0	1.002228E+0	1.020244E+0	9.934763E-1	9.356104E-1	1.001350E+0	9.738430E-1	1.033699E+0	9.997008E-1	9.846441E-1	9.989221E-1	1.045329E+0	9.905549E-1	1.014504E+0	1.016319E+0	1.021000E+0	9.776723E-1	1.000765E+0	1.014354E+0	9.767730E-1	1.033725E+0	1.004576E+0	9.756389E-1	9.540586E-1	9.721259E-1	1.039025E+0	1.005231E+0	1.001834E+0	1.021731E+0	1.005288E+0	1.003337E+0	1.005192E+0	9.767260E-1	9.773994E-1	1.006136E+0	1.025391E+0	9.559547E-1	9.981981E-1	1.018963E+0	9.567026E-1	1.002996E+0	1.019460E+0	9.845609E-1	9.672409E-1	9.932092E-1	9.927962E-1	1.014981E+0	9.387371E-1	9.658155E-1	1.006495E+0	9.711458E-1	9.766742E-1	1.012014E+0	9.899395E-1	9.775925E-1	9.895350E-1	9.818120E-1	9.877110E-1	1.028181E+0	9.606543E-1	9.694347E-1	1.002542E+0	9.930154E-1	9.918651E-1	1.021330E+0	9.684188E-1	9.721971E-1	1.019328E+0	1.004008E+0	1.014746E+0	9.884888E-1	9.872577E-1	1.028269E+0	9.884887E-1	9.595376E-1	9.796070E-1	9.879768E-1	1.022851E+0	9.964153E-1	9.750886E-1	9.974527E-1	9.731659E-1	9.573250E-1	9.561732E-1	1.030984E+0	1.001433E+0	9.808700E-1	1.010138E+0	1.010261E+0	9.807344E-1	1.028270E+0	9.294918E-1
5.610010E+2	9.846630E-1	9.719878E-1	9.799498E-1	9.868075E-1	1.005098E+0	9.799384E-1	9.483792E-1	9.562920E-1	9.762924E-1	9.915112E-1	1.011578E+0	1.003072E+0	9.615179E-1	1.025544E+0	9.606562E-1	1.000478E+0	9.205414E-1	1.004274E+0	1.002544E+0	9.925674E-1	9.470534E-1	1.004189E+0	1.001155E+0	9.594906E-1	9.430489E-1	9.655086E-1	9.580086E-1	9.917833E-1	1.017856E+0	9.878468E-1	9.937218E-1	9.710576E-1	1.000355E+0	9.800453E-1	9.889917E-1	1.051063E+0	9.496268E-1	1.008207E+0	9.944768E-1	1.005848E+0	9.662389E-1	9.722260E-1	9.670056E-1	9.568775E-1	9.580043E-1	1.027281E+0	9.922835E-1	9.355591E-1	1.023636E+0	1.005646E+0	9.887814E-1	9.866694E-1	1.000638E+0	9.606743E-1	9.960821E-1	9.937448E-1	9.546514E-1	9.876783E-1	9.980848E-1	9.720396E-1	9.797729E-1	9.930334E-1	9.982788E-1	9.905030E-1	9.849164E-1	9.849697E-1	1.004587E+0	9.491826E-1	9.853413E-1	9.697243E-1	9.905376E-1	1.012756E+0	9.693769E-1	9.756273E-1	9.839721E-1	9.552835E-1	9.391501E-1	9.903831E-1	9.932612E-1	9.941235E-1	9.562282E-1	9.962542E-1	1.015738E+0	1.014715E+0	9.908418E-1	9.454524E-1	9.602073E-1	9.842073E-1	9.726993E-1	1.002772E+0	9.906692E-1	9.912304E-1	9.542933E-1	9.560463E-1	1.009827E+0	9.839235E-1	9.624253E-1	1.027355E+0	9.762690E-1	9.614717E-1	1.050570E+0	1.003270E+0	9.648884E-1	1.000991E+0	9.785482E-1	9.646648E-1	9.668166E-1	9.484127E-1	9.887820E-1	9.810614E-1	1.000235E+0	9.733947E-1	1.007951E+0	9.957554E-1	9.659826E-1	9.549647E-1	9.740229E-1	9.760001E-1	1.007158E+0	9.731171E-1	9.692033E-1	9.877221E-1	9.284037E-1	9.980325E-1	9.749818E-1	1.019846E+0	9.644567E-1	9.618483E-1	9.825740E-1	9.862842E-1	9.792009E-1	1.023216E+0	9.573108E-1	9.823886E-1	1.006782E+0	9.567290E-1	1.000613E+0	9.879539E-1	9.900277E-1	9.685330E-1	9.567369E-1	9.614860E-1	9.216932E-1	1.018645E+0	9.440078E-1	9.966091E-1	9.677070E-1	9.528761E-1	9.457739E-1	9.759665E-1	9.628099E-1	9.820092E-1	1.026657E+0	1.009775E+0	1.000916E+0	9.731436E-1	9.874611E-1	9.845095E-1	9.456762E-1	1.030287E+0	9.993809E-1	1.016542E+0	9.866483E-1	9.511533E-1	9.713925E-1	9.876519E-1	9.920485E-1	1.016148E+0	1.038699E+0	1.005662E+0
