Photon Energy (eV)	#1	#2	#3	#4	#5	#6	#7	#8	#9	#10	#11	#12	#13	#14	#15	#16	#17	#18	#19	#20	#21	#22	#23	#24	#25	#26	#27	#28	#29	#30	#31	#32	#33	#34	#35	#36	#37	#38	#39	#40	#41	#42	#43	#44	#45	#46	#47	#48	#49	#50	#51	#52	#53	#54	#55	#56	#57	#58	#59	#60	#61	#62	#63	#64	#65	#66	#67	#68	#69	#70	#71	#72	#73	#74	#75	#76	#77	#78	#79	#80	#81	#82	#83	#84	#85	#86	#87	#88	#89	#90	#91	#92	#93	#94	#95	#96	#97	#98	#99	#100	#101	#102	#103	#104	#105	#106	#107	#108	#109	#110	#111	#112	#113	#114	#115	#116	#117	#118	#119	#120	#121	#122	#123	#124	#125	#126	#127	#128	#129	#130	#131	#132	#133	#134	#135	#136	#137	#138	#139	#140	#141	#142	#143	#144	#145	#146	#147	#148	#149	#150	#151	#152	#153	#154	#155	#156	#157	#158	#159	#160	#161	#162	#163	#164	#165	#166	#167	#168	#169	#170	
5.300110E+2	-3.277752E-3	-8.080201E-4	1.987705E-3	-6.187286E-3	-1.607899E-2	-1.245383E-2	-2.984619E-3	-2.017911E-3	1.847962E-3	-1.554427E-2	-5.522142E-3	-3.117955E-3	-1.455687E-2	-5.475543E-3	-6.449754E-3	-8.434648E-3	-5.351045E-3	-5.681293E-3	-1.311518E-2	-5.251766E-3	-4.959233E-3	-6.513911E-3	8.029469E-3	-9.488350E-4	-4.135611E-3	-9.679829E-3	-6.556114E-3	-5.046756E-3	-7.100170E-3	-8.811621E-3	-1.040508E-2	-5.079875E-3	-5.891522E-3	-1.067779E-2	-8.728159E-3	-7.466735E-3	-7.791792E-3	-1.475406E-3	1.556383E-3	2.271472E-3	-3.687163E-3	-4.319131E-3	-6.715127E-3	-7.102334E-3	-3.738292E-3	-7.996578E-3	-6.261231E-3	-1.263319E-2	-2.524661E-3	-1.209609E-3	-1.014873E-2	2.959327E-3	-9.056340E-3	-4.424456E-3	-2.262429E-3	-3.801030E-3	-1.368859E-4	-2.119454E-3	-9.211077E-3	4.051641E-3	1.392301E-3	3.975071E-4	-1.777403E-3	2.572037E-4	-1.035286E-2	-1.373984E-3	-1.068382E-2	-3.183571E-3	-9.343438E-3	-9.783499E-3	-2.874730E-3	-5.311551E-3	-1.187636E-2	-9.539385E-3	-1.231969E-2	-5.666139E-3	-2.874026E-3	-8.068434E-3	-7.491892E-3	1.072397E-3	-5.575285E-3	-1.516210E-3	-4.529564E-3	-5.978041E-3	1.117290E-3	-5.206905E-3	-9.963364E-3	-1.154279E-2	-9.861670E-3	-6.783917E-3	-6.456833E-3	-7.273494E-3	-6.499919E-3	-3.483612E-3	-3.147486E-3	1.074234E-3	-1.173942E-2	-4.482974E-3	-9.920835E-3	-2.253674E-3	-6.048278E-3	-1.166550E-2	-1.015089E-2	-7.744019E-4	-6.384269E-3	-6.791313E-3	-4.856545E-3	-1.636234E-3	-1.703108E-3	-2.986842E-3	-2.862578E-3	-8.078449E-3	-4.710772E-3	-6.116692E-3	-8.438043E-3	-6.679389E-4	-1.066627E-2	-6.998673E-3	4.175220E-3	-1.109548E-2	-9.120970E-3	-4.789263E-3	1.462143E-3	-8.164462E-3	1.199305E-3	-1.127217E-2	-1.039022E-2	-6.411449E-4	-3.216186E-3	-3.308928E-3	-1.171095E-2	-8.658272E-4	-8.081021E-3	-8.359216E-3	-7.141056E-4	-7.628071E-3	-1.005878E-2	-1.956429E-3	-1.237901E-3	-1.168083E-2	-1.058442E-2	-9.689012E-3	-1.053883E-2	-5.581364E-3	-5.683271E-3	-3.206609E-3	-7.731682E-4	-2.643410E-3	-8.529736E-3	-5.693883E-3	-1.481129E-2	-6.926679E-4	-4.928072E-5	-5.826729E-4	-8.151628E-3	-7.145039E-3	-5.221660E-3	9.236686E-4	-6.791760E-3	1.280610E-3	-6.364231E-3	-7.498642E-3	-6.736211E-3	-6.716487E-3	-4.414547E-3	1.990828E-3	-2.441303E-3	-1.134875E-6	-1.730254E-2	-2.504913E-3
5.305180E+2	-5.812023E-3	-3.097799E-3	-4.280540E-3	1.792269E-3	1.179961E-3	-8.990761E-3	-2.707039E-3	-1.765049E-3	2.142952E-3	-7.382667E-3	-3.832816E-3	-1.739956E-3	2.986961E-3	-2.354462E-3	-3.505019E-3	-5.907972E-4	-6.041540E-3	5.602207E-4	-2.243004E-3	-6.129293E-3	3.947102E-3	-5.118932E-3	-2.241023E-3	-1.585360E-3	-2.308890E-3	-3.799887E-3	-2.724523E-3	2.527411E-3	-1.651131E-3	-4.491066E-3	-4.712125E-3	1.278626E-3	-5.617681E-3	-4.739743E-3	-1.068721E-3	-4.137739E-3	1.817461E-3	-4.890962E-3	-4.740043E-3	2.907295E-4	-6.114833E-3	-7.066764E-3	-3.469514E-4	-3.784481E-3	-7.751222E-3	-3.884951E-3	-1.883725E-4	-6.971619E-3	-7.518867E-3	4.813934E-3	-2.183827E-3	-8.959406E-3	-2.495680E-3	6.058313E-4	-7.790050E-4	-4.956355E-3	-4.399510E-3	-8.597762E-3	-1.211564E-4	-5.402205E-3	-7.345652E-3	-1.128274E-2	-4.606389E-3	-1.218720E-2	-6.902200E-3	-6.607637E-3	-3.355604E-3	-1.827909E-3	-4.179920E-3	-2.592916E-3	-5.686728E-3	-7.478024E-4	-3.140616E-3	-1.808484E-3	-1.761020E-3	-8.573786E-3	-8.253379E-3	-3.014882E-3	-7.720848E-3	-2.745538E-3	-4.736113E-3	-8.557612E-3	-3.703641E-3	-6.774134E-4	-3.434096E-3	-4.425000E-3	-9.203611E-3	-1.130211E-2	-8.050516E-3	-8.080857E-3	9.229228E-4	2.842701E-3	-7.248718E-3	-4.685610E-3	-3.807340E-3	-5.791203E-3	-3.233050E-3	-3.076161E-3	-6.844612E-3	-4.641907E-3	-3.868768E-3	-8.705401E-3	6.248674E-3	-8.515089E-3	-6.146601E-3	-9.758099E-3	-1.200982E-2	-1.876000E-3	-4.428729E-3	2.921299E-3	-7.971338E-3	-3.152947E-3	-1.060337E-2	-8.094925E-4	-4.948183E-3	-1.424839E-3	1.870075E-3	7.441247E-4	-4.822385E-3	-3.497889E-3	-2.167372E-3	-3.986613E-3	-9.473248E-3	5.256595E-3	-3.091542E-3	4.655519E-3	-9.624452E-3	-1.668536E-3	-2.426692E-3	-2.418678E-3	-2.813782E-3	-9.283713E-3	-3.257757E-3	-2.590705E-3	-8.523147E-3	-1.448135E-3	-2.613237E-3	-8.348034E-3	-9.751091E-3	-3.369199E-3	2.795724E-3	-4.648695E-3	7.073331E-4	-3.047437E-3	-3.834529E-3	-5.050152E-5	7.116704E-4	-7.897901E-4	-9.709862E-3	-1.537464E-3	-2.613769E-3	-2.737066E-3	7.759815E-4	-2.999765E-3	-1.963522E-3	-7.326375E-3	-4.455043E-3	-6.102409E-3	-1.188560E-2	-3.272246E-3	-3.044376E-3	-2.721436E-3	-1.602477E-3	-4.818926E-3	-3.213354E-3	3.396565E-3	-3.435108E-4	-2.762291E-3	-9.538506E-4	9.912885E-3
5.310150E+2	3.344317E-5	-7.057473E-3	-1.121831E-3	-3.572683E-3	-3.382793E-3	-1.863853E-3	-7.947053E-3	-4.003121E-3	-5.566379E-3	2.272673E-3	-1.330492E-2	-1.270775E-2	-1.406616E-3	7.068070E-4	3.503578E-3	-4.005253E-3	-3.503952E-3	-5.516038E-3	-6.290049E-3	-4.829386E-3	-3.184117E-3	-1.141342E-3	-4.129634E-3	-7.673859E-3	-6.208228E-3	-2.608835E-3	-5.521424E-3	-5.662769E-3	-4.294036E-3	-7.791138E-3	4.873582E-4	-1.031576E-2	-7.932536E-3	-8.764026E-3	2.078050E-3	-1.065004E-2	-4.657385E-3	-1.101915E-2	-1.036530E-2	-4.149701E-3	-2.093995E-3	-7.622937E-4	5.452038E-3	-3.089043E-3	-3.299796E-3	2.166566E-3	2.926467E-3	6.225993E-3	-5.759833E-3	-8.159864E-3	-9.081623E-4	-5.879949E-5	2.228224E-3	-4.674297E-4	-5.569355E-3	-1.062166E-2	-2.637809E-3	-4.112615E-3	2.899483E-3	-7.294344E-3	-4.306385E-3	4.804797E-3	-7.571887E-4	3.558488E-3	-3.515880E-3	-7.719708E-3	4.283780E-3	-7.397008E-3	-1.492369E-3	-2.254231E-3	7.761496E-4	-9.980742E-4	-2.902993E-3	-5.929997E-3	6.167400E-3	-9.663037E-4	-2.400028E-3	-2.370636E-3	-3.283208E-4	-9.980679E-3	-7.903945E-3	1.680952E-3	-1.137211E-2	-9.432669E-3	-3.697415E-3	-1.282903E-2	-4.948626E-4	-3.746242E-3	-9.958835E-4	-8.079553E-3	-8.544291E-3	-6.340489E-3	-2.555273E-3	-7.310131E-3	-3.573873E-3	-3.750576E-3	-3.037486E-3	-7.593007E-3	-3.231571E-3	-3.891887E-3	-6.596654E-3	2.894372E-3	-2.207949E-3	-3.260246E-3	1.115936E-3	4.417304E-3	1.126394E-3	-6.492738E-3	-3.224648E-3	-9.749646E-3	-1.885080E-4	-3.884563E-3	-1.145517E-2	-6.229404E-3	-2.581697E-3	3.618058E-4	3.459403E-3	-9.756368E-3	-1.276200E-2	-1.513507E-2	-5.061585E-3	-3.797149E-3	-3.059579E-3	-6.050582E-3	-4.438314E-3	-8.892660E-3	3.470539E-5	-4.132507E-3	-4.783224E-3	-5.224468E-3	-3.202469E-3	-8.033006E-3	1.555220E-4	-4.627122E-3	-7.481192E-4	1.234956E-3	-8.576266E-3	7.720467E-4	-1.264259E-3	4.947264E-3	-8.162645E-3	-6.587681E-3	4.616229E-3	-5.693325E-4	-6.306156E-3	-1.146360E-2	-1.661845E-2	-5.912920E-3	-2.367697E-4	-1.186749E-2	-4.045806E-3	-8.242684E-3	-3.529669E-3	-3.890760E-3	-3.376143E-3	4.973365E-3	-4.779936E-3	-3.943898E-3	-3.209548E-4	-9.314702E-3	-3.849470E-3	-2.594759E-4	-7.329668E-3	-2.461415E-3	-9.591243E-3	-4.859623E-3	-6.978157E-3	-4.914175E-3	-7.630864E-3	-1.615849E-3
5.315080E+2	-4.929940E-3	3.022369E-3	4.452306E-3	7.236788E-3	4.061277E-3	4.073068E-3	3.703683E-3	3.957738E-3	-7.947852E-3	1.551267E-3	2.393510E-3	-5.379146E-3	7.647135E-3	-4.822780E-4	4.212102E-3	-4.733663E-3	1.017779E-3	-2.162161E-3	6.756862E-3	-2.454509E-3	-2.551708E-4	1.317218E-3	2.042497E-4	-3.570158E-3	-2.968838E-3	1.183540E-3	7.368216E-3	3.134778E-4	4.574381E-3	3.408976E-3	-3.865986E-3	4.687137E-4	-7.020735E-4	3.357030E-4	7.847715E-4	-3.295667E-3	1.024787E-3	1.029912E-2	7.356668E-3	4.505425E-3	-2.369495E-4	2.040341E-3	4.741976E-3	-2.908259E-4	9.970264E-5	-1.992443E-3	1.232577E-3	3.655880E-3	1.054339E-2	-4.882293E-3	-1.281918E-3	-1.393399E-3	4.385355E-3	-3.042150E-3	2.415790E-3	9.038180E-4	2.004091E-4	3.258124E-3	-3.009701E-3	-4.043786E-3	1.699072E-3	-3.776731E-3	-4.287693E-3	-1.651876E-3	1.072470E-2	2.191019E-3	-1.636693E-3	2.828661E-3	-3.227397E-3	-1.541141E-3	-6.066824E-3	-3.702225E-3	-5.260742E-3	-1.301034E-3	-8.075583E-4	4.085894E-3	1.952223E-3	2.263500E-3	-8.916272E-3	2.827197E-3	4.100868E-3	2.866600E-3	-8.503302E-4	3.139202E-4	-2.044551E-3	4.110582E-3	7.875773E-3	1.995087E-3	5.140087E-3	7.050610E-3	-5.302371E-3	-4.133035E-3	7.092872E-4	6.535979E-3	-1.845776E-3	7.152114E-4	7.673955E-3	3.072588E-3	9.252627E-3	3.475290E-3	4.848983E-3	8.015720E-3	-1.865906E-3	-3.915878E-4	4.752872E-4	-2.259666E-4	2.035811E-3	-2.051439E-3	-2.483923E-3	-1.911310E-3	-3.242751E-3	2.539465E-3	4.426790E-3	6.668637E-4	8.780485E-3	-2.602346E-3	-2.226511E-3	7.621240E-4	-3.046408E-3	9.338215E-4	1.039462E-2	4.002644E-3	6.430573E-4	2.524344E-4	-2.708240E-3	2.421709E-3	-1.848130E-3	2.180182E-4	-9.777180E-4	-2.761330E-3	7.572594E-3	5.357857E-3	-4.167743E-3	3.497774E-3	2.242380E-3	-1.568241E-3	4.137997E-3	2.169326E-3	-4.756138E-4	8.555857E-4	4.837574E-3	3.158951E-3	-3.778267E-4	-2.887548E-4	-2.416629E-3	-2.662193E-3	2.373270E-3	3.334044E-3	-4.232836E-4	7.354596E-3	-1.666190E-3	4.568630E-3	1.302795E-3	4.022770E-3	4.500124E-3	-6.315045E-3	1.064273E-3	2.765418E-3	1.506636E-3	3.202606E-3	5.157595E-3	3.961310E-3	3.700663E-3	-5.485767E-4	3.377677E-3	1.097998E-3	-6.942796E-3	-6.595548E-3	8.280919E-3	-1.256832E-2
5.320120E+2	4.655488E-3	7.158333E-3	-2.900929E-3	-7.170099E-4	6.911027E-3	5.901879E-3	-7.571796E-4	4.396154E-3	3.047299E-3	9.598161E-3	1.555647E-2	8.136481E-3	-2.651431E-3	8.699483E-3	3.237046E-3	6.185295E-3	2.894794E-3	2.802180E-3	4.005058E-3	6.773656E-3	-7.585262E-4	5.551879E-3	4.862952E-3	-1.796380E-4	8.373571E-3	5.206353E-3	1.237060E-2	4.509727E-3	5.956142E-3	3.352242E-3	4.894447E-3	1.240402E-2	7.337523E-3	2.410187E-3	6.769238E-3	1.178189E-2	9.142235E-3	1.366132E-3	4.390268E-4	-4.479312E-3	5.277577E-3	4.578934E-3	-1.526808E-3	6.930921E-4	4.398884E-3	9.860662E-3	-7.916696E-4	4.468750E-3	5.093425E-3	4.221291E-3	6.518013E-3	4.807383E-3	1.126748E-3	6.265331E-3	2.878671E-3	5.315866E-3	1.400366E-4	4.635870E-3	-2.506259E-3	6.389474E-3	2.622592E-3	7.907554E-3	9.786980E-4	2.493119E-3	3.185953E-3	1.724855E-3	4.904066E-3	4.290697E-3	8.667627E-3	-2.301800E-4	8.636036E-3	3.974111E-3	4.784153E-3	1.257722E-2	4.139992E-3	2.388756E-3	-1.873240E-4	7.480122E-4	6.179745E-3	4.586519E-4	6.824984E-3	1.338017E-3	1.111008E-2	9.957817E-3	8.549587E-4	1.122813E-2	6.738095E-3	1.036965E-2	9.891970E-3	1.095535E-2	1.386358E-2	6.961082E-3	6.809229E-3	2.024784E-3	4.507299E-3	2.990280E-3	6.186482E-3	4.557097E-3	-2.450806E-3	-2.060296E-3	1.480404E-3	4.763324E-3	1.662351E-3	8.824832E-3	9.103631E-3	2.417603E-4	5.613268E-3	6.052224E-3	3.140499E-3	2.611332E-3	-4.382506E-3	3.939714E-3	7.013476E-3	9.321021E-3	6.094780E-4	1.132145E-3	2.417291E-3	3.939463E-3	9.238715E-4	1.744380E-2	-2.238233E-3	7.401633E-3	9.861182E-3	4.115780E-3	5.077216E-3	4.604317E-3	1.202598E-2	4.729613E-3	8.851056E-3	1.229672E-2	3.639009E-3	9.083566E-4	5.615351E-3	9.176676E-3	-5.798463E-3	-4.096585E-3	4.913391E-4	-4.470221E-4	3.588051E-3	7.407575E-3	8.946035E-3	4.973662E-3	-1.438486E-3	2.464172E-3	3.497888E-3	6.231233E-3	1.778277E-3	2.224859E-3	6.501980E-3	5.636378E-4	1.006186E-2	-2.245588E-3	4.348685E-3	-2.287615E-3	5.039120E-3	5.908611E-3	7.763497E-3	3.624029E-5	5.005525E-3	1.357517E-3	9.917815E-4	5.055246E-3	4.213222E-3	7.555813E-3	4.300116E-3	5.901899E-4	2.031000E-3	5.531477E-3	4.700789E-3	4.114608E-3
5.325120E+2	9.330785E-3	7.825890E-4	1.863290E-3	1.447922E-3	7.309521E-3	1.333349E-2	1.069221E-2	-5.678113E-4	6.476018E-3	9.504838E-3	4.709904E-3	1.480833E-2	7.980818E-3	-1.094007E-3	-9.979538E-4	1.157907E-2	1.098396E-2	9.997090E-3	1.088631E-2	1.189130E-2	5.209945E-3	5.905088E-3	-6.726013E-3	1.395785E-2	7.247996E-3	9.698659E-3	-4.936757E-3	3.358909E-3	2.514813E-3	1.433261E-2	1.360139E-2	1.244278E-3	1.280629E-2	2.143567E-2	1.648206E-4	1.376829E-2	4.646947E-4	5.720265E-3	5.753269E-3	1.561385E-3	6.855364E-3	5.528914E-3	-1.605127E-3	1.357359E-2	1.029072E-2	1.846744E-3	3.082229E-3	5.254182E-3	1.665453E-4	5.216542E-3	8.004620E-3	2.644895E-3	3.811694E-3	1.062873E-3	3.316329E-3	1.315936E-2	6.833759E-3	6.935837E-3	1.194871E-2	6.299219E-3	5.938072E-3	1.949616E-3	1.044998E-2	7.530267E-3	6.860293E-3	1.178546E-2	6.488267E-3	5.289130E-3	9.575497E-3	1.640197E-2	5.216097E-3	6.785541E-3	1.839656E-2	6.001677E-3	4.580876E-3	8.731578E-3	1.176253E-2	1.044244E-2	1.827759E-2	8.367971E-3	7.289491E-3	4.188254E-3	9.345561E-3	5.816386E-3	7.203814E-3	7.122222E-3	5.047969E-3	1.422640E-2	3.876012E-3	4.938367E-3	5.516995E-3	7.943235E-3	8.785394E-3	6.918590E-3	7.867175E-3	4.762054E-3	4.149518E-3	7.522457E-3	1.319520E-2	9.372474E-3	1.018431E-2	4.697487E-3	6.313723E-3	4.116493E-3	1.836015E-3	1.211631E-2	8.090896E-3	6.004186E-3	8.699909E-3	9.115166E-3	1.864768E-2	8.636779E-3	1.532904E-2	3.167703E-3	6.577960E-3	3.201173E-3	5.146015E-3	1.130933E-2	1.553170E-2	1.135081E-2	8.193536E-3	1.168748E-3	5.664443E-4	4.590234E-3	3.961576E-3	8.483288E-3	9.802117E-3	1.494557E-3	2.552764E-3	1.416681E-3	6.515595E-3	1.191633E-2	9.735648E-3	2.902592E-3	1.354146E-2	1.350608E-2	1.661895E-2	7.810114E-3	9.140813E-3	1.839602E-3	2.167727E-3	1.279278E-2	7.031580E-3	7.022717E-3	1.474270E-2	1.115167E-2	1.252840E-2	3.787216E-3	1.239767E-2	1.118060E-2	1.307520E-2	9.349375E-3	-2.848512E-3	5.738042E-3	3.952049E-3	9.904484E-3	5.628868E-3	6.320980E-3	1.248615E-2	6.746215E-3	7.108701E-3	1.462998E-3	7.754471E-3	6.989592E-3	9.541351E-3	-2.215959E-3	1.467477E-2	8.741673E-3	1.290555E-2	2.661591E-3
5.330180E+2	1.926913E-2	1.521844E-2	2.279569E-2	1.128153E-2	2.260666E-2	1.883387E-2	1.653762E-2	2.467928E-2	1.326616E-2	1.486273E-2	2.220913E-2	1.340047E-2	3.300382E-2	1.521968E-2	2.572317E-2	2.148394E-2	2.574647E-2	2.305196E-2	2.142256E-2	2.438666E-2	2.641707E-2	2.289241E-2	2.189022E-2	3.924670E-3	2.516714E-2	2.685344E-2	1.517769E-2	3.666948E-2	1.913468E-2	1.058123E-2	1.857524E-2	1.082559E-2	2.121952E-2	2.761784E-2	2.054699E-2	1.509881E-2	1.662219E-2	2.724121E-2	2.172950E-2	1.688725E-2	1.047029E-2	2.296208E-2	7.948658E-3	1.907936E-2	2.038571E-2	1.502153E-2	3.503319E-2	2.220803E-2	1.011125E-2	2.110216E-2	1.663676E-2	2.377901E-2	3.075438E-2	2.144783E-2	2.398470E-2	1.991916E-2	1.076158E-2	1.007024E-2	1.390917E-2	3.177846E-2	1.883999E-2	2.571784E-2	2.883171E-2	9.669967E-3	1.884407E-2	1.694331E-2	1.610610E-2	2.367361E-2	2.333066E-2	2.396145E-2	1.467996E-2	2.153397E-2	3.244886E-2	2.676287E-2	2.411529E-2	9.964580E-3	1.766471E-2	2.580464E-2	1.896126E-2	1.804861E-2	2.400856E-2	2.650074E-2	1.334590E-2	2.483269E-2	2.375784E-2	1.955612E-2	1.710205E-2	8.992933E-3	2.597098E-2	2.237298E-2	1.927220E-2	2.618187E-2	2.497661E-2	3.305789E-2	2.547537E-2	1.119759E-2	2.302499E-2	6.951183E-3	1.825937E-2	6.385936E-3	2.284892E-2	2.127472E-2	2.150846E-2	1.318951E-2	2.008910E-2	1.246121E-2	2.525148E-2	1.297395E-2	1.936093E-2	2.267269E-2	2.232517E-2	3.672522E-2	1.305032E-2	1.822119E-2	1.683673E-2	2.501291E-2	1.711747E-2	6.982245E-3	2.357748E-2	1.821248E-2	2.010351E-2	2.155286E-2	1.759774E-2	1.497740E-2	1.574471E-2	2.914578E-2	2.192548E-2	1.590860E-2	3.564138E-2	1.308589E-2	2.464684E-2	1.612419E-2	1.613040E-2	2.572616E-2	2.388760E-2	2.700158E-2	2.275651E-2	2.117339E-2	2.983158E-2	2.084540E-2	2.883897E-2	1.630420E-2	3.738725E-2	2.032446E-2	2.210721E-2	1.695327E-2	1.943287E-2	2.462084E-2	1.572384E-2	1.005666E-2	2.068636E-2	1.843865E-2	2.673750E-2	2.074192E-2	3.077729E-2	1.692140E-2	1.629862E-2	1.302573E-2	2.494327E-2	3.400362E-2	2.398101E-2	2.240737E-2	3.128114E-2	1.276364E-2	2.373288E-2	2.288260E-2	1.829945E-2	1.230962E-2	8.519625E-3	2.624452E-2
5.331630E+2	3.538648E-2	2.264089E-2	2.338104E-2	1.859224E-2	2.514865E-2	2.274767E-2	1.708353E-2	3.167960E-2	2.948574E-2	2.410082E-2	2.872734E-2	2.247121E-2	3.271164E-2	2.607054E-2	2.817186E-2	2.990402E-2	1.711137E-2	2.455580E-2	2.093416E-2	2.848967E-2	3.592806E-2	1.745198E-2	2.249753E-2	2.374915E-2	2.839118E-2	3.572696E-2	1.628613E-2	2.660804E-2	2.310690E-2	2.787990E-2	2.149454E-2	2.344226E-2	2.232551E-2	2.446740E-2	1.905875E-2	3.250594E-2	2.314057E-2	3.335793E-2	3.775517E-2	3.597644E-2	3.295193E-2	2.458625E-2	2.211544E-2	3.225426E-2	3.580397E-2	2.909723E-2	1.627441E-2	2.668757E-2	2.257555E-2	2.165232E-2	2.773156E-2	2.911742E-2	2.259003E-2	3.193994E-2	2.617452E-2	1.848123E-2	3.714313E-2	2.838395E-2	2.350792E-2	2.289570E-2	3.460362E-2	2.335178E-2	2.033391E-2	3.182445E-2	2.790867E-2	2.821356E-2	3.230233E-2	2.910183E-2	2.243012E-2	3.645373E-2	1.357924E-2	2.943897E-2	3.311777E-2	1.779022E-2	3.308490E-2	3.327766E-2	2.823170E-2	2.882363E-2	3.372247E-2	4.330451E-2	2.864124E-2	2.368195E-2	1.607168E-2	1.333921E-2	2.633499E-2	3.564888E-2	4.102663E-2	2.810669E-2	4.440393E-2	3.191204E-2	3.395315E-2	3.742872E-2	2.190774E-2	3.469279E-2	2.271771E-2	1.918392E-2	3.121956E-2	2.224007E-2	3.904725E-2	1.741375E-2	3.485816E-2	1.214761E-2	4.319085E-2	2.207711E-2	2.506108E-2	2.974093E-2	2.796397E-2	2.726799E-2	2.158185E-2	3.203204E-2	2.348807E-2	2.490744E-2	2.797217E-2	2.189399E-2	2.356157E-2	2.944485E-2	2.098220E-2	2.965497E-2	3.239472E-2	2.095381E-2	2.987484E-2	2.593082E-2	2.819658E-2	3.145006E-2	3.682119E-2	2.031238E-2	3.280797E-2	2.106550E-2	2.585395E-2	2.456776E-2	2.587315E-2	2.059832E-2	2.944470E-2	2.299518E-2	3.292637E-2	3.171810E-2	2.179827E-2	3.388748E-2	3.677669E-2	2.865447E-2	3.260979E-2	3.554647E-2	2.459539E-2	2.091867E-2	2.597461E-2	2.861383E-2	2.425796E-2	2.522479E-2	2.385953E-2	2.137937E-2	3.204033E-2	3.181321E-2	2.739094E-2	3.351907E-2	3.143054E-2	2.531467E-2	2.259886E-2	2.202113E-2	1.592231E-2	2.001909E-2	3.247209E-2	3.152598E-2	3.418572E-2	2.545834E-2	2.384075E-2	3.512516E-2	3.528430E-2	1.860661E-2	1.019431E-2	3.799540E-2
5.333080E+2	3.973159E-2	2.158520E-2	2.420409E-2	3.060150E-2	2.175486E-2	2.469167E-2	3.528432E-2	2.926780E-2	2.493968E-2	2.360631E-2	2.400060E-2	3.505283E-2	2.755339E-2	2.460640E-2	4.311631E-2	2.068977E-2	3.321117E-2	2.413766E-2	3.019556E-2	3.378427E-2	3.596264E-2	2.744734E-2	2.995075E-2	2.873450E-2	3.050181E-2	1.254565E-2	3.375721E-2	4.167837E-2	1.827281E-2	3.198393E-2	4.123927E-2	3.875364E-2	3.414388E-2	1.427325E-2	3.486865E-2	2.883680E-2	3.880277E-2	2.242278E-2	3.680304E-2	3.125566E-2	2.225304E-2	1.147299E-2	2.475340E-2	3.753582E-2	2.921521E-2	1.909590E-2	3.731792E-2	2.804706E-2	3.459903E-2	2.930459E-2	2.935793E-2	1.914563E-2	3.332895E-2	3.718610E-2	3.898330E-2	3.207678E-2	2.185548E-2	4.335629E-2	2.704445E-2	4.254247E-2	4.103626E-2	3.999039E-2	3.492246E-2	3.329739E-2	3.033233E-2	3.274525E-2	3.234034E-2	3.238971E-2	3.204258E-2	3.239931E-2	1.644398E-2	4.369088E-2	2.595916E-2	2.741818E-2	3.602295E-2	2.732267E-2	3.095766E-2	3.001751E-2	3.390653E-2	3.099621E-2	1.719515E-2	3.164553E-2	3.040323E-2	3.638850E-2	3.086914E-2	3.058746E-2	2.856078E-2	3.367722E-2	2.716608E-2	2.247681E-2	2.144145E-2	4.186252E-2	3.444679E-2	3.031490E-2	4.104250E-2	2.767734E-2	3.222861E-2	2.937617E-2	4.180508E-2	2.519116E-2	3.092072E-2	3.357560E-2	2.503032E-2	2.937096E-2	3.435103E-2	3.266579E-2	2.280556E-2	3.276348E-2	3.603693E-2	3.205252E-2	2.460035E-2	4.474012E-2	3.756396E-2	3.217935E-2	2.356380E-2	2.347009E-2	3.044508E-2	2.214151E-2	2.483235E-2	2.469837E-2	2.775501E-2	2.597718E-2	4.888967E-2	3.769313E-2	2.891247E-2	4.236765E-2	3.335683E-2	2.569823E-2	2.902683E-2	3.551886E-2	3.667690E-2	3.352786E-2	2.429587E-2	3.369008E-2	2.899702E-2	2.507966E-2	2.446427E-2	3.285198E-2	2.935367E-2	3.811201E-2	3.680622E-2	3.234337E-2	2.730697E-2	3.503350E-2	3.035359E-2	2.473736E-2	3.390493E-2	3.345122E-2	2.237662E-2	2.141011E-2	2.355140E-2	2.643503E-2	2.481085E-2	3.458634E-2	2.920260E-2	3.102945E-2	3.992236E-2	3.649113E-2	2.715275E-2	2.467443E-2	3.145492E-2	3.106301E-2	2.415987E-2	2.492775E-2	2.774251E-2	3.106123E-2	3.397705E-2	4.409191E-2	2.680182E-2	4.122584E-2
5.334580E+2	4.666738E-2	4.261367E-2	4.719418E-2	3.822645E-2	5.195339E-2	3.934259E-2	4.355386E-2	5.631050E-2	4.104808E-2	4.655664E-2	4.746924E-2	4.415031E-2	4.857970E-2	4.802510E-2	3.984765E-2	5.658911E-2	5.591136E-2	4.149566E-2	5.248098E-2	5.005303E-2	4.669689E-2	3.777039E-2	4.717972E-2	5.003382E-2	4.349367E-2	3.516762E-2	3.895808E-2	5.249680E-2	4.676450E-2	4.152775E-2	4.649077E-2	5.527302E-2	4.474433E-2	3.243965E-2	5.210820E-2	4.987746E-2	5.611502E-2	4.920924E-2	4.282339E-2	5.452730E-2	4.296068E-2	3.758204E-2	3.810346E-2	5.367628E-2	4.721214E-2	3.400302E-2	5.049791E-2	3.917826E-2	5.351137E-2	4.223533E-2	4.297076E-2	4.379680E-2	4.434306E-2	6.209424E-2	4.569216E-2	4.346991E-2	5.441655E-2	5.329570E-2	4.615404E-2	4.768723E-2	5.462391E-2	4.575596E-2	5.305068E-2	4.636690E-2	5.578510E-2	4.690353E-2	5.747658E-2	4.900105E-2	4.247103E-2	5.046116E-2	4.448639E-2	4.065289E-2	3.455697E-2	5.452519E-2	5.841218E-2	4.356037E-2	4.899051E-2	4.325518E-2	4.522274E-2	4.845040E-2	4.682530E-2	5.078017E-2	6.101614E-2	4.198083E-2	5.222130E-2	5.668159E-2	3.808744E-2	5.113637E-2	3.782673E-2	4.735629E-2	5.455406E-2	4.819579E-2	4.699811E-2	4.827107E-2	4.929907E-2	4.598642E-2	5.022958E-2	4.022986E-2	4.627300E-2	4.663228E-2	5.303880E-2	4.737106E-2	4.881291E-2	3.960988E-2	5.494112E-2	4.107553E-2	4.471690E-2	5.160130E-2	5.294438E-2	4.058341E-2	3.444793E-2	4.599560E-2	5.064288E-2	4.431091E-2	4.064727E-2	4.879003E-2	4.395277E-2	3.613393E-2	4.554320E-2	5.017243E-2	4.837432E-2	3.832671E-2	4.073040E-2	3.920656E-2	5.506175E-2	3.718448E-2	5.209140E-2	5.267152E-2	4.933185E-2	3.316302E-2	4.068614E-2	3.448331E-2	5.007244E-2	4.515718E-2	5.408492E-2	5.099663E-2	3.542157E-2	4.585147E-2	4.001428E-2	5.569160E-2	5.645928E-2	4.868637E-2	4.658394E-2	6.456232E-2	4.055082E-2	4.507634E-2	5.116474E-2	5.150044E-2	5.334340E-2	5.263087E-2	5.503208E-2	4.841548E-2	4.435003E-2	5.716947E-2	5.964812E-2	4.223187E-2	3.609176E-2	4.477993E-2	3.920551E-2	5.049319E-2	5.006377E-2	4.838952E-2	3.680990E-2	4.701455E-2	5.607695E-2	4.211996E-2	3.969979E-2	4.316548E-2	4.082956E-2	6.643058E-2
5.336030E+2	5.056275E-2	4.667608E-2	5.735835E-2	5.346652E-2	4.989113E-2	5.021354E-2	5.421590E-2	5.171600E-2	6.174307E-2	6.183530E-2	6.270439E-2	5.711687E-2	5.886781E-2	7.156384E-2	5.273381E-2	5.792308E-2	6.413025E-2	5.293245E-2	4.487095E-2	6.140024E-2	6.061481E-2	6.165112E-2	6.333665E-2	5.969902E-2	5.286291E-2	5.570660E-2	6.057624E-2	6.214788E-2	5.980107E-2	6.181521E-2	5.936704E-2	6.654363E-2	7.386615E-2	5.487453E-2	5.842086E-2	5.956544E-2	6.028560E-2	6.366944E-2	6.747435E-2	5.575887E-2	6.654476E-2	5.220116E-2	5.189842E-2	5.365137E-2	6.193316E-2	6.252224E-2	5.343003E-2	5.560182E-2	5.120985E-2	6.389800E-2	7.516314E-2	4.881805E-2	5.318041E-2	5.693377E-2	5.742385E-2	7.021543E-2	4.591952E-2	5.189014E-2	5.828141E-2	6.101200E-2	5.504388E-2	5.627849E-2	6.807733E-2	7.423681E-2	6.764773E-2	4.242025E-2	7.243276E-2	4.103020E-2	4.342710E-2	5.138544E-2	6.350863E-2	4.690274E-2	3.650668E-2	4.541569E-2	6.323441E-2	6.503370E-2	5.207646E-2	4.516522E-2	6.850293E-2	5.608795E-2	5.186395E-2	5.571480E-2	6.033057E-2	6.147227E-2	5.869447E-2	6.806660E-2	5.524455E-2	5.966233E-2	4.471196E-2	6.276231E-2	5.231564E-2	4.484404E-2	6.131908E-2	4.566477E-2	5.969733E-2	4.878432E-2	5.875833E-2	5.290968E-2	6.144260E-2	3.704899E-2	5.795468E-2	5.623962E-2	7.745229E-2	6.142428E-2	4.465052E-2	4.702443E-2	6.160821E-2	5.923786E-2	5.079263E-2	4.970503E-2	5.490298E-2	6.579188E-2	6.279558E-2	4.882549E-2	6.449040E-2	5.083708E-2	6.989304E-2	5.591677E-2	5.426512E-2	6.398007E-2	5.203199E-2	5.124947E-2	5.137788E-2	4.583671E-2	5.971924E-2	6.164820E-2	4.654402E-2	5.681420E-2	5.921675E-2	6.859806E-2	6.028198E-2	5.622242E-2	5.476711E-2	6.404157E-2	6.464820E-2	5.347459E-2	5.173446E-2	4.784781E-2	6.672206E-2	6.338995E-2	6.475884E-2	4.322048E-2	4.482421E-2	5.940796E-2	5.022084E-2	6.660130E-2	5.522033E-2	7.386369E-2	7.397523E-2	5.704350E-2	5.717867E-2	6.119201E-2	6.454441E-2	5.285441E-2	5.004851E-2	4.785882E-2	5.747872E-2	6.717184E-2	4.929495E-2	6.211848E-2	5.429015E-2	6.584921E-2	4.498005E-2	5.858519E-2	6.332735E-2	5.877613E-2	6.113582E-2	6.586643E-2	5.309229E-2	7.969954E-2
5.337580E+2	8.368898E-2	8.019003E-2	7.045689E-2	7.413903E-2	8.133406E-2	7.700861E-2	7.433734E-2	8.866372E-2	8.059897E-2	8.087856E-2	7.136641E-2	8.580092E-2	9.150048E-2	8.539635E-2	8.347559E-2	7.418597E-2	8.320906E-2	7.699277E-2	7.066378E-2	7.961987E-2	7.913979E-2	7.742982E-2	6.748487E-2	8.089194E-2	1.019070E-1	7.332314E-2	7.500232E-2	8.108452E-2	7.686205E-2	9.556654E-2	8.105131E-2	6.344435E-2	9.186650E-2	8.079455E-2	9.010551E-2	7.287154E-2	7.462974E-2	7.320614E-2	8.555698E-2	8.311292E-2	7.276541E-2	8.119627E-2	6.823571E-2	7.318419E-2	7.685959E-2	7.512425E-2	7.690508E-2	8.341847E-2	7.856181E-2	7.921181E-2	1.052882E-1	7.539017E-2	7.933335E-2	8.309642E-2	8.866637E-2	8.744844E-2	7.508786E-2	8.721774E-2	8.567154E-2	7.648278E-2	7.576719E-2	7.534365E-2	9.537339E-2	7.381402E-2	7.292779E-2	8.144878E-2	8.554007E-2	9.011611E-2	8.543813E-2	8.554230E-2	5.697105E-2	8.324451E-2	7.886268E-2	8.607049E-2	8.859921E-2	7.834298E-2	7.847925E-2	8.338487E-2	7.928174E-2	7.244904E-2	8.750758E-2	7.612029E-2	8.074520E-2	8.899633E-2	1.034349E-1	8.096133E-2	7.787562E-2	8.646980E-2	8.100300E-2	7.531395E-2	8.063849E-2	7.841529E-2	7.906316E-2	8.411383E-2	6.641853E-2	8.409881E-2	7.817838E-2	7.918570E-2	7.276707E-2	8.778786E-2	8.699667E-2	7.804541E-2	9.060156E-2	6.965156E-2	7.993546E-2	9.072639E-2	8.235068E-2	9.525172E-2	6.653720E-2	8.219767E-2	7.836145E-2	8.143890E-2	9.276398E-2	8.755456E-2	7.272108E-2	7.765083E-2	8.941285E-2	6.784921E-2	8.252045E-2	8.164392E-2	7.460333E-2	7.014041E-2	8.338749E-2	8.056386E-2	7.616749E-2	8.282006E-2	7.671320E-2	7.539383E-2	9.197360E-2	7.306935E-2	7.958257E-2	9.179641E-2	8.988232E-2	8.211027E-2	9.117084E-2	9.306233E-2	7.836231E-2	8.807915E-2	7.764324E-2	8.017340E-2	7.059902E-2	7.219112E-2	8.016252E-2	9.299274E-2	7.657768E-2	7.612615E-2	7.340203E-2	8.052674E-2	8.111899E-2	8.863352E-2	8.957772E-2	1.032114E-1	7.814171E-2	9.651923E-2	7.302123E-2	7.700500E-2	9.383931E-2	7.626051E-2	8.872017E-2	6.730860E-2	7.239567E-2	8.846485E-2	1.014716E-1	7.027165E-2	9.593631E-2	8.345116E-2	9.476537E-2	6.756903E-2	6.621370E-2	1.037193E-1
5.339090E+2	1.097864E-1	1.225354E-1	1.269410E-1	1.209482E-1	1.130915E-1	1.251739E-1	1.315651E-1	1.314540E-1	1.247197E-1	1.275130E-1	1.153406E-1	1.205501E-1	1.211596E-1	1.029669E-1	1.210647E-1	1.167382E-1	1.231345E-1	1.263539E-1	1.244380E-1	1.059555E-1	1.223007E-1	1.182784E-1	1.318059E-1	1.241702E-1	1.354247E-1	1.404828E-1	1.213628E-1	1.490815E-1	1.244675E-1	1.255717E-1	1.265736E-1	1.170445E-1	1.333335E-1	1.140237E-1	1.457703E-1	1.188846E-1	1.197224E-1	1.286242E-1	1.400691E-1	1.530564E-1	1.251218E-1	1.352887E-1	1.175344E-1	1.342070E-1	1.290935E-1	1.343907E-1	1.266320E-1	1.328695E-1	1.434383E-1	1.358329E-1	1.299381E-1	1.389715E-1	1.328984E-1	1.328894E-1	1.342541E-1	1.278133E-1	1.072001E-1	1.243459E-1	1.139209E-1	1.284947E-1	1.268689E-1	1.572725E-1	1.079796E-1	1.110570E-1	1.337217E-1	1.423791E-1	1.181541E-1	1.388895E-1	1.140925E-1	1.300610E-1	1.278259E-1	1.281471E-1	1.184128E-1	1.326040E-1	1.386904E-1	1.136893E-1	1.313236E-1	1.226509E-1	1.216906E-1	1.369324E-1	1.269838E-1	1.276693E-1	1.180914E-1	1.171962E-1	1.384722E-1	1.432906E-1	1.276412E-1	1.300261E-1	1.062333E-1	1.131498E-1	1.278548E-1	1.361542E-1	1.395017E-1	1.478516E-1	1.150276E-1	1.222154E-1	1.365908E-1	1.176033E-1	1.326793E-1	1.463981E-1	1.243741E-1	1.220897E-1	1.232787E-1	1.284481E-1	1.266495E-1	1.186546E-1	1.239292E-1	1.401821E-1	1.426464E-1	1.181580E-1	1.374864E-1	1.377453E-1	1.289809E-1	1.333896E-1	1.383075E-1	1.292804E-1	1.301964E-1	1.209561E-1	1.160909E-1	1.178521E-1	1.233318E-1	1.351236E-1	1.153483E-1	1.182522E-1	1.162334E-1	1.270338E-1	1.292292E-1	1.355690E-1	1.282757E-1	1.372131E-1	1.377345E-1	1.455372E-1	1.263759E-1	1.346683E-1	1.392330E-1	1.304488E-1	1.267001E-1	1.203063E-1	1.392206E-1	1.130538E-1	1.418057E-1	1.278117E-1	1.272104E-1	1.421164E-1	1.169850E-1	1.333494E-1	1.346761E-1	1.405451E-1	1.382304E-1	1.355420E-1	1.281763E-1	1.306799E-1	1.140489E-1	1.220767E-1	1.327587E-1	1.209310E-1	1.374337E-1	1.307369E-1	1.164886E-1	1.179614E-1	1.259593E-1	1.326321E-1	1.359119E-1	1.100318E-1	1.332846E-1	1.231031E-1	1.445944E-1	1.307147E-1	1.355868E-1	1.504550E-1
5.340430E+2	1.663117E-1	1.629662E-1	1.935320E-1	1.743390E-1	1.736139E-1	1.808089E-1	1.856667E-1	1.790059E-1	1.716508E-1	1.754499E-1	1.769358E-1	1.664416E-1	2.051462E-1	1.498806E-1	1.888054E-1	1.832980E-1	1.927050E-1	1.760161E-1	1.573477E-1	1.896272E-1	1.838895E-1	1.585083E-1	1.650964E-1	1.731266E-1	2.030213E-1	1.752827E-1	1.680119E-1	1.886757E-1	1.733317E-1	2.071370E-1	1.932078E-1	1.868090E-1	1.884816E-1	1.973029E-1	1.961031E-1	2.020096E-1	1.887454E-1	1.995224E-1	1.931475E-1	1.936093E-1	1.829376E-1	1.934361E-1	1.548530E-1	1.902969E-1	1.916213E-1	1.904545E-1	1.881881E-1	1.896403E-1	1.719330E-1	1.878731E-1	1.899281E-1	2.029727E-1	1.906255E-1	1.930875E-1	1.848919E-1	1.878408E-1	1.821696E-1	1.700398E-1	1.693326E-1	1.738984E-1	1.926831E-1	2.050081E-1	1.846544E-1	1.728270E-1	1.901856E-1	2.060370E-1	1.951420E-1	1.979005E-1	1.841922E-1	1.807989E-1	1.648582E-1	1.644846E-1	2.059814E-1	2.105907E-1	1.626596E-1	1.819168E-1	1.779797E-1	2.142895E-1	1.712426E-1	2.003838E-1	2.072136E-1	1.845934E-1	2.048366E-1	1.880548E-1	1.717955E-1	1.875308E-1	1.740035E-1	1.794125E-1	1.724441E-1	1.810565E-1	1.727115E-1	1.623990E-1	1.846668E-1	1.765987E-1	1.950840E-1	1.743095E-1	1.895285E-1	1.757994E-1	1.732763E-1	1.744155E-1	2.027400E-1	1.826040E-1	1.844208E-1	1.870603E-1	1.877119E-1	1.948962E-1	1.830996E-1	1.898861E-1	1.933714E-1	1.754703E-1	1.909857E-1	1.864638E-1	1.792827E-1	1.809454E-1	1.866146E-1	1.620609E-1	1.758519E-1	1.932784E-1	1.939009E-1	1.972956E-1	1.893802E-1	1.871476E-1	1.832751E-1	1.792328E-1	1.894231E-1	1.794862E-1	1.822152E-1	1.787803E-1	2.012867E-1	1.850916E-1	1.761750E-1	1.681766E-1	1.801596E-1	1.923490E-1	1.826550E-1	1.791533E-1	1.827359E-1	1.712675E-1	1.714497E-1	2.026546E-1	1.896670E-1	1.734425E-1	1.736291E-1	1.876466E-1	1.823488E-1	1.880056E-1	1.816506E-1	1.854786E-1	1.971710E-1	1.876804E-1	2.066584E-1	1.967958E-1	1.941726E-1	1.879141E-1	2.090547E-1	1.860753E-1	1.743849E-1	1.649170E-1	1.658388E-1	1.894610E-1	1.776878E-1	1.760472E-1	1.848389E-1	2.003678E-1	1.877238E-1	1.926260E-1	2.011371E-1	1.906401E-1	1.865156E-1	1.657499E-1
5.342040E+2	3.233078E-1	2.928246E-1	3.333492E-1	3.208043E-1	3.017151E-1	3.123590E-1	3.339385E-1	3.351779E-1	3.167215E-1	3.152699E-1	3.249106E-1	3.468545E-1	3.225482E-1	3.271588E-1	3.193776E-1	2.993465E-1	3.128480E-1	3.163227E-1	3.245374E-1	3.257277E-1	3.148375E-1	3.043492E-1	3.095220E-1	3.064489E-1	3.489835E-1	3.751968E-1	3.144190E-1	3.255074E-1	3.220698E-1	3.375415E-1	3.369505E-1	3.267426E-1	3.323394E-1	3.390573E-1	3.429466E-1	3.282750E-1	3.186578E-1	3.591540E-1	3.289185E-1	3.252668E-1	3.348467E-1	3.176142E-1	3.254162E-1	3.337531E-1	3.271401E-1	3.152085E-1	3.370137E-1	3.098518E-1	3.286917E-1	3.391117E-1	3.349147E-1	3.276705E-1	3.329093E-1	3.081859E-1	3.477405E-1	3.384958E-1	3.455892E-1	3.290773E-1	3.180515E-1	3.299495E-1	3.268407E-1	3.366250E-1	3.240881E-1	3.332355E-1	3.241915E-1	3.275847E-1	3.233021E-1	3.156202E-1	3.218433E-1	2.941597E-1	3.223002E-1	3.341073E-1	3.214191E-1	3.349373E-1	3.062033E-1	3.091305E-1	3.169276E-1	3.260434E-1	3.319239E-1	3.448863E-1	3.350881E-1	3.174338E-1	3.224867E-1	3.197946E-1	3.282938E-1	3.429616E-1	2.933632E-1	3.283017E-1	3.119340E-1	3.304785E-1	2.870559E-1	3.416044E-1	3.223012E-1	3.084698E-1	3.138606E-1	3.309677E-1	3.472149E-1	3.185734E-1	3.117642E-1	3.194952E-1	3.503956E-1	3.168078E-1	3.294968E-1	3.260348E-1	3.213507E-1	3.145039E-1	3.272585E-1	3.273056E-1	3.173406E-1	3.114977E-1	3.313287E-1	3.310705E-1	3.391366E-1	3.484426E-1	3.486544E-1	3.067125E-1	3.025813E-1	3.490147E-1	3.170573E-1	3.529845E-1	3.215237E-1	3.540951E-1	3.160097E-1	3.368612E-1	3.162608E-1	3.540534E-1	3.426263E-1	3.325113E-1	3.241315E-1	3.477670E-1	3.418782E-1	3.215894E-1	3.333197E-1	3.280072E-1	3.413597E-1	3.386870E-1	3.156761E-1	2.943713E-1	2.982433E-1	3.196114E-1	3.344883E-1	3.254209E-1	3.496226E-1	3.469196E-1	3.397134E-1	3.117844E-1	3.262907E-1	3.443648E-1	3.098464E-1	3.011859E-1	2.993466E-1	3.355157E-1	3.341074E-1	3.275719E-1	3.420164E-1	3.190958E-1	3.462858E-1	3.425401E-1	3.377862E-1	3.420836E-1	3.266718E-1	3.361593E-1	3.186979E-1	3.410856E-1	3.108545E-1	3.558121E-1	3.401163E-1	3.085810E-1	3.073083E-1	2.691129E-1
5.343600E+2	5.660405E-1	5.526132E-1	5.582409E-1	5.855577E-1	6.020898E-1	5.810936E-1	5.798549E-1	5.790395E-1	5.968218E-1	5.791693E-1	5.756813E-1	5.800537E-1	5.959084E-1	5.790555E-1	5.483566E-1	5.715600E-1	5.806703E-1	5.771732E-1	5.723099E-1	5.766129E-1	5.671692E-1	5.779482E-1	5.784705E-1	5.671251E-1	6.379680E-1	6.514007E-1	5.924647E-1	6.224654E-1	6.154350E-1	5.859286E-1	6.023099E-1	6.105396E-1	6.087170E-1	6.006308E-1	6.278350E-1	6.190789E-1	6.095332E-1	6.062302E-1	6.100216E-1	6.278525E-1	6.029844E-1	6.282478E-1	5.282106E-1	6.269599E-1	6.171043E-1	5.896222E-1	6.147798E-1	5.813484E-1	6.212439E-1	5.673014E-1	5.878430E-1	5.796078E-1	5.928910E-1	5.802973E-1	5.951203E-1	6.203347E-1	5.850323E-1	6.030067E-1	6.062677E-1	6.018431E-1	5.954638E-1	6.188097E-1	6.065832E-1	5.877973E-1	6.142679E-1	5.995115E-1	5.933121E-1	6.261423E-1	6.007063E-1	5.838410E-1	5.866681E-1	6.079285E-1	5.940202E-1	6.196695E-1	5.723368E-1	5.855882E-1	6.020077E-1	6.015953E-1	6.065105E-1	5.753154E-1	5.853303E-1	5.994847E-1	5.543225E-1	5.797415E-1	5.463200E-1	5.813009E-1	6.129352E-1	5.953449E-1	6.014295E-1	5.957924E-1	5.779764E-1	5.975501E-1	6.168929E-1	6.168466E-1	5.747709E-1	6.085574E-1	6.354087E-1	6.003136E-1	6.019771E-1	5.784218E-1	6.022179E-1	5.800496E-1	6.128795E-1	5.661581E-1	5.706960E-1	5.829483E-1	5.972929E-1	6.165136E-1	6.082469E-1	6.030409E-1	6.108678E-1	5.925668E-1	5.989298E-1	6.090449E-1	6.297237E-1	5.805622E-1	5.785122E-1	5.765639E-1	5.968591E-1	6.359120E-1	5.824721E-1	5.672078E-1	5.891072E-1	5.738216E-1	5.731696E-1	5.949604E-1	5.911051E-1	5.708905E-1	5.908562E-1	5.668279E-1	5.984966E-1	5.789184E-1	6.066555E-1	5.696574E-1	5.850132E-1	5.950572E-1	5.815040E-1	6.053885E-1	6.149780E-1	5.897074E-1	5.731965E-1	6.109392E-1	5.734483E-1	5.924884E-1	5.975291E-1	5.822085E-1	6.130629E-1	5.857913E-1	5.984169E-1	6.058182E-1	5.888331E-1	6.180676E-1	5.867438E-1	5.878943E-1	5.758640E-1	5.847992E-1	5.831772E-1	5.872460E-1	5.918955E-1	6.089761E-1	6.126952E-1	5.829477E-1	5.746801E-1	5.992604E-1	5.723590E-1	5.871501E-1	6.210360E-1	6.266072E-1	5.571134E-1	6.187233E-1
5.345160E+2	9.826252E-1	9.554097E-1	9.802362E-1	9.808364E-1	9.661397E-1	9.462192E-1	9.639644E-1	9.799652E-1	9.721252E-1	9.862417E-1	9.784193E-1	9.832234E-1	1.002883E+0	9.667023E-1	9.249165E-1	9.515812E-1	9.792390E-1	9.640203E-1	9.150341E-1	9.677762E-1	9.522174E-1	9.955974E-1	9.960098E-1	9.680444E-1	1.063710E+0	1.058511E+0	9.830172E-1	1.039736E+0	1.008865E+0	1.005909E+0	9.675765E-1	1.002433E+0	1.049804E+0	9.868739E-1	1.028943E+0	9.783998E-1	9.970809E-1	1.007981E+0	9.858747E-1	1.026221E+0	9.842461E-1	9.834916E-1	9.245812E-1	9.914000E-1	9.975581E-1	1.017172E+0	1.001809E+0	9.688943E-1	9.660038E-1	1.000146E+0	1.000747E+0	1.001143E+0	9.580554E-1	9.846066E-1	9.516495E-1	9.794814E-1	9.575021E-1	9.801757E-1	9.925371E-1	9.674059E-1	9.862862E-1	9.943556E-1	9.934318E-1	9.579611E-1	1.007044E+0	9.976683E-1	9.859352E-1	1.000016E+0	9.833550E-1	9.571379E-1	9.375505E-1	9.764145E-1	9.890944E-1	9.795660E-1	9.678766E-1	9.921839E-1	9.590233E-1	9.678657E-1	9.681763E-1	1.004788E+0	9.632025E-1	9.702799E-1	1.006204E+0	1.038112E+0	9.818373E-1	9.664794E-1	9.105644E-1	9.956005E-1	1.017843E+0	9.722692E-1	1.026007E+0	1.000027E+0	9.288325E-1	1.007601E+0	9.512051E-1	9.969215E-1	9.555558E-1	9.620433E-1	9.612953E-1	9.986339E-1	9.786683E-1	9.492125E-1	9.496170E-1	1.002183E+0	9.671924E-1	9.873461E-1	9.725057E-1	9.160583E-1	9.632680E-1	9.634179E-1	9.930948E-1	9.604233E-1	9.459332E-1	9.651590E-1	9.878374E-1	8.990223E-1	9.908269E-1	9.562141E-1	9.857961E-1	1.027503E+0	1.009687E+0	9.666448E-1	9.866421E-1	9.628291E-1	9.844701E-1	9.842768E-1	9.793091E-1	1.031005E+0	9.582916E-1	9.754306E-1	9.586247E-1	9.840023E-1	9.769172E-1	1.013523E+0	9.572596E-1	9.659137E-1	1.001783E+0	9.354479E-1	9.767298E-1	9.785904E-1	9.942682E-1	9.451308E-1	9.864666E-1	9.884518E-1	9.337342E-1	9.379668E-1	9.420269E-1	9.841835E-1	9.747433E-1	9.585795E-1	9.772868E-1	9.678839E-1	9.569731E-1	9.789516E-1	1.004364E+0	1.009732E+0	9.801576E-1	9.601898E-1	9.276659E-1	1.010122E+0	1.010581E+0	9.491369E-1	9.701152E-1	9.809337E-1	9.542014E-1	9.323604E-1	1.007058E+0	1.026244E+0	1.022382E+0	9.962027E-1
5.346620E+2	1.328217E+0	1.269398E+0	1.377250E+0	1.330162E+0	1.389538E+0	1.332408E+0	1.333928E+0	1.328427E+0	1.347673E+0	1.343561E+0	1.423289E+0	1.415195E+0	1.316081E+0	1.360116E+0	1.322282E+0	1.319673E+0	1.383792E+0	1.357031E+0	1.348909E+0	1.357904E+0	1.357890E+0	1.390791E+0	1.343456E+0	1.376545E+0	1.413002E+0	1.368910E+0	1.346605E+0	1.405135E+0	1.429337E+0	1.325080E+0	1.371348E+0	1.341438E+0	1.350400E+0	1.385311E+0	1.341474E+0	1.313645E+0	1.366513E+0	1.369801E+0	1.308466E+0	1.400159E+0	1.329810E+0	1.403958E+0	1.361966E+0	1.323829E+0	1.410717E+0	1.397075E+0	1.395117E+0	1.327624E+0	1.372126E+0	1.364767E+0	1.386381E+0	1.335003E+0	1.349803E+0	1.389582E+0	1.368595E+0	1.348311E+0	1.384651E+0	1.356988E+0	1.392416E+0	1.287432E+0	1.400895E+0	1.423513E+0	1.341363E+0	1.301351E+0	1.306042E+0	1.328789E+0	1.398966E+0	1.339527E+0	1.371565E+0	1.352689E+0	1.354823E+0	1.342856E+0	1.329581E+0	1.328097E+0	1.295537E+0	1.308906E+0	1.343073E+0	1.379674E+0	1.353749E+0	1.343944E+0	1.368310E+0	1.341063E+0	1.346872E+0	1.346170E+0	1.316317E+0	1.369064E+0	1.336635E+0	1.364926E+0	1.288387E+0	1.353148E+0	1.332123E+0	1.305228E+0	1.333005E+0	1.314967E+0	1.325450E+0	1.336291E+0	1.366009E+0	1.372867E+0	1.358468E+0	1.354944E+0	1.352995E+0	1.345811E+0	1.337972E+0	1.401591E+0	1.347932E+0	1.309678E+0	1.333583E+0	1.316748E+0	1.308282E+0	1.410873E+0	1.408467E+0	1.312650E+0	1.333758E+0	1.345128E+0	1.374874E+0	1.352792E+0	1.346055E+0	1.324730E+0	1.322920E+0	1.352266E+0	1.331788E+0	1.318971E+0	1.325531E+0	1.347716E+0	1.302750E+0	1.294199E+0	1.368173E+0	1.294439E+0	1.391718E+0	1.296886E+0	1.359158E+0	1.301036E+0	1.272437E+0	1.359220E+0	1.395813E+0	1.339714E+0	1.353437E+0	1.358908E+0	1.382908E+0	1.346938E+0	1.377451E+0	1.316981E+0	1.387695E+0	1.323061E+0	1.359685E+0	1.287808E+0	1.339991E+0	1.302501E+0	1.342890E+0	1.338401E+0	1.345396E+0	1.356353E+0	1.338220E+0	1.317491E+0	1.318314E+0	1.334639E+0	1.356996E+0	1.310573E+0	1.314688E+0	1.353027E+0	1.278927E+0	1.328171E+0	1.377122E+0	1.377507E+0	1.368850E+0	1.326425E+0	1.343825E+0	1.388964E+0	1.257492E+0	1.369842E+0
5.348120E+2	1.746989E+0	1.760562E+0	1.768425E+0	1.749172E+0	1.740661E+0	1.783696E+0	1.737230E+0	1.742059E+0	1.744930E+0	1.693774E+0	1.767876E+0	1.768151E+0	1.801345E+0	1.776208E+0	1.710590E+0	1.761436E+0	1.770325E+0	1.764400E+0	1.739122E+0	1.742731E+0	1.710000E+0	1.754993E+0	1.761610E+0	1.772046E+0	1.748478E+0	1.804178E+0	1.762989E+0	1.791340E+0	1.733950E+0	1.723260E+0	1.711868E+0	1.712067E+0	1.780765E+0	1.755379E+0	1.751213E+0	1.728592E+0	1.781971E+0	1.699099E+0	1.752413E+0	1.736888E+0	1.759412E+0	1.754374E+0	1.754218E+0	1.782975E+0	1.747266E+0	1.747199E+0	1.791725E+0	1.773239E+0	1.829731E+0	1.773699E+0	1.749937E+0	1.708714E+0	1.745829E+0	1.790283E+0	1.735418E+0	1.806567E+0	1.708253E+0	1.776057E+0	1.800241E+0	1.766255E+0	1.812095E+0	1.729695E+0	1.738887E+0	1.719496E+0	1.712205E+0	1.732944E+0	1.708566E+0	1.741231E+0	1.750033E+0	1.725764E+0	1.704799E+0	1.768939E+0	1.716034E+0	1.803881E+0	1.705580E+0	1.748891E+0	1.702054E+0	1.712704E+0	1.749317E+0	1.760591E+0	1.704945E+0	1.663119E+0	1.740529E+0	1.697395E+0	1.692450E+0	1.718108E+0	1.734938E+0	1.755596E+0	1.709118E+0	1.764154E+0	1.728491E+0	1.764121E+0	1.719749E+0	1.777114E+0	1.788816E+0	1.687381E+0	1.754952E+0	1.778553E+0	1.713329E+0	1.700463E+0	1.768465E+0	1.752072E+0	1.726368E+0	1.752021E+0	1.726408E+0	1.676540E+0	1.686138E+0	1.734727E+0	1.767282E+0	1.750105E+0	1.708215E+0	1.750769E+0	1.730025E+0	1.727246E+0	1.760581E+0	1.711971E+0	1.688621E+0	1.709831E+0	1.701541E+0	1.702992E+0	1.775470E+0	1.712528E+0	1.745382E+0	1.719556E+0	1.708654E+0	1.714244E+0	1.746669E+0	1.700803E+0	1.757463E+0	1.710373E+0	1.750450E+0	1.721234E+0	1.713847E+0	1.713289E+0	1.731969E+0	1.730699E+0	1.719202E+0	1.748440E+0	1.691163E+0	1.695547E+0	1.697723E+0	1.778997E+0	1.718518E+0	1.687440E+0	1.681320E+0	1.666092E+0	1.733283E+0	1.675609E+0	1.655645E+0	1.697429E+0	1.673952E+0	1.748312E+0	1.690118E+0	1.660489E+0	1.695954E+0	1.747864E+0	1.679397E+0	1.659713E+0	1.710072E+0	1.746656E+0	1.715079E+0	1.698818E+0	1.766073E+0	1.733882E+0	1.670465E+0	1.692896E+0	1.755565E+0	1.786592E+0	1.645176E+0	1.656738E+0
5.349530E+2	2.043420E+0	1.923414E+0	2.050896E+0	1.999702E+0	1.946063E+0	1.959123E+0	1.999778E+0	1.938620E+0	1.981088E+0	1.940727E+0	1.928373E+0	1.980526E+0	1.953919E+0	1.968573E+0	1.950869E+0	1.944783E+0	1.974438E+0	2.001584E+0	1.979088E+0	1.982873E+0	1.971537E+0	1.914123E+0	1.933752E+0	1.963392E+0	1.936989E+0	1.989381E+0	1.945851E+0	1.959455E+0	1.917835E+0	1.894644E+0	1.931490E+0	1.944985E+0	1.999732E+0	1.964422E+0	1.923765E+0	1.975810E+0	1.987369E+0	2.002711E+0	1.981515E+0	1.941406E+0	1.996356E+0	1.998531E+0	1.869832E+0	1.942748E+0	1.990594E+0	2.026507E+0	1.979892E+0	1.903527E+0	1.966311E+0	2.011109E+0	1.925071E+0	1.954216E+0	1.932708E+0	1.967227E+0	1.909510E+0	1.951351E+0	1.983650E+0	1.930663E+0	1.937030E+0	1.902211E+0	2.021212E+0	1.963608E+0	1.920367E+0	1.937723E+0	1.949075E+0	1.939941E+0	1.972023E+0	1.908713E+0	1.933506E+0	1.952570E+0	1.939715E+0	1.941973E+0	1.902035E+0	1.983100E+0	1.991907E+0	1.901978E+0	1.942324E+0	1.929446E+0	1.945852E+0	1.987019E+0	1.985022E+0	1.891245E+0	2.006777E+0	1.926356E+0	1.889180E+0	1.941387E+0	1.901573E+0	1.958865E+0	1.849679E+0	1.952722E+0	1.945207E+0	1.925619E+0	1.903250E+0	1.949230E+0	1.939358E+0	1.900968E+0	1.923895E+0	1.963459E+0	1.938886E+0	1.896396E+0	1.868811E+0	1.959553E+0	1.902888E+0	1.960001E+0	1.957027E+0	1.893434E+0	2.012711E+0	1.927556E+0	1.908637E+0	1.947355E+0	1.935768E+0	1.888672E+0	1.942819E+0	1.975072E+0	1.971179E+0	1.879676E+0	1.924143E+0	1.917580E+0	1.896094E+0	1.924057E+0	2.004379E+0	1.868173E+0	1.944498E+0	2.016120E+0	1.862299E+0	1.915296E+0	1.928234E+0	1.903342E+0	1.891105E+0	1.989374E+0	1.924560E+0	1.934015E+0	1.881568E+0	1.919992E+0	1.899698E+0	1.929737E+0	1.949226E+0	1.915045E+0	1.913949E+0	1.972373E+0	1.860359E+0	1.921441E+0	1.921841E+0	1.902589E+0	1.899354E+0	1.931667E+0	1.931575E+0	1.945379E+0	1.905595E+0	1.882162E+0	1.871726E+0	1.931539E+0	1.887397E+0	1.907743E+0	1.880090E+0	1.877750E+0	1.896765E+0	1.849299E+0	1.903016E+0	1.889687E+0	1.885456E+0	1.923850E+0	1.948092E+0	1.931265E+0	1.906239E+0	1.893899E+0	1.892986E+0	1.896394E+0	1.797163E+0	1.792216E+0
5.351140E+2	1.959402E+0	1.968694E+0	1.908776E+0	1.932172E+0	1.934093E+0	1.995554E+0	1.969863E+0	1.933414E+0	1.979760E+0	1.946396E+0	1.947209E+0	1.992723E+0	1.984567E+0	1.994506E+0	1.941217E+0	1.876072E+0	1.955328E+0	1.944068E+0	1.901510E+0	1.860639E+0	1.998108E+0	1.933402E+0	1.942927E+0	1.974587E+0	1.966082E+0	1.964628E+0	1.944226E+0	1.955433E+0	1.929256E+0	1.914881E+0	1.945800E+0	1.917221E+0	1.971399E+0	1.966223E+0	1.915347E+0	1.954409E+0	1.945603E+0	1.991614E+0	1.935783E+0	1.949970E+0	2.006719E+0	1.932107E+0	1.878795E+0	1.956194E+0	1.931510E+0	1.905154E+0	1.969956E+0	1.928403E+0	1.975323E+0	1.934148E+0	1.885270E+0	1.963981E+0	2.000319E+0	1.962793E+0	1.917350E+0	1.896254E+0	1.938823E+0	1.895985E+0	1.980239E+0	1.897409E+0	1.945964E+0	1.939048E+0	1.884892E+0	1.914912E+0	1.980323E+0	1.943705E+0	1.941106E+0	1.961426E+0	1.945897E+0	1.929878E+0	1.932819E+0	1.854808E+0	1.969659E+0	1.964781E+0	1.911026E+0	1.921443E+0	1.943401E+0	1.919306E+0	1.976359E+0	1.967739E+0	1.920011E+0	1.959625E+0	1.945659E+0	1.905560E+0	1.931091E+0	1.852875E+0	1.910735E+0	1.932341E+0	2.011877E+0	1.939671E+0	1.917425E+0	1.880687E+0	2.008584E+0	1.928037E+0	1.867514E+0	1.927442E+0	1.923844E+0	1.905829E+0	1.871260E+0	1.927006E+0	1.990012E+0	1.933080E+0	1.888096E+0	1.924485E+0	1.899219E+0	1.879164E+0	1.977737E+0	1.862805E+0	1.933160E+0	1.920674E+0	1.945756E+0	1.923058E+0	1.901285E+0	1.910207E+0	1.947709E+0	1.865975E+0	1.896342E+0	1.918511E+0	1.929671E+0	1.912349E+0	1.958306E+0	1.869405E+0	1.908727E+0	1.913254E+0	1.941319E+0	1.922249E+0	1.882231E+0	1.904672E+0	1.880558E+0	1.934668E+0	1.909010E+0	1.865662E+0	1.943842E+0	1.900357E+0	1.883341E+0	1.888464E+0	1.896863E+0	1.885666E+0	1.927856E+0	1.950256E+0	1.854064E+0	1.869301E+0	1.953534E+0	1.886885E+0	1.873549E+0	1.836762E+0	1.834557E+0	1.916358E+0	1.868520E+0	1.898836E+0	1.939225E+0	1.913990E+0	1.924950E+0	1.902876E+0	1.850664E+0	1.985687E+0	1.920475E+0	1.895284E+0	1.911596E+0	1.911758E+0	1.817225E+0	1.896226E+0	1.901866E+0	1.886980E+0	1.854878E+0	1.838782E+0	1.934052E+0	1.918869E+0	1.888485E+0	1.882603E+0
5.352600E+2	1.875508E+0	1.858423E+0	1.863945E+0	1.885445E+0	1.798268E+0	1.866808E+0	1.803999E+0	1.833513E+0	1.906227E+0	1.848181E+0	1.866254E+0	1.842422E+0	1.853546E+0	1.864151E+0	1.846905E+0	1.831848E+0	1.936060E+0	1.916685E+0	1.830285E+0	1.836083E+0	1.796244E+0	1.889815E+0	1.880101E+0	1.849195E+0	1.877130E+0	1.881767E+0	1.818974E+0	1.938802E+0	1.835921E+0	1.850827E+0	1.883890E+0	1.850407E+0	1.878168E+0	1.809627E+0	1.819213E+0	1.800938E+0	1.852118E+0	1.819028E+0	1.865592E+0	1.862028E+0	1.871189E+0	1.878510E+0	1.871509E+0	1.820380E+0	1.898875E+0	1.849062E+0	1.862209E+0	1.797259E+0	1.879311E+0	1.866950E+0	1.837823E+0	1.843915E+0	1.882874E+0	1.851396E+0	1.829139E+0	1.782024E+0	1.824352E+0	1.876998E+0	1.870820E+0	1.822525E+0	1.903997E+0	1.839188E+0	1.850792E+0	1.829079E+0	1.775411E+0	1.844370E+0	1.818430E+0	1.817677E+0	1.809637E+0	1.859060E+0	1.828686E+0	1.798781E+0	1.870265E+0	1.887727E+0	1.848502E+0	1.821741E+0	1.847566E+0	1.826018E+0	1.840385E+0	1.889785E+0	1.859856E+0	1.894217E+0	1.897630E+0	1.831045E+0	1.815860E+0	1.821524E+0	1.839912E+0	1.814719E+0	1.848647E+0	1.829765E+0	1.832538E+0	1.826035E+0	1.812206E+0	1.864148E+0	1.854422E+0	1.834128E+0	1.802807E+0	1.828900E+0	1.873778E+0	1.866509E+0	1.799428E+0	1.767243E+0	1.759570E+0	1.845815E+0	1.757790E+0	1.742309E+0	1.823654E+0	1.782788E+0	1.867748E+0	1.821935E+0	1.851291E+0	1.833904E+0	1.842049E+0	1.796525E+0	1.804789E+0	1.829714E+0	1.845494E+0	1.811316E+0	1.844740E+0	1.849365E+0	1.797992E+0	1.763117E+0	1.787950E+0	1.806232E+0	1.828237E+0	1.838310E+0	1.854849E+0	1.790618E+0	1.860185E+0	1.804864E+0	1.858905E+0	1.759931E+0	1.816754E+0	1.784379E+0	1.781782E+0	1.759686E+0	1.747489E+0	1.820695E+0	1.821332E+0	1.771978E+0	1.840450E+0	1.785838E+0	1.808318E+0	1.810173E+0	1.731336E+0	1.771381E+0	1.826131E+0	1.741549E+0	1.799500E+0	1.773946E+0	1.737473E+0	1.836454E+0	1.813533E+0	1.781159E+0	1.809662E+0	1.790778E+0	1.828135E+0	1.806273E+0	1.795015E+0	1.842747E+0	1.795474E+0	1.816125E+0	1.824098E+0	1.769680E+0	1.799500E+0	1.760480E+0	1.795087E+0	1.832788E+0	1.782580E+0	1.702497E+0
5.354170E+2	1.598257E+0	1.610883E+0	1.602687E+0	1.606891E+0	1.559555E+0	1.607132E+0	1.570309E+0	1.614854E+0	1.578442E+0	1.587973E+0	1.580980E+0	1.615380E+0	1.675887E+0	1.612229E+0	1.599162E+0	1.552980E+0	1.544237E+0	1.606656E+0	1.632667E+0	1.578122E+0	1.592505E+0	1.616188E+0	1.618760E+0	1.618068E+0	1.578788E+0	1.646142E+0	1.527554E+0	1.606681E+0	1.581306E+0	1.562767E+0	1.558446E+0	1.548585E+0	1.639095E+0	1.552689E+0	1.597710E+0	1.595663E+0	1.621822E+0	1.635651E+0	1.627921E+0	1.575048E+0	1.594942E+0	1.566624E+0	1.564571E+0	1.583836E+0	1.630379E+0	1.569095E+0	1.595191E+0	1.574410E+0	1.618617E+0	1.588840E+0	1.572980E+0	1.618208E+0	1.619014E+0	1.636364E+0	1.602004E+0	1.575749E+0	1.609485E+0	1.609196E+0	1.558722E+0	1.577786E+0	1.604381E+0	1.635649E+0	1.545322E+0	1.595885E+0	1.608702E+0	1.583253E+0	1.569207E+0	1.597758E+0	1.575642E+0	1.569085E+0	1.558438E+0	1.525702E+0	1.677976E+0	1.629946E+0	1.569780E+0	1.537316E+0	1.588130E+0	1.639986E+0	1.546945E+0	1.571454E+0	1.579640E+0	1.594383E+0	1.589767E+0	1.588615E+0	1.581327E+0	1.583021E+0	1.545429E+0	1.578117E+0	1.545081E+0	1.596942E+0	1.561624E+0	1.615575E+0	1.635284E+0	1.581477E+0	1.529435E+0	1.603054E+0	1.615789E+0	1.586410E+0	1.542631E+0	1.572131E+0	1.584969E+0	1.564859E+0	1.556827E+0	1.578696E+0	1.586519E+0	1.557277E+0	1.596873E+0	1.543911E+0	1.591676E+0	1.599516E+0	1.573034E+0	1.546502E+0	1.563500E+0	1.590063E+0	1.608636E+0	1.508766E+0	1.506339E+0	1.552781E+0	1.637633E+0	1.576078E+0	1.676881E+0	1.591712E+0	1.519952E+0	1.533895E+0	1.533174E+0	1.552126E+0	1.604833E+0	1.525033E+0	1.603312E+0	1.662081E+0	1.590500E+0	1.575889E+0	1.571453E+0	1.532466E+0	1.541048E+0	1.550939E+0	1.571573E+0	1.524084E+0	1.547032E+0	1.581936E+0	1.570345E+0	1.599787E+0	1.572596E+0	1.553560E+0	1.523994E+0	1.526222E+0	1.573031E+0	1.543333E+0	1.639657E+0	1.524681E+0	1.560546E+0	1.603051E+0	1.593917E+0	1.489904E+0	1.559132E+0	1.595979E+0	1.537457E+0	1.597097E+0	1.567731E+0	1.627809E+0	1.519612E+0	1.587339E+0	1.586292E+0	1.567373E+0	1.533553E+0	1.545161E+0	1.591109E+0	1.559048E+0	1.534043E+0	1.544414E+0
5.355630E+2	1.455980E+0	1.363137E+0	1.400631E+0	1.382751E+0	1.406411E+0	1.431980E+0	1.388811E+0	1.376131E+0	1.402242E+0	1.434079E+0	1.406707E+0	1.405333E+0	1.373000E+0	1.429076E+0	1.350318E+0	1.394061E+0	1.395275E+0	1.394031E+0	1.366196E+0	1.429432E+0	1.364800E+0	1.455119E+0	1.426048E+0	1.402526E+0	1.388448E+0	1.370084E+0	1.383121E+0	1.394850E+0	1.367489E+0	1.403465E+0	1.340650E+0	1.357399E+0	1.419715E+0	1.372287E+0	1.426252E+0	1.334780E+0	1.385389E+0	1.358738E+0	1.378645E+0	1.390318E+0	1.414665E+0	1.388995E+0	1.382103E+0	1.361272E+0	1.379397E+0	1.394843E+0	1.378069E+0	1.390151E+0	1.463326E+0	1.374534E+0	1.394101E+0	1.379158E+0	1.392874E+0	1.359244E+0	1.383829E+0	1.389015E+0	1.396743E+0	1.434896E+0	1.392093E+0	1.401179E+0	1.414087E+0	1.402923E+0	1.421533E+0	1.360365E+0	1.382037E+0	1.425748E+0	1.411986E+0	1.394336E+0	1.428011E+0	1.400905E+0	1.402179E+0	1.373247E+0	1.399430E+0	1.382403E+0	1.364360E+0	1.361552E+0	1.401734E+0	1.421839E+0	1.368293E+0	1.375590E+0	1.359337E+0	1.410841E+0	1.391233E+0	1.377563E+0	1.354367E+0	1.368110E+0	1.399604E+0	1.398864E+0	1.314193E+0	1.386908E+0	1.337569E+0	1.388243E+0	1.371688E+0	1.374718E+0	1.330157E+0	1.422814E+0	1.404653E+0	1.398576E+0	1.365092E+0	1.354878E+0	1.384877E+0	1.381244E+0	1.429594E+0	1.361312E+0	1.377311E+0	1.402251E+0	1.361175E+0	1.363393E+0	1.388817E+0	1.359338E+0	1.410070E+0	1.390450E+0	1.410552E+0	1.385114E+0	1.402544E+0	1.338994E+0	1.387938E+0	1.370673E+0	1.367139E+0	1.351037E+0	1.407804E+0	1.406263E+0	1.342934E+0	1.394785E+0	1.385196E+0	1.401911E+0	1.413769E+0	1.388277E+0	1.398592E+0	1.349920E+0	1.355849E+0	1.365472E+0	1.387586E+0	1.347252E+0	1.365562E+0	1.378244E+0	1.413580E+0	1.346137E+0	1.376742E+0	1.392156E+0	1.393912E+0	1.385260E+0	1.336760E+0	1.412361E+0	1.352314E+0	1.345027E+0	1.412271E+0	1.349047E+0	1.409717E+0	1.399222E+0	1.359192E+0	1.348684E+0	1.378819E+0	1.358787E+0	1.395704E+0	1.320462E+0	1.402838E+0	1.423453E+0	1.411776E+0	1.356130E+0	1.358771E+0	1.346037E+0	1.371978E+0	1.386395E+0	1.356226E+0	1.372863E+0	1.358821E+0	1.357360E+0	1.298254E+0	1.361483E+0
5.357090E+2	1.252898E+0	1.185686E+0	1.276472E+0	1.196144E+0	1.211203E+0	1.187832E+0	1.183354E+0	1.177133E+0	1.219177E+0	1.215408E+0	1.221461E+0	1.196526E+0	1.194420E+0	1.222993E+0	1.222142E+0	1.198989E+0	1.231296E+0	1.191793E+0	1.202045E+0	1.193794E+0	1.192294E+0	1.213392E+0	1.190436E+0	1.196546E+0	1.162254E+0	1.212263E+0	1.128739E+0	1.220059E+0	1.181145E+0	1.178077E+0	1.156583E+0	1.202669E+0	1.182699E+0	1.209582E+0	1.206680E+0	1.208114E+0	1.191267E+0	1.212782E+0	1.194824E+0	1.225207E+0	1.202163E+0	1.209538E+0	1.168999E+0	1.200028E+0	1.224175E+0	1.179465E+0	1.147962E+0	1.220285E+0	1.179601E+0	1.257799E+0	1.197337E+0	1.177632E+0	1.168882E+0	1.207007E+0	1.205014E+0	1.141830E+0	1.186318E+0	1.237062E+0	1.175876E+0	1.208466E+0	1.211190E+0	1.180197E+0	1.209785E+0	1.195716E+0	1.207316E+0	1.195372E+0	1.189921E+0	1.202977E+0	1.178851E+0	1.205257E+0	1.203247E+0	1.159326E+0	1.218593E+0	1.207958E+0	1.147170E+0	1.238570E+0	1.183720E+0	1.158923E+0	1.179035E+0	1.200375E+0	1.203450E+0	1.122658E+0	1.233158E+0	1.163463E+0	1.171978E+0	1.208837E+0	1.189536E+0	1.204189E+0	1.194568E+0	1.190432E+0	1.161930E+0	1.216560E+0	1.144669E+0	1.212098E+0	1.172408E+0	1.182507E+0	1.185837E+0	1.175449E+0	1.210932E+0	1.214288E+0	1.211740E+0	1.210924E+0	1.211312E+0	1.140764E+0	1.187201E+0	1.162249E+0	1.141683E+0	1.152822E+0	1.209351E+0	1.180821E+0	1.189557E+0	1.178619E+0	1.168480E+0	1.179246E+0	1.219008E+0	1.170785E+0	1.244129E+0	1.189276E+0	1.207050E+0	1.197744E+0	1.205888E+0	1.151687E+0	1.216508E+0	1.199027E+0	1.195868E+0	1.232624E+0	1.156402E+0	1.192768E+0	1.225964E+0	1.262503E+0	1.195823E+0	1.214367E+0	1.206906E+0	1.227332E+0	1.185455E+0	1.212285E+0	1.180277E+0	1.225310E+0	1.224678E+0	1.200934E+0	1.171595E+0	1.210818E+0	1.144411E+0	1.197354E+0	1.190024E+0	1.133988E+0	1.195120E+0	1.158245E+0	1.163163E+0	1.207025E+0	1.181135E+0	1.179720E+0	1.209570E+0	1.220581E+0	1.190602E+0	1.213170E+0	1.209980E+0	1.112267E+0	1.177804E+0	1.221892E+0	1.177411E+0	1.183217E+0	1.190512E+0	1.214403E+0	1.176559E+0	1.173266E+0	1.174541E+0	1.193963E+0	1.172313E+0	1.212546E+0
5.358600E+2	1.001413E+0	9.389326E-1	1.002368E+0	1.004678E+0	9.807871E-1	9.552565E-1	1.002513E+0	1.006273E+0	9.836352E-1	9.790090E-1	9.869283E-1	1.013173E+0	9.890040E-1	1.011129E+0	9.722740E-1	9.803749E-1	1.003221E+0	9.875928E-1	9.743830E-1	9.755306E-1	9.758468E-1	1.004885E+0	9.642246E-1	9.774243E-1	9.697493E-1	1.017244E+0	9.756834E-1	1.034247E+0	9.621468E-1	9.845605E-1	9.531985E-1	9.353745E-1	9.844845E-1	9.989368E-1	9.587425E-1	9.876486E-1	1.014420E+0	1.021004E+0	1.025762E+0	9.477287E-1	9.988877E-1	9.853383E-1	9.962788E-1	9.763103E-1	9.965363E-1	1.016623E+0	9.547047E-1	9.669702E-1	9.995385E-1	9.991268E-1	1.012326E+0	9.898317E-1	9.826835E-1	9.795276E-1	9.803929E-1	1.000521E+0	9.673321E-1	9.537874E-1	9.562539E-1	9.938203E-1	9.857659E-1	9.567498E-1	1.023279E+0	9.837175E-1	9.899899E-1	9.904691E-1	9.893241E-1	1.001099E+0	1.032345E+0	9.905470E-1	9.614714E-1	9.647493E-1	1.039346E+0	9.772465E-1	9.635896E-1	9.649121E-1	1.014714E+0	9.399927E-1	9.892534E-1	9.405976E-1	9.620147E-1	9.596411E-1	1.006811E+0	9.767384E-1	9.824192E-1	9.651900E-1	1.020546E+0	1.005275E+0	9.959205E-1	9.905094E-1	9.898239E-1	1.031564E+0	9.972811E-1	1.002969E+0	9.529519E-1	9.779837E-1	9.956730E-1	1.008006E+0	9.989815E-1	1.005616E+0	9.794935E-1	1.000970E+0	9.534879E-1	9.659397E-1	9.574684E-1	9.919854E-1	9.774702E-1	9.667460E-1	1.012322E+0	9.624705E-1	9.914622E-1	9.852196E-1	1.012495E+0	1.027151E+0	9.783205E-1	9.355608E-1	1.004192E+0	1.011015E+0	9.803138E-1	9.822194E-1	9.671397E-1	9.517117E-1	1.021341E+0	9.744325E-1	9.578863E-1	1.007316E+0	9.632287E-1	9.977173E-1	9.854166E-1	1.015216E+0	9.819465E-1	1.011815E+0	9.787046E-1	9.497906E-1	9.877381E-1	9.805080E-1	9.937366E-1	1.013147E+0	1.014078E+0	9.740417E-1	9.991456E-1	9.595964E-1	9.642004E-1	9.747103E-1	9.939599E-1	1.001400E+0	9.920809E-1	9.802540E-1	9.690135E-1	9.809097E-1	1.049374E+0	9.989885E-1	9.876079E-1	1.003739E+0	1.005549E+0	9.987646E-1	1.012061E+0	9.618456E-1	9.888798E-1	9.649246E-1	1.007915E+0	9.740647E-1	9.947348E-1	9.541761E-1	9.508208E-1	9.409454E-1	9.719694E-1	9.824043E-1	9.607373E-1	9.926168E-1
5.360070E+2	8.378327E-1	8.254500E-1	7.955397E-1	8.310151E-1	7.896898E-1	8.230021E-1	8.026962E-1	8.219300E-1	8.285554E-1	8.196993E-1	8.065994E-1	8.361974E-1	8.272777E-1	8.266797E-1	7.993832E-1	7.851649E-1	8.067117E-1	8.614107E-1	8.000953E-1	8.327492E-1	8.207389E-1	8.059692E-1	8.113249E-1	7.799100E-1	8.176972E-1	8.351596E-1	7.963498E-1	8.171188E-1	7.702254E-1	7.900807E-1	7.859218E-1	7.870530E-1	8.506022E-1	7.753931E-1	8.299342E-1	7.804631E-1	8.071678E-1	8.295945E-1	8.214594E-1	8.237028E-1	8.150545E-1	8.162660E-1	8.340531E-1	8.357392E-1	8.183663E-1	8.120168E-1	7.741615E-1	7.794855E-1	8.133258E-1	8.275249E-1	8.259660E-1	8.290188E-1	8.180707E-1	8.587586E-1	7.890240E-1	8.143541E-1	8.077131E-1	8.202842E-1	8.254225E-1	8.152562E-1	7.826651E-1	8.135416E-1	7.959665E-1	7.843524E-1	8.112110E-1	8.608357E-1	8.371826E-1	8.266352E-1	8.342550E-1	8.140423E-1	8.033553E-1	7.970187E-1	8.254246E-1	8.511921E-1	8.017768E-1	8.037355E-1	8.153712E-1	7.686609E-1	8.143647E-1	8.081023E-1	8.103220E-1	8.019369E-1	8.161256E-1	8.099706E-1	8.148579E-1	8.067572E-1	8.200062E-1	8.322364E-1	8.094620E-1	7.772799E-1	7.826817E-1	7.974207E-1	7.771682E-1	8.140629E-1	8.333558E-1	8.139116E-1	8.246287E-1	8.333023E-1	8.281049E-1	8.139866E-1	8.200446E-1	8.090946E-1	8.203942E-1	8.389754E-1	7.827943E-1	7.829511E-1	7.944975E-1	8.160295E-1	8.139869E-1	8.531945E-1	8.108977E-1	7.855802E-1	8.099691E-1	8.195534E-1	8.352489E-1	8.156422E-1	8.437441E-1	8.206904E-1	8.445738E-1	8.054051E-1	8.185188E-1	8.065563E-1	8.436495E-1	8.425142E-1	8.121712E-1	7.963511E-1	8.474693E-1	7.979559E-1	8.162687E-1	8.556308E-1	8.273982E-1	8.327003E-1	8.267144E-1	8.239641E-1	7.907500E-1	8.402388E-1	8.474754E-1	7.755241E-1	7.973214E-1	8.350154E-1	7.913239E-1	8.107493E-1	8.034765E-1	8.523324E-1	8.388588E-1	7.992064E-1	8.204222E-1	7.733878E-1	8.472432E-1	8.366696E-1	8.160046E-1	8.392629E-1	8.017035E-1	7.970337E-1	8.024698E-1	8.124423E-1	8.444517E-1	8.390039E-1	7.463772E-1	8.508867E-1	7.989807E-1	8.328613E-1	8.027631E-1	7.934638E-1	8.074675E-1	8.273529E-1	8.574852E-1	8.669575E-1	7.816510E-1	8.454694E-1
5.362630E+2	6.263100E-1	6.398750E-1	6.321128E-1	5.918184E-1	6.242794E-1	6.253389E-1	6.303722E-1	6.447051E-1	6.243013E-1	6.295504E-1	6.528687E-1	6.255313E-1	6.372078E-1	6.543147E-1	6.375642E-1	6.156846E-1	6.388512E-1	6.385141E-1	6.319001E-1	6.146153E-1	6.286757E-1	6.381598E-1	6.266395E-1	6.142185E-1	6.493411E-1	6.782779E-1	5.919008E-1	6.902305E-1	5.936209E-1	6.206120E-1	6.243355E-1	6.281055E-1	6.555932E-1	6.722245E-1	6.315409E-1	6.512244E-1	6.349955E-1	6.249447E-1	6.456240E-1	6.431436E-1	6.362041E-1	6.608978E-1	6.511689E-1	6.848261E-1	6.496442E-1	6.584369E-1	6.516731E-1	6.321069E-1	6.523965E-1	6.556436E-1	6.321283E-1	6.039187E-1	6.365614E-1	6.608270E-1	6.258303E-1	6.347920E-1	6.439348E-1	6.290427E-1	6.222226E-1	6.221468E-1	6.382913E-1	6.495002E-1	6.532389E-1	6.229677E-1	6.473872E-1	6.562559E-1	6.238561E-1	6.395262E-1	6.574227E-1	6.196285E-1	6.494010E-1	6.173442E-1	6.317190E-1	6.461991E-1	5.898185E-1	6.197547E-1	6.425083E-1	6.809407E-1	6.405990E-1	6.313266E-1	6.588914E-1	6.328696E-1	6.459108E-1	6.239062E-1	6.585220E-1	6.248464E-1	6.251386E-1	6.602771E-1	6.698558E-1	6.554350E-1	6.497509E-1	6.491731E-1	6.442729E-1	6.658973E-1	6.542132E-1	6.680765E-1	6.600171E-1	6.573320E-1	6.436519E-1	5.952447E-1	6.597183E-1	6.116588E-1	6.370217E-1	6.429244E-1	6.224011E-1	5.989342E-1	6.601771E-1	6.198635E-1	6.392439E-1	6.520010E-1	6.431598E-1	6.316992E-1	6.379024E-1	6.486550E-1	6.657884E-1	6.561781E-1	6.230514E-1	6.357450E-1	6.377430E-1	6.295714E-1	6.438903E-1	6.367480E-1	6.436334E-1	6.556341E-1	6.433845E-1	6.513844E-1	6.569426E-1	6.247892E-1	6.762502E-1	6.414250E-1	6.397035E-1	6.194671E-1	6.185362E-1	6.426780E-1	6.397650E-1	6.302780E-1	6.133856E-1	6.686163E-1	6.154462E-1	6.647818E-1	6.404939E-1	6.500708E-1	6.800869E-1	6.404955E-1	6.928640E-1	6.130888E-1	6.402522E-1	6.696025E-1	6.279050E-1	6.661115E-1	6.263621E-1	6.526202E-1	6.564912E-1	6.327684E-1	6.337027E-1	6.599168E-1	6.609374E-1	6.764009E-1	6.345883E-1	6.153831E-1	6.806187E-1	6.617686E-1	6.211460E-1	6.698144E-1	6.497579E-1	6.224642E-1	6.813674E-1	6.097675E-1	6.919654E-1	6.366902E-1
5.365190E+2	5.054485E-1	5.042525E-1	5.302556E-1	5.091652E-1	5.265904E-1	5.138163E-1	5.464059E-1	5.214101E-1	5.298980E-1	5.042703E-1	5.226400E-1	5.232049E-1	4.916619E-1	5.144244E-1	5.121317E-1	5.406468E-1	5.283325E-1	4.820450E-1	5.357226E-1	5.083977E-1	5.282638E-1	5.223245E-1	5.444795E-1	5.486976E-1	5.385366E-1	5.414644E-1	4.927557E-1	4.806984E-1	5.022822E-1	5.161738E-1	5.330713E-1	5.149446E-1	5.269470E-1	5.436927E-1	5.465062E-1	5.124598E-1	5.074555E-1	5.249652E-1	5.489009E-1	5.351658E-1	5.570222E-1	5.123828E-1	5.133220E-1	5.422599E-1	5.485600E-1	5.211929E-1	5.237486E-1	5.064668E-1	5.093544E-1	5.237170E-1	5.381096E-1	5.275179E-1	5.488052E-1	5.349536E-1	5.118255E-1	5.346270E-1	5.221445E-1	5.388793E-1	5.470366E-1	5.320266E-1	4.939101E-1	5.197436E-1	5.081941E-1	5.175436E-1	5.421532E-1	5.201184E-1	5.235491E-1	5.167538E-1	5.597316E-1	5.331664E-1	5.296283E-1	5.273730E-1	5.247623E-1	5.414821E-1	5.189518E-1	5.332588E-1	5.257035E-1	5.375588E-1	5.537978E-1	5.372315E-1	5.175369E-1	5.044523E-1	5.284752E-1	5.295272E-1	5.315135E-1	5.405278E-1	5.383094E-1	5.564229E-1	5.437392E-1	5.304578E-1	5.250387E-1	5.501573E-1	5.144625E-1	5.405010E-1	5.512045E-1	5.203787E-1	5.414033E-1	5.132337E-1	5.062732E-1	5.544085E-1	5.255107E-1	5.248759E-1	4.989685E-1	5.154026E-1	4.929861E-1	5.336183E-1	5.398738E-1	5.094465E-1	5.247720E-1	5.541620E-1	5.587753E-1	5.317333E-1	5.027382E-1	5.362807E-1	5.525471E-1	4.957344E-1	5.145833E-1	5.359277E-1	5.228569E-1	4.993855E-1	5.360656E-1	5.355386E-1	5.102734E-1	5.301407E-1	5.334844E-1	5.569756E-1	5.402820E-1	5.317497E-1	5.120323E-1	5.234335E-1	5.150080E-1	5.262007E-1	5.328063E-1	5.328165E-1	5.232925E-1	5.554573E-1	5.025457E-1	5.130884E-1	5.490265E-1	5.353791E-1	5.380469E-1	4.996960E-1	5.509575E-1	5.609642E-1	5.395032E-1	5.439999E-1	5.240575E-1	5.354822E-1	4.969636E-1	5.329229E-1	5.449638E-1	5.246653E-1	5.373514E-1	5.337234E-1	5.485214E-1	5.289618E-1	5.214313E-1	5.304663E-1	5.138957E-1	5.392557E-1	4.913571E-1	5.122272E-1	5.220612E-1	5.416061E-1	5.668922E-1	5.269290E-1	5.066630E-1	5.349305E-1	5.011730E-1	5.223709E-1
5.367660E+2	4.980651E-1	4.876040E-1	5.183077E-1	4.993293E-1	4.922697E-1	5.103382E-1	5.082830E-1	4.869422E-1	4.912374E-1	5.027320E-1	4.937578E-1	5.233933E-1	5.058061E-1	5.068997E-1	4.959753E-1	5.041912E-1	4.880137E-1	5.040243E-1	4.573400E-1	4.950448E-1	4.655102E-1	5.080601E-1	4.976873E-1	5.164803E-1	5.317543E-1	4.936547E-1	4.992251E-1	5.038395E-1	4.986627E-1	5.007102E-1	5.027247E-1	4.914636E-1	5.101469E-1	4.988952E-1	5.272927E-1	4.987764E-1	4.993058E-1	5.290703E-1	4.930617E-1	5.003007E-1	5.043671E-1	5.018169E-1	4.849889E-1	4.955526E-1	5.129213E-1	5.097722E-1	5.072720E-1	5.059933E-1	5.040234E-1	4.964870E-1	4.935085E-1	5.265403E-1	5.022399E-1	4.802285E-1	5.060132E-1	4.907863E-1	4.835149E-1	4.839329E-1	5.211550E-1	5.162090E-1	5.005685E-1	4.974588E-1	5.228906E-1	5.016141E-1	4.983523E-1	5.186651E-1	5.179213E-1	5.201625E-1	4.938350E-1	5.139586E-1	4.898112E-1	4.932445E-1	5.076352E-1	5.246046E-1	4.960873E-1	5.060114E-1	4.785021E-1	5.290404E-1	5.176741E-1	5.168631E-1	4.800459E-1	5.320953E-1	5.412235E-1	4.817100E-1	5.231090E-1	5.058767E-1	5.188347E-1	5.266615E-1	4.900187E-1	4.850394E-1	5.276387E-1	5.079475E-1	5.166934E-1	4.928119E-1	5.133348E-1	5.181651E-1	5.203573E-1	5.148594E-1	5.059020E-1	5.099339E-1	5.451456E-1	5.478389E-1	5.247576E-1	5.171101E-1	4.939783E-1	4.935529E-1	5.526854E-1	5.067910E-1	4.935846E-1	4.889632E-1	5.202365E-1	5.175820E-1	5.022838E-1	5.144770E-1	5.193506E-1	5.166112E-1	5.367569E-1	4.972129E-1	5.129377E-1	4.992111E-1	5.121446E-1	4.761413E-1	5.298958E-1	5.067953E-1	5.032540E-1	4.880910E-1	5.295250E-1	4.637061E-1	4.989973E-1	5.203525E-1	5.306716E-1	5.160621E-1	5.272039E-1	5.026310E-1	4.871547E-1	5.233343E-1	5.197532E-1	5.174302E-1	5.326216E-1	4.968870E-1	5.272180E-1	5.256030E-1	5.244088E-1	5.231847E-1	5.140979E-1	4.950818E-1	5.251132E-1	4.933198E-1	5.422478E-1	4.866262E-1	5.006560E-1	5.103998E-1	4.915779E-1	5.041372E-1	5.824960E-1	4.822112E-1	5.108149E-1	5.223857E-1	5.153546E-1	5.162746E-1	5.218012E-1	5.470661E-1	5.116965E-1	5.191795E-1	5.226990E-1	5.297885E-1	5.161257E-1	5.048054E-1	4.876062E-1	5.440859E-1
5.370170E+2	5.326099E-1	4.950617E-1	5.143386E-1	5.027112E-1	5.534255E-1	5.270012E-1	5.106515E-1	4.988359E-1	5.084010E-1	5.117623E-1	5.001718E-1	5.220089E-1	5.246745E-1	4.954102E-1	5.480775E-1	5.112911E-1	5.078645E-1	5.286119E-1	5.234879E-1	5.262600E-1	4.997503E-1	5.291874E-1	5.256699E-1	5.417897E-1	5.269578E-1	5.356419E-1	5.346087E-1	5.512684E-1	5.301306E-1	5.145188E-1	5.182146E-1	5.132973E-1	5.235604E-1	5.389207E-1	5.152506E-1	5.397110E-1	5.129665E-1	5.024211E-1	5.160264E-1	5.468350E-1	5.235926E-1	5.748953E-1	5.046543E-1	5.646249E-1	5.023455E-1	5.078903E-1	5.144597E-1	5.306803E-1	5.141091E-1	5.076854E-1	5.350081E-1	5.127903E-1	5.022754E-1	5.321186E-1	5.223654E-1	5.207432E-1	5.258262E-1	5.348346E-1	4.819638E-1	5.106591E-1	5.157581E-1	5.230878E-1	5.460508E-1	5.363497E-1	4.792988E-1	5.132175E-1	5.489889E-1	5.200936E-1	5.115440E-1	5.167014E-1	5.220232E-1	5.020647E-1	5.222654E-1	5.153016E-1	5.310893E-1	5.269773E-1	4.968600E-1	5.360955E-1	5.225856E-1	5.195181E-1	5.151428E-1	5.158911E-1	5.337074E-1	5.720543E-1	5.300578E-1	5.323864E-1	5.629059E-1	5.415950E-1	5.329676E-1	5.234147E-1	5.422917E-1	5.322131E-1	5.529096E-1	5.008672E-1	5.444022E-1	5.065136E-1	5.411454E-1	5.236411E-1	5.487294E-1	5.429800E-1	5.349927E-1	5.327677E-1	5.196398E-1	5.194297E-1	5.149048E-1	5.675437E-1	5.127627E-1	4.859616E-1	5.034368E-1	5.558443E-1	5.128279E-1	5.301428E-1	5.246748E-1	5.224136E-1	5.256616E-1	5.169414E-1	5.531610E-1	5.334562E-1	5.495317E-1	5.002707E-1	5.076293E-1	5.007847E-1	5.215646E-1	5.213082E-1	4.991935E-1	5.232472E-1	5.422537E-1	5.123067E-1	5.436259E-1	5.409602E-1	5.210795E-1	5.002058E-1	5.153180E-1	5.273408E-1	5.218632E-1	5.107848E-1	5.232735E-1	5.572013E-1	5.269529E-1	5.107649E-1	5.172267E-1	5.309783E-1	5.206102E-1	5.016829E-1	5.045342E-1	5.565266E-1	5.183699E-1	5.446354E-1	5.133683E-1	5.205779E-1	5.362662E-1	5.157280E-1	5.253258E-1	5.248955E-1	5.401908E-1	5.219720E-1	5.152208E-1	5.512616E-1	5.337038E-1	5.463438E-1	5.051512E-1	5.513387E-1	5.611945E-1	5.076698E-1	5.099738E-1	5.216271E-1	5.563634E-1	5.176411E-1	5.152490E-1	5.467751E-1
5.372640E+2	5.722861E-1	5.700151E-1	5.977876E-1	6.168488E-1	5.855073E-1	6.370127E-1	6.135897E-1	6.149925E-1	5.985523E-1	6.155941E-1	5.925439E-1	6.040287E-1	6.199570E-1	5.664092E-1	5.784026E-1	6.008115E-1	5.613344E-1	6.086820E-1	5.881698E-1	5.892813E-1	6.010540E-1	5.878870E-1	6.029658E-1	6.127439E-1	5.792879E-1	6.233568E-1	5.914438E-1	6.183293E-1	5.745557E-1	6.226288E-1	6.019156E-1	5.934875E-1	5.966554E-1	6.284853E-1	5.960838E-1	6.416360E-1	6.372671E-1	6.102714E-1	6.121539E-1	5.887454E-1	5.827198E-1	5.994610E-1	5.747879E-1	5.800463E-1	6.048413E-1	5.868552E-1	6.130300E-1	5.669311E-1	6.067105E-1	6.221496E-1	6.042557E-1	5.800003E-1	6.109231E-1	6.174263E-1	5.584307E-1	6.035925E-1	5.595429E-1	6.249567E-1	6.358778E-1	6.177793E-1	6.000327E-1	5.794439E-1	5.905767E-1	6.013029E-1	6.168927E-1	6.392957E-1	6.091393E-1	5.968365E-1	5.997429E-1	5.790071E-1	6.056433E-1	6.065563E-1	5.827360E-1	6.004845E-1	6.167924E-1	5.895231E-1	6.025976E-1	6.273332E-1	5.983901E-1	6.078037E-1	5.634214E-1	6.352786E-1	6.068752E-1	5.970410E-1	6.226037E-1	6.017759E-1	6.228720E-1	6.190580E-1	6.300782E-1	6.188316E-1	6.261131E-1	6.008482E-1	5.811877E-1	6.195822E-1	5.805863E-1	5.894457E-1	5.929580E-1	6.004210E-1	5.763677E-1	6.153162E-1	6.091165E-1	5.965683E-1	6.084391E-1	5.933640E-1	5.902129E-1	5.855285E-1	5.939596E-1	6.245162E-1	5.992079E-1	6.284109E-1	5.780642E-1	6.082431E-1	6.158835E-1	6.149254E-1	6.430488E-1	6.025252E-1	6.206412E-1	6.045336E-1	6.443593E-1	5.861708E-1	5.863110E-1	6.011259E-1	6.344855E-1	5.753842E-1	5.962469E-1	6.278370E-1	6.077966E-1	6.009152E-1	6.117488E-1	6.386854E-1	5.682372E-1	6.024536E-1	6.233793E-1	5.976570E-1	6.405325E-1	6.207352E-1	5.805478E-1	6.039389E-1	6.116090E-1	5.996046E-1	6.194137E-1	6.217671E-1	6.046725E-1	6.190659E-1	6.110685E-1	5.958822E-1	5.706281E-1	5.891105E-1	6.075818E-1	5.846003E-1	6.312359E-1	6.057398E-1	6.020906E-1	6.162613E-1	6.234876E-1	6.135543E-1	5.909248E-1	5.858370E-1	6.105817E-1	6.008431E-1	6.242011E-1	6.206496E-1	5.944204E-1	6.130193E-1	5.752101E-1	5.703404E-1	5.893174E-1	6.191795E-1	5.553748E-1	6.574846E-1
5.375110E+2	6.922936E-1	7.336183E-1	7.060833E-1	7.284164E-1	7.332146E-1	7.395472E-1	7.166522E-1	6.785351E-1	7.330467E-1	6.708655E-1	7.109924E-1	7.136944E-1	7.888232E-1	7.272945E-1	7.185813E-1	6.350802E-1	7.253491E-1	7.559226E-1	7.017543E-1	7.681717E-1	6.906721E-1	7.015578E-1	6.844586E-1	7.001617E-1	7.566056E-1	7.372545E-1	7.118987E-1	7.411641E-1	7.204415E-1	7.216710E-1	7.115824E-1	7.140395E-1	7.057929E-1	7.221293E-1	7.323693E-1	7.028241E-1	7.183688E-1	6.930077E-1	7.279108E-1	7.153442E-1	7.179002E-1	6.880854E-1	7.131522E-1	7.460755E-1	6.954396E-1	7.338521E-1	7.273349E-1	7.051134E-1	7.151545E-1	7.274110E-1	7.204181E-1	7.074722E-1	7.207072E-1	7.034175E-1	7.246590E-1	7.078608E-1	7.233290E-1	7.132353E-1	7.387328E-1	7.406408E-1	7.275425E-1	7.032687E-1	7.178129E-1	7.200934E-1	7.064733E-1	7.319367E-1	6.977262E-1	7.265586E-1	7.044865E-1	7.599638E-1	7.116100E-1	7.282295E-1	7.332505E-1	7.697465E-1	7.479885E-1	7.762857E-1	7.134789E-1	7.326811E-1	7.134015E-1	7.111318E-1	6.753067E-1	7.185713E-1	7.210427E-1	7.186011E-1	7.219310E-1	7.129447E-1	7.199379E-1	6.989838E-1	7.174530E-1	7.386154E-1	7.095790E-1	7.112136E-1	6.736447E-1	7.642400E-1	7.574184E-1	7.311512E-1	7.005380E-1	7.544375E-1	6.965067E-1	7.312341E-1	7.139783E-1	7.151289E-1	6.877555E-1	7.158692E-1	7.023501E-1	6.950382E-1	7.225547E-1	7.390550E-1	7.001936E-1	6.955497E-1	7.199581E-1	7.151382E-1	7.545000E-1	7.509296E-1	7.135134E-1	7.065099E-1	7.352755E-1	7.312231E-1	7.062623E-1	7.499956E-1	7.366756E-1	6.861369E-1	6.558808E-1	7.061287E-1	6.877416E-1	7.521326E-1	7.449546E-1	7.282062E-1	6.986650E-1	7.169213E-1	7.220070E-1	7.012367E-1	7.197354E-1	6.723378E-1	7.831557E-1	7.321397E-1	7.069840E-1	7.428588E-1	7.479283E-1	7.605920E-1	6.984821E-1	7.609176E-1	7.258670E-1	6.998791E-1	7.156453E-1	6.990835E-1	7.301918E-1	7.209684E-1	7.112881E-1	6.941875E-1	7.239828E-1	7.299627E-1	7.106528E-1	7.222802E-1	6.933702E-1	7.384518E-1	7.134343E-1	7.239735E-1	7.245106E-1	7.165376E-1	7.498795E-1	7.138074E-1	7.246386E-1	7.028754E-1	7.339033E-1	6.794944E-1	7.656967E-1	6.776648E-1	6.948879E-1	7.645808E-1
5.377580E+2	7.980320E-1	7.641741E-1	7.021723E-1	7.773323E-1	7.733326E-1	7.605560E-1	7.530096E-1	7.751637E-1	7.495916E-1	7.598522E-1	7.676722E-1	7.846402E-1	7.465199E-1	7.610643E-1	7.826361E-1	7.840012E-1	8.151270E-1	7.799176E-1	7.875670E-1	7.515138E-1	7.697585E-1	7.317020E-1	7.609202E-1	7.587853E-1	8.062653E-1	7.658379E-1	7.814899E-1	7.252144E-1	7.639679E-1	7.596775E-1	7.498708E-1	8.011561E-1	7.998299E-1	7.263247E-1	7.760170E-1	7.569573E-1	7.601195E-1	7.584122E-1	7.853134E-1	7.531710E-1	7.630633E-1	7.789633E-1	7.489573E-1	7.572797E-1	8.010913E-1	7.869340E-1	7.402444E-1	7.338442E-1	7.692244E-1	7.959090E-1	7.547091E-1	7.554043E-1	7.726297E-1	7.790245E-1	7.513313E-1	7.352957E-1	7.953655E-1	7.510515E-1	7.953340E-1	7.508846E-1	7.819594E-1	7.734879E-1	7.719090E-1	7.620479E-1	7.659906E-1	7.925358E-1	7.691071E-1	7.795539E-1	7.638420E-1	7.762903E-1	7.641805E-1	7.519844E-1	7.599078E-1	8.055017E-1	7.962410E-1	7.377597E-1	7.327298E-1	7.662288E-1	8.131721E-1	7.599516E-1	7.528047E-1	7.812344E-1	7.565009E-1	7.268099E-1	7.344840E-1	8.217986E-1	7.600466E-1	7.792744E-1	7.615765E-1	8.070392E-1	7.700013E-1	7.769639E-1	7.300895E-1	7.804963E-1	8.079941E-1	7.728599E-1	7.707545E-1	7.310709E-1	7.965159E-1	8.137361E-1	7.670630E-1	7.308917E-1	7.950626E-1	8.162771E-1	7.401333E-1	7.583455E-1	8.034806E-1	8.091835E-1	7.069853E-1	7.642170E-1	7.897369E-1	8.000957E-1	7.710142E-1	7.445185E-1	7.614922E-1	7.794072E-1	7.602985E-1	7.764487E-1	8.046976E-1	7.348440E-1	7.785395E-1	8.137523E-1	7.480558E-1	7.390812E-1	7.362694E-1	7.940653E-1	7.539295E-1	7.437808E-1	7.541521E-1	7.996629E-1	8.057313E-1	7.600111E-1	7.629207E-1	7.040867E-1	7.911309E-1	7.688910E-1	7.705840E-1	7.762997E-1	7.556757E-1	7.742674E-1	7.642725E-1	7.630038E-1	7.719548E-1	8.054439E-1	7.689845E-1	7.512082E-1	8.189007E-1	7.695671E-1	7.937043E-1	7.522815E-1	8.129333E-1	7.893917E-1	7.826938E-1	7.634328E-1	7.181912E-1	7.826477E-1	7.736595E-1	7.797024E-1	7.893684E-1	8.102519E-1	8.036256E-1	7.824998E-1	8.080732E-1	7.959292E-1	7.435512E-1	7.864492E-1	8.293004E-1	8.324691E-1	7.660194E-1	7.802657E-1
5.380210E+2	9.752769E-1	8.902004E-1	9.668922E-1	8.910064E-1	9.337962E-1	9.320192E-1	8.945088E-1	9.705861E-1	9.146580E-1	9.660981E-1	9.177902E-1	9.514037E-1	8.853790E-1	9.252472E-1	9.357804E-1	9.237194E-1	9.090709E-1	9.548745E-1	9.288854E-1	9.274031E-1	9.337000E-1	9.308691E-1	9.066631E-1	8.982499E-1	9.347308E-1	9.874445E-1	9.113641E-1	9.411557E-1	8.857530E-1	9.377758E-1	9.168539E-1	9.307373E-1	9.635560E-1	9.011645E-1	9.569241E-1	9.089331E-1	9.224063E-1	9.272762E-1	9.426134E-1	9.562349E-1	9.279396E-1	9.262011E-1	9.381012E-1	9.429462E-1	9.347705E-1	9.762284E-1	9.593610E-1	9.305504E-1	9.779391E-1	9.566661E-1	9.160057E-1	9.311307E-1	9.166554E-1	9.215612E-1	9.486060E-1	8.949640E-1	8.573010E-1	9.031123E-1	9.220523E-1	9.132091E-1	9.144817E-1	9.206738E-1	9.263943E-1	8.951678E-1	8.964318E-1	9.268750E-1	9.308218E-1	9.435615E-1	9.265388E-1	9.351567E-1	9.481479E-1	9.055259E-1	9.270338E-1	9.172774E-1	9.276924E-1	8.935217E-1	9.137278E-1	9.134043E-1	1.011880E+0	9.224899E-1	9.540874E-1	9.656660E-1	9.758493E-1	9.610117E-1	9.331643E-1	9.541508E-1	9.190559E-1	9.278464E-1	9.689652E-1	9.288663E-1	8.861911E-1	8.892473E-1	8.848336E-1	9.352096E-1	9.297751E-1	9.293559E-1	9.223770E-1	9.171740E-1	9.335899E-1	9.129819E-1	9.450970E-1	9.414740E-1	8.857704E-1	9.047011E-1	9.427605E-1	9.107708E-1	9.298549E-1	9.213600E-1	9.388427E-1	9.341892E-1	9.454180E-1	9.325943E-1	9.144576E-1	9.431636E-1	9.561707E-1	9.337680E-1	9.485474E-1	9.199713E-1	9.370432E-1	9.430784E-1	9.547484E-1	9.380092E-1	8.811371E-1	8.966464E-1	9.097152E-1	9.124432E-1	9.583742E-1	9.251442E-1	9.169578E-1	9.523313E-1	9.483652E-1	9.325876E-1	9.498425E-1	9.638789E-1	8.998134E-1	9.083905E-1	9.313675E-1	9.789499E-1	9.261699E-1	9.432137E-1	9.262917E-1	9.417439E-1	9.371455E-1	9.136253E-1	9.202550E-1	9.130518E-1	9.243206E-1	9.071881E-1	9.185293E-1	9.119964E-1	9.183227E-1	9.335520E-1	9.587586E-1	9.339590E-1	9.431288E-1	9.243550E-1	9.328102E-1	9.226803E-1	9.542921E-1	9.042589E-1	8.864421E-1	9.696994E-1	9.291260E-1	9.018682E-1	8.816195E-1	9.107091E-1	9.571254E-1	9.740474E-1	9.513641E-1	9.518296E-1
5.382790E+2	1.039719E+0	1.032235E+0	1.085359E+0	1.040466E+0	1.022915E+0	1.103250E+0	1.098440E+0	1.083817E+0	1.068155E+0	1.082731E+0	1.072146E+0	1.056439E+0	1.068577E+0	1.082159E+0	1.053054E+0	1.076077E+0	1.061953E+0	1.062612E+0	1.016093E+0	1.059301E+0	1.023943E+0	1.051990E+0	1.065571E+0	1.076189E+0	1.088805E+0	1.054204E+0	1.097395E+0	1.107047E+0	1.066010E+0	1.085831E+0	1.075352E+0	1.086790E+0	1.085639E+0	1.081530E+0	1.049701E+0	1.050884E+0	1.073104E+0	1.082989E+0	1.044446E+0	1.050596E+0	1.085012E+0	1.105269E+0	1.016538E+0	1.058807E+0	1.017315E+0	1.040536E+0	1.063667E+0	1.026646E+0	1.050334E+0	1.082483E+0	1.077654E+0	1.066490E+0	1.089457E+0	1.091599E+0	1.096666E+0	1.046433E+0	1.043611E+0	1.061219E+0	1.140984E+0	1.054854E+0	1.053744E+0	1.039312E+0	1.030774E+0	1.112915E+0	1.037625E+0	1.076144E+0	1.119595E+0	1.061918E+0	1.051620E+0	1.062896E+0	1.076208E+0	1.060496E+0	1.101665E+0	1.060017E+0	1.083848E+0	1.022964E+0	1.025033E+0	1.087226E+0	1.077117E+0	1.083969E+0	1.056801E+0	1.036840E+0	1.066627E+0	1.105458E+0	1.036096E+0	1.091639E+0	1.052520E+0	1.126780E+0	1.065584E+0	1.029947E+0	1.069445E+0	1.098255E+0	1.027687E+0	1.091224E+0	1.111044E+0	1.041244E+0	1.085904E+0	1.072848E+0	1.081658E+0	1.070147E+0	1.107563E+0	1.119604E+0	1.006139E+0	1.054364E+0	1.057642E+0	1.028884E+0	1.112522E+0	1.086123E+0	1.033570E+0	1.083138E+0	1.019308E+0	1.081917E+0	1.052355E+0	1.093920E+0	1.110070E+0	1.027433E+0	1.049517E+0	1.039370E+0	1.075777E+0	1.087691E+0	1.099898E+0	1.077232E+0	1.072292E+0	1.033224E+0	1.025048E+0	1.099754E+0	1.003124E+0	1.050439E+0	1.064046E+0	1.098595E+0	1.093383E+0	1.013721E+0	1.066222E+0	1.078971E+0	1.090279E+0	1.039128E+0	1.053168E+0	1.082021E+0	1.053562E+0	1.041723E+0	1.039197E+0	1.032105E+0	1.062522E+0	1.063494E+0	1.081515E+0	1.006575E+0	1.089479E+0	1.037172E+0	1.054430E+0	1.073022E+0	1.045721E+0	1.049731E+0	1.044743E+0	1.144070E+0	1.053551E+0	1.066625E+0	1.018005E+0	1.120395E+0	1.051659E+0	1.125167E+0	1.046332E+0	1.062621E+0	1.057637E+0	1.093842E+0	1.049688E+0	1.045812E+0	1.092156E+0	1.064647E+0	1.009817E+0	1.037550E+0
5.385110E+2	1.322548E+0	1.242500E+0	1.353238E+0	1.286809E+0	1.300508E+0	1.264885E+0	1.280328E+0	1.231935E+0	1.334630E+0	1.291207E+0	1.292718E+0	1.342490E+0	1.287543E+0	1.281369E+0	1.292376E+0	1.305143E+0	1.229082E+0	1.276983E+0	1.295426E+0	1.236589E+0	1.274186E+0	1.270234E+0	1.282130E+0	1.265791E+0	1.281207E+0	1.320534E+0	1.316911E+0	1.352714E+0	1.260804E+0	1.286755E+0	1.267484E+0	1.261145E+0	1.313387E+0	1.281065E+0	1.304995E+0	1.262761E+0	1.291943E+0	1.318184E+0	1.337395E+0	1.282393E+0	1.308639E+0	1.280693E+0	1.259824E+0	1.323613E+0	1.268818E+0	1.290403E+0	1.319422E+0	1.249751E+0	1.259825E+0	1.292606E+0	1.275703E+0	1.283650E+0	1.264627E+0	1.328056E+0	1.289254E+0	1.282555E+0	1.310307E+0	1.305607E+0	1.307154E+0	1.293531E+0	1.249413E+0	1.285730E+0	1.279929E+0	1.279967E+0	1.269939E+0	1.251821E+0	1.248462E+0	1.286912E+0	1.303250E+0	1.242161E+0	1.297236E+0	1.269844E+0	1.228012E+0	1.286168E+0	1.292557E+0	1.261878E+0	1.205305E+0	1.281708E+0	1.259804E+0	1.303388E+0	1.273411E+0	1.295665E+0	1.281432E+0	1.285241E+0	1.252212E+0	1.295238E+0	1.253746E+0	1.262001E+0	1.326964E+0	1.279444E+0	1.275500E+0	1.320433E+0	1.242493E+0	1.250931E+0	1.275190E+0	1.292144E+0	1.273935E+0	1.264426E+0	1.306807E+0	1.308225E+0	1.302643E+0	1.281125E+0	1.247534E+0	1.261132E+0	1.245680E+0	1.218653E+0	1.278374E+0	1.307712E+0	1.263303E+0	1.256003E+0	1.266512E+0	1.222716E+0	1.268330E+0	1.300910E+0	1.257162E+0	1.265911E+0	1.233165E+0	1.291227E+0	1.297249E+0	1.264965E+0	1.282669E+0	1.256589E+0	1.311311E+0	1.279616E+0	1.217478E+0	1.282064E+0	1.312638E+0	1.239370E+0	1.293269E+0	1.300665E+0	1.293919E+0	1.259711E+0	1.280120E+0	1.236398E+0	1.257404E+0	1.263839E+0	1.282101E+0	1.320961E+0	1.299890E+0	1.279704E+0	1.240838E+0	1.212649E+0	1.278409E+0	1.246476E+0	1.263405E+0	1.248655E+0	1.272271E+0	1.286037E+0	1.247392E+0	1.234318E+0	1.279354E+0	1.255209E+0	1.318339E+0	1.274976E+0	1.261431E+0	1.240873E+0	1.279385E+0	1.301090E+0	1.261852E+0	1.299063E+0	1.263019E+0	1.256700E+0	1.292154E+0	1.298773E+0	1.262393E+0	1.266304E+0	1.265928E+0	1.282180E+0	1.209516E+0	1.279780E+0
5.387700E+2	1.533208E+0	1.507856E+0	1.538286E+0	1.473472E+0	1.518483E+0	1.457412E+0	1.495938E+0	1.428986E+0	1.506078E+0	1.500663E+0	1.504789E+0	1.496468E+0	1.441093E+0	1.483557E+0	1.488398E+0	1.498293E+0	1.526899E+0	1.438302E+0	1.498815E+0	1.479717E+0	1.461543E+0	1.495303E+0	1.513863E+0	1.518757E+0	1.498571E+0	1.537020E+0	1.515923E+0	1.510975E+0	1.525411E+0	1.453412E+0	1.490420E+0	1.474028E+0	1.490705E+0	1.475109E+0	1.449247E+0	1.534609E+0	1.491411E+0	1.483503E+0	1.471609E+0	1.496302E+0	1.510119E+0	1.486951E+0	1.463406E+0	1.493554E+0	1.464291E+0	1.508819E+0	1.521946E+0	1.477763E+0	1.545649E+0	1.467018E+0	1.485218E+0	1.442840E+0	1.481723E+0	1.482444E+0	1.476453E+0	1.509237E+0	1.485726E+0	1.484817E+0	1.473207E+0	1.478531E+0	1.479330E+0	1.452027E+0	1.522983E+0	1.461428E+0	1.467509E+0	1.508234E+0	1.495700E+0	1.449396E+0	1.539116E+0	1.465398E+0	1.506262E+0	1.494845E+0	1.509846E+0	1.496991E+0	1.451324E+0	1.472208E+0	1.453278E+0	1.454057E+0	1.507029E+0	1.481239E+0	1.478000E+0	1.495925E+0	1.526241E+0	1.484254E+0	1.438865E+0	1.478352E+0	1.513737E+0	1.466210E+0	1.519357E+0	1.495954E+0	1.446845E+0	1.526765E+0	1.472171E+0	1.508937E+0	1.502661E+0	1.443284E+0	1.482221E+0	1.481029E+0	1.538738E+0	1.432505E+0	1.460480E+0	1.444348E+0	1.477017E+0	1.449058E+0	1.438535E+0	1.425579E+0	1.462623E+0	1.456031E+0	1.414110E+0	1.517001E+0	1.505408E+0	1.468253E+0	1.541742E+0	1.482564E+0	1.487039E+0	1.518184E+0	1.505529E+0	1.441868E+0	1.490294E+0	1.435494E+0	1.444171E+0	1.471923E+0	1.519965E+0	1.447405E+0	1.449817E+0	1.492610E+0	1.525353E+0	1.392014E+0	1.471087E+0	1.542715E+0	1.517733E+0	1.422784E+0	1.470473E+0	1.481961E+0	1.484416E+0	1.503863E+0	1.461004E+0	1.468016E+0	1.486461E+0	1.502146E+0	1.443567E+0	1.403400E+0	1.489405E+0	1.475143E+0	1.495635E+0	1.439944E+0	1.511818E+0	1.421701E+0	1.496264E+0	1.412816E+0	1.439825E+0	1.454156E+0	1.475800E+0	1.471095E+0	1.510473E+0	1.466321E+0	1.484564E+0	1.447254E+0	1.509483E+0	1.509257E+0	1.396798E+0	1.452687E+0	1.479655E+0	1.475441E+0	1.470125E+0	1.393904E+0	1.515692E+0	1.472262E+0	1.419858E+0	1.459784E+0
5.390240E+2	1.710438E+0	1.674984E+0	1.705010E+0	1.646704E+0	1.684842E+0	1.667434E+0	1.703131E+0	1.705245E+0	1.692428E+0	1.648462E+0	1.686526E+0	1.654902E+0	1.739029E+0	1.652104E+0	1.612814E+0	1.674407E+0	1.740335E+0	1.704403E+0	1.687341E+0	1.705159E+0	1.663766E+0	1.717794E+0	1.667252E+0	1.724754E+0	1.694263E+0	1.683052E+0	1.699796E+0	1.736297E+0	1.679825E+0	1.678794E+0	1.645969E+0	1.712168E+0	1.651086E+0	1.689627E+0	1.710350E+0	1.672616E+0	1.750973E+0	1.699921E+0	1.737164E+0	1.702000E+0	1.634858E+0	1.699386E+0	1.721659E+0	1.641255E+0	1.658759E+0	1.718195E+0	1.717522E+0	1.667661E+0	1.779830E+0	1.683953E+0	1.673925E+0	1.694790E+0	1.664667E+0	1.643554E+0	1.617583E+0	1.650907E+0	1.669028E+0	1.663323E+0	1.697619E+0	1.665386E+0	1.684605E+0	1.631413E+0	1.680144E+0	1.667497E+0	1.641705E+0	1.685319E+0	1.616698E+0	1.681427E+0	1.658711E+0	1.649981E+0	1.707679E+0	1.672647E+0	1.667373E+0	1.674130E+0	1.746108E+0	1.626839E+0	1.610743E+0	1.668487E+0	1.705360E+0	1.733679E+0	1.661909E+0	1.640708E+0	1.722476E+0	1.673422E+0	1.636875E+0	1.697234E+0	1.691695E+0	1.713165E+0	1.705961E+0	1.631073E+0	1.692800E+0	1.672247E+0	1.637680E+0	1.618778E+0	1.698511E+0	1.710667E+0	1.632753E+0	1.680758E+0	1.665968E+0	1.603290E+0	1.674027E+0	1.699512E+0	1.695004E+0	1.623447E+0	1.656739E+0	1.595876E+0	1.702985E+0	1.612902E+0	1.657088E+0	1.669398E+0	1.701982E+0	1.698898E+0	1.727944E+0	1.708116E+0	1.689912E+0	1.580628E+0	1.631212E+0	1.674276E+0	1.710236E+0	1.630685E+0	1.695428E+0	1.706326E+0	1.646041E+0	1.679931E+0	1.617696E+0	1.675930E+0	1.677804E+0	1.648420E+0	1.644688E+0	1.660464E+0	1.707998E+0	1.657993E+0	1.631713E+0	1.589276E+0	1.657066E+0	1.698760E+0	1.668755E+0	1.591002E+0	1.657852E+0	1.628052E+0	1.612994E+0	1.615414E+0	1.731008E+0	1.673848E+0	1.621447E+0	1.657119E+0	1.674314E+0	1.601987E+0	1.604715E+0	1.688028E+0	1.671739E+0	1.662109E+0	1.677622E+0	1.678849E+0	1.672451E+0	1.707633E+0	1.610117E+0	1.653306E+0	1.704385E+0	1.619791E+0	1.656006E+0	1.596819E+0	1.670035E+0	1.641492E+0	1.545689E+0	1.644650E+0	1.638115E+0	1.620161E+0	1.524560E+0	1.622895E+0
5.392880E+2	1.951330E+0	1.856714E+0	1.903266E+0	1.858553E+0	1.858730E+0	1.871078E+0	1.885416E+0	1.834901E+0	1.899222E+0	1.907885E+0	1.867129E+0	1.918770E+0	1.887076E+0	1.915250E+0	1.854625E+0	1.887641E+0	1.841178E+0	1.868357E+0	1.816018E+0	1.887957E+0	1.853871E+0	1.897921E+0	1.901308E+0	1.883809E+0	1.859029E+0	1.908698E+0	1.823689E+0	1.882241E+0	1.831112E+0	1.890984E+0	1.900903E+0	1.836655E+0	1.832359E+0	1.844683E+0	1.908764E+0	1.873903E+0	1.904806E+0	1.918849E+0	1.873278E+0	1.848645E+0	1.879671E+0	1.851159E+0	1.860591E+0	1.871525E+0	1.865584E+0	1.868376E+0	1.890893E+0	1.845601E+0	1.880019E+0	1.827950E+0	1.871367E+0	1.834350E+0	1.874992E+0	1.806989E+0	1.867236E+0	1.855429E+0	1.848435E+0	1.834002E+0	1.922051E+0	1.865380E+0	1.851449E+0	1.866536E+0	1.925756E+0	1.891661E+0	1.822751E+0	1.862426E+0	1.807322E+0	1.854529E+0	1.876450E+0	1.859571E+0	1.802782E+0	1.791876E+0	1.873525E+0	1.857474E+0	1.957795E+0	1.852850E+0	1.789959E+0	1.803054E+0	1.871139E+0	1.844352E+0	1.808692E+0	1.843972E+0	1.925595E+0	1.825910E+0	1.827403E+0	1.862978E+0	1.860880E+0	1.845647E+0	1.862564E+0	1.789455E+0	1.867225E+0	1.921774E+0	1.823502E+0	1.785111E+0	1.892102E+0	1.853058E+0	1.872480E+0	1.869559E+0	1.831802E+0	1.866379E+0	1.833853E+0	1.820540E+0	1.783324E+0	1.817199E+0	1.820189E+0	1.741952E+0	1.877294E+0	1.817981E+0	1.798592E+0	1.796863E+0	1.839768E+0	1.841011E+0	1.808760E+0	1.824466E+0	1.847546E+0	1.792438E+0	1.848384E+0	1.848951E+0	1.854751E+0	1.818314E+0	1.842390E+0	1.818061E+0	1.817088E+0	1.826506E+0	1.754192E+0	1.819675E+0	1.902726E+0	1.794607E+0	1.834324E+0	1.833834E+0	1.811363E+0	1.808327E+0	1.812201E+0	1.827672E+0	1.824654E+0	1.818561E+0	1.846826E+0	1.837961E+0	1.813384E+0	1.845269E+0	1.776186E+0	1.814555E+0	1.913103E+0	1.815038E+0	1.827380E+0	1.772382E+0	1.844872E+0	1.811871E+0	1.830877E+0	1.802230E+0	1.789157E+0	1.839374E+0	1.897152E+0	1.775946E+0	1.774552E+0	1.819014E+0	1.809925E+0	1.775464E+0	1.826044E+0	1.838315E+0	1.799073E+0	1.864206E+0	1.843790E+0	1.804975E+0	1.789556E+0	1.896989E+0	1.827625E+0	1.813330E+0	1.780657E+0	1.774424E+0
5.395210E+2	2.005728E+0	1.998353E+0	1.988766E+0	1.993610E+0	2.041720E+0	1.979898E+0	2.014847E+0	2.016265E+0	1.997506E+0	2.022390E+0	2.028371E+0	2.026720E+0	1.991845E+0	1.972893E+0	2.034977E+0	2.017805E+0	1.968334E+0	2.010781E+0	1.949443E+0	2.029425E+0	1.990264E+0	1.974105E+0	1.974859E+0	2.025132E+0	1.956940E+0	1.972324E+0	1.995357E+0	1.995385E+0	2.001759E+0	1.975106E+0	2.001602E+0	1.988182E+0	1.974308E+0	1.962602E+0	1.968752E+0	2.024469E+0	2.073090E+0	1.963436E+0	2.053144E+0	2.036604E+0	2.020584E+0	2.002373E+0	1.932609E+0	1.998718E+0	1.921111E+0	1.999852E+0	2.107762E+0	2.051351E+0	2.016762E+0	2.029574E+0	1.946787E+0	2.023735E+0	1.923776E+0	1.962492E+0	1.964206E+0	1.982914E+0	1.964951E+0	2.006630E+0	1.987222E+0	1.961454E+0	1.984403E+0	1.981219E+0	2.013970E+0	2.065570E+0	1.929521E+0	1.955296E+0	1.948730E+0	2.001446E+0	1.964297E+0	1.949726E+0	1.965106E+0	1.995776E+0	1.969691E+0	1.981077E+0	2.005014E+0	1.956366E+0	1.956769E+0	1.927491E+0	2.045843E+0	2.030218E+0	1.940975E+0	1.981337E+0	2.010118E+0	2.010257E+0	1.982810E+0	1.971541E+0	1.983641E+0	1.980883E+0	1.977216E+0	1.923583E+0	1.941239E+0	1.961009E+0	1.916067E+0	1.909536E+0	2.010105E+0	2.002690E+0	2.052980E+0	1.964409E+0	1.933121E+0	1.970333E+0	1.970688E+0	2.013779E+0	1.922335E+0	2.025970E+0	1.896941E+0	1.940662E+0	1.966143E+0	1.857609E+0	1.919830E+0	2.043951E+0	2.011289E+0	1.977806E+0	1.994671E+0	1.953821E+0	1.940585E+0	1.919305E+0	1.975768E+0	1.951317E+0	1.991621E+0	1.945272E+0	1.931703E+0	1.949954E+0	1.914291E+0	1.992330E+0	1.943368E+0	1.937438E+0	2.037116E+0	1.904885E+0	1.939226E+0	2.019732E+0	1.960646E+0	1.947692E+0	1.901801E+0	1.960370E+0	1.952688E+0	1.980698E+0	1.977371E+0	1.849636E+0	1.972783E+0	1.938884E+0	1.882381E+0	1.922403E+0	1.959015E+0	1.936805E+0	1.942410E+0	1.939401E+0	1.968960E+0	1.931303E+0	1.988918E+0	1.958351E+0	1.932040E+0	1.975117E+0	1.947299E+0	1.877261E+0	1.921446E+0	1.909832E+0	1.879110E+0	1.892382E+0	1.972480E+0	2.001699E+0	1.904671E+0	1.962767E+0	1.979568E+0	1.856040E+0	1.906580E+0	1.887697E+0	1.921103E+0	1.987031E+0	1.848882E+0	1.878791E+0
5.397970E+2	2.125020E+0	2.095172E+0	2.077399E+0	2.003599E+0	2.081112E+0	2.109285E+0	2.061595E+0	2.042571E+0	2.028737E+0	2.100600E+0	2.050292E+0	2.054889E+0	2.061359E+0	2.019363E+0	1.963515E+0	2.063215E+0	2.100520E+0	2.060507E+0	2.059218E+0	2.078786E+0	2.041816E+0	2.042517E+0	2.031846E+0	2.097700E+0	2.088025E+0	2.066406E+0	1.957324E+0	2.088420E+0	2.002030E+0	2.043043E+0	1.977548E+0	2.009169E+0	2.098260E+0	2.031845E+0	2.005565E+0	2.026816E+0	2.028345E+0	2.069398E+0	2.068025E+0	1.980466E+0	2.049510E+0	2.039603E+0	2.030728E+0	2.018554E+0	2.028743E+0	1.944180E+0	2.101594E+0	1.981502E+0	2.031386E+0	2.028749E+0	1.993424E+0	2.048454E+0	2.008993E+0	2.047946E+0	2.001069E+0	1.991619E+0	2.054553E+0	2.041073E+0	2.102989E+0	2.000972E+0	2.025981E+0	1.937432E+0	2.072061E+0	2.061006E+0	2.022512E+0	2.027533E+0	2.072850E+0	1.998291E+0	2.016642E+0	1.964678E+0	2.050566E+0	2.062088E+0	1.975200E+0	2.006170E+0	2.009911E+0	2.006102E+0	1.980576E+0	2.009811E+0	2.016517E+0	1.998082E+0	2.008378E+0	1.964642E+0	1.982405E+0	2.047186E+0	1.922548E+0	2.079592E+0	1.998058E+0	2.084826E+0	2.011732E+0	2.010411E+0	1.979813E+0	2.024942E+0	2.057219E+0	1.986788E+0	2.057538E+0	2.014848E+0	2.092983E+0	2.045796E+0	2.011685E+0	2.011743E+0	2.030785E+0	2.053239E+0	2.052987E+0	2.029174E+0	1.998942E+0	1.935248E+0	2.029742E+0	2.013896E+0	1.950613E+0	2.032653E+0	2.090462E+0	1.910203E+0	2.064555E+0	1.985028E+0	2.035096E+0	1.962309E+0	1.938957E+0	1.901882E+0	2.004262E+0	2.025692E+0	1.961118E+0	1.929899E+0	2.020402E+0	2.022688E+0	2.012707E+0	1.988683E+0	2.058721E+0	2.012767E+0	1.965529E+0	1.988325E+0	2.049248E+0	1.942886E+0	1.970526E+0	2.005451E+0	1.985611E+0	1.923922E+0	1.985319E+0	2.026813E+0	2.084631E+0	2.019868E+0	1.956217E+0	1.942984E+0	2.036416E+0	2.021138E+0	1.924639E+0	1.995326E+0	1.987654E+0	1.979410E+0	1.977889E+0	2.017935E+0	1.921430E+0	1.984666E+0	1.968475E+0	1.913055E+0	1.949250E+0	2.007764E+0	1.955925E+0	1.954559E+0	2.037072E+0	2.001381E+0	1.926165E+0	1.960829E+0	1.988907E+0	1.994838E+0	2.002933E+0	1.983644E+0	1.998621E+0	2.002710E+0	1.942710E+0	1.867304E+0
5.400240E+2	2.016309E+0	1.990463E+0	2.045395E+0	2.040026E+0	1.996975E+0	1.954782E+0	2.028130E+0	2.019488E+0	2.015148E+0	2.015989E+0	2.023345E+0	1.982504E+0	1.981192E+0	2.028335E+0	1.970483E+0	2.015791E+0	1.975328E+0	1.999470E+0	2.032646E+0	1.970574E+0	1.999920E+0	1.987446E+0	1.971817E+0	1.974020E+0	2.007262E+0	2.013531E+0	1.867391E+0	2.052543E+0	2.007662E+0	1.911508E+0	1.908034E+0	1.911748E+0	1.986982E+0	2.021613E+0	1.927637E+0	2.000356E+0	1.985104E+0	2.035761E+0	2.043554E+0	1.975268E+0	1.949203E+0	1.986535E+0	1.936055E+0	1.978786E+0	1.956738E+0	1.934604E+0	2.020570E+0	2.000813E+0	2.031503E+0	1.969662E+0	1.976037E+0	1.993539E+0	1.988491E+0	1.985170E+0	2.034793E+0	2.000827E+0	1.988493E+0	1.967411E+0	1.979809E+0	1.970243E+0	1.946478E+0	1.932010E+0	1.975301E+0	1.969041E+0	1.941896E+0	1.987256E+0	1.883628E+0	1.985842E+0	1.918678E+0	2.006738E+0	2.004870E+0	1.931450E+0	1.964321E+0	1.977897E+0	1.976714E+0	1.991836E+0	1.974284E+0	1.962072E+0	1.951725E+0	1.995549E+0	1.924391E+0	1.921067E+0	1.991968E+0	1.918135E+0	1.982357E+0	1.995622E+0	1.964079E+0	1.955903E+0	1.966017E+0	1.962169E+0	1.986092E+0	2.007714E+0	1.999516E+0	1.975978E+0	1.973575E+0	1.955490E+0	1.935835E+0	1.924456E+0	2.012589E+0	1.929638E+0	1.935208E+0	1.970559E+0	2.018786E+0	1.951042E+0	2.003804E+0	1.975403E+0	1.961738E+0	1.879782E+0	1.914843E+0	1.963951E+0	1.975951E+0	1.899067E+0	1.898265E+0	1.979086E+0	1.973850E+0	1.893823E+0	1.881702E+0	1.951372E+0	1.957373E+0	1.921101E+0	1.980967E+0	1.933916E+0	1.978772E+0	1.938819E+0	1.840393E+0	1.954228E+0	1.984607E+0	1.954653E+0	1.934964E+0	1.968921E+0	1.952313E+0	1.946532E+0	1.926015E+0	1.911242E+0	1.900644E+0	1.897041E+0	1.971620E+0	1.893547E+0	1.988955E+0	1.895174E+0	1.980499E+0	1.948756E+0	1.955291E+0	1.924471E+0	1.946278E+0	2.033178E+0	1.919884E+0	1.899067E+0	1.897876E+0	1.983292E+0	1.956605E+0	1.919952E+0	1.931927E+0	1.869032E+0	1.875949E+0	1.933447E+0	1.851951E+0	1.961307E+0	1.986889E+0	1.887842E+0	1.907921E+0	1.941482E+0	1.959759E+0	1.915424E+0	1.864531E+0	1.879714E+0	1.898694E+0	1.925130E+0	1.880951E+0	1.945148E+0
5.402790E+2	1.924683E+0	1.861310E+0	1.888173E+0	1.854854E+0	1.897281E+0	1.870263E+0	1.859811E+0	1.840149E+0	1.864527E+0	1.876561E+0	1.858734E+0	1.882349E+0	1.852091E+0	1.865750E+0	1.828911E+0	1.869967E+0	1.845692E+0	1.923956E+0	1.893919E+0	1.852771E+0	1.886871E+0	1.918867E+0	1.892887E+0	1.957996E+0	1.921902E+0	1.883847E+0	1.878245E+0	1.933980E+0	1.854667E+0	1.801654E+0	1.866828E+0	1.809448E+0	1.876285E+0	1.833120E+0	1.830172E+0	1.875153E+0	1.922383E+0	1.914279E+0	1.856583E+0	1.835584E+0	1.884113E+0	1.855663E+0	1.818992E+0	1.842898E+0	1.853242E+0	1.846866E+0	1.856856E+0	1.885850E+0	1.850791E+0	1.916591E+0	1.860386E+0	1.842025E+0	1.869197E+0	1.832273E+0	1.839050E+0	1.918342E+0	1.856355E+0	1.851213E+0	1.857444E+0	1.852690E+0	1.898026E+0	1.867806E+0	1.911457E+0	1.801404E+0	1.900720E+0	1.858476E+0	1.902434E+0	1.877230E+0	1.842636E+0	1.847875E+0	1.855143E+0	1.875110E+0	1.814484E+0	1.874990E+0	1.855538E+0	1.904819E+0	1.859195E+0	1.886123E+0	1.815052E+0	1.877446E+0	1.831137E+0	1.825642E+0	1.862804E+0	1.826005E+0	1.792672E+0	1.842230E+0	1.828403E+0	1.821533E+0	1.857032E+0	1.857786E+0	1.867924E+0	1.859975E+0	1.833569E+0	1.844066E+0	1.827087E+0	1.913580E+0	1.851324E+0	1.876771E+0	1.789720E+0	1.831545E+0	1.884525E+0	1.808147E+0	1.857822E+0	1.862518E+0	1.800508E+0	1.801928E+0	1.894534E+0	1.830702E+0	1.810295E+0	1.815846E+0	1.891174E+0	1.815552E+0	1.878021E+0	1.823029E+0	1.855429E+0	1.827255E+0	1.839721E+0	1.823729E+0	1.881137E+0	1.763349E+0	1.855086E+0	1.799407E+0	1.784633E+0	1.796107E+0	1.775710E+0	1.909760E+0	1.834980E+0	1.859737E+0	1.826335E+0	1.818636E+0	1.847824E+0	1.758266E+0	1.852751E+0	1.837411E+0	1.868595E+0	1.842832E+0	1.796589E+0	1.811403E+0	1.905492E+0	1.797912E+0	1.792348E+0	1.799135E+0	1.904204E+0	1.812485E+0	1.726116E+0	1.822899E+0	1.815212E+0	1.812273E+0	1.806368E+0	1.869037E+0	1.813121E+0	1.865714E+0	1.852320E+0	1.880174E+0	1.820460E+0	1.814779E+0	1.789822E+0	1.759855E+0	1.861898E+0	1.813836E+0	1.749259E+0	1.767082E+0	1.818027E+0	1.803763E+0	1.799912E+0	1.748133E+0	1.763957E+0	1.822754E+0	1.730732E+0	1.851865E+0
5.405020E+2	1.785709E+0	1.723457E+0	1.767103E+0	1.798131E+0	1.741817E+0	1.780729E+0	1.774815E+0	1.738265E+0	1.785435E+0	1.758203E+0	1.788535E+0	1.806915E+0	1.862811E+0	1.765963E+0	1.768637E+0	1.755738E+0	1.740574E+0	1.865865E+0	1.804894E+0	1.745848E+0	1.790620E+0	1.754536E+0	1.796505E+0	1.734841E+0	1.782794E+0	1.802038E+0	1.747152E+0	1.848245E+0	1.756035E+0	1.699601E+0	1.692491E+0	1.795006E+0	1.840325E+0	1.773998E+0	1.742803E+0	1.816060E+0	1.790628E+0	1.798511E+0	1.789379E+0	1.769588E+0	1.774715E+0	1.759079E+0	1.776771E+0	1.766994E+0	1.771656E+0	1.742532E+0	1.784391E+0	1.791672E+0	1.743634E+0	1.757752E+0	1.775641E+0	1.834401E+0	1.788797E+0	1.805316E+0	1.786782E+0	1.735190E+0	1.729575E+0	1.749071E+0	1.750276E+0	1.773779E+0	1.758636E+0	1.730400E+0	1.740414E+0	1.752101E+0	1.732765E+0	1.768070E+0	1.707253E+0	1.783002E+0	1.765627E+0	1.706732E+0	1.781639E+0	1.758406E+0	1.745556E+0	1.755812E+0	1.787461E+0	1.738113E+0	1.773003E+0	1.731756E+0	1.786908E+0	1.754280E+0	1.756229E+0	1.726857E+0	1.808877E+0	1.763857E+0	1.741279E+0	1.744957E+0	1.736170E+0	1.795381E+0	1.723800E+0	1.733908E+0	1.720317E+0	1.820216E+0	1.746852E+0	1.771376E+0	1.745200E+0	1.755917E+0	1.790192E+0	1.779721E+0	1.744563E+0	1.742620E+0	1.805968E+0	1.750963E+0	1.736718E+0	1.728603E+0	1.679686E+0	1.710035E+0	1.705597E+0	1.714475E+0	1.704075E+0	1.761134E+0	1.749469E+0	1.758581E+0	1.728094E+0	1.748521E+0	1.772970E+0	1.707274E+0	1.718349E+0	1.730474E+0	1.750374E+0	1.701452E+0	1.695877E+0	1.782714E+0	1.723154E+0	1.749300E+0	1.731938E+0	1.680062E+0	1.713090E+0	1.774548E+0	1.740467E+0	1.822670E+0	1.771651E+0	1.713498E+0	1.807498E+0	1.750180E+0	1.714161E+0	1.745430E+0	1.709407E+0	1.756956E+0	1.738456E+0	1.750855E+0	1.702976E+0	1.730567E+0	1.752946E+0	1.751249E+0	1.696267E+0	1.792781E+0	1.748984E+0	1.714257E+0	1.718374E+0	1.751753E+0	1.707857E+0	1.769573E+0	1.735688E+0	1.760662E+0	1.778027E+0	1.726471E+0	1.668115E+0	1.695038E+0	1.744476E+0	1.820032E+0	1.736282E+0	1.760333E+0	1.737120E+0	1.768478E+0	1.747194E+0	1.737990E+0	1.758356E+0	1.741232E+0	1.612118E+0	1.709274E+0
5.407740E+2	1.755622E+0	1.686250E+0	1.715224E+0	1.588649E+0	1.711590E+0	1.683858E+0	1.732482E+0	1.738757E+0	1.726621E+0	1.693476E+0	1.685341E+0	1.746785E+0	1.664625E+0	1.667866E+0	1.674342E+0	1.690401E+0	1.676740E+0	1.682278E+0	1.749211E+0	1.667909E+0	1.717482E+0	1.746217E+0	1.694417E+0	1.689699E+0	1.622180E+0	1.723981E+0	1.629775E+0	1.712879E+0	1.692586E+0	1.657436E+0	1.677852E+0	1.665950E+0	1.732959E+0	1.707570E+0	1.647572E+0	1.659739E+0	1.622548E+0	1.644336E+0	1.621167E+0	1.651413E+0	1.715235E+0	1.696844E+0	1.657980E+0	1.691509E+0	1.716375E+0	1.655606E+0	1.701608E+0	1.690507E+0	1.713446E+0	1.721431E+0	1.728010E+0	1.669704E+0	1.702671E+0	1.648667E+0	1.660736E+0	1.661827E+0	1.684636E+0	1.658133E+0	1.678404E+0	1.664536E+0	1.637699E+0	1.643621E+0	1.738470E+0	1.703505E+0	1.661899E+0	1.691537E+0	1.678248E+0	1.654270E+0	1.633651E+0	1.666074E+0	1.671679E+0	1.700968E+0	1.708481E+0	1.640145E+0	1.666122E+0	1.687293E+0	1.681832E+0	1.661533E+0	1.660509E+0	1.740469E+0	1.690137E+0	1.598321E+0	1.655425E+0	1.691993E+0	1.654851E+0	1.673227E+0	1.686859E+0	1.668024E+0	1.739376E+0	1.674588E+0	1.632016E+0	1.713611E+0	1.677794E+0	1.680590E+0	1.637620E+0	1.663461E+0	1.646390E+0	1.686328E+0	1.664742E+0	1.710596E+0	1.644524E+0	1.640201E+0	1.667050E+0	1.665828E+0	1.697172E+0	1.611920E+0	1.627748E+0	1.674174E+0	1.628403E+0	1.635769E+0	1.682829E+0	1.655639E+0	1.687923E+0	1.685203E+0	1.692981E+0	1.667113E+0	1.640823E+0	1.716889E+0	1.660174E+0	1.655617E+0	1.607993E+0	1.688443E+0	1.649688E+0	1.650409E+0	1.617275E+0	1.660446E+0	1.672336E+0	1.651616E+0	1.651417E+0	1.697552E+0	1.618512E+0	1.586176E+0	1.696856E+0	1.638078E+0	1.704392E+0	1.615668E+0	1.596540E+0	1.644269E+0	1.650515E+0	1.711550E+0	1.589604E+0	1.662575E+0	1.639337E+0	1.693552E+0	1.600509E+0	1.619376E+0	1.674401E+0	1.622759E+0	1.654660E+0	1.652114E+0	1.693826E+0	1.629790E+0	1.708666E+0	1.641306E+0	1.598866E+0	1.643145E+0	1.636962E+0	1.634062E+0	1.651551E+0	1.748354E+0	1.670579E+0	1.665272E+0	1.588989E+0	1.670313E+0	1.592926E+0	1.629066E+0	1.656646E+0	1.709577E+0	1.506050E+0	1.589449E+0
5.410190E+2	1.639124E+0	1.655616E+0	1.667602E+0	1.604484E+0	1.642444E+0	1.699634E+0	1.646846E+0	1.614606E+0	1.701555E+0	1.666311E+0	1.658253E+0	1.662804E+0	1.686900E+0	1.644991E+0	1.641127E+0	1.641620E+0	1.679050E+0	1.669641E+0	1.623714E+0	1.636186E+0	1.618235E+0	1.684426E+0	1.673141E+0	1.663111E+0	1.665445E+0	1.591392E+0	1.594344E+0	1.610071E+0	1.618373E+0	1.645175E+0	1.614742E+0	1.649276E+0	1.684698E+0	1.669342E+0	1.696962E+0	1.641861E+0	1.612064E+0	1.624491E+0	1.636690E+0	1.666573E+0	1.619860E+0	1.631530E+0	1.576903E+0	1.608864E+0	1.586359E+0	1.685558E+0	1.641524E+0	1.692652E+0	1.680933E+0	1.706653E+0	1.625272E+0	1.653191E+0	1.639291E+0	1.650527E+0	1.728246E+0	1.628440E+0	1.632303E+0	1.627476E+0	1.645429E+0	1.667345E+0	1.683103E+0	1.643076E+0	1.641757E+0	1.667604E+0	1.650308E+0	1.610329E+0	1.636763E+0	1.653330E+0	1.615756E+0	1.672171E+0	1.671043E+0	1.609806E+0	1.655864E+0	1.668419E+0	1.618007E+0	1.612823E+0	1.590942E+0	1.606286E+0	1.633350E+0	1.629674E+0	1.598415E+0	1.675492E+0	1.630880E+0	1.685660E+0	1.638000E+0	1.616242E+0	1.598362E+0	1.663106E+0	1.636873E+0	1.624774E+0	1.621302E+0	1.631738E+0	1.624526E+0	1.648643E+0	1.608237E+0	1.618767E+0	1.647938E+0	1.653176E+0	1.641366E+0	1.668106E+0	1.657453E+0	1.671792E+0	1.650704E+0	1.671453E+0	1.644497E+0	1.640227E+0	1.637224E+0	1.564760E+0	1.610640E+0	1.661836E+0	1.658527E+0	1.637317E+0	1.668924E+0	1.671462E+0	1.682297E+0	1.618217E+0	1.621083E+0	1.624990E+0	1.637276E+0	1.627234E+0	1.644496E+0	1.659483E+0	1.607303E+0	1.585421E+0	1.617234E+0	1.605738E+0	1.613779E+0	1.633922E+0	1.588939E+0	1.539034E+0	1.604183E+0	1.639580E+0	1.610864E+0	1.639516E+0	1.637937E+0	1.595338E+0	1.622844E+0	1.614202E+0	1.629035E+0	1.703197E+0	1.589026E+0	1.540793E+0	1.652463E+0	1.632421E+0	1.549726E+0	1.611572E+0	1.608947E+0	1.565068E+0	1.549664E+0	1.635617E+0	1.594109E+0	1.588839E+0	1.647702E+0	1.608850E+0	1.621768E+0	1.598524E+0	1.532166E+0	1.615191E+0	1.592843E+0	1.646926E+0	1.651879E+0	1.588276E+0	1.618162E+0	1.699660E+0	1.651373E+0	1.611792E+0	1.592927E+0	1.680116E+0	1.614522E+0	1.618920E+0
5.412790E+2	1.577038E+0	1.548148E+0	1.557066E+0	1.493761E+0	1.578042E+0	1.553343E+0	1.589214E+0	1.512963E+0	1.575548E+0	1.503889E+0	1.563807E+0	1.561894E+0	1.514576E+0	1.541086E+0	1.513688E+0	1.575456E+0	1.499660E+0	1.567276E+0	1.464317E+0	1.543477E+0	1.593139E+0	1.530799E+0	1.541741E+0	1.558973E+0	1.514071E+0	1.450040E+0	1.533965E+0	1.556141E+0	1.516356E+0	1.524925E+0	1.548163E+0	1.486624E+0	1.514012E+0	1.514126E+0	1.491097E+0	1.546637E+0	1.557766E+0	1.582311E+0	1.524949E+0	1.554927E+0	1.541912E+0	1.551874E+0	1.510204E+0	1.550777E+0	1.559980E+0	1.527099E+0	1.506024E+0	1.581464E+0	1.601189E+0	1.557126E+0	1.552347E+0	1.554856E+0	1.562812E+0	1.525851E+0	1.584351E+0	1.485473E+0	1.550085E+0	1.555911E+0	1.533599E+0	1.517196E+0	1.554643E+0	1.556622E+0	1.514723E+0	1.502055E+0	1.546972E+0	1.524245E+0	1.526985E+0	1.543443E+0	1.528152E+0	1.509980E+0	1.515179E+0	1.565765E+0	1.527080E+0	1.539844E+0	1.537382E+0	1.534715E+0	1.546876E+0	1.534975E+0	1.514009E+0	1.597227E+0	1.569258E+0	1.534529E+0	1.523365E+0	1.493347E+0	1.518661E+0	1.504729E+0	1.529396E+0	1.543664E+0	1.555341E+0	1.520455E+0	1.490259E+0	1.551696E+0	1.510912E+0	1.581999E+0	1.570779E+0	1.520673E+0	1.563944E+0	1.548501E+0	1.555185E+0	1.564891E+0	1.568416E+0	1.514096E+0	1.567378E+0	1.526716E+0	1.503519E+0	1.478775E+0	1.569171E+0	1.560645E+0	1.478125E+0	1.538492E+0	1.515073E+0	1.534897E+0	1.564074E+0	1.552240E+0	1.577821E+0	1.508784E+0	1.474279E+0	1.531776E+0	1.529034E+0	1.546396E+0	1.512277E+0	1.563293E+0	1.463316E+0	1.582029E+0	1.481460E+0	1.544818E+0	1.546728E+0	1.544006E+0	1.579934E+0	1.585027E+0	1.512473E+0	1.505923E+0	1.532249E+0	1.528283E+0	1.527975E+0	1.539871E+0	1.541251E+0	1.458214E+0	1.560440E+0	1.535343E+0	1.478842E+0	1.464212E+0	1.559705E+0	1.584765E+0	1.526847E+0	1.493493E+0	1.476268E+0	1.511874E+0	1.601581E+0	1.486222E+0	1.511789E+0	1.524395E+0	1.566687E+0	1.490008E+0	1.575679E+0	1.531383E+0	1.540897E+0	1.535117E+0	1.499357E+0	1.603062E+0	1.520061E+0	1.506910E+0	1.542792E+0	1.501541E+0	1.514317E+0	1.553210E+0	1.517660E+0	1.554866E+0	1.460668E+0	1.417841E+0
5.415190E+2	1.421125E+0	1.391807E+0	1.422378E+0	1.376277E+0	1.429190E+0	1.417372E+0	1.347422E+0	1.397643E+0	1.363944E+0	1.442297E+0	1.373393E+0	1.400655E+0	1.401849E+0	1.402710E+0	1.349017E+0	1.349265E+0	1.375278E+0	1.380712E+0	1.378865E+0	1.407218E+0	1.363880E+0	1.361371E+0	1.367686E+0	1.368310E+0	1.377842E+0	1.380635E+0	1.363463E+0	1.416160E+0	1.305709E+0	1.361774E+0	1.354617E+0	1.398898E+0	1.407463E+0	1.357566E+0	1.348274E+0	1.360319E+0	1.428239E+0	1.372794E+0	1.393733E+0	1.421826E+0	1.347890E+0	1.348341E+0	1.390935E+0	1.344393E+0	1.351968E+0	1.403272E+0	1.433865E+0	1.352021E+0	1.369830E+0	1.351464E+0	1.377469E+0	1.389107E+0	1.358002E+0	1.384596E+0	1.380286E+0	1.364983E+0	1.407848E+0	1.384211E+0	1.375046E+0	1.378522E+0	1.339531E+0	1.403334E+0	1.409272E+0	1.358095E+0	1.406694E+0	1.439894E+0	1.389800E+0	1.397284E+0	1.342049E+0	1.341456E+0	1.436944E+0	1.364233E+0	1.400334E+0	1.380590E+0	1.366969E+0	1.373640E+0	1.404904E+0	1.342600E+0	1.391983E+0	1.411735E+0	1.367114E+0	1.361198E+0	1.378567E+0	1.366928E+0	1.333299E+0	1.395807E+0	1.354958E+0	1.355733E+0	1.380467E+0	1.431800E+0	1.333078E+0	1.374093E+0	1.323814E+0	1.367087E+0	1.340850E+0	1.386948E+0	1.429598E+0	1.391510E+0	1.382656E+0	1.358385E+0	1.357965E+0	1.400772E+0	1.292100E+0	1.356166E+0	1.369142E+0	1.326798E+0	1.340762E+0	1.353071E+0	1.335679E+0	1.395376E+0	1.386402E+0	1.388509E+0	1.413873E+0	1.381914E+0	1.425341E+0	1.382246E+0	1.387614E+0	1.381980E+0	1.348804E+0	1.397218E+0	1.388400E+0	1.337485E+0	1.374398E+0	1.402670E+0	1.365682E+0	1.429221E+0	1.331995E+0	1.389049E+0	1.396359E+0	1.386451E+0	1.447461E+0	1.383822E+0	1.370087E+0	1.381255E+0	1.363021E+0	1.412944E+0	1.383276E+0	1.359993E+0	1.404625E+0	1.381890E+0	1.325445E+0	1.309562E+0	1.402538E+0	1.379007E+0	1.367486E+0	1.281447E+0	1.368976E+0	1.312685E+0	1.366523E+0	1.355201E+0	1.319944E+0	1.371180E+0	1.389065E+0	1.376836E+0	1.361112E+0	1.364602E+0	1.391692E+0	1.313034E+0	1.330104E+0	1.368971E+0	1.381539E+0	1.359910E+0	1.381592E+0	1.342345E+0	1.364964E+0	1.383884E+0	1.321399E+0	1.410682E+0	1.339597E+0	1.369130E+0
5.417700E+2	1.194202E+0	1.172351E+0	1.227090E+0	1.173488E+0	1.178835E+0	1.173437E+0	1.180511E+0	1.131618E+0	1.177185E+0	1.180241E+0	1.188470E+0	1.228054E+0	1.204570E+0	1.214527E+0	1.216271E+0	1.206685E+0	1.185459E+0	1.237894E+0	1.219574E+0	1.208887E+0	1.163025E+0	1.163755E+0	1.244707E+0	1.172933E+0	1.192453E+0	1.182466E+0	1.154821E+0	1.247172E+0	1.171429E+0	1.234570E+0	1.191496E+0	1.162913E+0	1.183919E+0	1.176670E+0	1.169344E+0	1.208464E+0	1.235510E+0	1.214416E+0	1.160196E+0	1.199406E+0	1.174204E+0	1.176687E+0	1.130363E+0	1.200556E+0	1.168801E+0	1.176324E+0	1.172384E+0	1.177987E+0	1.243934E+0	1.220314E+0	1.254187E+0	1.217309E+0	1.253153E+0	1.192633E+0	1.207010E+0	1.173805E+0	1.145489E+0	1.133776E+0	1.163447E+0	1.211942E+0	1.162467E+0	1.210023E+0	1.198815E+0	1.182327E+0	1.195935E+0	1.220502E+0	1.171740E+0	1.166374E+0	1.211250E+0	1.211573E+0	1.184340E+0	1.189487E+0	1.178599E+0	1.194135E+0	1.171131E+0	1.174855E+0	1.205656E+0	1.197072E+0	1.161124E+0	1.181465E+0	1.199280E+0	1.174348E+0	1.228573E+0	1.211345E+0	1.160853E+0	1.152904E+0	1.211856E+0	1.225330E+0	1.199220E+0	1.205668E+0	1.110277E+0	1.254211E+0	1.183034E+0	1.173473E+0	1.164049E+0	1.213183E+0	1.193257E+0	1.192925E+0	1.173515E+0	1.215274E+0	1.200473E+0	1.143524E+0	1.172392E+0	1.206859E+0	1.176620E+0	1.159041E+0	1.169728E+0	1.160154E+0	1.176323E+0	1.156694E+0	1.151140E+0	1.197461E+0	1.166609E+0	1.196871E+0	1.195728E+0	1.157979E+0	1.145825E+0	1.131044E+0	1.210005E+0	1.203865E+0	1.149776E+0	1.171050E+0	1.197695E+0	1.185703E+0	1.182540E+0	1.172314E+0	1.220651E+0	1.182520E+0	1.233842E+0	1.227699E+0	1.186577E+0	1.186907E+0	1.197554E+0	1.210753E+0	1.188097E+0	1.179181E+0	1.209523E+0	1.204856E+0	1.216532E+0	1.236486E+0	1.121572E+0	1.168530E+0	1.155397E+0	1.196242E+0	1.217587E+0	1.194780E+0	1.232443E+0	1.168738E+0	1.188648E+0	1.176394E+0	1.183799E+0	1.241067E+0	1.202194E+0	1.178688E+0	1.196908E+0	1.214393E+0	1.214718E+0	1.199209E+0	1.152941E+0	1.205246E+0	1.182450E+0	1.249107E+0	1.170743E+0	1.181829E+0	1.158766E+0	1.191920E+0	1.222820E+0	1.176303E+0	1.110713E+0	1.231968E+0
5.420210E+2	1.060814E+0	1.063293E+0	1.059234E+0	1.078605E+0	1.031715E+0	1.082687E+0	1.021325E+0	1.008166E+0	1.018272E+0	1.042764E+0	1.041790E+0	1.058173E+0	1.029487E+0	1.051018E+0	1.026883E+0	1.023995E+0	1.086736E+0	1.048028E+0	1.014919E+0	1.026385E+0	1.069199E+0	1.022373E+0	1.024194E+0	1.035015E+0	1.019854E+0	1.057047E+0	1.081053E+0	1.057410E+0	1.014831E+0	1.071703E+0	1.017517E+0	1.017820E+0	1.060950E+0	9.820037E-1	1.012049E+0	1.105261E+0	1.095945E+0	1.035678E+0	1.064476E+0	1.035045E+0	1.069631E+0	1.038202E+0	1.013280E+0	1.060595E+0	1.018512E+0	1.050228E+0	1.031355E+0	1.038703E+0	1.063299E+0	1.042028E+0	1.030928E+0	1.015433E+0	1.030684E+0	1.072335E+0	1.066071E+0	1.017946E+0	1.056478E+0	1.034196E+0	1.024729E+0	1.043666E+0	1.047630E+0	1.011785E+0	1.005210E+0	1.043922E+0	1.050580E+0	1.023818E+0	1.060046E+0	1.034803E+0	1.016231E+0	1.017671E+0	1.076636E+0	1.024489E+0	1.040752E+0	1.072495E+0	1.082966E+0	1.027029E+0	1.046932E+0	1.037101E+0	1.027735E+0	1.032340E+0	1.078951E+0	1.041055E+0	1.038708E+0	1.035515E+0	1.047782E+0	1.042492E+0	1.045111E+0	1.049588E+0	9.870095E-1	1.051860E+0	1.017313E+0	1.064146E+0	1.071271E+0	1.059341E+0	1.072343E+0	1.025511E+0	1.052282E+0	1.041254E+0	1.054513E+0	1.000116E+0	1.057222E+0	1.023696E+0	1.041332E+0	1.071933E+0	1.032523E+0	1.060485E+0	1.038657E+0	1.053002E+0	1.019299E+0	1.048762E+0	1.069964E+0	1.018093E+0	1.009102E+0	1.056892E+0	1.041622E+0	1.082691E+0	1.031107E+0	1.000957E+0	1.069177E+0	1.074107E+0	1.023787E+0	1.032219E+0	1.027375E+0	1.049554E+0	1.014903E+0	1.105160E+0	1.044241E+0	1.011605E+0	1.062266E+0	1.070457E+0	1.089991E+0	1.020680E+0	1.051553E+0	1.011356E+0	1.029113E+0	1.051359E+0	1.005447E+0	9.707022E-1	1.051254E+0	1.087171E+0	1.000856E+0	1.063983E+0	1.027083E+0	1.136507E+0	1.043716E+0	1.025103E+0	9.810246E-1	1.025985E+0	1.028059E+0	1.059458E+0	1.020216E+0	1.060226E+0	1.046246E+0	1.050056E+0	1.063385E+0	1.065967E+0	9.995592E-1	1.048916E+0	1.024009E+0	1.049207E+0	1.068078E+0	1.024509E+0	1.049619E+0	1.043941E+0	1.080493E+0	1.040092E+0	1.015007E+0	1.122302E+0	9.404583E-1	1.055534E+0
5.422730E+2	9.361708E-1	9.549930E-1	9.716697E-1	9.408087E-1	9.262683E-1	9.146216E-1	9.391281E-1	9.610771E-1	8.859224E-1	9.245602E-1	9.747381E-1	9.322750E-1	9.914759E-1	9.211742E-1	9.504880E-1	9.356033E-1	9.482781E-1	9.459047E-1	9.523964E-1	9.055764E-1	9.552110E-1	9.719413E-1	9.268482E-1	9.812314E-1	9.555230E-1	9.206933E-1	9.446207E-1	9.643553E-1	9.502133E-1	9.770922E-1	9.553130E-1	9.508934E-1	9.821774E-1	9.478188E-1	9.766267E-1	9.603985E-1	9.640279E-1	9.428957E-1	9.788821E-1	9.517316E-1	8.975880E-1	9.653457E-1	9.710578E-1	9.583800E-1	9.475784E-1	9.605178E-1	9.410856E-1	9.281425E-1	9.413598E-1	9.658640E-1	9.701516E-1	9.338531E-1	9.557539E-1	9.584592E-1	9.276612E-1	9.126228E-1	9.575819E-1	9.526474E-1	9.471033E-1	8.758219E-1	9.427857E-1	9.451434E-1	9.527862E-1	8.962236E-1	9.584233E-1	9.506007E-1	9.477056E-1	9.686608E-1	9.261446E-1	9.460318E-1	9.643475E-1	9.664152E-1	9.342526E-1	9.426601E-1	9.083400E-1	9.580465E-1	9.628380E-1	9.275383E-1	9.649481E-1	9.614997E-1	9.594538E-1	9.937177E-1	9.605516E-1	9.824756E-1	9.148145E-1	9.654178E-1	9.330347E-1	9.474761E-1	9.823551E-1	9.922747E-1	9.597014E-1	9.717992E-1	9.297610E-1	9.536232E-1	9.346722E-1	9.442552E-1	9.378775E-1	9.376644E-1	9.591024E-1	9.745073E-1	9.619396E-1	9.308419E-1	9.424798E-1	9.422467E-1	9.106780E-1	9.125245E-1	9.357811E-1	9.483460E-1	8.966284E-1	9.670310E-1	9.488601E-1	9.653940E-1	9.310925E-1	9.252737E-1	9.546121E-1	9.076667E-1	9.537457E-1	8.986147E-1	9.331244E-1	9.434723E-1	8.718922E-1	9.592496E-1	9.908164E-1	9.815342E-1	9.348917E-1	9.870371E-1	9.363490E-1	9.693735E-1	9.452917E-1	9.525058E-1	9.458564E-1	9.326789E-1	9.611631E-1	9.455018E-1	9.597899E-1	9.683098E-1	9.476783E-1	9.257727E-1	9.950809E-1	9.930190E-1	9.136151E-1	9.126250E-1	9.212383E-1	1.003713E+0	9.237978E-1	9.078088E-1	9.131026E-1	9.290541E-1	9.704393E-1	9.698483E-1	9.311904E-1	9.739799E-1	9.935230E-1	9.273279E-1	9.290107E-1	9.828531E-1	9.592376E-1	9.495218E-1	9.282010E-1	9.812927E-1	9.015473E-1	9.836837E-1	9.737123E-1	9.441139E-1	9.200909E-1	9.395022E-1	9.812194E-1	9.590508E-1	8.997150E-1	9.786525E-1
5.425190E+2	9.401556E-1	9.469291E-1	9.553992E-1	9.281138E-1	9.582005E-1	9.277964E-1	9.154125E-1	9.474750E-1	9.448914E-1	9.478332E-1	9.498282E-1	8.956029E-1	9.507550E-1	9.222516E-1	9.241821E-1	9.485923E-1	8.902745E-1	9.375942E-1	9.287987E-1	9.374430E-1	9.413837E-1	8.980542E-1	9.457969E-1	9.749873E-1	9.226496E-1	9.714103E-1	9.127194E-1	1.017520E+0	9.428387E-1	9.503068E-1	9.230904E-1	9.199846E-1	1.000175E+0	9.556725E-1	9.526392E-1	9.366436E-1	9.715526E-1	9.843893E-1	9.615702E-1	9.149548E-1	9.554963E-1	9.413605E-1	9.318404E-1	9.531471E-1	9.612075E-1	9.760365E-1	9.388375E-1	9.583077E-1	9.707301E-1	9.240768E-1	9.604570E-1	9.718888E-1	9.140976E-1	9.246175E-1	9.541285E-1	9.500356E-1	9.545222E-1	9.342969E-1	9.552842E-1	9.149724E-1	9.265913E-1	9.302494E-1	9.218380E-1	9.249818E-1	9.748291E-1	9.043640E-1	9.519897E-1	9.674574E-1	9.479181E-1	9.331843E-1	9.215843E-1	9.464660E-1	9.310575E-1	9.809009E-1	9.411197E-1	9.593380E-1	9.295282E-1	9.195992E-1	9.022398E-1	9.367858E-1	9.551291E-1	9.349644E-1	9.359690E-1	9.157884E-1	9.547496E-1	8.994943E-1	8.993293E-1	9.609022E-1	9.324434E-1	9.295779E-1	9.158713E-1	9.434797E-1	9.265944E-1	9.315817E-1	8.978092E-1	9.197593E-1	9.826126E-1	9.990518E-1	9.377728E-1	9.616256E-1	9.689686E-1	9.697223E-1	9.988006E-1	9.160286E-1	9.747674E-1	1.002622E+0	9.457823E-1	9.582980E-1	9.367589E-1	9.613853E-1	9.407485E-1	9.123147E-1	9.419448E-1	9.388445E-1	9.552681E-1	9.499823E-1	9.741089E-1	9.454970E-1	9.540076E-1	9.487469E-1	9.212666E-1	9.296034E-1	9.532223E-1	9.627514E-1	9.094560E-1	9.377382E-1	9.482943E-1	9.169318E-1	9.177750E-1	9.554809E-1	9.737562E-1	8.963947E-1	9.375601E-1	9.144041E-1	9.068380E-1	9.619322E-1	9.545937E-1	9.432225E-1	9.334190E-1	8.878212E-1	9.085133E-1	9.092460E-1	9.571541E-1	9.489059E-1	9.728011E-1	9.051178E-1	9.422758E-1	9.520587E-1	9.862113E-1	9.491318E-1	9.190181E-1	9.529290E-1	9.836655E-1	9.542948E-1	9.123000E-1	9.417632E-1	9.161513E-1	9.420917E-1	9.264184E-1	9.311541E-1	9.592728E-1	9.680407E-1	9.534763E-1	8.817798E-1	9.479768E-1	9.467356E-1	9.624287E-1	9.375273E-1	8.776971E-1	8.817184E-1
5.427650E+2	9.949731E-1	9.685523E-1	9.927222E-1	9.792643E-1	1.001824E+0	9.744803E-1	9.568341E-1	9.637575E-1	9.789224E-1	1.006942E+0	9.571778E-1	9.865537E-1	9.735836E-1	9.859144E-1	9.841614E-1	9.804463E-1	9.519835E-1	1.004851E+0	9.958248E-1	9.762767E-1	9.656053E-1	9.902035E-1	9.440472E-1	1.003610E+0	1.049987E+0	9.666122E-1	9.774065E-1	1.012727E+0	9.548690E-1	9.962182E-1	9.508682E-1	9.810030E-1	1.045193E+0	9.647747E-1	1.025700E+0	9.749986E-1	9.701812E-1	9.837200E-1	9.950831E-1	1.014619E+0	1.003854E+0	9.910864E-1	9.312119E-1	9.593160E-1	1.009514E+0	9.864090E-1	9.943378E-1	9.689016E-1	9.960365E-1	1.005547E+0	1.000273E+0	9.594446E-1	1.011885E+0	9.528603E-1	9.924829E-1	1.006921E+0	9.355205E-1	9.637393E-1	9.781334E-1	9.914291E-1	9.705858E-1	9.788464E-1	9.738236E-1	9.737285E-1	1.002995E+0	9.820589E-1	9.112634E-1	1.010657E+0	9.902664E-1	1.007056E+0	1.003214E+0	1.000997E+0	9.653466E-1	9.907916E-1	9.660653E-1	9.919148E-1	9.589131E-1	9.715666E-1	9.687384E-1	9.436810E-1	9.594713E-1	9.980624E-1	9.469736E-1	9.885895E-1	9.592284E-1	9.956382E-1	9.867545E-1	1.024914E+0	9.744560E-1	9.986819E-1	9.740503E-1	1.011479E+0	9.661618E-1	9.935389E-1	9.776423E-1	1.017288E+0	9.858631E-1	1.004671E+0	9.795154E-1	9.911473E-1	9.901287E-1	9.675011E-1	9.580162E-1	1.011941E+0	9.551548E-1	9.928674E-1	9.660065E-1	9.695770E-1	9.499737E-1	1.024339E+0	9.943464E-1	9.718654E-1	9.862609E-1	1.001812E+0	1.003846E+0	9.945664E-1	9.714676E-1	9.891353E-1	9.809269E-1	9.773064E-1	1.041164E+0	9.976289E-1	9.886147E-1	9.573492E-1	9.701736E-1	9.995181E-1	9.680473E-1	9.901466E-1	9.360543E-1	1.039958E+0	9.889871E-1	9.211181E-1	1.043768E+0	9.877835E-1	9.808262E-1	9.754031E-1	9.935572E-1	9.960070E-1	1.004706E+0	9.813192E-1	9.479107E-1	9.547624E-1	9.546438E-1	9.622802E-1	9.877961E-1	1.000712E+0	1.041488E+0	9.590032E-1	9.943435E-1	1.013530E+0	9.909743E-1	9.918689E-1	1.006612E+0	9.551666E-1	9.567083E-1	9.617605E-1	9.381630E-1	9.882664E-1	9.612890E-1	1.003618E+0	9.670237E-1	9.962832E-1	1.000347E+0	9.982880E-1	1.032201E+0	1.007865E+0	9.582228E-1	1.006325E+0	9.696501E-1	1.007643E+0
5.430070E+2	1.071774E+0	1.070506E+0	1.142598E+0	1.082005E+0	1.117995E+0	1.118301E+0	1.088690E+0	1.081624E+0	1.134479E+0	1.054678E+0	1.110992E+0	1.080364E+0	1.092911E+0	1.090619E+0	1.061267E+0	1.094813E+0	1.125986E+0	1.113201E+0	1.095729E+0	1.067214E+0	1.096387E+0	1.107203E+0	1.086518E+0	1.121028E+0	1.112398E+0	1.129225E+0	1.074487E+0	1.144801E+0	1.086173E+0	1.101658E+0	1.064537E+0	1.085828E+0	1.126709E+0	1.084299E+0	1.095048E+0	1.082227E+0	1.084110E+0	1.116365E+0	1.163612E+0	1.062999E+0	1.099092E+0	1.090198E+0	1.092735E+0	1.114779E+0	1.071756E+0	1.091221E+0	1.112825E+0	1.054873E+0	1.137654E+0	1.107466E+0	1.121716E+0	1.104184E+0	1.078543E+0	1.086670E+0	1.095393E+0	1.086514E+0	1.104271E+0	1.084783E+0	1.068979E+0	1.041674E+0	1.098828E+0	1.115705E+0	1.110164E+0	1.031721E+0	1.156646E+0	1.095926E+0	1.088864E+0	1.085528E+0	1.108198E+0	1.111456E+0	1.098954E+0	1.081606E+0	1.080477E+0	1.041928E+0	1.130465E+0	1.023157E+0	1.091449E+0	1.108050E+0	1.094751E+0	1.102443E+0	1.125500E+0	1.111672E+0	1.109469E+0	1.064010E+0	1.075400E+0	1.130650E+0	1.078720E+0	1.060375E+0	1.076587E+0	1.071746E+0	1.074411E+0	1.083354E+0	1.079155E+0	1.123698E+0	1.115632E+0	1.081185E+0	1.066176E+0	1.059452E+0	1.068066E+0	1.071947E+0	1.064100E+0	1.086207E+0	1.084564E+0	1.104506E+0	1.072273E+0	1.098856E+0	1.076298E+0	1.103455E+0	1.103741E+0	1.095311E+0	1.083118E+0	1.098943E+0	1.128062E+0	1.082093E+0	1.110830E+0	1.109424E+0	1.055786E+0	1.117702E+0	1.141692E+0	1.063034E+0	1.101765E+0	1.098956E+0	1.057136E+0	1.079828E+0	1.042071E+0	1.114496E+0	1.073926E+0	1.092619E+0	1.115414E+0	1.128590E+0	1.085331E+0	1.054108E+0	1.166179E+0	1.103417E+0	1.086450E+0	1.056856E+0	1.049507E+0	1.097487E+0	1.096508E+0	1.067743E+0	1.103011E+0	1.061000E+0	1.091032E+0	1.086082E+0	1.048007E+0	1.136341E+0	1.058229E+0	1.071772E+0	1.123858E+0	1.114230E+0	1.060745E+0	1.093370E+0	1.137987E+0	1.076453E+0	1.065385E+0	1.098575E+0	1.079942E+0	1.064031E+0	1.087277E+0	1.088466E+0	1.084905E+0	1.043322E+0	1.065823E+0	1.078830E+0	1.063065E+0	1.089501E+0	1.091867E+0	1.085331E+0	1.090735E+0	1.148297E+0
5.432960E+2	1.253035E+0	1.243043E+0	1.237621E+0	1.208906E+0	1.240400E+0	1.208923E+0	1.192998E+0	1.219112E+0	1.201399E+0	1.239034E+0	1.262746E+0	1.253043E+0	1.254320E+0	1.247042E+0	1.221710E+0	1.259152E+0	1.257604E+0	1.243792E+0	1.258664E+0	1.235733E+0	1.287914E+0	1.236269E+0	1.218472E+0	1.313543E+0	1.260734E+0	1.280271E+0	1.265376E+0	1.249348E+0	1.259479E+0	1.235571E+0	1.228175E+0	1.208817E+0	1.267421E+0	1.266271E+0	1.249260E+0	1.279460E+0	1.282011E+0	1.286470E+0	1.264007E+0	1.281253E+0	1.267001E+0	1.250091E+0	1.212019E+0	1.218420E+0	1.282968E+0	1.262042E+0	1.240607E+0	1.270701E+0	1.294999E+0	1.256599E+0	1.260482E+0	1.267642E+0	1.223991E+0	1.242337E+0	1.231223E+0	1.198937E+0	1.267490E+0	1.262830E+0	1.235188E+0	1.227371E+0	1.263312E+0	1.215393E+0	1.261493E+0	1.269902E+0	1.255021E+0	1.256305E+0	1.228070E+0	1.221097E+0	1.293547E+0	1.258497E+0	1.261297E+0	1.222249E+0	1.224856E+0	1.252121E+0	1.248700E+0	1.264139E+0	1.200671E+0	1.257991E+0	1.260705E+0	1.227138E+0	1.287055E+0	1.276538E+0	1.268397E+0	1.225996E+0	1.245731E+0	1.221086E+0	1.256787E+0	1.287466E+0	1.265913E+0	1.204270E+0	1.197007E+0	1.219514E+0	1.271132E+0	1.246077E+0	1.245424E+0	1.255276E+0	1.248636E+0	1.271107E+0	1.225482E+0	1.229081E+0	1.266522E+0	1.281278E+0	1.279324E+0	1.244285E+0	1.203902E+0	1.237286E+0	1.244628E+0	1.228336E+0	1.218601E+0	1.235028E+0	1.239764E+0	1.242202E+0	1.247681E+0	1.260567E+0	1.226493E+0	1.225389E+0	1.272901E+0	1.268568E+0	1.280032E+0	1.208177E+0	1.271961E+0	1.220942E+0	1.246017E+0	1.203659E+0	1.289618E+0	1.233064E+0	1.266302E+0	1.232176E+0	1.297281E+0	1.257745E+0	1.262916E+0	1.197840E+0	1.238945E+0	1.262764E+0	1.276586E+0	1.230383E+0	1.238565E+0	1.213599E+0	1.269992E+0	1.232133E+0	1.233407E+0	1.261385E+0	1.252196E+0	1.197820E+0	1.282470E+0	1.253589E+0	1.235615E+0	1.219405E+0	1.225181E+0	1.267452E+0	1.261884E+0	1.249339E+0	1.285544E+0	1.239599E+0	1.246913E+0	1.246575E+0	1.257296E+0	1.267134E+0	1.262422E+0	1.250367E+0	1.219589E+0	1.243190E+0	1.270786E+0	1.211966E+0	1.241488E+0	1.227729E+0	1.234523E+0	1.243961E+0	1.230882E+0	1.208267E+0
5.435330E+2	1.382572E+0	1.416793E+0	1.402776E+0	1.385551E+0	1.370069E+0	1.398229E+0	1.395459E+0	1.433496E+0	1.445326E+0	1.440393E+0	1.475256E+0	1.448624E+0	1.421356E+0	1.420460E+0	1.375561E+0	1.425044E+0	1.395903E+0	1.457943E+0	1.429265E+0	1.402599E+0	1.450614E+0	1.385380E+0	1.429292E+0	1.414876E+0	1.379078E+0	1.410306E+0	1.352701E+0	1.428662E+0	1.447160E+0	1.399703E+0	1.369680E+0	1.344242E+0	1.424434E+0	1.402597E+0	1.373637E+0	1.394897E+0	1.407375E+0	1.409812E+0	1.433535E+0	1.423197E+0	1.398767E+0	1.466447E+0	1.358284E+0	1.440626E+0	1.432938E+0	1.422998E+0	1.399380E+0	1.341915E+0	1.432844E+0	1.438654E+0	1.413726E+0	1.354999E+0	1.392150E+0	1.420950E+0	1.443049E+0	1.381627E+0	1.433758E+0	1.412100E+0	1.433968E+0	1.413826E+0	1.403596E+0	1.380261E+0	1.419747E+0	1.355835E+0	1.376509E+0	1.395677E+0	1.343975E+0	1.399376E+0	1.416875E+0	1.388576E+0	1.398470E+0	1.435110E+0	1.347551E+0	1.437951E+0	1.368578E+0	1.385274E+0	1.347276E+0	1.401266E+0	1.377235E+0	1.423601E+0	1.416067E+0	1.419346E+0	1.428351E+0	1.438380E+0	1.383901E+0	1.372296E+0	1.355420E+0	1.424533E+0	1.432554E+0	1.385096E+0	1.403815E+0	1.394181E+0	1.405529E+0	1.421317E+0	1.347018E+0	1.392973E+0	1.423100E+0	1.440902E+0	1.425368E+0	1.367647E+0	1.393875E+0	1.418563E+0	1.434351E+0	1.394381E+0	1.381203E+0	1.357187E+0	1.392417E+0	1.379047E+0	1.377724E+0	1.385506E+0	1.407270E+0	1.405413E+0	1.400884E+0	1.415442E+0	1.387003E+0	1.398358E+0	1.425679E+0	1.422950E+0	1.400042E+0	1.380251E+0	1.388395E+0	1.367003E+0	1.380823E+0	1.415824E+0	1.409096E+0	1.434470E+0	1.434428E+0	1.398839E+0	1.400347E+0	1.415734E+0	1.395117E+0	1.380497E+0	1.390567E+0	1.387097E+0	1.386581E+0	1.345157E+0	1.429352E+0	1.393194E+0	1.370967E+0	1.371410E+0	1.386091E+0	1.380196E+0	1.400530E+0	1.388769E+0	1.369007E+0	1.388069E+0	1.446277E+0	1.365554E+0	1.372204E+0	1.370969E+0	1.368572E+0	1.373446E+0	1.373140E+0	1.383682E+0	1.368495E+0	1.368681E+0	1.397621E+0	1.385176E+0	1.386479E+0	1.381581E+0	1.420312E+0	1.365122E+0	1.383817E+0	1.442407E+0	1.368446E+0	1.423280E+0	1.328846E+0	1.468235E+0	1.327835E+0	1.509848E+0
5.437640E+2	1.509658E+0	1.527990E+0	1.553170E+0	1.562346E+0	1.478489E+0	1.560436E+0	1.479517E+0	1.496966E+0	1.505800E+0	1.525646E+0	1.583076E+0	1.580885E+0	1.497436E+0	1.481672E+0	1.459956E+0	1.482077E+0	1.516783E+0	1.547671E+0	1.526067E+0	1.602411E+0	1.527855E+0	1.517268E+0	1.562257E+0	1.552654E+0	1.504344E+0	1.557611E+0	1.495222E+0	1.561478E+0	1.533275E+0	1.461932E+0	1.494104E+0	1.517128E+0	1.508828E+0	1.516806E+0	1.538195E+0	1.514537E+0	1.536219E+0	1.585446E+0	1.544547E+0	1.491286E+0	1.493496E+0	1.533593E+0	1.483218E+0	1.503987E+0	1.510721E+0	1.528059E+0	1.519659E+0	1.489276E+0	1.527660E+0	1.594285E+0	1.496592E+0	1.485268E+0	1.561977E+0	1.514405E+0	1.491687E+0	1.565810E+0	1.542701E+0	1.528300E+0	1.506814E+0	1.479976E+0	1.484290E+0	1.524944E+0	1.548819E+0	1.442839E+0	1.539191E+0	1.528266E+0	1.464320E+0	1.474725E+0	1.513349E+0	1.588866E+0	1.514077E+0	1.510556E+0	1.554109E+0	1.531111E+0	1.523460E+0	1.453872E+0	1.515301E+0	1.532957E+0	1.549997E+0	1.506786E+0	1.527030E+0	1.540801E+0	1.535470E+0	1.511271E+0	1.479526E+0	1.492152E+0	1.497594E+0	1.533809E+0	1.485014E+0	1.514188E+0	1.508602E+0	1.487796E+0	1.487236E+0	1.513168E+0	1.537847E+0	1.508911E+0	1.556482E+0	1.546485E+0	1.533762E+0	1.490147E+0	1.516373E+0	1.488525E+0	1.485937E+0	1.484420E+0	1.511913E+0	1.424364E+0	1.463514E+0	1.476984E+0	1.477603E+0	1.557985E+0	1.527149E+0	1.536694E+0	1.569034E+0	1.494624E+0	1.540851E+0	1.511411E+0	1.528746E+0	1.569985E+0	1.515337E+0	1.458242E+0	1.454917E+0	1.491380E+0	1.435260E+0	1.464545E+0	1.495091E+0	1.497460E+0	1.500895E+0	1.477129E+0	1.528006E+0	1.567221E+0	1.499243E+0	1.479277E+0	1.509277E+0	1.454304E+0	1.498044E+0	1.453927E+0	1.538617E+0	1.490988E+0	1.530260E+0	1.474073E+0	1.474042E+0	1.466299E+0	1.489474E+0	1.495961E+0	1.481624E+0	1.472798E+0	1.511261E+0	1.452856E+0	1.521309E+0	1.487547E+0	1.497746E+0	1.475245E+0	1.517268E+0	1.503660E+0	1.497656E+0	1.511210E+0	1.483939E+0	1.481598E+0	1.446885E+0	1.536458E+0	1.429683E+0	1.464163E+0	1.483726E+0	1.476169E+0	1.465024E+0	1.482133E+0	1.470296E+0	1.513329E+0	1.447690E+0	1.543354E+0
5.440120E+2	1.575949E+0	1.599365E+0	1.645938E+0	1.572725E+0	1.577277E+0	1.625170E+0	1.589743E+0	1.622261E+0	1.551918E+0	1.559657E+0	1.586499E+0	1.586952E+0	1.611491E+0	1.559526E+0	1.568801E+0	1.580285E+0	1.601716E+0	1.558875E+0	1.551843E+0	1.533162E+0	1.544282E+0	1.635044E+0	1.542144E+0	1.597779E+0	1.500964E+0	1.620337E+0	1.542048E+0	1.692328E+0	1.548851E+0	1.583298E+0	1.552787E+0	1.541483E+0	1.572289E+0	1.617880E+0	1.591411E+0	1.564934E+0	1.617801E+0	1.609186E+0	1.610126E+0	1.581112E+0	1.577728E+0	1.544369E+0	1.579028E+0	1.582137E+0	1.565480E+0	1.580680E+0	1.607311E+0	1.581144E+0	1.524345E+0	1.647530E+0	1.577160E+0	1.547742E+0	1.519003E+0	1.608809E+0	1.623701E+0	1.570028E+0	1.558926E+0	1.594093E+0	1.549197E+0	1.565656E+0	1.588620E+0	1.594746E+0	1.583441E+0	1.534394E+0	1.553171E+0	1.573521E+0	1.620886E+0	1.583996E+0	1.608222E+0	1.572364E+0	1.601568E+0	1.559261E+0	1.573017E+0	1.528742E+0	1.487787E+0	1.627698E+0	1.517886E+0	1.531998E+0	1.526892E+0	1.531237E+0	1.590597E+0	1.520318E+0	1.555707E+0	1.542482E+0	1.569314E+0	1.595055E+0	1.534047E+0	1.619303E+0	1.611264E+0	1.574752E+0	1.541823E+0	1.572714E+0	1.544566E+0	1.577639E+0	1.620236E+0	1.595017E+0	1.634923E+0	1.591028E+0	1.598349E+0	1.541975E+0	1.671338E+0	1.574305E+0	1.578902E+0	1.572680E+0	1.550741E+0	1.557487E+0	1.512347E+0	1.578461E+0	1.526532E+0	1.581348E+0	1.583965E+0	1.550203E+0	1.561777E+0	1.601327E+0	1.528383E+0	1.639729E+0	1.578651E+0	1.550340E+0	1.581131E+0	1.546183E+0	1.581783E+0	1.555612E+0	1.536779E+0	1.589335E+0	1.520181E+0	1.544540E+0	1.562262E+0	1.569668E+0	1.548119E+0	1.568002E+0	1.548479E+0	1.556024E+0	1.528262E+0	1.553435E+0	1.564662E+0	1.503552E+0	1.601517E+0	1.615075E+0	1.559216E+0	1.522684E+0	1.592761E+0	1.508879E+0	1.568139E+0	1.600181E+0	1.561465E+0	1.576525E+0	1.494290E+0	1.541453E+0	1.583689E+0	1.580927E+0	1.523842E+0	1.590198E+0	1.568311E+0	1.547804E+0	1.531295E+0	1.540202E+0	1.570224E+0	1.544766E+0	1.563750E+0	1.499675E+0	1.612418E+0	1.570969E+0	1.515369E+0	1.520287E+0	1.518557E+0	1.500803E+0	1.563997E+0	1.512967E+0	1.444419E+0	1.610298E+0
5.442650E+2	1.563705E+0	1.627644E+0	1.572894E+0	1.546171E+0	1.561210E+0	1.623502E+0	1.552866E+0	1.556638E+0	1.560074E+0	1.551862E+0	1.617507E+0	1.577524E+0	1.593214E+0	1.569839E+0	1.516355E+0	1.549733E+0	1.567622E+0	1.608124E+0	1.542765E+0	1.609468E+0	1.585407E+0	1.572551E+0	1.543792E+0	1.554232E+0	1.558262E+0	1.569195E+0	1.528705E+0	1.566292E+0	1.546578E+0	1.588931E+0	1.545526E+0	1.530548E+0	1.525421E+0	1.553403E+0	1.528645E+0	1.579517E+0	1.538386E+0	1.608977E+0	1.609205E+0	1.540849E+0	1.558505E+0	1.545829E+0	1.505850E+0	1.575167E+0	1.501269E+0	1.589326E+0	1.577193E+0	1.563001E+0	1.551952E+0	1.569236E+0	1.581623E+0	1.597978E+0	1.523603E+0	1.607519E+0	1.597205E+0	1.555605E+0	1.536880E+0	1.597448E+0	1.569078E+0	1.512835E+0	1.620036E+0	1.557583E+0	1.544274E+0	1.621591E+0	1.579038E+0	1.537301E+0	1.582097E+0	1.579687E+0	1.568095E+0	1.592008E+0	1.541685E+0	1.607700E+0	1.552185E+0	1.605093E+0	1.555540E+0	1.555100E+0	1.515913E+0	1.544805E+0	1.540362E+0	1.572843E+0	1.531491E+0	1.532628E+0	1.589158E+0	1.560500E+0	1.510301E+0	1.625983E+0	1.538005E+0	1.624569E+0	1.568975E+0	1.582034E+0	1.556587E+0	1.536578E+0	1.592664E+0	1.537499E+0	1.576157E+0	1.548696E+0	1.607327E+0	1.582030E+0	1.543055E+0	1.585030E+0	1.576061E+0	1.538782E+0	1.554850E+0	1.564404E+0	1.504226E+0	1.523500E+0	1.530892E+0	1.547482E+0	1.515593E+0	1.549618E+0	1.503561E+0	1.524032E+0	1.526873E+0	1.564509E+0	1.551236E+0	1.533674E+0	1.528318E+0	1.494937E+0	1.554269E+0	1.583774E+0	1.525932E+0	1.539252E+0	1.546874E+0	1.526878E+0	1.560855E+0	1.577265E+0	1.562252E+0	1.525946E+0	1.584199E+0	1.570360E+0	1.507932E+0	1.525106E+0	1.596721E+0	1.510479E+0	1.537026E+0	1.514520E+0	1.560854E+0	1.504312E+0	1.516185E+0	1.535028E+0	1.526085E+0	1.529287E+0	1.551433E+0	1.587095E+0	1.519772E+0	1.548646E+0	1.530068E+0	1.502695E+0	1.536545E+0	1.556723E+0	1.566975E+0	1.524162E+0	1.580937E+0	1.521840E+0	1.561465E+0	1.551642E+0	1.551914E+0	1.539131E+0	1.519604E+0	1.520053E+0	1.524075E+0	1.599218E+0	1.575786E+0	1.478968E+0	1.547346E+0	1.548995E+0	1.564099E+0	1.497419E+0	1.483108E+0	1.519063E+0
5.445290E+2	1.523684E+0	1.455207E+0	1.555948E+0	1.525312E+0	1.445013E+0	1.521474E+0	1.508457E+0	1.525410E+0	1.543433E+0	1.479623E+0	1.524910E+0	1.557458E+0	1.496954E+0	1.517076E+0	1.486772E+0	1.524439E+0	1.476367E+0	1.569888E+0	1.486984E+0	1.488829E+0	1.529782E+0	1.525360E+0	1.523356E+0	1.530616E+0	1.490445E+0	1.494941E+0	1.554848E+0	1.526448E+0	1.449461E+0	1.495383E+0	1.492179E+0	1.481997E+0	1.488683E+0	1.504511E+0	1.487346E+0	1.441135E+0	1.487107E+0	1.562776E+0	1.524891E+0	1.534172E+0	1.467352E+0	1.521353E+0	1.477605E+0	1.513893E+0	1.408771E+0	1.500266E+0	1.478698E+0	1.444429E+0	1.484684E+0	1.525901E+0	1.447219E+0	1.599862E+0	1.432229E+0	1.567429E+0	1.537157E+0	1.482878E+0	1.505172E+0	1.570414E+0	1.516996E+0	1.486779E+0	1.497535E+0	1.551170E+0	1.522601E+0	1.499548E+0	1.496898E+0	1.529392E+0	1.488307E+0	1.505971E+0	1.472045E+0	1.509112E+0	1.450857E+0	1.471312E+0	1.504585E+0	1.517420E+0	1.507119E+0	1.476589E+0	1.474869E+0	1.490817E+0	1.489644E+0	1.497551E+0	1.471530E+0	1.491479E+0	1.550174E+0	1.464982E+0	1.499056E+0	1.507861E+0	1.555789E+0	1.511955E+0	1.498338E+0	1.496739E+0	1.475866E+0	1.491690E+0	1.512996E+0	1.496369E+0	1.479612E+0	1.462756E+0	1.475696E+0	1.526850E+0	1.526620E+0	1.522438E+0	1.516647E+0	1.483670E+0	1.520038E+0	1.481111E+0	1.448299E+0	1.482277E+0	1.525577E+0	1.498527E+0	1.507434E+0	1.453188E+0	1.516192E+0	1.512938E+0	1.537945E+0	1.546936E+0	1.509248E+0	1.513053E+0	1.476868E+0	1.490562E+0	1.490238E+0	1.451831E+0	1.490679E+0	1.471161E+0	1.476984E+0	1.473005E+0	1.411239E+0	1.498928E+0	1.490884E+0	1.472697E+0	1.467946E+0	1.508594E+0	1.478011E+0	1.441257E+0	1.462795E+0	1.442664E+0	1.522605E+0	1.522355E+0	1.477495E+0	1.528272E+0	1.526675E+0	1.491811E+0	1.485413E+0	1.481789E+0	1.536219E+0	1.468603E+0	1.439406E+0	1.485675E+0	1.488659E+0	1.493726E+0	1.496610E+0	1.456573E+0	1.496469E+0	1.504522E+0	1.517957E+0	1.482798E+0	1.509520E+0	1.457072E+0	1.458274E+0	1.479437E+0	1.465089E+0	1.475264E+0	1.465980E+0	1.507909E+0	1.430913E+0	1.434290E+0	1.461615E+0	1.444465E+0	1.518274E+0	1.476218E+0	1.411783E+0	1.468568E+0
5.447720E+2	1.432206E+0	1.447190E+0	1.465626E+0	1.480358E+0	1.459963E+0	1.483437E+0	1.425447E+0	1.391165E+0	1.486669E+0	1.455179E+0	1.475353E+0	1.474362E+0	1.424499E+0	1.437582E+0	1.447574E+0	1.427837E+0	1.470624E+0	1.458498E+0	1.468991E+0	1.454889E+0	1.469875E+0	1.436398E+0	1.467017E+0	1.462184E+0	1.412834E+0	1.416105E+0	1.408060E+0	1.511011E+0	1.461666E+0	1.452053E+0	1.471187E+0	1.412742E+0	1.451652E+0	1.466007E+0	1.468979E+0	1.409924E+0	1.457154E+0	1.431611E+0	1.470463E+0	1.490222E+0	1.452409E+0	1.434997E+0	1.453986E+0	1.431971E+0	1.398221E+0	1.405785E+0	1.470794E+0	1.448229E+0	1.453722E+0	1.507512E+0	1.409262E+0	1.444554E+0	1.394676E+0	1.439595E+0	1.494064E+0	1.428811E+0	1.430083E+0	1.434869E+0	1.500604E+0	1.435558E+0	1.454159E+0	1.445503E+0	1.459198E+0	1.412759E+0	1.456728E+0	1.460650E+0	1.456077E+0	1.405098E+0	1.428282E+0	1.461262E+0	1.435762E+0	1.427741E+0	1.395249E+0	1.455663E+0	1.437855E+0	1.453872E+0	1.430429E+0	1.435880E+0	1.410181E+0	1.430358E+0	1.444974E+0	1.446590E+0	1.482452E+0	1.400529E+0	1.453215E+0	1.447109E+0	1.433546E+0	1.475368E+0	1.410673E+0	1.434945E+0	1.428211E+0	1.432860E+0	1.435813E+0	1.417075E+0	1.448770E+0	1.444257E+0	1.446543E+0	1.516640E+0	1.435479E+0	1.440314E+0	1.415201E+0	1.465827E+0	1.445716E+0	1.445439E+0	1.424017E+0	1.462225E+0	1.405755E+0	1.428961E+0	1.428134E+0	1.407057E+0	1.427348E+0	1.383367E+0	1.463498E+0	1.477782E+0	1.445816E+0	1.478229E+0	1.410764E+0	1.432825E+0	1.474082E+0	1.466413E+0	1.453487E+0	1.439591E+0	1.469260E+0	1.417416E+0	1.400638E+0	1.455476E+0	1.446807E+0	1.423997E+0	1.462698E+0	1.465939E+0	1.516998E+0	1.440767E+0	1.434666E+0	1.435349E+0	1.435265E+0	1.444474E+0	1.406103E+0	1.428029E+0	1.433854E+0	1.456977E+0	1.418320E+0	1.448456E+0	1.507910E+0	1.422367E+0	1.459238E+0	1.455666E+0	1.453902E+0	1.436696E+0	1.377940E+0	1.467709E+0	1.410065E+0	1.458811E+0	1.444029E+0	1.436228E+0	1.397333E+0	1.398870E+0	1.383530E+0	1.373435E+0	1.421647E+0	1.461642E+0	1.414078E+0	1.460943E+0	1.402010E+0	1.439126E+0	1.415808E+0	1.467673E+0	1.417845E+0	1.419812E+0	1.300973E+0	1.445837E+0
5.450200E+2	1.380420E+0	1.374686E+0	1.357888E+0	1.344694E+0	1.385873E+0	1.331623E+0	1.367951E+0	1.379798E+0	1.348093E+0	1.341267E+0	1.401316E+0	1.341709E+0	1.418214E+0	1.356298E+0	1.343856E+0	1.372894E+0	1.415386E+0	1.403623E+0	1.401969E+0	1.345089E+0	1.390499E+0	1.402413E+0	1.359600E+0	1.421300E+0	1.342442E+0	1.407116E+0	1.365275E+0	1.391059E+0	1.386592E+0	1.334272E+0	1.335856E+0	1.349130E+0	1.413422E+0	1.344895E+0	1.344504E+0	1.364767E+0	1.349297E+0	1.409316E+0	1.383058E+0	1.379217E+0	1.342437E+0	1.412327E+0	1.372383E+0	1.333267E+0	1.315289E+0	1.373265E+0	1.392177E+0	1.334566E+0	1.420914E+0	1.404964E+0	1.337848E+0	1.380429E+0	1.331575E+0	1.382168E+0	1.328464E+0	1.410278E+0	1.421844E+0	1.365144E+0	1.340115E+0	1.381540E+0	1.361424E+0	1.376771E+0	1.379532E+0	1.389202E+0	1.393785E+0	1.346442E+0	1.421611E+0	1.392613E+0	1.364586E+0	1.376204E+0	1.346169E+0	1.379346E+0	1.341490E+0	1.454776E+0	1.370440E+0	1.351541E+0	1.325278E+0	1.387549E+0	1.360878E+0	1.345101E+0	1.382734E+0	1.414977E+0	1.357927E+0	1.358832E+0	1.355281E+0	1.357272E+0	1.359628E+0	1.426754E+0	1.356830E+0	1.398026E+0	1.330037E+0	1.376134E+0	1.340435E+0	1.383188E+0	1.371385E+0	1.370588E+0	1.359665E+0	1.421179E+0	1.303843E+0	1.345687E+0	1.435695E+0	1.335388E+0	1.413511E+0	1.416585E+0	1.335321E+0	1.319787E+0	1.369789E+0	1.321203E+0	1.311684E+0	1.371936E+0	1.385050E+0	1.349211E+0	1.358757E+0	1.398257E+0	1.366059E+0	1.376259E+0	1.334382E+0	1.334062E+0	1.380645E+0	1.375498E+0	1.342356E+0	1.343330E+0	1.388951E+0	1.326058E+0	1.310665E+0	1.372480E+0	1.378582E+0	1.326060E+0	1.366425E+0	1.408312E+0	1.387068E+0	1.372386E+0	1.363379E+0	1.389456E+0	1.337688E+0	1.329928E+0	1.374025E+0	1.395721E+0	1.392335E+0	1.367886E+0	1.266688E+0	1.378361E+0	1.362328E+0	1.384230E+0	1.330335E+0	1.335916E+0	1.409447E+0	1.336205E+0	1.354683E+0	1.401275E+0	1.290031E+0	1.345840E+0	1.371898E+0	1.333212E+0	1.368953E+0	1.370476E+0	1.366517E+0	1.328603E+0	1.288974E+0	1.375014E+0	1.380385E+0	1.368422E+0	1.367759E+0	1.349733E+0	1.335510E+0	1.345707E+0	1.399422E+0	1.395086E+0	1.311310E+0	1.245893E+0
5.452690E+2	1.339869E+0	1.368154E+0	1.307265E+0	1.297183E+0	1.252323E+0	1.316111E+0	1.316110E+0	1.313264E+0	1.271942E+0	1.252557E+0	1.377613E+0	1.309080E+0	1.307473E+0	1.333390E+0	1.278579E+0	1.312284E+0	1.267174E+0	1.347733E+0	1.312887E+0	1.275263E+0	1.257537E+0	1.367170E+0	1.329378E+0	1.375035E+0	1.254042E+0	1.322846E+0	1.296695E+0	1.344713E+0	1.336454E+0	1.306319E+0	1.292570E+0	1.311155E+0	1.304739E+0	1.309416E+0	1.302198E+0	1.307250E+0	1.282736E+0	1.330121E+0	1.316628E+0	1.322884E+0	1.314474E+0	1.309247E+0	1.255455E+0	1.340224E+0	1.315206E+0	1.321106E+0	1.328690E+0	1.284223E+0	1.359702E+0	1.317738E+0	1.329250E+0	1.282315E+0	1.263409E+0	1.272378E+0	1.351706E+0	1.276116E+0	1.324915E+0	1.342454E+0	1.315669E+0	1.294764E+0	1.300257E+0	1.328204E+0	1.306641E+0	1.231855E+0	1.291353E+0	1.319734E+0	1.244868E+0	1.287957E+0	1.288136E+0	1.309928E+0	1.342431E+0	1.301445E+0	1.283359E+0	1.339453E+0	1.265394E+0	1.335853E+0	1.319045E+0	1.303042E+0	1.277371E+0	1.312648E+0	1.256448E+0	1.331932E+0	1.322425E+0	1.316459E+0	1.262163E+0	1.316849E+0	1.265420E+0	1.287442E+0	1.322680E+0	1.212467E+0	1.294078E+0	1.306030E+0	1.247512E+0	1.304283E+0	1.329561E+0	1.281597E+0	1.258725E+0	1.311037E+0	1.263159E+0	1.316094E+0	1.270886E+0	1.353810E+0	1.251805E+0	1.310646E+0	1.253064E+0	1.309321E+0	1.250627E+0	1.257460E+0	1.303452E+0	1.328401E+0	1.305593E+0	1.234613E+0	1.272271E+0	1.291402E+0	1.316509E+0	1.290587E+0	1.249182E+0	1.395251E+0	1.333504E+0	1.269662E+0	1.305664E+0	1.235914E+0	1.285815E+0	1.340225E+0	1.259013E+0	1.362635E+0	1.311418E+0	1.278682E+0	1.298859E+0	1.341509E+0	1.391754E+0	1.213235E+0	1.284969E+0	1.334132E+0	1.292149E+0	1.322227E+0	1.252500E+0	1.330695E+0	1.320830E+0	1.327820E+0	1.262984E+0	1.285447E+0	1.286282E+0	1.285818E+0	1.202485E+0	1.329639E+0	1.324813E+0	1.228226E+0	1.292937E+0	1.315058E+0	1.271591E+0	1.307579E+0	1.246275E+0	1.283417E+0	1.278393E+0	1.348203E+0	1.281016E+0	1.263764E+0	1.294462E+0	1.301814E+0	1.276492E+0	1.319319E+0	1.283828E+0	1.322252E+0	1.320570E+0	1.306593E+0	1.283441E+0	1.332150E+0	1.295715E+0	1.348295E+0
5.455450E+2	1.279906E+0	1.181657E+0	1.237316E+0	1.202345E+0	1.238572E+0	1.176831E+0	1.252265E+0	1.225454E+0	1.240418E+0	1.182712E+0	1.218872E+0	1.267685E+0	1.199216E+0	1.241555E+0	1.202458E+0	1.213052E+0	1.191788E+0	1.221515E+0	1.255877E+0	1.266360E+0	1.236221E+0	1.196288E+0	1.208320E+0	1.279384E+0	1.244993E+0	1.278648E+0	1.234431E+0	1.268612E+0	1.221465E+0	1.240070E+0	1.210851E+0	1.238614E+0	1.275752E+0	1.204915E+0	1.260726E+0	1.215353E+0	1.218487E+0	1.254564E+0	1.255563E+0	1.212531E+0	1.248713E+0	1.259533E+0	1.223644E+0	1.217265E+0	1.196627E+0	1.286412E+0	1.265339E+0	1.205690E+0	1.216021E+0	1.237612E+0	1.230665E+0	1.183056E+0	1.255463E+0	1.253692E+0	1.261382E+0	1.218745E+0	1.215385E+0	1.247452E+0	1.300119E+0	1.183283E+0	1.239460E+0	1.220843E+0	1.241180E+0	1.221051E+0	1.220179E+0	1.239694E+0	1.247020E+0	1.251251E+0	1.252889E+0	1.233314E+0	1.217915E+0	1.243551E+0	1.194721E+0	1.219439E+0	1.186905E+0	1.234384E+0	1.206384E+0	1.223446E+0	1.215423E+0	1.225942E+0	1.227964E+0	1.204200E+0	1.249919E+0	1.234840E+0	1.198749E+0	1.244983E+0	1.273632E+0	1.266806E+0	1.208369E+0	1.229321E+0	1.201713E+0	1.217518E+0	1.206421E+0	1.259180E+0	1.212217E+0	1.200487E+0	1.229152E+0	1.272619E+0	1.228205E+0	1.273015E+0	1.232125E+0	1.291367E+0	1.201496E+0	1.232158E+0	1.220929E+0	1.201263E+0	1.258875E+0	1.201972E+0	1.213154E+0	1.218385E+0	1.230362E+0	1.202423E+0	1.215580E+0	1.227837E+0	1.254270E+0	1.231085E+0	1.248165E+0	1.230246E+0	1.279593E+0	1.237573E+0	1.197784E+0	1.224858E+0	1.212886E+0	1.217883E+0	1.202825E+0	1.232113E+0	1.248502E+0	1.245196E+0	1.215526E+0	1.312691E+0	1.239166E+0	1.185396E+0	1.240249E+0	1.204632E+0	1.265117E+0	1.261440E+0	1.227551E+0	1.239059E+0	1.172902E+0	1.234254E+0	1.182461E+0	1.242705E+0	1.259896E+0	1.219321E+0	1.197143E+0	1.238722E+0	1.247290E+0	1.206147E+0	1.233126E+0	1.291853E+0	1.214432E+0	1.258654E+0	1.243831E+0	1.238779E+0	1.276886E+0	1.232287E+0	1.232044E+0	1.237131E+0	1.206307E+0	1.220557E+0	1.201216E+0	1.210265E+0	1.267244E+0	1.222698E+0	1.222723E+0	1.284614E+0	1.246261E+0	1.209340E+0	1.185989E+0	1.139824E+0
5.457890E+2	1.137891E+0	1.146443E+0	1.247814E+0	1.169731E+0	1.180513E+0	1.173960E+0	1.202686E+0	1.203462E+0	1.180287E+0	1.176803E+0	1.196712E+0	1.176908E+0	1.186269E+0	1.186085E+0	1.174734E+0	1.166106E+0	1.151619E+0	1.209350E+0	1.236911E+0	1.183947E+0	1.118523E+0	1.163452E+0	1.170343E+0	1.199681E+0	1.130539E+0	1.128670E+0	1.164805E+0	1.246573E+0	1.151676E+0	1.160347E+0	1.169194E+0	1.145258E+0	1.249384E+0	1.149698E+0	1.207162E+0	1.201022E+0	1.180098E+0	1.184288E+0	1.169089E+0	1.147354E+0	1.220068E+0	1.171433E+0	1.201568E+0	1.155773E+0	1.180820E+0	1.167280E+0	1.190191E+0	1.163312E+0	1.184287E+0	1.158971E+0	1.160763E+0	1.183672E+0	1.119393E+0	1.198223E+0	1.193028E+0	1.171700E+0	1.157509E+0	1.182300E+0	1.205605E+0	1.129003E+0	1.142398E+0	1.165701E+0	1.187582E+0	1.181739E+0	1.201820E+0	1.162497E+0	1.172723E+0	1.164460E+0	1.176333E+0	1.180201E+0	1.177555E+0	1.181512E+0	1.174434E+0	1.184661E+0	1.140475E+0	1.151979E+0	1.179801E+0	1.161601E+0	1.163314E+0	1.140151E+0	1.115880E+0	1.181223E+0	1.211183E+0	1.181309E+0	1.196578E+0	1.183059E+0	1.160530E+0	1.189196E+0	1.121845E+0	1.192272E+0	1.151602E+0	1.138481E+0	1.213477E+0	1.165725E+0	1.142033E+0	1.145506E+0	1.151195E+0	1.209715E+0	1.191236E+0	1.195453E+0	1.171435E+0	1.149145E+0	1.145243E+0	1.195445E+0	1.171196E+0	1.163820E+0	1.137432E+0	1.164972E+0	1.181214E+0	1.204511E+0	1.158364E+0	1.179822E+0	1.178056E+0	1.167728E+0	1.189124E+0	1.155759E+0	1.142872E+0	1.161077E+0	1.195723E+0	1.152451E+0	1.165966E+0	1.180773E+0	1.170041E+0	1.196550E+0	1.165785E+0	1.192027E+0	1.162993E+0	1.179722E+0	1.198895E+0	1.215036E+0	1.235964E+0	1.164720E+0	1.174617E+0	1.183000E+0	1.218908E+0	1.217061E+0	1.136382E+0	1.194666E+0	1.199250E+0	1.174586E+0	1.161823E+0	1.144987E+0	1.155060E+0	1.176691E+0	1.128272E+0	1.124091E+0	1.144294E+0	1.164095E+0	1.154279E+0	1.191104E+0	1.153420E+0	1.147436E+0	1.163401E+0	1.101591E+0	1.173780E+0	1.150535E+0	1.161314E+0	1.130264E+0	1.200411E+0	1.134755E+0	1.178364E+0	1.160914E+0	1.164121E+0	1.140896E+0	1.184476E+0	1.143582E+0	1.190602E+0	1.180734E+0	1.060980E+0	1.230100E+0
5.460110E+2	1.170442E+0	1.118433E+0	1.161909E+0	1.105303E+0	1.115277E+0	1.162240E+0	1.164822E+0	1.188965E+0	1.168640E+0	1.174979E+0	1.145392E+0	1.160845E+0	1.131694E+0	1.138382E+0	1.137020E+0	1.144970E+0	1.149933E+0	1.185911E+0	1.185876E+0	1.130143E+0	1.118288E+0	1.109433E+0	1.150279E+0	1.204541E+0	1.160609E+0	1.179584E+0	1.159666E+0	1.196304E+0	1.160334E+0	1.145548E+0	1.100744E+0	1.129602E+0	1.150488E+0	1.101553E+0	1.104798E+0	1.135354E+0	1.152267E+0	1.136923E+0	1.171594E+0	1.176914E+0	1.129934E+0	1.151036E+0	1.140574E+0	1.160125E+0	1.155897E+0	1.139410E+0	1.125767E+0	1.131778E+0	1.169901E+0	1.142150E+0	1.132325E+0	1.112830E+0	1.155530E+0	1.236885E+0	1.144746E+0	1.187054E+0	1.141659E+0	1.173527E+0	1.157507E+0	1.120617E+0	1.196835E+0	1.131433E+0	1.160613E+0	1.185253E+0	1.098782E+0	1.157075E+0	1.168919E+0	1.161575E+0	1.114099E+0	1.155211E+0	1.115572E+0	1.082388E+0	1.144844E+0	1.152051E+0	1.178663E+0	1.140762E+0	1.134642E+0	1.144121E+0	1.119435E+0	1.144215E+0	1.133462E+0	1.170250E+0	1.125675E+0	1.137495E+0	1.097743E+0	1.144898E+0	1.156797E+0	1.163595E+0	1.184861E+0	1.180313E+0	1.111908E+0	1.145815E+0	1.127624E+0	1.135182E+0	1.121395E+0	1.112384E+0	1.162147E+0	1.148603E+0	1.103616E+0	1.157814E+0	1.139722E+0	1.109152E+0	1.131974E+0	1.128903E+0	1.099180E+0	1.103296E+0	1.178795E+0	1.144888E+0	1.114110E+0	1.165776E+0	1.130291E+0	1.118351E+0	1.133538E+0	1.229497E+0	1.157691E+0	1.127359E+0	1.127638E+0	1.171879E+0	1.134784E+0	1.072821E+0	1.138985E+0	1.114998E+0	1.125026E+0	1.140250E+0	1.080242E+0	1.152213E+0	1.114975E+0	1.128328E+0	1.134078E+0	1.175906E+0	1.101630E+0	1.159560E+0	1.137005E+0	1.143309E+0	1.143947E+0	1.168758E+0	1.136343E+0	1.145881E+0	1.144208E+0	1.165910E+0	1.117710E+0	1.147344E+0	1.138286E+0	1.112020E+0	1.102646E+0	1.163597E+0	1.113132E+0	1.120522E+0	1.126840E+0	1.183090E+0	1.135335E+0	1.183589E+0	1.161010E+0	1.136398E+0	1.117006E+0	1.130688E+0	1.123211E+0	1.164729E+0	1.118013E+0	1.157117E+0	1.148354E+0	1.166136E+0	1.143784E+0	1.107724E+0	1.138107E+0	1.131344E+0	1.138206E+0	1.175542E+0	1.144746E+0	1.121151E+0
5.467710E+2	1.240479E+0	1.199624E+0	1.241756E+0	1.208801E+0	1.187883E+0	1.236661E+0	1.284981E+0	1.212892E+0	1.164795E+0	1.246195E+0	1.238014E+0	1.212503E+0	1.229034E+0	1.229929E+0	1.194943E+0	1.231564E+0	1.222218E+0	1.201106E+0	1.201772E+0	1.202484E+0	1.218332E+0	1.216105E+0	1.275950E+0	1.277322E+0	1.202753E+0	1.222021E+0	1.184730E+0	1.252720E+0	1.208426E+0	1.211915E+0	1.231681E+0	1.197406E+0	1.257824E+0	1.189590E+0	1.218583E+0	1.210590E+0	1.209718E+0	1.220069E+0	1.248379E+0	1.264387E+0	1.249823E+0	1.194031E+0	1.198865E+0	1.230400E+0	1.213799E+0	1.223285E+0	1.251325E+0	1.223084E+0	1.264786E+0	1.241728E+0	1.253390E+0	1.230541E+0	1.220678E+0	1.236525E+0	1.279374E+0	1.232425E+0	1.248126E+0	1.216562E+0	1.229965E+0	1.231748E+0	1.176420E+0	1.194130E+0	1.234545E+0	1.201279E+0	1.266680E+0	1.232664E+0	1.220850E+0	1.225479E+0	1.223285E+0	1.229064E+0	1.247716E+0	1.251170E+0	1.197636E+0	1.237257E+0	1.218004E+0	1.245629E+0	1.221714E+0	1.275422E+0	1.236139E+0	1.214429E+0	1.216667E+0	1.223600E+0	1.256772E+0	1.235012E+0	1.230666E+0	1.201148E+0	1.227090E+0	1.221144E+0	1.201022E+0	1.254658E+0	1.206513E+0	1.268863E+0	1.241553E+0	1.202615E+0	1.235509E+0	1.230312E+0	1.256310E+0	1.214708E+0	1.228910E+0	1.222265E+0	1.221172E+0	1.192552E+0	1.215229E+0	1.245941E+0	1.191410E+0	1.148314E+0	1.199292E+0	1.203112E+0	1.209367E+0	1.148421E+0	1.254206E+0	1.242781E+0	1.253331E+0	1.214126E+0	1.231440E+0	1.248594E+0	1.181991E+0	1.194194E+0	1.188257E+0	1.236443E+0	1.215344E+0	1.189124E+0	1.176783E+0	1.240606E+0	1.229404E+0	1.282274E+0	1.214461E+0	1.205542E+0	1.235848E+0	1.170780E+0	1.233701E+0	1.201568E+0	1.229428E+0	1.217473E+0	1.213722E+0	1.242980E+0	1.218923E+0	1.228589E+0	1.247897E+0	1.243821E+0	1.191472E+0	1.168509E+0	1.202541E+0	1.187411E+0	1.173637E+0	1.192136E+0	1.222334E+0	1.212990E+0	1.241223E+0	1.232806E+0	1.208907E+0	1.240687E+0	1.260578E+0	1.254012E+0	1.211807E+0	1.241144E+0	1.197349E+0	1.190358E+0	1.221060E+0	1.228043E+0	1.209550E+0	1.236901E+0	1.231455E+0	1.218234E+0	1.227841E+0	1.222755E+0	1.239275E+0	1.188438E+0	1.223542E+0	1.245153E+0
5.475070E+2	1.362097E+0	1.376494E+0	1.335038E+0	1.378486E+0	1.336029E+0	1.370037E+0	1.376477E+0	1.351754E+0	1.311040E+0	1.376400E+0	1.391824E+0	1.359374E+0	1.350309E+0	1.334361E+0	1.318588E+0	1.334453E+0	1.345987E+0	1.333895E+0	1.354961E+0	1.362098E+0	1.358081E+0	1.348493E+0	1.388949E+0	1.393786E+0	1.342808E+0	1.414882E+0	1.393192E+0	1.377219E+0	1.354575E+0	1.336242E+0	1.357022E+0	1.376785E+0	1.337786E+0	1.325796E+0	1.380950E+0	1.371444E+0	1.353564E+0	1.382502E+0	1.419701E+0	1.336772E+0	1.384907E+0	1.348566E+0	1.329439E+0	1.360017E+0	1.332614E+0	1.385507E+0	1.373026E+0	1.345064E+0	1.353901E+0	1.327776E+0	1.327195E+0	1.393493E+0	1.367610E+0	1.365605E+0	1.351346E+0	1.324478E+0	1.315169E+0	1.344332E+0	1.355706E+0	1.343190E+0	1.324280E+0	1.324603E+0	1.402459E+0	1.321025E+0	1.350266E+0	1.377899E+0	1.390533E+0	1.366506E+0	1.359505E+0	1.323586E+0	1.348833E+0	1.355192E+0	1.285354E+0	1.366002E+0	1.320117E+0	1.357646E+0	1.333750E+0	1.396865E+0	1.391081E+0	1.338660E+0	1.344668E+0	1.367441E+0	1.388848E+0	1.350218E+0	1.304552E+0	1.332814E+0	1.385669E+0	1.377361E+0	1.352709E+0	1.344707E+0	1.306273E+0	1.329312E+0	1.372777E+0	1.324154E+0	1.368717E+0	1.345927E+0	1.347105E+0	1.373350E+0	1.328173E+0	1.372236E+0	1.381393E+0	1.355368E+0	1.394218E+0	1.382019E+0	1.356297E+0	1.323645E+0	1.331077E+0	1.329262E+0	1.340606E+0	1.362774E+0	1.359854E+0	1.284164E+0	1.355066E+0	1.378281E+0	1.330895E+0	1.320582E+0	1.319618E+0	1.369827E+0	1.380021E+0	1.342223E+0	1.279569E+0	1.350677E+0	1.325223E+0	1.328484E+0	1.399125E+0	1.325335E+0	1.341232E+0	1.300698E+0	1.419923E+0	1.346562E+0	1.393972E+0	1.349048E+0	1.332011E+0	1.302446E+0	1.389088E+0	1.392944E+0	1.314016E+0	1.323872E+0	1.364144E+0	1.376557E+0	1.339735E+0	1.352626E+0	1.362025E+0	1.345992E+0	1.323366E+0	1.329497E+0	1.392450E+0	1.311590E+0	1.340794E+0	1.331103E+0	1.328895E+0	1.300593E+0	1.330889E+0	1.262201E+0	1.343454E+0	1.319328E+0	1.330724E+0	1.370209E+0	1.356494E+0	1.344988E+0	1.316102E+0	1.312846E+0	1.401196E+0	1.374299E+0	1.356848E+0	1.342688E+0	1.344786E+0	1.353050E+0	1.282001E+0	1.375053E+0
5.482600E+2	1.426753E+0	1.479676E+0	1.472629E+0	1.434703E+0	1.452222E+0	1.442635E+0	1.477744E+0	1.447624E+0	1.489882E+0	1.444436E+0	1.478377E+0	1.432315E+0	1.451763E+0	1.453096E+0	1.416690E+0	1.367088E+0	1.400430E+0	1.483593E+0	1.451742E+0	1.425118E+0	1.380999E+0	1.491799E+0	1.470882E+0	1.526077E+0	1.421356E+0	1.442614E+0	1.381660E+0	1.455637E+0	1.401000E+0	1.467458E+0	1.401907E+0	1.420559E+0	1.434238E+0	1.452046E+0	1.402863E+0	1.433521E+0	1.452806E+0	1.437099E+0	1.415045E+0	1.458155E+0	1.485055E+0	1.414162E+0	1.388273E+0	1.441166E+0	1.413568E+0	1.428209E+0	1.449254E+0	1.432596E+0	1.480084E+0	1.446379E+0	1.464889E+0	1.477782E+0	1.401575E+0	1.431946E+0	1.502653E+0	1.395965E+0	1.444491E+0	1.432145E+0	1.461007E+0	1.444361E+0	1.392063E+0	1.422934E+0	1.443490E+0	1.469585E+0	1.411158E+0	1.432120E+0	1.458443E+0	1.416932E+0	1.454287E+0	1.466346E+0	1.446497E+0	1.457201E+0	1.439623E+0	1.476924E+0	1.449671E+0	1.446346E+0	1.400103E+0	1.423040E+0	1.408210E+0	1.446303E+0	1.452994E+0	1.439253E+0	1.437201E+0	1.448411E+0	1.388081E+0	1.440604E+0	1.490120E+0	1.458851E+0	1.426768E+0	1.412013E+0	1.405767E+0	1.383432E+0	1.419616E+0	1.471818E+0	1.430880E+0	1.415096E+0	1.449640E+0	1.393313E+0	1.445283E+0	1.405114E+0	1.427842E+0	1.453770E+0	1.466713E+0	1.393384E+0	1.402518E+0	1.397676E+0	1.424213E+0	1.432152E+0	1.422749E+0	1.432676E+0	1.409642E+0	1.426589E+0	1.468905E+0	1.431541E+0	1.460510E+0	1.399518E+0	1.392158E+0	1.447490E+0	1.483748E+0	1.430474E+0	1.457961E+0	1.441420E+0	1.453939E+0	1.413344E+0	1.399502E+0	1.389919E+0	1.483292E+0	1.438183E+0	1.450220E+0	1.460894E+0	1.511898E+0	1.394312E+0	1.435819E+0	1.424068E+0	1.494238E+0	1.411169E+0	1.463145E+0	1.412038E+0	1.425254E+0	1.376075E+0	1.440409E+0	1.379791E+0	1.457987E+0	1.412858E+0	1.387134E+0	1.366187E+0	1.390904E+0	1.400501E+0	1.398506E+0	1.427785E+0	1.392157E+0	1.438020E+0	1.411726E+0	1.329177E+0	1.393352E+0	1.427012E+0	1.390049E+0	1.403002E+0	1.427136E+0	1.398184E+0	1.423812E+0	1.444671E+0	1.467608E+0	1.368614E+0	1.389463E+0	1.404452E+0	1.501072E+0	1.390042E+0	1.336096E+0	1.444955E+0
5.490380E+2	1.380232E+0	1.373525E+0	1.372842E+0	1.421933E+0	1.414445E+0	1.428254E+0	1.472666E+0	1.381052E+0	1.389971E+0	1.378688E+0	1.406357E+0	1.405063E+0	1.393833E+0	1.457050E+0	1.349082E+0	1.435568E+0	1.354790E+0	1.388048E+0	1.458208E+0	1.389353E+0	1.392946E+0	1.416986E+0	1.441198E+0	1.404896E+0	1.384113E+0	1.420262E+0	1.359670E+0	1.401475E+0	1.401393E+0	1.434430E+0	1.371505E+0	1.405957E+0	1.389605E+0	1.394661E+0	1.386528E+0	1.430642E+0	1.407070E+0	1.407531E+0	1.470803E+0	1.385163E+0	1.372287E+0	1.388526E+0	1.361681E+0	1.424305E+0	1.346163E+0	1.394637E+0	1.404953E+0	1.378236E+0	1.424845E+0	1.383330E+0	1.414330E+0	1.373061E+0	1.408494E+0	1.444104E+0	1.435290E+0	1.375767E+0	1.405758E+0	1.387973E+0	1.389193E+0	1.405083E+0	1.443966E+0	1.396855E+0	1.425319E+0	1.376622E+0	1.399905E+0	1.420845E+0	1.429977E+0	1.446833E+0	1.376860E+0	1.430350E+0	1.388609E+0	1.396324E+0	1.402699E+0	1.393314E+0	1.347153E+0	1.420471E+0	1.351158E+0	1.357648E+0	1.416009E+0	1.355443E+0	1.357683E+0	1.411723E+0	1.404716E+0	1.416625E+0	1.400725E+0	1.405486E+0	1.391789E+0	1.377026E+0	1.402945E+0	1.361973E+0	1.346629E+0	1.413104E+0	1.429287E+0	1.427209E+0	1.426503E+0	1.370850E+0	1.417398E+0	1.408975E+0	1.386313E+0	1.389151E+0	1.396043E+0	1.381884E+0	1.411587E+0	1.419844E+0	1.354115E+0	1.347531E+0	1.407256E+0	1.388916E+0	1.347837E+0	1.407447E+0	1.418574E+0	1.399693E+0	1.345596E+0	1.359703E+0	1.433972E+0	1.383111E+0	1.361706E+0	1.374845E+0	1.431988E+0	1.373356E+0	1.336119E+0	1.409041E+0	1.416811E+0	1.445966E+0	1.351483E+0	1.404852E+0	1.407742E+0	1.366538E+0	1.447542E+0	1.368187E+0	1.404199E+0	1.406591E+0	1.382213E+0	1.369610E+0	1.443148E+0	1.339389E+0	1.405180E+0	1.426975E+0	1.427082E+0	1.346346E+0	1.376741E+0	1.263531E+0	1.383284E+0	1.362918E+0	1.388815E+0	1.338632E+0	1.425220E+0	1.306223E+0	1.356487E+0	1.395602E+0	1.371325E+0	1.388097E+0	1.379062E+0	1.415513E+0	1.408273E+0	1.370341E+0	1.392033E+0	1.402260E+0	1.393649E+0	1.389166E+0	1.421649E+0	1.407691E+0	1.400703E+0	1.397650E+0	1.322317E+0	1.361051E+0	1.374376E+0	1.465816E+0	1.335661E+0	1.315496E+0
5.497850E+2	1.344551E+0	1.342810E+0	1.382465E+0	1.337829E+0	1.350844E+0	1.363639E+0	1.314781E+0	1.343439E+0	1.360456E+0	1.330413E+0	1.341314E+0	1.357666E+0	1.354703E+0	1.342661E+0	1.320467E+0	1.318041E+0	1.380395E+0	1.368049E+0	1.350901E+0	1.288007E+0	1.289522E+0	1.297684E+0	1.386158E+0	1.355270E+0	1.367602E+0	1.368932E+0	1.319724E+0	1.301877E+0	1.297329E+0	1.301753E+0	1.310479E+0	1.284152E+0	1.268820E+0	1.334354E+0	1.337411E+0	1.329450E+0	1.308651E+0	1.340439E+0	1.338976E+0	1.299273E+0	1.361654E+0	1.319146E+0	1.312516E+0	1.331544E+0	1.279038E+0	1.313146E+0	1.333037E+0	1.353549E+0	1.341801E+0	1.354383E+0	1.290130E+0	1.313429E+0	1.315573E+0	1.314583E+0	1.381926E+0	1.320360E+0	1.277479E+0	1.296618E+0	1.322256E+0	1.306803E+0	1.380217E+0	1.285334E+0	1.332119E+0	1.309710E+0	1.320658E+0	1.335943E+0	1.329376E+0	1.340185E+0	1.337307E+0	1.313648E+0	1.327970E+0	1.363689E+0	1.338219E+0	1.320549E+0	1.331057E+0	1.373543E+0	1.314393E+0	1.282000E+0	1.307358E+0	1.336980E+0	1.356126E+0	1.303726E+0	1.312167E+0	1.321457E+0	1.317755E+0	1.338277E+0	1.355135E+0	1.351555E+0	1.335000E+0	1.280659E+0	1.344017E+0	1.310895E+0	1.328560E+0	1.308112E+0	1.296659E+0	1.306972E+0	1.313913E+0	1.343781E+0	1.293640E+0	1.309894E+0	1.349879E+0	1.317545E+0	1.395012E+0	1.289500E+0	1.315758E+0	1.283222E+0	1.322580E+0	1.349523E+0	1.358409E+0	1.272870E+0	1.301782E+0	1.318208E+0	1.298942E+0	1.346759E+0	1.352545E+0	1.331600E+0	1.279659E+0	1.303793E+0	1.367184E+0	1.319578E+0	1.283140E+0	1.317198E+0	1.368352E+0	1.301079E+0	1.297277E+0	1.328184E+0	1.361148E+0	1.360322E+0	1.322319E+0	1.315023E+0	1.358661E+0	1.317669E+0	1.317039E+0	1.317216E+0	1.334414E+0	1.294256E+0	1.303180E+0	1.286836E+0	1.329933E+0	1.301876E+0	1.297639E+0	1.319917E+0	1.307327E+0	1.327525E+0	1.258524E+0	1.289571E+0	1.340189E+0	1.318801E+0	1.323810E+0	1.278204E+0	1.303529E+0	1.321656E+0	1.309914E+0	1.356107E+0	1.351664E+0	1.267971E+0	1.327836E+0	1.304945E+0	1.288931E+0	1.371922E+0	1.305952E+0	1.347461E+0	1.325550E+0	1.336820E+0	1.269164E+0	1.324431E+0	1.320712E+0	1.335723E+0	1.254622E+0	1.307421E+0
5.505170E+2	1.321622E+0	1.247649E+0	1.320332E+0	1.345203E+0	1.285938E+0	1.282044E+0	1.328107E+0	1.314499E+0	1.286021E+0	1.282145E+0	1.336659E+0	1.303523E+0	1.317774E+0	1.322586E+0	1.244754E+0	1.295036E+0	1.287029E+0	1.278123E+0	1.305927E+0	1.334917E+0	1.277284E+0	1.308930E+0	1.292795E+0	1.318885E+0	1.289751E+0	1.288315E+0	1.265600E+0	1.344810E+0	1.332580E+0	1.320020E+0	1.317942E+0	1.300758E+0	1.301816E+0	1.317627E+0	1.326789E+0	1.326352E+0	1.290573E+0	1.272003E+0	1.303148E+0	1.323226E+0	1.276129E+0	1.273211E+0	1.310063E+0	1.319624E+0	1.301864E+0	1.300807E+0	1.337870E+0	1.268315E+0	1.337771E+0	1.307137E+0	1.333063E+0	1.314532E+0	1.286125E+0	1.303804E+0	1.351357E+0	1.301139E+0	1.322755E+0	1.286345E+0	1.325636E+0	1.261154E+0	1.240706E+0	1.282235E+0	1.280859E+0	1.288965E+0	1.337636E+0	1.317884E+0	1.302452E+0	1.260310E+0	1.274298E+0	1.291513E+0	1.336686E+0	1.306163E+0	1.302170E+0	1.329486E+0	1.307987E+0	1.256832E+0	1.267473E+0	1.287687E+0	1.271951E+0	1.287458E+0	1.300011E+0	1.319622E+0	1.319534E+0	1.277213E+0	1.265679E+0	1.304164E+0	1.339645E+0	1.277746E+0	1.287215E+0	1.290379E+0	1.342049E+0	1.302552E+0	1.289801E+0	1.319550E+0	1.258602E+0	1.310890E+0	1.285523E+0	1.284495E+0	1.286515E+0	1.290115E+0	1.309459E+0	1.273631E+0	1.325490E+0	1.254260E+0	1.245924E+0	1.206090E+0	1.337189E+0	1.311640E+0	1.312457E+0	1.342330E+0	1.303720E+0	1.310421E+0	1.244617E+0	1.274108E+0	1.258566E+0	1.304221E+0	1.259234E+0	1.276554E+0	1.317563E+0	1.276017E+0	1.312305E+0	1.295946E+0	1.335049E+0	1.295284E+0	1.278916E+0	1.308955E+0	1.325785E+0	1.295158E+0	1.266981E+0	1.278116E+0	1.346263E+0	1.262880E+0	1.297205E+0	1.251261E+0	1.346633E+0	1.214113E+0	1.310015E+0	1.328137E+0	1.314524E+0	1.282398E+0	1.286080E+0	1.283103E+0	1.304506E+0	1.318841E+0	1.234611E+0	1.246996E+0	1.319146E+0	1.298093E+0	1.299208E+0	1.249502E+0	1.293706E+0	1.298691E+0	1.258100E+0	1.323343E+0	1.275188E+0	1.298751E+0	1.256156E+0	1.278809E+0	1.302338E+0	1.311285E+0	1.319380E+0	1.298953E+0	1.343280E+0	1.273655E+0	1.237675E+0	1.286363E+0	1.341434E+0	1.388184E+0	1.263515E+0	1.270606E+0
5.512620E+2	1.259567E+0	1.267274E+0	1.316711E+0	1.315530E+0	1.291973E+0	1.311871E+0	1.311243E+0	1.338699E+0	1.246765E+0	1.234540E+0	1.308854E+0	1.270856E+0	1.275354E+0	1.315717E+0	1.228373E+0	1.291784E+0	1.318980E+0	1.293202E+0	1.249955E+0	1.290018E+0	1.257414E+0	1.286272E+0	1.258870E+0	1.358827E+0	1.266679E+0	1.285600E+0	1.276197E+0	1.338341E+0	1.303605E+0	1.313106E+0	1.303849E+0	1.332517E+0	1.299370E+0	1.275673E+0	1.272821E+0	1.334282E+0	1.314994E+0	1.275612E+0	1.309737E+0	1.253271E+0	1.249936E+0	1.258554E+0	1.273094E+0	1.283501E+0	1.278739E+0	1.258575E+0	1.305657E+0	1.287882E+0	1.296026E+0	1.297236E+0	1.285686E+0	1.249192E+0	1.243280E+0	1.259874E+0	1.264170E+0	1.270308E+0	1.252960E+0	1.313702E+0	1.289237E+0	1.296931E+0	1.279135E+0	1.268526E+0	1.303872E+0	1.280877E+0	1.332310E+0	1.228852E+0	1.281364E+0	1.278042E+0	1.289478E+0	1.270260E+0	1.332634E+0	1.266389E+0	1.283511E+0	1.301712E+0	1.227830E+0	1.332836E+0	1.266352E+0	1.256921E+0	1.273098E+0	1.299173E+0	1.293005E+0	1.318624E+0	1.302170E+0	1.243668E+0	1.257401E+0	1.282081E+0	1.313498E+0	1.320088E+0	1.277802E+0	1.316855E+0	1.277541E+0	1.258313E+0	1.286743E+0	1.342483E+0	1.288776E+0	1.295200E+0	1.263921E+0	1.326819E+0	1.295235E+0	1.309688E+0	1.260947E+0	1.255702E+0	1.301107E+0	1.261395E+0	1.311480E+0	1.246605E+0	1.304477E+0	1.293622E+0	1.238230E+0	1.271277E+0	1.334565E+0	1.256415E+0	1.281214E+0	1.325095E+0	1.263562E+0	1.257431E+0	1.244745E+0	1.320879E+0	1.276559E+0	1.337094E+0	1.277352E+0	1.344813E+0	1.243103E+0	1.316034E+0	1.216343E+0	1.283716E+0	1.289441E+0	1.279904E+0	1.293264E+0	1.302897E+0	1.264610E+0	1.241884E+0	1.296769E+0	1.246269E+0	1.315030E+0	1.275189E+0	1.271633E+0	1.236421E+0	1.308019E+0	1.331126E+0	1.283749E+0	1.217410E+0	1.287904E+0	1.332251E+0	1.291468E+0	1.265209E+0	1.285186E+0	1.258210E+0	1.277506E+0	1.284538E+0	1.317132E+0	1.321577E+0	1.263449E+0	1.298166E+0	1.289939E+0	1.288638E+0	1.268097E+0	1.255307E+0	1.272821E+0	1.248430E+0	1.317550E+0	1.284115E+0	1.305139E+0	1.287477E+0	1.286935E+0	1.290883E+0	1.300950E+0	1.293385E+0	1.214791E+0	1.208224E+0
5.520210E+2	1.338603E+0	1.289613E+0	1.296968E+0	1.218029E+0	1.310785E+0	1.264145E+0	1.339640E+0	1.342622E+0	1.352075E+0	1.335587E+0	1.316694E+0	1.378398E+0	1.279716E+0	1.271748E+0	1.317241E+0	1.248508E+0	1.276882E+0	1.270027E+0	1.326171E+0	1.309872E+0	1.302664E+0	1.306351E+0	1.309949E+0	1.349807E+0	1.257397E+0	1.343597E+0	1.292706E+0	1.306960E+0	1.300671E+0	1.298292E+0	1.274182E+0	1.257253E+0	1.286174E+0	1.321304E+0	1.287434E+0	1.272319E+0	1.259155E+0	1.327858E+0	1.315262E+0	1.331283E+0	1.279302E+0	1.300827E+0	1.266428E+0	1.313689E+0	1.276661E+0	1.275104E+0	1.290716E+0	1.291042E+0	1.314180E+0	1.324691E+0	1.272926E+0	1.304097E+0	1.291436E+0	1.309634E+0	1.289377E+0	1.289036E+0	1.282127E+0	1.303156E+0	1.322661E+0	1.286156E+0	1.336606E+0	1.291583E+0	1.275183E+0	1.292513E+0	1.316513E+0	1.282223E+0	1.314136E+0	1.313919E+0	1.261524E+0	1.331007E+0	1.306323E+0	1.272445E+0	1.304177E+0	1.313119E+0	1.256959E+0	1.281314E+0	1.323061E+0	1.282570E+0	1.328206E+0	1.308241E+0	1.314326E+0	1.272030E+0	1.323470E+0	1.291004E+0	1.310222E+0	1.282672E+0	1.270547E+0	1.277933E+0	1.286393E+0	1.313289E+0	1.323087E+0	1.219474E+0	1.333760E+0	1.287365E+0	1.278031E+0	1.252725E+0	1.339093E+0	1.318873E+0	1.252131E+0	1.317245E+0	1.298058E+0	1.273480E+0	1.316347E+0	1.324263E+0	1.267192E+0	1.299504E+0	1.288971E+0	1.283337E+0	1.236042E+0	1.341730E+0	1.323421E+0	1.290802E+0	1.258647E+0	1.339399E+0	1.331061E+0	1.281145E+0	1.298580E+0	1.291358E+0	1.284702E+0	1.298791E+0	1.219422E+0	1.311334E+0	1.308355E+0	1.290868E+0	1.262350E+0	1.303299E+0	1.289222E+0	1.316646E+0	1.296972E+0	1.294772E+0	1.300881E+0	1.218117E+0	1.317430E+0	1.276325E+0	1.324322E+0	1.250395E+0	1.270921E+0	1.293650E+0	1.350746E+0	1.331215E+0	1.260297E+0	1.240168E+0	1.308079E+0	1.273975E+0	1.270880E+0	1.210555E+0	1.271466E+0	1.266284E+0	1.281037E+0	1.325327E+0	1.300178E+0	1.264590E+0	1.298385E+0	1.325135E+0	1.311622E+0	1.290321E+0	1.290349E+0	1.324550E+0	1.263897E+0	1.293068E+0	1.328347E+0	1.273986E+0	1.314797E+0	1.269428E+0	1.273722E+0	1.314734E+0	1.297026E+0	1.320549E+0	1.256312E+0	1.218756E+0
5.527650E+2	1.220373E+0	1.258404E+0	1.225167E+0	1.262239E+0	1.253524E+0	1.243719E+0	1.241757E+0	1.276809E+0	1.282727E+0	1.248574E+0	1.318963E+0	1.291543E+0	1.287883E+0	1.252696E+0	1.230334E+0	1.251238E+0	1.271908E+0	1.258451E+0	1.249156E+0	1.257058E+0	1.264861E+0	1.237656E+0	1.229747E+0	1.269133E+0	1.291489E+0	1.261401E+0	1.261742E+0	1.274767E+0	1.235953E+0	1.236390E+0	1.260556E+0	1.241576E+0	1.278177E+0	1.281485E+0	1.267370E+0	1.297196E+0	1.307098E+0	1.254213E+0	1.284285E+0	1.314837E+0	1.239632E+0	1.222710E+0	1.267158E+0	1.248332E+0	1.216584E+0	1.264492E+0	1.308521E+0	1.261724E+0	1.275798E+0	1.252449E+0	1.272757E+0	1.238110E+0	1.212768E+0	1.246577E+0	1.267266E+0	1.296476E+0	1.257300E+0	1.254830E+0	1.306204E+0	1.253431E+0	1.301631E+0	1.219731E+0	1.255665E+0	1.267654E+0	1.219559E+0	1.261295E+0	1.234757E+0	1.216101E+0	1.227548E+0	1.289308E+0	1.274341E+0	1.259627E+0	1.263480E+0	1.266724E+0	1.272395E+0	1.221353E+0	1.214924E+0	1.240121E+0	1.220092E+0	1.240858E+0	1.272570E+0	1.216965E+0	1.312171E+0	1.282678E+0	1.244102E+0	1.265276E+0	1.264589E+0	1.281064E+0	1.243561E+0	1.256132E+0	1.256853E+0	1.270984E+0	1.270825E+0	1.260464E+0	1.274378E+0	1.283789E+0	1.227632E+0	1.259757E+0	1.252870E+0	1.249944E+0	1.245523E+0	1.238304E+0	1.221748E+0	1.259659E+0	1.202788E+0	1.237713E+0	1.221611E+0	1.272480E+0	1.241615E+0	1.318355E+0	1.240294E+0	1.276714E+0	1.268473E+0	1.316237E+0	1.223278E+0	1.293147E+0	1.304461E+0	1.258955E+0	1.275756E+0	1.237509E+0	1.279138E+0	1.228729E+0	1.279077E+0	1.206762E+0	1.236128E+0	1.233835E+0	1.240142E+0	1.282822E+0	1.219494E+0	1.294520E+0	1.232329E+0	1.282834E+0	1.274907E+0	1.272980E+0	1.247839E+0	1.220852E+0	1.222957E+0	1.259441E+0	1.302070E+0	1.279280E+0	1.247668E+0	1.224814E+0	1.341870E+0	1.292195E+0	1.250060E+0	1.216269E+0	1.311310E+0	1.260699E+0	1.222370E+0	1.229582E+0	1.307033E+0	1.283274E+0	1.291076E+0	1.276393E+0	1.229207E+0	1.253354E+0	1.264748E+0	1.235312E+0	1.269271E+0	1.293647E+0	1.258718E+0	1.235003E+0	1.225851E+0	1.271138E+0	1.242814E+0	1.242174E+0	1.268098E+0	1.258817E+0	1.218632E+0	1.351312E+0
5.535160E+2	1.191395E+0	1.201211E+0	1.210268E+0	1.184912E+0	1.184709E+0	1.207532E+0	1.168001E+0	1.179277E+0	1.204213E+0	1.183941E+0	1.184007E+0	1.175775E+0	1.227392E+0	1.234749E+0	1.172583E+0	1.210066E+0	1.212878E+0	1.159915E+0	1.141268E+0	1.171821E+0	1.195600E+0	1.178546E+0	1.144606E+0	1.224027E+0	1.193510E+0	1.233355E+0	1.153856E+0	1.241375E+0	1.167353E+0	1.172523E+0	1.175390E+0	1.176083E+0	1.188392E+0	1.162981E+0	1.188018E+0	1.200480E+0	1.191995E+0	1.199338E+0	1.185582E+0	1.181713E+0	1.195063E+0	1.243672E+0	1.127799E+0	1.206676E+0	1.199847E+0	1.244763E+0	1.162028E+0	1.174448E+0	1.161375E+0	1.195056E+0	1.198511E+0	1.165201E+0	1.184676E+0	1.159648E+0	1.181661E+0	1.194254E+0	1.162392E+0	1.173506E+0	1.165725E+0	1.185784E+0	1.199128E+0	1.181274E+0	1.187836E+0	1.212596E+0	1.182910E+0	1.135022E+0	1.182937E+0	1.190878E+0	1.194064E+0	1.156746E+0	1.204127E+0	1.170551E+0	1.224973E+0	1.165309E+0	1.177302E+0	1.168492E+0	1.121948E+0	1.186594E+0	1.166360E+0	1.173944E+0	1.170034E+0	1.164482E+0	1.160325E+0	1.217116E+0	1.146869E+0	1.157834E+0	1.220288E+0	1.204122E+0	1.188687E+0	1.159058E+0	1.167118E+0	1.185254E+0	1.179776E+0	1.195403E+0	1.146848E+0	1.196188E+0	1.177799E+0	1.218530E+0	1.166977E+0	1.244006E+0	1.216354E+0	1.145461E+0	1.169601E+0	1.210695E+0	1.171843E+0	1.150996E+0	1.186193E+0	1.184779E+0	1.175140E+0	1.236036E+0	1.176247E+0	1.215425E+0	1.173400E+0	1.177671E+0	1.216291E+0	1.286609E+0	1.185816E+0	1.210257E+0	1.180471E+0	1.219488E+0	1.139954E+0	1.144440E+0	1.170059E+0	1.145242E+0	1.166064E+0	1.183402E+0	1.232070E+0	1.183457E+0	1.211192E+0	1.212821E+0	1.177697E+0	1.148126E+0	1.157005E+0	1.175540E+0	1.180717E+0	1.219526E+0	1.217890E+0	1.130474E+0	1.195078E+0	1.220191E+0	1.195487E+0	1.152618E+0	1.208452E+0	1.214817E+0	1.113569E+0	1.170717E+0	1.211771E+0	1.158371E+0	1.190069E+0	1.217210E+0	1.140767E+0	1.195465E+0	1.187387E+0	1.157257E+0	1.189168E+0	1.177088E+0	1.117685E+0	1.152746E+0	1.144700E+0	1.182079E+0	1.154089E+0	1.147610E+0	1.169894E+0	1.199995E+0	1.139985E+0	1.157845E+0	1.190964E+0	1.245580E+0	1.127888E+0	1.154110E+0
5.542580E+2	1.081146E+0	1.095307E+0	1.099253E+0	1.070578E+0	1.077747E+0	1.147522E+0	1.093466E+0	1.105331E+0	1.079726E+0	1.100685E+0	1.083081E+0	1.137450E+0	1.121112E+0	1.060560E+0	1.038615E+0	1.032140E+0	1.136231E+0	1.101913E+0	1.082625E+0	1.086397E+0	1.083037E+0	1.093155E+0	1.101919E+0	1.139875E+0	1.064790E+0	1.108867E+0	1.075974E+0	1.120553E+0	1.069115E+0	1.085696E+0	1.049553E+0	1.090207E+0	1.108186E+0	1.070460E+0	1.047776E+0	1.086531E+0	1.112401E+0	1.098271E+0	1.062626E+0	1.084084E+0	1.095969E+0	1.118831E+0	1.029185E+0	1.090728E+0	1.124616E+0	1.044924E+0	1.135374E+0	1.058255E+0	1.128373E+0	1.074891E+0	1.113242E+0	1.093609E+0	1.102631E+0	1.118648E+0	1.114732E+0	1.115247E+0	1.099644E+0	1.099090E+0	1.095052E+0	1.069274E+0	1.085846E+0	1.077289E+0	1.104387E+0	1.089474E+0	1.075299E+0	1.042956E+0	1.114294E+0	1.113404E+0	1.057965E+0	1.068420E+0	1.094103E+0	1.050520E+0	1.060004E+0	1.110855E+0	1.100539E+0	1.056263E+0	1.056204E+0	1.095901E+0	1.107043E+0	1.169678E+0	1.091325E+0	1.117963E+0	1.049167E+0	1.162614E+0	1.097439E+0	1.103215E+0	1.077000E+0	1.072476E+0	1.065742E+0	1.073761E+0	1.060626E+0	1.108104E+0	1.110150E+0	1.077798E+0	1.111284E+0	1.063491E+0	1.103221E+0	1.142750E+0	1.083597E+0	1.080710E+0	1.131923E+0	1.062322E+0	1.052928E+0	1.118690E+0	1.056930E+0	1.094587E+0	1.075017E+0	1.150891E+0	1.081508E+0	1.157790E+0	1.105183E+0	1.105704E+0	1.081109E+0	1.135539E+0	1.116509E+0	1.081318E+0	1.067217E+0	1.034884E+0	1.084360E+0	1.086870E+0	1.120042E+0	1.094906E+0	1.103714E+0	1.071056E+0	1.056285E+0	1.066058E+0	1.072477E+0	1.084251E+0	1.100362E+0	1.054174E+0	1.106170E+0	1.081205E+0	1.070171E+0	1.074346E+0	1.047157E+0	1.111434E+0	1.126568E+0	1.110703E+0	1.066930E+0	1.093670E+0	1.083795E+0	1.063968E+0	1.068264E+0	1.041881E+0	1.119171E+0	1.050493E+0	1.071619E+0	1.067789E+0	1.018245E+0	1.069063E+0	1.054852E+0	1.118582E+0	1.123515E+0	1.096497E+0	1.060878E+0	1.097621E+0	1.071677E+0	1.101395E+0	1.040034E+0	1.085460E+0	1.081642E+0	1.061286E+0	1.056123E+0	1.121042E+0	1.068092E+0	1.098064E+0	1.066126E+0	1.089052E+0	1.031541E+0	1.182832E+0
5.550190E+2	1.001969E+0	1.030003E+0	1.027955E+0	1.041978E+0	9.717140E-1	1.001777E+0	9.862251E-1	1.047920E+0	1.009672E+0	1.024076E+0	1.020329E+0	1.020083E+0	9.898941E-1	1.017792E+0	9.465786E-1	9.669506E-1	1.031829E+0	1.043978E+0	9.752023E-1	1.010185E+0	9.925560E-1	9.722550E-1	9.906325E-1	9.811719E-1	9.913801E-1	1.032635E+0	9.502082E-1	1.078472E+0	9.983108E-1	9.939027E-1	9.796171E-1	9.831126E-1	9.855559E-1	9.767910E-1	9.699916E-1	9.728482E-1	1.020465E+0	9.992518E-1	1.023983E+0	1.001267E+0	1.002971E+0	1.020920E+0	9.772544E-1	1.057863E+0	1.043049E+0	9.971423E-1	1.013105E+0	9.696107E-1	1.033213E+0	1.021734E+0	1.016731E+0	1.049661E+0	1.026310E+0	1.000809E+0	1.001985E+0	1.017467E+0	1.047480E+0	9.827767E-1	9.895195E-1	1.012664E+0	1.044812E+0	1.007104E+0	9.831670E-1	1.015379E+0	1.047036E+0	9.788369E-1	1.000715E+0	1.032762E+0	1.020735E+0	9.517495E-1	1.025637E+0	1.010268E+0	9.821173E-1	1.006202E+0	9.993607E-1	9.781203E-1	1.018924E+0	1.004861E+0	1.034889E+0	1.021859E+0	1.002837E+0	9.438244E-1	1.042713E+0	9.927180E-1	9.854465E-1	1.009464E+0	1.047226E+0	1.047809E+0	1.008978E+0	9.970469E-1	1.021792E+0	1.043803E+0	1.021067E+0	1.003457E+0	1.060173E+0	1.014472E+0	1.006426E+0	1.025024E+0	1.000898E+0	1.075289E+0	1.018160E+0	9.779067E-1	9.707511E-1	1.048572E+0	9.639317E-1	1.003776E+0	9.855379E-1	9.886398E-1	9.401182E-1	1.004847E+0	1.009192E+0	1.013472E+0	1.006358E+0	1.017371E+0	1.027318E+0	1.041223E+0	9.620015E-1	9.990851E-1	1.013618E+0	9.839709E-1	9.762353E-1	9.991756E-1	9.831008E-1	9.872985E-1	9.723181E-1	1.042164E+0	1.028717E+0	1.034423E+0	9.229737E-1	1.039230E+0	9.793973E-1	1.010855E+0	1.028365E+0	1.007080E+0	9.820761E-1	9.769137E-1	1.007654E+0	9.989847E-1	1.011826E+0	1.027735E+0	1.017345E+0	9.763007E-1	1.008024E+0	1.028694E+0	1.031024E+0	1.039367E+0	1.012439E+0	1.055263E+0	1.031885E+0	1.001776E+0	9.857048E-1	1.054233E+0	1.023629E+0	9.893221E-1	1.003249E+0	1.076568E+0	9.824866E-1	1.020252E+0	9.453504E-1	1.054625E+0	1.052669E+0	1.013978E+0	1.011254E+0	1.055703E+0	9.796669E-1	1.049843E+0	1.004232E+0	9.893389E-1	1.022676E+0	9.738124E-1
5.557710E+2	9.575725E-1	9.495539E-1	9.785523E-1	9.787217E-1	9.633040E-1	9.649520E-1	9.859800E-1	9.568190E-1	9.639558E-1	9.608200E-1	9.601528E-1	9.480272E-1	9.810374E-1	9.923083E-1	9.197055E-1	9.575160E-1	9.324589E-1	9.700758E-1	9.533618E-1	9.689761E-1	1.028693E+0	9.508844E-1	9.018433E-1	9.924307E-1	9.230636E-1	9.559968E-1	9.552581E-1	9.810691E-1	9.401502E-1	9.742740E-1	9.589345E-1	9.937195E-1	9.809565E-1	9.398828E-1	9.447422E-1	9.462517E-1	9.568207E-1	9.699874E-1	9.731654E-1	9.795448E-1	9.543790E-1	9.722149E-1	9.099878E-1	9.094658E-1	9.698172E-1	9.712309E-1	9.662811E-1	9.455407E-1	9.663686E-1	9.488583E-1	9.801526E-1	9.343598E-1	9.388615E-1	9.754645E-1	9.716671E-1	9.443082E-1	9.951908E-1	9.340942E-1	9.484078E-1	9.647679E-1	9.595128E-1	9.863683E-1	9.883330E-1	9.358799E-1	9.834570E-1	9.396002E-1	9.933454E-1	9.803320E-1	1.009900E+0	9.812676E-1	9.554843E-1	1.001226E+0	9.493981E-1	9.435500E-1	9.770041E-1	9.702831E-1	9.630405E-1	9.683379E-1	9.753139E-1	9.757948E-1	9.689106E-1	9.917494E-1	9.689810E-1	9.609573E-1	9.770751E-1	9.273082E-1	9.485423E-1	1.030789E+0	9.322869E-1	9.712162E-1	9.484056E-1	9.916508E-1	9.534555E-1	1.017238E+0	9.373698E-1	9.768608E-1	9.815845E-1	9.493858E-1	9.507826E-1	9.385601E-1	9.506341E-1	9.447146E-1	9.981937E-1	1.004407E+0	9.622658E-1	9.425809E-1	9.240860E-1	1.007041E+0	9.556814E-1	9.561498E-1	9.343340E-1	9.999265E-1	9.374119E-1	9.682189E-1	9.651529E-1	9.213751E-1	9.554142E-1	1.021729E+0	1.018130E+0	9.567815E-1	9.561211E-1	9.323852E-1	9.662738E-1	9.907971E-1	9.573374E-1	1.002894E+0	9.260295E-1	9.556958E-1	9.677345E-1	9.580530E-1	9.983239E-1	9.934536E-1	9.530292E-1	9.516314E-1	9.720418E-1	9.641447E-1	9.455314E-1	9.423092E-1	9.480844E-1	9.839388E-1	9.385994E-1	9.679381E-1	9.509005E-1	1.003541E+0	9.798972E-1	9.917306E-1	9.546986E-1	9.864441E-1	9.493220E-1	9.531641E-1	9.371218E-1	1.010042E+0	9.576302E-1	9.835435E-1	9.548672E-1	1.006159E+0	9.475762E-1	9.955954E-1	9.789049E-1	1.008179E+0	9.314855E-1	9.820403E-1	9.300498E-1	1.033906E+0	9.552670E-1	9.578603E-1	9.893223E-1	9.888322E-1	9.511075E-1	1.007421E+0
5.560130E+2	9.601447E-1	9.658461E-1	9.691414E-1	9.488583E-1	9.847209E-1	9.571844E-1	1.011098E+0	1.017394E+0	9.660868E-1	9.758229E-1	9.815031E-1	9.483167E-1	9.735321E-1	9.365273E-1	9.990767E-1	9.447117E-1	9.538744E-1	9.742933E-1	9.543133E-1	9.374054E-1	1.029578E+0	9.644720E-1	9.771299E-1	9.845465E-1	1.001457E+0	9.525178E-1	9.856511E-1	9.628981E-1	9.647696E-1	9.581844E-1	9.400463E-1	9.645489E-1	9.735801E-1	1.000891E+0	9.333358E-1	9.867287E-1	1.010021E+0	9.518781E-1	9.415282E-1	9.912087E-1	9.886666E-1	9.516633E-1	9.405992E-1	9.865607E-1	9.725183E-1	9.863979E-1	9.860219E-1	9.802506E-1	9.729738E-1	9.729227E-1	9.668143E-1	9.554683E-1	9.819080E-1	9.643266E-1	9.398824E-1	9.462323E-1	9.480509E-1	9.692916E-1	9.543213E-1	1.024091E+0	9.317202E-1	9.510185E-1	1.000234E+0	9.478607E-1	1.003664E+0	9.824949E-1	9.359024E-1	9.688702E-1	9.626694E-1	9.844053E-1	9.611598E-1	9.574654E-1	9.764209E-1	9.707436E-1	9.885035E-1	1.011475E+0	9.078516E-1	9.947580E-1	9.945842E-1	9.849765E-1	9.979422E-1	9.268946E-1	9.482303E-1	9.860730E-1	9.744942E-1	9.919613E-1	9.686756E-1	1.015141E+0	9.278465E-1	9.889605E-1	9.871410E-1	9.589388E-1	9.800459E-1	9.606764E-1	1.021151E+0	9.318196E-1	9.529764E-1	9.820659E-1	9.494074E-1	9.775379E-1	9.516709E-1	9.773636E-1	9.889090E-1	9.595301E-1	9.669337E-1	9.698002E-1	9.732277E-1	1.020794E+0	9.885405E-1	9.671191E-1	9.714701E-1	9.568737E-1	1.006707E+0	9.560971E-1	9.954118E-1	1.002671E+0	9.429534E-1	9.777866E-1	9.644693E-1	9.726204E-1	9.608757E-1	9.768084E-1	9.781383E-1	9.854523E-1	9.136187E-1	9.671456E-1	9.688935E-1	9.685083E-1	1.003191E+0	9.082595E-1	9.948498E-1	9.774480E-1	1.000912E+0	9.902793E-1	9.570850E-1	9.806408E-1	9.409171E-1	9.645255E-1	9.718448E-1	9.502543E-1	9.700741E-1	9.246242E-1	9.939338E-1	9.720896E-1	9.644623E-1	9.801700E-1	9.582549E-1	9.739033E-1	9.703056E-1	9.575461E-1	9.557994E-1	9.628057E-1	9.798980E-1	9.617250E-1	9.348719E-1	9.350778E-1	9.456450E-1	9.745001E-1	9.588351E-1	9.545550E-1	9.821458E-1	9.550287E-1	1.002936E+0	1.000340E+0	9.429069E-1	9.940580E-1	9.566266E-1	9.820613E-1	9.919638E-1	9.533049E-1
5.565090E+2	1.036671E+0	9.755208E-1	9.362102E-1	9.943013E-1	9.777308E-1	9.656521E-1	9.837471E-1	9.575058E-1	9.890451E-1	9.716091E-1	9.388509E-1	9.429989E-1	9.898326E-1	1.000981E+0	9.628722E-1	9.870933E-1	9.750610E-1	9.652204E-1	9.986173E-1	1.003131E+0	1.008996E+0	9.689081E-1	9.692050E-1	9.842119E-1	9.554803E-1	9.540823E-1	9.891200E-1	1.000961E+0	9.597321E-1	9.681138E-1	9.881249E-1	9.932227E-1	1.005708E+0	9.875705E-1	9.784570E-1	9.643336E-1	9.624713E-1	9.661290E-1	9.667801E-1	9.757419E-1	9.931154E-1	9.932397E-1	9.508950E-1	9.668257E-1	1.003728E+0	9.795464E-1	9.417157E-1	9.646931E-1	9.649906E-1	9.539986E-1	9.633147E-1	9.682232E-1	9.585113E-1	9.523739E-1	9.627796E-1	9.859871E-1	1.004393E+0	9.819833E-1	9.633546E-1	9.890152E-1	9.654485E-1	9.377141E-1	9.460328E-1	9.755204E-1	9.709429E-1	9.436564E-1	9.753215E-1	9.993934E-1	9.482477E-1	9.753099E-1	9.820095E-1	9.823012E-1	9.588598E-1	9.667053E-1	9.461277E-1	1.028072E+0	9.752794E-1	9.758127E-1	9.882005E-1	9.934820E-1	9.790424E-1	9.994538E-1	1.009666E+0	9.906352E-1	9.632199E-1	9.578921E-1	9.668384E-1	9.755652E-1	9.740920E-1	9.374374E-1	9.579839E-1	1.002748E+0	9.591950E-1	9.489442E-1	9.633354E-1	9.783720E-1	9.865526E-1	9.873489E-1	9.810214E-1	9.426527E-1	9.986798E-1	9.769501E-1	9.795591E-1	9.858980E-1	9.750533E-1	1.011332E+0	9.941202E-1	9.603720E-1	9.379009E-1	9.689643E-1	9.350728E-1	9.974861E-1	1.002064E+0	9.552851E-1	1.009114E+0	9.719326E-1	9.943817E-1	9.629089E-1	9.839550E-1	9.791906E-1	1.002853E+0	9.950996E-1	9.972712E-1	9.700486E-1	9.180490E-1	1.004618E+0	9.686814E-1	9.522435E-1	9.842143E-1	9.872038E-1	9.890539E-1	1.003102E+0	1.008299E+0	9.722204E-1	9.930618E-1	9.701116E-1	9.716230E-1	9.457004E-1	1.008559E+0	9.678423E-1	9.974866E-1	9.696435E-1	9.733541E-1	1.015165E+0	1.000641E+0	9.850399E-1	9.612600E-1	9.911381E-1	9.839048E-1	9.918385E-1	1.005352E+0	9.771421E-1	9.702043E-1	9.996363E-1	9.707787E-1	9.916651E-1	9.851967E-1	9.771684E-1	9.679384E-1	9.983026E-1	1.006829E+0	9.698023E-1	9.610620E-1	9.796038E-1	9.638286E-1	9.665386E-1	9.805414E-1	9.972443E-1	9.602703E-1	1.005562E+0
5.570270E+2	1.005460E+0	9.713824E-1	9.822711E-1	9.877185E-1	1.007119E+0	1.023913E+0	9.669192E-1	9.383676E-1	9.808103E-1	9.480580E-1	9.837484E-1	9.911072E-1	9.985303E-1	9.674259E-1	1.009931E+0	1.008742E+0	9.962025E-1	1.007990E+0	9.755467E-1	9.765313E-1	1.011375E+0	9.781109E-1	9.802445E-1	1.017460E+0	9.791454E-1	9.782474E-1	9.728967E-1	9.977776E-1	9.442706E-1	9.636868E-1	9.809204E-1	9.834799E-1	9.726126E-1	9.759393E-1	9.990316E-1	9.639906E-1	1.000887E+0	9.763774E-1	1.002441E+0	9.662967E-1	9.548846E-1	1.018206E+0	9.728812E-1	9.500265E-1	9.467487E-1	9.446634E-1	9.747014E-1	9.809946E-1	9.756252E-1	9.963582E-1	9.838744E-1	9.954386E-1	1.009454E+0	1.001784E+0	9.733994E-1	9.760644E-1	9.944787E-1	9.497386E-1	1.007163E+0	9.982322E-1	1.013645E+0	9.674751E-1	9.938717E-1	1.027382E+0	9.829625E-1	9.613758E-1	1.002697E+0	9.650986E-1	9.815973E-1	1.000359E+0	1.021576E+0	9.853713E-1	9.912564E-1	9.667464E-1	1.002666E+0	9.665757E-1	9.396039E-1	9.510147E-1	9.649119E-1	1.012307E+0	9.838089E-1	9.423793E-1	9.969224E-1	9.929108E-1	1.008576E+0	1.023146E+0	1.001514E+0	1.007012E+0	1.034861E+0	9.590302E-1	9.743550E-1	9.847319E-1	1.007175E+0	9.674846E-1	9.942192E-1	9.489184E-1	9.955699E-1	9.957575E-1	1.022142E+0	9.752712E-1	9.316623E-1	9.743400E-1	9.954113E-1	9.414014E-1	1.000609E+0	9.853743E-1	9.746260E-1	1.021733E+0	1.005839E+0	9.487185E-1	9.689224E-1	9.651344E-1	9.857365E-1	9.910668E-1	9.950973E-1	9.705930E-1	9.913328E-1	9.161798E-1	9.711991E-1	9.948471E-1	1.016190E+0	9.917496E-1	9.630168E-1	9.569942E-1	1.012653E+0	9.598790E-1	1.005682E+0	9.846501E-1	9.674638E-1	9.755906E-1	1.013953E+0	9.708754E-1	9.829232E-1	1.027522E+0	9.914466E-1	1.028839E+0	9.619685E-1	1.006582E+0	9.413726E-1	9.502853E-1	9.707365E-1	1.008427E+0	9.056888E-1	1.000894E+0	9.751964E-1	9.922256E-1	9.834329E-1	1.007682E+0	1.000682E+0	9.891746E-1	9.212855E-1	1.018121E+0	9.924376E-1	1.005387E+0	9.712065E-1	9.725643E-1	1.008305E+0	1.003002E+0	9.776726E-1	1.009976E+0	1.017373E+0	9.941081E-1	9.357049E-1	9.876584E-1	9.902446E-1	1.001737E+0	9.620200E-1	1.017327E+0	9.667300E-1	1.068159E+0
5.575640E+2	9.588082E-1	9.923877E-1	9.979225E-1	9.934826E-1	9.998414E-1	1.004796E+0	1.008962E+0	9.718810E-1	1.022469E+0	9.773599E-1	1.002921E+0	9.313322E-1	9.710069E-1	9.764603E-1	9.680437E-1	9.794576E-1	1.014358E+0	9.887232E-1	9.680055E-1	9.923917E-1	9.732669E-1	1.012281E+0	9.747608E-1	9.728378E-1	9.874877E-1	1.013483E+0	1.000331E+0	9.922437E-1	1.028045E+0	1.011983E+0	9.797402E-1	9.764147E-1	9.755855E-1	1.055826E+0	9.778532E-1	9.727802E-1	1.007246E+0	1.011541E+0	9.827043E-1	9.733352E-1	9.388010E-1	9.798972E-1	1.014572E+0	1.007449E+0	9.690831E-1	9.544228E-1	9.919246E-1	1.026412E+0	1.008926E+0	9.807136E-1	9.378820E-1	9.534188E-1	1.006735E+0	9.928140E-1	1.013769E+0	1.009720E+0	1.000273E+0	9.760743E-1	1.000532E+0	9.937059E-1	1.018779E+0	1.019254E+0	1.020991E+0	1.001135E+0	9.521299E-1	1.019267E+0	9.944346E-1	9.932589E-1	9.772797E-1	9.856808E-1	9.865689E-1	9.614128E-1	9.809808E-1	9.670494E-1	1.019518E+0	9.840585E-1	1.040583E+0	9.709911E-1	9.848214E-1	9.471252E-1	9.733247E-1	1.040107E+0	9.844519E-1	1.004496E+0	1.038101E+0	9.951488E-1	9.894633E-1	9.932208E-1	9.896807E-1	1.007592E+0	9.857378E-1	9.903260E-1	9.976436E-1	9.996813E-1	9.688551E-1	1.059912E+0	9.594228E-1	9.967351E-1	9.709382E-1	9.749339E-1	9.479977E-1	1.002075E+0	1.001803E+0	1.007450E+0	9.930567E-1	9.961882E-1	9.691973E-1	9.897456E-1	9.711251E-1	9.967132E-1	1.023568E+0	1.007344E+0	9.920699E-1	9.932526E-1	9.681472E-1	9.856097E-1	9.807121E-1	1.007238E+0	1.004561E+0	9.896912E-1	9.614304E-1	1.013233E+0	9.792209E-1	1.004302E+0	9.703365E-1	1.021912E+0	1.006454E+0	9.966111E-1	9.746228E-1	9.993414E-1	9.569823E-1	9.685759E-1	9.794510E-1	9.561329E-1	9.911960E-1	9.796072E-1	9.798547E-1	1.056110E+0	1.010873E+0	1.032801E+0	9.621747E-1	1.032148E+0	1.033684E+0	9.821668E-1	1.012502E+0	9.800593E-1	1.026839E+0	1.002587E+0	9.860797E-1	9.607400E-1	9.848739E-1	1.011684E+0	9.970704E-1	9.502132E-1	1.030392E+0	1.000403E+0	9.932452E-1	9.937128E-1	1.005735E+0	1.019156E+0	9.620354E-1	9.362068E-1	9.564100E-1	1.013401E+0	9.920581E-1	9.694700E-1	1.022493E+0	9.795540E-1	9.402002E-1	1.032172E+0
5.580230E+2	9.975563E-1	9.781574E-1	9.669765E-1	9.998825E-1	9.605006E-1	1.011677E+0	1.031882E+0	1.040490E+0	1.014146E+0	9.636344E-1	1.007559E+0	1.055006E+0	1.035313E+0	9.970541E-1	1.023084E+0	1.045550E+0	1.019327E+0	9.933059E-1	1.022983E+0	1.021734E+0	9.923812E-1	9.457748E-1	1.014660E+0	9.921656E-1	1.035402E+0	1.023066E+0	9.747106E-1	9.803648E-1	1.017858E+0	1.028055E+0	1.015252E+0	9.789102E-1	1.009012E+0	1.003045E+0	1.004427E+0	9.956824E-1	1.041448E+0	9.896031E-1	9.867213E-1	9.733658E-1	9.989208E-1	1.006403E+0	1.004369E+0	1.020268E+0	9.816894E-1	1.000164E+0	9.981394E-1	1.008395E+0	1.030014E+0	1.009234E+0	1.028101E+0	1.016268E+0	9.734761E-1	1.019174E+0	1.012084E+0	1.015120E+0	9.938606E-1	1.030177E+0	1.001889E+0	9.591681E-1	9.887840E-1	9.641614E-1	9.826620E-1	1.026826E+0	1.002647E+0	9.888260E-1	1.021404E+0	1.008868E+0	1.010349E+0	9.993980E-1	9.845084E-1	1.001399E+0	1.005137E+0	1.045000E+0	9.970335E-1	1.009209E+0	9.738235E-1	9.992063E-1	1.017891E+0	1.033357E+0	9.829163E-1	9.625894E-1	1.027802E+0	1.012325E+0	9.901215E-1	1.004640E+0	9.946866E-1	9.990890E-1	1.012205E+0	9.961633E-1	9.697833E-1	1.024966E+0	1.015261E+0	1.018568E+0	9.705626E-1	1.026650E+0	9.794192E-1	9.755878E-1	9.802551E-1	1.006858E+0	1.041177E+0	1.012011E+0	1.017070E+0	1.005463E+0	9.739096E-1	1.007478E+0	1.020882E+0	9.496744E-1	1.010763E+0	1.007870E+0	9.617624E-1	9.774484E-1	1.004411E+0	1.006804E+0	9.978743E-1	1.015483E+0	9.969187E-1	1.019622E+0	9.879083E-1	1.007323E+0	9.946277E-1	1.033059E+0	1.034384E+0	9.862256E-1	1.009482E+0	1.003523E+0	1.007180E+0	9.798302E-1	9.787841E-1	9.977755E-1	1.028788E+0	1.019052E+0	1.012310E+0	9.901330E-1	9.991557E-1	9.996532E-1	1.020756E+0	9.999788E-1	1.005914E+0	1.006641E+0	9.818405E-1	1.018993E+0	1.002944E+0	1.008545E+0	1.016565E+0	9.886456E-1	1.009380E+0	9.582121E-1	9.765525E-1	9.922261E-1	1.020966E+0	1.018417E+0	1.025158E+0	1.014612E+0	1.026367E+0	1.021952E+0	1.014717E+0	9.749803E-1	1.001676E+0	9.915524E-1	1.000751E+0	1.002619E+0	1.005734E+0	9.788105E-1	1.037234E+0	1.001645E+0	9.930940E-1	9.752190E-1	9.732457E-1	9.725344E-1
5.585220E+2	9.601010E-1	1.029174E+0	1.075651E+0	1.022125E+0	1.024749E+0	1.015954E+0	9.597409E-1	1.018129E+0	1.012341E+0	1.036564E+0	9.638255E-1	1.024764E+0	1.026469E+0	1.012011E+0	1.015178E+0	9.985232E-1	1.010685E+0	1.016054E+0	1.008957E+0	1.000853E+0	9.889437E-1	1.042153E+0	1.024898E+0	9.989126E-1	1.015065E+0	9.875220E-1	9.796340E-1	1.014904E+0	1.009775E+0	1.032445E+0	1.002315E+0	1.003231E+0	9.849787E-1	1.020368E+0	9.891800E-1	9.900209E-1	1.001197E+0	1.000259E+0	1.019115E+0	1.029762E+0	1.000361E+0	9.748487E-1	1.036863E+0	1.020351E+0	1.082634E+0	1.016322E+0	1.000263E+0	1.018638E+0	1.018245E+0	9.760182E-1	9.942032E-1	1.007673E+0	1.004142E+0	1.007748E+0	1.019332E+0	1.035845E+0	1.019102E+0	1.023949E+0	1.015947E+0	9.958465E-1	1.052736E+0	1.016885E+0	9.658723E-1	1.012562E+0	9.828404E-1	1.003043E+0	1.017236E+0	1.038467E+0	1.009573E+0	9.937227E-1	9.951093E-1	1.009373E+0	1.019896E+0	1.026567E+0	1.014361E+0	1.005236E+0	1.043647E+0	1.004123E+0	1.003781E+0	1.029125E+0	1.040353E+0	1.012823E+0	1.010794E+0	9.617603E-1	1.021956E+0	1.011855E+0	1.051358E+0	9.884383E-1	1.036161E+0	9.966802E-1	1.010356E+0	1.016402E+0	1.057901E+0	1.033523E+0	9.734518E-1	1.021635E+0	1.020542E+0	9.934123E-1	1.006760E+0	1.013401E+0	1.012865E+0	9.962499E-1	9.856719E-1	1.020528E+0	1.022738E+0	1.041840E+0	1.012428E+0	1.026112E+0	9.943433E-1	1.037464E+0	1.005504E+0	1.064665E+0	9.838606E-1	9.782392E-1	1.025639E+0	9.978344E-1	1.019454E+0	1.025879E+0	1.028875E+0	9.890797E-1	1.041113E+0	1.019349E+0	1.043360E+0	1.058413E+0	1.050784E+0	9.696279E-1	1.009975E+0	1.007190E+0	1.040359E+0	1.014326E+0	9.716482E-1	9.953315E-1	9.669554E-1	9.985745E-1	1.012218E+0	1.037893E+0	1.026343E+0	1.006595E+0	1.005463E+0	1.001633E+0	1.016895E+0	9.773115E-1	1.036351E+0	9.792921E-1	9.876694E-1	9.919898E-1	9.878585E-1	1.021865E+0	1.038492E+0	1.052390E+0	1.003868E+0	1.004789E+0	1.017164E+0	9.767966E-1	9.917687E-1	9.805336E-1	1.022016E+0	1.035857E+0	1.041315E+0	1.006280E+0	9.982114E-1	1.037292E+0	1.034884E+0	9.983470E-1	9.853639E-1	1.032277E+0	1.004543E+0	9.857732E-1	1.036550E+0	9.726634E-1
5.590160E+2	1.038408E+0	1.013946E+0	1.042308E+0	1.017338E+0	1.022436E+0	1.034930E+0	1.044344E+0	1.020580E+0	1.014090E+0	1.049296E+0	1.010026E+0	9.960471E-1	1.022216E+0	1.003708E+0	1.051612E+0	9.623926E-1	1.000788E+0	1.007788E+0	9.958114E-1	1.023209E+0	1.028093E+0	1.005037E+0	1.032477E+0	1.029521E+0	1.033648E+0	1.049618E+0	1.017006E+0	1.056602E+0	1.033745E+0	1.029557E+0	1.074022E+0	1.064576E+0	1.032555E+0	1.011751E+0	1.049463E+0	1.035720E+0	1.013698E+0	1.000654E+0	1.020264E+0	1.007221E+0	1.036256E+0	1.068800E+0	1.029100E+0	1.018400E+0	1.030431E+0	1.018465E+0	1.013118E+0	1.006365E+0	1.007079E+0	1.055220E+0	1.060121E+0	1.039608E+0	1.009820E+0	1.032791E+0	1.039150E+0	1.035085E+0	1.049193E+0	1.010293E+0	1.012393E+0	1.035604E+0	1.017866E+0	1.017127E+0	1.044560E+0	1.022492E+0	9.973980E-1	1.029137E+0	1.022538E+0	1.041328E+0	1.021111E+0	9.854916E-1	1.026309E+0	1.044998E+0	1.038233E+0	1.045908E+0	1.031256E+0	1.049142E+0	1.042461E+0	1.025297E+0	1.007271E+0	1.008593E+0	1.021106E+0	1.033064E+0	1.018800E+0	1.020348E+0	9.989933E-1	1.048721E+0	1.009835E+0	1.004268E+0	1.013089E+0	1.027924E+0	1.050541E+0	9.776488E-1	9.840650E-1	1.027477E+0	1.025122E+0	1.003295E+0	1.031202E+0	1.027394E+0	1.035585E+0	1.063943E+0	1.020902E+0	1.040922E+0	1.040802E+0	1.012575E+0	1.035898E+0	9.659495E-1	9.949681E-1	1.022905E+0	1.036234E+0	1.042098E+0	1.028464E+0	1.032491E+0	1.009816E+0	1.031328E+0	1.019648E+0	1.075147E+0	1.038322E+0	1.020434E+0	1.038237E+0	1.048361E+0	9.960091E-1	9.782474E-1	1.032547E+0	9.898750E-1	1.062679E+0	1.051239E+0	1.048841E+0	1.005482E+0	1.005699E+0	1.049432E+0	9.924142E-1	9.855437E-1	1.071212E+0	1.032374E+0	1.046920E+0	1.028612E+0	1.002882E+0	9.823607E-1	1.052634E+0	1.070835E+0	1.074034E+0	1.028337E+0	9.852014E-1	9.945728E-1	1.050023E+0	1.036330E+0	9.997884E-1	1.031824E+0	1.047038E+0	1.028909E+0	1.062616E+0	1.001183E+0	1.029910E+0	1.029510E+0	1.007364E+0	1.012775E+0	1.002217E+0	9.876663E-1	9.935572E-1	9.788141E-1	1.053749E+0	1.030875E+0	1.021924E+0	1.050886E+0	1.072969E+0	9.840385E-1	1.016268E+0	1.027763E+0	1.034591E+0	9.966290E-1
5.595110E+2	1.048303E+0	1.043276E+0	1.033362E+0	1.025756E+0	1.012679E+0	1.065252E+0	1.040674E+0	1.014844E+0	1.012073E+0	1.066217E+0	1.087630E+0	1.031377E+0	9.875168E-1	9.927516E-1	1.012122E+0	1.049807E+0	1.032858E+0	9.865314E-1	1.003898E+0	1.020075E+0	1.011869E+0	1.035608E+0	1.008219E+0	1.027769E+0	1.029570E+0	1.037507E+0	1.056908E+0	1.029658E+0	1.017806E+0	1.037611E+0	9.827427E-1	1.029485E+0	1.036105E+0	9.887897E-1	1.026371E+0	1.021541E+0	1.030383E+0	1.025848E+0	1.007619E+0	1.020096E+0	1.036384E+0	1.022324E+0	1.018406E+0	1.042159E+0	1.082648E+0	1.033692E+0	1.029180E+0	1.009195E+0	1.019530E+0	1.005934E+0	1.015236E+0	1.044571E+0	9.964251E-1	1.002415E+0	1.024342E+0	1.027863E+0	1.025207E+0	1.005373E+0	1.021143E+0	9.908421E-1	1.042953E+0	1.012104E+0	1.015468E+0	9.794207E-1	1.085166E+0	1.039129E+0	9.895307E-1	1.008849E+0	1.003561E+0	1.058371E+0	1.014220E+0	1.036117E+0	1.014176E+0	1.022656E+0	9.948557E-1	1.019841E+0	1.072647E+0	1.022559E+0	9.793137E-1	9.826104E-1	9.945863E-1	1.013357E+0	1.016241E+0	9.810952E-1	1.014362E+0	1.002488E+0	1.025876E+0	1.018695E+0	9.857418E-1	1.010433E+0	1.056264E+0	9.887649E-1	1.008324E+0	1.023136E+0	1.056193E+0	9.936635E-1	1.052299E+0	9.687272E-1	9.989767E-1	1.011277E+0	1.041317E+0	1.026202E+0	1.045778E+0	9.838848E-1	1.028334E+0	1.003417E+0	1.033942E+0	1.010864E+0	1.020124E+0	1.007292E+0	1.050389E+0	1.011112E+0	1.001956E+0	1.027108E+0	1.048404E+0	1.020151E+0	1.038658E+0	1.071782E+0	9.991709E-1	1.000743E+0	1.051478E+0	1.032043E+0	1.047616E+0	1.022386E+0	1.015974E+0	1.048981E+0	1.038628E+0	1.045499E+0	1.014182E+0	1.043629E+0	1.020678E+0	1.023307E+0	1.017659E+0	1.038118E+0	9.967163E-1	1.010502E+0	1.018796E+0	1.051741E+0	9.904136E-1	1.005650E+0	1.033765E+0	1.036954E+0	1.046164E+0	1.048168E+0	1.037608E+0	9.908432E-1	1.051983E+0	1.002736E+0	1.013808E+0	1.043239E+0	1.014166E+0	1.017276E+0	9.862197E-1	1.035867E+0	1.044428E+0	1.056329E+0	1.024205E+0	1.062844E+0	1.026974E+0	9.942163E-1	9.717120E-1	1.020972E+0	1.020950E+0	9.844110E-1	1.033057E+0	9.975171E-1	1.024643E+0	1.023150E+0	9.889134E-1	1.044819E+0
5.600300E+2	9.857216E-1	1.013138E+0	9.797376E-1	1.033186E+0	9.907749E-1	9.229466E-1	9.840503E-1	1.015094E+0	1.008318E+0	1.000357E+0	9.802334E-1	1.001112E+0	1.024909E+0	1.047586E+0	9.756958E-1	1.002924E+0	1.011896E+0	9.999199E-1	1.043479E+0	9.957236E-1	9.927516E-1	9.827893E-1	1.000276E+0	1.030078E+0	9.929199E-1	1.004499E+0	1.063059E+0	9.535175E-1	9.921183E-1	9.869035E-1	9.978561E-1	1.006539E+0	9.892785E-1	1.006897E+0	1.043467E+0	9.966066E-1	9.873862E-1	1.020059E+0	1.023446E+0	1.001524E+0	1.058544E+0	1.035460E+0	1.022669E+0	9.836554E-1	9.686087E-1	1.012417E+0	1.031792E+0	1.007240E+0	9.783035E-1	1.004493E+0	9.928653E-1	1.020515E+0	1.027950E+0	1.044246E+0	1.001299E+0	9.722359E-1	9.997011E-1	1.020793E+0	1.004415E+0	1.029194E+0	1.006521E+0	1.035581E+0	1.014144E+0	1.002130E+0	9.932932E-1	1.012337E+0	1.004917E+0	9.924538E-1	1.064051E+0	1.006840E+0	1.024743E+0	9.917743E-1	9.991042E-1	9.966375E-1	9.751168E-1	9.764190E-1	1.008269E+0	1.035527E+0	9.847421E-1	9.776082E-1	1.016234E+0	1.045105E+0	1.001347E+0	9.994854E-1	9.913505E-1	9.510780E-1	9.978818E-1	9.954011E-1	1.020613E+0	9.929129E-1	9.923222E-1	1.015219E+0	9.857980E-1	1.009492E+0	1.005068E+0	1.016529E+0	1.011305E+0	1.033931E+0	1.010615E+0	1.034102E+0	9.924125E-1	1.002250E+0	9.742332E-1	1.008217E+0	9.855244E-1	1.017937E+0	1.003786E+0	1.010268E+0	1.008740E+0	1.003062E+0	1.043631E+0	1.002554E+0	9.643353E-1	1.005104E+0	9.847721E-1	9.734939E-1	9.700464E-1	1.031505E+0	9.765981E-1	9.912718E-1	9.876348E-1	9.712124E-1	9.691671E-1	1.000791E+0	1.022488E+0	9.800101E-1	9.816247E-1	1.057738E+0	1.043611E+0	1.027312E+0	1.006119E+0	1.008768E+0	9.915059E-1	9.886239E-1	9.890491E-1	9.859860E-1	1.013251E+0	1.003798E+0	1.019069E+0	1.008850E+0	1.009421E+0	1.016374E+0	1.045937E+0	9.774506E-1	1.005614E+0	1.004137E+0	1.015340E+0	1.008525E+0	1.015083E+0	9.864927E-1	1.005673E+0	9.837798E-1	9.809735E-1	1.002378E+0	9.995085E-1	9.981916E-1	9.863094E-1	9.965210E-1	1.049361E+0	1.008703E+0	1.016095E+0	1.045998E+0	1.008189E+0	1.019788E+0	9.963418E-1	1.020483E+0	1.002875E+0	9.802012E-1	1.005168E+0	9.848891E-1
5.605090E+2	1.002244E+0	1.023552E+0	1.014697E+0	9.686192E-1	9.921118E-1	9.959174E-1	9.988627E-1	1.028116E+0	9.825615E-1	9.975433E-1	1.009923E+0	1.052835E+0	9.877172E-1	1.017403E+0	1.000383E+0	9.982671E-1	1.043712E+0	1.033779E+0	1.003620E+0	1.014407E+0	9.945001E-1	1.038481E+0	9.948183E-1	9.814796E-1	1.005588E+0	1.012420E+0	9.811445E-1	9.972456E-1	9.915409E-1	9.736560E-1	1.023266E+0	1.006914E+0	9.980226E-1	9.469275E-1	9.876083E-1	9.985630E-1	9.742771E-1	1.027193E+0	1.032985E+0	1.033409E+0	1.006222E+0	9.552590E-1	1.021094E+0	1.025982E+0	9.824148E-1	1.003999E+0	1.018939E+0	1.041248E+0	9.780758E-1	1.017337E+0	1.047039E+0	9.902754E-1	1.008823E+0	1.000292E+0	9.958148E-1	9.799942E-1	9.896121E-1	1.022698E+0	9.986288E-1	9.905152E-1	9.599893E-1	1.063736E+0	9.958009E-1	9.921403E-1	1.022275E+0	1.013889E+0	1.009287E+0	1.012929E+0	1.014366E+0	1.019129E+0	9.911635E-1	9.947237E-1	1.024957E+0	9.946408E-1	1.024764E+0	9.731374E-1	1.035671E+0	1.008340E+0	1.059258E+0	1.014674E+0	1.032981E+0	1.005860E+0	9.474820E-1	1.013760E+0	9.860221E-1	1.046486E+0	1.012188E+0	9.970038E-1	1.011347E+0	1.058053E+0	1.002876E+0	1.027063E+0	1.028961E+0	1.033636E+0	9.898721E-1	1.013291E+0	1.026890E+0	9.889889E-1	1.046406E+0	1.017068E+0	9.877390E-1	9.660921E-1	9.843431E-1	1.051836E+0	1.017689E+0	1.014403E+0	1.034412E+0	1.017856E+0	1.015727E+0	1.017736E+0	9.888741E-1	9.897267E-1	1.018690E+0	1.037961E+0	9.681588E-1	1.010708E+0	1.031558E+0	9.688235E-1	1.015498E+0	1.032087E+0	9.969187E-1	9.794503E-1	1.005799E+0	1.005239E+0	1.027409E+0	9.506294E-1	9.780010E-1	1.018968E+0	9.833831E-1	9.888976E-1	1.024552E+0	1.002231E+0	9.899521E-1	1.001840E+0	9.940750E-1	1.000068E+0	1.040830E+0	9.727151E-1	9.817045E-1	1.015045E+0	1.005442E+0	1.004231E+0	1.034154E+0	9.805281E-1	9.844876E-1	1.031904E+0	1.016516E+0	1.027369E+0	1.000959E+0	9.996510E-1	1.041042E+0	1.000874E+0	9.716079E-1	9.917980E-1	1.000252E+0	1.035554E+0	1.008791E+0	9.873211E-1	1.009971E+0	9.853717E-1	9.694468E-1	9.681335E-1	1.043683E+0	1.014079E+0	9.930644E-1	1.022661E+0	1.022802E+0	9.930207E-1	1.040863E+0	9.412930E-1
5.610010E+2	1.006582E+0	9.936202E-1	1.001723E+0	1.008733E+0	1.027337E+0	1.001777E+0	9.697197E-1	9.775968E-1	9.980590E-1	1.013539E+0	1.033782E+0	1.025104E+0	9.829576E-1	1.048092E+0	9.820015E-1	1.022531E+0	9.412389E-1	1.026395E+0	1.024769E+0	1.014538E+0	9.682455E-1	1.026386E+0	1.023312E+0	9.810170E-1	9.642353E-1	9.870376E-1	9.795382E-1	1.013827E+0	1.040340E+0	1.009806E+0	1.015714E+0	9.926801E-1	1.022563E+0	1.001993E+0	1.010807E+0	1.074033E+0	9.709861E-1	1.030459E+0	1.016396E+0	1.028040E+0	9.878443E-1	9.938988E-1	9.885503E-1	9.783229E-1	9.794963E-1	1.049910E+0	1.014204E+0	9.565687E-1	1.046236E+0	1.027770E+0	1.010549E+0	1.008541E+0	1.022756E+0	9.820356E-1	1.018147E+0	1.015854E+0	9.761295E-1	1.009629E+0	1.020214E+0	9.937853E-1	1.001558E+0	1.014944E+0	1.020363E+0	1.012530E+0	1.006682E+0	1.006845E+0	1.026731E+0	9.704842E-1	1.007195E+0	9.912925E-1	1.012632E+0	1.035065E+0	9.909787E-1	9.973468E-1	1.005798E+0	9.768334E-1	9.601626E-1	1.012371E+0	1.015225E+0	1.016142E+0	9.777048E-1	1.018367E+0	1.038262E+0	1.037112E+0	1.012803E+0	9.665851E-1	9.816829E-1	1.006166E+0	9.943618E-1	1.024814E+0	1.012639E+0	1.013191E+0	9.756306E-1	9.773822E-1	1.032169E+0	1.005915E+0	9.838217E-1	1.050052E+0	9.978926E-1	9.829545E-1	1.073576E+0	1.025546E+0	9.864206E-1	1.023218E+0	1.000255E+0	9.862804E-1	9.884105E-1	9.696763E-1	1.010663E+0	1.002963E+0	1.022342E+0	9.951654E-1	1.030354E+0	1.017753E+0	9.877336E-1	9.763762E-1	9.956631E-1	9.978409E-1	1.029529E+0	9.947849E-1	9.908703E-1	1.009748E+0	9.494793E-1	1.020273E+0	9.965274E-1	1.042435E+0	9.860404E-1	9.832805E-1	1.004489E+0	1.008233E+0	1.000962E+0	1.045765E+0	9.788204E-1	1.004182E+0	1.029077E+0	9.780875E-1	1.022778E+0	1.009894E+0	1.012152E+0	9.901628E-1	9.781314E-1	9.829562E-1	9.425872E-1	1.041128E+0	9.652309E-1	1.018656E+0	9.893479E-1	9.741584E-1	9.670959E-1	9.977925E-1	9.843585E-1	1.003929E+0	1.049356E+0	1.032078E+0	1.023062E+0	9.949553E-1	1.009353E+0	1.006426E+0	9.669648E-1	1.053074E+0	1.021652E+0	1.038965E+0	1.008523E+0	9.726749E-1	9.929320E-1	1.009575E+0	1.014093E+0	1.038687E+0	1.061504E+0	1.027974E+0
