Photon Energy (eV)	#1	#2	#3	#4	#5	#6	#7	#8	#9	#10	#11	#12	#13	#14	#15	#16	#17	#18	#19	#20	#21	#22	#23	#24	#25	#26	#27	#28	#29	#30	#31	#32	#33	#34	#35	#36	#37	#38	#39	#40	#41	#42	#43	#44	#45	#46	#47	#48	#49	#50	#51	#52	#53	#54	#55	#56	#57	#58	#59	#60	#61	#62	#63	#64	#65	#66	#67	#68	#69	#70	#71	#72	#73	#74	#75	#76	#77	#78	#79	#80	#81	#82	#83	#84	#85	#86	#87	#88	#89	#90	#91	#92	#93	#94	#95	#96	#97	#98	#99	#100	#101	#102	#103	#104	#105	#106	#107	#108	#109	#110	#111	#112	#113	#114	#115	#116	#117	#118	#119	#120	#121	#122	#123	#124	#125	#126	#127	#128	#129	#130	#131	#132	#133	#134	#135	#136	#137	#138	#139	#140	#141	#142	#143	#144	#145	#146	#147	#148	#149	#150	#151	#152	#153	#154	#155	#156	#157	#158	#159	#160	#161	#162	#163	#164	#165	#166	#167	#168	#169	#170	
5.300320E+2	-4.986743E-4	-1.500151E-2	-5.898039E-3	-1.376613E-3	-6.640238E-3	8.181784E-5	1.411364E-3	-1.601510E-3	-7.207052E-3	-3.164912E-3	-3.511679E-3	-6.613502E-3	-6.457110E-3	-5.959816E-5	-1.194474E-2	-2.108852E-3	-6.869046E-3	-4.185527E-3	-9.281732E-3	-5.931563E-3	-8.534168E-3	-9.391402E-3	-3.332389E-3	-7.106546E-3	-2.644623E-4	-1.010619E-2	-8.541153E-3	-2.120842E-3	-4.377595E-3	3.548840E-3	-1.291516E-2	-7.334326E-3	-6.630377E-3	-7.250744E-3	1.167759E-3	-6.538575E-3	-9.267541E-3	-5.151252E-3	-6.734170E-3	-4.462762E-3	-3.870064E-3	-6.493293E-3	-5.723953E-3	-8.052565E-3	-6.811700E-3	-6.768457E-3	-3.120299E-3	-8.538395E-3	-8.772179E-3	-1.511719E-4	-4.973303E-3	-3.869101E-3	-3.262391E-3	-1.844388E-3	-6.361699E-3	-8.132014E-3	-8.115934E-3	1.205208E-3	-8.433912E-3	-9.353394E-3	-1.353798E-2	-1.166697E-2	-6.863352E-3	-9.044249E-3	-3.132885E-3	-1.956102E-3	-5.463050E-3	-9.137244E-3	-1.601624E-3	-2.963268E-3	-1.049564E-2	4.211523E-3	1.012733E-3	-9.914928E-3	-5.982144E-3	8.910549E-5	-1.937267E-3	-7.781844E-3	-6.061978E-3	-6.445602E-3	-8.448953E-3	-6.896230E-3	-1.212817E-2	-3.823415E-3	-6.008187E-3	-1.175551E-2	-4.272006E-3	-7.032099E-3	-9.729105E-4	-6.097930E-3	-8.160590E-3	-8.307620E-3	-6.192046E-4	-9.132012E-4	-4.169297E-3	-6.941213E-3	-5.562554E-3	-1.101316E-2	-1.025901E-2	-1.703313E-3	-1.165211E-2	-4.448349E-3	-8.263753E-3	-1.809117E-3	-9.104819E-3	-5.049925E-3	-3.211130E-3	-5.055504E-3	-4.766167E-3	-4.864296E-3	-2.416931E-3	-9.303423E-3	-1.029148E-2	-4.035005E-3	-5.699464E-3	-2.382818E-3	-4.750459E-3	-2.486047E-3	-1.312858E-2	-1.115926E-2	-3.238577E-3	2.618976E-3	-1.269796E-2	-1.761518E-3	1.643873E-4	-8.015874E-3	-6.531176E-3	2.504490E-4	6.917109E-4	-4.815000E-3	-7.320833E-3	-8.363709E-3	-9.270810E-3	-5.450239E-3	-6.296613E-5	-1.061651E-2	-4.213010E-3	-3.700575E-3	-8.311935E-3	-4.490285E-3	-2.699756E-3	-7.048520E-3	-1.488809E-2	-1.972900E-3	-1.341183E-3	-1.387634E-3	6.268342E-4	-9.453301E-3	-5.779127E-3	-1.046193E-2	-4.644794E-3	-5.663960E-3	-7.773346E-3	-5.721673E-3	-9.788224E-3	9.435832E-4	-7.460235E-3	-6.486560E-3	-1.216791E-2	-7.582633E-3	-1.013114E-2	-1.514408E-2	-3.483560E-3	-8.356336E-3	1.048878E-3	-7.575428E-3	-2.407552E-3	2.293778E-3	-1.682674E-2	-8.312002E-3
5.305080E+2	-4.873011E-3	-2.111299E-3	-1.173660E-2	-8.352614E-3	2.622052E-3	5.747021E-3	-2.005505E-3	-2.380880E-3	-1.392124E-3	-4.641468E-3	-7.305744E-3	-7.822789E-3	-2.768059E-5	-1.016848E-2	-4.460680E-3	-2.725078E-3	-6.922412E-3	-4.563752E-3	2.569472E-3	2.041414E-3	-3.255215E-3	2.750781E-3	-1.359265E-3	-1.630154E-3	-1.009436E-2	-6.257036E-3	-6.880564E-3	-1.135043E-2	-6.686088E-3	-7.981726E-3	-4.423553E-3	-5.212065E-3	-7.003105E-3	-1.134579E-2	-8.623894E-3	-5.351261E-3	-5.475711E-3	-8.029465E-3	-8.457544E-3	-1.010792E-2	-3.240331E-3	-3.431783E-3	-1.107607E-2	4.448726E-3	-5.476394E-4	-8.261311E-4	-2.867323E-4	-5.113496E-3	-1.737414E-3	-5.415471E-4	-8.264706E-3	-5.918331E-3	-8.516559E-3	-8.812204E-3	1.076969E-3	-4.095886E-3	-5.352155E-3	-8.992832E-3	1.698413E-3	-4.902949E-3	-1.160525E-4	3.265359E-3	-7.078112E-3	-2.102287E-3	-6.397896E-3	-6.293590E-3	-6.658687E-3	-9.963434E-5	-8.348198E-3	1.534903E-3	-7.633068E-3	-6.374140E-3	-6.675279E-5	1.409400E-3	-8.490363E-4	-5.829206E-3	-1.741387E-3	-2.757673E-3	9.058430E-4	1.579740E-3	-6.180812E-3	-7.741352E-3	1.800306E-3	-5.908481E-3	-9.788819E-4	-2.602889E-3	3.110799E-3	-2.932648E-3	-1.100037E-2	2.204375E-4	-4.333291E-3	-8.326786E-3	-5.357561E-3	-3.337133E-3	-9.781210E-3	-6.314401E-3	-2.331758E-3	8.295329E-4	-2.350404E-3	-7.522757E-3	-1.150731E-2	-6.876963E-3	-2.146495E-3	-7.379833E-3	-3.528871E-3	-9.279553E-4	-5.327627E-3	1.576911E-3	-3.256576E-3	-1.917995E-3	-1.336972E-4	-8.778502E-3	-4.622636E-3	1.273549E-3	-2.236806E-3	-6.392591E-3	-9.570485E-3	-5.243457E-3	-2.942111E-3	-4.058894E-3	-1.986554E-3	-6.963167E-3	-4.049346E-3	-1.034833E-2	-2.565485E-3	-2.519881E-3	-8.237116E-3	-2.581664E-3	-3.213810E-3	-2.422677E-3	-4.689894E-3	-1.918581E-4	-4.520353E-3	-6.691470E-3	-6.317785E-3	-5.673316E-3	-6.495126E-3	7.878943E-4	-2.081803E-3	-3.880329E-3	-4.356404E-3	-6.169595E-3	-7.107140E-3	-4.193613E-3	-4.709176E-3	-9.108508E-3	-6.501408E-3	-2.203239E-3	2.102272E-3	-7.572070E-4	-5.824184E-3	4.387847E-4	-7.088271E-3	1.263930E-3	-4.752957E-3	-7.055655E-3	-7.810016E-3	-1.053119E-2	-3.704549E-3	-8.196771E-3	-1.163720E-2	-1.690327E-3	-1.373033E-2	6.384266E-4	-5.882243E-3	-3.880098E-3	-1.743638E-3	2.080666E-4	-4.933510E-4	4.994542E-3
5.310350E+2	1.502035E-3	-4.774166E-3	-2.484113E-3	-6.171526E-3	-5.008650E-3	-2.300775E-3	-2.742039E-3	-1.589656E-3	-5.344900E-3	-2.295950E-3	4.081389E-3	1.270859E-2	-3.974800E-3	-2.852263E-3	6.752087E-4	-7.232654E-3	-1.054216E-3	-2.247888E-3	-3.087014E-3	-7.241813E-3	-9.948737E-3	-4.296766E-3	-2.877896E-3	2.290544E-3	4.880820E-3	1.764946E-3	6.288587E-4	-4.065747E-3	1.242509E-3	-2.554858E-3	-5.363959E-4	-4.921688E-3	-1.855450E-3	2.957921E-3	-8.365811E-3	-1.538915E-3	-5.535022E-3	-4.640956E-3	-2.559471E-3	-3.508949E-3	-4.604234E-3	3.684896E-4	-2.482126E-3	2.442362E-3	-5.855955E-3	-1.538980E-2	-9.233204E-3	-4.401793E-3	5.659292E-3	-6.221902E-3	3.843707E-3	-8.830317E-3	2.544134E-4	-3.616100E-3	-5.987777E-3	1.688277E-4	1.181908E-2	1.840705E-3	-8.695325E-3	-5.082748E-3	-1.110042E-3	-4.029681E-3	4.050307E-3	-3.431656E-3	-6.120891E-3	-3.935239E-3	-1.619613E-3	-1.448787E-3	-6.966886E-4	-7.133866E-3	-2.614406E-3	-2.897907E-3	-3.361038E-3	9.357615E-3	1.205925E-3	-7.762425E-3	-1.425080E-3	7.074073E-4	-7.322081E-3	-4.753028E-3	-3.626288E-3	-3.773029E-3	9.328735E-4	-1.768086E-3	-4.323146E-3	-5.203015E-3	-6.309698E-3	3.872657E-5	-6.892761E-5	-1.144290E-3	-6.667488E-3	4.384755E-3	-2.303970E-3	-4.357293E-3	2.120981E-3	-8.122552E-3	6.065307E-3	-4.022949E-3	-3.868912E-3	-5.648742E-3	7.978245E-5	-2.839695E-3	6.381544E-4	-1.670006E-3	-2.658044E-3	-7.449181E-3	2.880826E-3	-1.038072E-2	-3.415480E-3	1.653237E-3	-2.700227E-3	5.099244E-3	3.186272E-3	-6.034321E-3	-1.940340E-3	-6.684344E-3	-1.306174E-3	-2.409572E-3	-9.101916E-3	2.852754E-3	-1.084702E-2	4.866609E-4	2.635814E-3	-4.514653E-3	7.243208E-4	1.017122E-3	-6.150318E-3	-5.833154E-3	-1.390093E-3	-6.453615E-3	1.681812E-4	-4.344238E-3	-1.671120E-3	-7.678289E-4	-8.537996E-3	-1.930734E-3	-4.455550E-3	1.189299E-3	-5.630283E-3	-4.105381E-3	-3.558816E-3	2.492178E-3	-8.422745E-4	-3.884996E-3	-3.303454E-4	-3.348759E-3	2.451159E-3	-2.408490E-3	-4.790520E-3	-7.715489E-3	-6.272465E-3	-3.766018E-3	-5.542041E-3	1.999442E-3	-8.351595E-3	-6.764361E-3	-2.950070E-3	4.044639E-3	-2.925134E-3	-1.256819E-3	6.501951E-3	-4.259404E-3	-2.220172E-3	1.043154E-3	2.607227E-3	4.550220E-4	-5.956853E-3	-4.363443E-3	-1.174722E-4	8.670370E-3
5.315180E+2	3.013043E-3	1.166033E-3	2.673342E-3	4.034586E-3	-6.125731E-4	-2.726918E-3	-4.821846E-3	-3.440155E-3	2.738724E-3	1.120801E-2	1.533023E-3	-6.321256E-3	-7.860714E-5	6.283069E-3	1.663507E-3	-4.237161E-4	-6.717353E-3	-4.274230E-3	-9.081200E-3	-2.146377E-3	-1.236242E-3	-1.092057E-3	-3.780068E-3	-4.469683E-3	1.108152E-2	-9.801984E-4	5.102350E-3	8.230533E-3	2.871524E-6	2.585372E-3	-2.314756E-3	2.698513E-3	-7.556248E-4	-5.383503E-3	8.631221E-3	2.009467E-4	5.478640E-3	1.210167E-3	5.400964E-3	2.373025E-3	-1.268663E-3	1.365458E-3	-6.890612E-3	-2.363802E-3	2.879625E-4	1.305244E-3	-1.169067E-3	1.407310E-3	-2.354640E-3	5.250445E-3	3.346553E-3	-3.526868E-3	4.510955E-3	8.862872E-4	4.896953E-4	3.264801E-3	-6.931931E-4	1.833505E-3	2.647444E-3	2.744955E-3	-3.710930E-3	-5.728282E-3	-1.768276E-3	-6.389942E-3	2.817321E-3	1.187659E-3	-5.687704E-3	4.941850E-3	-3.299167E-3	1.506972E-3	4.984754E-3	-1.978311E-3	-2.771244E-3	-5.866515E-3	-4.491285E-3	7.905778E-3	-4.490042E-3	2.060130E-3	3.402585E-3	-3.949317E-3	3.103417E-3	7.824329E-3	-3.029194E-4	-5.512291E-3	-2.674301E-3	4.805255E-3	-6.312335E-3	9.256712E-4	-2.900579E-3	1.214871E-3	4.544637E-3	-3.432410E-3	-9.153519E-3	-2.105072E-3	3.471376E-3	-4.556697E-4	2.278197E-3	1.713679E-3	-5.102576E-3	-4.572331E-3	5.312795E-3	3.846681E-3	2.107439E-3	2.846510E-3	5.118407E-3	-5.104618E-5	-3.926846E-3	6.897332E-3	1.191695E-3	-9.299390E-3	2.696415E-3	1.634871E-4	-5.512487E-3	4.548179E-3	-1.950701E-3	-6.699455E-3	-4.548523E-4	3.478891E-3	-1.259770E-4	-4.235700E-3	3.222870E-3	2.203368E-3	2.035739E-3	4.149901E-3	-1.736778E-3	2.395544E-3	5.281214E-3	2.249690E-3	-1.905409E-3	3.724643E-3	-5.005073E-4	-2.450219E-3	-8.184865E-4	4.944310E-4	4.467929E-3	1.181302E-2	8.044684E-4	9.538116E-3	1.073085E-3	6.484484E-4	-2.561297E-4	-6.833584E-4	-4.511999E-3	-2.636228E-3	-2.678983E-3	-5.077188E-3	-3.689105E-3	4.887306E-3	2.076602E-3	6.994476E-4	2.849462E-3	-3.747240E-3	1.011995E-2	-8.751498E-3	4.646527E-3	1.995206E-3	3.002082E-3	3.636609E-3	4.610455E-3	1.328439E-3	-1.085398E-2	-2.579786E-3	3.599113E-3	-2.699291E-3	-1.834264E-3	-7.834892E-3	7.511843E-3	-3.580079E-3	1.263886E-3	-2.945657E-2
5.320120E+2	-3.375646E-4	-1.003886E-3	6.714961E-3	1.042721E-3	5.999494E-3	-3.807801E-3	4.242448E-3	1.067773E-3	1.825432E-3	-3.160940E-3	1.157841E-3	4.948806E-3	1.836462E-3	4.430356E-3	6.810021E-3	-2.217121E-4	4.773626E-3	9.157462E-3	4.330097E-3	1.495450E-3	1.255609E-2	7.396058E-3	1.051490E-3	6.978956E-4	-5.069826E-3	1.978036E-3	-7.565223E-4	1.142298E-2	3.200298E-3	4.122653E-3	1.008017E-2	3.360281E-3	4.332297E-3	9.449632E-3	-1.720768E-3	1.008964E-3	1.267604E-3	6.132839E-3	3.804617E-3	-2.385006E-3	5.647375E-3	7.425787E-5	1.138547E-2	-3.451193E-4	6.666913E-3	1.195767E-2	8.657549E-4	7.051203E-3	3.862917E-3	-2.752543E-3	-5.463205E-3	1.105834E-2	-1.017560E-2	-5.029466E-4	3.970564E-3	1.014845E-2	-1.020211E-3	9.921734E-4	6.064905E-3	5.766588E-3	3.074784E-3	5.199061E-3	3.078330E-3	9.181126E-3	-3.365923E-4	3.451597E-3	1.358404E-2	5.568464E-4	7.832789E-3	-6.313758E-4	1.401308E-3	-3.964495E-4	-7.496515E-4	5.778239E-3	-3.735237E-3	-3.030861E-3	-3.841905E-3	-1.789891E-3	1.055049E-3	6.192164E-4	5.157736E-4	4.345087E-3	2.988406E-3	1.347100E-2	6.973480E-3	1.704956E-3	4.167512E-3	1.159255E-3	8.599588E-3	2.598025E-3	8.022434E-3	8.721952E-3	7.553357E-3	6.247007E-3	5.954206E-3	1.004243E-2	-5.658503E-3	4.799557E-3	9.856763E-3	-1.142020E-3	6.460954E-3	7.384290E-4	6.785463E-3	4.446627E-3	7.034289E-3	7.218249E-4	3.079790E-3	-1.666756E-4	-2.297439E-3	1.063903E-2	-8.316944E-3	7.012116E-3	1.053175E-3	-5.418738E-4	9.601530E-3	1.315913E-2	6.538885E-3	-1.331632E-3	1.364083E-2	6.863637E-3	5.066431E-3	-8.508317E-4	1.077711E-3	6.854409E-3	-4.016338E-3	3.197126E-4	8.725137E-3	-2.141076E-4	2.386506E-3	8.555105E-3	6.169806E-3	1.580022E-3	2.801059E-3	7.866079E-3	2.077806E-3	7.273863E-4	-1.361771E-3	-5.873593E-3	-4.007194E-4	-2.867137E-3	-5.078359E-4	3.182808E-3	1.412359E-2	1.733073E-3	-6.585889E-3	7.162918E-3	3.861350E-3	3.842054E-4	-1.132782E-3	1.064926E-2	7.420448E-3	5.205621E-3	4.553803E-3	2.197305E-3	2.019533E-3	5.146363E-3	9.250064E-4	1.656620E-3	6.635379E-3	7.415308E-3	1.252693E-2	8.276483E-3	1.478750E-3	7.612795E-3	3.385765E-3	4.607673E-3	-6.968073E-3	1.635841E-3	2.021925E-2	3.222119E-2
5.325120E+2	1.194172E-3	2.172482E-2	1.073045E-2	1.082345E-2	3.639916E-3	3.006655E-3	3.915578E-3	7.944429E-3	9.379919E-3	2.055257E-3	4.045171E-3	3.100152E-3	8.701736E-3	2.366919E-3	7.256687E-3	1.271201E-2	1.678940E-2	6.113935E-3	1.455038E-2	1.178289E-2	1.041827E-2	4.633386E-3	1.029813E-2	1.021794E-2	-5.336910E-4	1.360044E-2	1.044703E-2	-2.116499E-3	6.618005E-3	2.797183E-4	1.010969E-2	1.140929E-2	1.191226E-2	1.157248E-2	8.911493E-3	1.221884E-2	1.353203E-2	1.047867E-2	8.545604E-3	1.809161E-2	7.335917E-3	8.116871E-3	1.478730E-2	3.870399E-3	6.260419E-3	9.721468E-3	1.294355E-2	9.595172E-3	3.342023E-3	4.416719E-3	1.151095E-2	1.108627E-2	1.718918E-2	1.388935E-2	6.812247E-3	-1.354181E-3	3.362415E-3	3.121241E-3	6.718477E-3	1.082755E-2	1.540022E-2	1.296052E-2	8.581103E-3	1.178701E-2	1.317094E-2	7.545676E-3	5.845019E-3	5.186969E-3	6.112889E-3	7.686635E-3	1.435705E-2	7.435285E-3	5.935954E-3	-7.638104E-4	1.385178E-2	8.627610E-3	1.343568E-2	9.561871E-3	8.020582E-3	1.294899E-2	1.463686E-2	6.241195E-3	6.709504E-3	3.541273E-3	7.011036E-3	1.305120E-2	9.615728E-3	7.841094E-3	6.343198E-3	3.208886E-3	6.594299E-3	6.960109E-3	9.880898E-3	4.465692E-3	2.403944E-3	1.179140E-2	5.209311E-3	7.693338E-3	1.172414E-2	2.058916E-2	1.130589E-2	9.579896E-3	8.791914E-4	3.565819E-3	3.139039E-3	1.275628E-2	6.504987E-3	7.128659E-3	1.254397E-2	3.789419E-3	1.087138E-2	5.807078E-3	1.618716E-2	4.789471E-3	2.225781E-3	9.000075E-3	9.543085E-3	7.991817E-3	1.165775E-2	9.737460E-3	7.782856E-3	2.504994E-3	1.099804E-2	5.620195E-3	7.429894E-3	6.803377E-3	6.912258E-3	6.128786E-3	3.431094E-3	1.411543E-3	6.173247E-3	1.377000E-2	1.347971E-2	4.549028E-3	8.373011E-3	5.680161E-3	1.572099E-2	-1.941141E-3	1.535166E-2	1.469468E-2	1.137894E-2	8.226486E-3	1.322591E-2	1.095466E-2	1.564558E-2	1.175917E-2	3.251170E-3	8.793519E-3	7.523555E-3	7.585925E-3	6.471532E-3	7.532812E-3	5.729906E-3	9.012494E-3	1.622672E-2	5.734864E-3	1.429323E-2	7.679887E-3	7.551757E-3	8.292475E-3	1.359344E-2	1.539712E-2	1.435619E-2	1.761251E-3	6.746364E-4	1.422772E-2	9.564274E-3	3.805836E-3	-4.045575E-3	-8.117533E-3
5.330180E+2	1.675641E-2	1.001525E-2	1.131990E-2	2.031494E-2	1.121546E-2	2.078809E-2	1.988412E-2	1.884037E-2	2.419753E-2	1.495882E-2	1.274356E-2	2.022045E-2	1.884531E-2	1.940777E-2	1.055272E-2	1.632221E-2	1.775832E-2	1.255590E-2	1.917279E-2	1.787878E-2	1.653697E-2	1.944135E-2	1.526240E-2	2.197203E-2	3.040613E-2	2.555518E-2	1.382140E-2	1.113121E-2	2.358179E-2	1.694485E-2	1.196163E-2	2.734642E-2	1.815204E-2	1.500446E-2	2.041102E-2	1.783431E-2	1.794997E-2	1.704716E-2	1.873978E-2	1.201288E-2	1.993306E-2	1.088794E-2	2.126860E-2	2.042661E-2	7.846957E-3	1.134945E-2	2.891726E-2	1.951668E-2	1.509715E-2	1.350257E-2	1.519043E-2	2.476574E-2	1.149172E-2	1.543730E-2	1.219823E-2	2.649002E-2	9.094535E-3	8.674049E-3	1.839451E-2	2.292462E-2	2.359013E-2	1.025052E-2	1.898197E-2	2.026468E-2	1.062069E-2	2.871808E-2	2.228310E-2	1.871799E-2	1.912123E-2	2.143219E-2	2.136213E-2	2.061505E-2	1.228498E-2	1.590965E-2	2.820394E-2	3.129308E-2	1.813827E-2	8.926024E-3	1.480047E-2	2.003997E-2	1.436388E-2	3.038402E-2	1.995443E-2	9.838334E-3	1.635892E-2	2.135033E-2	1.731557E-2	7.232728E-3	2.535153E-2	1.034559E-2	8.114442E-3	1.282454E-2	1.247778E-2	9.273550E-3	1.716585E-2	1.554122E-2	2.070751E-2	2.711721E-3	2.376402E-2	2.907775E-2	1.381827E-2	1.788888E-2	2.992563E-2	2.300091E-2	1.519332E-2	1.764517E-2	1.476405E-2	1.919356E-2	1.841799E-2	1.700589E-2	2.413616E-2	1.191422E-2	1.588275E-2	3.355515E-2	2.072369E-2	1.107527E-2	2.304043E-2	1.168410E-2	2.305997E-2	2.433444E-2	9.695578E-3	2.170082E-2	1.478743E-2	1.777208E-2	1.217617E-2	1.728194E-2	1.825805E-2	1.730088E-2	9.854146E-3	1.862172E-2	2.721296E-2	2.371737E-2	2.749594E-2	1.032575E-2	2.126928E-2	1.536549E-2	2.370065E-2	2.232114E-3	8.312065E-3	8.042523E-3	2.791784E-2	1.630250E-2	9.815367E-3	1.854024E-2	1.885918E-2	1.263517E-2	2.506772E-2	1.766050E-2	1.213622E-2	1.632158E-2	1.401880E-2	1.203415E-2	6.590640E-3	1.327754E-2	2.621852E-2	2.195286E-2	1.597972E-2	1.906945E-2	2.306608E-2	1.703841E-2	1.284282E-2	7.571739E-3	2.523221E-2	1.168718E-2	1.694706E-2	1.500948E-2	1.846419E-2	1.630115E-2	3.663707E-2	1.110824E-2
5.331630E+2	1.349376E-2	2.482766E-2	2.315319E-2	2.535608E-2	2.088226E-2	1.988658E-2	1.353489E-2	2.428636E-2	2.184410E-2	1.795524E-2	1.824369E-2	1.879457E-2	1.743766E-2	1.850663E-2	2.593430E-2	2.687252E-2	2.209348E-2	1.856954E-2	2.258899E-2	1.501028E-2	2.403792E-2	1.989858E-2	1.904292E-2	2.037002E-2	2.286296E-2	2.492173E-2	3.277833E-2	1.394849E-2	3.044766E-2	2.256171E-2	2.377515E-2	2.375394E-2	1.743930E-2	3.017739E-2	2.208711E-2	2.680021E-2	1.343068E-2	2.062856E-2	1.727593E-2	1.924621E-2	1.585081E-2	1.840979E-2	2.183837E-2	1.743850E-2	2.374134E-2	1.445515E-2	2.369476E-2	2.375991E-2	1.657494E-2	2.275510E-2	2.228511E-2	1.064779E-2	1.443985E-2	2.290611E-2	1.685240E-2	2.978189E-2	1.938373E-2	1.651876E-2	1.801322E-2	2.612328E-2	3.197317E-2	1.060010E-2	2.448229E-2	1.726857E-2	3.138406E-2	2.146933E-2	2.473067E-2	2.086028E-2	2.836090E-2	2.263759E-2	2.933206E-2	3.035235E-2	1.078396E-2	2.013499E-2	2.344508E-2	2.440932E-2	3.954062E-2	2.436353E-2	1.467812E-2	2.045781E-2	2.214347E-2	1.621448E-2	2.531613E-2	2.296307E-2	2.005653E-2	1.963822E-2	3.555458E-2	1.473654E-2	2.401848E-2	1.639643E-2	1.445922E-2	2.580869E-2	1.376962E-2	1.921703E-2	2.529379E-2	2.503332E-2	2.381712E-2	2.921277E-2	2.666062E-2	3.388748E-2	2.349594E-2	2.676263E-2	2.738308E-2	2.021273E-2	2.798810E-2	2.611461E-2	2.143627E-2	2.181883E-2	2.723378E-2	2.346690E-2	1.949847E-2	2.989422E-2	2.268320E-2	2.504802E-2	2.625261E-2	2.406267E-2	2.516661E-2	1.503930E-2	3.058329E-2	2.858972E-2	2.376368E-2	3.279573E-2	1.514293E-2	3.766293E-2	2.859929E-2	1.767254E-2	1.676541E-2	1.404848E-2	1.845880E-2	2.520227E-2	2.240356E-2	2.279749E-2	1.889155E-2	2.088723E-2	3.700077E-2	2.022601E-2	2.587243E-2	2.122213E-2	2.740017E-2	1.750564E-2	1.925747E-2	3.006905E-2	2.134317E-2	3.248598E-2	1.094705E-2	1.416038E-2	2.236027E-2	2.285853E-2	1.991749E-2	2.476209E-2	1.926726E-2	2.780640E-2	1.636413E-2	1.477989E-2	2.375786E-2	2.295873E-2	2.659225E-2	2.413349E-2	1.853169E-2	2.220902E-2	1.586483E-2	1.456993E-2	3.096188E-2	1.592516E-2	2.007622E-2	1.718903E-2	2.442069E-2	3.049486E-2	2.348258E-2	4.016488E-2
5.333080E+2	3.160851E-2	3.043072E-2	2.230485E-2	2.943340E-2	3.008345E-2	2.984977E-2	2.924990E-2	3.226949E-2	2.909864E-2	2.552396E-2	2.257331E-2	2.463752E-2	2.660110E-2	1.904644E-2	4.174753E-2	3.097385E-2	2.966195E-2	3.054785E-2	2.165729E-2	2.216361E-2	3.158338E-2	3.307696E-2	2.679216E-2	2.922822E-2	2.872011E-2	3.736269E-2	3.717064E-2	3.674704E-2	2.622618E-2	2.699399E-2	2.925874E-2	3.238265E-2	2.200723E-2	3.612556E-2	3.109665E-2	2.822478E-2	2.259501E-2	2.783233E-2	2.644833E-2	3.463560E-2	3.637662E-2	2.870518E-2	1.380048E-2	2.863478E-2	2.474104E-2	2.742551E-2	3.108742E-2	3.059631E-2	3.051800E-2	3.124919E-2	4.032338E-2	3.354231E-2	1.846529E-2	2.713177E-2	3.933246E-2	3.143368E-2	2.676152E-2	2.531471E-2	3.533332E-2	2.801191E-2	4.002318E-2	2.372943E-2	2.285907E-2	2.298858E-2	2.308803E-2	4.005168E-2	3.127151E-2	2.810331E-2	3.245246E-2	4.102830E-2	4.275653E-2	1.958302E-2	2.640784E-2	2.699940E-2	3.391345E-2	3.645922E-2	1.510878E-2	2.860529E-2	3.150478E-2	2.696160E-2	2.631388E-2	3.470781E-2	3.134442E-2	2.766177E-2	2.558367E-2	3.753421E-2	3.097546E-2	2.417359E-2	2.773518E-2	3.673828E-2	2.765974E-2	4.273495E-2	2.318509E-2	2.892507E-2	2.305908E-2	2.083980E-2	3.276190E-2	3.175638E-2	3.156332E-2	2.211593E-2	2.846718E-2	2.942565E-2	3.296196E-2	3.244398E-2	2.370417E-2	3.328135E-2	3.455712E-2	3.902158E-2	3.713930E-2	2.449376E-2	1.933820E-2	3.207950E-2	3.170732E-2	3.836183E-2	2.189640E-2	2.920174E-2	3.383380E-2	3.009419E-2	3.496801E-2	2.844061E-2	2.838667E-2	1.839068E-2	3.586332E-2	3.046666E-2	2.474330E-2	3.177723E-2	2.867452E-2	1.924626E-2	3.055776E-2	3.002370E-2	3.304188E-2	2.245896E-2	2.461122E-2	2.988481E-2	2.290693E-2	3.132904E-2	3.202604E-2	3.325294E-2	3.040397E-2	2.789504E-2	3.279063E-2	3.155878E-2	2.798335E-2	3.340860E-2	3.901883E-2	2.419381E-2	3.620709E-2	3.207096E-2	3.614499E-2	2.265187E-2	2.915001E-2	4.044706E-2	2.069860E-2	2.131371E-2	3.426533E-2	3.443625E-2	3.738079E-2	2.748218E-2	3.527769E-2	2.309666E-2	1.872871E-2	1.579011E-2	2.467550E-2	3.174224E-2	3.123236E-2	1.863165E-2	3.022849E-2	3.302202E-2	2.584796E-2	3.973571E-2
5.334580E+2	4.210025E-2	4.133639E-2	3.567142E-2	3.371151E-2	3.985468E-2	4.780283E-2	3.470827E-2	3.132255E-2	4.174793E-2	3.089626E-2	4.685270E-2	3.721875E-2	3.556541E-2	4.382079E-2	2.540134E-2	4.071405E-2	4.531457E-2	2.963810E-2	4.042093E-2	3.911117E-2	3.586955E-2	3.704076E-2	3.925730E-2	3.825841E-2	4.898588E-2	4.430977E-2	2.610117E-2	2.913498E-2	5.411602E-2	4.388878E-2	4.125443E-2	4.171164E-2	2.929130E-2	3.635411E-2	4.282874E-2	3.133091E-2	4.649139E-2	3.889569E-2	3.038559E-2	2.517351E-2	5.022356E-2	3.501116E-2	4.167252E-2	4.343994E-2	3.793529E-2	4.241398E-2	3.050372E-2	4.278365E-2	3.736048E-2	3.365186E-2	3.616083E-2	4.512462E-2	3.559032E-2	3.038001E-2	3.346664E-2	3.985738E-2	2.913132E-2	4.160001E-2	3.816688E-2	3.621679E-2	4.618477E-2	4.361394E-2	3.743369E-2	3.325573E-2	4.995718E-2	3.570328E-2	4.261479E-2	4.987906E-2	4.207075E-2	5.028633E-2	4.403954E-2	3.612119E-2	3.264601E-2	3.433989E-2	4.722763E-2	3.892044E-2	3.767917E-2	3.529628E-2	3.661401E-2	3.736074E-2	3.332210E-2	3.592562E-2	3.504591E-2	2.331752E-2	4.590222E-2	5.154897E-2	4.408332E-2	4.116823E-2	3.989408E-2	4.632464E-2	2.790336E-2	3.085287E-2	4.020226E-2	4.390981E-2	4.371060E-2	2.760551E-2	3.016514E-2	4.182973E-2	2.947078E-2	3.493474E-2	3.857431E-2	3.271900E-2	4.317235E-2	3.522602E-2	4.882735E-2	3.056845E-2	2.469343E-2	3.983295E-2	3.650771E-2	4.064350E-2	3.989126E-2	3.747884E-2	4.422242E-2	3.136670E-2	3.813837E-2	1.859852E-2	3.721279E-2	2.701469E-2	4.068308E-2	3.884583E-2	3.139656E-2	5.339935E-2	3.331361E-2	3.211253E-2	5.371398E-2	4.383140E-2	3.946716E-2	2.455118E-2	4.377910E-2	3.752113E-2	4.563087E-2	3.898081E-2	3.442014E-2	4.565837E-2	4.326808E-2	3.975292E-2	3.822733E-2	2.563669E-2	3.607134E-2	4.673567E-2	4.949844E-2	3.931080E-2	4.084489E-2	4.530959E-2	3.096119E-2	3.249592E-2	3.954246E-2	3.499473E-2	3.349547E-2	4.225653E-2	4.487536E-2	3.727117E-2	3.209430E-2	3.698581E-2	4.956546E-2	3.827720E-2	4.005613E-2	3.010485E-2	3.886532E-2	4.978692E-2	4.029237E-2	3.550876E-2	2.494048E-2	2.983419E-2	3.381628E-2	5.167081E-2	3.776084E-2	4.476509E-2	4.701409E-2	4.778403E-2
5.336080E+2	5.481573E-2	4.308603E-2	5.541226E-2	4.910594E-2	5.267913E-2	4.844909E-2	5.780032E-2	5.165691E-2	5.085965E-2	6.254266E-2	5.252153E-2	2.788368E-2	4.287684E-2	4.533551E-2	5.856113E-2	4.829060E-2	4.922091E-2	4.449217E-2	5.287190E-2	4.943919E-2	4.903529E-2	5.168853E-2	5.604529E-2	5.794229E-2	4.492758E-2	5.371762E-2	6.195415E-2	5.948321E-2	4.787329E-2	4.154232E-2	5.097155E-2	5.775755E-2	4.399463E-2	6.217712E-2	5.696225E-2	6.173682E-2	4.134488E-2	3.836572E-2	4.667365E-2	4.825525E-2	6.139684E-2	5.571085E-2	4.318325E-2	5.613410E-2	4.491996E-2	4.366207E-2	5.239036E-2	4.895097E-2	4.999004E-2	4.803981E-2	5.093916E-2	4.234639E-2	3.980372E-2	4.272279E-2	4.748507E-2	5.414839E-2	5.392539E-2	5.060226E-2	6.720745E-2	3.569221E-2	4.823660E-2	5.557414E-2	4.064088E-2	4.434990E-2	6.118237E-2	5.260316E-2	3.965206E-2	5.212107E-2	4.329181E-2	5.168829E-2	5.301743E-2	5.186398E-2	3.879762E-2	4.863125E-2	5.227178E-2	4.512566E-2	4.518261E-2	4.482026E-2	3.910918E-2	5.366329E-2	5.093396E-2	7.023063E-2	4.675207E-2	3.843945E-2	4.158703E-2	5.009072E-2	4.525087E-2	5.767717E-2	5.016784E-2	5.379942E-2	3.826163E-2	3.719540E-2	4.563731E-2	5.699179E-2	6.253301E-2	4.310461E-2	6.139096E-2	4.413715E-2	5.435879E-2	5.030303E-2	4.418013E-2	5.809366E-2	3.541092E-2	5.585361E-2	5.604021E-2	6.180459E-2	5.476347E-2	6.017690E-2	5.232629E-2	4.141963E-2	5.311556E-2	4.575184E-2	5.473848E-2	5.106348E-2	4.707624E-2	4.646980E-2	4.053966E-2	4.276372E-2	3.507605E-2	4.938177E-2	4.070853E-2	4.944135E-2	4.169425E-2	4.859099E-2	4.300231E-2	4.556014E-2	5.461684E-2	4.870733E-2	5.975047E-2	5.916217E-2	5.767116E-2	5.565930E-2	4.394449E-2	4.507692E-2	4.068363E-2	5.316958E-2	5.436841E-2	3.474794E-2	5.980700E-2	5.207518E-2	3.446049E-2	4.612587E-2	5.078864E-2	4.642606E-2	3.808528E-2	4.288517E-2	4.940722E-2	5.952618E-2	5.565216E-2	4.751163E-2	4.753128E-2	4.871985E-2	5.391367E-2	5.593580E-2	4.325663E-2	4.908603E-2	5.901055E-2	5.329583E-2	4.643058E-2	4.966264E-2	5.192003E-2	3.800873E-2	4.570213E-2	5.662156E-2	5.775225E-2	4.930533E-2	5.750488E-2	4.541387E-2	6.416664E-2	6.882903E-2
5.337580E+2	6.290355E-2	5.424264E-2	5.239744E-2	6.669104E-2	6.668253E-2	6.522466E-2	4.882387E-2	5.357396E-2	6.472835E-2	7.194224E-2	6.492849E-2	4.811144E-2	6.084154E-2	4.481791E-2	5.729720E-2	4.873967E-2	4.595329E-2	5.255693E-2	5.433913E-2	4.560279E-2	5.836680E-2	5.003798E-2	5.812586E-2	5.653418E-2	6.621197E-2	7.700521E-2	6.821313E-2	5.872340E-2	7.591939E-2	4.930861E-2	7.166342E-2	7.343001E-2	5.841945E-2	5.612889E-2	6.000286E-2	6.984041E-2	5.872898E-2	6.383501E-2	5.837075E-2	6.677358E-2	6.227513E-2	5.245972E-2	6.281725E-2	6.070081E-2	6.137102E-2	6.566297E-2	5.632736E-2	5.359351E-2	4.968973E-2	6.389496E-2	6.277851E-2	7.021666E-2	6.099066E-2	8.199929E-2	8.092034E-2	6.452478E-2	7.087438E-2	5.895037E-2	5.591896E-2	6.479917E-2	5.751265E-2	5.296915E-2	6.544860E-2	5.561413E-2	6.147309E-2	6.684710E-2	7.169303E-2	5.935302E-2	6.589441E-2	5.655650E-2	5.299108E-2	5.222299E-2	6.233760E-2	6.940661E-2	7.312235E-2	6.798560E-2	5.990938E-2	7.372004E-2	6.171661E-2	6.425291E-2	6.723116E-2	5.174220E-2	5.580137E-2	6.500076E-2	7.124853E-2	5.904602E-2	5.710716E-2	6.901871E-2	5.380124E-2	6.157792E-2	6.309688E-2	6.330595E-2	5.251101E-2	6.064890E-2	5.071044E-2	5.045023E-2	7.328988E-2	5.130104E-2	5.580434E-2	6.324561E-2	6.684299E-2	6.713738E-2	5.013462E-2	5.162876E-2	6.257958E-2	6.676096E-2	6.566659E-2	5.816518E-2	5.880902E-2	5.486638E-2	7.881804E-2	6.178241E-2	7.861472E-2	5.788618E-2	5.690392E-2	6.368278E-2	6.074788E-2	6.209093E-2	5.657207E-2	6.822980E-2	5.026391E-2	5.477806E-2	6.681974E-2	6.654100E-2	7.056818E-2	6.046415E-2	7.854971E-2	5.692196E-2	5.957847E-2	7.829343E-2	6.098486E-2	6.883515E-2	5.283437E-2	5.023947E-2	7.487555E-2	6.710652E-2	7.630731E-2	5.541748E-2	5.812513E-2	5.452863E-2	6.416890E-2	6.925816E-2	6.262016E-2	5.278799E-2	6.320287E-2	6.464752E-2	6.160534E-2	6.736551E-2	6.493177E-2	6.503169E-2	6.052254E-2	6.844764E-2	6.368313E-2	6.949376E-2	6.324174E-2	6.305913E-2	6.789032E-2	6.918867E-2	5.622049E-2	5.561811E-2	6.297941E-2	4.857170E-2	5.744044E-2	6.404356E-2	6.695521E-2	5.908851E-2	6.101400E-2	6.823874E-2	6.229798E-2	8.427899E-2
5.339340E+2	8.291370E-2	9.410729E-2	8.854980E-2	8.214366E-2	8.848867E-2	8.467217E-2	9.513772E-2	9.815760E-2	8.139881E-2	9.197402E-2	7.521886E-2	6.979793E-2	8.908363E-2	8.902383E-2	8.106854E-2	9.193694E-2	8.786694E-2	8.038255E-2	9.504637E-2	7.626991E-2	9.141156E-2	1.109828E-1	9.072015E-2	8.621126E-2	1.009873E-1	1.072668E-1	9.719946E-2	9.582813E-2	1.084881E-1	8.523902E-2	1.046937E-1	7.796920E-2	9.445835E-2	8.956558E-2	1.001528E-1	1.027579E-1	1.008014E-1	8.265974E-2	1.064764E-1	9.484833E-2	8.258352E-2	9.885332E-2	1.116036E-1	1.116698E-1	1.012752E-1	1.003327E-1	9.267718E-2	9.536822E-2	9.339731E-2	8.217213E-2	8.640239E-2	8.966243E-2	8.538314E-2	8.624370E-2	1.199803E-1	1.046264E-1	9.576974E-2	9.278433E-2	8.460067E-2	8.255567E-2	9.727510E-2	8.797185E-2	6.796467E-2	9.882600E-2	1.030199E-1	8.947977E-2	9.102990E-2	9.088340E-2	8.863967E-2	9.527295E-2	8.807442E-2	7.846755E-2	9.670762E-2	8.980011E-2	9.360193E-2	1.032590E-1	8.689766E-2	1.069815E-1	9.326473E-2	8.455903E-2	9.861693E-2	9.302223E-2	9.755564E-2	1.019666E-1	8.258055E-2	1.048793E-1	9.211483E-2	9.400647E-2	1.124323E-1	9.922721E-2	8.558148E-2	8.625904E-2	8.757315E-2	1.021361E-1	9.444710E-2	1.181875E-1	1.062954E-1	9.509814E-2	1.051589E-1	1.001916E-1	9.318280E-2	8.170762E-2	9.669506E-2	9.203831E-2	1.016995E-1	8.813826E-2	7.780711E-2	8.764189E-2	9.320694E-2	7.259394E-2	9.361254E-2	9.273120E-2	1.032967E-1	9.253845E-2	9.997934E-2	8.476086E-2	7.890652E-2	8.626226E-2	8.074188E-2	9.598452E-2	9.269555E-2	8.919913E-2	1.049236E-1	1.013128E-1	1.074665E-1	9.242042E-2	8.713530E-2	8.267881E-2	9.656553E-2	9.645946E-2	8.137920E-2	9.536520E-2	1.017749E-1	9.188576E-2	1.043852E-1	8.271637E-2	1.037488E-1	1.003617E-1	9.677867E-2	8.860748E-2	8.537307E-2	9.763792E-2	7.490905E-2	9.465552E-2	1.053324E-1	8.486371E-2	8.239506E-2	9.677635E-2	8.386314E-2	9.076882E-2	8.178953E-2	1.005778E-1	9.257269E-2	9.763591E-2	8.176867E-2	9.941077E-2	9.317942E-2	8.038204E-2	9.117074E-2	6.806730E-2	9.884334E-2	8.823972E-2	9.234979E-2	8.299264E-2	1.000319E-1	9.650550E-2	8.797943E-2	1.091462E-1	1.104979E-1	9.433798E-2
5.340640E+2	1.323752E-1	1.362046E-1	1.331349E-1	1.424010E-1	1.134046E-1	1.224021E-1	1.315536E-1	1.250957E-1	1.367160E-1	1.296560E-1	1.310790E-1	1.278930E-1	1.383844E-1	1.185493E-1	1.210386E-1	1.217092E-1	1.282172E-1	1.259647E-1	1.283144E-1	1.168472E-1	1.236985E-1	1.319234E-1	1.246871E-1	1.172434E-1	1.805529E-1	1.567717E-1	1.511757E-1	1.543067E-1	1.537329E-1	1.464227E-1	1.482629E-1	1.479544E-1	1.381532E-1	1.437984E-1	1.357785E-1	1.390058E-1	1.497237E-1	1.377809E-1	1.268546E-1	1.374087E-1	1.490502E-1	1.386264E-1	1.434828E-1	1.431917E-1	1.404038E-1	1.280173E-1	1.397719E-1	1.372909E-1	1.370327E-1	1.446731E-1	1.494046E-1	1.230934E-1	1.520312E-1	1.330212E-1	1.259200E-1	1.333693E-1	1.310469E-1	1.450372E-1	1.503998E-1	1.360657E-1	1.457641E-1	1.424997E-1	1.298720E-1	1.251080E-1	1.231645E-1	1.323172E-1	1.470685E-1	1.582146E-1	1.501743E-1	1.509337E-1	1.462950E-1	1.274365E-1	1.226982E-1	1.401825E-1	1.461568E-1	1.354245E-1	1.443133E-1	1.408273E-1	1.200358E-1	1.237255E-1	1.374065E-1	1.344269E-1	1.415952E-1	1.358075E-1	1.230256E-1	1.441225E-1	1.227316E-1	1.310340E-1	1.479214E-1	1.453059E-1	1.483671E-1	1.320683E-1	1.255060E-1	1.554548E-1	1.264070E-1	1.492528E-1	1.252605E-1	1.209974E-1	1.490702E-1	1.287018E-1	1.285709E-1	1.338023E-1	1.311800E-1	1.302291E-1	1.372897E-1	1.232709E-1	1.262960E-1	1.185922E-1	1.419934E-1	1.502615E-1	1.390494E-1	1.370911E-1	1.462315E-1	1.318249E-1	1.280085E-1	1.502717E-1	1.223189E-1	1.326762E-1	1.512022E-1	1.424385E-1	1.417894E-1	1.346304E-1	1.307680E-1	1.358534E-1	1.219827E-1	1.467985E-1	1.444856E-1	1.191228E-1	1.293506E-1	1.317959E-1	1.338124E-1	1.325523E-1	1.431479E-1	1.381552E-1	1.331804E-1	1.462075E-1	1.521833E-1	1.343979E-1	1.286153E-1	1.390696E-1	1.265056E-1	1.321908E-1	1.309477E-1	1.428441E-1	1.456894E-1	1.341728E-1	1.264119E-1	1.542274E-1	1.466881E-1	1.288395E-1	1.319935E-1	1.375797E-1	1.072404E-1	1.430284E-1	1.316512E-1	1.253095E-1	1.266024E-1	1.359060E-1	1.294351E-1	1.433332E-1	1.330938E-1	1.524733E-1	1.316064E-1	1.330874E-1	1.309429E-1	1.286781E-1	1.365502E-1	1.378852E-1	1.241207E-1	1.636545E-1
5.342090E+2	2.219614E-1	2.362352E-1	2.203960E-1	2.226082E-1	2.154329E-1	2.097346E-1	2.050859E-1	2.074575E-1	2.272601E-1	2.387111E-1	2.315803E-1	2.194933E-1	2.138830E-1	2.179233E-1	2.150413E-1	2.136762E-1	2.087888E-1	2.174200E-1	2.054756E-1	1.928633E-1	2.225430E-1	2.001412E-1	2.138228E-1	2.181772E-1	3.049312E-1	2.663125E-1	2.348395E-1	2.565455E-1	2.448223E-1	2.387126E-1	2.490288E-1	2.218264E-1	2.355984E-1	2.318118E-1	2.436986E-1	2.208028E-1	2.528501E-1	2.233593E-1	2.259812E-1	2.252931E-1	2.306941E-1	2.114918E-1	2.395946E-1	2.308502E-1	2.276881E-1	2.345424E-1	2.393987E-1	2.118326E-1	2.199226E-1	2.216886E-1	2.386057E-1	2.110451E-1	2.317000E-1	2.413097E-1	2.388520E-1	2.318768E-1	2.161603E-1	2.303078E-1	2.281919E-1	2.148310E-1	2.378485E-1	2.057257E-1	2.252140E-1	2.137082E-1	2.262135E-1	2.225208E-1	2.484916E-1	2.235306E-1	2.343520E-1	2.220415E-1	2.342735E-1	2.395692E-1	1.999890E-1	2.127367E-1	2.099519E-1	2.121917E-1	2.011517E-1	2.060607E-1	2.157091E-1	2.193625E-1	2.403352E-1	2.358234E-1	2.253147E-1	2.131089E-1	2.424789E-1	2.108355E-1	2.416144E-1	2.340267E-1	2.243352E-1	2.339531E-1	2.371791E-1	2.439839E-1	2.172683E-1	2.244392E-1	2.398603E-1	2.493823E-1	2.130281E-1	2.141117E-1	2.378896E-1	2.026665E-1	2.057122E-1	2.092084E-1	2.230771E-1	2.204048E-1	2.306567E-1	2.205568E-1	2.324710E-1	2.225254E-1	2.379607E-1	2.293824E-1	2.295915E-1	2.211737E-1	2.306517E-1	2.254091E-1	2.214245E-1	2.284437E-1	2.247895E-1	2.129638E-1	2.152051E-1	2.320742E-1	2.242662E-1	2.358907E-1	2.200829E-1	2.324265E-1	2.432051E-1	2.214686E-1	2.103970E-1	2.211277E-1	2.300228E-1	2.306146E-1	2.202580E-1	2.221494E-1	2.200456E-1	2.290011E-1	2.288859E-1	2.259602E-1	2.184136E-1	2.483740E-1	2.151977E-1	2.349771E-1	2.158988E-1	2.362765E-1	2.272539E-1	2.289323E-1	2.121066E-1	2.291812E-1	2.107622E-1	2.189754E-1	2.152711E-1	2.417295E-1	2.124055E-1	2.173251E-1	2.235569E-1	2.202247E-1	2.029676E-1	2.234978E-1	2.358228E-1	2.269229E-1	2.251155E-1	2.012575E-1	2.290982E-1	2.096546E-1	2.242364E-1	2.115727E-1	2.191409E-1	2.347952E-1	2.085959E-1	2.211018E-1	2.418410E-1	2.308016E-1
5.343600E+2	3.675103E-1	3.894375E-1	3.567106E-1	3.332369E-1	3.646216E-1	3.580118E-1	3.721333E-1	3.595324E-1	3.646076E-1	3.730734E-1	3.715268E-1	3.546510E-1	3.663855E-1	3.817893E-1	3.580814E-1	3.418573E-1	3.772774E-1	3.893110E-1	3.553705E-1	3.637831E-1	3.903803E-1	3.845822E-1	3.468608E-1	3.782715E-1	4.486660E-1	4.871237E-1	4.344555E-1	4.320835E-1	4.312618E-1	4.215970E-1	4.169529E-1	4.074190E-1	4.065324E-1	4.312464E-1	3.985682E-1	4.220403E-1	4.020136E-1	4.160657E-1	3.872751E-1	4.080710E-1	4.191564E-1	4.005928E-1	4.246660E-1	3.487896E-1	3.943253E-1	4.074902E-1	4.032076E-1	3.799330E-1	3.794304E-1	3.961446E-1	3.972896E-1	3.904715E-1	3.808230E-1	3.924616E-1	3.870628E-1	3.779381E-1	4.090909E-1	3.795846E-1	3.791868E-1	3.979228E-1	3.701223E-1	4.024607E-1	4.089689E-1	3.713109E-1	3.928473E-1	3.873451E-1	4.081477E-1	3.864771E-1	4.010304E-1	3.751956E-1	3.898605E-1	3.900157E-1	4.057004E-1	4.116751E-1	3.950100E-1	3.882601E-1	3.854144E-1	3.838911E-1	3.896009E-1	3.777816E-1	4.006384E-1	3.841307E-1	3.700896E-1	3.816866E-1	3.792948E-1	3.746602E-1	3.765050E-1	3.621196E-1	3.793232E-1	3.810769E-1	3.921594E-1	3.696230E-1	3.637600E-1	3.705299E-1	3.797318E-1	3.707435E-1	3.911007E-1	3.846118E-1	3.865592E-1	3.602810E-1	3.906126E-1	3.854112E-1	3.964511E-1	3.815082E-1	4.199171E-1	4.101235E-1	3.782826E-1	3.825451E-1	3.861839E-1	3.663981E-1	3.934823E-1	3.979957E-1	3.954058E-1	3.602869E-1	3.705181E-1	4.040354E-1	4.138278E-1	3.705001E-1	3.765867E-1	3.974626E-1	3.824766E-1	4.004329E-1	3.749390E-1	4.004862E-1	3.927588E-1	3.773829E-1	3.876988E-1	3.977791E-1	3.880435E-1	4.041193E-1	3.865767E-1	3.917488E-1	3.701888E-1	3.866675E-1	3.881585E-1	3.803281E-1	4.142907E-1	3.865202E-1	3.692677E-1	3.477417E-1	3.662437E-1	4.048513E-1	3.874315E-1	4.076850E-1	3.963243E-1	3.683796E-1	4.078151E-1	3.767015E-1	3.661624E-1	3.596396E-1	3.789458E-1	3.883123E-1	3.820255E-1	3.952072E-1	4.056415E-1	3.842664E-1	3.900384E-1	3.999929E-1	3.755822E-1	3.617458E-1	4.046602E-1	4.057751E-1	3.823651E-1	3.702964E-1	3.970099E-1	4.159272E-1	4.082824E-1	3.932167E-1	4.405870E-1	3.766578E-1
5.345050E+2	6.413519E-1	6.329849E-1	6.235831E-1	6.577673E-1	6.261626E-1	6.300502E-1	6.377505E-1	6.544700E-1	6.622383E-1	6.507800E-1	6.829905E-1	6.317031E-1	6.862286E-1	6.543950E-1	6.549104E-1	6.563676E-1	6.313784E-1	6.607891E-1	6.500132E-1	6.550085E-1	6.257069E-1	6.571460E-1	6.459856E-1	6.507540E-1	7.635524E-1	7.575290E-1	7.127740E-1	7.136103E-1	7.330141E-1	6.976663E-1	7.140854E-1	6.700630E-1	6.944574E-1	6.924809E-1	7.315477E-1	6.949499E-1	7.140761E-1	6.940723E-1	7.179595E-1	6.788337E-1	7.087743E-1	6.422349E-1	6.676002E-1	6.634922E-1	7.240625E-1	7.069324E-1	6.971193E-1	6.715619E-1	7.348168E-1	6.810294E-1	7.154284E-1	6.981018E-1	7.325926E-1	6.575193E-1	6.954605E-1	6.806973E-1	6.893860E-1	6.700137E-1	6.706240E-1	6.779004E-1	6.687537E-1	6.700809E-1	6.636458E-1	6.829309E-1	7.037120E-1	6.978160E-1	7.094473E-1	6.891212E-1	6.693828E-1	6.550034E-1	6.544052E-1	6.760496E-1	7.111189E-1	6.945484E-1	6.725770E-1	6.258237E-1	6.859008E-1	6.717358E-1	6.407520E-1	7.062756E-1	6.713619E-1	6.742217E-1	7.170121E-1	6.945646E-1	6.593358E-1	6.835627E-1	7.044690E-1	6.763002E-1	6.858707E-1	6.831461E-1	6.692863E-1	6.864764E-1	7.008288E-1	6.314208E-1	7.060323E-1	6.708927E-1	6.683612E-1	6.649027E-1	6.535538E-1	6.560085E-1	6.607948E-1	6.817242E-1	6.622929E-1	6.876036E-1	7.043508E-1	6.633074E-1	6.851207E-1	6.762868E-1	6.430097E-1	6.623024E-1	6.564706E-1	6.803641E-1	6.866487E-1	6.449981E-1	6.834275E-1	6.890957E-1	6.870771E-1	6.731447E-1	6.814825E-1	6.506589E-1	6.730106E-1	6.704435E-1	6.899290E-1	6.985070E-1	6.660424E-1	6.790080E-1	6.643544E-1	6.387636E-1	6.845885E-1	6.521684E-1	6.987892E-1	6.426987E-1	6.791840E-1	6.456074E-1	6.893318E-1	6.725648E-1	6.622344E-1	6.810850E-1	6.713293E-1	6.936847E-1	6.688204E-1	6.582645E-1	6.721396E-1	7.147317E-1	6.785016E-1	6.905266E-1	6.679522E-1	6.790334E-1	6.641183E-1	6.682047E-1	6.456491E-1	6.860391E-1	6.659690E-1	6.442526E-1	6.818582E-1	6.755311E-1	6.979384E-1	6.619235E-1	6.380006E-1	6.713179E-1	6.648272E-1	6.844216E-1	6.516536E-1	6.672360E-1	6.447916E-1	6.801655E-1	6.579334E-1	7.221524E-1	6.629352E-1	7.721001E-1
5.346620E+2	9.486807E-1	9.401041E-1	9.520104E-1	9.916647E-1	9.553351E-1	9.755102E-1	9.764205E-1	9.537104E-1	9.857034E-1	9.819674E-1	1.022237E+0	1.027650E+0	9.944197E-1	9.658839E-1	9.636651E-1	9.931332E-1	9.751950E-1	9.698941E-1	9.980957E-1	9.859762E-1	1.015399E+0	9.838097E-1	9.893418E-1	9.969015E-1	1.140332E+0	1.124207E+0	1.022885E+0	1.083627E+0	1.051143E+0	1.033066E+0	1.056745E+0	1.018000E+0	1.022083E+0	1.036259E+0	1.044207E+0	1.081440E+0	1.068261E+0	1.009714E+0	1.021073E+0	1.044660E+0	1.026493E+0	1.021276E+0	9.935922E-1	1.016345E+0	1.020042E+0	1.049543E+0	1.040961E+0	9.906842E-1	1.014661E+0	1.006192E+0	1.039142E+0	9.955621E-1	1.023024E+0	1.014643E+0	9.887319E-1	9.881879E-1	1.002869E+0	1.042429E+0	9.904208E-1	1.010181E+0	9.910244E-1	1.010383E+0	9.876266E-1	9.670843E-1	9.962137E-1	9.640287E-1	1.035235E+0	9.715673E-1	9.829040E-1	9.933091E-1	9.621182E-1	9.929996E-1	9.834744E-1	9.870981E-1	1.020605E+0	1.032759E+0	1.021702E+0	1.027731E+0	9.730541E-1	9.672102E-1	1.035059E+0	9.780008E-1	9.338397E-1	1.021960E+0	9.904504E-1	1.026459E+0	1.034869E+0	1.012246E+0	1.004756E+0	1.039163E+0	1.001131E+0	1.000223E+0	9.829909E-1	9.843431E-1	9.446662E-1	9.954252E-1	9.915661E-1	1.009639E+0	9.891240E-1	1.014738E+0	1.021587E+0	1.020766E+0	1.020281E+0	9.699439E-1	1.011778E+0	1.018700E+0	9.865328E-1	9.843289E-1	9.742673E-1	1.050879E+0	1.007713E+0	9.630083E-1	1.043515E+0	9.840826E-1	9.995407E-1	1.003667E+0	9.773851E-1	9.459859E-1	1.024327E+0	9.726831E-1	9.954314E-1	1.045800E+0	9.961054E-1	1.022057E+0	1.044195E+0	9.807196E-1	9.765536E-1	9.845269E-1	1.005541E+0	9.773226E-1	1.020157E+0	9.636321E-1	9.945538E-1	1.009671E+0	1.006633E+0	9.871980E-1	1.049010E+0	1.013400E+0	1.006445E+0	9.902774E-1	9.941528E-1	1.030021E+0	9.677646E-1	9.991252E-1	1.019729E+0	1.031250E+0	9.574051E-1	9.653070E-1	1.010009E+0	9.436361E-1	9.432588E-1	1.005224E+0	9.837910E-1	9.759501E-1	9.447424E-1	1.049901E+0	1.009085E+0	1.000247E+0	9.676622E-1	1.022295E+0	9.727094E-1	1.006913E+0	9.972801E-1	1.011253E+0	9.991603E-1	9.893207E-1	9.831427E-1	9.696234E-1	1.095671E+0	1.072110E+0
5.348120E+2	1.413592E+0	1.410793E+0	1.352697E+0	1.383487E+0	1.393897E+0	1.362100E+0	1.409914E+0	1.344340E+0	1.398902E+0	1.427605E+0	1.465852E+0	1.432198E+0	1.376687E+0	1.408152E+0	1.359207E+0	1.338964E+0	1.380219E+0	1.438297E+0	1.347369E+0	1.291950E+0	1.363265E+0	1.356793E+0	1.381614E+0	1.339972E+0	1.510646E+0	1.516498E+0	1.474040E+0	1.439710E+0	1.442474E+0	1.401164E+0	1.408480E+0	1.352521E+0	1.471372E+0	1.406463E+0	1.432664E+0	1.379694E+0	1.403376E+0	1.380672E+0	1.405852E+0	1.352103E+0	1.470065E+0	1.420347E+0	1.451574E+0	1.395348E+0	1.476427E+0	1.442308E+0	1.444279E+0	1.364090E+0	1.420619E+0	1.436280E+0	1.357722E+0	1.371300E+0	1.416141E+0	1.397969E+0	1.363858E+0	1.425148E+0	1.403219E+0	1.389102E+0	1.397785E+0	1.382421E+0	1.412063E+0	1.376998E+0	1.444612E+0	1.384564E+0	1.362889E+0	1.373879E+0	1.354452E+0	1.346238E+0	1.364195E+0	1.362262E+0	1.310520E+0	1.373427E+0	1.440275E+0	1.401988E+0	1.378272E+0	1.417221E+0	1.377725E+0	1.353407E+0	1.329324E+0	1.388350E+0	1.403331E+0	1.401134E+0	1.362519E+0	1.393351E+0	1.337739E+0	1.399989E+0	1.370977E+0	1.352761E+0	1.362543E+0	1.434231E+0	1.396233E+0	1.403078E+0	1.382164E+0	1.374161E+0	1.391763E+0	1.358428E+0	1.412126E+0	1.383055E+0	1.389936E+0	1.343473E+0	1.372925E+0	1.334158E+0	1.405473E+0	1.379577E+0	1.393908E+0	1.359179E+0	1.404751E+0	1.361374E+0	1.401431E+0	1.418979E+0	1.400977E+0	1.382294E+0	1.416879E+0	1.410692E+0	1.393327E+0	1.353082E+0	1.339736E+0	1.372691E+0	1.390063E+0	1.398523E+0	1.451289E+0	1.416762E+0	1.324157E+0	1.426425E+0	1.401671E+0	1.343356E+0	1.340472E+0	1.400075E+0	1.343202E+0	1.347978E+0	1.386648E+0	1.392975E+0	1.373369E+0	1.344594E+0	1.385986E+0	1.395707E+0	1.393598E+0	1.434089E+0	1.340993E+0	1.357706E+0	1.348952E+0	1.408934E+0	1.345933E+0	1.424886E+0	1.418854E+0	1.365407E+0	1.385044E+0	1.336028E+0	1.294134E+0	1.383990E+0	1.289276E+0	1.343067E+0	1.349168E+0	1.354766E+0	1.378931E+0	1.388476E+0	1.393284E+0	1.368735E+0	1.364845E+0	1.310082E+0	1.380655E+0	1.403851E+0	1.321228E+0	1.395042E+0	1.383681E+0	1.347596E+0	1.400994E+0	1.367531E+0	1.421746E+0	1.438713E+0
5.349630E+2	1.701494E+0	1.701436E+0	1.652612E+0	1.701260E+0	1.647793E+0	1.687243E+0	1.677855E+0	1.685147E+0	1.743222E+0	1.705515E+0	1.724598E+0	1.667884E+0	1.702461E+0	1.681489E+0	1.678203E+0	1.724155E+0	1.776102E+0	1.675839E+0	1.683705E+0	1.688066E+0	1.697552E+0	1.659637E+0	1.651161E+0	1.715654E+0	1.774243E+0	1.785985E+0	1.786217E+0	1.711382E+0	1.671521E+0	1.716009E+0	1.706612E+0	1.630895E+0	1.694868E+0	1.678125E+0	1.750197E+0	1.673641E+0	1.671262E+0	1.645630E+0	1.634286E+0	1.656161E+0	1.683743E+0	1.669592E+0	1.813202E+0	1.776282E+0	1.678730E+0	1.677938E+0	1.711723E+0	1.644708E+0	1.693553E+0	1.674006E+0	1.700667E+0	1.618508E+0	1.703814E+0	1.640929E+0	1.713589E+0	1.637178E+0	1.696236E+0	1.688740E+0	1.721679E+0	1.635641E+0	1.620239E+0	1.654936E+0	1.691753E+0	1.692020E+0	1.616604E+0	1.676170E+0	1.738381E+0	1.668381E+0	1.655610E+0	1.685817E+0	1.668596E+0	1.656441E+0	1.686691E+0	1.712564E+0	1.640069E+0	1.633459E+0	1.676155E+0	1.682670E+0	1.627771E+0	1.707540E+0	1.699031E+0	1.670269E+0	1.682295E+0	1.660371E+0	1.690978E+0	1.693777E+0	1.668485E+0	1.664063E+0	1.699709E+0	1.662954E+0	1.711301E+0	1.725532E+0	1.660957E+0	1.652607E+0	1.675038E+0	1.649736E+0	1.672299E+0	1.690466E+0	1.649905E+0	1.580688E+0	1.634834E+0	1.688568E+0	1.616659E+0	1.603652E+0	1.711659E+0	1.737729E+0	1.650670E+0	1.656619E+0	1.656244E+0	1.724740E+0	1.628854E+0	1.644912E+0	1.720749E+0	1.660836E+0	1.608416E+0	1.729334E+0	1.685405E+0	1.676176E+0	1.700738E+0	1.656579E+0	1.697254E+0	1.654855E+0	1.632702E+0	1.683973E+0	1.678321E+0	1.653512E+0	1.645604E+0	1.627999E+0	1.678679E+0	1.695325E+0	1.716286E+0	1.649145E+0	1.602899E+0	1.650834E+0	1.668923E+0	1.624007E+0	1.661437E+0	1.702319E+0	1.692438E+0	1.616863E+0	1.725903E+0	1.679884E+0	1.635470E+0	1.662274E+0	1.710647E+0	1.660334E+0	1.654167E+0	1.664961E+0	1.632986E+0	1.640972E+0	1.631070E+0	1.653334E+0	1.687141E+0	1.649654E+0	1.623161E+0	1.660107E+0	1.642738E+0	1.685502E+0	1.631038E+0	1.608278E+0	1.688286E+0	1.632100E+0	1.665630E+0	1.639638E+0	1.648246E+0	1.702119E+0	1.572062E+0	1.632797E+0	1.707861E+0	1.687807E+0
5.351350E+2	1.916045E+0	1.975862E+0	1.917059E+0	1.913369E+0	1.929730E+0	1.947891E+0	1.919965E+0	1.910707E+0	1.953114E+0	1.940217E+0	1.949931E+0	1.964927E+0	1.951103E+0	1.965826E+0	1.916195E+0	1.907521E+0	1.947149E+0	2.006927E+0	1.908347E+0	1.922236E+0	1.989466E+0	1.938384E+0	1.940219E+0	1.917775E+0	1.917347E+0	1.960935E+0	1.937584E+0	1.969208E+0	1.920976E+0	1.939508E+0	1.904025E+0	1.872397E+0	1.988460E+0	1.946534E+0	1.951331E+0	1.888665E+0	1.899261E+0	1.865810E+0	1.930679E+0	1.910811E+0	1.939756E+0	1.901620E+0	1.963751E+0	1.964923E+0	1.991166E+0	1.916075E+0	1.973094E+0	1.859477E+0	1.998654E+0	1.961999E+0	1.858524E+0	1.840988E+0	1.859787E+0	1.893219E+0	1.900139E+0	1.900664E+0	1.946197E+0	1.925799E+0	1.932960E+0	1.878524E+0	1.911924E+0	1.911037E+0	1.912296E+0	1.880387E+0	1.937865E+0	1.862289E+0	1.940734E+0	1.875461E+0	1.867294E+0	1.873796E+0	1.826891E+0	1.881472E+0	1.911020E+0	1.990333E+0	1.917529E+0	1.856125E+0	1.887627E+0	1.873586E+0	1.909227E+0	1.897706E+0	1.895143E+0	1.884275E+0	1.937068E+0	1.845448E+0	1.854102E+0	1.890110E+0	1.867265E+0	1.830265E+0	1.878800E+0	1.904314E+0	1.942249E+0	1.905467E+0	1.887687E+0	1.848583E+0	1.885275E+0	1.920471E+0	1.879211E+0	1.930207E+0	1.898470E+0	1.870999E+0	1.894427E+0	1.860600E+0	1.868788E+0	1.872406E+0	1.932281E+0	1.973063E+0	1.913657E+0	1.865087E+0	1.899336E+0	1.944932E+0	1.871618E+0	1.849938E+0	1.895986E+0	1.938314E+0	1.891739E+0	1.861501E+0	1.850324E+0	1.914254E+0	1.911824E+0	1.900985E+0	1.935040E+0	1.916579E+0	1.827661E+0	1.878468E+0	1.912792E+0	1.888239E+0	1.853722E+0	1.898641E+0	1.823863E+0	1.873191E+0	1.938228E+0	1.851088E+0	1.864415E+0	1.912028E+0	1.910795E+0	1.877003E+0	1.975015E+0	1.912640E+0	1.782712E+0	1.833232E+0	1.879324E+0	1.900363E+0	1.806685E+0	1.864615E+0	1.912947E+0	1.953286E+0	1.905873E+0	1.854888E+0	1.850227E+0	1.847553E+0	1.786678E+0	1.849375E+0	1.856010E+0	1.889885E+0	1.877746E+0	1.876926E+0	1.862504E+0	1.907363E+0	1.883121E+0	1.830327E+0	1.884943E+0	1.876407E+0	1.887694E+0	1.919576E+0	1.794879E+0	1.867701E+0	1.856855E+0	1.850256E+0	1.898144E+0	1.898426E+0
5.352650E+2	1.927632E+0	1.995281E+0	1.886958E+0	2.005139E+0	1.924172E+0	1.855388E+0	1.973619E+0	1.908438E+0	1.961812E+0	1.945759E+0	1.977375E+0	1.967310E+0	1.998126E+0	1.938616E+0	1.905777E+0	1.950269E+0	1.877195E+0	1.939567E+0	1.983993E+0	1.854711E+0	1.979725E+0	1.858301E+0	1.914927E+0	1.857418E+0	1.884019E+0	1.913802E+0	1.884598E+0	1.905456E+0	1.879405E+0	1.964534E+0	1.893121E+0	1.876056E+0	1.953772E+0	1.935923E+0	1.901048E+0	1.933682E+0	1.866541E+0	1.869454E+0	1.856100E+0	1.903652E+0	1.934731E+0	1.859417E+0	1.936259E+0	1.945877E+0	1.910201E+0	1.899807E+0	1.907735E+0	1.880477E+0	1.971716E+0	1.909236E+0	1.964379E+0	1.861517E+0	1.902687E+0	1.914561E+0	1.877574E+0	1.893888E+0	1.959275E+0	1.816678E+0	1.883498E+0	1.879713E+0	1.907515E+0	1.846304E+0	1.909161E+0	1.897497E+0	1.923645E+0	1.938176E+0	1.933006E+0	1.865385E+0	1.866119E+0	1.836170E+0	1.858284E+0	1.869099E+0	1.866187E+0	1.871541E+0	1.859156E+0	1.845309E+0	1.928090E+0	1.916889E+0	1.878386E+0	1.894665E+0	1.975031E+0	1.925849E+0	1.868390E+0	1.876874E+0	1.874324E+0	1.917746E+0	1.829042E+0	1.853247E+0	1.937120E+0	1.915777E+0	1.874895E+0	1.890500E+0	1.856381E+0	1.845254E+0	1.922950E+0	1.854092E+0	1.957068E+0	1.895097E+0	1.894768E+0	1.847871E+0	1.840720E+0	1.890333E+0	1.897175E+0	1.816968E+0	1.891927E+0	1.971901E+0	1.876990E+0	1.860174E+0	1.841562E+0	1.919098E+0	1.805262E+0	1.817960E+0	1.937887E+0	1.874005E+0	1.794174E+0	1.863662E+0	1.806395E+0	1.858409E+0	1.886107E+0	1.910128E+0	1.906255E+0	1.882298E+0	1.866332E+0	1.932735E+0	1.923546E+0	1.876994E+0	1.817606E+0	1.858571E+0	1.859309E+0	1.824133E+0	1.885091E+0	1.858878E+0	1.831893E+0	1.873221E+0	1.942371E+0	1.802126E+0	1.943566E+0	1.827153E+0	1.850899E+0	1.817863E+0	1.872646E+0	1.877190E+0	1.831709E+0	1.866273E+0	1.839916E+0	1.903967E+0	1.908034E+0	1.839214E+0	1.866060E+0	1.804440E+0	1.844409E+0	1.846085E+0	1.901766E+0	1.885200E+0	1.830347E+0	1.870653E+0	1.883752E+0	1.893682E+0	1.840429E+0	1.779697E+0	1.847707E+0	1.883334E+0	1.848558E+0	1.765136E+0	1.851744E+0	1.835326E+0	1.884848E+0	1.826242E+0	1.887814E+0	2.023018E+0
5.354060E+2	1.802019E+0	1.808529E+0	1.753987E+0	1.846486E+0	1.746656E+0	1.733400E+0	1.801798E+0	1.793178E+0	1.800186E+0	1.891846E+0	1.774301E+0	1.812852E+0	1.796730E+0	1.842394E+0	1.775854E+0	1.765029E+0	1.754256E+0	1.794966E+0	1.785964E+0	1.768032E+0	1.727106E+0	1.813357E+0	1.745104E+0	1.819856E+0	1.708375E+0	1.790448E+0	1.771104E+0	1.768370E+0	1.777410E+0	1.747033E+0	1.730804E+0	1.699672E+0	1.710325E+0	1.799571E+0	1.756178E+0	1.747465E+0	1.717663E+0	1.753061E+0	1.740184E+0	1.735737E+0	1.733827E+0	1.738373E+0	1.804001E+0	1.836982E+0	1.772175E+0	1.757887E+0	1.785994E+0	1.734118E+0	1.759948E+0	1.820724E+0	1.744394E+0	1.739407E+0	1.729786E+0	1.777490E+0	1.665994E+0	1.719437E+0	1.728594E+0	1.742744E+0	1.708323E+0	1.751131E+0	1.703233E+0	1.755346E+0	1.729222E+0	1.734161E+0	1.787185E+0	1.711466E+0	1.730123E+0	1.724672E+0	1.724452E+0	1.693190E+0	1.656866E+0	1.735817E+0	1.731089E+0	1.775731E+0	1.759034E+0	1.716601E+0	1.699643E+0	1.705717E+0	1.751324E+0	1.699588E+0	1.777952E+0	1.752621E+0	1.701111E+0	1.699410E+0	1.646124E+0	1.763491E+0	1.705363E+0	1.672425E+0	1.794822E+0	1.772957E+0	1.714164E+0	1.796396E+0	1.729891E+0	1.689330E+0	1.749275E+0	1.710068E+0	1.748281E+0	1.760024E+0	1.772876E+0	1.735304E+0	1.723510E+0	1.709286E+0	1.735193E+0	1.676882E+0	1.812660E+0	1.795367E+0	1.688675E+0	1.727331E+0	1.721133E+0	1.741012E+0	1.709959E+0	1.703495E+0	1.853179E+0	1.755633E+0	1.699397E+0	1.736075E+0	1.694638E+0	1.788128E+0	1.748335E+0	1.689018E+0	1.731589E+0	1.757837E+0	1.689865E+0	1.740536E+0	1.742326E+0	1.699740E+0	1.619145E+0	1.727638E+0	1.703613E+0	1.801184E+0	1.752951E+0	1.703489E+0	1.680038E+0	1.705857E+0	1.709744E+0	1.687285E+0	1.753044E+0	1.757497E+0	1.726353E+0	1.677706E+0	1.734519E+0	1.770938E+0	1.710599E+0	1.696095E+0	1.799643E+0	1.745095E+0	1.681521E+0	1.698127E+0	1.696177E+0	1.719355E+0	1.704603E+0	1.691533E+0	1.786307E+0	1.775484E+0	1.683411E+0	1.693943E+0	1.732575E+0	1.745223E+0	1.700771E+0	1.695459E+0	1.763600E+0	1.782018E+0	1.764738E+0	1.693561E+0	1.708948E+0	1.720637E+0	1.691984E+0	1.709405E+0	1.726383E+0	1.807052E+0
5.355680E+2	1.610187E+0	1.618213E+0	1.617938E+0	1.606395E+0	1.619641E+0	1.587873E+0	1.575460E+0	1.591793E+0	1.566058E+0	1.625848E+0	1.604997E+0	1.574709E+0	1.556441E+0	1.581617E+0	1.606313E+0	1.599116E+0	1.561837E+0	1.643113E+0	1.567070E+0	1.606845E+0	1.657637E+0	1.579664E+0	1.586170E+0	1.582547E+0	1.506968E+0	1.617711E+0	1.526813E+0	1.581207E+0	1.576026E+0	1.612071E+0	1.590357E+0	1.493078E+0	1.570134E+0	1.596576E+0	1.557257E+0	1.630646E+0	1.561300E+0	1.533643E+0	1.583071E+0	1.574616E+0	1.544761E+0	1.555007E+0	1.609550E+0	1.594641E+0	1.581688E+0	1.593858E+0	1.568982E+0	1.512214E+0	1.555321E+0	1.591817E+0	1.594843E+0	1.497143E+0	1.555772E+0	1.577151E+0	1.498513E+0	1.551876E+0	1.529174E+0	1.493462E+0	1.575193E+0	1.533206E+0	1.482339E+0	1.559906E+0	1.565185E+0	1.512919E+0	1.563535E+0	1.518103E+0	1.570108E+0	1.517715E+0	1.515799E+0	1.577279E+0	1.537113E+0	1.538083E+0	1.562592E+0	1.582416E+0	1.557218E+0	1.539991E+0	1.575578E+0	1.504906E+0	1.512452E+0	1.586174E+0	1.589584E+0	1.586102E+0	1.554237E+0	1.546100E+0	1.564688E+0	1.548718E+0	1.547176E+0	1.549861E+0	1.599612E+0	1.600876E+0	1.524499E+0	1.527291E+0	1.564490E+0	1.523289E+0	1.614420E+0	1.562859E+0	1.552538E+0	1.590303E+0	1.601222E+0	1.528278E+0	1.545523E+0	1.521019E+0	1.554922E+0	1.481541E+0	1.627483E+0	1.533405E+0	1.541941E+0	1.557376E+0	1.513333E+0	1.528262E+0	1.503299E+0	1.541455E+0	1.603858E+0	1.554821E+0	1.559077E+0	1.545608E+0	1.488800E+0	1.563573E+0	1.565050E+0	1.528051E+0	1.538209E+0	1.541235E+0	1.530066E+0	1.555815E+0	1.570432E+0	1.551146E+0	1.496165E+0	1.580855E+0	1.496036E+0	1.594257E+0	1.605708E+0	1.515764E+0	1.552532E+0	1.539473E+0	1.593044E+0	1.541046E+0	1.609453E+0	1.564255E+0	1.543621E+0	1.528902E+0	1.502193E+0	1.565548E+0	1.529933E+0	1.560451E+0	1.656147E+0	1.607707E+0	1.541656E+0	1.562914E+0	1.534847E+0	1.533043E+0	1.467050E+0	1.508117E+0	1.509205E+0	1.535326E+0	1.529996E+0	1.519430E+0	1.558904E+0	1.547942E+0	1.510068E+0	1.496513E+0	1.540404E+0	1.545792E+0	1.518071E+0	1.530444E+0	1.544983E+0	1.519114E+0	1.486434E+0	1.500608E+0	1.557506E+0	1.563412E+0
5.357090E+2	1.368143E+0	1.425293E+0	1.388762E+0	1.391299E+0	1.304623E+0	1.392979E+0	1.352134E+0	1.340253E+0	1.370658E+0	1.399598E+0	1.372100E+0	1.391164E+0	1.318719E+0	1.390181E+0	1.360109E+0	1.342349E+0	1.350575E+0	1.350483E+0	1.390598E+0	1.342039E+0	1.374085E+0	1.336509E+0	1.420383E+0	1.341227E+0	1.318810E+0	1.349807E+0	1.363751E+0	1.325335E+0	1.302330E+0	1.313370E+0	1.336402E+0	1.275729E+0	1.392068E+0	1.374832E+0	1.396640E+0	1.361955E+0	1.324518E+0	1.328399E+0	1.323013E+0	1.316928E+0	1.394853E+0	1.303272E+0	1.346769E+0	1.334250E+0	1.371703E+0	1.330884E+0	1.392210E+0	1.315912E+0	1.296043E+0	1.343471E+0	1.351077E+0	1.328198E+0	1.344250E+0	1.346602E+0	1.320168E+0	1.341083E+0	1.333877E+0	1.317153E+0	1.350834E+0	1.311706E+0	1.314855E+0	1.325537E+0	1.325280E+0	1.312280E+0	1.315034E+0	1.353131E+0	1.398948E+0	1.294657E+0	1.253443E+0	1.311535E+0	1.317633E+0	1.330712E+0	1.337211E+0	1.357692E+0	1.390411E+0	1.334564E+0	1.300803E+0	1.356102E+0	1.275965E+0	1.347719E+0	1.369216E+0	1.389358E+0	1.357745E+0	1.360498E+0	1.267267E+0	1.287332E+0	1.318379E+0	1.330672E+0	1.366656E+0	1.360153E+0	1.323850E+0	1.307498E+0	1.337260E+0	1.306021E+0	1.372692E+0	1.305811E+0	1.346760E+0	1.364912E+0	1.338493E+0	1.327235E+0	1.359191E+0	1.365311E+0	1.357490E+0	1.309108E+0	1.410535E+0	1.358129E+0	1.297042E+0	1.317379E+0	1.336091E+0	1.370547E+0	1.253853E+0	1.319516E+0	1.363341E+0	1.345911E+0	1.321578E+0	1.282630E+0	1.306237E+0	1.316338E+0	1.345985E+0	1.352811E+0	1.379451E+0	1.374177E+0	1.305256E+0	1.310965E+0	1.415595E+0	1.343421E+0	1.289235E+0	1.288222E+0	1.304741E+0	1.366128E+0	1.387569E+0	1.312512E+0	1.289716E+0	1.303205E+0	1.318161E+0	1.336498E+0	1.350746E+0	1.346760E+0	1.306788E+0	1.302440E+0	1.342714E+0	1.366995E+0	1.331078E+0	1.345141E+0	1.376324E+0	1.366579E+0	1.259916E+0	1.296564E+0	1.368882E+0	1.336584E+0	1.283207E+0	1.298137E+0	1.353525E+0	1.335676E+0	1.284904E+0	1.383147E+0	1.371363E+0	1.384937E+0	1.341005E+0	1.336097E+0	1.364305E+0	1.354851E+0	1.312713E+0	1.312499E+0	1.398340E+0	1.382818E+0	1.352971E+0	1.334682E+0	1.409977E+0	1.363238E+0
5.358600E+2	1.130748E+0	1.174898E+0	1.190957E+0	1.165998E+0	1.190140E+0	1.174452E+0	1.187335E+0	1.204402E+0	1.231368E+0	1.191777E+0	1.213664E+0	1.186096E+0	1.141246E+0	1.164454E+0	1.161883E+0	1.191101E+0	1.203519E+0	1.151524E+0	1.162272E+0	1.163424E+0	1.188321E+0	1.126781E+0	1.189358E+0	1.132556E+0	1.170940E+0	1.179409E+0	1.141752E+0	1.187763E+0	1.179411E+0	1.150985E+0	1.153737E+0	1.127493E+0	1.173941E+0	1.167106E+0	1.174753E+0	1.149575E+0	1.137596E+0	1.170544E+0	1.149122E+0	1.167777E+0	1.157535E+0	1.145173E+0	1.161999E+0	1.216257E+0	1.165005E+0	1.192841E+0	1.149810E+0	1.183691E+0	1.192081E+0	1.174878E+0	1.267586E+0	1.158435E+0	1.173304E+0	1.170520E+0	1.136225E+0	1.156024E+0	1.190909E+0	1.162121E+0	1.148408E+0	1.119685E+0	1.133691E+0	1.165723E+0	1.188241E+0	1.167404E+0	1.164443E+0	1.206455E+0	1.179278E+0	1.102357E+0	1.135646E+0	1.158651E+0	1.141159E+0	1.164664E+0	1.103342E+0	1.219001E+0	1.184134E+0	1.128698E+0	1.140635E+0	1.130789E+0	1.145769E+0	1.172825E+0	1.174856E+0	1.170903E+0	1.156034E+0	1.158640E+0	1.148350E+0	1.206662E+0	1.121029E+0	1.170151E+0	1.229907E+0	1.140475E+0	1.163655E+0	1.162168E+0	1.095887E+0	1.154968E+0	1.192676E+0	1.146147E+0	1.169965E+0	1.173718E+0	1.252987E+0	1.153888E+0	1.194237E+0	1.128509E+0	1.196126E+0	1.131145E+0	1.193448E+0	1.155832E+0	1.170567E+0	1.137264E+0	1.152527E+0	1.181503E+0	1.149254E+0	1.137636E+0	1.200441E+0	1.182065E+0	1.151752E+0	1.165042E+0	1.180714E+0	1.215757E+0	1.203268E+0	1.135959E+0	1.187165E+0	1.161299E+0	1.121094E+0	1.124404E+0	1.216598E+0	1.192325E+0	1.172918E+0	1.203790E+0	1.120806E+0	1.169152E+0	1.197100E+0	1.168485E+0	1.145937E+0	1.138705E+0	1.163200E+0	1.134003E+0	1.139990E+0	1.168098E+0	1.185290E+0	1.128299E+0	1.169752E+0	1.196330E+0	1.176974E+0	1.213088E+0	1.184925E+0	1.160296E+0	1.164946E+0	1.096194E+0	1.163417E+0	1.156339E+0	1.137578E+0	1.146755E+0	1.182677E+0	1.176427E+0	1.151300E+0	1.126400E+0	1.133989E+0	1.158416E+0	1.161774E+0	1.146990E+0	1.147190E+0	1.155585E+0	1.193594E+0	1.144519E+0	1.204989E+0	1.150355E+0	1.151689E+0	1.186916E+0	1.237899E+0	1.244423E+0
5.360070E+2	9.741179E-1	9.712900E-1	9.727575E-1	9.806907E-1	9.892734E-1	9.743480E-1	9.808790E-1	9.655771E-1	9.583622E-1	1.021854E+0	9.810142E-1	9.769912E-1	9.415142E-1	9.644922E-1	9.797155E-1	9.744689E-1	9.526205E-1	9.659744E-1	9.525908E-1	9.349639E-1	9.657260E-1	9.477621E-1	9.634960E-1	9.418871E-1	1.017548E+0	9.664301E-1	9.655672E-1	9.734099E-1	9.439999E-1	9.687567E-1	9.403028E-1	9.538153E-1	9.743936E-1	9.963102E-1	9.608047E-1	9.635635E-1	9.482464E-1	9.701742E-1	9.503607E-1	9.656926E-1	9.963743E-1	9.357403E-1	9.725274E-1	1.020898E+0	9.534290E-1	1.007483E+0	9.943633E-1	9.594347E-1	9.992204E-1	9.861608E-1	1.030841E+0	9.631073E-1	9.886049E-1	9.698831E-1	1.000107E+0	9.543471E-1	9.626672E-1	9.974753E-1	9.374124E-1	9.673724E-1	9.440010E-1	9.752415E-1	9.304190E-1	9.527573E-1	9.558556E-1	1.008998E+0	9.903541E-1	9.394922E-1	9.471029E-1	9.968256E-1	9.253587E-1	9.769353E-1	9.199781E-1	9.922666E-1	9.541391E-1	9.471068E-1	9.204874E-1	9.579462E-1	9.406508E-1	9.456551E-1	9.832762E-1	9.855079E-1	9.152752E-1	9.702176E-1	9.492246E-1	9.752983E-1	9.351971E-1	9.665091E-1	1.012971E+0	9.704381E-1	9.308436E-1	9.366998E-1	1.001585E+0	9.370449E-1	9.754577E-1	1.004984E+0	9.602278E-1	9.826719E-1	1.005905E+0	9.568587E-1	9.905446E-1	9.537893E-1	9.944577E-1	9.123932E-1	9.513856E-1	9.933205E-1	9.174275E-1	9.335035E-1	9.713834E-1	1.042755E+0	9.210662E-1	9.807809E-1	9.710557E-1	9.773841E-1	9.117317E-1	9.409035E-1	9.297679E-1	9.993187E-1	9.879267E-1	9.566476E-1	9.224163E-1	9.962282E-1	9.759594E-1	9.688738E-1	9.931329E-1	9.759000E-1	9.543773E-1	9.798081E-1	9.544744E-1	9.902914E-1	9.847059E-1	9.668526E-1	9.499358E-1	9.502026E-1	9.969470E-1	9.503173E-1	1.014715E+0	9.768041E-1	9.578778E-1	9.398964E-1	9.541009E-1	1.020472E+0	9.349910E-1	9.785495E-1	9.947723E-1	9.563232E-1	9.346178E-1	9.388151E-1	9.373273E-1	9.506864E-1	9.546815E-1	9.522515E-1	1.019574E+0	1.002530E+0	9.638281E-1	9.389161E-1	9.451875E-1	9.752289E-1	9.877781E-1	9.542198E-1	9.627164E-1	9.987916E-1	9.446669E-1	9.916721E-1	9.741621E-1	9.932490E-1	9.572934E-1	9.911657E-1	1.003594E+0	1.058658E+0
5.362630E+2	7.440373E-1	7.411745E-1	7.649059E-1	7.290119E-1	7.391499E-1	7.459007E-1	7.506220E-1	7.134947E-1	7.172029E-1	7.611768E-1	7.503194E-1	7.855399E-1	7.400898E-1	7.860749E-1	7.523870E-1	7.296830E-1	7.723293E-1	7.291566E-1	7.326607E-1	7.387035E-1	7.686447E-1	7.381854E-1	7.289444E-1	7.348561E-1	7.892922E-1	8.185192E-1	7.644287E-1	7.300731E-1	7.489281E-1	7.586490E-1	7.632368E-1	7.412256E-1	7.479292E-1	7.605025E-1	7.492920E-1	7.558618E-1	7.357722E-1	7.375348E-1	7.111726E-1	7.397181E-1	7.817975E-1	7.290328E-1	7.725445E-1	7.425869E-1	7.471583E-1	7.137129E-1	7.658219E-1	7.270831E-1	7.523253E-1	7.595699E-1	7.301774E-1	7.009211E-1	7.542398E-1	7.331264E-1	7.294758E-1	7.388045E-1	7.274872E-1	7.303676E-1	7.376023E-1	7.244461E-1	7.072468E-1	7.398238E-1	7.433726E-1	7.475058E-1	7.443997E-1	7.511224E-1	7.632453E-1	7.309348E-1	7.305256E-1	7.194468E-1	7.367584E-1	7.184314E-1	7.257093E-1	7.450099E-1	7.483450E-1	7.427110E-1	7.482602E-1	7.318157E-1	7.794956E-1	7.399217E-1	7.309299E-1	7.620761E-1	7.819712E-1	7.301119E-1	7.274578E-1	7.705554E-1	7.270065E-1	7.387276E-1	7.579961E-1	7.669735E-1	7.320487E-1	7.111352E-1	7.173533E-1	7.637810E-1	7.809890E-1	7.562577E-1	7.124674E-1	7.743731E-1	7.553829E-1	7.279460E-1	7.455672E-1	7.429488E-1	7.866902E-1	7.047874E-1	7.264180E-1	7.941309E-1	7.220449E-1	7.380977E-1	7.132715E-1	7.839966E-1	7.246565E-1	7.278597E-1	7.320688E-1	7.545963E-1	7.304704E-1	7.364734E-1	7.635033E-1	7.640673E-1	7.397533E-1	7.558879E-1	7.756649E-1	7.340403E-1	7.061045E-1	7.535143E-1	7.470548E-1	7.430279E-1	7.077597E-1	7.721291E-1	7.462007E-1	7.325070E-1	7.700200E-1	7.436565E-1	7.399253E-1	7.183426E-1	7.493595E-1	7.315021E-1	7.331751E-1	7.673883E-1	7.181988E-1	7.614822E-1	7.222366E-1	7.242943E-1	7.298609E-1	7.405410E-1	7.292621E-1	7.770966E-1	7.796465E-1	7.534637E-1	7.484877E-1	7.414317E-1	7.554601E-1	7.286064E-1	7.571721E-1	7.865957E-1	7.082583E-1	7.426129E-1	7.717347E-1	7.832492E-1	7.260909E-1	7.194142E-1	7.329135E-1	7.654477E-1	7.595746E-1	7.287396E-1	7.507124E-1	7.496797E-1	7.439965E-1	7.606503E-1	8.092927E-1	8.248916E-1
5.365140E+2	5.355991E-1	5.574756E-1	5.852987E-1	5.884597E-1	5.615231E-1	5.703517E-1	5.665801E-1	5.498773E-1	5.827018E-1	6.339898E-1	5.895749E-1	5.569050E-1	5.591616E-1	5.770351E-1	5.794986E-1	5.709272E-1	5.719597E-1	5.605630E-1	5.592396E-1	5.620472E-1	5.541865E-1	5.713743E-1	5.767572E-1	5.679656E-1	5.827316E-1	6.189282E-1	5.408139E-1	5.922566E-1	5.671127E-1	6.068126E-1	5.288962E-1	5.567746E-1	5.847092E-1	5.718041E-1	5.655055E-1	5.639011E-1	5.443691E-1	5.503254E-1	5.594869E-1	5.731231E-1	5.971144E-1	5.605806E-1	5.670696E-1	5.443504E-1	5.554259E-1	5.630602E-1	5.794503E-1	5.727728E-1	5.673644E-1	5.478337E-1	6.075414E-1	5.793000E-1	5.762883E-1	5.795506E-1	5.669312E-1	5.634899E-1	5.957469E-1	5.483837E-1	5.509714E-1	5.679534E-1	5.573616E-1	5.921452E-1	5.747227E-1	5.722479E-1	5.352008E-1	5.460061E-1	5.903531E-1	5.626521E-1	5.547498E-1	5.485974E-1	5.873504E-1	5.584820E-1	5.802015E-1	5.882904E-1	5.772096E-1	5.807361E-1	5.615894E-1	5.854256E-1	5.515417E-1	5.717955E-1	5.571181E-1	5.677250E-1	5.842653E-1	5.693206E-1	5.611637E-1	5.721375E-1	5.853043E-1	5.786903E-1	6.109425E-1	5.437734E-1	5.778438E-1	5.564264E-1	5.519186E-1	6.216299E-1	5.900391E-1	6.096521E-1	5.426749E-1	5.713002E-1	6.126012E-1	5.418852E-1	5.724142E-1	5.462122E-1	5.585432E-1	5.595833E-1	6.140850E-1	6.263583E-1	5.850123E-1	5.814456E-1	5.504425E-1	5.635690E-1	5.452380E-1	5.590044E-1	5.880113E-1	5.594009E-1	5.458760E-1	6.033356E-1	5.579386E-1	5.828989E-1	5.674977E-1	5.840458E-1	5.558910E-1	5.677678E-1	5.729462E-1	5.571366E-1	5.913379E-1	5.680736E-1	5.498652E-1	5.750418E-1	5.672412E-1	6.118340E-1	5.833571E-1	5.753553E-1	5.820776E-1	5.727938E-1	5.925128E-1	5.703273E-1	6.038167E-1	5.686896E-1	5.863310E-1	5.882659E-1	5.485202E-1	5.871493E-1	5.908010E-1	5.532523E-1	5.900560E-1	6.077255E-1	5.802328E-1	5.720179E-1	5.708906E-1	5.533789E-1	5.826993E-1	5.560054E-1	5.690578E-1	5.650947E-1	5.721373E-1	5.685498E-1	5.972227E-1	5.990081E-1	5.890711E-1	5.476203E-1	5.806958E-1	5.841484E-1	5.526223E-1	5.843634E-1	5.469054E-1	5.655118E-1	5.617268E-1	5.495968E-1	5.723402E-1	5.368283E-1
5.367760E+2	4.726439E-1	4.953814E-1	4.615491E-1	4.744009E-1	4.899911E-1	4.813326E-1	5.094614E-1	4.786583E-1	4.642314E-1	5.079729E-1	4.968344E-1	4.629469E-1	4.680362E-1	4.923065E-1	4.795276E-1	4.569452E-1	4.729861E-1	4.746644E-1	4.890594E-1	4.730301E-1	4.903767E-1	4.679421E-1	4.624159E-1	4.558509E-1	4.812935E-1	5.301151E-1	5.134599E-1	4.571150E-1	4.761716E-1	5.076621E-1	4.801387E-1	4.763651E-1	5.019171E-1	4.608195E-1	4.837635E-1	4.943480E-1	4.537206E-1	4.832848E-1	4.769105E-1	4.815265E-1	4.787206E-1	4.471738E-1	4.866288E-1	4.299221E-1	4.778460E-1	4.955565E-1	4.732253E-1	4.860908E-1	4.842478E-1	4.944988E-1	4.887718E-1	4.903132E-1	4.835526E-1	4.850629E-1	4.563645E-1	4.673624E-1	4.867516E-1	4.875230E-1	4.915802E-1	4.792615E-1	4.983234E-1	4.793454E-1	4.675838E-1	4.898025E-1	4.670014E-1	4.669003E-1	4.788218E-1	4.844083E-1	5.038671E-1	4.579508E-1	4.754328E-1	4.997834E-1	4.873050E-1	5.213985E-1	4.826446E-1	4.633007E-1	5.007687E-1	4.869597E-1	4.483930E-1	4.951227E-1	4.602474E-1	4.997038E-1	4.704374E-1	5.099911E-1	5.024376E-1	5.096997E-1	4.597258E-1	4.999326E-1	4.667647E-1	5.116770E-1	4.835808E-1	4.655389E-1	4.707105E-1	4.923915E-1	4.821052E-1	4.993351E-1	4.500290E-1	4.571611E-1	5.154239E-1	4.854528E-1	4.929922E-1	4.641246E-1	4.892364E-1	4.522778E-1	4.380892E-1	4.517082E-1	4.955228E-1	4.742518E-1	4.812147E-1	4.831532E-1	5.020881E-1	4.628316E-1	5.177105E-1	5.230562E-1	4.980876E-1	5.019514E-1	4.921235E-1	5.247851E-1	4.746840E-1	4.921692E-1	4.924301E-1	5.105244E-1	4.854663E-1	4.288112E-1	4.983415E-1	4.887786E-1	4.915443E-1	4.765445E-1	4.855981E-1	5.099811E-1	4.990783E-1	4.894883E-1	4.936493E-1	4.919540E-1	4.920813E-1	5.009937E-1	5.000520E-1	4.892461E-1	4.655678E-1	4.763541E-1	4.814813E-1	4.895631E-1	4.928626E-1	4.990051E-1	5.083972E-1	5.013839E-1	4.941796E-1	4.913168E-1	4.740826E-1	4.664840E-1	4.771372E-1	4.828922E-1	4.569985E-1	4.809095E-1	4.597556E-1	4.989209E-1	4.848985E-1	5.233844E-1	5.024224E-1	4.766680E-1	4.874861E-1	4.886498E-1	4.880074E-1	4.776554E-1	5.148541E-1	4.967660E-1	4.486304E-1	4.771845E-1	5.286350E-1	5.682682E-1
5.370070E+2	4.362840E-1	4.336258E-1	4.371926E-1	4.673014E-1	4.353785E-1	4.430703E-1	4.686256E-1	4.410116E-1	4.540514E-1	4.516014E-1	4.500363E-1	4.424033E-1	4.407469E-1	4.533699E-1	4.555936E-1	4.600706E-1	4.639295E-1	4.665330E-1	4.476967E-1	4.085948E-1	4.451240E-1	4.595700E-1	4.645067E-1	4.403680E-1	4.671309E-1	4.738448E-1	4.599112E-1	4.602200E-1	4.436941E-1	4.467766E-1	4.371127E-1	4.361507E-1	4.064049E-1	4.724289E-1	4.547583E-1	4.535993E-1	4.145135E-1	4.490504E-1	4.291157E-1	4.448783E-1	4.305594E-1	4.594142E-1	4.433702E-1	4.327086E-1	4.254165E-1	4.638838E-1	4.556437E-1	4.326734E-1	4.491496E-1	4.366558E-1	4.488470E-1	4.362321E-1	4.471865E-1	4.732063E-1	4.360487E-1	4.441684E-1	4.317237E-1	4.599587E-1	4.412163E-1	4.100867E-1	4.369804E-1	4.307065E-1	4.417699E-1	4.377036E-1	4.336055E-1	4.347738E-1	4.442969E-1	4.437746E-1	4.760501E-1	4.438136E-1	4.322672E-1	4.315409E-1	4.339880E-1	4.472519E-1	4.274117E-1	4.166665E-1	4.403044E-1	4.491639E-1	4.203060E-1	4.409222E-1	4.657481E-1	4.496926E-1	4.441447E-1	4.401714E-1	4.505929E-1	4.447415E-1	4.564281E-1	4.057241E-1	4.500999E-1	4.491783E-1	4.522029E-1	4.346425E-1	4.436825E-1	4.659050E-1	4.598846E-1	4.380354E-1	4.313730E-1	4.791025E-1	4.223402E-1	4.782996E-1	4.310550E-1	4.028325E-1	4.389417E-1	4.443599E-1	4.381619E-1	4.148334E-1	4.425101E-1	4.279836E-1	4.406945E-1	4.675390E-1	4.503805E-1	4.387194E-1	4.332162E-1	4.311992E-1	4.554550E-1	4.342113E-1	4.718508E-1	4.374514E-1	4.571471E-1	4.351619E-1	4.480672E-1	4.665112E-1	4.793736E-1	4.670316E-1	4.320428E-1	4.806616E-1	4.392607E-1	4.503768E-1	4.619623E-1	4.728748E-1	5.024305E-1	4.716387E-1	4.515409E-1	4.390599E-1	4.494864E-1	4.412358E-1	4.701562E-1	4.974429E-1	4.205527E-1	4.570224E-1	4.248712E-1	4.571725E-1	4.487400E-1	4.586869E-1	4.623696E-1	4.497955E-1	4.751081E-1	4.519274E-1	4.299721E-1	4.158513E-1	4.219940E-1	4.457370E-1	4.659768E-1	4.624396E-1	4.490217E-1	4.515517E-1	4.496828E-1	4.504162E-1	4.489139E-1	4.403608E-1	4.826821E-1	4.648079E-1	4.365688E-1	4.083762E-1	4.581723E-1	4.586949E-1	4.810043E-1	4.654551E-1	4.706632E-1	4.599696E-1
5.372640E+2	4.221868E-1	4.678527E-1	4.304017E-1	4.781886E-1	4.285240E-1	4.562633E-1	4.405112E-1	4.522537E-1	4.619776E-1	4.336173E-1	4.542261E-1	4.317959E-1	4.538587E-1	4.351466E-1	4.378153E-1	4.259350E-1	4.411658E-1	4.342001E-1	4.427014E-1	4.599506E-1	4.238003E-1	4.353599E-1	4.440448E-1	4.444498E-1	4.690308E-1	4.402286E-1	4.681631E-1	4.268213E-1	4.486912E-1	4.429368E-1	4.767715E-1	4.616451E-1	4.392548E-1	4.485718E-1	4.666101E-1	4.815375E-1	4.493674E-1	4.541984E-1	4.817621E-1	4.484862E-1	4.541512E-1	4.603092E-1	4.969811E-1	4.635648E-1	4.405807E-1	4.303015E-1	4.673707E-1	4.560028E-1	4.293709E-1	4.457721E-1	4.616322E-1	4.636356E-1	4.399221E-1	4.616023E-1	4.583588E-1	4.529683E-1	4.441924E-1	4.647014E-1	4.340092E-1	4.435570E-1	4.226877E-1	4.524869E-1	4.428677E-1	4.441964E-1	4.465433E-1	4.264143E-1	4.836856E-1	4.651250E-1	4.488678E-1	4.360958E-1	4.413709E-1	4.624437E-1	4.267257E-1	4.409444E-1	4.444956E-1	4.274894E-1	4.346311E-1	4.486549E-1	4.474345E-1	4.650064E-1	4.460961E-1	4.646339E-1	4.377095E-1	4.574015E-1	4.288546E-1	4.355122E-1	4.267645E-1	4.564579E-1	4.698717E-1	4.489557E-1	4.524601E-1	4.607358E-1	4.446087E-1	4.821069E-1	4.549972E-1	4.453799E-1	4.521109E-1	4.582577E-1	4.467738E-1	4.793663E-1	4.582115E-1	4.458794E-1	4.688338E-1	4.411583E-1	4.880990E-1	4.598997E-1	4.447595E-1	4.703913E-1	4.232050E-1	4.779592E-1	4.364391E-1	4.312563E-1	4.689927E-1	4.354893E-1	4.328666E-1	4.545186E-1	4.477845E-1	4.426031E-1	4.513888E-1	4.391426E-1	4.443301E-1	4.756886E-1	4.443655E-1	4.778706E-1	4.629068E-1	4.700370E-1	4.493926E-1	4.527769E-1	4.546399E-1	4.717368E-1	4.851424E-1	4.563910E-1	4.438634E-1	4.469438E-1	4.786686E-1	4.661106E-1	4.748053E-1	4.457444E-1	4.599198E-1	4.501528E-1	4.490263E-1	4.726779E-1	4.877869E-1	4.610683E-1	4.512848E-1	4.843792E-1	4.586004E-1	4.746071E-1	4.754715E-1	4.351356E-1	4.338104E-1	4.371540E-1	4.547347E-1	4.727152E-1	4.598626E-1	4.691610E-1	4.568041E-1	4.534951E-1	4.620412E-1	4.480513E-1	4.287025E-1	4.401132E-1	4.441494E-1	4.342749E-1	4.299519E-1	4.669151E-1	4.424712E-1	4.414179E-1	5.146106E-1	4.470086E-1
5.375060E+2	4.986673E-1	5.243827E-1	4.794475E-1	5.118025E-1	4.773517E-1	4.832391E-1	4.861036E-1	5.053075E-1	4.922875E-1	4.813457E-1	4.976522E-1	5.034883E-1	4.862012E-1	5.055974E-1	5.001990E-1	4.873130E-1	4.613144E-1	4.767549E-1	5.135937E-1	4.834453E-1	4.910175E-1	4.544589E-1	4.760047E-1	5.025085E-1	5.423943E-1	5.200139E-1	5.358178E-1	5.398864E-1	4.964714E-1	4.907204E-1	5.027763E-1	4.650642E-1	5.226943E-1	4.933667E-1	5.056176E-1	5.362403E-1	5.012292E-1	4.823078E-1	5.085380E-1	5.051965E-1	5.102127E-1	4.703683E-1	5.067587E-1	5.140592E-1	5.037875E-1	4.806427E-1	4.556237E-1	5.019799E-1	4.967616E-1	5.021956E-1	4.736904E-1	5.158051E-1	4.835610E-1	5.035479E-1	4.908234E-1	4.923325E-1	4.898891E-1	4.677301E-1	5.125720E-1	4.771298E-1	5.034523E-1	4.717731E-1	5.222326E-1	4.975557E-1	4.900586E-1	4.483546E-1	4.845029E-1	4.779270E-1	4.937343E-1	4.904079E-1	4.484548E-1	4.987752E-1	4.976306E-1	5.056374E-1	4.730676E-1	4.989491E-1	4.846492E-1	5.006729E-1	4.635301E-1	4.823677E-1	5.069966E-1	4.812857E-1	5.243071E-1	5.042379E-1	4.923248E-1	4.981467E-1	5.047264E-1	5.068031E-1	4.795252E-1	5.199738E-1	4.515300E-1	5.061255E-1	4.978064E-1	5.060078E-1	5.035271E-1	4.810670E-1	5.126839E-1	5.053412E-1	5.222230E-1	5.315212E-1	5.033427E-1	4.890204E-1	4.904675E-1	4.865287E-1	5.047705E-1	5.047329E-1	4.595607E-1	4.927717E-1	4.935275E-1	4.834455E-1	4.797939E-1	4.960311E-1	4.898663E-1	4.866338E-1	4.882925E-1	4.865778E-1	4.797571E-1	5.056957E-1	5.248418E-1	4.927633E-1	5.084794E-1	5.060832E-1	4.906547E-1	5.189507E-1	4.938792E-1	5.112828E-1	5.034774E-1	5.195057E-1	5.048242E-1	5.271960E-1	5.181044E-1	4.838913E-1	5.227281E-1	5.141645E-1	5.066742E-1	4.922270E-1	5.152041E-1	5.366901E-1	5.173926E-1	5.253611E-1	4.887003E-1	5.421573E-1	4.754825E-1	5.206461E-1	4.867479E-1	5.144416E-1	5.166384E-1	4.943552E-1	4.904959E-1	4.890961E-1	4.863969E-1	5.062151E-1	4.721012E-1	5.378292E-1	5.330515E-1	4.620297E-1	5.398988E-1	5.137590E-1	5.027741E-1	4.866198E-1	4.920968E-1	5.404572E-1	5.196107E-1	5.068237E-1	4.973442E-1	5.114921E-1	5.083375E-1	5.234045E-1	5.451174E-1	5.191213E-1
5.377690E+2	5.781526E-1	5.758788E-1	5.843049E-1	5.898342E-1	6.078603E-1	5.521629E-1	5.703755E-1	5.849222E-1	6.171516E-1	5.780789E-1	6.099989E-1	5.857323E-1	5.565269E-1	6.055741E-1	6.044080E-1	5.655519E-1	5.883765E-1	6.027407E-1	6.116600E-1	5.807927E-1	5.932610E-1	5.545304E-1	5.802417E-1	5.703568E-1	6.368575E-1	6.279306E-1	6.131548E-1	5.867830E-1	6.233051E-1	5.770327E-1	5.975592E-1	5.846986E-1	5.809322E-1	6.149220E-1	5.773340E-1	5.854450E-1	5.984025E-1	6.083709E-1	5.720712E-1	5.907925E-1	5.770114E-1	5.654958E-1	6.109615E-1	5.825968E-1	5.982348E-1	5.491876E-1	5.496677E-1	5.882106E-1	5.746852E-1	5.966763E-1	6.242698E-1	5.586866E-1	5.665170E-1	5.909810E-1	6.016981E-1	5.759049E-1	5.923394E-1	5.810689E-1	5.907405E-1	5.868986E-1	5.728374E-1	5.628865E-1	6.219789E-1	5.749369E-1	5.759421E-1	6.012896E-1	5.799282E-1	5.551103E-1	5.861533E-1	5.611271E-1	5.678496E-1	5.788008E-1	5.851767E-1	5.976090E-1	5.970628E-1	6.024918E-1	5.815663E-1	5.782050E-1	5.916767E-1	5.558239E-1	5.932104E-1	5.915708E-1	5.847151E-1	6.164683E-1	5.689757E-1	5.665981E-1	5.879122E-1	5.880261E-1	5.808079E-1	5.811525E-1	6.043655E-1	5.638016E-1	5.636809E-1	5.923436E-1	5.794242E-1	6.001457E-1	5.702390E-1	5.919803E-1	5.983623E-1	5.437453E-1	5.968347E-1	5.846395E-1	6.040789E-1	5.638982E-1	5.913773E-1	5.849938E-1	5.674034E-1	5.556976E-1	5.913171E-1	5.956919E-1	5.710398E-1	5.637878E-1	5.962525E-1	5.670593E-1	5.735780E-1	5.855812E-1	5.942982E-1	6.163831E-1	5.920485E-1	5.781803E-1	5.796603E-1	6.031928E-1	6.150580E-1	5.788366E-1	5.951824E-1	5.827801E-1	5.902704E-1	5.919493E-1	5.758755E-1	5.798130E-1	6.336801E-1	6.178620E-1	6.012564E-1	5.796800E-1	5.729904E-1	5.618009E-1	5.886827E-1	5.675225E-1	5.977854E-1	5.913036E-1	5.867162E-1	5.923305E-1	5.895069E-1	6.012269E-1	6.089532E-1	5.913673E-1	5.900879E-1	5.816087E-1	6.063253E-1	5.739309E-1	6.067628E-1	5.612754E-1	6.047639E-1	6.121445E-1	5.947555E-1	5.975510E-1	5.733454E-1	6.109064E-1	5.986470E-1	6.261133E-1	5.946866E-1	5.777885E-1	5.956847E-1	5.940161E-1	5.857221E-1	5.841086E-1	6.197456E-1	5.658475E-1	5.978240E-1	5.799155E-1
5.380110E+2	6.865448E-1	6.498678E-1	6.534984E-1	6.443930E-1	6.713790E-1	6.989546E-1	6.682714E-1	6.674031E-1	6.765338E-1	6.717403E-1	6.588418E-1	6.700263E-1	6.844037E-1	6.665231E-1	6.686081E-1	6.704497E-1	6.921675E-1	6.732706E-1	6.977493E-1	6.741641E-1	7.261832E-1	6.983828E-1	6.645012E-1	6.945289E-1	7.084002E-1	7.487231E-1	7.315073E-1	7.179398E-1	6.786431E-1	6.805455E-1	7.372933E-1	6.721641E-1	7.122422E-1	7.159903E-1	6.552282E-1	7.127301E-1	6.888000E-1	6.726475E-1	6.744887E-1	6.866516E-1	7.188160E-1	6.911413E-1	6.955838E-1	6.791584E-1	6.854939E-1	7.316282E-1	7.163856E-1	6.901290E-1	6.988843E-1	6.901669E-1	6.962135E-1	6.515849E-1	7.126565E-1	7.086653E-1	7.083537E-1	7.238751E-1	7.066459E-1	7.161143E-1	6.569731E-1	6.183060E-1	6.976364E-1	6.995129E-1	6.930755E-1	6.774824E-1	7.114461E-1	6.247988E-1	7.328623E-1	6.774193E-1	7.083272E-1	7.101042E-1	6.746994E-1	6.780575E-1	6.466747E-1	7.090926E-1	6.752913E-1	7.095694E-1	6.889103E-1	6.836838E-1	7.030433E-1	6.905697E-1	7.133971E-1	6.781531E-1	7.060223E-1	7.203795E-1	7.007460E-1	7.105350E-1	6.829547E-1	6.702853E-1	7.523310E-1	6.741355E-1	6.908698E-1	7.010332E-1	6.676855E-1	7.043983E-1	7.114668E-1	6.766086E-1	6.829500E-1	6.834774E-1	7.006861E-1	6.975813E-1	6.809558E-1	6.753890E-1	7.225846E-1	6.570251E-1	6.744373E-1	6.650745E-1	6.749913E-1	6.829291E-1	6.712563E-1	6.739308E-1	6.507667E-1	6.613573E-1	7.422582E-1	7.014250E-1	6.922922E-1	7.177278E-1	6.631518E-1	6.789805E-1	7.147312E-1	6.914423E-1	6.690359E-1	6.738318E-1	6.989285E-1	7.001110E-1	7.057653E-1	6.934908E-1	7.156043E-1	7.264818E-1	7.154654E-1	7.016390E-1	7.170199E-1	6.739802E-1	7.038424E-1	6.897451E-1	7.176408E-1	6.822834E-1	6.796168E-1	6.998092E-1	6.753862E-1	6.735729E-1	6.393949E-1	6.864691E-1	6.902711E-1	7.110094E-1	6.816309E-1	7.125366E-1	7.310729E-1	6.849830E-1	7.245310E-1	6.434881E-1	6.528812E-1	6.651829E-1	7.119957E-1	6.793454E-1	7.268388E-1	7.086926E-1	7.222570E-1	7.202364E-1	6.944213E-1	7.060883E-1	7.019206E-1	7.040204E-1	7.159971E-1	6.803233E-1	6.910793E-1	7.045484E-1	6.879177E-1	6.907154E-1	6.698917E-1	6.062948E-1
5.382640E+2	8.018844E-1	8.063944E-1	8.303683E-1	8.200774E-1	8.329593E-1	8.253120E-1	8.315862E-1	8.234051E-1	8.296457E-1	8.331505E-1	8.563723E-1	7.909488E-1	8.233473E-1	8.398002E-1	8.411404E-1	8.342596E-1	8.150104E-1	8.799668E-1	8.584262E-1	8.244465E-1	8.089970E-1	8.120334E-1	8.114545E-1	8.049053E-1	8.989469E-1	8.854279E-1	8.645346E-1	8.284611E-1	8.717106E-1	8.301400E-1	8.274265E-1	7.975901E-1	8.284554E-1	8.272816E-1	8.660723E-1	8.167058E-1	8.494935E-1	8.453197E-1	8.255709E-1	8.551905E-1	8.530404E-1	7.800189E-1	8.557093E-1	8.403306E-1	8.396937E-1	8.800622E-1	8.216367E-1	8.007306E-1	8.352313E-1	8.218989E-1	8.225635E-1	8.145859E-1	8.335351E-1	8.618571E-1	8.764859E-1	8.415786E-1	8.707008E-1	8.572566E-1	8.336358E-1	8.351052E-1	8.444091E-1	8.003222E-1	7.940928E-1	8.316468E-1	8.271201E-1	8.254807E-1	8.254921E-1	8.115164E-1	8.104322E-1	7.960064E-1	8.137594E-1	8.251417E-1	8.450695E-1	8.559561E-1	8.078912E-1	8.493458E-1	8.155937E-1	8.291095E-1	8.614139E-1	8.599462E-1	8.530183E-1	8.302104E-1	8.459610E-1	8.517836E-1	8.272323E-1	8.575420E-1	8.144507E-1	8.218086E-1	8.493991E-1	8.220383E-1	7.906941E-1	8.056618E-1	8.141853E-1	8.173569E-1	8.308291E-1	8.204267E-1	8.103713E-1	8.206258E-1	8.724362E-1	8.274059E-1	8.167310E-1	8.056619E-1	8.287328E-1	8.208632E-1	8.622856E-1	8.429318E-1	8.833237E-1	8.725842E-1	8.326162E-1	8.657959E-1	8.200220E-1	8.069032E-1	8.669460E-1	8.411959E-1	8.316815E-1	8.820844E-1	8.302410E-1	8.259045E-1	8.510214E-1	8.484646E-1	7.877975E-1	8.398621E-1	8.476619E-1	8.682410E-1	8.452183E-1	8.370108E-1	8.148882E-1	8.225760E-1	8.112229E-1	8.369084E-1	8.313274E-1	8.187798E-1	8.145638E-1	8.131084E-1	8.531699E-1	8.447351E-1	8.912512E-1	8.490008E-1	8.063288E-1	8.302769E-1	8.338325E-1	8.649916E-1	8.034410E-1	8.083704E-1	8.084222E-1	8.586648E-1	8.132238E-1	8.361055E-1	8.563452E-1	7.964912E-1	7.980265E-1	8.214715E-1	8.141927E-1	8.778986E-1	8.134511E-1	8.500768E-1	8.230741E-1	8.158760E-1	8.221553E-1	8.148833E-1	8.139870E-1	8.901672E-1	8.156178E-1	8.650722E-1	8.477449E-1	8.448324E-1	8.131756E-1	8.262226E-1	8.684558E-1	7.468064E-1
5.385110E+2	1.060302E+0	1.054507E+0	1.040323E+0	1.077433E+0	1.042372E+0	1.019480E+0	1.059172E+0	1.084180E+0	1.006881E+0	1.076935E+0	1.057180E+0	1.031739E+0	1.030862E+0	1.064946E+0	1.053763E+0	1.041991E+0	1.041415E+0	1.037099E+0	1.027848E+0	1.094556E+0	1.053440E+0	1.030003E+0	1.034566E+0	1.017737E+0	1.068730E+0	1.084401E+0	1.073981E+0	1.097842E+0	1.079783E+0	1.025808E+0	1.071402E+0	1.030131E+0	1.055138E+0	1.046247E+0	1.014428E+0	1.074745E+0	1.036076E+0	1.067228E+0	1.041669E+0	1.065307E+0	1.091967E+0	1.040288E+0	1.131498E+0	1.100908E+0	1.100391E+0	1.038894E+0	1.098929E+0	1.035361E+0	1.063005E+0	1.016272E+0	1.081276E+0	9.457784E-1	1.037736E+0	1.050263E+0	1.082174E+0	1.088916E+0	1.019081E+0	1.064824E+0	1.026620E+0	1.045745E+0	1.007067E+0	1.027574E+0	1.053375E+0	1.025903E+0	1.055467E+0	1.047597E+0	1.085588E+0	1.033535E+0	1.042857E+0	1.059689E+0	9.940128E-1	1.035596E+0	1.063240E+0	1.095063E+0	1.077502E+0	1.053916E+0	1.046606E+0	1.040796E+0	1.076456E+0	1.047372E+0	1.007884E+0	1.100706E+0	1.059777E+0	1.061520E+0	1.047291E+0	1.041328E+0	1.028257E+0	1.020920E+0	1.073578E+0	1.080283E+0	1.035559E+0	1.102210E+0	1.064013E+0	1.048104E+0	1.077652E+0	1.036118E+0	1.022121E+0	1.064112E+0	1.064571E+0	1.040268E+0	1.060910E+0	1.094305E+0	1.042850E+0	9.837611E-1	1.076561E+0	1.062548E+0	1.016815E+0	1.040759E+0	1.050204E+0	1.105705E+0	1.024229E+0	1.060626E+0	1.100113E+0	1.058128E+0	1.020338E+0	1.102779E+0	1.005647E+0	1.048985E+0	1.061295E+0	1.015618E+0	9.940474E-1	1.102431E+0	1.057603E+0	1.030705E+0	1.051875E+0	1.034921E+0	1.080838E+0	1.027971E+0	1.059972E+0	1.049257E+0	1.041867E+0	9.885890E-1	1.051690E+0	1.029877E+0	1.054012E+0	1.049259E+0	1.090198E+0	1.033596E+0	1.082569E+0	1.071364E+0	1.057688E+0	1.046585E+0	1.017653E+0	1.052937E+0	1.011693E+0	1.025764E+0	1.035856E+0	1.021811E+0	1.053956E+0	1.043504E+0	9.855185E-1	1.027388E+0	1.018090E+0	1.049886E+0	1.063852E+0	1.051738E+0	1.046979E+0	1.042775E+0	1.059329E+0	1.072705E+0	1.081178E+0	1.027666E+0	1.065568E+0	1.023540E+0	1.044887E+0	1.096110E+0	1.050824E+0	1.004307E+0	1.062640E+0	1.105345E+0
5.387700E+2	1.215680E+0	1.224502E+0	1.235147E+0	1.216186E+0	1.237158E+0	1.257430E+0	1.256945E+0	1.253336E+0	1.290957E+0	1.270235E+0	1.219711E+0	1.259320E+0	1.226176E+0	1.221690E+0	1.250246E+0	1.236603E+0	1.243202E+0	1.258504E+0	1.202794E+0	1.250440E+0	1.222748E+0	1.210923E+0	1.260337E+0	1.227610E+0	1.305345E+0	1.300104E+0	1.242576E+0	1.236429E+0	1.241008E+0	1.270795E+0	1.276793E+0	1.225572E+0	1.265685E+0	1.243056E+0	1.252902E+0	1.263102E+0	1.260872E+0	1.180909E+0	1.217475E+0	1.240906E+0	1.257310E+0	1.279849E+0	1.242057E+0	1.262541E+0	1.282525E+0	1.248616E+0	1.225553E+0	1.200770E+0	1.257032E+0	1.307343E+0	1.259906E+0	1.266657E+0	1.246955E+0	1.265215E+0	1.192270E+0	1.204592E+0	1.269167E+0	1.231008E+0	1.245669E+0	1.256151E+0	1.207416E+0	1.227769E+0	1.257753E+0	1.223347E+0	1.254877E+0	1.193833E+0	1.276908E+0	1.266447E+0	1.257850E+0	1.214416E+0	1.239954E+0	1.206062E+0	1.201289E+0	1.258701E+0	1.248606E+0	1.293113E+0	1.242327E+0	1.238069E+0	1.224739E+0	1.261974E+0	1.230294E+0	1.230284E+0	1.195821E+0	1.187621E+0	1.209400E+0	1.261474E+0	1.263835E+0	1.227185E+0	1.233581E+0	1.271978E+0	1.237985E+0	1.247226E+0	1.188783E+0	1.241084E+0	1.289545E+0	1.205511E+0	1.248300E+0	1.206358E+0	1.301107E+0	1.204705E+0	1.214922E+0	1.239282E+0	1.242573E+0	1.213385E+0	1.260058E+0	1.203310E+0	1.245225E+0	1.195130E+0	1.166821E+0	1.246201E+0	1.222141E+0	1.243571E+0	1.309199E+0	1.289531E+0	1.229797E+0	1.251250E+0	1.222025E+0	1.207535E+0	1.260421E+0	1.251756E+0	1.216779E+0	1.272667E+0	1.214912E+0	1.264438E+0	1.221497E+0	1.190580E+0	1.194530E+0	1.222014E+0	1.230874E+0	1.254545E+0	1.277702E+0	1.181214E+0	1.200120E+0	1.182382E+0	1.252138E+0	1.191958E+0	1.249020E+0	1.244150E+0	1.235824E+0	1.215614E+0	1.219600E+0	1.306641E+0	1.176520E+0	1.252350E+0	1.285902E+0	1.219776E+0	1.276234E+0	1.219072E+0	1.221684E+0	1.221920E+0	1.218547E+0	1.258656E+0	1.254760E+0	1.231617E+0	1.210659E+0	1.226196E+0	1.258730E+0	1.219619E+0	1.299366E+0	1.243195E+0	1.244648E+0	1.266999E+0	1.242936E+0	1.154002E+0	1.239133E+0	1.248390E+0	1.205266E+0	1.276489E+0	1.204525E+0	1.287580E+0
5.390240E+2	1.454678E+0	1.440788E+0	1.429889E+0	1.491520E+0	1.473831E+0	1.414493E+0	1.467013E+0	1.473779E+0	1.444766E+0	1.462556E+0	1.478670E+0	1.508899E+0	1.500703E+0	1.458802E+0	1.495941E+0	1.388873E+0	1.487360E+0	1.454607E+0	1.488475E+0	1.470356E+0	1.452839E+0	1.393822E+0	1.427029E+0	1.426754E+0	1.483590E+0	1.528753E+0	1.453283E+0	1.512762E+0	1.403665E+0	1.471631E+0	1.451875E+0	1.449135E+0	1.529861E+0	1.438919E+0	1.472433E+0	1.539396E+0	1.432571E+0	1.456386E+0	1.470873E+0	1.411292E+0	1.488328E+0	1.450061E+0	1.445633E+0	1.447569E+0	1.479371E+0	1.442405E+0	1.439943E+0	1.473382E+0	1.450942E+0	1.521999E+0	1.486672E+0	1.456587E+0	1.450149E+0	1.447167E+0	1.493066E+0	1.447352E+0	1.535215E+0	1.472426E+0	1.471307E+0	1.415756E+0	1.412491E+0	1.414186E+0	1.446347E+0	1.476765E+0	1.426328E+0	1.445003E+0	1.487285E+0	1.450380E+0	1.410391E+0	1.400642E+0	1.394508E+0	1.394605E+0	1.440073E+0	1.456600E+0	1.478099E+0	1.470956E+0	1.461764E+0	1.452151E+0	1.440065E+0	1.436215E+0	1.438526E+0	1.453373E+0	1.394868E+0	1.470134E+0	1.434814E+0	1.478389E+0	1.384867E+0	1.424437E+0	1.523600E+0	1.463395E+0	1.420393E+0	1.482993E+0	1.495580E+0	1.392267E+0	1.508993E+0	1.454396E+0	1.428387E+0	1.438017E+0	1.508228E+0	1.497764E+0	1.394421E+0	1.418120E+0	1.391964E+0	1.445596E+0	1.483524E+0	1.435699E+0	1.434015E+0	1.420322E+0	1.403298E+0	1.454179E+0	1.405824E+0	1.430360E+0	1.568479E+0	1.436924E+0	1.432444E+0	1.461517E+0	1.448538E+0	1.431719E+0	1.485711E+0	1.436299E+0	1.451545E+0	1.488968E+0	1.396200E+0	1.428200E+0	1.401809E+0	1.460877E+0	1.428158E+0	1.426327E+0	1.396731E+0	1.431770E+0	1.481984E+0	1.390353E+0	1.427088E+0	1.406522E+0	1.474724E+0	1.406017E+0	1.446200E+0	1.428260E+0	1.459963E+0	1.400271E+0	1.415724E+0	1.451146E+0	1.436124E+0	1.437592E+0	1.486360E+0	1.467281E+0	1.457972E+0	1.387162E+0	1.489785E+0	1.443344E+0	1.416583E+0	1.437535E+0	1.417294E+0	1.504918E+0	1.401268E+0	1.383289E+0	1.444078E+0	1.443378E+0	1.453699E+0	1.462152E+0	1.448454E+0	1.411143E+0	1.394526E+0	1.469343E+0	1.477844E+0	1.451504E+0	1.438713E+0	1.438634E+0	1.450027E+0	1.425193E+0
5.392930E+2	1.718079E+0	1.729755E+0	1.670560E+0	1.764534E+0	1.755846E+0	1.701383E+0	1.714800E+0	1.752007E+0	1.732673E+0	1.752682E+0	1.757766E+0	1.715613E+0	1.690438E+0	1.717281E+0	1.710401E+0	1.670690E+0	1.705444E+0	1.724169E+0	1.704644E+0	1.680194E+0	1.737522E+0	1.676420E+0	1.693973E+0	1.676043E+0	1.687831E+0	1.762468E+0	1.702535E+0	1.690097E+0	1.724204E+0	1.675803E+0	1.686587E+0	1.639552E+0	1.763418E+0	1.741852E+0	1.703817E+0	1.737883E+0	1.716952E+0	1.766088E+0	1.687966E+0	1.708937E+0	1.759676E+0	1.701355E+0	1.738750E+0	1.724390E+0	1.668216E+0	1.689087E+0	1.696313E+0	1.741945E+0	1.670773E+0	1.709059E+0	1.732763E+0	1.711888E+0	1.749151E+0	1.688088E+0	1.616256E+0	1.690895E+0	1.762117E+0	1.689825E+0	1.697161E+0	1.672984E+0	1.620972E+0	1.621088E+0	1.727325E+0	1.748482E+0	1.723881E+0	1.656895E+0	1.689736E+0	1.689048E+0	1.661565E+0	1.657475E+0	1.657688E+0	1.681278E+0	1.692882E+0	1.749558E+0	1.748013E+0	1.687238E+0	1.671807E+0	1.683574E+0	1.696691E+0	1.634804E+0	1.637194E+0	1.714860E+0	1.682207E+0	1.744047E+0	1.664317E+0	1.700356E+0	1.644065E+0	1.690579E+0	1.706673E+0	1.682801E+0	1.692506E+0	1.729497E+0	1.629143E+0	1.665945E+0	1.755470E+0	1.639324E+0	1.646304E+0	1.706326E+0	1.756778E+0	1.718405E+0	1.654192E+0	1.635592E+0	1.674461E+0	1.635438E+0	1.577888E+0	1.669840E+0	1.682223E+0	1.715399E+0	1.643988E+0	1.693363E+0	1.632790E+0	1.653436E+0	1.748414E+0	1.714251E+0	1.662958E+0	1.654563E+0	1.644336E+0	1.654691E+0	1.697048E+0	1.686108E+0	1.704623E+0	1.639333E+0	1.579842E+0	1.683458E+0	1.683752E+0	1.715701E+0	1.598370E+0	1.672876E+0	1.629010E+0	1.696023E+0	1.691059E+0	1.666235E+0	1.700120E+0	1.678743E+0	1.707621E+0	1.679346E+0	1.719521E+0	1.700379E+0	1.612841E+0	1.648968E+0	1.636547E+0	1.678106E+0	1.710903E+0	1.716666E+0	1.687345E+0	1.642966E+0	1.692878E+0	1.622448E+0	1.619167E+0	1.625533E+0	1.622775E+0	1.624798E+0	1.670927E+0	1.637437E+0	1.654101E+0	1.624859E+0	1.700199E+0	1.699185E+0	1.601853E+0	1.622092E+0	1.638754E+0	1.633496E+0	1.655799E+0	1.681503E+0	1.670647E+0	1.659006E+0	1.711916E+0	1.664742E+0	1.715402E+0	1.677329E+0
5.395050E+2	1.800839E+0	1.887925E+0	1.857027E+0	1.821274E+0	1.884271E+0	1.813838E+0	1.839997E+0	1.810300E+0	1.878927E+0	1.822070E+0	1.878733E+0	1.820131E+0	1.820553E+0	1.795770E+0	1.797854E+0	1.814772E+0	1.778188E+0	1.842245E+0	1.866926E+0	1.743295E+0	1.833037E+0	1.799136E+0	1.824475E+0	1.834591E+0	1.811969E+0	1.799268E+0	1.825121E+0	1.831751E+0	1.825068E+0	1.831856E+0	1.781304E+0	1.789490E+0	1.884265E+0	1.813339E+0	1.830131E+0	1.878861E+0	1.866678E+0	1.848616E+0	1.805315E+0	1.832687E+0	1.837544E+0	1.773320E+0	1.866176E+0	1.876394E+0	1.809262E+0	1.785395E+0	1.783285E+0	1.824478E+0	1.814556E+0	1.822765E+0	1.858830E+0	1.782124E+0	1.865915E+0	1.830503E+0	1.773970E+0	1.802598E+0	1.783790E+0	1.828292E+0	1.824193E+0	1.772994E+0	1.779149E+0	1.777764E+0	1.805308E+0	1.813450E+0	1.780472E+0	1.768147E+0	1.762586E+0	1.847664E+0	1.784473E+0	1.756971E+0	1.798089E+0	1.780005E+0	1.837891E+0	1.881018E+0	1.839580E+0	1.827844E+0	1.793887E+0	1.763643E+0	1.794747E+0	1.810998E+0	1.819531E+0	1.802887E+0	1.753227E+0	1.768822E+0	1.762141E+0	1.873749E+0	1.797720E+0	1.763207E+0	1.796748E+0	1.805013E+0	1.746958E+0	1.811379E+0	1.794092E+0	1.777578E+0	1.823220E+0	1.803532E+0	1.775613E+0	1.731614E+0	1.806107E+0	1.815856E+0	1.758519E+0	1.748906E+0	1.812640E+0	1.771801E+0	1.834428E+0	1.874429E+0	1.729834E+0	1.790719E+0	1.763161E+0	1.831575E+0	1.716348E+0	1.706038E+0	1.825047E+0	1.783834E+0	1.804901E+0	1.767191E+0	1.774560E+0	1.793692E+0	1.805317E+0	1.783025E+0	1.808052E+0	1.796745E+0	1.744377E+0	1.772651E+0	1.791872E+0	1.742788E+0	1.791255E+0	1.818960E+0	1.788997E+0	1.762165E+0	1.831803E+0	1.756417E+0	1.731051E+0	1.730437E+0	1.803549E+0	1.753090E+0	1.823655E+0	1.820020E+0	1.818904E+0	1.732567E+0	1.759309E+0	1.785839E+0	1.773952E+0	1.834596E+0	1.819582E+0	1.774544E+0	1.754239E+0	1.747720E+0	1.738213E+0	1.778193E+0	1.745681E+0	1.761207E+0	1.827719E+0	1.817264E+0	1.779267E+0	1.760725E+0	1.789213E+0	1.796624E+0	1.773896E+0	1.699028E+0	1.814127E+0	1.749052E+0	1.757815E+0	1.719615E+0	1.823098E+0	1.833387E+0	1.761091E+0	1.727884E+0	1.803932E+0	1.789214E+0
5.397700E+2	1.889648E+0	1.915984E+0	1.866174E+0	1.846644E+0	1.955963E+0	1.859809E+0	1.868267E+0	1.897055E+0	1.874303E+0	1.914306E+0	1.917941E+0	1.926893E+0	1.865590E+0	1.881889E+0	1.906757E+0	1.902839E+0	1.852807E+0	1.888666E+0	1.942642E+0	1.863624E+0	1.858328E+0	1.800763E+0	1.874634E+0	1.837668E+0	1.841361E+0	1.927531E+0	1.893388E+0	1.884598E+0	1.842532E+0	1.850461E+0	1.856431E+0	1.814431E+0	1.919206E+0	1.879841E+0	1.855311E+0	1.916236E+0	1.838474E+0	1.845747E+0	1.851505E+0	1.827986E+0	1.868409E+0	1.812867E+0	1.918763E+0	1.912202E+0	1.918576E+0	1.867581E+0	1.842040E+0	1.824763E+0	1.906098E+0	1.843234E+0	1.850403E+0	1.794963E+0	1.796849E+0	1.888968E+0	1.877453E+0	1.890532E+0	1.855659E+0	1.847608E+0	1.864984E+0	1.874820E+0	1.836156E+0	1.877214E+0	1.847083E+0	1.884804E+0	1.888434E+0	1.854764E+0	1.840097E+0	1.884311E+0	1.853457E+0	1.848082E+0	1.734807E+0	1.841239E+0	1.851380E+0	1.918131E+0	1.869835E+0	1.832009E+0	1.784061E+0	1.825538E+0	1.816576E+0	1.888338E+0	1.872960E+0	1.858165E+0	1.856610E+0	1.834718E+0	1.808296E+0	1.880909E+0	1.859006E+0	1.802368E+0	1.882331E+0	1.825748E+0	1.824596E+0	1.827298E+0	1.807046E+0	1.801020E+0	1.916765E+0	1.835352E+0	1.824303E+0	1.886898E+0	1.865929E+0	1.872017E+0	1.835057E+0	1.833434E+0	1.852138E+0	1.881157E+0	1.907464E+0	1.885035E+0	1.814530E+0	1.811964E+0	1.833267E+0	1.817178E+0	1.781906E+0	1.793403E+0	1.887553E+0	1.832119E+0	1.727308E+0	1.832192E+0	1.895885E+0	1.856492E+0	1.852739E+0	1.846684E+0	1.859041E+0	1.825932E+0	1.774689E+0	1.795068E+0	1.832797E+0	1.760971E+0	1.815811E+0	1.849666E+0	1.806306E+0	1.773447E+0	1.914003E+0	1.844505E+0	1.868138E+0	1.784414E+0	1.887234E+0	1.823935E+0	1.901162E+0	1.855490E+0	1.742421E+0	1.783383E+0	1.769004E+0	1.851945E+0	1.849591E+0	1.820587E+0	1.766328E+0	1.855908E+0	1.803053E+0	1.780294E+0	1.806829E+0	1.759065E+0	1.776372E+0	1.829946E+0	1.858588E+0	1.805202E+0	1.845108E+0	1.832076E+0	1.867398E+0	1.815751E+0	1.816270E+0	1.828691E+0	1.819170E+0	1.855942E+0	1.883150E+0	1.828021E+0	1.785904E+0	1.900003E+0	1.761741E+0	1.839446E+0	1.808864E+0	1.813634E+0
5.400350E+2	1.913346E+0	1.940429E+0	1.904318E+0	1.938185E+0	1.881254E+0	1.879281E+0	1.873287E+0	1.931348E+0	1.904586E+0	1.985851E+0	1.898108E+0	1.909370E+0	1.907710E+0	1.915974E+0	1.916900E+0	1.922005E+0	1.838111E+0	1.931138E+0	1.852670E+0	1.924435E+0	1.834464E+0	1.882340E+0	1.871729E+0	1.894960E+0	1.905560E+0	1.917648E+0	1.868576E+0	1.859136E+0	1.948526E+0	1.851282E+0	1.841096E+0	1.859809E+0	1.946318E+0	1.908023E+0	1.841295E+0	1.864475E+0	1.853091E+0	1.837882E+0	1.917558E+0	1.875787E+0	1.889646E+0	1.850697E+0	1.862312E+0	1.898570E+0	1.910421E+0	1.874483E+0	1.891522E+0	1.840462E+0	1.849936E+0	1.840222E+0	1.892893E+0	1.864973E+0	1.894141E+0	1.880555E+0	1.831173E+0	1.857354E+0	1.896270E+0	1.837134E+0	1.815336E+0	1.849742E+0	1.811587E+0	1.870009E+0	1.849916E+0	1.895954E+0	1.767445E+0	1.846704E+0	1.879130E+0	1.856971E+0	1.839350E+0	1.826750E+0	1.799173E+0	1.828867E+0	1.899242E+0	1.907182E+0	1.893572E+0	1.914388E+0	1.833822E+0	1.807898E+0	1.803847E+0	1.877686E+0	1.924003E+0	1.902434E+0	1.830447E+0	1.849424E+0	1.868507E+0	1.865995E+0	1.808075E+0	1.819009E+0	1.862139E+0	1.863777E+0	1.842537E+0	1.887307E+0	1.791719E+0	1.824563E+0	1.877619E+0	1.834228E+0	1.783894E+0	1.871904E+0	1.870658E+0	1.815781E+0	1.848504E+0	1.810879E+0	1.780888E+0	1.794321E+0	1.897181E+0	1.880429E+0	1.814798E+0	1.842973E+0	1.837462E+0	1.872082E+0	1.845025E+0	1.842008E+0	1.940228E+0	1.879530E+0	1.805870E+0	1.819357E+0	1.788683E+0	1.823606E+0	1.858844E+0	1.822378E+0	1.839305E+0	1.808624E+0	1.768728E+0	1.849925E+0	1.860785E+0	1.746773E+0	1.803655E+0	1.789615E+0	1.796525E+0	1.807485E+0	1.865494E+0	1.846730E+0	1.893389E+0	1.792696E+0	1.878592E+0	1.852646E+0	1.865773E+0	1.872537E+0	1.844254E+0	1.768865E+0	1.803515E+0	1.825435E+0	1.859812E+0	1.837243E+0	1.915482E+0	1.836512E+0	1.829165E+0	1.799424E+0	1.800248E+0	1.798338E+0	1.806942E+0	1.781954E+0	1.817596E+0	1.774405E+0	1.779024E+0	1.834429E+0	1.798390E+0	1.868085E+0	1.784832E+0	1.800256E+0	1.883155E+0	1.790426E+0	1.838192E+0	1.828869E+0	1.874066E+0	1.842624E+0	1.826554E+0	1.808446E+0	1.841140E+0	1.801155E+0
5.402630E+2	1.874050E+0	1.895757E+0	1.863609E+0	1.860281E+0	1.862245E+0	1.832790E+0	1.829767E+0	1.859148E+0	1.821748E+0	1.789629E+0	1.935109E+0	1.876036E+0	1.884170E+0	1.881673E+0	1.860924E+0	1.890226E+0	1.834967E+0	1.810061E+0	1.873277E+0	1.838314E+0	1.850632E+0	1.798395E+0	1.871720E+0	1.841828E+0	1.870343E+0	1.835339E+0	1.855435E+0	1.859388E+0	1.888388E+0	1.833092E+0	1.822091E+0	1.775119E+0	1.884044E+0	1.873078E+0	1.880257E+0	1.930923E+0	1.817596E+0	1.860886E+0	1.830756E+0	1.855256E+0	1.884014E+0	1.827590E+0	1.846206E+0	1.887056E+0	1.859462E+0	1.874738E+0	1.843275E+0	1.839593E+0	1.911021E+0	1.873833E+0	1.786795E+0	1.860733E+0	1.841032E+0	1.860286E+0	1.851232E+0	1.856009E+0	1.882083E+0	1.839643E+0	1.855507E+0	1.856787E+0	1.810648E+0	1.789788E+0	1.856657E+0	1.834603E+0	1.808219E+0	1.862323E+0	1.903877E+0	1.824894E+0	1.836773E+0	1.817798E+0	1.776987E+0	1.837989E+0	1.844613E+0	1.846700E+0	1.843672E+0	1.820131E+0	1.816821E+0	1.792714E+0	1.845867E+0	1.798778E+0	1.880078E+0	1.858473E+0	1.838232E+0	1.798141E+0	1.804132E+0	1.884659E+0	1.747603E+0	1.814732E+0	1.802819E+0	1.845729E+0	1.782769E+0	1.863811E+0	1.817227E+0	1.775596E+0	1.818153E+0	1.851285E+0	1.831964E+0	1.819122E+0	1.815174E+0	1.780980E+0	1.780622E+0	1.766923E+0	1.812048E+0	1.789907E+0	1.885408E+0	1.822736E+0	1.763814E+0	1.804259E+0	1.765599E+0	1.844138E+0	1.772427E+0	1.787020E+0	1.872568E+0	1.906680E+0	1.788572E+0	1.830067E+0	1.813983E+0	1.879537E+0	1.818779E+0	1.821987E+0	1.804924E+0	1.812420E+0	1.757719E+0	1.843485E+0	1.807678E+0	1.802226E+0	1.799443E+0	1.838365E+0	1.823248E+0	1.764697E+0	1.915370E+0	1.727192E+0	1.803123E+0	1.789748E+0	1.777603E+0	1.827044E+0	1.846230E+0	1.810737E+0	1.778923E+0	1.815395E+0	1.826985E+0	1.801213E+0	1.796203E+0	1.861962E+0	1.823481E+0	1.852280E+0	1.753372E+0	1.793870E+0	1.765476E+0	1.803400E+0	1.775210E+0	1.791909E+0	1.821462E+0	1.823969E+0	1.762002E+0	1.870271E+0	1.826552E+0	1.778650E+0	1.752491E+0	1.787600E+0	1.785971E+0	1.797314E+0	1.809079E+0	1.800683E+0	1.773514E+0	1.831680E+0	1.801864E+0	1.781652E+0	1.831768E+0	1.838218E+0
5.405240E+2	1.716082E+0	1.735428E+0	1.726237E+0	1.745601E+0	1.658212E+0	1.659826E+0	1.692651E+0	1.739015E+0	1.738285E+0	1.743044E+0	1.750957E+0	1.732714E+0	1.733685E+0	1.707235E+0	1.713865E+0	1.677345E+0	1.693287E+0	1.717101E+0	1.716100E+0	1.686235E+0	1.703750E+0	1.706747E+0	1.710922E+0	1.690221E+0	1.760553E+0	1.683048E+0	1.740883E+0	1.668483E+0	1.640442E+0	1.716206E+0	1.674664E+0	1.698803E+0	1.688170E+0	1.712860E+0	1.658305E+0	1.788545E+0	1.729514E+0	1.697045E+0	1.649708E+0	1.688175E+0	1.725989E+0	1.641275E+0	1.700539E+0	1.779027E+0	1.729363E+0	1.666255E+0	1.647676E+0	1.745215E+0	1.745219E+0	1.645426E+0	1.719832E+0	1.691275E+0	1.716676E+0	1.700901E+0	1.714093E+0	1.715612E+0	1.706873E+0	1.736109E+0	1.688449E+0	1.726151E+0	1.672494E+0	1.629203E+0	1.659256E+0	1.657768E+0	1.692733E+0	1.646763E+0	1.693601E+0	1.648204E+0	1.688438E+0	1.678415E+0	1.649791E+0	1.708902E+0	1.681444E+0	1.767398E+0	1.752601E+0	1.707281E+0	1.686440E+0	1.662328E+0	1.665685E+0	1.684411E+0	1.725957E+0	1.696992E+0	1.622355E+0	1.682690E+0	1.658176E+0	1.675515E+0	1.643785E+0	1.721727E+0	1.744328E+0	1.640915E+0	1.619937E+0	1.668254E+0	1.640662E+0	1.665818E+0	1.695303E+0	1.699261E+0	1.694032E+0	1.679007E+0	1.700203E+0	1.627849E+0	1.665303E+0	1.657100E+0	1.658456E+0	1.629768E+0	1.669463E+0	1.726958E+0	1.641073E+0	1.719907E+0	1.664712E+0	1.655302E+0	1.655313E+0	1.632636E+0	1.700561E+0	1.672863E+0	1.621769E+0	1.752386E+0	1.609330E+0	1.679282E+0	1.661819E+0	1.651702E+0	1.700247E+0	1.675992E+0	1.639277E+0	1.727510E+0	1.671839E+0	1.681786E+0	1.632349E+0	1.654372E+0	1.723849E+0	1.694335E+0	1.729021E+0	1.635442E+0	1.646284E+0	1.607223E+0	1.678678E+0	1.640518E+0	1.736996E+0	1.701267E+0	1.677125E+0	1.589400E+0	1.726625E+0	1.652923E+0	1.630841E+0	1.691626E+0	1.681124E+0	1.665836E+0	1.629739E+0	1.655368E+0	1.634190E+0	1.644768E+0	1.716429E+0	1.656712E+0	1.719472E+0	1.646758E+0	1.570956E+0	1.681515E+0	1.661706E+0	1.684143E+0	1.651406E+0	1.652986E+0	1.641664E+0	1.639336E+0	1.637780E+0	1.588099E+0	1.679720E+0	1.681279E+0	1.661823E+0	1.595893E+0	1.643941E+0	1.640889E+0
5.407580E+2	1.703637E+0	1.712225E+0	1.653103E+0	1.684912E+0	1.677253E+0	1.667535E+0	1.643236E+0	1.703992E+0	1.673011E+0	1.724949E+0	1.693035E+0	1.671337E+0	1.642920E+0	1.634242E+0	1.627276E+0	1.609098E+0	1.688514E+0	1.669286E+0	1.685248E+0	1.673738E+0	1.701447E+0	1.684935E+0	1.670734E+0	1.651224E+0	1.671373E+0	1.745601E+0	1.697301E+0	1.685673E+0	1.620004E+0	1.643621E+0	1.649138E+0	1.597314E+0	1.704321E+0	1.640446E+0	1.599222E+0	1.678014E+0	1.693895E+0	1.663462E+0	1.643787E+0	1.683499E+0	1.674669E+0	1.689257E+0	1.689738E+0	1.657059E+0	1.678764E+0	1.650529E+0	1.618987E+0	1.629293E+0	1.709537E+0	1.652470E+0	1.676632E+0	1.649886E+0	1.678552E+0	1.661217E+0	1.664908E+0	1.643429E+0	1.679286E+0	1.654885E+0	1.667528E+0	1.612354E+0	1.648464E+0	1.594684E+0	1.630620E+0	1.654339E+0	1.606531E+0	1.625851E+0	1.652321E+0	1.679881E+0	1.634588E+0	1.711482E+0	1.605906E+0	1.700476E+0	1.632540E+0	1.701145E+0	1.673030E+0	1.640144E+0	1.629988E+0	1.655797E+0	1.563334E+0	1.618199E+0	1.710828E+0	1.653333E+0	1.645476E+0	1.635962E+0	1.641045E+0	1.690717E+0	1.638065E+0	1.617415E+0	1.709380E+0	1.644848E+0	1.580833E+0	1.635108E+0	1.613172E+0	1.614928E+0	1.651530E+0	1.701328E+0	1.649815E+0	1.601741E+0	1.665338E+0	1.668135E+0	1.673903E+0	1.610930E+0	1.620664E+0	1.587429E+0	1.678285E+0	1.648075E+0	1.545874E+0	1.584688E+0	1.626031E+0	1.654069E+0	1.605090E+0	1.604080E+0	1.659977E+0	1.636826E+0	1.591256E+0	1.598916E+0	1.596821E+0	1.610520E+0	1.662692E+0	1.625937E+0	1.628835E+0	1.648609E+0	1.617426E+0	1.702704E+0	1.694033E+0	1.625257E+0	1.623266E+0	1.628538E+0	1.622604E+0	1.648836E+0	1.641591E+0	1.609882E+0	1.600450E+0	1.644377E+0	1.649499E+0	1.621720E+0	1.698118E+0	1.653112E+0	1.600469E+0	1.625867E+0	1.612724E+0	1.649633E+0	1.605447E+0	1.630974E+0	1.649581E+0	1.703798E+0	1.538779E+0	1.662497E+0	1.621391E+0	1.554423E+0	1.604950E+0	1.583427E+0	1.695260E+0	1.594442E+0	1.616648E+0	1.640673E+0	1.667952E+0	1.616193E+0	1.582000E+0	1.637154E+0	1.614678E+0	1.630677E+0	1.610906E+0	1.555692E+0	1.615137E+0	1.655281E+0	1.598123E+0	1.616764E+0	1.668309E+0	1.668773E+0
5.410400E+2	1.672626E+0	1.610234E+0	1.634042E+0	1.670527E+0	1.651859E+0	1.656550E+0	1.697415E+0	1.671268E+0	1.646945E+0	1.611957E+0	1.601063E+0	1.642404E+0	1.656131E+0	1.621678E+0	1.625115E+0	1.589043E+0	1.631477E+0	1.663629E+0	1.626174E+0	1.607429E+0	1.633876E+0	1.645887E+0	1.670251E+0	1.606028E+0	1.635915E+0	1.665356E+0	1.567070E+0	1.629757E+0	1.609793E+0	1.633235E+0	1.569078E+0	1.570395E+0	1.640536E+0	1.624153E+0	1.626239E+0	1.666911E+0	1.592819E+0	1.608268E+0	1.589477E+0	1.621711E+0	1.652323E+0	1.659105E+0	1.591648E+0	1.633913E+0	1.691918E+0	1.619400E+0	1.616310E+0	1.627454E+0	1.653746E+0	1.641558E+0	1.625083E+0	1.558955E+0	1.629611E+0	1.648524E+0	1.606094E+0	1.614255E+0	1.613545E+0	1.614601E+0	1.614435E+0	1.544097E+0	1.578916E+0	1.608179E+0	1.592623E+0	1.652053E+0	1.633242E+0	1.607498E+0	1.625703E+0	1.581546E+0	1.602592E+0	1.560484E+0	1.566558E+0	1.583692E+0	1.603268E+0	1.654380E+0	1.625466E+0	1.628831E+0	1.636503E+0	1.582363E+0	1.570575E+0	1.598264E+0	1.645478E+0	1.689908E+0	1.610581E+0	1.637355E+0	1.616963E+0	1.665613E+0	1.604814E+0	1.606692E+0	1.602439E+0	1.582288E+0	1.607550E+0	1.632817E+0	1.596569E+0	1.570304E+0	1.640960E+0	1.612695E+0	1.607083E+0	1.627726E+0	1.633472E+0	1.560107E+0	1.593886E+0	1.634531E+0	1.637980E+0	1.590453E+0	1.644498E+0	1.641957E+0	1.573157E+0	1.550546E+0	1.601656E+0	1.630347E+0	1.554683E+0	1.618806E+0	1.751516E+0	1.560000E+0	1.540576E+0	1.656247E+0	1.639970E+0	1.622069E+0	1.585555E+0	1.640532E+0	1.580516E+0	1.603162E+0	1.595179E+0	1.598693E+0	1.613892E+0	1.535200E+0	1.562361E+0	1.658045E+0	1.549227E+0	1.623736E+0	1.619787E+0	1.563482E+0	1.626792E+0	1.569347E+0	1.583104E+0	1.591788E+0	1.591102E+0	1.621713E+0	1.588361E+0	1.602250E+0	1.556130E+0	1.550909E+0	1.556543E+0	1.674331E+0	1.633497E+0	1.605329E+0	1.552831E+0	1.615044E+0	1.567899E+0	1.581524E+0	1.556720E+0	1.557763E+0	1.660129E+0	1.622802E+0	1.562000E+0	1.594031E+0	1.628600E+0	1.666847E+0	1.549374E+0	1.542398E+0	1.609934E+0	1.637355E+0	1.582046E+0	1.559588E+0	1.571792E+0	1.627172E+0	1.604708E+0	1.578617E+0	1.532517E+0	1.631614E+0
5.412640E+2	1.423297E+0	1.524681E+0	1.441352E+0	1.510699E+0	1.482422E+0	1.453107E+0	1.518248E+0	1.488272E+0	1.515362E+0	1.511853E+0	1.482182E+0	1.490753E+0	1.457665E+0	1.541095E+0	1.460520E+0	1.483639E+0	1.537969E+0	1.486904E+0	1.533540E+0	1.510038E+0	1.513186E+0	1.450017E+0	1.503416E+0	1.424084E+0	1.522417E+0	1.508749E+0	1.495201E+0	1.450634E+0	1.475651E+0	1.440310E+0	1.445628E+0	1.456776E+0	1.524593E+0	1.419961E+0	1.489786E+0	1.464908E+0	1.481545E+0	1.425650E+0	1.513583E+0	1.430333E+0	1.512043E+0	1.467335E+0	1.515114E+0	1.500535E+0	1.513049E+0	1.460890E+0	1.458555E+0	1.415692E+0	1.497957E+0	1.483972E+0	1.490660E+0	1.454285E+0	1.509703E+0	1.474815E+0	1.491282E+0	1.472094E+0	1.493531E+0	1.493738E+0	1.461403E+0	1.474925E+0	1.462116E+0	1.443870E+0	1.489094E+0	1.528385E+0	1.531567E+0	1.426285E+0	1.465182E+0	1.465155E+0	1.437061E+0	1.459490E+0	1.489260E+0	1.483874E+0	1.449466E+0	1.508872E+0	1.476944E+0	1.461701E+0	1.455181E+0	1.454481E+0	1.449225E+0	1.470440E+0	1.542102E+0	1.503193E+0	1.494089E+0	1.490124E+0	1.465710E+0	1.492825E+0	1.490172E+0	1.469587E+0	1.497122E+0	1.458280E+0	1.461569E+0	1.474604E+0	1.444639E+0	1.440147E+0	1.539665E+0	1.473937E+0	1.476776E+0	1.519652E+0	1.471019E+0	1.447111E+0	1.506688E+0	1.460879E+0	1.505698E+0	1.460910E+0	1.477834E+0	1.511424E+0	1.492032E+0	1.459121E+0	1.453062E+0	1.505625E+0	1.418861E+0	1.488528E+0	1.532973E+0	1.525545E+0	1.454994E+0	1.520434E+0	1.439345E+0	1.456355E+0	1.475373E+0	1.475678E+0	1.470551E+0	1.497215E+0	1.443114E+0	1.487918E+0	1.468832E+0	1.489271E+0	1.465612E+0	1.487468E+0	1.515986E+0	1.443549E+0	1.523926E+0	1.429699E+0	1.449021E+0	1.472856E+0	1.477992E+0	1.474418E+0	1.493733E+0	1.500117E+0	1.465343E+0	1.442108E+0	1.470301E+0	1.511083E+0	1.373509E+0	1.428311E+0	1.512324E+0	1.501770E+0	1.497989E+0	1.458906E+0	1.487975E+0	1.430635E+0	1.467678E+0	1.414476E+0	1.466268E+0	1.478115E+0	1.429961E+0	1.396382E+0	1.464256E+0	1.496848E+0	1.477982E+0	1.468306E+0	1.416486E+0	1.475175E+0	1.467389E+0	1.412756E+0	1.483234E+0	1.444658E+0	1.443746E+0	1.452775E+0	1.503691E+0	1.429688E+0
5.415140E+2	1.396738E+0	1.371631E+0	1.394945E+0	1.334258E+0	1.405050E+0	1.388649E+0	1.381494E+0	1.368312E+0	1.418716E+0	1.356482E+0	1.414473E+0	1.439483E+0	1.360791E+0	1.367549E+0	1.387310E+0	1.355625E+0	1.370001E+0	1.333715E+0	1.376487E+0	1.347698E+0	1.394708E+0	1.406245E+0	1.385506E+0	1.382943E+0	1.344161E+0	1.390633E+0	1.383768E+0	1.341888E+0	1.396412E+0	1.369018E+0	1.381201E+0	1.377917E+0	1.417021E+0	1.367610E+0	1.396896E+0	1.387647E+0	1.393791E+0	1.338419E+0	1.345733E+0	1.349734E+0	1.430759E+0	1.322912E+0	1.343310E+0	1.385462E+0	1.403677E+0	1.350613E+0	1.430708E+0	1.375835E+0	1.357355E+0	1.396709E+0	1.338631E+0	1.348528E+0	1.408625E+0	1.454171E+0	1.362264E+0	1.368540E+0	1.433766E+0	1.368067E+0	1.292304E+0	1.341639E+0	1.333728E+0	1.347049E+0	1.359608E+0	1.376609E+0	1.396063E+0	1.364807E+0	1.386280E+0	1.348625E+0	1.332540E+0	1.363400E+0	1.358114E+0	1.364720E+0	1.370349E+0	1.356244E+0	1.403269E+0	1.365979E+0	1.335717E+0	1.341827E+0	1.323894E+0	1.308500E+0	1.405863E+0	1.386022E+0	1.355168E+0	1.284929E+0	1.393684E+0	1.331275E+0	1.352678E+0	1.394463E+0	1.377586E+0	1.351439E+0	1.371507E+0	1.362966E+0	1.359474E+0	1.336887E+0	1.368096E+0	1.355675E+0	1.359193E+0	1.387777E+0	1.418150E+0	1.400062E+0	1.338804E+0	1.334054E+0	1.432498E+0	1.375581E+0	1.327446E+0	1.369475E+0	1.286761E+0	1.342310E+0	1.309335E+0	1.343878E+0	1.333828E+0	1.338004E+0	1.398922E+0	1.347825E+0	1.329717E+0	1.380722E+0	1.359964E+0	1.404035E+0	1.386660E+0	1.335208E+0	1.343229E+0	1.367541E+0	1.284572E+0	1.351295E+0	1.361692E+0	1.295278E+0	1.342990E+0	1.335938E+0	1.354161E+0	1.331740E+0	1.413331E+0	1.362685E+0	1.357652E+0	1.355918E+0	1.360103E+0	1.328185E+0	1.308184E+0	1.403365E+0	1.318611E+0	1.365301E+0	1.355069E+0	1.370515E+0	1.365715E+0	1.384729E+0	1.365254E+0	1.370579E+0	1.366621E+0	1.337739E+0	1.344998E+0	1.365371E+0	1.330093E+0	1.386936E+0	1.389636E+0	1.369480E+0	1.289368E+0	1.344789E+0	1.361130E+0	1.356400E+0	1.368507E+0	1.316746E+0	1.359788E+0	1.426175E+0	1.308132E+0	1.298031E+0	1.388747E+0	1.343500E+0	1.356824E+0	1.321063E+0	1.305588E+0	1.451061E+0
5.417760E+2	1.261968E+0	1.256867E+0	1.282506E+0	1.309374E+0	1.289760E+0	1.228691E+0	1.286503E+0	1.284258E+0	1.304602E+0	1.240716E+0	1.349118E+0	1.246659E+0	1.282981E+0	1.268463E+0	1.242344E+0	1.261897E+0	1.296589E+0	1.297968E+0	1.315993E+0	1.302523E+0	1.322337E+0	1.207992E+0	1.259123E+0	1.226108E+0	1.312840E+0	1.316580E+0	1.313020E+0	1.232853E+0	1.250426E+0	1.261553E+0	1.204123E+0	1.254132E+0	1.284553E+0	1.268574E+0	1.266637E+0	1.274952E+0	1.238235E+0	1.268381E+0	1.268432E+0	1.260729E+0	1.286120E+0	1.237962E+0	1.266990E+0	1.240949E+0	1.284960E+0	1.247784E+0	1.243926E+0	1.217866E+0	1.302487E+0	1.275559E+0	1.297671E+0	1.233484E+0	1.300533E+0	1.252157E+0	1.266252E+0	1.278168E+0	1.295196E+0	1.274435E+0	1.307899E+0	1.281890E+0	1.212144E+0	1.241653E+0	1.271315E+0	1.261519E+0	1.267969E+0	1.201140E+0	1.270361E+0	1.293428E+0	1.212846E+0	1.294787E+0	1.296356E+0	1.265048E+0	1.277992E+0	1.296364E+0	1.306748E+0	1.246545E+0	1.249653E+0	1.247286E+0	1.280329E+0	1.268061E+0	1.291231E+0	1.319702E+0	1.264788E+0	1.277493E+0	1.277791E+0	1.311956E+0	1.231409E+0	1.279955E+0	1.278705E+0	1.295774E+0	1.224538E+0	1.257175E+0	1.243988E+0	1.278963E+0	1.299358E+0	1.257887E+0	1.266819E+0	1.242203E+0	1.282223E+0	1.239182E+0	1.281362E+0	1.271950E+0	1.327533E+0	1.248501E+0	1.294038E+0	1.311885E+0	1.227089E+0	1.255397E+0	1.239530E+0	1.313780E+0	1.235895E+0	1.275210E+0	1.320139E+0	1.300321E+0	1.282626E+0	1.310958E+0	1.255520E+0	1.249608E+0	1.239648E+0	1.264290E+0	1.248600E+0	1.242403E+0	1.249590E+0	1.296344E+0	1.306071E+0	1.251057E+0	1.233348E+0	1.240120E+0	1.242753E+0	1.327049E+0	1.286430E+0	1.200186E+0	1.246664E+0	1.262198E+0	1.304587E+0	1.250715E+0	1.269644E+0	1.325612E+0	1.213974E+0	1.266310E+0	1.286937E+0	1.305107E+0	1.233434E+0	1.265065E+0	1.321009E+0	1.295302E+0	1.278764E+0	1.312321E+0	1.209212E+0	1.250779E+0	1.262383E+0	1.286226E+0	1.278335E+0	1.286590E+0	1.259678E+0	1.289490E+0	1.255640E+0	1.258944E+0	1.280496E+0	1.249848E+0	1.255921E+0	1.283725E+0	1.214392E+0	1.286776E+0	1.298862E+0	1.305819E+0	1.264676E+0	1.191028E+0	1.320129E+0	1.266669E+0
5.420110E+2	1.085561E+0	1.112065E+0	1.123811E+0	1.128717E+0	1.104248E+0	1.108655E+0	1.115955E+0	1.128027E+0	1.101391E+0	1.103971E+0	1.065079E+0	1.112188E+0	1.113394E+0	1.084609E+0	1.115302E+0	1.100513E+0	1.071963E+0	1.105344E+0	1.059317E+0	1.081775E+0	1.099000E+0	1.064312E+0	1.071934E+0	1.088112E+0	1.092616E+0	1.134101E+0	1.106658E+0	1.093594E+0	1.088749E+0	1.105390E+0	1.071440E+0	1.046396E+0	1.143625E+0	1.117496E+0	1.080624E+0	1.097442E+0	1.103033E+0	1.103327E+0	1.053303E+0	1.092771E+0	1.122706E+0	1.094208E+0	1.058840E+0	1.062754E+0	1.095873E+0	1.102015E+0	1.096191E+0	1.069474E+0	1.108610E+0	1.097588E+0	1.137843E+0	1.079423E+0	1.094584E+0	1.113369E+0	1.073063E+0	1.104901E+0	1.155363E+0	1.062988E+0	1.078402E+0	1.065566E+0	1.064340E+0	1.065963E+0	1.071516E+0	1.117124E+0	1.166985E+0	1.054961E+0	1.127668E+0	1.070761E+0	1.073559E+0	1.089320E+0	1.062307E+0	1.076806E+0	1.090752E+0	1.092632E+0	1.115623E+0	1.105359E+0	1.052934E+0	1.090857E+0	1.100830E+0	1.099114E+0	1.094128E+0	1.136217E+0	1.052013E+0	1.084550E+0	1.084214E+0	1.083871E+0	1.105919E+0	1.072584E+0	1.039305E+0	1.105296E+0	1.100082E+0	1.073666E+0	1.082482E+0	1.083680E+0	1.094922E+0	1.132937E+0	1.081769E+0	1.052778E+0	1.126297E+0	1.065883E+0	1.072840E+0	1.060029E+0	1.066193E+0	1.083054E+0	1.080498E+0	1.127700E+0	1.068009E+0	1.044989E+0	1.089329E+0	1.098701E+0	1.036929E+0	1.103677E+0	1.150105E+0	1.091942E+0	1.115122E+0	1.071980E+0	1.079667E+0	1.024627E+0	1.122354E+0	1.062105E+0	1.081654E+0	1.060909E+0	1.070836E+0	1.109713E+0	1.119616E+0	1.081751E+0	1.092392E+0	1.082217E+0	1.093089E+0	1.065047E+0	1.104480E+0	1.064646E+0	1.086002E+0	1.108855E+0	1.094980E+0	1.048150E+0	1.126994E+0	1.147646E+0	1.073817E+0	1.093898E+0	1.052851E+0	1.082284E+0	1.103462E+0	1.066371E+0	1.091366E+0	1.092382E+0	1.064351E+0	1.080965E+0	1.131072E+0	1.076760E+0	1.039753E+0	1.060419E+0	1.087976E+0	1.092961E+0	1.073893E+0	1.103551E+0	1.080568E+0	1.098677E+0	1.094253E+0	1.095791E+0	1.105814E+0	1.110197E+0	1.098537E+0	1.125985E+0	1.100532E+0	1.108666E+0	1.108565E+0	1.097702E+0	1.071325E+0	1.124861E+0
5.422620E+2	9.068931E-1	9.725930E-1	9.231784E-1	9.704804E-1	9.374601E-1	9.198114E-1	9.685255E-1	9.536340E-1	9.963942E-1	9.806038E-1	9.697783E-1	9.567857E-1	9.387479E-1	9.599577E-1	9.521865E-1	9.137770E-1	9.403694E-1	9.065282E-1	1.036125E+0	9.659665E-1	9.214329E-1	9.432113E-1	9.609326E-1	9.735344E-1	1.012097E+0	9.801821E-1	9.802459E-1	9.740703E-1	9.935265E-1	9.647331E-1	9.201744E-1	9.646209E-1	9.808613E-1	9.408146E-1	9.585722E-1	9.729299E-1	9.137055E-1	9.383775E-1	9.345105E-1	9.498482E-1	9.937363E-1	9.508500E-1	9.749638E-1	9.329945E-1	9.488557E-1	9.533565E-1	9.269730E-1	9.421662E-1	9.455817E-1	9.764855E-1	9.832334E-1	8.895253E-1	9.463130E-1	9.751031E-1	9.674994E-1	9.545776E-1	9.640670E-1	9.612412E-1	9.371060E-1	9.560581E-1	9.447233E-1	9.292981E-1	9.298538E-1	9.644969E-1	9.562303E-1	9.994682E-1	9.719080E-1	9.604758E-1	9.514312E-1	9.580424E-1	9.469550E-1	9.678983E-1	9.629367E-1	9.715059E-1	9.386740E-1	9.216664E-1	9.622869E-1	9.382816E-1	9.489186E-1	9.497921E-1	9.623316E-1	9.698620E-1	9.367144E-1	9.386147E-1	8.831867E-1	9.443857E-1	9.670639E-1	9.507424E-1	9.712522E-1	9.771349E-1	9.510005E-1	9.606608E-1	9.765613E-1	9.393753E-1	1.008177E+0	9.230697E-1	9.813805E-1	9.767778E-1	1.010599E+0	9.669110E-1	9.688088E-1	9.988115E-1	9.342407E-1	9.578935E-1	9.723262E-1	9.958013E-1	9.345045E-1	9.732949E-1	9.429004E-1	1.020492E+0	9.234811E-1	9.237997E-1	1.021751E+0	9.529695E-1	9.204047E-1	9.552758E-1	9.680372E-1	9.620278E-1	9.477555E-1	9.785330E-1	9.515875E-1	9.892665E-1	9.439192E-1	9.627238E-1	9.876252E-1	9.654604E-1	9.623097E-1	9.364370E-1	9.440950E-1	9.541014E-1	9.454901E-1	9.257751E-1	9.640304E-1	9.728270E-1	9.515787E-1	9.558232E-1	9.967084E-1	9.340597E-1	9.738695E-1	9.170232E-1	9.226483E-1	9.891809E-1	9.613966E-1	9.666166E-1	9.923562E-1	9.528060E-1	9.399943E-1	9.629046E-1	9.388649E-1	9.574331E-1	9.328685E-1	9.714848E-1	9.699292E-1	9.904082E-1	9.607499E-1	9.361857E-1	9.718250E-1	9.568927E-1	9.233196E-1	9.255858E-1	9.166550E-1	9.929097E-1	9.703546E-1	9.575729E-1	9.906371E-1	9.865186E-1	9.286243E-1	9.132206E-1	1.003861E+0	1.014347E+0
5.425190E+2	8.784220E-1	8.575237E-1	8.737093E-1	8.805755E-1	8.782434E-1	8.978516E-1	8.886614E-1	8.904420E-1	8.889749E-1	9.189013E-1	8.854990E-1	9.304748E-1	8.539194E-1	8.536985E-1	8.816809E-1	8.724561E-1	9.163996E-1	8.962490E-1	8.982093E-1	8.631892E-1	9.091842E-1	8.976497E-1	8.821990E-1	9.173949E-1	9.226560E-1	9.368388E-1	9.146592E-1	8.992719E-1	8.863453E-1	9.020274E-1	8.954107E-1	8.845779E-1	8.992809E-1	9.010669E-1	8.821945E-1	9.167490E-1	8.934628E-1	9.119736E-1	9.075161E-1	8.771860E-1	9.422466E-1	9.384240E-1	8.802849E-1	9.001258E-1	9.163024E-1	9.144180E-1	8.960339E-1	8.862164E-1	8.861550E-1	9.167064E-1	8.672160E-1	9.039592E-1	8.800625E-1	9.414249E-1	8.907610E-1	9.273780E-1	9.000674E-1	9.327978E-1	8.932027E-1	9.248700E-1	8.981538E-1	8.948431E-1	8.639751E-1	8.866619E-1	8.959743E-1	9.005812E-1	9.034624E-1	9.219440E-1	9.126062E-1	9.396450E-1	8.857552E-1	9.134773E-1	8.709370E-1	9.383218E-1	9.097218E-1	8.767740E-1	8.888690E-1	8.846163E-1	8.778675E-1	8.753900E-1	9.203795E-1	8.898304E-1	8.725552E-1	8.846716E-1	8.973857E-1	8.676609E-1	8.719147E-1	8.554868E-1	9.052144E-1	9.087901E-1	8.772464E-1	8.943580E-1	8.786461E-1	9.206200E-1	9.323622E-1	8.945293E-1	8.933431E-1	9.443571E-1	9.196385E-1	8.673041E-1	9.182946E-1	8.848614E-1	8.654167E-1	8.496172E-1	9.110873E-1	8.729016E-1	8.918421E-1	9.075040E-1	8.809838E-1	9.238058E-1	8.866275E-1	8.866213E-1	9.347675E-1	8.783516E-1	9.196693E-1	9.572705E-1	8.723894E-1	9.019994E-1	9.203651E-1	8.870043E-1	9.086637E-1	8.593186E-1	8.798029E-1	9.159841E-1	9.113632E-1	8.726465E-1	8.822307E-1	8.453332E-1	8.802743E-1	8.827339E-1	9.065429E-1	8.949353E-1	9.063657E-1	8.904802E-1	9.107089E-1	9.219965E-1	9.188479E-1	9.117479E-1	8.853741E-1	8.773217E-1	9.106617E-1	9.273035E-1	8.956705E-1	9.205646E-1	8.814222E-1	9.004746E-1	8.647834E-1	8.900820E-1	8.615318E-1	8.665232E-1	9.045222E-1	8.827952E-1	9.090637E-1	9.335454E-1	8.691989E-1	8.679196E-1	9.064606E-1	8.990845E-1	9.132721E-1	8.490348E-1	9.403568E-1	8.912887E-1	9.063344E-1	8.661514E-1	8.808783E-1	9.053073E-1	9.049354E-1	8.941492E-1	8.924300E-1	9.480822E-1
5.427650E+2	8.975573E-1	9.023898E-1	9.267099E-1	9.807052E-1	8.973022E-1	9.135630E-1	9.464017E-1	9.378913E-1	9.375372E-1	9.147774E-1	9.431314E-1	9.301544E-1	9.257247E-1	8.933100E-1	9.191061E-1	9.201992E-1	8.744391E-1	9.334208E-1	9.062077E-1	9.536964E-1	9.170526E-1	9.398799E-1	8.879586E-1	9.237510E-1	9.662451E-1	9.664166E-1	9.525520E-1	9.830299E-1	9.477523E-1	9.455416E-1	8.967581E-1	9.047807E-1	9.363620E-1	9.424175E-1	9.752154E-1	9.375146E-1	9.242044E-1	9.725469E-1	9.388670E-1	9.117671E-1	9.193333E-1	9.713252E-1	9.222088E-1	9.055081E-1	9.391079E-1	9.512021E-1	9.049165E-1	9.238860E-1	9.125407E-1	8.989211E-1	9.431145E-1	9.053380E-1	9.550749E-1	9.411021E-1	9.106224E-1	8.871418E-1	9.346601E-1	9.160997E-1	9.487481E-1	9.284520E-1	9.252501E-1	8.835519E-1	8.890583E-1	9.286128E-1	9.372569E-1	9.177325E-1	9.196023E-1	9.632273E-1	9.018878E-1	8.987969E-1	8.808010E-1	9.490058E-1	9.133768E-1	9.159895E-1	8.911179E-1	9.547580E-1	9.283371E-1	8.584769E-1	9.300391E-1	9.199521E-1	9.362533E-1	9.339120E-1	9.375800E-1	9.173176E-1	8.911070E-1	9.397267E-1	9.048976E-1	9.074360E-1	9.293159E-1	9.617812E-1	8.926258E-1	8.896085E-1	9.163315E-1	9.230937E-1	9.208359E-1	9.227547E-1	8.934387E-1	9.303399E-1	9.623400E-1	9.118724E-1	9.161807E-1	9.035516E-1	9.657694E-1	9.067587E-1	9.351668E-1	9.239653E-1	9.470373E-1	9.064277E-1	8.908928E-1	9.010345E-1	8.961076E-1	9.152659E-1	9.390597E-1	9.321035E-1	9.465932E-1	9.276854E-1	9.111141E-1	9.523958E-1	9.508325E-1	9.064318E-1	8.860661E-1	9.040592E-1	9.289033E-1	9.508287E-1	9.166544E-1	8.938809E-1	9.098054E-1	9.142140E-1	9.132332E-1	9.022651E-1	9.690644E-1	8.766814E-1	9.237229E-1	8.972167E-1	9.534535E-1	9.048924E-1	1.012645E+0	9.683261E-1	8.996271E-1	9.029546E-1	9.386455E-1	9.487791E-1	9.245389E-1	9.280721E-1	9.302232E-1	9.177570E-1	9.125289E-1	9.090840E-1	9.188902E-1	9.881930E-1	9.244020E-1	9.575780E-1	9.676193E-1	9.535037E-1	9.148482E-1	8.952846E-1	9.696953E-1	9.325869E-1	9.174714E-1	9.091686E-1	8.881182E-1	9.583375E-1	8.988699E-1	8.544297E-1	9.278028E-1	8.885087E-1	9.322017E-1	9.027225E-1	9.541628E-1	9.025576E-1
5.430120E+2	9.759370E-1	9.683882E-1	9.990107E-1	9.714096E-1	9.321068E-1	9.920919E-1	9.719163E-1	9.631817E-1	9.710697E-1	1.004993E+0	1.020831E+0	9.859958E-1	9.779384E-1	9.495365E-1	9.819322E-1	9.860933E-1	9.582028E-1	1.000593E+0	9.922611E-1	9.447593E-1	9.418868E-1	9.553268E-1	9.491840E-1	9.750769E-1	1.037082E+0	9.841825E-1	1.048143E+0	1.021259E+0	9.976401E-1	1.013735E+0	9.976735E-1	9.396608E-1	1.002086E+0	1.012368E+0	9.833671E-1	9.978443E-1	9.895907E-1	9.746092E-1	9.750709E-1	9.779188E-1	1.053145E+0	9.381138E-1	1.010032E+0	9.729338E-1	9.835768E-1	9.659659E-1	9.823653E-1	1.007591E+0	1.020770E+0	9.983569E-1	9.869831E-1	9.422511E-1	9.769485E-1	9.846981E-1	9.989554E-1	9.549256E-1	9.578676E-1	9.948223E-1	9.874155E-1	1.006286E+0	9.600599E-1	9.576071E-1	9.620933E-1	9.841350E-1	9.802209E-1	1.004528E+0	9.760179E-1	9.787235E-1	9.520662E-1	9.417283E-1	9.799592E-1	9.906959E-1	9.851418E-1	1.030119E+0	9.745608E-1	9.469716E-1	9.629895E-1	9.779780E-1	9.846887E-1	9.476609E-1	9.813803E-1	9.824017E-1	9.751908E-1	1.058175E+0	9.669616E-1	9.816586E-1	9.405559E-1	9.627425E-1	9.977418E-1	1.042079E+0	9.628850E-1	9.951030E-1	1.001802E+0	9.685849E-1	9.970387E-1	9.592449E-1	9.735836E-1	9.823902E-1	1.056094E+0	9.324379E-1	9.757814E-1	9.766274E-1	9.587497E-1	9.552794E-1	9.570925E-1	9.758011E-1	9.381717E-1	9.941177E-1	9.757832E-1	9.696953E-1	9.476495E-1	9.323502E-1	1.024171E+0	9.927015E-1	9.885523E-1	9.930935E-1	1.000704E+0	9.926174E-1	1.015015E+0	9.923630E-1	1.023000E+0	9.628926E-1	9.761560E-1	9.735885E-1	1.007841E+0	9.925530E-1	9.835997E-1	9.377246E-1	1.010836E+0	9.857041E-1	1.039183E+0	9.579523E-1	9.892461E-1	9.704688E-1	9.964079E-1	9.833072E-1	1.052165E+0	9.530093E-1	9.565125E-1	9.653355E-1	9.644561E-1	1.007294E+0	1.016828E+0	9.488197E-1	9.771740E-1	9.933989E-1	9.566598E-1	9.950226E-1	9.687597E-1	9.832278E-1	9.504554E-1	9.530612E-1	9.562863E-1	9.865541E-1	9.238150E-1	9.363781E-1	9.958319E-1	9.940357E-1	9.733517E-1	9.646769E-1	9.283038E-1	9.800361E-1	1.007138E+0	9.805733E-1	9.414100E-1	9.939619E-1	9.418313E-1	9.948519E-1	9.861121E-1	1.038437E+0
5.433020E+2	1.124968E+0	1.156481E+0	1.144516E+0	1.158658E+0	1.130414E+0	1.214962E+0	1.138539E+0	1.112965E+0	1.109874E+0	1.130824E+0	1.145422E+0	1.140208E+0	1.090758E+0	1.176520E+0	1.154562E+0	1.116034E+0	1.151457E+0	1.148389E+0	1.127128E+0	1.115281E+0	1.175043E+0	1.171450E+0	1.114814E+0	1.133998E+0	1.213265E+0	1.199380E+0	1.087809E+0	1.176523E+0	1.168857E+0	1.141414E+0	1.141278E+0	1.118588E+0	1.140297E+0	1.151010E+0	1.177349E+0	1.128280E+0	1.129990E+0	1.115367E+0	1.157916E+0	1.183757E+0	1.179010E+0	1.141139E+0	1.193365E+0	1.169444E+0	1.172023E+0	1.148925E+0	1.164478E+0	1.150238E+0	1.168905E+0	1.191763E+0	1.181521E+0	1.135852E+0	1.170426E+0	1.104503E+0	1.170833E+0	1.129587E+0	1.197628E+0	1.120797E+0	1.105278E+0	1.180577E+0	1.134356E+0	1.122059E+0	1.149464E+0	1.127291E+0	1.138231E+0	1.137177E+0	1.148827E+0	1.168001E+0	1.134950E+0	1.147259E+0	1.113627E+0	1.145069E+0	1.162959E+0	1.178822E+0	1.104858E+0	1.113158E+0	1.106236E+0	1.154077E+0	1.168968E+0	1.123390E+0	1.155082E+0	1.169185E+0	1.148729E+0	1.164501E+0	1.164079E+0	1.132257E+0	1.160436E+0	1.134558E+0	1.182844E+0	1.158661E+0	1.157505E+0	1.134728E+0	1.151585E+0	1.101425E+0	1.143558E+0	1.123938E+0	1.123846E+0	1.144508E+0	1.205069E+0	1.132914E+0	1.155180E+0	1.209341E+0	1.178313E+0	1.125196E+0	1.173062E+0	1.186905E+0	1.116194E+0	1.088902E+0	1.127058E+0	1.168269E+0	1.117480E+0	1.134933E+0	1.194925E+0	1.152692E+0	1.182733E+0	1.193333E+0	1.126921E+0	1.223599E+0	1.117749E+0	1.169783E+0	1.132610E+0	1.187261E+0	1.163213E+0	1.150664E+0	1.153263E+0	1.138145E+0	1.129547E+0	1.157591E+0	1.141044E+0	1.139047E+0	1.197806E+0	1.123322E+0	1.135695E+0	1.146872E+0	1.199725E+0	1.117777E+0	1.162879E+0	1.140947E+0	1.129021E+0	1.108825E+0	1.123725E+0	1.135971E+0	1.111293E+0	1.118864E+0	1.119851E+0	1.184586E+0	1.098157E+0	1.143310E+0	1.132076E+0	1.115306E+0	1.193514E+0	1.171371E+0	1.138903E+0	1.135516E+0	1.148966E+0	1.189854E+0	1.172355E+0	1.171917E+0	1.153357E+0	1.139673E+0	1.124733E+0	1.148057E+0	1.157786E+0	1.077507E+0	1.136244E+0	1.185759E+0	1.083940E+0	1.133183E+0	1.155868E+0	1.091655E+0
5.435270E+2	1.297044E+0	1.332792E+0	1.346615E+0	1.293073E+0	1.303470E+0	1.322919E+0	1.374918E+0	1.353604E+0	1.393462E+0	1.321512E+0	1.334263E+0	1.384607E+0	1.301390E+0	1.332617E+0	1.347452E+0	1.355005E+0	1.294291E+0	1.304802E+0	1.321414E+0	1.307166E+0	1.355676E+0	1.358189E+0	1.337801E+0	1.322070E+0	1.335393E+0	1.416982E+0	1.351680E+0	1.347553E+0	1.330866E+0	1.280694E+0	1.296760E+0	1.263280E+0	1.311933E+0	1.350552E+0	1.370134E+0	1.365393E+0	1.322846E+0	1.308919E+0	1.303229E+0	1.361019E+0	1.332984E+0	1.297116E+0	1.395146E+0	1.360333E+0	1.339115E+0	1.338880E+0	1.329147E+0	1.323168E+0	1.345442E+0	1.389468E+0	1.372182E+0	1.275956E+0	1.359714E+0	1.369734E+0	1.288690E+0	1.340191E+0	1.328152E+0	1.281556E+0	1.276238E+0	1.319978E+0	1.329430E+0	1.334181E+0	1.287993E+0	1.323219E+0	1.283031E+0	1.341055E+0	1.322050E+0	1.318176E+0	1.335885E+0	1.322148E+0	1.276526E+0	1.333338E+0	1.319803E+0	1.407326E+0	1.318267E+0	1.337912E+0	1.313248E+0	1.288256E+0	1.299593E+0	1.310127E+0	1.342248E+0	1.397510E+0	1.310156E+0	1.323323E+0	1.278934E+0	1.335751E+0	1.305717E+0	1.368861E+0	1.370779E+0	1.388857E+0	1.264304E+0	1.360319E+0	1.289534E+0	1.307852E+0	1.362042E+0	1.322801E+0	1.316894E+0	1.342402E+0	1.360026E+0	1.315721E+0	1.308048E+0	1.307347E+0	1.297181E+0	1.254091E+0	1.353068E+0	1.355607E+0	1.330447E+0	1.364749E+0	1.320220E+0	1.346403E+0	1.266488E+0	1.337914E+0	1.337745E+0	1.366281E+0	1.267561E+0	1.331193E+0	1.312020E+0	1.270187E+0	1.366802E+0	1.309243E+0	1.352671E+0	1.346397E+0	1.260941E+0	1.309891E+0	1.347056E+0	1.324708E+0	1.286344E+0	1.328930E+0	1.293174E+0	1.345437E+0	1.341818E+0	1.280858E+0	1.301202E+0	1.298355E+0	1.332646E+0	1.334579E+0	1.348462E+0	1.314319E+0	1.276458E+0	1.306554E+0	1.348943E+0	1.318483E+0	1.311706E+0	1.304708E+0	1.325071E+0	1.316201E+0	1.272675E+0	1.269976E+0	1.292701E+0	1.281588E+0	1.317240E+0	1.288418E+0	1.332747E+0	1.327888E+0	1.284097E+0	1.305410E+0	1.281880E+0	1.351984E+0	1.294210E+0	1.329212E+0	1.283095E+0	1.348682E+0	1.342290E+0	1.300723E+0	1.320511E+0	1.318366E+0	1.304317E+0	1.227578E+0	1.281161E+0	1.375581E+0
5.437640E+2	1.393844E+0	1.398599E+0	1.384055E+0	1.432218E+0	1.398172E+0	1.392189E+0	1.399971E+0	1.419972E+0	1.392942E+0	1.379298E+0	1.436092E+0	1.430689E+0	1.369369E+0	1.388429E+0	1.432936E+0	1.354702E+0	1.372667E+0	1.372569E+0	1.354599E+0	1.412754E+0	1.381156E+0	1.407095E+0	1.381712E+0	1.381198E+0	1.420020E+0	1.426702E+0	1.417322E+0	1.462877E+0	1.385310E+0	1.401124E+0	1.377833E+0	1.372547E+0	1.395581E+0	1.428501E+0	1.411082E+0	1.381327E+0	1.393491E+0	1.389857E+0	1.372974E+0	1.422359E+0	1.394111E+0	1.370781E+0	1.421931E+0	1.368930E+0	1.428570E+0	1.378532E+0	1.393973E+0	1.376541E+0	1.374667E+0	1.406649E+0	1.401236E+0	1.386868E+0	1.401827E+0	1.379944E+0	1.345058E+0	1.388172E+0	1.405725E+0	1.333055E+0	1.418565E+0	1.346681E+0	1.366836E+0	1.365601E+0	1.388658E+0	1.426540E+0	1.392447E+0	1.384406E+0	1.387789E+0	1.434665E+0	1.387105E+0	1.397199E+0	1.409180E+0	1.410894E+0	1.428378E+0	1.398526E+0	1.410913E+0	1.374651E+0	1.357384E+0	1.323802E+0	1.375695E+0	1.372783E+0	1.398485E+0	1.394853E+0	1.388003E+0	1.379069E+0	1.370125E+0	1.379460E+0	1.354806E+0	1.408378E+0	1.420498E+0	1.409216E+0	1.400309E+0	1.402703E+0	1.368201E+0	1.397888E+0	1.443054E+0	1.367196E+0	1.376247E+0	1.421233E+0	1.462771E+0	1.395207E+0	1.334362E+0	1.416038E+0	1.423568E+0	1.366503E+0	1.384236E+0	1.401165E+0	1.364208E+0	1.341608E+0	1.296199E+0	1.444807E+0	1.382558E+0	1.334546E+0	1.416100E+0	1.433856E+0	1.346849E+0	1.381498E+0	1.343983E+0	1.396360E+0	1.369269E+0	1.385549E+0	1.346733E+0	1.401890E+0	1.335210E+0	1.348238E+0	1.366201E+0	1.387435E+0	1.332371E+0	1.353575E+0	1.412103E+0	1.388107E+0	1.466307E+0	1.304079E+0	1.352426E+0	1.374932E+0	1.445333E+0	1.366880E+0	1.378576E+0	1.393013E+0	1.343501E+0	1.385697E+0	1.364774E+0	1.457688E+0	1.408633E+0	1.384449E+0	1.383123E+0	1.422893E+0	1.362235E+0	1.330096E+0	1.347123E+0	1.396641E+0	1.365532E+0	1.414755E+0	1.381879E+0	1.417429E+0	1.342437E+0	1.353633E+0	1.379478E+0	1.385553E+0	1.379176E+0	1.370996E+0	1.424814E+0	1.408224E+0	1.406308E+0	1.397497E+0	1.384596E+0	1.427385E+0	1.399155E+0	1.347220E+0	1.299369E+0	1.368727E+0
5.440120E+2	1.458574E+0	1.411463E+0	1.440888E+0	1.548421E+0	1.496091E+0	1.421446E+0	1.509649E+0	1.457566E+0	1.459121E+0	1.513780E+0	1.527608E+0	1.500839E+0	1.472114E+0	1.493267E+0	1.490405E+0	1.458839E+0	1.491037E+0	1.532805E+0	1.485462E+0	1.441187E+0	1.448340E+0	1.462498E+0	1.485980E+0	1.472210E+0	1.466223E+0	1.562822E+0	1.492155E+0	1.461754E+0	1.424265E+0	1.425421E+0	1.468658E+0	1.420418E+0	1.449827E+0	1.440641E+0	1.466674E+0	1.485516E+0	1.469140E+0	1.438409E+0	1.457130E+0	1.416178E+0	1.485536E+0	1.430120E+0	1.470816E+0	1.531814E+0	1.461586E+0	1.500249E+0	1.457320E+0	1.439212E+0	1.463693E+0	1.417065E+0	1.435420E+0	1.424421E+0	1.472033E+0	1.463071E+0	1.498959E+0	1.413009E+0	1.429353E+0	1.454280E+0	1.472560E+0	1.461352E+0	1.437545E+0	1.425684E+0	1.473928E+0	1.426790E+0	1.443083E+0	1.432665E+0	1.443488E+0	1.445388E+0	1.413613E+0	1.417971E+0	1.426803E+0	1.470583E+0	1.443309E+0	1.452718E+0	1.406601E+0	1.431831E+0	1.443873E+0	1.410330E+0	1.430142E+0	1.449527E+0	1.476796E+0	1.497972E+0	1.421602E+0	1.479301E+0	1.422661E+0	1.486094E+0	1.431414E+0	1.432600E+0	1.518112E+0	1.424034E+0	1.402051E+0	1.415385E+0	1.448772E+0	1.427809E+0	1.435044E+0	1.426861E+0	1.429441E+0	1.428396E+0	1.496076E+0	1.462297E+0	1.446459E+0	1.428024E+0	1.452128E+0	1.444346E+0	1.475485E+0	1.493413E+0	1.415739E+0	1.480844E+0	1.456927E+0	1.480994E+0	1.417440E+0	1.377458E+0	1.452364E+0	1.412325E+0	1.444417E+0	1.451213E+0	1.420183E+0	1.445999E+0	1.472629E+0	1.466270E+0	1.464022E+0	1.468260E+0	1.430683E+0	1.437548E+0	1.456117E+0	1.392404E+0	1.372771E+0	1.464693E+0	1.430298E+0	1.469949E+0	1.517015E+0	1.421384E+0	1.441441E+0	1.454629E+0	1.480983E+0	1.428414E+0	1.490233E+0	1.534313E+0	1.463958E+0	1.439444E+0	1.436791E+0	1.447557E+0	1.397919E+0	1.463583E+0	1.464565E+0	1.445559E+0	1.418449E+0	1.466655E+0	1.485515E+0	1.421427E+0	1.418638E+0	1.397684E+0	1.378970E+0	1.464236E+0	1.434001E+0	1.447014E+0	1.468812E+0	1.478334E+0	1.425241E+0	1.382257E+0	1.463690E+0	1.462598E+0	1.409373E+0	1.461563E+0	1.425261E+0	1.513932E+0	1.471786E+0	1.432259E+0	1.480018E+0	1.440321E+0
5.442750E+2	1.495428E+0	1.556723E+0	1.529883E+0	1.549408E+0	1.556251E+0	1.473900E+0	1.556753E+0	1.491868E+0	1.558709E+0	1.549192E+0	1.586159E+0	1.547179E+0	1.519484E+0	1.466331E+0	1.559677E+0	1.512207E+0	1.525860E+0	1.502514E+0	1.507398E+0	1.487238E+0	1.535120E+0	1.562693E+0	1.556839E+0	1.506443E+0	1.486889E+0	1.537360E+0	1.505628E+0	1.526767E+0	1.538744E+0	1.534036E+0	1.464082E+0	1.440418E+0	1.546481E+0	1.556558E+0	1.448078E+0	1.544807E+0	1.502357E+0	1.464069E+0	1.502166E+0	1.504351E+0	1.521657E+0	1.534858E+0	1.530434E+0	1.487964E+0	1.559806E+0	1.497480E+0	1.502823E+0	1.465502E+0	1.528556E+0	1.477297E+0	1.498821E+0	1.455199E+0	1.518037E+0	1.483595E+0	1.535841E+0	1.489585E+0	1.499060E+0	1.487286E+0	1.482292E+0	1.476735E+0	1.486161E+0	1.518563E+0	1.521518E+0	1.538889E+0	1.529014E+0	1.456956E+0	1.551472E+0	1.503348E+0	1.491039E+0	1.523925E+0	1.560640E+0	1.507709E+0	1.455727E+0	1.564092E+0	1.477683E+0	1.541302E+0	1.422779E+0	1.458342E+0	1.514480E+0	1.492494E+0	1.507634E+0	1.531880E+0	1.525961E+0	1.519312E+0	1.431950E+0	1.544474E+0	1.482021E+0	1.485622E+0	1.507805E+0	1.533580E+0	1.487692E+0	1.426573E+0	1.486516E+0	1.482574E+0	1.541326E+0	1.530030E+0	1.462461E+0	1.493395E+0	1.507041E+0	1.457930E+0	1.462321E+0	1.448971E+0	1.513654E+0	1.466371E+0	1.571451E+0	1.474755E+0	1.492916E+0	1.458272E+0	1.501153E+0	1.496097E+0	1.490068E+0	1.503196E+0	1.483363E+0	1.544084E+0	1.543347E+0	1.539090E+0	1.493040E+0	1.501868E+0	1.476941E+0	1.502179E+0	1.488401E+0	1.535139E+0	1.461513E+0	1.499571E+0	1.515369E+0	1.513270E+0	1.483777E+0	1.492262E+0	1.472507E+0	1.457969E+0	1.559107E+0	1.490536E+0	1.468938E+0	1.555844E+0	1.482242E+0	1.491980E+0	1.545079E+0	1.497083E+0	1.493776E+0	1.524865E+0	1.491513E+0	1.513165E+0	1.489630E+0	1.505180E+0	1.478250E+0	1.556545E+0	1.466165E+0	1.502956E+0	1.478681E+0	1.498014E+0	1.511511E+0	1.467466E+0	1.458549E+0	1.442400E+0	1.450136E+0	1.452740E+0	1.545308E+0	1.473330E+0	1.467023E+0	1.421709E+0	1.464044E+0	1.490663E+0	1.528675E+0	1.405614E+0	1.492702E+0	1.535061E+0	1.486308E+0	1.450485E+0	1.417656E+0	1.386694E+0
5.445130E+2	1.516630E+0	1.475408E+0	1.509120E+0	1.543470E+0	1.515574E+0	1.471443E+0	1.507859E+0	1.522365E+0	1.531870E+0	1.533970E+0	1.574643E+0	1.496254E+0	1.454350E+0	1.488821E+0	1.493598E+0	1.469582E+0	1.477274E+0	1.463037E+0	1.482233E+0	1.494252E+0	1.533633E+0	1.499707E+0	1.496449E+0	1.499344E+0	1.498804E+0	1.540716E+0	1.465030E+0	1.504307E+0	1.502130E+0	1.529264E+0	1.480096E+0	1.486045E+0	1.470939E+0	1.492873E+0	1.546844E+0	1.527835E+0	1.476960E+0	1.449986E+0	1.476232E+0	1.503256E+0	1.538330E+0	1.533553E+0	1.520032E+0	1.533068E+0	1.524990E+0	1.468761E+0	1.483804E+0	1.486236E+0	1.482909E+0	1.469958E+0	1.526681E+0	1.453882E+0	1.484460E+0	1.517162E+0	1.503802E+0	1.502555E+0	1.467358E+0	1.522030E+0	1.481725E+0	1.482683E+0	1.523939E+0	1.486393E+0	1.441016E+0	1.496923E+0	1.475733E+0	1.439037E+0	1.566412E+0	1.470206E+0	1.455623E+0	1.524618E+0	1.458954E+0	1.488896E+0	1.553037E+0	1.576439E+0	1.456341E+0	1.503467E+0	1.466297E+0	1.477148E+0	1.501702E+0	1.464466E+0	1.484942E+0	1.471369E+0	1.458096E+0	1.500303E+0	1.459517E+0	1.497099E+0	1.492405E+0	1.495800E+0	1.486414E+0	1.477802E+0	1.512114E+0	1.483107E+0	1.485959E+0	1.436988E+0	1.507111E+0	1.426809E+0	1.457492E+0	1.486583E+0	1.530865E+0	1.454590E+0	1.498072E+0	1.484018E+0	1.456332E+0	1.449804E+0	1.475175E+0	1.496744E+0	1.481796E+0	1.471203E+0	1.465468E+0	1.473502E+0	1.454256E+0	1.424977E+0	1.528895E+0	1.453864E+0	1.453868E+0	1.440202E+0	1.449401E+0	1.522421E+0	1.504768E+0	1.481448E+0	1.476759E+0	1.447274E+0	1.448609E+0	1.507431E+0	1.492510E+0	1.450437E+0	1.481530E+0	1.500996E+0	1.432134E+0	1.467188E+0	1.476977E+0	1.471625E+0	1.458796E+0	1.474550E+0	1.535026E+0	1.418674E+0	1.520294E+0	1.533957E+0	1.461737E+0	1.445355E+0	1.449871E+0	1.476007E+0	1.496543E+0	1.493676E+0	1.509502E+0	1.463468E+0	1.495080E+0	1.439396E+0	1.466453E+0	1.398347E+0	1.436982E+0	1.498224E+0	1.534330E+0	1.535705E+0	1.466728E+0	1.502239E+0	1.534950E+0	1.473995E+0	1.457137E+0	1.439143E+0	1.516400E+0	1.489240E+0	1.479705E+0	1.444229E+0	1.427306E+0	1.524559E+0	1.435909E+0	1.421414E+0	1.415716E+0	1.573069E+0
5.447830E+2	1.446220E+0	1.469547E+0	1.488197E+0	1.504016E+0	1.462229E+0	1.425894E+0	1.432922E+0	1.457213E+0	1.436123E+0	1.480553E+0	1.486951E+0	1.501983E+0	1.380827E+0	1.447603E+0	1.457834E+0	1.430794E+0	1.424393E+0	1.409167E+0	1.420911E+0	1.394924E+0	1.444710E+0	1.394240E+0	1.416327E+0	1.447661E+0	1.395682E+0	1.401544E+0	1.416797E+0	1.426193E+0	1.396070E+0	1.412918E+0	1.437910E+0	1.392231E+0	1.456354E+0	1.416825E+0	1.403600E+0	1.459670E+0	1.449246E+0	1.377925E+0	1.428442E+0	1.472230E+0	1.475691E+0	1.357903E+0	1.437415E+0	1.451316E+0	1.444838E+0	1.428692E+0	1.454108E+0	1.430194E+0	1.452847E+0	1.404550E+0	1.457106E+0	1.387622E+0	1.450251E+0	1.409250E+0	1.458724E+0	1.431438E+0	1.456087E+0	1.415614E+0	1.396035E+0	1.421032E+0	1.404085E+0	1.421554E+0	1.439240E+0	1.442368E+0	1.388619E+0	1.418952E+0	1.466350E+0	1.439563E+0	1.406176E+0	1.377708E+0	1.403261E+0	1.438544E+0	1.428156E+0	1.451756E+0	1.429292E+0	1.430534E+0	1.426307E+0	1.382559E+0	1.437360E+0	1.435019E+0	1.448633E+0	1.409399E+0	1.361962E+0	1.433387E+0	1.384931E+0	1.393564E+0	1.428094E+0	1.442705E+0	1.447367E+0	1.412302E+0	1.355028E+0	1.393238E+0	1.351462E+0	1.397390E+0	1.412101E+0	1.399893E+0	1.446372E+0	1.412741E+0	1.481181E+0	1.400547E+0	1.409100E+0	1.390855E+0	1.404735E+0	1.381454E+0	1.423058E+0	1.443746E+0	1.415447E+0	1.437590E+0	1.428457E+0	1.421637E+0	1.396206E+0	1.411908E+0	1.452964E+0	1.420647E+0	1.431318E+0	1.448114E+0	1.413692E+0	1.414348E+0	1.457650E+0	1.430532E+0	1.423276E+0	1.423613E+0	1.416173E+0	1.427367E+0	1.427275E+0	1.406275E+0	1.409034E+0	1.402422E+0	1.422230E+0	1.391475E+0	1.412824E+0	1.399120E+0	1.408856E+0	1.402900E+0	1.434216E+0	1.358024E+0	1.407927E+0	1.423297E+0	1.463027E+0	1.409943E+0	1.354369E+0	1.469845E+0	1.412598E+0	1.426600E+0	1.435108E+0	1.357978E+0	1.370660E+0	1.403419E+0	1.347349E+0	1.374540E+0	1.375564E+0	1.346514E+0	1.404072E+0	1.396593E+0	1.400030E+0	1.375257E+0	1.439273E+0	1.414082E+0	1.367561E+0	1.378081E+0	1.438183E+0	1.402298E+0	1.418576E+0	1.411576E+0	1.408851E+0	1.473623E+0	1.459978E+0	1.427794E+0	1.375181E+0	1.540687E+0
5.450260E+2	1.369100E+0	1.447166E+0	1.357324E+0	1.427260E+0	1.364798E+0	1.360637E+0	1.390016E+0	1.377234E+0	1.388862E+0	1.458192E+0	1.393045E+0	1.374728E+0	1.399949E+0	1.373635E+0	1.381054E+0	1.375445E+0	1.433335E+0	1.383128E+0	1.359164E+0	1.358087E+0	1.370200E+0	1.340224E+0	1.367467E+0	1.364958E+0	1.357042E+0	1.389549E+0	1.366495E+0	1.396246E+0	1.389154E+0	1.370288E+0	1.345695E+0	1.359489E+0	1.358491E+0	1.411108E+0	1.329280E+0	1.385179E+0	1.356540E+0	1.352659E+0	1.345798E+0	1.421289E+0	1.415232E+0	1.364659E+0	1.350419E+0	1.350645E+0	1.390282E+0	1.405417E+0	1.343769E+0	1.366495E+0	1.350667E+0	1.368001E+0	1.391061E+0	1.355734E+0	1.355980E+0	1.441192E+0	1.395344E+0	1.348604E+0	1.394560E+0	1.386880E+0	1.375963E+0	1.399772E+0	1.387780E+0	1.368482E+0	1.335957E+0	1.350875E+0	1.355808E+0	1.421158E+0	1.396809E+0	1.388989E+0	1.325067E+0	1.371811E+0	1.328178E+0	1.395528E+0	1.376534E+0	1.437352E+0	1.351033E+0	1.323985E+0	1.377482E+0	1.369673E+0	1.327271E+0	1.354162E+0	1.396907E+0	1.353327E+0	1.374227E+0	1.372077E+0	1.338369E+0	1.389345E+0	1.296356E+0	1.351525E+0	1.403582E+0	1.361781E+0	1.384078E+0	1.394871E+0	1.363799E+0	1.365110E+0	1.338498E+0	1.439098E+0	1.349753E+0	1.372135E+0	1.384791E+0	1.396542E+0	1.345092E+0	1.308323E+0	1.402215E+0	1.297161E+0	1.412561E+0	1.382030E+0	1.340416E+0	1.397866E+0	1.343739E+0	1.401543E+0	1.380191E+0	1.342901E+0	1.445453E+0	1.397987E+0	1.331224E+0	1.376268E+0	1.310400E+0	1.346147E+0	1.438807E+0	1.317891E+0	1.350679E+0	1.393066E+0	1.365172E+0	1.354525E+0	1.368594E+0	1.353719E+0	1.358528E+0	1.398336E+0	1.343980E+0	1.367633E+0	1.406415E+0	1.343909E+0	1.319685E+0	1.340659E+0	1.418047E+0	1.363025E+0	1.415388E+0	1.417950E+0	1.336532E+0	1.397264E+0	1.347294E+0	1.413479E+0	1.372813E+0	1.361888E+0	1.375303E+0	1.406591E+0	1.358347E+0	1.344037E+0	1.330104E+0	1.342446E+0	1.343719E+0	1.354864E+0	1.356575E+0	1.374787E+0	1.372976E+0	1.363317E+0	1.365825E+0	1.354021E+0	1.382102E+0	1.335556E+0	1.394043E+0	1.348477E+0	1.348085E+0	1.354692E+0	1.324721E+0	1.371776E+0	1.333312E+0	1.290971E+0	1.442170E+0	1.398676E+0
5.452740E+2	1.282354E+0	1.317542E+0	1.307474E+0	1.344908E+0	1.330423E+0	1.374109E+0	1.372963E+0	1.350611E+0	1.374951E+0	1.327077E+0	1.375199E+0	1.348483E+0	1.325955E+0	1.335303E+0	1.351936E+0	1.314196E+0	1.320506E+0	1.288311E+0	1.292486E+0	1.293991E+0	1.319906E+0	1.270731E+0	1.318977E+0	1.359372E+0	1.319400E+0	1.330659E+0	1.287387E+0	1.292921E+0	1.345321E+0	1.333518E+0	1.318058E+0	1.277279E+0	1.288016E+0	1.326525E+0	1.367093E+0	1.367287E+0	1.287805E+0	1.333788E+0	1.315811E+0	1.333081E+0	1.431793E+0	1.337506E+0	1.352310E+0	1.324072E+0	1.350309E+0	1.357013E+0	1.325431E+0	1.311111E+0	1.333867E+0	1.293908E+0	1.344584E+0	1.350533E+0	1.287519E+0	1.342802E+0	1.314281E+0	1.351016E+0	1.334172E+0	1.308766E+0	1.313069E+0	1.348920E+0	1.340312E+0	1.275144E+0	1.310465E+0	1.336580E+0	1.335730E+0	1.330277E+0	1.346659E+0	1.335797E+0	1.347292E+0	1.331741E+0	1.311629E+0	1.314687E+0	1.318472E+0	1.375051E+0	1.304865E+0	1.284709E+0	1.350472E+0	1.290127E+0	1.289466E+0	1.334518E+0	1.376431E+0	1.348044E+0	1.331795E+0	1.314230E+0	1.320504E+0	1.361065E+0	1.290287E+0	1.295101E+0	1.349279E+0	1.327240E+0	1.309449E+0	1.355883E+0	1.295655E+0	1.280119E+0	1.332535E+0	1.342464E+0	1.322488E+0	1.325298E+0	1.373262E+0	1.328787E+0	1.321378E+0	1.325054E+0	1.292969E+0	1.270708E+0	1.389267E+0	1.314456E+0	1.352762E+0	1.255803E+0	1.337705E+0	1.358406E+0	1.287253E+0	1.288242E+0	1.344852E+0	1.293983E+0	1.270072E+0	1.345873E+0	1.300067E+0	1.335540E+0	1.295116E+0	1.324824E+0	1.332348E+0	1.363189E+0	1.274757E+0	1.326799E+0	1.324868E+0	1.296900E+0	1.290870E+0	1.359055E+0	1.339533E+0	1.338361E+0	1.312742E+0	1.284018E+0	1.287943E+0	1.321447E+0	1.329941E+0	1.312688E+0	1.376227E+0	1.338815E+0	1.284971E+0	1.329836E+0	1.321093E+0	1.337629E+0	1.292810E+0	1.283190E+0	1.327059E+0	1.357903E+0	1.312510E+0	1.302516E+0	1.264302E+0	1.279301E+0	1.320859E+0	1.281011E+0	1.334752E+0	1.336662E+0	1.279838E+0	1.301655E+0	1.323649E+0	1.373675E+0	1.268383E+0	1.288106E+0	1.283970E+0	1.318818E+0	1.354421E+0	1.315134E+0	1.337810E+0	1.349153E+0	1.328194E+0	1.312613E+0	1.298528E+0	1.379184E+0
5.455130E+2	1.186907E+0	1.232608E+0	1.173643E+0	1.233260E+0	1.218936E+0	1.242362E+0	1.288552E+0	1.275478E+0	1.228373E+0	1.198932E+0	1.238703E+0	1.267030E+0	1.241620E+0	1.219314E+0	1.242477E+0	1.215646E+0	1.292490E+0	1.257824E+0	1.207567E+0	1.159346E+0	1.223696E+0	1.222904E+0	1.238297E+0	1.199421E+0	1.238741E+0	1.268933E+0	1.220608E+0	1.252748E+0	1.199313E+0	1.258799E+0	1.219452E+0	1.203279E+0	1.286331E+0	1.211559E+0	1.206651E+0	1.237209E+0	1.268246E+0	1.246481E+0	1.178271E+0	1.226188E+0	1.246906E+0	1.217349E+0	1.222448E+0	1.234549E+0	1.212584E+0	1.197615E+0	1.206632E+0	1.208079E+0	1.237081E+0	1.215670E+0	1.223954E+0	1.201939E+0	1.231583E+0	1.182444E+0	1.227870E+0	1.214892E+0	1.254950E+0	1.216135E+0	1.216172E+0	1.233375E+0	1.246315E+0	1.198835E+0	1.245249E+0	1.251439E+0	1.234779E+0	1.231853E+0	1.241262E+0	1.254250E+0	1.231170E+0	1.231950E+0	1.201718E+0	1.234374E+0	1.202961E+0	1.227451E+0	1.239227E+0	1.190234E+0	1.270906E+0	1.176826E+0	1.263061E+0	1.198003E+0	1.279514E+0	1.241172E+0	1.209323E+0	1.266918E+0	1.234577E+0	1.253718E+0	1.197743E+0	1.208015E+0	1.271097E+0	1.267670E+0	1.214680E+0	1.167908E+0	1.219961E+0	1.236031E+0	1.260881E+0	1.206361E+0	1.229831E+0	1.198914E+0	1.218056E+0	1.222505E+0	1.208055E+0	1.203030E+0	1.223745E+0	1.271982E+0	1.255372E+0	1.235985E+0	1.192054E+0	1.262244E+0	1.192971E+0	1.279991E+0	1.198761E+0	1.210496E+0	1.276661E+0	1.285769E+0	1.235822E+0	1.265440E+0	1.210350E+0	1.213475E+0	1.197240E+0	1.245098E+0	1.203795E+0	1.204585E+0	1.200069E+0	1.213301E+0	1.220561E+0	1.251106E+0	1.170291E+0	1.197190E+0	1.234165E+0	1.234609E+0	1.252759E+0	1.191364E+0	1.223091E+0	1.191611E+0	1.193998E+0	1.229037E+0	1.244829E+0	1.244474E+0	1.220811E+0	1.199523E+0	1.200450E+0	1.231710E+0	1.212482E+0	1.256799E+0	1.207527E+0	1.180930E+0	1.228145E+0	1.264390E+0	1.197792E+0	1.218449E+0	1.174871E+0	1.236070E+0	1.258130E+0	1.227488E+0	1.181212E+0	1.260615E+0	1.254565E+0	1.224640E+0	1.228611E+0	1.191861E+0	1.246214E+0	1.185492E+0	1.192621E+0	1.210390E+0	1.229604E+0	1.217375E+0	1.231081E+0	1.259589E+0	1.252296E+0	1.222140E+0
5.457940E+2	1.181317E+0	1.141793E+0	1.166772E+0	1.229591E+0	1.157582E+0	1.189561E+0	1.181208E+0	1.153578E+0	1.178039E+0	1.208941E+0	1.193375E+0	1.167815E+0	1.197818E+0	1.213566E+0	1.172302E+0	1.196625E+0	1.191229E+0	1.137856E+0	1.156464E+0	1.168646E+0	1.213532E+0	1.155948E+0	1.206237E+0	1.208228E+0	1.243850E+0	1.208511E+0	1.172576E+0	1.184919E+0	1.205165E+0	1.177573E+0	1.191639E+0	1.130428E+0	1.227338E+0	1.203727E+0	1.172561E+0	1.222453E+0	1.191932E+0	1.192301E+0	1.166421E+0	1.211806E+0	1.197244E+0	1.200799E+0	1.103290E+0	1.168993E+0	1.205586E+0	1.201126E+0	1.189124E+0	1.144454E+0	1.127856E+0	1.158646E+0	1.134073E+0	1.125918E+0	1.115729E+0	1.184258E+0	1.122258E+0	1.169746E+0	1.244707E+0	1.194873E+0	1.152047E+0	1.156539E+0	1.162648E+0	1.200626E+0	1.150891E+0	1.165730E+0	1.246676E+0	1.141016E+0	1.198236E+0	1.174934E+0	1.208183E+0	1.162479E+0	1.153830E+0	1.148628E+0	1.165948E+0	1.189915E+0	1.132733E+0	1.148258E+0	1.180660E+0	1.129748E+0	1.139984E+0	1.183374E+0	1.158671E+0	1.216591E+0	1.194248E+0	1.188081E+0	1.166142E+0	1.160328E+0	1.206996E+0	1.178374E+0	1.145823E+0	1.167363E+0	1.155467E+0	1.175345E+0	1.176669E+0	1.178453E+0	1.169419E+0	1.171529E+0	1.127784E+0	1.160280E+0	1.186939E+0	1.151888E+0	1.191853E+0	1.170646E+0	1.161750E+0	1.159458E+0	1.167902E+0	1.186899E+0	1.179941E+0	1.172208E+0	1.183957E+0	1.209342E+0	1.131393E+0	1.170473E+0	1.188627E+0	1.174411E+0	1.138056E+0	1.176190E+0	1.159531E+0	1.180111E+0	1.147152E+0	1.174931E+0	1.105009E+0	1.169398E+0	1.157646E+0	1.167571E+0	1.229457E+0	1.155302E+0	1.098133E+0	1.163501E+0	1.182419E+0	1.121210E+0	1.115455E+0	1.144968E+0	1.147605E+0	1.156120E+0	1.169507E+0	1.152254E+0	1.214536E+0	1.155124E+0	1.148049E+0	1.132036E+0	1.196084E+0	1.236515E+0	1.147930E+0	1.144645E+0	1.208494E+0	1.176910E+0	1.128699E+0	1.172297E+0	1.144690E+0	1.147962E+0	1.145494E+0	1.103621E+0	1.147694E+0	1.152674E+0	1.164961E+0	1.127676E+0	1.179212E+0	1.162687E+0	1.158075E+0	1.179188E+0	1.204149E+0	1.196544E+0	1.220426E+0	1.177951E+0	1.186212E+0	1.176110E+0	1.196669E+0	1.111733E+0	1.144017E+0	1.185527E+0
5.460000E+2	1.159780E+0	1.161572E+0	1.156378E+0	1.131041E+0	1.184629E+0	1.164717E+0	1.157732E+0	1.180687E+0	1.181469E+0	1.157365E+0	1.157591E+0	1.175768E+0	1.181763E+0	1.166811E+0	1.161234E+0	1.138668E+0	1.150453E+0	1.178295E+0	1.156149E+0	1.158309E+0	1.190517E+0	1.126508E+0	1.164263E+0	1.142408E+0	1.239267E+0	1.197297E+0	1.129636E+0	1.183329E+0	1.151406E+0	1.149728E+0	1.195693E+0	1.094005E+0	1.153790E+0	1.162040E+0	1.171780E+0	1.127996E+0	1.152645E+0	1.130866E+0	1.160746E+0	1.175571E+0	1.156052E+0	1.153606E+0	1.107178E+0	1.133889E+0	1.200966E+0	1.170265E+0	1.192659E+0	1.138094E+0	1.167072E+0	1.131699E+0	1.161804E+0	1.127403E+0	1.171266E+0	1.152431E+0	1.155749E+0	1.189881E+0	1.191240E+0	1.209401E+0	1.170043E+0	1.176119E+0	1.140701E+0	1.131760E+0	1.120916E+0	1.187261E+0	1.196552E+0	1.185542E+0	1.201483E+0	1.199833E+0	1.136983E+0	1.106185E+0	1.132128E+0	1.143767E+0	1.134374E+0	1.202227E+0	1.116828E+0	1.180466E+0	1.136587E+0	1.140271E+0	1.132944E+0	1.136036E+0	1.136142E+0	1.143892E+0	1.107626E+0	1.134717E+0	1.157335E+0	1.191609E+0	1.127616E+0	1.208130E+0	1.140663E+0	1.131081E+0	1.165964E+0	1.163290E+0	1.139546E+0	1.155392E+0	1.169475E+0	1.143563E+0	1.155872E+0	1.159307E+0	1.185363E+0	1.168556E+0	1.141760E+0	1.118637E+0	1.140180E+0	1.164293E+0	1.220022E+0	1.180398E+0	1.105068E+0	1.165764E+0	1.146905E+0	1.209649E+0	1.102541E+0	1.167057E+0	1.233826E+0	1.193815E+0	1.189532E+0	1.153469E+0	1.108114E+0	1.139301E+0	1.149342E+0	1.190476E+0	1.189112E+0	1.170190E+0	1.139818E+0	1.194372E+0	1.179559E+0	1.122865E+0	1.125618E+0	1.121902E+0	1.163555E+0	1.114483E+0	1.153838E+0	1.077618E+0	1.155503E+0	1.154666E+0	1.151717E+0	1.157981E+0	1.143440E+0	1.189465E+0	1.079601E+0	1.115874E+0	1.126269E+0	1.193198E+0	1.118526E+0	1.214007E+0	1.104316E+0	1.157985E+0	1.146290E+0	1.174884E+0	1.184095E+0	1.106644E+0	1.119402E+0	1.136790E+0	1.205005E+0	1.181240E+0	1.137778E+0	1.166889E+0	1.151505E+0	1.134967E+0	1.095848E+0	1.160963E+0	1.161844E+0	1.150342E+0	1.147092E+0	1.138416E+0	1.171022E+0	1.182342E+0	1.144421E+0	1.132249E+0	1.083677E+0	1.138375E+0
5.467600E+2	1.184243E+0	1.195948E+0	1.164091E+0	1.183162E+0	1.235378E+0	1.177905E+0	1.181866E+0	1.274533E+0	1.166677E+0	1.175258E+0	1.196030E+0	1.213747E+0	1.221597E+0	1.223852E+0	1.231727E+0	1.202694E+0	1.204868E+0	1.207928E+0	1.175405E+0	1.186182E+0	1.199681E+0	1.162722E+0	1.175993E+0	1.146596E+0	1.225714E+0	1.231094E+0	1.198119E+0	1.228733E+0	1.184195E+0	1.242719E+0	1.179776E+0	1.158148E+0	1.169076E+0	1.217328E+0	1.120447E+0	1.242927E+0	1.210626E+0	1.166499E+0	1.161416E+0	1.171870E+0	1.198454E+0	1.183922E+0	1.134961E+0	1.139531E+0	1.218200E+0	1.174842E+0	1.188425E+0	1.146684E+0	1.251758E+0	1.224123E+0	1.218452E+0	1.147041E+0	1.202830E+0	1.171099E+0	1.205087E+0	1.177595E+0	1.225782E+0	1.166020E+0	1.193048E+0	1.149665E+0	1.153422E+0	1.168782E+0	1.129803E+0	1.178350E+0	1.190757E+0	1.164755E+0	1.192779E+0	1.172502E+0	1.185601E+0	1.184206E+0	1.173142E+0	1.176702E+0	1.210903E+0	1.225528E+0	1.174088E+0	1.189979E+0	1.164361E+0	1.204997E+0	1.172649E+0	1.179347E+0	1.214908E+0	1.190082E+0	1.179118E+0	1.151886E+0	1.157411E+0	1.202561E+0	1.228902E+0	1.136018E+0	1.233131E+0	1.221829E+0	1.150869E+0	1.223844E+0	1.190458E+0	1.163542E+0	1.207803E+0	1.153766E+0	1.144025E+0	1.200324E+0	1.198497E+0	1.181136E+0	1.183973E+0	1.186412E+0	1.152667E+0	1.141743E+0	1.183364E+0	1.176236E+0	1.185529E+0	1.190895E+0	1.173381E+0	1.226570E+0	1.164569E+0	1.179755E+0	1.163541E+0	1.188026E+0	1.150641E+0	1.168142E+0	1.173143E+0	1.232386E+0	1.231638E+0	1.221158E+0	1.181633E+0	1.177343E+0	1.149230E+0	1.164855E+0	1.170209E+0	1.134476E+0	1.185761E+0	1.167106E+0	1.169165E+0	1.201588E+0	1.178216E+0	1.217759E+0	1.144110E+0	1.167408E+0	1.194753E+0	1.130257E+0	1.172404E+0	1.179034E+0	1.184082E+0	1.226161E+0	1.163350E+0	1.169359E+0	1.141612E+0	1.160417E+0	1.208097E+0	1.249621E+0	1.155212E+0	1.197534E+0	1.152299E+0	1.137759E+0	1.192622E+0	1.184077E+0	1.150120E+0	1.177837E+0	1.173882E+0	1.202980E+0	1.144628E+0	1.187329E+0	1.179106E+0	1.186860E+0	1.214998E+0	1.159150E+0	1.164867E+0	1.186864E+0	1.200938E+0	1.207076E+0	1.135036E+0	1.153236E+0	1.142912E+0	1.179439E+0
5.475230E+2	1.305321E+0	1.239746E+0	1.245785E+0	1.243794E+0	1.298647E+0	1.286071E+0	1.288321E+0	1.290890E+0	1.265427E+0	1.362681E+0	1.315634E+0	1.293257E+0	1.268912E+0	1.314995E+0	1.210012E+0	1.275857E+0	1.250448E+0	1.317792E+0	1.290487E+0	1.299315E+0	1.318751E+0	1.308995E+0	1.289444E+0	1.285280E+0	1.334418E+0	1.342746E+0	1.294364E+0	1.297804E+0	1.328498E+0	1.290139E+0	1.265197E+0	1.280937E+0	1.275724E+0	1.313958E+0	1.279786E+0	1.267590E+0	1.267532E+0	1.273278E+0	1.293770E+0	1.272299E+0	1.328181E+0	1.321176E+0	1.287053E+0	1.273635E+0	1.320707E+0	1.304767E+0	1.284497E+0	1.260356E+0	1.283657E+0	1.253348E+0	1.284927E+0	1.223926E+0	1.302810E+0	1.308272E+0	1.246073E+0	1.240726E+0	1.294334E+0	1.284855E+0	1.282924E+0	1.290279E+0	1.270685E+0	1.239397E+0	1.290276E+0	1.317406E+0	1.310272E+0	1.258806E+0	1.284599E+0	1.282485E+0	1.283708E+0	1.304313E+0	1.240367E+0	1.283673E+0	1.225566E+0	1.317744E+0	1.284862E+0	1.260875E+0	1.250349E+0	1.230902E+0	1.310960E+0	1.289023E+0	1.216360E+0	1.276246E+0	1.231319E+0	1.317484E+0	1.300520E+0	1.295581E+0	1.265404E+0	1.289256E+0	1.304168E+0	1.253975E+0	1.249811E+0	1.288026E+0	1.265280E+0	1.267784E+0	1.283637E+0	1.267710E+0	1.257082E+0	1.293238E+0	1.248866E+0	1.279159E+0	1.259581E+0	1.227554E+0	1.272694E+0	1.303399E+0	1.312825E+0	1.281316E+0	1.267666E+0	1.252250E+0	1.276710E+0	1.307238E+0	1.276905E+0	1.237481E+0	1.317571E+0	1.285200E+0	1.239619E+0	1.303728E+0	1.280015E+0	1.280254E+0	1.273776E+0	1.265952E+0	1.293271E+0	1.304042E+0	1.223865E+0	1.234104E+0	1.272763E+0	1.282646E+0	1.257768E+0	1.271840E+0	1.281313E+0	1.273395E+0	1.311119E+0	1.308152E+0	1.284111E+0	1.221870E+0	1.241017E+0	1.246080E+0	1.301855E+0	1.269878E+0	1.227954E+0	1.265937E+0	1.249164E+0	1.286085E+0	1.258493E+0	1.238636E+0	1.302611E+0	1.347295E+0	1.247919E+0	1.250545E+0	1.264266E+0	1.229614E+0	1.227266E+0	1.273530E+0	1.263606E+0	1.317166E+0	1.253434E+0	1.283497E+0	1.285954E+0	1.306930E+0	1.252359E+0	1.209123E+0	1.257565E+0	1.267698E+0	1.241904E+0	1.266271E+0	1.211370E+0	1.268668E+0	1.254188E+0	1.283458E+0	1.211518E+0	1.213535E+0
5.482660E+2	1.375334E+0	1.379621E+0	1.360883E+0	1.397588E+0	1.343392E+0	1.389428E+0	1.377765E+0	1.395604E+0	1.396567E+0	1.406500E+0	1.409432E+0	1.383046E+0	1.361654E+0	1.368469E+0	1.353481E+0	1.325530E+0	1.382009E+0	1.450124E+0	1.401737E+0	1.366990E+0	1.391128E+0	1.355017E+0	1.423911E+0	1.410471E+0	1.365124E+0	1.404846E+0	1.346018E+0	1.336561E+0	1.388651E+0	1.407115E+0	1.369297E+0	1.354080E+0	1.451762E+0	1.372373E+0	1.349392E+0	1.333890E+0	1.326843E+0	1.353386E+0	1.394134E+0	1.349216E+0	1.401504E+0	1.389490E+0	1.393636E+0	1.385720E+0	1.393267E+0	1.368277E+0	1.348892E+0	1.346120E+0	1.407608E+0	1.382199E+0	1.357700E+0	1.307818E+0	1.386295E+0	1.358050E+0	1.349384E+0	1.361352E+0	1.368342E+0	1.371911E+0	1.358394E+0	1.355077E+0	1.396202E+0	1.405837E+0	1.373700E+0	1.362362E+0	1.368574E+0	1.374771E+0	1.409000E+0	1.390668E+0	1.411380E+0	1.393244E+0	1.294203E+0	1.338956E+0	1.373454E+0	1.381773E+0	1.387972E+0	1.306854E+0	1.376549E+0	1.382357E+0	1.345533E+0	1.363640E+0	1.327953E+0	1.352024E+0	1.389101E+0	1.350413E+0	1.389115E+0	1.391774E+0	1.395806E+0	1.341466E+0	1.393561E+0	1.429943E+0	1.371083E+0	1.382322E+0	1.358783E+0	1.351977E+0	1.359838E+0	1.370317E+0	1.344752E+0	1.321119E+0	1.393667E+0	1.351112E+0	1.316011E+0	1.359414E+0	1.384451E+0	1.328541E+0	1.341839E+0	1.367522E+0	1.316738E+0	1.350420E+0	1.359647E+0	1.397781E+0	1.351747E+0	1.321388E+0	1.362593E+0	1.347720E+0	1.329553E+0	1.347474E+0	1.279311E+0	1.375580E+0	1.348444E+0	1.330646E+0	1.331987E+0	1.407611E+0	1.327099E+0	1.395791E+0	1.351095E+0	1.325875E+0	1.362293E+0	1.376960E+0	1.339675E+0	1.370525E+0	1.358736E+0	1.371571E+0	1.306915E+0	1.381152E+0	1.373971E+0	1.296912E+0	1.343918E+0	1.399743E+0	1.382756E+0	1.346609E+0	1.339024E+0	1.354320E+0	1.356347E+0	1.413008E+0	1.396718E+0	1.308197E+0	1.337171E+0	1.370409E+0	1.369752E+0	1.385007E+0	1.334970E+0	1.335075E+0	1.405070E+0	1.372711E+0	1.316818E+0	1.379444E+0	1.401299E+0	1.354333E+0	1.352117E+0	1.334958E+0	1.413957E+0	1.328272E+0	1.369246E+0	1.337207E+0	1.359795E+0	1.387346E+0	1.317589E+0	1.355291E+0	1.336671E+0	1.363636E+0
5.490100E+2	1.345536E+0	1.315462E+0	1.378825E+0	1.301209E+0	1.366077E+0	1.342198E+0	1.398285E+0	1.352752E+0	1.386933E+0	1.378703E+0	1.456521E+0	1.316251E+0	1.374540E+0	1.370990E+0	1.397975E+0	1.361503E+0	1.345429E+0	1.375208E+0	1.322490E+0	1.382105E+0	1.425596E+0	1.341810E+0	1.351527E+0	1.349687E+0	1.436131E+0	1.371265E+0	1.365329E+0	1.383705E+0	1.385883E+0	1.431684E+0	1.400108E+0	1.351023E+0	1.383315E+0	1.348815E+0	1.341543E+0	1.289662E+0	1.336905E+0	1.358187E+0	1.344863E+0	1.355703E+0	1.397045E+0	1.344056E+0	1.375895E+0	1.424473E+0	1.371067E+0	1.388545E+0	1.349219E+0	1.332360E+0	1.347272E+0	1.352015E+0	1.382083E+0	1.397886E+0	1.375325E+0	1.392691E+0	1.374366E+0	1.386704E+0	1.368163E+0	1.354735E+0	1.297408E+0	1.344181E+0	1.340604E+0	1.343183E+0	1.354397E+0	1.402633E+0	1.352930E+0	1.377804E+0	1.395391E+0	1.317447E+0	1.361481E+0	1.345666E+0	1.317844E+0	1.372303E+0	1.334215E+0	1.373572E+0	1.364539E+0	1.349788E+0	1.365249E+0	1.320665E+0	1.382164E+0	1.370624E+0	1.392198E+0	1.372954E+0	1.314559E+0	1.408679E+0	1.319278E+0	1.400490E+0	1.339384E+0	1.348495E+0	1.401232E+0	1.422990E+0	1.326222E+0	1.359112E+0	1.409277E+0	1.319006E+0	1.361505E+0	1.312471E+0	1.383512E+0	1.346646E+0	1.367793E+0	1.316266E+0	1.363551E+0	1.398601E+0	1.325205E+0	1.329969E+0	1.360184E+0	1.391315E+0	1.323108E+0	1.301840E+0	1.401534E+0	1.376740E+0	1.326961E+0	1.390034E+0	1.361203E+0	1.372863E+0	1.359584E+0	1.368138E+0	1.349005E+0	1.334527E+0	1.376434E+0	1.351265E+0	1.346604E+0	1.364163E+0	1.360247E+0	1.409422E+0	1.386409E+0	1.332259E+0	1.340329E+0	1.349764E+0	1.365283E+0	1.340323E+0	1.362330E+0	1.315083E+0	1.333297E+0	1.359959E+0	1.355665E+0	1.342018E+0	1.347117E+0	1.383373E+0	1.335147E+0	1.350679E+0	1.378047E+0	1.362336E+0	1.291292E+0	1.366137E+0	1.370807E+0	1.376571E+0	1.346381E+0	1.311682E+0	1.342243E+0	1.382748E+0	1.338592E+0	1.310320E+0	1.359943E+0	1.334267E+0	1.346458E+0	1.388681E+0	1.339078E+0	1.361388E+0	1.375137E+0	1.346512E+0	1.352813E+0	1.391559E+0	1.382906E+0	1.290013E+0	1.342730E+0	1.343045E+0	1.363011E+0	1.304779E+0	1.428079E+0	1.392189E+0
5.497630E+2	1.262663E+0	1.290640E+0	1.295183E+0	1.294759E+0	1.301224E+0	1.315020E+0	1.366047E+0	1.369907E+0	1.355238E+0	1.320895E+0	1.328089E+0	1.311293E+0	1.310405E+0	1.307507E+0	1.341249E+0	1.321077E+0	1.286095E+0	1.294353E+0	1.293921E+0	1.317194E+0	1.309259E+0	1.275405E+0	1.354379E+0	1.280942E+0	1.365396E+0	1.336770E+0	1.293747E+0	1.333603E+0	1.279986E+0	1.322168E+0	1.365394E+0	1.270584E+0	1.352053E+0	1.371258E+0	1.358768E+0	1.352504E+0	1.317359E+0	1.302038E+0	1.281201E+0	1.301099E+0	1.319925E+0	1.323637E+0	1.360289E+0	1.269646E+0	1.370596E+0	1.310668E+0	1.319380E+0	1.319421E+0	1.346921E+0	1.298878E+0	1.292071E+0	1.285341E+0	1.282649E+0	1.355729E+0	1.285560E+0	1.271785E+0	1.263737E+0	1.305717E+0	1.293005E+0	1.302171E+0	1.292688E+0	1.283686E+0	1.329097E+0	1.345000E+0	1.352836E+0	1.280648E+0	1.361280E+0	1.288657E+0	1.281691E+0	1.279963E+0	1.298889E+0	1.274236E+0	1.335119E+0	1.370749E+0	1.272197E+0	1.331988E+0	1.320585E+0	1.268195E+0	1.343267E+0	1.280512E+0	1.301598E+0	1.316538E+0	1.308566E+0	1.305636E+0	1.290978E+0	1.313362E+0	1.316577E+0	1.314715E+0	1.306451E+0	1.361738E+0	1.325432E+0	1.260100E+0	1.335143E+0	1.297779E+0	1.396665E+0	1.302595E+0	1.250256E+0	1.354768E+0	1.294006E+0	1.268574E+0	1.343218E+0	1.306311E+0	1.293434E+0	1.276526E+0	1.341266E+0	1.348785E+0	1.291869E+0	1.319255E+0	1.296269E+0	1.372048E+0	1.260675E+0	1.304964E+0	1.383398E+0	1.360770E+0	1.265466E+0	1.349591E+0	1.278759E+0	1.319941E+0	1.315470E+0	1.264763E+0	1.304162E+0	1.322130E+0	1.265289E+0	1.356787E+0	1.326136E+0	1.284765E+0	1.319771E+0	1.280955E+0	1.301926E+0	1.264801E+0	1.260794E+0	1.334945E+0	1.315302E+0	1.302550E+0	1.347641E+0	1.283064E+0	1.301206E+0	1.307284E+0	1.289167E+0	1.282247E+0	1.303458E+0	1.296915E+0	1.284320E+0	1.286927E+0	1.342632E+0	1.297604E+0	1.255218E+0	1.351257E+0	1.271833E+0	1.291045E+0	1.293072E+0	1.267291E+0	1.320602E+0	1.377257E+0	1.287565E+0	1.284894E+0	1.348173E+0	1.356557E+0	1.279219E+0	1.285977E+0	1.288266E+0	1.266772E+0	1.313579E+0	1.287704E+0	1.297100E+0	1.334293E+0	1.244989E+0	1.347044E+0	1.368676E+0	1.268752E+0
5.505000E+2	1.303173E+0	1.318763E+0	1.293735E+0	1.266221E+0	1.257259E+0	1.256271E+0	1.371652E+0	1.319826E+0	1.277956E+0	1.345142E+0	1.266626E+0	1.282560E+0	1.281440E+0	1.292543E+0	1.274822E+0	1.287085E+0	1.301136E+0	1.299734E+0	1.262888E+0	1.264432E+0	1.343320E+0	1.252193E+0	1.232516E+0	1.274846E+0	1.326954E+0	1.372275E+0	1.275324E+0	1.317284E+0	1.299107E+0	1.304240E+0	1.290450E+0	1.266777E+0	1.308734E+0	1.295954E+0	1.294488E+0	1.299185E+0	1.290329E+0	1.290363E+0	1.287329E+0	1.286340E+0	1.264303E+0	1.289824E+0	1.305561E+0	1.254616E+0	1.291103E+0	1.302626E+0	1.284072E+0	1.283362E+0	1.313239E+0	1.321120E+0	1.260141E+0	1.247738E+0	1.282230E+0	1.266330E+0	1.326997E+0	1.284896E+0	1.272020E+0	1.324253E+0	1.249910E+0	1.275095E+0	1.299181E+0	1.256595E+0	1.283236E+0	1.297647E+0	1.285805E+0	1.255036E+0	1.319801E+0	1.290419E+0	1.268398E+0	1.273782E+0	1.296036E+0	1.282773E+0	1.254283E+0	1.350632E+0	1.264096E+0	1.273840E+0	1.304988E+0	1.240922E+0	1.268433E+0	1.272239E+0	1.274591E+0	1.326647E+0	1.281792E+0	1.323245E+0	1.238347E+0	1.293599E+0	1.234297E+0	1.253669E+0	1.291967E+0	1.288190E+0	1.282235E+0	1.276683E+0	1.255596E+0	1.263742E+0	1.286709E+0	1.261990E+0	1.287311E+0	1.277456E+0	1.281414E+0	1.330278E+0	1.267443E+0	1.295192E+0	1.219918E+0	1.203688E+0	1.260648E+0	1.345274E+0	1.323807E+0	1.265315E+0	1.274487E+0	1.328629E+0	1.234425E+0	1.269231E+0	1.363211E+0	1.320457E+0	1.226005E+0	1.239932E+0	1.281484E+0	1.252570E+0	1.271074E+0	1.259198E+0	1.238836E+0	1.278236E+0	1.229668E+0	1.299202E+0	1.226014E+0	1.248810E+0	1.318236E+0	1.278532E+0	1.293351E+0	1.241209E+0	1.285833E+0	1.207060E+0	1.230856E+0	1.225374E+0	1.299402E+0	1.252612E+0	1.262683E+0	1.351941E+0	1.272077E+0	1.303515E+0	1.290840E+0	1.319948E+0	1.310365E+0	1.322472E+0	1.290054E+0	1.281263E+0	1.245557E+0	1.305275E+0	1.269930E+0	1.241794E+0	1.243682E+0	1.268016E+0	1.309010E+0	1.214013E+0	1.238335E+0	1.307328E+0	1.239659E+0	1.283154E+0	1.282096E+0	1.259104E+0	1.275486E+0	1.266289E+0	1.290868E+0	1.257648E+0	1.263978E+0	1.259716E+0	1.252629E+0	1.271610E+0	1.259032E+0	1.226106E+0
5.512510E+2	1.282963E+0	1.338364E+0	1.299080E+0	1.333728E+0	1.300032E+0	1.326029E+0	1.285371E+0	1.321933E+0	1.303177E+0	1.363888E+0	1.282544E+0	1.282766E+0	1.326415E+0	1.334857E+0	1.322104E+0	1.261556E+0	1.271150E+0	1.342673E+0	1.283436E+0	1.300716E+0	1.339649E+0	1.234203E+0	1.312442E+0	1.322487E+0	1.327956E+0	1.312911E+0	1.311234E+0	1.275796E+0	1.284629E+0	1.280436E+0	1.263131E+0	1.255148E+0	1.344766E+0	1.315678E+0	1.333691E+0	1.293697E+0	1.298624E+0	1.266032E+0	1.319625E+0	1.327523E+0	1.299697E+0	1.365710E+0	1.295144E+0	1.270566E+0	1.318983E+0	1.322900E+0	1.307993E+0	1.300130E+0	1.327071E+0	1.321304E+0	1.359167E+0	1.329439E+0	1.316181E+0	1.316879E+0	1.327185E+0	1.282784E+0	1.292164E+0	1.303302E+0	1.229270E+0	1.297356E+0	1.272607E+0	1.263062E+0	1.336095E+0	1.326654E+0	1.294210E+0	1.324806E+0	1.304992E+0	1.246041E+0	1.267473E+0	1.332785E+0	1.273603E+0	1.329257E+0	1.228685E+0	1.301823E+0	1.274355E+0	1.279237E+0	1.293755E+0	1.295011E+0	1.299203E+0	1.222536E+0	1.287265E+0	1.328781E+0	1.288912E+0	1.326285E+0	1.281798E+0	1.346704E+0	1.298640E+0	1.266418E+0	1.345003E+0	1.294315E+0	1.290295E+0	1.261539E+0	1.307888E+0	1.315557E+0	1.337994E+0	1.369264E+0	1.266346E+0	1.303749E+0	1.350398E+0	1.331074E+0	1.279627E+0	1.292076E+0	1.316825E+0	1.324072E+0	1.323676E+0	1.353596E+0	1.252457E+0	1.291452E+0	1.281259E+0	1.299593E+0	1.254638E+0	1.312490E+0	1.330381E+0	1.284526E+0	1.282594E+0	1.281026E+0	1.305039E+0	1.285384E+0	1.265229E+0	1.288758E+0	1.313806E+0	1.284631E+0	1.246317E+0	1.319922E+0	1.308490E+0	1.283641E+0	1.264931E+0	1.255653E+0	1.222825E+0	1.284181E+0	1.306562E+0	1.304208E+0	1.279967E+0	1.311309E+0	1.279199E+0	1.299672E+0	1.335905E+0	1.356180E+0	1.277767E+0	1.331077E+0	1.272541E+0	1.315676E+0	1.271597E+0	1.299799E+0	1.275397E+0	1.279238E+0	1.291257E+0	1.260216E+0	1.279219E+0	1.264334E+0	1.324179E+0	1.302382E+0	1.293075E+0	1.319647E+0	1.309998E+0	1.269577E+0	1.277525E+0	1.296159E+0	1.285859E+0	1.282886E+0	1.251190E+0	1.318884E+0	1.246603E+0	1.282327E+0	1.329199E+0	1.316972E+0	1.252062E+0	1.284868E+0	1.256003E+0	1.315281E+0
5.520100E+2	1.288990E+0	1.261253E+0	1.278889E+0	1.278263E+0	1.292615E+0	1.251845E+0	1.193347E+0	1.262432E+0	1.224232E+0	1.282753E+0	1.244547E+0	1.306937E+0	1.188657E+0	1.256817E+0	1.295240E+0	1.248015E+0	1.245272E+0	1.307726E+0	1.223505E+0	1.257782E+0	1.310320E+0	1.257964E+0	1.271353E+0	1.266993E+0	1.257707E+0	1.298376E+0	1.258606E+0	1.299031E+0	1.263161E+0	1.221633E+0	1.255411E+0	1.235786E+0	1.236776E+0	1.292827E+0	1.295817E+0	1.266053E+0	1.273062E+0	1.209483E+0	1.267145E+0	1.272978E+0	1.211984E+0	1.219787E+0	1.268137E+0	1.238929E+0	1.244485E+0	1.256005E+0	1.206351E+0	1.236993E+0	1.207554E+0	1.224757E+0	1.287650E+0	1.285340E+0	1.249366E+0	1.259698E+0	1.279167E+0	1.270301E+0	1.231613E+0	1.274931E+0	1.286933E+0	1.205507E+0	1.239863E+0	1.229684E+0	1.241673E+0	1.272488E+0	1.299337E+0	1.269742E+0	1.318704E+0	1.234974E+0	1.211243E+0	1.235003E+0	1.164000E+0	1.235922E+0	1.253670E+0	1.274304E+0	1.260058E+0	1.211301E+0	1.258108E+0	1.278429E+0	1.245829E+0	1.237546E+0	1.295713E+0	1.323243E+0	1.234105E+0	1.274095E+0	1.247180E+0	1.274299E+0	1.244506E+0	1.258968E+0	1.256628E+0	1.268540E+0	1.249788E+0	1.241235E+0	1.232349E+0	1.229113E+0	1.246715E+0	1.290710E+0	1.218762E+0	1.219225E+0	1.244373E+0	1.260893E+0	1.255846E+0	1.237565E+0	1.252161E+0	1.223309E+0	1.238145E+0	1.288892E+0	1.226239E+0	1.191152E+0	1.229880E+0	1.280388E+0	1.210201E+0	1.260672E+0	1.261963E+0	1.263849E+0	1.217066E+0	1.226721E+0	1.218617E+0	1.209458E+0	1.255229E+0	1.267706E+0	1.256883E+0	1.247873E+0	1.203534E+0	1.242559E+0	1.296054E+0	1.241457E+0	1.241189E+0	1.224248E+0	1.272751E+0	1.256394E+0	1.276950E+0	1.202187E+0	1.227103E+0	1.239054E+0	1.217808E+0	1.194941E+0	1.261390E+0	1.312643E+0	1.263035E+0	1.216394E+0	1.217875E+0	1.214870E+0	1.195886E+0	1.246331E+0	1.186712E+0	1.290760E+0	1.226050E+0	1.192193E+0	1.255452E+0	1.185043E+0	1.241972E+0	1.209070E+0	1.275700E+0	1.232298E+0	1.252850E+0	1.232637E+0	1.203521E+0	1.293664E+0	1.233057E+0	1.268787E+0	1.221497E+0	1.213228E+0	1.263516E+0	1.229513E+0	1.221803E+0	1.282115E+0	1.203744E+0	1.161796E+0	1.218772E+0	1.294432E+0
5.527700E+2	1.217966E+0	1.193818E+0	1.151774E+0	1.226103E+0	1.176730E+0	1.219315E+0	1.210859E+0	1.231745E+0	1.235814E+0	1.273954E+0	1.227141E+0	1.215179E+0	1.216046E+0	1.230092E+0	1.163970E+0	1.198333E+0	1.190521E+0	1.220837E+0	1.165045E+0	1.225876E+0	1.277361E+0	1.200512E+0	1.227527E+0	1.196016E+0	1.228973E+0	1.231937E+0	1.190013E+0	1.249681E+0	1.233063E+0	1.217174E+0	1.199101E+0	1.147745E+0	1.231196E+0	1.198534E+0	1.226826E+0	1.257498E+0	1.213430E+0	1.166963E+0	1.223556E+0	1.223770E+0	1.199681E+0	1.243779E+0	1.239674E+0	1.201628E+0	1.251778E+0	1.200225E+0	1.227074E+0	1.142777E+0	1.203290E+0	1.219762E+0	1.203465E+0	1.164659E+0	1.185038E+0	1.185107E+0	1.216850E+0	1.206647E+0	1.219532E+0	1.206194E+0	1.226509E+0	1.248109E+0	1.240238E+0	1.198262E+0	1.232369E+0	1.258200E+0	1.200918E+0	1.176169E+0	1.245657E+0	1.196293E+0	1.209161E+0	1.191850E+0	1.203762E+0	1.163584E+0	1.195493E+0	1.218541E+0	1.203253E+0	1.181331E+0	1.220937E+0	1.224737E+0	1.218536E+0	1.238526E+0	1.220883E+0	1.238660E+0	1.169078E+0	1.233921E+0	1.215832E+0	1.228009E+0	1.188461E+0	1.219727E+0	1.245087E+0	1.204292E+0	1.236521E+0	1.186615E+0	1.206210E+0	1.168044E+0	1.217861E+0	1.198977E+0	1.175630E+0	1.234136E+0	1.174070E+0	1.259289E+0	1.201565E+0	1.180449E+0	1.190822E+0	1.201656E+0	1.205771E+0	1.264075E+0	1.177354E+0	1.223328E+0	1.176701E+0	1.265365E+0	1.169357E+0	1.219382E+0	1.205117E+0	1.211123E+0	1.231763E+0	1.228889E+0	1.197245E+0	1.233293E+0	1.224023E+0	1.214633E+0	1.201350E+0	1.238766E+0	1.209193E+0	1.259198E+0	1.262441E+0	1.219165E+0	1.234751E+0	1.214210E+0	1.199541E+0	1.192718E+0	1.202379E+0	1.250533E+0	1.196566E+0	1.205539E+0	1.242234E+0	1.168330E+0	1.206206E+0	1.295535E+0	1.228959E+0	1.210625E+0	1.219974E+0	1.179858E+0	1.201848E+0	1.196147E+0	1.237732E+0	1.257215E+0	1.191272E+0	1.197095E+0	1.192737E+0	1.227501E+0	1.214523E+0	1.216967E+0	1.180905E+0	1.235402E+0	1.223173E+0	1.201545E+0	1.211028E+0	1.199325E+0	1.190300E+0	1.205531E+0	1.176204E+0	1.273626E+0	1.195435E+0	1.194449E+0	1.198377E+0	1.243554E+0	1.197364E+0	1.212556E+0	1.293149E+0	1.212079E+0
5.535100E+2	1.151149E+0	1.197423E+0	1.206046E+0	1.162454E+0	1.153810E+0	1.153569E+0	1.185394E+0	1.143984E+0	1.172940E+0	1.175660E+0	1.210354E+0	1.149510E+0	1.174490E+0	1.157032E+0	1.150233E+0	1.146792E+0	1.116708E+0	1.191101E+0	1.148957E+0	1.123129E+0	1.147502E+0	1.159516E+0	1.201754E+0	1.175503E+0	1.175494E+0	1.162110E+0	1.190596E+0	1.130911E+0	1.187178E+0	1.188178E+0	1.157340E+0	1.122791E+0	1.133092E+0	1.083779E+0	1.134241E+0	1.141309E+0	1.138131E+0	1.160244E+0	1.152744E+0	1.184199E+0	1.165103E+0	1.184293E+0	1.146829E+0	1.192957E+0	1.167507E+0	1.214119E+0	1.154547E+0	1.104346E+0	1.161012E+0	1.165421E+0	1.141425E+0	1.118222E+0	1.196046E+0	1.149594E+0	1.172010E+0	1.188441E+0	1.141516E+0	1.172818E+0	1.106398E+0	1.123581E+0	1.134372E+0	1.147182E+0	1.131952E+0	1.139780E+0	1.151960E+0	1.180298E+0	1.198438E+0	1.143381E+0	1.142992E+0	1.160937E+0	1.089360E+0	1.121966E+0	1.166091E+0	1.188806E+0	1.150653E+0	1.194501E+0	1.180743E+0	1.143842E+0	1.130146E+0	1.149496E+0	1.176364E+0	1.175739E+0	1.130086E+0	1.153859E+0	1.151560E+0	1.179062E+0	1.143352E+0	1.150562E+0	1.184916E+0	1.152283E+0	1.158946E+0	1.119388E+0	1.167926E+0	1.170253E+0	1.187680E+0	1.139527E+0	1.101725E+0	1.219718E+0	1.122883E+0	1.110872E+0	1.144192E+0	1.126953E+0	1.168485E+0	1.142048E+0	1.170545E+0	1.165098E+0	1.141075E+0	1.133282E+0	1.128422E+0	1.163615E+0	1.152784E+0	1.153712E+0	1.190881E+0	1.224415E+0	1.139139E+0	1.172165E+0	1.148138E+0	1.131914E+0	1.185213E+0	1.135658E+0	1.125880E+0	1.208772E+0	1.162013E+0	1.142305E+0	1.178342E+0	1.154583E+0	1.171096E+0	1.149709E+0	1.152490E+0	1.127990E+0	1.159085E+0	1.114158E+0	1.168633E+0	1.174344E+0	1.181655E+0	1.169801E+0	1.186794E+0	1.215058E+0	1.150041E+0	1.181872E+0	1.143578E+0	1.176728E+0	1.123130E+0	1.153066E+0	1.127014E+0	1.209300E+0	1.100245E+0	1.108934E+0	1.144635E+0	1.195117E+0	1.160002E+0	1.103629E+0	1.144450E+0	1.127120E+0	1.062635E+0	1.164811E+0	1.207842E+0	1.174334E+0	1.177464E+0	1.127646E+0	1.126943E+0	1.129618E+0	1.166601E+0	1.105874E+0	1.156045E+0	1.134589E+0	1.156278E+0	1.126594E+0	1.171806E+0	1.203944E+0
5.542580E+2	1.092591E+0	1.058262E+0	1.140890E+0	1.065896E+0	1.085744E+0	1.076872E+0	1.071849E+0	1.119070E+0	1.084789E+0	1.062899E+0	1.102565E+0	1.089949E+0	1.055067E+0	1.071509E+0	1.105213E+0	1.073502E+0	1.110853E+0	1.089435E+0	1.118381E+0	1.094932E+0	1.086396E+0	1.088033E+0	1.112402E+0	1.046351E+0	1.069008E+0	1.086959E+0	1.078277E+0	1.057674E+0	1.083127E+0	1.096671E+0	1.065028E+0	1.061602E+0	1.065998E+0	1.117152E+0	1.120869E+0	1.104421E+0	1.096631E+0	1.079574E+0	1.088677E+0	1.044691E+0	1.039133E+0	1.043425E+0	1.049741E+0	1.082743E+0	1.118786E+0	1.094238E+0	1.063276E+0	1.054040E+0	1.106516E+0	1.098973E+0	1.093349E+0	1.052405E+0	1.124433E+0	1.103523E+0	1.058545E+0	1.076449E+0	1.086654E+0	1.053423E+0	1.079578E+0	1.074908E+0	1.063197E+0	1.038935E+0	1.062784E+0	1.091129E+0	1.074282E+0	1.067551E+0	1.066674E+0	1.113959E+0	1.063126E+0	1.058764E+0	1.091712E+0	1.023611E+0	1.092062E+0	1.122969E+0	1.062558E+0	1.092336E+0	1.084503E+0	1.037368E+0	1.092569E+0	1.069583E+0	1.095884E+0	1.103961E+0	1.077294E+0	1.076149E+0	1.094260E+0	1.101858E+0	1.054466E+0	1.116471E+0	1.066779E+0	1.084812E+0	1.047528E+0	1.097585E+0	1.047206E+0	1.079411E+0	1.124343E+0	1.072944E+0	1.025727E+0	1.114439E+0	1.092617E+0	1.118379E+0	1.062736E+0	1.075161E+0	1.080557E+0	1.080059E+0	1.117873E+0	1.146524E+0	1.089377E+0	1.054113E+0	1.058838E+0	1.071412E+0	1.080463E+0	1.076813E+0	1.136582E+0	1.101143E+0	1.055930E+0	1.133536E+0	1.081334E+0	1.080935E+0	1.116009E+0	1.073216E+0	1.022714E+0	1.110780E+0	1.086345E+0	1.074910E+0	1.118713E+0	1.042097E+0	1.070623E+0	1.088892E+0	1.068841E+0	1.070106E+0	1.072138E+0	1.076210E+0	1.053929E+0	1.111156E+0	1.091848E+0	1.036500E+0	1.040053E+0	1.142519E+0	1.021248E+0	1.056939E+0	1.064175E+0	1.078345E+0	1.125133E+0	1.067357E+0	1.120719E+0	1.101205E+0	1.088477E+0	1.090979E+0	1.068852E+0	1.089307E+0	1.061803E+0	1.101464E+0	1.087126E+0	1.086656E+0	1.077690E+0	1.101720E+0	1.124202E+0	1.136699E+0	1.064805E+0	1.069312E+0	1.059335E+0	1.090621E+0	1.108890E+0	1.040858E+0	1.068504E+0	1.082463E+0	1.079052E+0	1.093479E+0	1.039029E+0	1.074616E+0
5.550190E+2	1.008861E+0	1.031019E+0	1.027882E+0	1.018266E+0	9.721160E-1	1.026291E+0	1.009240E+0	9.858989E-1	1.025455E+0	1.029206E+0	1.067072E+0	1.010955E+0	1.001824E+0	1.022574E+0	1.027422E+0	1.025563E+0	1.021724E+0	9.736475E-1	9.862777E-1	9.934528E-1	1.018558E+0	1.048240E+0	1.052970E+0	1.007881E+0	1.037285E+0	1.016529E+0	1.029724E+0	1.025509E+0	1.018125E+0	9.912456E-1	1.009105E+0	9.674941E-1	1.045687E+0	1.018076E+0	1.001840E+0	1.013427E+0	1.021763E+0	1.035928E+0	1.020186E+0	1.014446E+0	9.929806E-1	9.739964E-1	1.019428E+0	9.869402E-1	9.729797E-1	9.994895E-1	9.913678E-1	1.014508E+0	1.049387E+0	9.768469E-1	9.971747E-1	9.745564E-1	9.815650E-1	1.016905E+0	1.011459E+0	9.641640E-1	9.881217E-1	1.000875E+0	1.023187E+0	9.841439E-1	9.642382E-1	1.026282E+0	1.002309E+0	9.785910E-1	1.028776E+0	1.001395E+0	1.003584E+0	1.012137E+0	1.019026E+0	9.957309E-1	1.058565E+0	1.037282E+0	9.992087E-1	1.062503E+0	9.697154E-1	9.741059E-1	1.036518E+0	9.812220E-1	1.010347E+0	9.939145E-1	9.959157E-1	1.030886E+0	1.015081E+0	9.929625E-1	1.026588E+0	1.013643E+0	9.987735E-1	9.959292E-1	9.979044E-1	1.033151E+0	1.020991E+0	1.010477E+0	1.013225E+0	9.860118E-1	1.039805E+0	1.023274E+0	9.956915E-1	9.719124E-1	1.018653E+0	1.003173E+0	1.002039E+0	1.012505E+0	1.011370E+0	1.004339E+0	1.010061E+0	1.042800E+0	1.048210E+0	9.862488E-1	9.953824E-1	1.018198E+0	9.818547E-1	1.012076E+0	1.077996E+0	1.015778E+0	1.001872E+0	1.044903E+0	1.011644E+0	9.957518E-1	1.030189E+0	1.002034E+0	1.021751E+0	1.048877E+0	9.991427E-1	9.816408E-1	1.011082E+0	1.003537E+0	1.041396E+0	1.026518E+0	1.015425E+0	9.945005E-1	1.009336E+0	9.883492E-1	9.736937E-1	1.026540E+0	1.061917E+0	9.844794E-1	9.626066E-1	1.003964E+0	1.057656E+0	1.022962E+0	1.021279E+0	1.018427E+0	1.031477E+0	1.031511E+0	1.000871E+0	1.018482E+0	9.975622E-1	1.031298E+0	9.844912E-1	9.873740E-1	1.002178E+0	9.879568E-1	1.022555E+0	1.060108E+0	1.000687E+0	1.006993E+0	1.064481E+0	1.005418E+0	9.790740E-1	9.875197E-1	9.697696E-1	1.027444E+0	1.044438E+0	9.614951E-1	9.883274E-1	1.052613E+0	1.023917E+0	9.534320E-1	1.001359E+0	9.864926E-1
5.557660E+2	9.653292E-1	9.827333E-1	9.343004E-1	9.580362E-1	9.771307E-1	9.636237E-1	9.761613E-1	9.801792E-1	9.973024E-1	9.316071E-1	1.045162E+0	9.668736E-1	9.436686E-1	9.972959E-1	9.351906E-1	9.877360E-1	9.771093E-1	9.544479E-1	9.963718E-1	9.626923E-1	9.737392E-1	9.517526E-1	9.887234E-1	9.469061E-1	9.945336E-1	1.005032E+0	1.012930E+0	9.625024E-1	9.818635E-1	9.255328E-1	9.486048E-1	9.256309E-1	9.400657E-1	9.620317E-1	9.181030E-1	9.544362E-1	9.546780E-1	9.781349E-1	9.584720E-1	9.649281E-1	9.710495E-1	9.318652E-1	1.016261E+0	9.750397E-1	9.582738E-1	9.683100E-1	9.580635E-1	9.847624E-1	9.369643E-1	9.795642E-1	9.873637E-1	9.956802E-1	9.906547E-1	9.825088E-1	9.496305E-1	9.388048E-1	9.759392E-1	9.626952E-1	9.484354E-1	9.660071E-1	9.792280E-1	9.393311E-1	9.619347E-1	9.741298E-1	9.398375E-1	9.543856E-1	9.695240E-1	9.215677E-1	9.691526E-1	9.784074E-1	9.487081E-1	9.323541E-1	9.810188E-1	9.469056E-1	9.768582E-1	9.197461E-1	9.213850E-1	9.406118E-1	9.575911E-1	9.566057E-1	1.007226E+0	9.639820E-1	9.509601E-1	1.002336E+0	9.614098E-1	9.749181E-1	9.550166E-1	9.636799E-1	9.434604E-1	9.786231E-1	9.262144E-1	9.278361E-1	9.447630E-1	9.649759E-1	9.947210E-1	9.391056E-1	9.187219E-1	9.369316E-1	9.667674E-1	9.541037E-1	9.518904E-1	9.735063E-1	9.725334E-1	9.769340E-1	9.783787E-1	1.021539E+0	9.614884E-1	9.406406E-1	9.845571E-1	9.564302E-1	9.580922E-1	9.208897E-1	9.877383E-1	1.026095E+0	1.008475E+0	9.341263E-1	1.009854E+0	9.600046E-1	9.696288E-1	9.359210E-1	9.664601E-1	9.787676E-1	9.599242E-1	9.597437E-1	9.841985E-1	9.652255E-1	9.942288E-1	9.398557E-1	9.406368E-1	9.641325E-1	9.389058E-1	9.864034E-1	9.292045E-1	9.228185E-1	9.774049E-1	9.392261E-1	9.662043E-1	9.520944E-1	9.921756E-1	9.543991E-1	9.402055E-1	9.658249E-1	9.677382E-1	9.827853E-1	9.722423E-1	1.014726E+0	9.454418E-1	9.686213E-1	9.696012E-1	9.373901E-1	9.257234E-1	9.477779E-1	9.199239E-1	9.460343E-1	9.139000E-1	9.552122E-1	9.959090E-1	9.900787E-1	9.417669E-1	9.348518E-1	9.373667E-1	1.012101E+0	9.688145E-1	9.643503E-1	9.906033E-1	9.782396E-1	9.324797E-1	9.643695E-1	9.736029E-1	1.010027E+0
5.560080E+2	9.156165E-1	9.784770E-1	9.900449E-1	9.684230E-1	1.002560E+0	9.669094E-1	9.872231E-1	9.659567E-1	9.365265E-1	9.624105E-1	1.013378E+0	9.247575E-1	9.633135E-1	9.562592E-1	9.383018E-1	9.645631E-1	9.578513E-1	9.928216E-1	9.485219E-1	9.439439E-1	9.751227E-1	9.655151E-1	9.844265E-1	9.614091E-1	1.030847E+0	9.715067E-1	9.712645E-1	9.466350E-1	9.506082E-1	9.470305E-1	9.967940E-1	9.127814E-1	9.976005E-1	9.902934E-1	9.276619E-1	9.728158E-1	9.505706E-1	9.845020E-1	9.468639E-1	9.721818E-1	9.350801E-1	9.205414E-1	9.921598E-1	9.176737E-1	9.806094E-1	9.465847E-1	9.657836E-1	9.458853E-1	9.526050E-1	9.214839E-1	9.876856E-1	9.300207E-1	9.246938E-1	9.968365E-1	9.321124E-1	9.610752E-1	9.621773E-1	9.499313E-1	9.892097E-1	9.439514E-1	9.447774E-1	9.294178E-1	9.514897E-1	9.530172E-1	9.699086E-1	9.674933E-1	9.558325E-1	1.033385E+0	9.533329E-1	9.415637E-1	9.445802E-1	9.566866E-1	9.398372E-1	1.016644E+0	9.755139E-1	9.371329E-1	9.788640E-1	9.578738E-1	9.501655E-1	9.693001E-1	9.963327E-1	9.894875E-1	1.014914E+0	9.637317E-1	9.468872E-1	1.012841E+0	9.252887E-1	9.301290E-1	9.296033E-1	9.634893E-1	9.696956E-1	9.975670E-1	9.453043E-1	9.242331E-1	9.693438E-1	9.531658E-1	9.684259E-1	9.522123E-1	9.529348E-1	9.554224E-1	9.758321E-1	9.608165E-1	9.873996E-1	9.587611E-1	9.709908E-1	9.323960E-1	9.494096E-1	1.002309E+0	9.296095E-1	9.638256E-1	9.905236E-1	9.547754E-1	1.001254E+0	9.788474E-1	9.804420E-1	9.820085E-1	9.467527E-1	9.682135E-1	9.204014E-1	9.453928E-1	9.298664E-1	9.421171E-1	9.785456E-1	9.664433E-1	9.736893E-1	9.502057E-1	1.003073E+0	9.621173E-1	9.495757E-1	9.440959E-1	9.645603E-1	9.317203E-1	9.325711E-1	9.091139E-1	9.842139E-1	9.732911E-1	9.524582E-1	9.636673E-1	9.645058E-1	9.868244E-1	9.574394E-1	9.774017E-1	9.470505E-1	9.554997E-1	9.498452E-1	9.646488E-1	9.610813E-1	9.353293E-1	9.764554E-1	9.466562E-1	9.636277E-1	9.678212E-1	9.186800E-1	9.441915E-1	1.008447E+0	9.702896E-1	9.918001E-1	9.751905E-1	9.670865E-1	9.474535E-1	9.193776E-1	9.369304E-1	9.398208E-1	9.962110E-1	9.694387E-1	9.514699E-1	9.312491E-1	9.214255E-1	9.669523E-1	9.648990E-1
5.565090E+2	9.192395E-1	9.530741E-1	9.115060E-1	9.743999E-1	9.614480E-1	9.369091E-1	9.328330E-1	9.442698E-1	9.500546E-1	9.522363E-1	9.632504E-1	9.667321E-1	9.635762E-1	9.433197E-1	9.678432E-1	9.579587E-1	9.306714E-1	9.332729E-1	9.528303E-1	9.201117E-1	9.827109E-1	9.523230E-1	9.655701E-1	9.694700E-1	9.373255E-1	9.366788E-1	9.608804E-1	1.012630E+0	9.573882E-1	9.239659E-1	9.329725E-1	9.387535E-1	9.584713E-1	9.226884E-1	9.386319E-1	9.858927E-1	9.377274E-1	9.558253E-1	9.489361E-1	9.577585E-1	9.417948E-1	9.252645E-1	9.516789E-1	9.318569E-1	9.820240E-1	9.930192E-1	9.531769E-1	9.351999E-1	9.753985E-1	9.340067E-1	9.909980E-1	9.089930E-1	9.472434E-1	9.343976E-1	9.438491E-1	9.411621E-1	9.622978E-1	9.662427E-1	9.587706E-1	9.381045E-1	9.773648E-1	9.209414E-1	9.560698E-1	8.842625E-1	9.202921E-1	9.363604E-1	9.286178E-1	9.566907E-1	9.720203E-1	9.409745E-1	9.373885E-1	9.725249E-1	9.400121E-1	9.462633E-1	9.704801E-1	9.522392E-1	9.433601E-1	9.170882E-1	9.801550E-1	9.630225E-1	9.680493E-1	9.336430E-1	9.765348E-1	9.821745E-1	9.402636E-1	9.519811E-1	8.960909E-1	9.395028E-1	9.791630E-1	9.667457E-1	9.759469E-1	9.810258E-1	9.477807E-1	9.032113E-1	9.835856E-1	9.674121E-1	9.646689E-1	9.163914E-1	9.726804E-1	9.381146E-1	9.486109E-1	9.761707E-1	9.635880E-1	9.135886E-1	9.944572E-1	9.559966E-1	9.211340E-1	9.634212E-1	9.308913E-1	9.604737E-1	9.534724E-1	9.498456E-1	1.001133E+0	9.504113E-1	9.388812E-1	9.773763E-1	9.710843E-1	9.556296E-1	9.678095E-1	9.733055E-1	9.673616E-1	9.611219E-1	9.218099E-1	9.974296E-1	9.608239E-1	9.309193E-1	9.665130E-1	9.279903E-1	8.942700E-1	9.312872E-1	9.695939E-1	9.512056E-1	9.114438E-1	9.406796E-1	9.749323E-1	9.496025E-1	9.612492E-1	9.793199E-1	9.526123E-1	9.662026E-1	9.404656E-1	9.713973E-1	9.845332E-1	9.844249E-1	9.662024E-1	9.434053E-1	9.247000E-1	9.419488E-1	9.446536E-1	9.643322E-1	9.401874E-1	9.357033E-1	9.710415E-1	9.386778E-1	9.638386E-1	9.665624E-1	9.614790E-1	9.460750E-1	9.697537E-1	9.267959E-1	9.253706E-1	9.407513E-1	9.436970E-1	9.673723E-1	9.753843E-1	9.573318E-1	9.681719E-1	9.351359E-1	9.164251E-1	1.009570E+0
5.570500E+2	9.883716E-1	9.711462E-1	9.883022E-1	9.922071E-1	9.863150E-1	9.794471E-1	1.007471E+0	9.879209E-1	9.975872E-1	9.632747E-1	9.833231E-1	9.413091E-1	9.882088E-1	9.703798E-1	1.002616E+0	9.410708E-1	1.020940E+0	1.024066E+0	1.007194E+0	1.013683E+0	9.963430E-1	9.901987E-1	9.796883E-1	9.725285E-1	9.553243E-1	9.254559E-1	9.993678E-1	9.902906E-1	9.538263E-1	1.029486E+0	9.590846E-1	9.507041E-1	9.781338E-1	9.901653E-1	1.005167E+0	1.016875E+0	1.005129E+0	9.892071E-1	9.955460E-1	9.752948E-1	9.828081E-1	9.923791E-1	1.003879E+0	9.911542E-1	9.874632E-1	9.664188E-1	9.912753E-1	9.801228E-1	9.922010E-1	9.944507E-1	1.006225E+0	9.744778E-1	9.745239E-1	9.789468E-1	9.917981E-1	9.764620E-1	9.855794E-1	9.668828E-1	1.005236E+0	9.355484E-1	9.889987E-1	9.832998E-1	9.926505E-1	9.756770E-1	9.785968E-1	9.690954E-1	1.022083E+0	9.990698E-1	9.926553E-1	9.859812E-1	9.749862E-1	9.740011E-1	9.950413E-1	9.526454E-1	9.812047E-1	9.932022E-1	9.798961E-1	9.606872E-1	9.515020E-1	9.773634E-1	9.660785E-1	9.849762E-1	1.065960E+0	9.582660E-1	9.794242E-1	9.579500E-1	9.811487E-1	9.568775E-1	9.845485E-1	9.584519E-1	9.746991E-1	9.625828E-1	9.868664E-1	9.676662E-1	9.415207E-1	9.938746E-1	9.820066E-1	1.010970E+0	9.585335E-1	9.415228E-1	9.212970E-1	1.007158E+0	9.550398E-1	9.448840E-1	9.825706E-1	9.741001E-1	9.662188E-1	1.002072E+0	9.565259E-1	9.794099E-1	9.809303E-1	9.765247E-1	9.915721E-1	9.609264E-1	9.662825E-1	9.777575E-1	9.932969E-1	9.518403E-1	9.313399E-1	9.892991E-1	9.833346E-1	9.921464E-1	9.854377E-1	9.727130E-1	9.621215E-1	9.594511E-1	9.654643E-1	9.541367E-1	9.872736E-1	9.525917E-1	1.003492E+0	9.907958E-1	1.002966E+0	1.007453E+0	9.950927E-1	1.001658E+0	1.015209E+0	9.956506E-1	9.354158E-1	9.826455E-1	9.601157E-1	9.738423E-1	9.496098E-1	9.874172E-1	9.773247E-1	9.536123E-1	9.966264E-1	9.917482E-1	1.001849E+0	9.914665E-1	1.001046E+0	9.864497E-1	9.658758E-1	9.820666E-1	9.683342E-1	9.333019E-1	9.468742E-1	1.007159E+0	9.878064E-1	9.836966E-1	1.000138E+0	9.886632E-1	9.642732E-1	9.990456E-1	1.004825E+0	9.996793E-1	9.961149E-1	9.842462E-1	9.915943E-1	9.396604E-1
5.575530E+2	1.026194E+0	9.956590E-1	1.024310E+0	9.611236E-1	1.011483E+0	9.932804E-1	9.923128E-1	9.804935E-1	9.542329E-1	1.006753E+0	1.026178E+0	1.006400E+0	9.796487E-1	9.896615E-1	9.685793E-1	1.000536E+0	9.397865E-1	9.563290E-1	9.927748E-1	9.678481E-1	9.860578E-1	1.010386E+0	9.568665E-1	9.846815E-1	1.005626E+0	1.045372E+0	1.005170E+0	9.815414E-1	1.002215E+0	9.884343E-1	1.035354E+0	9.836002E-1	9.788451E-1	9.812606E-1	9.955043E-1	9.927248E-1	9.898190E-1	9.572674E-1	9.884548E-1	9.902113E-1	9.909203E-1	9.704436E-1	1.016835E+0	9.795351E-1	9.656420E-1	1.011657E+0	9.958463E-1	9.649861E-1	9.982901E-1	9.695372E-1	9.429436E-1	1.003649E+0	9.860683E-1	1.019025E+0	9.603824E-1	9.963918E-1	1.017851E+0	9.974185E-1	9.828194E-1	1.022978E+0	9.876720E-1	9.948434E-1	1.026122E+0	1.006635E+0	9.866002E-1	9.988061E-1	9.660758E-1	9.687731E-1	9.898355E-1	9.871064E-1	9.872468E-1	9.971522E-1	9.957008E-1	9.811847E-1	9.615891E-1	9.984156E-1	9.831164E-1	9.990347E-1	1.041517E+0	9.628068E-1	1.024663E+0	9.680478E-1	1.013254E+0	9.671265E-1	1.012679E+0	9.839565E-1	1.011918E+0	9.791814E-1	9.852096E-1	9.618182E-1	9.904073E-1	9.476252E-1	9.650484E-1	1.013661E+0	9.959851E-1	9.899525E-1	9.549334E-1	1.012801E+0	1.021240E+0	9.759571E-1	1.004272E+0	9.857352E-1	9.485958E-1	9.684035E-1	9.698274E-1	9.541751E-1	9.843715E-1	9.521847E-1	9.662246E-1	1.004967E+0	1.049842E+0	1.023315E+0	9.521934E-1	1.003371E+0	9.693043E-1	1.031067E+0	9.790732E-1	9.798992E-1	9.866870E-1	9.750107E-1	1.013658E+0	1.014217E+0	9.787459E-1	1.015894E+0	9.610670E-1	9.928715E-1	1.011458E+0	9.798615E-1	9.893306E-1	9.453500E-1	9.751118E-1	9.987542E-1	9.998401E-1	9.617531E-1	9.816014E-1	9.672604E-1	9.714667E-1	9.642671E-1	9.774919E-1	9.812135E-1	9.624929E-1	9.677277E-1	1.003571E+0	9.552535E-1	1.014738E+0	9.966051E-1	9.691352E-1	9.791937E-1	9.876580E-1	9.825280E-1	9.635118E-1	1.009146E+0	9.838945E-1	9.868588E-1	9.813502E-1	9.799607E-1	9.791465E-1	9.869335E-1	1.015405E+0	9.573452E-1	1.022334E+0	9.934145E-1	9.894120E-1	9.926680E-1	9.945363E-1	9.418754E-1	9.615361E-1	1.000889E+0	9.931476E-1	9.633931E-1
5.580110E+2	9.401200E-1	9.907392E-1	1.003285E+0	9.776039E-1	1.002710E+0	9.612994E-1	9.666841E-1	9.958377E-1	9.916499E-1	9.438267E-1	9.766058E-1	9.735556E-1	9.870247E-1	9.880920E-1	1.006206E+0	1.027890E+0	1.006230E+0	9.933269E-1	9.885418E-1	1.009493E+0	9.829709E-1	9.779918E-1	9.917090E-1	9.982033E-1	1.036360E+0	9.780183E-1	9.932356E-1	9.975572E-1	9.866960E-1	9.847425E-1	9.885243E-1	9.935939E-1	9.701425E-1	9.739386E-1	9.724036E-1	1.013856E+0	1.005312E+0	9.891416E-1	9.896701E-1	9.593130E-1	9.866961E-1	9.894505E-1	9.930853E-1	9.824080E-1	9.874628E-1	1.005113E+0	9.771543E-1	9.946639E-1	9.993808E-1	1.049904E+0	1.032583E+0	1.015472E+0	1.003471E+0	1.008739E+0	1.018321E+0	9.746864E-1	9.726688E-1	1.005177E+0	1.003000E+0	9.883413E-1	9.942330E-1	1.001807E+0	9.881303E-1	1.007821E+0	9.727242E-1	1.028084E+0	9.977781E-1	9.864876E-1	9.877069E-1	9.888269E-1	9.874913E-1	9.485636E-1	9.901857E-1	9.811694E-1	1.030452E+0	1.003569E+0	9.785495E-1	1.006805E+0	1.025559E+0	1.013452E+0	1.033852E+0	1.003027E+0	1.000227E+0	9.572437E-1	9.749499E-1	1.009675E+0	9.606688E-1	9.847586E-1	1.020974E+0	1.053368E+0	1.033676E+0	9.469184E-1	9.834918E-1	1.012169E+0	1.043418E+0	9.601320E-1	1.022338E+0	1.029204E+0	9.924557E-1	1.042827E+0	1.014683E+0	1.003679E+0	1.013540E+0	1.025393E+0	9.813374E-1	9.993671E-1	9.894027E-1	9.747185E-1	9.764965E-1	9.806997E-1	9.489571E-1	9.863018E-1	9.661582E-1	1.016140E+0	9.879253E-1	9.767971E-1	1.028618E+0	9.865283E-1	1.031226E+0	9.762596E-1	9.791915E-1	1.001893E+0	9.933127E-1	1.019099E+0	1.007130E+0	9.788844E-1	1.025658E+0	9.901319E-1	9.817987E-1	1.022439E+0	9.779764E-1	9.923279E-1	9.833496E-1	9.848894E-1	9.706991E-1	9.898185E-1	9.704421E-1	9.758502E-1	1.018896E+0	1.007231E+0	1.018737E+0	1.023669E+0	9.873220E-1	9.530090E-1	1.001812E+0	9.990803E-1	9.710260E-1	9.814828E-1	1.004946E+0	9.725618E-1	9.867154E-1	9.979699E-1	1.058450E+0	9.919246E-1	9.380203E-1	9.872889E-1	1.017700E+0	1.009350E+0	1.003955E+0	9.991849E-1	9.697305E-1	9.539542E-1	9.816185E-1	9.963651E-1	9.971194E-1	9.701754E-1	1.036210E+0	9.773219E-1	9.808811E-1	1.058621E+0
5.585100E+2	1.028094E+0	9.962626E-1	9.989511E-1	1.016541E+0	1.009005E+0	9.826224E-1	9.650229E-1	1.004228E+0	9.951889E-1	9.786724E-1	1.010592E+0	1.047028E+0	9.940561E-1	1.028338E+0	1.015231E+0	1.040458E+0	9.969140E-1	1.034880E+0	1.009835E+0	1.026760E+0	1.009042E+0	1.033440E+0	1.017821E+0	1.011639E+0	1.041214E+0	1.027476E+0	1.017157E+0	1.000847E+0	1.021101E+0	9.936049E-1	9.934238E-1	1.043805E+0	1.018754E+0	9.956703E-1	1.038710E+0	1.010409E+0	1.026885E+0	1.002930E+0	9.517765E-1	9.908399E-1	1.002622E+0	1.010913E+0	1.018816E+0	1.012311E+0	1.029318E+0	1.014848E+0	1.023517E+0	1.030826E+0	9.699350E-1	1.044343E+0	1.008875E+0	9.815061E-1	1.033509E+0	1.028153E+0	9.726055E-1	1.015169E+0	9.975840E-1	1.027330E+0	1.014804E+0	1.030054E+0	9.915635E-1	9.959560E-1	1.002146E+0	1.048558E+0	1.001444E+0	1.021258E+0	9.936812E-1	9.888340E-1	1.030630E+0	1.004894E+0	9.711569E-1	1.001206E+0	1.020819E+0	1.014583E+0	1.044049E+0	1.000977E+0	1.007245E+0	1.022896E+0	1.013554E+0	1.009978E+0	1.005278E+0	1.029931E+0	1.003149E+0	1.033138E+0	1.024166E+0	9.899137E-1	1.022745E+0	1.052309E+0	9.954891E-1	1.008126E+0	1.042637E+0	9.856416E-1	1.020370E+0	9.633248E-1	1.007872E+0	1.009482E+0	1.016115E+0	1.002875E+0	1.016052E+0	1.039197E+0	1.007433E+0	1.013537E+0	1.023494E+0	9.871661E-1	9.671457E-1	9.755845E-1	1.039491E+0	1.028509E+0	1.018435E+0	1.044246E+0	1.013428E+0	9.883166E-1	1.034236E+0	1.009712E+0	1.060575E+0	1.009712E+0	1.006139E+0	1.014819E+0	1.021192E+0	1.014051E+0	1.013669E+0	1.003108E+0	9.943447E-1	1.007403E+0	9.742995E-1	1.026476E+0	1.002924E+0	1.001791E+0	1.027813E+0	1.053502E+0	1.050968E+0	1.013818E+0	9.890773E-1	1.000649E+0	1.018178E+0	1.052200E+0	1.031826E+0	1.024422E+0	9.667250E-1	9.786402E-1	1.019257E+0	9.983525E-1	1.024900E+0	1.019141E+0	1.025542E+0	1.007099E+0	1.006051E+0	1.020138E+0	9.980458E-1	1.001423E+0	9.745230E-1	1.029621E+0	9.774638E-1	1.008959E+0	1.011246E+0	1.031461E+0	1.019744E+0	9.887863E-1	1.004265E+0	1.008511E+0	1.002694E+0	1.036829E+0	1.006796E+0	1.041524E+0	9.725542E-1	1.012684E+0	1.023182E+0	1.045440E+0	9.841906E-1	9.475689E-1
5.590100E+2	1.040358E+0	1.003328E+0	1.012560E+0	1.038717E+0	1.020388E+0	1.054488E+0	1.020698E+0	1.017931E+0	9.982312E-1	1.038813E+0	9.743165E-1	1.044865E+0	1.060519E+0	1.004157E+0	1.018739E+0	1.024545E+0	1.031972E+0	1.023830E+0	9.932922E-1	1.046122E+0	1.010383E+0	9.861232E-1	1.016360E+0	1.012233E+0	1.010623E+0	9.921582E-1	1.016224E+0	9.731731E-1	1.038202E+0	1.015848E+0	9.996985E-1	1.024456E+0	9.828375E-1	1.027278E+0	1.004678E+0	9.770655E-1	9.708434E-1	1.050227E+0	1.056732E+0	1.024636E+0	1.019429E+0	1.023647E+0	9.601781E-1	9.965375E-1	1.008673E+0	9.944324E-1	1.014847E+0	1.004644E+0	1.014387E+0	9.951474E-1	1.024764E+0	1.043467E+0	1.073203E+0	1.007480E+0	1.029364E+0	1.009013E+0	1.058235E+0	1.006340E+0	9.916632E-1	9.799563E-1	1.015974E+0	1.002184E+0	1.016156E+0	9.959789E-1	1.052519E+0	1.037127E+0	1.038462E+0	1.049544E+0	9.965440E-1	1.019176E+0	9.789548E-1	1.034385E+0	9.930437E-1	1.051916E+0	1.010532E+0	1.010291E+0	1.047617E+0	9.954447E-1	9.731859E-1	1.006271E+0	9.886368E-1	1.054134E+0	1.023895E+0	1.041949E+0	1.036946E+0	1.069233E+0	1.048118E+0	1.027319E+0	9.973911E-1	1.040779E+0	9.645598E-1	1.040227E+0	1.058391E+0	1.085209E+0	1.001425E+0	1.005752E+0	1.018227E+0	1.011986E+0	1.007330E+0	1.009286E+0	1.010917E+0	1.033568E+0	1.029493E+0	9.899542E-1	1.066154E+0	1.042812E+0	1.025995E+0	1.000942E+0	1.020571E+0	1.042940E+0	9.913284E-1	1.023531E+0	1.029205E+0	1.028599E+0	1.036663E+0	1.060133E+0	1.018740E+0	1.034589E+0	1.029961E+0	1.005418E+0	1.038181E+0	9.846516E-1	1.030450E+0	1.024083E+0	1.004185E+0	1.033103E+0	1.016397E+0	1.029260E+0	1.002192E+0	1.005538E+0	1.013262E+0	1.014118E+0	1.024868E+0	1.023529E+0	1.011119E+0	9.937766E-1	1.013561E+0	1.029313E+0	1.057088E+0	1.051460E+0	9.848755E-1	1.003737E+0	1.021310E+0	1.010988E+0	1.020418E+0	1.021683E+0	1.029356E+0	1.051793E+0	1.015155E+0	1.024044E+0	9.805437E-1	9.987169E-1	1.032500E+0	1.008693E+0	1.041208E+0	1.035288E+0	1.025809E+0	1.009299E+0	1.011616E+0	1.023304E+0	1.000406E+0	1.025661E+0	1.049044E+0	1.000616E+0	1.045128E+0	1.092082E+0	1.010817E+0	1.022603E+0	9.959115E-1	1.016826E+0
5.595170E+2	9.751366E-1	1.034828E+0	1.031478E+0	9.889054E-1	9.965422E-1	1.003571E+0	1.017392E+0	1.007761E+0	9.905628E-1	1.051073E+0	9.893543E-1	1.004645E+0	1.010035E+0	9.868483E-1	1.002228E+0	9.879729E-1	9.845142E-1	9.827669E-1	9.999582E-1	1.003164E+0	1.010649E+0	1.006523E+0	1.046400E+0	1.001524E+0	1.002505E+0	1.002650E+0	1.008208E+0	1.016497E+0	9.896852E-1	9.843130E-1	1.012054E+0	9.789075E-1	1.002483E+0	9.846464E-1	1.032156E+0	9.736175E-1	9.643899E-1	9.785710E-1	9.917935E-1	9.933354E-1	9.932281E-1	1.035680E+0	1.001892E+0	1.031794E+0	1.049289E+0	1.025661E+0	9.835861E-1	1.011440E+0	9.878230E-1	9.613949E-1	9.702654E-1	9.942531E-1	9.794065E-1	1.021359E+0	1.007273E+0	1.010468E+0	9.614960E-1	1.015322E+0	9.910207E-1	9.805786E-1	9.975408E-1	9.795117E-1	9.833569E-1	1.000355E+0	9.978838E-1	9.666520E-1	9.727856E-1	1.033662E+0	9.936336E-1	1.000983E+0	1.002245E+0	1.007749E+0	9.961871E-1	1.001155E+0	9.786246E-1	9.685126E-1	9.825514E-1	1.021951E+0	1.017821E+0	1.022496E+0	9.835693E-1	9.656586E-1	9.725137E-1	9.919537E-1	9.689065E-1	1.026621E+0	9.463820E-1	1.013595E+0	1.017100E+0	1.022097E+0	1.012613E+0	1.033317E+0	9.947659E-1	1.001408E+0	9.908646E-1	1.007612E+0	1.004222E+0	9.790178E-1	9.884765E-1	1.029578E+0	9.978056E-1	1.018317E+0	1.009914E+0	1.030841E+0	1.008248E+0	9.885892E-1	9.902837E-1	1.017770E+0	9.908149E-1	9.687847E-1	1.010371E+0	1.022346E+0	1.017751E+0	1.005826E+0	9.434443E-1	1.000849E+0	1.002793E+0	1.013014E+0	1.007864E+0	1.000931E+0	9.890009E-1	9.938945E-1	9.797623E-1	1.004263E+0	1.027872E+0	1.023016E+0	9.647361E-1	1.076145E+0	9.939339E-1	9.845963E-1	9.970914E-1	9.891450E-1	1.021254E+0	1.005115E+0	9.746200E-1	1.002338E+0	1.017977E+0	1.015465E+0	1.029203E+0	9.873509E-1	9.933050E-1	1.007956E+0	1.025296E+0	1.011158E+0	9.713659E-1	1.058574E+0	9.696752E-1	9.891586E-1	9.898481E-1	1.023370E+0	1.013167E+0	9.963246E-1	9.951699E-1	9.904410E-1	1.036416E+0	1.035826E+0	9.860543E-1	9.826955E-1	9.978658E-1	1.012481E+0	9.978023E-1	9.747055E-1	1.009962E+0	9.601062E-1	9.944491E-1	9.591308E-1	9.568176E-1	9.857097E-1	9.916357E-1	1.048983E+0
5.599900E+2	9.632956E-1	9.902886E-1	9.646763E-1	1.038769E+0	1.027194E+0	1.021024E+0	1.016757E+0	9.993301E-1	1.045070E+0	9.956346E-1	1.025047E+0	9.564244E-1	1.003851E+0	1.012341E+0	9.743409E-1	9.832782E-1	1.015495E+0	9.614196E-1	9.606449E-1	1.029132E+0	1.012674E+0	9.663569E-1	1.012336E+0	1.004791E+0	9.782894E-1	1.002090E+0	9.594478E-1	9.937981E-1	1.011201E+0	1.012532E+0	1.002366E+0	1.003979E+0	1.051263E+0	1.025234E+0	9.560076E-1	1.009090E+0	9.915877E-1	9.936599E-1	1.005978E+0	1.025213E+0	9.942499E-1	9.999656E-1	9.661895E-1	1.037345E+0	9.770849E-1	1.003406E+0	9.940509E-1	9.841259E-1	1.017456E+0	9.938930E-1	1.002706E+0	9.813719E-1	9.851949E-1	9.901855E-1	9.989124E-1	9.803256E-1	1.006574E+0	9.613484E-1	9.752866E-1	9.984552E-1	9.908488E-1	1.026388E+0	1.008667E+0	9.956720E-1	9.998597E-1	9.683197E-1	9.880980E-1	9.701737E-1	9.964102E-1	1.024101E+0	1.046195E+0	1.033027E+0	9.860451E-1	1.003115E+0	9.964264E-1	1.009291E+0	9.546343E-1	9.752291E-1	1.009505E+0	9.804423E-1	9.898834E-1	9.680999E-1	9.576813E-1	9.935144E-1	1.011811E+0	9.691897E-1	1.003730E+0	9.992290E-1	9.463340E-1	9.636877E-1	1.012373E+0	1.014182E+0	9.691487E-1	9.820524E-1	1.018555E+0	9.856429E-1	1.004895E+0	9.693483E-1	1.031866E+0	9.966747E-1	1.008549E+0	9.540393E-1	9.597159E-1	1.019390E+0	9.663959E-1	1.003419E+0	9.842796E-1	1.001118E+0	9.835334E-1	9.689732E-1	1.017648E+0	9.986901E-1	9.794451E-1	1.008220E+0	9.869211E-1	9.742021E-1	9.937910E-1	9.787565E-1	1.006098E+0	1.003152E+0	9.796159E-1	9.864595E-1	1.004055E+0	1.005120E+0	1.028497E+0	1.002518E+0	1.033307E+0	1.005274E+0	1.017303E+0	1.042893E+0	9.724138E-1	1.027418E+0	9.765923E-1	9.690703E-1	1.031334E+0	1.032783E+0	9.628584E-1	9.812548E-1	9.963827E-1	1.005655E+0	1.017727E+0	1.021168E+0	1.002346E+0	1.027283E+0	9.402095E-1	9.679568E-1	1.027075E+0	9.779676E-1	9.497184E-1	9.855732E-1	1.038693E+0	9.866703E-1	1.012255E+0	9.908989E-1	1.003835E+0	9.835414E-1	1.007533E+0	1.000651E+0	9.839354E-1	9.885718E-1	9.639146E-1	9.999715E-1	9.710782E-1	9.874070E-1	1.002654E+0	1.006337E+0	9.983337E-1	9.728086E-1	9.947865E-1	9.927093E-1
5.605090E+2	1.021219E+0	1.014455E+0	9.603647E-1	9.710982E-1	9.688229E-1	9.889199E-1	1.038862E+0	1.010888E+0	9.878743E-1	1.012430E+0	9.818361E-1	9.978466E-1	9.952153E-1	1.045219E+0	9.774675E-1	9.979078E-1	9.969771E-1	9.830709E-1	9.919963E-1	9.095095E-1	1.014229E+0	1.018300E+0	9.888617E-1	9.647241E-1	9.751710E-1	9.860124E-1	9.856299E-1	1.004623E+0	1.026929E+0	9.903407E-1	9.963433E-1	1.021983E+0	1.002426E+0	9.944639E-1	9.900757E-1	9.904088E-1	9.984732E-1	9.978590E-1	1.012671E+0	1.030677E+0	9.890221E-1	1.002658E+0	1.010136E+0	1.012198E+0	9.915910E-1	9.910643E-1	1.017510E+0	9.981724E-1	1.018962E+0	9.857773E-1	9.833532E-1	1.000111E+0	9.595244E-1	9.692820E-1	1.042899E+0	9.835220E-1	1.010034E+0	1.001751E+0	1.012302E+0	1.045302E+0	1.002619E+0	9.813527E-1	9.859496E-1	1.004796E+0	9.618616E-1	1.011046E+0	1.003527E+0	1.006934E+0	9.991282E-1	9.964462E-1	1.032326E+0	9.642242E-1	1.001676E+0	9.884363E-1	1.002315E+0	9.821877E-1	1.044208E+0	1.022743E+0	9.445741E-1	1.028479E+0	1.032220E+0	9.958893E-1	9.688081E-1	1.022347E+0	1.000819E+0	9.833763E-1	1.005509E+0	9.849983E-1	1.045808E+0	9.748151E-1	9.844867E-1	1.050687E+0	9.798681E-1	9.707954E-1	1.008383E+0	1.026404E+0	9.880732E-1	9.757395E-1	9.841233E-1	9.742579E-1	1.011267E+0	9.860260E-1	9.946971E-1	1.041751E+0	1.028361E+0	1.048924E+0	9.887667E-1	1.009627E+0	1.037171E+0	9.934580E-1	9.860321E-1	9.880627E-1	9.927810E-1	9.669055E-1	9.970698E-1	9.719657E-1	9.765384E-1	1.029568E+0	9.916920E-1	1.007967E+0	1.031301E+0	1.024065E+0	9.851852E-1	9.746740E-1	9.857579E-1	9.838161E-1	9.879952E-1	9.725487E-1	9.919445E-1	1.024664E+0	9.899879E-1	9.710665E-1	9.871257E-1	1.048823E+0	1.003338E+0	9.907230E-1	1.012398E+0	1.032459E+0	9.818235E-1	9.719159E-1	9.961884E-1	1.008746E+0	9.970843E-1	1.009493E+0	1.021197E+0	9.920525E-1	1.019602E+0	9.998004E-1	1.017147E+0	9.945661E-1	1.062157E+0	1.015332E+0	9.857350E-1	1.020792E+0	1.021430E+0	9.998284E-1	9.917308E-1	1.005168E+0	9.615542E-1	1.008186E+0	1.000024E+0	1.006536E+0	1.002998E+0	9.747699E-1	9.748706E-1	1.007507E+0	9.979051E-1	9.676813E-1	1.034348E+0	9.893854E-1
5.610530E+2	1.017211E+0	1.003294E+0	1.016073E+0	1.015034E+0	9.775394E-1	1.015348E+0	9.748001E-1	9.956098E-1	1.039603E+0	1.009523E+0	1.032747E+0	1.027926E+0	9.814411E-1	9.749630E-1	1.034592E+0	9.963412E-1	1.007170E+0	1.040311E+0	1.055763E+0	9.942867E-1	9.776510E-1	1.010681E+0	9.899575E-1	1.049675E+0	9.948878E-1	1.040766E+0	1.015559E+0	1.041673E+0	9.701438E-1	1.000699E+0	1.013152E+0	9.989705E-1	1.015115E+0	1.027343E+0	1.005298E+0	1.015953E+0	1.047561E+0	1.041137E+0	1.007378E+0	1.010479E+0	1.041024E+0	9.748642E-1	1.028989E+0	9.567171E-1	1.003476E+0	9.873993E-1	1.002213E+0	1.031019E+0	1.001565E+0	1.005552E+0	1.028285E+0	1.005693E+0	1.005099E+0	9.768292E-1	9.784449E-1	1.053963E+0	9.899785E-1	1.018430E+0	1.023868E+0	1.018787E+0	1.030550E+0	1.034657E+0	9.968218E-1	9.645062E-1	1.048510E+0	9.996102E-1	1.017509E+0	9.965211E-1	1.013456E+0	9.924849E-1	1.019398E+0	1.039692E+0	1.021301E+0	1.025795E+0	9.948066E-1	1.033554E+0	1.022183E+0	9.952099E-1	1.022782E+0	9.987119E-1	9.758199E-1	1.030236E+0	9.945121E-1	1.034462E+0	9.902987E-1	1.010084E+0	1.019780E+0	1.001733E+0	1.007145E+0	1.016858E+0	9.845486E-1	1.018819E+0	1.042050E+0	1.003714E+0	9.919767E-1	1.021149E+0	1.009190E+0	1.008058E+0	9.999226E-1	9.907001E-1	1.023776E+0	9.979413E-1	1.065511E+0	9.922171E-1	1.029960E+0	1.013029E+0	1.031191E+0	1.013059E+0	1.050227E+0	1.016522E+0	1.001464E+0	9.929119E-1	1.036659E+0	1.000301E+0	1.051815E+0	9.975164E-1	1.001010E+0	1.010986E+0	9.939408E-1	1.027911E+0	9.720475E-1	9.995655E-1	1.048707E+0	9.767506E-1	1.049069E+0	9.998641E-1	9.920598E-1	9.908501E-1	1.008411E+0	9.684251E-1	1.019696E+0	1.002557E+0	1.014927E+0	9.987183E-1	1.014017E+0	9.694429E-1	1.004263E+0	9.813174E-1	1.036975E+0	1.033887E+0	1.047302E+0	9.948007E-1	9.885605E-1	1.026258E+0	1.027392E+0	1.003337E+0	1.011452E+0	1.008717E+0	1.035633E+0	1.024468E+0	9.796440E-1	9.797686E-1	9.886554E-1	1.019365E+0	9.981611E-1	1.013504E+0	1.025408E+0	1.009958E+0	1.033598E+0	1.018719E+0	1.042958E+0	1.020265E+0	1.024819E+0	1.047499E+0	1.013864E+0	1.010529E+0	1.019083E+0	1.043300E+0	1.033505E+0	1.042853E+0
