Photon Energy (eV)	#1	#2	#3	#4	#5	#6	#7	#8	#9	#10	#11	#12	#13	#14	#15	#16	#17	#18	#19	#20	#21	#22	#23	#24	#25	#26	#27	#28	#29	#30	#31	#32	#33	#34	#35	#36	#37	#38	#39	#40	#41	#42	#43	#44	#45	#46	#47	#48	#49	#50	#51	#52	#53	#54	#55	#56	#57	#58	#59	#60	#61	#62	#63	#64	#65	#66	#67	#68	#69	#70	#71	#72	#73	#74	#75	#76	#77	#78	#79	#80	#81	#82	#83	#84	#85	#86	#87	#88	#89	#90	#91	#92	#93	#94	#95	#96	#97	#98	#99	#100	#101	#102	#103	#104	#105	#106	#107	#108	#109	#110	#111	#112	#113	#114	#115	#116	#117	#118	#119	#120	#121	#122	#123	#124	#125	#126	#127	#128	#129	#130	#131	#132	#133	#134	#135	#136	#137	#138	#139	#140	#141	#142	#143	#144	#145	#146	#147	#148	#149	#150	#151	#152	#153	#154	#155	#156	#157	#158	#159	#160	#161	#162	#163	#164	#165	#166	#167	#168	#169	#170	#171	#172	
5.300320E+2	-7.102327E-3	-7.481024E-3	-2.605863E-3	-2.457903E-3	-1.086030E-2	-2.021215E-3	-1.071815E-2	-9.832125E-3	-5.352254E-3	-2.716576E-3	2.863940E-5	-1.388062E-2	-1.195968E-2	-3.151891E-3	-2.627990E-3	-4.521403E-3	-9.740804E-3	-1.083480E-2	-5.617226E-3	1.721170E-3	-8.922213E-3	-1.015189E-2	-1.108105E-2	-7.270151E-4	-5.343942E-3	-1.537797E-2	-5.419880E-3	-1.428545E-2	-8.370857E-3	7.183455E-4	-7.682170E-3	-2.729231E-3	-5.660799E-3	-4.875843E-3	-1.142844E-2	-3.601905E-3	-1.579865E-3	-1.478851E-4	-7.482927E-3	-1.402567E-2	-7.375946E-3	-2.676554E-3	1.110252E-2	-4.394151E-3	-5.933362E-3	1.033473E-3	-8.298402E-3	-3.677176E-3	-1.435889E-3	-4.754687E-3	-1.290019E-3	1.043053E-3	-6.182825E-3	2.219300E-3	-3.737798E-3	-7.612868E-3	-5.526058E-3	-6.459661E-3	-1.019001E-2	-1.196205E-3	-5.649102E-3	-1.514065E-2	-3.434790E-3	-4.983210E-3	-1.059049E-2	-3.184666E-3	-1.323012E-2	-7.889210E-3	-9.176251E-3	5.753976E-5	-3.693908E-3	-1.522839E-2	-7.260357E-3	-1.125141E-2	-4.556684E-3	-3.073799E-3	-9.579572E-3	-9.416417E-3	-9.094102E-3	-4.104763E-3	-2.646152E-3	-4.848803E-3	-5.189368E-3	-2.991989E-3	-3.388658E-3	-5.144928E-3	-7.433789E-3	-1.333943E-2	-6.259553E-3	-7.787835E-3	-1.121611E-2	5.487263E-3	-5.369540E-3	-5.854348E-3	-9.360581E-3	-3.328949E-3	-5.901596E-3	-4.726866E-3	-1.409330E-2	-7.930881E-3	-2.762643E-3	-1.564741E-2	-1.583821E-2	-5.776028E-3	-7.920145E-3	-1.323615E-3	-9.948300E-3	-7.400678E-3	-1.111525E-2	-8.769856E-3	-2.663017E-3	-6.278916E-3	-1.705040E-2	-6.450236E-3	-2.121870E-4	-3.586110E-3	3.729165E-3	-3.724103E-3	1.980070E-3	-1.010246E-2	-4.551861E-3	-1.081770E-2	-1.088849E-2	-9.741494E-3	7.903844E-4	-3.475092E-3	-8.103276E-3	-1.182130E-3	-4.219542E-3	-4.820478E-3	-8.582440E-3	-8.701240E-3	-3.796704E-3	-4.703308E-3	-8.785489E-3	-9.902695E-3	-9.156185E-3	5.807388E-3	-1.439778E-2	-6.572903E-3	2.216777E-3	-1.588686E-4	-3.143399E-3	2.688251E-3	1.463388E-3	-1.073840E-2	-9.497009E-3	-7.581950E-3	-1.508484E-2	-2.598100E-3	-1.049153E-2	-5.325582E-3	-2.654282E-3	-1.025355E-3	-5.626023E-3	-9.824339E-3	7.050882E-3	-9.870078E-3	-1.063377E-2	-7.118555E-3	-5.771014E-3	-1.124141E-2	-8.068050E-3	-1.103956E-2	-1.018777E-2	-8.528453E-4	-9.778112E-3	2.605568E-3	-5.584689E-3	-1.083037E-2	-1.047576E-2	1.701758E-3
5.305080E+2	-7.004429E-3	-1.024841E-3	-1.193194E-3	-6.460833E-3	-5.241214E-3	-2.801882E-3	-7.311822E-3	1.921074E-3	8.933911E-4	-1.435139E-2	-8.166569E-3	3.857744E-3	-1.382763E-3	-5.755115E-3	-2.016904E-3	-1.075505E-2	-8.437908E-3	-7.524510E-3	-4.871513E-3	-5.700762E-4	2.107958E-3	-5.851710E-3	-2.193987E-3	-4.001814E-3	-3.990902E-3	-5.242228E-3	-2.358855E-5	7.427560E-4	-1.057715E-3	-8.163864E-3	-5.177177E-3	-5.615334E-3	-4.922200E-3	-6.979667E-3	7.483955E-4	-5.319239E-3	-8.800848E-3	-1.266852E-3	-2.890490E-3	-1.976419E-3	-2.539670E-3	-3.110474E-3	-8.102669E-3	4.604254E-3	-3.010274E-4	-7.006356E-3	-3.969168E-3	-5.782540E-3	-4.800464E-3	-7.027072E-3	-1.171288E-3	-1.052061E-2	-7.280402E-4	-6.130439E-3	4.681195E-3	-3.781690E-3	-5.994416E-3	1.147014E-3	9.004103E-4	-1.655882E-3	1.613945E-3	-8.671334E-3	-1.508853E-3	1.350546E-3	-9.976797E-4	-3.063298E-3	-3.205997E-3	-3.886910E-4	-3.993437E-3	-1.096891E-2	-4.616287E-3	1.994951E-3	-3.351660E-3	-9.468998E-3	-4.444861E-3	-2.107897E-5	-8.080170E-3	-5.417144E-3	1.901344E-3	-1.072485E-2	1.010459E-3	4.114803E-3	-1.032565E-2	-5.752276E-3	-3.700275E-3	-8.985555E-3	-6.816130E-3	-4.780213E-3	-3.170473E-3	2.665942E-3	7.307880E-4	-5.865259E-3	4.173301E-3	-7.687665E-3	3.112736E-3	-1.891040E-3	-5.221450E-3	-1.988421E-3	-5.511915E-3	6.518763E-3	-7.728158E-3	-8.472415E-3	2.156358E-3	6.097721E-4	-5.998309E-3	-6.203494E-3	-9.185857E-3	-6.702430E-3	-1.683315E-3	4.003249E-3	-1.569036E-2	-2.206536E-3	8.051632E-3	-9.235229E-4	-2.448432E-3	-1.276229E-2	-4.151681E-3	-1.290469E-2	-3.839006E-3	-6.463387E-3	-1.008705E-2	-6.969382E-3	-8.819601E-3	-7.045610E-3	-8.468619E-3	-2.481315E-3	-2.085285E-3	-3.433466E-3	-2.055561E-4	-1.081884E-2	-1.561884E-3	-6.570685E-3	-1.411090E-3	1.528929E-3	-1.224148E-2	-5.082482E-3	-8.988311E-3	-7.433241E-3	-2.468550E-3	-3.658454E-3	-5.238704E-3	-5.224249E-3	-4.607452E-5	-4.187780E-3	-1.494141E-3	1.326366E-3	6.007235E-4	-3.108560E-3	2.232476E-3	-7.696619E-3	-4.194451E-3	3.996493E-3	-4.965376E-3	-1.366522E-2	-7.923431E-3	-1.547934E-3	-1.847119E-3	-2.471177E-3	7.281460E-4	-1.642457E-3	-1.194022E-2	-3.946699E-3	-1.593182E-2	-3.489584E-3	-3.745724E-3	-6.572472E-3	-1.491735E-2	-4.432180E-3	3.826430E-3	7.408463E-3	-6.198946E-3	-2.179525E-2
5.310350E+2	2.385404E-3	-3.470248E-3	-8.713697E-3	-7.727225E-3	2.528774E-3	-2.678238E-3	3.864515E-3	4.567048E-3	-9.712160E-3	-2.504918E-3	-6.274387E-3	-7.173616E-3	-2.644995E-3	-1.008484E-2	4.901262E-4	1.110321E-3	5.150375E-3	-5.288456E-3	5.474264E-3	-8.294749E-3	-3.296325E-3	5.626116E-3	-5.008655E-3	-3.395072E-3	-1.433089E-3	4.355051E-3	-2.859259E-3	-2.887631E-3	-1.350187E-3	-5.344337E-3	-2.181146E-3	-3.342860E-3	-1.044900E-2	8.485809E-4	-2.950758E-3	2.389744E-4	-6.490380E-3	-4.076304E-3	-9.252614E-3	-1.368373E-3	-5.981443E-5	-8.354865E-3	-1.096505E-2	-9.944389E-3	2.152854E-3	1.298205E-3	-7.804410E-5	-5.667618E-3	-1.193353E-3	-2.754000E-3	-5.184547E-3	-9.248399E-3	-4.614757E-3	-3.044054E-3	-5.467511E-3	-3.668817E-3	5.003919E-4	-7.878919E-3	-4.443319E-3	-8.039279E-3	-3.512400E-3	-2.164159E-3	-7.669652E-3	-6.535252E-3	-6.221892E-3	-7.179155E-3	-1.178928E-2	-6.403883E-3	-4.802187E-3	4.484442E-3	-1.021645E-2	-9.326736E-3	5.032300E-3	2.021318E-3	-6.810326E-3	-4.889497E-4	2.782790E-3	-8.241650E-3	-9.797063E-3	-3.836229E-3	-7.198282E-3	1.814259E-3	-2.374487E-3	-1.646555E-3	-4.009597E-3	8.671960E-4	-5.145520E-3	-4.659638E-3	1.738796E-3	-3.854511E-3	-8.211874E-3	-5.756154E-3	-5.125367E-3	-4.643698E-3	-1.517126E-3	-3.994430E-3	-5.689336E-3	-8.597013E-3	-8.657394E-3	3.247437E-4	-1.040153E-2	5.364821E-3	-6.083714E-3	-4.092180E-3	1.216171E-3	-6.705024E-3	1.864171E-3	1.834021E-3	-7.992163E-5	2.628701E-4	-5.504286E-4	-1.001866E-2	-4.655000E-3	-1.450898E-3	-6.059486E-3	3.512097E-4	1.364483E-3	-3.381090E-3	-1.652753E-3	-8.356804E-3	-4.839865E-3	-4.025156E-4	1.306350E-3	-6.946666E-3	-1.028694E-3	-4.333478E-3	5.025893E-4	-3.793660E-3	-2.297915E-3	-6.522306E-4	-4.819062E-3	-2.424655E-3	-7.127359E-3	-1.500161E-2	1.039997E-2	-1.228157E-2	-3.770894E-3	-9.474388E-3	-5.266370E-3	3.229449E-3	-6.141650E-3	-1.036858E-3	-6.769239E-3	-3.609626E-3	-2.618200E-3	-2.423755E-3	-1.311001E-2	-6.815170E-3	-9.268102E-3	-1.844521E-3	-2.811512E-3	-4.601051E-3	-9.071122E-3	-8.720083E-3	-5.924533E-3	-8.022075E-4	-2.669084E-3	2.181372E-3	-1.950371E-3	-7.284271E-3	-2.654211E-3	4.082486E-4	2.262869E-3	-3.308618E-3	-3.057471E-3	-2.540703E-3	2.246965E-3	-1.089903E-2	-9.080135E-3	4.839884E-3	4.559126E-3	7.861874E-3
5.315180E+2	-4.079667E-3	2.371481E-3	3.111864E-3	6.037273E-3	-7.528219E-4	-2.581535E-3	4.537507E-3	-1.342306E-3	-7.859977E-3	5.457521E-3	3.659612E-3	2.761224E-3	9.496355E-3	5.150702E-3	-2.194161E-4	2.051106E-3	1.208593E-2	6.671413E-3	-7.879763E-3	-2.783201E-3	-1.832731E-3	5.425874E-3	-3.913771E-3	-2.314739E-3	-1.921174E-3	-2.606788E-3	-3.656594E-4	-9.150006E-4	-1.670291E-3	7.897681E-3	8.250142E-4	1.567339E-3	1.689538E-2	-3.481636E-3	4.817087E-3	-3.320852E-3	3.279857E-3	-5.230389E-3	-1.537243E-4	5.476211E-3	2.417683E-3	5.126596E-3	1.610855E-3	3.465207E-4	-2.764951E-3	-3.420075E-3	4.873828E-3	-1.933935E-4	-7.398970E-3	-8.671411E-4	-6.833799E-3	2.573773E-3	3.546448E-3	-8.077354E-4	-1.929996E-3	2.058580E-3	-6.361880E-3	4.271068E-3	-4.784600E-3	5.297371E-3	1.398701E-3	3.444284E-3	-3.955925E-3	7.097642E-4	1.295013E-2	2.162910E-3	2.721938E-4	4.336545E-3	-1.909062E-3	-1.615228E-3	3.409009E-3	-3.012337E-3	-3.796283E-3	9.543668E-3	6.567122E-3	-3.228323E-3	5.660845E-4	-3.743516E-3	5.349039E-3	6.046553E-3	-4.733875E-3	-7.428271E-3	5.601302E-3	-2.612434E-3	-4.770887E-3	1.887219E-3	6.490731E-3	-3.607836E-3	-2.375544E-3	-2.436910E-3	5.483706E-3	-4.351797E-3	4.454761E-3	1.334169E-3	-7.623466E-3	-1.669040E-3	-5.011951E-3	-1.773855E-3	-5.307725E-3	-7.066165E-3	6.022024E-3	2.390940E-3	8.326843E-4	-1.576119E-3	5.477553E-3	-1.088956E-2	-4.783539E-4	7.345686E-4	-4.631177E-4	-5.460497E-3	2.778218E-3	6.006281E-3	1.137616E-2	8.085237E-3	-7.832372E-3	7.904390E-3	5.915241E-4	-5.594097E-4	-4.705040E-3	4.799024E-3	7.901478E-3	-1.406018E-3	1.019487E-2	3.461132E-4	2.768976E-3	-4.242441E-3	-3.341032E-3	-3.693466E-3	-1.629068E-3	3.275135E-3	-2.680715E-3	-3.691081E-3	1.096702E-3	-1.015470E-4	-1.526384E-2	3.709885E-4	-4.942427E-3	3.165267E-3	6.652000E-3	5.034102E-3	5.535313E-4	4.428140E-3	7.138145E-4	-1.056428E-2	2.425874E-3	3.192817E-3	5.643318E-3	-2.347812E-3	-6.368958E-3	2.626336E-3	7.071512E-3	-3.999771E-3	6.260687E-3	1.279846E-2	3.311472E-3	-4.509277E-3	-3.046871E-3	-3.566346E-3	-3.262287E-3	7.269787E-3	3.188934E-3	7.656880E-3	2.992785E-3	8.108114E-4	1.076782E-3	2.831050E-3	1.914087E-3	-4.631416E-3	4.201591E-3	-3.099667E-3	4.894701E-4	-3.889247E-3
5.320120E+2	7.011269E-3	3.140849E-3	-3.747517E-3	-4.803743E-3	5.362771E-3	3.379211E-3	2.002904E-4	-4.892794E-3	3.537774E-3	2.208927E-3	3.763101E-3	2.873287E-3	2.260519E-3	5.730177E-3	3.803311E-3	3.020943E-3	1.009700E-3	3.550788E-3	8.320925E-3	5.806028E-3	1.245015E-4	-2.872876E-3	1.200591E-2	1.724606E-3	9.582407E-3	6.989315E-3	-1.380042E-3	7.354168E-3	2.668639E-4	-1.944315E-3	1.986663E-5	7.381387E-3	1.146644E-3	4.949749E-3	4.328485E-3	7.762676E-3	7.370218E-3	1.251470E-3	1.056014E-2	2.735887E-3	4.321330E-3	2.024002E-3	1.179317E-4	-3.381661E-3	1.045701E-3	1.065278E-3	3.185135E-3	6.230127E-3	3.825573E-3	9.420032E-3	3.536986E-3	1.035346E-2	4.140237E-3	-2.556305E-4	-2.775777E-3	2.663920E-3	1.908168E-3	8.431621E-3	4.362336E-3	1.459023E-5	-4.700765E-3	4.508541E-3	5.244180E-3	2.188027E-3	3.551696E-3	8.262875E-3	7.924404E-3	-4.877883E-3	1.079415E-2	3.109708E-3	7.726133E-3	1.726522E-2	3.346539E-3	5.094659E-3	4.820164E-3	-1.599147E-4	2.600139E-3	1.751318E-2	3.665851E-3	-1.874619E-3	1.335623E-3	1.112882E-3	-6.780386E-3	7.310775E-3	5.001246E-3	3.824747E-3	3.471108E-3	1.642811E-2	4.367815E-3	8.670049E-3	7.888968E-3	-2.413133E-3	-5.895550E-3	4.908644E-3	2.559571E-3	5.597158E-3	1.667566E-2	3.250441E-3	1.113703E-2	4.014381E-3	4.780134E-3	7.881052E-3	7.807644E-3	-1.939591E-3	4.433669E-3	6.351187E-3	8.194139E-3	2.064382E-3	2.634401E-3	6.373826E-3	3.848718E-3	-2.717433E-3	4.607149E-4	1.895559E-3	9.139608E-3	2.424783E-3	-2.419536E-3	2.297296E-3	-4.131000E-4	8.972061E-3	2.274576E-3	1.416536E-2	2.777364E-3	1.293497E-2	2.902593E-3	1.065410E-2	4.208171E-3	-7.133276E-4	1.780237E-4	2.877843E-3	9.097404E-3	1.062372E-2	7.823110E-4	3.192623E-3	1.561822E-2	6.794280E-3	9.195595E-3	-3.003739E-4	-3.402388E-4	-5.602985E-3	5.259899E-3	1.932118E-4	5.784761E-3	1.896857E-4	-4.914725E-3	-2.208444E-3	8.447603E-3	9.304240E-3	1.298249E-2	1.323264E-3	5.144537E-3	8.322339E-3	6.987790E-3	1.047316E-2	2.201553E-3	-1.876465E-3	-7.728136E-3	-2.889245E-3	1.101997E-3	-6.532217E-4	1.018973E-3	7.946303E-4	1.489958E-2	2.654862E-3	3.685132E-3	-5.021035E-4	6.221716E-3	-1.164458E-3	8.006791E-3	3.408875E-3	1.315655E-2	-9.766027E-3
5.325120E+2	8.789750E-3	6.463781E-3	1.314840E-2	1.541243E-2	8.962792E-3	6.703659E-3	9.427663E-3	9.579104E-3	1.849323E-2	1.190643E-2	6.989604E-3	1.156199E-2	4.230563E-3	8.110971E-3	5.708728E-4	9.094080E-3	-6.729059E-5	1.342557E-2	4.573313E-3	4.120829E-3	1.181881E-2	7.824491E-3	1.019155E-2	8.714034E-3	3.106700E-3	1.188262E-2	1.004843E-2	9.991157E-3	1.218219E-2	6.836490E-3	1.419561E-2	2.738699E-3	2.989976E-3	9.538816E-3	4.485235E-3	4.240345E-3	6.221018E-3	9.469959E-3	9.219613E-3	9.158360E-3	3.236416E-3	6.991296E-3	6.236405E-3	1.276943E-2	5.800785E-3	7.029475E-3	4.286651E-3	9.090601E-3	1.100310E-2	5.982867E-3	1.094267E-2	5.798715E-3	3.838938E-3	8.018559E-3	9.229886E-3	1.034087E-2	1.547379E-2	4.888771E-4	1.415519E-2	5.579404E-3	1.084962E-2	1.802332E-2	1.132504E-2	7.270124E-3	1.308234E-3	3.001334E-3	2.002880E-2	1.522312E-2	9.086787E-3	4.932453E-3	7.391506E-3	8.307291E-3	6.029461E-3	4.060767E-3	4.424585E-3	6.972065E-3	1.171073E-2	9.305546E-3	7.974932E-3	1.449391E-2	1.223223E-2	5.235129E-3	1.906859E-2	5.692479E-3	1.086817E-2	7.551321E-3	9.433599E-3	9.959009E-3	5.698960E-3	2.743265E-3	5.324524E-3	1.289908E-2	7.762395E-3	1.194290E-2	1.282887E-2	5.286300E-3	5.148672E-3	1.383571E-2	2.243330E-2	4.139159E-3	1.009018E-2	8.483013E-3	1.112523E-2	1.277415E-2	2.791061E-3	1.877051E-2	9.554202E-3	9.470136E-3	1.070721E-2	3.590409E-3	1.227687E-2	1.521526E-2	1.816891E-3	-1.156139E-3	7.412869E-3	5.668015E-3	8.860449E-4	1.827199E-2	8.629829E-3	1.115157E-2	9.302725E-3	5.430253E-3	5.429508E-3	1.045269E-2	3.035360E-3	3.878223E-3	8.818833E-3	1.281605E-2	8.174057E-3	1.013857E-2	8.546697E-3	1.076394E-2	1.045614E-2	1.508491E-2	1.027262E-2	2.010147E-2	1.766222E-2	8.235348E-3	1.582094E-2	7.570790E-3	3.350148E-3	1.798624E-3	3.460137E-3	1.548375E-2	5.137805E-3	1.085141E-2	7.915373E-3	1.054925E-2	1.550693E-2	8.189640E-3	5.281445E-3	1.607572E-3	3.442303E-3	1.390404E-4	1.396096E-2	1.856022E-2	8.240328E-3	1.661548E-2	1.401629E-2	9.428717E-3	1.615753E-2	6.328353E-3	3.844642E-3	1.437209E-2	1.222905E-2	7.637073E-3	1.431269E-2	1.852151E-2	-1.369987E-3	-1.727187E-3	-1.530448E-3	2.588689E-2
5.330180E+2	1.828482E-2	2.524750E-2	1.376253E-2	9.438062E-3	1.524537E-2	1.691428E-2	2.020403E-2	2.962412E-2	1.237802E-2	2.633362E-2	1.883293E-2	1.317655E-2	1.270262E-2	1.727166E-2	1.161915E-2	1.357911E-2	1.323508E-2	1.471148E-2	1.521403E-2	9.176226E-3	1.022181E-2	1.601075E-2	1.914417E-2	2.523246E-2	1.890078E-2	2.038512E-2	1.645676E-2	1.331212E-2	2.373735E-2	2.160416E-2	2.232793E-2	3.206882E-2	1.397462E-2	2.251490E-2	2.134663E-2	1.663050E-2	1.342714E-2	1.388798E-2	2.600934E-2	1.124882E-2	2.074145E-2	2.169245E-2	2.676514E-2	2.578324E-2	2.309229E-2	1.691184E-2	1.298966E-2	1.784129E-2	2.525530E-2	1.875742E-2	4.416815E-3	1.718567E-2	1.752193E-2	2.192210E-2	1.234724E-2	1.899068E-2	1.504865E-2	4.654904E-3	-8.154463E-4	1.358823E-2	1.241725E-2	1.728385E-2	2.015479E-2	2.590485E-2	1.645271E-2	1.671000E-2	1.389006E-2	2.536640E-2	1.813921E-2	8.442746E-3	1.015957E-2	1.328931E-2	1.451096E-2	2.663807E-2	2.168077E-2	2.725501E-2	2.035421E-2	2.379861E-2	1.504149E-2	2.154488E-2	8.766163E-3	2.631344E-2	2.980204E-2	2.371950E-2	2.338752E-2	1.130230E-2	2.390693E-2	1.632951E-2	1.795101E-2	1.023919E-2	2.399407E-2	1.783120E-2	2.099590E-2	2.001201E-2	9.167819E-3	2.159909E-2	1.817914E-2	9.049044E-3	1.211216E-2	1.414256E-2	2.296559E-2	2.165117E-2	8.122936E-3	1.490222E-2	1.250708E-2	1.280164E-2	1.892770E-2	1.935613E-2	2.480387E-2	1.601999E-2	1.522652E-2	1.808751E-2	2.602156E-2	1.988770E-2	1.949289E-2	9.558467E-3	1.738421E-2	9.887183E-3	3.196421E-2	2.704169E-2	1.350884E-2	2.695239E-2	2.454306E-2	1.854059E-2	1.268149E-2	1.988111E-2	2.592328E-2	2.307657E-2	1.903614E-2	3.062278E-2	2.110696E-2	2.043665E-2	1.519328E-2	1.302858E-2	1.210232E-2	1.606543E-2	1.465168E-2	1.561931E-2	1.956232E-2	7.152196E-3	2.707152E-2	1.420716E-2	8.071376E-3	1.318450E-2	1.585645E-2	7.919122E-3	1.476759E-2	1.751741E-2	1.285348E-2	1.896388E-2	1.944491E-2	1.407701E-2	2.384196E-2	2.679124E-2	1.779613E-2	2.193106E-2	1.707262E-2	1.830191E-2	2.749216E-2	1.284219E-2	2.097766E-2	1.082161E-2	1.395157E-2	1.924618E-2	2.083326E-2	1.137157E-2	2.883978E-2	1.255500E-2	2.612604E-2	2.571167E-2	1.338017E-2	4.399311E-2
5.331630E+2	3.059252E-2	2.927829E-2	2.563348E-2	2.927370E-2	1.887499E-2	2.799553E-2	2.723119E-2	2.992466E-2	1.820593E-2	2.199787E-2	1.372532E-2	1.403494E-2	1.932483E-2	1.923281E-2	2.090075E-2	2.438268E-2	2.332708E-2	1.868228E-2	7.616847E-3	2.420026E-2	2.342247E-2	2.394394E-2	2.378716E-2	2.130254E-2	2.451752E-2	2.303229E-2	1.640305E-2	2.496599E-2	1.981373E-2	1.538477E-2	2.124495E-2	2.093845E-2	2.616208E-2	2.269383E-2	1.244220E-2	2.071003E-2	2.643768E-2	2.137216E-2	1.967549E-2	2.063832E-2	3.241058E-2	3.171854E-2	3.599733E-2	2.558561E-2	2.143160E-2	1.857499E-2	1.867544E-2	3.032522E-2	1.423690E-2	4.467928E-3	3.044899E-2	1.801410E-2	1.907040E-2	2.687654E-2	1.701474E-2	2.740106E-2	2.697450E-2	2.396174E-2	3.512315E-2	1.492611E-2	2.275371E-2	2.395346E-2	2.266970E-2	3.427339E-2	1.963636E-2	1.362871E-2	2.127964E-2	1.930785E-2	2.537692E-2	2.839946E-2	2.502178E-2	1.980401E-2	2.110450E-2	2.624216E-2	1.758447E-2	1.614356E-2	1.486857E-2	3.141945E-2	1.931680E-2	1.446090E-2	1.492073E-2	2.253719E-2	2.003625E-2	3.081909E-2	3.288374E-2	1.687290E-2	2.992378E-2	2.368474E-2	2.964912E-2	1.647535E-2	2.128579E-2	2.720173E-2	2.422271E-2	1.871865E-2	3.208681E-2	3.216036E-2	3.362591E-2	2.774147E-2	1.687493E-2	2.303335E-2	2.883443E-2	2.004984E-2	1.145897E-2	2.486089E-2	2.405177E-2	1.975305E-2	1.970924E-2	2.014683E-2	2.850657E-2	2.506821E-2	2.466199E-2	1.917594E-2	3.486452E-2	3.339064E-2	2.091648E-2	3.291900E-2	3.168765E-2	1.689314E-2	2.476151E-2	2.978920E-2	2.353208E-2	3.075385E-2	1.585788E-2	2.665734E-2	2.716206E-2	2.702514E-2	2.312331E-2	1.412093E-2	2.936881E-2	1.928860E-2	1.711714E-2	1.513642E-2	1.445998E-2	2.094230E-2	1.614192E-2	1.677094E-2	1.803949E-2	3.089117E-2	1.615201E-2	2.615409E-2	3.087356E-2	2.078612E-2	2.016806E-2	2.910385E-2	2.537769E-2	3.716982E-2	1.424981E-2	2.830350E-2	2.012534E-2	1.287340E-2	1.338641E-2	2.659116E-2	2.217161E-2	2.697494E-2	2.103761E-2	1.061867E-2	2.595811E-2	3.895843E-2	4.198407E-2	2.680291E-2	1.884376E-2	1.369369E-2	1.909499E-2	1.372667E-2	2.002830E-2	2.585562E-2	2.903818E-2	4.820543E-2	6.410867E-3	2.850000E-2	5.075388E-3	5.011096E-2
5.333080E+2	2.633163E-2	4.622787E-2	3.048429E-2	2.349668E-2	2.751694E-2	2.549409E-2	2.929660E-2	2.372355E-2	3.274026E-2	2.727958E-2	3.238546E-2	3.149811E-2	2.926700E-2	3.477104E-2	2.680058E-2	3.224253E-2	1.712372E-2	3.030836E-2	2.711326E-2	3.787423E-2	2.447013E-2	2.587614E-2	3.003300E-2	3.642566E-2	3.373430E-2	2.920066E-2	2.508604E-2	2.449101E-2	3.326242E-2	3.439818E-2	2.576835E-2	1.986188E-2	3.268681E-2	3.520656E-2	2.463629E-2	3.511172E-2	2.754261E-2	3.573337E-2	2.911661E-2	2.872202E-2	4.347261E-2	3.028895E-2	2.680480E-2	3.421945E-2	3.187352E-2	2.170230E-2	2.756335E-2	3.737944E-2	4.157785E-2	3.180936E-2	3.026168E-2	2.776818E-2	4.106288E-2	4.007250E-2	3.388371E-2	3.784045E-2	3.132143E-2	3.234421E-2	1.936008E-2	3.029129E-2	3.170152E-2	3.717822E-2	2.828585E-2	2.907458E-2	3.429898E-2	1.434435E-2	2.381248E-2	2.076406E-2	1.945763E-2	3.792647E-2	3.461686E-2	2.168782E-2	3.230088E-2	3.516559E-2	2.092955E-2	2.887047E-2	2.311031E-2	3.512032E-2	2.158513E-2	2.716099E-2	4.099709E-2	2.224394E-2	3.579279E-2	2.989086E-2	2.471358E-2	2.926370E-2	3.271509E-2	3.341205E-2	2.808327E-2	2.955303E-2	2.926803E-2	3.735024E-2	1.532475E-2	3.330871E-2	2.925534E-2	3.963502E-2	2.146424E-2	2.794038E-2	2.420186E-2	3.031274E-2	2.198143E-2	2.432813E-2	3.542444E-2	3.410236E-2	3.148777E-2	2.677511E-2	2.961400E-2	2.648313E-2	2.620498E-2	3.712003E-2	3.145001E-2	3.061400E-2	2.515528E-2	2.466651E-2	2.963572E-2	2.503901E-2	2.098701E-2	2.533176E-2	3.575769E-2	3.022948E-2	3.016626E-2	3.091102E-2	2.713236E-2	2.763204E-2	3.322209E-2	2.822397E-2	4.140747E-2	2.640426E-2	2.167331E-2	2.391143E-2	3.456058E-2	3.306828E-2	3.251611E-2	3.437745E-2	2.187158E-2	3.075027E-2	1.628243E-2	2.080378E-2	2.768275E-2	1.947902E-2	3.674831E-2	2.050657E-2	2.784935E-2	2.440036E-2	2.317064E-2	4.296750E-2	2.115416E-2	2.459644E-2	1.987829E-2	3.340721E-2	3.077436E-2	3.322645E-2	2.296046E-2	4.266320E-2	3.294316E-2	2.102198E-2	2.859057E-2	3.018749E-2	2.839097E-2	1.739010E-2	2.194096E-2	2.094620E-2	3.931394E-2	3.906386E-2	3.017609E-2	2.607804E-2	3.353272E-2	2.253897E-2	3.119047E-2	3.655695E-2	2.645714E-2	4.438850E-2
5.334580E+2	3.423753E-2	3.984638E-2	4.211793E-2	4.602028E-2	3.780442E-2	4.078141E-2	4.220088E-2	4.825778E-2	3.922599E-2	4.681925E-2	4.324248E-2	3.902239E-2	3.417811E-2	4.041039E-2	3.552316E-2	3.416512E-2	4.102416E-2	4.627956E-2	2.956974E-2	3.807525E-2	4.145832E-2	4.113062E-2	4.280433E-2	4.513297E-2	3.819514E-2	4.140022E-2	4.007980E-2	4.181478E-2	4.122803E-2	3.968827E-2	3.561140E-2	4.298944E-2	5.600392E-2	4.889605E-2	3.974233E-2	3.840472E-2	3.353065E-2	3.941852E-2	4.303011E-2	4.024490E-2	5.155235E-2	3.972989E-2	3.650574E-2	3.700164E-2	3.348723E-2	4.154722E-2	4.180809E-2	4.445881E-2	3.765229E-2	3.321273E-2	4.280938E-2	4.288152E-2	3.219745E-2	4.205117E-2	4.735148E-2	4.476853E-2	3.033854E-2	2.261966E-2	3.748637E-2	1.839918E-2	4.996046E-2	4.440264E-2	5.073776E-2	4.111016E-2	2.966930E-2	2.217489E-2	3.266396E-2	3.546457E-2	4.326087E-2	3.860003E-2	3.580004E-2	3.994885E-2	3.961329E-2	3.593651E-2	4.517712E-2	5.775508E-2	4.093200E-2	4.481003E-2	4.721173E-2	3.948971E-2	4.484030E-2	2.997641E-2	4.542608E-2	4.582265E-2	4.762076E-2	4.304873E-2	4.380558E-2	3.991893E-2	3.437469E-2	2.614527E-2	4.659187E-2	4.248646E-2	4.084743E-2	3.104586E-2	5.071601E-2	3.941407E-2	3.167585E-2	3.309697E-2	3.100255E-2	3.819429E-2	4.402551E-2	3.674873E-2	4.130395E-2	3.992122E-2	4.377642E-2	2.576347E-2	4.734075E-2	3.714589E-2	3.342639E-2	4.627304E-2	3.506996E-2	3.805372E-2	4.275230E-2	4.528450E-2	4.520069E-2	5.011132E-2	3.679222E-2	3.657527E-2	4.994996E-2	3.299633E-2	3.162275E-2	3.409969E-2	4.387744E-2	4.550249E-2	4.998532E-2	3.845708E-2	3.038063E-2	4.024711E-2	4.740009E-2	3.630756E-2	4.599005E-2	4.247110E-2	3.691865E-2	2.552296E-2	2.988812E-2	4.606851E-2	2.302679E-2	3.812788E-2	3.683073E-2	3.429651E-2	3.336052E-2	4.448370E-2	3.563919E-2	3.959872E-2	2.780459E-2	4.074423E-2	3.767054E-2	3.435269E-2	4.059072E-2	4.048066E-2	3.048438E-2	4.405596E-2	3.493880E-2	3.981597E-2	2.873690E-2	5.917520E-2	3.901699E-2	3.443252E-2	4.924108E-2	4.051900E-2	2.623923E-2	3.262886E-2	3.277198E-2	3.936359E-2	3.439028E-2	3.486035E-2	3.143594E-2	4.371213E-2	3.620478E-2	4.069772E-2	2.401234E-2	9.886246E-2
5.336080E+2	3.777084E-2	5.752408E-2	3.658876E-2	3.512333E-2	4.762062E-2	5.061925E-2	5.515644E-2	5.445128E-2	4.575776E-2	6.595392E-2	5.648926E-2	6.197581E-2	6.493457E-2	5.381268E-2	4.049336E-2	6.703032E-2	5.998130E-2	5.305593E-2	4.147609E-2	4.443084E-2	5.620038E-2	4.835866E-2	5.606914E-2	6.140296E-2	6.218589E-2	5.004616E-2	5.801047E-2	3.501094E-2	6.308610E-2	4.500407E-2	5.758656E-2	5.604412E-2	5.684124E-2	4.968364E-2	4.354574E-2	6.219946E-2	4.935238E-2	4.830651E-2	4.330737E-2	4.640194E-2	5.905903E-2	4.266240E-2	5.070876E-2	4.827241E-2	5.713129E-2	4.671103E-2	5.191162E-2	5.706499E-2	4.321558E-2	6.742257E-2	4.067056E-2	5.148154E-2	4.155359E-2	4.752362E-2	4.939811E-2	5.269459E-2	4.828140E-2	5.319952E-2	3.995227E-2	5.471696E-2	6.046673E-2	4.745457E-2	4.373919E-2	5.047336E-2	5.351688E-2	4.437079E-2	5.460424E-2	4.578339E-2	5.204155E-2	5.415366E-2	4.895762E-2	5.488172E-2	5.343247E-2	5.473886E-2	4.786296E-2	6.105117E-2	4.405552E-2	5.004643E-2	5.349560E-2	5.579495E-2	4.262681E-2	4.480426E-2	4.375789E-2	7.180893E-2	5.146797E-2	4.422746E-2	6.253534E-2	5.372432E-2	5.171199E-2	4.680927E-2	5.291952E-2	5.628907E-2	6.293931E-2	4.772769E-2	4.323493E-2	5.874385E-2	5.377779E-2	5.820739E-2	5.963898E-2	5.427443E-2	5.094844E-2	6.556375E-2	4.155845E-2	4.460671E-2	3.856623E-2	5.643028E-2	5.598663E-2	5.947914E-2	4.319807E-2	5.199612E-2	5.195769E-2	3.965344E-2	3.300139E-2	4.741238E-2	3.609493E-2	6.366888E-2	5.266318E-2	4.096518E-2	5.022617E-2	4.819366E-2	4.642090E-2	4.520593E-2	4.353859E-2	4.906626E-2	5.505394E-2	5.021771E-2	5.884262E-2	6.236485E-2	4.424220E-2	5.539483E-2	4.311396E-2	6.536978E-2	4.422054E-2	5.146222E-2	3.708913E-2	6.978835E-2	4.532382E-2	4.141729E-2	5.793212E-2	5.882532E-2	4.185644E-2	3.582613E-2	4.577669E-2	5.437574E-2	5.132854E-2	6.405312E-2	5.851977E-2	4.979204E-2	4.801917E-2	5.148090E-2	4.480746E-2	6.814956E-2	5.693531E-2	5.632111E-2	4.896641E-2	5.895097E-2	3.925073E-2	4.728681E-2	4.676682E-2	4.408924E-2	3.638464E-2	5.092502E-2	4.662648E-2	4.935144E-2	5.121805E-2	3.606178E-2	4.052789E-2	6.221034E-2	7.093532E-2	5.821863E-2	6.663176E-2	5.148142E-2
5.337580E+2	6.986376E-2	6.773610E-2	7.137995E-2	5.767683E-2	5.941112E-2	6.339014E-2	5.767865E-2	6.950999E-2	5.355446E-2	7.323026E-2	5.796049E-2	5.576012E-2	6.462093E-2	5.870773E-2	6.519148E-2	7.139213E-2	6.034722E-2	6.444420E-2	5.664532E-2	5.585882E-2	6.411066E-2	8.019171E-2	6.339968E-2	7.338755E-2	6.294821E-2	6.060504E-2	4.857350E-2	7.572739E-2	7.449550E-2	6.664902E-2	5.842564E-2	7.778534E-2	5.769438E-2	5.562349E-2	5.103953E-2	5.942094E-2	5.774675E-2	6.641002E-2	4.493717E-2	6.554901E-2	8.067580E-2	8.401815E-2	6.108285E-2	7.605498E-2	6.736766E-2	7.867798E-2	6.685451E-2	5.881719E-2	7.867678E-2	5.863725E-2	6.756367E-2	6.799366E-2	7.349748E-2	7.145948E-2	5.597148E-2	6.750144E-2	6.223684E-2	7.581399E-2	6.357796E-2	5.681831E-2	5.986755E-2	5.529614E-2	6.097045E-2	6.409151E-2	4.897124E-2	5.678713E-2	6.052052E-2	5.304867E-2	6.427975E-2	7.501494E-2	7.476641E-2	6.458132E-2	6.545790E-2	6.264288E-2	6.678906E-2	6.376621E-2	6.069506E-2	7.043345E-2	7.293176E-2	6.707426E-2	6.478659E-2	7.293814E-2	6.616478E-2	7.984527E-2	5.452869E-2	7.597690E-2	5.770146E-2	5.894908E-2	7.228579E-2	6.758210E-2	6.935561E-2	8.078273E-2	5.823299E-2	6.559065E-2	6.591352E-2	6.505219E-2	7.311005E-2	6.978274E-2	5.682631E-2	8.408574E-2	7.759407E-2	5.688152E-2	7.031473E-2	7.824624E-2	5.763023E-2	6.737271E-2	5.570277E-2	5.796927E-2	7.076499E-2	6.831022E-2	6.394647E-2	6.038700E-2	7.267356E-2	8.111494E-2	7.157682E-2	6.656626E-2	6.919781E-2	6.205707E-2	7.230127E-2	6.772587E-2	7.075351E-2	5.638800E-2	5.589002E-2	5.541410E-2	6.452974E-2	7.270233E-2	7.878076E-2	6.813068E-2	6.283000E-2	6.023243E-2	8.081466E-2	4.502367E-2	6.760556E-2	6.111242E-2	7.030435E-2	7.237813E-2	6.856057E-2	6.556008E-2	5.609969E-2	5.628678E-2	6.087766E-2	7.249012E-2	7.407858E-2	6.160849E-2	7.443571E-2	4.189673E-2	6.345993E-2	6.644806E-2	6.229354E-2	6.164343E-2	6.189394E-2	7.406942E-2	6.348184E-2	6.477526E-2	7.299242E-2	6.898981E-2	7.039723E-2	7.746012E-2	6.614798E-2	6.194519E-2	5.664379E-2	6.007126E-2	6.090150E-2	6.687262E-2	6.259905E-2	6.492390E-2	5.411134E-2	7.005036E-2	4.639008E-2	6.648390E-2	9.831860E-2	9.425478E-2
5.339340E+2	9.247680E-2	9.671750E-2	9.215277E-2	7.160763E-2	1.098997E-1	9.414669E-2	9.706309E-2	9.600737E-2	9.424851E-2	8.498601E-2	9.844222E-2	8.631054E-2	8.370102E-2	9.507695E-2	9.274754E-2	9.851404E-2	9.265121E-2	1.021905E-1	9.065337E-2	7.907271E-2	1.115193E-1	9.043353E-2	9.339336E-2	1.024471E-1	8.751856E-2	9.233637E-2	8.670513E-2	1.152462E-1	1.039656E-1	8.416138E-2	8.789425E-2	9.685956E-2	8.346267E-2	1.068897E-1	9.459663E-2	1.040480E-1	8.316436E-2	1.045387E-1	9.743239E-2	1.161368E-1	1.053750E-1	9.476043E-2	8.941085E-2	9.555931E-2	8.370957E-2	1.033077E-1	8.559231E-2	9.554181E-2	1.052459E-1	7.844705E-2	1.040234E-1	1.007814E-1	8.992844E-2	9.458394E-2	9.946028E-2	1.157825E-1	8.274523E-2	8.138975E-2	9.720661E-2	8.502719E-2	1.004385E-1	8.945697E-2	9.975205E-2	8.648070E-2	7.846906E-2	9.626504E-2	1.057554E-1	8.896338E-2	9.413256E-2	9.547504E-2	9.580615E-2	9.349926E-2	9.572505E-2	8.921727E-2	9.505931E-2	8.409633E-2	1.028278E-1	8.784171E-2	1.021982E-1	9.057118E-2	1.125617E-1	9.202265E-2	1.088654E-1	8.662389E-2	9.391601E-2	9.595810E-2	1.009108E-1	8.946894E-2	1.045789E-1	9.277409E-2	9.030951E-2	9.662539E-2	8.869927E-2	9.050866E-2	1.032629E-1	8.777114E-2	9.006933E-2	9.134782E-2	1.072791E-1	9.503809E-2	9.806163E-2	8.548726E-2	9.334870E-2	9.104064E-2	8.581643E-2	1.014388E-1	1.073529E-1	9.902662E-2	9.940755E-2	9.261050E-2	9.683994E-2	1.057125E-1	1.030564E-1	1.013597E-1	8.012126E-2	9.619575E-2	8.480174E-2	8.780066E-2	8.597001E-2	9.506915E-2	8.335817E-2	9.602380E-2	8.372832E-2	1.054853E-1	9.922170E-2	1.113568E-1	8.892544E-2	1.007368E-1	9.285597E-2	7.837851E-2	9.728009E-2	8.432020E-2	1.136153E-1	9.517021E-2	1.174852E-1	9.731276E-2	8.189050E-2	9.708106E-2	9.957526E-2	9.604600E-2	1.012712E-1	8.978707E-2	9.013278E-2	9.569224E-2	8.232195E-2	8.414785E-2	8.603124E-2	7.858926E-2	1.164590E-1	1.036733E-1	1.050633E-1	9.953914E-2	9.743360E-2	1.076831E-1	9.466303E-2	1.061990E-1	1.099419E-1	1.046378E-1	8.695322E-2	9.615009E-2	9.511708E-2	8.898223E-2	9.672441E-2	1.063575E-1	9.575793E-2	1.038825E-1	9.906543E-2	1.105686E-1	8.969060E-2	1.302877E-1	8.887291E-2	1.247496E-1
5.340640E+2	1.539365E-1	1.422862E-1	1.410356E-1	1.168425E-1	1.288139E-1	1.284731E-1	1.346407E-1	1.217277E-1	1.293025E-1	1.583178E-1	1.400403E-1	1.297620E-1	1.401923E-1	1.209129E-1	1.428688E-1	1.242422E-1	1.395365E-1	1.354381E-1	1.301657E-1	1.245550E-1	1.618718E-1	1.312359E-1	1.280595E-1	1.508064E-1	1.241860E-1	1.166446E-1	1.234913E-1	1.222477E-1	1.224217E-1	1.349127E-1	1.370847E-1	1.278199E-1	1.356829E-1	1.346219E-1	1.372764E-1	1.508011E-1	1.460215E-1	1.495430E-1	1.217827E-1	1.301231E-1	1.418966E-1	1.387042E-1	1.415982E-1	1.459820E-1	1.290550E-1	1.375776E-1	1.148471E-1	1.542419E-1	1.302466E-1	1.395053E-1	1.294995E-1	1.290455E-1	1.476551E-1	1.368858E-1	1.491353E-1	1.416020E-1	1.380126E-1	1.248581E-1	1.241297E-1	1.244322E-1	1.507243E-1	1.314520E-1	1.374841E-1	1.302766E-1	1.436997E-1	1.327865E-1	1.388387E-1	1.416832E-1	1.353255E-1	1.453815E-1	1.291540E-1	1.375998E-1	1.478322E-1	1.653338E-1	1.397842E-1	1.359938E-1	1.317804E-1	1.564305E-1	1.359856E-1	1.380361E-1	1.289807E-1	1.133873E-1	1.245984E-1	1.511915E-1	1.327999E-1	1.450345E-1	1.416124E-1	1.331254E-1	1.421043E-1	1.310846E-1	1.302536E-1	1.160705E-1	1.430506E-1	1.438977E-1	1.419475E-1	1.485813E-1	1.460450E-1	1.508140E-1	1.294316E-1	1.471249E-1	1.120417E-1	1.253759E-1	1.384532E-1	1.345426E-1	1.294832E-1	1.508564E-1	1.345419E-1	1.336160E-1	1.446331E-1	1.362716E-1	1.277719E-1	1.236432E-1	1.268220E-1	1.211895E-1	1.259740E-1	1.305606E-1	1.247601E-1	1.328465E-1	1.270643E-1	1.425393E-1	1.391955E-1	1.702907E-1	1.395512E-1	1.485493E-1	1.294324E-1	1.382629E-1	1.366560E-1	1.371409E-1	1.306882E-1	1.180247E-1	1.288663E-1	1.474588E-1	1.362301E-1	1.193999E-1	1.344416E-1	1.309703E-1	1.569742E-1	1.234129E-1	1.340234E-1	1.525205E-1	1.509581E-1	1.384031E-1	1.281565E-1	1.452654E-1	1.407543E-1	1.494046E-1	1.522632E-1	1.345228E-1	1.570079E-1	1.165466E-1	1.313763E-1	1.394479E-1	1.428191E-1	1.427303E-1	1.547442E-1	1.313829E-1	1.273346E-1	1.535010E-1	1.334018E-1	1.329478E-1	1.493246E-1	1.198592E-1	1.498563E-1	1.176044E-1	1.587330E-1	1.477296E-1	1.218739E-1	1.342184E-1	1.546019E-1	1.746835E-1	1.424460E-1	1.985107E-1
5.342090E+2	2.089100E-1	2.213763E-1	2.267962E-1	2.090875E-1	2.198559E-1	2.189432E-1	2.143943E-1	2.594382E-1	2.468206E-1	2.359991E-1	2.152781E-1	2.438540E-1	2.209787E-1	2.404554E-1	2.135618E-1	2.292050E-1	1.949250E-1	2.113715E-1	2.301774E-1	2.268214E-1	2.390388E-1	2.199084E-1	2.161068E-1	2.295339E-1	2.260419E-1	2.204948E-1	2.203407E-1	2.073917E-1	2.473220E-1	2.214531E-1	2.105784E-1	2.164854E-1	2.162879E-1	2.279555E-1	2.266799E-1	2.105261E-1	2.415547E-1	2.254189E-1	2.210679E-1	2.220047E-1	2.327115E-1	2.146219E-1	2.078054E-1	2.301438E-1	2.398609E-1	2.193358E-1	2.211984E-1	2.303637E-1	2.228239E-1	2.265872E-1	2.260202E-1	2.339066E-1	2.294397E-1	2.199899E-1	2.179171E-1	2.170753E-1	1.965637E-1	2.104136E-1	1.986238E-1	2.218601E-1	2.444975E-1	2.308659E-1	2.541351E-1	2.136076E-1	2.411975E-1	1.955079E-1	2.311061E-1	2.201766E-1	2.136581E-1	2.329781E-1	2.280368E-1	2.264310E-1	2.440350E-1	2.182048E-1	2.202633E-1	2.113321E-1	2.314904E-1	2.283144E-1	2.149176E-1	2.216837E-1	2.183492E-1	2.158775E-1	2.148537E-1	2.102324E-1	2.098458E-1	2.218663E-1	2.414882E-1	2.406196E-1	2.379032E-1	2.213818E-1	2.303874E-1	2.050775E-1	2.223329E-1	2.252888E-1	2.263418E-1	2.335279E-1	2.459552E-1	2.186739E-1	2.263687E-1	2.142285E-1	2.335383E-1	2.274246E-1	2.113992E-1	2.358568E-1	2.093100E-1	2.205497E-1	2.073890E-1	2.142796E-1	2.419518E-1	2.439219E-1	1.999603E-1	2.225589E-1	2.476687E-1	2.419717E-1	2.174519E-1	2.099086E-1	2.169556E-1	2.231032E-1	2.143573E-1	2.356140E-1	2.355111E-1	2.320423E-1	2.106135E-1	2.411835E-1	2.397670E-1	2.286656E-1	2.180835E-1	2.341783E-1	2.249712E-1	1.953274E-1	2.306265E-1	2.234560E-1	2.263615E-1	2.366707E-1	2.344304E-1	2.168664E-1	2.369109E-1	2.656363E-1	2.376681E-1	2.232079E-1	2.401438E-1	2.308899E-1	2.167133E-1	2.037040E-1	2.332436E-1	2.268411E-1	2.272592E-1	2.269795E-1	2.320720E-1	2.330797E-1	1.989645E-1	2.402159E-1	2.327987E-1	2.403280E-1	2.228033E-1	2.420049E-1	2.143013E-1	2.101348E-1	2.322907E-1	2.368639E-1	2.239496E-1	2.172512E-1	2.318182E-1	2.213261E-1	2.220422E-1	2.345419E-1	2.314787E-1	2.191981E-1	2.489587E-1	2.656976E-1	2.198143E-1	3.394675E-1
5.343600E+2	3.530832E-1	3.873812E-1	3.594664E-1	3.605008E-1	3.787623E-1	3.879108E-1	3.700369E-1	3.694607E-1	3.586416E-1	4.028896E-1	3.716237E-1	3.843273E-1	3.934266E-1	4.015885E-1	4.053915E-1	3.560765E-1	4.000185E-1	4.138169E-1	3.861517E-1	3.974214E-1	4.120725E-1	4.232439E-1	3.962930E-1	3.843133E-1	3.872929E-1	3.771933E-1	3.742273E-1	3.921029E-1	3.920735E-1	3.985608E-1	3.997732E-1	3.912518E-1	3.980014E-1	3.960071E-1	3.910383E-1	3.808995E-1	3.980984E-1	3.793557E-1	4.142157E-1	3.696936E-1	4.048769E-1	4.005885E-1	4.026122E-1	3.984390E-1	3.874525E-1	4.000724E-1	3.720430E-1	3.734283E-1	3.996702E-1	3.916305E-1	4.114860E-1	3.896720E-1	3.816770E-1	3.966480E-1	3.645777E-1	3.961247E-1	3.888179E-1	3.924768E-1	4.082995E-1	3.796476E-1	3.960727E-1	3.797732E-1	3.961499E-1	3.880250E-1	3.794846E-1	4.023604E-1	3.912620E-1	4.115966E-1	3.913217E-1	3.890170E-1	3.835758E-1	3.737753E-1	3.996241E-1	3.899220E-1	3.772212E-1	3.857101E-1	4.003497E-1	3.716118E-1	3.914368E-1	3.837171E-1	3.964004E-1	3.813381E-1	3.925183E-1	3.960743E-1	3.813993E-1	3.885882E-1	3.911146E-1	3.828345E-1	3.730304E-1	3.951266E-1	3.830229E-1	4.012752E-1	4.047318E-1	4.104272E-1	3.942137E-1	3.993223E-1	4.136484E-1	4.017800E-1	3.808827E-1	3.716963E-1	3.795621E-1	3.564079E-1	3.939535E-1	4.101760E-1	3.770577E-1	4.027981E-1	3.999619E-1	3.937261E-1	3.795856E-1	4.171547E-1	3.791295E-1	4.005407E-1	4.102089E-1	3.964557E-1	3.929472E-1	3.790819E-1	3.984535E-1	3.969003E-1	3.851607E-1	4.109262E-1	4.087925E-1	4.100638E-1	4.169367E-1	3.796572E-1	4.032542E-1	4.193692E-1	4.196339E-1	3.925070E-1	3.855281E-1	3.501065E-1	3.927917E-1	4.100679E-1	4.063959E-1	4.073116E-1	3.813199E-1	4.009276E-1	4.184495E-1	4.196049E-1	3.597104E-1	4.131690E-1	3.702985E-1	4.039934E-1	4.094784E-1	3.961075E-1	3.773046E-1	3.957063E-1	4.037374E-1	4.007296E-1	4.017169E-1	3.858532E-1	3.774185E-1	3.973263E-1	4.032219E-1	4.060429E-1	4.194662E-1	4.035181E-1	3.939169E-1	4.276251E-1	3.669000E-1	3.741073E-1	4.026408E-1	4.100789E-1	3.823328E-1	3.901946E-1	4.004865E-1	3.880715E-1	3.720884E-1	3.981879E-1	3.967136E-1	4.332725E-1	4.339806E-1	4.199743E-1
5.345050E+2	6.538312E-1	6.873519E-1	7.043857E-1	6.681034E-1	6.467825E-1	6.594399E-1	7.205808E-1	6.490456E-1	7.079112E-1	6.842197E-1	7.116473E-1	6.684226E-1	6.949269E-1	6.706177E-1	7.176445E-1	6.853760E-1	6.883771E-1	6.713787E-1	6.853975E-1	6.803415E-1	6.605533E-1	6.881366E-1	6.722651E-1	7.042267E-1	6.879184E-1	6.926623E-1	7.071462E-1	6.851909E-1	6.734634E-1	6.661151E-1	6.983189E-1	7.006496E-1	6.972846E-1	7.214331E-1	7.029395E-1	6.897049E-1	6.558715E-1	6.764019E-1	6.824753E-1	7.006766E-1	7.108300E-1	7.132784E-1	6.980728E-1	6.486033E-1	6.555468E-1	6.912276E-1	6.786939E-1	6.629064E-1	7.014187E-1	7.102978E-1	6.509410E-1	6.980069E-1	6.506074E-1	6.832543E-1	6.917319E-1	7.044207E-1	6.644864E-1	6.565384E-1	6.705935E-1	6.773361E-1	7.254892E-1	6.963404E-1	6.953085E-1	6.819300E-1	6.739955E-1	6.573245E-1	6.529877E-1	6.792429E-1	6.578231E-1	6.614566E-1	6.732440E-1	6.620281E-1	6.809311E-1	7.078954E-1	6.921740E-1	6.656739E-1	7.047093E-1	6.868884E-1	6.510345E-1	6.751515E-1	7.119947E-1	6.747305E-1	6.680971E-1	6.700577E-1	6.929938E-1	7.132008E-1	6.684114E-1	7.112623E-1	6.790221E-1	6.705866E-1	6.636871E-1	7.076545E-1	7.216142E-1	7.167280E-1	6.724326E-1	7.134260E-1	7.042669E-1	6.867350E-1	6.817323E-1	6.583155E-1	6.990861E-1	6.900696E-1	6.745077E-1	6.738694E-1	7.084582E-1	6.598349E-1	6.616475E-1	6.610059E-1	6.387000E-1	7.298045E-1	6.837339E-1	6.917834E-1	6.626569E-1	7.623217E-1	6.662134E-1	6.662111E-1	6.840832E-1	7.004464E-1	6.672898E-1	7.030547E-1	6.715003E-1	6.749470E-1	6.885387E-1	7.036643E-1	6.813882E-1	6.823909E-1	6.981263E-1	6.804381E-1	7.126211E-1	6.708913E-1	6.778021E-1	6.538175E-1	7.078557E-1	6.852288E-1	6.675550E-1	6.749458E-1	7.228381E-1	7.017973E-1	6.732775E-1	6.714049E-1	6.966506E-1	6.618207E-1	6.767516E-1	6.749616E-1	6.966162E-1	6.730787E-1	7.433897E-1	6.894852E-1	6.924689E-1	6.750606E-1	6.940638E-1	7.048839E-1	7.337768E-1	7.270520E-1	6.601214E-1	7.044889E-1	6.643752E-1	7.159744E-1	6.634339E-1	6.626313E-1	7.030362E-1	7.024366E-1	7.044385E-1	6.829826E-1	7.166552E-1	6.877137E-1	6.875132E-1	7.015338E-1	7.227325E-1	7.218892E-1	7.799582E-1	8.270671E-1
5.346620E+2	9.916211E-1	1.059494E+0	1.034783E+0	1.009281E+0	1.016638E+0	1.023573E+0	9.983244E-1	1.046564E+0	1.034931E+0	1.106700E+0	1.073333E+0	1.046386E+0	1.038672E+0	1.055287E+0	1.095683E+0	1.039396E+0	1.058757E+0	1.023740E+0	1.109026E+0	1.019236E+0	1.031489E+0	1.107523E+0	1.039079E+0	1.065077E+0	1.068584E+0	1.028337E+0	9.741311E-1	1.028494E+0	1.040010E+0	1.057819E+0	1.065706E+0	1.016338E+0	1.084264E+0	1.044554E+0	1.073729E+0	1.054004E+0	1.036993E+0	1.041576E+0	1.003419E+0	1.035496E+0	1.075937E+0	1.031508E+0	1.050965E+0	1.019050E+0	1.043376E+0	1.024757E+0	1.051556E+0	1.036254E+0	1.092741E+0	1.049052E+0	1.029832E+0	1.084813E+0	1.034455E+0	1.017939E+0	1.027685E+0	1.031709E+0	1.026978E+0	1.054178E+0	1.077276E+0	1.028841E+0	1.098355E+0	1.013343E+0	1.016245E+0	1.021920E+0	1.001472E+0	1.042099E+0	1.071639E+0	1.022520E+0	1.041523E+0	1.000312E+0	1.018307E+0	9.999054E-1	1.069375E+0	1.044387E+0	1.014594E+0	9.966635E-1	1.014223E+0	1.019226E+0	1.051300E+0	1.032735E+0	1.023466E+0	1.070561E+0	1.030944E+0	9.716124E-1	9.937853E-1	1.030858E+0	1.022229E+0	1.037058E+0	1.013715E+0	1.105735E+0	1.020682E+0	1.038260E+0	1.005022E+0	1.031390E+0	1.061392E+0	1.004707E+0	1.064374E+0	9.901796E-1	1.043237E+0	9.874920E-1	1.017822E+0	1.015398E+0	1.042880E+0	1.004166E+0	1.036790E+0	1.051321E+0	1.047830E+0	9.960917E-1	1.010311E+0	1.077647E+0	1.036442E+0	1.029378E+0	1.050963E+0	1.061468E+0	1.006398E+0	9.945059E-1	1.011485E+0	1.031171E+0	1.037155E+0	1.000412E+0	1.041085E+0	1.059709E+0	9.835139E-1	1.052718E+0	1.045160E+0	1.045694E+0	1.055054E+0	1.032910E+0	1.029091E+0	9.854478E-1	1.040209E+0	9.648055E-1	1.001841E+0	1.019574E+0	1.002701E+0	1.001108E+0	1.071629E+0	1.105900E+0	1.038868E+0	1.030301E+0	1.065916E+0	1.034195E+0	1.034918E+0	1.075705E+0	1.054347E+0	1.035933E+0	1.051777E+0	9.794164E-1	1.065853E+0	1.018711E+0	9.933003E-1	1.033694E+0	1.026088E+0	9.985080E-1	1.029547E+0	1.044836E+0	9.958275E-1	1.012705E+0	1.015546E+0	1.030531E+0	1.043896E+0	9.947845E-1	1.043349E+0	1.012489E+0	1.021292E+0	1.016112E+0	1.041163E+0	1.003438E+0	1.019589E+0	1.148837E+0	1.113772E+0	1.260947E+0
5.348120E+2	1.466629E+0	1.437231E+0	1.458404E+0	1.491428E+0	1.452164E+0	1.496958E+0	1.436612E+0	1.460194E+0	1.467922E+0	1.500626E+0	1.458554E+0	1.475077E+0	1.450476E+0	1.475781E+0	1.519300E+0	1.441062E+0	1.453732E+0	1.498384E+0	1.462065E+0	1.431575E+0	1.452620E+0	1.484132E+0	1.418335E+0	1.469128E+0	1.519617E+0	1.475005E+0	1.459953E+0	1.497171E+0	1.445053E+0	1.454486E+0	1.456401E+0	1.435942E+0	1.433059E+0	1.474464E+0	1.500022E+0	1.442356E+0	1.389588E+0	1.456218E+0	1.460013E+0	1.441979E+0	1.499342E+0	1.420569E+0	1.499239E+0	1.456413E+0	1.495411E+0	1.459035E+0	1.464245E+0	1.468528E+0	1.466633E+0	1.517238E+0	1.505756E+0	1.456767E+0	1.441255E+0	1.444441E+0	1.470074E+0	1.448586E+0	1.489528E+0	1.442999E+0	1.455395E+0	1.395396E+0	1.465763E+0	1.423469E+0	1.444897E+0	1.392065E+0	1.453976E+0	1.418051E+0	1.441449E+0	1.448764E+0	1.422121E+0	1.376157E+0	1.473745E+0	1.444969E+0	1.449225E+0	1.425133E+0	1.418702E+0	1.408854E+0	1.461534E+0	1.441814E+0	1.407686E+0	1.445005E+0	1.485650E+0	1.444346E+0	1.429116E+0	1.433696E+0	1.426207E+0	1.470902E+0	1.428070E+0	1.427175E+0	1.403486E+0	1.428292E+0	1.417922E+0	1.427965E+0	1.522578E+0	1.476368E+0	1.418328E+0	1.430264E+0	1.443723E+0	1.459145E+0	1.431806E+0	1.354021E+0	1.472298E+0	1.436076E+0	1.450644E+0	1.415347E+0	1.455359E+0	1.524490E+0	1.452037E+0	1.459342E+0	1.469428E+0	1.447162E+0	1.399038E+0	1.452647E+0	1.428719E+0	1.465103E+0	1.432357E+0	1.438863E+0	1.391057E+0	1.441298E+0	1.438266E+0	1.413627E+0	1.505354E+0	1.473384E+0	1.459051E+0	1.457611E+0	1.411397E+0	1.412899E+0	1.474474E+0	1.443590E+0	1.497222E+0	1.388166E+0	1.421014E+0	1.442267E+0	1.442376E+0	1.483395E+0	1.447870E+0	1.429264E+0	1.497367E+0	1.459553E+0	1.455193E+0	1.402960E+0	1.512203E+0	1.434828E+0	1.425031E+0	1.415880E+0	1.455817E+0	1.488091E+0	1.494450E+0	1.372796E+0	1.471423E+0	1.489010E+0	1.409774E+0	1.442199E+0	1.426682E+0	1.445857E+0	1.407265E+0	1.486048E+0	1.391412E+0	1.474879E+0	1.423667E+0	1.499007E+0	1.487133E+0	1.479332E+0	1.370564E+0	1.424054E+0	1.503756E+0	1.414520E+0	1.478786E+0	1.418353E+0	1.487325E+0	1.439433E+0	1.538207E+0	1.364520E+0
5.349630E+2	1.785035E+0	1.896613E+0	1.744345E+0	1.828350E+0	1.810650E+0	1.777578E+0	1.832853E+0	1.766127E+0	1.825899E+0	1.835553E+0	1.851767E+0	1.851603E+0	1.787631E+0	1.749589E+0	1.810927E+0	1.764906E+0	1.773972E+0	1.737211E+0	1.830450E+0	1.715065E+0	1.781672E+0	1.786591E+0	1.766212E+0	1.785726E+0	1.835579E+0	1.818210E+0	1.825653E+0	1.720682E+0	1.768068E+0	1.698089E+0	1.816299E+0	1.785776E+0	1.805664E+0	1.846841E+0	1.767098E+0	1.788164E+0	1.773759E+0	1.852482E+0	1.726941E+0	1.737806E+0	1.860177E+0	1.727413E+0	1.824775E+0	1.846110E+0	1.789968E+0	1.784675E+0	1.813387E+0	1.746565E+0	1.793045E+0	1.849947E+0	1.784533E+0	1.762171E+0	1.778339E+0	1.791129E+0	1.715322E+0	1.763498E+0	1.736060E+0	1.806734E+0	1.754458E+0	1.735301E+0	1.854589E+0	1.768503E+0	1.818783E+0	1.681636E+0	1.793418E+0	1.777519E+0	1.768437E+0	1.778675E+0	1.747917E+0	1.720422E+0	1.781026E+0	1.695922E+0	1.742848E+0	1.845144E+0	1.784420E+0	1.672836E+0	1.780427E+0	1.760576E+0	1.724207E+0	1.772355E+0	1.772196E+0	1.775853E+0	1.762456E+0	1.671683E+0	1.759034E+0	1.735247E+0	1.766136E+0	1.732103E+0	1.776068E+0	1.803330E+0	1.751295E+0	1.706632E+0	1.761915E+0	1.756070E+0	1.728794E+0	1.741252E+0	1.810802E+0	1.764624E+0	1.790956E+0	1.696497E+0	1.717252E+0	1.697917E+0	1.821300E+0	1.763373E+0	1.857470E+0	1.818831E+0	1.768627E+0	1.706209E+0	1.775433E+0	1.814219E+0	1.790187E+0	1.735241E+0	1.789299E+0	1.842085E+0	1.778755E+0	1.721001E+0	1.725748E+0	1.743568E+0	1.725587E+0	1.748817E+0	1.649345E+0	1.768731E+0	1.739918E+0	1.703969E+0	1.740479E+0	1.721835E+0	1.732253E+0	1.706507E+0	1.740409E+0	1.724540E+0	1.749877E+0	1.693956E+0	1.664785E+0	1.743352E+0	1.744200E+0	1.738522E+0	1.835630E+0	1.786737E+0	1.696443E+0	1.699043E+0	1.744510E+0	1.781777E+0	1.780787E+0	1.711633E+0	1.763710E+0	1.805908E+0	1.791188E+0	1.664041E+0	1.813925E+0	1.734309E+0	1.664659E+0	1.716089E+0	1.726681E+0	1.862887E+0	1.778949E+0	1.744070E+0	1.722292E+0	1.817150E+0	1.743782E+0	1.718744E+0	1.799886E+0	1.793027E+0	1.750935E+0	1.711479E+0	1.762883E+0	1.785890E+0	1.747050E+0	1.757030E+0	1.769936E+0	1.924811E+0	1.850569E+0	1.735310E+0
5.351350E+2	2.051305E+0	2.037813E+0	2.057948E+0	2.003528E+0	2.075750E+0	1.996325E+0	2.044187E+0	2.043841E+0	2.098478E+0	2.116947E+0	2.060014E+0	2.037364E+0	2.100104E+0	2.044069E+0	2.083006E+0	1.956496E+0	2.148498E+0	2.085964E+0	2.065821E+0	2.064663E+0	2.000828E+0	2.058224E+0	2.010447E+0	1.999028E+0	2.065489E+0	2.130773E+0	2.095133E+0	1.997425E+0	2.052420E+0	2.025593E+0	2.067608E+0	1.994508E+0	1.984339E+0	2.025106E+0	2.103067E+0	2.032433E+0	2.038035E+0	1.978504E+0	2.009698E+0	1.988129E+0	2.079500E+0	2.022901E+0	2.096298E+0	2.062059E+0	2.102342E+0	2.042864E+0	1.996377E+0	1.999970E+0	2.034146E+0	2.116946E+0	2.097239E+0	1.986589E+0	2.022292E+0	2.001051E+0	1.961072E+0	1.987438E+0	2.053210E+0	2.071695E+0	2.026055E+0	2.068507E+0	2.052276E+0	2.034386E+0	2.075535E+0	1.967311E+0	2.027353E+0	1.966607E+0	2.037774E+0	2.045459E+0	2.029667E+0	1.981257E+0	2.004541E+0	1.975521E+0	2.016787E+0	2.023550E+0	2.108963E+0	1.953412E+0	1.974027E+0	2.049657E+0	1.983339E+0	2.012678E+0	2.059357E+0	1.996809E+0	2.052268E+0	1.937492E+0	1.969409E+0	2.039133E+0	1.984947E+0	2.020236E+0	1.990859E+0	1.966447E+0	2.033396E+0	2.000998E+0	2.021672E+0	1.976657E+0	2.049247E+0	1.958910E+0	2.029764E+0	1.984753E+0	1.945696E+0	1.942817E+0	2.040020E+0	1.962115E+0	2.026284E+0	1.916822E+0	2.036064E+0	2.029718E+0	1.928162E+0	1.983991E+0	2.045439E+0	2.012910E+0	1.982543E+0	1.985282E+0	2.044414E+0	2.004666E+0	1.907560E+0	1.927343E+0	1.935463E+0	1.952792E+0	1.967658E+0	1.985924E+0	2.005758E+0	1.979920E+0	1.981652E+0	1.939749E+0	1.980221E+0	1.968351E+0	1.999693E+0	1.947749E+0	1.971629E+0	1.993897E+0	2.013678E+0	1.914488E+0	1.987574E+0	1.941207E+0	1.988331E+0	1.903828E+0	2.109747E+0	2.057718E+0	1.914954E+0	1.889183E+0	1.978807E+0	1.980538E+0	1.965567E+0	2.023317E+0	2.010806E+0	1.989932E+0	2.067582E+0	1.952396E+0	1.954587E+0	2.014189E+0	1.905111E+0	1.897118E+0	1.977806E+0	2.040605E+0	1.981093E+0	2.063656E+0	1.981202E+0	2.022832E+0	1.946090E+0	1.960848E+0	2.002428E+0	1.985208E+0	2.022175E+0	1.972421E+0	1.974682E+0	1.921213E+0	1.940153E+0	1.900837E+0	1.998297E+0	2.080393E+0	2.029437E+0	2.069997E+0
5.352650E+2	2.047633E+0	2.109668E+0	1.966464E+0	2.047826E+0	2.013294E+0	2.023688E+0	2.051081E+0	2.019063E+0	2.050699E+0	2.080760E+0	2.056426E+0	2.005229E+0	2.052362E+0	2.030030E+0	2.118853E+0	1.968051E+0	2.016520E+0	2.025792E+0	2.069378E+0	2.041194E+0	2.040015E+0	2.024200E+0	2.088147E+0	2.014688E+0	1.991332E+0	2.120604E+0	2.027103E+0	1.990867E+0	2.077094E+0	2.085102E+0	1.997896E+0	1.980642E+0	2.055554E+0	2.016958E+0	2.046529E+0	1.960429E+0	2.052231E+0	2.028471E+0	1.996442E+0	1.972698E+0	2.032097E+0	2.046928E+0	2.036331E+0	1.994817E+0	2.032480E+0	2.061465E+0	2.030282E+0	2.008068E+0	2.037633E+0	2.019523E+0	2.043643E+0	2.090949E+0	1.958102E+0	1.965865E+0	1.997761E+0	1.970867E+0	2.092740E+0	2.011118E+0	1.989999E+0	1.984032E+0	2.089091E+0	2.043413E+0	1.997013E+0	1.959040E+0	2.021342E+0	1.988082E+0	2.000801E+0	1.962121E+0	1.921809E+0	1.969083E+0	1.941742E+0	1.930659E+0	1.996925E+0	2.077234E+0	2.116690E+0	1.907230E+0	1.941280E+0	1.994253E+0	1.955085E+0	2.009391E+0	2.047713E+0	2.027428E+0	1.956289E+0	1.941767E+0	1.971476E+0	2.014028E+0	1.946551E+0	1.989640E+0	1.994947E+0	2.032890E+0	1.925311E+0	1.979669E+0	2.036234E+0	2.011551E+0	1.975746E+0	1.935805E+0	2.003345E+0	2.001920E+0	2.039789E+0	1.954768E+0	1.970125E+0	1.927885E+0	1.965191E+0	1.906957E+0	2.014628E+0	2.029731E+0	1.962186E+0	1.970928E+0	1.983561E+0	2.024792E+0	1.947824E+0	1.927077E+0	1.977135E+0	1.984736E+0	1.996779E+0	2.006488E+0	1.920670E+0	1.958039E+0	1.903202E+0	1.933538E+0	1.976816E+0	1.978654E+0	1.993399E+0	1.929272E+0	2.000082E+0	2.059754E+0	1.948050E+0	1.895048E+0	2.020791E+0	1.966006E+0	2.020636E+0	1.941459E+0	1.909855E+0	1.974514E+0	1.971316E+0	1.902339E+0	2.033442E+0	2.050025E+0	1.939414E+0	1.903111E+0	2.012594E+0	1.999862E+0	1.906912E+0	1.939011E+0	2.031773E+0	1.941620E+0	2.020971E+0	1.863956E+0	1.967591E+0	1.948868E+0	1.912614E+0	1.950320E+0	2.002690E+0	2.048847E+0	1.977101E+0	1.905138E+0	1.845570E+0	2.028842E+0	1.918571E+0	1.920624E+0	2.003712E+0	1.977945E+0	1.947879E+0	1.971912E+0	1.956034E+0	1.969162E+0	1.903577E+0	1.908014E+0	1.986388E+0	1.996616E+0	2.013895E+0	2.011533E+0
5.354060E+2	1.811742E+0	1.922820E+0	1.863737E+0	1.915769E+0	1.845684E+0	1.844853E+0	1.880863E+0	1.890694E+0	1.931872E+0	1.925822E+0	1.883816E+0	1.945889E+0	1.916087E+0	1.945377E+0	1.894212E+0	1.859045E+0	1.904134E+0	1.886690E+0	1.922245E+0	1.849646E+0	1.854578E+0	1.858574E+0	1.867615E+0	1.876119E+0	1.952790E+0	1.990394E+0	1.852922E+0	1.871683E+0	1.888288E+0	1.865649E+0	1.907924E+0	1.836868E+0	1.920842E+0	1.865465E+0	1.936442E+0	1.899295E+0	1.847276E+0	1.901033E+0	1.835710E+0	1.887823E+0	1.929615E+0	1.871275E+0	1.903295E+0	1.950380E+0	1.849589E+0	1.896395E+0	1.850538E+0	1.846970E+0	1.894023E+0	1.855372E+0	1.944255E+0	1.866750E+0	1.845273E+0	1.837771E+0	1.825194E+0	1.833725E+0	1.874461E+0	1.925112E+0	1.870995E+0	1.892883E+0	1.955436E+0	1.875893E+0	1.892143E+0	1.833249E+0	1.929457E+0	1.864282E+0	1.837798E+0	1.871533E+0	1.775304E+0	1.843077E+0	1.830876E+0	1.801572E+0	1.842807E+0	1.875399E+0	1.851126E+0	1.743226E+0	1.822668E+0	1.829801E+0	1.814203E+0	1.881837E+0	1.953582E+0	1.807428E+0	1.871957E+0	1.820739E+0	1.846097E+0	1.801477E+0	1.846952E+0	1.830513E+0	1.867270E+0	1.887831E+0	1.790541E+0	1.855125E+0	1.869074E+0	1.887568E+0	1.864514E+0	1.809187E+0	1.932241E+0	1.848470E+0	1.880712E+0	1.846106E+0	1.852737E+0	1.856944E+0	1.849967E+0	1.861230E+0	1.886255E+0	1.930951E+0	1.797696E+0	1.816816E+0	1.825901E+0	1.843993E+0	1.793234E+0	1.824489E+0	1.878923E+0	1.895096E+0	1.832795E+0	1.821641E+0	1.790444E+0	1.843072E+0	1.840241E+0	1.837948E+0	1.830651E+0	1.871856E+0	1.787358E+0	1.835550E+0	1.823712E+0	1.834105E+0	1.855712E+0	1.831693E+0	1.851441E+0	1.808150E+0	1.950442E+0	1.771881E+0	1.800285E+0	1.809976E+0	1.801167E+0	1.779868E+0	1.920399E+0	1.904032E+0	1.814524E+0	1.764999E+0	1.826806E+0	1.859276E+0	1.799084E+0	1.828198E+0	1.908281E+0	1.922355E+0	1.947193E+0	1.708845E+0	1.879996E+0	1.819204E+0	1.805974E+0	1.821029E+0	1.877224E+0	1.870048E+0	1.908620E+0	1.860774E+0	1.797946E+0	1.855896E+0	1.773086E+0	1.788977E+0	1.847355E+0	1.799048E+0	1.793549E+0	1.832743E+0	1.814179E+0	1.807518E+0	1.826650E+0	1.784262E+0	1.927945E+0	1.944306E+0	1.890557E+0	2.149398E+0
5.355680E+2	1.711810E+0	1.714525E+0	1.693737E+0	1.732226E+0	1.704608E+0	1.634697E+0	1.684627E+0	1.662864E+0	1.594219E+0	1.765272E+0	1.725672E+0	1.664295E+0	1.679194E+0	1.666078E+0	1.727591E+0	1.660216E+0	1.671266E+0	1.751888E+0	1.696626E+0	1.659959E+0	1.702917E+0	1.676740E+0	1.682303E+0	1.651395E+0	1.687893E+0	1.734741E+0	1.624332E+0	1.705963E+0	1.657583E+0	1.715036E+0	1.700501E+0	1.618577E+0	1.657705E+0	1.742701E+0	1.753528E+0	1.669610E+0	1.703563E+0	1.675764E+0	1.655979E+0	1.669621E+0	1.692398E+0	1.696768E+0	1.706902E+0	1.658920E+0	1.638726E+0	1.699501E+0	1.695743E+0	1.651454E+0	1.708726E+0	1.692826E+0	1.650011E+0	1.664533E+0	1.628902E+0	1.647298E+0	1.632561E+0	1.681506E+0	1.687512E+0	1.690880E+0	1.697791E+0	1.693045E+0	1.723416E+0	1.648382E+0	1.691154E+0	1.651293E+0	1.644514E+0	1.704612E+0	1.676078E+0	1.660495E+0	1.645677E+0	1.638265E+0	1.670171E+0	1.615441E+0	1.562322E+0	1.622557E+0	1.692905E+0	1.568735E+0	1.660018E+0	1.660076E+0	1.629579E+0	1.692826E+0	1.645604E+0	1.662427E+0	1.679295E+0	1.628891E+0	1.615789E+0	1.698130E+0	1.641212E+0	1.611493E+0	1.676176E+0	1.717214E+0	1.675334E+0	1.672372E+0	1.676531E+0	1.619748E+0	1.666642E+0	1.578264E+0	1.643973E+0	1.676347E+0	1.738478E+0	1.620653E+0	1.631412E+0	1.658979E+0	1.650438E+0	1.615280E+0	1.724799E+0	1.699216E+0	1.659818E+0	1.620639E+0	1.656151E+0	1.658448E+0	1.631599E+0	1.661078E+0	1.694672E+0	1.668491E+0	1.671889E+0	1.642976E+0	1.665565E+0	1.664971E+0	1.614248E+0	1.664675E+0	1.666570E+0	1.673382E+0	1.651019E+0	1.637187E+0	1.666367E+0	1.658320E+0	1.643520E+0	1.667098E+0	1.712688E+0	1.642160E+0	1.758449E+0	1.634872E+0	1.626152E+0	1.639253E+0	1.608003E+0	1.598333E+0	1.709985E+0	1.724152E+0	1.592405E+0	1.602166E+0	1.624799E+0	1.727232E+0	1.611118E+0	1.708771E+0	1.684069E+0	1.707387E+0	1.666487E+0	1.642207E+0	1.683852E+0	1.622273E+0	1.631146E+0	1.615812E+0	1.647411E+0	1.705838E+0	1.585348E+0	1.662084E+0	1.652820E+0	1.661109E+0	1.642616E+0	1.612053E+0	1.672042E+0	1.689689E+0	1.616850E+0	1.663522E+0	1.663296E+0	1.612018E+0	1.657631E+0	1.617536E+0	1.731479E+0	1.678992E+0	1.697355E+0	1.649636E+0
5.357090E+2	1.380629E+0	1.451269E+0	1.407816E+0	1.444173E+0	1.439428E+0	1.408177E+0	1.420170E+0	1.415695E+0	1.406505E+0	1.464760E+0	1.477056E+0	1.440382E+0	1.400455E+0	1.440855E+0	1.460755E+0	1.349209E+0	1.457177E+0	1.429561E+0	1.384335E+0	1.417623E+0	1.455542E+0	1.389449E+0	1.401412E+0	1.462930E+0	1.430384E+0	1.455595E+0	1.474858E+0	1.408661E+0	1.409709E+0	1.466406E+0	1.451963E+0	1.369311E+0	1.436093E+0	1.409529E+0	1.405116E+0	1.394505E+0	1.449342E+0	1.414950E+0	1.427618E+0	1.407449E+0	1.382354E+0	1.387309E+0	1.441941E+0	1.431889E+0	1.421828E+0	1.443728E+0	1.398973E+0	1.389168E+0	1.439086E+0	1.469967E+0	1.420118E+0	1.428195E+0	1.389770E+0	1.404122E+0	1.399430E+0	1.378050E+0	1.419038E+0	1.472051E+0	1.441179E+0	1.391770E+0	1.451170E+0	1.410720E+0	1.413383E+0	1.400357E+0	1.353430E+0	1.390976E+0	1.459486E+0	1.381451E+0	1.461835E+0	1.402072E+0	1.416963E+0	1.387905E+0	1.437850E+0	1.441429E+0	1.394806E+0	1.413318E+0	1.368156E+0	1.461742E+0	1.409739E+0	1.435839E+0	1.377904E+0	1.377360E+0	1.385623E+0	1.379013E+0	1.327542E+0	1.418329E+0	1.387876E+0	1.431615E+0	1.454029E+0	1.459165E+0	1.375771E+0	1.407883E+0	1.429730E+0	1.415273E+0	1.444048E+0	1.392858E+0	1.370210E+0	1.411866E+0	1.418333E+0	1.326875E+0	1.398506E+0	1.408755E+0	1.400325E+0	1.393678E+0	1.425841E+0	1.456544E+0	1.391689E+0	1.425914E+0	1.414528E+0	1.445859E+0	1.416543E+0	1.368255E+0	1.407784E+0	1.460841E+0	1.398144E+0	1.395460E+0	1.401274E+0	1.452608E+0	1.404798E+0	1.354548E+0	1.373611E+0	1.397486E+0	1.422031E+0	1.371070E+0	1.402795E+0	1.391615E+0	1.388744E+0	1.408394E+0	1.473783E+0	1.382596E+0	1.392545E+0	1.430208E+0	1.385020E+0	1.441921E+0	1.390607E+0	1.415939E+0	1.516725E+0	1.457774E+0	1.374072E+0	1.366214E+0	1.457488E+0	1.460273E+0	1.424637E+0	1.393981E+0	1.385301E+0	1.453144E+0	1.414499E+0	1.368107E+0	1.502886E+0	1.414243E+0	1.385726E+0	1.393245E+0	1.413017E+0	1.370927E+0	1.406184E+0	1.434611E+0	1.436911E+0	1.475078E+0	1.376570E+0	1.412523E+0	1.470112E+0	1.470773E+0	1.408742E+0	1.362846E+0	1.447884E+0	1.381398E+0	1.415471E+0	1.368046E+0	1.490459E+0	1.504524E+0	1.326613E+0	1.555599E+0
5.358600E+2	1.221300E+0	1.291250E+0	1.256360E+0	1.290035E+0	1.246350E+0	1.227469E+0	1.278514E+0	1.218956E+0	1.306920E+0	1.270408E+0	1.263635E+0	1.310897E+0	1.282348E+0	1.245342E+0	1.230259E+0	1.219094E+0	1.268355E+0	1.283070E+0	1.267176E+0	1.223880E+0	1.222589E+0	1.210266E+0	1.250795E+0	1.224605E+0	1.297051E+0	1.192747E+0	1.279213E+0	1.286884E+0	1.296289E+0	1.269708E+0	1.219006E+0	1.266805E+0	1.199627E+0	1.266657E+0	1.242745E+0	1.270456E+0	1.267976E+0	1.211802E+0	1.234327E+0	1.268963E+0	1.245283E+0	1.268175E+0	1.251980E+0	1.244223E+0	1.178712E+0	1.286863E+0	1.263572E+0	1.223478E+0	1.198662E+0	1.319737E+0	1.286295E+0	1.275694E+0	1.197407E+0	1.242206E+0	1.213281E+0	1.184822E+0	1.272227E+0	1.266961E+0	1.226094E+0	1.221056E+0	1.260512E+0	1.240821E+0	1.251784E+0	1.258336E+0	1.200507E+0	1.210602E+0	1.243582E+0	1.192702E+0	1.239490E+0	1.207574E+0	1.320939E+0	1.189703E+0	1.233680E+0	1.196603E+0	1.280842E+0	1.247426E+0	1.200084E+0	1.260811E+0	1.189227E+0	1.270794E+0	1.190572E+0	1.274006E+0	1.283645E+0	1.176283E+0	1.206461E+0	1.286183E+0	1.185415E+0	1.218247E+0	1.189814E+0	1.284378E+0	1.217643E+0	1.286705E+0	1.192249E+0	1.280157E+0	1.217398E+0	1.215715E+0	1.206941E+0	1.275803E+0	1.261120E+0	1.189840E+0	1.180447E+0	1.194776E+0	1.235300E+0	1.209371E+0	1.221899E+0	1.259788E+0	1.204878E+0	1.223033E+0	1.212688E+0	1.285997E+0	1.274330E+0	1.234947E+0	1.242617E+0	1.239496E+0	1.213323E+0	1.242863E+0	1.226892E+0	1.253911E+0	1.237596E+0	1.220452E+0	1.169949E+0	1.209779E+0	1.274117E+0	1.237049E+0	1.157817E+0	1.224601E+0	1.207515E+0	1.276338E+0	1.217932E+0	1.211049E+0	1.260558E+0	1.207105E+0	1.209413E+0	1.273223E+0	1.218400E+0	1.164932E+0	1.289352E+0	1.273579E+0	1.234022E+0	1.248244E+0	1.238739E+0	1.271554E+0	1.262468E+0	1.227767E+0	1.260815E+0	1.249553E+0	1.233746E+0	1.197151E+0	1.238342E+0	1.229174E+0	1.255427E+0	1.194174E+0	1.218408E+0	1.279928E+0	1.247094E+0	1.246430E+0	1.226943E+0	1.239534E+0	1.186021E+0	1.206693E+0	1.302114E+0	1.278678E+0	1.262451E+0	1.243898E+0	1.228897E+0	1.241503E+0	1.225149E+0	1.236110E+0	1.203827E+0	1.253290E+0	1.275431E+0	1.132501E+0
5.360070E+2	9.936925E-1	1.055562E+0	1.047424E+0	1.027740E+0	1.011972E+0	1.009223E+0	1.020520E+0	1.020276E+0	1.048488E+0	1.066648E+0	1.039661E+0	1.047118E+0	1.010746E+0	1.053041E+0	1.019535E+0	1.010470E+0	1.043726E+0	1.037296E+0	1.029961E+0	1.022950E+0	1.008253E+0	9.938463E-1	1.032616E+0	1.048721E+0	1.107353E+0	1.063769E+0	1.015615E+0	1.043028E+0	1.028871E+0	1.026205E+0	9.942250E-1	1.010025E+0	1.027529E+0	1.052410E+0	1.064799E+0	9.876511E-1	1.055904E+0	1.034828E+0	1.018191E+0	1.012666E+0	1.040076E+0	1.014376E+0	1.018664E+0	1.008432E+0	9.986156E-1	1.014050E+0	1.008598E+0	1.033787E+0	1.103762E+0	1.025764E+0	1.037219E+0	1.027951E+0	1.011737E+0	1.025164E+0	1.002081E+0	1.028351E+0	1.035576E+0	9.927357E-1	1.000076E+0	1.047916E+0	1.039053E+0	9.834691E-1	1.022719E+0	9.916762E-1	1.007710E+0	1.033244E+0	1.049199E+0	1.018317E+0	9.670260E-1	9.977445E-1	1.020219E+0	1.006697E+0	1.035013E+0	1.012208E+0	1.006111E+0	9.663070E-1	1.038442E+0	1.062114E+0	1.020562E+0	9.771755E-1	1.023134E+0	1.035795E+0	1.063202E+0	9.909735E-1	9.765422E-1	1.018219E+0	1.000277E+0	1.038634E+0	1.049104E+0	9.995773E-1	1.022791E+0	1.117853E+0	1.059053E+0	1.012917E+0	1.007268E+0	9.936471E-1	1.035435E+0	1.093877E+0	1.038652E+0	1.050198E+0	1.005650E+0	1.000571E+0	1.029659E+0	1.003884E+0	1.033043E+0	1.068589E+0	1.036629E+0	1.019951E+0	9.684224E-1	1.008673E+0	1.022000E+0	1.021010E+0	9.770658E-1	1.082097E+0	1.019024E+0	1.071027E+0	9.993186E-1	1.046044E+0	9.844675E-1	9.976758E-1	1.005689E+0	1.011048E+0	1.066788E+0	1.049592E+0	1.043605E+0	1.055800E+0	1.037595E+0	1.030650E+0	1.024284E+0	9.911024E-1	1.058252E+0	9.819693E-1	1.017332E+0	1.057626E+0	1.013512E+0	9.884936E-1	1.069456E+0	1.080498E+0	1.010046E+0	1.052735E+0	9.985745E-1	1.049318E+0	9.910162E-1	1.026108E+0	1.023629E+0	1.098501E+0	1.069030E+0	9.929425E-1	1.012656E+0	1.054939E+0	1.032770E+0	1.039260E+0	1.066536E+0	1.060148E+0	1.038096E+0	1.032386E+0	1.031334E+0	1.111840E+0	1.011131E+0	1.068632E+0	1.037315E+0	1.017601E+0	1.055340E+0	1.017117E+0	1.024507E+0	9.923789E-1	1.050868E+0	1.015464E+0	1.035869E+0	1.054388E+0	1.004377E+0	1.054868E+0
5.362630E+2	7.602362E-1	7.949194E-1	7.964496E-1	7.848302E-1	7.755525E-1	7.486591E-1	8.111482E-1	7.755694E-1	7.894922E-1	8.004664E-1	7.931372E-1	8.242447E-1	7.734262E-1	8.124054E-1	8.247877E-1	7.568312E-1	8.047142E-1	7.718976E-1	7.895299E-1	7.790201E-1	7.868076E-1	7.805266E-1	7.719782E-1	7.827615E-1	7.950517E-1	8.269393E-1	7.766111E-1	8.053044E-1	8.316538E-1	8.329318E-1	7.994879E-1	8.046043E-1	7.919996E-1	7.787378E-1	7.984771E-1	7.803917E-1	7.695586E-1	7.883756E-1	7.637316E-1	7.723420E-1	8.113023E-1	7.875911E-1	8.135774E-1	7.940286E-1	7.994883E-1	8.284637E-1	7.820055E-1	7.755854E-1	7.920498E-1	8.362810E-1	8.180169E-1	8.091107E-1	7.914801E-1	7.711789E-1	7.636654E-1	7.564699E-1	8.047166E-1	8.035567E-1	7.748600E-1	7.760146E-1	7.978418E-1	7.564449E-1	8.215872E-1	8.148599E-1	7.700246E-1	7.702782E-1	8.239937E-1	8.127405E-1	7.563324E-1	8.127047E-1	8.112992E-1	8.217025E-1	7.719412E-1	8.186356E-1	8.198276E-1	7.910799E-1	8.026081E-1	7.922234E-1	8.083717E-1	7.943534E-1	8.010493E-1	7.699912E-1	7.909126E-1	7.716683E-1	8.073305E-1	7.835800E-1	7.878605E-1	7.509120E-1	7.924702E-1	7.842688E-1	8.172095E-1	7.875340E-1	7.981492E-1	8.158635E-1	8.023865E-1	7.644675E-1	7.440032E-1	8.044296E-1	8.097462E-1	8.015201E-1	7.950755E-1	7.838696E-1	7.706263E-1	7.444719E-1	8.412211E-1	8.404699E-1	7.938464E-1	7.816307E-1	7.658501E-1	8.613046E-1	7.841120E-1	7.717770E-1	8.165212E-1	8.321281E-1	8.339129E-1	7.550254E-1	7.892118E-1	7.894473E-1	7.835270E-1	7.832724E-1	7.912906E-1	8.071869E-1	7.892696E-1	8.039629E-1	8.044806E-1	7.628693E-1	7.972378E-1	7.704011E-1	7.919387E-1	7.602825E-1	8.227930E-1	7.555069E-1	8.175713E-1	8.230146E-1	7.863824E-1	7.671010E-1	8.044538E-1	7.626585E-1	8.183677E-1	8.027871E-1	7.959546E-1	7.969948E-1	7.655924E-1	7.939967E-1	7.984858E-1	8.030634E-1	8.475473E-1	7.560248E-1	7.813126E-1	8.097629E-1	7.993645E-1	8.117453E-1	8.029407E-1	8.081348E-1	7.671266E-1	7.941208E-1	7.703062E-1	8.464330E-1	8.329011E-1	7.836958E-1	8.147806E-1	7.771451E-1	7.816653E-1	7.995547E-1	8.306052E-1	7.789162E-1	7.798839E-1	7.975522E-1	7.774113E-1	8.144681E-1	8.720613E-1	8.252358E-1
5.365140E+2	5.939982E-1	5.878715E-1	6.005601E-1	6.178448E-1	6.185260E-1	6.020568E-1	6.241076E-1	6.013030E-1	6.091028E-1	6.028844E-1	5.637866E-1	5.849392E-1	5.895354E-1	5.739893E-1	6.114082E-1	5.850755E-1	5.879238E-1	5.709723E-1	5.789341E-1	6.168696E-1	6.053165E-1	5.820010E-1	5.932137E-1	5.984395E-1	6.023675E-1	6.004931E-1	6.016025E-1	5.983258E-1	5.953393E-1	6.490464E-1	5.884608E-1	6.062284E-1	5.886056E-1	6.214923E-1	6.124899E-1	5.959902E-1	5.969168E-1	6.176465E-1	5.617696E-1	6.068978E-1	5.830981E-1	6.188055E-1	6.167516E-1	5.627595E-1	5.813434E-1	6.610801E-1	5.678150E-1	5.888919E-1	6.026610E-1	6.608666E-1	6.358395E-1	5.884209E-1	6.054600E-1	6.044380E-1	5.905905E-1	5.751666E-1	6.044974E-1	6.335724E-1	5.990812E-1	5.968958E-1	6.150203E-1	6.026132E-1	5.972964E-1	6.071485E-1	5.902512E-1	5.964500E-1	6.085170E-1	6.234088E-1	5.862112E-1	6.043524E-1	6.264062E-1	5.540924E-1	5.898634E-1	5.824811E-1	5.908537E-1	6.015655E-1	6.113573E-1	5.813029E-1	6.227269E-1	6.318895E-1	6.014491E-1	6.100538E-1	5.862173E-1	6.325018E-1	6.207057E-1	6.155838E-1	5.717803E-1	5.988853E-1	5.969644E-1	6.253135E-1	6.039500E-1	5.924059E-1	6.043285E-1	6.170851E-1	5.983133E-1	6.000992E-1	6.154093E-1	6.187552E-1	5.983942E-1	6.029039E-1	5.944755E-1	5.989508E-1	5.920555E-1	5.679816E-1	6.171569E-1	6.030437E-1	5.567643E-1	6.136915E-1	5.782214E-1	5.785025E-1	5.818150E-1	5.824530E-1	6.205953E-1	6.182237E-1	5.840513E-1	5.707808E-1	5.888622E-1	5.719866E-1	6.214463E-1	6.196939E-1	5.888303E-1	5.954368E-1	6.205136E-1	6.202749E-1	5.984469E-1	6.471793E-1	5.934112E-1	5.836613E-1	6.369477E-1	5.973608E-1	6.080716E-1	6.032692E-1	5.824249E-1	5.676922E-1	6.138173E-1	5.617807E-1	6.257314E-1	6.160338E-1	6.076170E-1	6.107983E-1	6.027415E-1	6.362049E-1	6.262737E-1	6.019179E-1	6.105466E-1	6.446319E-1	6.703103E-1	5.814507E-1	6.434456E-1	6.233260E-1	5.884646E-1	5.994424E-1	6.172146E-1	6.213049E-1	6.030088E-1	6.439049E-1	6.124192E-1	6.336293E-1	5.911223E-1	5.982133E-1	6.249254E-1	6.040488E-1	5.967289E-1	5.938400E-1	6.217448E-1	5.881709E-1	5.964881E-1	6.115655E-1	5.882060E-1	6.694292E-1	6.614862E-1	6.294250E-1
5.367760E+2	5.062379E-1	5.178147E-1	5.252822E-1	5.330263E-1	5.052547E-1	5.223248E-1	5.171454E-1	5.038735E-1	5.198467E-1	5.436694E-1	5.212268E-1	5.117285E-1	4.991289E-1	5.030451E-1	4.798206E-1	5.152360E-1	4.981490E-1	4.924173E-1	5.038786E-1	5.194932E-1	4.932383E-1	5.152598E-1	5.260012E-1	5.112773E-1	5.362983E-1	5.006767E-1	5.353633E-1	5.152830E-1	5.354025E-1	5.167208E-1	5.261322E-1	5.012050E-1	5.287848E-1	5.125300E-1	5.149963E-1	4.673376E-1	5.061429E-1	4.997579E-1	5.053832E-1	4.876159E-1	5.553682E-1	4.956163E-1	4.999000E-1	5.526652E-1	4.976402E-1	5.163228E-1	5.669252E-1	5.268629E-1	5.123429E-1	5.182794E-1	5.354375E-1	5.183731E-1	4.985057E-1	5.196026E-1	5.315604E-1	4.967771E-1	5.081823E-1	5.453249E-1	5.241881E-1	5.269287E-1	4.991064E-1	5.150991E-1	5.139282E-1	4.767983E-1	4.992117E-1	5.177682E-1	5.260847E-1	5.104635E-1	4.978440E-1	5.154564E-1	5.030499E-1	5.144304E-1	5.250970E-1	5.315474E-1	5.059359E-1	5.235775E-1	5.156208E-1	5.338724E-1	5.104491E-1	5.175969E-1	5.068447E-1	5.240139E-1	5.341160E-1	4.917897E-1	5.130427E-1	4.993932E-1	5.289104E-1	4.823841E-1	5.506232E-1	5.136446E-1	4.866417E-1	5.181458E-1	5.461075E-1	5.191175E-1	5.116256E-1	5.067636E-1	5.420643E-1	5.224883E-1	5.170457E-1	5.341530E-1	5.036742E-1	5.264021E-1	5.086127E-1	4.973240E-1	5.816325E-1	5.173646E-1	4.781962E-1	4.826749E-1	5.182524E-1	5.163630E-1	5.053422E-1	4.797016E-1	4.944140E-1	5.424140E-1	5.217649E-1	4.854661E-1	5.148310E-1	5.071366E-1	5.302775E-1	5.314363E-1	4.984319E-1	5.298516E-1	5.349711E-1	5.152555E-1	5.137022E-1	5.297731E-1	5.282519E-1	5.351861E-1	5.153087E-1	5.130951E-1	5.227752E-1	5.143136E-1	5.198320E-1	5.362840E-1	5.122560E-1	5.096107E-1	5.143399E-1	5.404948E-1	5.181017E-1	4.977228E-1	5.184849E-1	5.367199E-1	5.197031E-1	5.204327E-1	5.586114E-1	5.451918E-1	5.448225E-1	4.715026E-1	5.595479E-1	5.208889E-1	4.971599E-1	4.827965E-1	5.279194E-1	5.581384E-1	5.243736E-1	5.136756E-1	5.210881E-1	5.443418E-1	5.221476E-1	5.103306E-1	5.323382E-1	5.541857E-1	5.293959E-1	5.368840E-1	5.128554E-1	5.098193E-1	5.338399E-1	5.228502E-1	5.029113E-1	5.459361E-1	5.380796E-1	5.667917E-1
5.370070E+2	4.865726E-1	4.488087E-1	4.699200E-1	4.721375E-1	4.559023E-1	4.652021E-1	4.477548E-1	4.511639E-1	4.939503E-1	4.858363E-1	4.719227E-1	4.778594E-1	4.889530E-1	4.757741E-1	4.914852E-1	4.418419E-1	4.591337E-1	4.778356E-1	4.966713E-1	4.715879E-1	4.726644E-1	4.812368E-1	4.823976E-1	4.802075E-1	4.824385E-1	4.941337E-1	4.920704E-1	5.063429E-1	4.783840E-1	4.629225E-1	4.327982E-1	4.572753E-1	4.677985E-1	4.493555E-1	4.708360E-1	4.563664E-1	4.719257E-1	4.700347E-1	4.701289E-1	4.424986E-1	4.800476E-1	4.523830E-1	4.900387E-1	5.043815E-1	4.479144E-1	4.522369E-1	4.848246E-1	4.365094E-1	4.690896E-1	4.790904E-1	4.562604E-1	4.490862E-1	4.758731E-1	4.545180E-1	4.430196E-1	4.664969E-1	4.727809E-1	4.935614E-1	4.764711E-1	4.640100E-1	4.490124E-1	4.736130E-1	4.854374E-1	4.514047E-1	4.382405E-1	4.478658E-1	5.000148E-1	5.130596E-1	4.785744E-1	4.650278E-1	4.802552E-1	4.227838E-1	4.436351E-1	4.630175E-1	4.674998E-1	4.742787E-1	4.549850E-1	4.547661E-1	4.456483E-1	4.692470E-1	4.843910E-1	4.653978E-1	4.885738E-1	4.502344E-1	4.732973E-1	4.879823E-1	4.868659E-1	4.607699E-1	4.687510E-1	4.863053E-1	4.974837E-1	4.531011E-1	4.452956E-1	4.632692E-1	5.126226E-1	4.665990E-1	4.583970E-1	4.867187E-1	4.951209E-1	4.489122E-1	4.622637E-1	4.564453E-1	4.577829E-1	4.866221E-1	4.812074E-1	4.602341E-1	4.712282E-1	4.408750E-1	4.710375E-1	4.745084E-1	4.628180E-1	4.766323E-1	4.489268E-1	4.401116E-1	4.561816E-1	4.551091E-1	4.674023E-1	4.595169E-1	4.616443E-1	4.812294E-1	4.867538E-1	4.701982E-1	5.068573E-1	4.374755E-1	4.608760E-1	4.758415E-1	4.525377E-1	4.950720E-1	4.774991E-1	4.618292E-1	4.999573E-1	4.432507E-1	4.695828E-1	4.590079E-1	4.869949E-1	4.712063E-1	4.869342E-1	4.949504E-1	4.706997E-1	4.991725E-1	4.756500E-1	4.886447E-1	4.493977E-1	4.700993E-1	4.961113E-1	4.775841E-1	5.003051E-1	4.591481E-1	4.962935E-1	4.861815E-1	4.839811E-1	4.440554E-1	4.524030E-1	5.086157E-1	4.842869E-1	4.550164E-1	4.791579E-1	4.981676E-1	4.574015E-1	4.457667E-1	4.886856E-1	4.746664E-1	4.986346E-1	4.890389E-1	4.359171E-1	4.589952E-1	4.764522E-1	4.551270E-1	4.870117E-1	5.027429E-1	5.502724E-1	4.221510E-1
5.372640E+2	4.438910E-1	4.642533E-1	4.964975E-1	4.765880E-1	4.690141E-1	4.442171E-1	4.878887E-1	4.768020E-1	4.523719E-1	4.591318E-1	4.946003E-1	4.657053E-1	4.624829E-1	4.682199E-1	4.739191E-1	4.661079E-1	4.287528E-1	4.550589E-1	4.817343E-1	4.990562E-1	4.804366E-1	4.797339E-1	4.916140E-1	4.722407E-1	4.877097E-1	4.891923E-1	4.938393E-1	4.834516E-1	4.305508E-1	4.570994E-1	4.716452E-1	4.598734E-1	4.677814E-1	4.567628E-1	4.970602E-1	4.532706E-1	4.733829E-1	4.717508E-1	4.730855E-1	4.582940E-1	4.837047E-1	4.778011E-1	4.868519E-1	4.930531E-1	4.586184E-1	4.736554E-1	5.057228E-1	4.272548E-1	4.770787E-1	4.987243E-1	4.668319E-1	4.811039E-1	4.587359E-1	4.531121E-1	4.434026E-1	4.675258E-1	4.563608E-1	5.185844E-1	4.673698E-1	4.551489E-1	4.939099E-1	5.174237E-1	5.012628E-1	4.798196E-1	4.465986E-1	4.857776E-1	5.002003E-1	4.728881E-1	4.863724E-1	4.636701E-1	4.885897E-1	4.659203E-1	4.466416E-1	4.578776E-1	4.892606E-1	4.614129E-1	4.717659E-1	4.919245E-1	4.781178E-1	4.855963E-1	4.924427E-1	4.724352E-1	4.534084E-1	4.725371E-1	4.788428E-1	4.763265E-1	4.496961E-1	4.673357E-1	4.845111E-1	4.535390E-1	4.775899E-1	4.752989E-1	4.777005E-1	5.072690E-1	4.807546E-1	4.679690E-1	4.674625E-1	4.754540E-1	4.785158E-1	4.840580E-1	4.534030E-1	4.694818E-1	4.775987E-1	4.608855E-1	4.891813E-1	4.647710E-1	4.909359E-1	4.628438E-1	4.599746E-1	4.848730E-1	4.720987E-1	4.687519E-1	4.607244E-1	4.865370E-1	4.920920E-1	4.757500E-1	4.771061E-1	4.712987E-1	4.702239E-1	4.671379E-1	4.632606E-1	4.367976E-1	4.702410E-1	4.463557E-1	4.735109E-1	4.595917E-1	4.503263E-1	4.754250E-1	4.773242E-1	4.462201E-1	4.737880E-1	4.434006E-1	4.881691E-1	4.771432E-1	5.008733E-1	4.556277E-1	5.030728E-1	5.027622E-1	4.976781E-1	4.385490E-1	4.763533E-1	5.098073E-1	4.814453E-1	4.858300E-1	4.692781E-1	4.955165E-1	4.860424E-1	5.105602E-1	4.769146E-1	4.597357E-1	4.891869E-1	5.053938E-1	5.344940E-1	4.695895E-1	4.710823E-1	4.875720E-1	4.830988E-1	4.825596E-1	4.665948E-1	5.107122E-1	4.838947E-1	4.674487E-1	4.397349E-1	4.987018E-1	4.782087E-1	4.653591E-1	4.881285E-1	4.747905E-1	5.037115E-1	4.720495E-1	5.199834E-1	5.053937E-1
5.375060E+2	5.161223E-1	5.377806E-1	5.515505E-1	5.303572E-1	5.472832E-1	5.207881E-1	5.285934E-1	5.053803E-1	5.359815E-1	5.529609E-1	5.130803E-1	5.104040E-1	5.049606E-1	5.195785E-1	5.586685E-1	5.348414E-1	5.020282E-1	5.220090E-1	5.219932E-1	5.328566E-1	5.089728E-1	5.655064E-1	5.228311E-1	5.383423E-1	5.217290E-1	5.417822E-1	5.497305E-1	5.018290E-1	5.533072E-1	5.040917E-1	5.163306E-1	5.078019E-1	5.623473E-1	4.884289E-1	5.256489E-1	5.079475E-1	5.127812E-1	5.032263E-1	5.382784E-1	5.135904E-1	5.260301E-1	5.309050E-1	5.335250E-1	5.369811E-1	5.069810E-1	5.096439E-1	4.975770E-1	5.310246E-1	5.108983E-1	5.393906E-1	5.318869E-1	5.209441E-1	5.039024E-1	5.249473E-1	5.114589E-1	4.940361E-1	5.142864E-1	5.118717E-1	4.997651E-1	5.340204E-1	5.426542E-1	5.119490E-1	5.284500E-1	5.052740E-1	5.186140E-1	5.157846E-1	5.240042E-1	4.919815E-1	5.011701E-1	5.095909E-1	5.097252E-1	5.022088E-1	4.916197E-1	5.184170E-1	4.975956E-1	5.190940E-1	5.051338E-1	4.955161E-1	4.922931E-1	5.352454E-1	5.260436E-1	5.200194E-1	5.257756E-1	5.233106E-1	5.416302E-1	5.245475E-1	5.010044E-1	5.286179E-1	5.674402E-1	5.214018E-1	4.911162E-1	5.544790E-1	4.907635E-1	5.510900E-1	5.291150E-1	5.016881E-1	5.339691E-1	5.058334E-1	5.211818E-1	5.341903E-1	5.110831E-1	5.012614E-1	5.173795E-1	5.408212E-1	5.432339E-1	5.661102E-1	5.105135E-1	5.061216E-1	4.981589E-1	5.281614E-1	5.106428E-1	4.877159E-1	5.139485E-1	4.950395E-1	5.265026E-1	5.151372E-1	5.308317E-1	5.274689E-1	5.228217E-1	5.029468E-1	4.841876E-1	5.560621E-1	5.196379E-1	5.446606E-1	5.356547E-1	5.393034E-1	5.165685E-1	5.607760E-1	5.198930E-1	5.133571E-1	5.584467E-1	5.228475E-1	4.877455E-1	5.272429E-1	5.198280E-1	5.056959E-1	5.096843E-1	5.242613E-1	5.137871E-1	4.921131E-1	4.999273E-1	5.262445E-1	5.572848E-1	5.072734E-1	4.705934E-1	5.411552E-1	5.355828E-1	5.082829E-1	5.347601E-1	5.329617E-1	5.185243E-1	5.287797E-1	5.218811E-1	5.850262E-1	5.602989E-1	5.473125E-1	4.910520E-1	5.444325E-1	5.251467E-1	5.301364E-1	5.255987E-1	5.386930E-1	4.999338E-1	5.154179E-1	4.919031E-1	5.577886E-1	5.480535E-1	5.279357E-1	5.559262E-1	5.879971E-1	5.898085E-1	5.302939E-1
5.377690E+2	5.779122E-1	6.233454E-1	6.073765E-1	6.052633E-1	6.073155E-1	5.840219E-1	5.780754E-1	5.787665E-1	5.960667E-1	6.833288E-1	6.154114E-1	6.207907E-1	6.110332E-1	6.099338E-1	6.355892E-1	5.855263E-1	6.126358E-1	6.483637E-1	6.424041E-1	5.760289E-1	6.026020E-1	6.101360E-1	6.498093E-1	6.148465E-1	6.234202E-1	6.603487E-1	6.192431E-1	6.405639E-1	6.376246E-1	6.216703E-1	6.281842E-1	6.208741E-1	6.098117E-1	6.142110E-1	6.221528E-1	6.401340E-1	6.464806E-1	6.052558E-1	6.139616E-1	6.034339E-1	6.145050E-1	5.921476E-1	6.081661E-1	6.158351E-1	6.049527E-1	6.406887E-1	6.053803E-1	6.082069E-1	6.270862E-1	6.316187E-1	5.922484E-1	6.309732E-1	5.863531E-1	6.084047E-1	6.069262E-1	6.350019E-1	5.927954E-1	6.131606E-1	6.037638E-1	6.160578E-1	6.178579E-1	6.120000E-1	6.218080E-1	6.386916E-1	6.275618E-1	5.883726E-1	6.363831E-1	6.218005E-1	6.263040E-1	6.292984E-1	6.042788E-1	5.794859E-1	6.132404E-1	6.435806E-1	5.977884E-1	6.268259E-1	6.316696E-1	6.078875E-1	6.115297E-1	6.219992E-1	5.899336E-1	6.330654E-1	6.067011E-1	5.893074E-1	6.338097E-1	6.182977E-1	5.916454E-1	6.000312E-1	6.264583E-1	6.161984E-1	5.964289E-1	6.141035E-1	6.371464E-1	6.342958E-1	6.387534E-1	5.832431E-1	6.005969E-1	6.165857E-1	6.189558E-1	6.173759E-1	6.351231E-1	6.273429E-1	6.006807E-1	6.196141E-1	6.112827E-1	6.279805E-1	6.041141E-1	6.447899E-1	6.075941E-1	5.854135E-1	6.258065E-1	6.466610E-1	6.088999E-1	6.261532E-1	6.122489E-1	6.030389E-1	6.148206E-1	6.056830E-1	6.101257E-1	6.190785E-1	5.762203E-1	6.213948E-1	6.415059E-1	6.082197E-1	5.941593E-1	6.057924E-1	5.754869E-1	6.066985E-1	5.842960E-1	6.340002E-1	6.001110E-1	6.117187E-1	6.107270E-1	6.144827E-1	6.301660E-1	6.302537E-1	6.371046E-1	6.414367E-1	6.332105E-1	6.393709E-1	6.077570E-1	6.361068E-1	6.124745E-1	5.906081E-1	6.372024E-1	6.408584E-1	6.364749E-1	5.815966E-1	6.323080E-1	6.134370E-1	6.271011E-1	5.962281E-1	5.955218E-1	6.451106E-1	6.421390E-1	6.285630E-1	6.043176E-1	6.121866E-1	6.216353E-1	6.072392E-1	6.170192E-1	6.382545E-1	5.930072E-1	6.268799E-1	6.268521E-1	5.960721E-1	6.294966E-1	5.923421E-1	6.335893E-1	6.276151E-1	6.083427E-1	7.027272E-1
5.380110E+2	6.882962E-1	7.440393E-1	6.728317E-1	6.804766E-1	7.285665E-1	6.700923E-1	6.899084E-1	7.321665E-1	6.939449E-1	7.392379E-1	7.132987E-1	7.397255E-1	7.299130E-1	7.224917E-1	7.371928E-1	7.276458E-1	6.966156E-1	6.917760E-1	7.006524E-1	6.965519E-1	7.039675E-1	7.279933E-1	7.081137E-1	7.369083E-1	7.541314E-1	7.598748E-1	7.358212E-1	7.412238E-1	7.230401E-1	7.078750E-1	7.178175E-1	7.301371E-1	7.131650E-1	7.377356E-1	7.437930E-1	7.216667E-1	7.042997E-1	7.000268E-1	6.858691E-1	6.928886E-1	7.119390E-1	6.824285E-1	7.218707E-1	7.012515E-1	7.160033E-1	7.374859E-1	7.006694E-1	7.243194E-1	7.330634E-1	7.431984E-1	7.343493E-1	7.484161E-1	6.890364E-1	6.917986E-1	6.984995E-1	7.130894E-1	7.436979E-1	7.103818E-1	7.442788E-1	7.280459E-1	7.518584E-1	7.167814E-1	7.052763E-1	7.314095E-1	7.404045E-1	7.336827E-1	7.226692E-1	7.562550E-1	6.770717E-1	6.948929E-1	7.413215E-1	6.818004E-1	7.108253E-1	7.414638E-1	7.036299E-1	7.114042E-1	7.110774E-1	7.276967E-1	6.573501E-1	7.058864E-1	6.941213E-1	7.266446E-1	7.127212E-1	7.028118E-1	7.176266E-1	7.457699E-1	7.004124E-1	7.078582E-1	7.396412E-1	6.944574E-1	7.132079E-1	7.274130E-1	7.360267E-1	7.311194E-1	7.706944E-1	7.060766E-1	6.896109E-1	7.178951E-1	7.498376E-1	7.141317E-1	6.894009E-1	7.107049E-1	7.242660E-1	7.268124E-1	6.886480E-1	7.536805E-1	6.966263E-1	6.919802E-1	6.918211E-1	7.225376E-1	7.304635E-1	6.831140E-1	7.101125E-1	7.123428E-1	7.366751E-1	7.407640E-1	7.076197E-1	7.280937E-1	7.362401E-1	7.541875E-1	7.262323E-1	7.281819E-1	7.324732E-1	7.125489E-1	7.341308E-1	6.642235E-1	7.435834E-1	6.858884E-1	7.263875E-1	7.322180E-1	7.583475E-1	7.246056E-1	7.223572E-1	7.302454E-1	6.989898E-1	7.150944E-1	7.589203E-1	7.128916E-1	6.891079E-1	6.949570E-1	7.278460E-1	7.468824E-1	7.116682E-1	7.148950E-1	7.368706E-1	7.520711E-1	7.208980E-1	7.188529E-1	7.501694E-1	7.372435E-1	7.532626E-1	7.108110E-1	7.544339E-1	7.283477E-1	7.350708E-1	7.387450E-1	7.084889E-1	7.579172E-1	7.229257E-1	7.170762E-1	7.398601E-1	7.412881E-1	7.769146E-1	7.483120E-1	7.516720E-1	7.005405E-1	7.168394E-1	7.298525E-1	7.598318E-1	7.263787E-1	7.527986E-1	6.930754E-1
5.382640E+2	8.554968E-1	9.485769E-1	8.176109E-1	8.727239E-1	8.604029E-1	8.241462E-1	9.011682E-1	8.773782E-1	9.164736E-1	8.966006E-1	8.546648E-1	8.604462E-1	8.728332E-1	8.594860E-1	8.512926E-1	8.592528E-1	8.321110E-1	8.613474E-1	9.004611E-1	8.880633E-1	8.806476E-1	8.671400E-1	8.721428E-1	9.196201E-1	8.835612E-1	8.635169E-1	8.919030E-1	8.397841E-1	8.556318E-1	8.650953E-1	9.047038E-1	8.914178E-1	8.919690E-1	8.979349E-1	8.920791E-1	8.830178E-1	8.664510E-1	8.917527E-1	8.731270E-1	8.882302E-1	8.754151E-1	8.566393E-1	9.138203E-1	9.027055E-1	8.754698E-1	8.925005E-1	8.714390E-1	8.670174E-1	8.859499E-1	9.023426E-1	9.080150E-1	9.145590E-1	8.585202E-1	8.492492E-1	8.307021E-1	8.202525E-1	8.499098E-1	8.992836E-1	9.228367E-1	8.505153E-1	9.035914E-1	8.583096E-1	8.808856E-1	8.847777E-1	8.592848E-1	9.200648E-1	9.029339E-1	9.171201E-1	8.304069E-1	8.778089E-1	9.022537E-1	8.274892E-1	8.720595E-1	8.863096E-1	9.125898E-1	8.212530E-1	8.452433E-1	8.726759E-1	9.149905E-1	8.775442E-1	8.850771E-1	8.618169E-1	8.658499E-1	8.989053E-1	8.986568E-1	9.412435E-1	8.744063E-1	8.778587E-1	8.629701E-1	8.774188E-1	8.479067E-1	8.507676E-1	8.723190E-1	8.532147E-1	8.988138E-1	8.607341E-1	8.645348E-1	8.972506E-1	8.982553E-1	8.357285E-1	8.684402E-1	8.744201E-1	8.557422E-1	8.629153E-1	9.256447E-1	8.875171E-1	8.730863E-1	8.362411E-1	8.508228E-1	8.910334E-1	9.334896E-1	8.729861E-1	8.763820E-1	8.851672E-1	8.787014E-1	8.754163E-1	8.663929E-1	8.647548E-1	8.564565E-1	8.432721E-1	8.839644E-1	8.882838E-1	8.612092E-1	9.222859E-1	9.073658E-1	8.767038E-1	9.059751E-1	8.589106E-1	8.435075E-1	8.500614E-1	9.185537E-1	8.166489E-1	8.714766E-1	8.773355E-1	8.648960E-1	8.444547E-1	8.774739E-1	9.105505E-1	8.538937E-1	8.556490E-1	9.249187E-1	8.769248E-1	8.917203E-1	8.909824E-1	9.253978E-1	9.161785E-1	9.445419E-1	8.174058E-1	9.105020E-1	8.831130E-1	8.348019E-1	8.649708E-1	8.429529E-1	9.198356E-1	8.720569E-1	8.628066E-1	8.881883E-1	8.845153E-1	8.601060E-1	8.599178E-1	8.842670E-1	9.144322E-1	9.105582E-1	8.736786E-1	8.711587E-1	8.869188E-1	8.702357E-1	8.423250E-1	9.474366E-1	9.439667E-1	8.928658E-1	1.032971E+0
5.385110E+2	1.140265E+0	1.107087E+0	1.087488E+0	1.163768E+0	1.112099E+0	1.112547E+0	1.089564E+0	1.124653E+0	1.132628E+0	1.115805E+0	1.104567E+0	1.108571E+0	1.115737E+0	1.079269E+0	1.144916E+0	1.109372E+0	1.103768E+0	1.088120E+0	1.135812E+0	1.075438E+0	1.140215E+0	1.118301E+0	1.101124E+0	1.126230E+0	1.103359E+0	1.105483E+0	1.134945E+0	1.118025E+0	1.088433E+0	1.087301E+0	1.099451E+0	1.109613E+0	1.089348E+0	1.075657E+0	1.116785E+0	1.069022E+0	1.104760E+0	1.096284E+0	1.033463E+0	1.109503E+0	1.119834E+0	1.129471E+0	1.109937E+0	1.116333E+0	1.115997E+0	1.132138E+0	1.086347E+0	1.115461E+0	1.101344E+0	1.130156E+0	1.132299E+0	1.153750E+0	1.106824E+0	1.079364E+0	1.161756E+0	1.118409E+0	1.106468E+0	1.102299E+0	1.102909E+0	1.100126E+0	1.105246E+0	1.072772E+0	1.164136E+0	1.097565E+0	1.110993E+0	1.046033E+0	1.112131E+0	1.097076E+0	1.098128E+0	1.083635E+0	1.090308E+0	1.109609E+0	1.106576E+0	1.125208E+0	1.168207E+0	1.076813E+0	1.048227E+0	1.059918E+0	1.065894E+0	1.081785E+0	1.118506E+0	1.126333E+0	1.083198E+0	1.073510E+0	1.092516E+0	1.152249E+0	1.084189E+0	1.108810E+0	1.078251E+0	1.101194E+0	1.125262E+0	1.066607E+0	1.075758E+0	1.141139E+0	1.090568E+0	1.113742E+0	1.088535E+0	1.146452E+0	1.117740E+0	1.107784E+0	1.073744E+0	1.037994E+0	1.055145E+0	1.114068E+0	1.121162E+0	1.121618E+0	1.035651E+0	1.090106E+0	1.083162E+0	1.118390E+0	1.100991E+0	1.074010E+0	1.148034E+0	1.120317E+0	1.141131E+0	1.078817E+0	1.033376E+0	1.078577E+0	1.084217E+0	1.073380E+0	1.060234E+0	1.181034E+0	1.054483E+0	1.046229E+0	1.105135E+0	1.070137E+0	1.134233E+0	1.078838E+0	1.110299E+0	1.082936E+0	1.092548E+0	1.074845E+0	1.045102E+0	1.126801E+0	1.067614E+0	1.079066E+0	1.131098E+0	1.155557E+0	1.090669E+0	1.043578E+0	1.119879E+0	1.125012E+0	1.081184E+0	1.093874E+0	1.129265E+0	1.094444E+0	1.134399E+0	1.077221E+0	1.127122E+0	1.116094E+0	1.128845E+0	1.106662E+0	1.139588E+0	1.114840E+0	1.162038E+0	1.119267E+0	1.093828E+0	1.122809E+0	1.120548E+0	1.093547E+0	1.128110E+0	1.144202E+0	1.134934E+0	1.089865E+0	1.138470E+0	1.054900E+0	1.135220E+0	1.102248E+0	1.124230E+0	1.170856E+0	1.157781E+0	1.130662E+0
5.387700E+2	1.324039E+0	1.398254E+0	1.373422E+0	1.346457E+0	1.397519E+0	1.293779E+0	1.319921E+0	1.308572E+0	1.352612E+0	1.383537E+0	1.364010E+0	1.359391E+0	1.312202E+0	1.318127E+0	1.363078E+0	1.235111E+0	1.368146E+0	1.359177E+0	1.361040E+0	1.400402E+0	1.281103E+0	1.318042E+0	1.322180E+0	1.341836E+0	1.323661E+0	1.338641E+0	1.281363E+0	1.332130E+0	1.344689E+0	1.288402E+0	1.342068E+0	1.302573E+0	1.386331E+0	1.333412E+0	1.378946E+0	1.328794E+0	1.336800E+0	1.378014E+0	1.325565E+0	1.370172E+0	1.292300E+0	1.281554E+0	1.311692E+0	1.316592E+0	1.335895E+0	1.326024E+0	1.389918E+0	1.294543E+0	1.354060E+0	1.361772E+0	1.296141E+0	1.384474E+0	1.307454E+0	1.322544E+0	1.336904E+0	1.341304E+0	1.305351E+0	1.382478E+0	1.294410E+0	1.315952E+0	1.294676E+0	1.327743E+0	1.329905E+0	1.261909E+0	1.312133E+0	1.298665E+0	1.368299E+0	1.345749E+0	1.324262E+0	1.284509E+0	1.324307E+0	1.279258E+0	1.334195E+0	1.297506E+0	1.334016E+0	1.315577E+0	1.321236E+0	1.330614E+0	1.333307E+0	1.316375E+0	1.260275E+0	1.354801E+0	1.357181E+0	1.332478E+0	1.293027E+0	1.330141E+0	1.278447E+0	1.325687E+0	1.325329E+0	1.294520E+0	1.346406E+0	1.369081E+0	1.362520E+0	1.302203E+0	1.299777E+0	1.341259E+0	1.333668E+0	1.246472E+0	1.376752E+0	1.281385E+0	1.324549E+0	1.335295E+0	1.310903E+0	1.272820E+0	1.375056E+0	1.382073E+0	1.275316E+0	1.242085E+0	1.291051E+0	1.339854E+0	1.328629E+0	1.319987E+0	1.297319E+0	1.333090E+0	1.369089E+0	1.287696E+0	1.308095E+0	1.321098E+0	1.280211E+0	1.286456E+0	1.346505E+0	1.329812E+0	1.358153E+0	1.375685E+0	1.338299E+0	1.304240E+0	1.326227E+0	1.297642E+0	1.341281E+0	1.328102E+0	1.339501E+0	1.252206E+0	1.319717E+0	1.330715E+0	1.299542E+0	1.308068E+0	1.401327E+0	1.343054E+0	1.270940E+0	1.277078E+0	1.360437E+0	1.333430E+0	1.318488E+0	1.312026E+0	1.329461E+0	1.335832E+0	1.429713E+0	1.239014E+0	1.360356E+0	1.286290E+0	1.303247E+0	1.334266E+0	1.280227E+0	1.334255E+0	1.280985E+0	1.330108E+0	1.311005E+0	1.289737E+0	1.272421E+0	1.290172E+0	1.302729E+0	1.288063E+0	1.324608E+0	1.258371E+0	1.303668E+0	1.325528E+0	1.276371E+0	1.275330E+0	1.407067E+0	1.375932E+0	1.435012E+0	1.527067E+0
5.390240E+2	1.537239E+0	1.630595E+0	1.537393E+0	1.528143E+0	1.557714E+0	1.524502E+0	1.578443E+0	1.550616E+0	1.538778E+0	1.604072E+0	1.649550E+0	1.593214E+0	1.539829E+0	1.552939E+0	1.576936E+0	1.489798E+0	1.606069E+0	1.537419E+0	1.526892E+0	1.491610E+0	1.556741E+0	1.505049E+0	1.587023E+0	1.523086E+0	1.534658E+0	1.562260E+0	1.540501E+0	1.612103E+0	1.544192E+0	1.586291E+0	1.587131E+0	1.534774E+0	1.543379E+0	1.559023E+0	1.582617E+0	1.523039E+0	1.582333E+0	1.589130E+0	1.559964E+0	1.531791E+0	1.628475E+0	1.504353E+0	1.586535E+0	1.509808E+0	1.515444E+0	1.559527E+0	1.573917E+0	1.548269E+0	1.609893E+0	1.594729E+0	1.514840E+0	1.565541E+0	1.539921E+0	1.534428E+0	1.552598E+0	1.539812E+0	1.536288E+0	1.584876E+0	1.530800E+0	1.561806E+0	1.558023E+0	1.496261E+0	1.534077E+0	1.493869E+0	1.530723E+0	1.557427E+0	1.595215E+0	1.542409E+0	1.488262E+0	1.491507E+0	1.558805E+0	1.502126E+0	1.552812E+0	1.535439E+0	1.579888E+0	1.488582E+0	1.526239E+0	1.546411E+0	1.501863E+0	1.577339E+0	1.555317E+0	1.614398E+0	1.550759E+0	1.530418E+0	1.528951E+0	1.505404E+0	1.539576E+0	1.493223E+0	1.527991E+0	1.555933E+0	1.506395E+0	1.506965E+0	1.603717E+0	1.606396E+0	1.532843E+0	1.521498E+0	1.531276E+0	1.474133E+0	1.545175E+0	1.556615E+0	1.522178E+0	1.497421E+0	1.498361E+0	1.571735E+0	1.505849E+0	1.622443E+0	1.553722E+0	1.518948E+0	1.526510E+0	1.548415E+0	1.562256E+0	1.480735E+0	1.581276E+0	1.570563E+0	1.561498E+0	1.507136E+0	1.506807E+0	1.523732E+0	1.565252E+0	1.505019E+0	1.510641E+0	1.588061E+0	1.471907E+0	1.473591E+0	1.565322E+0	1.516919E+0	1.523709E+0	1.584754E+0	1.543022E+0	1.513524E+0	1.634645E+0	1.485174E+0	1.487902E+0	1.494785E+0	1.534355E+0	1.510461E+0	1.529828E+0	1.533121E+0	1.525868E+0	1.542545E+0	1.479587E+0	1.568636E+0	1.527024E+0	1.523459E+0	1.541282E+0	1.517307E+0	1.595626E+0	1.468219E+0	1.588060E+0	1.540946E+0	1.510485E+0	1.502386E+0	1.551514E+0	1.564844E+0	1.595932E+0	1.547223E+0	1.487612E+0	1.578724E+0	1.501921E+0	1.495794E+0	1.502806E+0	1.477666E+0	1.571246E+0	1.558547E+0	1.533092E+0	1.476349E+0	1.540583E+0	1.454546E+0	1.511396E+0	1.574537E+0	1.556380E+0	1.634778E+0
5.392930E+2	1.840021E+0	1.822071E+0	1.793421E+0	1.762762E+0	1.829184E+0	1.767828E+0	1.780196E+0	1.826425E+0	1.805755E+0	1.810427E+0	1.874171E+0	1.844004E+0	1.797820E+0	1.803345E+0	1.775611E+0	1.772242E+0	1.806853E+0	1.851974E+0	1.812841E+0	1.758647E+0	1.842559E+0	1.828489E+0	1.792430E+0	1.825743E+0	1.809857E+0	1.837797E+0	1.827579E+0	1.783853E+0	1.792624E+0	1.782896E+0	1.784724E+0	1.801078E+0	1.804351E+0	1.807830E+0	1.819533E+0	1.811553E+0	1.849681E+0	1.803741E+0	1.804695E+0	1.768186E+0	1.822986E+0	1.750284E+0	1.822090E+0	1.843097E+0	1.805800E+0	1.821502E+0	1.783844E+0	1.763887E+0	1.871679E+0	1.860184E+0	1.862937E+0	1.809558E+0	1.788683E+0	1.794058E+0	1.833125E+0	1.776391E+0	1.852482E+0	1.827730E+0	1.828293E+0	1.825433E+0	1.783470E+0	1.776857E+0	1.823116E+0	1.787946E+0	1.774512E+0	1.783821E+0	1.840132E+0	1.790323E+0	1.729170E+0	1.764951E+0	1.735321E+0	1.778643E+0	1.724310E+0	1.841481E+0	1.850439E+0	1.741032E+0	1.737761E+0	1.779086E+0	1.794753E+0	1.785653E+0	1.764603E+0	1.808224E+0	1.811475E+0	1.737111E+0	1.762710E+0	1.803988E+0	1.778285E+0	1.773769E+0	1.775013E+0	1.828686E+0	1.781272E+0	1.796083E+0	1.806568E+0	1.786272E+0	1.772213E+0	1.718493E+0	1.804147E+0	1.793611E+0	1.831985E+0	1.725760E+0	1.788864E+0	1.715066E+0	1.778095E+0	1.780955E+0	1.785906E+0	1.875272E+0	1.792312E+0	1.767521E+0	1.703967E+0	1.807051E+0	1.782329E+0	1.781366E+0	1.801685E+0	1.744736E+0	1.850306E+0	1.724660E+0	1.733828E+0	1.783814E+0	1.797733E+0	1.787662E+0	1.762620E+0	1.808846E+0	1.841877E+0	1.730012E+0	1.808617E+0	1.754819E+0	1.778375E+0	1.750827E+0	1.728560E+0	1.764626E+0	1.813959E+0	1.740793E+0	1.777782E+0	1.754833E+0	1.769839E+0	1.676674E+0	1.792555E+0	1.916050E+0	1.814463E+0	1.792151E+0	1.778687E+0	1.771127E+0	1.750884E+0	1.736062E+0	1.715067E+0	1.800925E+0	1.855542E+0	1.726119E+0	1.829298E+0	1.806708E+0	1.727824E+0	1.739702E+0	1.725335E+0	1.831820E+0	1.739018E+0	1.828884E+0	1.772558E+0	1.782373E+0	1.711581E+0	1.756417E+0	1.789203E+0	1.751873E+0	1.752999E+0	1.773483E+0	1.770857E+0	1.687325E+0	1.757161E+0	1.744037E+0	1.721340E+0	1.756481E+0	1.795408E+0	1.882453E+0
5.395050E+2	1.929088E+0	2.015147E+0	1.970375E+0	1.950143E+0	1.989029E+0	1.940968E+0	1.933620E+0	1.951709E+0	1.930186E+0	1.998918E+0	2.002308E+0	1.989912E+0	1.945080E+0	1.916940E+0	1.990347E+0	1.862737E+0	1.938073E+0	1.985364E+0	1.923436E+0	1.956070E+0	1.921332E+0	1.950308E+0	1.873092E+0	1.925079E+0	2.009427E+0	1.968903E+0	1.895213E+0	1.954554E+0	1.917099E+0	1.895439E+0	1.993171E+0	1.872129E+0	1.954133E+0	1.980223E+0	1.931261E+0	1.937046E+0	1.954821E+0	1.900948E+0	1.925364E+0	1.911006E+0	2.004566E+0	1.908252E+0	1.968899E+0	1.930922E+0	1.925333E+0	1.889532E+0	1.825944E+0	1.917949E+0	1.989028E+0	1.954822E+0	1.920869E+0	1.903510E+0	1.914722E+0	1.886301E+0	1.908532E+0	1.893862E+0	1.929515E+0	1.967198E+0	1.858850E+0	1.952067E+0	1.942831E+0	1.901896E+0	1.897223E+0	1.868339E+0	1.934681E+0	1.833773E+0	1.879993E+0	1.944878E+0	1.907058E+0	1.865655E+0	1.921554E+0	1.818673E+0	1.903525E+0	1.907111E+0	1.992894E+0	1.865322E+0	1.883865E+0	1.904583E+0	1.906198E+0	1.860244E+0	1.958960E+0	1.883092E+0	1.898441E+0	1.892014E+0	1.862464E+0	1.881150E+0	1.940009E+0	1.857742E+0	1.922099E+0	1.911839E+0	1.949321E+0	1.927503E+0	1.894221E+0	1.913412E+0	1.921122E+0	1.911315E+0	1.906236E+0	1.889744E+0	1.950793E+0	1.876381E+0	1.894295E+0	1.890913E+0	1.882291E+0	1.945113E+0	1.942011E+0	1.857185E+0	1.894520E+0	1.857195E+0	1.814362E+0	1.908674E+0	1.889839E+0	1.808705E+0	1.907570E+0	1.874384E+0	1.881860E+0	1.874737E+0	1.828521E+0	1.934621E+0	1.867142E+0	1.877860E+0	1.849747E+0	2.000993E+0	1.869074E+0	1.886671E+0	1.849317E+0	1.861426E+0	1.894775E+0	1.846034E+0	1.947662E+0	1.861923E+0	1.867627E+0	1.864581E+0	1.847187E+0	1.875862E+0	1.798973E+0	1.859382E+0	1.908752E+0	1.922447E+0	1.862863E+0	1.839265E+0	1.890394E+0	1.921472E+0	1.904584E+0	1.885446E+0	1.845835E+0	1.972275E+0	1.937999E+0	1.886493E+0	1.862622E+0	1.882865E+0	1.814283E+0	1.888663E+0	1.922743E+0	1.890118E+0	1.927840E+0	1.915281E+0	1.871740E+0	1.958682E+0	1.811367E+0	1.904094E+0	1.906799E+0	1.894596E+0	1.838302E+0	1.895439E+0	1.824470E+0	1.890009E+0	1.832226E+0	1.793159E+0	1.863633E+0	1.983754E+0	2.024905E+0	1.724996E+0
5.397700E+2	1.970056E+0	1.997814E+0	2.027918E+0	1.927076E+0	1.962527E+0	1.925767E+0	1.947465E+0	1.914336E+0	1.959758E+0	2.022376E+0	2.031044E+0	2.001103E+0	1.984559E+0	1.975898E+0	1.982945E+0	2.011792E+0	1.969253E+0	2.001480E+0	1.949378E+0	1.966691E+0	1.987329E+0	2.005442E+0	1.995527E+0	1.961875E+0	1.963647E+0	2.094077E+0	1.974002E+0	2.035871E+0	1.986197E+0	1.966260E+0	1.946608E+0	1.995450E+0	2.025620E+0	2.016381E+0	2.017089E+0	1.969192E+0	2.029201E+0	1.993931E+0	1.912956E+0	1.936567E+0	2.069292E+0	1.961763E+0	2.005422E+0	1.985637E+0	1.943262E+0	2.055242E+0	1.953951E+0	1.957786E+0	1.993666E+0	2.018305E+0	1.921632E+0	2.018709E+0	1.919910E+0	1.867116E+0	1.944142E+0	1.985178E+0	1.904176E+0	1.936615E+0	1.982786E+0	1.986639E+0	2.039545E+0	1.970094E+0	1.947500E+0	1.952096E+0	1.975497E+0	1.921544E+0	1.900238E+0	1.993708E+0	1.923710E+0	1.933913E+0	1.956711E+0	1.928756E+0	1.917350E+0	1.971416E+0	2.034277E+0	1.929068E+0	1.892390E+0	1.990334E+0	1.932018E+0	1.919784E+0	1.940520E+0	2.001175E+0	1.946833E+0	1.965050E+0	1.946710E+0	1.952666E+0	1.964468E+0	1.938324E+0	1.971762E+0	1.926410E+0	1.920615E+0	1.953346E+0	1.985724E+0	1.957467E+0	1.992241E+0	1.941986E+0	1.952480E+0	1.952686E+0	1.989249E+0	1.903313E+0	1.939876E+0	1.891942E+0	1.932269E+0	1.932270E+0	1.933717E+0	2.031833E+0	1.981938E+0	1.935979E+0	1.938255E+0	1.942378E+0	1.888531E+0	1.902384E+0	1.963684E+0	2.013780E+0	2.018080E+0	1.969145E+0	1.923148E+0	1.907800E+0	1.873708E+0	1.888576E+0	1.949477E+0	1.986865E+0	1.949161E+0	1.911162E+0	1.937588E+0	1.856845E+0	1.914965E+0	1.887487E+0	1.902505E+0	1.874369E+0	1.973082E+0	1.887684E+0	1.876919E+0	1.844037E+0	1.975189E+0	1.905350E+0	1.990146E+0	1.931350E+0	1.913815E+0	1.902408E+0	1.911173E+0	1.944324E+0	1.937196E+0	1.944071E+0	1.963022E+0	1.941778E+0	1.910649E+0	1.906991E+0	1.951858E+0	1.961237E+0	1.835244E+0	1.875496E+0	1.851505E+0	1.912946E+0	1.915362E+0	1.940077E+0	1.933215E+0	1.997639E+0	1.887499E+0	1.923457E+0	1.960615E+0	1.956971E+0	1.942473E+0	1.979682E+0	1.932033E+0	1.945165E+0	1.909702E+0	1.879187E+0	2.024231E+0	1.974597E+0	1.987608E+0	2.237188E+0
5.400350E+2	1.952877E+0	1.942455E+0	2.012503E+0	1.967201E+0	2.016839E+0	2.021574E+0	1.930403E+0	2.003973E+0	1.990222E+0	2.022845E+0	2.011852E+0	1.950645E+0	1.999460E+0	1.969943E+0	1.993011E+0	1.954232E+0	1.999026E+0	1.997319E+0	1.992146E+0	1.949043E+0	1.979018E+0	1.942612E+0	1.991179E+0	1.982671E+0	1.967446E+0	1.992056E+0	1.985133E+0	1.982081E+0	1.999764E+0	2.000786E+0	1.943106E+0	1.914184E+0	1.984518E+0	1.972662E+0	2.024859E+0	1.987920E+0	2.011417E+0	1.976377E+0	1.955076E+0	1.960673E+0	2.011033E+0	1.953629E+0	1.993346E+0	2.057302E+0	1.965875E+0	1.981697E+0	1.976786E+0	2.044612E+0	2.021771E+0	1.993757E+0	2.008710E+0	2.036494E+0	1.951064E+0	1.926581E+0	1.943252E+0	1.952833E+0	1.965873E+0	1.915330E+0	1.985035E+0	1.947154E+0	1.977131E+0	1.935895E+0	1.939680E+0	2.011347E+0	1.954598E+0	1.949081E+0	1.885559E+0	2.001108E+0	1.952587E+0	1.868494E+0	2.044583E+0	1.897052E+0	1.931371E+0	1.939357E+0	2.057929E+0	1.982904E+0	1.965026E+0	1.939019E+0	1.929728E+0	1.925509E+0	1.997783E+0	1.912168E+0	1.968253E+0	1.921227E+0	1.912255E+0	1.955312E+0	1.910986E+0	2.043361E+0	1.937788E+0	1.983238E+0	1.856281E+0	1.981792E+0	1.926920E+0	1.956251E+0	1.962299E+0	1.887168E+0	1.976722E+0	1.912531E+0	1.948909E+0	1.924805E+0	1.964538E+0	1.889162E+0	1.943347E+0	1.947619E+0	1.907935E+0	2.033255E+0	1.883218E+0	1.924455E+0	1.907333E+0	2.007098E+0	1.948461E+0	1.959626E+0	1.960458E+0	1.949579E+0	1.964955E+0	1.919417E+0	1.971381E+0	1.954778E+0	1.961349E+0	1.845592E+0	1.944400E+0	1.955907E+0	1.928909E+0	1.900812E+0	1.927725E+0	1.911525E+0	1.898637E+0	1.943309E+0	1.955291E+0	1.935581E+0	1.982091E+0	1.800715E+0	1.848149E+0	1.932285E+0	1.977423E+0	1.932569E+0	2.018279E+0	1.952697E+0	1.907585E+0	1.915203E+0	1.865981E+0	1.977699E+0	1.905248E+0	1.959337E+0	1.944222E+0	1.998772E+0	1.945216E+0	1.878285E+0	1.937289E+0	1.971691E+0	1.898024E+0	1.946238E+0	1.933631E+0	1.924370E+0	1.960384E+0	1.927932E+0	1.938696E+0	1.966923E+0	1.881814E+0	1.949750E+0	1.885962E+0	1.877447E+0	1.919299E+0	1.948119E+0	1.924677E+0	1.853123E+0	1.929294E+0	1.890197E+0	1.916796E+0	1.955734E+0	1.915072E+0	1.935431E+0
5.402630E+2	1.966586E+0	1.963516E+0	1.959152E+0	1.970305E+0	1.963003E+0	1.963574E+0	1.948754E+0	1.977324E+0	1.885427E+0	1.995749E+0	1.942926E+0	2.022565E+0	1.939990E+0	1.942359E+0	1.975965E+0	1.923519E+0	1.991589E+0	1.972113E+0	1.973371E+0	1.958030E+0	1.983389E+0	2.010633E+0	1.951842E+0	1.960341E+0	2.025036E+0	1.950525E+0	1.919733E+0	1.942518E+0	1.938300E+0	1.888658E+0	1.983657E+0	1.900372E+0	1.986893E+0	1.962206E+0	1.977658E+0	1.928474E+0	1.951392E+0	1.935344E+0	1.923773E+0	1.922755E+0	1.943962E+0	1.906512E+0	1.950103E+0	1.973596E+0	1.939602E+0	1.898355E+0	1.925434E+0	1.920654E+0	1.900703E+0	2.015892E+0	1.932396E+0	1.970745E+0	1.951099E+0	1.917319E+0	1.889060E+0	1.987533E+0	1.942082E+0	1.941981E+0	1.918895E+0	1.930777E+0	1.986726E+0	1.927227E+0	1.914374E+0	1.887761E+0	1.915332E+0	1.925931E+0	1.909382E+0	1.920188E+0	1.882751E+0	1.862619E+0	1.933923E+0	1.898857E+0	1.884345E+0	1.927392E+0	1.942942E+0	1.884995E+0	1.927952E+0	1.926013E+0	1.956979E+0	1.877511E+0	1.887016E+0	1.905615E+0	1.920236E+0	1.933557E+0	1.919413E+0	1.958584E+0	1.947817E+0	1.885408E+0	1.946489E+0	1.966443E+0	1.891092E+0	1.957267E+0	1.949947E+0	1.933167E+0	1.955956E+0	1.902117E+0	1.890990E+0	1.938224E+0	1.942296E+0	1.821176E+0	1.904814E+0	1.883555E+0	1.853282E+0	1.884324E+0	1.881980E+0	1.964637E+0	1.863405E+0	1.965953E+0	1.877185E+0	1.948259E+0	1.936532E+0	1.847053E+0	1.871171E+0	1.901648E+0	1.958647E+0	1.924320E+0	1.849871E+0	1.886714E+0	1.879070E+0	1.851130E+0	1.894727E+0	1.910540E+0	1.839074E+0	1.941053E+0	1.834823E+0	1.878981E+0	1.822095E+0	1.886874E+0	1.920333E+0	1.888700E+0	1.885342E+0	1.791421E+0	1.856422E+0	1.900727E+0	1.899669E+0	1.833512E+0	1.955555E+0	1.968642E+0	1.810800E+0	1.888889E+0	1.869753E+0	1.974425E+0	1.863203E+0	1.878930E+0	1.915200E+0	1.933834E+0	1.934071E+0	1.873300E+0	1.878308E+0	1.917196E+0	1.841411E+0	1.845664E+0	1.910214E+0	1.936258E+0	1.904994E+0	1.928503E+0	1.868974E+0	1.895932E+0	1.826987E+0	1.897619E+0	1.907565E+0	1.885768E+0	1.911902E+0	1.876693E+0	1.933685E+0	1.807828E+0	1.868980E+0	1.836254E+0	1.860816E+0	1.894210E+0	1.923697E+0	1.763168E+0
5.405240E+2	1.849558E+0	1.821520E+0	1.777370E+0	1.807685E+0	1.784234E+0	1.816826E+0	1.797045E+0	1.760929E+0	1.809856E+0	1.848022E+0	1.852856E+0	1.854799E+0	1.816458E+0	1.766202E+0	1.833800E+0	1.776321E+0	1.829920E+0	1.795295E+0	1.826872E+0	1.751003E+0	1.790806E+0	1.782802E+0	1.790038E+0	1.805628E+0	1.839183E+0	1.820645E+0	1.781686E+0	1.828600E+0	1.810488E+0	1.748547E+0	1.747268E+0	1.813347E+0	1.775079E+0	1.708687E+0	1.794131E+0	1.765155E+0	1.784826E+0	1.762306E+0	1.786036E+0	1.792473E+0	1.838855E+0	1.767893E+0	1.805714E+0	1.787590E+0	1.759916E+0	1.780093E+0	1.706746E+0	1.783800E+0	1.838257E+0	1.786040E+0	1.790402E+0	1.859345E+0	1.795690E+0	1.776847E+0	1.790642E+0	1.746060E+0	1.747025E+0	1.795093E+0	1.792151E+0	1.755574E+0	1.829317E+0	1.687691E+0	1.788995E+0	1.739457E+0	1.735438E+0	1.772607E+0	1.759172E+0	1.784767E+0	1.689932E+0	1.743270E+0	1.751794E+0	1.676209E+0	1.757113E+0	1.809570E+0	1.793493E+0	1.774733E+0	1.772563E+0	1.771395E+0	1.735597E+0	1.771756E+0	1.743562E+0	1.818273E+0	1.749430E+0	1.722529E+0	1.741767E+0	1.768482E+0	1.733059E+0	1.780808E+0	1.756204E+0	1.735905E+0	1.679462E+0	1.761739E+0	1.734432E+0	1.781308E+0	1.778431E+0	1.744868E+0	1.734310E+0	1.782592E+0	1.764798E+0	1.694610E+0	1.755969E+0	1.773759E+0	1.732939E+0	1.755676E+0	1.787048E+0	1.778930E+0	1.768961E+0	1.690170E+0	1.756667E+0	1.810328E+0	1.748070E+0	1.795766E+0	1.778511E+0	1.798522E+0	1.721936E+0	1.735919E+0	1.719360E+0	1.755951E+0	1.778278E+0	1.712354E+0	1.765807E+0	1.866096E+0	1.709267E+0	1.700985E+0	1.775077E+0	1.792446E+0	1.714841E+0	1.709256E+0	1.778841E+0	1.778986E+0	1.851026E+0	1.756631E+0	1.755672E+0	1.720827E+0	1.724155E+0	1.716101E+0	1.787498E+0	1.757512E+0	1.709183E+0	1.720726E+0	1.737993E+0	1.744381E+0	1.723940E+0	1.797656E+0	1.797176E+0	1.781905E+0	1.714106E+0	1.724845E+0	1.730874E+0	1.751742E+0	1.704738E+0	1.719787E+0	1.755787E+0	1.839459E+0	1.723001E+0	1.790048E+0	1.718703E+0	1.790831E+0	1.676941E+0	1.793123E+0	1.756979E+0	1.761060E+0	1.726849E+0	1.705504E+0	1.742033E+0	1.745335E+0	1.724828E+0	1.737212E+0	1.790904E+0	1.757041E+0	1.813940E+0	1.846602E+0
5.407580E+2	1.756436E+0	1.731151E+0	1.744138E+0	1.747292E+0	1.743756E+0	1.738002E+0	1.798705E+0	1.766510E+0	1.722608E+0	1.770820E+0	1.722722E+0	1.770205E+0	1.769495E+0	1.762452E+0	1.754556E+0	1.682732E+0	1.812737E+0	1.789678E+0	1.717649E+0	1.757337E+0	1.789487E+0	1.811133E+0	1.744276E+0	1.718281E+0	1.760049E+0	1.774082E+0	1.736696E+0	1.740053E+0	1.726682E+0	1.767841E+0	1.765530E+0	1.770789E+0	1.790975E+0	1.800001E+0	1.808555E+0	1.776613E+0	1.802404E+0	1.719132E+0	1.716263E+0	1.731417E+0	1.784655E+0	1.777733E+0	1.762753E+0	1.720363E+0	1.669416E+0	1.730970E+0	1.728457E+0	1.716123E+0	1.800139E+0	1.790180E+0	1.767330E+0	1.656509E+0	1.688397E+0	1.720501E+0	1.713096E+0	1.753836E+0	1.754048E+0	1.689449E+0	1.793988E+0	1.727444E+0	1.783473E+0	1.643086E+0	1.739935E+0	1.767776E+0	1.680907E+0	1.697912E+0	1.728142E+0	1.770874E+0	1.674983E+0	1.709834E+0	1.690437E+0	1.682604E+0	1.753945E+0	1.808797E+0	1.705778E+0	1.709211E+0	1.709767E+0	1.785981E+0	1.700919E+0	1.785017E+0	1.691820E+0	1.724977E+0	1.732994E+0	1.767135E+0	1.663115E+0	1.709086E+0	1.736098E+0	1.663118E+0	1.707196E+0	1.717037E+0	1.756234E+0	1.748307E+0	1.677486E+0	1.700958E+0	1.749261E+0	1.729779E+0	1.737461E+0	1.745988E+0	1.733735E+0	1.677295E+0	1.743003E+0	1.698672E+0	1.719168E+0	1.750351E+0	1.723779E+0	1.742277E+0	1.699817E+0	1.667772E+0	1.693078E+0	1.703444E+0	1.703442E+0	1.691639E+0	1.736073E+0	1.724219E+0	1.715993E+0	1.669589E+0	1.685742E+0	1.734250E+0	1.645390E+0	1.730346E+0	1.652653E+0	1.708863E+0	1.722922E+0	1.724332E+0	1.665665E+0	1.710514E+0	1.679941E+0	1.724418E+0	1.743805E+0	1.717947E+0	1.712690E+0	1.624462E+0	1.637029E+0	1.716050E+0	1.654128E+0	1.623254E+0	1.777448E+0	1.773101E+0	1.624185E+0	1.709570E+0	1.729050E+0	1.733192E+0	1.709250E+0	1.732147E+0	1.702618E+0	1.775488E+0	1.754235E+0	1.632611E+0	1.752551E+0	1.764629E+0	1.614427E+0	1.675293E+0	1.660702E+0	1.697288E+0	1.659235E+0	1.761743E+0	1.709124E+0	1.752985E+0	1.670303E+0	1.701396E+0	1.737265E+0	1.677800E+0	1.704349E+0	1.766806E+0	1.716876E+0	1.642140E+0	1.731353E+0	1.680624E+0	1.707802E+0	1.685898E+0	1.698008E+0	1.618647E+0
5.410400E+2	1.722892E+0	1.752316E+0	1.706221E+0	1.759937E+0	1.758712E+0	1.654776E+0	1.708254E+0	1.674958E+0	1.698196E+0	1.777011E+0	1.716719E+0	1.710422E+0	1.767424E+0	1.696061E+0	1.681196E+0	1.707376E+0	1.794959E+0	1.731271E+0	1.703270E+0	1.739007E+0	1.721897E+0	1.730253E+0	1.733060E+0	1.732992E+0	1.796480E+0	1.733259E+0	1.695838E+0	1.718734E+0	1.751405E+0	1.646862E+0	1.734586E+0	1.690431E+0	1.747179E+0	1.716250E+0	1.731739E+0	1.673293E+0	1.747597E+0	1.691247E+0	1.656928E+0	1.664436E+0	1.762447E+0	1.716739E+0	1.710572E+0	1.693507E+0	1.713118E+0	1.745241E+0	1.737683E+0	1.747518E+0	1.770393E+0	1.776374E+0	1.750621E+0	1.729321E+0	1.708815E+0	1.700256E+0	1.681840E+0	1.709535E+0	1.739810E+0	1.677960E+0	1.688226E+0	1.687179E+0	1.687774E+0	1.706837E+0	1.696690E+0	1.746451E+0	1.688238E+0	1.654577E+0	1.704500E+0	1.763296E+0	1.712158E+0	1.702520E+0	1.718367E+0	1.662815E+0	1.649768E+0	1.754758E+0	1.741103E+0	1.706343E+0	1.685772E+0	1.707894E+0	1.660397E+0	1.697082E+0	1.658428E+0	1.656156E+0	1.680753E+0	1.672718E+0	1.727382E+0	1.678866E+0	1.747984E+0	1.720800E+0	1.650838E+0	1.725450E+0	1.666081E+0	1.649048E+0	1.697125E+0	1.730327E+0	1.694463E+0	1.739378E+0	1.657686E+0	1.660725E+0	1.745172E+0	1.656225E+0	1.730364E+0	1.692449E+0	1.700551E+0	1.643828E+0	1.711371E+0	1.699534E+0	1.630816E+0	1.656965E+0	1.692198E+0	1.664564E+0	1.716778E+0	1.697887E+0	1.719453E+0	1.757503E+0	1.697830E+0	1.639452E+0	1.714619E+0	1.663762E+0	1.688796E+0	1.701679E+0	1.654900E+0	1.720926E+0	1.649359E+0	1.677641E+0	1.671981E+0	1.671027E+0	1.689939E+0	1.654786E+0	1.713373E+0	1.671164E+0	1.675834E+0	1.647020E+0	1.636210E+0	1.667155E+0	1.713380E+0	1.667893E+0	1.757670E+0	1.775845E+0	1.614351E+0	1.675961E+0	1.697357E+0	1.728073E+0	1.664867E+0	1.698726E+0	1.702625E+0	1.709493E+0	1.660283E+0	1.657799E+0	1.754748E+0	1.656168E+0	1.642143E+0	1.663475E+0	1.656348E+0	1.794022E+0	1.680826E+0	1.652856E+0	1.688225E+0	1.681144E+0	1.693400E+0	1.630287E+0	1.722144E+0	1.672753E+0	1.706826E+0	1.672268E+0	1.737249E+0	1.644297E+0	1.672584E+0	1.658121E+0	1.709483E+0	1.702279E+0	1.603415E+0	1.659499E+0
5.412640E+2	1.539001E+0	1.574564E+0	1.518666E+0	1.552493E+0	1.534622E+0	1.561783E+0	1.614961E+0	1.575256E+0	1.536180E+0	1.588112E+0	1.578259E+0	1.578792E+0	1.585701E+0	1.605213E+0	1.548607E+0	1.548778E+0	1.571374E+0	1.539373E+0	1.525513E+0	1.573426E+0	1.550565E+0	1.550960E+0	1.491967E+0	1.603605E+0	1.589086E+0	1.603201E+0	1.519985E+0	1.585357E+0	1.546817E+0	1.571817E+0	1.554970E+0	1.570971E+0	1.543999E+0	1.580734E+0	1.608070E+0	1.490090E+0	1.585298E+0	1.550979E+0	1.529908E+0	1.477518E+0	1.667782E+0	1.583478E+0	1.595887E+0	1.586692E+0	1.562943E+0	1.558145E+0	1.543040E+0	1.509412E+0	1.656938E+0	1.563328E+0	1.557983E+0	1.575780E+0	1.543912E+0	1.572730E+0	1.518497E+0	1.546700E+0	1.567237E+0	1.565502E+0	1.496325E+0	1.591711E+0	1.582583E+0	1.530802E+0	1.544946E+0	1.548316E+0	1.557342E+0	1.528592E+0	1.562019E+0	1.555695E+0	1.530078E+0	1.559025E+0	1.561590E+0	1.489580E+0	1.531567E+0	1.645416E+0	1.565109E+0	1.469352E+0	1.536689E+0	1.536790E+0	1.578726E+0	1.511404E+0	1.539632E+0	1.530039E+0	1.554212E+0	1.523677E+0	1.492329E+0	1.543905E+0	1.534623E+0	1.510818E+0	1.558060E+0	1.567963E+0	1.534584E+0	1.585643E+0	1.599824E+0	1.594231E+0	1.508754E+0	1.500071E+0	1.577680E+0	1.525027E+0	1.580461E+0	1.552184E+0	1.581202E+0	1.494267E+0	1.564043E+0	1.501115E+0	1.620884E+0	1.587950E+0	1.535452E+0	1.550719E+0	1.515077E+0	1.572592E+0	1.548635E+0	1.527962E+0	1.611147E+0	1.559041E+0	1.551822E+0	1.519799E+0	1.536129E+0	1.567696E+0	1.508604E+0	1.580565E+0	1.503215E+0	1.598850E+0	1.506428E+0	1.497441E+0	1.556460E+0	1.513385E+0	1.581296E+0	1.526074E+0	1.595438E+0	1.549433E+0	1.570902E+0	1.443860E+0	1.487483E+0	1.503461E+0	1.469379E+0	1.550776E+0	1.544072E+0	1.555650E+0	1.491173E+0	1.516088E+0	1.562081E+0	1.607911E+0	1.531824E+0	1.542568E+0	1.589890E+0	1.593915E+0	1.528500E+0	1.490254E+0	1.580419E+0	1.546933E+0	1.497017E+0	1.503964E+0	1.506740E+0	1.553966E+0	1.545606E+0	1.541505E+0	1.558245E+0	1.551927E+0	1.508167E+0	1.479895E+0	1.543892E+0	1.533279E+0	1.544317E+0	1.531296E+0	1.552579E+0	1.538368E+0	1.508837E+0	1.568483E+0	1.501537E+0	1.619966E+0	1.605221E+0	1.705362E+0
5.415140E+2	1.451297E+0	1.431697E+0	1.424910E+0	1.452002E+0	1.470646E+0	1.460099E+0	1.452850E+0	1.398227E+0	1.437351E+0	1.465804E+0	1.495282E+0	1.471185E+0	1.436146E+0	1.461666E+0	1.467690E+0	1.420354E+0	1.534134E+0	1.445327E+0	1.482487E+0	1.449413E+0	1.423723E+0	1.447417E+0	1.463784E+0	1.435446E+0	1.499665E+0	1.501424E+0	1.437378E+0	1.427829E+0	1.499785E+0	1.384591E+0	1.421691E+0	1.421218E+0	1.456827E+0	1.440466E+0	1.535671E+0	1.429409E+0	1.467154E+0	1.428730E+0	1.451081E+0	1.451644E+0	1.513671E+0	1.438266E+0	1.522518E+0	1.477427E+0	1.415306E+0	1.414240E+0	1.428584E+0	1.431304E+0	1.511744E+0	1.458636E+0	1.388114E+0	1.475916E+0	1.409752E+0	1.423557E+0	1.488825E+0	1.476528E+0	1.489454E+0	1.437178E+0	1.422313E+0	1.388930E+0	1.473552E+0	1.429014E+0	1.430191E+0	1.426718E+0	1.408545E+0	1.418231E+0	1.436578E+0	1.439620E+0	1.411515E+0	1.393169E+0	1.466672E+0	1.430156E+0	1.388967E+0	1.450222E+0	1.439247E+0	1.399444E+0	1.444264E+0	1.480052E+0	1.426805E+0	1.446991E+0	1.484365E+0	1.425470E+0	1.399860E+0	1.378735E+0	1.399383E+0	1.428817E+0	1.431196E+0	1.448472E+0	1.433221E+0	1.485435E+0	1.412928E+0	1.445254E+0	1.472436E+0	1.447417E+0	1.440553E+0	1.423602E+0	1.427605E+0	1.374941E+0	1.460983E+0	1.346705E+0	1.393794E+0	1.364345E+0	1.430680E+0	1.371440E+0	1.459669E+0	1.423387E+0	1.385477E+0	1.390645E+0	1.426721E+0	1.472967E+0	1.446604E+0	1.445127E+0	1.441040E+0	1.467486E+0	1.467266E+0	1.420123E+0	1.424693E+0	1.398488E+0	1.430321E+0	1.418518E+0	1.413914E+0	1.440879E+0	1.440951E+0	1.456127E+0	1.409870E+0	1.435990E+0	1.473431E+0	1.438055E+0	1.418797E+0	1.406997E+0	1.457545E+0	1.385678E+0	1.422020E+0	1.436424E+0	1.415471E+0	1.391110E+0	1.490935E+0	1.436425E+0	1.362455E+0	1.426561E+0	1.442677E+0	1.441143E+0	1.426536E+0	1.436066E+0	1.477513E+0	1.472941E+0	1.480145E+0	1.408234E+0	1.442214E+0	1.448839E+0	1.464104E+0	1.341376E+0	1.409383E+0	1.546163E+0	1.464728E+0	1.427528E+0	1.382202E+0	1.442523E+0	1.365280E+0	1.450342E+0	1.415613E+0	1.452868E+0	1.411313E+0	1.416590E+0	1.386856E+0	1.380975E+0	1.405347E+0	1.456540E+0	1.436609E+0	1.488926E+0	1.371873E+0	1.318405E+0
5.417760E+2	1.301907E+0	1.375143E+0	1.366406E+0	1.357672E+0	1.307832E+0	1.341878E+0	1.364678E+0	1.272516E+0	1.357038E+0	1.351917E+0	1.367405E+0	1.316916E+0	1.334002E+0	1.333407E+0	1.334459E+0	1.256114E+0	1.275496E+0	1.350540E+0	1.338089E+0	1.336174E+0	1.292981E+0	1.312669E+0	1.323412E+0	1.322319E+0	1.328610E+0	1.389441E+0	1.319817E+0	1.350581E+0	1.338595E+0	1.291955E+0	1.327572E+0	1.294446E+0	1.347478E+0	1.342375E+0	1.357737E+0	1.280121E+0	1.379092E+0	1.319332E+0	1.362025E+0	1.345784E+0	1.361653E+0	1.299380E+0	1.322624E+0	1.353563E+0	1.296902E+0	1.343663E+0	1.290888E+0	1.288212E+0	1.379159E+0	1.363507E+0	1.339434E+0	1.330867E+0	1.335850E+0	1.277668E+0	1.296414E+0	1.346946E+0	1.345776E+0	1.368905E+0	1.363083E+0	1.319350E+0	1.345978E+0	1.351890E+0	1.353850E+0	1.354579E+0	1.316979E+0	1.298571E+0	1.321009E+0	1.320713E+0	1.309583E+0	1.286421E+0	1.344848E+0	1.259953E+0	1.297371E+0	1.283438E+0	1.371958E+0	1.262925E+0	1.298904E+0	1.299249E+0	1.340686E+0	1.256961E+0	1.322986E+0	1.353425E+0	1.307628E+0	1.312828E+0	1.302971E+0	1.319012E+0	1.267503E+0	1.300990E+0	1.343552E+0	1.302321E+0	1.273423E+0	1.345426E+0	1.293766E+0	1.295068E+0	1.344723E+0	1.276965E+0	1.302102E+0	1.327027E+0	1.364777E+0	1.310484E+0	1.323846E+0	1.332590E+0	1.319663E+0	1.338312E+0	1.280632E+0	1.319419E+0	1.302506E+0	1.332495E+0	1.304879E+0	1.325764E+0	1.345875E+0	1.315909E+0	1.370407E+0	1.327169E+0	1.304578E+0	1.285343E+0	1.299465E+0	1.301154E+0	1.353051E+0	1.290124E+0	1.312110E+0	1.307402E+0	1.360346E+0	1.267673E+0	1.268758E+0	1.301950E+0	1.261327E+0	1.323541E+0	1.350053E+0	1.332774E+0	1.381642E+0	1.321359E+0	1.343967E+0	1.320557E+0	1.293644E+0	1.273388E+0	1.356336E+0	1.353497E+0	1.300153E+0	1.313127E+0	1.281696E+0	1.340550E+0	1.301203E+0	1.281209E+0	1.290453E+0	1.287490E+0	1.342310E+0	1.260280E+0	1.295837E+0	1.319065E+0	1.302862E+0	1.343026E+0	1.287188E+0	1.367610E+0	1.318189E+0	1.317945E+0	1.366850E+0	1.347356E+0	1.268552E+0	1.329138E+0	1.348458E+0	1.294046E+0	1.287349E+0	1.282124E+0	1.287070E+0	1.294820E+0	1.270040E+0	1.306255E+0	1.325643E+0	1.304867E+0	1.343393E+0	1.418624E+0
5.420110E+2	1.137830E+0	1.194882E+0	1.119126E+0	1.130027E+0	1.140565E+0	1.127241E+0	1.176722E+0	1.108929E+0	1.170963E+0	1.175672E+0	1.111944E+0	1.154745E+0	1.170463E+0	1.156870E+0	1.187213E+0	1.089119E+0	1.172170E+0	1.114210E+0	1.131856E+0	1.157688E+0	1.171237E+0	1.142637E+0	1.123631E+0	1.135944E+0	1.161639E+0	1.163173E+0	1.158306E+0	1.108628E+0	1.145618E+0	1.145591E+0	1.134319E+0	1.147482E+0	1.172567E+0	1.139320E+0	1.153417E+0	1.139895E+0	1.138107E+0	1.139585E+0	1.144614E+0	1.102810E+0	1.179705E+0	1.149984E+0	1.141888E+0	1.201608E+0	1.160610E+0	1.186589E+0	1.145788E+0	1.092369E+0	1.209694E+0	1.155008E+0	1.128401E+0	1.138205E+0	1.120676E+0	1.142826E+0	1.141460E+0	1.131731E+0	1.151793E+0	1.163704E+0	1.121079E+0	1.124113E+0	1.142550E+0	1.157786E+0	1.135915E+0	1.111118E+0	1.104526E+0	1.101586E+0	1.124293E+0	1.111930E+0	1.081430E+0	1.079503E+0	1.119176E+0	1.132950E+0	1.149645E+0	1.186626E+0	1.168399E+0	1.128010E+0	1.135119E+0	1.113587E+0	1.129373E+0	1.141032E+0	1.152181E+0	1.157523E+0	1.118086E+0	1.150695E+0	1.127082E+0	1.149107E+0	1.139132E+0	1.112598E+0	1.178183E+0	1.136038E+0	1.143876E+0	1.115109E+0	1.165319E+0	1.146912E+0	1.165522E+0	1.135136E+0	1.155248E+0	1.122321E+0	1.111594E+0	1.117815E+0	1.146705E+0	1.128650E+0	1.108806E+0	1.075197E+0	1.151174E+0	1.210960E+0	1.127647E+0	1.148658E+0	1.081512E+0	1.156662E+0	1.125673E+0	1.098642E+0	1.156246E+0	1.159608E+0	1.174967E+0	1.118820E+0	1.142459E+0	1.158466E+0	1.132718E+0	1.130409E+0	1.080809E+0	1.138709E+0	1.096349E+0	1.117977E+0	1.141475E+0	1.097690E+0	1.159440E+0	1.107585E+0	1.145385E+0	1.090024E+0	1.122142E+0	1.100023E+0	1.104094E+0	1.193114E+0	1.134912E+0	1.188453E+0	1.217138E+0	1.123469E+0	1.096300E+0	1.092705E+0	1.165115E+0	1.128474E+0	1.119331E+0	1.111365E+0	1.154661E+0	1.132621E+0	1.099981E+0	1.129781E+0	1.156134E+0	1.172487E+0	1.114982E+0	1.132660E+0	1.142429E+0	1.192882E+0	1.193074E+0	1.175401E+0	1.096913E+0	1.137408E+0	1.115678E+0	1.124938E+0	1.194174E+0	1.113455E+0	1.174592E+0	1.187306E+0	1.198967E+0	1.162979E+0	1.105456E+0	1.135476E+0	1.193105E+0	1.070285E+0	1.178161E+0	1.193770E+0
5.422620E+2	1.003378E+0	9.909400E-1	1.013722E+0	9.749232E-1	1.004332E+0	1.014281E+0	9.866489E-1	1.026672E+0	9.271609E-1	1.040238E+0	1.066664E+0	9.990638E-1	1.001306E+0	9.915145E-1	1.002975E+0	9.315553E-1	1.019910E+0	1.000681E+0	9.890326E-1	9.663991E-1	9.853796E-1	1.026999E+0	9.981317E-1	1.014545E+0	1.000815E+0	1.029656E+0	1.005111E+0	1.009935E+0	9.780174E-1	9.812938E-1	9.919138E-1	1.016882E+0	9.531127E-1	9.451756E-1	9.956584E-1	9.855467E-1	9.968288E-1	1.033454E+0	9.562393E-1	9.652809E-1	9.741534E-1	1.017791E+0	9.860981E-1	9.899890E-1	9.821738E-1	9.821665E-1	9.798748E-1	9.892845E-1	1.031564E+0	1.001023E+0	1.027822E+0	1.018816E+0	9.917694E-1	1.020888E+0	9.838966E-1	9.882720E-1	1.003246E+0	1.051020E+0	9.821781E-1	1.009528E+0	1.053599E+0	9.962311E-1	1.005317E+0	9.765306E-1	1.035772E+0	9.848480E-1	1.023432E+0	1.014599E+0	9.982819E-1	9.611684E-1	9.984589E-1	9.806631E-1	9.771171E-1	1.016637E+0	9.750679E-1	9.875805E-1	9.911059E-1	9.692602E-1	1.031861E+0	9.543232E-1	1.002475E+0	1.024736E+0	1.000411E+0	9.776439E-1	9.949598E-1	9.857977E-1	9.956367E-1	1.043799E+0	1.041188E+0	1.015869E+0	1.012290E+0	1.015432E+0	1.014846E+0	9.925809E-1	9.933865E-1	9.877696E-1	9.857691E-1	9.883497E-1	1.015342E+0	9.911750E-1	1.010559E+0	9.972633E-1	1.012687E+0	9.946525E-1	1.018042E+0	9.775144E-1	9.998950E-1	1.006338E+0	1.004846E+0	9.791716E-1	1.012967E+0	9.860943E-1	1.012588E+0	9.978751E-1	9.868090E-1	9.697616E-1	9.501818E-1	9.715848E-1	9.590719E-1	9.691933E-1	1.063629E+0	9.753909E-1	9.818105E-1	1.006815E+0	9.863714E-1	9.760347E-1	9.932560E-1	9.970454E-1	9.947927E-1	9.991794E-1	9.578274E-1	9.456749E-1	9.247661E-1	1.000662E+0	9.896872E-1	9.621608E-1	1.073349E+0	1.047866E+0	9.667494E-1	9.436185E-1	1.010801E+0	9.887873E-1	9.789778E-1	9.947272E-1	9.607683E-1	1.009070E+0	9.850387E-1	1.028502E+0	1.027512E+0	9.802795E-1	9.959555E-1	9.964413E-1	9.959468E-1	1.067190E+0	9.773706E-1	1.038285E+0	9.632802E-1	1.003732E+0	9.771817E-1	1.006581E+0	1.018724E+0	9.856902E-1	9.818157E-1	1.063037E+0	1.031034E+0	1.033306E+0	9.734386E-1	1.010464E+0	9.876542E-1	1.091933E+0	9.961161E-1	1.002239E+0
5.425190E+2	8.807513E-1	9.696077E-1	9.333981E-1	8.820809E-1	9.453995E-1	8.942182E-1	9.113747E-1	9.577001E-1	9.489367E-1	9.519697E-1	9.524892E-1	9.106638E-1	9.165713E-1	9.232431E-1	9.277772E-1	8.623481E-1	9.122696E-1	9.323086E-1	9.095272E-1	8.979331E-1	9.301844E-1	9.384121E-1	9.195317E-1	9.604511E-1	1.002983E+0	9.420258E-1	9.202435E-1	9.520898E-1	9.439164E-1	9.174746E-1	9.175090E-1	9.115173E-1	9.048420E-1	8.792209E-1	9.798682E-1	9.104873E-1	9.469170E-1	9.170760E-1	9.273760E-1	9.134930E-1	9.095028E-1	9.009312E-1	9.625059E-1	9.727852E-1	8.948911E-1	9.326765E-1	9.111142E-1	9.686036E-1	9.105455E-1	9.718222E-1	9.623054E-1	9.405759E-1	8.751951E-1	8.711971E-1	8.891920E-1	8.713469E-1	9.117035E-1	9.505686E-1	9.477224E-1	8.750921E-1	9.625554E-1	9.020504E-1	9.152762E-1	9.718396E-1	9.638847E-1	8.933660E-1	9.248208E-1	9.219599E-1	8.863381E-1	9.294511E-1	9.529131E-1	9.022679E-1	8.995564E-1	9.170492E-1	9.134128E-1	9.094783E-1	9.265131E-1	9.455300E-1	9.068763E-1	8.998721E-1	9.246577E-1	9.194088E-1	9.031482E-1	9.081351E-1	9.033531E-1	9.460056E-1	9.229371E-1	9.146630E-1	9.031856E-1	9.759041E-1	8.847483E-1	8.824535E-1	9.295963E-1	9.506621E-1	9.351603E-1	9.143825E-1	9.324263E-1	9.397961E-1	9.846031E-1	9.010008E-1	9.141716E-1	9.136544E-1	9.066731E-1	9.133495E-1	8.753031E-1	9.524520E-1	9.606932E-1	9.462564E-1	9.459193E-1	9.387853E-1	9.202847E-1	9.238123E-1	8.977584E-1	9.341351E-1	9.353499E-1	9.206064E-1	8.944983E-1	9.280888E-1	9.187230E-1	9.428698E-1	8.811988E-1	9.389091E-1	9.243656E-1	9.140504E-1	9.547180E-1	9.268854E-1	9.102578E-1	8.827329E-1	9.979258E-1	9.031560E-1	9.415658E-1	9.087834E-1	9.149319E-1	9.206743E-1	9.617178E-1	8.630360E-1	1.008894E+0	9.675207E-1	9.186959E-1	9.198099E-1	9.307056E-1	9.377601E-1	9.482723E-1	9.198631E-1	9.402996E-1	9.520652E-1	9.765801E-1	9.206706E-1	9.189174E-1	9.280554E-1	9.163013E-1	9.055124E-1	9.243698E-1	9.200614E-1	9.185451E-1	9.126242E-1	9.079392E-1	9.560836E-1	9.045947E-1	9.018952E-1	9.459970E-1	9.452482E-1	9.358808E-1	8.795075E-1	9.576763E-1	9.754990E-1	9.567226E-1	9.084386E-1	9.237053E-1	9.006142E-1	9.102347E-1	8.214523E-1
5.427650E+2	9.273838E-1	9.358653E-1	1.004726E+0	1.020021E+0	9.489696E-1	9.649805E-1	9.492235E-1	9.855771E-1	9.449168E-1	9.624293E-1	9.784415E-1	9.739159E-1	9.563937E-1	9.342607E-1	9.802897E-1	9.121860E-1	9.929063E-1	9.588912E-1	9.631776E-1	9.230834E-1	9.163977E-1	1.000342E+0	9.471484E-1	9.852673E-1	9.700002E-1	9.487401E-1	9.593727E-1	9.768034E-1	9.859981E-1	9.480660E-1	9.702650E-1	9.779896E-1	9.714114E-1	9.619342E-1	9.885639E-1	9.440647E-1	9.607026E-1	9.660719E-1	9.556018E-1	9.274456E-1	9.752630E-1	9.541125E-1	9.700737E-1	9.857918E-1	9.745724E-1	9.433734E-1	9.503824E-1	9.397906E-1	9.742117E-1	9.791878E-1	9.784563E-1	9.910092E-1	9.225725E-1	9.442263E-1	9.378717E-1	9.465718E-1	9.453990E-1	9.679637E-1	9.698682E-1	9.972023E-1	9.622601E-1	9.241269E-1	9.599933E-1	9.501824E-1	9.233996E-1	9.528377E-1	9.338247E-1	9.719083E-1	9.096993E-1	9.307032E-1	9.596976E-1	8.947067E-1	9.025447E-1	9.470433E-1	9.624716E-1	9.540345E-1	9.646189E-1	9.886753E-1	9.419135E-1	9.676821E-1	9.425736E-1	9.755254E-1	9.663037E-1	9.527636E-1	9.622868E-1	9.719279E-1	9.395153E-1	9.553579E-1	9.680185E-1	9.531035E-1	9.181176E-1	9.307005E-1	1.015511E+0	9.871004E-1	1.005501E+0	9.558881E-1	9.857778E-1	9.513802E-1	9.621200E-1	9.539071E-1	9.268458E-1	9.569693E-1	9.389733E-1	9.620902E-1	9.226667E-1	9.604447E-1	9.178262E-1	9.482833E-1	9.108347E-1	9.652700E-1	9.644428E-1	9.222193E-1	9.858956E-1	9.561942E-1	9.897253E-1	9.326044E-1	9.082491E-1	9.790796E-1	9.019886E-1	9.515086E-1	9.096769E-1	9.967290E-1	9.394560E-1	9.862353E-1	9.665448E-1	9.199721E-1	9.623443E-1	9.693740E-1	1.009915E+0	9.420505E-1	9.758740E-1	9.330301E-1	9.434364E-1	9.457325E-1	9.576948E-1	9.440887E-1	1.012263E+0	9.881894E-1	9.218388E-1	9.281965E-1	9.379655E-1	9.477310E-1	9.586078E-1	9.696623E-1	9.909059E-1	9.649918E-1	9.377111E-1	9.422023E-1	9.711049E-1	9.823776E-1	9.058858E-1	8.946076E-1	9.433827E-1	9.095319E-1	9.539683E-1	9.186231E-1	9.656953E-1	9.887160E-1	9.176127E-1	9.169877E-1	1.011903E+0	9.420059E-1	9.486356E-1	9.684515E-1	9.499061E-1	9.504101E-1	9.527702E-1	9.445142E-1	9.729904E-1	1.066753E+0	1.054620E+0	8.643885E-1
5.430120E+2	9.887741E-1	9.911521E-1	9.875087E-1	1.066293E+0	1.011434E+0	1.008162E+0	9.913067E-1	1.013971E+0	9.926266E-1	1.027027E+0	1.046007E+0	9.997459E-1	1.033189E+0	1.054750E+0	1.052545E+0	9.816970E-1	9.918045E-1	9.811287E-1	9.999655E-1	1.007816E+0	1.030317E+0	9.839980E-1	1.042199E+0	1.021807E+0	1.002608E+0	1.066480E+0	1.000707E+0	1.042923E+0	9.981897E-1	1.001772E+0	1.039549E+0	9.858816E-1	1.063273E+0	1.028903E+0	1.025144E+0	1.023614E+0	1.033751E+0	1.044555E+0	1.011966E+0	1.020143E+0	1.032622E+0	1.021410E+0	1.021793E+0	9.936046E-1	9.960672E-1	1.030807E+0	9.869672E-1	1.048995E+0	9.983357E-1	1.037004E+0	1.039838E+0	1.014054E+0	1.019935E+0	1.020712E+0	9.758425E-1	1.026782E+0	1.005337E+0	1.029742E+0	9.709084E-1	9.917548E-1	1.021127E+0	9.702804E-1	1.029104E+0	1.033320E+0	1.005393E+0	9.826045E-1	9.711907E-1	1.050072E+0	9.984553E-1	1.006598E+0	1.017961E+0	9.819086E-1	9.692172E-1	9.933044E-1	1.013581E+0	9.966108E-1	1.039227E+0	9.867274E-1	9.732767E-1	1.006641E+0	1.048247E+0	9.665181E-1	1.022484E+0	1.023520E+0	1.015711E+0	1.019889E+0	1.011578E+0	1.016806E+0	9.892760E-1	9.975411E-1	1.019186E+0	9.928940E-1	9.937016E-1	9.778397E-1	1.001536E+0	9.912217E-1	1.001235E+0	1.032880E+0	1.040103E+0	9.690052E-1	1.019705E+0	9.975771E-1	1.031361E+0	9.958667E-1	1.008623E+0	1.001655E+0	1.013532E+0	1.041911E+0	9.726247E-1	1.026699E+0	1.020161E+0	1.004233E+0	1.012704E+0	1.042894E+0	1.027872E+0	9.800471E-1	9.631787E-1	1.002386E+0	1.020326E+0	1.035531E+0	9.845482E-1	1.039289E+0	1.004102E+0	9.976083E-1	1.008229E+0	9.932471E-1	1.008635E+0	9.973252E-1	1.023891E+0	9.520858E-1	1.020873E+0	9.413538E-1	1.002801E+0	9.834558E-1	1.019823E+0	9.554949E-1	1.059902E+0	1.001668E+0	9.995775E-1	9.689586E-1	1.013774E+0	1.016373E+0	9.948211E-1	1.008492E+0	9.880406E-1	1.028750E+0	9.882544E-1	1.012720E+0	1.047175E+0	1.071047E+0	1.019595E+0	1.007024E+0	9.768596E-1	1.052965E+0	1.032229E+0	1.010495E+0	9.764851E-1	9.951696E-1	1.015739E+0	1.029375E+0	1.048912E+0	1.035944E+0	1.030904E+0	1.050489E+0	1.022924E+0	9.895870E-1	1.017933E+0	1.040963E+0	1.000455E+0	1.066736E+0	1.089922E+0	9.880567E-1
5.433020E+2	1.161527E+0	1.231897E+0	1.187111E+0	1.235150E+0	1.176497E+0	1.212103E+0	1.229113E+0	1.167517E+0	1.212264E+0	1.209840E+0	1.226569E+0	1.175506E+0	1.220370E+0	1.201835E+0	1.191525E+0	1.170011E+0	1.204010E+0	1.207512E+0	1.219181E+0	1.182212E+0	1.152048E+0	1.168412E+0	1.239624E+0	1.197977E+0	1.236215E+0	1.243257E+0	1.193000E+0	1.216000E+0	1.191958E+0	1.157033E+0	1.166636E+0	1.199984E+0	1.219068E+0	1.229636E+0	1.168976E+0	1.140460E+0	1.204402E+0	1.195465E+0	1.220588E+0	1.211811E+0	1.255254E+0	1.157126E+0	1.207639E+0	1.234867E+0	1.177128E+0	1.218171E+0	1.224238E+0	1.187260E+0	1.216311E+0	1.225573E+0	1.190015E+0	1.149901E+0	1.198572E+0	1.193137E+0	1.186914E+0	1.203835E+0	1.176884E+0	1.270587E+0	1.206717E+0	1.194346E+0	1.192766E+0	1.189760E+0	1.193540E+0	1.151181E+0	1.206847E+0	1.186177E+0	1.167126E+0	1.233390E+0	1.169479E+0	1.178298E+0	1.193199E+0	1.170631E+0	1.128109E+0	1.243319E+0	1.225837E+0	1.160864E+0	1.214806E+0	1.158716E+0	1.149968E+0	1.176415E+0	1.241448E+0	1.188037E+0	1.180855E+0	1.123572E+0	1.181466E+0	1.202177E+0	1.182735E+0	1.173153E+0	1.136950E+0	1.256389E+0	1.153896E+0	1.212095E+0	1.202869E+0	1.225615E+0	1.231194E+0	1.190918E+0	1.205847E+0	1.198955E+0	1.274874E+0	1.171815E+0	1.207009E+0	1.192871E+0	1.198469E+0	1.179984E+0	1.207220E+0	1.204971E+0	1.181390E+0	1.153005E+0	1.173191E+0	1.210677E+0	1.155302E+0	1.187426E+0	1.126346E+0	1.236454E+0	1.192554E+0	1.190359E+0	1.223458E+0	1.235388E+0	1.150604E+0	1.112081E+0	1.159689E+0	1.260454E+0	1.185174E+0	1.154864E+0	1.207860E+0	1.162542E+0	1.175162E+0	1.113886E+0	1.178829E+0	1.192303E+0	1.231193E+0	1.124994E+0	1.182880E+0	1.234194E+0	1.167657E+0	1.162160E+0	1.215096E+0	1.239268E+0	1.150751E+0	1.154584E+0	1.194502E+0	1.193136E+0	1.229243E+0	1.156159E+0	1.167174E+0	1.247867E+0	1.206747E+0	1.211840E+0	1.148124E+0	1.202871E+0	1.189960E+0	1.214765E+0	1.145583E+0	1.210335E+0	1.165428E+0	1.177617E+0	1.171891E+0	1.222682E+0	1.183214E+0	1.156119E+0	1.222476E+0	1.166459E+0	1.172403E+0	1.211942E+0	1.199503E+0	1.194946E+0	1.196311E+0	1.183141E+0	1.240561E+0	1.213854E+0	1.261356E+0	1.146787E+0
5.435270E+2	1.372746E+0	1.383068E+0	1.359963E+0	1.397822E+0	1.373751E+0	1.368216E+0	1.430403E+0	1.318209E+0	1.336482E+0	1.366289E+0	1.351190E+0	1.387128E+0	1.400969E+0	1.416373E+0	1.411535E+0	1.317861E+0	1.388890E+0	1.361580E+0	1.383100E+0	1.358990E+0	1.400190E+0	1.394798E+0	1.407785E+0	1.381274E+0	1.412851E+0	1.393567E+0	1.440627E+0	1.399387E+0	1.349354E+0	1.366737E+0	1.409374E+0	1.363824E+0	1.406803E+0	1.386801E+0	1.405603E+0	1.397844E+0	1.431197E+0	1.356397E+0	1.421143E+0	1.330466E+0	1.426503E+0	1.348183E+0	1.411995E+0	1.394711E+0	1.351688E+0	1.373609E+0	1.355031E+0	1.374843E+0	1.376225E+0	1.399597E+0	1.462278E+0	1.408495E+0	1.348586E+0	1.371551E+0	1.301658E+0	1.406467E+0	1.424950E+0	1.406321E+0	1.335114E+0	1.374213E+0	1.401426E+0	1.327416E+0	1.370790E+0	1.357933E+0	1.363132E+0	1.373759E+0	1.367199E+0	1.382866E+0	1.365170E+0	1.333679E+0	1.420002E+0	1.349253E+0	1.330442E+0	1.390136E+0	1.336164E+0	1.313004E+0	1.397521E+0	1.361059E+0	1.358812E+0	1.386750E+0	1.335210E+0	1.355341E+0	1.369215E+0	1.353412E+0	1.332517E+0	1.387537E+0	1.345014E+0	1.371564E+0	1.394383E+0	1.346761E+0	1.338760E+0	1.350131E+0	1.403470E+0	1.388277E+0	1.389609E+0	1.357408E+0	1.410063E+0	1.356030E+0	1.450672E+0	1.356366E+0	1.349808E+0	1.380259E+0	1.401341E+0	1.317810E+0	1.404165E+0	1.373400E+0	1.325730E+0	1.369622E+0	1.354706E+0	1.383788E+0	1.387361E+0	1.373127E+0	1.342849E+0	1.317796E+0	1.423957E+0	1.346257E+0	1.346615E+0	1.384001E+0	1.350926E+0	1.317126E+0	1.371414E+0	1.425699E+0	1.297264E+0	1.339142E+0	1.390825E+0	1.391304E+0	1.319517E+0	1.340435E+0	1.359398E+0	1.299282E+0	1.397350E+0	1.327914E+0	1.277473E+0	1.370626E+0	1.358570E+0	1.374032E+0	1.387844E+0	1.404618E+0	1.268327E+0	1.318735E+0	1.318489E+0	1.391081E+0	1.395222E+0	1.377247E+0	1.354677E+0	1.368332E+0	1.389024E+0	1.365482E+0	1.424437E+0	1.325297E+0	1.317274E+0	1.375783E+0	1.330969E+0	1.425714E+0	1.327146E+0	1.404660E+0	1.324727E+0	1.415042E+0	1.345714E+0	1.338370E+0	1.344915E+0	1.362614E+0	1.341160E+0	1.371588E+0	1.317694E+0	1.367797E+0	1.380167E+0	1.291935E+0	1.311702E+0	1.405037E+0	1.235702E+0	1.352341E+0
5.437640E+2	1.417833E+0	1.482957E+0	1.505603E+0	1.390555E+0	1.467031E+0	1.438896E+0	1.477603E+0	1.463105E+0	1.488433E+0	1.499976E+0	1.476421E+0	1.440732E+0	1.473988E+0	1.442782E+0	1.460181E+0	1.430055E+0	1.503584E+0	1.436869E+0	1.457376E+0	1.428057E+0	1.401637E+0	1.433221E+0	1.437472E+0	1.492090E+0	1.429048E+0	1.493475E+0	1.453591E+0	1.433971E+0	1.454711E+0	1.416341E+0	1.451038E+0	1.453619E+0	1.545596E+0	1.476564E+0	1.464461E+0	1.381730E+0	1.473921E+0	1.461649E+0	1.446004E+0	1.430824E+0	1.509873E+0	1.439548E+0	1.470529E+0	1.477696E+0	1.449204E+0	1.436355E+0	1.442322E+0	1.421537E+0	1.482805E+0	1.494355E+0	1.479948E+0	1.513708E+0	1.417775E+0	1.414361E+0	1.445617E+0	1.424558E+0	1.438199E+0	1.472245E+0	1.460322E+0	1.453860E+0	1.486909E+0	1.467505E+0	1.429910E+0	1.404043E+0	1.448729E+0	1.392559E+0	1.461256E+0	1.524871E+0	1.401862E+0	1.444861E+0	1.429239E+0	1.401765E+0	1.365181E+0	1.461629E+0	1.473433E+0	1.427808E+0	1.436989E+0	1.454596E+0	1.372364E+0	1.444159E+0	1.389424E+0	1.405751E+0	1.426282E+0	1.419662E+0	1.407813E+0	1.478784E+0	1.410626E+0	1.442592E+0	1.438516E+0	1.493394E+0	1.440935E+0	1.451308E+0	1.473096E+0	1.492144E+0	1.423094E+0	1.404888E+0	1.444800E+0	1.388422E+0	1.438956E+0	1.448253E+0	1.423067E+0	1.399748E+0	1.385510E+0	1.427626E+0	1.526540E+0	1.415760E+0	1.365785E+0	1.457145E+0	1.419929E+0	1.435610E+0	1.494988E+0	1.376474E+0	1.389172E+0	1.452573E+0	1.455092E+0	1.417349E+0	1.424706E+0	1.473851E+0	1.394350E+0	1.430728E+0	1.370870E+0	1.431243E+0	1.398130E+0	1.436230E+0	1.476725E+0	1.435770E+0	1.383734E+0	1.434585E+0	1.447678E+0	1.432098E+0	1.449981E+0	1.425299E+0	1.375587E+0	1.461536E+0	1.452087E+0	1.404615E+0	1.441445E+0	1.511453E+0	1.401378E+0	1.435081E+0	1.449089E+0	1.409617E+0	1.428818E+0	1.425584E+0	1.456267E+0	1.504914E+0	1.396029E+0	1.373148E+0	1.452169E+0	1.482681E+0	1.452871E+0	1.388556E+0	1.385225E+0	1.436115E+0	1.410255E+0	1.447489E+0	1.410439E+0	1.480450E+0	1.455415E+0	1.411211E+0	1.431096E+0	1.405276E+0	1.445413E+0	1.413372E+0	1.415569E+0	1.402266E+0	1.453321E+0	1.376621E+0	1.424492E+0	1.491111E+0	1.480591E+0	1.548052E+0
5.440120E+2	1.501535E+0	1.492693E+0	1.564891E+0	1.472335E+0	1.495565E+0	1.535392E+0	1.548045E+0	1.493753E+0	1.555733E+0	1.586317E+0	1.541911E+0	1.535997E+0	1.534108E+0	1.526932E+0	1.533077E+0	1.464474E+0	1.532297E+0	1.556717E+0	1.513325E+0	1.504489E+0	1.468963E+0	1.602741E+0	1.567527E+0	1.473248E+0	1.530503E+0	1.555718E+0	1.503856E+0	1.597069E+0	1.514218E+0	1.508509E+0	1.540480E+0	1.509358E+0	1.500971E+0	1.575928E+0	1.577401E+0	1.484148E+0	1.509877E+0	1.477673E+0	1.489058E+0	1.549855E+0	1.521614E+0	1.482112E+0	1.499304E+0	1.529505E+0	1.522185E+0	1.565742E+0	1.548183E+0	1.485195E+0	1.605899E+0	1.577442E+0	1.587700E+0	1.498748E+0	1.478069E+0	1.503960E+0	1.528233E+0	1.491136E+0	1.520761E+0	1.520579E+0	1.565031E+0	1.521099E+0	1.538350E+0	1.537304E+0	1.506635E+0	1.486390E+0	1.474042E+0	1.527262E+0	1.489848E+0	1.553440E+0	1.475212E+0	1.470538E+0	1.471211E+0	1.462646E+0	1.478195E+0	1.499752E+0	1.487143E+0	1.491443E+0	1.503397E+0	1.556205E+0	1.538958E+0	1.465304E+0	1.576762E+0	1.505231E+0	1.558021E+0	1.544775E+0	1.509550E+0	1.530893E+0	1.485815E+0	1.520945E+0	1.521379E+0	1.538350E+0	1.534578E+0	1.500284E+0	1.531832E+0	1.564207E+0	1.571989E+0	1.518510E+0	1.514451E+0	1.476438E+0	1.520348E+0	1.508437E+0	1.487297E+0	1.504950E+0	1.544916E+0	1.497032E+0	1.489297E+0	1.517932E+0	1.473541E+0	1.474188E+0	1.528031E+0	1.503101E+0	1.492329E+0	1.509963E+0	1.513978E+0	1.497536E+0	1.545523E+0	1.527426E+0	1.525659E+0	1.510103E+0	1.521577E+0	1.503809E+0	1.428234E+0	1.522947E+0	1.504234E+0	1.514417E+0	1.480998E+0	1.535114E+0	1.479357E+0	1.456356E+0	1.563251E+0	1.474998E+0	1.564554E+0	1.532768E+0	1.517060E+0	1.482888E+0	1.513437E+0	1.437844E+0	1.541136E+0	1.610697E+0	1.460187E+0	1.454514E+0	1.472799E+0	1.516016E+0	1.532121E+0	1.521584E+0	1.506391E+0	1.523645E+0	1.526722E+0	1.418995E+0	1.501322E+0	1.494553E+0	1.493031E+0	1.524310E+0	1.465354E+0	1.513889E+0	1.500255E+0	1.502054E+0	1.478607E+0	1.560347E+0	1.452797E+0	1.523298E+0	1.523762E+0	1.509694E+0	1.477380E+0	1.535848E+0	1.512237E+0	1.532233E+0	1.532062E+0	1.485703E+0	1.513539E+0	1.636604E+0	1.518905E+0	1.546570E+0
5.442750E+2	1.561194E+0	1.530551E+0	1.565487E+0	1.572832E+0	1.581770E+0	1.573345E+0	1.538930E+0	1.601971E+0	1.612892E+0	1.595494E+0	1.608709E+0	1.563718E+0	1.579571E+0	1.604134E+0	1.638584E+0	1.532796E+0	1.594833E+0	1.586517E+0	1.568349E+0	1.550835E+0	1.580872E+0	1.607770E+0	1.591213E+0	1.566248E+0	1.582267E+0	1.547159E+0	1.608093E+0	1.559334E+0	1.579026E+0	1.583856E+0	1.601543E+0	1.618921E+0	1.545845E+0	1.580577E+0	1.588608E+0	1.511484E+0	1.552302E+0	1.607778E+0	1.544059E+0	1.556041E+0	1.581216E+0	1.565186E+0	1.583781E+0	1.623643E+0	1.606980E+0	1.624009E+0	1.571006E+0	1.632568E+0	1.602884E+0	1.636133E+0	1.563094E+0	1.568065E+0	1.549768E+0	1.554047E+0	1.579342E+0	1.575805E+0	1.596573E+0	1.554539E+0	1.617618E+0	1.575345E+0	1.608679E+0	1.586341E+0	1.622259E+0	1.557247E+0	1.561675E+0	1.568999E+0	1.573289E+0	1.586168E+0	1.531731E+0	1.506870E+0	1.617920E+0	1.554519E+0	1.539013E+0	1.582165E+0	1.600033E+0	1.524347E+0	1.564506E+0	1.586891E+0	1.543443E+0	1.553874E+0	1.608449E+0	1.623516E+0	1.554108E+0	1.565637E+0	1.538884E+0	1.583845E+0	1.589142E+0	1.600870E+0	1.615624E+0	1.591583E+0	1.492154E+0	1.565133E+0	1.547071E+0	1.597371E+0	1.560531E+0	1.554495E+0	1.532554E+0	1.491932E+0	1.609081E+0	1.501268E+0	1.558179E+0	1.517030E+0	1.585752E+0	1.548040E+0	1.592208E+0	1.584946E+0	1.582113E+0	1.582808E+0	1.578902E+0	1.503361E+0	1.608434E+0	1.548357E+0	1.596175E+0	1.592773E+0	1.575149E+0	1.576736E+0	1.524050E+0	1.522800E+0	1.585713E+0	1.572207E+0	1.548858E+0	1.553949E+0	1.594267E+0	1.558765E+0	1.581411E+0	1.583903E+0	1.528563E+0	1.531073E+0	1.554432E+0	1.520680E+0	1.606298E+0	1.510771E+0	1.558424E+0	1.553413E+0	1.562869E+0	1.488915E+0	1.575288E+0	1.611217E+0	1.500186E+0	1.589381E+0	1.510673E+0	1.612266E+0	1.557604E+0	1.544732E+0	1.545684E+0	1.582358E+0	1.542215E+0	1.536235E+0	1.547510E+0	1.575624E+0	1.563449E+0	1.548942E+0	1.470189E+0	1.546232E+0	1.538066E+0	1.613684E+0	1.534405E+0	1.593582E+0	1.553732E+0	1.572136E+0	1.569439E+0	1.574057E+0	1.544574E+0	1.576297E+0	1.456985E+0	1.533690E+0	1.518664E+0	1.488889E+0	1.597836E+0	1.580388E+0	1.501236E+0	1.521292E+0
5.445130E+2	1.550251E+0	1.604056E+0	1.548228E+0	1.530278E+0	1.548995E+0	1.560711E+0	1.560378E+0	1.574702E+0	1.599050E+0	1.565584E+0	1.608455E+0	1.601296E+0	1.585797E+0	1.522450E+0	1.555631E+0	1.543469E+0	1.632612E+0	1.560191E+0	1.563074E+0	1.490480E+0	1.647890E+0	1.559156E+0	1.564387E+0	1.558754E+0	1.589929E+0	1.631684E+0	1.593215E+0	1.647467E+0	1.578796E+0	1.558787E+0	1.539611E+0	1.534173E+0	1.612882E+0	1.573354E+0	1.590615E+0	1.558030E+0	1.568349E+0	1.605938E+0	1.562271E+0	1.544018E+0	1.631490E+0	1.543444E+0	1.622140E+0	1.562752E+0	1.533686E+0	1.580180E+0	1.573776E+0	1.599314E+0	1.607441E+0	1.612997E+0	1.583741E+0	1.526939E+0	1.528034E+0	1.503489E+0	1.551985E+0	1.542012E+0	1.622116E+0	1.547783E+0	1.637918E+0	1.539216E+0	1.618774E+0	1.557294E+0	1.540825E+0	1.513851E+0	1.526037E+0	1.531439E+0	1.573984E+0	1.555964E+0	1.570239E+0	1.533080E+0	1.598268E+0	1.531548E+0	1.499156E+0	1.534322E+0	1.573116E+0	1.504601E+0	1.558413E+0	1.554930E+0	1.609373E+0	1.549042E+0	1.580657E+0	1.530516E+0	1.580004E+0	1.508842E+0	1.522656E+0	1.535413E+0	1.574976E+0	1.587660E+0	1.579280E+0	1.556632E+0	1.527528E+0	1.505144E+0	1.541836E+0	1.568155E+0	1.593619E+0	1.540376E+0	1.542935E+0	1.510403E+0	1.546555E+0	1.529680E+0	1.534016E+0	1.548022E+0	1.584774E+0	1.524589E+0	1.529114E+0	1.517175E+0	1.539592E+0	1.515623E+0	1.526353E+0	1.584720E+0	1.545774E+0	1.521552E+0	1.581890E+0	1.527873E+0	1.604406E+0	1.547123E+0	1.538719E+0	1.558126E+0	1.586665E+0	1.560950E+0	1.554912E+0	1.544483E+0	1.566088E+0	1.528963E+0	1.578086E+0	1.555612E+0	1.569933E+0	1.524385E+0	1.549456E+0	1.507499E+0	1.618633E+0	1.502494E+0	1.564629E+0	1.555751E+0	1.539897E+0	1.503522E+0	1.596963E+0	1.576928E+0	1.493740E+0	1.509309E+0	1.566472E+0	1.597680E+0	1.506180E+0	1.583952E+0	1.545955E+0	1.509526E+0	1.558170E+0	1.509785E+0	1.551083E+0	1.541540E+0	1.558831E+0	1.539045E+0	1.497451E+0	1.603393E+0	1.523884E+0	1.501790E+0	1.541200E+0	1.533147E+0	1.545270E+0	1.541174E+0	1.552055E+0	1.530042E+0	1.547717E+0	1.492247E+0	1.539567E+0	1.542809E+0	1.485127E+0	1.518270E+0	1.560809E+0	1.559841E+0	1.612347E+0	1.653871E+0
5.447830E+2	1.488023E+0	1.557942E+0	1.534786E+0	1.465531E+0	1.471227E+0	1.491069E+0	1.512228E+0	1.505479E+0	1.500232E+0	1.513705E+0	1.555300E+0	1.579048E+0	1.486778E+0	1.512578E+0	1.557516E+0	1.481625E+0	1.527465E+0	1.511455E+0	1.531879E+0	1.477414E+0	1.499502E+0	1.478678E+0	1.518795E+0	1.566532E+0	1.517268E+0	1.543897E+0	1.492298E+0	1.520723E+0	1.484685E+0	1.475188E+0	1.513792E+0	1.548012E+0	1.496608E+0	1.562060E+0	1.471471E+0	1.487546E+0	1.492850E+0	1.535662E+0	1.471110E+0	1.482301E+0	1.516161E+0	1.498682E+0	1.479757E+0	1.464190E+0	1.493071E+0	1.528177E+0	1.528450E+0	1.464789E+0	1.476579E+0	1.519027E+0	1.564798E+0	1.471120E+0	1.490823E+0	1.492091E+0	1.446103E+0	1.501888E+0	1.521511E+0	1.509478E+0	1.481865E+0	1.518584E+0	1.491370E+0	1.457417E+0	1.528979E+0	1.489713E+0	1.479401E+0	1.425693E+0	1.448855E+0	1.500551E+0	1.420959E+0	1.508606E+0	1.481620E+0	1.455616E+0	1.498211E+0	1.520512E+0	1.435968E+0	1.439157E+0	1.469883E+0	1.449906E+0	1.410167E+0	1.481746E+0	1.480749E+0	1.510940E+0	1.495765E+0	1.473474E+0	1.472146E+0	1.486688E+0	1.488924E+0	1.492739E+0	1.545272E+0	1.483222E+0	1.460778E+0	1.498224E+0	1.483733E+0	1.487641E+0	1.509739E+0	1.451224E+0	1.516929E+0	1.468399E+0	1.523342E+0	1.433277E+0	1.477356E+0	1.420652E+0	1.502623E+0	1.411484E+0	1.459517E+0	1.485240E+0	1.440528E+0	1.446119E+0	1.461012E+0	1.525497E+0	1.506155E+0	1.490165E+0	1.499506E+0	1.493643E+0	1.527345E+0	1.512780E+0	1.460825E+0	1.511995E+0	1.486478E+0	1.482782E+0	1.418335E+0	1.499062E+0	1.479898E+0	1.447419E+0	1.491379E+0	1.408349E+0	1.506877E+0	1.464708E+0	1.484817E+0	1.461393E+0	1.449983E+0	1.481118E+0	1.440976E+0	1.462115E+0	1.500167E+0	1.458462E+0	1.451176E+0	1.503098E+0	1.464851E+0	1.455222E+0	1.509298E+0	1.503586E+0	1.499557E+0	1.515896E+0	1.399800E+0	1.489098E+0	1.454593E+0	1.406922E+0	1.485493E+0	1.486278E+0	1.440551E+0	1.452128E+0	1.450862E+0	1.494398E+0	1.501678E+0	1.493904E+0	1.466607E+0	1.508106E+0	1.442525E+0	1.464938E+0	1.483708E+0	1.458324E+0	1.463783E+0	1.491151E+0	1.515134E+0	1.406353E+0	1.468503E+0	1.437407E+0	1.579840E+0	1.444045E+0	1.571170E+0	1.429511E+0
5.450260E+2	1.475818E+0	1.442912E+0	1.429600E+0	1.447996E+0	1.418579E+0	1.490129E+0	1.465795E+0	1.429412E+0	1.470780E+0	1.463653E+0	1.442127E+0	1.452617E+0	1.427299E+0	1.425810E+0	1.472354E+0	1.421086E+0	1.405014E+0	1.405277E+0	1.432576E+0	1.422121E+0	1.457466E+0	1.432926E+0	1.382018E+0	1.467754E+0	1.460681E+0	1.452648E+0	1.485742E+0	1.426084E+0	1.412284E+0	1.401359E+0	1.402536E+0	1.360271E+0	1.429758E+0	1.425347E+0	1.421953E+0	1.454199E+0	1.428916E+0	1.459638E+0	1.399958E+0	1.461422E+0	1.496608E+0	1.446589E+0	1.433673E+0	1.452824E+0	1.444879E+0	1.436759E+0	1.484747E+0	1.435605E+0	1.446436E+0	1.407672E+0	1.464562E+0	1.415109E+0	1.430222E+0	1.424935E+0	1.425418E+0	1.437240E+0	1.449724E+0	1.423985E+0	1.441032E+0	1.424740E+0	1.462368E+0	1.460291E+0	1.419056E+0	1.466750E+0	1.444245E+0	1.388160E+0	1.427740E+0	1.440895E+0	1.438927E+0	1.433742E+0	1.486103E+0	1.381349E+0	1.393926E+0	1.426059E+0	1.381886E+0	1.403667E+0	1.489441E+0	1.467178E+0	1.394605E+0	1.453651E+0	1.477046E+0	1.412191E+0	1.426344E+0	1.431691E+0	1.444564E+0	1.428555E+0	1.430007E+0	1.434347E+0	1.475817E+0	1.419100E+0	1.408760E+0	1.418902E+0	1.418854E+0	1.419838E+0	1.476673E+0	1.398308E+0	1.398924E+0	1.385015E+0	1.451617E+0	1.367924E+0	1.401565E+0	1.403757E+0	1.452066E+0	1.409048E+0	1.424308E+0	1.452263E+0	1.366823E+0	1.426316E+0	1.408263E+0	1.444776E+0	1.417732E+0	1.438417E+0	1.406680E+0	1.435116E+0	1.457386E+0	1.426505E+0	1.424261E+0	1.420407E+0	1.479872E+0	1.485575E+0	1.408048E+0	1.408674E+0	1.419429E+0	1.417443E+0	1.413605E+0	1.375225E+0	1.405703E+0	1.458966E+0	1.425089E+0	1.388175E+0	1.431126E+0	1.383658E+0	1.362890E+0	1.455382E+0	1.425573E+0	1.434008E+0	1.445415E+0	1.483512E+0	1.374719E+0	1.431675E+0	1.383369E+0	1.458381E+0	1.416180E+0	1.431956E+0	1.479675E+0	1.393835E+0	1.456378E+0	1.378982E+0	1.429380E+0	1.400650E+0	1.390224E+0	1.410058E+0	1.385971E+0	1.437629E+0	1.389136E+0	1.391648E+0	1.413495E+0	1.431195E+0	1.407606E+0	1.388840E+0	1.457952E+0	1.430445E+0	1.427321E+0	1.424957E+0	1.443690E+0	1.396069E+0	1.394560E+0	1.420339E+0	1.327678E+0	1.431270E+0	1.529954E+0	1.339349E+0
5.452740E+2	1.363050E+0	1.371531E+0	1.411516E+0	1.348970E+0	1.402891E+0	1.400452E+0	1.411419E+0	1.426524E+0	1.352807E+0	1.475552E+0	1.424495E+0	1.402997E+0	1.368879E+0	1.380078E+0	1.386250E+0	1.388060E+0	1.419665E+0	1.393178E+0	1.358338E+0	1.376002E+0	1.423591E+0	1.352101E+0	1.394914E+0	1.396106E+0	1.375871E+0	1.494286E+0	1.342570E+0	1.392878E+0	1.424704E+0	1.392822E+0	1.442301E+0	1.376138E+0	1.387338E+0	1.368756E+0	1.354108E+0	1.367520E+0	1.325488E+0	1.352376E+0	1.376455E+0	1.387224E+0	1.432269E+0	1.388434E+0	1.418857E+0	1.400635E+0	1.361186E+0	1.458513E+0	1.379760E+0	1.423981E+0	1.405287E+0	1.387808E+0	1.390342E+0	1.407079E+0	1.388823E+0	1.384903E+0	1.394035E+0	1.383861E+0	1.404181E+0	1.406380E+0	1.369947E+0	1.414906E+0	1.389773E+0	1.385286E+0	1.390534E+0	1.400246E+0	1.360539E+0	1.380612E+0	1.351886E+0	1.430892E+0	1.387948E+0	1.396176E+0	1.385631E+0	1.343701E+0	1.322436E+0	1.394544E+0	1.338268E+0	1.403693E+0	1.391641E+0	1.356511E+0	1.352276E+0	1.426122E+0	1.389337E+0	1.371881E+0	1.383822E+0	1.349159E+0	1.378321E+0	1.363006E+0	1.356473E+0	1.386429E+0	1.392892E+0	1.418251E+0	1.343861E+0	1.417030E+0	1.331128E+0	1.390558E+0	1.365757E+0	1.325404E+0	1.393953E+0	1.400151E+0	1.360591E+0	1.412914E+0	1.311317E+0	1.290064E+0	1.345845E+0	1.352667E+0	1.403053E+0	1.407040E+0	1.391276E+0	1.398335E+0	1.329013E+0	1.361973E+0	1.326024E+0	1.354951E+0	1.346694E+0	1.396911E+0	1.458208E+0	1.380514E+0	1.340775E+0	1.346953E+0	1.347734E+0	1.396343E+0	1.359660E+0	1.353114E+0	1.322621E+0	1.364041E+0	1.326901E+0	1.413481E+0	1.373926E+0	1.362473E+0	1.385611E+0	1.359720E+0	1.408497E+0	1.299729E+0	1.348977E+0	1.380886E+0	1.353726E+0	1.359499E+0	1.448735E+0	1.448675E+0	1.325030E+0	1.376128E+0	1.404033E+0	1.323610E+0	1.327941E+0	1.357081E+0	1.357794E+0	1.426400E+0	1.395118E+0	1.317055E+0	1.395395E+0	1.382552E+0	1.380206E+0	1.352190E+0	1.347167E+0	1.425108E+0	1.345221E+0	1.348261E+0	1.323880E+0	1.398519E+0	1.309588E+0	1.372652E+0	1.417316E+0	1.357925E+0	1.308144E+0	1.357733E+0	1.395694E+0	1.328517E+0	1.368402E+0	1.339971E+0	1.403571E+0	1.350731E+0	1.263710E+0	1.408485E+0
5.455130E+2	1.291800E+0	1.302569E+0	1.281651E+0	1.278642E+0	1.279541E+0	1.303033E+0	1.277146E+0	1.349290E+0	1.290158E+0	1.334100E+0	1.264175E+0	1.295049E+0	1.377153E+0	1.311352E+0	1.270990E+0	1.282987E+0	1.311870E+0	1.299710E+0	1.307551E+0	1.251776E+0	1.308410E+0	1.317171E+0	1.315122E+0	1.347259E+0	1.330150E+0	1.299267E+0	1.264774E+0	1.312273E+0	1.284898E+0	1.322267E+0	1.280213E+0	1.300620E+0	1.330907E+0	1.291019E+0	1.280778E+0	1.245579E+0	1.286132E+0	1.331450E+0	1.259137E+0	1.247862E+0	1.342829E+0	1.325291E+0	1.290392E+0	1.345767E+0	1.309131E+0	1.281178E+0	1.285430E+0	1.272065E+0	1.328177E+0	1.319353E+0	1.238380E+0	1.335453E+0	1.292165E+0	1.269518E+0	1.254029E+0	1.298146E+0	1.320842E+0	1.318715E+0	1.286473E+0	1.271254E+0	1.355792E+0	1.307748E+0	1.355668E+0	1.258186E+0	1.248362E+0	1.273975E+0	1.254071E+0	1.322223E+0	1.269533E+0	1.274707E+0	1.335532E+0	1.260992E+0	1.281908E+0	1.285515E+0	1.316523E+0	1.230541E+0	1.286238E+0	1.308754E+0	1.311170E+0	1.234444E+0	1.291040E+0	1.294907E+0	1.220160E+0	1.257643E+0	1.288475E+0	1.302539E+0	1.259917E+0	1.295943E+0	1.247252E+0	1.285050E+0	1.283715E+0	1.297089E+0	1.320376E+0	1.368174E+0	1.317079E+0	1.256698E+0	1.279589E+0	1.288574E+0	1.280742E+0	1.290628E+0	1.264230E+0	1.273822E+0	1.227474E+0	1.307398E+0	1.336451E+0	1.327483E+0	1.289547E+0	1.284124E+0	1.323057E+0	1.286094E+0	1.305047E+0	1.283288E+0	1.308097E+0	1.315990E+0	1.266014E+0	1.308332E+0	1.247216E+0	1.294919E+0	1.249990E+0	1.284262E+0	1.282673E+0	1.292474E+0	1.300258E+0	1.302506E+0	1.288208E+0	1.266386E+0	1.271504E+0	1.263183E+0	1.307262E+0	1.277044E+0	1.246806E+0	1.292838E+0	1.290090E+0	1.320639E+0	1.264175E+0	1.256977E+0	1.281039E+0	1.332692E+0	1.269818E+0	1.245116E+0	1.305896E+0	1.310089E+0	1.279376E+0	1.249577E+0	1.294579E+0	1.294523E+0	1.277910E+0	1.263828E+0	1.300745E+0	1.267364E+0	1.285359E+0	1.287272E+0	1.246794E+0	1.314220E+0	1.227655E+0	1.282882E+0	1.275736E+0	1.338901E+0	1.313748E+0	1.241413E+0	1.284791E+0	1.290410E+0	1.262945E+0	1.292140E+0	1.272206E+0	1.270345E+0	1.297759E+0	1.342763E+0	1.248725E+0	1.317459E+0	1.304338E+0	1.469243E+0
5.457940E+2	1.205800E+0	1.195399E+0	1.207462E+0	1.272718E+0	1.225124E+0	1.187592E+0	1.239313E+0	1.232932E+0	1.206612E+0	1.231209E+0	1.281426E+0	1.212608E+0	1.208304E+0	1.251314E+0	1.166197E+0	1.180857E+0	1.222139E+0	1.238409E+0	1.199505E+0	1.201971E+0	1.223294E+0	1.261269E+0	1.261694E+0	1.208323E+0	1.191907E+0	1.271970E+0	1.207677E+0	1.278260E+0	1.213555E+0	1.227233E+0	1.208498E+0	1.213554E+0	1.231598E+0	1.198669E+0	1.220753E+0	1.242942E+0	1.210428E+0	1.225547E+0	1.186002E+0	1.218339E+0	1.275047E+0	1.245745E+0	1.225204E+0	1.260289E+0	1.219581E+0	1.231471E+0	1.214889E+0	1.232870E+0	1.279598E+0	1.320526E+0	1.238411E+0	1.215929E+0	1.185664E+0	1.219873E+0	1.200083E+0	1.264558E+0	1.193098E+0	1.249370E+0	1.212718E+0	1.205202E+0	1.233405E+0	1.245045E+0	1.200542E+0	1.231327E+0	1.205042E+0	1.201284E+0	1.238035E+0	1.235915E+0	1.212394E+0	1.235562E+0	1.271836E+0	1.184292E+0	1.212759E+0	1.251917E+0	1.197647E+0	1.224859E+0	1.234482E+0	1.207602E+0	1.219491E+0	1.217389E+0	1.208515E+0	1.213141E+0	1.218628E+0	1.178189E+0	1.230590E+0	1.241417E+0	1.212762E+0	1.210891E+0	1.224098E+0	1.235781E+0	1.194491E+0	1.231956E+0	1.268978E+0	1.207054E+0	1.238088E+0	1.238105E+0	1.216034E+0	1.195682E+0	1.184488E+0	1.188101E+0	1.187249E+0	1.234186E+0	1.224905E+0	1.229262E+0	1.239290E+0	1.256757E+0	1.238715E+0	1.247177E+0	1.203557E+0	1.226340E+0	1.220603E+0	1.201769E+0	1.247512E+0	1.222860E+0	1.208768E+0	1.196303E+0	1.211376E+0	1.225341E+0	1.197144E+0	1.193971E+0	1.248129E+0	1.209935E+0	1.259994E+0	1.195872E+0	1.251930E+0	1.184426E+0	1.253210E+0	1.192595E+0	1.266587E+0	1.188926E+0	1.216514E+0	1.179249E+0	1.260832E+0	1.234886E+0	1.255987E+0	1.199896E+0	1.256098E+0	1.252752E+0	1.224362E+0	1.222364E+0	1.283056E+0	1.209121E+0	1.221474E+0	1.171284E+0	1.210468E+0	1.218645E+0	1.232564E+0	1.193542E+0	1.241571E+0	1.216453E+0	1.196360E+0	1.211994E+0	1.232817E+0	1.230689E+0	1.189916E+0	1.194634E+0	1.189276E+0	1.221897E+0	1.234488E+0	1.232361E+0	1.229279E+0	1.177260E+0	1.227397E+0	1.272993E+0	1.214833E+0	1.230042E+0	1.178014E+0	1.186191E+0	1.248911E+0	1.212806E+0	1.262923E+0	1.336084E+0
5.460000E+2	1.184313E+0	1.182623E+0	1.249087E+0	1.187409E+0	1.201191E+0	1.178156E+0	1.146646E+0	1.221382E+0	1.197499E+0	1.186487E+0	1.254290E+0	1.184868E+0	1.207994E+0	1.204485E+0	1.233773E+0	1.139140E+0	1.225093E+0	1.231558E+0	1.180232E+0	1.234075E+0	1.198275E+0	1.197316E+0	1.193739E+0	1.178877E+0	1.172240E+0	1.215263E+0	1.162203E+0	1.213727E+0	1.184269E+0	1.232866E+0	1.201554E+0	1.178291E+0	1.151291E+0	1.187163E+0	1.224963E+0	1.230524E+0	1.167477E+0	1.221082E+0	1.206870E+0	1.181769E+0	1.226822E+0	1.234521E+0	1.233351E+0	1.195336E+0	1.206146E+0	1.230335E+0	1.202006E+0	1.207389E+0	1.164186E+0	1.138781E+0	1.222431E+0	1.240697E+0	1.180118E+0	1.180976E+0	1.184934E+0	1.218109E+0	1.177630E+0	1.221435E+0	1.182496E+0	1.226298E+0	1.222000E+0	1.227379E+0	1.253169E+0	1.218075E+0	1.240452E+0	1.172251E+0	1.162741E+0	1.229010E+0	1.183112E+0	1.152500E+0	1.208333E+0	1.216897E+0	1.211429E+0	1.202816E+0	1.154441E+0	1.178951E+0	1.221420E+0	1.205380E+0	1.178899E+0	1.188203E+0	1.216232E+0	1.226356E+0	1.219482E+0	1.140197E+0	1.173557E+0	1.174835E+0	1.202314E+0	1.192589E+0	1.185114E+0	1.205954E+0	1.176790E+0	1.162052E+0	1.222925E+0	1.214307E+0	1.235805E+0	1.184675E+0	1.202000E+0	1.114870E+0	1.208680E+0	1.187049E+0	1.208269E+0	1.167304E+0	1.213270E+0	1.226348E+0	1.201244E+0	1.214198E+0	1.143831E+0	1.186722E+0	1.175782E+0	1.242599E+0	1.155518E+0	1.211399E+0	1.173341E+0	1.205367E+0	1.233012E+0	1.159844E+0	1.161417E+0	1.185404E+0	1.120085E+0	1.194905E+0	1.204896E+0	1.195168E+0	1.219487E+0	1.192408E+0	1.177950E+0	1.192323E+0	1.154768E+0	1.222390E+0	1.217065E+0	1.217695E+0	1.191372E+0	1.179239E+0	1.176782E+0	1.170649E+0	1.147767E+0	1.170695E+0	1.207407E+0	1.238776E+0	1.156159E+0	1.163867E+0	1.238986E+0	1.203698E+0	1.216315E+0	1.230430E+0	1.234080E+0	1.226430E+0	1.192014E+0	1.167114E+0	1.175068E+0	1.194179E+0	1.126105E+0	1.196009E+0	1.168668E+0	1.215007E+0	1.152939E+0	1.214463E+0	1.169945E+0	1.178901E+0	1.187219E+0	1.212626E+0	1.232015E+0	1.177895E+0	1.180714E+0	1.234074E+0	1.208065E+0	1.177211E+0	1.174555E+0	1.177533E+0	1.197753E+0	1.231524E+0	1.187837E+0	1.178263E+0
5.467600E+2	1.227076E+0	1.233641E+0	1.231035E+0	1.194321E+0	1.253920E+0	1.215842E+0	1.200468E+0	1.235722E+0	1.246474E+0	1.281371E+0	1.291058E+0	1.209870E+0	1.216627E+0	1.230450E+0	1.266811E+0	1.190462E+0	1.292987E+0	1.177456E+0	1.190367E+0	1.164980E+0	1.151458E+0	1.227064E+0	1.200113E+0	1.251630E+0	1.253533E+0	1.207978E+0	1.226065E+0	1.250340E+0	1.240684E+0	1.199250E+0	1.203333E+0	1.187227E+0	1.188916E+0	1.185385E+0	1.161197E+0	1.154909E+0	1.202186E+0	1.209938E+0	1.210893E+0	1.206247E+0	1.246587E+0	1.191721E+0	1.180064E+0	1.243746E+0	1.225800E+0	1.211511E+0	1.181604E+0	1.232897E+0	1.248061E+0	1.228771E+0	1.249005E+0	1.210133E+0	1.186955E+0	1.216813E+0	1.225713E+0	1.245177E+0	1.253630E+0	1.255085E+0	1.228255E+0	1.239466E+0	1.273194E+0	1.238651E+0	1.260813E+0	1.207462E+0	1.222995E+0	1.233780E+0	1.246656E+0	1.220435E+0	1.217130E+0	1.225258E+0	1.209493E+0	1.206196E+0	1.185582E+0	1.242532E+0	1.268414E+0	1.171715E+0	1.209327E+0	1.264069E+0	1.206219E+0	1.224918E+0	1.221931E+0	1.226768E+0	1.224505E+0	1.216438E+0	1.255506E+0	1.210209E+0	1.198064E+0	1.195031E+0	1.212239E+0	1.200336E+0	1.215172E+0	1.182897E+0	1.274269E+0	1.241638E+0	1.212639E+0	1.201201E+0	1.225172E+0	1.208281E+0	1.236037E+0	1.202043E+0	1.218195E+0	1.195216E+0	1.205748E+0	1.234432E+0	1.215978E+0	1.286856E+0	1.184591E+0	1.203022E+0	1.212619E+0	1.248123E+0	1.162752E+0	1.184574E+0	1.202734E+0	1.159815E+0	1.191541E+0	1.191266E+0	1.214647E+0	1.220685E+0	1.188058E+0	1.222441E+0	1.225896E+0	1.200406E+0	1.220246E+0	1.224485E+0	1.207251E+0	1.206482E+0	1.227690E+0	1.199878E+0	1.239313E+0	1.224767E+0	1.188704E+0	1.210102E+0	1.184139E+0	1.171849E+0	1.211179E+0	1.202281E+0	1.260920E+0	1.249054E+0	1.182191E+0	1.227035E+0	1.227565E+0	1.175428E+0	1.172080E+0	1.194430E+0	1.196460E+0	1.208034E+0	1.234304E+0	1.145717E+0	1.244825E+0	1.224658E+0	1.214563E+0	1.222808E+0	1.178562E+0	1.194244E+0	1.168357E+0	1.150594E+0	1.177420E+0	1.212895E+0	1.179742E+0	1.197455E+0	1.233913E+0	1.202553E+0	1.207974E+0	1.191161E+0	1.207450E+0	1.240025E+0	1.239283E+0	1.194310E+0	1.240627E+0	1.208325E+0	1.173353E+0	1.235072E+0
5.475230E+2	1.335770E+0	1.305985E+0	1.316341E+0	1.337989E+0	1.306134E+0	1.332970E+0	1.277135E+0	1.299039E+0	1.343144E+0	1.376648E+0	1.386021E+0	1.331729E+0	1.349517E+0	1.303446E+0	1.310212E+0	1.252386E+0	1.332041E+0	1.350635E+0	1.391818E+0	1.307930E+0	1.307671E+0	1.297525E+0	1.339402E+0	1.329106E+0	1.256924E+0	1.361442E+0	1.246355E+0	1.336029E+0	1.288923E+0	1.325697E+0	1.339185E+0	1.327738E+0	1.265231E+0	1.252942E+0	1.275823E+0	1.277847E+0	1.341102E+0	1.316517E+0	1.283095E+0	1.269148E+0	1.298284E+0	1.312309E+0	1.318665E+0	1.345186E+0	1.379885E+0	1.362873E+0	1.307155E+0	1.305763E+0	1.339330E+0	1.370919E+0	1.296421E+0	1.296911E+0	1.288994E+0	1.277821E+0	1.304584E+0	1.322141E+0	1.312182E+0	1.327471E+0	1.338414E+0	1.316754E+0	1.382195E+0	1.315075E+0	1.345840E+0	1.306535E+0	1.323404E+0	1.256753E+0	1.265372E+0	1.345566E+0	1.335975E+0	1.284122E+0	1.280982E+0	1.279658E+0	1.270477E+0	1.378285E+0	1.328632E+0	1.268777E+0	1.308384E+0	1.300040E+0	1.311882E+0	1.250640E+0	1.304421E+0	1.318787E+0	1.295318E+0	1.236744E+0	1.303918E+0	1.309595E+0	1.275532E+0	1.339560E+0	1.336586E+0	1.280130E+0	1.332277E+0	1.313851E+0	1.268907E+0	1.297001E+0	1.269574E+0	1.284703E+0	1.282395E+0	1.288874E+0	1.280828E+0	1.333448E+0	1.270733E+0	1.273278E+0	1.297927E+0	1.259368E+0	1.271312E+0	1.334016E+0	1.270637E+0	1.303729E+0	1.327056E+0	1.297267E+0	1.319764E+0	1.318458E+0	1.330597E+0	1.296666E+0	1.350793E+0	1.276742E+0	1.285014E+0	1.302776E+0	1.305062E+0	1.286556E+0	1.278386E+0	1.265253E+0	1.273712E+0	1.294918E+0	1.341547E+0	1.276939E+0	1.286773E+0	1.274616E+0	1.298000E+0	1.315323E+0	1.337019E+0	1.294023E+0	1.329207E+0	1.273342E+0	1.283963E+0	1.310076E+0	1.341147E+0	1.361028E+0	1.249125E+0	1.245160E+0	1.316893E+0	1.323519E+0	1.281308E+0	1.275329E+0	1.318507E+0	1.306330E+0	1.299001E+0	1.264685E+0	1.277456E+0	1.351853E+0	1.299450E+0	1.301227E+0	1.251026E+0	1.298826E+0	1.281230E+0	1.317295E+0	1.299494E+0	1.327105E+0	1.259986E+0	1.272221E+0	1.314088E+0	1.303442E+0	1.291273E+0	1.321320E+0	1.329572E+0	1.302588E+0	1.296014E+0	1.294479E+0	1.382271E+0	1.341471E+0	1.312828E+0	1.103760E+0
5.482660E+2	1.346354E+0	1.380729E+0	1.392727E+0	1.383319E+0	1.374718E+0	1.407033E+0	1.384026E+0	1.394619E+0	1.411325E+0	1.465634E+0	1.410996E+0	1.427371E+0	1.482014E+0	1.422815E+0	1.436346E+0	1.385405E+0	1.334279E+0	1.391680E+0	1.392655E+0	1.406252E+0	1.424806E+0	1.387684E+0	1.441219E+0	1.400132E+0	1.437022E+0	1.459709E+0	1.388809E+0	1.365873E+0	1.365461E+0	1.403744E+0	1.405413E+0	1.437827E+0	1.360269E+0	1.386752E+0	1.419176E+0	1.361549E+0	1.456746E+0	1.441988E+0	1.436602E+0	1.403630E+0	1.469271E+0	1.393551E+0	1.414054E+0	1.402153E+0	1.406382E+0	1.436120E+0	1.365754E+0	1.378344E+0	1.413276E+0	1.438945E+0	1.411130E+0	1.352005E+0	1.375649E+0	1.395312E+0	1.434615E+0	1.351795E+0	1.410601E+0	1.399586E+0	1.406200E+0	1.384347E+0	1.412124E+0	1.374001E+0	1.464876E+0	1.409055E+0	1.383079E+0	1.381369E+0	1.355968E+0	1.422967E+0	1.380944E+0	1.398566E+0	1.389209E+0	1.306876E+0	1.360554E+0	1.450593E+0	1.421273E+0	1.314515E+0	1.393417E+0	1.417790E+0	1.355715E+0	1.377378E+0	1.439343E+0	1.415547E+0	1.426544E+0	1.393689E+0	1.380727E+0	1.436098E+0	1.426667E+0	1.373977E+0	1.415776E+0	1.391305E+0	1.390766E+0	1.350215E+0	1.459086E+0	1.424101E+0	1.385462E+0	1.400136E+0	1.372396E+0	1.380346E+0	1.397619E+0	1.372565E+0	1.369035E+0	1.338348E+0	1.429535E+0	1.393207E+0	1.444740E+0	1.515608E+0	1.346468E+0	1.382001E+0	1.391878E+0	1.417175E+0	1.452125E+0	1.371647E+0	1.396203E+0	1.396780E+0	1.394012E+0	1.368173E+0	1.365105E+0	1.377276E+0	1.418428E+0	1.409374E+0	1.366957E+0	1.442974E+0	1.392215E+0	1.314929E+0	1.394014E+0	1.371380E+0	1.360463E+0	1.362250E+0	1.435543E+0	1.378025E+0	1.462542E+0	1.372282E+0	1.432203E+0	1.365235E+0	1.412041E+0	1.359592E+0	1.416658E+0	1.498194E+0	1.314095E+0	1.350111E+0	1.441714E+0	1.378565E+0	1.401168E+0	1.373171E+0	1.346497E+0	1.421552E+0	1.440809E+0	1.326584E+0	1.403235E+0	1.425993E+0	1.358660E+0	1.370051E+0	1.365579E+0	1.440112E+0	1.359465E+0	1.414183E+0	1.376007E+0	1.395489E+0	1.388545E+0	1.401072E+0	1.469062E+0	1.403327E+0	1.400746E+0	1.373515E+0	1.398798E+0	1.388184E+0	1.396146E+0	1.336227E+0	1.446707E+0	1.390576E+0	1.317325E+0	1.307500E+0
5.490100E+2	1.385550E+0	1.405116E+0	1.384548E+0	1.389554E+0	1.360030E+0	1.405862E+0	1.437254E+0	1.375291E+0	1.457648E+0	1.436239E+0	1.399441E+0	1.353304E+0	1.427418E+0	1.369940E+0	1.378016E+0	1.334474E+0	1.433625E+0	1.404572E+0	1.369754E+0	1.349037E+0	1.337845E+0	1.387196E+0	1.368462E+0	1.391469E+0	1.462467E+0	1.393388E+0	1.400474E+0	1.350900E+0	1.382135E+0	1.348437E+0	1.385043E+0	1.381961E+0	1.389231E+0	1.390904E+0	1.351029E+0	1.412969E+0	1.383630E+0	1.433187E+0	1.398989E+0	1.363974E+0	1.415080E+0	1.432354E+0	1.424191E+0	1.381112E+0	1.393317E+0	1.403073E+0	1.376866E+0	1.367821E+0	1.439544E+0	1.444670E+0	1.386758E+0	1.356379E+0	1.361825E+0	1.383039E+0	1.373909E+0	1.373638E+0	1.393338E+0	1.446327E+0	1.393415E+0	1.412871E+0	1.462727E+0	1.416432E+0	1.447003E+0	1.393850E+0	1.308252E+0	1.388108E+0	1.393755E+0	1.388971E+0	1.378204E+0	1.314402E+0	1.351327E+0	1.340804E+0	1.333469E+0	1.431784E+0	1.366865E+0	1.437627E+0	1.380943E+0	1.380769E+0	1.385656E+0	1.351641E+0	1.399207E+0	1.398012E+0	1.359727E+0	1.389102E+0	1.385692E+0	1.401697E+0	1.359998E+0	1.377978E+0	1.420742E+0	1.395447E+0	1.401944E+0	1.421423E+0	1.378017E+0	1.423296E+0	1.389186E+0	1.336000E+0	1.377027E+0	1.434622E+0	1.420680E+0	1.383680E+0	1.396246E+0	1.364682E+0	1.363653E+0	1.373903E+0	1.343766E+0	1.477008E+0	1.391088E+0	1.322453E+0	1.346835E+0	1.429481E+0	1.386683E+0	1.370188E+0	1.426813E+0	1.395284E+0	1.411382E+0	1.331106E+0	1.354468E+0	1.412161E+0	1.393089E+0	1.423658E+0	1.349439E+0	1.400683E+0	1.295211E+0	1.365897E+0	1.341715E+0	1.357648E+0	1.364270E+0	1.324009E+0	1.372027E+0	1.339745E+0	1.405387E+0	1.351505E+0	1.352161E+0	1.379264E+0	1.326066E+0	1.384338E+0	1.410438E+0	1.427306E+0	1.393484E+0	1.359493E+0	1.356944E+0	1.366316E+0	1.370893E+0	1.331945E+0	1.376162E+0	1.356338E+0	1.359902E+0	1.305326E+0	1.353609E+0	1.334313E+0	1.365098E+0	1.346795E+0	1.387465E+0	1.372383E+0	1.367547E+0	1.365283E+0	1.339130E+0	1.422422E+0	1.355935E+0	1.354174E+0	1.395012E+0	1.339947E+0	1.359425E+0	1.325065E+0	1.412535E+0	1.372404E+0	1.363360E+0	1.339233E+0	1.372144E+0	1.367991E+0	1.299358E+0	1.271635E+0
5.497630E+2	1.360920E+0	1.334025E+0	1.364782E+0	1.349896E+0	1.332170E+0	1.333470E+0	1.362170E+0	1.368593E+0	1.372996E+0	1.338714E+0	1.394767E+0	1.349570E+0	1.338653E+0	1.382437E+0	1.395721E+0	1.303040E+0	1.350198E+0	1.383299E+0	1.355640E+0	1.317201E+0	1.338169E+0	1.397492E+0	1.407691E+0	1.371315E+0	1.364842E+0	1.419362E+0	1.324552E+0	1.344980E+0	1.350861E+0	1.371118E+0	1.393933E+0	1.332548E+0	1.354658E+0	1.342486E+0	1.364310E+0	1.336572E+0	1.318002E+0	1.356323E+0	1.315324E+0	1.304107E+0	1.337637E+0	1.329673E+0	1.366804E+0	1.347504E+0	1.347059E+0	1.324293E+0	1.331867E+0	1.337285E+0	1.432839E+0	1.409716E+0	1.399928E+0	1.380941E+0	1.341425E+0	1.386609E+0	1.345800E+0	1.315851E+0	1.384723E+0	1.407446E+0	1.306250E+0	1.348632E+0	1.343628E+0	1.280081E+0	1.351018E+0	1.348892E+0	1.337985E+0	1.317982E+0	1.355272E+0	1.350911E+0	1.358280E+0	1.323462E+0	1.354869E+0	1.294049E+0	1.292930E+0	1.334712E+0	1.356890E+0	1.318445E+0	1.352037E+0	1.341997E+0	1.339839E+0	1.318451E+0	1.380567E+0	1.388473E+0	1.336050E+0	1.348311E+0	1.339933E+0	1.338981E+0	1.373004E+0	1.320922E+0	1.410595E+0	1.290895E+0	1.369688E+0	1.306595E+0	1.370474E+0	1.350733E+0	1.393821E+0	1.360740E+0	1.308972E+0	1.348374E+0	1.352054E+0	1.344576E+0	1.369129E+0	1.346262E+0	1.327571E+0	1.346797E+0	1.344354E+0	1.346160E+0	1.326666E+0	1.332405E+0	1.336741E+0	1.385672E+0	1.325794E+0	1.355058E+0	1.362847E+0	1.357206E+0	1.326436E+0	1.318782E+0	1.369505E+0	1.365040E+0	1.325582E+0	1.340398E+0	1.319677E+0	1.294369E+0	1.301478E+0	1.317815E+0	1.350307E+0	1.292071E+0	1.384201E+0	1.276161E+0	1.367980E+0	1.295268E+0	1.324605E+0	1.292529E+0	1.283466E+0	1.309161E+0	1.318468E+0	1.339729E+0	1.415358E+0	1.387242E+0	1.318345E+0	1.378889E+0	1.397629E+0	1.344302E+0	1.349001E+0	1.302943E+0	1.387249E+0	1.358022E+0	1.322197E+0	1.275233E+0	1.341141E+0	1.341788E+0	1.308684E+0	1.305102E+0	1.311908E+0	1.412031E+0	1.336317E+0	1.318130E+0	1.378405E+0	1.354007E+0	1.352102E+0	1.345435E+0	1.403997E+0	1.328236E+0	1.337727E+0	1.305340E+0	1.332159E+0	1.347105E+0	1.388104E+0	1.298603E+0	1.335377E+0	1.365352E+0	1.392343E+0	1.309134E+0
5.505000E+2	1.343669E+0	1.278361E+0	1.318318E+0	1.322122E+0	1.280240E+0	1.292978E+0	1.281050E+0	1.302292E+0	1.325985E+0	1.359275E+0	1.308429E+0	1.300283E+0	1.297239E+0	1.346319E+0	1.324121E+0	1.307522E+0	1.284124E+0	1.312839E+0	1.324611E+0	1.380970E+0	1.296749E+0	1.343577E+0	1.333417E+0	1.333309E+0	1.317694E+0	1.354003E+0	1.338634E+0	1.333386E+0	1.372219E+0	1.323990E+0	1.344635E+0	1.333442E+0	1.308587E+0	1.366185E+0	1.310183E+0	1.291837E+0	1.339196E+0	1.359863E+0	1.348838E+0	1.318143E+0	1.272600E+0	1.326969E+0	1.327695E+0	1.355109E+0	1.319549E+0	1.327942E+0	1.356817E+0	1.372968E+0	1.358214E+0	1.335281E+0	1.374001E+0	1.399389E+0	1.293581E+0	1.313650E+0	1.281812E+0	1.323004E+0	1.336275E+0	1.361701E+0	1.331660E+0	1.339798E+0	1.346316E+0	1.292772E+0	1.325430E+0	1.302869E+0	1.334420E+0	1.289365E+0	1.329548E+0	1.358015E+0	1.332329E+0	1.299762E+0	1.326394E+0	1.264659E+0	1.269879E+0	1.297127E+0	1.344929E+0	1.297879E+0	1.320199E+0	1.312324E+0	1.340289E+0	1.310129E+0	1.364028E+0	1.337051E+0	1.288115E+0	1.267670E+0	1.334463E+0	1.362973E+0	1.298969E+0	1.275938E+0	1.311757E+0	1.346814E+0	1.299626E+0	1.316489E+0	1.311937E+0	1.322446E+0	1.301693E+0	1.257697E+0	1.329478E+0	1.330211E+0	1.296353E+0	1.281514E+0	1.269648E+0	1.229416E+0	1.312147E+0	1.258194E+0	1.315432E+0	1.351030E+0	1.340926E+0	1.275875E+0	1.322444E+0	1.349587E+0	1.256675E+0	1.327404E+0	1.362986E+0	1.294320E+0	1.328996E+0	1.272585E+0	1.283517E+0	1.319128E+0	1.324254E+0	1.303703E+0	1.287451E+0	1.359515E+0	1.284251E+0	1.294398E+0	1.319607E+0	1.291917E+0	1.319149E+0	1.316422E+0	1.399914E+0	1.262433E+0	1.292015E+0	1.264019E+0	1.276724E+0	1.266210E+0	1.282290E+0	1.315204E+0	1.305845E+0	1.354662E+0	1.279282E+0	1.268375E+0	1.284978E+0	1.302433E+0	1.303072E+0	1.280089E+0	1.322770E+0	1.320294E+0	1.310645E+0	1.214760E+0	1.330415E+0	1.363939E+0	1.309199E+0	1.282893E+0	1.346824E+0	1.336029E+0	1.315997E+0	1.287995E+0	1.312619E+0	1.306656E+0	1.282340E+0	1.289340E+0	1.340100E+0	1.341576E+0	1.313100E+0	1.287413E+0	1.268930E+0	1.292048E+0	1.356678E+0	1.248386E+0	1.299495E+0	1.338940E+0	1.416133E+0	1.131000E+0
5.512510E+2	1.336739E+0	1.363625E+0	1.335332E+0	1.267542E+0	1.352561E+0	1.324462E+0	1.337138E+0	1.342474E+0	1.348260E+0	1.324712E+0	1.355598E+0	1.405541E+0	1.330270E+0	1.336220E+0	1.364083E+0	1.290547E+0	1.413112E+0	1.322922E+0	1.358237E+0	1.279846E+0	1.319268E+0	1.307903E+0	1.362175E+0	1.342823E+0	1.387949E+0	1.444884E+0	1.314901E+0	1.322341E+0	1.343188E+0	1.353237E+0	1.371708E+0	1.299258E+0	1.360371E+0	1.355795E+0	1.362544E+0	1.290832E+0	1.345693E+0	1.359187E+0	1.356002E+0	1.257393E+0	1.349059E+0	1.350733E+0	1.292215E+0	1.370726E+0	1.307573E+0	1.361597E+0	1.314995E+0	1.314638E+0	1.315696E+0	1.357819E+0	1.270926E+0	1.384663E+0	1.336732E+0	1.351423E+0	1.349217E+0	1.322156E+0	1.370422E+0	1.365291E+0	1.333635E+0	1.332439E+0	1.343725E+0	1.308839E+0	1.356138E+0	1.317708E+0	1.332322E+0	1.347853E+0	1.298876E+0	1.338191E+0	1.327511E+0	1.316956E+0	1.331459E+0	1.310341E+0	1.304821E+0	1.357108E+0	1.285455E+0	1.315857E+0	1.346129E+0	1.394025E+0	1.321903E+0	1.320321E+0	1.362917E+0	1.343752E+0	1.393548E+0	1.358624E+0	1.367084E+0	1.321071E+0	1.321528E+0	1.335630E+0	1.314856E+0	1.383806E+0	1.349221E+0	1.339570E+0	1.309940E+0	1.368875E+0	1.362106E+0	1.328480E+0	1.333409E+0	1.289314E+0	1.320799E+0	1.349263E+0	1.317340E+0	1.297011E+0	1.279926E+0	1.338969E+0	1.379653E+0	1.329113E+0	1.344157E+0	1.332830E+0	1.300450E+0	1.366391E+0	1.362921E+0	1.362958E+0	1.360934E+0	1.357974E+0	1.416244E+0	1.291307E+0	1.303196E+0	1.350385E+0	1.315485E+0	1.316660E+0	1.314936E+0	1.331465E+0	1.306338E+0	1.285791E+0	1.306381E+0	1.346680E+0	1.279598E+0	1.312244E+0	1.285944E+0	1.298152E+0	1.304537E+0	1.315289E+0	1.371235E+0	1.306552E+0	1.295995E+0	1.291920E+0	1.329134E+0	1.432427E+0	1.298818E+0	1.310409E+0	1.342395E+0	1.304833E+0	1.338741E+0	1.292620E+0	1.349367E+0	1.335766E+0	1.311427E+0	1.315012E+0	1.313520E+0	1.293801E+0	1.297872E+0	1.283870E+0	1.274524E+0	1.345627E+0	1.333234E+0	1.346180E+0	1.285473E+0	1.359100E+0	1.340445E+0	1.305409E+0	1.306531E+0	1.373233E+0	1.343487E+0	1.342706E+0	1.371774E+0	1.303820E+0	1.302011E+0	1.331262E+0	1.282712E+0	1.330989E+0	1.234359E+0	1.362567E+0
5.520100E+2	1.259831E+0	1.245497E+0	1.266305E+0	1.304711E+0	1.312173E+0	1.295105E+0	1.277404E+0	1.257179E+0	1.287833E+0	1.330132E+0	1.343715E+0	1.317762E+0	1.320720E+0	1.299596E+0	1.299279E+0	1.289028E+0	1.275916E+0	1.305670E+0	1.307101E+0	1.277870E+0	1.319514E+0	1.331087E+0	1.271339E+0	1.318012E+0	1.332891E+0	1.336794E+0	1.262880E+0	1.290773E+0	1.277070E+0	1.281739E+0	1.307198E+0	1.294750E+0	1.288598E+0	1.317002E+0	1.346263E+0	1.276014E+0	1.297884E+0	1.321111E+0	1.312924E+0	1.297988E+0	1.295960E+0	1.333213E+0	1.305644E+0	1.280900E+0	1.268665E+0	1.343261E+0	1.259176E+0	1.310124E+0	1.350921E+0	1.345550E+0	1.313543E+0	1.249539E+0	1.238126E+0	1.260293E+0	1.298153E+0	1.264755E+0	1.290647E+0	1.296453E+0	1.311920E+0	1.287375E+0	1.286846E+0	1.390408E+0	1.303479E+0	1.290590E+0	1.265591E+0	1.277241E+0	1.242730E+0	1.317931E+0	1.273319E+0	1.323707E+0	1.341930E+0	1.277121E+0	1.252019E+0	1.365421E+0	1.259053E+0	1.231432E+0	1.280512E+0	1.318632E+0	1.262084E+0	1.318444E+0	1.260625E+0	1.319661E+0	1.270257E+0	1.184766E+0	1.256447E+0	1.291336E+0	1.298404E+0	1.240176E+0	1.270427E+0	1.340906E+0	1.277888E+0	1.263860E+0	1.267301E+0	1.336730E+0	1.357863E+0	1.237804E+0	1.302829E+0	1.225038E+0	1.240602E+0	1.252316E+0	1.298071E+0	1.284296E+0	1.300740E+0	1.286782E+0	1.306305E+0	1.314282E+0	1.324637E+0	1.280479E+0	1.284366E+0	1.314057E+0	1.262072E+0	1.248535E+0	1.303211E+0	1.276348E+0	1.326625E+0	1.272278E+0	1.299224E+0	1.275454E+0	1.234349E+0	1.304374E+0	1.215998E+0	1.317233E+0	1.290202E+0	1.302901E+0	1.334836E+0	1.272974E+0	1.290197E+0	1.266017E+0	1.281003E+0	1.232593E+0	1.338668E+0	1.291765E+0	1.270812E+0	1.264008E+0	1.265537E+0	1.245323E+0	1.338582E+0	1.322713E+0	1.232690E+0	1.266485E+0	1.279331E+0	1.364085E+0	1.276337E+0	1.305256E+0	1.296822E+0	1.358612E+0	1.278343E+0	1.229239E+0	1.299877E+0	1.255415E+0	1.287484E+0	1.249570E+0	1.242992E+0	1.372494E+0	1.323214E+0	1.317889E+0	1.228527E+0	1.317034E+0	1.248620E+0	1.307297E+0	1.296742E+0	1.235884E+0	1.256277E+0	1.253056E+0	1.284190E+0	1.233571E+0	1.301683E+0	1.266260E+0	1.293573E+0	1.384316E+0	1.256252E+0	1.126551E+0
5.527700E+2	1.292003E+0	1.261769E+0	1.261820E+0	1.281040E+0	1.247390E+0	1.255872E+0	1.300881E+0	1.230334E+0	1.244995E+0	1.263334E+0	1.253873E+0	1.242825E+0	1.285546E+0	1.282684E+0	1.240365E+0	1.250345E+0	1.276144E+0	1.202179E+0	1.214153E+0	1.214571E+0	1.269945E+0	1.292896E+0	1.248577E+0	1.273160E+0	1.254737E+0	1.251935E+0	1.299131E+0	1.228726E+0	1.254142E+0	1.212672E+0	1.255690E+0	1.217150E+0	1.255318E+0	1.315238E+0	1.277578E+0	1.293212E+0	1.260673E+0	1.272058E+0	1.224404E+0	1.196892E+0	1.236604E+0	1.210239E+0	1.248967E+0	1.266743E+0	1.254272E+0	1.291011E+0	1.254252E+0	1.219550E+0	1.267607E+0	1.269089E+0	1.270323E+0	1.273637E+0	1.177606E+0	1.259268E+0	1.167755E+0	1.260735E+0	1.227715E+0	1.232856E+0	1.285366E+0	1.226226E+0	1.270895E+0	1.237846E+0	1.276968E+0	1.204381E+0	1.238719E+0	1.268033E+0	1.246217E+0	1.237911E+0	1.232210E+0	1.240620E+0	1.226351E+0	1.221302E+0	1.204854E+0	1.226707E+0	1.250194E+0	1.266520E+0	1.214507E+0	1.250065E+0	1.258546E+0	1.272745E+0	1.213798E+0	1.217789E+0	1.277213E+0	1.263592E+0	1.221726E+0	1.270351E+0	1.256572E+0	1.273545E+0	1.270782E+0	1.222356E+0	1.264688E+0	1.250773E+0	1.272707E+0	1.289310E+0	1.273523E+0	1.274013E+0	1.264978E+0	1.223865E+0	1.243702E+0	1.259167E+0	1.220815E+0	1.253207E+0	1.200649E+0	1.232949E+0	1.225370E+0	1.324920E+0	1.262499E+0	1.215607E+0	1.258942E+0	1.292765E+0	1.249126E+0	1.211147E+0	1.240241E+0	1.242025E+0	1.255719E+0	1.215648E+0	1.253049E+0	1.242280E+0	1.247689E+0	1.234935E+0	1.241271E+0	1.252528E+0	1.218705E+0	1.184148E+0	1.228060E+0	1.233102E+0	1.233056E+0	1.225798E+0	1.299339E+0	1.207435E+0	1.218578E+0	1.204004E+0	1.226220E+0	1.211859E+0	1.265747E+0	1.258468E+0	1.251057E+0	1.287075E+0	1.239976E+0	1.208540E+0	1.249861E+0	1.245984E+0	1.242580E+0	1.248015E+0	1.190358E+0	1.265933E+0	1.298508E+0	1.236335E+0	1.254163E+0	1.253687E+0	1.207279E+0	1.234461E+0	1.265154E+0	1.270857E+0	1.266255E+0	1.231004E+0	1.191764E+0	1.243685E+0	1.229759E+0	1.213367E+0	1.302329E+0	1.236816E+0	1.209326E+0	1.217719E+0	1.210923E+0	1.196683E+0	1.276575E+0	1.188808E+0	1.307919E+0	1.300390E+0	1.207143E+0	1.146572E+0
5.535100E+2	1.204844E+0	1.209230E+0	1.193073E+0	1.199453E+0	1.194712E+0	1.157322E+0	1.226992E+0	1.183630E+0	1.207324E+0	1.213295E+0	1.206123E+0	1.205072E+0	1.218661E+0	1.173242E+0	1.238209E+0	1.189137E+0	1.190641E+0	1.192947E+0	1.136997E+0	1.169955E+0	1.212507E+0	1.189594E+0	1.205141E+0	1.233704E+0	1.206324E+0	1.167423E+0	1.182467E+0	1.151541E+0	1.226292E+0	1.157020E+0	1.186202E+0	1.162083E+0	1.162387E+0	1.166916E+0	1.174419E+0	1.153101E+0	1.159775E+0	1.189493E+0	1.191359E+0	1.167867E+0	1.154231E+0	1.191339E+0	1.219273E+0	1.191509E+0	1.175202E+0	1.232497E+0	1.209957E+0	1.172384E+0	1.227161E+0	1.246622E+0	1.205311E+0	1.183308E+0	1.224302E+0	1.196791E+0	1.189995E+0	1.161269E+0	1.173612E+0	1.171318E+0	1.163792E+0	1.234546E+0	1.191787E+0	1.200691E+0	1.174845E+0	1.236973E+0	1.168063E+0	1.179780E+0	1.187524E+0	1.184521E+0	1.177362E+0	1.185685E+0	1.146177E+0	1.181488E+0	1.143424E+0	1.193276E+0	1.208673E+0	1.171990E+0	1.207490E+0	1.186012E+0	1.163968E+0	1.184678E+0	1.161503E+0	1.221090E+0	1.172067E+0	1.170631E+0	1.171112E+0	1.187510E+0	1.192274E+0	1.168763E+0	1.232656E+0	1.252474E+0	1.149182E+0	1.179617E+0	1.183349E+0	1.190078E+0	1.202173E+0	1.178709E+0	1.156874E+0	1.185079E+0	1.201023E+0	1.140289E+0	1.194183E+0	1.184415E+0	1.184272E+0	1.237440E+0	1.132603E+0	1.235422E+0	1.146198E+0	1.155149E+0	1.169210E+0	1.127740E+0	1.179688E+0	1.202540E+0	1.190666E+0	1.194785E+0	1.243362E+0	1.140397E+0	1.171137E+0	1.184650E+0	1.161497E+0	1.155917E+0	1.130801E+0	1.210010E+0	1.168245E+0	1.183441E+0	1.241240E+0	1.190519E+0	1.167559E+0	1.186311E+0	1.185571E+0	1.208952E+0	1.186994E+0	1.125924E+0	1.152214E+0	1.170318E+0	1.178203E+0	1.168495E+0	1.181529E+0	1.266179E+0	1.155964E+0	1.120096E+0	1.178772E+0	1.178188E+0	1.192954E+0	1.195381E+0	1.211844E+0	1.199350E+0	1.206095E+0	1.179441E+0	1.233994E+0	1.186547E+0	1.115437E+0	1.184682E+0	1.159440E+0	1.265520E+0	1.173326E+0	1.184900E+0	1.142645E+0	1.190262E+0	1.190419E+0	1.214803E+0	1.147431E+0	1.213897E+0	1.237741E+0	1.210466E+0	1.197940E+0	1.148009E+0	1.178346E+0	1.220170E+0	1.193373E+0	1.191724E+0	1.156891E+0	1.189507E+0
5.542580E+2	1.098091E+0	1.094155E+0	1.138933E+0	1.114398E+0	1.085407E+0	1.134927E+0	1.087980E+0	1.111633E+0	1.162626E+0	1.156715E+0	1.173619E+0	1.162260E+0	1.101920E+0	1.066798E+0	1.130341E+0	1.102395E+0	1.092395E+0	1.031733E+0	1.109432E+0	1.078259E+0	1.126643E+0	1.092945E+0	1.146215E+0	1.109687E+0	1.094328E+0	1.095029E+0	1.129421E+0	1.049343E+0	1.127809E+0	1.084944E+0	1.108232E+0	1.055470E+0	1.092965E+0	1.107828E+0	1.115694E+0	1.077781E+0	1.125451E+0	1.174751E+0	1.107149E+0	1.108967E+0	1.088174E+0	1.128243E+0	1.079276E+0	1.138209E+0	1.074277E+0	1.069582E+0	1.095977E+0	1.102992E+0	1.116337E+0	1.149034E+0	1.138087E+0	1.115103E+0	1.086369E+0	1.058438E+0	1.121705E+0	1.104510E+0	1.057888E+0	1.148999E+0	1.118999E+0	1.086080E+0	1.150845E+0	1.139949E+0	1.132738E+0	1.122480E+0	1.092051E+0	1.097575E+0	1.077984E+0	1.133741E+0	1.113816E+0	1.083744E+0	1.099755E+0	1.055015E+0	1.088354E+0	1.107553E+0	1.126629E+0	1.071647E+0	1.075998E+0	1.106947E+0	1.088205E+0	1.102611E+0	1.120424E+0	1.133319E+0	1.102621E+0	1.101097E+0	1.064424E+0	1.086418E+0	1.080728E+0	1.106740E+0	1.046163E+0	1.101871E+0	1.132032E+0	1.147272E+0	1.100582E+0	1.115587E+0	1.109006E+0	1.113846E+0	1.070452E+0	1.080185E+0	1.126954E+0	1.136942E+0	1.133775E+0	1.104956E+0	1.110473E+0	1.074139E+0	1.123126E+0	1.182977E+0	1.068174E+0	1.148931E+0	1.095221E+0	1.132840E+0	1.115608E+0	1.106292E+0	1.040967E+0	1.103558E+0	1.085527E+0	1.088511E+0	1.062174E+0	1.108012E+0	1.127858E+0	1.050649E+0	1.109392E+0	1.093584E+0	1.111189E+0	1.096764E+0	1.071336E+0	1.127017E+0	1.127353E+0	1.112307E+0	1.097131E+0	1.087216E+0	1.125778E+0	1.105511E+0	1.120690E+0	1.105971E+0	1.074853E+0	1.114949E+0	1.037113E+0	1.107216E+0	1.026668E+0	1.086345E+0	1.095573E+0	1.127839E+0	1.121810E+0	1.055970E+0	1.081855E+0	1.083470E+0	1.122724E+0	1.034575E+0	1.113747E+0	1.106995E+0	1.126085E+0	1.098850E+0	1.108822E+0	1.146063E+0	1.080930E+0	1.132382E+0	1.078695E+0	1.124366E+0	1.081884E+0	1.128929E+0	1.123059E+0	1.051117E+0	1.112363E+0	1.079302E+0	1.113540E+0	1.095163E+0	1.102246E+0	1.078794E+0	1.110025E+0	1.087161E+0	1.114514E+0	1.008752E+0
5.550190E+2	1.015453E+0	1.028492E+0	1.012498E+0	1.039339E+0	1.034116E+0	1.006947E+0	1.050099E+0	1.024054E+0	1.036399E+0	1.042861E+0	1.055755E+0	1.044864E+0	1.013861E+0	9.979529E-1	1.020113E+0	1.029973E+0	1.014368E+0	1.036030E+0	1.027338E+0	1.024054E+0	1.013718E+0	1.020907E+0	1.032103E+0	1.035852E+0	1.002061E+0	1.037139E+0	1.004212E+0	1.026989E+0	1.006680E+0	1.045564E+0	1.009003E+0	1.035179E+0	1.056595E+0	1.009767E+0	1.067009E+0	9.961271E-1	1.050063E+0	1.042988E+0	1.020680E+0	1.012378E+0	9.849810E-1	1.019536E+0	1.028578E+0	1.046627E+0	9.847858E-1	1.035358E+0	1.027596E+0	1.035393E+0	1.048907E+0	9.984780E-1	1.028732E+0	1.046066E+0	1.033108E+0	1.052904E+0	1.011380E+0	1.026497E+0	1.035932E+0	1.046505E+0	1.070795E+0	1.009629E+0	1.004438E+0	1.016485E+0	1.009571E+0	1.027155E+0	1.007404E+0	1.017093E+0	1.023342E+0	1.041372E+0	1.026147E+0	9.850642E-1	1.029992E+0	1.032709E+0	1.026323E+0	1.022680E+0	1.020378E+0	9.819587E-1	1.036126E+0	1.030405E+0	1.058471E+0	1.035689E+0	1.084986E+0	1.032857E+0	9.875131E-1	1.044804E+0	1.032225E+0	1.077171E+0	1.010419E+0	1.035595E+0	1.029989E+0	1.001245E+0	1.011139E+0	1.030111E+0	1.031075E+0	1.019336E+0	1.060364E+0	9.889690E-1	1.001065E+0	9.804958E-1	1.054036E+0	1.030531E+0	1.043126E+0	1.005231E+0	1.017534E+0	1.023040E+0	1.007075E+0	1.044621E+0	9.992329E-1	9.922062E-1	9.947690E-1	1.019050E+0	1.078046E+0	1.038806E+0	1.052636E+0	1.047376E+0	1.057867E+0	1.039616E+0	1.012089E+0	1.013347E+0	9.878240E-1	1.023012E+0	1.029436E+0	9.887500E-1	1.050972E+0	1.025573E+0	1.012742E+0	1.029865E+0	1.032036E+0	1.070781E+0	1.010652E+0	1.026008E+0	9.836929E-1	1.012934E+0	1.010408E+0	1.035473E+0	1.032253E+0	1.029846E+0	1.026381E+0	1.011977E+0	1.012463E+0	1.025828E+0	1.004967E+0	1.025876E+0	1.001908E+0	1.041498E+0	1.075045E+0	1.029120E+0	1.029083E+0	9.840965E-1	1.009014E+0	1.069089E+0	9.784101E-1	1.001874E+0	9.727824E-1	1.033038E+0	9.658833E-1	1.008971E+0	9.970682E-1	1.045620E+0	1.031614E+0	9.809936E-1	1.083180E+0	1.034770E+0	1.046419E+0	1.020297E+0	1.019013E+0	9.625678E-1	1.029855E+0	1.015665E+0	1.036158E+0	1.068365E+0	9.833907E-1	1.051623E+0
5.557660E+2	9.680206E-1	1.034179E+0	9.994042E-1	9.735671E-1	9.723846E-1	9.778120E-1	9.750725E-1	9.729383E-1	9.930614E-1	1.009418E+0	1.005239E+0	1.001434E+0	9.645637E-1	9.979179E-1	9.908164E-1	9.331587E-1	9.795606E-1	9.903315E-1	9.407937E-1	9.544222E-1	9.619036E-1	1.019865E+0	9.771910E-1	9.893961E-1	9.880779E-1	9.730147E-1	1.025594E+0	9.162380E-1	9.723787E-1	9.836792E-1	9.384174E-1	9.684039E-1	9.670637E-1	9.837269E-1	9.770275E-1	9.356679E-1	1.024681E+0	9.598059E-1	9.557751E-1	9.244376E-1	9.591337E-1	9.682843E-1	1.001810E+0	9.860300E-1	9.770933E-1	9.642240E-1	9.815438E-1	9.969581E-1	9.880792E-1	9.936265E-1	9.684956E-1	9.615897E-1	1.003857E+0	9.302792E-1	9.297077E-1	9.735610E-1	1.000557E+0	9.724181E-1	9.782712E-1	9.942937E-1	9.697814E-1	9.794831E-1	1.006928E+0	9.591357E-1	9.447358E-1	9.714071E-1	9.620721E-1	9.683987E-1	9.745801E-1	9.428259E-1	9.943020E-1	9.554686E-1	9.665880E-1	9.662235E-1	9.751922E-1	9.382741E-1	9.625666E-1	1.003063E+0	1.007202E+0	9.571544E-1	1.008078E+0	9.804793E-1	9.815129E-1	1.002747E+0	9.585535E-1	9.808245E-1	9.394297E-1	9.811680E-1	9.623772E-1	9.716977E-1	9.839618E-1	9.736113E-1	9.939418E-1	9.673082E-1	9.755213E-1	9.503221E-1	9.732759E-1	9.899331E-1	1.019949E+0	9.953339E-1	9.705581E-1	9.598659E-1	9.674359E-1	9.588972E-1	1.003423E+0	9.831921E-1	9.576737E-1	9.820462E-1	9.916059E-1	9.727379E-1	9.821605E-1	9.541570E-1	9.769347E-1	9.641861E-1	1.057291E+0	9.519521E-1	9.667222E-1	9.657654E-1	9.860541E-1	9.866354E-1	9.252354E-1	1.017517E+0	9.585692E-1	9.668711E-1	9.835449E-1	9.766052E-1	9.993315E-1	9.716609E-1	1.029412E+0	9.700480E-1	9.440449E-1	1.007044E+0	9.578973E-1	9.928044E-1	9.955315E-1	9.466872E-1	1.049996E+0	1.011574E+0	9.818947E-1	9.632523E-1	1.008288E+0	9.884943E-1	9.577314E-1	9.931310E-1	9.907854E-1	9.796818E-1	9.884998E-1	9.396449E-1	1.033349E+0	9.729626E-1	9.821679E-1	9.883337E-1	9.780584E-1	1.012153E+0	9.879874E-1	1.039780E+0	1.012151E+0	9.992713E-1	1.027333E+0	9.967008E-1	1.012558E+0	9.726681E-1	9.701384E-1	9.970084E-1	9.722708E-1	1.007613E+0	9.859427E-1	9.954525E-1	9.887325E-1	1.012519E+0	9.150186E-1	9.213378E-1
5.560080E+2	1.059392E+0	9.461592E-1	9.830310E-1	9.747945E-1	9.932480E-1	9.531431E-1	9.719867E-1	9.632430E-1	9.368466E-1	9.811678E-1	1.021709E+0	9.815018E-1	1.005962E+0	9.686934E-1	9.653745E-1	9.722996E-1	9.807515E-1	9.734234E-1	9.783757E-1	9.608311E-1	9.571983E-1	9.561054E-1	9.554557E-1	9.875635E-1	9.590280E-1	9.779499E-1	9.599422E-1	9.997762E-1	9.854350E-1	9.999723E-1	9.919105E-1	9.755183E-1	9.661281E-1	9.544626E-1	1.021522E+0	9.181970E-1	9.617527E-1	1.005552E+0	9.998335E-1	9.590958E-1	9.875499E-1	9.632597E-1	9.233875E-1	1.000968E+0	9.698011E-1	9.807488E-1	1.005692E+0	9.543713E-1	9.661383E-1	1.003462E+0	9.634984E-1	1.060544E+0	9.537372E-1	9.503781E-1	9.717359E-1	9.610935E-1	1.035292E+0	9.444561E-1	9.662360E-1	9.891552E-1	9.954259E-1	9.575719E-1	9.951351E-1	9.937872E-1	9.658307E-1	9.946282E-1	9.776583E-1	9.715822E-1	9.503866E-1	9.524249E-1	9.597621E-1	9.102900E-1	9.558506E-1	9.487447E-1	9.553218E-1	9.785018E-1	9.467256E-1	9.657744E-1	9.611305E-1	9.924215E-1	9.761602E-1	1.030652E+0	9.792501E-1	9.450714E-1	9.710820E-1	9.684637E-1	9.923760E-1	9.904598E-1	9.629897E-1	9.877603E-1	9.848544E-1	9.774118E-1	9.976706E-1	9.915351E-1	1.045963E+0	9.964474E-1	9.795704E-1	1.028238E+0	9.723272E-1	9.676861E-1	9.688169E-1	9.532365E-1	9.778177E-1	9.496976E-1	1.007552E+0	9.498234E-1	9.748205E-1	1.006578E+0	9.710982E-1	1.013460E+0	9.579507E-1	9.853260E-1	9.653453E-1	9.687469E-1	1.001112E+0	9.287623E-1	9.684966E-1	9.877755E-1	9.928519E-1	9.843653E-1	9.259861E-1	9.582259E-1	9.876064E-1	9.449146E-1	9.826514E-1	9.636752E-1	9.581340E-1	9.706698E-1	9.763601E-1	9.709269E-1	9.825303E-1	9.309338E-1	9.424633E-1	9.820436E-1	8.983199E-1	9.369014E-1	1.006055E+0	9.902491E-1	9.711804E-1	9.560456E-1	9.843544E-1	1.002723E+0	1.032652E+0	9.505441E-1	9.730809E-1	9.807268E-1	1.014692E+0	9.582592E-1	9.739574E-1	9.585012E-1	9.559149E-1	8.976022E-1	9.203610E-1	9.940858E-1	9.803367E-1	1.016883E+0	9.792313E-1	9.900357E-1	9.697921E-1	9.778461E-1	9.831182E-1	9.993816E-1	9.851950E-1	9.823565E-1	9.592127E-1	9.854653E-1	9.633711E-1	9.309108E-1	9.991643E-1	1.021998E+0	9.798011E-1	1.082647E+0
5.565090E+2	1.006104E+0	9.271672E-1	9.912334E-1	9.617865E-1	9.520906E-1	9.590144E-1	9.625308E-1	9.526832E-1	9.384301E-1	9.624343E-1	9.775014E-1	1.032046E+0	9.965390E-1	9.903317E-1	9.632705E-1	9.535972E-1	1.001373E+0	9.477950E-1	9.526825E-1	9.560340E-1	9.555415E-1	9.642603E-1	9.717488E-1	1.003635E+0	9.782367E-1	9.856917E-1	9.887604E-1	1.008019E+0	9.928496E-1	9.531146E-1	9.683885E-1	9.784891E-1	1.014250E+0	9.791816E-1	9.789420E-1	8.877987E-1	9.517544E-1	9.856042E-1	9.541787E-1	9.801844E-1	9.735577E-1	9.303253E-1	9.782394E-1	9.662904E-1	9.136609E-1	9.855982E-1	9.609921E-1	1.000847E+0	9.811597E-1	9.634660E-1	9.702943E-1	1.004218E+0	9.762291E-1	9.420000E-1	9.684790E-1	9.417557E-1	9.821910E-1	9.522348E-1	9.795779E-1	9.764725E-1	9.903739E-1	9.715040E-1	1.022040E+0	9.404909E-1	9.467555E-1	9.768396E-1	9.537028E-1	1.000271E+0	9.655200E-1	1.008939E+0	1.018151E+0	9.808286E-1	9.538784E-1	9.424300E-1	1.008568E+0	9.717856E-1	9.885309E-1	9.623923E-1	9.900466E-1	9.648017E-1	9.468719E-1	9.530025E-1	9.718133E-1	1.027490E+0	9.675747E-1	9.676085E-1	9.653317E-1	9.829550E-1	9.636222E-1	9.532161E-1	9.693216E-1	9.443055E-1	9.979462E-1	9.899766E-1	9.534952E-1	9.589993E-1	9.724359E-1	1.002549E+0	9.651267E-1	1.019383E+0	9.356505E-1	9.824222E-1	9.589123E-1	9.707904E-1	9.552058E-1	9.902817E-1	9.875929E-1	9.515560E-1	9.722639E-1	9.727443E-1	9.985159E-1	9.993523E-1	9.541584E-1	9.932822E-1	9.665079E-1	9.564357E-1	9.725758E-1	9.733127E-1	9.646906E-1	9.738125E-1	9.521235E-1	9.740150E-1	9.989311E-1	9.588118E-1	9.973031E-1	9.809606E-1	9.697018E-1	9.809875E-1	9.936182E-1	9.601678E-1	9.514279E-1	9.625201E-1	9.754154E-1	9.674335E-1	9.786069E-1	9.332701E-1	9.507198E-1	9.821004E-1	9.632357E-1	9.167565E-1	9.745703E-1	9.638006E-1	9.397582E-1	9.372757E-1	1.002843E+0	9.583685E-1	9.638160E-1	9.439341E-1	9.841763E-1	9.969447E-1	9.670479E-1	1.008847E+0	9.446842E-1	9.832978E-1	9.700459E-1	1.016648E+0	9.503478E-1	1.013029E+0	9.617559E-1	9.647519E-1	9.737109E-1	9.778831E-1	9.426970E-1	9.745575E-1	9.686247E-1	9.883900E-1	9.704914E-1	9.292758E-1	9.775864E-1	9.736714E-1	9.857324E-1	9.579983E-1
5.570500E+2	9.527433E-1	9.987897E-1	9.785204E-1	9.862772E-1	1.020808E+0	1.002577E+0	1.027202E+0	9.961343E-1	1.030989E+0	9.824661E-1	1.021142E+0	1.011373E+0	9.776322E-1	9.894334E-1	1.001852E+0	9.792332E-1	9.768079E-1	9.856845E-1	1.046722E+0	9.998822E-1	9.914428E-1	9.794158E-1	9.887356E-1	9.728932E-1	9.671970E-1	1.033254E+0	1.011736E+0	9.751962E-1	1.047557E+0	9.850622E-1	9.900465E-1	9.824865E-1	9.541281E-1	1.002774E+0	9.978019E-1	9.828576E-1	9.949655E-1	1.003508E+0	9.895851E-1	1.016301E+0	9.813326E-1	9.862981E-1	1.009432E+0	1.009953E+0	9.753848E-1	1.031506E+0	1.053205E+0	9.637911E-1	9.798545E-1	1.011140E+0	1.021535E+0	1.039364E+0	9.763767E-1	9.976459E-1	1.000305E+0	9.808813E-1	9.740844E-1	9.690462E-1	9.481706E-1	1.039400E+0	9.917273E-1	1.008628E+0	9.919535E-1	1.004308E+0	9.761603E-1	9.703412E-1	1.051994E+0	9.985930E-1	9.598350E-1	9.974570E-1	1.034179E+0	9.567875E-1	9.986290E-1	9.581084E-1	9.955115E-1	1.004950E+0	1.001500E+0	9.905377E-1	1.037830E+0	9.862403E-1	1.000682E+0	9.919721E-1	1.032433E+0	9.920898E-1	9.811203E-1	9.913116E-1	1.039886E+0	1.009843E+0	9.664320E-1	9.427676E-1	1.007228E+0	9.391405E-1	1.002779E+0	9.918448E-1	9.865609E-1	9.806541E-1	9.883326E-1	9.810290E-1	1.005985E+0	9.833182E-1	1.027250E+0	1.024526E+0	9.730632E-1	1.034605E+0	9.895083E-1	9.611936E-1	9.649232E-1	9.646648E-1	9.874809E-1	9.969782E-1	9.882825E-1	9.760605E-1	1.045416E+0	1.030583E+0	9.797365E-1	1.005432E+0	9.532686E-1	1.007341E+0	1.022166E+0	1.008523E+0	1.038227E+0	1.026056E+0	9.968095E-1	1.035488E+0	9.553682E-1	9.666225E-1	9.895250E-1	9.831671E-1	9.865609E-1	1.046542E+0	1.016812E+0	9.956354E-1	9.551338E-1	9.747015E-1	9.715493E-1	9.747046E-1	9.928335E-1	1.001413E+0	1.008736E+0	1.028379E+0	9.857249E-1	9.680329E-1	9.772040E-1	9.834559E-1	9.916374E-1	9.893388E-1	1.025784E+0	1.019842E+0	9.836400E-1	9.836803E-1	1.008723E+0	1.016081E+0	1.007409E+0	1.014290E+0	1.029660E+0	1.011563E+0	9.650387E-1	9.695799E-1	1.011039E+0	9.886009E-1	9.927106E-1	9.835430E-1	1.023926E+0	1.019990E+0	1.006701E+0	9.917485E-1	1.008612E+0	1.009154E+0	1.075378E+0	9.971350E-1	9.476346E-1	9.786859E-1
5.575530E+2	9.948499E-1	9.906830E-1	1.006707E+0	9.949297E-1	9.698075E-1	1.000291E+0	9.912465E-1	9.760394E-1	9.765143E-1	9.971587E-1	9.951267E-1	1.012719E+0	9.592033E-1	9.838780E-1	9.901304E-1	9.801119E-1	1.025577E+0	1.002614E+0	9.653691E-1	9.959088E-1	9.982037E-1	1.005454E+0	1.035567E+0	9.520619E-1	1.012843E+0	9.676606E-1	9.916210E-1	1.013642E+0	9.381203E-1	9.815952E-1	1.014451E+0	9.790168E-1	9.627695E-1	9.898319E-1	9.770084E-1	9.767729E-1	9.888948E-1	1.009174E+0	1.023202E+0	9.909568E-1	9.782682E-1	1.007414E+0	1.022462E+0	9.804577E-1	9.791786E-1	9.663199E-1	9.783172E-1	9.802968E-1	1.000758E+0	1.021657E+0	9.852211E-1	9.574020E-1	9.987415E-1	1.005491E+0	9.708912E-1	9.607546E-1	1.020999E+0	9.774356E-1	1.016241E+0	9.941158E-1	1.004559E+0	9.435847E-1	9.888317E-1	9.761431E-1	9.721826E-1	1.003911E+0	9.946715E-1	1.029600E+0	1.027104E+0	1.011984E+0	9.283276E-1	9.863150E-1	9.590804E-1	9.932681E-1	1.057470E+0	9.642139E-1	9.471879E-1	9.890416E-1	1.027705E+0	9.821586E-1	9.818235E-1	9.788340E-1	9.289302E-1	9.828047E-1	9.827999E-1	9.589909E-1	9.801371E-1	1.019698E+0	1.011996E+0	1.005729E+0	1.004667E+0	9.867374E-1	1.003828E+0	9.903596E-1	9.777067E-1	1.000104E+0	1.027544E+0	9.923880E-1	9.523606E-1	1.000748E+0	9.791122E-1	1.002168E+0	9.916981E-1	9.857524E-1	1.000759E+0	9.991910E-1	1.012698E+0	9.811753E-1	9.869619E-1	9.657212E-1	1.006225E+0	9.856448E-1	9.791574E-1	9.814074E-1	1.007267E+0	9.581300E-1	1.015064E+0	9.937099E-1	1.012704E+0	1.000013E+0	1.020847E+0	9.748088E-1	1.028634E+0	9.801774E-1	1.009408E+0	1.007110E+0	9.745695E-1	9.743181E-1	1.023882E+0	9.869809E-1	9.805362E-1	9.624612E-1	1.013645E+0	9.980799E-1	9.801761E-1	1.023500E+0	9.919988E-1	9.790364E-1	9.962568E-1	9.822986E-1	9.771916E-1	1.010697E+0	1.043610E+0	9.944766E-1	9.939125E-1	1.044701E+0	9.569023E-1	9.993828E-1	1.028077E+0	9.975056E-1	9.776160E-1	9.865024E-1	9.260445E-1	9.753674E-1	1.028105E+0	9.524467E-1	9.845660E-1	9.816710E-1	9.920005E-1	9.950181E-1	9.954280E-1	1.007077E+0	9.494639E-1	1.006185E+0	1.009644E+0	9.764173E-1	1.002663E+0	9.780739E-1	1.021094E+0	1.010235E+0	9.705740E-1	1.121748E+0
5.580110E+2	1.002740E+0	1.009338E+0	1.044067E+0	1.014592E+0	1.008816E+0	1.018208E+0	9.434887E-1	9.810138E-1	9.978418E-1	1.001850E+0	1.001656E+0	1.002017E+0	9.761698E-1	9.826940E-1	9.997169E-1	1.027799E+0	1.003057E+0	1.014331E+0	9.855043E-1	1.007252E+0	1.008529E+0	9.857984E-1	1.009487E+0	9.982647E-1	1.008212E+0	1.000240E+0	1.014363E+0	1.019992E+0	9.807531E-1	9.733713E-1	1.011139E+0	1.025500E+0	9.820423E-1	1.023937E+0	9.864951E-1	9.623498E-1	9.589145E-1	1.019719E+0	9.874894E-1	9.826904E-1	1.029158E+0	9.998255E-1	1.014533E+0	1.041243E+0	1.003825E+0	9.972754E-1	9.725193E-1	1.004962E+0	9.867787E-1	9.984418E-1	1.010434E+0	1.018275E+0	1.070941E+0	9.867937E-1	1.011687E+0	1.005223E+0	1.027384E+0	1.014267E+0	9.861101E-1	1.003400E+0	1.020472E+0	9.841908E-1	1.025943E+0	9.925081E-1	9.913470E-1	9.965765E-1	1.001750E+0	9.842311E-1	9.742161E-1	1.015852E+0	1.006121E+0	9.818968E-1	1.003224E+0	9.993106E-1	9.839032E-1	1.003011E+0	1.012779E+0	9.896460E-1	9.982692E-1	1.001135E+0	9.960542E-1	9.971227E-1	9.899813E-1	1.037222E+0	1.006488E+0	9.944951E-1	9.853474E-1	1.017766E+0	9.587752E-1	1.005575E+0	9.749464E-1	9.790813E-1	9.961041E-1	1.007251E+0	9.882592E-1	1.016905E+0	9.626834E-1	1.015925E+0	1.075169E+0	1.034338E+0	9.734526E-1	1.007479E+0	1.033795E+0	9.925568E-1	9.965329E-1	9.897913E-1	9.975111E-1	1.002973E+0	9.714006E-1	1.004024E+0	1.011045E+0	1.002358E+0	1.013290E+0	9.929153E-1	9.864371E-1	1.001611E+0	9.912550E-1	1.020559E+0	9.940117E-1	1.002003E+0	1.025590E+0	9.913283E-1	1.018154E+0	9.413210E-1	9.933600E-1	9.845400E-1	1.020367E+0	1.025775E+0	9.981913E-1	9.798757E-1	1.012435E+0	1.017251E+0	9.659596E-1	1.028777E+0	1.012270E+0	1.011484E+0	1.050924E+0	1.026669E+0	1.035793E+0	1.031339E+0	1.008072E+0	1.004655E+0	1.016668E+0	9.641716E-1	9.935481E-1	9.968683E-1	9.963018E-1	1.004479E+0	9.653365E-1	9.699461E-1	1.033037E+0	1.000837E+0	1.017594E+0	9.992842E-1	9.596842E-1	1.009475E+0	9.817265E-1	1.015501E+0	9.974543E-1	9.932435E-1	1.011554E+0	9.916461E-1	1.042789E+0	9.933366E-1	9.970129E-1	9.946374E-1	9.954654E-1	1.030528E+0	1.050515E+0	1.030765E+0	9.896004E-1	9.689959E-1
5.585100E+2	1.002466E+0	9.883772E-1	1.020851E+0	1.021764E+0	1.007482E+0	1.014643E+0	1.036075E+0	1.020252E+0	1.020536E+0	1.027388E+0	9.771489E-1	9.900900E-1	1.015660E+0	1.015912E+0	1.031840E+0	1.018563E+0	1.025121E+0	9.952106E-1	9.753286E-1	1.017472E+0	1.007161E+0	1.024591E+0	1.018464E+0	9.851156E-1	1.019660E+0	9.870321E-1	1.005217E+0	9.894977E-1	9.977461E-1	1.036082E+0	9.573369E-1	1.011759E+0	9.833742E-1	1.042525E+0	1.018073E+0	1.046666E+0	1.055531E+0	9.865427E-1	1.008814E+0	1.015566E+0	1.007960E+0	9.905724E-1	9.957114E-1	9.870499E-1	9.856498E-1	9.936068E-1	1.034245E+0	1.029660E+0	1.009011E+0	1.021999E+0	9.903773E-1	1.000230E+0	1.047011E+0	9.915615E-1	1.012650E+0	1.018113E+0	1.028286E+0	1.015522E+0	1.034432E+0	1.006272E+0	1.009212E+0	1.011211E+0	1.004650E+0	1.026051E+0	1.040104E+0	1.010488E+0	1.057566E+0	1.029179E+0	1.005954E+0	9.789451E-1	1.015177E+0	9.570931E-1	9.991222E-1	1.019548E+0	1.006995E+0	1.019349E+0	1.002927E+0	1.002482E+0	9.814356E-1	1.027006E+0	9.980429E-1	1.015214E+0	9.735709E-1	1.051575E+0	1.009095E+0	1.027438E+0	1.006037E+0	1.018727E+0	1.003762E+0	1.017193E+0	1.047747E+0	1.038435E+0	1.000789E+0	1.024799E+0	1.023937E+0	1.044399E+0	1.014951E+0	1.051439E+0	9.884456E-1	1.001661E+0	1.012810E+0	1.035219E+0	1.006759E+0	1.008615E+0	1.061558E+0	1.069390E+0	9.753768E-1	1.060080E+0	1.021419E+0	1.030893E+0	1.037801E+0	9.703711E-1	1.001756E+0	9.912179E-1	9.906830E-1	1.057141E+0	1.014835E+0	9.865691E-1	1.006916E+0	1.017387E+0	1.034414E+0	1.020995E+0	1.022071E+0	9.962869E-1	1.010908E+0	9.907875E-1	1.021958E+0	9.913612E-1	1.000792E+0	1.023392E+0	1.046691E+0	1.006544E+0	1.033788E+0	1.033333E+0	1.053972E+0	1.013235E+0	1.002165E+0	1.016993E+0	9.865465E-1	9.842444E-1	9.770979E-1	1.037642E+0	1.020027E+0	1.028618E+0	9.888779E-1	1.008958E+0	1.003718E+0	1.021739E+0	9.802701E-1	1.019064E+0	9.880751E-1	1.008315E+0	9.829282E-1	9.946397E-1	1.014054E+0	9.943097E-1	1.045205E+0	1.014084E+0	1.007793E+0	9.959041E-1	1.020364E+0	1.024049E+0	1.050105E+0	1.014660E+0	1.023753E+0	9.959698E-1	1.028402E+0	1.019289E+0	9.791142E-1	1.042057E+0	1.054921E+0	1.013027E+0
5.590100E+2	9.832413E-1	1.019146E+0	9.800123E-1	1.016746E+0	1.004485E+0	1.000962E+0	1.042149E+0	1.082231E+0	1.004282E+0	1.027584E+0	1.066570E+0	1.021687E+0	1.047859E+0	1.024778E+0	1.037645E+0	1.015028E+0	1.039209E+0	1.041117E+0	1.031152E+0	9.841825E-1	1.009037E+0	1.004723E+0	9.679036E-1	1.058460E+0	1.055692E+0	1.023968E+0	1.008154E+0	1.004053E+0	1.019629E+0	1.024441E+0	9.986486E-1	1.038525E+0	1.062178E+0	9.732488E-1	1.033657E+0	1.025696E+0	9.992994E-1	9.924343E-1	9.860729E-1	1.019138E+0	1.039698E+0	9.903412E-1	1.001663E+0	1.004040E+0	1.028541E+0	1.028068E+0	1.020481E+0	1.034498E+0	1.035172E+0	1.070092E+0	1.036687E+0	9.932846E-1	9.925226E-1	1.054643E+0	1.030973E+0	1.038215E+0	1.004493E+0	1.032706E+0	1.024618E+0	1.026858E+0	1.016228E+0	1.061809E+0	1.052716E+0	9.948312E-1	1.001231E+0	1.005323E+0	1.023400E+0	1.023441E+0	1.038567E+0	1.018993E+0	1.016174E+0	1.051229E+0	9.907287E-1	1.061747E+0	1.005774E+0	1.047897E+0	1.048505E+0	1.018313E+0	9.963659E-1	1.018845E+0	1.023151E+0	1.019945E+0	1.054691E+0	9.837943E-1	1.039829E+0	1.021139E+0	9.794133E-1	1.003206E+0	9.932616E-1	1.026986E+0	9.946699E-1	1.079333E+0	1.017022E+0	1.042471E+0	1.010764E+0	1.009630E+0	1.030233E+0	9.882080E-1	1.033389E+0	9.901804E-1	1.080303E+0	1.029644E+0	1.014427E+0	9.879088E-1	1.039459E+0	1.058203E+0	1.025770E+0	9.851114E-1	1.055351E+0	1.019325E+0	1.022137E+0	1.024233E+0	9.781053E-1	1.051743E+0	1.014522E+0	9.924612E-1	1.033072E+0	1.001778E+0	9.856977E-1	1.021850E+0	9.894163E-1	1.015557E+0	1.001401E+0	1.022987E+0	1.017304E+0	1.014459E+0	1.005759E+0	1.006712E+0	1.035989E+0	1.019676E+0	9.998557E-1	9.998952E-1	1.023325E+0	1.002789E+0	1.023554E+0	1.034924E+0	9.870018E-1	9.968659E-1	9.810316E-1	1.006268E+0	1.038869E+0	1.048137E+0	1.001342E+0	9.798453E-1	1.039761E+0	9.582703E-1	1.047209E+0	1.026874E+0	1.039370E+0	1.022394E+0	1.029638E+0	9.982091E-1	1.040797E+0	9.962507E-1	1.044808E+0	1.028087E+0	1.017530E+0	1.055525E+0	1.010485E+0	1.008783E+0	1.021809E+0	1.034946E+0	1.033557E+0	1.014481E+0	9.958176E-1	1.039505E+0	1.024841E+0	1.017047E+0	1.064591E+0	1.044944E+0	1.066009E+0	1.039445E+0
5.595170E+2	1.012351E+0	9.951535E-1	1.008588E+0	9.938108E-1	9.867033E-1	9.982682E-1	1.042215E+0	9.892689E-1	1.001966E+0	1.021608E+0	9.648832E-1	9.788283E-1	1.028875E+0	1.028566E+0	1.019572E+0	1.018890E+0	9.572236E-1	1.021931E+0	1.014831E+0	1.009324E+0	1.059306E+0	9.904089E-1	1.007287E+0	1.018963E+0	1.013955E+0	1.009009E+0	1.001390E+0	1.030020E+0	1.012315E+0	1.014269E+0	1.024341E+0	9.801434E-1	1.050144E+0	9.372206E-1	1.012577E+0	1.012096E+0	1.018610E+0	9.949709E-1	1.015634E+0	1.018339E+0	9.951563E-1	1.000916E+0	1.004297E+0	1.020173E+0	9.946771E-1	1.018663E+0	9.869981E-1	1.027608E+0	1.032380E+0	9.605618E-1	1.021913E+0	1.015037E+0	1.016704E+0	9.608213E-1	9.999959E-1	9.908297E-1	9.651039E-1	1.020142E+0	1.018479E+0	9.559209E-1	9.929167E-1	1.018211E+0	9.763243E-1	1.019728E+0	9.841654E-1	1.036545E+0	9.734517E-1	9.805476E-1	1.038493E+0	1.028193E+0	1.033277E+0	1.019042E+0	1.020814E+0	1.016876E+0	9.949784E-1	1.016505E+0	1.023019E+0	9.791687E-1	9.602277E-1	1.001905E+0	1.039003E+0	1.029290E+0	9.868878E-1	1.021581E+0	1.008358E+0	9.580661E-1	9.825255E-1	9.717549E-1	9.729029E-1	9.767998E-1	1.019068E+0	9.602457E-1	9.919817E-1	9.705911E-1	1.020589E+0	1.004099E+0	9.856869E-1	9.962609E-1	9.932302E-1	9.885283E-1	9.642790E-1	9.844112E-1	1.019634E+0	1.020445E+0	9.729202E-1	9.624494E-1	1.021070E+0	1.002151E+0	1.018306E+0	1.024196E+0	9.879044E-1	1.014739E+0	9.513091E-1	1.005567E+0	1.017028E+0	9.716163E-1	1.021954E+0	9.908333E-1	1.007984E+0	9.800726E-1	1.037640E+0	9.987264E-1	1.023033E+0	9.827519E-1	1.023255E+0	1.005059E+0	1.032879E+0	1.024641E+0	9.636608E-1	9.682338E-1	1.022625E+0	1.008621E+0	1.031173E+0	1.018689E+0	9.636116E-1	9.631731E-1	1.031784E+0	9.885911E-1	9.731346E-1	1.017168E+0	1.016080E+0	9.759096E-1	9.727773E-1	9.871770E-1	1.000670E+0	1.002991E+0	1.033115E+0	9.997036E-1	1.026230E+0	1.003153E+0	9.661973E-1	9.908508E-1	9.763366E-1	9.898594E-1	9.864091E-1	9.749865E-1	1.026652E+0	9.902725E-1	1.023147E+0	1.048392E+0	9.903010E-1	1.020194E+0	9.752032E-1	9.892858E-1	1.003824E+0	9.723537E-1	9.774617E-1	1.025451E+0	9.775507E-1	1.013787E+0	1.014538E+0	1.122911E+0
5.599900E+2	1.019108E+0	1.011510E+0	9.898434E-1	1.009540E+0	9.887668E-1	1.006991E+0	9.924164E-1	9.672392E-1	9.741179E-1	9.908794E-1	1.016688E+0	9.857340E-1	9.961710E-1	1.003502E+0	9.693847E-1	9.977994E-1	9.912595E-1	1.035740E+0	1.000762E+0	1.003400E+0	9.434438E-1	1.002938E+0	9.897578E-1	9.960360E-1	9.710398E-1	1.002877E+0	9.914889E-1	9.760227E-1	1.017002E+0	9.678866E-1	1.026164E+0	9.905784E-1	9.877265E-1	1.008292E+0	1.004270E+0	9.820757E-1	1.002159E+0	9.835248E-1	9.739225E-1	9.861305E-1	9.901498E-1	1.011746E+0	1.000090E+0	9.761776E-1	9.914524E-1	9.802845E-1	9.774507E-1	9.786292E-1	9.683046E-1	9.756031E-1	9.623977E-1	9.867904E-1	9.520857E-1	9.900432E-1	9.465291E-1	1.027821E+0	9.963567E-1	1.004859E+0	9.547081E-1	9.725068E-1	9.800013E-1	9.853401E-1	9.804930E-1	9.995294E-1	9.900337E-1	9.812371E-1	9.494586E-1	9.845578E-1	1.019048E+0	9.821588E-1	1.001700E+0	1.010914E+0	1.039975E+0	9.254433E-1	9.611817E-1	9.774913E-1	9.810992E-1	1.055801E+0	9.876475E-1	1.009155E+0	9.839551E-1	9.965749E-1	1.034094E+0	9.485198E-1	1.015705E+0	1.004034E+0	1.014830E+0	9.703986E-1	1.020422E+0	1.001454E+0	9.885425E-1	1.026133E+0	1.026431E+0	9.950866E-1	1.005943E+0	1.020532E+0	1.027451E+0	1.018157E+0	1.002004E+0	1.000013E+0	9.997438E-1	9.704642E-1	9.575205E-1	1.010446E+0	9.600373E-1	9.380646E-1	1.005879E+0	1.020994E+0	9.980627E-1	9.692096E-1	9.725029E-1	1.034283E+0	1.016606E+0	9.805032E-1	1.011525E+0	9.903708E-1	9.922052E-1	9.906842E-1	1.034704E+0	1.002082E+0	9.824568E-1	9.827602E-1	9.489462E-1	1.039338E+0	9.955352E-1	1.010421E+0	1.013272E+0	1.010061E+0	9.872313E-1	9.937633E-1	9.890867E-1	1.001145E+0	1.002778E+0	9.806908E-1	1.003924E+0	9.664756E-1	9.983470E-1	9.896349E-1	1.006269E+0	9.740710E-1	9.987108E-1	1.022949E+0	9.684217E-1	1.026333E+0	1.007532E+0	9.828327E-1	9.508088E-1	9.757307E-1	1.004504E+0	1.009138E+0	1.010085E+0	1.004354E+0	1.014681E+0	1.025710E+0	9.949983E-1	1.014137E+0	9.929732E-1	1.029315E+0	9.879721E-1	9.901813E-1	9.592128E-1	9.852580E-1	1.005678E+0	9.612348E-1	9.827747E-1	1.017624E+0	9.947869E-1	9.903755E-1	9.431265E-1	9.246445E-1	1.028371E+0	9.019363E-1
5.605090E+2	1.014222E+0	9.980256E-1	9.826248E-1	9.692798E-1	1.013413E+0	9.617902E-1	9.503888E-1	9.801813E-1	9.982012E-1	9.597142E-1	9.764462E-1	1.011914E+0	1.008869E+0	9.472450E-1	9.661330E-1	9.753235E-1	1.010039E+0	9.661415E-1	9.660004E-1	1.005789E+0	9.647919E-1	9.926673E-1	1.000585E+0	9.885274E-1	9.716363E-1	9.781455E-1	9.952452E-1	1.008200E+0	9.746992E-1	9.865122E-1	9.478719E-1	1.014266E+0	9.914368E-1	1.003478E+0	9.715480E-1	1.003384E+0	1.004959E+0	1.003329E+0	1.019610E+0	9.934363E-1	9.943568E-1	1.017139E+0	9.467649E-1	9.792580E-1	1.022754E+0	9.895872E-1	9.830158E-1	9.934992E-1	9.982435E-1	9.587540E-1	9.822816E-1	9.731588E-1	1.023847E+0	1.026068E+0	1.017022E+0	9.612319E-1	9.912218E-1	9.597928E-1	1.015188E+0	1.013629E+0	1.013995E+0	1.000935E+0	9.735184E-1	9.764065E-1	1.001181E+0	9.518873E-1	9.904562E-1	9.691996E-1	9.389333E-1	9.919521E-1	9.886652E-1	9.988155E-1	9.606012E-1	9.894122E-1	1.015825E+0	9.772801E-1	9.958721E-1	9.746826E-1	9.899714E-1	9.578262E-1	9.837780E-1	1.015604E+0	9.721158E-1	1.013797E+0	9.865502E-1	1.019390E+0	1.005704E+0	9.834764E-1	1.023252E+0	9.995994E-1	9.886717E-1	1.022284E+0	9.508526E-1	9.908562E-1	9.576297E-1	9.398514E-1	9.897463E-1	9.372762E-1	9.511549E-1	9.809657E-1	9.636941E-1	9.704531E-1	1.005477E+0	9.854221E-1	9.936820E-1	1.030659E+0	9.729466E-1	9.835985E-1	9.836614E-1	9.743972E-1	9.868906E-1	9.817892E-1	1.040497E+0	9.893053E-1	9.619419E-1	1.018241E+0	9.926352E-1	1.002858E+0	9.637914E-1	1.007202E+0	9.313870E-1	9.820533E-1	9.609877E-1	9.905213E-1	9.869671E-1	9.962052E-1	9.871573E-1	9.818473E-1	9.805845E-1	9.742732E-1	9.677519E-1	9.676655E-1	9.922200E-1	9.713387E-1	1.010101E+0	1.033810E+0	9.494477E-1	9.963425E-1	1.017807E+0	9.937830E-1	9.664458E-1	9.820431E-1	9.749202E-1	1.013701E+0	1.015752E+0	1.009040E+0	9.711417E-1	1.003876E+0	9.827926E-1	9.890793E-1	9.831446E-1	1.019995E+0	1.015483E+0	1.005899E+0	9.500662E-1	1.014945E+0	9.926314E-1	9.457005E-1	9.947444E-1	9.686411E-1	1.011031E+0	9.581765E-1	9.374859E-1	1.010508E+0	9.872369E-1	1.006297E+0	9.585252E-1	9.654600E-1	9.202029E-1	9.656673E-1	9.088795E-1	8.622080E-1
5.610530E+2	1.018279E+0	9.889774E-1	9.887857E-1	9.930599E-1	9.997184E-1	9.962689E-1	9.748192E-1	1.007640E+0	9.955523E-1	9.913515E-1	9.803384E-1	9.856385E-1	9.895615E-1	1.023991E+0	9.837264E-1	9.872515E-1	9.717060E-1	9.372295E-1	1.014330E+0	9.767883E-1	1.018085E+0	1.014004E+0	9.822139E-1	1.029679E+0	9.797654E-1	9.978132E-1	9.807855E-1	9.833775E-1	1.012178E+0	1.030781E+0	1.030001E+0	9.777254E-1	1.026201E+0	1.018693E+0	9.985690E-1	1.008102E+0	9.766665E-1	1.006798E+0	9.956701E-1	9.774413E-1	9.839200E-1	9.957485E-1	1.005046E+0	1.001648E+0	1.018537E+0	9.946896E-1	9.937681E-1	9.870558E-1	9.894978E-1	9.817523E-1	9.891538E-1	1.016459E+0	9.217702E-1	9.869320E-1	1.009945E+0	1.016930E+0	9.920723E-1	1.006230E+0	1.002054E+0	9.878970E-1	9.708887E-1	9.860900E-1	1.005571E+0	1.010494E+0	1.043595E+0	1.043691E+0	9.572524E-1	1.000651E+0	9.978491E-1	9.744646E-1	9.763800E-1	1.037907E+0	1.027826E+0	1.036286E+0	9.783606E-1	9.893033E-1	9.871113E-1	1.000328E+0	1.020548E+0	1.015729E+0	9.935101E-1	9.554432E-1	1.027295E+0	9.686161E-1	9.700540E-1	1.025136E+0	1.006121E+0	1.005130E+0	1.049196E+0	1.023896E+0	9.744597E-1	9.686094E-1	1.010214E+0	9.867407E-1	1.028610E+0	9.838258E-1	9.733717E-1	1.019318E+0	9.982624E-1	1.020247E+0	9.993545E-1	9.756365E-1	9.976260E-1	9.742481E-1	9.855438E-1	9.910586E-1	1.023826E+0	9.992515E-1	9.773565E-1	1.015255E+0	9.872125E-1	1.010522E+0	9.738629E-1	9.767587E-1	1.030860E+0	1.004997E+0	9.857098E-1	1.005668E+0	9.720248E-1	9.608685E-1	9.400220E-1	1.007716E+0	9.999637E-1	1.011128E+0	1.007895E+0	1.024796E+0	9.545123E-1	1.002118E+0	1.023108E+0	1.007264E+0	9.642071E-1	1.040782E+0	9.819769E-1	9.916013E-1	9.808418E-1	9.786937E-1	9.954984E-1	1.004455E+0	9.944257E-1	9.824483E-1	1.031808E+0	9.499340E-1	1.025030E+0	1.022222E+0	9.683087E-1	1.007001E+0	1.015020E+0	9.483739E-1	9.897794E-1	1.006040E+0	1.003484E+0	9.748558E-1	1.018726E+0	9.987001E-1	9.922146E-1	1.000050E+0	9.936767E-1	9.983507E-1	9.753634E-1	1.011235E+0	9.975897E-1	9.951093E-1	9.817926E-1	9.903187E-1	9.932357E-1	1.005447E+0	1.009242E+0	9.646213E-1	9.684271E-1	9.707661E-1	1.019472E+0	9.910423E-1
