Photon Energy (eV)	#1	#2	#3	#4	#5	#6	#7	#8	#9	#10	#11	#12	#13	#14	#15	#16	#17	#18	#19	#20	#21	#22	#23	#24	#25	#26	#27	#28	#29	#30	#31	#32	#33	#34	#35	#36	#37	#38	#39	#40	#41	#42	#43	#44	#45	#46	#47	#48	#49	#50	#51	#52	#53	#54	#55	#56	#57	#58	#59	#60	#61	#62	#63	#64	#65	#66	#67	#68	#69	#70	#71	#72	#73	#74	#75	#76	#77	#78	#79	#80	#81	#82	#83	#84	#85	#86	#87	#88	#89	#90	#91	#92	#93	#94	#95	#96	#97	#98	#99	#100	#101	#102	#103	#104	#105	#106	#107	#108	#109	#110	#111	#112	#113	#114	#115	#116	#117	#118	#119	#120	#121	#122	#123	#124	#125	#126	#127	#128	#129	#130	#131	#132	#133	#134	#135	#136	#137	#138	#139	#140	#141	#142	#143	#144	#145	#146	#147	#148	#149	#150	#151	#152	#153	#154	#155	#156	#157	#158	#159	#160	#161	#162	#163	#164	#165	#166	#167	#168	#169	#170	#171	#172	
5.300320E+2	-7.559219E-3	-6.923228E-3	-2.570161E-3	-1.893286E-3	-1.240465E-2	-1.994273E-3	-9.771991E-3	-8.933518E-3	-5.212691E-3	-2.431104E-3	4.530346E-4	-1.244731E-2	-1.157016E-2	-2.870520E-3	-2.050976E-3	-4.678502E-3	-9.242364E-3	-1.119686E-2	-4.656656E-3	2.003984E-3	-9.668128E-3	-1.165954E-2	-1.037682E-2	-3.820017E-4	-5.019080E-3	-1.305644E-2	-4.762757E-3	-1.402987E-2	-8.189783E-3	1.078930E-3	-6.730728E-3	-2.691453E-3	-5.388388E-3	-4.980082E-3	-9.712915E-3	-3.342699E-3	-1.314970E-3	2.531736E-4	-6.643975E-3	-1.280270E-2	-6.103766E-3	-2.471108E-3	1.119331E-2	-3.896740E-3	-5.642165E-3	1.290823E-3	-7.641676E-3	-3.653477E-3	-1.095760E-3	-4.383529E-3	-8.770905E-4	1.402429E-3	-6.594881E-3	2.910428E-3	-3.410965E-3	-7.251206E-3	-5.238324E-3	-6.131014E-3	-9.429443E-3	-8.144935E-4	-5.108677E-3	-1.431053E-2	-3.120668E-3	-5.352761E-3	-9.815034E-3	-2.887925E-3	-1.077885E-2	-7.549406E-3	-9.900990E-3	4.844521E-4	-3.333213E-3	-1.420298E-2	-6.096409E-3	-1.087432E-2	-3.777885E-3	-2.745261E-3	-8.914068E-3	-8.578867E-3	-9.693050E-3	-4.255771E-3	-2.362825E-3	-4.843118E-3	-4.253458E-3	-2.878681E-3	-3.529606E-3	-5.466633E-3	-7.254915E-3	-1.369486E-2	-6.156379E-3	-7.067428E-3	-1.106939E-2	6.258516E-3	-4.815664E-3	-5.273231E-3	-9.195008E-3	-3.473486E-3	-5.442947E-3	-5.715017E-3	-1.094984E-2	-8.124619E-3	-2.658569E-3	-2.004379E-2	-1.496068E-2	-5.553442E-3	-7.874004E-3	-2.470246E-3	-9.199806E-3	-7.404831E-3	-1.095071E-2	-8.124040E-3	-2.412588E-3	-6.809942E-3	-1.683501E-2	-7.560151E-3	2.000771E-4	-3.332874E-3	4.677246E-3	-9.977923E-3	2.410462E-3	-9.483681E-3	-4.342406E-3	-1.111669E-2	-1.000364E-2	-9.272063E-3	1.138596E-3	-3.342313E-3	-8.040183E-3	-9.620964E-4	-4.356844E-3	-7.123260E-3	-6.518601E-3	-7.693090E-3	-4.138421E-3	-1.158914E-2	-7.635699E-3	-8.965949E-3	-7.765985E-3	2.304516E-3	-1.400722E-2	-6.447461E-3	2.465618E-3	-6.504434E-4	-3.008845E-3	3.537343E-3	1.733413E-3	-1.215669E-2	-7.467228E-3	-7.674120E-3	-1.658904E-2	-7.722360E-3	-9.995154E-3	-4.915186E-3	-2.355169E-3	-2.402706E-3	-5.154970E-3	-9.381111E-3	7.462103E-3	-8.840869E-3	-1.078490E-2	-7.582113E-3	-5.599400E-3	-1.287267E-2	-7.227007E-3	-1.108033E-2	-1.084796E-2	-6.542206E-3	-8.776276E-3	2.987801E-3	-5.482686E-3	-1.123449E-2	-9.586792E-3	1.978911E-3
5.305080E+2	-7.559204E-3	-8.145110E-4	-1.383964E-3	-5.480443E-3	-5.910909E-3	-3.034775E-3	-6.686104E-3	1.976440E-3	1.158334E-3	-1.421268E-2	-7.157313E-3	3.684430E-3	-1.134312E-3	-5.520276E-3	-1.611481E-3	-1.158123E-2	-8.049823E-3	-7.780892E-3	-4.097856E-3	-4.008372E-4	2.544231E-3	-6.662600E-3	-1.886656E-3	-3.590599E-3	-3.814465E-3	-4.352164E-3	1.832011E-4	9.353298E-4	-8.419450E-4	-8.168937E-3	-4.535930E-3	-6.116962E-3	-4.811045E-3	-7.370551E-3	8.325206E-4	-5.165957E-3	-9.698090E-3	-1.265831E-3	-2.472230E-3	-1.637551E-3	-2.034588E-3	-3.020211E-3	-7.588663E-3	4.496272E-3	-7.729896E-5	-6.454210E-3	-3.556065E-3	-6.089143E-3	-4.682047E-3	-6.721441E-3	-8.771475E-4	-1.061837E-2	-5.843556E-4	-6.790992E-3	4.872781E-3	-3.548477E-3	-5.820325E-3	1.341139E-3	1.245436E-3	-1.425373E-3	1.753709E-3	-8.146004E-3	-1.293940E-3	1.784250E-3	-7.549734E-4	-2.887921E-3	-2.433915E-3	-1.033875E-4	-4.218698E-3	-1.259553E-2	-4.358844E-3	2.115330E-3	-2.771120E-3	-9.186931E-3	-3.777882E-3	1.960824E-4	-7.565737E-3	-4.902190E-3	2.339711E-3	-1.196433E-2	1.181424E-3	4.666990E-3	-8.790448E-3	-5.963011E-3	-4.033828E-3	-1.000812E-2	-6.724072E-3	-4.784949E-3	-3.078198E-3	2.807609E-3	9.542626E-4	-6.042701E-3	4.184102E-3	-7.134368E-3	3.387646E-3	-1.948547E-3	-4.879896E-3	-1.503924E-3	-4.224752E-3	7.109051E-3	-8.318813E-3	-8.927075E-3	2.282138E-3	8.166866E-4	-6.033333E-3	-5.320485E-3	-8.618730E-3	-6.779065E-3	-1.493266E-3	3.950197E-3	-1.640577E-2	-2.269991E-3	8.264485E-3	-3.979306E-4	-2.200735E-3	-1.270657E-2	-4.507154E-3	-1.299646E-2	-3.574115E-3	-6.079253E-3	-1.026382E-2	-5.780688E-3	-8.220776E-3	-6.714276E-3	-8.320426E-3	-2.005388E-3	-1.946582E-3	-3.586114E-3	1.328838E-8	-1.100862E-2	-1.086447E-3	-5.846766E-3	-1.439477E-3	1.150064E-3	-1.119912E-2	-4.564481E-3	-7.765937E-3	-6.090542E-3	-2.252928E-3	-3.560526E-3	-4.931202E-3	-4.553220E-3	1.769966E-4	-4.548005E-3	-1.325526E-3	-5.789107E-4	7.285265E-4	-3.069650E-3	2.793932E-3	-1.084597E-2	-3.844297E-3	4.122427E-3	-4.812786E-3	-1.335892E-2	-7.534239E-3	-1.340164E-3	-1.684971E-3	-2.210207E-3	9.804648E-4	-1.516461E-3	-1.208291E-2	-6.854273E-3	-1.484476E-2	-3.363696E-3	-3.796773E-3	-1.180787E-2	-1.374400E-2	-4.074229E-3	4.192648E-3	4.138970E-3	-5.619850E-3	-2.176784E-2
5.310350E+2	2.721311E-3	-3.257977E-3	-7.908287E-3	-6.676135E-3	3.080354E-3	-3.034743E-3	3.600200E-3	4.348163E-3	-9.846179E-3	-2.431124E-3	-5.526534E-3	-6.472597E-3	-2.495543E-3	-9.936440E-3	5.860077E-4	1.303840E-3	5.068388E-3	-5.503514E-3	4.842923E-3	-8.216385E-3	-3.561925E-3	6.829156E-3	-4.716725E-3	-3.132234E-3	-1.405357E-3	3.840124E-3	-2.564611E-3	-2.805960E-3	-1.301177E-3	-5.394590E-3	-1.902128E-3	-3.670176E-3	-1.058441E-2	9.960158E-4	-2.497598E-3	3.038979E-4	-7.232466E-3	-4.810265E-3	-8.498142E-3	-1.190944E-3	5.171244E-10	-8.511538E-3	-1.043447E-2	-9.292262E-3	2.241424E-3	1.290836E-3	7.568440E-5	-6.089134E-3	-1.095818E-3	-2.630134E-3	-4.970281E-3	-9.416331E-3	-5.092228E-3	-3.395501E-3	-5.360024E-3	-3.548474E-3	5.820377E-4	-7.855434E-3	-4.092057E-3	-8.145010E-3	-3.278699E-3	-1.981465E-3	-7.687402E-3	-7.391874E-3	-5.851281E-3	-7.359546E-3	-9.735753E-3	-6.308343E-3	-5.251836E-3	5.328853E-3	-9.999730E-3	-8.763528E-3	4.433776E-3	2.062350E-3	-6.044586E-3	-3.921755E-4	2.771605E-3	-7.659680E-3	-1.069581E-2	-4.255795E-3	-7.088470E-3	2.025315E-3	-1.984944E-3	-1.644947E-3	-4.538078E-3	1.093319E-3	-5.131550E-3	-4.784958E-3	1.846905E-3	-3.582168E-3	-8.206638E-3	-6.042764E-3	-4.815681E-3	-4.342638E-3	-1.451855E-3	-4.490111E-3	-5.442927E-3	-8.121398E-3	-6.811314E-3	4.062061E-4	-1.140618E-2	6.737393E-3	-5.832116E-3	-4.083418E-3	1.329375E-3	-5.890533E-3	1.839979E-3	1.981584E-3	-5.060561E-9	3.726692E-4	-4.825344E-4	-1.134995E-2	-4.591381E-3	-9.947784E-4	-5.801929E-3	4.166033E-4	1.615767E-3	-2.431594E-3	-1.579252E-3	-8.024642E-3	-4.934524E-3	8.892154E-5	1.287615E-3	-6.714279E-3	-9.634262E-4	-3.787977E-3	5.924596E-4	-4.110919E-3	-2.489618E-3	9.247457E-5	-3.802502E-3	-2.154029E-3	-8.456759E-3	-1.583554E-2	9.671942E-3	-1.141115E-2	-3.274804E-3	-7.078184E-3	-5.191522E-3	3.368060E-3	-5.917482E-3	-6.504540E-4	-7.256634E-3	-4.042700E-3	-2.549217E-3	-1.157757E-3	-1.074551E-2	-7.098503E-3	-1.030268E-2	8.673644E-5	-2.819118E-3	-4.439517E-3	-9.113530E-3	-7.592495E-3	-5.749770E-3	-7.216373E-4	-2.647827E-3	2.210219E-3	-1.960918E-3	-8.087631E-3	-2.652352E-3	1.671781E-3	2.148572E-3	-3.363667E-3	-3.254387E-3	-3.191341E-4	2.152665E-3	-1.059306E-2	-9.352818E-3	5.321609E-3	4.297499E-3	7.915535E-3
5.315180E+2	-4.535534E-3	2.239894E-3	2.174781E-3	5.281143E-3	-9.157658E-4	-3.034765E-3	4.114499E-3	-1.343955E-3	-8.108609E-3	5.423255E-3	3.170917E-3	2.489459E-3	9.301501E-3	5.078628E-3	-2.930172E-4	2.224205E-3	1.162751E-2	7.021741E-3	-6.891845E-3	-2.805633E-3	-2.035397E-3	6.329487E-3	-3.773419E-3	-2.215508E-3	-2.007629E-3	-2.304081E-3	-3.663989E-4	-9.353323E-4	-1.760452E-3	8.014802E-3	7.315880E-4	1.712736E-3	1.712744E-2	-3.784815E-3	4.162666E-3	-3.342659E-3	3.616241E-3	-6.329307E-3	-1.545147E-4	5.061535E-3	2.034580E-3	5.216732E-3	1.517734E-3	2.997585E-4	-2.859716E-3	-3.265058E-3	4.615283E-3	-2.435548E-4	-7.670609E-3	-8.767534E-4	-6.724466E-3	2.604509E-3	3.923538E-3	-9.701688E-4	-1.949079E-3	2.005629E-3	-6.402397E-3	4.215101E-3	-4.625788E-3	5.294256E-3	1.296244E-3	3.302457E-3	-4.033999E-3	7.646819E-4	1.226875E-2	2.142639E-3	1.738447E-4	4.240051E-3	-2.152372E-3	-1.937767E-3	3.333229E-3	-2.870810E-3	-3.325319E-3	9.374459E-3	5.855713E-3	-3.333547E-3	5.243539E-4	-3.523461E-3	5.849258E-3	6.825278E-3	-4.725680E-3	-8.013144E-3	4.820587E-3	-2.878681E-3	-5.546535E-3	2.102546E-3	6.547145E-3	-3.794955E-3	-2.462559E-3	-2.420372E-3	5.534709E-3	-4.747861E-3	4.184114E-3	1.240757E-3	-7.743191E-3	-1.948550E-3	-4.879855E-3	-1.503957E-3	-4.224755E-3	-7.515225E-3	6.603590E-3	3.200241E-3	7.607087E-4	-1.633345E-3	5.624282E-3	-9.880934E-3	-4.841805E-4	7.300550E-4	-4.977700E-4	-4.993684E-3	2.895113E-3	6.809975E-3	1.132533E-2	7.958087E-3	-7.602543E-3	7.915546E-3	5.953057E-4	5.869399E-4	-4.571529E-3	4.620229E-3	8.092646E-3	-9.782899E-4	9.607459E-3	3.197355E-4	2.715083E-3	-3.787974E-3	-3.469955E-3	-4.110884E-3	-1.867251E-3	3.977913E-3	-2.172869E-3	-3.384956E-3	1.259510E-3	1.680863E-3	-1.425341E-2	3.260220E-4	-4.397584E-3	3.292195E-3	6.562843E-3	5.100244E-3	4.931086E-4	4.119546E-3	7.079622E-4	-1.212800E-2	2.345216E-3	4.052228E-3	4.553175E-3	-2.494097E-3	-7.159493E-3	4.772248E-3	6.919714E-3	-3.963862E-3	6.246338E-3	1.259004E-2	3.172297E-3	-4.432818E-3	-3.129271E-3	-3.094297E-3	-3.431570E-3	8.087590E-3	3.241768E-3	8.693220E-3	2.734571E-3	7.914618E-4	1.084804E-3	5.903935E-3	1.655913E-3	-4.617483E-3	4.192665E-3	-1.773862E-3	3.306057E-4	-3.957749E-3
5.320120E+2	7.559247E-3	2.850725E-3	-3.756412E-3	-4.284700E-3	6.077426E-3	3.728415E-3	2.875879E-8	-4.664402E-3	3.475122E-3	2.057066E-3	3.170957E-3	2.489430E-3	2.041813E-3	5.520253E-3	3.222980E-3	3.144571E-3	8.944346E-4	3.605778E-3	7.078088E-3	5.611266E-3	1.551987E-8	-3.664437E-3	1.132017E-2	1.451543E-3	9.435853E-3	5.888179E-3	-1.465428E-3	7.170811E-3	7.653689E-5	-2.157819E-3	-1.463139E-4	8.074389E-3	9.622203E-4	5.179290E-3	3.607673E-3	7.596948E-3	8.054319E-3	1.265848E-3	9.579713E-3	2.381899E-3	3.560545E-3	1.921938E-3	-1.897209E-4	-3.297274E-3	8.501641E-4	8.352620E-4	2.799423E-3	6.576262E-3	3.685865E-3	9.059331E-3	3.216068E-3	1.041803E-2	4.424389E-3	-4.850551E-4	-2.923657E-3	2.468511E-3	1.746114E-3	8.238624E-3	3.914100E-3	-2.036029E-4	-4.651175E-3	4.183065E-3	5.099583E-3	2.294030E-3	3.208773E-3	8.291146E-3	6.432534E-3	-5.067420E-3	1.179510E-2	3.391105E-3	7.435691E-3	1.616719E-2	2.771116E-3	4.874714E-3	4.155694E-3	-3.921862E-4	2.322155E-3	1.623856E-2	3.843807E-3	-2.328631E-3	1.181421E-3	9.686125E-4	-5.954817E-3	7.607943E-3	5.546542E-3	4.121006E-3	3.362045E-3	1.699483E-2	4.309439E-3	8.035591E-3	7.824898E-3	-2.805543E-3	-5.763008E-3	4.497747E-3	2.419760E-3	6.184511E-3	1.595343E-2	3.308707E-3	8.708164E-3	4.062312E-3	5.059871E-3	9.263956E-3	7.353555E-3	-2.123368E-3	4.397181E-3	6.080565E-3	7.650326E-3	1.981550E-3	2.488807E-3	5.739017E-3	3.860219E-3	-3.278897E-3	3.061185E-4	1.989540E-3	8.602859E-3	2.291372E-3	-2.976463E-3	3.605474E-3	-5.818278E-4	8.510992E-3	2.171208E-3	1.289539E-2	2.476122E-3	1.246931E-2	2.715090E-3	9.581343E-3	4.147016E-3	-9.621124E-4	-3.606846E-8	3.422863E-3	7.061787E-3	9.539424E-3	7.197263E-4	5.396465E-3	1.425340E-2	6.194656E-3	7.953089E-3	3.292127E-4	-4.897716E-4	-5.870087E-3	4.931232E-3	2.167986E-4	6.017699E-3	8.220100E-9	-4.996416E-3	-1.157785E-3	6.738689E-3	9.592585E-3	1.431900E-2	3.210417E-3	4.869430E-3	7.927716E-3	6.860764E-3	1.028351E-2	1.982722E-3	-1.958709E-3	-7.943519E-3	-2.652247E-3	9.804707E-4	-1.010928E-3	8.841150E-4	2.173346E-3	1.386811E-2	2.572218E-3	3.796794E-3	2.074373E-3	5.630068E-3	-1.358072E-3	8.062756E-3	4.139035E-3	1.223143E-2	-9.894445E-3
5.325120E+2	9.373398E-3	5.905096E-3	1.344404E-2	1.305342E-2	1.007354E-2	7.370141E-3	8.743367E-3	8.617270E-3	1.853402E-2	1.159458E-2	5.888939E-3	1.025658E-2	3.856697E-3	7.728355E-3	1.464858E-4	9.587116E-3	-2.981505E-4	1.385375E-2	3.725347E-3	3.807605E-3	1.272120E-2	8.827929E-3	9.433445E-3	7.868799E-3	2.810679E-3	9.984383E-3	8.975994E-3	9.665024E-3	1.201682E-2	6.627614E-3	1.258351E-2	2.691465E-3	2.694178E-3	9.960143E-3	3.607653E-3	3.950469E-3	6.574966E-3	1.088638E-2	8.189150E-3	8.187759E-3	2.543229E-3	6.864187E-3	5.501815E-3	1.169025E-2	5.487592E-3	6.302347E-3	3.707350E-3	9.499047E-3	1.085837E-2	5.552527E-3	1.023292E-2	5.609733E-3	3.923538E-3	8.731290E-3	8.770944E-3	9.874018E-3	1.513289E-2	1.915843E-4	1.298775E-2	5.294223E-3	9.988597E-3	1.695247E-2	1.103643E-2	7.901674E-3	9.437695E-4	2.701606E-3	1.634214E-2	1.478851E-2	9.728792E-3	5.328891E-3	6.922867E-3	7.554798E-3	4.987955E-3	3.749733E-3	3.588947E-3	6.667087E-3	1.086169E-2	8.425640E-3	8.356081E-3	1.597925E-2	1.181413E-2	5.195344E-3	1.616308E-2	5.757376E-3	1.210150E-2	8.157879E-3	9.201347E-3	1.006489E-2	5.540793E-3	2.226768E-3	4.962159E-3	1.338035E-2	7.026137E-3	1.101173E-2	1.258265E-2	5.676183E-3	4.692196E-3	1.353559E-2	1.750249E-2	4.062275E-3	1.072010E-2	9.769279E-3	1.039639E-2	1.257689E-2	2.556499E-3	1.748163E-2	8.812411E-3	9.490708E-3	1.045294E-2	3.055841E-3	1.254556E-2	1.689880E-2	1.530458E-3	-9.947675E-4	6.802271E-3	5.415919E-3	5.952995E-4	2.121356E-2	7.896261E-3	1.045635E-2	9.276892E-3	4.891358E-3	4.853217E-3	9.911573E-3	2.715083E-3	3.342308E-3	8.717245E-3	1.373213E-2	8.713736E-3	1.063863E-2	6.518632E-3	9.539417E-3	1.205542E-2	1.919728E-2	9.162896E-3	1.842091E-2	1.525122E-2	7.242802E-3	1.537860E-2	7.409770E-3	2.958725E-3	1.517773E-3	3.362822E-3	1.718135E-2	4.792531E-3	1.099891E-2	6.192346E-3	1.074379E-2	1.693829E-2	1.049893E-2	4.869424E-3	1.268422E-3	3.174382E-3	4.805686E-4	1.328396E-2	1.783444E-2	7.943485E-3	1.458740E-2	1.421645E-2	1.010954E-2	1.620878E-2	7.188596E-3	3.320513E-3	1.444402E-2	1.301752E-2	1.069090E-2	1.308163E-2	1.765504E-2	-1.612565E-3	-5.912664E-4	-1.652896E-3	2.572559E-2
5.330180E+2	1.965395E-2	2.362042E-2	2.827199E-2	7.074756E-3	1.706677E-2	1.881558E-2	3.034458E-2	2.664242E-2	1.216292E-2	2.562029E-2	2.002236E-2	1.145151E-2	1.202391E-2	1.656077E-2	1.113390E-2	1.418893E-2	1.222381E-2	1.499241E-2	1.434246E-2	8.617299E-3	1.068583E-2	1.832212E-2	2.028194E-2	2.299524E-2	1.847023E-2	1.715261E-2	1.557060E-2	1.278276E-2	2.349790E-2	2.142418E-2	2.004582E-2	3.547833E-2	1.366347E-2	2.370518E-2	1.803830E-2	1.610564E-2	1.446492E-2	1.594981E-2	2.348581E-2	9.974227E-3	1.729399E-2	2.169073E-2	2.485297E-2	2.368022E-2	2.264588E-2	1.541419E-2	1.187862E-2	1.875459E-2	2.520335E-2	1.782642E-2	3.800844E-3	1.702954E-2	1.894982E-2	2.425356E-2	1.169464E-2	1.820521E-2	1.455087E-2	4.215101E-3	-1.423329E-3	1.323560E-2	1.136102E-2	1.607183E-2	1.971332E-2	2.880284E-2	1.510002E-2	1.667548E-2	1.112659E-2	2.471646E-2	1.954366E-2	9.204442E-3	9.486916E-3	1.208762E-2	1.219286E-2	2.568591E-2	1.888931E-2	2.666838E-2	1.895178E-2	2.175355E-2	1.587656E-2	2.368780E-2	8.269917E-3	2.738558E-2	2.523707E-2	2.488005E-2	2.621997E-2	1.219479E-2	2.353425E-2	1.649983E-2	1.785352E-2	9.197418E-3	2.328391E-2	1.855976E-2	1.934157E-2	1.845632E-2	8.711081E-3	2.397561E-2	1.707961E-2	8.722943E-3	9.225459E-3	1.442113E-2	2.461334E-2	2.442312E-2	7.353531E-3	1.453693E-2	1.237342E-2	1.178109E-2	1.752800E-2	1.950284E-2	2.439025E-2	1.423566E-2	1.544074E-2	1.992546E-2	2.540557E-2	1.870150E-2	1.820606E-2	9.165331E-3	1.896420E-2	1.165487E-2	2.983958E-2	2.553293E-2	1.342193E-2	2.410102E-2	2.268145E-2	1.758496E-2	1.217413E-2	1.760290E-2	2.598246E-2	2.475288E-2	2.053942E-2	3.117578E-2	1.629647E-2	1.815573E-2	1.745339E-2	1.654328E-2	1.069005E-2	1.450849E-2	1.244427E-2	1.316871E-2	1.890490E-2	6.832397E-3	2.564245E-2	1.235877E-2	8.141567E-3	1.414933E-2	1.519324E-2	8.104467E-3	1.165613E-2	1.765046E-2	1.379512E-2	2.195230E-2	1.870888E-2	1.315996E-2	2.344948E-2	2.527629E-2	1.685278E-2	2.092708E-2	1.660917E-2	1.591351E-2	2.794270E-2	1.364784E-2	2.092409E-2	1.120089E-2	1.269608E-2	1.919271E-2	2.223830E-2	1.452051E-2	2.649449E-2	1.167944E-2	2.644591E-2	2.424282E-2	1.223135E-2	4.353564E-2
5.331630E+2	3.295815E-2	2.728567E-2	4.310006E-2	2.381508E-2	2.106284E-2	3.130152E-2	4.165953E-2	2.664241E-2	1.795477E-2	2.113203E-2	1.621717E-2	1.204898E-2	1.837613E-2	1.832727E-2	1.992384E-2	2.569346E-2	2.176431E-2	1.897772E-2	1.154845E-2	2.304612E-2	2.493352E-2	2.731663E-2	3.254545E-2	1.886985E-2	2.389081E-2	1.920066E-2	1.776880E-2	2.400666E-2	1.936470E-2	1.495070E-2	1.960688E-2	2.275511E-2	2.578743E-2	2.370517E-2	1.470814E-2	1.975223E-2	2.876555E-2	2.455764E-2	2.858468E-2	1.801311E-2	2.695827E-2	3.157512E-2	3.965095E-2	2.308076E-2	2.079096E-2	1.678100E-2	1.868804E-2	3.190715E-2	1.384690E-2	3.799053E-3	3.011400E-2	1.763055E-2	2.045245E-2	2.958931E-2	1.997830E-2	2.607353E-2	2.619154E-2	2.318306E-2	3.433756E-2	1.445733E-2	2.096835E-2	2.223636E-2	2.245336E-2	3.797897E-2	1.793126E-2	1.332174E-2	1.738528E-2	1.851148E-2	2.729228E-2	3.197336E-2	2.538388E-2	1.798035E-2	1.773512E-2	2.512343E-2	1.548928E-2	1.549121E-2	1.355839E-2	2.864727E-2	2.038883E-2	1.549745E-2	1.417695E-2	2.315888E-2	1.673017E-2	3.228237E-2	3.680880E-2	1.825011E-2	2.937357E-2	2.392475E-2	2.955059E-2	1.500631E-2	2.042114E-2	2.827140E-2	2.218366E-2	1.706042E-2	3.145670E-2	3.566688E-2	3.171921E-2	2.677048E-2	1.284667E-2	2.356128E-2	3.078816E-2	2.240190E-2	1.039638E-2	2.433710E-2	2.403108E-2	1.805169E-2	1.810903E-2	2.012859E-2	2.787453E-2	2.228517E-2	2.509115E-2	2.093437E-2	3.397614E-2	3.123550E-2	1.940645E-2	3.228716E-2	3.478184E-2	1.920118E-2	2.285759E-2	2.796467E-2	2.348839E-2	2.730265E-2	1.436163E-2	2.525840E-2	2.636267E-2	2.384192E-2	2.293568E-2	1.478175E-2	3.174273E-2	1.951957E-2	1.303719E-2	1.323208E-2	1.637380E-2	2.556693E-2	1.425341E-2	1.499756E-2	1.525122E-2	2.551439E-2	1.537860E-2	2.588613E-2	2.909427E-2	1.799611E-2	2.088498E-2	3.183604E-2	2.437029E-2	3.531231E-2	1.110975E-2	2.858606E-2	2.165308E-2	1.518436E-2	1.255797E-2	2.505151E-2	2.160634E-2	2.527635E-2	1.982682E-2	9.793490E-3	2.527479E-2	3.403733E-2	4.264936E-2	2.881212E-2	1.856643E-2	1.370855E-2	1.738390E-2	1.325684E-2	2.115355E-2	2.983885E-2	2.649445E-2	4.590311E-2	6.127781E-3	2.660800E-2	4.297499E-3	4.947226E-2
5.333080E+2	2.812021E-2	4.316840E-2	4.843808E-2	2.620648E-2	3.055367E-2	2.817997E-2	4.371678E-2	2.284765E-2	3.243453E-2	2.618128E-2	3.415578E-2	2.758325E-2	2.790450E-2	3.334229E-2	2.519777E-2	3.397673E-2	1.580148E-2	3.093370E-2	2.998881E-2	3.627255E-2	2.595125E-2	2.931538E-2	3.914891E-2	3.262114E-2	3.292514E-2	2.432086E-2	2.601209E-2	2.338311E-2	3.268272E-2	3.390877E-2	2.355753E-2	2.128702E-2	3.213807E-2	3.685259E-2	2.636366E-2	3.373063E-2	2.975177E-2	4.126698E-2	3.970954E-2	2.515880E-2	3.611393E-2	2.992768E-2	3.054450E-2	3.087424E-2	3.099321E-2	1.951455E-2	2.731330E-2	3.921410E-2	4.134149E-2	3.010034E-2	3.128350E-2	2.724724E-2	4.449452E-2	4.414142E-2	4.288032E-2	3.579323E-2	3.026577E-2	3.123002E-2	2.046023E-2	2.972914E-2	2.920322E-2	3.456541E-2	2.839023E-2	3.186160E-2	3.152130E-2	1.388071E-2	2.051460E-2	1.975252E-2	2.057682E-2	4.263108E-2	4.179372E-2	1.934024E-2	2.715685E-2	3.356041E-2	2.002270E-2	2.784495E-2	2.119904E-2	3.186438E-2	2.289567E-2	2.946923E-2	3.957728E-2	2.263055E-2	3.431103E-2	3.104864E-2	2.722838E-2	3.187465E-2	4.211398E-2	3.332964E-2	2.770369E-2	2.720499E-2	3.187226E-2	3.863035E-2	1.365755E-2	3.055371E-2	2.903695E-2	4.379992E-2	1.989484E-2	2.677045E-2	2.008913E-2	3.087337E-2	2.306965E-2	2.694964E-2	3.828927E-2	3.315734E-2	3.139381E-2	2.432221E-2	2.856771E-2	2.638622E-2	2.538576E-2	3.301781E-2	3.232894E-2	3.354537E-2	2.418121E-2	2.287950E-2	2.960983E-2	2.416328E-2	2.253592E-2	2.825677E-2	3.781895E-2	2.796465E-2	3.000198E-2	2.730267E-2	2.743571E-2	2.589789E-2	3.214318E-2	2.473319E-2	4.223205E-2	2.790164E-2	2.302900E-2	2.396007E-2	2.661755E-2	2.923374E-2	3.742577E-2	4.096017E-2	1.934384E-2	2.771288E-2	1.356707E-2	1.711934E-2	2.654523E-2	1.895749E-2	3.451867E-2	1.756243E-2	2.884956E-2	2.627737E-2	2.192311E-2	4.052231E-2	1.657363E-2	2.455717E-2	2.112925E-2	3.704988E-2	2.947289E-2	3.123515E-2	2.222067E-2	3.969243E-2	3.112806E-2	1.969003E-2	2.768192E-2	2.608053E-2	2.843291E-2	1.819712E-2	2.151349E-2	2.022849E-2	3.613516E-2	3.878117E-2	3.200147E-2	2.983888E-2	3.046864E-2	2.091442E-2	3.128363E-2	3.370345E-2	2.413220E-2	4.353560E-2
5.334580E+2	3.658660E-2	3.705963E-2	6.148671E-2	5.012124E-2	4.204257E-2	4.534810E-2	5.811762E-2	4.656498E-2	3.880556E-2	4.525622E-2	4.448406E-2	3.415541E-2	3.244184E-2	3.864174E-2	3.310870E-2	3.581743E-2	3.846024E-2	4.744434E-2	3.222403E-2	3.627255E-2	4.426977E-2	4.680473E-2	5.282740E-2	4.041356E-2	3.714113E-2	3.456124E-2	4.030042E-2	4.021896E-2	4.048985E-2	3.899506E-2	3.233671E-2	4.673356E-2	5.523125E-2	5.119524E-2	4.023929E-2	3.676942E-2	3.616241E-2	4.531774E-2	5.454262E-2	3.543077E-2	4.272637E-2	3.926293E-2	4.022004E-2	3.327223E-2	3.238443E-2	3.773822E-2	4.093205E-2	4.652105E-2	3.715750E-2	3.126928E-2	4.356301E-2	4.227328E-2	3.447697E-2	4.608170E-2	5.749863E-2	4.227307E-2	2.910175E-2	2.145866E-2	3.807378E-2	1.751170E-2	4.613039E-2	4.117030E-2	5.076739E-2	4.511598E-2	2.699130E-2	2.170601E-2	2.781640E-2	3.402392E-2	4.640551E-2	4.311544E-2	4.281929E-2	3.611183E-2	3.325331E-2	3.412285E-2	4.212318E-2	5.608214E-2	3.782865E-2	4.059642E-2	5.047074E-2	4.295920E-2	4.312153E-2	3.055567E-2	4.281794E-2	4.770389E-2	5.294414E-2	4.701298E-2	5.432352E-2	3.976460E-2	3.386003E-2	2.371962E-2	4.962148E-2	4.380975E-2	3.734115E-2	2.822727E-2	5.033065E-2	4.329164E-2	2.946701E-2	3.158315E-2	2.681414E-2	3.879482E-2	4.673970E-2	4.059290E-2	4.843210E-2	3.854740E-2	4.366500E-2	2.318218E-2	4.657989E-2	3.702416E-2	3.235440E-2	4.106728E-2	3.618917E-2	4.161646E-2	4.132236E-2	4.197889E-2	5.001665E-2	4.853490E-2	3.988433E-2	4.033091E-2	6.425066E-2	2.991003E-2	3.118625E-2	2.997063E-2	5.061244E-2	4.252366E-2	4.843368E-2	3.364608E-2	3.258389E-2	4.259597E-2	5.103738E-2	3.617133E-2	4.074116E-2	3.723455E-2	4.228393E-2	3.034415E-2	3.970588E-2	4.091723E-2	1.918104E-2	3.094651E-2	4.182581E-2	3.339215E-2	3.106674E-2	3.837721E-2	3.893803E-2	4.295349E-2	2.620571E-2	3.820672E-2	3.077951E-2	3.434165E-2	4.365538E-2	4.433842E-2	3.254828E-2	4.122403E-2	3.389422E-2	3.680924E-2	2.815410E-2	5.618363E-2	3.779185E-2	2.961689E-2	5.000269E-2	4.347097E-2	2.563934E-2	3.076068E-2	3.027539E-2	3.878117E-2	3.634065E-2	3.893406E-2	2.947507E-2	4.101403E-2	3.612124E-2	3.725119E-2	2.214877E-2	9.696587E-2
5.336080E+2	4.021501E-2	5.355326E-2	5.496242E-2	3.935959E-2	5.303168E-2	5.627328E-2	7.251843E-2	5.225708E-2	4.517662E-2	6.377012E-2	5.698667E-2	5.446945E-2	6.193444E-2	5.144873E-2	3.750367E-2	7.079117E-2	5.634876E-2	5.427630E-2	4.339994E-2	4.228460E-2	6.004398E-2	5.479991E-2	6.697763E-2	5.508165E-2	6.063044E-2	4.172952E-2	5.733651E-2	3.335990E-2	6.207433E-2	4.408138E-2	5.208984E-2	6.092485E-2	5.580860E-2	5.179282E-2	4.356941E-2	5.986432E-2	5.342176E-2	5.544456E-2	5.454269E-2	4.079008E-2	4.883006E-2	4.200859E-2	5.444885E-2	4.346379E-2	5.557134E-2	4.229417E-2	5.046509E-2	5.967365E-2	4.253686E-2	6.399975E-2	4.122408E-2	5.068784E-2	4.449453E-2	5.190251E-2	5.944772E-2	4.967856E-2	4.656274E-2	5.134756E-2	4.020875E-2	5.355322E-2	5.573781E-2	4.381212E-2	4.346060E-2	5.531169E-2	4.907511E-2	4.406424E-2	4.607094E-2	4.395187E-2	5.570382E-2	6.055534E-2	5.666493E-2	4.971046E-2	4.489198E-2	5.212174E-2	4.438991E-2	5.902349E-2	4.052538E-2	4.519228E-2	5.698860E-2	6.078525E-2	4.075870E-2	4.587748E-2	4.111656E-2	7.484578E-2	5.697795E-2	4.802222E-2	7.502654E-2	5.362448E-2	5.109787E-2	4.288895E-2	5.591956E-2	5.805342E-2	5.770904E-2	4.358166E-2	4.258747E-2	6.464091E-2	5.030028E-2	5.564650E-2	5.009340E-2	5.524709E-2	5.394359E-2	7.242707E-2	4.843214E-2	4.295744E-2	3.814292E-2	5.111478E-2	5.471448E-2	5.955149E-2	4.181188E-2	4.598646E-2	5.355990E-2	4.312981E-2	3.152742E-2	4.376944E-2	4.041345E-2	6.165813E-2	5.723270E-2	4.485861E-2	6.425075E-2	4.401390E-2	4.598993E-2	3.957550E-2	5.001813E-2	4.572094E-2	5.316322E-2	4.389591E-2	6.203633E-2	6.621171E-2	4.730291E-2	5.504333E-2	3.911152E-2	6.308341E-2	5.038085E-2	6.006902E-2	4.988686E-2	6.341359E-2	3.826846E-2	3.341567E-2	6.533449E-2	5.764233E-2	3.895673E-2	3.057165E-2	5.008852E-2	5.912405E-2	4.884264E-2	5.962566E-2	4.990283E-2	4.988171E-2	5.151340E-2	5.579180E-2	5.510147E-2	6.358016E-2	5.539811E-2	5.180201E-2	5.075672E-2	5.556511E-2	3.779185E-2	4.066798E-2	4.804183E-2	4.700909E-2	3.565930E-2	4.731120E-2	5.019857E-2	4.827859E-2	5.423974E-2	3.989151E-2	5.530704E-2	5.785404E-2	7.095246E-2	5.262465E-2	7.173542E-2	4.947230E-2
5.337580E+2	7.468500E-2	6.271632E-2	9.410824E-2	6.088284E-2	6.601915E-2	7.031980E-2	7.509002E-2	6.601311E-2	5.270607E-2	7.050242E-2	5.807386E-2	4.849469E-2	6.148063E-2	5.586493E-2	5.991794E-2	7.493288E-2	5.634877E-2	6.566295E-2	5.736994E-2	5.310623E-2	6.818567E-2	9.127744E-2	7.452433E-2	6.562428E-2	6.123270E-2	5.043383E-2	4.799410E-2	7.264353E-2	7.309577E-2	6.535147E-2	5.252890E-2	8.441413E-2	5.638593E-2	5.776895E-2	5.022968E-2	5.682547E-2	6.229805E-2	7.620468E-2	5.593323E-2	5.776112E-2	6.663273E-2	8.319339E-2	6.469362E-2	6.864276E-2	6.530978E-2	7.145203E-2	6.453814E-2	6.113490E-2	7.780173E-2	5.523261E-2	6.753731E-2	6.691598E-2	7.905504E-2	7.809653E-2	6.626951E-2	6.356377E-2	5.994958E-2	7.318946E-2	6.315986E-2	5.538587E-2	5.482272E-2	5.085732E-2	6.035773E-2	7.009555E-2	4.454506E-2	5.636126E-2	5.076499E-2	5.077733E-2	6.861805E-2	8.380851E-2	8.384396E-2	5.832294E-2	5.486792E-2	5.943373E-2	6.139028E-2	6.137660E-2	5.580649E-2	6.357558E-2	7.754425E-2	7.282998E-2	6.202419E-2	7.493602E-2	6.096599E-2	8.286498E-2	6.000318E-2	8.284045E-2	6.918734E-2	5.857448E-2	7.141398E-2	6.205831E-2	7.252372E-2	8.330339E-2	5.297228E-2	5.986648E-2	6.484903E-2	7.124915E-2	6.831829E-2	6.647502E-2	4.750680E-2	8.571430E-2	8.224458E-2	6.232098E-2	7.835347E-2	7.578803E-2	5.716330E-2	6.080565E-2	5.413344E-2	5.767424E-2	6.869076E-2	6.029665E-2	6.562307E-2	6.582962E-2	7.009492E-2	7.480602E-2	7.642548E-2	6.415772E-2	7.509138E-2	6.749760E-2	8.868749E-2	6.200863E-2	7.026778E-2	4.918033E-2	6.249797E-2	5.147604E-2	6.209674E-2	6.350429E-2	8.234814E-2	7.198449E-2	6.721986E-2	5.948381E-2	7.061804E-2	5.200532E-2	7.683087E-2	7.068491E-2	8.602942E-2	6.781509E-2	5.791720E-2	5.267489E-2	6.298363E-2	5.475542E-2	5.670909E-2	6.222737E-2	8.035395E-2	6.670418E-2	7.086774E-2	3.878562E-2	5.372754E-2	6.657288E-2	6.670556E-2	6.620389E-2	7.355421E-2	6.881239E-2	6.154213E-2	5.929843E-2	7.454892E-2	6.484314E-2	6.812170E-2	6.674859E-2	6.765083E-2	6.621720E-2	5.569926E-2	5.533576E-2	6.426199E-2	6.549271E-2	6.617263E-2	7.004957E-2	7.021041E-2	6.491626E-2	4.579654E-2	5.972010E-2	1.034711E-1	9.102907E-2
5.339340E+2	9.887450E-2	8.959479E-2	1.172399E-1	7.403597E-2	1.229636E-1	1.046561E-1	1.193211E-1	9.067905E-2	9.324907E-2	8.172302E-2	9.666897E-2	7.538089E-2	7.962995E-2	9.075306E-2	8.496916E-2	1.034641E-1	8.675903E-2	1.043774E-1	8.922125E-2	7.535075E-2	1.190703E-1	1.027705E-1	1.065979E-1	9.175150E-2	8.532424E-2	7.705883E-2	8.426463E-2	1.106800E-1	1.020283E-1	8.246007E-2	7.886640E-2	1.049671E-1	8.178829E-2	1.115537E-1	9.019159E-2	9.997624E-2	8.991281E-2	1.202564E-1	1.120210E-1	1.028682E-1	8.697850E-2	9.362716E-2	9.315140E-2	8.602827E-2	8.107666E-2	9.377607E-2	8.224242E-2	9.961841E-2	1.041007E-1	7.393578E-2	1.032064E-1	9.937236E-2	9.658565E-2	1.033202E-1	1.135354E-1	1.093854E-1	7.973875E-2	7.836247E-2	9.571829E-2	8.287516E-2	9.233684E-2	8.256057E-2	9.871884E-2	9.456523E-2	7.172503E-2	9.604699E-2	8.831698E-2	8.552514E-2	1.006457E-1	1.065778E-1	1.058943E-1	8.461355E-2	8.036207E-2	8.474454E-2	8.689090E-2	8.078959E-2	9.490857E-2	7.920128E-2	1.086291E-1	9.836471E-2	1.080992E-1	9.448460E-2	9.896326E-2	8.965037E-2	1.038712E-1	1.045385E-1	1.169635E-1	8.926391E-2	1.034269E-1	8.529377E-2	9.370835E-2	9.948910E-2	8.091886E-2	8.266557E-2	1.016290E-1	9.615655E-2	8.408409E-2	8.692880E-2	8.837487E-2	9.668243E-2	1.038565E-1	9.364988E-2	1.021891E-1	8.803828E-2	8.538701E-2	9.158843E-2	1.035218E-1	9.897437E-2	9.656547E-2	8.176180E-2	9.939960E-2	1.157691E-1	9.947970E-2	9.330867E-2	8.482813E-2	9.290373E-2	9.192945E-2	9.516752E-2	1.036489E-1	8.729836E-2	8.270258E-2	8.386449E-2	9.102323E-2	9.879575E-2	9.572866E-2	9.737317E-2	9.250422E-2	1.066209E-1	9.958481E-2	7.724575E-2	8.419848E-2	9.200956E-2	1.297306E-1	1.094335E-1	1.374435E-1	9.080051E-2	6.914523E-2	7.785992E-2	1.088255E-1	9.401744E-2	9.467960E-2	7.697112E-2	9.734505E-2	1.040987E-1	7.820945E-2	7.757125E-2	7.230450E-2	7.865955E-2	1.253784E-1	1.104553E-1	1.207108E-1	9.259567E-2	9.471943E-2	9.851037E-2	9.596177E-2	1.000995E-1	1.066355E-1	9.017659E-2	8.873022E-2	1.031171E-1	9.401070E-2	8.141558E-2	1.000064E-1	1.046693E-1	1.014284E-1	1.107387E-1	1.203840E-1	1.029425E-1	8.933565E-2	1.164838E-1	9.355364E-2	1.207126E-1
5.340640E+2	1.647908E-1	1.317450E-1	1.718071E-1	1.224631E-1	1.434437E-1	1.426343E-1	1.609808E-1	1.319471E-1	1.268421E-1	1.524127E-1	1.352642E-1	1.387126E-1	1.327165E-1	1.150420E-1	1.306769E-1	1.356768E-1	1.296913E-1	1.379680E-1	1.255430E-1	1.210419E-1	1.719904E-1	1.492420E-1	1.433886E-1	1.435487E-1	1.208594E-1	9.753942E-2	1.188862E-1	1.206569E-1	1.199389E-1	1.323986E-1	1.227624E-1	1.392221E-1	1.331706E-1	1.402390E-1	1.290433E-1	1.449505E-1	1.584570E-1	1.719035E-1	1.375156E-1	1.149262E-1	1.169885E-1	1.370085E-1	1.460821E-1	1.315905E-1	1.251323E-1	1.247566E-1	1.099343E-1	1.609974E-1	1.286070E-1	1.317986E-1	1.277653E-1	1.270202E-1	1.586943E-1	1.494016E-1	1.671358E-1	1.334536E-1	1.332860E-1	1.203215E-1	1.218717E-1	1.213599E-1	1.385436E-1	1.213091E-1	1.357097E-1	1.424852E-1	1.317479E-1	1.323788E-1	1.154383E-1	1.364059E-1	1.445545E-1	1.622885E-1	1.407655E-1	1.245028E-1	1.241455E-1	1.573027E-1	1.271251E-1	1.302045E-1	1.214261E-1	1.412452E-1	1.442257E-1	1.499156E-1	1.234576E-1	1.161465E-1	1.125746E-1	1.568885E-1	1.467310E-1	1.580275E-1	1.615552E-1	1.328237E-1	1.403655E-1	1.207282E-1	1.343597E-1	1.182648E-1	1.306544E-1	1.315204E-1	1.393771E-1	1.627459E-1	1.364488E-1	1.434776E-1	1.059636E-1	1.496954E-1	1.182641E-1	1.371062E-1	1.488464E-1	1.301792E-1	1.289497E-1	1.360527E-1	1.290872E-1	1.333911E-1	1.403683E-1	1.202204E-1	1.307635E-1	1.349384E-1	1.221301E-1	1.112144E-1	1.310438E-1	1.260242E-1	1.353007E-1	1.434638E-1	1.490315E-1	1.310690E-1	1.383643E-1	1.489641E-1	1.480734E-1	1.390815E-1	1.246314E-1	1.205465E-1	1.412531E-1	1.449313E-1	1.400415E-1	1.160998E-1	1.102727E-1	1.560158E-1	1.551011E-1	1.365044E-1	1.552604E-1	1.216107E-1	1.331441E-1	9.860075E-2	1.446765E-1	1.494467E-1	1.410333E-1	1.186009E-1	1.376992E-1	1.581699E-1	1.338839E-1	1.371970E-1	1.269426E-1	1.350643E-1	1.683354E-1	1.234703E-1	1.489021E-1	1.296973E-1	1.383418E-1	1.302260E-1	1.554421E-1	1.236040E-1	1.230042E-1	1.321709E-1	1.357915E-1	1.425444E-1	1.476474E-1	1.089999E-1	1.527442E-1	1.153541E-1	1.681431E-1	1.562155E-1	1.452229E-1	1.246715E-1	1.541605E-1	1.555088E-1	1.471074E-1	1.919524E-1
5.342090E+2	2.234503E-1	2.050498E-1	2.678922E-1	2.187196E-1	2.453447E-1	2.435620E-1	2.499573E-1	2.955967E-1	2.421008E-1	2.270291E-1	2.064749E-1	2.653763E-1	2.093972E-1	2.294219E-1	1.944038E-1	2.516424E-1	1.815683E-1	2.153970E-1	2.188626E-1	2.328657E-1	2.539154E-1	2.501805E-1	2.372520E-1	2.631848E-1	2.184302E-1	1.845825E-1	2.101119E-1	2.254133E-1	2.420969E-1	2.174784E-1	1.881676E-1	2.405189E-1	2.122653E-1	2.376493E-1	2.106317E-1	2.172739E-1	2.620128E-1	2.589946E-1	2.427377E-1	2.399762E-1	1.897251E-1	2.116904E-1	2.121035E-1	2.299083E-1	2.327194E-1	1.990179E-1	2.111674E-1	2.457577E-1	2.200564E-1	2.142092E-1	2.219083E-1	2.364094E-1	2.463479E-1	2.401096E-1	2.412019E-1	2.167653E-1	1.891614E-1	2.030909E-1	1.939275E-1	2.245979E-1	2.245519E-1	2.133371E-1	2.507927E-1	2.357757E-1	2.212156E-1	1.949819E-1	1.915857E-1	2.121066E-1	2.282394E-1	2.601464E-1	2.448645E-1	2.051876E-1	2.050617E-1	2.073621E-1	1.996598E-1	2.025624E-1	2.135633E-1	2.060463E-1	2.279540E-1	2.409734E-1	2.091098E-1	2.218146E-1	1.925389E-1	2.179575E-1	2.319456E-1	2.417930E-1	2.714404E-1	2.407328E-1	2.351736E-1	2.043763E-1	2.362747E-1	2.095533E-1	2.031263E-1	2.059661E-1	2.221325E-1	2.557677E-1	2.299175E-1	2.078471E-1	1.840783E-1	2.179418E-1	2.474198E-1	2.487789E-1	2.244104E-1	2.286713E-1	2.087123E-1	1.987585E-1	1.982312E-1	2.141144E-1	2.349427E-1	2.154729E-1	2.045892E-1	2.433931E-1	2.390572E-1	2.222297E-1	2.234741E-1	2.028884E-1	2.358192E-1	2.405599E-1	2.457816E-1	2.171516E-1	2.342921E-1	2.023241E-1	2.205752E-1	2.260475E-1	2.313081E-1	1.994253E-1	2.245325E-1	2.477912E-1	2.414936E-1	1.921426E-1	1.950146E-1	2.329470E-1	2.582021E-1	2.697356E-1	2.636880E-1	2.008370E-1	2.010729E-1	2.121814E-1	2.534038E-1	2.187327E-1	2.243710E-1	1.979567E-1	2.322123E-1	2.218415E-1	2.219841E-1	2.078214E-1	1.886837E-1	2.283043E-1	2.484867E-1	2.458134E-1	2.221999E-1	2.238781E-1	2.255859E-1	2.190294E-1	2.226552E-1	2.281367E-1	2.072534E-1	1.807955E-1	2.362872E-1	2.547598E-1	2.213237E-1	1.967679E-1	2.341950E-1	2.180453E-1	2.343156E-1	2.466889E-1	2.669315E-1	2.039836E-1	2.480114E-1	2.359240E-1	2.244628E-1	3.284962E-1
5.343600E+2	3.782629E-1	3.596008E-1	4.161725E-1	3.717739E-1	4.236717E-1	4.318906E-1	4.232812E-1	4.165548E-1	3.521464E-1	3.880439E-1	3.543326E-1	4.135494E-1	3.731943E-1	3.831052E-1	3.684446E-1	3.896968E-1	3.735713E-1	4.226344E-1	3.647089E-1	4.060123E-1	4.381184E-1	4.810395E-1	4.292225E-1	4.341595E-1	3.744231E-1	3.156594E-1	3.551934E-1	4.218312E-1	3.835438E-1	3.913380E-1	3.567282E-1	4.338148E-1	3.906602E-1	4.127494E-1	3.604885E-1	3.989940E-1	4.311544E-1	4.357088E-1	4.471567E-1	4.159388E-1	3.290945E-1	3.951007E-1	4.073229E-1	4.067608E-1	3.755509E-1	3.630314E-1	3.541650E-1	4.001790E-1	3.945873E-1	3.702638E-1	4.025922E-1	4.227326E-1	4.086319E-1	4.326832E-1	3.990795E-1	4.648493E-1	3.707559E-1	3.784010E-1	3.962159E-1	4.249645E-1	3.622571E-1	3.507182E-1	3.900801E-1	4.391800E-1	3.474895E-1	4.017949E-1	3.235399E-1	4.205937E-1	4.173053E-1	4.340620E-1	4.079372E-1	4.019142E-1	3.319785E-1	3.699140E-1	3.401961E-1	4.037516E-1	3.681740E-1	3.351888E-1	4.149628E-1	4.254972E-1	3.792333E-1	3.919400E-1	3.496330E-1	4.122685E-1	4.215362E-1	4.234531E-1	4.354725E-1	3.892311E-1	3.681507E-1	3.652826E-1	3.914370E-1	4.128478E-1	3.698587E-1	3.753295E-1	3.866754E-1	4.377453E-1	3.864491E-1	3.817053E-1	3.082335E-1	3.781991E-1	4.017898E-1	3.892538E-1	4.135742E-1	3.977243E-1	3.762146E-1	3.629345E-1	3.812585E-1	3.937079E-1	3.683427E-1	3.684134E-1	3.879474E-1	4.381076E-1	3.957762E-1	3.636846E-1	4.005336E-1	3.666152E-1	4.332852E-1	4.272057E-1	4.347935E-1	3.791034E-1	4.066057E-1	3.576023E-1	4.315429E-1	3.558564E-1	3.889584E-1	3.656505E-1	4.306995E-1	4.152013E-1	4.139003E-1	3.442287E-1	3.297322E-1	4.218898E-1	4.638642E-1	4.629470E-1	4.225114E-1	3.705375E-1	3.554560E-1	3.346505E-1	3.809386E-1	4.052285E-1	3.456795E-1	3.462617E-1	4.376989E-1	4.320606E-1	3.590296E-1	3.618060E-1	3.340214E-1	4.032743E-1	4.302678E-1	4.056400E-1	4.159520E-1	3.703824E-1	3.908590E-1	3.695339E-1	4.171570E-1	3.802960E-1	3.810480E-1	3.682222E-1	3.725695E-1	4.023588E-1	3.981465E-1	3.702981E-1	3.836190E-1	3.848437E-1	4.230698E-1	4.060954E-1	4.224214E-1	3.707561E-1	3.950769E-1	3.837465E-1	4.386767E-1	4.056727E-1
5.345050E+2	6.993784E-1	6.369378E-1	8.016999E-1	6.802741E-1	7.223810E-1	7.336336E-1	8.121039E-1	7.239306E-1	6.950252E-1	6.578983E-1	6.734212E-1	7.122852E-1	6.572306E-1	6.388033E-1	6.506008E-1	7.481782E-1	6.424948E-1	6.845271E-1	6.429898E-1	6.927858E-1	7.017016E-1	7.803562E-1	7.226037E-1	7.861929E-1	6.641238E-1	5.778126E-1	6.689869E-1	7.329826E-1	6.577110E-1	6.535143E-1	6.222992E-1	7.753857E-1	6.822120E-1	7.515937E-1	6.446611E-1	7.192827E-1	7.087829E-1	7.764772E-1	7.303768E-1	7.785829E-1	5.778229E-1	7.031635E-1	7.010056E-1	6.585513E-1	6.333894E-1	6.268193E-1	6.447000E-1	7.090199E-1	6.916489E-1	6.712669E-1	6.353186E-1	7.533057E-1	6.961352E-1	7.445830E-1	7.513802E-1	8.184624E-1	6.338360E-1	6.324564E-1	6.470761E-1	7.505600E-1	6.632865E-1	6.426526E-1	6.837244E-1	7.700304E-1	6.170250E-1	6.538831E-1	5.389433E-1	7.072635E-1	7.003878E-1	7.373238E-1	7.115182E-1	7.536646E-1	5.630892E-1	6.708330E-1	6.224027E-1	7.184783E-1	6.468324E-1	6.192104E-1	6.892091E-1	7.535930E-1	6.804936E-1	6.930935E-1	5.929298E-1	7.095962E-1	7.649165E-1	7.766814E-1	7.391176E-1	7.941371E-1	6.661194E-1	6.173876E-1	6.737072E-1	7.514569E-1	6.583245E-1	6.549655E-1	6.586550E-1	7.869590E-1	6.572822E-1	6.518166E-1	5.498203E-1	7.151661E-1	7.378003E-1	7.525692E-1	7.031526E-1	7.529811E-1	7.007873E-1	5.932354E-1	6.282000E-1	7.097168E-1	6.177204E-1	6.438849E-1	6.986919E-1	7.705351E-1	6.382003E-1	6.985207E-1	6.754250E-1	6.621998E-1	7.424951E-1	7.522006E-1	7.459896E-1	6.961983E-1	6.635963E-1	5.881185E-1	7.078804E-1	6.832568E-1	6.559133E-1	5.942657E-1	7.145597E-1	7.258810E-1	7.643158E-1	6.589474E-1	5.660311E-1	6.680680E-1	8.071729E-1	7.766507E-1	7.315046E-1	6.223983E-1	6.136979E-1	5.588481E-1	7.088839E-1	6.581233E-1	6.499366E-1	5.665513E-1	7.217698E-1	7.357661E-1	6.624859E-1	6.142020E-1	6.132224E-1	6.933559E-1	7.409199E-1	7.075921E-1	7.588632E-1	6.567306E-1	7.109603E-1	6.607402E-1	6.544840E-1	6.635857E-1	6.419800E-1	6.157666E-1	6.725854E-1	7.122157E-1	6.946200E-1	6.325997E-1	7.029750E-1	6.733279E-1	7.566442E-1	7.167705E-1	7.696636E-1	6.521505E-1	7.192008E-1	6.379998E-1	7.838021E-1	7.974934E-1
5.346620E+2	1.060406E+0	9.814705E-1	1.169434E+0	1.023450E+0	1.134980E+0	1.137345E+0	1.118636E+0	1.159379E+0	1.014737E+0	1.063521E+0	1.012080E+0	1.109005E+0	9.807424E-1	1.003140E+0	9.920895E-1	1.131509E+0	9.871469E-1	1.043206E+0	1.036942E+0	1.034870E+0	1.094023E+0	1.254066E+0	1.110793E+0	1.182232E+0	1.029713E+0	8.563503E-1	9.190324E-1	1.095888E+0	1.013624E+0	1.035912E+0	9.475680E-1	1.121362E+0	1.058631E+0	1.086255E+0	9.810060E-1	1.095486E+0	1.118569E+0	1.193197E+0	1.067367E+0	1.143012E+0	8.733464E-1	1.015071E+0	1.051603E+0	1.030241E+0	1.006235E+0	9.275101E-1	9.956130E-1	1.105545E+0	1.073585E+0	9.898041E-1	1.002534E+0	1.166222E+0	1.104850E+0	1.106930E+0	1.110992E+0	1.191514E+0	9.784004E-1	1.014114E+0	1.036710E+0	1.134799E+0	1.002286E+0	9.332656E-1	9.970068E-1	1.150839E+0	9.154400E-1	1.035090E+0	8.826498E-1	1.060946E+0	1.106931E+0	1.112767E+0	1.071508E+0	1.130345E+0	8.834287E-1	9.880632E-1	9.102757E-1	1.070266E+0	9.290865E-1	9.170200E-1	1.110859E+0	1.149621E+0	9.764376E-1	1.097801E+0	9.122218E-1	1.026662E+0	1.094684E+0	1.120324E+0	1.125044E+0	1.153008E+0	9.930227E-1	1.016459E+0	1.033272E+0	1.099777E+0	9.150549E-1	9.406501E-1	1.037586E+0	1.105675E+0	9.917421E-1	9.381700E-1	8.389999E-1	1.093568E+0	1.071239E+0	1.104766E+0	1.081989E+0	1.169488E+0	1.021065E+0	9.432482E-1	9.919300E-1	1.092056E+0	9.746141E-1	9.488706E-1	1.056723E+0	1.151390E+0	1.010407E+0	9.706878E-1	1.016339E+0	1.033398E+0	1.094054E+0	1.104363E+0	1.151943E+0	1.108130E+0	1.019475E+0	9.226874E-1	1.005613E+0	1.082277E+0	1.002219E+0	9.088901E-1	1.076622E+0	1.117379E+0	1.101038E+0	9.658948E-1	8.653429E-1	1.044722E+0	1.137527E+0	1.151927E+0	1.090892E+0	1.124653E+0	8.972018E-1	8.773663E-1	1.087374E+0	1.109062E+0	9.887122E-1	8.835417E-1	1.100354E+0	1.201178E+0	9.995922E-1	9.430116E-1	8.651047E-1	1.018546E+0	1.136438E+0	1.064208E+0	1.080246E+0	1.051055E+0	9.868240E-1	9.046614E-1	1.016721E+0	1.029759E+0	9.587576E-1	8.690572E-1	1.027017E+0	1.118619E+0	1.028815E+0	8.933963E-1	1.036981E+0	9.968342E-1	1.075574E+0	1.055209E+0	1.159135E+0	9.319148E-1	1.012364E+0	1.012877E+0	1.115041E+0	1.213062E+0
5.348120E+2	1.567784E+0	1.330890E+0	1.640966E+0	1.507123E+0	1.619508E+0	1.662272E+0	1.602095E+0	1.610009E+0	1.434071E+0	1.441656E+0	1.371396E+0	1.557106E+0	1.366413E+0	1.398391E+0	1.373135E+0	1.564543E+0	1.353264E+0	1.526002E+0	1.363280E+0	1.450301E+0	1.537739E+0	1.678807E+0	1.509824E+0	1.624564E+0	1.459147E+0	1.226027E+0	1.373511E+0	1.589739E+0	1.405818E+0	1.418776E+0	1.290837E+0	1.579400E+0	1.396366E+0	1.530282E+0	1.366193E+0	1.494783E+0	1.495317E+0	1.664098E+0	1.545271E+0	1.583367E+0	1.214650E+0	1.395069E+0	1.495540E+0	1.467276E+0	1.438903E+0	1.317497E+0	1.380569E+0	1.562473E+0	1.436991E+0	1.428744E+0	1.462141E+0	1.561104E+0	1.535604E+0	1.566777E+0	1.582674E+0	1.664543E+0	1.416673E+0	1.385428E+0	1.396990E+0	1.533699E+0	1.334426E+0	1.307983E+0	1.413954E+0	1.563258E+0	1.323706E+0	1.405678E+0	1.184631E+0	1.497777E+0	1.507790E+0	1.526971E+0	1.544827E+0	1.624428E+0	1.250876E+0	1.342979E+0	1.269551E+0	1.504415E+0	1.346625E+0	1.293880E+0	1.483871E+0	1.603944E+0	1.414742E+0	1.477679E+0	1.261004E+0	1.510897E+0	1.567145E+0	1.594657E+0	1.565650E+0	1.580684E+0	1.372255E+0	1.310389E+0	1.431196E+0	1.507013E+0	1.383517E+0	1.343588E+0	1.383126E+0	1.570274E+0	1.342531E+0	1.379734E+0	1.148354E+0	1.494515E+0	1.546182E+0	1.558532E+0	1.499367E+0	1.640389E+0	1.430925E+0	1.365087E+0	1.371349E+0	1.594545E+0	1.414634E+0	1.271298E+0	1.422955E+0	1.620520E+0	1.370982E+0	1.337156E+0	1.441880E+0	1.490838E+0	1.501231E+0	1.539536E+0	1.590307E+0	1.558481E+0	1.471872E+0	1.277533E+0	1.486382E+0	1.494085E+0	1.350627E+0	1.225296E+0	1.500635E+0	1.557685E+0	1.598964E+0	1.357766E+0	1.178778E+0	1.560468E+0	1.634140E+0	1.671583E+0	1.567365E+0	1.617617E+0	1.250881E+0	1.155391E+0	1.518172E+0	1.514965E+0	1.399485E+0	1.223084E+0	1.511328E+0	1.579675E+0	1.377690E+0	1.351708E+0	1.226263E+0	1.489350E+0	1.562864E+0	1.550979E+0	1.526698E+0	1.629462E+0	1.359763E+0	1.306005E+0	1.384309E+0	1.551182E+0	1.333788E+0	1.262917E+0	1.435860E+0	1.648357E+0	1.462032E+0	1.325217E+0	1.358096E+0	1.501384E+0	1.576207E+0	1.464017E+0	1.635040E+0	1.592483E+0	1.455495E+0	1.263583E+0	1.531568E+0	1.426779E+0
5.349630E+2	1.902805E+0	1.752391E+0	1.953534E+0	1.840736E+0	2.013626E+0	1.967140E+0	2.035658E+0	1.940627E+0	1.778106E+0	1.758631E+0	1.736689E+0	1.948451E+0	1.674045E+0	1.656737E+0	1.631993E+0	1.911057E+0	1.647234E+0	1.765120E+0	1.701912E+0	1.732865E+0	1.881213E+0	2.014101E+0	1.873959E+0	1.966974E+0	1.759084E+0	1.508148E+0	1.713685E+0	1.822321E+0	1.714427E+0	1.654130E+0	1.606010E+0	1.959141E+0	1.755469E+0	1.912749E+0	1.605408E+0	1.848496E+0	1.904116E+0	2.111704E+0	1.821538E+0	1.900903E+0	1.504070E+0	1.692701E+0	1.815406E+0	1.854556E+0	1.718075E+0	1.607711E+0	1.705607E+0	1.853293E+0	1.753177E+0	1.738509E+0	1.728780E+0	1.883263E+0	1.890224E+0	1.937855E+0	1.840931E+0	2.018615E+0	1.647740E+0	1.730871E+0	1.679871E+0	1.901447E+0	1.684407E+0	1.621053E+0	1.775188E+0	1.883401E+0	1.629482E+0	1.758377E+0	1.450104E+0	1.834087E+0	1.848730E+0	1.903865E+0	1.861229E+0	1.899119E+0	1.726954E+0	1.724331E+0	1.591426E+0	1.779726E+0	1.680115E+0	1.574226E+0	1.813270E+0	1.961430E+0	1.684104E+0	1.812120E+0	1.551373E+0	1.757642E+0	1.927671E+0	1.876230E+0	1.929812E+0	1.911834E+0	1.733019E+0	1.650789E+0	1.763279E+0	1.798357E+0	1.597143E+0	1.594375E+0	1.681719E+0	1.906778E+0	1.680369E+0	1.664883E+0	1.432880E+0	1.866827E+0	1.798833E+0	1.837458E+0	1.876170E+0	2.035826E+0	1.822377E+0	1.625033E+0	1.666518E+0	1.859235E+0	1.705326E+0	1.589699E+0	1.816214E+0	1.930250E+0	1.713193E+0	1.677367E+0	1.785194E+0	1.778297E+0	1.857386E+0	1.856983E+0	1.901006E+0	1.920320E+0	1.609251E+0	1.529927E+0	1.767473E+0	1.742191E+0	1.661724E+0	1.489562E+0	1.758091E+0	1.836352E+0	1.854148E+0	1.682476E+0	1.447670E+0	1.826341E+0	1.880825E+0	1.958745E+0	1.880940E+0	1.959466E+0	1.530457E+0	1.411194E+0	1.765009E+0	1.829062E+0	1.610538E+0	1.514922E+0	1.883540E+0	1.904099E+0	1.665239E+0	1.636520E+0	1.466125E+0	1.800152E+0	1.921710E+0	1.801386E+0	1.796825E+0	1.931028E+0	1.642388E+0	1.679096E+0	1.745354E+0	1.815296E+0	1.646714E+0	1.552013E+0	1.754015E+0	1.884415E+0	1.765579E+0	1.602063E+0	1.730193E+0	1.802339E+0	1.843066E+0	1.842670E+0	1.923659E+0	1.972747E+0	1.727371E+0	1.685763E+0	1.837024E+0	1.812665E+0
5.351350E+2	2.182802E+0	1.878841E+0	2.298733E+0	2.012322E+0	2.302843E+0	2.206451E+0	2.263502E+0	2.238045E+0	2.038745E+0	2.024564E+0	1.927491E+0	2.138451E+0	1.960349E+0	1.930984E+0	1.872838E+0	2.112616E+0	1.990692E+0	2.114686E+0	1.915928E+0	2.081564E+0	2.107140E+0	2.315916E+0	2.125829E+0	2.194786E+0	1.972897E+0	1.763133E+0	1.961531E+0	2.109780E+0	1.984002E+0	1.968560E+0	1.823294E+0	2.183266E+0	1.923471E+0	2.092031E+0	1.905119E+0	2.095251E+0	2.181249E+0	2.248417E+0	2.112174E+0	2.166635E+0	1.676498E+0	1.977150E+0	2.080063E+0	2.066180E+0	2.010230E+0	1.835508E+0	1.872210E+0	2.115860E+0	1.983296E+0	1.984579E+0	2.026411E+0	2.117067E+0	2.143169E+0	2.158567E+0	2.097725E+0	2.266701E+0	1.943412E+0	1.979757E+0	1.935000E+0	2.260030E+0	1.853223E+0	1.859708E+0	2.019968E+0	2.196918E+0	1.834466E+0	1.940597E+0	1.667072E+0	2.102140E+0	2.140594E+0	2.186300E+0	2.088403E+0	2.203730E+0	1.991871E+0	1.886321E+0	1.876465E+0	2.071506E+0	1.856299E+0	1.827914E+0	2.079997E+0	2.220631E+0	1.952287E+0	2.029791E+0	1.802042E+0	2.032147E+0	2.152052E+0	2.198676E+0	2.162319E+0	2.222694E+0	1.938024E+0	1.796013E+0	2.041541E+0	2.101360E+0	1.827820E+0	1.789795E+0	1.988061E+0	2.139081E+0	1.879129E+0	1.868219E+0	1.552378E+0	2.131888E+0	2.131237E+0	2.117403E+0	2.081059E+0	2.205371E+0	1.992942E+0	1.809158E+0	1.812356E+0	2.155848E+0	1.959680E+0	1.759186E+0	2.005839E+0	2.202140E+0	1.953168E+0	1.821209E+0	1.909437E+0	1.986390E+0	2.077302E+0	2.073811E+0	2.160338E+0	2.173217E+0	1.953287E+0	1.707615E+0	2.007560E+0	1.978150E+0	1.886112E+0	1.698570E+0	2.024176E+0	2.090352E+0	2.095641E+0	1.940579E+0	1.661697E+0	2.057748E+0	2.239786E+0	2.174779E+0	2.136993E+0	2.138455E+0	1.755576E+0	1.621565E+0	1.987170E+0	2.028261E+0	1.822586E+0	1.679709E+0	2.073627E+0	2.244691E+0	1.894669E+0	1.799191E+0	1.688503E+0	2.106349E+0	2.065250E+0	2.086680E+0	2.050032E+0	2.127477E+0	1.877698E+0	1.835366E+0	1.939264E+0	2.142500E+0	1.889835E+0	1.723527E+0	1.952557E+0	2.144230E+0	1.960086E+0	1.769573E+0	1.993295E+0	2.071827E+0	2.059485E+0	1.976703E+0	2.128333E+0	2.127028E+0	1.947969E+0	1.818212E+0	2.009586E+0	2.156990E+0
5.352650E+2	2.172520E+0	1.939930E+0	2.191382E+0	2.050587E+0	2.225921E+0	2.228823E+0	2.265042E+0	2.204839E+0	1.987193E+0	1.983606E+0	1.919880E+0	2.099014E+0	1.910437E+0	1.914203E+0	1.899211E+0	2.119518E+0	1.864280E+0	2.049214E+0	1.914813E+0	2.052103E+0	2.142760E+0	2.269947E+0	2.201770E+0	2.205326E+0	1.897613E+0	1.750848E+0	1.893389E+0	2.097933E+0	2.002835E+0	2.022193E+0	1.759204E+0	2.162223E+0	1.988134E+0	2.078887E+0	1.849621E+0	2.016242E+0	2.190126E+0	2.298544E+0	2.092242E+0	2.143410E+0	1.634282E+0	1.995821E+0	2.015747E+0	1.994238E+0	1.938349E+0	1.847807E+0	1.898991E+0	2.118779E+0	1.982101E+0	1.888724E+0	1.969694E+0	2.222251E+0	2.069040E+0	2.114422E+0	2.130857E+0	2.241243E+0	1.975427E+0	1.917104E+0	1.896041E+0	2.162900E+0	1.878383E+0	1.863229E+0	1.938223E+0	2.181627E+0	1.822577E+0	1.956807E+0	1.632649E+0	2.009689E+0	2.020749E+0	2.166432E+0	2.017637E+0	2.147521E+0	1.966378E+0	1.931880E+0	1.879296E+0	2.017976E+0	1.813605E+0	1.774139E+0	2.044901E+0	2.210513E+0	1.935156E+0	2.057269E+0	1.713568E+0	2.031527E+0	2.148017E+0	2.165371E+0	2.115076E+0	2.183094E+0	1.936797E+0	1.852356E+0	1.928749E+0	2.071578E+0	1.833506E+0	1.816782E+0	1.911601E+0	2.108071E+0	1.848726E+0	1.880249E+0	1.624286E+0	2.139811E+0	2.052513E+0	2.074954E+0	2.013102E+0	2.187729E+0	1.967788E+0	1.803460E+0	1.840247E+0	2.136449E+0	1.895470E+0	1.764553E+0	1.965311E+0	2.131521E+0	1.884605E+0	1.799123E+0	1.994063E+0	2.063254E+0	2.055874E+0	2.073815E+0	2.084035E+0	2.109993E+0	1.921312E+0	1.702278E+0	2.014691E+0	1.962806E+0	1.900300E+0	1.772993E+0	1.966795E+0	2.028428E+0	2.142946E+0	1.908939E+0	1.663870E+0	2.081753E+0	2.146407E+0	2.206098E+0	2.113066E+0	2.130632E+0	1.688207E+0	1.611691E+0	2.007737E+0	2.038075E+0	1.849212E+0	1.691850E+0	2.006721E+0	2.145145E+0	1.910578E+0	1.751721E+0	1.646979E+0	2.006207E+0	2.073630E+0	2.013795E+0	2.052595E+0	2.180753E+0	1.897359E+0	1.838829E+0	1.930934E+0	1.973646E+0	1.756000E+0	1.724410E+0	1.920201E+0	2.094691E+0	1.957139E+0	1.759040E+0	1.915944E+0	2.066481E+0	2.035078E+0	2.019788E+0	2.082633E+0	2.128656E+0	1.932488E+0	1.741345E+0	1.989751E+0	2.091690E+0
5.354060E+2	1.914295E+0	1.759721E+0	2.069792E+0	1.909489E+0	2.031107E+0	2.023327E+0	2.071147E+0	2.058738E+0	2.002832E+0	1.822590E+0	1.756259E+0	2.027318E+0	2.104181E+0	1.815277E+0	1.690888E+0	1.993427E+0	1.928678E+0	1.890941E+0	1.770645E+0	1.854310E+0	1.988070E+0	2.074566E+0	1.964990E+0	2.043978E+0	1.953020E+0	1.641273E+0	1.726323E+0	1.966987E+0	1.970227E+0	1.798396E+0	1.674926E+0	1.999757E+0	1.928665E+0	1.915139E+0	1.746385E+0	1.948781E+0	1.986466E+0	2.147654E+0	1.919347E+0	2.045605E+0	1.565107E+0	1.818999E+0	1.881994E+0	1.945081E+0	1.797373E+0	1.694271E+0	1.730574E+0	1.943899E+0	1.856583E+0	1.730332E+0	1.869702E+0	1.979432E+0	1.949330E+0	1.970841E+0	1.941798E+0	2.079714E+0	1.765309E+0	1.830308E+0	1.778616E+0	2.058441E+0	1.755776E+0	1.706035E+0	1.831817E+0	2.036337E+0	1.736500E+0	1.831042E+0	1.496002E+0	1.916612E+0	1.861644E+0	2.021584E+0	1.897637E+0	1.998390E+0	1.810640E+0	1.744578E+0	1.639594E+0	1.845023E+0	1.701242E+0	1.623400E+0	1.892486E+0	2.064049E+0	1.841821E+0	1.829551E+0	1.635873E+0	1.900755E+0	2.005322E+0	1.930729E+0	2.001471E+0	2.002912E+0	1.808127E+0	1.718751E+0	1.791907E+0	1.942092E+0	1.677194E+0	1.699994E+0	1.798842E+0	1.964219E+0	1.777779E+0	1.731660E+0	1.493923E+0	2.015504E+0	1.924386E+0	1.992588E+0	1.889866E+0	2.128931E+0	1.837712E+0	1.709968E+0	1.682206E+0	1.964366E+0	1.739673E+0	1.601772E+0	1.803667E+0	2.011461E+0	1.786042E+0	1.713176E+0	1.825406E+0	1.868281E+0	1.910450E+0	1.946028E+0	2.009225E+0	1.999595E+0	1.774459E+0	1.607300E+0	1.801941E+0	1.862410E+0	1.727408E+0	1.573790E+0	1.867771E+0	1.954431E+0	1.957469E+0	1.750193E+0	1.601946E+0	1.895271E+0	2.016854E+0	2.015538E+0	1.925229E+0	1.987339E+0	1.589964E+0	1.492674E+0	1.873153E+0	1.884490E+0	1.673170E+0	1.567828E+0	1.887256E+0	2.015779E+0	1.789439E+0	1.729721E+0	1.582505E+0	1.834112E+0	1.975143E+0	1.872192E+0	1.932140E+0	2.029492E+0	1.773870E+0	1.667564E+0	1.859559E+0	1.922304E+0	1.705450E+0	1.570581E+0	1.769215E+0	1.944566E+0	1.799176E+0	1.594539E+0	1.759491E+0	1.915117E+0	1.881579E+0	1.847457E+0	1.992218E+0	1.984156E+0	1.870566E+0	1.688128E+0	1.862810E+0	2.228234E+0
5.355680E+2	1.804838E+0	1.566686E+0	1.877618E+0	1.724750E+0	1.871262E+0	1.788171E+0	1.851020E+0	1.806864E+0	1.651841E+0	1.666065E+0	1.605139E+0	1.732766E+0	1.845098E+0	1.549865E+0	1.537502E+0	1.775304E+0	1.693144E+0	1.751454E+0	1.561655E+0	1.660121E+0	1.822695E+0	1.865694E+0	1.765474E+0	1.795538E+0	1.753063E+0	1.424690E+0	1.509251E+0	1.788030E+0	1.847147E+0	1.643033E+0	1.487927E+0	1.755566E+0	1.715056E+0	1.781874E+0	1.577656E+0	1.708714E+0	1.842965E+0	1.886887E+0	1.726978E+0	1.804437E+0	1.460326E+0	1.640530E+0	1.682225E+0	1.649526E+0	1.808039E+0	1.504744E+0	1.580314E+0	1.731023E+0	1.777086E+0	1.570185E+0	1.582595E+0	1.760049E+0	1.741464E+0	1.760320E+0	1.732269E+0	1.901518E+0	1.706526E+0	1.601545E+0	1.609420E+0	1.835474E+0	1.815250E+0	1.483671E+0	1.630877E+0	1.826305E+0	1.653265E+0	1.667266E+0	1.360397E+0	1.695095E+0	1.770207E+0	1.789533E+0	1.726359E+0	1.786703E+0	1.554036E+0	1.503843E+0	1.495088E+0	1.655596E+0	1.610001E+0	1.465760E+0	1.694449E+0	1.850621E+0	1.587817E+0	1.676334E+0	1.464035E+0	1.695957E+0	1.761274E+0	1.813656E+0	1.773740E+0	1.757891E+0	1.619125E+0	1.559010E+0	1.673390E+0	1.746562E+0	1.500041E+0	1.454323E+0	1.603325E+0	1.708539E+0	1.508634E+0	1.566228E+0	1.377525E+0	1.765064E+0	1.689233E+0	1.774299E+0	1.681429E+0	1.842273E+0	1.675735E+0	1.500189E+0	1.549145E+0	1.747853E+0	1.573421E+0	1.436309E+0	1.636231E+0	1.825827E+0	1.606674E+0	1.504277E+0	1.660952E+0	1.680808E+0	1.771665E+0	1.752338E+0	1.757876E+0	1.806029E+0	1.610434E+0	1.434412E+0	1.660505E+0	1.657147E+0	1.573966E+0	1.418707E+0	1.649421E+0	1.773377E+0	1.805600E+0	1.584786E+0	1.440608E+0	1.744487E+0	1.816050E+0	1.819674E+0	1.714478E+0	1.779981E+0	1.412004E+0	1.347985E+0	1.639828E+0	1.706078E+0	1.483807E+0	1.452045E+0	1.684955E+0	1.877820E+0	1.574691E+0	1.531741E+0	1.350838E+0	1.757561E+0	1.763503E+0	1.664469E+0	1.740439E+0	1.796416E+0	1.552683E+0	1.517060E+0	1.540744E+0	1.712621E+0	1.562944E+0	1.401276E+0	1.633912E+0	1.746416E+0	1.623532E+0	1.493229E+0	1.581940E+0	1.733480E+0	1.719947E+0	1.641613E+0	1.803940E+0	1.793482E+0	1.675124E+0	1.451613E+0	1.668428E+0	1.705806E+0
5.357090E+2	1.455300E+0	1.326003E+0	1.562079E+0	1.438969E+0	1.578550E+0	1.538974E+0	1.558375E+0	1.535064E+0	1.451444E+0	1.382185E+0	1.369220E+0	1.497362E+0	1.533386E+0	1.337005E+0	1.298857E+0	1.438910E+0	1.473118E+0	1.428643E+0	1.272197E+0	1.414226E+0	1.553512E+0	1.543392E+0	1.466906E+0	1.588811E+0	1.479019E+0	1.191722E+0	1.366916E+0	1.473134E+0	1.568388E+0	1.400275E+0	1.267134E+0	1.480060E+0	1.480084E+0	1.437052E+0	1.261294E+0	1.423675E+0	1.562872E+0	1.587640E+0	1.485013E+0	1.517267E+0	1.189726E+0	1.337411E+0	1.417000E+0	1.420516E+0	1.563649E+0	1.274216E+0	1.299311E+0	1.451408E+0	1.490786E+0	1.359776E+0	1.358638E+0	1.506414E+0	1.481011E+0	1.495475E+0	1.480833E+0	1.554384E+0	1.460324E+0	1.388301E+0	1.361759E+0	1.504988E+0	1.589707E+0	1.263068E+0	1.358240E+0	1.543375E+0	1.399019E+0	1.354811E+0	1.181502E+0	1.405942E+0	1.580112E+0	1.525997E+0	1.460728E+0	1.531050E+0	1.502492E+0	1.329479E+0	1.228183E+0	1.486175E+0	1.534943E+0	1.276873E+0	1.459809E+0	1.562510E+0	1.460818E+0	1.379407E+0	1.204860E+0	1.431323E+0	1.479915E+0	1.508369E+0	1.496109E+0	1.556923E+0	1.484300E+0	1.319101E+0	1.368217E+0	1.464930E+0	1.491987E+0	1.257508E+0	1.383609E+0	1.501143E+0	1.367304E+0	1.309951E+0	1.120938E+0	1.440894E+0	1.481859E+0	1.500422E+0	1.422786E+0	1.585017E+0	1.383067E+0	1.281861E+0	1.295232E+0	1.533841E+0	1.338973E+0	1.248491E+0	1.416201E+0	1.499453E+0	1.331191E+0	1.313879E+0	1.386060E+0	1.424593E+0	1.485926E+0	1.523942E+0	1.525974E+0	1.466075E+0	1.323247E+0	1.194825E+0	1.426953E+0	1.384739E+0	1.321198E+0	1.186972E+0	1.389935E+0	1.494183E+0	1.549792E+0	1.330566E+0	1.138580E+0	1.523542E+0	1.541833E+0	1.595677E+0	1.479298E+0	1.573114E+0	1.249197E+0	1.136625E+0	1.411795E+0	1.451451E+0	1.327489E+0	1.223953E+0	1.485838E+0	1.527119E+0	1.292036E+0	1.300186E+0	1.143759E+0	1.460572E+0	1.569150E+0	1.446857E+0	1.474927E+0	1.544790E+0	1.328429E+0	1.216050E+0	1.363492E+0	1.475105E+0	1.354972E+0	1.240815E+0	1.365271E+0	1.525526E+0	1.423719E+0	1.296128E+0	1.375091E+0	1.416503E+0	1.492677E+0	1.402744E+0	1.537174E+0	1.513173E+0	1.439046E+0	1.297879E+0	1.301485E+0	1.604880E+0
5.358600E+2	1.284764E+0	1.177561E+0	1.391260E+0	1.283522E+0	1.363259E+0	1.337639E+0	1.400478E+0	1.319234E+0	1.345455E+0	1.195923E+0	1.168634E+0	1.360541E+0	1.399990E+0	1.151965E+0	1.090974E+0	1.296254E+0	1.279922E+0	1.279478E+0	1.162671E+0	1.218236E+0	1.301633E+0	1.340515E+0	1.306063E+0	1.327537E+0	1.337481E+0	9.736025E-1	1.182818E+0	1.342814E+0	1.438425E+0	1.208845E+0	1.060380E+0	1.365060E+0	1.232986E+0	1.288247E+0	1.113102E+0	1.294223E+0	1.363159E+0	1.355230E+0	1.281055E+0	1.364527E+0	1.069176E+0	1.219349E+0	1.226902E+0	1.231673E+0	1.292825E+0	1.132526E+0	1.169931E+0	1.274580E+0	1.239150E+0	1.217748E+0	1.227656E+0	1.342327E+0	1.272144E+0	1.318907E+0	1.280563E+0	1.333144E+0	1.306087E+0	1.191148E+0	1.155203E+0	1.317450E+0	1.377429E+0	1.107634E+0	1.199317E+0	1.382792E+0	1.238201E+0	1.175389E+0	1.004173E+0	1.211107E+0	1.335775E+0	1.309939E+0	1.358167E+0	1.309396E+0	1.286904E+0	1.100556E+0	1.125048E+0	1.308517E+0	1.343032E+0	1.098097E+0	1.227675E+0	1.378468E+0	1.259386E+0	1.272154E+0	1.113551E+0	1.217272E+0	1.340746E+0	1.363545E+0	1.274742E+0	1.321303E+0	1.236814E+0	1.157033E+0	1.208475E+0	1.334797E+0	1.309151E+0	1.130951E+0	1.162444E+0	1.305440E+0	1.238925E+0	1.178804E+0	9.941948E-1	1.288558E+0	1.259053E+0	1.267980E+0	1.251879E+0	1.371862E+0	1.264650E+0	1.102293E+0	1.118015E+0	1.311698E+0	1.320060E+0	1.100024E+0	1.269034E+0	1.347619E+0	1.249770E+0	1.108561E+0	1.200000E+0	1.265241E+0	1.317035E+0	1.310626E+0	1.340954E+0	1.317255E+0	1.201856E+0	1.029407E+0	1.274820E+0	1.245337E+0	1.223455E+0	1.035900E+0	1.204079E+0	1.348813E+0	1.324481E+0	1.160165E+0	1.028308E+0	1.283518E+0	1.356142E+0	1.404058E+0	1.292987E+0	1.291419E+0	1.085831E+0	9.889711E-1	1.264277E+0	1.322120E+0	1.191387E+0	1.059600E+0	1.312213E+0	1.340145E+0	1.202713E+0	1.113784E+0	9.951431E-1	1.274668E+0	1.296217E+0	1.253188E+0	1.332434E+0	1.320281E+0	1.142267E+0	1.131859E+0	1.205868E+0	1.278408E+0	1.153252E+0	1.039242E+0	1.172613E+0	1.299073E+0	1.257508E+0	1.123601E+0	1.229182E+0	1.289474E+0	1.262700E+0	1.256743E+0	1.328530E+0	1.363242E+0	1.158461E+0	1.077918E+0	1.247934E+0	1.165566E+0
5.360070E+2	1.042869E+0	9.600900E-1	1.160537E+0	1.021656E+0	1.103511E+0	1.096766E+0	1.118635E+0	1.102459E+0	1.076131E+0	1.001808E+0	9.593515E-1	1.085704E+0	1.102341E+0	9.726681E-1	9.015540E-1	1.071685E+0	1.051545E+0	1.031819E+0	9.436235E-1	1.018637E+0	1.070616E+0	1.096163E+0	1.075888E+0	1.134560E+0	1.138727E+0	8.635188E-1	9.366181E-1	1.085912E+0	1.137619E+0	9.734902E-1	8.641671E-1	1.085639E+0	1.053435E+0	1.067132E+0	9.515897E-1	1.003714E+0	1.131391E+0	1.153198E+0	1.054389E+0	1.086741E+0	8.906411E-1	9.722381E-1	9.958257E-1	9.960698E-1	1.090635E+0	8.892402E-1	9.288792E-1	1.073394E+0	1.136344E+0	9.436310E-1	9.873307E-1	1.079070E+0	1.071292E+0	1.084618E+0	1.054954E+0	1.154024E+0	1.060467E+0	9.290457E-1	9.395680E-1	1.128080E+0	1.132672E+0	8.747033E-1	9.764560E-1	1.086096E+0	1.037184E+0	9.998756E-1	8.450974E-1	1.029301E+0	1.038743E+0	1.078372E+0	1.046380E+0	1.105412E+0	1.077961E+0	9.278797E-1	8.813749E-1	1.009674E+0	1.159205E+0	9.220750E-1	1.050193E+0	1.056154E+0	1.079811E+0	1.030703E+0	9.201613E-1	1.022345E+0	1.081571E+0	1.075412E+0	1.073021E+0	1.123309E+0	1.087830E+0	8.973761E-1	1.010942E+0	1.154162E+0	1.159945E+0	8.917957E-1	9.587033E-1	1.063483E+0	1.060436E+0	1.007954E+0	8.167550E-1	1.134394E+0	1.069180E+0	1.058280E+0	1.040909E+0	1.136167E+0	1.066469E+0	9.324170E-1	9.593916E-1	1.091431E+0	1.051766E+0	8.598792E-1	1.014261E+0	1.110528E+0	9.804100E-1	9.653161E-1	1.005535E+0	1.087766E+0	1.069054E+0	1.089773E+0	1.064667E+0	1.074571E+0	1.060925E+0	8.549195E-1	1.065040E+0	1.054141E+0	1.155666E+0	8.883905E-1	1.031427E+0	1.085367E+0	1.129045E+0	9.459126E-1	8.615405E-1	1.042876E+0	1.142384E+0	1.162544E+0	1.073585E+0	1.093844E+0	9.477274E-1	8.348972E-1	1.032129E+0	1.111949E+0	1.077476E+0	8.666307E-1	1.026018E+0	1.115270E+0	1.027735E+0	9.742717E-1	8.601870E-1	1.054230E+0	1.070431E+0	1.072017E+0	1.093573E+0	1.146187E+0	1.075912E+0	9.317638E-1	1.000661E+0	1.055737E+0	1.117148E+0	9.229863E-1	9.956428E-1	1.145408E+0	1.060055E+0	8.893840E-1	1.025262E+0	1.051444E+0	1.069065E+0	1.000638E+0	1.135289E+0	1.117156E+0	1.028811E+0	9.028966E-1	9.801644E-1	1.082454E+0
5.362630E+2	7.955321E-1	7.200164E-1	8.829576E-1	7.801178E-1	8.427643E-1	8.085496E-1	8.877078E-1	8.354024E-1	8.079670E-1	7.493455E-1	7.304983E-1	8.538853E-1	8.414453E-1	7.470003E-1	7.257546E-1	8.001783E-1	8.094546E-1	7.648025E-1	7.223394E-1	7.721439E-1	8.329843E-1	8.568093E-1	8.032597E-1	8.462406E-1	8.146961E-1	6.689520E-1	7.145996E-1	8.371150E-1	9.176420E-1	7.876083E-1	6.907766E-1	8.620016E-1	8.103793E-1	7.868522E-1	7.123742E-1	7.916064E-1	8.217082E-1	8.752150E-1	7.901732E-1	8.281564E-1	6.932859E-1	7.525854E-1	7.937770E-1	7.832473E-1	8.712870E-1	7.243160E-1	7.177878E-1	8.015757E-1	8.135811E-1	7.671197E-1	7.768250E-1	8.476697E-1	8.353788E-1	8.129781E-1	8.025441E-1	8.480843E-1	8.224148E-1	7.497124E-1	7.260705E-1	8.342499E-1	8.687003E-1	6.703928E-1	7.819103E-1	8.898303E-1	7.891660E-1	7.410803E-1	6.620308E-1	8.189528E-1	8.093844E-1	8.753900E-1	8.304894E-1	9.009827E-1	8.041750E-1	7.462037E-1	7.164713E-1	8.249555E-1	8.949286E-1	6.853903E-1	8.290901E-1	8.557318E-1	8.441189E-1	7.633628E-1	6.831030E-1	7.916380E-1	8.914785E-1	8.246197E-1	8.436948E-1	8.104717E-1	8.200286E-1	6.998742E-1	8.048220E-1	8.103738E-1	8.733718E-1	7.159180E-1	7.612518E-1	8.154248E-1	7.608862E-1	7.390457E-1	6.341430E-1	8.638455E-1	8.427715E-1	8.263433E-1	7.777028E-1	8.416727E-1	8.664488E-1	7.311886E-1	7.327866E-1	8.348687E-1	8.302638E-1	7.319818E-1	7.754129E-1	8.366174E-1	8.175700E-1	7.403012E-1	8.212743E-1	7.653101E-1	8.414831E-1	8.196147E-1	8.462307E-1	8.425871E-1	8.323576E-1	6.798985E-1	7.869191E-1	8.060324E-1	8.892358E-1	6.397214E-1	7.902222E-1	8.087993E-1	8.707468E-1	7.233341E-1	6.686990E-1	8.022355E-1	9.151321E-1	9.019198E-1	8.322966E-1	8.483399E-1	7.113807E-1	5.874896E-1	8.346560E-1	8.463513E-1	8.575413E-1	6.558811E-1	7.902652E-1	8.600787E-1	8.001430E-1	7.102981E-1	6.804273E-1	8.009849E-1	8.231661E-1	8.205641E-1	8.449748E-1	8.940861E-1	8.141791E-1	7.080248E-1	7.377569E-1	8.107967E-1	8.441781E-1	6.997542E-1	8.176916E-1	8.370680E-1	8.354893E-1	6.772359E-1	7.580568E-1	8.246936E-1	8.656665E-1	7.813949E-1	8.416956E-1	8.748752E-1	7.927330E-1	6.947637E-1	8.492556E-1	8.449870E-1
5.365140E+2	6.195534E-1	5.306454E-1	6.670622E-1	6.139109E-1	6.694325E-1	6.477931E-1	6.830106E-1	6.470866E-1	6.214680E-1	5.619627E-1	5.179538E-1	6.059349E-1	6.404426E-1	5.253072E-1	5.358921E-1	6.165666E-1	5.906185E-1	5.632590E-1	5.289955E-1	6.110219E-1	6.386046E-1	6.359446E-1	6.164770E-1	6.463883E-1	6.153385E-1	4.836010E-1	5.519325E-1	6.207434E-1	6.558744E-1	6.109746E-1	5.068526E-1	6.471743E-1	6.008083E-1	6.254980E-1	5.453115E-1	6.032012E-1	6.348141E-1	6.822974E-1	5.806554E-1	6.499604E-1	4.969477E-1	5.889443E-1	6.002653E-1	5.542382E-1	6.324618E-1	5.753371E-1	5.189528E-1	6.062358E-1	6.175324E-1	6.028837E-1	6.019882E-1	6.150664E-1	6.360300E-1	6.339872E-1	6.193287E-1	6.439697E-1	6.163745E-1	5.887728E-1	5.595423E-1	6.406029E-1	6.687759E-1	5.316914E-1	5.659013E-1	6.604265E-1	6.040016E-1	5.705993E-1	4.873087E-1	6.265983E-1	6.244510E-1	6.477014E-1	6.397255E-1	6.077064E-1	6.146314E-1	5.285291E-1	5.147337E-1	6.261197E-1	6.809907E-1	5.006383E-1	6.360648E-1	6.779528E-1	6.326465E-1	6.016906E-1	5.050258E-1	6.466763E-1	6.827273E-1	6.449779E-1	6.111832E-1	6.446485E-1	6.162526E-1	5.558140E-1	5.924042E-1	6.077261E-1	6.606932E-1	5.391099E-1	5.652525E-1	6.375136E-1	6.280027E-1	5.663912E-1	4.670498E-1	6.475289E-1	6.276833E-1	6.287686E-1	5.961455E-1	6.412587E-1	6.339097E-1	5.225488E-1	5.119921E-1	6.540240E-1	6.256843E-1	4.891557E-1	5.727537E-1	6.287869E-1	6.198349E-1	5.481133E-1	5.739915E-1	5.772114E-1	6.251379E-1	5.912130E-1	6.701857E-1	6.655590E-1	6.180013E-1	4.995408E-1	6.175506E-1	6.205907E-1	6.606425E-1	5.407889E-1	5.860863E-1	6.104263E-1	6.983403E-1	5.662527E-1	4.932402E-1	6.403729E-1	6.490133E-1	6.195331E-1	6.490384E-1	6.214204E-1	5.519447E-1	4.729220E-1	6.183762E-1	6.425340E-1	6.484571E-1	5.214528E-1	6.442481E-1	6.493539E-1	6.104823E-1	5.684696E-1	5.367288E-1	6.145041E-1	6.754366E-1	6.295011E-1	6.209812E-1	6.595848E-1	6.243299E-1	5.425275E-1	5.783491E-1	6.561631E-1	6.699026E-1	5.216109E-1	5.779724E-1	6.363942E-1	6.392150E-1	5.247705E-1	5.775766E-1	6.110012E-1	6.454532E-1	5.880002E-1	6.429874E-1	6.695337E-1	5.982585E-1	5.694113E-1	6.429756E-1	6.431399E-1
5.367760E+2	5.264235E-1	4.658929E-1	5.828389E-1	5.290134E-1	5.445538E-1	5.598715E-1	5.652324E-1	5.417820E-1	5.293779E-1	5.052988E-1	4.777278E-1	5.294590E-1	5.410750E-1	4.581808E-1	4.189866E-1	5.410967E-1	4.993875E-1	4.841220E-1	4.597046E-1	5.130262E-1	5.185161E-1	5.609903E-1	5.452543E-1	5.515040E-1	5.460749E-1	4.016780E-1	4.898333E-1	5.334466E-1	5.883657E-1	4.842790E-1	4.519824E-1	5.331542E-1	5.384569E-1	5.137451E-1	4.576175E-1	4.719252E-1	5.361897E-1	5.496359E-1	5.213228E-1	5.217847E-1	4.720245E-1	4.697828E-1	4.852966E-1	5.428475E-1	5.401780E-1	4.473159E-1	5.166830E-1	5.404724E-1	5.236923E-1	4.707927E-1	5.055058E-1	5.405369E-1	5.213290E-1	5.427938E-1	5.559825E-1	5.551045E-1	5.168469E-1	5.048535E-1	4.880202E-1	5.642438E-1	5.420512E-1	4.524328E-1	4.850694E-1	5.166674E-1	5.100040E-1	4.929046E-1	4.200278E-1	5.118072E-1	5.278517E-1	5.498436E-1	5.125496E-1	5.628310E-1	5.464621E-1	4.807196E-1	4.393650E-1	5.437609E-1	5.735720E-1	4.578968E-1	5.192467E-1	5.531705E-1	5.322265E-1	5.113446E-1	4.590884E-1	5.010965E-1	5.622164E-1	5.203389E-1	5.639379E-1	5.179292E-1	5.670015E-1	4.547391E-1	4.756028E-1	5.300337E-1	5.957999E-1	4.516362E-1	4.815295E-1	5.363589E-1	5.519891E-1	4.755521E-1	4.023856E-1	5.713609E-1	5.299166E-1	5.504464E-1	5.109457E-1	5.604071E-1	5.958688E-1	4.467316E-1	4.381999E-1	5.132274E-1	5.594823E-1	4.350448E-1	4.955500E-1	5.157921E-1	4.925007E-1	4.794748E-1	5.115706E-1	4.897237E-1	5.445191E-1	5.222896E-1	5.709418E-1	5.697494E-1	5.220736E-1	4.429790E-1	5.313813E-1	5.144413E-1	5.660523E-1	4.409645E-1	5.200723E-1	5.579466E-1	5.632780E-1	4.846588E-1	4.231652E-1	5.455942E-1	5.772207E-1	5.834389E-1	5.411199E-1	5.627343E-1	4.525777E-1	4.136624E-1	5.261041E-1	5.224375E-1	5.567367E-1	4.381941E-1	5.327433E-1	5.594048E-1	5.572551E-1	4.793208E-1	4.351021E-1	4.970904E-1	5.853317E-1	5.243387E-1	5.235924E-1	5.306801E-1	5.327848E-1	4.860166E-1	5.016194E-1	5.225597E-1	5.688032E-1	4.464635E-1	5.088514E-1	5.408594E-1	5.431413E-1	4.801335E-1	5.113615E-1	5.510486E-1	5.304647E-1	5.080583E-1	5.734392E-1	5.712087E-1	5.102126E-1	4.629789E-1	5.219822E-1	5.778362E-1
5.370070E+2	5.040485E-1	4.023619E-1	5.205618E-1	4.674326E-1	4.891078E-1	4.964014E-1	4.885994E-1	4.843860E-1	5.015768E-1	4.873456E-1	4.298916E-1	4.930123E-1	5.283708E-1	5.001348E-1	4.260184E-1	4.619452E-1	4.582435E-1	5.023405E-1	4.502048E-1	4.637270E-1	4.951095E-1	5.310085E-1	4.985584E-1	5.166672E-1	4.912672E-1	4.047505E-1	4.486168E-1	5.228463E-1	5.240718E-1	4.519115E-1	3.694582E-1	4.837291E-1	4.749500E-1	4.575692E-1	4.171008E-1	4.597698E-1	4.982194E-1	5.182422E-1	4.837765E-1	4.726581E-1	4.069173E-1	4.274993E-1	4.744829E-1	4.942886E-1	4.849925E-1	3.903665E-1	4.404178E-1	4.469433E-1	4.782669E-1	4.339705E-1	4.294905E-1	4.672097E-1	4.967863E-1	4.729441E-1	4.624258E-1	5.199279E-1	4.795966E-1	4.554222E-1	4.421186E-1	4.958257E-1	4.866946E-1	4.145650E-1	4.567551E-1	4.876093E-1	4.471495E-1	4.247117E-1	3.981225E-1	5.130479E-1	5.061557E-1	4.941332E-1	4.879351E-1	4.622012E-1	4.616661E-1	4.171613E-1	4.047976E-1	4.914046E-1	5.052558E-1	3.885002E-1	4.515624E-1	4.996919E-1	5.074164E-1	4.526991E-1	4.188223E-1	4.572992E-1	5.168355E-1	5.067141E-1	5.177538E-1	4.931801E-1	4.814280E-1	4.291801E-1	4.859090E-1	4.620533E-1	4.854346E-1	4.013857E-1	4.810456E-1	4.921356E-1	4.658409E-1	4.400590E-1	3.853142E-1	4.799593E-1	4.846345E-1	4.751557E-1	4.587100E-1	5.466873E-1	4.915638E-1	3.959969E-1	4.312273E-1	4.669218E-1	5.072178E-1	3.983752E-1	4.521231E-1	5.107476E-1	4.459753E-1	3.875590E-1	4.461484E-1	4.578534E-1	4.924733E-1	4.714773E-1	4.961352E-1	5.147928E-1	5.084546E-1	3.917530E-1	5.022615E-1	4.357882E-1	5.066711E-1	3.946177E-1	4.439023E-1	5.143883E-1	5.203324E-1	4.347036E-1	4.036093E-1	4.698939E-1	5.194629E-1	4.974492E-1	5.131219E-1	5.192090E-1	4.273149E-1	3.776128E-1	4.767363E-1	5.224381E-1	5.093969E-1	3.974318E-1	4.589381E-1	5.033127E-1	4.936271E-1	4.185377E-1	3.984945E-1	4.827014E-1	5.172294E-1	4.878960E-1	5.077030E-1	4.869192E-1	4.553707E-1	4.416148E-1	4.605774E-1	4.619425E-1	5.216241E-1	4.071218E-1	4.436515E-1	4.705976E-1	4.971678E-1	4.099188E-1	4.803044E-1	5.005937E-1	4.491049E-1	4.558798E-1	5.108469E-1	4.962422E-1	4.927971E-1	4.251359E-1	5.319003E-1	4.294200E-1
5.372640E+2	4.580883E-1	4.151903E-1	5.478449E-1	4.704221E-1	5.015956E-1	4.724704E-1	5.302587E-1	5.104752E-1	4.581375E-1	4.693930E-1	4.494607E-1	4.792714E-1	4.984243E-1	5.098505E-1	4.088781E-1	4.858748E-1	4.266408E-1	4.863994E-1	4.351171E-1	4.895787E-1	5.017243E-1	5.300094E-1	5.065774E-1	5.065833E-1	4.954833E-1	4.216474E-1	4.480678E-1	4.979039E-1	4.703404E-1	4.926016E-1	3.997464E-1	4.851967E-1	4.732181E-1	4.862549E-1	4.381919E-1	4.555155E-1	4.982193E-1	5.258379E-1	4.851668E-1	4.878428E-1	4.089518E-1	4.851582E-1	4.687916E-1	4.816986E-1	4.951953E-1	4.874077E-1	4.563062E-1	4.357394E-1	4.842435E-1	4.941711E-1	4.365067E-1	4.990650E-1	4.772518E-1	4.841006E-1	4.609634E-1	5.194648E-1	4.615533E-1	5.037042E-1	4.314433E-1	4.848298E-1	5.329013E-1	5.035101E-1	4.681717E-1	5.166671E-1	4.550772E-1	4.878739E-1	3.960364E-1	4.720947E-1	5.139047E-1	4.994615E-1	4.946017E-1	5.070764E-1	4.633290E-1	4.132242E-1	4.223650E-1	4.766980E-1	5.218853E-1	4.229690E-1	4.831487E-1	5.155908E-1	5.145052E-1	4.606240E-1	3.876303E-1	4.795067E-1	5.213738E-1	4.935944E-1	4.768790E-1	4.986249E-1	4.962034E-1	3.989736E-1	4.652969E-1	4.834193E-1	5.185915E-1	4.386083E-1	4.495886E-1	4.921350E-1	4.737236E-1	4.298318E-1	3.713462E-1	5.165197E-1	4.738286E-1	4.872829E-1	4.769674E-1	5.163066E-1	4.983128E-1	3.988477E-1	4.480778E-1	4.888229E-1	4.937781E-1	4.059777E-1	4.598432E-1	5.006584E-1	4.563819E-1	4.275484E-1	4.797597E-1	4.772253E-1	5.011477E-1	4.820429E-1	5.036154E-1	4.982573E-1	4.823999E-1	3.629383E-1	4.648222E-1	4.434617E-1	5.187575E-1	3.799114E-1	4.403475E-1	4.923465E-1	5.184648E-1	4.186071E-1	3.813379E-1	4.686631E-1	5.383552E-1	5.154961E-1	5.258485E-1	5.006249E-1	4.402268E-1	3.825516E-1	5.025960E-1	4.577706E-1	5.084103E-1	4.134761E-1	4.902652E-1	5.184727E-1	4.654837E-1	4.330094E-1	3.859275E-1	5.350769E-1	4.952269E-1	4.597831E-1	5.112912E-1	5.516096E-1	5.364712E-1	4.064395E-1	4.463019E-1	4.934878E-1	5.240311E-1	3.929767E-1	4.510048E-1	5.378264E-1	4.906839E-1	4.023960E-1	4.222930E-1	5.089034E-1	4.914120E-1	4.606672E-1	5.212786E-1	5.157995E-1	5.082777E-1	3.979370E-1	5.001652E-1	5.125329E-1
5.375060E+2	5.330756E-1	4.805535E-1	6.065636E-1	5.224368E-1	5.850148E-1	5.536286E-1	5.724329E-1	5.384617E-1	5.415412E-1	5.636452E-1	4.646814E-1	5.234840E-1	5.419831E-1	5.637280E-1	4.818342E-1	5.562826E-1	4.981946E-1	5.564272E-1	4.703219E-1	5.214425E-1	5.302200E-1	6.239520E-1	5.367643E-1	5.748809E-1	5.286089E-1	4.656806E-1	4.975270E-1	5.153631E-1	6.016838E-1	5.411531E-1	4.366191E-1	5.341327E-1	5.673232E-1	5.185260E-1	4.620576E-1	5.089983E-1	5.381622E-1	5.592561E-1	5.495984E-1	5.441147E-1	4.435405E-1	5.384239E-1	5.120468E-1	5.230643E-1	5.448155E-1	5.243109E-1	4.467731E-1	5.404727E-1	5.171176E-1	5.339154E-1	4.961505E-1	5.387337E-1	5.228314E-1	5.597714E-1	5.296694E-1	5.467730E-1	5.185925E-1	5.174989E-1	4.591980E-1	5.666869E-1	5.827682E-1	5.409375E-1	4.900923E-1	5.421570E-1	5.258589E-1	5.415332E-1	4.127263E-1	4.894690E-1	5.278518E-1	5.551730E-1	5.140882E-1	5.442462E-1	5.076666E-1	5.004064E-1	4.268983E-1	5.343489E-1	5.560439E-1	5.029358E-1	4.921731E-1	5.661785E-1	5.469941E-1	5.446299E-1	4.466113E-1	5.307058E-1	5.879321E-1	5.561659E-1	5.289018E-1	5.619846E-1	5.793145E-1	4.849451E-1	4.761752E-1	5.624054E-1	5.304332E-1	5.498112E-1	4.902403E-1	5.256840E-1	5.384760E-1	4.984127E-1	4.018682E-1	5.683142E-1	5.324890E-1	5.302344E-1	5.144961E-1	6.025483E-1	5.516920E-1	4.894861E-1	4.643471E-1	5.326265E-1	5.326034E-1	4.515912E-1	4.955500E-1	5.193234E-1	5.078055E-1	4.394855E-1	5.115702E-1	5.153450E-1	5.562545E-1	5.398978E-1	5.574768E-1	5.342466E-1	5.025331E-1	4.616548E-1	5.117704E-1	5.393799E-1	5.844452E-1	4.449750E-1	5.038225E-1	5.794629E-1	5.632780E-1	4.807729E-1	4.481530E-1	5.499024E-1	5.361960E-1	5.680458E-1	5.436652E-1	5.529532E-1	4.447183E-1	3.978602E-1	5.172887E-1	5.120447E-1	5.315870E-1	4.256182E-1	5.661945E-1	5.396967E-1	4.654839E-1	4.717949E-1	4.241740E-1	5.310484E-1	5.538998E-1	5.316266E-1	5.399951E-1	5.749166E-1	5.223406E-1	5.056224E-1	5.295745E-1	5.522489E-1	5.307708E-1	4.424855E-1	5.063999E-1	5.565287E-1	5.313534E-1	4.625801E-1	4.785467E-1	5.243371E-1	5.038874E-1	5.506622E-1	5.828780E-1	5.712091E-1	5.595573E-1	4.949080E-1	5.656194E-1	5.362794E-1
5.377690E+2	5.959688E-1	5.563025E-1	6.658756E-1	5.941807E-1	6.479534E-1	6.196996E-1	6.243787E-1	6.138827E-1	6.000386E-1	6.943649E-1	5.554613E-1	6.340167E-1	6.531467E-1	6.595595E-1	5.460008E-1	6.073627E-1	6.061215E-1	6.890814E-1	5.770520E-1	5.629262E-1	6.263922E-1	6.714229E-1	6.645875E-1	6.537218E-1	6.285883E-1	5.660361E-1	5.590765E-1	6.556622E-1	6.907768E-1	6.646118E-1	5.309953E-1	6.525570E-1	6.135094E-1	6.511951E-1	5.453119E-1	6.396665E-1	6.772234E-1	6.711581E-1	6.242273E-1	6.361156E-1	5.167857E-1	5.988284E-1	5.820525E-1	5.980015E-1	6.473017E-1	6.559772E-1	5.425590E-1	6.174396E-1	6.330734E-1	6.233404E-1	5.511159E-1	6.505273E-1	6.069788E-1	6.470844E-1	6.261502E-1	6.990486E-1	5.960030E-1	6.180867E-1	5.536710E-1	6.515987E-1	6.605416E-1	6.435332E-1	5.754916E-1	6.838771E-1	6.323137E-1	6.153156E-1	5.003476E-1	6.166713E-1	6.575120E-1	6.840347E-1	6.074190E-1	6.249314E-1	6.295953E-1	6.185235E-1	5.119001E-1	6.431794E-1	6.913282E-1	6.141553E-1	6.104956E-1	6.562727E-1	6.113807E-1	6.603365E-1	5.140994E-1	5.954765E-1	6.862571E-1	6.540609E-1	6.223308E-1	6.357384E-1	6.378001E-1	5.848580E-1	5.763724E-1	6.213218E-1	6.843771E-1	6.698550E-1	5.889660E-1	6.095559E-1	6.032281E-1	6.289561E-1	4.753268E-1	6.548403E-1	6.601010E-1	6.686882E-1	5.951312E-1	6.868298E-1	6.191839E-1	5.749937E-1	5.468539E-1	6.759252E-1	6.465904E-1	5.879854E-1	6.017052E-1	6.867977E-1	5.990211E-1	6.077987E-1	5.907967E-1	6.015832E-1	6.424865E-1	6.334722E-1	6.472444E-1	6.543732E-1	5.960918E-1	5.496990E-1	6.276540E-1	6.001281E-1	6.454029E-1	5.737662E-1	5.561259E-1	6.245956E-1	6.304979E-1	6.350792E-1	4.785731E-1	6.403735E-1	6.700653E-1	6.757980E-1	6.551469E-1	6.849968E-1	5.541902E-1	4.941564E-1	6.348321E-1	6.627425E-1	6.430328E-1	5.366301E-1	6.192922E-1	6.266143E-1	6.282247E-1	5.719435E-1	5.023070E-1	6.058707E-1	6.534345E-1	6.149241E-1	6.501977E-1	6.453150E-1	5.942248E-1	5.563671E-1	6.051153E-1	6.320404E-1	6.501643E-1	4.964146E-1	5.980714E-1	6.358885E-1	6.221229E-1	5.468379E-1	5.658569E-1	6.359324E-1	6.411139E-1	5.865647E-1	6.663353E-1	6.380264E-1	6.359928E-1	5.268376E-1	5.814873E-1	7.084429E-1
5.380110E+2	7.090545E-1	6.632048E-1	7.352708E-1	6.659247E-1	7.763284E-1	7.097026E-1	7.426712E-1	7.732625E-1	6.967630E-1	7.493453E-1	6.424365E-1	7.529127E-1	7.779232E-1	7.787967E-1	6.321420E-1	7.541605E-1	6.878125E-1	7.334895E-1	6.279027E-1	6.801602E-1	7.307057E-1	7.998446E-1	7.226033E-1	7.802343E-1	7.574785E-1	6.500069E-1	6.629417E-1	7.566767E-1	7.807882E-1	7.552408E-1	6.060578E-1	7.660879E-1	7.156972E-1	7.814737E-1	6.502111E-1	7.192829E-1	7.363980E-1	7.744522E-1	6.946849E-1	7.272230E-1	5.971517E-1	6.883369E-1	6.890529E-1	6.789336E-1	7.632359E-1	7.521069E-1	6.265413E-1	7.333767E-1	7.382702E-1	7.314679E-1	6.820973E-1	7.695338E-1	7.106602E-1	7.339116E-1	7.182458E-1	7.818972E-1	7.455862E-1	7.140762E-1	6.812359E-1	7.676645E-1	8.000765E-1	7.505318E-1	6.513003E-1	7.812455E-1	7.432992E-1	7.651152E-1	5.671073E-1	7.482156E-1	7.081363E-1	7.533105E-1	7.427993E-1	7.319065E-1	7.265840E-1	7.107681E-1	6.014355E-1	7.278900E-1	7.749258E-1	7.322678E-1	6.546151E-1	7.429938E-1	7.171177E-1	7.549095E-1	6.025712E-1	7.077453E-1	7.750013E-1	7.872780E-1	7.343400E-1	7.476075E-1	7.510775E-1	6.568884E-1	6.874482E-1	7.346240E-1	7.871637E-1	7.689602E-1	7.094697E-1	7.366360E-1	6.905031E-1	7.300223E-1	5.746513E-1	7.553828E-1	7.146450E-1	7.556005E-1	7.153239E-1	8.024720E-1	6.958787E-1	6.884345E-1	6.293616E-1	7.234831E-1	7.336984E-1	7.225903E-1	7.011047E-1	7.236219E-1	6.969693E-1	6.895683E-1	7.090361E-1	7.371896E-1	7.379027E-1	7.597469E-1	7.779071E-1	7.939535E-1	7.494571E-1	6.585541E-1	7.138236E-1	7.011619E-1	7.941203E-1	6.602211E-1	7.155754E-1	7.043649E-1	7.817424E-1	7.510866E-1	6.024263E-1	7.554618E-1	7.909792E-1	8.084985E-1	7.238689E-1	7.740043E-1	6.586096E-1	5.746504E-1	6.877267E-1	7.181715E-1	7.668068E-1	7.113877E-1	7.138051E-1	7.564850E-1	7.236666E-1	7.207178E-1	5.656874E-1	7.468825E-1	7.733991E-1	7.544470E-1	7.778282E-1	7.661332E-1	7.508962E-1	6.716967E-1	6.889830E-1	7.402837E-1	7.589665E-1	7.222987E-1	6.887628E-1	7.486098E-1	7.429516E-1	6.967955E-1	7.357903E-1	7.570242E-1	7.669500E-1	7.081536E-1	7.547604E-1	7.825261E-1	7.608043E-1	6.297219E-1	7.163628E-1	6.965696E-1
5.382640E+2	8.801949E-1	8.446348E-1	8.877022E-1	8.506662E-1	9.151936E-1	8.714993E-1	9.648550E-1	9.236303E-1	9.185917E-1	9.064328E-1	7.680063E-1	8.730042E-1	9.276549E-1	9.232068E-1	7.283914E-1	8.889939E-1	8.201876E-1	9.111208E-1	8.044827E-1	8.659319E-1	9.128734E-1	9.507522E-1	8.862739E-1	9.695436E-1	8.851639E-1	7.375621E-1	8.025280E-1	8.558213E-1	9.208568E-1	9.203134E-1	7.627664E-1	9.334481E-1	8.929371E-1	9.494017E-1	7.778671E-1	8.779081E-1	9.045535E-1	9.845847E-1	8.805624E-1	9.277503E-1	7.324516E-1	8.618631E-1	8.700439E-1	8.713733E-1	9.297182E-1	9.065525E-1	7.777106E-1	8.756191E-1	8.900876E-1	8.857681E-1	8.417312E-1	9.378261E-1	8.834625E-1	8.988360E-1	8.512720E-1	8.957570E-1	8.497703E-1	9.014558E-1	8.429604E-1	8.941151E-1	9.574544E-1	8.949580E-1	8.120512E-1	9.428473E-1	8.599472E-1	9.568366E-1	7.074063E-1	9.052015E-1	8.662076E-1	9.495102E-1	9.012565E-1	8.842109E-1	8.873082E-1	8.474471E-1	7.788063E-1	8.378976E-1	9.169515E-1	8.747386E-1	9.103110E-1	9.217366E-1	9.114597E-1	8.928056E-1	8.441663E-1	9.014399E-1	9.676169E-1	9.906361E-1	9.344696E-1	9.233308E-1	8.742047E-1	8.276697E-1	8.157002E-1	8.576360E-1	9.287913E-1	8.936566E-1	8.256171E-1	8.962468E-1	8.628006E-1	9.092948E-1	6.869087E-1	8.815168E-1	8.983450E-1	9.274048E-1	8.426166E-1	9.489849E-1	9.333269E-1	8.087152E-1	7.874042E-1	8.717886E-1	8.989544E-1	8.871582E-1	8.945957E-1	9.228766E-1	8.579736E-1	8.543005E-1	8.434809E-1	8.690457E-1	9.016922E-1	9.001085E-1	9.015876E-1	8.844130E-1	9.099282E-1	8.010256E-1	8.368384E-1	9.051478E-1	9.775201E-1	8.674455E-1	8.699467E-1	8.801713E-1	9.056017E-1	8.693141E-1	7.279090E-1	8.483948E-1	9.523780E-1	9.688007E-1	8.918552E-1	9.099601E-1	7.596608E-1	7.321810E-1	8.499362E-1	8.815718E-1	9.704668E-1	8.319394E-1	8.927434E-1	9.409317E-1	9.065976E-1	8.752814E-1	7.399828E-1	8.470294E-1	9.368454E-1	9.012583E-1	8.593272E-1	9.283339E-1	8.369113E-1	8.562231E-1	8.150815E-1	8.621354E-1	9.476845E-1	8.633101E-1	8.167107E-1	8.957032E-1	8.855890E-1	8.708269E-1	8.594309E-1	8.816784E-1	8.868199E-1	8.986759E-1	9.112436E-1	8.993210E-1	9.465711E-1	8.638729E-1	8.452890E-1	1.034960E+0
5.385110E+2	1.171678E+0	9.839138E-1	1.174180E+0	1.129870E+0	1.180936E+0	1.174803E+0	1.161838E+0	1.178354E+0	1.131733E+0	1.124673E+0	9.897926E-1	1.120357E+0	1.179930E+0	1.154614E+0	9.775864E-1	1.144396E+0	1.084341E+0	1.147963E+0	1.011238E+0	1.046292E+0	1.179003E+0	1.223586E+0	1.113150E+0	1.182690E+0	1.102589E+0	9.408333E-1	1.017952E+0	1.135172E+0	1.167010E+0	1.151973E+0	9.247431E-1	1.159529E+0	1.088075E+0	1.134661E+0	9.693502E-1	1.060236E+0	1.150129E+0	1.207880E+0	1.037702E+0	1.154179E+0	9.348932E-1	1.133683E+0	1.053879E+0	1.074604E+0	1.181065E+0	1.145738E+0	9.674662E-1	1.125034E+0	1.104068E+0	1.106699E+0	1.046389E+0	1.180045E+0	1.137406E+0	1.139914E+0	1.186031E+0	1.216045E+0	1.103538E+0	1.102056E+0	1.005219E+0	1.153126E+0	1.166528E+0	1.114240E+0	1.071445E+0	1.167153E+0	1.107965E+0	1.084837E+0	8.696106E-1	1.080182E+0	1.143092E+0	1.169449E+0	1.085868E+0	1.180206E+0	1.121190E+0	1.073558E+0	9.952777E-1	1.095562E+0	1.132239E+0	1.058572E+0	1.058214E+0	1.133724E+0	1.148333E+0	1.163844E+0	1.098806E+0	1.072927E+0	1.173341E+0	1.209638E+0	1.163266E+0	1.162411E+0	1.089678E+0	1.036209E+0	1.080221E+0	1.073232E+0	1.140524E+0	1.190044E+0	9.998391E-1	1.157522E+0	1.082958E+0	1.158350E+0	8.529677E-1	1.165470E+0	1.108286E+0	1.098198E+0	1.035838E+0	1.220451E+0	1.127825E+0	1.019635E+0	9.320830E-1	1.133356E+0	1.140369E+0	1.108965E+0	1.052863E+0	1.132724E+0	1.121212E+0	1.078122E+0	1.092563E+0	1.068393E+0	1.073136E+0	1.119958E+0	1.136980E+0	1.121263E+0	1.088756E+0	1.061957E+0	1.021658E+0	1.024086E+0	1.186145E+0	1.054616E+0	1.086779E+0	1.103209E+0	1.189419E+0	1.104105E+0	8.637131E-1	1.111806E+0	1.139686E+0	1.241102E+0	1.096493E+0	1.157420E+0	9.769199E-1	9.267487E-1	1.082672E+0	1.072109E+0	1.170674E+0	1.063069E+0	1.080176E+0	1.152668E+0	1.103599E+0	1.042581E+0	8.869595E-1	1.113513E+0	1.157392E+0	1.136052E+0	1.158155E+0	1.182812E+0	1.128751E+0	1.034983E+0	1.083933E+0	1.115116E+0	1.162881E+0	1.090965E+0	1.062314E+0	1.136816E+0	1.127247E+0	1.085983E+0	1.068625E+0	1.097150E+0	1.156934E+0	1.065741E+0	1.183473E+0	1.171480E+0	1.120727E+0	1.068458E+0	1.093223E+0	1.129948E+0
5.387700E+2	1.356727E+0	1.239870E+0	1.475483E+0	1.302654E+0	1.480142E+0	1.362611E+0	1.401508E+0	1.365721E+0	1.347192E+0	1.390039E+0	1.218645E+0	1.368306E+0	1.382296E+0	1.404131E+0	1.160418E+0	1.270482E+0	1.339550E+0	1.429214E+0	1.207935E+0	1.358919E+0	1.321477E+0	1.437953E+0	1.331536E+0	1.403168E+0	1.318812E+0	1.136937E+0	1.146548E+0	1.349049E+0	1.435669E+0	1.360513E+0	1.125348E+0	1.356741E+0	1.380781E+0	1.402987E+0	1.193026E+0	1.314281E+0	1.389786E+0	1.513715E+0	1.325092E+0	1.418568E+0	1.075280E+0	1.281949E+0	1.241130E+0	1.262848E+0	1.407833E+0	1.336177E+0	1.233489E+0	1.301373E+0	1.353314E+0	1.329384E+0	1.193159E+0	1.411447E+0	1.337759E+0	1.392152E+0	1.359014E+0	1.451633E+0	1.297353E+0	1.377377E+0	1.176017E+0	1.374264E+0	1.360046E+0	1.372709E+0	1.219408E+0	1.337420E+0	1.303890E+0	1.342516E+0	1.119958E+0	1.319073E+0	1.373996E+0	1.381151E+0	1.327397E+0	1.353816E+0	1.345648E+0	1.233860E+0	1.132981E+0	1.333814E+0	1.419885E+0	1.323288E+0	1.319424E+0	1.375097E+0	1.289512E+0	1.395256E+0	1.367058E+0	1.330157E+0	1.384110E+0	1.391802E+0	1.364989E+0	1.384665E+0	1.335316E+0	1.214543E+0	1.288060E+0	1.374291E+0	1.437516E+0	1.351963E+0	1.188096E+0	1.389824E+0	1.322260E+0	1.255205E+0	1.044892E+0	1.343400E+0	1.362997E+0	1.408458E+0	1.281802E+0	1.388522E+0	1.379385E+0	1.252787E+0	1.143581E+0	1.287293E+0	1.353908E+0	1.322726E+0	1.267100E+0	1.387973E+0	1.263239E+0	1.278666E+0	1.306836E+0	1.271490E+0	1.354793E+0	1.367478E+0	1.336965E+0	1.338168E+0	1.378908E+0	1.189489E+0	1.311664E+0	1.342534E+0	1.430504E+0	1.279665E+0	1.267045E+0	1.323098E+0	1.432782E+0	1.349439E+0	1.056011E+0	1.290286E+0	1.435492E+0	1.460855E+0	1.329130E+0	1.396566E+0	1.207092E+0	1.073910E+0	1.257812E+0	1.307684E+0	1.416252E+0	1.254739E+0	1.313805E+0	1.378551E+0	1.295709E+0	1.268347E+0	1.115347E+0	1.276970E+0	1.393130E+0	1.305249E+0	1.332432E+0	1.420168E+0	1.264533E+0	1.235080E+0	1.191593E+0	1.321089E+0	1.388189E+0	1.246562E+0	1.203007E+0	1.337489E+0	1.298176E+0	1.218390E+0	1.243831E+0	1.263356E+0	1.321279E+0	1.334771E+0	1.325553E+0	1.349660E+0	1.399377E+0	1.251758E+0	1.351074E+0	1.521767E+0
5.390240E+2	1.572617E+0	1.443901E+0	1.646899E+0	1.474839E+0	1.646483E+0	1.602444E+0	1.671010E+0	1.615701E+0	1.532532E+0	1.609401E+0	1.556758E+0	1.597739E+0	1.616420E+0	1.648789E+0	1.501904E+0	1.523582E+0	1.571505E+0	1.613104E+0	1.432012E+0	1.440680E+0	1.604908E+0	1.638331E+0	1.621613E+0	1.588812E+0	1.527204E+0	1.325872E+0	1.450998E+0	1.627153E+0	1.644620E+0	1.669391E+0	1.462030E+0	1.590654E+0	1.533198E+0	1.634860E+0	1.443342E+0	1.500251E+0	1.642267E+0	1.741567E+0	1.582355E+0	1.579347E+0	1.351474E+0	1.500505E+0	1.498389E+0	1.443896E+0	1.592862E+0	1.565796E+0	1.391014E+0	1.550785E+0	1.604947E+0	1.552652E+0	1.391384E+0	1.591760E+0	1.571668E+0	1.610919E+0	1.573416E+0	1.660376E+0	1.522604E+0	1.574529E+0	1.387378E+0	1.625941E+0	1.629052E+0	1.541355E+0	1.402996E+0	1.579061E+0	1.516233E+0	1.605780E+0	1.476185E+0	1.503358E+0	1.538789E+0	1.598181E+0	1.603801E+0	1.581819E+0	1.560688E+0	1.456032E+0	1.338684E+0	1.505002E+0	1.632925E+0	1.532858E+0	1.482368E+0	1.643451E+0	1.586639E+0	1.657314E+0	1.556476E+0	1.520769E+0	1.632191E+0	1.570940E+0	1.638374E+0	1.554945E+0	1.535400E+0	1.456192E+0	1.437498E+0	1.508955E+0	1.685718E+0	1.661374E+0	1.397645E+0	1.572307E+0	1.513700E+0	1.480201E+0	1.165943E+0	1.627961E+0	1.562134E+0	1.575206E+0	1.460316E+0	1.708502E+0	1.507006E+0	1.467127E+0	1.387035E+0	1.570137E+0	1.595821E+0	1.523515E+0	1.486647E+0	1.552925E+0	1.536272E+0	1.502488E+0	1.486897E+0	1.484585E+0	1.556848E+0	1.573242E+0	1.629207E+0	1.560429E+0	1.542929E+0	1.415738E+0	1.418041E+0	1.434617E+0	1.668030E+0	1.483323E+0	1.452392E+0	1.612263E+0	1.644398E+0	1.533718E+0	1.285793E+0	1.525386E+0	1.614708E+0	1.636547E+0	1.564309E+0	1.606858E+0	1.314879E+0	1.223045E+0	1.506418E+0	1.575589E+0	1.535587E+0	1.471126E+0	1.518228E+0	1.596855E+0	1.498828E+0	1.436806E+0	1.242107E+0	1.509497E+0	1.622587E+0	1.559827E+0	1.540024E+0	1.592831E+0	1.529339E+0	1.444977E+0	1.481860E+0	1.529533E+0	1.570649E+0	1.520629E+0	1.417232E+0	1.546250E+0	1.494449E+0	1.393923E+0	1.472361E+0	1.560747E+0	1.550715E+0	1.482687E+0	1.594800E+0	1.531641E+0	1.500000E+0	1.429144E+0	1.462148E+0	1.622693E+0
5.392930E+2	1.879220E+0	1.610059E+0	1.914987E+0	1.696649E+0	1.929210E+0	1.854767E+0	1.878794E+0	1.897462E+0	1.794322E+0	1.811371E+0	1.780719E+0	1.842695E+0	1.882306E+0	1.908463E+0	1.720773E+0	1.806596E+0	1.762316E+0	1.937626E+0	1.711970E+0	1.693788E+0	1.893930E+0	1.985119E+0	1.831980E+0	1.896838E+0	1.796429E+0	1.556279E+0	1.802161E+0	1.790523E+0	1.901795E+0	1.870067E+0	1.789934E+0	1.856862E+0	1.786067E+0	1.889440E+0	1.743054E+0	1.774352E+0	1.913978E+0	1.970436E+0	1.852596E+0	1.816495E+0	1.509664E+0	1.741574E+0	1.858091E+0	1.751439E+0	1.890120E+0	1.822291E+0	1.881743E+0	1.750995E+0	1.858975E+0	1.803389E+0	1.888998E+0	1.827370E+0	1.826113E+0	1.878194E+0	1.914998E+0	1.907535E+0	1.831665E+0	1.810771E+0	1.769009E+0	1.889228E+0	1.859629E+0	1.823601E+0	1.786604E+0	1.879832E+0	1.754056E+0	1.833273E+0	1.782858E+0	1.742255E+0	1.784674E+0	1.886426E+0	1.797641E+0	1.866028E+0	1.728061E+0	1.741767E+0	1.568755E+0	1.755018E+0	1.854054E+0	1.758053E+0	1.779680E+0	1.855435E+0	1.795747E+0	1.852798E+0	1.820188E+0	1.726799E+0	1.877248E+0	1.878250E+0	1.887343E+0	1.841546E+0	1.779191E+0	1.707132E+0	1.696863E+0	1.793825E+0	1.892712E+0	1.841443E+0	1.612516E+0	1.771569E+0	1.778903E+0	1.796634E+0	1.380113E+0	1.800406E+0	1.831252E+0	1.799559E+0	1.728086E+0	1.929493E+0	1.783108E+0	1.691728E+0	1.601438E+0	1.822320E+0	1.776007E+0	1.772154E+0	1.692205E+0	1.863663E+0	1.746252E+0	1.664832E+0	1.757584E+0	1.694555E+0	1.786970E+0	1.836860E+0	1.865096E+0	1.847367E+0	1.795184E+0	1.612637E+0	1.769850E+0	1.680164E+0	1.921323E+0	1.710155E+0	1.691060E+0	1.776526E+0	1.837345E+0	1.782944E+0	1.423224E+0	1.782027E+0	1.924547E+0	1.915749E+0	1.798471E+0	1.777535E+0	1.537195E+0	1.524772E+0	1.786756E+0	1.825598E+0	1.839843E+0	1.655421E+0	1.736460E+0	1.814655E+0	1.663404E+0	1.700200E+0	1.440989E+0	1.769647E+0	1.864088E+0	1.823775E+0	1.756329E+0	1.837799E+0	1.696453E+0	1.687169E+0	1.610933E+0	1.802308E+0	1.865281E+0	1.710706E+0	1.610869E+0	1.810616E+0	1.774420E+0	1.647197E+0	1.638194E+0	1.770872E+0	1.786656E+0	1.689482E+0	1.812884E+0	1.829333E+0	1.704151E+0	1.589975E+0	1.682312E+0	1.860159E+0
5.395050E+2	1.966905E+0	1.777441E+0	2.098257E+0	1.872421E+0	2.093047E+0	2.030609E+0	2.035146E+0	2.022214E+0	1.914215E+0	1.995387E+0	1.899225E+0	1.983702E+0	2.030225E+0	2.022840E+0	1.922503E+0	1.894031E+0	1.886940E+0	2.071991E+0	1.812556E+0	1.880159E+0	1.970767E+0	2.112042E+0	1.909332E+0	1.994478E+0	1.990362E+0	1.663287E+0	1.864263E+0	1.957637E+0	2.028551E+0	1.982429E+0	1.993171E+0	1.925375E+0	1.930978E+0	2.065142E+0	1.846293E+0	1.894083E+0	2.018026E+0	2.072209E+0	1.970334E+0	1.957175E+0	1.656155E+0	1.894232E+0	2.002659E+0	1.830575E+0	2.010229E+0	1.884711E+0	1.918969E+0	1.899084E+0	1.970744E+0	1.890477E+0	1.942793E+0	1.917522E+0	1.948327E+0	1.969387E+0	1.988089E+0	2.027410E+0	1.903253E+0	1.944120E+0	1.885365E+0	2.010182E+0	2.018835E+0	1.945128E+0	1.955574E+0	1.954262E+0	1.906945E+0	1.878555E+0	1.885604E+0	1.885585E+0	1.963928E+0	1.988157E+0	1.999687E+0	1.901839E+0	1.902086E+0	1.799137E+0	1.712129E+0	1.874437E+0	2.003271E+0	1.876169E+0	1.966685E+0	1.924335E+0	1.987725E+0	1.923594E+0	1.952330E+0	1.874228E+0	1.978091E+0	1.952931E+0	2.055621E+0	1.923224E+0	1.922020E+0	1.780326E+0	1.995168E+0	1.912956E+0	1.977501E+0	1.965208E+0	1.943056E+0	1.956089E+0	1.873499E+0	1.886265E+0	1.606694E+0	1.946038E+0	1.933650E+0	1.977936E+0	1.869581E+0	2.099039E+0	1.934042E+0	1.670637E+0	1.779821E+0	1.905543E+0	1.885015E+0	1.865170E+0	1.893418E+0	1.882329E+0	1.843590E+0	1.783012E+0	1.860222E+0	1.833914E+0	1.879327E+0	1.986275E+0	1.946390E+0	1.933937E+0	1.878675E+0	1.779119E+0	1.794814E+0	1.827242E+0	1.958630E+0	1.808201E+0	1.801252E+0	1.867839E+0	2.065141E+0	1.876194E+0	1.463965E+0	1.903272E+0	1.994181E+0	2.042081E+0	1.823416E+0	1.964355E+0	1.632627E+0	1.525760E+0	1.829658E+0	1.868325E+0	1.949315E+0	1.790283E+0	1.884068E+0	1.965244E+0	1.785766E+0	1.857079E+0	1.774830E+0	1.915841E+0	1.890801E+0	1.893015E+0	1.854230E+0	1.987632E+0	1.886301E+0	1.736187E+0	1.781642E+0	1.882720E+0	1.963491E+0	1.873821E+0	1.700092E+0	1.957204E+0	1.885822E+0	1.775592E+0	1.713198E+0	1.887218E+0	1.835473E+0	1.886709E+0	1.884421E+0	1.876054E+0	1.840573E+0	1.791012E+0	1.892560E+0	1.699865E+0
5.397700E+2	2.004402E+0	1.760945E+0	2.154607E+0	1.846714E+0	2.060080E+0	2.009277E+0	2.044916E+0	1.978101E+0	1.939700E+0	2.017268E+0	1.922598E+0	1.993860E+0	2.063797E+0	2.079370E+0	1.911517E+0	2.040829E+0	1.914365E+0	2.087361E+0	1.833789E+0	1.886773E+0	2.034377E+0	2.168010E+0	2.028669E+0	2.029312E+0	1.943986E+0	1.765694E+0	1.937351E+0	2.036822E+0	2.098358E+0	2.050865E+0	1.940938E+0	2.046732E+0	2.000259E+0	2.098604E+0	1.925654E+0	1.923252E+0	2.090019E+0	2.168921E+0	1.954574E+0	1.977272E+0	1.705493E+0	1.942554E+0	2.034528E+0	1.877935E+0	2.024605E+0	2.043712E+0	2.044261E+0	1.933182E+0	1.970743E+0	1.947169E+0	1.938702E+0	2.028719E+0	1.945320E+0	1.943677E+0	2.019275E+0	2.118590E+0	1.873567E+0	1.909054E+0	2.005455E+0	2.040727E+0	2.112163E+0	2.008539E+0	2.001243E+0	2.036338E+0	1.940919E+0	1.963513E+0	1.900211E+0	1.928403E+0	1.974257E+0	2.055010E+0	2.030456E+0	2.010626E+0	1.910954E+0	1.855385E+0	1.743862E+0	1.933853E+0	2.005966E+0	1.954756E+0	1.987744E+0	1.980220E+0	1.964099E+0	2.038250E+0	1.996568E+0	1.942084E+0	2.061797E+0	2.021556E+0	2.075795E+0	2.000936E+0	1.966962E+0	1.789620E+0	1.969397E+0	1.933675E+0	2.066550E+0	2.004290E+0	2.023877E+0	1.981505E+0	1.914039E+0	1.944018E+0	1.644460E+0	1.968583E+0	1.974818E+0	1.973387E+0	1.917250E+0	2.078947E+0	1.921157E+0	1.823408E+0	1.975046E+0	1.976254E+0	2.007465E+0	1.891552E+0	2.015973E+0	1.968585E+0	1.892561E+0	1.909541E+0	2.092498E+0	1.917025E+0	1.971171E+0	1.952569E+0	1.966337E+0	1.938805E+0	1.975197E+0	1.760441E+0	2.008157E+0	1.840029E+0	2.045337E+0	1.797503E+0	1.997772E+0	1.896704E+0	2.010998E+0	1.882295E+0	1.641055E+0	1.917430E+0	2.020628E+0	2.001209E+0	2.023982E+0	2.005925E+0	1.698312E+0	1.528726E+0	2.015379E+0	1.921443E+0	1.964110E+0	1.805032E+0	2.088496E+0	2.013249E+0	1.893442E+0	1.822344E+0	1.969343E+0	1.921021E+0	1.975147E+0	1.964857E+0	1.907537E+0	1.966227E+0	1.811959E+0	1.752330E+0	1.837553E+0	1.898799E+0	2.021261E+0	1.904765E+0	1.854022E+0	1.967314E+0	1.933558E+0	1.828253E+0	1.865548E+0	1.963199E+0	1.938527E+0	1.936016E+0	1.968870E+0	1.959710E+0	1.994410E+0	1.778004E+0	1.856860E+0	2.198548E+0
5.400350E+2	1.983236E+0	1.708410E+0	2.133847E+0	1.879597E+0	2.112031E+0	2.101880E+0	2.022285E+0	2.061111E+0	1.965764E+0	2.011656E+0	1.900308E+0	1.938294E+0	2.073782E+0	2.066561E+0	1.915910E+0	1.976404E+0	1.939412E+0	2.078254E+0	1.870109E+0	1.865131E+0	2.021144E+0	2.094551E+0	2.018765E+0	2.043063E+0	1.942180E+0	1.675580E+0	1.943943E+0	1.978208E+0	2.107079E+0	2.079533E+0	1.932597E+0	1.955717E+0	1.954071E+0	2.048404E+0	1.928432E+0	1.937232E+0	2.066352E+0	2.142588E+0	1.990728E+0	1.996475E+0	1.651576E+0	1.929924E+0	2.017455E+0	1.941481E+0	2.042690E+0	1.965349E+0	2.061965E+0	2.014046E+0	1.994058E+0	1.919117E+0	2.021733E+0	2.041943E+0	1.971370E+0	2.000432E+0	2.012936E+0	2.078323E+0	1.927120E+0	1.883766E+0	2.002787E+0	1.995521E+0	2.039421E+0	1.968025E+0	1.987541E+0	2.092921E+0	1.916004E+0	1.986987E+0	1.880913E+0	1.927781E+0	1.998533E+0	1.979925E+0	2.116092E+0	1.972099E+0	1.920376E+0	1.821075E+0	1.760296E+0	1.983268E+0	2.074285E+0	1.899146E+0	1.980226E+0	1.980702E+0	2.017261E+0	1.939975E+0	2.013579E+0	1.890886E+0	2.019945E+0	2.019038E+0	2.014215E+0	2.103894E+0	1.928792E+0	1.838416E+0	1.898977E+0	1.957630E+0	1.999764E+0	1.997311E+0	1.988064E+0	1.920504E+0	1.933184E+0	1.898298E+0	1.605145E+0	1.986258E+0	1.994881E+0	1.965304E+0	1.923334E+0	2.089724E+0	1.891094E+0	1.820562E+0	1.871624E+0	1.959984E+0	1.970134E+0	1.948796E+0	2.073879E+0	2.022560E+0	1.885215E+0	1.844483E+0	2.032476E+0	1.864532E+0	2.015560E+0	1.995333E+0	2.052616E+0	1.889682E+0	1.964536E+0	1.726826E+0	1.982602E+0	1.825962E+0	2.029571E+0	1.845186E+0	1.975431E+0	1.948133E+0	2.062032E+0	1.938912E+0	1.644858E+0	1.825109E+0	1.984465E+0	2.091445E+0	2.020925E+0	2.028909E+0	1.718520E+0	1.542057E+0	2.048879E+0	1.927793E+0	1.912333E+0	1.830612E+0	2.104954E+0	2.021339E+0	1.870808E+0	1.870971E+0	2.037093E+0	1.885916E+0	1.955239E+0	1.970068E+0	1.977759E+0	2.034249E+0	1.888148E+0	1.758674E+0	1.985658E+0	1.877776E+0	2.020781E+0	1.869398E+0	1.973637E+0	1.982982E+0	1.854579E+0	1.748510E+0	1.927077E+0	1.923427E+0	1.926054E+0	1.838838E+0	1.999669E+0	1.962971E+0	1.884112E+0	1.756717E+0	1.936197E+0	1.889842E+0
5.402630E+2	1.992303E+0	1.721235E+0	2.072758E+0	1.877804E+0	2.050090E+0	2.035291E+0	2.036173E+0	2.026958E+0	1.857454E+0	1.977435E+0	1.830188E+0	2.001029E+0	2.006173E+0	2.032997E+0	1.893495E+0	1.936367E+0	1.927487E+0	2.044659E+0	1.848319E+0	1.867536E+0	2.020635E+0	2.161514E+0	1.972539E+0	2.010520E+0	1.993377E+0	1.636667E+0	1.875250E+0	1.933941E+0	2.034979E+0	1.958386E+0	1.967276E+0	1.933691E+0	1.951183E+0	2.032870E+0	1.877925E+0	1.874027E+0	1.999288E+0	2.091958E+0	1.953185E+0	1.949584E+0	1.595118E+0	1.878853E+0	1.969073E+0	1.858149E+0	2.009301E+0	1.877422E+0	2.002498E+0	1.886417E+0	1.870330E+0	1.936066E+0	1.940456E+0	1.970416E+0	1.965859E+0	1.985391E+0	1.951544E+0	2.108870E+0	1.896851E+0	1.905607E+0	1.931266E+0	1.974139E+0	2.041710E+0	1.953497E+0	1.956032E+0	1.958340E+0	1.871838E+0	1.958482E+0	1.899688E+0	1.841531E+0	1.921569E+0	1.968297E+0	1.996610E+0	1.968019E+0	1.869389E+0	1.805887E+0	1.658295E+0	1.880907E+0	2.027091E+0	1.881221E+0	2.002786E+0	1.925778E+0	1.900892E+0	1.925710E+0	1.959701E+0	1.895820E+0	2.021960E+0	2.017015E+0	2.047658E+0	1.936089E+0	1.933098E+0	1.818664E+0	1.928176E+0	1.929142E+0	2.017765E+0	1.967999E+0	1.975961E+0	1.930669E+0	1.844781E+0	1.919357E+0	1.594798E+0	1.874747E+0	1.929017E+0	1.954187E+0	1.829513E+0	2.016226E+0	1.861030E+0	1.755002E+0	1.847801E+0	1.997530E+0	1.933800E+0	1.886187E+0	2.055062E+0	1.900987E+0	1.795222E+0	1.794948E+0	2.021073E+0	1.865161E+0	1.885960E+0	1.920375E+0	1.961352E+0	1.890166E+0	1.908876E+0	1.682005E+0	1.885735E+0	1.860493E+0	1.926578E+0	1.808645E+0	1.890627E+0	1.886733E+0	2.020335E+0	1.887294E+0	1.561200E+0	1.811572E+0	1.988246E+0	2.051636E+0	1.936425E+0	1.919851E+0	1.661263E+0	1.550945E+0	1.940153E+0	1.896614E+0	1.910854E+0	1.822377E+0	2.052922E+0	1.932903E+0	1.838991E+0	1.806134E+0	2.020155E+0	1.876705E+0	1.890800E+0	1.910716E+0	1.913690E+0	1.923893E+0	1.861110E+0	1.765596E+0	1.924986E+0	1.874061E+0	1.942793E+0	1.796904E+0	1.910888E+0	1.924851E+0	1.871671E+0	1.752022E+0	1.915359E+0	1.848636E+0	1.930395E+0	1.789055E+0	1.932111E+0	1.899412E+0	1.825092E+0	1.697589E+0	1.940164E+0	1.717676E+0
5.405240E+2	1.869544E+0	1.592952E+0	1.876433E+0	1.718773E+0	1.857776E+0	1.878693E+0	1.873136E+0	1.799748E+0	1.776949E+0	1.826517E+0	1.739407E+0	1.851660E+0	1.871871E+0	1.842659E+0	1.751979E+0	1.826844E+0	1.761720E+0	1.855642E+0	1.704707E+0	1.704006E+0	1.817094E+0	1.910666E+0	1.804150E+0	1.853752E+0	1.804258E+0	1.522996E+0	1.735667E+0	1.814219E+0	1.894908E+0	1.807645E+0	1.728480E+0	1.839736E+0	1.737570E+0	1.765140E+0	1.699209E+0	1.709931E+0	1.823243E+0	1.898535E+0	1.808095E+0	1.812475E+0	1.501524E+0	1.737727E+0	1.818821E+0	1.678898E+0	1.817316E+0	1.755779E+0	1.770069E+0	1.746610E+0	1.804583E+0	1.711043E+0	1.793688E+0	1.853810E+0	1.804072E+0	1.834534E+0	1.844831E+0	1.847365E+0	1.701867E+0	1.756738E+0	1.798897E+0	1.790270E+0	1.874726E+0	1.706036E+0	1.822684E+0	1.798268E+0	1.691774E+0	1.798063E+0	1.746350E+0	1.704401E+0	1.719589E+0	1.836526E+0	1.803797E+0	1.731856E+0	1.739146E+0	1.691141E+0	1.526822E+0	1.766195E+0	1.858548E+0	1.725425E+0	1.771156E+0	1.810632E+0	1.752035E+0	1.832196E+0	1.781625E+0	1.679919E+0	1.829345E+0	1.815679E+0	1.817268E+0	1.822244E+0	1.739792E+0	1.601416E+0	1.707739E+0	1.731672E+0	1.789928E+0	1.808408E+0	1.791578E+0	1.764960E+0	1.687690E+0	1.759935E+0	1.444259E+0	1.735206E+0	1.773107E+0	1.834932E+0	1.706279E+0	1.872652E+0	1.762860E+0	1.585130E+0	1.749023E+0	1.712810E+0	1.804875E+0	1.747558E+0	1.849505E+0	1.842978E+0	1.702171E+0	1.693482E+0	1.772589E+0	1.678308E+0	1.747684E+0	1.782024E+0	1.851134E+0	1.743779E+0	1.775052E+0	1.638780E+0	1.748454E+0	1.626452E+0	1.858787E+0	1.720408E+0	1.774343E+0	1.704105E+0	1.866598E+0	1.772951E+0	1.529154E+0	1.772179E+0	1.874890E+0	1.852052E+0	1.753168E+0	1.792206E+0	1.514736E+0	1.381071E+0	1.826720E+0	1.723399E+0	1.771298E+0	1.605556E+0	1.894159E+0	1.843961E+0	1.721527E+0	1.660257E+0	1.786851E+0	1.723607E+0	1.737312E+0	1.741000E+0	1.767091E+0	1.787856E+0	1.706286E+0	1.673330E+0	1.737029E+0	1.735507E+0	1.781031E+0	1.692583E+0	1.749113E+0	1.813645E+0	1.719018E+0	1.632154E+0	1.726089E+0	1.675900E+0	1.734045E+0	1.722515E+0	1.778606E+0	1.791849E+0	1.752527E+0	1.571052E+0	1.825122E+0	1.794854E+0
5.407580E+2	1.771575E+0	1.510487E+0	1.837286E+0	1.657787E+0	1.810822E+0	1.791812E+0	1.870049E+0	1.801170E+0	1.688331E+0	1.745732E+0	1.614380E+0	1.837921E+0	1.816517E+0	1.833828E+0	1.671110E+0	1.886667E+0	1.730711E+0	1.843116E+0	1.597979E+0	1.853706E+0	1.804883E+0	1.934653E+0	1.753209E+0	1.790499E+0	1.719330E+0	1.480501E+0	1.687304E+0	1.821700E+0	1.798010E+0	1.822903E+0	1.740331E+0	1.966479E+0	1.738151E+0	1.853584E+0	1.705870E+0	1.844852E+0	1.829160E+0	1.846888E+0	1.732077E+0	1.777193E+0	1.451171E+0	1.743219E+0	1.771011E+0	1.695088E+0	1.714825E+0	1.702018E+0	1.786864E+0	1.808478E+0	1.755572E+0	1.709876E+0	1.765032E+0	1.744422E+0	1.691378E+0	1.771478E+0	1.760043E+0	1.871893E+0	1.705943E+0	1.649251E+0	1.795697E+0	1.779271E+0	1.822571E+0	1.655839E+0	1.767425E+0	1.861478E+0	1.635145E+0	1.717570E+0	1.710883E+0	1.715569E+0	1.700475E+0	1.796318E+0	1.736106E+0	1.737748E+0	1.731384E+0	1.686084E+0	1.448621E+0	1.696779E+0	1.787983E+0	1.734618E+0	1.731045E+0	1.819303E+0	1.695919E+0	1.734978E+0	1.760639E+0	1.720632E+0	1.741614E+0	1.749574E+0	1.815678E+0	1.697008E+0	1.686847E+0	1.579922E+0	1.782177E+0	1.714193E+0	1.725980E+0	1.721866E+0	1.757217E+0	1.744629E+0	1.686562E+0	1.721434E+0	1.416840E+0	1.712049E+0	1.755097E+0	1.752064E+0	1.688023E+0	1.860894E+0	1.695980E+0	1.548644E+0	1.677553E+0	1.685902E+0	1.734694E+0	1.639785E+0	1.796913E+0	1.730992E+0	1.657484E+0	1.619470E+0	1.761787E+0	1.610192E+0	1.708393E+0	1.754856E+0	1.708004E+0	1.756909E+0	1.656623E+0	1.496845E+0	1.757966E+0	1.644997E+0	1.739495E+0	1.637072E+0	1.733209E+0	1.714600E+0	1.824896E+0	1.707451E+0	1.411273E+0	1.634937E+0	1.742636E+0	1.841438E+0	1.677319E+0	1.690485E+0	1.502385E+0	1.389959E+0	1.731509E+0	1.707811E+0	1.756999E+0	1.590375E+0	1.872388E+0	1.771196E+0	1.626695E+0	1.649837E+0	1.822911E+0	1.626911E+0	1.754074E+0	1.748809E+0	1.668677E+0	1.736482E+0	1.608594E+0	1.540125E+0	1.668626E+0	1.703961E+0	1.763218E+0	1.651915E+0	1.736860E+0	1.715584E+0	1.693082E+0	1.550907E+0	1.699131E+0	1.731697E+0	1.703670E+0	1.615766E+0	1.780095E+0	1.728295E+0	1.665448E+0	1.503646E+0	1.704130E+0	1.569261E+0
5.410400E+2	1.734084E+0	1.526369E+0	1.793394E+0	1.666158E+0	1.821810E+0	1.701811E+0	1.771818E+0	1.703928E+0	1.661110E+0	1.747972E+0	1.605684E+0	1.773987E+0	1.809708E+0	1.759636E+0	1.596835E+0	1.908756E+0	1.711630E+0	1.779352E+0	1.581770E+0	1.830260E+0	1.732630E+0	1.843208E+0	1.737173E+0	1.801497E+0	1.752461E+0	1.443637E+0	1.643893E+0	1.804863E+0	1.818678E+0	1.693435E+0	1.705215E+0	1.888671E+0	1.690806E+0	1.762752E+0	1.629275E+0	1.747003E+0	1.769492E+0	1.811443E+0	1.668571E+0	1.706628E+0	1.428281E+0	1.678971E+0	1.714097E+0	1.718466E+0	1.752387E+0	1.710674E+0	1.790499E+0	1.925877E+0	1.717317E+0	1.691757E+0	1.742812E+0	1.883262E+0	1.706403E+0	1.745287E+0	1.722522E+0	1.833015E+0	1.687319E+0	1.633735E+0	1.685210E+0	1.806758E+0	1.719633E+0	1.714403E+0	1.717645E+0	1.967006E+0	1.635711E+0	1.668388E+0	1.681678E+0	1.792512E+0	1.730436E+0	1.783240E+0	1.759179E+0	1.726416E+0	1.623869E+0	1.631520E+0	1.474687E+0	1.805607E+0	1.756524E+0	1.653272E+0	1.683918E+0	1.914216E+0	1.648074E+0	1.662598E+0	1.701095E+0	1.777382E+0	1.798586E+0	1.713242E+0	1.822046E+0	1.784129E+0	1.625281E+0	1.583407E+0	1.685987E+0	1.699951E+0	1.737823E+0	1.745592E+0	1.696240E+0	1.882892E+0	1.598725E+0	1.633002E+0	1.424083E+0	1.776640E+0	1.733998E+0	1.740442E+0	1.664695E+0	1.758479E+0	1.678188E+0	1.506459E+0	1.604924E+0	1.692788E+0	1.726727E+0	1.597301E+0	1.805114E+0	1.765799E+0	1.635443E+0	1.646330E+0	1.738378E+0	1.599568E+0	1.731863E+0	1.678386E+0	1.747901E+0	1.727243E+0	1.653659E+0	1.503778E+0	1.678331E+0	1.596396E+0	1.740550E+0	1.594289E+0	1.738287E+0	1.640601E+0	1.788174E+0	1.656386E+0	1.377593E+0	1.653401E+0	1.736702E+0	1.783580E+0	1.732300E+0	1.731566E+0	1.481616E+0	1.388477E+0	1.716231E+0	1.669701E+0	1.719520E+0	1.580836E+0	1.818230E+0	1.731778E+0	1.622413E+0	1.584421E+0	1.720739E+0	1.647632E+0	1.750929E+0	1.636356E+0	1.692254E+0	1.718884E+0	1.599992E+0	1.623738E+0	1.685875E+0	1.594481E+0	1.736257E+0	1.579418E+0	1.755487E+0	1.638754E+0	1.673630E+0	1.541879E+0	1.696787E+0	1.634350E+0	1.718860E+0	1.612891E+0	1.714525E+0	1.700048E+0	1.662546E+0	1.514290E+0	1.604958E+0	1.604880E+0
5.412640E+2	1.545406E+0	1.371819E+0	1.592921E+0	1.466470E+0	1.584041E+0	1.600884E+0	1.670497E+0	1.598151E+0	1.498939E+0	1.561712E+0	1.473048E+0	1.635974E+0	1.618233E+0	1.656297E+0	1.467623E+0	1.725601E+0	1.495775E+0	1.581225E+0	1.414130E+0	1.655310E+0	1.556057E+0	1.650325E+0	1.487658E+0	1.662607E+0	1.549489E+0	1.332017E+0	1.469682E+0	1.660821E+0	1.604210E+0	1.606966E+0	1.525677E+0	1.747739E+0	1.493939E+0	1.619321E+0	1.513275E+0	1.554345E+0	1.600350E+0	1.658021E+0	1.533220E+0	1.507889E+0	1.346387E+0	1.543338E+0	1.593434E+0	1.606961E+0	1.596575E+0	1.522969E+0	1.583492E+0	1.656491E+0	1.600766E+0	1.483686E+0	1.545756E+0	1.710165E+0	1.531597E+0	1.607523E+0	1.549052E+0	1.651583E+0	1.510961E+0	1.518776E+0	1.488259E+0	1.698634E+0	1.602516E+0	1.531229E+0	1.557352E+0	1.736583E+0	1.498677E+0	1.535914E+0	1.536162E+0	1.575341E+0	1.538787E+0	1.625796E+0	1.592520E+0	1.540569E+0	1.502495E+0	1.524656E+0	1.321117E+0	1.552061E+0	1.591575E+0	1.481846E+0	1.594673E+0	1.701267E+0	1.524614E+0	1.526287E+0	1.567820E+0	1.614531E+0	1.546978E+0	1.568923E+0	1.593784E+0	1.560884E+0	1.528626E+0	1.434118E+0	1.543422E+0	1.675347E+0	1.630298E+0	1.601820E+0	1.504114E+0	1.680578E+0	1.513139E+0	1.494033E+0	1.280786E+0	1.704130E+0	1.576543E+0	1.530235E+0	1.525230E+0	1.607557E+0	1.583699E+0	1.402709E+0	1.504406E+0	1.673389E+0	1.536087E+0	1.502945E+0	1.621275E+0	1.721410E+0	1.519744E+0	1.454738E+0	1.582327E+0	1.573324E+0	1.542050E+0	1.575252E+0	1.555397E+0	1.617819E+0	1.496151E+0	1.392256E+0	1.527978E+0	1.555471E+0	1.609698E+0	1.437868E+0	1.619462E+0	1.702002E+0	1.648756E+0	1.529282E+0	1.285794E+0	1.560466E+0	1.568282E+0	1.602046E+0	1.480318E+0	1.626909E+0	1.296354E+0	1.212179E+0	1.579879E+0	1.599261E+0	1.573064E+0	1.464621E+0	1.665840E+0	1.709546E+0	1.501886E+0	1.471540E+0	1.578131E+0	1.557268E+0	1.567579E+0	1.522864E+0	1.536946E+0	1.560013E+0	1.450080E+0	1.401730E+0	1.544908E+0	1.553657E+0	1.593755E+0	1.452111E+0	1.556947E+0	1.580119E+0	1.489733E+0	1.407967E+0	1.529788E+0	1.560150E+0	1.527394E+0	1.503272E+0	1.541150E+0	1.615844E+0	1.454527E+0	1.436240E+0	1.600992E+0	1.676119E+0
5.415140E+2	1.455300E+0	1.386480E+0	1.485568E+0	1.367822E+0	1.511615E+0	1.497877E+0	1.499231E+0	1.415528E+0	1.398156E+0	1.437727E+0	1.392594E+0	1.521260E+0	1.461698E+0	1.503938E+0	1.386318E+0	1.576966E+0	1.456422E+0	1.481023E+0	1.371105E+0	1.521244E+0	1.424266E+0	1.535394E+0	1.456055E+0	1.484761E+0	1.458542E+0	1.244462E+0	1.386152E+0	1.492465E+0	1.550936E+0	1.410914E+0	1.390919E+0	1.576952E+0	1.406182E+0	1.471712E+0	1.441674E+0	1.487489E+0	1.476576E+0	1.520802E+0	1.450246E+0	1.477520E+0	1.220752E+0	1.400011E+0	1.516601E+0	1.494255E+0	1.441687E+0	1.379458E+0	1.462286E+0	1.566370E+0	1.456714E+0	1.380816E+0	1.373842E+0	1.597768E+0	1.393859E+0	1.450360E+0	1.514455E+0	1.571971E+0	1.432388E+0	1.390601E+0	1.410865E+0	1.478723E+0	1.487688E+0	1.425107E+0	1.437245E+0	1.595373E+0	1.352018E+0	1.421326E+0	1.409421E+0	1.454340E+0	1.415328E+0	1.448002E+0	1.491497E+0	1.474844E+0	1.359504E+0	1.340163E+0	1.211748E+0	1.474411E+0	1.490895E+0	1.423022E+0	1.436743E+0	1.623700E+0	1.466133E+0	1.417447E+0	1.409024E+0	1.457231E+0	1.446129E+0	1.447308E+0	1.482304E+0	1.492080E+0	1.402420E+0	1.355118E+0	1.416886E+0	1.523199E+0	1.496249E+0	1.450136E+0	1.432005E+0	1.590097E+0	1.365618E+0	1.341232E+0	1.180944E+0	1.474406E+0	1.385124E+0	1.392789E+0	1.391347E+0	1.464476E+0	1.422335E+0	1.253926E+0	1.351594E+0	1.496925E+0	1.442510E+0	1.403665E+0	1.509810E+0	1.623044E+0	1.355678E+0	1.365807E+0	1.492299E+0	1.466462E+0	1.425714E+0	1.400682E+0	1.470616E+0	1.448083E+0	1.403777E+0	1.251385E+0	1.457855E+0	1.508792E+0	1.454150E+0	1.360330E+0	1.504699E+0	1.599141E+0	1.462032E+0	1.384965E+0	1.190187E+0	1.494000E+0	1.494870E+0	1.526143E+0	1.422287E+0	1.455741E+0	1.248636E+0	1.116379E+0	1.440003E+0	1.514388E+0	1.448304E+0	1.308944E+0	1.544780E+0	1.607465E+0	1.391150E+0	1.356340E+0	1.524041E+0	1.479568E+0	1.425611E+0	1.422385E+0	1.499017E+0	1.389251E+0	1.353007E+0	1.391352E+0	1.460447E+0	1.488095E+0	1.407928E+0	1.345580E+0	1.404979E+0	1.621063E+0	1.358297E+0	1.330230E+0	1.393841E+0	1.490107E+0	1.358164E+0	1.345303E+0	1.431365E+0	1.506656E+0	1.387765E+0	1.316799E+0	1.364959E+0	1.379288E+0
5.417760E+2	1.300487E+0	1.391977E+0	1.418544E+0	1.275749E+0	1.339281E+0	1.375099E+0	1.404595E+0	1.285085E+0	1.316495E+0	1.322717E+0	1.270286E+0	1.358749E+0	1.353712E+0	1.367919E+0	1.257985E+0	1.391050E+0	1.207175E+0	1.380253E+0	1.234757E+0	1.399200E+0	1.288913E+0	1.388484E+0	1.313136E+0	1.364208E+0	1.288095E+0	1.148712E+0	1.269646E+0	1.408287E+0	1.380099E+0	1.312884E+0	1.295223E+0	1.432100E+0	1.296489E+0	1.367727E+0	1.271838E+0	1.328865E+0	1.382884E+0	1.401307E+0	1.357540E+0	1.366764E+0	1.094099E+0	1.261082E+0	1.313982E+0	1.365962E+0	1.316940E+0	1.307018E+0	1.317924E+0	1.405618E+0	1.324622E+0	1.287299E+0	1.322386E+0	1.437290E+0	1.314219E+0	1.297564E+0	1.315159E+0	1.429878E+0	1.289790E+0	1.321050E+0	1.348416E+0	1.401139E+0	1.355014E+0	1.344090E+0	1.356414E+0	1.510237E+0	1.260286E+0	1.297800E+0	1.293116E+0	1.330864E+0	1.306328E+0	1.332706E+0	1.363807E+0	1.295796E+0	1.266396E+0	1.182677E+0	1.152246E+0	1.327339E+0	1.337186E+0	1.245622E+0	1.345996E+0	1.405931E+0	1.303097E+0	1.341895E+0	1.313181E+0	1.383823E+0	1.341755E+0	1.331756E+0	1.309248E+0	1.336154E+0	1.310074E+0	1.184915E+0	1.273744E+0	1.414433E+0	1.311043E+0	1.293803E+0	1.332797E+0	1.421846E+0	1.242306E+0	1.289495E+0	1.100762E+0	1.430534E+0	1.311540E+0	1.356408E+0	1.279774E+0	1.424784E+0	1.244402E+0	1.159298E+0	1.267341E+0	1.430594E+0	1.315582E+0	1.259670E+0	1.400279E+0	1.473223E+0	1.285890E+0	1.232111E+0	1.323639E+0	1.323983E+0	1.296113E+0	1.299059E+0	1.387332E+0	1.313367E+0	1.299559E+0	1.132393E+0	1.372875E+0	1.310562E+0	1.304909E+0	1.229755E+0	1.284312E+0	1.467421E+0	1.387345E+0	1.308364E+0	1.125543E+0	1.421376E+0	1.408505E+0	1.398750E+0	1.296550E+0	1.329078E+0	1.132988E+0	1.049218E+0	1.370653E+0	1.390248E+0	1.283105E+0	1.213976E+0	1.404068E+0	1.429589E+0	1.211890E+0	1.182672E+0	1.379251E+0	1.320712E+0	1.276834E+0	1.291191E+0	1.330384E+0	1.386869E+0	1.232583E+0	1.227583E+0	1.311151E+0	1.370573E+0	1.388188E+0	1.253193E+0	1.301541E+0	1.481043E+0	1.290513E+0	1.181777E+0	1.268441E+0	1.345270E+0	1.256736E+0	1.257701E+0	1.290278E+0	1.347488E+0	1.277468E+0	1.151239E+0	1.333223E+0	1.480212E+0
5.420110E+2	1.191635E+0	1.204439E+0	1.159944E+0	1.059322E+0	1.219398E+0	1.149830E+0	1.208126E+0	1.116692E+0	1.161272E+0	1.145993E+0	1.030562E+0	1.189066E+0	1.190820E+0	1.183762E+0	1.116466E+0	1.202835E+0	1.133236E+0	1.134299E+0	1.041972E+0	1.208617E+0	1.194775E+0	1.203096E+0	1.113148E+0	1.168940E+0	1.141739E+0	9.582420E-1	1.111375E+0	1.153255E+0	1.180329E+0	1.160759E+0	1.103840E+0	1.265231E+0	1.125024E+0	1.157370E+0	1.078135E+0	1.180572E+0	1.136814E+0	1.206868E+0	1.138288E+0	1.117110E+0	9.455744E-1	1.113366E+0	1.131855E+0	1.209492E+0	1.175035E+0	1.150750E+0	1.166755E+0	1.188358E+0	1.158459E+0	1.087411E+0	1.111295E+0	1.226326E+0	1.099341E+0	1.156896E+0	1.154847E+0	1.198457E+0	1.100626E+0	1.119875E+0	1.106096E+0	1.191000E+0	1.146853E+0	1.147703E+0	1.134465E+0	1.234953E+0	1.053605E+0	1.097693E+0	1.098573E+0	1.118032E+0	1.073354E+0	1.114220E+0	1.132018E+0	1.162078E+0	1.119527E+0	1.090432E+0	1.126180E+0	1.175567E+0	1.164599E+0	1.063627E+0	1.135423E+0	1.271995E+0	1.131793E+0	1.143768E+0	1.120924E+0	1.209870E+0	1.155696E+0	1.156148E+0	1.173352E+0	1.139150E+0	1.143854E+0	1.030400E+0	1.140913E+0	1.169053E+0	1.177469E+0	1.142584E+0	1.151798E+0	1.260201E+0	1.098724E+0	1.090973E+0	8.943524E-1	1.217265E+0	1.130928E+0	1.144686E+0	1.072351E+0	1.141559E+0	1.114326E+0	1.061250E+0	1.094773E+0	1.230349E+0	1.087108E+0	1.095997E+0	1.167703E+0	1.226045E+0	1.082033E+0	1.073944E+0	1.189196E+0	1.149632E+0	1.135387E+0	1.152661E+0	1.158425E+0	1.147523E+0	1.067439E+0	9.835180E-1	1.104262E+0	1.153256E+0	1.170904E+0	1.034116E+0	1.177168E+0	1.224438E+0	1.173237E+0	1.066915E+0	9.120593E-1	1.181352E+0	1.152643E+0	1.259680E+0	1.134671E+0	1.237136E+0	1.013973E+0	8.684773E-1	1.153198E+0	1.154097E+0	1.163277E+0	1.018406E+0	1.204423E+0	1.236047E+0	1.081575E+0	1.036792E+0	1.129007E+0	1.180854E+0	1.135390E+0	1.143862E+0	1.135605E+0	1.166640E+0	1.091272E+0	1.067852E+0	1.183860E+0	1.219649E+0	1.110887E+0	1.054714E+0	1.141238E+0	1.249538E+0	1.139625E+0	1.013764E+0	1.154763E+0	1.242580E+0	1.167239E+0	1.126058E+0	1.120383E+0	1.168221E+0	1.146850E+0	9.419227E-1	1.166611E+0	1.242744E+0
5.422620E+2	1.094272E+0	9.955202E-1	1.049031E+0	9.122467E-1	1.113501E+0	1.028614E+0	1.011144E+0	1.031307E+0	9.371257E-1	1.010784E+0	9.865314E-1	1.027152E+0	1.021124E+0	1.011530E+0	9.393500E-1	1.023826E+0	1.047968E+0	1.013601E+0	9.084195E-1	1.007816E+0	1.074178E+0	1.074676E+0	9.862688E-1	1.041050E+0	1.024895E+0	8.445743E-1	9.629968E-1	1.048498E+0	1.011329E+0	9.915236E-1	9.624943E-1	1.118913E+0	9.922383E-1	9.541829E-1	9.282786E-1	1.017693E+0	1.091448E+0	1.086358E+0	9.482377E-1	9.750897E-1	8.397762E-1	9.804757E-1	9.759063E-1	9.948706E-1	1.005771E+0	9.498341E-1	9.947029E-1	1.073395E+0	1.051469E+0	9.366170E-1	1.008966E+0	1.094097E+0	1.060772E+0	1.025925E+0	9.920947E-1	1.042941E+0	1.019142E+0	1.005492E+0	9.662554E-1	1.066382E+0	1.068624E+0	9.839045E-1	1.000659E+0	1.081510E+0	1.014534E+0	9.769586E-1	9.973934E-1	1.016891E+0	1.027895E+0	9.868115E-1	1.006894E+0	1.002972E+0	9.732125E-1	9.301295E-1	9.686439E-1	1.024969E+0	1.017627E+0	9.225346E-1	1.035150E+0	1.060009E+0	9.870705E-1	1.009040E+0	1.000693E+0	1.024812E+0	1.024090E+0	9.876103E-1	1.022591E+0	1.065394E+0	1.012108E+0	9.182883E-1	1.006934E+0	1.061579E+0	1.023525E+0	9.857829E-1	9.785446E-1	1.092966E+0	9.348719E-1	9.574203E-1	8.146860E-1	1.075288E+0	9.930247E-1	1.007748E+0	9.765024E-1	1.052867E+0	9.824114E-1	8.537498E-1	9.675264E-1	1.075161E+0	1.006970E+0	9.251687E-1	1.047555E+0	1.096908E+0	9.449037E-1	9.217454E-1	9.965323E-1	9.940282E-1	9.404709E-1	9.629949E-1	9.783893E-1	9.811947E-1	1.047306E+0	8.399788E-1	9.865958E-1	1.036235E+0	1.009050E+0	9.169119E-1	1.005529E+0	1.099012E+0	1.015767E+0	9.753306E-1	7.767987E-1	1.013950E+0	9.615542E-1	1.052667E+0	9.870476E-1	9.994563E-1	8.915885E-1	8.077366E-1	1.014497E+0	9.941618E-1	1.006465E+0	8.891799E-1	1.050442E+0	1.102638E+0	8.974206E-1	9.204348E-1	1.009349E+0	1.072073E+0	1.005472E+0	9.527982E-1	1.011561E+0	1.023466E+0	9.487323E-1	9.525233E-1	9.673515E-1	1.074912E+0	9.727193E-1	9.274057E-1	9.966227E-1	1.114574E+0	9.692851E-1	8.938979E-1	9.631488E-1	1.109616E+0	1.000181E+0	9.968088E-1	9.842690E-1	1.036759E+0	9.465713E-1	9.584787E-1	9.841316E-1	1.040896E+0
5.425190E+2	9.582061E-1	9.716962E-1	9.642146E-1	8.237621E-1	1.045067E+0	9.047951E-1	9.319389E-1	9.596809E-1	9.568181E-1	9.227031E-1	8.788997E-1	9.345436E-1	9.321923E-1	9.391052E-1	8.668330E-1	9.455957E-1	9.352696E-1	9.418650E-1	8.335402E-1	9.338680E-1	1.011081E+0	9.787349E-1	9.060845E-1	9.828368E-1	1.024895E+0	7.708437E-1	8.794650E-1	9.861426E-1	9.732104E-1	9.240142E-1	8.878703E-1	9.995122E-1	9.397008E-1	8.848606E-1	9.116277E-1	9.380759E-1	1.033751E+0	9.607868E-1	9.171814E-1	9.201567E-1	7.817903E-1	8.646083E-1	9.497249E-1	9.750870E-1	9.139511E-1	8.992630E-1	9.225241E-1	1.047577E+0	9.468704E-1	9.062243E-1	9.423060E-1	1.007547E+0	9.631022E-1	8.711865E-1	8.941523E-1	9.170471E-1	9.452243E-1	9.060541E-1	9.299610E-1	9.222154E-1	9.784989E-1	8.883530E-1	9.084106E-1	1.073353E+0	9.867873E-1	8.819361E-1	8.993396E-1	9.213350E-1	9.695224E-1	9.490255E-1	9.581780E-1	9.200206E-1	9.299831E-1	8.350727E-1	9.051760E-1	9.414336E-1	9.556044E-1	8.972578E-1	9.068021E-1	9.964126E-1	9.551720E-1	9.028440E-1	9.014462E-1	9.489376E-1	9.978711E-1	9.416893E-1	9.450866E-1	9.302606E-1	9.271491E-1	8.776262E-1	8.786820E-1	9.197900E-1	9.444226E-1	9.411158E-1	9.185353E-1	1.008585E+0	9.337460E-1	9.062867E-1	7.877856E-1	9.759649E-1	9.642089E-1	9.172983E-1	8.715237E-1	9.636855E-1	8.842416E-1	8.280972E-1	9.291778E-1	1.008204E+0	9.552021E-1	8.840279E-1	9.486381E-1	1.024269E+0	8.683815E-1	8.590752E-1	9.419133E-1	9.409110E-1	9.221019E-1	9.152016E-1	9.345020E-1	9.515278E-1	8.933483E-1	8.052949E-1	9.265735E-1	9.383993E-1	9.801477E-1	8.678913E-1	9.186957E-1	9.699120E-1	1.018880E+0	8.787508E-1	7.615889E-1	9.720995E-1	9.534578E-1	9.650847E-1	9.565046E-1	8.943106E-1	8.388174E-1	7.435390E-1	9.616023E-1	9.664477E-1	9.246064E-1	8.406124E-1	1.014336E+0	1.016226E+0	8.760069E-1	8.660194E-1	9.978754E-1	9.569609E-1	8.959833E-1	8.991754E-1	9.280119E-1	9.273818E-1	8.780763E-1	8.187409E-1	9.066812E-1	9.425450E-1	9.139849E-1	8.805506E-1	9.196574E-1	9.952822E-1	8.973773E-1	8.547782E-1	9.156846E-1	9.155122E-1	9.258723E-1	9.379287E-1	9.643984E-1	9.291987E-1	8.827138E-1	7.881875E-1	8.968584E-1	8.509235E-1
5.427650E+2	1.006585E+0	9.356547E-1	1.034796E+0	9.499120E-1	1.046066E+0	9.745081E-1	9.679410E-1	9.848211E-1	9.504470E-1	9.305573E-1	9.006434E-1	9.966808E-1	9.698521E-1	9.474964E-1	9.138588E-1	9.975954E-1	1.015172E+0	9.663465E-1	8.804794E-1	9.573148E-1	9.932717E-1	1.040698E+0	9.315546E-1	1.005297E+0	9.887573E-1	7.744277E-1	9.146364E-1	1.009214E+0	1.013625E+0	9.522195E-1	9.361561E-1	1.068999E+0	1.006094E+0	9.661356E-1	9.171777E-1	9.702872E-1	1.045587E+0	1.009394E+0	9.426766E-1	9.313226E-1	8.357069E-1	9.134816E-1	9.548471E-1	9.852789E-1	9.923232E-1	9.065530E-1	9.592946E-1	1.013477E+0	1.010825E+0	9.109004E-1	9.557550E-1	1.058635E+0	1.012689E+0	9.420075E-1	9.404436E-1	9.929549E-1	9.778179E-1	9.204242E-1	9.491754E-1	1.048055E+0	9.752955E-1	9.072867E-1	9.499676E-1	1.046334E+0	9.431859E-1	9.383907E-1	9.055982E-1	9.691133E-1	9.922516E-1	9.475727E-1	9.622806E-1	9.095947E-1	9.305378E-1	8.603835E-1	9.510764E-1	9.849662E-1	9.920083E-1	9.354032E-1	9.393908E-1	1.068199E+0	9.711209E-1	9.556780E-1	9.615616E-1	9.933521E-1	1.059891E+0	9.649013E-1	9.594196E-1	9.688701E-1	9.911760E-1	8.549714E-1	9.101726E-1	9.677004E-1	1.028261E+0	9.741510E-1	9.848365E-1	1.051283E+0	1.011449E+0	9.141072E-1	7.676099E-1	1.030197E+0	1.009491E+0	9.567121E-1	8.999239E-1	1.011706E+0	9.517332E-1	8.320875E-1	8.861813E-1	1.007578E+0	9.218516E-1	9.059411E-1	9.911004E-1	1.019225E+0	1.000613E+0	8.751908E-1	9.935309E-1	9.502843E-1	9.884343E-1	9.604791E-1	9.145542E-1	9.568778E-1	9.596682E-1	8.511845E-1	9.390535E-1	1.009378E+0	9.980150E-1	8.585323E-1	9.684596E-1	1.061751E+0	1.053734E+0	9.131641E-1	7.871200E-1	9.948713E-1	1.032808E+0	9.863170E-1	9.493779E-1	9.745150E-1	8.702552E-1	7.563784E-1	9.621905E-1	9.722208E-1	9.344689E-1	8.466831E-1	1.022301E+0	1.067771E+0	9.934741E-1	8.723872E-1	9.552576E-1	9.759542E-1	1.048952E+0	9.444687E-1	9.141723E-1	9.126368E-1	9.671638E-1	8.043251E-1	9.388009E-1	9.456378E-1	9.847546E-1	9.070729E-1	9.299522E-1	1.008424E+0	1.013491E+0	8.472555E-1	9.250604E-1	1.004551E+0	9.931298E-1	9.077707E-1	9.569482E-1	9.623357E-1	9.804344E-1	9.289140E-1	1.035701E+0	8.924803E-1
5.430120E+2	1.070686E+0	9.881900E-1	1.014630E+0	9.905674E-1	1.112003E+0	1.014046E+0	1.008058E+0	1.010437E+0	9.962031E-1	9.900263E-1	9.604387E-1	1.020580E+0	1.044718E+0	1.064967E+0	9.793450E-1	1.070307E+0	1.011595E+0	9.862730E-1	9.117719E-1	1.043286E+0	1.113868E+0	1.020709E+0	1.022116E+0	1.039675E+0	1.019474E+0	8.681265E-1	9.520060E-1	1.074687E+0	1.023268E+0	1.003082E+0	1.000243E+0	1.075360E+0	1.098467E+0	1.031275E+0	9.488147E-1	1.049296E+0	1.122022E+0	1.088892E+0	9.950558E-1	1.021537E+0	8.835199E-1	9.766319E-1	1.004363E+0	9.912739E-1	1.011336E+0	9.881024E-1	9.937961E-1	1.128441E+0	1.033538E+0	9.623337E-1	1.013059E+0	1.080273E+0	1.115368E+0	1.015738E+0	9.755274E-1	1.073490E+0	1.036604E+0	9.767529E-1	9.475741E-1	1.039503E+0	1.031566E+0	9.495574E-1	1.015273E+0	1.134527E+0	1.023594E+0	9.652207E-1	9.389780E-1	1.044194E+0	1.085752E+0	1.022176E+0	1.017664E+0	9.948120E-1	9.959358E-1	9.003186E-1	9.986781E-1	1.026145E+0	1.064372E+0	9.308072E-1	9.679684E-1	1.107707E+0	1.076858E+0	9.435265E-1	1.014304E+0	1.064291E+0	1.115356E+0	1.009812E+0	1.030022E+0	1.028271E+0	1.010260E+0	8.927291E-1	1.006362E+0	1.029854E+0	1.003157E+0	9.620535E-1	9.780609E-1	1.086866E+0	1.024399E+0	9.899074E-1	8.276192E-1	1.043602E+0	1.107258E+0	9.946102E-1	9.856309E-1	1.044047E+0	1.037632E+0	8.657210E-1	9.750802E-1	1.103945E+0	9.815833E-1	9.604983E-1	1.045142E+0	1.106493E+0	1.025100E+0	9.521853E-1	1.028943E+0	9.959032E-1	1.045072E+0	9.806028E-1	1.031252E+0	1.038098E+0	1.036056E+0	8.853352E-1	1.000859E+0	1.018331E+0	1.037953E+0	9.240421E-1	1.012131E+0	1.089040E+0	1.065560E+0	9.203797E-1	8.213425E-1	1.001026E+0	1.094884E+0	1.022942E+0	1.007920E+0	9.833181E-1	9.089921E-1	7.647734E-1	1.040356E+0	1.012061E+0	1.006958E+0	9.052248E-1	1.057876E+0	1.107188E+0	9.953099E-1	9.273810E-1	1.003339E+0	1.046173E+0	1.139056E+0	1.026724E+0	1.025914E+0	1.023943E+0	1.006485E+0	9.288800E-1	1.013152E+0	1.037181E+0	9.943832E-1	9.101667E-1	1.026526E+0	1.128726E+0	1.080684E+0	9.280019E-1	1.002409E+0	1.086466E+0	1.114085E+0	9.408010E-1	1.019043E+0	1.056858E+0	1.036551E+0	9.253665E-1	1.067437E+0	1.017150E+0
5.433020E+2	1.254527E+0	1.224598E+0	1.215105E+0	1.144219E+0	1.290328E+0	1.216423E+0	1.245671E+0	1.159855E+0	1.213978E+0	1.163384E+0	1.123516E+0	1.196236E+0	1.230293E+0	1.209377E+0	1.105041E+0	1.271864E+0	1.224467E+0	1.211159E+0	1.108469E+0	1.220040E+0	1.242099E+0	1.209591E+0	1.213144E+0	1.214776E+0	1.253765E+0	1.009955E+0	1.132807E+0	1.249905E+0	1.218444E+0	1.155673E+0	1.119200E+0	1.305360E+0	1.256076E+0	1.230279E+0	1.078690E+0	1.165986E+0	1.303983E+0	1.242821E+0	1.196692E+0	1.209111E+0	1.071211E+0	1.103481E+0	1.183647E+0	1.228078E+0	1.191731E+0	1.163505E+0	1.228040E+0	1.273605E+0	1.256481E+0	1.134753E+0	1.156320E+0	1.221517E+0	1.307204E+0	1.184057E+0	1.183108E+0	1.254461E+0	1.210049E+0	1.201495E+0	1.174417E+0	1.248422E+0	1.200839E+0	1.160033E+0	1.174199E+0	1.260447E+0	1.224613E+0	1.162532E+0	1.124130E+0	1.222897E+0	1.268101E+0	1.193668E+0	1.189453E+0	1.182019E+0	1.154998E+0	1.124179E+0	1.203816E+0	1.192039E+0	1.239655E+0	1.089362E+0	1.141441E+0	1.290783E+0	1.271789E+0	1.155392E+0	1.167428E+0	1.164839E+0	1.293853E+0	1.187941E+0	1.200955E+0	1.183204E+0	1.158014E+0	1.122181E+0	1.136332E+0	1.254514E+0	1.210152E+0	1.201676E+0	1.199225E+0	1.302389E+0	1.229918E+0	1.146318E+0	1.011783E+0	1.256871E+0	1.306907E+0	1.187130E+0	1.142338E+0	1.233193E+0	1.238879E+0	1.039587E+0	1.132541E+0	1.218460E+0	1.180685E+0	1.129090E+0	1.180248E+0	1.304737E+0	1.137129E+0	1.126467E+0	1.190397E+0	1.206499E+0	1.324179E+0	1.206489E+0	1.159422E+0	1.111534E+0	1.217251E+0	1.071561E+0	1.177953E+0	1.175637E+0	1.239744E+0	1.078236E+0	1.176151E+0	1.212893E+0	1.224274E+0	1.150174E+0	9.881097E-1	1.191814E+0	1.288671E+0	1.281445E+0	1.150453E+0	1.191653E+0	1.039797E+0	9.445270E-1	1.194338E+0	1.202598E+0	1.183003E+0	1.059601E+0	1.303716E+0	1.265863E+0	1.172734E+0	1.122467E+0	1.219707E+0	1.248770E+0	1.245402E+0	1.150630E+0	1.194038E+0	1.231331E+0	1.177288E+0	1.065546E+0	1.141035E+0	1.205423E+0	1.189842E+0	1.114832E+0	1.192711E+0	1.264195E+0	1.256328E+0	1.042352E+0	1.137184E+0	1.250297E+0	1.302839E+0	1.133718E+0	1.193906E+0	1.197556E+0	1.282306E+0	1.050720E+0	1.232066E+0	1.177441E+0
5.435270E+2	1.480093E+0	1.475669E+0	1.383551E+0	1.291295E+0	1.502621E+0	1.477067E+0	1.440596E+0	1.305479E+0	1.334451E+0	1.369281E+0	1.232235E+0	1.407143E+0	1.408158E+0	1.431070E+0	1.303693E+0	1.427406E+0	1.408718E+0	1.379114E+0	1.253757E+0	1.396792E+0	1.505680E+0	1.477929E+0	1.370211E+0	1.395835E+0	1.429029E+0	1.149224E+0	1.361420E+0	1.434474E+0	1.375509E+0	1.363749E+0	1.345265E+0	1.479081E+0	1.446020E+0	1.393426E+0	1.292931E+0	1.425501E+0	1.545123E+0	1.431181E+0	1.387669E+0	1.323444E+0	1.213632E+0	1.294029E+0	1.378298E+0	1.383347E+0	1.364704E+0	1.309296E+0	1.352425E+0	1.469433E+0	1.416669E+0	1.314770E+0	1.416528E+0	1.491986E+0	1.465982E+0	1.381966E+0	1.293234E+0	1.461352E+0	1.461489E+0	1.344615E+0	1.295576E+0	1.432903E+0	1.406253E+0	1.294772E+0	1.344997E+0	1.483219E+0	1.378633E+0	1.343632E+0	1.312413E+0	1.364368E+0	1.476282E+0	1.348209E+0	1.412012E+0	1.358350E+0	1.357842E+0	1.254110E+0	1.308653E+0	1.344990E+0	1.421684E+0	1.275955E+0	1.345995E+0	1.517705E+0	1.364531E+0	1.314949E+0	1.349476E+0	1.396779E+0	1.455713E+0	1.368085E+0	1.362335E+0	1.380210E+0	1.412885E+0	1.199439E+0	1.314968E+0	1.394361E+0	1.407675E+0	1.356615E+0	1.350218E+0	1.480809E+0	1.434310E+0	1.291902E+0	1.147320E+0	1.448819E+0	1.457678E+0	1.371064E+0	1.332515E+0	1.373335E+0	1.437671E+0	1.182671E+0	1.266180E+0	1.443734E+0	1.359881E+0	1.286950E+0	1.413788E+0	1.505002E+0	1.352616E+0	1.198089E+0	1.417873E+0	1.361479E+0	1.453781E+0	1.348861E+0	1.357409E+0	1.312880E+0	1.434567E+0	1.209765E+0	1.286110E+0	1.359799E+0	1.423669E+0	1.286796E+0	1.317319E+0	1.455874E+0	1.409131E+0	1.250640E+0	1.119023E+0	1.402298E+0	1.388531E+0	1.419981E+0	1.334728E+0	1.404391E+0	1.185199E+0	1.068478E+0	1.313057E+0	1.370041E+0	1.302338E+0	1.232190E+0	1.474689E+0	1.504380E+0	1.358112E+0	1.228403E+0	1.397280E+0	1.404168E+0	1.541387E+0	1.265163E+0	1.317567E+0	1.390677E+0	1.364680E+0	1.252954E+0	1.296279E+0	1.434281E+0	1.341492E+0	1.286790E+0	1.353013E+0	1.459816E+0	1.378924E+0	1.214881E+0	1.297153E+0	1.411752E+0	1.427590E+0	1.295036E+0	1.373241E+0	1.304029E+0	1.352935E+0	1.213914E+0	1.204297E+0	1.385224E+0
5.437640E+2	1.525449E+0	1.589287E+0	1.527088E+0	1.281729E+0	1.600526E+0	1.560305E+0	1.483798E+0	1.444937E+0	1.482718E+0	1.506168E+0	1.343128E+0	1.457927E+0	1.477580E+0	1.454918E+0	1.344124E+0	1.545212E+0	1.521417E+0	1.461663E+0	1.317460E+0	1.465331E+0	1.503138E+0	1.536394E+0	1.395680E+0	1.503554E+0	1.441678E+0	1.240877E+0	1.370213E+0	1.466275E+0	1.478835E+0	1.411376E+0	1.381699E+0	1.572546E+0	1.584579E+0	1.495020E+0	1.342326E+0	1.405444E+0	1.586541E+0	1.575486E+0	1.406675E+0	1.418570E+0	1.280775E+0	1.399462E+0	1.431799E+0	1.461284E+0	1.458842E+0	1.366702E+0	1.435954E+0	1.515222E+0	1.523060E+0	1.502971E+0	1.425298E+0	1.598371E+0	1.536104E+0	1.529427E+0	1.427722E+0	1.475239E+0	1.470220E+0	1.485439E+0	1.409796E+0	1.511709E+0	1.487228E+0	1.447566E+0	1.397971E+0	1.529103E+0	1.461307E+0	1.440890E+0	1.394819E+0	1.501500E+0	1.511408E+0	1.577835E+0	1.412009E+0	1.406396E+0	1.388323E+0	1.386850E+0	1.435587E+0	1.458527E+0	1.457189E+0	1.375222E+0	1.355024E+0	1.575519E+0	1.415922E+0	1.435940E+0	1.398250E+0	1.462166E+0	1.532859E+0	1.571949E+0	1.419663E+0	1.447038E+0	1.454136E+0	1.408557E+0	1.411734E+0	1.494715E+0	1.472567E+0	1.475264E+0	1.377804E+0	1.528087E+0	1.465278E+0	1.367703E+0	1.134904E+0	1.542651E+0	1.531773E+0	1.434225E+0	1.311722E+0	1.483097E+0	1.558544E+0	1.244236E+0	1.300460E+0	1.531964E+0	1.421106E+0	1.338377E+0	1.518498E+0	1.503993E+0	1.395467E+0	1.327609E+0	1.444282E+0	1.429594E+0	1.533381E+0	1.446463E+0	1.396312E+0	1.421821E+0	1.429831E+0	1.219904E+0	1.381787E+0	1.454438E+0	1.507224E+0	1.326457E+0	1.377239E+0	1.553485E+0	1.496886E+0	1.374976E+0	1.158135E+0	1.500768E+0	1.491092E+0	1.510217E+0	1.422284E+0	1.431290E+0	1.227866E+0	1.146996E+0	1.446469E+0	1.486671E+0	1.427099E+0	1.244765E+0	1.505486E+0	1.552388E+0	1.456002E+0	1.347657E+0	1.400013E+0	1.408199E+0	1.566530E+0	1.411975E+0	1.448784E+0	1.399239E+0	1.416287E+0	1.258723E+0	1.373604E+0	1.473866E+0	1.423814E+0	1.342042E+0	1.458903E+0	1.534623E+0	1.463211E+0	1.249484E+0	1.393841E+0	1.450931E+0	1.529019E+0	1.323760E+0	1.441299E+0	1.384971E+0	1.465169E+0	1.284869E+0	1.438347E+0	1.581135E+0
5.440120E+2	1.612532E+0	1.596010E+0	1.583430E+0	1.354071E+0	1.627500E+0	1.660713E+0	1.550661E+0	1.471502E+0	1.546431E+0	1.589206E+0	1.399662E+0	1.550534E+0	1.533840E+0	1.534849E+0	1.406974E+0	1.578345E+0	1.547057E+0	1.580086E+0	1.364955E+0	1.541684E+0	1.571323E+0	1.714286E+0	1.517845E+0	1.480632E+0	1.541059E+0	1.290544E+0	1.414728E+0	1.629646E+0	1.535321E+0	1.499230E+0	1.462469E+0	1.629313E+0	1.535507E+0	1.592429E+0	1.442786E+0	1.506333E+0	1.621064E+0	1.589667E+0	1.444685E+0	1.532453E+0	1.287894E+0	1.438453E+0	1.458547E+0	1.509842E+0	1.528404E+0	1.485609E+0	1.537642E+0	1.580011E+0	1.645591E+0	1.582456E+0	1.525288E+0	1.578536E+0	1.596711E+0	1.621591E+0	1.505194E+0	1.539570E+0	1.550541E+0	1.530272E+0	1.506937E+0	1.577682E+0	1.533433E+0	1.511854E+0	1.468758E+0	1.614232E+0	1.482259E+0	1.576157E+0	1.418290E+0	1.525700E+0	1.585278E+0	1.601088E+0	1.449446E+0	1.463058E+0	1.498615E+0	1.419472E+0	1.445221E+0	1.519710E+0	1.519663E+0	1.467140E+0	1.515960E+0	1.593828E+0	1.602583E+0	1.555872E+0	1.521884E+0	1.586154E+0	1.638748E+0	1.657230E+0	1.489739E+0	1.521287E+0	1.533550E+0	1.471296E+0	1.498760E+0	1.541330E+0	1.526564E+0	1.548312E+0	1.517664E+0	1.647030E+0	1.531716E+0	1.552387E+0	1.192846E+0	1.601763E+0	1.595581E+0	1.639885E+0	1.454229E+0	1.550225E+0	1.515594E+0	1.390170E+0	1.397496E+0	1.545733E+0	1.524640E+0	1.412164E+0	1.510776E+0	1.645235E+0	1.516681E+0	1.471449E+0	1.525309E+0	1.535827E+0	1.636448E+0	1.622544E+0	1.513006E+0	1.489420E+0	1.484308E+0	1.386390E+0	1.478063E+0	1.529252E+0	1.506699E+0	1.441433E+0	1.467121E+0	1.572378E+0	1.612035E+0	1.490978E+0	1.242877E+0	1.608472E+0	1.639538E+0	1.586123E+0	1.475736E+0	1.460633E+0	1.309266E+0	1.227492E+0	1.502887E+0	1.502839E+0	1.446328E+0	1.335832E+0	1.609555E+0	1.651938E+0	1.501886E+0	1.425227E+0	1.522950E+0	1.450787E+0	1.614200E+0	1.511929E+0	1.480565E+0	1.530998E+0	1.493702E+0	1.385584E+0	1.454498E+0	1.525206E+0	1.487841E+0	1.426033E+0	1.451058E+0	1.651390E+0	1.553390E+0	1.369850E+0	1.419038E+0	1.572025E+0	1.628280E+0	1.495133E+0	1.512337E+0	1.489815E+0	1.552248E+0	1.440970E+0	1.470082E+0	1.575197E+0
5.442750E+2	1.673005E+0	1.632663E+0	1.580468E+0	1.443152E+0	1.716914E+0	1.696609E+0	1.537288E+0	1.573959E+0	1.599714E+0	1.594814E+0	1.456196E+0	1.575033E+0	1.575128E+0	1.608160E+0	1.499707E+0	1.646911E+0	1.606686E+0	1.606845E+0	1.411339E+0	1.585570E+0	1.686830E+0	1.715284E+0	1.536712E+0	1.569101E+0	1.590444E+0	1.281837E+0	1.511999E+0	1.589739E+0	1.596863E+0	1.570440E+0	1.515581E+0	1.743333E+0	1.577652E+0	1.596614E+0	1.450001E+0	1.530643E+0	1.663962E+0	1.721821E+0	1.493822E+0	1.534240E+0	1.333162E+0	1.515879E+0	1.537659E+0	1.599168E+0	1.609095E+0	1.536180E+0	1.556253E+0	1.729562E+0	1.642007E+0	1.636815E+0	1.498391E+0	1.647055E+0	1.669338E+0	1.671069E+0	1.551001E+0	1.622420E+0	1.622713E+0	1.560159E+0	1.553372E+0	1.629608E+0	1.595656E+0	1.555005E+0	1.576532E+0	1.686113E+0	1.562663E+0	1.614727E+0	1.493393E+0	1.552380E+0	1.640035E+0	1.635483E+0	1.589443E+0	1.550090E+0	1.555699E+0	1.493719E+0	1.550623E+0	1.549123E+0	1.575392E+0	1.491498E+0	1.515958E+0	1.684886E+0	1.630349E+0	1.671580E+0	1.513941E+0	1.602810E+0	1.665471E+0	1.709201E+0	1.589008E+0	1.596521E+0	1.622818E+0	1.518345E+0	1.450666E+0	1.604131E+0	1.536985E+0	1.576230E+0	1.502179E+0	1.681088E+0	1.545796E+0	1.564418E+0	1.258541E+0	1.589572E+0	1.666592E+0	1.646959E+0	1.488716E+0	1.598248E+0	1.616220E+0	1.447748E+0	1.495692E+0	1.655241E+0	1.570932E+0	1.408139E+0	1.623687E+0	1.682062E+0	1.595040E+0	1.560977E+0	1.550514E+0	1.581449E+0	1.629815E+0	1.631097E+0	1.572354E+0	1.552644E+0	1.605697E+0	1.410934E+0	1.562451E+0	1.570178E+0	1.604443E+0	1.482879E+0	1.511807E+0	1.648474E+0	1.598961E+0	1.553704E+0	1.272213E+0	1.581393E+0	1.679483E+0	1.672642E+0	1.519006E+0	1.508071E+0	1.335091E+0	1.226995E+0	1.539918E+0	1.637945E+0	1.479371E+0	1.416920E+0	1.631858E+0	1.672150E+0	1.537370E+0	1.527113E+0	1.532234E+0	1.566474E+0	1.658732E+0	1.663427E+0	1.543097E+0	1.550975E+0	1.494317E+0	1.459396E+0	1.485428E+0	1.634068E+0	1.539355E+0	1.464490E+0	1.547144E+0	1.699410E+0	1.595829E+0	1.493729E+0	1.476463E+0	1.608825E+0	1.563733E+0	1.604757E+0	1.489981E+0	1.488184E+0	1.633520E+0	1.458709E+0	1.446281E+0	1.545514E+0
5.445130E+2	1.657284E+0	1.706579E+0	1.559115E+0	1.400704E+0	1.676453E+0	1.678401E+0	1.554263E+0	1.543125E+0	1.582341E+0	1.561154E+0	1.451846E+0	1.609088E+0	1.576943E+0	1.522042E+0	1.419719E+0	1.653817E+0	1.640675E+0	1.576101E+0	1.402955E+0	1.520040E+0	1.753492E+0	1.658817E+0	1.506052E+0	1.556723E+0	1.595865E+0	1.350449E+0	1.494411E+0	1.677661E+0	1.592268E+0	1.541772E+0	1.451932E+0	1.647421E+0	1.642310E+0	1.586453E+0	1.447782E+0	1.574399E+0	1.677771E+0	1.714734E+0	1.506798E+0	1.517715E+0	1.371823E+0	1.491167E+0	1.569532E+0	1.535621E+0	1.531651E+0	1.490622E+0	1.553983E+0	1.689129E+0	1.643200E+0	1.609346E+0	1.515936E+0	1.600175E+0	1.642293E+0	1.613344E+0	1.517379E+0	1.584005E+0	1.641918E+0	1.549240E+0	1.567786E+0	1.588064E+0	1.600686E+0	1.521538E+0	1.492044E+0	1.634117E+0	1.522462E+0	1.571685E+0	1.489741E+0	1.518872E+0	1.674130E+0	1.658736E+0	1.565339E+0	1.522438E+0	1.511360E+0	1.444786E+0	1.520022E+0	1.525001E+0	1.562361E+0	1.457032E+0	1.576125E+0	1.674287E+0	1.597862E+0	1.571192E+0	1.534924E+0	1.540508E+0	1.642782E+0	1.651677E+0	1.569893E+0	1.578704E+0	1.582188E+0	1.481170E+0	1.479865E+0	1.538740E+0	1.527038E+0	1.542730E+0	1.529279E+0	1.660755E+0	1.551992E+0	1.579458E+0	1.206295E+0	1.615168E+0	1.635716E+0	1.675258E+0	1.483646E+0	1.569338E+0	1.548113E+0	1.382190E+0	1.451531E+0	1.580777E+0	1.514188E+0	1.479693E+0	1.555651E+0	1.647759E+0	1.576675E+0	1.493536E+0	1.575124E+0	1.547701E+0	1.640529E+0	1.663796E+0	1.568862E+0	1.537086E+0	1.608067E+0	1.398659E+0	1.530955E+0	1.536288E+0	1.596558E+0	1.452132E+0	1.548365E+0	1.636405E+0	1.589628E+0	1.535943E+0	1.308609E+0	1.567237E+0	1.681103E+0	1.669990E+0	1.494063E+0	1.518339E+0	1.350246E+0	1.197860E+0	1.529336E+0	1.551340E+0	1.529671E+0	1.400007E+0	1.573452E+0	1.709543E+0	1.533700E+0	1.453012E+0	1.543709E+0	1.535397E+0	1.657682E+0	1.622819E+0	1.534387E+0	1.536705E+0	1.518279E+0	1.509562E+0	1.468178E+0	1.517164E+0	1.541763E+0	1.404814E+0	1.534398E+0	1.660993E+0	1.574021E+0	1.448091E+0	1.475878E+0	1.519192E+0	1.647804E+0	1.609543E+0	1.453221E+0	1.513173E+0	1.591915E+0	1.436239E+0	1.549420E+0	1.676121E+0
5.447830E+2	1.587133E+0	1.653431E+0	1.619614E+0	1.334939E+0	1.587041E+0	1.598802E+0	1.606206E+0	1.466757E+0	1.479824E+0	1.504489E+0	1.458370E+0	1.579811E+0	1.473947E+0	1.507471E+0	1.431587E+0	1.582948E+0	1.530957E+0	1.522586E+0	1.444308E+0	1.498997E+0	1.590151E+0	1.567374E+0	1.551804E+0	1.557183E+0	1.516363E+0	1.270574E+0	1.454294E+0	1.537984E+0	1.492611E+0	1.452991E+0	1.439644E+0	1.656228E+0	1.519340E+0	1.567330E+0	1.386173E+0	1.496001E+0	1.588515E+0	1.637767E+0	1.474353E+0	1.451618E+0	1.274671E+0	1.443393E+0	1.467651E+0	1.433105E+0	1.486204E+0	1.437319E+0	1.514488E+0	1.544451E+0	1.502141E+0	1.511739E+0	1.507749E+0	1.536463E+0	1.596208E+0	1.594428E+0	1.429182E+0	1.536334E+0	1.539483E+0	1.507282E+0	1.425276E+0	1.562409E+0	1.473048E+0	1.420265E+0	1.479261E+0	1.603529E+0	1.476030E+0	1.459337E+0	1.368222E+0	1.463029E+0	1.513993E+0	1.627732E+0	1.447395E+0	1.443114E+0	1.506930E+0	1.428474E+0	1.384017E+0	1.454998E+0	1.472022E+0	1.355002E+0	1.376581E+0	1.596719E+0	1.493303E+0	1.547947E+0	1.449857E+0	1.501031E+0	1.583785E+0	1.594657E+0	1.479652E+0	1.480201E+0	1.544635E+0	1.407978E+0	1.410585E+0	1.527734E+0	1.465463E+0	1.459444E+0	1.444103E+0	1.560110E+0	1.522147E+0	1.531931E+0	1.185602E+0	1.509747E+0	1.570881E+0	1.532761E+0	1.403008E+0	1.448796E+0	1.473871E+0	1.349696E+0	1.355079E+0	1.504433E+0	1.445493E+0	1.420215E+0	1.511256E+0	1.608919E+0	1.490971E+0	1.456528E+0	1.495900E+0	1.509582E+0	1.552768E+0	1.609462E+0	1.465630E+0	1.455863E+0	1.462993E+0	1.353838E+0	1.443001E+0	1.450603E+0	1.504597E+0	1.310860E+0	1.481846E+0	1.567657E+0	1.519295E+0	1.484876E+0	1.383027E+0	1.529694E+0	1.541835E+0	1.562767E+0	1.463009E+0	1.467963E+0	1.223933E+0	1.138601E+0	1.495836E+0	1.491869E+0	1.469505E+0	1.313713E+0	1.561771E+0	1.629703E+0	1.385031E+0	1.429279E+0	1.437714E+0	1.424886E+0	1.582773E+0	1.559825E+0	1.413930E+0	1.444903E+0	1.467284E+0	1.403461E+0	1.443195E+0	1.504794E+0	1.462810E+0	1.377408E+0	1.428019E+0	1.572535E+0	1.500345E+0	1.376372E+0	1.392083E+0	1.512071E+0	1.616887E+0	1.462582E+0	1.432852E+0	1.427344E+0	1.607397E+0	1.326260E+0	1.505783E+0	1.444590E+0
5.450260E+2	1.570805E+0	1.528202E+0	1.512850E+0	1.315807E+0	1.526101E+0	1.593083E+0	1.563002E+0	1.388962E+0	1.447390E+0	1.451190E+0	1.354545E+0	1.450162E+0	1.411334E+0	1.416936E+0	1.351157E+0	1.513459E+0	1.405143E+0	1.412133E+0	1.378370E+0	1.438278E+0	1.541302E+0	1.514407E+0	1.447568E+0	1.453590E+0	1.456134E+0	1.193258E+0	1.471883E+0	1.438218E+0	1.415919E+0	1.376231E+0	1.336927E+0	1.450701E+0	1.447751E+0	1.426891E+0	1.396719E+0	1.455280E+0	1.516026E+0	1.551183E+0	1.469717E+0	1.425269E+0	1.254831E+0	1.389029E+0	1.466514E+0	1.416320E+0	1.433801E+0	1.347112E+0	1.479080E+0	1.509381E+0	1.468072E+0	1.397180E+0	1.504237E+0	1.469748E+0	1.526088E+0	1.517299E+0	1.519330E+0	1.461353E+0	1.462653E+0	1.417040E+0	1.450895E+0	1.458562E+0	1.440109E+0	1.418503E+0	1.385183E+0	1.573452E+0	1.436390E+0	1.416854E+0	1.418292E+0	1.400359E+0	1.528457E+0	1.541501E+0	1.561751E+0	1.361523E+0	1.398299E+0	1.335104E+0	1.385720E+0	1.412639E+0	1.487303E+0	1.366952E+0	1.371065E+0	1.561065E+0	1.485629E+0	1.441752E+0	1.449858E+0	1.454147E+0	1.548994E+0	1.527040E+0	1.487612E+0	1.415354E+0	1.474450E+0	1.342920E+0	1.393981E+0	1.440976E+0	1.397251E+0	1.388720E+0	1.419424E+0	1.498096E+0	1.399963E+0	1.441095E+0	1.249749E+0	1.432972E+0	1.484947E+0	1.509011E+0	1.390331E+0	1.440464E+0	1.434604E+0	1.316062E+0	1.306853E+0	1.478779E+0	1.389247E+0	1.341061E+0	1.424405E+0	1.547879E+0	1.394857E+0	1.395649E+0	1.423875E+0	1.419595E+0	1.509397E+0	1.507337E+0	1.455157E+0	1.454405E+0	1.448187E+0	1.268996E+0	1.380601E+0	1.416711E+0	1.422093E+0	1.276100E+0	1.378255E+0	1.556633E+0	1.453942E+0	1.406612E+0	1.361298E+0	1.425686E+0	1.453849E+0	1.551090E+0	1.386652E+0	1.439117E+0	1.216075E+0	1.120823E+0	1.400040E+0	1.463578E+0	1.342774E+0	1.270350E+0	1.470442E+0	1.534195E+0	1.460285E+0	1.334341E+0	1.435526E+0	1.392656E+0	1.518335E+0	1.465597E+0	1.360624E+0	1.398765E+0	1.397858E+0	1.346371E+0	1.331374E+0	1.397787E+0	1.405520E+0	1.303141E+0	1.389291E+0	1.485595E+0	1.470283E+0	1.346280E+0	1.353996E+0	1.440245E+0	1.536068E+0	1.447265E+0	1.356848E+0	1.405614E+0	1.347129E+0	1.310886E+0	1.462148E+0	1.349605E+0
5.452740E+2	1.448043E+0	1.450013E+0	1.490904E+0	1.223735E+0	1.505621E+0	1.493716E+0	1.501801E+0	1.383272E+0	1.328658E+0	1.460166E+0	1.335518E+0	1.398183E+0	1.350534E+0	1.368361E+0	1.269414E+0	1.474345E+0	1.417069E+0	1.397331E+0	1.304607E+0	1.388978E+0	1.502121E+0	1.425462E+0	1.454642E+0	1.379331E+0	1.373019E+0	1.228077E+0	1.327899E+0	1.405790E+0	1.425105E+0	1.366060E+0	1.369409E+0	1.464399E+0	1.405608E+0	1.370120E+0	1.329561E+0	1.369584E+0	1.405568E+0	1.431180E+0	1.443294E+0	1.347558E+0	1.194813E+0	1.330274E+0	1.448301E+0	1.362967E+0	1.349400E+0	1.363967E+0	1.371036E+0	1.489893E+0	1.425635E+0	1.374971E+0	1.428222E+0	1.460130E+0	1.480506E+0	1.472676E+0	1.483270E+0	1.405348E+0	1.410271E+0	1.395773E+0	1.377773E+0	1.444511E+0	1.364163E+0	1.339244E+0	1.352760E+0	1.496986E+0	1.346924E+0	1.405119E+0	1.346314E+0	1.382366E+0	1.465951E+0	1.495965E+0	1.462266E+0	1.319820E+0	1.322925E+0	1.301917E+0	1.343788E+0	1.408524E+0	1.382132E+0	1.259867E+0	1.326446E+0	1.526376E+0	1.393475E+0	1.395785E+0	1.437948E+0	1.362850E+0	1.472854E+0	1.451853E+0	1.441428E+0	1.362390E+0	1.383951E+0	1.338273E+0	1.343597E+0	1.434501E+0	1.306781E+0	1.355685E+0	1.313920E+0	1.415239E+0	1.390953E+0	1.452525E+0	1.368213E+0	1.468314E+0	1.383580E+0	1.380664E+0	1.410616E+0	1.373334E+0	1.408835E+0	1.270459E+0	1.418413E+0	1.441857E+0	1.307118E+0	1.260116E+0	1.351061E+0	1.452541E+0	1.331801E+0	1.354466E+0	1.503703E+0	1.366478E+0	1.416023E+0	1.424329E+0	1.429226E+0	1.358596E+0	1.393712E+0	1.215102E+0	1.353860E+0	1.356603E+0	1.331181E+0	1.307294E+0	1.363529E+0	1.448527E+0	1.409750E+0	1.373864E+0	1.406929E+0	1.332754E+0	1.434414E+0	1.466694E+0	1.398868E+0	1.356950E+0	1.215512E+0	1.091193E+0	1.390635E+0	1.401218E+0	1.359048E+0	1.149366E+0	1.385488E+0	1.448794E+0	1.336700E+0	1.361547E+0	1.420775E+0	1.324168E+0	1.477472E+0	1.442167E+0	1.409831E+0	1.335027E+0	1.354848E+0	1.330802E+0	1.326018E+0	1.348921E+0	1.312603E+0	1.269547E+0	1.299090E+0	1.463352E+0	1.425488E+0	1.274561E+0	1.252620E+0	1.367827E+0	1.480744E+0	1.373065E+0	1.347410E+0	1.321412E+0	1.420662E+0	1.234018E+0	1.218181E+0	1.414906E+0
5.455130E+2	1.368217E+0	1.374261E+0	1.351522E+0	1.157372E+0	1.369252E+0	1.386023E+0	1.356250E+0	1.305003E+0	1.264367E+0	1.317105E+0	1.182767E+0	1.287648E+0	1.355070E+0	1.296817E+0	1.160856E+0	1.356998E+0	1.306753E+0	1.300544E+0	1.253196E+0	1.260921E+0	1.376944E+0	1.384988E+0	1.367853E+0	1.325242E+0	1.324834E+0	1.065254E+0	1.248214E+0	1.321612E+0	1.281820E+0	1.293465E+0	1.211382E+0	1.380229E+0	1.346140E+0	1.289440E+0	1.256854E+0	1.245602E+0	1.360199E+0	1.406876E+0	1.317213E+0	1.210899E+0	1.119024E+0	1.268769E+0	1.315121E+0	1.309607E+0	1.295608E+0	1.196310E+0	1.275252E+0	1.326705E+0	1.344348E+0	1.306590E+0	1.269760E+0	1.383799E+0	1.371316E+0	1.345100E+0	1.331239E+0	1.315093E+0	1.320635E+0	1.308406E+0	1.291842E+0	1.294238E+0	1.328019E+0	1.261308E+0	1.314854E+0	1.337931E+0	1.232541E+0	1.292769E+0	1.245654E+0	1.273158E+0	1.336289E+0	1.360804E+0	1.404830E+0	1.234601E+0	1.278034E+0	1.196736E+0	1.318284E+0	1.231453E+0	1.273365E+0	1.211611E+0	1.279314E+0	1.316318E+0	1.291284E+0	1.313365E+0	1.264973E+0	1.265389E+0	1.369486E+0	1.382718E+0	1.334731E+0	1.269331E+0	1.235583E+0	1.209314E+0	1.280042E+0	1.309546E+0	1.292097E+0	1.329629E+0	1.263106E+0	1.337466E+0	1.273274E+0	1.329199E+0	1.284407E+0	1.337306E+0	1.329549E+0	1.358934E+0	1.282817E+0	1.323353E+0	1.338275E+0	1.195212E+0	1.308596E+0	1.320459E+0	1.296666E+0	1.186330E+0	1.325487E+0	1.371325E+0	1.290175E+0	1.272697E+0	1.305636E+0	1.291487E+0	1.312952E+0	1.364963E+0	1.326492E+0	1.245765E+0	1.311402E+0	1.157473E+0	1.330683E+0	1.292017E+0	1.288618E+0	1.167808E+0	1.258922E+0	1.338845E+0	1.326349E+0	1.286719E+0	1.268410E+0	1.321057E+0	1.367480E+0	1.398221E+0	1.335238E+0	1.249849E+0	1.071796E+0	1.000823E+0	1.346557E+0	1.263801E+0	1.260422E+0	1.134186E+0	1.335044E+0	1.329536E+0	1.271235E+0	1.232456E+0	1.349744E+0	1.264885E+0	1.372701E+0	1.317745E+0	1.376000E+0	1.264626E+0	1.250401E+0	1.223547E+0	1.248693E+0	1.278410E+0	1.261093E+0	1.211641E+0	1.311346E+0	1.318787E+0	1.288745E+0	1.207858E+0	1.281919E+0	1.294815E+0	1.345146E+0	1.308443E+0	1.374235E+0	1.315978E+0	1.260052E+0	1.199723E+0	1.329255E+0	1.468335E+0
5.457940E+2	1.274483E+0	1.258196E+0	1.270265E+0	1.149003E+0	1.306813E+0	1.259082E+0	1.312530E+0	1.188791E+0	1.179227E+0	1.212193E+0	1.195814E+0	1.202211E+0	1.185374E+0	1.233667E+0	1.061969E+0	1.245635E+0	1.214331E+0	1.235642E+0	1.147026E+0	1.207415E+0	1.283317E+0	1.322027E+0	1.308424E+0	1.184064E+0	1.183899E+0	1.040165E+0	1.188863E+0	1.282953E+0	1.206966E+0	1.196824E+0	1.140272E+0	1.283336E+0	1.242223E+0	1.193825E+0	1.194690E+0	1.239525E+0	1.275875E+0	1.290416E+0	1.237483E+0	1.178295E+0	1.059511E+0	1.188597E+0	1.245114E+0	1.222681E+0	1.203324E+0	1.147105E+0	1.201711E+0	1.281402E+0	1.291750E+0	1.304251E+0	1.266251E+0	1.256379E+0	1.255613E+0	1.289317E+0	1.270331E+0	1.277139E+0	1.190261E+0	1.236558E+0	1.214446E+0	1.223377E+0	1.204500E+0	1.197020E+0	1.160956E+0	1.305813E+0	1.186675E+0	1.215634E+0	1.226357E+0	1.186907E+0	1.272234E+0	1.314780E+0	1.334064E+0	1.155729E+0	1.206540E+0	1.162428E+0	1.196449E+0	1.222040E+0	1.218534E+0	1.114642E+0	1.187064E+0	1.293673E+0	1.205631E+0	1.226715E+0	1.259870E+0	1.182111E+0	1.304947E+0	1.313590E+0	1.281115E+0	1.182213E+0	1.209727E+0	1.159938E+0	1.187862E+0	1.240271E+0	1.238098E+0	1.169570E+0	1.183738E+0	1.313574E+0	1.206832E+0	1.231143E+0	1.185085E+0	1.227623E+0	1.244646E+0	1.312447E+0	1.276224E+0	1.240541E+0	1.237652E+0	1.128516E+0	1.254560E+0	1.279159E+0	1.175710E+0	1.127750E+0	1.235738E+0	1.280023E+0	1.227120E+0	1.179587E+0	1.243214E+0	1.177753E+0	1.271109E+0	1.287487E+0	1.266642E+0	1.154820E+0	1.272912E+0	1.080635E+0	1.286111E+0	1.183310E+0	1.248679E+0	1.088930E+0	1.237086E+0	1.260124E+0	1.281535E+0	1.194578E+0	1.234185E+0	1.202277E+0	1.332394E+0	1.303208E+0	1.322511E+0	1.189697E+0	1.048217E+0	9.381069E-1	1.294838E+0	1.237242E+0	1.234783E+0	1.043555E+0	1.270798E+0	1.242111E+0	1.185582E+0	1.157201E+0	1.298384E+0	1.191214E+0	1.306171E+0	1.260999E+0	1.277074E+0	1.187092E+0	1.233198E+0	1.142816E+0	1.207058E+0	1.187485E+0	1.172028E+0	1.102454E+0	1.228497E+0	1.305138E+0	1.229805E+0	1.099026E+0	1.242659E+0	1.272259E+0	1.280600E+0	1.262963E+0	1.244078E+0	1.158986E+0	1.257149E+0	1.101569E+0	1.283636E+0	1.331792E+0
5.460000E+2	1.249084E+0	1.241703E+0	1.310598E+0	1.236290E+0	1.271347E+0	1.244517E+0	1.210184E+0	1.270376E+0	1.161851E+0	1.164506E+0	1.166461E+0	1.237462E+0	1.179478E+0	1.183764E+0	1.119983E+0	1.214802E+0	1.213138E+0	1.225392E+0	1.125233E+0	1.273547E+0	1.251765E+0	1.250568E+0	1.234369E+0	1.209275E+0	1.157399E+0	9.904991E-1	1.140502E+0	1.253646E+0	1.172980E+0	1.198676E+0	1.131054E+0	1.250062E+0	1.156777E+0	1.178885E+0	1.193580E+0	1.246210E+0	1.225576E+0	1.280288E+0	1.255097E+0	1.176064E+0	1.015768E+0	1.173220E+0	1.249100E+0	1.188509E+0	1.183847E+0	1.141183E+0	1.184006E+0	1.262888E+0	1.171011E+0	1.119557E+0	1.245785E+0	1.277414E+0	1.246096E+0	1.244207E+0	1.249866E+0	1.225765E+0	1.173963E+0	1.203219E+0	1.180287E+0	1.241703E+0	1.188944E+0	1.176327E+0	1.207990E+0	1.289502E+0	1.218384E+0	1.183212E+0	1.149165E+0	1.178221E+0	1.238658E+0	1.222736E+0	1.264323E+0	1.183831E+0	1.202659E+0	1.114055E+0	1.150547E+0	1.172626E+0	1.203250E+0	1.109584E+0	1.145953E+0	1.258505E+0	1.210357E+0	1.236755E+0	1.257601E+0	1.141399E+0	1.241916E+0	1.239410E+0	1.266781E+0	1.160432E+0	1.168479E+0	1.129151E+0	1.167250E+0	1.165816E+0	1.189784E+0	1.173292E+0	1.178416E+0	1.252576E+0	1.189939E+0	1.146920E+0	1.205775E+0	1.223358E+0	1.263172E+0	1.237662E+0	1.260502E+0	1.234171E+0	1.196544E+0	1.087472E+0	1.156945E+0	1.214079E+0	1.145346E+0	1.139375E+0	1.166255E+0	1.286581E+0	1.151209E+0	1.159891E+0	1.264822E+0	1.139008E+0	1.214983E+0	1.241707E+0	1.181867E+0	1.152388E+0	1.225541E+0	1.064625E+0	1.241540E+0	1.176916E+0	1.171432E+0	1.092942E+0	1.136542E+0	1.287937E+0	1.228008E+0	1.220112E+0	1.205396E+0	1.199200E+0	1.239550E+0	1.231545E+0	1.205431E+0	1.157421E+0	1.004990E+0	9.252676E-1	1.219610E+0	1.174883E+0	1.188921E+0	1.035750E+0	1.261771E+0	1.301235E+0	1.202713E+0	1.161832E+0	1.252488E+0	1.161860E+0	1.230734E+0	1.234446E+0	1.198651E+0	1.168068E+0	1.165000E+0	1.125516E+0	1.166611E+0	1.204185E+0	1.149400E+0	1.060463E+0	1.178005E+0	1.280370E+0	1.228626E+0	1.096518E+0	1.192265E+0	1.230114E+0	1.268668E+0	1.205042E+0	1.236629E+0	1.147033E+0	1.202000E+0	1.115761E+0	1.204297E+0	1.171504E+0
5.467600E+2	1.290207E+0	1.292405E+0	1.289245E+0	1.250639E+0	1.323796E+0	1.281455E+0	1.263672E+0	1.303582E+0	1.205869E+0	1.254831E+0	1.197989E+0	1.277492E+0	1.184467E+0	1.206284E+0	1.147231E+0	1.269105E+0	1.277537E+0	1.169028E+0	1.132497E+0	1.227855E+0	1.198844E+0	1.278551E+0	1.237199E+0	1.327538E+0	1.232684E+0	9.823072E-1	1.199854E+0	1.320366E+0	1.224874E+0	1.163072E+0	1.128421E+0	1.262786E+0	1.192572E+0	1.174701E+0	1.130863E+0	1.217038E+0	1.257137E+0	1.266112E+0	1.254172E+0	1.282355E+0	1.025432E+0	1.129840E+0	1.191614E+0	1.313207E+0	1.198686E+0	1.120683E+0	1.160854E+0	1.310630E+0	1.251104E+0	1.206059E+0	1.269758E+0	1.273808E+0	1.247602E+0	1.277677E+0	1.288846E+0	1.322498E+0	1.242061E+0	1.233683E+0	1.222453E+0	1.306455E+0	1.233781E+0	1.182930E+0	1.211189E+0	1.285930E+0	1.197433E+0	1.241903E+0	1.227919E+0	1.219794E+0	1.268103E+0	1.295889E+0	1.261247E+0	1.255452E+0	1.169407E+0	1.147241E+0	1.259349E+0	1.224393E+0	1.185722E+0	1.160138E+0	1.167511E+0	1.306204E+0	1.212128E+0	1.233584E+0	1.258168E+0	1.253667E+0	1.322594E+0	1.272713E+0	1.258287E+0	1.221813E+0	1.189411E+0	1.120437E+0	1.201602E+0	1.222143E+0	1.234783E+0	1.196093E+0	1.152768E+0	1.274940E+0	1.209085E+0	1.237759E+0	1.229058E+0	1.239811E+0	1.269346E+0	1.263432E+0	1.248837E+0	1.246909E+0	1.207588E+0	1.149038E+0	1.193550E+0	1.232852E+0	1.177700E+0	1.141163E+0	1.170115E+0	1.255304E+0	1.176921E+0	1.113336E+0	1.219206E+0	1.167129E+0	1.267029E+0	1.274912E+0	1.249688E+0	1.175730E+0	1.242716E+0	1.066759E+0	1.239163E+0	1.205691E+0	1.197181E+0	1.102744E+0	1.205095E+0	1.260649E+0	1.247303E+0	1.223996E+0	1.199421E+0	1.227511E+0	1.243867E+0	1.229425E+0	1.268044E+0	1.185297E+0	1.047095E+0	9.306996E-1	1.243707E+0	1.235508E+0	1.174620E+0	1.008431E+0	1.212390E+0	1.259292E+0	1.162945E+0	1.141570E+0	1.292925E+0	1.137686E+0	1.299883E+0	1.262559E+0	1.288864E+0	1.190901E+0	1.171758E+0	1.103603E+0	1.179102E+0	1.138002E+0	1.153253E+0	1.087868E+0	1.167219E+0	1.260658E+0	1.226858E+0	1.116578E+0	1.216876E+0	1.184409E+0	1.263787E+0	1.265839E+0	1.300713E+0	1.160073E+0	1.241669E+0	1.092110E+0	1.186446E+0	1.224932E+0
5.475230E+2	1.399060E+0	1.365099E+0	1.375249E+0	1.397117E+0	1.375744E+0	1.402151E+0	1.340819E+0	1.366669E+0	1.296801E+0	1.345159E+0	1.283331E+0	1.402362E+0	1.310605E+0	1.274737E+0	1.183710E+0	1.330768E+0	1.313313E+0	1.338691E+0	1.320814E+0	1.375149E+0	1.358626E+0	1.349010E+0	1.376815E+0	1.403626E+0	1.233287E+0	1.105192E+0	1.216891E+0	1.407663E+0	1.269420E+0	1.282831E+0	1.252645E+0	1.409102E+0	1.266470E+0	1.239243E+0	1.238537E+0	1.343452E+0	1.399157E+0	1.372949E+0	1.323237E+0	1.343537E+0	1.064598E+0	1.241312E+0	1.328210E+0	1.415722E+0	1.345691E+0	1.254627E+0	1.280699E+0	1.382721E+0	1.339565E+0	1.342240E+0	1.314783E+0	1.361559E+0	1.349778E+0	1.335886E+0	1.365349E+0	1.400255E+0	1.294444E+0	1.300934E+0	1.328668E+0	1.384647E+0	1.335800E+0	1.251180E+0	1.286996E+0	1.386363E+0	1.292563E+0	1.262025E+0	1.243046E+0	1.356302E+0	1.387430E+0	1.354503E+0	1.332012E+0	1.351099E+0	1.248662E+0	1.269859E+0	1.315453E+0	1.339693E+0	1.276960E+0	1.190013E+0	1.264777E+0	1.333184E+0	1.290693E+0	1.322874E+0	1.324522E+0	1.301781E+0	1.366464E+0	1.373637E+0	1.335790E+0	1.418822E+0	1.304536E+0	1.191886E+0	1.313825E+0	1.386592E+0	1.225310E+0	1.245878E+0	1.203579E+0	1.366946E+0	1.262011E+0	1.315362E+0	1.269409E+0	1.409816E+0	1.319259E+0	1.342260E+0	1.340125E+0	1.333642E+0	1.256059E+0	1.186091E+0	1.273735E+0	1.376779E+0	1.284222E+0	1.182753E+0	1.324521E+0	1.401591E+0	1.298746E+0	1.241662E+0	1.378259E+0	1.337106E+0	1.333872E+0	1.356412E+0	1.367883E+0	1.353735E+0	1.284165E+0	1.121189E+0	1.289083E+0	1.358521E+0	1.323827E+0	1.163798E+0	1.259429E+0	1.352490E+0	1.302697E+0	1.311140E+0	1.343916E+0	1.345677E+0	1.391771E+0	1.332402E+0	1.339817E+0	1.357443E+0	1.107725E+0	1.011688E+0	1.310119E+0	1.299023E+0	1.255000E+0	1.132453E+0	1.321770E+0	1.351265E+0	1.277967E+0	1.231299E+0	1.356302E+0	1.291935E+0	1.328698E+0	1.389589E+0	1.374464E+0	1.321230E+0	1.237499E+0	1.197021E+0	1.289140E+0	1.345828E+0	1.267835E+0	1.186888E+0	1.243205E+0	1.345576E+0	1.302892E+0	1.206856E+0	1.297154E+0	1.333401E+0	1.386909E+0	1.325673E+0	1.355853E+0	1.286102E+0	1.378091E+0	1.209184E+0	1.323304E+0	1.112137E+0
5.482660E+2	1.405711E+0	1.439627E+0	1.451167E+0	1.440764E+0	1.444182E+0	1.476544E+0	1.448824E+0	1.462960E+0	1.359352E+0	1.428749E+0	1.303445E+0	1.499157E+0	1.434926E+0	1.387792E+0	1.294461E+0	1.468364E+0	1.312121E+0	1.376264E+0	1.318575E+0	1.474949E+0	1.476678E+0	1.439453E+0	1.477282E+0	1.474214E+0	1.406746E+0	1.182507E+0	1.352629E+0	1.435722E+0	1.341066E+0	1.354963E+0	1.311025E+0	1.522145E+0	1.358267E+0	1.368924E+0	1.374517E+0	1.427932E+0	1.516029E+0	1.500041E+0	1.476668E+0	1.481988E+0	1.200406E+0	1.314896E+0	1.420412E+0	1.473272E+0	1.368417E+0	1.319775E+0	1.334265E+0	1.455305E+0	1.410693E+0	1.405951E+0	1.427639E+0	1.416256E+0	1.436932E+0	1.454726E+0	1.496913E+0	1.427565E+0	1.388150E+0	1.369330E+0	1.392719E+0	1.451844E+0	1.361419E+0	1.304019E+0	1.396601E+0	1.490869E+0	1.347487E+0	1.383876E+0	1.328062E+0	1.430762E+0	1.430306E+0	1.471258E+0	1.440215E+0	1.375574E+0	1.333455E+0	1.333418E+0	1.403289E+0	1.384405E+0	1.356064E+0	1.294339E+0	1.303382E+0	1.464227E+0	1.420648E+0	1.416390E+0	1.453259E+0	1.463399E+0	1.442602E+0	1.502312E+0	1.489738E+0	1.450995E+0	1.378413E+0	1.292379E+0	1.368216E+0	1.421552E+0	1.404829E+0	1.364062E+0	1.310049E+0	1.485895E+0	1.347034E+0	1.405001E+0	1.379078E+0	1.446985E+0	1.417542E+0	1.406938E+0	1.471471E+0	1.470844E+0	1.424175E+0	1.343425E+0	1.345782E+0	1.455624E+0	1.343454E+0	1.288291E+0	1.453355E+0	1.454054E+0	1.359352E+0	1.334174E+0	1.418472E+0	1.435844E+0	1.412961E+0	1.429861E+0	1.482087E+0	1.487474E+0	1.369432E+0	1.275399E+0	1.404967E+0	1.382181E+0	1.371644E+0	1.246242E+0	1.327982E+0	1.442756E+0	1.437760E+0	1.369977E+0	1.465056E+0	1.438608E+0	1.495411E+0	1.424761E+0	1.468610E+0	1.433731E+0	1.342950E+0	1.104034E+0	1.373004E+0	1.424315E+0	1.378770E+0	1.175816E+0	1.441769E+0	1.455362E+0	1.301825E+0	1.336656E+0	1.498907E+0	1.394384E+0	1.453902E+0	1.461432E+0	1.432382E+0	1.449660E+0	1.343791E+0	1.323308E+0	1.363492E+0	1.492422E+0	1.337159E+0	1.244353E+0	1.366251E+0	1.489131E+0	1.452601E+0	1.295626E+0	1.403217E+0	1.446773E+0	1.452540E+0	1.408010E+0	1.455208E+0	1.414850E+0	1.432273E+0	1.249392E+0	1.323304E+0	1.379286E+0
5.490100E+2	1.442601E+0	1.461005E+0	1.438710E+0	1.443152E+0	1.424198E+0	1.470824E+0	1.499742E+0	1.438295E+0	1.399896E+0	1.396209E+0	1.289311E+0	1.417899E+0	1.377302E+0	1.332145E+0	1.238207E+0	1.409918E+0	1.405738E+0	1.385375E+0	1.293433E+0	1.411224E+0	1.382031E+0	1.434456E+0	1.398512E+0	1.460469E+0	1.427223E+0	1.125672E+0	1.360323E+0	1.416392E+0	1.352543E+0	1.297625E+0	1.288201E+0	1.458527E+0	1.383090E+0	1.369523E+0	1.305141E+0	1.477766E+0	1.435157E+0	1.484852E+0	1.433562E+0	1.435092E+0	1.206508E+0	1.349492E+0	1.428949E+0	1.446894E+0	1.353576E+0	1.286518E+0	1.343799E+0	1.441178E+0	1.432807E+0	1.408873E+0	1.398988E+0	1.416855E+0	1.417900E+0	1.437263E+0	1.429183E+0	1.445616E+0	1.366618E+0	1.413016E+0	1.376172E+0	1.478723E+0	1.405339E+0	1.341885E+0	1.376507E+0	1.469454E+0	1.270477E+0	1.386115E+0	1.360397E+0	1.392292E+0	1.422558E+0	1.377275E+0	1.396114E+0	1.405944E+0	1.300757E+0	1.312043E+0	1.345485E+0	1.509117E+0	1.338537E+0	1.256190E+0	1.327950E+0	1.431463E+0	1.372803E+0	1.394201E+0	1.381234E+0	1.454147E+0	1.442604E+0	1.460935E+0	1.415419E+0	1.450005E+0	1.379027E+0	1.292381E+0	1.375087E+0	1.492124E+0	1.320518E+0	1.358479E+0	1.309081E+0	1.412698E+0	1.347033E+0	1.454330E+0	1.395114E+0	1.450641E+0	1.440696E+0	1.429679E+0	1.398951E+0	1.445365E+0	1.320482E+0	1.304663E+0	1.385874E+0	1.388665E+0	1.295670E+0	1.294998E+0	1.382906E+0	1.447498E+0	1.385063E+0	1.328802E+0	1.431677E+0	1.392723E+0	1.397142E+0	1.461055E+0	1.450671E+0	1.497202E+0	1.348113E+0	1.234312E+0	1.303344E+0	1.431417E+0	1.315942E+0	1.229754E+0	1.327475E+0	1.397620E+0	1.369917E+0	1.327791E+0	1.403669E+0	1.412762E+0	1.406887E+0	1.434846E+0	1.374945E+0	1.454762E+0	1.371020E+0	1.047243E+0	1.451174E+0	1.429513E+0	1.295435E+0	1.161505E+0	1.406193E+0	1.406849E+0	1.326908E+0	1.271823E+0	1.410938E+0	1.367912E+0	1.397847E+0	1.363037E+0	1.434436E+0	1.420168E+0	1.361605E+0	1.257571E+0	1.367655E+0	1.436755E+0	1.297200E+0	1.264245E+0	1.329975E+0	1.434543E+0	1.375388E+0	1.233436E+0	1.358097E+0	1.391573E+0	1.462304E+0	1.387424E+0	1.416462E+0	1.413218E+0	1.354870E+0	1.225741E+0	1.301488E+0	1.337732E+0
5.497630E+2	1.414176E+0	1.384036E+0	1.414988E+0	1.398909E+0	1.391231E+0	1.391227E+0	1.417966E+0	1.427385E+0	1.427118E+0	1.293542E+0	1.281159E+0	1.409531E+0	1.401803E+0	1.335236E+0	1.250074E+0	1.371723E+0	1.403353E+0	1.357476E+0	1.276665E+0	1.373947E+0	1.396789E+0	1.440451E+0	1.434356E+0	1.434798E+0	1.400119E+0	1.141033E+0	1.282836E+0	1.405793E+0	1.397091E+0	1.311959E+0	1.292151E+0	1.401273E+0	1.397525E+0	1.315736E+0	1.314021E+0	1.393897E+0	1.375979E+0	1.402317E+0	1.344097E+0	1.368104E+0	1.359102E+0	1.234722E+0	1.363498E+0	1.404330E+0	1.369806E+0	1.207244E+0	1.293410E+0	1.403183E+0	1.461495E+0	1.367958E+0	1.408342E+0	1.438494E+0	1.398363E+0	1.436778E+0	1.395071E+0	1.380353E+0	1.385824E+0	1.367033E+0	1.285433E+0	1.406637E+0	1.329853E+0	1.207148E+0	1.281517E+0	1.418476E+0	1.331635E+0	1.311215E+0	1.319714E+0	1.350718E+0	1.407060E+0	1.382603E+0	1.396114E+0	1.353364E+0	1.271937E+0	1.219235E+0	1.332452E+0	1.380872E+0	1.321907E+0	1.217130E+0	1.280819E+0	1.392442E+0	1.365712E+0	1.380465E+0	1.354014E+0	1.407884E+0	1.393693E+0	1.391297E+0	1.425506E+0	1.386152E+0	1.366097E+0	1.192468E+0	1.340162E+0	1.368463E+0	1.310098E+0	1.285890E+0	1.310049E+0	1.435063E+0	1.277216E+0	1.364694E+0	1.327866E+0	1.409816E+0	1.408793E+0	1.406434E+0	1.358379E+0	1.413021E+0	1.318029E+0	1.188371E+0	1.319056E+0	1.395549E+0	1.282727E+0	1.251620E+0	1.318249E+0	1.427320E+0	1.319559E+0	1.289408E+0	1.342249E+0	1.376477E+0	1.408878E+0	1.408227E+0	1.376861E+0	1.405773E+0	1.314954E+0	1.137727E+0	1.306315E+0	1.377706E+0	1.320672E+0	1.166917E+0	1.343216E+0	1.343043E+0	1.362450E+0	1.280058E+0	1.320014E+0	1.348139E+0	1.331313E+0	1.357877E+0	1.363237E+0	1.403900E+0	1.372143E+0	1.015144E+0	1.369476E+0	1.445679E+0	1.330445E+0	1.139392E+0	1.379644E+0	1.371981E+0	1.334252E+0	1.270082E+0	1.368323E+0	1.332801E+0	1.381084E+0	1.365119E+0	1.371388E+0	1.372127E+0	1.284193E+0	1.288131E+0	1.333157E+0	1.383561E+0	1.331379E+0	1.198822E+0	1.322623E+0	1.420893E+0	1.380695E+0	1.218891E+0	1.332900E+0	1.367235E+0	1.374977E+0	1.356788E+0	1.437821E+0	1.365958E+0	1.315201E+0	1.218646E+0	1.390744E+0	1.373350E+0
5.505000E+2	1.391802E+0	1.323559E+0	1.363978E+0	1.367225E+0	1.333286E+0	1.345444E+0	1.330532E+0	1.354813E+0	1.374992E+0	1.310372E+0	1.199076E+0	1.355162E+0	1.354616E+0	1.296818E+0	1.182830E+0	1.372646E+0	1.331799E+0	1.285171E+0	1.244816E+0	1.437074E+0	1.349973E+0	1.380990E+0	1.355119E+0	1.391253E+0	1.365789E+0	1.085222E+0	1.293276E+0	1.390203E+0	1.435208E+0	1.262487E+0	1.242989E+0	1.398336E+0	1.359420E+0	1.335458E+0	1.259074E+0	1.344058E+0	1.397678E+0	1.400801E+0	1.374227E+0	1.377929E+0	1.327568E+0	1.227584E+0	1.320810E+0	1.408524E+0	1.379079E+0	1.207698E+0	1.314293E+0	1.435820E+0	1.408897E+0	1.291979E+0	1.378518E+0	1.453518E+0	1.348777E+0	1.356743E+0	1.325392E+0	1.383594E+0	1.386987E+0	1.317027E+0	1.306784E+0	1.393197E+0	1.407627E+0	1.212874E+0	1.252746E+0	1.365461E+0	1.388260E+0	1.276556E+0	1.291028E+0	1.353823E+0	1.391565E+0	1.353052E+0	1.362781E+0	1.318460E+0	1.325142E+0	1.178175E+0	1.316586E+0	1.354990E+0	1.383930E+0	1.182660E+0	1.277311E+0	1.378470E+0	1.424784E+0	1.322344E+0	1.302403E+0	1.319673E+0	1.399742E+0	1.411485E+0	1.344814E+0	1.334673E+0	1.364250E+0	1.236615E+0	1.267447E+0	1.374290E+0	1.371677E+0	1.250067E+0	1.219066E+0	1.321200E+0	1.381946E+0	1.339427E+0	1.269926E+0	1.339133E+0	1.329034E+0	1.279099E+0	1.338601E+0	1.316001E+0	1.328458E+0	1.187801E+0	1.329514E+0	1.332346E+0	1.325536E+0	1.213164E+0	1.245389E+0	1.393520E+0	1.369148E+0	1.224352E+0	1.341048E+0	1.324607E+0	1.329789E+0	1.355908E+0	1.371376E+0	1.362974E+0	1.294230E+0	1.191090E+0	1.285516E+0	1.349569E+0	1.309638E+0	1.162461E+0	1.276188E+0	1.381352E+0	1.407885E+0	1.243424E+0	1.284162E+0	1.314904E+0	1.323757E+0	1.309044E+0	1.322001E+0	1.374068E+0	1.264917E+0	9.884783E-1	1.325399E+0	1.326158E+0	1.222453E+0	1.100362E+0	1.328672E+0	1.343682E+0	1.271236E+0	1.231298E+0	1.352480E+0	1.266037E+0	1.366413E+0	1.383338E+0	1.367799E+0	1.344540E+0	1.314913E+0	1.215473E+0	1.309364E+0	1.348305E+0	1.263980E+0	1.153293E+0	1.250558E+0	1.357203E+0	1.314092E+0	1.227418E+0	1.304773E+0	1.344678E+0	1.305551E+0	1.296952E+0	1.401061E+0	1.308916E+0	1.276500E+0	1.191445E+0	1.410578E+0	1.183377E+0
5.512510E+2	1.381522E+0	1.407860E+0	1.378212E+0	1.308035E+0	1.405216E+0	1.374576E+0	1.385052E+0	1.392758E+0	1.394684E+0	1.273905E+0	1.239301E+0	1.460915E+0	1.385018E+0	1.283568E+0	1.215354E+0	1.351017E+0	1.461789E+0	1.292004E+0	1.273315E+0	1.328857E+0	1.369819E+0	1.340514E+0	1.380587E+0	1.397211E+0	1.435053E+0	1.165610E+0	1.266900E+0	1.375239E+0	1.400763E+0	1.287454E+0	1.264498E+0	1.358698E+0	1.409647E+0	1.322311E+0	1.305698E+0	1.339805E+0	1.400636E+0	1.396242E+0	1.377933E+0	1.310935E+0	1.403357E+0	1.246256E+0	1.282109E+0	1.421115E+0	1.362385E+0	1.235034E+0	1.269804E+0	1.371519E+0	1.361681E+0	1.310678E+0	1.272097E+0	1.434888E+0	1.389851E+0	1.392152E+0	1.390687E+0	1.378505E+0	1.419000E+0	1.316452E+0	1.305182E+0	1.382201E+0	1.401220E+0	1.224320E+0	1.278777E+0	1.377187E+0	1.382597E+0	1.331337E+0	1.258173E+0	1.330862E+0	1.382784E+0	1.367101E+0	1.364321E+0	1.361976E+0	1.357843E+0	1.229923E+0	1.255383E+0	1.370283E+0	1.407300E+0	1.252975E+0	1.256756E+0	1.385214E+0	1.420057E+0	1.325515E+0	1.405620E+0	1.410963E+0	1.430501E+0	1.364049E+0	1.364454E+0	1.393080E+0	1.369176E+0	1.267401E+0	1.312681E+0	1.395007E+0	1.371199E+0	1.290078E+0	1.272302E+0	1.391853E+0	1.386450E+0	1.295510E+0	1.290100E+0	1.406162E+0	1.376378E+0	1.345797E+0	1.302089E+0	1.396363E+0	1.431538E+0	1.165569E+0	1.328931E+0	1.388040E+0	1.356894E+0	1.222551E+0	1.346721E+0	1.426311E+0	1.413836E+0	1.279262E+0	1.425076E+0	1.340232E+0	1.359382E+0	1.383577E+0	1.358408E+0	1.372214E+0	1.365289E+0	1.161743E+0	1.303939E+0	1.336780E+0	1.362184E+0	1.205688E+0	1.234039E+0	1.372428E+0	1.337553E+0	1.273397E+0	1.292854E+0	1.364138E+0	1.429016E+0	1.346729E+0	1.332183E+0	1.345706E+0	1.380002E+0	1.038848E+0	1.341268E+0	1.365420E+0	1.402934E+0	1.094292E+0	1.360531E+0	1.351770E+0	1.401550E+0	1.238246E+0	1.349198E+0	1.366183E+0	1.369555E+0	1.307332E+0	1.351908E+0	1.341209E+0	1.302010E+0	1.218357E+0	1.322451E+0	1.404589E+0	1.315493E+0	1.192632E+0	1.303013E+0	1.369336E+0	1.338846E+0	1.250488E+0	1.331139E+0	1.398102E+0	1.424338E+0	1.304133E+0	1.340453E+0	1.390948E+0	1.291981E+0	1.179620E+0	1.226114E+0	1.420845E+0
5.520100E+2	1.300487E+0	1.282020E+0	1.304073E+0	1.342712E+0	1.359263E+0	1.339720E+0	1.319731E+0	1.300736E+0	1.328656E+0	1.275590E+0	1.225168E+0	1.366515E+0	1.370951E+0	1.244266E+0	1.154262E+0	1.345493E+0	1.316892E+0	1.270940E+0	1.222463E+0	1.323446E+0	1.366257E+0	1.360003E+0	1.284836E+0	1.367415E+0	1.374825E+0	1.274668E+0	1.204251E+0	1.337203E+0	1.326366E+0	1.225957E+0	1.200847E+0	1.350378E+0	1.331708E+0	1.280478E+0	1.287379E+0	1.320964E+0	1.346886E+0	1.352697E+0	1.330192E+0	1.348452E+0	1.343847E+0	1.226487E+0	1.291784E+0	1.323997E+0	1.317866E+0	1.214079E+0	1.212152E+0	1.363238E+0	1.394555E+0	1.294897E+0	1.311275E+0	1.291238E+0	1.283161E+0	1.294168E+0	1.333188E+0	1.314631E+0	1.334023E+0	1.246329E+0	1.279564E+0	1.332111E+0	1.337630E+0	1.298294E+0	1.226257E+0	1.345066E+0	1.310117E+0	1.258111E+0	1.200799E+0	1.307286E+0	1.322341E+0	1.370006E+0	1.370987E+0	1.323447E+0	1.299648E+0	1.234421E+0	1.226483E+0	1.279102E+0	1.335389E+0	1.181740E+0	1.196590E+0	1.378950E+0	1.310186E+0	1.298043E+0	1.278017E+0	1.227142E+0	1.310494E+0	1.329230E+0	1.336855E+0	1.289626E+0	1.321157E+0	1.224999E+0	1.239965E+0	1.312783E+0	1.322414E+0	1.256111E+0	1.264560E+0	1.292732E+0	1.350974E+0	1.227533E+0	1.208878E+0	1.302573E+0	1.352192E+0	1.328618E+0	1.319331E+0	1.338052E+0	1.351775E+0	1.149607E+0	1.306273E+0	1.329847E+0	1.335989E+0	1.172021E+0	1.242975E+0	1.302216E+0	1.350169E+0	1.199284E+0	1.331445E+0	1.317109E+0	1.351220E+0	1.302581E+0	1.271131E+0	1.355190E+0	1.259295E+0	1.146267E+0	1.284329E+0	1.350848E+0	1.387411E+0	1.136169E+0	1.240640E+0	1.319952E+0	1.328838E+0	1.205681E+0	1.322730E+0	1.336445E+0	1.319978E+0	1.298960E+0	1.297059E+0	1.293373E+0	1.385615E+0	9.563785E-1	1.269566E+0	1.315764E+0	1.332915E+0	1.140692E+0	1.293099E+0	1.360867E+0	1.343429E+0	1.256193E+0	1.311498E+0	1.273517E+0	1.351223E+0	1.264641E+0	1.337044E+0	1.301251E+0	1.285421E+0	1.238541E+0	1.308770E+0	1.371189E+0	1.278424E+0	1.151081E+0	1.209869E+0	1.366806E+0	1.344738E+0	1.121592E+0	1.241487E+0	1.300752E+0	1.334298E+0	1.229934E+0	1.333002E+0	1.319238E+0	1.336486E+0	1.222194E+0	1.243965E+0	1.171502E+0
5.527700E+2	1.330722E+0	1.295459E+0	1.296362E+0	1.315209E+0	1.288332E+0	1.295502E+0	1.340306E+0	1.269429E+0	1.281164E+0	1.208265E+0	1.140368E+0	1.285858E+0	1.330568E+0	1.224391E+0	1.098887E+0	1.301315E+0	1.313910E+0	1.166751E+0	1.133056E+0	1.254910E+0	1.311302E+0	1.317030E+0	1.258425E+0	1.316992E+0	1.291106E+0	1.190699E+0	1.235576E+0	1.269859E+0	1.298813E+0	1.156134E+0	1.150368E+0	1.265720E+0	1.294181E+0	1.275100E+0	1.219112E+0	1.335551E+0	1.304477E+0	1.296999E+0	1.237021E+0	1.239929E+0	1.279249E+0	1.110068E+0	1.232592E+0	1.306612E+0	1.299317E+0	1.163051E+0	1.203979E+0	1.264352E+0	1.305495E+0	1.218918E+0	1.265082E+0	1.313478E+0	1.217048E+0	1.288348E+0	1.196752E+0	1.306764E+0	1.264760E+0	1.181952E+0	1.251277E+0	1.265527E+0	1.317042E+0	1.150345E+0	1.197032E+0	1.251268E+0	1.278974E+0	1.244697E+0	1.200799E+0	1.224758E+0	1.275852E+0	1.278930E+0	1.249451E+0	1.261799E+0	1.247552E+0	1.105618E+0	1.214582E+0	1.312048E+0	1.261230E+0	1.116478E+0	1.189569E+0	1.326919E+0	1.258205E+0	1.193432E+0	1.281421E+0	1.305484E+0	1.269652E+0	1.302992E+0	1.290137E+0	1.320317E+0	1.317465E+0	1.113467E+0	1.223932E+0	1.295951E+0	1.323833E+0	1.207725E+0	1.182287E+0	1.326790E+0	1.308182E+0	1.221517E+0	1.208366E+0	1.305621E+0	1.267804E+0	1.292236E+0	1.214351E+0	1.278272E+0	1.264649E+0	1.155878E+0	1.241778E+0	1.259135E+0	1.305627E+0	1.149660E+0	1.226570E+0	1.259340E+0	1.281606E+0	1.164069E+0	1.257019E+0	1.255243E+0	1.299174E+0	1.264846E+0	1.281108E+0	1.279323E+0	1.282387E+0	1.087038E+0	1.210043E+0	1.224875E+0	1.272852E+0	1.097397E+0	1.182245E+0	1.274295E+0	1.344400E+0	1.177928E+0	1.201592E+0	1.242896E+0	1.269779E+0	1.241631E+0	1.293496E+0	1.303156E+0	1.291863E+0	9.282299E-1	1.273680E+0	1.252253E+0	1.298392E+0	1.038786E+0	1.255399E+0	1.297191E+0	1.230244E+0	1.167621E+0	1.328437E+0	1.277548E+0	1.299886E+0	1.259437E+0	1.250419E+0	1.281751E+0	1.305082E+0	1.143969E+0	1.249290E+0	1.277791E+0	1.236540E+0	1.083890E+0	1.188301E+0	1.264699E+0	1.347099E+0	1.119588E+0	1.192265E+0	1.260980E+0	1.254565E+0	1.189723E+0	1.303693E+0	1.235039E+0	1.348098E+0	1.145325E+0	1.192397E+0	1.189314E+0
5.535100E+2	1.238200E+0	1.238648E+0	1.223409E+0	1.229117E+0	1.230387E+0	1.190411E+0	1.261101E+0	1.218197E+0	1.239462E+0	1.238561E+0	1.090901E+0	1.243435E+0	1.257517E+0	1.202313E+0	1.090098E+0	1.233672E+0	1.222082E+0	1.219701E+0	1.055942E+0	1.205611E+0	1.248205E+0	1.224586E+0	1.210785E+0	1.272530E+0	1.238104E+0	1.165098E+0	1.119069E+0	1.186927E+0	1.265747E+0	1.157520E+0	1.082328E+0	1.204554E+0	1.194881E+0	1.171713E+0	1.116432E+0	1.187865E+0	1.195989E+0	1.220034E+0	1.200400E+0	1.206430E+0	1.190743E+0	1.135329E+0	1.197874E+0	1.225678E+0	1.213060E+0	1.163507E+0	1.156314E+0	1.212226E+0	1.260068E+0	1.223008E+0	1.195498E+0	1.216109E+0	1.261123E+0	1.225773E+0	1.216243E+0	1.199384E+0	1.205393E+0	1.121599E+0	1.129581E+0	1.271024E+0	1.231034E+0	1.113359E+0	1.097018E+0	1.281857E+0	1.203096E+0	1.154707E+0	1.141342E+0	1.168913E+0	1.215413E+0	1.218374E+0	1.164327E+0	1.216924E+0	1.181044E+0	1.072432E+0	1.170949E+0	1.210864E+0	1.250442E+0	1.055814E+0	1.096820E+0	1.231043E+0	1.200906E+0	1.192901E+0	1.173098E+0	1.206170E+0	1.213683E+0	1.213676E+0	1.220597E+0	1.207952E+0	1.272522E+0	1.137864E+0	1.108849E+0	1.218906E+0	1.227205E+0	1.110945E+0	1.112599E+0	1.223602E+0	1.193319E+0	1.176398E+0	1.163873E+0	1.177049E+0	1.236413E+0	1.216947E+0	1.193051E+0	1.279252E+0	1.165865E+0	1.072080E+0	1.124405E+0	1.193430E+0	1.209059E+0	9.998505E-1	1.154675E+0	1.246728E+0	1.227120E+0	1.116917E+0	1.241414E+0	1.174628E+0	1.210390E+0	1.202464E+0	1.189345E+0	1.194212E+0	1.165143E+0	1.047550E+0	1.157153E+0	1.221038E+0	1.282835E+0	1.056398E+0	1.116229E+0	1.229687E+0	1.223029E+0	1.176262E+0	1.167371E+0	1.159811E+0	1.189349E+0	1.195452E+0	1.200850E+0	1.206813E+0	1.217199E+0	9.109462E-1	1.184347E+0	1.157562E+0	1.220975E+0	9.793773E-1	1.201769E+0	1.238574E+0	1.249210E+0	1.103364E+0	1.231181E+0	1.215386E+0	1.275262E+0	1.188633E+0	1.150980E+0	1.226574E+0	1.193263E+0	1.136473E+0	1.152930E+0	1.227071E+0	1.182136E+0	1.034379E+0	1.146142E+0	1.262680E+0	1.183830E+0	1.096016E+0	1.216876E+0	1.250296E+0	1.237752E+0	1.138024E+0	1.199371E+0	1.263830E+0	1.227155E+0	1.047172E+0	1.138842E+0	1.230870E+0
5.542580E+2	1.125718E+0	1.118306E+0	1.165282E+0	1.139436E+0	1.114000E+0	1.163877E+0	1.115550E+0	1.140882E+0	1.190231E+0	1.185263E+0	1.058285E+0	1.196235E+0	1.133648E+0	1.097644E+0	9.916493E-1	1.141634E+0	1.118329E+0	1.057439E+0	1.027443E+0	1.108217E+0	1.156102E+0	1.122647E+0	1.148053E+0	1.141893E+0	1.120056E+0	1.123625E+0	1.064114E+0	1.078429E+0	1.160121E+0	1.117293E+0	1.008144E+0	1.090041E+0	1.119828E+0	1.135258E+0	1.054825E+0	1.106426E+0	1.156540E+0	1.208389E+0	1.113723E+0	1.141674E+0	1.119022E+0	1.154001E+0	1.053880E+0	1.164530E+0	1.103155E+0	1.102915E+0	1.038283E+0	1.138185E+0	1.141723E+0	1.174497E+0	1.122990E+0	1.140978E+0	1.113867E+0	1.090439E+0	1.142662E+0	1.136435E+0	1.086076E+0	1.173905E+0	1.077274E+0	1.114641E+0	1.184368E+0	1.172803E+0	1.051351E+0	1.162054E+0	1.120989E+0	1.125081E+0	1.031815E+0	1.116171E+0	1.146708E+0	1.120520E+0	1.114071E+0	1.084111E+0	1.121744E+0	1.092682E+0	1.084246E+0	1.103798E+0	1.112913E+0	1.092581E+0	1.019610E+0	1.141912E+0	1.154831E+0	1.147465E+0	1.102208E+0	1.133379E+0	1.101743E+0	1.115780E+0	1.103281E+0	1.140634E+0	1.079827E+0	1.033885E+0	1.088237E+0	1.182001E+0	1.138155E+0	1.068604E+0	1.022101E+0	1.152946E+0	1.101539E+0	1.083754E+0	1.089382E+0	1.173392E+0	1.170552E+0	1.133570E+0	1.115460E+0	1.107259E+0	1.152981E+0	1.026476E+0	1.047129E+0	1.184043E+0	1.129418E+0	1.001640E+0	1.088571E+0	1.143316E+0	1.070401E+0	1.029179E+0	1.081160E+0	1.118387E+0	1.094054E+0	1.120964E+0	1.151442E+0	1.082353E+0	1.139682E+0	9.440312E-1	1.097725E+0	1.128957E+0	1.104166E+0	9.971277E-1	1.074590E+0	1.149391E+0	1.128423E+0	1.054704E+0	1.104358E+0	1.135809E+0	1.153185E+0	1.125918E+0	1.092422E+0	1.148127E+0	1.066182E+0	8.047737E-1	1.048585E+0	1.119455E+0	1.131226E+0	9.355790E-1	1.126372E+0	1.090005E+0	1.112165E+0	9.939539E-1	1.143212E+0	1.062864E+0	1.146914E+0	1.105335E+0	1.158158E+0	1.134294E+0	1.137967E+0	1.026334E+0	1.058952E+0	1.169547E+0	1.112332E+0	9.738215E-1	1.037801E+0	1.169164E+0	1.154949E+0	9.460574E-1	1.090305E+0	1.111397E+0	1.146630E+0	1.082017E+0	1.117902E+0	1.113897E+0	1.138142E+0	9.525657E-1	1.093223E+0	1.040897E+0
5.550190E+2	1.038031E+0	1.049277E+0	1.034796E+0	1.061115E+0	1.058554E+0	1.029654E+0	1.074404E+0	1.048856E+0	1.058755E+0	1.066326E+0	9.501105E-1	1.073754E+0	1.040636E+0	1.024336E+0	8.927632E-1	1.062483E+0	1.036639E+0	1.059717E+0	9.497702E-1	1.050501E+0	1.037541E+0	1.045693E+0	1.031550E+0	1.063053E+0	1.023690E+0	1.062182E+0	9.443118E-1	1.053487E+0	1.032911E+0	1.072903E+0	9.150859E-1	1.066554E+0	1.080570E+0	1.032470E+0	1.008757E+0	1.021339E+0	1.076159E+0	1.069145E+0	1.022868E+0	1.041188E+0	1.011699E+0	1.041429E+0	1.002656E+0	1.071007E+0	1.010408E+0	1.064189E+0	9.715524E-1	1.065114E+0	1.070596E+0	1.020781E+0	1.013644E+0	1.070055E+0	1.057768E+0	1.081707E+0	1.027666E+0	1.054511E+0	1.059303E+0	1.069294E+0	1.029771E+0	1.033394E+0	1.031568E+0	1.045989E+0	9.335281E-1	1.057549E+0	1.031521E+0	1.040679E+0	9.770518E-1	1.022476E+0	1.052691E+0	1.014910E+0	1.040227E+0	1.057821E+0	1.055237E+0	1.047684E+0	9.777102E-1	1.008497E+0	1.067068E+0	1.059950E+0	9.865191E-1	1.068680E+0	1.114662E+0	1.060290E+0	9.842463E-1	1.071076E+0	1.062917E+0	1.106696E+0	1.028430E+0	1.063910E+0	1.058896E+0	1.025753E+0	9.651376E-1	1.057694E+0	1.062368E+0	1.048597E+0	9.708020E-1	1.019768E+0	1.026651E+0	1.008556E+0	1.015405E+0	1.060663E+0	1.073298E+0	1.032003E+0	1.019102E+0	1.051397E+0	1.030882E+0	1.016215E+0	9.727554E-1	1.018842E+0	1.021903E+0	9.989549E-1	1.043694E+0	1.069670E+0	1.078360E+0	1.039923E+0	1.048150E+0	1.065269E+0	1.038947E+0	1.034433E+0	1.005319E+0	1.050742E+0	1.054411E+0	8.767973E-1	1.034138E+0	1.052862E+0	1.040580E+0	9.320636E-1	9.796317E-1	1.103210E+0	1.036307E+0	1.001974E+0	9.631216E-1	1.038568E+0	1.036046E+0	1.052667E+0	1.046097E+0	1.057653E+0	1.052147E+0	9.469956E-1	1.019787E+0	1.052478E+0	1.033093E+0	8.683652E-1	1.001593E+0	1.072318E+0	1.102376E+0	9.418533E-1	1.045956E+0	1.008185E+0	1.035856E+0	1.064210E+0	1.003360E+0	1.031077E+0	9.954257E-1	9.225373E-1	9.435594E-1	1.039655E+0	1.025194E+0	9.030943E-1	9.868182E-1	1.012468E+0	1.111333E+0	9.290054E-1	1.022918E+0	1.047883E+0	1.045742E+0	9.479814E-1	1.041397E+0	1.045451E+0	1.059772E+0	9.336446E-1	9.623127E-1	1.082454E+0
5.557660E+2	9.848146E-1	1.052943E+0	1.019375E+0	9.923606E-1	9.926181E-1	9.973989E-1	9.957137E-1	9.943072E-1	1.012421E+0	1.029859E+0	9.028179E-1	1.027152E+0	9.875479E-1	1.021688E+0	8.650751E-1	9.598618E-1	9.990725E-1	1.010754E+0	8.681858E-1	9.771539E-1	9.820770E-1	1.042196E+0	9.744769E-1	1.013089E+0	1.007428E+0	9.945953E-1	9.624471E-1	9.381300E-1	9.952552E-1	1.006783E+0	8.474855E-1	9.951063E-1	9.870421E-1	1.003785E+0	9.221735E-1	9.575242E-1	1.047559E+0	9.810402E-1	9.551929E-1	9.473984E-1	9.827055E-1	9.887123E-1	9.770440E-1	1.008060E+0	1.000207E+0	9.890142E-1	9.275163E-1	1.023221E+0	1.009032E+0	1.013768E+0	9.522469E-1	9.817020E-1	1.025210E+0	9.521937E-1	9.419058E-1	9.975824E-1	1.021471E+0	9.928471E-1	9.395682E-1	1.018123E+0	9.931386E-1	1.005478E+0	9.303303E-1	9.856695E-1	9.647037E-1	9.914915E-1	9.160296E-1	9.480157E-1	9.969007E-1	9.674344E-1	1.000741E+0	9.739605E-1	9.887308E-1	9.869379E-1	9.318097E-1	9.608473E-1	9.866151E-1	1.028240E+0	9.353796E-1	9.838870E-1	1.032554E+0	1.003228E+0	9.723371E-1	1.024811E+0	9.827439E-1	1.003757E+0	9.530493E-1	1.004510E+0	9.844037E-1	9.926425E-1	9.359377E-1	9.968351E-1	1.020683E+0	9.918322E-1	8.899819E-1	9.765609E-1	9.951204E-1	1.014572E+0	9.797096E-1	1.018619E+0	9.950828E-1	9.819772E-1	9.658527E-1	9.823057E-1	1.024134E+0	1.006524E+0	9.280156E-1	1.005075E+0	1.014933E+0	9.985106E-1	9.452606E-1	9.788696E-1	9.975511E-1	9.850124E-1	1.043348E+0	9.727818E-1	9.889447E-1	9.886522E-1	1.000332E+0	1.010375E+0	9.448647E-1	1.040613E+0	9.342994E-1	9.889165E-1	1.006422E+0	1.002030E+0	9.395153E-1	9.972013E-1	1.051245E+0	9.919824E-1	9.202073E-1	1.029952E+0	9.788281E-1	1.015511E+0	1.005882E+0	9.696241E-1	1.072919E+0	1.011194E+0	9.827605E-1	9.849232E-1	1.032602E+0	9.655015E-1	9.474332E-1	1.018248E+0	1.011828E+0	9.719558E-1	9.989678E-1	9.598391E-1	1.057334E+0	9.871584E-1	1.003360E+0	1.013953E+0	9.978832E-1	9.231137E-1	9.614038E-1	1.068107E+0	1.037231E+0	8.867384E-1	9.784845E-1	1.025612E+0	1.035889E+0	8.908890E-1	9.449835E-1	1.021171E+0	9.947574E-1	9.963299E-1	9.937078E-1	1.021548E+0	1.008493E+0	8.827935E-1	8.928922E-1	9.459104E-1
5.560080E+2	1.075525E+0	9.607007E-1	9.992090E-1	9.905665E-1	1.010601E+0	9.687847E-1	9.890279E-1	9.810261E-1	9.521849E-1	9.978805E-1	9.147770E-1	1.003850E+0	1.026114E+0	9.881245E-1	8.400234E-1	9.966763E-1	9.972837E-1	9.902578E-1	9.000374E-1	9.807615E-1	9.739356E-1	9.732386E-1	9.494783E-1	1.007588E+0	9.749040E-1	9.961311E-1	8.981496E-1	1.020438E+0	1.004897E+0	1.019730E+0	8.926985E-1	9.990211E-1	9.830011E-1	9.709166E-1	9.610249E-1	9.368604E-1	9.795078E-1	1.024586E+0	9.955204E-1	9.791114E-1	1.007121E+0	9.804754E-1	8.979316E-1	1.020050E+0	9.890771E-1	1.001771E+0	9.470382E-1	9.759685E-1	9.839286E-1	1.020781E+0	9.458143E-1	1.079671E+0	9.711162E-1	9.691714E-1	9.804000E-1	9.813839E-1	1.053482E+0	9.612341E-1	9.251569E-1	1.009570E+0	1.015553E+0	9.781781E-1	9.157177E-1	1.017786E+0	9.828235E-1	1.013850E+0	9.275038E-1	9.480163E-1	9.700387E-1	9.717945E-1	9.622805E-1	9.236466E-1	9.737670E-1	9.655650E-1	9.097096E-1	9.984966E-1	9.663909E-1	9.859569E-1	8.887525E-1	1.016167E+0	9.947495E-1	1.050779E+0	9.666661E-1	9.625088E-1	9.913162E-1	9.871030E-1	1.002949E+0	1.009955E+0	9.813256E-1	1.005421E+0	9.336469E-1	9.974828E-1	1.020211E+0	1.012304E+0	9.509598E-1	1.020276E+0	9.979356E-1	1.048862E+0	9.305647E-1	9.863237E-1	9.889083E-1	9.713658E-1	9.724450E-1	9.690767E-1	1.024747E+0	9.689003E-1	9.402173E-1	1.026351E+0	9.900450E-1	1.035627E+0	9.182391E-1	1.007119E+0	9.822470E-1	9.862062E-1	9.845283E-1	9.459098E-1	9.869031E-1	1.007266E+0	1.003325E+0	1.004053E+0	9.424964E-1	9.765806E-1	9.592594E-1	9.633380E-1	1.001693E+0	9.846501E-1	8.973675E-1	9.924779E-1	9.933613E-1	9.892075E-1	9.538866E-1	9.493277E-1	9.593956E-1	1.000648E+0	9.045815E-1	9.559308E-1	1.024639E+0	1.010700E+0	9.674793E-1	9.739535E-1	1.003999E+0	1.024910E+0	1.015399E+0	9.702413E-1	9.898031E-1	9.985851E-1	1.020277E+0	9.753784E-1	9.923753E-1	9.767463E-1	9.726057E-1	9.173938E-1	9.358296E-1	1.011918E+0	9.459388E-1	1.040274E+0	9.987156E-1	1.011837E+0	9.132848E-1	1.001348E+0	1.000524E+0	1.019281E+0	9.508431E-1	1.002177E+0	9.768584E-1	1.005425E+0	9.658887E-1	9.514715E-1	1.015266E+0	1.027068E+0	9.464466E-1	1.106202E+0
5.565090E+2	1.019285E+0	9.387092E-1	1.003360E+0	9.744250E-1	9.651447E-1	9.713867E-1	9.756558E-1	9.667963E-1	9.504473E-1	9.754394E-1	8.718330E-1	1.051648E+0	1.012504E+0	1.006233E+0	8.343101E-1	9.736671E-1	1.015172E+0	9.612220E-1	8.720974E-1	9.729458E-1	9.688472E-1	9.782353E-1	9.612698E-1	1.019966E+0	9.911665E-1	1.000227E+0	9.217803E-1	1.025427E+0	1.008571E+0	9.684043E-1	8.681171E-1	9.985333E-1	1.028610E+0	9.930281E-1	9.177329E-1	9.028263E-1	9.656987E-1	1.000281E+0	9.463846E-1	9.965256E-1	9.898273E-1	9.436835E-1	9.480171E-1	9.816813E-1	9.283269E-1	1.003138E+0	9.016421E-1	1.019810E+0	9.958822E-1	9.769457E-1	9.493227E-1	1.018966E+0	9.901505E-1	9.570444E-1	9.735786E-1	9.577777E-1	9.964425E-1	9.658322E-1	9.347648E-1	9.936874E-1	1.006405E+0	9.891872E-1	9.371815E-1	9.596702E-1	9.601734E-1	9.914917E-1	9.019469E-1	9.728357E-1	9.814039E-1	1.026535E+0	1.017151E+0	9.920946E-1	9.687790E-1	9.560029E-1	9.573100E-1	9.884963E-1	1.005043E+0	9.786038E-1	9.128178E-1	9.838866E-1	9.622603E-1	9.678299E-1	9.558899E-1	1.043317E+0	9.842568E-1	9.825632E-1	9.721600E-1	9.985683E-1	9.788631E-1	9.670828E-1	9.158980E-1	9.605787E-1	1.016421E+0	1.006720E+0	8.633651E-1	9.780860E-1	9.872375E-1	1.019384E+0	9.207359E-1	1.035680E+0	9.518597E-1	9.976420E-1	9.501310E-1	9.867144E-1	9.682994E-1	1.006524E+0	9.431222E-1	9.675298E-1	9.875559E-1	9.900139E-1	9.534634E-1	1.017712E+0	9.675546E-1	1.007693E+0	9.473159E-1	9.709073E-1	9.874140E-1	9.886521E-1	9.714074E-1	9.894636E-1	9.661819E-1	9.888538E-1	9.669844E-1	9.742084E-1	1.012729E+0	9.980185E-1	9.049849E-1	9.993002E-1	1.007676E+0	9.747756E-1	9.207510E-1	9.782542E-1	9.896240E-1	9.820707E-1	9.814479E-1	9.485952E-1	9.651308E-1	9.983542E-1	9.563130E-1	9.306493E-1	9.901911E-1	9.811129E-1	9.203539E-1	9.530600E-1	1.016723E+0	9.725351E-1	9.661846E-1	9.575366E-1	9.991849E-1	1.012147E+0	9.802945E-1	1.026796E+0	9.573340E-1	9.975014E-1	9.328528E-1	1.036562E+0	9.654980E-1	1.030846E+0	9.024999E-1	9.841619E-1	9.875574E-1	9.937033E-1	9.068948E-1	9.908980E-1	9.828242E-1	1.004468E+0	9.693661E-1	9.460389E-1	9.901104E-1	9.880434E-1	9.484295E-1	9.755938E-1
5.570500E+2	9.624392E-1	1.007737E+0	9.873468E-1	9.959480E-1	1.031580E+0	1.012486E+0	1.037374E+0	1.007117E+0	1.040801E+0	9.922703E-1	9.077099E-1	1.027151E+0	9.893630E-1	1.001373E+0	8.646352E-1	9.962151E-1	9.871466E-1	9.965211E-1	9.547991E-1	1.014429E+0	1.001922E+0	9.902281E-1	9.744773E-1	9.851273E-1	9.767113E-1	1.044261E+0	9.399153E-1	9.886373E-1	1.060007E+0	9.970705E-1	8.839192E-1	9.990209E-1	9.645264E-1	1.013944E+0	9.316085E-1	9.964210E-1	1.006135E+0	1.014965E+0	9.774408E-1	1.029127E+0	9.933876E-1	9.969492E-1	9.747677E-1	1.022448E+0	9.872215E-1	1.045508E+0	9.842620E-1	9.784044E-1	9.916987E-1	1.022534E+0	9.961015E-1	1.052624E+0	9.876453E-1	1.009917E+0	9.998919E-1	9.943428E-1	9.848027E-1	9.796269E-1	9.016726E-1	1.054164E+0	1.004576E+0	1.021771E+0	9.033874E-1	1.021354E+0	9.884863E-1	9.825481E-1	9.916552E-1	9.678719E-1	9.731386E-1	1.009581E+0	1.028432E+0	9.630823E-1	1.009791E+0	9.683773E-1	9.414436E-1	1.018498E+0	1.014033E+0	1.002961E+0	9.504202E-1	1.001714E+0	1.011289E+0	1.003757E+0	1.008066E+0	1.003838E+0	9.928284E-1	1.002747E+0	1.040639E+0	1.021836E+0	9.782474E-1	9.531415E-1	9.485336E-1	9.521616E-1	1.016893E+0	1.004394E+0	8.899824E-1	9.963852E-1	9.996247E-1	9.923128E-1	9.548786E-1	9.954640E-1	1.040365E+0	1.036550E+0	9.602736E-1	1.047475E+0	9.995908E-1	9.734610E-1	9.169760E-1	9.775423E-1	9.990047E-1	1.010137E+0	9.399526E-1	9.899662E-1	1.056321E+0	1.041713E+0	9.569190E-1	1.017150E+0	9.639422E-1	1.019341E+0	1.025268E+0	1.020588E+0	1.050267E+0	1.037411E+0	9.616363E-1	1.048385E+0	9.664848E-1	9.793026E-1	9.202189E-1	9.977260E-1	9.970956E-1	1.058589E+0	9.799610E-1	1.008411E+0	9.653329E-1	9.857863E-1	9.707582E-1	9.867411E-1	1.003867E+0	1.013663E+0	9.980408E-1	1.040353E+0	9.975885E-1	9.811134E-1	9.538057E-1	9.965188E-1	1.002040E+0	1.000321E+0	1.024102E+0	1.031209E+0	9.949944E-1	9.949674E-1	1.018738E+0	1.030124E+0	1.017545E+0	1.025180E+0	9.869804E-1	1.027903E+0	9.765705E-1	9.826623E-1	9.456398E-1	1.004886E+0	1.003471E+0	9.957092E-1	9.818997E-1	1.033637E+0	1.018080E+0	1.003989E+0	1.003643E+0	1.023178E+0	1.085896E+0	1.008147E+0	9.087605E-1	9.934037E-1
5.575530E+2	1.001143E+0	9.973534E-1	1.013444E+0	1.002524E+0	9.771337E-1	1.007804E+0	9.987998E-1	9.843468E-1	9.834608E-1	1.004613E+0	9.653306E-1	1.021775E+0	9.675831E-1	9.925428E-1	9.529738E-1	9.906950E-1	1.033060E+0	1.010185E+0	9.436237E-1	1.004810E+0	1.005993E+0	1.013714E+0	1.035794E+0	9.608346E-1	1.020076E+0	9.756508E-1	9.217807E-1	1.024803E+0	9.465747E-1	9.905984E-1	9.067453E-1	9.926586E-1	9.708768E-1	9.984061E-1	9.121832E-1	9.879121E-1	9.972614E-1	1.018003E+0	1.008498E+0	1.000545E+0	9.862666E-1	1.015620E+0	9.838741E-1	9.900753E-1	9.881485E-1	9.753485E-1	9.116289E-1	9.920437E-1	1.009630E+0	1.029548E+0	9.563395E-1	9.654738E-1	1.006178E+0	1.013312E+0	9.667567E-1	9.698127E-1	1.029037E+0	9.853752E-1	9.635867E-1	1.005295E+0	1.013725E+0	9.530805E-1	8.979066E-1	9.871986E-1	9.799921E-1	1.012173E+0	9.337627E-1	9.957947E-1	1.037192E+0	1.021691E+0	9.186915E-1	9.898259E-1	9.676702E-1	1.001563E+0	9.975445E-1	9.749661E-1	9.565023E-1	9.988253E-1	9.368841E-1	9.944857E-1	9.900236E-1	9.879067E-1	9.037146E-1	9.921176E-1	9.908117E-1	9.674250E-1	9.769373E-1	1.029260E+0	1.019495E+0	1.014136E+0	9.439531E-1	9.981296E-1	1.013105E+0	1.000207E+0	8.788517E-1	1.013668E+0	1.035660E+0	1.001337E+0	8.964219E-1	1.010697E+0	9.873647E-1	1.011285E+0	9.754879E-1	9.955357E-1	1.008794E+0	1.007664E+0	9.599729E-1	9.894314E-1	9.960180E-1	9.757017E-1	9.549102E-1	9.970297E-1	9.871441E-1	9.897871E-1	9.815270E-1	9.671572E-1	1.024151E+0	1.002740E+0	1.013299E+0	1.009403E+0	1.028949E+0	9.835175E-1	9.901613E-1	9.901953E-1	1.018509E+0	1.017182E+0	9.039688E-1	9.861802E-1	1.032573E+0	9.958682E-1	9.430226E-1	9.727151E-1	1.022552E+0	1.007018E+0	9.768665E-1	1.033201E+0	1.000499E+0	9.884775E-1	9.833480E-1	9.912749E-1	9.862482E-1	1.021006E+0	1.016460E+0	1.005109E+0	1.002039E+0	1.053579E+0	9.536176E-1	1.008186E+0	1.037428E+0	1.006421E+0	9.849079E-1	9.963522E-1	9.333718E-1	9.836616E-1	9.834119E-1	9.635750E-1	9.939016E-1	9.919450E-1	9.255408E-1	1.007920E+0	1.004060E+0	1.016774E+0	9.086534E-1	1.017016E+0	1.018623E+0	9.857986E-1	9.951980E-1	9.889541E-1	1.028810E+0	1.018790E+0	9.285952E-1	1.135884E+0
5.580110E+2	1.006584E+0	1.013846E+0	1.048438E+0	1.019862E+0	1.014097E+0	1.023411E+0	9.483974E-1	9.867183E-1	1.002574E+0	1.006857E+0	1.030019E+0	1.005643E+0	9.816491E-1	9.881247E-1	1.033402E+0	1.033952E+0	1.007420E+0	1.018725E+0	1.009003E+0	1.011423E+0	1.013626E+0	9.907277E-1	1.019758E+0	1.003920E+0	1.012849E+0	1.005348E+0	1.042681E+0	1.023556E+0	9.860689E-1	9.785745E-1	1.051165E+0	1.029361E+0	9.864650E-1	1.028287E+0	1.012642E+0	9.660331E-1	9.637286E-1	1.025093E+0	9.996922E-1	9.880427E-1	1.034080E+0	1.004637E+0	1.010055E+0	1.046428E+0	1.009481E+0	1.004050E+0	9.638352E-1	1.011043E+0	9.899056E-1	1.002662E+0	1.006627E+0	1.022573E+0	1.075798E+0	9.909982E-1	1.014511E+0	1.011469E+0	1.030783E+0	1.019287E+0	9.571819E-1	1.008349E+0	1.026076E+0	9.905092E-1	9.718897E-1	9.994336E-1	9.964140E-1	1.000994E+0	9.671419E-1	9.480162E-1	9.798540E-1	1.022661E+0	1.001766E+0	9.821197E-1	1.009237E+0	1.004937E+0	9.261425E-1	1.011439E+0	1.019426E+0	9.965272E-1	9.083060E-1	1.011349E+0	1.001838E+0	1.003757E+0	9.604273E-1	1.044552E+0	1.011989E+0	1.000729E+0	9.795921E-1	1.024311E+0	9.647036E-1	1.011230E+0	9.136082E-1	9.877706E-1	1.002686E+0	1.014166E+0	8.861108E-1	1.027901E+0	9.686564E-1	1.022392E+0	1.009196E+0	1.041774E+0	9.786164E-1	1.013812E+0	1.014031E+0	9.994546E-1	1.002045E+0	9.968331E-1	9.431231E-1	1.010708E+0	9.775996E-1	1.011030E+0	9.568415E-1	1.011154E+0	1.018977E+0	9.987403E-1	9.587198E-1	1.008402E+0	9.971089E-1	1.026887E+0	9.918544E-1	1.008429E+0	1.030726E+0	9.973911E-1	9.776818E-1	9.486307E-1	9.995911E-1	9.913348E-1	9.440858E-1	1.035512E+0	1.003942E+0	9.858771E-1	9.707272E-1	1.025028E+0	9.712706E-1	1.035151E+0	1.005882E+0	1.018040E+0	1.056639E+0	1.032922E+0	1.019786E+0	1.038044E+0	1.014356E+0	1.011469E+0	9.872564E-1	9.712519E-1	9.989808E-1	1.002637E+0	9.896796E-1	1.010488E+0	9.708965E-1	9.757046E-1	1.037702E+0	1.006818E+0	1.023074E+0	1.004998E+0	9.156039E-1	1.016769E+0	9.881246E-1	1.022446E+0	9.279915E-1	1.002359E+0	1.017617E+0	9.982166E-1	9.953772E-1	1.000989E+0	1.002893E+0	1.001117E+0	9.852622E-1	1.037302E+0	1.055902E+0	1.036528E+0	9.444633E-1	9.755940E-1
5.585100E+2	1.004166E+0	9.906335E-1	1.022934E+0	1.024646E+0	1.010102E+0	1.017168E+0	1.038402E+0	1.023242E+0	1.022846E+0	1.029859E+0	1.002295E+0	9.913035E-1	1.018402E+0	1.018598E+0	1.063286E+0	1.021525E+0	1.027098E+0	9.970899E-1	9.961507E-1	1.019239E+0	1.009555E+0	1.027206E+0	1.025889E+0	9.878793E-1	1.021883E+0	9.894749E-1	1.030592E+0	9.905084E-1	1.000307E+0	1.038686E+0	9.932195E-1	1.012723E+0	9.853100E-1	1.044422E+0	1.042058E+0	1.048081E+0	1.058408E+0	9.886357E-1	1.018232E+0	1.017962E+0	1.010681E+0	9.920072E-1	1.013470E+0	9.876773E-1	9.881479E-1	9.967601E-1	1.065975E+0	1.030526E+0	1.009630E+0	1.023119E+0	1.003703E+0	1.000935E+0	1.048751E+0	9.929384E-1	1.019383E+0	1.021189E+0	1.029037E+0	1.017563E+0	1.062863E+0	1.005294E+0	1.011439E+0	1.014286E+0	1.051807E+0	1.026452E+0	1.041714E+0	1.011055E+0	1.090750E+0	9.852458E-1	1.008782E+0	9.819682E-1	1.027920E+0	9.540181E-1	1.002586E+0	1.022373E+0	1.036079E+0	1.020851E+0	1.005943E+0	1.005720E+0	1.024623E+0	1.029173E+0	1.001838E+0	1.018022E+0	9.904852E-1	1.053804E+0	1.013502E+0	1.031005E+0	1.013566E+0	1.021833E+0	1.008414E+0	1.019944E+0	1.044150E+0	1.041508E+0	1.005053E+0	1.028124E+0	1.016293E+0	1.048234E+0	1.018206E+0	1.054276E+0	9.864350E-1	1.005213E+0	1.016695E+0	1.038571E+0	1.007439E+0	1.011706E+0	1.064628E+0	1.073790E+0	9.204625E-1	1.066400E+0	1.024888E+0	1.034734E+0	9.795194E-1	9.758427E-1	1.004898E+0	9.945620E-1	9.605202E-1	1.061519E+0	1.018029E+0	9.896596E-1	1.001828E+0	1.020590E+0	1.036647E+0	1.024071E+0	9.788700E-1	1.001066E+0	1.014305E+0	9.944544E-1	9.430696E-1	9.977261E-1	1.003942E+0	1.026951E+0	1.000604E+0	1.011488E+0	1.037126E+0	1.036743E+0	1.044061E+0	1.016574E+0	1.004990E+0	1.020082E+0	9.686553E-1	9.878106E-1	9.803296E-1	1.040955E+0	9.877877E-1	1.033408E+0	9.916388E-1	1.011900E+0	9.940505E-1	1.024877E+0	9.829452E-1	1.022039E+0	9.895206E-1	1.011098E+0	9.855960E-1	9.975016E-1	9.649724E-1	9.988316E-1	1.048784E+0	1.017584E+0	9.348546E-1	1.001854E+0	1.023511E+0	1.027306E+0	9.994789E-1	1.019390E+0	1.026758E+0	9.992019E-1	1.014572E+0	1.022635E+0	9.814018E-1	1.044807E+0	1.003966E+0	1.017151E+0
5.590100E+2	9.829999E-1	1.019344E+0	9.802296E-1	1.017471E+0	1.004607E+0	1.001041E+0	1.042003E+0	1.082537E+0	1.004312E+0	1.027615E+0	1.090900E+0	1.020579E+0	1.047894E+0	1.024777E+0	1.066365E+0	1.014623E+0	1.039023E+0	1.040929E+0	1.050354E+0	9.837671E-1	1.009046E+0	1.004719E+0	9.725905E-1	1.058468E+0	1.055611E+0	1.023781E+0	1.031142E+0	1.002979E+0	1.019595E+0	1.024353E+0	1.032288E+0	1.037191E+0	1.062095E+0	9.727090E-1	1.055379E+0	1.024986E+0	9.992327E-1	9.921794E-1	9.927381E-1	1.018857E+0	1.039166E+0	9.903596E-1	1.018592E+0	1.003264E+0	1.028493E+0	1.027740E+0	1.049632E+0	1.033449E+0	1.034734E+0	1.068708E+0	1.049898E+0	9.919198E-1	9.916519E-1	1.054060E+0	1.034976E+0	1.037850E+0	1.004591E+0	1.032508E+0	1.050053E+0	1.024842E+0	1.015553E+0	1.061401E+0	1.099303E+0	9.928063E-1	1.000377E+0	1.004347E+0	1.053199E+0	9.771795E-1	1.039775E+0	1.019271E+0	1.024330E+0	1.044220E+0	9.915021E-1	1.061746E+0	1.040612E+0	1.046147E+0	1.048190E+0	1.018129E+0	1.049190E+0	1.017131E+0	1.023103E+0	1.019607E+0	1.073285E+0	9.828649E-1	1.040228E+0	1.021418E+0	9.854309E-1	1.003025E+0	9.936383E-1	1.026915E+0	1.037280E+0	1.077116E+0	1.016892E+0	1.042081E+0	1.079206E+0	1.006552E+0	1.030030E+0	9.875004E-1	1.076448E+0	9.899801E-1	1.081016E+0	1.029476E+0	1.030259E+0	9.872058E-1	1.039473E+0	1.058399E+0	1.065141E+0	9.837995E-1	1.055252E+0	1.019082E+0	1.062515E+0	1.022757E+0	9.779618E-1	1.051264E+0	1.036145E+0	9.915292E-1	1.033336E+0	1.001733E+0	9.908574E-1	1.021561E+0	9.886835E-1	1.015534E+0	1.004424E+0	1.022807E+0	1.017458E+0	1.014508E+0	1.010101E+0	1.006647E+0	1.036307E+0	1.019735E+0	1.002776E+0	9.997946E-1	1.023631E+0	1.002772E+0	1.024208E+0	1.034668E+0	9.870260E-1	9.968723E-1	9.651286E-1	1.006864E+0	1.039012E+0	1.047893E+0	9.739819E-1	9.808530E-1	1.039972E+0	9.586417E-1	1.036668E+0	1.027179E+0	1.039522E+0	1.022559E+0	1.028476E+0	9.977809E-1	1.040892E+0	9.963475E-1	9.917388E-1	1.029758E+0	1.017974E+0	1.055601E+0	9.348547E-1	1.011963E+0	1.022332E+0	1.035330E+0	9.813134E-1	1.016423E+0	9.958421E-1	1.039893E+0	1.008114E+0	1.017202E+0	1.064610E+0	1.044807E+0	1.011902E+0	1.040897E+0
5.595170E+2	1.010213E+0	9.930766E-1	1.006326E+0	9.923601E-1	9.841264E-1	9.958377E-1	1.039431E+0	9.871912E-1	9.996785E-1	1.019200E+0	9.849004E-1	9.757690E-1	1.026114E+0	1.025665E+0	1.044828E+0	1.014624E+0	9.549474E-1	1.019294E+0	1.031355E+0	1.006613E+0	1.056878E+0	9.877307E-1	1.009381E+0	1.016297E+0	1.011644E+0	1.006372E+0	1.021799E+0	1.026674E+0	1.009491E+0	1.011407E+0	1.055553E+0	9.760218E-1	1.047662E+0	9.344620E-1	1.031513E+0	1.009184E+0	1.016000E+0	9.921807E-1	1.019623E+0	1.015283E+0	9.923703E-1	9.985964E-1	1.019161E+0	1.017052E+0	9.918584E-1	1.014529E+0	1.012408E+0	1.023707E+0	1.029952E+0	9.576586E-1	1.034110E+0	1.011753E+0	1.014192E+0	9.584996E-1	1.001353E+0	9.869373E-1	9.632675E-1	1.017563E+0	1.040980E+0	9.527592E-1	9.894789E-1	1.014726E+0	1.016188E+0	1.015747E+0	9.816912E-1	1.034531E+0	1.001043E+0	9.337447E-1	1.038228E+0	1.025084E+0	1.037663E+0	1.008865E+0	1.018104E+0	1.013937E+0	1.026445E+0	1.012027E+0	1.019427E+0	9.758456E-1	1.006573E+0	9.968963E-1	1.035508E+0	1.025948E+0	1.001828E+0	1.018026E+0	1.004930E+0	9.548087E-1	9.854316E-1	9.683750E-1	9.690129E-1	9.740538E-1	1.059609E+0	9.553986E-1	9.880004E-1	9.671715E-1	1.085980E+0	9.979106E-1	9.827328E-1	9.929151E-1	1.030925E+0	9.844952E-1	9.606070E-1	9.809667E-1	1.032288E+0	1.016606E+0	9.701401E-1	9.586395E-1	1.068627E+0	9.975665E-1	1.014933E+0	1.020420E+0	1.035973E+0	1.009640E+0	9.485770E-1	1.002321E+0	1.042748E+0	9.677825E-1	1.019049E+0	9.876463E-1	1.011802E+0	9.768178E-1	1.034279E+0	9.957906E-1	1.067417E+0	9.780452E-1	1.020086E+0	1.001584E+0	1.113183E+0	1.018193E+0	9.603730E-1	9.647847E-1	1.067962E+0	1.003488E+0	1.028489E+0	1.015511E+0	9.727937E-1	9.598435E-1	1.028569E+0	9.855142E-1	9.951027E-1	1.013216E+0	1.012876E+0	9.724394E-1	1.011682E+0	9.823693E-1	9.977564E-1	9.997424E-1	1.045410E+0	9.960988E-1	1.023283E+0	1.000174E+0	9.649170E-1	9.873157E-1	9.739223E-1	9.871216E-1	1.041702E+0	9.691424E-1	1.023270E+0	9.866393E-1	1.106433E+0	1.041280E+0	9.869672E-1	1.016272E+0	1.029950E+0	9.837752E-1	1.000723E+0	9.690444E-1	9.927142E-1	1.021005E+0	9.746292E-1	1.010512E+0	1.021818E+0	1.118073E+0
5.599900E+2	1.014447E+0	1.007127E+0	9.855675E-1	1.003720E+0	9.836268E-1	1.002081E+0	9.874846E-1	9.615780E-1	9.695603E-1	9.860990E-1	1.034911E+0	9.799518E-1	9.907227E-1	9.978414E-1	9.907699E-1	9.906939E-1	9.865506E-1	1.030680E+0	1.014590E+0	9.981967E-1	9.383161E-1	9.977239E-1	9.891000E-1	9.906297E-1	9.664726E-1	9.976672E-1	1.009159E+0	9.705549E-1	1.011326E+0	9.623917E-1	1.054236E+0	9.838520E-1	9.830006E-1	1.003187E+0	1.020413E+0	9.769725E-1	9.967672E-1	9.780023E-1	9.751243E-1	9.804482E-1	9.847412E-1	1.006834E+0	1.012332E+0	9.708907E-1	9.858315E-1	9.735241E-1	9.996973E-1	9.720714E-1	9.636061E-1	9.705168E-1	9.715423E-1	9.817012E-1	9.470741E-1	9.851785E-1	9.453167E-1	1.021188E+0	9.917868E-1	9.997443E-1	9.737279E-1	9.668096E-1	9.739222E-1	9.790605E-1	1.017100E+0	9.928066E-1	9.839562E-1	9.763997E-1	9.734006E-1	1.021235E+0	1.012397E+0	9.756699E-1	1.002792E+0	1.010678E+0	1.033623E+0	9.205673E-1	9.890439E-1	9.708486E-1	9.749321E-1	1.048919E+0	1.032143E+0	1.001231E+0	9.782098E-1	9.905489E-1	1.046630E+0	9.427692E-1	1.009468E+0	9.982054E-1	1.015159E+0	9.644149E-1	1.013954E+0	9.961268E-1	1.025256E+0	1.018848E+0	1.019262E+0	9.885744E-1	1.067109E+0	1.011635E+0	1.021584E+0	1.012165E+0	1.037132E+0	9.936356E-1	9.935396E-1	9.642920E-1	9.668664E-1	1.003866E+0	9.548010E-1	9.318471E-1	1.050034E+0	1.013836E+0	9.920361E-1	9.627332E-1	1.016674E+0	1.026287E+0	1.011020E+0	9.748657E-1	1.034345E+0	9.840299E-1	9.863946E-1	9.846276E-1	1.035741E+0	9.957847E-1	9.768404E-1	9.771145E-1	9.877845E-1	1.031759E+0	9.896069E-1	1.003813E+0	1.088808E+0	1.000874E+0	9.815354E-1	9.875420E-1	1.030481E+0	9.936406E-1	9.971810E-1	9.746396E-1	1.010464E+0	9.603323E-1	9.926395E-1	9.835391E-1	1.026251E+0	9.676022E-1	9.926574E-1	1.015804E+0	1.004248E+0	1.018753E+0	1.002039E+0	9.771659E-1	9.601751E-1	9.696231E-1	9.986610E-1	1.003297E+0	1.005923E+0	9.977810E-1	1.009558E+0	1.019991E+0	1.058357E+0	1.005017E+0	9.866809E-1	1.022005E+0	1.080451E+0	9.796120E-1	9.533712E-1	9.786572E-1	1.069797E+0	9.529090E-1	9.768576E-1	1.011169E+0	1.010597E+0	9.829793E-1	9.378629E-1	9.194537E-1	1.109090E+0	8.924801E-1
5.605090E+2	1.007190E+0	9.912441E-1	9.760778E-1	9.612712E-1	1.005605E+0	9.542181E-1	9.432536E-1	9.715384E-1	9.909905E-1	9.524373E-1	9.914235E-1	1.003253E+0	1.000251E+0	9.391051E-1	9.846189E-1	9.644651E-1	1.002651E+0	9.589446E-1	9.771516E-1	9.963927E-1	9.571436E-1	9.847313E-1	9.971179E-1	9.796274E-1	9.646658E-1	9.705304E-1	1.010258E+0	9.998615E-1	9.663228E-1	9.781138E-1	9.712725E-1	1.004405E+0	9.841552E-1	9.960163E-1	9.848910E-1	9.945977E-1	9.967673E-1	9.952163E-1	1.017769E+0	9.844698E-1	9.862660E-1	1.009579E+0	9.559853E-1	9.714905E-1	1.014118E+0	9.799038E-1	1.002422E+0	9.842492E-1	9.911006E-1	9.529821E-1	9.890851E-1	9.672765E-1	1.017198E+0	1.019134E+0	1.014509E+0	9.531496E-1	9.842202E-1	9.526119E-1	1.033508E+0	1.005294E+0	1.005947E+0	9.913893E-1	1.005682E+0	9.668073E-1	9.947149E-1	9.450987E-1	1.013039E+0	1.070254E+0	9.276802E-1	9.819670E-1	9.868949E-1	1.006144E+0	9.515980E-1	9.813141E-1	1.041745E+0	9.679062E-1	9.866153E-1	9.652760E-1	1.031140E+0	9.467892E-1	9.752560E-1	1.006399E+0	9.814111E-1	1.005072E+0	9.771976E-1	1.010316E+0	1.002419E+0	9.743153E-1	1.013954E+0	9.914806E-1	1.022393E+0	1.012373E+0	9.411068E-1	9.811317E-1	1.012423E+0	9.282705E-1	9.810435E-1	9.291468E-1	9.817786E-1	9.704806E-1	9.544321E-1	9.612598E-1	1.012002E+0	9.759350E-1	9.854790E-1	1.020205E+0	1.012847E+0	9.737874E-1	9.746141E-1	9.645214E-1	1.028255E+0	9.707983E-1	1.031833E+0	9.808341E-1	9.809272E-1	1.009026E+0	9.838417E-1	9.936836E-1	9.619318E-1	9.977303E-1	9.235477E-1	9.733791E-1	9.972928E-1	9.806031E-1	9.780459E-1	9.864329E-1	1.057325E+0	9.699117E-1	9.721987E-1	9.653397E-1	1.005493E+0	9.579444E-1	9.836859E-1	9.624308E-1	1.013518E+0	1.023909E+0	9.415526E-1	9.869957E-1	1.035067E+0	9.843464E-1	9.576456E-1	9.720044E-1	1.007965E+0	1.003088E+0	1.007546E+0	1.000321E+0	9.776593E-1	9.949479E-1	9.740395E-1	9.803910E-1	9.761940E-1	1.010148E+0	1.007713E+0	9.975012E-1	1.007799E+0	1.003161E+0	9.833101E-1	9.362464E-1	1.084373E+0	9.553493E-1	1.002292E+0	9.490665E-1	9.947910E-1	9.992085E-1	9.784849E-1	9.968081E-1	9.708561E-1	9.552740E-1	9.127070E-1	9.572956E-1	9.781813E-1	8.509234E-1
5.610530E+2	1.010818E+0	9.796374E-1	9.796361E-1	9.821970E-1	9.891217E-1	9.859532E-1	9.648552E-1	9.957310E-1	9.857776E-1	9.810493E-1	9.925106E-1	9.745746E-1	9.780208E-1	1.011972E+0	9.991207E-1	9.732074E-1	9.621030E-1	9.276316E-1	1.022973E+0	9.651303E-1	1.007520E+0	1.003220E+0	9.758923E-1	1.017216E+0	9.700864E-1	9.869152E-1	9.926728E-1	9.724251E-1	1.000307E+0	1.018805E+0	1.051603E+0	9.647665E-1	1.015909E+0	1.008566E+0	1.009312E+0	9.958133E-1	9.656995E-1	9.957243E-1	9.908826E-1	9.652654E-1	9.730418E-1	9.854177E-1	1.011762E+0	9.906742E-1	1.006699E+0	9.826371E-1	1.010140E+0	9.745066E-1	9.797440E-1	9.722702E-1	9.925935E-1	1.005743E+0	9.115122E-1	9.759618E-1	1.003302E+0	1.004061E+0	9.824743E-1	9.957214E-1	1.016427E+0	9.771938E-1	9.592829E-1	9.737763E-1	1.036736E+0	9.973952E-1	1.032654E+0	1.032854E+0	9.760084E-1	1.100658E+0	9.829532E-1	9.621060E-1	9.715107E-1	1.041047E+0	1.015888E+0	1.025186E+0	1.000944E+0	9.773186E-1	9.749312E-1	9.877966E-1	1.060721E+0	1.001230E+0	9.829348E-1	9.440549E-1	1.034153E+0	9.569564E-1	9.590451E-1	1.013344E+0	1.000825E+0	9.926296E-1	1.038580E+0	1.012973E+0	1.005216E+0	9.566937E-1	9.970016E-1	9.741502E-1	1.084045E+0	9.694446E-1	9.624623E-1	1.007954E+0	1.026785E+0	1.008260E+0	9.873646E-1	9.637866E-1	1.001352E+0	9.622152E-1	9.750488E-1	9.791614E-1	1.062816E+0	9.869284E-1	9.656544E-1	1.001641E+0	1.025359E+0	9.965253E-1	9.632690E-1	9.659126E-1	1.048149E+0	9.934034E-1	9.741475E-1	9.936831E-1	9.674179E-1	9.490964E-1	9.300607E-1	9.957907E-1	1.034732E+0	9.985079E-1	9.959129E-1	1.011388E+0	1.019240E+0	9.872299E-1	1.012033E+0	9.953129E-1	9.989740E-1	1.027490E+0	9.707314E-1	9.799473E-1	9.814479E-1	9.666903E-1	9.842185E-1	9.919343E-1	1.008620E+0	9.704893E-1	1.019287E+0	9.373156E-1	1.056814E+0	1.008648E+0	9.579887E-1	9.956908E-1	1.018638E+0	9.373919E-1	9.782305E-1	9.944469E-1	9.936213E-1	9.625816E-1	1.008328E+0	9.876985E-1	1.049435E+0	9.858423E-1	9.813850E-1	9.848712E-1	1.059861E+0	9.947775E-1	9.863781E-1	9.826689E-1	1.038740E+0	9.766521E-1	9.817392E-1	9.929786E-1	1.019043E+0	9.514712E-1	9.581807E-1	9.596605E-1	1.093224E+0	9.755940E-1
