Photon Energy (eV)	#1	#2	#3	#4	#5	#6	#7	#8	#9	#10	#11	#12	#13	#14	#15	#16	#17	#18	#19	#20	#21	#22	#23	#24	#25	#26	#27	#28	#29	#30	#31	#32	#33	#34	#35	#36	#37	#38	#39	#40	#41	#42	#43	#44	#45	#46	#47	#48	#49	#50	#51	#52	#53	#54	#55	#56	#57	#58	#59	#60	#61	#62	#63	#64	#65	#66	#67	#68	#69	#70	#71	#72	#73	#74	#75	#76	#77	#78	#79	#80	#81	#82	#83	#84	#85	#86	#87	#88	#89	#90	#91	#92	#93	#94	#95	#96	#97	#98	#99	#100	#101	#102	#103	#104	#105	#106	#107	#108	#109	#110	#111	#112	#113	#114	#115	#116	#117	#118	#119	#120	#121	#122	#123	#124	#125	#126	#127	#128	#129	#130	#131	#132	#133	#134	#135	#136	#137	#138	#139	#140	#141	#142	#143	#144	#145	#146	#147	#148	#149	#150	#151	#152	#153	#154	#155	#156	#157	#158	#159	#160	#161	#162	#163	#164	#165	#166	#167	#168	#169	#170	#171	
1.450000E+3	1.512060E+0	1.346630E+0	1.440360E+0	1.371900E+0	1.732730E+0	1.493980E+0	1.640030E+0	1.541830E+0	1.599810E+0	1.553590E+0	1.761580E+0	1.439170E+0	1.948160E+0	1.824270E+0	2.010510E+0	1.857800E+0	1.685570E+0	1.470770E+0	1.702630E+0	1.595950E+0	2.089020E+0	1.545350E+0	1.847600E+0	1.798700E+0	1.681880E+0	1.537270E+0	1.762940E+0	1.502910E+0	1.758650E+0	1.634030E+0	1.950370E+0	1.871130E+0	1.582660E+0	1.488750E+0	1.586740E+0	1.679170E+0	2.062030E+0	1.727740E+0	1.724810E+0	1.840670E+0	1.689980E+0	1.626960E+0	1.446470E+0	1.562770E+0	1.854570E+0	1.840210E+0	1.721730E+0	1.863050E+0	1.626890E+0	1.617040E+0	1.534050E+0	1.547690E+0	1.833820E+0	1.740640E+0	1.654200E+0	1.653790E+0	1.491330E+0	1.599170E+0	1.427430E+0	1.444840E+0	1.602030E+0	1.817670E+0	1.794560E+0	1.783860E+0	1.596930E+0	1.586180E+0	1.595980E+0	1.676740E+0	1.981920E+0	1.755250E+0	1.765990E+0	1.609440E+0	1.782760E+0	1.561910E+0	1.596140E+0	1.458860E+0	1.765620E+0	1.698280E+0	1.723810E+0	1.851850E+0	1.542250E+0	1.433450E+0	1.463070E+0	1.559590E+0	1.937510E+0	1.549750E+0	1.683040E+0	1.707100E+0	1.611720E+0	1.364370E+0	1.599720E+0	1.477260E+0	1.756300E+0	1.603720E+0	1.789030E+0	1.905090E+0	1.695870E+0	1.525210E+0	1.552010E+0	1.521840E+0	1.965720E+0	1.621060E+0	1.669640E+0	1.602410E+0	1.634990E+0	1.469090E+0	1.463890E+0	1.433700E+0	1.778710E+0	1.702150E+0	1.713940E+0	1.864540E+0	1.558220E+0	1.576690E+0	1.538920E+0	1.574650E+0	1.852040E+0	1.679390E+0	1.567410E+0	1.698090E+0	1.588330E+0	1.610980E+0	1.740700E+0	1.632430E+0	1.746120E+0	1.847280E+0	1.803570E+0	1.998810E+0	1.651140E+0	1.572150E+0	1.554950E+0	1.581620E+0	1.979540E+0	1.651380E+0	1.739850E+0	1.724010E+0	1.622710E+0	1.610660E+0	1.520070E+0	1.563800E+0	1.872020E+0	1.614740E+0	1.739190E+0	1.891760E+0	1.731360E+0	1.401680E+0	1.581810E+0	1.600390E+0	1.966170E+0	1.495870E+0	1.659840E+0	1.736300E+0	1.670470E+0	1.553450E+0	1.556450E+0	1.571500E+0	1.667450E+0	1.735810E+0	1.824820E+0	1.887680E+0	1.515450E+0	1.645930E+0	1.578540E+0	1.660130E+0	1.999250E+0	1.563630E+0	1.608740E+0	1.741720E+0	1.748320E+0	1.431720E+0	1.651870E+0
1.750000E+3	1.510020E+0	1.344240E+0	1.438350E+0	1.369390E+0	1.728980E+0	1.491960E+0	1.637780E+0	1.539730E+0	1.597700E+0	1.551570E+0	1.759100E+0	1.437280E+0	1.945220E+0	1.821540E+0	2.007220E+0	1.854960E+0	1.683060E+0	1.468740E+0	1.700200E+0	1.593560E+0	2.085650E+0	1.543380E+0	1.844910E+0	1.796040E+0	1.679540E+0	1.535230E+0	1.760330E+0	1.500980E+0	1.756120E+0	1.631670E+0	1.947270E+0	1.868190E+0	1.580440E+0	1.486690E+0	1.584480E+0	1.676710E+0	2.058800E+0	1.725200E+0	1.722310E+0	1.837980E+0	1.687690E+0	1.623690E+0	1.444630E+0	1.560690E+0	1.851900E+0	1.837080E+0	1.719450E+0	1.860350E+0	1.624780E+0	1.614890E+0	1.532090E+0	1.545730E+0	1.831220E+0	1.738070E+0	1.651980E+0	1.651520E+0	1.489460E+0	1.596110E+0	1.425600E+0	1.443020E+0	1.599940E+0	1.814650E+0	1.792140E+0	1.781410E+0	1.594960E+0	1.584120E+0	1.593880E+0	1.674530E+0	1.978930E+0	1.752970E+0	1.763630E+0	1.607480E+0	1.780240E+0	1.559970E+0	1.594220E+0	1.457040E+0	1.763190E+0	1.696200E+0	1.721560E+0	1.849380E+0	1.540530E+0	1.431940E+0	1.461390E+0	1.557800E+0	1.934800E+0	1.547910E+0	1.680940E+0	1.704960E+0	1.609700E+0	1.363070E+0	1.597860E+0	1.475510E+0	1.754030E+0	1.601860E+0	1.786770E+0	1.902480E+0	1.694150E+0	1.525680E+0	1.553780E+0	1.520040E+0	1.963020E+0	1.619970E+0	1.671040E+0	1.602980E+0	1.633650E+0	1.467010E+0	1.462630E+0	1.432540E+0	1.776310E+0	1.700080E+0	1.712180E+0	1.861970E+0	1.555550E+0	1.573890E+0	1.536630E+0	1.570140E+0	1.848670E+0	1.676570E+0	1.565090E+0	1.695240E+0	1.586750E+0	1.608340E+0	1.737660E+0	1.629650E+0	1.743020E+0	1.843970E+0	1.800430E+0	1.995120E+0	1.648290E+0	1.569570E+0	1.549810E+0	1.578940E+0	1.975800E+0	1.648660E+0	1.736840E+0	1.721090E+0	1.620010E+0	1.608110E+0	1.517680E+0	1.561360E+0	1.868790E+0	1.609870E+0	1.736100E+0	1.888310E+0	1.728410E+0	1.398160E+0	1.579270E+0	1.597790E+0	1.962470E+0	1.493530E+0	1.657120E+0	1.733400E+0	1.667630E+0	1.550920E+0	1.554050E+0	1.565700E+0	1.664690E+0	1.732950E+0	1.821880E+0	1.884450E+0	1.513160E+0	1.643390E+0	1.576040E+0	1.657410E+0	1.995670E+0	1.561330E+0	1.606270E+0	1.738930E+0	1.745560E+0	1.429680E+0	1.649380E+0
2.050000E+3	1.508230E+0	1.343270E+0	1.436790E+0	1.370830E+0	1.730180E+0	1.490300E+0	1.636050E+0	1.538030E+0	1.595810E+0	1.549870E+0	1.757080E+0	1.435800E+0	1.942730E+0	1.819270E+0	2.004440E+0	1.852350E+0	1.680970E+0	1.466880E+0	1.698100E+0	1.591580E+0	2.082540E+0	1.541390E+0	1.842480E+0	1.793790E+0	1.677400E+0	1.533460E+0	1.758190E+0	1.499140E+0	1.753890E+0	1.629650E+0	1.944530E+0	1.865510E+0	1.578320E+0	1.484790E+0	1.582390E+0	1.674460E+0	2.055580E+0	1.722620E+0	1.720030E+0	1.835260E+0	1.685480E+0	1.621390E+0	1.442920E+0	1.558740E+0	1.849120E+0	1.834370E+0	1.717060E+0	1.857510E+0	1.622570E+0	1.612610E+0	1.530050E+0	1.543660E+0	1.828490E+0	1.734980E+0	1.649460E+0	1.649280E+0	1.487630E+0	1.592630E+0	1.423930E+0	1.441200E+0	1.597860E+0	1.811310E+0	1.789450E+0	1.778740E+0	1.592680E+0	1.581920E+0	1.591430E+0	1.672030E+0	1.975850E+0	1.748880E+0	1.760700E+0	1.605230E+0	1.777670E+0	1.555160E+0	1.591950E+0	1.455280E+0	1.760760E+0	1.691860E+0	1.719170E+0	1.846490E+0	1.538420E+0	1.429320E+0	1.459510E+0	1.555640E+0	1.931620E+0	1.545690E+0	1.678510E+0	1.702490E+0	1.607360E+0	1.361130E+0	1.595580E+0	1.473510E+0	1.751370E+0	1.599460E+0	1.783070E+0	1.899440E+0	1.690640E+0	1.521830E+0	1.548530E+0	1.517890E+0	1.959660E+0	1.616850E+0	1.665290E+0	1.598280E+0	1.630450E+0	1.465090E+0	1.459960E+0	1.429830E+0	1.774100E+0	1.697410E+0	1.709160E+0	1.858920E+0	1.554050E+0	1.572040E+0	1.534820E+0	1.570890E+0	1.846510E+0	1.674890E+0	1.564590E+0	1.693420E+0	1.584980E+0	1.606550E+0	1.735800E+0	1.627910E+0	1.741160E+0	1.841810E+0	1.798300E+0	1.992540E+0	1.646480E+0	1.567890E+0	1.550420E+0	1.577300E+0	1.973340E+0	1.646950E+0	1.734900E+0	1.719140E+0	1.618300E+0	1.606410E+0	1.516160E+0	1.559710E+0	1.866480E+0	1.609940E+0	1.734150E+0	1.885920E+0	1.726310E+0	1.397770E+0	1.577500E+0	1.596040E+0	1.959890E+0	1.492060E+0	1.655340E+0	1.731420E+0	1.665790E+0	1.549230E+0	1.552480E+0	1.566560E+0	1.662850E+0	1.730960E+0	1.819640E+0	1.882030E+0	1.511530E+0	1.641460E+0	1.574310E+0	1.655420E+0	1.992810E+0	1.559510E+0	1.604430E+0	1.736740E+0	1.743210E+0	1.428260E+0	1.647410E+0
2.150000E+3	1.506390E+0	1.342310E+0	1.435050E+0	1.370870E+0	1.729180E+0	1.488330E+0	1.633960E+0	1.536080E+0	1.593810E+0	1.547870E+0	1.754860E+0	1.433940E+0	1.939990E+0	1.816780E+0	2.001610E+0	1.849770E+0	1.678630E+0	1.464950E+0	1.695760E+0	1.589450E+0	2.079440E+0	1.539270E+0	1.839870E+0	1.791310E+0	1.675090E+0	1.531450E+0	1.755810E+0	1.497100E+0	1.751330E+0	1.627430E+0	1.941750E+0	1.862720E+0	1.576130E+0	1.482730E+0	1.580260E+0	1.672050E+0	2.052350E+0	1.720150E+0	1.717620E+0	1.832590E+0	1.683020E+0	1.619190E+0	1.441040E+0	1.556540E+0	1.846460E+0	1.831660E+0	1.714690E+0	1.854620E+0	1.620170E+0	1.610180E+0	1.527850E+0	1.541270E+0	1.825710E+0	1.732340E+0	1.647060E+0	1.646860E+0	1.485500E+0	1.590450E+0	1.421900E+0	1.439120E+0	1.595520E+0	1.808650E+0	1.786730E+0	1.776010E+0	1.590240E+0	1.579530E+0	1.589070E+0	1.669540E+0	1.972760E+0	1.745930E+0	1.758040E+0	1.602880E+0	1.774960E+0	1.552320E+0	1.589660E+0	1.453210E+0	1.758050E+0	1.688860E+0	1.716560E+0	1.843630E+0	1.536190E+0	1.427150E+0	1.457280E+0	1.553270E+0	1.928570E+0	1.542950E+0	1.675920E+0	1.700020E+0	1.604990E+0	1.358280E+0	1.593240E+0	1.471470E+0	1.748820E+0	1.596560E+0	1.780740E+0	1.896360E+0	1.686470E+0	1.517820E+0	1.546080E+0	1.515740E+0	1.956460E+0	1.613890E+0	1.662170E+0	1.595350E+0	1.627410E+0	1.462950E+0	1.458320E+0	1.428230E+0	1.770490E+0	1.695190E+0	1.706910E+0	1.856490E+0	1.552020E+0	1.570650E+0	1.533560E+0	1.569430E+0	1.843960E+0	1.672740E+0	1.561960E+0	1.691170E+0	1.582230E+0	1.604400E+0	1.733460E+0	1.625820E+0	1.738830E+0	1.839280E+0	1.795850E+0	1.989680E+0	1.644300E+0	1.565820E+0	1.548770E+0	1.575080E+0	1.970340E+0	1.644810E+0	1.732580E+0	1.716870E+0	1.616090E+0	1.604320E+0	1.514180E+0	1.557650E+0	1.863870E+0	1.608070E+0	1.731720E+0	1.883190E+0	1.723900E+0	1.395320E+0	1.575430E+0	1.593890E+0	1.956940E+0	1.490090E+0	1.653150E+0	1.729030E+0	1.663530E+0	1.547220E+0	1.550440E+0	1.564950E+0	1.660520E+0	1.728540E+0	1.817190E+0	1.879310E+0	1.509490E+0	1.639250E+0	1.572200E+0	1.653170E+0	1.989710E+0	1.557440E+0	1.602220E+0	1.734400E+0	1.740770E+0	1.426320E+0	1.645270E+0
2.250000E+3	1.504900E+0	1.591840E+0	1.422300E+0	1.367540E+0	1.724900E+0	1.542790E+0	1.629330E+0	1.534450E+0	1.591430E+0	1.546220E+0	1.752680E+0	1.432410E+0	1.937790E+0	1.814210E+0	1.998830E+0	1.847080E+0	1.676220E+0	1.463130E+0	1.693320E+0	1.587390E+0	2.076300E+0	1.537540E+0	1.837540E+0	1.788870E+0	1.673190E+0	1.529670E+0	1.753460E+0	1.495410E+0	1.748840E+0	1.625420E+0	1.938650E+0	1.859820E+0	1.574100E+0	1.480690E+0	1.578230E+0	1.669760E+0	2.049430E+0	1.718020E+0	1.715390E+0	1.830260E+0	1.680790E+0	1.617100E+0	1.439280E+0	1.554350E+0	1.843780E+0	1.828850E+0	1.712140E+0	1.851890E+0	1.617820E+0	1.608040E+0	1.525900E+0	1.539400E+0	1.823310E+0	1.730000E+0	1.645050E+0	1.644610E+0	1.483660E+0	1.588220E+0	1.419990E+0	1.437380E+0	1.593290E+0	1.806010E+0	1.784220E+0	1.773370E+0	1.588280E+0	1.577300E+0	1.587060E+0	1.667210E+0	1.969590E+0	1.743320E+0	1.755310E+0	1.600650E+0	1.772320E+0	1.550090E+0	1.587410E+0	1.451220E+0	1.755610E+0	1.686620E+0	1.714150E+0	1.841110E+0	1.534160E+0	1.425500E+0	1.455230E+0	1.551250E+0	1.925670E+0	1.539610E+0	1.673520E+0	1.697590E+0	1.602850E+0	1.354940E+0	1.591180E+0	1.469930E+0	1.746460E+0	1.593640E+0	1.777200E+0	1.893590E+0	1.685060E+0	1.515410E+0	1.543930E+0	1.513850E+0	1.953280E+0	1.611940E+0	1.660110E+0	1.593510E+0	1.625460E+0	1.461280E+0	1.455450E+0	1.425390E+0	1.768660E+0	1.692950E+0	1.704660E+0	1.853760E+0	1.549980E+0	1.568420E+0	1.530930E+0	1.566700E+0	1.841340E+0	1.670500E+0	1.560700E+0	1.689060E+0	1.580490E+0	1.602500E+0	1.730920E+0	1.623770E+0	1.736450E+0	1.836620E+0	1.793320E+0	1.986570E+0	1.642010E+0	1.563840E+0	1.546830E+0	1.573220E+0	1.967390E+0	1.642780E+0	1.730310E+0	1.714530E+0	1.614110E+0	1.602180E+0	1.512410E+0	1.555350E+0	1.861260E+0	1.605430E+0	1.724950E+0	1.881140E+0	1.721560E+0	1.395380E+0	1.572620E+0	1.591990E+0	1.954130E+0	1.488430E+0	1.651050E+0	1.726750E+0	1.661190E+0	1.545340E+0	1.548440E+0	1.563400E+0	1.658390E+0	1.726130E+0	1.814510E+0	1.876520E+0	1.507600E+0	1.637260E+0	1.570170E+0	1.651020E+0	1.986730E+0	1.555500E+0	1.600250E+0	1.732000E+0	1.738360E+0	1.424680E+0	1.643120E+0
2.350000E+3	1.503100E+0	1.724500E+0	1.414670E+0	1.365140E+0	1.721740E+0	1.707310E+0	1.620030E+0	1.531810E+0	1.588190E+0	1.614870E+0	1.747440E+0	1.430620E+0	1.934820E+0	1.828330E+0	1.995540E+0	1.844610E+0	1.673860E+0	1.461910E+0	1.691070E+0	1.585360E+0	2.073340E+0	1.535680E+0	1.835110E+0	1.786480E+0	1.671120E+0	1.527910E+0	1.751260E+0	1.493710E+0	1.746430E+0	1.623430E+0	1.935880E+0	1.857210E+0	1.571980E+0	1.478880E+0	1.576130E+0	1.667480E+0	2.046410E+0	1.715840E+0	1.712940E+0	1.827840E+0	1.678530E+0	1.615050E+0	1.437370E+0	1.552210E+0	1.841450E+0	1.826160E+0	1.709620E+0	1.849180E+0	1.615600E+0	1.606020E+0	1.523790E+0	1.537510E+0	1.820730E+0	1.727610E+0	1.642970E+0	1.642240E+0	1.481830E+0	1.586070E+0	1.418050E+0	1.435420E+0	1.591150E+0	1.803320E+0	1.781540E+0	1.770750E+0	1.586140E+0	1.575220E+0	1.584930E+0	1.664890E+0	1.966550E+0	1.741010E+0	1.752730E+0	1.598520E+0	1.769590E+0	1.547900E+0	1.585020E+0	1.449170E+0	1.752970E+0	1.684120E+0	1.711630E+0	1.838310E+0	1.532010E+0	1.423650E+0	1.453280E+0	1.549040E+0	1.922700E+0	1.537400E+0	1.671040E+0	1.695090E+0	1.600380E+0	1.353090E+0	1.588830E+0	1.466610E+0	1.743890E+0	1.590100E+0	1.773470E+0	1.890620E+0	1.679850E+0	1.512310E+0	1.540820E+0	1.510010E+0	1.949950E+0	1.610130E+0	1.658010E+0	1.591580E+0	1.623420E+0	1.458040E+0	1.452820E+0	1.422870E+0	1.765580E+0	1.691100E+0	1.702610E+0	1.851530E+0	1.548130E+0	1.566810E+0	1.529780E+0	1.565040E+0	1.839080E+0	1.668460E+0	1.559950E+0	1.687060E+0	1.578080E+0	1.600710E+0	1.728660E+0	1.621900E+0	1.734400E+0	1.834220E+0	1.790860E+0	1.983730E+0	1.640020E+0	1.561980E+0	1.545100E+0	1.571290E+0	1.964510E+0	1.640770E+0	1.728140E+0	1.712440E+0	1.612130E+0	1.600330E+0	1.510760E+0	1.553370E+0	1.858820E+0	1.604710E+0	1.720500E+0	1.878830E+0	1.719420E+0	1.394040E+0	1.566160E+0	1.590520E+0	1.951530E+0	1.486760E+0	1.647800E+0	1.724780E+0	1.659100E+0	1.543570E+0	1.546340E+0	1.560650E+0	1.656290E+0	1.723930E+0	1.812150E+0	1.873940E+0	1.505880E+0	1.635200E+0	1.568260E+0	1.648980E+0	1.983900E+0	1.553660E+0	1.598360E+0	1.729740E+0	1.735980E+0	1.423040E+0	1.641120E+0
2.375000E+3	1.501670E+0	1.761540E+0	1.411450E+0	1.363420E+0	1.719310E+0	1.801560E+0	1.613930E+0	1.529560E+0	1.585530E+0	1.658190E+0	1.743370E+0	1.428900E+0	1.932100E+0	1.836630E+0	1.992570E+0	1.842250E+0	1.671650E+0	1.597200E+0	1.683010E+0	1.582320E+0	2.069030E+0	1.877980E+0	1.817430E+0	1.782160E+0	1.666230E+0	1.772620E+0	1.737810E+0	1.490910E+0	1.742270E+0	1.728190E+0	1.928560E+0	1.854200E+0	1.569120E+0	1.480480E+0	1.573900E+0	1.665120E+0	2.042940E+0	1.713510E+0	1.710600E+0	1.825110E+0	1.676210E+0	1.613160E+0	1.435480E+0	1.550200E+0	1.838680E+0	1.823880E+0	1.706910E+0	1.846440E+0	1.613120E+0	1.603860E+0	1.521260E+0	1.535290E+0	1.818130E+0	1.725210E+0	1.640530E+0	1.640060E+0	1.480020E+0	1.584150E+0	1.415980E+0	1.433630E+0	1.589080E+0	1.800680E+0	1.778700E+0	1.768030E+0	1.583970E+0	1.572980E+0	1.582470E+0	1.662570E+0	1.963580E+0	1.738590E+0	1.750250E+0	1.596270E+0	1.767270E+0	1.545770E+0	1.582790E+0	1.447100E+0	1.750530E+0	1.681660E+0	1.709050E+0	1.835690E+0	1.529820E+0	1.421790E+0	1.451320E+0	1.547020E+0	1.919840E+0	1.535420E+0	1.668720E+0	1.692630E+0	1.597940E+0	1.351250E+0	1.586390E+0	1.463170E+0	1.741360E+0	1.586470E+0	1.769100E+0	1.887790E+0	1.677520E+0	1.510180E+0	1.538640E+0	1.507110E+0	1.946910E+0	1.607730E+0	1.655620E+0	1.589230E+0	1.620830E+0	1.456710E+0	1.449660E+0	1.419840E+0	1.762830E+0	1.689210E+0	1.700630E+0	1.849260E+0	1.546350E+0	1.565200E+0	1.527880E+0	1.563440E+0	1.836500E+0	1.666400E+0	1.556950E+0	1.684890E+0	1.575360E+0	1.598780E+0	1.726370E+0	1.619820E+0	1.732130E+0	1.831930E+0	1.788500E+0	1.981130E+0	1.637800E+0	1.560110E+0	1.542990E+0	1.569290E+0	1.961740E+0	1.638740E+0	1.725790E+0	1.710210E+0	1.610140E+0	1.598250E+0	1.508740E+0	1.551430E+0	1.856310E+0	1.602810E+0	1.717180E+0	1.876150E+0	1.717110E+0	1.391320E+0	1.560450E+0	1.588500E+0	1.948610E+0	1.484930E+0	1.644910E+0	1.722560E+0	1.656900E+0	1.541570E+0	1.544260E+0	1.559400E+0	1.654100E+0	1.721700E+0	1.807380E+0	1.871330E+0	1.504020E+0	1.633340E+0	1.560450E+0	1.647550E+0	1.981160E+0	1.551950E+0	1.592190E+0	1.728090E+0	1.733790E+0	1.421440E+0	1.637160E+0
2.400000E+3	1.500220E+0	1.759480E+0	1.410090E+0	1.362010E+0	1.717330E+0	1.799320E+0	1.612160E+0	1.527920E+0	1.583780E+0	1.656340E+0	1.741380E+0	1.427540E+0	1.929830E+0	1.834480E+0	1.990050E+0	1.840000E+0	1.669610E+0	1.609090E+0	1.680430E+0	1.580470E+0	2.066180E+0	1.909930E+0	1.813680E+0	1.779810E+0	1.663960E+0	1.795120E+0	1.734660E+0	1.489230E+0	1.739940E+0	1.736740E+0	1.925610E+0	1.851810E+0	1.567240E+0	1.497890E+0	1.571200E+0	1.662880E+0	2.039910E+0	1.905200E+0	1.699830E+0	1.821450E+0	1.672380E+0	1.743360E+0	1.427790E+0	1.547790E+0	1.835210E+0	1.876710E+0	1.702460E+0	1.843760E+0	1.610620E+0	1.604040E+0	1.519370E+0	1.533210E+0	1.815380E+0	1.722880E+0	1.638450E+0	1.637850E+0	1.478030E+0	1.582250E+0	1.414160E+0	1.431870E+0	1.587110E+0	1.798460E+0	1.776170E+0	1.765570E+0	1.581830E+0	1.571040E+0	1.580070E+0	1.660210E+0	1.960540E+0	1.736030E+0	1.747610E+0	1.594050E+0	1.764760E+0	1.543710E+0	1.580600E+0	1.445340E+0	1.748170E+0	1.679370E+0	1.706550E+0	1.832800E+0	1.527830E+0	1.419440E+0	1.449240E+0	1.544880E+0	1.916840E+0	1.533340E+0	1.666330E+0	1.690310E+0	1.595800E+0	1.347440E+0	1.582930E+0	1.460270E+0	1.738330E+0	1.583240E+0	1.767270E+0	1.883290E+0	1.675500E+0	1.508580E+0	1.537000E+0	1.504090E+0	1.941860E+0	1.605870E+0	1.653730E+0	1.587490E+0	1.618780E+0	1.452030E+0	1.447570E+0	1.418370E+0	1.758450E+0	1.687480E+0	1.698860E+0	1.847200E+0	1.544780E+0	1.564200E+0	1.528910E+0	1.561640E+0	1.834310E+0	1.664630E+0	1.557970E+0	1.683130E+0	1.573370E+0	1.597070E+0	1.724450E+0	1.618150E+0	1.730200E+0	1.829850E+0	1.786450E+0	1.978640E+0	1.636140E+0	1.558560E+0	1.541450E+0	1.567620E+0	1.959110E+0	1.636800E+0	1.723910E+0	1.708260E+0	1.608260E+0	1.596440E+0	1.507050E+0	1.549840E+0	1.854080E+0	1.600830E+0	1.715200E+0	1.873830E+0	1.715070E+0	1.392540E+0	1.561340E+0	1.586770E+0	1.945990E+0	1.483250E+0	1.642940E+0	1.720510E+0	1.654910E+0	1.539740E+0	1.542550E+0	1.557660E+0	1.652250E+0	1.719650E+0	1.804650E+0	1.868930E+0	1.502330E+0	1.631400E+0	1.557950E+0	1.645560E+0	1.978370E+0	1.550170E+0	1.589930E+0	1.726050E+0	1.731570E+0	1.419960E+0	1.635220E+0
2.425000E+3	1.498670E+0	1.757500E+0	1.408770E+0	1.360850E+0	1.715480E+0	1.797170E+0	1.610500E+0	1.526390E+0	1.582030E+0	1.654560E+0	1.739380E+0	1.426070E+0	1.927480E+0	1.832350E+0	1.987550E+0	1.837800E+0	1.667760E+0	1.607320E+0	1.678500E+0	1.578710E+0	2.063360E+0	1.907410E+0	1.811460E+0	1.777690E+0	1.662040E+0	1.793020E+0	1.732550E+0	1.487590E+0	1.737790E+0	1.734560E+0	1.923080E+0	1.849370E+0	1.565360E+0	1.510640E+0	1.568660E+0	1.660740E+0	2.036820E+0	2.051320E+0	1.690980E+0	1.818010E+0	1.668920E+0	1.842570E+0	1.421470E+0	1.545480E+0	1.831940E+0	1.916670E+0	1.698460E+0	1.841110E+0	1.608180E+0	1.705270E+0	1.512810E+0	1.530390E+0	1.811640E+0	1.926450E+0	1.626710E+0	1.634270E+0	1.474090E+0	1.707760E+0	1.406470E+0	1.429430E+0	1.583960E+0	1.844170E+0	1.771340E+0	1.762740E+0	1.578880E+0	1.570510E+0	1.577610E+0	1.657460E+0	1.956970E+0	1.733350E+0	1.744780E+0	1.591470E+0	1.761930E+0	1.541610E+0	1.578110E+0	1.443360E+0	1.745410E+0	1.676870E+0	1.703650E+0	1.829670E+0	1.525350E+0	1.415180E+0	1.446270E+0	1.542380E+0	1.913550E+0	1.530920E+0	1.663480E+0	1.687690E+0	1.592500E+0	1.343150E+0	1.576990E+0	1.457450E+0	1.732250E+0	1.580110E+0	1.768530E+0	1.877220E+0	1.672630E+0	1.506020E+0	1.533830E+0	1.501270E+0	1.936230E+0	1.605660E+0	1.650550E+0	1.584160E+0	1.614430E+0	1.450280E+0	1.446290E+0	1.416660E+0	1.754390E+0	1.685890E+0	1.697190E+0	1.845470E+0	1.543630E+0	1.566340E+0	1.529410E+0	1.561440E+0	1.832510E+0	1.663130E+0	1.557410E+0	1.681630E+0	1.567760E+0	1.595460E+0	1.722710E+0	1.616650E+0	1.728360E+0	1.827900E+0	1.784640E+0	1.976440E+0	1.634470E+0	1.557080E+0	1.540050E+0	1.566340E+0	1.956870E+0	1.635120E+0	1.722040E+0	1.706520E+0	1.606410E+0	1.594850E+0	1.505610E+0	1.548230E+0	1.851940E+0	1.599800E+0	1.713510E+0	1.871820E+0	1.713190E+0	1.392200E+0	1.560660E+0	1.585110E+0	1.943540E+0	1.481790E+0	1.641140E+0	1.718540E+0	1.653110E+0	1.538160E+0	1.540990E+0	1.556140E+0	1.650450E+0	1.717780E+0	1.802440E+0	1.866580E+0	1.500680E+0	1.629600E+0	1.556100E+0	1.643610E+0	1.975610E+0	1.548350E+0	1.588080E+0	1.723980E+0	1.729420E+0	1.418440E+0	1.633300E+0
2.450000E+3	1.497130E+0	1.755220E+0	1.407120E+0	1.359150E+0	1.713130E+0	1.794700E+0	1.608440E+0	1.524490E+0	1.580000E+0	1.652320E+0	1.737180E+0	1.424390E+0	1.924810E+0	1.829880E+0	1.984800E+0	1.835390E+0	1.665560E+0	1.605200E+0	1.676380E+0	1.576700E+0	2.060530E+0	1.904780E+0	1.809260E+0	1.775430E+0	1.660010E+0	1.790590E+0	1.730450E+0	1.485820E+0	1.735540E+0	1.732290E+0	1.920470E+0	1.846860E+0	1.563400E+0	1.508840E+0	1.566800E+0	1.658700E+0	2.034090E+0	2.048640E+0	1.689090E+0	1.815890E+0	1.666880E+0	1.840230E+0	1.419850E+0	1.543700E+0	1.829540E+0	1.914150E+0	1.696380E+0	1.838770E+0	1.606230E+0	1.787900E+0	1.507330E+0	1.528010E+0	1.808690E+0	2.095630E+0	1.617170E+0	1.631370E+0	1.470950E+0	1.811920E+0	1.399970E+0	1.427430E+0	1.581260E+0	1.881870E+0	1.767570E+0	1.760270E+0	1.576690E+0	1.597220E+0	1.574350E+0	1.655150E+0	1.953880E+0	1.844780E+0	1.737540E+0	1.588780E+0	1.758690E+0	1.620020E+0	1.572520E+0	1.441350E+0	1.742740E+0	1.714060E+0	1.699690E+0	1.827210E+0	1.523210E+0	1.417030E+0	1.444810E+0	1.540490E+0	1.910810E+0	1.529100E+0	1.661350E+0	1.685540E+0	1.591450E+0	1.342770E+0	1.577980E+0	1.455860E+0	1.733150E+0	1.578450E+0	1.765030E+0	1.874810E+0	1.670660E+0	1.504360E+0	1.532280E+0	1.499490E+0	1.933570E+0	1.601500E+0	1.648990E+0	1.583100E+0	1.613980E+0	1.448150E+0	1.444030E+0	1.414600E+0	1.753410E+0	1.683250E+0	1.694390E+0	1.842390E+0	1.541330E+0	1.562560E+0	1.526970E+0	1.558220E+0	1.829590E+0	1.660560E+0	1.554940E+0	1.678980E+0	1.566950E+0	1.593110E+0	1.719780E+0	1.614110E+0	1.725670E+0	1.824890E+0	1.781650E+0	1.973280E+0	1.632070E+0	1.554820E+0	1.537800E+0	1.564100E+0	1.953610E+0	1.632680E+0	1.719370E+0	1.703940E+0	1.603850E+0	1.592350E+0	1.503250E+0	1.545990E+0	1.848920E+0	1.596950E+0	1.710670E+0	1.868760E+0	1.710620E+0	1.390230E+0	1.558400E+0	1.582760E+0	1.940220E+0	1.479620E+0	1.638660E+0	1.715820E+0	1.650380E+0	1.535730E+0	1.538550E+0	1.553760E+0	1.647790E+0	1.715130E+0	1.799640E+0	1.863670E+0	1.498460E+0	1.627200E+0	1.553900E+0	1.641160E+0	1.972430E+0	1.546150E+0	1.585750E+0	1.721360E+0	1.726800E+0	1.416460E+0	1.630730E+0
2.475000E+3	1.495510E+0	1.753070E+0	1.405610E+0	1.357670E+0	1.710960E+0	1.792400E+0	1.606440E+0	1.522780E+0	1.578160E+0	1.650320E+0	1.735030E+0	1.422900E+0	1.922370E+0	1.827530E+0	1.982220E+0	1.833090E+0	1.663540E+0	1.603300E+0	1.674260E+0	1.574880E+0	2.057570E+0	1.902180E+0	1.806980E+0	1.773280E+0	1.657960E+0	1.788210E+0	1.728280E+0	1.484200E+0	1.733370E+0	1.730120E+0	1.917880E+0	1.844530E+0	1.561600E+0	1.507160E+0	1.564960E+0	1.656690E+0	2.031190E+0	2.045790E+0	1.687060E+0	1.813600E+0	1.664870E+0	1.837840E+0	1.418340E+0	1.541840E+0	1.827190E+0	1.911600E+0	1.694380E+0	1.836380E+0	1.604340E+0	1.785630E+0	1.505700E+0	1.526370E+0	1.806540E+0	2.092640E+0	1.615380E+0	1.629480E+0	1.469400E+0	1.809650E+0	1.398510E+0	1.425850E+0	1.579480E+0	1.879350E+0	1.765440E+0	1.758050E+0	1.574850E+0	1.667720E+0	1.569240E+0	1.652670E+0	1.950570E+0	2.144770E+0	1.721670E+0	1.584840E+0	1.753810E+0	1.831590E+0	1.560800E+0	1.438720E+0	1.738690E+0	1.815810E+0	1.693060E+0	1.824300E+0	1.520660E+0	1.418730E+0	1.443000E+0	1.538460E+0	1.907750E+0	1.527190E+0	1.659150E+0	1.683090E+0	1.589230E+0	1.341510E+0	1.574740E+0	1.453450E+0	1.731410E+0	1.576080E+0	1.762560E+0	1.873240E+0	1.668140E+0	1.502470E+0	1.529920E+0	1.496790E+0	1.931750E+0	1.600130E+0	1.646500E+0	1.580860E+0	1.611830E+0	1.446410E+0	1.442170E+0	1.412810E+0	1.751500E+0	1.681020E+0	1.691930E+0	1.839620E+0	1.539410E+0	1.558910E+0	1.524860E+0	1.556390E+0	1.826980E+0	1.658420E+0	1.552910E+0	1.676910E+0	1.566140E+0	1.591190E+0	1.717440E+0	1.611970E+0	1.723410E+0	1.822340E+0	1.779110E+0	1.970310E+0	1.629900E+0	1.553000E+0	1.535800E+0	1.562250E+0	1.950760E+0	1.630640E+0	1.717080E+0	1.701760E+0	1.601730E+0	1.590350E+0	1.501180E+0	1.544010E+0	1.846290E+0	1.594910E+0	1.708260E+0	1.866050E+0	1.708310E+0	1.388440E+0	1.556490E+0	1.580820E+0	1.937270E+0	1.477630E+0	1.636490E+0	1.713430E+0	1.647930E+0	1.533550E+0	1.536570E+0	1.551710E+0	1.645490E+0	1.712830E+0	1.797040E+0	1.861190E+0	1.496570E+0	1.625090E+0	1.551950E+0	1.639100E+0	1.969350E+0	1.544190E+0	1.583530E+0	1.718940E+0	1.724190E+0	1.414670E+0	1.628510E+0
2.500000E+3	1.493950E+0	1.750900E+0	1.404140E+0	1.356190E+0	1.708860E+0	1.790090E+0	1.604630E+0	1.521120E+0	1.576360E+0	1.648400E+0	1.732870E+0	1.421360E+0	1.919900E+0	1.825200E+0	1.979530E+0	1.830740E+0	1.661450E+0	1.601360E+0	1.672310E+0	1.573050E+0	2.054730E+0	1.899580E+0	1.804760E+0	1.771090E+0	1.655910E+0	1.786050E+0	1.726110E+0	1.482520E+0	1.731280E+0	1.728090E+0	1.915380E+0	1.842150E+0	1.559910E+0	1.505510E+0	1.563160E+0	1.654690E+0	2.028430E+0	2.043130E+0	1.685220E+0	1.811300E+0	1.662850E+0	1.835480E+0	1.416840E+0	1.540050E+0	1.824930E+0	1.908930E+0	1.692280E+0	1.834120E+0	1.602440E+0	1.783460E+0	1.504040E+0	1.524640E+0	1.804190E+0	2.089710E+0	1.613620E+0	1.627550E+0	1.467700E+0	1.807290E+0	1.396960E+0	1.424330E+0	1.577650E+0	1.876930E+0	1.763280E+0	1.755910E+0	1.573040E+0	1.665700E+0	1.567490E+0	1.650730E+0	1.947970E+0	2.141710E+0	1.719580E+0	1.583130E+0	1.751580E+0	1.829130E+0	1.559080E+0	1.437160E+0	1.736610E+0	1.813470E+0	1.691030E+0	1.821950E+0	1.518880E+0	1.610930E+0	1.432550E+0	1.535220E+0	1.903470E+0	1.877080E+0	1.640740E+0	1.678900E+0	1.584280E+0	1.611220E+0	1.560830E+0	1.450830E+0	1.726520E+0	1.686700E+0	1.756500E+0	1.870110E+0	1.665250E+0	1.505200E+0	1.527670E+0	1.495190E+0	1.927560E+0	1.597040E+0	1.644130E+0	1.577700E+0	1.609020E+0	1.444940E+0	1.440330E+0	1.411210E+0	1.747790E+0	1.679270E+0	1.689530E+0	1.837140E+0	1.537260E+0	1.558760E+0	1.522820E+0	1.554360E+0	1.824450E+0	1.656440E+0	1.550880E+0	1.674760E+0	1.562860E+0	1.589470E+0	1.715050E+0	1.609830E+0	1.721320E+0	1.819880E+0	1.776480E+0	1.967390E+0	1.627880E+0	1.550910E+0	1.533670E+0	1.560360E+0	1.948070E+0	1.628610E+0	1.714760E+0	1.699480E+0	1.599880E+0	1.588330E+0	1.499380E+0	1.542160E+0	1.843800E+0	1.592370E+0	1.705870E+0	1.863420E+0	1.706020E+0	1.386890E+0	1.554400E+0	1.578860E+0	1.934500E+0	1.475970E+0	1.634130E+0	1.711300E+0	1.645610E+0	1.531520E+0	1.534360E+0	1.549650E+0	1.643240E+0	1.710410E+0	1.794520E+0	1.858590E+0	1.494800E+0	1.623020E+0	1.550020E+0	1.636990E+0	1.966290E+0	1.542120E+0	1.581580E+0	1.716540E+0	1.721650E+0	1.412830E+0	1.626320E+0
2.525000E+3	1.492260E+0	1.748230E+0	1.402410E+0	1.350200E+0	1.704270E+0	1.787490E+0	1.602350E+0	1.519250E+0	1.574080E+0	1.646310E+0	1.730350E+0	1.419540E+0	1.917270E+0	1.822620E+0	1.976670E+0	1.828060E+0	1.659030E+0	1.599100E+0	1.669900E+0	1.571000E+0	2.051600E+0	1.896790E+0	1.802530E+0	1.768680E+0	1.653950E+0	1.783610E+0	1.724060E+0	1.480360E+0	1.729000E+0	1.725990E+0	1.909290E+0	1.839750E+0	1.558010E+0	1.503480E+0	1.560790E+0	1.652690E+0	2.025610E+0	2.040240E+0	1.683010E+0	1.809120E+0	1.660760E+0	1.832970E+0	1.415240E+0	1.538100E+0	1.822510E+0	1.906300E+0	1.690160E+0	1.831780E+0	1.600400E+0	1.781250E+0	1.502290E+0	1.522910E+0	1.802040E+0	2.086800E+0	1.611730E+0	1.625710E+0	1.466080E+0	1.804950E+0	1.395370E+0	1.422760E+0	1.575730E+0	1.874430E+0	1.761200E+0	1.753820E+0	1.571360E+0	1.663780E+0	1.565770E+0	1.648930E+0	1.945380E+0	2.138870E+0	1.717690E+0	1.581470E+0	1.749540E+0	1.826780E+0	1.557450E+0	1.435620E+0	1.734640E+0	1.811430E+0	1.689280E+0	1.819990E+0	1.517430E+0	1.627630E+0	1.430330E+0	1.533570E+0	1.901070E+0	1.908200E+0	1.637490E+0	1.676830E+0	1.582220E+0	1.635900E+0	1.560420E+0	1.451120E+0	1.725420E+0	1.698770E+0	1.752850E+0	1.870630E+0	1.663520E+0	1.504190E+0	1.526480E+0	1.494170E+0	1.929070E+0	1.595330E+0	1.642740E+0	1.576790E+0	1.608080E+0	1.443540E+0	1.438040E+0	1.409000E+0	1.748890E+0	1.676570E+0	1.686570E+0	1.833820E+0	1.534610E+0	1.552920E+0	1.517680E+0	1.550900E+0	1.821170E+0	1.653620E+0	1.547570E+0	1.671950E+0	1.563170E+0	1.586990E+0	1.712140E+0	1.607290E+0	1.718460E+0	1.816670E+0	1.773450E+0	1.963850E+0	1.625200E+0	1.548560E+0	1.531130E+0	1.557760E+0	1.944720E+0	1.626030E+0	1.712010E+0	1.696760E+0	1.597430E+0	1.585890E+0	1.497060E+0	1.539720E+0	1.840670E+0	1.589590E+0	1.702980E+0	1.860290E+0	1.703320E+0	1.383070E+0	1.548620E+0	1.576310E+0	1.931170E+0	1.473820E+0	1.631580E+0	1.708560E+0	1.643050E+0	1.529200E+0	1.531970E+0	1.547200E+0	1.640750E+0	1.707720E+0	1.791670E+0	1.855620E+0	1.492590E+0	1.620500E+0	1.547710E+0	1.634600E+0	1.963080E+0	1.539910E+0	1.579230E+0	1.714050E+0	1.719030E+0	1.410910E+0	1.623910E+0
2.550000E+3	1.490650E+0	1.746000E+0	1.400850E+0	1.348990E+0	1.701250E+0	1.785240E+0	1.600430E+0	1.517570E+0	1.572310E+0	1.644410E+0	1.728290E+0	1.418040E+0	1.914750E+0	1.820350E+0	1.974020E+0	1.825680E+0	1.656990E+0	1.597160E+0	1.667890E+0	1.569000E+0	2.048780E+0	1.894240E+0	1.800320E+0	1.766520E+0	1.651870E+0	1.781350E+0	1.721930E+0	1.478720E+0	1.726920E+0	1.723730E+0	1.906840E+0	1.837470E+0	1.556260E+0	1.501870E+0	1.558850E+0	1.650630E+0	2.022800E+0	2.037350E+0	1.681090E+0	1.806910E+0	1.658790E+0	1.830510E+0	1.413680E+0	1.536390E+0	1.820160E+0	1.903840E+0	1.688100E+0	1.829400E+0	1.598500E+0	1.778960E+0	1.500590E+0	1.521110E+0	1.799760E+0	2.083810E+0	1.609850E+0	1.623790E+0	1.464310E+0	1.802580E+0	1.393820E+0	1.421180E+0	1.573840E+0	1.871910E+0	1.759010E+0	1.751670E+0	1.569550E+0	1.661850E+0	1.563940E+0	1.646860E+0	1.942650E+0	2.135670E+0	1.715560E+0	1.579520E+0	1.747330E+0	1.824350E+0	1.555600E+0	1.434030E+0	1.732470E+0	1.809060E+0	1.687230E+0	1.817600E+0	1.515650E+0	1.625620E+0	1.428800E+0	1.531700E+0	1.898490E+0	1.905590E+0	1.635520E+0	1.674800E+0	1.580280E+0	1.633800E+0	1.558640E+0	1.450600E+0	1.723370E+0	1.696950E+0	1.750400E+0	1.868180E+0	1.662460E+0	1.592350E+0	1.519790E+0	1.492780E+0	1.925170E+0	1.876530E+0	1.626720E+0	1.572230E+0	1.602940E+0	1.644250E+0	1.427520E+0	1.406920E+0	1.744260E+0	1.762610E+0	1.680860E+0	1.831120E+0	1.532160E+0	1.554720E+0	1.516180E+0	1.548750E+0	1.818420E+0	1.651540E+0	1.546190E+0	1.669900E+0	1.560160E+0	1.585290E+0	1.710090E+0	1.605440E+0	1.716300E+0	1.814470E+0	1.771010E+0	1.961110E+0	1.622960E+0	1.546750E+0	1.529060E+0	1.555730E+0	1.941850E+0	1.624090E+0	1.709790E+0	1.694650E+0	1.595530E+0	1.584080E+0	1.495170E+0	1.537860E+0	1.838310E+0	1.586830E+0	1.700550E+0	1.857600E+0	1.701090E+0	1.381790E+0	1.548620E+0	1.574330E+0	1.928480E+0	1.472090E+0	1.629420E+0	1.706440E+0	1.641050E+0	1.527270E+0	1.530100E+0	1.545250E+0	1.638810E+0	1.705450E+0	1.789110E+0	1.852960E+0	1.490840E+0	1.618500E+0	1.545730E+0	1.632600E+0	1.960320E+0	1.538110E+0	1.577220E+0	1.711830E+0	1.716720E+0	1.409150E+0	1.621650E+0
2.650000E+3	1.488780E+0	1.743540E+0	1.399070E+0	1.346430E+0	1.699350E+0	1.782670E+0	1.598300E+0	1.515540E+0	1.570140E+0	1.642050E+0	1.725890E+0	1.416180E+0	1.912020E+0	1.817720E+0	1.971160E+0	1.823100E+0	1.654660E+0	1.594940E+0	1.665580E+0	1.566940E+0	2.045570E+0	1.891440E+0	1.797700E+0	1.764030E+0	1.649520E+0	1.778750E+0	1.719510E+0	1.476800E+0	1.724430E+0	1.721380E+0	1.904060E+0	1.834770E+0	1.554170E+0	1.499820E+0	1.556890E+0	1.648370E+0	2.019660E+0	2.034260E+0	1.678770E+0	1.804370E+0	1.656440E+0	1.827880E+0	1.411800E+0	1.534240E+0	1.817520E+0	1.900980E+0	1.685780E+0	1.826710E+0	1.596400E+0	1.776400E+0	1.498700E+0	1.519130E+0	1.797190E+0	2.080530E+0	1.607760E+0	1.621730E+0	1.462470E+0	1.799950E+0	1.392150E+0	1.419380E+0	1.571800E+0	1.869180E+0	1.756560E+0	1.749170E+0	1.567520E+0	1.659540E+0	1.561870E+0	1.644660E+0	1.939840E+0	2.132410E+0	1.713210E+0	1.577500E+0	1.744800E+0	1.821580E+0	1.553680E+0	1.432260E+0	1.730160E+0	1.806500E+0	1.684960E+0	1.815010E+0	1.513730E+0	1.623460E+0	1.427130E+0	1.529710E+0	1.895750E+0	1.902700E+0	1.633480E+0	1.672540E+0	1.578290E+0	1.631670E+0	1.556710E+0	1.449750E+0	1.721050E+0	1.695660E+0	1.747910E+0	1.865950E+0	1.661910E+0	1.605410E+0	1.517510E+0	1.492540E+0	1.922670E+0	1.918530E+0	1.622710E+0	1.570160E+0	1.600750E+0	1.675250E+0	1.423840E+0	1.406890E+0	1.741850E+0	1.773570E+0	1.677560E+0	1.827950E+0	1.529640E+0	1.663800E+0	1.510000E+0	1.546010E+0	1.814460E+0	1.883170E+0	1.533250E+0	1.665940E+0	1.556230E+0	1.754990E+0	1.700090E+0	1.602410E+0	1.712370E+0	1.880840E+0	1.765420E+0	1.957730E+0	1.619860E+0	1.546860E+0	1.526720E+0	1.553380E+0	1.938470E+0	1.621680E+0	1.707200E+0	1.692090E+0	1.593090E+0	1.581940E+0	1.493070E+0	1.535690E+0	1.835400E+0	1.585540E+0	1.697810E+0	1.854500E+0	1.698350E+0	1.379820E+0	1.546080E+0	1.571920E+0	1.925220E+0	1.470120E+0	1.626890E+0	1.703770E+0	1.638710E+0	1.525070E+0	1.527690E+0	1.542890E+0	1.636350E+0	1.702800E+0	1.786170E+0	1.849950E+0	1.488680E+0	1.616020E+0	1.543230E+0	1.630190E+0	1.957270E+0	1.536020E+0	1.574960E+0	1.709180E+0	1.714150E+0	1.407150E+0	1.619150E+0
2.750000E+3	1.487350E+0	1.741520E+0	1.397760E+0	1.346580E+0	1.698010E+0	1.780590E+0	1.596650E+0	1.514020E+0	1.568620E+0	1.640350E+0	1.724050E+0	1.414800E+0	1.909750E+0	1.815610E+0	1.968820E+0	1.820890E+0	1.652900E+0	1.593130E+0	1.663650E+0	1.565180E+0	2.043050E+0	1.889020E+0	1.795540E+0	1.761960E+0	1.647620E+0	1.776650E+0	1.717460E+0	1.475160E+0	1.722470E+0	1.719350E+0	1.901740E+0	1.832500E+0	1.552440E+0	1.498240E+0	1.555170E+0	1.646370E+0	2.016990E+0	2.031430E+0	1.676720E+0	1.802140E+0	1.654370E+0	1.825550E+0	1.410210E+0	1.532470E+0	1.815260E+0	1.898590E+0	1.683710E+0	1.824420E+0	1.594500E+0	1.774140E+0	1.497070E+0	1.517310E+0	1.794990E+0	2.077550E+0	1.605830E+0	1.619630E+0	1.460630E+0	1.797600E+0	1.390500E+0	1.417790E+0	1.569890E+0	1.866700E+0	1.754290E+0	1.746940E+0	1.565550E+0	1.657450E+0	1.560040E+0	1.642600E+0	1.937150E+0	2.129190E+0	1.711090E+0	1.575600E+0	1.742590E+0	1.819180E+0	1.551710E+0	1.430540E+0	1.727890E+0	1.804050E+0	1.682780E+0	1.812500E+0	1.511850E+0	1.621290E+0	1.425340E+0	1.527850E+0	1.893100E+0	1.899940E+0	1.631360E+0	1.670370E+0	1.576200E+0	1.629450E+0	1.554680E+0	1.446760E+0	1.718650E+0	1.692390E+0	1.744620E+0	1.862860E+0	1.657410E+0	1.600970E+0	1.515110E+0	1.489460E+0	1.919460E+0	1.915680E+0	1.620710E+0	1.568190E+0	1.598780E+0	1.672680E+0	1.422540E+0	1.404210E+0	1.739630E+0	1.771570E+0	1.675830E+0	1.825990E+0	1.528100E+0	1.694670E+0	1.508410E+0	1.544830E+0	1.812130E+0	1.949870E+0	1.529630E+0	1.663830E+0	1.553320E+0	1.803560E+0	1.696120E+0	1.600480E+0	1.710120E+0	1.898970E+0	1.762620E+0	1.955330E+0	1.617960E+0	1.615510E+0	1.522120E+0	1.551320E+0	1.935420E+0	1.825510E+0	1.696400E+0	1.688910E+0	1.589800E+0	1.660370E+0	1.488180E+0	1.534090E+0	1.832810E+0	1.614990E+0	1.694920E+0	1.852230E+0	1.696170E+0	1.379940E+0	1.545690E+0	1.570120E+0	1.922660E+0	1.468550E+0	1.625120E+0	1.701910E+0	1.636910E+0	1.523690E+0	1.526190E+0	1.541370E+0	1.634640E+0	1.701000E+0	1.783890E+0	1.847640E+0	1.486890E+0	1.614300E+0	1.541400E+0	1.628220E+0	1.954650E+0	1.534310E+0	1.573210E+0	1.707240E+0	1.712260E+0	1.405780E+0	1.617300E+0
2.850000E+3	1.485610E+0	1.739130E+0	1.396160E+0	1.343780E+0	1.693670E+0	1.778090E+0	1.594590E+0	1.512280E+0	1.566660E+0	1.638290E+0	1.721700E+0	1.413160E+0	1.906950E+0	1.813040E+0	1.965860E+0	1.818270E+0	1.650510E+0	1.591120E+0	1.661420E+0	1.563220E+0	2.039820E+0	1.886310E+0	1.793170E+0	1.759570E+0	1.645500E+0	1.774160E+0	1.715330E+0	1.473430E+0	1.720190E+0	1.716930E+0	1.898890E+0	1.829790E+0	1.550420E+0	1.496290E+0	1.553150E+0	1.644230E+0	2.013970E+0	2.028290E+0	1.674600E+0	1.799640E+0	1.652340E+0	1.822950E+0	1.408710E+0	1.530650E+0	1.812730E+0	1.895840E+0	1.681610E+0	1.821840E+0	1.592410E+0	1.771680E+0	1.495220E+0	1.515540E+0	1.792450E+0	2.074360E+0	1.603790E+0	1.617640E+0	1.458950E+0	1.795100E+0	1.389010E+0	1.416210E+0	1.567980E+0	1.864090E+0	1.751950E+0	1.744640E+0	1.563670E+0	1.655400E+0	1.558170E+0	1.640500E+0	1.934310E+0	2.125810E+0	1.708810E+0	1.573700E+0	1.740200E+0	1.816550E+0	1.549840E+0	1.428950E+0	1.725650E+0	1.801590E+0	1.680590E+0	1.810320E+0	1.510170E+0	1.619270E+0	1.423820E+0	1.526060E+0	1.890430E+0	1.897210E+0	1.629340E+0	1.668290E+0	1.574250E+0	1.627330E+0	1.552780E+0	1.446730E+0	1.716560E+0	1.691140E+0	1.742090E+0	1.860780E+0	1.656030E+0	1.600640E+0	1.514010E+0	1.489040E+0	1.917190E+0	1.913410E+0	1.618960E+0	1.566560E+0	1.596450E+0	1.670600E+0	1.420580E+0	1.402690E+0	1.737420E+0	1.768700E+0	1.673150E+0	1.822780E+0	1.525810E+0	1.691910E+0	1.506160E+0	1.542610E+0	1.809130E+0	1.946400E+0	1.527410E+0	1.661390E+0	1.551620E+0	1.800470E+0	1.693520E+0	1.598200E+0	1.707510E+0	1.895750E+0	1.759780E+0	1.952030E+0	1.615440E+0	1.650100E+0	1.518320E+0	1.548820E+0	1.931790E+0	1.931920E+0	1.689160E+0	1.685770E+0	1.586490E+0	1.700470E+0	1.484320E+0	1.531870E+0	1.829570E+0	1.628120E+0	1.691620E+0	1.849120E+0	1.693280E+0	1.539570E+0	1.536510E+0	1.566790E+0	1.917920E+0	1.771990E+0	1.609410E+0	1.697760E+0	1.632060E+0	1.719430E+0	1.515630E+0	1.538530E+0	1.630870E+0	1.786310E+0	1.777510E+0	1.844420E+0	1.483990E+0	1.615130E+0	1.538990E+0	1.625720E+0	1.951210E+0	1.532250E+0	1.571190E+0	1.704670E+0	1.709700E+0	1.404180E+0	1.615110E+0
3.150000E+3	1.483940E+0	1.736640E+0	1.394360E+0	1.341730E+0	1.690620E+0	1.775620E+0	1.592470E+0	1.510300E+0	1.564510E+0	1.636000E+0	1.719430E+0	1.411420E+0	1.904250E+0	1.810520E+0	1.963080E+0	1.815800E+0	1.648240E+0	1.588920E+0	1.659110E+0	1.561120E+0	2.036730E+0	1.883560E+0	1.790750E+0	1.757240E+0	1.643290E+0	1.771790E+0	1.713090E+0	1.471670E+0	1.717830E+0	1.714700E+0	1.896210E+0	1.827330E+0	1.548460E+0	1.494400E+0	1.551300E+0	1.642050E+0	2.011080E+0	2.025450E+0	1.672520E+0	1.797300E+0	1.650250E+0	1.820640E+0	1.407100E+0	1.528710E+0	1.810380E+0	1.893300E+0	1.679490E+0	1.819510E+0	1.590440E+0	1.769440E+0	1.493450E+0	1.513720E+0	1.790180E+0	2.071440E+0	1.601900E+0	1.615710E+0	1.457360E+0	1.792820E+0	1.387430E+0	1.414540E+0	1.566180E+0	1.861670E+0	1.749850E+0	1.742470E+0	1.561850E+0	1.653310E+0	1.556330E+0	1.638570E+0	1.931750E+0	2.122990E+0	1.706950E+0	1.571940E+0	1.738090E+0	1.814250E+0	1.548180E+0	1.427480E+0	1.723650E+0	1.799410E+0	1.678690E+0	1.808040E+0	1.508560E+0	1.617500E+0	1.422400E+0	1.524430E+0	1.887960E+0	1.894900E+0	1.627690E+0	1.666500E+0	1.572580E+0	1.625660E+0	1.551280E+0	1.445290E+0	1.714560E+0	1.689270E+0	1.741470E+0	1.858680E+0	1.656360E+0	1.600530E+0	1.513990E+0	1.487940E+0	1.914900E+0	1.910820E+0	1.618280E+0	1.565940E+0	1.596250E+0	1.668830E+0	1.421600E+0	1.402620E+0	1.735540E+0	1.767760E+0	1.671540E+0	1.820770E+0	1.523180E+0	1.686180E+0	1.501210E+0	1.538560E+0	1.805990E+0	1.942910E+0	1.524890E+0	1.658580E+0	1.549980E+0	1.797480E+0	1.690610E+0	1.595460E+0	1.704570E+0	1.892430E+0	1.756810E+0	1.948470E+0	1.612840E+0	1.647320E+0	1.515890E+0	1.546340E+0	1.928470E+0	1.928460E+0	1.686490E+0	1.683040E+0	1.584060E+0	1.697660E+0	1.482010E+0	1.529540E+0	1.826510E+0	1.624710E+0	1.687970E+0	1.845920E+0	1.690550E+0	1.570770E+0	1.532590E+0	1.564000E+0	1.914290E+0	1.833250E+0	1.604080E+0	1.694740E+0	1.628980E+0	1.758160E+0	1.511610E+0	1.535990E+0	1.628000E+0	1.801890E+0	1.774070E+0	1.841330E+0	1.481580E+0	1.685990E+0	1.533580E+0	1.622800E+0	1.947260E+0	1.726320E+0	1.560270E+0	1.701060E+0	1.705540E+0	1.536460E+0	1.606820E+0
3.450000E+3	1.482340E+0	1.734360E+0	1.392790E+0	1.340420E+0	1.688640E+0	1.773140E+0	1.590450E+0	1.508530E+0	1.562550E+0	1.633880E+0	1.717230E+0	1.409710E+0	1.901680E+0	1.808040E+0	1.960290E+0	1.813390E+0	1.646090E+0	1.586870E+0	1.657010E+0	1.559180E+0	2.033840E+0	1.880910E+0	1.788550E+0	1.755110E+0	1.641260E+0	1.769480E+0	1.710920E+0	1.469950E+0	1.715700E+0	1.712490E+0	1.893550E+0	1.824850E+0	1.546560E+0	1.492580E+0	1.549350E+0	1.639970E+0	2.008290E+0	2.022690E+0	1.670540E+0	1.795130E+0	1.648260E+0	1.818190E+0	1.405600E+0	1.526990E+0	1.808050E+0	1.890780E+0	1.677460E+0	1.817150E+0	1.588520E+0	1.767270E+0	1.491810E+0	1.511950E+0	1.787960E+0	2.068590E+0	1.600270E+0	1.613950E+0	1.455820E+0	1.790590E+0	1.386070E+0	1.413120E+0	1.564390E+0	1.859360E+0	1.747790E+0	1.740390E+0	1.560230E+0	1.651470E+0	1.554690E+0	1.636700E+0	1.929310E+0	2.120130E+0	1.705090E+0	1.570340E+0	1.736130E+0	1.812050E+0	1.546610E+0	1.426080E+0	1.721670E+0	1.797380E+0	1.676980E+0	1.806000E+0	1.507210E+0	1.615800E+0	1.421110E+0	1.522820E+0	1.885800E+0	1.892640E+0	1.626070E+0	1.664760E+0	1.570980E+0	1.623770E+0	1.549860E+0	1.443970E+0	1.712790E+0	1.687620E+0	1.740560E+0	1.856660E+0	1.655580E+0	1.599510E+0	1.514970E+0	1.487020E+0	1.912670E+0	1.908350E+0	1.619250E+0	1.566980E+0	1.597150E+0	1.666740E+0	1.420820E+0	1.402360E+0	1.733390E+0	1.767150E+0	1.670640E+0	1.819430E+0	1.520340E+0	1.682240E+0	1.497130E+0	1.532850E+0	1.802730E+0	1.939970E+0	1.522530E+0	1.655890E+0	1.548860E+0	1.794340E+0	1.687710E+0	1.592880E+0	1.701720E+0	1.889100E+0	1.753770E+0	1.945010E+0	1.610310E+0	1.644710E+0	1.513160E+0	1.543960E+0	1.925050E+0	1.925140E+0	1.683810E+0	1.680400E+0	1.581550E+0	1.694920E+0	1.479850E+0	1.527240E+0	1.823510E+0	1.619770E+0	1.682570E+0	1.842920E+0	1.687840E+0	1.567840E+0	1.530260E+0	1.561550E+0	1.911050E+0	1.830210E+0	1.601780E+0	1.692090E+0	1.626520E+0	1.755280E+0	1.509300E+0	1.532880E+0	1.625590E+0	1.799050E+0	1.771180E+0	1.838420E+0	1.479570E+0	1.762210E+0	1.527790E+0	1.619820E+0	1.943480E+0	1.937490E+0	1.548660E+0	1.697280E+0	1.701330E+0	1.680590E+0	1.598200E+0
