Photon Energy (eV)	#1	#2	#3	#4	#5	#6	#7	#8	#9	#10	#11	#12	#13	#14	#15	#16	#17	#18	#19	#20	#21	#22	#23	#24	#25	#26	#27	#28	#29	#30	#31	#32	#33	#34	#35	#36	#37	#38	#39	#40	#41	#42	#43	#44	#45	#46	#47	#48	#49	#50	#51	#52	#53	#54	#55	#56	#57	#58	#59	#60	#61	#62	#63	#64	#65	#66	#67	#68	#69	#70	#71	#72	#73	#74	#75	#76	#77	#78	#79	#80	#81	#82	#83	#84	#85	#86	#87	#88	#89	#90	#91	#92	#93	#94	#95	#96	#97	#98	#99	#100	#101	#102	#103	#104	#105	#106	#107	#108	#109	#110	#111	#112	#113	#114	#115	#116	#117	#118	#119	#120	#121	#122	#123	#124	#125	#126	#127	#128	#129	#130	#131	#132	#133	#134	#135	#136	#137	#138	#139	#140	#141	#142	#143	#144	#145	#146	#147	#148	#149	#150	#151	#152	#153	#154	#155	#156	#157	#158	#159	#160	#161	#162	#163	#164	#165	#166	#167	#168	#169	
1.400000E+3	1.385990E+0	1.393590E+0	1.325770E+0	1.356540E+0	1.664720E+0	1.450140E+0	1.418790E+0	1.558910E+0	1.760300E+0	1.517840E+0	1.590390E+0	1.542160E+0	1.948940E+0	1.803740E+0	1.878060E+0	1.831440E+0	1.697510E+0	1.586820E+0	1.663770E+0	1.660920E+0	1.957200E+0	1.649930E+0	1.792010E+0	1.820120E+0	1.627420E+0	1.450070E+0	1.566120E+0	1.451030E+0	1.764130E+0	1.742780E+0	1.873340E+0	1.741170E+0	1.580840E+0	1.559700E+0	1.679890E+0	1.579350E+0	1.964430E+0	1.705500E+0	1.902380E+0	1.708310E+0	1.697920E+0	1.482580E+0	1.645920E+0	1.499730E+0	1.874140E+0	1.769400E+0	1.879080E+0	1.688870E+0	1.556760E+0	1.522060E+0	1.647150E+0	1.474140E+0	1.882990E+0	1.641360E+0	1.834640E+0	1.702760E+0	1.714340E+0	1.379000E+0	1.532570E+0	1.581380E+0	1.931560E+0	1.611480E+0	1.817690E+0	1.946200E+0	1.571900E+0	1.537110E+0	1.692110E+0	1.563080E+0	1.828460E+0	1.603180E+0	1.847690E+0	1.672120E+0	1.666500E+0	1.346330E+0	1.606840E+0	1.463590E+0	1.801770E+0	1.545570E+0	1.881640E+0	1.870190E+0	1.436270E+0	1.402430E+0	1.708940E+0	1.679200E+0	1.645370E+0	1.576590E+0	1.842290E+0	1.844200E+0	1.624870E+0	1.470280E+0	1.500690E+0	1.574950E+0	1.880010E+0	1.686190E+0	1.656660E+0	1.883320E+0	1.627490E+0	1.506460E+0	1.520280E+0	1.717820E+0	1.943570E+0	1.635700E+0	1.682150E+0	1.936100E+0	1.719930E+0	1.492050E+0	1.602020E+0	1.573500E+0	1.849600E+0	1.752110E+0	1.899330E+0	1.883210E+0	1.514910E+0	1.538410E+0	1.715940E+0	1.629350E+0	1.808560E+0	1.662120E+0	1.948830E+0	1.735320E+0	1.611120E+0	1.500900E+0	1.695440E+0	1.549100E+0	1.675760E+0	1.786920E+0	1.946340E+0	1.891960E+0	1.426030E+0	1.578590E+0	1.652070E+0	1.696940E+0	1.721510E+0	1.685060E+0	1.846240E+0	1.849400E+0	1.560090E+0	1.487920E+0	1.583400E+0	1.450110E+0	1.758860E+0	1.742210E+0	1.767040E+0	1.656100E+0	1.547760E+0	1.551080E+0	1.606240E+0	1.528380E+0	1.794090E+0	1.690750E+0	1.687370E+0	1.714610E+0	1.562130E+0	1.495130E+0	1.598960E+0	1.491920E+0	1.778500E+0	1.791360E+0	1.910990E+0	1.779740E+0	1.449130E+0	1.589860E+0	1.631770E+0	1.517260E+0	1.660310E+0	1.761820E+0	1.692190E+0	1.700080E+0	1.568460E+0
1.700000E+3	1.384090E+0	1.391250E+0	1.323640E+0	1.354240E+0	1.661810E+0	1.447280E+0	1.416430E+0	1.556240E+0	1.757200E+0	1.514060E+0	1.587510E+0	1.539570E+0	1.945240E+0	1.799240E+0	1.874510E+0	1.827950E+0	1.694600E+0	1.583480E+0	1.660840E+0	1.658060E+0	1.953440E+0	1.646710E+0	1.790190E+0	1.816770E+0	1.625220E+0	1.446140E+0	1.564870E+0	1.448990E+0	1.760890E+0	1.740000E+0	1.871740E+0	1.738050E+0	1.577480E+0	1.556880E+0	1.676600E+0	1.575980E+0	1.959860E+0	1.702130E+0	1.898750E+0	1.703990E+0	1.694770E+0	1.481340E+0	1.643600E+0	1.496840E+0	1.870160E+0	1.765710E+0	1.876740E+0	1.686670E+0	1.553940E+0	1.519340E+0	1.644090E+0	1.471550E+0	1.879420E+0	1.638290E+0	1.831040E+0	1.699680E+0	1.711300E+0	1.376700E+0	1.529940E+0	1.578550E+0	1.928340E+0	1.609180E+0	1.813520E+0	1.942170E+0	1.569040E+0	1.534720E+0	1.689150E+0	1.560160E+0	1.824710E+0	1.600230E+0	1.844030E+0	1.668370E+0	1.663280E+0	1.344080E+0	1.603960E+0	1.461110E+0	1.798300E+0	1.542720E+0	1.877810E+0	1.866430E+0	1.433770E+0	1.400050E+0	1.705480E+0	1.675930E+0	1.642210E+0	1.573660E+0	1.838600E+0	1.840500E+0	1.621860E+0	1.467740E+0	1.498090E+0	1.572440E+0	1.876260E+0	1.683040E+0	1.653590E+0	1.879510E+0	1.624480E+0	1.503820E+0	1.517430E+0	1.714440E+0	1.939520E+0	1.632710E+0	1.678960E+0	1.932140E+0	1.716660E+0	1.489410E+0	1.599070E+0	1.570670E+0	1.845820E+0	1.748670E+0	1.895580E+0	1.879490E+0	1.512170E+0	1.535680E+0	1.712680E+0	1.626310E+0	1.804970E+0	1.659020E+0	1.944890E+0	1.731980E+0	1.608220E+0	1.498860E+0	1.692220E+0	1.546270E+0	1.672620E+0	1.783430E+0	1.942340E+0	1.888100E+0	1.423600E+0	1.575740E+0	1.649040E+0	1.693790E+0	1.718290E+0	1.682050E+0	1.842630E+0	1.845810E+0	1.557250E+0	1.485350E+0	1.580550E+0	1.447600E+0	1.755460E+0	1.738880E+0	1.763740E+0	1.653010E+0	1.544990E+0	1.548280E+0	1.603380E+0	1.525720E+0	1.790670E+0	1.687620E+0	1.684330E+0	1.711350E+0	1.559310E+0	1.492490E+0	1.596020E+0	1.489330E+0	1.775050E+0	1.787950E+0	1.907220E+0	1.776330E+0	1.446680E+0	1.587060E+0	1.628810E+0	1.514650E+0	1.657270E+0	1.758600E+0	1.689110E+0	1.696990E+0	1.565700E+0
2.000000E+3	1.383680E+0	1.388770E+0	1.321420E+0	1.351890E+0	1.658690E+0	1.444610E+0	1.414020E+0	1.553410E+0	1.753840E+0	1.511380E+0	1.584720E+0	1.536790E+0	1.941340E+0	1.795800E+0	1.870880E+0	1.826640E+0	1.691250E+0	1.580430E+0	1.657550E+0	1.654700E+0	1.949330E+0	1.642230E+0	1.786890E+0	1.813080E+0	1.619910E+0	1.443410E+0	1.560370E+0	1.443660E+0	1.757610E+0	1.735450E+0	1.869310E+0	1.733710E+0	1.575080E+0	1.554120E+0	1.673840E+0	1.573450E+0	1.956360E+0	1.697780E+0	1.895900E+0	1.701000E+0	1.694080E+0	1.476180E+0	1.638350E+0	1.494840E+0	1.867190E+0	1.756950E+0	1.871300E+0	1.683470E+0	1.551710E+0	1.515440E+0	1.641510E+0	1.469330E+0	1.878340E+0	1.635580E+0	1.827850E+0	1.696810E+0	1.708390E+0	1.374260E+0	1.527480E+0	1.576110E+0	1.924590E+0	1.604850E+0	1.810810E+0	1.938480E+0	1.566600E+0	1.531650E+0	1.686500E+0	1.557700E+0	1.821570E+0	1.597620E+0	1.840800E+0	1.668130E+0	1.660520E+0	1.342140E+0	1.601330E+0	1.458850E+0	1.795480E+0	1.540330E+0	1.874430E+0	1.863070E+0	1.431560E+0	1.398030E+0	1.702680E+0	1.673110E+0	1.639480E+0	1.571160E+0	1.835370E+0	1.837190E+0	1.619170E+0	1.465150E+0	1.495650E+0	1.569810E+0	1.872790E+0	1.680170E+0	1.650800E+0	1.875970E+0	1.621700E+0	1.501400E+0	1.515040E+0	1.711410E+0	1.935850E+0	1.629980E+0	1.676110E+0	1.928460E+0	1.713520E+0	1.486990E+0	1.596430E+0	1.568020E+0	1.842390E+0	1.745410E+0	1.891890E+0	1.875800E+0	1.509590E+0	1.533020E+0	1.709460E+0	1.623390E+0	1.801530E+0	1.656030E+0	1.941070E+0	1.728800E+0	1.605600E+0	1.496020E+0	1.689140E+0	1.543610E+0	1.669550E+0	1.780140E+0	1.938490E+0	1.884360E+0	1.421130E+0	1.572950E+0	1.646020E+0	1.690680E+0	1.715030E+0	1.678930E+0	1.839030E+0	1.842230E+0	1.554430E+0	1.482850E+0	1.577830E+0	1.445170E+0	1.752210E+0	1.735640E+0	1.760440E+0	1.649960E+0	1.542290E+0	1.545570E+0	1.600480E+0	1.522980E+0	1.787200E+0	1.684540E+0	1.681150E+0	1.708200E+0	1.556450E+0	1.490080E+0	1.593250E+0	1.486860E+0	1.771810E+0	1.784620E+0	1.903460E+0	1.773000E+0	1.444280E+0	1.584230E+0	1.625910E+0	1.511980E+0	1.654170E+0	1.755270E+0	1.685990E+0	1.693840E+0	1.562860E+0
2.100000E+3	1.382810E+0	1.386440E+0	1.347630E+0	1.348360E+0	1.655440E+0	1.441830E+0	1.414990E+0	1.550500E+0	1.750540E+0	1.508610E+0	1.581940E+0	1.534110E+0	1.937470E+0	1.792470E+0	1.867360E+0	1.824090E+0	1.688150E+0	1.577520E+0	1.654660E+0	1.651510E+0	1.945290E+0	1.639170E+0	1.782800E+0	1.809440E+0	1.615860E+0	1.440350E+0	1.556710E+0	1.440190E+0	1.754400E+0	1.731250E+0	1.866370E+0	1.731020E+0	1.571830E+0	1.550390E+0	1.670120E+0	1.570200E+0	1.952200E+0	1.693450E+0	1.893590E+0	1.697340E+0	1.692420E+0	1.472790E+0	1.635210E+0	1.491310E+0	1.863020E+0	1.753140E+0	1.866880E+0	1.680890E+0	1.549180E+0	1.513050E+0	1.638560E+0	1.467090E+0	1.876530E+0	1.632230E+0	1.824490E+0	1.694010E+0	1.705900E+0	1.370540E+0	1.524820E+0	1.573480E+0	1.921460E+0	1.596950E+0	1.807980E+0	1.935270E+0	1.564050E+0	1.528170E+0	1.685180E+0	1.555220E+0	1.818320E+0	1.594640E+0	1.837430E+0	1.666350E+0	1.657720E+0	1.339230E+0	1.598500E+0	1.456540E+0	1.792630E+0	1.536560E+0	1.871110E+0	1.859560E+0	1.429370E+0	1.395230E+0	1.699790E+0	1.670270E+0	1.636690E+0	1.568550E+0	1.832100E+0	1.833830E+0	1.616420E+0	1.463080E+0	1.493920E+0	1.567470E+0	1.869320E+0	1.677240E+0	1.647910E+0	1.872470E+0	1.618830E+0	1.498940E+0	1.512650E+0	1.708370E+0	1.932170E+0	1.627180E+0	1.673250E+0	1.924790E+0	1.710380E+0	1.484620E+0	1.593720E+0	1.565360E+0	1.838980E+0	1.742200E+0	1.888320E+0	1.872100E+0	1.507070E+0	1.530420E+0	1.706410E+0	1.620420E+0	1.798110E+0	1.653270E+0	1.937350E+0	1.725610E+0	1.602930E+0	1.493700E+0	1.686240E+0	1.540940E+0	1.666580E+0	1.776890E+0	1.934710E+0	1.880750E+0	1.418810E+0	1.570250E+0	1.643110E+0	1.687550E+0	1.711850E+0	1.675990E+0	1.835480E+0	1.838710E+0	1.551730E+0	1.480380E+0	1.575170E+0	1.442820E+0	1.749020E+0	1.732590E+0	1.757220E+0	1.646580E+0	1.539690E+0	1.543030E+0	1.597610E+0	1.520330E+0	1.783950E+0	1.681600E+0	1.678190E+0	1.705200E+0	1.553810E+0	1.487650E+0	1.590570E+0	1.484460E+0	1.768570E+0	1.781450E+0	1.899820E+0	1.769810E+0	1.441920E+0	1.581610E+0	1.623030E+0	1.509490E+0	1.651320E+0	1.752170E+0	1.683050E+0	1.690900E+0	1.560230E+0
2.200000E+3	1.378960E+0	1.390130E+0	1.458110E+0	1.341080E+0	1.651740E+0	1.457950E+0	1.425380E+0	1.546890E+0	1.747200E+0	1.526210E+0	1.578670E+0	1.531360E+0	1.933390E+0	1.798520E+0	1.863510E+0	1.820540E+0	1.684900E+0	1.574610E+0	1.651460E+0	1.646780E+0	1.941160E+0	1.633430E+0	1.779870E+0	1.805930E+0	1.613170E+0	1.438130E+0	1.554250E+0	1.437530E+0	1.750390E+0	1.728150E+0	1.860050E+0	1.724520E+0	1.569070E+0	1.548020E+0	1.665890E+0	1.567110E+0	1.948000E+0	1.688860E+0	1.890920E+0	1.693650E+0	1.689350E+0	1.469680E+0	1.633570E+0	1.488020E+0	1.858610E+0	1.749880E+0	1.863250E+0	1.678320E+0	1.546640E+0	1.510490E+0	1.635880E+0	1.464570E+0	1.873830E+0	1.629560E+0	1.821330E+0	1.691300E+0	1.703000E+0	1.368390E+0	1.522410E+0	1.570810E+0	1.917970E+0	1.596540E+0	1.804960E+0	1.931660E+0	1.561560E+0	1.525690E+0	1.683560E+0	1.552600E+0	1.815060E+0	1.591510E+0	1.834080E+0	1.664110E+0	1.654970E+0	1.336400E+0	1.595560E+0	1.454250E+0	1.789420E+0	1.532980E+0	1.867750E+0	1.856370E+0	1.427230E+0	1.392610E+0	1.696860E+0	1.667390E+0	1.633940E+0	1.565660E+0	1.828580E+0	1.830540E+0	1.613750E+0	1.458320E+0	1.492840E+0	1.564880E+0	1.866080E+0	1.673140E+0	1.645160E+0	1.869110E+0	1.616170E+0	1.496010E+0	1.510220E+0	1.705370E+0	1.928390E+0	1.624300E+0	1.670330E+0	1.921060E+0	1.707320E+0	1.482240E+0	1.591020E+0	1.562750E+0	1.835550E+0	1.739080E+0	1.884720E+0	1.868610E+0	1.504580E+0	1.527920E+0	1.703400E+0	1.617620E+0	1.794680E+0	1.650320E+0	1.933680E+0	1.722420E+0	1.600190E+0	1.491170E+0	1.683250E+0	1.538240E+0	1.663630E+0	1.773650E+0	1.930950E+0	1.877130E+0	1.416390E+0	1.567640E+0	1.640250E+0	1.684380E+0	1.708760E+0	1.672980E+0	1.832110E+0	1.835260E+0	1.548980E+0	1.477940E+0	1.572490E+0	1.440420E+0	1.745690E+0	1.729390E+0	1.753920E+0	1.641910E+0	1.537320E+0	1.540510E+0	1.594520E+0	1.517670E+0	1.780630E+0	1.678670E+0	1.674960E+0	1.702170E+0	1.551160E+0	1.485200E+0	1.587800E+0	1.482110E+0	1.765330E+0	1.778130E+0	1.896150E+0	1.766530E+0	1.439520E+0	1.578850E+0	1.620210E+0	1.506900E+0	1.648400E+0	1.748980E+0	1.680000E+0	1.687910E+0	1.557570E+0
2.300000E+3	1.377510E+0	1.453650E+0	1.453260E+0	1.338880E+0	1.648690E+0	1.631840E+0	1.415190E+0	1.543540E+0	1.742900E+0	1.710960E+0	1.569780E+0	1.528070E+0	1.928590E+0	1.881050E+0	1.857850E+0	1.816940E+0	1.681380E+0	1.619700E+0	1.646550E+0	1.643680E+0	1.937010E+0	1.755050E+0	1.773940E+0	1.801790E+0	1.609240E+0	1.569840E+0	1.545800E+0	1.434620E+0	1.745540E+0	1.797180E+0	1.852610E+0	1.720530E+0	1.565940E+0	1.546840E+0	1.662850E+0	1.564660E+0	1.944050E+0	1.685430E+0	1.887880E+0	1.690350E+0	1.686640E+0	1.467180E+0	1.631730E+0	1.484820E+0	1.855440E+0	1.746700E+0	1.859690E+0	1.675130E+0	1.544030E+0	1.508010E+0	1.633040E+0	1.462020E+0	1.870320E+0	1.626830E+0	1.817900E+0	1.688460E+0	1.700090E+0	1.366300E+0	1.519770E+0	1.568100E+0	1.914500E+0	1.594110E+0	1.801470E+0	1.927910E+0	1.558990E+0	1.522820E+0	1.681680E+0	1.550010E+0	1.811700E+0	1.588860E+0	1.830630E+0	1.661230E+0	1.652050E+0	1.334210E+0	1.592730E+0	1.451740E+0	1.785820E+0	1.530320E+0	1.864080E+0	1.852770E+0	1.424980E+0	1.390330E+0	1.693830E+0	1.664390E+0	1.631170E+0	1.562890E+0	1.825140E+0	1.827170E+0	1.610850E+0	1.453730E+0	1.489850E+0	1.562220E+0	1.862410E+0	1.669400E+0	1.642320E+0	1.865600E+0	1.613380E+0	1.493280E+0	1.507780E+0	1.702360E+0	1.924520E+0	1.621490E+0	1.667310E+0	1.917260E+0	1.704010E+0	1.479690E+0	1.588170E+0	1.560070E+0	1.832000E+0	1.736010E+0	1.881290E+0	1.865160E+0	1.502170E+0	1.525490E+0	1.700480E+0	1.614870E+0	1.791420E+0	1.647540E+0	1.929860E+0	1.719380E+0	1.597020E+0	1.488480E+0	1.680220E+0	1.535710E+0	1.660750E+0	1.770600E+0	1.927100E+0	1.873670E+0	1.414160E+0	1.564990E+0	1.637270E+0	1.681530E+0	1.705630E+0	1.670030E+0	1.828660E+0	1.831910E+0	1.546420E+0	1.475520E+0	1.569850E+0	1.438100E+0	1.742580E+0	1.726310E+0	1.749750E+0	1.639020E+0	1.534860E+0	1.538020E+0	1.588960E+0	1.515410E+0	1.777410E+0	1.675960E+0	1.669120E+0	1.699670E+0	1.548620E+0	1.482990E+0	1.583930E+0	1.479900E+0	1.762280E+0	1.775140E+0	1.891890E+0	1.763460E+0	1.437450E+0	1.576410E+0	1.615620E+0	1.504730E+0	1.645700E+0	1.746120E+0	1.675190E+0	1.685450E+0	1.555100E+0
2.325000E+3	1.376770E+0	1.451720E+0	1.451350E+0	1.337160E+0	1.646350E+0	1.629510E+0	1.413330E+0	1.541460E+0	1.740370E+0	1.708410E+0	1.566640E+0	1.525930E+0	1.925670E+0	1.878090E+0	1.853650E+0	1.814440E+0	1.678890E+0	1.657870E+0	1.642210E+0	1.641850E+0	1.933510E+0	1.861060E+0	1.768280E+0	1.798910E+0	1.605600E+0	1.684500E+0	1.537960E+0	1.431550E+0	1.742190E+0	1.856590E+0	1.847050E+0	1.717320E+0	1.562680E+0	1.580890E+0	1.658260E+0	1.561640E+0	1.940470E+0	1.797480E+0	1.878840E+0	1.687240E+0	1.682610E+0	1.615770E+0	1.624390E+0	1.480450E+0	1.850370E+0	1.822310E+0	1.855950E+0	1.672520E+0	1.540940E+0	1.510370E+0	1.630140E+0	1.459730E+0	1.866890E+0	1.641140E+0	1.814080E+0	1.685460E+0	1.697370E+0	1.387110E+0	1.516240E+0	1.565450E+0	1.911250E+0	1.600650E+0	1.798120E+0	1.924510E+0	1.556570E+0	1.521320E+0	1.678410E+0	1.547500E+0	1.808450E+0	1.586380E+0	1.827190E+0	1.658410E+0	1.649320E+0	1.332180E+0	1.589980E+0	1.449410E+0	1.783180E+0	1.527970E+0	1.860710E+0	1.849530E+0	1.422880E+0	1.388200E+0	1.690760E+0	1.661590E+0	1.628410E+0	1.560420E+0	1.821800E+0	1.823950E+0	1.608200E+0	1.451720E+0	1.486850E+0	1.559980E+0	1.859190E+0	1.666630E+0	1.639590E+0	1.862220E+0	1.610700E+0	1.490900E+0	1.505270E+0	1.699420E+0	1.920930E+0	1.618810E+0	1.664470E+0	1.913740E+0	1.700920E+0	1.477250E+0	1.585430E+0	1.557590E+0	1.828550E+0	1.733140E+0	1.877800E+0	1.861920E+0	1.499760E+0	1.523060E+0	1.697590E+0	1.612270E+0	1.788260E+0	1.644910E+0	1.926400E+0	1.716540E+0	1.594000E+0	1.486500E+0	1.677390E+0	1.533210E+0	1.657800E+0	1.767400E+0	1.923550E+0	1.870260E+0	1.411990E+0	1.562510E+0	1.634520E+0	1.678750E+0	1.702770E+0	1.667230E+0	1.825430E+0	1.828520E+0	1.543810E+0	1.473210E+0	1.567250E+0	1.435830E+0	1.739500E+0	1.723340E+0	1.746610E+0	1.636240E+0	1.532350E+0	1.535600E+0	1.586170E+0	1.512920E+0	1.774280E+0	1.673150E+0	1.666150E+0	1.696660E+0	1.546050E+0	1.480570E+0	1.581300E+0	1.477390E+0	1.759180E+0	1.772080E+0	1.887690E+0	1.760380E+0	1.435220E+0	1.573930E+0	1.611070E+0	1.502440E+0	1.643030E+0	1.743270E+0	1.670500E+0	1.682710E+0	1.552590E+0
2.350000E+3	1.373710E+0	1.449680E+0	1.449360E+0	1.372480E+0	1.642270E+0	1.626790E+0	1.410990E+0	1.547140E+0	1.737250E+0	1.705680E+0	1.563360E+0	1.523660E+0	1.922430E+0	1.874980E+0	1.850410E+0	1.811060E+0	1.676250E+0	1.655260E+0	1.639600E+0	1.639010E+0	1.930150E+0	1.858170E+0	1.764680E+0	1.795660E+0	1.602950E+0	1.681610E+0	1.535610E+0	1.429750E+0	1.739620E+0	1.853270E+0	1.844740E+0	1.715130E+0	1.560380E+0	1.591230E+0	1.654330E+0	1.559260E+0	1.936770E+0	1.836140E+0	1.873130E+0	1.683870E+0	1.678650E+0	1.668890E+0	1.619320E+0	1.477790E+0	1.845740E+0	1.847650E+0	1.852100E+0	1.669870E+0	1.538250E+0	1.526240E+0	1.626600E+0	1.457320E+0	1.863280E+0	1.723180E+0	1.807360E+0	1.682060E+0	1.693410E+0	1.496930E+0	1.508660E+0	1.562300E+0	1.906460E+0	1.639510E+0	1.793320E+0	1.920950E+0	1.553760E+0	1.591840E+0	1.673140E+0	1.544450E+0	1.804570E+0	1.791930E+0	1.815020E+0	1.654380E+0	1.644700E+0	1.566010E+0	1.581030E+0	1.445730E+0	1.778220E+0	1.705270E+0	1.849870E+0	1.845610E+0	1.419340E+0	1.389260E+0	1.687670E+0	1.658970E+0	1.625540E+0	1.557610E+0	1.818560E+0	1.820460E+0	1.605350E+0	1.450700E+0	1.487430E+0	1.557720E+0	1.855830E+0	1.664050E+0	1.636550E+0	1.858900E+0	1.608010E+0	1.488550E+0	1.502530E+0	1.696310E+0	1.917150E+0	1.616080E+0	1.661170E+0	1.910080E+0	1.697930E+0	1.474950E+0	1.582560E+0	1.554860E+0	1.825530E+0	1.730110E+0	1.874200E+0	1.858360E+0	1.497360E+0	1.520520E+0	1.694350E+0	1.609450E+0	1.785030E+0	1.641930E+0	1.922680E+0	1.713500E+0	1.590890E+0	1.484170E+0	1.674250E+0	1.530600E+0	1.654870E+0	1.764180E+0	1.919660E+0	1.866680E+0	1.409600E+0	1.559730E+0	1.631570E+0	1.675820E+0	1.699660E+0	1.664380E+0	1.821980E+0	1.825250E+0	1.541030E+0	1.470630E+0	1.564470E+0	1.433370E+0	1.736180E+0	1.719970E+0	1.743100E+0	1.633310E+0	1.528970E+0	1.532840E+0	1.583440E+0	1.510370E+0	1.770780E+0	1.670030E+0	1.663220E+0	1.693600E+0	1.543140E+0	1.477930E+0	1.578310E+0	1.474870E+0	1.755640E+0	1.768570E+0	1.883910E+0	1.756920E+0	1.432690E+0	1.571050E+0	1.608070E+0	1.499880E+0	1.639890E+0	1.740050E+0	1.667400E+0	1.679630E+0	1.549730E+0
2.375000E+3	1.372270E+0	1.447670E+0	1.447330E+0	1.418910E+0	1.637550E+0	1.623870E+0	1.408610E+0	1.555190E+0	1.733810E+0	1.703010E+0	1.561430E+0	1.521470E+0	1.919200E+0	1.871770E+0	1.847390E+0	1.807720E+0	1.673570E+0	1.652660E+0	1.636960E+0	1.637350E+0	1.926690E+0	1.856110E+0	1.760810E+0	1.792610E+0	1.601230E+0	1.679660E+0	1.533730E+0	1.428870E+0	1.737380E+0	1.850770E+0	1.843190E+0	1.713740E+0	1.557740E+0	1.589170E+0	1.653570E+0	1.556620E+0	1.932980E+0	1.834990E+0	1.871660E+0	1.681230E+0	1.676190E+0	1.666990E+0	1.616180E+0	1.477820E+0	1.844640E+0	1.846030E+0	1.847770E+0	1.666580E+0	1.535290E+0	1.523500E+0	1.624020E+0	1.454750E+0	1.858470E+0	1.719650E+0	1.803640E+0	1.678760E+0	1.689640E+0	1.494090E+0	1.505850E+0	1.559350E+0	1.902350E+0	1.635930E+0	1.789500E+0	1.916740E+0	1.550730E+0	1.599770E+0	1.669440E+0	1.541450E+0	1.800720E+0	1.820200E+0	1.809840E+0	1.650520E+0	1.641100E+0	1.599900E+0	1.576950E+0	1.442870E+0	1.773950E+0	1.729330E+0	1.844820E+0	1.841690E+0	1.416500E+0	1.432670E+0	1.682420E+0	1.655330E+0	1.621960E+0	1.708160E+0	1.808200E+0	1.815770E+0	1.600980E+0	1.629330E+0	1.477280E+0	1.555050E+0	1.850510E+0	1.766220E+0	1.629120E+0	1.854650E+0	1.604180E+0	1.507450E+0	1.498860E+0	1.692900E+0	1.912640E+0	1.675690E+0	1.655200E+0	1.905450E+0	1.693910E+0	1.539260E+0	1.576720E+0	1.551740E+0	1.821320E+0	1.762450E+0	1.868920E+0	1.854570E+0	1.494370E+0	1.518500E+0	1.690980E+0	1.606310E+0	1.781350E+0	1.638870E+0	1.918500E+0	1.710180E+0	1.587610E+0	1.481850E+0	1.671100E+0	1.527960E+0	1.651870E+0	1.760930E+0	1.915690E+0	1.862910E+0	1.407260E+0	1.556990E+0	1.628270E+0	1.672500E+0	1.696460E+0	1.661250E+0	1.818200E+0	1.821640E+0	1.538420E+0	1.468160E+0	1.561670E+0	1.431060E+0	1.733070E+0	1.716690E+0	1.739620E+0	1.630240E+0	1.525550E+0	1.530150E+0	1.580340E+0	1.507750E+0	1.767120E+0	1.667040E+0	1.660070E+0	1.690560E+0	1.540310E+0	1.475420E+0	1.575430E+0	1.472230E+0	1.752250E+0	1.765130E+0	1.879980E+0	1.753600E+0	1.430250E+0	1.568310E+0	1.605170E+0	1.497410E+0	1.636870E+0	1.736810E+0	1.664380E+0	1.676640E+0	1.546950E+0
2.400000E+3	1.371020E+0	1.445410E+0	1.444860E+0	1.416620E+0	1.634650E+0	1.621040E+0	1.406280E+0	1.552670E+0	1.730720E+0	1.699900E+0	1.558920E+0	1.518920E+0	1.915550E+0	1.868270E+0	1.843860E+0	1.805070E+0	1.670540E+0	1.649700E+0	1.633980E+0	1.634100E+0	1.922940E+0	1.852280E+0	1.758300E+0	1.789780E+0	1.597490E+0	1.675860E+0	1.530240E+0	1.424890E+0	1.733870E+0	1.846300E+0	1.837860E+0	1.708200E+0	1.554780E+0	1.585710E+0	1.650380E+0	1.553630E+0	1.928940E+0	1.830800E+0	1.868050E+0	1.678470E+0	1.674270E+0	1.664150E+0	1.613920E+0	1.474440E+0	1.840700E+0	1.842310E+0	1.846140E+0	1.663820E+0	1.532960E+0	1.521200E+0	1.621790E+0	1.452620E+0	1.856330E+0	1.716890E+0	1.800660E+0	1.676190E+0	1.687660E+0	1.491850E+0	1.503600E+0	1.556870E+0	1.899480E+0	1.634430E+0	1.786600E+0	1.913410E+0	1.548330E+0	1.597430E+0	1.666690E+0	1.539100E+0	1.797620E+0	1.816970E+0	1.806780E+0	1.648130E+0	1.638430E+0	1.597490E+0	1.574620E+0	1.440640E+0	1.771670E+0	1.726330E+0	1.841590E+0	1.838410E+0	1.414420E+0	1.435750E+0	1.679400E+0	1.652570E+0	1.619240E+0	1.722220E+0	1.804320E+0	1.812410E+0	1.598160E+0	1.646800E+0	1.474400E+0	1.554420E+0	1.847100E+0	1.774770E+0	1.625880E+0	1.851260E+0	1.601370E+0	1.552990E+0	1.494360E+0	1.689670E+0	1.908570E+0	1.819000E+0	1.645960E+0	1.901000E+0	1.689650E+0	1.692670E+0	1.567430E+0	1.548410E+0	1.816710E+0	1.841500E+0	1.861800E+0	1.850700E+0	1.491110E+0	1.576930E+0	1.685320E+0	1.603060E+0	1.777270E+0	1.806830E+0	1.907190E+0	1.705770E+0	1.583070E+0	1.663970E+0	1.659990E+0	1.524350E+0	1.647360E+0	1.842060E+0	1.908130E+0	1.858900E+0	1.404070E+0	1.556370E+0	1.625050E+0	1.669240E+0	1.692860E+0	1.657990E+0	1.814380E+0	1.817680E+0	1.535360E+0	1.465590E+0	1.558620E+0	1.428470E+0	1.729710E+0	1.713430E+0	1.735940E+0	1.627100E+0	1.522650E+0	1.527300E+0	1.576960E+0	1.504720E+0	1.763510E+0	1.663650E+0	1.656440E+0	1.687160E+0	1.537450E+0	1.472670E+0	1.572300E+0	1.469560E+0	1.748830E+0	1.761470E+0	1.875780E+0	1.749830E+0	1.427570E+0	1.565050E+0	1.601660E+0	1.494340E+0	1.633590E+0	1.733230E+0	1.660850E+0	1.673230E+0	1.543880E+0
2.425000E+3	1.369460E+0	1.443460E+0	1.442940E+0	1.414730E+0	1.632310E+0	1.618610E+0	1.404440E+0	1.550420E+0	1.728000E+0	1.697300E+0	1.556840E+0	1.516810E+0	1.912500E+0	1.865310E+0	1.841030E+0	1.801730E+0	1.668080E+0	1.647240E+0	1.631610E+0	1.631840E+0	1.919730E+0	1.849440E+0	1.755950E+0	1.786010E+0	1.595520E+0	1.672850E+0	1.528720E+0	1.423400E+0	1.731500E+0	1.843700E+0	1.834970E+0	1.706400E+0	1.553180E+0	1.583710E+0	1.648140E+0	1.551650E+0	1.925960E+0	1.828490E+0	1.865180E+0	1.675540E+0	1.671700E+0	1.660790E+0	1.611180E+0	1.473250E+0	1.837880E+0	1.839470E+0	1.842080E+0	1.661170E+0	1.530560E+0	1.518860E+0	1.617850E+0	1.450280E+0	1.852850E+0	1.713820E+0	1.797470E+0	1.673260E+0	1.684030E+0	1.489450E+0	1.501210E+0	1.554410E+0	1.895570E+0	1.630960E+0	1.783430E+0	1.909980E+0	1.545820E+0	1.594350E+0	1.663910E+0	1.536680E+0	1.794530E+0	1.813740E+0	1.803530E+0	1.645380E+0	1.635630E+0	1.594570E+0	1.572260E+0	1.438450E+0	1.767760E+0	1.723300E+0	1.838290E+0	1.835110E+0	1.412270E+0	1.432870E+0	1.676580E+0	1.649780E+0	1.616600E+0	1.719240E+0	1.801150E+0	1.809240E+0	1.595530E+0	1.644000E+0	1.472140E+0	1.551580E+0	1.843740E+0	1.771690E+0	1.623220E+0	1.847900E+0	1.598670E+0	1.550450E+0	1.492040E+0	1.686820E+0	1.905010E+0	1.815720E+0	1.643210E+0	1.897480E+0	1.686710E+0	1.689710E+0	1.564860E+0	1.545900E+0	1.813610E+0	1.838250E+0	1.858530E+0	1.847430E+0	1.488760E+0	1.602790E+0	1.681240E+0	1.600250E+0	1.773970E+0	1.884910E+0	1.900100E+0	1.702340E+0	1.579800E+0	1.748400E+0	1.653450E+0	1.521590E+0	1.643990E+0	1.878890E+0	1.903010E+0	1.855480E+0	1.401640E+0	1.617020E+0	1.619630E+0	1.666000E+0	1.689340E+0	1.826060E+0	1.803630E+0	1.813350E+0	1.531360E+0	1.639990E+0	1.548210E+0	1.425360E+0	1.725250E+0	1.807990E+0	1.728680E+0	1.623850E+0	1.519490E+0	1.545570E+0	1.573380E+0	1.502110E+0	1.759950E+0	1.715240E+0	1.651130E+0	1.683660E+0	1.534350E+0	1.526330E+0	1.566990E+0	1.466800E+0	1.745250E+0	1.786420E+0	1.870930E+0	1.746560E+0	1.424930E+0	1.563030E+0	1.598720E+0	1.491770E+0	1.630680E+0	1.730020E+0	1.657670E+0	1.670160E+0	1.541250E+0
2.450000E+3	1.367480E+0	1.441260E+0	1.440740E+0	1.412630E+0	1.629680E+0	1.616040E+0	1.402350E+0	1.547910E+0	1.725060E+0	1.694390E+0	1.553080E+0	1.514350E+0	1.908950E+0	1.861920E+0	1.837680E+0	1.798270E+0	1.665220E+0	1.644460E+0	1.628860E+0	1.629130E+0	1.916130E+0	1.846010E+0	1.751850E+0	1.782840E+0	1.592790E+0	1.669930E+0	1.526190E+0	1.421160E+0	1.728520E+0	1.840240E+0	1.832500E+0	1.702770E+0	1.550230E+0	1.580990E+0	1.644590E+0	1.548770E+0	1.921950E+0	1.824090E+0	1.861340E+0	1.672550E+0	1.668350E+0	1.657890E+0	1.608400E+0	1.469940E+0	1.833790E+0	1.835170E+0	1.838350E+0	1.658300E+0	1.528010E+0	1.516300E+0	1.615010E+0	1.447900E+0	1.849100E+0	1.710780E+0	1.794210E+0	1.670310E+0	1.681560E+0	1.486960E+0	1.498810E+0	1.551810E+0	1.892220E+0	1.627770E+0	1.780160E+0	1.906300E+0	1.543200E+0	1.591530E+0	1.660510E+0	1.533980E+0	1.791010E+0	1.810240E+0	1.800140E+0	1.642470E+0	1.632640E+0	1.591120E+0	1.569560E+0	1.436130E+0	1.765160E+0	1.720070E+0	1.834740E+0	1.831690E+0	1.409930E+0	1.430480E+0	1.673540E+0	1.646780E+0	1.613720E+0	1.716010E+0	1.797760E+0	1.805870E+0	1.592760E+0	1.641010E+0	1.469580E+0	1.547990E+0	1.840230E+0	1.768430E+0	1.620300E+0	1.844340E+0	1.595830E+0	1.547830E+0	1.489510E+0	1.683750E+0	1.901260E+0	1.812230E+0	1.640320E+0	1.893800E+0	1.683630E+0	1.686600E+0	1.562160E+0	1.543290E+0	1.810150E+0	1.834640E+0	1.854880E+0	1.843790E+0	1.486220E+0	1.599870E+0	1.678200E+0	1.597350E+0	1.770610E+0	1.881190E+0	1.896340E+0	1.699280E+0	1.577010E+0	1.744940E+0	1.650500E+0	1.519010E+0	1.641010E+0	1.875180E+0	1.899370E+0	1.851850E+0	1.399370E+0	1.623700E+0	1.616370E+0	1.662860E+0	1.686140E+0	1.848680E+0	1.799010E+0	1.809770E+0	1.528450E+0	1.664040E+0	1.544240E+0	1.422820E+0	1.721850E+0	1.819450E+0	1.724840E+0	1.620990E+0	1.516700E+0	1.606130E+0	1.567810E+0	1.499060E+0	1.755970E+0	1.890820E+0	1.640130E+0	1.679400E+0	1.530050E+0	1.707530E+0	1.555880E+0	1.463230E+0	1.740520E+0	1.874780E+0	1.863250E+0	1.742890E+0	1.421830E+0	1.598580E+0	1.593970E+0	1.488780E+0	1.627070E+0	1.846340E+0	1.649150E+0	1.666050E+0	1.537180E+0
2.475000E+3	1.363410E+0	1.439330E+0	1.438650E+0	1.410780E+0	1.627230E+0	1.613610E+0	1.400380E+0	1.545730E+0	1.722450E+0	1.691640E+0	1.550600E+0	1.512190E+0	1.905820E+0	1.859010E+0	1.834510E+0	1.795440E+0	1.662780E+0	1.642000E+0	1.626410E+0	1.626650E+0	1.913060E+0	1.843290E+0	1.746350E+0	1.780090E+0	1.590310E+0	1.665750E+0	1.523670E+0	1.419170E+0	1.725870E+0	1.837280E+0	1.828890E+0	1.702160E+0	1.548070E+0	1.578410E+0	1.641840E+0	1.546830E+0	1.919010E+0	1.821290E+0	1.857630E+0	1.669190E+0	1.662370E+0	1.655320E+0	1.605340E+0	1.468620E+0	1.830570E+0	1.830320E+0	1.831670E+0	1.654810E+0	1.525600E+0	1.513900E+0	1.612250E+0	1.445640E+0	1.842580E+0	1.707770E+0	1.790930E+0	1.667470E+0	1.678160E+0	1.484660E+0	1.496430E+0	1.549330E+0	1.888340E+0	1.623070E+0	1.776980E+0	1.902700E+0	1.540590E+0	1.588070E+0	1.655460E+0	1.531470E+0	1.787840E+0	1.806890E+0	1.796930E+0	1.638450E+0	1.629860E+0	1.588450E+0	1.566120E+0	1.433950E+0	1.761160E+0	1.717040E+0	1.831380E+0	1.828240E+0	1.407680E+0	1.428150E+0	1.670590E+0	1.643960E+0	1.610950E+0	1.713090E+0	1.794540E+0	1.802730E+0	1.590090E+0	1.638070E+0	1.467260E+0	1.542730E+0	1.836900E+0	1.765190E+0	1.617570E+0	1.840950E+0	1.593060E+0	1.545240E+0	1.487080E+0	1.680810E+0	1.897730E+0	1.808960E+0	1.637610E+0	1.890370E+0	1.680730E+0	1.683670E+0	1.559610E+0	1.540690E+0	1.806960E+0	1.831400E+0	1.851570E+0	1.840540E+0	1.483940E+0	1.597290E+0	1.675470E+0	1.594900E+0	1.767620E+0	1.877700E+0	1.893090E+0	1.696590E+0	1.573710E+0	1.740310E+0	1.647870E+0	1.516590E+0	1.638320E+0	1.871820E+0	1.895890E+0	1.848620E+0	1.397320E+0	1.621040E+0	1.613690E+0	1.660130E+0	1.683400E+0	1.845400E+0	1.795980E+0	1.806680E+0	1.526030E+0	1.661410E+0	1.541880E+0	1.420850E+0	1.719000E+0	1.816350E+0	1.722080E+0	1.618310E+0	1.514420E+0	1.603690E+0	1.565330E+0	1.496900E+0	1.752990E+0	1.887450E+0	1.637510E+0	1.676700E+0	1.527700E+0	1.704600E+0	1.553520E+0	1.461110E+0	1.737650E+0	1.871660E+0	1.860100E+0	1.740050E+0	1.419740E+0	1.632540E+0	1.589900E+0	1.486280E+0	1.624200E+0	1.962660E+0	1.641140E+0	1.662670E+0	1.533750E+0
2.500000E+3	1.361700E+0	1.436890E+0	1.436020E+0	1.408360E+0	1.624070E+0	1.610650E+0	1.397650E+0	1.542890E+0	1.719100E+0	1.688540E+0	1.546790E+0	1.509400E+0	1.901840E+0	1.855280E+0	1.829790E+0	1.792550E+0	1.659650E+0	1.638970E+0	1.623180E+0	1.623500E+0	1.909120E+0	1.839050E+0	1.742240E+0	1.776440E+0	1.587230E+0	1.663320E+0	1.519530E+0	1.416360E+0	1.722630E+0	1.833400E+0	1.822560E+0	1.697680E+0	1.545440E+0	1.575630E+0	1.638830E+0	1.543910E+0	1.914980E+0	1.818140E+0	1.854900E+0	1.666230E+0	1.662770E+0	1.652300E+0	1.601970E+0	1.466110E+0	1.827930E+0	1.827330E+0	1.827920E+0	1.652010E+0	1.522980E+0	1.511240E+0	1.609250E+0	1.443120E+0	1.840200E+0	1.704530E+0	1.787490E+0	1.664470E+0	1.675070E+0	1.482120E+0	1.493910E+0	1.546640E+0	1.884490E+0	1.620390E+0	1.773580E+0	1.898980E+0	1.537870E+0	1.585490E+0	1.654470E+0	1.528740E+0	1.784220E+0	1.803220E+0	1.793430E+0	1.636680E+0	1.626780E+0	1.585540E+0	1.563370E+0	1.431580E+0	1.758140E+0	1.713710E+0	1.827840E+0	1.824630E+0	1.405380E+0	1.425730E+0	1.667410E+0	1.640840E+0	1.608040E+0	1.709720E+0	1.791050E+0	1.799110E+0	1.587200E+0	1.635030E+0	1.464730E+0	1.540360E+0	1.833320E+0	1.761800E+0	1.614580E+0	1.837340E+0	1.590260E+0	1.542460E+0	1.484480E+0	1.677610E+0	1.893810E+0	1.805280E+0	1.634540E+0	1.886550E+0	1.677460E+0	1.680450E+0	1.556750E+0	1.537910E+0	1.803360E+0	1.827620E+0	1.847880E+0	1.836830E+0	1.481310E+0	1.594300E+0	1.672210E+0	1.591880E+0	1.764130E+0	1.873730E+0	1.889150E+0	1.693330E+0	1.570960E+0	1.738270E+0	1.644710E+0	1.513900E+0	1.635260E+0	1.867970E+0	1.891950E+0	1.844820E+0	1.394950E+0	1.617960E+0	1.610650E+0	1.656970E+0	1.680220E+0	1.841570E+0	1.792420E+0	1.803060E+0	1.523240E+0	1.658090E+0	1.539030E+0	1.418260E+0	1.715580E+0	1.812570E+0	1.718690E+0	1.615320E+0	1.511680E+0	1.600650E+0	1.562530E+0	1.494130E+0	1.749560E+0	1.883470E+0	1.634490E+0	1.673460E+0	1.525010E+0	1.701180E+0	1.550700E+0	1.458600E+0	1.734290E+0	1.867760E+0	1.856190E+0	1.736620E+0	1.417390E+0	1.629410E+0	1.586920E+0	1.483710E+0	1.621320E+0	1.958490E+0	1.638200E+0	1.659550E+0	1.530980E+0
2.600000E+3	1.360220E+0	1.434370E+0	1.433380E+0	1.405920E+0	1.621000E+0	1.607610E+0	1.395210E+0	1.540110E+0	1.715780E+0	1.685300E+0	1.544080E+0	1.506790E+0	1.898100E+0	1.851750E+0	1.826230E+0	1.789580E+0	1.656500E+0	1.635820E+0	1.620080E+0	1.618630E+0	1.905180E+0	1.833270E+0	1.738350E+0	1.773390E+0	1.584070E+0	1.661420E+0	1.516360E+0	1.413710E+0	1.717460E+0	1.829860E+0	1.817660E+0	1.693430E+0	1.542580E+0	1.572720E+0	1.633740E+0	1.541250E+0	1.911280E+0	1.812050E+0	1.847880E+0	1.663780E+0	1.657260E+0	1.648000E+0	1.596790E+0	1.460940E+0	1.822050E+0	1.822830E+0	1.822790E+0	1.650130E+0	1.520770E+0	1.509160E+0	1.605570E+0	1.440990E+0	1.838480E+0	1.701920E+0	1.784320E+0	1.661900E+0	1.672760E+0	1.479850E+0	1.491040E+0	1.544200E+0	1.881630E+0	1.619740E+0	1.769850E+0	1.895780E+0	1.535640E+0	1.583110E+0	1.649590E+0	1.526510E+0	1.781340E+0	1.800190E+0	1.790520E+0	1.634180E+0	1.624280E+0	1.582970E+0	1.561260E+0	1.429530E+0	1.755440E+0	1.710800E+0	1.824690E+0	1.821460E+0	1.403340E+0	1.423510E+0	1.664730E+0	1.638210E+0	1.605510E+0	1.706940E+0	1.788050E+0	1.796070E+0	1.584720E+0	1.632310E+0	1.462530E+0	1.537860E+0	1.830070E+0	1.758760E+0	1.611900E+0	1.834150E+0	1.587500E+0	1.539940E+0	1.482160E+0	1.674850E+0	1.890370E+0	1.801970E+0	1.631950E+0	1.883090E+0	1.674650E+0	1.677620E+0	1.554320E+0	1.535480E+0	1.800140E+0	1.824110E+0	1.844460E+0	1.833520E+0	1.478840E+0	1.591460E+0	1.669230E+0	1.589070E+0	1.760840E+0	1.870050E+0	1.885580E+0	1.690200E+0	1.568490E+0	1.735090E+0	1.641950E+0	1.511370E+0	1.632380E+0	1.864330E+0	1.888380E+0	1.841290E+0	1.392650E+0	1.615090E+0	1.607870E+0	1.653950E+0	1.677110E+0	1.838020E+0	1.789030E+0	1.799630E+0	1.520630E+0	1.655070E+0	1.536450E+0	1.415920E+0	1.712600E+0	1.809250E+0	1.715690E+0	1.612510E+0	1.509170E+0	1.597880E+0	1.559770E+0	1.491600E+0	1.746330E+0	1.879710E+0	1.631580E+0	1.670460E+0	1.522390E+0	1.698100E+0	1.547960E+0	1.456160E+0	1.731080E+0	1.864130E+0	1.852710E+0	1.733500E+0	1.414990E+0	1.626570E+0	1.584180E+0	1.481200E+0	1.618220E+0	1.954530E+0	1.635220E+0	1.656560E+0	1.528270E+0
2.700000E+3	1.358210E+0	1.432490E+0	1.431390E+0	1.404040E+0	1.618580E+0	1.605300E+0	1.393130E+0	1.537790E+0	1.713140E+0	1.682500E+0	1.541680E+0	1.504690E+0	1.894970E+0	1.848750E+0	1.823260E+0	1.786340E+0	1.653990E+0	1.633380E+0	1.617670E+0	1.617960E+0	1.901980E+0	1.831840E+0	1.735880E+0	1.769880E+0	1.581940E+0	1.658540E+0	1.514280E+0	1.412070E+0	1.716700E+0	1.827090E+0	1.815210E+0	1.691540E+0	1.540320E+0	1.570530E+0	1.632870E+0	1.538550E+0	1.907430E+0	1.810070E+0	1.846190E+0	1.660510E+0	1.655180E+0	1.646190E+0	1.590800E+0	1.460160E+0	1.821240E+0	1.819920E+0	1.819950E+0	1.646650E+0	1.517970E+0	1.506480E+0	1.602620E+0	1.438380E+0	1.832130E+0	1.698660E+0	1.780240E+0	1.658650E+0	1.669100E+0	1.477450E+0	1.487390E+0	1.541390E+0	1.877530E+0	1.613570E+0	1.762330E+0	1.891960E+0	1.532900E+0	1.579790E+0	1.643440E+0	1.523690E+0	1.777800E+0	1.796760E+0	1.786620E+0	1.630360E+0	1.621290E+0	1.580240E+0	1.554110E+0	1.427010E+0	1.751830E+0	1.707700E+0	1.819330E+0	1.817960E+0	1.400990E+0	1.421350E+0	1.660380E+0	1.635380E+0	1.602600E+0	1.703730E+0	1.784700E+0	1.792820E+0	1.581910E+0	1.629360E+0	1.460040E+0	1.535140E+0	1.826630E+0	1.755430E+0	1.609060E+0	1.830520E+0	1.584810E+0	1.537290E+0	1.479610E+0	1.671820E+0	1.886740E+0	1.798590E+0	1.629140E+0	1.879580E+0	1.671640E+0	1.674240E+0	1.551690E+0	1.532930E+0	1.796820E+0	1.820830E+0	1.841180E+0	1.830130E+0	1.476510E+0	1.588840E+0	1.666370E+0	1.586520E+0	1.757790E+0	1.866670E+0	1.882140E+0	1.687440E+0	1.566020E+0	1.729370E+0	1.639200E+0	1.509000E+0	1.629730E+0	1.861050E+0	1.885000E+0	1.838160E+0	1.390670E+0	1.612540E+0	1.605260E+0	1.651230E+0	1.674340E+0	1.834750E+0	1.786050E+0	1.796580E+0	1.518310E+0	1.652360E+0	1.534180E+0	1.413920E+0	1.709840E+0	1.806130E+0	1.712990E+0	1.609970E+0	1.506860E+0	1.595360E+0	1.557390E+0	1.489440E+0	1.743440E+0	1.876350E+0	1.629020E+0	1.667860E+0	1.520070E+0	1.695340E+0	1.545730E+0	1.454160E+0	1.728390E+0	1.861010E+0	1.849650E+0	1.730800E+0	1.413060E+0	1.624080E+0	1.581850E+0	1.479080E+0	1.615910E+0	1.951120E+0	1.632870E+0	1.654160E+0	1.526130E+0
2.800000E+3	1.355840E+0	1.430100E+0	1.437900E+0	1.401280E+0	1.615740E+0	1.602500E+0	1.418080E+0	1.533920E+0	1.709920E+0	1.679270E+0	1.570770E+0	1.500590E+0	1.891410E+0	1.845070E+0	1.842430E+0	1.782830E+0	1.650860E+0	1.630370E+0	1.615150E+0	1.613570E+0	1.898340E+0	1.827300E+0	1.732400E+0	1.766920E+0	1.578970E+0	1.653970E+0	1.511360E+0	1.409400E+0	1.712030E+0	1.823350E+0	1.811740E+0	1.689930E+0	1.537410E+0	1.567580E+0	1.630120E+0	1.536010E+0	1.903770E+0	1.806980E+0	1.843020E+0	1.657830E+0	1.653160E+0	1.643240E+0	1.589300E+0	1.458760E+0	1.817880E+0	1.817660E+0	1.816550E+0	1.643870E+0	1.515320E+0	1.503810E+0	1.599710E+0	1.435870E+0	1.828900E+0	1.695460E+0	1.776750E+0	1.655600E+0	1.666250E+0	1.474920E+0	1.484830E+0	1.538770E+0	1.874160E+0	1.611100E+0	1.757780E+0	1.888220E+0	1.530070E+0	1.577560E+0	1.640310E+0	1.520970E+0	1.774320E+0	1.793190E+0	1.783030E+0	1.627070E+0	1.618340E+0	1.577450E+0	1.549760E+0	1.424490E+0	1.747240E+0	1.704530E+0	1.815090E+0	1.814410E+0	1.398540E+0	1.418880E+0	1.656870E+0	1.632360E+0	1.599740E+0	1.700620E+0	1.780660E+0	1.789240E+0	1.579200E+0	1.626470E+0	1.452550E+0	1.532620E+0	1.823210E+0	1.752210E+0	1.604080E+0	1.827120E+0	1.582110E+0	1.534740E+0	1.475680E+0	1.668970E+0	1.883220E+0	1.795290E+0	1.626210E+0	1.875970E+0	1.668660E+0	1.670710E+0	1.549050E+0	1.530270E+0	1.793500E+0	1.817230E+0	1.837660E+0	1.826670E+0	1.474090E+0	1.586060E+0	1.663410E+0	1.583810E+0	1.754600E+0	1.863060E+0	1.878630E+0	1.684580E+0	1.563460E+0	1.724490E+0	1.636350E+0	1.506520E+0	1.626850E+0	1.857480E+0	1.881410E+0	1.834730E+0	1.388460E+0	1.609730E+0	1.602480E+0	1.648320E+0	1.671430E+0	1.831380E+0	1.782830E+0	1.793330E+0	1.515730E+0	1.649420E+0	1.531510E+0	1.411650E+0	1.706870E+0	1.802930E+0	1.710010E+0	1.607150E+0	1.504530E+0	1.592650E+0	1.554830E+0	1.486570E+0	1.740350E+0	1.872820E+0	1.626330E+0	1.664480E+0	1.517770E+0	1.692450E+0	1.543270E+0	1.451650E+0	1.725410E+0	1.857630E+0	1.846360E+0	1.727860E+0	1.410910E+0	1.621380E+0	1.579280E+0	1.476770E+0	1.613200E+0	1.947460E+0	1.630100E+0	1.651340E+0	1.523710E+0
3.100000E+3	1.352800E+0	1.424020E+0	1.492870E+0	1.396050E+0	1.612150E+0	1.598950E+0	1.591770E+0	1.519320E+0	1.705160E+0	1.672770E+0	1.771620E+0	1.484760E+0	1.890370E+0	1.839300E+0	1.982960E+0	1.777000E+0	1.646590E+0	1.624620E+0	1.653020E+0	1.605610E+0	1.893400E+0	1.820620E+0	1.837440E+0	1.758620E+0	1.578680E+0	1.652050E+0	1.613970E+0	1.401920E+0	1.704830E+0	1.820550E+0	1.854650E+0	1.682480E+0	1.530720E+0	1.563990E+0	1.624630E+0	1.529160E+0	1.898530E+0	1.802370E+0	1.836990E+0	1.658400E+0	1.647700E+0	1.639630E+0	1.590590E+0	1.453430E+0	1.810860E+0	1.813680E+0	1.813200E+0	1.645580E+0	1.513200E+0	1.501810E+0	1.597480E+0	1.433600E+0	1.829370E+0	1.693230E+0	1.774360E+0	1.653280E+0	1.663880E+0	1.475760E+0	1.482790E+0	1.536470E+0	1.871220E+0	1.612340E+0	1.759210E+0	1.885260E+0	1.528010E+0	1.575030E+0	1.639780E+0	1.518870E+0	1.771730E+0	1.790420E+0	1.780330E+0	1.625560E+0	1.616110E+0	1.577370E+0	1.551170E+0	1.422240E+0	1.746010E+0	1.701970E+0	1.812230E+0	1.811430E+0	1.396640E+0	1.417210E+0	1.654370E+0	1.629880E+0	1.597470E+0	1.697980E+0	1.777800E+0	1.786250E+0	1.576800E+0	1.623900E+0	1.453380E+0	1.534190E+0	1.820130E+0	1.749130E+0	1.601240E+0	1.823820E+0	1.579570E+0	1.532280E+0	1.473250E+0	1.666270E+0	1.879880E+0	1.792030E+0	1.623520E+0	1.872500E+0	1.665780E+0	1.667590E+0	1.546440E+0	1.527560E+0	1.790060E+0	1.813570E+0	1.834170E+0	1.823040E+0	1.471630E+0	1.583230E+0	1.660450E+0	1.580950E+0	1.751310E+0	1.859280E+0	1.874860E+0	1.681200E+0	1.560410E+0	1.725410E+0	1.633190E+0	1.503680E+0	1.623800E+0	1.853600E+0	1.877530E+0	1.830760E+0	1.385970E+0	1.606710E+0	1.599460E+0	1.644880E+0	1.668080E+0	1.827370E+0	1.779120E+0	1.789450E+0	1.512750E+0	1.646090E+0	1.528490E+0	1.408880E+0	1.703390E+0	1.799140E+0	1.706640E+0	1.602910E+0	1.501640E+0	1.589550E+0	1.551930E+0	1.480770E+0	1.736930E+0	1.868820E+0	1.623250E+0	1.657930E+0	1.515050E+0	1.688980E+0	1.540360E+0	1.446720E+0	1.722200E+0	1.853740E+0	1.842460E+0	1.723650E+0	1.408250E+0	1.618150E+0	1.576260E+0	1.472350E+0	1.610010E+0	1.943040E+0	1.626840E+0	1.646270E+0	1.520830E+0
3.400000E+3	1.352260E+0	1.424860E+0	1.490970E+0	1.394290E+0	1.610000E+0	1.596670E+0	1.589450E+0	1.520300E+0	1.702710E+0	1.671840E+0	1.768920E+0	1.484860E+0	1.885610E+0	1.836610E+0	1.980590E+0	1.772130E+0	1.644180E+0	1.623290E+0	1.703360E+0	1.601260E+0	1.890300E+0	1.816950E+0	1.970140E+0	1.751570E+0	1.573480E+0	1.648070E+0	1.748670E+0	1.393250E+0	1.701540E+0	1.814350E+0	1.912260E+0	1.676910E+0	1.530810E+0	1.560650E+0	1.682130E+0	1.526100E+0	1.894800E+0	1.798210E+0	2.004430E+0	1.649180E+0	1.643870E+0	1.634940E+0	1.771940E+0	1.442560E+0	1.806420E+0	1.808810E+0	1.907740E+0	1.638900E+0	1.510160E+0	1.498350E+0	1.596340E+0	1.431040E+0	1.825820E+0	1.689880E+0	1.771050E+0	1.650230E+0	1.661270E+0	1.471790E+0	1.480220E+0	1.533650E+0	1.868200E+0	1.609400E+0	1.756090E+0	1.881350E+0	1.525250E+0	1.572750E+0	1.636550E+0	1.515840E+0	1.768190E+0	1.786950E+0	1.776980E+0	1.622350E+0	1.613090E+0	1.573960E+0	1.548770E+0	1.419640E+0	1.743330E+0	1.698950E+0	1.808690E+0	1.807710E+0	1.394190E+0	1.414480E+0	1.651210E+0	1.626560E+0	1.594490E+0	1.694680E+0	1.774420E+0	1.782670E+0	1.573910E+0	1.620990E+0	1.450780E+0	1.531380E+0	1.816660E+0	1.745830E+0	1.598380E+0	1.820210E+0	1.576690E+0	1.529730E+0	1.470630E+0	1.663110E+0	1.876100E+0	1.788500E+0	1.620510E+0	1.868740E+0	1.662640E+0	1.664480E+0	1.543720E+0	1.524870E+0	1.786670E+0	1.810190E+0	1.830760E+0	1.819640E+0	1.469290E+0	1.580450E+0	1.657550E+0	1.578240E+0	1.748200E+0	1.855690E+0	1.871290E+0	1.678310E+0	1.557240E+0	1.722160E+0	1.630370E+0	1.501060E+0	1.621020E+0	1.849980E+0	1.874000E+0	1.827390E+0	1.383800E+0	1.603880E+0	1.596760E+0	1.642100E+0	1.665320E+0	1.824010E+0	1.776060E+0	1.786200E+0	1.510290E+0	1.643040E+0	1.525920E+0	1.406540E+0	1.700280E+0	1.795670E+0	1.703600E+0	1.599950E+0	1.499170E+0	1.586760E+0	1.549380E+0	1.478240E+0	1.733830E+0	1.865260E+0	1.620440E+0	1.655010E+0	1.512530E+0	1.685880E+0	1.537720E+0	1.444250E+0	1.719030E+0	1.850230E+0	1.839080E+0	1.719660E+0	1.405960E+0	1.615460E+0	1.573650E+0	1.467650E+0	1.607580E+0	1.939370E+0	1.624300E+0	1.641320E+0	1.518560E+0
