Photon Energy (eV)	#1	#2	#3	#4	#5	#6	#7	#8	#9	#10	#11	#12	#13	#14	#15	#16	#17	#18	#19	#20	#21	#22	#23	#24	#25	#26	#27	#28	#29	#30	#31	#32	#33	#34	#35	#36	#37	#38	#39	#40	#41	#42	#43	#44	#45	#46	#47	#48	#49	#50	#51	#52	#53	#54	#55	#56	#57	#58	#59	#60	#61	#62	#63	#64	#65	#66	#67	#68	#69	#70	#71	#72	#73	#74	#75	#76	#77	#78	#79	#80	#81	#82	#83	#84	#85	#86	#87	#88	#89	#90	#91	#92	#93	#94	#95	#96	#97	#98	#99	#100	#101	#102	#103	#104	#105	#106	#107	#108	#109	#110	#111	#112	#113	#114	#115	#116	#117	#118	#119	#120	#121	#122	#123	#124	#125	#126	#127	#128	#129	#130	#131	#132	#133	#134	#135	#136	#137	#138	#139	#140	#141	#142	#143	#144	#145	#146	#147	#148	#149	#150	#151	#152	#153	#154	#155	#156	#157	#158	#159	#160	#161	#162	#163	#164	#165	#166	#167	#168	#169	#170	#171	
1.400000E+3	1.293190E+0	1.411960E+0	1.383050E+0	1.220580E+0	1.497690E+0	1.527830E+0	1.432740E+0	1.486120E+0	1.465030E+0	1.426830E+0	1.705720E+0	1.604310E+0	1.710290E+0	1.784160E+0	2.050330E+0	1.739820E+0	1.488710E+0	1.712180E+0	1.815770E+0	1.457290E+0	1.628770E+0	1.781890E+0	1.988400E+0	1.735110E+0	1.473910E+0	1.595440E+0	1.686430E+0	1.510660E+0	1.845580E+0	1.896610E+0	1.959850E+0	1.678990E+0	1.625100E+0	1.666240E+0	1.768870E+0	1.438270E+0	1.768020E+0	1.732530E+0	2.007720E+0	1.643330E+0	1.602270E+0	1.547660E+0	1.765110E+0	1.364260E+0	1.917270E+0	1.888120E+0	1.979380E+0	1.507570E+0	1.564910E+0	1.637450E+0	1.741650E+0	1.326900E+0	1.615300E+0	1.668720E+0	1.857890E+0	1.614310E+0	1.299880E+0	1.465650E+0	1.718580E+0	1.456460E+0	1.626950E+0	1.824730E+0	1.999320E+0	1.643060E+0	1.548020E+0	1.735950E+0	1.768750E+0	1.434390E+0	1.669680E+0	1.836630E+0	1.927410E+0	1.670440E+0	1.442120E+0	1.539090E+0	1.708890E+0	1.511440E+0	1.669540E+0	1.812690E+0	1.988530E+0	1.667580E+0	1.428370E+0	1.629580E+0	1.828920E+0	1.453650E+0	1.523080E+0	1.787130E+0	1.964800E+0	1.819270E+0	1.507110E+0	1.625520E+0	1.643960E+0	1.611170E+0	1.811410E+0	1.846170E+0	1.895240E+0	1.692920E+0	1.565280E+0	1.540250E+0	1.657520E+0	1.365570E+0	1.561440E+0	1.711020E+0	1.795900E+0	1.692160E+0	1.397030E+0	1.597470E+0	1.677530E+0	1.484900E+0	1.728660E+0	1.839610E+0	1.991430E+0	1.630180E+0	1.485080E+0	1.635810E+0	1.720410E+0	1.485110E+0	1.546910E+0	1.821290E+0	1.880420E+0	1.757320E+0	1.404720E+0	1.569540E+0	1.689930E+0	1.522280E+0	1.568030E+0	1.729420E+0	2.004080E+0	1.642220E+0	1.512590E+0	1.504560E+0	1.802970E+0	1.477910E+0	1.571080E+0	1.670870E+0	1.868490E+0	1.756250E+0	1.479570E+0	1.561190E+0	1.550310E+0	1.507240E+0	1.706650E+0	1.864310E+0	1.766550E+0	1.602420E+0	1.486670E+0	1.549860E+0	1.596170E+0	1.453540E+0	1.564390E+0	1.652740E+0	1.778800E+0	1.874490E+0	1.459040E+0	1.513920E+0	1.650400E+0	1.594110E+0	1.828020E+0	1.839720E+0	1.920870E+0	1.628650E+0	1.558310E+0	1.693410E+0	1.681470E+0	1.391410E+0	1.438000E+0	1.849020E+0	1.775920E+0	1.674010E+0	1.333580E+0	1.558550E+0	1.613840E+0
1.700000E+3	1.292040E+0	1.410600E+0	1.381730E+0	1.219380E+0	1.496040E+0	1.526190E+0	1.431180E+0	1.484520E+0	1.463330E+0	1.425140E+0	1.703820E+0	1.632010E+0	1.706970E+0	1.781770E+0	2.047230E+0	1.963080E+0	1.476730E+0	1.708530E+0	1.811360E+0	1.726390E+0	1.614510E+0	1.777980E+0	1.983380E+0	1.885620E+0	1.465340E+0	1.592900E+0	1.683030E+0	1.515120E+0	1.842980E+0	1.893950E+0	1.956710E+0	1.676710E+0	1.623110E+0	1.663710E+0	1.766000E+0	1.436410E+0	1.765310E+0	1.730010E+0	2.004670E+0	1.641370E+0	1.600020E+0	1.545670E+0	1.762750E+0	1.362700E+0	1.914210E+0	1.885320E+0	1.976200E+0	1.505600E+0	1.562450E+0	1.635140E+0	1.739050E+0	1.325280E+0	1.612990E+0	1.666370E+0	1.855260E+0	1.612100E+0	1.297700E+0	1.463770E+0	1.716330E+0	1.453670E+0	1.624430E+0	1.821950E+0	1.995640E+0	1.640260E+0	1.544970E+0	1.733040E+0	1.765380E+0	1.432590E+0	1.667030E+0	1.834490E+0	1.924160E+0	1.667730E+0	1.440280E+0	1.537010E+0	1.705690E+0	1.508620E+0	1.665970E+0	1.809060E+0	1.985230E+0	1.665620E+0	1.426140E+0	1.627560E+0	1.826380E+0	1.451900E+0	1.521150E+0	1.785230E+0	1.961850E+0	1.816760E+0	1.504190E+0	1.623320E+0	1.641650E+0	1.608950E+0	1.808780E+0	1.843680E+0	1.892460E+0	1.690670E+0	1.562790E+0	1.538830E+0	1.654310E+0	1.363800E+0	1.559420E+0	1.709120E+0	1.793250E+0	1.688510E+0	1.395400E+0	1.595050E+0	1.674800E+0	1.483060E+0	1.726330E+0	1.837100E+0	1.988550E+0	1.628170E+0	1.483240E+0	1.633630E+0	1.717920E+0	1.483330E+0	1.544960E+0	1.818690E+0	1.877730E+0	1.755100E+0	1.402440E+0	1.567690E+0	1.687730E+0	1.520490E+0	1.566140E+0	1.727160E+0	2.001010E+0	1.640020E+0	1.510580E+0	1.502660E+0	1.800280E+0	1.475990E+0	1.568910E+0	1.668680E+0	1.865870E+0	1.753890E+0	1.477490E+0	1.559280E+0	1.548370E+0	1.505420E+0	1.704100E+0	1.861650E+0	1.764050E+0	1.600280E+0	1.484610E+0	1.547740E+0	1.593910E+0	1.451690E+0	1.562430E+0	1.650450E+0	1.776370E+0	1.871850E+0	1.456890E+0	1.511850E+0	1.648360E+0	1.592200E+0	1.821900E+0	1.837440E+0	1.918190E+0	1.626740E+0	1.551870E+0	1.691710E+0	1.679310E+0	1.389950E+0	1.433890E+0	1.846940E+0	1.773560E+0	1.671920E+0	1.331970E+0	1.556610E+0	1.611800E+0
2.000000E+3	1.291030E+0	1.409290E+0	1.380560E+0	1.218410E+0	1.494550E+0	1.524720E+0	1.429790E+0	1.483060E+0	1.461860E+0	1.423590E+0	1.702090E+0	1.636430E+0	1.704880E+0	1.779820E+0	2.044680E+0	2.008260E+0	1.473160E+0	1.706430E+0	1.808900E+0	1.781400E+0	1.610340E+0	1.775700E+0	1.980690E+0	1.915570E+0	1.462460E+0	1.591160E+0	1.680930E+0	1.544290E+0	1.839660E+0	1.891570E+0	1.954190E+0	1.831000E+0	1.614520E+0	1.660800E+0	1.762480E+0	1.585250E+0	1.756440E+0	1.727310E+0	2.000960E+0	1.703440E+0	1.595690E+0	1.543770E+0	1.760270E+0	1.363840E+0	1.911820E+0	1.882970E+0	1.973500E+0	1.503910E+0	1.560560E+0	1.632990E+0	1.736940E+0	1.323460E+0	1.611090E+0	1.664440E+0	1.853110E+0	1.610550E+0	1.296310E+0	1.462310E+0	1.714210E+0	1.452240E+0	1.622420E+0	1.819640E+0	1.988370E+0	1.638590E+0	1.543040E+0	1.731290E+0	1.763100E+0	1.431040E+0	1.665330E+0	1.831380E+0	1.921080E+0	1.665700E+0	1.438720E+0	1.535180E+0	1.704380E+0	1.507610E+0	1.664390E+0	1.803070E+0	1.981820E+0	1.663340E+0	1.423450E+0	1.625460E+0	1.822930E+0	1.450150E+0	1.519240E+0	1.780990E+0	1.958120E+0	1.810810E+0	1.498920E+0	1.621120E+0	1.639480E+0	1.606680E+0	1.805690E+0	1.840970E+0	1.889620E+0	1.688340E+0	1.557540E+0	1.535680E+0	1.648840E+0	1.362210E+0	1.557330E+0	1.705460E+0	1.790650E+0	1.682780E+0	1.390560E+0	1.591640E+0	1.669560E+0	1.481150E+0	1.723980E+0	1.834620E+0	1.985580E+0	1.626270E+0	1.481570E+0	1.631650E+0	1.715710E+0	1.481510E+0	1.543000E+0	1.816130E+0	1.874980E+0	1.752870E+0	1.399560E+0	1.566040E+0	1.685630E+0	1.518650E+0	1.564200E+0	1.724950E+0	1.998190E+0	1.638100E+0	1.508770E+0	1.500910E+0	1.797720E+0	1.474230E+0	1.567000E+0	1.666510E+0	1.863350E+0	1.751640E+0	1.475690E+0	1.557520E+0	1.546520E+0	1.503720E+0	1.701940E+0	1.859040E+0	1.761640E+0	1.598260E+0	1.482790E+0	1.545780E+0	1.591790E+0	1.449920E+0	1.560460E+0	1.648430E+0	1.774060E+0	1.869380E+0	1.455080E+0	1.510110E+0	1.646430E+0	1.590280E+0	1.818580E+0	1.835030E+0	1.915420E+0	1.624830E+0	1.548960E+0	1.689760E+0	1.677220E+0	1.388460E+0	1.431820E+0	1.844600E+0	1.771440E+0	1.669960E+0	1.330210E+0	1.554760E+0	1.609970E+0
2.100000E+3	1.289820E+0	1.407820E+0	1.379160E+0	1.217350E+0	1.492930E+0	1.523080E+0	1.428160E+0	1.481480E+0	1.460170E+0	1.422120E+0	1.699960E+0	1.634480E+0	1.702800E+0	1.777600E+0	2.041970E+0	2.005560E+0	1.471460E+0	1.704330E+0	1.806520E+0	1.778970E+0	1.608430E+0	1.773410E+0	1.977910E+0	1.912870E+0	1.460810E+0	1.589280E+0	1.678810E+0	1.574270E+0	1.835700E+0	1.888750E+0	1.951080E+0	1.998770E+0	1.604790E+0	1.657530E+0	1.758650E+0	1.747050E+0	1.746830E+0	1.724280E+0	1.996810E+0	1.770750E+0	1.590590E+0	1.541560E+0	1.757320E+0	1.368390E+0	1.908800E+0	1.880070E+0	1.970140E+0	1.570660E+0	1.555300E+0	1.628430E+0	1.733680E+0	1.373390E+0	1.604780E+0	1.661390E+0	1.849520E+0	1.631670E+0	1.293860E+0	1.459970E+0	1.711550E+0	1.449460E+0	1.619400E+0	1.815080E+0	1.986070E+0	1.636290E+0	1.540760E+0	1.728890E+0	1.760560E+0	1.428930E+0	1.663060E+0	1.828990E+0	1.919230E+0	1.663510E+0	1.436340E+0	1.531970E+0	1.700410E+0	1.504020E+0	1.659050E+0	1.801990E+0	1.977740E+0	1.661460E+0	1.422160E+0	1.623420E+0	1.820820E+0	1.448560E+0	1.517510E+0	1.779250E+0	1.955570E+0	1.811030E+0	1.498350E+0	1.619110E+0	1.637390E+0	1.604680E+0	1.803760E+0	1.838620E+0	1.887160E+0	1.686440E+0	1.556440E+0	1.533620E+0	1.647090E+0	1.360770E+0	1.555330E+0	1.703320E+0	1.788210E+0	1.681760E+0	1.391530E+0	1.590510E+0	1.670080E+0	1.479420E+0	1.721850E+0	1.832320E+0	1.982900E+0	1.624360E+0	1.479950E+0	1.629720E+0	1.713450E+0	1.479630E+0	1.541080E+0	1.813690E+0	1.872360E+0	1.750570E+0	1.397750E+0	1.564270E+0	1.683470E+0	1.516960E+0	1.562480E+0	1.722820E+0	1.995240E+0	1.636090E+0	1.506960E+0	1.499180E+0	1.795140E+0	1.472360E+0	1.564970E+0	1.664290E+0	1.860560E+0	1.749240E+0	1.473920E+0	1.555720E+0	1.544630E+0	1.501980E+0	1.699730E+0	1.856510E+0	1.759190E+0	1.596210E+0	1.480990E+0	1.543750E+0	1.589750E+0	1.448120E+0	1.558390E+0	1.646300E+0	1.771630E+0	1.866720E+0	1.453130E+0	1.508230E+0	1.644160E+0	1.588210E+0	1.815920E+0	1.832390E+0	1.912540E+0	1.622740E+0	1.546880E+0	1.687380E+0	1.674870E+0	1.386800E+0	1.430180E+0	1.841950E+0	1.769030E+0	1.667780E+0	1.328140E+0	1.552910E+0	1.607930E+0
2.200000E+3	1.288280E+0	1.406260E+0	1.377630E+0	1.216030E+0	1.491250E+0	1.521140E+0	1.426400E+0	1.479600E+0	1.458390E+0	1.420320E+0	1.697690E+0	1.632340E+0	1.700530E+0	1.775080E+0	2.038890E+0	2.002510E+0	1.469640E+0	1.702040E+0	1.803930E+0	1.776330E+0	1.606260E+0	1.770900E+0	1.974830E+0	1.910020E+0	1.458720E+0	1.587070E+0	1.676500E+0	1.572080E+0	1.833000E+0	1.885780E+0	1.948080E+0	1.995530E+0	1.602420E+0	1.655000E+0	1.755970E+0	1.744310E+0	1.744060E+0	1.721650E+0	1.993510E+0	1.767990E+0	1.588190E+0	1.539310E+0	1.754650E+0	1.373090E+0	1.905420E+0	1.876920E+0	1.966770E+0	1.697070E+0	1.547070E+0	1.622180E+0	1.729850E+0	1.469180E+0	1.594960E+0	1.655490E+0	1.842690E+0	1.672540E+0	1.289180E+0	1.454260E+0	1.707600E+0	1.483550E+0	1.611720E+0	1.808920E+0	1.984290E+0	1.839640E+0	1.527510E+0	1.723610E+0	1.755470E+0	1.608770E+0	1.654490E+0	1.823450E+0	1.915270E+0	1.732110E+0	1.428100E+0	1.527130E+0	1.695030E+0	1.502440E+0	1.656670E+0	1.802970E+0	1.976050E+0	1.659780E+0	1.422740E+0	1.621560E+0	1.819960E+0	1.447200E+0	1.515790E+0	1.778620E+0	1.954700E+0	1.810190E+0	1.499620E+0	1.617220E+0	1.635510E+0	1.602930E+0	1.801450E+0	1.836490E+0	1.884750E+0	1.684700E+0	1.557560E+0	1.533250E+0	1.648640E+0	1.359340E+0	1.553430E+0	1.702610E+0	1.786400E+0	1.682550E+0	1.390320E+0	1.589790E+0	1.669060E+0	1.477820E+0	1.719670E+0	1.830050E+0	1.980230E+0	1.622520E+0	1.478160E+0	1.627920E+0	1.711410E+0	1.478030E+0	1.539190E+0	1.811400E+0	1.869890E+0	1.748120E+0	1.395970E+0	1.562310E+0	1.681400E+0	1.515060E+0	1.560480E+0	1.720680E+0	1.992410E+0	1.634180E+0	1.505150E+0	1.497370E+0	1.792600E+0	1.470590E+0	1.562820E+0	1.661960E+0	1.857800E+0	1.746700E+0	1.471900E+0	1.553700E+0	1.542710E+0	1.500090E+0	1.697530E+0	1.854070E+0	1.756690E+0	1.594170E+0	1.479130E+0	1.541790E+0	1.587510E+0	1.446110E+0	1.556260E+0	1.643930E+0	1.768900E+0	1.863900E+0	1.451210E+0	1.506420E+0	1.642020E+0	1.586220E+0	1.813280E+0	1.829700E+0	1.909510E+0	1.620440E+0	1.544690E+0	1.684930E+0	1.672220E+0	1.384790E+0	1.428030E+0	1.839010E+0	1.766240E+0	1.665330E+0	1.326250E+0	1.550670E+0	1.605610E+0
2.300000E+3	1.286980E+0	1.404650E+0	1.376050E+0	1.214720E+0	1.489440E+0	1.519300E+0	1.424760E+0	1.477790E+0	1.456610E+0	1.418740E+0	1.695480E+0	1.630300E+0	1.698280E+0	1.772640E+0	2.035800E+0	1.999550E+0	1.467790E+0	1.699760E+0	1.801500E+0	1.773860E+0	1.604190E+0	1.768450E+0	1.971990E+0	1.907090E+0	1.457080E+0	1.584990E+0	1.674300E+0	1.570150E+0	1.830380E+0	1.883090E+0	1.945120E+0	1.992480E+0	1.600380E+0	1.652850E+0	1.753520E+0	1.741880E+0	1.741650E+0	1.719270E+0	1.990570E+0	1.765580E+0	1.586180E+0	1.537400E+0	1.752190E+0	1.371560E+0	1.902730E+0	1.874390E+0	1.963720E+0	1.694860E+0	1.545160E+0	1.620490E+0	1.727380E+0	1.468110E+0	1.593230E+0	1.654080E+0	1.841290E+0	1.670270E+0	1.288090E+0	1.453300E+0	1.705690E+0	1.493990E+0	1.610380E+0	1.806610E+0	1.980570E+0	1.908820E+0	1.522910E+0	1.721030E+0	1.752120E+0	1.669970E+0	1.649740E+0	1.820760E+0	1.911260E+0	1.756410E+0	1.424990E+0	1.524460E+0	1.692230E+0	1.542590E+0	1.652340E+0	1.799900E+0	1.971850E+0	1.953140E+0	1.414230E+0	1.617090E+0	1.814080E+0	1.721160E+0	1.508340E+0	1.774730E+0	1.948950E+0	1.935260E+0	1.493040E+0	1.614540E+0	1.632120E+0	1.604920E+0	1.798560E+0	1.833620E+0	1.881480E+0	1.682090E+0	1.556350E+0	1.533960E+0	1.646450E+0	1.357650E+0	1.551160E+0	1.699750E+0	1.783830E+0	1.680720E+0	1.388420E+0	1.588000E+0	1.666490E+0	1.475950E+0	1.716680E+0	1.827000E+0	1.976900E+0	1.620230E+0	1.475970E+0	1.625470E+0	1.709070E+0	1.476240E+0	1.537000E+0	1.808620E+0	1.867210E+0	1.745610E+0	1.393730E+0	1.560120E+0	1.678980E+0	1.512900E+0	1.558050E+0	1.718030E+0	1.989160E+0	1.631760E+0	1.502960E+0	1.495400E+0	1.789930E+0	1.468630E+0	1.560740E+0	1.659730E+0	1.855080E+0	1.743960E+0	1.469750E+0	1.551510E+0	1.540560E+0	1.498120E+0	1.694950E+0	1.851120E+0	1.754000E+0	1.591920E+0	1.477030E+0	1.539640E+0	1.585090E+0	1.444170E+0	1.553800E+0	1.641500E+0	1.766080E+0	1.860870E+0	1.449250E+0	1.504310E+0	1.639660E+0	1.583900E+0	1.810440E+0	1.826950E+0	1.906320E+0	1.618050E+0	1.542420E+0	1.682270E+0	1.669530E+0	1.382840E+0	1.425990E+0	1.836090E+0	1.763360E+0	1.662780E+0	1.324450E+0	1.548450E+0	1.603300E+0
2.325000E+3	1.285970E+0	1.403260E+0	1.374670E+0	1.213500E+0	1.487760E+0	1.517680E+0	1.423190E+0	1.476250E+0	1.455060E+0	1.417220E+0	1.693460E+0	1.628460E+0	1.696330E+0	1.770440E+0	2.033010E+0	1.996790E+0	1.466160E+0	1.697820E+0	1.799130E+0	1.771610E+0	1.602380E+0	1.766380E+0	1.969480E+0	1.904680E+0	1.455550E+0	1.583360E+0	1.672390E+0	1.568420E+0	1.828170E+0	1.880800E+0	1.942710E+0	1.989880E+0	1.598630E+0	1.651010E+0	1.751460E+0	1.739750E+0	1.739690E+0	1.717410E+0	1.988010E+0	1.763590E+0	1.584620E+0	1.535780E+0	1.750300E+0	1.370140E+0	1.900400E+0	1.871970E+0	1.961270E+0	1.693030E+0	1.543550E+0	1.622760E+0	1.725520E+0	1.469920E+0	1.595730E+0	1.654790E+0	1.841180E+0	1.668580E+0	1.286570E+0	1.454780E+0	1.704230E+0	1.494790E+0	1.611140E+0	1.807920E+0	1.975420E+0	1.905640E+0	1.521410E+0	1.718760E+0	1.749790E+0	1.666810E+0	1.644630E+0	1.820540E+0	1.908390E+0	1.754470E+0	1.426240E+0	1.525680E+0	1.691800E+0	1.551630E+0	1.650640E+0	1.793250E+0	1.969070E+0	2.011790E+0	1.408130E+0	1.614370E+0	1.810900E+0	1.776650E+0	1.502680E+0	1.772010E+0	1.945570E+0	1.958670E+0	1.490130E+0	1.612040E+0	1.629470E+0	1.648600E+0	1.793660E+0	1.830270E+0	1.877900E+0	1.893500E+0	1.544850E+0	1.528640E+0	1.641610E+0	1.559680E+0	1.543370E+0	1.697190E+0	1.779310E+0	1.773250E+0	1.382570E+0	1.585320E+0	1.662480E+0	1.476850E+0	1.713880E+0	1.824230E+0	1.973480E+0	1.617830E+0	1.473870E+0	1.623090E+0	1.706480E+0	1.474370E+0	1.534880E+0	1.806040E+0	1.864430E+0	1.743390E+0	1.391570E+0	1.558020E+0	1.676470E+0	1.511020E+0	1.555590E+0	1.715440E+0	1.985660E+0	1.629490E+0	1.500820E+0	1.493380E+0	1.787420E+0	1.466870E+0	1.558540E+0	1.657300E+0	1.852440E+0	1.741580E+0	1.467760E+0	1.549410E+0	1.538570E+0	1.496000E+0	1.692330E+0	1.848170E+0	1.751350E+0	1.589700E+0	1.474960E+0	1.537530E+0	1.583020E+0	1.442340E+0	1.551710E+0	1.639270E+0	1.763670E+0	1.858060E+0	1.447140E+0	1.502240E+0	1.637260E+0	1.581690E+0	1.807650E+0	1.824350E+0	1.903360E+0	1.615930E+0	1.540330E+0	1.680050E+0	1.667170E+0	1.381120E+0	1.424030E+0	1.833420E+0	1.760780E+0	1.660550E+0	1.322770E+0	1.546410E+0	1.601110E+0
2.350000E+3	1.284490E+0	1.401560E+0	1.373070E+0	1.212120E+0	1.485910E+0	1.515830E+0	1.421510E+0	1.474450E+0	1.453270E+0	1.415480E+0	1.691290E+0	1.626300E+0	1.694150E+0	1.767980E+0	2.030120E+0	1.993830E+0	1.464420E+0	1.695500E+0	1.796660E+0	1.769180E+0	1.600210E+0	1.763900E+0	1.966600E+0	1.901870E+0	1.453750E+0	1.581300E+0	1.670170E+0	1.566370E+0	1.825900E+0	1.878110E+0	1.939900E+0	1.986950E+0	1.596510E+0	1.648810E+0	1.749040E+0	1.737350E+0	1.737370E+0	1.715100E+0	1.985200E+0	1.761190E+0	1.582620E+0	1.533760E+0	1.747870E+0	1.368580E+0	1.897640E+0	1.869440E+0	1.958430E+0	1.690750E+0	1.541610E+0	1.620710E+0	1.723140E+0	1.468100E+0	1.593690E+0	1.652610E+0	1.838580E+0	1.666330E+0	1.285930E+0	1.452950E+0	1.701890E+0	1.491960E+0	1.609060E+0	1.805430E+0	1.973440E+0	1.903660E+0	1.520660E+0	1.717290E+0	1.748420E+0	1.665620E+0	1.643580E+0	1.818260E+0	1.905430E+0	1.753160E+0	1.425550E+0	1.525240E+0	1.690780E+0	1.551410E+0	1.647300E+0	1.789600E+0	1.964550E+0	2.008340E+0	1.406890E+0	1.611830E+0	1.807150E+0	1.772930E+0	1.500060E+0	1.768390E+0	1.941590E+0	1.955380E+0	1.486710E+0	1.609620E+0	1.626920E+0	1.675240E+0	1.789570E+0	1.827140E+0	1.874440E+0	2.027730E+0	1.536740E+0	1.527590E+0	1.638330E+0	1.687840E+0	1.537920E+0	1.696540E+0	1.775620E+0	1.831940E+0	1.378120E+0	1.582010E+0	1.660410E+0	1.501500E+0	1.710180E+0	1.821260E+0	1.970000E+0	1.726900E+0	1.467070E+0	1.619900E+0	1.702870E+0	1.579880E+0	1.528100E+0	1.802790E+0	1.860670E+0	1.788680E+0	1.387370E+0	1.555750E+0	1.673690E+0	1.510740E+0	1.553260E+0	1.712760E+0	1.982230E+0	1.627050E+0	1.498530E+0	1.491240E+0	1.784660E+0	1.464950E+0	1.556280E+0	1.654880E+0	1.849710E+0	1.739100E+0	1.465640E+0	1.547230E+0	1.536310E+0	1.493920E+0	1.689570E+0	1.845150E+0	1.748580E+0	1.587440E+0	1.472690E+0	1.535200E+0	1.580820E+0	1.440400E+0	1.549480E+0	1.636820E+0	1.761000E+0	1.855110E+0	1.444940E+0	1.500050E+0	1.634940E+0	1.579380E+0	1.804750E+0	1.821430E+0	1.900400E+0	1.613600E+0	1.538050E+0	1.677580E+0	1.664630E+0	1.379360E+0	1.422070E+0	1.830470E+0	1.758090E+0	1.657930E+0	1.320880E+0	1.544210E+0	1.598680E+0
2.375000E+3	1.283000E+0	1.399950E+0	1.371500E+0	1.210860E+0	1.484230E+0	1.513970E+0	1.419810E+0	1.472730E+0	1.451530E+0	1.413740E+0	1.688900E+0	1.624120E+0	1.691710E+0	1.765450E+0	2.026970E+0	1.990730E+0	1.462490E+0	1.693230E+0	1.794060E+0	1.766550E+0	1.598270E+0	1.761470E+0	1.963690E+0	1.899110E+0	1.451720E+0	1.579220E+0	1.667790E+0	1.564240E+0	1.822880E+0	1.875160E+0	1.936810E+0	1.983710E+0	1.594240E+0	1.646490E+0	1.746460E+0	1.734730E+0	1.734850E+0	1.712500E+0	1.982050E+0	1.758440E+0	1.580280E+0	1.531680E+0	1.745190E+0	1.366710E+0	1.894720E+0	1.866370E+0	1.955210E+0	1.688140E+0	1.539290E+0	1.617040E+0	1.720400E+0	1.465550E+0	1.590140E+0	1.650040E+0	1.835570E+0	1.663810E+0	1.283930E+0	1.450840E+0	1.699400E+0	1.488320E+0	1.606710E+0	1.800030E+0	1.969920E+0	1.900320E+0	1.517830E+0	1.714360E+0	1.745030E+0	1.662870E+0	1.642480E+0	1.814900E+0	1.902580E+0	1.749750E+0	1.422080E+0	1.520000E+0	1.685010E+0	1.545030E+0	1.644980E+0	1.791230E+0	1.961980E+0	2.005620E+0	1.406760E+0	1.609930E+0	1.806190E+0	1.771490E+0	1.501390E+0	1.767490E+0	1.939470E+0	1.952930E+0	1.485940E+0	1.607780E+0	1.624950E+0	1.673110E+0	1.787450E+0	1.824930E+0	1.872040E+0	2.024970E+0	1.535030E+0	1.526790E+0	1.636740E+0	1.689500E+0	1.539060E+0	1.695860E+0	1.773360E+0	1.829710E+0	1.376650E+0	1.580530E+0	1.658290E+0	1.546170E+0	1.706030E+0	1.818470E+0	1.966700E+0	1.933320E+0	1.456330E+0	1.616600E+0	1.698980E+0	1.779390E+0	1.517760E+0	1.799620E+0	1.856550E+0	1.875820E+0	1.381750E+0	1.553410E+0	1.670830E+0	1.520610E+0	1.550870E+0	1.710360E+0	1.979000E+0	1.691150E+0	1.493760E+0	1.488920E+0	1.781500E+0	1.526060E+0	1.551530E+0	1.652370E+0	1.846470E+0	1.764220E+0	1.462480E+0	1.545030E+0	1.534010E+0	1.493170E+0	1.686930E+0	1.842320E+0	1.745820E+0	1.585270E+0	1.470520E+0	1.533160E+0	1.578680E+0	1.438670E+0	1.547340E+0	1.634690E+0	1.758670E+0	1.852450E+0	1.442980E+0	1.498100E+0	1.632740E+0	1.577180E+0	1.801660E+0	1.818460E+0	1.897330E+0	1.611220E+0	1.535690E+0	1.675140E+0	1.662390E+0	1.377540E+0	1.420100E+0	1.827660E+0	1.755550E+0	1.655500E+0	1.319040E+0	1.542030E+0	1.596440E+0
2.400000E+3	1.281690E+0	1.398420E+0	1.369900E+0	1.209650E+0	1.482600E+0	1.512240E+0	1.418360E+0	1.471120E+0	1.449890E+0	1.412320E+0	1.686920E+0	1.622230E+0	1.689620E+0	1.763290E+0	2.024160E+0	1.987940E+0	1.460850E+0	1.691130E+0	1.791790E+0	1.764290E+0	1.596280E+0	1.759280E+0	1.960930E+0	1.896540E+0	1.450260E+0	1.577250E+0	1.665800E+0	1.562460E+0	1.820510E+0	1.872830E+0	1.934280E+0	1.981030E+0	1.592400E+0	1.644460E+0	1.744370E+0	1.732560E+0	1.732720E+0	1.710460E+0	1.979390E+0	1.756270E+0	1.578390E+0	1.529930E+0	1.743030E+0	1.365250E+0	1.892230E+0	1.863900E+0	1.952580E+0	1.686160E+0	1.537700E+0	1.616310E+0	1.718310E+0	1.464310E+0	1.589510E+0	1.648090E+0	1.833180E+0	1.661760E+0	1.282460E+0	1.449180E+0	1.697230E+0	1.488890E+0	1.604860E+0	1.800260E+0	1.966580E+0	1.897480E+0	1.516070E+0	1.711260E+0	1.742650E+0	1.658200E+0	1.637950E+0	1.813190E+0	1.900210E+0	1.747400E+0	1.421220E+0	1.520540E+0	1.685510E+0	1.546440E+0	1.643060E+0	1.785100E+0	1.959180E+0	2.002220E+0	1.402850E+0	1.607660E+0	1.802910E+0	1.768800E+0	1.496440E+0	1.764460E+0	1.936800E+0	1.949730E+0	1.484320E+0	1.605460E+0	1.622670E+0	1.670630E+0	1.784610E+0	1.821930E+0	1.868970E+0	2.021480E+0	1.532790E+0	1.523770E+0	1.633520E+0	1.684020E+0	1.534510E+0	1.692560E+0	1.770730E+0	1.826770E+0	1.374860E+0	1.579090E+0	1.655930E+0	1.544050E+0	1.703520E+0	1.815720E+0	1.963600E+0	1.930190E+0	1.454390E+0	1.614310E+0	1.696490E+0	1.776730E+0	1.515690E+0	1.796910E+0	1.853840E+0	1.873080E+0	1.379990E+0	1.551510E+0	1.668430E+0	1.548690E+0	1.547380E+0	1.707720E+0	1.975510E+0	1.927340E+0	1.481340E+0	1.485240E+0	1.776820E+0	1.750070E+0	1.539570E+0	1.649120E+0	1.842030E+0	1.860010E+0	1.456670E+0	1.542790E+0	1.531430E+0	1.502990E+0	1.684300E+0	1.839590E+0	1.742950E+0	1.640930E+0	1.466060E+0	1.530500E+0	1.575820E+0	1.486040E+0	1.543040E+0	1.632190E+0	1.755730E+0	1.872080E+0	1.440090E+0	1.496050E+0	1.630270E+0	1.576070E+0	1.798760E+0	1.815690E+0	1.894240E+0	1.608970E+0	1.533470E+0	1.672580E+0	1.660010E+0	1.375880E+0	1.418190E+0	1.825100E+0	1.753100E+0	1.653380E+0	1.317220E+0	1.539850E+0	1.594240E+0
2.425000E+3	1.278840E+0	1.395100E+0	1.366640E+0	1.206870E+0	1.478690E+0	1.508310E+0	1.414680E+0	1.467310E+0	1.446180E+0	1.408710E+0	1.682240E+0	1.617750E+0	1.684990E+0	1.758040E+0	2.017620E+0	1.981620E+0	1.457090E+0	1.686350E+0	1.786400E+0	1.759050E+0	1.591930E+0	1.754190E+0	1.954750E+0	1.890650E+0	1.446530E+0	1.573000E+0	1.661080E+0	1.558110E+0	1.815040E+0	1.866850E+0	1.928090E+0	1.974370E+0	1.588100E+0	1.639810E+0	1.739310E+0	1.727600E+0	1.727910E+0	1.705630E+0	1.973180E+0	1.751210E+0	1.574180E+0	1.525880E+0	1.737960E+0	1.361810E+0	1.886180E+0	1.858080E+0	1.946290E+0	1.681190E+0	1.533540E+0	1.611750E+0	1.713390E+0	1.460650E+0	1.585370E+0	1.643630E+0	1.827770E+0	1.657150E+0	1.280140E+0	1.445530E+0	1.692390E+0	1.486720E+0	1.600350E+0	1.795140E+0	1.961780E+0	1.891940E+0	1.512050E+0	1.706900E+0	1.737630E+0	1.651860E+0	1.633060E+0	1.807340E+0	1.893110E+0	1.742550E+0	1.417800E+0	1.516580E+0	1.681990E+0	1.543130E+0	1.640080E+0	1.778560E+0	1.952400E+0	1.994640E+0	1.396670E+0	1.602520E+0	1.796200E+0	1.762100E+0	1.491440E+0	1.758050E+0	1.929050E+0	1.942590E+0	1.479110E+0	1.600430E+0	1.617500E+0	1.665350E+0	1.778530E+0	1.815660E+0	1.862340E+0	2.013920E+0	1.528040E+0	1.516150E+0	1.625640E+0	1.677480E+0	1.528450E+0	1.683630E+0	1.764660E+0	1.820460E+0	1.370890E+0	1.573500E+0	1.649660E+0	1.539200E+0	1.698010E+0	1.809620E+0	1.956540E+0	1.923240E+0	1.450230E+0	1.609260E+0	1.691020E+0	1.770620E+0	1.511170E+0	1.790890E+0	1.847400E+0	1.866500E+0	1.376210E+0	1.546660E+0	1.663120E+0	1.543930E+0	1.542730E+0	1.702250E+0	1.968450E+0	1.920470E+0	1.477030E+0	1.480890E+0	1.770940E+0	1.744220E+0	1.535040E+0	1.643920E+0	1.835820E+0	1.853660E+0	1.452560E+0	1.538180E+0	1.526780E+0	1.535320E+0	1.677450E+0	1.832980E+0	1.736840E+0	1.909600E+0	1.449940E+0	1.524080E+0	1.568810E+0	1.713970E+0	1.528160E+0	1.626210E+0	1.748330E+0	1.970430E+0	1.431610E+0	1.491340E+0	1.624350E+0	1.655310E+0	1.789200E+0	1.808950E+0	1.886630E+0	1.939450E+0	1.514130E+0	1.665100E+0	1.651730E+0	1.685580E+0	1.400130E+0	1.817660E+0	1.745000E+0	1.777620E+0	1.308110E+0	1.534820E+0	1.588270E+0
2.450000E+3	1.277510E+0	1.393550E+0	1.365200E+0	1.205680E+0	1.476790E+0	1.506680E+0	1.413120E+0	1.465820E+0	1.444250E+0	1.407100E+0	1.680110E+0	1.615770E+0	1.682680E+0	1.755770E+0	2.014700E+0	1.978720E+0	1.455300E+0	1.684230E+0	1.783970E+0	1.756690E+0	1.590030E+0	1.751920E+0	1.952050E+0	1.888070E+0	1.444900E+0	1.571200E+0	1.659010E+0	1.556210E+0	1.812630E+0	1.864340E+0	1.925360E+0	1.971490E+0	1.586080E+0	1.637720E+0	1.736930E+0	1.725180E+0	1.725640E+0	1.703430E+0	1.970380E+0	1.748940E+0	1.572330E+0	1.524080E+0	1.735710E+0	1.360320E+0	1.883610E+0	1.855490E+0	1.943520E+0	1.678950E+0	1.531700E+0	1.609710E+0	1.711090E+0	1.458870E+0	1.583300E+0	1.641500E+0	1.825250E+0	1.655190E+0	1.279530E+0	1.443910E+0	1.690300E+0	1.485430E+0	1.598400E+0	1.792760E+0	1.959360E+0	1.889870E+0	1.509760E+0	1.704130E+0	1.735280E+0	1.650090E+0	1.631000E+0	1.804420E+0	1.890830E+0	1.739700E+0	1.415740E+0	1.514380E+0	1.679440E+0	1.540770E+0	1.639270E+0	1.776810E+0	1.950770E+0	1.991440E+0	1.394910E+0	1.600330E+0	1.793640E+0	1.759570E+0	1.490030E+0	1.755610E+0	1.926620E+0	1.939690E+0	1.477620E+0	1.598320E+0	1.615350E+0	1.663030E+0	1.775970E+0	1.813080E+0	1.859500E+0	2.010680E+0	1.526080E+0	1.514210E+0	1.622600E+0	1.675530E+0	1.526970E+0	1.681450E+0	1.762210E+0	1.817830E+0	1.369200E+0	1.571840E+0	1.645380E+0	1.537190E+0	1.695570E+0	1.806990E+0	1.953560E+0	1.920200E+0	1.448380E+0	1.607050E+0	1.688630E+0	1.768080E+0	1.509170E+0	1.788370E+0	1.844750E+0	1.863670E+0	1.374640E+0	1.544670E+0	1.660950E+0	1.541930E+0	1.540690E+0	1.699900E+0	1.965430E+0	1.917490E+0	1.475110E+0	1.479030E+0	1.768460E+0	1.741720E+0	1.533120E+0	1.641690E+0	1.833140E+0	1.850930E+0	1.450720E+0	1.536130E+0	1.524840E+0	1.533430E+0	1.675090E+0	1.830290E+0	1.734380E+0	1.906650E+0	1.448070E+0	1.522080E+0	1.566570E+0	1.711480E+0	1.526230E+0	1.624040E+0	1.745850E+0	1.967390E+0	1.429880E+0	1.489490E+0	1.622240E+0	1.653070E+0	1.786730E+0	1.806390E+0	1.883900E+0	1.936490E+0	1.512240E+0	1.662800E+0	1.649460E+0	1.683180E+0	1.398440E+0	1.815080E+0	1.742550E+0	1.775090E+0	1.306590E+0	1.532890E+0	1.586130E+0
2.475000E+3	1.275520E+0	1.391430E+0	1.363540E+0	1.204390E+0	1.472230E+0	1.504540E+0	1.411460E+0	1.463770E+0	1.439760E+0	1.405200E+0	1.677760E+0	1.613560E+0	1.678900E+0	1.753280E+0	2.011670E+0	1.975660E+0	1.453380E+0	1.681760E+0	1.781440E+0	1.754070E+0	1.587660E+0	1.749350E+0	1.948860E+0	1.885060E+0	1.442780E+0	1.568840E+0	1.656690E+0	1.553900E+0	1.809830E+0	1.861360E+0	1.922270E+0	1.968230E+0	1.583620E+0	1.635240E+0	1.734180E+0	1.722450E+0	1.722880E+0	1.700690E+0	1.967110E+0	1.746040E+0	1.569890E+0	1.521780E+0	1.733000E+0	1.358470E+0	1.880570E+0	1.852500E+0	1.940300E+0	1.676330E+0	1.529340E+0	1.607110E+0	1.708210E+0	1.456640E+0	1.580790E+0	1.638770E+0	1.822190E+0	1.652380E+0	1.276230E+0	1.441610E+0	1.687690E+0	1.481540E+0	1.596010E+0	1.789330E+0	1.953930E+0	1.885280E+0	1.508060E+0	1.702180E+0	1.732690E+0	1.650620E+0	1.630330E+0	1.802150E+0	1.887960E+0	1.737570E+0	1.414230E+0	1.512660E+0	1.675750E+0	1.536860E+0	1.633200E+0	1.774500E+0	1.945880E+0	1.988790E+0	1.395810E+0	1.598380E+0	1.791340E+0	1.757440E+0	1.489060E+0	1.753410E+0	1.923990E+0	1.937030E+0	1.475920E+0	1.596430E+0	1.613400E+0	1.660980E+0	1.773650E+0	1.810690E+0	1.856940E+0	2.007770E+0	1.524280E+0	1.515310E+0	1.624650E+0	1.675030E+0	1.526920E+0	1.681740E+0	1.759860E+0	1.815370E+0	1.367590E+0	1.569380E+0	1.645720E+0	1.535250E+0	1.693410E+0	1.804360E+0	1.950680E+0	1.917270E+0	1.446480E+0	1.604880E+0	1.686260E+0	1.765510E+0	1.507260E+0	1.785870E+0	1.842180E+0	1.860850E+0	1.373000E+0	1.542450E+0	1.658430E+0	1.539790E+0	1.538550E+0	1.697460E+0	1.962290E+0	1.914600E+0	1.473170E+0	1.477040E+0	1.765830E+0	1.739100E+0	1.530960E+0	1.639420E+0	1.830420E+0	1.848110E+0	1.448710E+0	1.534040E+0	1.522770E+0	1.531130E+0	1.672710E+0	1.827600E+0	1.731830E+0	1.903550E+0	1.446050E+0	1.520060E+0	1.564340E+0	1.708920E+0	1.524110E+0	1.621830E+0	1.743200E+0	1.964270E+0	1.427970E+0	1.487440E+0	1.619890E+0	1.650650E+0	1.783900E+0	1.803600E+0	1.880850E+0	1.933210E+0	1.510090E+0	1.660260E+0	1.646940E+0	1.680550E+0	1.396380E+0	1.812200E+0	1.739830E+0	1.772250E+0	1.304810E+0	1.530680E+0	1.583810E+0
2.500000E+3	1.274000E+0	1.389730E+0	1.361820E+0	1.203140E+0	1.470310E+0	1.502650E+0	1.409690E+0	1.461990E+0	1.437980E+0	1.403430E+0	1.675590E+0	1.611490E+0	1.676830E+0	1.750790E+0	2.008690E+0	1.972960E+0	1.451330E+0	1.679350E+0	1.779110E+0	1.751850E+0	1.583400E+0	1.747060E+0	1.946290E+0	1.882520E+0	1.439420E+0	1.567000E+0	1.654600E+0	1.552060E+0	1.806800E+0	1.858930E+0	1.919720E+0	1.965510E+0	1.581750E+0	1.633240E+0	1.732020E+0	1.720250E+0	1.720760E+0	1.698620E+0	1.964370E+0	1.743800E+0	1.567960E+0	1.519980E+0	1.730870E+0	1.356960E+0	1.878080E+0	1.850130E+0	1.937770E+0	1.674290E+0	1.527510E+0	1.605320E+0	1.706110E+0	1.454890E+0	1.579020E+0	1.636780E+0	1.819790E+0	1.650440E+0	1.277250E+0	1.440080E+0	1.685650E+0	1.481070E+0	1.594120E+0	1.787560E+0	1.953240E+0	1.884720E+0	1.506000E+0	1.700180E+0	1.730180E+0	1.646990E+0	1.626780E+0	1.799510E+0	1.885570E+0	1.735130E+0	1.412620E+0	1.510710E+0	1.675130E+0	1.537030E+0	1.634150E+0	1.770690E+0	1.942920E+0	1.985150E+0	1.391150E+0	1.595830E+0	1.788390E+0	1.754010E+0	1.485630E+0	1.750580E+0	1.920380E+0	1.933650E+0	1.473280E+0	1.593960E+0	1.610910E+0	1.658390E+0	1.770700E+0	1.807550E+0	1.853780E+0	2.004180E+0	1.521930E+0	1.511770E+0	1.619250E+0	1.670270E+0	1.522450E+0	1.676740E+0	1.756960E+0	1.812320E+0	1.365670E+0	1.567040E+0	1.641510E+0	1.532890E+0	1.690660E+0	1.801480E+0	1.947430E+0	1.914060E+0	1.444500E+0	1.602500E+0	1.683720E+0	1.762750E+0	1.505180E+0	1.783100E+0	1.839170E+0	1.857930E+0	1.371300E+0	1.540230E+0	1.655950E+0	1.537630E+0	1.536270E+0	1.694990E+0	1.959090E+0	1.911540E+0	1.471220E+0	1.474990E+0	1.763210E+0	1.736420E+0	1.528940E+0	1.637010E+0	1.827680E+0	1.845290E+0	1.446830E+0	1.531950E+0	1.520680E+0	1.529140E+0	1.670310E+0	1.824780E+0	1.729210E+0	1.900550E+0	1.444170E+0	1.517960E+0	1.562190E+0	1.706490E+0	1.522070E+0	1.619470E+0	1.740670E+0	1.961220E+0	1.426110E+0	1.485420E+0	1.617650E+0	1.648330E+0	1.781320E+0	1.800950E+0	1.878010E+0	1.930280E+0	1.508120E+0	1.658100E+0	1.644630E+0	1.678330E+0	1.394680E+0	1.809690E+0	1.737470E+0	1.769840E+0	1.303260E+0	1.528760E+0	1.581780E+0
2.600000E+3	1.272140E+0	1.387970E+0	1.359950E+0	1.201690E+0	1.468440E+0	1.500640E+0	1.407770E+0	1.459990E+0	1.436050E+0	1.401480E+0	1.673030E+0	1.609060E+0	1.674180E+0	1.748090E+0	2.005310E+0	1.969650E+0	1.449110E+0	1.676790E+0	1.776330E+0	1.749120E+0	1.580640E+0	1.744370E+0	1.943000E+0	1.879500E+0	1.436890E+0	1.564590E+0	1.652010E+0	1.549670E+0	1.803740E+0	1.855770E+0	1.916540E+0	1.962260E+0	1.579280E+0	1.630560E+0	1.729420E+0	1.717550E+0	1.716080E+0	1.695810E+0	1.961120E+0	1.741000E+0	1.563890E+0	1.517760E+0	1.728070E+0	1.355100E+0	1.874340E+0	1.847100E+0	1.934520E+0	1.671650E+0	1.525290E+0	1.602820E+0	1.703400E+0	1.452740E+0	1.576420E+0	1.634230E+0	1.816660E+0	1.647720E+0	1.273130E+0	1.437880E+0	1.682950E+0	1.478450E+0	1.591710E+0	1.784250E+0	1.947820E+0	1.878960E+0	1.503540E+0	1.696890E+0	1.727690E+0	1.644180E+0	1.624130E+0	1.796540E+0	1.882720E+0	1.732120E+0	1.409780E+0	1.507890E+0	1.671500E+0	1.534110E+0	1.629900E+0	1.769170E+0	1.940500E+0	1.982270E+0	1.390790E+0	1.593890E+0	1.786440E+0	1.752100E+0	1.484820E+0	1.748310E+0	1.918140E+0	1.931010E+0	1.472000E+0	1.592000E+0	1.608810E+0	1.656160E+0	1.768350E+0	1.805100E+0	1.851100E+0	2.001110E+0	1.520020E+0	1.510220E+0	1.618250E+0	1.668880E+0	1.521480E+0	1.676220E+0	1.754670E+0	1.809930E+0	1.363980E+0	1.565460E+0	1.640970E+0	1.530890E+0	1.688350E+0	1.798800E+0	1.944340E+0	1.911010E+0	1.442680E+0	1.600280E+0	1.681230E+0	1.760110E+0	1.503130E+0	1.780630E+0	1.836450E+0	1.855040E+0	1.369780E+0	1.538090E+0	1.653590E+0	1.535430E+0	1.534230E+0	1.692600E+0	1.956000E+0	1.908450E+0	1.469220E+0	1.472950E+0	1.760600E+0	1.733710E+0	1.526830E+0	1.634740E+0	1.824850E+0	1.842330E+0	1.444810E+0	1.529790E+0	1.518520E+0	1.526920E+0	1.667820E+0	1.822060E+0	1.726650E+0	1.897550E+0	1.442230E+0	1.515940E+0	1.560000E+0	1.703840E+0	1.519970E+0	1.617110E+0	1.738000E+0	1.957990E+0	1.424140E+0	1.483330E+0	1.615300E+0	1.645900E+0	1.778680E+0	1.798200E+0	1.875110E+0	1.927140E+0	1.506090E+0	1.655560E+0	1.642190E+0	1.675560E+0	1.392760E+0	1.806830E+0	1.734670E+0	1.767030E+0	1.301500E+0	1.526530E+0	1.579460E+0
2.700000E+3	1.270400E+0	1.386110E+0	1.358300E+0	1.200300E+0	1.466500E+0	1.498890E+0	1.406170E+0	1.458160E+0	1.434210E+0	1.399880E+0	1.670620E+0	1.606700E+0	1.671610E+0	1.745470E+0	2.001970E+0	1.966400E+0	1.447080E+0	1.674400E+0	1.773670E+0	1.746580E+0	1.578550E+0	1.741920E+0	1.940030E+0	1.876660E+0	1.435140E+0	1.562390E+0	1.649560E+0	1.547340E+0	1.800900E+0	1.852880E+0	1.913330E+0	1.959110E+0	1.576780E+0	1.628140E+0	1.726740E+0	1.715090E+0	1.713110E+0	1.693320E+0	1.958130E+0	1.738410E+0	1.561380E+0	1.515510E+0	1.725410E+0	1.353250E+0	1.871270E+0	1.844080E+0	1.931450E+0	1.669160E+0	1.522910E+0	1.599800E+0	1.700880E+0	1.450570E+0	1.572180E+0	1.631770E+0	1.814030E+0	1.645440E+0	1.270260E+0	1.436100E+0	1.680650E+0	1.473750E+0	1.588640E+0	1.781200E+0	1.944050E+0	1.876690E+0	1.501910E+0	1.695000E+0	1.725260E+0	1.642220E+0	1.622300E+0	1.794290E+0	1.879470E+0	1.730040E+0	1.408450E+0	1.505870E+0	1.668400E+0	1.531260E+0	1.626980E+0	1.766670E+0	1.936910E+0	1.979170E+0	1.390320E+0	1.591690E+0	1.783450E+0	1.749500E+0	1.482850E+0	1.745920E+0	1.915230E+0	1.928100E+0	1.470150E+0	1.589890E+0	1.606660E+0	1.653910E+0	1.765760E+0	1.802500E+0	1.848330E+0	1.998040E+0	1.518050E+0	1.509200E+0	1.616840E+0	1.666540E+0	1.519870E+0	1.675120E+0	1.752190E+0	1.807370E+0	1.362400E+0	1.563040E+0	1.638780E+0	1.528840E+0	1.686040E+0	1.796150E+0	1.941310E+0	1.907950E+0	1.440710E+0	1.598040E+0	1.678910E+0	1.757490E+0	1.501180E+0	1.778000E+0	1.833870E+0	1.852250E+0	1.368220E+0	1.535990E+0	1.651240E+0	1.533320E+0	1.532040E+0	1.690030E+0	1.952860E+0	1.905450E+0	1.467270E+0	1.471050E+0	1.758010E+0	1.731140E+0	1.524860E+0	1.632540E+0	1.822140E+0	1.839640E+0	1.443020E+0	1.527760E+0	1.516460E+0	1.524890E+0	1.665450E+0	1.819280E+0	1.724050E+0	1.894540E+0	1.440290E+0	1.513950E+0	1.557840E+0	1.701300E+0	1.517970E+0	1.614890E+0	1.735470E+0	1.954880E+0	1.422280E+0	1.481530E+0	1.613070E+0	1.643630E+0	1.776060E+0	1.795530E+0	1.872270E+0	1.924050E+0	1.504100E+0	1.653210E+0	1.639880E+0	1.673180E+0	1.390950E+0	1.804150E+0	1.732180E+0	1.764410E+0	1.299930E+0	1.524490E+0	1.577340E+0
2.800000E+3	1.268950E+0	1.384320E+0	1.356620E+0	1.198930E+0	1.464600E+0	1.497050E+0	1.404480E+0	1.456440E+0	1.432520E+0	1.398230E+0	1.668600E+0	1.604720E+0	1.669420E+0	1.743210E+0	1.999130E+0	1.963560E+0	1.445210E+0	1.672190E+0	1.771300E+0	1.744150E+0	1.576540E+0	1.739880E+0	1.937430E+0	1.874170E+0	1.433430E+0	1.560600E+0	1.647390E+0	1.545330E+0	1.798420E+0	1.850180E+0	1.910510E+0	1.956230E+0	1.574730E+0	1.626150E+0	1.724460E+0	1.712840E+0	1.710910E+0	1.691280E+0	1.955350E+0	1.736230E+0	1.559510E+0	1.513680E+0	1.723080E+0	1.351540E+0	1.868560E+0	1.841560E+0	1.928650E+0	1.666990E+0	1.520870E+0	1.598210E+0	1.698670E+0	1.449190E+0	1.570130E+0	1.629670E+0	1.811600E+0	1.643400E+0	1.269390E+0	1.434200E+0	1.678340E+0	1.474280E+0	1.586560E+0	1.779530E+0	1.942370E+0	1.874010E+0	1.499390E+0	1.691840E+0	1.722570E+0	1.638140E+0	1.617640E+0	1.792250E+0	1.876920E+0	1.727400E+0	1.404740E+0	1.504460E+0	1.667400E+0	1.530240E+0	1.625480E+0	1.764210E+0	1.933510E+0	1.976090E+0	1.386430E+0	1.589520E+0	1.781240E+0	1.747420E+0	1.480310E+0	1.743820E+0	1.912370E+0	1.925100E+0	1.467600E+0	1.587740E+0	1.604500E+0	1.651520E+0	1.763150E+0	1.799890E+0	1.845500E+0	1.994800E+0	1.515970E+0	1.506320E+0	1.612540E+0	1.663590E+0	1.517040E+0	1.670280E+0	1.749600E+0	1.804610E+0	1.360690E+0	1.561300E+0	1.635320E+0	1.526830E+0	1.683630E+0	1.793530E+0	1.938380E+0	1.905060E+0	1.438740E+0	1.595860E+0	1.676470E+0	1.754990E+0	1.499190E+0	1.775540E+0	1.831080E+0	1.849490E+0	1.366750E+0	1.533980E+0	1.648960E+0	1.531320E+0	1.530000E+0	1.687710E+0	1.949940E+0	1.902550E+0	1.465420E+0	1.469000E+0	1.755450E+0	1.728610E+0	1.522890E+0	1.630460E+0	1.819610E+0	1.836990E+0	1.441080E+0	1.525790E+0	1.514490E+0	1.522820E+0	1.663140E+0	1.816650E+0	1.721650E+0	1.891690E+0	1.438540E+0	1.512020E+0	1.555840E+0	1.699010E+0	1.516090E+0	1.612820E+0	1.733040E+0	1.951960E+0	1.420540E+0	1.479600E+0	1.610850E+0	1.641410E+0	1.773580E+0	1.793060E+0	1.869450E+0	1.921190E+0	1.502280E+0	1.651060E+0	1.637830E+0	1.670940E+0	1.389370E+0	1.801720E+0	1.729840E+0	1.762030E+0	1.298430E+0	1.522630E+0	1.575380E+0
3.100000E+3	1.267570E+0	1.382750E+0	1.354900E+0	1.197480E+0	1.462560E+0	1.495120E+0	1.402780E+0	1.454600E+0	1.430720E+0	1.396610E+0	1.666220E+0	1.602750E+0	1.667370E+0	1.740690E+0	1.996090E+0	1.960740E+0	1.443270E+0	1.669750E+0	1.768730E+0	1.741620E+0	1.574290E+0	1.737440E+0	1.934530E+0	1.871570E+0	1.431770E+0	1.558710E+0	1.645210E+0	1.543400E+0	1.795850E+0	1.847590E+0	1.907660E+0	1.953180E+0	1.572610E+0	1.623820E+0	1.722030E+0	1.710370E+0	1.708640E+0	1.689090E+0	1.952570E+0	1.733960E+0	1.557570E+0	1.512060E+0	1.720750E+0	1.349940E+0	1.865740E+0	1.838890E+0	1.925730E+0	1.664660E+0	1.518860E+0	1.596180E+0	1.696380E+0	1.447500E+0	1.568200E+0	1.627790E+0	1.809110E+0	1.641400E+0	1.270900E+0	1.432630E+0	1.676090E+0	1.473670E+0	1.584490E+0	1.777070E+0	1.940960E+0	1.871420E+0	1.497550E+0	1.690260E+0	1.720370E+0	1.635840E+0	1.616190E+0	1.789080E+0	1.873590E+0	1.725320E+0	1.403320E+0	1.502730E+0	1.665700E+0	1.528820E+0	1.625500E+0	1.760250E+0	1.931340E+0	1.972530E+0	1.383370E+0	1.586760E+0	1.777740E+0	1.743700E+0	1.470460E+0	1.740500E+0	1.908700E+0	1.921850E+0	1.459140E+0	1.585270E+0	1.602040E+0	1.649090E+0	1.756910E+0	1.796920E+0	1.842420E+0	1.991290E+0	1.513550E+0	1.501110E+0	1.608450E+0	1.660580E+0	1.512230E+0	1.667630E+0	1.746800E+0	1.801670E+0	1.356200E+0	1.558250E+0	1.630320E+0	1.524570E+0	1.680610E+0	1.790690E+0	1.935170E+0	1.901860E+0	1.436830E+0	1.593500E+0	1.673890E+0	1.752120E+0	1.497070E+0	1.772680E+0	1.828270E+0	1.846540E+0	1.365050E+0	1.531870E+0	1.646530E+0	1.529330E+0	1.527990E+0	1.685120E+0	1.946670E+0	1.899470E+0	1.463400E+0	1.467060E+0	1.752760E+0	1.725960E+0	1.520840E+0	1.627970E+0	1.816800E+0	1.834270E+0	1.439290E+0	1.523740E+0	1.512550E+0	1.520840E+0	1.660730E+0	1.813920E+0	1.719100E+0	1.888620E+0	1.436640E+0	1.509890E+0	1.553590E+0	1.696510E+0	1.514140E+0	1.610600E+0	1.730580E+0	1.948970E+0	1.418720E+0	1.477680E+0	1.608550E+0	1.639090E+0	1.770990E+0	1.790340E+0	1.866550E+0	1.918080E+0	1.500320E+0	1.648790E+0	1.635560E+0	1.668670E+0	1.387810E+0	1.799150E+0	1.727490E+0	1.759520E+0	1.296950E+0	1.520730E+0	1.573370E+0
3.400000E+3	1.273400E+0	1.380880E+0	1.353260E+0	1.196020E+0	1.497030E+0	1.491630E+0	1.400530E+0	1.452290E+0	1.458230E+0	1.393540E+0	1.663930E+0	1.600510E+0	1.676630E+0	1.737840E+0	1.993180E+0	1.957810E+0	1.442000E+0	1.667470E+0	1.766160E+0	1.739100E+0	1.572210E+0	1.734930E+0	1.931560E+0	1.868740E+0	1.429790E+0	1.556660E+0	1.642930E+0	1.541480E+0	1.793290E+0	1.844780E+0	1.904750E+0	1.950130E+0	1.570320E+0	1.621450E+0	1.719450E+0	1.707780E+0	1.705940E+0	1.686710E+0	1.949570E+0	1.731470E+0	1.555490E+0	1.509980E+0	1.718240E+0	1.348190E+0	1.862950E+0	1.836080E+0	1.922690E+0	1.662220E+0	1.516580E+0	1.593400E+0	1.693920E+0	1.445360E+0	1.565950E+0	1.625500E+0	1.806550E+0	1.639210E+0	1.266490E+0	1.430880E+0	1.673740E+0	1.470020E+0	1.582090E+0	1.774240E+0	1.936280E+0	1.868740E+0	1.496300E+0	1.688010E+0	1.718660E+0	1.636510E+0	1.614110E+0	1.788310E+0	1.871700E+0	1.723730E+0	1.402410E+0	1.501170E+0	1.662520E+0	1.526320E+0	1.621130E+0	1.758670E+0	1.927600E+0	1.969690E+0	1.381960E+0	1.584770E+0	1.774560E+0	1.741030E+0	1.470650E+0	1.738970E+0	1.905510E+0	1.919170E+0	1.457640E+0	1.583210E+0	1.599870E+0	1.646770E+0	1.756160E+0	1.794390E+0	1.839900E+0	1.988330E+0	1.511290E+0	1.501030E+0	1.608030E+0	1.658100E+0	1.504940E+0	1.669130E+0	1.744530E+0	1.799260E+0	1.349540E+0	1.556300E+0	1.629930E+0	1.522760E+0	1.677610E+0	1.788390E+0	1.932470E+0	1.899200E+0	1.435190E+0	1.591460E+0	1.671720E+0	1.749590E+0	1.495190E+0	1.770310E+0	1.825650E+0	1.843920E+0	1.363610E+0	1.529870E+0	1.644380E+0	1.527290E+0	1.525980E+0	1.682940E+0	1.943840E+0	1.896680E+0	1.461610E+0	1.465120E+0	1.750280E+0	1.723550E+0	1.518900E+0	1.625800E+0	1.814250E+0	1.831560E+0	1.437550E+0	1.521850E+0	1.510550E+0	1.518880E+0	1.658540E+0	1.811270E+0	1.716770E+0	1.885860E+0	1.434900E+0	1.507400E+0	1.551640E+0	1.694280E+0	1.512240E+0	1.608080E+0	1.728290E+0	1.946130E+0	1.417080E+0	1.475720E+0	1.606570E+0	1.637030E+0	1.768640E+0	1.787910E+0	1.863900E+0	1.915200E+0	1.498390E+0	1.646560E+0	1.633410E+0	1.666390E+0	1.386190E+0	1.796730E+0	1.725250E+0	1.757200E+0	1.295480E+0	1.518760E+0	1.571320E+0
