Photon Energy (eV)	#1	#2	#3	#4	#5	#6	#7	#8	#9	#10	#11	#12	#13	#14	#15	#16	#17	#18	#19	#20	#21	#22	#23	#24	#25	#26	#27	#28	#29	#30	#31	#32	#33	#34	#35	#36	#37	#38	#39	#40	#41	#42	#43	#44	#45	#46	#47	#48	#49	#50	#51	#52	#53	#54	#55	#56	#57	#58	#59	#60	#61	#62	#63	#64	#65	#66	#67	#68	#69	#70	#71	#72	#73	#74	#75	#76	#77	#78	#79	#80	#81	#82	#83	#84	#85	#86	#87	#88	#89	#90	#91	#92	#93	#94	#95	#96	#97	#98	#99	#100	#101	#102	#103	#104	#105	#106	#107	#108	#109	#110	#111	#112	#113	#114	#115	#116	#117	#118	#119	#120	#121	#122	#123	#124	#125	#126	#127	#128	#129	#130	#131	#132	#133	#134	#135	#136	#137	#138	#139	#140	#141	#142	#143	#144	#145	#146	#147	#148	#149	#150	#151	#152	#153	#154	#155	#156	#157	#158	#159	#160	#161	#162	#163	#164	#165	#166	#167	#168	#169	#170	#171	
2.790010E+2	-1.749461E-3	-4.231723E-3	-9.156329E-3	3.788714E-3	-1.194199E-2	-3.791858E-3	-7.613235E-3	4.573372E-3	-1.974782E-3	-8.800620E-3	1.345321E-3	-2.082557E-3	1.899469E-3	-3.986474E-3	-2.122672E-3	5.405952E-3	-2.927352E-3	1.887196E-5	8.033803E-3	7.378530E-3	1.271275E-3	-6.117416E-3	-6.352206E-3	-6.759441E-3	-2.535546E-3	-2.513504E-3	-1.113745E-2	3.531333E-3	-1.227063E-2	7.637796E-3	-8.336739E-3	-5.964807E-3	-6.950913E-3	8.597731E-3	-8.792590E-3	-1.350193E-2	-1.096975E-2	5.323719E-3	-6.725417E-3	-8.133767E-3	-7.761095E-3	1.036371E-3	-1.178818E-2	-1.268496E-2	-1.398516E-2	7.110507E-3	-2.936261E-3	-1.035009E-2	1.650044E-2	-1.032834E-2	4.967816E-4	2.109848E-3	-7.168091E-4	4.945932E-4	2.784989E-3	-2.669070E-3	-1.161041E-2	7.543094E-4	5.603214E-4	5.586074E-3	-5.225426E-3	-2.206929E-3	-4.088401E-3	-4.070384E-3	-4.753694E-4	-3.616492E-3	-4.196968E-3	-6.031091E-3	-7.576523E-4	-2.342671E-3	-5.910918E-3	4.407367E-3	-5.396126E-3	-2.770645E-3	-4.314226E-3	-5.133473E-3	1.050870E-3	-1.485744E-4	2.443622E-3	5.498291E-3	-1.689419E-3	-3.672376E-3	-5.095707E-3	-8.860155E-3	-1.584472E-3	-7.369029E-4	-1.101258E-2	2.404565E-3	-1.277296E-5	2.905805E-3	4.124465E-4	-6.981378E-4	-3.308398E-3	-1.243035E-2	3.625778E-3	-8.433231E-4	-3.305146E-3	-1.651397E-3	4.463886E-3	-2.585580E-3	1.681351E-3	-2.571179E-4	1.116770E-2	-5.301633E-4	-2.191680E-4	-9.207843E-3	1.187896E-3	5.229771E-3	-1.161203E-3	1.096660E-2	-8.466914E-4	-6.823236E-3	-9.092217E-4	-3.069778E-3	-1.044729E-2	1.467216E-2	-3.029559E-3	-6.327283E-3	2.466901E-3	-7.825223E-4	-3.562327E-4	1.503552E-3	2.817142E-3	7.326629E-3	-1.075005E-2	-7.088444E-3	2.993728E-3	-4.877172E-3	1.155068E-3	-7.178007E-3	-5.165023E-3	2.291150E-3	-7.803140E-3	-6.332148E-3	-8.695587E-3	9.845903E-5	1.188424E-3	-1.200899E-2	-1.751888E-3	4.414997E-3	-1.439038E-2	-1.261039E-2	7.853568E-3	4.494598E-5	-7.023051E-3	6.509966E-3	-2.190792E-3	-1.262006E-2	-9.687354E-3	-5.585626E-3	-2.585768E-3	1.175395E-2	-2.214654E-3	3.250534E-3	5.772357E-3	-4.038602E-3	-1.314808E-3	-8.275271E-3	-5.461721E-3	-3.251654E-3	-2.631989E-3	7.605638E-3	2.606639E-3	-2.104033E-3	-6.718088E-3	-3.716937E-3	-2.503293E-3	-1.035328E-2	3.186244E-3	2.596718E-4	-1.006081E-2
2.795050E+2	-1.880198E-2	-5.086001E-3	-5.317612E-3	-3.790801E-3	6.794884E-3	-5.418755E-3	-7.626517E-3	4.562923E-3	-1.998947E-3	-1.137089E-2	-5.525076E-3	-4.487718E-4	1.196311E-2	1.598308E-3	-5.652770E-3	-4.664415E-4	5.052603E-4	-8.839955E-3	-5.940788E-4	1.596602E-3	-1.307094E-2	7.561162E-3	-7.932758E-3	-6.090130E-3	-7.837639E-3	3.860521E-3	2.883996E-3	5.059939E-3	-1.199576E-3	-3.138988E-3	-4.598303E-3	-4.504114E-3	5.525894E-3	-7.501544E-3	6.537696E-3	-4.181230E-3	-4.441170E-3	-9.655244E-3	4.517154E-3	-1.178276E-2	-5.055652E-3	-2.984816E-3	3.910524E-3	-1.700741E-3	-4.771551E-3	9.488079E-4	-5.393823E-4	-8.137872E-4	1.200570E-3	2.634140E-3	1.325193E-3	-9.637470E-3	-3.922248E-3	-1.272985E-2	-1.600642E-2	7.005706E-3	-5.166502E-3	3.243722E-3	-3.726347E-3	-2.726901E-3	1.099276E-2	-2.968848E-3	-1.114483E-2	-5.236914E-3	2.382939E-3	5.105544E-3	-7.757297E-4	-6.360636E-3	-9.043943E-3	-7.103483E-3	7.914086E-3	2.754752E-3	-9.635561E-4	-7.551353E-3	5.212648E-3	-5.034595E-3	3.778414E-3	-9.061089E-3	-5.596807E-3	-5.289388E-3	-3.544366E-3	6.772772E-3	6.703955E-3	1.180637E-2	-3.135693E-3	1.589069E-3	3.300498E-3	-1.297784E-3	1.934558E-5	-1.528033E-3	-4.372179E-3	-5.903554E-3	1.807726E-3	-6.301316E-3	-2.454055E-4	-2.437660E-3	-6.698651E-3	-5.146089E-3	-7.261107E-3	2.472613E-3	1.963559E-4	-1.315674E-2	-5.413154E-3	1.427677E-3	3.500290E-3	2.214161E-3	-6.686722E-3	-5.117564E-3	-2.736844E-4	-6.729886E-3	-1.003714E-2	9.843160E-3	-3.825537E-3	1.308890E-3	1.958195E-3	-3.281108E-3	-1.467021E-3	6.600342E-3	-1.021173E-2	-7.143820E-3	-7.970374E-3	-9.387365E-3	-3.778424E-3	2.616674E-3	-7.225958E-3	-3.924539E-3	-5.396097E-3	-1.042670E-2	-8.877008E-3	8.390875E-4	-5.215739E-3	-6.377031E-3	3.892642E-3	8.314848E-3	-1.425065E-3	-5.480364E-3	5.865384E-3	-2.465082E-3	-8.481960E-3	-2.553223E-3	-1.098018E-3	-2.355667E-4	-3.237707E-3	-9.739358E-3	1.714339E-3	-3.543208E-3	4.162408E-4	3.497051E-3	1.364211E-3	4.863981E-3	-3.370239E-3	-8.915821E-3	-1.324278E-3	-4.265799E-3	-7.615576E-3	-1.175042E-3	5.022761E-3	4.222449E-3	2.398163E-3	-4.098193E-3	-4.659915E-3	-9.231245E-3	-3.338993E-3	-2.129681E-3	-3.572473E-3	-2.968955E-3	2.360784E-5	3.699330E-3	6.237134E-3	2.447060E-4	2.303552E-3
2.800020E+2	1.482668E-2	-9.463989E-3	-5.594871E-3	-8.224416E-3	-9.634241E-3	-8.744267E-4	4.735651E-3	3.519974E-3	-4.078857E-3	-9.879236E-3	-6.522968E-3	1.103493E-4	-7.626578E-3	-2.853287E-4	4.398611E-4	-6.554799E-3	-6.639736E-3	2.332359E-3	-1.196674E-2	-1.094606E-2	3.821109E-3	1.980647E-3	-1.142650E-3	4.960300E-3	-1.950026E-3	-2.768548E-3	-8.084440E-3	-5.828357E-4	-6.548019E-3	-1.405875E-2	-3.546902E-4	1.094827E-3	-2.761141E-3	-3.036700E-3	-9.816394E-3	4.568141E-3	-3.943634E-3	-2.045415E-3	-1.318195E-3	1.478325E-3	-2.678096E-3	-1.048166E-2	-7.383312E-4	9.456691E-3	-3.375834E-3	-1.001886E-4	-6.339167E-3	-1.099906E-2	-1.788731E-3	7.215351E-4	-8.030503E-3	-5.477142E-3	1.571102E-3	-6.668968E-3	-1.074192E-3	-1.139234E-2	6.026164E-4	-1.907131E-3	2.943320E-3	-2.999219E-3	-9.820731E-3	6.982695E-3	4.230308E-4	-6.273047E-3	-3.390723E-3	-1.283472E-3	1.164836E-2	1.630208E-3	5.132789E-3	-1.190663E-3	-1.295404E-3	-1.108350E-3	6.146878E-4	-2.167321E-3	-9.996741E-3	-2.440177E-3	-5.839651E-3	-3.751427E-4	-5.793605E-3	-1.748626E-3	-4.690420E-3	-6.467007E-3	-4.552694E-4	-6.018613E-3	-1.194221E-2	-4.767150E-3	-3.356680E-3	-6.863916E-3	-9.072457E-3	-7.031970E-3	-5.350270E-3	-1.057704E-2	-2.406479E-3	-3.881102E-3	-1.995521E-3	-9.068864E-3	-8.569693E-3	-1.335683E-2	-4.107494E-3	-7.043498E-3	-3.864197E-3	-3.451460E-3	-1.208650E-2	-8.329654E-3	-1.125512E-2	1.159753E-3	1.032987E-3	-1.084552E-2	-1.065576E-2	-3.587998E-3	2.213794E-3	-1.335093E-2	-4.964530E-3	7.230087E-3	-1.069186E-2	-1.925308E-2	-1.705826E-3	-8.089704E-3	-3.600725E-4	-4.692541E-3	-4.935011E-4	-2.123276E-3	-8.123061E-3	-1.067457E-2	1.896453E-2	-1.370431E-2	-1.518266E-3	-3.601684E-3	-9.113501E-3	-1.189389E-2	5.278591E-3	-3.766470E-3	-8.024580E-3	-1.345577E-2	9.899995E-3	4.353129E-3	-1.505466E-2	-4.460561E-3	1.295438E-3	3.051295E-3	2.592241E-4	-3.982721E-3	4.091898E-3	-9.139139E-3	-2.064839E-3	-1.939377E-4	-6.046140E-3	3.244902E-3	3.214172E-4	5.527540E-4	-3.607248E-3	-9.157863E-3	-1.160138E-2	-6.983401E-3	-4.515745E-3	3.371781E-3	5.616299E-3	-4.385834E-3	-6.494793E-3	-1.065602E-3	-7.887767E-3	-6.913327E-3	-1.284945E-2	2.219148E-3	-6.188738E-3	-4.710228E-3	-1.926776E-3	-8.230560E-3	-4.761930E-3	1.589238E-2	-1.026772E-2
2.805050E+2	-8.255519E-3	8.406744E-3	-4.869277E-3	-3.445824E-3	-2.243219E-3	-6.654576E-3	-6.649037E-4	-5.611683E-3	-4.293446E-3	-2.503745E-3	-2.208210E-3	-1.155894E-2	-1.671724E-3	2.710276E-4	-5.330024E-3	-3.850516E-3	-1.162570E-5	-5.774003E-3	-1.073914E-3	-1.436268E-2	-6.349013E-3	4.016829E-3	-5.943593E-4	-9.165923E-3	-8.280307E-3	-3.763489E-3	5.582669E-3	-3.840611E-3	-4.560210E-6	-3.039148E-4	1.766005E-4	2.322406E-3	-8.265402E-3	-1.166284E-2	-4.404337E-3	1.044945E-3	-9.855721E-3	-5.065560E-3	-6.359012E-3	-2.774998E-3	1.440933E-3	-3.529097E-3	-5.287024E-3	-1.282088E-2	-3.604696E-3	-3.377836E-3	-9.979860E-4	-5.868267E-3	-9.155879E-3	-6.737949E-3	-6.579382E-3	-4.619525E-4	-5.237898E-3	-8.226322E-3	-9.168022E-3	-8.658540E-3	-6.681784E-3	-2.935386E-3	-2.461067E-3	-6.549514E-3	-7.626677E-4	-3.032446E-4	1.884941E-4	-1.739390E-3	-6.335540E-3	-7.560671E-3	-4.629238E-3	4.735967E-3	3.616168E-4	1.306567E-3	-4.913796E-3	-8.302483E-3	-5.562494E-3	-1.587550E-3	-7.931191E-4	3.471617E-3	-4.341955E-3	-7.015297E-3	-9.169605E-3	-1.204343E-2	-1.115044E-3	-8.357966E-3	-1.138541E-2	-9.720293E-3	-5.065095E-3	-1.027382E-2	7.742601E-3	-4.832357E-3	2.647381E-3	-1.959124E-3	-7.873509E-4	-1.039434E-3	4.102032E-3	-2.362271E-3	-8.447230E-3	-3.281657E-4	-2.702766E-3	-1.108084E-3	-4.342973E-3	2.885106E-3	-7.105427E-3	1.068357E-2	-2.924086E-3	-7.610737E-3	-3.820126E-3	-5.980540E-3	-4.532266E-6	-2.603204E-3	5.526355E-3	-6.263086E-3	-5.397421E-3	-3.532173E-3	-7.913919E-3	-1.238241E-2	-7.995104E-3	-1.672787E-3	-3.441813E-3	-1.051437E-2	-3.877997E-3	4.797545E-3	7.385186E-3	2.670577E-3	3.096046E-3	-2.683613E-3	-9.220791E-3	-2.039702E-3	-1.577223E-2	5.614702E-3	7.867501E-3	-4.114021E-3	-2.944171E-3	-6.062750E-3	-2.008886E-3	7.023290E-3	-8.365203E-3	4.110905E-3	-1.146718E-2	-1.226088E-3	-1.425795E-3	-2.845520E-3	-1.395405E-2	-7.741055E-3	-1.621647E-2	-3.133556E-3	2.923121E-3	-1.114912E-2	-7.122314E-3	-8.326024E-3	2.467816E-3	-1.241448E-2	-6.860373E-3	-7.587194E-3	-1.177859E-2	-1.539528E-2	-9.677414E-3	-4.503470E-3	-9.331938E-4	-1.945216E-2	-5.914651E-3	1.180681E-2	-3.123682E-3	-9.569495E-3	-4.646474E-3	-4.474924E-3	-1.028733E-2	-1.167846E-3	3.614094E-4	-9.565557E-3	-9.526754E-3	-1.383525E-2	-2.283387E-3
2.810050E+2	2.582114E-3	-3.097035E-3	8.368299E-4	4.002985E-3	-1.404725E-2	3.645627E-3	5.950672E-3	-5.617145E-3	-5.217640E-3	2.515649E-3	-5.226384E-3	-9.499910E-4	-9.183893E-4	-2.905676E-3	-1.855351E-3	-7.473772E-3	5.945132E-3	3.171579E-4	-1.213091E-2	-2.170535E-3	-3.516174E-3	-1.327503E-2	4.815814E-3	-7.180607E-3	-7.426610E-3	1.684178E-4	-7.482601E-3	-9.938693E-3	8.200356E-4	4.977070E-4	1.664130E-4	-5.660401E-3	-7.401032E-3	-3.278912E-3	9.944161E-3	2.660443E-3	4.440465E-3	-6.481158E-3	-3.584819E-3	-2.108046E-3	2.283756E-3	4.409217E-3	-6.166804E-3	9.977503E-4	3.786912E-3	-4.913084E-3	-1.283946E-2	-2.847424E-3	-1.540370E-2	-3.552317E-3	-2.492864E-3	6.482186E-3	-3.621025E-3	-3.409364E-3	-2.738002E-3	3.580494E-3	2.296844E-3	-1.179532E-2	-5.057194E-3	8.368133E-3	-8.179587E-3	6.697692E-3	-8.410655E-3	1.399327E-3	-4.544382E-3	-8.444297E-3	-4.650061E-3	3.875551E-3	-4.915690E-3	-1.020097E-2	-7.650075E-3	-5.790859E-4	-2.203538E-3	-3.986393E-3	3.096688E-3	-9.374248E-4	-2.661406E-3	2.593916E-3	1.181963E-3	-4.568776E-4	-2.093265E-3	-2.366264E-3	-4.623969E-3	-9.079361E-4	1.132326E-2	-1.104909E-2	2.070339E-3	-1.912186E-3	3.523854E-3	6.545708E-4	-3.187532E-3	6.832109E-3	6.574282E-3	2.666826E-3	-7.205296E-4	-1.117536E-3	4.139634E-3	-4.721443E-3	2.268553E-3	-5.432333E-3	1.343394E-3	-2.147650E-3	2.227763E-5	-9.860855E-3	-4.818046E-3	-8.683033E-4	-9.692690E-4	1.212604E-3	-3.002931E-3	-7.918422E-3	4.574439E-3	-9.384741E-3	7.268689E-3	-1.989510E-5	7.288562E-3	-1.288774E-5	-5.798990E-3	6.098212E-3	-5.229723E-4	2.478493E-3	-2.510408E-4	-6.401791E-3	-5.799540E-3	-9.684295E-3	-2.975233E-3	2.713693E-3	1.615126E-3	-6.144685E-3	-3.804038E-3	-1.453780E-3	-3.742625E-3	-5.942171E-3	-8.123128E-3	-3.641143E-3	-1.338102E-2	-6.401797E-3	6.817152E-3	-2.879506E-3	-6.323396E-3	-4.634854E-3	2.094653E-3	-3.323051E-3	-2.197682E-4	6.220144E-3	-1.234293E-3	-3.624205E-4	6.137759E-3	3.230430E-3	4.094817E-3	-6.825682E-3	-1.066735E-2	6.976828E-3	-1.686776E-3	1.097930E-3	-3.864412E-3	-7.279744E-3	-1.343479E-2	-5.424941E-3	-9.793865E-3	-1.016791E-2	-4.078715E-3	4.050432E-4	-2.123755E-3	2.843133E-3	6.551260E-4	3.320130E-3	-3.802159E-3	-3.033805E-4	-1.942128E-3	4.263906E-3	9.950695E-3
2.815000E+2	6.671654E-4	4.366671E-3	1.523278E-2	-5.049041E-3	7.087833E-3	1.166038E-2	-4.285729E-3	-6.292077E-3	2.647534E-4	4.261181E-3	8.694396E-4	4.843938E-3	-8.494643E-5	1.910195E-3	9.364889E-3	7.083380E-3	3.455462E-3	1.522706E-2	-2.727687E-3	7.669931E-3	5.783954E-3	-1.938923E-3	5.674100E-3	8.407562E-4	6.566768E-3	-5.562796E-4	-4.971261E-3	2.238467E-5	8.859072E-4	1.038167E-2	6.912758E-3	-4.868575E-3	3.235367E-3	-2.287790E-3	-5.950122E-3	7.633914E-3	8.106821E-3	2.768718E-3	2.740221E-3	1.332816E-3	6.156512E-4	9.283400E-3	4.243829E-3	1.080017E-3	6.340798E-3	-4.084733E-3	-1.739322E-3	1.089739E-2	8.700174E-3	5.259642E-4	9.895673E-3	4.818414E-3	5.489221E-4	3.567754E-3	8.093689E-3	2.221312E-3	1.361927E-3	1.241467E-2	2.746233E-3	1.493360E-4	2.975508E-3	-8.842193E-3	1.196909E-2	5.429980E-3	2.783835E-3	2.826219E-3	-3.797504E-4	6.465503E-3	3.432433E-3	-2.008506E-3	5.403955E-3	-1.135559E-2	-4.390809E-4	-3.128807E-3	2.394903E-3	-1.747437E-3	-5.159185E-3	-5.499210E-4	5.248430E-3	2.723951E-3	4.579424E-3	-4.033508E-3	3.201478E-3	2.684168E-3	-1.889625E-3	-3.399014E-3	-5.628105E-3	1.095506E-3	2.675352E-3	-3.704333E-3	-2.326473E-3	-3.710003E-3	-3.473982E-3	3.586546E-3	-6.914378E-3	-1.037398E-3	9.353292E-3	1.562107E-2	-5.235555E-3	-8.349084E-4	-3.248713E-3	4.704179E-3	-5.658537E-3	-2.316213E-3	-2.912330E-3	1.221054E-2	4.326265E-3	-2.597327E-3	-1.240193E-3	3.003586E-3	5.418828E-4	1.055427E-2	-2.092970E-3	8.941268E-3	1.316418E-2	-3.444898E-3	8.638685E-4	9.980255E-3	-1.280309E-3	1.865837E-3	-1.967958E-4	2.905769E-4	-2.682349E-5	6.037902E-3	-2.015802E-3	-5.089454E-3	5.177224E-5	3.577496E-3	-6.435948E-3	8.363708E-3	5.285623E-3	1.037189E-2	5.905754E-3	-3.568458E-3	1.052927E-2	-4.136296E-3	6.907326E-3	1.702646E-2	3.742409E-3	8.072940E-3	-1.966450E-3	1.709837E-2	-1.776883E-3	1.075506E-2	1.462321E-3	-4.740681E-3	-1.046895E-2	-9.748559E-3	2.711908E-3	4.486419E-4	6.304486E-3	-2.734906E-4	-3.986601E-4	-1.266523E-3	3.717087E-3	2.762561E-3	-1.471354E-3	5.410326E-3	2.784407E-3	-1.269473E-3	4.999694E-3	4.836822E-4	8.870974E-3	-8.352256E-3	-5.386026E-3	1.188116E-3	-7.044556E-3	3.506231E-3	3.072151E-3	-6.944868E-3	1.012590E-2
2.820040E+2	6.888121E-3	7.877116E-3	-2.732202E-3	6.801012E-3	9.049624E-3	1.533772E-3	-7.071202E-3	5.058505E-3	4.113145E-3	2.788873E-3	1.244099E-2	1.081767E-2	-6.802672E-3	-5.038895E-3	5.393660E-3	-6.932787E-4	1.985113E-3	-1.178169E-3	-8.503332E-4	7.894189E-3	8.179923E-3	-1.766381E-3	5.123795E-3	6.393815E-3	7.681894E-3	-4.340388E-3	6.709165E-3	-3.613083E-3	9.557797E-3	-9.117377E-3	4.279027E-4	7.716102E-3	1.228953E-2	2.582048E-3	7.868096E-3	-1.957939E-3	-1.016552E-3	5.820513E-3	2.233296E-3	1.100765E-2	7.775181E-3	7.537682E-4	5.339936E-3	6.222042E-3	4.926346E-3	2.991798E-3	8.752386E-3	5.817190E-3	4.468266E-3	9.600427E-3	2.713465E-3	2.418337E-3	1.064952E-2	1.488958E-2	2.589404E-3	7.507261E-3	7.616788E-3	-3.507295E-3	3.813963E-3	-1.132754E-2	1.319506E-3	-3.976341E-3	-2.689841E-3	4.867499E-3	2.497480E-4	1.257362E-2	4.893211E-3	8.049732E-4	2.912037E-3	9.139665E-4	8.334860E-4	9.055707E-3	6.195751E-4	1.141477E-2	-1.323106E-3	1.967266E-3	6.180360E-3	-2.788273E-3	5.459773E-3	1.397145E-3	-3.766711E-3	9.082882E-3	-2.434355E-3	5.527232E-3	9.307007E-3	2.043985E-2	2.534647E-4	1.289600E-3	4.743770E-3	6.241498E-3	3.439019E-3	6.237585E-3	-1.009480E-2	2.922518E-3	3.441317E-3	-3.084254E-3	6.081168E-3	6.090416E-3	5.868370E-3	-6.302067E-4	4.869260E-5	5.600281E-3	3.124083E-3	1.435354E-2	9.330509E-3	4.616968E-3	-6.869952E-3	1.089899E-2	4.139199E-3	1.505032E-3	-3.418884E-3	1.923463E-3	1.002556E-3	-4.970055E-3	3.879365E-3	9.175534E-3	1.946413E-3	3.833487E-4	8.161954E-3	-2.212800E-3	5.784317E-3	2.163718E-3	-1.430700E-3	-3.138508E-3	7.077986E-3	7.837027E-3	2.790418E-3	9.059998E-3	3.732543E-3	1.485126E-2	-1.670074E-3	7.018407E-3	9.265963E-3	5.074998E-3	-4.435864E-3	-3.180840E-3	1.000529E-2	2.593119E-3	1.470766E-3	-5.117392E-3	8.290206E-3	-2.115964E-3	1.362194E-2	2.878442E-3	8.189222E-4	-1.811299E-3	1.187466E-2	1.037562E-2	-2.598100E-3	4.685619E-3	1.272362E-2	3.613117E-3	1.269191E-2	9.726464E-3	3.113535E-3	4.623939E-3	-1.267343E-3	1.148325E-2	1.557271E-2	-1.038432E-3	9.217703E-3	1.071944E-2	4.917454E-3	6.018722E-3	1.458575E-2	2.161850E-3	5.778326E-3	1.205094E-2	3.476537E-4	-6.759028E-3	-1.927000E-3
2.825040E+2	3.842881E-3	1.228217E-3	1.160068E-2	5.917371E-3	1.493435E-2	-1.001649E-4	1.657526E-2	-1.938693E-4	1.318577E-2	2.298878E-2	4.826889E-3	-7.317019E-4	3.241733E-3	8.436844E-3	-2.375936E-4	6.549474E-3	-2.312254E-3	-2.103318E-3	2.130986E-2	2.940024E-3	3.879862E-3	9.539116E-3	4.082644E-4	1.700123E-2	1.378147E-2	9.913270E-3	1.649992E-2	9.361566E-3	8.759043E-3	8.101860E-3	5.606057E-3	9.864562E-3	4.327702E-3	1.658801E-2	4.613490E-3	3.733655E-3	1.767954E-2	9.334427E-3	8.496773E-3	1.098078E-2	3.379323E-3	1.512818E-3	1.048606E-2	9.450085E-3	1.068319E-2	1.424730E-3	1.663919E-2	1.416405E-2	-4.521133E-3	7.136545E-3	2.671636E-3	-2.522199E-4	7.284310E-4	1.208258E-2	1.551855E-2	2.405176E-3	1.158052E-2	3.732432E-3	1.180772E-3	9.499628E-3	8.700632E-3	4.617169E-3	1.375312E-2	5.622928E-3	9.329492E-3	3.995453E-4	-1.909822E-3	-5.120475E-3	2.878410E-3	2.062576E-2	5.618666E-3	5.127682E-3	1.333053E-2	9.777303E-3	5.722953E-3	9.854224E-3	6.992554E-3	1.734438E-2	6.226230E-3	9.918933E-3	1.231980E-2	9.041467E-3	1.408928E-2	5.489231E-3	2.986824E-3	8.197066E-3	6.630462E-3	1.011657E-2	-4.524472E-3	4.421586E-3	1.217234E-2	8.858475E-3	6.799621E-3	1.579915E-2	1.125597E-2	1.791720E-2	1.702164E-3	4.272359E-3	8.346321E-3	1.116881E-2	1.094854E-2	-1.975067E-3	1.176822E-2	1.286641E-2	1.019399E-2	-4.144741E-3	7.983327E-3	3.822256E-3	6.668222E-3	9.024172E-3	1.237002E-2	1.077019E-2	1.143493E-2	2.961895E-3	2.843949E-3	3.817065E-3	1.263293E-2	1.869201E-3	5.624223E-3	5.689809E-3	-3.901559E-3	1.128401E-2	1.324536E-2	1.019978E-2	6.145316E-3	2.129572E-2	1.523555E-2	6.798048E-3	1.547538E-2	5.856389E-4	8.173418E-3	2.466979E-3	6.895375E-3	6.584383E-3	1.587348E-2	1.063680E-2	-4.261733E-3	3.420646E-3	1.147443E-2	-3.882410E-4	2.076482E-2	1.291038E-2	-4.116574E-3	2.113461E-3	3.403479E-3	1.529070E-2	7.399534E-3	1.034664E-2	1.325284E-3	1.427479E-2	8.062875E-3	3.590477E-3	1.631243E-2	1.383607E-2	1.307017E-2	6.238577E-3	7.782430E-3	1.642218E-2	6.909754E-3	9.084451E-3	8.164671E-3	6.500267E-3	6.563607E-3	5.979891E-3	1.691178E-2	5.893869E-3	9.113441E-3	9.196271E-3	3.387630E-3	6.878476E-3	2.158770E-3
2.830060E+2	6.477679E-3	1.608201E-2	1.914764E-2	8.268319E-3	6.344844E-3	4.585309E-4	9.108325E-3	1.546178E-2	1.390816E-2	9.304204E-3	1.696515E-2	8.956832E-3	1.788807E-2	5.089802E-3	9.488015E-3	1.456975E-2	6.048353E-3	1.885318E-2	2.818104E-2	2.119443E-4	1.464882E-2	2.166623E-2	1.361079E-2	9.753676E-3	5.692187E-3	8.158304E-3	8.165507E-3	5.360909E-3	1.891453E-2	3.035964E-2	1.526552E-2	6.858369E-3	1.211643E-2	1.925407E-2	1.091685E-2	1.432470E-2	3.144539E-3	1.287018E-2	1.546272E-2	9.674556E-3	6.634226E-3	5.660660E-4	1.032401E-2	5.223983E-3	-1.922007E-3	6.664880E-3	1.254733E-2	1.183735E-2	2.148322E-2	1.285799E-3	7.431777E-3	1.272111E-2	8.033330E-3	2.121177E-2	1.411281E-2	6.637731E-3	6.214137E-3	-3.026036E-3	6.109582E-3	-7.731369E-4	3.756801E-3	2.190545E-2	1.449100E-2	7.877216E-3	5.389285E-3	-7.714783E-4	1.487045E-2	5.584709E-3	8.094026E-3	1.179288E-2	1.042220E-2	1.601269E-2	5.477367E-3	8.018123E-3	-3.192648E-3	1.053562E-2	2.432096E-3	1.154950E-2	2.759473E-3	1.693853E-2	1.009708E-2	1.399873E-2	1.384064E-2	9.609068E-3	1.947145E-2	8.839569E-3	1.449935E-2	1.523714E-2	3.470407E-3	1.578902E-2	1.124987E-2	4.096967E-3	1.421562E-2	1.301185E-2	2.301302E-2	9.593634E-3	1.979953E-2	1.289553E-2	5.636151E-3	1.741370E-2	8.442895E-3	9.203286E-3	8.793150E-3	1.806929E-2	1.542447E-2	1.826474E-2	3.251771E-3	1.066052E-2	1.415234E-2	1.804464E-2	1.552222E-2	2.128709E-4	1.308306E-2	7.164976E-3	1.421472E-2	8.261690E-4	1.668921E-2	3.245453E-3	5.527431E-3	7.832864E-3	2.080870E-2	1.620785E-2	1.157206E-2	1.255381E-2	1.672337E-2	1.587513E-2	1.020683E-2	8.317454E-3	1.685087E-3	5.809833E-3	1.802325E-2	1.333436E-2	1.230522E-2	2.748092E-2	6.401546E-3	7.004429E-3	1.266134E-4	1.370964E-2	1.053410E-2	9.096843E-3	1.494272E-2	1.278900E-2	6.810505E-3	1.251405E-2	2.809265E-2	1.487043E-3	1.890444E-3	1.814769E-2	1.711503E-2	9.385951E-3	1.030820E-2	7.979282E-3	1.713794E-2	1.205930E-2	6.233173E-3	1.520362E-2	5.712036E-3	3.818022E-3	1.078684E-2	3.511163E-3	1.995588E-2	7.159749E-3	1.407857E-2	7.522244E-3	2.176982E-2	-1.841711E-3	3.863702E-3	1.274632E-3	2.482877E-3	-8.614750E-3	1.526858E-2
2.835010E+2	2.994967E-2	1.454218E-2	9.449386E-3	1.867467E-2	3.253792E-2	1.440854E-2	2.456343E-2	2.270727E-2	2.056814E-2	1.111908E-2	1.652490E-2	1.751557E-2	2.612717E-2	2.565105E-2	1.759547E-2	3.138449E-2	9.597485E-3	1.637095E-2	1.798361E-2	3.303899E-2	1.723492E-2	3.683726E-2	2.352272E-2	2.178120E-2	3.100953E-2	1.560187E-2	1.337791E-2	2.358419E-2	1.828396E-2	3.588348E-2	1.321308E-2	1.981417E-2	3.230589E-2	1.361606E-2	2.349593E-2	2.134161E-2	3.741299E-2	8.751680E-3	1.572268E-2	7.236950E-3	3.089774E-2	1.306161E-2	2.207028E-2	1.211653E-2	1.429881E-2	1.550424E-2	1.843083E-2	2.942187E-2	1.348641E-2	1.461588E-2	2.198889E-2	2.462010E-2	2.605094E-2	2.669899E-2	2.563201E-2	1.650770E-2	1.448714E-2	3.527166E-2	2.750809E-2	1.297097E-2	1.814097E-2	2.473140E-2	1.720371E-2	2.277856E-2	2.799543E-2	1.703021E-2	1.594913E-2	3.948000E-2	1.456764E-2	1.282556E-2	1.568604E-2	2.196437E-2	2.051738E-2	1.802134E-2	1.623516E-2	1.700227E-2	2.468201E-2	3.583771E-2	2.508400E-2	6.892694E-3	2.677733E-2	2.298040E-2	1.795818E-2	2.419885E-2	2.957158E-2	2.318408E-2	2.957642E-2	2.541545E-2	1.678663E-2	1.504067E-2	2.130394E-2	1.870607E-2	2.745747E-2	2.822849E-2	2.580965E-2	2.846262E-2	1.472207E-2	1.844237E-2	1.353803E-2	3.551214E-2	1.985758E-2	1.483297E-2	2.392228E-2	3.011664E-2	2.424391E-2	3.659179E-2	1.677057E-2	2.384919E-2	1.441307E-2	2.519036E-2	4.743817E-2	2.457763E-2	2.000051E-2	1.828038E-2	2.618449E-2	3.284853E-2	2.552143E-2	1.433295E-2	1.590943E-2	9.541939E-3	2.808598E-2	2.068584E-2	2.105041E-2	2.414849E-2	2.882311E-2	2.433750E-2	1.209956E-2	1.781350E-2	1.651005E-2	2.598577E-2	2.456380E-2	2.841154E-2	2.697718E-2	9.655970E-3	2.908676E-2	2.755869E-2	2.930934E-2	1.832827E-2	1.412279E-2	1.831950E-2	1.266317E-2	4.713858E-3	3.035142E-2	1.814390E-2	8.595685E-3	1.994852E-2	1.275024E-2	1.570876E-2	1.981291E-2	1.369183E-2	1.604548E-2	1.351211E-2	1.543247E-2	2.416680E-2	1.486832E-2	2.895226E-2	2.256466E-2	4.630557E-4	1.827706E-2	2.056494E-2	2.726892E-2	2.608241E-2	2.992689E-2	2.143280E-2	2.384831E-2	3.226342E-2	2.734501E-2	5.968911E-3	2.563799E-2	3.434398E-2	4.181874E-2
2.840000E+2	4.378828E-2	5.195068E-2	4.062588E-2	4.255017E-2	7.216901E-2	5.563396E-2	6.232454E-2	5.129190E-2	5.895472E-2	5.906750E-2	5.578501E-2	7.036942E-2	5.486614E-2	7.226745E-2	6.647002E-2	3.811161E-2	6.175433E-2	5.533510E-2	5.313158E-2	4.901254E-2	5.106170E-2	6.210680E-2	5.504002E-2	4.961291E-2	4.981313E-2	4.413758E-2	4.028390E-2	5.933413E-2	4.344929E-2	5.968104E-2	5.175692E-2	4.778870E-2	4.573681E-2	4.612878E-2	3.649213E-2	5.352657E-2	4.566738E-2	4.770712E-2	5.416695E-2	4.862191E-2	5.142901E-2	3.943752E-2	5.968776E-2	3.641528E-2	7.465061E-2	4.565958E-2	5.946404E-2	5.481613E-2	5.031806E-2	5.294844E-2	5.523743E-2	5.438753E-2	4.122494E-2	4.547346E-2	7.538472E-2	4.577066E-2	4.625549E-2	4.945517E-2	4.874658E-2	5.962226E-2	5.346528E-2	4.657331E-2	4.471129E-2	6.237406E-2	6.190864E-2	5.454798E-2	5.610809E-2	5.779320E-2	6.336190E-2	5.178399E-2	4.782609E-2	4.527935E-2	4.857210E-2	7.277643E-2	5.535584E-2	6.438684E-2	5.216871E-2	4.403031E-2	5.326403E-2	4.957910E-2	5.296188E-2	7.579502E-2	5.494103E-2	4.955404E-2	7.220884E-2	4.284316E-2	4.143621E-2	5.222078E-2	4.607534E-2	5.154486E-2	6.686700E-2	6.366878E-2	4.479774E-2	3.491596E-2	5.173950E-2	5.351266E-2	6.328572E-2	6.327984E-2	4.108793E-2	4.561110E-2	5.467228E-2	3.176541E-2	5.398134E-2	4.731299E-2	4.894331E-2	6.457322E-2	5.736462E-2	6.621532E-2	3.619641E-2	4.314227E-2	5.175226E-2	4.836557E-2	5.404216E-2	5.672775E-2	4.254809E-2	3.427490E-2	5.276321E-2	4.493459E-2	3.539773E-2	5.142908E-2	7.081416E-2	5.589965E-2	6.177272E-2	4.027592E-2	4.412094E-2	5.400595E-2	5.778182E-2	4.642934E-2	6.238344E-2	3.932087E-2	7.383872E-2	4.962432E-2	5.198181E-2	5.096761E-2	4.494438E-2	4.194731E-2	5.354947E-2	6.221335E-2	4.946324E-2	6.284124E-2	5.588303E-2	4.751563E-2	6.091639E-2	5.824828E-2	6.658601E-2	5.521907E-2	4.264807E-2	6.590626E-2	6.326464E-2	4.679494E-2	6.171749E-2	4.447051E-2	5.898225E-2	6.207621E-2	5.440723E-2	4.662363E-2	6.959343E-2	5.635002E-2	6.391449E-2	4.724596E-2	5.784313E-2	3.781892E-2	5.605514E-2	5.074761E-2	5.249181E-2	6.048769E-2	5.076975E-2	4.258896E-2	6.740777E-2	4.053905E-2	5.633402E-2
2.841030E+2	6.316622E-2	7.017234E-2	6.548903E-2	5.637316E-2	7.221150E-2	6.485695E-2	7.111113E-2	6.791892E-2	7.776437E-2	7.609694E-2	7.192946E-2	7.306033E-2	8.079966E-2	7.232578E-2	7.422950E-2	7.451719E-2	6.778344E-2	5.455524E-2	6.194780E-2	7.149059E-2	6.298011E-2	6.548839E-2	6.244281E-2	6.967329E-2	8.072901E-2	6.096613E-2	7.670657E-2	7.244599E-2	6.874599E-2	6.051465E-2	6.133052E-2	6.345631E-2	6.818369E-2	5.118707E-2	7.292217E-2	6.132923E-2	6.013253E-2	7.210003E-2	5.864387E-2	7.398848E-2	6.943216E-2	6.657621E-2	7.065703E-2	5.004592E-2	9.193418E-2	5.869471E-2	8.141189E-2	5.726731E-2	6.294342E-2	6.578160E-2	6.915151E-2	6.250600E-2	5.188672E-2	5.360377E-2	6.812406E-2	7.199842E-2	7.135506E-2	6.741120E-2	7.053626E-2	6.401865E-2	7.092617E-2	6.814230E-2	5.871696E-2	5.477709E-2	7.234998E-2	7.466105E-2	6.853152E-2	6.750591E-2	5.625483E-2	7.153984E-2	7.796245E-2	5.173858E-2	6.829659E-2	6.531120E-2	6.202046E-2	7.743247E-2	5.557423E-2	6.092195E-2	9.161426E-2	5.861511E-2	7.373194E-2	6.012807E-2	5.864686E-2	9.074824E-2	8.752520E-2	6.381264E-2	6.415557E-2	7.581375E-2	5.644758E-2	7.297560E-2	8.226689E-2	7.770738E-2	7.148363E-2	6.647517E-2	7.081398E-2	6.077011E-2	7.891317E-2	6.212164E-2	6.044510E-2	6.753860E-2	6.043156E-2	6.457096E-2	7.031809E-2	7.460878E-2	5.640341E-2	5.885071E-2	6.923706E-2	5.553627E-2	8.701648E-2	7.317693E-2	8.527684E-2	6.409870E-2	5.659899E-2	8.581191E-2	6.232605E-2	7.530289E-2	6.923897E-2	6.745218E-2	6.258845E-2	8.222473E-2	7.374878E-2	7.787957E-2	5.476391E-2	7.356625E-2	6.259353E-2	5.140663E-2	5.770183E-2	7.265126E-2	7.282226E-2	5.489792E-2	7.948528E-2	7.722124E-2	6.098403E-2	6.310725E-2	6.501764E-2	7.532577E-2	5.511402E-2	4.819866E-2	5.990878E-2	4.516779E-2	7.362376E-2	5.563915E-2	5.543993E-2	7.100264E-2	6.091888E-2	6.448589E-2	6.672853E-2	8.803364E-2	8.350916E-2	8.090064E-2	6.423354E-2	7.008658E-2	5.967122E-2	7.915596E-2	7.461596E-2	8.931092E-2	5.394639E-2	5.107464E-2	6.564249E-2	7.463742E-2	6.369427E-2	7.662311E-2	6.575932E-2	5.675936E-2	6.504507E-2	7.267516E-2	6.671529E-2	8.233134E-2	6.757101E-2	5.687277E-2	7.546416E-2
2.842040E+2	6.774815E-2	6.261295E-2	7.301741E-2	7.990395E-2	6.624979E-2	7.803912E-2	7.468647E-2	6.433347E-2	6.782635E-2	6.925777E-2	9.017432E-2	6.817949E-2	8.749944E-2	7.873890E-2	8.139518E-2	7.259254E-2	6.089986E-2	5.770737E-2	8.334479E-2	7.539116E-2	6.852886E-2	8.939797E-2	8.535710E-2	6.654916E-2	7.845495E-2	7.332167E-2	6.308278E-2	5.645321E-2	6.503359E-2	8.163906E-2	8.891750E-2	7.722123E-2	6.714918E-2	7.800280E-2	8.022190E-2	6.788432E-2	7.457093E-2	8.706847E-2	7.175585E-2	5.491488E-2	8.707428E-2	5.979395E-2	6.094615E-2	6.981073E-2	7.285579E-2	7.512079E-2	8.629420E-2	8.160710E-2	4.427934E-2	5.044450E-2	7.228468E-2	7.052902E-2	8.081071E-2	5.939881E-2	7.708021E-2	6.704158E-2	8.770898E-2	6.964355E-2	7.930956E-2	7.789969E-2	6.791247E-2	7.306134E-2	7.852317E-2	7.138098E-2	9.488515E-2	7.252296E-2	8.164647E-2	6.974585E-2	6.260891E-2	6.768933E-2	7.477721E-2	7.217473E-2	8.143325E-2	8.031125E-2	7.931666E-2	8.262497E-2	9.465201E-2	7.603834E-2	8.524769E-2	6.401614E-2	8.023851E-2	6.605193E-2	6.946392E-2	8.549649E-2	6.863794E-2	7.161715E-2	6.919308E-2	8.183519E-2	8.845665E-2	4.773588E-2	6.993676E-2	9.434142E-2	7.462885E-2	8.903720E-2	8.553870E-2	7.649398E-2	6.354065E-2	7.486992E-2	9.238595E-2	6.503476E-2	8.431286E-2	6.673719E-2	5.847985E-2	9.296482E-2	6.672723E-2	5.082221E-2	8.092341E-2	7.437372E-2	8.471824E-2	9.072098E-2	6.524334E-2	8.439075E-2	9.461021E-2	7.581403E-2	7.387203E-2	9.378723E-2	5.456563E-2	6.135251E-2	5.570478E-2	9.119570E-2	5.359894E-2	6.491159E-2	8.138581E-2	6.556517E-2	6.676901E-2	8.241040E-2	7.503273E-2	5.634015E-2	6.644541E-2	6.763716E-2	6.642966E-2	5.329426E-2	7.054497E-2	7.997716E-2	7.244216E-2	7.423498E-2	8.995148E-2	6.707458E-2	6.834093E-2	8.462219E-2	7.496362E-2	7.025199E-2	7.027080E-2	7.702744E-2	7.724621E-2	5.807311E-2	8.608121E-2	8.846313E-2	7.379783E-2	9.168796E-2	8.448592E-2	8.460900E-2	7.381041E-2	9.745965E-2	5.096474E-2	5.806083E-2	6.988507E-2	8.266343E-2	7.026416E-2	7.593454E-2	9.181636E-2	8.513580E-2	7.518551E-2	7.683715E-2	8.491906E-2	8.042213E-2	1.005435E-1	7.674729E-2	6.302681E-2	4.755321E-2	4.065395E-2
2.843030E+2	8.962215E-2	6.578412E-2	6.105511E-2	8.513933E-2	8.882055E-2	8.047865E-2	7.943960E-2	8.434322E-2	6.258074E-2	6.520904E-2	7.058002E-2	6.962151E-2	7.798343E-2	6.989720E-2	7.917275E-2	6.699214E-2	6.555602E-2	8.197546E-2	6.734235E-2	7.159012E-2	6.706417E-2	7.628871E-2	7.435335E-2	7.528386E-2	5.880524E-2	7.825579E-2	8.140921E-2	7.768514E-2	8.363073E-2	6.516852E-2	7.847042E-2	9.151864E-2	8.560839E-2	6.520890E-2	7.660302E-2	8.449516E-2	8.202391E-2	8.412502E-2	8.002696E-2	6.505039E-2	6.448484E-2	6.909190E-2	7.925820E-2	6.958292E-2	7.589368E-2	6.826218E-2	8.105407E-2	9.572809E-2	7.338956E-2	7.106608E-2	8.991602E-2	9.104266E-2	6.650702E-2	7.585873E-2	8.103853E-2	7.557505E-2	7.295239E-2	6.421667E-2	9.499435E-2	7.592684E-2	7.113655E-2	7.775931E-2	7.851482E-2	6.956502E-2	7.291276E-2	8.295966E-2	6.861358E-2	9.505268E-2	6.938551E-2	5.961806E-2	7.711330E-2	7.458014E-2	6.632519E-2	8.416399E-2	7.846790E-2	7.483837E-2	6.588181E-2	7.881046E-2	6.615429E-2	7.330908E-2	8.190226E-2	7.572064E-2	8.798001E-2	7.856359E-2	8.103126E-2	5.762796E-2	6.998107E-2	7.309768E-2	7.827774E-2	7.707397E-2	7.061307E-2	7.113730E-2	8.387221E-2	8.928301E-2	7.363352E-2	7.656422E-2	6.627141E-2	8.641585E-2	9.706081E-2	8.238267E-2	8.354349E-2	7.246173E-2	9.751526E-2	6.701294E-2	7.413665E-2	7.197780E-2	9.209270E-2	6.324726E-2	8.549239E-2	6.422366E-2	9.095264E-2	6.515823E-2	9.729520E-2	8.120240E-2	9.005747E-2	6.772832E-2	9.432703E-2	6.608602E-2	7.704495E-2	8.989028E-2	8.834158E-2	1.006640E-1	6.443756E-2	6.788707E-2	7.303446E-2	8.415051E-2	7.575345E-2	6.421220E-2	8.268346E-2	6.624153E-2	7.856439E-2	6.538438E-2	8.475033E-2	8.492908E-2	7.401630E-2	7.507163E-2	8.143115E-2	7.982124E-2	8.707730E-2	6.830440E-2	7.025529E-2	8.142044E-2	7.181034E-2	8.672654E-2	8.934170E-2	6.140108E-2	7.243004E-2	6.856985E-2	9.765622E-2	6.910288E-2	8.365250E-2	8.243030E-2	8.933772E-2	7.668571E-2	7.390188E-2	6.385150E-2	7.928764E-2	8.892687E-2	7.691813E-2	7.675397E-2	8.494683E-2	8.316486E-2	8.226578E-2	7.212453E-2	6.953510E-2	6.815406E-2	7.502704E-2	8.040802E-2	8.286825E-2	7.114163E-2	8.642337E-2
2.844010E+2	9.339906E-2	1.012877E-1	9.695675E-2	1.029414E-1	1.023533E-1	9.055995E-2	8.240027E-2	8.410742E-2	1.271558E-1	8.039446E-2	9.418588E-2	1.130850E-1	9.124797E-2	1.088582E-1	9.653377E-2	1.000724E-1	9.570433E-2	1.180365E-1	1.013239E-1	1.059881E-1	8.776704E-2	8.836941E-2	1.130986E-1	1.027463E-1	1.037402E-1	9.872272E-2	1.034255E-1	1.233133E-1	1.021862E-1	1.018930E-1	9.363930E-2	1.152660E-1	1.008225E-1	1.068624E-1	9.288498E-2	1.020479E-1	1.115355E-1	1.056512E-1	9.506651E-2	9.503326E-2	1.044837E-1	9.943918E-2	1.156967E-1	1.085177E-1	9.946713E-2	9.919444E-2	1.084252E-1	1.088567E-1	1.110342E-1	9.366970E-2	1.049073E-1	8.397743E-2	1.100690E-1	9.625077E-2	9.574841E-2	9.114380E-2	1.037576E-1	8.591727E-2	8.897998E-2	1.101454E-1	9.869892E-2	1.024244E-1	1.064822E-1	1.220763E-1	7.698835E-2	9.772342E-2	1.041251E-1	9.931780E-2	8.979757E-2	1.174461E-1	1.271968E-1	9.380212E-2	9.907947E-2	1.337117E-1	1.030494E-1	1.013067E-1	9.787116E-2	1.087715E-1	1.305978E-1	8.915535E-2	1.057620E-1	1.227327E-1	1.034100E-1	1.284686E-1	1.077911E-1	1.048431E-1	1.109320E-1	1.131173E-1	9.112803E-2	1.286798E-1	9.205693E-2	9.886121E-2	9.712864E-2	1.157682E-1	9.826052E-2	9.784659E-2	1.102573E-1	1.183153E-1	8.215009E-2	9.307032E-2	1.049275E-1	1.139834E-1	9.570855E-2	9.301050E-2	1.313461E-1	1.239066E-1	1.031704E-1	9.704972E-2	1.016675E-1	1.042570E-1	1.052002E-1	8.912391E-2	9.124789E-2	1.090352E-1	1.052938E-1	9.629909E-2	9.556383E-2	9.735011E-2	8.308811E-2	9.844082E-2	9.199040E-2	9.316696E-2	1.148886E-1	1.053481E-1	8.130510E-2	8.652157E-2	1.090172E-1	7.532993E-2	8.225772E-2	9.293326E-2	9.086886E-2	1.112949E-1	1.142703E-1	1.258443E-1	1.087281E-1	7.806377E-2	1.047149E-1	9.552371E-2	9.224917E-2	8.789068E-2	9.903622E-2	8.973717E-2	1.018403E-1	9.949950E-2	1.061865E-1	9.338651E-2	1.193554E-1	1.078258E-1	1.224633E-1	9.593386E-2	1.002640E-1	9.419916E-2	8.894769E-2	9.905734E-2	1.080387E-1	9.665967E-2	1.055929E-1	1.031980E-1	1.014405E-1	8.843243E-2	1.104892E-1	1.248496E-1	1.058250E-1	9.091906E-2	9.419969E-2	1.081282E-1	9.120710E-2	9.649398E-2	8.009417E-2	1.066323E-1	1.004794E-1
2.845030E+2	1.535005E-1	1.784753E-1	1.990062E-1	1.545137E-1	1.466520E-1	1.730672E-1	1.598772E-1	1.514708E-1	1.700797E-1	1.649115E-1	1.535662E-1	1.568550E-1	1.747333E-1	1.682565E-1	2.091911E-1	1.573149E-1	1.566467E-1	1.870920E-1	1.915889E-1	1.800273E-1	1.874515E-1	1.942154E-1	1.887705E-1	1.836773E-1	1.891885E-1	1.837540E-1	1.973793E-1	1.743028E-1	1.785411E-1	1.943871E-1	1.750931E-1	1.808312E-1	1.978885E-1	2.066897E-1	2.032785E-1	1.753388E-1	1.882170E-1	1.686358E-1	1.860778E-1	1.814839E-1	1.988127E-1	1.960469E-1	1.646943E-1	2.060192E-1	2.119364E-1	1.940263E-1	1.724823E-1	2.032495E-1	1.655263E-1	1.714670E-1	1.795888E-1	1.966594E-1	1.598866E-1	1.923177E-1	1.792423E-1	1.863572E-1	1.882572E-1	1.823040E-1	1.755838E-1	1.738506E-1	1.790680E-1	1.826531E-1	2.095005E-1	1.706209E-1	1.805615E-1	1.944231E-1	2.000456E-1	1.902138E-1	1.663072E-1	2.034154E-1	1.723875E-1	1.754619E-1	1.844791E-1	1.765730E-1	1.691779E-1	1.790934E-1	1.985861E-1	1.924547E-1	1.779176E-1	2.186725E-1	1.794989E-1	1.995268E-1	1.850357E-1	1.748169E-1	1.944967E-1	1.934927E-1	1.849822E-1	1.923070E-1	1.474971E-1	1.772358E-1	1.878823E-1	1.899633E-1	1.843261E-1	1.841550E-1	1.659861E-1	1.817918E-1	1.925929E-1	1.699453E-1	1.976645E-1	1.585146E-1	2.045066E-1	1.820264E-1	1.857305E-1	1.883828E-1	1.643424E-1	1.738509E-1	1.835035E-1	1.612320E-1	1.569073E-1	2.116890E-1	1.595149E-1	1.928978E-1	1.546725E-1	1.861060E-1	1.957668E-1	1.883513E-1	1.832347E-1	1.732641E-1	1.635918E-1	1.774271E-1	1.772966E-1	1.709146E-1	1.711753E-1	1.863489E-1	1.709210E-1	1.613522E-1	1.627185E-1	1.831640E-1	1.478992E-1	1.799237E-1	1.875959E-1	1.765065E-1	1.635090E-1	2.019012E-1	1.636250E-1	1.794581E-1	1.796637E-1	1.710638E-1	1.982151E-1	1.641151E-1	1.846991E-1	1.892854E-1	1.736019E-1	2.010001E-1	1.987714E-1	1.817927E-1	1.829472E-1	1.691260E-1	1.777035E-1	1.898427E-1	1.762158E-1	1.627471E-1	1.850062E-1	1.818307E-1	2.025969E-1	1.837676E-1	2.076552E-1	1.658551E-1	1.673556E-1	1.823511E-1	1.656253E-1	1.897339E-1	1.821280E-1	1.839728E-1	1.622704E-1	1.863840E-1	1.683997E-1	1.821504E-1	1.767688E-1	1.774911E-1	1.551217E-1
2.846030E+2	3.459850E-1	3.246973E-1	3.019232E-1	3.038158E-1	3.369572E-1	2.986711E-1	3.273972E-1	3.001850E-1	3.081745E-1	3.639547E-1	3.247438E-1	3.269608E-1	3.153165E-1	2.848453E-1	3.080370E-1	3.392627E-1	3.116909E-1	3.471973E-1	3.318455E-1	3.289502E-1	3.242930E-1	3.207116E-1	3.584269E-1	3.403502E-1	3.649397E-1	3.506608E-1	3.604644E-1	3.392773E-1	3.660931E-1	3.402883E-1	3.672800E-1	3.540608E-1	3.350873E-1	3.512842E-1	3.638998E-1	3.527033E-1	3.428704E-1	3.694884E-1	3.318033E-1	3.305483E-1	3.712022E-1	3.704311E-1	3.738602E-1	3.754500E-1	3.599010E-1	3.844361E-1	3.609656E-1	3.606834E-1	3.586129E-1	3.567904E-1	3.562868E-1	3.599882E-1	3.129292E-1	3.252600E-1	3.524530E-1	3.182617E-1	3.486137E-1	3.255002E-1	3.565961E-1	3.692280E-1	3.624186E-1	3.626328E-1	3.696064E-1	3.602496E-1	3.460072E-1	3.315995E-1	3.569256E-1	3.258440E-1	3.455283E-1	3.550570E-1	3.636901E-1	3.227151E-1	3.489261E-1	3.377101E-1	3.430846E-1	3.150383E-1	3.655734E-1	3.384664E-1	3.589513E-1	3.259651E-1	3.528259E-1	3.338215E-1	3.727570E-1	3.834056E-1	3.259107E-1	3.476919E-1	3.247971E-1	3.355829E-1	3.469471E-1	3.355900E-1	3.369779E-1	3.793319E-1	3.344144E-1	3.302214E-1	3.117640E-1	3.686086E-1	3.423766E-1	3.457374E-1	3.239109E-1	3.533882E-1	3.275168E-1	3.082331E-1	3.114246E-1	3.568707E-1	3.080848E-1	3.387493E-1	3.332134E-1	3.238733E-1	3.357704E-1	3.624388E-1	3.192028E-1	3.177081E-1	3.170701E-1	3.186027E-1	3.433479E-1	3.449997E-1	3.168938E-1	3.223566E-1	3.329780E-1	3.302127E-1	3.625668E-1	3.226355E-1	2.994297E-1	3.084719E-1	3.473488E-1	3.366304E-1	3.154629E-1	3.372580E-1	3.436936E-1	3.203338E-1	3.688040E-1	3.343935E-1	3.288690E-1	3.191707E-1	3.287130E-1	3.647912E-1	3.148208E-1	3.150414E-1	3.103531E-1	3.090946E-1	3.274329E-1	3.690205E-1	3.406193E-1	3.400948E-1	3.134976E-1	3.229390E-1	3.150154E-1	3.335836E-1	3.343837E-1	3.383659E-1	3.077935E-1	3.300021E-1	3.246552E-1	3.347810E-1	3.398019E-1	3.676001E-1	3.467417E-1	3.515709E-1	3.260685E-1	3.382110E-1	3.227869E-1	3.047594E-1	3.467921E-1	3.355077E-1	3.598611E-1	2.991695E-1	3.246372E-1	3.125529E-1	3.834622E-1	3.066865E-1	2.847476E-1
2.847020E+2	6.658729E-1	6.212003E-1	6.321518E-1	6.462707E-1	6.581287E-1	6.591629E-1	6.172802E-1	6.191237E-1	6.161714E-1	6.049482E-1	6.487966E-1	6.313966E-1	6.334707E-1	6.608837E-1	6.401877E-1	6.361067E-1	6.319356E-1	6.123465E-1	6.577162E-1	6.431608E-1	6.234238E-1	6.810610E-1	7.392740E-1	7.607020E-1	7.214877E-1	7.272517E-1	7.214896E-1	7.121247E-1	7.261512E-1	7.430560E-1	7.148667E-1	6.981770E-1	6.936349E-1	6.825416E-1	7.545215E-1	7.453645E-1	7.232058E-1	6.972951E-1	7.245239E-1	7.321376E-1	7.381161E-1	7.104789E-1	6.854779E-1	6.945677E-1	7.267528E-1	7.506380E-1	7.307417E-1	7.412746E-1	6.925809E-1	7.433716E-1	7.114598E-1	7.233310E-1	7.191159E-1	7.033284E-1	7.115579E-1	6.985793E-1	6.954598E-1	6.610870E-1	7.036720E-1	7.036959E-1	6.935414E-1	6.881017E-1	7.018108E-1	7.138034E-1	7.265099E-1	7.067548E-1	7.030480E-1	7.012979E-1	6.720175E-1	6.832642E-1	6.304942E-1	7.100658E-1	7.071889E-1	6.802641E-1	6.864556E-1	6.926355E-1	7.124948E-1	7.104070E-1	6.764536E-1	6.678557E-1	7.028641E-1	6.716874E-1	6.887465E-1	6.901638E-1	7.034810E-1	6.722966E-1	6.516034E-1	7.292486E-1	7.017444E-1	7.041259E-1	6.630249E-1	6.815460E-1	6.728014E-1	7.256976E-1	6.764541E-1	6.714516E-1	6.727192E-1	6.682976E-1	7.320762E-1	7.409012E-1	6.721913E-1	6.871727E-1	6.777924E-1	6.950301E-1	7.366977E-1	7.307387E-1	7.103713E-1	6.351020E-1	6.804585E-1	6.711541E-1	6.770426E-1	6.651165E-1	6.611965E-1	7.100700E-1	6.987072E-1	6.929656E-1	6.758907E-1	6.314093E-1	6.947464E-1	6.544569E-1	7.213699E-1	7.404157E-1	6.981661E-1	6.195656E-1	6.528738E-1	6.619633E-1	6.931743E-1	7.247805E-1	6.863092E-1	6.739729E-1	7.148675E-1	6.849696E-1	6.476682E-1	7.114999E-1	6.474277E-1	7.032346E-1	7.001363E-1	6.881852E-1	6.222632E-1	6.718229E-1	6.852510E-1	6.638150E-1	7.329321E-1	6.461738E-1	6.565889E-1	6.706492E-1	7.153670E-1	6.967140E-1	6.775135E-1	7.043061E-1	6.726108E-1	6.762013E-1	6.639522E-1	6.793581E-1	6.628584E-1	7.025501E-1	6.638562E-1	6.616309E-1	6.883938E-1	7.013622E-1	6.910531E-1	6.473936E-1	6.801558E-1	6.834503E-1	6.906743E-1	6.190963E-1	6.693351E-1	7.390398E-1	6.987911E-1	6.166818E-1	5.660206E-1
2.848000E+2	1.172676E+0	1.173276E+0	1.197732E+0	1.159012E+0	1.178787E+0	1.174617E+0	1.132618E+0	1.188804E+0	1.227460E+0	1.173376E+0	1.172454E+0	1.219159E+0	1.159174E+0	1.217489E+0	1.171735E+0	1.202622E+0	1.155459E+0	1.127621E+0	1.288129E+0	1.169547E+0	1.163903E+0	1.216394E+0	1.243146E+0	1.200339E+0	1.240144E+0	1.205770E+0	1.260719E+0	1.202495E+0	1.221126E+0	1.235245E+0	1.235642E+0	1.217151E+0	1.217972E+0	1.218753E+0	1.198102E+0	1.284521E+0	1.239898E+0	1.191488E+0	1.194315E+0	1.231735E+0	1.210702E+0	1.256594E+0	1.199039E+0	1.247568E+0	1.247753E+0	1.249595E+0	1.245272E+0	1.230097E+0	1.207283E+0	1.233804E+0	1.216511E+0	1.221447E+0	1.259774E+0	1.244688E+0	1.184997E+0	1.215617E+0	1.261010E+0	1.261241E+0	1.213147E+0	1.210137E+0	1.182066E+0	1.225706E+0	1.282430E+0	1.214795E+0	1.169007E+0	1.226121E+0	1.247666E+0	1.254711E+0	1.200454E+0	1.189513E+0	1.184595E+0	1.223070E+0	1.270879E+0	1.203939E+0	1.240119E+0	1.179095E+0	1.241992E+0	1.202624E+0	1.189897E+0	1.184543E+0	1.199357E+0	1.247894E+0	1.252729E+0	1.218624E+0	1.218904E+0	1.161543E+0	1.168513E+0	1.184239E+0	1.205043E+0	1.210572E+0	1.277289E+0	1.202844E+0	1.234309E+0	1.258097E+0	1.256488E+0	1.185013E+0	1.186373E+0	1.221287E+0	1.225129E+0	1.229022E+0	1.227374E+0	1.206639E+0	1.196145E+0	1.217695E+0	1.194675E+0	1.210057E+0	1.209014E+0	1.190675E+0	1.192735E+0	1.232859E+0	1.202241E+0	1.187714E+0	1.156707E+0	1.222354E+0	1.291919E+0	1.197950E+0	1.188318E+0	1.165362E+0	1.099951E+0	1.150068E+0	1.253661E+0	1.199123E+0	1.199328E+0	1.224953E+0	1.201631E+0	1.207916E+0	1.219051E+0	1.232655E+0	1.219725E+0	1.179627E+0	1.161300E+0	1.229034E+0	1.242249E+0	1.165329E+0	1.188752E+0	1.263158E+0	1.225777E+0	1.179876E+0	1.206681E+0	1.189054E+0	1.205486E+0	1.188650E+0	1.226851E+0	1.170638E+0	1.169913E+0	1.192366E+0	1.215260E+0	1.215611E+0	1.207483E+0	1.215318E+0	1.187015E+0	1.188344E+0	1.259130E+0	1.192372E+0	1.224733E+0	1.264410E+0	1.225403E+0	1.156027E+0	1.199676E+0	1.194818E+0	1.177161E+0	1.206765E+0	1.190810E+0	1.225072E+0	1.225880E+0	1.130441E+0	1.129808E+0	1.208568E+0	1.219359E+0	1.139390E+0	1.124935E+0
2.849010E+2	1.486425E+0	1.502923E+0	1.460684E+0	1.534506E+0	1.455021E+0	1.495413E+0	1.469923E+0	1.538203E+0	1.549582E+0	1.471142E+0	1.606986E+0	1.522439E+0	1.511983E+0	1.573925E+0	1.446671E+0	1.471086E+0	1.533127E+0	1.535081E+0	1.565309E+0	1.483894E+0	1.508590E+0	1.602728E+0	1.540312E+0	1.543743E+0	1.559631E+0	1.513211E+0	1.497527E+0	1.432945E+0	1.578692E+0	1.572451E+0	1.560366E+0	1.505376E+0	1.484730E+0	1.521691E+0	1.531935E+0	1.489291E+0	1.513458E+0	1.505373E+0	1.569437E+0	1.486195E+0	1.540954E+0	1.616131E+0	1.572473E+0	1.588154E+0	1.518118E+0	1.500911E+0	1.578091E+0	1.546482E+0	1.547284E+0	1.525319E+0	1.508521E+0	1.522648E+0	1.498035E+0	1.496406E+0	1.489992E+0	1.481012E+0	1.582035E+0	1.612663E+0	1.545520E+0	1.524132E+0	1.428479E+0	1.621941E+0	1.562394E+0	1.507770E+0	1.477165E+0	1.535645E+0	1.478612E+0	1.539624E+0	1.434112E+0	1.467237E+0	1.510966E+0	1.508672E+0	1.531401E+0	1.536625E+0	1.559911E+0	1.582771E+0	1.511801E+0	1.605187E+0	1.516243E+0	1.564404E+0	1.497783E+0	1.521926E+0	1.655352E+0	1.500484E+0	1.544887E+0	1.473352E+0	1.471072E+0	1.592060E+0	1.535340E+0	1.583724E+0	1.405392E+0	1.482281E+0	1.537522E+0	1.508673E+0	1.481847E+0	1.421122E+0	1.509190E+0	1.471001E+0	1.510444E+0	1.529457E+0	1.546420E+0	1.491107E+0	1.526685E+0	1.555326E+0	1.589640E+0	1.531365E+0	1.461123E+0	1.512122E+0	1.564828E+0	1.502672E+0	1.525334E+0	1.484829E+0	1.516351E+0	1.538589E+0	1.445278E+0	1.514333E+0	1.580079E+0	1.510999E+0	1.496839E+0	1.554562E+0	1.516958E+0	1.533742E+0	1.500497E+0	1.584835E+0	1.529527E+0	1.564576E+0	1.496333E+0	1.526294E+0	1.530080E+0	1.540156E+0	1.604034E+0	1.497831E+0	1.447289E+0	1.445334E+0	1.545836E+0	1.513136E+0	1.558208E+0	1.446141E+0	1.483392E+0	1.541541E+0	1.539887E+0	1.447326E+0	1.473042E+0	1.538206E+0	1.568433E+0	1.505352E+0	1.490399E+0	1.497191E+0	1.528121E+0	1.517234E+0	1.469983E+0	1.518110E+0	1.489212E+0	1.489844E+0	1.477644E+0	1.507472E+0	1.535589E+0	1.564928E+0	1.516690E+0	1.616149E+0	1.511513E+0	1.564224E+0	1.558746E+0	1.558085E+0	1.515038E+0	1.409281E+0	1.500892E+0	1.482444E+0	1.549130E+0	1.494146E+0	1.492709E+0
2.850010E+2	1.560626E+0	1.503869E+0	1.575406E+0	1.614285E+0	1.501219E+0	1.543931E+0	1.547743E+0	1.546059E+0	1.626325E+0	1.468675E+0	1.582244E+0	1.522686E+0	1.507606E+0	1.629098E+0	1.476373E+0	1.562385E+0	1.532302E+0	1.552241E+0	1.620634E+0	1.505016E+0	1.518907E+0	1.559310E+0	1.549247E+0	1.477910E+0	1.541946E+0	1.495251E+0	1.499594E+0	1.452817E+0	1.519455E+0	1.541758E+0	1.593710E+0	1.554188E+0	1.467658E+0	1.582584E+0	1.521429E+0	1.480514E+0	1.559898E+0	1.540371E+0	1.554382E+0	1.587130E+0	1.478226E+0	1.602502E+0	1.572737E+0	1.524991E+0	1.565517E+0	1.527710E+0	1.491663E+0	1.522307E+0	1.493019E+0	1.552826E+0	1.509578E+0	1.527567E+0	1.549874E+0	1.461824E+0	1.486494E+0	1.488623E+0	1.588243E+0	1.561319E+0	1.512260E+0	1.602716E+0	1.494725E+0	1.529419E+0	1.591487E+0	1.573892E+0	1.484661E+0	1.452952E+0	1.627353E+0	1.553761E+0	1.583091E+0	1.496950E+0	1.560203E+0	1.571789E+0	1.535952E+0	1.494742E+0	1.539188E+0	1.550618E+0	1.527660E+0	1.573820E+0	1.660489E+0	1.554441E+0	1.523022E+0	1.506615E+0	1.446620E+0	1.444610E+0	1.554340E+0	1.543098E+0	1.559859E+0	1.573585E+0	1.494551E+0	1.525567E+0	1.509803E+0	1.520798E+0	1.524898E+0	1.485696E+0	1.452552E+0	1.510712E+0	1.537061E+0	1.424504E+0	1.480913E+0	1.570828E+0	1.517217E+0	1.482965E+0	1.555848E+0	1.623257E+0	1.566548E+0	1.541600E+0	1.558060E+0	1.534741E+0	1.482651E+0	1.643348E+0	1.530049E+0	1.527647E+0	1.550246E+0	1.603098E+0	1.629064E+0	1.585597E+0	1.534085E+0	1.486599E+0	1.556095E+0	1.532310E+0	1.525535E+0	1.522365E+0	1.529059E+0	1.583931E+0	1.543945E+0	1.533951E+0	1.553310E+0	1.589913E+0	1.499313E+0	1.519313E+0	1.578354E+0	1.497194E+0	1.514526E+0	1.490417E+0	1.524838E+0	1.542269E+0	1.530868E+0	1.562226E+0	1.541264E+0	1.604627E+0	1.498017E+0	1.537906E+0	1.584074E+0	1.552030E+0	1.479047E+0	1.571769E+0	1.515626E+0	1.638981E+0	1.575693E+0	1.527528E+0	1.557886E+0	1.564210E+0	1.616031E+0	1.556852E+0	1.538858E+0	1.526446E+0	1.536304E+0	1.561570E+0	1.475443E+0	1.554190E+0	1.539997E+0	1.601413E+0	1.498381E+0	1.549233E+0	1.531650E+0	1.498467E+0	1.604977E+0	1.502263E+0	1.528376E+0	1.462869E+0	1.387478E+0
2.851020E+2	1.441195E+0	1.406234E+0	1.465427E+0	1.365723E+0	1.417096E+0	1.442480E+0	1.397889E+0	1.431503E+0	1.437876E+0	1.340863E+0	1.418339E+0	1.401929E+0	1.419009E+0	1.405705E+0	1.432977E+0	1.380278E+0	1.467082E+0	1.454406E+0	1.447824E+0	1.381886E+0	1.439267E+0	1.365543E+0	1.358769E+0	1.404178E+0	1.453408E+0	1.388864E+0	1.426068E+0	1.398730E+0	1.406746E+0	1.427695E+0	1.415373E+0	1.364735E+0	1.405731E+0	1.418512E+0	1.400512E+0	1.422452E+0	1.425076E+0	1.406224E+0	1.384663E+0	1.430948E+0	1.374310E+0	1.482391E+0	1.397506E+0	1.440959E+0	1.483373E+0	1.433304E+0	1.416813E+0	1.383698E+0	1.385842E+0	1.445840E+0	1.410843E+0	1.417167E+0	1.437642E+0	1.404700E+0	1.399519E+0	1.416317E+0	1.475784E+0	1.379403E+0	1.369044E+0	1.436600E+0	1.407194E+0	1.429482E+0	1.446224E+0	1.438377E+0	1.351283E+0	1.445703E+0	1.485152E+0	1.384243E+0	1.347945E+0	1.420754E+0	1.371997E+0	1.423286E+0	1.396168E+0	1.375270E+0	1.478077E+0	1.441207E+0	1.386071E+0	1.448961E+0	1.442730E+0	1.417745E+0	1.428232E+0	1.416805E+0	1.491266E+0	1.376466E+0	1.439142E+0	1.398779E+0	1.415158E+0	1.412809E+0	1.373129E+0	1.461791E+0	1.414857E+0	1.456261E+0	1.388978E+0	1.405170E+0	1.456440E+0	1.384389E+0	1.406802E+0	1.384289E+0	1.416377E+0	1.467458E+0	1.445873E+0	1.357953E+0	1.445889E+0	1.433631E+0	1.496092E+0	1.408770E+0	1.435644E+0	1.401691E+0	1.408190E+0	1.436779E+0	1.414234E+0	1.458188E+0	1.382651E+0	1.516217E+0	1.327036E+0	1.507242E+0	1.437373E+0	1.386276E+0	1.388424E+0	1.434634E+0	1.453108E+0	1.434110E+0	1.432862E+0	1.377627E+0	1.424801E+0	1.370258E+0	1.493895E+0	1.490640E+0	1.348573E+0	1.360716E+0	1.464024E+0	1.473298E+0	1.402504E+0	1.403880E+0	1.454622E+0	1.441958E+0	1.479177E+0	1.400803E+0	1.336721E+0	1.445105E+0	1.425121E+0	1.525028E+0	1.481999E+0	1.421933E+0	1.430637E+0	1.341736E+0	1.459689E+0	1.452449E+0	1.437982E+0	1.409394E+0	1.421528E+0	1.441933E+0	1.487867E+0	1.403602E+0	1.452644E+0	1.426667E+0	1.390288E+0	1.414044E+0	1.375797E+0	1.456711E+0	1.441663E+0	1.383128E+0	1.448331E+0	1.422758E+0	1.429988E+0	1.426989E+0	1.455197E+0	1.439050E+0	1.445092E+0	1.436686E+0	1.564559E+0
2.851990E+2	1.185530E+0	1.145746E+0	1.245642E+0	1.172672E+0	1.211949E+0	1.194111E+0	1.217184E+0	1.242297E+0	1.228258E+0	1.110281E+0	1.196734E+0	1.194163E+0	1.241146E+0	1.229342E+0	1.180417E+0	1.177491E+0	1.160834E+0	1.209841E+0	1.217794E+0	1.134045E+0	1.221041E+0	1.225611E+0	1.196131E+0	1.167055E+0	1.267735E+0	1.137461E+0	1.250438E+0	1.185584E+0	1.183505E+0	1.187053E+0	1.192868E+0	1.224302E+0	1.177429E+0	1.176382E+0	1.232628E+0	1.236735E+0	1.201105E+0	1.149854E+0	1.210215E+0	1.173434E+0	1.210260E+0	1.254030E+0	1.140111E+0	1.206732E+0	1.274757E+0	1.210080E+0	1.196688E+0	1.182824E+0	1.217397E+0	1.224297E+0	1.189484E+0	1.209117E+0	1.199935E+0	1.220007E+0	1.194114E+0	1.191964E+0	1.253716E+0	1.196959E+0	1.288229E+0	1.170290E+0	1.161805E+0	1.245346E+0	1.216450E+0	1.219254E+0	1.151479E+0	1.215915E+0	1.184550E+0	1.326959E+0	1.161965E+0	1.155561E+0	1.216688E+0	1.157564E+0	1.231476E+0	1.208217E+0	1.263705E+0	1.236276E+0	1.201889E+0	1.197246E+0	1.254165E+0	1.203518E+0	1.163551E+0	1.217773E+0	1.257095E+0	1.170653E+0	1.161631E+0	1.198127E+0	1.215579E+0	1.186259E+0	1.213797E+0	1.222656E+0	1.272685E+0	1.181510E+0	1.150840E+0	1.193544E+0	1.216459E+0	1.244979E+0	1.243927E+0	1.235886E+0	1.264538E+0	1.229826E+0	1.172346E+0	1.141262E+0	1.191539E+0	1.239372E+0	1.216123E+0	1.245170E+0	1.156893E+0	1.192303E+0	1.177523E+0	1.217587E+0	1.158425E+0	1.184012E+0	1.178950E+0	1.257281E+0	1.245088E+0	1.234131E+0	1.231629E+0	1.229480E+0	1.190496E+0	1.174359E+0	1.224152E+0	1.202704E+0	1.159132E+0	1.171692E+0	1.250800E+0	1.228186E+0	1.277102E+0	1.239004E+0	1.152452E+0	1.214418E+0	1.248835E+0	1.208773E+0	1.214497E+0	1.201431E+0	1.185441E+0	1.209883E+0	1.202328E+0	1.187866E+0	1.212693E+0	1.189271E+0	1.203499E+0	1.199510E+0	1.242929E+0	1.193409E+0	1.215657E+0	1.231050E+0	1.212840E+0	1.210007E+0	1.164777E+0	1.200775E+0	1.212034E+0	1.223962E+0	1.248513E+0	1.239869E+0	1.156020E+0	1.164073E+0	1.202426E+0	1.241191E+0	1.198610E+0	1.188080E+0	1.245252E+0	1.240544E+0	1.081905E+0	1.241317E+0	1.258171E+0	1.238428E+0	1.142777E+0	1.170552E+0	1.202544E+0	1.162876E+0	1.173886E+0
2.853000E+2	8.554818E-1	8.847916E-1	9.004464E-1	8.702226E-1	8.921838E-1	8.854001E-1	8.910437E-1	8.752623E-1	8.818883E-1	8.664897E-1	9.138883E-1	8.702733E-1	8.931956E-1	8.485055E-1	9.158306E-1	8.847349E-1	8.430410E-1	8.295473E-1	9.121847E-1	8.782686E-1	8.888896E-1	9.064371E-1	8.328172E-1	8.522203E-1	9.294041E-1	8.186386E-1	9.342105E-1	8.422620E-1	8.870651E-1	8.855705E-1	8.603105E-1	8.915323E-1	8.604138E-1	8.922216E-1	8.693568E-1	8.925115E-1	9.275931E-1	8.446474E-1	9.053500E-1	9.384995E-1	8.715281E-1	9.201108E-1	8.415223E-1	8.995716E-1	8.508467E-1	9.094636E-1	8.865815E-1	8.772834E-1	8.581582E-1	8.690754E-1	9.129530E-1	8.856921E-1	9.115806E-1	8.441045E-1	8.800902E-1	8.773002E-1	9.255117E-1	9.214124E-1	8.243828E-1	8.793603E-1	9.112747E-1	8.451725E-1	8.946680E-1	9.253328E-1	8.976499E-1	8.826770E-1	8.219299E-1	8.893857E-1	9.005589E-1	8.385154E-1	8.368807E-1	9.399252E-1	9.313350E-1	8.869426E-1	8.717088E-1	8.846147E-1	8.924590E-1	9.180411E-1	8.443679E-1	8.744770E-1	8.289144E-1	8.929390E-1	8.798117E-1	8.851594E-1	8.553266E-1	9.003139E-1	8.484153E-1	9.020891E-1	8.602328E-1	8.486272E-1	8.824002E-1	8.856797E-1	8.654596E-1	9.178552E-1	8.509679E-1	9.320007E-1	8.572478E-1	8.669753E-1	8.753607E-1	8.552479E-1	8.924718E-1	8.495981E-1	8.299542E-1	9.083293E-1	8.883381E-1	8.984808E-1	8.961278E-1	8.940425E-1	9.279893E-1	8.878669E-1	9.491819E-1	9.145165E-1	8.909034E-1	9.024323E-1	9.244167E-1	9.971726E-1	8.925658E-1	8.439346E-1	8.958035E-1	8.785191E-1	9.141141E-1	9.399714E-1	8.253216E-1	8.753482E-1	9.355005E-1	9.025744E-1	9.170545E-1	9.097606E-1	9.097108E-1	9.073094E-1	9.089740E-1	8.531519E-1	9.050195E-1	9.076055E-1	8.969484E-1	8.917320E-1	9.043524E-1	8.495645E-1	9.543685E-1	9.282589E-1	8.757125E-1	9.154152E-1	8.796537E-1	9.115689E-1	8.867604E-1	8.112841E-1	8.958413E-1	9.758614E-1	9.358209E-1	8.729418E-1	8.916406E-1	8.948797E-1	8.880250E-1	9.035915E-1	8.540166E-1	8.905526E-1	8.913212E-1	9.466306E-1	8.664066E-1	9.226375E-1	9.120773E-1	9.428782E-1	8.885679E-1	8.738728E-1	9.089215E-1	8.783682E-1	9.065173E-1	9.197084E-1	8.973300E-1	9.086775E-1	1.022187E+0
2.854020E+2	5.686641E-1	5.753361E-1	5.981578E-1	5.745762E-1	5.038829E-1	5.714331E-1	5.390491E-1	5.562349E-1	5.412755E-1	5.619937E-1	5.837445E-1	5.403311E-1	5.751517E-1	5.482893E-1	5.629000E-1	5.648479E-1	6.116561E-1	5.459450E-1	5.353934E-1	5.378390E-1	5.726125E-1	5.506682E-1	5.716744E-1	5.735560E-1	5.284635E-1	5.715915E-1	5.529686E-1	5.335729E-1	5.694885E-1	5.447754E-1	5.735026E-1	5.589815E-1	5.839478E-1	5.608812E-1	5.703716E-1	5.872909E-1	6.091742E-1	5.733486E-1	5.820158E-1	5.648339E-1	5.587856E-1	6.070106E-1	5.740741E-1	5.797446E-1	6.011520E-1	5.619108E-1	5.819512E-1	5.951433E-1	5.692781E-1	5.733006E-1	5.721417E-1	5.489846E-1	5.486453E-1	5.594050E-1	5.812763E-1	5.514779E-1	5.805544E-1	5.727688E-1	6.367255E-1	5.827419E-1	5.595390E-1	5.975666E-1	5.589023E-1	6.077161E-1	5.823100E-1	5.998739E-1	5.534272E-1	5.577202E-1	5.658527E-1	5.658440E-1	5.592713E-1	5.509233E-1	6.081395E-1	5.830963E-1	5.650150E-1	5.705826E-1	5.816057E-1	5.845797E-1	5.675756E-1	5.644377E-1	5.915724E-1	5.197820E-1	5.587774E-1	5.521471E-1	5.972626E-1	5.641989E-1	5.633413E-1	5.622758E-1	5.681311E-1	5.452510E-1	6.349452E-1	5.846417E-1	5.644845E-1	5.705233E-1	5.836079E-1	6.082412E-1	5.880895E-1	5.638372E-1	5.796558E-1	5.999545E-1	5.865968E-1	5.964619E-1	5.513722E-1	5.881973E-1	6.101801E-1	5.982305E-1	5.541360E-1	5.453203E-1	5.923842E-1	5.483276E-1	5.977733E-1	5.838326E-1	5.666708E-1	5.709366E-1	6.139748E-1	5.975263E-1	5.667503E-1	5.695032E-1	5.449198E-1	5.602378E-1	5.751311E-1	5.774260E-1	5.662074E-1	5.434755E-1	6.022090E-1	5.902654E-1	5.875439E-1	5.553806E-1	5.655297E-1	5.722664E-1	5.797802E-1	6.055989E-1	5.827772E-1	5.668715E-1	5.599210E-1	5.986531E-1	5.829432E-1	5.618249E-1	5.536836E-1	5.897665E-1	6.034260E-1	6.350642E-1	6.154771E-1	5.927342E-1	6.201228E-1	5.627535E-1	6.168864E-1	5.521219E-1	5.806428E-1	5.503543E-1	5.304282E-1	5.812605E-1	6.109854E-1	5.647071E-1	5.636497E-1	5.696246E-1	5.355810E-1	5.899817E-1	5.895880E-1	5.648763E-1	5.980715E-1	5.610545E-1	5.837989E-1	5.834168E-1	6.010984E-1	5.752399E-1	5.984729E-1	6.146246E-1	5.199133E-1	6.113765E-1	6.278721E-1
2.855030E+2	4.933437E-1	4.894116E-1	4.194719E-1	4.690227E-1	5.092818E-1	4.719712E-1	4.613283E-1	4.459654E-1	4.926743E-1	4.603808E-1	4.553611E-1	4.929667E-1	4.410849E-1	4.526448E-1	4.587288E-1	4.776046E-1	4.795557E-1	4.608813E-1	5.284506E-1	4.897737E-1	4.881776E-1	5.188736E-1	4.612156E-1	4.848649E-1	4.715425E-1	4.803932E-1	4.856438E-1	4.733213E-1	4.716231E-1	4.841707E-1	5.116793E-1	4.641461E-1	4.368874E-1	4.610864E-1	4.652844E-1	4.920027E-1	4.958808E-1	4.891388E-1	4.979632E-1	4.741627E-1	4.759358E-1	4.653627E-1	4.853021E-1	4.855583E-1	4.973766E-1	4.778399E-1	4.761284E-1	4.540202E-1	4.973533E-1	4.839065E-1	5.262499E-1	4.629974E-1	4.758656E-1	4.831113E-1	4.999202E-1	4.998869E-1	5.308207E-1	4.511106E-1	5.014534E-1	5.314060E-1	4.948258E-1	4.904982E-1	4.772352E-1	5.154198E-1	5.545827E-1	4.395634E-1	5.039060E-1	5.032198E-1	4.776396E-1	5.167359E-1	5.068788E-1	5.036535E-1	4.741850E-1	4.937531E-1	4.729379E-1	4.617659E-1	4.851097E-1	4.810275E-1	5.141484E-1	4.663827E-1	4.452182E-1	4.736535E-1	4.895139E-1	4.933806E-1	5.308086E-1	4.850561E-1	4.649117E-1	4.462692E-1	4.856211E-1	4.781292E-1	4.667669E-1	5.170474E-1	4.754722E-1	5.118050E-1	4.725245E-1	4.816700E-1	4.580536E-1	5.586563E-1	4.565110E-1	4.863887E-1	4.842335E-1	4.964870E-1	4.901980E-1	5.046910E-1	4.729851E-1	4.870897E-1	5.105574E-1	4.865603E-1	4.757621E-1	4.825596E-1	4.663683E-1	4.859561E-1	4.851980E-1	4.673398E-1	4.784283E-1	5.229229E-1	4.846061E-1	4.310426E-1	4.947237E-1	5.183828E-1	5.388485E-1	4.903860E-1	4.925650E-1	4.844843E-1	4.922479E-1	4.801270E-1	4.489504E-1	4.576517E-1	4.994494E-1	4.708565E-1	4.355338E-1	5.118850E-1	4.880109E-1	4.890804E-1	4.952561E-1	5.086049E-1	5.008585E-1	5.029802E-1	4.924253E-1	4.849950E-1	4.726615E-1	4.720910E-1	5.189042E-1	4.847088E-1	4.704099E-1	4.713375E-1	5.100679E-1	5.422247E-1	4.876772E-1	4.682998E-1	5.122308E-1	4.768441E-1	4.846226E-1	4.537893E-1	4.865059E-1	4.957487E-1	4.948022E-1	4.618392E-1	4.954759E-1	5.162593E-1	4.677936E-1	4.815478E-1	4.868216E-1	4.715068E-1	5.242399E-1	5.007441E-1	5.302501E-1	4.700342E-1	5.048374E-1	5.061945E-1	4.398656E-1
2.856010E+2	4.273665E-1	4.191631E-1	4.614651E-1	4.277413E-1	3.947612E-1	4.263870E-1	4.310793E-1	4.637788E-1	4.666159E-1	4.076971E-1	4.243582E-1	4.306343E-1	4.251738E-1	4.509531E-1	4.289453E-1	4.540800E-1	4.535788E-1	4.065932E-1	4.528983E-1	4.339819E-1	4.199355E-1	4.229423E-1	4.507538E-1	4.536962E-1	4.355692E-1	4.320091E-1	4.502989E-1	4.520887E-1	4.640693E-1	4.192388E-1	4.328053E-1	4.518682E-1	4.301973E-1	4.408982E-1	4.455442E-1	4.116874E-1	4.317499E-1	4.572328E-1	4.265933E-1	4.076600E-1	4.240144E-1	4.206479E-1	4.355905E-1	4.314203E-1	4.374310E-1	4.223722E-1	4.759344E-1	4.841134E-1	4.287760E-1	4.492651E-1	4.254985E-1	4.389333E-1	4.253961E-1	4.114131E-1	4.605376E-1	4.891174E-1	4.298242E-1	4.287379E-1	4.221683E-1	4.283855E-1	4.314707E-1	4.374135E-1	4.656622E-1	4.442651E-1	4.406987E-1	4.266906E-1	4.428406E-1	4.041272E-1	4.588347E-1	4.492955E-1	4.220391E-1	4.279456E-1	4.645673E-1	4.452406E-1	4.357386E-1	4.598358E-1	4.333295E-1	4.272549E-1	4.517089E-1	3.833847E-1	3.952050E-1	4.207856E-1	4.556856E-1	4.475926E-1	4.465984E-1	4.468957E-1	4.444541E-1	4.420476E-1	3.825830E-1	4.164104E-1	4.595218E-1	4.451984E-1	4.069379E-1	4.733043E-1	4.470478E-1	4.033639E-1	4.323602E-1	4.417189E-1	4.597098E-1	4.119008E-1	4.799295E-1	4.262142E-1	4.554957E-1	4.507413E-1	4.073428E-1	4.508048E-1	4.839807E-1	4.142617E-1	4.303579E-1	4.211320E-1	4.592789E-1	4.115515E-1	4.305252E-1	4.368777E-1	4.345632E-1	4.497677E-1	4.456602E-1	4.201205E-1	4.291061E-1	4.362429E-1	4.843715E-1	4.498381E-1	4.172143E-1	4.308246E-1	4.786237E-1	4.570462E-1	4.546356E-1	4.443761E-1	4.292870E-1	4.911466E-1	4.745724E-1	4.360529E-1	4.468721E-1	4.507660E-1	4.686903E-1	4.431986E-1	4.572716E-1	4.121880E-1	3.949334E-1	4.403319E-1	4.151285E-1	4.319597E-1	4.657325E-1	4.632519E-1	3.831931E-1	4.006314E-1	4.539005E-1	4.657610E-1	4.164011E-1	4.426238E-1	4.184117E-1	4.011500E-1	4.729750E-1	4.132325E-1	4.627970E-1	4.087634E-1	4.184698E-1	4.415339E-1	4.382233E-1	4.230063E-1	4.679281E-1	4.355699E-1	4.108987E-1	4.375310E-1	4.250469E-1	4.673321E-1	4.958159E-1	4.515959E-1	4.222629E-1	4.386063E-1	3.564311E-1
2.858010E+2	5.439162E-1	4.902792E-1	5.188271E-1	5.743373E-1	5.382855E-1	4.942213E-1	5.141059E-1	5.179899E-1	5.106082E-1	5.240345E-1	5.221156E-1	5.131183E-1	5.135457E-1	5.437245E-1	5.586187E-1	5.239246E-1	4.955435E-1	4.833133E-1	4.530124E-1	4.866876E-1	5.330846E-1	5.209864E-1	5.111404E-1	5.343371E-1	5.620127E-1	5.434294E-1	5.148405E-1	5.096508E-1	5.769752E-1	5.003979E-1	5.305803E-1	5.276925E-1	5.305865E-1	5.378489E-1	5.457462E-1	5.390088E-1	5.554048E-1	5.247217E-1	5.385494E-1	5.502742E-1	5.285739E-1	5.693388E-1	5.619487E-1	5.003786E-1	5.181831E-1	5.467486E-1	5.818498E-1	5.557481E-1	5.107564E-1	5.402669E-1	5.164477E-1	5.384620E-1	5.075761E-1	5.098851E-1	5.448900E-1	5.443547E-1	5.482510E-1	5.864897E-1	5.238882E-1	5.143271E-1	5.349750E-1	5.298105E-1	5.263616E-1	5.207594E-1	5.348166E-1	5.096802E-1	5.834407E-1	5.257556E-1	5.057566E-1	5.085820E-1	4.847112E-1	5.216799E-1	5.271138E-1	5.556436E-1	5.520218E-1	5.532284E-1	5.514910E-1	5.379833E-1	5.727281E-1	5.286402E-1	5.283466E-1	5.298402E-1	5.465838E-1	5.310931E-1	5.195283E-1	5.012254E-1	5.114597E-1	5.333714E-1	5.337327E-1	5.071657E-1	5.464154E-1	5.415407E-1	4.988634E-1	5.305442E-1	5.332648E-1	5.181668E-1	5.156752E-1	5.301566E-1	5.413890E-1	4.870013E-1	5.601439E-1	5.268865E-1	5.172032E-1	5.506471E-1	5.352641E-1	5.428278E-1	5.144630E-1	5.220428E-1	5.173050E-1	5.084545E-1	5.019854E-1	5.283547E-1	5.162966E-1	5.428896E-1	5.179257E-1	5.675857E-1	5.846484E-1	5.073358E-1	5.260143E-1	5.162609E-1	5.425792E-1	5.306932E-1	5.015068E-1	5.051104E-1	5.699945E-1	5.494149E-1	5.565563E-1	5.518702E-1	4.846596E-1	5.392656E-1	5.574123E-1	5.405810E-1	5.399591E-1	5.414005E-1	5.273745E-1	5.361374E-1	5.183307E-1	5.438725E-1	5.262959E-1	5.387277E-1	5.467395E-1	5.286601E-1	5.158370E-1	5.642218E-1	5.744717E-1	5.260125E-1	5.955040E-1	5.322671E-1	5.726226E-1	5.246349E-1	5.627003E-1	5.533593E-1	5.557197E-1	5.461836E-1	5.591086E-1	5.297022E-1	5.483209E-1	5.518648E-1	5.761768E-1	5.543002E-1	5.367585E-1	5.389155E-1	5.495599E-1	5.045266E-1	5.193924E-1	5.390379E-1	5.392597E-1	5.280579E-1	5.432077E-1	5.339145E-1	5.486043E-1
2.860040E+2	7.784630E-1	8.957932E-1	8.862074E-1	8.466883E-1	9.063386E-1	8.876789E-1	8.457675E-1	8.640232E-1	8.671568E-1	8.103490E-1	8.593657E-1	8.275703E-1	8.886667E-1	8.860679E-1	8.466414E-1	8.447477E-1	8.760332E-1	8.518111E-1	9.168830E-1	8.496204E-1	9.129863E-1	8.932296E-1	9.128810E-1	8.776438E-1	9.189700E-1	9.438071E-1	9.234672E-1	8.651445E-1	9.240451E-1	8.858467E-1	8.602880E-1	8.754691E-1	8.749821E-1	8.964407E-1	8.847986E-1	8.673410E-1	8.443794E-1	8.753499E-1	9.182675E-1	8.909068E-1	9.042868E-1	9.104837E-1	9.389790E-1	8.917254E-1	8.793931E-1	9.074342E-1	9.115528E-1	8.752432E-1	8.931316E-1	9.028337E-1	9.233991E-1	9.194120E-1	9.071657E-1	8.257647E-1	8.720362E-1	8.510874E-1	9.227246E-1	8.547232E-1	9.555615E-1	8.681486E-1	8.778624E-1	9.131249E-1	9.697504E-1	9.189700E-1	8.740682E-1	8.591511E-1	9.225484E-1	8.523185E-1	8.675561E-1	9.422007E-1	9.065950E-1	8.822393E-1	8.586814E-1	8.649458E-1	9.204707E-1	8.786513E-1	9.308805E-1	9.179081E-1	8.834016E-1	8.608381E-1	8.599949E-1	9.091046E-1	8.718173E-1	8.954929E-1	8.756050E-1	8.323986E-1	9.352855E-1	8.755124E-1	8.977590E-1	9.175620E-1	9.235994E-1	9.182827E-1	8.595202E-1	9.095518E-1	9.060245E-1	9.316629E-1	8.681853E-1	9.003339E-1	9.250161E-1	8.462399E-1	8.955998E-1	9.017204E-1	8.709681E-1	9.016155E-1	9.039872E-1	8.961565E-1	9.236325E-1	9.044399E-1	8.768260E-1	8.940139E-1	9.268576E-1	8.764488E-1	8.793570E-1	8.827665E-1	9.139074E-1	9.062019E-1	8.440198E-1	8.551338E-1	8.700502E-1	8.943828E-1	8.997157E-1	9.166012E-1	9.073195E-1	8.255236E-1	8.736094E-1	8.693058E-1	9.043428E-1	8.834460E-1	8.959900E-1	8.669063E-1	9.143888E-1	8.849277E-1	8.729469E-1	8.866550E-1	8.649374E-1	9.051763E-1	8.960747E-1	8.526583E-1	8.516715E-1	8.695966E-1	8.912104E-1	8.576280E-1	8.744720E-1	9.068381E-1	9.031979E-1	8.473832E-1	8.439957E-1	8.709167E-1	8.860830E-1	8.762661E-1	8.989325E-1	9.376754E-1	9.318839E-1	8.868224E-1	8.381810E-1	9.111913E-1	8.649009E-1	9.175062E-1	8.409333E-1	9.402352E-1	9.214410E-1	8.592189E-1	8.820205E-1	9.150398E-1	8.829505E-1	8.791107E-1	9.135910E-1	8.480229E-1	9.127648E-1	9.781699E-1	9.224830E-1
2.862050E+2	1.231502E+0	1.233764E+0	1.251719E+0	1.228072E+0	1.301021E+0	1.232167E+0	1.222891E+0	1.207771E+0	1.220684E+0	1.229383E+0	1.236798E+0	1.213379E+0	1.262169E+0	1.202499E+0	1.216752E+0	1.189482E+0	1.245645E+0	1.250505E+0	1.260168E+0	1.191843E+0	1.235456E+0	1.260424E+0	1.284723E+0	1.234292E+0	1.201385E+0	1.247930E+0	1.247320E+0	1.192869E+0	1.238313E+0	1.216740E+0	1.183297E+0	1.283755E+0	1.191556E+0	1.190284E+0	1.207260E+0	1.257256E+0	1.223515E+0	1.179029E+0	1.188074E+0	1.214702E+0	1.210475E+0	1.205383E+0	1.309087E+0	1.155777E+0	1.253575E+0	1.238823E+0	1.226744E+0	1.275894E+0	1.241000E+0	1.223412E+0	1.174187E+0	1.245435E+0	1.235543E+0	1.151490E+0	1.235242E+0	1.231063E+0	1.297205E+0	1.162385E+0	1.243614E+0	1.166333E+0	1.260291E+0	1.200425E+0	1.299387E+0	1.247559E+0	1.257903E+0	1.253546E+0	1.183357E+0	1.239413E+0	1.270620E+0	1.211189E+0	1.263880E+0	1.232024E+0	1.210003E+0	1.187231E+0	1.264493E+0	1.231028E+0	1.269630E+0	1.267338E+0	1.278446E+0	1.220380E+0	1.263899E+0	1.160724E+0	1.335692E+0	1.243479E+0	1.221299E+0	1.230275E+0	1.259632E+0	1.220997E+0	1.204022E+0	1.145029E+0	1.181211E+0	1.266034E+0	1.189261E+0	1.228327E+0	1.199541E+0	1.249435E+0	1.162132E+0	1.195633E+0	1.251562E+0	1.282390E+0	1.181108E+0	1.244004E+0	1.228428E+0	1.245095E+0	1.212696E+0	1.233794E+0	1.224320E+0	1.174069E+0	1.282960E+0	1.206672E+0	1.253372E+0	1.206715E+0	1.178414E+0	1.209029E+0	1.199427E+0	1.305298E+0	1.228225E+0	1.211459E+0	1.229542E+0	1.225749E+0	1.278957E+0	1.243588E+0	1.254221E+0	1.242521E+0	1.267107E+0	1.239591E+0	1.231587E+0	1.242040E+0	1.233735E+0	1.216396E+0	1.237553E+0	1.270698E+0	1.181560E+0	1.159780E+0	1.254099E+0	1.251459E+0	1.238110E+0	1.204097E+0	1.208959E+0	1.242915E+0	1.259734E+0	1.188590E+0	1.248154E+0	1.262918E+0	1.210916E+0	1.147055E+0	1.271721E+0	1.222377E+0	1.266209E+0	1.233313E+0	1.250835E+0	1.289485E+0	1.304659E+0	1.203916E+0	1.216343E+0	1.244079E+0	1.281793E+0	1.312452E+0	1.222820E+0	1.285120E+0	1.241792E+0	1.260767E+0	1.287659E+0	1.264107E+0	1.293619E+0	1.155679E+0	1.312850E+0	1.258100E+0	1.233180E+0	1.275247E+0	1.181290E+0
2.864190E+2	1.313132E+0	1.298077E+0	1.286987E+0	1.300076E+0	1.319207E+0	1.304115E+0	1.326328E+0	1.323066E+0	1.362958E+0	1.264899E+0	1.327229E+0	1.353429E+0	1.350301E+0	1.256894E+0	1.296430E+0	1.304362E+0	1.273967E+0	1.299924E+0	1.278564E+0	1.311080E+0	1.343098E+0	1.340403E+0	1.307856E+0	1.286163E+0	1.300958E+0	1.333158E+0	1.301123E+0	1.306596E+0	1.322009E+0	1.246007E+0	1.281417E+0	1.284264E+0	1.225339E+0	1.330328E+0	1.283085E+0	1.319677E+0	1.357510E+0	1.266084E+0	1.324757E+0	1.257520E+0	1.306894E+0	1.321427E+0	1.331922E+0	1.367025E+0	1.353644E+0	1.327620E+0	1.307526E+0	1.254686E+0	1.292646E+0	1.266285E+0	1.308671E+0	1.242772E+0	1.280259E+0	1.276258E+0	1.221174E+0	1.328425E+0	1.377103E+0	1.290352E+0	1.311201E+0	1.253907E+0	1.363690E+0	1.326645E+0	1.328996E+0	1.405357E+0	1.333373E+0	1.311669E+0	1.339360E+0	1.321652E+0	1.226586E+0	1.302288E+0	1.306687E+0	1.307004E+0	1.309393E+0	1.297159E+0	1.289871E+0	1.281847E+0	1.289627E+0	1.364883E+0	1.315628E+0	1.306159E+0	1.306923E+0	1.220347E+0	1.323612E+0	1.295559E+0	1.341420E+0	1.241498E+0	1.292692E+0	1.320268E+0	1.298318E+0	1.303550E+0	1.296385E+0	1.320014E+0	1.282810E+0	1.350497E+0	1.313384E+0	1.233156E+0	1.267452E+0	1.287875E+0	1.310856E+0	1.351300E+0	1.349253E+0	1.282800E+0	1.338624E+0	1.318775E+0	1.372386E+0	1.324042E+0	1.327400E+0	1.205075E+0	1.275289E+0	1.281393E+0	1.383169E+0	1.279608E+0	1.289132E+0	1.298785E+0	1.336057E+0	1.368515E+0	1.357682E+0	1.304868E+0	1.316223E+0	1.316194E+0	1.417545E+0	1.303239E+0	1.326415E+0	1.307279E+0	1.335644E+0	1.339570E+0	1.270913E+0	1.282688E+0	1.326114E+0	1.335737E+0	1.374964E+0	1.343569E+0	1.336848E+0	1.294290E+0	1.330137E+0	1.351075E+0	1.350886E+0	1.262764E+0	1.318161E+0	1.358399E+0	1.269664E+0	1.293371E+0	1.393200E+0	1.314637E+0	1.301710E+0	1.307363E+0	1.339934E+0	1.441664E+0	1.359583E+0	1.277487E+0	1.302996E+0	1.278723E+0	1.258255E+0	1.321649E+0	1.296706E+0	1.326063E+0	1.232544E+0	1.287491E+0	1.362268E+0	1.314878E+0	1.404790E+0	1.264373E+0	1.278764E+0	1.412356E+0	1.324057E+0	1.329643E+0	1.321171E+0	1.353115E+0	1.285036E+0	1.400954E+0	1.320323E+0
2.866120E+2	1.198802E+0	1.192715E+0	1.255666E+0	1.178553E+0	1.271752E+0	1.218959E+0	1.169492E+0	1.167013E+0	1.247345E+0	1.209078E+0	1.279681E+0	1.242339E+0	1.266401E+0	1.252347E+0	1.322897E+0	1.190428E+0	1.186171E+0	1.195324E+0	1.258814E+0	1.218002E+0	1.270439E+0	1.293414E+0	1.320986E+0	1.280025E+0	1.300902E+0	1.253654E+0	1.286096E+0	1.185266E+0	1.274670E+0	1.243970E+0	1.271514E+0	1.240823E+0	1.214964E+0	1.292975E+0	1.306192E+0	1.215757E+0	1.270669E+0	1.267419E+0	1.158478E+0	1.209642E+0	1.308950E+0	1.293888E+0	1.271477E+0	1.347264E+0	1.282449E+0	1.291859E+0	1.245984E+0	1.292025E+0	1.226506E+0	1.254606E+0	1.284620E+0	1.339188E+0	1.230884E+0	1.199375E+0	1.257519E+0	1.245994E+0	1.325351E+0	1.251409E+0	1.301515E+0	1.252636E+0	1.267670E+0	1.243804E+0	1.363099E+0	1.254984E+0	1.226645E+0	1.221519E+0	1.261175E+0	1.304329E+0	1.218943E+0	1.230461E+0	1.261731E+0	1.271917E+0	1.243492E+0	1.290080E+0	1.305316E+0	1.280112E+0	1.239452E+0	1.251755E+0	1.245954E+0	1.248813E+0	1.260147E+0	1.222454E+0	1.308567E+0	1.310418E+0	1.284822E+0	1.234779E+0	1.268929E+0	1.240914E+0	1.295092E+0	1.265909E+0	1.318019E+0	1.300209E+0	1.256701E+0	1.246086E+0	1.275255E+0	1.221533E+0	1.260343E+0	1.282460E+0	1.260809E+0	1.302197E+0	1.229632E+0	1.208781E+0	1.189925E+0	1.235070E+0	1.295118E+0	1.240800E+0	1.314481E+0	1.263908E+0	1.278917E+0	1.242874E+0	1.292178E+0	1.265227E+0	1.258349E+0	1.258780E+0	1.294181E+0	1.248910E+0	1.253124E+0	1.215136E+0	1.249898E+0	1.277061E+0	1.313990E+0	1.261144E+0	1.296970E+0	1.242363E+0	1.277948E+0	1.254223E+0	1.310699E+0	1.274302E+0	1.287328E+0	1.263730E+0	1.299536E+0	1.290175E+0	1.225418E+0	1.216888E+0	1.244884E+0	1.293116E+0	1.270216E+0	1.199926E+0	1.199277E+0	1.244302E+0	1.310651E+0	1.231633E+0	1.314830E+0	1.287105E+0	1.255348E+0	1.217916E+0	1.313975E+0	1.313404E+0	1.291731E+0	1.292522E+0	1.321539E+0	1.313969E+0	1.302500E+0	1.294376E+0	1.253063E+0	1.204866E+0	1.246612E+0	1.313081E+0	1.255371E+0	1.317076E+0	1.267665E+0	1.264275E+0	1.257257E+0	1.273093E+0	1.252625E+0	1.138122E+0	1.307228E+0	1.261143E+0	1.251169E+0	1.326709E+0	1.390574E+0
2.868030E+2	1.422719E+0	1.414655E+0	1.440492E+0	1.394149E+0	1.514202E+0	1.414937E+0	1.440247E+0	1.424942E+0	1.455343E+0	1.362381E+0	1.410147E+0	1.352660E+0	1.371925E+0	1.433856E+0	1.352093E+0	1.343749E+0	1.416353E+0	1.368049E+0	1.478651E+0	1.394455E+0	1.412650E+0	1.425851E+0	1.446922E+0	1.394630E+0	1.442474E+0	1.359801E+0	1.422583E+0	1.400141E+0	1.365485E+0	1.395430E+0	1.405678E+0	1.423693E+0	1.343240E+0	1.409166E+0	1.446743E+0	1.398193E+0	1.414378E+0	1.428240E+0	1.414904E+0	1.393251E+0	1.454496E+0	1.470922E+0	1.473560E+0	1.465401E+0	1.415909E+0	1.379257E+0	1.476540E+0	1.462277E+0	1.398803E+0	1.467288E+0	1.456902E+0	1.404541E+0	1.391536E+0	1.381830E+0	1.401972E+0	1.443495E+0	1.388468E+0	1.399967E+0	1.400694E+0	1.497841E+0	1.422055E+0	1.416331E+0	1.419832E+0	1.410027E+0	1.410955E+0	1.386431E+0	1.389347E+0	1.397359E+0	1.488869E+0	1.368404E+0	1.357018E+0	1.386122E+0	1.419721E+0	1.482645E+0	1.421831E+0	1.411171E+0	1.503444E+0	1.403267E+0	1.408484E+0	1.479427E+0	1.418586E+0	1.368938E+0	1.441543E+0	1.382178E+0	1.474112E+0	1.434035E+0	1.437259E+0	1.445848E+0	1.385075E+0	1.444912E+0	1.430580E+0	1.493201E+0	1.387358E+0	1.419229E+0	1.474131E+0	1.340986E+0	1.438589E+0	1.394384E+0	1.373970E+0	1.437772E+0	1.439527E+0	1.346498E+0	1.405378E+0	1.452498E+0	1.439060E+0	1.388276E+0	1.431948E+0	1.400853E+0	1.419044E+0	1.356760E+0	1.509143E+0	1.420062E+0	1.334942E+0	1.440256E+0	1.426147E+0	1.430310E+0	1.363761E+0	1.362347E+0	1.440611E+0	1.401811E+0	1.440717E+0	1.438493E+0	1.382555E+0	1.447345E+0	1.440175E+0	1.421722E+0	1.497960E+0	1.472283E+0	1.406944E+0	1.431340E+0	1.478415E+0	1.479367E+0	1.428776E+0	1.416274E+0	1.439096E+0	1.460103E+0	1.496521E+0	1.412589E+0	1.423327E+0	1.491834E+0	1.444119E+0	1.374711E+0	1.522722E+0	1.452191E+0	1.413190E+0	1.411954E+0	1.386618E+0	1.430876E+0	1.446983E+0	1.371868E+0	1.409164E+0	1.389123E+0	1.441525E+0	1.399658E+0	1.481309E+0	1.411332E+0	1.416886E+0	1.445546E+0	1.451275E+0	1.436753E+0	1.410667E+0	1.375827E+0	1.371366E+0	1.423206E+0	1.524254E+0	1.395106E+0	1.468297E+0	1.436803E+0	1.495998E+0	1.491050E+0	1.466296E+0
2.870210E+2	1.269960E+0	1.197241E+0	1.301019E+0	1.231562E+0	1.223676E+0	1.287716E+0	1.245331E+0	1.266964E+0	1.300579E+0	1.190163E+0	1.283377E+0	1.302797E+0	1.337914E+0	1.244273E+0	1.210122E+0	1.214422E+0	1.280544E+0	1.250428E+0	1.272520E+0	1.221620E+0	1.235727E+0	1.251270E+0	1.291973E+0	1.205120E+0	1.214905E+0	1.215599E+0	1.240570E+0	1.191699E+0	1.261899E+0	1.206564E+0	1.243045E+0	1.252884E+0	1.206048E+0	1.145550E+0	1.219324E+0	1.261509E+0	1.213525E+0	1.229731E+0	1.224350E+0	1.202012E+0	1.237923E+0	1.244793E+0	1.277409E+0	1.285307E+0	1.244861E+0	1.272074E+0	1.273949E+0	1.256731E+0	1.243826E+0	1.222679E+0	1.179149E+0	1.256500E+0	1.258369E+0	1.195629E+0	1.243050E+0	1.232204E+0	1.256212E+0	1.254452E+0	1.273705E+0	1.254964E+0	1.231079E+0	1.182935E+0	1.280954E+0	1.239260E+0	1.213798E+0	1.195873E+0	1.336288E+0	1.258449E+0	1.251855E+0	1.224936E+0	1.283910E+0	1.228568E+0	1.272677E+0	1.280714E+0	1.256023E+0	1.255003E+0	1.237637E+0	1.263049E+0	1.247029E+0	1.283285E+0	1.213695E+0	1.235732E+0	1.288418E+0	1.237528E+0	1.241435E+0	1.252915E+0	1.209650E+0	1.336181E+0	1.256007E+0	1.303639E+0	1.223670E+0	1.208969E+0	1.207656E+0	1.284991E+0	1.259693E+0	1.219182E+0	1.290791E+0	1.283968E+0	1.235798E+0	1.217089E+0	1.234176E+0	1.233346E+0	1.232906E+0	1.214529E+0	1.214152E+0	1.221000E+0	1.296196E+0	1.195163E+0	1.278432E+0	1.240582E+0	1.335050E+0	1.205283E+0	1.249660E+0	1.215753E+0	1.256994E+0	1.267632E+0	1.274017E+0	1.152728E+0	1.243600E+0	1.238832E+0	1.299729E+0	1.209134E+0	1.241533E+0	1.269573E+0	1.289164E+0	1.313327E+0	1.338001E+0	1.264431E+0	1.292657E+0	1.286921E+0	1.310959E+0	1.240770E+0	1.194024E+0	1.214353E+0	1.204788E+0	1.294497E+0	1.317270E+0	1.197971E+0	1.264840E+0	1.312258E+0	1.272151E+0	1.212731E+0	1.256591E+0	1.311441E+0	1.251787E+0	1.214515E+0	1.222494E+0	1.335039E+0	1.309211E+0	1.285132E+0	1.239455E+0	1.266896E+0	1.234516E+0	1.228755E+0	1.221922E+0	1.254815E+0	1.239348E+0	1.266028E+0	1.257156E+0	1.261327E+0	1.273174E+0	1.265807E+0	1.269712E+0	1.292493E+0	1.289029E+0	1.289163E+0	1.235637E+0	1.284125E+0	1.302033E+0	1.297035E+0	1.214440E+0
2.872090E+2	9.942985E-1	8.938822E-1	8.841230E-1	9.174977E-1	9.087834E-1	9.457681E-1	9.272404E-1	9.396866E-1	9.304841E-1	9.269285E-1	9.615032E-1	9.206266E-1	9.642598E-1	9.407082E-1	9.286492E-1	8.934198E-1	9.088921E-1	9.578594E-1	9.713966E-1	9.028548E-1	9.174676E-1	9.786978E-1	9.060544E-1	9.045646E-1	9.796380E-1	9.540646E-1	9.375476E-1	8.849809E-1	9.684422E-1	9.282266E-1	9.269141E-1	9.675207E-1	9.502593E-1	9.153703E-1	9.086955E-1	1.018712E+0	9.481283E-1	9.430876E-1	9.009634E-1	9.340502E-1	9.239274E-1	8.919965E-1	9.175874E-1	8.966781E-1	9.626762E-1	9.283958E-1	9.749336E-1	9.219915E-1	8.995460E-1	9.124644E-1	9.611356E-1	8.846553E-1	8.829081E-1	9.560589E-1	9.849855E-1	9.224561E-1	9.345870E-1	9.452602E-1	9.886457E-1	9.502943E-1	9.507688E-1	9.580632E-1	9.406570E-1	9.793507E-1	9.427626E-1	9.607605E-1	9.546595E-1	9.162170E-1	9.342390E-1	8.817574E-1	9.371831E-1	9.463095E-1	9.320054E-1	9.586114E-1	9.582808E-1	8.658734E-1	9.710281E-1	8.967847E-1	9.625228E-1	9.630869E-1	9.415877E-1	9.441849E-1	9.041930E-1	9.145218E-1	9.511863E-1	9.527115E-1	9.278321E-1	1.020670E+0	9.611607E-1	9.059786E-1	9.287494E-1	9.626402E-1	9.136623E-1	9.412362E-1	9.716884E-1	9.388462E-1	9.063861E-1	8.599049E-1	9.311922E-1	1.040987E+0	9.071202E-1	9.618742E-1	9.596173E-1	9.373497E-1	9.515786E-1	9.114969E-1	9.902570E-1	9.346830E-1	9.331830E-1	9.473382E-1	9.237356E-1	9.654990E-1	9.139456E-1	9.590128E-1	9.506016E-1	9.563641E-1	9.347178E-1	9.130661E-1	9.305678E-1	9.357720E-1	1.012419E+0	9.038847E-1	9.313125E-1	9.813698E-1	9.867881E-1	9.590842E-1	1.005424E+0	9.845615E-1	9.251174E-1	9.357448E-1	9.761226E-1	9.701420E-1	9.289944E-1	9.719861E-1	9.460817E-1	9.808528E-1	9.122380E-1	9.525201E-1	8.961662E-1	9.594375E-1	9.430714E-1	9.176505E-1	9.941346E-1	9.818070E-1	9.886826E-1	9.073841E-1	9.875526E-1	9.632050E-1	9.801040E-1	9.422233E-1	9.549192E-1	9.781806E-1	9.177812E-1	9.589490E-1	9.384329E-1	9.723676E-1	9.347588E-1	9.071723E-1	9.586091E-1	9.647925E-1	9.874114E-1	9.379213E-1	9.572775E-1	9.748871E-1	9.875914E-1	9.289956E-1	9.753381E-1	8.827804E-1	9.395228E-1	9.226474E-1	1.014386E+0
2.874030E+2	9.137681E-1	8.091776E-1	8.831927E-1	8.351748E-1	8.999060E-1	8.701950E-1	8.247451E-1	8.826442E-1	8.769751E-1	8.232199E-1	9.101050E-1	8.690952E-1	8.938473E-1	8.486675E-1	8.678138E-1	8.949241E-1	8.305839E-1	8.533366E-1	8.964125E-1	8.686927E-1	8.570487E-1	8.791285E-1	8.600495E-1	8.621062E-1	8.727376E-1	8.697560E-1	8.700834E-1	8.342158E-1	8.945879E-1	9.045910E-1	9.026903E-1	8.905182E-1	8.511666E-1	8.781795E-1	8.931547E-1	8.451914E-1	8.818222E-1	8.785048E-1	8.178467E-1	8.417315E-1	8.743418E-1	9.146213E-1	9.039259E-1	8.741898E-1	8.994145E-1	8.892775E-1	8.725733E-1	8.832712E-1	8.675055E-1	8.799133E-1	8.902524E-1	8.550334E-1	9.250415E-1	8.920856E-1	8.584798E-1	8.389617E-1	9.433532E-1	8.082183E-1	9.024576E-1	8.681646E-1	8.603026E-1	8.637329E-1	8.852190E-1	9.189238E-1	8.499549E-1	8.563972E-1	8.786257E-1	8.746405E-1	8.983217E-1	8.495672E-1	9.080537E-1	9.237863E-1	8.682916E-1	9.027469E-1	8.204748E-1	8.622120E-1	9.016445E-1	8.350070E-1	9.263302E-1	9.038032E-1	8.404516E-1	8.212943E-1	8.636968E-1	8.892385E-1	8.937927E-1	8.747688E-1	8.683171E-1	8.976788E-1	8.331926E-1	8.856912E-1	8.880087E-1	9.418286E-1	8.741453E-1	9.389330E-1	8.913763E-1	8.808066E-1	8.540611E-1	8.224958E-1	9.060639E-1	9.598589E-1	8.828357E-1	8.775029E-1	8.989592E-1	9.115366E-1	8.958383E-1	8.974769E-1	8.958738E-1	8.981990E-1	8.827306E-1	8.222549E-1	8.828672E-1	8.891578E-1	8.654421E-1	9.379591E-1	8.840416E-1	9.448580E-1	8.962185E-1	8.594724E-1	8.578324E-1	8.146749E-1	9.145820E-1	8.488254E-1	8.785415E-1	8.630072E-1	9.202813E-1	8.502430E-1	9.085742E-1	8.994777E-1	8.824900E-1	8.532137E-1	9.064171E-1	9.148154E-1	8.512931E-1	8.772279E-1	8.508986E-1	9.574458E-1	8.894527E-1	8.717461E-1	9.042015E-1	9.053543E-1	9.152298E-1	8.581805E-1	9.278893E-1	8.510274E-1	8.914165E-1	9.064822E-1	8.388990E-1	9.099616E-1	9.387212E-1	8.658092E-1	9.400858E-1	8.582842E-1	9.034507E-1	9.010909E-1	9.033623E-1	8.806369E-1	8.903251E-1	8.979500E-1	8.943327E-1	8.887545E-1	9.243620E-1	9.174302E-1	8.801008E-1	9.422449E-1	9.401613E-1	8.688358E-1	9.036926E-1	8.785173E-1	8.865372E-1	8.129512E-1	9.190586E-1
2.876140E+2	8.109097E-1	8.133668E-1	7.919569E-1	8.648547E-1	7.892781E-1	7.895722E-1	8.255878E-1	8.319747E-1	8.482092E-1	7.978831E-1	7.908940E-1	7.899926E-1	8.552540E-1	8.554114E-1	8.240146E-1	8.332258E-1	8.097394E-1	8.389653E-1	8.593911E-1	8.194465E-1	8.046599E-1	8.373151E-1	8.411502E-1	8.418002E-1	8.536063E-1	8.175424E-1	8.274940E-1	8.209766E-1	8.347282E-1	7.967612E-1	8.295624E-1	8.714581E-1	8.517830E-1	8.038148E-1	8.559319E-1	8.490398E-1	8.284472E-1	8.285160E-1	8.322791E-1	8.660937E-1	8.058990E-1	8.524717E-1	8.663973E-1	8.435826E-1	8.745130E-1	8.279755E-1	8.115099E-1	8.548856E-1	8.312750E-1	8.494222E-1	8.094441E-1	8.848682E-1	8.665383E-1	8.443167E-1	8.362279E-1	8.395698E-1	8.905790E-1	8.266932E-1	8.172664E-1	8.286733E-1	8.571097E-1	8.200849E-1	8.096669E-1	8.014764E-1	7.881420E-1	8.300434E-1	8.362688E-1	8.413034E-1	8.201579E-1	8.171408E-1	8.403229E-1	8.218173E-1	9.088189E-1	8.356176E-1	8.606756E-1	8.356757E-1	8.531236E-1	8.494527E-1	8.404960E-1	8.861179E-1	8.295668E-1	8.042492E-1	8.808179E-1	8.332397E-1	8.637716E-1	8.440600E-1	8.279824E-1	8.254003E-1	8.135669E-1	8.046549E-1	8.780700E-1	8.663128E-1	8.183542E-1	7.692640E-1	8.782012E-1	7.552239E-1	8.418259E-1	7.808619E-1	8.521874E-1	8.283197E-1	8.388604E-1	8.120118E-1	7.962672E-1	8.584873E-1	8.704162E-1	8.114407E-1	8.460397E-1	8.452424E-1	8.352512E-1	8.738323E-1	8.596889E-1	8.385827E-1	8.427163E-1	8.105605E-1	9.072335E-1	8.265902E-1	8.219060E-1	8.409910E-1	7.735831E-1	8.405505E-1	8.997204E-1	8.440234E-1	8.059139E-1	7.995792E-1	8.519947E-1	8.448167E-1	8.562127E-1	8.413655E-1	8.158683E-1	8.364537E-1	8.519027E-1	8.641406E-1	8.714155E-1	8.389387E-1	8.727390E-1	8.095482E-1	8.467007E-1	8.464004E-1	8.396180E-1	8.343487E-1	8.402775E-1	8.191837E-1	8.730378E-1	8.559938E-1	8.378217E-1	8.385742E-1	8.387912E-1	8.173763E-1	8.325040E-1	8.857494E-1	8.667009E-1	8.382080E-1	8.780953E-1	8.237382E-1	8.467624E-1	8.571120E-1	7.877502E-1	7.689749E-1	8.790801E-1	8.901667E-1	8.109177E-1	8.003327E-1	8.787541E-1	8.388922E-1	8.650442E-1	8.169497E-1	8.291233E-1	8.040254E-1	7.928625E-1	8.380928E-1	8.764205E-1
2.878000E+2	7.866183E-1	8.096870E-1	7.994275E-1	8.351865E-1	8.192091E-1	7.754167E-1	7.948589E-1	7.598584E-1	8.308428E-1	7.808362E-1	8.418692E-1	8.196710E-1	7.912589E-1	7.782999E-1	8.087308E-1	8.527254E-1	7.867177E-1	7.641511E-1	7.810879E-1	8.337664E-1	8.456616E-1	8.014344E-1	8.071936E-1	8.037849E-1	8.566461E-1	7.749405E-1	8.010371E-1	7.768018E-1	8.184901E-1	8.119365E-1	8.318503E-1	8.304121E-1	7.893030E-1	7.926728E-1	7.599836E-1	8.128962E-1	8.380062E-1	8.059111E-1	7.743421E-1	8.176119E-1	7.841083E-1	8.062332E-1	7.579744E-1	8.152622E-1	8.609876E-1	8.502495E-1	8.364009E-1	8.505655E-1	8.113279E-1	7.605899E-1	7.924855E-1	8.471952E-1	8.300031E-1	7.715352E-1	8.050311E-1	8.044169E-1	8.459630E-1	7.896900E-1	8.391704E-1	8.180538E-1	8.142393E-1	8.134276E-1	8.064086E-1	7.869728E-1	8.099450E-1	7.672269E-1	8.345225E-1	8.397561E-1	8.323164E-1	7.900666E-1	7.887314E-1	8.356785E-1	7.990544E-1	8.012655E-1	8.329984E-1	7.936700E-1	8.482804E-1	7.971850E-1	8.376520E-1	8.053953E-1	8.526231E-1	7.884405E-1	7.889928E-1	8.224480E-1	8.038670E-1	8.128416E-1	8.105067E-1	7.734554E-1	8.131603E-1	8.144013E-1	8.467046E-1	8.234947E-1	8.276434E-1	8.080555E-1	8.158742E-1	7.845970E-1	7.768168E-1	7.730748E-1	8.261772E-1	8.149839E-1	7.837539E-1	8.071701E-1	8.228902E-1	8.023202E-1	7.781195E-1	8.029363E-1	8.200288E-1	8.202889E-1	8.026532E-1	7.643750E-1	8.418681E-1	8.465900E-1	8.060570E-1	7.932107E-1	8.030816E-1	8.431173E-1	8.693032E-1	7.846816E-1	7.857441E-1	8.259012E-1	8.628734E-1	8.229689E-1	7.984465E-1	7.831413E-1	8.314427E-1	8.191831E-1	8.182861E-1	8.574345E-1	7.812216E-1	7.642468E-1	7.758335E-1	7.455373E-1	8.012574E-1	8.180992E-1	8.106838E-1	8.392352E-1	8.211171E-1	7.922761E-1	7.563922E-1	7.597117E-1	7.609143E-1	8.198009E-1	8.502271E-1	8.417399E-1	8.120164E-1	7.956546E-1	7.883827E-1	8.476100E-1	7.733851E-1	8.227695E-1	8.114794E-1	8.143046E-1	8.504955E-1	8.309215E-1	8.675579E-1	8.078501E-1	7.960376E-1	8.234555E-1	8.033886E-1	8.497443E-1	8.364632E-1	8.131415E-1	7.911818E-1	7.901646E-1	8.672233E-1	7.744159E-1	8.044626E-1	8.284239E-1	8.342498E-1	8.063561E-1	8.306210E-1
2.880040E+2	7.664036E-1	7.604650E-1	7.580750E-1	7.773881E-1	7.861094E-1	7.779652E-1	7.819907E-1	7.615613E-1	8.066323E-1	7.235359E-1	7.724875E-1	8.036228E-1	8.239054E-1	8.087841E-1	8.185728E-1	7.458443E-1	7.805896E-1	7.712475E-1	7.648083E-1	7.734578E-1	7.831129E-1	7.824519E-1	7.455013E-1	7.567751E-1	7.927630E-1	7.711755E-1	7.953776E-1	7.538714E-1	7.706372E-1	7.904065E-1	7.769296E-1	8.045573E-1	8.181199E-1	8.082213E-1	7.867825E-1	7.841313E-1	7.808716E-1	7.840596E-1	7.685608E-1	8.010112E-1	8.035122E-1	7.827862E-1	7.526931E-1	8.400877E-1	8.268332E-1	7.627483E-1	7.780480E-1	8.146814E-1	7.659311E-1	7.518292E-1	7.993877E-1	7.507559E-1	7.908939E-1	8.152109E-1	7.844029E-1	8.326732E-1	8.382572E-1	7.712191E-1	8.204031E-1	7.567424E-1	7.839166E-1	7.931074E-1	7.771901E-1	8.131407E-1	8.171130E-1	7.555435E-1	8.140963E-1	7.601923E-1	7.429977E-1	7.699878E-1	7.747021E-1	8.278936E-1	8.395451E-1	8.015613E-1	7.972034E-1	7.784780E-1	8.444351E-1	8.176311E-1	8.188777E-1	7.912322E-1	8.137112E-1	7.391514E-1	7.604426E-1	7.948303E-1	7.617601E-1	7.660425E-1	8.029578E-1	7.715527E-1	7.769088E-1	7.894811E-1	8.054444E-1	8.369200E-1	7.667636E-1	7.800996E-1	7.812447E-1	8.155482E-1	7.523270E-1	7.807760E-1	7.818258E-1	8.161647E-1	7.596140E-1	8.009855E-1	7.558544E-1	7.752466E-1	8.292475E-1	7.554981E-1	8.413093E-1	8.124444E-1	7.958508E-1	8.065970E-1	7.866129E-1	8.113253E-1	7.839112E-1	7.898372E-1	7.870040E-1	9.034680E-1	7.701922E-1	8.195498E-1	7.332293E-1	7.746199E-1	8.115984E-1	7.846185E-1	7.445706E-1	8.570735E-1	8.094007E-1	7.734094E-1	8.130660E-1	8.030216E-1	7.744723E-1	7.128916E-1	8.059022E-1	7.704604E-1	8.042946E-1	7.932706E-1	7.993973E-1	8.426862E-1	8.012363E-1	7.419611E-1	7.949619E-1	7.914701E-1	8.045870E-1	7.337767E-1	7.931725E-1	8.145030E-1	7.859851E-1	7.359969E-1	8.046251E-1	8.192894E-1	7.880621E-1	7.904280E-1	7.761922E-1	8.032316E-1	7.895860E-1	7.911964E-1	8.310011E-1	8.195876E-1	7.663432E-1	8.019831E-1	7.679590E-1	7.854347E-1	8.593361E-1	7.764365E-1	7.870149E-1	8.000980E-1	8.308992E-1	7.675581E-1	7.361449E-1	7.695739E-1	7.676542E-1	7.900353E-1	8.299620E-1
2.882060E+2	7.412642E-1	7.524315E-1	7.201720E-1	7.188623E-1	7.339241E-1	7.229234E-1	7.142775E-1	6.769237E-1	7.589126E-1	7.053246E-1	7.454535E-1	7.230122E-1	7.584962E-1	7.838910E-1	7.634442E-1	7.458406E-1	7.257796E-1	7.534219E-1	7.259389E-1	7.335821E-1	7.154412E-1	7.669502E-1	7.388826E-1	7.401873E-1	7.810498E-1	7.368407E-1	7.223572E-1	7.484039E-1	7.638079E-1	7.370622E-1	7.484341E-1	7.564106E-1	7.329260E-1	7.457640E-1	7.332877E-1	7.577891E-1	7.999993E-1	7.653961E-1	7.699901E-1	7.193799E-1	7.349068E-1	7.370736E-1	7.940850E-1	8.341260E-1	7.814495E-1	7.648055E-1	7.471345E-1	7.826801E-1	7.251657E-1	7.639572E-1	7.415713E-1	7.327885E-1	7.243592E-1	7.261264E-1	7.467465E-1	7.283672E-1	7.130963E-1	7.428953E-1	7.549756E-1	7.335960E-1	7.928869E-1	7.321763E-1	8.028931E-1	7.949270E-1	7.569327E-1	7.436763E-1	7.741245E-1	7.543212E-1	7.742666E-1	7.740420E-1	7.549702E-1	7.429228E-1	7.793468E-1	7.623817E-1	7.506947E-1	7.613409E-1	7.233581E-1	7.666002E-1	7.818171E-1	7.554726E-1	7.354515E-1	7.276697E-1	7.461861E-1	7.651731E-1	7.704627E-1	7.371721E-1	7.628590E-1	7.678745E-1	7.762621E-1	7.235464E-1	7.880832E-1	7.669859E-1	7.522533E-1	7.456914E-1	7.645529E-1	7.453401E-1	7.753266E-1	7.179115E-1	7.753682E-1	7.869888E-1	7.392344E-1	7.284054E-1	7.813925E-1	7.879539E-1	7.938845E-1	7.538749E-1	7.556114E-1	7.500783E-1	7.483947E-1	7.659072E-1	7.757700E-1	7.648987E-1	7.373502E-1	7.496816E-1	8.033195E-1	8.041196E-1	7.343598E-1	7.716782E-1	7.564093E-1	7.436470E-1	8.014603E-1	7.520115E-1	7.335209E-1	8.130504E-1	7.744899E-1	7.325064E-1	7.445444E-1	7.769041E-1	7.555911E-1	7.107096E-1	7.589617E-1	6.864178E-1	7.110061E-1	7.694619E-1	7.679224E-1	7.304321E-1	7.560496E-1	7.190862E-1	7.357364E-1	7.389210E-1	7.337412E-1	7.130006E-1	7.920830E-1	7.622947E-1	7.711104E-1	7.204823E-1	7.304928E-1	7.744314E-1	7.592683E-1	7.245281E-1	7.736967E-1	7.540979E-1	7.299062E-1	7.322619E-1	7.733190E-1	7.508536E-1	7.672646E-1	7.177508E-1	7.688914E-1	8.288541E-1	7.959888E-1	7.082296E-1	8.029378E-1	7.594813E-1	7.405467E-1	7.389603E-1	7.373490E-1	7.604507E-1	7.457318E-1	7.216224E-1	8.369163E-1
2.884230E+2	9.121153E-1	8.841283E-1	9.090945E-1	8.781387E-1	9.451054E-1	8.849844E-1	9.160021E-1	9.536534E-1	9.492124E-1	9.455258E-1	9.411713E-1	9.389447E-1	9.512406E-1	9.483743E-1	9.498908E-1	9.399549E-1	9.305558E-1	9.775190E-1	9.688079E-1	9.300878E-1	9.645237E-1	9.566379E-1	9.048003E-1	9.644781E-1	9.759167E-1	9.695052E-1	9.512390E-1	9.637598E-1	9.560460E-1	9.681679E-1	9.373195E-1	1.001534E+0	9.205890E-1	9.447991E-1	9.363766E-1	9.624889E-1	1.005416E+0	9.330818E-1	9.526953E-1	9.453011E-1	9.549248E-1	9.597513E-1	9.722770E-1	9.655690E-1	9.405609E-1	9.490697E-1	9.118384E-1	9.768962E-1	9.589787E-1	9.439691E-1	9.674540E-1	9.642805E-1	9.382617E-1	9.570936E-1	9.543044E-1	9.314377E-1	1.039812E+0	9.480604E-1	9.148300E-1	9.440014E-1	9.589689E-1	9.435120E-1	9.348975E-1	9.747433E-1	9.285900E-1	9.080692E-1	9.587378E-1	9.908557E-1	9.468995E-1	9.267026E-1	9.496605E-1	9.618435E-1	9.918377E-1	9.778060E-1	9.009426E-1	9.131211E-1	9.254938E-1	1.020773E+0	9.845556E-1	1.005869E+0	9.677698E-1	9.411847E-1	9.847914E-1	1.021084E+0	9.823267E-1	9.618357E-1	8.707961E-1	9.604513E-1	8.861022E-1	9.247615E-1	9.224844E-1	9.820987E-1	9.229854E-1	9.245488E-1	9.184688E-1	9.804615E-1	9.285842E-1	9.491591E-1	9.739621E-1	9.493604E-1	9.665873E-1	9.223032E-1	9.379706E-1	9.744599E-1	9.747075E-1	9.627055E-1	9.641393E-1	9.658734E-1	9.766561E-1	9.816358E-1	9.599379E-1	9.561739E-1	9.683832E-1	9.720067E-1	9.831218E-1	9.686345E-1	9.595426E-1	9.237459E-1	9.655330E-1	9.565436E-1	9.794411E-1	1.013079E+0	9.674606E-1	9.127465E-1	9.397640E-1	9.218505E-1	9.269246E-1	9.819440E-1	9.599515E-1	9.560183E-1	9.511362E-1	9.345636E-1	8.789078E-1	9.133731E-1	9.267476E-1	9.526207E-1	9.355995E-1	9.386037E-1	9.637498E-1	9.622963E-1	9.345496E-1	9.033645E-1	9.425273E-1	9.353062E-1	9.262468E-1	9.296906E-1	9.723632E-1	1.018573E+0	9.708971E-1	9.484820E-1	9.466193E-1	9.766574E-1	1.018206E+0	9.010266E-1	9.487968E-1	9.833158E-1	9.529158E-1	9.683454E-1	9.058650E-1	9.223997E-1	1.003074E+0	9.690601E-1	9.468908E-1	8.982932E-1	9.752937E-1	8.790818E-1	9.363109E-1	9.573124E-1	9.491184E-1	9.551515E-1	1.070916E+0
2.886030E+2	1.157944E+0	1.093911E+0	1.173285E+0	1.137462E+0	1.213017E+0	1.165458E+0	1.170044E+0	1.213879E+0	1.226759E+0	1.151323E+0	1.197735E+0	1.211343E+0	1.222498E+0	1.163382E+0	1.146801E+0	1.170159E+0	1.183385E+0	1.177070E+0	1.233003E+0	1.148828E+0	1.193971E+0	1.173823E+0	1.220182E+0	1.213405E+0	1.194318E+0	1.227508E+0	1.156573E+0	1.178654E+0	1.212557E+0	1.125756E+0	1.139223E+0	1.177281E+0	1.189147E+0	1.160912E+0	1.156601E+0	1.238935E+0	1.189036E+0	1.216937E+0	1.170578E+0	1.178528E+0	1.224640E+0	1.141384E+0	1.141945E+0	1.207034E+0	1.253148E+0	1.178279E+0	1.168219E+0	1.221857E+0	1.196144E+0	1.189275E+0	1.199375E+0	1.230199E+0	1.206916E+0	1.216784E+0	1.190122E+0	1.138373E+0	1.282516E+0	1.185802E+0	1.183458E+0	1.166572E+0	1.263649E+0	1.181898E+0	1.161726E+0	1.221084E+0	1.168970E+0	1.199723E+0	1.210567E+0	1.252812E+0	1.139237E+0	1.151657E+0	1.183666E+0	1.210058E+0	1.181019E+0	1.125149E+0	1.192251E+0	1.234075E+0	1.214032E+0	1.171095E+0	1.169798E+0	1.215341E+0	1.210148E+0	1.144587E+0	1.170069E+0	1.244188E+0	1.196599E+0	1.236821E+0	1.258281E+0	1.201782E+0	1.171970E+0	1.128372E+0	1.175644E+0	1.189683E+0	1.184961E+0	1.233615E+0	1.152967E+0	1.221869E+0	1.176032E+0	1.141109E+0	1.176217E+0	1.265519E+0	1.208769E+0	1.156287E+0	1.190059E+0	1.217098E+0	1.208026E+0	1.116750E+0	1.197960E+0	1.251125E+0	1.166291E+0	1.164924E+0	1.151680E+0	1.187668E+0	1.174942E+0	1.230629E+0	1.221283E+0	1.217981E+0	1.173156E+0	1.121276E+0	1.143621E+0	1.189944E+0	1.185843E+0	1.219966E+0	1.119900E+0	1.176877E+0	1.198672E+0	1.178489E+0	1.180871E+0	1.250914E+0	1.145392E+0	1.186866E+0	1.189748E+0	1.209984E+0	1.189400E+0	1.228251E+0	1.190629E+0	1.246436E+0	1.226536E+0	1.182658E+0	1.118120E+0	1.208762E+0	1.148300E+0	1.174963E+0	1.185738E+0	1.222178E+0	1.179922E+0	1.131646E+0	1.183278E+0	1.227203E+0	1.152490E+0	1.170073E+0	1.193955E+0	1.197472E+0	1.182666E+0	1.163034E+0	1.157249E+0	1.205604E+0	1.168887E+0	1.145116E+0	1.195449E+0	1.282936E+0	1.204513E+0	1.211898E+0	1.149371E+0	1.178131E+0	1.211323E+0	1.123664E+0	1.198062E+0	1.167093E+0	1.197663E+0	1.205435E+0	1.168330E+0
2.888170E+2	1.269511E+0	1.266142E+0	1.286902E+0	1.293808E+0	1.295522E+0	1.308407E+0	1.208970E+0	1.315683E+0	1.297054E+0	1.159277E+0	1.264724E+0	1.273435E+0	1.282134E+0	1.251418E+0	1.201126E+0	1.230946E+0	1.305484E+0	1.202780E+0	1.247353E+0	1.301700E+0	1.233540E+0	1.250346E+0	1.223343E+0	1.249377E+0	1.237242E+0	1.265306E+0	1.262396E+0	1.244580E+0	1.219921E+0	1.258811E+0	1.261295E+0	1.238427E+0	1.199547E+0	1.181748E+0	1.252755E+0	1.245601E+0	1.247055E+0	1.226609E+0	1.250101E+0	1.224722E+0	1.291363E+0	1.236670E+0	1.296729E+0	1.279028E+0	1.227657E+0	1.281666E+0	1.207531E+0	1.270418E+0	1.285484E+0	1.224624E+0	1.206492E+0	1.221024E+0	1.246675E+0	1.214769E+0	1.252560E+0	1.219917E+0	1.304158E+0	1.195280E+0	1.222422E+0	1.228302E+0	1.239751E+0	1.216104E+0	1.240884E+0	1.282999E+0	1.235503E+0	1.235653E+0	1.240356E+0	1.284655E+0	1.300151E+0	1.255265E+0	1.247704E+0	1.215260E+0	1.222529E+0	1.249203E+0	1.220759E+0	1.253336E+0	1.237746E+0	1.258803E+0	1.278797E+0	1.346118E+0	1.253928E+0	1.186895E+0	1.210051E+0	1.330336E+0	1.192432E+0	1.177400E+0	1.276720E+0	1.278180E+0	1.241276E+0	1.240925E+0	1.264683E+0	1.323999E+0	1.218722E+0	1.329318E+0	1.239507E+0	1.231030E+0	1.255528E+0	1.245831E+0	1.282301E+0	1.310498E+0	1.324694E+0	1.253701E+0	1.244940E+0	1.290795E+0	1.258900E+0	1.231245E+0	1.237428E+0	1.280179E+0	1.270028E+0	1.260587E+0	1.241302E+0	1.265691E+0	1.231088E+0	1.274815E+0	1.268940E+0	1.248548E+0	1.246542E+0	1.223869E+0	1.206980E+0	1.244732E+0	1.313985E+0	1.222798E+0	1.250175E+0	1.228900E+0	1.263246E+0	1.246202E+0	1.242764E+0	1.316628E+0	1.296128E+0	1.213880E+0	1.264586E+0	1.245904E+0	1.255816E+0	1.247007E+0	1.297735E+0	1.291380E+0	1.224059E+0	1.222384E+0	1.251262E+0	1.238136E+0	1.268103E+0	1.214902E+0	1.280600E+0	1.274672E+0	1.226794E+0	1.226011E+0	1.285874E+0	1.250527E+0	1.264876E+0	1.239564E+0	1.287516E+0	1.329320E+0	1.336153E+0	1.246955E+0	1.275122E+0	1.303755E+0	1.268623E+0	1.262336E+0	1.262930E+0	1.260191E+0	1.230965E+0	1.294324E+0	1.269373E+0	1.248173E+0	1.312088E+0	1.236594E+0	1.272251E+0	1.294645E+0	1.310402E+0	1.179545E+0	1.358552E+0
2.890150E+2	1.143509E+0	1.129746E+0	1.085105E+0	1.061585E+0	1.124099E+0	1.064223E+0	1.085906E+0	1.100832E+0	1.129154E+0	1.062582E+0	1.146380E+0	1.133641E+0	1.134749E+0	1.090778E+0	1.070587E+0	1.122251E+0	1.041343E+0	1.128329E+0	1.115167E+0	1.149278E+0	1.107379E+0	1.140297E+0	1.076887E+0	1.046785E+0	1.087707E+0	1.084474E+0	1.086444E+0	1.057268E+0	1.161917E+0	1.021962E+0	1.075199E+0	1.086743E+0	1.046219E+0	1.055507E+0	1.067795E+0	1.153191E+0	1.064117E+0	1.046891E+0	1.074467E+0	1.077038E+0	1.108047E+0	1.134462E+0	1.086098E+0	1.123669E+0	1.112375E+0	1.083119E+0	1.119030E+0	1.080729E+0	1.073019E+0	1.112033E+0	1.141906E+0	1.086299E+0	1.071547E+0	1.053686E+0	1.110902E+0	1.092765E+0	1.087193E+0	1.109279E+0	1.079572E+0	1.092565E+0	1.074755E+0	1.089398E+0	1.054817E+0	1.147202E+0	1.035586E+0	1.142429E+0	1.087483E+0	1.098517E+0	1.036348E+0	1.028812E+0	1.055422E+0	1.119553E+0	1.133055E+0	1.064333E+0	1.052494E+0	1.102219E+0	1.052647E+0	1.131086E+0	1.119622E+0	1.091435E+0	1.101949E+0	1.027761E+0	1.085448E+0	1.132804E+0	1.095602E+0	1.057380E+0	1.048826E+0	1.048417E+0	1.134837E+0	1.062831E+0	1.116310E+0	1.122185E+0	1.116896E+0	1.131674E+0	1.090654E+0	1.140353E+0	1.070245E+0	1.145016E+0	1.128616E+0	1.124796E+0	1.079848E+0	1.093688E+0	1.064667E+0	1.121312E+0	1.070543E+0	1.099848E+0	1.092681E+0	1.088832E+0	1.079014E+0	1.077149E+0	1.065162E+0	1.080975E+0	1.081338E+0	1.076089E+0	1.051324E+0	1.134708E+0	1.088358E+0	1.128318E+0	1.110027E+0	1.104555E+0	1.145515E+0	1.086202E+0	1.090469E+0	1.071692E+0	1.201751E+0	1.088494E+0	1.081205E+0	1.118791E+0	1.072413E+0	1.132803E+0	1.141983E+0	1.144576E+0	1.081838E+0	1.073032E+0	1.078356E+0	1.149198E+0	1.051366E+0	1.045076E+0	1.112132E+0	1.093590E+0	1.084523E+0	1.041863E+0	1.136813E+0	1.084335E+0	1.079440E+0	1.087850E+0	1.073171E+0	1.094372E+0	1.174018E+0	1.128123E+0	1.094352E+0	1.126141E+0	1.079355E+0	1.108105E+0	1.038845E+0	1.107563E+0	1.087465E+0	1.085006E+0	1.105346E+0	1.170597E+0	1.180183E+0	1.145240E+0	1.135394E+0	1.119846E+0	1.153102E+0	1.036025E+0	1.087484E+0	1.073782E+0	1.088473E+0	1.109311E+0	1.010559E+0
2.892020E+2	8.854310E-1	8.462656E-1	8.434307E-1	8.533454E-1	8.129437E-1	8.315904E-1	8.153482E-1	8.732405E-1	8.417155E-1	8.335460E-1	7.900021E-1	8.264990E-1	8.335711E-1	8.331273E-1	8.620169E-1	8.413289E-1	8.647243E-1	8.008785E-1	8.632736E-1	8.709967E-1	8.378382E-1	8.036030E-1	8.355089E-1	8.579919E-1	7.991979E-1	8.545666E-1	8.441957E-1	8.658149E-1	7.850536E-1	8.493791E-1	8.419139E-1	9.063366E-1	7.400245E-1	8.470751E-1	8.353648E-1	8.762318E-1	8.298851E-1	8.427774E-1	8.026311E-1	8.173280E-1	8.444043E-1	8.531188E-1	8.869376E-1	8.167310E-1	8.749241E-1	8.250322E-1	8.169587E-1	8.540729E-1	8.276812E-1	8.448871E-1	8.112364E-1	8.638831E-1	8.914961E-1	8.895866E-1	8.164153E-1	8.391682E-1	8.599123E-1	8.216141E-1	8.468745E-1	7.867798E-1	8.325534E-1	8.342514E-1	8.106207E-1	8.523389E-1	8.219761E-1	8.465175E-1	8.168888E-1	8.654741E-1	8.102269E-1	8.331127E-1	8.488336E-1	8.915986E-1	8.742930E-1	8.479865E-1	8.363957E-1	8.020473E-1	7.874496E-1	8.592118E-1	8.472815E-1	8.324563E-1	8.586930E-1	8.035660E-1	8.523596E-1	8.796458E-1	8.834528E-1	8.493181E-1	8.475664E-1	8.302576E-1	8.299884E-1	8.425880E-1	8.469749E-1	8.436705E-1	8.281400E-1	9.019041E-1	8.719196E-1	8.249099E-1	8.492490E-1	8.242414E-1	8.751642E-1	8.568185E-1	8.303116E-1	8.287749E-1	8.214264E-1	8.598828E-1	8.986022E-1	8.235775E-1	8.148605E-1	7.828017E-1	8.023899E-1	8.217644E-1	8.503505E-1	8.411611E-1	8.290890E-1	8.574412E-1	9.236028E-1	9.228113E-1	8.406324E-1	8.127187E-1	8.525507E-1	8.684828E-1	8.857613E-1	8.488989E-1	8.035456E-1	8.245901E-1	8.353566E-1	8.896328E-1	8.984395E-1	8.915296E-1	8.401963E-1	7.602663E-1	8.822239E-1	9.009174E-1	8.190597E-1	8.659017E-1	8.850107E-1	8.909155E-1	8.515378E-1	8.333481E-1	8.566551E-1	8.737434E-1	8.078790E-1	8.656907E-1	8.729620E-1	8.766011E-1	8.679936E-1	8.030623E-1	8.690753E-1	8.399765E-1	8.915383E-1	8.607550E-1	8.224640E-1	8.725208E-1	8.489831E-1	8.869484E-1	8.358239E-1	8.565364E-1	8.736339E-1	8.785717E-1	8.258422E-1	9.146767E-1	8.447397E-1	8.277569E-1	8.702413E-1	8.524840E-1	9.088145E-1	8.072610E-1	9.023850E-1	7.970010E-1	8.353502E-1	9.600405E-1	8.306740E-1
2.894020E+2	8.436435E-1	8.161988E-1	8.201366E-1	8.418466E-1	8.231959E-1	9.000343E-1	7.828533E-1	8.573892E-1	8.261412E-1	8.212965E-1	8.794043E-1	8.311776E-1	7.987097E-1	8.173446E-1	8.336595E-1	8.111135E-1	8.409585E-1	8.141721E-1	8.406082E-1	7.989848E-1	8.790357E-1	8.389076E-1	8.780477E-1	8.864862E-1	8.808315E-1	8.619603E-1	8.710869E-1	8.258576E-1	8.828196E-1	8.341414E-1	8.748755E-1	8.655857E-1	8.496366E-1	8.251953E-1	8.760125E-1	8.769499E-1	8.499586E-1	8.733001E-1	8.345306E-1	8.117989E-1	8.534221E-1	8.368133E-1	8.075245E-1	8.575506E-1	9.140591E-1	8.220598E-1	8.002634E-1	8.301529E-1	8.199448E-1	8.224705E-1	8.492527E-1	8.695169E-1	8.531341E-1	8.190530E-1	8.421176E-1	8.290901E-1	8.778697E-1	8.256476E-1	8.558110E-1	8.426124E-1	8.089548E-1	8.130496E-1	8.228839E-1	8.643821E-1	7.924570E-1	8.275353E-1	8.140815E-1	8.493003E-1	8.321256E-1	7.839973E-1	8.323697E-1	8.661537E-1	8.408656E-1	8.573291E-1	8.652087E-1	8.692830E-1	8.736666E-1	8.071258E-1	9.015324E-1	8.560941E-1	8.293576E-1	8.776491E-1	8.173157E-1	9.375360E-1	8.587380E-1	8.475199E-1	8.309970E-1	8.483953E-1	8.229673E-1	8.740772E-1	8.039749E-1	8.895197E-1	8.399481E-1	8.801480E-1	8.208446E-1	8.424926E-1	8.459779E-1	8.735725E-1	8.343000E-1	8.961675E-1	8.156122E-1	8.548337E-1	8.203832E-1	8.440531E-1	8.109729E-1	8.072719E-1	8.403010E-1	8.635933E-1	8.486773E-1	8.325325E-1	8.861430E-1	8.375961E-1	8.278930E-1	8.425136E-1	8.620906E-1	8.319930E-1	8.419615E-1	8.452993E-1	8.866658E-1	7.975255E-1	8.499266E-1	8.449620E-1	8.297949E-1	8.713080E-1	8.753035E-1	8.302130E-1	8.709857E-1	8.343956E-1	8.046387E-1	8.371809E-1	8.480779E-1	8.322134E-1	8.907072E-1	8.818089E-1	8.473710E-1	8.547677E-1	8.553704E-1	8.055799E-1	8.612572E-1	8.839294E-1	8.398970E-1	8.473525E-1	9.146232E-1	8.698864E-1	8.256479E-1	8.119779E-1	8.449758E-1	9.000530E-1	8.357707E-1	8.651268E-1	8.191679E-1	8.577868E-1	8.793137E-1	8.365912E-1	8.523061E-1	8.570234E-1	8.666911E-1	8.436881E-1	8.289505E-1	8.486699E-1	8.777410E-1	8.436766E-1	8.370470E-1	8.774300E-1	8.310160E-1	8.129960E-1	8.516923E-1	8.293791E-1	8.995015E-1	8.436113E-1	8.661366E-1
2.896060E+2	9.039110E-1	8.855995E-1	8.665320E-1	9.127806E-1	8.567174E-1	8.609489E-1	8.585379E-1	9.079511E-1	8.697465E-1	7.822387E-1	9.131293E-1	9.155196E-1	8.801845E-1	8.595330E-1	8.612079E-1	9.187912E-1	9.193493E-1	8.929520E-1	9.014386E-1	8.308186E-1	8.657598E-1	9.266930E-1	9.042909E-1	8.859547E-1	9.503997E-1	9.361974E-1	8.674062E-1	8.677286E-1	8.550639E-1	8.747047E-1	9.061991E-1	8.709336E-1	8.505073E-1	9.017524E-1	9.137632E-1	8.667172E-1	8.852174E-1	8.744027E-1	9.054796E-1	8.122112E-1	8.815661E-1	8.839526E-1	9.483546E-1	8.918102E-1	8.807858E-1	9.061529E-1	8.657814E-1	9.489360E-1	9.037922E-1	8.926820E-1	8.460745E-1	8.961373E-1	9.425535E-1	8.622142E-1	8.895730E-1	8.989613E-1	8.741665E-1	8.920524E-1	9.307034E-1	9.295213E-1	8.513318E-1	9.027918E-1	8.910774E-1	9.204539E-1	8.987153E-1	8.915565E-1	8.988334E-1	8.931427E-1	8.782017E-1	8.544225E-1	8.831872E-1	9.349736E-1	8.878257E-1	9.091417E-1	8.861356E-1	9.058325E-1	9.007995E-1	8.461195E-1	9.042455E-1	9.184129E-1	9.096570E-1	8.886884E-1	8.786520E-1	9.019511E-1	8.743081E-1	8.799591E-1	8.461946E-1	8.584654E-1	9.246973E-1	9.051402E-1	8.824512E-1	9.066287E-1	9.067747E-1	9.064165E-1	9.104229E-1	8.443489E-1	8.581260E-1	8.892099E-1	8.927660E-1	9.033709E-1	8.944397E-1	8.701193E-1	8.543951E-1	9.190134E-1	8.758095E-1	9.094240E-1	8.861838E-1	9.418788E-1	8.822377E-1	8.932125E-1	9.127099E-1	9.161351E-1	9.039550E-1	9.284637E-1	9.026010E-1	8.962872E-1	8.689925E-1	8.381472E-1	8.825213E-1	8.804307E-1	9.041621E-1	8.914249E-1	8.816991E-1	9.094012E-1	9.095563E-1	9.443817E-1	8.850294E-1	9.170197E-1	8.903126E-1	8.964730E-1	8.780520E-1	9.101016E-1	9.401145E-1	9.532666E-1	9.273791E-1	9.433108E-1	8.914438E-1	9.262207E-1	8.624662E-1	9.289325E-1	8.548883E-1	8.434172E-1	9.169740E-1	8.738053E-1	9.031050E-1	8.585223E-1	8.767748E-1	9.024226E-1	9.345807E-1	8.791229E-1	9.118226E-1	9.154387E-1	8.643255E-1	7.646317E-1	8.720948E-1	9.102581E-1	9.472854E-1	9.118364E-1	8.834178E-1	9.692913E-1	9.733459E-1	9.122461E-1	9.123036E-1	9.303894E-1	9.477085E-1	9.080745E-1	9.280611E-1	8.721857E-1	8.695100E-1	8.921090E-1	8.488809E-1
2.898050E+2	9.495751E-1	9.364105E-1	8.953383E-1	8.786268E-1	8.348978E-1	8.714897E-1	8.478921E-1	9.194417E-1	9.397245E-1	8.993318E-1	9.234380E-1	9.040356E-1	8.753930E-1	9.176805E-1	8.669170E-1	8.700743E-1	8.775494E-1	8.919801E-1	9.219495E-1	9.082789E-1	9.651962E-1	9.408589E-1	8.526443E-1	9.160638E-1	8.832636E-1	8.954115E-1	8.840449E-1	8.770354E-1	8.940309E-1	9.112909E-1	9.687382E-1	9.106898E-1	9.034097E-1	9.235755E-1	8.692516E-1	9.052020E-1	9.214674E-1	9.035237E-1	9.190855E-1	9.083749E-1	9.511075E-1	8.652893E-1	8.700238E-1	8.662348E-1	8.966022E-1	9.108002E-1	8.854089E-1	9.481930E-1	9.296675E-1	9.241526E-1	8.949572E-1	8.328151E-1	8.898053E-1	8.946390E-1	8.416361E-1	8.782119E-1	9.227082E-1	8.539360E-1	9.180090E-1	8.980994E-1	8.910512E-1	8.923649E-1	8.948426E-1	9.444309E-1	8.653803E-1	8.676528E-1	9.116058E-1	9.475057E-1	8.761166E-1	9.192956E-1	9.167033E-1	9.193789E-1	8.916235E-1	9.045942E-1	9.014906E-1	8.675753E-1	8.803224E-1	8.805788E-1	8.815594E-1	8.702343E-1	9.510124E-1	8.795464E-1	8.445496E-1	9.081455E-1	8.763223E-1	9.041266E-1	8.958819E-1	9.248299E-1	9.027690E-1	9.220468E-1	9.084464E-1	9.235782E-1	8.869137E-1	9.753522E-1	9.712889E-1	8.373698E-1	9.028166E-1	8.605396E-1	8.862737E-1	9.632080E-1	9.535021E-1	9.124657E-1	9.025432E-1	9.298483E-1	9.473783E-1	8.850666E-1	9.060858E-1	9.341805E-1	8.628892E-1	8.805301E-1	8.623823E-1	9.249145E-1	8.987135E-1	9.147527E-1	9.407990E-1	9.513893E-1	9.015761E-1	8.610106E-1	8.720500E-1	9.091201E-1	9.010983E-1	9.487212E-1	8.864626E-1	8.941036E-1	9.407959E-1	8.935536E-1	9.047726E-1	9.369577E-1	8.649133E-1	8.439504E-1	9.044767E-1	9.346065E-1	8.978952E-1	8.876978E-1	9.068597E-1	9.394398E-1	9.293478E-1	8.736512E-1	8.935522E-1	9.186820E-1	9.148453E-1	8.984722E-1	9.440103E-1	9.010999E-1	8.906445E-1	8.982292E-1	9.324053E-1	9.143691E-1	9.473081E-1	9.469403E-1	8.830916E-1	9.504905E-1	9.382138E-1	9.038448E-1	9.015396E-1	9.212652E-1	9.450629E-1	9.136411E-1	8.729766E-1	9.224762E-1	9.151138E-1	8.783809E-1	8.730503E-1	9.356118E-1	9.260872E-1	8.702589E-1	8.804248E-1	8.985402E-1	9.264627E-1	8.647889E-1	8.739607E-1
2.900030E+2	7.882199E-1	8.637534E-1	8.231652E-1	8.282055E-1	7.961917E-1	8.659209E-1	7.817298E-1	8.140083E-1	8.799062E-1	7.981628E-1	8.435960E-1	8.338952E-1	8.054682E-1	7.989028E-1	8.216745E-1	8.256682E-1	8.839996E-1	8.096498E-1	8.614652E-1	8.121859E-1	8.446051E-1	8.472352E-1	8.185340E-1	8.485119E-1	8.051305E-1	8.739042E-1	8.119842E-1	8.579929E-1	8.742472E-1	8.505564E-1	8.214645E-1	8.178975E-1	7.968497E-1	7.984631E-1	8.721592E-1	8.416152E-1	8.597829E-1	8.678795E-1	8.243469E-1	8.663696E-1	8.662305E-1	8.522894E-1	8.381917E-1	8.421389E-1	8.612065E-1	7.926315E-1	8.660724E-1	8.548381E-1	8.575898E-1	8.057468E-1	8.162109E-1	8.323846E-1	8.598538E-1	8.163761E-1	8.245011E-1	8.444795E-1	8.622913E-1	8.673906E-1	8.378100E-1	8.114665E-1	8.681760E-1	8.515296E-1	8.510181E-1	8.428206E-1	7.824831E-1	8.181879E-1	7.834706E-1	8.552214E-1	7.503177E-1	7.753017E-1	8.587721E-1	8.080167E-1	8.459948E-1	7.804309E-1	8.351015E-1	8.186317E-1	8.273718E-1	8.305343E-1	8.055438E-1	8.502485E-1	8.747679E-1	8.410682E-1	8.545303E-1	8.244396E-1	8.144667E-1	8.262603E-1	8.428742E-1	8.728932E-1	8.240621E-1	8.270158E-1	8.276895E-1	8.854536E-1	7.871364E-1	8.285019E-1	8.148428E-1	7.986692E-1	8.277667E-1	8.367145E-1	8.350196E-1	8.479836E-1	8.242804E-1	8.288246E-1	8.007548E-1	8.353990E-1	7.968093E-1	8.056380E-1	8.423999E-1	8.760798E-1	8.647316E-1	8.116652E-1	8.412128E-1	8.620429E-1	8.138595E-1	8.600010E-1	8.821307E-1	8.549502E-1	8.310855E-1	8.567166E-1	8.232193E-1	8.451345E-1	8.559084E-1	8.599667E-1	8.384015E-1	8.542528E-1	8.729604E-1	8.791574E-1	7.901404E-1	8.248009E-1	8.771880E-1	8.446302E-1	8.709874E-1	8.815702E-1	8.614491E-1	8.644027E-1	8.445804E-1	8.550057E-1	8.547437E-1	8.951020E-1	8.369949E-1	8.404265E-1	8.519974E-1	8.245634E-1	8.742920E-1	8.731731E-1	8.126493E-1	8.114340E-1	8.382559E-1	8.538667E-1	8.405584E-1	8.613622E-1	8.430738E-1	8.738995E-1	8.684269E-1	8.465650E-1	8.343121E-1	8.796499E-1	8.583621E-1	8.579574E-1	8.799837E-1	8.880535E-1	7.999146E-1	8.743812E-1	8.315612E-1	8.576019E-1	8.754803E-1	8.129318E-1	8.077639E-1	8.022435E-1	8.915746E-1	8.017214E-1	8.611117E-1
2.905230E+2	8.056974E-1	7.900622E-1	7.496128E-1	8.083896E-1	7.681927E-1	7.878138E-1	7.800581E-1	8.025415E-1	8.013122E-1	7.465733E-1	7.893571E-1	8.226381E-1	7.731197E-1	7.667073E-1	7.199367E-1	8.196667E-1	7.990329E-1	7.791687E-1	7.450951E-1	7.879389E-1	7.891645E-1	7.851253E-1	7.888121E-1	7.917119E-1	7.976733E-1	7.845856E-1	7.632416E-1	7.504461E-1	8.135858E-1	8.170440E-1	7.986214E-1	8.303649E-1	7.711813E-1	7.877774E-1	7.910438E-1	7.618061E-1	8.047247E-1	7.582258E-1	7.728110E-1	8.011968E-1	7.992936E-1	8.078755E-1	7.972704E-1	8.143209E-1	8.079645E-1	7.895714E-1	7.721469E-1	7.842925E-1	8.472249E-1	8.230885E-1	7.710066E-1	7.804635E-1	8.038395E-1	8.092160E-1	7.281196E-1	7.653038E-1	7.969380E-1	7.787263E-1	7.921522E-1	7.881560E-1	7.957540E-1	7.872888E-1	8.310239E-1	7.904499E-1	7.521532E-1	8.125860E-1	7.787183E-1	8.178863E-1	7.723346E-1	7.656338E-1	7.929015E-1	8.024697E-1	7.873874E-1	7.868656E-1	7.402758E-1	7.574644E-1	7.596372E-1	7.763652E-1	7.695093E-1	7.809800E-1	8.137747E-1	7.716419E-1	8.395199E-1	8.177160E-1	8.519600E-1	7.989170E-1	7.453995E-1	7.779969E-1	7.835759E-1	7.736818E-1	8.059731E-1	8.029195E-1	7.740489E-1	7.353043E-1	8.299656E-1	7.801960E-1	7.721830E-1	7.979100E-1	7.780914E-1	7.591263E-1	8.237636E-1	8.196158E-1	7.601208E-1	7.796461E-1	7.846872E-1	7.761698E-1	8.062093E-1	7.749883E-1	7.797107E-1	7.370737E-1	8.090450E-1	8.103675E-1	7.777725E-1	8.263972E-1	8.324279E-1	7.931208E-1	7.924985E-1	7.906127E-1	7.471427E-1	7.329632E-1	8.427295E-1	8.329304E-1	8.033701E-1	7.733389E-1	7.980005E-1	8.110896E-1	7.897601E-1	8.032954E-1	8.178041E-1	7.761547E-1	8.051267E-1	8.025154E-1	7.758204E-1	8.329578E-1	7.901387E-1	7.823493E-1	7.890086E-1	7.801172E-1	8.021205E-1	7.911846E-1	7.860571E-1	7.766317E-1	7.917239E-1	8.144419E-1	8.346601E-1	7.174246E-1	7.599833E-1	8.273111E-1	8.166922E-1	7.875817E-1	8.033738E-1	8.127716E-1	8.238099E-1	7.830382E-1	7.358622E-1	8.621917E-1	8.037927E-1	7.840530E-1	7.380297E-1	7.784737E-1	7.906766E-1	8.007594E-1	7.784693E-1	8.109466E-1	7.953921E-1	7.788915E-1	8.550935E-1	7.688386E-1	8.051879E-1	8.481902E-1	7.798735E-1
2.910010E+2	9.926026E-1	9.704610E-1	1.002332E+0	9.771140E-1	1.024770E+0	9.861963E-1	9.561898E-1	9.640499E-1	9.598482E-1	9.184191E-1	9.870530E-1	9.589083E-1	9.725725E-1	1.018610E+0	1.009448E+0	9.585364E-1	1.018125E+0	9.895213E-1	1.003329E+0	9.316184E-1	1.023947E+0	9.737772E-1	9.672681E-1	1.018459E+0	1.005208E+0	1.038234E+0	1.021740E+0	9.599137E-1	1.061760E+0	1.040530E+0	1.004278E+0	9.802408E-1	9.562201E-1	9.963226E-1	9.781618E-1	1.001685E+0	9.964241E-1	1.040806E+0	1.032561E+0	1.000209E+0	1.024151E+0	1.007719E+0	9.381619E-1	1.038478E+0	1.039716E+0	1.005473E+0	9.779945E-1	1.018525E+0	1.020357E+0	1.002854E+0	9.510652E-1	9.832674E-1	1.008853E+0	9.869657E-1	9.774162E-1	9.428738E-1	1.034686E+0	9.894228E-1	1.026800E+0	9.849398E-1	9.527198E-1	1.018591E+0	1.003575E+0	1.025288E+0	1.056926E+0	9.976696E-1	1.009707E+0	1.022864E+0	1.008547E+0	9.471843E-1	1.006792E+0	9.656559E-1	1.000870E+0	9.582543E-1	9.288675E-1	9.985727E-1	9.877368E-1	9.821317E-1	9.615347E-1	9.984639E-1	1.009369E+0	9.527530E-1	9.490676E-1	9.682569E-1	9.950453E-1	9.403734E-1	1.012272E+0	9.937696E-1	1.088314E+0	9.914140E-1	9.605290E-1	9.586470E-1	1.036180E+0	9.822992E-1	1.013406E+0	9.597060E-1	1.000705E+0	1.012076E+0	1.007182E+0	9.892531E-1	1.094056E+0	9.843225E-1	9.422692E-1	9.727218E-1	1.099543E+0	9.665345E-1	9.865443E-1	1.010867E+0	1.018814E+0	1.000860E+0	9.855358E-1	9.621356E-1	9.594121E-1	1.001266E+0	9.509824E-1	1.029433E+0	1.012946E+0	1.003138E+0	1.008635E+0	9.537262E-1	1.013428E+0	1.027144E+0	9.737607E-1	1.009261E+0	1.021973E+0	9.657123E-1	9.993303E-1	1.010930E+0	9.762896E-1	1.041772E+0	1.018503E+0	9.921743E-1	9.768197E-1	1.006947E+0	9.832271E-1	1.012728E+0	1.027781E+0	9.913227E-1	9.842578E-1	9.841136E-1	1.025849E+0	9.873315E-1	1.013286E+0	1.066340E+0	1.005347E+0	9.778915E-1	9.898555E-1	9.833827E-1	1.004874E+0	1.014317E+0	1.004385E+0	1.003155E+0	1.068006E+0	1.050818E+0	9.690206E-1	1.005789E+0	1.049997E+0	9.968575E-1	9.481773E-1	1.023990E+0	9.847072E-1	1.000009E+0	9.767821E-1	1.034493E+0	1.015316E+0	1.004199E+0	1.010858E+0	1.064421E+0	9.922781E-1	9.781661E-1	9.731366E-1
2.915150E+2	1.224962E+0	1.121552E+0	1.171875E+0	1.171167E+0	1.202710E+0	1.203165E+0	1.202782E+0	1.167552E+0	1.171735E+0	1.119132E+0	1.216760E+0	1.203352E+0	1.182878E+0	1.216481E+0	1.144168E+0	1.145582E+0	1.180312E+0	1.126880E+0	1.214550E+0	1.195601E+0	1.199081E+0	1.168132E+0	1.201912E+0	1.236005E+0	1.216331E+0	1.179724E+0	1.173997E+0	1.214345E+0	1.197133E+0	1.188184E+0	1.173560E+0	1.148356E+0	1.199157E+0	1.134208E+0	1.175830E+0	1.169121E+0	1.227439E+0	1.175624E+0	1.196439E+0	1.221216E+0	1.225068E+0	1.200965E+0	1.199228E+0	1.151363E+0	1.188670E+0	1.176414E+0	1.169149E+0	1.253997E+0	1.200837E+0	1.135230E+0	1.178068E+0	1.158445E+0	1.210936E+0	1.159498E+0	1.229588E+0	1.180505E+0	1.184245E+0	1.250472E+0	1.213246E+0	1.170136E+0	1.201717E+0	1.227592E+0	1.218716E+0	1.248237E+0	1.249312E+0	1.187579E+0	1.138038E+0	1.199087E+0	1.115750E+0	1.162603E+0	1.207780E+0	1.158950E+0	1.216583E+0	1.187330E+0	1.174931E+0	1.190612E+0	1.189929E+0	1.203952E+0	1.174482E+0	1.105451E+0	1.214016E+0	1.140408E+0	1.183986E+0	1.183459E+0	1.204676E+0	1.166798E+0	1.160391E+0	1.164681E+0	1.142958E+0	1.126590E+0	1.180533E+0	1.204864E+0	1.187715E+0	1.126535E+0	1.188637E+0	1.148171E+0	1.208888E+0	1.155833E+0	1.203455E+0	1.143192E+0	1.248357E+0	1.156698E+0	1.132216E+0	1.189192E+0	1.211062E+0	1.135040E+0	1.271811E+0	1.194944E+0	1.138510E+0	1.173941E+0	1.187571E+0	1.210583E+0	1.199291E+0	1.189347E+0	1.215417E+0	1.202766E+0	1.164483E+0	1.151811E+0	1.162331E+0	1.119051E+0	1.204827E+0	1.218937E+0	1.105037E+0	1.150269E+0	1.179753E+0	1.223788E+0	1.208320E+0	1.212184E+0	1.178875E+0	1.158797E+0	1.208543E+0	1.143947E+0	1.224315E+0	1.167417E+0	1.232736E+0	1.241259E+0	1.201091E+0	1.141740E+0	1.154437E+0	1.162552E+0	1.266167E+0	1.177501E+0	1.275105E+0	1.234293E+0	1.196695E+0	1.169269E+0	1.155720E+0	1.164761E+0	1.255346E+0	1.186735E+0	1.153648E+0	1.206204E+0	1.128266E+0	1.162711E+0	1.134005E+0	1.217667E+0	1.154887E+0	1.185610E+0	1.164599E+0	1.166452E+0	1.287911E+0	1.167245E+0	1.214820E+0	1.234148E+0	1.280505E+0	1.177657E+0	1.225541E+0	1.263044E+0	1.163474E+0	1.123602E+0	1.022296E+0
2.920030E+2	1.061524E+0	1.036241E+0	1.040322E+0	1.040232E+0	1.110597E+0	1.084261E+0	1.056771E+0	1.062592E+0	1.084789E+0	9.826053E-1	1.084250E+0	1.111837E+0	1.059663E+0	1.094023E+0	1.000375E+0	1.033924E+0	1.117422E+0	1.042380E+0	1.140783E+0	1.038198E+0	1.019564E+0	1.087768E+0	1.068474E+0	1.102538E+0	1.088522E+0	1.089618E+0	1.121222E+0	1.054850E+0	1.088513E+0	1.088705E+0	1.053589E+0	1.044231E+0	1.044821E+0	1.055729E+0	1.082891E+0	1.071694E+0	1.029122E+0	1.093564E+0	1.043035E+0	1.055049E+0	1.069997E+0	1.074258E+0	1.071122E+0	1.119646E+0	1.109308E+0	1.072734E+0	1.037902E+0	1.022355E+0	1.071735E+0	1.039525E+0	1.063258E+0	1.023732E+0	1.136483E+0	1.072536E+0	1.044516E+0	1.081369E+0	1.137559E+0	1.064626E+0	1.108034E+0	1.046044E+0	1.048393E+0	1.068907E+0	1.076514E+0	1.039402E+0	1.147603E+0	1.010274E+0	1.036994E+0	1.102753E+0	1.118232E+0	1.052674E+0	1.093596E+0	1.034230E+0	1.097912E+0	1.059387E+0	1.040608E+0	1.068312E+0	1.047596E+0	1.074765E+0	1.052724E+0	1.125939E+0	1.058468E+0	1.014558E+0	1.063362E+0	1.062864E+0	1.115461E+0	1.090067E+0	1.088417E+0	1.063637E+0	1.071052E+0	1.114462E+0	1.040404E+0	1.115485E+0	1.029301E+0	1.035449E+0	1.064094E+0	1.073711E+0	1.020406E+0	1.004543E+0	1.079545E+0	1.043597E+0	1.129832E+0	1.040459E+0	1.036694E+0	1.111546E+0	1.068582E+0	1.123388E+0	1.072096E+0	1.085520E+0	1.078345E+0	1.041692E+0	1.084145E+0	1.048351E+0	1.082239E+0	1.082360E+0	1.076551E+0	1.049382E+0	1.045087E+0	1.106457E+0	1.058376E+0	1.026524E+0	1.102563E+0	1.060358E+0	1.063403E+0	1.063541E+0	1.109633E+0	1.093488E+0	1.034394E+0	1.072658E+0	1.029746E+0	1.012293E+0	1.058216E+0	1.073860E+0	1.056669E+0	1.050396E+0	1.058304E+0	1.137768E+0	1.037938E+0	1.034358E+0	1.020265E+0	1.124576E+0	1.023070E+0	1.030552E+0	1.089889E+0	1.106576E+0	1.075034E+0	1.002225E+0	1.092510E+0	1.090061E+0	1.123357E+0	1.098327E+0	1.122216E+0	1.061373E+0	1.077813E+0	1.069680E+0	1.115642E+0	1.062488E+0	1.094354E+0	1.084546E+0	1.029277E+0	1.101062E+0	1.036798E+0	1.099920E+0	1.108766E+0	1.084653E+0	1.081547E+0	1.002971E+0	1.106975E+0	1.003101E+0	1.183293E+0	1.047280E+0	1.186959E+0
2.925030E+2	1.002918E+0	1.019891E+0	1.062169E+0	1.047404E+0	1.063732E+0	1.116697E+0	1.025937E+0	9.948845E-1	1.062471E+0	9.828759E-1	1.025259E+0	1.039546E+0	9.767681E-1	1.006799E+0	1.026506E+0	1.017087E+0	1.082168E+0	1.028711E+0	1.082676E+0	1.051172E+0	1.003768E+0	9.960775E-1	1.089738E+0	1.054886E+0	1.095914E+0	1.010837E+0	1.036796E+0	9.441126E-1	1.058334E+0	9.838378E-1	1.060052E+0	1.035324E+0	9.766283E-1	9.915633E-1	9.915272E-1	9.869729E-1	1.040319E+0	1.018681E+0	1.046622E+0	1.028459E+0	1.024614E+0	1.053750E+0	1.041869E+0	1.029548E+0	1.082037E+0	1.051718E+0	1.009053E+0	9.809270E-1	1.037140E+0	1.000530E+0	9.823556E-1	1.034933E+0	1.031641E+0	9.818449E-1	1.036077E+0	9.633366E-1	1.085401E+0	1.060527E+0	1.012326E+0	1.048747E+0	1.072139E+0	9.920446E-1	1.044466E+0	1.074262E+0	1.031338E+0	1.037424E+0	1.071060E+0	1.029012E+0	1.076563E+0	1.012274E+0	9.995714E-1	9.800869E-1	1.034441E+0	1.050721E+0	1.043313E+0	1.037105E+0	1.053667E+0	1.012191E+0	1.040728E+0	1.101710E+0	1.027847E+0	1.055197E+0	1.062147E+0	1.077112E+0	1.012552E+0	1.004343E+0	9.890437E-1	9.822940E-1	1.015794E+0	1.050393E+0	1.006741E+0	1.057300E+0	1.034389E+0	1.024514E+0	1.032938E+0	9.771145E-1	1.057496E+0	1.033218E+0	1.008912E+0	9.832164E-1	1.042847E+0	1.061536E+0	1.031530E+0	1.084511E+0	1.050418E+0	1.018029E+0	1.058623E+0	1.035912E+0	1.014625E+0	1.034012E+0	1.048544E+0	9.917267E-1	1.023623E+0	1.056491E+0	1.025315E+0	1.030418E+0	1.031548E+0	1.040133E+0	1.000880E+0	1.008598E+0	1.048922E+0	1.053016E+0	1.051208E+0	1.088164E+0	1.064979E+0	1.026598E+0	1.019140E+0	1.009636E+0	1.019865E+0	1.019754E+0	1.024175E+0	1.030544E+0	1.017592E+0	1.028368E+0	1.093625E+0	1.104027E+0	1.041324E+0	1.017053E+0	1.008728E+0	9.978301E-1	1.058316E+0	1.007615E+0	1.008221E+0	1.024351E+0	1.035235E+0	9.761171E-1	1.063894E+0	1.048137E+0	1.061538E+0	1.008538E+0	9.787402E-1	1.060217E+0	1.082740E+0	1.028694E+0	1.073500E+0	9.902452E-1	1.040141E+0	1.064157E+0	1.051236E+0	1.057900E+0	1.042165E+0	1.060009E+0	1.039464E+0	1.067870E+0	1.039641E+0	1.066665E+0	1.058644E+0	1.082397E+0	1.062566E+0	1.011782E+0	1.170761E+0
2.930040E+2	9.260328E-1	9.221212E-1	8.536847E-1	9.331034E-1	9.746971E-1	9.320700E-1	8.814423E-1	1.001493E+0	8.697358E-1	8.556306E-1	9.713135E-1	9.545119E-1	9.556093E-1	9.772723E-1	9.041300E-1	9.353981E-1	9.170981E-1	8.638689E-1	9.338655E-1	9.919543E-1	9.094053E-1	9.684803E-1	9.075639E-1	9.300359E-1	1.015375E+0	9.542877E-1	9.469137E-1	8.554959E-1	9.283878E-1	9.665858E-1	9.476566E-1	9.859420E-1	9.426284E-1	9.237445E-1	9.409956E-1	9.840409E-1	9.244379E-1	9.556688E-1	9.889960E-1	8.964494E-1	9.631428E-1	9.762665E-1	9.658874E-1	9.146810E-1	9.782473E-1	9.617756E-1	9.753288E-1	9.557355E-1	9.470420E-1	8.850305E-1	9.585272E-1	9.163976E-1	9.483876E-1	9.608696E-1	9.871999E-1	9.486211E-1	9.654054E-1	9.490942E-1	9.461103E-1	9.376961E-1	9.451696E-1	9.084496E-1	9.862793E-1	9.812150E-1	8.735063E-1	9.058656E-1	9.496449E-1	9.736643E-1	9.706660E-1	8.784375E-1	9.464002E-1	9.602379E-1	9.361852E-1	8.984022E-1	9.469660E-1	9.478289E-1	9.261452E-1	9.546138E-1	1.003352E+0	9.686450E-1	9.099245E-1	9.139515E-1	9.118822E-1	9.378337E-1	9.549985E-1	9.194142E-1	9.697774E-1	9.342091E-1	9.681882E-1	9.492764E-1	9.780957E-1	9.978393E-1	9.134137E-1	9.901594E-1	9.669868E-1	9.842597E-1	9.078674E-1	9.267956E-1	9.377539E-1	9.656651E-1	9.368629E-1	9.176168E-1	9.350493E-1	9.673801E-1	9.585619E-1	9.150599E-1	9.249204E-1	9.326448E-1	9.585289E-1	9.721465E-1	9.333131E-1	9.579681E-1	9.813569E-1	9.286816E-1	9.362775E-1	9.370549E-1	1.005225E+0	9.744777E-1	8.948286E-1	9.094598E-1	9.463976E-1	9.054077E-1	8.857369E-1	9.243666E-1	9.388445E-1	9.302531E-1	1.005398E+0	9.155211E-1	9.203588E-1	9.124682E-1	9.532273E-1	9.630283E-1	9.955390E-1	8.942944E-1	9.486166E-1	1.003758E+0	9.265322E-1	9.394884E-1	9.504877E-1	9.405666E-1	9.576895E-1	9.129539E-1	9.168301E-1	8.833185E-1	1.006821E+0	9.665314E-1	9.822686E-1	9.486301E-1	9.441245E-1	9.440878E-1	9.948071E-1	9.364187E-1	1.012689E+0	9.305851E-1	9.215479E-1	1.001227E+0	9.767059E-1	9.358625E-1	9.873843E-1	9.139174E-1	1.070395E+0	9.184716E-1	9.253952E-1	9.503883E-1	1.013835E+0	9.432637E-1	9.624711E-1	9.925180E-1	9.465143E-1	9.197240E-1	9.577705E-1
2.935110E+2	1.050662E+0	1.012151E+0	1.059482E+0	1.053057E+0	1.103214E+0	1.114676E+0	1.086955E+0	1.026766E+0	1.043751E+0	1.046385E+0	1.063157E+0	1.145047E+0	1.118062E+0	1.074661E+0	1.051299E+0	1.081491E+0	1.056457E+0	1.058240E+0	1.058899E+0	1.086796E+0	1.070354E+0	1.125117E+0	1.029735E+0	1.100503E+0	1.070180E+0	1.019060E+0	1.064174E+0	9.977100E-1	1.052320E+0	1.086267E+0	1.069777E+0	1.038277E+0	1.150749E+0	1.081944E+0	1.044511E+0	1.161667E+0	1.106255E+0	1.078663E+0	1.054851E+0	1.062673E+0	1.114810E+0	1.038175E+0	1.096438E+0	1.106302E+0	1.102460E+0	1.093820E+0	1.076332E+0	1.075314E+0	1.080483E+0	1.058046E+0	1.040299E+0	1.068551E+0	1.117689E+0	1.033000E+0	1.071021E+0	1.041804E+0	1.114467E+0	1.009038E+0	1.124867E+0	1.034170E+0	1.057020E+0	1.097638E+0	1.106938E+0	1.097850E+0	1.045873E+0	1.067502E+0	1.066361E+0	1.140695E+0	1.110778E+0	1.035901E+0	1.072942E+0	1.068385E+0	1.096313E+0	1.057312E+0	1.110790E+0	1.063898E+0	1.099512E+0	1.100182E+0	1.092233E+0	1.073679E+0	1.056593E+0	1.070585E+0	1.090952E+0	1.095871E+0	1.136263E+0	1.103188E+0	1.081830E+0	1.071607E+0	1.049164E+0	1.067014E+0	1.000381E+0	1.120965E+0	1.053945E+0	1.168257E+0	1.124462E+0	1.058382E+0	1.044680E+0	1.126131E+0	1.070959E+0	1.060977E+0	1.052365E+0	1.056105E+0	1.142206E+0	1.080420E+0	1.054569E+0	1.088207E+0	1.115203E+0	1.091985E+0	1.073864E+0	1.089158E+0	1.065012E+0	1.061788E+0	1.024647E+0	1.077142E+0	1.026848E+0	1.097076E+0	1.111035E+0	1.093965E+0	1.050019E+0	1.103169E+0	1.170587E+0	1.024026E+0	1.064813E+0	1.037260E+0	1.090859E+0	1.051366E+0	1.057696E+0	1.063687E+0	1.112759E+0	1.065868E+0	1.107870E+0	1.102805E+0	1.105436E+0	1.109794E+0	1.113029E+0	1.056281E+0	1.071475E+0	1.100743E+0	1.013526E+0	1.112703E+0	1.095507E+0	1.100073E+0	1.101495E+0	1.033747E+0	1.096932E+0	1.056810E+0	1.071799E+0	1.109454E+0	1.143335E+0	1.056818E+0	1.062400E+0	1.062301E+0	1.104813E+0	1.049627E+0	1.122022E+0	1.083668E+0	1.075421E+0	1.080585E+0	1.074463E+0	1.076737E+0	1.068419E+0	1.072226E+0	1.151220E+0	1.138505E+0	1.127877E+0	1.037895E+0	1.089482E+0	1.065520E+0	1.063058E+0	1.042904E+0	1.023847E+0
2.940070E+2	1.109339E+0	1.067586E+0	1.042553E+0	1.095196E+0	1.123862E+0	1.186076E+0	1.154906E+0	1.122867E+0	1.126141E+0	1.066361E+0	1.069258E+0	1.057051E+0	1.137877E+0	1.108190E+0	1.092133E+0	1.072510E+0	1.091374E+0	1.103883E+0	1.107992E+0	1.107794E+0	1.083713E+0	1.079625E+0	1.140328E+0	1.056831E+0	1.199321E+0	1.091864E+0	1.108800E+0	1.130509E+0	1.101961E+0	1.112823E+0	1.123767E+0	1.113881E+0	1.095850E+0	1.055802E+0	1.091581E+0	1.141375E+0	1.126721E+0	1.079264E+0	1.147265E+0	1.133015E+0	1.168009E+0	1.158897E+0	1.121015E+0	1.108830E+0	1.122051E+0	1.140372E+0	1.069739E+0	1.115822E+0	1.143933E+0	1.078631E+0	1.083357E+0	1.108313E+0	1.173152E+0	1.081468E+0	1.131151E+0	1.155765E+0	1.167157E+0	1.053981E+0	1.092747E+0	1.095565E+0	1.159115E+0	1.148671E+0	1.097114E+0	1.067273E+0	1.121862E+0	1.143549E+0	1.156586E+0	1.122909E+0	1.081084E+0	1.089513E+0	1.085638E+0	1.141578E+0	1.170868E+0	1.126103E+0	1.135804E+0	1.123218E+0	1.114618E+0	1.148363E+0	1.168473E+0	1.186820E+0	1.167069E+0	1.062532E+0	1.118776E+0	1.092762E+0	1.134557E+0	1.114080E+0	1.035645E+0	1.097019E+0	1.098333E+0	1.101781E+0	1.121623E+0	1.143725E+0	1.086662E+0	1.161989E+0	1.089159E+0	1.104185E+0	1.106680E+0	1.110254E+0	1.070200E+0	1.122188E+0	1.154245E+0	1.082867E+0	1.168408E+0	1.112259E+0	1.132558E+0	1.084513E+0	1.161549E+0	1.128298E+0	1.142415E+0	1.136848E+0	1.077830E+0	1.068688E+0	1.150411E+0	1.157014E+0	1.107030E+0	1.147297E+0	1.096968E+0	1.058252E+0	1.155555E+0	1.131703E+0	1.130812E+0	1.135287E+0	1.101210E+0	1.129563E+0	1.155562E+0	1.106126E+0	1.066106E+0	1.130660E+0	1.139296E+0	1.093844E+0	1.154140E+0	1.081265E+0	1.133407E+0	1.111284E+0	1.126010E+0	1.124722E+0	1.145909E+0	1.089822E+0	1.045570E+0	1.184871E+0	1.060883E+0	1.083610E+0	1.136066E+0	1.061450E+0	1.138984E+0	1.075939E+0	1.100673E+0	1.134743E+0	1.121706E+0	1.111165E+0	1.125597E+0	1.117916E+0	1.098141E+0	1.085120E+0	1.082878E+0	1.126535E+0	1.104680E+0	1.133380E+0	1.113391E+0	1.130782E+0	1.098648E+0	1.110673E+0	1.146835E+0	1.080068E+0	1.107187E+0	1.108398E+0	1.127733E+0	1.129056E+0	1.101542E+0	1.167504E+0	1.082195E+0
2.945010E+2	9.880206E-1	1.064384E+0	1.056170E+0	1.107068E+0	1.080144E+0	1.102977E+0	1.095466E+0	1.109099E+0	1.042035E+0	1.060945E+0	1.069290E+0	1.112158E+0	1.090647E+0	1.062801E+0	1.068841E+0	1.093626E+0	1.046616E+0	1.056184E+0	1.042328E+0	1.073504E+0	1.101789E+0	1.108508E+0	1.039118E+0	1.077199E+0	1.097422E+0	1.075019E+0	1.119102E+0	9.739785E-1	1.070364E+0	1.050520E+0	1.085720E+0	1.069622E+0	1.074295E+0	1.119717E+0	1.024278E+0	1.106109E+0	1.092789E+0	1.086569E+0	1.119558E+0	1.056686E+0	1.041702E+0	1.021868E+0	1.081977E+0	1.053186E+0	1.106332E+0	1.084157E+0	1.066475E+0	1.093941E+0	1.095772E+0	1.059554E+0	1.107507E+0	1.133118E+0	1.106230E+0	1.079781E+0	1.045463E+0	1.015271E+0	1.063393E+0	1.087273E+0	1.091282E+0	1.102270E+0	1.044250E+0	1.064722E+0	1.055076E+0	1.040242E+0	1.103496E+0	1.053740E+0	1.147429E+0	1.054480E+0	1.102890E+0	1.044838E+0	1.092795E+0	1.050806E+0	1.120821E+0	1.124335E+0	1.059059E+0	1.153715E+0	1.133551E+0	1.029918E+0	1.096367E+0	1.036223E+0	1.102763E+0	1.021381E+0	1.078897E+0	1.076027E+0	1.081128E+0	1.059481E+0	1.089253E+0	1.110618E+0	1.072906E+0	1.107255E+0	1.098043E+0	1.080336E+0	1.043536E+0	1.108057E+0	1.012698E+0	1.053258E+0	1.068408E+0	1.080360E+0	1.089355E+0	1.067168E+0	1.079159E+0	1.118132E+0	1.050390E+0	1.085527E+0	1.071916E+0	1.064143E+0	1.089416E+0	1.107324E+0	1.074213E+0	1.076190E+0	1.063809E+0	1.049561E+0	1.098557E+0	1.145867E+0	1.048435E+0	1.111290E+0	1.095535E+0	1.080844E+0	9.735774E-1	1.036182E+0	1.117287E+0	1.059613E+0	1.040876E+0	1.078132E+0	1.150902E+0	1.103256E+0	1.081056E+0	1.085034E+0	1.068129E+0	1.059765E+0	1.155486E+0	1.057960E+0	1.072649E+0	1.124354E+0	1.095771E+0	1.110591E+0	1.081050E+0	1.078848E+0	1.090420E+0	1.081176E+0	1.037340E+0	1.042429E+0	1.076459E+0	1.068492E+0	1.059393E+0	1.017691E+0	1.016477E+0	1.069195E+0	1.086166E+0	1.115374E+0	1.001352E+0	1.079110E+0	1.099036E+0	1.005023E+0	1.087874E+0	1.015756E+0	1.071018E+0	1.036966E+0	1.044693E+0	1.057243E+0	1.113657E+0	1.079504E+0	1.063699E+0	1.076425E+0	1.144406E+0	1.051986E+0	1.107462E+0	1.057379E+0	1.101909E+0	1.077351E+0	1.047898E+0
2.950050E+2	9.991042E-1	9.963837E-1	1.013870E+0	1.015691E+0	1.017908E+0	1.002604E+0	9.771971E-1	1.048939E+0	1.054376E+0	1.034102E+0	1.018272E+0	1.005409E+0	1.001986E+0	1.028474E+0	1.016071E+0	1.001643E+0	1.006555E+0	1.020594E+0	1.023653E+0	1.084220E+0	1.034495E+0	1.029432E+0	9.893681E-1	1.033262E+0	1.044144E+0	1.010953E+0	1.049525E+0	1.008712E+0	1.046760E+0	1.013894E+0	1.042477E+0	1.079807E+0	9.929580E-1	1.004086E+0	9.977438E-1	1.066482E+0	1.026573E+0	1.018235E+0	1.007469E+0	1.029658E+0	1.068410E+0	1.068170E+0	1.027111E+0	1.016368E+0	1.038941E+0	9.972609E-1	1.023666E+0	1.024342E+0	9.966393E-1	1.063147E+0	1.012508E+0	9.746639E-1	1.067349E+0	1.033942E+0	1.005330E+0	1.050411E+0	1.052122E+0	9.839952E-1	1.019621E+0	1.027939E+0	1.058313E+0	1.052924E+0	1.045161E+0	1.052985E+0	1.016274E+0	1.024392E+0	1.055812E+0	1.029960E+0	1.066188E+0	1.024049E+0	1.021763E+0	1.019808E+0	9.727671E-1	1.043714E+0	1.019748E+0	1.047774E+0	1.042452E+0	9.771890E-1	9.906889E-1	1.019496E+0	1.037252E+0	1.031034E+0	1.022893E+0	1.038443E+0	1.066322E+0	1.035091E+0	9.836865E-1	1.042350E+0	1.054828E+0	1.027159E+0	1.019711E+0	1.032586E+0	9.760637E-1	1.004176E+0	1.009107E+0	1.014278E+0	1.030950E+0	1.048124E+0	1.035535E+0	9.986538E-1	1.061654E+0	1.033815E+0	9.881783E-1	9.871174E-1	1.054797E+0	1.030400E+0	1.044188E+0	9.751997E-1	1.044613E+0	1.054798E+0	1.036567E+0	1.034886E+0	1.095712E+0	1.042841E+0	1.016513E+0	1.011946E+0	1.031072E+0	9.795684E-1	9.862608E-1	9.902133E-1	1.039854E+0	1.040783E+0	1.005492E+0	1.029144E+0	1.063354E+0	1.027006E+0	1.056395E+0	1.020222E+0	1.007527E+0	1.043821E+0	1.012616E+0	1.030836E+0	1.011142E+0	1.010452E+0	1.040442E+0	1.071896E+0	1.067992E+0	1.032298E+0	1.013779E+0	1.070177E+0	1.049168E+0	9.783486E-1	1.040783E+0	1.029724E+0	1.027654E+0	1.053015E+0	1.049984E+0	9.923061E-1	1.026996E+0	1.017395E+0	9.986945E-1	1.028306E+0	1.080759E+0	1.032182E+0	1.017016E+0	1.029818E+0	1.054940E+0	1.001904E+0	1.026622E+0	9.801273E-1	1.013667E+0	1.041699E+0	1.016907E+0	1.051114E+0	1.070855E+0	9.791300E-1	1.055743E+0	1.026192E+0	1.031835E+0	1.061146E+0	1.041271E+0
2.955050E+2	1.004946E+0	1.004337E+0	1.023366E+0	9.725582E-1	1.014944E+0	1.065176E+0	1.035106E+0	1.013947E+0	1.040766E+0	9.910476E-1	1.001074E+0	1.049444E+0	1.039465E+0	9.732286E-1	1.015109E+0	9.930029E-1	1.047770E+0	1.011294E+0	9.769344E-1	1.073588E+0	1.028557E+0	1.020741E+0	1.083474E+0	1.001542E+0	1.045504E+0	1.029122E+0	1.045855E+0	1.042730E+0	1.020733E+0	1.041795E+0	9.959520E-1	1.061054E+0	9.724606E-1	1.044790E+0	9.710325E-1	1.065039E+0	1.035701E+0	1.040696E+0	1.045671E+0	1.013742E+0	9.948852E-1	1.013269E+0	1.024990E+0	1.040373E+0	1.057497E+0	1.023444E+0	1.011984E+0	1.072320E+0	1.025245E+0	1.055808E+0	1.033067E+0	1.035186E+0	1.031995E+0	1.022790E+0	1.000584E+0	9.704957E-1	9.966739E-1	1.103617E+0	1.013088E+0	1.040009E+0	1.014335E+0	1.026109E+0	1.082480E+0	1.026928E+0	1.033911E+0	9.754020E-1	1.042627E+0	1.069529E+0	1.025063E+0	1.006730E+0	1.003725E+0	1.016668E+0	1.024232E+0	1.069463E+0	1.040129E+0	9.878890E-1	1.033475E+0	1.032522E+0	1.046040E+0	9.856689E-1	1.049372E+0	9.955411E-1	1.061570E+0	1.024774E+0	1.020861E+0	1.024879E+0	9.733626E-1	1.104529E+0	1.009780E+0	1.039519E+0	1.064582E+0	1.041654E+0	9.857989E-1	1.064836E+0	1.066682E+0	1.036640E+0	1.016653E+0	1.038680E+0	1.046642E+0	1.060235E+0	1.051781E+0	1.030948E+0	9.927772E-1	1.001629E+0	9.799066E-1	9.633667E-1	9.652447E-1	1.032335E+0	1.035055E+0	1.030297E+0	9.971071E-1	9.857279E-1	1.032596E+0	1.015138E+0	1.025546E+0	1.049749E+0	1.028034E+0	1.036273E+0	1.002647E+0	1.094597E+0	1.060391E+0	1.045391E+0	1.045560E+0	9.998178E-1	9.921209E-1	1.019026E+0	1.013868E+0	1.030550E+0	1.095417E+0	9.760064E-1	1.003487E+0	1.022392E+0	1.028392E+0	1.025232E+0	1.045711E+0	1.045637E+0	1.044418E+0	1.023139E+0	1.013838E+0	1.022110E+0	1.009952E+0	1.010529E+0	1.030574E+0	1.018634E+0	9.884051E-1	9.981363E-1	1.014325E+0	1.022493E+0	1.058307E+0	1.022906E+0	9.965137E-1	1.071773E+0	1.069586E+0	1.032687E+0	1.029267E+0	1.076106E+0	1.014324E+0	1.061046E+0	1.029950E+0	1.066409E+0	1.087658E+0	1.008790E+0	1.015357E+0	1.069274E+0	1.086386E+0	1.018140E+0	1.037259E+0	1.031040E+0	9.646104E-1	9.985975E-1	1.124188E+0
2.960050E+2	1.093556E+0	1.140608E+0	1.090638E+0	1.093146E+0	1.123654E+0	1.142573E+0	1.099766E+0	1.117753E+0	1.102117E+0	1.116350E+0	1.107904E+0	1.132254E+0	1.136297E+0	1.185769E+0	1.117044E+0	1.122842E+0	1.144257E+0	1.147074E+0	1.118249E+0	1.160739E+0	1.157459E+0	1.084725E+0	1.128612E+0	1.077879E+0	1.065991E+0	1.048117E+0	1.111367E+0	1.078816E+0	1.106058E+0	1.114677E+0	1.097108E+0	1.136987E+0	1.086482E+0	1.058627E+0	1.110916E+0	1.194131E+0	1.103777E+0	1.104955E+0	1.087282E+0	1.076604E+0	1.101653E+0	1.109317E+0	1.158692E+0	1.084986E+0	1.157680E+0	1.115682E+0	1.070401E+0	1.088616E+0	1.164297E+0	1.155416E+0	1.056617E+0	1.062860E+0	1.092643E+0	1.083117E+0	1.011938E+0	1.071642E+0	1.099511E+0	1.106275E+0	1.063168E+0	1.082530E+0	1.105504E+0	1.107654E+0	1.086900E+0	1.123350E+0	1.112646E+0	1.129021E+0	1.074752E+0	1.077778E+0	1.078599E+0	1.064178E+0	1.094080E+0	1.111854E+0	1.109753E+0	1.133140E+0	1.116251E+0	1.116687E+0	1.127308E+0	1.099267E+0	1.125049E+0	1.155455E+0	1.094325E+0	1.092135E+0	1.075844E+0	1.110433E+0	1.099812E+0	1.080857E+0	1.072953E+0	1.137369E+0	1.117432E+0	1.148698E+0	1.085265E+0	1.119661E+0	1.105218E+0	1.081205E+0	1.113851E+0	1.130004E+0	1.127767E+0	1.056026E+0	1.119147E+0	1.117675E+0	1.101470E+0	1.088773E+0	1.073242E+0	1.146577E+0	1.115795E+0	1.100917E+0	1.159069E+0	1.090445E+0	1.112418E+0	1.086042E+0	1.055452E+0	1.061282E+0	1.087659E+0	1.107730E+0	1.102683E+0	1.119587E+0	1.071284E+0	1.089342E+0	1.091699E+0	1.110642E+0	1.155672E+0	1.108542E+0	1.060239E+0	1.108559E+0	1.147719E+0	1.122084E+0	1.107444E+0	1.126480E+0	1.178377E+0	1.109090E+0	1.156377E+0	1.128019E+0	1.149830E+0	1.113407E+0	1.170063E+0	1.169779E+0	1.112220E+0	1.119283E+0	1.146062E+0	1.132163E+0	1.086707E+0	1.092149E+0	1.059130E+0	1.050250E+0	1.162479E+0	1.084297E+0	1.105981E+0	1.137916E+0	1.116213E+0	1.073532E+0	1.165839E+0	1.126266E+0	1.172889E+0	1.097761E+0	1.142726E+0	1.098753E+0	1.103290E+0	1.073838E+0	1.155170E+0	1.095810E+0	1.119326E+0	1.140160E+0	1.168285E+0	1.122413E+0	1.195045E+0	1.082529E+0	1.064947E+0	1.108375E+0	1.091723E+0	1.070116E+0	1.091124E+0
2.965010E+2	1.086081E+0	1.125905E+0	1.037249E+0	1.115459E+0	1.064175E+0	1.119000E+0	1.097007E+0	1.082140E+0	1.064339E+0	1.092208E+0	1.112861E+0	1.073673E+0	1.104388E+0	1.129961E+0	1.076692E+0	1.031943E+0	1.088457E+0	1.098662E+0	1.052972E+0	1.056962E+0	1.081493E+0	1.081259E+0	1.073562E+0	1.067945E+0	1.125427E+0	1.087844E+0	1.101601E+0	1.067709E+0	1.075282E+0	1.060831E+0	1.071546E+0	1.072122E+0	1.052018E+0	1.085994E+0	1.128790E+0	1.038542E+0	1.094982E+0	1.106564E+0	1.107475E+0	1.090709E+0	1.070156E+0	1.089527E+0	1.109839E+0	1.056262E+0	1.101909E+0	1.087226E+0	1.078959E+0	1.077592E+0	1.088626E+0	1.043393E+0	1.135319E+0	1.012435E+0	1.091429E+0	1.047650E+0	1.084087E+0	1.090110E+0	1.094741E+0	1.074527E+0	1.076212E+0	1.075030E+0	1.065233E+0	1.056529E+0	1.070704E+0	1.097703E+0	1.102359E+0	1.100723E+0	1.041834E+0	1.072669E+0	1.051328E+0	1.066609E+0	1.057068E+0	1.071475E+0	1.084159E+0	1.087585E+0	1.057951E+0	1.072388E+0	1.067564E+0	1.090327E+0	1.100171E+0	1.065456E+0	1.075091E+0	1.025597E+0	1.074012E+0	1.083406E+0	1.066634E+0	1.096041E+0	1.070338E+0	1.043632E+0	1.082810E+0	1.083355E+0	1.116952E+0	1.077074E+0	1.061552E+0	1.072396E+0	1.077395E+0	1.061835E+0	1.103149E+0	1.046093E+0	1.146371E+0	1.076477E+0	1.072799E+0	1.037875E+0	1.104294E+0	1.078638E+0	1.061719E+0	1.077026E+0	1.129370E+0	1.130777E+0	1.069812E+0	1.089289E+0	1.059305E+0	1.087836E+0	1.060737E+0	1.110637E+0	1.086336E+0	1.061804E+0	1.101338E+0	1.110134E+0	1.040885E+0	1.057842E+0	1.146983E+0	1.118280E+0	1.070927E+0	1.100576E+0	1.090734E+0	1.100699E+0	1.081468E+0	1.092207E+0	1.094449E+0	1.060474E+0	1.065529E+0	1.126287E+0	1.077663E+0	1.070812E+0	1.087988E+0	1.182438E+0	1.093431E+0	1.035336E+0	1.051821E+0	1.037467E+0	1.084684E+0	1.026777E+0	1.077569E+0	1.093531E+0	1.122039E+0	1.025905E+0	1.024405E+0	1.104897E+0	1.178570E+0	1.068204E+0	1.102287E+0	1.031365E+0	1.159198E+0	1.048965E+0	1.034053E+0	1.082310E+0	1.079545E+0	1.103148E+0	1.072082E+0	1.097065E+0	1.133013E+0	1.081104E+0	1.102950E+0	1.025599E+0	1.100711E+0	1.085163E+0	1.072432E+0	1.043236E+0	1.105647E+0	1.070776E+0	1.035409E+0
2.970020E+2	1.036473E+0	9.736248E-1	1.049985E+0	1.020325E+0	1.017354E+0	9.884388E-1	9.980409E-1	1.007059E+0	1.003939E+0	9.999992E-1	1.017813E+0	1.002371E+0	1.018315E+0	1.066337E+0	1.017493E+0	1.002370E+0	1.049698E+0	1.020086E+0	1.042900E+0	1.050665E+0	1.052508E+0	9.992116E-1	1.063723E+0	1.047531E+0	1.058827E+0	1.044211E+0	1.018215E+0	9.842858E-1	1.013197E+0	1.029653E+0	1.017109E+0	1.048865E+0	1.013682E+0	1.008789E+0	1.037992E+0	1.017657E+0	9.994087E-1	1.046446E+0	1.032712E+0	1.049406E+0	1.017515E+0	1.051846E+0	1.029608E+0	1.043682E+0	1.025577E+0	1.036936E+0	9.885847E-1	1.013233E+0	1.014775E+0	1.045955E+0	1.026590E+0	1.048801E+0	1.022978E+0	1.004840E+0	1.074885E+0	9.997355E-1	1.031686E+0	1.025626E+0	1.045709E+0	1.044237E+0	1.041889E+0	1.067801E+0	1.061134E+0	1.026368E+0	1.009559E+0	1.008573E+0	1.004712E+0	1.061959E+0	1.005422E+0	1.000473E+0	1.064447E+0	1.051717E+0	1.035384E+0	1.034146E+0	1.044733E+0	1.034861E+0	1.048769E+0	1.045201E+0	1.026279E+0	1.046556E+0	1.018396E+0	1.033764E+0	1.003666E+0	1.039081E+0	1.012969E+0	1.044476E+0	9.806799E-1	1.080938E+0	1.046487E+0	1.072751E+0	1.003766E+0	1.048407E+0	1.022872E+0	1.020452E+0	1.017908E+0	1.024672E+0	9.802815E-1	1.034777E+0	1.038397E+0	1.050512E+0	1.037906E+0	1.080225E+0	1.012030E+0	1.022096E+0	1.068187E+0	1.007495E+0	1.057534E+0	1.027985E+0	1.012762E+0	1.060882E+0	1.074156E+0	1.017165E+0	1.046635E+0	1.048650E+0	1.072946E+0	1.073380E+0	1.029353E+0	9.790856E-1	1.017178E+0	9.965603E-1	1.033845E+0	1.030059E+0	1.017893E+0	1.016989E+0	1.040660E+0	1.054907E+0	9.540344E-1	1.087585E+0	9.839768E-1	1.025371E+0	1.023693E+0	1.040258E+0	1.028052E+0	1.051250E+0	1.046903E+0	1.003916E+0	1.029073E+0	9.985199E-1	1.001944E+0	1.039668E+0	1.068305E+0	1.003897E+0	1.048855E+0	1.035314E+0	9.885492E-1	9.791708E-1	1.043698E+0	1.030913E+0	9.839883E-1	1.044398E+0	1.028507E+0	1.059406E+0	9.949909E-1	1.035900E+0	1.032863E+0	1.047484E+0	1.041907E+0	1.043321E+0	1.009391E+0	1.007157E+0	1.061192E+0	1.003886E+0	9.930132E-1	1.034086E+0	1.084197E+0	9.750137E-1	1.029887E+0	1.022790E+0	1.080848E+0	1.120513E+0	1.056994E+0
2.975010E+2	9.594655E-1	1.002239E+0	9.979705E-1	9.685504E-1	1.004023E+0	9.625343E-1	1.004670E+0	9.955976E-1	9.384189E-1	9.579073E-1	9.962083E-1	9.973162E-1	1.007381E+0	9.645634E-1	9.767424E-1	9.883049E-1	9.870170E-1	1.007278E+0	9.686636E-1	9.520575E-1	9.991631E-1	9.788181E-1	1.016150E+0	1.026583E+0	9.688366E-1	1.010263E+0	9.383957E-1	9.483145E-1	1.011429E+0	9.893790E-1	9.851778E-1	9.958991E-1	9.823972E-1	9.938114E-1	9.865073E-1	9.622834E-1	9.811984E-1	1.006521E+0	9.565286E-1	9.846089E-1	9.830035E-1	9.652172E-1	9.674835E-1	9.890363E-1	9.929592E-1	9.909573E-1	1.014398E+0	1.004038E+0	9.965082E-1	9.834665E-1	9.828613E-1	9.834003E-1	9.655352E-1	9.928017E-1	9.997517E-1	9.609729E-1	9.981559E-1	1.006144E+0	9.896237E-1	9.483732E-1	9.823693E-1	9.599351E-1	9.960510E-1	9.430356E-1	9.695676E-1	9.826167E-1	9.768209E-1	9.688070E-1	9.572758E-1	1.003530E+0	9.978626E-1	9.700512E-1	9.942791E-1	9.982048E-1	1.006415E+0	9.923422E-1	9.865539E-1	1.014374E+0	1.008167E+0	1.005552E+0	9.828241E-1	9.538827E-1	9.327981E-1	9.626538E-1	1.005779E+0	9.781496E-1	9.461881E-1	1.000554E+0	1.018466E+0	9.570417E-1	9.733619E-1	9.736340E-1	9.969367E-1	1.010949E+0	9.791047E-1	9.411743E-1	9.508019E-1	1.008753E+0	9.909437E-1	9.390672E-1	1.004107E+0	9.928886E-1	9.596529E-1	9.926747E-1	9.970144E-1	9.887711E-1	9.897551E-1	9.833925E-1	9.813299E-1	1.047505E+0	1.004780E+0	9.730212E-1	1.002931E+0	9.668301E-1	9.859126E-1	9.926753E-1	9.764346E-1	9.651795E-1	9.565441E-1	9.642569E-1	9.629728E-1	9.797984E-1	9.859382E-1	9.651955E-1	9.962437E-1	9.855652E-1	9.890746E-1	1.002412E+0	9.703107E-1	9.875663E-1	1.017937E+0	9.833132E-1	9.830250E-1	9.826883E-1	9.779173E-1	9.869709E-1	9.846771E-1	9.750187E-1	9.737164E-1	9.670765E-1	9.601130E-1	9.698171E-1	9.561887E-1	9.855415E-1	1.016118E+0	9.844120E-1	9.626305E-1	9.810286E-1	9.959766E-1	9.880996E-1	9.768997E-1	9.491425E-1	9.806379E-1	1.005599E+0	9.668601E-1	1.002070E+0	9.673013E-1	9.807586E-1	9.782872E-1	9.538852E-1	9.543674E-1	9.573232E-1	9.979521E-1	9.816170E-1	1.027656E+0	9.792025E-1	9.291763E-1	9.821345E-1	9.264750E-1	9.215446E-1	9.222754E-1
2.980020E+2	8.874130E-1	8.990244E-1	9.171994E-1	9.235808E-1	9.119870E-1	9.469173E-1	9.261125E-1	9.423312E-1	9.278091E-1	9.154105E-1	9.522713E-1	9.389211E-1	9.178753E-1	9.498274E-1	9.265791E-1	8.991715E-1	9.313656E-1	9.241694E-1	9.388898E-1	9.305430E-1	9.009150E-1	9.092160E-1	8.873555E-1	8.992542E-1	8.828567E-1	8.884187E-1	9.614929E-1	9.320178E-1	9.113533E-1	9.156384E-1	9.584136E-1	9.328121E-1	9.244090E-1	9.263655E-1	9.249790E-1	9.303774E-1	9.695640E-1	9.148555E-1	9.247968E-1	8.979091E-1	9.129137E-1	9.686435E-1	9.437374E-1	9.132995E-1	9.102480E-1	9.161412E-1	8.921367E-1	9.180788E-1	8.896699E-1	9.130850E-1	9.639732E-1	9.808669E-1	9.195301E-1	9.302461E-1	9.248425E-1	9.563378E-1	9.361936E-1	9.004400E-1	9.620229E-1	9.334084E-1	9.586025E-1	9.141533E-1	9.234364E-1	9.412647E-1	9.594849E-1	9.331167E-1	9.310169E-1	9.193840E-1	9.505727E-1	9.031764E-1	9.218874E-1	9.447109E-1	9.245294E-1	9.266563E-1	9.348352E-1	8.944117E-1	9.318329E-1	8.946305E-1	9.353370E-1	9.391416E-1	9.590407E-1	9.305692E-1	9.048753E-1	9.699095E-1	9.086395E-1	9.363033E-1	9.415362E-1	9.249130E-1	9.368787E-1	9.051631E-1	9.135567E-1	9.404467E-1	9.226828E-1	9.571023E-1	9.261241E-1	8.927544E-1	9.464053E-1	9.162607E-1	9.038492E-1	9.866060E-1	9.359516E-1	8.986173E-1	9.390276E-1	9.106555E-1	9.094236E-1	9.390264E-1	9.527190E-1	9.296122E-1	9.312184E-1	9.534736E-1	9.534252E-1	9.100980E-1	8.752916E-1	9.524059E-1	9.187196E-1	9.443135E-1	9.402042E-1	9.381758E-1	9.198775E-1	9.181653E-1	9.252402E-1	8.877376E-1	9.360096E-1	9.133442E-1	9.146655E-1	9.374132E-1	9.201833E-1	9.250932E-1	9.673310E-1	9.124424E-1	8.839159E-1	9.025967E-1	9.136849E-1	9.326583E-1	9.538662E-1	9.215421E-1	9.549566E-1	9.028193E-1	9.165432E-1	9.240477E-1	9.010497E-1	9.612157E-1	9.511409E-1	9.389171E-1	9.498522E-1	9.364697E-1	9.278735E-1	9.363426E-1	9.092891E-1	9.086711E-1	9.325769E-1	9.368973E-1	9.222956E-1	9.296815E-1	9.531239E-1	9.095289E-1	9.615094E-1	9.448394E-1	9.495065E-1	9.028702E-1	8.911743E-1	9.130510E-1	8.903893E-1	9.390322E-1	8.990986E-1	9.390708E-1	1.020104E+0	9.161608E-1	9.376237E-1	9.556894E-1	1.002482E+0
2.985010E+2	9.773634E-1	9.867134E-1	9.592836E-1	9.581007E-1	9.708453E-1	9.763912E-1	9.314320E-1	9.066349E-1	9.490684E-1	9.897816E-1	9.509947E-1	9.803314E-1	9.729973E-1	9.407531E-1	9.667796E-1	9.858853E-1	9.525723E-1	9.422334E-1	9.290173E-1	9.295265E-1	1.011550E+0	9.496299E-1	9.672577E-1	9.812796E-1	9.719690E-1	9.482782E-1	9.533091E-1	9.120945E-1	9.805106E-1	9.321711E-1	9.437200E-1	9.548599E-1	9.801404E-1	9.265063E-1	9.893483E-1	9.769904E-1	9.649664E-1	9.233543E-1	9.591584E-1	9.671754E-1	9.764233E-1	9.435106E-1	9.778937E-1	9.439254E-1	9.515306E-1	9.717097E-1	9.567842E-1	9.433761E-1	9.528967E-1	1.007223E+0	9.430242E-1	9.122293E-1	9.674376E-1	9.568862E-1	9.532469E-1	9.544672E-1	9.723485E-1	9.678567E-1	9.685639E-1	9.911516E-1	9.719261E-1	9.445411E-1	9.369389E-1	9.787234E-1	9.475809E-1	9.657060E-1	9.710107E-1	9.289568E-1	9.702650E-1	9.504691E-1	9.525583E-1	9.504168E-1	9.510393E-1	9.700164E-1	9.425415E-1	9.688228E-1	9.527528E-1	9.546278E-1	9.453547E-1	9.405205E-1	9.573980E-1	9.561987E-1	9.555335E-1	9.449548E-1	9.469463E-1	9.117469E-1	9.845300E-1	9.608660E-1	9.510125E-1	1.035538E+0	9.656272E-1	9.419323E-1	9.473590E-1	9.266704E-1	9.632950E-1	9.793926E-1	9.454821E-1	9.641445E-1	9.716878E-1	9.828071E-1	9.754935E-1	9.723288E-1	9.664702E-1	9.687014E-1	9.350491E-1	9.241204E-1	9.389811E-1	9.452563E-1	9.695440E-1	9.227328E-1	9.352963E-1	9.242999E-1	9.232900E-1	9.376476E-1	9.456093E-1	9.357701E-1	9.794554E-1	9.721816E-1	9.495587E-1	1.012362E+0	9.621110E-1	9.516996E-1	9.790346E-1	9.654416E-1	9.528220E-1	9.866250E-1	9.783658E-1	9.560003E-1	9.712819E-1	9.821694E-1	9.863905E-1	9.711006E-1	9.822711E-1	9.570406E-1	9.497562E-1	9.464372E-1	9.273005E-1	9.773137E-1	9.639166E-1	9.872126E-1	9.919587E-1	9.742579E-1	9.573446E-1	9.441091E-1	9.565406E-1	9.610743E-1	9.149229E-1	9.697368E-1	9.661491E-1	9.329555E-1	9.466743E-1	9.589417E-1	9.714731E-1	9.393291E-1	9.802554E-1	9.756924E-1	9.851213E-1	9.478983E-1	9.473038E-1	9.458054E-1	1.015775E+0	9.613421E-1	9.858951E-1	9.613104E-1	9.905823E-1	9.351007E-1	9.350730E-1	9.397909E-1	9.240989E-1	1.018704E+0	9.462128E-1
2.990020E+2	1.080233E+0	1.014105E+0	1.065667E+0	1.065277E+0	1.025592E+0	1.082594E+0	1.050235E+0	1.072942E+0	1.092423E+0	1.028131E+0	1.049337E+0	1.000308E+0	1.027987E+0	1.045238E+0	1.051358E+0	1.038362E+0	1.032103E+0	1.049964E+0	1.048075E+0	1.057895E+0	1.036584E+0	1.054774E+0	1.092762E+0	1.014950E+0	1.064011E+0	1.014329E+0	1.053283E+0	1.090936E+0	1.033006E+0	1.080324E+0	1.028196E+0	1.020709E+0	1.053594E+0	1.077730E+0	1.018621E+0	1.049246E+0	1.018794E+0	1.029677E+0	1.074448E+0	1.041697E+0	1.060550E+0	1.029945E+0	1.055135E+0	1.046304E+0	1.034328E+0	1.052468E+0	1.053006E+0	1.069374E+0	1.037162E+0	1.055422E+0	1.032179E+0	1.033786E+0	1.084954E+0	1.017764E+0	1.027694E+0	1.021981E+0	1.036961E+0	1.050727E+0	1.003291E+0	1.028616E+0	1.011583E+0	1.054676E+0	1.033764E+0	1.044676E+0	1.053585E+0	1.022338E+0	1.047414E+0	1.040332E+0	1.050781E+0	1.053706E+0	1.050349E+0	1.034527E+0	1.030289E+0	1.049461E+0	1.017239E+0	1.059352E+0	1.051131E+0	1.000616E+0	1.053068E+0	1.036922E+0	1.007505E+0	1.049270E+0	1.078951E+0	1.098373E+0	1.060769E+0	1.033928E+0	1.044228E+0	1.047808E+0	9.878576E-1	1.063558E+0	1.044516E+0	1.044711E+0	1.006211E+0	1.038928E+0	1.020557E+0	1.035781E+0	1.055667E+0	1.018299E+0	1.059453E+0	9.991110E-1	1.001495E+0	1.033591E+0	1.074819E+0	1.063770E+0	1.080451E+0	1.047684E+0	1.049055E+0	1.021457E+0	1.027438E+0	1.014580E+0	1.054722E+0	1.069549E+0	1.068838E+0	1.036135E+0	1.037618E+0	1.022162E+0	1.011463E+0	1.031165E+0	1.023200E+0	1.034557E+0	1.052187E+0	1.004097E+0	1.033643E+0	1.062184E+0	1.042031E+0	1.004168E+0	1.045945E+0	1.048221E+0	1.061111E+0	1.043317E+0	1.030646E+0	1.069482E+0	1.055670E+0	1.050468E+0	1.008679E+0	1.040716E+0	1.068112E+0	1.048553E+0	1.025451E+0	1.049869E+0	1.041467E+0	1.018411E+0	1.029334E+0	1.030019E+0	1.019992E+0	1.024076E+0	1.037477E+0	1.014666E+0	1.048492E+0	1.069296E+0	1.051412E+0	1.041101E+0	1.056759E+0	1.050290E+0	1.037327E+0	1.012399E+0	1.044437E+0	1.030383E+0	1.034890E+0	1.059865E+0	1.024214E+0	1.073647E+0	1.038309E+0	1.018184E+0	1.032457E+0	1.022032E+0	1.036662E+0	1.085894E+0	1.069343E+0	1.094585E+0	1.096180E+0
2.995060E+2	1.032425E+0	1.041296E+0	1.054339E+0	1.089660E+0	1.064018E+0	9.773742E-1	1.030746E+0	1.055775E+0	1.060714E+0	1.081463E+0	1.045347E+0	1.050878E+0	1.056155E+0	1.075096E+0	1.059052E+0	1.041947E+0	1.081132E+0	1.065901E+0	1.045177E+0	1.105116E+0	1.049262E+0	1.055468E+0	1.009879E+0	1.042333E+0	1.096569E+0	1.059913E+0	1.043892E+0	1.059671E+0	1.033600E+0	1.061054E+0	1.057198E+0	1.049977E+0	1.045422E+0	1.065055E+0	1.030333E+0	1.045698E+0	1.036968E+0	1.080234E+0	1.038841E+0	1.065948E+0	1.051516E+0	1.047392E+0	1.026678E+0	1.105783E+0	1.081414E+0	1.037570E+0	1.038097E+0	1.030468E+0	1.084637E+0	1.038174E+0	1.062262E+0	1.055630E+0	1.023520E+0	1.083191E+0	1.103501E+0	1.037680E+0	1.049238E+0	1.043491E+0	1.033825E+0	1.043722E+0	1.049225E+0	1.094599E+0	1.062736E+0	1.082737E+0	1.061204E+0	1.091728E+0	1.074787E+0	1.098516E+0	1.060344E+0	1.079064E+0	1.050640E+0	1.053001E+0	1.074382E+0	1.020713E+0	1.073470E+0	1.080247E+0	1.057119E+0	1.103294E+0	1.018293E+0	1.079502E+0	1.057766E+0	1.069199E+0	1.054095E+0	1.008404E+0	1.053743E+0	1.082198E+0	1.036974E+0	1.058833E+0	1.075695E+0	1.024149E+0	1.089130E+0	1.068157E+0	1.079480E+0	1.060215E+0	1.074976E+0	1.075190E+0	1.064575E+0	1.051181E+0	1.065133E+0	1.080095E+0	1.031900E+0	1.054057E+0	1.038794E+0	1.049781E+0	1.005302E+0	1.069376E+0	1.061368E+0	1.084575E+0	1.091812E+0	1.035271E+0	1.037066E+0	1.062307E+0	1.076037E+0	1.055494E+0	1.076493E+0	1.056912E+0	1.074840E+0	1.044166E+0	1.073637E+0	1.074892E+0	1.065651E+0	1.125101E+0	1.061661E+0	1.064136E+0	1.076625E+0	1.044318E+0	1.021606E+0	1.041383E+0	1.013723E+0	1.036341E+0	1.050478E+0	1.035314E+0	1.042151E+0	1.065807E+0	1.063588E+0	1.093690E+0	1.014654E+0	1.048983E+0	1.067385E+0	1.043939E+0	1.047751E+0	1.032760E+0	1.067843E+0	1.062344E+0	1.058833E+0	1.056091E+0	1.089989E+0	1.056429E+0	1.019951E+0	1.074278E+0	1.101213E+0	1.067804E+0	1.048078E+0	1.040932E+0	1.037212E+0	1.084204E+0	1.026098E+0	1.051777E+0	1.070568E+0	1.096227E+0	1.079887E+0	1.024430E+0	1.061066E+0	1.044289E+0	1.035136E+0	1.056805E+0	1.030260E+0	1.050297E+0	1.093033E+0	1.054177E+0	1.046053E+0
3.000060E+2	1.063100E+0	1.056622E+0	1.005541E+0	9.948310E-1	1.023534E+0	1.054189E+0	1.056805E+0	1.026719E+0	1.031566E+0	1.027306E+0	1.005842E+0	1.032245E+0	1.017604E+0	1.024522E+0	1.019488E+0	1.046329E+0	1.015810E+0	1.010455E+0	1.070178E+0	1.024863E+0	1.002526E+0	1.052095E+0	1.026596E+0	1.035601E+0	1.015757E+0	1.078798E+0	1.049627E+0	1.056967E+0	1.030101E+0	1.021434E+0	1.027295E+0	1.045744E+0	1.014037E+0	1.010532E+0	1.050211E+0	1.035405E+0	1.028509E+0	1.045358E+0	1.046227E+0	1.042661E+0	1.015594E+0	1.045292E+0	1.029072E+0	1.001651E+0	1.029520E+0	1.031154E+0	1.045578E+0	1.034665E+0	1.039126E+0	1.002629E+0	1.015701E+0	1.034087E+0	1.039024E+0	1.019112E+0	9.909644E-1	1.068561E+0	1.007104E+0	1.031342E+0	1.042673E+0	1.054729E+0	1.026294E+0	1.032096E+0	1.047074E+0	1.009563E+0	1.008577E+0	1.004494E+0	9.989499E-1	1.044004E+0	1.010762E+0	1.010055E+0	1.026702E+0	1.047292E+0	1.025481E+0	1.034949E+0	1.025500E+0	1.004824E+0	1.020610E+0	1.032458E+0	1.039780E+0	9.983620E-1	1.035467E+0	1.040880E+0	1.073746E+0	1.015705E+0	1.024124E+0	1.057674E+0	1.046543E+0	1.007026E+0	1.030090E+0	1.014550E+0	1.013808E+0	1.031119E+0	1.047331E+0	1.006136E+0	1.035943E+0	1.075708E+0	1.037069E+0	1.041362E+0	1.008934E+0	1.012314E+0	1.051052E+0	1.048517E+0	1.021236E+0	1.014417E+0	1.072759E+0	1.031023E+0	1.008122E+0	1.035707E+0	9.986580E-1	1.026438E+0	1.014710E+0	1.060724E+0	1.053612E+0	1.051488E+0	1.035648E+0	1.048167E+0	1.017603E+0	1.049132E+0	1.077183E+0	9.957669E-1	1.031838E+0	1.051567E+0	1.003714E+0	1.029699E+0	1.017613E+0	1.041910E+0	1.044825E+0	1.026890E+0	1.016242E+0	1.038163E+0	1.030632E+0	1.038193E+0	1.023198E+0	1.011338E+0	1.046194E+0	1.010645E+0	1.050300E+0	1.047312E+0	1.052988E+0	1.027855E+0	1.057661E+0	1.043537E+0	1.038149E+0	1.039069E+0	9.986637E-1	1.037877E+0	1.067107E+0	1.041797E+0	1.060143E+0	1.026699E+0	9.912241E-1	1.046113E+0	1.020757E+0	1.034170E+0	1.025221E+0	1.016107E+0	1.015533E+0	1.044344E+0	1.019445E+0	1.041347E+0	1.034582E+0	1.070206E+0	1.026389E+0	1.055568E+0	1.015070E+0	1.067790E+0	1.048724E+0	1.025722E+0	1.049427E+0	9.552997E-1	9.867970E-1
