Photon Energy (eV)	#1	#2	#3	#4	#5	#6	#7	#8	#9	#10	#11	#12	#13	#14	#15	#16	#17	#18	#19	#20	#21	#22	#23	#24	#25	#26	#27	#28	#29	#30	#31	#32	#33	#34	#35	#36	#37	#38	#39	#40	#41	#42	#43	#44	#45	#46	#47	#48	#49	#50	#51	#52	#53	#54	#55	#56	#57	#58	#59	#60	#61	#62	#63	#64	#65	#66	#67	#68	#69	#70	#71	#72	#73	#74	#75	#76	#77	#78	#79	#80	#81	#82	#83	#84	#85	#86	#87	#88	#89	#90	#91	#92	#93	#94	#95	#96	#97	#98	#99	#100	#101	#102	#103	#104	#105	#106	#107	#108	#109	#110	#111	#112	#113	#114	#115	#116	#117	#118	#119	#120	#121	#122	#123	#124	#125	#126	#127	#128	#129	#130	#131	#132	#133	#134	#135	#136	#137	#138	#139	#140	#141	#142	#143	#144	#145	#146	#147	#148	#149	#150	#151	#152	#153	#154	#155	#156	#157	#158	#159	#160	#161	#162	#163	#164	#165	#166	#167	#168	#169	#170	#171	#172	
2.790010E+2	-4.866082E-5	-1.016336E-2	-4.277151E-3	-5.814257E-3	5.717708E-3	-6.382742E-3	-2.382521E-3	-3.045845E-3	1.007145E-3	-6.520700E-3	-1.527484E-3	-3.825659E-3	-7.069754E-3	-7.925027E-3	-3.145069E-3	-2.513658E-3	-7.197057E-3	3.314991E-3	-6.851283E-3	-1.344739E-3	-1.837680E-3	-1.036953E-2	-3.362974E-3	2.090489E-4	-8.608061E-3	-7.316109E-3	-2.589503E-3	4.628136E-4	-2.136832E-3	-2.856745E-3	7.446183E-6	-5.507149E-4	-1.020661E-4	-5.119926E-3	-1.003898E-2	-7.837648E-4	-5.782395E-3	1.899715E-3	5.543933E-3	-2.809386E-3	-1.823212E-3	-4.762429E-3	-1.423415E-3	-1.392108E-3	-8.027130E-3	4.423113E-3	-8.901614E-3	-1.724614E-3	-1.296952E-3	-2.147370E-3	-4.090715E-3	-2.419708E-3	-1.021815E-2	-8.868750E-3	-6.992013E-3	5.802737E-3	-1.547412E-2	-2.164840E-3	1.305389E-3	-6.991120E-3	4.664502E-3	-1.061941E-2	-6.220110E-3	-4.222899E-3	-4.803388E-3	3.273522E-3	6.727839E-5	-9.056666E-4	1.892080E-4	-1.321513E-3	-9.913605E-3	-1.854376E-3	-1.686399E-3	-1.654774E-2	-1.068028E-2	-1.396119E-2	-4.777094E-3	-4.034958E-3	-5.888334E-3	-2.014519E-3	-4.955992E-3	-7.372402E-3	8.853272E-3	-5.853199E-3	-8.285677E-3	6.089709E-3	-6.247367E-3	7.169303E-3	5.271169E-3	-9.613030E-3	5.669129E-3	2.863222E-3	-5.326610E-3	-7.932521E-3	1.175834E-3	-1.002279E-2	-1.105018E-2	-4.725407E-3	-3.124592E-3	-2.726894E-3	8.002010E-4	-1.419968E-3	-4.848389E-3	-9.446069E-3	-6.367430E-3	-6.213416E-3	-3.459248E-4	9.094372E-3	-1.025768E-2	2.501071E-3	-8.189777E-3	-7.584216E-3	5.268930E-3	1.748011E-3	3.124110E-3	-5.141522E-3	-7.185971E-3	4.783177E-3	-5.134695E-3	1.961643E-3	-8.502403E-3	-2.844564E-3	7.647210E-3	6.982658E-3	1.433264E-3	-3.314433E-4	-3.384333E-3	-5.216743E-3	-2.055652E-3	7.796106E-3	2.478718E-3	-8.449660E-3	-9.323316E-5	4.283110E-3	-1.070543E-2	9.322157E-4	-1.499420E-3	8.632166E-3	-5.848080E-3	3.268749E-3	-7.546417E-4	-8.615416E-3	7.610851E-4	-5.720766E-3	-1.043792E-2	-6.642450E-3	-7.588323E-3	2.246197E-3	-5.955470E-3	1.162319E-3	-5.841106E-3	4.454695E-3	-7.654419E-3	-2.048394E-3	-8.378765E-3	-7.134793E-3	9.367959E-4	-5.727742E-4	-4.213143E-3	7.305681E-3	1.269820E-2	-2.369432E-3	-1.391458E-3	-8.067190E-3	1.017184E-4	-5.160831E-3	-2.490140E-3	2.396086E-3	-1.221153E-2	7.059804E-3	-1.183915E-3	-7.547465E-5
2.795050E+2	-7.159510E-3	6.258134E-4	-5.280590E-3	4.959720E-3	-9.486385E-3	-8.844540E-4	-5.337581E-3	3.610995E-3	5.858551E-5	-1.002647E-2	6.796492E-3	2.913314E-4	-7.083288E-3	3.959209E-3	-2.434900E-3	-1.041146E-3	6.671726E-3	-7.891841E-3	-7.726539E-3	-1.207197E-2	-1.845716E-3	3.193048E-3	2.780238E-3	1.533853E-3	-5.144001E-3	-1.900873E-4	-2.604130E-3	-4.991180E-3	-2.995818E-3	-2.873418E-3	-9.097937E-3	-3.460906E-3	-6.551063E-3	5.568951E-4	-7.618800E-3	8.981754E-4	8.602075E-3	-2.288723E-3	-1.616304E-3	9.788433E-4	-4.333727E-3	-9.492290E-3	6.265557E-3	1.161139E-2	-7.979784E-3	-6.202626E-3	1.619419E-3	-3.055631E-3	5.081115E-3	2.728346E-4	4.835463E-3	-5.759530E-3	-3.502713E-3	2.551072E-4	-1.772268E-3	-1.025983E-2	-1.207514E-4	-2.926602E-3	-3.842350E-3	-1.201346E-3	1.301709E-3	2.863541E-3	-1.088055E-2	-6.073252E-3	-9.310764E-3	-1.427197E-2	-9.397719E-3	-8.168018E-3	-1.294109E-2	-1.296042E-3	-3.670325E-4	3.806065E-3	-1.008439E-2	-7.075181E-3	-1.065150E-2	1.581238E-3	-1.147000E-2	-5.613794E-3	-1.078745E-2	-8.548441E-3	-6.790890E-3	-9.118198E-3	6.889401E-3	4.449759E-3	-5.167896E-3	-4.638963E-3	2.618229E-4	-2.851445E-3	-2.073394E-3	-3.311409E-3	1.396574E-4	-2.122744E-2	-4.428892E-3	1.508524E-3	-1.051718E-2	2.497050E-3	-1.151319E-3	8.974356E-3	-3.870127E-3	2.289469E-3	-5.276170E-3	-2.141062E-3	-1.149030E-3	-8.467701E-3	-6.345238E-3	-6.181875E-3	-4.665387E-3	6.263762E-4	-7.112223E-4	-4.279817E-3	6.046849E-3	5.444254E-3	5.193774E-3	5.327996E-3	-8.449757E-3	3.466425E-3	-1.554977E-2	-9.633786E-3	-1.450491E-2	1.919649E-3	9.466956E-3	-6.154408E-3	8.421445E-3	-7.296399E-3	8.490708E-3	4.412592E-3	-5.125671E-3	-5.233881E-3	-8.394783E-3	-8.595731E-3	-7.305220E-3	2.976347E-4	8.510511E-3	-4.951861E-3	-5.649499E-3	-6.083679E-6	-7.135489E-3	-5.300683E-3	-5.862355E-3	5.226768E-3	-6.576459E-3	-7.796786E-3	2.340193E-3	-9.806113E-3	-4.318484E-3	-1.385511E-4	2.944446E-3	-9.241629E-3	-2.750640E-3	-2.070386E-3	-8.941954E-3	-1.714572E-2	1.602115E-2	2.069246E-3	7.772657E-3	4.901080E-4	-1.798587E-3	1.074989E-3	2.113455E-3	-1.703699E-3	-1.014346E-3	-7.048443E-4	-1.243640E-2	-5.298669E-3	-3.851995E-3	-3.622193E-3	-3.283585E-3	-9.375168E-3	-6.685537E-3	-4.402289E-3	-5.051163E-3	-2.158927E-2
2.800020E+2	-1.361243E-3	1.157037E-3	-1.671423E-3	3.820794E-3	4.498003E-3	-4.300483E-3	-3.372469E-3	-8.460813E-3	-4.800180E-3	-1.588674E-3	-1.798301E-3	-7.386311E-3	-5.027317E-3	-2.657967E-3	-1.272179E-2	-7.920047E-3	3.762507E-3	8.124154E-3	-3.694160E-3	2.462212E-3	-4.942486E-3	2.914218E-3	1.722908E-3	-6.811648E-4	-1.942674E-4	-2.045478E-3	-9.957278E-3	-5.700869E-4	1.787290E-3	-3.932628E-3	-4.788032E-3	-8.748734E-3	4.884990E-4	-2.561549E-3	-2.194216E-3	6.290781E-3	-3.128905E-3	-1.015903E-2	-4.729834E-3	-5.475518E-3	-1.234988E-2	5.991719E-3	-1.356199E-2	-1.187043E-2	6.344319E-4	-4.901607E-3	-9.924125E-3	-3.321706E-3	-4.270880E-3	4.026047E-3	-4.319533E-3	-8.616838E-3	5.288001E-3	-1.386048E-3	-4.972507E-3	-1.333815E-2	-9.389521E-3	-3.968307E-3	-1.488279E-3	-2.320373E-3	-9.239703E-3	1.044780E-2	2.173793E-3	-3.905842E-3	5.094231E-3	-1.097592E-2	-8.746961E-3	6.581809E-4	3.126718E-3	-1.375774E-2	-3.964467E-3	-6.496313E-3	9.066334E-5	-5.720154E-3	-1.515005E-3	7.865701E-3	-3.099115E-3	-1.374550E-2	-2.819903E-3	-8.784859E-3	-1.342309E-3	-6.057178E-4	-5.268153E-3	5.500442E-5	-5.336965E-3	2.008107E-3	-2.131720E-3	-4.596847E-3	-6.581557E-3	-3.475446E-3	-3.233068E-3	-8.177973E-3	-2.668415E-3	-3.811421E-3	-1.278920E-3	-7.784322E-3	2.240004E-3	-1.026563E-2	-1.750207E-2	-6.096977E-3	7.168599E-4	-4.645879E-3	4.431568E-3	-5.180787E-3	-1.181639E-2	-1.241471E-2	3.849253E-3	-1.607844E-2	-3.427239E-3	-5.390288E-3	-8.407643E-3	-2.477158E-3	-4.712672E-3	-1.132256E-2	-1.960512E-3	3.104457E-4	-8.773083E-4	-5.309818E-3	2.175162E-3	-6.488466E-3	-5.795476E-3	-2.301237E-3	-1.452798E-2	2.800611E-3	-1.211742E-2	6.475850E-3	1.444884E-3	-8.453308E-4	-4.992294E-3	-9.723167E-3	-7.539658E-3	2.895135E-3	-2.711367E-3	-6.137841E-4	-4.447241E-3	-4.797300E-3	-5.518953E-3	-7.271086E-3	3.078635E-3	-1.789331E-2	-5.980099E-3	1.909436E-3	-2.080726E-3	7.736724E-3	4.137867E-3	-6.966568E-3	-1.224792E-2	-7.532094E-3	-1.339411E-2	-2.333270E-3	-4.546694E-3	2.303082E-3	2.942054E-3	1.567398E-4	-9.444747E-3	-1.685196E-3	-2.948599E-3	8.048131E-4	-2.098044E-3	-1.089880E-2	-2.261852E-3	-3.469947E-3	-1.265224E-2	-1.019363E-2	-6.447773E-3	-3.864814E-3	-3.550624E-3	5.684027E-3	4.074972E-3	-6.076020E-3	-7.211537E-3	-1.315846E-2
2.805050E+2	-2.586166E-3	2.548263E-3	-2.869307E-3	-8.737544E-3	-8.276292E-3	-1.542694E-2	-1.011409E-2	-8.648820E-3	-5.011389E-3	-2.682702E-3	-1.250419E-2	-9.219464E-3	-5.984213E-3	-1.072121E-2	-6.464460E-3	-8.085020E-3	-8.500187E-3	-4.885313E-3	7.106823E-3	-9.996817E-3	2.735946E-3	-2.539255E-3	-9.928031E-3	-5.454972E-3	4.331481E-4	-3.060028E-3	-1.482706E-3	-7.770218E-4	-9.486741E-4	5.811326E-3	-1.987931E-3	-4.616155E-3	6.578679E-3	3.777299E-3	-1.236714E-6	-9.281084E-3	-6.172993E-3	-6.169856E-3	-7.060422E-3	-3.610478E-3	-1.376527E-3	-3.613095E-3	-2.751264E-3	-1.201752E-2	-1.076321E-2	-4.332753E-3	3.487035E-3	-5.070056E-3	-3.594358E-3	-1.141166E-2	1.100099E-3	-1.054001E-2	-1.546736E-2	-2.018633E-4	1.446562E-3	1.016651E-2	-2.638688E-3	-1.785489E-3	-4.274879E-3	-3.387754E-3	1.681426E-3	-1.097161E-2	-4.265199E-3	-6.487563E-3	-4.321592E-3	-1.549458E-2	-4.094593E-4	6.194945E-3	-6.336068E-3	-2.399280E-3	1.923328E-3	-2.019799E-3	6.805486E-4	-5.921516E-3	-7.874781E-3	-1.985587E-3	-7.734667E-4	3.117499E-4	-6.288554E-3	-5.470484E-4	2.162827E-3	-3.438217E-3	-1.236132E-2	-2.830930E-3	8.237421E-3	-1.191211E-2	1.927340E-3	-3.325292E-3	-8.611384E-3	-5.517546E-3	-6.594370E-3	-4.070723E-3	-2.075435E-3	-6.623994E-4	-6.917726E-3	-2.810557E-3	-2.449791E-3	-5.977122E-3	-1.806045E-3	-4.271783E-3	1.325883E-3	4.312422E-3	-1.601647E-3	-1.109256E-3	-8.101752E-4	3.019538E-3	-4.137833E-3	-3.592820E-4	-8.666645E-3	4.469180E-3	-5.234530E-3	-1.948072E-3	-6.765094E-3	-7.881734E-3	-6.882867E-3	1.084145E-3	3.127012E-3	-7.723938E-3	-5.588651E-3	-1.038470E-2	-8.661410E-4	-1.950775E-2	-9.810882E-3	-1.004250E-2	-2.428278E-3	-8.471780E-4	-3.841918E-3	-1.154022E-2	-4.206934E-3	-2.716485E-3	1.150175E-2	-1.007939E-2	-2.906662E-3	-1.589093E-3	-1.776065E-3	-5.690981E-3	-9.395515E-3	1.314539E-2	4.501840E-3	-6.937584E-3	4.065423E-4	-1.048547E-3	-6.459129E-3	-8.068912E-3	-1.085962E-2	-9.028635E-3	-4.568038E-3	-1.147166E-2	1.604424E-3	-1.047472E-2	-5.505450E-3	8.249363E-3	-1.623898E-2	-7.408808E-3	-3.698466E-4	-4.746172E-3	-1.030931E-2	-9.299685E-3	-4.659728E-3	-1.672630E-2	-9.237259E-3	-4.492941E-3	-1.031473E-2	8.003707E-3	6.626359E-3	1.285944E-3	-2.995975E-3	-5.301992E-3	-1.698500E-2	-1.335226E-2	4.026705E-3	-9.054975E-3
2.810050E+2	-9.602284E-3	-9.784347E-3	-1.634499E-2	1.919791E-3	-4.960159E-3	-3.750461E-3	7.767576E-4	1.184207E-2	2.254925E-3	3.319887E-3	-3.520662E-3	-2.403660E-4	-1.467160E-3	-1.308282E-2	6.582658E-4	8.773650E-3	-1.108359E-2	-6.596168E-3	-5.295453E-4	-6.750080E-3	-5.115356E-3	-6.271766E-3	-1.575853E-3	-6.760917E-3	-1.074965E-2	5.546989E-3	-3.066330E-3	-2.324880E-3	-3.465644E-3	-7.443915E-3	5.489651E-3	-3.904112E-3	1.017820E-2	-4.686113E-3	-8.018120E-3	1.987148E-3	-4.998600E-4	7.312034E-4	-4.939275E-3	-4.297355E-3	-3.113194E-3	1.049475E-3	-1.083254E-3	-4.084453E-3	6.771227E-3	-5.094035E-3	4.269490E-3	-4.319926E-3	-2.717600E-3	-5.033039E-3	-3.726533E-3	-9.623035E-4	7.442053E-3	6.023275E-3	-2.235351E-3	2.272327E-3	-6.867810E-4	-5.770416E-3	-9.437023E-3	-2.565711E-3	-2.972546E-3	1.013915E-2	3.689065E-4	-4.124574E-3	-7.083586E-3	1.816171E-3	2.973798E-3	-2.870057E-3	2.096639E-3	-3.833328E-4	4.605267E-3	-4.807763E-4	-9.562748E-3	1.585282E-2	5.201237E-3	1.462234E-3	-5.010882E-3	3.443387E-3	3.425913E-3	2.495509E-3	-2.537719E-3	2.599479E-3	-2.606396E-3	-6.397222E-3	-1.741045E-3	-1.648644E-2	1.198071E-3	-1.120150E-3	-1.231189E-2	-1.175459E-2	-4.259190E-3	1.676107E-4	-1.502425E-2	-5.835108E-3	7.502016E-4	-1.368244E-3	-4.289267E-3	-7.843836E-3	-6.039533E-3	1.179629E-2	-3.193326E-4	-2.767917E-4	6.586303E-4	-4.067616E-3	6.416042E-3	2.905363E-3	-3.361742E-3	-4.320115E-4	-6.929236E-3	-3.898759E-3	3.963358E-3	-6.444845E-3	-7.662229E-3	-3.313854E-3	6.410745E-3	-1.368107E-2	-2.524140E-3	8.043263E-3	-2.209171E-3	-5.461133E-4	-4.630424E-3	8.047094E-4	-2.538767E-3	-9.037707E-3	-1.116543E-2	-7.908130E-3	-4.226370E-4	-5.385726E-3	-4.181936E-3	8.840283E-4	4.633747E-3	4.789008E-3	-9.047236E-3	-9.914001E-3	3.995308E-3	-1.897198E-3	7.820186E-3	-2.240229E-3	-2.053692E-3	-4.249654E-3	-1.711221E-3	-1.353726E-4	-7.181656E-3	-5.278836E-3	4.963209E-3	1.257763E-3	-9.911349E-4	2.894464E-3	-1.525202E-3	4.614275E-3	-5.480287E-3	-3.943585E-3	-7.687265E-4	-6.571607E-3	-2.861021E-3	-4.342520E-4	-3.069041E-3	-1.883527E-3	-1.512337E-3	-6.920029E-3	-3.408877E-3	5.099723E-4	4.789901E-3	-6.750146E-3	-3.724743E-4	-4.814139E-3	-3.759972E-3	-7.985201E-3	3.818623E-3	3.615667E-3	5.933536E-3	-4.823368E-3
2.815000E+2	5.429959E-3	4.256419E-3	1.016864E-3	1.991173E-3	9.431770E-4	5.674826E-3	3.759351E-3	-3.459120E-3	-1.328351E-3	-6.084818E-3	3.300107E-3	7.198385E-3	1.145606E-2	6.589124E-3	4.308736E-3	2.982866E-3	5.278096E-3	-4.847521E-3	3.815147E-4	-5.058813E-3	-2.195733E-3	1.170220E-2	1.541870E-3	-7.929301E-4	3.058932E-3	4.057344E-3	8.795812E-3	2.356244E-3	-6.910185E-5	6.692471E-3	-4.288445E-4	1.194643E-3	-6.080459E-3	5.699048E-3	4.064995E-3	-1.166588E-3	2.898125E-4	2.883949E-3	1.075515E-2	7.438618E-3	1.325490E-2	-1.137199E-2	-1.863455E-3	2.337354E-3	2.854139E-3	-5.036545E-3	-1.257647E-3	4.917370E-3	-2.657666E-3	1.429963E-3	4.362402E-3	7.836261E-3	8.351798E-3	-5.684748E-3	7.400942E-3	-6.257855E-3	9.300313E-3	1.098420E-2	2.636037E-3	5.907586E-3	4.501415E-3	-3.094250E-3	5.100663E-3	-2.471423E-3	3.010421E-3	1.020419E-3	3.045776E-3	3.776616E-3	9.869047E-3	7.822369E-3	-1.376672E-3	-1.961374E-3	2.436507E-3	8.155063E-3	2.192073E-3	-8.895316E-3	1.951143E-2	-2.803037E-3	2.696818E-3	4.114566E-3	3.120707E-3	7.006555E-3	4.313425E-3	2.515584E-3	5.235745E-3	7.149132E-3	2.712732E-3	-1.038648E-3	3.365723E-3	6.928923E-3	2.102405E-3	1.751092E-2	1.429734E-2	9.375501E-3	5.467320E-3	-2.038419E-3	-6.912425E-3	8.276952E-3	1.062684E-2	3.767062E-3	-1.017786E-2	8.941764E-3	2.912641E-3	1.906132E-3	-4.480530E-3	-8.261225E-3	-1.568761E-3	3.543415E-3	7.796472E-3	-1.293088E-3	4.075905E-3	8.736293E-3	5.948047E-3	3.164285E-3	-2.946490E-3	5.375810E-3	1.162367E-2	1.384137E-3	8.812650E-3	4.584580E-3	2.048893E-3	3.324829E-3	3.993999E-3	8.546644E-3	3.926573E-3	-7.396757E-4	5.095871E-4	1.069604E-2	1.379132E-2	-5.333607E-3	-3.144966E-3	3.966213E-3	-7.420513E-3	-2.238510E-3	3.383444E-3	-1.088458E-3	9.783029E-3	-1.078100E-2	-2.809171E-3	7.740496E-3	-8.059016E-4	-1.799208E-3	-2.908206E-3	-7.631093E-4	4.185435E-3	2.313573E-3	-2.633344E-3	-3.068099E-3	1.066078E-2	-7.201541E-3	1.530912E-2	-6.374152E-3	-3.736845E-4	-1.561484E-3	6.540876E-3	-1.058799E-3	4.388644E-3	3.154491E-3	-1.405665E-3	4.867890E-3	-9.083107E-3	1.426996E-3	1.498535E-2	7.285632E-3	2.193685E-3	4.470581E-3	2.589050E-3	-1.017234E-3	8.712169E-3	-1.919550E-3	3.653584E-4	1.186234E-2
2.820040E+2	5.685628E-3	3.376747E-4	1.184619E-2	-6.060811E-3	1.124898E-2	1.060268E-2	5.433038E-3	5.574674E-3	1.626201E-3	2.739971E-3	5.023916E-3	9.082224E-3	1.116225E-3	2.881971E-3	3.104042E-3	3.181108E-3	1.071534E-2	1.239376E-2	1.423665E-3	1.067920E-2	8.046884E-3	2.201681E-3	4.813405E-3	1.374074E-3	1.450132E-2	-2.027551E-3	5.869028E-3	2.357066E-4	8.507875E-3	-5.912905E-4	1.032010E-2	9.341956E-3	-4.997890E-3	-1.632466E-3	6.693544E-3	-6.649711E-3	4.782923E-3	-3.818697E-4	-6.093200E-3	-4.715263E-3	6.615911E-3	9.944077E-3	8.716479E-4	8.924959E-3	1.454014E-3	1.247750E-2	3.766452E-3	1.205995E-2	-6.658583E-4	3.238525E-3	-2.714580E-4	3.677232E-3	5.309382E-3	1.459190E-3	-5.658954E-3	1.133029E-3	8.536841E-3	-2.354810E-3	-1.482925E-3	1.204992E-2	-4.598490E-3	-5.451050E-4	5.321266E-3	1.446155E-2	-4.084012E-3	1.168325E-2	1.543873E-3	2.327852E-3	7.809851E-3	5.339460E-3	-1.199866E-3	6.088186E-3	1.808707E-3	2.907951E-3	1.245570E-2	9.609783E-3	-5.641897E-3	1.322376E-2	4.548097E-3	1.436803E-2	8.946934E-3	-4.099829E-3	-7.262831E-3	1.827653E-3	-5.311811E-3	-7.136123E-3	6.528372E-3	1.406229E-3	1.834521E-2	1.785273E-2	2.315510E-3	-4.493114E-4	1.282475E-2	6.236029E-3	2.558756E-3	1.301099E-2	8.291331E-3	6.702885E-3	1.505887E-2	-7.788792E-3	3.028982E-3	-7.738950E-3	-9.305641E-3	9.468281E-3	3.018394E-3	9.265018E-3	6.440815E-3	-4.048832E-3	1.416453E-2	6.492388E-3	5.978790E-3	-2.402893E-3	4.149393E-4	7.994813E-3	1.097554E-3	4.086308E-4	9.452461E-3	-7.456646E-3	3.160387E-3	6.293672E-3	9.878342E-3	1.008850E-2	3.425281E-3	1.640494E-3	5.065447E-3	2.760237E-4	-3.544298E-3	3.657991E-3	5.378426E-4	6.602460E-3	-2.942257E-3	1.454431E-3	6.067908E-3	-4.971287E-4	1.086158E-2	5.733200E-4	8.165945E-3	-1.101905E-3	4.095168E-3	9.625952E-3	2.394403E-4	2.017527E-3	7.357403E-3	1.133600E-2	1.804011E-3	4.468825E-3	7.286550E-3	9.229541E-3	1.173275E-2	8.968647E-3	7.133134E-3	1.061305E-2	2.601621E-3	1.840837E-2	6.778865E-3	5.670592E-3	8.234178E-3	-1.596691E-3	-4.357573E-3	1.667675E-2	8.248916E-4	-4.239051E-3	5.998729E-3	6.278582E-3	8.895949E-4	9.420716E-5	7.545214E-3	1.181737E-2	1.315949E-3	3.998961E-3	6.137489E-4	2.710709E-2
2.825040E+2	9.642278E-3	1.102250E-2	1.758040E-2	7.921134E-3	3.149651E-4	1.446758E-2	1.123752E-2	2.586856E-3	6.193064E-3	2.084350E-2	4.230121E-3	4.099861E-3	1.405945E-2	2.095672E-2	1.669517E-2	4.622247E-3	3.531635E-4	3.879375E-4	9.889525E-3	2.208100E-2	5.154142E-3	-8.305988E-4	4.008437E-3	1.057301E-2	6.702578E-3	5.034922E-3	5.035107E-3	5.608404E-3	-6.790957E-4	5.194200E-3	4.855477E-4	1.074402E-2	4.861048E-4	3.966811E-3	1.711282E-2	8.705043E-3	1.909343E-3	1.348461E-2	8.139947E-3	1.249054E-2	3.125728E-3	1.225453E-2	1.354618E-2	6.490804E-3	1.505631E-2	8.666949E-3	6.940991E-3	5.146114E-4	1.012220E-2	9.624704E-3	2.110276E-3	1.678490E-2	2.796986E-3	8.403838E-3	1.278359E-2	1.048123E-2	1.047270E-2	7.986261E-3	1.658403E-2	-1.491205E-3	4.661687E-3	1.779882E-3	8.401235E-3	1.282401E-2	2.149869E-2	2.294910E-2	1.092341E-2	-1.013852E-3	-3.814304E-3	5.996074E-3	1.029305E-2	2.918387E-3	1.631711E-2	8.348762E-3	1.087255E-2	4.323138E-3	1.126102E-2	9.218384E-3	1.511342E-2	-1.083238E-3	1.396442E-3	1.502833E-2	7.442597E-3	6.233350E-3	1.237023E-2	2.492669E-2	-4.249250E-3	4.356850E-3	2.596123E-3	8.890369E-3	3.859926E-3	1.338369E-2	2.401516E-3	1.121396E-3	8.761710E-3	8.516291E-3	1.532165E-2	4.857802E-3	6.656657E-3	3.031625E-3	9.901440E-3	2.968465E-3	8.901868E-3	1.689702E-2	2.038533E-2	1.788131E-2	3.789580E-3	7.654401E-3	8.031026E-3	1.399313E-3	1.767050E-3	6.676638E-3	2.314305E-3	4.283046E-3	9.607216E-3	8.177140E-3	1.934054E-3	1.591361E-2	1.328923E-2	2.659733E-3	-1.599747E-3	1.658991E-2	3.389698E-3	6.406199E-3	6.795134E-3	-1.338039E-3	1.436439E-2	1.386787E-2	9.502436E-3	1.108640E-2	2.317883E-3	5.126626E-3	7.600592E-3	1.552127E-2	4.337898E-3	1.197449E-2	-2.219783E-3	4.917342E-3	4.897656E-3	3.218581E-3	1.518234E-2	1.546837E-2	8.171036E-3	1.056501E-2	1.052550E-2	1.473604E-2	1.779777E-2	1.694328E-2	-3.725368E-4	7.334676E-3	7.873235E-3	1.843268E-3	3.470982E-3	-3.044065E-3	-3.801890E-5	8.898511E-3	4.565920E-3	8.318386E-3	1.613303E-2	7.398506E-3	1.148235E-2	1.333925E-2	1.102085E-2	8.741716E-3	8.608850E-4	1.161124E-2	5.946032E-3	3.782116E-3	1.796036E-2	1.107568E-2	2.507266E-3	9.732116E-3
2.830060E+2	8.251158E-3	8.461572E-3	2.032908E-2	2.112166E-2	6.957214E-3	6.518083E-3	1.267967E-2	1.513678E-2	9.611054E-3	1.554374E-2	6.364023E-3	9.717656E-3	1.017591E-2	5.842380E-3	2.402862E-2	4.452941E-3	1.141409E-2	5.234658E-3	6.265489E-3	8.025440E-3	8.646640E-3	1.868607E-2	2.399345E-2	1.257053E-2	1.084135E-2	-5.502161E-3	1.123366E-2	6.977500E-3	1.859671E-2	1.587105E-2	1.020200E-2	9.251628E-3	3.867173E-3	8.394991E-3	1.706267E-2	6.094507E-3	1.625515E-2	6.451204E-3	5.950902E-3	9.731716E-3	3.762670E-3	1.612278E-2	1.340949E-2	1.193647E-2	1.589211E-2	1.463426E-2	1.329271E-2	8.101640E-3	8.165046E-3	1.516630E-2	9.181061E-3	7.759751E-3	2.347792E-2	-8.422305E-4	8.261226E-3	1.117139E-2	2.326660E-2	1.913102E-2	2.168011E-2	1.358864E-2	4.372668E-3	1.271927E-2	6.685876E-3	2.080076E-2	7.585367E-3	1.762700E-2	1.333390E-2	9.525354E-3	1.861417E-2	1.004654E-2	3.080668E-2	3.535557E-3	1.453088E-2	2.010583E-2	1.308078E-2	-2.103623E-3	1.534468E-2	2.187157E-2	2.657102E-3	1.508180E-2	4.776451E-3	2.521451E-3	1.310221E-2	6.836655E-3	2.012144E-2	5.687603E-3	1.660362E-2	1.554806E-2	1.527505E-2	5.943433E-3	3.675194E-3	7.923784E-3	1.785049E-2	8.536232E-3	1.568461E-2	8.379527E-3	1.427771E-2	-8.178511E-3	8.982192E-3	1.367555E-2	1.524733E-2	5.815601E-3	1.400869E-2	1.082356E-2	2.284683E-2	1.063747E-2	9.626775E-3	9.808569E-3	7.474735E-4	8.758683E-3	1.329323E-2	1.730352E-2	2.455523E-2	1.784699E-2	9.385864E-3	1.142261E-2	1.680865E-2	1.820754E-2	3.053869E-2	1.849699E-3	1.133710E-2	5.764683E-3	4.859569E-3	3.103905E-3	1.201923E-2	1.377273E-2	3.042656E-3	2.650789E-2	1.659681E-2	8.263820E-3	-4.143515E-3	9.695516E-3	1.702159E-2	1.091700E-2	1.234519E-2	8.424386E-3	7.869499E-3	-4.079196E-3	1.318867E-2	-8.178823E-3	1.260382E-2	6.264871E-3	1.324529E-2	1.437512E-2	1.135829E-2	6.096463E-3	1.960920E-2	8.197213E-3	1.487831E-2	1.937041E-2	2.340548E-2	1.213989E-2	7.856500E-3	1.582187E-2	2.114302E-2	1.950290E-2	1.435883E-2	1.068663E-2	2.013273E-2	1.278826E-2	3.345092E-3	1.412301E-2	3.246569E-3	6.121008E-3	1.424782E-2	-2.475271E-3	1.062639E-2	9.595403E-3	8.659526E-3	1.714697E-3	-7.400080E-4	1.389616E-2
2.835010E+2	2.156011E-2	1.617153E-2	2.745600E-2	2.398041E-2	1.391507E-2	2.603702E-2	1.368212E-2	3.599449E-2	2.569536E-2	2.732384E-2	2.824677E-2	3.867415E-2	1.506953E-2	2.462479E-2	1.268779E-2	1.447103E-3	3.199687E-2	2.717856E-2	2.032787E-2	8.131076E-3	2.435627E-2	1.594006E-2	1.421024E-2	3.326674E-2	2.697527E-2	1.391424E-2	2.197238E-2	2.777147E-2	2.835621E-2	3.231004E-2	2.126798E-2	1.690911E-2	1.983254E-2	2.974568E-2	9.007434E-3	3.040509E-2	2.769581E-2	3.244110E-2	2.457764E-2	5.750549E-3	2.777286E-2	2.607074E-2	2.669314E-2	1.453040E-2	3.436731E-2	2.263833E-2	1.352831E-2	2.888939E-2	2.778219E-2	1.457661E-2	1.426062E-2	2.043260E-2	9.483970E-3	3.372913E-2	1.760594E-2	2.483560E-2	1.836425E-2	2.520054E-2	1.750393E-2	2.772252E-2	1.303078E-2	2.107282E-2	1.725885E-2	3.432001E-2	3.960702E-3	2.057851E-2	2.497826E-2	1.727641E-2	2.059594E-2	3.559582E-2	1.882439E-2	9.303981E-3	2.987623E-2	1.000274E-2	2.684694E-2	2.301898E-2	1.124653E-2	3.283285E-2	3.215873E-2	1.542460E-2	2.794933E-2	2.402874E-2	1.727440E-2	3.342099E-2	3.012264E-2	1.450934E-2	2.368968E-2	1.977434E-2	2.393519E-2	2.433299E-2	2.169264E-2	2.673715E-2	2.171649E-2	1.738440E-2	2.718602E-2	2.539899E-2	1.450629E-2	1.656638E-2	2.980564E-2	1.567026E-2	2.905079E-2	1.696987E-2	2.418946E-2	1.644646E-2	2.314703E-2	3.769669E-2	2.591530E-2	2.624575E-2	2.855940E-2	1.242233E-2	1.000702E-2	1.603411E-2	2.784281E-2	1.252730E-2	2.314263E-2	1.251189E-2	2.312366E-2	2.168577E-2	1.437555E-2	6.452323E-3	3.012207E-2	2.432371E-2	2.414231E-2	2.053722E-2	1.766837E-2	2.131297E-2	2.679782E-2	2.777320E-2	2.213455E-2	3.249665E-2	2.109261E-2	2.309175E-2	2.458795E-2	1.428966E-2	2.310410E-2	1.678885E-2	1.270435E-2	2.162063E-2	1.076200E-2	1.313843E-2	3.338123E-2	2.858465E-2	2.201403E-2	1.934820E-2	1.507489E-2	1.764146E-2	2.978714E-2	2.955135E-2	2.422911E-2	1.229354E-2	2.702192E-2	1.175790E-2	3.341157E-2	2.534934E-2	2.229562E-2	2.399655E-2	3.032851E-2	1.850472E-2	2.373164E-2	2.179928E-2	2.328605E-2	1.420503E-2	1.287051E-2	2.520451E-2	1.776001E-2	2.845832E-2	2.300758E-2	1.810729E-2	1.080636E-2	2.313789E-2	-1.890189E-3	7.720904E-3
2.840000E+2	5.953142E-2	5.365546E-2	4.899053E-2	6.068589E-2	4.051274E-2	4.294015E-2	7.303153E-2	5.292484E-2	4.345999E-2	6.312613E-2	5.169287E-2	6.348954E-2	4.971781E-2	5.838469E-2	7.328009E-2	4.870993E-2	5.078676E-2	4.824003E-2	6.885530E-2	5.981669E-2	7.113923E-2	4.223497E-2	5.543543E-2	5.609374E-2	3.908115E-2	4.727720E-2	4.883422E-2	4.848772E-2	6.579531E-2	7.639357E-2	4.774703E-2	4.833224E-2	6.029776E-2	3.402317E-2	5.475106E-2	6.663378E-2	5.378501E-2	6.080691E-2	5.510563E-2	5.158423E-2	4.356127E-2	4.870470E-2	5.379591E-2	5.242142E-2	6.275912E-2	4.765545E-2	5.340760E-2	5.361778E-2	6.991538E-2	4.432686E-2	6.607298E-2	5.656232E-2	5.465519E-2	6.736585E-2	4.356719E-2	6.096249E-2	5.717645E-2	6.164161E-2	5.750866E-2	5.740372E-2	6.203661E-2	4.623371E-2	4.702510E-2	4.577935E-2	6.076009E-2	3.365742E-2	3.431568E-2	4.525170E-2	6.403475E-2	5.346942E-2	6.545286E-2	5.315875E-2	4.572278E-2	5.951446E-2	2.968759E-2	4.536305E-2	3.717482E-2	5.997338E-2	6.015086E-2	4.488419E-2	5.879361E-2	6.551248E-2	4.427621E-2	5.721674E-2	5.581291E-2	4.852639E-2	5.059715E-2	7.186663E-2	6.878497E-2	5.553991E-2	5.693321E-2	6.623306E-2	5.212806E-2	3.539235E-2	6.362779E-2	6.019343E-2	5.757692E-2	6.671263E-2	7.331593E-2	4.998230E-2	6.594642E-2	5.984634E-2	4.772628E-2	5.963504E-2	4.363931E-2	7.470629E-2	4.451826E-2	5.228921E-2	3.538841E-2	3.745005E-2	5.847989E-2	4.187099E-2	4.538520E-2	4.522007E-2	6.137509E-2	4.996585E-2	5.310791E-2	6.808379E-2	5.357555E-2	4.843047E-2	7.340879E-2	4.782433E-2	4.410780E-2	4.951356E-2	4.959747E-2	4.997044E-2	8.013168E-2	6.441902E-2	4.115504E-2	4.895554E-2	4.542448E-2	6.593398E-2	5.542929E-2	5.391790E-2	3.954449E-2	4.645361E-2	5.223419E-2	5.550578E-2	5.309647E-2	5.113489E-2	5.226430E-2	7.058100E-2	4.166468E-2	4.939620E-2	5.117877E-2	3.652674E-2	7.459585E-2	6.069702E-2	5.335060E-2	4.943566E-2	5.502810E-2	5.195482E-2	6.274060E-2	6.645335E-2	6.352436E-2	4.831775E-2	5.349747E-2	5.363457E-2	5.894179E-2	4.891901E-2	6.742127E-2	7.425667E-2	4.587498E-2	3.003495E-2	5.203021E-2	4.675139E-2	3.662706E-2	4.299037E-2	6.676180E-2	5.877504E-2	6.153838E-2	5.227861E-2
2.841030E+2	6.643648E-2	5.696634E-2	7.308618E-2	6.408845E-2	7.316969E-2	6.940456E-2	7.097077E-2	7.099262E-2	4.460372E-2	5.938238E-2	5.641760E-2	5.820283E-2	6.454996E-2	6.834020E-2	6.681499E-2	7.072983E-2	6.659689E-2	6.471903E-2	5.612312E-2	6.504203E-2	6.602162E-2	6.614415E-2	6.600308E-2	6.189331E-2	7.270679E-2	6.244558E-2	9.162557E-2	6.811556E-2	5.926616E-2	8.477745E-2	7.428266E-2	8.470459E-2	4.840037E-2	4.996360E-2	7.954707E-2	7.628666E-2	7.879632E-2	6.933675E-2	6.589396E-2	6.201404E-2	5.861902E-2	7.029415E-2	6.534026E-2	6.843905E-2	6.517927E-2	7.096971E-2	6.358675E-2	5.606931E-2	5.698870E-2	7.667956E-2	6.348412E-2	6.935829E-2	5.584001E-2	6.544787E-2	6.076880E-2	6.498812E-2	6.834456E-2	4.799767E-2	8.121558E-2	7.168340E-2	6.474605E-2	6.871389E-2	7.428198E-2	7.783865E-2	4.784185E-2	6.281725E-2	4.835080E-2	7.398563E-2	6.745247E-2	6.376183E-2	7.150834E-2	6.817494E-2	6.006538E-2	7.292914E-2	7.961992E-2	5.244066E-2	7.195696E-2	6.074705E-2	7.056293E-2	7.103261E-2	6.842372E-2	8.401000E-2	5.520790E-2	5.692696E-2	6.900109E-2	5.658999E-2	6.444009E-2	6.822828E-2	5.970481E-2	5.620572E-2	6.027370E-2	6.797791E-2	8.695648E-2	6.375978E-2	7.279896E-2	6.344210E-2	7.344647E-2	6.085508E-2	7.970102E-2	6.213283E-2	6.859419E-2	5.670549E-2	6.338776E-2	5.983022E-2	7.142574E-2	6.179582E-2	6.078533E-2	5.308151E-2	6.171432E-2	7.218107E-2	5.835728E-2	4.411370E-2	6.340500E-2	7.685263E-2	6.604649E-2	6.535799E-2	8.298401E-2	6.259045E-2	7.676577E-2	7.079048E-2	5.814659E-2	7.628857E-2	5.762330E-2	6.987394E-2	5.872154E-2	6.418974E-2	7.026080E-2	8.491741E-2	4.624727E-2	8.417408E-2	5.625110E-2	8.246365E-2	7.206076E-2	4.406580E-2	8.335935E-2	6.779446E-2	6.580278E-2	6.355426E-2	8.237393E-2	6.043296E-2	7.603008E-2	6.959027E-2	6.365309E-2	6.998390E-2	7.053135E-2	6.787461E-2	6.332670E-2	6.329437E-2	7.122113E-2	6.807884E-2	5.334476E-2	6.996177E-2	8.012678E-2	8.172086E-2	9.414426E-2	6.719036E-2	6.854338E-2	6.953304E-2	7.826010E-2	5.537161E-2	6.503647E-2	7.347614E-2	8.520730E-2	6.070796E-2	5.862927E-2	6.390547E-2	7.313037E-2	7.946121E-2	5.548951E-2	6.237431E-2	6.528288E-2	6.114869E-2
2.842040E+2	7.427840E-2	6.967638E-2	7.345293E-2	7.239919E-2	7.625624E-2	7.147987E-2	6.745808E-2	8.087697E-2	8.474649E-2	6.713689E-2	7.048958E-2	7.616155E-2	6.973939E-2	7.639033E-2	7.182750E-2	8.061946E-2	7.837854E-2	6.873721E-2	8.199809E-2	6.717583E-2	8.713828E-2	5.848392E-2	7.539833E-2	7.642388E-2	6.711501E-2	6.034636E-2	8.194381E-2	7.680041E-2	8.185154E-2	8.374786E-2	9.414432E-2	8.523354E-2	7.674295E-2	6.265980E-2	6.272582E-2	5.501410E-2	6.399969E-2	6.606234E-2	9.156583E-2	7.278246E-2	7.273242E-2	6.024340E-2	7.763219E-2	8.350434E-2	9.144649E-2	1.110343E-1	6.328014E-2	9.042251E-2	8.270537E-2	6.232356E-2	6.219864E-2	7.365039E-2	9.290095E-2	7.058556E-2	5.960009E-2	7.474672E-2	9.510317E-2	8.094986E-2	6.412885E-2	7.669534E-2	8.080328E-2	8.464949E-2	7.646498E-2	8.349247E-2	8.336134E-2	6.993847E-2	7.990686E-2	8.329551E-2	5.668855E-2	7.156193E-2	6.178115E-2	6.527250E-2	6.317361E-2	7.929693E-2	7.677890E-2	8.087316E-2	7.874959E-2	6.030262E-2	8.937430E-2	5.577782E-2	5.575065E-2	7.422334E-2	9.664800E-2	6.966237E-2	6.779397E-2	7.258252E-2	6.027938E-2	7.349350E-2	8.184565E-2	6.424681E-2	7.677320E-2	5.352827E-2	7.167902E-2	5.965071E-2	8.242333E-2	5.906330E-2	8.244040E-2	7.665674E-2	5.870218E-2	7.027631E-2	7.893968E-2	9.994441E-2	6.627954E-2	7.786667E-2	7.186252E-2	6.404420E-2	9.006967E-2	7.362108E-2	7.604024E-2	5.639990E-2	9.643271E-2	9.415004E-2	9.388306E-2	6.751132E-2	9.078554E-2	6.668453E-2	6.914992E-2	8.726142E-2	8.074685E-2	7.742354E-2	5.650023E-2	6.792882E-2	8.923098E-2	7.801768E-2	8.190929E-2	6.033941E-2	7.891317E-2	8.776782E-2	7.543850E-2	8.366157E-2	7.169911E-2	4.036842E-2	7.499301E-2	6.651988E-2	7.842216E-2	6.899709E-2	7.925279E-2	6.114495E-2	7.653080E-2	9.077037E-2	6.397673E-2	6.808869E-2	7.213384E-2	7.283717E-2	8.691988E-2	9.236086E-2	7.029181E-2	6.824853E-2	8.457445E-2	6.506330E-2	6.856907E-2	6.260688E-2	9.723474E-2	7.508730E-2	6.286763E-2	7.721611E-2	6.991872E-2	8.509342E-2	7.533641E-2	6.070541E-2	6.853874E-2	7.121179E-2	7.392852E-2	7.184146E-2	6.747007E-2	8.005643E-2	5.679438E-2	8.230184E-2	7.134526E-2	7.977479E-2	8.011248E-2	8.382312E-2
2.843030E+2	9.965282E-2	5.416128E-2	8.333303E-2	5.422241E-2	6.697779E-2	8.064007E-2	7.603358E-2	8.411946E-2	8.639311E-2	8.264917E-2	7.605737E-2	6.881282E-2	7.194127E-2	8.055329E-2	8.348282E-2	6.776849E-2	7.339606E-2	7.294706E-2	7.714532E-2	9.973655E-2	8.056078E-2	7.936574E-2	8.608427E-2	6.578731E-2	5.978757E-2	7.886576E-2	7.068748E-2	8.168964E-2	7.148869E-2	8.625240E-2	7.628364E-2	7.278750E-2	9.003870E-2	6.197253E-2	6.933723E-2	6.773965E-2	6.689162E-2	8.034146E-2	8.484551E-2	7.207550E-2	5.438101E-2	9.578882E-2	7.182564E-2	8.946040E-2	8.978365E-2	9.723814E-2	7.080592E-2	7.469626E-2	7.196348E-2	6.719598E-2	7.491792E-2	6.371197E-2	7.285354E-2	7.814161E-2	7.299549E-2	5.277292E-2	7.627510E-2	8.877229E-2	7.019687E-2	6.731957E-2	6.671221E-2	6.632494E-2	8.150766E-2	7.833389E-2	7.590787E-2	7.181091E-2	7.781620E-2	9.395975E-2	6.777149E-2	7.612730E-2	6.754312E-2	8.806062E-2	6.965657E-2	8.141260E-2	8.512660E-2	7.603323E-2	8.644710E-2	8.267101E-2	9.844048E-2	8.246290E-2	6.554609E-2	7.279497E-2	6.768172E-2	1.002488E-1	7.339735E-2	8.609135E-2	8.122126E-2	8.892854E-2	1.000864E-1	8.716113E-2	7.758319E-2	8.592272E-2	7.847042E-2	6.504365E-2	8.243555E-2	7.338099E-2	7.164981E-2	8.940452E-2	7.376603E-2	6.789754E-2	6.517182E-2	6.118122E-2	7.570915E-2	7.952528E-2	6.827808E-2	8.153741E-2	8.243924E-2	7.609601E-2	6.922610E-2	7.426280E-2	8.634838E-2	7.287431E-2	6.609575E-2	7.588271E-2	7.814363E-2	6.624635E-2	7.511255E-2	7.835027E-2	7.599297E-2	7.514902E-2	6.305524E-2	9.068173E-2	7.164135E-2	8.056225E-2	5.565576E-2	9.444382E-2	7.125384E-2	8.791312E-2	8.083013E-2	6.966275E-2	8.662891E-2	8.152101E-2	6.466793E-2	8.046902E-2	7.930689E-2	8.683870E-2	8.290452E-2	7.942491E-2	8.810521E-2	8.311526E-2	8.076074E-2	6.278358E-2	9.280359E-2	7.930660E-2	9.441270E-2	7.590427E-2	7.084083E-2	7.341249E-2	8.977261E-2	7.347968E-2	7.089774E-2	7.916862E-2	6.636065E-2	9.996461E-2	7.069135E-2	7.970792E-2	9.891227E-2	9.854097E-2	8.206801E-2	8.306770E-2	8.586774E-2	6.086232E-2	9.569871E-2	8.432879E-2	8.694711E-2	8.337406E-2	6.838568E-2	8.321790E-2	9.462876E-2	7.210367E-2	6.926780E-2	9.677868E-2
2.844010E+2	9.584832E-2	8.515186E-2	1.090712E-1	9.057622E-2	9.395391E-2	1.153045E-1	1.084232E-1	9.915120E-2	1.149303E-1	1.020477E-1	8.068622E-2	1.105146E-1	9.264983E-2	9.236623E-2	1.185266E-1	9.241545E-2	1.004209E-1	1.052162E-1	1.027185E-1	9.501155E-2	1.037074E-1	9.055408E-2	1.024884E-1	1.022854E-1	1.076683E-1	8.370961E-2	1.099302E-1	9.235243E-2	9.832806E-2	1.051597E-1	8.585354E-2	1.104060E-1	9.482208E-2	1.058797E-1	9.705393E-2	9.828936E-2	1.160237E-1	9.685065E-2	1.049131E-1	1.057466E-1	8.727491E-2	9.208891E-2	1.056257E-1	1.109615E-1	1.022483E-1	9.783232E-2	1.151985E-1	9.367256E-2	8.829439E-2	8.619328E-2	8.950466E-2	1.119942E-1	8.435458E-2	1.078073E-1	1.098114E-1	8.944550E-2	9.436782E-2	1.129230E-1	1.129877E-1	1.027876E-1	1.256308E-1	9.015740E-2	1.075969E-1	1.093355E-1	9.616249E-2	8.565463E-2	1.035464E-1	1.098683E-1	9.512215E-2	9.974616E-2	1.131781E-1	1.006277E-1	1.017799E-1	9.828621E-2	1.178156E-1	9.369439E-2	1.060320E-1	1.033851E-1	1.284874E-1	9.651044E-2	1.108674E-1	1.010861E-1	8.102333E-2	1.154150E-1	1.035777E-1	8.918567E-2	9.511634E-2	9.441175E-2	1.181241E-1	1.097148E-1	1.144030E-1	1.149610E-1	9.316672E-2	5.907148E-2	1.120598E-1	9.927158E-2	1.031147E-1	1.148415E-1	1.208936E-1	1.090368E-1	9.617460E-2	1.114711E-1	8.256647E-2	1.068527E-1	1.013963E-1	9.730090E-2	8.582395E-2	1.108704E-1	7.962150E-2	9.435761E-2	7.966195E-2	1.215416E-1	1.038432E-1	7.956445E-2	9.634343E-2	9.420118E-2	9.797035E-2	1.028907E-1	1.023648E-1	1.144565E-1	1.152233E-1	1.144947E-1	1.040094E-1	9.340373E-2	9.288796E-2	1.011701E-1	8.856230E-2	1.164983E-1	1.058513E-1	1.017076E-1	1.007025E-1	1.182488E-1	1.078914E-1	8.941850E-2	8.307715E-2	8.905280E-2	8.757112E-2	1.243537E-1	8.688778E-2	9.592299E-2	1.240063E-1	8.977951E-2	1.117778E-1	9.934277E-2	1.199126E-1	1.143293E-1	1.232263E-1	1.152807E-1	1.070952E-1	9.149816E-2	8.658439E-2	1.052890E-1	9.980097E-2	9.611740E-2	1.091043E-1	1.025236E-1	1.034787E-1	1.109997E-1	1.024550E-1	1.038652E-1	1.118827E-1	1.135506E-1	8.622817E-2	9.132862E-2	1.194195E-1	8.902502E-2	1.125265E-1	9.738277E-2	1.171015E-1	1.054183E-1	1.054494E-1	1.314598E-1
2.845030E+2	1.598451E-1	1.686576E-1	1.792153E-1	1.506040E-1	1.734624E-1	1.724769E-1	1.626241E-1	1.972934E-1	1.736595E-1	1.773638E-1	1.818282E-1	1.731944E-1	1.665603E-1	1.755325E-1	1.773985E-1	1.697872E-1	1.882926E-1	1.480076E-1	1.703501E-1	1.610084E-1	1.852605E-1	1.897671E-1	1.582958E-1	1.701532E-1	1.920540E-1	1.897724E-1	1.727828E-1	1.919705E-1	1.824654E-1	1.886827E-1	1.822249E-1	1.617753E-1	1.778482E-1	1.667020E-1	2.140096E-1	1.663268E-1	1.995788E-1	1.752966E-1	1.642065E-1	2.077538E-1	1.580026E-1	1.918544E-1	1.693597E-1	1.781117E-1	1.427263E-1	1.594723E-1	1.607829E-1	1.952574E-1	1.724199E-1	2.072095E-1	1.995355E-1	1.894152E-1	1.731201E-1	1.721775E-1	1.906446E-1	1.896995E-1	1.717839E-1	1.968045E-1	1.674062E-1	1.791693E-1	1.416368E-1	1.645208E-1	1.526553E-1	1.851307E-1	1.579037E-1	1.694787E-1	1.875734E-1	1.792933E-1	1.504559E-1	1.975694E-1	1.703152E-1	2.112513E-1	1.835141E-1	1.652037E-1	1.974448E-1	1.582829E-1	1.668446E-1	1.811923E-1	1.936167E-1	1.731987E-1	1.872158E-1	1.746443E-1	1.622078E-1	1.949229E-1	1.877476E-1	1.796134E-1	1.586697E-1	1.742789E-1	1.755485E-1	1.671787E-1	1.929849E-1	1.763952E-1	1.664788E-1	1.906335E-1	1.947780E-1	1.553658E-1	1.808068E-1	1.561762E-1	1.829427E-1	1.770468E-1	1.773168E-1	1.802424E-1	1.606844E-1	1.822625E-1	1.915962E-1	1.659073E-1	1.721979E-1	1.735051E-1	1.850450E-1	1.632100E-1	1.598349E-1	1.956812E-1	1.856078E-1	1.936420E-1	1.768518E-1	2.213727E-1	1.843941E-1	1.966396E-1	1.677982E-1	1.858357E-1	1.823125E-1	1.739672E-1	1.819585E-1	1.625484E-1	1.645471E-1	1.654534E-1	1.735156E-1	1.791858E-1	1.789286E-1	1.960818E-1	1.494617E-1	1.725028E-1	1.724871E-1	1.690430E-1	1.636965E-1	2.026004E-1	1.782641E-1	1.639192E-1	1.791650E-1	1.577560E-1	1.794038E-1	1.918177E-1	1.712225E-1	1.625759E-1	1.618232E-1	1.857529E-1	1.806604E-1	1.951121E-1	1.924282E-1	1.815128E-1	2.071147E-1	1.700065E-1	1.595039E-1	1.800651E-1	1.914127E-1	1.888931E-1	1.882809E-1	1.808462E-1	1.843616E-1	1.948504E-1	1.891456E-1	1.877663E-1	1.635294E-1	1.797328E-1	1.823743E-1	1.935665E-1	1.733152E-1	1.708264E-1	1.823197E-1	1.938357E-1	2.260988E-1	1.891371E-1
2.846030E+2	3.377309E-1	2.957571E-1	3.231148E-1	3.102238E-1	3.257739E-1	3.010986E-1	2.981500E-1	3.082297E-1	3.295612E-1	3.288027E-1	3.108939E-1	3.208686E-1	3.184704E-1	3.149147E-1	3.188390E-1	2.986750E-1	3.352132E-1	3.006881E-1	3.221943E-1	3.125946E-1	3.268424E-1	2.993994E-1	2.982693E-1	2.886393E-1	2.978926E-1	3.216070E-1	3.200351E-1	3.467338E-1	3.220014E-1	3.363200E-1	2.647310E-1	3.113271E-1	3.094289E-1	3.147151E-1	3.307229E-1	3.389783E-1	3.106365E-1	3.265527E-1	3.182293E-1	3.358616E-1	3.020299E-1	3.137718E-1	3.451608E-1	3.166415E-1	2.902984E-1	3.213681E-1	3.205771E-1	3.407095E-1	3.267524E-1	3.369835E-1	3.171514E-1	2.956397E-1	3.400996E-1	3.264956E-1	3.217085E-1	3.313741E-1	3.020833E-1	3.365758E-1	3.202958E-1	3.309529E-1	3.240486E-1	3.168102E-1	3.292359E-1	3.412585E-1	3.318982E-1	3.420389E-1	3.529553E-1	3.023831E-1	3.491179E-1	3.233738E-1	3.236255E-1	3.260258E-1	2.964479E-1	3.276091E-1	3.123830E-1	3.671061E-1	3.253039E-1	3.023726E-1	3.146124E-1	3.627333E-1	3.048822E-1	3.166850E-1	3.306890E-1	3.115751E-1	3.060717E-1	3.135756E-1	3.183949E-1	2.914710E-1	3.299371E-1	3.457469E-1	3.337897E-1	3.246451E-1	3.354960E-1	2.905991E-1	3.087703E-1	3.167624E-1	3.215718E-1	3.129425E-1	3.261446E-1	3.226266E-1	3.333384E-1	3.290774E-1	3.011746E-1	2.867158E-1	3.265404E-1	3.164831E-1	3.063395E-1	3.243777E-1	3.401220E-1	3.389147E-1	3.259619E-1	3.506775E-1	3.004602E-1	3.369550E-1	3.085735E-1	3.337433E-1	3.075279E-1	3.442713E-1	3.197475E-1	3.392004E-1	3.594812E-1	3.139929E-1	3.191008E-1	3.033060E-1	3.387443E-1	3.093144E-1	3.227309E-1	3.368894E-1	3.452526E-1	3.418958E-1	3.242132E-1	3.330515E-1	2.946844E-1	3.218017E-1	3.334425E-1	3.218997E-1	3.076515E-1	3.172336E-1	3.134434E-1	3.132174E-1	3.287918E-1	3.031279E-1	2.954336E-1	3.423174E-1	3.262942E-1	3.282614E-1	3.303603E-1	3.455846E-1	3.204993E-1	3.151326E-1	3.012264E-1	3.117355E-1	3.376761E-1	3.153586E-1	3.449554E-1	3.305387E-1	3.344377E-1	3.433196E-1	2.987880E-1	3.102582E-1	3.241479E-1	3.393880E-1	3.143177E-1	2.913376E-1	3.651945E-1	2.825786E-1	3.492723E-1	3.463371E-1	2.953155E-1	2.867714E-1	3.482351E-1	3.144417E-1
2.847020E+2	6.477393E-1	5.779962E-1	6.536050E-1	6.165261E-1	6.579959E-1	5.947237E-1	5.860089E-1	6.277243E-1	6.742415E-1	6.540325E-1	6.244710E-1	6.227766E-1	6.157516E-1	6.305503E-1	6.487556E-1	6.395865E-1	6.528553E-1	6.034250E-1	6.216807E-1	5.972809E-1	6.152671E-1	6.824194E-1	6.315743E-1	6.322876E-1	6.269952E-1	6.434539E-1	6.111619E-1	6.361429E-1	6.230610E-1	6.429304E-1	6.688881E-1	6.877743E-1	6.224528E-1	6.350823E-1	6.249839E-1	5.797211E-1	6.509515E-1	5.960225E-1	6.100912E-1	6.380170E-1	6.214406E-1	6.583513E-1	6.606613E-1	6.150471E-1	6.161967E-1	6.258753E-1	6.671124E-1	6.402724E-1	6.444483E-1	6.326125E-1	6.145398E-1	6.423014E-1	6.087032E-1	6.298617E-1	6.518249E-1	5.939268E-1	6.090878E-1	6.431496E-1	6.486910E-1	6.421884E-1	6.549776E-1	6.338254E-1	6.472485E-1	6.646920E-1	6.248125E-1	6.480272E-1	6.629507E-1	5.964628E-1	5.922228E-1	5.994819E-1	6.063540E-1	6.458689E-1	6.383608E-1	6.402935E-1	6.481307E-1	6.194889E-1	6.558198E-1	6.652031E-1	6.493875E-1	6.133402E-1	6.208976E-1	6.159317E-1	6.831736E-1	6.631521E-1	6.286966E-1	6.320530E-1	6.494339E-1	6.649952E-1	6.589078E-1	6.234763E-1	6.480591E-1	6.628377E-1	6.697675E-1	6.495279E-1	6.218150E-1	6.271999E-1	6.555192E-1	6.235813E-1	6.357438E-1	6.465169E-1	6.828026E-1	6.772596E-1	6.633225E-1	6.245971E-1	6.605827E-1	6.557477E-1	6.290615E-1	6.421542E-1	6.140168E-1	6.598737E-1	6.589608E-1	6.390694E-1	6.598693E-1	6.807387E-1	5.861515E-1	6.330934E-1	6.731495E-1	6.096496E-1	6.458521E-1	6.772661E-1	6.573657E-1	6.454375E-1	6.489589E-1	6.789751E-1	6.346337E-1	6.559865E-1	6.603455E-1	6.743314E-1	6.094476E-1	6.530150E-1	6.282190E-1	6.805063E-1	6.446118E-1	6.439440E-1	5.998705E-1	7.130353E-1	6.196037E-1	6.217672E-1	6.348969E-1	6.515146E-1	6.620441E-1	6.805421E-1	6.438289E-1	6.350277E-1	6.608701E-1	6.876198E-1	6.477146E-1	6.914127E-1	7.019422E-1	6.247126E-1	6.525752E-1	6.609874E-1	6.384841E-1	6.106671E-1	6.606654E-1	5.949427E-1	6.481258E-1	6.759485E-1	6.119726E-1	6.350979E-1	6.213138E-1	6.242824E-1	6.148131E-1	6.944328E-1	6.486706E-1	6.819129E-1	7.061974E-1	6.695406E-1	6.203518E-1	6.011921E-1	7.215834E-1	6.475476E-1
2.848000E+2	1.132047E+0	1.242133E+0	1.219119E+0	1.141380E+0	1.121593E+0	1.082630E+0	1.104404E+0	1.191243E+0	1.215356E+0	1.226985E+0	1.147520E+0	1.125355E+0	1.177594E+0	1.171570E+0	1.191649E+0	1.167886E+0	1.164818E+0	1.152735E+0	1.197222E+0	1.156587E+0	1.202627E+0	1.160793E+0	1.088406E+0	1.194806E+0	1.185230E+0	1.157957E+0	1.149448E+0	1.105331E+0	1.193661E+0	1.252816E+0	1.179379E+0	1.144190E+0	1.171045E+0	1.234570E+0	1.154373E+0	1.195104E+0	1.173383E+0	1.129857E+0	1.143602E+0	1.206486E+0	1.173283E+0	1.180116E+0	1.105292E+0	1.196263E+0	1.160941E+0	1.155277E+0	1.165301E+0	1.219145E+0	1.185602E+0	1.117174E+0	1.109717E+0	1.165195E+0	1.261727E+0	1.151157E+0	1.201218E+0	1.168761E+0	1.172136E+0	1.211745E+0	1.151244E+0	1.205388E+0	1.133894E+0	1.165974E+0	1.169336E+0	1.203958E+0	1.167628E+0	1.158720E+0	1.223003E+0	1.162792E+0	1.149436E+0	1.087080E+0	1.179128E+0	1.197872E+0	1.134854E+0	1.140125E+0	1.133280E+0	1.130009E+0	1.160211E+0	1.138012E+0	1.139807E+0	1.127351E+0	1.129561E+0	1.155254E+0	1.185728E+0	1.170682E+0	1.119029E+0	1.156870E+0	1.219060E+0	1.210032E+0	1.188228E+0	1.155026E+0	1.163717E+0	1.143767E+0	1.149092E+0	1.196481E+0	1.215879E+0	1.130180E+0	1.229678E+0	1.161209E+0	1.234186E+0	1.134914E+0	1.124715E+0	1.150313E+0	1.149787E+0	1.181142E+0	1.209304E+0	1.174028E+0	1.184669E+0	1.198613E+0	1.152189E+0	1.213597E+0	1.161832E+0	1.177555E+0	1.181055E+0	1.235510E+0	1.223559E+0	1.204169E+0	1.202776E+0	1.185008E+0	1.198377E+0	1.257338E+0	1.196125E+0	1.187743E+0	1.092478E+0	1.205830E+0	1.202205E+0	1.227156E+0	1.172398E+0	1.165411E+0	1.181382E+0	1.234108E+0	1.168222E+0	1.204110E+0	1.156446E+0	1.162005E+0	1.238982E+0	1.188809E+0	1.144206E+0	1.185877E+0	1.133483E+0	1.183119E+0	1.202686E+0	1.159032E+0	1.220312E+0	1.213574E+0	1.182351E+0	1.191096E+0	1.154808E+0	1.238006E+0	1.208422E+0	1.168142E+0	1.200160E+0	1.210458E+0	1.199406E+0	1.170055E+0	1.195854E+0	1.133228E+0	1.174914E+0	1.201139E+0	1.225343E+0	1.166874E+0	1.243149E+0	1.098092E+0	1.244139E+0	1.199458E+0	1.222375E+0	1.201374E+0	1.189637E+0	1.215462E+0	1.290390E+0	1.201257E+0	1.200125E+0	1.177320E+0
2.849010E+2	1.628037E+0	1.547204E+0	1.533975E+0	1.540527E+0	1.576431E+0	1.449766E+0	1.478637E+0	1.470000E+0	1.552904E+0	1.547331E+0	1.542749E+0	1.520695E+0	1.562644E+0	1.605758E+0	1.501114E+0	1.509488E+0	1.580523E+0	1.505760E+0	1.550733E+0	1.492951E+0	1.549880E+0	1.489773E+0	1.513725E+0	1.486781E+0	1.508783E+0	1.451185E+0	1.482416E+0	1.508441E+0	1.534651E+0	1.566344E+0	1.586252E+0	1.507866E+0	1.452436E+0	1.566338E+0	1.531283E+0	1.542127E+0	1.509365E+0	1.478164E+0	1.559627E+0	1.537032E+0	1.440167E+0	1.559435E+0	1.553606E+0	1.603936E+0	1.541733E+0	1.485872E+0	1.522420E+0	1.487116E+0	1.527882E+0	1.476285E+0	1.541531E+0	1.498964E+0	1.572135E+0	1.508232E+0	1.556736E+0	1.523190E+0	1.577282E+0	1.487074E+0	1.461125E+0	1.549008E+0	1.542318E+0	1.533760E+0	1.522708E+0	1.537108E+0	1.544963E+0	1.472176E+0	1.534663E+0	1.527892E+0	1.536258E+0	1.473726E+0	1.487485E+0	1.471611E+0	1.540588E+0	1.558005E+0	1.564262E+0	1.576135E+0	1.527298E+0	1.514063E+0	1.602026E+0	1.559944E+0	1.535222E+0	1.502652E+0	1.572460E+0	1.530731E+0	1.512514E+0	1.509119E+0	1.590051E+0	1.557194E+0	1.511709E+0	1.588814E+0	1.507725E+0	1.500045E+0	1.486181E+0	1.471776E+0	1.551200E+0	1.462028E+0	1.504972E+0	1.554609E+0	1.484159E+0	1.520453E+0	1.452982E+0	1.569057E+0	1.498392E+0	1.496965E+0	1.530571E+0	1.533341E+0	1.629432E+0	1.507537E+0	1.501024E+0	1.570718E+0	1.566532E+0	1.517074E+0	1.571165E+0	1.595157E+0	1.575402E+0	1.585861E+0	1.577678E+0	1.543758E+0	1.505060E+0	1.463787E+0	1.575437E+0	1.506435E+0	1.531456E+0	1.553991E+0	1.541895E+0	1.543020E+0	1.585056E+0	1.572437E+0	1.444806E+0	1.479553E+0	1.571802E+0	1.538011E+0	1.492330E+0	1.492141E+0	1.442306E+0	1.544212E+0	1.528454E+0	1.511487E+0	1.554390E+0	1.565945E+0	1.498525E+0	1.620886E+0	1.569619E+0	1.544582E+0	1.561764E+0	1.586610E+0	1.557190E+0	1.594565E+0	1.541863E+0	1.565799E+0	1.539835E+0	1.531856E+0	1.525749E+0	1.516819E+0	1.475857E+0	1.548915E+0	1.444150E+0	1.539610E+0	1.502373E+0	1.537011E+0	1.480597E+0	1.598671E+0	1.482795E+0	1.458128E+0	1.572200E+0	1.549334E+0	1.541617E+0	1.508307E+0	1.543796E+0	1.560699E+0	1.492691E+0	1.498753E+0
2.850010E+2	1.585948E+0	1.535254E+0	1.544289E+0	1.555645E+0	1.639541E+0	1.497430E+0	1.510222E+0	1.567383E+0	1.534485E+0	1.471217E+0	1.568957E+0	1.503688E+0	1.482043E+0	1.562873E+0	1.598288E+0	1.486030E+0	1.540224E+0	1.496774E+0	1.573001E+0	1.515890E+0	1.559505E+0	1.524117E+0	1.514041E+0	1.560504E+0	1.586643E+0	1.464821E+0	1.480898E+0	1.522502E+0	1.522943E+0	1.554819E+0	1.560706E+0	1.546536E+0	1.491820E+0	1.523261E+0	1.493144E+0	1.536107E+0	1.541254E+0	1.550298E+0	1.539531E+0	1.598136E+0	1.500515E+0	1.553937E+0	1.601663E+0	1.521045E+0	1.514098E+0	1.573143E+0	1.631538E+0	1.546152E+0	1.528863E+0	1.589719E+0	1.567491E+0	1.532016E+0	1.539122E+0	1.488227E+0	1.579344E+0	1.555536E+0	1.523680E+0	1.485073E+0	1.562320E+0	1.509024E+0	1.563974E+0	1.554131E+0	1.511899E+0	1.567316E+0	1.510668E+0	1.553427E+0	1.527242E+0	1.505206E+0	1.595210E+0	1.560943E+0	1.590918E+0	1.563839E+0	1.527058E+0	1.600436E+0	1.540407E+0	1.495096E+0	1.485087E+0	1.504541E+0	1.584224E+0	1.584252E+0	1.540790E+0	1.581252E+0	1.523645E+0	1.539620E+0	1.488808E+0	1.493297E+0	1.552238E+0	1.621978E+0	1.572812E+0	1.575988E+0	1.521911E+0	1.539529E+0	1.585523E+0	1.520133E+0	1.561807E+0	1.506924E+0	1.545340E+0	1.546594E+0	1.590785E+0	1.636560E+0	1.509566E+0	1.520812E+0	1.536761E+0	1.600160E+0	1.554640E+0	1.505039E+0	1.490905E+0	1.523256E+0	1.547524E+0	1.490202E+0	1.611138E+0	1.604033E+0	1.474569E+0	1.601540E+0	1.559738E+0	1.549906E+0	1.586703E+0	1.490068E+0	1.523413E+0	1.490470E+0	1.564308E+0	1.509808E+0	1.536401E+0	1.673090E+0	1.552328E+0	1.528425E+0	1.603717E+0	1.529183E+0	1.491222E+0	1.548005E+0	1.531898E+0	1.565046E+0	1.532549E+0	1.582820E+0	1.513672E+0	1.546565E+0	1.558671E+0	1.430202E+0	1.529722E+0	1.527613E+0	1.569430E+0	1.605143E+0	1.537264E+0	1.574055E+0	1.550969E+0	1.648308E+0	1.552000E+0	1.497244E+0	1.576922E+0	1.505844E+0	1.476316E+0	1.668803E+0	1.538638E+0	1.488568E+0	1.544739E+0	1.513408E+0	1.461104E+0	1.562265E+0	1.502885E+0	1.543505E+0	1.472515E+0	1.565882E+0	1.522318E+0	1.525204E+0	1.550821E+0	1.548184E+0	1.585449E+0	1.547866E+0	1.514030E+0	1.504265E+0	1.564657E+0	1.479018E+0
2.851020E+2	1.411261E+0	1.404579E+0	1.499367E+0	1.412599E+0	1.407244E+0	1.336411E+0	1.350183E+0	1.412537E+0	1.513537E+0	1.384205E+0	1.410740E+0	1.399205E+0	1.454760E+0	1.403851E+0	1.458472E+0	1.423974E+0	1.388269E+0	1.359654E+0	1.487146E+0	1.385421E+0	1.383714E+0	1.435921E+0	1.458885E+0	1.360953E+0	1.470690E+0	1.363508E+0	1.365568E+0	1.424261E+0	1.399092E+0	1.499795E+0	1.397938E+0	1.432739E+0	1.417068E+0	1.469003E+0	1.423437E+0	1.396223E+0	1.396946E+0	1.401930E+0	1.445395E+0	1.465261E+0	1.374884E+0	1.426692E+0	1.424406E+0	1.388645E+0	1.406946E+0	1.416712E+0	1.495082E+0	1.497695E+0	1.375984E+0	1.442614E+0	1.365804E+0	1.409819E+0	1.411416E+0	1.382696E+0	1.472899E+0	1.428424E+0	1.415481E+0	1.411629E+0	1.398406E+0	1.471694E+0	1.440201E+0	1.414377E+0	1.402165E+0	1.424157E+0	1.375918E+0	1.411624E+0	1.387067E+0	1.452861E+0	1.429952E+0	1.376555E+0	1.407520E+0	1.399566E+0	1.458721E+0	1.425738E+0	1.453625E+0	1.411837E+0	1.426462E+0	1.465161E+0	1.555189E+0	1.454836E+0	1.409355E+0	1.452875E+0	1.498153E+0	1.380942E+0	1.412916E+0	1.395380E+0	1.431035E+0	1.453068E+0	1.345697E+0	1.475402E+0	1.420833E+0	1.431445E+0	1.451230E+0	1.421199E+0	1.404189E+0	1.447052E+0	1.436281E+0	1.482721E+0	1.346099E+0	1.463888E+0	1.362658E+0	1.483685E+0	1.420837E+0	1.401601E+0	1.485871E+0	1.361406E+0	1.454875E+0	1.407335E+0	1.434220E+0	1.381228E+0	1.401004E+0	1.408780E+0	1.371513E+0	1.432229E+0	1.489372E+0	1.434889E+0	1.396400E+0	1.411284E+0	1.308390E+0	1.436679E+0	1.517680E+0	1.421291E+0	1.389714E+0	1.460729E+0	1.364814E+0	1.474978E+0	1.538938E+0	1.428431E+0	1.405526E+0	1.468498E+0	1.402965E+0	1.490500E+0	1.423382E+0	1.434780E+0	1.443872E+0	1.429196E+0	1.422372E+0	1.439228E+0	1.420676E+0	1.370737E+0	1.446691E+0	1.466224E+0	1.467487E+0	1.403648E+0	1.418847E+0	1.450015E+0	1.439737E+0	1.432342E+0	1.434042E+0	1.365082E+0	1.411139E+0	1.484720E+0	1.469120E+0	1.402709E+0	1.427927E+0	1.457104E+0	1.396031E+0	1.424279E+0	1.397334E+0	1.380669E+0	1.381263E+0	1.418076E+0	1.335812E+0	1.410880E+0	1.439069E+0	1.451034E+0	1.422655E+0	1.439106E+0	1.469538E+0	1.362046E+0	1.466120E+0	1.501447E+0
2.851990E+2	1.232337E+0	1.140227E+0	1.218496E+0	1.191332E+0	1.229483E+0	1.146037E+0	1.134611E+0	1.211544E+0	1.206445E+0	1.109756E+0	1.190063E+0	1.183143E+0	1.177066E+0	1.212362E+0	1.205318E+0	1.180892E+0	1.194558E+0	1.173848E+0	1.251312E+0	1.163611E+0	1.229573E+0	1.170793E+0	1.223342E+0	1.142805E+0	1.262430E+0	1.182812E+0	1.171088E+0	1.163691E+0	1.200505E+0	1.171429E+0	1.192976E+0	1.230631E+0	1.183830E+0	1.195752E+0	1.205007E+0	1.210714E+0	1.205282E+0	1.133774E+0	1.242151E+0	1.294656E+0	1.228612E+0	1.242201E+0	1.191141E+0	1.207727E+0	1.192059E+0	1.147684E+0	1.176727E+0	1.226917E+0	1.204299E+0	1.186552E+0	1.183300E+0	1.244078E+0	1.253303E+0	1.138775E+0	1.196664E+0	1.190878E+0	1.176626E+0	1.190814E+0	1.212945E+0	1.172600E+0	1.215901E+0	1.226105E+0	1.202392E+0	1.220827E+0	1.173657E+0	1.254023E+0	1.189438E+0	1.206468E+0	1.244023E+0	1.243997E+0	1.182946E+0	1.221412E+0	1.209257E+0	1.192245E+0	1.181519E+0	1.210816E+0	1.231946E+0	1.201067E+0	1.264938E+0	1.192348E+0	1.198908E+0	1.135506E+0	1.118710E+0	1.189562E+0	1.218230E+0	1.176522E+0	1.155839E+0	1.170735E+0	1.169733E+0	1.203859E+0	1.227531E+0	1.166164E+0	1.249037E+0	1.184256E+0	1.265163E+0	1.230826E+0	1.166680E+0	1.200118E+0	1.207720E+0	1.261938E+0	1.185220E+0	1.283648E+0	1.194512E+0	1.181996E+0	1.202334E+0	1.231177E+0	1.218527E+0	1.200224E+0	1.213279E+0	1.239656E+0	1.244978E+0	1.252303E+0	1.172120E+0	1.260269E+0	1.210869E+0	1.206870E+0	1.158592E+0	1.141191E+0	1.264246E+0	1.143372E+0	1.214476E+0	1.293157E+0	1.165163E+0	1.234444E+0	1.250558E+0	1.310290E+0	1.314517E+0	1.251403E+0	1.216179E+0	1.242263E+0	1.199378E+0	1.227582E+0	1.213847E+0	1.242092E+0	1.218027E+0	1.212880E+0	1.185767E+0	1.154398E+0	1.211049E+0	1.235596E+0	1.212497E+0	1.183085E+0	1.186850E+0	1.190949E+0	1.200257E+0	1.254388E+0	1.202220E+0	1.196046E+0	1.206039E+0	1.213259E+0	1.191777E+0	1.199086E+0	1.210243E+0	1.184065E+0	1.225460E+0	1.135220E+0	1.206473E+0	1.291678E+0	1.190098E+0	1.207318E+0	1.204646E+0	1.203930E+0	1.165795E+0	1.233305E+0	1.203145E+0	1.235685E+0	1.213735E+0	1.180412E+0	1.215805E+0	1.178517E+0	1.243611E+0	1.168331E+0
2.853000E+2	8.866911E-1	8.562696E-1	9.270107E-1	8.555201E-1	8.745539E-1	8.445891E-1	8.756368E-1	8.997549E-1	8.796975E-1	8.604495E-1	9.284215E-1	8.853621E-1	8.921373E-1	8.723820E-1	8.854694E-1	8.980853E-1	8.700936E-1	8.012705E-1	8.355293E-1	9.283343E-1	9.285479E-1	9.037656E-1	8.727923E-1	8.506228E-1	8.812093E-1	8.702452E-1	8.997070E-1	8.879375E-1	8.983430E-1	9.416285E-1	8.918020E-1	8.846345E-1	8.882187E-1	8.473164E-1	8.932784E-1	8.702545E-1	8.409909E-1	8.295116E-1	8.702033E-1	8.992494E-1	9.001025E-1	9.072225E-1	8.490219E-1	8.531293E-1	8.606056E-1	9.089283E-1	8.410986E-1	8.712351E-1	8.840010E-1	8.974433E-1	8.266730E-1	8.707586E-1	9.047876E-1	8.425449E-1	8.917233E-1	8.483078E-1	8.924883E-1	9.346380E-1	8.785782E-1	9.120220E-1	8.953720E-1	8.947851E-1	9.060494E-1	8.551132E-1	8.283023E-1	8.587619E-1	8.712538E-1	8.479251E-1	8.670337E-1	8.248055E-1	7.745943E-1	8.669270E-1	9.381018E-1	8.491679E-1	9.042720E-1	8.789673E-1	8.979242E-1	8.789116E-1	9.618583E-1	8.912672E-1	8.761627E-1	9.137117E-1	9.441378E-1	8.829897E-1	8.135820E-1	8.493835E-1	8.652991E-1	8.971491E-1	8.966508E-1	8.761432E-1	9.177707E-1	9.482015E-1	8.953064E-1	9.400839E-1	9.175760E-1	8.569693E-1	8.858593E-1	8.728234E-1	8.792201E-1	9.418129E-1	8.394828E-1	8.958622E-1	8.840452E-1	8.637140E-1	8.584005E-1	8.573373E-1	9.028139E-1	8.642663E-1	8.510267E-1	8.994797E-1	8.445428E-1	8.990453E-1	8.560395E-1	9.654931E-1	9.059652E-1	8.925204E-1	8.535089E-1	8.729071E-1	8.444060E-1	8.498858E-1	8.960799E-1	8.242256E-1	8.988804E-1	9.587208E-1	8.884806E-1	9.048345E-1	9.032866E-1	8.753433E-1	8.667916E-1	9.020712E-1	9.143858E-1	8.924319E-1	9.204247E-1	8.591667E-1	8.382219E-1	9.113142E-1	8.432709E-1	9.039285E-1	9.144962E-1	8.651981E-1	9.541409E-1	9.440255E-1	8.965026E-1	8.763652E-1	9.012154E-1	9.225211E-1	8.871863E-1	9.088071E-1	8.772323E-1	8.760298E-1	8.566268E-1	8.759668E-1	9.314354E-1	9.036998E-1	8.692646E-1	8.723341E-1	9.071128E-1	9.307957E-1	8.653642E-1	8.993713E-1	8.926512E-1	8.757067E-1	9.019737E-1	9.031518E-1	8.777452E-1	8.764873E-1	8.930943E-1	9.442457E-1	9.034732E-1	9.391926E-1	9.696344E-1	8.664294E-1
2.854020E+2	5.837022E-1	5.383818E-1	5.378126E-1	5.120153E-1	5.710836E-1	5.612194E-1	5.361883E-1	5.687598E-1	5.450275E-1	5.835446E-1	5.788086E-1	5.887332E-1	5.653316E-1	5.581654E-1	5.887676E-1	5.502280E-1	5.595049E-1	5.581133E-1	5.458257E-1	5.478820E-1	5.426591E-1	5.658170E-1	5.675406E-1	5.716018E-1	5.528616E-1	5.513862E-1	5.717903E-1	5.531695E-1	5.579876E-1	5.581662E-1	5.641527E-1	5.572810E-1	5.561914E-1	5.592024E-1	5.393624E-1	5.916342E-1	5.734927E-1	5.940819E-1	5.790449E-1	6.043774E-1	6.041097E-1	5.714548E-1	5.918894E-1	5.665137E-1	5.310376E-1	5.728035E-1	5.694334E-1	5.654386E-1	5.891524E-1	5.451586E-1	5.459323E-1	5.760755E-1	5.656290E-1	5.516694E-1	5.842982E-1	5.569491E-1	5.895122E-1	6.008274E-1	5.723786E-1	5.674301E-1	5.799067E-1	6.199451E-1	5.940834E-1	5.872199E-1	5.880435E-1	5.878577E-1	6.474478E-1	5.904761E-1	5.924932E-1	5.522554E-1	5.578579E-1	5.653568E-1	5.343051E-1	5.823014E-1	5.627575E-1	5.593245E-1	5.685746E-1	5.893715E-1	5.837617E-1	5.561331E-1	5.539812E-1	6.090023E-1	6.256877E-1	5.592714E-1	6.008638E-1	5.245488E-1	5.604526E-1	5.970621E-1	5.578386E-1	5.738059E-1	5.529998E-1	5.730408E-1	5.704780E-1	5.803201E-1	6.287704E-1	5.531325E-1	5.754810E-1	5.809442E-1	6.021730E-1	5.595981E-1	5.549605E-1	6.042545E-1	5.347600E-1	5.996256E-1	5.934872E-1	5.402185E-1	6.198200E-1	5.730297E-1	5.552976E-1	6.142403E-1	6.162265E-1	5.833168E-1	5.123104E-1	6.186327E-1	5.859241E-1	5.425860E-1	5.720535E-1	6.101726E-1	5.912290E-1	6.020232E-1	5.936463E-1	5.670110E-1	5.808774E-1	6.069709E-1	5.752060E-1	5.977293E-1	5.906670E-1	6.045997E-1	5.819810E-1	6.179447E-1	5.207047E-1	5.844180E-1	5.860426E-1	5.773169E-1	5.953230E-1	5.978896E-1	5.744285E-1	5.704386E-1	5.967972E-1	6.431869E-1	5.560948E-1	5.569804E-1	5.770418E-1	5.725619E-1	5.563765E-1	6.004888E-1	5.778031E-1	6.383318E-1	6.024125E-1	6.043584E-1	5.490654E-1	6.095665E-1	5.818540E-1	5.976573E-1	5.935104E-1	5.831164E-1	5.503296E-1	5.784813E-1	5.823639E-1	5.619560E-1	5.682559E-1	5.349084E-1	5.331565E-1	5.871015E-1	5.666746E-1	5.857685E-1	5.363187E-1	5.648504E-1	5.994136E-1	5.787634E-1	5.540518E-1	6.435364E-1
2.855030E+2	4.878577E-1	4.879518E-1	4.794016E-1	4.836936E-1	4.841382E-1	4.996636E-1	4.481970E-1	4.774888E-1	5.106027E-1	4.559036E-1	4.742769E-1	4.671140E-1	4.902752E-1	4.837916E-1	5.123819E-1	4.724494E-1	4.846064E-1	4.512100E-1	5.115702E-1	5.222702E-1	4.622438E-1	4.766172E-1	4.271039E-1	4.669696E-1	4.797445E-1	4.856300E-1	4.659466E-1	4.710070E-1	4.661614E-1	5.065952E-1	4.907739E-1	4.706465E-1	4.727616E-1	5.038813E-1	4.878428E-1	4.857462E-1	4.491243E-1	4.503575E-1	5.083084E-1	4.979262E-1	4.984567E-1	4.857817E-1	4.796227E-1	4.886813E-1	4.722449E-1	5.040674E-1	4.693200E-1	5.245335E-1	5.233003E-1	4.892140E-1	5.064497E-1	4.918385E-1	5.167186E-1	4.895744E-1	4.902082E-1	4.689338E-1	5.089131E-1	4.701030E-1	4.390471E-1	5.127644E-1	4.619287E-1	4.578536E-1	5.063734E-1	5.368242E-1	4.568807E-1	4.783980E-1	5.436520E-1	4.986140E-1	5.097281E-1	4.714256E-1	5.069393E-1	4.909077E-1	4.760742E-1	4.910880E-1	5.079845E-1	4.928993E-1	4.733397E-1	5.042813E-1	5.249064E-1	4.777781E-1	4.523853E-1	4.923094E-1	4.843823E-1	4.759266E-1	4.940413E-1	4.901957E-1	4.858501E-1	4.906279E-1	5.088041E-1	5.202155E-1	4.981138E-1	4.831810E-1	4.803240E-1	5.122822E-1	5.106180E-1	4.929488E-1	4.729678E-1	5.026328E-1	5.218829E-1	4.927195E-1	4.812041E-1	4.471163E-1	4.624793E-1	4.844141E-1	4.877277E-1	4.977677E-1	5.093762E-1	4.777986E-1	5.015660E-1	4.832978E-1	4.785365E-1	4.719837E-1	4.961065E-1	5.140916E-1	5.121353E-1	4.926116E-1	4.797946E-1	4.740427E-1	4.658576E-1	4.759220E-1	5.280805E-1	4.860341E-1	4.917120E-1	5.044051E-1	4.812056E-1	4.613904E-1	5.229595E-1	5.223350E-1	4.832999E-1	5.128065E-1	4.735714E-1	4.901834E-1	4.892170E-1	5.016524E-1	4.853897E-1	5.254416E-1	4.727984E-1	4.321860E-1	4.384086E-1	5.350683E-1	4.721078E-1	4.779099E-1	5.015265E-1	4.786035E-1	5.022190E-1	4.846102E-1	4.669123E-1	4.853955E-1	5.043247E-1	4.782697E-1	4.967565E-1	4.790639E-1	4.781952E-1	4.930082E-1	4.792586E-1	5.152522E-1	5.064480E-1	4.838786E-1	4.701740E-1	4.875902E-1	4.298365E-1	5.119736E-1	4.780014E-1	4.918677E-1	4.974794E-1	4.643006E-1	4.711521E-1	4.506840E-1	5.184360E-1	4.476925E-1	4.507312E-1	4.279578E-1
2.856010E+2	4.223534E-1	4.367083E-1	4.499759E-1	4.003201E-1	4.196436E-1	3.990137E-1	4.255686E-1	4.198517E-1	4.319978E-1	4.210714E-1	4.167987E-1	4.534595E-1	4.126242E-1	4.096116E-1	4.427028E-1	4.283850E-1	4.451424E-1	4.262749E-1	4.522576E-1	4.411778E-1	4.331268E-1	4.390520E-1	4.001311E-1	4.245352E-1	4.309284E-1	3.913603E-1	4.119733E-1	4.029236E-1	4.278181E-1	4.287656E-1	4.437014E-1	4.194783E-1	4.142686E-1	4.332678E-1	4.429238E-1	4.428105E-1	4.451505E-1	3.969713E-1	4.441181E-1	4.785341E-1	4.553448E-1	4.656479E-1	4.113258E-1	4.691581E-1	4.318060E-1	3.896332E-1	4.789885E-1	4.353785E-1	4.674684E-1	4.553761E-1	4.249568E-1	4.224401E-1	4.737375E-1	4.282515E-1	4.009681E-1	4.162151E-1	4.453493E-1	4.252231E-1	4.429189E-1	4.272445E-1	4.301793E-1	4.665141E-1	4.696003E-1	4.547586E-1	3.944508E-1	4.133403E-1	4.475664E-1	4.429969E-1	4.395336E-1	4.278552E-1	4.225045E-1	4.337013E-1	4.321053E-1	4.391203E-1	4.328437E-1	4.056301E-1	4.379565E-1	4.183370E-1	4.677265E-1	4.252564E-1	4.239088E-1	4.396980E-1	4.113877E-1	3.950165E-1	4.619316E-1	4.427406E-1	4.264044E-1	4.246493E-1	3.838881E-1	4.159171E-1	4.316081E-1	4.131133E-1	4.669492E-1	4.171769E-1	4.153986E-1	4.613855E-1	4.111151E-1	4.067703E-1	4.456843E-1	4.078138E-1	4.150126E-1	3.949467E-1	4.379146E-1	4.377815E-1	4.488690E-1	4.359227E-1	4.285450E-1	4.399111E-1	4.223113E-1	4.325407E-1	4.317619E-1	4.552299E-1	4.384801E-1	4.634313E-1	4.642435E-1	4.658747E-1	4.797666E-1	4.196697E-1	4.436289E-1	4.335494E-1	4.391323E-1	4.452843E-1	4.152223E-1	4.374630E-1	4.691956E-1	4.322878E-1	4.477728E-1	4.315417E-1	4.519079E-1	4.136120E-1	4.311908E-1	4.192388E-1	4.134036E-1	4.348287E-1	4.438547E-1	4.407409E-1	4.379223E-1	4.552662E-1	4.063723E-1	4.442983E-1	4.396699E-1	4.252035E-1	4.487109E-1	4.366968E-1	4.465432E-1	4.899630E-1	4.073379E-1	4.484818E-1	4.674875E-1	4.359009E-1	4.524420E-1	4.740928E-1	4.685246E-1	4.480312E-1	4.954086E-1	4.065375E-1	4.126260E-1	4.340612E-1	4.448965E-1	4.347800E-1	4.319267E-1	4.778258E-1	4.595060E-1	4.661061E-1	4.420073E-1	4.523526E-1	4.503905E-1	4.232392E-1	4.571074E-1	4.175252E-1	3.937834E-1	4.377394E-1
2.858010E+2	5.293355E-1	5.430407E-1	4.838074E-1	4.610684E-1	5.521945E-1	5.032581E-1	5.162979E-1	5.275055E-1	4.746425E-1	4.996905E-1	5.067621E-1	5.403395E-1	4.927380E-1	5.429965E-1	5.549119E-1	5.171113E-1	4.965050E-1	5.079783E-1	5.596280E-1	5.331472E-1	5.690320E-1	5.153019E-1	5.130739E-1	5.219347E-1	5.109848E-1	4.850091E-1	5.165367E-1	5.043926E-1	5.176081E-1	5.371164E-1	5.167574E-1	4.969980E-1	4.924986E-1	4.846309E-1	5.265997E-1	5.065913E-1	4.930184E-1	4.911514E-1	5.089361E-1	4.977899E-1	4.994099E-1	5.086958E-1	5.397954E-1	5.170517E-1	4.715001E-1	5.123510E-1	4.690605E-1	5.160816E-1	5.617185E-1	5.254389E-1	5.608391E-1	5.308443E-1	5.353778E-1	5.414136E-1	5.422577E-1	5.078687E-1	4.901811E-1	5.350165E-1	5.168926E-1	5.362969E-1	5.440641E-1	4.927819E-1	5.350396E-1	5.333030E-1	5.214409E-1	5.510275E-1	5.391273E-1	4.810188E-1	5.268685E-1	5.773460E-1	5.193684E-1	5.306449E-1	5.234002E-1	5.178089E-1	4.982028E-1	4.831358E-1	5.307563E-1	5.294310E-1	5.566150E-1	5.333866E-1	5.031013E-1	5.728247E-1	5.087126E-1	5.176928E-1	5.189356E-1	5.170072E-1	5.334222E-1	5.258913E-1	5.047170E-1	5.397466E-1	5.560249E-1	5.082083E-1	5.380234E-1	5.431218E-1	5.253062E-1	5.444733E-1	5.387977E-1	5.246202E-1	5.612391E-1	5.347581E-1	5.306385E-1	5.525684E-1	5.588983E-1	5.632085E-1	5.417838E-1	5.174438E-1	5.562673E-1	5.417393E-1	4.737018E-1	5.387360E-1	5.336900E-1	5.315545E-1	5.351752E-1	5.627907E-1	5.470945E-1	5.431403E-1	5.242406E-1	5.325418E-1	5.152068E-1	5.082782E-1	5.603229E-1	5.323906E-1	4.899126E-1	5.200013E-1	5.511085E-1	5.292910E-1	5.186124E-1	4.945043E-1	5.067864E-1	5.135155E-1	4.846282E-1	5.731194E-1	5.315755E-1	4.949025E-1	5.308541E-1	5.168892E-1	5.222688E-1	5.211318E-1	5.075831E-1	5.572266E-1	5.255833E-1	5.224581E-1	4.958515E-1	5.531885E-1	5.453608E-1	5.291052E-1	4.751442E-1	5.770210E-1	5.725861E-1	5.132323E-1	5.210247E-1	4.835727E-1	5.165423E-1	5.425683E-1	5.812255E-1	5.023053E-1	5.267490E-1	5.424247E-1	5.655325E-1	5.024851E-1	5.439577E-1	5.240584E-1	5.270731E-1	5.630249E-1	5.545889E-1	5.301356E-1	5.148636E-1	5.338714E-1	5.558219E-1	5.201533E-1	5.752429E-1	5.376098E-1
2.860040E+2	8.331351E-1	8.696561E-1	8.243632E-1	9.061576E-1	8.723811E-1	8.684208E-1	8.641259E-1	7.996359E-1	8.393593E-1	8.497830E-1	8.574438E-1	8.785845E-1	8.452073E-1	8.379627E-1	8.869090E-1	8.057228E-1	8.732127E-1	8.240174E-1	8.307395E-1	8.526009E-1	8.946889E-1	8.774881E-1	8.443027E-1	8.350501E-1	8.822146E-1	8.946636E-1	8.450381E-1	8.751880E-1	8.893165E-1	8.723622E-1	9.119729E-1	8.295306E-1	9.014249E-1	8.857893E-1	8.652972E-1	8.693197E-1	9.204373E-1	8.410707E-1	9.060000E-1	8.676313E-1	8.903971E-1	8.505227E-1	8.999459E-1	8.323506E-1	8.439591E-1	8.766900E-1	8.810468E-1	8.735476E-1	8.404542E-1	9.035658E-1	8.895744E-1	9.058977E-1	8.887929E-1	8.473178E-1	9.013860E-1	8.578885E-1	8.627162E-1	8.874503E-1	8.963273E-1	8.464357E-1	9.387220E-1	8.229405E-1	8.840029E-1	9.487308E-1	8.192578E-1	9.022420E-1	8.701623E-1	8.799770E-1	9.095666E-1	8.516436E-1	8.162416E-1	8.741364E-1	8.455089E-1	8.575871E-1	8.449046E-1	8.531571E-1	8.811201E-1	8.678009E-1	8.950646E-1	8.430103E-1	8.265777E-1	8.825268E-1	8.903561E-1	8.645228E-1	8.826177E-1	9.041614E-1	8.794581E-1	8.664560E-1	8.749518E-1	8.588471E-1	8.822329E-1	8.761394E-1	8.473065E-1	8.676891E-1	8.733671E-1	8.911055E-1	9.030059E-1	8.468305E-1	8.885050E-1	8.625995E-1	8.416869E-1	8.979638E-1	8.778585E-1	8.665930E-1	8.771208E-1	8.612124E-1	8.750583E-1	8.608067E-1	8.811387E-1	8.797798E-1	9.459543E-1	9.580785E-1	8.917167E-1	9.495096E-1	8.657337E-1	8.878503E-1	9.127277E-1	8.145063E-1	8.857060E-1	8.735395E-1	8.774086E-1	8.894764E-1	8.263415E-1	9.003765E-1	8.828143E-1	8.993864E-1	9.291319E-1	8.881761E-1	8.532393E-1	8.616974E-1	8.645896E-1	9.161370E-1	8.709478E-1	8.600721E-1	8.852303E-1	8.934471E-1	8.398122E-1	8.623063E-1	8.943926E-1	8.257548E-1	8.742865E-1	8.642494E-1	9.066121E-1	9.037086E-1	8.362263E-1	8.813333E-1	8.921393E-1	8.730814E-1	8.682747E-1	8.531127E-1	8.778874E-1	8.962254E-1	8.595107E-1	8.746296E-1	8.845474E-1	8.638419E-1	8.430990E-1	8.832069E-1	8.743287E-1	8.985639E-1	8.592521E-1	9.004483E-1	8.704117E-1	9.390771E-1	8.780610E-1	9.359225E-1	8.969443E-1	8.388073E-1	8.440000E-1	9.239623E-1	8.969624E-1	8.767666E-1
2.862050E+2	1.216047E+0	1.233803E+0	1.273136E+0	1.147488E+0	1.219736E+0	1.195939E+0	1.190883E+0	1.198414E+0	1.279162E+0	1.203658E+0	1.251080E+0	1.216746E+0	1.292963E+0	1.260310E+0	1.228566E+0	1.240235E+0	1.290330E+0	1.175736E+0	1.197430E+0	1.244044E+0	1.258416E+0	1.175002E+0	1.213704E+0	1.249025E+0	1.214729E+0	1.218849E+0	1.215720E+0	1.207779E+0	1.255307E+0	1.238479E+0	1.291118E+0	1.270971E+0	1.262540E+0	1.187181E+0	1.215234E+0	1.253172E+0	1.237970E+0	1.188989E+0	1.321990E+0	1.234604E+0	1.219564E+0	1.233331E+0	1.325358E+0	1.238567E+0	1.237475E+0	1.230299E+0	1.245359E+0	1.250908E+0	1.306722E+0	1.195170E+0	1.165277E+0	1.220417E+0	1.222504E+0	1.252189E+0	1.235802E+0	1.116399E+0	1.261487E+0	1.187029E+0	1.235339E+0	1.179831E+0	1.218006E+0	1.191129E+0	1.284072E+0	1.213498E+0	1.232136E+0	1.268282E+0	1.242058E+0	1.255514E+0	1.206090E+0	1.239678E+0	1.178873E+0	1.235733E+0	1.227004E+0	1.235950E+0	1.232623E+0	1.176108E+0	1.231897E+0	1.199382E+0	1.224652E+0	1.214012E+0	1.259810E+0	1.269690E+0	1.266633E+0	1.181941E+0	1.265497E+0	1.196809E+0	1.287267E+0	1.230484E+0	1.258540E+0	1.211934E+0	1.260349E+0	1.277012E+0	1.179160E+0	1.224502E+0	1.206533E+0	1.224211E+0	1.236754E+0	1.256365E+0	1.239457E+0	1.258709E+0	1.192013E+0	1.227968E+0	1.267344E+0	1.213614E+0	1.261732E+0	1.185450E+0	1.293941E+0	1.224629E+0	1.261976E+0	1.205562E+0	1.298513E+0	1.200824E+0	1.282474E+0	1.261252E+0	1.221626E+0	1.213380E+0	1.212102E+0	1.202537E+0	1.251311E+0	1.220171E+0	1.282838E+0	1.198520E+0	1.181376E+0	1.278244E+0	1.192561E+0	1.221120E+0	1.240983E+0	1.256634E+0	1.221879E+0	1.186709E+0	1.241264E+0	1.286613E+0	1.239530E+0	1.262846E+0	1.257817E+0	1.237417E+0	1.202652E+0	1.207459E+0	1.192972E+0	1.222207E+0	1.223229E+0	1.181558E+0	1.276037E+0	1.260337E+0	1.220690E+0	1.208622E+0	1.175587E+0	1.235439E+0	1.277064E+0	1.242273E+0	1.231774E+0	1.245858E+0	1.272855E+0	1.214260E+0	1.244517E+0	1.229084E+0	1.209647E+0	1.269730E+0	1.212209E+0	1.256318E+0	1.229918E+0	1.227328E+0	1.189071E+0	1.234704E+0	1.253408E+0	1.206218E+0	1.254494E+0	1.184970E+0	1.235427E+0	1.225033E+0	1.225753E+0	1.281592E+0
2.864190E+2	1.345200E+0	1.293770E+0	1.314865E+0	1.304975E+0	1.326122E+0	1.338915E+0	1.229898E+0	1.274074E+0	1.337988E+0	1.266472E+0	1.369141E+0	1.345521E+0	1.318896E+0	1.285147E+0	1.312593E+0	1.334453E+0	1.290264E+0	1.285217E+0	1.299671E+0	1.191019E+0	1.329275E+0	1.328459E+0	1.300968E+0	1.363650E+0	1.288927E+0	1.298846E+0	1.287607E+0	1.307817E+0	1.365816E+0	1.313279E+0	1.301476E+0	1.352395E+0	1.265136E+0	1.316717E+0	1.303419E+0	1.316584E+0	1.320325E+0	1.232958E+0	1.380583E+0	1.334405E+0	1.323738E+0	1.271540E+0	1.309472E+0	1.287701E+0	1.321322E+0	1.324277E+0	1.324623E+0	1.322293E+0	1.408915E+0	1.299476E+0	1.316475E+0	1.271004E+0	1.364670E+0	1.363763E+0	1.355935E+0	1.304793E+0	1.300570E+0	1.245588E+0	1.359000E+0	1.326705E+0	1.290455E+0	1.276524E+0	1.337896E+0	1.322127E+0	1.314143E+0	1.356168E+0	1.357617E+0	1.288624E+0	1.309665E+0	1.288677E+0	1.332041E+0	1.318781E+0	1.331160E+0	1.299649E+0	1.323803E+0	1.282307E+0	1.274263E+0	1.268656E+0	1.399401E+0	1.373712E+0	1.258236E+0	1.283045E+0	1.363659E+0	1.274133E+0	1.318450E+0	1.283882E+0	1.308210E+0	1.348945E+0	1.348265E+0	1.360412E+0	1.268094E+0	1.228010E+0	1.306389E+0	1.288430E+0	1.325358E+0	1.344067E+0	1.316234E+0	1.366157E+0	1.346145E+0	1.372421E+0	1.242154E+0	1.298635E+0	1.338667E+0	1.274531E+0	1.350803E+0	1.308398E+0	1.293397E+0	1.340344E+0	1.323589E+0	1.259330E+0	1.278761E+0	1.338417E+0	1.323183E+0	1.357686E+0	1.383701E+0	1.311768E+0	1.323962E+0	1.297750E+0	1.274312E+0	1.276855E+0	1.299013E+0	1.323862E+0	1.321796E+0	1.333743E+0	1.283793E+0	1.334114E+0	1.365286E+0	1.315157E+0	1.289165E+0	1.309906E+0	1.289118E+0	1.346993E+0	1.332919E+0	1.287849E+0	1.273646E+0	1.299011E+0	1.287058E+0	1.260281E+0	1.297013E+0	1.324023E+0	1.334447E+0	1.274677E+0	1.342370E+0	1.377264E+0	1.355904E+0	1.404081E+0	1.322063E+0	1.279540E+0	1.350451E+0	1.312220E+0	1.288891E+0	1.359604E+0	1.346132E+0	1.308244E+0	1.411031E+0	1.308611E+0	1.247993E+0	1.304894E+0	1.383474E+0	1.331917E+0	1.256969E+0	1.328349E+0	1.309803E+0	1.328668E+0	1.283296E+0	1.315735E+0	1.293056E+0	1.284185E+0	1.320495E+0	1.293717E+0	1.369508E+0	1.302684E+0
2.866120E+2	1.245041E+0	1.231648E+0	1.292827E+0	1.246661E+0	1.268306E+0	1.244548E+0	1.233992E+0	1.233546E+0	1.273603E+0	1.254392E+0	1.283906E+0	1.229327E+0	1.269193E+0	1.246474E+0	1.348991E+0	1.243603E+0	1.233680E+0	1.166360E+0	1.230350E+0	1.206615E+0	1.283367E+0	1.281834E+0	1.235798E+0	1.292510E+0	1.287163E+0	1.207634E+0	1.243710E+0	1.223524E+0	1.235841E+0	1.262371E+0	1.324817E+0	1.252753E+0	1.304262E+0	1.227908E+0	1.268392E+0	1.284032E+0	1.233088E+0	1.252166E+0	1.229904E+0	1.282580E+0	1.242951E+0	1.237501E+0	1.272467E+0	1.254212E+0	1.252246E+0	1.218373E+0	1.282623E+0	1.288778E+0	1.218051E+0	1.230490E+0	1.237179E+0	1.203297E+0	1.281482E+0	1.246949E+0	1.271105E+0	1.243481E+0	1.361233E+0	1.219564E+0	1.285140E+0	1.226474E+0	1.207661E+0	1.218512E+0	1.267335E+0	1.286321E+0	1.190988E+0	1.280946E+0	1.314498E+0	1.243265E+0	1.214117E+0	1.209784E+0	1.247753E+0	1.296547E+0	1.269487E+0	1.254136E+0	1.291923E+0	1.232927E+0	1.241897E+0	1.234343E+0	1.350751E+0	1.242053E+0	1.239998E+0	1.233803E+0	1.299690E+0	1.253100E+0	1.159238E+0	1.236917E+0	1.260784E+0	1.255993E+0	1.276378E+0	1.213453E+0	1.216507E+0	1.310317E+0	1.272504E+0	1.219990E+0	1.248318E+0	1.218097E+0	1.218709E+0	1.288212E+0	1.236537E+0	1.274995E+0	1.241843E+0	1.232782E+0	1.233932E+0	1.204066E+0	1.249712E+0	1.221736E+0	1.271820E+0	1.253520E+0	1.237069E+0	1.204966E+0	1.287155E+0	1.245639E+0	1.251032E+0	1.299370E+0	1.258004E+0	1.227841E+0	1.224423E+0	1.275512E+0	1.274186E+0	1.205446E+0	1.266858E+0	1.237056E+0	1.260903E+0	1.288730E+0	1.213366E+0	1.230651E+0	1.238530E+0	1.254401E+0	1.222042E+0	1.241494E+0	1.246610E+0	1.262857E+0	1.245537E+0	1.225256E+0	1.204880E+0	1.265968E+0	1.227149E+0	1.249319E+0	1.201334E+0	1.280425E+0	1.301430E+0	1.262455E+0	1.314071E+0	1.277393E+0	1.288388E+0	1.216765E+0	1.250877E+0	1.231322E+0	1.296970E+0	1.204631E+0	1.203354E+0	1.289042E+0	1.296048E+0	1.230144E+0	1.277305E+0	1.282776E+0	1.234726E+0	1.216472E+0	1.306020E+0	1.314893E+0	1.235023E+0	1.219351E+0	1.219816E+0	1.278447E+0	1.313528E+0	1.265558E+0	1.190532E+0	1.230168E+0	1.290860E+0	1.268788E+0	1.148696E+0	1.245540E+0
2.868030E+2	1.480646E+0	1.420894E+0	1.411050E+0	1.435951E+0	1.486906E+0	1.426449E+0	1.457115E+0	1.402315E+0	1.457516E+0	1.433006E+0	1.394036E+0	1.391220E+0	1.362473E+0	1.427725E+0	1.463331E+0	1.402897E+0	1.394224E+0	1.368827E+0	1.398334E+0	1.344693E+0	1.479625E+0	1.413888E+0	1.392215E+0	1.397758E+0	1.477513E+0	1.453056E+0	1.361088E+0	1.378171E+0	1.421114E+0	1.385559E+0	1.458945E+0	1.455713E+0	1.412135E+0	1.377762E+0	1.451213E+0	1.438250E+0	1.394916E+0	1.427487E+0	1.444989E+0	1.413698E+0	1.429316E+0	1.421471E+0	1.457029E+0	1.437290E+0	1.380878E+0	1.398748E+0	1.495074E+0	1.426072E+0	1.469653E+0	1.415676E+0	1.433636E+0	1.437260E+0	1.437398E+0	1.420113E+0	1.431728E+0	1.395954E+0	1.395058E+0	1.435782E+0	1.398618E+0	1.399194E+0	1.358172E+0	1.463879E+0	1.424570E+0	1.411082E+0	1.386210E+0	1.368251E+0	1.451629E+0	1.415989E+0	1.399860E+0	1.448923E+0	1.426297E+0	1.399225E+0	1.475591E+0	1.386254E+0	1.422166E+0	1.318882E+0	1.428170E+0	1.407478E+0	1.408451E+0	1.436389E+0	1.383163E+0	1.418403E+0	1.520229E+0	1.498662E+0	1.396466E+0	1.352522E+0	1.413053E+0	1.457365E+0	1.464686E+0	1.402881E+0	1.373743E+0	1.407020E+0	1.520705E+0	1.404929E+0	1.443331E+0	1.405163E+0	1.383853E+0	1.370875E+0	1.388134E+0	1.377418E+0	1.388278E+0	1.376519E+0	1.343949E+0	1.427896E+0	1.423138E+0	1.346413E+0	1.431421E+0	1.368481E+0	1.413154E+0	1.404590E+0	1.455733E+0	1.431686E+0	1.443079E+0	1.454701E+0	1.400150E+0	1.456212E+0	1.440474E+0	1.376250E+0	1.465401E+0	1.481014E+0	1.436030E+0	1.419260E+0	1.370539E+0	1.417776E+0	1.393578E+0	1.362197E+0	1.494118E+0	1.444109E+0	1.428124E+0	1.430157E+0	1.443739E+0	1.458175E+0	1.440332E+0	1.396839E+0	1.432298E+0	1.478715E+0	1.468151E+0	1.430208E+0	1.421171E+0	1.479803E+0	1.428151E+0	1.362829E+0	1.514544E+0	1.400608E+0	1.461343E+0	1.501561E+0	1.379766E+0	1.429727E+0	1.424000E+0	1.347338E+0	1.441461E+0	1.427486E+0	1.414358E+0	1.428354E+0	1.440457E+0	1.479029E+0	1.405094E+0	1.403440E+0	1.401285E+0	1.428860E+0	1.475935E+0	1.379435E+0	1.388710E+0	1.418776E+0	1.489632E+0	1.348506E+0	1.491858E+0	1.446984E+0	1.411411E+0	1.479381E+0	1.390130E+0	1.421900E+0
2.870210E+2	1.239197E+0	1.217943E+0	1.292137E+0	1.192093E+0	1.316650E+0	1.239367E+0	1.139837E+0	1.236082E+0	1.281280E+0	1.261381E+0	1.211791E+0	1.246199E+0	1.208467E+0	1.255879E+0	1.278214E+0	1.249325E+0	1.219728E+0	1.267853E+0	1.276243E+0	1.257165E+0	1.264317E+0	1.237090E+0	1.212258E+0	1.246629E+0	1.300516E+0	1.265550E+0	1.250209E+0	1.259844E+0	1.188326E+0	1.228790E+0	1.298367E+0	1.243426E+0	1.272471E+0	1.252015E+0	1.304834E+0	1.307098E+0	1.285589E+0	1.249429E+0	1.288810E+0	1.328279E+0	1.289190E+0	1.236210E+0	1.236491E+0	1.229769E+0	1.207095E+0	1.210465E+0	1.299036E+0	1.288693E+0	1.162839E+0	1.232002E+0	1.238569E+0	1.307162E+0	1.325898E+0	1.290944E+0	1.261714E+0	1.259243E+0	1.274869E+0	1.268836E+0	1.268265E+0	1.282678E+0	1.232884E+0	1.264350E+0	1.275851E+0	1.242928E+0	1.230550E+0	1.255819E+0	1.255323E+0	1.280238E+0	1.311905E+0	1.218907E+0	1.232457E+0	1.252863E+0	1.239293E+0	1.232827E+0	1.295296E+0	1.229059E+0	1.207307E+0	1.271108E+0	1.255457E+0	1.259219E+0	1.286310E+0	1.230970E+0	1.259848E+0	1.274730E+0	1.317698E+0	1.232168E+0	1.256003E+0	1.263069E+0	1.227855E+0	1.273694E+0	1.246150E+0	1.311661E+0	1.254085E+0	1.190470E+0	1.301339E+0	1.271165E+0	1.245355E+0	1.208274E+0	1.256605E+0	1.238642E+0	1.231678E+0	1.301045E+0	1.263498E+0	1.263920E+0	1.274050E+0	1.307429E+0	1.263785E+0	1.332127E+0	1.262509E+0	1.267991E+0	1.236755E+0	1.258506E+0	1.290695E+0	1.340124E+0	1.268100E+0	1.264251E+0	1.273697E+0	1.201966E+0	1.262465E+0	1.230443E+0	1.251970E+0	1.179595E+0	1.218797E+0	1.280128E+0	1.293253E+0	1.246098E+0	1.370786E+0	1.271706E+0	1.225776E+0	1.302686E+0	1.255100E+0	1.255285E+0	1.243080E+0	1.252291E+0	1.251968E+0	1.272597E+0	1.291345E+0	1.280403E+0	1.251975E+0	1.266574E+0	1.263057E+0	1.226373E+0	1.261488E+0	1.222364E+0	1.260639E+0	1.261269E+0	1.316818E+0	1.258425E+0	1.278124E+0	1.226092E+0	1.236204E+0	1.279581E+0	1.291515E+0	1.257858E+0	1.216049E+0	1.235478E+0	1.252162E+0	1.231884E+0	1.259018E+0	1.322303E+0	1.283303E+0	1.248979E+0	1.254680E+0	1.233933E+0	1.310618E+0	1.282438E+0	1.279979E+0	1.245205E+0	1.280976E+0	1.197270E+0	1.270117E+0	1.290209E+0
2.872090E+2	8.707394E-1	9.057212E-1	9.613344E-1	9.603708E-1	9.852894E-1	8.920976E-1	9.236118E-1	9.339104E-1	9.421173E-1	9.479457E-1	9.454940E-1	1.017102E+0	9.473418E-1	9.241954E-1	9.924273E-1	1.003226E+0	9.668061E-1	9.275334E-1	9.678882E-1	9.767803E-1	9.595747E-1	9.587134E-1	9.760367E-1	9.440449E-1	9.514635E-1	9.610325E-1	9.022411E-1	8.702033E-1	9.272624E-1	9.562497E-1	9.643953E-1	9.414630E-1	9.418040E-1	9.817442E-1	9.249533E-1	9.730561E-1	9.101104E-1	9.167922E-1	9.535846E-1	9.392907E-1	9.385827E-1	9.772587E-1	9.391741E-1	9.488710E-1	9.310326E-1	9.217048E-1	9.627740E-1	9.866639E-1	9.081532E-1	9.273799E-1	9.303466E-1	9.474792E-1	9.534376E-1	9.606777E-1	9.783141E-1	9.458233E-1	9.701090E-1	9.426701E-1	9.503322E-1	9.808127E-1	9.277182E-1	8.971188E-1	9.667001E-1	9.560061E-1	9.371479E-1	9.324787E-1	9.435944E-1	9.120572E-1	1.002841E+0	9.449377E-1	9.233690E-1	9.768309E-1	9.321627E-1	9.378038E-1	9.419521E-1	9.073578E-1	9.042591E-1	8.855977E-1	9.643687E-1	9.252209E-1	8.913111E-1	9.351569E-1	9.589463E-1	9.225954E-1	9.664038E-1	9.772881E-1	9.482745E-1	9.805070E-1	9.858631E-1	9.185499E-1	1.018739E+0	9.047453E-1	9.696376E-1	8.645203E-1	9.534557E-1	9.516776E-1	9.526560E-1	9.732091E-1	1.018424E+0	9.713778E-1	9.182337E-1	9.277469E-1	9.113780E-1	9.267273E-1	9.868387E-1	9.168034E-1	9.536239E-1	9.377282E-1	9.719027E-1	9.613944E-1	9.722804E-1	9.541612E-1	9.685102E-1	1.015599E+0	9.566519E-1	9.433084E-1	9.281416E-1	9.469588E-1	9.471830E-1	1.004086E+0	9.698689E-1	9.275103E-1	8.967371E-1	9.693935E-1	9.819651E-1	9.689579E-1	9.706531E-1	9.823101E-1	9.473837E-1	9.682604E-1	9.512514E-1	9.412644E-1	9.658902E-1	9.802817E-1	9.307605E-1	9.320644E-1	1.005994E+0	9.544655E-1	9.463908E-1	9.251699E-1	9.517972E-1	9.605887E-1	9.303020E-1	9.864387E-1	9.123204E-1	9.038306E-1	1.039696E+0	8.986837E-1	9.563231E-1	9.489122E-1	9.562693E-1	9.173239E-1	9.749650E-1	9.344365E-1	9.427503E-1	9.486469E-1	9.302713E-1	9.414289E-1	9.627295E-1	9.593850E-1	9.328963E-1	9.583128E-1	9.826734E-1	9.664969E-1	9.628960E-1	9.373428E-1	9.486755E-1	9.677444E-1	9.316359E-1	9.532365E-1	9.837089E-1	8.975486E-1
2.874030E+2	9.043089E-1	8.809066E-1	8.218673E-1	8.443625E-1	8.268997E-1	8.634483E-1	8.973931E-1	8.744056E-1	8.497561E-1	8.293834E-1	8.560618E-1	8.832458E-1	8.906197E-1	8.390046E-1	8.820575E-1	8.797976E-1	9.037126E-1	8.023096E-1	8.720592E-1	8.912174E-1	9.655844E-1	8.695887E-1	8.928147E-1	8.500583E-1	8.677180E-1	8.116389E-1	8.192431E-1	8.415344E-1	9.040396E-1	9.122769E-1	9.023013E-1	9.084986E-1	9.095764E-1	9.016755E-1	8.642499E-1	8.775504E-1	9.121755E-1	8.842233E-1	9.109540E-1	8.919034E-1	8.719414E-1	8.413740E-1	8.592409E-1	8.451989E-1	8.864818E-1	8.365999E-1	8.376631E-1	9.363742E-1	8.718482E-1	8.609408E-1	8.533686E-1	8.266137E-1	8.582173E-1	8.474032E-1	9.071343E-1	8.943116E-1	9.137639E-1	8.533710E-1	8.501114E-1	8.494538E-1	8.493288E-1	8.667286E-1	8.769975E-1	8.904484E-1	8.372075E-1	8.389990E-1	9.456304E-1	8.153554E-1	8.850227E-1	9.072165E-1	8.697489E-1	9.401682E-1	8.777734E-1	8.620463E-1	8.514637E-1	8.718300E-1	8.622565E-1	8.329234E-1	8.446046E-1	8.642248E-1	8.717527E-1	8.392706E-1	9.318665E-1	8.515787E-1	8.758906E-1	8.416035E-1	8.473660E-1	8.612163E-1	8.525286E-1	8.850030E-1	8.704403E-1	8.809743E-1	8.402502E-1	8.553697E-1	8.597758E-1	9.112811E-1	8.788704E-1	8.568846E-1	8.928916E-1	8.882766E-1	8.536210E-1	8.471082E-1	8.159000E-1	8.850001E-1	9.112771E-1	8.691451E-1	8.844868E-1	8.449097E-1	8.723204E-1	8.817981E-1	8.590049E-1	8.895018E-1	8.864224E-1	9.352203E-1	8.825027E-1	9.122194E-1	8.770780E-1	8.625239E-1	8.499691E-1	8.535246E-1	8.672099E-1	8.074373E-1	8.488044E-1	8.717942E-1	9.139892E-1	9.146460E-1	9.237476E-1	9.179312E-1	8.868018E-1	9.503627E-1	9.095751E-1	8.708666E-1	8.986129E-1	8.512888E-1	8.293497E-1	8.942550E-1	8.985534E-1	8.810105E-1	8.928322E-1	8.834601E-1	8.730803E-1	8.372248E-1	9.257511E-1	8.830310E-1	9.105512E-1	9.257109E-1	9.350529E-1	8.991106E-1	9.452975E-1	8.426399E-1	8.856316E-1	9.131386E-1	8.747226E-1	8.424683E-1	9.017758E-1	8.731976E-1	8.990581E-1	8.441427E-1	9.047411E-1	9.410056E-1	8.812656E-1	8.839883E-1	8.883662E-1	8.981495E-1	8.948938E-1	9.229590E-1	8.818190E-1	8.388581E-1	8.847500E-1	9.053116E-1	9.468377E-1	8.633518E-1
2.876140E+2	8.302341E-1	7.942121E-1	8.374725E-1	8.266182E-1	8.086304E-1	8.305137E-1	8.610956E-1	8.388338E-1	8.554851E-1	8.288728E-1	8.631414E-1	8.271721E-1	7.899206E-1	7.889360E-1	8.816451E-1	8.762979E-1	7.981450E-1	7.989073E-1	8.725995E-1	7.735086E-1	8.458206E-1	8.421188E-1	7.890724E-1	8.202552E-1	8.387947E-1	7.870750E-1	7.995412E-1	8.273533E-1	8.502560E-1	8.409580E-1	8.629687E-1	8.668984E-1	8.990252E-1	7.741529E-1	8.859742E-1	8.576857E-1	8.394341E-1	8.230265E-1	8.113640E-1	8.156140E-1	8.344059E-1	7.849471E-1	8.523386E-1	8.177520E-1	8.148250E-1	8.367901E-1	8.548290E-1	8.742833E-1	8.631808E-1	8.403762E-1	8.172927E-1	8.892724E-1	8.278580E-1	8.258800E-1	8.167772E-1	7.961005E-1	8.054143E-1	8.010438E-1	8.710749E-1	8.288113E-1	8.258774E-1	7.902346E-1	8.323309E-1	8.641989E-1	7.871564E-1	8.261093E-1	8.664708E-1	8.410353E-1	8.300062E-1	8.675987E-1	8.419057E-1	8.407857E-1	8.210451E-1	8.485665E-1	8.070577E-1	8.301654E-1	8.363506E-1	7.864382E-1	8.676968E-1	8.281712E-1	8.221519E-1	8.560905E-1	8.340511E-1	8.448785E-1	8.381301E-1	8.675794E-1	8.344371E-1	8.732305E-1	7.883950E-1	8.300398E-1	7.811087E-1	8.505019E-1	8.908410E-1	8.117025E-1	8.515997E-1	8.236363E-1	8.603822E-1	8.452195E-1	8.805288E-1	8.111681E-1	7.893220E-1	7.868370E-1	8.375580E-1	8.117225E-1	8.024308E-1	8.077822E-1	8.413650E-1	7.885061E-1	8.627297E-1	8.005329E-1	8.286623E-1	8.248582E-1	8.430984E-1	8.762710E-1	9.105253E-1	7.937193E-1	7.700485E-1	7.692822E-1	8.693862E-1	8.074376E-1	8.682093E-1	8.169773E-1	8.285457E-1	8.374878E-1	8.366985E-1	8.291435E-1	8.808020E-1	8.486122E-1	7.984097E-1	8.816478E-1	7.978384E-1	9.048860E-1	8.321007E-1	7.958500E-1	7.789336E-1	8.400412E-1	8.274516E-1	7.857283E-1	8.150283E-1	8.888369E-1	8.730371E-1	8.575576E-1	8.667907E-1	8.458191E-1	8.049388E-1	8.567328E-1	8.177820E-1	8.349465E-1	8.434108E-1	8.184505E-1	8.245038E-1	8.654604E-1	8.193615E-1	8.041709E-1	8.192105E-1	8.558830E-1	8.321805E-1	8.006504E-1	8.801905E-1	8.202230E-1	8.114293E-1	8.167041E-1	7.973244E-1	8.393696E-1	8.620122E-1	8.514222E-1	8.502884E-1	8.590372E-1	8.895006E-1	8.245434E-1	8.323500E-1	8.172550E-1
2.878000E+2	8.302875E-1	7.709366E-1	7.853309E-1	7.495078E-1	8.139068E-1	7.945881E-1	7.476649E-1	8.239274E-1	8.315953E-1	7.999120E-1	8.035548E-1	7.545351E-1	8.141015E-1	8.158677E-1	8.464445E-1	8.161989E-1	8.255297E-1	7.774777E-1	8.333353E-1	8.033295E-1	8.396121E-1	8.131071E-1	7.851623E-1	7.661068E-1	8.118117E-1	7.432604E-1	7.819781E-1	8.133783E-1	8.021339E-1	8.149014E-1	7.858258E-1	7.861281E-1	8.154964E-1	8.230405E-1	8.191221E-1	7.728865E-1	7.685501E-1	7.532736E-1	7.907860E-1	8.196178E-1	7.913372E-1	7.690447E-1	7.913085E-1	8.051464E-1	8.325416E-1	7.797082E-1	8.484418E-1	8.497129E-1	8.223219E-1	7.877604E-1	7.687308E-1	8.625151E-1	8.606519E-1	7.806622E-1	8.078825E-1	7.582270E-1	8.379442E-1	7.971829E-1	8.166773E-1	8.207287E-1	7.741431E-1	8.025555E-1	7.958157E-1	8.187645E-1	8.030501E-1	7.735429E-1	7.977415E-1	8.412411E-1	8.323630E-1	7.802564E-1	8.205784E-1	8.391948E-1	7.942689E-1	8.027115E-1	7.937838E-1	7.604433E-1	8.322992E-1	8.081640E-1	8.686219E-1	8.054323E-1	7.755107E-1	8.180202E-1	8.363162E-1	7.450690E-1	8.051943E-1	7.866746E-1	7.979006E-1	7.911740E-1	8.230647E-1	8.241685E-1	8.120596E-1	7.942960E-1	8.006799E-1	8.007187E-1	8.286557E-1	8.052547E-1	7.910409E-1	8.177303E-1	8.064377E-1	8.195419E-1	7.990044E-1	7.611528E-1	8.277397E-1	7.795848E-1	8.387989E-1	8.376663E-1	7.801600E-1	8.035535E-1	8.070063E-1	8.112123E-1	8.178878E-1	7.904160E-1	7.839076E-1	8.416269E-1	8.178891E-1	8.054289E-1	8.113192E-1	8.107783E-1	8.461022E-1	7.807452E-1	8.379368E-1	7.868181E-1	7.729079E-1	8.640308E-1	7.959366E-1	7.717713E-1	8.329113E-1	7.678349E-1	8.068379E-1	8.526243E-1	8.723425E-1	8.349368E-1	8.302793E-1	8.083706E-1	8.204432E-1	8.301108E-1	7.682942E-1	7.967962E-1	8.017556E-1	8.269383E-1	8.425668E-1	8.413537E-1	8.221202E-1	7.911143E-1	8.163034E-1	7.976267E-1	8.457991E-1	7.958970E-1	8.724381E-1	7.820951E-1	8.324308E-1	8.246204E-1	8.020308E-1	8.174891E-1	8.227501E-1	7.942144E-1	8.204142E-1	8.113944E-1	8.423806E-1	8.854447E-1	7.786729E-1	8.216443E-1	8.213905E-1	8.394000E-1	8.920186E-1	7.975357E-1	8.270921E-1	8.052764E-1	8.166758E-1	8.037452E-1	8.196530E-1	7.640113E-1
2.880040E+2	7.862642E-1	7.780817E-1	8.040379E-1	7.495416E-1	7.673543E-1	7.671561E-1	7.512441E-1	7.477732E-1	8.190260E-1	7.714629E-1	8.343399E-1	8.227829E-1	7.857808E-1	7.988121E-1	7.982242E-1	7.783457E-1	7.759991E-1	7.768160E-1	8.275200E-1	7.728129E-1	8.161099E-1	8.236167E-1	7.597775E-1	7.877406E-1	7.837384E-1	8.041047E-1	7.894733E-1	7.628235E-1	7.588471E-1	7.453857E-1	7.760486E-1	7.673903E-1	7.534049E-1	7.684572E-1	7.884877E-1	8.398493E-1	8.104514E-1	7.325707E-1	8.184273E-1	8.098638E-1	8.247713E-1	7.633167E-1	7.884396E-1	7.352959E-1	7.734175E-1	7.418959E-1	8.006867E-1	8.128264E-1	7.995480E-1	7.634824E-1	7.492504E-1	7.805392E-1	8.166775E-1	7.538951E-1	7.838551E-1	7.554777E-1	7.617559E-1	7.352132E-1	7.884756E-1	7.666314E-1	7.639660E-1	7.234592E-1	8.189907E-1	7.890080E-1	7.547830E-1	7.360357E-1	7.927039E-1	8.414537E-1	7.868846E-1	7.839836E-1	7.390592E-1	7.995052E-1	8.034546E-1	7.925425E-1	7.444841E-1	7.816888E-1	7.902350E-1	7.771761E-1	8.301261E-1	8.181509E-1	7.866612E-1	7.742234E-1	7.842088E-1	7.746261E-1	7.775555E-1	7.909488E-1	7.558273E-1	8.087513E-1	7.876178E-1	8.237858E-1	7.507160E-1	8.164039E-1	7.793086E-1	7.647750E-1	7.616944E-1	7.678846E-1	7.765651E-1	8.193221E-1	7.606272E-1	8.254832E-1	7.818104E-1	8.010978E-1	7.911975E-1	8.009859E-1	7.670026E-1	7.865977E-1	7.835110E-1	7.710676E-1	7.927787E-1	7.879627E-1	7.746251E-1	8.239350E-1	7.700216E-1	7.980360E-1	7.393363E-1	7.876960E-1	7.610147E-1	7.420589E-1	7.487588E-1	7.731593E-1	8.108389E-1	7.705439E-1	7.743334E-1	7.923430E-1	8.204064E-1	7.877734E-1	8.069475E-1	7.236578E-1	7.993149E-1	7.766067E-1	7.794686E-1	8.075765E-1	8.216502E-1	7.566018E-1	7.676111E-1	8.103090E-1	7.685522E-1	8.106330E-1	7.852889E-1	7.981227E-1	7.886388E-1	7.875055E-1	8.085015E-1	7.623376E-1	7.747802E-1	8.163120E-1	8.325472E-1	7.946204E-1	7.704976E-1	7.745435E-1	8.028392E-1	8.318648E-1	8.067611E-1	7.190805E-1	7.900344E-1	7.930336E-1	7.487776E-1	7.620671E-1	8.250241E-1	8.171634E-1	7.806564E-1	8.134144E-1	8.171923E-1	7.971205E-1	7.985160E-1	8.162386E-1	8.126285E-1	7.987734E-1	7.927755E-1	7.248729E-1	8.169910E-1	7.742185E-1
2.882060E+2	7.894688E-1	7.248056E-1	7.327035E-1	7.112291E-1	7.399397E-1	6.711402E-1	7.058937E-1	7.302871E-1	7.381861E-1	7.266254E-1	7.374618E-1	7.327403E-1	7.200391E-1	7.628505E-1	7.436253E-1	7.219207E-1	7.366569E-1	7.375719E-1	7.469305E-1	7.312027E-1	7.944985E-1	7.114954E-1	7.766186E-1	7.506235E-1	7.663570E-1	7.737999E-1	7.356300E-1	7.122939E-1	7.914754E-1	7.469232E-1	7.579927E-1	7.334179E-1	7.296020E-1	7.101557E-1	7.436434E-1	7.386871E-1	7.161877E-1	7.007843E-1	7.716769E-1	7.530601E-1	7.615625E-1	7.155632E-1	7.030830E-1	7.520911E-1	7.015018E-1	7.280462E-1	7.619591E-1	7.637502E-1	7.599531E-1	7.572502E-1	7.579103E-1	7.123271E-1	7.364103E-1	7.560455E-1	7.897060E-1	7.879359E-1	7.581554E-1	7.265307E-1	7.438981E-1	7.712077E-1	7.319133E-1	7.588412E-1	7.409012E-1	7.891330E-1	7.353921E-1	7.158228E-1	7.468057E-1	8.458331E-1	7.490380E-1	7.213597E-1	7.568043E-1	7.702498E-1	7.226985E-1	7.540833E-1	7.120842E-1	7.348234E-1	7.054720E-1	7.176158E-1	7.538592E-1	7.616486E-1	7.201037E-1	7.574955E-1	7.354526E-1	7.430835E-1	7.406738E-1	7.714079E-1	7.425030E-1	7.839500E-1	7.707860E-1	7.256397E-1	7.034391E-1	7.400343E-1	7.544784E-1	6.885064E-1	7.191591E-1	7.532442E-1	7.407922E-1	7.462734E-1	7.482948E-1	7.625291E-1	7.248091E-1	7.515662E-1	7.596823E-1	7.181026E-1	7.444329E-1	7.700433E-1	7.355073E-1	7.503788E-1	7.250391E-1	7.275387E-1	7.320026E-1	7.130964E-1	7.409112E-1	7.951950E-1	7.558200E-1	7.400493E-1	7.463525E-1	7.254963E-1	7.724747E-1	7.292374E-1	7.405620E-1	7.535412E-1	7.008490E-1	7.317814E-1	7.922305E-1	7.598154E-1	7.949576E-1	7.438605E-1	7.067123E-1	7.727652E-1	7.390371E-1	7.393082E-1	7.752997E-1	7.449985E-1	7.173431E-1	7.115102E-1	7.333149E-1	7.572791E-1	7.551543E-1	7.411166E-1	7.263750E-1	7.627021E-1	7.290130E-1	7.521885E-1	7.629843E-1	7.856268E-1	7.504905E-1	7.330435E-1	7.885141E-1	7.427477E-1	7.533417E-1	7.306914E-1	7.409096E-1	7.280036E-1	7.766284E-1	7.402927E-1	7.405668E-1	7.786081E-1	7.718172E-1	8.083815E-1	7.755117E-1	7.456753E-1	7.898157E-1	7.678253E-1	7.574101E-1	7.604894E-1	7.415642E-1	7.654606E-1	8.145399E-1	7.652858E-1	8.474889E-1	7.728663E-1
2.884230E+2	9.201724E-1	9.411003E-1	9.102823E-1	9.064247E-1	9.270962E-1	9.191068E-1	8.791084E-1	9.400572E-1	9.527790E-1	9.449486E-1	9.359914E-1	9.216038E-1	9.311911E-1	9.438186E-1	9.254406E-1	9.418018E-1	9.283129E-1	9.203384E-1	9.413015E-1	9.721340E-1	9.500527E-1	9.295710E-1	9.314360E-1	9.336110E-1	9.362950E-1	9.256958E-1	8.899516E-1	9.369469E-1	8.805059E-1	9.845048E-1	9.456125E-1	9.751150E-1	9.505771E-1	9.517442E-1	9.864974E-1	9.647635E-1	9.439411E-1	9.518694E-1	8.944945E-1	1.022198E+0	9.057723E-1	9.471701E-1	9.194640E-1	1.004284E+0	9.536972E-1	9.439772E-1	9.316253E-1	9.775509E-1	9.824226E-1	9.665175E-1	9.284182E-1	8.966754E-1	9.391843E-1	9.399831E-1	9.682205E-1	9.117234E-1	9.252648E-1	9.335339E-1	9.723701E-1	9.016848E-1	9.288503E-1	9.637340E-1	9.227617E-1	9.413161E-1	9.766571E-1	9.561294E-1	9.072013E-1	9.802112E-1	9.790090E-1	8.930533E-1	8.892880E-1	9.197233E-1	9.252465E-1	9.727072E-1	9.260984E-1	9.014193E-1	9.148940E-1	9.176873E-1	9.689754E-1	9.618109E-1	9.140833E-1	9.025129E-1	9.880618E-1	9.282133E-1	9.444660E-1	9.697728E-1	9.162081E-1	9.627442E-1	9.080343E-1	9.586460E-1	9.406464E-1	9.012831E-1	8.908977E-1	8.732076E-1	9.446862E-1	1.002310E+0	1.008195E+0	9.258362E-1	9.320027E-1	9.945491E-1	9.460940E-1	9.393875E-1	9.475985E-1	9.183563E-1	9.796111E-1	8.378803E-1	9.285680E-1	9.681536E-1	9.405195E-1	9.300592E-1	9.484135E-1	1.010957E+0	9.625322E-1	9.827786E-1	9.561823E-1	9.535184E-1	9.252114E-1	9.536505E-1	9.394586E-1	9.995923E-1	9.548458E-1	9.711988E-1	9.141100E-1	9.968289E-1	9.432207E-1	9.846843E-1	9.776234E-1	1.013623E+0	9.455837E-1	9.712983E-1	8.927931E-1	9.419350E-1	9.191372E-1	9.000566E-1	9.779378E-1	9.891410E-1	9.659061E-1	9.149050E-1	9.152105E-1	9.290565E-1	9.369961E-1	9.043434E-1	9.623642E-1	9.502087E-1	9.539142E-1	9.635919E-1	9.313836E-1	8.909956E-1	1.003393E+0	9.096108E-1	9.289291E-1	9.573811E-1	9.927935E-1	9.798516E-1	1.029815E+0	9.843516E-1	9.032763E-1	9.226598E-1	9.429266E-1	9.426915E-1	9.803048E-1	9.372292E-1	9.944451E-1	9.117738E-1	9.555657E-1	9.488169E-1	9.771861E-1	9.399075E-1	1.023171E+0	1.009494E+0	1.029579E+0	9.014323E-1
2.886030E+2	1.210818E+0	1.238565E+0	1.179802E+0	1.123921E+0	1.198742E+0	1.187432E+0	1.159560E+0	1.216555E+0	1.190733E+0	1.193418E+0	1.215556E+0	1.141276E+0	1.201141E+0	1.150261E+0	1.213491E+0	1.209169E+0	1.188734E+0	1.125165E+0	1.209087E+0	1.174072E+0	1.227211E+0	1.130193E+0	1.229226E+0	1.138805E+0	1.180250E+0	1.150803E+0	1.146746E+0	1.204669E+0	1.152707E+0	1.213288E+0	1.249486E+0	1.145904E+0	1.259662E+0	1.210629E+0	1.203129E+0	1.257649E+0	1.207943E+0	1.160469E+0	1.208372E+0	1.210892E+0	1.160734E+0	1.197101E+0	1.128393E+0	1.170083E+0	1.145564E+0	1.167310E+0	1.182820E+0	1.248079E+0	1.159740E+0	1.173900E+0	1.133068E+0	1.236062E+0	1.212007E+0	1.202993E+0	1.178491E+0	1.208785E+0	1.216459E+0	1.162325E+0	1.205161E+0	1.203767E+0	1.179898E+0	1.147370E+0	1.272599E+0	1.235540E+0	1.247782E+0	1.147244E+0	1.209154E+0	1.218634E+0	1.220721E+0	1.166867E+0	1.190492E+0	1.165511E+0	1.220220E+0	1.191305E+0	1.146956E+0	1.199292E+0	1.233054E+0	1.185752E+0	1.193272E+0	1.214599E+0	1.147656E+0	1.148422E+0	1.241783E+0	1.164677E+0	1.124078E+0	1.124771E+0	1.203867E+0	1.177429E+0	1.222462E+0	1.214676E+0	1.155963E+0	1.223928E+0	1.213607E+0	1.146657E+0	1.211724E+0	1.204331E+0	1.223942E+0	1.159970E+0	1.234554E+0	1.263159E+0	1.174691E+0	1.123679E+0	1.209412E+0	1.204242E+0	1.191978E+0	1.135916E+0	1.231458E+0	1.233339E+0	1.192186E+0	1.212130E+0	1.202479E+0	1.242881E+0	1.155724E+0	1.279637E+0	1.165071E+0	1.218446E+0	1.152410E+0	1.152322E+0	1.195592E+0	1.232387E+0	1.242551E+0	1.171201E+0	1.190423E+0	1.245531E+0	1.195265E+0	1.209560E+0	1.216875E+0	1.182803E+0	1.212801E+0	1.192312E+0	1.177693E+0	1.092238E+0	1.176440E+0	1.099838E+0	1.159881E+0	1.210479E+0	1.165884E+0	1.181912E+0	1.162451E+0	1.209443E+0	1.217816E+0	1.115547E+0	1.237687E+0	1.182538E+0	1.158399E+0	1.116785E+0	1.177512E+0	1.294048E+0	1.188456E+0	1.127167E+0	1.180251E+0	1.189289E+0	1.258513E+0	1.197069E+0	1.224372E+0	1.212418E+0	1.117532E+0	1.193200E+0	1.158918E+0	1.248713E+0	1.173381E+0	1.157699E+0	1.198890E+0	1.234202E+0	1.193850E+0	1.169882E+0	1.220398E+0	1.210296E+0	1.235081E+0	1.145758E+0	1.208073E+0	1.205513E+0
2.888170E+2	1.327219E+0	1.231020E+0	1.267856E+0	1.267524E+0	1.281883E+0	1.165813E+0	1.220270E+0	1.256789E+0	1.250652E+0	1.282644E+0	1.281549E+0	1.321917E+0	1.221920E+0	1.246856E+0	1.249080E+0	1.278578E+0	1.245125E+0	1.138088E+0	1.250302E+0	1.268987E+0	1.305241E+0	1.258964E+0	1.194205E+0	1.229600E+0	1.276843E+0	1.225714E+0	1.229220E+0	1.292254E+0	1.282705E+0	1.265254E+0	1.283968E+0	1.279977E+0	1.260806E+0	1.270456E+0	1.242013E+0	1.194087E+0	1.272626E+0	1.253702E+0	1.247489E+0	1.331825E+0	1.274290E+0	1.270998E+0	1.250343E+0	1.272874E+0	1.280837E+0	1.223188E+0	1.296020E+0	1.300158E+0	1.302367E+0	1.273546E+0	1.208210E+0	1.289997E+0	1.343667E+0	1.283380E+0	1.310892E+0	1.256010E+0	1.280988E+0	1.196188E+0	1.248381E+0	1.317956E+0	1.253695E+0	1.294879E+0	1.259751E+0	1.289361E+0	1.274444E+0	1.266073E+0	1.306676E+0	1.236104E+0	1.320686E+0	1.232004E+0	1.227206E+0	1.259869E+0	1.296135E+0	1.209267E+0	1.230815E+0	1.233785E+0	1.289185E+0	1.263915E+0	1.273008E+0	1.219888E+0	1.301707E+0	1.241259E+0	1.265295E+0	1.289363E+0	1.245132E+0	1.244061E+0	1.213552E+0	1.276399E+0	1.323502E+0	1.311214E+0	1.224495E+0	1.279160E+0	1.248097E+0	1.239089E+0	1.248904E+0	1.313827E+0	1.253164E+0	1.209711E+0	1.288951E+0	1.189572E+0	1.266824E+0	1.270670E+0	1.254937E+0	1.262185E+0	1.256376E+0	1.235013E+0	1.262182E+0	1.213112E+0	1.229005E+0	1.297538E+0	1.275211E+0	1.314154E+0	1.264640E+0	1.268795E+0	1.261145E+0	1.289247E+0	1.246073E+0	1.217250E+0	1.238746E+0	1.274417E+0	1.263555E+0	1.198598E+0	1.260848E+0	1.303504E+0	1.235719E+0	1.264208E+0	1.308788E+0	1.241857E+0	1.240418E+0	1.218151E+0	1.281269E+0	1.244176E+0	1.326670E+0	1.219576E+0	1.216334E+0	1.269533E+0	1.266795E+0	1.251329E+0	1.274564E+0	1.303399E+0	1.275125E+0	1.236653E+0	1.274690E+0	1.271261E+0	1.236360E+0	1.235895E+0	1.286345E+0	1.189805E+0	1.266544E+0	1.266703E+0	1.223450E+0	1.337507E+0	1.317745E+0	1.247279E+0	1.285758E+0	1.247108E+0	1.257477E+0	1.264483E+0	1.303241E+0	1.266175E+0	1.302282E+0	1.274735E+0	1.233097E+0	1.319958E+0	1.260315E+0	1.284058E+0	1.286277E+0	1.309046E+0	1.343327E+0	1.209683E+0	1.270751E+0	1.159336E+0
2.890150E+2	1.102090E+0	1.035920E+0	1.101152E+0	1.128289E+0	1.042254E+0	1.034624E+0	1.090489E+0	1.098564E+0	1.076314E+0	1.054412E+0	1.117856E+0	1.018179E+0	1.105408E+0	1.120750E+0	1.114011E+0	1.122737E+0	1.110293E+0	1.069580E+0	1.107341E+0	1.120898E+0	1.096960E+0	1.048205E+0	1.111029E+0	1.095618E+0	1.075816E+0	1.075666E+0	1.084046E+0	1.120524E+0	1.138077E+0	1.180871E+0	1.070946E+0	1.132623E+0	1.075056E+0	1.034566E+0	1.067538E+0	1.096150E+0	1.082361E+0	1.133550E+0	1.108798E+0	1.106421E+0	1.077144E+0	1.102680E+0	1.098439E+0	1.104537E+0	1.094066E+0	1.096381E+0	1.082133E+0	1.129349E+0	1.113251E+0	1.096201E+0	9.952267E-1	1.133794E+0	1.097356E+0	1.097391E+0	1.149677E+0	1.062486E+0	1.162542E+0	1.067642E+0	1.037868E+0	1.073029E+0	1.077894E+0	1.091180E+0	1.098029E+0	1.114720E+0	1.088854E+0	1.109555E+0	1.155384E+0	1.116816E+0	1.141509E+0	1.135555E+0	1.105036E+0	1.086870E+0	1.190275E+0	1.071132E+0	1.084860E+0	1.116624E+0	1.078529E+0	1.077253E+0	1.090640E+0	1.091849E+0	1.062419E+0	1.106559E+0	1.133702E+0	1.157927E+0	1.042705E+0	1.102245E+0	1.068570E+0	1.098899E+0	1.099349E+0	1.118222E+0	1.133287E+0	1.107395E+0	1.139053E+0	1.041277E+0	1.098289E+0	1.107375E+0	1.106135E+0	1.062148E+0	1.048536E+0	1.106500E+0	1.035042E+0	1.117798E+0	1.097469E+0	1.102790E+0	1.134613E+0	1.037239E+0	1.139780E+0	1.074980E+0	1.161904E+0	1.103413E+0	1.140913E+0	1.110184E+0	1.124000E+0	1.219914E+0	1.104135E+0	1.068312E+0	1.128786E+0	1.054562E+0	1.119587E+0	1.089753E+0	1.159759E+0	1.061275E+0	1.057407E+0	1.072303E+0	1.089871E+0	1.104756E+0	1.118393E+0	1.160877E+0	1.099901E+0	1.110564E+0	1.131553E+0	1.109681E+0	1.157896E+0	1.144341E+0	1.094366E+0	1.095833E+0	1.115953E+0	1.043691E+0	1.060638E+0	1.179268E+0	1.108743E+0	1.123716E+0	1.091652E+0	1.113188E+0	1.138863E+0	1.090094E+0	1.127995E+0	1.108547E+0	1.074046E+0	1.050246E+0	1.079400E+0	1.147692E+0	1.131582E+0	1.128558E+0	1.058401E+0	1.126268E+0	1.028308E+0	1.136374E+0	1.049994E+0	1.140462E+0	1.149633E+0	1.075442E+0	1.099094E+0	1.157392E+0	1.163451E+0	1.068320E+0	1.078324E+0	1.104590E+0	1.130905E+0	1.098641E+0	1.157256E+0	1.079342E+0
2.892020E+2	8.825827E-1	7.920678E-1	8.475330E-1	7.997662E-1	8.413453E-1	8.036634E-1	8.079006E-1	7.887224E-1	8.798299E-1	8.465648E-1	8.175228E-1	7.656825E-1	8.065894E-1	8.755599E-1	8.158701E-1	8.495718E-1	8.849849E-1	8.214893E-1	8.622217E-1	8.448372E-1	8.037377E-1	8.761029E-1	8.861411E-1	8.977519E-1	8.400010E-1	8.099512E-1	7.774845E-1	8.138395E-1	8.575199E-1	8.599421E-1	8.444353E-1	8.483481E-1	8.277549E-1	7.994354E-1	8.298624E-1	8.380639E-1	8.161494E-1	8.138434E-1	8.720945E-1	8.683907E-1	8.873530E-1	8.090032E-1	8.724433E-1	8.656704E-1	8.901614E-1	8.459915E-1	8.347819E-1	8.137105E-1	8.475541E-1	8.549429E-1	8.338634E-1	8.774030E-1	8.634518E-1	8.469573E-1	8.123717E-1	8.251959E-1	8.361355E-1	8.012733E-1	8.924522E-1	8.653015E-1	8.602763E-1	8.639429E-1	8.494985E-1	8.977847E-1	8.202401E-1	8.502865E-1	8.760312E-1	8.484048E-1	8.579253E-1	8.603347E-1	8.067314E-1	8.366778E-1	9.048459E-1	8.750139E-1	8.142716E-1	8.050100E-1	8.538019E-1	8.749266E-1	8.900992E-1	8.468007E-1	8.253356E-1	7.815126E-1	8.783691E-1	8.876736E-1	8.203454E-1	8.224649E-1	8.088614E-1	8.578602E-1	7.981794E-1	8.401304E-1	8.379145E-1	8.103763E-1	8.462931E-1	8.516781E-1	8.477203E-1	8.484051E-1	8.161551E-1	8.703312E-1	8.625235E-1	8.545055E-1	8.215756E-1	8.858404E-1	8.185060E-1	8.425538E-1	8.192304E-1	8.386117E-1	8.664753E-1	8.937067E-1	8.479333E-1	8.863834E-1	8.361221E-1	9.080976E-1	8.702934E-1	8.750503E-1	8.794251E-1	8.526282E-1	8.335529E-1	8.198164E-1	8.437452E-1	8.536201E-1	8.849445E-1	8.542789E-1	7.974339E-1	8.428027E-1	8.553824E-1	8.473507E-1	8.534362E-1	8.207881E-1	8.299749E-1	8.574606E-1	8.275675E-1	9.009600E-1	8.552854E-1	8.528639E-1	8.501201E-1	8.575361E-1	8.600412E-1	8.651153E-1	7.989653E-1	9.176208E-1	8.916912E-1	8.285905E-1	8.434320E-1	8.624264E-1	8.646231E-1	8.141272E-1	8.515307E-1	9.549619E-1	8.108065E-1	8.630849E-1	7.862909E-1	8.530335E-1	8.877465E-1	8.115194E-1	8.920033E-1	8.407376E-1	8.678727E-1	8.622768E-1	8.147430E-1	8.880344E-1	8.479234E-1	8.133853E-1	8.274866E-1	8.913244E-1	8.716017E-1	8.142350E-1	8.289307E-1	8.487048E-1	8.988959E-1	8.507332E-1	8.327803E-1	8.088643E-1
2.894020E+2	8.357998E-1	8.529321E-1	8.377144E-1	8.252041E-1	8.558503E-1	8.398814E-1	8.197867E-1	8.640560E-1	8.551921E-1	8.471255E-1	8.568425E-1	8.504825E-1	8.619625E-1	8.602965E-1	8.580854E-1	8.467877E-1	8.477272E-1	8.088948E-1	8.772399E-1	8.402812E-1	8.144913E-1	7.883423E-1	8.598062E-1	8.199557E-1	8.212612E-1	8.123382E-1	8.016521E-1	8.484977E-1	8.252800E-1	9.234885E-1	8.214032E-1	8.649309E-1	8.422800E-1	8.514946E-1	8.059536E-1	8.104653E-1	8.374539E-1	7.984370E-1	8.149203E-1	8.978777E-1	8.632227E-1	8.221905E-1	8.589680E-1	8.271522E-1	8.461881E-1	8.432880E-1	8.423020E-1	8.958082E-1	8.358250E-1	8.497128E-1	8.363077E-1	8.038686E-1	8.855967E-1	8.551773E-1	8.508283E-1	8.493138E-1	8.706811E-1	8.238569E-1	7.966824E-1	8.428528E-1	8.394653E-1	8.396157E-1	8.488530E-1	8.014677E-1	8.739110E-1	8.006413E-1	8.286699E-1	8.681055E-1	8.766094E-1	8.267804E-1	8.489186E-1	8.056445E-1	8.787279E-1	8.489363E-1	8.163632E-1	8.288076E-1	7.908192E-1	8.056088E-1	8.285724E-1	8.352715E-1	8.610332E-1	8.483744E-1	8.261722E-1	8.692851E-1	8.461451E-1	8.600667E-1	8.102209E-1	8.362560E-1	8.740859E-1	8.196467E-1	8.265086E-1	8.259714E-1	8.807751E-1	8.129408E-1	8.251405E-1	8.967994E-1	9.123110E-1	8.270683E-1	8.351922E-1	8.754996E-1	8.013585E-1	8.449538E-1	8.295219E-1	8.714430E-1	8.017785E-1	8.162388E-1	8.718784E-1	8.698492E-1	8.786475E-1	8.372367E-1	8.424954E-1	8.475848E-1	8.481504E-1	9.153506E-1	8.290100E-1	8.034021E-1	8.298131E-1	8.165037E-1	8.155968E-1	8.696444E-1	8.268292E-1	8.242313E-1	8.098670E-1	8.776717E-1	8.871773E-1	8.103304E-1	8.470796E-1	8.715104E-1	8.676694E-1	8.625501E-1	8.524829E-1	8.900127E-1	8.818436E-1	8.116572E-1	8.665402E-1	8.574851E-1	8.683208E-1	8.513487E-1	8.351305E-1	9.037645E-1	8.299704E-1	8.155347E-1	7.911211E-1	8.477126E-1	8.370158E-1	8.738720E-1	8.858241E-1	8.455610E-1	8.642592E-1	8.231598E-1	8.317212E-1	8.922794E-1	8.816916E-1	8.145086E-1	8.244748E-1	7.729368E-1	8.732642E-1	8.383129E-1	8.335482E-1	8.555807E-1	8.026266E-1	8.371782E-1	8.255373E-1	8.322138E-1	8.664064E-1	8.623088E-1	8.256702E-1	8.385070E-1	9.496317E-1	7.996285E-1	8.992426E-1	8.441866E-1
2.896060E+2	8.642713E-1	8.818880E-1	9.414283E-1	8.909857E-1	9.120259E-1	8.356218E-1	8.791617E-1	8.544762E-1	8.624444E-1	8.668810E-1	8.806316E-1	8.938150E-1	8.530014E-1	8.795341E-1	9.117394E-1	9.398594E-1	8.726103E-1	8.565953E-1	8.707356E-1	8.973764E-1	9.465583E-1	8.407696E-1	8.766236E-1	8.889004E-1	9.055722E-1	8.762804E-1	8.701485E-1	8.919175E-1	8.596555E-1	8.783085E-1	9.018104E-1	8.899206E-1	8.647292E-1	8.661339E-1	9.098606E-1	9.019920E-1	9.407696E-1	8.708922E-1	8.941484E-1	9.142366E-1	8.381668E-1	8.919112E-1	8.424758E-1	8.473245E-1	8.604769E-1	8.907388E-1	9.206434E-1	8.994707E-1	8.752600E-1	8.683282E-1	9.046100E-1	9.375398E-1	8.837952E-1	8.642678E-1	8.767366E-1	8.375657E-1	9.030134E-1	8.698023E-1	9.225820E-1	9.065828E-1	8.911664E-1	9.019355E-1	9.301430E-1	9.387966E-1	8.375258E-1	8.755409E-1	9.018450E-1	9.429706E-1	8.750030E-1	8.854317E-1	8.765202E-1	8.884982E-1	8.942156E-1	8.810945E-1	8.947279E-1	9.273293E-1	8.796663E-1	8.521759E-1	8.706174E-1	9.256864E-1	8.292282E-1	8.290980E-1	9.080910E-1	9.007019E-1	9.145529E-1	8.982674E-1	9.237614E-1	8.716812E-1	9.018812E-1	8.686620E-1	8.799890E-1	8.789486E-1	9.012009E-1	8.585237E-1	9.155584E-1	9.198147E-1	8.915718E-1	8.448215E-1	8.466427E-1	8.719425E-1	8.862374E-1	8.769109E-1	8.574385E-1	9.015637E-1	9.442808E-1	9.029435E-1	8.720701E-1	8.484150E-1	9.239476E-1	8.600921E-1	9.438384E-1	8.622833E-1	9.293273E-1	9.215750E-1	8.809330E-1	9.333229E-1	9.112603E-1	8.575392E-1	8.980701E-1	8.653444E-1	9.218722E-1	9.028333E-1	8.821531E-1	9.120913E-1	8.971111E-1	8.770461E-1	9.669231E-1	8.950216E-1	8.719929E-1	9.002591E-1	8.385934E-1	8.564830E-1	9.139202E-1	8.699368E-1	8.940529E-1	8.850079E-1	8.901651E-1	8.890917E-1	8.600774E-1	8.787417E-1	9.044200E-1	8.923824E-1	9.339475E-1	8.858885E-1	8.989377E-1	9.389637E-1	9.116212E-1	9.281420E-1	9.224066E-1	8.822502E-1	8.893834E-1	8.996031E-1	9.157356E-1	8.828379E-1	8.957671E-1	9.322131E-1	9.356898E-1	9.062707E-1	9.246127E-1	9.143967E-1	9.161883E-1	8.672670E-1	9.025253E-1	9.237494E-1	8.742973E-1	8.783366E-1	8.839146E-1	8.741218E-1	8.856674E-1	9.275028E-1	8.157178E-1	9.030255E-1
2.898050E+2	9.032670E-1	9.058194E-1	9.342231E-1	8.867783E-1	8.795657E-1	8.861826E-1	9.100158E-1	9.030775E-1	8.878366E-1	8.748812E-1	9.515960E-1	9.293088E-1	8.760021E-1	8.498503E-1	9.033646E-1	9.104215E-1	9.078834E-1	8.794154E-1	8.577981E-1	9.052764E-1	9.143559E-1	8.905789E-1	9.151897E-1	8.958509E-1	8.536530E-1	8.539354E-1	8.956755E-1	8.778772E-1	9.051676E-1	9.008669E-1	9.362756E-1	9.090097E-1	9.240644E-1	8.969773E-1	9.072292E-1	8.921260E-1	8.997257E-1	9.208392E-1	9.471520E-1	9.394945E-1	9.190499E-1	9.253713E-1	8.408945E-1	8.727715E-1	8.887625E-1	8.829795E-1	9.111887E-1	8.775087E-1	8.569759E-1	8.831706E-1	8.319156E-1	9.388500E-1	9.541207E-1	8.297595E-1	8.699112E-1	8.880216E-1	9.391889E-1	8.632302E-1	9.335763E-1	8.320552E-1	9.366084E-1	9.047930E-1	9.402251E-1	9.256396E-1	9.171681E-1	8.961596E-1	8.757886E-1	9.101440E-1	9.283009E-1	8.822972E-1	8.978561E-1	8.785141E-1	8.774103E-1	8.652012E-1	8.373682E-1	9.039659E-1	8.789274E-1	9.721026E-1	9.536365E-1	9.155664E-1	8.893255E-1	8.973894E-1	8.965961E-1	9.466960E-1	8.626880E-1	8.425553E-1	8.781212E-1	9.402370E-1	9.041559E-1	8.664416E-1	9.303020E-1	9.486000E-1	9.042231E-1	8.871930E-1	9.495060E-1	9.208944E-1	9.402368E-1	9.307357E-1	8.658375E-1	9.150391E-1	8.764546E-1	8.340643E-1	9.241000E-1	8.357186E-1	9.072768E-1	8.556624E-1	9.273591E-1	8.697990E-1	8.827627E-1	9.518002E-1	9.137894E-1	9.102792E-1	9.532666E-1	9.661980E-1	9.265471E-1	9.569325E-1	9.021933E-1	9.025574E-1	8.615425E-1	9.141995E-1	8.914386E-1	9.051630E-1	8.989438E-1	9.178502E-1	9.145797E-1	8.719432E-1	9.264602E-1	9.467317E-1	8.978277E-1	9.034302E-1	9.159239E-1	9.204273E-1	9.000694E-1	9.120236E-1	8.933398E-1	9.116866E-1	9.030869E-1	8.903792E-1	9.011131E-1	9.346065E-1	9.947248E-1	9.296414E-1	9.108505E-1	9.019618E-1	8.935432E-1	9.267455E-1	8.809549E-1	9.226078E-1	9.370035E-1	8.917716E-1	8.660238E-1	9.300336E-1	9.247582E-1	8.850239E-1	9.647745E-1	9.004445E-1	8.905706E-1	9.143151E-1	9.162935E-1	9.004329E-1	8.900017E-1	8.908572E-1	9.093438E-1	8.970780E-1	9.673897E-1	9.099741E-1	8.748829E-1	9.248456E-1	8.988752E-1	9.274205E-1	8.781444E-1	8.587571E-1
2.900030E+2	8.589309E-1	8.196886E-1	8.391674E-1	8.238209E-1	7.765907E-1	8.131341E-1	8.172984E-1	8.175219E-1	8.595504E-1	8.151521E-1	8.357665E-1	7.981867E-1	8.038359E-1	8.367779E-1	8.621944E-1	8.191682E-1	8.642454E-1	7.529241E-1	7.786052E-1	8.564482E-1	8.955898E-1	8.229523E-1	8.141543E-1	8.077671E-1	8.248818E-1	8.466303E-1	8.532000E-1	8.280126E-1	8.374991E-1	8.186814E-1	8.173970E-1	8.521181E-1	8.606763E-1	8.153088E-1	8.157766E-1	8.392932E-1	7.976443E-1	8.053581E-1	8.542364E-1	9.043316E-1	8.251390E-1	8.157511E-1	8.375326E-1	8.171031E-1	7.968398E-1	8.259745E-1	8.344862E-1	8.188950E-1	8.188798E-1	8.770281E-1	8.412614E-1	8.566212E-1	8.690426E-1	8.307253E-1	8.405532E-1	8.077210E-1	8.778152E-1	7.918193E-1	8.200725E-1	8.640849E-1	8.813435E-1	8.565219E-1	8.491361E-1	8.827772E-1	8.452485E-1	8.497064E-1	8.491121E-1	7.977572E-1	8.281437E-1	8.025649E-1	8.454855E-1	8.191294E-1	8.679493E-1	7.909488E-1	7.851831E-1	8.597703E-1	8.150589E-1	8.123509E-1	8.556243E-1	7.995286E-1	8.540988E-1	8.839813E-1	8.558290E-1	8.548566E-1	8.499140E-1	8.616018E-1	8.745451E-1	8.511259E-1	8.524351E-1	8.471365E-1	8.056772E-1	8.735828E-1	8.399183E-1	8.167657E-1	8.441084E-1	7.998920E-1	8.259785E-1	8.247624E-1	8.008228E-1	8.744418E-1	8.227023E-1	8.244260E-1	8.447071E-1	8.297136E-1	8.455596E-1	8.566035E-1	8.189434E-1	8.102257E-1	8.280667E-1	8.074518E-1	8.393330E-1	8.831281E-1	9.012117E-1	8.921177E-1	8.096618E-1	8.590424E-1	8.379811E-1	7.497017E-1	8.325236E-1	8.181254E-1	8.423468E-1	7.876624E-1	8.173655E-1	8.524992E-1	8.365310E-1	8.064449E-1	8.684342E-1	8.969195E-1	8.731575E-1	8.629535E-1	8.183316E-1	8.701576E-1	8.610612E-1	8.234656E-1	8.237304E-1	8.626646E-1	8.573830E-1	8.247408E-1	8.287093E-1	8.371845E-1	8.382167E-1	8.006102E-1	8.433596E-1	8.377681E-1	8.805941E-1	8.555842E-1	8.463590E-1	8.422140E-1	8.847811E-1	8.195136E-1	8.152200E-1	8.200465E-1	8.272202E-1	8.249079E-1	8.573600E-1	8.117064E-1	8.422982E-1	8.482011E-1	8.526394E-1	8.522303E-1	8.803564E-1	8.575395E-1	8.012207E-1	8.509970E-1	8.625312E-1	7.864787E-1	8.152945E-1	7.859873E-1	8.497908E-1	8.342839E-1	8.804811E-1	7.850437E-1
2.905230E+2	7.716172E-1	7.682048E-1	7.545569E-1	7.331880E-1	8.139339E-1	7.618490E-1	7.210828E-1	7.792572E-1	7.729570E-1	7.819784E-1	7.678336E-1	7.975550E-1	7.876605E-1	7.745025E-1	8.360365E-1	7.677815E-1	7.998785E-1	7.357876E-1	7.697142E-1	8.199159E-1	8.066315E-1	8.002894E-1	7.222527E-1	7.648610E-1	7.666824E-1	8.088760E-1	8.049203E-1	8.043098E-1	7.753076E-1	7.881399E-1	8.003843E-1	8.126460E-1	8.082405E-1	7.241036E-1	8.469687E-1	7.982124E-1	7.751925E-1	7.469315E-1	7.690633E-1	8.108188E-1	7.873179E-1	7.786388E-1	7.643227E-1	7.888311E-1	7.971284E-1	7.635385E-1	7.927119E-1	7.769970E-1	7.465449E-1	7.935041E-1	7.644990E-1	8.365117E-1	7.476523E-1	7.951414E-1	7.618659E-1	7.829215E-1	7.852367E-1	7.371051E-1	8.347675E-1	7.450754E-1	7.779601E-1	7.735311E-1	7.851857E-1	8.060372E-1	7.675117E-1	7.936690E-1	7.798244E-1	7.696041E-1	8.076593E-1	8.012049E-1	7.568236E-1	7.931961E-1	7.350862E-1	7.380232E-1	7.516519E-1	7.827434E-1	7.892182E-1	7.651603E-1	7.923201E-1	7.685314E-1	7.541550E-1	7.587225E-1	7.983194E-1	7.895400E-1	7.902917E-1	7.689382E-1	8.061509E-1	8.379147E-1	7.495252E-1	7.854953E-1	7.862573E-1	7.678831E-1	7.928305E-1	8.076741E-1	7.678171E-1	7.479505E-1	8.549622E-1	7.874737E-1	7.729997E-1	7.939573E-1	7.641652E-1	7.779053E-1	7.926846E-1	7.565628E-1	8.136737E-1	7.991187E-1	8.325446E-1	7.973640E-1	8.377567E-1	8.062262E-1	8.317981E-1	7.834575E-1	8.084119E-1	8.789292E-1	8.044027E-1	7.967718E-1	7.852717E-1	7.760770E-1	7.560521E-1	7.748697E-1	7.877987E-1	8.155036E-1	8.013871E-1	8.404232E-1	7.947642E-1	8.275415E-1	8.532295E-1	7.785716E-1	7.777365E-1	7.600461E-1	7.419917E-1	7.829203E-1	7.790830E-1	7.629470E-1	8.169971E-1	8.308678E-1	8.306999E-1	7.343345E-1	7.739088E-1	7.647117E-1	8.183313E-1	7.749655E-1	8.309646E-1	8.114135E-1	7.984854E-1	7.854226E-1	8.153125E-1	8.080284E-1	8.179101E-1	7.693923E-1	7.561366E-1	7.542497E-1	8.247889E-1	7.752083E-1	8.123393E-1	7.857249E-1	7.472420E-1	8.006787E-1	7.659229E-1	7.930648E-1	7.694425E-1	7.742401E-1	7.846013E-1	7.759152E-1	8.238622E-1	7.775797E-1	7.694263E-1	7.936054E-1	8.417774E-1	7.516733E-1	7.178718E-1	7.861755E-1
2.910010E+2	9.964512E-1	1.012905E+0	1.044150E+0	9.204246E-1	1.040890E+0	9.532233E-1	9.541961E-1	9.946151E-1	9.757292E-1	1.023164E+0	9.915349E-1	9.853041E-1	1.000630E+0	9.720940E-1	9.779206E-1	9.925188E-1	9.731245E-1	9.531920E-1	9.712215E-1	9.842033E-1	1.043217E+0	9.339890E-1	9.217488E-1	9.813731E-1	9.986990E-1	9.591690E-1	9.249330E-1	9.466250E-1	9.969103E-1	1.011866E+0	1.015412E+0	9.993783E-1	9.714795E-1	9.757742E-1	9.968090E-1	1.001517E+0	1.007387E+0	9.278874E-1	1.039926E+0	1.011988E+0	1.002275E+0	9.663342E-1	1.010034E+0	1.002660E+0	1.018181E+0	9.930715E-1	9.993597E-1	9.821681E-1	9.543976E-1	1.016842E+0	9.443270E-1	1.003644E+0	1.062120E+0	9.880617E-1	9.986724E-1	9.694180E-1	9.349770E-1	1.002492E+0	1.006299E+0	9.845539E-1	9.276312E-1	9.395041E-1	9.759673E-1	1.009808E+0	9.903886E-1	9.877214E-1	1.042747E+0	9.640028E-1	1.004478E+0	9.506656E-1	9.819317E-1	1.028102E+0	9.608195E-1	9.034193E-1	9.949869E-1	9.940761E-1	9.807182E-1	9.603669E-1	9.950611E-1	9.619644E-1	9.788286E-1	9.772606E-1	9.644991E-1	9.858695E-1	9.907242E-1	9.362458E-1	9.907458E-1	1.053793E+0	9.684585E-1	9.762042E-1	1.025670E+0	1.006063E+0	9.860447E-1	9.228554E-1	9.949718E-1	9.381637E-1	9.689322E-1	9.752497E-1	9.554682E-1	9.417890E-1	9.628824E-1	9.898862E-1	9.716679E-1	9.607964E-1	1.019780E+0	9.638897E-1	9.673803E-1	9.812153E-1	1.018118E+0	9.700794E-1	9.798190E-1	9.561543E-1	9.714124E-1	1.015387E+0	9.861616E-1	9.656525E-1	9.700870E-1	9.648609E-1	9.721694E-1	9.348979E-1	9.951401E-1	9.315471E-1	9.871547E-1	9.559241E-1	9.562246E-1	9.768670E-1	1.036180E+0	9.754901E-1	9.985326E-1	9.697959E-1	1.000232E+0	9.716302E-1	1.037491E+0	9.609232E-1	9.571069E-1	9.646328E-1	9.970752E-1	1.012933E+0	9.869808E-1	1.006534E+0	1.008746E+0	1.020659E+0	9.320957E-1	1.039962E+0	9.854641E-1	9.946841E-1	1.016024E+0	9.775445E-1	1.043151E+0	1.009006E+0	9.730299E-1	9.921302E-1	1.019986E+0	9.968813E-1	1.040106E+0	9.548075E-1	9.806402E-1	1.000917E+0	1.029817E+0	1.010408E+0	9.682311E-1	1.035342E+0	9.982095E-1	1.021152E+0	1.051490E+0	9.808004E-1	1.021005E+0	9.494990E-1	1.030654E+0	9.973460E-1	1.024402E+0	1.049250E+0
2.915150E+2	1.158109E+0	1.172934E+0	1.173105E+0	1.164541E+0	1.166742E+0	1.204302E+0	1.176701E+0	1.157305E+0	1.200873E+0	1.163829E+0	1.201169E+0	1.161169E+0	1.168698E+0	1.225672E+0	1.194674E+0	1.178461E+0	1.234933E+0	1.130780E+0	1.228588E+0	1.234355E+0	1.215097E+0	1.199477E+0	1.114742E+0	1.156365E+0	1.222158E+0	1.153264E+0	1.134065E+0	1.143570E+0	1.220778E+0	1.217078E+0	1.200167E+0	1.172003E+0	1.232629E+0	1.139126E+0	1.151458E+0	1.151910E+0	1.169034E+0	1.158220E+0	1.221642E+0	1.180836E+0	1.143309E+0	1.225848E+0	1.178517E+0	1.155549E+0	1.163646E+0	1.134351E+0	1.152497E+0	1.175480E+0	1.179825E+0	1.140160E+0	1.110664E+0	1.217382E+0	1.239973E+0	1.160444E+0	1.207278E+0	1.199716E+0	1.197546E+0	1.153519E+0	1.222048E+0	1.197137E+0	1.133122E+0	1.169722E+0	1.151665E+0	1.153760E+0	1.234807E+0	1.193917E+0	1.173744E+0	1.123849E+0	1.217220E+0	1.251076E+0	1.143019E+0	1.239916E+0	1.257080E+0	1.165726E+0	1.106386E+0	1.179030E+0	1.172478E+0	1.147093E+0	1.271387E+0	1.135556E+0	1.161497E+0	1.165757E+0	1.187797E+0	1.208661E+0	1.172554E+0	1.201410E+0	1.113487E+0	1.237407E+0	1.189655E+0	1.180356E+0	1.182003E+0	1.176488E+0	1.227756E+0	1.185247E+0	1.181133E+0	1.184922E+0	1.176195E+0	1.233310E+0	1.167438E+0	1.170814E+0	1.237718E+0	1.169709E+0	1.204371E+0	1.128287E+0	1.189237E+0	1.193643E+0	1.236280E+0	1.147588E+0	1.200452E+0	1.212903E+0	1.207383E+0	1.220408E+0	1.219734E+0	1.224808E+0	1.182529E+0	1.263589E+0	1.244798E+0	1.172414E+0	1.206872E+0	1.099663E+0	1.264922E+0	1.203375E+0	1.098892E+0	1.243769E+0	1.176354E+0	1.138410E+0	1.268050E+0	1.200558E+0	1.159015E+0	1.164630E+0	1.230139E+0	1.162509E+0	1.223435E+0	1.142122E+0	1.295609E+0	1.156802E+0	1.284042E+0	1.150877E+0	1.184595E+0	1.177471E+0	1.195700E+0	1.154090E+0	1.169279E+0	1.195624E+0	1.206400E+0	1.180809E+0	1.198720E+0	1.149668E+0	1.263032E+0	1.213359E+0	1.122204E+0	1.139170E+0	1.240383E+0	1.138140E+0	1.204892E+0	1.232919E+0	1.194628E+0	1.141400E+0	1.194972E+0	1.134685E+0	1.253784E+0	1.205682E+0	1.164146E+0	1.165276E+0	1.222125E+0	1.171494E+0	1.234373E+0	1.154397E+0	1.166566E+0	1.089108E+0	1.147242E+0	1.170181E+0
2.920030E+2	1.012132E+0	1.052432E+0	1.065123E+0	1.058676E+0	1.083233E+0	1.056584E+0	1.053004E+0	1.027343E+0	1.157887E+0	1.026152E+0	1.092685E+0	1.007549E+0	1.036582E+0	1.073971E+0	1.084960E+0	1.054155E+0	1.056133E+0	1.039025E+0	1.078964E+0	1.013168E+0	1.099521E+0	1.018861E+0	1.039524E+0	1.053822E+0	1.029870E+0	1.024703E+0	1.026618E+0	1.102311E+0	1.105982E+0	1.122305E+0	1.075921E+0	1.054233E+0	1.075874E+0	1.082132E+0	1.034916E+0	1.011363E+0	1.100870E+0	9.915035E-1	1.073265E+0	1.063836E+0	1.036176E+0	1.050121E+0	1.025402E+0	1.026286E+0	1.030499E+0	1.069019E+0	1.085667E+0	1.048248E+0	1.082542E+0	1.083774E+0	1.053079E+0	1.068493E+0	1.092074E+0	1.077485E+0	1.079427E+0	1.040894E+0	1.103523E+0	1.001453E+0	1.080705E+0	1.130259E+0	1.114098E+0	1.042148E+0	1.087581E+0	1.100833E+0	1.026952E+0	1.041612E+0	1.099925E+0	1.064768E+0	1.126922E+0	1.061931E+0	1.032278E+0	1.153630E+0	1.093440E+0	1.032708E+0	1.041961E+0	1.059127E+0	1.084296E+0	1.075094E+0	1.087136E+0	1.049944E+0	1.054077E+0	1.028060E+0	1.079261E+0	1.061818E+0	1.092176E+0	1.007743E+0	1.066870E+0	1.119213E+0	1.038806E+0	1.059358E+0	1.083045E+0	1.095463E+0	1.129997E+0	1.051857E+0	1.047147E+0	1.048864E+0	1.025247E+0	1.054147E+0	1.080689E+0	1.062528E+0	1.073324E+0	1.009481E+0	1.102207E+0	1.092898E+0	1.025262E+0	1.063479E+0	1.035309E+0	1.066146E+0	1.029836E+0	1.068796E+0	1.050974E+0	1.069638E+0	1.026489E+0	1.081911E+0	1.073827E+0	1.088178E+0	1.118922E+0	1.046938E+0	1.095068E+0	1.066038E+0	1.092021E+0	1.138930E+0	1.049215E+0	1.058316E+0	1.129733E+0	1.081284E+0	1.108546E+0	1.084233E+0	1.076110E+0	1.045111E+0	1.011013E+0	1.056688E+0	1.093139E+0	1.105064E+0	1.084572E+0	1.061828E+0	1.027170E+0	1.052973E+0	1.050412E+0	1.069720E+0	1.061276E+0	1.127572E+0	1.126781E+0	1.109388E+0	1.039398E+0	1.096788E+0	1.106611E+0	1.062158E+0	1.131202E+0	1.012237E+0	1.071851E+0	1.031484E+0	1.101583E+0	1.051074E+0	1.106078E+0	1.023498E+0	1.086810E+0	1.019185E+0	1.031225E+0	1.029324E+0	1.145946E+0	1.075586E+0	1.047340E+0	1.074563E+0	1.083053E+0	1.095854E+0	1.052091E+0	1.064570E+0	1.074376E+0	1.037065E+0	9.716639E-1	1.025146E+0
2.925030E+2	1.016097E+0	1.007433E+0	9.769734E-1	1.008738E+0	1.021947E+0	1.001063E+0	1.007905E+0	9.941394E-1	1.057416E+0	1.018706E+0	9.959318E-1	1.030028E+0	1.021130E+0	1.009660E+0	1.037485E+0	1.014355E+0	9.848481E-1	1.004960E+0	1.016619E+0	1.008333E+0	1.064759E+0	1.049956E+0	1.041414E+0	1.060529E+0	9.887262E-1	9.820701E-1	1.034707E+0	1.009264E+0	1.052203E+0	1.048188E+0	1.034383E+0	1.044608E+0	1.036790E+0	1.015346E+0	1.008462E+0	1.028134E+0	1.062272E+0	1.037808E+0	1.063316E+0	1.078923E+0	1.000548E+0	1.014958E+0	1.010587E+0	1.015221E+0	1.031206E+0	9.688499E-1	1.049393E+0	1.051435E+0	9.977923E-1	1.030107E+0	1.029285E+0	1.036252E+0	1.037114E+0	1.019007E+0	1.058471E+0	1.057971E+0	1.058334E+0	9.926734E-1	1.078949E+0	9.991943E-1	1.023389E+0	1.014515E+0	9.786828E-1	1.037998E+0	1.064990E+0	1.048757E+0	1.054501E+0	1.013397E+0	1.015984E+0	1.026165E+0	9.868435E-1	1.089692E+0	1.055548E+0	9.861742E-1	1.030552E+0	1.025134E+0	1.037990E+0	1.052146E+0	1.063558E+0	1.037625E+0	9.953168E-1	1.023165E+0	1.084525E+0	1.065416E+0	1.041095E+0	1.019356E+0	1.032278E+0	1.084166E+0	1.041345E+0	1.045477E+0	1.001400E+0	1.033411E+0	1.019951E+0	1.031219E+0	1.013080E+0	1.064636E+0	1.042929E+0	1.010002E+0	1.015936E+0	1.023693E+0	1.046283E+0	1.018719E+0	1.081973E+0	1.061909E+0	1.040144E+0	1.000528E+0	1.028087E+0	1.030115E+0	1.083624E+0	1.034969E+0	1.088587E+0	1.015556E+0	9.993945E-1	1.049963E+0	1.047989E+0	9.811055E-1	1.046306E+0	9.856233E-1	9.908199E-1	9.865109E-1	1.119425E+0	1.017446E+0	9.863906E-1	1.058746E+0	1.049018E+0	1.006300E+0	1.084079E+0	1.014288E+0	9.957094E-1	1.067643E+0	1.028882E+0	1.054983E+0	9.852723E-1	1.024919E+0	1.036010E+0	1.062732E+0	1.009399E+0	1.024537E+0	9.997208E-1	1.052247E+0	1.019027E+0	9.873781E-1	1.072433E+0	1.020245E+0	1.032503E+0	1.050442E+0	1.019871E+0	1.023732E+0	1.088626E+0	1.029792E+0	1.044323E+0	1.074925E+0	1.031425E+0	9.846180E-1	1.036130E+0	9.828982E-1	1.017786E+0	1.008810E+0	1.095155E+0	1.022688E+0	9.989325E-1	1.042933E+0	1.015240E+0	1.045505E+0	1.071552E+0	1.041497E+0	1.003405E+0	1.044035E+0	1.004303E+0	9.578139E-1	1.063799E+0	1.047929E+0
2.930040E+2	9.188149E-1	9.135569E-1	9.365743E-1	9.313193E-1	9.628549E-1	9.148411E-1	8.892159E-1	9.327145E-1	9.160613E-1	9.745077E-1	9.234294E-1	9.543661E-1	9.061710E-1	9.996395E-1	9.245437E-1	9.120826E-1	9.577472E-1	9.202208E-1	9.773081E-1	9.555537E-1	9.709031E-1	9.296278E-1	9.334155E-1	9.243775E-1	9.523174E-1	8.964711E-1	9.515703E-1	9.412225E-1	9.624157E-1	9.440678E-1	9.567357E-1	8.765755E-1	9.560148E-1	8.998512E-1	9.164859E-1	9.733906E-1	9.470026E-1	8.952507E-1	9.902516E-1	9.506570E-1	9.619447E-1	9.483392E-1	9.188405E-1	9.598408E-1	9.302376E-1	9.120601E-1	8.870656E-1	9.547262E-1	9.822521E-1	8.891309E-1	9.336065E-1	9.199373E-1	9.473270E-1	9.576989E-1	9.457807E-1	9.105756E-1	9.602248E-1	9.673045E-1	9.142022E-1	9.821231E-1	9.503003E-1	1.015509E+0	9.418135E-1	9.320021E-1	9.314467E-1	9.195303E-1	9.474992E-1	9.720002E-1	9.439225E-1	9.594914E-1	9.564845E-1	9.680947E-1	9.342974E-1	9.669987E-1	9.545933E-1	9.502463E-1	9.665250E-1	9.172726E-1	9.075212E-1	9.383870E-1	9.086291E-1	9.538140E-1	9.759968E-1	1.042500E+0	9.107695E-1	8.885892E-1	1.002248E+0	1.009670E+0	9.765911E-1	8.952019E-1	9.144774E-1	9.041407E-1	9.407078E-1	9.292251E-1	9.438974E-1	9.465693E-1	9.379566E-1	9.123811E-1	9.413251E-1	9.709183E-1	9.249523E-1	9.262823E-1	9.679360E-1	9.260633E-1	9.694862E-1	8.997675E-1	1.006455E+0	9.674833E-1	9.366186E-1	9.960110E-1	9.515353E-1	9.727287E-1	9.864363E-1	9.755329E-1	9.994672E-1	9.926992E-1	1.010502E+0	9.402269E-1	8.987275E-1	9.634434E-1	1.008499E+0	8.659008E-1	8.748468E-1	9.504958E-1	9.763104E-1	9.465579E-1	9.791830E-1	1.011525E+0	9.127418E-1	9.138248E-1	9.293167E-1	8.796125E-1	9.344382E-1	8.887326E-1	9.050633E-1	9.564014E-1	9.635424E-1	9.074871E-1	8.803049E-1	9.362017E-1	9.402784E-1	9.363850E-1	9.642276E-1	9.251963E-1	9.624537E-1	9.756415E-1	9.816622E-1	9.429261E-1	9.892517E-1	9.227024E-1	9.324280E-1	9.557466E-1	1.018451E+0	9.420229E-1	1.014965E+0	9.490328E-1	9.232604E-1	9.889218E-1	9.362669E-1	9.638196E-1	9.180826E-1	9.546499E-1	1.008003E+0	9.543060E-1	1.023205E+0	9.642019E-1	9.491097E-1	9.037913E-1	1.042370E+0	9.831414E-1	9.466802E-1	9.515276E-1
2.935110E+2	1.014516E+0	1.042303E+0	1.109733E+0	1.054231E+0	1.030575E+0	1.013546E+0	1.018876E+0	1.102650E+0	1.110019E+0	1.065657E+0	1.017525E+0	1.114181E+0	1.038955E+0	1.054705E+0	1.117121E+0	1.063858E+0	1.016245E+0	1.032876E+0	1.042710E+0	1.022841E+0	1.067798E+0	1.065579E+0	1.068675E+0	1.098895E+0	1.096222E+0	1.049722E+0	9.859430E-1	1.031952E+0	1.054588E+0	1.069477E+0	1.070467E+0	1.034020E+0	1.087946E+0	1.067094E+0	1.119855E+0	1.088222E+0	1.092196E+0	1.024715E+0	1.055372E+0	1.095655E+0	1.040501E+0	1.131076E+0	1.058850E+0	1.087584E+0	1.074139E+0	1.050887E+0	1.072686E+0	1.126797E+0	1.087870E+0	1.081984E+0	1.082697E+0	1.122198E+0	1.126819E+0	1.085530E+0	1.102324E+0	1.097626E+0	1.055189E+0	1.045370E+0	1.061141E+0	1.158869E+0	1.118313E+0	1.024154E+0	1.078309E+0	1.066855E+0	1.126451E+0	1.063849E+0	1.076728E+0	1.074475E+0	1.117959E+0	1.047563E+0	1.090901E+0	1.112659E+0	1.103400E+0	1.086236E+0	1.034296E+0	1.076002E+0	1.036559E+0	1.059857E+0	1.115939E+0	1.037198E+0	1.093219E+0	1.037793E+0	1.050806E+0	1.109506E+0	1.052136E+0	1.025800E+0	1.078220E+0	1.095226E+0	1.102258E+0	1.113125E+0	1.083177E+0	1.070794E+0	1.060720E+0	1.011183E+0	1.090576E+0	1.020762E+0	1.055178E+0	1.129273E+0	1.066158E+0	1.061328E+0	1.036907E+0	1.067191E+0	1.061924E+0	1.108451E+0	1.109826E+0	1.104256E+0	1.086890E+0	1.061764E+0	1.111234E+0	1.043702E+0	1.116045E+0	1.102027E+0	1.099373E+0	1.116910E+0	1.070010E+0	1.056393E+0	1.090370E+0	1.053480E+0	1.043084E+0	1.107346E+0	1.158934E+0	1.091089E+0	1.088119E+0	1.090099E+0	1.054739E+0	1.080294E+0	1.130465E+0	1.103665E+0	1.159921E+0	1.046376E+0	1.081527E+0	1.089303E+0	1.137216E+0	1.038745E+0	1.144094E+0	1.098936E+0	1.072159E+0	9.893033E-1	1.081608E+0	1.086887E+0	1.074839E+0	1.066487E+0	1.021184E+0	1.093401E+0	1.104728E+0	1.149649E+0	1.082939E+0	1.053935E+0	1.171082E+0	1.123346E+0	1.101137E+0	1.132627E+0	1.114264E+0	1.073912E+0	1.093358E+0	1.065490E+0	1.091421E+0	1.084571E+0	1.050939E+0	1.071097E+0	1.049522E+0	1.125508E+0	1.147454E+0	1.092162E+0	1.116956E+0	1.123573E+0	1.016802E+0	1.059431E+0	1.147292E+0	1.054398E+0	1.128954E+0	1.043586E+0
2.940070E+2	1.124750E+0	1.078344E+0	1.180749E+0	1.138189E+0	1.164143E+0	1.071434E+0	1.031568E+0	1.097773E+0	1.135727E+0	1.108438E+0	1.097100E+0	1.121629E+0	1.107576E+0	1.090377E+0	1.156721E+0	1.145832E+0	1.119482E+0	1.056675E+0	1.148430E+0	1.126817E+0	1.136237E+0	1.138610E+0	1.213110E+0	1.078067E+0	1.121855E+0	1.060943E+0	1.024698E+0	1.101300E+0	1.080239E+0	1.126056E+0	1.109035E+0	1.124592E+0	1.115071E+0	1.104087E+0	1.108835E+0	1.098328E+0	1.131077E+0	1.116228E+0	1.135459E+0	1.148097E+0	1.094050E+0	1.132044E+0	1.151849E+0	1.131424E+0	1.096056E+0	1.107359E+0	1.114607E+0	1.146762E+0	1.120999E+0	1.148318E+0	1.091458E+0	1.154759E+0	1.141635E+0	1.054740E+0	1.152737E+0	1.113219E+0	1.144122E+0	1.096542E+0	1.162970E+0	1.107610E+0	1.154683E+0	1.074126E+0	1.125875E+0	1.170266E+0	1.151473E+0	1.145470E+0	1.104268E+0	1.119487E+0	1.140654E+0	1.077197E+0	1.109423E+0	1.112865E+0	1.140166E+0	1.138294E+0	1.113129E+0	1.108647E+0	1.087649E+0	1.117653E+0	1.134098E+0	1.107393E+0	1.093407E+0	1.098053E+0	1.096994E+0	1.155056E+0	1.145368E+0	1.110575E+0	1.125698E+0	1.105017E+0	1.116943E+0	1.134687E+0	1.072998E+0	1.107467E+0	1.132084E+0	1.136011E+0	1.120904E+0	1.104820E+0	1.175196E+0	1.104081E+0	1.149666E+0	1.111128E+0	1.111873E+0	1.081821E+0	1.126807E+0	1.093664E+0	1.189087E+0	1.125501E+0	1.093256E+0	1.100380E+0	1.103983E+0	1.120488E+0	1.136423E+0	1.139678E+0	1.161482E+0	1.155219E+0	1.138955E+0	1.121080E+0	1.178496E+0	1.100033E+0	1.083602E+0	1.157931E+0	1.153375E+0	1.105717E+0	1.098769E+0	1.089255E+0	1.073053E+0	1.122803E+0	1.187861E+0	1.158616E+0	1.146503E+0	1.132421E+0	1.107131E+0	1.100950E+0	1.159690E+0	1.111626E+0	1.109231E+0	1.128492E+0	1.142261E+0	1.117540E+0	1.101842E+0	1.069110E+0	1.135165E+0	1.054222E+0	1.110154E+0	1.110939E+0	1.086240E+0	1.120416E+0	1.101390E+0	1.097525E+0	1.186560E+0	1.107109E+0	1.103402E+0	1.171932E+0	1.107597E+0	1.109185E+0	1.148644E+0	1.089502E+0	1.101101E+0	1.110261E+0	1.165476E+0	1.066462E+0	1.105219E+0	1.076195E+0	1.094088E+0	1.084565E+0	1.130847E+0	1.052701E+0	1.098809E+0	1.088786E+0	1.127504E+0	1.122033E+0	1.175685E+0	1.106122E+0
2.945010E+2	1.102284E+0	1.022082E+0	1.040892E+0	1.065389E+0	1.061595E+0	1.032160E+0	1.035243E+0	1.104631E+0	1.073785E+0	1.072360E+0	1.099761E+0	1.072720E+0	1.078262E+0	1.026397E+0	1.098997E+0	1.067405E+0	1.099716E+0	1.076716E+0	1.082910E+0	1.110113E+0	1.101633E+0	1.103151E+0	1.012439E+0	1.100925E+0	1.065691E+0	1.044349E+0	1.042149E+0	1.055606E+0	1.102938E+0	1.063762E+0	1.065487E+0	1.052495E+0	1.094101E+0	1.076738E+0	1.149564E+0	1.045916E+0	1.042994E+0	1.078668E+0	1.047074E+0	1.127458E+0	1.065713E+0	1.095375E+0	1.057476E+0	1.084456E+0	1.066127E+0	1.045169E+0	1.101544E+0	1.056154E+0	1.128708E+0	1.017128E+0	1.058598E+0	1.087048E+0	1.103458E+0	1.033008E+0	1.071402E+0	1.143765E+0	1.060971E+0	1.047633E+0	1.101965E+0	1.070928E+0	1.074112E+0	1.086727E+0	1.123001E+0	1.062649E+0	1.057594E+0	1.100005E+0	1.069015E+0	1.037101E+0	1.069957E+0	1.065990E+0	1.090802E+0	1.038558E+0	1.065010E+0	1.039140E+0	1.053263E+0	1.086229E+0	1.139668E+0	1.077444E+0	1.111674E+0	1.025489E+0	1.104205E+0	1.067738E+0	1.086504E+0	1.073652E+0	1.054185E+0	1.017197E+0	1.047798E+0	1.077572E+0	1.071883E+0	1.092844E+0	1.051313E+0	1.018014E+0	1.119663E+0	1.108915E+0	1.106911E+0	1.058259E+0	1.092777E+0	1.086957E+0	1.096828E+0	1.044768E+0	1.068364E+0	1.086019E+0	1.095495E+0	1.032075E+0	1.055305E+0	1.056998E+0	1.085917E+0	1.064260E+0	1.075240E+0	1.084583E+0	1.075994E+0	1.119843E+0	1.072916E+0	1.097678E+0	1.113474E+0	1.076188E+0	1.083058E+0	1.087156E+0	1.022018E+0	1.088067E+0	1.099131E+0	1.090937E+0	1.059425E+0	1.064995E+0	1.108750E+0	1.101331E+0	1.039228E+0	1.095375E+0	1.126674E+0	1.076117E+0	1.046285E+0	1.083682E+0	1.100544E+0	1.071887E+0	1.088643E+0	1.037210E+0	1.136859E+0	1.039210E+0	1.063445E+0	1.092649E+0	1.079447E+0	1.106096E+0	1.108189E+0	1.060629E+0	1.108354E+0	1.113915E+0	1.078681E+0	1.069537E+0	1.117041E+0	1.006490E+0	1.098383E+0	1.075402E+0	1.065252E+0	1.058490E+0	1.132840E+0	1.078560E+0	1.031026E+0	1.074072E+0	1.024857E+0	1.097189E+0	1.098096E+0	1.070779E+0	1.051872E+0	1.080560E+0	1.115430E+0	1.038036E+0	1.034345E+0	1.046604E+0	1.097512E+0	1.037344E+0	1.119477E+0	1.028055E+0
2.950050E+2	1.045017E+0	9.531367E-1	1.037283E+0	1.062265E+0	1.048901E+0	1.039376E+0	1.004750E+0	1.024211E+0	1.006438E+0	1.003167E+0	1.049158E+0	9.588715E-1	1.035547E+0	1.024575E+0	1.019899E+0	1.047096E+0	9.782423E-1	1.046135E+0	1.087697E+0	1.009040E+0	1.067268E+0	1.006540E+0	9.809893E-1	9.591129E-1	1.010407E+0	9.714567E-1	1.008841E+0	9.891661E-1	1.027600E+0	1.026738E+0	1.041043E+0	1.050665E+0	1.038787E+0	1.006403E+0	1.038357E+0	1.064289E+0	1.062915E+0	9.284955E-1	1.045548E+0	1.089177E+0	1.025207E+0	1.020257E+0	9.709084E-1	1.013663E+0	9.898237E-1	1.000332E+0	1.006293E+0	1.013423E+0	1.066936E+0	1.040643E+0	1.003132E+0	1.004144E+0	1.079960E+0	1.066198E+0	1.041424E+0	1.026360E+0	1.069635E+0	1.019925E+0	1.051033E+0	1.011051E+0	1.009625E+0	1.033339E+0	1.094535E+0	1.037309E+0	1.043746E+0	1.032272E+0	1.064036E+0	9.658891E-1	1.059885E+0	9.739110E-1	9.659396E-1	1.053308E+0	1.070435E+0	1.027906E+0	1.049209E+0	9.808240E-1	1.027321E+0	1.009673E+0	1.060498E+0	9.768509E-1	1.010375E+0	1.003456E+0	1.065696E+0	1.006930E+0	1.014226E+0	1.018277E+0	1.090254E+0	1.052919E+0	1.030216E+0	1.091360E+0	9.823250E-1	1.010473E+0	1.042981E+0	9.797918E-1	9.801586E-1	1.003172E+0	1.005081E+0	1.020608E+0	1.016708E+0	1.011472E+0	1.006462E+0	9.827124E-1	1.012169E+0	1.018471E+0	1.043442E+0	1.025556E+0	1.052693E+0	1.050839E+0	1.063533E+0	1.056229E+0	1.039496E+0	1.039980E+0	1.062047E+0	1.068553E+0	9.937263E-1	1.054700E+0	1.056218E+0	1.006583E+0	1.009459E+0	1.034570E+0	1.067632E+0	9.950439E-1	9.733862E-1	1.058383E+0	1.027320E+0	1.020411E+0	1.035837E+0	1.007658E+0	1.051109E+0	9.939420E-1	1.010958E+0	1.036683E+0	1.036558E+0	1.026142E+0	1.047764E+0	1.032507E+0	9.963452E-1	9.693394E-1	1.024499E+0	1.012234E+0	1.063938E+0	1.024806E+0	1.023857E+0	1.031304E+0	1.037567E+0	1.020293E+0	1.037387E+0	9.962993E-1	1.071502E+0	1.002524E+0	9.957634E-1	1.045367E+0	1.043863E+0	9.942243E-1	1.052044E+0	1.050202E+0	1.028074E+0	1.039832E+0	1.034738E+0	1.033842E+0	1.026758E+0	1.039701E+0	1.003887E+0	9.760230E-1	1.061752E+0	1.007405E+0	1.007037E+0	1.057656E+0	1.010583E+0	1.022395E+0	1.046182E+0	9.956013E-1
2.955050E+2	1.053335E+0	1.070437E+0	1.012779E+0	1.015869E+0	9.688056E-1	9.848672E-1	9.988056E-1	1.004699E+0	1.018516E+0	1.047473E+0	1.042038E+0	1.037107E+0	9.926105E-1	1.071033E+0	1.035983E+0	1.058551E+0	9.856563E-1	9.885147E-1	9.884258E-1	1.019819E+0	1.006114E+0	1.045533E+0	1.024253E+0	1.016247E+0	9.858590E-1	1.001658E+0	9.995857E-1	1.004118E+0	1.010609E+0	1.030156E+0	1.010984E+0	1.037727E+0	1.005078E+0	1.017867E+0	9.808501E-1	9.967739E-1	9.795334E-1	1.044846E+0	9.854335E-1	1.057885E+0	9.883611E-1	1.036033E+0	9.990562E-1	1.006082E+0	1.060314E+0	1.004788E+0	9.881431E-1	1.050212E+0	1.018991E+0	1.034149E+0	9.780766E-1	1.019156E+0	1.044269E+0	9.725965E-1	9.979078E-1	1.042609E+0	1.013016E+0	1.058721E+0	1.032657E+0	1.048707E+0	1.035500E+0	1.056051E+0	1.011593E+0	1.066946E+0	1.008457E+0	9.775604E-1	9.969742E-1	1.062666E+0	1.043581E+0	1.072974E+0	9.904694E-1	9.929294E-1	1.096783E+0	9.899048E-1	1.039680E+0	9.882403E-1	1.034744E+0	1.021809E+0	1.048725E+0	1.029800E+0	1.003197E+0	1.056486E+0	1.033717E+0	1.039070E+0	9.835875E-1	9.991135E-1	1.060601E+0	1.111035E+0	1.044137E+0	9.612864E-1	1.043898E+0	9.864349E-1	1.045955E+0	1.057099E+0	1.039960E+0	9.796848E-1	1.038396E+0	9.884367E-1	1.019319E+0	9.737880E-1	1.005621E+0	1.044426E+0	1.012197E+0	1.031078E+0	1.085755E+0	1.046833E+0	1.051724E+0	9.890946E-1	1.041842E+0	1.067805E+0	1.043546E+0	1.006758E+0	1.039901E+0	1.117899E+0	1.004398E+0	1.023922E+0	9.989995E-1	1.028881E+0	9.844614E-1	1.035337E+0	1.038382E+0	1.034484E+0	1.021887E+0	1.024368E+0	1.081813E+0	1.026537E+0	1.079104E+0	1.058770E+0	1.052688E+0	1.046518E+0	1.031546E+0	1.007265E+0	1.070440E+0	1.004146E+0	1.008879E+0	1.043748E+0	9.721327E-1	9.802857E-1	1.038276E+0	1.008099E+0	1.035981E+0	1.095317E+0	9.924194E-1	1.049529E+0	1.086776E+0	1.037814E+0	1.032003E+0	1.034914E+0	1.049808E+0	1.048915E+0	1.070433E+0	1.014251E+0	1.036336E+0	1.052270E+0	1.067459E+0	1.035175E+0	1.012607E+0	9.765053E-1	1.019578E+0	1.038819E+0	1.020117E+0	1.069241E+0	1.015006E+0	1.022493E+0	1.045936E+0	9.766835E-1	9.981461E-1	1.019567E+0	1.075471E+0	1.026266E+0	1.064672E+0	1.021137E+0
2.960050E+2	1.083072E+0	1.124815E+0	1.089787E+0	1.067744E+0	1.099599E+0	1.126780E+0	1.084430E+0	1.122043E+0	1.151247E+0	1.104809E+0	1.112601E+0	1.078959E+0	1.086851E+0	1.117590E+0	1.099675E+0	1.128781E+0	1.058791E+0	1.097431E+0	1.084479E+0	1.141410E+0	1.130387E+0	1.138229E+0	1.093552E+0	1.150367E+0	1.071516E+0	1.097434E+0	1.098183E+0	1.125120E+0	1.128651E+0	1.101884E+0	1.090669E+0	1.155756E+0	1.145105E+0	1.102468E+0	1.148347E+0	1.108084E+0	1.077720E+0	1.073613E+0	1.145373E+0	1.165710E+0	1.094504E+0	1.077349E+0	1.104849E+0	1.089041E+0	1.127924E+0	1.086226E+0	1.027797E+0	1.102496E+0	1.151891E+0	1.143275E+0	1.106467E+0	1.122648E+0	1.115891E+0	1.113919E+0	1.147345E+0	1.114097E+0	1.149147E+0	1.124528E+0	1.080800E+0	1.153988E+0	1.068877E+0	1.096903E+0	1.117562E+0	1.134175E+0	1.086585E+0	1.120838E+0	1.176843E+0	1.084277E+0	1.141327E+0	1.093761E+0	1.119066E+0	1.155217E+0	1.137762E+0	1.065161E+0	1.131466E+0	1.068963E+0	1.078757E+0	1.109772E+0	1.131711E+0	1.108929E+0	1.104775E+0	1.103932E+0	1.089011E+0	1.166654E+0	1.083010E+0	1.117991E+0	1.071947E+0	1.115164E+0	1.111870E+0	1.104232E+0	1.063189E+0	1.092371E+0	1.100493E+0	1.078543E+0	1.105367E+0	1.108243E+0	1.147721E+0	1.090607E+0	1.163260E+0	1.123217E+0	1.100961E+0	1.077263E+0	1.126391E+0	1.106722E+0	1.189754E+0	1.132142E+0	1.103594E+0	1.142945E+0	1.139249E+0	1.151933E+0	1.049291E+0	1.142022E+0	1.104740E+0	1.153022E+0	1.074636E+0	1.132624E+0	1.140503E+0	1.160026E+0	1.119503E+0	1.118241E+0	1.164844E+0	1.081096E+0	1.123059E+0	1.133451E+0	1.163572E+0	1.129221E+0	1.127444E+0	1.139024E+0	1.078881E+0	1.092872E+0	1.112471E+0	1.140625E+0	1.100126E+0	1.110512E+0	1.104782E+0	1.170654E+0	1.134920E+0	1.175085E+0	1.121575E+0	1.115675E+0	1.110894E+0	1.107072E+0	1.134004E+0	1.114585E+0	1.120842E+0	1.146009E+0	1.067750E+0	1.103379E+0	1.172222E+0	1.151922E+0	1.122454E+0	1.127180E+0	1.114126E+0	1.111001E+0	1.106669E+0	1.111207E+0	1.073532E+0	1.117944E+0	1.128953E+0	1.101770E+0	1.163433E+0	1.105543E+0	1.113118E+0	1.189749E+0	1.151721E+0	1.157314E+0	1.118278E+0	1.127518E+0	1.177745E+0	1.103448E+0	1.068804E+0	1.057603E+0
2.965010E+2	1.100771E+0	1.035239E+0	1.084170E+0	1.067478E+0	1.047692E+0	1.105403E+0	1.069928E+0	1.077775E+0	1.076538E+0	1.078866E+0	1.113554E+0	1.080334E+0	1.062891E+0	1.029085E+0	1.106269E+0	1.071964E+0	1.119754E+0	1.030107E+0	1.053234E+0	1.065752E+0	1.109989E+0	1.094179E+0	1.080110E+0	1.070696E+0	1.082562E+0	1.016920E+0	1.013259E+0	1.094529E+0	1.063549E+0	1.085230E+0	1.120098E+0	1.018517E+0	1.098124E+0	1.072755E+0	1.059215E+0	1.102666E+0	1.048843E+0	1.052947E+0	1.046662E+0	1.123431E+0	1.043027E+0	1.080248E+0	1.096897E+0	1.091848E+0	1.113074E+0	1.084331E+0	1.084064E+0	1.089974E+0	1.058676E+0	1.070308E+0	1.013985E+0	1.056090E+0	1.071602E+0	1.127219E+0	1.148525E+0	1.084139E+0	1.080286E+0	1.074877E+0	1.114120E+0	1.091819E+0	1.093818E+0	1.117886E+0	1.137230E+0	1.075311E+0	1.052564E+0	1.110350E+0	1.093831E+0	1.097418E+0	1.068785E+0	1.121631E+0	1.070267E+0	1.110576E+0	1.058950E+0	1.088331E+0	1.042865E+0	1.154333E+0	1.081237E+0	1.072691E+0	1.074011E+0	1.105348E+0	1.041032E+0	1.017160E+0	1.101250E+0	1.087527E+0	1.051544E+0	1.095015E+0	1.069713E+0	1.152861E+0	1.070320E+0	1.043969E+0	1.068841E+0	1.071749E+0	1.089578E+0	1.057596E+0	1.075386E+0	1.067827E+0	1.070226E+0	1.069696E+0	1.093077E+0	1.075503E+0	1.113444E+0	1.063400E+0	1.064196E+0	1.060467E+0	1.046857E+0	1.111810E+0	1.052866E+0	1.069557E+0	1.074832E+0	1.058289E+0	1.071289E+0	1.069634E+0	1.099231E+0	1.113001E+0	1.075576E+0	1.122864E+0	1.093530E+0	1.108889E+0	1.068107E+0	1.070444E+0	1.134501E+0	1.033372E+0	1.041250E+0	1.064504E+0	1.119145E+0	1.077058E+0	1.062542E+0	1.059664E+0	1.061836E+0	1.111334E+0	1.078185E+0	1.055977E+0	1.124398E+0	1.086267E+0	1.043089E+0	1.045523E+0	1.035255E+0	1.061832E+0	1.103180E+0	1.062413E+0	1.052923E+0	1.057565E+0	1.115047E+0	1.108809E+0	1.084684E+0	1.124427E+0	1.099954E+0	1.071739E+0	1.110811E+0	1.108720E+0	1.063762E+0	1.073175E+0	1.072686E+0	1.106668E+0	1.132464E+0	1.027784E+0	1.099618E+0	1.078921E+0	1.034080E+0	1.094129E+0	1.123990E+0	1.105609E+0	1.065879E+0	1.067812E+0	1.120733E+0	1.115043E+0	1.027347E+0	1.073807E+0	1.116212E+0	1.097554E+0	1.088891E+0	1.040781E+0
2.970020E+2	1.062478E+0	1.033445E+0	1.000717E+0	9.930095E-1	9.863718E-1	1.000080E+0	9.670185E-1	1.003070E+0	1.005402E+0	9.832503E-1	1.012904E+0	1.016599E+0	1.015003E+0	1.018762E+0	1.018438E+0	1.044057E+0	1.011428E+0	9.691275E-1	1.043491E+0	1.025283E+0	1.042094E+0	1.032740E+0	1.011792E+0	1.021779E+0	9.859353E-1	1.012198E+0	1.030842E+0	1.013767E+0	1.018733E+0	1.057172E+0	1.005952E+0	1.016169E+0	1.045480E+0	1.022481E+0	1.028039E+0	1.029179E+0	9.839823E-1	9.847166E-1	1.101408E+0	1.074380E+0	1.014932E+0	1.019663E+0	9.992779E-1	1.028297E+0	1.006599E+0	1.045088E+0	1.042286E+0	1.042055E+0	1.006196E+0	1.025588E+0	1.025217E+0	1.000378E+0	1.039632E+0	1.042950E+0	1.074075E+0	1.034091E+0	1.005487E+0	1.090710E+0	1.065843E+0	1.061151E+0	1.029691E+0	1.079767E+0	1.041803E+0	1.047567E+0	1.020615E+0	9.859888E-1	1.037367E+0	1.060446E+0	1.029297E+0	1.017352E+0	1.074701E+0	1.028376E+0	1.009844E+0	1.057888E+0	1.027076E+0	1.058300E+0	1.008950E+0	1.001449E+0	1.047589E+0	1.011057E+0	1.012279E+0	1.038321E+0	1.021342E+0	1.038321E+0	1.035393E+0	1.059251E+0	1.004858E+0	1.095879E+0	9.939987E-1	1.053909E+0	1.035757E+0	1.072061E+0	1.046789E+0	1.014608E+0	1.024554E+0	1.009954E+0	1.015219E+0	9.893516E-1	1.000731E+0	1.027135E+0	1.035127E+0	1.013228E+0	1.012206E+0	1.044127E+0	1.032018E+0	1.034745E+0	1.044018E+0	1.014013E+0	9.910472E-1	1.013897E+0	9.997698E-1	1.006891E+0	1.010520E+0	1.109811E+0	1.092717E+0	1.061423E+0	1.010011E+0	1.058667E+0	1.001515E+0	1.044624E+0	1.035004E+0	1.030742E+0	9.948987E-1	1.022663E+0	1.021887E+0	9.959578E-1	1.059004E+0	1.042956E+0	1.015619E+0	1.003945E+0	1.026336E+0	9.942792E-1	1.031578E+0	9.957277E-1	9.791068E-1	1.044568E+0	1.030623E+0	1.014732E+0	1.005767E+0	1.002961E+0	1.013593E+0	1.035314E+0	1.040424E+0	1.004676E+0	9.813056E-1	1.040791E+0	1.002662E+0	1.040337E+0	1.042182E+0	1.007124E+0	1.087057E+0	1.022404E+0	1.092802E+0	1.041530E+0	1.051788E+0	1.011838E+0	9.922881E-1	1.042006E+0	1.015183E+0	1.026912E+0	1.050646E+0	1.061581E+0	1.026241E+0	1.004516E+0	1.066185E+0	1.049908E+0	1.003295E+0	1.020996E+0	1.021443E+0	1.008135E+0	9.340463E-1	9.709107E-1
2.975010E+2	9.604400E-1	1.015233E+0	9.687065E-1	9.660401E-1	1.007346E+0	1.008510E+0	9.838906E-1	9.545534E-1	1.000079E+0	9.712536E-1	9.797352E-1	9.710588E-1	9.472701E-1	9.418542E-1	9.910446E-1	1.010181E+0	9.651065E-1	1.001884E+0	1.007136E+0	9.317565E-1	9.910790E-1	9.676946E-1	9.769327E-1	1.024957E+0	9.757568E-1	9.948253E-1	9.715563E-1	9.867426E-1	9.984874E-1	9.686959E-1	9.666489E-1	9.963833E-1	9.513587E-1	9.777586E-1	9.667004E-1	1.006697E+0	9.855464E-1	1.007742E+0	9.796001E-1	9.566110E-1	9.574130E-1	9.754366E-1	9.567482E-1	9.370710E-1	9.741599E-1	9.748657E-1	9.802771E-1	9.873147E-1	9.665817E-1	9.787605E-1	9.730007E-1	9.753204E-1	9.947525E-1	1.006914E+0	1.024772E+0	9.799137E-1	1.002812E+0	1.016118E+0	9.932377E-1	9.678026E-1	9.524567E-1	9.762935E-1	9.771093E-1	9.296909E-1	9.739054E-1	9.949230E-1	9.927799E-1	9.624015E-1	9.825214E-1	9.821993E-1	9.523083E-1	9.819157E-1	9.944670E-1	9.880251E-1	9.838541E-1	9.876432E-1	9.371662E-1	9.760710E-1	9.979472E-1	1.008789E+0	9.934982E-1	9.832649E-1	9.864474E-1	9.737447E-1	9.612613E-1	1.000802E+0	9.794612E-1	9.855853E-1	9.559688E-1	9.588504E-1	9.825216E-1	9.505010E-1	9.780720E-1	1.007898E+0	9.364283E-1	9.813574E-1	9.672621E-1	9.957060E-1	9.931908E-1	9.334831E-1	9.889009E-1	9.632404E-1	9.803653E-1	1.002097E+0	9.468964E-1	9.626858E-1	9.619222E-1	9.664947E-1	9.281984E-1	9.596658E-1	9.796912E-1	9.315609E-1	9.478886E-1	9.619180E-1	1.008498E+0	9.595327E-1	9.623390E-1	9.773732E-1	9.825156E-1	1.029593E+0	9.388958E-1	9.665631E-1	9.888072E-1	9.900961E-1	9.736745E-1	9.768917E-1	9.782311E-1	1.001148E+0	9.977536E-1	9.774360E-1	9.294176E-1	9.686664E-1	9.941256E-1	9.889734E-1	9.748157E-1	9.886419E-1	9.316810E-1	9.782416E-1	9.736864E-1	9.868988E-1	9.956711E-1	9.523081E-1	1.002314E+0	1.000150E+0	9.547422E-1	9.665425E-1	9.850957E-1	9.902446E-1	9.705442E-1	9.724725E-1	1.020079E+0	9.717509E-1	9.925250E-1	9.895547E-1	1.004783E+0	9.809046E-1	9.829450E-1	1.019459E+0	9.966499E-1	9.539813E-1	9.879631E-1	9.856477E-1	9.397478E-1	9.994827E-1	9.868254E-1	9.484963E-1	9.885445E-1	9.930670E-1	9.593262E-1	1.020469E+0	9.322787E-1	9.320748E-1
2.980020E+2	9.176637E-1	9.071616E-1	8.977300E-1	9.130416E-1	9.149904E-1	9.127761E-1	9.431959E-1	9.408712E-1	8.944797E-1	8.897644E-1	9.526913E-1	9.509464E-1	9.184653E-1	9.084783E-1	9.030537E-1	9.416091E-1	9.168992E-1	9.222373E-1	9.069570E-1	9.142138E-1	9.350105E-1	9.303323E-1	9.295585E-1	9.629475E-1	8.894098E-1	9.330028E-1	9.172564E-1	9.048844E-1	9.180147E-1	9.146836E-1	9.488467E-1	8.970905E-1	9.670862E-1	9.181727E-1	8.971953E-1	9.225664E-1	9.436673E-1	9.319063E-1	8.969152E-1	9.453461E-1	9.526304E-1	9.381498E-1	9.356514E-1	9.043771E-1	9.508840E-1	9.355712E-1	9.216983E-1	9.253810E-1	9.233925E-1	9.107932E-1	9.510975E-1	9.416226E-1	9.623892E-1	9.128125E-1	9.220267E-1	9.265164E-1	9.255696E-1	9.112764E-1	9.339431E-1	9.210444E-1	8.993187E-1	9.062460E-1	9.690700E-1	9.009416E-1	9.268234E-1	9.267195E-1	9.081038E-1	9.195035E-1	9.163415E-1	8.980166E-1	9.324086E-1	9.545739E-1	9.315966E-1	9.624924E-1	9.113826E-1	9.575796E-1	8.998476E-1	8.946632E-1	9.264978E-1	9.242334E-1	9.739456E-1	9.022368E-1	8.870321E-1	9.056949E-1	9.183181E-1	9.458591E-1	9.163627E-1	9.129864E-1	9.236390E-1	9.476100E-1	9.256358E-1	9.393259E-1	9.118679E-1	9.636819E-1	9.300286E-1	9.256963E-1	9.698530E-1	8.872661E-1	9.108244E-1	9.636435E-1	9.489878E-1	9.607357E-1	9.426229E-1	9.300410E-1	9.349606E-1	8.869492E-1	8.923042E-1	9.423725E-1	9.103028E-1	8.999008E-1	9.698074E-1	9.416654E-1	9.599511E-1	9.244808E-1	9.392066E-1	9.351421E-1	9.425405E-1	9.100774E-1	9.357636E-1	9.239160E-1	9.075312E-1	9.292678E-1	9.170215E-1	9.416850E-1	9.156835E-1	8.945414E-1	9.350375E-1	9.192945E-1	9.378062E-1	9.209818E-1	9.431616E-1	9.598378E-1	9.181442E-1	9.182233E-1	9.373252E-1	9.161599E-1	9.386629E-1	9.072624E-1	9.134347E-1	9.572991E-1	9.340219E-1	9.420674E-1	9.527845E-1	8.889029E-1	9.360975E-1	9.259195E-1	9.453350E-1	9.364972E-1	9.268771E-1	9.484209E-1	9.527895E-1	9.054850E-1	8.987147E-1	9.412744E-1	9.037041E-1	8.992612E-1	9.069113E-1	9.615406E-1	9.157615E-1	9.231958E-1	8.996579E-1	8.921382E-1	9.339034E-1	9.056440E-1	9.616422E-1	9.538557E-1	9.493598E-1	8.949212E-1	9.273582E-1	9.210927E-1	8.974527E-1	9.395839E-1
2.985010E+2	9.851526E-1	1.002225E+0	9.731987E-1	9.946769E-1	9.624634E-1	9.501991E-1	9.590130E-1	1.025102E+0	9.481414E-1	9.774978E-1	9.830124E-1	9.753459E-1	9.692175E-1	9.565611E-1	9.762391E-1	9.767655E-1	9.765899E-1	9.527888E-1	9.245897E-1	9.706643E-1	9.338970E-1	9.680097E-1	9.965056E-1	9.155291E-1	9.525594E-1	9.149012E-1	9.650418E-1	9.580266E-1	9.911222E-1	9.834490E-1	9.491590E-1	9.464002E-1	9.443599E-1	9.600445E-1	9.855276E-1	9.236039E-1	9.406629E-1	9.396726E-1	9.469359E-1	9.356463E-1	9.489516E-1	9.367686E-1	9.432142E-1	9.495512E-1	9.533735E-1	9.530170E-1	9.258876E-1	9.836384E-1	9.596880E-1	9.554750E-1	9.550707E-1	9.519599E-1	9.384192E-1	9.366519E-1	9.458261E-1	1.004315E+0	9.697585E-1	9.563819E-1	9.217837E-1	9.558136E-1	9.580609E-1	9.818310E-1	9.200945E-1	9.732963E-1	9.295223E-1	9.141360E-1	9.678028E-1	9.430966E-1	9.461749E-1	9.605237E-1	9.447689E-1	9.918397E-1	9.394503E-1	9.651762E-1	9.402938E-1	9.424716E-1	9.836704E-1	9.855622E-1	9.834580E-1	9.378607E-1	9.283694E-1	9.710886E-1	9.879194E-1	9.504846E-1	9.739475E-1	9.437058E-1	9.525155E-1	9.334203E-1	9.847332E-1	9.404848E-1	9.585518E-1	9.716964E-1	9.430411E-1	9.531943E-1	1.004434E+0	9.523764E-1	9.447670E-1	9.692275E-1	9.263055E-1	9.740470E-1	9.218459E-1	9.451561E-1	9.654286E-1	9.424000E-1	9.506922E-1	9.676250E-1	9.394765E-1	9.682989E-1	9.564506E-1	9.828173E-1	9.351943E-1	9.789372E-1	9.529805E-1	9.539699E-1	9.010748E-1	9.618658E-1	9.500685E-1	9.307404E-1	9.513344E-1	9.594862E-1	9.686299E-1	9.752511E-1	9.673656E-1	9.550853E-1	9.702807E-1	9.769756E-1	9.722317E-1	9.693902E-1	9.559923E-1	9.721334E-1	9.781568E-1	9.450283E-1	9.856007E-1	9.389164E-1	9.524949E-1	9.770630E-1	9.616605E-1	9.823613E-1	9.545502E-1	9.673618E-1	1.007602E+0	1.011245E+0	9.690138E-1	9.896541E-1	9.587940E-1	9.106439E-1	9.205565E-1	9.336345E-1	9.506300E-1	9.719973E-1	9.420219E-1	9.335086E-1	9.639317E-1	9.867217E-1	9.796262E-1	9.879086E-1	9.769209E-1	9.915914E-1	9.588242E-1	9.733064E-1	9.430890E-1	9.751338E-1	9.722667E-1	9.532505E-1	9.696404E-1	9.707409E-1	9.454618E-1	9.774232E-1	9.599957E-1	9.532579E-1	1.047755E+0	1.018605E+0
2.990020E+2	1.018935E+0	9.846289E-1	1.073278E+0	1.035097E+0	1.019545E+0	1.058241E+0	1.015995E+0	1.014012E+0	1.036819E+0	1.053286E+0	1.008459E+0	1.046904E+0	1.102451E+0	1.043307E+0	1.014530E+0	1.042842E+0	1.042614E+0	1.087031E+0	1.047233E+0	1.058452E+0	1.084047E+0	1.067174E+0	1.051194E+0	1.015494E+0	1.096217E+0	1.070721E+0	1.074947E+0	1.019064E+0	1.028766E+0	1.024183E+0	1.054085E+0	1.057902E+0	1.017683E+0	1.031043E+0	1.034564E+0	1.052481E+0	1.046894E+0	1.022885E+0	1.055514E+0	1.011871E+0	1.039963E+0	1.068484E+0	1.043085E+0	1.069914E+0	1.049668E+0	1.040435E+0	1.018342E+0	1.050253E+0	1.055837E+0	1.090629E+0	1.060567E+0	1.050364E+0	1.024636E+0	1.018296E+0	1.006887E+0	9.947502E-1	1.045350E+0	1.046205E+0	1.059125E+0	1.061089E+0	1.074366E+0	1.034034E+0	1.035712E+0	1.073369E+0	1.045507E+0	1.088667E+0	1.045217E+0	1.048195E+0	1.049012E+0	1.038719E+0	1.062962E+0	1.046208E+0	1.040205E+0	1.035742E+0	1.026870E+0	1.040463E+0	1.053923E+0	1.047949E+0	1.032767E+0	1.029363E+0	1.031811E+0	1.042313E+0	1.058568E+0	1.028848E+0	1.027595E+0	1.022681E+0	1.037605E+0	1.035166E+0	1.049214E+0	1.066940E+0	1.036125E+0	1.039397E+0	1.075742E+0	1.016165E+0	1.037752E+0	1.004766E+0	1.036304E+0	1.035963E+0	1.046666E+0	1.061128E+0	1.031907E+0	1.037545E+0	1.061373E+0	1.014614E+0	1.061099E+0	1.047346E+0	1.045226E+0	1.074856E+0	1.099710E+0	1.008282E+0	1.035514E+0	1.050767E+0	1.033603E+0	1.061608E+0	1.035955E+0	1.037795E+0	1.065118E+0	1.050420E+0	1.056270E+0	1.013159E+0	1.058178E+0	1.031515E+0	1.061969E+0	1.036206E+0	1.062162E+0	1.048765E+0	1.034621E+0	9.922858E-1	1.038341E+0	1.034280E+0	1.038640E+0	1.024114E+0	1.023726E+0	1.113678E+0	1.056700E+0	1.005900E+0	1.056359E+0	1.044265E+0	1.037924E+0	1.055254E+0	1.007606E+0	1.017173E+0	1.015408E+0	1.069568E+0	1.032049E+0	1.125360E+0	1.030097E+0	1.060313E+0	1.047061E+0	9.997718E-1	1.019124E+0	1.069507E+0	1.039267E+0	1.016174E+0	1.037060E+0	1.042954E+0	9.969908E-1	1.034512E+0	1.063885E+0	1.053980E+0	1.068580E+0	1.048400E+0	1.041777E+0	1.056638E+0	1.011512E+0	1.050642E+0	1.014052E+0	1.025199E+0	1.087526E+0	1.048456E+0	9.904018E-1	1.054502E+0
2.995060E+2	1.107007E+0	1.084476E+0	1.053940E+0	1.089429E+0	1.050002E+0	1.042231E+0	1.058232E+0	1.018224E+0	1.055602E+0	1.066192E+0	1.041578E+0	1.039325E+0	1.013688E+0	1.078013E+0	1.052732E+0	1.016151E+0	1.063907E+0	1.035891E+0	1.079752E+0	1.084012E+0	1.034353E+0	1.040981E+0	1.033349E+0	1.065568E+0	1.051815E+0	1.075848E+0	1.085992E+0	1.068822E+0	1.047251E+0	1.059120E+0	1.050648E+0	1.029667E+0	1.036192E+0	1.072338E+0	1.070840E+0	1.057828E+0	1.039448E+0	1.059253E+0	1.077999E+0	1.104994E+0	1.071635E+0	1.056112E+0	1.053095E+0	1.091588E+0	1.021512E+0	1.082493E+0	1.140475E+0	1.032096E+0	1.054693E+0	1.029976E+0	1.060052E+0	1.062498E+0	1.049182E+0	1.064513E+0	1.072697E+0	1.075209E+0	1.057482E+0	1.060917E+0	1.047885E+0	1.046144E+0	1.067479E+0	1.065675E+0	1.064722E+0	1.069434E+0	1.057978E+0	1.041360E+0	1.055158E+0	1.047937E+0	1.045946E+0	1.068085E+0	1.083952E+0	1.024373E+0	1.048581E+0	1.046979E+0	1.096817E+0	1.031089E+0	1.088742E+0	1.043982E+0	1.051127E+0	1.056689E+0	1.060950E+0	1.061578E+0	1.072393E+0	1.074788E+0	1.076319E+0	1.043525E+0	1.063842E+0	1.066298E+0	1.028727E+0	1.026739E+0	1.065219E+0	1.054033E+0	1.077178E+0	1.050605E+0	1.053440E+0	1.097333E+0	1.036655E+0	1.074114E+0	1.071321E+0	1.060804E+0	1.070471E+0	1.090042E+0	1.027821E+0	1.049292E+0	1.046831E+0	1.062936E+0	1.090867E+0	1.041055E+0	1.088406E+0	1.094932E+0	1.041262E+0	1.057480E+0	1.086733E+0	1.069937E+0	1.060284E+0	1.069454E+0	1.060238E+0	1.067562E+0	1.053958E+0	1.015381E+0	1.078534E+0	1.048385E+0	1.041878E+0	1.042415E+0	1.042722E+0	1.041934E+0	1.083022E+0	1.076832E+0	1.046253E+0	1.047043E+0	1.093044E+0	1.074822E+0	1.060600E+0	9.963238E-1	1.027379E+0	1.055782E+0	1.047841E+0	1.078121E+0	1.060332E+0	1.037281E+0	9.849221E-1	1.055145E+0	1.030255E+0	1.048933E+0	1.060138E+0	1.062139E+0	1.071098E+0	1.027631E+0	1.067500E+0	1.075547E+0	1.032374E+0	1.087591E+0	1.055124E+0	1.067288E+0	1.045409E+0	1.063369E+0	1.100623E+0	9.843667E-1	1.054358E+0	1.072124E+0	1.026874E+0	1.048085E+0	1.071723E+0	1.032630E+0	1.026554E+0	1.052096E+0	1.055976E+0	1.075291E+0	1.047625E+0	1.041615E+0	1.046140E+0	1.100102E+0
3.000060E+2	1.010802E+0	1.006277E+0	1.033146E+0	1.001715E+0	1.045654E+0	1.028043E+0	1.039673E+0	1.047236E+0	1.064879E+0	1.042006E+0	1.034524E+0	1.016419E+0	1.048907E+0	1.071786E+0	1.062401E+0	1.012450E+0	1.034883E+0	1.000169E+0	1.034332E+0	1.040901E+0	1.021613E+0	1.025808E+0	1.012461E+0	1.015504E+0	1.034242E+0	1.010702E+0	9.852066E-1	1.062460E+0	1.016359E+0	1.049869E+0	1.030613E+0	1.072557E+0	1.083320E+0	1.040644E+0	1.045173E+0	1.036823E+0	1.043781E+0	1.038541E+0	1.043036E+0	1.045531E+0	1.029407E+0	1.025049E+0	1.068207E+0	1.047499E+0	1.050402E+0	1.013619E+0	1.013320E+0	1.021317E+0	1.039808E+0	1.034366E+0	1.000212E+0	1.018236E+0	1.030622E+0	1.060813E+0	1.027791E+0	1.019296E+0	9.990276E-1	1.009102E+0	1.044026E+0	1.048106E+0	1.048319E+0	1.035921E+0	1.033292E+0	1.053268E+0	1.066264E+0	1.034194E+0	1.030939E+0	1.078866E+0	1.060004E+0	1.052456E+0	1.023601E+0	1.001090E+0	1.045699E+0	1.001586E+0	1.040782E+0	1.040753E+0	1.036651E+0	1.051772E+0	1.008204E+0	1.043065E+0	1.011426E+0	1.039519E+0	1.007640E+0	1.066440E+0	1.042559E+0	1.043427E+0	1.050214E+0	1.066544E+0	1.057717E+0	1.059375E+0	1.031947E+0	1.045046E+0	1.014098E+0	1.008455E+0	1.037917E+0	1.038471E+0	1.045159E+0	1.037723E+0	1.051691E+0	1.006894E+0	1.037888E+0	1.003280E+0	1.022389E+0	1.061556E+0	1.059521E+0	1.072458E+0	1.070204E+0	1.006923E+0	1.016932E+0	1.054402E+0	1.038531E+0	1.039589E+0	1.018844E+0	1.028087E+0	1.054982E+0	1.036210E+0	1.019695E+0	1.063827E+0	1.020158E+0	1.058465E+0	1.048231E+0	1.049019E+0	1.022959E+0	1.034513E+0	1.035477E+0	1.060892E+0	9.968566E-1	1.041050E+0	1.023853E+0	1.048126E+0	1.017580E+0	1.027532E+0	1.017804E+0	1.043885E+0	1.051285E+0	1.056453E+0	1.063795E+0	1.009748E+0	1.060072E+0	9.959047E-1	1.070177E+0	1.022061E+0	1.030225E+0	1.002792E+0	1.058180E+0	1.009395E+0	1.047818E+0	1.051679E+0	1.037388E+0	1.031791E+0	1.033611E+0	1.032158E+0	1.050437E+0	9.989873E-1	1.029417E+0	1.025603E+0	1.035609E+0	1.008530E+0	1.010521E+0	1.023413E+0	1.073836E+0	1.050595E+0	1.040583E+0	1.052355E+0	1.043826E+0	1.024169E+0	1.046606E+0	1.034098E+0	1.018169E+0	1.015110E+0	1.085972E+0	9.551321E-1
