Photon Energy (eV)	#1	#2	#3	#4	#5	#6	#7	#8	#9	#10	#11	#12	#13	#14	#15	#16	#17	#18	#19	#20	#21	#22	#23	#24	#25	#26	#27	#28	#29	#30	#31	#32	#33	#34	#35	#36	#37	#38	#39	#40	#41	#42	#43	#44	#45	#46	#47	#48	#49	#50	#51	#52	#53	#54	#55	#56	#57	#58	#59	#60	#61	#62	#63	#64	#65	#66	#67	#68	#69	#70	#71	#72	#73	#74	#75	#76	#77	#78	#79	#80	#81	#82	#83	#84	#85	#86	#87	#88	#89	#90	#91	#92	#93	#94	#95	#96	#97	#98	#99	#100	#101	#102	#103	#104	#105	#106	#107	#108	#109	#110	#111	#112	#113	#114	#115	#116	#117	#118	#119	#120	#121	#122	#123	#124	#125	#126	#127	#128	#129	#130	#131	#132	#133	#134	#135	#136	#137	#138	#139	#140	#141	#142	#143	#144	#145	#146	#147	#148	#149	#150	#151	#152	#153	#154	#155	#156	#157	#158	#159	#160	#161	#162	#163	#164	#165	#166	#167	#168	#169	#170	#171	
2.790030E+2	8.393304E-3	-2.353355E-3	5.783185E-3	-1.118628E-2	6.461882E-3	4.962896E-3	-7.539785E-3	-7.374319E-3	-1.173960E-2	-3.507877E-3	-7.603848E-3	-1.676873E-3	-1.382564E-2	-3.321157E-3	-2.870547E-3	-5.836587E-3	-1.014730E-2	-4.699370E-3	-3.043410E-3	-7.647516E-4	-4.235109E-3	-1.526737E-2	-2.821552E-4	-7.879333E-3	8.702294E-4	-3.700578E-3	-8.959327E-3	2.304564E-3	9.166892E-4	-4.723450E-3	-9.209544E-3	1.600448E-2	1.969318E-4	-6.981563E-3	-8.935667E-3	-1.849308E-2	-1.210909E-2	1.487054E-3	-5.103981E-3	-6.030153E-3	-3.408799E-3	-9.530874E-3	-3.140381E-3	-3.896171E-3	-1.836089E-3	7.731468E-3	-8.289472E-3	5.661130E-3	-2.189263E-3	-5.264785E-3	8.466352E-3	-5.041380E-3	-4.511259E-3	6.208528E-3	-8.745755E-4	2.943442E-3	-1.007078E-2	-1.464060E-2	-9.148354E-3	-2.159051E-3	-9.664281E-3	-3.888761E-3	2.942075E-3	-6.951938E-3	-3.329869E-3	-4.377985E-3	-2.871470E-3	5.875803E-3	-6.833305E-3	-1.718912E-2	5.121689E-3	-1.916939E-2	-1.120722E-2	-8.815635E-4	-5.084833E-3	-1.183514E-2	-4.858840E-3	-6.980226E-4	-8.572197E-4	-2.753193E-3	9.289203E-3	-2.261483E-3	-3.635329E-3	9.329563E-3	-1.389037E-2	1.838412E-3	-2.914999E-3	-7.124156E-3	-4.372392E-3	-9.586887E-4	6.710957E-3	-6.232786E-3	1.535711E-3	-2.172065E-2	-1.072421E-2	-2.579359E-3	1.236579E-3	-1.069366E-3	-1.229175E-2	-6.025683E-3	7.096612E-4	-1.669422E-3	-6.098324E-3	2.893498E-4	-1.459571E-3	6.219226E-3	-4.577407E-3	3.652843E-3	-8.507125E-3	6.806140E-3	-2.635207E-3	1.294110E-4	-2.592109E-3	2.803583E-3	1.777860E-2	-3.237579E-3	-9.931075E-3	-1.190362E-3	-8.613556E-3	-7.913484E-4	-8.839606E-3	-5.942798E-3	-1.905182E-2	5.432009E-3	-1.265169E-2	-6.828158E-3	1.342661E-4	-1.960652E-3	-4.581077E-3	-3.280796E-3	-7.290196E-3	-4.126359E-3	-7.713123E-3	-6.062129E-3	4.737599E-3	-1.667085E-3	5.673929E-3	1.029307E-2	2.001597E-3	5.113232E-3	-1.688093E-2	-3.296107E-3	-3.692931E-3	-9.214067E-4	-1.209624E-2	4.000914E-3	1.428952E-3	-1.216246E-2	5.880387E-4	-1.486131E-2	-9.355544E-3	-6.648113E-3	-2.186906E-3	-2.988806E-5	-7.182588E-3	-6.029315E-3	-4.062492E-4	1.286244E-3	-1.669796E-2	-9.082843E-3	-8.140324E-3	6.625851E-3	9.172612E-4	-1.217619E-2	-5.478889E-3	4.844933E-3	1.736806E-3	7.570579E-3	-1.022972E-2	-1.000238E-2	2.491478E-2
2.795050E+2	-9.911434E-4	-1.698306E-2	-1.299321E-2	4.719769E-3	-8.867191E-3	-1.895012E-2	-1.260336E-2	-1.276708E-2	-2.379370E-3	4.259252E-3	7.466542E-3	-1.728108E-3	-2.386896E-3	7.619220E-3	6.049311E-3	7.942198E-3	-7.485596E-3	6.473726E-3	4.069140E-4	2.429140E-2	-9.078105E-3	5.102806E-3	6.100076E-3	3.482076E-3	3.465463E-3	-9.620907E-4	9.212147E-3	-1.013642E-2	3.196537E-3	-5.978068E-3	-1.134369E-2	-1.480419E-2	-1.312449E-2	4.011368E-3	3.683242E-3	2.436575E-3	1.072183E-3	3.723130E-3	-3.899735E-3	8.261104E-3	5.902859E-4	-8.306599E-3	1.313911E-2	3.126561E-3	-5.547633E-3	-1.371841E-2	-8.360059E-3	-6.196529E-3	-5.215162E-3	1.180112E-3	4.617615E-3	-9.594851E-3	-4.593655E-3	-3.803040E-3	4.231549E-3	-4.349542E-3	-2.063730E-3	-1.221744E-2	-1.481731E-2	3.330873E-3	-4.563408E-3	-6.441938E-3	-5.400706E-4	-1.743420E-3	-8.662706E-3	-3.265991E-3	-1.689996E-3	-5.371638E-3	-5.643568E-3	-3.760805E-3	-5.521341E-3	-8.789026E-3	-8.580207E-3	-1.071248E-2	-1.043697E-2	-1.286697E-3	1.214627E-3	-4.172025E-3	-2.065256E-3	-6.973999E-3	-2.789524E-2	3.657923E-3	9.506433E-3	-2.274530E-3	-3.482016E-3	4.050079E-3	-5.344027E-3	3.468700E-4	-7.219974E-3	-1.056832E-3	6.582774E-3	-2.070669E-3	4.000759E-3	-3.133915E-3	1.061186E-2	1.383329E-3	-1.509584E-4	2.890374E-3	1.217142E-3	-4.394921E-3	4.306883E-3	-3.078815E-3	2.997166E-3	-8.520126E-3	-7.489649E-3	-9.627140E-3	-1.272547E-2	5.015006E-3	1.652018E-2	-9.498362E-3	-8.464639E-3	-2.760726E-3	3.901646E-3	1.068692E-2	-9.209163E-3	6.692064E-3	7.875969E-3	-1.291788E-3	-2.586552E-4	6.201196E-3	-1.777211E-2	-5.647476E-4	-7.996962E-4	8.364576E-3	-6.415829E-3	-1.166358E-2	-1.004271E-2	-1.372688E-2	8.155135E-3	-4.723861E-4	3.662079E-3	-1.826453E-2	-2.708198E-3	-1.418743E-2	-1.171912E-2	9.180341E-4	-1.564473E-3	-8.494345E-3	4.524440E-4	-1.009243E-2	-5.295029E-3	1.567355E-3	-1.110915E-2	5.329902E-4	-1.828232E-3	-7.281499E-3	-3.135378E-3	-7.475448E-3	-8.918197E-3	3.528015E-3	-6.859941E-3	-1.944554E-4	-1.807069E-2	1.222166E-3	7.915130E-3	2.620390E-3	-8.233316E-3	-4.592653E-3	-7.072254E-3	5.621439E-3	-8.229760E-3	-1.074443E-2	-8.081022E-3	4.150486E-3	-8.080210E-3	-2.958837E-4	-9.785348E-4	-2.085987E-2	-5.377260E-3	-1.364746E-2	-3.550364E-2
2.800020E+2	-1.048916E-2	-7.440221E-3	-1.702427E-3	-9.836761E-3	-2.163092E-3	4.429194E-4	-9.047953E-3	1.254831E-2	-5.273853E-3	-7.602540E-3	-5.505778E-3	-6.243522E-3	-3.716849E-3	-2.842526E-4	-1.395772E-2	-8.212599E-4	-3.414955E-3	5.068512E-3	-1.013050E-2	1.597856E-3	-3.157599E-3	-7.870283E-3	-1.988451E-2	2.412716E-4	-6.120370E-3	-2.526593E-3	6.554093E-3	-5.925303E-3	-2.868806E-3	-2.481918E-3	9.135906E-3	-1.049057E-2	-5.031749E-3	-9.725226E-4	4.819746E-3	-4.813033E-4	1.129595E-3	2.370202E-3	-1.176307E-2	-1.707220E-2	4.641684E-3	-4.537241E-3	-1.019543E-2	-1.205164E-2	-4.507085E-3	9.609179E-3	-2.740154E-3	6.081006E-3	-8.216317E-3	7.505359E-3	3.214005E-3	-2.006308E-3	-1.933385E-3	-3.610943E-4	-1.027653E-2	-5.495568E-4	-2.233704E-3	6.254055E-3	-7.964920E-3	1.002079E-2	-8.521231E-4	-5.376565E-3	-1.196948E-2	7.212254E-3	-8.789991E-3	2.523174E-3	-8.209685E-3	-8.714813E-3	-1.998402E-3	1.071233E-2	2.464995E-3	-7.477497E-3	-7.398473E-3	-9.482407E-3	-7.935474E-3	1.515070E-2	2.226212E-3	1.137848E-2	-3.351070E-3	1.214311E-2	6.294383E-3	9.424154E-3	-3.905208E-3	-1.059811E-3	-1.411477E-2	1.575556E-3	3.779799E-3	2.660192E-3	-7.377581E-3	-7.548008E-3	1.183676E-2	-3.675302E-3	-3.858616E-3	-2.144630E-3	-1.471646E-3	2.502065E-3	-1.625225E-3	-1.748357E-2	-4.381373E-3	-9.203713E-3	-5.734427E-3	8.505407E-3	-9.005724E-3	2.577997E-3	1.300536E-2	-4.547591E-3	-8.232920E-4	3.339193E-3	-7.523467E-3	-7.337380E-3	5.168103E-3	-2.961949E-3	-1.256928E-3	-6.790098E-3	-1.050315E-2	-8.589647E-3	2.106612E-4	-1.533756E-4	9.147319E-3	-1.667709E-2	1.218520E-3	-2.155573E-3	-8.021130E-3	-5.563771E-3	3.464345E-3	-4.706418E-3	7.697238E-3	-9.432111E-4	-6.013517E-4	6.573707E-3	-8.903443E-3	7.976906E-3	3.453329E-3	8.392473E-3	4.409006E-3	6.068320E-3	2.505334E-3	-1.485180E-2	-2.110080E-2	-1.025244E-2	-1.010626E-2	1.410764E-4	-1.125566E-2	-7.516756E-3	8.291378E-3	-1.301030E-2	1.121716E-3	-1.303519E-3	-2.397786E-3	-5.875344E-3	-1.889244E-3	1.915542E-2	1.574879E-4	3.723093E-3	-2.755948E-3	5.309977E-3	-5.761503E-3	-2.451831E-3	4.567380E-3	4.329181E-5	1.525093E-2	-9.564363E-3	-5.684469E-3	1.136240E-2	1.854252E-3	-5.484798E-3	1.456357E-3	1.052918E-2	1.412835E-2	2.537301E-2	-5.576539E-3
2.805050E+2	-5.946512E-3	-9.160387E-3	-4.580041E-3	-9.856520E-3	-8.047120E-4	-1.211755E-2	7.042398E-3	-9.640836E-4	-6.634408E-3	-1.159027E-2	3.803712E-3	4.620674E-3	1.697098E-2	-1.888239E-2	2.883898E-3	-8.186431E-4	-7.517795E-3	2.489174E-3	1.283452E-2	-1.211725E-2	3.964525E-3	-9.145188E-3	-5.858577E-3	-9.832683E-3	1.665149E-2	5.826809E-3	-6.770440E-3	-4.670426E-3	4.235773E-3	-4.855613E-3	-3.122242E-3	-4.273763E-3	2.936328E-4	3.882599E-3	1.044945E-3	5.057209E-3	-6.057608E-3	-9.295274E-3	-8.865292E-5	3.801819E-3	-8.925527E-3	7.308502E-4	6.218480E-3	3.300378E-3	-7.983108E-3	7.458809E-4	-7.294399E-3	-6.876713E-3	1.002671E-3	-9.377310E-3	-1.030624E-2	-4.803319E-3	-1.154168E-2	-3.180419E-4	1.511774E-3	-6.147399E-3	-1.019125E-2	7.832047E-5	1.018587E-2	-4.989533E-3	-1.112516E-2	-4.295844E-4	-7.428292E-3	-5.265183E-3	-3.410188E-3	6.154435E-3	-8.149003E-3	4.993878E-3	3.245985E-3	3.415492E-3	-6.821105E-3	1.505030E-2	4.738271E-3	9.918833E-3	-7.842075E-3	1.141894E-3	1.095462E-3	-7.686481E-3	5.626680E-3	-2.485737E-3	1.086193E-3	-6.126102E-3	-5.078703E-3	-1.845287E-3	4.217173E-3	-4.129909E-3	3.810365E-3	7.340198E-3	-1.009109E-2	2.564960E-3	6.367531E-3	6.126170E-3	2.554572E-3	-2.116923E-3	-5.004330E-3	-1.535384E-3	-2.901637E-3	2.705233E-3	-9.782506E-3	3.354052E-3	-1.308754E-2	1.990280E-3	5.405626E-3	-7.387611E-3	-4.684727E-3	-5.840080E-3	5.254179E-4	-1.117171E-2	-1.375896E-2	-5.015847E-3	5.988705E-4	2.583718E-3	-2.900666E-3	-1.341507E-2	-8.160670E-3	-2.492499E-4	4.676888E-3	1.196600E-3	7.616368E-4	-1.105559E-3	2.714014E-3	-1.709848E-2	3.209814E-3	-1.620825E-2	9.753468E-3	4.585070E-5	-1.351488E-2	-6.102572E-3	-4.858254E-3	-3.596344E-3	-3.396270E-3	-5.991412E-3	-1.599870E-3	-9.449893E-4	-1.834067E-3	-1.937142E-3	-7.421511E-3	6.225026E-4	-4.039882E-3	9.750477E-3	1.196337E-2	1.389697E-3	8.223833E-3	-2.161960E-2	1.865638E-3	9.239997E-3	2.606287E-3	2.826596E-4	2.966599E-3	7.271575E-3	9.704007E-3	-1.340113E-2	1.589061E-2	-9.718115E-3	-4.120789E-4	9.500436E-4	-4.462588E-3	-1.051338E-2	-3.979096E-3	-1.200321E-2	1.387043E-2	-8.234349E-3	-4.405388E-3	9.637236E-4	-5.683685E-3	-6.733355E-3	-3.752398E-3	-1.070013E-3	-5.504735E-3	1.826006E-2	1.691501E-2
2.810050E+2	-3.117942E-3	-1.416581E-3	-1.976246E-3	1.204451E-2	-1.476534E-2	4.303930E-3	-6.828085E-3	-2.544674E-3	7.795136E-3	-1.545281E-3	-2.228756E-3	-7.959465E-3	-2.767907E-3	9.383728E-3	4.592188E-3	-4.564308E-3	-1.313976E-2	-5.140429E-3	-8.086257E-3	-1.760679E-3	4.883094E-3	1.989605E-3	3.572804E-3	1.387263E-2	-7.764898E-3	-4.225373E-3	6.247622E-3	-4.908281E-3	4.038460E-4	-3.884192E-3	-5.416684E-3	6.682318E-3	1.327736E-2	-4.911910E-3	-2.998796E-3	6.005599E-3	8.155149E-3	-4.850830E-3	2.243408E-3	-9.291742E-3	-1.011028E-3	4.430176E-4	-3.584559E-3	8.262707E-3	-9.420177E-3	-1.175405E-2	-5.195377E-3	4.402750E-3	-7.748171E-4	-4.411811E-3	-1.049952E-2	-5.052321E-3	2.376412E-3	-6.669161E-3	-9.135625E-3	1.024464E-2	2.337356E-2	2.288297E-3	2.954041E-3	-1.942489E-3	-3.571315E-3	1.772809E-3	-1.098829E-2	-1.802089E-3	-6.135742E-3	-1.192244E-2	-8.614115E-4	5.254236E-3	4.323815E-3	7.151831E-4	-6.284560E-5	-4.940676E-3	7.161907E-3	-1.413179E-3	1.299361E-2	-8.332146E-3	-1.005101E-2	-1.348957E-2	-1.131107E-2	3.222704E-3	-5.517951E-3	-8.726443E-3	5.472629E-3	-2.726500E-3	6.722667E-3	-9.052320E-4	-2.237931E-3	-2.057566E-3	-3.392474E-3	-2.121855E-4	-1.578021E-2	3.040259E-3	-6.559081E-3	3.433814E-3	3.037181E-3	-6.201525E-4	-9.328032E-3	3.838511E-3	7.587793E-3	5.594253E-3	-3.192934E-3	-8.443341E-4	3.857866E-3	-1.541883E-3	-1.774456E-3	-2.137709E-3	4.305349E-3	1.146536E-2	-5.234047E-3	-6.375077E-3	-3.041332E-3	-3.214074E-3	-9.688602E-3	-4.040016E-4	-2.552752E-3	-8.856602E-3	-5.959967E-3	8.893175E-3	-6.690459E-3	-4.199784E-3	3.907715E-3	-6.477675E-3	-5.448491E-3	9.317444E-3	-5.517771E-3	-9.629587E-3	7.757741E-4	5.243764E-3	4.801012E-3	-2.423218E-3	1.413346E-2	9.182404E-3	-1.837698E-3	-9.147591E-3	5.376262E-3	-8.413620E-4	8.375925E-4	-1.174070E-3	1.831233E-2	-4.360937E-3	-3.283856E-3	-1.726142E-2	-9.003381E-3	-5.587151E-4	4.189473E-3	-9.052948E-3	-6.480076E-3	4.744638E-3	-3.961606E-3	3.058719E-3	2.987893E-3	-6.147241E-4	5.132661E-3	8.822826E-3	-8.742258E-3	1.224136E-2	-8.524074E-3	1.930805E-3	4.338274E-3	2.456594E-3	-1.273445E-2	3.400361E-3	-8.237305E-4	-3.727172E-3	1.291305E-2	3.076050E-3	-6.257748E-5	3.621502E-3	8.955635E-3	-3.295631E-3	-1.327901E-2
2.815000E+2	4.374437E-3	1.275233E-2	9.229738E-3	-2.313805E-3	5.596591E-3	8.303151E-3	1.025034E-2	-2.850120E-5	2.312913E-3	-9.360229E-3	1.182086E-3	-1.324875E-3	3.994290E-3	-1.651494E-3	-9.307914E-3	2.362510E-3	8.283258E-3	-8.925266E-3	-1.995484E-4	-7.953262E-3	5.925353E-3	-8.273115E-3	1.416270E-2	-1.148558E-2	-7.893676E-3	-2.959813E-3	-1.432390E-2	2.237184E-3	1.194706E-2	7.561635E-4	7.780127E-3	9.987143E-4	-6.686932E-3	-3.800723E-3	-1.913708E-3	-4.830511E-4	1.044145E-2	1.988328E-3	7.301215E-3	2.292411E-3	1.620269E-3	3.295937E-4	4.427757E-3	2.348384E-4	1.191887E-2	-7.378723E-3	1.535714E-2	-9.245218E-3	1.217987E-2	8.439054E-3	-3.191833E-3	2.027600E-2	-4.819271E-3	-7.914928E-3	1.154444E-2	-2.008137E-3	-1.050088E-2	1.080600E-2	4.229751E-3	-5.982461E-3	2.804195E-3	4.159737E-3	4.609165E-3	3.790360E-3	6.856718E-3	-4.880101E-3	5.346764E-3	-7.366708E-3	-8.688536E-4	-4.234534E-3	-3.631770E-3	1.143143E-2	-8.981738E-4	-9.763690E-3	-5.513251E-3	1.118775E-4	5.687955E-3	1.323392E-2	1.305344E-2	3.127771E-3	-3.469904E-4	-7.621993E-3	-2.970709E-3	-1.181663E-2	-5.114258E-3	-5.541044E-3	-4.645145E-3	-9.630925E-4	1.014148E-2	-2.815158E-3	-6.314482E-3	-1.470489E-4	-1.043937E-2	5.643009E-3	-2.948706E-3	-1.806493E-3	6.228108E-3	2.410356E-3	1.152716E-2	-8.210222E-3	-4.428095E-3	4.257320E-3	-4.050014E-3	-5.355628E-4	5.546366E-3	5.551150E-3	-9.082755E-3	-3.283813E-3	4.681916E-3	3.854191E-3	-1.968138E-3	-4.968477E-3	-1.012938E-3	1.670285E-2	9.134883E-4	-1.123334E-2	-1.011158E-2	-9.768378E-3	-5.527288E-3	3.870032E-3	2.604158E-3	1.635657E-2	1.259223E-2	8.640699E-3	3.130427E-3	1.263351E-2	8.464971E-3	-5.020972E-3	6.167546E-3	1.045489E-2	4.472143E-3	-4.009920E-3	-9.466694E-3	1.330764E-2	2.786708E-4	-2.388558E-3	-6.766080E-4	4.853567E-3	-1.006274E-2	3.946025E-3	1.393171E-3	-1.377212E-3	1.819843E-3	2.096404E-2	-9.995921E-4	6.027249E-3	7.611628E-4	3.033141E-3	7.882978E-3	4.244496E-3	1.434772E-2	4.457688E-3	-1.480758E-3	-6.331593E-4	8.507011E-3	5.744664E-4	2.078526E-2	-1.191296E-2	3.180084E-3	4.995791E-3	-4.028457E-4	-3.273809E-3	6.624180E-3	5.838430E-4	-5.942749E-3	-4.499139E-3	-1.699722E-2	-1.295895E-2	1.533759E-3	-1.397726E-2	3.127052E-2
2.820040E+2	1.603577E-3	-1.301386E-3	3.860225E-3	7.460793E-3	-9.280602E-4	4.472884E-3	3.216368E-3	2.577348E-4	2.637029E-3	5.052119E-3	-3.173456E-3	7.176049E-3	-1.402789E-3	1.945505E-3	3.843149E-3	2.671450E-3	1.539298E-2	2.389811E-3	8.148457E-3	7.462126E-3	-9.274367E-4	7.218615E-3	5.944597E-3	1.397382E-3	-8.943597E-3	9.886759E-3	-7.994646E-4	6.923196E-3	-1.009054E-2	7.021637E-3	4.021802E-3	3.504989E-3	-1.093796E-3	-2.315931E-3	5.956448E-3	1.086100E-3	-9.591684E-5	8.137328E-3	1.022326E-2	1.315306E-2	-6.243164E-3	2.158464E-2	-1.428930E-2	5.789606E-3	5.107217E-3	1.811585E-3	7.718520E-3	1.203034E-2	3.832306E-3	-1.611511E-3	4.498374E-3	1.227620E-2	8.295294E-3	8.309070E-3	1.194784E-2	-6.017201E-4	5.900590E-3	-2.455114E-3	3.570643E-4	1.014561E-2	1.741412E-2	-1.632786E-3	3.837007E-3	1.829663E-3	2.162235E-2	-2.223288E-3	1.203085E-2	-9.599199E-5	7.222369E-4	-7.614246E-3	-4.497282E-3	6.290800E-3	8.801297E-3	1.258422E-2	2.691146E-3	-5.314579E-3	-6.184977E-3	1.298829E-3	-5.558698E-3	-4.911162E-3	9.240660E-3	8.250483E-3	6.917865E-3	-2.511356E-3	1.613679E-2	2.721118E-3	-6.667857E-3	-1.139268E-2	1.050347E-2	1.259883E-2	-1.015843E-2	-1.058949E-2	6.410272E-3	7.144417E-3	-3.833516E-3	8.611982E-3	-1.270076E-3	8.087243E-3	-1.646338E-3	9.466841E-3	1.941327E-2	-7.173561E-3	1.198138E-2	7.577425E-3	-6.472034E-5	1.957040E-3	1.923880E-2	-1.703338E-3	3.807235E-3	7.651451E-3	4.041503E-3	4.518779E-3	5.979040E-3	-2.782441E-3	1.521025E-2	1.079193E-2	1.114241E-2	3.850974E-3	3.207855E-3	-7.555633E-3	1.181085E-2	4.577229E-3	5.984852E-3	-1.154268E-2	-1.029936E-2	3.393023E-5	-2.329014E-3	1.291035E-2	-8.810492E-3	-1.521955E-2	-2.004393E-3	1.964887E-2	6.148967E-3	-9.906453E-4	4.402896E-3	-5.598123E-5	6.721997E-3	3.632439E-3	1.008804E-2	4.505327E-3	2.954455E-3	1.129017E-2	1.070509E-2	8.607059E-3	-4.266262E-3	5.058813E-3	-3.307335E-3	-4.007830E-3	7.288089E-3	-1.376071E-2	8.406872E-3	-2.246384E-3	-1.153686E-2	-3.312403E-4	-1.559384E-3	6.737821E-5	8.427372E-3	3.332086E-3	1.855963E-2	9.553245E-3	-1.389386E-2	8.913362E-3	1.459073E-2	5.458469E-3	6.972396E-3	9.566593E-3	-6.367729E-3	4.396215E-3	-7.949434E-3	-1.022847E-2	1.868979E-3
2.825040E+2	6.173441E-3	2.590267E-2	2.378780E-3	8.968295E-3	1.546993E-2	8.581894E-3	1.551007E-2	1.087261E-2	1.328215E-2	2.429483E-2	6.059498E-3	7.136120E-3	3.134815E-3	5.190842E-3	8.767629E-3	-9.353586E-4	1.802916E-2	2.343841E-3	6.982799E-5	-1.075544E-2	2.625278E-3	2.624493E-2	-3.754941E-3	1.020423E-2	9.735355E-3	-1.339120E-3	8.839272E-3	1.417549E-2	-7.740563E-3	1.414544E-2	8.154326E-3	2.378026E-3	1.216905E-2	1.108868E-2	-1.656210E-3	4.871953E-3	-2.535760E-3	-3.559939E-3	1.087564E-3	4.885702E-3	1.273628E-2	-7.133900E-4	7.424324E-3	-4.766282E-3	1.226800E-2	1.295306E-2	8.803800E-3	-5.856764E-3	-6.192827E-4	3.540892E-3	3.201246E-3	-6.054025E-3	1.672755E-2	4.548668E-3	-8.948869E-3	4.682703E-4	5.786201E-3	9.886479E-3	1.420386E-2	-8.423736E-3	9.557965E-3	1.183709E-2	1.953788E-2	2.930354E-3	1.849432E-3	1.799219E-2	4.403950E-3	5.425236E-3	7.052092E-3	1.795571E-2	1.294766E-2	7.604052E-3	7.382603E-3	9.750262E-3	2.112785E-2	1.036409E-2	1.087057E-2	1.348688E-4	4.463192E-3	-1.369494E-3	7.849745E-3	3.403461E-3	-6.306978E-3	1.290455E-2	9.524793E-3	3.910202E-4	1.421980E-2	1.119024E-2	1.180856E-2	-2.572923E-3	7.551018E-4	1.354887E-2	6.355751E-3	1.289488E-2	1.033337E-2	-5.955988E-3	7.811243E-3	-1.378786E-3	7.769871E-3	9.419391E-3	2.013179E-3	-1.986875E-3	-5.087974E-3	7.540412E-3	-3.078600E-3	8.425103E-3	3.139354E-3	-7.313535E-3	1.001427E-2	9.914884E-3	6.300840E-3	6.673317E-3	7.570557E-3	-6.801739E-3	-3.476602E-3	1.468242E-2	2.096694E-3	-1.536846E-3	7.973147E-3	2.025818E-2	4.356455E-3	1.130547E-2	1.153424E-2	1.559973E-3	1.853641E-2	2.011446E-2	8.814365E-3	9.600171E-3	-2.725179E-4	7.963698E-3	-6.733842E-4	-4.415951E-3	1.372329E-2	9.632671E-3	-5.651247E-3	-9.622595E-5	-6.076261E-3	5.118632E-3	4.349006E-3	1.390749E-3	1.925508E-2	7.546432E-3	1.431236E-2	5.123806E-4	4.843841E-3	5.017776E-3	7.004669E-3	1.688882E-2	-3.448116E-3	1.639456E-2	-1.734176E-2	-5.083028E-4	1.209446E-2	-3.055682E-3	4.230115E-3	-1.573430E-2	-1.824906E-3	2.292168E-2	-2.896060E-3	-1.584303E-3	1.427987E-2	1.287737E-2	-3.137561E-3	-6.615561E-3	3.445837E-3	-4.744004E-4	2.496529E-2	8.771361E-3	4.443403E-3	7.518136E-3	-2.061010E-2
2.830040E+2	6.616854E-3	6.863598E-4	9.816426E-3	2.042180E-2	2.287904E-2	1.031575E-2	2.087871E-2	9.928630E-3	1.107009E-2	1.318335E-2	5.168875E-3	1.585667E-2	2.362902E-3	1.066277E-3	1.716139E-2	1.939431E-2	1.027116E-2	1.876635E-2	3.838583E-3	2.154061E-2	7.800944E-3	2.487806E-3	1.166314E-2	-1.222818E-2	-6.213302E-4	1.298911E-2	1.528993E-2	2.786992E-3	4.462467E-3	1.311785E-3	6.451208E-3	1.955651E-2	1.657087E-2	5.290348E-3	1.012741E-2	1.165545E-2	1.594242E-2	1.318939E-2	1.695032E-2	1.936509E-2	9.013580E-3	8.786664E-3	9.112049E-3	7.435704E-3	1.028634E-2	1.782470E-2	2.418280E-2	4.963484E-3	5.549824E-3	1.564485E-2	1.962862E-2	1.380390E-2	2.851476E-3	8.548903E-3	4.378486E-3	1.303981E-2	1.100126E-2	1.147079E-2	7.546083E-3	1.305872E-2	1.248367E-2	4.777298E-3	5.260130E-3	2.388305E-2	1.530515E-2	1.117764E-2	9.609822E-4	1.562446E-2	9.533127E-4	9.753876E-3	6.278827E-3	2.040780E-2	2.255523E-2	-1.027457E-3	2.722963E-4	1.213538E-2	2.718404E-2	8.355028E-3	4.767188E-3	8.499751E-3	5.517417E-3	2.525235E-3	7.193015E-3	1.458922E-2	1.119134E-2	1.215979E-2	5.759531E-4	1.871351E-2	5.256074E-3	2.378768E-4	1.620622E-2	1.940201E-2	3.750555E-2	3.926181E-3	2.141507E-2	8.963429E-3	2.255644E-2	2.860976E-2	2.303109E-2	1.851151E-2	1.975562E-2	2.061741E-2	1.888463E-2	1.908959E-2	1.354502E-2	8.715052E-4	6.120176E-3	8.317603E-3	6.615662E-3	6.793130E-3	3.545585E-2	9.242275E-3	1.457555E-2	4.110257E-3	2.139832E-2	-4.725762E-3	-6.073795E-4	5.471421E-3	7.138659E-3	1.592463E-3	1.726436E-3	-1.016334E-2	4.854207E-3	-8.429166E-3	1.271634E-3	1.495902E-3	2.603184E-2	5.560210E-3	1.153166E-2	2.001358E-2	9.278766E-3	4.388663E-3	6.434317E-3	1.801075E-2	1.478160E-2	2.128544E-2	6.985642E-3	1.163678E-2	6.118840E-3	1.021313E-2	1.499828E-2	2.154300E-2	8.587828E-3	-5.502897E-3	1.040144E-2	1.233590E-2	1.475953E-2	2.519507E-2	1.578589E-2	1.415444E-2	6.143382E-3	3.392056E-3	1.113565E-2	1.881113E-2	2.207074E-3	1.736490E-2	1.012275E-2	3.628506E-3	4.946885E-3	1.244238E-2	1.607488E-2	1.988367E-2	1.753019E-2	2.532281E-2	3.560884E-2	2.377855E-2	3.196843E-2	2.299738E-2	4.725256E-3	2.212420E-2	4.738140E-2
2.835010E+2	1.736565E-2	2.339876E-2	2.425962E-2	2.358254E-2	2.032066E-2	3.308124E-2	2.380609E-2	3.180849E-2	8.351726E-3	7.140291E-5	3.265665E-2	1.598482E-2	1.183798E-2	2.371642E-2	5.477531E-3	2.202458E-2	1.301539E-2	2.274291E-2	9.762090E-3	2.946393E-2	7.927256E-3	2.340196E-2	2.080392E-2	2.252024E-2	1.859377E-2	-4.339248E-3	1.859697E-3	1.594065E-2	2.035913E-2	2.450206E-2	1.838020E-2	2.445211E-2	2.628819E-2	3.928876E-3	2.969867E-2	3.001026E-2	1.740453E-2	1.584082E-2	1.172234E-2	2.335126E-2	1.604202E-2	1.421938E-2	1.605175E-2	1.687349E-2	1.919608E-2	1.247424E-2	1.516586E-2	2.028417E-2	5.425515E-3	1.718274E-2	1.736132E-2	1.417456E-2	5.651202E-3	3.139111E-2	1.774861E-2	1.213676E-2	1.743131E-2	9.024387E-3	3.161651E-2	1.440117E-2	-6.099782E-3	1.362789E-2	3.439419E-2	2.667672E-2	3.687038E-2	1.619638E-2	1.782136E-2	2.139287E-2	9.996665E-3	1.234563E-2	1.836437E-2	7.066213E-4	3.111543E-2	1.140644E-2	8.164710E-3	2.970587E-2	2.261842E-2	8.572252E-3	3.356760E-2	2.081399E-2	4.044472E-3	1.611704E-2	1.834729E-2	1.750275E-2	1.935522E-2	2.168950E-2	6.556883E-3	2.143753E-2	9.273412E-3	5.240564E-3	1.915100E-2	3.486832E-2	2.501203E-2	1.941856E-2	1.104294E-3	8.139919E-3	2.010527E-2	1.507408E-2	1.207271E-2	3.283046E-2	1.372193E-2	2.354119E-2	7.087927E-3	2.520731E-2	1.947079E-2	1.266111E-2	2.658658E-2	1.398832E-2	2.528266E-4	1.990336E-2	3.033111E-3	1.966144E-2	2.626131E-2	3.123482E-2	1.452076E-2	9.961285E-3	6.679501E-3	2.325203E-2	3.329206E-2	2.237549E-2	2.874157E-2	3.406499E-2	1.187944E-2	-1.778964E-5	3.473123E-2	6.335336E-3	1.507477E-2	1.354996E-2	3.060606E-2	1.125614E-2	2.047147E-2	2.312272E-2	5.079101E-3	2.220123E-2	3.434334E-3	1.878117E-2	1.696051E-2	2.726604E-2	1.831484E-4	1.588002E-2	1.292169E-2	1.047715E-2	3.679377E-3	3.702288E-2	1.846452E-2	1.091025E-2	1.161310E-2	1.207342E-2	1.453683E-2	1.020465E-2	1.671630E-2	1.811334E-2	1.655129E-2	4.379453E-2	2.729381E-2	3.011871E-2	1.145821E-2	2.500499E-2	2.716982E-2	3.612043E-2	1.469970E-2	7.800304E-3	2.027334E-2	1.329786E-2	1.520755E-2	3.823415E-2	2.703308E-2	1.125050E-3	3.116336E-2	3.825611E-2	1.881486E-2
2.840020E+2	3.986298E-2	3.855342E-2	3.175579E-2	3.841247E-2	4.496846E-2	4.651168E-2	2.803019E-2	3.494565E-2	3.358534E-2	3.911079E-2	2.214055E-2	4.335711E-2	3.855027E-2	2.645409E-2	1.716528E-2	4.689586E-2	3.711420E-2	4.109553E-2	2.675826E-2	2.486078E-2	3.948871E-2	2.242213E-2	3.364660E-2	5.474899E-2	7.483913E-3	1.273824E-2	3.608004E-2	5.113217E-2	1.696335E-2	4.740506E-2	4.269945E-2	3.535174E-2	4.196971E-2	2.944455E-2	4.072723E-2	4.642731E-2	4.547205E-2	4.307873E-2	3.059693E-2	4.712122E-2	3.757144E-2	3.217412E-2	2.319706E-2	4.602753E-2	2.459372E-2	5.027378E-2	3.710275E-2	1.849643E-2	3.128306E-2	2.553436E-2	3.304472E-2	2.203874E-2	3.579289E-2	5.244150E-2	4.116445E-2	2.862184E-2	3.616812E-2	2.722327E-2	3.763903E-2	5.324200E-2	4.532693E-2	3.565721E-2	4.449079E-2	3.906459E-2	5.376025E-2	3.639017E-2	2.202730E-2	5.523358E-2	3.704247E-2	3.291189E-2	2.719933E-2	2.934650E-2	2.309329E-2	4.898635E-2	2.881885E-2	2.687215E-2	3.570443E-2	2.997569E-2	2.119506E-2	4.110865E-2	1.354714E-2	3.525805E-2	3.241143E-2	1.905908E-2	7.733571E-2	4.479002E-2	3.107053E-2	5.047718E-2	2.778498E-2	4.222817E-2	4.375913E-2	2.816270E-2	2.389681E-2	5.381293E-2	4.208097E-2	4.719137E-2	3.250986E-2	4.180683E-2	5.597376E-2	3.587622E-2	3.725392E-2	2.783324E-2	3.317978E-2	2.677811E-2	4.422905E-2	3.448556E-2	2.816536E-2	6.072311E-2	2.511552E-2	2.136719E-2	2.457141E-2	2.353473E-2	3.834151E-2	4.411655E-2	5.384098E-2	3.211989E-2	3.466987E-2	2.766991E-2	2.000983E-2	2.133377E-2	2.886654E-2	1.736909E-2	3.385967E-2	3.481003E-2	3.125678E-2	2.251549E-2	4.116030E-2	3.793050E-2	1.580360E-2	2.946430E-2	3.349851E-2	2.771596E-2	2.896008E-2	3.768381E-2	2.044797E-2	2.432046E-2	3.323722E-2	3.536344E-2	1.327637E-2	1.871663E-2	3.765550E-2	2.735325E-2	3.046867E-2	2.967655E-2	4.453687E-2	3.415058E-2	2.375761E-2	4.921568E-2	4.850072E-2	2.391726E-2	4.118164E-2	3.591393E-2	4.282625E-2	1.324420E-2	4.728759E-2	5.048445E-2	3.715492E-2	3.631169E-2	3.786719E-2	3.082237E-2	3.228421E-2	4.094604E-2	5.638570E-2	2.482824E-2	6.313181E-2	3.339761E-2	3.409961E-2	3.125299E-2	1.204973E-2	6.618763E-2	5.183788E-2
2.841010E+2	5.253280E-2	5.176786E-2	3.887860E-2	4.800082E-2	3.602003E-2	4.483312E-2	2.120800E-2	5.734710E-2	3.187256E-2	1.559392E-2	5.776080E-2	4.159577E-2	3.732044E-2	4.158414E-2	4.031616E-2	3.690146E-2	4.981710E-2	4.222859E-2	5.227602E-2	2.751731E-2	3.173014E-2	3.837283E-2	5.086703E-2	2.788229E-2	1.832511E-2	3.438140E-2	2.179407E-2	3.996887E-2	2.541055E-2	4.613170E-2	5.392190E-2	4.003297E-2	3.314352E-2	4.089082E-2	2.571126E-2	3.136950E-2	8.141581E-2	5.552287E-2	4.272113E-2	3.225658E-2	4.896278E-2	1.518029E-2	4.307019E-2	4.308382E-2	3.459802E-2	5.410504E-2	4.073388E-2	4.528914E-2	2.158455E-2	4.884709E-2	3.292267E-2	5.950485E-2	2.642972E-2	4.085135E-2	2.022583E-2	3.800211E-2	3.217452E-2	3.622033E-2	4.026431E-2	2.500499E-2	3.004479E-2	3.816394E-2	3.139389E-2	3.424431E-2	3.546911E-2	2.229563E-2	4.728633E-2	4.919909E-2	2.897659E-2	5.097761E-2	3.824396E-2	6.148876E-2	4.152365E-2	3.266874E-2	7.498879E-2	4.773703E-2	4.350284E-2	6.353159E-2	4.482374E-2	4.997888E-2	5.828679E-2	4.929353E-2	3.099366E-2	1.594865E-2	4.577950E-2	4.481261E-2	4.216447E-2	3.149999E-2	1.576542E-2	3.541024E-2	4.523438E-2	3.639680E-2	4.404449E-2	2.550918E-2	4.968184E-2	3.072344E-2	4.892781E-2	3.010100E-2	4.295224E-2	2.375052E-2	3.060896E-2	5.258092E-2	3.298521E-2	4.805404E-2	5.974024E-2	5.645387E-2	3.774651E-2	3.707894E-2	4.091424E-2	4.077904E-2	3.286395E-2	2.810242E-2	3.242465E-2	4.539124E-2	5.023409E-2	2.070401E-2	5.338401E-2	3.728820E-2	2.744093E-2	3.855929E-2	5.194870E-2	2.572946E-2	2.304508E-2	4.061273E-2	3.905190E-2	3.994564E-2	2.329785E-2	3.563029E-2	4.262822E-2	1.202367E-2	5.365294E-2	3.934275E-2	4.899780E-2	5.730368E-2	3.613952E-2	4.346219E-2	6.452591E-2	6.280090E-2	3.384606E-2	2.865334E-2	2.518594E-2	4.947570E-2	3.548419E-2	4.423011E-2	3.751090E-2	3.826284E-2	4.204560E-2	2.820515E-2	3.405960E-2	3.891676E-2	3.557916E-2	3.705623E-2	3.705963E-2	2.406915E-2	3.245105E-2	3.004551E-2	5.207014E-2	3.624122E-2	3.448394E-2	2.465257E-2	3.487947E-2	4.635555E-2	4.288429E-2	3.098958E-2	4.292121E-2	4.648111E-2	6.302382E-2	4.871629E-2	3.640781E-2	2.598120E-2	1.330298E-2
2.842030E+2	6.992515E-2	6.264082E-2	5.590258E-2	6.015767E-2	4.102265E-2	6.492136E-2	3.867556E-2	6.355855E-2	4.656038E-2	5.608489E-2	5.795834E-2	4.781837E-2	6.201503E-2	7.242561E-2	5.765683E-2	6.226979E-2	5.147172E-2	4.393660E-2	4.779694E-2	2.616102E-2	6.034158E-2	2.779027E-2	6.030762E-2	5.247275E-2	5.155010E-2	4.510210E-2	4.534023E-2	6.840462E-2	6.111003E-2	5.798098E-2	5.317331E-2	6.790593E-2	5.487456E-2	4.907211E-2	5.708673E-2	7.124111E-2	7.152518E-2	6.210735E-2	4.701949E-2	4.371546E-2	4.482812E-2	6.159475E-2	5.496878E-2	4.619888E-2	6.829556E-2	3.524365E-2	6.321940E-2	4.896502E-2	5.926172E-2	7.285375E-2	6.883942E-2	6.887432E-2	2.962757E-2	7.911141E-2	6.218547E-2	3.706819E-2	6.923182E-2	6.623171E-2	6.295085E-2	5.506337E-2	8.315374E-2	6.746886E-2	5.927277E-2	6.382508E-2	5.677647E-2	7.995003E-2	4.890384E-2	7.035952E-2	7.734171E-2	6.433023E-2	5.227068E-2	7.211752E-2	6.910194E-2	5.507466E-2	5.982612E-2	7.250784E-2	5.288448E-2	7.472552E-2	6.426904E-2	5.154212E-2	6.569534E-2	5.345965E-2	4.663413E-2	5.482381E-2	5.029221E-2	4.387587E-2	6.365484E-2	7.891893E-2	4.388033E-2	8.546393E-2	6.445935E-2	7.265180E-2	6.209605E-2	4.810217E-2	6.266528E-2	5.976551E-2	7.440909E-2	7.637520E-2	7.071485E-2	4.794886E-2	5.623316E-2	6.548180E-2	5.845037E-2	6.748613E-2	6.017400E-2	7.628550E-2	7.087451E-2	5.367696E-2	7.746302E-2	7.192083E-2	9.087444E-2	6.349578E-2	3.797341E-2	5.704314E-2	5.053583E-2	6.739432E-2	5.209488E-2	6.327652E-2	5.601641E-2	4.697471E-2	4.277251E-2	5.931538E-2	7.723648E-2	8.463182E-2	4.867262E-2	6.182366E-2	4.988378E-2	7.695341E-2	6.740461E-2	6.036114E-2	5.396715E-2	5.320974E-2	5.745397E-2	5.333547E-2	7.259800E-2	8.725749E-2	7.697047E-2	6.971275E-2	5.536132E-2	3.947659E-2	7.543887E-2	5.381834E-2	5.009617E-2	6.880698E-2	6.973189E-2	5.652353E-2	4.543624E-2	4.665269E-2	6.885829E-2	5.893576E-2	5.923149E-2	5.398593E-2	4.574223E-2	7.893670E-2	7.754890E-2	9.299790E-2	8.686622E-2	5.135368E-2	6.811983E-2	7.361128E-2	5.758253E-2	6.500679E-2	7.165907E-2	6.366990E-2	8.115388E-2	6.288080E-2	8.292396E-2	6.215500E-2	7.614570E-2	1.478747E-2	9.358365E-2
2.843030E+2	9.707110E-2	8.754117E-2	9.003044E-2	8.081695E-2	6.034310E-2	1.008131E-1	8.319252E-2	8.729050E-2	1.031110E-1	8.777315E-2	9.477865E-2	1.208960E-1	7.298127E-2	8.999146E-2	8.328558E-2	1.035578E-1	8.893457E-2	8.586344E-2	7.691491E-2	9.013252E-2	8.955894E-2	9.826106E-2	9.947740E-2	9.984633E-2	9.697087E-2	8.377233E-2	9.436624E-2	6.726259E-2	8.683002E-2	8.973724E-2	7.282822E-2	7.466425E-2	9.932534E-2	1.027052E-1	8.225185E-2	8.443170E-2	9.100042E-2	9.360420E-2	9.608651E-2	7.825352E-2	8.899045E-2	9.517214E-2	1.039539E-1	1.008456E-1	1.158398E-1	6.712544E-2	7.994330E-2	8.832631E-2	9.100391E-2	6.637709E-2	8.266253E-2	8.672916E-2	1.082627E-1	9.691295E-2	8.510930E-2	5.895560E-2	6.720802E-2	7.746823E-2	9.644255E-2	9.553393E-2	7.555537E-2	8.256487E-2	6.213780E-2	9.664606E-2	8.976191E-2	7.551578E-2	8.609246E-2	9.936787E-2	9.178383E-2	9.003049E-2	7.166732E-2	7.391790E-2	8.558620E-2	1.002673E-1	8.024090E-2	7.909895E-2	9.834793E-2	8.045046E-2	9.039362E-2	8.817080E-2	6.896904E-2	7.081992E-2	8.596242E-2	7.199900E-2	8.328095E-2	8.390975E-2	7.057477E-2	9.132747E-2	1.095362E-1	8.626993E-2	8.550250E-2	9.652243E-2	8.194561E-2	7.363104E-2	8.767098E-2	9.940105E-2	9.195761E-2	7.830925E-2	6.078619E-2	8.063028E-2	7.956234E-2	8.152874E-2	8.018810E-2	8.759121E-2	7.316872E-2	5.839909E-2	9.166333E-2	1.112816E-1	6.593963E-2	7.385296E-2	1.005394E-1	8.680890E-2	7.902117E-2	1.005542E-1	1.167780E-1	7.367071E-2	7.325392E-2	9.996775E-2	7.874116E-2	8.304076E-2	9.241608E-2	8.606051E-2	8.690824E-2	1.153537E-1	8.436559E-2	8.814865E-2	7.824810E-2	7.900355E-2	1.252682E-1	9.061707E-2	1.063872E-1	9.481918E-2	9.373153E-2	7.233205E-2	8.145019E-2	9.370039E-2	7.743559E-2	7.662425E-2	7.870542E-2	8.393131E-2	8.893309E-2	9.459063E-2	8.485128E-2	6.391850E-2	1.083825E-1	9.634142E-2	7.741170E-2	1.108842E-1	9.419483E-2	6.794553E-2	8.058020E-2	1.025300E-1	7.725054E-2	5.762061E-2	8.085367E-2	1.367990E-1	7.363588E-2	1.121166E-1	1.004553E-1	1.003923E-1	8.363140E-2	7.009076E-2	8.179052E-2	6.812472E-2	7.624552E-2	9.496162E-2	1.090944E-1	6.068927E-2	8.875687E-2	7.373346E-2	5.521788E-2
2.844030E+2	1.060099E-1	1.278310E-1	8.070951E-2	9.451876E-2	1.237221E-1	1.053574E-1	8.856314E-2	9.748129E-2	9.406368E-2	8.356596E-2	9.733907E-2	1.253491E-1	1.171469E-1	1.115076E-1	1.071409E-1	8.952169E-2	1.081789E-1	1.153865E-1	1.205961E-1	9.669461E-2	1.185131E-1	1.165456E-1	1.100423E-1	9.572880E-2	9.989728E-2	1.218991E-1	1.088396E-1	1.117493E-1	9.616217E-2	1.249575E-1	1.133731E-1	1.284331E-1	1.152661E-1	1.269925E-1	1.222443E-1	1.234452E-1	1.080790E-1	1.151438E-1	7.795362E-2	1.052695E-1	1.306877E-1	1.509627E-1	1.247759E-1	1.225788E-1	1.228627E-1	1.101341E-1	1.387900E-1	1.136545E-1	8.516385E-2	1.188808E-1	1.203171E-1	1.159902E-1	9.384612E-2	9.594022E-2	1.089858E-1	1.110999E-1	9.801809E-2	1.073606E-1	1.176422E-1	1.474039E-1	1.118535E-1	1.080356E-1	9.405097E-2	1.178472E-1	1.192448E-1	1.432973E-1	1.079366E-1	1.023686E-1	9.525933E-2	1.144713E-1	1.174936E-1	1.370329E-1	1.008929E-1	1.187044E-1	1.032134E-1	1.709487E-1	9.412411E-2	1.137689E-1	1.209013E-1	1.233388E-1	1.134872E-1	1.061175E-1	1.094827E-1	8.184234E-2	1.146872E-1	1.063915E-1	1.187454E-1	1.056172E-1	1.125267E-1	7.532749E-2	1.078504E-1	1.096039E-1	1.264799E-1	1.052653E-1	1.044876E-1	8.363493E-2	1.090265E-1	1.222104E-1	8.285780E-2	1.104739E-1	1.147078E-1	1.085877E-1	9.302152E-2	9.251171E-2	1.183104E-1	1.180213E-1	9.750853E-2	1.279331E-1	9.462247E-2	9.274915E-2	1.355941E-1	1.357098E-1	8.441441E-2	1.049157E-1	1.053961E-1	9.516455E-2	8.790994E-2	1.014505E-1	1.481596E-1	1.244407E-1	1.165372E-1	1.008683E-1	1.036936E-1	1.344379E-1	8.714117E-2	1.088542E-1	1.124016E-1	1.053093E-1	1.175087E-1	9.378254E-2	1.048965E-1	9.176338E-2	8.132039E-2	1.594100E-1	1.455541E-1	1.251492E-1	1.267273E-1	1.085159E-1	7.100787E-2	1.162741E-1	9.407607E-2	1.242530E-1	9.285061E-2	9.411926E-2	9.428945E-2	1.054690E-1	1.336053E-1	1.508449E-1	1.352072E-1	9.802682E-2	1.309885E-1	1.130379E-1	1.087271E-1	1.395296E-1	1.252435E-1	1.279558E-1	1.269693E-1	1.046713E-1	1.356345E-1	1.066796E-1	1.034343E-1	1.192303E-1	1.135701E-1	9.324527E-2	1.259213E-1	1.279090E-1	1.134108E-1	1.140549E-1	1.663709E-1	1.240326E-1	1.366211E-1
2.845030E+2	1.308776E-1	1.441932E-1	1.358441E-1	1.557636E-1	1.397546E-1	1.230571E-1	1.150518E-1	1.417153E-1	1.222279E-1	1.250008E-1	1.186188E-1	1.244247E-1	1.480853E-1	1.320346E-1	1.176588E-1	1.407481E-1	1.090657E-1	1.472171E-1	1.215702E-1	1.356605E-1	1.325094E-1	1.638376E-1	1.371426E-1	1.201184E-1	1.268866E-1	1.539196E-1	1.495195E-1	1.462236E-1	1.402889E-1	1.469178E-1	1.268535E-1	1.331424E-1	1.448108E-1	1.535171E-1	1.191402E-1	1.464515E-1	1.311470E-1	1.536970E-1	1.381580E-1	1.642498E-1	1.352945E-1	1.652754E-1	1.616417E-1	1.626541E-1	1.359599E-1	1.285363E-1	1.226414E-1	1.355134E-1	1.027359E-1	1.542253E-1	1.227893E-1	1.532550E-1	1.515721E-1	1.537191E-1	1.359010E-1	1.682799E-1	1.294674E-1	1.384981E-1	1.628039E-1	1.529744E-1	1.466338E-1	1.240647E-1	1.431126E-1	1.552301E-1	1.460240E-1	1.488938E-1	1.285311E-1	1.435371E-1	1.498832E-1	1.434477E-1	1.327775E-1	1.127643E-1	1.414389E-1	1.220794E-1	1.535950E-1	1.568872E-1	1.452544E-1	1.325333E-1	1.538856E-1	1.179621E-1	1.286307E-1	1.244906E-1	1.236611E-1	9.264522E-2	1.344694E-1	1.436425E-1	1.187082E-1	1.028636E-1	9.916235E-2	1.198891E-1	1.584101E-1	1.241581E-1	1.510466E-1	1.284082E-1	1.042122E-1	1.374081E-1	1.438094E-1	1.468395E-1	1.236008E-1	1.524325E-1	1.443023E-1	1.682431E-1	1.440912E-1	1.215540E-1	1.371203E-1	1.347437E-1	1.203457E-1	1.290249E-1	1.559007E-1	1.543251E-1	1.593783E-1	1.369565E-1	1.785514E-1	1.337236E-1	1.140545E-1	1.292753E-1	1.283104E-1	1.682446E-1	1.270340E-1	1.394023E-1	1.143380E-1	1.464103E-1	1.398875E-1	1.562613E-1	1.319721E-1	1.319523E-1	1.293753E-1	1.339109E-1	1.685936E-1	1.280762E-1	1.118327E-1	1.312472E-1	1.294065E-1	1.490084E-1	1.248398E-1	1.405451E-1	1.696005E-1	1.195724E-1	9.659172E-2	1.342900E-1	1.615229E-1	1.362132E-1	1.524311E-1	1.226288E-1	1.392543E-1	1.644021E-1	1.685971E-1	1.277177E-1	1.407524E-1	1.450150E-1	1.518212E-1	1.350648E-1	1.298198E-1	1.348230E-1	1.416588E-1	1.290635E-1	1.379478E-1	1.525031E-1	1.379999E-1	1.164096E-1	1.441365E-1	1.405658E-1	1.312008E-1	1.339642E-1	1.283529E-1	1.523989E-1	1.615560E-1	1.386173E-1	1.461224E-1	1.600915E-1	1.459510E-1
2.846010E+2	2.265792E-1	1.690642E-1	2.015239E-1	2.442876E-1	2.014581E-1	2.046218E-1	2.155604E-1	2.340123E-1	1.759982E-1	1.720040E-1	1.991028E-1	2.068150E-1	1.940768E-1	2.011601E-1	2.148768E-1	2.146571E-1	2.172299E-1	2.503452E-1	2.403313E-1	1.957257E-1	1.999396E-1	2.092022E-1	2.476484E-1	2.505088E-1	2.205396E-1	2.560031E-1	2.348236E-1	2.297528E-1	2.543636E-1	2.653066E-1	2.563410E-1	2.701215E-1	2.375256E-1	2.466278E-1	2.537597E-1	2.388764E-1	2.380380E-1	1.863929E-1	2.121704E-1	2.499251E-1	2.308851E-1	2.367479E-1	2.291639E-1	2.249481E-1	2.304782E-1	2.028768E-1	2.117002E-1	2.331403E-1	2.323270E-1	2.361181E-1	2.369441E-1	2.607237E-1	2.607034E-1	2.027200E-1	2.465114E-1	2.139771E-1	2.178684E-1	2.263860E-1	2.501547E-1	2.375695E-1	1.973538E-1	2.003890E-1	2.180618E-1	2.248465E-1	2.284929E-1	2.334013E-1	2.519365E-1	2.193998E-1	2.558517E-1	2.222057E-1	2.075623E-1	2.161034E-1	2.183574E-1	2.016582E-1	2.555379E-1	1.933631E-1	2.162208E-1	2.184712E-1	2.341696E-1	2.074810E-1	2.328540E-1	1.857199E-1	2.253740E-1	2.416140E-1	2.600423E-1	2.246725E-1	2.215039E-1	2.224901E-1	2.043801E-1	2.017199E-1	2.190074E-1	2.267593E-1	2.323862E-1	2.148528E-1	1.982388E-1	2.708410E-1	2.373356E-1	2.053854E-1	2.070361E-1	2.295366E-1	2.302833E-1	2.304974E-1	2.365977E-1	2.141530E-1	2.275149E-1	2.006713E-1	2.600650E-1	2.393071E-1	2.333280E-1	2.212297E-1	2.027145E-1	2.216155E-1	2.172924E-1	2.627038E-1	2.362589E-1	2.382651E-1	2.171140E-1	2.262850E-1	1.960524E-1	2.079820E-1	1.961033E-1	2.375507E-1	2.385500E-1	2.462315E-1	1.994194E-1	2.078369E-1	2.342337E-1	2.270304E-1	2.426714E-1	1.778240E-1	2.130458E-1	2.120597E-1	2.189352E-1	2.137626E-1	2.488826E-1	2.142290E-1	1.901491E-1	2.585375E-1	2.212379E-1	2.447762E-1	2.171103E-1	2.113114E-1	2.183780E-1	1.921231E-1	2.550396E-1	2.045923E-1	2.320914E-1	1.999096E-1	2.251818E-1	2.319951E-1	1.888825E-1	2.143212E-1	2.569305E-1	2.059734E-1	1.855447E-1	2.146132E-1	2.486680E-1	2.100764E-1	2.068859E-1	2.242637E-1	2.472285E-1	2.253042E-1	2.080358E-1	2.474122E-1	2.426837E-1	2.425415E-1	1.906299E-1	1.608986E-1	2.462844E-1	2.774965E-1	1.709237E-1
2.847020E+2	4.834382E-1	4.475002E-1	4.107050E-1	4.662627E-1	4.492179E-1	4.722466E-1	4.208191E-1	4.552724E-1	4.507945E-1	4.616707E-1	4.356557E-1	4.660201E-1	4.870570E-1	4.339290E-1	4.616456E-1	4.261164E-1	3.995763E-1	4.609664E-1	4.493068E-1	4.645856E-1	4.337447E-1	4.412320E-1	5.384452E-1	4.877105E-1	5.035805E-1	5.177507E-1	5.209683E-1	5.509389E-1	4.953157E-1	5.461565E-1	5.046775E-1	5.158780E-1	5.214047E-1	5.317542E-1	5.012638E-1	5.137927E-1	5.132625E-1	5.484737E-1	5.427056E-1	5.332422E-1	4.779897E-1	5.030730E-1	5.077504E-1	4.913686E-1	5.325876E-1	5.652118E-1	5.276513E-1	4.932546E-1	4.761806E-1	4.904504E-1	4.817995E-1	4.802301E-1	4.867706E-1	5.025403E-1	5.310396E-1	5.053066E-1	5.091754E-1	5.458715E-1	5.153079E-1	4.651398E-1	4.761030E-1	4.927638E-1	5.000027E-1	5.387333E-1	4.986569E-1	5.228063E-1	4.730940E-1	4.679989E-1	4.953580E-1	5.251032E-1	5.144914E-1	4.802381E-1	4.508449E-1	4.238129E-1	4.961161E-1	5.478976E-1	5.167823E-1	4.753502E-1	4.776753E-1	4.644988E-1	4.725217E-1	4.880539E-1	3.947788E-1	4.494302E-1	5.204180E-1	4.966047E-1	4.299532E-1	4.872393E-1	4.743672E-1	5.072626E-1	4.363634E-1	4.944842E-1	5.036499E-1	4.825725E-1	5.120684E-1	5.311722E-1	5.027841E-1	5.238934E-1	4.543076E-1	3.946035E-1	4.729873E-1	4.958280E-1	4.432817E-1	4.921733E-1	4.303871E-1	4.747692E-1	4.606215E-1	4.508495E-1	5.132878E-1	4.898791E-1	4.941829E-1	4.745319E-1	4.851050E-1	5.206725E-1	4.838687E-1	4.753456E-1	5.282355E-1	4.848271E-1	4.792253E-1	4.980803E-1	4.611507E-1	4.520398E-1	4.888643E-1	5.314732E-1	4.799691E-1	4.918558E-1	4.667506E-1	4.706791E-1	4.911187E-1	4.374954E-1	4.475526E-1	4.515500E-1	4.470354E-1	4.407151E-1	4.786226E-1	4.270148E-1	5.001499E-1	4.385185E-1	4.742418E-1	4.755914E-1	4.435010E-1	5.066249E-1	4.226564E-1	4.881395E-1	4.663932E-1	4.687098E-1	4.546342E-1	5.233200E-1	4.489378E-1	4.277756E-1	5.189954E-1	4.693238E-1	4.103624E-1	4.310223E-1	5.438079E-1	4.802039E-1	4.761293E-1	4.500753E-1	4.491033E-1	4.405266E-1	4.767094E-1	4.256318E-1	4.651573E-1	4.521539E-1	5.039491E-1	4.771630E-1	4.983074E-1	4.929970E-1	5.051599E-1	5.181308E-1	4.687650E-1
2.848020E+2	9.206607E-1	9.072053E-1	1.030921E+0	9.931595E-1	9.511345E-1	9.550659E-1	9.564514E-1	9.634786E-1	9.403201E-1	9.515723E-1	9.570432E-1	9.422155E-1	1.000970E+0	9.577465E-1	9.422004E-1	8.965198E-1	9.880711E-1	9.837868E-1	9.010948E-1	9.673011E-1	9.199748E-1	1.019620E+0	1.046339E+0	9.890636E-1	9.972326E-1	1.000016E+0	1.064299E+0	1.017415E+0	1.042255E+0	1.045134E+0	1.068647E+0	9.647476E-1	1.053703E+0	1.015049E+0	1.111869E+0	1.069306E+0	1.051858E+0	1.062587E+0	9.880465E-1	1.021532E+0	1.036613E+0	1.022102E+0	1.025979E+0	1.027216E+0	1.036317E+0	9.458515E-1	9.991499E-1	9.474645E-1	1.023730E+0	1.024744E+0	1.020235E+0	9.738029E-1	1.006774E+0	1.037170E+0	9.746558E-1	1.027912E+0	1.027755E+0	9.508169E-1	1.028415E+0	9.798102E-1	9.995835E-1	1.048029E+0	9.867581E-1	9.566000E-1	9.989698E-1	9.599368E-1	1.009420E+0	1.061016E+0	1.016041E+0	1.009914E+0	1.021507E+0	1.033944E+0	9.455109E-1	9.509356E-1	1.006032E+0	9.873611E-1	1.038808E+0	1.066591E+0	9.508529E-1	9.310117E-1	1.011901E+0	1.018779E+0	9.741497E-1	9.356260E-1	9.697087E-1	9.176811E-1	9.998696E-1	9.547061E-1	9.617245E-1	9.472176E-1	9.856397E-1	8.998835E-1	9.947228E-1	9.949444E-1	9.960697E-1	9.832410E-1	9.853326E-1	9.608011E-1	1.020362E+0	9.649589E-1	9.667177E-1	1.047977E+0	9.687149E-1	9.405163E-1	9.337869E-1	9.899221E-1	1.021841E+0	9.452454E-1	1.004475E+0	1.017767E+0	9.530211E-1	9.705799E-1	1.000380E+0	9.899006E-1	9.348293E-1	1.017215E+0	1.013166E+0	9.605661E-1	9.706984E-1	9.330576E-1	1.017391E+0	8.989256E-1	9.329154E-1	1.034647E+0	9.227178E-1	9.364332E-1	1.014388E+0	9.734520E-1	1.047631E+0	9.865058E-1	9.241481E-1	8.446574E-1	9.357047E-1	9.839400E-1	9.477863E-1	9.808164E-1	9.895461E-1	1.058044E+0	9.489608E-1	9.232419E-1	9.421146E-1	9.342708E-1	9.331996E-1	1.009784E+0	1.073005E+0	1.011498E+0	9.905533E-1	9.624681E-1	1.042144E+0	1.083652E+0	9.775184E-1	9.446557E-1	9.474565E-1	9.939496E-1	9.615313E-1	9.803642E-1	1.003486E+0	9.845581E-1	9.491184E-1	9.245731E-1	1.013957E+0	9.982732E-1	9.307348E-1	1.030449E+0	9.886171E-1	1.064430E+0	9.603446E-1	1.001355E+0	9.973229E-1	9.380470E-1	1.131250E+0
2.849020E+2	1.548716E+0	1.618940E+0	1.539989E+0	1.557467E+0	1.583555E+0	1.513681E+0	1.449138E+0	1.472139E+0	1.525856E+0	1.486476E+0	1.496621E+0	1.521217E+0	1.601922E+0	1.553045E+0	1.560867E+0	1.558483E+0	1.457227E+0	1.478821E+0	1.519487E+0	1.615472E+0	1.546390E+0	1.609698E+0	1.587713E+0	1.490124E+0	1.445381E+0	1.588277E+0	1.448276E+0	1.632380E+0	1.486027E+0	1.537336E+0	1.483115E+0	1.500123E+0	1.521051E+0	1.514670E+0	1.487340E+0	1.589211E+0	1.429439E+0	1.572942E+0	1.655387E+0	1.492155E+0	1.507606E+0	1.499280E+0	1.610410E+0	1.502844E+0	1.521181E+0	1.553924E+0	1.424914E+0	1.537720E+0	1.555001E+0	1.439189E+0	1.571711E+0	1.599225E+0	1.559223E+0	1.485274E+0	1.474321E+0	1.485029E+0	1.573052E+0	1.504590E+0	1.716982E+0	1.517773E+0	1.593641E+0	1.567340E+0	1.493780E+0	1.508356E+0	1.545293E+0	1.480902E+0	1.438817E+0	1.495821E+0	1.525700E+0	1.566195E+0	1.555197E+0	1.470671E+0	1.515825E+0	1.558600E+0	1.451399E+0	1.552764E+0	1.550590E+0	1.549102E+0	1.480632E+0	1.498709E+0	1.583637E+0	1.450094E+0	1.497237E+0	1.391996E+0	1.549211E+0	1.486623E+0	1.525654E+0	1.523250E+0	1.499596E+0	1.486979E+0	1.550586E+0	1.542889E+0	1.550000E+0	1.552307E+0	1.520337E+0	1.599517E+0	1.594774E+0	1.581260E+0	1.421548E+0	1.512574E+0	1.483903E+0	1.527549E+0	1.487138E+0	1.461737E+0	1.492833E+0	1.455762E+0	1.531648E+0	1.593684E+0	1.555612E+0	1.491752E+0	1.459866E+0	1.460871E+0	1.512067E+0	1.503826E+0	1.461627E+0	1.472045E+0	1.570542E+0	1.647703E+0	1.501808E+0	1.574063E+0	1.481595E+0	1.489070E+0	1.570822E+0	1.618861E+0	1.489776E+0	1.470040E+0	1.519068E+0	1.435087E+0	1.521330E+0	1.506488E+0	1.470353E+0	1.437136E+0	1.493585E+0	1.563134E+0	1.535388E+0	1.506964E+0	1.485047E+0	1.622972E+0	1.486132E+0	1.494035E+0	1.554493E+0	1.582991E+0	1.550140E+0	1.564434E+0	1.534993E+0	1.537815E+0	1.415085E+0	1.622911E+0	1.553473E+0	1.515328E+0	1.532220E+0	1.468951E+0	1.483491E+0	1.515075E+0	1.575242E+0	1.497379E+0	1.447404E+0	1.518214E+0	1.437704E+0	1.601131E+0	1.575004E+0	1.522281E+0	1.443631E+0	1.635457E+0	1.531000E+0	1.566423E+0	1.500888E+0	1.639192E+0	1.432696E+0	1.601164E+0	1.536792E+0
2.850010E+2	1.692194E+0	1.708779E+0	1.827217E+0	1.730687E+0	1.767018E+0	1.773588E+0	1.674383E+0	1.862218E+0	1.750001E+0	1.792698E+0	1.751398E+0	1.765181E+0	1.731729E+0	1.794289E+0	1.798954E+0	1.836111E+0	1.783532E+0	1.721332E+0	1.775494E+0	1.778183E+0	1.809263E+0	1.791609E+0	1.647736E+0	1.843849E+0	1.819611E+0	1.628826E+0	1.789464E+0	1.631102E+0	1.592804E+0	1.669121E+0	1.698916E+0	1.634807E+0	1.715227E+0	1.815751E+0	1.777609E+0	1.652048E+0	1.708023E+0	1.788574E+0	1.759858E+0	1.693423E+0	1.702819E+0	1.861908E+0	1.647920E+0	1.698476E+0	1.802984E+0	1.780889E+0	1.692102E+0	1.678969E+0	1.726971E+0	1.814445E+0	1.690473E+0	1.677236E+0	1.757423E+0	1.772150E+0	1.706795E+0	1.616798E+0	1.701953E+0	1.823185E+0	1.707375E+0	1.743283E+0	1.705663E+0	1.660310E+0	1.736860E+0	1.735050E+0	1.758798E+0	1.727294E+0	1.772142E+0	1.676510E+0	1.757259E+0	1.767536E+0	1.709981E+0	1.835991E+0	1.710650E+0	1.734967E+0	1.758809E+0	1.913863E+0	1.814874E+0	1.832511E+0	1.575851E+0	1.650826E+0	1.709833E+0	1.656618E+0	1.774555E+0	1.605096E+0	1.796803E+0	1.567041E+0	1.704739E+0	1.709269E+0	1.803461E+0	1.740269E+0	1.800058E+0	1.733596E+0	1.703288E+0	1.721147E+0	1.727495E+0	1.754251E+0	1.676485E+0	1.779763E+0	1.715393E+0	1.713972E+0	1.737517E+0	1.851452E+0	1.722237E+0	1.714397E+0	1.682461E+0	1.736662E+0	1.734590E+0	1.784488E+0	1.716056E+0	1.762203E+0	1.686168E+0	1.775137E+0	1.778087E+0	1.753210E+0	1.728023E+0	1.802121E+0	1.769128E+0	1.786550E+0	1.724378E+0	1.800037E+0	1.642865E+0	1.622912E+0	1.775626E+0	1.727446E+0	1.784310E+0	1.824068E+0	1.662426E+0	1.670711E+0	1.787257E+0	1.784513E+0	1.624481E+0	1.684809E+0	1.729184E+0	1.826007E+0	1.735211E+0	1.751498E+0	1.663863E+0	1.852524E+0	1.762709E+0	1.726598E+0	1.760772E+0	1.824340E+0	1.750675E+0	1.699654E+0	1.610572E+0	1.851275E+0	1.786665E+0	1.802523E+0	1.722029E+0	1.844127E+0	1.738695E+0	1.633704E+0	1.704459E+0	1.799185E+0	1.688208E+0	1.722511E+0	1.755745E+0	1.744864E+0	1.688872E+0	1.778291E+0	1.697978E+0	1.738844E+0	1.807506E+0	1.727560E+0	1.654469E+0	1.838810E+0	1.661745E+0	1.793212E+0	1.633789E+0	1.736113E+0	1.785730E+0
2.851000E+2	1.788022E+0	1.772833E+0	1.801425E+0	1.668698E+0	1.788419E+0	1.835489E+0	1.699880E+0	1.777308E+0	1.789433E+0	1.770024E+0	1.742011E+0	1.813794E+0	1.810305E+0	1.740029E+0	1.714752E+0	1.737132E+0	1.752801E+0	1.631844E+0	1.788049E+0	1.782892E+0	1.709942E+0	1.786381E+0	1.682267E+0	1.720711E+0	1.741291E+0	1.812466E+0	1.677292E+0	1.743513E+0	1.734622E+0	1.677541E+0	1.720705E+0	1.723523E+0	1.728790E+0	1.747568E+0	1.755874E+0	1.772754E+0	1.645944E+0	1.827500E+0	1.796863E+0	1.696941E+0	1.643085E+0	1.872693E+0	1.763450E+0	1.862196E+0	1.840031E+0	1.762206E+0	1.726612E+0	1.778673E+0	1.729852E+0	1.751849E+0	1.743945E+0	1.727513E+0	1.705460E+0	1.758195E+0	1.798863E+0	1.737257E+0	1.718425E+0	1.674653E+0	1.667177E+0	1.787694E+0	1.759344E+0	1.722269E+0	1.720906E+0	1.681590E+0	1.704295E+0	1.732328E+0	1.813985E+0	1.693743E+0	1.745921E+0	1.684250E+0	1.641807E+0	1.803730E+0	1.731377E+0	1.651673E+0	1.791744E+0	1.864578E+0	1.741301E+0	1.764963E+0	1.620112E+0	1.674939E+0	1.694445E+0	1.749413E+0	1.629695E+0	1.661658E+0	1.706583E+0	1.683102E+0	1.729330E+0	1.712556E+0	1.684690E+0	1.736870E+0	1.692576E+0	1.723224E+0	1.758568E+0	1.636317E+0	1.731271E+0	1.790881E+0	1.715666E+0	1.754398E+0	1.612163E+0	1.793238E+0	1.658411E+0	1.768928E+0	1.706446E+0	1.820487E+0	1.826352E+0	1.626698E+0	1.759845E+0	1.807473E+0	1.660894E+0	1.725319E+0	1.714421E+0	1.787240E+0	1.677632E+0	1.733961E+0	1.573811E+0	1.890234E+0	1.859955E+0	1.706939E+0	1.764129E+0	1.810409E+0	1.692969E+0	1.663679E+0	1.839266E+0	1.803785E+0	1.715601E+0	1.756982E+0	1.813150E+0	1.753882E+0	1.886518E+0	1.732683E+0	1.656359E+0	1.741482E+0	1.687303E+0	1.742273E+0	1.803876E+0	1.637369E+0	1.700116E+0	1.869225E+0	1.671396E+0	1.766430E+0	1.675318E+0	1.792117E+0	1.760873E+0	1.673797E+0	1.723442E+0	1.772101E+0	1.722254E+0	1.686558E+0	1.759586E+0	1.815836E+0	1.818669E+0	1.755518E+0	1.668877E+0	1.775310E+0	1.653889E+0	1.785875E+0	1.725193E+0	1.738655E+0	1.693832E+0	1.687710E+0	1.750316E+0	1.720977E+0	1.714178E+0	1.700820E+0	1.761553E+0	1.724342E+0	1.768098E+0	1.727781E+0	1.733790E+0	1.859233E+0	2.089481E+0
2.851990E+2	1.460168E+0	1.514764E+0	1.605265E+0	1.502086E+0	1.470567E+0	1.594045E+0	1.513004E+0	1.608254E+0	1.563420E+0	1.466286E+0	1.521431E+0	1.508298E+0	1.495735E+0	1.555880E+0	1.524656E+0	1.490093E+0	1.554104E+0	1.421051E+0	1.521873E+0	1.588398E+0	1.462816E+0	1.546719E+0	1.459487E+0	1.469724E+0	1.483177E+0	1.525650E+0	1.529627E+0	1.469036E+0	1.522536E+0	1.515221E+0	1.534859E+0	1.472071E+0	1.559268E+0	1.515096E+0	1.489142E+0	1.566850E+0	1.485185E+0	1.479522E+0	1.563814E+0	1.560539E+0	1.525842E+0	1.547004E+0	1.530580E+0	1.539995E+0	1.564459E+0	1.551748E+0	1.425294E+0	1.490496E+0	1.596548E+0	1.532521E+0	1.468269E+0	1.413322E+0	1.506861E+0	1.517598E+0	1.565380E+0	1.480984E+0	1.466381E+0	1.550421E+0	1.550626E+0	1.453836E+0	1.541241E+0	1.421677E+0	1.491499E+0	1.534666E+0	1.525493E+0	1.485828E+0	1.599228E+0	1.490495E+0	1.547925E+0	1.518068E+0	1.539707E+0	1.615581E+0	1.449705E+0	1.463152E+0	1.468413E+0	1.588103E+0	1.577221E+0	1.595137E+0	1.495563E+0	1.484673E+0	1.427451E+0	1.570457E+0	1.415591E+0	1.460005E+0	1.566234E+0	1.481835E+0	1.452553E+0	1.587944E+0	1.549210E+0	1.490747E+0	1.553821E+0	1.464775E+0	1.500050E+0	1.481497E+0	1.527190E+0	1.605952E+0	1.510382E+0	1.592508E+0	1.495905E+0	1.569545E+0	1.492700E+0	1.596564E+0	1.569004E+0	1.544091E+0	1.548481E+0	1.495857E+0	1.401057E+0	1.525108E+0	1.527879E+0	1.527211E+0	1.506424E+0	1.604109E+0	1.438173E+0	1.550848E+0	1.436763E+0	1.533132E+0	1.582030E+0	1.528835E+0	1.523812E+0	1.511541E+0	1.511623E+0	1.538699E+0	1.566941E+0	1.542268E+0	1.457549E+0	1.472307E+0	1.531965E+0	1.445915E+0	1.515302E+0	1.553023E+0	1.426257E+0	1.510680E+0	1.476935E+0	1.587839E+0	1.588765E+0	1.552957E+0	1.501880E+0	1.617177E+0	1.438802E+0	1.516019E+0	1.591528E+0	1.618997E+0	1.512721E+0	1.521922E+0	1.487415E+0	1.621719E+0	1.516445E+0	1.433828E+0	1.515703E+0	1.576189E+0	1.525706E+0	1.513573E+0	1.521231E+0	1.474109E+0	1.527762E+0	1.621782E+0	1.622275E+0	1.496862E+0	1.443434E+0	1.590086E+0	1.532588E+0	1.514128E+0	1.534431E+0	1.571185E+0	1.546794E+0	1.576414E+0	1.603148E+0	1.594451E+0	1.369328E+0	1.566984E+0	1.600679E+0
2.853000E+2	1.039523E+0	1.177406E+0	1.175537E+0	1.179358E+0	1.120221E+0	1.206282E+0	1.174586E+0	1.195745E+0	1.199525E+0	1.098249E+0	1.075153E+0	1.059293E+0	1.148045E+0	1.062772E+0	1.138652E+0	1.135315E+0	1.158295E+0	1.217701E+0	1.132423E+0	1.188937E+0	1.181798E+0	1.154224E+0	1.098412E+0	1.196156E+0	1.137960E+0	1.175926E+0	1.201088E+0	1.149258E+0	1.165993E+0	1.155284E+0	1.184115E+0	1.225498E+0	1.138537E+0	1.136826E+0	1.207133E+0	1.182555E+0	1.137715E+0	1.194771E+0	1.161738E+0	1.189471E+0	1.068863E+0	1.251845E+0	1.169862E+0	1.141598E+0	1.123998E+0	1.156399E+0	1.203382E+0	1.155967E+0	1.194453E+0	1.174201E+0	1.117305E+0	1.183628E+0	1.113253E+0	1.151281E+0	1.153781E+0	1.140223E+0	1.168840E+0	1.172055E+0	1.215549E+0	1.140695E+0	1.144521E+0	1.117234E+0	1.152136E+0	1.192830E+0	1.091085E+0	1.131560E+0	1.178063E+0	1.121015E+0	1.183618E+0	1.113887E+0	1.142859E+0	1.181700E+0	1.185680E+0	1.126364E+0	1.157158E+0	1.176540E+0	1.184475E+0	1.181958E+0	1.192786E+0	1.163072E+0	1.116037E+0	1.149715E+0	1.148516E+0	1.104271E+0	1.196873E+0	1.172413E+0	1.130024E+0	1.133472E+0	1.208015E+0	1.202794E+0	1.123135E+0	1.141024E+0	1.099422E+0	1.163213E+0	1.137003E+0	1.168019E+0	1.154045E+0	1.164490E+0	1.142903E+0	1.110962E+0	1.147738E+0	1.216639E+0	1.096828E+0	1.190485E+0	1.115143E+0	1.128277E+0	1.185089E+0	1.151042E+0	1.114230E+0	1.160184E+0	1.144960E+0	1.159129E+0	1.156840E+0	1.148833E+0	1.110193E+0	1.249397E+0	1.245775E+0	1.186826E+0	1.144584E+0	1.169093E+0	1.204861E+0	1.134511E+0	1.138688E+0	1.125689E+0	1.067728E+0	1.106831E+0	1.130277E+0	1.179053E+0	1.181397E+0	1.109715E+0	1.176556E+0	1.153622E+0	1.160435E+0	1.144013E+0	1.210569E+0	1.147044E+0	1.188207E+0	1.155851E+0	1.226101E+0	1.214728E+0	1.204038E+0	1.143090E+0	1.200701E+0	1.184587E+0	1.177441E+0	1.159207E+0	1.105518E+0	1.223209E+0	1.208591E+0	1.228203E+0	1.153666E+0	1.171128E+0	1.237795E+0	1.120489E+0	1.146652E+0	1.158103E+0	1.176429E+0	1.086941E+0	1.194986E+0	1.205531E+0	1.116843E+0	1.112772E+0	1.120019E+0	1.175367E+0	1.210218E+0	1.143149E+0	1.148634E+0	1.144003E+0	1.159610E+0	1.296117E+0	1.305074E+0
2.854010E+2	7.289573E-1	7.103950E-1	8.128358E-1	7.099846E-1	7.819558E-1	7.732906E-1	7.157047E-1	7.891330E-1	7.341574E-1	7.585506E-1	7.845334E-1	7.529287E-1	7.943602E-1	7.398319E-1	7.628430E-1	7.083586E-1	7.624994E-1	7.315030E-1	7.487805E-1	8.049340E-1	7.093011E-1	7.696085E-1	7.406651E-1	7.823005E-1	7.592250E-1	7.661352E-1	8.044573E-1	7.281757E-1	7.699647E-1	7.549784E-1	7.662437E-1	7.734522E-1	7.652289E-1	7.819761E-1	7.524432E-1	7.675997E-1	7.694807E-1	8.495962E-1	8.084380E-1	7.149410E-1	7.081831E-1	7.209145E-1	7.579397E-1	7.628504E-1	7.284171E-1	7.571003E-1	7.798076E-1	7.196320E-1	8.042365E-1	7.483810E-1	6.703682E-1	7.692861E-1	8.088120E-1	7.638234E-1	7.671055E-1	7.265591E-1	7.094506E-1	8.010114E-1	8.202963E-1	7.484220E-1	7.473741E-1	7.657725E-1	7.624657E-1	7.936323E-1	7.976803E-1	7.248506E-1	7.495856E-1	7.728570E-1	7.624617E-1	7.381521E-1	7.803712E-1	7.635554E-1	7.276301E-1	7.718587E-1	7.315117E-1	7.594327E-1	8.232993E-1	7.505669E-1	7.212379E-1	7.398463E-1	7.102000E-1	7.133307E-1	7.333659E-1	7.111640E-1	7.411052E-1	7.506142E-1	7.916368E-1	8.518285E-1	7.524841E-1	7.188643E-1	7.251602E-1	7.440358E-1	7.464957E-1	7.516668E-1	7.316195E-1	7.298955E-1	7.610458E-1	7.671751E-1	7.988164E-1	7.378136E-1	7.412485E-1	7.813249E-1	7.302102E-1	7.731199E-1	7.684133E-1	6.709737E-1	7.707863E-1	7.317304E-1	7.045379E-1	7.174431E-1	7.122991E-1	7.076948E-1	7.737213E-1	7.721354E-1	7.634748E-1	7.480588E-1	8.276172E-1	7.445220E-1	6.969799E-1	7.832273E-1	7.617313E-1	7.541573E-1	7.904063E-1	7.311551E-1	7.671604E-1	7.528552E-1	7.242249E-1	7.851163E-1	7.313486E-1	7.172556E-1	7.526469E-1	7.152432E-1	7.322340E-1	8.554596E-1	8.287163E-1	7.224312E-1	7.101607E-1	7.926403E-1	7.012521E-1	8.011664E-1	7.451524E-1	7.877737E-1	7.704025E-1	7.800971E-1	7.558734E-1	7.553202E-1	8.130706E-1	7.208467E-1	7.643856E-1	8.604013E-1	7.399223E-1	7.342458E-1	7.437874E-1	7.429235E-1	7.414937E-1	7.826712E-1	8.076059E-1	7.573594E-1	7.390898E-1	7.705546E-1	7.142316E-1	7.328867E-1	7.473200E-1	7.479532E-1	7.420708E-1	8.299901E-1	7.406674E-1	7.696133E-1	7.821782E-1	7.342334E-1	7.977532E-1
2.855000E+2	5.769712E-1	5.448982E-1	6.719267E-1	5.560347E-1	5.676249E-1	5.813521E-1	6.297090E-1	6.266804E-1	5.810929E-1	5.202593E-1	5.887608E-1	5.864492E-1	5.973673E-1	5.544439E-1	6.080471E-1	5.308489E-1	6.304125E-1	5.355315E-1	5.896066E-1	6.223336E-1	6.129050E-1	5.827786E-1	5.906858E-1	5.544341E-1	5.937151E-1	5.953198E-1	6.633096E-1	5.765814E-1	6.022792E-1	5.983253E-1	5.799310E-1	6.078654E-1	6.240454E-1	5.760089E-1	6.180676E-1	6.140062E-1	6.517836E-1	5.902627E-1	5.982270E-1	5.668023E-1	5.812419E-1	6.002803E-1	5.606688E-1	6.246398E-1	5.937872E-1	6.093704E-1	6.151334E-1	5.929504E-1	5.623429E-1	5.895310E-1	5.532735E-1	5.509115E-1	6.023458E-1	6.229365E-1	5.835413E-1	6.096697E-1	6.052466E-1	5.900440E-1	6.211085E-1	5.876526E-1	5.781718E-1	6.098631E-1	6.231722E-1	6.077301E-1	6.277063E-1	5.999198E-1	6.254742E-1	5.504970E-1	6.112032E-1	6.237751E-1	5.970755E-1	5.962367E-1	6.227779E-1	6.262422E-1	6.200470E-1	6.020793E-1	6.196547E-1	5.995407E-1	5.866297E-1	5.413792E-1	6.196140E-1	5.788516E-1	5.916311E-1	5.574969E-1	5.991920E-1	5.432371E-1	5.571661E-1	5.775216E-1	6.003024E-1	6.235838E-1	5.988600E-1	5.901693E-1	5.906132E-1	5.461012E-1	5.730345E-1	5.900777E-1	5.494151E-1	6.235570E-1	5.848747E-1	6.373957E-1	5.223934E-1	6.193190E-1	5.719029E-1	6.139047E-1	5.995039E-1	5.568256E-1	5.871118E-1	5.849640E-1	5.860501E-1	5.739439E-1	6.146851E-1	6.672901E-1	6.344382E-1	5.597851E-1	6.073265E-1	6.004118E-1	5.996663E-1	5.916444E-1	5.287057E-1	5.653469E-1	6.127977E-1	5.947434E-1	5.900459E-1	6.364962E-1	6.485220E-1	5.858965E-1	5.645040E-1	6.108207E-1	6.173543E-1	5.660985E-1	5.848375E-1	6.190228E-1	5.403616E-1	6.210691E-1	6.277692E-1	5.473229E-1	5.823044E-1	6.315691E-1	6.313642E-1	5.828464E-1	5.887892E-1	5.749994E-1	5.936369E-1	5.972538E-1	5.776380E-1	5.911244E-1	5.828306E-1	5.752969E-1	5.179939E-1	6.008857E-1	5.868587E-1	6.215964E-1	5.785352E-1	6.200651E-1	6.166728E-1	5.787928E-1	6.491095E-1	6.231710E-1	6.350305E-1	6.184248E-1	6.093303E-1	5.821313E-1	5.780917E-1	5.949379E-1	5.326237E-1	6.052806E-1	5.779313E-1	6.139936E-1	6.055989E-1	6.049587E-1	6.795314E-1
2.856030E+2	4.456229E-1	4.250652E-1	4.964600E-1	4.403739E-1	4.497979E-1	4.612860E-1	4.836418E-1	4.750013E-1	4.562254E-1	4.089999E-1	3.921185E-1	4.729597E-1	4.566772E-1	5.043384E-1	4.545239E-1	4.610067E-1	4.678490E-1	4.438684E-1	4.635578E-1	4.321588E-1	4.585663E-1	4.429620E-1	4.609807E-1	4.791212E-1	4.808207E-1	4.611231E-1	4.332703E-1	4.907186E-1	4.947209E-1	5.064754E-1	4.954350E-1	4.883231E-1	4.437019E-1	4.621133E-1	5.158933E-1	5.058150E-1	4.771485E-1	4.864208E-1	4.806424E-1	4.585440E-1	4.304356E-1	5.209845E-1	5.042221E-1	4.768124E-1	4.610416E-1	4.640357E-1	4.421461E-1	4.605547E-1	5.204901E-1	4.851535E-1	4.313474E-1	5.148404E-1	4.747159E-1	4.513558E-1	4.809701E-1	4.613905E-1	4.829041E-1	4.695466E-1	4.533576E-1	4.774105E-1	4.746178E-1	4.422169E-1	4.456780E-1	4.518038E-1	4.172773E-1	4.368244E-1	4.448865E-1	4.250846E-1	4.772982E-1	4.480131E-1	4.827129E-1	4.830796E-1	4.389607E-1	4.488983E-1	4.618255E-1	4.864508E-1	5.113463E-1	4.826983E-1	4.721053E-1	4.599766E-1	4.403319E-1	4.738300E-1	4.444752E-1	4.213212E-1	4.586355E-1	4.699242E-1	4.542529E-1	4.580551E-1	4.505049E-1	4.606414E-1	4.281886E-1	5.069290E-1	4.650072E-1	4.514960E-1	4.614766E-1	4.683291E-1	4.957876E-1	4.889342E-1	4.516229E-1	4.310008E-1	4.290579E-1	4.626566E-1	5.001037E-1	4.379257E-1	4.639937E-1	5.008442E-1	4.712546E-1	4.478388E-1	4.915903E-1	4.932127E-1	4.356398E-1	4.665287E-1	4.616815E-1	4.572183E-1	4.589842E-1	4.990176E-1	4.565843E-1	4.864737E-1	4.481020E-1	4.383524E-1	4.203316E-1	4.353498E-1	4.843220E-1	4.411120E-1	4.540389E-1	4.520598E-1	4.790555E-1	5.193001E-1	4.701808E-1	4.853211E-1	4.101958E-1	4.175484E-1	4.964047E-1	4.964534E-1	4.202189E-1	4.582554E-1	4.586401E-1	4.717345E-1	4.540029E-1	4.450111E-1	4.452047E-1	4.590021E-1	4.671676E-1	4.527964E-1	4.996494E-1	4.398564E-1	4.795733E-1	4.717817E-1	4.333915E-1	4.347966E-1	4.676945E-1	4.956495E-1	4.441789E-1	4.391552E-1	4.876739E-1	4.774762E-1	5.180915E-1	4.681353E-1	4.605784E-1	4.556660E-1	4.755962E-1	4.595027E-1	4.577875E-1	5.025427E-1	5.059186E-1	4.836520E-1	4.731402E-1	4.985026E-1	4.533161E-1	4.733958E-1	5.087616E-1
2.858010E+2	3.463280E-1	3.133276E-1	3.454997E-1	3.382609E-1	3.374418E-1	3.840579E-1	3.697352E-1	3.705443E-1	3.461954E-1	3.450080E-1	3.548554E-1	3.242279E-1	3.456289E-1	3.492038E-1	3.376771E-1	3.331539E-1	3.797391E-1	3.321127E-1	3.520345E-1	3.326650E-1	3.642403E-1	3.667337E-1	3.904128E-1	3.740827E-1	3.588702E-1	3.650588E-1	3.664961E-1	4.075931E-1	3.604471E-1	3.503480E-1	3.737554E-1	3.565316E-1	3.594830E-1	3.641951E-1	3.503714E-1	3.951573E-1	3.658767E-1	3.736499E-1	3.988660E-1	3.858390E-1	3.580093E-1	3.485465E-1	3.690329E-1	3.814289E-1	3.552137E-1	3.783071E-1	3.679545E-1	2.986908E-1	3.630768E-1	3.652120E-1	3.803659E-1	3.643181E-1	3.888740E-1	3.493797E-1	3.512776E-1	3.701237E-1	3.373103E-1	3.496384E-1	3.612266E-1	3.208225E-1	3.261129E-1	3.384967E-1	3.429136E-1	3.444124E-1	3.602343E-1	3.597798E-1	3.645131E-1	3.608071E-1	3.843579E-1	3.387802E-1	3.506241E-1	3.899355E-1	3.397844E-1	2.964148E-1	3.497120E-1	3.301309E-1	3.842703E-1	3.352227E-1	3.460091E-1	3.534073E-1	3.503297E-1	3.364097E-1	3.616772E-1	3.180391E-1	3.244660E-1	3.473768E-1	4.023717E-1	3.817471E-1	3.427167E-1	3.347541E-1	4.024999E-1	3.971649E-1	3.646385E-1	3.504149E-1	3.793295E-1	3.420831E-1	3.876710E-1	3.339247E-1	3.683043E-1	3.477382E-1	3.598044E-1	3.403619E-1	3.701398E-1	3.725625E-1	3.472305E-1	3.769590E-1	3.432741E-1	3.191380E-1	3.168040E-1	3.660803E-1	3.694910E-1	3.719517E-1	3.590432E-1	3.847520E-1	3.418487E-1	3.545876E-1	3.795853E-1	3.792340E-1	3.733965E-1	3.662430E-1	3.312889E-1	3.438550E-1	3.861280E-1	3.157400E-1	3.856226E-1	4.108288E-1	3.964682E-1	3.966349E-1	3.659588E-1	3.520006E-1	3.311765E-1	3.070712E-1	3.710369E-1	3.756944E-1	3.724762E-1	3.447706E-1	3.625700E-1	3.796139E-1	3.273864E-1	3.554953E-1	3.818231E-1	3.401611E-1	3.719389E-1	3.642464E-1	3.550112E-1	3.234941E-1	3.940782E-1	3.841017E-1	3.499347E-1	3.487957E-1	3.222111E-1	3.440044E-1	3.482675E-1	3.724236E-1	3.363938E-1	3.611696E-1	3.561650E-1	3.626982E-1	3.559798E-1	3.527413E-1	3.893343E-1	3.662330E-1	3.588045E-1	3.941877E-1	3.510758E-1	4.039108E-1	3.740714E-1	3.460806E-1	3.418581E-1	3.554341E-1	3.649660E-1
2.860100E+2	5.723256E-1	5.047026E-1	5.485789E-1	5.183654E-1	5.628769E-1	5.629630E-1	5.068576E-1	5.257877E-1	5.158404E-1	5.289162E-1	5.195558E-1	5.388522E-1	5.109910E-1	5.369649E-1	5.098254E-1	5.413548E-1	5.623987E-1	5.517760E-1	5.060328E-1	6.421786E-1	5.264608E-1	5.865247E-1	5.848025E-1	6.181941E-1	5.890041E-1	5.757236E-1	6.043607E-1	6.170503E-1	5.562120E-1	5.604115E-1	6.038189E-1	5.423510E-1	6.024447E-1	5.753750E-1	6.047324E-1	6.312004E-1	5.162012E-1	5.765805E-1	5.515618E-1	6.088886E-1	5.464549E-1	5.535515E-1	5.531784E-1	5.828314E-1	5.690836E-1	5.991905E-1	5.156852E-1	5.525171E-1	6.007724E-1	5.592139E-1	5.724656E-1	5.450556E-1	5.567897E-1	5.862742E-1	5.359343E-1	5.364782E-1	5.259789E-1	6.008706E-1	6.134874E-1	5.959328E-1	5.303988E-1	5.902462E-1	5.544503E-1	5.629821E-1	4.962808E-1	5.016517E-1	5.309330E-1	5.611044E-1	5.515918E-1	5.354261E-1	5.837134E-1	5.713864E-1	5.828981E-1	5.652921E-1	5.438643E-1	5.023696E-1	5.547585E-1	5.216280E-1	5.050035E-1	5.318414E-1	4.954812E-1	5.036455E-1	5.036705E-1	5.575203E-1	5.481854E-1	5.227181E-1	5.521040E-1	5.625384E-1	5.623608E-1	5.366621E-1	5.217920E-1	5.736387E-1	5.359309E-1	5.521608E-1	6.054962E-1	5.268537E-1	5.116347E-1	5.508089E-1	5.427699E-1	5.515373E-1	5.201048E-1	5.641796E-1	5.439624E-1	5.590910E-1	5.490377E-1	4.981993E-1	6.007423E-1	5.435866E-1	5.481995E-1	5.329766E-1	4.952703E-1	5.949773E-1	5.800787E-1	5.678262E-1	5.593703E-1	6.256768E-1	5.361983E-1	5.724105E-1	5.749701E-1	5.600223E-1	5.972503E-1	5.333458E-1	5.177234E-1	5.090583E-1	5.211013E-1	5.537077E-1	5.188849E-1	5.542918E-1	5.620362E-1	5.666846E-1	5.308771E-1	5.197598E-1	5.285382E-1	5.663261E-1	5.645677E-1	4.973454E-1	5.096538E-1	5.014280E-1	5.585270E-1	5.257159E-1	5.077409E-1	5.675245E-1	5.395990E-1	5.892616E-1	5.619795E-1	5.486258E-1	5.364807E-1	5.445841E-1	5.426455E-1	5.658493E-1	5.546742E-1	5.706004E-1	5.083600E-1	5.949204E-1	5.594760E-1	5.592169E-1	6.176378E-1	5.439212E-1	5.190053E-1	5.442194E-1	5.621268E-1	5.292814E-1	5.160511E-1	5.396237E-1	5.793754E-1	5.497031E-1	4.985874E-1	4.887096E-1	6.291242E-1	6.271329E-1	5.150030E-1
2.862030E+2	1.157489E+0	1.177851E+0	1.152561E+0	1.081340E+0	1.202806E+0	1.248674E+0	1.140995E+0	1.100174E+0	1.148015E+0	1.034068E+0	1.176053E+0	1.109854E+0	1.131566E+0	1.193063E+0	1.136163E+0	1.152378E+0	1.127408E+0	1.044814E+0	1.146393E+0	1.239525E+0	1.224717E+0	1.188152E+0	1.104301E+0	1.160442E+0	1.230242E+0	1.232417E+0	1.196638E+0	1.146356E+0	1.139229E+0	1.165519E+0	1.133275E+0	1.176237E+0	1.198621E+0	1.131426E+0	1.119118E+0	1.167015E+0	1.179532E+0	1.172677E+0	1.184305E+0	1.174038E+0	1.159882E+0	1.141034E+0	1.232688E+0	1.135012E+0	1.169100E+0	1.213141E+0	1.169708E+0	1.146460E+0	1.244771E+0	1.182976E+0	1.132352E+0	1.151160E+0	1.230766E+0	1.218108E+0	1.255083E+0	1.168682E+0	1.146342E+0	1.162244E+0	1.234337E+0	1.156979E+0	1.102562E+0	1.198532E+0	1.182029E+0	1.233519E+0	1.187501E+0	1.122933E+0	1.101521E+0	1.149925E+0	1.184144E+0	1.115696E+0	1.174911E+0	1.172435E+0	1.226863E+0	1.137402E+0	1.154562E+0	1.164037E+0	1.158411E+0	1.187030E+0	1.165379E+0	1.090870E+0	1.090821E+0	1.079999E+0	1.119064E+0	1.168035E+0	1.128949E+0	1.158411E+0	1.126627E+0	1.205117E+0	1.157547E+0	1.157719E+0	1.243345E+0	1.190244E+0	1.109869E+0	1.167201E+0	1.188252E+0	1.075670E+0	1.201174E+0	1.129221E+0	1.130848E+0	1.171741E+0	1.130976E+0	1.165262E+0	1.219078E+0	1.153662E+0	1.116672E+0	1.133246E+0	1.137350E+0	1.210563E+0	1.120718E+0	1.084591E+0	1.167146E+0	1.206681E+0	1.127890E+0	1.136896E+0	1.092693E+0	1.196044E+0	1.157061E+0	1.119932E+0	1.178844E+0	1.240981E+0	1.197982E+0	1.156824E+0	1.203633E+0	1.143479E+0	1.133427E+0	1.189274E+0	1.094997E+0	1.176060E+0	1.187438E+0	1.170480E+0	1.140033E+0	1.193480E+0	1.132686E+0	1.191120E+0	1.181684E+0	1.205924E+0	1.114092E+0	1.157745E+0	1.213164E+0	1.133239E+0	1.150829E+0	1.287038E+0	1.183811E+0	1.136421E+0	1.161964E+0	1.107720E+0	1.175059E+0	1.165485E+0	1.134654E+0	1.155070E+0	1.155273E+0	1.188585E+0	1.204843E+0	1.208812E+0	1.162313E+0	1.182348E+0	1.267309E+0	1.134066E+0	1.152699E+0	1.172343E+0	1.205497E+0	1.165521E+0	1.219227E+0	1.075361E+0	1.081675E+0	1.159857E+0	1.176949E+0	1.317334E+0	1.144203E+0	1.255834E+0	1.197304E+0
2.864190E+2	1.449836E+0	1.515322E+0	1.563513E+0	1.504312E+0	1.463699E+0	1.570371E+0	1.579061E+0	1.509770E+0	1.526707E+0	1.473002E+0	1.514101E+0	1.474923E+0	1.551867E+0	1.471017E+0	1.585087E+0	1.499881E+0	1.549865E+0	1.478362E+0	1.448763E+0	1.480480E+0	1.437925E+0	1.574186E+0	1.489662E+0	1.532476E+0	1.517334E+0	1.504518E+0	1.468633E+0	1.486547E+0	1.440137E+0	1.403329E+0	1.476471E+0	1.482491E+0	1.524215E+0	1.503396E+0	1.425860E+0	1.443104E+0	1.460062E+0	1.418129E+0	1.409668E+0	1.547083E+0	1.449975E+0	1.409381E+0	1.485869E+0	1.483805E+0	1.469786E+0	1.484467E+0	1.536821E+0	1.508215E+0	1.512937E+0	1.523295E+0	1.394995E+0	1.490200E+0	1.562390E+0	1.498359E+0	1.515255E+0	1.426408E+0	1.508626E+0	1.457629E+0	1.549939E+0	1.499344E+0	1.525760E+0	1.480516E+0	1.354589E+0	1.510045E+0	1.509557E+0	1.452642E+0	1.479584E+0	1.484194E+0	1.494905E+0	1.449771E+0	1.482763E+0	1.471475E+0	1.460442E+0	1.418920E+0	1.573806E+0	1.489884E+0	1.544793E+0	1.521505E+0	1.376205E+0	1.379838E+0	1.481853E+0	1.469736E+0	1.376729E+0	1.425631E+0	1.510881E+0	1.474993E+0	1.507202E+0	1.500751E+0	1.477012E+0	1.451871E+0	1.523649E+0	1.497067E+0	1.511016E+0	1.465269E+0	1.499144E+0	1.488170E+0	1.446842E+0	1.394867E+0	1.391833E+0	1.400679E+0	1.480638E+0	1.555156E+0	1.522663E+0	1.415612E+0	1.471001E+0	1.477838E+0	1.421913E+0	1.452768E+0	1.392741E+0	1.477092E+0	1.479277E+0	1.550341E+0	1.468966E+0	1.561062E+0	1.456588E+0	1.554836E+0	1.580357E+0	1.577525E+0	1.522067E+0	1.444327E+0	1.461985E+0	1.521600E+0	1.508550E+0	1.478549E+0	1.509809E+0	1.476669E+0	1.423664E+0	1.551895E+0	1.566719E+0	1.491032E+0	1.490804E+0	1.535001E+0	1.497104E+0	1.469040E+0	1.535823E+0	1.568654E+0	1.458913E+0	1.538413E+0	1.474203E+0	1.579917E+0	1.534596E+0	1.523909E+0	1.508383E+0	1.511761E+0	1.507861E+0	1.454920E+0	1.458311E+0	1.482434E+0	1.530470E+0	1.569152E+0	1.510356E+0	1.511399E+0	1.450558E+0	1.544986E+0	1.575363E+0	1.465965E+0	1.548529E+0	1.457195E+0	1.453072E+0	1.515897E+0	1.587647E+0	1.484452E+0	1.502700E+0	1.458849E+0	1.434004E+0	1.512620E+0	1.482805E+0	1.510276E+0	1.488620E+0	1.470824E+0	1.640631E+0
2.866180E+2	1.290860E+0	1.252002E+0	1.369365E+0	1.359209E+0	1.338325E+0	1.374521E+0	1.371730E+0	1.336934E+0	1.318682E+0	1.233634E+0	1.408169E+0	1.470478E+0	1.368433E+0	1.296090E+0	1.335218E+0	1.217592E+0	1.328508E+0	1.291277E+0	1.309662E+0	1.344787E+0	1.311909E+0	1.267767E+0	1.362710E+0	1.373702E+0	1.281888E+0	1.304969E+0	1.370645E+0	1.361336E+0	1.250254E+0	1.381812E+0	1.376348E+0	1.231080E+0	1.297174E+0	1.396414E+0	1.416754E+0	1.440924E+0	1.355466E+0	1.341774E+0	1.394214E+0	1.312724E+0	1.280792E+0	1.305951E+0	1.305393E+0	1.353661E+0	1.376698E+0	1.417511E+0	1.316556E+0	1.335809E+0	1.346214E+0	1.356192E+0	1.267857E+0	1.301968E+0	1.267097E+0	1.298588E+0	1.373449E+0	1.245023E+0	1.413659E+0	1.279359E+0	1.372694E+0	1.324818E+0	1.338018E+0	1.329669E+0	1.365126E+0	1.320664E+0	1.316958E+0	1.249224E+0	1.373366E+0	1.265620E+0	1.355986E+0	1.354350E+0	1.389362E+0	1.308714E+0	1.314186E+0	1.248729E+0	1.348724E+0	1.363228E+0	1.421700E+0	1.326278E+0	1.249916E+0	1.320138E+0	1.427395E+0	1.281557E+0	1.309276E+0	1.282990E+0	1.344702E+0	1.314367E+0	1.345154E+0	1.347658E+0	1.299961E+0	1.299174E+0	1.344413E+0	1.289330E+0	1.344592E+0	1.271398E+0	1.316805E+0	1.281407E+0	1.311531E+0	1.324611E+0	1.287555E+0	1.359873E+0	1.247371E+0	1.415169E+0	1.322426E+0	1.378690E+0	1.337011E+0	1.327393E+0	1.287235E+0	1.313566E+0	1.320646E+0	1.267684E+0	1.293042E+0	1.287027E+0	1.317297E+0	1.352098E+0	1.305523E+0	1.300503E+0	1.420023E+0	1.321928E+0	1.285186E+0	1.366714E+0	1.316409E+0	1.332673E+0	1.358874E+0	1.386380E+0	1.336634E+0	1.293935E+0	1.318201E+0	1.233832E+0	1.306597E+0	1.319972E+0	1.247833E+0	1.301950E+0	1.311975E+0	1.357301E+0	1.320613E+0	1.326288E+0	1.402878E+0	1.323994E+0	1.336728E+0	1.340131E+0	1.253224E+0	1.372705E+0	1.294538E+0	1.404047E+0	1.319506E+0	1.317870E+0	1.323816E+0	1.424366E+0	1.298486E+0	1.363427E+0	1.283640E+0	1.351743E+0	1.348184E+0	1.276230E+0	1.398921E+0	1.405597E+0	1.355977E+0	1.305163E+0	1.322757E+0	1.302745E+0	1.354011E+0	1.324559E+0	1.381855E+0	1.265689E+0	1.297781E+0	1.344282E+0	1.338561E+0	1.366831E+0	1.323330E+0	1.407650E+0	1.274361E+0
2.868020E+2	1.450477E+0	1.441460E+0	1.443952E+0	1.416629E+0	1.461151E+0	1.426538E+0	1.472302E+0	1.405526E+0	1.374371E+0	1.314208E+0	1.413488E+0	1.449432E+0	1.405002E+0	1.363091E+0	1.424184E+0	1.379258E+0	1.441639E+0	1.356997E+0	1.469558E+0	1.491384E+0	1.391533E+0	1.397113E+0	1.457250E+0	1.399281E+0	1.439551E+0	1.399974E+0	1.471305E+0	1.455971E+0	1.412358E+0	1.454722E+0	1.461373E+0	1.377301E+0	1.420959E+0	1.335306E+0	1.436163E+0	1.525577E+0	1.376692E+0	1.430178E+0	1.469381E+0	1.429461E+0	1.432958E+0	1.413718E+0	1.412016E+0	1.386237E+0	1.426555E+0	1.406640E+0	1.377993E+0	1.491540E+0	1.460387E+0	1.468115E+0	1.383290E+0	1.420274E+0	1.462781E+0	1.399596E+0	1.424953E+0	1.400920E+0	1.397434E+0	1.442351E+0	1.363462E+0	1.479378E+0	1.451627E+0	1.406136E+0	1.368647E+0	1.493608E+0	1.434987E+0	1.356451E+0	1.404159E+0	1.476102E+0	1.394369E+0	1.368373E+0	1.502596E+0	1.494787E+0	1.345302E+0	1.443290E+0	1.413049E+0	1.425802E+0	1.436870E+0	1.433822E+0	1.350426E+0	1.346717E+0	1.392271E+0	1.444271E+0	1.383391E+0	1.370403E+0	1.347680E+0	1.338052E+0	1.426322E+0	1.446960E+0	1.359723E+0	1.328645E+0	1.436604E+0	1.438485E+0	1.430587E+0	1.388281E+0	1.386035E+0	1.382687E+0	1.415780E+0	1.454662E+0	1.389770E+0	1.376272E+0	1.359359E+0	1.396308E+0	1.403117E+0	1.438188E+0	1.376377E+0	1.436566E+0	1.337439E+0	1.448322E+0	1.416269E+0	1.407754E+0	1.373832E+0	1.412438E+0	1.445417E+0	1.372279E+0	1.372936E+0	1.383887E+0	1.383688E+0	1.423115E+0	1.389540E+0	1.465023E+0	1.406605E+0	1.389174E+0	1.475566E+0	1.425174E+0	1.452960E+0	1.410619E+0	1.344588E+0	1.395167E+0	1.460256E+0	1.447117E+0	1.562054E+0	1.369061E+0	1.431453E+0	1.411875E+0	1.372027E+0	1.458422E+0	1.378446E+0	1.453996E+0	1.375762E+0	1.353813E+0	1.404178E+0	1.474451E+0	1.383914E+0	1.399894E+0	1.486698E+0	1.483310E+0	1.416440E+0	1.361992E+0	1.363229E+0	1.453348E+0	1.496699E+0	1.437403E+0	1.452820E+0	1.432815E+0	1.377963E+0	1.418481E+0	1.413019E+0	1.402019E+0	1.392119E+0	1.360628E+0	1.406538E+0	1.389316E+0	1.493235E+0	1.482904E+0	1.365092E+0	1.413922E+0	1.379654E+0	1.450052E+0	1.301881E+0	1.430448E+0	1.336304E+0
2.870040E+2	1.435742E+0	1.401696E+0	1.533782E+0	1.435279E+0	1.529196E+0	1.571813E+0	1.480491E+0	1.506351E+0	1.448446E+0	1.461690E+0	1.434242E+0	1.564140E+0	1.519209E+0	1.517716E+0	1.450348E+0	1.480521E+0	1.574288E+0	1.348464E+0	1.550274E+0	1.405983E+0	1.425083E+0	1.513644E+0	1.491636E+0	1.489919E+0	1.416563E+0	1.419834E+0	1.509110E+0	1.475538E+0	1.491324E+0	1.448236E+0	1.449647E+0	1.407736E+0	1.452247E+0	1.458160E+0	1.488751E+0	1.431470E+0	1.415846E+0	1.495692E+0	1.406746E+0	1.473880E+0	1.416274E+0	1.407459E+0	1.419392E+0	1.441267E+0	1.444448E+0	1.499408E+0	1.464983E+0	1.510610E+0	1.484676E+0	1.518164E+0	1.458375E+0	1.515428E+0	1.401485E+0	1.515148E+0	1.473357E+0	1.444512E+0	1.516302E+0	1.452287E+0	1.506499E+0	1.501220E+0	1.607272E+0	1.478374E+0	1.421576E+0	1.410382E+0	1.459977E+0	1.398423E+0	1.469926E+0	1.461751E+0	1.511870E+0	1.378079E+0	1.533060E+0	1.456099E+0	1.484733E+0	1.425897E+0	1.472785E+0	1.440279E+0	1.501854E+0	1.502921E+0	1.425474E+0	1.462397E+0	1.517342E+0	1.411399E+0	1.444522E+0	1.429936E+0	1.509261E+0	1.408319E+0	1.461299E+0	1.546054E+0	1.416092E+0	1.454856E+0	1.528704E+0	1.525026E+0	1.465135E+0	1.462460E+0	1.445453E+0	1.455758E+0	1.456162E+0	1.505995E+0	1.457633E+0	1.445585E+0	1.449828E+0	1.501190E+0	1.493906E+0	1.440712E+0	1.367416E+0	1.399718E+0	1.550698E+0	1.506701E+0	1.472024E+0	1.425905E+0	1.556678E+0	1.609248E+0	1.550492E+0	1.387209E+0	1.317345E+0	1.552894E+0	1.538958E+0	1.535962E+0	1.464933E+0	1.401026E+0	1.453646E+0	1.452941E+0	1.499182E+0	1.559512E+0	1.433454E+0	1.524711E+0	1.463193E+0	1.437753E+0	1.421063E+0	1.476081E+0	1.501551E+0	1.414161E+0	1.421192E+0	1.528234E+0	1.572558E+0	1.510098E+0	1.450453E+0	1.507412E+0	1.500430E+0	1.468031E+0	1.527010E+0	1.589261E+0	1.405107E+0	1.544555E+0	1.503164E+0	1.462898E+0	1.499129E+0	1.433523E+0	1.478862E+0	1.421213E+0	1.476805E+0	1.426438E+0	1.446276E+0	1.368080E+0	1.515347E+0	1.523987E+0	1.517686E+0	1.470141E+0	1.552021E+0	1.473842E+0	1.500836E+0	1.544193E+0	1.508023E+0	1.419794E+0	1.466500E+0	1.523773E+0	1.526027E+0	1.546426E+0	1.471619E+0	1.559454E+0	1.294482E+0
2.872160E+2	1.161820E+0	1.201634E+0	1.180757E+0	1.135921E+0	1.084479E+0	1.120212E+0	1.166230E+0	1.181408E+0	1.135330E+0	1.153031E+0	1.132714E+0	1.139449E+0	1.136305E+0	1.148126E+0	1.145189E+0	1.140212E+0	1.166995E+0	1.132404E+0	1.151121E+0	1.174626E+0	1.167923E+0	1.160077E+0	1.118713E+0	1.158659E+0	1.177703E+0	1.145513E+0	1.139754E+0	1.060246E+0	1.105182E+0	1.209927E+0	1.151711E+0	1.179421E+0	1.086141E+0	1.125230E+0	1.112922E+0	1.108554E+0	1.092353E+0	1.126732E+0	1.081139E+0	1.082693E+0	1.081479E+0	1.089869E+0	1.120309E+0	1.085073E+0	1.168177E+0	1.142200E+0	1.121870E+0	1.110384E+0	1.124078E+0	1.250983E+0	1.093831E+0	1.164663E+0	1.133511E+0	1.172054E+0	1.113227E+0	1.131972E+0	1.115551E+0	1.169488E+0	1.123315E+0	1.159748E+0	1.137197E+0	1.097459E+0	1.124926E+0	1.114138E+0	1.083803E+0	1.068969E+0	1.171722E+0	1.159703E+0	1.133330E+0	1.136906E+0	1.219219E+0	1.185241E+0	1.180792E+0	1.119017E+0	1.170938E+0	1.204047E+0	1.124229E+0	1.055468E+0	1.090042E+0	1.123487E+0	1.025140E+0	1.110036E+0	1.096495E+0	1.096553E+0	1.071836E+0	1.129942E+0	1.185626E+0	1.082625E+0	1.114227E+0	1.060587E+0	1.212773E+0	1.179881E+0	1.136673E+0	1.155538E+0	1.139827E+0	1.170463E+0	1.124375E+0	1.221280E+0	1.104293E+0	1.202729E+0	1.188198E+0	1.093864E+0	1.197547E+0	1.107043E+0	1.174060E+0	1.138678E+0	1.127465E+0	1.164542E+0	1.074560E+0	1.144071E+0	1.170604E+0	1.160714E+0	1.153072E+0	1.098348E+0	1.104205E+0	1.163082E+0	1.158262E+0	1.114710E+0	1.140809E+0	1.161345E+0	1.139780E+0	1.137009E+0	1.131002E+0	1.201946E+0	1.119258E+0	1.125452E+0	1.116182E+0	1.109408E+0	1.099878E+0	1.095192E+0	1.147415E+0	1.160483E+0	1.152610E+0	1.197627E+0	1.247914E+0	1.147862E+0	1.146064E+0	1.135681E+0	1.221751E+0	1.117161E+0	1.156721E+0	1.205577E+0	1.127736E+0	1.252262E+0	1.182354E+0	1.120981E+0	1.112016E+0	1.156777E+0	1.161868E+0	1.133789E+0	1.207997E+0	1.120159E+0	1.140533E+0	1.074353E+0	1.073229E+0	1.224479E+0	1.170128E+0	1.120426E+0	1.139287E+0	1.116483E+0	1.207693E+0	1.165409E+0	1.147587E+0	1.152430E+0	1.150073E+0	1.199854E+0	1.070275E+0	1.166234E+0	1.148048E+0	1.092392E+0	1.265677E+0
2.874030E+2	7.848353E-1	8.729534E-1	7.901656E-1	7.603299E-1	7.844493E-1	8.109874E-1	8.227256E-1	7.909263E-1	8.337778E-1	8.398189E-1	8.444900E-1	8.594111E-1	8.702892E-1	8.264028E-1	8.521786E-1	8.554901E-1	8.683385E-1	8.363694E-1	8.364251E-1	8.254586E-1	8.280372E-1	8.731402E-1	7.933302E-1	7.901001E-1	8.806810E-1	8.771472E-1	8.486865E-1	8.881576E-1	8.990722E-1	8.367598E-1	8.578180E-1	8.347338E-1	8.369348E-1	8.657320E-1	8.908806E-1	8.537202E-1	8.498725E-1	8.496024E-1	8.873974E-1	9.068237E-1	8.650931E-1	8.590742E-1	9.012162E-1	8.536785E-1	8.820210E-1	8.689976E-1	8.895318E-1	8.287273E-1	8.483743E-1	8.407774E-1	8.095428E-1	8.534422E-1	7.956916E-1	8.228178E-1	8.371664E-1	9.234708E-1	8.383679E-1	8.512105E-1	8.186538E-1	8.879893E-1	8.424836E-1	8.195592E-1	8.626442E-1	8.361176E-1	8.205654E-1	7.844093E-1	7.896261E-1	8.594220E-1	8.522922E-1	8.480115E-1	8.132351E-1	8.448192E-1	8.320941E-1	8.273324E-1	9.143633E-1	8.380411E-1	8.626775E-1	8.141529E-1	7.605284E-1	8.514859E-1	8.328023E-1	8.255900E-1	8.521625E-1	7.852532E-1	8.003000E-1	7.757136E-1	8.537857E-1	8.215192E-1	8.205278E-1	7.792626E-1	8.467533E-1	8.697696E-1	8.685642E-1	8.772440E-1	8.400076E-1	8.433159E-1	8.073965E-1	8.572505E-1	8.569988E-1	8.509122E-1	8.303441E-1	8.254622E-1	8.105238E-1	8.283157E-1	8.564340E-1	8.171619E-1	7.996509E-1	8.444787E-1	8.222718E-1	8.670385E-1	8.400790E-1	8.512686E-1	8.636558E-1	7.840148E-1	8.445043E-1	8.169306E-1	8.253751E-1	8.120291E-1	8.746353E-1	8.316913E-1	8.163837E-1	8.183136E-1	8.508159E-1	8.255505E-1	8.294563E-1	8.389641E-1	8.535782E-1	8.179924E-1	9.115428E-1	8.830942E-1	8.808425E-1	8.694630E-1	7.950135E-1	8.520114E-1	8.466418E-1	8.180752E-1	8.136201E-1	8.152399E-1	8.088879E-1	8.429926E-1	7.722481E-1	8.299187E-1	8.311232E-1	8.185351E-1	8.155686E-1	8.625852E-1	8.329610E-1	8.233384E-1	8.887190E-1	8.162946E-1	8.822305E-1	8.163254E-1	8.807758E-1	8.228113E-1	7.803257E-1	8.484728E-1	9.353582E-1	8.738257E-1	8.692523E-1	8.161267E-1	8.419869E-1	8.002561E-1	8.306604E-1	8.932630E-1	7.747551E-1	8.265531E-1	8.844359E-1	8.637486E-1	8.788772E-1	8.453826E-1	9.722639E-1
2.876210E+2	6.151637E-1	6.173201E-1	5.703687E-1	5.975712E-1	6.081398E-1	5.512887E-1	5.512631E-1	5.905659E-1	5.819010E-1	5.322149E-1	5.599504E-1	5.521006E-1	5.939814E-1	6.164114E-1	5.779360E-1	5.407790E-1	6.169611E-1	5.585243E-1	6.067449E-1	6.138116E-1	6.121644E-1	5.848348E-1	5.593927E-1	6.000588E-1	5.847772E-1	5.814056E-1	5.614979E-1	5.622910E-1	5.704592E-1	5.625141E-1	5.775472E-1	5.969228E-1	5.444385E-1	5.875498E-1	5.831673E-1	5.918835E-1	5.883145E-1	5.774580E-1	5.701395E-1	5.744084E-1	5.809562E-1	5.537000E-1	5.964029E-1	5.691733E-1	5.579703E-1	5.406895E-1	5.475372E-1	5.517338E-1	5.834498E-1	6.203674E-1	5.774961E-1	6.128362E-1	5.123020E-1	5.722374E-1	5.683587E-1	6.264589E-1	5.393840E-1	5.467795E-1	5.925079E-1	5.711294E-1	5.927563E-1	5.975905E-1	5.301218E-1	5.609909E-1	5.757663E-1	5.336891E-1	5.829779E-1	5.606721E-1	6.190831E-1	5.994664E-1	5.294601E-1	5.923574E-1	5.825875E-1	5.602974E-1	5.881986E-1	5.986757E-1	5.945995E-1	5.953939E-1	5.091889E-1	6.100132E-1	5.550159E-1	5.677936E-1	5.154735E-1	5.793098E-1	5.796224E-1	5.562009E-1	5.615670E-1	5.548800E-1	5.810426E-1	5.554432E-1	5.410631E-1	5.641501E-1	5.677414E-1	5.700986E-1	5.952311E-1	5.584071E-1	6.149171E-1	5.627516E-1	5.790844E-1	5.612970E-1	6.215377E-1	6.193383E-1	5.949246E-1	5.710110E-1	5.721057E-1	5.987768E-1	5.708299E-1	6.583665E-1	5.896184E-1	5.789433E-1	5.308756E-1	5.753871E-1	5.550605E-1	5.512581E-1	5.458673E-1	5.781730E-1	5.524241E-1	6.040010E-1	6.026372E-1	5.684378E-1	6.003269E-1	5.741448E-1	5.918752E-1	5.079127E-1	5.642129E-1	5.951068E-1	5.479617E-1	5.905371E-1	5.628507E-1	5.947559E-1	5.670504E-1	5.840274E-1	5.690747E-1	5.965322E-1	5.581084E-1	5.869492E-1	5.806733E-1	6.201640E-1	5.364537E-1	5.450202E-1	5.901951E-1	6.197232E-1	6.045156E-1	5.830445E-1	6.107529E-1	5.602589E-1	5.966717E-1	5.766708E-1	5.557564E-1	6.537320E-1	5.813023E-1	5.714700E-1	5.938407E-1	5.968756E-1	5.535378E-1	6.283367E-1	6.036896E-1	5.543260E-1	5.822428E-1	6.082866E-1	5.400533E-1	5.886387E-1	5.920394E-1	5.662123E-1	5.606215E-1	6.419633E-1	5.547490E-1	6.134556E-1	6.173998E-1	4.938444E-1	5.128240E-1
2.878000E+2	6.137895E-1	6.214451E-1	6.498860E-1	6.072059E-1	6.576547E-1	6.358323E-1	5.972250E-1	6.161197E-1	5.970723E-1	6.276068E-1	6.283615E-1	6.197218E-1	6.585148E-1	6.303959E-1	6.026556E-1	6.092489E-1	6.131257E-1	6.139567E-1	6.219388E-1	6.024566E-1	6.248570E-1	6.521545E-1	6.728759E-1	6.578349E-1	6.313965E-1	5.892039E-1	6.155608E-1	6.679916E-1	5.905069E-1	6.058823E-1	6.352852E-1	6.045358E-1	5.984136E-1	6.268280E-1	6.081309E-1	6.357202E-1	5.884364E-1	6.178208E-1	6.749623E-1	6.582071E-1	6.513301E-1	6.255668E-1	6.120985E-1	6.174437E-1	6.431787E-1	5.972957E-1	5.812952E-1	6.502907E-1	6.220527E-1	6.834300E-1	5.772205E-1	6.069873E-1	5.606000E-1	5.962221E-1	5.597226E-1	6.523729E-1	6.323408E-1	6.649967E-1	6.430601E-1	6.194258E-1	6.174954E-1	6.148188E-1	6.347247E-1	6.069087E-1	6.490593E-1	5.830483E-1	6.176680E-1	6.360597E-1	6.422884E-1	6.004707E-1	5.991476E-1	6.372646E-1	6.214204E-1	5.759827E-1	6.145189E-1	6.655446E-1	6.648026E-1	6.429086E-1	5.918660E-1	5.830165E-1	6.208292E-1	5.924947E-1	6.863347E-1	6.167210E-1	6.403148E-1	5.602876E-1	5.571789E-1	6.121259E-1	6.318763E-1	6.162084E-1	6.099004E-1	6.189208E-1	6.133401E-1	6.493316E-1	6.132736E-1	5.964394E-1	5.930516E-1	6.514607E-1	5.738851E-1	6.070351E-1	6.121384E-1	6.653688E-1	6.685716E-1	6.625205E-1	6.154171E-1	6.411618E-1	6.150828E-1	6.661433E-1	6.916036E-1	6.166718E-1	6.106731E-1	6.090295E-1	5.990978E-1	5.945537E-1	6.078984E-1	6.265655E-1	6.040213E-1	6.287025E-1	6.086091E-1	6.731007E-1	6.634318E-1	6.254358E-1	6.385653E-1	6.219071E-1	6.562761E-1	6.224246E-1	5.487231E-1	6.082716E-1	6.778196E-1	6.275111E-1	6.218735E-1	6.506392E-1	5.882967E-1	6.542893E-1	6.305375E-1	5.995634E-1	6.428507E-1	6.139989E-1	5.983010E-1	6.163962E-1	5.751625E-1	6.422719E-1	5.837767E-1	6.183134E-1	6.520722E-1	6.893353E-1	6.140289E-1	6.288419E-1	6.318961E-1	6.269637E-1	5.949432E-1	6.532972E-1	6.043801E-1	6.317486E-1	5.905205E-1	5.762096E-1	5.976206E-1	6.325062E-1	6.486503E-1	5.831100E-1	5.817459E-1	5.859656E-1	5.803961E-1	6.350142E-1	6.009436E-1	6.490130E-1	5.792026E-1	5.955656E-1	6.220935E-1	5.534137E-1	5.242787E-1
2.880020E+2	6.282376E-1	6.859614E-1	6.751347E-1	6.813377E-1	7.019654E-1	6.386563E-1	6.819604E-1	6.735360E-1	6.951185E-1	6.879530E-1	7.443156E-1	7.029279E-1	7.334963E-1	6.886332E-1	6.802196E-1	7.097265E-1	7.274852E-1	7.100854E-1	7.021471E-1	6.939154E-1	6.836459E-1	7.294432E-1	7.140014E-1	7.244802E-1	7.117499E-1	7.005476E-1	7.024977E-1	7.337874E-1	6.812971E-1	6.895559E-1	6.964563E-1	7.136947E-1	6.467065E-1	7.601522E-1	7.184896E-1	7.216707E-1	6.885959E-1	7.360862E-1	6.799954E-1	7.179262E-1	7.168692E-1	6.561323E-1	6.723937E-1	6.280878E-1	7.324829E-1	6.756212E-1	6.403929E-1	6.819577E-1	6.940035E-1	6.954785E-1	6.841059E-1	7.160153E-1	7.275882E-1	7.334930E-1	6.820637E-1	7.576576E-1	7.318086E-1	6.660173E-1	7.047207E-1	6.872037E-1	7.098790E-1	7.217500E-1	6.654426E-1	7.621501E-1	7.065322E-1	6.556672E-1	7.128067E-1	6.961378E-1	7.026396E-1	7.210025E-1	7.204928E-1	6.984037E-1	6.836713E-1	6.948537E-1	6.998611E-1	6.761219E-1	7.130110E-1	6.673590E-1	6.592318E-1	6.463242E-1	6.913717E-1	7.086429E-1	7.475885E-1	5.822570E-1	6.904509E-1	6.746221E-1	6.666782E-1	6.930654E-1	7.554280E-1	6.677205E-1	7.449311E-1	7.032996E-1	7.277487E-1	6.963680E-1	7.169557E-1	7.198150E-1	7.255118E-1	6.974240E-1	7.140939E-1	6.888369E-1	6.693353E-1	6.649522E-1	7.111524E-1	7.207034E-1	7.608129E-1	7.297602E-1	6.831144E-1	6.777627E-1	7.448356E-1	7.164096E-1	6.750476E-1	6.829305E-1	6.882598E-1	7.128010E-1	6.417366E-1	7.645038E-1	7.565751E-1	7.557818E-1	6.629542E-1	7.537632E-1	7.122253E-1	6.783999E-1	6.741319E-1	6.900923E-1	6.874820E-1	7.025641E-1	6.333563E-1	7.509929E-1	7.506269E-1	7.199224E-1	7.407863E-1	6.677343E-1	6.967648E-1	6.884738E-1	7.449775E-1	6.996268E-1	6.944413E-1	7.473705E-1	7.159132E-1	6.675421E-1	6.621014E-1	6.759229E-1	6.876211E-1	7.723052E-1	6.887750E-1	6.868189E-1	7.680560E-1	7.666701E-1	6.973330E-1	6.986896E-1	6.940599E-1	6.885846E-1	6.829062E-1	6.798671E-1	7.005138E-1	7.344943E-1	7.346815E-1	7.069909E-1	6.973670E-1	7.383904E-1	7.695942E-1	6.666889E-1	7.199338E-1	6.275786E-1	7.088172E-1	7.153908E-1	7.088562E-1	7.159977E-1	6.423827E-1	8.814930E-1	7.641452E-1
2.882200E+2	7.921260E-1	7.916303E-1	8.057556E-1	7.900981E-1	7.807508E-1	8.133612E-1	7.885810E-1	7.904245E-1	7.867102E-1	7.708618E-1	7.400720E-1	7.922817E-1	7.557186E-1	8.012939E-1	7.255880E-1	7.916022E-1	7.638697E-1	7.952705E-1	7.805282E-1	8.305389E-1	7.429630E-1	8.248602E-1	8.061259E-1	8.023596E-1	7.921793E-1	7.587303E-1	8.713342E-1	7.892655E-1	7.929405E-1	8.204114E-1	7.884154E-1	7.447866E-1	7.910950E-1	7.724032E-1	8.097054E-1	7.947314E-1	7.720175E-1	8.093492E-1	7.939749E-1	8.240798E-1	7.615759E-1	8.073624E-1	7.828809E-1	8.305626E-1	8.345448E-1	7.503169E-1	7.989456E-1	8.197044E-1	8.765735E-1	8.407299E-1	7.121352E-1	8.200101E-1	8.277542E-1	7.611052E-1	7.942688E-1	7.713077E-1	7.863414E-1	7.769492E-1	8.608823E-1	7.762168E-1	7.953336E-1	7.907880E-1	7.402893E-1	8.284714E-1	7.885587E-1	7.669081E-1	7.870308E-1	8.669436E-1	7.820177E-1	8.155393E-1	8.149889E-1	7.901255E-1	7.514424E-1	7.751015E-1	8.004046E-1	8.374745E-1	7.975296E-1	8.145792E-1	8.469421E-1	8.134868E-1	7.757041E-1	7.621951E-1	7.605183E-1	7.539069E-1	8.215744E-1	8.286948E-1	7.754773E-1	7.649861E-1	7.448359E-1	8.188859E-1	7.838595E-1	8.459805E-1	8.257077E-1	8.016193E-1	7.581297E-1	7.919891E-1	8.094207E-1	7.667776E-1	7.746077E-1	8.426392E-1	7.806618E-1	8.094553E-1	7.956791E-1	7.992233E-1	8.015874E-1	7.619129E-1	8.088641E-1	8.085670E-1	8.141100E-1	7.913340E-1	8.269587E-1	7.764086E-1	7.979236E-1	7.828265E-1	7.736421E-1	8.335245E-1	8.411459E-1	7.579261E-1	8.114591E-1	7.624706E-1	8.058837E-1	7.433226E-1	8.257638E-1	7.421357E-1	8.499388E-1	7.601780E-1	7.495257E-1	7.450337E-1	7.646624E-1	8.392643E-1	7.183746E-1	7.530830E-1	7.853327E-1	8.699206E-1	8.010653E-1	8.590731E-1	8.176921E-1	7.587600E-1	7.415953E-1	8.401612E-1	8.344651E-1	8.917209E-1	8.371216E-1	8.386800E-1	7.693734E-1	7.843391E-1	8.655866E-1	8.165110E-1	7.663003E-1	7.964394E-1	8.045013E-1	8.049613E-1	7.731453E-1	7.605370E-1	7.572473E-1	8.332057E-1	7.858839E-1	8.081561E-1	8.216949E-1	7.843375E-1	8.319054E-1	7.939527E-1	8.086838E-1	7.351321E-1	7.983579E-1	8.636031E-1	7.729619E-1	8.072041E-1	7.407697E-1	8.831619E-1	8.786232E-1
2.884180E+2	8.812678E-1	8.799167E-1	8.975582E-1	8.241212E-1	9.189694E-1	9.126077E-1	8.575197E-1	9.055012E-1	8.636544E-1	8.593276E-1	8.861878E-1	8.625933E-1	9.048417E-1	8.389041E-1	8.320127E-1	9.028937E-1	8.947228E-1	8.481789E-1	8.319050E-1	8.329569E-1	8.166761E-1	9.103886E-1	8.935465E-1	9.109072E-1	9.280182E-1	9.322237E-1	9.145111E-1	8.882732E-1	8.624909E-1	8.920304E-1	8.804071E-1	8.532444E-1	8.679884E-1	8.392967E-1	8.602353E-1	8.872497E-1	8.405627E-1	8.904096E-1	8.984753E-1	9.413949E-1	8.924225E-1	8.790368E-1	8.771667E-1	9.032679E-1	9.228674E-1	9.007292E-1	8.520539E-1	8.835076E-1	9.079974E-1	8.853112E-1	8.203219E-1	8.677391E-1	8.925525E-1	8.750875E-1	8.358051E-1	9.371736E-1	8.755927E-1	8.771554E-1	9.244820E-1	9.810603E-1	8.776562E-1	8.953981E-1	8.358133E-1	8.852223E-1	8.657204E-1	8.535798E-1	9.108364E-1	8.776671E-1	8.658613E-1	8.878903E-1	8.795353E-1	9.210362E-1	9.085644E-1	9.243727E-1	8.995928E-1	9.048311E-1	8.781930E-1	8.527187E-1	8.513148E-1	8.277642E-1	8.964323E-1	8.795136E-1	8.818875E-1	9.140615E-1	9.199286E-1	8.517540E-1	8.663678E-1	8.990594E-1	9.235989E-1	8.595574E-1	9.095046E-1	8.853600E-1	8.796780E-1	8.624818E-1	8.346023E-1	8.744746E-1	8.410812E-1	8.729830E-1	8.818708E-1	8.430969E-1	8.256961E-1	9.454399E-1	8.962589E-1	9.081174E-1	9.064801E-1	8.515992E-1	8.650358E-1	8.669084E-1	8.807369E-1	8.535899E-1	8.890975E-1	9.213318E-1	8.742623E-1	8.388349E-1	8.697528E-1	9.242380E-1	8.965242E-1	8.910422E-1	8.476540E-1	8.994345E-1	8.530582E-1	9.139229E-1	9.185520E-1	9.166725E-1	8.774733E-1	8.696695E-1	8.600912E-1	8.875542E-1	9.394139E-1	9.228600E-1	8.901556E-1	9.523670E-1	9.192833E-1	9.477348E-1	9.176249E-1	9.541106E-1	8.404122E-1	9.910206E-1	8.367762E-1	8.847082E-1	8.924380E-1	8.782061E-1	7.913638E-1	9.311575E-1	9.416319E-1	9.144420E-1	9.342472E-1	8.674239E-1	8.904859E-1	8.389678E-1	9.132683E-1	9.173299E-1	9.164717E-1	8.514157E-1	7.613793E-1	8.138365E-1	9.196574E-1	8.970349E-1	8.793969E-1	8.905658E-1	9.221778E-1	8.816463E-1	8.676123E-1	8.903634E-1	8.679371E-1	9.052010E-1	9.123975E-1	8.786499E-1	9.058011E-1	8.522162E-1	9.512359E-1
2.886030E+2	1.026709E+0	9.608121E-1	9.824176E-1	1.017512E+0	1.083601E+0	9.974863E-1	9.887974E-1	1.031726E+0	9.965297E-1	1.018206E+0	9.644612E-1	1.022744E+0	1.001153E+0	1.000466E+0	9.928837E-1	9.359600E-1	1.050568E+0	1.071283E+0	9.809175E-1	9.991791E-1	9.812774E-1	1.038127E+0	1.031880E+0	1.045791E+0	9.670059E-1	1.027569E+0	1.045438E+0	9.895574E-1	1.016903E+0	1.005784E+0	1.081818E+0	1.002619E+0	1.027440E+0	9.768309E-1	9.377324E-1	1.037878E+0	9.601082E-1	9.654963E-1	9.562354E-1	1.016337E+0	1.023613E+0	9.966043E-1	1.007624E+0	1.034001E+0	1.079146E+0	9.922882E-1	9.654306E-1	1.037729E+0	9.869106E-1	1.018825E+0	9.518117E-1	9.776384E-1	9.646565E-1	1.023889E+0	9.931797E-1	9.682618E-1	1.046434E+0	9.638740E-1	1.031983E+0	9.863234E-1	1.004047E+0	1.085524E+0	9.899563E-1	1.014851E+0	9.596560E-1	9.811953E-1	1.009344E+0	9.814620E-1	9.728283E-1	9.922793E-1	1.000465E+0	9.831500E-1	9.686006E-1	1.027291E+0	9.609908E-1	1.055215E+0	1.027141E+0	9.898041E-1	9.399921E-1	9.805186E-1	1.042099E+0	9.829880E-1	9.879148E-1	1.022583E+0	9.845027E-1	9.604710E-1	9.522178E-1	9.901059E-1	9.971038E-1	1.042688E+0	9.718118E-1	1.051430E+0	9.931797E-1	1.005180E+0	1.014306E+0	1.002802E+0	9.551863E-1	1.075857E+0	9.174242E-1	9.979616E-1	9.721021E-1	9.937621E-1	9.699963E-1	9.903808E-1	9.735832E-1	1.025955E+0	1.008736E+0	1.062205E+0	1.040078E+0	1.050602E+0	9.323511E-1	1.039068E+0	1.000681E+0	9.812879E-1	9.402831E-1	1.029432E+0	1.007023E+0	1.049320E+0	9.717995E-1	1.018760E+0	9.842866E-1	9.818462E-1	1.033801E+0	1.053180E+0	9.627027E-1	1.022274E+0	9.621089E-1	1.011057E+0	1.017995E+0	9.692569E-1	9.303216E-1	1.028567E+0	1.014285E+0	1.048857E+0	9.848899E-1	1.071928E+0	9.619068E-1	1.012876E+0	9.167822E-1	1.040872E+0	1.035385E+0	9.514344E-1	9.959337E-1	1.003475E+0	9.954425E-1	1.091078E+0	1.027076E+0	9.630559E-1	9.740281E-1	1.036125E+0	9.556465E-1	9.626607E-1	9.798333E-1	1.030580E+0	9.562828E-1	9.610902E-1	1.045165E+0	9.489391E-1	9.676968E-1	9.985685E-1	1.010810E+0	9.962572E-1	9.769499E-1	1.071469E+0	9.521017E-1	1.021908E+0	9.943251E-1	1.040373E+0	1.022342E+0	9.720142E-1	1.066450E+0
2.888130E+2	1.207583E+0	1.232043E+0	1.281611E+0	1.253606E+0	1.393708E+0	1.280046E+0	1.208749E+0	1.337320E+0	1.299318E+0	1.247833E+0	1.269624E+0	1.217434E+0	1.354055E+0	1.250433E+0	1.218011E+0	1.207343E+0	1.220539E+0	1.252936E+0	1.234319E+0	1.281543E+0	1.296234E+0	1.231797E+0	1.215844E+0	1.227601E+0	1.172885E+0	1.164262E+0	1.255934E+0	1.248809E+0	1.204164E+0	1.180218E+0	1.279695E+0	1.178698E+0	1.284854E+0	1.222939E+0	1.232700E+0	1.286612E+0	1.187952E+0	1.208809E+0	1.230806E+0	1.287426E+0	1.188045E+0	1.234898E+0	1.201405E+0	1.278953E+0	1.253563E+0	1.273791E+0	1.211727E+0	1.255649E+0	1.250052E+0	1.188718E+0	1.169365E+0	1.300855E+0	1.183859E+0	1.215201E+0	1.217751E+0	1.222995E+0	1.299381E+0	1.238715E+0	1.262149E+0	1.339287E+0	1.409798E+0	1.261661E+0	1.216970E+0	1.241692E+0	1.229719E+0	1.208795E+0	1.224665E+0	1.218076E+0	1.244997E+0	1.273692E+0	1.221981E+0	1.281800E+0	1.245253E+0	1.259268E+0	1.278760E+0	1.329734E+0	1.272112E+0	1.292085E+0	1.179214E+0	1.178793E+0	1.170313E+0	1.194904E+0	1.241819E+0	1.190854E+0	1.259859E+0	1.235443E+0	1.242040E+0	1.262490E+0	1.205174E+0	1.274042E+0	1.283223E+0	1.245715E+0	1.286979E+0	1.191625E+0	1.229721E+0	1.192970E+0	1.227893E+0	1.154805E+0	1.205989E+0	1.275396E+0	1.199716E+0	1.374546E+0	1.220210E+0	1.247093E+0	1.251609E+0	1.211410E+0	1.161151E+0	1.265490E+0	1.252643E+0	1.238102E+0	1.242998E+0	1.251396E+0	1.318167E+0	1.273485E+0	1.230373E+0	1.265400E+0	1.295038E+0	1.259086E+0	1.171734E+0	1.263668E+0	1.261912E+0	1.214428E+0	1.227065E+0	1.273367E+0	1.243570E+0	1.236770E+0	1.194575E+0	1.283832E+0	1.261181E+0	1.296586E+0	1.277761E+0	1.228225E+0	1.239306E+0	1.277895E+0	1.239151E+0	1.252405E+0	1.214409E+0	1.182274E+0	1.326333E+0	1.207740E+0	1.220205E+0	1.266226E+0	1.231044E+0	1.226453E+0	1.295411E+0	1.181395E+0	1.288536E+0	1.295065E+0	1.247232E+0	1.278087E+0	1.295292E+0	1.287664E+0	1.290093E+0	1.231216E+0	1.195314E+0	1.295077E+0	1.184785E+0	1.259075E+0	1.207137E+0	1.358308E+0	1.328050E+0	1.176918E+0	1.223013E+0	1.257833E+0	1.291238E+0	1.227732E+0	1.279027E+0	1.244175E+0	1.280148E+0	1.361821E+0	1.199859E+0
2.890230E+2	1.094205E+0	1.027185E+0	1.170914E+0	1.116511E+0	1.073099E+0	1.126083E+0	1.093188E+0	1.167556E+0	1.069655E+0	1.062260E+0	1.047917E+0	1.098352E+0	1.083757E+0	1.103215E+0	1.097439E+0	1.064225E+0	1.039322E+0	1.093991E+0	1.114164E+0	1.124424E+0	1.095238E+0	1.155281E+0	1.035383E+0	1.120374E+0	1.095689E+0	1.082893E+0	1.085482E+0	1.085199E+0	9.896346E-1	1.080449E+0	1.025631E+0	1.102115E+0	1.096214E+0	1.058437E+0	1.125749E+0	1.058430E+0	1.112985E+0	1.070027E+0	1.109329E+0	1.126778E+0	1.042702E+0	1.083362E+0	1.171790E+0	1.088403E+0	1.055823E+0	1.075283E+0	1.041858E+0	1.047116E+0	1.130651E+0	1.069927E+0	1.022117E+0	1.135961E+0	1.021409E+0	1.009497E+0	1.085378E+0	1.104446E+0	1.101258E+0	1.070089E+0	1.113896E+0	1.047072E+0	1.108907E+0	1.073062E+0	1.040743E+0	1.207474E+0	1.083938E+0	1.111047E+0	1.025934E+0	1.168238E+0	1.175777E+0	1.069776E+0	1.126184E+0	1.121166E+0	1.098837E+0	1.107902E+0	1.028292E+0	1.109067E+0	1.157753E+0	1.089799E+0	1.063724E+0	1.008864E+0	1.076338E+0	1.015174E+0	1.012660E+0	1.065736E+0	1.057686E+0	1.056649E+0	1.020780E+0	1.119130E+0	1.138725E+0	1.121060E+0	1.049536E+0	1.108542E+0	1.097265E+0	1.008756E+0	1.111894E+0	1.146824E+0	1.128185E+0	1.096457E+0	1.063714E+0	1.093616E+0	1.064830E+0	1.072182E+0	1.112550E+0	1.016279E+0	1.058297E+0	1.120850E+0	1.036109E+0	1.083365E+0	1.158713E+0	1.039610E+0	1.081300E+0	1.085162E+0	1.060120E+0	1.120682E+0	1.047540E+0	1.108078E+0	1.106692E+0	1.044979E+0	1.159466E+0	1.114983E+0	1.099368E+0	1.139870E+0	1.132123E+0	1.053930E+0	1.115625E+0	1.059048E+0	1.054118E+0	1.076425E+0	1.066955E+0	1.143424E+0	1.044554E+0	1.081992E+0	1.037174E+0	1.122022E+0	1.073569E+0	1.106964E+0	9.826591E-1	1.143760E+0	1.080722E+0	1.131125E+0	1.089295E+0	1.088053E+0	1.077357E+0	1.163033E+0	1.190739E+0	1.119615E+0	1.047473E+0	1.191019E+0	1.146140E+0	1.039843E+0	1.104748E+0	1.101427E+0	1.031197E+0	1.074926E+0	1.071986E+0	1.160331E+0	1.085355E+0	1.096563E+0	1.083763E+0	1.127600E+0	1.111970E+0	1.050168E+0	1.075390E+0	1.168574E+0	1.066423E+0	1.120965E+0	1.100316E+0	1.118870E+0	1.082820E+0	1.027183E+0	1.053000E+0
2.892010E+2	8.458333E-1	8.937588E-1	8.246978E-1	8.725647E-1	8.758556E-1	8.137130E-1	7.966145E-1	8.499297E-1	8.337911E-1	8.639059E-1	8.279818E-1	8.741933E-1	8.320853E-1	8.324094E-1	8.557985E-1	8.664092E-1	9.028142E-1	8.391154E-1	8.287311E-1	8.575010E-1	8.842842E-1	7.638292E-1	8.526376E-1	8.704421E-1	8.547624E-1	8.770987E-1	8.753328E-1	8.819751E-1	8.390362E-1	8.251419E-1	8.611942E-1	8.154158E-1	8.667283E-1	9.005282E-1	8.563190E-1	8.937386E-1	8.513503E-1	8.434358E-1	8.112987E-1	8.118766E-1	7.752536E-1	8.366127E-1	7.779531E-1	8.511127E-1	8.746178E-1	8.827615E-1	8.185222E-1	7.643985E-1	8.351580E-1	8.921969E-1	8.760185E-1	8.772878E-1	8.629353E-1	8.776437E-1	8.866643E-1	8.230356E-1	8.713050E-1	8.428266E-1	8.317186E-1	8.414794E-1	8.730222E-1	8.589353E-1	8.673289E-1	8.825899E-1	8.562321E-1	7.983012E-1	7.908158E-1	9.035899E-1	8.978181E-1	8.444947E-1	8.432214E-1	8.739449E-1	8.964569E-1	8.812732E-1	8.259516E-1	8.511857E-1	8.757423E-1	9.383656E-1	8.184040E-1	7.971944E-1	7.930055E-1	8.338141E-1	8.509122E-1	8.499075E-1	8.333711E-1	8.408175E-1	8.413837E-1	8.860996E-1	8.378966E-1	8.426790E-1	8.326128E-1	9.331052E-1	8.600860E-1	8.425508E-1	8.604040E-1	9.020389E-1	8.561775E-1	8.041116E-1	8.531585E-1	8.371699E-1	8.255035E-1	8.830179E-1	8.239723E-1	8.685256E-1	8.848130E-1	8.219284E-1	8.210728E-1	8.551181E-1	8.070033E-1	8.590055E-1	7.751389E-1	8.146973E-1	8.571759E-1	8.340858E-1	8.058023E-1	8.355055E-1	8.548812E-1	8.446480E-1	8.308579E-1	8.452669E-1	8.980739E-1	8.248828E-1	8.373794E-1	8.724705E-1	9.048184E-1	8.467086E-1	8.070768E-1	8.173796E-1	7.961641E-1	8.912958E-1	8.067841E-1	9.358176E-1	8.361437E-1	8.823089E-1	8.188303E-1	8.158227E-1	8.715794E-1	9.046144E-1	8.361778E-1	7.552202E-1	8.807438E-1	8.927190E-1	8.829133E-1	8.315583E-1	8.770892E-1	9.067828E-1	8.761479E-1	8.332828E-1	8.698608E-1	8.477979E-1	8.543293E-1	8.710179E-1	8.421660E-1	8.496152E-1	8.524988E-1	8.403900E-1	8.377503E-1	8.583134E-1	8.488265E-1	8.424780E-1	9.103632E-1	8.203552E-1	8.646026E-1	8.397790E-1	7.659679E-1	8.927757E-1	8.342016E-1	9.259624E-1	8.344774E-1	9.344041E-1	8.846649E-1
2.894040E+2	6.555693E-1	6.755413E-1	7.360067E-1	6.919696E-1	7.337210E-1	7.442203E-1	7.844030E-1	7.287291E-1	6.940216E-1	6.918865E-1	7.054767E-1	7.296801E-1	7.040488E-1	6.988703E-1	7.608586E-1	6.904868E-1	7.496216E-1	7.380286E-1	7.224935E-1	6.785811E-1	6.830925E-1	7.502484E-1	7.317314E-1	7.198498E-1	7.357470E-1	7.254143E-1	7.374333E-1	8.331306E-1	7.185243E-1	7.401901E-1	7.366354E-1	6.764790E-1	6.980635E-1	7.110404E-1	7.331003E-1	7.119081E-1	7.142179E-1	7.672997E-1	7.022652E-1	7.354020E-1	7.576052E-1	7.204510E-1	7.552990E-1	6.914831E-1	7.445093E-1	7.445562E-1	7.204053E-1	7.089017E-1	7.833858E-1	6.964866E-1	7.032128E-1	7.384199E-1	7.209346E-1	7.641998E-1	7.039779E-1	6.979269E-1	7.197609E-1	6.433740E-1	7.519305E-1	7.735434E-1	7.379010E-1	7.464187E-1	7.259982E-1	7.019193E-1	6.812561E-1	7.334701E-1	7.007793E-1	7.711608E-1	7.325495E-1	6.986906E-1	7.264028E-1	6.998589E-1	7.668690E-1	7.694022E-1	6.956147E-1	7.281634E-1	7.121860E-1	7.626117E-1	7.185800E-1	7.359141E-1	7.049075E-1	7.133716E-1	6.991487E-1	6.512701E-1	6.886487E-1	6.631748E-1	6.620327E-1	7.502368E-1	7.588470E-1	6.636841E-1	6.510221E-1	7.674139E-1	7.152670E-1	6.899973E-1	7.632833E-1	7.310188E-1	7.148659E-1	7.171787E-1	7.325460E-1	7.228183E-1	7.130286E-1	7.568400E-1	7.120236E-1	6.830512E-1	7.318538E-1	6.633707E-1	7.200735E-1	7.436055E-1	7.440108E-1	7.000087E-1	6.457931E-1	7.352414E-1	6.845531E-1	6.680731E-1	6.460962E-1	7.359724E-1	7.463907E-1	7.128542E-1	7.106933E-1	6.558187E-1	6.860593E-1	7.164453E-1	7.121638E-1	7.451262E-1	7.205121E-1	6.755724E-1	6.707216E-1	6.806426E-1	6.965949E-1	7.814874E-1	7.762757E-1	7.517042E-1	7.240561E-1	7.601329E-1	7.193209E-1	7.817026E-1	6.979132E-1	7.739490E-1	7.870324E-1	7.608921E-1	6.787796E-1	8.088238E-1	6.823655E-1	7.361051E-1	6.897541E-1	7.015745E-1	7.789568E-1	6.971063E-1	7.183833E-1	7.822466E-1	7.800533E-1	7.874833E-1	7.320028E-1	7.178935E-1	6.931026E-1	7.884359E-1	7.528147E-1	6.693933E-1	7.436235E-1	7.435141E-1	6.853904E-1	7.059434E-1	7.524454E-1	7.718414E-1	7.691045E-1	7.627839E-1	6.505967E-1	8.327683E-1	7.139511E-1	7.734969E-1	6.847933E-1
2.896080E+2	8.023718E-1	7.830695E-1	7.777725E-1	7.705665E-1	8.836268E-1	8.159230E-1	8.150618E-1	8.020625E-1	8.288910E-1	7.884255E-1	8.021806E-1	8.516262E-1	8.579953E-1	8.136645E-1	8.180158E-1	7.550029E-1	8.064310E-1	7.863251E-1	8.070101E-1	8.165062E-1	8.550041E-1	8.581310E-1	8.381899E-1	7.808218E-1	8.899961E-1	8.801974E-1	8.231225E-1	8.439725E-1	7.983121E-1	8.451096E-1	7.897557E-1	7.454071E-1	8.041601E-1	7.807422E-1	8.181653E-1	8.049081E-1	8.252269E-1	8.214380E-1	8.358714E-1	8.364051E-1	8.536108E-1	7.677829E-1	7.442391E-1	7.650762E-1	7.928375E-1	7.490520E-1	7.543212E-1	7.515169E-1	8.501975E-1	8.141009E-1	7.681650E-1	8.294041E-1	7.504288E-1	8.365270E-1	7.756785E-1	7.837619E-1	7.947736E-1	7.372544E-1	7.929821E-1	8.219248E-1	7.709325E-1	8.517945E-1	8.238022E-1	8.166116E-1	7.677143E-1	8.193422E-1	8.214396E-1	8.383046E-1	7.720543E-1	7.451541E-1	7.822430E-1	8.084949E-1	7.881112E-1	7.726771E-1	7.522057E-1	7.847239E-1	8.394835E-1	8.088643E-1	7.531241E-1	8.007300E-1	7.849893E-1	8.654499E-1	7.988771E-1	8.153222E-1	7.901314E-1	8.009044E-1	7.493040E-1	8.068180E-1	7.562220E-1	8.009385E-1	7.976534E-1	8.056556E-1	8.643703E-1	7.574104E-1	7.817527E-1	7.741243E-1	8.257157E-1	7.438144E-1	8.088541E-1	8.203725E-1	7.344531E-1	8.555177E-1	8.283475E-1	7.661890E-1	8.059748E-1	8.036478E-1	8.021734E-1	7.660325E-1	7.990323E-1	7.651106E-1	8.283074E-1	7.836693E-1	8.675693E-1	7.547924E-1	7.492171E-1	8.344978E-1	8.541557E-1	7.320545E-1	7.675818E-1	8.109573E-1	8.444996E-1	7.407300E-1	7.812345E-1	7.463651E-1	7.793368E-1	8.423510E-1	7.835138E-1	8.061714E-1	8.368737E-1	8.863302E-1	7.575345E-1	8.531801E-1	8.171971E-1	8.770096E-1	8.651782E-1	8.209287E-1	8.306092E-1	7.536184E-1	7.707914E-1	8.659202E-1	8.010293E-1	8.520995E-1	8.275550E-1	7.803727E-1	8.081289E-1	8.905604E-1	8.378076E-1	8.251624E-1	8.433916E-1	8.033002E-1	8.013627E-1	8.105065E-1	7.934132E-1	8.072542E-1	7.849359E-1	8.673853E-1	8.364157E-1	8.031056E-1	7.662457E-1	8.308414E-1	8.388341E-1	8.783414E-1	8.266267E-1	7.677693E-1	8.085891E-1	8.003035E-1	8.330242E-1	8.283981E-1	8.072393E-1	8.179249E-1	9.230154E-1
2.898030E+2	8.014576E-1	8.729818E-1	8.686873E-1	8.699740E-1	8.713041E-1	8.426325E-1	8.442835E-1	8.420326E-1	8.386079E-1	7.972799E-1	8.541928E-1	8.457911E-1	8.612993E-1	9.030784E-1	8.508710E-1	8.759095E-1	9.158485E-1	7.834763E-1	8.510289E-1	8.454562E-1	8.214614E-1	8.435047E-1	8.764483E-1	8.869838E-1	8.451426E-1	8.273738E-1	8.826162E-1	8.396758E-1	8.805286E-1	8.931119E-1	8.461906E-1	8.349075E-1	8.387249E-1	8.623664E-1	8.667637E-1	8.823096E-1	8.203074E-1	7.708336E-1	8.049264E-1	8.980234E-1	7.908394E-1	8.089073E-1	8.174854E-1	8.486361E-1	8.542920E-1	8.408760E-1	7.774209E-1	8.152546E-1	8.569802E-1	8.607866E-1	8.014099E-1	8.182861E-1	8.377222E-1	8.952183E-1	8.272303E-1	8.703971E-1	8.428602E-1	8.589158E-1	8.249514E-1	8.845011E-1	9.232638E-1	8.389960E-1	8.511859E-1	8.735183E-1	8.791163E-1	8.469211E-1	8.227147E-1	8.249354E-1	9.170143E-1	8.004161E-1	8.030230E-1	8.030816E-1	8.345181E-1	9.414357E-1	8.967328E-1	9.051093E-1	7.849064E-1	8.507163E-1	8.618638E-1	8.538588E-1	8.610342E-1	8.145148E-1	8.721339E-1	7.962181E-1	8.783574E-1	8.280784E-1	8.127138E-1	8.794075E-1	8.850624E-1	8.206467E-1	7.836871E-1	8.335445E-1	8.243074E-1	8.524059E-1	8.415661E-1	8.405207E-1	8.344811E-1	8.375758E-1	8.402745E-1	7.943924E-1	8.423513E-1	8.459277E-1	7.757069E-1	8.487050E-1	8.446507E-1	8.030552E-1	8.330299E-1	8.507309E-1	8.614216E-1	8.991458E-1	8.184861E-1	8.774822E-1	8.363900E-1	7.931674E-1	8.223360E-1	8.043212E-1	8.656059E-1	8.300472E-1	8.580124E-1	8.278217E-1	8.687710E-1	8.114900E-1	8.711432E-1	8.625214E-1	8.157099E-1	8.525470E-1	7.718398E-1	8.208449E-1	8.084189E-1	8.393395E-1	8.169244E-1	7.841939E-1	8.523102E-1	9.027927E-1	8.240696E-1	8.451308E-1	9.043484E-1	8.392053E-1	8.890247E-1	8.569164E-1	7.725286E-1	8.898773E-1	8.241926E-1	8.850126E-1	9.232123E-1	8.745175E-1	9.454921E-1	8.481712E-1	8.846468E-1	9.094632E-1	8.422598E-1	8.718127E-1	8.657165E-1	8.491830E-1	8.156671E-1	9.029504E-1	9.129210E-1	7.909187E-1	8.471922E-1	8.490605E-1	8.606156E-1	8.434204E-1	8.824465E-1	8.851909E-1	8.190068E-1	8.729853E-1	8.401831E-1	8.739708E-1	8.747236E-1	9.079371E-1	7.706336E-1
2.900050E+2	7.989852E-1	8.259208E-1	8.819739E-1	7.338276E-1	8.823988E-1	8.652687E-1	8.323345E-1	8.287932E-1	8.298491E-1	8.143952E-1	7.810931E-1	8.803604E-1	7.970957E-1	8.362626E-1	8.422620E-1	7.867609E-1	8.788558E-1	8.326277E-1	7.883631E-1	8.942530E-1	8.056724E-1	8.545549E-1	8.421215E-1	7.978692E-1	8.277705E-1	8.634710E-1	8.559274E-1	8.865552E-1	8.189189E-1	8.271855E-1	8.554002E-1	7.959470E-1	8.278560E-1	8.275181E-1	9.015003E-1	8.371936E-1	8.099912E-1	8.717457E-1	8.330123E-1	8.332034E-1	8.040093E-1	8.377289E-1	8.064744E-1	8.008259E-1	8.094052E-1	8.445151E-1	7.811095E-1	7.444462E-1	8.479665E-1	8.631053E-1	8.158965E-1	8.630796E-1	7.458217E-1	7.779508E-1	7.795315E-1	8.135301E-1	8.564748E-1	8.307868E-1	8.729048E-1	8.859864E-1	8.521023E-1	8.774105E-1	8.103783E-1	8.415426E-1	8.642911E-1	8.326809E-1	8.586916E-1	8.319811E-1	9.064815E-1	8.417325E-1	8.563711E-1	8.009984E-1	9.117270E-1	8.371786E-1	8.207814E-1	8.177102E-1	8.178412E-1	8.313969E-1	8.043774E-1	8.311801E-1	7.771048E-1	8.682322E-1	8.359741E-1	7.704228E-1	8.477284E-1	8.277625E-1	7.845373E-1	8.741138E-1	9.087781E-1	8.243196E-1	8.241338E-1	8.482686E-1	8.522003E-1	8.341962E-1	8.498102E-1	8.761651E-1	8.681810E-1	8.096899E-1	8.284648E-1	7.774995E-1	8.365921E-1	8.042553E-1	8.974672E-1	8.090402E-1	8.551283E-1	8.106717E-1	7.362458E-1	8.188247E-1	8.538374E-1	7.822874E-1	8.090036E-1	8.793142E-1	9.212315E-1	8.395608E-1	7.994528E-1	7.598369E-1	8.658660E-1	8.691023E-1	7.730468E-1	7.780585E-1	8.688510E-1	8.645599E-1	7.869075E-1	7.927235E-1	8.205653E-1	8.256365E-1	8.051987E-1	7.900044E-1	8.740747E-1	8.616773E-1	8.138767E-1	7.904906E-1	8.192016E-1	8.305998E-1	8.031408E-1	7.968240E-1	7.934893E-1	8.895688E-1	7.878752E-1	8.076936E-1	7.884371E-1	8.231715E-1	8.413976E-1	7.934289E-1	8.145167E-1	8.462457E-1	7.876932E-1	8.493386E-1	8.110566E-1	8.319920E-1	8.683268E-1	7.944556E-1	8.324858E-1	7.956138E-1	8.394818E-1	8.911650E-1	8.404917E-1	8.531344E-1	8.209044E-1	8.363761E-1	8.718164E-1	7.876024E-1	8.302632E-1	8.533154E-1	7.943683E-1	8.544023E-1	7.832677E-1	8.760590E-1	7.970548E-1	8.756555E-1	1.007304E+0
2.905200E+2	6.778995E-1	7.027625E-1	7.577483E-1	7.412470E-1	7.706972E-1	7.415324E-1	7.191240E-1	7.322963E-1	7.429912E-1	7.338242E-1	6.864329E-1	7.438400E-1	7.526935E-1	7.561116E-1	7.717493E-1	7.597685E-1	7.377937E-1	6.878717E-1	7.292347E-1	8.007130E-1	7.653224E-1	7.787856E-1	7.874412E-1	7.472025E-1	7.228839E-1	6.979509E-1	7.469498E-1	7.477694E-1	7.663865E-1	7.989329E-1	7.483833E-1	7.204957E-1	7.870434E-1	7.217487E-1	7.843134E-1	7.444400E-1	7.404596E-1	7.733092E-1	7.984399E-1	7.055632E-1	7.321018E-1	7.525210E-1	6.979275E-1	7.849005E-1	7.536603E-1	7.673344E-1	7.363794E-1	7.792102E-1	8.082482E-1	7.869170E-1	7.193109E-1	8.118071E-1	8.328216E-1	7.424396E-1	7.304152E-1	7.556866E-1	8.131215E-1	7.390293E-1	7.901884E-1	7.220623E-1	6.973288E-1	7.603637E-1	7.496317E-1	7.660475E-1	6.979099E-1	7.603253E-1	8.032420E-1	7.831103E-1	7.668670E-1	7.722551E-1	7.366839E-1	7.722918E-1	7.693351E-1	7.849356E-1	7.731744E-1	7.593515E-1	7.886202E-1	7.914617E-1	6.971488E-1	7.988522E-1	7.563024E-1	7.230429E-1	7.673097E-1	7.646412E-1	7.525264E-1	7.723400E-1	7.193665E-1	7.212150E-1	7.981525E-1	7.396292E-1	7.590410E-1	7.519721E-1	7.445032E-1	7.286332E-1	7.003517E-1	7.589716E-1	7.502361E-1	7.245886E-1	7.641249E-1	7.175542E-1	7.290218E-1	7.755756E-1	7.512036E-1	7.733423E-1	7.966586E-1	7.605379E-1	7.632915E-1	7.655667E-1	7.586592E-1	7.626346E-1	7.204413E-1	7.882500E-1	8.463091E-1	7.130021E-1	7.145627E-1	7.304566E-1	7.595394E-1	8.035861E-1	7.237600E-1	7.304833E-1	7.205825E-1	7.607156E-1	7.674150E-1	7.597299E-1	7.218558E-1	7.133546E-1	7.497328E-1	8.293755E-1	7.534836E-1	7.261132E-1	7.458468E-1	7.265412E-1	6.989075E-1	7.363421E-1	7.952929E-1	7.579719E-1	6.883829E-1	7.475212E-1	7.456855E-1	7.425037E-1	7.298859E-1	7.449621E-1	7.179884E-1	8.048811E-1	7.503612E-1	8.130793E-1	7.733877E-1	7.412604E-1	7.584779E-1	7.801754E-1	7.858843E-1	7.986288E-1	7.992185E-1	7.382634E-1	7.297389E-1	7.686550E-1	7.355186E-1	7.669711E-1	8.163852E-1	7.190264E-1	7.476048E-1	7.387416E-1	7.660296E-1	7.800887E-1	7.817292E-1	8.066736E-1	7.506473E-1	7.189525E-1	7.582050E-1	7.823760E-1	8.025250E-1
2.910060E+2	8.692575E-1	8.201022E-1	9.423566E-1	8.969404E-1	9.029915E-1	9.458802E-1	8.802950E-1	9.667454E-1	8.750391E-1	9.373034E-1	8.523791E-1	9.493917E-1	9.064858E-1	8.916265E-1	8.736973E-1	9.338792E-1	9.367865E-1	9.166842E-1	8.740053E-1	9.075945E-1	9.455118E-1	8.837450E-1	9.793339E-1	9.253388E-1	9.080704E-1	9.317665E-1	9.548644E-1	9.074653E-1	8.988593E-1	9.675498E-1	9.460133E-1	9.591366E-1	9.217331E-1	9.200482E-1	9.582493E-1	9.341400E-1	8.611595E-1	9.679054E-1	8.778490E-1	9.839220E-1	9.783316E-1	9.581720E-1	9.998808E-1	8.737981E-1	9.516962E-1	8.612918E-1	9.799010E-1	9.218735E-1	8.547388E-1	8.745518E-1	9.089089E-1	9.233634E-1	9.273481E-1	9.310891E-1	9.736092E-1	9.154025E-1	9.835600E-1	8.805869E-1	9.187141E-1	9.490108E-1	8.985677E-1	9.694087E-1	8.478200E-1	8.763473E-1	9.514031E-1	8.920437E-1	8.696348E-1	9.273172E-1	9.044945E-1	9.457485E-1	9.820596E-1	8.915295E-1	9.888049E-1	8.922504E-1	9.785411E-1	9.654747E-1	9.137625E-1	8.963547E-1	9.130158E-1	8.565276E-1	8.377843E-1	8.969993E-1	9.322755E-1	9.264612E-1	8.957949E-1	9.105393E-1	8.541807E-1	9.302360E-1	9.007709E-1	9.598581E-1	9.381195E-1	9.297702E-1	9.522064E-1	8.723432E-1	9.321462E-1	8.946746E-1	9.176086E-1	8.799911E-1	8.505780E-1	8.167735E-1	9.036291E-1	8.655223E-1	9.163013E-1	8.883869E-1	8.774159E-1	9.436692E-1	9.717073E-1	9.508739E-1	9.792449E-1	8.612239E-1	9.077973E-1	8.882324E-1	9.549305E-1	8.333997E-1	9.077938E-1	9.313719E-1	9.754911E-1	9.274447E-1	9.137798E-1	8.520614E-1	9.197820E-1	9.146292E-1	9.530386E-1	9.012057E-1	9.239131E-1	8.611940E-1	8.574979E-1	8.707365E-1	9.050468E-1	9.510866E-1	8.841508E-1	9.307818E-1	9.650648E-1	9.030298E-1	9.138672E-1	9.173104E-1	8.875056E-1	9.802146E-1	9.396515E-1	1.034489E+0	9.471865E-1	9.288343E-1	9.203954E-1	9.304100E-1	8.771756E-1	9.292846E-1	9.326989E-1	8.896866E-1	8.927860E-1	9.067775E-1	8.612033E-1	9.120379E-1	9.654129E-1	9.398723E-1	9.553718E-1	8.652183E-1	9.320130E-1	8.756033E-1	8.877242E-1	9.693181E-1	9.084473E-1	9.620598E-1	8.896721E-1	8.659925E-1	9.425287E-1	9.647719E-1	1.001308E+0	9.606121E-1	8.909562E-1	9.629283E-1	8.546901E-1
2.915180E+2	1.164204E+0	1.205639E+0	1.250296E+0	1.198368E+0	1.257383E+0	1.266939E+0	1.155832E+0	1.218423E+0	1.187498E+0	1.201843E+0	1.227929E+0	1.202444E+0	1.270623E+0	1.282387E+0	1.188570E+0	1.246961E+0	1.204708E+0	1.188915E+0	1.180927E+0	1.211978E+0	1.265479E+0	1.288492E+0	1.273341E+0	1.264797E+0	1.269660E+0	1.244688E+0	1.317023E+0	1.208489E+0	1.251959E+0	1.303755E+0	1.248871E+0	1.166433E+0	1.212436E+0	1.285326E+0	1.200870E+0	1.202014E+0	1.232567E+0	1.237311E+0	1.179359E+0	1.203295E+0	1.255097E+0	1.189200E+0	1.298889E+0	1.254516E+0	1.192339E+0	1.199770E+0	1.243165E+0	1.285471E+0	1.273482E+0	1.230468E+0	1.162072E+0	1.205259E+0	1.200587E+0	1.211222E+0	1.254444E+0	1.246302E+0	1.284567E+0	1.233474E+0	1.298033E+0	1.206799E+0	1.226206E+0	1.261624E+0	1.327363E+0	1.219421E+0	1.179359E+0	1.221248E+0	1.196259E+0	1.247881E+0	1.194016E+0	1.224310E+0	1.235346E+0	1.247850E+0	1.157285E+0	1.151846E+0	1.301948E+0	1.226720E+0	1.271774E+0	1.254260E+0	1.131117E+0	1.188362E+0	1.248065E+0	1.158617E+0	1.204798E+0	1.114851E+0	1.133129E+0	1.182302E+0	1.187542E+0	1.163864E+0	1.221343E+0	1.221651E+0	1.235457E+0	1.217827E+0	1.293935E+0	1.169730E+0	1.178890E+0	1.238470E+0	1.233237E+0	1.219078E+0	1.208567E+0	1.200657E+0	1.223983E+0	1.228801E+0	1.253414E+0	1.149121E+0	1.253395E+0	1.205125E+0	1.205065E+0	1.191239E+0	1.203994E+0	1.160724E+0	1.190934E+0	1.237278E+0	1.250222E+0	1.263064E+0	1.201203E+0	1.211819E+0	1.299241E+0	1.247552E+0	1.212562E+0	1.161445E+0	1.294178E+0	1.236457E+0	1.275629E+0	1.299201E+0	1.221991E+0	1.290151E+0	1.182772E+0	1.227060E+0	1.259272E+0	1.240065E+0	1.157860E+0	1.164591E+0	1.182854E+0	1.260262E+0	1.161301E+0	1.174243E+0	1.261108E+0	1.171310E+0	1.190758E+0	1.186610E+0	1.245009E+0	1.238800E+0	1.253594E+0	1.263648E+0	1.229296E+0	1.327768E+0	1.299456E+0	1.177682E+0	1.300287E+0	1.244681E+0	1.192386E+0	1.161215E+0	1.214511E+0	1.186337E+0	1.267635E+0	1.237287E+0	1.242499E+0	1.231148E+0	1.174873E+0	1.192895E+0	1.281137E+0	1.220548E+0	1.210433E+0	1.201521E+0	1.204448E+0	1.184287E+0	1.260051E+0	1.222405E+0	1.179371E+0	1.394525E+0	1.389074E+0
2.920030E+2	9.873265E-1	1.014198E+0	9.794943E-1	9.861951E-1	1.048302E+0	1.017213E+0	1.024735E+0	9.561959E-1	9.491897E-1	8.996699E-1	9.684796E-1	1.115166E+0	1.041226E+0	9.765094E-1	9.512130E-1	1.024257E+0	9.704984E-1	9.693221E-1	9.256460E-1	9.800101E-1	1.030642E+0	9.819432E-1	9.748022E-1	1.045221E+0	1.054730E+0	9.255008E-1	1.007483E+0	1.014088E+0	9.998333E-1	1.008565E+0	9.937746E-1	8.976761E-1	9.414012E-1	1.043740E+0	1.050481E+0	9.679755E-1	1.003670E+0	9.775216E-1	1.013818E+0	9.751418E-1	1.021786E+0	9.507144E-1	9.138585E-1	9.016610E-1	1.001153E+0	9.910120E-1	9.630758E-1	9.971205E-1	9.737176E-1	9.883798E-1	9.520638E-1	1.003131E+0	1.096075E+0	1.008636E+0	9.525560E-1	9.653529E-1	9.757419E-1	9.681046E-1	1.034162E+0	1.020420E+0	1.017061E+0	1.029278E+0	9.204454E-1	1.057905E+0	1.071279E+0	9.906666E-1	9.852276E-1	9.573186E-1	1.033001E+0	1.034002E+0	9.677982E-1	1.050620E+0	9.806448E-1	1.071041E+0	1.041568E+0	1.102156E+0	9.985086E-1	1.055437E+0	8.989592E-1	1.021054E+0	1.049460E+0	9.990414E-1	1.006140E+0	9.825542E-1	9.696314E-1	9.055684E-1	9.561683E-1	9.950242E-1	9.623766E-1	9.653220E-1	9.402364E-1	1.004235E+0	9.963362E-1	9.672389E-1	9.488174E-1	9.906429E-1	1.007340E+0	9.835294E-1	1.020700E+0	9.815054E-1	9.667326E-1	1.099623E+0	9.883652E-1	1.014715E+0	9.921156E-1	9.955700E-1	9.472839E-1	1.006810E+0	1.003331E+0	9.306478E-1	9.903817E-1	1.034233E+0	1.019263E+0	9.522038E-1	9.790724E-1	9.602945E-1	1.090896E+0	9.896335E-1	9.901564E-1	1.022418E+0	1.090616E+0	9.435345E-1	1.011976E+0	1.054849E+0	9.366912E-1	1.084099E+0	9.657544E-1	9.431450E-1	1.072987E+0	1.016590E+0	1.029106E+0	9.988476E-1	9.341342E-1	1.047937E+0	9.876835E-1	1.049338E+0	9.728228E-1	1.068099E+0	1.006452E+0	1.027738E+0	1.056951E+0	1.088125E+0	1.094430E+0	9.128718E-1	9.224348E-1	1.094477E+0	9.903611E-1	1.041842E+0	9.326223E-1	1.054870E+0	1.043027E+0	9.740288E-1	1.004492E+0	9.921673E-1	1.011585E+0	1.001760E+0	9.778270E-1	1.041172E+0	1.008969E+0	1.033236E+0	1.016483E+0	1.059640E+0	9.506078E-1	1.058635E+0	9.846050E-1	9.089414E-1	9.995243E-1	9.971444E-1	9.595428E-1	1.027537E+0	1.008301E+0
2.925020E+2	9.627089E-1	8.842282E-1	8.948489E-1	9.815458E-1	9.615381E-1	9.151498E-1	9.508830E-1	8.954419E-1	9.126398E-1	9.371538E-1	9.321303E-1	9.668958E-1	9.684914E-1	9.145246E-1	9.915502E-1	8.878438E-1	9.531800E-1	8.465118E-1	9.205814E-1	1.006861E+0	9.539595E-1	9.285263E-1	9.166593E-1	9.083240E-1	9.449600E-1	8.858556E-1	9.755207E-1	9.047129E-1	9.156238E-1	8.874019E-1	9.492223E-1	8.885937E-1	9.315601E-1	8.945840E-1	9.284229E-1	8.878710E-1	8.722153E-1	9.772413E-1	9.424450E-1	8.908566E-1	8.875311E-1	9.071726E-1	9.481496E-1	9.525255E-1	9.414129E-1	9.548066E-1	8.947955E-1	9.893959E-1	9.114749E-1	1.014978E+0	9.115903E-1	9.657486E-1	1.014513E+0	9.418229E-1	9.256544E-1	9.484353E-1	8.847540E-1	9.304075E-1	9.876138E-1	9.199168E-1	9.632229E-1	9.564818E-1	9.631281E-1	9.421085E-1	9.357076E-1	8.813060E-1	9.381195E-1	1.017864E+0	9.337167E-1	8.999207E-1	9.464827E-1	9.197836E-1	9.207255E-1	9.275521E-1	8.876236E-1	9.121345E-1	9.105727E-1	9.120605E-1	9.085041E-1	9.001487E-1	7.987329E-1	8.877848E-1	9.311457E-1	8.853323E-1	9.776144E-1	9.296959E-1	8.749941E-1	9.888288E-1	9.007391E-1	9.065600E-1	9.391576E-1	1.049362E+0	9.082644E-1	8.226743E-1	9.083149E-1	9.497059E-1	8.699932E-1	9.484577E-1	9.307361E-1	8.836847E-1	8.788182E-1	9.249750E-1	9.154229E-1	9.109266E-1	9.248404E-1	9.204651E-1	8.747754E-1	9.361859E-1	9.289287E-1	9.210277E-1	8.979114E-1	9.535747E-1	9.363618E-1	8.972356E-1	9.089101E-1	9.091591E-1	8.973369E-1	9.582389E-1	9.406748E-1	1.018686E+0	8.824487E-1	9.323101E-1	9.295028E-1	9.489784E-1	9.162998E-1	8.667193E-1	8.747991E-1	9.574721E-1	9.178453E-1	1.035236E+0	8.649551E-1	9.248640E-1	8.835344E-1	9.444113E-1	9.305733E-1	9.501732E-1	9.664946E-1	9.142317E-1	9.364493E-1	9.189173E-1	9.701594E-1	9.047703E-1	9.339344E-1	8.707699E-1	8.588903E-1	9.182046E-1	9.152645E-1	9.241040E-1	1.010395E+0	9.063670E-1	9.149243E-1	9.344627E-1	8.844248E-1	9.647885E-1	9.831061E-1	9.576355E-1	9.790533E-1	9.428509E-1	9.393117E-1	9.312094E-1	9.898978E-1	9.153943E-1	9.494901E-1	9.487165E-1	8.727456E-1	9.075192E-1	9.363207E-1	9.485039E-1	9.359294E-1	9.597663E-1	8.380168E-1
2.930050E+2	9.517186E-1	9.201848E-1	9.378968E-1	9.442013E-1	9.985120E-1	9.772728E-1	8.740718E-1	9.799695E-1	1.006901E+0	9.283388E-1	9.481183E-1	9.097715E-1	9.974130E-1	9.906783E-1	9.779231E-1	9.388013E-1	9.698778E-1	9.421494E-1	9.357449E-1	9.398006E-1	1.005443E+0	9.608731E-1	9.946924E-1	1.003876E+0	1.031133E+0	9.704230E-1	9.441191E-1	9.973131E-1	9.783806E-1	9.674191E-1	9.858130E-1	9.625655E-1	9.884211E-1	8.929619E-1	9.200468E-1	9.436307E-1	1.000776E+0	9.757910E-1	9.696097E-1	9.787878E-1	9.674682E-1	9.286030E-1	1.046145E+0	9.679853E-1	1.000774E+0	9.191133E-1	9.466754E-1	9.497843E-1	1.005076E+0	9.022332E-1	9.411584E-1	9.274719E-1	9.632900E-1	9.915960E-1	1.041949E+0	9.977591E-1	9.403795E-1	8.996153E-1	1.010963E+0	9.741378E-1	9.645109E-1	1.036240E+0	9.408113E-1	9.559256E-1	1.011336E+0	9.309082E-1	9.744302E-1	1.047180E+0	1.052120E+0	9.690618E-1	9.485376E-1	9.680837E-1	9.747672E-1	9.793817E-1	9.156519E-1	1.004805E+0	9.581788E-1	1.011869E+0	9.229407E-1	9.464424E-1	9.059545E-1	9.543929E-1	9.433594E-1	8.923450E-1	9.769245E-1	9.460310E-1	9.135928E-1	1.007854E+0	9.719643E-1	9.753126E-1	9.501702E-1	9.810442E-1	9.369231E-1	9.110742E-1	8.943561E-1	9.886555E-1	9.305432E-1	9.061097E-1	9.832486E-1	9.944560E-1	9.699399E-1	9.808863E-1	9.892094E-1	1.003015E+0	9.900028E-1	9.421881E-1	8.978373E-1	9.794910E-1	9.675726E-1	1.030909E+0	9.634615E-1	9.484674E-1	9.589651E-1	9.736348E-1	9.167379E-1	1.025568E+0	9.948615E-1	9.564342E-1	9.619739E-1	1.013639E+0	9.355469E-1	9.377774E-1	9.530537E-1	9.281052E-1	9.732411E-1	9.530604E-1	9.958203E-1	9.488082E-1	9.814020E-1	9.355016E-1	9.795770E-1	9.322320E-1	9.632377E-1	9.942846E-1	9.893308E-1	9.399666E-1	9.228988E-1	9.460323E-1	9.317432E-1	9.483855E-1	9.923418E-1	1.006051E+0	9.685123E-1	9.631431E-1	1.027148E+0	9.957602E-1	9.603168E-1	9.540535E-1	9.721510E-1	9.266876E-1	1.002465E+0	9.496181E-1	1.015170E+0	9.440273E-1	9.387882E-1	9.349940E-1	9.716436E-1	1.022825E+0	9.350962E-1	9.824914E-1	9.568223E-1	9.532176E-1	9.828108E-1	9.607907E-1	9.589428E-1	9.796029E-1	8.893756E-1	9.967124E-1	9.607539E-1	1.113173E+0	1.072567E+0
2.935120E+2	1.239741E+0	1.241663E+0	1.209106E+0	1.133193E+0	1.258140E+0	1.208971E+0	1.163379E+0	1.249166E+0	1.195358E+0	1.162745E+0	1.222010E+0	1.186182E+0	1.236053E+0	1.183671E+0	1.251420E+0	1.212267E+0	1.213957E+0	1.204907E+0	1.194780E+0	1.173257E+0	1.180056E+0	1.228141E+0	1.193602E+0	1.249614E+0	1.186992E+0	1.172912E+0	1.241845E+0	1.227018E+0	1.106825E+0	1.244087E+0	1.190903E+0	1.225594E+0	1.186998E+0	1.230422E+0	1.207741E+0	1.233847E+0	1.167949E+0	1.230199E+0	1.182057E+0	1.109251E+0	1.225907E+0	1.216380E+0	1.192269E+0	1.207095E+0	1.110006E+0	1.237132E+0	1.158287E+0	1.124516E+0	1.150967E+0	1.207635E+0	1.170003E+0	1.228561E+0	1.209479E+0	1.177979E+0	1.220832E+0	1.214348E+0	1.155763E+0	1.224877E+0	1.247353E+0	1.193533E+0	9.831129E-1	1.209266E+0	1.088566E+0	1.186150E+0	1.040367E+0	1.135668E+0	1.156102E+0	1.201618E+0	1.200120E+0	1.242506E+0	1.172088E+0	1.174332E+0	1.183204E+0	1.161448E+0	1.231278E+0	1.231904E+0	1.075237E+0	1.272797E+0	1.149560E+0	1.164617E+0	1.016031E+0	1.174113E+0	1.174427E+0	1.122577E+0	1.135602E+0	1.192948E+0	1.187711E+0	1.143651E+0	1.055819E+0	1.198177E+0	1.127282E+0	1.146516E+0	1.041421E+0	1.175207E+0	1.160219E+0	1.209725E+0	1.083290E+0	1.170456E+0	1.199034E+0	1.237852E+0	1.184982E+0	1.308360E+0	1.213233E+0	1.194433E+0	1.179074E+0	1.130428E+0	1.187134E+0	1.241223E+0	1.122710E+0	1.197995E+0	1.238608E+0	1.206415E+0	1.186932E+0	1.084100E+0	1.118450E+0	1.184172E+0	1.192572E+0	1.213865E+0	1.226704E+0	1.184107E+0	1.156762E+0	1.172923E+0	1.216702E+0	1.234290E+0	1.142487E+0	1.178432E+0	1.121780E+0	1.263128E+0	1.099275E+0	1.128501E+0	1.210756E+0	1.157067E+0	1.101118E+0	1.242001E+0	1.151370E+0	1.290846E+0	1.111425E+0	1.113317E+0	1.160116E+0	1.159020E+0	1.095447E+0	1.204030E+0	1.159604E+0	1.222683E+0	1.062223E+0	1.208562E+0	1.181654E+0	1.245753E+0	1.103269E+0	1.229444E+0	1.196327E+0	1.194298E+0	1.252043E+0	1.128986E+0	1.243757E+0	1.205685E+0	1.151386E+0	1.199145E+0	1.174915E+0	1.189919E+0	1.215084E+0	1.139223E+0	1.213589E+0	1.222782E+0	1.124230E+0	1.227251E+0	1.082939E+0	1.265624E+0	1.171489E+0	1.267956E+0	1.249094E+0
2.940070E+2	9.260936E-1	9.723534E-1	9.427555E-1	9.452772E-1	9.597369E-1	9.610111E-1	9.470852E-1	9.503635E-1	8.885704E-1	9.818064E-1	9.441642E-1	9.510748E-1	9.228200E-1	9.594893E-1	9.524665E-1	9.389915E-1	9.789638E-1	9.287493E-1	9.310511E-1	9.879566E-1	9.635326E-1	9.337225E-1	9.363249E-1	8.899172E-1	9.846464E-1	9.539257E-1	9.541458E-1	9.283368E-1	9.206549E-1	9.641201E-1	9.340796E-1	9.042820E-1	9.347908E-1	9.062275E-1	1.001906E+0	9.627978E-1	9.455782E-1	9.504289E-1	8.745967E-1	9.408940E-1	9.434508E-1	8.647546E-1	9.204944E-1	9.479724E-1	9.581735E-1	9.580752E-1	9.726322E-1	9.459646E-1	9.701577E-1	9.155612E-1	9.275535E-1	9.675723E-1	8.965380E-1	9.550583E-1	9.354110E-1	9.508431E-1	9.454462E-1	9.170670E-1	9.933230E-1	9.412833E-1	9.443401E-1	9.792832E-1	9.238098E-1	9.285513E-1	9.209085E-1	9.543177E-1	9.402186E-1	8.800699E-1	9.420568E-1	1.000947E+0	9.190706E-1	9.044550E-1	8.987049E-1	9.712861E-1	8.581941E-1	9.921527E-1	9.807971E-1	9.626137E-1	9.212739E-1	9.581917E-1	9.330396E-1	9.368171E-1	9.290725E-1	8.469928E-1	9.602666E-1	8.934261E-1	9.792389E-1	9.412704E-1	9.457754E-1	9.125354E-1	9.218340E-1	9.522247E-1	9.711276E-1	9.218085E-1	9.269190E-1	9.138006E-1	8.370326E-1	1.004580E+0	9.630611E-1	9.242507E-1	9.010116E-1	9.714311E-1	9.687587E-1	9.789432E-1	8.872228E-1	9.002585E-1	9.030436E-1	9.770956E-1	9.641423E-1	9.450565E-1	9.091956E-1	9.706593E-1	1.002527E+0	9.227741E-1	8.855194E-1	9.257355E-1	9.565368E-1	9.675003E-1	9.569861E-1	8.738562E-1	9.478644E-1	9.258514E-1	9.465239E-1	9.398524E-1	9.768675E-1	9.282417E-1	9.280836E-1	8.708002E-1	9.354656E-1	1.004506E+0	9.274244E-1	9.714766E-1	9.449836E-1	9.240083E-1	9.995545E-1	9.576238E-1	9.660903E-1	9.486468E-1	9.578250E-1	9.907572E-1	8.929859E-1	9.788830E-1	8.962146E-1	8.791668E-1	8.926786E-1	9.960794E-1	9.380163E-1	9.044215E-1	9.137821E-1	9.541565E-1	9.746994E-1	8.935025E-1	9.653191E-1	9.754166E-1	9.589891E-1	9.962667E-1	1.003984E+0	8.899425E-1	9.464428E-1	9.687669E-1	8.842064E-1	9.006155E-1	9.594670E-1	9.446106E-1	8.862517E-1	9.757765E-1	9.175477E-1	1.046488E+0	8.941801E-1	9.867329E-1	8.401384E-1
2.945010E+2	7.612015E-1	7.934432E-1	8.375216E-1	8.167825E-1	8.330903E-1	9.282354E-1	8.119473E-1	8.521495E-1	8.353573E-1	8.076112E-1	8.515861E-1	8.328524E-1	8.450668E-1	8.553227E-1	7.564188E-1	7.587190E-1	7.633432E-1	8.855109E-1	7.921371E-1	8.296520E-1	8.390892E-1	8.849803E-1	7.603122E-1	8.519696E-1	8.556974E-1	8.774811E-1	8.555584E-1	8.365010E-1	7.915880E-1	8.866651E-1	8.290521E-1	8.142807E-1	8.022507E-1	7.860137E-1	8.913254E-1	8.494952E-1	8.280883E-1	8.647622E-1	8.331320E-1	8.446895E-1	7.704453E-1	8.046231E-1	8.129622E-1	8.078971E-1	8.376707E-1	8.363145E-1	8.052907E-1	8.228312E-1	8.033949E-1	8.680155E-1	8.308212E-1	8.766677E-1	7.807583E-1	8.303802E-1	8.265453E-1	8.705601E-1	7.989255E-1	8.203299E-1	8.354993E-1	8.064674E-1	8.737257E-1	8.494448E-1	8.313831E-1	8.038086E-1	7.809336E-1	7.849221E-1	8.019807E-1	8.178737E-1	8.960651E-1	8.610807E-1	8.503798E-1	8.064774E-1	8.334027E-1	8.364022E-1	7.700263E-1	8.518177E-1	8.326994E-1	8.545551E-1	7.940113E-1	7.458236E-1	8.073822E-1	7.969656E-1	8.382897E-1	7.662122E-1	8.327493E-1	8.143523E-1	7.906860E-1	8.158567E-1	7.764378E-1	7.712268E-1	8.392063E-1	8.744787E-1	8.918306E-1	8.438094E-1	7.848102E-1	8.343268E-1	8.194580E-1	8.019040E-1	8.516947E-1	8.406953E-1	7.864960E-1	7.764073E-1	8.623883E-1	8.330014E-1	8.574223E-1	8.096696E-1	7.636823E-1	8.469735E-1	8.807490E-1	8.596949E-1	7.725602E-1	8.294248E-1	8.336984E-1	8.199204E-1	8.041183E-1	7.727684E-1	8.678374E-1	8.828599E-1	7.720923E-1	8.344497E-1	8.898955E-1	8.528729E-1	8.061494E-1	7.964602E-1	7.820983E-1	8.340833E-1	7.608085E-1	8.196561E-1	7.372730E-1	8.553218E-1	8.876539E-1	7.853627E-1	8.322532E-1	8.149627E-1	8.708905E-1	8.084790E-1	7.785149E-1	8.053637E-1	8.107681E-1	8.871814E-1	8.562794E-1	8.485446E-1	8.302975E-1	8.904254E-1	8.194627E-1	9.196195E-1	8.583149E-1	8.372788E-1	8.296318E-1	8.414797E-1	8.190434E-1	8.158569E-1	8.355681E-1	8.795763E-1	8.331991E-1	8.075709E-1	8.654931E-1	7.551967E-1	8.407992E-1	8.756356E-1	8.491864E-1	8.081381E-1	8.338419E-1	8.079076E-1	8.529538E-1	8.321052E-1	7.607634E-1	8.662231E-1	8.894851E-1	8.661426E-1	8.528792E-1
2.950040E+2	9.419678E-1	9.352565E-1	9.423977E-1	9.494518E-1	9.535034E-1	1.005223E+0	9.536638E-1	9.848948E-1	9.633783E-1	9.285131E-1	9.094538E-1	9.879673E-1	9.277868E-1	9.966253E-1	1.027828E+0	9.345760E-1	9.819058E-1	9.809926E-1	9.336855E-1	9.133869E-1	9.882849E-1	9.808133E-1	9.316321E-1	1.010640E+0	1.014696E+0	9.789680E-1	9.899571E-1	9.655345E-1	9.585139E-1	9.805825E-1	1.009303E+0	9.093946E-1	9.688062E-1	1.038228E+0	9.984225E-1	9.885627E-1	8.863207E-1	1.004043E+0	9.813808E-1	9.840742E-1	9.579894E-1	9.656941E-1	9.696862E-1	9.436636E-1	9.528107E-1	9.968539E-1	9.696339E-1	9.321840E-1	1.010841E+0	9.619408E-1	8.588679E-1	9.674733E-1	9.931632E-1	9.994239E-1	9.880899E-1	9.231959E-1	9.740483E-1	9.494190E-1	9.960777E-1	9.507644E-1	9.869966E-1	9.124377E-1	9.033331E-1	9.253294E-1	9.296882E-1	1.036479E+0	9.973392E-1	9.485326E-1	9.546253E-1	9.923193E-1	9.625142E-1	9.874952E-1	9.643006E-1	1.005163E+0	9.768469E-1	9.006503E-1	1.008175E+0	9.678148E-1	9.981823E-1	9.479530E-1	9.347045E-1	9.568823E-1	8.798296E-1	9.630267E-1	9.526148E-1	9.734433E-1	9.927109E-1	9.101370E-1	9.878050E-1	1.017482E+0	8.994690E-1	9.108399E-1	9.514573E-1	9.671321E-1	9.163421E-1	9.515592E-1	9.557187E-1	9.843857E-1	9.453882E-1	9.199447E-1	9.163936E-1	9.996530E-1	9.580265E-1	9.679868E-1	9.548480E-1	9.773992E-1	9.740718E-1	8.981400E-1	9.437524E-1	9.072772E-1	9.120798E-1	9.928961E-1	9.843030E-1	9.830819E-1	9.010597E-1	1.008656E+0	1.028044E+0	9.705253E-1	9.011816E-1	9.819734E-1	1.047695E+0	9.445360E-1	1.025660E+0	9.546340E-1	9.660082E-1	9.786204E-1	9.102065E-1	9.596308E-1	9.648788E-1	9.890175E-1	9.587153E-1	9.905660E-1	9.594120E-1	9.761481E-1	1.007091E+0	9.898492E-1	9.932765E-1	9.724519E-1	9.668576E-1	8.835264E-1	9.915613E-1	9.955945E-1	9.558749E-1	9.640681E-1	1.022505E+0	9.709043E-1	9.913423E-1	9.526140E-1	9.525037E-1	1.007226E+0	9.745557E-1	9.596799E-1	9.639623E-1	9.880129E-1	8.871059E-1	9.630949E-1	9.570676E-1	9.327203E-1	9.554273E-1	1.037183E+0	9.533464E-1	9.497487E-1	9.833669E-1	9.576301E-1	9.482769E-1	9.993080E-1	8.971794E-1	1.002299E+0	9.920923E-1	9.970806E-1	1.061883E+0
2.955050E+2	1.109163E+0	1.138290E+0	1.136341E+0	1.146102E+0	1.127698E+0	1.138113E+0	1.115569E+0	1.117659E+0	1.092571E+0	1.084811E+0	1.041053E+0	1.215773E+0	1.143164E+0	1.161627E+0	1.113842E+0	1.091665E+0	1.057405E+0	1.112936E+0	1.173931E+0	1.142831E+0	1.079447E+0	1.136697E+0	1.147716E+0	1.076360E+0	1.130143E+0	1.098549E+0	1.131980E+0	1.104974E+0	1.072727E+0	1.169691E+0	1.104870E+0	1.096014E+0	1.084638E+0	1.171094E+0	1.108732E+0	1.068035E+0	1.102655E+0	1.139396E+0	1.095574E+0	1.118488E+0	1.108742E+0	1.081552E+0	1.097213E+0	1.099696E+0	1.086599E+0	1.114486E+0	1.102089E+0	1.115825E+0	1.183348E+0	1.070320E+0	1.054037E+0	1.098895E+0	1.108216E+0	1.114266E+0	1.137717E+0	1.107265E+0	1.111812E+0	1.123547E+0	1.148615E+0	1.178914E+0	1.144817E+0	1.171218E+0	1.114684E+0	1.153301E+0	1.115802E+0	1.093042E+0	1.126431E+0	1.047419E+0	1.172691E+0	1.170612E+0	1.188492E+0	1.124530E+0	1.059200E+0	1.049253E+0	1.153301E+0	1.171878E+0	1.117463E+0	1.165139E+0	1.097704E+0	1.120629E+0	1.130767E+0	1.062836E+0	1.088257E+0	1.088640E+0	1.088895E+0	1.072520E+0	1.111991E+0	1.109081E+0	1.122654E+0	1.118346E+0	1.113620E+0	1.089498E+0	1.070679E+0	1.037451E+0	1.084458E+0	1.219773E+0	1.121816E+0	1.117040E+0	1.101600E+0	1.113729E+0	1.121338E+0	1.137213E+0	1.162668E+0	1.090385E+0	1.086051E+0	1.123658E+0	1.058754E+0	1.152530E+0	1.157285E+0	1.095586E+0	1.115960E+0	1.194772E+0	1.156558E+0	1.138169E+0	1.092253E+0	1.120480E+0	1.137892E+0	1.142616E+0	1.099427E+0	1.179518E+0	1.193304E+0	1.067094E+0	1.176601E+0	1.132977E+0	1.090707E+0	1.071831E+0	1.067803E+0	1.081839E+0	1.161158E+0	1.133774E+0	1.131782E+0	1.070708E+0	1.067378E+0	1.115036E+0	1.097859E+0	1.137100E+0	1.083877E+0	1.080273E+0	1.082623E+0	1.121115E+0	1.081540E+0	1.104080E+0	1.106097E+0	1.091913E+0	1.106536E+0	1.125006E+0	1.157113E+0	1.225227E+0	1.077884E+0	1.137334E+0	1.053412E+0	1.098080E+0	1.159761E+0	1.080126E+0	1.076796E+0	1.093187E+0	1.115370E+0	1.111969E+0	1.115513E+0	1.101355E+0	1.123353E+0	1.164785E+0	1.119650E+0	1.105916E+0	1.127499E+0	1.121297E+0	1.163583E+0	1.089236E+0	1.013039E+0	1.076692E+0	9.008486E-1
2.960050E+2	1.182419E+0	1.182093E+0	1.218847E+0	1.183157E+0	1.243954E+0	1.189934E+0	1.201309E+0	1.215373E+0	1.209161E+0	1.205252E+0	1.185214E+0	1.220201E+0	1.277299E+0	1.277690E+0	1.233686E+0	1.214359E+0	1.192625E+0	1.190188E+0	1.214331E+0	1.270136E+0	1.201979E+0	1.165858E+0	1.158203E+0	1.141511E+0	1.274543E+0	1.232169E+0	1.236517E+0	1.200350E+0	1.191248E+0	1.258174E+0	1.214772E+0	1.119340E+0	1.163518E+0	1.219008E+0	1.270521E+0	1.242599E+0	1.239200E+0	1.138695E+0	1.240859E+0	1.243593E+0	1.234780E+0	1.269051E+0	1.170434E+0	1.173439E+0	1.228879E+0	1.238595E+0	1.200426E+0	1.142013E+0	1.248382E+0	1.208843E+0	1.095196E+0	1.230544E+0	1.162373E+0	1.204987E+0	1.224994E+0	1.148640E+0	1.224676E+0	1.228891E+0	1.225472E+0	1.240228E+0	1.263399E+0	1.189297E+0	1.184258E+0	1.191943E+0	1.158627E+0	1.165616E+0	1.202916E+0	1.239676E+0	1.203074E+0	1.234768E+0	1.226052E+0	1.169136E+0	1.192015E+0	1.233408E+0	1.129282E+0	1.201126E+0	1.166086E+0	1.246238E+0	1.145195E+0	1.202547E+0	1.197129E+0	1.182098E+0	1.244258E+0	1.203694E+0	1.228430E+0	1.210223E+0	1.184859E+0	1.237061E+0	1.146511E+0	1.156123E+0	1.214655E+0	1.224167E+0	1.271368E+0	1.262951E+0	1.115645E+0	1.287182E+0	1.156416E+0	1.205797E+0	1.257099E+0	1.179645E+0	1.122119E+0	1.250964E+0	1.233470E+0	1.252441E+0	1.206245E+0	1.196926E+0	1.205980E+0	1.256980E+0	1.246807E+0	1.226115E+0	1.229792E+0	1.147741E+0	1.202527E+0	1.188680E+0	1.206793E+0	1.229877E+0	1.213856E+0	1.235226E+0	1.158915E+0	1.207254E+0	1.222131E+0	1.271802E+0	1.149321E+0	1.170574E+0	1.140467E+0	1.196347E+0	1.187784E+0	1.216729E+0	1.182823E+0	1.259750E+0	1.174873E+0	1.176996E+0	1.170982E+0	1.283153E+0	1.213609E+0	1.245934E+0	1.186514E+0	1.206507E+0	1.203246E+0	1.167883E+0	1.201212E+0	1.270465E+0	1.168831E+0	1.197340E+0	1.170550E+0	1.228007E+0	1.200763E+0	1.204911E+0	1.168783E+0	1.180100E+0	1.231313E+0	1.194156E+0	1.207696E+0	1.203617E+0	1.208043E+0	1.154099E+0	1.243872E+0	1.246802E+0	1.143224E+0	1.231532E+0	1.231873E+0	1.189312E+0	1.161913E+0	1.202621E+0	1.178503E+0	1.221915E+0	1.170194E+0	1.231437E+0	1.156580E+0	1.295541E+0	1.305966E+0
2.964960E+2	1.040522E+0	1.032102E+0	1.064688E+0	1.093246E+0	1.107038E+0	1.171336E+0	1.037568E+0	1.094531E+0	1.078058E+0	1.044856E+0	1.061487E+0	1.061330E+0	1.077597E+0	1.071092E+0	1.080516E+0	1.040583E+0	9.800809E-1	1.072833E+0	1.060658E+0	1.066826E+0	1.089164E+0	1.098959E+0	1.056429E+0	1.090716E+0	1.138681E+0	1.031855E+0	1.096647E+0	1.039290E+0	1.078825E+0	1.083879E+0	1.062092E+0	1.065250E+0	1.096654E+0	1.077648E+0	1.134843E+0	1.098015E+0	1.041966E+0	1.116616E+0	1.160560E+0	1.031321E+0	1.039900E+0	1.028678E+0	1.047303E+0	1.060058E+0	1.140936E+0	1.077264E+0	1.096694E+0	1.048698E+0	1.062090E+0	1.117972E+0	1.040969E+0	1.087344E+0	1.064879E+0	1.059978E+0	1.025840E+0	1.043104E+0	1.052697E+0	1.061130E+0	1.099935E+0	1.068636E+0	1.092794E+0	1.079811E+0	1.103364E+0	1.068773E+0	1.070351E+0	1.032662E+0	1.098063E+0	1.043780E+0	1.130546E+0	1.065185E+0	1.081983E+0	1.098938E+0	1.033562E+0	1.073054E+0	1.076105E+0	1.105065E+0	1.069257E+0	1.075246E+0	1.035474E+0	1.080762E+0	1.077597E+0	1.151270E+0	1.091651E+0	1.049828E+0	1.088684E+0	1.105073E+0	1.048441E+0	1.076773E+0	1.098724E+0	1.130920E+0	1.102371E+0	1.125775E+0	1.058457E+0	1.106183E+0	1.018321E+0	1.044853E+0	1.110435E+0	1.035264E+0	1.003324E+0	1.026858E+0	1.096276E+0	1.075322E+0	1.117421E+0	1.076826E+0	1.031266E+0	1.121795E+0	1.108335E+0	1.132487E+0	1.078576E+0	1.059539E+0	9.981628E-1	1.118783E+0	1.102204E+0	1.018110E+0	1.070947E+0	1.091396E+0	1.101968E+0	1.049048E+0	1.084521E+0	1.065009E+0	1.073806E+0	1.028195E+0	1.091672E+0	1.052012E+0	1.054907E+0	1.068627E+0	1.044512E+0	1.067823E+0	1.064047E+0	1.021058E+0	1.058464E+0	1.086531E+0	1.054420E+0	1.064142E+0	1.063628E+0	1.066252E+0	1.047878E+0	1.123712E+0	1.047951E+0	1.055495E+0	1.060730E+0	1.101957E+0	1.022088E+0	1.122867E+0	1.050496E+0	1.112376E+0	1.080525E+0	1.067201E+0	9.971669E-1	1.087208E+0	1.048978E+0	1.022531E+0	1.040734E+0	1.052686E+0	1.024297E+0	1.038655E+0	1.086100E+0	1.028809E+0	1.056535E+0	1.091830E+0	1.124220E+0	1.031593E+0	1.071523E+0	1.071167E+0	1.033634E+0	1.097431E+0	1.029526E+0	1.038891E+0	1.034135E+0	1.060805E+0	1.088522E+0
2.970040E+2	1.009009E+0	9.923408E-1	9.361295E-1	9.169614E-1	1.010047E+0	9.668467E-1	9.302296E-1	9.638000E-1	1.001668E+0	9.590694E-1	9.513684E-1	9.844466E-1	9.158585E-1	9.480060E-1	9.892677E-1	9.566737E-1	1.015054E+0	9.806970E-1	9.649166E-1	1.087378E+0	9.613501E-1	9.843684E-1	9.402109E-1	9.908369E-1	9.199788E-1	9.793729E-1	1.008881E+0	9.410472E-1	1.001560E+0	9.966569E-1	1.046224E+0	9.558395E-1	9.562968E-1	9.861965E-1	1.006775E+0	9.449986E-1	9.541773E-1	9.409080E-1	9.630843E-1	9.386359E-1	9.483607E-1	9.754487E-1	9.768842E-1	9.474378E-1	9.591565E-1	9.295464E-1	9.418555E-1	9.779747E-1	9.158900E-1	9.616294E-1	9.244595E-1	1.020915E+0	9.375282E-1	9.382475E-1	9.355724E-1	1.007689E+0	9.443521E-1	9.777318E-1	9.753784E-1	9.219279E-1	9.291076E-1	9.534325E-1	1.005374E+0	9.786823E-1	9.511419E-1	9.830656E-1	9.814907E-1	9.176179E-1	9.517278E-1	9.418876E-1	9.331524E-1	9.657019E-1	9.503401E-1	9.405012E-1	1.009737E+0	9.303590E-1	9.934075E-1	9.699273E-1	9.294827E-1	9.787082E-1	9.959408E-1	9.620628E-1	9.826489E-1	9.030114E-1	9.671148E-1	9.106363E-1	9.140710E-1	1.022931E+0	8.939299E-1	9.301531E-1	9.834031E-1	9.450187E-1	9.485170E-1	1.006821E+0	9.286011E-1	8.922950E-1	9.568914E-1	9.910256E-1	9.690333E-1	1.002634E+0	9.879197E-1	9.998024E-1	1.013363E+0	9.374404E-1	9.880500E-1	9.606578E-1	9.653113E-1	1.018430E+0	9.639028E-1	9.907228E-1	9.762162E-1	9.874776E-1	9.685844E-1	9.790338E-1	9.684654E-1	9.660878E-1	9.676001E-1	9.341805E-1	9.711385E-1	9.452272E-1	9.482285E-1	9.742852E-1	9.767051E-1	9.515730E-1	9.066193E-1	9.726569E-1	8.949634E-1	9.639416E-1	9.947494E-1	9.535949E-1	9.278830E-1	9.828124E-1	9.245459E-1	9.862084E-1	9.644774E-1	9.534075E-1	9.351449E-1	9.842689E-1	9.624718E-1	9.758767E-1	9.836817E-1	1.031942E+0	9.455833E-1	9.357600E-1	9.449884E-1	1.010529E+0	9.848478E-1	1.017851E+0	1.007234E+0	9.791756E-1	9.697623E-1	9.396548E-1	9.452934E-1	9.697918E-1	9.657847E-1	9.810399E-1	9.775440E-1	9.933318E-1	9.600336E-1	9.405935E-1	9.451928E-1	1.022110E+0	9.886011E-1	9.448690E-1	1.002412E+0	9.245709E-1	9.607883E-1	9.796723E-1	9.726817E-1	9.540125E-1	9.403641E-1
2.975040E+2	1.043847E+0	1.032117E+0	9.698976E-1	1.070322E+0	1.040050E+0	1.013200E+0	1.030151E+0	1.047850E+0	1.013438E+0	1.040181E+0	1.028672E+0	1.033620E+0	1.064749E+0	1.027357E+0	1.046005E+0	1.016728E+0	1.032560E+0	1.012163E+0	1.049160E+0	1.053615E+0	1.098230E+0	1.072541E+0	1.055577E+0	1.024156E+0	1.029270E+0	1.056610E+0	1.014145E+0	1.056240E+0	1.006645E+0	1.021161E+0	1.094263E+0	1.038829E+0	1.035912E+0	1.050599E+0	1.095182E+0	9.716519E-1	1.065051E+0	1.040180E+0	1.039155E+0	1.029526E+0	1.015263E+0	1.056364E+0	1.056680E+0	1.052218E+0	1.050194E+0	1.058134E+0	1.025774E+0	1.024834E+0	9.751520E-1	1.022009E+0	1.057429E+0	1.038863E+0	1.033764E+0	1.042323E+0	1.107273E+0	9.911649E-1	1.010914E+0	1.043942E+0	1.038235E+0	1.049992E+0	1.077646E+0	1.042494E+0	1.057131E+0	1.066749E+0	1.037736E+0	1.029764E+0	1.086186E+0	1.039009E+0	1.032064E+0	1.070507E+0	1.085030E+0	1.056153E+0	1.056553E+0	9.932435E-1	1.074141E+0	1.083893E+0	1.065541E+0	1.020673E+0	1.110830E+0	1.029645E+0	1.033870E+0	1.072054E+0	1.030368E+0	1.035369E+0	1.066509E+0	1.058358E+0	1.064059E+0	1.039684E+0	1.014127E+0	1.039136E+0	1.012833E+0	1.072958E+0	1.028518E+0	1.087277E+0	1.022121E+0	1.072214E+0	1.030930E+0	1.084781E+0	1.031054E+0	1.018919E+0	1.041651E+0	1.047317E+0	1.054999E+0	1.023834E+0	1.052851E+0	1.027113E+0	1.043878E+0	1.046264E+0	1.047875E+0	1.024652E+0	1.028914E+0	1.042697E+0	1.067867E+0	1.015163E+0	1.025904E+0	1.020719E+0	1.018344E+0	9.813189E-1	1.019174E+0	1.017731E+0	1.034358E+0	1.038081E+0	1.070823E+0	1.031731E+0	1.038387E+0	1.108316E+0	1.078917E+0	1.082236E+0	1.001631E+0	1.043518E+0	1.021844E+0	1.001547E+0	1.043538E+0	9.833744E-1	1.016648E+0	9.962371E-1	1.022560E+0	1.035268E+0	1.042552E+0	1.024081E+0	1.003208E+0	1.059901E+0	1.009506E+0	1.084395E+0	1.023241E+0	1.092701E+0	1.034591E+0	1.002124E+0	1.056527E+0	1.050941E+0	1.022074E+0	1.030416E+0	9.979551E-1	1.043899E+0	1.024255E+0	1.082294E+0	1.056880E+0	1.031874E+0	1.023215E+0	1.046219E+0	1.021530E+0	1.061239E+0	1.049125E+0	1.049310E+0	1.089230E+0	1.044919E+0	1.034761E+0	1.078931E+0	1.011752E+0	1.113316E+0	1.115625E+0
2.980020E+2	9.953584E-1	1.035964E+0	1.037402E+0	1.046357E+0	1.028841E+0	1.021270E+0	1.012185E+0	1.031684E+0	1.011234E+0	1.053214E+0	1.023281E+0	9.752154E-1	1.018393E+0	9.892809E-1	1.022814E+0	1.029805E+0	9.932140E-1	1.017099E+0	9.813890E-1	1.035406E+0	1.022692E+0	1.024187E+0	1.018458E+0	9.780218E-1	9.883952E-1	1.013735E+0	1.004354E+0	1.011478E+0	1.037123E+0	1.030158E+0	1.022240E+0	9.964704E-1	9.870150E-1	1.022267E+0	1.033024E+0	1.022288E+0	9.799380E-1	9.847294E-1	9.969446E-1	9.892860E-1	1.033471E+0	9.934627E-1	1.013619E+0	1.003514E+0	1.022378E+0	9.808664E-1	1.022475E+0	1.014575E+0	1.030360E+0	9.824248E-1	1.001187E+0	9.760447E-1	1.012297E+0	1.041964E+0	9.219651E-1	1.036551E+0	1.015069E+0	9.573297E-1	1.016364E+0	1.016806E+0	9.990829E-1	1.009847E+0	9.776233E-1	9.837920E-1	1.006622E+0	1.017878E+0	9.670539E-1	1.008921E+0	9.635403E-1	9.756241E-1	9.584587E-1	9.835495E-1	9.644225E-1	1.029057E+0	9.629126E-1	9.852846E-1	9.952535E-1	9.958580E-1	9.680756E-1	1.011886E+0	9.675727E-1	9.551681E-1	9.855497E-1	1.046283E+0	9.476777E-1	9.828751E-1	1.000099E+0	9.827816E-1	1.024632E+0	1.017021E+0	1.013161E+0	1.046178E+0	1.016082E+0	9.877246E-1	1.029780E+0	9.876997E-1	9.404858E-1	9.400340E-1	1.014505E+0	1.028510E+0	1.000932E+0	1.089161E+0	1.037769E+0	1.001319E+0	1.006853E+0	1.011038E+0	1.041633E+0	1.027004E+0	9.861659E-1	9.921712E-1	9.748535E-1	1.004089E+0	1.021316E+0	1.016761E+0	9.968421E-1	1.020495E+0	1.039773E+0	9.893865E-1	9.924415E-1	9.817482E-1	9.899521E-1	1.009130E+0	1.030198E+0	1.029248E+0	1.020663E+0	1.018082E+0	1.012705E+0	9.770424E-1	9.625095E-1	1.016961E+0	1.039516E+0	1.066798E+0	9.746725E-1	1.023042E+0	1.025563E+0	1.009185E+0	1.012098E+0	9.668691E-1	9.985753E-1	1.006901E+0	1.001292E+0	1.038365E+0	1.033057E+0	1.016515E+0	9.565334E-1	9.854301E-1	1.065097E+0	1.033844E+0	1.000353E+0	1.018301E+0	1.002603E+0	9.743687E-1	9.806945E-1	1.069636E+0	9.726040E-1	9.991039E-1	1.004627E+0	9.984111E-1	1.027500E+0	9.924437E-1	1.000937E+0	1.014367E+0	1.014999E+0	9.897510E-1	9.860420E-1	9.896556E-1	1.010802E+0	1.035074E+0	9.259939E-1	9.674517E-1	1.029349E+0
2.985020E+2	9.344233E-1	9.477632E-1	9.568854E-1	9.245701E-1	9.411552E-1	9.457935E-1	9.398565E-1	9.403851E-1	9.844211E-1	9.094684E-1	9.714359E-1	9.413213E-1	9.548230E-1	9.249250E-1	9.198044E-1	9.016125E-1	9.427414E-1	9.068583E-1	8.895235E-1	9.251702E-1	9.130843E-1	9.351660E-1	9.605322E-1	9.607849E-1	9.167786E-1	9.312005E-1	9.681596E-1	8.991363E-1	9.315567E-1	9.287798E-1	9.151864E-1	9.357504E-1	9.531270E-1	9.626083E-1	9.180268E-1	9.868759E-1	9.349508E-1	9.732999E-1	9.372643E-1	9.386946E-1	9.365548E-1	9.085895E-1	9.360058E-1	9.205747E-1	9.059729E-1	9.815497E-1	9.957835E-1	9.384956E-1	9.095713E-1	9.839459E-1	9.490327E-1	9.607497E-1	9.698208E-1	9.394368E-1	9.656686E-1	9.326602E-1	9.759758E-1	9.598545E-1	9.319178E-1	9.327413E-1	9.584553E-1	9.378719E-1	9.556780E-1	9.266667E-1	9.646645E-1	1.006458E+0	9.363963E-1	8.804898E-1	9.074833E-1	9.372521E-1	9.510826E-1	9.727512E-1	9.632489E-1	9.761029E-1	9.459848E-1	8.882610E-1	9.420221E-1	9.275043E-1	9.166127E-1	9.189139E-1	9.516303E-1	9.364147E-1	9.192918E-1	9.636797E-1	9.815653E-1	9.667803E-1	9.407675E-1	9.329260E-1	9.559783E-1	9.000794E-1	9.496416E-1	8.945811E-1	9.615353E-1	9.187844E-1	9.552651E-1	9.073835E-1	9.756266E-1	9.272764E-1	9.254721E-1	9.424031E-1	8.955582E-1	8.849524E-1	9.271164E-1	9.709011E-1	9.080169E-1	9.777027E-1	9.587588E-1	9.274668E-1	9.446414E-1	9.464503E-1	9.708264E-1	9.653053E-1	9.071556E-1	9.506547E-1	8.973326E-1	9.692123E-1	9.865255E-1	9.488629E-1	9.585995E-1	9.474957E-1	9.935247E-1	9.614658E-1	9.247105E-1	9.444590E-1	9.863492E-1	9.318487E-1	1.016753E+0	9.014642E-1	9.475472E-1	9.614251E-1	9.595170E-1	9.223867E-1	9.569935E-1	9.252360E-1	9.512581E-1	9.377272E-1	9.473584E-1	9.985782E-1	9.429687E-1	9.829143E-1	9.016017E-1	9.528102E-1	9.425339E-1	8.956260E-1	9.259673E-1	9.815019E-1	9.255648E-1	9.086001E-1	9.535860E-1	9.175477E-1	9.528194E-1	9.395428E-1	9.622867E-1	9.480611E-1	9.723274E-1	9.671577E-1	9.047163E-1	9.519027E-1	9.105925E-1	9.377728E-1	9.621482E-1	9.592342E-1	9.055802E-1	9.451012E-1	9.122171E-1	9.654960E-1	9.745733E-1	9.726832E-1	1.015526E+0	9.551512E-1	9.019990E-1
2.990010E+2	8.906167E-1	8.980590E-1	9.097940E-1	8.775398E-1	9.083829E-1	9.239150E-1	9.207431E-1	9.253899E-1	9.047175E-1	9.063327E-1	8.987476E-1	9.561067E-1	8.985575E-1	9.226236E-1	9.174383E-1	9.249522E-1	9.340136E-1	8.579457E-1	9.131076E-1	9.279621E-1	8.890517E-1	8.873394E-1	8.907201E-1	9.173043E-1	8.867351E-1	8.536790E-1	9.514798E-1	9.116451E-1	9.272654E-1	9.257022E-1	9.102942E-1	8.843588E-1	9.405297E-1	9.209624E-1	8.683318E-1	9.374908E-1	9.283316E-1	8.872269E-1	8.961105E-1	9.157573E-1	9.090192E-1	9.414762E-1	9.116197E-1	8.935905E-1	9.227533E-1	8.725084E-1	8.918874E-1	8.892097E-1	9.020538E-1	8.769393E-1	9.201754E-1	9.164327E-1	9.134948E-1	9.057442E-1	8.989537E-1	9.468438E-1	8.941422E-1	9.421465E-1	8.895473E-1	9.154300E-1	9.095774E-1	9.155541E-1	8.726400E-1	9.268521E-1	9.010142E-1	8.954598E-1	9.193530E-1	9.460578E-1	9.211261E-1	8.577883E-1	8.965593E-1	9.109475E-1	9.263585E-1	8.858514E-1	9.211607E-1	9.446275E-1	8.710039E-1	8.948186E-1	9.193638E-1	9.323851E-1	9.307544E-1	9.806796E-1	9.000554E-1	8.810370E-1	8.857730E-1	8.848638E-1	8.849734E-1	9.094764E-1	9.023720E-1	9.329806E-1	9.165713E-1	9.490902E-1	9.026403E-1	9.055279E-1	8.864141E-1	9.404022E-1	9.466130E-1	8.831091E-1	9.299540E-1	9.300350E-1	9.219880E-1	9.048069E-1	8.996504E-1	9.044145E-1	9.060313E-1	8.762033E-1	8.802640E-1	8.907688E-1	8.832472E-1	9.375144E-1	9.150583E-1	8.996743E-1	9.562034E-1	8.776713E-1	9.458116E-1	8.968967E-1	8.906339E-1	9.432960E-1	9.265980E-1	9.565237E-1	9.102227E-1	8.977783E-1	8.979378E-1	8.962947E-1	8.994541E-1	8.577343E-1	8.995228E-1	9.669564E-1	9.818874E-1	8.801740E-1	9.047905E-1	9.175870E-1	8.972281E-1	9.145059E-1	8.827993E-1	9.816035E-1	8.979102E-1	8.949312E-1	9.084955E-1	9.172844E-1	9.271637E-1	9.130761E-1	9.186805E-1	9.098033E-1	9.545381E-1	9.018732E-1	8.957094E-1	9.085816E-1	9.384929E-1	8.571652E-1	9.483999E-1	8.997441E-1	9.072742E-1	9.148485E-1	9.314127E-1	8.501262E-1	9.470994E-1	9.050976E-1	9.456299E-1	9.443187E-1	9.003590E-1	8.980887E-1	9.150279E-1	9.356761E-1	8.955624E-1	8.835466E-1	8.736219E-1	8.212076E-1	9.127815E-1	9.090283E-1	9.098717E-1
2.995020E+2	1.054046E+0	9.726935E-1	9.973874E-1	9.924632E-1	1.013377E+0	1.011988E+0	9.748334E-1	9.974567E-1	1.012234E+0	9.962770E-1	1.029336E+0	1.017336E+0	1.001989E+0	1.031246E+0	1.012398E+0	1.010169E+0	1.020676E+0	1.071538E+0	1.066547E+0	9.741016E-1	1.009968E+0	1.021370E+0	1.000105E+0	9.963298E-1	1.064592E+0	1.030467E+0	9.809786E-1	1.074182E+0	1.056402E+0	1.038943E+0	9.922029E-1	1.015210E+0	9.997047E-1	1.006246E+0	9.868104E-1	1.008686E+0	9.921166E-1	9.972651E-1	1.052686E+0	1.019609E+0	1.003751E+0	1.048362E+0	9.647848E-1	1.030232E+0	1.060778E+0	1.038677E+0	9.918139E-1	1.047242E+0	1.095954E+0	1.032504E+0	9.967841E-1	1.066268E+0	9.806296E-1	9.654047E-1	1.014829E+0	9.933659E-1	1.014109E+0	1.032212E+0	1.026087E+0	1.013598E+0	9.991897E-1	1.014303E+0	1.017288E+0	1.025648E+0	9.915849E-1	1.025762E+0	1.029219E+0	1.005797E+0	1.059992E+0	1.069676E+0	1.059758E+0	1.005050E+0	1.016899E+0	1.031942E+0	1.024523E+0	1.022840E+0	1.037188E+0	1.034579E+0	1.038911E+0	1.020233E+0	1.030227E+0	9.961180E-1	1.030200E+0	9.741045E-1	1.027600E+0	1.024657E+0	1.008332E+0	1.031295E+0	1.006823E+0	1.004772E+0	1.019404E+0	9.855636E-1	1.018436E+0	1.069881E+0	1.017015E+0	1.004415E+0	1.008627E+0	1.031136E+0	1.007230E+0	9.953945E-1	1.058709E+0	9.817220E-1	9.877382E-1	9.471461E-1	1.005097E+0	1.036936E+0	1.016792E+0	9.899393E-1	1.021721E+0	9.961280E-1	1.058985E+0	1.029703E+0	9.990285E-1	1.055582E+0	1.082090E+0	1.011805E+0	1.005727E+0	1.046873E+0	1.036711E+0	1.015136E+0	9.910062E-1	1.036950E+0	9.496806E-1	1.004904E+0	1.015427E+0	1.022909E+0	9.879886E-1	9.748503E-1	1.020098E+0	9.868475E-1	9.954788E-1	1.041084E+0	1.031111E+0	1.047548E+0	1.015431E+0	9.755997E-1	1.031197E+0	1.064838E+0	1.065304E+0	1.014989E+0	1.035403E+0	9.982577E-1	1.010058E+0	1.078562E+0	1.050004E+0	1.023326E+0	1.028517E+0	1.052411E+0	9.763506E-1	1.061817E+0	1.014241E+0	1.041654E+0	1.027485E+0	9.555871E-1	1.035790E+0	9.946887E-1	1.018079E+0	1.033377E+0	1.008233E+0	1.001588E+0	1.023734E+0	1.002977E+0	1.010978E+0	1.006948E+0	1.017327E+0	1.036317E+0	1.015300E+0	1.035063E+0	1.017150E+0	1.090064E+0	9.281013E-1
3.000030E+2	1.081709E+0	1.113404E+0	1.128633E+0	1.088748E+0	1.068194E+0	1.083834E+0	1.122231E+0	1.057234E+0	1.073955E+0	1.094527E+0	1.048528E+0	1.076400E+0	1.061489E+0	1.104567E+0	1.081540E+0	1.116733E+0	1.076795E+0	1.134396E+0	1.100273E+0	1.083744E+0	1.066974E+0	1.059397E+0	1.074607E+0	1.123403E+0	1.114229E+0	1.114308E+0	1.080883E+0	1.047318E+0	1.041008E+0	1.055256E+0	1.065813E+0	1.129381E+0	1.083712E+0	1.037317E+0	1.098625E+0	1.073008E+0	1.099612E+0	1.117299E+0	1.077839E+0	1.107127E+0	1.101941E+0	1.051746E+0	1.117290E+0	1.099871E+0	1.037924E+0	1.068265E+0	1.072266E+0	1.085643E+0	1.086908E+0	1.102176E+0	1.075392E+0	1.041642E+0	1.089994E+0	1.105127E+0	1.091311E+0	1.099414E+0	1.089790E+0	1.064515E+0	1.097849E+0	1.071434E+0	1.056049E+0	1.079930E+0	1.119640E+0	1.070292E+0	1.098378E+0	1.024678E+0	1.061792E+0	1.119725E+0	1.115794E+0	1.089152E+0	1.049111E+0	1.071549E+0	1.072519E+0	1.083803E+0	1.071278E+0	1.075093E+0	1.088991E+0	1.126567E+0	1.046206E+0	1.086936E+0	1.085946E+0	1.059566E+0	1.134535E+0	1.099527E+0	1.090876E+0	1.082466E+0	1.101770E+0	1.103837E+0	1.096068E+0	1.106012E+0	1.088390E+0	1.051628E+0	1.072788E+0	1.030805E+0	1.089405E+0	1.087886E+0	1.097717E+0	1.133664E+0	1.091785E+0	1.084739E+0	1.081162E+0	1.092040E+0	1.092727E+0	1.152385E+0	1.121152E+0	1.071007E+0	1.058675E+0	1.118558E+0	1.116349E+0	1.103084E+0	1.051362E+0	1.058532E+0	1.048430E+0	1.084167E+0	1.052019E+0	1.080872E+0	1.058997E+0	1.090262E+0	1.066476E+0	1.081365E+0	1.080937E+0	1.056595E+0	1.126650E+0	1.093364E+0	1.039720E+0	1.061109E+0	1.004114E+0	1.097450E+0	1.086328E+0	1.111075E+0	1.078854E+0	1.050598E+0	1.096457E+0	1.106294E+0	1.108301E+0	1.099648E+0	1.088876E+0	1.039516E+0	1.042105E+0	1.053830E+0	1.131332E+0	1.037591E+0	1.086165E+0	1.015098E+0	1.089716E+0	1.015168E+0	1.050520E+0	1.094439E+0	1.074690E+0	1.094228E+0	1.059863E+0	1.114275E+0	1.124304E+0	1.067969E+0	1.063611E+0	1.106629E+0	1.068599E+0	1.079338E+0	1.084829E+0	1.077657E+0	1.091293E+0	1.064094E+0	1.104289E+0	1.073214E+0	1.099622E+0	1.080065E+0	1.090942E+0	1.057042E+0	1.116796E+0	9.649888E-1	1.115054E+0
