Photon Energy (eV)	#1	#2	#3	#4	#5	#6	#7	#8	#9	#10	#11	#12	#13	#14	#15	#16	#17	#18	#19	#20	#21	#22	#23	#24	#25	#26	#27	#28	#29	#30	#31	#32	#33	#34	#35	#36	#37	#38	#39	#40	#41	#42	#43	#44	#45	#46	#47	#48	#49	#50	#51	#52	#53	#54	#55	#56	#57	#58	#59	#60	#61	#62	#63	#64	#65	#66	#67	#68	#69	#70	#71	#72	#73	#74	#75	#76	#77	#78	#79	#80	#81	#82	#83	#84	#85	#86	#87	#88	#89	#90	#91	#92	#93	#94	#95	#96	#97	#98	#99	#100	#101	#102	#103	#104	#105	#106	#107	#108	#109	#110	#111	#112	#113	#114	#115	#116	#117	#118	#119	#120	#121	#122	#123	#124	#125	#126	#127	#128	#129	#130	#131	#132	#133	#134	#135	#136	#137	#138	#139	#140	#141	#142	#143	#144	#145	#146	#147	#148	#149	#150	#151	#152	#153	#154	#155	#156	#157	#158	#159	#160	#161	#162	#163	#164	#165	#166	#167	#168	#169	#170	#171	
2.790040E+2	-6.807854E-3	-1.582594E-3	-4.074530E-3	-2.694754E-3	-3.606316E-3	-5.198916E-3	-1.247462E-3	4.290246E-3	-4.574876E-3	-8.901732E-4	-7.031125E-3	-4.564030E-3	-9.747233E-3	-2.868554E-3	-9.331056E-3	-2.051257E-3	-5.760696E-3	-6.144041E-5	-1.461897E-4	-9.077196E-4	-4.419044E-4	-5.281853E-3	-4.876822E-3	-4.596321E-4	1.513227E-3	-5.448513E-4	1.910357E-3	-5.179518E-3	-2.404368E-3	-5.925757E-3	-3.544768E-3	-1.503091E-3	-8.480931E-4	-2.933499E-3	-1.226662E-2	-2.376785E-3	-1.399797E-3	-6.213443E-3	-4.208227E-3	-4.215545E-3	-3.845170E-3	-8.595224E-4	-5.257321E-3	4.133118E-3	-2.669890E-3	-3.470677E-3	-4.336487E-3	-9.996586E-4	-2.454348E-3	-4.603139E-3	-1.452942E-3	-4.339070E-3	-4.808999E-3	-7.788808E-4	3.959450E-3	-5.231054E-3	-5.687954E-3	-2.029819E-3	-7.756573E-3	-4.837256E-3	-4.752109E-3	-6.442759E-3	-1.495736E-3	-4.144096E-4	9.561452E-4	-3.248142E-3	4.589004E-3	-6.851316E-3	-8.789901E-3	-4.016193E-3	-4.955446E-3	-4.224176E-3	-8.267966E-3	-8.183854E-3	1.653675E-3	-1.050741E-3	-1.009302E-3	-6.107091E-3	2.680082E-3	-5.465060E-3	-4.021040E-4	-1.255742E-3	-5.620162E-3	-1.009784E-2	-1.436107E-3	-2.006217E-3	-2.510183E-3	-4.623532E-4	-7.061909E-3	-3.386801E-3	-2.609402E-3	-7.471866E-3	-7.840701E-3	-5.310052E-3	1.453863E-3	-8.116777E-3	-1.550507E-3	-6.938949E-3	-3.808335E-4	-4.513849E-3	-3.826975E-3	7.295758E-4	1.444308E-3	-6.217577E-3	4.660613E-3	4.558269E-3	-7.611238E-3	-5.802241E-4	-8.566128E-3	-1.990305E-3	-4.981650E-3	1.852616E-3	1.571845E-3	-1.736481E-3	-4.948979E-3	-4.442657E-3	-1.180585E-3	-7.833348E-3	-4.271720E-4	2.434955E-3	-3.879081E-3	1.905235E-3	-1.791598E-3	-7.611406E-3	-5.402945E-3	1.075589E-3	-2.269638E-3	-5.767324E-3	3.320052E-3	-8.199833E-4	-1.120769E-3	-7.301953E-3	-3.947596E-3	-2.783851E-3	-5.871877E-3	3.874627E-3	-9.387048E-3	-4.561953E-3	-6.421847E-3	-2.643111E-3	-4.153793E-3	-6.676925E-3	-1.180901E-3	-2.595053E-3	1.062133E-3	-1.272989E-3	-4.026934E-3	3.126791E-3	-2.031025E-3	1.164615E-3	-1.728733E-3	-2.128762E-3	-3.286089E-3	-7.021196E-4	1.762170E-3	-1.067094E-2	-5.932853E-3	2.070111E-3	-6.688890E-3	-3.157331E-3	-5.724590E-3	-1.946573E-3	-4.540493E-4	1.847943E-3	2.586387E-3	-9.560680E-5	-3.208967E-3	-8.473651E-3	1.198681E-3	2.078778E-3	-1.789299E-2
2.795010E+2	1.783016E-3	-2.830807E-3	-6.038203E-3	-3.137299E-3	-4.751676E-4	-2.150179E-3	-1.158125E-2	-5.520464E-3	-5.698903E-3	2.281540E-3	-2.788993E-3	-7.251106E-3	-1.006438E-2	-1.872808E-3	9.970586E-4	-8.322569E-3	-1.045744E-2	-2.661155E-3	-1.835408E-3	1.014157E-3	-6.909562E-3	1.718040E-3	-5.153513E-3	-2.514126E-3	-1.191022E-3	5.514626E-3	-5.247436E-3	-1.471841E-3	-5.732439E-3	-4.819729E-3	-8.580300E-3	2.029662E-3	-2.738856E-3	-5.361124E-3	3.172055E-3	-4.399668E-3	-1.769414E-3	-2.978038E-3	-8.841138E-3	4.520277E-3	-6.301887E-3	-4.970554E-3	-3.451586E-3	2.860407E-3	-1.569690E-3	-5.261993E-3	-6.626497E-3	9.330551E-3	-5.253857E-4	5.336715E-3	-1.068368E-3	2.265551E-3	7.813272E-4	-7.210873E-3	-3.260434E-3	-3.378094E-3	-3.731495E-3	-6.254886E-3	6.503662E-3	-2.094476E-3	-2.925740E-3	-9.063530E-3	3.195721E-3	-4.558643E-3	5.061797E-4	1.647586E-3	-3.374133E-3	6.279018E-3	3.722181E-3	-5.015331E-3	-9.573613E-4	-5.664392E-4	4.344799E-3	6.761229E-3	-2.846290E-3	1.787658E-3	-7.015641E-3	-6.479523E-3	-2.953159E-3	-3.128893E-3	-7.590259E-3	5.939828E-3	3.356589E-3	3.274671E-3	1.411746E-3	-3.588600E-3	-2.178674E-3	-2.406022E-3	-4.239823E-3	-5.180495E-3	-4.416383E-3	-1.101646E-2	-9.741485E-3	-3.025484E-3	3.456296E-4	2.204838E-3	4.467520E-4	-1.678504E-3	-4.455443E-3	4.796380E-3	-2.881328E-4	-2.723483E-3	-7.869372E-3	-5.012808E-3	-2.424325E-3	-1.802245E-3	-2.119699E-3	-4.285527E-3	-2.040761E-3	-1.066948E-3	-1.378763E-3	-2.518085E-3	-2.997096E-3	3.363665E-3	-4.524429E-3	4.317917E-3	-4.254031E-3	-7.514207E-3	4.231142E-3	-4.719987E-3	-9.875594E-4	-2.100809E-3	-5.907995E-3	3.475703E-3	-4.277228E-3	-2.636702E-3	-2.036621E-3	-5.393315E-3	7.611689E-3	-8.382295E-3	-3.778292E-3	1.396492E-3	1.967769E-4	-1.929214E-3	-6.195512E-3	-1.096377E-2	-1.368998E-3	2.617891E-3	7.933778E-3	-5.518382E-3	-8.081000E-4	-4.430448E-3	-2.292352E-4	4.847360E-3	-4.025789E-3	-9.052238E-4	-4.383960E-3	5.030908E-3	1.518484E-3	2.838800E-5	-4.549765E-5	-1.117565E-2	-1.381106E-3	5.842300E-3	-3.083766E-3	2.482948E-3	-4.811683E-3	3.581679E-3	-3.818403E-3	-8.904061E-3	2.345227E-3	1.177296E-3	-7.137267E-3	-1.055967E-2	-1.739329E-3	-6.811870E-3	-3.578061E-3	-6.845840E-4	-1.775904E-3	-5.112652E-3	2.524877E-2
2.800030E+2	1.621044E-4	-4.476771E-3	-2.896354E-3	-3.137258E-3	-4.634665E-3	3.249862E-3	-5.606694E-3	-3.663563E-3	-1.252189E-3	-3.463469E-3	-1.056084E-2	-4.089871E-3	1.489550E-3	-1.872787E-3	-4.294411E-3	6.754740E-3	6.204455E-3	4.527160E-3	-5.360182E-4	3.335874E-3	-2.812161E-4	-4.413266E-3	-3.493326E-3	3.767129E-3	-6.498334E-3	-2.582729E-3	-2.803800E-3	3.417364E-3	-7.174146E-3	-2.531464E-3	-3.868681E-3	-3.319616E-3	-5.144032E-4	2.056821E-3	-1.086924E-3	-3.539755E-4	-4.166952E-3	-1.213282E-3	-2.046205E-3	-8.431103E-3	1.456103E-3	-4.242985E-3	-5.604104E-3	-8.048696E-3	-5.219174E-5	8.880011E-3	4.360765E-4	-3.280083E-3	-3.591344E-3	-5.581216E-3	3.397379E-3	-4.646287E-3	-1.859797E-3	-3.592864E-3	-1.239334E-3	5.285187E-3	-4.488841E-3	3.671475E-3	-5.843916E-3	-4.434312E-3	-7.629638E-4	5.226568E-5	-5.027506E-3	-3.315369E-3	-4.743132E-3	-2.118324E-3	1.383330E-3	-6.351383E-3	-1.145646E-4	-1.860228E-3	-3.438245E-4	-3.842003E-3	4.344738E-3	3.861614E-3	-8.162460E-4	-1.487413E-3	-6.220098E-3	-4.448061E-3	-1.025417E-3	-1.126398E-3	-3.820260E-3	-4.488547E-3	-5.192752E-3	-7.947026E-3	-2.486462E-3	-5.357770E-3	-7.577676E-4	-1.218680E-2	1.351155E-3	1.191878E-3	4.856246E-3	-2.154952E-3	-4.315660E-4	-1.038867E-3	-2.998924E-4	-3.781959E-3	-9.802373E-3	-5.139309E-3	8.025305E-3	-7.312338E-3	-9.374819E-4	1.554625E-3	-1.126442E-2	2.136539E-3	-7.830287E-4	3.952204E-4	2.949457E-3	6.458432E-3	1.006063E-3	-7.147662E-3	1.281793E-3	4.054395E-3	2.663472E-3	-4.401008E-5	2.521018E-4	-6.494208E-3	1.130089E-3	-1.530755E-3	-3.796342E-3	-1.411342E-3	-1.817597E-3	-1.389646E-3	-3.676227E-3	-1.324299E-2	1.220640E-3	5.088321E-3	-2.672166E-3	-2.673302E-3	-7.535238E-3	1.171319E-4	-3.778274E-3	-1.901504E-3	-5.586167E-3	5.913289E-3	2.820389E-3	-1.458766E-3	-6.101996E-4	-3.575631E-3	-8.628562E-4	-4.692979E-3	7.011839E-4	4.512929E-3	-2.292267E-4	4.847399E-3	-4.025808E-3	-2.427109E-3	3.740757E-3	1.118357E-3	-1.104802E-2	-4.743641E-3	-2.775046E-3	3.005233E-3	-5.953018E-3	-4.979181E-3	2.055824E-3	1.644256E-3	1.915316E-3	-3.700275E-3	-4.461031E-3	5.128607E-3	6.927447E-3	-3.718340E-3	-4.034835E-3	2.903947E-3	2.096263E-3	1.989484E-3	-5.234475E-4	1.356267E-3	-5.520074E-3	-5.112642E-3	-3.632762E-3
2.805030E+2	-6.483786E-4	2.107290E-3	-5.252740E-3	-1.240669E-3	-1.168403E-3	-8.001406E-4	4.350926E-3	1.907208E-3	-1.252171E-3	-5.909228E-4	4.493189E-4	-8.831724E-3	-2.588287E-3	-6.040992E-3	9.970730E-4	-1.111691E-3	-8.284157E-3	-4.817720E-3	1.413081E-3	3.335869E-3	3.936849E-3	4.917485E-4	9.338786E-4	6.265015E-4	-8.014717E-3	-1.535006E-4	-9.710761E-4	1.787639E-3	-3.569824E-3	5.196557E-4	2.539803E-4	-5.994233E-3	3.934526E-3	3.371975E-5	-1.086932E-3	-2.781408E-3	1.227467E-3	-3.676417E-5	5.984203E-3	-8.126318E-4	-1.364993E-3	-7.881063E-3	2.288611E-3	-5.711067E-3	-3.087239E-3	-2.433596E-3	3.004237E-3	-1.273889E-4	1.007596E-3	-1.486988E-3	-6.278384E-3	8.409378E-3	-5.392148E-4	-4.798865E-3	-1.239313E-3	5.285187E-3	-4.488841E-3	2.907932E-3	-7.595973E-4	2.453557E-4	5.725346E-3	1.571517E-3	-3.129852E-3	-3.315365E-3	-4.743141E-3	-1.365173E-3	-5.413042E-3	-3.193794E-3	-1.393476E-3	-7.539454E-3	-4.024937E-3	1.071368E-3	7.399376E-3	3.861640E-3	1.213786E-3	2.606402E-3	-2.242381E-3	-1.739477E-3	-1.667995E-3	4.881050E-3	-8.042460E-4	-1.422176E-2	2.579333E-3	6.844185E-5	-5.085253E-3	1.718739E-3	6.630737E-4	-2.405994E-3	-4.239789E-3	-5.180482E-3	-1.563276E-3	1.067374E-3	4.223429E-3	-1.038863E-3	-2.236600E-3	-1.121138E-3	6.753903E-3	3.979912E-4	-1.518800E-3	1.567391E-3	-5.482759E-3	-3.945827E-3	-2.437362E-3	2.136530E-3	-4.886274E-3	-4.732189E-3	1.501128E-3	3.979046E-3	1.006096E-3	1.635589E-3	-3.374227E-3	-4.489791E-3	-7.848961E-3	-4.814796E-3	1.844269E-3	9.910886E-4	2.476153E-3	-4.522483E-3	-2.336791E-3	-2.238487E-3	-1.817633E-3	3.261011E-5	4.340984E-5	4.355687E-3	1.220664E-3	-1.992952E-3	-2.672193E-3	-6.073322E-3	1.233985E-3	7.709493E-4	-3.033187E-3	-6.023979E-3	-1.088341E-3	7.119813E-3	-1.340815E-3	3.293763E-3	-6.680601E-3	-2.199268E-3	-8.628562E-4	-1.391184E-3	5.229169E-3	-5.975554E-4	-4.407490E-3	-6.903830E-3	-4.025775E-3	-1.666164E-3	4.765871E-5	-2.011709E-3	-1.788544E-3	2.073580E-3	-2.092643E-3	6.417782E-4	-2.905114E-3	-8.071016E-3	-5.286479E-3	-8.719272E-4	-2.569303E-3	4.905664E-3	-6.051563E-4	-4.894722E-3	8.177673E-4	1.876656E-3	8.375049E-3	-2.639939E-3	-3.657175E-3	-6.183226E-3	1.767548E-3	3.397136E-3	1.195278E-2	-1.741674E-3	-7.242942E-3
2.810080E+2	-3.890202E-3	2.107200E-3	4.172712E-3	-3.137293E-3	-2.554937E-3	-1.475118E-3	3.678810E-4	2.835664E-3	2.300322E-4	-2.745339E-3	4.335266E-3	6.974458E-3	-3.267946E-3	-6.040975E-3	1.584973E-3	1.994079E-4	1.133436E-3	3.808366E-3	1.136907E-4	-3.629315E-3	-8.837606E-4	5.396849E-3	-7.263216E-4	5.337400E-3	4.116346E-3	3.895167E-3	8.192530E-3	-5.546205E-3	3.452046E-5	4.333472E-3	7.910373E-3	-6.662872E-3	-1.997384E-3	3.373209E-5	-7.475327E-3	1.016471E-2	-1.170046E-3	-6.250160E-4	-1.428471E-3	-8.126411E-4	-2.070261E-3	-6.048407E-4	-2.016554E-3	5.227295E-4	-1.569643E-3	1.808979E-3	5.572432E-3	-2.649553E-3	-2.824837E-3	-5.581195E-3	4.885953E-3	3.033529E-3	7.813312E-4	2.437097E-3	-5.281592E-3	-5.543881E-3	8.126136E-4	-2.437061E-3	-5.843912E-3	1.025314E-3	2.120743E-3	-7.544227E-3	1.298082E-3	-3.937015E-3	1.256084E-3	-5.884284E-3	-1.335200E-3	-1.614944E-3	-2.032945E-3	3.819025E-3	2.110248E-3	-6.298759E-3	4.344762E-3	-9.911544E-3	-4.199664E-3	-1.487448E-3	9.396955E-4	3.000638E-3	-3.828823E-4	-3.128865E-3	9.751670E-3	-1.707656E-3	-3.638320E-3	-3.939290E-3	2.061447E-3	-1.229808E-3	-7.577979E-4	2.860565E-3	1.351145E-3	1.899907E-3	5.765529E-4	2.678610E-3	-4.310710E-3	1.609977E-3	1.636764E-3	-4.559182E-4	-5.860404E-3	5.243153E-3	-1.518791E-3	-7.312343E-3	3.607827E-3	2.776974E-3	9.576976E-4	-9.779061E-3	-1.603722E-3	1.860237E-3	-5.016322E-3	-1.337659E-2	4.814693E-3	-2.418174E-3	-4.039401E-3	-7.118777E-3	-4.614355E-3	-3.451714E-3	-2.136166E-3	-1.504017E-3	2.476149E-3	8.625920E-4	2.771627E-3	1.897274E-3	-1.817623E-3	3.588212E-3	2.275137E-3	-7.083461E-3	9.074760E-3	-7.054297E-4	2.412629E-3	-1.313250E-3	-2.752049E-3	6.001369E-3	-2.288103E-3	3.870017E-3	-2.373416E-3	-2.532459E-3	7.397303E-4	-3.042935E-3	-2.886612E-3	-2.199209E-3	2.069357E-3	3.561388E-3	7.012023E-4	-1.875167E-3	3.252674E-3	-5.598136E-3	-3.250956E-3	6.166707E-4	3.002160E-3	-4.359246E-3	1.518456E-3	-3.380202E-3	-1.410266E-3	8.519977E-3	3.190824E-3	2.750442E-3	1.321607E-3	6.676530E-3	-3.270046E-4	-1.052271E-3	-1.890479E-3	1.314724E-2	5.407246E-5	-1.620219E-3	-3.259193E-3	1.003165E-2	-1.100066E-3	-1.153868E-3	-7.396384E-3	-6.844781E-4	-6.768130E-3	-1.741664E-3	-3.632762E-3
2.815020E+2	3.403928E-3	-1.184798E-3	3.387301E-3	4.449082E-3	-1.168407E-3	-5.525162E-3	-2.959774E-4	-8.305821E-3	2.300638E-4	-2.027231E-3	4.335274E-3	2.232643E-3	6.926675E-3	6.463615E-3	3.348808E-3	4.132574E-3	6.204433E-3	-1.223532E-3	7.634314E-4	-1.307603E-3	-2.812234E-4	-1.347626E-3	3.700816E-3	-5.654783E-3	1.321467E-2	3.085363E-3	-3.602155E-4	-3.101606E-3	8.684957E-3	-1.005932E-3	8.429560E-4	9.384893E-3	1.710091E-3	-1.989406E-3	1.239974E-2	-5.208771E-3	-7.163873E-3	5.257517E-3	4.246571E-4	-6.145564E-3	3.571897E-3	7.399039E-3	5.876205E-3	3.639609E-3	7.065897E-4	-3.123019E-4	-4.058294E-3	-1.388506E-3	2.411495E-4	2.607197E-3	-2.556900E-3	-4.646282E-3	1.210441E-4	1.231141E-3	1.080539E-4	-7.709725E-3	6.871293E-3	3.671498E-3	5.777304E-3	-5.346024E-4	4.283440E-3	6.129392E-3	3.294808E-5	4.765817E-3	-3.993219E-3	-2.871539E-3	2.742610E-3	-7.140780E-3	-2.672407E-3	8.867253E-3	3.950825E-3	5.984869E-3	-7.873427E-3	-4.877960E-4	-6.229725E-3	1.787633E-3	5.712917E-3	1.646338E-3	-7.451224E-3	-4.588756E-4	2.211722E-3	1.768496E-3	2.477154E-4	8.700224E-4	3.360855E-3	4.667301E-3	4.215223E-3	7.374747E-3	1.333178E-2	6.148153E-3	-1.563276E-3	9.928934E-3	8.878405E-3	4.258837E-3	-4.173320E-3	4.200456E-3	6.753956E-3	5.243123E-3	-2.252946E-3	8.832636E-3	-1.586784E-3	-1.501171E-3	2.786534E-4	5.314009E-3	-7.830287E-4	-1.802231E-3	-2.119695E-3	-3.459045E-3	4.814674E-3	-3.913135E-4	3.942338E-3	-5.463181E-4	-5.423004E-3	6.375225E-4	4.232489E-3	1.097153E-2	-3.581016E-3	4.452693E-3	-5.255844E-3	3.551620E-3	7.313752E-3	-2.100775E-3	4.340077E-5	-9.239295E-4	-1.135583E-3	5.732062E-3	1.141463E-3	2.766765E-3	-4.346428E-3	7.709493E-4	-5.278145E-5	3.869952E-3	7.907341E-3	1.690409E-3	1.433283E-3	5.670010E-3	7.736605E-3	3.994203E-3	-5.261222E-3	2.596782E-4	-5.340739E-5	3.235337E-3	6.734529E-3	2.774484E-4	7.596341E-3	-3.188068E-3	4.770827E-5	-9.836878E-3	3.502635E-3	7.101326E-4	-4.822250E-3	-9.339145E-4	4.714827E-3	-4.206207E-3	-6.020705E-3	-1.710629E-3	2.662770E-3	1.595676E-3	4.536030E-3	-1.553625E-3	8.178232E-4	1.876630E-3	-6.361672E-3	7.655782E-3	-3.017897E-3	4.504104E-3	1.767558E-3	-5.786596E-3	-9.264251E-3	-1.016911E-2	3.587644E-3
2.820060E+2	4.214396E-3	4.576261E-3	8.885464E-3	8.242266E-3	-1.861672E-3	5.949810E-3	8.333970E-3	3.764148E-3	3.194570E-3	5.154015E-3	-1.983680E-4	8.555109E-3	1.304347E-2	7.853024E-3	5.700550E-3	4.132609E-3	5.479957E-3	-2.661207E-3	1.137224E-4	2.561982E-3	-3.294067E-3	-1.960727E-3	7.021230E-3	-7.225083E-3	-3.465574E-3	-5.011893E-3	-4.025633E-3	9.121443E-3	4.359758E-3	3.570734E-3	3.198747E-3	2.029637E-3	2.451513E-3	1.382419E-3	2.462182E-3	8.546395E-3	4.224369E-3	4.669290E-3	4.246647E-4	5.282150E-3	6.392945E-3	3.033312E-3	1.359954E-4	5.227390E-4	6.776688E-3	-3.140725E-3	-1.490071E-3	-2.649542E-3	7.139554E-3	1.242475E-3	-3.240767E-4	3.801512E-3	-1.199526E-3	5.452103E-3	1.080416E-4	2.316470E-4	2.327244E-3	-7.782027E-3	-7.595929E-4	4.925023E-3	-3.646666E-3	-7.074341E-4	-5.996150E-4	2.279315E-3	1.025492E-2	5.413560E-3	7.037133E-4	1.101541E-2	2.443262E-3	3.819002E-3	-2.184397E-3	8.441535E-3	-2.370347E-4	2.371012E-4	7.980643E-3	-6.400017E-3	2.530777E-3	1.248085E-2	6.685400E-3	3.546053E-3	2.211727E-3	9.415971E-3	1.024953E-3	8.083969E-3	-3.785865E-3	1.718764E-3	3.504795E-3	4.365321E-3	2.948534E-3	1.899907E-3	-1.367075E-4	5.900936E-3	3.447578E-3	2.934427E-3	-2.236624E-3	8.744599E-4	1.235116E-3	-1.678483E-3	-2.987124E-3	2.374688E-3	2.309173E-3	5.221656E-3	9.105728E-3	5.477998E-4	4.140859E-3	1.860184E-3	9.466899E-3	6.458402E-3	2.443841E-4	2.311206E-3	3.277229E-3	3.397135E-3	6.706727E-3	2.682153E-3	1.844264E-3	-4.830784E-3	-2.234997E-3	4.452667E-3	-3.796333E-3	-1.411316E-3	7.313741E-3	-3.523083E-3	7.873309E-4	3.475729E-3	5.147707E-3	-3.280463E-3	2.412649E-3	4.806787E-3	5.220033E-3	2.078520E-3	1.437448E-3	6.343477E-3	1.967691E-4	-7.358602E-3	-2.034351E-3	4.085831E-3	9.254238E-3	3.994232E-3	-1.595931E-3	7.688611E-3	-6.090769E-3	6.800481E-4	-3.711094E-3	2.888831E-3	1.397907E-3	5.943364E-3	4.769025E-5	3.465894E-3	4.164034E-3	6.163861E-3	2.001673E-3	-1.721710E-3	1.429017E-4	5.069345E-3	-1.468402E-4	8.055127E-4	4.157683E-3	-5.686282E-3	2.608067E-3	-2.890041E-3	-3.764444E-3	2.576041E-3	9.926282E-3	-5.015827E-3	-4.608188E-4	6.390161E-3	4.822199E-3	8.499167E-3	6.960515E-3	6.685754E-3	-3.632762E-3
2.825040E+2	1.782991E-3	1.284218E-3	1.816350E-3	6.559261E-4	1.546957E-2	5.949843E-3	5.678606E-3	4.692582E-3	9.123474E-3	2.281579E-3	1.145947E-2	6.974520E-3	4.208152E-3	4.379478E-3	9.970048E-4	-3.733814E-3	5.480015E-3	3.089529E-3	1.136907E-4	-4.403245E-3	8.154885E-3	5.396834E-3	2.594059E-3	6.122593E-3	3.254067E-4	-4.202183E-3	3.305272E-3	9.727241E-4	5.801541E-3	5.859022E-3	3.787691E-3	4.035619E-3	-1.997393E-3	6.777337E-3	3.881820E-3	-3.590501E-3	1.021825E-2	1.139736E-3	9.690516E-3	1.061506E-2	2.161366E-3	8.126613E-3	8.028754E-3	2.081162E-3	1.465376E-3	3.930303E-3	7.498603E-3	1.764181E-3	1.007615E-3	8.066150E-3	3.397339E-3	-3.878332E-3	6.723835E-3	7.261142E-3	6.845129E-3	1.106073E-2	8.385979E-3	8.252888E-3	8.682625E-3	5.704953E-3	-4.205021E-5	1.600478E-2	5.725958E-3	8.495669E-3	5.061660E-4	8.426315E-3	7.037175E-4	7.857786E-3	8.837850E-3	1.925926E-3	6.404893E-3	-5.663943E-4	-4.055247E-3	3.861609E-3	3.243822E-3	4.243925E-3	7.304033E-3	1.646330E-3	4.115194E-3	4.880989E-3	-1.558249E-3	4.549409E-3	7.242644E-3	9.687057E-3	5.959639E-3	4.077592E-3	-2.178670E-3	2.860537E-3	-3.441090E-3	2.607932E-3	4.856246E-3	1.067428E-3	5.775050E-3	1.610025E-3	5.510180E-3	6.196037E-3	2.023557E-3	4.550977E-3	5.088631E-3	1.567435E-3	6.205132E-3	-2.112349E-3	9.784772E-3	1.087457E-2	1.678905E-3	-3.372456E-4	2.949470E-3	4.805503E-3	-1.279021E-3	9.067608E-3	5.272681E-3	5.368826E-3	9.941373E-3	3.363661E-3	3.436451E-3	9.911343E-4	5.168236E-3	1.163284E-2	8.609714E-3	1.897284E-3	-4.308000E-3	3.588256E-3	8.226542E-3	1.755467E-2	-5.848014E-3	-3.280424E-3	3.683878E-3	1.364696E-2	-2.752044E-3	-5.366416E-4	1.261396E-2	-2.525033E-4	4.694634E-3	-1.193856E-4	1.044915E-2	-1.458756E-3	3.942616E-3	1.929735E-3	5.001578E-3	2.735979E-3	4.474513E-3	5.151781E-3	-2.292565E-4	2.235981E-3	5.271947E-3	2.899520E-3	1.524920E-3	3.465884E-3	4.163977E-3	-2.016733E-3	1.087276E-2	3.793043E-3	5.476773E-3	4.296437E-3	9.398190E-3	1.644251E-3	4.905073E-3	-1.714301E-3	1.031986E-2	3.123934E-3	-1.473303E-3	-2.214911E-4	2.945686E-3	-4.223884E-3	5.292635E-3	1.360821E-3	6.349555E-3	2.376739E-3	3.216383E-3	1.511321E-2	7.197802E-3
2.830030E+2	1.231900E-2	1.609831E-2	4.958204E-3	1.013883E-2	1.754931E-2	5.949827E-3	9.661630E-3	1.397720E-2	9.864591E-3	8.026552E-3	3.687615E-3	1.329695E-2	8.286018E-3	1.410533E-2	1.040407E-2	1.199902E-2	4.089782E-4	9.330114E-4	1.115855E-2	4.109761E-3	3.334249E-3	1.104939E-3	1.089500E-2	9.263216E-3	6.390940E-3	1.523137E-2	3.305239E-3	1.238085E-2	7.964063E-3	4.333500E-3	1.379986E-2	3.366984E-3	-1.997380E-3	2.731209E-3	2.462169E-3	3.691648E-3	7.820719E-3	4.081074E-3	9.072751E-3	2.234761E-3	9.919352E-3	1.394765E-2	1.018135E-2	6.756454E-3	2.982869E-3	4.637385E-3	1.327702E-2	1.185271E-2	1.097206E-2	1.761927E-2	1.908770E-3	3.033515E-3	1.210643E-4	-4.195892E-3	1.290850E-2	6.007162E-3	-7.021417E-4	3.671498E-3	1.376701E-2	2.585159E-3	2.591123E-2	1.144695E-2	6.991080E-3	1.098217E-2	1.400440E-2	9.932727E-3	5.461173E-3	1.575178E-2	1.331410E-2	1.959470E-2	7.018396E-3	8.441565E-3	5.108448E-3	3.861600E-3	-1.395508E-4	5.062744E-3	7.303999E-3	9.095050E-3	1.568148E-2	1.422591E-2	3.719706E-3	1.768433E-3	1.423759E-2	1.770256E-2	7.259027E-3	2.308433E-3	1.274033E-2	9.631949E-3	3.747214E-3	9.688357E-3	1.983512E-2	1.234568E-2	1.895934E-3	1.551634E-2	1.196579E-2	1.218283E-2	1.306110E-2	1.493350E-2	5.822872E-3	1.125437E-2	1.529571E-2	1.133334E-2	2.315720E-3	2.120149E-2	1.480933E-2	6.987624E-3	2.949413E-3	1.389656E-2	2.444027E-4	2.986852E-3	5.937818E-3	9.969590E-3	5.898142E-3	2.682137E-3	6.620834E-3	6.812982E-3	1.803093E-3	8.625920E-4	1.371815E-2	8.514515E-3	3.993205E-3	1.994425E-2	1.269005E-2	8.755346E-3	2.006052E-3	1.667572E-2	1.321796E-2	1.092690E-2	1.080045E-2	1.450081E-2	1.437417E-3	6.343482E-3	7.907360E-3	1.315253E-2	1.114270E-2	2.501671E-3	1.532466E-2	4.682405E-3	7.200730E-3	1.594294E-2	3.719858E-3	9.623507E-3	-5.800206E-3	4.847391E-3	9.146030E-3	1.050912E-2	9.649579E-3	9.726054E-3	6.148129E-3	5.482166E-3	1.360234E-2	1.088352E-2	1.538266E-2	8.934163E-3	9.398194E-3	6.676555E-3	5.652527E-3	1.351169E-2	9.677259E-3	9.806174E-3	1.303709E-2	1.236730E-2	8.375035E-3	1.003165E-2	5.292635E-3	1.079084E-2	8.640443E-3	1.768285E-2	4.464409E-3	1.005675E-2	-1.085314E-2
2.835020E+2	1.718177E-2	2.930237E-3	1.831091E-2	1.393197E-2	1.269661E-2	1.472488E-2	1.961919E-2	2.140488E-2	9.123514E-3	2.526162E-2	1.275480E-2	1.961948E-2	1.168422E-2	1.827354E-2	2.098690E-2	1.789883E-2	8.377691E-3	7.402554E-3	1.700588E-2	2.113575E-2	9.360040E-3	9.688803E-3	1.255521E-2	1.083353E-2	2.155475E-2	4.704867E-3	1.124703E-2	1.645519E-2	1.373106E-2	7.384596E-3	1.321092E-2	1.473416E-2	1.431532E-2	1.352096E-2	1.949792E-2	2.391988E-2	1.980838E-2	1.643444E-2	1.401454E-2	1.442428E-2	2.402472E-2	1.467528E-2	9.463790E-3	1.766547E-2	-1.569657E-3	1.453681E-2	9.424731E-3	1.563592E-2	1.787045E-2	1.693690E-2	1.605029E-2	1.071331E-2	1.266630E-2	2.535111E-2	1.358220E-2	1.106072E-2	1.671678E-2	3.671544E-3	1.812494E-2	8.824728E-3	2.086477E-2	2.208201E-2	1.331665E-2	1.346871E-2	1.325453E-2	5.413602E-3	8.859365E-3	1.654115E-2	1.139573E-2	1.580854E-2	1.683475E-2	6.803738E-3	9.690244E-3	1.908460E-2	1.136410E-2	1.325039E-2	2.082806E-2	1.315799E-2	1.953697E-2	2.957825E-2	1.352165E-2	1.914921E-2	9.574242E-3	9.687076E-3	8.558458E-3	5.393430E-4	1.558209E-2	2.467928E-2	1.093563E-2	2.030898E-2	2.054843E-2	7.512197E-3	8.878415E-3	9.556465E-3	2.423146E-2	1.683919E-2	1.148427E-2	1.354912E-2	1.830356E-2	7.218191E-3	1.659432E-2	1.377801E-2	1.046373E-2	1.325777E-2	1.316798E-2	1.797503E-2	1.381188E-2	1.389661E-2	1.700219E-2	1.244576E-2	2.190134E-2	2.048550E-2	2.207116E-2	1.631293E-2	9.805077E-3	1.512999E-2	2.199365E-2	9.239449E-3	2.028602E-2	1.347746E-2	1.810531E-2	1.069950E-2	8.226542E-3	2.899382E-2	1.614349E-2	1.410074E-2	8.768708E-3	1.908702E-2	1.080048E-2	1.319319E-2	1.633950E-2	1.458843E-2	1.690302E-2	1.254921E-2	2.085213E-2	1.913545E-2	1.684231E-2	2.395105E-2	1.746352E-2	1.016494E-2	2.032247E-2	7.707062E-3	2.205482E-2	1.790427E-2	1.302005E-2	1.659665E-2	1.925154E-2	2.302881E-2	2.202163E-2	8.890835E-3	1.360235E-2	1.797398E-2	1.309664E-2	2.516633E-2	1.894318E-2	1.925737E-2	2.134876E-2	1.483565E-2	1.160518E-2	3.792154E-3	1.532823E-2	1.096850E-2	1.070186E-2	1.557552E-2	1.232463E-2	1.330545E-2	2.696836E-2	1.156044E-2	2.318537E-2	1.679870E-2	1.802839E-2
2.840000E+2	2.609679E-2	1.280630E-2	2.302363E-2	2.246662E-2	2.656155E-2	3.632484E-2	2.824915E-2	3.161796E-2	2.024026E-2	2.095290E-2	2.570793E-2	2.357106E-2	1.712138E-2	3.564096E-2	3.098186E-2	2.248758E-2	2.214186E-2	2.034166E-2	3.194892E-2	2.810090E-2	2.502713E-2	2.746961E-2	3.081732E-2	3.831398E-2	3.520215E-2	2.899685E-2	2.407611E-2	4.232214E-3	4.040319E-2	2.645379E-2	2.793470E-2	2.743866E-2	2.098877E-2	2.633381E-2	2.517654E-2	2.877474E-2	2.340471E-2	2.055223E-2	2.451581E-2	2.585200E-2	1.767726E-2	3.068300E-2	3.098943E-2	1.454857E-2	2.271076E-2	2.655752E-2	2.611804E-2	1.122212E-2	1.173850E-2	1.898403E-2	2.423748E-2	2.530495E-2	2.587182E-2	1.992411E-2	3.379341E-2	3.271892E-2	4.625310E-2	3.039639E-2	3.555685E-2	1.194444E-2	3.167860E-2	3.195737E-2	3.039571E-2	2.341484E-2	2.975233E-2	2.424328E-2	2.517076E-2	2.680338E-2	2.482440E-2	2.653602E-2	3.339976E-2	2.072515E-2	3.565394E-2	3.648233E-2	3.098793E-2	3.699459E-2	2.401028E-2	3.414978E-2	2.210731E-2	1.956591E-2	1.879961E-2	1.845394E-2	3.677665E-2	3.052728E-2	1.960336E-2	3.061459E-2	3.547407E-2	3.069822E-2	2.451362E-2	3.092953E-2	3.481399E-2	2.684629E-2	3.370494E-2	2.743615E-2	2.294040E-2	1.949994E-2	1.857981E-2	1.770214E-2	3.739175E-2	2.901389E-2	2.763292E-2	3.089073E-2	2.675985E-2	2.596768E-2	4.189077E-2	3.115983E-2	3.119176E-2	3.703737E-2	3.299833E-2	3.068790E-2	3.187855E-2	2.180004E-2	1.074998E-2	3.130677E-2	3.129932E-2	2.511041E-2	2.670475E-2	2.539477E-2	1.809675E-2	2.423055E-2	2.059567E-2	2.705551E-2	2.459288E-2	2.459413E-2	2.399759E-2	5.015058E-2	1.893844E-2	3.540724E-2	1.638091E-2	1.973122E-2	2.379052E-2	1.541291E-2	2.911135E-2	3.004409E-2	3.610980E-2	3.339295E-2	2.139510E-2	1.913388E-2	2.772622E-2	3.080077E-2	2.937841E-2	2.431623E-2	2.971497E-2	2.377986E-2	2.774144E-2	1.887955E-2	2.589895E-2	2.537636E-2	2.731275E-2	2.797900E-2	3.543889E-2	3.609392E-2	2.452656E-2	2.903117E-2	2.334865E-2	2.932202E-2	2.957066E-2	2.542764E-2	3.474057E-2	2.851635E-2	2.678381E-2	2.355730E-2	2.854109E-2	2.032737E-2	2.319224E-2	3.530891E-2	3.231400E-2	3.809116E-2	2.068913E-2	2.522610E-2	2.885897E-2
2.841030E+2	1.718178E-2	2.432832E-2	2.302373E-2	2.815650E-2	1.338981E-2	2.822484E-2	2.227452E-2	3.626012E-2	2.987484E-2	2.454355E-2	2.117437E-2	2.989349E-2	1.848066E-2	2.730463E-2	2.333863E-2	2.248759E-2	2.359069E-2	2.537351E-2	2.740107E-2	2.190959E-2	2.382199E-2	2.624338E-2	2.971050E-2	3.203281E-2	2.003837E-2	4.195256E-2	3.568334E-2	4.497554E-2	3.247369E-2	2.340273E-2	3.676901E-2	1.874611E-2	2.173028E-2	1.486966E-2	2.517646E-2	3.524770E-2	2.520287E-2	2.172870E-2	3.378159E-2	1.899536E-2	2.896158E-2	2.340677E-2	2.237913E-2	2.467853E-2	1.588191E-2	2.514331E-2	2.804416E-2	2.572438E-2	2.246936E-2	3.536084E-2	2.200456E-2	3.068078E-2	1.728825E-2	2.655713E-2	3.311967E-2	1.683629E-2	2.883426E-2	3.192349E-2	2.829352E-2	2.052383E-2	3.023682E-2	3.119775E-2	2.027479E-2	2.217157E-2	2.600283E-2	3.102196E-2	2.788933E-2	4.022312E-2	1.651137E-2	2.338080E-2	2.726459E-2	1.253612E-2	1.350844E-2	2.415892E-2	2.219099E-2	1.734423E-2	3.037450E-2	2.534677E-2	1.568150E-2	3.425069E-2	2.935554E-2	1.428262E-2	2.589573E-2	1.930559E-2	2.545066E-2	2.707631E-2	4.044710E-2	2.242214E-2	1.812399E-2	2.314106E-2	2.268827E-2	3.973574E-2	2.827413E-2	2.809835E-2	3.197819E-2	3.213872E-2	3.198253E-2	2.670032E-2	2.124023E-2	2.255591E-2	3.152884E-2	1.438924E-2	3.083388E-2	2.835081E-2	3.040170E-2	2.236990E-2	1.815684E-2	2.381407E-2	2.766623E-2	1.920213E-2	2.057106E-2	3.034421E-2	1.641055E-2	1.972062E-2	2.811500E-2	2.843714E-2	2.199361E-2	2.718982E-2	2.393491E-2	3.829218E-2	3.138724E-2	2.918894E-2	1.715362E-2	2.371429E-2	2.242672E-2	2.053819E-2	2.148093E-2	2.520707E-2	2.515020E-2	3.673017E-2	3.347689E-2	2.778039E-2	2.782632E-2	2.944080E-2	1.807799E-2	2.943254E-2	2.367150E-2	1.087594E-2	2.479405E-2	9.339488E-3	2.711441E-2	1.792806E-2	3.458959E-2	2.051565E-2	1.921854E-2	2.496710E-2	4.067114E-2	3.163650E-2	1.805327E-2	2.797898E-2	2.861499E-2	3.136696E-2	1.766865E-2	3.676081E-2	3.509637E-2	2.680587E-2	3.928742E-2	2.476563E-2	3.474054E-2	1.982950E-2	1.838307E-2	2.775347E-2	1.845804E-2	1.557554E-2	2.063517E-2	2.399286E-2	2.773204E-2	2.584615E-2	2.318531E-2	1.342776E-2	5.052008E-2
2.842030E+2	3.258047E-2	3.831936E-2	3.244920E-2	3.858769E-2	3.210752E-2	3.159987E-2	3.223223E-2	3.533170E-2	2.987488E-2	3.244299E-2	3.412745E-2	4.016753E-2	3.071426E-2	2.660990E-2	3.392148E-2	3.363165E-2	2.286624E-2	3.975036E-2	3.064955E-2	2.732696E-2	2.141166E-2	2.072518E-2	4.188524E-2	4.852102E-2	4.884959E-2	3.790388E-2	2.713061E-2	2.867822E-2	4.544929E-2	3.484422E-2	2.970160E-2	2.877592E-2	4.175043E-2	3.644924E-2	2.446669E-2	3.039296E-2	3.659112E-2	2.055224E-2	3.934105E-2	3.270864E-2	2.543519E-2	2.704487E-2	2.811927E-2	3.247060E-2	2.802213E-2	3.645698E-2	3.061238E-2	1.815800E-2	4.163156E-2	3.740791E-2	4.210036E-2	3.375271E-2	2.719243E-2	4.102908E-2	2.907746E-2	3.849452E-2	2.959158E-2	2.657850E-2	3.047252E-2	3.690262E-2	3.023675E-2	2.815915E-2	3.039571E-2	3.646914E-2	3.950105E-2	3.478790E-2	2.585038E-2	3.627614E-2	4.145031E-2	3.347728E-2	3.769441E-2	3.055199E-2	2.419931E-2	3.865699E-2	3.369469E-2	2.635061E-2	3.435223E-2	4.092135E-2	2.467758E-2	4.226053E-2	3.840350E-2	3.792032E-2	3.055899E-2	4.495519E-2	3.389675E-2	2.589687E-2	3.192191E-2	4.649803E-2	3.489677E-2	3.730187E-2	3.267420E-2	4.134688E-2	2.982574E-2	4.134253E-2	3.068713E-2	4.544263E-2	2.961737E-2	2.739244E-2	1.903775E-2	3.789362E-2	4.646337E-2	4.066939E-2	3.490790E-2	4.900445E-2	4.599402E-2	3.628728E-2	4.567508E-2	3.042573E-2	3.985377E-2	2.325596E-2	2.655736E-2	3.888837E-2	1.802787E-2	2.994370E-2	3.209543E-2	3.509077E-2	3.006989E-2	3.377162E-2	3.269211E-2	6.062548E-2	2.474622E-2	3.416688E-2	2.384893E-2	4.923226E-2	3.813490E-2	3.276942E-2	2.211654E-2	4.016731E-2	3.471666E-2	2.823068E-2	4.912403E-2	4.756834E-2	3.939217E-2	2.823427E-2	4.165800E-2	4.289798E-2	3.884763E-2	2.945635E-2	3.212453E-2	2.667363E-2	3.692499E-2	2.303861E-2	4.364252E-2	2.443271E-2	2.231775E-2	3.409851E-2	3.328503E-2	3.946161E-2	3.458808E-2	3.411448E-2	5.045149E-2	3.845746E-2	4.586220E-2	4.990110E-2	3.656479E-2	3.770921E-2	3.181299E-2	3.932959E-2	3.666847E-2	3.853970E-2	4.587643E-2	4.523787E-2	3.241914E-2	2.507921E-2	2.638862E-2	4.222422E-2	3.765963E-2	2.890743E-2	2.817759E-2	3.028255E-2	2.163857E-2
2.843010E+2	4.960020E-2	5.724856E-2	4.344555E-2	7.557110E-2	6.053084E-2	5.522486E-2	6.675188E-2	6.504241E-2	5.359065E-2	5.973173E-2	5.096657E-2	7.494118E-2	6.129814E-2	6.134491E-2	5.038379E-2	5.460882E-2	5.546553E-2	4.837634E-2	5.014050E-2	5.209199E-2	4.611740E-2	5.506056E-2	5.959393E-2	5.480233E-2	6.780434E-2	6.705423E-2	5.095602E-2	6.697700E-2	5.914583E-2	6.535484E-2	6.209390E-2	6.755805E-2	5.583863E-2	5.330828E-2	4.576143E-2	5.223941E-2	4.558186E-2	4.643554E-2	5.601958E-2	5.861140E-2	5.999341E-2	5.978795E-2	5.323247E-2	4.727577E-2	6.064902E-2	5.696288E-2	5.372615E-2	5.535934E-2	5.772787E-2	5.173755E-2	3.986749E-2	5.448813E-2	5.162262E-2	4.525014E-2	6.478386E-2	6.881604E-2	6.367194E-2	6.628404E-2	5.734666E-2	6.264064E-2	5.835274E-2	5.550637E-2	4.873983E-2	7.438871E-2	6.349790E-2	6.190277E-2	5.711379E-2	5.837928E-2	5.040274E-2	5.934938E-2	6.714333E-2	5.266240E-2	6.238120E-2	5.895427E-2	4.858173E-2	5.582616E-2	5.344502E-2	5.649594E-2	5.102319E-2	5.227291E-2	6.705545E-2	4.209165E-2	6.087019E-2	5.778000E-2	4.883981E-2	5.125440E-2	5.323481E-2	4.574558E-2	5.805922E-2	5.854308E-2	6.477173E-2	5.020848E-2	5.154897E-2	5.524891E-2	5.457291E-2	6.340297E-2	4.932723E-2	5.438689E-2	5.427750E-2	6.372556E-2	4.971002E-2	6.572734E-2	6.138910E-2	6.965814E-2	4.681468E-2	5.313449E-2	4.929585E-2	7.422806E-2	6.803733E-2	5.298393E-2	5.848439E-2	4.546080E-2	5.846041E-2	4.970826E-2	5.120141E-2	3.841758E-2	5.564449E-2	5.591043E-2	6.699121E-2	5.235387E-2	4.715950E-2	6.261206E-2	6.253293E-2	6.067142E-2	6.405347E-2	5.401307E-2	6.025300E-2	5.512751E-2	3.631114E-2	5.242144E-2	5.955546E-2	6.735629E-2	6.316640E-2	6.382715E-2	7.217335E-2	7.854176E-2	5.098847E-2	6.317651E-2	6.217976E-2	6.959627E-2	7.163946E-2	5.114647E-2	5.408818E-2	6.882614E-2	4.323769E-2	6.681947E-2	7.243128E-2	8.563007E-2	5.707537E-2	4.229510E-2	6.751129E-2	5.894089E-2	5.729203E-2	5.685779E-2	5.785751E-2	6.706438E-2	4.601441E-2	6.845754E-2	4.952155E-2	6.125925E-2	5.351355E-2	6.202283E-2	4.870712E-2	5.042230E-2	5.643440E-2	5.039691E-2	6.515141E-2	8.298934E-2	6.561936E-2	5.219396E-2	4.690990E-2
2.844030E+2	7.310351E-2	8.276160E-2	9.214379E-2	1.040199E-1	7.855534E-2	8.019989E-2	9.662465E-2	1.021807E-1	9.286998E-2	8.630246E-2	9.241663E-2	9.944085E-2	9.528041E-2	1.044163E-1	7.331330E-2	8.541901E-2	7.067857E-2	8.935027E-2	8.262547E-2	8.227440E-2	8.106696E-2	8.571723E-2	9.556475E-2	9.248985E-2	8.145176E-2	1.164479E-1	7.233776E-2	8.897844E-2	6.923797E-2	9.891671E-2	6.975033E-2	8.159980E-2	8.772259E-2	8.635205E-2	8.338200E-2	9.350504E-2	7.974672E-2	7.408361E-2	8.258154E-2	1.104170E-1	8.961474E-2	9.180343E-2	8.552090E-2	8.857435E-2	1.046574E-1	8.948950E-2	8.005018E-2	9.256069E-2	9.758541E-2	8.039706E-2	8.229194E-2	8.520738E-2	6.350760E-2	8.143008E-2	9.038470E-2	1.186300E-1	1.091125E-1	9.300895E-2	8.785250E-2	9.305833E-2	9.944549E-2	1.026044E-1	8.732579E-2	7.936182E-2	8.524507E-2	9.504306E-2	7.410478E-2	7.416722E-2	5.551837E-2	8.900763E-2	1.002734E-1	1.124426E-1	9.750845E-2	7.272745E-2	8.647606E-2	8.612052E-2	8.208435E-2	7.748782E-2	7.993907E-2	9.365744E-2	9.193732E-2	8.032923E-2	9.506744E-2	8.423098E-2	8.327392E-2	8.132961E-2	1.157526E-1	9.690666E-2	8.441661E-2	9.252899E-2	8.545686E-2	9.290474E-2	8.646139E-2	8.372382E-2	9.072446E-2	8.601971E-2	7.928618E-2	7.099885E-2	8.878308E-2	8.067782E-2	8.282572E-2	8.528471E-2	8.719123E-2	9.825550E-2	7.964069E-2	7.217927E-2	8.984885E-2	9.654244E-2	8.860374E-2	7.325298E-2	8.176456E-2	8.752454E-2	6.735557E-2	8.105907E-2	7.906434E-2	8.083420E-2	6.506672E-2	7.206579E-2	8.231638E-2	8.544021E-2	7.953424E-2	8.963502E-2	8.559454E-2	7.827004E-2	1.017532E-1	8.169420E-2	7.805006E-2	8.980792E-2	7.617142E-2	7.922734E-2	9.830087E-2	8.467075E-2	7.794494E-2	9.097426E-2	8.812449E-2	8.567062E-2	8.741110E-2	8.382152E-2	7.757389E-2	9.435935E-2	1.003166E-1	7.669907E-2	1.028345E-1	7.927164E-2	7.500493E-2	7.823379E-2	9.015789E-2	9.032515E-2	8.551523E-2	8.251672E-2	1.009485E-1	9.124185E-2	8.091371E-2	7.618186E-2	8.061871E-2	9.893569E-2	7.142745E-2	9.096553E-2	7.972605E-2	9.600680E-2	7.260615E-2	8.929841E-2	1.006733E-1	9.635686E-2	9.095515E-2	7.805828E-2	1.140257E-1	1.115609E-1	8.933249E-2	7.410530E-2	7.579152E-2
2.845010E+2	1.282147E-1	1.099207E-1	9.764199E-2	1.078131E-1	1.090583E-1	1.321749E-1	1.118930E-1	1.114653E-1	1.173269E-1	9.563811E-2	1.157322E-1	1.231502E-1	1.346996E-1	1.141421E-1	1.138808E-1	1.037739E-1	1.090733E-1	1.152285E-1	8.717331E-2	1.000743E-1	9.793922E-2	9.000917E-2	9.445795E-2	1.034820E-1	1.314924E-1	1.099701E-1	9.799584E-2	1.028311E-1	1.182571E-1	1.294274E-1	1.086213E-1	8.828640E-2	1.092258E-1	8.095711E-2	9.828829E-2	1.040238E-1	1.049208E-1	8.584871E-2	1.060550E-1	1.256540E-1	1.030149E-1	1.056283E-1	1.077640E-1	1.142885E-1	1.114863E-1	1.184806E-1	9.417527E-2	1.051713E-1	1.106157E-1	1.172448E-1	1.113192E-1	1.028709E-1	1.084063E-1	1.043441E-1	1.335018E-1	1.294591E-1	8.714960E-2	1.090439E-1	8.930510E-2	1.000778E-1	1.102593E-1	9.880630E-2	9.554903E-2	1.396603E-1	1.054924E-1	9.579630E-2	9.381436E-2	1.144265E-1	8.045732E-2	9.910406E-2	1.309492E-1	1.173560E-1	9.445396E-2	1.147718E-1	1.209870E-1	1.221463E-1	1.202701E-1	1.167629E-1	9.985896E-2	1.170197E-1	1.107872E-1	9.492901E-2	1.036167E-1	1.010636E-1	1.066631E-1	9.843129E-2	1.157525E-1	1.224871E-1	9.799457E-2	1.017336E-1	1.225475E-1	1.106278E-1	1.221495E-1	1.234564E-1	1.023446E-1	1.126275E-1	9.268891E-2	1.076836E-1	9.245387E-2	9.924454E-2	1.029549E-1	8.834057E-2	1.245364E-1	1.244698E-1	1.009776E-1	1.131988E-1	1.108496E-1	1.180304E-1	1.251664E-1	1.029810E-1	9.573269E-2	1.381324E-1	1.085968E-1	8.378522E-2	1.132959E-1	9.580479E-2	9.939061E-2	9.420457E-2	1.326705E-1	1.350696E-1	1.094186E-1	1.138134E-1	9.154588E-2	1.240265E-1	1.001823E-1	9.328166E-2	1.142797E-1	1.088480E-1	9.291263E-2	9.361102E-2	1.064970E-1	1.118791E-1	1.120000E-1	1.217409E-1	1.228009E-1	1.228985E-1	1.116929E-1	1.168534E-1	1.149597E-1	1.092172E-1	1.176738E-1	1.016128E-1	1.188511E-1	1.066911E-1	1.013485E-1	9.877945E-2	1.182250E-1	1.091055E-1	9.477469E-2	1.111489E-1	1.166435E-1	1.503290E-1	1.212992E-1	9.395996E-2	1.224700E-1	1.123553E-1	1.132843E-1	1.194314E-1	1.247114E-1	8.464698E-2	8.940767E-2	1.319602E-1	1.185125E-1	1.019007E-1	1.011833E-1	1.025763E-1	1.109711E-1	1.115609E-1	1.217820E-1	7.747626E-2	1.082831E-1
2.846010E+2	1.468554E-1	1.486021E-1	1.510530E-1	1.997977E-1	1.506535E-1	1.612000E-1	1.650004E-1	2.117390E-1	1.766162E-1	1.624240E-1	1.636590E-1	1.950686E-1	1.917898E-1	1.724964E-1	1.597399E-1	1.719493E-1	1.590590E-1	1.612340E-1	1.638377E-1	1.604390E-1	1.533763E-1	1.353809E-1	1.592053E-1	1.615838E-1	1.716763E-1	2.063280E-1	1.554211E-1	1.631311E-1	1.838562E-1	1.889232E-1	1.663385E-1	1.631760E-1	1.537148E-1	1.463703E-1	1.579134E-1	1.460983E-1	1.696540E-1	1.570274E-1	1.616496E-1	1.866017E-1	2.017524E-1	1.791181E-1	1.673182E-1	1.696129E-1	1.737052E-1	1.637351E-1	1.583800E-1	1.600276E-1	1.742343E-1	1.561396E-1	1.723511E-1	1.735249E-1	1.698123E-1	1.477599E-1	1.766189E-1	1.828826E-1	1.704572E-1	1.739471E-1	1.822753E-1	1.476542E-1	1.787472E-1	1.694532E-1	1.581721E-1	1.850392E-1	1.714838E-1	1.417408E-1	1.624578E-1	1.862621E-1	1.571922E-1	1.590517E-1	1.763497E-1	1.886007E-1	1.624176E-1	1.829127E-1	1.764750E-1	2.048415E-1	1.727756E-1	1.777066E-1	1.557631E-1	1.784287E-1	1.628128E-1	1.776613E-1	1.673482E-1	1.868289E-1	1.813786E-1	1.509152E-1	1.953204E-1	1.969716E-1	1.666831E-1	1.626249E-1	1.574979E-1	1.944093E-1	1.718027E-1	1.724599E-1	1.701287E-1	1.638477E-1	1.762586E-1	1.561349E-1	1.607310E-1	1.718968E-1	1.587969E-1	1.347893E-1	1.774990E-1	1.761042E-1	1.731946E-1	1.739950E-1	1.716791E-1	1.791881E-1	1.693459E-1	1.651392E-1	1.635773E-1	2.012280E-1	1.595420E-1	1.512576E-1	1.785749E-1	1.847963E-1	1.592891E-1	1.444653E-1	1.910515E-1	1.904891E-1	1.650366E-1	1.877708E-1	1.495718E-1	1.724231E-1	1.818650E-1	1.776126E-1	1.911884E-1	1.652889E-1	1.606752E-1	1.406847E-1	1.512031E-1	1.572262E-1	1.608332E-1	1.428552E-1	1.803636E-1	2.052750E-1	1.784675E-1	1.767237E-1	1.626081E-1	1.835063E-1	1.508787E-1	1.706048E-1	1.870959E-1	1.465144E-1	1.718561E-1	1.284566E-1	1.684502E-1	1.474489E-1	1.509931E-1	1.779577E-1	1.814711E-1	1.755391E-1	1.685427E-1	1.797587E-1	1.657898E-1	1.811300E-1	1.626153E-1	1.776874E-1	1.690543E-1	1.741886E-1	1.902167E-1	1.746222E-1	1.797862E-1	1.612987E-1	1.523251E-1	1.604138E-1	2.041376E-1	1.982958E-1	1.504873E-1	1.415249E-1	1.913174E-1
2.847020E+2	4.078236E-1	4.185474E-1	3.937588E-1	4.909235E-1	4.182480E-1	4.271500E-1	4.179233E-1	5.292717E-1	4.085868E-1	4.432120E-1	4.207790E-1	4.740480E-1	4.887946E-1	4.663547E-1	4.448894E-1	4.007314E-1	4.604213E-1	4.329557E-1	3.983788E-1	3.964810E-1	4.377937E-1	4.063852E-1	4.181952E-1	4.709355E-1	4.537237E-1	4.783985E-1	4.150565E-1	4.157404E-1	4.974339E-1	4.238560E-1	3.989742E-1	4.493611E-1	4.073044E-1	3.682354E-1	4.042220E-1	4.373856E-1	4.309857E-1	3.970369E-1	4.315942E-1	4.776269E-1	4.182708E-1	4.592541E-1	4.127097E-1	4.625991E-1	4.658294E-1	4.918303E-1	4.460189E-1	4.362004E-1	4.386731E-1	4.099806E-1	4.410390E-1	4.200474E-1	3.923255E-1	3.805179E-1	4.137632E-1	4.297863E-1	4.393141E-1	4.343240E-1	4.161530E-1	4.806890E-1	5.060467E-1	4.649557E-1	4.377620E-1	4.430165E-1	4.714444E-1	3.699572E-1	4.207203E-1	4.680767E-1	4.142548E-1	3.982107E-1	4.346419E-1	4.711232E-1	4.640540E-1	4.627257E-1	4.214350E-1	4.578405E-1	4.726924E-1	4.594037E-1	3.973714E-1	4.487630E-1	4.779835E-1	3.980487E-1	4.308228E-1	4.593555E-1	4.165702E-1	3.408022E-1	4.652836E-1	4.399865E-1	4.438348E-1	4.260156E-1	4.071465E-1	4.530036E-1	5.116157E-1	4.605203E-1	4.264166E-1	4.778208E-1	4.364290E-1	3.790121E-1	4.110798E-1	4.011557E-1	4.457996E-1	4.067597E-1	4.674337E-1	4.700215E-1	4.768355E-1	4.376924E-1	4.606195E-1	4.692757E-1	4.999318E-1	3.887751E-1	4.150034E-1	4.871292E-1	4.490389E-1	3.618532E-1	4.070504E-1	4.384644E-1	4.358996E-1	3.963692E-1	4.610661E-1	5.188710E-1	4.622200E-1	4.501777E-1	4.196155E-1	4.962379E-1	4.567586E-1	4.396177E-1	4.314487E-1	4.644933E-1	4.046197E-1	4.067830E-1	4.477540E-1	4.697112E-1	4.313458E-1	4.294080E-1	4.744208E-1	4.595346E-1	4.296317E-1	3.983140E-1	4.602284E-1	4.303113E-1	4.625545E-1	3.909961E-1	4.127223E-1	4.305022E-1	4.600865E-1	3.932676E-1	4.048051E-1	4.166340E-1	4.380371E-1	3.811107E-1	4.755819E-1	4.701868E-1	4.055216E-1	4.448850E-1	4.587479E-1	4.310686E-1	4.698140E-1	4.332191E-1	4.293274E-1	4.301175E-1	4.567503E-1	4.005199E-1	4.489246E-1	4.408655E-1	4.157051E-1	4.087377E-1	4.882194E-1	5.156443E-1	4.050918E-1	3.960334E-1	4.187592E-1
2.848000E+2	7.936032E-1	8.703762E-1	8.163340E-1	9.745539E-1	8.009214E-1	8.814249E-1	8.693340E-1	1.010213E+0	8.525171E-1	9.286655E-1	8.780243E-1	9.008160E-1	9.482332E-1	9.241621E-1	8.164653E-1	8.353515E-1	8.943541E-1	8.843867E-1	7.907972E-1	9.002947E-1	8.065723E-1	8.079878E-1	8.166411E-1	9.702944E-1	8.714866E-1	9.213204E-1	7.883203E-1	9.087347E-1	9.732075E-1	9.410125E-1	7.918055E-1	9.007048E-1	8.685093E-1	8.065703E-1	8.045623E-1	8.694602E-1	8.409637E-1	7.829333E-1	8.528803E-1	9.781604E-1	8.089898E-1	8.914629E-1	8.575728E-1	8.787012E-1	8.740450E-1	9.118483E-1	8.312479E-1	8.359574E-1	8.502784E-1	7.859643E-1	8.503980E-1	7.679418E-1	8.479164E-1	7.953820E-1	8.361774E-1	9.690769E-1	8.793297E-1	8.978098E-1	7.989284E-1	9.151167E-1	9.422059E-1	9.632836E-1	7.666922E-1	8.551591E-1	9.153864E-1	7.917433E-1	8.142317E-1	8.919839E-1	8.497266E-1	8.525498E-1	8.641056E-1	9.436316E-1	8.825274E-1	8.766448E-1	8.051149E-1	9.523745E-1	9.778574E-1	8.528311E-1	8.433191E-1	8.779601E-1	8.828790E-1	8.144900E-1	8.660610E-1	9.178414E-1	8.063893E-1	7.883923E-1	9.178268E-1	9.147315E-1	8.855188E-1	8.536724E-1	8.415330E-1	9.339417E-1	9.290114E-1	8.770504E-1	8.725014E-1	8.968948E-1	8.534899E-1	7.195576E-1	8.368937E-1	8.572511E-1	8.483824E-1	7.545136E-1	8.986015E-1	9.688873E-1	9.191661E-1	8.515487E-1	9.356696E-1	9.668037E-1	9.607713E-1	8.448288E-1	8.872572E-1	8.965932E-1	8.517474E-1	7.537376E-1	8.878853E-1	8.759384E-1	8.686492E-1	7.380244E-1	9.222801E-1	9.820786E-1	9.270876E-1	8.384548E-1	7.886017E-1	9.282852E-1	9.374294E-1	8.998969E-1	8.452298E-1	9.132988E-1	8.574336E-1	7.461067E-1	9.067381E-1	9.446217E-1	8.271546E-1	7.907658E-1	9.661326E-1	9.783498E-1	8.879497E-1	7.878159E-1	8.722042E-1	9.478600E-1	9.742154E-1	7.947272E-1	8.479574E-1	8.274308E-1	8.304456E-1	7.752656E-1	8.664344E-1	8.274554E-1	8.712493E-1	8.808125E-1	9.587154E-1	9.074300E-1	8.520472E-1	8.591924E-1	9.235172E-1	8.965586E-1	9.421975E-1	8.284321E-1	8.489775E-1	8.363971E-1	8.607505E-1	8.432238E-1	8.033814E-1	8.891237E-1	8.408220E-1	8.418901E-1	9.937631E-1	1.014626E+0	8.880909E-1	8.679700E-1	9.819478E-1
2.849040E+2	9.816297E-1	9.888894E-1	1.000916E+0	1.131971E+0	9.728476E-1	9.772747E-1	1.036622E+0	1.223759E+0	1.104498E+0	1.025613E+0	1.008203E+0	1.105507E+0	1.122222E+0	1.135351E+0	9.193552E-1	9.887466E-1	1.087052E+0	1.119447E+0	9.571204E-1	9.823296E-1	1.071707E+0	9.827301E-1	9.815537E-1	1.167370E+0	1.078473E+0	1.152904E+0	9.410471E-1	1.057855E+0	1.128915E+0	1.153061E+0	9.537675E-1	1.025074E+0	1.077609E+0	9.872995E-1	1.002603E+0	1.002158E+0	9.938068E-1	9.582340E-1	1.015958E+0	1.204430E+0	1.004349E+0	1.056634E+0	9.501322E-1	1.119480E+0	1.097881E+0	1.105594E+0	1.024505E+0	1.001786E+0	1.047267E+0	9.954503E-1	1.009675E+0	9.837440E-1	1.036755E+0	9.762821E-1	1.059848E+0	1.145953E+0	1.069424E+0	9.879100E-1	9.790584E-1	1.112441E+0	1.143344E+0	1.106097E+0	9.248312E-1	1.043515E+0	1.035371E+0	9.431349E-1	9.488009E-1	1.054600E+0	9.968023E-1	1.046906E+0	1.029142E+0	1.127886E+0	1.032964E+0	1.065845E+0	1.022331E+0	1.148060E+0	1.146511E+0	1.140622E+0	9.936819E-1	1.061520E+0	1.072886E+0	9.389356E-1	1.015285E+0	1.082159E+0	9.408779E-1	9.476140E-1	1.082646E+0	1.110347E+0	1.062033E+0	1.054756E+0	1.029126E+0	1.161118E+0	1.139262E+0	1.067766E+0	1.001614E+0	1.100445E+0	1.049012E+0	9.424350E-1	1.007953E+0	1.045341E+0	1.008117E+0	9.782019E-1	1.114525E+0	1.188134E+0	1.089861E+0	1.001709E+0	1.110193E+0	1.139534E+0	1.079600E+0	9.961708E-1	1.076824E+0	1.092452E+0	1.030460E+0	8.689181E-1	1.069391E+0	1.015664E+0	1.030173E+0	8.852173E-1	1.101803E+0	1.149992E+0	1.134617E+0	1.043260E+0	9.597044E-1	1.098112E+0	1.180121E+0	1.026071E+0	1.020657E+0	1.059501E+0	1.030427E+0	9.409396E-1	1.076621E+0	1.134255E+0	1.005140E+0	9.578719E-1	1.165175E+0	1.069439E+0	1.022259E+0	9.557277E-1	1.043739E+0	1.079930E+0	1.150052E+0	9.397385E-1	1.039461E+0	1.014145E+0	1.079160E+0	9.951800E-1	1.056257E+0	1.028562E+0	1.000221E+0	9.769356E-1	1.054250E+0	1.147718E+0	9.869190E-1	1.033108E+0	1.163612E+0	1.050044E+0	1.129058E+0	1.066089E+0	1.043700E+0	1.026840E+0	1.053205E+0	9.935894E-1	1.014349E+0	1.026135E+0	1.037078E+0	1.011630E+0	1.024309E+0	1.212586E+0	1.039105E+0	9.926965E-1	1.075814E+0
2.850010E+2	8.519559E-1	8.399256E-1	9.105893E-1	1.001107E+0	8.224125E-1	8.942501E-1	8.892494E-1	1.113272E+0	8.799382E-1	9.904245E-1	8.501753E-1	9.861696E-1	9.543504E-1	9.984952E-1	8.670280E-1	8.995939E-1	9.240563E-1	9.627406E-1	8.330279E-1	8.585039E-1	8.746639E-1	8.472284E-1	8.432045E-1	9.302518E-1	9.419984E-1	9.650456E-1	8.268080E-1	9.079196E-1	1.002763E+0	9.776252E-1	8.418665E-1	8.579104E-1	9.967872E-1	9.272807E-1	8.407637E-1	9.026348E-1	8.289762E-1	8.335237E-1	8.831478E-1	1.007111E+0	8.999690E-1	9.103806E-1	9.006232E-1	8.981816E-1	1.003035E+0	9.514456E-1	8.716970E-1	9.090989E-1	9.115984E-1	9.278968E-1	8.838910E-1	8.339878E-1	8.512182E-1	8.840228E-1	9.089372E-1	9.315366E-1	9.346166E-1	9.084993E-1	8.701080E-1	9.790718E-1	9.811354E-1	9.746780E-1	8.242550E-1	8.688357E-1	9.228851E-1	9.084879E-1	8.196692E-1	9.204023E-1	8.177534E-1	8.828385E-1	9.138004E-1	9.878527E-1	8.756548E-1	9.324625E-1	8.727839E-1	9.540127E-1	1.025590E+0	9.794596E-1	8.741625E-1	8.812976E-1	9.507390E-1	9.250306E-1	8.629520E-1	9.330707E-1	8.928000E-1	8.656446E-1	9.249309E-1	1.010283E+0	9.246556E-1	8.742050E-1	9.207074E-1	9.307192E-1	1.007370E+0	9.578396E-1	8.970326E-1	9.354760E-1	8.605848E-1	8.552217E-1	8.545135E-1	9.743024E-1	8.451351E-1	8.791920E-1	8.782315E-1	1.005428E+0	9.126008E-1	8.837782E-1	9.197385E-1	9.899445E-1	9.881935E-1	9.529312E-1	8.979001E-1	9.136817E-1	9.221003E-1	8.471084E-1	8.934579E-1	9.108695E-1	8.794179E-1	8.409396E-1	9.492808E-1	9.489920E-1	9.478413E-1	8.789892E-1	8.116638E-1	9.784413E-1	9.554930E-1	9.340154E-1	9.145108E-1	8.826983E-1	9.427344E-1	7.866424E-1	9.305813E-1	9.347269E-1	8.637799E-1	7.931794E-1	9.571170E-1	9.735972E-1	9.031262E-1	8.022670E-1	9.051919E-1	9.239217E-1	9.153522E-1	8.221965E-1	9.043644E-1	8.496284E-1	8.963048E-1	8.239666E-1	8.524014E-1	8.438876E-1	8.633125E-1	8.855839E-1	9.518913E-1	9.696691E-1	8.931943E-1	9.364890E-1	9.462788E-1	9.485581E-1	9.937708E-1	9.032373E-1	8.939627E-1	8.952001E-1	9.523956E-1	8.551128E-1	8.964554E-1	9.168428E-1	8.874881E-1	8.362323E-1	9.899445E-1	9.860538E-1	9.005716E-1	9.050511E-1	9.277953E-1
2.851030E+2	8.373675E-1	8.300496E-1	8.328281E-1	9.091224E-1	7.766581E-1	7.977249E-1	8.129077E-1	9.210815E-1	8.250960E-1	8.317186E-1	8.605376E-1	9.142516E-1	9.203681E-1	9.373614E-1	8.017674E-1	7.796308E-1	8.689989E-1	8.613837E-1	7.245274E-1	7.532525E-1	7.939183E-1	8.404837E-1	7.723690E-1	9.451699E-1	8.631463E-1	8.694986E-1	6.899649E-1	8.924375E-1	9.068880E-1	9.699972E-1	8.206642E-1	8.645973E-1	8.685098E-1	7.984779E-1	7.910751E-1	8.451865E-1	7.888172E-1	7.682270E-1	7.941959E-1	8.745494E-1	7.828949E-1	8.208828E-1	7.829500E-1	8.646755E-1	8.649396E-1	9.104344E-1	8.184071E-1	7.993863E-1	8.104214E-1	8.112115E-1	7.834114E-1	7.717822E-1	8.221660E-1	7.923672E-1	8.348299E-1	8.968829E-1	8.172281E-1	8.153446E-1	7.916650E-1	8.714399E-1	9.003926E-1	9.298596E-1	7.382266E-1	8.445914E-1	8.186489E-1	8.791126E-1	7.693761E-1	8.477774E-1	8.215906E-1	8.045918E-1	8.561298E-1	9.395372E-1	8.084546E-1	7.751585E-1	8.227087E-1	8.434792E-1	9.022815E-1	9.232551E-1	7.655671E-1	8.519285E-1	8.979597E-1	8.283947E-1	8.435217E-1	8.657401E-1	7.953450E-1	7.931101E-1	8.780426E-1	8.966750E-1	8.447846E-1	8.260585E-1	8.308336E-1	8.678830E-1	9.134946E-1	9.379731E-1	7.892234E-1	8.543217E-1	8.132811E-1	8.178451E-1	7.744897E-1	8.717822E-1	7.724109E-1	7.740715E-1	8.823057E-1	9.315518E-1	8.863392E-1	8.588742E-1	8.523919E-1	9.122576E-1	9.356345E-1	9.110411E-1	7.788378E-1	8.532152E-1	8.549820E-1	7.837250E-1	8.058876E-1	8.368489E-1	7.986558E-1	8.463247E-1	8.814125E-1	8.819921E-1	8.864113E-1	8.669003E-1	7.588451E-1	9.159663E-1	8.981587E-1	9.430283E-1	7.937453E-1	8.303378E-1	8.119922E-1	7.977568E-1	8.821494E-1	9.091679E-1	8.188015E-1	8.317883E-1	9.134243E-1	9.300333E-1	8.280041E-1	7.589127E-1	8.348181E-1	8.554103E-1	9.244082E-1	7.442608E-1	8.375122E-1	7.797732E-1	8.660870E-1	7.851582E-1	7.792788E-1	8.180657E-1	7.720399E-1	8.044600E-1	8.775109E-1	8.381018E-1	8.238533E-1	8.143612E-1	8.412830E-1	8.588155E-1	8.353134E-1	8.132058E-1	7.821417E-1	7.842755E-1	8.027091E-1	7.502067E-1	8.165672E-1	7.996303E-1	8.555246E-1	7.934832E-1	8.845600E-1	9.503396E-1	7.782615E-1	8.410019E-1	7.400662E-1
2.852020E+2	7.239032E-1	7.049525E-1	7.181526E-1	8.171374E-1	7.059465E-1	7.423749E-1	7.432048E-1	8.217360E-1	7.717356E-1	7.613421E-1	7.724563E-1	7.988663E-1	8.000714E-1	8.901217E-1	7.141645E-1	7.409539E-1	7.683035E-1	7.923746E-1	7.011384E-1	7.555740E-1	7.210058E-1	7.718125E-1	7.175833E-1	7.983454E-1	7.729223E-1	8.379189E-1	7.101245E-1	7.913942E-1	8.456145E-1	8.296490E-1	7.046407E-1	7.435699E-1	7.639594E-1	7.762240E-1	6.888609E-1	7.052072E-1	7.031053E-1	7.052833E-1	7.311884E-1	8.059827E-1	7.285887E-1	7.590359E-1	7.169388E-1	7.719488E-1	8.186551E-1	8.199251E-1	7.330147E-1	7.382246E-1	7.445034E-1	7.074918E-1	7.305676E-1	7.587266E-1	7.515161E-1	7.242279E-1	7.438793E-1	8.586194E-1	7.816330E-1	7.641849E-1	7.364639E-1	7.528877E-1	8.434394E-1	8.174314E-1	6.901524E-1	7.283462E-1	7.316598E-1	7.864709E-1	7.156845E-1	7.325254E-1	7.250321E-1	7.566338E-1	7.426286E-1	8.707494E-1	7.633999E-1	8.012554E-1	7.266197E-1	8.107293E-1	7.726096E-1	8.582484E-1	7.707077E-1	7.451296E-1	7.735500E-1	7.644334E-1	7.930023E-1	7.519210E-1	7.576619E-1	7.488816E-1	8.048687E-1	8.492751E-1	7.936681E-1	7.927806E-1	7.595065E-1	7.832966E-1	7.978964E-1	8.419531E-1	6.988453E-1	8.017716E-1	7.486333E-1	7.693933E-1	6.907954E-1	8.475646E-1	7.224127E-1	7.789608E-1	7.899614E-1	8.274889E-1	7.566770E-1	8.083323E-1	7.814239E-1	8.494464E-1	8.168070E-1	8.515855E-1	7.728519E-1	8.006355E-1	7.797775E-1	7.653237E-1	7.915585E-1	7.644909E-1	7.104903E-1	7.601632E-1	7.901913E-1	8.455984E-1	8.158516E-1	7.829868E-1	6.524630E-1	7.610984E-1	8.156898E-1	8.548347E-1	7.308196E-1	7.541770E-1	8.175730E-1	7.768355E-1	7.912473E-1	8.102283E-1	6.986454E-1	7.642226E-1	8.066207E-1	8.413190E-1	7.650237E-1	7.699236E-1	7.585807E-1	7.646134E-1	8.074351E-1	8.771344E-1	8.194064E-1	7.451730E-1	7.583882E-1	7.813532E-1	7.541661E-1	7.805048E-1	7.436006E-1	7.915069E-1	7.901644E-1	8.254965E-1	7.872781E-1	8.135878E-1	8.016346E-1	7.606852E-1	7.956987E-1	8.390236E-1	7.320154E-1	7.221309E-1	7.950722E-1	7.809797E-1	7.863176E-1	7.584480E-1	7.193599E-1	6.759216E-1	8.127760E-1	8.595231E-1	7.645319E-1	7.735836E-1	6.931340E-1
2.853020E+2	5.634319E-1	5.576345E-1	5.799118E-1	6.948074E-1	5.631374E-1	5.675500E-1	5.779083E-1	6.750398E-1	5.797851E-1	6.098171E-1	5.723306E-1	6.415942E-1	6.464713E-1	6.553126E-1	5.942256E-1	5.744484E-1	5.929917E-1	6.112276E-1	5.673003E-1	5.721580E-1	5.631303E-1	5.719310E-1	5.665054E-1	6.703652E-1	6.152184E-1	6.605878E-1	5.512893E-1	6.479774E-1	6.913477E-1	6.938754E-1	5.738937E-1	6.252181E-1	6.423551E-1	5.975184E-1	5.405081E-1	6.048755E-1	5.940178E-1	5.699844E-1	5.761405E-1	6.581846E-1	5.769559E-1	6.433433E-1	5.440163E-1	6.083127E-1	6.441397E-1	6.728478E-1	5.930476E-1	5.944633E-1	6.302962E-1	5.867135E-1	5.571479E-1	5.383150E-1	5.395671E-1	5.650356E-1	6.017274E-1	6.290426E-1	5.771503E-1	5.954365E-1	5.657765E-1	6.327776E-1	6.408595E-1	6.510691E-1	5.598462E-1	5.878577E-1	5.846797E-1	6.200162E-1	5.987861E-1	6.093792E-1	5.702825E-1	6.020324E-1	6.125626E-1	6.299909E-1	5.602725E-1	6.178552E-1	5.919596E-1	6.756325E-1	6.803271E-1	6.605188E-1	5.965699E-1	5.769219E-1	6.227504E-1	6.288642E-1	5.987003E-1	6.060392E-1	5.471594E-1	5.530978E-1	6.301031E-1	6.453831E-1	6.075693E-1	6.313475E-1	6.018713E-1	6.374838E-1	6.341965E-1	6.545480E-1	6.200862E-1	6.407938E-1	6.004158E-1	5.755874E-1	5.762667E-1	6.174986E-1	5.665748E-1	5.760526E-1	6.276789E-1	6.884742E-1	6.073181E-1	6.164198E-1	6.054525E-1	6.469643E-1	6.576075E-1	6.961892E-1	5.945929E-1	5.844014E-1	7.037641E-1	6.174302E-1	6.020911E-1	6.164486E-1	5.873284E-1	6.297242E-1	6.508063E-1	6.412897E-1	6.033404E-1	6.137376E-1	5.721201E-1	6.343877E-1	6.295489E-1	6.926104E-1	5.954349E-1	6.100152E-1	5.895722E-1	6.362676E-1	5.982650E-1	6.024546E-1	5.649956E-1	5.904804E-1	6.290772E-1	6.757736E-1	6.208509E-1	6.226560E-1	5.665208E-1	6.193372E-1	6.572571E-1	6.727134E-1	5.784599E-1	5.819617E-1	6.212469E-1	6.268800E-1	5.879799E-1	5.903532E-1	6.238882E-1	5.992613E-1	6.318494E-1	6.442962E-1	5.701109E-1	6.010233E-1	6.107347E-1	6.164263E-1	6.305143E-1	6.708757E-1	6.086269E-1	5.550754E-1	6.125470E-1	6.480986E-1	6.118046E-1	6.396514E-1	5.947016E-1	5.910518E-1	6.524066E-1	6.942167E-1	6.060291E-1	6.606544E-1	6.317610E-1
2.854040E+2	3.567649E-1	3.666979E-1	3.788352E-1	4.643717E-1	3.607079E-1	3.576249E-1	4.119485E-1	4.336408E-1	4.056226E-1	4.238227E-1	3.864532E-1	4.124039E-1	4.561717E-1	4.211994E-1	3.713977E-1	3.895874E-1	4.118840E-1	4.049211E-1	3.658939E-1	3.748117E-1	3.588559E-1	3.610137E-1	3.822240E-1	4.442402E-1	4.196046E-1	4.395310E-1	3.594640E-1	4.426312E-1	4.880632E-1	4.284324E-1	3.630484E-1	4.065675E-1	4.050790E-1	3.864433E-1	3.722799E-1	3.928832E-1	3.716467E-1	3.399759E-1	3.797055E-1	4.555333E-1	3.491537E-1	4.010438E-1	3.545909E-1	4.025993E-1	3.952640E-1	4.218273E-1	3.644780E-1	3.769303E-1	4.072475E-1	3.970153E-1	3.576786E-1	3.747361E-1	3.744979E-1	3.612223E-1	3.807521E-1	4.435035E-1	3.984176E-1	3.740017E-1	3.573205E-1	4.058143E-1	4.159307E-1	4.436860E-1	3.713438E-1	4.169086E-1	3.927051E-1	3.993317E-1	3.473201E-1	4.072929E-1	3.771665E-1	3.900073E-1	4.021251E-1	4.563825E-1	3.876907E-1	4.337296E-1	3.781269E-1	4.340963E-1	4.106405E-1	4.614349E-1	4.160059E-1	3.946959E-1	4.282195E-1	3.820584E-1	4.043982E-1	4.184762E-1	3.983778E-1	3.661595E-1	3.921092E-1	4.068823E-1	4.278607E-1	4.118551E-1	4.221249E-1	4.376980E-1	4.317054E-1	4.293971E-1	3.760634E-1	3.953362E-1	4.458895E-1	3.942401E-1	3.582204E-1	3.938905E-1	3.873601E-1	4.061483E-1	3.784845E-1	4.453964E-1	4.111831E-1	3.849526E-1	4.251359E-1	4.395228E-1	4.466115E-1	4.745807E-1	3.970441E-1	3.911720E-1	3.883898E-1	3.918405E-1	3.767998E-1	4.010380E-1	4.136894E-1	3.909844E-1	4.296860E-1	4.287110E-1	4.232045E-1	3.918654E-1	3.548949E-1	4.100049E-1	4.339814E-1	4.698738E-1	3.799635E-1	4.128122E-1	3.958506E-1	4.087440E-1	3.888912E-1	4.235393E-1	3.921506E-1	3.805433E-1	3.939707E-1	4.349792E-1	3.833448E-1	3.955609E-1	3.920540E-1	4.245337E-1	4.233124E-1	4.306026E-1	4.120256E-1	3.848029E-1	3.779559E-1	4.488170E-1	3.974189E-1	3.915936E-1	4.062902E-1	4.022442E-1	4.537450E-1	3.882524E-1	4.199997E-1	4.271063E-1	4.036808E-1	4.168106E-1	4.384218E-1	4.405009E-1	4.029788E-1	3.873515E-1	4.155105E-1	4.319915E-1	4.008365E-1	4.044351E-1	3.882169E-1	4.055946E-1	4.515637E-1	4.452353E-1	3.826261E-1	3.673802E-1	3.790472E-1
2.855030E+2	2.651826E-1	2.654685E-1	2.696565E-1	3.221274E-1	2.768251E-1	2.631246E-1	2.984317E-1	3.500792E-1	2.974187E-1	3.125126E-1	2.912473E-1	2.962278E-1	3.297579E-1	3.392249E-1	2.879104E-1	2.755241E-1	2.945270E-1	3.244110E-1	2.703887E-1	2.889081E-1	2.829311E-1	2.751751E-1	2.693312E-1	3.288218E-1	3.422696E-1	3.269780E-1	2.721044E-1	3.032881E-1	3.474931E-1	3.224072E-1	2.805949E-1	3.035943E-1	2.945978E-1	2.846145E-1	2.871013E-1	2.893141E-1	2.733472E-1	2.558554E-1	2.666622E-1	3.351621E-1	2.715740E-1	3.049974E-1	2.785338E-1	2.927294E-1	3.163530E-1	3.624307E-1	2.784436E-1	3.044194E-1	2.976393E-1	3.144491E-1	2.832496E-1	2.764350E-1	2.853606E-1	2.617272E-1	2.796960E-1	3.207738E-1	2.484636E-1	2.793198E-1	2.607187E-1	3.247006E-1	3.423971E-1	3.084684E-1	2.872135E-1	3.137174E-1	2.877187E-1	3.006638E-1	2.847929E-1	3.236170E-1	2.799687E-1	2.745293E-1	3.088700E-1	3.007912E-1	2.929996E-1	2.938232E-1	2.867750E-1	3.407566E-1	2.984707E-1	3.083978E-1	2.759242E-1	2.792201E-1	3.045640E-1	2.916786E-1	3.010283E-1	3.110690E-1	2.742855E-1	2.741648E-1	3.189356E-1	2.970361E-1	3.184381E-1	2.985690E-1	3.058600E-1	2.798018E-1	2.959348E-1	3.360254E-1	3.024693E-1	3.055346E-1	2.889992E-1	2.848779E-1	2.510330E-1	3.260814E-1	2.522998E-1	2.863589E-1	2.949666E-1	3.603978E-1	2.839827E-1	3.160986E-1	3.244773E-1	3.139011E-1	3.117874E-1	3.637765E-1	2.899555E-1	3.261045E-1	3.018645E-1	3.025590E-1	2.653476E-1	2.970758E-1	3.039880E-1	2.844783E-1	3.260589E-1	3.137359E-1	2.953656E-1	3.235964E-1	2.790149E-1	3.176118E-1	3.153847E-1	3.218117E-1	2.464866E-1	3.087711E-1	2.850397E-1	3.093660E-1	3.099100E-1	3.419137E-1	3.195426E-1	3.021188E-1	2.899415E-1	3.201280E-1	2.953233E-1	3.239915E-1	2.901591E-1	3.048455E-1	2.957740E-1	3.424462E-1	2.713577E-1	2.725132E-1	2.942767E-1	3.156506E-1	2.984458E-1	2.883018E-1	3.044362E-1	2.768073E-1	3.350091E-1	3.063186E-1	3.026527E-1	3.312593E-1	3.119021E-1	3.421646E-1	3.248102E-1	3.392153E-1	2.892300E-1	2.837772E-1	3.017178E-1	3.033069E-1	3.007818E-1	3.078142E-1	2.846547E-1	3.106656E-1	3.095227E-1	3.146222E-1	2.653089E-1	3.083882E-1	2.635213E-1
2.856030E+2	2.360059E-1	2.646452E-1	2.570897E-1	2.917818E-1	2.851438E-1	2.455750E-1	2.327119E-1	3.027280E-1	2.774087E-1	2.924051E-1	2.614549E-1	2.859542E-1	2.787843E-1	3.281097E-1	2.532221E-1	2.755247E-1	2.923538E-1	2.819991E-1	2.502477E-1	2.625947E-1	2.582256E-1	2.610732E-1	2.521758E-1	2.785716E-1	3.142161E-1	2.953988E-1	2.714933E-1	2.755831E-1	2.840570E-1	3.002880E-1	2.570372E-1	2.761789E-1	2.501081E-1	2.455012E-1	2.544493E-1	2.674678E-1	2.703510E-1	2.535023E-1	2.746928E-1	3.115442E-1	2.391318E-1	2.911722E-1	2.405048E-1	2.748072E-1	2.670329E-1	3.101054E-1	2.508354E-1	2.394743E-1	2.593149E-1	2.489419E-1	2.728296E-1	2.449470E-1	2.615910E-1	2.659479E-1	2.594850E-1	3.070567E-1	2.628529E-1	2.793195E-1	2.323918E-1	2.919434E-1	2.933741E-1	3.183439E-1	2.688696E-1	2.608784E-1	2.967174E-1	3.051830E-1	2.433350E-1	2.667801E-1	2.479954E-1	2.442401E-1	2.671510E-1	2.876885E-1	2.761993E-1	2.988973E-1	2.766244E-1	3.096434E-1	2.738083E-1	3.097521E-1	2.810652E-1	2.678725E-1	2.879760E-1	2.666503E-1	2.668312E-1	2.782060E-1	2.443996E-1	2.476281E-1	2.962018E-1	3.196078E-1	2.753077E-1	2.716630E-1	2.694831E-1	2.959138E-1	2.990385E-1	3.141723E-1	2.617988E-1	2.789267E-1	2.787503E-1	2.828016E-1	2.561725E-1	3.075146E-1	2.354179E-1	2.802473E-1	2.841028E-1	2.976430E-1	2.651069E-1	2.750793E-1	2.889938E-1	3.081162E-1	3.125491E-1	2.995909E-1	2.766526E-1	2.649807E-1	2.565796E-1	2.821132E-1	2.573873E-1	2.571545E-1	2.710101E-1	2.581514E-1	2.968679E-1	2.872663E-1	2.986865E-1	2.994184E-1	2.656240E-1	2.885733E-1	2.910365E-1	3.018555E-1	2.337744E-1	3.026506E-1	2.690951E-1	3.047894E-1	2.733999E-1	2.644115E-1	2.578580E-1	2.804007E-1	2.934092E-1	2.924044E-1	2.626952E-1	2.544868E-1	2.806301E-1	2.602718E-1	2.987928E-1	2.855916E-1	2.567337E-1	2.875293E-1	2.663829E-1	2.768420E-1	2.873660E-1	2.632612E-1	2.475562E-1	2.999861E-1	2.961125E-1	2.897740E-1	2.546472E-1	2.864277E-1	2.722536E-1	3.195186E-1	2.889329E-1	3.226654E-1	2.500279E-1	2.563800E-1	2.826251E-1	2.683384E-1	2.519185E-1	3.006863E-1	2.411841E-1	2.773463E-1	3.095229E-1	3.238062E-1	2.615649E-1	3.033317E-1	2.310296E-1
2.858060E+2	2.992219E-1	2.992123E-1	3.002900E-1	3.297138E-1	3.024751E-1	2.800000E-1	3.090535E-1	3.194398E-1	3.248403E-1	3.275937E-1	2.977243E-1	3.254698E-1	3.433507E-1	3.183841E-1	3.167192E-1	2.879793E-1	3.235041E-1	3.172223E-1	2.989752E-1	2.889076E-1	2.931748E-1	2.843721E-1	2.909137E-1	3.115484E-1	2.929874E-1	3.245488E-1	2.690496E-1	3.155114E-1	3.561438E-1	3.285096E-1	2.882513E-1	3.035938E-1	3.257403E-1	3.169838E-1	2.771636E-1	2.893144E-1	3.087110E-1	2.911506E-1	2.722218E-1	3.069731E-1	2.687532E-1	3.020866E-1	2.462454E-1	2.935085E-1	3.133178E-1	3.412176E-1	2.713810E-1	2.754151E-1	3.191012E-1	3.055782E-1	2.787842E-1	2.787382E-1	2.807384E-1	3.165999E-1	3.066443E-1	3.344900E-1	2.999628E-1	3.014629E-1	2.854143E-1	2.919430E-1	3.077928E-1	3.251811E-1	2.688696E-1	3.099879E-1	3.079656E-1	3.247664E-1	2.786758E-1	2.975671E-1	2.812477E-1	2.795779E-1	3.223672E-1	3.360041E-1	2.830722E-1	3.184697E-1	3.023385E-1	3.096433E-1	3.119937E-1	3.205870E-1	2.714270E-1	3.152647E-1	3.211523E-1	2.645645E-1	2.847073E-1	2.990462E-1	2.892292E-1	2.830104E-1	3.139624E-1	3.233695E-1	2.928787E-1	3.070653E-1	2.958745E-1	3.426379E-1	3.292960E-1	3.366875E-1	2.876212E-1	3.341383E-1	3.181702E-1	2.980290E-1	2.877413E-1	3.034790E-1	3.100900E-1	2.998048E-1	3.275591E-1	3.198852E-1	3.176291E-1	3.300156E-1	2.911659E-1	3.444807E-1	3.468264E-1	3.212112E-1	2.700012E-1	3.083590E-1	2.881168E-1	3.046036E-1	2.908222E-1	2.945808E-1	3.046613E-1	2.946503E-1	3.136530E-1	3.137355E-1	3.020065E-1	3.079519E-1	2.909173E-1	3.052927E-1	3.334484E-1	3.752431E-1	2.973349E-1	2.883702E-1	2.969976E-1	3.100199E-1	3.151257E-1	3.213010E-1	2.790623E-1	3.009115E-1	3.308600E-1	3.272566E-1	2.945648E-1	3.116044E-1	3.136176E-1	3.023687E-1	3.033207E-1	3.545832E-1	3.201045E-1	2.796951E-1	3.159708E-1	3.232602E-1	3.065703E-1	2.749984E-1	3.163411E-1	3.047578E-1	3.336443E-1	3.378317E-1	3.178927E-1	3.011138E-1	3.141044E-1	2.901636E-1	3.322846E-1	3.266369E-1	2.918003E-1	3.071648E-1	2.841528E-1	2.984111E-1	2.860451E-1	2.888067E-1	3.025541E-1	2.773457E-1	3.247958E-1	3.462556E-1	3.252153E-1	3.151300E-1	3.140641E-1
2.860070E+2	4.062027E-1	4.275999E-1	4.668062E-1	5.535113E-1	4.120091E-1	4.635994E-1	4.610726E-1	5.134876E-1	4.604651E-1	4.661918E-1	5.036788E-1	4.882740E-1	5.003480E-1	4.885856E-1	5.319039E-1	4.367857E-1	4.850515E-1	4.667409E-1	4.652978E-1	4.328542E-1	4.468325E-1	4.309106E-1	4.259426E-1	4.992007E-1	4.749523E-1	4.775886E-1	4.847001E-1	4.532244E-1	5.349192E-1	5.291182E-1	5.208873E-1	4.687521E-1	4.621742E-1	4.511819E-1	4.879811E-1	4.341488E-1	4.531626E-1	4.346848E-1	4.816296E-1	5.164816E-1	4.112173E-1	5.101870E-1	4.292131E-1	5.358457E-1	4.749345E-1	5.123363E-1	4.691320E-1	4.128704E-1	4.693330E-1	4.543342E-1	4.856964E-1	4.323349E-1	4.477886E-1	4.203159E-1	4.312801E-1	4.319525E-1	4.468873E-1	4.770832E-1	4.343114E-1	4.931682E-1	4.858611E-1	5.090150E-1	3.903202E-1	4.473683E-1	4.616957E-1	4.761567E-1	4.445082E-1	4.601831E-1	4.187313E-1	5.035924E-1	4.150094E-1	5.194382E-1	4.518358E-1	4.511272E-1	4.471487E-1	5.135162E-1	4.631462E-1	5.217018E-1	4.699825E-1	4.434234E-1	5.104049E-1	4.446289E-1	4.588024E-1	4.882111E-1	4.380099E-1	4.440014E-1	4.794920E-1	4.918998E-1	4.622043E-1	4.571697E-1	4.791877E-1	4.884503E-1	4.883406E-1	4.770760E-1	4.231892E-1	5.090852E-1	4.671764E-1	4.475362E-1	4.404462E-1	4.883391E-1	4.393058E-1	4.635979E-1	4.701497E-1	4.962356E-1	4.440093E-1	5.014184E-1	4.685855E-1	5.130775E-1	5.304006E-1	5.022816E-1	4.768617E-1	4.660975E-1	4.660202E-1	4.654468E-1	4.508352E-1	4.600886E-1	4.527245E-1	4.693669E-1	4.778506E-1	5.205251E-1	4.738417E-1	4.757784E-1	4.501168E-1	4.707204E-1	5.282305E-1	5.400422E-1	4.575087E-1	4.746930E-1	4.412918E-1	4.839313E-1	4.783036E-1	4.598170E-1	4.429116E-1	4.553482E-1	4.910648E-1	4.761680E-1	4.091446E-1	4.733235E-1	3.876556E-1	4.682813E-1	4.972691E-1	4.919289E-1	4.719141E-1	4.494341E-1	4.593113E-1	4.982790E-1	4.247475E-1	4.753230E-1	4.816896E-1	4.622356E-1	4.905941E-1	4.867312E-1	4.786722E-1	5.306833E-1	4.844458E-1	4.662956E-1	4.862582E-1	5.100105E-1	4.492498E-1	4.368001E-1	5.071545E-1	5.040272E-1	4.652125E-1	4.749211E-1	4.419154E-1	4.363992E-1	4.935648E-1	5.564605E-1	4.724863E-1	4.954769E-1	5.703874E-1
2.862030E+2	5.780203E-1	6.415810E-1	6.333223E-1	6.786862E-1	6.234504E-1	6.269500E-1	6.774842E-1	7.168200E-1	6.457442E-1	6.730126E-1	6.791943E-1	6.921744E-1	7.538553E-1	7.365933E-1	7.370941E-1	6.393463E-1	7.096249E-1	6.867061E-1	6.459142E-1	6.572879E-1	6.306189E-1	6.252739E-1	6.616899E-1	6.907793E-1	6.667749E-1	6.945959E-1	6.844667E-1	6.707934E-1	6.999987E-1	6.969269E-1	7.217198E-1	6.733606E-1	6.512532E-1	6.096566E-1	6.618875E-1	6.768875E-1	6.203905E-1	5.958675E-1	6.280291E-1	7.290365E-1	6.474834E-1	6.826345E-1	6.882367E-1	7.057155E-1	6.843532E-1	7.152738E-1	7.342991E-1	6.177928E-1	7.383712E-1	6.870212E-1	6.687916E-1	5.797866E-1	6.306850E-1	6.361898E-1	6.637084E-1	7.091777E-1	6.680308E-1	6.534682E-1	6.725466E-1	6.592956E-1	6.920452E-1	7.019654E-1	6.775010E-1	6.599672E-1	6.656692E-1	6.697269E-1	6.667500E-1	6.054323E-1	6.092903E-1	6.272734E-1	6.837309E-1	7.241652E-1	6.221268E-1	6.606241E-1	6.521845E-1	7.042894E-1	7.033979E-1	7.295893E-1	6.537590E-1	6.850553E-1	6.898567E-1	6.559780E-1	6.562142E-1	6.861934E-1	6.582582E-1	6.179657E-1	6.805436E-1	7.311535E-1	6.554916E-1	6.646251E-1	6.503742E-1	7.454331E-1	7.583295E-1	7.254037E-1	6.478456E-1	6.620802E-1	6.461422E-1	6.586473E-1	6.100377E-1	6.804638E-1	6.269617E-1	6.616163E-1	6.663821E-1	7.281927E-1	6.828183E-1	6.904014E-1	6.590400E-1	7.444864E-1	7.078811E-1	7.002431E-1	6.345015E-1	6.849602E-1	6.520109E-1	6.644560E-1	6.594092E-1	6.713405E-1	6.317476E-1	6.638294E-1	7.288912E-1	7.206969E-1	6.747314E-1	6.663612E-1	6.271701E-1	6.863044E-1	7.222268E-1	7.518353E-1	6.450131E-1	6.535356E-1	6.525513E-1	7.206081E-1	6.101866E-1	6.939743E-1	6.633057E-1	6.176282E-1	7.310269E-1	7.042884E-1	6.732074E-1	6.680746E-1	6.449571E-1	6.705139E-1	7.387611E-1	7.270126E-1	6.696851E-1	6.093810E-1	6.855567E-1	7.212377E-1	6.551926E-1	6.404335E-1	6.410847E-1	6.953848E-1	7.103249E-1	6.852630E-1	6.417383E-1	7.154213E-1	6.804863E-1	7.053300E-1	6.619070E-1	7.489917E-1	6.773901E-1	6.118743E-1	6.919720E-1	6.830670E-1	6.691995E-1	6.269804E-1	6.394510E-1	6.143117E-1	6.760808E-1	7.105429E-1	6.896489E-1	6.370586E-1	6.678629E-1
2.864030E+2	7.295759E-1	7.913680E-1	8.124069E-1	9.043807E-1	7.752710E-1	8.092000E-1	8.175547E-1	9.489354E-1	8.451063E-1	8.144837E-1	9.337232E-1	8.794769E-1	8.931825E-1	8.790067E-1	9.217067E-1	8.065080E-1	7.987294E-1	8.743228E-1	8.616143E-1	7.772438E-1	8.119957E-1	8.337385E-1	7.679421E-1	8.917794E-1	8.267535E-1	8.694989E-1	8.414696E-1	8.696208E-1	9.897878E-1	9.143153E-1	9.143074E-1	8.512239E-1	8.588699E-1	8.200579E-1	8.372141E-1	8.500408E-1	7.528542E-1	7.388141E-1	8.226110E-1	8.875002E-1	8.075790E-1	8.558086E-1	8.425040E-1	8.342868E-1	8.368651E-1	9.182121E-1	9.095781E-1	7.811010E-1	8.487460E-1	8.228122E-1	8.637943E-1	7.625661E-1	7.515162E-1	7.670407E-1	8.334824E-1	8.759470E-1	8.482788E-1	7.664759E-1	8.381503E-1	8.355626E-1	8.809272E-1	8.409807E-1	8.900404E-1	8.041858E-1	8.089000E-1	8.376880E-1	8.815166E-1	8.130437E-1	7.947333E-1	8.134264E-1	8.371102E-1	9.174268E-1	8.435819E-1	8.635971E-1	8.815803E-1	8.516665E-1	8.927351E-1	8.650199E-1	9.262110E-1	8.479231E-1	8.956970E-1	8.374327E-1	8.784964E-1	8.705504E-1	7.492157E-1	7.600864E-1	8.943828E-1	8.477710E-1	8.407914E-1	8.437593E-1	9.121477E-1	9.001063E-1	8.847892E-1	9.300270E-1	9.215644E-1	8.543221E-1	8.448180E-1	8.185376E-1	8.530454E-1	8.055876E-1	7.353996E-1	8.229656E-1	8.863802E-1	9.101036E-1	8.477696E-1	8.837788E-1	8.502188E-1	8.825053E-1	8.785055E-1	9.475259E-1	8.327152E-1	8.249533E-1	8.291047E-1	8.082609E-1	7.939478E-1	8.252047E-1	7.623126E-1	8.439318E-1	8.872513E-1	9.208694E-1	9.204468E-1	8.967677E-1	7.908334E-1	8.807693E-1	9.225062E-1	9.204967E-1	7.727702E-1	8.337378E-1	7.960486E-1	8.585608E-1	8.352084E-1	8.407347E-1	7.853894E-1	7.817173E-1	8.496192E-1	8.928047E-1	8.993316E-1	7.891919E-1	7.967001E-1	8.611896E-1	9.168612E-1	8.745794E-1	8.082642E-1	7.530068E-1	8.428423E-1	8.916908E-1	8.206408E-1	7.969371E-1	7.383096E-1	8.030961E-1	8.502148E-1	9.003400E-1	8.329972E-1	8.916562E-1	8.295358E-1	8.361699E-1	8.786652E-1	9.072096E-1	8.335539E-1	8.023176E-1	8.500591E-1	8.173469E-1	7.948504E-1	8.123022E-1	7.820085E-1	7.997692E-1	9.181604E-1	9.391158E-1	8.731135E-1	8.949392E-1	8.447613E-1
2.866200E+2	8.025176E-1	8.613241E-1	8.021959E-1	9.480011E-1	7.884432E-1	8.604997E-1	8.348144E-1	9.610047E-1	8.969842E-1	8.963501E-1	9.253033E-1	9.498159E-1	9.468742E-1	9.283299E-1	9.946105E-1	8.150298E-1	9.088426E-1	8.822302E-1	8.421232E-1	8.662421E-1	8.204314E-1	8.551990E-1	8.625732E-1	9.608730E-1	8.965070E-1	8.856934E-1	8.811781E-1	9.144387E-1	1.003484E+0	9.379614E-1	9.573008E-1	8.926807E-1	8.551632E-1	8.854707E-1	8.897408E-1	8.888802E-1	8.373677E-1	7.888160E-1	8.609101E-1	9.454009E-1	8.520108E-1	8.739995E-1	8.956005E-1	9.036370E-1	8.770797E-1	9.486173E-1	9.686468E-1	8.239765E-1	8.150203E-1	8.808129E-1	9.173842E-1	8.201644E-1	8.003763E-1	8.701535E-1	8.826620E-1	8.254101E-1	9.217410E-1	8.306153E-1	9.274881E-1	8.823587E-1	9.270666E-1	9.017518E-1	9.659474E-1	8.669703E-1	9.123868E-1	8.738410E-1	9.521985E-1	8.643551E-1	8.331005E-1	8.575984E-1	9.039844E-1	9.739314E-1	8.718366E-1	8.998419E-1	9.174445E-1	9.097985E-1	9.500140E-1	9.699794E-1	9.416329E-1	8.726201E-1	8.949431E-1	9.111269E-1	9.865292E-1	8.593287E-1	7.979438E-1	8.438252E-1	9.767925E-1	1.001254E+0	9.030901E-1	8.409275E-1	9.620777E-1	1.013696E+0	9.623723E-1	9.273778E-1	9.590064E-1	9.235024E-1	8.495479E-1	8.635276E-1	8.985634E-1	8.782403E-1	8.302011E-1	8.663576E-1	8.802684E-1	9.990731E-1	8.896225E-1	8.661990E-1	9.443596E-1	8.734139E-1	9.188766E-1	9.792804E-1	9.956763E-1	8.479572E-1	8.679204E-1	8.566499E-1	9.276892E-1	8.559782E-1	8.524974E-1	8.912011E-1	9.222796E-1	9.531280E-1	9.245973E-1	8.676117E-1	8.897757E-1	9.318050E-1	9.468536E-1	9.752153E-1	9.342147E-1	9.078587E-1	8.327196E-1	9.147880E-1	9.059930E-1	9.132900E-1	8.477164E-1	8.776373E-1	9.578107E-1	9.831018E-1	8.887083E-1	8.029547E-1	8.883315E-1	8.909049E-1	9.681781E-1	9.563475E-1	8.437797E-1	8.261251E-1	8.839074E-1	9.160415E-1	8.871163E-1	8.384102E-1	8.864610E-1	9.005827E-1	8.979825E-1	9.105822E-1	8.512854E-1	9.264399E-1	9.315934E-1	8.990742E-1	9.384601E-1	9.542111E-1	8.470497E-1	8.450832E-1	8.576965E-1	9.173573E-1	8.553475E-1	8.788278E-1	8.420995E-1	8.016552E-1	9.219793E-1	9.891154E-1	9.355169E-1	8.898814E-1	8.194911E-1
2.868030E+2	9.589369E-1	1.009465E+0	1.037833E+0	1.167058E+0	9.492771E-1	9.786254E-1	1.057201E+0	1.159694E+0	1.018528E+0	1.064392E+0	1.112476E+0	1.130797E+0	1.175915E+0	1.186759E+0	1.181575E+0	1.013657E+0	1.087776E+0	1.096444E+0	1.078613E+0	1.042693E+0	1.001808E+0	1.020131E+0	1.014758E+0	1.086498E+0	1.077715E+0	1.112417E+0	1.045513E+0	1.148305E+0	1.134683E+0	1.113398E+0	1.171090E+0	1.075893E+0	9.730589E-1	1.028435E+0	1.074295E+0	9.908301E-1	9.812199E-1	9.382330E-1	1.037578E+0	1.141196E+0	9.556854E-1	1.079917E+0	1.111574E+0	1.047012E+0	1.065254E+0	1.142363E+0	1.176029E+0	9.765658E-1	1.020440E+0	1.009098E+0	1.092292E+0	9.591690E-1	1.014306E+0	1.017889E+0	1.043005E+0	1.062929E+0	1.060335E+0	1.009290E+0	1.080018E+0	1.046146E+0	1.162808E+0	1.080269E+0	1.141799E+0	1.019892E+0	1.043620E+0	1.020713E+0	1.126187E+0	1.049075E+0	9.571559E-1	1.003996E+0	1.066567E+0	1.109050E+0	1.011582E+0	1.086867E+0	1.082556E+0	1.087471E+0	1.123441E+0	1.139268E+0	1.149827E+0	1.051508E+0	1.088720E+0	1.038353E+0	1.148966E+0	1.066930E+0	9.902549E-1	9.676642E-1	1.089751E+0	1.079500E+0	1.094780E+0	1.049091E+0	1.170356E+0	1.095865E+0	1.184259E+0	1.180341E+0	1.236599E+0	1.073837E+0	1.014322E+0	1.037262E+0	1.093116E+0	1.023545E+0	1.000324E+0	9.757572E-1	1.132179E+0	1.153976E+0	1.036518E+0	1.015626E+0	1.102228E+0	1.148624E+0	1.094834E+0	1.125894E+0	1.195221E+0	1.062219E+0	9.681932E-1	1.047480E+0	1.185620E+0	1.028140E+0	9.588343E-1	1.022837E+0	1.104721E+0	1.127658E+0	1.126317E+0	1.083083E+0	1.183625E+0	1.053236E+0	1.080374E+0	1.233358E+0	1.143965E+0	1.011221E+0	1.015280E+0	1.069739E+0	1.154857E+0	1.097154E+0	9.614469E-1	9.699370E-1	1.135354E+0	1.200133E+0	1.016188E+0	1.019727E+0	1.141968E+0	1.065072E+0	1.079869E+0	1.128189E+0	1.164810E+0	9.743216E-1	1.045068E+0	1.064426E+0	1.158923E+0	1.013694E+0	9.797179E-1	1.019202E+0	1.151832E+0	1.125659E+0	1.036449E+0	1.116588E+0	1.165080E+0	1.072689E+0	1.118594E+0	1.170024E+0	1.069406E+0	1.000780E+0	1.019602E+0	1.072619E+0	9.996125E-1	9.881202E-1	1.033882E+0	9.732818E-1	1.141150E+0	1.206463E+0	1.051587E+0	1.061802E+0	1.064984E+0
2.870190E+2	8.454718E-1	8.135891E-1	8.218322E-1	9.024843E-1	7.738850E-1	7.936751E-1	8.626958E-1	1.025069E+0	8.451057E-1	9.344107E-1	9.382570E-1	8.857999E-1	9.652251E-1	8.769230E-1	9.528671E-1	8.189631E-1	8.537859E-1	9.498010E-1	8.551176E-1	8.499906E-1	8.547782E-1	8.220890E-1	7.917381E-1	8.894235E-1	8.821007E-1	9.221314E-1	8.597969E-1	8.940672E-1	9.602323E-1	9.249946E-1	9.602459E-1	8.806450E-1	8.692507E-1	8.153373E-1	8.840629E-1	8.532783E-1	8.085967E-1	8.082282E-1	8.189050E-1	9.294021E-1	8.139261E-1	9.001945E-1	8.719222E-1	8.342863E-1	9.734435E-1	9.528598E-1	9.153567E-1	8.050611E-1	7.996906E-1	8.535187E-1	8.764476E-1	8.424358E-1	7.997165E-1	7.977938E-1	8.631252E-1	8.990484E-1	8.543382E-1	8.344327E-1	8.868138E-1	8.987370E-1	9.349970E-1	8.865593E-1	9.469709E-1	8.365106E-1	8.688920E-1	8.836326E-1	8.910311E-1	8.288320E-1	8.433318E-1	8.153195E-1	8.371106E-1	8.936788E-1	8.527454E-1	8.701211E-1	8.450389E-1	9.089805E-1	9.166014E-1	9.151298E-1	9.082192E-1	8.525953E-1	9.477234E-1	8.624609E-1	9.577715E-1	8.424956E-1	7.907965E-1	7.807264E-1	9.341667E-1	8.658268E-1	8.919089E-1	8.550877E-1	9.349731E-1	8.678835E-1	8.809103E-1	8.975779E-1	9.867654E-1	8.410185E-1	7.959374E-1	8.462244E-1	9.015000E-1	8.176962E-1	8.068257E-1	8.278541E-1	9.169347E-1	8.973941E-1	8.789541E-1	8.683964E-1	9.306006E-1	8.758933E-1	8.838379E-1	9.299589E-1	9.045515E-1	8.795049E-1	8.420443E-1	8.770962E-1	9.141558E-1	8.010851E-1	8.033671E-1	8.056372E-1	9.507404E-1	9.200415E-1	9.088250E-1	8.733006E-1	9.061415E-1	8.473321E-1	8.690991E-1	9.732843E-1	9.984106E-1	8.486980E-1	8.630137E-1	8.814439E-1	1.006581E+0	8.036324E-1	8.020958E-1	7.738745E-1	9.966481E-1	9.450823E-1	8.591150E-1	7.905683E-1	1.003421E+0	8.380767E-1	8.987500E-1	9.390996E-1	1.009517E+0	8.189446E-1	8.250224E-1	8.696231E-1	9.587610E-1	8.204124E-1	8.183378E-1	8.794492E-1	9.286901E-1	8.845832E-1	8.901461E-1	8.816083E-1	9.543551E-1	8.336538E-1	8.794126E-1	9.886356E-1	9.890746E-1	8.323878E-1	8.645694E-1	9.131617E-1	9.282553E-1	8.495250E-1	7.909578E-1	8.431474E-1	9.380158E-1	9.931973E-1	8.643770E-1	8.544854E-1	9.602878E-1
2.872140E+2	6.533933E-1	6.983684E-1	6.655267E-1	7.706714E-1	6.491000E-1	6.606998E-1	6.781484E-1	7.892403E-1	7.168923E-1	7.721138E-1	7.679230E-1	7.206252E-1	7.375439E-1	7.935585E-1	7.664912E-1	6.675345E-1	7.002068E-1	7.312741E-1	7.329740E-1	6.766357E-1	6.776202E-1	6.773901E-1	7.031941E-1	7.755761E-1	7.319797E-1	7.480383E-1	7.156230E-1	7.245749E-1	7.425299E-1	7.968490E-1	8.424558E-1	7.429016E-1	7.431979E-1	6.588853E-1	6.987985E-1	6.801241E-1	6.677421E-1	6.805763E-1	6.873309E-1	7.480827E-1	6.721669E-1	7.117391E-1	7.363112E-1	6.838971E-1	7.184985E-1	7.626498E-1	7.850206E-1	6.839994E-1	7.468025E-1	7.013506E-1	7.499190E-1	6.128097E-1	6.590770E-1	6.482497E-1	7.142365E-1	7.200069E-1	7.422510E-1	6.969916E-1	7.045054E-1	7.193512E-1	7.727886E-1	7.536209E-1	7.565716E-1	6.574803E-1	7.384090E-1	6.900631E-1	7.190825E-1	6.788463E-1	6.559704E-1	7.067830E-1	7.168604E-1	7.675674E-1	6.755813E-1	7.592105E-1	7.272965E-1	7.247584E-1	7.503347E-1	8.081391E-1	7.964112E-1	6.743751E-1	7.200161E-1	7.533099E-1	7.525882E-1	7.038279E-1	6.524109E-1	6.669123E-1	7.366674E-1	7.454483E-1	6.850435E-1	6.738300E-1	7.809044E-1	7.293221E-1	7.288477E-1	7.300394E-1	8.034259E-1	7.053180E-1	7.021179E-1	6.738749E-1	7.436548E-1	7.321283E-1	6.568313E-1	6.866745E-1	7.553318E-1	7.853878E-1	7.181063E-1	7.607204E-1	7.415951E-1	7.279573E-1	7.482522E-1	7.664556E-1	8.194123E-1	6.803597E-1	7.369181E-1	6.937625E-1	7.318528E-1	6.680133E-1	6.573220E-1	6.949433E-1	7.456758E-1	7.554376E-1	7.643838E-1	7.474298E-1	8.034800E-1	7.355801E-1	7.198703E-1	7.975410E-1	8.051860E-1	6.916158E-1	6.963979E-1	7.336841E-1	7.785803E-1	6.857287E-1	6.678029E-1	7.044991E-1	7.899756E-1	7.811208E-1	7.202539E-1	6.749558E-1	7.835049E-1	7.142612E-1	7.093288E-1	7.615095E-1	7.957298E-1	6.877227E-1	7.490905E-1	6.968868E-1	7.807565E-1	6.983405E-1	7.059013E-1	6.776599E-1	7.580920E-1	7.285941E-1	7.057448E-1	6.698172E-1	7.450992E-1	7.187494E-1	7.515993E-1	7.873879E-1	7.802139E-1	6.613227E-1	7.103006E-1	7.215328E-1	8.320790E-1	6.602432E-1	6.867570E-1	7.042112E-1	7.486287E-1	7.972780E-1	6.759209E-1	6.741391E-1	8.231004E-1
2.874030E+2	5.650530E-1	6.012542E-1	6.521740E-1	7.156695E-1	5.499652E-1	5.864498E-1	5.978236E-1	7.047495E-1	6.205470E-1	6.234614E-1	6.876133E-1	6.771581E-1	6.838522E-1	7.122785E-1	7.335665E-1	5.967364E-1	6.741276E-1	6.572339E-1	6.634561E-1	6.240093E-1	5.854261E-1	5.995225E-1	6.179715E-1	7.002014E-1	6.986196E-1	6.881179E-1	6.551432E-1	6.667194E-1	7.072067E-1	7.022664E-1	7.016959E-1	6.232117E-1	5.904509E-1	6.056104E-1	6.867312E-1	6.623237E-1	5.904216E-1	6.129266E-1	6.020851E-1	6.696121E-1	5.896508E-1	6.651709E-1	6.868027E-1	7.088325E-1	6.699369E-1	6.714340E-1	6.957758E-1	6.095964E-1	6.486919E-1	6.372081E-1	6.434850E-1	5.966822E-1	6.254034E-1	5.740806E-1	6.549507E-1	7.012369E-1	6.422817E-1	6.519409E-1	6.689153E-1	6.787940E-1	7.115102E-1	7.163990E-1	6.945806E-1	6.127227E-1	6.349227E-1	6.539096E-1	6.803432E-1	6.922662E-1	6.195210E-1	6.727072E-1	6.506005E-1	6.480067E-1	6.190730E-1	7.091925E-1	7.151159E-1	6.789068E-1	6.524836E-1	6.882824E-1	6.833174E-1	6.249806E-1	6.687447E-1	6.253878E-1	6.717576E-1	6.974157E-1	6.530602E-1	6.391953E-1	6.769911E-1	6.927826E-1	6.219459E-1	6.058577E-1	6.796188E-1	6.801801E-1	7.040209E-1	7.240795E-1	7.485536E-1	6.501067E-1	6.500843E-1	6.364978E-1	7.164908E-1	6.635121E-1	6.035857E-1	6.231130E-1	6.962584E-1	6.749696E-1	6.491716E-1	6.728215E-1	6.604883E-1	6.899400E-1	6.682718E-1	7.124045E-1	7.056723E-1	6.133206E-1	6.495847E-1	6.596853E-1	6.562248E-1	6.488845E-1	6.290553E-1	6.315192E-1	6.778074E-1	6.694137E-1	6.946534E-1	6.976510E-1	6.844525E-1	6.748644E-1	6.538965E-1	6.938979E-1	6.907762E-1	6.535358E-1	6.374046E-1	6.702662E-1	7.331290E-1	6.725381E-1	6.119014E-1	6.212476E-1	7.046725E-1	7.335953E-1	6.216098E-1	5.985700E-1	7.380554E-1	6.581319E-1	6.542384E-1	6.605760E-1	7.657855E-1	6.459406E-1	6.282200E-1	7.075408E-1	7.556435E-1	5.973956E-1	6.179361E-1	6.647067E-1	6.973596E-1	7.191397E-1	6.044005E-1	6.814107E-1	7.561126E-1	6.885555E-1	6.604121E-1	7.284700E-1	7.564360E-1	6.165515E-1	6.507312E-1	6.362085E-1	7.118583E-1	6.341078E-1	6.317795E-1	6.287712E-1	7.280095E-1	7.044207E-1	6.447185E-1	6.977358E-1	7.075749E-1
2.876090E+2	4.767125E-1	4.457065E-1	4.809443E-1	6.028230E-1	4.487505E-1	4.656254E-1	4.624007E-1	6.054056E-1	5.078965E-1	4.798362E-1	5.179273E-1	5.167249E-1	5.499620E-1	5.226254E-1	5.730597E-1	4.741516E-1	4.604209E-1	5.077147E-1	5.049294E-1	4.676807E-1	4.510505E-1	5.051001E-1	4.796222E-1	5.094080E-1	4.916326E-1	5.423668E-1	5.170780E-1	4.784849E-1	5.442908E-1	5.275921E-1	5.992183E-1	5.068659E-1	5.088874E-1	4.950152E-1	5.220526E-1	5.029247E-1	4.759389E-1	4.605683E-1	4.840997E-1	5.271472E-1	4.753970E-1	4.890864E-1	5.110100E-1	4.867551E-1	4.969389E-1	4.847586E-1	5.352636E-1	4.431362E-1	4.563026E-1	4.993707E-1	4.894175E-1	4.653578E-1	4.781617E-1	4.637318E-1	5.080822E-1	4.969272E-1	4.885414E-1	4.900644E-1	5.120284E-1	5.048668E-1	5.183023E-1	5.014191E-1	5.339108E-1	5.002071E-1	4.736943E-1	5.025184E-1	4.900436E-1	4.933380E-1	4.551805E-1	4.922334E-1	5.297368E-1	5.006042E-1	4.984177E-1	4.743241E-1	4.985771E-1	5.413548E-1	5.180378E-1	5.000331E-1	5.612281E-1	4.934850E-1	4.666731E-1	4.731329E-1	5.062125E-1	4.657682E-1	5.042792E-1	4.345658E-1	5.313537E-1	5.385478E-1	4.917565E-1	4.720385E-1	5.348230E-1	4.675049E-1	5.341148E-1	5.346880E-1	5.652133E-1	5.223885E-1	4.939814E-1	5.091394E-1	5.307479E-1	5.246647E-1	4.743699E-1	4.892671E-1	5.461985E-1	5.097401E-1	4.653464E-1	4.794434E-1	5.656234E-1	4.791926E-1	5.616308E-1	5.563323E-1	5.187664E-1	4.818714E-1	4.943234E-1	4.920267E-1	5.447729E-1	4.975152E-1	4.823374E-1	5.052683E-1	5.223667E-1	5.015002E-1	5.228189E-1	5.447584E-1	5.185578E-1	5.235151E-1	5.109512E-1	5.760922E-1	5.452223E-1	4.678933E-1	4.978933E-1	5.166220E-1	5.543041E-1	5.134094E-1	4.891748E-1	4.420764E-1	5.756758E-1	5.466638E-1	4.728840E-1	4.884629E-1	5.357325E-1	4.781873E-1	5.372660E-1	5.257866E-1	5.826378E-1	4.814235E-1	4.910784E-1	5.066492E-1	5.259367E-1	5.011460E-1	4.492811E-1	5.017756E-1	5.595157E-1	5.379401E-1	4.710524E-1	5.283647E-1	5.270319E-1	5.174574E-1	5.333469E-1	5.503927E-1	5.636412E-1	4.561790E-1	5.125008E-1	5.124195E-1	5.474280E-1	4.709606E-1	4.841078E-1	4.338846E-1	5.454949E-1	5.768687E-1	5.086808E-1	5.713245E-1	6.245404E-1
2.878030E+2	3.462287E-1	3.304859E-1	3.521299E-1	4.055780E-1	3.426832E-1	3.508752E-1	3.249856E-1	4.234276E-1	3.478150E-1	3.541639E-1	4.084732E-1	3.610335E-1	3.664585E-1	4.517661E-1	3.943267E-1	3.804099E-1	3.916008E-1	3.790423E-1	3.710916E-1	3.686203E-1	3.407786E-1	3.683714E-1	3.418264E-1	3.782870E-1	3.437858E-1	4.071417E-1	3.472459E-1	3.195859E-1	4.044425E-1	3.643602E-1	3.901407E-1	3.651104E-1	3.628147E-1	3.432841E-1	3.722803E-1	3.710367E-1	3.476713E-1	3.470353E-1	3.574673E-1	4.052519E-1	3.745432E-1	4.032269E-1	3.997949E-1	3.683134E-1	3.504969E-1	3.808156E-1	3.978649E-1	3.460341E-1	3.451623E-1	3.383321E-1	4.172220E-1	3.286572E-1	3.533687E-1	3.298664E-1	3.820991E-1	3.705879E-1	3.613075E-1	3.633123E-1	3.769309E-1	3.925558E-1	3.993498E-1	3.829133E-1	4.092971E-1	3.031494E-1	3.582098E-1	3.774889E-1	3.921762E-1	3.765069E-1	3.387991E-1	3.767559E-1	3.769705E-1	3.892330E-1	3.433995E-1	3.626889E-1	3.652703E-1	3.505819E-1	4.193920E-1	4.167432E-1	4.121507E-1	3.479721E-1	3.550821E-1	3.326973E-1	4.075068E-1	3.711850E-1	3.431539E-1	3.549554E-1	3.835847E-1	3.955970E-1	3.751451E-1	3.672486E-1	3.864604E-1	3.869456E-1	4.061029E-1	3.830425E-1	4.096323E-1	3.853581E-1	3.977976E-1	3.520182E-1	3.596885E-1	3.373834E-1	3.406088E-1	3.841459E-1	4.266936E-1	4.112380E-1	3.775362E-1	3.827553E-1	4.265843E-1	3.891087E-1	3.864357E-1	4.299886E-1	4.023655E-1	3.924867E-1	3.649393E-1	3.727578E-1	3.903325E-1	3.602850E-1	3.315817E-1	3.604686E-1	3.910079E-1	4.378095E-1	4.082622E-1	3.826206E-1	4.367259E-1	4.012056E-1	4.206295E-1	4.009924E-1	4.155579E-1	3.733721E-1	3.376552E-1	3.642854E-1	4.000670E-1	3.707714E-1	3.452446E-1	3.515864E-1	4.064546E-1	3.914151E-1	3.681688E-1	3.914319E-1	4.147792E-1	3.436412E-1	3.667127E-1	3.999394E-1	4.175969E-1	3.495494E-1	3.779563E-1	3.536982E-1	4.491208E-1	3.493377E-1	3.619771E-1	3.695211E-1	4.073424E-1	3.693447E-1	3.506583E-1	3.845936E-1	4.198342E-1	3.782294E-1	3.853533E-1	4.173309E-1	4.331829E-1	3.298845E-1	3.673965E-1	3.445696E-1	4.147977E-1	3.616685E-1	3.453849E-1	3.590729E-1	4.171988E-1	4.013582E-1	3.539214E-1	4.112030E-1	4.259801E-1
2.880040E+2	3.340719E-1	3.247243E-1	3.474173E-1	3.591112E-1	3.253524E-1	3.198250E-1	3.289687E-1	4.262131E-1	3.537440E-1	3.642181E-1	3.527746E-1	4.092433E-1	3.691770E-1	3.690967E-1	4.002060E-1	3.699213E-1	3.590014E-1	3.395064E-1	3.366572E-1	3.779073E-1	3.269189E-1	3.383279E-1	3.490204E-1	3.649390E-1	3.430275E-1	3.423629E-1	3.600749E-1	3.766267E-1	3.720032E-1	3.956334E-1	3.842508E-1	3.798206E-1	3.502097E-1	3.291227E-1	3.736990E-1	3.928829E-1	3.087109E-1	3.140924E-1	3.401710E-1	4.174409E-1	3.315220E-1	3.246432E-1	3.301954E-1	4.010408E-1	3.808477E-1	3.504101E-1	3.773194E-1	3.624282E-1	3.819532E-1	3.451550E-1	3.561905E-1	3.693600E-1	3.474267E-1	3.364987E-1	3.484139E-1	4.037970E-1	3.423742E-1	3.289516E-1	3.398887E-1	3.660376E-1	3.834898E-1	3.449311E-1	3.675486E-1	3.441773E-1	3.417115E-1	3.601656E-1	3.636313E-1	3.236167E-1	3.151386E-1	3.370014E-1	3.831058E-1	3.966027E-1	3.334729E-1	3.155700E-1	3.348196E-1	3.800576E-1	3.891610E-1	3.557987E-1	3.652429E-1	3.506414E-1	3.603601E-1	3.653731E-1	3.826361E-1	3.150766E-1	3.366566E-1	3.366744E-1	3.729275E-1	3.767877E-1	3.487879E-1	3.467155E-1	4.057190E-1	3.571388E-1	3.859308E-1	3.697978E-1	3.780000E-1	3.441162E-1	3.623199E-1	3.707069E-1	3.714351E-1	3.381903E-1	3.211288E-1	3.548098E-1	3.621883E-1	3.762862E-1	3.168081E-1	3.219585E-1	3.744450E-1	3.692739E-1	3.803423E-1	3.779644E-1	3.937185E-1	3.668535E-1	3.916245E-1	3.543559E-1	3.935171E-1	3.403244E-1	3.558108E-1	3.329443E-1	3.530606E-1	3.509577E-1	3.468330E-1	3.470636E-1	3.779558E-1	3.598481E-1	3.821445E-1	4.112929E-1	3.755150E-1	3.169311E-1	3.288856E-1	3.302875E-1	3.799503E-1	3.608770E-1	3.311082E-1	3.268519E-1	3.877289E-1	3.676527E-1	3.454049E-1	3.439484E-1	3.979183E-1	3.634509E-1	3.855789E-1	3.839692E-1	4.106334E-1	3.332283E-1	3.454138E-1	3.818530E-1	4.077592E-1	3.321226E-1	3.236164E-1	3.531601E-1	4.005190E-1	3.378317E-1	3.498959E-1	3.869123E-1	4.095548E-1	3.664872E-1	3.808683E-1	3.822451E-1	4.010507E-1	3.245389E-1	3.735062E-1	3.375761E-1	3.837733E-1	3.862202E-1	3.549743E-1	3.603301E-1	3.751979E-1	4.044193E-1	3.788825E-1	3.758078E-1	4.115389E-1
2.882240E+2	4.370003E-1	4.629896E-1	4.817296E-1	5.772194E-1	4.577632E-1	4.622500E-1	4.497873E-1	5.394844E-1	4.678770E-1	4.956351E-1	4.959070E-1	5.578218E-1	5.404473E-1	5.413825E-1	5.242616E-1	5.521596E-1	4.850515E-1	5.242480E-1	4.756933E-1	5.528101E-1	4.715383E-1	4.683120E-1	4.602533E-1	5.164745E-1	4.825349E-1	5.447961E-1	4.981402E-1	5.428590E-1	5.500574E-1	5.077601E-1	5.344335E-1	5.396297E-1	4.866427E-1	4.498332E-1	5.064371E-1	5.239616E-1	4.639514E-1	4.305675E-1	4.890422E-1	5.263851E-1	4.295544E-1	4.978178E-1	5.052701E-1	5.257159E-1	4.825220E-1	5.017297E-1	5.320531E-1	5.465429E-1	4.478714E-1	5.123353E-1	5.348202E-1	5.436912E-1	4.596738E-1	4.697623E-1	5.161670E-1	5.135316E-1	5.203495E-1	4.511221E-1	4.742597E-1	5.493236E-1	4.981166E-1	5.242082E-1	5.187298E-1	5.095314E-1	4.849431E-1	4.467821E-1	5.151905E-1	5.620155E-1	4.532618E-1	5.010679E-1	5.229886E-1	5.382730E-1	4.579453E-1	4.598253E-1	4.830130E-1	5.225224E-1	5.283800E-1	5.318593E-1	5.143202E-1	5.321994E-1	4.802455E-1	5.058089E-1	4.992175E-1	5.563432E-1	4.354112E-1	4.322070E-1	4.986737E-1	5.498330E-1	4.741851E-1	4.663743E-1	5.341097E-1	5.553144E-1	5.232530E-1	5.538922E-1	5.368082E-1	5.057589E-1	4.364294E-1	4.766082E-1	5.021161E-1	4.980254E-1	4.789150E-1	4.544305E-1	5.122479E-1	4.962356E-1	4.817594E-1	4.494122E-1	5.134837E-1	5.015071E-1	4.740337E-1	5.434957E-1	5.320687E-1	4.614972E-1	4.749154E-1	5.002050E-1	4.954156E-1	4.975153E-1	4.830102E-1	4.980875E-1	5.201770E-1	5.263157E-1	5.161786E-1	4.956901E-1	5.535221E-1	5.120769E-1	5.140930E-1	5.529170E-1	5.706463E-1	4.794533E-1	4.739770E-1	4.643176E-1	5.386569E-1	5.439156E-1	4.654008E-1	4.625876E-1	5.382249E-1	5.300305E-1	4.994425E-1	4.581838E-1	4.983472E-1	5.120299E-1	5.259466E-1	4.957618E-1	5.819421E-1	4.448644E-1	4.996012E-1	4.731677E-1	5.384925E-1	4.690626E-1	4.539107E-1	5.181371E-1	5.240315E-1	4.591569E-1	4.527642E-1	5.113597E-1	5.005998E-1	4.981664E-1	5.243773E-1	5.245750E-1	5.977014E-1	4.682064E-1	5.063912E-1	4.676600E-1	5.435498E-1	5.089759E-1	4.962536E-1	4.263410E-1	5.592401E-1	5.340117E-1	4.662460E-1	4.853640E-1	5.595567E-1
2.884130E+2	6.023344E-1	6.160686E-1	6.238971E-1	7.431703E-1	6.061185E-1	5.871250E-1	6.031344E-1	7.957392E-1	6.450038E-1	6.816301E-1	6.668887E-1	7.593510E-1	7.171545E-1	6.851848E-1	7.541445E-1	7.245660E-1	6.639856E-1	6.708914E-1	6.621568E-1	7.099138E-1	6.288118E-1	6.657406E-1	6.085635E-1	7.402444E-1	6.993767E-1	6.298178E-1	6.832445E-1	7.074621E-1	7.569474E-1	7.205725E-1	7.252543E-1	7.890387E-1	6.853619E-1	6.494443E-1	7.051874E-1	7.553732E-1	6.221885E-1	5.958675E-1	6.545912E-1	7.252274E-1	6.220924E-1	6.229698E-1	6.824973E-1	7.057153E-1	7.207740E-1	7.004252E-1	7.336566E-1	7.678599E-1	6.172660E-1	6.344790E-1	6.576272E-1	7.018955E-1	6.029538E-1	5.957887E-1	6.913304E-1	7.265040E-1	6.543996E-1	6.649209E-1	6.827160E-1	7.224706E-1	6.603250E-1	7.050037E-1	7.186177E-1	7.569419E-1	6.386719E-1	6.644544E-1	6.545167E-1	7.751531E-1	6.329504E-1	6.310600E-1	6.947738E-1	7.397237E-1	6.717639E-1	6.265531E-1	6.954918E-1	7.444083E-1	6.835092E-1	7.038567E-1	7.193023E-1	7.491346E-1	6.853325E-1	6.664061E-1	6.942966E-1	7.992119E-1	6.303207E-1	6.026334E-1	6.876474E-1	7.236300E-1	6.810503E-1	6.752457E-1	7.359685E-1	7.381829E-1	7.187614E-1	7.121598E-1	7.472622E-1	7.552077E-1	6.358931E-1	6.420353E-1	7.319083E-1	7.127542E-1	6.405975E-1	6.261686E-1	7.152702E-1	7.091270E-1	6.278354E-1	6.779487E-1	6.727990E-1	7.304360E-1	7.132130E-1	6.928109E-1	7.223011E-1	7.342533E-1	6.398806E-1	6.208371E-1	7.230954E-1	6.987866E-1	6.115568E-1	5.956179E-1	6.836455E-1	7.422039E-1	7.112568E-1	6.443162E-1	7.201609E-1	7.267803E-1	6.829564E-1	7.125667E-1	7.193786E-1	6.882156E-1	6.413900E-1	6.493436E-1	7.264229E-1	7.228315E-1	6.633050E-1	6.321064E-1	7.601547E-1	7.193380E-1	6.732085E-1	6.488054E-1	7.050678E-1	6.820696E-1	6.663133E-1	7.206249E-1	7.574285E-1	6.152569E-1	6.685103E-1	6.694922E-1	7.128047E-1	6.349565E-1	6.338094E-1	6.633436E-1	6.939469E-1	6.939296E-1	6.851710E-1	6.713629E-1	7.473016E-1	7.397179E-1	7.015214E-1	7.516400E-1	7.757154E-1	6.158841E-1	6.896801E-1	6.872633E-1	7.545178E-1	6.942972E-1	6.317791E-1	6.407165E-1	7.203725E-1	7.268697E-1	6.210057E-1	7.078492E-1	6.606423E-1
2.886030E+2	7.336285E-1	7.493954E-1	7.511413E-1	8.522236E-1	7.225843E-1	7.389999E-1	7.339111E-1	8.625884E-1	8.087916E-1	7.692414E-1	8.780241E-1	8.431235E-1	8.415293E-1	8.241256E-1	8.781992E-1	8.196177E-1	8.204620E-1	8.340680E-1	7.674080E-1	8.615998E-1	7.095568E-1	7.362505E-1	7.131561E-1	8.729358E-1	7.266720E-1	8.103888E-1	7.846556E-1	8.842882E-1	8.686812E-1	8.662609E-1	8.836821E-1	8.325013E-1	7.580281E-1	7.607142E-1	8.095306E-1	8.508506E-1	7.468611E-1	6.976362E-1	7.466319E-1	8.715022E-1	7.603260E-1	7.779533E-1	7.628597E-1	8.498704E-1	8.307955E-1	8.312383E-1	8.550040E-1	8.637008E-1	7.605999E-1	7.784581E-1	8.526306E-1	8.631711E-1	7.792479E-1	7.043291E-1	7.627431E-1	8.441809E-1	7.922357E-1	7.382238E-1	8.011071E-1	8.496009E-1	7.771144E-1	7.809689E-1	8.508221E-1	8.955652E-1	7.414091E-1	7.766795E-1	7.863672E-1	8.659334E-1	7.224746E-1	7.862918E-1	8.469271E-1	8.453636E-1	7.435454E-1	7.657355E-1	7.942879E-1	8.745925E-1	8.402297E-1	8.203275E-1	8.793028E-1	8.779606E-1	7.795820E-1	7.540044E-1	8.279770E-1	8.633363E-1	7.615600E-1	6.680910E-1	8.496257E-1	8.914080E-1	8.336026E-1	8.133134E-1	8.308340E-1	8.759390E-1	8.196192E-1	8.604945E-1	8.841210E-1	8.915727E-1	7.683430E-1	7.105595E-1	8.126667E-1	8.072014E-1	6.724149E-1	7.642928E-1	8.123680E-1	8.290775E-1	7.435467E-1	7.863571E-1	8.878756E-1	8.767196E-1	8.328031E-1	8.441529E-1	8.220728E-1	8.860777E-1	7.959503E-1	7.748657E-1	7.820055E-1	8.559780E-1	7.555825E-1	7.559748E-1	8.047870E-1	8.406350E-1	8.540373E-1	7.893871E-1	8.384451E-1	8.614101E-1	8.164754E-1	8.895971E-1	8.636618E-1	8.888187E-1	7.426352E-1	8.075644E-1	8.791689E-1	8.572241E-1	7.474786E-1	7.865438E-1	8.260397E-1	8.730030E-1	7.748884E-1	7.472131E-1	8.384836E-1	8.727451E-1	8.391312E-1	8.138918E-1	8.006040E-1	8.666018E-1	7.839570E-1	8.018986E-1	8.885926E-1	8.736239E-1	7.674104E-1	7.833261E-1	8.256488E-1	8.499185E-1	7.720378E-1	8.205440E-1	8.779948E-1	8.378478E-1	8.016784E-1	8.588837E-1	8.830384E-1	8.357290E-1	7.874350E-1	7.474096E-1	8.483671E-1	8.186381E-1	7.506839E-1	7.501042E-1	8.662317E-1	9.268709E-1	7.158588E-1	7.735831E-1	1.086646E+0
2.888170E+2	6.922944E-1	7.354041E-1	7.527120E-1	8.588622E-1	6.997073E-1	7.140254E-1	6.887702E-1	8.059527E-1	7.005877E-1	7.778591E-1	8.242685E-1	8.043978E-1	8.381311E-1	8.324612E-1	7.905963E-1	8.832057E-1	7.414996E-1	7.909377E-1	7.440184E-1	8.283218E-1	7.451097E-1	7.325718E-1	7.347384E-1	8.619436E-1	7.623073E-1	7.893346E-1	7.864877E-1	8.345821E-1	8.182209E-1	7.960869E-1	8.689581E-1	8.746271E-1	7.958436E-1	7.647599E-1	8.066915E-1	8.832152E-1	7.240843E-1	7.176367E-1	7.398372E-1	8.654070E-1	6.862720E-1	7.430277E-1	7.384639E-1	8.397407E-1	8.209313E-1	8.071971E-1	7.978616E-1	8.504593E-1	7.613660E-1	7.450223E-1	8.176486E-1	8.470440E-1	7.323675E-1	7.181983E-1	7.405109E-1	8.629516E-1	7.869345E-1	7.389873E-1	7.793177E-1	8.729999E-1	7.864862E-1	8.067964E-1	8.362734E-1	8.694563E-1	7.361601E-1	7.480581E-1	8.244271E-1	8.761955E-1	7.211959E-1	7.560035E-1	7.917102E-1	8.338990E-1	7.481271E-1	7.418131E-1	7.354166E-1	8.099094E-1	8.195462E-1	8.440275E-1	8.227570E-1	8.719530E-1	7.954159E-1	7.157672E-1	7.891167E-1	8.585268E-1	6.654047E-1	7.211653E-1	7.657957E-1	8.191809E-1	7.313688E-1	7.800360E-1	7.894636E-1	8.348537E-1	8.312571E-1	8.187759E-1	8.692733E-1	8.217274E-1	7.194632E-1	7.070994E-1	8.222101E-1	7.894428E-1	6.990371E-1	7.514582E-1	7.695903E-1	8.767399E-1	7.648838E-1	7.673126E-1	8.270456E-1	8.717612E-1	7.657714E-1	7.732112E-1	8.772806E-1	8.328409E-1	8.072716E-1	7.482853E-1	8.170332E-1	8.243740E-1	7.508715E-1	7.691384E-1	7.923801E-1	8.100298E-1	8.241532E-1	7.943649E-1	8.116630E-1	8.631703E-1	8.046949E-1	7.981850E-1	8.134486E-1	8.024572E-1	7.147329E-1	7.441447E-1	8.583060E-1	8.465064E-1	7.391255E-1	6.845909E-1	8.170238E-1	8.262700E-1	7.604709E-1	7.403320E-1	9.037252E-1	8.430295E-1	8.104540E-1	8.068650E-1	8.584039E-1	8.091515E-1	7.692354E-1	7.942900E-1	8.066077E-1	8.564083E-1	7.356635E-1	7.867352E-1	8.529446E-1	8.404653E-1	7.057452E-1	7.486586E-1	8.442199E-1	8.361704E-1	7.919619E-1	7.933463E-1	8.868939E-1	8.871818E-1	7.003723E-1	7.963657E-1	8.817190E-1	8.574449E-1	7.276706E-1	7.136415E-1	8.494305E-1	8.748300E-1	7.258429E-1	7.938085E-1	8.555930E-1
2.890200E+2	6.785176E-1	7.016610E-1	7.409305E-1	8.218788E-1	7.184249E-1	7.369745E-1	7.292633E-1	8.560890E-1	7.294915E-1	7.929397E-1	7.659795E-1	7.798986E-1	7.932747E-1	8.060629E-1	8.635008E-1	8.550178E-1	7.777206E-1	7.974068E-1	7.316745E-1	8.383822E-1	7.276342E-1	7.196961E-1	7.286506E-1	8.572322E-1	7.516930E-1	8.095783E-1	7.987065E-1	8.704359E-1	8.607522E-1	8.037144E-1	8.389214E-1	8.177914E-1	7.787896E-1	7.209267E-1	8.123702E-1	8.136304E-1	7.049041E-1	7.335190E-1	7.342775E-1	8.585506E-1	7.081360E-1	7.546693E-1	7.721876E-1	8.506494E-1	7.966510E-1	8.581087E-1	8.261119E-1	8.674837E-1	7.728634E-1	7.265980E-1	7.997863E-1	7.786938E-1	7.066173E-1	6.922688E-1	7.324269E-1	8.600636E-1	7.452809E-1	7.458592E-1	8.040127E-1	8.550608E-1	8.794858E-1	8.090753E-1	7.995848E-1	8.638623E-1	7.166630E-1	7.412794E-1	7.992805E-1	8.454094E-1	7.256713E-1	7.427519E-1	7.696236E-1	8.126063E-1	7.259818E-1	7.287647E-1	7.523337E-1	8.164596E-1	8.282967E-1	8.406421E-1	8.009086E-1	8.405811E-1	7.388661E-1	7.957184E-1	7.945572E-1	8.641370E-1	6.783986E-1	6.834238E-1	7.785827E-1	8.206856E-1	7.840831E-1	7.566706E-1	8.308338E-1	8.590215E-1	8.157403E-1	8.187754E-1	8.208561E-1	8.736127E-1	7.257699E-1	7.430909E-1	8.016543E-1	8.524080E-1	6.951407E-1	7.349570E-1	7.960717E-1	8.362273E-1	7.804764E-1	7.189680E-1	8.451501E-1	8.188677E-1	7.612011E-1	8.407752E-1	8.633116E-1	8.486146E-1	7.611784E-1	7.578273E-1	8.433040E-1	7.902728E-1	7.071246E-1	7.380241E-1	7.909213E-1	8.050675E-1	7.585728E-1	7.538309E-1	8.324929E-1	8.543707E-1	8.109776E-1	8.232914E-1	8.140844E-1	8.901785E-1	7.250973E-1	8.206397E-1	8.739533E-1	8.588730E-1	7.102111E-1	7.274228E-1	8.704257E-1	8.112198E-1	7.544006E-1	7.224391E-1	8.348182E-1	8.413783E-1	8.051710E-1	7.653416E-1	8.737239E-1	8.385298E-1	7.514152E-1	7.821143E-1	8.745600E-1	7.718965E-1	7.244204E-1	7.874164E-1	8.215543E-1	8.546457E-1	7.301291E-1	7.849877E-1	8.765267E-1	8.378476E-1	7.904669E-1	7.900359E-1	8.676138E-1	8.764903E-1	7.469589E-1	7.404159E-1	8.328547E-1	8.400208E-1	7.078527E-1	7.551335E-1	8.524864E-1	8.921762E-1	6.921450E-1	7.314452E-1	9.133543E-1
2.892040E+2	6.485308E-1	6.341745E-1	7.134394E-1	7.498092E-1	6.088914E-1	6.465254E-1	6.761563E-1	7.706708E-1	6.828003E-1	6.945561E-1	7.225868E-1	7.459152E-1	7.300682E-1	7.393721E-1	7.488535E-1	7.534092E-1	7.190425E-1	7.003635E-1	6.933422E-1	7.842090E-1	6.559276E-1	6.430542E-1	6.578161E-1	7.747911E-1	7.001352E-1	7.464191E-1	6.673609E-1	7.473917E-1	7.353209E-1	6.923505E-1	7.588239E-1	7.897075E-1	6.927769E-1	6.494439E-1	7.449368E-1	7.634646E-1	6.539561E-1	6.493989E-1	7.027737E-1	7.115142E-1	6.397244E-1	6.826350E-1	7.248306E-1	7.672734E-1	7.374677E-1	7.237592E-1	7.445711E-1	7.628155E-1	6.732195E-1	6.890682E-1	7.618277E-1	7.825343E-1	6.452114E-1	6.355873E-1	6.785300E-1	7.698206E-1	6.998393E-1	6.740840E-1	7.037792E-1	8.082639E-1	7.771144E-1	7.247544E-1	7.534083E-1	7.805635E-1	6.911659E-1	6.825307E-1	7.415110E-1	7.775206E-1	6.284739E-1	6.594557E-1	7.113386E-1	8.142444E-1	7.068904E-1	7.251407E-1	6.853420E-1	7.722469E-1	7.694280E-1	7.905327E-1	7.276555E-1	7.691588E-1	6.657280E-1	6.963010E-1	7.339348E-1	7.831813E-1	6.309707E-1	6.450928E-1	7.494551E-1	7.597438E-1	7.050115E-1	6.844502E-1	7.452411E-1	7.720180E-1	7.226412E-1	7.644741E-1	8.053629E-1	7.791549E-1	6.532374E-1	6.565708E-1	7.407189E-1	7.700687E-1	6.672201E-1	6.524487E-1	7.369984E-1	7.567903E-1	6.647643E-1	6.991907E-1	7.386977E-1	8.155617E-1	7.223537E-1	7.948319E-1	7.575541E-1	7.842044E-1	6.892076E-1	6.814945E-1	7.422015E-1	7.362128E-1	6.936649E-1	6.584445E-1	7.325391E-1	7.488198E-1	7.137470E-1	7.012064E-1	7.283437E-1	8.042148E-1	7.002353E-1	7.853095E-1	7.873890E-1	7.589368E-1	6.732786E-1	7.173395E-1	7.860315E-1	7.665295E-1	6.414589E-1	6.387423E-1	7.622348E-1	7.747843E-1	6.678967E-1	6.839024E-1	7.556488E-1	8.050595E-1	7.153661E-1	6.950719E-1	7.776239E-1	7.810788E-1	6.607620E-1	7.402614E-1	7.445646E-1	7.476389E-1	6.490216E-1	7.274255E-1	7.273839E-1	7.443502E-1	6.516443E-1	7.331993E-1	7.928239E-1	7.682342E-1	7.538420E-1	7.072856E-1	7.975657E-1	7.983077E-1	6.774612E-1	6.460002E-1	7.940731E-1	8.305174E-1	6.509570E-1	6.413448E-1	7.860482E-1	7.625842E-1	6.484632E-1	7.027918E-1	7.725572E-1
2.894080E+2	5.050787E-1	5.354141E-1	5.068647E-1	6.056678E-1	4.896524E-1	5.216501E-1	5.447167E-1	5.756951E-1	5.101202E-1	5.818102E-1	5.541958E-1	5.957559E-1	5.975371E-1	6.039054E-1	5.995170E-1	6.360687E-1	5.473528E-1	5.817551E-1	5.263699E-1	5.729318E-1	5.378217E-1	5.369825E-1	5.172531E-1	5.761464E-1	5.560797E-1	5.447959E-1	5.464013E-1	5.713794E-1	5.536617E-1	5.847995E-1	5.579914E-1	5.931228E-1	5.585677E-1	4.929919E-1	5.717400E-1	6.000205E-1	4.897248E-1	4.752747E-1	5.273406E-1	5.682865E-1	4.859763E-1	5.502068E-1	5.145974E-1	5.716899E-1	5.568811E-1	5.788035E-1	5.968999E-1	5.887889E-1	5.344847E-1	5.014171E-1	5.779877E-1	6.058981E-1	5.448497E-1	5.107664E-1	5.599580E-1	6.059403E-1	5.173202E-1	5.122080E-1	5.650508E-1	6.000207E-1	5.637205E-1	5.576326E-1	6.205715E-1	6.139663E-1	5.479346E-1	5.582551E-1	5.709217E-1	5.928021E-1	5.274390E-1	5.054852E-1	5.610272E-1	6.652042E-1	5.595093E-1	5.511636E-1	5.601550E-1	6.158622E-1	5.570191E-1	5.352453E-1	5.856461E-1	6.196415E-1	5.533835E-1	5.377890E-1	5.800470E-1	6.421083E-1	5.237694E-1	4.717181E-1	5.846350E-1	5.882035E-1	5.452696E-1	5.152287E-1	6.125704E-1	5.923712E-1	5.969567E-1	5.605146E-1	6.226686E-1	6.075343E-1	5.389200E-1	4.883746E-1	5.902152E-1	5.940889E-1	5.048884E-1	5.442720E-1	5.930495E-1	6.249243E-1	5.195093E-1	5.878526E-1	5.779343E-1	5.866323E-1	5.532521E-1	5.732234E-1	5.866114E-1	6.047766E-1	5.687191E-1	5.410976E-1	5.463656E-1	6.621917E-1	5.180071E-1	5.309973E-1	5.887753E-1	6.106856E-1	5.693055E-1	5.255583E-1	5.936941E-1	6.167893E-1	6.216944E-1	6.192233E-1	6.132327E-1	6.168147E-1	5.226065E-1	5.512732E-1	6.101868E-1	6.057524E-1	4.776092E-1	4.969742E-1	5.763692E-1	6.155749E-1	5.525580E-1	5.001626E-1	6.017071E-1	5.714612E-1	6.014127E-1	5.500613E-1	6.139754E-1	5.995886E-1	5.491890E-1	5.758964E-1	6.034906E-1	5.856575E-1	5.193886E-1	5.256356E-1	5.820347E-1	6.127827E-1	5.106758E-1	5.299099E-1	5.967838E-1	6.357163E-1	5.572650E-1	5.887882E-1	6.234069E-1	6.265752E-1	5.506864E-1	5.424929E-1	5.893113E-1	6.206441E-1	4.809112E-1	5.074389E-1	6.180424E-1	6.054408E-1	5.648422E-1	5.763800E-1	5.270652E-1
2.896090E+2	4.216013E-1	3.699901E-1	3.859040E-1	4.520439E-1	4.376592E-1	3.819247E-1	3.814126E-1	4.939899E-1	4.552773E-1	3.814522E-1	4.564001E-1	4.337419E-1	4.201504E-1	4.475981E-1	4.689950E-1	4.610408E-1	4.256487E-1	4.279237E-1	3.990286E-1	4.591674E-1	3.938054E-1	4.082252E-1	3.932922E-1	4.489514E-1	4.127811E-1	4.144291E-1	3.900095E-1	4.744102E-1	4.779708E-1	4.291949E-1	4.419680E-1	4.573851E-1	3.917327E-1	3.783505E-1	3.886059E-1	4.373850E-1	3.722461E-1	3.840951E-1	3.846471E-1	4.730564E-1	3.505646E-1	4.265105E-1	3.962072E-1	4.220796E-1	4.627947E-1	4.303122E-1	4.473028E-1	4.620524E-1	4.317752E-1	4.154389E-1	4.224321E-1	4.615176E-1	3.692161E-1	3.672523E-1	3.659306E-1	4.557766E-1	4.188655E-1	4.014901E-1	4.285005E-1	4.510508E-1	4.116055E-1	4.345699E-1	4.333343E-1	4.386660E-1	4.212009E-1	4.151488E-1	4.329546E-1	4.736028E-1	3.969900E-1	4.026276E-1	4.113279E-1	4.891391E-1	3.953268E-1	4.185063E-1	4.065481E-1	4.562035E-1	4.193911E-1	4.587264E-1	4.738382E-1	4.480951E-1	4.108781E-1	4.112580E-1	4.409266E-1	4.240874E-1	3.567976E-1	3.702876E-1	4.368660E-1	4.633101E-1	3.895224E-1	4.210592E-1	4.613554E-1	4.820048E-1	4.355845E-1	4.591962E-1	4.728980E-1	4.651821E-1	4.356406E-1	4.066985E-1	4.198894E-1	4.479766E-1	3.626855E-1	3.927024E-1	4.681130E-1	4.652552E-1	4.202104E-1	4.479474E-1	4.207912E-1	4.543995E-1	4.039548E-1	4.306645E-1	4.522518E-1	4.588682E-1	4.037547E-1	3.816178E-1	4.476510E-1	4.783861E-1	3.908073E-1	3.700419E-1	4.143608E-1	4.320191E-1	4.447874E-1	4.032433E-1	4.694584E-1	4.821585E-1	3.994234E-1	4.441241E-1	4.689496E-1	4.359332E-1	4.086065E-1	4.322810E-1	4.753229E-1	4.400291E-1	3.748023E-1	3.920052E-1	4.494535E-1	4.587421E-1	4.053499E-1	3.728513E-1	4.690248E-1	4.558999E-1	4.459516E-1	4.024948E-1	4.900202E-1	5.010094E-1	4.120483E-1	4.427299E-1	4.690639E-1	4.479351E-1	3.824800E-1	4.015620E-1	4.503337E-1	4.284316E-1	4.238089E-1	4.209225E-1	5.182210E-1	4.579071E-1	4.653293E-1	4.749245E-1	4.736696E-1	4.942673E-1	4.094008E-1	4.040172E-1	4.652127E-1	4.543294E-1	3.779882E-1	3.785617E-1	4.485089E-1	4.758484E-1	4.175721E-1	4.112028E-1	3.934883E-1
2.898020E+2	4.515883E-1	4.243089E-1	4.393152E-1	4.776478E-1	4.847994E-1	4.271499E-1	4.278812E-1	4.865626E-1	4.923334E-1	4.525474E-1	4.758296E-1	5.269995E-1	4.663661E-1	4.823324E-1	4.948645E-1	4.800508E-1	4.973675E-1	3.977319E-1	4.029268E-1	4.761933E-1	4.745509E-1	4.443998E-1	4.253895E-1	4.921345E-1	4.688876E-1	4.622034E-1	4.541548E-1	4.515944E-1	4.851794E-1	4.558915E-1	4.561032E-1	4.881430E-1	4.925748E-1	4.019535E-1	4.361642E-1	4.762232E-1	4.603551E-1	4.146843E-1	4.136800E-1	4.623902E-1	4.337859E-1	4.250553E-1	4.328004E-1	4.579240E-1	4.878333E-1	4.600106E-1	4.871093E-1	4.822288E-1	4.432725E-1	4.263569E-1	4.380621E-1	4.860932E-1	4.147747E-1	4.028287E-1	4.124166E-1	4.904297E-1	4.453730E-1	4.121799E-1	4.582801E-1	4.869285E-1	4.476520E-1	4.436858E-1	4.782456E-1	4.678823E-1	4.414486E-1	4.407569E-1	4.417899E-1	4.720243E-1	4.148945E-1	3.900074E-1	4.291201E-1	5.431870E-1	4.235820E-1	4.417031E-1	4.437658E-1	4.783093E-1	4.321202E-1	4.302861E-1	4.770508E-1	4.868104E-1	4.809996E-1	4.258579E-1	4.502531E-1	4.801963E-1	4.282642E-1	4.239513E-1	4.453916E-1	5.061953E-1	4.270617E-1	4.423006E-1	4.977322E-1	4.981165E-1	4.906684E-1	4.777383E-1	5.032395E-1	4.658471E-1	4.821561E-1	4.350781E-1	4.727498E-1	4.657354E-1	4.295661E-1	4.532078E-1	4.321255E-1	5.192729E-1	4.522157E-1	4.186471E-1	4.649645E-1	4.775397E-1	4.945999E-1	4.880934E-1	4.615640E-1	4.943588E-1	4.627863E-1	4.613573E-1	4.866584E-1	4.617528E-1	4.123432E-1	4.119257E-1	4.712827E-1	4.841303E-1	4.672002E-1	4.892902E-1	4.962395E-1	4.751201E-1	4.716816E-1	4.782427E-1	4.727625E-1	5.012136E-1	4.054171E-1	4.113598E-1	4.946954E-1	4.754824E-1	4.332737E-1	4.064835E-1	4.751142E-1	4.603266E-1	4.410138E-1	4.155178E-1	4.910168E-1	4.732345E-1	4.444427E-1	4.465727E-1	4.802711E-1	4.872994E-1	4.577618E-1	4.290324E-1	4.380422E-1	4.620199E-1	4.003379E-1	4.431476E-1	4.762642E-1	4.812157E-1	4.466688E-1	4.472033E-1	5.094100E-1	4.621012E-1	4.982169E-1	4.683051E-1	4.788114E-1	4.969398E-1	4.468226E-1	4.501756E-1	5.133009E-1	5.018480E-1	4.412766E-1	4.118806E-1	4.523275E-1	4.972765E-1	4.512695E-1	4.398560E-1	4.187593E-1
2.900020E+2	5.439812E-1	4.909716E-1	4.644502E-1	5.914428E-1	5.381799E-1	4.541498E-1	4.862985E-1	5.738380E-1	5.671867E-1	5.308237E-1	5.457766E-1	5.728370E-1	5.554000E-1	5.566655E-1	5.595369E-1	5.796922E-1	5.705348E-1	5.113093E-1	4.951841E-1	5.783490E-1	5.293859E-1	5.283987E-1	4.641270E-1	5.439548E-1	5.583535E-1	5.286015E-1	4.914197E-1	5.412300E-1	5.615909E-1	5.359828E-1	5.521022E-1	5.496596E-1	5.415129E-1	4.545534E-1	5.135348E-1	5.490448E-1	5.454675E-1	4.693925E-1	5.007789E-1	5.919040E-1	5.374605E-1	4.883590E-1	5.088573E-1	5.405211E-1	5.781265E-1	5.179929E-1	5.551671E-1	5.787005E-1	5.390834E-1	5.253000E-1	5.266327E-1	5.674992E-1	5.356053E-1	4.956913E-1	4.871978E-1	5.402433E-1	5.430704E-1	4.938819E-1	4.945968E-1	5.430844E-1	5.702090E-1	5.112943E-1	5.446647E-1	5.598842E-1	5.231874E-1	4.867014E-1	5.226670E-1	5.470165E-1	5.236027E-1	5.035921E-1	5.064233E-1	6.029667E-1	5.472908E-1	4.822978E-1	5.182007E-1	5.863868E-1	6.047509E-1	5.501430E-1	5.374530E-1	5.669090E-1	5.548907E-1	5.183226E-1	5.116526E-1	5.627552E-1	4.854381E-1	4.846911E-1	5.242491E-1	5.882038E-1	5.165163E-1	5.166452E-1	5.833258E-1	6.084833E-1	5.333389E-1	5.207817E-1	5.813524E-1	5.696179E-1	4.963467E-1	4.946037E-1	5.314820E-1	5.755216E-1	4.529421E-1	4.501526E-1	5.475565E-1	5.486641E-1	5.071998E-1	5.021510E-1	5.330360E-1	5.667979E-1	5.243068E-1	5.664672E-1	5.433769E-1	5.508824E-1	5.032183E-1	5.213327E-1	5.575107E-1	5.798540E-1	5.025278E-1	4.879162E-1	5.625037E-1	5.511296E-1	5.186680E-1	5.369356E-1	5.193019E-1	5.138373E-1	5.510071E-1	5.561356E-1	5.661974E-1	5.501746E-1	4.699910E-1	5.349285E-1	5.401469E-1	5.521607E-1	4.878896E-1	4.891318E-1	5.507087E-1	5.561688E-1	5.002006E-1	4.574957E-1	5.562585E-1	5.780650E-1	5.644339E-1	5.494224E-1	5.645327E-1	5.473610E-1	5.158723E-1	5.195861E-1	5.325837E-1	5.629651E-1	4.790436E-1	5.208636E-1	5.526921E-1	5.489693E-1	4.771478E-1	5.445972E-1	5.527301E-1	5.946193E-1	5.221349E-1	5.748862E-1	5.629984E-1	5.590848E-1	5.109731E-1	5.061253E-1	5.939650E-1	5.564942E-1	4.770752E-1	5.093249E-1	5.462583E-1	5.595218E-1	4.999436E-1	5.426720E-1	6.353710E-1
2.905110E+2	5.658637E-1	5.173077E-1	5.225736E-1	6.018746E-1	5.666030E-1	5.054499E-1	5.646322E-1	6.527572E-1	6.383335E-1	5.660113E-1	5.885218E-1	6.202560E-1	6.043337E-1	6.115471E-1	6.177432E-1	6.236139E-1	6.183467E-1	5.702532E-1	5.497584E-1	5.737060E-1	6.101316E-1	5.050996E-1	5.189135E-1	6.397435E-1	6.379636E-1	5.893310E-1	5.464011E-1	6.007153E-1	6.812555E-1	5.954791E-1	6.104085E-1	5.750684E-1	6.060222E-1	5.233390E-1	5.916153E-1	5.660369E-1	5.964152E-1	4.846873E-1	5.718168E-1	6.063786E-1	5.431030E-1	5.793119E-1	5.447333E-1	6.083130E-1	6.069600E-1	5.731470E-1	5.718599E-1	6.386007E-1	6.233974E-1	5.416769E-1	5.779882E-1	6.419925E-1	6.346471E-1	5.270473E-1	5.545684E-1	6.247108E-1	6.112310E-1	5.015180E-1	5.773981E-1	6.109392E-1	5.954417E-1	5.477573E-1	5.819852E-1	5.971816E-1	6.461713E-1	5.499694E-1	5.947083E-1	6.504277E-1	6.265553E-1	5.395608E-1	5.518241E-1	6.234393E-1	6.198361E-1	5.605873E-1	5.858691E-1	6.035815E-1	6.238444E-1	6.016060E-1	5.895015E-1	6.329908E-1	6.348142E-1	5.245800E-1	6.025864E-1	6.116495E-1	6.251234E-1	5.265613E-1	5.782416E-1	6.288312E-1	6.051736E-1	5.315132E-1	5.983049E-1	5.923713E-1	6.000600E-1	6.062068E-1	5.613403E-1	6.081988E-1	5.649377E-1	5.243669E-1	5.711273E-1	6.134616E-1	5.789113E-1	5.076021E-1	5.801485E-1	6.360454E-1	6.048572E-1	5.168010E-1	5.699682E-1	6.320883E-1	6.004780E-1	6.097082E-1	5.999134E-1	6.001758E-1	5.573976E-1	5.683586E-1	5.654716E-1	5.440900E-1	5.153154E-1	5.190300E-1	5.552059E-1	6.090308E-1	6.066609E-1	5.710700E-1	5.728638E-1	5.851121E-1	5.737848E-1	5.941174E-1	6.297583E-1	6.004947E-1	5.082575E-1	5.375432E-1	6.273240E-1	6.032793E-1	5.515021E-1	5.488552E-1	6.200620E-1	5.894360E-1	5.343471E-1	5.263124E-1	6.009749E-1	6.523539E-1	5.727355E-1	5.360072E-1	6.411340E-1	6.002418E-1	5.243952E-1	5.675256E-1	6.182626E-1	5.715726E-1	5.054992E-1	5.658571E-1	6.257085E-1	6.490235E-1	5.396312E-1	6.141631E-1	6.173425E-1	5.711354E-1	5.677294E-1	6.152683E-1	6.446150E-1	6.399397E-1	5.598512E-1	5.655721E-1	5.862087E-1	6.253958E-1	4.930569E-1	5.407577E-1	6.363693E-1	6.340114E-1	5.785717E-1	5.915504E-1	6.173200E-1
2.910070E+2	6.088178E-1	5.370598E-1	6.066172E-1	6.350651E-1	6.629649E-1	5.439253E-1	5.699429E-1	6.963943E-1	6.464864E-1	5.882737E-1	5.949987E-1	6.708351E-1	6.947265E-1	6.184941E-1	6.400843E-1	6.688458E-1	6.429776E-1	5.788801E-1	6.075818E-1	6.418096E-1	6.276059E-1	5.559897E-1	5.631855E-1	6.318923E-1	6.440291E-1	6.225300E-1	5.665620E-1	6.080482E-1	6.178193E-1	5.870881E-1	6.457451E-1	6.419341E-1	6.423555E-1	5.503130E-1	5.944543E-1	6.526138E-1	6.293810E-1	5.482189E-1	5.644039E-1	5.941895E-1	5.967035E-1	5.683975E-1	5.562135E-1	5.950665E-1	6.373103E-1	6.346642E-1	6.379908E-1	6.190540E-1	6.394947E-1	5.594183E-1	6.070160E-1	6.097381E-1	6.102169E-1	5.463429E-1	5.613054E-1	6.044962E-1	6.475833E-1	5.679483E-1	5.788501E-1	6.335577E-1	6.192319E-1	6.434724E-1	6.275296E-1	6.326154E-1	6.371728E-1	5.650335E-1	5.722807E-1	6.449021E-1	6.905018E-1	5.584914E-1	6.174705E-1	6.349043E-1	5.969273E-1	5.758104E-1	5.831629E-1	6.207752E-1	6.437328E-1	6.402041E-1	6.499035E-1	6.456731E-1	6.657281E-1	6.003592E-1	5.948144E-1	6.493224E-1	6.361682E-1	5.407140E-1	6.151836E-1	6.273268E-1	6.538941E-1	5.647913E-1	5.954520E-1	5.907599E-1	6.450586E-1	6.068684E-1	6.607568E-1	6.640760E-1	6.532371E-1	5.562067E-1	6.019619E-1	6.514027E-1	6.418963E-1	5.522175E-1	6.018766E-1	6.582876E-1	6.311176E-1	5.827250E-1	6.264530E-1	6.477911E-1	6.591303E-1	6.110588E-1	6.278504E-1	6.461831E-1	6.552448E-1	5.792638E-1	5.925384E-1	6.405676E-1	6.256902E-1	5.639059E-1	5.982623E-1	6.346727E-1	6.365455E-1	5.810263E-1	6.033647E-1	6.238283E-1	5.714275E-1	6.288791E-1	6.278513E-1	6.385753E-1	6.405928E-1	5.826559E-1	6.645789E-1	6.280140E-1	6.446714E-1	5.506655E-1	6.269970E-1	6.409219E-1	6.572732E-1	5.641613E-1	6.632838E-1	6.630844E-1	6.527290E-1	6.011664E-1	6.822200E-1	6.831527E-1	6.134988E-1	6.207920E-1	6.389437E-1	6.443467E-1	6.126446E-1	5.903986E-1	6.379906E-1	6.309034E-1	5.952567E-1	6.327143E-1	6.239506E-1	6.088774E-1	6.133226E-1	6.470441E-1	6.593962E-1	6.486262E-1	5.331205E-1	5.760632E-1	7.064294E-1	6.618265E-1	5.525097E-1	5.470446E-1	6.928811E-1	6.574817E-1	5.623468E-1	6.252599E-1	6.209302E-1
2.915110E+2	7.449746E-1	7.090671E-1	6.655266E-1	7.725677E-1	7.565538E-1	6.802746E-1	6.575694E-1	8.050243E-1	7.613599E-1	6.880933E-1	7.653322E-1	7.332708E-1	7.633706E-1	7.310356E-1	7.911844E-1	8.189624E-1	7.262867E-1	7.154594E-1	6.809976E-1	7.586697E-1	7.734305E-1	6.767767E-1	6.550492E-1	7.347482E-1	7.774711E-1	7.253657E-1	6.588083E-1	7.115367E-1	7.879441E-1	7.472700E-1	7.364437E-1	7.770030E-1	7.372660E-1	6.683261E-1	7.271918E-1	7.286716E-1	7.726344E-1	6.046913E-1	6.533559E-1	7.488448E-1	7.610312E-1	7.168329E-1	7.284190E-1	7.703908E-1	7.336734E-1	6.884040E-1	8.004295E-1	7.880364E-1	7.866604E-1	6.842919E-1	7.238689E-1	7.556544E-1	7.700035E-1	6.446323E-1	6.872879E-1	7.431092E-1	7.657286E-1	6.313244E-1	6.834418E-1	7.583481E-1	7.749514E-1	6.806950E-1	7.483479E-1	7.830500E-1	7.489084E-1	7.021139E-1	7.136451E-1	7.633119E-1	7.550867E-1	6.556698E-1	7.438554E-1	7.634725E-1	7.557639E-1	7.236910E-1	7.570707E-1	7.534150E-1	8.450029E-1	7.201085E-1	8.021940E-1	7.805068E-1	7.878757E-1	6.754442E-1	6.950741E-1	7.174542E-1	8.089884E-1	6.533484E-1	7.338259E-1	7.762956E-1	8.655514E-1	6.625013E-1	7.302615E-1	6.922644E-1	8.103098E-1	7.750700E-1	7.595275E-1	7.651860E-1	7.517874E-1	7.029459E-1	7.436551E-1	7.587674E-1	7.574760E-1	6.603939E-1	6.806412E-1	7.973027E-1	7.681660E-1	7.087134E-1	7.336289E-1	7.891149E-1	7.612011E-1	7.596989E-1	7.356036E-1	7.395112E-1	7.482396E-1	6.780870E-1	7.509590E-1	7.811247E-1	7.212585E-1	6.961403E-1	7.274314E-1	7.852145E-1	7.618937E-1	7.396084E-1	7.223925E-1	7.364599E-1	7.245829E-1	7.338097E-1	7.848465E-1	7.514568E-1	7.649570E-1	6.624195E-1	7.741094E-1	7.871423E-1	7.532619E-1	6.689062E-1	7.747186E-1	7.930026E-1	7.764052E-1	6.914722E-1	7.446534E-1	7.745192E-1	7.983793E-1	7.314845E-1	8.409936E-1	7.752037E-1	7.552890E-1	7.014527E-1	7.622914E-1	7.538987E-1	7.812999E-1	7.028833E-1	7.383026E-1	7.490768E-1	7.644188E-1	7.556156E-1	7.722653E-1	7.715886E-1	7.545892E-1	7.801054E-1	7.712169E-1	7.542053E-1	8.080548E-1	6.795702E-1	7.700295E-1	7.861669E-1	7.890403E-1	6.187127E-1	7.402278E-1	7.636044E-1	6.946412E-1	6.943640E-1	8.050488E-1
2.920030E+2	6.460988E-1	5.584582E-1	5.987624E-1	7.033418E-1	6.816832E-1	5.945504E-1	5.931770E-1	6.945373E-1	6.865068E-1	5.968910E-1	6.494020E-1	6.992873E-1	7.096783E-1	6.664280E-1	6.959391E-1	6.773677E-1	6.755764E-1	6.565151E-1	6.485130E-1	6.309746E-1	6.661712E-1	5.811282E-1	5.880880E-1	6.766466E-1	6.842138E-1	6.711141E-1	6.007724E-1	6.944248E-1	6.978358E-1	6.679416E-1	6.787266E-1	6.760358E-1	7.454222E-1	6.002157E-1	6.448521E-1	6.760786E-1	7.049038E-1	5.488068E-1	5.903477E-1	6.589466E-1	6.559457E-1	6.142377E-1	6.473389E-1	6.690919E-1	6.889067E-1	6.480993E-1	6.848608E-1	6.940879E-1	6.701535E-1	5.873957E-1	6.568821E-1	6.681044E-1	6.934113E-1	5.770961E-1	6.145279E-1	6.867977E-1	6.574290E-1	5.610762E-1	6.333253E-1	6.842535E-1	6.581612E-1	6.723392E-1	6.446084E-1	6.804805E-1	6.769174E-1	6.200160E-1	6.144183E-1	6.883190E-1	7.026514E-1	6.064497E-1	6.186976E-1	6.725741E-1	6.755820E-1	6.164046E-1	6.264702E-1	6.543439E-1	7.089662E-1	6.808333E-1	6.563296E-1	7.030774E-1	7.313255E-1	6.198260E-1	6.360059E-1	7.078360E-1	6.764493E-1	5.589952E-1	6.492846E-1	6.649454E-1	6.562898E-1	5.952378E-1	6.888912E-1	6.834028E-1	6.667812E-1	6.247488E-1	6.665667E-1	7.073136E-1	6.792547E-1	6.046589E-1	6.291255E-1	6.667417E-1	6.977381E-1	5.956104E-1	6.283579E-1	6.924463E-1	7.648840E-1	6.142216E-1	6.691781E-1	6.411787E-1	6.857905E-1	6.880819E-1	6.524604E-1	7.211091E-1	6.738437E-1	5.935756E-1	6.490595E-1	6.929648E-1	6.997219E-1	6.010031E-1	6.391296E-1	7.140796E-1	6.971445E-1	6.322277E-1	6.517205E-1	6.933428E-1	6.491832E-1	6.919663E-1	6.812428E-1	6.909364E-1	6.860334E-1	6.343058E-1	6.817160E-1	7.162364E-1	6.864369E-1	5.217086E-1	6.838665E-1	6.607240E-1	6.754846E-1	6.020105E-1	6.706151E-1	6.812443E-1	6.655585E-1	6.037215E-1	7.065934E-1	7.053499E-1	6.661860E-1	6.352505E-1	6.662713E-1	6.748645E-1	6.959807E-1	6.108508E-1	6.489094E-1	6.537502E-1	6.760272E-1	6.358059E-1	7.091214E-1	6.986205E-1	6.641490E-1	6.735245E-1	7.275165E-1	6.913932E-1	6.957903E-1	6.355096E-1	6.847124E-1	6.982578E-1	7.417340E-1	6.174556E-1	6.974625E-1	6.952364E-1	6.759211E-1	5.443573E-1	7.003545E-1
2.925020E+2	6.922947E-1	6.621567E-1	6.238975E-1	7.023934E-1	7.156517E-1	6.127749E-1	6.323434E-1	7.483872E-1	7.287502E-1	6.823482E-1	7.012140E-1	7.229963E-1	6.858911E-1	6.775443E-1	7.035820E-1	7.540648E-1	7.031053E-1	6.500458E-1	6.504623E-1	7.215227E-1	7.475194E-1	6.117854E-1	6.124374E-1	7.096230E-1	7.266727E-1	6.978351E-1	6.264305E-1	6.822010E-1	6.754887E-1	6.923497E-1	6.799040E-1	7.088004E-1	6.816542E-1	6.292134E-1	6.888606E-1	7.302904E-1	7.516554E-1	5.917497E-1	6.305000E-1	7.282748E-1	6.672304E-1	6.433425E-1	6.322709E-1	6.870137E-1	7.450546E-1	6.707270E-1	6.521161E-1	7.130032E-1	7.077119E-1	6.324314E-1	6.479513E-1	7.395274E-1	6.980337E-1	6.042307E-1	5.889270E-1	6.398717E-1	7.202880E-1	6.045991E-1	6.710946E-1	7.177909E-1	7.057426E-1	6.655021E-1	6.914171E-1	7.128054E-1	7.076635E-1	6.674673E-1	6.701487E-1	7.569968E-1	7.199162E-1	6.367389E-1	6.720740E-1	6.807630E-1	7.183456E-1	6.439513E-1	6.799284E-1	7.452274E-1	7.224906E-1	7.146912E-1	6.903859E-1	6.917298E-1	7.170011E-1	6.691876E-1	6.911881E-1	7.246682E-1	7.238776E-1	5.749172E-1	6.407591E-1	7.176108E-1	7.609209E-1	6.270994E-1	6.767655E-1	6.834035E-1	7.482434E-1	6.843474E-1	7.020729E-1	7.199523E-1	7.241933E-1	6.101954E-1	7.054781E-1	6.909577E-1	7.535803E-1	6.292249E-1	6.996532E-1	7.448742E-1	7.205686E-1	6.581717E-1	6.974213E-1	7.420071E-1	7.353024E-1	6.624069E-1	6.950293E-1	7.020488E-1	7.134681E-1	6.153852E-1	6.928444E-1	7.145887E-1	7.152017E-1	6.004047E-1	7.631902E-1	7.124249E-1	7.751760E-1	5.988044E-1	6.993316E-1	6.651853E-1	7.033766E-1	7.125666E-1	6.875987E-1	7.167761E-1	7.099498E-1	6.238452E-1	6.861874E-1	7.022191E-1	7.172790E-1	6.218509E-1	7.136874E-1	6.583478E-1	7.733701E-1	6.068277E-1	7.131314E-1	7.241671E-1	7.319692E-1	6.637700E-1	7.149498E-1	6.518159E-1	7.080258E-1	7.219982E-1	6.906458E-1	7.257281E-1	7.085465E-1	6.626618E-1	6.830292E-1	7.096853E-1	6.874580E-1	6.466278E-1	7.605183E-1	7.464270E-1	7.075009E-1	6.847786E-1	7.384418E-1	7.054253E-1	7.148833E-1	6.362089E-1	7.514150E-1	7.426084E-1	7.449312E-1	6.099117E-1	7.066263E-1	7.380939E-1	7.058744E-1	6.336877E-1	6.570319E-1
2.930040E+2	6.590671E-1	5.617496E-1	5.123623E-1	6.454960E-1	6.227568E-1	6.039998E-1	5.506909E-1	6.193322E-1	6.131355E-1	6.155619E-1	6.299719E-1	6.502877E-1	6.457923E-1	6.018216E-1	6.218585E-1	6.721234E-1	6.523946E-1	5.882246E-1	5.523572E-1	6.247838E-1	6.613509E-1	5.394355E-1	5.582045E-1	6.687943E-1	6.614679E-1	5.998582E-1	5.445689E-1	6.414584E-1	7.158568E-1	5.962412E-1	6.009850E-1	6.145193E-1	6.660833E-1	5.611028E-1	5.802581E-1	6.542319E-1	6.036078E-1	4.935105E-1	5.674928E-1	6.246640E-1	6.383143E-1	5.640319E-1	5.935244E-1	6.441569E-1	6.190999E-1	6.021380E-1	6.071732E-1	6.449067E-1	6.532904E-1	5.498654E-1	5.988285E-1	6.381533E-1	6.234230E-1	5.023237E-1	5.599577E-1	6.333742E-1	6.354653E-1	6.000178E-1	5.715874E-1	6.553962E-1	6.113018E-1	6.092886E-1	5.940036E-1	6.518860E-1	6.266739E-1	5.695522E-1	6.191759E-1	6.488495E-1	6.438207E-1	5.477641E-1	5.910894E-1	6.471885E-1	6.167819E-1	5.656621E-1	5.743657E-1	6.412437E-1	6.556654E-1	5.995744E-1	6.017106E-1	6.543506E-1	6.257665E-1	5.753315E-1	6.088042E-1	6.741705E-1	6.381180E-1	5.112285E-1	5.732684E-1	6.228123E-1	6.914332E-1	5.449662E-1	6.282628E-1	6.568183E-1	6.745399E-1	6.148149E-1	6.749588E-1	6.401288E-1	6.374699E-1	5.589750E-1	6.232529E-1	6.271850E-1	6.392992E-1	5.314376E-1	6.371846E-1	6.574933E-1	6.048569E-1	5.878524E-1	6.032794E-1	6.618398E-1	6.598930E-1	5.934923E-1	6.172076E-1	6.652435E-1	5.824663E-1	5.417794E-1	6.020907E-1	6.255969E-1	6.216523E-1	5.543326E-1	6.092090E-1	6.528699E-1	6.108116E-1	5.668031E-1	5.929499E-1	6.607858E-1	6.507545E-1	6.481923E-1	6.793351E-1	6.338153E-1	6.246495E-1	5.519271E-1	6.779912E-1	6.288385E-1	6.318209E-1	5.313607E-1	5.944010E-1	6.417138E-1	7.028021E-1	5.579672E-1	6.141692E-1	6.597826E-1	6.497109E-1	6.145812E-1	6.571502E-1	6.413703E-1	6.080751E-1	6.215533E-1	6.138310E-1	6.177413E-1	6.219039E-1	5.494959E-1	6.414034E-1	6.553258E-1	7.126032E-1	5.662395E-1	6.342296E-1	6.348774E-1	6.335038E-1	6.285087E-1	6.459002E-1	6.132110E-1	6.789890E-1	5.774612E-1	6.218877E-1	6.531152E-1	6.305005E-1	5.778493E-1	6.707348E-1	6.503387E-1	6.434715E-1	6.235741E-1	6.967442E-1
2.935090E+2	6.866223E-1	7.255276E-1	6.670979E-1	6.436000E-1	6.969345E-1	7.032249E-1	5.951682E-1	7.019650E-1	6.702024E-1	7.031738E-1	7.057482E-1	6.898028E-1	7.307476E-1	6.935222E-1	6.900595E-1	7.193221E-1	6.944112E-1	7.111460E-1	6.270728E-1	7.060442E-1	7.089542E-1	7.117255E-1	6.063500E-1	6.648689E-1	7.221233E-1	7.124107E-1	6.447578E-1	6.936096E-1	7.028823E-1	7.228610E-1	7.223088E-1	6.760356E-1	7.061231E-1	6.973239E-1	6.590482E-1	6.906427E-1	7.222858E-1	6.535167E-1	5.928197E-1	6.894207E-1	7.412837E-1	7.051909E-1	6.631242E-1	7.220789E-1	7.184981E-1	7.018390E-1	6.989856E-1	7.155256E-1	6.885493E-1	6.037729E-1	6.754898E-1	6.673365E-1	7.165213E-1	6.181001E-1	6.509080E-1	7.019589E-1	6.930238E-1	6.534675E-1	6.347777E-1	7.372891E-1	7.079054E-1	6.639830E-1	6.332221E-1	6.985082E-1	7.294106E-1	6.501433E-1	6.851009E-1	6.827932E-1	7.032908E-1	6.474663E-1	6.708470E-1	7.593786E-1	6.488548E-1	6.497508E-1	6.454172E-1	6.887320E-1	7.137395E-1	7.241718E-1	6.955265E-1	7.284424E-1	7.124761E-1	6.142648E-1	6.958518E-1	7.070340E-1	7.303742E-1	6.055824E-1	6.741495E-1	6.950396E-1	7.114006E-1	6.370117E-1	6.967372E-1	6.713190E-1	7.335028E-1	6.995776E-1	6.975541E-1	7.399082E-1	7.502100E-1	6.330371E-1	6.959346E-1	7.466582E-1	6.905956E-1	6.041667E-1	6.813200E-1	7.536126E-1	7.492916E-1	6.171518E-1	6.981455E-1	7.403541E-1	7.033106E-1	7.272682E-1	7.183101E-1	7.178227E-1	7.037640E-1	6.058433E-1	6.912520E-1	7.104302E-1	6.795316E-1	6.045932E-1	6.843749E-1	7.331044E-1	7.643838E-1	6.457384E-1	6.673420E-1	6.713450E-1	6.892400E-1	6.803792E-1	7.015822E-1	6.977356E-1	6.956002E-1	6.591506E-1	6.742658E-1	7.541627E-1	7.204920E-1	6.121989E-1	7.018983E-1	6.987442E-1	7.096316E-1	6.247196E-1	6.794116E-1	6.655609E-1	6.980096E-1	6.803791E-1	7.462869E-1	7.079603E-1	6.654112E-1	6.200308E-1	7.179746E-1	7.288585E-1	7.416162E-1	6.326659E-1	6.932647E-1	6.805363E-1	6.706935E-1	6.388979E-1	7.458337E-1	7.657181E-1	6.962894E-1	7.337665E-1	7.474390E-1	7.027525E-1	6.705881E-1	6.522946E-1	7.242688E-1	7.156810E-1	7.123277E-1	5.910518E-1	6.844805E-1	7.074813E-1	7.470602E-1	6.353736E-1	7.797785E-1
2.940070E+2	7.952237E-1	8.341641E-1	7.228649E-1	8.057575E-1	8.237986E-1	8.125749E-1	6.602241E-1	7.892393E-1	8.258368E-1	7.879127E-1	7.446075E-1	8.296876E-1	8.055086E-1	7.886957E-1	7.782497E-1	8.176519E-1	8.269819E-1	7.859052E-1	7.355731E-1	7.803396E-1	7.800587E-1	8.220890E-1	6.965539E-1	7.999158E-1	7.971839E-1	8.265822E-1	7.247860E-1	7.759113E-1	8.528227E-1	8.090535E-1	7.847381E-1	8.298263E-1	7.454225E-1	8.321960E-1	7.740392E-1	8.192947E-1	8.277775E-1	7.682266E-1	7.058621E-1	8.158873E-1	7.666735E-1	8.077865E-1	7.126332E-1	7.992215E-1	7.723702E-1	7.831561E-1	7.728221E-1	8.220851E-1	8.111884E-1	7.709521E-1	7.677817E-1	7.725499E-1	7.779276E-1	7.658346E-1	7.391633E-1	7.922011E-1	8.240443E-1	8.138170E-1	7.611588E-1	8.012445E-1	7.569282E-1	7.764104E-1	7.761805E-1	7.525896E-1	8.029010E-1	7.796918E-1	7.381127E-1	8.485669E-1	7.742702E-1	7.433829E-1	7.358794E-1	8.240724E-1	8.038733E-1	7.563112E-1	7.685739E-1	8.148228E-1	7.702231E-1	8.162651E-1	8.253272E-1	7.831765E-1	8.858951E-1	7.025583E-1	7.479251E-1	8.160442E-1	8.531680E-1	6.769369E-1	7.757409E-1	7.973618E-1	8.208239E-1	6.717057E-1	7.666390E-1	7.953795E-1	8.095337E-1	8.174511E-1	8.466787E-1	8.470048E-1	7.880526E-1	6.932553E-1	7.744893E-1	7.789487E-1	8.353959E-1	6.573382E-1	7.139123E-1	8.123956E-1	8.551557E-1	6.882039E-1	7.669404E-1	8.139086E-1	8.084275E-1	7.833468E-1	8.127614E-1	8.203533E-1	7.854383E-1	7.319285E-1	7.851902E-1	7.661541E-1	7.764461E-1	6.913539E-1	7.814346E-1	8.224368E-1	7.967588E-1	7.580972E-1	7.700035E-1	8.235736E-1	7.693511E-1	7.576289E-1	7.657790E-1	8.031375E-1	7.777129E-1	7.395691E-1	8.240319E-1	7.863182E-1	8.175167E-1	7.014826E-1	8.045402E-1	7.985466E-1	8.257278E-1	6.969774E-1	8.142927E-1	8.735707E-1	7.923426E-1	7.500101E-1	7.901585E-1	8.084989E-1	8.072012E-1	7.448281E-1	7.453029E-1	8.000672E-1	7.627807E-1	7.192447E-1	8.058593E-1	8.381018E-1	7.888018E-1	7.517513E-1	7.891526E-1	8.428803E-1	7.777606E-1	8.324040E-1	8.078484E-1	7.916256E-1	8.279121E-1	6.956561E-1	8.142398E-1	8.051744E-1	8.369858E-1	6.872377E-1	8.181214E-1	7.982987E-1	7.533005E-1	7.297601E-1	7.581173E-1
2.945030E+2	8.722173E-1	8.506243E-1	7.079413E-1	8.465344E-1	8.647013E-1	8.821004E-1	7.339107E-1	8.997270E-1	8.465885E-1	8.618802E-1	7.938291E-1	8.091396E-1	8.687157E-1	8.741440E-1	8.535058E-1	9.172930E-1	8.863852E-1	8.858241E-1	7.836502E-1	8.430259E-1	8.650228E-1	8.122794E-1	7.397182E-1	8.800020E-1	8.601131E-1	8.686888E-1	7.699934E-1	8.671764E-1	8.679613E-1	8.410901E-1	8.442227E-1	8.859945E-1	8.596111E-1	8.591706E-1	7.839768E-1	8.265759E-1	8.325723E-1	9.029374E-1	7.861659E-1	8.730260E-1	8.259161E-1	8.667232E-1	7.786450E-1	8.350656E-1	9.021187E-1	8.906356E-1	8.273960E-1	8.416319E-1	8.426137E-1	8.774011E-1	7.677818E-1	8.255409E-1	8.399932E-1	8.466369E-1	7.560057E-1	8.470681E-1	8.134409E-1	8.191617E-1	7.676959E-1	8.418014E-1	7.922534E-1	8.333844E-1	8.394364E-1	8.470783E-1	8.651433E-1	8.550112E-1	8.176302E-1	8.746169E-1	8.414137E-1	8.771603E-1	8.076613E-1	8.650172E-1	8.672546E-1	8.577982E-1	7.868438E-1	8.541236E-1	8.839839E-1	8.047530E-1	7.957686E-1	8.385785E-1	8.715694E-1	8.367375E-1	7.937801E-1	8.665424E-1	8.343270E-1	8.762591E-1	8.077102E-1	8.552937E-1	8.647521E-1	8.430513E-1	8.279809E-1	8.831893E-1	8.661693E-1	8.214242E-1	8.550713E-1	8.829252E-1	8.637391E-1	7.894669E-1	7.781603E-1	8.483714E-1	8.457845E-1	7.765163E-1	8.042201E-1	8.664129E-1	8.371009E-1	7.804978E-1	8.089417E-1	8.866371E-1	8.350877E-1	8.799620E-1	8.420276E-1	8.729323E-1	8.630681E-1	7.217051E-1	8.082767E-1	8.476605E-1	8.585540E-1	7.116972E-1	8.128139E-1	9.101165E-1	8.781102E-1	7.552525E-1	7.967849E-1	8.966076E-1	8.683127E-1	8.908843E-1	8.490432E-1	8.507379E-1	8.375030E-1	7.493756E-1	8.575612E-1	8.943268E-1	8.220141E-1	7.219931E-1	8.385228E-1	8.508240E-1	8.401451E-1	7.403322E-1	8.245559E-1	8.545855E-1	8.527149E-1	7.991989E-1	8.806872E-1	8.313483E-1	8.195987E-1	8.194008E-1	8.228571E-1	8.611035E-1	8.699259E-1	7.833263E-1	7.997175E-1	8.467675E-1	8.520470E-1	7.888526E-1	8.816661E-1	8.730738E-1	8.450302E-1	8.516020E-1	8.611875E-1	8.678031E-1	8.355493E-1	7.579004E-1	8.506937E-1	8.629883E-1	8.663929E-1	6.935244E-1	8.395038E-1	8.942176E-1	8.219441E-1	8.460601E-1	8.231015E-1
2.950070E+2	7.709101E-1	8.259344E-1	7.095126E-1	7.924817E-1	7.822035E-1	8.132502E-1	7.518350E-1	8.170937E-1	8.406596E-1	8.159194E-1	7.549698E-1	8.091399E-1	8.224995E-1	8.199577E-1	8.223449E-1	8.281405E-1	7.371530E-1	8.225660E-1	7.173808E-1	7.578960E-1	8.156109E-1	7.938852E-1	7.037482E-1	8.305368E-1	8.138635E-1	8.322505E-1	7.302846E-1	8.256183E-1	8.470555E-1	7.617628E-1	7.617690E-1	8.478809E-1	8.262443E-1	8.645652E-1	7.754595E-1	7.521366E-1	8.091965E-1	8.246997E-1	7.169805E-1	8.227436E-1	8.146317E-1	7.997821E-1	7.714692E-1	8.085720E-1	7.966503E-1	8.262894E-1	8.119865E-1	7.956030E-1	7.912594E-1	7.764108E-1	7.782019E-1	7.871412E-1	7.898119E-1	8.225169E-1	7.715019E-1	7.792060E-1	8.399485E-1	8.214531E-1	7.241164E-1	8.020250E-1	8.585786E-1	7.991999E-1	7.806084E-1	8.209701E-1	8.321466E-1	8.075600E-1	7.394718E-1	7.869939E-1	7.819443E-1	8.462395E-1	7.628744E-1	8.248906E-1	8.160915E-1	8.056047E-1	7.645145E-1	8.451163E-1	7.972711E-1	8.074618E-1	8.079773E-1	8.138813E-1	8.647835E-1	8.130998E-1	7.751278E-1	8.088313E-1	8.362757E-1	7.760083E-1	7.984748E-1	8.267045E-1	7.912716E-1	7.793276E-1	8.194215E-1	8.058530E-1	8.227234E-1	8.181133E-1	7.963246E-1	8.270488E-1	8.479713E-1	8.240747E-1	7.803632E-1	8.072023E-1	8.289029E-1	7.893511E-1	7.600850E-1	8.330490E-1	8.526930E-1	8.434912E-1	8.241493E-1	8.477938E-1	8.236624E-1	8.360459E-1	8.247335E-1	8.302120E-1	7.910983E-1	8.218910E-1	7.796176E-1	8.601366E-1	7.993286E-1	8.122196E-1	7.836238E-1	8.224373E-1	8.440759E-1	8.420107E-1	7.789310E-1	8.024544E-1	8.109772E-1	7.846662E-1	8.185343E-1	8.507381E-1	7.944537E-1	7.801042E-1	8.396789E-1	8.234199E-1	8.207300E-1	7.135482E-1	8.440713E-1	8.302301E-1	8.097927E-1	7.355147E-1	7.959672E-1	8.397271E-1	8.730908E-1	7.653416E-1	8.528326E-1	8.000118E-1	8.498165E-1	7.813531E-1	7.903581E-1	8.063275E-1	7.998182E-1	7.335613E-1	7.642338E-1	8.278594E-1	7.933736E-1	7.231515E-1	8.317381E-1	8.059768E-1	8.001831E-1	7.973182E-1	8.129889E-1	8.330559E-1	8.783164E-1	6.977540E-1	8.266497E-1	7.845828E-1	7.992687E-1	6.715206E-1	8.188849E-1	8.105427E-1	8.431609E-1	8.342605E-1	8.158803E-1
2.955070E+2	8.462823E-1	8.637929E-1	7.267923E-1	8.266197E-1	8.362776E-1	8.118997E-1	7.206341E-1	8.235931E-1	8.495532E-1	8.654702E-1	7.905911E-1	8.707842E-1	8.157034E-1	8.651121E-1	8.252849E-1	8.543620E-1	8.443681E-1	8.060334E-1	7.713060E-1	8.337389E-1	8.547786E-1	8.300604E-1	7.319713E-1	8.156193E-1	8.441917E-1	8.686884E-1	8.066476E-1	8.549534E-1	8.484974E-1	8.441405E-1	8.236092E-1	8.057548E-1	8.255033E-1	8.328710E-1	7.853975E-1	7.869298E-1	8.002052E-1	8.676422E-1	7.262472E-1	8.440756E-1	8.139263E-1	8.194279E-1	7.642944E-1	8.366240E-1	8.482471E-1	7.923477E-1	8.010716E-1	8.561336E-1	8.280505E-1	7.873286E-1	7.819231E-1	8.309166E-1	8.406534E-1	8.195020E-1	7.533113E-1	8.376834E-1	8.187425E-1	8.481776E-1	7.466326E-1	7.981245E-1	8.333459E-1	8.409806E-1	8.103387E-1	8.352675E-1	8.958886E-1	8.098199E-1	7.890858E-1	8.619872E-1	8.279855E-1	8.411920E-1	7.567396E-1	8.248897E-1	8.229639E-1	7.874821E-1	7.570707E-1	8.516670E-1	8.195454E-1	8.108477E-1	8.259693E-1	7.945241E-1	8.353775E-1	8.221378E-1	8.108791E-1	8.825733E-1	8.135363E-1	8.721310E-1	8.190776E-1	7.928475E-1	8.367981E-1	7.715394E-1	7.987369E-1	8.501600E-1	8.188437E-1	8.313576E-1	8.524888E-1	8.609737E-1	8.006678E-1	8.593750E-1	7.913756E-1	8.063942E-1	8.386425E-1	8.382444E-1	7.777387E-1	8.457589E-1	8.288937E-1	8.647338E-1	7.814241E-1	8.502727E-1	8.168066E-1	8.576660E-1	8.387019E-1	8.551868E-1	8.557909E-1	8.266620E-1	7.923551E-1	8.152236E-1	8.107696E-1	8.600865E-1	7.763258E-1	8.224373E-1	8.639988E-1	8.704558E-1	8.183587E-1	8.543709E-1	8.266865E-1	8.670661E-1	8.064569E-1	8.099371E-1	7.968457E-1	8.794824E-1	8.687380E-1	8.275428E-1	8.181586E-1	8.510938E-1	8.530872E-1	7.969625E-1	8.606331E-1	8.249764E-1	8.003652E-1	8.455059E-1	8.338488E-1	8.298625E-1	8.340302E-1	8.339597E-1	8.087508E-1	8.232054E-1	8.184246E-1	8.352806E-1	8.593443E-1	7.962785E-1	8.256488E-1	8.546459E-1	8.253777E-1	8.035391E-1	8.471570E-1	8.403643E-1	8.405455E-1	8.608698E-1	8.412653E-1	8.303825E-1	7.713973E-1	7.669923E-1	8.778404E-1	8.685318E-1	8.651138E-1	7.614205E-1	7.967389E-1	8.003394E-1	8.069671E-1	8.039219E-1	9.097450E-1
2.960050E+2	1.006754E+0	1.039915E+0	8.995922E-1	9.745545E-1	9.818597E-1	1.044100E+0	8.699983E-1	1.028784E+0	1.041503E+0	9.674444E-1	9.512101E-1	1.032798E+0	1.027073E+0	9.901586E-1	9.805002E-1	9.579368E-1	9.588276E-1	9.792734E-1	8.960485E-1	9.985813E-1	9.511907E-1	9.686283E-1	9.228931E-1	9.569474E-1	1.001895E+0	1.049259E+0	9.190549E-1	9.421445E-1	1.050341E+0	1.004322E+0	1.000884E+0	1.023737E+0	1.012358E+0	1.014274E+0	9.053571E-1	1.013486E+0	1.003996E+0	1.036472E+0	8.899426E-1	9.850172E-1	9.606223E-1	1.052996E+0	9.594600E-1	9.979220E-1	1.001518E+0	1.002357E+0	9.352601E-1	9.954818E-1	1.032703E+0	9.940856E-1	9.687400E-1	9.898883E-1	1.002421E+0	9.708551E-1	9.035476E-1	1.001564E+0	9.876301E-1	1.052050E+0	9.311195E-1	1.019628E+0	9.948332E-1	9.906307E-1	9.482361E-1	9.956486E-1	1.009124E+0	9.777810E-1	9.644323E-1	1.023024E+0	9.718637E-1	9.692895E-1	9.414084E-1	9.681997E-1	1.005473E+0	1.013652E+0	9.242114E-1	9.998633E-1	1.060594E+0	9.923254E-1	9.686209E-1	9.894310E-1	9.733589E-1	1.008459E+0	9.088077E-1	9.755530E-1	9.512727E-1	9.877141E-1	9.526374E-1	9.997495E-1	1.051650E+0	9.910318E-1	9.756292E-1	9.492485E-1	9.988362E-1	9.830038E-1	1.040993E+0	9.940131E-1	9.851517E-1	9.631997E-1	9.396769E-1	9.831832E-1	1.017207E+0	1.011816E+0	9.814408E-1	1.020521E+0	1.032416E+0	1.020754E+0	9.168422E-1	1.040359E+0	9.714353E-1	1.009685E+0	9.684055E-1	9.675757E-1	9.973048E-1	1.007270E+0	9.213205E-1	9.823961E-1	1.057767E+0	1.000100E+0	9.251986E-1	9.961400E-1	1.041644E+0	1.023349E+0	9.649118E-1	1.003960E+0	9.633470E-1	1.008691E+0	9.615454E-1	1.045901E+0	9.714335E-1	9.553236E-1	1.009563E+0	1.012230E+0	9.440985E-1	1.043536E+0	9.779225E-1	1.021915E+0	1.017705E+0	9.612341E-1	9.513743E-1	1.008942E+0	9.885543E-1	9.812611E-1	1.047818E+0	9.886838E-1	9.815340E-1	9.495232E-1	1.032621E+0	9.557874E-1	1.042550E+0	1.025337E+0	9.539381E-1	1.024817E+0	9.876813E-1	1.052433E+0	9.888640E-1	9.854628E-1	9.877916E-1	1.007171E+0	1.006427E+0	9.900880E-1	1.003564E+0	9.879945E-1	1.033739E+0	1.051479E+0	9.987218E-1	1.005973E+0	9.471799E-1	9.860542E-1	1.014144E+0	1.080342E+0	1.064983E+0
2.965010E+2	1.008375E+0	9.683144E-1	8.713162E-1	9.660187E-1	9.818603E-1	9.833502E-1	8.799555E-1	1.041780E+0	9.755429E-1	1.004069E+0	9.129982E-1	9.964441E-1	1.004644E+0	1.013778E+0	9.558068E-1	9.913689E-1	9.907030E-1	9.936506E-1	8.986471E-1	9.869726E-1	1.027116E+0	9.618842E-1	8.343500E-1	1.037819E+0	9.662601E-1	1.014440E+0	9.019497E-1	9.894070E-1	1.015018E+0	9.898297E-1	9.785029E-1	9.682387E-1	9.752839E-1	1.030459E+0	9.223932E-1	1.021577E+0	9.428593E-1	9.652925E-1	8.880898E-1	9.636851E-1	1.001528E+0	1.011521E+0	9.013413E-1	9.698700E-1	9.924125E-1	1.032056E+0	9.872661E-1	9.727824E-1	9.874809E-1	9.899912E-1	9.106849E-1	9.776002E-1	9.905361E-1	9.871358E-1	9.304961E-1	9.279259E-1	9.982331E-1	9.924916E-1	8.584866E-1	9.564528E-1	9.760896E-1	9.853137E-1	9.602542E-1	1.019271E+0	1.054868E+0	1.009415E+0	9.345284E-1	1.013551E+0	9.840134E-1	9.913753E-1	9.561337E-1	9.477257E-1	1.003182E+0	9.556605E-1	9.248883E-1	1.039983E+0	1.011270E+0	9.821683E-1	9.634802E-1	9.453773E-1	1.033679E+0	9.479732E-1	9.810881E-1	9.378800E-1	1.014293E+0	1.001867E+0	9.370087E-1	9.944831E-1	1.020500E+0	1.005193E+0	9.485250E-1	9.250799E-1	9.747850E-1	9.962473E-1	1.015816E+0	9.980042E-1	9.433667E-1	9.611232E-1	9.866625E-1	9.565434E-1	1.039284E+0	9.782017E-1	8.972438E-1	9.466443E-1	9.889205E-1	9.687472E-1	9.631890E-1	1.037879E+0	9.325884E-1	9.779294E-1	9.624191E-1	9.984663E-1	1.010243E+0	9.902309E-1	9.157483E-1	1.023149E+0	9.924844E-1	9.833457E-1	9.434429E-1	9.572637E-1	1.005119E+0	9.572137E-1	9.373858E-1	9.432446E-1	9.358580E-1	9.906659E-1	9.710801E-1	9.683798E-1	1.000133E+0	9.618620E-1	1.017758E+0	9.998620E-1	1.010280E+0	1.013976E+0	9.342310E-1	1.006073E+0	1.034399E+0	9.942653E-1	9.447770E-1	9.866550E-1	9.885543E-1	9.640137E-1	1.011606E+0	9.952117E-1	9.551902E-1	9.441972E-1	9.698403E-1	9.714387E-1	1.027999E+0	9.701182E-1	1.026272E+0	9.846374E-1	9.511060E-1	9.635423E-1	9.661028E-1	9.988815E-1	1.012457E+0	9.681137E-1	1.010282E+0	9.720456E-1	9.493407E-1	1.004780E+0	1.008919E+0	1.048310E+0	1.035799E+0	9.801975E-1	1.015146E+0	1.019728E+0	9.979199E-1	1.021349E+0	9.783398E-1
2.970040E+2	8.503351E-1	8.851906E-1	7.597806E-1	8.816213E-1	8.640071E-1	8.692754E-1	7.584734E-1	8.885845E-1	8.554817E-1	8.389003E-1	8.378699E-1	8.636722E-1	8.727928E-1	8.887324E-1	8.529180E-1	8.740279E-1	8.769673E-1	8.254416E-1	8.011926E-1	8.670171E-1	8.776766E-1	8.852419E-1	7.662817E-1	9.074831E-1	8.858921E-1	8.630207E-1	7.614407E-1	8.370261E-1	8.621938E-1	8.319366E-1	8.624799E-1	8.572418E-1	8.952030E-1	8.375909E-1	8.173383E-1	8.540873E-1	8.679360E-1	8.894077E-1	7.108044E-1	8.897864E-1	8.632951E-1	9.416692E-1	7.657293E-1	9.145460E-1	8.732865E-1	8.234608E-1	8.306061E-1	8.964878E-1	9.115982E-1	9.087904E-1	8.273250E-1	8.700835E-1	8.716857E-1	8.755806E-1	7.856495E-1	8.932724E-1	8.528225E-1	9.001001E-1	8.170865E-1	8.464817E-1	8.621831E-1	8.478180E-1	8.805522E-1	8.532945E-1	8.876401E-1	8.444666E-1	7.904443E-1	8.311997E-1	8.388558E-1	8.841017E-1	7.996862E-1	8.863081E-1	8.641993E-1	8.338763E-1	8.064682E-1	9.048869E-1	8.394339E-1	8.873657E-1	8.272545E-1	8.986529E-1	8.421636E-1	9.055654E-1	8.520712E-1	8.192513E-1	8.791561E-1	8.709517E-1	8.204976E-1	9.117223E-1	8.208236E-1	8.572123E-1	8.408200E-1	8.694948E-1	8.382390E-1	8.677788E-1	8.602362E-1	8.443443E-1	9.646533E-1	9.036740E-1	8.310199E-1	8.717821E-1	8.763029E-1	8.785815E-1	8.578619E-1	8.878612E-1	8.608997E-1	8.368994E-1	8.379088E-1	8.849843E-1	9.165918E-1	8.671252E-1	8.426928E-1	8.821342E-1	8.808585E-1	9.070842E-1	8.592260E-1	8.809293E-1	8.646117E-1	8.876113E-1	8.062468E-1	8.753750E-1	8.689791E-1	8.356103E-1	8.652262E-1	8.526111E-1	8.235450E-1	8.986097E-1	8.306100E-1	9.153387E-1	8.805516E-1	8.729446E-1	8.516005E-1	9.083433E-1	8.605673E-1	8.342015E-1	8.794413E-1	8.935974E-1	8.750499E-1	8.311700E-1	8.641406E-1	8.917305E-1	9.108235E-1	8.234740E-1	9.071508E-1	8.705192E-1	8.738347E-1	8.848431E-1	7.992223E-1	8.415405E-1	8.428092E-1	9.053544E-1	8.208721E-1	9.042792E-1	8.718591E-1	8.792897E-1	9.110354E-1	9.292677E-1	8.562422E-1	8.767582E-1	8.727555E-1	8.631262E-1	8.408941E-1	9.152591E-1	8.444892E-1	8.550688E-1	8.299531E-1	9.041282E-1	7.967387E-1	8.768705E-1	8.481528E-1	8.747114E-1	9.747284E-1
2.975040E+2	7.700996E-1	7.691476E-1	6.812354E-1	8.417927E-1	8.016151E-1	7.795004E-1	6.867781E-1	7.818126E-1	7.598775E-1	7.627784E-1	7.232350E-1	7.712051E-1	8.157029E-1	7.893901E-1	7.688429E-1	7.789757E-1	7.654063E-1	7.837489E-1	7.199801E-1	8.631468E-1	7.963280E-1	7.810094E-1	6.888063E-1	7.708655E-1	7.509339E-1	8.014807E-1	7.058480E-1	7.767266E-1	7.670388E-1	7.571851E-1	7.158309E-1	7.489191E-1	7.832387E-1	7.762246E-1	7.591335E-1	7.990661E-1	7.906155E-1	7.829333E-1	6.891833E-1	7.800801E-1	7.807785E-1	7.925051E-1	7.477921E-1	7.353258E-1	7.693349E-1	7.668918E-1	7.599802E-1	7.565098E-1	7.958584E-1	8.173534E-1	7.417320E-1	7.479736E-1	7.990560E-1	7.809103E-1	7.182785E-1	7.965331E-1	8.028385E-1	8.138165E-1	7.553479E-1	7.817463E-1	7.612541E-1	8.007194E-1	7.913617E-1	7.917527E-1	7.886523E-1	7.729136E-1	7.442289E-1	8.035709E-1	8.215912E-1	7.875544E-1	7.101120E-1	7.675672E-1	7.756178E-1	7.874819E-1	7.394764E-1	7.968099E-1	7.901106E-1	7.871467E-1	7.874147E-1	8.018662E-1	7.554540E-1	7.839003E-1	7.898936E-1	8.248618E-1	7.661087E-1	7.765981E-1	7.487453E-1	7.762953E-1	7.369593E-1	7.906557E-1	7.816173E-1	7.889353E-1	7.420365E-1	7.916252E-1	7.892234E-1	7.572029E-1	7.983027E-1	7.776995E-1	7.348455E-1	7.724906E-1	8.094226E-1	8.309101E-1	7.743441E-1	8.092185E-1	7.829383E-1	7.980768E-1	7.358019E-1	8.130826E-1	7.954783E-1	8.259113E-1	7.928066E-1	8.118087E-1	7.951414E-1	7.728206E-1	7.859872E-1	8.260361E-1	7.454875E-1	7.661470E-1	7.215932E-1	7.901776E-1	7.826471E-1	8.036096E-1	7.551253E-1	7.610982E-1	7.991973E-1	8.194285E-1	7.460743E-1	7.779773E-1	8.056144E-1	7.748738E-1	7.957177E-1	8.044572E-1	7.821765E-1	8.004186E-1	8.156369E-1	8.128043E-1	8.044814E-1	7.995136E-1	8.311528E-1	8.611890E-1	7.855498E-1	8.075037E-1	7.546433E-1	7.902198E-1	7.932541E-1	8.057042E-1	7.667228E-1	7.672019E-1	8.421476E-1	8.133219E-1	7.724222E-1	8.002858E-1	7.903261E-1	7.540696E-1	7.957611E-1	7.808144E-1	7.725283E-1	8.026139E-1	8.142742E-1	8.384014E-1	7.744521E-1	8.096536E-1	8.243223E-1	7.948786E-1	7.679442E-1	7.840527E-1	7.539732E-1	8.227883E-1	8.556413E-1	7.381877E-1	8.447614E-1
2.980020E+2	9.046356E-1	9.312792E-1	9.804944E-1	9.480020E-1	9.035228E-1	9.448752E-1	9.622721E-1	8.922987E-1	8.932794E-1	9.473372E-1	9.466760E-1	9.679927E-1	9.169706E-1	8.873425E-1	9.152390E-1	9.304041E-1	9.494107E-1	9.462070E-1	8.921501E-1	8.886868E-1	9.126260E-1	9.300001E-1	9.101651E-1	9.365331E-1	9.564041E-1	9.723343E-1	9.282186E-1	9.845172E-1	9.422102E-1	9.410124E-1	9.302091E-1	9.314628E-1	9.359846E-1	9.427915E-1	8.904502E-1	9.455189E-1	9.398619E-1	9.452920E-1	8.263179E-1	9.111184E-1	9.556858E-1	9.518560E-1	8.747929E-1	9.612989E-1	9.704082E-1	8.630581E-1	8.973793E-1	9.393635E-1	8.970341E-1	9.238024E-1	8.749594E-1	9.829765E-1	9.066809E-1	9.485437E-1	8.745782E-1	9.452527E-1	9.232557E-1	9.367513E-1	8.156333E-1	9.759516E-1	9.414853E-1	9.351766E-1	8.615752E-1	9.794866E-1	9.341336E-1	9.265644E-1	8.251062E-1	9.054035E-1	9.494827E-1	9.150218E-1	8.352699E-1	9.395377E-1	1.006236E+0	9.621845E-1	8.484229E-1	9.237185E-1	9.555827E-1	8.968467E-1	9.287813E-1	9.467121E-1	9.545082E-1	8.916599E-1	9.329007E-1	9.002074E-1	9.870057E-1	9.806379E-1	8.993556E-1	9.312831E-1	9.318434E-1	9.103149E-1	8.829035E-1	9.041343E-1	1.000388E+0	9.234043E-1	9.183361E-1	9.687355E-1	9.394247E-1	9.265148E-1	9.367396E-1	9.428200E-1	8.938347E-1	9.592558E-1	8.890958E-1	9.363179E-1	9.101392E-1	9.226003E-1	9.349463E-1	9.734156E-1	9.356350E-1	9.157706E-1	9.484511E-1	9.103955E-1	9.843662E-1	9.622889E-1	8.918648E-1	9.058787E-1	9.514303E-1	9.288961E-1	8.799534E-1	9.729799E-1	9.071648E-1	9.401467E-1	9.135812E-1	9.353243E-1	9.162227E-1	9.101967E-1	9.087906E-1	9.302992E-1	9.945525E-1	9.089034E-1	9.276008E-1	9.503925E-1	9.203242E-1	9.566652E-1	9.252143E-1	9.387453E-1	9.190607E-1	8.979219E-1	9.213185E-1	9.313512E-1	9.447839E-1	9.512368E-1	9.343080E-1	9.260107E-1	9.582893E-1	9.525674E-1	9.233076E-1	9.479625E-1	9.327582E-1	9.360317E-1	9.102651E-1	9.413071E-1	9.373894E-1	9.465365E-1	9.220484E-1	9.435257E-1	9.048255E-1	9.456058E-1	9.691527E-1	9.252706E-1	9.279567E-1	9.551237E-1	9.910805E-1	9.310980E-1	9.578083E-1	9.588224E-1	9.387805E-1	9.176872E-1	8.993233E-1	9.775256E-1	8.700337E-1
2.985020E+2	1.009185E+0	1.109048E+0	1.120306E+0	1.091194E+0	1.066436E+0	1.046125E+0	1.061848E+0	1.073348E+0	1.077076E+0	1.024895E+0	1.111181E+0	1.032798E+0	1.071249E+0	1.114510E+0	1.055168E+0	1.073966E+0	1.031271E+0	1.023841E+0	1.100054E+0	1.066685E+0	1.102439E+0	1.060598E+0	1.112155E+0	1.115549E+0	1.075440E+0	1.067073E+0	1.110268E+0	1.041558E+0	1.078454E+0	1.068395E+0	1.069791E+0	1.068537E+0	1.002719E+0	1.057433E+0	1.055130E+0	1.074171E+0	1.053745E+0	1.051178E+0	1.062287E+0	1.029204E+0	1.005760E+0	1.022435E+0	1.081438E+0	1.050130E+0	1.008346E+0	1.092867E+0	1.068164E+0	1.074928E+0	1.077160E+0	1.048676E+0	1.033493E+0	1.095102E+0	1.114668E+0	1.068541E+0	9.978667E-1	1.063651E+0	1.053519E+0	1.036015E+0	9.935845E-1	1.061745E+0	1.052507E+0	1.047604E+0	1.039956E+0	9.844590E-1	1.048869E+0	1.037282E+0	1.025600E+0	1.083019E+0	1.043483E+0	1.069623E+0	9.996935E-1	1.068925E+0	1.030673E+0	1.055697E+0	9.925568E-1	1.102209E+0	1.034341E+0	1.028215E+0	1.023882E+0	1.111582E+0	1.078918E+0	1.066162E+0	9.803108E-1	1.067731E+0	1.033784E+0	1.065556E+0	1.020129E+0	1.127652E+0	1.087591E+0	1.080953E+0	1.009867E+0	1.054780E+0	1.070989E+0	1.093592E+0	1.053905E+0	1.085145E+0	1.074240E+0	1.082252E+0	1.004283E+0	1.044533E+0	1.037336E+0	1.076600E+0	9.923044E-1	1.071361E+0	1.026671E+0	1.047856E+0	9.899826E-1	1.024656E+0	1.024756E+0	9.968469E-1	1.043567E+0	1.030014E+0	1.040972E+0	1.029079E+0	1.034364E+0	1.056417E+0	1.026136E+0	1.055147E+0	1.023717E+0	1.058177E+0	1.031683E+0	1.038282E+0	1.009547E+0	1.067315E+0	1.062309E+0	1.087872E+0	1.074049E+0	1.041141E+0	1.003322E+0	1.091315E+0	1.093759E+0	1.019650E+0	1.074536E+0	1.027247E+0	1.034099E+0	1.070232E+0	1.047299E+0	1.019040E+0	1.037142E+0	1.037007E+0	1.043645E+0	1.072612E+0	1.081941E+0	1.054621E+0	1.050492E+0	1.043121E+0	1.070291E+0	1.076296E+0	1.050487E+0	1.068967E+0	1.024907E+0	1.027968E+0	1.089026E+0	1.097264E+0	1.073301E+0	1.065979E+0	1.018437E+0	1.053512E+0	1.010925E+0	1.039537E+0	1.053969E+0	1.054435E+0	1.005042E+0	1.041975E+0	1.049863E+0	1.074497E+0	1.080821E+0	1.094217E+0	1.079044E+0	1.112366E+0	1.039711E+0
2.990040E+2	1.118598E+0	1.104110E+0	1.112451E+0	1.110160E+0	1.076836E+0	1.099450E+0	1.134206E+0	1.114201E+0	1.094863E+0	1.134769E+0	1.083331E+0	1.110248E+0	1.115426E+0	1.120762E+0	1.126897E+0	1.127719E+0	1.194268E+0	1.103633E+0	1.124742E+0	1.099189E+0	1.118105E+0	1.128043E+0	1.143699E+0	1.106127E+0	1.136854E+0	1.097842E+0	1.105382E+0	1.088005E+0	1.108011E+0	1.123314E+0	1.153422E+0	1.142758E+0	1.111717E+0	1.124869E+0	1.172251E+0	1.070124E+0	1.109487E+0	1.090591E+0	1.194479E+0	1.110721E+0	1.103792E+0	1.123575E+0	1.100811E+0	1.155324E+0	1.094845E+0	1.157919E+0	1.149705E+0	1.144287E+0	1.117784E+0	1.117595E+0	1.139926E+0	1.134268E+0	1.104103E+0	1.115575E+0	1.122502E+0	1.098304E+0	1.117893E+0	1.088701E+0	1.207125E+0	1.103082E+0	1.115227E+0	1.119772E+0	1.163937E+0	1.087650E+0	1.102111E+0	1.166078E+0	1.156090E+0	1.154854E+0	1.127252E+0	1.095495E+0	1.158595E+0	1.098405E+0	1.087946E+0	1.072370E+0	1.196238E+0	1.125953E+0	1.123441E+0	1.152134E+0	1.125409E+0	1.095563E+0	1.103800E+0	1.131514E+0	1.058810E+0	1.131855E+0	1.110449E+0	1.108015E+0	1.052098E+0	1.083262E+0	1.121137E+0	1.112107E+0	1.095461E+0	1.100699E+0	1.105901E+0	1.121405E+0	1.108777E+0	1.069181E+0	1.135736E+0	1.122398E+0	1.075496E+0	1.135752E+0	1.108762E+0	1.052153E+0	1.052057E+0	1.117434E+0	1.116943E+0	1.144545E+0	1.085571E+0	1.093252E+0	1.142822E+0	1.110354E+0	1.045562E+0	1.087852E+0	1.062805E+0	1.096551E+0	1.075761E+0	1.103824E+0	1.184967E+0	1.111392E+0	1.052179E+0	1.139238E+0	1.127147E+0	1.114373E+0	1.098074E+0	1.099872E+0	1.086657E+0	1.130359E+0	1.110914E+0	1.100301E+0	1.088623E+0	1.090007E+0	1.090033E+0	1.112819E+0	1.075821E+0	1.102053E+0	1.115935E+0	1.103499E+0	1.145943E+0	1.100931E+0	1.132439E+0	1.112122E+0	1.151561E+0	1.110941E+0	1.126509E+0	1.093792E+0	1.103179E+0	1.103997E+0	1.096142E+0	1.101336E+0	1.065037E+0	1.100327E+0	1.077451E+0	1.109901E+0	1.102741E+0	1.112723E+0	1.106341E+0	1.067657E+0	1.168673E+0	1.093231E+0	1.092541E+0	1.099008E+0	1.088335E+0	1.109685E+0	1.093462E+0	1.143348E+0	1.103562E+0	1.134220E+0	1.152605E+0	1.117688E+0	1.102757E+0	1.038205E+0	1.083035E+0
2.995060E+2	1.079696E+0	1.007818E+0	1.026837E+0	1.029556E+0	1.042866E+0	1.068399E+0	1.085082E+0	1.012998E+0	1.089675E+0	1.037822E+0	1.098876E+0	1.051765E+0	1.027752E+0	1.015168E+0	1.059284E+0	1.014968E+0	1.008089E+0	1.059784E+0	1.076665E+0	1.014833E+0	1.036155E+0	1.082058E+0	1.063456E+0	9.969904E-1	1.031465E+0	1.033064E+0	1.101105E+0	1.043188E+0	1.025831E+0	1.072972E+0	1.062723E+0	1.035104E+0	1.080575E+0	1.060131E+0	1.006151E+0	1.032904E+0	1.046552E+0	1.062356E+0	1.106763E+0	1.058916E+0	1.031855E+0	1.055906E+0	1.102247E+0	1.069610E+0	1.059184E+0	1.063875E+0	1.030284E+0	1.050338E+0	1.084825E+0	1.071876E+0	1.103457E+0	9.960326E-1	1.056564E+0	1.061908E+0	1.117786E+0	1.021778E+0	1.013379E+0	1.045178E+0	1.098175E+0	1.039907E+0	1.066205E+0	1.026334E+0	1.053873E+0	1.079569E+0	1.081115E+0	1.057619E+0	1.073175E+0	1.029339E+0	1.024299E+0	1.080982E+0	1.138349E+0	1.046814E+0	1.045182E+0	1.045548E+0	1.105562E+0	1.042439E+0	1.039910E+0	1.097962E+0	1.048943E+0	9.854259E-1	1.025385E+0	1.052258E+0	1.097669E+0	1.022844E+0	1.023389E+0	1.021327E+0	1.143033E+0	1.014045E+0	1.048456E+0	1.046967E+0	1.116858E+0	1.079753E+0	1.041507E+0	9.975713E-1	1.069398E+0	1.073837E+0	1.016687E+0	1.031725E+0	1.087243E+0	1.050184E+0	1.059413E+0	1.055820E+0	1.097550E+0	1.033231E+0	1.057035E+0	1.029544E+0	1.092813E+0	1.036226E+0	1.021709E+0	1.069140E+0	1.114073E+0	1.066820E+0	1.036929E+0	1.070653E+0	1.011277E+0	1.060576E+0	1.019406E+0	1.052156E+0	1.058016E+0	1.001103E+0	1.014250E+0	1.073839E+0	1.040048E+0	1.054996E+0	1.048171E+0	1.020922E+0	1.025742E+0	1.061541E+0	1.028832E+0	1.056009E+0	1.014778E+0	1.043561E+0	1.049475E+0	1.081542E+0	1.004276E+0	1.036964E+0	1.010877E+0	1.089233E+0	1.012218E+0	1.014721E+0	1.020250E+0	1.005536E+0	1.044336E+0	1.054621E+0	1.028023E+0	1.021814E+0	1.036315E+0	1.037951E+0	1.056439E+0	1.016475E+0	1.041968E+0	1.057118E+0	1.044830E+0	1.055525E+0	1.025576E+0	1.071851E+0	1.049082E+0	1.058807E+0	1.030205E+0	1.009467E+0	1.105901E+0	1.012472E+0	1.018227E+0	1.011088E+0	1.075434E+0	1.021060E+0	1.028892E+0	1.028912E+0	1.015394E+0	1.046633E+0	1.068594E+0
3.000060E+2	1.117787E+0	1.078597E+0	1.078677E+0	9.792954E-1	1.108725E+0	1.061650E+0	1.069814E+0	1.125342E+0	1.085229E+0	1.092399E+0	1.036701E+0	1.065991E+0	1.052899E+0	1.072828E+0	1.074570E+0	1.073967E+0	1.051555E+0	1.082786E+0	1.086410E+0	1.067459E+0	1.034347E+0	1.018292E+0	1.081718E+0	1.073935E+0	1.048903E+0	1.028205E+0	1.049178E+0	1.066005E+0	1.078455E+0	1.037122E+0	1.068024E+0	1.073218E+0	1.085766E+0	1.038550E+0	1.116884E+0	1.078216E+0	1.059738E+0	1.067650E+0	1.120970E+0	1.109960E+0	1.122129E+0	1.053723E+0	1.092919E+0	1.028311E+0	1.097881E+0	1.055389E+0	1.094488E+0	1.034574E+0	1.027338E+0	1.020698E+0	1.106433E+0	1.043647E+0	1.018928E+0	1.024522E+0	1.168988E+0	1.074481E+0	1.089115E+0	1.079539E+0	1.130134E+0	1.037568E+0	1.063321E+0	1.070394E+0	1.089296E+0	1.077082E+0	1.045119E+0	1.039542E+0	1.175800E+0	1.023814E+0	1.033891E+0	1.051324E+0	1.157981E+0	1.078751E+0	1.054345E+0	1.076718E+0	1.117743E+0	1.008870E+0	1.056615E+0	1.037695E+0	1.085570E+0	1.058851E+0	1.081935E+0	1.074506E+0	1.140416E+0	1.052501E+0	1.079263E+0	1.047865E+0	1.136639E+0	1.067462E+0	1.074014E+0	1.059003E+0	1.113293E+0	1.071698E+0	1.039179E+0	1.072402E+0	1.060360E+0	1.045899E+0	1.035609E+0	1.059411E+0	1.161393E+0	1.054220E+0	1.091231E+0	1.025261E+0	1.194648E+0	1.032437E+0	1.106274E+0	1.057378E+0	1.160885E+0	1.059367E+0	1.079599E+0	1.081977E+0	1.055540E+0	1.093110E+0	1.079787E+0	1.068607E+0	1.200746E+0	1.047269E+0	1.072573E+0	1.086261E+0	1.264541E+0	1.038324E+0	1.137108E+0	1.029749E+0	1.183625E+0	1.081394E+0	1.087442E+0	1.031222E+0	1.134431E+0	1.088741E+0	1.079056E+0	1.078892E+0	1.078111E+0	1.069120E+0	1.097667E+0	1.032074E+0	1.104838E+0	1.037756E+0	1.072339E+0	1.093361E+0	1.065730E+0	1.043611E+0	1.054210E+0	1.052170E+0	1.058263E+0	1.080735E+0	1.066763E+0	1.072797E+0	1.107221E+0	1.069253E+0	1.053132E+0	1.064877E+0	1.172986E+0	1.063420E+0	1.035686E+0	1.033882E+0	1.076972E+0	1.070173E+0	1.086455E+0	1.046230E+0	1.082902E+0	1.088316E+0	1.049387E+0	1.058631E+0	1.067867E+0	1.077613E+0	1.045389E+0	1.027347E+0	1.044929E+0	1.018708E+0	1.047841E+0	1.087083E+0	1.093864E+0
