Photon Energy (eV)	#1	#2	#3	#4	#5	#6	#7	#8	#9	#10	#11	#12	#13	#14	#15	#16	#17	#18	#19	#20	#21	#22	#23	#24	#25	#26	#27	#28	#29	#30	#31	#32	#33	#34	#35	#36	#37	#38	#39	#40	#41	#42	#43	#44	#45	#46	#47	#48	#49	#50	#51	#52	#53	#54	#55	#56	#57	#58	#59	#60	#61	#62	#63	#64	#65	#66	#67	#68	#69	#70	#71	#72	#73	#74	#75	#76	#77	#78	#79	#80	#81	#82	#83	#84	#85	#86	#87	#88	#89	#90	#91	#92	#93	#94	#95	#96	#97	#98	#99	#100	#101	#102	#103	#104	#105	#106	#107	#108	#109	#110	#111	#112	#113	#114	#115	#116	#117	#118	#119	#120	#121	#122	#123	#124	#125	#126	#127	#128	#129	#130	#131	#132	#133	#134	#135	#136	#137	#138	#139	#140	#141	#142	#143	#144	#145	#146	#147	#148	#149	#150	#151	#152	#153	#154	#155	#156	#157	#158	#159	#160	#161	#162	#163	#164	#165	#166	#167	#168	#169	#170	
2.790040E+2	-6.988496E-3	-5.614429E-3	1.274408E-3	-2.008373E-3	-2.258034E-3	-1.997705E-3	8.292021E-3	-1.367706E-3	9.417282E-4	-7.134865E-3	8.712402E-3	-3.461636E-3	-9.314941E-3	-3.046653E-3	-5.439783E-3	9.137196E-4	-6.594560E-4	-1.248879E-3	-4.390348E-3	5.331621E-3	-3.076557E-3	-3.715207E-4	-7.947108E-3	-5.986468E-3	-1.120522E-2	-5.352706E-3	-2.534147E-3	-3.801523E-3	-1.325219E-4	-3.913982E-4	-5.303287E-3	-2.573407E-3	-1.288067E-2	-1.688224E-3	1.000606E-3	-8.568146E-4	-3.007000E-3	2.624831E-4	1.149195E-3	-3.826815E-3	-4.609038E-3	3.339021E-3	-4.647755E-3	-1.314666E-3	-9.064111E-4	1.041797E-3	-2.550189E-3	-1.769352E-3	-4.122771E-3	-8.243031E-3	1.937104E-4	1.925844E-3	-6.691562E-4	-6.131755E-3	-6.496671E-3	-1.799775E-4	-5.284695E-3	1.925293E-3	4.307962E-3	-1.099351E-3	-5.410391E-3	-1.816367E-3	-4.525795E-3	-1.198534E-3	9.432777E-4	3.325305E-3	-4.402926E-3	-3.378766E-3	-6.136009E-3	-7.794366E-4	2.667379E-4	1.481678E-3	2.497491E-3	-2.932690E-6	-5.057972E-3	4.878463E-3	-5.736231E-3	2.340853E-3	-4.368646E-3	-1.524449E-3	-3.055952E-3	-1.153377E-3	7.628322E-5	-2.084621E-3	-2.458045E-3	-2.523977E-3	4.166511E-3	3.130569E-4	-8.319294E-3	-6.173237E-3	-3.167539E-3	9.762201E-4	6.018602E-3	-3.737805E-3	-1.012804E-3	-8.086359E-3	-1.918992E-4	-1.401666E-3	-5.853086E-3	-6.070351E-3	-2.681157E-3	-2.026351E-3	-2.355057E-3	-4.340740E-3	-1.477483E-3	-3.032459E-3	-3.227391E-3	-5.655123E-3	-6.935985E-3	-5.201757E-3	-1.141293E-3	-7.918482E-3	-2.665566E-3	1.332003E-4	-2.343505E-3	-5.677191E-3	-8.926422E-3	-4.033419E-3	-4.883142E-3	7.905776E-4	-9.288509E-3	-1.023744E-2	-1.216245E-2	-5.552362E-4	2.046860E-3	-8.558894E-4	-3.763958E-3	-4.003257E-3	-6.235926E-3	-7.617029E-3	-3.294141E-3	-7.584468E-4	-7.807759E-3	-6.669827E-3	-1.952420E-4	2.605725E-3	-4.903798E-3	-5.234641E-3	-2.445969E-3	7.504857E-3	1.153330E-3	-7.491244E-3	-3.649398E-3	-2.750413E-3	-8.537415E-3	3.320643E-3	6.583509E-3	1.106043E-4	-1.025659E-3	-4.073921E-3	2.871354E-3	-1.081752E-3	-4.145780E-3	-3.596187E-3	1.109960E-3	-3.444736E-3	-1.728968E-3	-5.989180E-3	-5.387120E-3	4.278215E-3	-1.643609E-3	-1.457415E-2	3.145554E-5	2.309168E-3	-4.287212E-3	-5.316138E-3	-6.577151E-3	-8.647292E-3	-1.064853E-2	-1.737501E-2
2.795010E+2	-3.913154E-3	-1.250160E-4	-7.259315E-3	-3.109550E-3	-7.586280E-3	-3.724434E-3	-8.819502E-3	-2.578858E-3	-5.975507E-3	3.959658E-3	-3.097904E-3	-5.399305E-3	4.768869E-4	-5.213958E-3	1.258877E-3	-1.594134E-3	4.546902E-4	-6.654746E-3	-4.714463E-3	-8.967440E-3	-6.584183E-3	-2.728917E-3	1.281137E-3	-1.311272E-3	4.484675E-3	-1.998596E-3	-1.379557E-3	-2.523028E-3	3.281445E-3	-6.892335E-5	-4.278280E-3	-8.918428E-3	-7.381426E-5	1.443959E-3	-9.019311E-3	-2.763938E-3	-4.021214E-3	-3.232371E-3	-3.314571E-3	-2.059568E-3	-9.950501E-3	-9.993403E-3	-8.073168E-3	-2.458494E-3	-1.957449E-3	6.519628E-3	-5.453076E-3	-6.107548E-3	-4.462888E-3	3.003626E-3	5.387638E-3	-5.756241E-3	2.432791E-3	5.920542E-3	3.569910E-4	8.305467E-4	-7.787890E-3	-7.093129E-4	-8.758601E-4	-2.294740E-3	-4.384400E-3	-1.473126E-3	2.369876E-3	-7.354167E-3	-3.425173E-3	3.655616E-3	-3.220866E-3	-2.168180E-3	-6.408888E-3	-5.525542E-3	-2.876944E-3	2.579501E-3	-4.685584E-3	-3.658149E-3	-3.083890E-3	4.420662E-3	-8.873292E-4	-2.333669E-3	-1.318247E-3	-1.844671E-3	-1.158958E-3	2.104234E-3	-8.078746E-3	1.359801E-3	-6.204480E-3	4.670777E-3	-7.346412E-3	-4.659717E-3	-1.818610E-3	-2.999396E-3	-4.961297E-3	-1.745065E-3	-3.474989E-3	-1.544893E-3	-6.587192E-3	-4.596972E-3	-3.775324E-3	-7.786895E-3	-1.971408E-3	-4.103735E-3	-2.985461E-3	-7.495607E-3	4.005213E-3	8.988890E-4	1.320942E-3	-3.341709E-3	-5.079713E-3	-2.953886E-4	-5.822496E-3	-4.223413E-3	-4.175688E-3	-2.846746E-3	-4.694899E-3	3.590582E-3	-1.088498E-3	3.383377E-4	-5.000202E-3	2.118227E-3	1.147777E-4	-4.655304E-3	1.943325E-3	4.320741E-4	-8.977359E-3	-4.284576E-3	-5.360887E-3	-3.027860E-3	-7.956270E-3	-4.284360E-3	-2.167928E-5	-2.393556E-3	-4.398667E-3	-4.052431E-3	1.784299E-3	-5.040191E-3	1.970822E-4	-4.669648E-3	-8.388257E-4	3.610282E-4	-3.963915E-4	-1.089774E-2	-6.998246E-3	-4.975458E-4	-1.870832E-3	-1.133100E-2	-4.090511E-3	-6.674461E-3	6.139747E-3	-5.689918E-3	-2.045340E-3	7.052545E-3	-1.067144E-2	-6.874861E-4	7.717459E-4	-4.577541E-3	-3.831024E-3	1.926317E-3	-4.115547E-3	-5.635412E-3	9.934903E-5	-7.147898E-3	1.096861E-3	-3.113126E-3	-6.567507E-3	-1.171981E-3	-7.151776E-3	8.604234E-3	4.470557E-3	5.083023E-3	7.623033E-4	1.232486E-2
2.800030E+2	-4.708667E-3	-3.396721E-3	4.533202E-3	-1.436730E-3	-4.668000E-3	4.216119E-4	-9.562188E-3	-8.324477E-6	4.138351E-3	2.008491E-3	-7.739088E-4	-2.997132E-3	-5.736053E-3	5.296743E-3	1.963422E-3	-1.533697E-3	-2.489905E-3	-6.603315E-3	-7.700433E-3	-6.610342E-3	6.245538E-3	-7.087805E-3	-2.722505E-3	1.586529E-3	-1.266332E-3	-2.681230E-3	8.301950E-3	-1.659826E-3	-5.551130E-3	-2.071118E-3	-2.926857E-3	4.755579E-4	-4.639543E-3	-4.825364E-3	-4.147577E-3	-2.711336E-3	1.182286E-3	-7.547994E-3	-1.188533E-3	1.437910E-3	-1.979049E-3	-5.889266E-3	3.857731E-3	-1.644949E-3	-3.311044E-3	-1.872367E-3	-1.425072E-3	-6.728515E-3	-4.721233E-4	-3.436799E-3	6.267857E-3	7.454449E-4	-9.254195E-4	-3.755970E-3	-5.984151E-3	-5.953751E-3	7.040914E-3	-6.585451E-3	4.220806E-5	-6.611969E-4	-1.719134E-3	-1.255775E-2	-4.081469E-3	1.734112E-3	-1.780654E-3	-7.701188E-3	-1.640227E-3	9.489796E-4	-7.031404E-3	-3.573306E-3	-2.108071E-3	-3.517814E-4	-6.136231E-3	-9.581971E-3	5.374610E-3	5.295771E-3	6.409554E-4	-2.877464E-3	-1.904048E-3	-1.081365E-3	-2.571127E-3	-6.450888E-3	-2.579379E-3	-6.113918E-3	-2.742889E-3	-9.091220E-3	-5.813064E-3	2.794800E-5	-2.562419E-4	5.352664E-3	-4.268096E-4	-4.013933E-3	-5.514086E-3	-3.361940E-3	6.953713E-4	1.748733E-3	-5.352757E-3	-2.460291E-3	-1.909630E-3	3.484194E-3	-1.732848E-4	-1.655340E-3	-5.602021E-3	3.062016E-3	2.971278E-3	2.349376E-3	1.209644E-3	-4.263934E-3	3.407635E-3	-3.519927E-3	-2.758976E-3	3.211593E-3	4.653843E-4	-4.820154E-3	-2.612035E-3	2.788085E-3	6.824600E-4	-3.858187E-4	-5.680464E-4	2.678523E-3	-2.586542E-3	-2.896004E-3	4.710794E-3	-1.010714E-2	-2.481234E-3	-1.119293E-3	-2.705480E-3	-2.287343E-3	1.305957E-2	-1.637256E-3	-4.981597E-4	4.877132E-3	3.847932E-3	-3.092224E-3	-4.079165E-3	2.336828E-4	-6.624192E-3	4.440505E-4	-1.921869E-3	-2.243700E-4	-5.521606E-3	-1.082694E-3	-3.199686E-3	-3.008563E-3	1.482200E-3	-3.413880E-3	-6.030844E-4	-1.840285E-4	-7.362081E-3	-3.640501E-3	3.554536E-4	-6.603242E-3	8.481603E-4	-9.028350E-4	-6.074022E-3	3.724026E-4	-1.995457E-3	-2.420924E-3	-1.095151E-3	-1.710336E-4	-8.776753E-3	-5.957824E-3	-2.904095E-4	5.808979E-3	8.349663E-3	-1.261636E-4	1.721377E-3	1.413388E-2	8.590169E-3	-1.001284E-2
2.805030E+2	6.385616E-3	-2.504915E-3	-1.977985E-3	-3.748963E-3	-2.448503E-3	-3.606436E-3	2.317611E-3	6.846975E-3	-6.645053E-3	-7.343827E-3	-5.393555E-3	2.825518E-4	-1.902213E-3	-2.021339E-3	-3.364388E-3	-2.129035E-3	-3.210031E-3	-5.820474E-3	-7.730546E-5	-4.240639E-3	-5.230549E-3	-5.869428E-5	-1.299081E-3	9.379557E-4	6.809822E-3	-3.366145E-3	-5.397538E-4	9.819250E-3	-5.512562E-3	-2.010719E-3	-3.519967E-3	7.237144E-3	2.302543E-3	-3.366871E-3	-4.924679E-3	-1.168378E-3	-1.312606E-3	6.656320E-4	9.397137E-4	-5.643378E-4	2.414944E-3	2.333822E-3	-4.429282E-5	7.688328E-4	-3.267653E-3	-5.080912E-3	6.167886E-4	7.218781E-4	-5.188642E-3	-4.822801E-3	-4.082591E-3	-5.677149E-3	-1.551755E-3	8.811332E-4	1.939410E-3	4.413004E-3	4.585806E-4	6.867967E-3	-5.448857E-3	-6.977755E-3	2.272606E-3	7.572057E-4	-5.336518E-3	3.760287E-3	-3.289512E-3	-2.301058E-3	-4.590300E-3	3.315820E-3	3.876847E-3	2.182354E-3	7.347788E-4	-2.543628E-3	-2.302285E-3	1.123199E-3	-2.153629E-3	-6.679875E-3	-2.965007E-3	4.587329E-3	-3.174145E-3	-3.818088E-3	-2.510782E-3	4.416025E-3	-4.066109E-3	-7.687475E-4	7.552931E-3	-2.083077E-3	-7.232269E-3	1.429653E-3	-1.913037E-4	-7.917140E-4	4.276616E-4	-1.610159E-3	-5.460785E-3	5.157852E-4	-5.266621E-4	-5.457126E-5	5.312950E-3	-6.919926E-3	4.024865E-3	4.317066E-3	5.845675E-4	3.565779E-4	-7.041605E-3	-1.736418E-3	-8.015706E-3	-1.793716E-3	-2.631170E-3	1.453414E-3	-5.696747E-3	-8.471797E-4	-6.752746E-3	-4.713706E-3	-3.727195E-3	1.445058E-3	-1.539396E-4	-1.098624E-3	7.801518E-3	-6.178232E-3	-5.065436E-3	-5.260121E-3	5.942106E-3	6.741380E-3	8.212568E-3	5.555405E-5	-7.365103E-3	-2.878512E-3	-5.237954E-3	-2.865582E-3	-4.771072E-3	-8.801334E-4	4.193061E-3	5.707169E-3	-2.661476E-3	2.010103E-3	3.020960E-4	4.467758E-3	-6.562557E-3	-1.700963E-3	5.537212E-4	1.479353E-3	8.061394E-3	9.689088E-4	-2.430647E-3	3.312861E-3	-1.596909E-3	-6.576616E-3	-3.582652E-3	-7.098942E-3	-5.447894E-4	4.904369E-4	4.271435E-4	5.507336E-3	-2.081104E-3	2.064166E-3	1.260805E-4	4.637890E-4	1.503208E-3	2.079259E-3	-3.499466E-4	-7.692398E-3	1.239232E-3	5.816427E-3	-4.887249E-3	-2.507640E-4	-1.872543E-3	-7.553575E-3	-8.634662E-3	-1.139583E-2	-2.974468E-3	-6.211603E-3
2.810080E+2	4.941034E-4	-5.800069E-3	-4.043254E-3	3.712973E-3	-2.389762E-3	1.946517E-3	1.959391E-3	-6.524935E-3	-7.796796E-4	-5.253685E-3	-1.773647E-3	-2.786334E-3	6.370275E-3	3.615412E-3	5.612227E-3	-4.866022E-3	-9.024384E-4	3.685204E-3	8.856308E-3	5.803049E-4	5.963392E-4	5.758062E-3	-1.189295E-3	4.864290E-3	-4.030200E-3	-1.039436E-3	-4.715431E-3	-1.209950E-2	9.046507E-4	-6.088067E-3	1.911728E-3	-6.736699E-4	-4.560362E-3	-4.904811E-4	1.976475E-3	4.223528E-3	8.450162E-3	2.004294E-3	-2.324072E-3	1.595888E-3	3.938538E-3	-7.168021E-3	7.563314E-3	-6.284716E-3	-3.947064E-3	-3.061696E-3	3.841955E-3	2.821942E-3	1.236686E-3	6.150876E-3	7.766665E-4	-2.389030E-3	-6.318413E-3	-1.005602E-3	-1.581142E-3	-7.918599E-3	2.754070E-3	-4.994087E-3	-1.424427E-3	1.022632E-3	1.033843E-3	-3.375332E-3	6.586681E-3	-1.984019E-3	-8.769224E-3	-2.237894E-3	4.540965E-3	-8.125655E-3	4.638799E-3	1.628113E-3	1.184126E-4	-2.478162E-3	-2.240014E-3	1.192933E-3	-4.389174E-3	-3.185911E-3	-2.169760E-3	-2.737829E-3	2.977040E-4	1.164529E-3	-7.639704E-3	3.773403E-3	4.590348E-3	1.570449E-3	1.340178E-4	6.235194E-3	-4.200246E-3	-9.796582E-3	5.153642E-3	-7.178334E-4	-1.760180E-3	3.942791E-3	-1.186096E-3	5.055937E-3	2.090710E-4	-6.016651E-4	-1.162800E-3	9.788240E-3	2.425137E-3	5.156937E-3	-7.243582E-4	3.673674E-3	-2.419454E-4	-8.658793E-3	-4.002654E-3	-1.008713E-3	3.702867E-3	7.171601E-4	-2.085525E-3	5.261683E-4	-3.300923E-3	2.042905E-3	-2.511662E-4	7.499830E-4	-8.888144E-3	-1.028528E-3	1.559038E-3	-4.789881E-3	5.691037E-3	-3.737109E-3	1.426143E-3	2.720837E-3	-7.113769E-3	7.741407E-3	4.907688E-4	3.347021E-3	2.663950E-3	4.454921E-4	2.642713E-3	3.331981E-3	5.056071E-3	-8.319382E-3	-5.897430E-3	-4.349753E-4	3.661067E-4	-1.007156E-3	1.429704E-4	-8.793424E-4	-9.819498E-3	-2.542087E-3	1.024982E-3	3.037190E-3	1.167367E-3	4.819082E-3	4.806647E-3	-4.910405E-3	-2.757648E-3	-6.229095E-3	-4.639038E-4	5.748921E-4	-4.641540E-3	4.129731E-3	2.436779E-4	6.998893E-4	2.529684E-3	-1.877700E-3	4.356736E-3	4.745324E-3	-3.489137E-3	-1.316305E-3	2.857396E-3	5.187777E-3	3.749977E-3	2.235982E-3	-8.302793E-3	-4.752758E-3	3.793508E-3	-3.503151E-3	4.876366E-3	1.649130E-2
2.815020E+2	-3.030449E-4	4.322624E-3	-7.931985E-4	3.768330E-3	6.360926E-3	7.516465E-3	-8.397519E-3	-2.225957E-3	3.660168E-3	9.715000E-3	-5.015914E-3	-1.940254E-3	7.082035E-3	-2.518673E-3	3.040530E-4	5.116584E-3	2.215528E-3	6.669978E-3	4.008913E-3	2.204673E-3	5.171508E-3	1.395419E-3	6.118076E-3	-5.887798E-3	1.890087E-3	4.977283E-3	3.002581E-3	7.757713E-3	2.910811E-3	5.773562E-3	1.335348E-3	7.489059E-3	4.724176E-3	-4.046457E-4	-6.855671E-4	5.057463E-4	1.427209E-3	-2.962986E-3	3.133352E-3	1.013255E-2	-1.057288E-3	5.922927E-3	-2.892276E-3	-7.002142E-3	5.344310E-3	-5.628067E-3	-5.833859E-4	4.272166E-3	3.707247E-3	4.085611E-4	-1.284201E-2	2.583175E-3	-1.431524E-3	3.905395E-4	8.978197E-4	6.776121E-3	3.585863E-3	-5.670117E-3	6.258373E-4	1.111377E-3	-3.504548E-3	1.003739E-2	4.853847E-3	7.072275E-4	4.795438E-3	9.352131E-3	6.564832E-3	2.769034E-3	5.414934E-3	6.170104E-3	-3.936038E-3	-7.187825E-4	4.686175E-3	-7.200399E-4	-1.772035E-3	-4.729090E-3	-6.256468E-4	4.787011E-3	5.067653E-3	1.283892E-3	6.532283E-3	2.345431E-4	6.855041E-3	1.644527E-3	8.999050E-4	1.888356E-3	6.001940E-3	8.929137E-3	2.208968E-3	6.314139E-3	4.111683E-3	-1.463044E-3	6.636003E-3	-3.139967E-3	3.507101E-3	2.018675E-3	1.358183E-3	3.820984E-3	-5.085159E-3	-3.101644E-3	7.308326E-4	5.262206E-4	-9.266920E-4	2.615469E-3	2.475561E-5	-1.646222E-3	-2.515487E-3	-4.092439E-3	4.385840E-3	2.560686E-3	7.657409E-3	-1.233131E-3	8.378706E-3	2.384611E-3	-1.623167E-3	6.220241E-3	-4.804059E-4	1.861195E-3	1.179791E-3	1.455318E-3	2.288056E-3	-2.015853E-3	4.964771E-3	-4.032599E-3	4.832985E-3	-2.114084E-3	1.191712E-2	2.469420E-3	-5.481293E-3	2.027881E-3	-4.135916E-3	-7.489653E-5	-3.181979E-3	2.180063E-3	-2.839078E-4	-3.727721E-3	7.616259E-3	-3.036969E-3	-4.700619E-5	6.639106E-3	1.101607E-3	1.788529E-3	-8.744422E-4	3.216498E-5	5.680859E-3	1.051556E-2	4.969042E-3	9.568984E-3	4.377006E-3	-3.416339E-3	3.568451E-3	-3.338163E-3	1.094199E-3	4.447342E-3	1.087681E-3	-1.785045E-3	3.093509E-3	3.863929E-4	3.775419E-3	-3.331917E-3	-3.238662E-3	-6.495047E-3	7.257403E-4	-4.650377E-3	7.318313E-3	3.590210E-3	5.798541E-3	-7.305994E-3	-8.936931E-4	-9.826031E-3
2.820060E+2	-2.277745E-4	9.469152E-3	9.717753E-3	-2.646585E-4	2.815877E-3	-6.560709E-4	7.410970E-3	7.150816E-3	-3.541203E-3	-1.729809E-3	6.285949E-3	4.515783E-3	2.050302E-4	4.403483E-3	-1.407123E-3	6.640129E-3	9.853211E-3	6.043619E-3	3.384775E-3	6.978911E-3	-1.832531E-3	3.422012E-3	7.940479E-3	5.038058E-3	-2.427143E-3	9.554767E-3	4.398024E-3	2.881982E-3	1.695949E-3	2.391190E-3	3.885967E-3	8.241190E-4	4.816657E-3	2.501586E-3	3.238281E-3	2.119098E-3	1.531385E-3	4.724668E-3	-4.805566E-3	-2.371831E-4	1.068827E-2	5.340923E-3	-5.589126E-4	1.452394E-2	6.121275E-3	6.312953E-3	3.391754E-3	2.933754E-4	5.946903E-4	4.160383E-3	1.904924E-4	5.885758E-3	4.193432E-3	2.468620E-3	1.472707E-3	-3.554709E-3	-6.781387E-3	4.917479E-3	-1.709658E-4	5.210397E-3	4.490622E-3	6.640157E-3	3.621780E-3	-1.148429E-3	-1.470866E-3	-9.024833E-3	2.750333E-4	2.116436E-3	8.954195E-3	5.480097E-4	-2.818305E-3	8.674010E-3	-5.367803E-4	4.092230E-3	7.811933E-3	-4.201430E-3	3.931746E-3	-6.293067E-3	1.358091E-3	7.629609E-3	9.632688E-3	1.054967E-3	4.236342E-4	-5.192771E-4	-4.491940E-3	5.842144E-3	1.273461E-2	3.858779E-3	-2.988054E-3	-1.231931E-3	4.891907E-3	-2.046631E-3	1.096583E-3	3.376967E-3	4.366547E-3	1.544474E-3	-5.968694E-3	-6.718343E-3	3.364115E-3	-6.444582E-4	1.535785E-3	4.562554E-3	2.217631E-5	6.522197E-3	4.144727E-3	4.901415E-3	-1.532446E-3	2.727401E-3	2.413297E-4	7.259211E-4	1.956471E-3	8.385139E-3	-8.624198E-5	-3.742806E-3	7.244764E-3	-8.289154E-4	-1.784844E-3	3.322577E-3	-5.892452E-4	-2.782660E-3	1.645060E-3	1.535334E-3	9.271590E-3	3.781896E-3	9.947510E-3	4.719460E-4	5.426822E-3	7.840943E-3	-1.289573E-3	4.226605E-3	-9.699215E-4	-5.952108E-3	3.585880E-3	3.488430E-4	-1.693500E-3	-2.243763E-3	3.264727E-3	9.167551E-5	9.009494E-3	-6.849959E-4	1.244657E-3	5.597670E-4	7.038651E-3	8.545905E-3	1.836079E-3	6.661159E-3	-7.167040E-3	-4.993658E-4	2.455270E-3	2.825257E-3	5.951887E-3	-1.678354E-3	4.275181E-3	6.038829E-3	7.430339E-3	-3.336757E-3	-4.407010E-3	3.034115E-3	4.549831E-3	7.266222E-3	4.587138E-3	1.061854E-2	4.826163E-3	-1.392825E-3	-1.654027E-3	3.771840E-3	6.881314E-3	4.482995E-3	3.056408E-3	-5.997447E-3
2.825040E+2	9.261416E-3	3.649373E-3	-1.451610E-3	3.086971E-3	1.017378E-2	1.000521E-4	6.799218E-3	-1.292011E-3	8.201194E-3	5.779036E-3	1.056578E-3	1.178633E-2	2.818979E-3	-5.150149E-4	1.072714E-3	-2.547545E-3	-5.261599E-3	3.928613E-3	6.325532E-4	4.722910E-3	4.710436E-3	-3.285565E-4	-2.181704E-3	7.587058E-4	5.744308E-3	-9.393779E-5	-6.533667E-3	-3.750716E-4	2.403357E-3	2.465473E-3	8.895348E-3	-3.860374E-3	1.031101E-2	6.830041E-3	1.256177E-2	6.520943E-4	-4.250223E-3	6.086275E-3	6.410481E-3	-6.478439E-3	5.541281E-4	6.113997E-3	4.795359E-3	3.412196E-3	1.924037E-3	1.768663E-3	2.161226E-3	6.496054E-3	8.707802E-3	2.779184E-3	4.108237E-3	2.682198E-3	4.270045E-3	1.232493E-3	9.395035E-3	5.587365E-3	6.014545E-3	4.248230E-3	2.944102E-3	3.688636E-3	7.221400E-3	1.787814E-3	-3.488402E-3	5.483522E-3	1.299671E-2	4.931921E-3	2.473489E-3	4.522331E-3	-3.308474E-3	-6.502972E-4	1.061943E-2	-6.642834E-3	8.717229E-3	7.554731E-3	3.270156E-3	4.201410E-3	7.811273E-3	2.526834E-3	4.041637E-3	-1.809458E-3	7.715519E-4	-3.978906E-3	2.778928E-3	4.911787E-3	7.310500E-3	-4.938198E-3	1.688927E-3	-1.022748E-4	6.210894E-3	2.473080E-4	8.845744E-4	5.959821E-3	1.884768E-3	2.835916E-3	-6.514333E-4	8.027685E-3	9.780341E-3	1.167790E-2	5.005166E-3	9.619916E-4	3.713075E-3	2.058272E-3	1.213993E-2	1.637379E-3	5.034141E-3	3.572028E-3	1.007369E-2	9.408910E-3	1.250595E-2	9.979501E-3	8.515747E-3	3.072429E-3	2.580978E-3	2.595254E-4	9.464524E-3	-7.134054E-4	6.148858E-3	8.085352E-3	4.120264E-3	1.151078E-2	-1.369639E-3	3.719667E-3	1.093856E-3	7.400690E-3	-2.110900E-3	6.176670E-3	-3.442261E-4	2.684688E-3	2.097261E-3	2.941507E-3	4.047673E-3	8.572965E-3	1.033053E-2	1.069821E-2	5.386529E-3	4.341123E-3	7.905417E-3	9.955161E-3	5.067518E-3	-1.274123E-3	-6.611951E-5	2.717088E-3	3.818988E-3	3.799603E-4	4.190502E-4	1.077997E-3	-3.581874E-3	1.002176E-2	4.609497E-3	1.876298E-4	2.138692E-3	3.751930E-3	-1.006079E-3	-4.173664E-3	-2.378698E-3	7.681729E-3	3.293529E-3	3.800425E-3	1.896755E-3	8.115115E-3	3.878396E-3	8.517408E-3	2.411830E-3	-2.888182E-3	7.600375E-3	1.782351E-3	-7.453483E-3	7.152376E-3	-2.768552E-3	2.060676E-2
2.830030E+2	7.621684E-3	2.029218E-3	1.392239E-2	-9.750927E-4	1.171610E-2	9.178516E-3	1.084306E-2	4.739018E-4	1.338955E-2	6.516969E-3	2.105926E-2	3.865038E-3	1.246741E-2	8.307308E-3	1.806465E-2	6.813197E-3	8.477356E-3	1.355147E-2	6.338893E-3	1.264918E-2	2.191923E-3	-8.901137E-4	7.394004E-4	8.098209E-3	8.781420E-3	1.422783E-2	3.268947E-3	7.170034E-3	9.568933E-3	8.843500E-3	8.988206E-3	3.000913E-3	1.505015E-2	5.153576E-4	1.188819E-2	5.341018E-3	9.538857E-3	-7.201771E-3	1.271488E-2	6.917113E-3	8.681238E-3	2.044432E-3	4.111958E-3	1.064267E-2	8.426110E-3	1.178817E-2	1.463852E-2	7.944399E-3	-4.911375E-3	4.330307E-3	2.648982E-3	5.203470E-3	9.925379E-3	-2.002101E-3	1.211572E-2	1.967593E-2	3.843382E-3	5.836353E-3	5.320141E-3	1.020438E-2	5.317062E-3	2.571001E-3	4.441963E-3	9.518948E-3	-2.125149E-3	1.138822E-3	1.105790E-2	1.238784E-2	9.840344E-3	4.564360E-3	1.132134E-2	1.426922E-2	1.264618E-2	6.288195E-3	1.200621E-2	2.660185E-3	1.462690E-2	1.577433E-2	8.665317E-3	5.255518E-3	9.844627E-3	3.397549E-3	1.423703E-2	1.574230E-2	1.294827E-2	4.120425E-3	7.700426E-3	4.027835E-3	4.002114E-3	1.021865E-3	6.435825E-3	3.657697E-3	1.121483E-2	8.729399E-3	5.833969E-3	6.849844E-3	1.400779E-2	3.358143E-3	1.210880E-2	9.485007E-3	1.779586E-2	6.732180E-3	6.541869E-3	1.028316E-2	7.523602E-3	1.154207E-2	-3.126436E-5	-1.255523E-3	9.026416E-3	8.353400E-4	6.027694E-3	5.196546E-3	1.216334E-2	1.124260E-3	1.109579E-2	9.850182E-3	2.674659E-3	4.874326E-3	4.881378E-3	1.385124E-2	6.525486E-3	7.975851E-3	1.131127E-2	3.190254E-3	1.016363E-2	2.536661E-3	2.887785E-3	1.392363E-2	8.795103E-3	1.630198E-2	7.724909E-3	9.463493E-3	1.177365E-2	7.603656E-3	7.960791E-3	1.291628E-2	2.767947E-3	5.530808E-3	9.420711E-3	4.672219E-3	3.633142E-3	1.157770E-2	5.269100E-3	1.533043E-2	1.013619E-2	5.239512E-3	7.855202E-3	1.983380E-2	7.458318E-3	3.722266E-3	7.299280E-3	1.544689E-2	6.698688E-3	4.804254E-3	7.951200E-3	5.419374E-3	5.465748E-3	1.230369E-2	2.353744E-3	3.325631E-3	1.173720E-2	3.395108E-3	5.652157E-3	8.951799E-3	9.010190E-3	1.881614E-3	6.631126E-3	2.688830E-2	3.204260E-3	1.725129E-3
2.835020E+2	1.113996E-2	1.481195E-2	1.159337E-2	1.315942E-2	1.692807E-2	1.621198E-2	6.969994E-3	1.423284E-2	3.896777E-3	2.230279E-2	2.782713E-2	1.605491E-2	1.831851E-2	1.968072E-2	1.878323E-2	1.193711E-2	1.007613E-2	2.025187E-2	1.276646E-2	1.825933E-2	1.138732E-2	1.077691E-2	1.110200E-2	1.986434E-2	1.480006E-2	1.056037E-2	2.028043E-2	1.065185E-2	2.129291E-2	1.945981E-2	1.588445E-2	2.087436E-2	2.057979E-2	2.554593E-2	2.048475E-2	1.085876E-2	2.077350E-2	1.584960E-2	1.343920E-2	1.263140E-2	2.272125E-2	1.806072E-2	1.709347E-2	1.632482E-2	2.069158E-2	2.717244E-2	1.800882E-2	1.556990E-2	2.342031E-2	1.915961E-2	1.894393E-2	2.582909E-2	1.140992E-2	2.200440E-2	1.681750E-2	1.206798E-2	3.179413E-2	5.916778E-3	9.244476E-3	1.755614E-2	6.726990E-3	1.898644E-2	1.175180E-2	1.950326E-2	1.240488E-2	4.313238E-3	1.186637E-2	6.233729E-3	2.029356E-2	7.871773E-3	6.179420E-3	1.359596E-2	2.274265E-2	2.402417E-2	1.811576E-2	1.084440E-2	2.147298E-2	2.218172E-2	1.266150E-2	1.727082E-2	1.971584E-2	2.182057E-2	3.698836E-3	1.430527E-2	1.097981E-2	1.065513E-2	2.167099E-2	1.835736E-2	1.938221E-2	1.802862E-2	1.544751E-2	1.489750E-2	9.882754E-3	1.659419E-2	2.392756E-2	2.686871E-2	1.078006E-2	2.570342E-2	9.078781E-3	1.420008E-2	5.274552E-3	1.602530E-2	2.319557E-2	-3.591909E-4	1.645948E-2	1.811546E-2	2.186995E-2	1.704260E-2	2.064617E-2	2.272477E-2	1.782503E-2	1.755926E-2	1.659426E-2	6.726291E-3	1.735130E-2	1.561144E-2	1.329023E-3	1.364887E-2	2.104214E-2	1.545637E-2	1.523974E-2	1.434581E-2	1.610843E-2	7.583630E-3	9.542682E-3	1.201152E-2	1.750471E-2	1.535236E-2	2.799884E-2	1.922455E-2	8.564450E-3	1.638846E-2	2.266159E-2	1.804682E-2	1.245653E-2	1.157168E-2	1.709654E-2	2.303008E-2	1.024547E-2	7.281369E-3	1.753821E-2	1.642479E-2	7.405483E-3	1.331546E-2	2.070549E-2	1.518425E-2	2.475772E-2	6.298736E-3	2.065694E-2	1.899940E-2	2.257368E-2	2.325508E-2	1.289553E-2	2.421679E-2	9.434243E-3	1.309316E-2	2.726458E-2	1.566325E-2	9.348017E-3	1.190238E-2	1.104514E-2	1.169074E-2	1.570445E-2	5.889140E-3	3.082637E-2	1.522054E-2	2.001107E-2	8.254778E-4	2.302215E-2	5.625444E-3
2.840000E+2	2.503041E-2	2.596162E-2	3.515061E-2	1.892565E-2	3.980749E-2	2.957318E-2	2.627946E-2	2.342357E-2	1.944910E-2	2.997605E-2	3.533111E-2	3.343301E-2	2.042093E-2	2.987938E-2	2.985959E-2	3.013682E-2	4.075399E-2	3.139618E-2	2.987650E-2	2.217025E-2	3.437036E-2	3.156224E-2	2.383007E-2	2.657697E-2	3.867897E-2	2.574445E-2	3.413723E-2	2.500784E-2	2.661091E-2	2.733167E-2	2.779994E-2	3.334590E-2	2.927138E-2	2.995600E-2	2.448399E-2	1.328456E-2	1.828787E-2	3.455906E-2	3.418047E-2	3.605329E-2	4.347696E-2	3.278729E-2	1.568355E-2	2.930763E-2	1.578900E-2	2.732169E-2	3.388277E-2	2.464419E-2	2.921992E-2	1.707068E-2	1.984565E-2	2.930716E-2	3.394495E-2	2.548417E-2	2.287099E-2	2.133132E-2	2.968252E-2	2.877373E-2	1.705166E-2	3.144767E-2	2.483309E-2	2.979710E-2	2.372551E-2	2.164248E-2	1.654316E-2	1.762966E-2	2.408808E-2	2.434997E-2	3.496649E-2	3.059014E-2	2.328535E-2	2.302781E-2	2.210704E-2	2.756600E-2	2.493922E-2	2.641789E-2	3.212212E-2	3.304327E-2	2.645580E-2	2.586010E-2	2.662477E-2	2.636287E-2	2.055701E-2	3.142051E-2	3.127011E-2	3.273469E-2	2.048364E-2	2.460693E-2	4.712166E-2	3.300850E-2	3.209159E-2	3.101147E-2	1.427267E-2	2.774823E-2	2.987230E-2	3.156064E-2	4.083164E-2	3.277176E-2	2.485705E-2	2.204457E-2	3.562902E-2	2.602954E-2	2.653542E-2	1.908983E-2	4.076779E-2	2.760536E-2	2.063159E-2	2.379232E-2	2.872142E-2	1.361404E-2	2.447191E-2	2.861215E-2	2.625095E-2	1.472398E-2	2.131845E-2	3.761805E-2	1.793839E-2	1.176504E-2	3.326114E-2	2.155828E-2	3.028744E-2	2.144971E-2	1.386953E-2	2.926198E-2	2.262970E-2	3.095100E-2	2.714281E-2	3.468002E-2	2.891965E-2	2.777533E-2	2.592362E-2	1.188010E-2	2.957301E-2	2.780450E-2	2.812466E-2	3.737226E-2	1.720700E-2	1.936737E-2	2.679483E-2	2.927179E-2	4.025219E-2	3.137925E-2	2.436148E-2	2.406977E-2	2.321679E-2	3.092666E-2	2.698367E-2	3.455102E-2	2.565353E-2	3.020039E-2	3.036469E-2	3.422263E-2	2.832735E-2	3.472999E-2	2.062066E-2	2.831347E-2	2.388792E-2	3.195369E-2	4.274434E-2	2.051249E-2	1.663743E-2	2.159265E-2	4.833214E-2	2.497121E-2	3.166461E-2	2.166131E-2	3.184116E-2	2.064120E-2	3.306464E-2	2.869998E-2
2.841030E+2	2.168306E-2	2.097401E-2	2.475561E-2	2.119875E-2	2.230238E-2	4.369398E-2	2.045724E-2	3.065002E-2	2.113528E-2	2.738730E-2	3.885534E-2	2.719628E-2	3.615816E-2	2.436084E-2	2.393932E-2	2.754466E-2	3.104633E-2	3.299965E-2	3.573931E-2	2.556917E-2	2.670090E-2	1.424216E-2	2.340201E-2	2.377109E-2	2.032054E-2	2.513113E-2	1.925253E-2	2.342550E-2	1.712127E-2	3.101884E-2	3.731929E-2	2.596283E-2	3.194761E-2	1.435765E-2	2.465067E-2	2.442344E-2	2.568362E-2	2.444068E-2	1.804831E-2	2.285445E-2	2.378037E-2	2.737306E-2	2.190712E-2	2.803778E-2	2.320867E-2	2.546998E-2	2.286175E-2	2.235953E-2	2.132972E-2	3.721309E-2	2.464245E-2	2.819144E-2	2.356594E-2	2.696749E-2	1.837565E-2	2.681825E-2	1.850959E-2	2.436523E-2	2.026986E-2	1.602715E-2	3.443071E-2	2.710021E-2	2.254604E-2	2.375870E-2	2.481264E-2	2.633468E-2	2.709181E-2	2.893779E-2	2.264413E-2	1.195885E-2	2.461955E-2	3.346525E-2	2.380903E-2	1.883728E-2	1.703255E-2	2.868997E-2	2.477729E-2	3.068879E-2	2.661198E-2	2.252903E-2	2.831179E-2	1.395959E-2	1.686517E-2	1.833892E-2	2.097643E-2	1.930511E-2	2.593212E-2	3.771305E-2	2.808731E-2	1.755852E-2	1.774326E-2	1.753955E-2	2.299157E-2	2.855754E-2	1.515243E-2	2.592326E-2	3.515422E-2	2.058111E-2	2.498898E-2	2.141091E-2	2.238804E-2	2.222060E-2	2.477084E-2	2.065237E-2	2.638229E-2	2.269395E-2	2.967701E-2	2.474339E-2	2.380622E-2	1.903728E-2	2.134923E-2	2.876430E-2	2.115742E-2	2.672788E-2	2.607682E-2	1.744568E-2	2.454860E-2	2.261420E-2	2.400593E-2	2.543365E-2	3.044508E-2	1.316115E-2	2.812195E-2	3.287303E-2	1.913705E-2	2.482457E-2	2.157756E-2	1.826231E-2	1.488942E-2	3.355383E-2	2.534733E-2	2.570850E-2	1.687023E-2	3.313155E-2	2.325785E-2	2.613393E-2	1.581765E-2	2.482394E-2	2.264014E-2	2.096073E-2	3.604430E-2	3.492142E-2	2.450111E-2	2.990643E-2	2.900734E-2	2.776495E-2	2.361101E-2	1.532995E-2	2.931904E-2	1.925045E-2	2.736125E-2	2.665593E-2	3.397798E-2	3.410503E-2	2.908188E-2	2.671506E-2	2.836162E-2	2.948722E-2	1.268156E-2	1.709146E-2	2.617165E-2	2.546488E-2	1.829578E-2	2.115123E-2	2.060472E-2	2.952586E-2	2.478744E-2	2.080170E-2	3.926054E-2	2.502124E-2
2.842030E+2	4.517448E-2	3.473160E-2	2.488563E-2	4.028235E-2	4.012560E-2	3.545946E-2	2.657010E-2	3.478412E-2	3.087708E-2	4.060322E-2	5.447076E-2	3.461036E-2	3.372565E-2	3.966986E-2	3.935164E-2	3.643662E-2	3.276739E-2	3.763443E-2	4.087646E-2	3.505586E-2	4.064287E-2	3.448361E-2	3.161462E-2	2.459602E-2	4.062067E-2	3.055917E-2	2.528654E-2	3.206464E-2	4.141107E-2	4.178052E-2	3.436920E-2	4.288745E-2	2.108190E-2	2.958273E-2	3.803866E-2	3.820844E-2	3.905284E-2	3.746385E-2	3.953972E-2	3.444615E-2	3.654837E-2	3.380781E-2	3.428137E-2	4.274602E-2	3.716743E-2	3.767922E-2	3.488487E-2	4.303691E-2	3.701170E-2	4.258616E-2	2.556297E-2	3.525456E-2	4.062357E-2	3.046386E-2	2.976205E-2	3.175108E-2	3.541219E-2	3.442445E-2	3.202911E-2	3.468894E-2	4.076920E-2	3.298374E-2	3.662197E-2	3.157145E-2	2.098646E-2	3.352029E-2	3.083023E-2	3.403451E-2	3.880940E-2	3.805615E-2	3.126608E-2	4.806544E-2	3.798972E-2	3.403048E-2	2.389738E-2	2.818035E-2	4.704161E-2	3.784541E-2	3.530526E-2	3.652529E-2	2.553089E-2	3.478581E-2	2.543077E-2	3.483941E-2	3.093336E-2	2.853793E-2	3.674672E-2	4.116333E-2	3.758561E-2	2.480369E-2	3.727500E-2	3.290394E-2	4.490302E-2	2.416858E-2	4.642158E-2	3.741232E-2	4.971828E-2	3.774406E-2	3.697328E-2	3.166012E-2	4.308607E-2	4.091512E-2	4.163534E-2	3.858563E-2	4.205161E-2	2.719455E-2	4.155357E-2	3.129218E-2	3.939981E-2	3.251172E-2	4.381731E-2	3.615311E-2	3.633361E-2	3.484742E-2	3.942483E-2	3.656372E-2	3.556067E-2	1.940306E-2	3.226075E-2	3.477754E-2	2.906120E-2	3.154914E-2	5.035091E-2	3.156303E-2	3.311824E-2	3.571815E-2	2.044977E-2	3.388588E-2	4.186117E-2	4.149977E-2	4.145925E-2	3.639939E-2	5.226852E-2	3.916088E-2	3.724555E-2	4.647963E-2	2.651605E-2	3.334804E-2	4.075406E-2	4.376445E-2	3.551636E-2	2.286481E-2	4.305775E-2	2.880104E-2	3.409899E-2	3.784181E-2	4.068959E-2	2.508558E-2	3.782595E-2	4.095032E-2	3.451924E-2	4.620339E-2	4.725161E-2	4.477628E-2	2.645525E-2	1.757560E-2	3.561056E-2	3.160774E-2	3.685035E-2	2.935940E-2	4.517699E-2	3.462410E-2	3.626874E-2	3.553624E-2	4.465417E-2	2.335574E-2	5.294323E-2	2.356024E-2	7.527307E-3	4.437826E-2
2.843010E+2	5.838094E-2	4.598457E-2	6.002148E-2	6.440500E-2	5.953114E-2	6.087081E-2	5.871674E-2	4.615140E-2	4.807497E-2	4.973336E-2	6.880216E-2	5.300770E-2	5.594427E-2	7.089804E-2	5.606156E-2	5.143041E-2	5.750492E-2	5.179581E-2	6.455676E-2	4.536606E-2	6.322297E-2	5.807400E-2	5.027181E-2	8.118491E-2	4.753063E-2	6.336678E-2	5.374101E-2	7.103310E-2	5.795979E-2	5.400682E-2	6.207135E-2	6.635812E-2	5.506064E-2	4.910052E-2	5.143299E-2	5.066201E-2	4.851116E-2	5.830063E-2	4.475222E-2	6.185600E-2	5.900415E-2	5.638056E-2	7.816721E-2	6.437097E-2	7.000878E-2	5.329664E-2	6.616521E-2	4.779443E-2	6.743780E-2	5.841171E-2	5.378853E-2	8.037908E-2	5.775471E-2	5.549833E-2	5.849067E-2	6.111878E-2	6.378680E-2	5.523011E-2	4.460691E-2	5.046792E-2	5.511184E-2	3.887844E-2	5.074571E-2	5.498064E-2	5.449020E-2	6.347561E-2	7.121434E-2	7.390143E-2	4.666200E-2	5.778320E-2	5.095897E-2	6.175314E-2	4.905565E-2	5.203531E-2	5.711880E-2	5.688207E-2	6.319220E-2	6.729424E-2	5.256719E-2	6.346143E-2	6.607974E-2	6.609994E-2	5.707640E-2	7.189346E-2	4.723729E-2	4.173389E-2	5.162301E-2	5.729187E-2	6.563644E-2	4.919872E-2	5.758918E-2	6.101108E-2	5.667444E-2	7.273681E-2	4.858313E-2	6.063954E-2	5.831773E-2	5.188684E-2	5.848829E-2	5.860512E-2	6.956297E-2	5.374093E-2	5.924114E-2	5.566263E-2	6.017421E-2	6.296376E-2	6.659728E-2	5.902152E-2	4.400962E-2	5.875720E-2	5.653627E-2	7.357830E-2	7.432981E-2	5.895635E-2	5.983623E-2	6.650430E-2	5.532769E-2	5.599458E-2	6.021172E-2	4.718996E-2	6.018476E-2	5.851549E-2	5.927449E-2	5.837995E-2	5.594308E-2	6.817652E-2	4.936605E-2	5.530606E-2	5.310393E-2	6.226607E-2	4.610541E-2	5.752081E-2	6.210082E-2	4.786540E-2	6.902108E-2	5.652484E-2	5.013502E-2	5.953248E-2	4.746426E-2	6.302532E-2	6.304696E-2	6.000840E-2	5.773218E-2	4.155024E-2	4.748069E-2	5.049918E-2	5.719489E-2	7.191643E-2	4.504011E-2	7.952108E-2	4.621692E-2	5.808614E-2	5.458820E-2	6.319214E-2	6.101031E-2	6.918687E-2	5.159182E-2	5.205468E-2	4.409759E-2	5.047500E-2	6.517434E-2	5.280768E-2	5.592578E-2	4.450707E-2	6.751686E-2	5.593466E-2	5.586985E-2	5.867742E-2	6.771177E-2	6.755148E-2
2.844030E+2	8.385836E-2	8.129581E-2	7.904940E-2	6.460448E-2	8.202368E-2	8.644037E-2	8.840621E-2	8.816325E-2	7.580956E-2	8.108437E-2	8.797498E-2	8.763968E-2	9.328944E-2	8.515066E-2	8.640763E-2	7.465018E-2	6.022448E-2	8.406857E-2	8.842024E-2	8.161081E-2	1.051336E-1	8.768897E-2	8.702775E-2	8.783316E-2	8.831181E-2	9.712578E-2	9.426082E-2	9.853442E-2	1.029197E-1	8.695759E-2	9.496727E-2	9.387460E-2	7.273045E-2	9.558073E-2	9.713305E-2	8.017485E-2	9.532372E-2	9.092134E-2	8.603980E-2	9.078748E-2	6.892408E-2	8.260949E-2	7.920458E-2	1.106202E-1	9.142377E-2	8.384959E-2	8.433188E-2	1.044253E-1	8.742588E-2	9.673623E-2	9.234250E-2	9.626922E-2	9.559187E-2	1.089941E-1	8.404578E-2	8.179480E-2	8.620044E-2	1.029921E-1	8.607971E-2	9.915120E-2	8.378611E-2	8.009484E-2	8.428846E-2	7.348702E-2	8.658873E-2	9.357867E-2	8.803751E-2	9.991437E-2	9.101243E-2	8.545709E-2	9.034089E-2	1.063145E-1	1.070058E-1	9.148050E-2	8.510816E-2	7.743348E-2	1.038231E-1	7.648958E-2	9.231591E-2	8.851801E-2	8.924677E-2	9.459312E-2	8.733365E-2	8.060810E-2	8.827263E-2	9.550998E-2	9.069888E-2	8.748781E-2	1.000329E-1	8.659458E-2	7.590933E-2	9.227565E-2	1.091198E-1	8.809618E-2	8.791945E-2	9.021427E-2	8.800881E-2	1.010735E-1	9.593375E-2	8.574888E-2	9.544877E-2	7.993451E-2	8.274033E-2	9.618423E-2	8.650704E-2	8.723408E-2	6.060683E-2	9.146517E-2	8.300425E-2	7.717926E-2	8.909382E-2	1.023832E-1	7.453601E-2	7.913705E-2	8.262722E-2	7.967292E-2	7.515473E-2	9.275472E-2	9.302938E-2	8.162537E-2	6.993068E-2	8.558915E-2	7.452053E-2	9.036062E-2	9.485457E-2	8.624729E-2	9.319179E-2	8.666676E-2	1.027585E-1	9.514006E-2	9.205107E-2	8.732496E-2	8.693512E-2	9.370075E-2	9.501549E-2	8.795154E-2	6.953912E-2	7.740744E-2	8.672001E-2	8.449977E-2	9.073827E-2	9.434934E-2	8.792024E-2	8.478087E-2	9.101807E-2	1.030921E-1	7.938816E-2	8.899720E-2	8.237986E-2	8.825174E-2	9.025856E-2	8.297558E-2	9.826395E-2	8.955077E-2	1.060794E-1	9.844020E-2	9.937839E-2	7.063758E-2	8.367618E-2	8.613089E-2	8.769797E-2	7.888506E-2	9.839988E-2	1.056759E-1	1.065933E-1	7.743693E-2	9.431038E-2	7.587954E-2	8.810599E-2	7.965161E-2
2.845010E+2	1.146212E-1	1.081493E-1	1.219024E-1	1.071677E-1	1.112728E-1	1.092745E-1	1.229175E-1	9.163058E-2	1.059575E-1	1.140392E-1	1.316012E-1	9.672797E-2	1.218402E-1	1.138305E-1	1.095327E-1	1.007350E-1	1.004487E-1	8.987563E-2	1.102844E-1	1.016126E-1	1.297723E-1	1.178363E-1	1.152733E-1	1.321824E-1	1.196212E-1	1.066449E-1	1.270084E-1	1.222603E-1	1.299478E-1	1.281300E-1	1.312055E-1	1.144007E-1	1.180600E-1	1.350797E-1	1.334021E-1	1.276526E-1	1.227552E-1	1.252920E-1	1.364343E-1	1.418326E-1	1.122642E-1	1.047683E-1	1.319133E-1	1.161744E-1	1.251871E-1	1.247760E-1	1.099314E-1	1.311164E-1	1.146457E-1	1.167000E-1	1.232481E-1	1.310503E-1	1.153601E-1	1.060835E-1	9.370354E-2	1.196628E-1	1.104246E-1	1.202784E-1	1.121400E-1	1.054623E-1	1.138198E-1	1.281123E-1	1.307251E-1	1.306451E-1	1.290202E-1	1.255330E-1	1.244633E-1	1.096196E-1	1.134760E-1	1.113840E-1	1.061679E-1	1.134437E-1	1.259155E-1	1.408250E-1	9.084781E-2	1.177488E-1	1.026510E-1	1.158262E-1	1.263501E-1	1.217970E-1	9.800387E-2	1.299660E-1	1.115656E-1	1.249151E-1	1.239052E-1	1.122592E-1	1.165600E-1	1.205299E-1	1.182706E-1	1.098710E-1	1.194822E-1	1.153615E-1	1.015200E-1	1.088375E-1	9.870194E-2	1.068360E-1	1.111946E-1	1.201313E-1	9.466035E-2	1.315722E-1	9.368694E-2	1.002884E-1	1.012085E-1	9.930702E-2	1.326481E-1	1.145837E-1	1.045653E-1	1.110229E-1	9.799157E-2	1.062931E-1	1.258190E-1	1.214640E-1	1.286412E-1	1.203022E-1	1.188650E-1	1.010724E-1	1.228053E-1	9.243794E-2	1.083533E-1	1.013459E-1	1.332294E-1	1.177885E-1	1.129134E-1	1.276187E-1	1.120316E-1	1.184216E-1	1.160417E-1	1.200622E-1	1.258633E-1	1.282486E-1	1.179629E-1	1.068052E-1	1.091389E-1	1.137065E-1	1.175314E-1	9.717189E-2	1.140244E-1	9.918514E-2	1.232580E-1	1.327439E-1	1.110659E-1	1.283670E-1	1.068381E-1	1.167239E-1	1.028230E-1	1.292795E-1	1.003078E-1	1.021549E-1	1.128375E-1	1.131738E-1	1.284697E-1	1.070971E-1	1.304407E-1	1.020646E-1	1.113559E-1	1.091142E-1	1.310652E-1	1.251442E-1	1.019377E-1	1.241748E-1	1.094257E-1	1.265817E-1	8.926793E-2	1.036261E-1	1.170007E-1	1.025867E-1	1.064806E-1	1.219219E-1	1.185854E-1	1.033368E-1
2.846010E+2	1.516075E-1	1.798648E-1	1.657319E-1	1.557300E-1	1.741967E-1	1.881075E-1	1.494941E-1	1.476466E-1	1.819662E-1	1.721323E-1	1.679686E-1	1.706094E-1	1.817974E-1	1.462297E-1	1.723004E-1	1.704394E-1	1.454397E-1	1.696523E-1	1.811002E-1	1.563017E-1	1.785525E-1	2.155693E-1	2.136139E-1	1.916236E-1	2.399711E-1	2.241533E-1	2.163594E-1	1.899016E-1	2.039743E-1	2.109895E-1	1.972993E-1	2.068273E-1	2.080177E-1	1.770571E-1	2.227563E-1	1.962492E-1	2.014945E-1	2.047395E-1	1.940682E-1	2.068587E-1	2.034710E-1	1.934603E-1	1.871856E-1	1.866508E-1	2.224603E-1	1.925152E-1	1.984345E-1	1.823819E-1	1.686715E-1	2.175217E-1	1.913046E-1	2.040202E-1	1.802701E-1	1.874363E-1	1.811326E-1	1.892598E-1	1.765877E-1	1.731952E-1	1.853042E-1	2.025270E-1	2.089056E-1	1.833079E-1	1.841729E-1	1.888426E-1	1.944348E-1	1.812588E-1	1.915595E-1	1.956208E-1	1.891041E-1	1.779692E-1	1.764134E-1	2.136172E-1	1.627711E-1	1.988385E-1	1.796596E-1	1.794915E-1	1.877989E-1	1.794625E-1	1.818395E-1	1.863722E-1	1.715881E-1	1.758050E-1	1.793650E-1	1.602606E-1	1.921066E-1	1.939762E-1	1.877606E-1	1.973663E-1	1.758275E-1	1.750690E-1	1.758906E-1	1.804644E-1	1.681909E-1	1.768517E-1	1.824197E-1	1.813657E-1	1.939074E-1	2.040606E-1	1.938436E-1	1.909016E-1	1.852858E-1	1.700366E-1	1.718285E-1	1.982758E-1	1.819104E-1	1.861788E-1	1.543560E-1	1.932539E-1	1.804526E-1	1.635681E-1	1.754269E-1	2.100553E-1	1.917480E-1	1.751309E-1	1.569262E-1	1.764459E-1	1.594513E-1	2.014557E-1	1.955357E-1	1.991540E-1	1.549394E-1	1.701473E-1	1.977347E-1	1.863163E-1	1.832027E-1	1.757458E-1	1.835405E-1	1.889947E-1	1.839832E-1	1.703895E-1	1.677537E-1	1.739334E-1	1.935336E-1	1.550270E-1	1.843376E-1	1.849931E-1	1.873347E-1	1.682068E-1	1.702212E-1	1.594359E-1	1.914104E-1	1.841256E-1	1.942284E-1	1.705400E-1	2.162658E-1	2.058999E-1	1.770617E-1	1.477260E-1	1.877127E-1	1.833032E-1	1.987395E-1	1.638932E-1	1.982325E-1	1.662706E-1	1.951845E-1	1.947860E-1	1.596091E-1	1.805983E-1	1.900135E-1	1.479011E-1	1.646040E-1	1.824891E-1	1.869001E-1	1.831434E-1	1.617277E-1	1.868994E-1	1.735412E-1	1.579834E-1	1.512184E-1	1.854458E-1
2.847020E+2	4.147432E-1	4.417520E-1	4.616330E-1	4.447895E-1	4.406254E-1	4.503618E-1	4.336746E-1	4.297720E-1	4.315445E-1	4.545137E-1	4.685735E-1	4.218408E-1	4.504096E-1	4.434231E-1	4.534309E-1	4.532171E-1	3.957684E-1	4.610100E-1	4.322061E-1	4.119127E-1	4.432386E-1	5.281775E-1	4.908087E-1	4.895534E-1	5.123686E-1	5.188239E-1	5.217801E-1	4.782241E-1	4.673367E-1	5.096530E-1	5.314922E-1	5.143552E-1	4.971577E-1	4.858275E-1	5.352181E-1	4.928035E-1	4.940377E-1	5.057605E-1	4.763451E-1	4.637109E-1	5.101716E-1	4.831101E-1	5.015719E-1	4.503860E-1	4.805450E-1	4.972397E-1	4.567258E-1	4.926172E-1	5.340856E-1	5.420744E-1	5.016790E-1	4.887868E-1	5.452638E-1	5.128949E-1	4.847154E-1	4.625399E-1	4.696289E-1	4.876168E-1	4.510926E-1	5.135198E-1	5.060613E-1	4.880546E-1	4.960371E-1	4.882266E-1	5.126965E-1	4.960900E-1	4.812086E-1	4.543207E-1	4.759690E-1	4.950048E-1	4.601278E-1	5.074429E-1	4.985766E-1	4.570568E-1	4.778121E-1	4.519302E-1	4.780101E-1	4.830694E-1	4.768937E-1	4.949186E-1	4.857468E-1	4.522769E-1	4.881509E-1	4.995161E-1	4.720553E-1	4.839480E-1	4.931783E-1	4.795023E-1	4.629817E-1	4.412145E-1	4.390736E-1	5.229992E-1	4.427199E-1	4.732431E-1	4.706571E-1	4.774544E-1	4.485816E-1	4.880040E-1	4.893144E-1	4.895740E-1	4.824306E-1	4.602745E-1	4.808929E-1	4.436321E-1	4.837523E-1	4.611176E-1	4.627099E-1	4.934947E-1	4.650152E-1	4.455363E-1	4.484466E-1	4.884064E-1	4.834314E-1	4.529472E-1	4.271572E-1	4.320976E-1	4.740907E-1	4.824829E-1	4.778604E-1	4.794857E-1	4.772009E-1	4.888486E-1	4.539743E-1	5.047361E-1	4.731560E-1	4.671611E-1	4.487996E-1	4.558040E-1	4.652691E-1	4.785268E-1	4.763637E-1	4.804445E-1	4.691338E-1	4.607832E-1	4.787325E-1	4.881501E-1	4.735315E-1	4.984511E-1	4.727947E-1	4.609091E-1	4.707771E-1	5.247247E-1	4.771408E-1	4.363136E-1	4.757257E-1	4.525951E-1	4.513729E-1	4.758209E-1	4.972501E-1	5.055279E-1	5.046117E-1	4.603524E-1	4.802462E-1	4.695965E-1	5.024442E-1	4.424988E-1	4.501377E-1	4.527933E-1	4.495062E-1	4.787307E-1	4.731770E-1	4.888478E-1	4.786199E-1	4.678628E-1	4.704505E-1	4.714966E-1	4.416721E-1	4.716312E-1	4.462147E-1	4.944278E-1
2.848000E+2	8.895341E-1	8.744488E-1	9.108086E-1	8.813813E-1	8.789071E-1	8.768315E-1	8.788522E-1	8.656012E-1	8.551005E-1	8.895087E-1	9.145701E-1	8.597886E-1	8.987742E-1	8.664074E-1	8.385029E-1	8.726789E-1	8.645310E-1	8.811334E-1	9.131277E-1	8.358172E-1	8.544869E-1	8.697887E-1	9.072472E-1	8.982501E-1	9.225941E-1	8.922102E-1	8.980739E-1	9.031284E-1	8.957479E-1	9.013739E-1	8.908920E-1	9.047625E-1	9.299988E-1	9.062162E-1	9.478546E-1	9.059003E-1	9.137609E-1	8.536895E-1	8.718576E-1	9.241287E-1	9.111321E-1	8.522152E-1	8.834368E-1	9.019572E-1	8.798278E-1	8.445666E-1	9.163350E-1	9.371701E-1	8.874214E-1	8.997496E-1	9.763648E-1	9.164006E-1	9.120957E-1	9.232426E-1	8.855454E-1	9.072506E-1	8.958533E-1	8.528172E-1	8.840422E-1	8.892631E-1	8.672659E-1	8.862885E-1	8.775951E-1	9.403041E-1	9.274962E-1	9.003622E-1	8.902678E-1	8.854553E-1	8.688192E-1	8.882524E-1	8.654709E-1	9.333186E-1	8.467989E-1	9.263504E-1	9.629543E-1	8.954376E-1	9.137080E-1	9.267533E-1	8.908164E-1	9.374672E-1	8.766621E-1	9.601504E-1	8.669361E-1	9.229656E-1	8.887819E-1	9.299885E-1	8.957545E-1	8.816332E-1	9.332159E-1	8.788167E-1	8.746272E-1	9.016688E-1	8.772655E-1	9.081763E-1	8.996618E-1	8.560287E-1	8.938201E-1	9.230147E-1	8.774885E-1	9.352253E-1	9.637746E-1	8.992791E-1	8.904058E-1	8.427241E-1	8.837756E-1	8.561377E-1	8.993714E-1	8.705352E-1	8.795536E-1	9.056045E-1	8.855059E-1	8.759875E-1	9.002328E-1	9.354669E-1	8.035283E-1	8.618183E-1	8.501784E-1	9.028304E-1	8.771400E-1	9.076957E-1	9.148382E-1	8.886898E-1	9.572991E-1	9.461401E-1	8.490250E-1	8.713082E-1	8.789821E-1	8.621913E-1	8.768646E-1	9.021631E-1	8.868905E-1	8.741453E-1	8.823118E-1	8.794763E-1	8.658521E-1	8.601615E-1	8.678608E-1	9.247162E-1	8.501853E-1	8.805337E-1	8.517333E-1	8.760223E-1	8.580526E-1	8.986993E-1	8.839722E-1	9.264203E-1	8.788149E-1	9.017234E-1	8.629974E-1	8.783537E-1	8.483821E-1	8.903234E-1	8.633085E-1	8.772038E-1	8.721567E-1	8.281188E-1	8.631650E-1	8.617716E-1	9.054386E-1	8.954493E-1	8.230976E-1	8.939860E-1	8.899311E-1	8.954006E-1	8.592266E-1	8.979850E-1	8.618472E-1	8.829294E-1	8.606308E-1	9.571485E-1
2.849040E+2	1.086671E+0	1.013483E+0	1.034841E+0	1.082066E+0	1.062673E+0	1.105773E+0	1.038052E+0	1.088813E+0	1.091173E+0	1.051591E+0	1.078062E+0	1.023527E+0	1.042270E+0	1.024155E+0	1.099757E+0	1.037628E+0	1.007914E+0	1.067441E+0	1.068316E+0	1.072367E+0	1.104122E+0	1.046581E+0	9.894077E-1	9.723509E-1	1.073480E+0	1.012804E+0	1.033375E+0	1.012541E+0	1.030659E+0	1.048503E+0	1.058066E+0	1.022598E+0	1.058000E+0	1.024674E+0	1.049753E+0	9.263019E-1	1.050417E+0	1.051337E+0	1.003795E+0	1.036838E+0	1.040382E+0	1.023319E+0	1.025353E+0	1.023067E+0	1.070851E+0	9.985566E-1	1.039913E+0	1.029758E+0	1.039047E+0	1.031687E+0	1.073301E+0	1.063196E+0	1.024208E+0	1.077448E+0	1.041305E+0	1.031959E+0	1.078314E+0	1.011120E+0	1.033144E+0	1.024643E+0	1.020464E+0	1.046851E+0	9.984379E-1	1.082449E+0	1.069334E+0	1.009427E+0	1.035878E+0	1.085419E+0	1.034338E+0	1.026724E+0	1.070359E+0	9.982163E-1	1.006133E+0	1.054179E+0	1.006857E+0	1.039133E+0	1.079049E+0	1.015099E+0	1.025111E+0	1.048976E+0	9.978346E-1	1.072706E+0	1.007318E+0	1.032291E+0	1.037724E+0	1.096683E+0	1.000309E+0	1.063718E+0	1.032764E+0	1.076852E+0	1.037268E+0	1.042938E+0	1.061749E+0	1.116248E+0	1.049221E+0	9.636459E-1	1.052869E+0	1.061026E+0	1.048461E+0	1.022612E+0	1.023411E+0	1.029815E+0	1.047122E+0	1.054332E+0	1.019740E+0	1.061537E+0	9.838846E-1	1.074254E+0	1.019993E+0	1.032763E+0	1.044726E+0	1.033603E+0	1.047807E+0	1.042831E+0	1.090030E+0	1.036402E+0	9.764627E-1	1.098199E+0	1.024296E+0	1.040738E+0	1.063287E+0	1.072538E+0	1.078453E+0	1.048477E+0	1.073756E+0	1.100518E+0	9.985799E-1	9.931406E-1	1.079497E+0	1.030781E+0	1.000275E+0	1.024620E+0	1.011695E+0	1.093187E+0	1.033790E+0	1.040251E+0	1.092156E+0	1.027895E+0	1.028048E+0	9.899524E-1	1.043067E+0	1.115663E+0	1.085538E+0	1.058257E+0	1.037075E+0	1.078258E+0	1.020066E+0	1.049335E+0	1.015055E+0	1.015760E+0	1.018061E+0	1.040388E+0	1.041166E+0	1.004344E+0	1.073718E+0	1.017384E+0	1.018504E+0	1.047927E+0	1.038594E+0	1.078537E+0	1.000320E+0	1.071943E+0	1.080611E+0	1.036395E+0	1.027018E+0	1.085354E+0	1.066324E+0	1.001078E+0	1.078792E+0	1.011390E+0
2.850010E+2	9.400532E-1	9.626646E-1	8.948090E-1	8.836943E-1	9.470763E-1	9.506377E-1	9.113508E-1	9.209884E-1	8.875689E-1	8.989641E-1	8.923214E-1	8.990124E-1	9.249407E-1	8.845847E-1	9.447689E-1	8.754246E-1	8.814894E-1	8.970748E-1	8.774941E-1	9.198793E-1	9.259091E-1	8.951210E-1	8.602213E-1	9.216459E-1	9.178670E-1	8.853068E-1	8.765907E-1	8.491241E-1	8.324840E-1	9.062680E-1	8.807523E-1	8.618248E-1	8.618247E-1	9.067227E-1	9.000164E-1	8.316077E-1	8.945586E-1	9.169752E-1	9.120885E-1	8.493412E-1	8.691405E-1	8.803683E-1	8.823170E-1	8.968841E-1	9.067666E-1	8.898171E-1	9.024919E-1	8.332986E-1	9.364893E-1	8.823209E-1	8.952442E-1	9.446595E-1	9.127888E-1	8.995157E-1	8.841065E-1	8.576669E-1	9.199708E-1	9.215095E-1	9.310895E-1	9.167274E-1	8.567360E-1	8.650280E-1	8.475971E-1	8.986897E-1	9.080287E-1	8.339849E-1	8.930274E-1	8.895611E-1	8.103356E-1	9.421756E-1	8.766506E-1	9.239100E-1	9.591972E-1	8.815586E-1	9.022495E-1	8.842937E-1	8.929194E-1	9.120837E-1	8.949132E-1	9.396383E-1	8.869307E-1	8.880667E-1	8.989148E-1	8.654710E-1	8.731314E-1	9.288973E-1	9.004977E-1	8.291611E-1	8.832488E-1	8.950553E-1	8.497949E-1	9.104277E-1	9.352044E-1	8.968248E-1	9.032835E-1	8.627478E-1	9.204906E-1	8.772721E-1	9.237022E-1	8.638822E-1	9.175227E-1	9.034616E-1	9.241069E-1	9.070017E-1	9.277856E-1	9.101231E-1	8.732825E-1	8.962937E-1	8.874775E-1	8.747478E-1	9.467030E-1	8.910585E-1	8.773541E-1	8.927502E-1	8.839399E-1	9.036702E-1	9.349817E-1	8.908086E-1	9.071915E-1	9.072682E-1	8.800422E-1	8.488190E-1	9.328031E-1	9.356494E-1	8.712007E-1	9.425131E-1	8.808903E-1	8.886681E-1	8.849103E-1	9.014061E-1	9.189576E-1	9.102084E-1	8.439040E-1	9.437908E-1	8.781807E-1	9.162024E-1	9.158046E-1	8.804356E-1	8.565032E-1	8.955041E-1	9.661820E-1	8.656084E-1	9.242514E-1	9.332030E-1	9.131787E-1	9.435613E-1	9.018932E-1	9.223486E-1	9.407871E-1	8.944063E-1	9.173199E-1	8.958173E-1	9.084285E-1	9.431661E-1	9.331080E-1	9.016147E-1	8.828343E-1	8.847380E-1	9.438642E-1	8.698465E-1	8.829643E-1	9.357057E-1	8.801724E-1	9.084261E-1	9.091498E-1	9.139521E-1	9.270426E-1	9.522177E-1	8.591100E-1	1.012995E+0
2.851030E+2	8.298135E-1	8.254098E-1	8.368664E-1	7.702204E-1	8.413950E-1	8.160759E-1	8.178049E-1	8.291237E-1	8.457865E-1	8.475142E-1	8.649837E-1	8.385886E-1	8.680978E-1	8.165631E-1	8.331242E-1	8.452273E-1	8.288660E-1	8.462713E-1	8.424197E-1	8.488977E-1	8.658728E-1	8.043649E-1	8.199641E-1	8.251917E-1	8.246016E-1	8.050066E-1	8.304016E-1	8.011955E-1	8.147902E-1	7.840484E-1	8.318164E-1	8.409084E-1	8.469605E-1	8.463861E-1	8.128517E-1	7.785951E-1	8.451235E-1	8.331746E-1	7.550821E-1	8.542563E-1	8.495401E-1	8.127714E-1	8.601108E-1	8.099132E-1	8.164189E-1	8.227050E-1	8.316232E-1	8.415730E-1	8.042751E-1	8.390091E-1	8.038776E-1	8.450743E-1	8.380834E-1	8.358452E-1	8.340276E-1	8.279499E-1	8.940167E-1	8.111226E-1	7.976914E-1	8.377326E-1	8.102265E-1	7.856089E-1	7.987388E-1	8.388568E-1	8.290107E-1	8.479836E-1	8.445662E-1	8.273688E-1	7.905343E-1	8.414837E-1	7.578754E-1	7.992483E-1	8.465559E-1	8.226681E-1	8.122406E-1	8.267224E-1	8.507991E-1	8.389963E-1	8.660560E-1	8.827567E-1	7.975298E-1	8.281541E-1	8.404403E-1	7.742632E-1	8.415240E-1	8.309357E-1	8.150545E-1	7.927081E-1	8.402379E-1	8.144587E-1	8.239442E-1	8.164205E-1	8.621762E-1	8.496325E-1	8.231222E-1	8.284976E-1	8.431878E-1	8.220942E-1	8.366514E-1	8.192375E-1	8.292019E-1	8.547783E-1	8.474374E-1	7.905542E-1	7.885861E-1	8.317534E-1	8.398229E-1	8.910067E-1	8.419771E-1	7.827824E-1	8.432074E-1	8.193883E-1	8.694695E-1	8.773041E-1	8.312800E-1	8.183290E-1	8.173877E-1	8.694215E-1	8.220945E-1	8.047681E-1	8.529642E-1	7.993433E-1	8.695908E-1	7.808958E-1	8.313202E-1	7.914601E-1	8.057456E-1	8.235565E-1	8.282640E-1	8.187606E-1	8.321699E-1	8.315793E-1	8.683899E-1	8.351718E-1	8.610440E-1	8.433697E-1	7.969859E-1	8.967395E-1	9.084215E-1	8.289190E-1	8.742269E-1	8.383432E-1	7.863632E-1	8.622942E-1	8.379423E-1	8.538711E-1	8.368218E-1	8.386559E-1	8.349394E-1	8.464180E-1	8.242896E-1	7.913207E-1	8.801935E-1	8.097308E-1	8.704704E-1	8.398779E-1	8.539162E-1	8.239405E-1	8.164243E-1	8.664936E-1	8.286531E-1	8.327274E-1	8.660684E-1	8.536246E-1	8.085863E-1	8.462241E-1	8.331697E-1	8.087287E-1	8.489502E-1	8.765473E-1
2.852020E+2	7.423091E-1	8.167940E-1	8.060607E-1	7.845842E-1	7.852472E-1	7.622169E-1	7.607536E-1	8.254302E-1	8.114493E-1	7.781920E-1	7.853101E-1	7.885117E-1	7.322517E-1	7.321444E-1	7.650640E-1	7.411316E-1	7.519710E-1	7.696360E-1	7.606400E-1	7.306936E-1	7.721129E-1	7.448299E-1	7.368487E-1	7.897972E-1	7.709504E-1	7.405733E-1	7.558576E-1	7.603727E-1	7.439634E-1	7.464544E-1	7.409646E-1	7.848701E-1	6.941504E-1	7.962439E-1	7.749272E-1	7.254634E-1	7.178538E-1	7.742789E-1	7.571742E-1	7.561020E-1	7.061298E-1	7.839038E-1	8.427003E-1	7.908511E-1	8.042972E-1	7.560475E-1	8.039826E-1	7.385447E-1	7.784149E-1	7.863767E-1	7.730690E-1	7.634767E-1	7.609706E-1	7.797266E-1	7.243412E-1	7.911968E-1	8.044433E-1	7.861419E-1	7.338036E-1	7.394941E-1	7.375112E-1	7.165169E-1	7.197114E-1	7.935368E-1	7.812886E-1	7.794693E-1	7.640910E-1	7.935586E-1	7.452426E-1	7.569033E-1	7.412552E-1	7.160702E-1	7.953785E-1	7.687502E-1	7.729113E-1	8.257856E-1	7.252598E-1	7.581571E-1	7.880924E-1	7.980162E-1	7.484813E-1	8.043891E-1	7.304083E-1	7.203150E-1	7.692464E-1	7.576905E-1	7.485235E-1	7.546310E-1	7.772557E-1	7.759152E-1	7.584098E-1	8.470916E-1	7.744267E-1	7.491703E-1	7.650526E-1	7.298025E-1	7.356151E-1	7.660766E-1	7.971856E-1	7.551949E-1	7.746703E-1	7.884886E-1	7.701218E-1	7.563345E-1	7.757352E-1	7.891521E-1	7.435247E-1	7.676657E-1	7.468323E-1	7.325418E-1	7.499048E-1	7.748543E-1	7.524539E-1	8.055829E-1	7.657288E-1	8.086161E-1	7.646564E-1	7.813878E-1	7.758895E-1	7.669141E-1	8.003549E-1	7.434020E-1	7.957760E-1	7.803582E-1	7.958942E-1	7.830098E-1	7.302436E-1	7.706000E-1	7.876763E-1	7.893355E-1	7.952341E-1	7.594096E-1	8.079703E-1	7.899356E-1	7.642900E-1	7.944709E-1	8.215290E-1	7.760677E-1	7.505682E-1	7.544407E-1	7.752903E-1	7.542352E-1	8.231515E-1	7.930411E-1	7.107796E-1	7.673819E-1	7.874758E-1	7.287066E-1	7.650926E-1	7.936479E-1	7.505434E-1	7.898842E-1	8.278885E-1	7.616770E-1	7.825419E-1	7.617058E-1	7.773668E-1	7.796802E-1	7.635473E-1	7.815605E-1	7.548449E-1	7.579740E-1	7.935875E-1	8.028131E-1	7.917072E-1	8.005061E-1	7.304176E-1	7.671183E-1	7.356926E-1	7.943446E-1
2.853020E+2	5.753758E-1	6.218884E-1	5.944766E-1	5.911527E-1	6.340342E-1	6.336948E-1	5.881818E-1	5.867661E-1	6.092327E-1	5.582010E-1	6.119341E-1	5.987714E-1	6.381797E-1	6.113806E-1	6.127326E-1	6.238725E-1	5.908162E-1	6.382488E-1	6.252388E-1	6.646116E-1	5.995547E-1	5.891764E-1	5.990365E-1	6.186803E-1	5.944969E-1	5.905438E-1	6.388746E-1	5.982825E-1	5.567804E-1	5.819892E-1	5.748118E-1	5.973872E-1	6.344852E-1	6.273177E-1	6.229570E-1	6.498814E-1	5.910369E-1	5.889468E-1	6.002598E-1	6.335685E-1	6.116079E-1	6.115649E-1	6.079248E-1	6.432774E-1	6.516426E-1	6.216997E-1	6.043839E-1	6.410017E-1	6.016684E-1	6.204258E-1	6.585028E-1	6.052030E-1	5.961872E-1	6.645550E-1	5.983741E-1	6.251893E-1	6.330873E-1	6.315501E-1	6.527031E-1	6.139800E-1	6.153335E-1	6.066731E-1	6.258250E-1	6.057177E-1	6.106558E-1	5.777364E-1	6.070216E-1	5.790782E-1	6.018430E-1	6.269821E-1	5.879514E-1	5.910634E-1	6.158311E-1	5.611556E-1	6.182180E-1	5.935324E-1	6.065710E-1	6.498874E-1	6.142899E-1	6.406564E-1	6.017907E-1	5.936069E-1	6.064962E-1	5.959710E-1	5.546523E-1	6.538168E-1	5.777435E-1	6.051937E-1	6.725116E-1	6.040580E-1	6.148116E-1	5.928348E-1	6.131682E-1	6.259923E-1	6.302820E-1	6.262413E-1	5.854769E-1	6.248268E-1	6.303343E-1	6.128958E-1	6.226948E-1	6.201197E-1	6.026901E-1	5.988732E-1	6.278422E-1	5.786725E-1	5.553112E-1	5.944612E-1	6.329267E-1	6.569348E-1	6.135123E-1	6.030758E-1	6.084718E-1	6.435434E-1	6.117208E-1	5.776469E-1	6.102776E-1	6.067040E-1	6.232131E-1	6.061488E-1	6.402597E-1	5.862796E-1	5.664988E-1	6.483461E-1	5.959533E-1	6.254832E-1	6.822079E-1	5.732311E-1	5.770146E-1	5.918393E-1	6.346876E-1	6.192112E-1	6.306618E-1	6.361000E-1	5.913400E-1	6.049902E-1	6.233216E-1	5.991677E-1	6.075134E-1	5.813640E-1	6.266171E-1	6.013745E-1	6.559596E-1	6.013977E-1	5.919747E-1	6.370322E-1	6.091410E-1	5.977059E-1	5.987885E-1	6.008000E-1	6.044394E-1	6.302660E-1	6.347895E-1	6.034644E-1	6.419209E-1	6.321014E-1	6.175239E-1	6.065883E-1	5.895249E-1	5.978423E-1	6.167191E-1	6.362710E-1	6.270900E-1	5.879794E-1	5.981970E-1	5.966813E-1	6.535567E-1	5.977790E-1	6.419005E-1	6.525505E-1
2.854040E+2	3.954354E-1	3.622176E-1	4.090946E-1	3.748591E-1	4.025483E-1	4.211000E-1	3.967348E-1	3.933424E-1	3.927646E-1	3.742357E-1	3.973595E-1	3.753991E-1	4.316970E-1	3.878803E-1	4.099761E-1	4.035031E-1	4.089881E-1	3.919980E-1	4.133971E-1	3.863496E-1	4.185574E-1	3.839225E-1	4.159697E-1	3.924404E-1	4.278176E-1	4.253198E-1	4.319835E-1	3.837220E-1	4.319392E-1	4.328214E-1	3.905784E-1	4.270722E-1	4.032672E-1	3.896554E-1	4.089178E-1	3.639461E-1	3.738209E-1	3.993424E-1	4.272123E-1	4.261974E-1	3.958870E-1	4.099503E-1	4.124230E-1	4.128961E-1	4.472760E-1	4.034180E-1	4.181476E-1	4.107708E-1	4.396819E-1	3.990213E-1	4.025076E-1	3.873610E-1	3.853552E-1	4.053333E-1	4.331539E-1	3.896760E-1	4.269583E-1	3.743449E-1	4.099866E-1	4.235938E-1	3.869779E-1	4.061385E-1	4.010409E-1	3.811362E-1	4.155510E-1	4.019143E-1	4.097379E-1	4.074713E-1	3.815388E-1	4.054821E-1	4.048781E-1	4.220977E-1	4.053778E-1	4.254923E-1	3.804589E-1	4.102516E-1	4.207216E-1	4.261465E-1	3.878447E-1	4.353451E-1	3.829263E-1	3.914496E-1	4.143908E-1	4.273643E-1	4.006767E-1	3.937420E-1	3.865117E-1	3.979636E-1	3.930547E-1	4.303416E-1	3.836911E-1	4.287862E-1	4.137877E-1	4.304819E-1	3.927324E-1	4.144897E-1	4.167382E-1	4.134001E-1	4.247624E-1	4.096181E-1	4.403917E-1	4.130848E-1	4.120586E-1	4.131948E-1	3.828319E-1	4.379091E-1	3.593874E-1	4.232216E-1	4.109227E-1	3.746870E-1	3.997758E-1	4.122331E-1	3.631698E-1	4.076571E-1	4.102876E-1	4.072000E-1	3.875482E-1	4.147349E-1	4.214348E-1	3.887822E-1	4.280847E-1	4.028711E-1	4.299449E-1	3.971110E-1	4.107411E-1	4.171869E-1	4.110454E-1	3.634377E-1	4.278924E-1	3.816613E-1	4.134369E-1	4.076031E-1	4.100342E-1	4.054144E-1	4.617961E-1	4.171811E-1	4.027930E-1	3.874271E-1	4.058511E-1	4.181501E-1	4.034465E-1	4.296575E-1	4.283916E-1	4.291356E-1	3.989075E-1	4.176734E-1	4.018269E-1	4.344969E-1	3.878073E-1	4.096570E-1	4.058026E-1	3.871562E-1	4.320404E-1	3.764322E-1	4.113113E-1	4.159894E-1	3.776035E-1	4.027160E-1	3.769889E-1	3.793220E-1	4.017980E-1	4.206393E-1	4.257354E-1	3.956159E-1	3.976058E-1	3.537179E-1	3.963304E-1	4.276759E-1	4.189954E-1	4.629706E-1
2.855030E+2	3.018648E-1	2.796396E-1	3.126979E-1	2.958590E-1	3.510260E-1	3.100795E-1	2.723551E-1	2.920888E-1	2.736259E-1	2.922149E-1	3.136699E-1	3.056989E-1	2.751899E-1	2.587796E-1	3.077361E-1	3.106493E-1	2.685752E-1	2.866355E-1	3.081556E-1	2.666768E-1	3.189359E-1	2.724414E-1	3.296929E-1	3.018712E-1	2.862525E-1	3.063565E-1	3.237530E-1	3.271924E-1	2.747819E-1	3.314459E-1	3.037453E-1	3.173431E-1	3.040052E-1	2.787425E-1	2.832679E-1	2.991630E-1	3.251235E-1	3.037106E-1	2.948169E-1	3.191207E-1	2.729634E-1	3.092254E-1	3.108076E-1	3.087856E-1	3.030895E-1	3.270300E-1	2.955930E-1	3.240688E-1	2.956253E-1	2.829601E-1	3.113554E-1	3.369434E-1	2.827343E-1	2.910460E-1	3.045773E-1	3.206140E-1	3.123827E-1	3.200226E-1	3.279152E-1	3.281391E-1	2.967478E-1	2.977452E-1	3.108561E-1	3.055964E-1	2.880187E-1	2.964614E-1	3.101106E-1	2.567802E-1	2.922627E-1	3.040771E-1	2.676648E-1	3.172626E-1	2.934388E-1	3.031128E-1	2.916158E-1	2.904143E-1	3.140520E-1	3.042349E-1	2.950263E-1	3.086104E-1	3.088426E-1	2.968120E-1	2.683420E-1	3.317212E-1	2.742181E-1	3.186353E-1	3.231688E-1	2.864850E-1	3.340407E-1	3.119819E-1	2.921276E-1	3.146043E-1	3.341970E-1	3.036379E-1	2.898256E-1	2.880734E-1	2.856957E-1	3.056697E-1	3.257525E-1	3.139971E-1	2.977379E-1	3.093210E-1	2.914172E-1	2.746322E-1	3.244735E-1	3.045273E-1	2.968022E-1	2.994471E-1	2.888676E-1	3.058223E-1	3.006162E-1	3.108637E-1	3.126776E-1	3.174082E-1	3.117437E-1	2.947014E-1	3.087906E-1	2.768268E-1	2.904081E-1	3.074735E-1	2.840057E-1	2.848117E-1	3.122827E-1	3.449176E-1	3.072126E-1	2.995260E-1	3.132691E-1	3.070100E-1	2.971523E-1	3.018485E-1	3.057248E-1	2.815655E-1	2.957445E-1	3.255169E-1	2.823041E-1	3.096421E-1	3.046996E-1	2.951258E-1	3.279573E-1	3.008438E-1	3.089782E-1	3.180491E-1	2.930478E-1	3.010609E-1	2.868027E-1	2.859544E-1	3.095787E-1	3.018123E-1	3.125958E-1	3.090376E-1	3.295029E-1	3.243852E-1	3.063978E-1	3.009949E-1	3.115488E-1	3.013347E-1	2.807671E-1	3.223696E-1	3.001054E-1	2.932487E-1	2.738458E-1	3.126164E-1	3.355171E-1	3.174152E-1	3.210918E-1	3.063252E-1	3.074572E-1	3.480198E-1	3.546568E-1	3.013453E-1
2.856030E+2	2.437158E-1	3.041021E-1	2.563233E-1	2.872104E-1	2.802300E-1	2.448856E-1	2.646300E-1	2.580930E-1	2.841163E-1	2.710532E-1	3.012847E-1	2.575269E-1	2.994147E-1	2.595247E-1	2.787229E-1	2.703294E-1	2.952076E-1	2.718244E-1	2.643551E-1	2.792533E-1	3.057780E-1	2.828083E-1	2.795749E-1	2.713141E-1	2.847721E-1	3.017731E-1	2.619638E-1	2.815940E-1	2.652311E-1	2.992742E-1	3.026970E-1	2.739967E-1	2.616013E-1	2.641902E-1	3.050430E-1	3.014984E-1	3.209134E-1	2.835645E-1	2.839163E-1	2.770221E-1	2.760412E-1	2.894199E-1	3.069425E-1	3.050395E-1	2.917050E-1	2.814959E-1	2.861682E-1	2.714589E-1	3.003839E-1	2.823812E-1	2.538822E-1	2.947708E-1	3.031392E-1	2.867168E-1	2.702854E-1	2.835897E-1	3.094349E-1	2.717432E-1	3.200258E-1	2.637536E-1	2.752517E-1	2.600962E-1	2.718990E-1	2.804934E-1	2.728430E-1	2.679776E-1	2.769574E-1	2.897299E-1	2.695212E-1	2.972915E-1	2.884325E-1	2.802079E-1	2.847907E-1	2.627227E-1	2.778587E-1	2.874081E-1	2.886940E-1	2.976112E-1	2.907620E-1	2.776894E-1	2.780075E-1	3.112092E-1	2.632742E-1	2.865725E-1	2.923671E-1	2.533207E-1	2.800030E-1	2.914451E-1	2.795897E-1	2.905242E-1	2.952686E-1	2.678741E-1	2.750119E-1	2.859354E-1	2.644071E-1	2.573491E-1	2.857118E-1	2.711469E-1	2.824891E-1	2.958091E-1	2.902215E-1	2.701180E-1	2.676252E-1	2.740045E-1	2.717360E-1	2.915739E-1	3.049102E-1	2.591130E-1	2.696497E-1	2.626496E-1	2.995115E-1	2.838081E-1	2.833108E-1	2.864936E-1	2.801660E-1	3.105701E-1	2.739375E-1	2.683989E-1	3.117800E-1	2.683486E-1	2.977382E-1	2.801421E-1	2.788216E-1	2.830140E-1	2.564429E-1	3.155233E-1	2.602621E-1	2.690422E-1	2.855273E-1	2.861633E-1	2.566452E-1	2.792971E-1	2.634457E-1	2.662324E-1	2.687686E-1	2.671716E-1	2.915388E-1	2.967699E-1	2.952837E-1	3.018437E-1	2.681409E-1	2.678601E-1	2.653942E-1	3.006146E-1	2.923322E-1	3.112345E-1	2.728426E-1	3.036071E-1	2.741596E-1	2.710521E-1	2.893231E-1	3.015543E-1	2.939482E-1	2.768364E-1	2.913908E-1	2.948075E-1	2.760670E-1	2.771747E-1	3.003865E-1	2.793099E-1	3.006613E-1	3.150087E-1	2.760617E-1	2.745378E-1	2.559724E-1	2.797723E-1	2.886159E-1	2.822764E-1	3.227909E-1	2.187405E-1
2.858060E+2	3.291242E-1	3.258984E-1	3.285293E-1	2.826544E-1	3.213727E-1	2.948483E-1	3.002216E-1	2.967008E-1	3.126721E-1	2.818589E-1	3.172085E-1	2.819884E-1	3.085747E-1	3.103161E-1	3.111738E-1	3.347932E-1	3.070098E-1	3.090274E-1	3.264740E-1	2.750976E-1	3.252573E-1	3.253104E-1	3.339127E-1	3.273417E-1	3.427422E-1	3.010207E-1	3.225017E-1	3.464699E-1	3.062048E-1	3.424211E-1	3.164999E-1	3.156610E-1	3.152533E-1	3.298596E-1	3.244681E-1	3.061349E-1	3.048410E-1	3.220977E-1	3.174232E-1	3.102429E-1	3.086282E-1	3.281182E-1	3.196025E-1	2.988735E-1	3.213824E-1	3.135172E-1	3.269036E-1	3.054850E-1	3.402826E-1	3.209284E-1	3.316115E-1	3.276292E-1	3.248895E-1	3.198232E-1	3.332760E-1	3.097093E-1	3.171885E-1	3.044961E-1	2.974721E-1	3.068301E-1	3.136399E-1	3.043539E-1	3.106720E-1	3.185322E-1	3.446980E-1	3.168430E-1	3.413581E-1	3.452601E-1	3.027896E-1	3.344248E-1	2.880096E-1	3.197516E-1	3.132621E-1	3.187993E-1	2.968396E-1	3.309670E-1	3.225165E-1	3.206597E-1	3.114352E-1	3.215742E-1	3.527060E-1	3.156013E-1	3.159756E-1	3.502325E-1	3.202162E-1	3.154507E-1	3.218730E-1	3.177285E-1	3.111953E-1	3.050262E-1	3.306441E-1	3.194562E-1	3.281253E-1	3.286939E-1	3.121697E-1	3.228960E-1	3.209800E-1	3.073963E-1	3.091708E-1	3.148398E-1	3.274828E-1	2.907175E-1	3.130020E-1	3.077749E-1	3.136827E-1	3.003377E-1	3.215656E-1	3.144870E-1	3.178273E-1	3.053282E-1	3.270113E-1	3.395680E-1	3.151262E-1	3.193019E-1	3.255200E-1	2.970373E-1	3.154693E-1	3.290548E-1	3.111369E-1	3.013540E-1	3.368744E-1	3.200591E-1	3.352998E-1	3.174250E-1	3.052609E-1	3.103167E-1	3.188506E-1	3.256781E-1	3.210936E-1	3.023545E-1	3.288842E-1	3.045451E-1	3.400195E-1	3.211737E-1	3.367371E-1	3.078684E-1	3.235356E-1	2.982747E-1	3.284491E-1	3.108066E-1	3.330417E-1	2.860150E-1	3.234448E-1	2.905802E-1	3.443459E-1	3.119750E-1	2.889930E-1	2.999938E-1	3.077166E-1	3.302701E-1	3.195148E-1	2.986454E-1	3.047217E-1	3.115344E-1	3.148869E-1	3.242628E-1	3.170783E-1	3.018191E-1	3.012061E-1	2.876884E-1	3.024704E-1	3.303061E-1	2.981286E-1	3.236645E-1	2.997650E-1	3.251664E-1	3.356008E-1	3.359445E-1	3.318984E-1	3.222133E-1
2.860070E+2	4.677400E-1	4.953063E-1	5.074801E-1	4.540894E-1	4.684352E-1	4.681370E-1	4.660418E-1	4.964112E-1	4.601554E-1	4.276136E-1	4.832252E-1	4.714820E-1	4.889347E-1	4.438306E-1	4.624106E-1	4.869605E-1	4.687226E-1	4.742711E-1	4.549478E-1	4.884184E-1	4.697009E-1	5.175597E-1	5.187051E-1	4.496489E-1	4.897461E-1	5.276175E-1	4.977630E-1	5.160141E-1	4.853512E-1	5.415245E-1	5.177103E-1	5.108619E-1	4.612293E-1	4.964628E-1	5.287795E-1	4.521129E-1	4.912292E-1	4.826947E-1	5.055399E-1	4.792321E-1	4.809260E-1	4.570104E-1	5.260802E-1	4.616695E-1	4.696338E-1	5.122130E-1	5.014859E-1	5.071947E-1	5.450400E-1	4.687071E-1	5.067963E-1	4.768805E-1	4.871390E-1	4.902251E-1	4.813657E-1	5.180431E-1	5.085188E-1	4.788692E-1	5.143074E-1	5.180068E-1	4.483997E-1	4.771574E-1	4.884832E-1	4.965649E-1	5.174459E-1	5.110486E-1	4.811752E-1	4.958483E-1	5.089714E-1	4.960806E-1	4.865615E-1	4.764912E-1	4.796708E-1	4.631842E-1	4.848430E-1	4.913099E-1	4.765046E-1	5.236282E-1	5.005597E-1	4.997493E-1	4.916824E-1	5.023219E-1	4.628982E-1	4.790322E-1	4.790505E-1	5.274841E-1	5.108392E-1	4.612047E-1	4.774158E-1	4.510354E-1	4.835411E-1	4.938626E-1	4.543009E-1	4.716066E-1	4.541354E-1	4.663212E-1	4.815491E-1	4.530813E-1	4.789991E-1	5.009640E-1	5.052309E-1	4.842531E-1	4.740975E-1	4.992189E-1	4.687326E-1	4.720260E-1	4.700992E-1	4.825093E-1	4.753212E-1	4.701751E-1	4.999707E-1	4.783144E-1	5.018081E-1	4.921277E-1	4.658535E-1	4.936777E-1	4.710335E-1	5.113918E-1	4.958914E-1	5.067461E-1	4.702257E-1	4.629045E-1	4.715127E-1	4.813186E-1	4.873016E-1	4.887339E-1	5.027147E-1	4.704782E-1	4.489407E-1	4.581990E-1	4.984945E-1	4.882069E-1	5.126460E-1	4.871809E-1	5.081332E-1	4.717577E-1	4.591475E-1	5.022332E-1	4.753671E-1	4.912526E-1	4.611965E-1	4.848789E-1	4.727579E-1	5.177056E-1	4.978956E-1	4.847965E-1	4.975454E-1	4.765147E-1	4.936218E-1	4.683588E-1	5.180610E-1	4.466425E-1	4.926785E-1	5.147433E-1	5.218824E-1	4.709501E-1	4.962541E-1	4.689248E-1	4.782390E-1	5.027963E-1	4.773481E-1	5.018717E-1	4.843941E-1	4.451428E-1	4.901653E-1	4.772321E-1	4.953626E-1	4.772999E-1	5.287456E-1	4.880010E-1
2.862030E+2	7.235809E-1	6.804243E-1	6.889032E-1	6.176369E-1	6.614624E-1	7.021081E-1	6.832953E-1	6.529532E-1	6.689651E-1	6.776289E-1	6.855557E-1	6.382143E-1	6.599214E-1	6.484868E-1	7.053239E-1	6.761630E-1	6.462626E-1	6.556504E-1	7.032102E-1	6.861877E-1	7.051403E-1	6.353893E-1	6.492777E-1	6.884183E-1	6.918400E-1	6.400560E-1	6.574938E-1	6.692112E-1	6.520574E-1	6.708435E-1	6.626182E-1	6.677126E-1	6.862808E-1	6.885340E-1	7.110163E-1	6.543675E-1	6.947984E-1	6.457906E-1	6.856813E-1	6.199497E-1	6.715073E-1	6.936081E-1	7.065881E-1	6.600216E-1	6.391352E-1	6.773491E-1	7.112998E-1	6.891696E-1	7.070174E-1	6.601614E-1	6.520482E-1	6.818838E-1	6.559593E-1	6.777562E-1	6.200604E-1	6.889467E-1	6.727638E-1	6.745915E-1	6.691402E-1	6.917872E-1	6.759106E-1	6.693341E-1	6.596485E-1	6.640270E-1	7.217981E-1	6.557764E-1	6.853537E-1	6.753103E-1	6.708588E-1	6.852636E-1	6.871438E-1	6.869704E-1	6.717187E-1	6.785013E-1	6.617416E-1	6.874206E-1	6.571224E-1	6.825534E-1	6.347533E-1	7.007515E-1	6.747108E-1	7.110110E-1	6.745469E-1	6.699032E-1	6.645737E-1	6.668343E-1	6.787308E-1	6.355541E-1	6.677141E-1	6.809006E-1	6.407073E-1	6.953190E-1	6.693204E-1	7.148492E-1	6.809527E-1	6.601443E-1	7.100150E-1	7.087687E-1	6.936111E-1	6.856636E-1	7.347810E-1	6.518324E-1	6.971037E-1	6.382550E-1	6.395733E-1	6.777514E-1	6.779600E-1	6.874360E-1	6.539833E-1	6.958211E-1	6.851014E-1	6.752315E-1	7.000802E-1	6.791544E-1	6.754731E-1	6.491809E-1	6.621987E-1	6.960207E-1	7.173137E-1	6.886002E-1	6.673930E-1	6.572465E-1	6.837507E-1	6.684340E-1	6.762082E-1	6.850012E-1	6.614000E-1	6.303904E-1	7.144672E-1	6.498170E-1	6.920322E-1	6.467264E-1	7.149025E-1	6.695799E-1	6.586763E-1	6.691906E-1	6.733611E-1	6.740541E-1	6.944241E-1	6.494494E-1	6.701487E-1	6.181800E-1	6.581605E-1	6.952001E-1	6.879180E-1	6.835582E-1	6.701579E-1	6.646535E-1	6.996735E-1	7.040650E-1	7.221432E-1	7.115010E-1	6.709377E-1	7.025891E-1	6.716529E-1	6.672876E-1	6.719820E-1	6.909148E-1	7.178079E-1	6.603316E-1	6.939369E-1	6.706724E-1	7.122607E-1	6.920960E-1	6.988247E-1	7.126536E-1	6.265157E-1	6.377329E-1	6.665879E-1	6.988481E-1
2.864030E+2	8.993832E-1	8.246806E-1	8.710958E-1	8.427240E-1	8.222193E-1	8.581630E-1	8.648428E-1	8.934137E-1	8.695345E-1	8.212558E-1	8.545076E-1	7.957557E-1	8.509568E-1	8.165153E-1	8.293209E-1	8.307007E-1	8.428596E-1	8.794259E-1	8.729597E-1	8.446060E-1	8.667936E-1	8.409251E-1	7.961770E-1	8.235731E-1	8.471848E-1	8.067844E-1	8.128425E-1	8.205375E-1	8.097273E-1	8.413057E-1	8.186406E-1	8.273576E-1	8.355770E-1	8.342695E-1	7.916946E-1	8.550544E-1	8.784909E-1	8.433483E-1	8.301377E-1	7.976971E-1	8.523098E-1	7.826912E-1	8.027012E-1	8.492530E-1	8.486601E-1	8.685577E-1	8.492942E-1	8.621748E-1	8.542604E-1	8.434049E-1	8.674765E-1	8.368668E-1	8.735011E-1	8.533946E-1	8.713092E-1	8.665705E-1	8.650536E-1	8.529992E-1	8.775684E-1	8.239387E-1	8.165340E-1	8.420722E-1	7.897843E-1	8.525348E-1	8.551650E-1	8.342158E-1	8.227939E-1	8.614795E-1	8.355598E-1	8.641321E-1	8.330957E-1	8.264759E-1	8.071286E-1	7.646241E-1	8.336235E-1	8.012064E-1	8.549890E-1	8.428038E-1	8.426911E-1	9.031731E-1	8.519034E-1	8.715401E-1	8.611686E-1	8.491012E-1	8.695256E-1	8.377683E-1	8.056903E-1	8.097685E-1	8.247577E-1	8.794488E-1	8.296006E-1	8.286242E-1	7.861727E-1	8.124943E-1	8.351528E-1	8.377884E-1	8.328740E-1	8.231559E-1	8.281316E-1	8.055569E-1	8.719717E-1	8.547630E-1	8.640863E-1	8.416201E-1	8.550116E-1	8.586647E-1	8.652611E-1	8.506360E-1	8.302939E-1	8.060237E-1	8.710437E-1	8.406363E-1	8.783104E-1	8.105755E-1	8.394748E-1	8.026604E-1	8.177100E-1	8.682964E-1	8.223975E-1	8.137792E-1	8.108692E-1	8.720420E-1	8.764997E-1	8.766880E-1	8.742987E-1	8.332119E-1	8.692946E-1	7.849575E-1	8.514810E-1	8.102006E-1	8.333507E-1	8.565290E-1	8.909939E-1	8.231329E-1	8.179847E-1	8.466651E-1	8.951874E-1	8.623000E-1	8.769151E-1	7.968065E-1	8.886724E-1	8.555250E-1	8.412260E-1	8.864264E-1	8.579096E-1	8.546019E-1	8.324727E-1	8.636147E-1	8.188248E-1	8.548615E-1	8.469834E-1	8.688886E-1	8.724431E-1	8.026657E-1	8.721123E-1	8.089415E-1	8.267294E-1	8.629588E-1	8.799525E-1	8.178540E-1	8.086396E-1	8.462211E-1	8.635096E-1	8.581329E-1	8.417004E-1	8.622555E-1	8.808516E-1	8.677658E-1	9.376174E-1	9.380396E-1
2.866200E+2	8.868750E-1	8.886377E-1	8.696248E-1	8.333814E-1	8.843205E-1	8.786191E-1	9.037402E-1	8.637955E-1	9.128181E-1	8.702790E-1	9.422986E-1	8.436814E-1	8.840469E-1	8.800589E-1	9.144897E-1	8.791411E-1	9.471342E-1	8.996774E-1	8.747389E-1	9.026860E-1	9.125999E-1	9.059616E-1	9.526166E-1	9.202711E-1	8.654944E-1	8.736095E-1	8.790887E-1	9.277669E-1	8.815478E-1	9.313283E-1	8.842923E-1	8.918802E-1	9.184650E-1	8.937730E-1	9.180164E-1	9.217331E-1	8.677910E-1	9.377014E-1	8.760777E-1	8.533763E-1	9.242575E-1	9.402663E-1	9.014812E-1	8.816864E-1	8.793717E-1	8.978961E-1	9.140487E-1	9.164314E-1	8.999592E-1	9.091652E-1	8.755997E-1	9.865526E-1	8.616643E-1	9.158449E-1	9.168513E-1	8.866902E-1	9.385001E-1	9.033446E-1	8.907484E-1	8.815449E-1	8.668543E-1	9.086452E-1	9.120530E-1	8.602632E-1	9.501816E-1	8.973723E-1	9.423105E-1	8.569813E-1	8.666355E-1	9.105479E-1	9.118083E-1	8.954092E-1	8.862036E-1	8.645277E-1	8.654340E-1	8.838371E-1	8.632130E-1	9.250088E-1	8.956634E-1	9.211921E-1	8.930263E-1	8.861478E-1	8.815296E-1	9.110711E-1	8.705074E-1	8.965221E-1	8.512305E-1	8.768578E-1	8.893418E-1	8.972092E-1	8.522141E-1	8.344736E-1	8.829090E-1	9.063896E-1	8.507953E-1	8.708317E-1	9.077633E-1	9.331536E-1	9.420153E-1	8.720077E-1	8.809426E-1	9.101023E-1	8.994262E-1	9.102325E-1	9.216045E-1	9.469823E-1	9.214326E-1	9.363141E-1	9.095694E-1	9.160316E-1	8.781163E-1	9.334996E-1	9.470625E-1	8.978856E-1	8.480056E-1	8.504406E-1	8.637894E-1	8.988968E-1	8.357763E-1	9.380052E-1	9.022097E-1	8.865599E-1	9.017465E-1	9.288782E-1	9.305571E-1	8.968653E-1	9.633283E-1	8.698461E-1	8.849008E-1	8.658759E-1	9.419105E-1	8.829783E-1	9.328868E-1	8.679074E-1	9.193854E-1	8.515810E-1	9.396302E-1	9.093511E-1	8.872079E-1	9.052410E-1	8.884799E-1	9.382876E-1	9.234219E-1	8.947120E-1	8.855686E-1	8.681283E-1	9.048279E-1	8.952450E-1	8.755554E-1	9.435818E-1	9.223154E-1	9.025466E-1	9.065987E-1	8.504384E-1	9.374753E-1	8.419163E-1	8.528742E-1	9.082509E-1	9.360806E-1	8.888724E-1	9.186005E-1	9.105923E-1	8.828389E-1	8.983220E-1	8.809387E-1	9.046442E-1	8.689675E-1	8.748216E-1	8.693172E-1	9.989547E-1
2.868030E+2	1.124785E+0	1.023569E+0	1.071237E+0	1.080853E+0	1.099230E+0	1.105277E+0	1.042636E+0	1.103702E+0	1.071041E+0	1.091881E+0	1.066558E+0	1.028131E+0	1.077604E+0	1.072318E+0	1.069136E+0	1.117423E+0	1.025054E+0	1.116395E+0	1.054565E+0	1.094900E+0	1.113549E+0	1.053793E+0	1.025188E+0	1.039016E+0	1.099410E+0	1.100565E+0	1.034834E+0	1.023355E+0	1.085634E+0	1.044840E+0	1.031704E+0	1.064685E+0	1.004835E+0	1.024578E+0	1.079008E+0	1.003307E+0	1.074723E+0	1.049469E+0	1.017453E+0	1.042046E+0	1.055134E+0	1.055923E+0	1.032261E+0	1.048329E+0	1.087045E+0	1.046252E+0	1.057704E+0	1.066040E+0	1.070773E+0	1.096265E+0	1.090706E+0	1.094002E+0	1.054009E+0	1.073749E+0	1.022906E+0	1.107996E+0	1.025694E+0	1.050811E+0	1.029387E+0	1.098827E+0	1.020012E+0	1.063241E+0	1.054453E+0	1.043098E+0	1.011631E+0	1.042687E+0	1.100176E+0	1.049120E+0	1.003096E+0	1.071188E+0	1.008956E+0	1.064902E+0	1.051665E+0	1.048892E+0	1.027889E+0	1.072250E+0	1.097182E+0	1.066390E+0	1.025013E+0	1.056512E+0	1.055110E+0	1.078781E+0	1.049622E+0	1.079622E+0	1.048638E+0	1.045196E+0	1.059151E+0	1.027661E+0	1.081128E+0	1.080042E+0	1.036968E+0	1.043169E+0	1.069463E+0	1.078752E+0	1.030140E+0	1.054323E+0	1.104044E+0	1.017176E+0	1.082664E+0	1.056231E+0	1.084177E+0	1.048565E+0	1.079168E+0	1.051561E+0	1.082115E+0	1.103676E+0	1.072492E+0	1.080028E+0	1.049172E+0	1.022409E+0	1.095281E+0	1.076986E+0	1.093090E+0	1.081274E+0	1.026322E+0	1.032478E+0	1.082441E+0	1.105037E+0	1.007858E+0	1.021949E+0	1.029834E+0	1.094683E+0	1.104685E+0	1.112022E+0	1.030297E+0	1.023362E+0	1.087182E+0	1.070047E+0	1.101043E+0	1.064548E+0	1.083532E+0	1.058399E+0	1.098822E+0	1.064472E+0	1.056312E+0	1.036344E+0	1.091641E+0	1.050019E+0	1.012253E+0	1.064103E+0	1.112208E+0	1.062431E+0	1.014551E+0	1.078359E+0	1.067850E+0	1.091460E+0	1.043281E+0	1.037553E+0	1.089775E+0	1.059855E+0	1.030867E+0	1.086566E+0	1.045734E+0	1.089403E+0	1.052818E+0	1.072884E+0	1.020800E+0	1.064687E+0	1.050674E+0	1.107867E+0	1.049233E+0	1.011436E+0	1.059624E+0	1.003749E+0	1.043794E+0	1.033468E+0	1.091372E+0	1.062378E+0	1.046916E+0	1.135274E+0
2.870190E+2	9.120088E-1	8.536070E-1	9.054781E-1	8.456800E-1	8.841959E-1	9.068964E-1	8.531462E-1	8.321455E-1	8.754936E-1	8.787115E-1	8.828786E-1	8.983287E-1	8.594488E-1	8.734972E-1	8.658426E-1	8.860859E-1	8.943144E-1	8.500372E-1	8.523276E-1	8.984049E-1	9.301838E-1	7.895177E-1	8.306646E-1	8.462564E-1	8.645556E-1	9.087333E-1	8.708962E-1	8.914656E-1	8.283339E-1	8.000065E-1	8.434712E-1	8.354344E-1	8.769257E-1	8.218414E-1	9.173867E-1	8.084724E-1	9.090478E-1	8.185982E-1	8.327032E-1	8.866923E-1	8.388219E-1	8.427946E-1	8.977128E-1	8.714577E-1	8.797427E-1	8.671148E-1	8.362324E-1	8.379128E-1	8.496255E-1	8.742101E-1	8.913807E-1	8.549850E-1	8.869971E-1	8.781526E-1	8.460906E-1	8.606733E-1	8.985583E-1	8.103366E-1	8.468112E-1	8.586702E-1	8.152135E-1	8.053203E-1	8.224026E-1	8.631277E-1	9.054138E-1	8.239319E-1	9.133535E-1	9.008292E-1	8.680070E-1	8.642427E-1	8.622571E-1	8.493860E-1	8.633716E-1	8.420776E-1	8.585629E-1	8.589825E-1	8.807222E-1	8.554042E-1	8.517277E-1	9.446896E-1	8.427015E-1	8.836739E-1	8.311206E-1	8.660729E-1	8.879333E-1	8.906787E-1	8.825032E-1	8.436083E-1	8.535519E-1	8.923975E-1	8.334804E-1	8.834331E-1	8.590822E-1	8.855912E-1	8.681217E-1	8.676285E-1	8.631023E-1	8.476849E-1	8.492522E-1	8.754822E-1	8.542797E-1	8.840422E-1	9.071454E-1	8.445137E-1	8.596504E-1	8.998719E-1	8.226138E-1	9.199026E-1	8.608725E-1	8.615361E-1	8.702370E-1	8.752852E-1	8.715675E-1	8.311336E-1	8.919716E-1	8.790947E-1	8.812753E-1	9.025400E-1	8.902995E-1	8.447281E-1	8.732883E-1	8.475389E-1	8.564072E-1	8.746044E-1	8.339924E-1	8.791457E-1	8.399887E-1	8.341032E-1	9.275001E-1	8.811292E-1	8.340239E-1	8.511269E-1	9.060500E-1	8.976779E-1	8.861657E-1	8.777696E-1	9.103656E-1	8.441156E-1	8.595123E-1	8.619228E-1	9.377899E-1	8.893494E-1	8.580781E-1	8.655558E-1	9.342582E-1	8.741660E-1	8.536903E-1	8.309979E-1	8.981592E-1	9.040389E-1	8.600159E-1	9.065201E-1	9.179101E-1	8.415726E-1	8.853669E-1	8.731928E-1	8.385270E-1	8.810599E-1	8.638377E-1	8.437181E-1	8.759801E-1	8.755217E-1	8.520275E-1	8.879939E-1	8.442855E-1	9.018187E-1	8.293398E-1	9.073191E-1	9.433297E-1	9.946636E-1
2.872140E+2	7.698206E-1	7.231282E-1	7.517007E-1	7.124888E-1	7.146447E-1	7.206839E-1	6.731976E-1	7.513267E-1	7.855003E-1	7.116998E-1	7.244759E-1	7.599965E-1	6.833554E-1	7.224012E-1	7.330787E-1	7.331729E-1	7.069232E-1	7.594380E-1	7.489441E-1	7.200379E-1	7.318512E-1	7.061343E-1	7.219281E-1	7.038004E-1	7.447268E-1	7.353453E-1	7.064300E-1	7.122362E-1	7.039522E-1	7.156404E-1	7.098819E-1	7.404208E-1	7.216193E-1	7.134384E-1	6.992745E-1	7.130861E-1	6.713827E-1	7.097773E-1	7.462934E-1	7.262511E-1	7.565901E-1	7.056263E-1	7.571197E-1	7.366005E-1	7.109912E-1	7.214318E-1	7.544119E-1	7.683023E-1	7.215850E-1	7.455224E-1	7.063656E-1	7.384784E-1	7.211151E-1	7.581278E-1	6.954124E-1	7.464274E-1	7.808723E-1	7.286519E-1	6.653132E-1	7.142176E-1	7.075744E-1	7.353199E-1	7.134245E-1	7.150974E-1	7.080952E-1	6.976908E-1	7.619483E-1	6.981176E-1	7.031244E-1	7.422773E-1	7.488976E-1	7.239464E-1	7.403402E-1	7.070540E-1	7.113322E-1	7.346018E-1	7.014037E-1	7.372737E-1	7.042754E-1	7.122495E-1	7.227216E-1	7.326306E-1	7.147720E-1	7.117584E-1	7.567842E-1	7.463832E-1	7.239904E-1	7.367650E-1	7.823095E-1	7.096741E-1	6.958724E-1	7.454555E-1	7.267054E-1	7.328926E-1	6.873233E-1	6.999980E-1	7.357772E-1	7.556697E-1	7.505056E-1	7.445827E-1	7.298714E-1	6.977288E-1	7.439882E-1	7.467986E-1	7.128892E-1	7.092937E-1	6.877930E-1	7.323161E-1	7.502622E-1	7.084499E-1	7.161533E-1	7.438095E-1	7.184863E-1	7.155572E-1	6.880449E-1	7.255409E-1	7.610271E-1	7.521836E-1	7.544457E-1	6.772910E-1	7.294319E-1	7.070725E-1	7.288094E-1	7.664436E-1	7.302390E-1	7.110011E-1	6.943356E-1	7.334384E-1	7.247164E-1	7.279124E-1	7.623893E-1	7.337103E-1	7.176193E-1	7.121917E-1	7.503162E-1	7.234270E-1	7.478300E-1	7.750252E-1	7.108295E-1	7.146951E-1	7.116457E-1	7.155104E-1	7.249410E-1	7.824357E-1	7.636641E-1	7.795227E-1	7.433977E-1	7.531645E-1	7.725131E-1	7.237045E-1	7.276756E-1	7.623691E-1	7.718488E-1	6.946134E-1	7.528325E-1	7.734551E-1	7.421664E-1	7.345967E-1	7.450918E-1	6.856462E-1	7.288536E-1	7.586509E-1	7.006246E-1	7.355480E-1	7.357478E-1	7.130132E-1	7.223638E-1	7.296895E-1	7.466939E-1	8.004517E-1
2.874030E+2	6.423294E-1	6.754205E-1	6.855947E-1	6.393256E-1	6.756958E-1	6.933840E-1	6.639129E-1	6.774332E-1	6.749484E-1	6.721769E-1	7.054469E-1	6.518367E-1	6.721291E-1	6.531189E-1	6.439893E-1	6.428096E-1	6.333453E-1	6.910517E-1	6.739320E-1	6.689435E-1	6.445702E-1	6.811463E-1	6.700340E-1	6.517427E-1	6.725835E-1	6.408546E-1	6.548536E-1	6.966794E-1	6.765040E-1	6.618569E-1	6.425738E-1	6.685359E-1	6.082114E-1	6.529883E-1	7.352034E-1	6.714174E-1	6.864358E-1	6.292241E-1	6.536929E-1	6.265306E-1	6.732106E-1	6.679290E-1	6.760171E-1	6.207826E-1	6.876786E-1	6.661109E-1	6.869920E-1	6.505188E-1	7.145663E-1	7.423082E-1	6.713060E-1	6.771856E-1	6.451285E-1	6.947463E-1	6.543333E-1	6.550953E-1	6.491497E-1	6.897283E-1	6.611424E-1	6.371159E-1	6.392634E-1	6.736923E-1	6.374221E-1	6.702595E-1	6.959569E-1	6.555168E-1	6.775146E-1	6.461564E-1	6.918434E-1	6.613817E-1	6.818136E-1	6.342410E-1	6.327860E-1	6.293117E-1	6.524424E-1	6.600494E-1	6.478556E-1	7.094942E-1	6.860526E-1	6.956392E-1	6.338887E-1	7.193040E-1	6.495409E-1	6.530841E-1	6.681298E-1	6.699840E-1	6.678493E-1	6.427350E-1	6.774604E-1	6.886209E-1	6.398703E-1	6.453343E-1	6.853951E-1	6.549661E-1	6.453364E-1	6.458481E-1	6.719279E-1	6.792238E-1	6.384376E-1	6.366837E-1	6.779699E-1	6.939156E-1	6.844755E-1	6.669920E-1	6.691062E-1	6.828459E-1	6.844823E-1	6.821639E-1	6.618876E-1	6.428238E-1	6.924548E-1	6.471499E-1	6.852747E-1	6.884830E-1	6.463801E-1	6.509414E-1	6.789850E-1	7.019292E-1	6.768964E-1	6.780780E-1	6.646730E-1	6.719507E-1	6.262023E-1	7.113858E-1	6.226952E-1	6.690942E-1	7.113247E-1	6.621392E-1	6.730327E-1	6.342224E-1	6.567233E-1	6.716845E-1	6.909587E-1	6.744034E-1	6.540223E-1	6.672161E-1	6.710146E-1	6.609430E-1	6.571134E-1	6.691231E-1	6.848245E-1	6.945590E-1	6.948091E-1	7.105500E-1	6.406415E-1	6.345059E-1	6.414620E-1	6.946483E-1	6.664245E-1	6.414387E-1	6.814210E-1	6.643432E-1	6.639775E-1	6.472600E-1	6.407708E-1	6.849001E-1	6.425572E-1	6.792838E-1	6.469013E-1	7.348584E-1	6.549866E-1	6.704640E-1	6.416253E-1	6.889719E-1	6.834733E-1	6.895850E-1	6.457442E-1	6.547242E-1	7.274833E-1	6.531495E-1
2.876090E+2	4.979739E-1	5.053866E-1	5.057573E-1	4.771626E-1	4.947075E-1	5.599449E-1	5.063684E-1	4.785940E-1	5.324339E-1	5.045959E-1	5.177657E-1	4.531100E-1	4.919702E-1	4.735324E-1	5.217899E-1	4.847008E-1	5.218908E-1	5.325271E-1	5.294341E-1	5.184718E-1	5.115119E-1	5.073513E-1	5.115128E-1	4.989924E-1	5.378152E-1	5.294036E-1	5.117821E-1	5.100252E-1	4.825895E-1	5.153043E-1	5.042690E-1	5.278686E-1	5.011055E-1	5.392704E-1	5.262623E-1	5.026645E-1	5.022294E-1	5.239188E-1	4.907429E-1	5.202462E-1	5.203049E-1	5.077794E-1	5.084672E-1	5.027770E-1	5.072445E-1	4.987080E-1	5.176930E-1	5.049284E-1	5.349442E-1	5.373076E-1	5.224251E-1	5.012976E-1	4.763472E-1	4.937715E-1	4.545398E-1	5.114900E-1	5.445910E-1	4.897903E-1	5.363864E-1	5.246912E-1	5.116766E-1	5.005694E-1	4.993200E-1	5.149138E-1	5.207126E-1	4.912335E-1	5.186038E-1	4.944503E-1	5.019950E-1	4.908751E-1	4.851155E-1	4.990611E-1	5.004170E-1	5.131362E-1	4.938476E-1	5.017803E-1	5.449183E-1	5.249746E-1	5.143167E-1	5.430126E-1	5.174071E-1	5.012101E-1	4.691229E-1	5.132257E-1	4.787952E-1	5.326921E-1	5.146224E-1	5.338235E-1	5.403942E-1	5.124942E-1	4.870310E-1	5.142569E-1	4.848720E-1	5.327757E-1	4.794211E-1	5.043190E-1	5.179852E-1	4.877224E-1	5.006544E-1	5.303113E-1	5.272046E-1	5.118063E-1	4.733430E-1	4.900112E-1	4.905917E-1	5.063049E-1	5.254157E-1	4.816196E-1	5.323464E-1	5.055562E-1	5.226703E-1	5.277324E-1	5.459744E-1	5.403106E-1	5.199807E-1	5.286163E-1	5.119451E-1	5.290200E-1	5.360369E-1	5.015783E-1	5.030371E-1	4.922463E-1	5.030899E-1	5.539718E-1	4.857867E-1	5.114559E-1	5.158491E-1	4.992664E-1	5.281921E-1	4.789933E-1	5.044320E-1	5.431286E-1	4.862567E-1	4.989557E-1	5.043502E-1	5.446624E-1	5.080524E-1	5.212722E-1	5.243183E-1	4.960985E-1	5.337552E-1	4.936836E-1	4.824298E-1	4.648017E-1	5.154284E-1	5.310201E-1	5.253001E-1	5.525204E-1	5.158751E-1	5.138878E-1	5.497391E-1	5.385120E-1	5.372624E-1	5.058208E-1	5.176049E-1	4.953503E-1	4.926683E-1	4.902558E-1	4.803293E-1	5.053573E-1	5.198421E-1	5.281630E-1	5.164097E-1	5.308140E-1	5.228733E-1	5.266998E-1	5.247891E-1	4.809224E-1	4.829852E-1	5.356646E-1
2.878030E+2	3.912813E-1	3.732635E-1	3.992411E-1	3.753396E-1	3.636788E-1	3.492842E-1	3.842390E-1	3.720220E-1	3.637748E-1	3.868832E-1	3.711772E-1	3.500131E-1	3.739515E-1	3.683650E-1	3.853250E-1	3.516002E-1	3.562929E-1	3.989641E-1	3.865482E-1	3.904614E-1	3.671287E-1	3.741276E-1	3.552285E-1	3.398092E-1	3.793264E-1	3.515871E-1	3.753245E-1	3.816797E-1	3.938224E-1	3.970074E-1	3.751702E-1	3.994564E-1	4.197572E-1	3.769685E-1	3.815280E-1	3.534455E-1	3.886518E-1	3.791910E-1	3.616179E-1	3.800778E-1	4.172814E-1	3.864176E-1	3.776498E-1	3.722796E-1	4.120670E-1	3.803447E-1	4.028884E-1	3.958574E-1	3.770566E-1	4.023393E-1	3.846892E-1	3.881702E-1	3.763663E-1	3.778042E-1	4.050467E-1	3.939430E-1	3.894418E-1	3.867623E-1	3.793299E-1	3.918082E-1	3.637765E-1	3.859866E-1	3.556656E-1	3.943958E-1	3.916818E-1	3.710339E-1	3.795960E-1	4.080836E-1	3.794181E-1	3.848837E-1	3.478782E-1	4.052772E-1	4.000189E-1	3.525200E-1	3.529948E-1	3.651578E-1	3.911874E-1	3.564779E-1	3.765629E-1	3.939501E-1	3.767083E-1	3.831661E-1	3.817163E-1	3.822182E-1	3.562324E-1	3.737045E-1	3.737863E-1	3.592325E-1	3.735574E-1	3.920600E-1	3.552994E-1	3.686205E-1	3.586373E-1	3.660809E-1	3.623110E-1	3.877232E-1	3.931209E-1	3.457480E-1	3.707875E-1	4.032065E-1	3.677904E-1	3.597587E-1	3.702619E-1	3.657716E-1	3.520106E-1	3.867888E-1	3.716400E-1	3.930963E-1	4.081269E-1	3.675093E-1	3.965987E-1	3.815094E-1	3.845658E-1	3.771216E-1	3.642180E-1	3.686774E-1	3.763668E-1	3.815659E-1	3.760175E-1	3.836474E-1	3.841315E-1	3.790371E-1	4.151598E-1	4.145358E-1	3.797152E-1	3.570063E-1	3.708006E-1	3.612611E-1	3.764436E-1	3.697292E-1	3.722131E-1	3.864539E-1	3.918952E-1	3.748623E-1	3.588885E-1	3.822908E-1	3.753126E-1	3.724750E-1	3.810717E-1	4.149845E-1	4.018089E-1	4.163054E-1	3.735976E-1	3.857572E-1	3.887698E-1	3.895207E-1	3.683398E-1	4.091766E-1	3.760473E-1	4.045512E-1	3.790953E-1	3.743056E-1	3.934338E-1	3.932177E-1	3.702952E-1	4.015095E-1	3.877328E-1	3.970285E-1	3.753983E-1	3.722394E-1	3.955448E-1	3.960299E-1	3.790617E-1	3.847070E-1	3.867006E-1	3.861008E-1	3.883823E-1	3.603035E-1	3.891836E-1	3.459297E-1
2.880040E+2	3.519298E-1	3.659919E-1	3.725941E-1	3.631006E-1	3.543935E-1	3.555014E-1	3.443241E-1	3.509277E-1	3.570482E-1	3.596267E-1	3.659198E-1	3.447898E-1	3.826595E-1	3.760406E-1	3.664168E-1	3.690437E-1	3.639347E-1	3.573114E-1	3.614754E-1	3.104197E-1	3.630997E-1	3.891320E-1	3.393089E-1	3.652093E-1	3.508335E-1	4.033736E-1	3.529674E-1	3.793654E-1	3.713854E-1	3.990856E-1	3.649540E-1	3.895037E-1	3.694713E-1	3.560104E-1	3.765747E-1	3.608437E-1	3.522504E-1	3.493708E-1	3.474370E-1	3.808266E-1	3.649919E-1	3.676507E-1	3.610754E-1	3.347652E-1	3.202551E-1	3.596602E-1	3.747540E-1	3.921667E-1	3.925257E-1	3.457703E-1	3.499562E-1	3.895197E-1	3.759209E-1	3.654698E-1	3.529228E-1	3.661840E-1	3.969388E-1	3.782249E-1	3.710237E-1	4.175834E-1	3.323494E-1	3.297459E-1	3.407747E-1	3.907993E-1	3.512531E-1	3.705429E-1	3.586317E-1	3.758318E-1	3.834559E-1	3.712876E-1	3.836047E-1	3.407930E-1	3.523004E-1	3.254021E-1	3.307838E-1	3.685572E-1	3.397292E-1	3.674140E-1	3.644753E-1	3.733471E-1	3.426991E-1	3.629257E-1	3.599388E-1	3.732957E-1	3.480112E-1	3.801014E-1	3.700078E-1	3.609632E-1	3.819637E-1	3.849773E-1	3.756258E-1	3.801343E-1	3.974176E-1	3.548948E-1	3.547442E-1	3.307359E-1	3.775515E-1	3.664894E-1	3.588949E-1	3.339716E-1	3.594344E-1	3.496039E-1	3.379343E-1	3.585854E-1	3.614181E-1	3.697241E-1	3.889920E-1	3.284257E-1	3.736055E-1	3.409459E-1	3.487400E-1	3.433145E-1	3.462706E-1	3.881154E-1	3.778977E-1	3.718300E-1	3.508599E-1	3.430292E-1	3.703521E-1	3.576075E-1	3.810224E-1	3.676834E-1	3.705517E-1	3.569092E-1	3.653218E-1	3.939372E-1	3.824750E-1	3.679801E-1	3.930059E-1	3.622780E-1	3.466734E-1	3.599230E-1	3.815029E-1	3.603017E-1	3.477894E-1	3.790745E-1	3.749056E-1	3.632737E-1	3.461441E-1	3.372153E-1	3.766271E-1	3.580841E-1	3.604025E-1	3.853635E-1	3.513953E-1	3.578399E-1	3.493431E-1	3.771518E-1	3.789997E-1	3.577078E-1	3.764768E-1	3.989439E-1	3.657593E-1	3.974658E-1	3.795386E-1	3.864634E-1	3.504334E-1	3.639376E-1	3.616719E-1	3.440205E-1	3.885526E-1	3.662344E-1	3.517903E-1	3.702248E-1	3.525377E-1	3.801019E-1	3.887081E-1	3.494988E-1	3.994746E-1	3.696187E-1
2.882240E+2	4.928344E-1	4.617080E-1	5.092324E-1	4.943506E-1	4.957769E-1	4.983305E-1	5.311389E-1	5.150268E-1	4.936752E-1	4.843105E-1	5.008975E-1	4.880075E-1	4.893395E-1	4.716318E-1	4.641533E-1	4.995929E-1	5.230480E-1	5.109276E-1	5.066304E-1	4.874776E-1	5.317232E-1	5.103392E-1	5.015169E-1	5.489410E-1	5.089818E-1	4.927053E-1	4.939175E-1	4.958385E-1	4.954722E-1	5.232508E-1	5.059194E-1	4.924952E-1	5.376616E-1	4.876654E-1	4.900587E-1	4.836765E-1	5.439777E-1	5.363084E-1	4.970690E-1	5.251241E-1	5.186377E-1	4.867106E-1	5.223827E-1	5.084151E-1	4.688603E-1	5.210204E-1	4.996517E-1	4.821147E-1	4.863214E-1	5.379721E-1	4.979222E-1	5.113534E-1	4.897426E-1	5.214761E-1	5.215865E-1	5.517430E-1	5.216207E-1	5.244133E-1	5.122432E-1	5.082903E-1	5.059176E-1	5.028364E-1	5.133756E-1	4.558272E-1	4.795358E-1	4.934067E-1	5.097823E-1	5.518059E-1	5.210052E-1	5.262516E-1	5.125055E-1	4.888787E-1	5.139387E-1	5.073949E-1	5.218434E-1	5.252869E-1	5.099946E-1	5.206393E-1	5.272714E-1	5.015003E-1	5.185587E-1	5.330261E-1	4.984815E-1	5.206398E-1	5.409193E-1	5.243920E-1	5.393496E-1	5.162375E-1	5.554735E-1	4.885300E-1	5.041660E-1	5.389395E-1	5.056745E-1	5.390223E-1	4.858808E-1	4.677650E-1	5.086633E-1	5.117656E-1	4.985674E-1	5.030291E-1	4.725180E-1	5.145177E-1	5.184237E-1	4.856663E-1	5.330868E-1	5.045051E-1	5.211774E-1	5.481127E-1	5.280065E-1	4.868247E-1	5.231926E-1	5.396368E-1	5.054874E-1	5.341205E-1	4.861602E-1	5.025844E-1	5.004262E-1	5.410735E-1	5.197914E-1	5.062561E-1	5.133835E-1	5.043201E-1	4.942793E-1	5.272752E-1	5.082353E-1	5.298235E-1	5.044764E-1	4.892955E-1	5.488262E-1	4.932313E-1	5.004914E-1	5.153988E-1	5.088633E-1	4.930939E-1	4.869195E-1	4.689908E-1	5.073456E-1	4.994454E-1	5.028938E-1	5.066262E-1	5.039597E-1	5.051346E-1	5.136704E-1	5.345535E-1	5.213189E-1	5.230943E-1	5.136058E-1	5.084173E-1	5.283629E-1	5.181360E-1	4.733744E-1	5.043082E-1	5.044304E-1	5.312050E-1	5.212730E-1	5.262523E-1	5.305833E-1	5.354375E-1	5.107812E-1	5.434485E-1	4.937781E-1	5.338645E-1	5.079974E-1	4.929158E-1	4.941851E-1	4.726355E-1	5.024381E-1	5.419611E-1	5.024492E-1	5.247769E-1
2.884130E+2	6.995388E-1	6.802334E-1	6.994201E-1	6.262282E-1	7.016120E-1	6.966030E-1	6.825181E-1	7.328228E-1	7.087345E-1	6.528259E-1	7.028598E-1	6.890325E-1	6.926728E-1	7.136161E-1	7.078415E-1	6.579753E-1	7.108022E-1	6.778106E-1	6.805159E-1	6.531433E-1	7.106013E-1	6.905226E-1	6.712546E-1	6.651155E-1	7.152446E-1	7.029770E-1	6.918588E-1	6.996564E-1	6.924666E-1	7.116722E-1	6.969948E-1	7.343869E-1	6.958621E-1	6.902037E-1	6.865614E-1	6.861348E-1	7.071322E-1	6.924746E-1	6.929336E-1	7.086107E-1	6.840809E-1	7.440582E-1	7.068896E-1	6.750789E-1	6.944676E-1	7.149616E-1	6.885758E-1	7.003333E-1	6.775740E-1	7.147975E-1	6.741365E-1	7.029428E-1	6.747435E-1	7.049856E-1	6.869147E-1	6.791930E-1	7.309496E-1	6.955865E-1	6.676279E-1	6.994868E-1	6.667977E-1	7.403249E-1	6.657412E-1	6.800889E-1	7.091649E-1	7.070337E-1	7.072243E-1	6.867667E-1	6.530661E-1	7.081866E-1	6.700253E-1	6.963590E-1	6.821285E-1	6.939692E-1	6.903833E-1	6.738983E-1	6.548882E-1	7.025139E-1	6.837789E-1	7.241369E-1	6.869477E-1	6.945555E-1	7.074216E-1	6.746506E-1	7.015168E-1	7.419588E-1	7.048641E-1	6.704532E-1	6.873116E-1	7.230697E-1	6.936495E-1	7.007263E-1	7.155808E-1	7.010133E-1	6.829523E-1	6.725403E-1	6.927254E-1	7.173752E-1	7.186614E-1	6.551274E-1	6.973344E-1	6.765905E-1	6.858654E-1	7.211158E-1	7.022082E-1	7.302389E-1	6.549997E-1	7.089535E-1	6.887598E-1	7.008317E-1	6.717471E-1	6.901641E-1	7.298426E-1	6.878562E-1	6.615393E-1	6.923182E-1	7.204980E-1	6.768358E-1	6.752685E-1	6.953860E-1	7.400675E-1	6.925607E-1	7.291777E-1	7.108300E-1	6.459874E-1	6.756242E-1	6.996545E-1	6.838852E-1	6.519626E-1	6.873727E-1	7.039017E-1	6.760566E-1	7.001842E-1	6.783278E-1	7.223488E-1	6.821445E-1	7.580932E-1	7.279684E-1	6.733174E-1	7.137565E-1	7.269930E-1	7.302194E-1	7.087876E-1	7.155427E-1	6.848445E-1	6.738408E-1	7.056949E-1	6.681994E-1	7.079823E-1	7.368714E-1	6.780961E-1	6.795669E-1	7.074577E-1	7.223310E-1	7.214556E-1	7.563796E-1	6.732106E-1	6.992668E-1	7.158687E-1	7.031685E-1	6.588649E-1	6.957053E-1	7.036982E-1	7.070644E-1	7.012720E-1	6.970819E-1	6.741493E-1	6.646879E-1	7.039999E-1	7.149867E-1
2.886030E+2	8.252466E-1	8.996815E-1	8.696166E-1	8.025768E-1	8.523182E-1	8.334586E-1	8.250452E-1	8.037266E-1	7.876471E-1	8.536324E-1	8.318091E-1	8.037303E-1	7.974791E-1	8.165022E-1	8.066436E-1	7.888204E-1	8.331540E-1	8.286054E-1	7.892050E-1	7.760666E-1	7.479716E-1	7.826148E-1	8.096473E-1	7.933783E-1	8.142412E-1	7.647091E-1	7.826211E-1	7.791242E-1	8.011244E-1	7.787227E-1	7.753450E-1	7.864265E-1	8.368374E-1	7.913709E-1	8.434105E-1	7.625187E-1	8.507035E-1	8.301381E-1	8.306036E-1	7.725027E-1	7.952065E-1	7.690005E-1	8.520163E-1	8.499287E-1	8.113374E-1	7.977982E-1	8.083539E-1	8.249667E-1	8.039636E-1	8.167826E-1	8.167029E-1	8.041059E-1	7.978071E-1	8.166953E-1	7.775149E-1	8.230954E-1	8.454512E-1	7.864915E-1	8.319441E-1	8.255324E-1	7.946114E-1	8.164315E-1	8.003239E-1	8.091926E-1	8.462444E-1	7.792607E-1	7.925290E-1	7.731410E-1	7.793398E-1	8.289725E-1	8.296220E-1	8.298391E-1	8.280369E-1	8.304004E-1	7.710150E-1	8.231062E-1	8.506158E-1	8.428631E-1	7.805256E-1	8.300397E-1	8.078322E-1	8.335460E-1	8.012884E-1	7.835836E-1	8.119210E-1	8.199891E-1	8.257370E-1	8.041719E-1	8.462499E-1	7.941209E-1	8.014612E-1	7.774292E-1	8.048964E-1	8.296941E-1	7.841546E-1	8.030480E-1	8.271991E-1	7.503609E-1	8.099644E-1	8.467269E-1	8.382735E-1	8.472971E-1	7.791044E-1	7.963146E-1	8.205882E-1	8.377009E-1	7.981556E-1	7.978904E-1	7.809121E-1	7.891161E-1	8.093924E-1	7.903648E-1	7.994802E-1	7.932446E-1	7.964975E-1	8.000934E-1	8.360856E-1	8.039720E-1	7.595743E-1	8.314549E-1	8.251207E-1	8.038335E-1	8.527814E-1	8.373995E-1	8.084763E-1	8.039619E-1	7.981066E-1	7.926684E-1	8.303379E-1	8.156525E-1	8.230279E-1	8.001634E-1	8.293886E-1	8.350069E-1	8.220272E-1	8.230514E-1	7.856600E-1	7.986822E-1	7.935312E-1	8.183764E-1	8.395419E-1	7.669693E-1	8.279482E-1	8.117618E-1	8.597391E-1	8.241612E-1	7.841291E-1	8.014084E-1	8.241985E-1	8.160483E-1	8.364665E-1	8.406813E-1	8.237835E-1	7.904847E-1	8.629380E-1	7.539178E-1	8.075614E-1	8.208117E-1	8.208254E-1	7.718330E-1	8.515680E-1	8.195739E-1	8.119782E-1	8.110938E-1	8.453392E-1	7.874379E-1	7.311329E-1	8.479175E-1	8.604595E-1	8.533102E-1
2.888170E+2	7.903886E-1	7.670469E-1	8.175622E-1	7.822297E-1	8.287198E-1	8.293534E-1	7.858133E-1	8.259681E-1	7.593304E-1	8.260142E-1	8.248784E-1	7.651744E-1	7.711983E-1	8.145518E-1	7.934238E-1	8.132188E-1	8.079405E-1	7.459426E-1	7.958510E-1	7.896089E-1	8.055127E-1	7.386874E-1	7.641066E-1	7.307542E-1	7.575041E-1	7.632464E-1	7.383210E-1	7.147203E-1	7.753943E-1	7.703982E-1	7.332275E-1	7.560549E-1	7.881922E-1	7.642862E-1	7.888838E-1	7.276825E-1	7.972182E-1	7.429415E-1	7.683033E-1	7.465779E-1	7.743089E-1	7.529999E-1	7.846309E-1	7.794322E-1	8.118821E-1	7.790784E-1	7.702733E-1	7.984832E-1	8.025706E-1	7.899010E-1	7.962314E-1	8.172070E-1	7.720180E-1	7.914007E-1	7.719573E-1	7.949041E-1	8.153123E-1	8.095590E-1	7.974522E-1	7.913566E-1	7.622117E-1	7.925069E-1	7.845128E-1	7.857344E-1	8.284184E-1	8.243332E-1	7.994712E-1	7.929116E-1	7.942226E-1	8.082607E-1	7.816491E-1	7.406935E-1	7.797459E-1	7.792832E-1	7.630749E-1	7.925206E-1	7.468732E-1	8.273752E-1	7.969551E-1	8.192443E-1	8.021953E-1	7.867335E-1	7.870617E-1	7.849294E-1	8.011377E-1	8.304226E-1	7.652356E-1	7.657371E-1	8.360484E-1	7.917257E-1	7.714819E-1	7.694576E-1	7.786339E-1	7.922242E-1	8.060294E-1	8.037032E-1	7.669972E-1	7.895415E-1	7.656217E-1	8.012572E-1	7.906571E-1	7.748669E-1	8.132170E-1	7.781117E-1	8.011871E-1	8.331088E-1	7.777819E-1	7.985519E-1	7.905762E-1	7.191038E-1	7.811741E-1	7.794003E-1	7.943659E-1	7.825260E-1	7.725431E-1	7.431980E-1	8.264743E-1	7.925555E-1	8.235895E-1	7.522618E-1	8.645692E-1	7.601250E-1	7.864544E-1	8.119612E-1	7.393069E-1	7.649517E-1	7.888197E-1	7.393621E-1	8.394518E-1	8.324359E-1	7.613960E-1	8.176272E-1	8.157485E-1	7.840462E-1	7.670047E-1	7.533342E-1	8.108481E-1	8.537471E-1	7.601866E-1	8.091497E-1	7.774706E-1	7.637320E-1	7.833877E-1	8.253323E-1	8.263762E-1	7.751534E-1	7.730678E-1	7.440510E-1	7.921355E-1	8.232570E-1	7.928315E-1	8.211658E-1	8.088831E-1	7.632739E-1	8.197643E-1	8.009966E-1	8.158355E-1	7.505016E-1	7.527660E-1	7.858833E-1	7.878111E-1	7.932811E-1	7.621987E-1	7.516000E-1	8.223784E-1	8.340238E-1	7.847547E-1	8.089343E-1	8.785075E-1	8.442082E-1
2.890200E+2	7.852384E-1	8.108278E-1	8.028556E-1	7.926608E-1	7.927856E-1	8.140402E-1	7.744633E-1	8.218549E-1	7.801913E-1	8.119056E-1	8.083977E-1	7.656398E-1	8.100000E-1	7.778721E-1	7.630805E-1	7.758538E-1	7.991538E-1	7.921835E-1	7.993776E-1	7.470884E-1	8.355392E-1	7.813728E-1	7.537086E-1	7.514816E-1	8.210376E-1	7.890907E-1	7.624413E-1	7.682716E-1	7.300080E-1	7.466217E-1	7.823055E-1	7.808361E-1	8.138312E-1	7.509832E-1	7.917032E-1	7.925283E-1	7.821923E-1	7.697050E-1	7.690598E-1	8.115652E-1	7.639768E-1	7.474292E-1	7.521151E-1	7.828656E-1	7.816191E-1	8.137873E-1	7.964415E-1	7.967939E-1	7.855627E-1	7.926813E-1	7.945167E-1	7.591911E-1	7.652147E-1	8.294162E-1	8.004732E-1	8.261413E-1	7.776663E-1	7.838106E-1	8.010147E-1	7.847041E-1	7.725155E-1	7.818277E-1	7.480652E-1	8.201083E-1	7.990751E-1	8.075083E-1	7.873848E-1	7.853882E-1	7.927716E-1	7.785597E-1	7.808574E-1	8.079400E-1	7.865826E-1	7.491286E-1	8.037389E-1	7.708928E-1	7.723217E-1	8.117223E-1	7.925693E-1	8.362988E-1	7.559109E-1	8.081207E-1	7.651653E-1	8.577124E-1	7.435944E-1	8.166537E-1	8.141155E-1	7.788132E-1	8.049140E-1	8.005394E-1	7.587481E-1	7.869548E-1	7.971548E-1	7.852903E-1	8.119812E-1	7.609496E-1	7.915315E-1	8.569758E-1	7.734677E-1	7.808209E-1	8.059397E-1	7.823478E-1	7.556107E-1	8.355129E-1	8.262543E-1	8.092141E-1	7.288299E-1	7.935539E-1	7.752344E-1	7.938302E-1	7.909245E-1	7.602419E-1	8.147407E-1	7.749954E-1	8.290132E-1	7.992295E-1	7.694009E-1	8.102136E-1	7.749880E-1	7.948099E-1	7.778313E-1	7.631472E-1	7.738733E-1	7.906556E-1	7.294593E-1	7.789607E-1	7.699191E-1	7.906167E-1	8.243929E-1	7.560090E-1	8.109774E-1	8.069315E-1	7.993512E-1	8.091598E-1	8.230349E-1	7.592231E-1	7.747728E-1	8.168159E-1	7.529870E-1	7.941581E-1	8.248803E-1	8.149867E-1	7.720765E-1	8.013073E-1	7.798895E-1	7.765472E-1	7.260723E-1	7.897241E-1	8.668521E-1	8.271542E-1	8.047179E-1	7.703159E-1	7.926283E-1	7.653422E-1	8.079780E-1	7.629460E-1	7.789291E-1	7.629485E-1	8.027584E-1	7.711797E-1	7.561195E-1	7.777181E-1	7.818644E-1	7.568109E-1	8.074216E-1	7.876820E-1	7.992021E-1	8.244262E-1	8.249795E-1	7.857644E-1
2.892040E+2	7.183490E-1	7.795693E-1	7.450631E-1	7.048688E-1	7.308691E-1	7.523038E-1	7.332204E-1	7.525697E-1	7.116481E-1	7.544994E-1	7.261462E-1	7.387718E-1	7.363624E-1	6.853831E-1	7.363350E-1	7.337171E-1	7.495618E-1	6.934430E-1	7.489184E-1	7.388740E-1	7.204669E-1	7.057763E-1	7.161084E-1	7.117991E-1	7.594330E-1	7.015940E-1	7.374585E-1	6.926628E-1	7.312229E-1	7.078588E-1	7.297107E-1	7.029276E-1	7.815669E-1	7.141010E-1	6.936610E-1	6.950458E-1	7.425129E-1	7.414844E-1	6.813549E-1	7.532145E-1	6.766419E-1	7.536934E-1	7.735222E-1	7.377666E-1	7.169426E-1	7.294154E-1	7.641517E-1	7.164114E-1	7.377334E-1	7.319607E-1	7.458881E-1	6.749135E-1	7.337509E-1	7.609771E-1	7.255673E-1	7.509686E-1	7.526790E-1	6.769184E-1	7.780968E-1	7.346082E-1	7.045037E-1	7.253657E-1	7.354646E-1	7.168467E-1	7.455067E-1	7.431753E-1	7.046975E-1	7.028132E-1	7.052688E-1	7.464321E-1	7.241219E-1	7.626944E-1	7.021851E-1	7.595899E-1	7.094415E-1	7.420262E-1	7.031650E-1	7.143386E-1	7.121792E-1	7.243796E-1	7.513495E-1	7.532232E-1	6.824599E-1	6.988634E-1	7.278093E-1	7.548527E-1	7.311919E-1	7.113515E-1	7.808636E-1	6.903397E-1	7.139519E-1	7.109750E-1	7.077717E-1	7.247870E-1	6.745732E-1	7.024536E-1	7.008832E-1	7.105569E-1	7.086714E-1	6.647997E-1	7.258600E-1	7.338006E-1	7.207625E-1	7.539051E-1	7.052229E-1	7.483157E-1	6.952979E-1	6.911285E-1	7.436970E-1	6.815256E-1	7.454821E-1	7.153552E-1	7.249555E-1	7.386739E-1	7.090872E-1	6.482651E-1	7.461980E-1	7.114005E-1	7.271955E-1	7.592674E-1	7.480932E-1	7.474706E-1	7.421872E-1	7.344612E-1	7.670339E-1	7.114685E-1	7.292034E-1	7.183231E-1	6.819328E-1	7.233309E-1	7.383918E-1	7.188046E-1	7.415150E-1	7.240337E-1	7.751975E-1	7.241350E-1	7.148122E-1	7.780417E-1	7.478922E-1	7.123091E-1	7.533271E-1	7.224508E-1	7.399620E-1	7.213918E-1	6.876634E-1	7.520826E-1	7.221025E-1	7.314790E-1	7.363895E-1	7.174231E-1	7.371791E-1	7.479952E-1	7.823766E-1	6.946590E-1	7.162486E-1	7.103740E-1	7.250129E-1	7.038928E-1	7.233721E-1	7.147327E-1	7.435864E-1	7.446418E-1	6.744955E-1	7.515853E-1	7.517088E-1	7.491304E-1	7.527616E-1	6.866400E-1	6.870028E-1	7.895917E-1
2.894080E+2	5.649416E-1	5.991234E-1	5.654465E-1	5.735278E-1	5.309880E-1	5.987442E-1	5.850801E-1	5.559972E-1	5.822154E-1	5.354420E-1	5.724460E-1	5.487853E-1	5.689691E-1	5.533967E-1	5.435737E-1	5.636725E-1	5.702315E-1	5.750611E-1	5.606676E-1	5.501839E-1	5.667792E-1	5.802433E-1	5.506587E-1	5.281086E-1	5.330527E-1	5.289664E-1	5.505614E-1	5.764237E-1	5.507897E-1	5.625108E-1	5.504864E-1	5.761356E-1	6.074964E-1	5.437102E-1	5.564348E-1	5.701335E-1	5.964068E-1	6.090477E-1	5.985731E-1	5.391698E-1	5.821547E-1	5.249446E-1	5.518320E-1	5.896079E-1	5.600891E-1	5.804910E-1	5.659444E-1	5.494520E-1	5.804661E-1	5.555825E-1	5.587630E-1	5.756812E-1	5.642428E-1	5.711112E-1	5.259298E-1	5.622401E-1	5.749814E-1	5.674362E-1	5.506103E-1	5.855854E-1	5.728921E-1	5.543135E-1	5.579991E-1	5.793364E-1	5.887395E-1	5.381947E-1	5.794236E-1	5.674302E-1	5.812634E-1	5.549161E-1	5.676149E-1	5.761891E-1	5.945731E-1	5.573162E-1	5.185203E-1	5.729240E-1	6.120092E-1	6.081353E-1	5.729483E-1	5.673857E-1	5.570073E-1	5.824076E-1	5.824453E-1	5.660935E-1	5.581843E-1	5.867574E-1	5.385975E-1	5.489000E-1	5.322384E-1	5.738500E-1	5.507801E-1	5.641429E-1	5.655924E-1	5.864690E-1	5.937532E-1	5.434987E-1	5.478439E-1	5.998074E-1	6.087028E-1	5.727097E-1	5.731962E-1	5.870153E-1	5.718374E-1	5.537333E-1	5.811544E-1	5.770938E-1	6.169042E-1	6.019172E-1	5.815746E-1	5.875191E-1	5.251022E-1	5.776447E-1	5.514820E-1	5.546770E-1	5.600245E-1	5.712575E-1	6.012983E-1	5.728593E-1	5.896723E-1	6.036650E-1	5.893023E-1	5.477538E-1	5.700605E-1	5.578072E-1	5.604027E-1	5.425914E-1	5.640275E-1	5.230053E-1	5.519858E-1	5.507729E-1	5.659437E-1	5.685132E-1	5.730425E-1	5.757467E-1	5.882902E-1	5.593281E-1	6.002873E-1	5.733019E-1	5.492843E-1	5.795449E-1	5.856036E-1	5.642568E-1	5.420883E-1	5.791985E-1	5.844036E-1	5.463766E-1	5.451568E-1	5.679324E-1	5.957047E-1	6.169157E-1	5.567573E-1	5.859898E-1	6.134947E-1	5.895510E-1	6.045352E-1	5.574058E-1	5.782226E-1	5.702064E-1	5.659079E-1	5.856323E-1	5.480195E-1	5.848847E-1	5.584258E-1	5.424283E-1	5.876545E-1	5.823401E-1	5.688773E-1	5.570002E-1	6.369283E-1	6.730612E-1
2.896090E+2	4.477661E-1	4.445625E-1	4.320446E-1	3.826148E-1	4.252792E-1	4.219672E-1	4.111779E-1	4.413008E-1	4.458429E-1	4.023327E-1	4.983188E-1	4.524883E-1	4.338316E-1	4.506755E-1	4.387998E-1	4.522364E-1	4.348892E-1	4.428492E-1	4.162315E-1	4.178801E-1	4.250209E-1	4.318991E-1	4.502615E-1	4.264864E-1	4.549663E-1	3.771985E-1	4.500392E-1	4.075593E-1	4.623038E-1	4.271161E-1	4.515290E-1	4.461950E-1	4.071106E-1	4.166639E-1	4.677325E-1	4.249384E-1	4.233848E-1	3.936924E-1	3.974183E-1	4.134716E-1	4.742682E-1	4.107018E-1	4.475020E-1	4.390900E-1	4.236863E-1	4.294370E-1	4.272176E-1	4.191427E-1	4.131988E-1	4.542302E-1	4.275427E-1	4.433097E-1	4.226661E-1	4.615199E-1	4.220435E-1	4.422017E-1	4.231663E-1	4.434373E-1	4.290781E-1	4.673310E-1	4.355813E-1	4.274049E-1	4.203903E-1	4.392018E-1	4.224233E-1	4.136953E-1	4.156144E-1	4.245863E-1	4.263347E-1	4.662620E-1	4.014396E-1	4.034299E-1	4.634809E-1	3.945687E-1	4.526395E-1	4.506585E-1	4.259332E-1	4.536184E-1	4.316048E-1	4.196836E-1	4.417620E-1	4.202856E-1	4.375596E-1	4.349017E-1	4.608284E-1	4.366368E-1	4.126175E-1	4.232125E-1	4.528696E-1	4.088714E-1	4.077234E-1	3.876075E-1	4.316137E-1	4.453086E-1	4.522518E-1	4.567065E-1	4.474249E-1	4.359260E-1	4.588860E-1	4.256929E-1	4.156215E-1	4.434763E-1	4.616741E-1	4.068976E-1	4.145058E-1	4.295993E-1	4.393186E-1	4.192823E-1	4.450624E-1	4.048757E-1	4.208675E-1	4.251827E-1	4.321972E-1	4.335940E-1	4.523553E-1	4.197451E-1	4.201730E-1	4.395140E-1	3.957041E-1	4.440572E-1	4.461496E-1	4.502116E-1	4.551188E-1	4.246833E-1	4.209221E-1	4.355326E-1	3.963315E-1	4.315759E-1	4.500151E-1	4.525395E-1	4.718764E-1	4.587498E-1	4.377391E-1	4.164481E-1	4.192775E-1	4.330475E-1	4.420458E-1	4.822416E-1	4.477473E-1	4.452575E-1	4.319585E-1	4.587056E-1	4.071522E-1	4.751828E-1	4.694002E-1	4.460685E-1	4.642021E-1	4.149748E-1	4.407951E-1	4.413113E-1	4.426090E-1	4.650317E-1	3.906013E-1	4.297880E-1	4.458227E-1	4.225018E-1	3.957868E-1	4.548817E-1	4.510880E-1	4.419728E-1	4.487616E-1	4.333392E-1	3.905290E-1	3.977099E-1	4.507331E-1	4.163051E-1	4.526283E-1	4.299764E-1	4.435512E-1	4.669899E-1
2.898020E+2	4.732489E-1	4.475318E-1	4.374132E-1	4.655006E-1	5.000254E-1	4.699623E-1	4.456639E-1	4.796534E-1	4.713026E-1	4.883848E-1	4.734896E-1	4.797132E-1	4.777714E-1	4.685679E-1	4.524726E-1	4.798757E-1	4.547496E-1	4.842555E-1	4.738722E-1	4.465096E-1	4.620804E-1	4.733322E-1	4.620989E-1	4.596724E-1	4.593176E-1	4.575224E-1	4.602764E-1	4.938891E-1	4.827530E-1	4.859185E-1	4.375391E-1	4.926939E-1	4.259323E-1	4.865543E-1	4.288663E-1	4.204952E-1	4.653068E-1	4.819135E-1	4.980700E-1	4.464906E-1	4.773668E-1	4.305601E-1	4.860927E-1	4.407963E-1	4.689743E-1	4.957107E-1	4.379139E-1	4.428437E-1	4.614995E-1	4.620769E-1	4.638301E-1	4.521280E-1	4.418816E-1	4.956715E-1	4.472730E-1	4.652632E-1	5.121031E-1	4.656571E-1	4.764590E-1	4.664882E-1	4.534299E-1	4.454136E-1	4.707777E-1	4.801802E-1	4.348208E-1	4.705728E-1	4.513205E-1	4.429259E-1	4.627814E-1	4.436664E-1	4.469418E-1	4.844942E-1	4.211714E-1	4.104822E-1	4.676194E-1	4.865938E-1	4.874635E-1	4.799909E-1	4.385841E-1	4.949890E-1	4.862079E-1	4.765464E-1	4.395605E-1	4.855394E-1	5.011361E-1	4.989410E-1	4.314784E-1	3.881240E-1	4.507169E-1	4.627230E-1	4.627688E-1	5.085577E-1	5.027156E-1	4.792463E-1	4.638273E-1	4.544452E-1	4.349202E-1	4.379251E-1	4.837689E-1	4.448711E-1	4.935443E-1	4.882518E-1	4.610520E-1	4.663508E-1	4.208353E-1	4.678597E-1	4.482867E-1	4.564991E-1	4.646183E-1	4.163940E-1	4.617408E-1	4.420787E-1	4.395764E-1	4.481746E-1	4.751565E-1	4.529883E-1	4.612450E-1	4.876447E-1	4.487349E-1	4.678853E-1	4.905110E-1	4.544534E-1	4.481928E-1	4.723942E-1	4.817363E-1	4.380850E-1	4.783961E-1	4.316179E-1	4.800078E-1	4.887710E-1	4.661595E-1	4.983272E-1	4.493419E-1	4.914865E-1	4.118671E-1	4.506591E-1	4.580086E-1	4.759843E-1	4.496869E-1	4.494634E-1	5.033198E-1	4.377872E-1	4.825065E-1	4.697867E-1	3.980437E-1	4.662590E-1	4.529959E-1	4.672503E-1	4.620719E-1	4.521539E-1	4.844935E-1	4.533094E-1	4.421269E-1	4.473694E-1	5.053587E-1	4.670914E-1	4.585291E-1	4.752379E-1	4.483379E-1	4.596664E-1	4.710570E-1	4.614144E-1	4.661855E-1	4.489439E-1	4.675171E-1	4.404320E-1	4.651693E-1	4.751106E-1	3.882074E-1	4.381222E-1
2.900020E+2	5.170481E-1	5.311710E-1	5.567007E-1	4.834518E-1	5.135915E-1	5.465535E-1	5.436272E-1	4.963485E-1	5.446210E-1	5.269038E-1	5.600310E-1	4.920412E-1	4.867448E-1	5.406167E-1	5.224409E-1	5.314907E-1	5.083138E-1	5.169164E-1	5.186420E-1	5.259469E-1	5.396393E-1	5.507684E-1	5.441876E-1	5.285573E-1	5.586226E-1	5.581538E-1	5.398876E-1	5.561085E-1	5.585709E-1	5.616880E-1	5.411704E-1	5.367043E-1	5.478556E-1	5.370766E-1	5.635698E-1	5.204579E-1	5.309249E-1	5.541088E-1	5.259262E-1	4.985528E-1	5.202481E-1	5.954471E-1	5.146675E-1	5.264016E-1	5.048416E-1	5.084228E-1	5.325056E-1	5.560024E-1	5.407469E-1	5.964879E-1	5.438357E-1	5.303439E-1	5.175593E-1	5.669249E-1	5.279094E-1	5.387300E-1	5.383599E-1	5.108086E-1	5.415540E-1	5.397607E-1	5.108016E-1	5.644583E-1	5.072515E-1	5.495750E-1	5.712839E-1	5.371775E-1	5.495556E-1	5.486376E-1	5.548502E-1	5.169694E-1	5.105751E-1	5.488021E-1	5.311077E-1	5.495866E-1	5.540675E-1	5.293051E-1	5.115640E-1	5.145851E-1	5.204315E-1	5.456894E-1	5.720216E-1	5.756501E-1	5.337521E-1	5.380650E-1	5.586244E-1	5.449718E-1	5.149702E-1	5.054145E-1	5.550773E-1	5.598925E-1	5.112519E-1	5.492189E-1	5.409553E-1	5.394622E-1	5.179974E-1	5.319896E-1	5.351963E-1	5.485672E-1	5.406272E-1	5.227361E-1	5.650859E-1	5.332866E-1	5.520960E-1	5.267239E-1	5.441785E-1	5.481006E-1	5.244114E-1	5.284038E-1	5.346645E-1	5.372191E-1	5.188212E-1	5.413696E-1	5.596361E-1	5.294668E-1	5.219968E-1	5.165117E-1	5.425019E-1	5.259895E-1	5.216250E-1	5.524536E-1	5.186570E-1	5.547712E-1	5.412285E-1	5.288409E-1	5.444617E-1	5.245377E-1	5.271652E-1	5.232900E-1	5.358926E-1	5.259050E-1	5.340541E-1	4.795320E-1	5.614601E-1	5.240867E-1	5.536750E-1	5.459979E-1	5.880601E-1	5.450803E-1	5.611912E-1	5.032207E-1	5.490196E-1	5.299835E-1	5.696065E-1	5.821594E-1	5.378450E-1	5.527156E-1	5.210482E-1	5.271786E-1	5.550531E-1	5.209494E-1	5.509535E-1	5.795309E-1	5.433685E-1	5.704449E-1	5.135467E-1	5.110500E-1	5.268385E-1	5.490061E-1	5.223977E-1	5.520547E-1	5.479752E-1	5.599618E-1	5.327053E-1	5.236286E-1	5.832695E-1	5.152957E-1	5.676988E-1	5.614214E-1	4.631948E-1	5.475719E-1
2.905110E+2	6.126941E-1	5.947461E-1	6.340927E-1	5.785134E-1	5.451171E-1	5.988096E-1	5.880692E-1	5.846115E-1	5.311933E-1	5.761517E-1	6.017300E-1	5.651157E-1	5.910065E-1	5.849318E-1	5.771372E-1	6.155976E-1	5.919626E-1	5.814071E-1	5.937014E-1	5.584251E-1	5.751426E-1	5.829697E-1	5.939085E-1	5.912147E-1	5.710367E-1	5.709778E-1	5.836031E-1	6.037615E-1	5.747639E-1	5.908063E-1	6.122264E-1	6.008033E-1	5.688945E-1	5.593564E-1	5.761573E-1	5.400726E-1	6.070733E-1	5.802544E-1	5.758613E-1	5.872975E-1	6.062725E-1	5.565635E-1	6.035877E-1	6.221815E-1	5.804353E-1	6.251816E-1	6.208317E-1	5.740098E-1	5.858972E-1	5.881637E-1	6.064077E-1	5.840122E-1	6.073088E-1	6.256579E-1	5.909641E-1	5.831885E-1	5.928495E-1	5.975569E-1	6.152522E-1	5.805184E-1	6.126309E-1	5.962830E-1	5.741240E-1	5.946393E-1	5.722995E-1	5.757399E-1	5.636989E-1	5.930904E-1	6.000279E-1	6.122924E-1	5.436188E-1	5.958960E-1	6.127526E-1	5.609820E-1	5.804773E-1	5.898872E-1	5.751267E-1	5.672862E-1	5.583161E-1	6.018022E-1	5.783366E-1	5.760470E-1	5.659272E-1	6.426332E-1	6.182172E-1	5.789435E-1	6.016708E-1	5.610400E-1	5.744255E-1	6.031163E-1	5.717780E-1	5.913302E-1	5.566364E-1	5.899569E-1	5.533528E-1	5.971608E-1	6.110358E-1	6.133046E-1	5.908076E-1	5.616035E-1	5.789381E-1	5.907233E-1	5.772231E-1	5.414547E-1	5.786947E-1	5.804341E-1	5.689037E-1	6.129565E-1	6.293196E-1	5.362593E-1	5.831281E-1	5.721132E-1	6.021391E-1	5.826939E-1	5.822793E-1	6.025825E-1	5.966852E-1	5.899176E-1	5.638940E-1	5.870436E-1	6.237315E-1	5.713762E-1	5.525407E-1	5.931420E-1	5.704442E-1	5.682106E-1	5.633431E-1	5.664928E-1	5.776742E-1	5.779431E-1	5.747994E-1	5.580729E-1	6.031716E-1	6.285858E-1	5.956337E-1	5.924166E-1	6.291835E-1	5.853823E-1	5.466739E-1	5.899893E-1	6.021997E-1	5.881938E-1	5.936525E-1	5.661847E-1	5.968026E-1	6.017290E-1	5.607634E-1	5.753546E-1	5.832231E-1	5.973377E-1	6.076017E-1	5.754275E-1	6.098015E-1	5.892267E-1	5.896350E-1	6.441493E-1	5.802751E-1	6.022892E-1	5.909316E-1	5.587773E-1	6.261210E-1	6.071716E-1	5.877956E-1	5.972195E-1	5.870079E-1	5.484231E-1	5.702330E-1	5.630419E-1	6.149953E-1	5.637245E-1
2.910070E+2	6.399766E-1	6.738930E-1	5.924154E-1	5.917799E-1	5.825404E-1	6.525588E-1	6.148131E-1	6.615223E-1	5.628595E-1	6.651715E-1	6.500573E-1	6.403943E-1	6.002510E-1	5.452437E-1	6.156706E-1	5.880828E-1	6.460031E-1	6.074190E-1	6.121237E-1	5.981608E-1	6.189346E-1	6.218928E-1	6.346240E-1	6.590342E-1	6.738675E-1	6.646315E-1	6.299646E-1	5.993971E-1	5.962106E-1	6.400420E-1	6.382281E-1	6.440121E-1	6.262922E-1	6.746473E-1	6.493336E-1	5.792738E-1	5.973307E-1	6.696152E-1	5.905515E-1	6.426021E-1	6.207379E-1	6.462546E-1	6.261882E-1	6.750415E-1	5.701350E-1	6.273619E-1	6.137731E-1	6.004949E-1	6.570367E-1	6.512314E-1	6.322295E-1	6.204301E-1	6.427268E-1	6.342221E-1	6.242673E-1	6.326402E-1	6.323556E-1	6.219271E-1	6.211418E-1	6.852285E-1	5.991149E-1	6.157404E-1	6.233439E-1	6.943172E-1	6.599134E-1	6.492883E-1	6.450092E-1	6.456095E-1	6.048268E-1	6.361152E-1	6.068112E-1	6.088378E-1	5.825761E-1	6.295957E-1	6.059700E-1	6.510175E-1	5.944731E-1	6.517173E-1	6.822613E-1	6.691116E-1	5.952983E-1	6.215667E-1	6.005469E-1	6.041335E-1	6.045725E-1	6.492773E-1	6.216427E-1	6.201329E-1	5.946225E-1	5.943204E-1	5.944589E-1	6.557588E-1	6.271901E-1	6.008626E-1	6.242979E-1	6.119478E-1	5.962844E-1	6.334351E-1	6.556983E-1	6.212663E-1	6.272935E-1	6.019987E-1	6.340095E-1	6.071075E-1	5.951954E-1	6.151027E-1	6.196312E-1	6.066294E-1	6.413812E-1	5.797416E-1	6.442554E-1	6.367376E-1	6.602219E-1	6.225743E-1	6.493696E-1	6.402411E-1	6.291892E-1	6.578037E-1	6.667707E-1	5.863417E-1	6.053068E-1	6.232943E-1	6.389659E-1	6.386689E-1	6.149027E-1	6.375054E-1	6.121644E-1	6.066955E-1	6.683748E-1	6.405158E-1	6.347499E-1	6.164201E-1	6.945936E-1	6.373190E-1	6.076450E-1	6.494805E-1	6.222701E-1	6.305692E-1	5.895767E-1	6.112316E-1	6.369508E-1	6.367889E-1	6.071203E-1	6.627420E-1	6.478117E-1	6.287691E-1	6.437293E-1	6.378349E-1	6.420334E-1	6.674853E-1	6.283725E-1	6.273148E-1	6.197077E-1	5.904503E-1	6.309246E-1	5.749131E-1	6.096083E-1	6.300627E-1	5.963711E-1	6.356415E-1	5.793970E-1	6.482368E-1	5.942451E-1	6.641019E-1	6.266288E-1	6.531833E-1	5.902774E-1	5.729317E-1	6.409358E-1	6.507971E-1
2.915110E+2	7.348212E-1	7.222732E-1	7.805706E-1	7.000978E-1	7.167909E-1	7.426585E-1	7.281059E-1	7.224671E-1	7.241259E-1	7.029690E-1	7.630555E-1	6.803903E-1	7.074100E-1	7.017071E-1	7.482871E-1	6.887581E-1	7.353710E-1	7.465636E-1	6.734720E-1	7.411877E-1	7.365150E-1	7.127780E-1	7.382565E-1	7.267556E-1	6.932431E-1	7.591470E-1	7.268957E-1	7.168283E-1	7.395236E-1	7.530197E-1	7.233189E-1	7.383731E-1	7.124143E-1	7.400535E-1	7.232871E-1	6.927074E-1	7.601575E-1	7.024564E-1	7.050984E-1	7.366105E-1	7.514260E-1	7.045917E-1	7.664771E-1	6.935151E-1	7.102025E-1	6.682455E-1	7.304992E-1	7.614189E-1	7.169352E-1	7.425106E-1	7.315541E-1	7.024172E-1	7.053129E-1	7.708838E-1	7.242830E-1	7.435782E-1	7.475338E-1	7.278350E-1	7.169175E-1	7.422780E-1	7.516209E-1	6.883412E-1	7.505431E-1	7.346464E-1	7.345882E-1	7.010562E-1	7.269906E-1	7.281485E-1	7.277156E-1	7.225695E-1	7.368500E-1	7.245050E-1	7.050330E-1	7.146682E-1	7.190184E-1	7.268732E-1	7.059978E-1	7.436719E-1	7.252473E-1	7.271324E-1	7.222843E-1	7.189038E-1	7.225631E-1	7.197001E-1	7.484197E-1	7.990051E-1	6.870714E-1	7.179680E-1	7.028230E-1	7.199157E-1	7.181379E-1	7.272337E-1	7.013947E-1	7.521006E-1	7.120797E-1	7.218798E-1	7.449695E-1	7.642780E-1	7.299263E-1	7.319727E-1	7.195939E-1	7.582013E-1	7.543890E-1	7.140423E-1	6.991270E-1	7.531860E-1	6.855990E-1	7.358641E-1	7.515127E-1	7.742417E-1	6.878247E-1	7.137499E-1	7.010160E-1	7.353309E-1	7.526251E-1	7.625928E-1	7.640314E-1	7.620599E-1	7.248530E-1	7.554166E-1	7.270696E-1	7.162407E-1	7.102505E-1	7.173212E-1	6.882006E-1	7.935148E-1	6.856721E-1	7.171564E-1	7.745047E-1	7.272567E-1	7.543870E-1	7.061583E-1	7.098458E-1	7.465654E-1	7.258859E-1	7.534315E-1	7.613713E-1	7.635260E-1	7.035599E-1	7.635540E-1	7.857582E-1	7.652680E-1	7.307799E-1	7.853837E-1	7.178265E-1	7.037334E-1	7.139413E-1	7.565561E-1	7.498173E-1	7.554473E-1	7.210558E-1	7.357441E-1	7.055559E-1	7.233882E-1	7.661566E-1	7.256010E-1	7.335067E-1	7.266423E-1	7.283271E-1	7.031676E-1	7.042487E-1	7.532971E-1	7.266191E-1	7.612134E-1	7.209676E-1	7.237511E-1	7.214815E-1	7.151024E-1	7.761654E-1	8.079561E-1
2.920030E+2	5.830624E-1	6.424311E-1	6.906129E-1	6.601914E-1	6.724505E-1	6.579084E-1	6.621474E-1	5.933580E-1	6.272342E-1	6.372586E-1	6.674907E-1	6.148682E-1	6.622455E-1	6.473784E-1	6.363776E-1	6.467226E-1	6.633534E-1	6.842366E-1	6.490563E-1	6.198154E-1	6.750743E-1	6.948828E-1	6.677787E-1	6.243522E-1	7.141316E-1	6.830019E-1	6.289482E-1	6.782107E-1	6.135637E-1	6.645347E-1	6.374458E-1	6.888256E-1	6.529055E-1	6.961397E-1	6.699256E-1	6.344856E-1	6.424256E-1	6.290282E-1	6.714996E-1	6.474181E-1	6.331331E-1	6.863759E-1	6.263575E-1	6.647686E-1	6.822224E-1	6.300161E-1	6.513332E-1	6.528386E-1	6.747346E-1	7.037501E-1	6.548171E-1	7.117942E-1	6.382102E-1	6.989457E-1	6.704977E-1	6.325403E-1	6.794525E-1	5.823879E-1	6.366570E-1	6.559504E-1	6.618885E-1	6.633355E-1	6.456928E-1	6.688203E-1	6.477307E-1	6.501680E-1	6.458491E-1	6.452733E-1	6.528745E-1	6.957825E-1	6.401625E-1	6.868940E-1	7.032494E-1	6.351244E-1	6.460209E-1	6.966624E-1	6.850304E-1	6.972020E-1	6.592417E-1	6.842083E-1	6.414730E-1	6.616892E-1	6.549114E-1	6.829913E-1	6.545377E-1	6.702864E-1	6.465364E-1	6.489778E-1	6.230209E-1	6.518585E-1	6.433645E-1	6.544206E-1	6.572963E-1	6.577742E-1	6.196710E-1	6.701593E-1	6.171958E-1	6.460224E-1	6.629965E-1	6.332141E-1	7.186795E-1	6.714188E-1	6.874781E-1	6.409970E-1	6.585570E-1	6.891322E-1	6.153151E-1	6.686261E-1	7.003490E-1	6.297474E-1	6.439339E-1	6.438252E-1	6.243376E-1	6.464919E-1	6.978292E-1	6.475676E-1	6.570842E-1	6.654687E-1	6.674367E-1	6.148805E-1	6.594782E-1	6.569151E-1	6.697718E-1	7.157013E-1	6.428966E-1	6.702547E-1	6.464323E-1	6.373489E-1	6.676697E-1	6.758871E-1	6.771773E-1	6.789466E-1	6.857787E-1	6.712318E-1	6.849213E-1	6.801094E-1	6.712779E-1	6.458466E-1	6.274581E-1	6.729195E-1	6.439386E-1	6.563816E-1	6.758737E-1	6.702048E-1	6.490079E-1	6.943696E-1	6.776862E-1	6.468366E-1	6.802189E-1	6.583245E-1	6.860900E-1	6.738455E-1	6.377623E-1	6.472555E-1	6.639123E-1	6.489790E-1	6.413514E-1	6.521632E-1	6.678847E-1	6.703555E-1	6.307107E-1	6.549834E-1	6.782729E-1	6.420452E-1	6.708300E-1	6.853510E-1	6.977550E-1	6.727403E-1	6.122706E-1	7.009862E-1
2.925020E+2	7.030506E-1	6.975501E-1	6.976983E-1	6.671233E-1	6.724600E-1	7.446096E-1	6.835703E-1	7.194214E-1	7.240066E-1	6.813264E-1	7.077567E-1	6.548895E-1	7.209508E-1	6.633541E-1	7.433578E-1	6.906386E-1	6.727853E-1	6.860011E-1	6.961966E-1	6.632807E-1	6.639700E-1	6.693681E-1	7.048015E-1	7.056610E-1	6.554632E-1	7.266547E-1	6.610001E-1	6.402485E-1	6.489038E-1	6.958935E-1	6.939063E-1	7.204292E-1	6.864430E-1	6.957385E-1	6.896184E-1	6.368001E-1	7.016120E-1	6.756395E-1	6.948489E-1	7.190208E-1	6.548214E-1	6.945407E-1	7.056472E-1	7.045601E-1	7.007418E-1	7.036694E-1	7.017629E-1	6.950827E-1	6.682159E-1	7.110581E-1	6.743206E-1	6.985239E-1	6.728065E-1	7.027723E-1	7.325408E-1	6.756128E-1	6.940470E-1	6.940472E-1	6.990074E-1	6.966314E-1	6.725203E-1	7.277831E-1	7.292393E-1	6.982668E-1	6.785092E-1	6.454757E-1	6.910582E-1	6.340563E-1	6.658176E-1	7.195629E-1	6.712771E-1	6.957721E-1	6.785173E-1	6.972138E-1	6.923087E-1	6.929155E-1	6.898741E-1	7.507066E-1	6.839592E-1	7.393420E-1	6.969706E-1	7.242574E-1	6.727178E-1	6.980006E-1	6.960608E-1	7.229560E-1	7.411570E-1	6.699376E-1	7.188433E-1	6.847430E-1	6.631434E-1	6.935803E-1	6.866082E-1	7.023968E-1	6.641794E-1	7.049081E-1	7.074442E-1	6.869957E-1	6.941283E-1	6.857481E-1	6.927487E-1	6.970645E-1	6.798835E-1	6.832859E-1	6.711868E-1	7.201382E-1	7.050521E-1	7.023376E-1	7.534828E-1	6.796591E-1	6.613435E-1	7.010599E-1	6.703577E-1	6.634878E-1	7.037226E-1	6.749439E-1	6.841279E-1	6.887239E-1	7.094304E-1	7.417212E-1	6.969374E-1	6.785600E-1	6.798652E-1	7.163928E-1	6.811845E-1	6.684656E-1	6.626004E-1	6.735751E-1	6.704608E-1	7.407304E-1	7.026907E-1	6.746261E-1	6.701601E-1	7.292523E-1	7.084240E-1	7.326910E-1	6.920446E-1	7.102455E-1	6.980920E-1	7.105225E-1	7.115001E-1	7.123408E-1	6.455361E-1	6.772873E-1	6.705042E-1	6.832434E-1	6.842794E-1	6.421550E-1	6.662729E-1	7.348124E-1	6.858860E-1	6.917500E-1	6.885832E-1	7.242362E-1	7.041430E-1	6.913681E-1	6.863078E-1	7.101965E-1	6.967642E-1	7.303487E-1	7.020068E-1	7.084599E-1	7.143077E-1	7.312033E-1	7.183893E-1	6.603084E-1	7.111148E-1	6.947660E-1	6.469850E-1	6.398832E-1
2.930040E+2	6.038519E-1	6.123009E-1	6.381704E-1	6.158813E-1	5.810296E-1	6.420228E-1	6.245442E-1	6.337655E-1	6.025079E-1	5.686079E-1	6.291750E-1	6.267034E-1	5.810416E-1	6.180537E-1	6.197067E-1	6.271902E-1	6.128128E-1	6.597158E-1	6.239049E-1	6.071121E-1	6.286081E-1	6.079265E-1	5.964953E-1	6.165706E-1	6.442931E-1	6.175778E-1	6.191100E-1	5.921468E-1	5.894749E-1	6.526056E-1	6.307108E-1	6.608389E-1	6.093931E-1	6.097955E-1	6.124537E-1	5.994932E-1	5.999112E-1	6.431202E-1	6.196706E-1	6.075060E-1	6.237794E-1	6.131623E-1	6.438813E-1	6.585916E-1	6.423886E-1	6.025889E-1	6.403561E-1	6.052002E-1	6.269130E-1	6.301684E-1	6.394308E-1	5.941517E-1	6.120592E-1	6.215245E-1	6.163771E-1	6.170937E-1	6.310826E-1	5.652284E-1	5.995008E-1	6.425121E-1	5.915053E-1	6.033829E-1	5.979351E-1	6.115836E-1	6.509676E-1	6.231663E-1	6.667886E-1	6.056752E-1	5.980809E-1	6.144391E-1	6.131749E-1	6.503567E-1	6.376550E-1	6.027000E-1	5.844555E-1	6.455083E-1	6.675949E-1	6.554059E-1	5.790813E-1	6.788106E-1	6.015430E-1	6.464843E-1	5.764883E-1	6.070008E-1	5.861290E-1	6.323316E-1	6.035587E-1	6.250623E-1	6.328577E-1	6.078000E-1	6.277695E-1	6.181422E-1	6.171462E-1	6.186951E-1	6.183379E-1	6.077268E-1	6.539603E-1	6.151589E-1	6.353010E-1	6.264639E-1	6.292752E-1	6.385801E-1	6.237430E-1	6.281504E-1	6.244515E-1	5.792088E-1	5.998213E-1	6.588635E-1	6.383434E-1	5.804200E-1	5.861163E-1	6.142788E-1	6.001667E-1	6.437234E-1	6.303717E-1	6.482247E-1	6.271972E-1	6.468449E-1	5.923510E-1	6.101469E-1	5.917825E-1	6.503777E-1	6.411186E-1	7.262818E-1	6.244125E-1	6.396933E-1	6.425783E-1	6.105190E-1	6.221709E-1	6.663942E-1	6.273207E-1	5.834306E-1	6.141788E-1	6.463784E-1	6.227181E-1	6.371229E-1	5.924174E-1	5.820224E-1	6.450442E-1	6.530445E-1	6.697369E-1	6.127384E-1	6.295944E-1	6.401255E-1	5.519831E-1	6.677395E-1	5.908805E-1	5.567954E-1	6.395101E-1	5.948332E-1	6.434185E-1	6.133240E-1	6.438970E-1	6.216932E-1	5.944825E-1	6.736473E-1	6.196218E-1	6.021260E-1	6.045926E-1	6.001515E-1	6.317791E-1	6.165948E-1	6.511668E-1	6.422367E-1	5.837410E-1	6.033592E-1	6.018328E-1	6.348533E-1	6.161291E-1	6.776600E-1
2.935090E+2	7.162971E-1	6.881600E-1	7.525796E-1	6.248630E-1	6.756485E-1	6.938364E-1	6.482602E-1	6.983592E-1	6.911320E-1	6.520772E-1	7.100119E-1	6.510584E-1	6.676281E-1	6.704793E-1	6.990434E-1	6.917965E-1	7.045059E-1	6.671620E-1	7.160054E-1	6.818251E-1	6.777700E-1	6.887536E-1	6.569925E-1	6.981733E-1	7.334650E-1	6.664655E-1	6.788540E-1	6.613150E-1	6.652663E-1	6.760028E-1	7.351114E-1	7.042974E-1	6.779714E-1	6.828793E-1	7.137528E-1	6.866606E-1	7.204579E-1	7.156133E-1	6.830321E-1	6.924012E-1	6.802206E-1	6.671082E-1	7.001647E-1	6.811062E-1	6.685622E-1	6.900046E-1	6.912371E-1	7.153234E-1	6.884093E-1	6.984934E-1	7.198397E-1	6.944539E-1	7.089135E-1	7.087762E-1	6.597841E-1	7.091344E-1	6.766810E-1	6.873734E-1	6.932143E-1	6.992845E-1	6.801257E-1	6.273920E-1	7.060477E-1	6.823504E-1	7.061426E-1	6.795565E-1	6.998642E-1	7.158504E-1	6.856960E-1	7.139102E-1	6.713297E-1	6.759390E-1	6.944909E-1	6.606352E-1	6.750982E-1	7.207265E-1	6.863323E-1	6.878355E-1	7.339738E-1	7.139160E-1	6.926651E-1	6.947924E-1	6.660174E-1	7.169333E-1	6.932989E-1	6.972742E-1	6.871615E-1	7.048090E-1	6.616675E-1	6.873350E-1	6.548346E-1	6.728692E-1	6.773369E-1	7.249660E-1	7.115970E-1	6.767177E-1	6.976640E-1	7.296895E-1	6.893317E-1	6.977311E-1	7.059253E-1	7.422078E-1	6.912845E-1	6.716529E-1	6.886883E-1	7.309139E-1	6.510187E-1	6.808333E-1	6.924970E-1	6.733972E-1	6.684290E-1	7.028159E-1	6.628819E-1	7.072044E-1	6.711225E-1	6.813739E-1	6.569795E-1	7.361516E-1	6.822399E-1	7.103543E-1	7.022129E-1	7.306145E-1	6.990336E-1	7.045762E-1	6.744600E-1	6.876368E-1	6.580585E-1	6.539252E-1	7.028532E-1	6.799971E-1	7.225704E-1	6.419833E-1	6.922011E-1	7.010851E-1	7.238773E-1	7.062005E-1	6.933874E-1	6.946084E-1	6.635771E-1	6.781139E-1	6.780009E-1	6.756369E-1	6.859959E-1	6.998788E-1	7.406035E-1	6.846776E-1	6.957338E-1	6.762975E-1	6.444949E-1	7.136239E-1	6.518820E-1	6.358741E-1	6.779831E-1	6.884719E-1	6.670550E-1	6.729004E-1	7.131194E-1	7.565908E-1	7.007269E-1	6.512421E-1	6.945551E-1	6.800503E-1	6.643281E-1	6.963276E-1	6.513943E-1	6.767133E-1	6.629474E-1	7.531127E-1	7.273201E-1	7.386501E-1
2.940070E+2	8.170409E-1	7.793925E-1	8.047476E-1	7.728098E-1	7.960846E-1	7.641199E-1	7.745781E-1	8.114701E-1	7.738337E-1	7.877586E-1	7.851978E-1	7.750798E-1	8.020048E-1	7.549587E-1	7.956838E-1	7.546857E-1	7.908721E-1	7.554992E-1	7.773119E-1	7.514381E-1	8.186754E-1	7.594973E-1	7.460973E-1	7.405192E-1	7.978470E-1	7.755958E-1	7.794476E-1	7.730053E-1	7.786195E-1	7.807654E-1	7.676646E-1	7.687648E-1	7.531538E-1	7.826663E-1	8.335161E-1	7.446954E-1	7.796836E-1	7.591469E-1	7.649027E-1	7.555271E-1	8.275814E-1	7.792512E-1	8.402854E-1	7.960942E-1	8.139972E-1	7.748748E-1	7.907548E-1	7.809909E-1	7.924199E-1	8.082300E-1	7.896181E-1	7.882070E-1	7.900925E-1	7.940606E-1	8.292416E-1	7.657168E-1	7.946438E-1	7.802615E-1	8.068624E-1	7.709780E-1	7.719331E-1	7.733846E-1	7.950732E-1	7.892484E-1	7.903816E-1	8.022807E-1	8.105581E-1	7.916076E-1	7.120336E-1	7.853146E-1	7.853037E-1	7.976430E-1	8.050437E-1	7.729391E-1	7.626887E-1	7.868556E-1	7.713453E-1	8.066843E-1	7.346644E-1	7.466375E-1	7.880224E-1	7.990096E-1	7.901481E-1	7.884546E-1	7.315688E-1	8.473315E-1	7.886972E-1	7.383717E-1	7.892819E-1	7.977297E-1	7.771766E-1	8.001182E-1	7.610262E-1	7.641031E-1	7.367442E-1	7.848565E-1	7.501801E-1	7.504264E-1	7.960431E-1	8.189942E-1	7.923859E-1	7.774595E-1	8.061787E-1	7.341799E-1	7.686488E-1	8.030036E-1	7.518834E-1	7.616529E-1	8.358493E-1	7.824455E-1	7.896849E-1	7.861455E-1	7.975280E-1	7.823925E-1	8.114037E-1	7.775351E-1	7.873663E-1	8.345027E-1	7.873031E-1	8.149101E-1	7.346951E-1	7.983787E-1	8.147611E-1	7.890816E-1	8.047585E-1	8.048463E-1	7.859473E-1	8.155996E-1	8.083752E-1	7.849604E-1	7.558011E-1	7.529723E-1	7.576515E-1	8.281949E-1	7.564629E-1	7.818375E-1	7.687354E-1	7.981246E-1	7.882413E-1	7.581774E-1	8.126312E-1	8.208312E-1	7.529575E-1	7.774145E-1	7.739621E-1	7.665488E-1	7.794619E-1	7.759405E-1	8.017967E-1	8.240036E-1	7.997726E-1	7.774624E-1	8.161926E-1	7.738741E-1	8.205009E-1	7.142176E-1	7.487793E-1	7.840386E-1	7.467344E-1	7.361071E-1	7.990982E-1	7.947055E-1	7.656010E-1	8.453021E-1	7.684969E-1	7.737802E-1	7.810897E-1	8.108319E-1	7.743096E-1	7.960508E-1
2.945030E+2	8.139905E-1	8.625477E-1	8.647275E-1	8.245714E-1	8.089877E-1	8.191986E-1	8.528669E-1	8.487604E-1	8.135086E-1	8.680835E-1	8.500158E-1	8.273346E-1	8.570852E-1	8.281202E-1	8.454770E-1	8.348138E-1	8.444763E-1	8.425729E-1	7.996292E-1	8.115490E-1	8.479778E-1	8.362027E-1	8.817444E-1	7.951053E-1	8.453189E-1	7.852653E-1	8.175999E-1	8.676050E-1	8.297965E-1	8.442788E-1	8.528782E-1	8.545013E-1	8.394314E-1	8.253977E-1	8.394036E-1	7.605067E-1	8.223020E-1	8.454581E-1	8.340538E-1	8.020580E-1	8.472805E-1	8.248291E-1	8.657908E-1	8.420111E-1	8.285751E-1	8.164182E-1	8.415931E-1	8.839795E-1	8.338200E-1	8.070302E-1	8.738518E-1	8.742659E-1	8.385828E-1	8.399476E-1	8.249922E-1	8.211834E-1	8.847201E-1	8.187969E-1	8.352762E-1	8.518031E-1	8.455415E-1	8.283570E-1	8.126187E-1	8.470983E-1	8.305605E-1	8.167676E-1	8.748810E-1	8.231716E-1	7.964638E-1	8.379188E-1	8.259677E-1	8.345402E-1	8.431386E-1	8.702519E-1	8.199686E-1	8.126946E-1	8.406774E-1	8.553408E-1	8.321368E-1	8.104633E-1	7.996449E-1	8.501526E-1	7.888842E-1	8.272488E-1	8.397702E-1	8.311039E-1	8.133648E-1	8.318579E-1	8.579171E-1	8.442252E-1	8.146876E-1	8.636925E-1	8.494464E-1	8.779683E-1	8.115672E-1	8.114933E-1	8.584757E-1	8.795260E-1	8.249388E-1	8.111233E-1	8.434357E-1	8.257566E-1	8.111403E-1	8.245043E-1	8.391170E-1	8.239011E-1	8.104171E-1	8.281549E-1	7.820586E-1	7.985607E-1	8.386836E-1	7.895080E-1	8.811983E-1	8.139393E-1	7.971111E-1	8.109889E-1	8.704416E-1	8.261685E-1	8.196318E-1	8.387760E-1	8.147413E-1	8.076849E-1	8.869990E-1	7.848852E-1	7.831683E-1	8.158981E-1	8.074527E-1	8.117010E-1	8.408324E-1	8.290257E-1	8.566316E-1	8.368379E-1	8.921102E-1	8.065454E-1	8.208956E-1	8.171420E-1	8.230701E-1	8.417396E-1	8.022264E-1	8.666008E-1	8.817627E-1	8.450647E-1	8.367535E-1	8.653201E-1	8.538617E-1	8.595002E-1	8.273819E-1	8.372881E-1	8.003594E-1	8.368345E-1	8.816732E-1	8.263355E-1	8.238032E-1	8.094862E-1	8.495889E-1	8.492195E-1	8.562268E-1	7.804641E-1	8.357341E-1	8.047199E-1	8.012554E-1	8.389980E-1	8.506828E-1	8.813647E-1	7.844686E-1	8.613814E-1	8.601519E-1	9.250437E-1	8.612107E-1	8.141661E-1
2.950070E+2	7.956044E-1	8.413019E-1	7.957433E-1	7.550281E-1	7.735081E-1	8.240340E-1	8.331429E-1	8.390151E-1	7.777875E-1	7.779201E-1	8.150453E-1	7.650710E-1	7.963550E-1	7.649356E-1	7.840781E-1	8.047449E-1	7.921623E-1	8.151883E-1	7.981982E-1	8.294423E-1	8.060374E-1	7.955308E-1	7.772474E-1	8.582876E-1	8.145762E-1	8.176010E-1	7.902409E-1	8.167929E-1	8.025646E-1	8.140326E-1	8.229218E-1	7.946313E-1	7.699967E-1	7.746321E-1	8.232151E-1	7.943448E-1	7.974312E-1	7.448759E-1	8.273281E-1	7.824500E-1	8.019405E-1	7.861631E-1	7.982418E-1	7.892051E-1	8.321980E-1	8.109625E-1	8.202149E-1	8.313784E-1	8.086846E-1	8.425824E-1	7.989059E-1	7.793113E-1	7.392152E-1	7.884305E-1	8.066640E-1	8.139814E-1	7.729046E-1	7.821889E-1	8.036976E-1	8.266817E-1	8.018642E-1	7.610560E-1	7.984662E-1	8.484175E-1	8.423941E-1	7.857575E-1	7.659395E-1	8.106974E-1	8.019989E-1	7.636682E-1	8.050018E-1	7.998575E-1	8.417014E-1	7.498001E-1	7.670329E-1	8.188243E-1	7.903692E-1	7.610240E-1	7.676812E-1	8.248418E-1	7.597453E-1	8.430093E-1	7.460730E-1	8.028282E-1	7.991439E-1	7.864280E-1	8.030713E-1	8.385117E-1	8.145578E-1	7.896116E-1	7.657573E-1	8.167567E-1	7.680938E-1	8.392057E-1	7.491857E-1	7.897320E-1	7.749345E-1	7.864154E-1	8.412611E-1	7.671272E-1	7.911608E-1	8.123661E-1	8.164319E-1	8.228472E-1	7.914237E-1	8.458724E-1	8.102255E-1	8.083035E-1	8.245962E-1	8.012904E-1	8.140298E-1	7.856778E-1	8.829272E-1	8.302203E-1	8.215507E-1	8.147341E-1	8.124743E-1	8.108233E-1	8.215179E-1	8.056388E-1	7.904592E-1	7.941566E-1	8.205054E-1	8.006878E-1	7.683502E-1	8.215122E-1	7.742154E-1	7.736215E-1	8.263745E-1	8.060336E-1	7.893985E-1	7.900924E-1	8.069880E-1	8.551166E-1	7.872317E-1	7.784131E-1	8.558722E-1	8.163613E-1	8.099460E-1	7.612520E-1	7.744991E-1	8.090165E-1	8.665058E-1	7.716546E-1	7.549610E-1	8.235857E-1	7.951534E-1	7.495207E-1	7.812527E-1	8.342657E-1	7.959075E-1	8.182480E-1	7.790118E-1	7.874310E-1	8.169874E-1	7.742045E-1	8.253399E-1	7.833215E-1	7.345995E-1	7.721489E-1	8.137641E-1	8.066999E-1	8.401381E-1	8.095952E-1	8.052653E-1	8.075223E-1	8.342151E-1	8.411793E-1	8.140984E-1	8.441821E-1
2.955070E+2	7.819875E-1	8.055422E-1	8.450106E-1	7.895772E-1	7.894769E-1	8.335145E-1	7.877554E-1	8.471890E-1	8.190945E-1	7.680787E-1	8.565237E-1	8.374375E-1	8.290590E-1	8.133422E-1	8.405526E-1	8.017936E-1	8.162600E-1	8.010815E-1	8.010364E-1	8.596449E-1	8.366418E-1	8.556932E-1	7.838012E-1	8.383716E-1	8.585645E-1	7.789444E-1	8.378048E-1	8.372486E-1	8.094831E-1	7.919984E-1	8.312695E-1	8.677703E-1	8.237864E-1	8.228205E-1	8.612404E-1	7.830116E-1	8.290410E-1	8.334450E-1	8.377820E-1	8.031284E-1	7.970618E-1	7.882845E-1	8.418565E-1	8.144108E-1	7.528572E-1	8.020155E-1	8.746813E-1	8.152107E-1	8.184120E-1	8.442089E-1	8.743298E-1	7.997554E-1	7.943160E-1	8.359837E-1	8.432693E-1	8.458143E-1	8.547654E-1	8.156252E-1	8.057190E-1	8.386990E-1	7.998076E-1	8.341567E-1	8.026640E-1	8.291749E-1	8.336214E-1	8.167010E-1	8.195067E-1	8.228091E-1	8.093662E-1	8.293737E-1	8.163841E-1	8.597094E-1	8.732291E-1	8.319493E-1	7.825911E-1	8.591834E-1	8.264919E-1	8.239553E-1	8.247573E-1	8.518708E-1	8.301934E-1	7.872071E-1	8.184806E-1	8.709572E-1	8.468414E-1	8.409000E-1	7.978010E-1	7.937436E-1	7.846967E-1	8.192935E-1	7.996841E-1	8.244488E-1	8.336024E-1	8.754646E-1	8.053916E-1	8.169561E-1	8.387483E-1	8.308687E-1	8.257262E-1	8.320554E-1	8.925926E-1	8.148547E-1	8.488534E-1	8.432396E-1	7.776918E-1	7.929419E-1	8.131032E-1	8.052086E-1	8.471037E-1	7.928045E-1	7.977163E-1	8.165161E-1	8.045131E-1	8.472616E-1	7.853149E-1	8.010840E-1	8.323548E-1	8.144603E-1	8.049734E-1	8.000827E-1	8.130609E-1	8.211614E-1	8.515846E-1	8.434859E-1	8.708445E-1	8.050651E-1	7.547898E-1	8.017140E-1	8.236685E-1	7.944021E-1	8.552573E-1	8.787545E-1	8.452763E-1	8.085395E-1	8.519009E-1	8.016784E-1	8.015394E-1	8.766094E-1	8.163367E-1	8.578239E-1	7.944453E-1	7.771883E-1	8.161312E-1	8.087206E-1	7.922962E-1	8.307759E-1	7.714507E-1	8.479149E-1	8.223807E-1	7.965845E-1	8.399979E-1	7.895232E-1	8.506932E-1	8.164683E-1	7.742032E-1	7.755173E-1	8.132282E-1	8.023625E-1	7.934213E-1	8.024031E-1	8.027433E-1	8.853680E-1	8.199981E-1	7.766150E-1	8.364935E-1	8.405775E-1	8.111151E-1	7.985203E-1	9.058873E-1	7.839656E-1
2.960050E+2	9.212380E-1	9.795025E-1	9.528475E-1	9.638486E-1	9.876202E-1	1.024839E+0	9.579151E-1	1.010775E+0	1.000028E+0	9.653984E-1	9.740546E-1	1.011445E+0	9.679264E-1	9.554270E-1	9.931667E-1	9.976256E-1	9.848129E-1	1.011289E+0	1.004555E+0	9.401473E-1	9.403283E-1	9.638671E-1	9.163002E-1	9.337884E-1	9.808312E-1	9.453422E-1	9.522426E-1	9.890497E-1	9.676076E-1	9.914005E-1	9.819605E-1	9.642714E-1	9.541357E-1	9.760857E-1	1.026703E+0	9.488117E-1	9.851531E-1	9.717182E-1	9.865421E-1	9.582075E-1	9.358007E-1	1.027753E+0	1.046301E+0	1.020759E+0	9.656519E-1	9.800747E-1	9.817198E-1	9.897596E-1	9.785416E-1	9.594182E-1	1.043507E+0	9.986956E-1	9.987186E-1	9.726284E-1	1.001497E+0	1.033449E+0	1.034822E+0	9.639923E-1	9.872275E-1	1.023437E+0	9.699322E-1	9.827728E-1	9.836370E-1	9.749974E-1	9.682047E-1	9.979834E-1	9.983082E-1	9.836570E-1	9.586192E-1	1.005234E+0	1.015189E+0	1.008508E+0	1.010828E+0	9.611842E-1	1.007257E+0	9.668591E-1	9.545139E-1	9.764601E-1	1.009719E+0	1.002304E+0	9.909871E-1	1.001362E+0	9.721741E-1	1.022350E+0	9.590051E-1	9.746490E-1	9.902785E-1	9.416170E-1	1.014885E+0	9.839510E-1	9.397233E-1	9.970975E-1	9.709434E-1	9.985614E-1	9.461043E-1	9.619583E-1	9.540845E-1	9.667499E-1	9.573702E-1	1.024559E+0	1.033294E+0	9.850540E-1	1.021096E+0	9.757478E-1	9.739716E-1	9.686021E-1	9.921645E-1	1.036725E+0	1.012029E+0	9.577319E-1	9.990314E-1	9.846333E-1	1.028603E+0	1.016538E+0	1.004948E+0	9.165967E-1	9.817552E-1	1.016904E+0	1.039143E+0	9.791586E-1	9.724357E-1	1.041894E+0	9.781537E-1	1.034449E+0	9.404707E-1	9.843446E-1	9.465952E-1	9.706379E-1	1.010009E+0	9.676569E-1	1.001304E+0	9.585951E-1	1.017296E+0	9.993757E-1	1.035087E+0	9.943686E-1	9.354181E-1	1.028429E+0	9.782726E-1	9.719403E-1	9.841207E-1	1.021223E+0	9.763434E-1	1.000200E+0	9.669650E-1	1.000336E+0	9.382944E-1	9.290344E-1	9.868510E-1	9.743043E-1	9.759402E-1	1.004855E+0	9.185064E-1	9.683628E-1	1.002690E+0	9.939419E-1	9.359744E-1	1.012577E+0	9.798402E-1	9.903640E-1	9.161642E-1	9.757997E-1	9.861641E-1	9.899431E-1	9.778651E-1	9.984720E-1	9.762293E-1	9.733093E-1	1.010585E+0	9.528920E-1
2.965010E+2	9.870428E-1	9.431984E-1	9.880484E-1	9.209695E-1	9.700200E-1	9.838120E-1	9.086879E-1	1.010436E+0	1.014902E+0	9.859285E-1	9.907820E-1	9.514419E-1	9.751706E-1	9.731603E-1	9.818158E-1	9.376556E-1	9.480105E-1	9.747665E-1	9.811474E-1	9.974777E-1	1.002852E+0	9.444204E-1	9.945176E-1	9.642948E-1	1.005054E+0	9.302494E-1	9.205015E-1	9.808687E-1	9.685977E-1	9.543470E-1	9.699287E-1	1.003692E+0	9.673359E-1	9.971203E-1	1.021921E+0	9.487105E-1	9.664073E-1	9.816113E-1	9.464229E-1	9.711626E-1	9.601442E-1	9.836592E-1	9.743953E-1	9.881578E-1	9.799575E-1	9.748742E-1	1.010502E+0	1.031953E+0	9.626030E-1	9.976514E-1	9.739842E-1	9.711932E-1	9.725529E-1	9.989329E-1	9.775239E-1	9.726958E-1	1.023564E+0	9.604257E-1	9.770113E-1	9.640014E-1	9.758849E-1	9.412712E-1	9.339346E-1	1.005909E+0	1.015292E+0	9.968805E-1	9.664287E-1	1.000910E+0	9.770710E-1	1.032611E+0	9.872550E-1	1.003699E+0	9.596172E-1	9.168911E-1	9.735048E-1	9.900779E-1	9.530143E-1	9.723136E-1	9.716804E-1	9.991287E-1	9.702553E-1	9.916699E-1	9.573949E-1	9.640566E-1	9.798511E-1	9.883902E-1	9.749892E-1	9.222732E-1	9.383858E-1	9.645520E-1	9.792120E-1	1.029718E+0	9.422771E-1	1.020802E+0	9.739157E-1	9.499627E-1	9.809777E-1	9.374696E-1	9.591289E-1	9.605740E-1	9.668828E-1	9.764722E-1	9.857139E-1	9.382640E-1	9.844094E-1	9.303371E-1	9.329423E-1	1.019984E+0	9.919946E-1	9.578383E-1	9.807963E-1	9.641794E-1	9.702794E-1	9.905154E-1	9.249919E-1	9.527096E-1	9.786677E-1	9.800940E-1	1.029629E+0	9.897123E-1	1.007475E+0	9.970916E-1	9.543582E-1	9.741058E-1	1.026208E+0	9.631255E-1	9.750690E-1	9.414665E-1	9.297666E-1	9.423902E-1	9.898720E-1	1.002381E+0	9.797490E-1	9.633439E-1	9.738020E-1	9.434343E-1	9.215754E-1	9.259869E-1	9.919998E-1	9.719863E-1	1.002678E+0	9.645109E-1	9.979770E-1	9.703048E-1	9.702548E-1	9.852758E-1	9.746132E-1	9.475924E-1	9.708097E-1	9.777912E-1	9.772372E-1	1.024761E+0	9.872023E-1	9.477716E-1	9.922373E-1	1.003955E+0	9.657297E-1	9.797528E-1	9.739794E-1	9.690981E-1	9.493186E-1	9.786179E-1	1.049313E+0	9.738986E-1	9.074117E-1	9.461940E-1	1.004554E+0	1.018642E+0	9.675048E-1	8.911919E-1
2.970040E+2	8.848111E-1	8.351845E-1	8.900323E-1	9.082903E-1	8.541543E-1	8.447837E-1	8.343900E-1	8.402655E-1	8.801826E-1	8.496556E-1	8.893498E-1	8.425821E-1	9.040949E-1	8.370238E-1	8.754249E-1	8.866750E-1	8.267839E-1	8.635391E-1	8.917752E-1	8.599068E-1	8.961110E-1	8.378071E-1	8.410127E-1	8.255082E-1	8.288567E-1	8.759362E-1	8.129491E-1	8.974901E-1	8.938405E-1	8.633360E-1	8.846311E-1	9.131031E-1	8.490358E-1	8.792879E-1	8.790106E-1	8.613087E-1	8.755625E-1	8.389140E-1	8.462728E-1	8.847873E-1	8.311515E-1	8.350986E-1	9.101444E-1	8.469635E-1	8.586438E-1	8.862270E-1	8.418550E-1	8.493817E-1	8.354639E-1	9.038267E-1	8.644917E-1	8.539743E-1	8.512819E-1	8.511173E-1	8.588891E-1	8.737950E-1	8.961829E-1	8.340135E-1	8.662151E-1	8.559743E-1	9.242339E-1	8.599764E-1	8.250105E-1	9.004456E-1	8.604713E-1	8.971349E-1	9.130834E-1	8.781596E-1	8.654251E-1	8.488964E-1	8.745956E-1	8.321660E-1	8.793827E-1	8.341764E-1	8.589745E-1	8.905567E-1	8.788952E-1	9.061419E-1	8.931830E-1	8.667549E-1	8.472782E-1	8.478183E-1	8.525432E-1	9.101970E-1	8.506839E-1	8.728696E-1	8.725654E-1	8.714426E-1	8.967274E-1	8.304298E-1	8.117825E-1	8.780851E-1	8.485977E-1	9.079844E-1	8.008022E-1	8.513840E-1	9.006833E-1	8.674813E-1	8.517093E-1	8.506802E-1	9.265295E-1	8.761511E-1	8.849419E-1	8.551875E-1	8.249780E-1	8.873644E-1	8.197425E-1	9.039438E-1	8.410351E-1	8.587525E-1	8.907369E-1	8.481639E-1	8.793730E-1	8.615984E-1	8.513255E-1	8.350815E-1	8.646368E-1	9.112959E-1	8.487552E-1	8.878371E-1	8.524191E-1	9.121831E-1	8.923900E-1	8.759415E-1	8.705865E-1	8.329757E-1	8.453837E-1	8.698207E-1	8.887505E-1	8.690437E-1	8.869090E-1	8.227411E-1	8.440153E-1	9.177581E-1	9.333070E-1	9.115858E-1	8.801294E-1	8.176073E-1	8.497598E-1	8.565358E-1	8.690899E-1	8.575105E-1	8.578095E-1	9.041717E-1	9.041306E-1	9.043358E-1	8.581447E-1	8.341216E-1	8.733444E-1	8.431986E-1	8.791309E-1	8.805674E-1	8.442045E-1	8.920936E-1	9.028115E-1	8.041557E-1	8.679987E-1	8.662262E-1	8.606528E-1	8.627057E-1	8.386046E-1	9.251172E-1	8.923576E-1	8.659167E-1	8.566406E-1	8.806715E-1	8.372811E-1	8.497674E-1	8.943290E-1	8.005404E-1
2.975040E+2	7.942666E-1	7.639102E-1	8.401898E-1	8.078560E-1	8.013112E-1	7.500931E-1	7.605034E-1	7.720697E-1	7.793776E-1	8.342422E-1	7.983136E-1	7.602106E-1	8.002483E-1	7.750085E-1	7.818837E-1	7.901083E-1	7.185321E-1	7.759310E-1	7.642694E-1	7.784991E-1	7.442241E-1	8.161851E-1	7.635376E-1	7.884764E-1	7.779293E-1	8.094162E-1	8.144496E-1	7.957356E-1	8.143940E-1	7.931107E-1	7.753010E-1	7.509776E-1	7.889333E-1	7.515373E-1	7.561988E-1	8.128633E-1	7.895786E-1	7.506302E-1	7.760106E-1	7.493793E-1	7.971884E-1	7.580730E-1	7.733190E-1	8.060241E-1	8.197284E-1	7.711046E-1	7.751877E-1	8.046369E-1	7.961779E-1	7.982418E-1	7.711142E-1	7.593351E-1	7.967961E-1	7.536122E-1	8.094897E-1	7.786586E-1	7.782699E-1	7.658839E-1	7.799491E-1	7.866228E-1	8.053785E-1	7.716267E-1	7.992127E-1	8.157195E-1	7.912742E-1	7.886125E-1	7.925652E-1	7.596626E-1	8.246480E-1	7.953337E-1	8.021993E-1	7.953894E-1	8.092705E-1	7.711919E-1	7.980414E-1	7.519356E-1	8.254570E-1	7.771980E-1	7.752049E-1	7.974745E-1	7.705941E-1	8.142794E-1	7.845894E-1	7.970462E-1	7.800327E-1	7.641774E-1	7.943975E-1	7.647024E-1	8.280701E-1	7.961481E-1	8.514135E-1	7.673757E-1	7.405558E-1	7.903537E-1	7.792907E-1	7.513695E-1	7.580069E-1	8.206844E-1	7.816354E-1	7.017436E-1	7.854810E-1	7.941321E-1	7.898419E-1	8.024240E-1	7.919684E-1	8.074186E-1	8.172698E-1	7.862823E-1	7.836529E-1	8.212281E-1	7.878531E-1	7.998294E-1	7.599059E-1	8.153361E-1	7.733198E-1	7.903042E-1	7.604144E-1	8.232447E-1	7.652021E-1	7.945005E-1	7.860621E-1	7.765927E-1	7.948053E-1	7.543986E-1	8.071609E-1	7.601735E-1	7.896785E-1	8.129659E-1	8.060356E-1	8.068416E-1	7.818685E-1	7.591125E-1	7.819444E-1	8.168295E-1	7.957427E-1	7.587750E-1	8.166815E-1	7.831578E-1	8.440393E-1	8.268562E-1	7.901534E-1	7.518086E-1	7.828727E-1	7.928023E-1	8.243907E-1	7.640261E-1	7.729679E-1	7.747837E-1	8.187835E-1	7.835307E-1	8.188954E-1	7.340083E-1	7.654450E-1	7.959627E-1	7.870783E-1	8.096897E-1	7.741530E-1	7.702581E-1	7.977370E-1	8.003066E-1	8.304377E-1	7.554354E-1	8.131755E-1	7.433000E-1	8.086005E-1	7.229017E-1	7.986835E-1	7.937819E-1	7.566279E-1	7.561271E-1
2.980020E+2	9.175333E-1	9.266343E-1	9.008860E-1	9.399911E-1	9.025354E-1	9.088988E-1	9.285498E-1	9.618501E-1	9.532105E-1	9.250049E-1	9.400900E-1	9.356006E-1	9.680859E-1	8.892312E-1	9.155454E-1	9.004530E-1	9.462540E-1	9.297995E-1	9.201257E-1	9.365259E-1	9.402296E-1	9.575974E-1	9.819712E-1	9.239468E-1	9.678358E-1	9.397979E-1	9.308541E-1	8.918512E-1	9.347709E-1	9.110269E-1	9.544312E-1	9.625057E-1	9.228984E-1	9.586102E-1	9.309136E-1	8.958940E-1	9.099951E-1	9.299066E-1	9.290589E-1	9.339867E-1	9.173032E-1	9.380422E-1	9.209316E-1	9.407750E-1	9.104105E-1	9.446472E-1	9.244023E-1	9.163897E-1	9.349919E-1	9.301650E-1	9.171368E-1	9.364917E-1	9.636668E-1	9.323721E-1	8.898103E-1	9.416612E-1	9.476464E-1	9.670269E-1	9.517315E-1	9.038328E-1	9.547498E-1	9.059078E-1	9.224005E-1	9.299485E-1	9.593532E-1	9.417383E-1	9.399651E-1	9.111426E-1	9.322346E-1	9.112564E-1	9.135335E-1	8.806303E-1	9.122860E-1	9.380028E-1	9.076269E-1	9.518699E-1	8.937403E-1	9.277971E-1	8.935869E-1	9.264794E-1	9.615687E-1	8.883302E-1	9.461730E-1	9.260595E-1	9.087190E-1	9.376631E-1	9.191558E-1	9.340489E-1	8.738342E-1	8.802736E-1	9.480795E-1	9.679958E-1	9.280760E-1	9.542435E-1	9.633631E-1	9.139393E-1	9.264983E-1	9.536558E-1	8.920311E-1	8.656235E-1	9.501513E-1	9.261903E-1	9.132893E-1	9.479772E-1	9.529271E-1	9.373288E-1	9.101128E-1	9.312815E-1	9.134868E-1	9.656059E-1	9.181697E-1	8.970044E-1	9.083363E-1	9.071475E-1	9.568986E-1	9.785454E-1	9.326028E-1	9.302948E-1	9.778643E-1	9.448899E-1	9.250675E-1	9.123329E-1	9.589833E-1	9.237054E-1	9.385250E-1	9.402612E-1	8.915406E-1	8.709749E-1	9.573350E-1	9.124231E-1	8.854976E-1	9.718385E-1	9.329821E-1	8.907319E-1	9.448659E-1	9.572086E-1	9.090411E-1	9.202001E-1	8.968846E-1	8.959247E-1	9.638116E-1	9.403086E-1	9.341496E-1	9.223979E-1	9.551596E-1	9.591323E-1	9.209646E-1	9.417793E-1	9.198798E-1	9.350096E-1	9.711509E-1	9.251498E-1	9.115108E-1	9.524670E-1	9.173108E-1	9.200333E-1	9.111387E-1	9.283431E-1	9.253642E-1	8.735766E-1	9.020210E-1	9.865165E-1	8.769789E-1	9.318154E-1	9.645604E-1	9.295033E-1	9.265737E-1	9.890462E-1	9.069678E-1	9.567715E-1
2.985020E+2	1.028845E+0	1.018593E+0	1.099515E+0	1.045723E+0	1.062452E+0	1.062843E+0	1.049968E+0	1.074298E+0	1.050291E+0	1.053356E+0	1.023389E+0	1.064116E+0	1.057588E+0	1.067518E+0	1.061754E+0	1.042929E+0	1.063933E+0	1.075459E+0	1.012491E+0	1.073393E+0	1.070496E+0	1.092773E+0	1.073497E+0	1.049096E+0	1.046868E+0	1.108992E+0	1.065411E+0	1.029466E+0	1.041683E+0	1.020149E+0	1.053320E+0	1.045382E+0	1.065271E+0	1.072432E+0	1.048028E+0	1.098813E+0	1.056267E+0	1.094790E+0	1.065991E+0	1.035261E+0	1.051039E+0	1.047703E+0	1.052244E+0	1.077882E+0	1.046845E+0	1.095611E+0	1.067640E+0	1.088673E+0	1.084538E+0	1.100391E+0	1.079665E+0	1.109063E+0	1.059662E+0	1.068320E+0	1.080358E+0	1.012792E+0	1.060332E+0	1.046530E+0	1.038181E+0	1.070893E+0	1.059543E+0	1.070471E+0	1.045080E+0	1.062009E+0	1.043622E+0	1.040743E+0	1.095912E+0	1.039042E+0	1.049173E+0	1.042779E+0	1.055684E+0	1.071267E+0	1.072976E+0	1.047205E+0	1.053600E+0	1.070990E+0	1.047893E+0	1.090699E+0	1.085407E+0	1.081234E+0	1.022513E+0	1.046369E+0	1.074081E+0	1.035672E+0	1.053498E+0	1.034220E+0	1.075352E+0	1.093682E+0	1.069042E+0	1.070699E+0	1.017580E+0	1.058513E+0	1.035685E+0	1.058790E+0	1.039408E+0	1.087762E+0	1.098880E+0	1.044135E+0	1.088588E+0	1.126828E+0	1.026402E+0	1.043081E+0	1.026267E+0	1.003992E+0	1.042366E+0	1.064661E+0	1.058334E+0	1.057518E+0	1.018458E+0	1.054145E+0	1.055986E+0	1.036363E+0	1.041271E+0	1.076683E+0	1.043215E+0	9.886210E-1	1.102450E+0	1.061484E+0	1.064083E+0	1.038478E+0	9.939803E-1	1.065218E+0	1.035920E+0	1.061758E+0	9.968093E-1	1.021738E+0	1.059858E+0	1.053798E+0	1.054584E+0	1.069033E+0	1.079617E+0	1.050918E+0	1.056324E+0	1.035462E+0	1.113152E+0	1.045553E+0	1.035889E+0	1.031501E+0	9.969683E-1	1.080178E+0	9.985880E-1	1.064295E+0	1.027209E+0	1.074284E+0	1.066320E+0	1.041294E+0	1.032062E+0	1.059138E+0	1.064990E+0	1.088189E+0	1.061347E+0	1.029645E+0	1.013357E+0	1.062191E+0	1.039553E+0	1.017832E+0	1.076501E+0	1.036770E+0	1.066458E+0	1.079778E+0	1.056484E+0	1.068878E+0	1.056608E+0	1.095032E+0	1.012549E+0	1.063506E+0	1.011086E+0	1.012261E+0	1.086271E+0	1.042692E+0
2.990040E+2	1.126681E+0	1.124192E+0	1.071194E+0	1.126877E+0	1.095791E+0	1.136760E+0	1.165598E+0	1.085721E+0	1.118944E+0	1.089407E+0	1.113876E+0	1.136934E+0	1.106334E+0	1.141737E+0	1.125726E+0	1.138210E+0	1.101395E+0	1.180332E+0	1.151208E+0	1.086115E+0	1.095081E+0	1.094032E+0	1.108457E+0	1.099770E+0	1.086858E+0	1.055089E+0	1.090159E+0	1.158384E+0	1.104472E+0	1.132521E+0	1.099445E+0	1.103878E+0	1.111099E+0	1.120306E+0	1.105879E+0	1.108021E+0	1.122115E+0	1.124034E+0	1.136939E+0	1.141601E+0	1.096160E+0	1.122288E+0	1.093218E+0	1.110112E+0	1.121950E+0	1.101523E+0	1.123586E+0	1.122544E+0	1.117516E+0	1.152237E+0	1.149273E+0	1.113736E+0	1.106470E+0	1.120060E+0	1.082919E+0	1.164403E+0	1.083359E+0	1.096897E+0	1.133475E+0	1.107312E+0	1.085592E+0	1.140631E+0	1.141716E+0	1.093266E+0	1.108086E+0	1.130192E+0	1.091400E+0	1.127803E+0	1.099813E+0	1.110787E+0	1.125114E+0	1.085736E+0	1.128953E+0	1.133920E+0	1.131469E+0	1.111363E+0	1.084976E+0	1.127919E+0	1.136469E+0	1.113788E+0	1.089206E+0	1.147906E+0	1.069777E+0	1.073375E+0	1.145372E+0	1.113096E+0	1.124483E+0	1.077322E+0	1.115663E+0	1.133479E+0	1.110165E+0	1.134191E+0	1.148611E+0	1.093679E+0	1.141285E+0	1.105620E+0	1.115388E+0	1.091616E+0	1.141540E+0	1.129276E+0	1.094852E+0	1.139012E+0	1.109222E+0	1.110236E+0	1.111577E+0	1.130435E+0	1.114298E+0	1.100262E+0	1.137888E+0	1.071173E+0	1.117920E+0	1.135971E+0	1.121302E+0	1.053487E+0	1.161485E+0	1.111591E+0	1.110711E+0	1.132209E+0	1.111644E+0	1.097485E+0	1.116520E+0	1.139398E+0	1.083091E+0	1.120503E+0	1.090098E+0	1.132342E+0	1.116997E+0	1.136227E+0	1.147568E+0	1.100110E+0	1.147999E+0	1.160309E+0	1.105222E+0	1.090053E+0	1.108499E+0	1.125089E+0	1.121052E+0	1.107702E+0	1.119481E+0	1.093696E+0	1.094238E+0	1.101512E+0	1.124086E+0	1.073447E+0	1.072187E+0	1.141989E+0	1.133766E+0	1.108768E+0	1.074124E+0	1.077836E+0	1.080936E+0	1.161952E+0	1.114007E+0	1.126101E+0	1.073648E+0	1.096129E+0	1.107181E+0	1.130789E+0	1.058253E+0	1.110260E+0	1.088112E+0	1.122659E+0	1.106030E+0	1.088129E+0	1.180431E+0	1.111275E+0	1.132371E+0	1.073936E+0	1.067072E+0	1.143889E+0
2.995060E+2	1.061446E+0	1.050999E+0	1.043908E+0	1.008892E+0	1.044181E+0	1.026316E+0	1.037569E+0	1.035886E+0	9.953934E-1	1.058788E+0	1.037483E+0	1.048803E+0	1.015568E+0	1.050110E+0	1.040787E+0	1.067736E+0	1.082507E+0	9.952579E-1	1.076394E+0	1.052913E+0	1.070476E+0	1.008642E+0	1.038207E+0	1.102490E+0	1.079636E+0	1.006594E+0	1.063201E+0	1.061457E+0	1.054180E+0	1.050644E+0	1.055483E+0	1.071922E+0	1.022323E+0	1.000369E+0	1.091862E+0	1.039355E+0	1.057037E+0	1.032523E+0	1.032621E+0	1.068939E+0	1.089683E+0	1.105341E+0	1.054738E+0	1.058826E+0	1.043156E+0	1.059662E+0	1.014817E+0	1.022511E+0	1.030957E+0	9.714990E-1	1.030695E+0	1.025198E+0	1.019178E+0	1.030911E+0	1.072827E+0	1.028539E+0	1.024959E+0	1.064667E+0	1.060310E+0	1.044295E+0	1.059915E+0	1.031550E+0	1.052210E+0	1.033317E+0	1.052330E+0	1.024088E+0	1.020126E+0	1.082582E+0	1.021987E+0	1.067987E+0	1.037073E+0	1.079612E+0	1.022986E+0	1.009467E+0	1.087008E+0	1.020719E+0	1.043688E+0	1.025863E+0	1.046770E+0	1.019847E+0	1.081021E+0	1.048651E+0	1.046334E+0	1.080877E+0	1.048728E+0	1.069464E+0	1.049563E+0	1.087875E+0	1.016228E+0	1.019456E+0	1.055178E+0	1.057421E+0	1.033002E+0	1.066203E+0	1.021466E+0	1.024743E+0	1.023569E+0	1.054783E+0	1.021006E+0	1.071212E+0	1.072092E+0	1.032270E+0	1.054036E+0	1.028808E+0	1.024791E+0	1.021996E+0	1.057159E+0	1.019802E+0	1.062179E+0	1.049819E+0	1.066582E+0	1.050631E+0	1.080591E+0	1.086475E+0	1.016008E+0	1.031548E+0	1.012676E+0	9.924261E-1	1.033674E+0	1.075925E+0	1.095210E+0	1.047578E+0	1.062283E+0	1.066724E+0	1.115101E+0	1.047286E+0	1.041797E+0	1.050012E+0	9.764685E-1	1.029083E+0	1.002181E+0	1.055521E+0	1.065803E+0	1.095699E+0	1.026243E+0	1.035566E+0	1.041316E+0	1.071849E+0	1.053340E+0	1.042898E+0	1.065449E+0	1.060478E+0	1.022407E+0	1.064597E+0	1.019484E+0	1.016294E+0	1.067557E+0	1.025408E+0	1.047850E+0	1.052747E+0	1.019712E+0	1.023955E+0	1.111482E+0	1.003114E+0	1.084587E+0	1.036668E+0	1.030947E+0	1.044214E+0	1.073510E+0	1.116111E+0	1.050549E+0	9.942303E-1	1.067639E+0	1.043569E+0	1.004714E+0	1.099461E+0	1.070888E+0	1.040289E+0	1.076001E+0	1.059861E+0
3.000060E+2	1.071229E+0	1.115672E+0	1.044307E+0	1.070662E+0	1.093729E+0	1.115089E+0	1.057813E+0	1.070175E+0	1.102783E+0	1.039203E+0	1.086849E+0	1.054336E+0	1.052175E+0	1.076395E+0	1.074303E+0	1.060564E+0	1.087380E+0	1.043221E+0	1.075512E+0	1.072554E+0	1.079494E+0	1.030771E+0	1.034330E+0	1.036221E+0	1.040872E+0	1.080111E+0	1.035924E+0	1.063106E+0	1.050500E+0	1.092549E+0	1.062020E+0	1.065335E+0	1.089474E+0	1.096745E+0	1.067118E+0	1.045054E+0	1.065007E+0	1.068116E+0	1.059379E+0	1.070834E+0	1.048626E+0	1.028552E+0	1.105549E+0	1.006381E+0	1.057910E+0	1.027453E+0	1.094367E+0	1.045245E+0	1.035820E+0	1.047466E+0	1.052117E+0	1.056176E+0	1.054227E+0	1.094725E+0	1.064595E+0	1.073946E+0	1.105434E+0	1.058995E+0	1.036353E+0	1.087044E+0	1.034822E+0	1.079814E+0	1.039380E+0	1.065741E+0	1.045335E+0	1.074626E+0	1.060032E+0	1.079768E+0	1.072144E+0	1.071858E+0	1.066396E+0	1.087365E+0	1.053529E+0	1.100213E+0	1.022255E+0	1.093123E+0	1.104246E+0	1.050524E+0	1.062563E+0	1.061177E+0	1.075098E+0	1.054464E+0	1.079046E+0	1.086970E+0	1.063650E+0	1.081379E+0	1.037049E+0	1.042369E+0	1.097163E+0	1.099943E+0	1.017584E+0	1.014504E+0	1.114070E+0	1.036731E+0	1.055188E+0	1.116566E+0	1.077657E+0	1.035125E+0	1.075199E+0	1.105317E+0	1.071022E+0	1.065314E+0	1.107344E+0	1.106564E+0	1.076370E+0	1.038161E+0	1.042827E+0	1.104855E+0	1.084335E+0	1.038028E+0	1.053490E+0	1.080202E+0	1.088593E+0	1.060872E+0	1.049073E+0	1.099390E+0	1.081146E+0	1.060342E+0	1.047533E+0	1.048721E+0	1.083160E+0	1.058881E+0	1.064918E+0	1.072910E+0	1.052305E+0	1.098200E+0	1.100130E+0	1.076022E+0	1.058009E+0	1.082509E+0	1.102836E+0	1.002301E+0	1.057725E+0	1.071224E+0	1.011496E+0	1.077807E+0	1.076019E+0	1.085590E+0	1.089287E+0	1.060446E+0	1.087760E+0	1.081599E+0	1.109275E+0	1.072472E+0	1.062460E+0	1.077264E+0	1.072683E+0	1.090122E+0	1.074373E+0	1.062688E+0	1.047959E+0	1.125289E+0	1.084200E+0	1.060165E+0	1.097823E+0	1.119649E+0	1.100079E+0	1.089626E+0	1.078677E+0	1.019967E+0	1.072395E+0	1.072281E+0	1.079568E+0	1.098155E+0	1.029145E+0	1.073353E+0	1.060398E+0	1.090686E+0	1.107060E+0	1.040660E+0
