Photon Energy (eV)	#1	#2	#3	#4	#5	#6	#7	#8	#9	#10	#11	#12	#13	#14	#15	#16	#17	#18	#19	#20	#21	#22	#23	#24	#25	#26	#27	#28	#29	#30	#31	#32	#33	#34	#35	#36	#37	#38	#39	#40	#41	#42	#43	#44	#45	#46	#47	#48	#49	#50	#51	#52	#53	#54	#55	#56	#57	#58	#59	#60	#61	#62	#63	#64	#65	#66	#67	#68	#69	#70	#71	#72	#73	#74	#75	#76	#77	#78	#79	#80	#81	#82	#83	#84	#85	#86	#87	#88	#89	#90	#91	#92	#93	#94	#95	#96	#97	#98	#99	#100	#101	#102	#103	#104	#105	#106	#107	#108	#109	#110	#111	#112	#113	#114	#115	#116	#117	#118	#119	#120	#121	#122	#123	#124	#125	#126	#127	#128	#129	#130	#131	#132	#133	#134	#135	#136	#137	#138	#139	#140	#141	#142	#143	#144	#145	#146	#147	#148	#149	#150	#151	#152	#153	#154	#155	#156	#157	#158	#159	#160	#161	#162	#163	#164	#165	#166	#167	#168	#169	#170	
2.790040E+2	-1.022412E-2	-8.115495E-3	2.447991E-3	-2.647464E-3	-3.015283E-3	-2.596100E-3	1.324938E-2	-1.622088E-3	1.949165E-3	-1.047465E-2	1.372629E-2	-4.836324E-3	-1.381404E-2	-4.233115E-3	-7.893889E-3	1.882612E-3	-5.292534E-4	-1.423181E-3	-6.241292E-3	8.710464E-3	-4.255079E-3	-2.360737E-5	-1.171051E-2	-8.731070E-3	-1.671751E-2	-7.739567E-3	-3.417172E-3	-5.377928E-3	2.390887E-4	-1.444408E-4	-7.672045E-3	-3.486190E-3	-1.928710E-2	-2.111801E-3	2.047101E-3	-8.403493E-4	-4.114943E-3	8.740443E-4	2.192359E-3	-5.423806E-3	-6.584823E-3	5.589304E-3	-6.672229E-3	-1.595159E-3	-9.327001E-4	2.006493E-3	-3.490843E-3	-2.257970E-3	-5.830991E-3	-1.215770E-2	7.608433E-4	3.366357E-3	-6.296995E-4	-8.952726E-3	-9.516572E-3	1.736997E-4	-7.633153E-3	3.419392E-3	7.082721E-3	-1.204027E-3	-7.845117E-3	-2.297074E-3	-6.488555E-3	-1.341535E-3	1.980662E-3	5.576545E-3	-6.265008E-3	-4.731585E-3	-8.929301E-3	-7.216063E-4	8.981790E-4	2.735462E-3	4.315920E-3	4.359270E-4	-7.292798E-3	7.930283E-3	-8.359682E-3	4.046797E-3	-6.215549E-3	-1.901693E-3	-4.237421E-3	-1.338027E-3	6.462198E-4	-2.764759E-3	-3.263894E-3	-3.397302E-3	6.868621E-3	9.406970E-4	-1.230624E-2	-9.008289E-3	-4.402239E-3	1.970858E-3	9.674997E-3	-5.249360E-3	-1.092903E-3	-1.192010E-2	1.321071E-4	-1.627298E-3	-8.521204E-3	-8.850513E-3	-3.672887E-3	-2.606891E-3	-3.165290E-3	-6.200555E-3	-1.820937E-3	-4.176608E-3	-4.510104E-3	-8.234803E-3	-1.014014E-2	-7.486472E-3	-1.275383E-3	-1.169248E-2	-3.608513E-3	6.933958E-4	-3.135873E-3	-8.238028E-3	-1.319328E-2	-5.682992E-3	-7.017715E-3	1.676315E-3	-1.378745E-2	-1.524902E-2	-1.815759E-2	-3.617507E-4	3.600001E-3	-8.467091E-4	-5.276865E-3	-5.689961E-3	-9.119628E-3	-1.122153E-2	-4.565134E-3	-7.089294E-4	-1.152636E-2	-9.764225E-3	1.180001E-4	4.433335E-3	-7.017734E-3	-7.562340E-3	-3.279641E-3	1.196808E-2	2.237118E-3	-1.104838E-2	-5.128116E-3	-3.721048E-3	-1.259945E-2	5.547237E-3	1.051809E-2	6.520316E-4	-1.096708E-3	-5.800673E-3	4.888268E-3	-1.198360E-3	-5.912820E-3	-5.095763E-3	2.135019E-3	-4.836928E-3	-2.179111E-3	-8.713077E-3	-7.770522E-3	7.080136E-3	-2.080780E-3	-2.185983E-2	5.652351E-4	4.016720E-3	-6.111400E-3	-7.670120E-3	-9.643303E-3	-1.279179E-2	-1.590745E-2	-2.619902E-2
2.795010E+2	-5.514980E-3	3.098963E-4	-1.067479E-2	-4.351646E-3	-1.120151E-2	-5.265371E-3	-1.307563E-2	-3.501867E-3	-8.701184E-3	6.534925E-3	-4.394750E-3	-7.827405E-3	1.190930E-3	-7.573338E-3	2.369742E-3	-1.989732E-3	1.162687E-3	-9.734730E-3	-6.756480E-3	-1.329120E-2	-9.655701E-3	-3.670273E-3	2.437753E-3	-1.572379E-3	7.369669E-3	-2.608745E-3	-1.663593E-3	-3.433062E-3	5.456949E-3	3.312554E-4	-6.114716E-3	-1.323597E-2	3.562380E-4	2.680222E-3	-1.337267E-2	-3.786343E-3	-5.692026E-3	-4.511216E-3	-4.669950E-3	-2.728786E-3	-1.479911E-2	-1.488465E-2	-1.194536E-2	-3.364867E-3	-2.563640E-3	1.038598E-2	-7.954993E-3	-8.924171E-3	-6.370459E-3	5.087282E-3	8.718118E-3	-8.422078E-3	4.105516E-3	9.541949E-3	9.819373E-4	1.704950E-3	-1.149173E-2	-6.485603E-4	-9.000818E-4	-3.060027E-3	-6.286818E-3	-1.789096E-3	4.070877E-3	-1.081442E-2	-4.758431E-3	6.060634E-3	-4.467803E-3	-2.890215E-3	-9.362783E-3	-8.025353E-3	-3.951862E-3	4.400220E-3	-6.730175E-3	-5.189399E-3	-4.280177E-3	7.203037E-3	-9.349442E-4	-3.145306E-3	-1.549295E-3	-2.410063E-3	-1.342929E-3	3.639008E-3	-1.190983E-2	2.503217E-3	-9.039054E-3	7.639171E-3	-1.081704E-2	-6.707938E-3	-2.349071E-3	-4.153049E-3	-7.167823E-3	-2.226558E-3	-4.918083E-3	-1.900131E-3	-9.660578E-3	-6.573204E-3	-5.378930E-3	-1.145526E-2	-2.580891E-3	-5.845353E-3	-4.156345E-3	-1.102545E-2	6.584084E-3	1.829422E-3	2.455005E-3	-4.669191E-3	-7.365130E-3	-2.587056E-5	-8.445101E-3	-6.001444E-3	-5.950809E-3	-3.924869E-3	-6.743200E-3	5.984798E-3	-1.228533E-3	9.862234E-4	-7.175601E-3	3.749424E-3	6.370423E-4	-6.701814E-3	3.453349E-3	1.103655E-3	-1.327740E-2	-6.111048E-3	-7.789240E-3	-4.201892E-3	-1.173111E-2	-6.136634E-3	3.949177E-4	-3.221609E-3	-6.280463E-3	-5.779111E-3	3.181334E-3	-7.277632E-3	7.008947E-4	-6.749472E-3	-7.900102E-4	1.017859E-3	-1.503926E-4	-1.628033E-2	-1.029814E-2	-3.327220E-4	-2.413989E-3	-1.691494E-2	-5.786828E-3	-9.803723E-3	9.812958E-3	-8.272975E-3	-2.681485E-3	1.126544E-2	-1.591254E-2	-6.120009E-4	1.621963E-3	-6.612651E-3	-5.465040E-3	3.394548E-3	-5.862087E-3	-8.185287E-3	6.453225E-4	-1.049988E-2	2.105388E-3	-4.258739E-3	-9.599181E-3	-1.355343E-3	-1.051696E-2	1.372749E-2	7.292856E-3	8.317989E-3	1.589840E-3	1.941934E-2
2.800030E+2	-7.119813E-3	-5.139338E-3	6.905326E-3	-2.152246E-3	-7.039152E-3	6.719336E-4	-1.453578E-2	5.133346E-7	6.315490E-3	3.076208E-3	-1.187649E-3	-4.520858E-3	-8.660728E-3	8.061531E-3	3.000248E-3	-2.315184E-3	-3.774625E-3	-9.981365E-3	-1.166179E-2	-1.002824E-2	9.521073E-3	-1.075716E-2	-4.100231E-3	2.428610E-3	-1.897001E-3	-4.036214E-3	1.262355E-2	-2.489064E-3	-8.419883E-3	-3.130522E-3	-4.405869E-3	7.657718E-4	-6.995003E-3	-7.323521E-3	-6.274626E-3	-4.096830E-3	1.825804E-3	-1.144836E-2	-1.786826E-3	2.215421E-3	-2.959174E-3	-8.906219E-3	5.895504E-3	-2.484934E-3	-5.003012E-3	-2.859013E-3	-2.132647E-3	-1.016704E-2	-6.806315E-4	-5.192435E-3	9.503131E-3	1.149386E-3	-1.402897E-3	-5.697224E-3	-9.054399E-3	-9.024410E-3	1.073800E-2	-1.000742E-2	6.336971E-5	-9.853688E-4	-2.577939E-3	-1.904362E-2	-6.171010E-3	2.664178E-3	-2.687959E-3	-1.169753E-2	-2.453279E-3	1.464072E-3	-1.062249E-2	-5.394218E-3	-3.192446E-3	-5.392514E-4	-9.296107E-3	-1.452171E-2	8.183045E-3	8.022437E-3	9.971089E-4	-4.354967E-3	-2.862403E-3	-1.621894E-3	-3.877937E-3	-9.779407E-3	-3.883104E-3	-9.267807E-3	-4.137107E-3	-1.381227E-2	-8.798411E-3	6.903947E-5	-3.509098E-4	8.162308E-3	-6.142410E-4	-6.084176E-3	-8.362566E-3	-5.087306E-3	1.085874E-3	2.702035E-3	-8.098251E-3	-3.698121E-3	-2.875606E-3	5.324263E-3	-2.403310E-4	-2.480360E-3	-8.505803E-3	4.669890E-3	4.518422E-3	3.588306E-3	1.861160E-3	-6.452371E-3	5.227530E-3	-5.307889E-3	-4.156882E-3	4.909123E-3	7.439489E-4	-7.326347E-3	-3.950151E-3	4.264991E-3	1.081172E-3	-5.702787E-4	-8.389350E-4	4.085440E-3	-3.900831E-3	-4.362449E-3	7.223964E-3	-1.533984E-2	-3.744249E-3	-1.683990E-3	-4.055516E-3	-3.436996E-3	1.982707E-2	-2.447269E-3	-7.332483E-4	7.414998E-3	5.861366E-3	-4.652695E-3	-6.173579E-3	3.615256E-4	-1.003324E-2	6.926243E-4	-2.906117E-3	-3.185507E-4	-8.362405E-3	-1.611952E-3	-4.838866E-3	-4.524284E-3	2.299715E-3	-5.151354E-3	-9.374310E-4	-2.461360E-4	-1.115825E-2	-5.532880E-3	5.702304E-4	-1.002525E-2	1.305996E-3	-1.334826E-3	-9.202623E-3	5.749312E-4	-3.003676E-3	-3.636757E-3	-1.638995E-3	-2.473343E-4	-1.331244E-2	-9.006635E-3	-4.141588E-4	8.828199E-3	1.270135E-2	-1.876057E-4	2.633561E-3	2.152189E-2	1.306987E-2	-1.519877E-2
2.805030E+2	9.615610E-3	-3.883640E-3	-3.084340E-3	-5.735813E-3	-3.753570E-3	-5.533286E-3	3.409395E-3	1.028748E-2	-1.016188E-2	-1.119829E-2	-8.258203E-3	3.577808E-4	-2.933158E-3	-3.130645E-3	-5.175447E-3	-3.316012E-3	-4.963998E-3	-8.872715E-3	-1.787078E-4	-6.518133E-3	-7.985902E-3	-1.835252E-4	-2.036644E-3	1.341427E-3	1.024544E-2	-5.163006E-3	-9.060956E-4	1.480003E-2	-8.438548E-3	-3.130403E-3	-5.389808E-3	1.090734E-2	3.439069E-3	-5.199716E-3	-7.544804E-3	-1.852009E-3	-2.069325E-3	9.233192E-4	1.345001E-3	-9.148594E-4	3.604370E-3	3.470072E-3	-1.270124E-4	1.078912E-3	-5.022786E-3	-7.803860E-3	8.734318E-4	1.035336E-3	-7.927461E-3	-7.385124E-3	-6.325244E-3	-8.654660E-3	-2.435618E-3	1.243514E-3	2.868837E-3	6.600224E-3	6.377138E-4	1.030661E-2	-8.363002E-3	-1.066412E-2	3.374277E-3	1.079406E-3	-8.152775E-3	5.622874E-3	-5.085281E-3	-3.587834E-3	-7.019474E-3	4.948631E-3	5.823303E-3	3.239525E-3	1.018301E-3	-3.965482E-3	-3.568359E-3	1.628298E-3	-3.338707E-3	-1.025602E-2	-4.560641E-3	6.859287E-3	-4.884675E-3	-5.853000E-3	-3.873121E-3	6.596575E-3	-6.238842E-3	-1.243836E-3	1.137733E-2	-3.254626E-3	-1.102607E-2	2.094003E-3	-3.462985E-4	-1.261083E-3	5.851215E-4	-2.531506E-3	-8.356010E-3	6.967336E-4	-8.635432E-4	-1.448621E-4	7.968853E-3	-1.055907E-2	6.019800E-3	6.472765E-3	8.134841E-4	4.695373E-4	-1.076706E-2	-2.717319E-3	-1.223424E-2	-2.798214E-3	-4.046838E-3	2.126855E-3	-8.702218E-3	-1.349320E-3	-1.029574E-2	-7.200204E-3	-5.714711E-3	2.086047E-3	-3.182489E-4	-1.742067E-3	1.176606E-2	-9.465945E-3	-7.753429E-3	-8.050292E-3	8.937941E-3	1.014195E-2	1.240970E-2	2.592949E-6	-1.123040E-2	-4.448131E-3	-7.984640E-3	-4.397635E-3	-7.309106E-3	-1.391660E-3	6.275182E-3	8.553861E-3	-4.114401E-3	2.990238E-3	3.737565E-4	6.676365E-3	-1.002322E-2	-2.666829E-3	7.498855E-4	2.164571E-3	1.214298E-2	1.404683E-3	-3.763401E-3	4.965134E-3	-2.476494E-3	-1.002131E-2	-5.545459E-3	-1.082465E-2	-9.022758E-4	6.380374E-4	5.762108E-4	8.261109E-3	-3.235854E-3	3.067269E-3	1.171598E-4	6.114853E-4	2.205113E-3	3.091498E-3	-6.138685E-4	-1.176325E-2	1.790164E-3	8.763854E-3	-7.496974E-3	-4.910302E-4	-2.887973E-3	-1.158037E-2	-1.315377E-2	-1.742090E-2	-4.568669E-3	-9.505688E-3
2.810080E+2	6.059070E-4	-8.946790E-3	-6.275586E-3	5.480488E-3	-3.720549E-3	2.809494E-3	2.785227E-3	-1.003729E-2	-1.337556E-3	-8.088251E-3	-2.837241E-3	-4.352429E-3	9.506758E-3	5.328865E-3	8.339135E-3	-7.522852E-3	-1.533099E-3	5.441097E-3	1.327260E-2	7.189599E-4	7.736986E-4	8.546660E-3	-1.937319E-3	7.208281E-3	-6.251532E-3	-1.704265E-3	-7.290232E-3	-1.841746E-2	1.209142E-3	-9.360290E-3	2.764473E-3	-1.132841E-3	-7.011647E-3	-9.090486E-4	2.844960E-3	6.233917E-3	1.263927E-2	2.877002E-3	-3.650957E-3	2.287908E-3	5.834028E-3	-1.096472E-2	1.131334E-2	-9.634230E-3	-6.107969E-3	-4.805251E-3	5.682270E-3	4.141095E-3	1.731495E-3	9.149512E-3	9.663784E-4	-3.736637E-3	-9.688111E-3	-1.684246E-3	-2.522223E-3	-1.212162E-2	4.041398E-3	-7.731778E-3	-2.331904E-3	1.391260E-3	1.431942E-3	-5.244761E-3	9.812754E-3	-3.150975E-3	-1.345553E-2	-3.557290E-3	6.732370E-3	-1.243129E-2	6.898204E-3	2.327948E-3	1.058026E-5	-3.930638E-3	-3.538466E-3	1.666756E-3	-6.781404E-3	-5.021372E-3	-3.415225E-3	-4.292439E-3	3.051223E-4	1.619655E-3	-1.168820E-2	5.549521E-3	6.807048E-3	2.230550E-3	5.337833E-5	9.273483E-3	-6.492334E-3	-1.494703E-2	7.667042E-3	-1.213610E-3	-2.784639E-3	5.799186E-3	-1.942262E-3	7.492993E-3	1.837826E-4	-1.044674E-3	-1.888476E-3	1.467192E-2	3.523648E-3	7.664064E-3	-1.230727E-3	5.415986E-3	-5.277382E-4	-1.325767E-2	-6.212768E-3	-1.676713E-3	5.463063E-3	9.449531E-4	-3.292472E-3	6.591630E-4	-5.126749E-3	2.960347E-3	-5.136915E-4	9.555336E-4	-1.359005E-2	-1.703505E-3	2.220588E-3	-7.424741E-3	8.458458E-3	-5.801619E-3	2.016756E-3	3.983035E-3	-1.087737E-2	1.156484E-2	6.019650E-4	4.911562E-3	3.915309E-3	5.489320E-4	3.838729E-3	4.911901E-3	7.498199E-3	-1.272250E-2	-9.069438E-3	-7.786600E-4	4.071053E-4	-1.677170E-3	7.162864E-5	-1.489969E-3	-1.502231E-2	-3.982460E-3	1.410217E-3	4.464688E-3	1.618393E-3	7.165583E-3	7.143327E-3	-7.550865E-3	-4.354819E-3	-9.559169E-3	-8.478982E-4	6.942545E-4	-7.156817E-3	6.092444E-3	2.199363E-4	9.453396E-4	3.687606E-3	-3.001526E-3	6.449691E-3	7.051089E-3	-5.442356E-3	-2.165767E-3	4.167069E-3	7.721269E-3	5.521936E-3	3.202886E-3	-1.265802E-2	-7.392670E-3	5.591760E-3	-5.504157E-3	7.245439E-3	2.480356E-2
2.815020E+2	-8.218665E-4	6.131109E-3	-1.572412E-3	5.345898E-3	9.262225E-3	1.097195E-2	-1.306266E-2	-3.731164E-3	5.133338E-3	1.425814E-2	-7.872066E-3	-3.266345E-3	1.032462E-2	-4.115992E-3	1.064796E-4	7.326164E-3	2.951862E-3	9.690100E-3	5.688510E-3	2.934556E-3	7.450787E-3	1.683905E-3	8.852304E-3	-9.207045E-3	2.473375E-3	7.147541E-3	4.145099E-3	1.133505E-2	4.015930E-3	8.331503E-3	1.682262E-3	1.095149E-2	6.786513E-3	-9.953071E-4	-1.402366E-3	3.968906E-4	1.774554E-3	-4.824638E-3	4.375934E-3	1.491725E-2	-1.920506E-3	8.576136E-3	-4.676511E-3	-1.085385E-2	7.691323E-3	-8.837146E-3	-1.177648E-3	6.103354E-3	5.223041E-3	2.430155E-4	-1.977542E-2	3.565524E-3	-2.483787E-3	2.122338E-4	1.019667E-3	9.839401E-3	5.066025E-3	-8.925036E-3	5.480095E-4	1.300078E-3	-5.594799E-3	1.475542E-2	6.954664E-3	6.967116E-4	6.818108E-3	1.369035E-2	9.528520E-3	3.822748E-3	7.825534E-3	8.943011E-3	-6.316831E-3	-1.477167E-3	6.685329E-3	-1.413737E-3	-3.019293E-3	-7.533746E-3	-1.271967E-3	6.838834E-3	7.265734E-3	1.595390E-3	9.492371E-3	3.929617E-6	9.955515E-3	2.134013E-3	9.815732E-4	2.457321E-3	8.675286E-3	1.308942E-2	3.003949E-3	9.167232E-3	5.854666E-3	-2.578404E-3	9.637930E-3	-5.103517E-3	4.940011E-3	2.689097E-3	1.720227E-3	5.384694E-3	-7.995308E-3	-5.019394E-3	7.680087E-4	4.296777E-4	-1.764266E-3	3.572557E-3	-3.281762E-4	-2.840523E-3	-4.100720E-3	-6.492277E-3	6.249830E-3	3.500636E-3	1.117682E-2	-2.181349E-3	1.227071E-2	3.186212E-3	-2.802098E-3	9.005602E-3	-1.089124E-3	2.397052E-3	1.413235E-3	1.832243E-3	3.090589E-3	-3.358507E-3	7.145969E-3	-6.443512E-3	6.928675E-3	-3.546446E-3	1.761209E-2	3.393244E-3	-8.597260E-3	2.723862E-3	-6.603507E-3	-4.692031E-4	-5.145000E-3	2.956895E-3	-7.617389E-4	-5.959457E-3	1.110138E-2	-4.949599E-3	-4.474700E-4	9.640151E-3	1.312849E-3	2.368871E-3	-1.676922E-3	-2.903292E-4	8.204571E-3	1.548325E-2	7.088919E-3	1.405530E-2	6.229620E-3	-5.531165E-3	5.018008E-3	-5.395898E-3	1.293888E-3	6.387726E-3	1.307165E-3	-3.055352E-3	4.305408E-3	2.469494E-4	5.304391E-3	-5.419691E-3	-5.223280E-3	-1.014816E-2	7.082655E-4	-7.407121E-3	1.067731E-2	4.990303E-3	8.376219E-3	-1.145316E-2	-1.661919E-3	-1.518355E-2
2.820060E+2	-4.535242E-4	1.424084E-2	1.458570E-2	-4.981347E-4	4.176412E-3	-1.097652E-3	1.108419E-2	1.069958E-2	-5.489128E-3	-2.730241E-3	9.366565E-3	6.727024E-3	2.205668E-4	6.554469E-3	-2.245217E-3	9.927843E-3	1.480166E-2	9.044840E-3	5.027463E-3	1.045159E-2	-2.871329E-3	5.049365E-3	1.191084E-2	7.507924E-3	-3.794718E-3	1.435603E-2	6.530383E-3	4.258287E-3	2.437964E-3	3.499659E-3	5.783864E-3	1.161594E-3	7.204247E-3	3.656323E-3	4.793015E-3	3.086568E-3	2.201452E-3	7.029437E-3	-7.376047E-3	-4.535826E-4	1.608577E-2	7.980213E-3	-9.412836E-4	2.182525E-2	9.148241E-3	9.396219E-3	5.033962E-3	3.521595E-4	7.939515E-4	6.177644E-3	1.136256E-4	8.790109E-3	6.213723E-3	3.608747E-3	2.125078E-3	-5.497528E-3	-1.036011E-2	7.305057E-3	-4.029883E-4	7.768455E-3	6.689746E-3	9.947775E-3	5.367035E-3	-1.854809E-3	-2.365658E-3	-1.380462E-2	3.131524E-4	3.092663E-3	1.346295E-2	7.261871E-4	-4.403940E-3	1.299334E-2	-9.311148E-4	6.083200E-3	1.170513E-2	-6.530881E-3	5.843019E-3	-9.642754E-3	1.943789E-3	1.142433E-2	1.447288E-2	1.473283E-3	5.314735E-4	-9.000270E-4	-6.920827E-3	8.718513E-3	1.915483E-2	5.731240E-3	-4.610545E-3	-1.961866E-3	7.296930E-3	-3.227888E-3	1.540743E-3	4.989731E-3	6.502166E-3	2.239516E-3	-9.126326E-3	-1.028423E-2	4.978146E-3	-1.085238E-3	2.216975E-3	6.799655E-3	-9.663158E-5	9.755235E-3	6.143193E-3	7.296984E-3	-2.416568E-3	4.017340E-3	2.647651E-4	9.947896E-4	2.856669E-3	1.258784E-2	-2.324948E-4	-5.817967E-3	1.083886E-2	-1.369980E-3	-2.810012E-3	4.896434E-3	-1.008772E-3	-4.330269E-3	2.382288E-3	2.223313E-3	1.396366E-2	5.608793E-3	1.494485E-2	5.929307E-4	8.133584E-3	1.176250E-2	-2.073825E-3	6.299655E-3	-1.591023E-3	-9.121583E-3	5.307915E-3	4.375372E-4	-2.674655E-3	-3.519217E-3	4.835635E-3	1.298517E-5	1.351848E-2	-1.146466E-3	1.774971E-3	7.498860E-4	1.054447E-2	1.284677E-2	2.684564E-3	9.974591E-3	-1.100044E-2	-8.606076E-4	3.602754E-3	4.134576E-3	8.897522E-3	-2.669420E-3	6.356002E-3	9.034647E-3	1.113442E-2	-5.182025E-3	-6.782722E-3	4.497401E-3	6.773606E-3	1.087058E-2	6.817605E-3	1.599201E-2	7.192010E-3	-2.260265E-3	-2.590042E-3	5.570615E-3	1.029868E-2	6.645751E-3	4.526450E-3	-9.212616E-3
2.825040E+2	1.391279E-2	5.403419E-3	-2.331894E-3	4.558917E-3	1.529143E-2	3.903441E-5	1.014588E-2	-2.095167E-3	1.229175E-2	8.622157E-3	1.457054E-3	1.771856E-2	4.165051E-3	-8.917744E-4	1.498948E-3	-3.992840E-3	-8.115233E-3	5.835954E-3	8.497000E-4	7.022010E-3	7.022452E-3	-6.453654E-4	-3.416195E-3	1.024254E-3	8.572279E-3	-2.517743E-4	-1.002194E-2	-6.758512E-4	3.499358E-3	3.603239E-3	1.335184E-2	-5.931182E-3	1.550769E-2	1.020285E-2	1.890939E-2	8.581555E-4	-6.564782E-3	9.080408E-3	9.570486E-3	-9.899540E-3	7.394451E-4	9.139872E-3	7.153553E-3	5.028879E-3	2.790543E-3	2.516573E-3	3.166467E-3	9.717240E-3	1.306106E-2	4.077811E-3	6.038571E-3	3.942000E-3	6.320874E-3	1.727752E-3	1.409768E-2	8.325281E-3	9.001852E-3	6.281737E-3	4.303876E-3	5.453746E-3	1.080871E-2	2.591947E-3	-5.392990E-3	8.177979E-3	1.955409E-2	7.319745E-3	3.631521E-3	6.724978E-3	-5.095422E-3	-1.095494E-3	1.593802E-2	-1.021648E-2	1.306297E-2	1.131066E-2	4.824204E-3	6.186268E-3	1.170233E-2	3.690548E-3	5.997276E-3	-2.852722E-3	1.054353E-3	-6.144882E-3	4.091522E-3	7.308649E-3	1.094861E-2	-7.624291E-3	2.435125E-3	-2.694235E-4	9.292076E-3	2.683570E-4	1.232224E-3	8.878488E-3	2.725251E-3	4.160857E-3	-1.094811E-3	1.205219E-2	1.467080E-2	1.756736E-2	7.451415E-3	1.339405E-3	5.501823E-3	2.997846E-3	1.824270E-2	2.348445E-3	7.479506E-3	5.275958E-3	1.511514E-2	1.411617E-2	1.883781E-2	1.499054E-2	1.277207E-2	4.541596E-3	3.797956E-3	2.383268E-4	1.418609E-2	-1.203235E-3	9.200194E-3	1.210105E-2	6.110114E-3	1.729000E-2	-2.192646E-3	5.518028E-3	1.569067E-3	1.107993E-2	-3.311604E-3	9.222677E-3	-6.128543E-4	3.956553E-3	3.039099E-3	4.346651E-3	5.999994E-3	1.283247E-2	1.550459E-2	1.608854E-2	8.010217E-3	6.434090E-3	1.185556E-2	1.494527E-2	7.537571E-3	-2.044991E-3	-2.175877E-4	4.004923E-3	5.658429E-3	4.731141E-4	5.305914E-4	1.522175E-3	-5.581819E-3	1.505620E-2	6.854243E-3	1.324120E-4	3.119116E-3	5.547371E-3	-1.649112E-3	-6.391742E-3	-3.713706E-3	1.149487E-2	4.867384E-3	5.648183E-3	2.742421E-3	1.214520E-2	5.736278E-3	1.279623E-2	3.522866E-3	-4.534046E-3	1.138573E-2	2.542354E-3	-1.139600E-2	1.068437E-2	-4.293561E-3	3.107674E-2
2.830030E+2	1.193135E-2	3.382886E-3	2.152161E-2	-1.257518E-3	1.812086E-2	1.427400E-2	1.683303E-2	9.706061E-4	2.073304E-2	1.020314E-2	3.228656E-2	6.156875E-3	1.928693E-2	1.290951E-2	2.782004E-2	1.065719E-2	1.321353E-2	2.095128E-2	9.962917E-3	1.961181E-2	3.600039E-3	-1.075619E-3	1.392314E-3	1.260367E-2	1.368613E-2	2.197830E-2	5.237000E-3	1.118549E-2	1.483041E-2	1.374410E-2	1.397318E-2	4.834028E-3	2.325011E-2	1.035160E-3	1.844819E-2	8.402231E-3	1.484847E-2	-1.075600E-2	1.961786E-2	1.079766E-2	1.352664E-2	3.369673E-3	6.530624E-3	1.643810E-2	1.310129E-2	1.817990E-2	2.254536E-2	1.236150E-2	-7.231771E-3	6.875167E-3	4.268422E-3	8.149177E-3	1.532832E-2	-2.819327E-3	1.873186E-2	3.027108E-2	6.133993E-3	9.148848E-3	8.359782E-3	1.584811E-2	8.354328E-3	4.191850E-3	7.017574E-3	1.480931E-2	-2.975271E-3	1.976121E-3	1.715471E-2	1.915955E-2	1.529063E-2	7.224898E-3	1.755254E-2	2.203765E-2	1.956297E-2	9.828521E-3	1.857612E-2	4.269418E-3	2.256319E-2	2.431055E-2	1.350162E-2	8.244309E-3	1.527353E-2	5.403466E-3	2.205745E-2	2.425969E-2	2.006633E-2	6.547010E-3	1.200463E-2	6.392066E-3	6.355583E-3	1.812143E-3	1.005861E-2	5.826906E-3	1.734796E-2	1.359520E-2	9.148698E-3	1.074991E-2	2.158964E-2	5.416227E-3	1.872879E-2	1.474890E-2	2.739527E-2	1.055785E-2	1.022636E-2	1.595665E-2	1.171518E-2	1.787154E-2	1.852172E-4	-1.682848E-3	1.408640E-2	1.546306E-3	9.458621E-3	8.180100E-3	1.884920E-2	1.965164E-3	1.717651E-2	1.531247E-2	4.375318E-3	7.718614E-3	7.707800E-3	2.139147E-2	1.023408E-2	1.241805E-2	1.758376E-2	5.134045E-3	1.576045E-2	4.119227E-3	4.692152E-3	2.148800E-2	1.364887E-2	2.513819E-2	1.206835E-2	1.467408E-2	1.821988E-2	1.187033E-2	1.234565E-2	1.993750E-2	4.510576E-3	8.705811E-3	1.464468E-2	7.367205E-3	5.795820E-3	1.791241E-2	8.304234E-3	2.369827E-2	1.576448E-2	8.236680E-3	1.218862E-2	3.055467E-2	1.164458E-2	5.914511E-3	1.139903E-2	2.384895E-2	1.047191E-2	7.542934E-3	1.236368E-2	8.514067E-3	8.602606E-3	1.905797E-2	3.870648E-3	5.342391E-3	1.814239E-2	5.491330E-3	8.916323E-3	1.391830E-2	1.399014E-2	3.139075E-3	1.035998E-2	4.142677E-2	5.125201E-3	2.901641E-3
2.835020E+2	1.829080E-2	2.403823E-2	1.894368E-2	2.121734E-2	2.708643E-2	2.606827E-2	1.181036E-2	2.303302E-2	7.018795E-3	3.552164E-2	4.385628E-2	2.582681E-2	2.930716E-2	3.136633E-2	3.002604E-2	1.946261E-2	1.660244E-2	3.234260E-2	2.078351E-2	2.935989E-2	1.856163E-2	1.780571E-2	1.816353E-2	3.170479E-2	2.394825E-2	1.729088E-2	3.239309E-2	1.738783E-2	3.389264E-2	3.108944E-2	2.552575E-2	3.324653E-2	3.284729E-2	4.062066E-2	3.280011E-2	1.776375E-2	3.323809E-2	2.551200E-2	2.166248E-2	2.044157E-2	3.618455E-2	2.889656E-2	2.740835E-2	2.610714E-2	3.297351E-2	4.294917E-2	2.870358E-2	2.498886E-2	3.728987E-2	3.068704E-2	3.036234E-2	4.080934E-2	1.845480E-2	3.508500E-2	2.694796E-2	1.959402E-2	5.026502E-2	1.009603E-2	1.526837E-2	2.820287E-2	1.129477E-2	3.041255E-2	1.909852E-2	3.123938E-2	2.030576E-2	7.614256E-3	1.935629E-2	1.055298E-2	3.239094E-2	1.312076E-2	1.054742E-2	2.202502E-2	3.621714E-2	3.810654E-2	2.900878E-2	1.772063E-2	3.416356E-2	3.528730E-2	2.060330E-2	2.761310E-2	3.146370E-2	3.467186E-2	6.751346E-3	2.303716E-2	1.803679E-2	1.749549E-2	3.452346E-2	2.935718E-2	3.092249E-2	2.885871E-2	2.480258E-2	2.403525E-2	1.617917E-2	2.671624E-2	3.798378E-2	4.270937E-2	1.752822E-2	4.091569E-2	1.497378E-2	2.296550E-2	9.029804E-3	2.584716E-2	3.690326E-2	3.498400E-4	2.641466E-2	2.902717E-2	3.473218E-2	2.729805E-2	3.306614E-2	3.622200E-2	2.856571E-2	2.811389E-2	2.669288E-2	1.141056E-2	2.781018E-2	2.518022E-2	3.063675E-3	2.220672E-2	3.358205E-2	2.487806E-2	2.460336E-2	2.312145E-2	2.599872E-2	1.272455E-2	1.568520E-2	1.955865E-2	2.811811E-2	2.466173E-2	4.428395E-2	3.070857E-2	1.425949E-2	2.629178E-2	3.606141E-2	2.889992E-2	2.010465E-2	1.879826E-2	2.754783E-2	3.671239E-2	1.684083E-2	1.216121E-2	2.811718E-2	2.633050E-2	1.242188E-2	2.162115E-2	3.310590E-2	2.440846E-2	3.924419E-2	1.069450E-2	3.298260E-2	3.039876E-2	3.593681E-2	3.702375E-2	2.090447E-2	3.827548E-2	1.546664E-2	2.122133E-2	4.323903E-2	2.523138E-2	1.551599E-2	1.947021E-2	1.799258E-2	1.919150E-2	2.539750E-2	1.007367E-2	4.863872E-2	2.468228E-2	3.191698E-2	2.305647E-3	3.655188E-2	9.714405E-3
2.840000E+2	4.184783E-2	4.342145E-2	5.784285E-2	3.173961E-2	6.491521E-2	4.887026E-2	4.387162E-2	3.919260E-2	3.294763E-2	4.952579E-2	5.762625E-2	5.501067E-2	3.427392E-2	4.920112E-2	4.927550E-2	4.985047E-2	6.682260E-2	5.177692E-2	4.947807E-2	3.732665E-2	5.644893E-2	5.242743E-2	3.979810E-2	4.406412E-2	6.350433E-2	4.276970E-2	5.616522E-2	4.150792E-2	4.407940E-2	4.528458E-2	4.597959E-2	5.474021E-2	4.837659E-2	4.961140E-2	4.096401E-2	2.301554E-2	3.110133E-2	5.682360E-2	5.598049E-2	5.900809E-2	7.097731E-2	5.389444E-2	2.673872E-2	4.820032E-2	2.690739E-2	4.512344E-2	5.540708E-2	4.087608E-2	4.838285E-2	2.911098E-2	3.356631E-2	4.814367E-2	5.548283E-2	4.243550E-2	3.811234E-2	3.570658E-2	4.905178E-2	4.766272E-2	2.904003E-2	5.196072E-2	4.121121E-2	4.930052E-2	3.949031E-2	3.639263E-2	2.846629E-2	2.995784E-2	4.021790E-2	4.052104E-2	5.740015E-2	5.047801E-2	3.901967E-2	3.854080E-2	3.705288E-2	4.553458E-2	4.149645E-2	4.389009E-2	5.279194E-2	5.432144E-2	4.401578E-2	4.279748E-2	4.410640E-2	4.361431E-2	3.478293E-2	5.167252E-2	5.176682E-2	5.404566E-2	3.441799E-2	4.091054E-2	7.659898E-2	5.426714E-2	5.270379E-2	5.119466E-2	2.444483E-2	4.609492E-2	4.924866E-2	5.219161E-2	6.650210E-2	5.416846E-2	4.133269E-2	3.694644E-2	5.834630E-2	4.337669E-2	4.404776E-2	3.224850E-2	6.660506E-2	4.577197E-2	3.447800E-2	3.957944E-2	4.772217E-2	2.360055E-2	4.075686E-2	4.725272E-2	4.364626E-2	2.544596E-2	3.572910E-2	6.175897E-2	3.059420E-2	2.081312E-2	5.477697E-2	3.611750E-2	5.009889E-2	3.586641E-2	2.405701E-2	4.850401E-2	3.777881E-2	5.110299E-2	4.507121E-2	5.682618E-2	4.773648E-2	4.594339E-2	4.321906E-2	2.070472E-2	4.885457E-2	4.601785E-2	4.630173E-2	6.113715E-2	2.941360E-2	3.276086E-2	4.455073E-2	4.828643E-2	6.582790E-2	5.160005E-2	4.065326E-2	4.021009E-2	3.888243E-2	5.088811E-2	4.464123E-2	5.680977E-2	4.267995E-2	4.991059E-2	5.013097E-2	5.631515E-2	4.687412E-2	5.666559E-2	3.448566E-2	4.688267E-2	3.986326E-2	5.267491E-2	7.007161E-2	3.468104E-2	2.822646E-2	3.645931E-2	7.896421E-2	4.167894E-2	5.203117E-2	3.661742E-2	5.239399E-2	3.503269E-2	5.425137E-2	4.767988E-2
2.841030E+2	3.683007E-2	3.578748E-2	4.164522E-2	3.562205E-2	3.741295E-2	7.174014E-2	3.491372E-2	5.103746E-2	3.593198E-2	4.574476E-2	6.359239E-2	4.543088E-2	5.963671E-2	4.074003E-2	4.017628E-2	4.606617E-2	5.173778E-2	5.468818E-2	5.918691E-2	4.306725E-2	4.458352E-2	2.514468E-2	3.942677E-2	3.991158E-2	3.460956E-2	4.210938E-2	3.279973E-2	3.929268E-2	2.927222E-2	5.149316E-2	6.148132E-2	4.332673E-2	5.298204E-2	2.506438E-2	4.155251E-2	4.102293E-2	4.319281E-2	4.105842E-2	3.063941E-2	3.834117E-2	3.999095E-2	4.562000E-2	3.691616E-2	4.650627E-2	3.898866E-2	4.249419E-2	3.820417E-2	3.753905E-2	3.614597E-2	6.150854E-2	4.152202E-2	4.668915E-2	3.930936E-2	4.512465E-2	3.124068E-2	4.474288E-2	3.156879E-2	4.097042E-2	3.444755E-2	2.770846E-2	5.680840E-2	4.534565E-2	3.791221E-2	4.007245E-2	4.196265E-2	4.412410E-2	4.532189E-2	4.814486E-2	3.812805E-2	2.110873E-2	4.146424E-2	5.551090E-2	4.006841E-2	3.194122E-2	2.920499E-2	4.784441E-2	4.143086E-2	5.092978E-2	4.459504E-2	3.780000E-2	4.711450E-2	2.416532E-2	2.918932E-2	3.115821E-2	3.569918E-2	3.297256E-2	4.339119E-2	6.211228E-2	4.670406E-2	2.999104E-2	3.020027E-2	3.006686E-2	3.858994E-2	4.772691E-2	2.612745E-2	4.355272E-2	5.785402E-2	3.508713E-2	4.185410E-2	3.623237E-2	3.760839E-2	3.762810E-2	4.155552E-2	3.502273E-2	4.407328E-2	3.827511E-2	4.916024E-2	4.139503E-2	4.022185E-2	3.250232E-2	3.608758E-2	4.782484E-2	3.584093E-2	4.488106E-2	4.360701E-2	2.995525E-2	4.143381E-2	3.838844E-2	4.038340E-2	4.259062E-2	5.070138E-2	2.294200E-2	4.705752E-2	5.461678E-2	3.250409E-2	4.167813E-2	3.652044E-2	3.102710E-2	2.571387E-2	5.548125E-2	4.262916E-2	4.297223E-2	2.893704E-2	5.483982E-2	3.887472E-2	4.360291E-2	2.747545E-2	4.175982E-2	3.825133E-2	3.537537E-2	5.951983E-2	5.758945E-2	4.119008E-2	4.983605E-2	4.843076E-2	4.619068E-2	3.958417E-2	2.651967E-2	4.884839E-2	3.279066E-2	4.569074E-2	4.460909E-2	5.622303E-2	5.602051E-2	4.825119E-2	4.466668E-2	4.730958E-2	4.909652E-2	2.248921E-2	2.952255E-2	4.368332E-2	4.295395E-2	3.146324E-2	3.590243E-2	3.476416E-2	4.950740E-2	4.149880E-2	3.560311E-2	6.448041E-2	4.215793E-2
2.842030E+2	7.512068E-2	5.845740E-2	4.241436E-2	6.669740E-2	6.649306E-2	5.925707E-2	4.527035E-2	5.829878E-2	5.211611E-2	6.753496E-2	8.927701E-2	5.790498E-2	5.639197E-2	6.582290E-2	6.544690E-2	6.093473E-2	5.513314E-2	6.276051E-2	6.811359E-2	5.889851E-2	6.752516E-2	5.817410E-2	5.314865E-2	4.176522E-2	6.774282E-2	5.136799E-2	4.298185E-2	5.367097E-2	6.870734E-2	6.938233E-2	5.741462E-2	7.102481E-2	3.615535E-2	4.998107E-2	6.363669E-2	6.369627E-2	6.525187E-2	6.251704E-2	6.555661E-2	5.744476E-2	6.102360E-2	5.650844E-2	5.728700E-2	7.063479E-2	6.190830E-2	6.261659E-2	5.796748E-2	7.119110E-2	6.183978E-2	7.082723E-2	4.357098E-2	5.855689E-2	6.714613E-2	5.131763E-2	4.997364E-2	5.321933E-2	5.918832E-2	5.768010E-2	5.384296E-2	5.815755E-2	6.760761E-2	5.537205E-2	6.100619E-2	5.317215E-2	3.639446E-2	5.623868E-2	5.190098E-2	5.690971E-2	6.458589E-2	6.341635E-2	5.270585E-2	7.962045E-2	6.337632E-2	5.678363E-2	4.068591E-2	4.762050E-2	7.769121E-2	6.301797E-2	5.913394E-2	6.074810E-2	4.322076E-2	5.798519E-2	4.344900E-2	5.810300E-2	5.222735E-2	4.831648E-2	6.130425E-2	6.832327E-2	6.250558E-2	4.207962E-2	6.196893E-2	5.520890E-2	7.427747E-2	4.127779E-2	7.672610E-2	6.259047E-2	8.183691E-2	6.318816E-2	6.163095E-2	5.321025E-2	7.132458E-2	6.819339E-2	6.919221E-2	6.433786E-2	6.978560E-2	4.602827E-2	6.877727E-2	5.243667E-2	6.584279E-2	5.463312E-2	7.266217E-2	6.025758E-2	6.073137E-2	5.852383E-2	6.558724E-2	6.115105E-2	5.970018E-2	3.378361E-2	5.418118E-2	5.814180E-2	4.908961E-2	5.285264E-2	8.336398E-2	5.315619E-2	5.542582E-2	5.972800E-2	3.522215E-2	5.654696E-2	6.941336E-2	6.886117E-2	6.908815E-2	6.067192E-2	8.622859E-2	6.514410E-2	6.179059E-2	7.680217E-2	4.514261E-2	5.601745E-2	6.788899E-2	7.245431E-2	5.933216E-2	3.887587E-2	7.155190E-2	4.866663E-2	5.720942E-2	6.291874E-2	6.752325E-2	4.263241E-2	6.310695E-2	6.813787E-2	5.775352E-2	7.658951E-2	7.818280E-2	7.371446E-2	4.460418E-2	3.054944E-2	5.953662E-2	5.309589E-2	6.179430E-2	4.973083E-2	7.473236E-2	5.826001E-2	6.086374E-2	5.954800E-2	7.380329E-2	4.021214E-2	8.722483E-2	4.059079E-2	1.422437E-2	7.383706E-2
2.843010E+2	9.670895E-2	7.687655E-2	9.920608E-2	1.057386E-1	9.796645E-2	1.004325E-1	9.731609E-2	7.686807E-2	8.007665E-2	8.250919E-2	1.126300E-1	8.777148E-2	9.237786E-2	1.163209E-1	9.261120E-2	8.534852E-2	9.526362E-2	8.581141E-2	1.065479E-1	7.578369E-2	1.041490E-1	9.647784E-2	8.342357E-2	1.330442E-1	7.916078E-2	1.044002E-1	8.900447E-2	1.165954E-1	9.561216E-2	8.934944E-2	1.022368E-1	1.090665E-1	9.103875E-2	8.166718E-2	8.550040E-2	8.400931E-2	8.077162E-2	9.633164E-2	7.420381E-2	1.017838E-1	9.743164E-2	9.307212E-2	1.281807E-1	1.056607E-1	1.150051E-1	8.799328E-2	1.084848E-1	7.912045E-2	1.110799E-1	9.659279E-2	8.927479E-2	1.313073E-1	9.493884E-2	9.188266E-2	9.641794E-2	1.007170E-1	1.051305E-1	9.144758E-2	7.434451E-2	8.383574E-2	9.094589E-2	6.511455E-2	8.398251E-2	9.112179E-2	9.062676E-2	1.047352E-1	1.171506E-1	1.213371E-1	7.748963E-2	9.543963E-2	8.467739E-2	1.019876E-1	8.145904E-2	8.599337E-2	9.435296E-2	9.408458E-2	1.039779E-1	1.106628E-1	8.719330E-2	1.043120E-1	1.086978E-1	1.085918E-1	9.468795E-2	1.179814E-1	7.874456E-2	6.981834E-2	8.550358E-2	9.455276E-2	1.078843E-1	8.154724E-2	9.488132E-2	1.006983E-1	9.351557E-2	1.197149E-1	8.050227E-2	1.002931E-1	9.596912E-2	8.624767E-2	9.651341E-2	9.685752E-2	1.142049E-1	8.913763E-2	9.783203E-2	9.211607E-2	9.923721E-2	1.038156E-1	1.093095E-1	9.729349E-2	7.355432E-2	9.713517E-2	9.342465E-2	1.207299E-1	1.221953E-1	9.764558E-2	9.870435E-2	1.096525E-1	9.182153E-2	9.295198E-2	9.942426E-2	7.837493E-2	9.946784E-2	9.646599E-2	9.806272E-2	9.660834E-2	9.240817E-2	1.122703E-1	8.198379E-2	9.124111E-2	8.777676E-2	1.025525E-1	7.686321E-2	9.490079E-2	1.023826E-1	7.942400E-2	1.130906E-1	9.326413E-2	8.343148E-2	9.846324E-2	7.898277E-2	1.037237E-1	1.039175E-1	9.883386E-2	9.548151E-2	6.943114E-2	7.901234E-2	8.354030E-2	9.436356E-2	1.182500E-1	7.499154E-2	1.305323E-1	7.683155E-2	9.603815E-2	9.030345E-2	1.035685E-1	1.004200E-1	1.138640E-1	8.553012E-2	8.625916E-2	7.375181E-2	8.399899E-2	1.072011E-1	8.783235E-2	9.282266E-2	7.427013E-2	1.108398E-1	9.300250E-2	9.226129E-2	9.748646E-2	1.112028E-1	1.114786E-1
2.844030E+2	1.378006E-1	1.338731E-1	1.298768E-1	1.060875E-1	1.341710E-1	1.416421E-1	1.452061E-1	1.445737E-1	1.248034E-1	1.329983E-1	1.434781E-1	1.435505E-1	1.524850E-1	1.392810E-1	1.414849E-1	1.227768E-1	9.967577E-2	1.377671E-1	1.450296E-1	1.342406E-1	1.716551E-1	1.442587E-1	1.426218E-1	1.437795E-1	1.448946E-1	1.587663E-1	1.542691E-1	1.608744E-1	1.679885E-1	1.424362E-1	1.552048E-1	1.533731E-1	1.195090E-1	1.565942E-1	1.591950E-1	1.315389E-1	1.562345E-1	1.488876E-1	1.406218E-1	1.483615E-1	1.134296E-1	1.353055E-1	1.298840E-1	1.800166E-1	1.494946E-1	1.371610E-1	1.377177E-1	1.701915E-1	1.432881E-1	1.583173E-1	1.514314E-1	1.568778E-1	1.557733E-1	1.780960E-1	1.375631E-1	1.340228E-1	1.412544E-1	1.684161E-1	1.411614E-1	1.623013E-1	1.370911E-1	1.315184E-1	1.379690E-1	1.209598E-1	1.424175E-1	1.532542E-1	1.442684E-1	1.632533E-1	1.488842E-1	1.400233E-1	1.481563E-1	1.738245E-1	1.747765E-1	1.494870E-1	1.394267E-1	1.272225E-1	1.693961E-1	1.254894E-1	1.512405E-1	1.446350E-1	1.460227E-1	1.544510E-1	1.434992E-1	1.320392E-1	1.448994E-1	1.565226E-1	1.484143E-1	1.431749E-1	1.632494E-1	1.417620E-1	1.243616E-1	1.510570E-1	1.779729E-1	1.444885E-1	1.438108E-1	1.479912E-1	1.437398E-1	1.655234E-1	1.568063E-1	1.406182E-1	1.558898E-1	1.313599E-1	1.357152E-1	1.574233E-1	1.416550E-1	1.429089E-1	9.970696E-2	1.495386E-1	1.364361E-1	1.268260E-1	1.458611E-1	1.671170E-1	1.225598E-1	1.302055E-1	1.354110E-1	1.309018E-1	1.238049E-1	1.522266E-1	1.522930E-1	1.338355E-1	1.152008E-1	1.400506E-1	1.226534E-1	1.481706E-1	1.550762E-1	1.414137E-1	1.525968E-1	1.417140E-1	1.676762E-1	1.554840E-1	1.509247E-1	1.428700E-1	1.423933E-1	1.532340E-1	1.548862E-1	1.438673E-1	1.147302E-1	1.272992E-1	1.422563E-1	1.383005E-1	1.485424E-1	1.541225E-1	1.441456E-1	1.390867E-1	1.491502E-1	1.681793E-1	1.301159E-1	1.457886E-1	1.351456E-1	1.446282E-1	1.477385E-1	1.361732E-1	1.606825E-1	1.459337E-1	1.729843E-1	1.610226E-1	1.625205E-1	1.162106E-1	1.375940E-1	1.414898E-1	1.434763E-1	1.298951E-1	1.613312E-1	1.728948E-1	1.736884E-1	1.277317E-1	1.541563E-1	1.252801E-1	1.440560E-1	1.310091E-1
2.845010E+2	1.878572E-1	1.776552E-1	1.993835E-1	1.749489E-1	1.816640E-1	1.788667E-1	2.013456E-1	1.505546E-1	1.738404E-1	1.865108E-1	2.141140E-1	1.585897E-1	1.989057E-1	1.858794E-1	1.791573E-1	1.652194E-1	1.649562E-1	1.474973E-1	1.807166E-1	1.669196E-1	2.118390E-1	1.933630E-1	1.885658E-1	2.156882E-1	1.958319E-1	1.745277E-1	2.075047E-1	1.995359E-1	2.119975E-1	2.092475E-1	2.140423E-1	1.868627E-1	1.929562E-1	2.207863E-1	2.181968E-1	2.084724E-1	2.009407E-1	2.047380E-1	2.221950E-1	2.310426E-1	1.836647E-1	1.713943E-1	2.152694E-1	1.894073E-1	2.043228E-1	2.034850E-1	1.793109E-1	2.136191E-1	1.875781E-1	1.909348E-1	2.017402E-1	2.132857E-1	1.880017E-1	1.738479E-1	1.534959E-1	1.954529E-1	1.807174E-1	1.967522E-1	1.835955E-1	1.729106E-1	1.858567E-1	2.093690E-1	2.131915E-1	2.135596E-1	2.113722E-1	2.052328E-1	2.034180E-1	1.793280E-1	1.854951E-1	1.822229E-1	1.741025E-1	1.857795E-1	2.057256E-1	2.294324E-1	1.490526E-1	1.926561E-1	1.679319E-1	1.892580E-1	2.065674E-1	1.986375E-1	1.605288E-1	2.118595E-1	1.830341E-1	2.038506E-1	2.028281E-1	1.839853E-1	1.905066E-1	1.968349E-1	1.930634E-1	1.796752E-1	1.948929E-1	1.886934E-1	1.661570E-1	1.783523E-1	1.615687E-1	1.752286E-1	1.814706E-1	1.967226E-1	1.551563E-1	2.149716E-1	1.534469E-1	1.645734E-1	1.658891E-1	1.628718E-1	2.164578E-1	1.873985E-1	1.708107E-1	1.814677E-1	1.610138E-1	1.741481E-1	2.054835E-1	1.983095E-1	2.102400E-1	1.970590E-1	1.942116E-1	1.658091E-1	2.011083E-1	1.521206E-1	1.774148E-1	1.660060E-1	2.177349E-1	1.923283E-1	1.849736E-1	2.087241E-1	1.831846E-1	1.937293E-1	1.898730E-1	1.959134E-1	2.053444E-1	2.092738E-1	1.931634E-1	1.746450E-1	1.785893E-1	1.859010E-1	1.915314E-1	1.591115E-1	1.868998E-1	1.628173E-1	2.016262E-1	2.164402E-1	1.817337E-1	2.093704E-1	1.750680E-1	1.910151E-1	1.685930E-1	2.108218E-1	1.642082E-1	1.674043E-1	1.846563E-1	1.852330E-1	2.097514E-1	1.754872E-1	2.130312E-1	1.664454E-1	1.819259E-1	1.786679E-1	2.140774E-1	2.044912E-1	1.674735E-1	2.033115E-1	1.788883E-1	2.072982E-1	1.469995E-1	1.700265E-1	1.908889E-1	1.687600E-1	1.741811E-1	2.001007E-1	1.935844E-1	1.696161E-1
2.846010E+2	2.479122E-1	2.939722E-1	2.704544E-1	2.534995E-1	2.834318E-1	3.064737E-1	2.445942E-1	2.412935E-1	2.969745E-1	2.805655E-1	2.730288E-1	2.781240E-1	2.959303E-1	2.384127E-1	2.807517E-1	2.780822E-1	2.379530E-1	2.764786E-1	2.954292E-1	2.555978E-1	2.908998E-1	3.517124E-1	3.476359E-1	3.119469E-1	3.906215E-1	3.644975E-1	3.520907E-1	3.089717E-1	3.317722E-1	3.433713E-1	3.210212E-1	3.363042E-1	3.384794E-1	2.889346E-1	3.629778E-1	3.195096E-1	3.284966E-1	3.333442E-1	3.154548E-1	3.362925E-1	3.312128E-1	3.147969E-1	3.048207E-1	3.032762E-1	3.616061E-1	3.130485E-1	3.222710E-1	2.965764E-1	2.750774E-1	3.540110E-1	3.120294E-1	3.312003E-1	2.928937E-1	3.055644E-1	2.948244E-1	3.080801E-1	2.878450E-1	2.825288E-1	3.020488E-1	3.300342E-1	3.395202E-1	2.988216E-1	2.997236E-1	3.078852E-1	3.174778E-1	2.955497E-1	3.120563E-1	3.184779E-1	3.078307E-1	2.900115E-1	2.878796E-1	3.479626E-1	2.655170E-1	3.233663E-1	2.926477E-1	2.927023E-1	3.056241E-1	2.922330E-1	2.964962E-1	3.030710E-1	2.795811E-1	2.860963E-1	2.929410E-1	2.611864E-1	3.133548E-1	3.163691E-1	3.057060E-1	3.211398E-1	2.862048E-1	2.851861E-1	2.861240E-1	2.940808E-1	2.740522E-1	2.884997E-1	2.968995E-1	2.959761E-1	3.151345E-1	3.326402E-1	3.155019E-1	3.111433E-1	3.015202E-1	2.775148E-1	2.802386E-1	3.230380E-1	2.962905E-1	3.032492E-1	2.513454E-1	3.144773E-1	2.945824E-1	2.669002E-1	2.858616E-1	3.415886E-1	3.125034E-1	2.859875E-1	2.559164E-1	2.878735E-1	2.606276E-1	3.285979E-1	3.184727E-1	3.241885E-1	2.531137E-1	2.770853E-1	3.223089E-1	3.038849E-1	2.983651E-1	2.866304E-1	2.991867E-1	3.074052E-1	2.993989E-1	2.775765E-1	2.739090E-1	2.832020E-1	3.151308E-1	2.528758E-1	2.994595E-1	3.011106E-1	3.056794E-1	2.746312E-1	2.777998E-1	2.597981E-1	3.117784E-1	2.996511E-1	3.165466E-1	2.782273E-1	3.520917E-1	3.347553E-1	2.883764E-1	2.412521E-1	3.058612E-1	2.987896E-1	3.234796E-1	2.675367E-1	3.228522E-1	2.701203E-1	3.175105E-1	3.173634E-1	2.604745E-1	2.943457E-1	3.101717E-1	2.419425E-1	2.682029E-1	2.979808E-1	3.051187E-1	2.988422E-1	2.632696E-1	3.054934E-1	2.826876E-1	2.587599E-1	2.465246E-1	3.025888E-1
2.847020E+2	6.739595E-1	7.184757E-1	7.491330E-1	7.203054E-1	7.139399E-1	7.308256E-1	7.047824E-1	6.978502E-1	7.011275E-1	7.371835E-1	7.584089E-1	6.844547E-1	7.300746E-1	7.186704E-1	7.353509E-1	7.356688E-1	6.434073E-1	7.474388E-1	7.019404E-1	6.695800E-1	7.190267E-1	8.581142E-1	7.959939E-1	7.937007E-1	8.316366E-1	8.410161E-1	8.461183E-1	7.750053E-1	7.575719E-1	8.265481E-1	8.612867E-1	8.334375E-1	8.060982E-1	7.887730E-1	8.690147E-1	7.990547E-1	8.021158E-1	8.203167E-1	7.714951E-1	7.515189E-1	8.272653E-1	7.830480E-1	8.133067E-1	7.290992E-1	7.788781E-1	8.054252E-1	7.394472E-1	7.976198E-1	8.659475E-1	8.789047E-1	8.144900E-1	7.909837E-1	8.820897E-1	8.322869E-1	7.855159E-1	7.499667E-1	7.619139E-1	7.913333E-1	7.321046E-1	8.334244E-1	8.196820E-1	7.918820E-1	8.037174E-1	7.923696E-1	8.330691E-1	8.049799E-1	7.805613E-1	7.369768E-1	7.715984E-1	8.027688E-1	7.471067E-1	8.236583E-1	8.085346E-1	7.408068E-1	7.746926E-1	7.336642E-1	7.748269E-1	7.830071E-1	7.739022E-1	8.015216E-1	7.876123E-1	7.328312E-1	7.930604E-1	8.096693E-1	7.666005E-1	7.859365E-1	7.994686E-1	7.773019E-1	7.502811E-1	7.155393E-1	7.112078E-1	8.479784E-1	7.180336E-1	7.681146E-1	7.627464E-1	7.754073E-1	7.265845E-1	7.922675E-1	7.932314E-1	7.945674E-1	7.818654E-1	7.471984E-1	7.803733E-1	7.201874E-1	7.844069E-1	7.478286E-1	7.493370E-1	7.999353E-1	7.554000E-1	7.229928E-1	7.273810E-1	7.916387E-1	7.845837E-1	7.358949E-1	6.927966E-1	7.017361E-1	7.700250E-1	7.836518E-1	7.751630E-1	7.775914E-1	7.747365E-1	7.921377E-1	7.370838E-1	8.193292E-1	7.672889E-1	7.582607E-1	7.284154E-1	7.385955E-1	7.539587E-1	7.756946E-1	7.734541E-1	7.784839E-1	7.609024E-1	7.472912E-1	7.746356E-1	7.912275E-1	7.690711E-1	8.092522E-1	7.675193E-1	7.469951E-1	7.637791E-1	8.502084E-1	7.744694E-1	7.082923E-1	7.719254E-1	7.335458E-1	7.319837E-1	7.719614E-1	8.066074E-1	8.201217E-1	8.180350E-1	7.474236E-1	7.792334E-1	7.595249E-1	8.142978E-1	7.183237E-1	7.305160E-1	7.347199E-1	7.305539E-1	7.774913E-1	7.670084E-1	7.940808E-1	7.776253E-1	7.599097E-1	7.617990E-1	7.669153E-1	7.162238E-1	7.672736E-1	7.234389E-1	8.027960E-1
2.848000E+2	1.439300E+0	1.416465E+0	1.472339E+0	1.422083E+0	1.418789E+0	1.417512E+0	1.422372E+0	1.399895E+0	1.383678E+0	1.437215E+0	1.475152E+0	1.389452E+0	1.451299E+0	1.399004E+0	1.354875E+0	1.411136E+0	1.399337E+0	1.423233E+0	1.476923E+0	1.352921E+0	1.380951E+0	1.408226E+0	1.466077E+0	1.451184E+0	1.492186E+0	1.441440E+0	1.451398E+0	1.458387E+0	1.446747E+0	1.456863E+0	1.439026E+0	1.461157E+0	1.502568E+0	1.465908E+0	1.533688E+0	1.463630E+0	1.478151E+0	1.379973E+0	1.407177E+0	1.492214E+0	1.472344E+0	1.376543E+0	1.427654E+0	1.454733E+0	1.421005E+0	1.363503E+0	1.478225E+0	1.512095E+0	1.434082E+0	1.454011E+0	1.579254E+0	1.477924E+0	1.470966E+0	1.492963E+0	1.430090E+0	1.465574E+0	1.448070E+0	1.379156E+0	1.429226E+0	1.438290E+0	1.400080E+0	1.432882E+0	1.417085E+0	1.520389E+0	1.501567E+0	1.455781E+0	1.438837E+0	1.430988E+0	1.403430E+0	1.435498E+0	1.399927E+0	1.509568E+0	1.368547E+0	1.495864E+0	1.555416E+0	1.448083E+0	1.475792E+0	1.496737E+0	1.440283E+0	1.512943E+0	1.416529E+0	1.549804E+0	1.403315E+0	1.490904E+0	1.437891E+0	1.504682E+0	1.446952E+0	1.424122E+0	1.506708E+0	1.419776E+0	1.411355E+0	1.457003E+0	1.417480E+0	1.468490E+0	1.452703E+0	1.385187E+0	1.442441E+0	1.492880E+0	1.417546E+0	1.512347E+0	1.556331E+0	1.454232E+0	1.439744E+0	1.362885E+0	1.427990E+0	1.383322E+0	1.451230E+0	1.406314E+0	1.423359E+0	1.463739E+0	1.430806E+0	1.414951E+0	1.455752E+0	1.513718E+0	1.298254E+0	1.394060E+0	1.375766E+0	1.460825E+0	1.417701E+0	1.466695E+0	1.479737E+0	1.435044E+0	1.548042E+0	1.530312E+0	1.371974E+0	1.409062E+0	1.421135E+0	1.392062E+0	1.415778E+0	1.457169E+0	1.434667E+0	1.411407E+0	1.425827E+0	1.421077E+0	1.396244E+0	1.389460E+0	1.404250E+0	1.495903E+0	1.375167E+0	1.421865E+0	1.376916E+0	1.414866E+0	1.387757E+0	1.453059E+0	1.429056E+0	1.495838E+0	1.419889E+0	1.457580E+0	1.395074E+0	1.420073E+0	1.370705E+0	1.440097E+0	1.395862E+0	1.413948E+0	1.408815E+0	1.339287E+0	1.395520E+0	1.393108E+0	1.465637E+0	1.448792E+0	1.329626E+0	1.446780E+0	1.440460E+0	1.448846E+0	1.386436E+0	1.454950E+0	1.392317E+0	1.430819E+0	1.390232E+0	1.548275E+0
2.849040E+2	1.751647E+0	1.635596E+0	1.666743E+0	1.739399E+0	1.709094E+0	1.780864E+0	1.673758E+0	1.754180E+0	1.758885E+0	1.692814E+0	1.732544E+0	1.647911E+0	1.676855E+0	1.647636E+0	1.770172E+0	1.671618E+0	1.625379E+0	1.717717E+0	1.721564E+0	1.729089E+0	1.777575E+0	1.688036E+0	1.593126E+0	1.565308E+0	1.729838E+0	1.630325E+0	1.663948E+0	1.629180E+0	1.658579E+0	1.688458E+0	1.702752E+0	1.645498E+0	1.703182E+0	1.651497E+0	1.692453E+0	1.491392E+0	1.692984E+0	1.693056E+0	1.614229E+0	1.668197E+0	1.675089E+0	1.646770E+0	1.650933E+0	1.644114E+0	1.723077E+0	1.606160E+0	1.671554E+0	1.655567E+0	1.672907E+0	1.661116E+0	1.729826E+0	1.708458E+0	1.645858E+0	1.735931E+0	1.675456E+0	1.660986E+0	1.736528E+0	1.629074E+0	1.664112E+0	1.651170E+0	1.641337E+0	1.686197E+0	1.606356E+0	1.743828E+0	1.724814E+0	1.626214E+0	1.668008E+0	1.747600E+0	1.664603E+0	1.653207E+0	1.724773E+0	1.608817E+0	1.619990E+0	1.696136E+0	1.620642E+0	1.674298E+0	1.736460E+0	1.633567E+0	1.651333E+0	1.686836E+0	1.606467E+0	1.725287E+0	1.624504E+0	1.661518E+0	1.672637E+0	1.767836E+0	1.610010E+0	1.711865E+0	1.661473E+0	1.733211E+0	1.667633E+0	1.679100E+0	1.709203E+0	1.798147E+0	1.687998E+0	1.553638E+0	1.692902E+0	1.709801E+0	1.687465E+0	1.647758E+0	1.646834E+0	1.659225E+0	1.686910E+0	1.698628E+0	1.641656E+0	1.708707E+0	1.581948E+0	1.728920E+0	1.644531E+0	1.663176E+0	1.681843E+0	1.663393E+0	1.688172E+0	1.681347E+0	1.754234E+0	1.670193E+0	1.574280E+0	1.770239E+0	1.649438E+0	1.675546E+0	1.713541E+0	1.725498E+0	1.737648E+0	1.689738E+0	1.728545E+0	1.772979E+0	1.608615E+0	1.597640E+0	1.736419E+0	1.658866E+0	1.612187E+0	1.648273E+0	1.628943E+0	1.759758E+0	1.660912E+0	1.674118E+0	1.760411E+0	1.656821E+0	1.656611E+0	1.592775E+0	1.679898E+0	1.795112E+0	1.748987E+0	1.704718E+0	1.670360E+0	1.734660E+0	1.642080E+0	1.689961E+0	1.634807E+0	1.636192E+0	1.638705E+0	1.676635E+0	1.677163E+0	1.613042E+0	1.727941E+0	1.639168E+0	1.640565E+0	1.687695E+0	1.675002E+0	1.738472E+0	1.609855E+0	1.728265E+0	1.742509E+0	1.670824E+0	1.651043E+0	1.751905E+0	1.716179E+0	1.616315E+0	1.736101E+0	1.630243E+0
2.850010E+2	1.510885E+0	1.548824E+0	1.437001E+0	1.416457E+0	1.518644E+0	1.526538E+0	1.465150E+0	1.479510E+0	1.426655E+0	1.442917E+0	1.429892E+0	1.443175E+0	1.483678E+0	1.418931E+0	1.516255E+0	1.406248E+0	1.417338E+0	1.439410E+0	1.410048E+0	1.478912E+0	1.486354E+0	1.439585E+0	1.381066E+0	1.479142E+0	1.474787E+0	1.420905E+0	1.407416E+0	1.362310E+0	1.335890E+0	1.455139E+0	1.413330E+0	1.382786E+0	1.383447E+0	1.457075E+0	1.446832E+0	1.334953E+0	1.437616E+0	1.472344E+0	1.462351E+0	1.362633E+0	1.395366E+0	1.412595E+0	1.416482E+0	1.437076E+0	1.454822E+0	1.426998E+0	1.446392E+0	1.335926E+0	1.503287E+0	1.416508E+0	1.438725E+0	1.513460E+0	1.462440E+0	1.445094E+0	1.418395E+0	1.376499E+0	1.477223E+0	1.480240E+0	1.495254E+0	1.472880E+0	1.374022E+0	1.389364E+0	1.359728E+0	1.443656E+0	1.460416E+0	1.339757E+0	1.433796E+0	1.428169E+0	1.300505E+0	1.512499E+0	1.408634E+0	1.484554E+0	1.539679E+0	1.414304E+0	1.447944E+0	1.420683E+0	1.432803E+0	1.463410E+0	1.437374E+0	1.506504E+0	1.423682E+0	1.424220E+0	1.445391E+0	1.388995E+0	1.403309E+0	1.493037E+0	1.445041E+0	1.330693E+0	1.416800E+0	1.436469E+0	1.362340E+0	1.461458E+0	1.501035E+0	1.440623E+0	1.448966E+0	1.386842E+0	1.475681E+0	1.409679E+0	1.482277E+0	1.387980E+0	1.472039E+0	1.451369E+0	1.484330E+0	1.457003E+0	1.489137E+0	1.460720E+0	1.399951E+0	1.438351E+0	1.426698E+0	1.404646E+0	1.519477E+0	1.429803E+0	1.409488E+0	1.435202E+0	1.418534E+0	1.452021E+0	1.502766E+0	1.431904E+0	1.456544E+0	1.456374E+0	1.414187E+0	1.361759E+0	1.498583E+0	1.503427E+0	1.398493E+0	1.513999E+0	1.414847E+0	1.425322E+0	1.419358E+0	1.446390E+0	1.476665E+0	1.459881E+0	1.354891E+0	1.514816E+0	1.406801E+0	1.470120E+0	1.471921E+0	1.415020E+0	1.376240E+0	1.436503E+0	1.551360E+0	1.388894E+0	1.484804E+0	1.498834E+0	1.466476E+0	1.513484E+0	1.447546E+0	1.481069E+0	1.510608E+0	1.436467E+0	1.472143E+0	1.439442E+0	1.459041E+0	1.510169E+0	1.497233E+0	1.448345E+0	1.417876E+0	1.420765E+0	1.517669E+0	1.398164E+0	1.416789E+0	1.504198E+0	1.415302E+0	1.460213E+0	1.457228E+0	1.471007E+0	1.487630E+0	1.532711E+0	1.378669E+0	1.627696E+0
2.851030E+2	1.329759E+0	1.324134E+0	1.339843E+0	1.230930E+0	1.345156E+0	1.306626E+0	1.310836E+0	1.327947E+0	1.355299E+0	1.356161E+0	1.381779E+0	1.342070E+0	1.388235E+0	1.305842E+0	1.333109E+0	1.353521E+0	1.328641E+0	1.353726E+0	1.349494E+0	1.360655E+0	1.385731E+0	1.289774E+0	1.312371E+0	1.320384E+0	1.320974E+0	1.288136E+0	1.329155E+0	1.281469E+0	1.303406E+0	1.255207E+0	1.330705E+0	1.345017E+0	1.355327E+0	1.355964E+0	1.302796E+0	1.246034E+0	1.353999E+0	1.333762E+0	1.207146E+0	1.366181E+0	1.359637E+0	1.300174E+0	1.376526E+0	1.293822E+0	1.305942E+0	1.315358E+0	1.328765E+0	1.344910E+0	1.287288E+0	1.342822E+0	1.288034E+0	1.349853E+0	1.338676E+0	1.338716E+0	1.333946E+0	1.324678E+0	1.431078E+0	1.299068E+0	1.277296E+0	1.341899E+0	1.295437E+0	1.258015E+0	1.277418E+0	1.343429E+0	1.329314E+0	1.357893E+0	1.351822E+0	1.324273E+0	1.264762E+0	1.346822E+0	1.214232E+0	1.280482E+0	1.354840E+0	1.315795E+0	1.299593E+0	1.324130E+0	1.361006E+0	1.342063E+0	1.386698E+0	1.410970E+0	1.276344E+0	1.324081E+0	1.347242E+0	1.238904E+0	1.348309E+0	1.331597E+0	1.304002E+0	1.268259E+0	1.343654E+0	1.303182E+0	1.316788E+0	1.306638E+0	1.379619E+0	1.360617E+0	1.316396E+0	1.327659E+0	1.347660E+0	1.316977E+0	1.338548E+0	1.312200E+0	1.326341E+0	1.368941E+0	1.357061E+0	1.266207E+0	1.262036E+0	1.330910E+0	1.342142E+0	1.425369E+0	1.349386E+0	1.253228E+0	1.349330E+0	1.310816E+0	1.392426E+0	1.405945E+0	1.329938E+0	1.310947E+0	1.309901E+0	1.393155E+0	1.315951E+0	1.287998E+0	1.366408E+0	1.278453E+0	1.392771E+0	1.251170E+0	1.330355E+0	1.267689E+0	1.290249E+0	1.316872E+0	1.324437E+0	1.309823E+0	1.333193E+0	1.329740E+0	1.389732E+0	1.336494E+0	1.375038E+0	1.349149E+0	1.277199E+0	1.436623E+0	1.454909E+0	1.325649E+0	1.399488E+0	1.340964E+0	1.259622E+0	1.380742E+0	1.341586E+0	1.365498E+0	1.339014E+0	1.342623E+0	1.336663E+0	1.355215E+0	1.318887E+0	1.267764E+0	1.409296E+0	1.292701E+0	1.392461E+0	1.345056E+0	1.367169E+0	1.319100E+0	1.308918E+0	1.388370E+0	1.325571E+0	1.334682E+0	1.388249E+0	1.367920E+0	1.292179E+0	1.357862E+0	1.332985E+0	1.297995E+0	1.358090E+0	1.404316E+0
2.852020E+2	1.180442E+0	1.300080E+0	1.280512E+0	1.244080E+0	1.245740E+0	1.210989E+0	1.209982E+0	1.311713E+0	1.290198E+0	1.235673E+0	1.244907E+0	1.252194E+0	1.162157E+0	1.161895E+0	1.214804E+0	1.177792E+0	1.196139E+0	1.221703E+0	1.209162E+0	1.162312E+0	1.226251E+0	1.185094E+0	1.170322E+0	1.253971E+0	1.225499E+0	1.175927E+0	1.200559E+0	1.206780E+0	1.180975E+0	1.185772E+0	1.176319E+0	1.245727E+0	1.102466E+0	1.265785E+0	1.232389E+0	1.152050E+0	1.141403E+0	1.229938E+0	1.201038E+0	1.199995E+0	1.121616E+0	1.244279E+0	1.338201E+0	1.253570E+0	1.276545E+0	1.199502E+0	1.274670E+0	1.171284E+0	1.236220E+0	1.248873E+0	1.229045E+0	1.210193E+0	1.206201E+0	1.239212E+0	1.149716E+0	1.256085E+0	1.277856E+0	1.249279E+0	1.165956E+0	1.175509E+0	1.170139E+0	1.138568E+0	1.142222E+0	1.261026E+0	1.243097E+0	1.238588E+0	1.213648E+0	1.260328E+0	1.183095E+0	1.202186E+0	1.178336E+0	1.138445E+0	1.263115E+0	1.220092E+0	1.227099E+0	1.312304E+0	1.151405E+0	1.203469E+0	1.252193E+0	1.265770E+0	1.188612E+0	1.276116E+0	1.161964E+0	1.143706E+0	1.223040E+0	1.204899E+0	1.188359E+0	1.198001E+0	1.233390E+0	1.231912E+0	1.202749E+0	1.345066E+0	1.229737E+0	1.190592E+0	1.214114E+0	1.160593E+0	1.166793E+0	1.217772E+0	1.265548E+0	1.200322E+0	1.229578E+0	1.253068E+0	1.223799E+0	1.202010E+0	1.231803E+0	1.252980E+0	1.179192E+0	1.218746E+0	1.187773E+0	1.163738E+0	1.190868E+0	1.230007E+0	1.195887E+0	1.281087E+0	1.215650E+0	1.285291E+0	1.215937E+0	1.242507E+0	1.232395E+0	1.217917E+0	1.272244E+0	1.179830E+0	1.264769E+0	1.240524E+0	1.263811E+0	1.244373E+0	1.160389E+0	1.222708E+0	1.249802E+0	1.252968E+0	1.264149E+0	1.205022E+0	1.283091E+0	1.254350E+0	1.211223E+0	1.261127E+0	1.306162E+0	1.233864E+0	1.193056E+0	1.197293E+0	1.231646E+0	1.197210E+0	1.308156E+0	1.260100E+0	1.129396E+0	1.217810E+0	1.250337E+0	1.157743E+0	1.215441E+0	1.260923E+0	1.191682E+0	1.255577E+0	1.315336E+0	1.206626E+0	1.242242E+0	1.210518E+0	1.235070E+0	1.238600E+0	1.214692E+0	1.242692E+0	1.198246E+0	1.205546E+0	1.262295E+0	1.276564E+0	1.255379E+0	1.274559E+0	1.159701E+0	1.221660E+0	1.167978E+0	1.262868E+0
2.853020E+2	9.116752E-1	9.862872E-1	9.410310E-1	9.339646E-1	1.002099E+0	1.003011E+0	9.321254E-1	9.291797E-1	9.652027E-1	8.832492E-1	9.664740E-1	9.474424E-1	1.008974E+0	9.665874E-1	9.693223E-1	9.877051E-1	9.363628E-1	1.009340E+0	9.902102E-1	1.053073E+0	9.487197E-1	9.340293E-1	9.479077E-1	9.786781E-1	9.415898E-1	9.342466E-1	1.010911E+0	9.460373E-1	8.806712E-1	9.211368E-1	9.092199E-1	9.447171E-1	1.003769E+0	9.935830E-1	9.870477E-1	1.028024E+0	9.362637E-1	9.321613E-1	9.486191E-1	1.001724E+0	9.677704E-1	9.671698E-1	9.619428E-1	1.015832E+0	1.030399E+0	9.826489E-1	9.547306E-1	1.012694E+0	9.520555E-1	9.817078E-1	1.042928E+0	9.557562E-1	9.415163E-1	1.052155E+0	9.462140E-1	9.888719E-1	1.001957E+0	9.998915E-1	1.033084E+0	9.723326E-1	9.726139E-1	9.603812E-1	9.894158E-1	9.590837E-1	9.680786E-1	9.147611E-1	9.606217E-1	9.164184E-1	9.519031E-1	9.920952E-1	9.312127E-1	9.361900E-1	9.744171E-1	8.874461E-1	9.778736E-1	9.398778E-1	9.593468E-1	1.027674E+0	9.724785E-1	1.012390E+0	9.521183E-1	9.383385E-1	9.612363E-1	9.427215E-1	8.787818E-1	1.035749E+0	9.139004E-1	9.572062E-1	1.063091E+0	9.555475E-1	9.713862E-1	9.380549E-1	9.700704E-1	9.910967E-1	9.964865E-1	9.921174E-1	9.252158E-1	9.895522E-1	9.969764E-1	9.705283E-1	9.846823E-1	9.818890E-1	9.542233E-1	9.482653E-1	9.932480E-1	9.155314E-1	8.775318E-1	9.403174E-1	1.002813E+0	1.039582E+0	9.706395E-1	9.538200E-1	9.634683E-1	1.019623E+0	9.675613E-1	9.149490E-1	9.668849E-1	9.612420E-1	9.862250E-1	9.590679E-1	1.013991E+0	9.270479E-1	8.972390E-1	1.026795E+0	9.429131E-1	9.903523E-1	1.079788E+0	9.062785E-1	9.122837E-1	9.360864E-1	1.005214E+0	9.788902E-1	9.978419E-1	1.006319E+0	9.337030E-1	9.568545E-1	9.874608E-1	9.491543E-1	9.620845E-1	9.192644E-1	9.917580E-1	9.510396E-1	1.038595E+0	9.521465E-1	9.371008E-1	1.007142E+0	9.636353E-1	9.460742E-1	9.477693E-1	9.510856E-1	9.561521E-1	9.981465E-1	1.004862E+0	9.524442E-1	1.015187E+0	1.000772E+0	9.774968E-1	9.601083E-1	9.344614E-1	9.471542E-1	9.753248E-1	1.008177E+0	9.938076E-1	9.316365E-1	9.451048E-1	9.466569E-1	1.033646E+0	9.485364E-1	1.015162E+0	1.033566E+0
2.854040E+2	6.248794E-1	5.731508E-1	6.458116E-1	5.906870E-1	6.345360E-1	6.647025E-1	6.270630E-1	6.212205E-1	6.206536E-1	5.905919E-1	6.258495E-1	5.924946E-1	6.806336E-1	6.116223E-1	6.468008E-1	6.371435E-1	6.464122E-1	6.183530E-1	6.529654E-1	6.107250E-1	6.604555E-1	6.071149E-1	6.564050E-1	6.191758E-1	6.756786E-1	6.709374E-1	6.816617E-1	6.051699E-1	6.811492E-1	6.830352E-1	6.161227E-1	6.734411E-1	6.363103E-1	6.156057E-1	6.462072E-1	5.743854E-1	5.906946E-1	6.303490E-1	6.732003E-1	6.719802E-1	6.247854E-1	6.465526E-1	6.507938E-1	6.502590E-1	7.052550E-1	6.359128E-1	6.586580E-1	6.472235E-1	6.937320E-1	6.297439E-1	6.358855E-1	6.100918E-1	6.069183E-1	6.401117E-1	6.829664E-1	6.147649E-1	6.738705E-1	5.912358E-1	6.472361E-1	6.689739E-1	6.100778E-1	6.412027E-1	6.323590E-1	6.019690E-1	6.570178E-1	6.346187E-1	6.466639E-1	6.430299E-1	6.019095E-1	6.399085E-1	6.395112E-1	6.666684E-1	6.397149E-1	6.708976E-1	6.002816E-1	6.478435E-1	6.635337E-1	6.720402E-1	6.124343E-1	6.860159E-1	6.042636E-1	6.171097E-1	6.549999E-1	6.740651E-1	6.330525E-1	6.222065E-1	6.097682E-1	6.277529E-1	6.197776E-1	6.788054E-1	6.046555E-1	6.765367E-1	6.528246E-1	6.796776E-1	6.193109E-1	6.549040E-1	6.566687E-1	6.529856E-1	6.699808E-1	6.468814E-1	6.944004E-1	6.523267E-1	6.506004E-1	6.524498E-1	6.041096E-1	6.907821E-1	5.664368E-1	6.675358E-1	6.493717E-1	5.915484E-1	6.308108E-1	6.501782E-1	5.736660E-1	6.442275E-1	6.471876E-1	6.431797E-1	6.124655E-1	6.553247E-1	6.650916E-1	6.135376E-1	6.761217E-1	6.352724E-1	6.789680E-1	6.273334E-1	6.480649E-1	6.587553E-1	6.489558E-1	5.731152E-1	6.745353E-1	6.020782E-1	6.530736E-1	6.426299E-1	6.470296E-1	6.396823E-1	7.269255E-1	6.579638E-1	6.364550E-1	6.121430E-1	6.409987E-1	6.592924E-1	6.368519E-1	6.775238E-1	6.764589E-1	6.774973E-1	6.297890E-1	6.585411E-1	6.339437E-1	6.857602E-1	6.122252E-1	6.467233E-1	6.401970E-1	6.115864E-1	6.820090E-1	5.925513E-1	6.487274E-1	6.568344E-1	5.962291E-1	6.357106E-1	5.960705E-1	5.994533E-1	6.337273E-1	6.647551E-1	6.728781E-1	6.251621E-1	6.264863E-1	5.599082E-1	6.252237E-1	6.767327E-1	6.608267E-1	7.312128E-1
2.855030E+2	4.744504E-1	4.401017E-1	4.909677E-1	4.636395E-1	5.501551E-1	4.868492E-1	4.282927E-1	4.588524E-1	4.301778E-1	4.586399E-1	4.913035E-1	4.798024E-1	4.317304E-1	4.059914E-1	4.828902E-1	4.878621E-1	4.223779E-1	4.497674E-1	4.841389E-1	4.194176E-1	5.005338E-1	4.286224E-1	5.173962E-1	4.736940E-1	4.498171E-1	4.807261E-1	5.081283E-1	5.130858E-1	4.311644E-1	5.202083E-1	4.765346E-1	4.977271E-1	4.771112E-1	4.380853E-1	4.453555E-1	4.695054E-1	5.107981E-1	4.768101E-1	4.621542E-1	5.004417E-1	4.285891E-1	4.850669E-1	4.878050E-1	4.836753E-1	4.754431E-1	5.126242E-1	4.631590E-1	5.078039E-1	4.640695E-1	4.442610E-1	4.892031E-1	5.276467E-1	4.429155E-1	4.572157E-1	4.777205E-1	5.029780E-1	4.904165E-1	5.025598E-1	5.148066E-1	5.153988E-1	4.652928E-1	4.675870E-1	4.874824E-1	4.799977E-1	4.530587E-1	4.656209E-1	4.867963E-1	4.032427E-1	4.585812E-1	4.773035E-1	4.206762E-1	4.983906E-1	4.606313E-1	4.754148E-1	4.576195E-1	4.562040E-1	4.926368E-1	4.772579E-1	4.633630E-1	4.837436E-1	4.846552E-1	4.653865E-1	4.220776E-1	5.203439E-1	4.310619E-1	5.007234E-1	5.069648E-1	4.495294E-1	5.237367E-1	4.895003E-1	4.578758E-1	4.937389E-1	5.243215E-1	4.769121E-1	4.546033E-1	4.528270E-1	4.478480E-1	4.802627E-1	5.110178E-1	4.931856E-1	4.670461E-1	4.858564E-1	4.577154E-1	4.314702E-1	5.091150E-1	4.778868E-1	4.651743E-1	4.698308E-1	4.541400E-1	4.801405E-1	4.718010E-1	4.876544E-1	4.910901E-1	4.988690E-1	4.890857E-1	4.630385E-1	4.853199E-1	4.352337E-1	4.559545E-1	4.825567E-1	4.463027E-1	4.467667E-1	4.905607E-1	5.417597E-1	4.821151E-1	4.704763E-1	4.919197E-1	4.813944E-1	4.659991E-1	4.735576E-1	4.803626E-1	4.416295E-1	4.642224E-1	5.107734E-1	4.421807E-1	4.857348E-1	4.788778E-1	4.637936E-1	5.150969E-1	4.718321E-1	4.850869E-1	4.988388E-1	4.603678E-1	4.728353E-1	4.504395E-1	4.485375E-1	4.857402E-1	4.738780E-1	4.907559E-1	4.852469E-1	5.169344E-1	5.095358E-1	4.811321E-1	4.711816E-1	4.887182E-1	4.732810E-1	4.409701E-1	5.060682E-1	4.719015E-1	4.609213E-1	4.297043E-1	4.914204E-1	5.273790E-1	4.988093E-1	5.031193E-1	4.821060E-1	4.823773E-1	5.476211E-1	5.561859E-1	4.735619E-1
2.856030E+2	3.821115E-1	4.769972E-1	4.014322E-1	4.487414E-1	4.380856E-1	3.835513E-1	4.148783E-1	4.043313E-1	4.452312E-1	4.241980E-1	4.705109E-1	4.031362E-1	4.681840E-1	4.058969E-1	4.361289E-1	4.233889E-1	4.626950E-1	4.252701E-1	4.142182E-1	4.377637E-1	4.784649E-1	4.434820E-1	4.375829E-1	4.245509E-1	4.461089E-1	4.720985E-1	4.101139E-1	4.403896E-1	4.149300E-1	4.683913E-1	4.734390E-1	4.285820E-1	4.094631E-1	4.139864E-1	4.780063E-1	4.717040E-1	5.026509E-1	4.438893E-1	4.437430E-1	4.332425E-1	4.320657E-1	4.526814E-1	4.802800E-1	4.763629E-1	4.562234E-1	4.400516E-1	4.470569E-1	4.242484E-1	4.700644E-1	4.419782E-1	3.978909E-1	4.603360E-1	4.733552E-1	4.490408E-1	4.227609E-1	4.436638E-1	4.843118E-1	4.256082E-1	5.009095E-1	4.132347E-1	4.303437E-1	4.073527E-1	4.252247E-1	4.393098E-1	4.279167E-1	4.196974E-1	4.335452E-1	4.534293E-1	4.216869E-1	4.652454E-1	4.518066E-1	4.389650E-1	4.457103E-1	4.109483E-1	4.347411E-1	4.500980E-1	4.515647E-1	4.654589E-1	4.552723E-1	4.340533E-1	4.350428E-1	4.864130E-1	4.128347E-1	4.483025E-1	4.580763E-1	3.971058E-1	4.380597E-1	4.558850E-1	4.372107E-1	4.545163E-1	4.613674E-1	4.192832E-1	4.303451E-1	4.477922E-1	4.135557E-1	4.034086E-1	4.465009E-1	4.248468E-1	4.419465E-1	4.632612E-1	4.538886E-1	4.231270E-1	4.191431E-1	4.291519E-1	4.252463E-1	4.562010E-1	4.763909E-1	4.054480E-1	4.226950E-1	4.112597E-1	4.686268E-1	4.439477E-1	4.437118E-1	4.490123E-1	4.383120E-1	4.864019E-1	4.293550E-1	4.207026E-1	4.879111E-1	4.200054E-1	4.663777E-1	4.381079E-1	4.367827E-1	4.433861E-1	4.013926E-1	4.940170E-1	4.076317E-1	4.207061E-1	4.464363E-1	4.476319E-1	4.021985E-1	4.367280E-1	4.123752E-1	4.166817E-1	4.197374E-1	4.179782E-1	4.568319E-1	4.649298E-1	4.624762E-1	4.719454E-1	4.198331E-1	4.190114E-1	4.157488E-1	4.706822E-1	4.576788E-1	4.865943E-1	4.269162E-1	4.752234E-1	4.292358E-1	4.244355E-1	4.526540E-1	4.723051E-1	4.602131E-1	4.321260E-1	4.557719E-1	4.616304E-1	4.322666E-1	4.339518E-1	4.708798E-1	4.377089E-1	4.702173E-1	4.936413E-1	4.328155E-1	4.302617E-1	4.000848E-1	4.390613E-1	4.514980E-1	4.430522E-1	5.047785E-1	3.430252E-1
2.858060E+2	5.109691E-1	5.065066E-1	5.095790E-1	4.376910E-1	4.977995E-1	4.574328E-1	4.662560E-1	4.604535E-1	4.854564E-1	4.370836E-1	4.909527E-1	4.373409E-1	4.781650E-1	4.808071E-1	4.824297E-1	5.193978E-1	4.768203E-1	4.789860E-1	5.067022E-1	4.273435E-1	5.043488E-1	5.053285E-1	5.177463E-1	5.074355E-1	5.318886E-1	4.667060E-1	5.001093E-1	5.368078E-1	4.745805E-1	5.310055E-1	4.905690E-1	4.891981E-1	4.888047E-1	5.119763E-1	5.038148E-1	4.746465E-1	4.732389E-1	4.995511E-1	4.915840E-1	4.807533E-1	4.786140E-1	5.085024E-1	4.955956E-1	4.625944E-1	4.980509E-1	4.856256E-1	5.060438E-1	4.730375E-1	5.276015E-1	4.976482E-1	5.146904E-1	5.070191E-1	5.027635E-1	4.962797E-1	5.164119E-1	4.801006E-1	4.919908E-1	4.724860E-1	4.614980E-1	4.762155E-1	4.858456E-1	4.721903E-1	4.813708E-1	4.942534E-1	5.354287E-1	4.915743E-1	5.293292E-1	5.353374E-1	4.693598E-1	5.185645E-1	4.470657E-1	4.962697E-1	4.857628E-1	4.940064E-1	4.601928E-1	5.135214E-1	4.998638E-1	4.969503E-1	4.831849E-1	4.980198E-1	5.467652E-1	4.888743E-1	4.907675E-1	5.428163E-1	4.970911E-1	4.897749E-1	4.989030E-1	4.924717E-1	4.821800E-1	4.728858E-1	5.119330E-1	4.953256E-1	5.086980E-1	5.099735E-1	4.837091E-1	5.013211E-1	4.970458E-1	4.771387E-1	4.792621E-1	4.885855E-1	5.074847E-1	4.511918E-1	4.856404E-1	4.775854E-1	4.863371E-1	4.656574E-1	4.979000E-1	4.874840E-1	4.935267E-1	4.735996E-1	5.069939E-1	5.262500E-1	4.889992E-1	4.957992E-1	5.045473E-1	4.610748E-1	4.898160E-1	5.108601E-1	4.825460E-1	4.672995E-1	5.228292E-1	4.959257E-1	5.203249E-1	4.926970E-1	4.733259E-1	4.815357E-1	4.946715E-1	5.045259E-1	4.974382E-1	4.686696E-1	5.104594E-1	4.718472E-1	5.271835E-1	4.979654E-1	5.209782E-1	4.771884E-1	5.022884E-1	4.630755E-1	5.096951E-1	4.815935E-1	5.165448E-1	4.433329E-1	5.019101E-1	4.509133E-1	5.340990E-1	4.834077E-1	4.480685E-1	4.653701E-1	4.773170E-1	5.123017E-1	4.953067E-1	4.635611E-1	4.727731E-1	4.818662E-1	4.880644E-1	5.031157E-1	4.918782E-1	4.682003E-1	4.678993E-1	4.467132E-1	4.688127E-1	5.129090E-1	4.630888E-1	5.025052E-1	4.641626E-1	5.055022E-1	5.201630E-1	5.223031E-1	5.143999E-1	5.001753E-1
2.860070E+2	7.163089E-1	7.592870E-1	7.764528E-1	6.935869E-1	7.158485E-1	7.163538E-1	7.138210E-1	7.598071E-1	7.046884E-1	6.540013E-1	7.379027E-1	7.211644E-1	7.473493E-1	6.784006E-1	7.071854E-1	7.452576E-1	7.180297E-1	7.250943E-1	6.965364E-1	7.481408E-1	7.185041E-1	7.929070E-1	7.933815E-1	6.876483E-1	7.497453E-1	8.068322E-1	7.614116E-1	7.887765E-1	7.420205E-1	8.284537E-1	7.915605E-1	7.809982E-1	7.054525E-1	7.601083E-1	8.098541E-1	6.914342E-1	7.521224E-1	7.384802E-1	7.723571E-1	7.325813E-1	7.356516E-1	6.987255E-1	8.047248E-1	7.048991E-1	7.179719E-1	7.826730E-1	7.659026E-1	7.747204E-1	8.336247E-1	7.169168E-1	7.759071E-1	7.281224E-1	7.437552E-1	7.503697E-1	7.358584E-1	7.921397E-1	7.780499E-1	7.329181E-1	7.869414E-1	7.929624E-1	6.852221E-1	7.301699E-1	7.466148E-1	7.599941E-1	7.928236E-1	7.820826E-1	7.360777E-1	7.585185E-1	7.781921E-1	7.588576E-1	7.448406E-1	7.295034E-1	7.336812E-1	7.080801E-1	7.413746E-1	7.520114E-1	7.285841E-1	8.005065E-1	7.659975E-1	7.635292E-1	7.520195E-1	7.675961E-1	7.091349E-1	7.325344E-1	7.335149E-1	8.077920E-1	7.810602E-1	7.051996E-1	7.297219E-1	6.897576E-1	7.385990E-1	7.553416E-1	6.948604E-1	7.217835E-1	6.941685E-1	7.141642E-1	7.356746E-1	6.936320E-1	7.324367E-1	7.668523E-1	7.723960E-1	7.411910E-1	7.256123E-1	7.640939E-1	7.168867E-1	7.218444E-1	7.180987E-1	7.378253E-1	7.280120E-1	7.193253E-1	7.646620E-1	7.313324E-1	7.680882E-1	7.537276E-1	7.123120E-1	7.557944E-1	7.213521E-1	7.830934E-1	7.585983E-1	7.750642E-1	7.199479E-1	7.075887E-1	7.217986E-1	7.369151E-1	7.453212E-1	7.480736E-1	7.693142E-1	7.190456E-1	6.861225E-1	7.005883E-1	7.631988E-1	7.461096E-1	7.841264E-1	7.451369E-1	7.756289E-1	7.213151E-1	7.031245E-1	7.690171E-1	7.276980E-1	7.508743E-1	7.056904E-1	7.413136E-1	7.236718E-1	7.922805E-1	7.618323E-1	7.410332E-1	7.608916E-1	7.291015E-1	7.552410E-1	7.166890E-1	7.921740E-1	6.838301E-1	7.539837E-1	7.854787E-1	7.979766E-1	7.208402E-1	7.593747E-1	7.175023E-1	7.326823E-1	7.698979E-1	7.298141E-1	7.686806E-1	7.420412E-1	6.817465E-1	7.486554E-1	7.317664E-1	7.574605E-1	7.319593E-1	8.084788E-1	7.471976E-1
2.862030E+2	1.092895E+0	1.028741E+0	1.039604E+0	9.304982E-1	9.970307E-1	1.059683E+0	1.032189E+0	9.857169E-1	1.010380E+0	1.022138E+0	1.032654E+0	9.628107E-1	9.949152E-1	9.776560E-1	1.063932E+0	1.020644E+0	9.764028E-1	9.886555E-1	1.061851E+0	1.036647E+0	1.063911E+0	9.600164E-1	9.795119E-1	1.038381E+0	1.044608E+0	9.654056E-1	9.919775E-1	1.009008E+0	9.832615E-1	1.012304E+0	9.992990E-1	1.006874E+0	1.035292E+0	1.039742E+0	1.074067E+0	9.870136E-1	1.049221E+0	9.744670E-1	1.033312E+0	9.347415E-1	1.013112E+0	1.045952E+0	1.066120E+0	9.939972E-1	9.637280E-1	1.020908E+0	1.071587E+0	1.038337E+0	1.066605E+0	9.958884E-1	9.845989E-1	1.026958E+0	9.878788E-1	1.023219E+0	9.349186E-1	1.039107E+0	1.015288E+0	1.018334E+0	1.009847E+0	1.044506E+0	1.018760E+0	1.010208E+0	9.944540E-1	1.002363E+0	1.090758E+0	9.898342E-1	1.034055E+0	1.018943E+0	1.011701E+0	1.033928E+0	1.037475E+0	1.037343E+0	1.013351E+0	1.023074E+0	9.980221E-1	1.037800E+0	9.910297E-1	1.029235E+0	9.580358E-1	1.056043E+0	1.017872E+0	1.071696E+0	1.019146E+0	1.010434E+0	1.003604E+0	1.007224E+0	1.023586E+0	9.584763E-1	1.006650E+0	1.027026E+0	9.652966E-1	1.048912E+0	1.009743E+0	1.079060E+0	1.026625E+0	9.971126E-1	1.069939E+0	1.070139E+0	1.046102E+0	1.035236E+0	1.108043E+0	9.839911E-1	1.052337E+0	9.635286E-1	9.647799E-1	1.022246E+0	1.021484E+0	1.036841E+0	9.878863E-1	1.049943E+0	1.033486E+0	1.018308E+0	1.056926E+0	1.025904E+0	1.018689E+0	9.802452E-1	1.000156E+0	1.051192E+0	1.082320E+0	1.038828E+0	1.007813E+0	9.909119E-1	1.032322E+0	1.009360E+0	1.020124E+0	1.034147E+0	9.983028E-1	9.502728E-1	1.076994E+0	9.799654E-1	1.044992E+0	9.748530E-1	1.078574E+0	1.010116E+0	9.917356E-1	1.009213E+0	1.016977E+0	1.017978E+0	1.048468E+0	9.791152E-1	1.011374E+0	9.322009E-1	9.936653E-1	1.049370E+0	1.038167E+0	1.030591E+0	1.010890E+0	1.003038E+0	1.055861E+0	1.062620E+0	1.089170E+0	1.074413E+0	1.012759E+0	1.057580E+0	1.013007E+0	1.007375E+0	1.014213E+0	1.042693E+0	1.084616E+0	9.972412E-1	1.046469E+0	1.013106E+0	1.076132E+0	1.045408E+0	1.052791E+0	1.077728E+0	9.449122E-1	9.645030E-1	1.005381E+0	1.055354E+0
2.864030E+2	1.344477E+0	1.233992E+0	1.301052E+0	1.256625E+0	1.226638E+0	1.281924E+0	1.293008E+0	1.334918E+0	1.299833E+0	1.226048E+0	1.273996E+0	1.188134E+0	1.269773E+0	1.218353E+0	1.238118E+0	1.241022E+0	1.260358E+0	1.312502E+0	1.304639E+0	1.262843E+0	1.294403E+0	1.257483E+0	1.188763E+0	1.229479E+0	1.266008E+0	1.204382E+0	1.213746E+0	1.224473E+0	1.208482E+0	1.256508E+0	1.221922E+0	1.234812E+0	1.247566E+0	1.246855E+0	1.183588E+0	1.276495E+0	1.312994E+0	1.259521E+0	1.238179E+0	1.190409E+0	1.272696E+0	1.168133E+0	1.198679E+0	1.265895E+0	1.266557E+0	1.295708E+0	1.266379E+0	1.285690E+0	1.275488E+0	1.259249E+0	1.296468E+0	1.247468E+0	1.302071E+0	1.275160E+0	1.300324E+0	1.293617E+0	1.292096E+0	1.274437E+0	1.310829E+0	1.231233E+0	1.218077E+0	1.257863E+0	1.178397E+0	1.273705E+0	1.278975E+0	1.246242E+0	1.228651E+0	1.286527E+0	1.247144E+0	1.290435E+0	1.244895E+0	1.235167E+0	1.205097E+0	1.141064E+0	1.244344E+0	1.197129E+0	1.276240E+0	1.257838E+0	1.258826E+0	1.347181E+0	1.272014E+0	1.300204E+0	1.287729E+0	1.267606E+0	1.299631E+0	1.252408E+0	1.202551E+0	1.208675E+0	1.230654E+0	1.312919E+0	1.237077E+0	1.237149E+0	1.173836E+0	1.213808E+0	1.246181E+0	1.252428E+0	1.242208E+0	1.230029E+0	1.236152E+0	1.203737E+0	1.301448E+0	1.277085E+0	1.291035E+0	1.257508E+0	1.276560E+0	1.281826E+0	1.290350E+0	1.269841E+0	1.241314E+0	1.203696E+0	1.300512E+0	1.254751E+0	1.312404E+0	1.211803E+0	1.253027E+0	1.199525E+0	1.222311E+0	1.297889E+0	1.228099E+0	1.215049E+0	1.211874E+0	1.301299E+0	1.309747E+0	1.310257E+0	1.305457E+0	1.244977E+0	1.298641E+0	1.171122E+0	1.270356E+0	1.209288E+0	1.245437E+0	1.277881E+0	1.330468E+0	1.229011E+0	1.218977E+0	1.263783E+0	1.338135E+0	1.288909E+0	1.310417E+0	1.188931E+0	1.327440E+0	1.276923E+0	1.257015E+0	1.324293E+0	1.281406E+0	1.275269E+0	1.242859E+0	1.289932E+0	1.222954E+0	1.276962E+0	1.264328E+0	1.298615E+0	1.303440E+0	1.195832E+0	1.301895E+0	1.208670E+0	1.234951E+0	1.288972E+0	1.315949E+0	1.222412E+0	1.206908E+0	1.265128E+0	1.291225E+0	1.282895E+0	1.255025E+0	1.290539E+0	1.314929E+0	1.298928E+0	1.399744E+0	1.402060E+0
2.866200E+2	1.308195E+0	1.312106E+0	1.281634E+0	1.226266E+0	1.301921E+0	1.295137E+0	1.333277E+0	1.273534E+0	1.346499E+0	1.282070E+0	1.386465E+0	1.243039E+0	1.301735E+0	1.295873E+0	1.347298E+0	1.296031E+0	1.397639E+0	1.324982E+0	1.289981E+0	1.331840E+0	1.344842E+0	1.336795E+0	1.403677E+0	1.355763E+0	1.276232E+0	1.286937E+0	1.295336E+0	1.366301E+0	1.298332E+0	1.372659E+0	1.302520E+0	1.313582E+0	1.353270E+0	1.318141E+0	1.354376E+0	1.357897E+0	1.279791E+0	1.382004E+0	1.289480E+0	1.256711E+0	1.361948E+0	1.384913E+0	1.328483E+0	1.296915E+0	1.295062E+0	1.321807E+0	1.345027E+0	1.348607E+0	1.325970E+0	1.339512E+0	1.291251E+0	1.451360E+0	1.267472E+0	1.350425E+0	1.350264E+0	1.306170E+0	1.383345E+0	1.331836E+0	1.312906E+0	1.299912E+0	1.276088E+0	1.339403E+0	1.342952E+0	1.268213E+0	1.402329E+0	1.322897E+0	1.388619E+0	1.262874E+0	1.276439E+0	1.341815E+0	1.344537E+0	1.320530E+0	1.305708E+0	1.273182E+0	1.274749E+0	1.303178E+0	1.271494E+0	1.362353E+0	1.320284E+0	1.355947E+0	1.315833E+0	1.304546E+0	1.300704E+0	1.342217E+0	1.283840E+0	1.322537E+0	1.253731E+0	1.291561E+0	1.309545E+0	1.321750E+0	1.254012E+0	1.229360E+0	1.300935E+0	1.336228E+0	1.252738E+0	1.284598E+0	1.336105E+0	1.376024E+0	1.387671E+0	1.285839E+0	1.297480E+0	1.341807E+0	1.326095E+0	1.342095E+0	1.357860E+0	1.395057E+0	1.356038E+0	1.379368E+0	1.341886E+0	1.349968E+0	1.293733E+0	1.375045E+0	1.396496E+0	1.324613E+0	1.249002E+0	1.254121E+0	1.274091E+0	1.325826E+0	1.231538E+0	1.382133E+0	1.330619E+0	1.305496E+0	1.329654E+0	1.369935E+0	1.371160E+0	1.322410E+0	1.420188E+0	1.280691E+0	1.302787E+0	1.275338E+0	1.389146E+0	1.299940E+0	1.374656E+0	1.278759E+0	1.352099E+0	1.254313E+0	1.386012E+0	1.341286E+0	1.308249E+0	1.332973E+0	1.309607E+0	1.382046E+0	1.361659E+0	1.318990E+0	1.305220E+0	1.278344E+0	1.333098E+0	1.319515E+0	1.290416E+0	1.390933E+0	1.358640E+0	1.331104E+0	1.336597E+0	1.250331E+0	1.381071E+0	1.241299E+0	1.257152E+0	1.338725E+0	1.381396E+0	1.310998E+0	1.353011E+0	1.343368E+0	1.302631E+0	1.325223E+0	1.296208E+0	1.336049E+0	1.280027E+0	1.292087E+0	1.280605E+0	1.473425E+0
2.868030E+2	1.649766E+0	1.502676E+0	1.569822E+0	1.581453E+0	1.609148E+0	1.620036E+0	1.529380E+0	1.618075E+0	1.570872E+0	1.599438E+0	1.560304E+0	1.506199E+0	1.577731E+0	1.570007E+0	1.566139E+0	1.638019E+0	1.503874E+0	1.634835E+0	1.546325E+0	1.606260E+0	1.631650E+0	1.546032E+0	1.501871E+0	1.521912E+0	1.612015E+0	1.612110E+0	1.516125E+0	1.498391E+0	1.589849E+0	1.531111E+0	1.510965E+0	1.559160E+0	1.471983E+0	1.502392E+0	1.582802E+0	1.469533E+0	1.575995E+0	1.537836E+0	1.489005E+0	1.525841E+0	1.545886E+0	1.546329E+0	1.512491E+0	1.533255E+0	1.591836E+0	1.531409E+0	1.547517E+0	1.559802E+0	1.568649E+0	1.605991E+0	1.599386E+0	1.600184E+0	1.541609E+0	1.574218E+0	1.497790E+0	1.622943E+0	1.503144E+0	1.540397E+0	1.508569E+0	1.611149E+0	1.492980E+0	1.558334E+0	1.543746E+0	1.529015E+0	1.484349E+0	1.528331E+0	1.611990E+0	1.537245E+0	1.468968E+0	1.569529E+0	1.479211E+0	1.561550E+0	1.540662E+0	1.535918E+0	1.505410E+0	1.572014E+0	1.607005E+0	1.561592E+0	1.502291E+0	1.546227E+0	1.545789E+0	1.579116E+0	1.539899E+0	1.581466E+0	1.537755E+0	1.533046E+0	1.551139E+0	1.505040E+0	1.582904E+0	1.582044E+0	1.517207E+0	1.528131E+0	1.566864E+0	1.581270E+0	1.508190E+0	1.546433E+0	1.615774E+0	1.491252E+0	1.585728E+0	1.548639E+0	1.587756E+0	1.537095E+0	1.582052E+0	1.541604E+0	1.585253E+0	1.616601E+0	1.569327E+0	1.581982E+0	1.538975E+0	1.498064E+0	1.604552E+0	1.577321E+0	1.602597E+0	1.586092E+0	1.503050E+0	1.513919E+0	1.587578E+0	1.620637E+0	1.476661E+0	1.497129E+0	1.510134E+0	1.602829E+0	1.619645E+0	1.630705E+0	1.509385E+0	1.500275E+0	1.593574E+0	1.566516E+0	1.611829E+0	1.559068E+0	1.588859E+0	1.549332E+0	1.609934E+0	1.559474E+0	1.544580E+0	1.517791E+0	1.601027E+0	1.539904E+0	1.484075E+0	1.557956E+0	1.630108E+0	1.555926E+0	1.487406E+0	1.580679E+0	1.564928E+0	1.598122E+0	1.528291E+0	1.520514E+0	1.597051E+0	1.553355E+0	1.509809E+0	1.593390E+0	1.532900E+0	1.592623E+0	1.542087E+0	1.572919E+0	1.496111E+0	1.560341E+0	1.541585E+0	1.624757E+0	1.536565E+0	1.483534E+0	1.554581E+0	1.472230E+0	1.527074E+0	1.517549E+0	1.598553E+0	1.560198E+0	1.533457E+0	1.664885E+0
2.870190E+2	1.330954E+0	1.246848E+0	1.320293E+0	1.231141E+0	1.287908E+0	1.322629E+0	1.245097E+0	1.213714E+0	1.277601E+0	1.280705E+0	1.285191E+0	1.309532E+0	1.252003E+0	1.272522E+0	1.261977E+0	1.292348E+0	1.305550E+0	1.238455E+0	1.243481E+0	1.311365E+0	1.356206E+0	1.152278E+0	1.210760E+0	1.233340E+0	1.261230E+0	1.324477E+0	1.269565E+0	1.298836E+0	1.206879E+0	1.166353E+0	1.229103E+0	1.217276E+0	1.278256E+0	1.198994E+0	1.339016E+0	1.178168E+0	1.326393E+0	1.193430E+0	1.212534E+0	1.291933E+0	1.222763E+0	1.228006E+0	1.308855E+0	1.268227E+0	1.281814E+0	1.262866E+0	1.217356E+0	1.219840E+0	1.238377E+0	1.274216E+0	1.300507E+0	1.244305E+0	1.290913E+0	1.280991E+0	1.232699E+0	1.254305E+0	1.310326E+0	1.181812E+0	1.234754E+0	1.252632E+0	1.187208E+0	1.174271E+0	1.197921E+0	1.258852E+0	1.321914E+0	1.201550E+0	1.331576E+0	1.313423E+0	1.264842E+0	1.259948E+0	1.257820E+0	1.239218E+0	1.258465E+0	1.226887E+0	1.251134E+0	1.252980E+0	1.283508E+0	1.246324E+0	1.242054E+0	1.375802E+0	1.228390E+0	1.287063E+0	1.213127E+0	1.262294E+0	1.295583E+0	1.299891E+0	1.285984E+0	1.229300E+0	1.243423E+0	1.300667E+0	1.213356E+0	1.287678E+0	1.252323E+0	1.291608E+0	1.264662E+0	1.266206E+0	1.256814E+0	1.236512E+0	1.237576E+0	1.277208E+0	1.244785E+0	1.289444E+0	1.323248E+0	1.231823E+0	1.253004E+0	1.311473E+0	1.197604E+0	1.340771E+0	1.256411E+0	1.256036E+0	1.268451E+0	1.275506E+0	1.271385E+0	1.212921E+0	1.299825E+0	1.282590E+0	1.286023E+0	1.316981E+0	1.297971E+0	1.231301E+0	1.274192E+0	1.234694E+0	1.249258E+0	1.276055E+0	1.215657E+0	1.282444E+0	1.224997E+0	1.214943E+0	1.351039E+0	1.284010E+0	1.216744E+0	1.239648E+0	1.320867E+0	1.308587E+0	1.289358E+0	1.279162E+0	1.328481E+0	1.231678E+0	1.253843E+0	1.255618E+0	1.367657E+0	1.295982E+0	1.251723E+0	1.262359E+0	1.362383E+0	1.273547E+0	1.244291E+0	1.211664E+0	1.309658E+0	1.318393E+0	1.253281E+0	1.322732E+0	1.338893E+0	1.224146E+0	1.290385E+0	1.273734E+0	1.222794E+0	1.284778E+0	1.261063E+0	1.231019E+0	1.276449E+0	1.277774E+0	1.243678E+0	1.295996E+0	1.229002E+0	1.317635E+0	1.208576E+0	1.325804E+0	1.374979E+0	1.451478E+0
2.872140E+2	1.116241E+0	1.049440E+0	1.089005E+0	1.030622E+0	1.034257E+0	1.044243E+0	9.759914E-1	1.088898E+0	1.139016E+0	1.030568E+0	1.047872E+0	1.100798E+0	9.890098E-1	1.045657E+0	1.061636E+0	1.062426E+0	1.025242E+0	1.099456E+0	1.085700E+0	1.044150E+0	1.060129E+0	1.023967E+0	1.045545E+0	1.019119E+0	1.079465E+0	1.064850E+0	1.023126E+0	1.030998E+0	1.019080E+0	1.036736E+0	1.027808E+0	1.072019E+0	1.045105E+0	1.034171E+0	1.013932E+0	1.032540E+0	9.730907E-1	1.028160E+0	1.079862E+0	1.051379E+0	1.095931E+0	1.021544E+0	1.096834E+0	1.065139E+0	1.029242E+0	1.043948E+0	1.091358E+0	1.111491E+0	1.044996E+0	1.079676E+0	1.023810E+0	1.067944E+0	1.042766E+0	1.098851E+0	1.006644E+0	1.080891E+0	1.131489E+0	1.055937E+0	9.637257E-1	1.035173E+0	1.023890E+0	1.065428E+0	1.032559E+0	1.036207E+0	1.027009E+0	1.010890E+0	1.103716E+0	1.011230E+0	1.017956E+0	1.075238E+0	1.085472E+0	1.049423E+0	1.072229E+0	1.023565E+0	1.029900E+0	1.064678E+0	1.015567E+0	1.067357E+0	1.020380E+0	1.030525E+0	1.046779E+0	1.060231E+0	1.036586E+0	1.030714E+0	1.097139E+0	1.082289E+0	1.048195E+0	1.066788E+0	1.132501E+0	1.027648E+0	1.006528E+0	1.079591E+0	1.052584E+0	1.061996E+0	9.947722E-1	1.014921E+0	1.064599E+0	1.095280E+0	1.086746E+0	1.079298E+0	1.056733E+0	1.011033E+0	1.078265E+0	1.082377E+0	1.032396E+0	1.026983E+0	9.949036E-1	1.060473E+0	1.087988E+0	1.026165E+0	1.037130E+0	1.077004E+0	1.041321E+0	1.037533E+0	9.960845E-1	1.051725E+0	1.103442E+0	1.090482E+0	1.092868E+0	9.808125E-1	1.057447E+0	1.023451E+0	1.056309E+0	1.111132E+0	1.057659E+0	1.030442E+0	1.006044E+0	1.061552E+0	1.048797E+0	1.053928E+0	1.105213E+0	1.061817E+0	1.039373E+0	1.031470E+0	1.084755E+0	1.047466E+0	1.084238E+0	1.123743E+0	1.030239E+0	1.034452E+0	1.031065E+0	1.035942E+0	1.050717E+0	1.133937E+0	1.106438E+0	1.128512E+0	1.076646E+0	1.091246E+0	1.119270E+0	1.048547E+0	1.053625E+0	1.105274E+0	1.118656E+0	1.003927E+0	1.090248E+0	1.121104E+0	1.075406E+0	1.064327E+0	1.080738E+0	9.938398E-1	1.055248E+0	1.100120E+0	1.016023E+0	1.066572E+0	1.064212E+0	1.034921E+0	1.045983E+0	1.059259E+0	1.081366E+0	1.160523E+0
2.874030E+2	9.290564E-1	9.779627E-1	9.909357E-1	9.226443E-1	9.757111E-1	1.002468E+0	9.604273E-1	9.795104E-1	9.763371E-1	9.711471E-1	1.018133E+0	9.418554E-1	9.706482E-1	9.431874E-1	9.304020E-1	9.292483E-1	9.163550E-1	9.981459E-1	9.746772E-1	9.678289E-1	9.314887E-1	9.855245E-1	9.681733E-1	9.415820E-1	9.726150E-1	9.257987E-1	9.462535E-1	1.006284E+0	9.771766E-1	9.566306E-1	9.281971E-1	9.657076E-1	8.786921E-1	9.443466E-1	1.063839E+0	9.700099E-1	9.928111E-1	9.093048E-1	9.436410E-1	9.048436E-1	9.728692E-1	9.648045E-1	9.770619E-1	8.954788E-1	9.933043E-1	9.616972E-1	9.915669E-1	9.388259E-1	1.032594E+0	1.072709E+0	9.707994E-1	9.770832E-1	9.307215E-1	1.004670E+0	9.450490E-1	9.463858E-1	9.383086E-1	9.972848E-1	9.556116E-1	9.212330E-1	9.228939E-1	9.738849E-1	9.203933E-1	9.690288E-1	1.007193E+0	9.476274E-1	9.791020E-1	9.338254E-1	9.994507E-1	9.558083E-1	9.859420E-1	9.171752E-1	9.142199E-1	9.088836E-1	9.424590E-1	9.543792E-1	9.358952E-1	1.024875E+0	9.917957E-1	1.004301E+0	9.159346E-1	1.038691E+0	9.397776E-1	9.435806E-1	9.663044E-1	9.692234E-1	9.646997E-1	9.284209E-1	9.783964E-1	9.949751E-1	9.234050E-1	9.323326E-1	9.905282E-1	9.468333E-1	9.318948E-1	9.342500E-1	9.699965E-1	9.821649E-1	9.222217E-1	9.206518E-1	9.793688E-1	1.003337E+0	9.897420E-1	9.644399E-1	9.668024E-1	9.864991E-1	9.879892E-1	9.856161E-1	9.575440E-1	9.289336E-1	1.000602E+0	9.348152E-1	9.909735E-1	9.960550E-1	9.336468E-1	9.413694E-1	9.821613E-1	1.015302E+0	9.782394E-1	9.798475E-1	9.613353E-1	9.704463E-1	9.053815E-1	1.028967E+0	8.997028E-1	9.675186E-1	1.028494E+0	9.561426E-1	9.717874E-1	9.160851E-1	9.497212E-1	9.698205E-1	9.985470E-1	9.745574E-1	9.433057E-1	9.638738E-1	9.705767E-1	9.559945E-1	9.501962E-1	9.663053E-1	9.900130E-1	1.003409E+0	1.004809E+0	1.027385E+0	9.259030E-1	9.162894E-1	9.267788E-1	1.004168E+0	9.632405E-1	9.271441E-1	9.844210E-1	9.608561E-1	9.600063E-1	9.333865E-1	9.257273E-1	9.904111E-1	9.288299E-1	9.819438E-1	9.360353E-1	1.063026E+0	9.460923E-1	9.699189E-1	9.282918E-1	9.967674E-1	9.863659E-1	9.986906E-1	9.328479E-1	9.481664E-1	1.051256E+0	9.445631E-1
2.876090E+2	7.188444E-1	7.302602E-1	7.295031E-1	6.872678E-1	7.129597E-1	8.081123E-1	7.310371E-1	6.904984E-1	7.687282E-1	7.275800E-1	7.458332E-1	6.532586E-1	7.090395E-1	6.824440E-1	7.524965E-1	6.992630E-1	7.537322E-1	7.677158E-1	7.642582E-1	7.486575E-1	7.378404E-1	7.325144E-1	7.376738E-1	7.195030E-1	7.762872E-1	7.634487E-1	7.381027E-1	7.352210E-1	6.956139E-1	7.433993E-1	7.270556E-1	7.611296E-1	7.226645E-1	7.784966E-1	7.599153E-1	7.247549E-1	7.248752E-1	7.557913E-1	7.070333E-1	7.500492E-1	7.504767E-1	7.320611E-1	7.334744E-1	7.239564E-1	7.312205E-1	7.185867E-1	7.458140E-1	7.273482E-1	7.715097E-1	7.748776E-1	7.540172E-1	7.219072E-1	6.858645E-1	7.125236E-1	6.550656E-1	7.375356E-1	7.858277E-1	7.066739E-1	7.738776E-1	7.573099E-1	7.373580E-1	7.221581E-1	7.196247E-1	7.429819E-1	7.520253E-1	7.086898E-1	7.480024E-1	7.131949E-1	7.237265E-1	7.079706E-1	6.999809E-1	7.203023E-1	7.216056E-1	7.397827E-1	7.119542E-1	7.240866E-1	7.858615E-1	7.568364E-1	7.420413E-1	7.825234E-1	7.462963E-1	7.222496E-1	6.772609E-1	7.401428E-1	6.909701E-1	7.691702E-1	7.419407E-1	7.697621E-1	7.790497E-1	7.390422E-1	7.014801E-1	7.415695E-1	6.992747E-1	7.687891E-1	6.909157E-1	7.281156E-1	7.463786E-1	7.037328E-1	7.218273E-1	7.654961E-1	7.601725E-1	7.385150E-1	6.829468E-1	7.070778E-1	7.074162E-1	7.299754E-1	7.569792E-1	6.944069E-1	7.687173E-1	7.291775E-1	7.537981E-1	7.609683E-1	7.880954E-1	7.801970E-1	7.496994E-1	7.630808E-1	7.390445E-1	7.636497E-1	7.732357E-1	7.233416E-1	7.261160E-1	7.094856E-1	7.260278E-1	7.997734E-1	7.005497E-1	7.381334E-1	7.443509E-1	7.195592E-1	7.612370E-1	6.905021E-1	7.280439E-1	7.828012E-1	7.012229E-1	7.195915E-1	7.260658E-1	7.854490E-1	7.333866E-1	7.525473E-1	7.567606E-1	7.150086E-1	7.701836E-1	7.117539E-1	6.961530E-1	6.704990E-1	7.435587E-1	7.655343E-1	7.575985E-1	7.972614E-1	7.442104E-1	7.413957E-1	7.927610E-1	7.774601E-1	7.754059E-1	7.281066E-1	7.464576E-1	7.148268E-1	7.107689E-1	7.072286E-1	6.935501E-1	7.294065E-1	7.495043E-1	7.625995E-1	7.457267E-1	7.664635E-1	7.531743E-1	7.612574E-1	7.567612E-1	6.949437E-1	6.964343E-1	7.732543E-1
2.878030E+2	5.626354E-1	5.371106E-1	5.736510E-1	5.385725E-1	5.220511E-1	5.018100E-1	5.524732E-1	5.346208E-1	5.229291E-1	5.556684E-1	5.325556E-1	5.026119E-1	5.368365E-1	5.288386E-1	5.534828E-1	5.051100E-1	5.123160E-1	5.729051E-1	5.557345E-1	5.615427E-1	5.274094E-1	5.378790E-1	5.100960E-1	4.878447E-1	5.452208E-1	5.048093E-1	5.390909E-1	5.480489E-1	5.655624E-1	5.705340E-1	5.387778E-1	5.737681E-1	6.031836E-1	5.418904E-1	5.486469E-1	5.074376E-1	5.587395E-1	5.447739E-1	5.189174E-1	5.457980E-1	5.996482E-1	5.549340E-1	5.426139E-1	5.339353E-1	5.918363E-1	5.458998E-1	5.782720E-1	5.680916E-1	5.415283E-1	5.779267E-1	5.529278E-1	5.568945E-1	5.398782E-1	5.430216E-1	5.817412E-1	5.658556E-1	5.596810E-1	5.558706E-1	5.449890E-1	5.632528E-1	5.220776E-1	5.546779E-1	5.104624E-1	5.668460E-1	5.633681E-1	5.331231E-1	5.452831E-1	5.864798E-1	5.448629E-1	5.529769E-1	4.998045E-1	5.827535E-1	5.746496E-1	5.060870E-1	5.067612E-1	5.247442E-1	5.619090E-1	5.117125E-1	5.410722E-1	5.654716E-1	5.411770E-1	5.500112E-1	5.489666E-1	5.490484E-1	5.119583E-1	5.373152E-1	5.366985E-1	5.157914E-1	5.363164E-1	5.631910E-1	5.096711E-1	5.293413E-1	5.151430E-1	5.259692E-1	5.200741E-1	5.575811E-1	5.642974E-1	4.967115E-1	5.324423E-1	5.797646E-1	5.281310E-1	5.168988E-1	5.321404E-1	5.256669E-1	5.054683E-1	5.554675E-1	5.332616E-1	5.646888E-1	5.870429E-1	5.278791E-1	5.697521E-1	5.479162E-1	5.528208E-1	5.422229E-1	5.229164E-1	5.299509E-1	5.410829E-1	5.484758E-1	5.401371E-1	5.511065E-1	5.522977E-1	5.442063E-1	5.969371E-1	5.961131E-1	5.454842E-1	5.130408E-1	5.328557E-1	5.185571E-1	5.403136E-1	5.309201E-1	5.350065E-1	5.547195E-1	5.630255E-1	5.384933E-1	5.145520E-1	5.490426E-1	5.395464E-1	5.354865E-1	5.477545E-1	5.959589E-1	5.775368E-1	5.980731E-1	5.369902E-1	5.544167E-1	5.586152E-1	5.593327E-1	5.290148E-1	5.881045E-1	5.402818E-1	5.814233E-1	5.443896E-1	5.381204E-1	5.655651E-1	5.639249E-1	5.318639E-1	5.772510E-1	5.572375E-1	5.706111E-1	5.398910E-1	5.350341E-1	5.680889E-1	5.695131E-1	5.451230E-1	5.532033E-1	5.548382E-1	5.557142E-1	5.578456E-1	5.184469E-1	5.591094E-1	4.970618E-1
2.880040E+2	5.038559E-1	5.245458E-1	5.331388E-1	5.189423E-1	5.067115E-1	5.087936E-1	4.929040E-1	5.022186E-1	5.112149E-1	5.143693E-1	5.229709E-1	4.931517E-1	5.472617E-1	5.378159E-1	5.241869E-1	5.282120E-1	5.213106E-1	5.108868E-1	5.175307E-1	4.442136E-1	5.195796E-1	5.573592E-1	4.852398E-1	5.224259E-1	5.021355E-1	5.772251E-1	5.048790E-1	5.426131E-1	5.311647E-1	5.713208E-1	5.220256E-1	5.572737E-1	5.286348E-1	5.096474E-1	5.393901E-1	5.160873E-1	5.042264E-1	4.998147E-1	4.965637E-1	5.447713E-1	5.222230E-1	5.258466E-1	5.167070E-1	4.780795E-1	4.577348E-1	5.141064E-1	5.357028E-1	5.606140E-1	5.616480E-1	4.944288E-1	5.008310E-1	5.566946E-1	5.371653E-1	5.231836E-1	5.046695E-1	5.238076E-1	5.682940E-1	5.414452E-1	5.309366E-1	5.981300E-1	4.749541E-1	4.717029E-1	4.871060E-1	5.594808E-1	5.029955E-1	5.303455E-1	5.130500E-1	5.378871E-1	5.485556E-1	5.313069E-1	5.492141E-1	4.877789E-1	5.038802E-1	4.651916E-1	4.728916E-1	5.275909E-1	4.858495E-1	5.254281E-1	5.215989E-1	5.337329E-1	4.902329E-1	5.188414E-1	5.154984E-1	5.341183E-1	4.981348E-1	5.444264E-1	5.291932E-1	5.162773E-1	5.463147E-1	5.508483E-1	5.368582E-1	5.438235E-1	5.688589E-1	5.078418E-1	5.071973E-1	4.734558E-1	5.397918E-1	5.245841E-1	5.133015E-1	4.779910E-1	5.140931E-1	5.002857E-1	4.836074E-1	5.132951E-1	5.170170E-1	5.288080E-1	5.561007E-1	4.696359E-1	5.351164E-1	4.876593E-1	4.988088E-1	4.909543E-1	4.956303E-1	5.559253E-1	5.405323E-1	5.324248E-1	5.022911E-1	4.909138E-1	5.299022E-1	5.115688E-1	5.456881E-1	5.258067E-1	5.305051E-1	5.109505E-1	5.227014E-1	5.641368E-1	5.475682E-1	5.261972E-1	5.619978E-1	5.181669E-1	4.962008E-1	5.144957E-1	5.459223E-1	5.154961E-1	4.966519E-1	5.423064E-1	5.368600E-1	5.201728E-1	4.954134E-1	4.820270E-1	5.391247E-1	5.121805E-1	5.159370E-1	5.517044E-1	5.027429E-1	5.116982E-1	4.996805E-1	5.398194E-1	5.424300E-1	5.118557E-1	5.385211E-1	5.714626E-1	5.236060E-1	5.678579E-1	5.430883E-1	5.533959E-1	5.014776E-1	5.208578E-1	5.180371E-1	4.923641E-1	5.558611E-1	5.244418E-1	5.037643E-1	5.302255E-1	5.036952E-1	5.449076E-1	5.561627E-1	5.008489E-1	5.717410E-1	5.291783E-1
2.882240E+2	7.049656E-1	6.608945E-1	7.278994E-1	7.056986E-1	7.080966E-1	7.125103E-1	7.599779E-1	7.365144E-1	7.061719E-1	6.919471E-1	7.150291E-1	6.973686E-1	6.988867E-1	6.735766E-1	6.631223E-1	7.143016E-1	7.485990E-1	7.298680E-1	7.246604E-1	6.973983E-1	7.601888E-1	7.301512E-1	7.166975E-1	7.846191E-1	7.279281E-1	7.039944E-1	7.058386E-1	7.082944E-1	7.078038E-1	7.481120E-1	7.228861E-1	7.036263E-1	7.685637E-1	6.974377E-1	7.010956E-1	6.910044E-1	7.782320E-1	7.667592E-1	7.097414E-1	7.503189E-1	7.413402E-1	6.952925E-1	7.468381E-1	7.255318E-1	6.696462E-1	7.440851E-1	7.133231E-1	6.881591E-1	6.948676E-1	7.688556E-1	7.120454E-1	7.298348E-1	6.988780E-1	7.458380E-1	7.452143E-1	7.886002E-1	7.458427E-1	7.499569E-1	7.322902E-1	7.269581E-1	7.224920E-1	7.188954E-1	7.332874E-1	6.515226E-1	6.860855E-1	7.054033E-1	7.286200E-1	7.890123E-1	7.444573E-1	7.523107E-1	7.329404E-1	6.991888E-1	7.344802E-1	7.249224E-1	7.456580E-1	7.512791E-1	7.287825E-1	7.438268E-1	7.539328E-1	7.160777E-1	7.412500E-1	7.613321E-1	7.132573E-1	7.441308E-1	7.738564E-1	7.503305E-1	7.707023E-1	7.376582E-1	7.936815E-1	6.980558E-1	7.197020E-1	7.702708E-1	7.228053E-1	7.708267E-1	6.939437E-1	6.690762E-1	7.263501E-1	7.318511E-1	7.123391E-1	7.194768E-1	6.750007E-1	7.357408E-1	7.414457E-1	6.944636E-1	7.619573E-1	7.208155E-1	7.441349E-1	7.834559E-1	7.555615E-1	6.957410E-1	7.477735E-1	7.712063E-1	7.229414E-1	7.642808E-1	6.944906E-1	7.188631E-1	7.158332E-1	7.740482E-1	7.429935E-1	7.235338E-1	7.344156E-1	7.204011E-1	7.068343E-1	7.542809E-1	7.264201E-1	7.578387E-1	7.213421E-1	6.988154E-1	7.839627E-1	7.046825E-1	7.158130E-1	7.360625E-1	7.273077E-1	7.047154E-1	6.946174E-1	6.699722E-1	7.257436E-1	7.144427E-1	7.192072E-1	7.236590E-1	7.205435E-1	7.217689E-1	7.346833E-1	7.644751E-1	7.453038E-1	7.473228E-1	7.340383E-1	7.268675E-1	7.554196E-1	7.408092E-1	6.762041E-1	7.213972E-1	7.213575E-1	7.579094E-1	7.450286E-1	7.527158E-1	7.587377E-1	7.656453E-1	7.309826E-1	7.774723E-1	7.054273E-1	7.638969E-1	7.269097E-1	7.051610E-1	7.053547E-1	6.766739E-1	7.179374E-1	7.763464E-1	7.180726E-1	7.506596E-1
2.884130E+2	9.992944E-1	9.725705E-1	9.982938E-1	8.924051E-1	1.000579E+0	9.945448E-1	9.749934E-1	1.046513E+0	1.012466E+0	9.313068E-1	1.001783E+0	9.832509E-1	9.878739E-1	1.017870E+0	1.010062E+0	9.392801E-1	1.015787E+0	9.667267E-1	9.718843E-1	9.330333E-1	1.014279E+0	9.865417E-1	9.577844E-1	9.489111E-1	1.021482E+0	1.003030E+0	9.873166E-1	9.979818E-1	9.877794E-1	1.015925E+0	9.943867E-1	1.047791E+0	9.930173E-1	9.857678E-1	9.808662E-1	9.789037E-1	1.009991E+0	9.883754E-1	9.879160E-1	1.010854E+0	9.762401E-1	1.061584E+0	1.009016E+0	9.617977E-1	9.905972E-1	1.019485E+0	9.814855E-1	9.982452E-1	9.667683E-1	1.019953E+0	9.626523E-1	1.001688E+0	9.613907E-1	1.006753E+0	9.798056E-1	9.689975E-1	1.043592E+0	9.931805E-1	9.528987E-1	9.989419E-1	9.506874E-1	1.057032E+0	9.493378E-1	9.709378E-1	1.013458E+0	1.009462E+0	1.009336E+0	9.802253E-1	9.315183E-1	1.010794E+0	9.566970E-1	9.945852E-1	9.733102E-1	9.899394E-1	9.848979E-1	9.622316E-1	9.342440E-1	1.002096E+0	9.761153E-1	1.032494E+0	9.803521E-1	9.903773E-1	1.010865E+0	9.626238E-1	1.001971E+0	1.060139E+0	1.005544E+0	9.564238E-1	9.802599E-1	1.031809E+0	9.886684E-1	9.998528E-1	1.021339E+0	1.000842E+0	9.739942E-1	9.607381E-1	9.876103E-1	1.024447E+0	1.025376E+0	9.355004E-1	9.948269E-1	9.659672E-1	9.793495E-1	1.029826E+0	1.002047E+0	1.041920E+0	9.335486E-1	1.011617E+0	9.840028E-1	1.000253E+0	9.584749E-1	9.846174E-1	1.042367E+0	9.826571E-1	9.436157E-1	9.887926E-1	1.029277E+0	9.666195E-1	9.636550E-1	9.923432E-1	1.057229E+0	9.877781E-1	1.041396E+0	1.015295E+0	9.217331E-1	9.647454E-1	9.989420E-1	9.752756E-1	9.295177E-1	9.806008E-1	1.005338E+0	9.639335E-1	9.992570E-1	9.679853E-1	1.029063E+0	9.731699E-1	1.083081E+0	1.039972E+0	9.614671E-1	1.018022E+0	1.037974E+0	1.041880E+0	1.012246E+0	1.021684E+0	9.775157E-1	9.610445E-1	1.007038E+0	9.537661E-1	1.010630E+0	1.052066E+0	9.673447E-1	9.706116E-1	1.010218E+0	1.028889E+0	1.029530E+0	1.080335E+0	9.610429E-1	9.982497E-1	1.023060E+0	1.004337E+0	9.397966E-1	9.938751E-1	1.005523E+0	1.010186E+0	9.994731E-1	9.968837E-1	9.617839E-1	9.504957E-1	1.004592E+0	1.021223E+0
2.886030E+2	1.175035E+0	1.282493E+0	1.237320E+0	1.140168E+0	1.211567E+0	1.186077E+0	1.174854E+0	1.143838E+0	1.121383E+0	1.214087E+0	1.181673E+0	1.143154E+0	1.133565E+0	1.160726E+0	1.147199E+0	1.122456E+0	1.186743E+0	1.178035E+0	1.123398E+0	1.105073E+0	1.063863E+0	1.114396E+0	1.151549E+0	1.128240E+0	1.158984E+0	1.087352E+0	1.113098E+0	1.107559E+0	1.138995E+0	1.107827E+0	1.102409E+0	1.118131E+0	1.190330E+0	1.126512E+0	1.201145E+0	1.084191E+0	1.211150E+0	1.181042E+0	1.180343E+0	1.098202E+0	1.131084E+0	1.093269E+0	1.212230E+0	1.207096E+0	1.153493E+0	1.133748E+0	1.148410E+0	1.172030E+0	1.143385E+0	1.161596E+0	1.162542E+0	1.142004E+0	1.133008E+0	1.162430E+0	1.105310E+0	1.170533E+0	1.203059E+0	1.119216E+0	1.183722E+0	1.175110E+0	1.129238E+0	1.161714E+0	1.137572E+0	1.151524E+0	1.205473E+0	1.108791E+0	1.127262E+0	1.099791E+0	1.108035E+0	1.179300E+0	1.180871E+0	1.181400E+0	1.177730E+0	1.180704E+0	1.096206E+0	1.171558E+0	1.209733E+0	1.198407E+0	1.110517E+0	1.179535E+0	1.149087E+0	1.184713E+0	1.141167E+0	1.114361E+0	1.155841E+0	1.167641E+0	1.174111E+0	1.143473E+0	1.203084E+0	1.129314E+0	1.138540E+0	1.105533E+0	1.144938E+0	1.180715E+0	1.114603E+0	1.143474E+0	1.175479E+0	1.067764E+0	1.151751E+0	1.205402E+0	1.192013E+0	1.205914E+0	1.108767E+0	1.133340E+0	1.167124E+0	1.191270E+0	1.133937E+0	1.134679E+0	1.111929E+0	1.122468E+0	1.151159E+0	1.123806E+0	1.137906E+0	1.129481E+0	1.132474E+0	1.138946E+0	1.190467E+0	1.144500E+0	1.080322E+0	1.182677E+0	1.174734E+0	1.142689E+0	1.213916E+0	1.192174E+0	1.149971E+0	1.144287E+0	1.135701E+0	1.126663E+0	1.180172E+0	1.159809E+0	1.171629E+0	1.137175E+0	1.179792E+0	1.187775E+0	1.167131E+0	1.170407E+0	1.118475E+0	1.137088E+0	1.129445E+0	1.163345E+0	1.194685E+0	1.090461E+0	1.178537E+0	1.155184E+0	1.223319E+0	1.171672E+0	1.115166E+0	1.140220E+0	1.172650E+0	1.161146E+0	1.189493E+0	1.196940E+0	1.172444E+0	1.122090E+0	1.227406E+0	1.072901E+0	1.149121E+0	1.167919E+0	1.169166E+0	1.098646E+0	1.210934E+0	1.167029E+0	1.156419E+0	1.154971E+0	1.200897E+0	1.122342E+0	1.039482E+0	1.208849E+0	1.223900E+0	1.214859E+0
2.888170E+2	1.124151E+0	1.091914E+0	1.161923E+0	1.110086E+0	1.176775E+0	1.179032E+0	1.117723E+0	1.174374E+0	1.079877E+0	1.173540E+0	1.170632E+0	1.087096E+0	1.095023E+0	1.156780E+0	1.127218E+0	1.156083E+0	1.149585E+0	1.059192E+0	1.131733E+0	1.123263E+0	1.144731E+0	1.050612E+0	1.085536E+0	1.037941E+0	1.076950E+0	1.084170E+0	1.048883E+0	1.014785E+0	1.101221E+0	1.094850E+0	1.041342E+0	1.073775E+0	1.119865E+0	1.086765E+0	1.122183E+0	1.033495E+0	1.133689E+0	1.055653E+0	1.090538E+0	1.060199E+0	1.100182E+0	1.069389E+0	1.115044E+0	1.105670E+0	1.153104E+0	1.105971E+0	1.093106E+0	1.133188E+0	1.140245E+0	1.122143E+0	1.132184E+0	1.159478E+0	1.095208E+0	1.125210E+0	1.096284E+0	1.129218E+0	1.158915E+0	1.150952E+0	1.133390E+0	1.125216E+0	1.082005E+0	1.126457E+0	1.113925E+0	1.116934E+0	1.178825E+0	1.171885E+0	1.136008E+0	1.126836E+0	1.128100E+0	1.148614E+0	1.111308E+0	1.053142E+0	1.107776E+0	1.106764E+0	1.083794E+0	1.126787E+0	1.060837E+0	1.175154E+0	1.132798E+0	1.162991E+0	1.139901E+0	1.116919E+0	1.119721E+0	1.115152E+0	1.139299E+0	1.181335E+0	1.086804E+0	1.087607E+0	1.187356E+0	1.124764E+0	1.094759E+0	1.093063E+0	1.106386E+0	1.126133E+0	1.144605E+0	1.143251E+0	1.088669E+0	1.122516E+0	1.087463E+0	1.139386E+0	1.123038E+0	1.101490E+0	1.156253E+0	1.106255E+0	1.138321E+0	1.183529E+0	1.103820E+0	1.134476E+0	1.124581E+0	1.021617E+0	1.109818E+0	1.107064E+0	1.129468E+0	1.113053E+0	1.097230E+0	1.056702E+0	1.175560E+0	1.127064E+0	1.170397E+0	1.068715E+0	1.229775E+0	1.079336E+0	1.118172E+0	1.154711E+0	1.050317E+0	1.087541E+0	1.121323E+0	1.049680E+0	1.191949E+0	1.182529E+0	1.082598E+0	1.160874E+0	1.159177E+0	1.114014E+0	1.087760E+0	1.069984E+0	1.153248E+0	1.214433E+0	1.080781E+0	1.149042E+0	1.105059E+0	1.084752E+0	1.113845E+0	1.173351E+0	1.174560E+0	1.100750E+0	1.098289E+0	1.057365E+0	1.125795E+0	1.170242E+0	1.126174E+0	1.167915E+0	1.150031E+0	1.082302E+0	1.164710E+0	1.138901E+0	1.159747E+0	1.066587E+0	1.070913E+0	1.117560E+0	1.118962E+0	1.128357E+0	1.084256E+0	1.068976E+0	1.167039E+0	1.187702E+0	1.114766E+0	1.151969E+0	1.248362E+0	1.200656E+0
2.890200E+2	1.111816E+0	1.149235E+0	1.135882E+0	1.119921E+0	1.120651E+0	1.152066E+0	1.096606E+0	1.163303E+0	1.104657E+0	1.148313E+0	1.142114E+0	1.082904E+0	1.145120E+0	1.099669E+0	1.079181E+0	1.097920E+0	1.131977E+0	1.119990E+0	1.131688E+0	1.057867E+0	1.182213E+0	1.106504E+0	1.065944E+0	1.062687E+0	1.162289E+0	1.115968E+0	1.078393E+0	1.086136E+0	1.031990E+0	1.056247E+0	1.106254E+0	1.104111E+0	1.151225E+0	1.063025E+0	1.121172E+0	1.120798E+0	1.107299E+0	1.088890E+0	1.086756E+0	1.147565E+0	1.080624E+0	1.056725E+0	1.063972E+0	1.105611E+0	1.105086E+0	1.150214E+0	1.125300E+0	1.125758E+0	1.111045E+0	1.121073E+0	1.124689E+0	1.072219E+0	1.080712E+0	1.174130E+0	1.131811E+0	1.168468E+0	1.100363E+0	1.109289E+0	1.133385E+0	1.110753E+0	1.091780E+0	1.106284E+0	1.057323E+0	1.160712E+0	1.131879E+0	1.142794E+0	1.113803E+0	1.111150E+0	1.121019E+0	1.101383E+0	1.105217E+0	1.143868E+0	1.112524E+0	1.059107E+0	1.136595E+0	1.091072E+0	1.092179E+0	1.147742E+0	1.121522E+0	1.181979E+0	1.069207E+0	1.142245E+0	1.083621E+0	1.213365E+0	1.052538E+0	1.156522E+0	1.151233E+0	1.101292E+0	1.137970E+0	1.132250E+0	1.071854E+0	1.112987E+0	1.127721E+0	1.111267E+0	1.147946E+0	1.077459E+0	1.118573E+0	1.213187E+0	1.093734E+0	1.105311E+0	1.139701E+0	1.107181E+0	1.069374E+0	1.182762E+0	1.168791E+0	1.144386E+0	1.029593E+0	1.122344E+0	1.097776E+0	1.123012E+0	1.118693E+0	1.074981E+0	1.153342E+0	1.097383E+0	1.172375E+0	1.131493E+0	1.089298E+0	1.147084E+0	1.096263E+0	1.124270E+0	1.101206E+0	1.078808E+0	1.095328E+0	1.119323E+0	1.031667E+0	1.102563E+0	1.089512E+0	1.117614E+0	1.165316E+0	1.068952E+0	1.148121E+0	1.140555E+0	1.130766E+0	1.144658E+0	1.162206E+0	1.073561E+0	1.096891E+0	1.156606E+0	1.065733E+0	1.122689E+0	1.167378E+0	1.152562E+0	1.092825E+0	1.134042E+0	1.103393E+0	1.097825E+0	1.026768E+0	1.117419E+0	1.226743E+0	1.170556E+0	1.138001E+0	1.090547E+0	1.121852E+0	1.080423E+0	1.142832E+0	1.079838E+0	1.102232E+0	1.079478E+0	1.137109E+0	1.091690E+0	1.069064E+0	1.101215E+0	1.107325E+0	1.071591E+0	1.140677E+0	1.116526E+0	1.130279E+0	1.168833E+0	1.166957E+0	1.112353E+0
2.892040E+2	1.022176E+0	1.110574E+0	1.059407E+0	1.000787E+0	1.038299E+0	1.070028E+0	1.043474E+0	1.070544E+0	1.012620E+0	1.072480E+0	1.030984E+0	1.050245E+0	1.046193E+0	9.736646E-1	1.046679E+0	1.043551E+0	1.067088E+0	9.851715E-1	1.065599E+0	1.051664E+0	1.024344E+0	1.004392E+0	1.017911E+0	1.011673E+0	1.080467E+0	9.971049E-1	1.048399E+0	9.840928E-1	1.039087E+0	1.006487E+0	1.037071E+0	9.988681E-1	1.111218E+0	1.015955E+0	9.871143E-1	9.877321E-1	1.056464E+0	1.054326E+0	9.675478E-1	1.070401E+0	9.617855E-1	1.071135E+0	1.100002E+0	1.047183E+0	1.018702E+0	1.036051E+0	1.085168E+0	1.017197E+0	1.048666E+0	1.040380E+0	1.061180E+0	9.578834E-1	1.041547E+0	1.082623E+0	1.030993E+0	1.067426E+0	1.070457E+0	9.626385E-1	1.106602E+0	1.045083E+0	1.000617E+0	1.031542E+0	1.044872E+0	1.019506E+0	1.061315E+0	1.057005E+0	1.001751E+0	9.992290E-1	1.002194E+0	1.061314E+0	1.030056E+0	1.085272E+0	9.980424E-1	1.079500E+0	1.008160E+0	1.055579E+0	9.993273E-1	1.014988E+0	1.012743E+0	1.028781E+0	1.068256E+0	1.070001E+0	9.712427E-1	9.933254E-1	1.035511E+0	1.074355E+0	1.039081E+0	1.010907E+0	1.109613E+0	9.811203E-1	1.013667E+0	1.010507E+0	1.006194E+0	1.030782E+0	9.582223E-1	9.996120E-1	9.953382E-1	1.010673E+0	1.007106E+0	9.455936E-1	1.031541E+0	1.043718E+0	1.025243E+0	1.072523E+0	1.002392E+0	1.063566E+0	9.872167E-1	9.822423E-1	1.058493E+0	9.687867E-1	1.059749E+0	1.016621E+0	1.031292E+0	1.051274E+0	1.007617E+0	9.220558E-1	1.061872E+0	1.012092E+0	1.033849E+0	1.079456E+0	1.064512E+0	1.062081E+0	1.055840E+0	1.044990E+0	1.090571E+0	1.012047E+0	1.037127E+0	1.020468E+0	9.685156E-1	1.027954E+0	1.050557E+0	1.020992E+0	1.054213E+0	1.029292E+0	1.100180E+0	1.029149E+0	1.017067E+0	1.107299E+0	1.064015E+0	1.011954E+0	1.071426E+0	1.026722E+0	1.052708E+0	1.025993E+0	9.776684E-1	1.068676E+0	1.026450E+0	1.040196E+0	1.047134E+0	1.020195E+0	1.047691E+0	1.064378E+0	1.113053E+0	9.855162E-1	1.018068E+0	1.010484E+0	1.031094E+0	1.000907E+0	1.029724E+0	1.016857E+0	1.056761E+0	1.059761E+0	9.598681E-1	1.069716E+0	1.067306E+0	1.067279E+0	1.069978E+0	9.780763E-1	9.764297E-1	1.123602E+0
2.894080E+2	8.044885E-1	8.541172E-1	8.045460E-1	8.150616E-1	7.548234E-1	8.523460E-1	8.333012E-1	7.913872E-1	8.291669E-1	7.614812E-1	8.134713E-1	7.806537E-1	8.089936E-1	7.868525E-1	7.731576E-1	8.022659E-1	8.123394E-1	8.177447E-1	7.982637E-1	7.835458E-1	8.064895E-1	8.264319E-1	7.832859E-1	7.510563E-1	7.587120E-1	7.522578E-1	7.831888E-1	8.197344E-1	7.832202E-1	8.004744E-1	7.829061E-1	8.194605E-1	8.644374E-1	7.740387E-1	7.924648E-1	8.109383E-1	8.492896E-1	8.668121E-1	8.509378E-1	7.666773E-1	8.283342E-1	7.464027E-1	7.852029E-1	8.376314E-1	7.964528E-1	8.252199E-1	8.042918E-1	7.807316E-1	8.257666E-1	7.902012E-1	7.954227E-1	8.178988E-1	8.015752E-1	8.130464E-1	7.477562E-1	7.997162E-1	8.183458E-1	8.076970E-1	7.834493E-1	8.337591E-1	8.144236E-1	7.888369E-1	7.933159E-1	8.246321E-1	8.387639E-1	7.658645E-1	8.244134E-1	8.074498E-1	8.267526E-1	7.895242E-1	8.080252E-1	8.204395E-1	8.459210E-1	7.925632E-1	7.372538E-1	8.156099E-1	8.707264E-1	8.649659E-1	8.154309E-1	8.064751E-1	7.924765E-1	8.280054E-1	8.297149E-1	8.053311E-1	7.947077E-1	8.357354E-1	7.658492E-1	7.806280E-1	7.566738E-1	8.163385E-1	7.825950E-1	8.024481E-1	8.047555E-1	8.347769E-1	8.443489E-1	7.739569E-1	7.786367E-1	8.539660E-1	8.659417E-1	8.154417E-1	8.152725E-1	8.356277E-1	8.140681E-1	7.882293E-1	8.268039E-1	8.208192E-1	8.769101E-1	8.563811E-1	8.283749E-1	8.360127E-1	7.468258E-1	8.216454E-1	7.850592E-1	7.898855E-1	7.964291E-1	8.133987E-1	8.563949E-1	8.156366E-1	8.390665E-1	8.589673E-1	8.392341E-1	7.787999E-1	8.115575E-1	7.941764E-1	7.972885E-1	7.723484E-1	8.028054E-1	7.434450E-1	7.846296E-1	7.832919E-1	8.057604E-1	8.081744E-1	8.153127E-1	8.191808E-1	8.355701E-1	7.955307E-1	8.549261E-1	8.164177E-1	7.819090E-1	8.240840E-1	8.335415E-1	8.025548E-1	7.716482E-1	8.244576E-1	8.316803E-1	7.768625E-1	7.754519E-1	8.082410E-1	8.478273E-1	8.781761E-1	7.918113E-1	8.345090E-1	8.735237E-1	8.372816E-1	8.601581E-1	7.935039E-1	8.230195E-1	8.115180E-1	8.061566E-1	8.339003E-1	7.793244E-1	8.330246E-1	7.953804E-1	7.724161E-1	8.350713E-1	8.302303E-1	8.091870E-1	7.940250E-1	9.063915E-1	9.587608E-1
2.896090E+2	6.404585E-1	6.364380E-1	6.173806E-1	5.458877E-1	6.072906E-1	6.031574E-1	5.879338E-1	6.309226E-1	6.376965E-1	5.746013E-1	7.115323E-1	6.466277E-1	6.195366E-1	6.437318E-1	6.269542E-1	6.465516E-1	6.221971E-1	6.324939E-1	5.951143E-1	5.976492E-1	6.073759E-1	6.176954E-1	6.433962E-1	6.092691E-1	6.506063E-1	5.385889E-1	6.431074E-1	5.819738E-1	6.604565E-1	6.104274E-1	6.451184E-1	6.374583E-1	5.815827E-1	5.957158E-1	6.692322E-1	6.069803E-1	6.053480E-1	5.624135E-1	5.671968E-1	5.905095E-1	6.779168E-1	5.865378E-1	6.396546E-1	6.264926E-1	6.050848E-1	6.130800E-1	6.097993E-1	5.981692E-1	5.902070E-1	6.489869E-1	6.112193E-1	6.326298E-1	6.030504E-1	6.600038E-1	6.027555E-1	6.317756E-1	6.048220E-1	6.339704E-1	6.131879E-1	6.683750E-1	6.219244E-1	6.108806E-1	6.002452E-1	6.278485E-1	6.042387E-1	5.912306E-1	5.937730E-1	6.067724E-1	6.089610E-1	6.664847E-1	5.737452E-1	5.767328E-1	6.623279E-1	5.634176E-1	6.466554E-1	6.443887E-1	6.084807E-1	6.479693E-1	6.168926E-1	5.990786E-1	6.313318E-1	6.000187E-1	6.259641E-1	6.214132E-1	6.591034E-1	6.245421E-1	5.892485E-1	6.045115E-1	6.468701E-1	5.840439E-1	5.817896E-1	5.534868E-1	6.168033E-1	6.365780E-1	6.459441E-1	6.533848E-1	6.388361E-1	6.232132E-1	6.556497E-1	6.086889E-1	5.936352E-1	6.340066E-1	6.602195E-1	5.816251E-1	5.921366E-1	6.136241E-1	6.271074E-1	5.989763E-1	6.366764E-1	5.783983E-1	6.012599E-1	6.073549E-1	6.179697E-1	6.201483E-1	6.462228E-1	6.001642E-1	6.008173E-1	6.284632E-1	5.652346E-1	6.345421E-1	6.381133E-1	6.430587E-1	6.508326E-1	6.072346E-1	6.014184E-1	6.227389E-1	5.663901E-1	6.163051E-1	6.425998E-1	6.465477E-1	6.749387E-1	6.550980E-1	6.255132E-1	5.950070E-1	5.980025E-1	6.186321E-1	6.322013E-1	6.899433E-1	6.402624E-1	6.359159E-1	6.174564E-1	6.554177E-1	5.820245E-1	6.795044E-1	6.710346E-1	6.371455E-1	6.634024E-1	5.930305E-1	6.300203E-1	6.307994E-1	6.322859E-1	6.652205E-1	5.582362E-1	6.130186E-1	6.370685E-1	6.040428E-1	5.655670E-1	6.503030E-1	6.454502E-1	6.320137E-1	6.410948E-1	6.197700E-1	5.584125E-1	5.686590E-1	6.433287E-1	5.958873E-1	6.467279E-1	6.155644E-1	6.338339E-1	6.679175E-1
2.898020E+2	6.804538E-1	6.439503E-1	6.282430E-1	6.678995E-1	7.179333E-1	6.753808E-1	6.406829E-1	6.894049E-1	6.776449E-1	7.014781E-1	6.793480E-1	6.891054E-1	6.859196E-1	6.727199E-1	6.498069E-1	6.896560E-1	6.540027E-1	6.953096E-1	6.812514E-1	6.419945E-1	6.638358E-1	6.806339E-1	6.636934E-1	6.601467E-1	6.601644E-1	6.570324E-1	6.610998E-1	7.092188E-1	6.932201E-1	6.982486E-1	6.282085E-1	7.076175E-1	6.116396E-1	6.995330E-1	6.165345E-1	6.036485E-1	6.688783E-1	6.924069E-1	7.149153E-1	6.410287E-1	6.857821E-1	6.180979E-1	6.984726E-1	6.320892E-1	6.733532E-1	7.115638E-1	6.282426E-1	6.352820E-1	6.627872E-1	6.635668E-1	6.666563E-1	6.484776E-1	6.337123E-1	7.125661E-1	6.421211E-1	6.681713E-1	7.360519E-1	6.692040E-1	6.845828E-1	6.705239E-1	6.507423E-1	6.399265E-1	6.758171E-1	6.900988E-1	6.252100E-1	6.762211E-1	6.482296E-1	6.362582E-1	6.645214E-1	6.372716E-1	6.422781E-1	6.965685E-1	6.047031E-1	5.891798E-1	6.714851E-1	6.994508E-1	7.001631E-1	6.892055E-1	6.300727E-1	7.104735E-1	6.985388E-1	6.840266E-1	6.320244E-1	6.974779E-1	7.205638E-1	7.175785E-1	6.193941E-1	5.570228E-1	6.470137E-1	6.645654E-1	6.639254E-1	7.305571E-1	7.223449E-1	6.887187E-1	6.658533E-1	6.534168E-1	6.240391E-1	6.292543E-1	6.947821E-1	6.394161E-1	7.088431E-1	7.017626E-1	6.626397E-1	6.702897E-1	6.042478E-1	6.718377E-1	6.431575E-1	6.556017E-1	6.681071E-1	5.979335E-1	6.631807E-1	6.347476E-1	6.317278E-1	6.443275E-1	6.823138E-1	6.511417E-1	6.631129E-1	7.010767E-1	6.445224E-1	6.720672E-1	7.053063E-1	6.523941E-1	6.441277E-1	6.791155E-1	6.920680E-1	6.295609E-1	6.875563E-1	6.194626E-1	6.890070E-1	7.019747E-1	6.700929E-1	7.153634E-1	6.453830E-1	7.061166E-1	5.903533E-1	6.471099E-1	6.584255E-1	6.843848E-1	6.462896E-1	6.451668E-1	7.234203E-1	6.285745E-1	6.936261E-1	6.751388E-1	5.715697E-1	6.694141E-1	6.505846E-1	6.713712E-1	6.638613E-1	6.496115E-1	6.958018E-1	6.516586E-1	6.353454E-1	6.413568E-1	7.260152E-1	6.713823E-1	6.588733E-1	6.829106E-1	6.447466E-1	6.607367E-1	6.764244E-1	6.634183E-1	6.704317E-1	6.454635E-1	6.707027E-1	6.337730E-1	6.680391E-1	6.838956E-1	5.572950E-1	6.296537E-1
2.900020E+2	7.492985E-1	7.705474E-1	8.062304E-1	6.989865E-1	7.430354E-1	7.917226E-1	7.879696E-1	7.189167E-1	7.893556E-1	7.627124E-1	8.098801E-1	7.122490E-1	7.041546E-1	7.823174E-1	7.562914E-1	7.698676E-1	7.368663E-1	7.479829E-1	7.514840E-1	7.623729E-1	7.814565E-1	7.984242E-1	7.878927E-1	7.651299E-1	8.094551E-1	8.080518E-1	7.816967E-1	8.048387E-1	8.084704E-1	8.135443E-1	7.833416E-1	7.768204E-1	7.932431E-1	7.782646E-1	8.170142E-1	7.533271E-1	7.693214E-1	8.024789E-1	7.607116E-1	7.214213E-1	7.532396E-1	8.619969E-1	7.452515E-1	7.609184E-1	7.305082E-1	7.353960E-1	7.700890E-1	8.041173E-1	7.828566E-1	8.636957E-1	7.879900E-1	7.667109E-1	7.481622E-1	8.214711E-1	7.639715E-1	7.798503E-1	7.797540E-1	7.398871E-1	7.843158E-1	7.820726E-1	7.388807E-1	8.176569E-1	7.338564E-1	7.961373E-1	8.284082E-1	7.780989E-1	7.957629E-1	7.945472E-1	8.031423E-1	7.485324E-1	7.396307E-1	7.952953E-1	7.688874E-1	7.954474E-1	8.020236E-1	7.668147E-1	7.404407E-1	7.446336E-1	7.537401E-1	7.893554E-1	8.283721E-1	8.329123E-1	7.737825E-1	7.789809E-1	8.095750E-1	7.899332E-1	7.452603E-1	7.314618E-1	8.032820E-1	8.106093E-1	7.392419E-1	7.951202E-1	7.833124E-1	7.814178E-1	7.494836E-1	7.710900E-1	7.741429E-1	7.947886E-1	7.825568E-1	7.573952E-1	8.179904E-1	7.725166E-1	7.999046E-1	7.630813E-1	7.878615E-1	7.933893E-1	7.583817E-1	7.649174E-1	7.750069E-1	7.779080E-1	7.510698E-1	7.836275E-1	8.109168E-1	7.674057E-1	7.554669E-1	7.483948E-1	7.862549E-1	7.621578E-1	7.552502E-1	7.999154E-1	7.515660E-1	8.028513E-1	7.841774E-1	7.663003E-1	7.883547E-1	7.599334E-1	7.636046E-1	7.571182E-1	7.752838E-1	7.611762E-1	7.738440E-1	6.935492E-1	8.130263E-1	7.587884E-1	8.002474E-1	7.903516E-1	8.524145E-1	7.899933E-1	8.131861E-1	7.280498E-1	7.952568E-1	7.671041E-1	8.254084E-1	8.434521E-1	7.789258E-1	7.998891E-1	7.542956E-1	7.634899E-1	8.039052E-1	7.544648E-1	7.975219E-1	8.399859E-1	7.872047E-1	8.244148E-1	7.433903E-1	7.403428E-1	7.630798E-1	7.952006E-1	7.573483E-1	8.000296E-1	7.931501E-1	8.117086E-1	7.722518E-1	7.589345E-1	8.435395E-1	7.475724E-1	8.218765E-1	8.147286E-1	6.703629E-1	7.934908E-1
2.905110E+2	8.998363E-1	8.742890E-1	9.305206E-1	8.476004E-1	7.990019E-1	8.788661E-1	8.637026E-1	8.581419E-1	7.799541E-1	8.450453E-1	8.815483E-1	8.289650E-1	8.664705E-1	8.575744E-1	8.465332E-1	9.035979E-1	8.696378E-1	8.524906E-1	8.717206E-1	8.201816E-1	8.438229E-1	8.563223E-1	8.712500E-1	8.671734E-1	8.383046E-1	8.374310E-1	8.561617E-1	8.852912E-1	8.427906E-1	8.669442E-1	8.979194E-1	8.810754E-1	8.345041E-1	8.212340E-1	8.462231E-1	7.920157E-1	8.914082E-1	8.513865E-1	8.439158E-1	8.611631E-1	8.894941E-1	8.160954E-1	8.856502E-1	9.113134E-1	8.510840E-1	9.164016E-1	9.096812E-1	8.410033E-1	8.594399E-1	8.627333E-1	8.903557E-1	8.553983E-1	8.895374E-1	9.185513E-1	8.665334E-1	8.553349E-1	8.700233E-1	8.771349E-1	9.029088E-1	8.522480E-1	8.980077E-1	8.751120E-1	8.416430E-1	8.728105E-1	8.407726E-1	8.449792E-1	8.269508E-1	8.702310E-1	8.799648E-1	8.983956E-1	7.979480E-1	8.749578E-1	8.989106E-1	8.225388E-1	8.512859E-1	8.659382E-1	8.434721E-1	8.317777E-1	8.193175E-1	8.819879E-1	8.484284E-1	8.443244E-1	8.312920E-1	9.427355E-1	9.078220E-1	8.502558E-1	8.823601E-1	8.227371E-1	8.421464E-1	8.846624E-1	8.377092E-1	8.673882E-1	8.165630E-1	8.658906E-1	8.111924E-1	8.770644E-1	8.955146E-1	9.004017E-1	8.664813E-1	8.244628E-1	8.489723E-1	8.670882E-1	8.472897E-1	7.947326E-1	8.488579E-1	8.512593E-1	8.335549E-1	8.990962E-1	9.244222E-1	7.866882E-1	8.553757E-1	8.390000E-1	8.839922E-1	8.557942E-1	8.538957E-1	8.847827E-1	8.762705E-1	8.662232E-1	8.272620E-1	8.611771E-1	9.159445E-1	8.376916E-1	8.110810E-1	8.709117E-1	8.368136E-1	8.340968E-1	8.267795E-1	8.304214E-1	8.467473E-1	8.475467E-1	8.439143E-1	8.179614E-1	8.849175E-1	9.222276E-1	8.721774E-1	8.688312E-1	9.240382E-1	8.596127E-1	8.024704E-1	8.649768E-1	8.837962E-1	8.625933E-1	8.715360E-1	8.309686E-1	8.757791E-1	8.822699E-1	8.225019E-1	8.442867E-1	8.558069E-1	8.766381E-1	8.911454E-1	8.449014E-1	8.951410E-1	8.626213E-1	8.648513E-1	9.457325E-1	8.516121E-1	8.838936E-1	8.681589E-1	8.204141E-1	9.182582E-1	8.918038E-1	8.634598E-1	8.771547E-1	8.599846E-1	8.062261E-1	8.363016E-1	8.278248E-1	9.021190E-1	8.276540E-1
2.910070E+2	9.462502E-1	9.974432E-1	8.750980E-1	8.728399E-1	8.596253E-1	9.642432E-1	9.091048E-1	9.776929E-1	8.320903E-1	9.823102E-1	9.587495E-1	9.458256E-1	8.859183E-1	8.046555E-1	9.091632E-1	8.689345E-1	9.554920E-1	8.966414E-1	9.048222E-1	8.845404E-1	9.142212E-1	9.197390E-1	9.372833E-1	9.732271E-1	9.961082E-1	9.814839E-1	9.304538E-1	8.847457E-1	8.801254E-1	9.455569E-1	9.423381E-1	9.508049E-1	9.249507E-1	9.973887E-1	9.602447E-1	8.552923E-1	8.829620E-1	9.892479E-1	8.712449E-1	9.486318E-1	9.168252E-1	9.541156E-1	9.249777E-1	9.953970E-1	8.415528E-1	9.257257E-1	9.052991E-1	8.857269E-1	9.703815E-1	9.617670E-1	9.345457E-1	9.148469E-1	9.477286E-1	9.373587E-1	9.215309E-1	9.341527E-1	9.342697E-1	9.190638E-1	9.176603E-1	1.012914E+0	8.840263E-1	9.097507E-1	9.199952E-1	1.026131E+0	9.762043E-1	9.594545E-1	9.527356E-1	9.537080E-1	8.929337E-1	9.396201E-1	8.968348E-1	8.999707E-1	8.603029E-1	9.294336E-1	8.946669E-1	9.621929E-1	8.777014E-1	9.621284E-1	1.008170E+0	9.872798E-1	8.791763E-1	9.172086E-1	8.881509E-1	8.920904E-1	8.937067E-1	9.600854E-1	9.177767E-1	9.155885E-1	8.776132E-1	8.775637E-1	8.767967E-1	9.684558E-1	9.263435E-1	8.878313E-1	9.214518E-1	9.048298E-1	8.796863E-1	9.362251E-1	9.681904E-1	9.182766E-1	9.261049E-1	8.895840E-1	9.369794E-1	8.972123E-1	8.789335E-1	9.082129E-1	9.140274E-1	8.957350E-1	9.484628E-1	8.562874E-1	9.514723E-1	9.401250E-1	9.758424E-1	9.205881E-1	9.587756E-1	9.464343E-1	9.302657E-1	9.725366E-1	9.849455E-1	8.659000E-1	8.947941E-1	9.200071E-1	9.444145E-1	9.441267E-1	9.081453E-1	9.422194E-1	9.045433E-1	8.953652E-1	9.864097E-1	9.456949E-1	9.383061E-1	9.096431E-1	1.026010E+0	9.412837E-1	8.957120E-1	9.589754E-1	9.199889E-1	9.322602E-1	8.713538E-1	9.021408E-1	9.410990E-1	9.401675E-1	8.972975E-1	9.793850E-1	9.570902E-1	9.281074E-1	9.506686E-1	9.423528E-1	9.485191E-1	9.862707E-1	9.278034E-1	9.273548E-1	9.157708E-1	8.701590E-1	9.316496E-1	8.495925E-1	9.007040E-1	9.308781E-1	8.820443E-1	9.397147E-1	8.553191E-1	9.585852E-1	8.788110E-1	9.820495E-1	9.242230E-1	9.669485E-1	8.715256E-1	8.480746E-1	9.464660E-1	9.620968E-1
2.915110E+2	1.139203E+0	1.120934E+0	1.209011E+0	1.082512E+0	1.108852E+0	1.150417E+0	1.129007E+0	1.119493E+0	1.122625E+0	1.088376E+0	1.179532E+0	1.053586E+0	1.094646E+0	1.085773E+0	1.158466E+0	1.067165E+0	1.140409E+0	1.155441E+0	1.043863E+0	1.149355E+0	1.140515E+0	1.105570E+0	1.143154E+0	1.125108E+0	1.074437E+0	1.175211E+0	1.125658E+0	1.109282E+0	1.144550E+0	1.166249E+0	1.119592E+0	1.142726E+0	1.103063E+0	1.147064E+0	1.121489E+0	1.072475E+0	1.178235E+0	1.087994E+0	1.090553E+0	1.139879E+0	1.163567E+0	1.090531E+0	1.186896E+0	1.071957E+0	1.099148E+0	1.033778E+0	1.129402E+0	1.177348E+0	1.110138E+0	1.149718E+0	1.133906E+0	1.085700E+0	1.090147E+0	1.194501E+0	1.120850E+0	1.151045E+0	1.157854E+0	1.127731E+0	1.110557E+0	1.150330E+0	1.162682E+0	1.066373E+0	1.161284E+0	1.138275E+0	1.139491E+0	1.086175E+0	1.125838E+0	1.127625E+0	1.126375E+0	1.118969E+0	1.141931E+0	1.122923E+0	1.091724E+0	1.105987E+0	1.113033E+0	1.126343E+0	1.092802E+0	1.150951E+0	1.123559E+0	1.124635E+0	1.118351E+0	1.112125E+0	1.120595E+0	1.114134E+0	1.160105E+0	1.238691E+0	1.063545E+0	1.111326E+0	1.087504E+0	1.114496E+0	1.110464E+0	1.126026E+0	1.086023E+0	1.165260E+0	1.101854E+0	1.119186E+0	1.152104E+0	1.184431E+0	1.129891E+0	1.134307E+0	1.113696E+0	1.174793E+0	1.168822E+0	1.106422E+0	1.082472E+0	1.165992E+0	1.060214E+0	1.139102E+0	1.165212E+0	1.199075E+0	1.065002E+0	1.104766E+0	1.086288E+0	1.140148E+0	1.164962E+0	1.181877E+0	1.184457E+0	1.181376E+0	1.122563E+0	1.169655E+0	1.126923E+0	1.108319E+0	1.100681E+0	1.111822E+0	1.065618E+0	1.229513E+0	1.062299E+0	1.109549E+0	1.198210E+0	1.125657E+0	1.169231E+0	1.092542E+0	1.099201E+0	1.155916E+0	1.121686E+0	1.166166E+0	1.180282E+0	1.183532E+0	1.090346E+0	1.181445E+0	1.217057E+0	1.184364E+0	1.132435E+0	1.216725E+0	1.111932E+0	1.088968E+0	1.105334E+0	1.171828E+0	1.161367E+0	1.170241E+0	1.116220E+0	1.140324E+0	1.093120E+0	1.117459E+0	1.185906E+0	1.124315E+0	1.136278E+0	1.125533E+0	1.129621E+0	1.090085E+0	1.090022E+0	1.168020E+0	1.126874E+0	1.180162E+0	1.114748E+0	1.123518E+0	1.116842E+0	1.110245E+0	1.201400E+0	1.252304E+0
2.920030E+2	9.828115E-1	1.083658E+0	1.162182E+0	1.108697E+0	1.129767E+0	1.107206E+0	1.115824E+0	9.994692E-1	1.056902E+0	1.072079E+0	1.120494E+0	1.034667E+0	1.113204E+0	1.088126E+0	1.070474E+0	1.088811E+0	1.117819E+0	1.150415E+0	1.093100E+0	1.044801E+0	1.135539E+0	1.171311E+0	1.123441E+0	1.050288E+0	1.202292E+0	1.148579E+0	1.058454E+0	1.139948E+0	1.031903E+0	1.118116E+0	1.071970E+0	1.157807E+0	1.098268E+0	1.172226E+0	1.128685E+0	1.067428E+0	1.082202E+0	1.058699E+0	1.128009E+0	1.088301E+0	1.065321E+0	1.153848E+0	1.053861E+0	1.116003E+0	1.146861E+0	1.058852E+0	1.093677E+0	1.096565E+0	1.135113E+0	1.183817E+0	1.103039E+0	1.194548E+0	1.071421E+0	1.176525E+0	1.127065E+0	1.063892E+0	1.143222E+0	9.809682E-1	1.071754E+0	1.104593E+0	1.112213E+0	1.116474E+0	1.085413E+0	1.125984E+0	1.092160E+0	1.094559E+0	1.086806E+0	1.085651E+0	1.097851E+0	1.170350E+0	1.078202E+0	1.156591E+0	1.182872E+0	1.067771E+0	1.086557E+0	1.172700E+0	1.151618E+0	1.172037E+0	1.109716E+0	1.149343E+0	1.079044E+0	1.111891E+0	1.103810E+0	1.148338E+0	1.102595E+0	1.129150E+0	1.087346E+0	1.091322E+0	1.047358E+0	1.096298E+0	1.080736E+0	1.101008E+0	1.105513E+0	1.107433E+0	1.041858E+0	1.128889E+0	1.036969E+0	1.088123E+0	1.114922E+0	1.066266E+0	1.207832E+0	1.130392E+0	1.157063E+0	1.079231E+0	1.107723E+0	1.158964E+0	1.033750E+0	1.124266E+0	1.179738E+0	1.059962E+0	1.083260E+0	1.082610E+0	1.051314E+0	1.089426E+0	1.173287E+0	1.090566E+0	1.107055E+0	1.121217E+0	1.123014E+0	1.034639E+0	1.110588E+0	1.104239E+0	1.127727E+0	1.204980E+0	1.081474E+0	1.128322E+0	1.088132E+0	1.071219E+0	1.122132E+0	1.136351E+0	1.140401E+0	1.141041E+0	1.153522E+0	1.128951E+0	1.149418E+0	1.143411E+0	1.130798E+0	1.087921E+0	1.056767E+0	1.131032E+0	1.083702E+0	1.103485E+0	1.137844E+0	1.128105E+0	1.092426E+0	1.166918E+0	1.139649E+0	1.088606E+0	1.144576E+0	1.108067E+0	1.153743E+0	1.134614E+0	1.073548E+0	1.085846E+0	1.116215E+0	1.092572E+0	1.079531E+0	1.097515E+0	1.125666E+0	1.129280E+0	1.060620E+0	1.103783E+0	1.143015E+0	1.081774E+0	1.126619E+0	1.156155E+0	1.173119E+0	1.135184E+0	1.029688E+0	1.180521E+0
2.925020E+2	1.095974E+0	1.088550E+0	1.086675E+0	1.037204E+0	1.046009E+0	1.159743E+0	1.065839E+0	1.120890E+0	1.128599E+0	1.060682E+0	1.100062E+0	1.019700E+0	1.121686E+0	1.032092E+0	1.157130E+0	1.075952E+0	1.049160E+0	1.067601E+0	1.084980E+0	1.034303E+0	1.033894E+0	1.044031E+0	1.097373E+0	1.098456E+0	1.021523E+0	1.131100E+0	1.029314E+0	9.962953E-1	1.009907E+0	1.083738E+0	1.079978E+0	1.121066E+0	1.068705E+0	1.084349E+0	1.075201E+0	9.914086E-1	1.093530E+0	1.052236E+0	1.080587E+0	1.118755E+0	1.019652E+0	1.080871E+0	1.098740E+0	1.094968E+0	1.090455E+0	1.094497E+0	1.090921E+0	1.080719E+0	1.040443E+0	1.107095E+0	1.051014E+0	1.085580E+0	1.045619E+0	1.095004E+0	1.139814E+0	1.051640E+0	1.080956E+0	1.081319E+0	1.088777E+0	1.085568E+0	1.046101E+0	1.133606E+0	1.134512E+0	1.087890E+0	1.058374E+0	1.005631E+0	1.076106E+0	9.874067E-1	1.036290E+0	1.120415E+0	1.046108E+0	1.084339E+0	1.056466E+0	1.084894E+0	1.077592E+0	1.079652E+0	1.073705E+0	1.168181E+0	1.065463E+0	1.149749E+0	1.085090E+0	1.126524E+0	1.049098E+0	1.086474E+0	1.084936E+0	1.127018E+0	1.153480E+0	1.042718E+0	1.118354E+0	1.065891E+0	1.031103E+0	1.079850E+0	1.068963E+0	1.094282E+0	1.033422E+0	1.098891E+0	1.100081E+0	1.070609E+0	1.080403E+0	1.068555E+0	1.078041E+0	1.086064E+0	1.059241E+0	1.064609E+0	1.044944E+0	1.120976E+0	1.096234E+0	1.093186E+0	1.174666E+0	1.058479E+0	1.029653E+0	1.091076E+0	1.044520E+0	1.034503E+0	1.095286E+0	1.051878E+0	1.066512E+0	1.073653E+0	1.104719E+0	1.154745E+0	1.086179E+0	1.055804E+0	1.059419E+0	1.116475E+0	1.060543E+0	1.041568E+0	1.032222E+0	1.047874E+0	1.043039E+0	1.152762E+0	1.095144E+0	1.049516E+0	1.043487E+0	1.135301E+0	1.100699E+0	1.140281E+0	1.078790E+0	1.107040E+0	1.087817E+0	1.105457E+0	1.108146E+0	1.108528E+0	1.005937E+0	1.055138E+0	1.044394E+0	1.063071E+0	1.065245E+0	1.000223E+0	1.037727E+0	1.144532E+0	1.067640E+0	1.078066E+0	1.072689E+0	1.124861E+0	1.095932E+0	1.077182E+0	1.069046E+0	1.106102E+0	1.086648E+0	1.138407E+0	1.092502E+0	1.104592E+0	1.113882E+0	1.139882E+0	1.116835E+0	1.030768E+0	1.106829E+0	1.084644E+0	1.007055E+0	9.974462E-1
2.930040E+2	8.790726E-1	8.922574E-1	9.283471E-1	8.945924E-1	8.443071E-1	9.341885E-1	9.093395E-1	9.222968E-1	8.771109E-1	8.266672E-1	9.138302E-1	9.114415E-1	8.444083E-1	8.983297E-1	9.011543E-1	9.126114E-1	8.924516E-1	9.590747E-1	9.081449E-1	8.840074E-1	9.143604E-1	8.852028E-1	8.674074E-1	8.965446E-1	9.377752E-1	8.979917E-1	9.004105E-1	8.606752E-1	8.568562E-1	9.494411E-1	9.170266E-1	9.608362E-1	8.862124E-1	8.875879E-1	8.917570E-1	8.716241E-1	8.731684E-1	9.355562E-1	9.003222E-1	8.830929E-1	9.072467E-1	8.913874E-1	9.366517E-1	9.563575E-1	9.338739E-1	8.755506E-1	9.302041E-1	8.790554E-1	9.116784E-1	9.163781E-1	9.307221E-1	8.627131E-1	8.887287E-1	9.045182E-1	8.959903E-1	8.972584E-1	9.181547E-1	8.223406E-1	8.720689E-1	9.351845E-1	8.594488E-1	8.778165E-1	8.689635E-1	8.898779E-1	9.481859E-1	9.067174E-1	9.699177E-1	8.809834E-1	8.694607E-1	8.936972E-1	8.923555E-1	9.467329E-1	9.273482E-1	8.761109E-1	8.496428E-1	9.394670E-1	9.707944E-1	9.528323E-1	8.424014E-1	9.863904E-1	8.748386E-1	9.394933E-1	8.394000E-1	8.826525E-1	8.530895E-1	9.206880E-1	8.774134E-1	9.087921E-1	9.198772E-1	8.837801E-1	9.118704E-1	8.988678E-1	8.975915E-1	9.002067E-1	8.987168E-1	8.848095E-1	9.502057E-1	8.952302E-1	9.237278E-1	9.118202E-1	9.148799E-1	9.292698E-1	9.077065E-1	9.141598E-1	9.081052E-1	8.420301E-1	8.712784E-1	9.581437E-1	9.295165E-1	8.441289E-1	8.522600E-1	8.930893E-1	8.734043E-1	9.373241E-1	9.164816E-1	9.436144E-1	9.131018E-1	9.416540E-1	8.614835E-1	8.873191E-1	8.613684E-1	9.454080E-1	9.331125E-1	1.057455E+0	9.081333E-1	9.310199E-1	9.350396E-1	8.872721E-1	9.041315E-1	9.689698E-1	9.131108E-1	8.477217E-1	8.932389E-1	9.401303E-1	9.039775E-1	9.263750E-1	8.623425E-1	8.471913E-1	9.388630E-1	9.492432E-1	9.745260E-1	8.908285E-1	9.163284E-1	9.314764E-1	8.028041E-1	9.707039E-1	8.591907E-1	8.098589E-1	9.303578E-1	8.653298E-1	9.355422E-1	8.927792E-1	9.370467E-1	9.023335E-1	8.643880E-1	9.805143E-1	9.015214E-1	8.759485E-1	8.804856E-1	8.735466E-1	9.185147E-1	8.977402E-1	9.483547E-1	9.351541E-1	8.477410E-1	8.793536E-1	8.750267E-1	9.254240E-1	8.959372E-1	9.865501E-1
2.935090E+2	1.019926E+0	9.806862E-1	1.070829E+0	8.875281E-1	9.603176E-1	9.873325E-1	9.228609E-1	9.939015E-1	9.840047E-1	9.271701E-1	1.008693E+0	9.258734E-1	9.489453E-1	9.530722E-1	9.942050E-1	9.844345E-1	1.003454E+0	9.483698E-1	1.019332E+0	9.709028E-1	9.641359E-1	9.807513E-1	9.342943E-1	9.929173E-1	1.044123E+0	9.476869E-1	9.655238E-1	9.400725E-1	9.457695E-1	9.617193E-1	1.045454E+0	1.001480E+0	9.642495E-1	9.720672E-1	1.016456E+0	9.764329E-1	1.025685E+0	1.018126E+0	9.705763E-1	9.844446E-1	9.675264E-1	9.484381E-1	9.961184E-1	9.672230E-1	9.504263E-1	9.805916E-1	9.820645E-1	1.016319E+0	9.790334E-1	9.933512E-1	1.024705E+0	9.863297E-1	1.006880E+0	1.008852E+0	9.379279E-1	1.008496E+0	9.627674E-1	9.781949E-1	9.862546E-1	9.953665E-1	9.665511E-1	8.924682E-1	1.003648E+0	9.709647E-1	1.005797E+0	9.669426E-1	9.955229E-1	1.018482E+0	9.749599E-1	1.015639E+0	9.554021E-1	9.621690E-1	9.877333E-1	9.391902E-1	9.598728E-1	1.025884E+0	9.759945E-1	9.778867E-1	1.044505E+0	1.014557E+0	9.852869E-1	9.874673E-1	9.484093E-1	1.019742E+0	9.869409E-1	9.928644E-1	9.770097E-1	1.002250E+0	9.405058E-1	9.774863E-1	9.301565E-1	9.568463E-1	9.634638E-1	1.031721E+0	1.011612E+0	9.635351E-1	9.914103E-1	1.038647E+0	9.802050E-1	9.932141E-1	1.003810E+0	1.056404E+0	9.838621E-1	9.558701E-1	9.794813E-1	1.039462E+0	9.248145E-1	9.682161E-1	9.860956E-1	9.578378E-1	9.505915E-1	9.994200E-1	9.434030E-1	1.007041E+0	9.541692E-1	9.699206E-1	9.352156E-1	1.048097E+0	9.704239E-1	1.010426E+0	9.997338E-1	1.038762E+0	9.949617E-1	1.003030E+0	9.592962E-1	9.787115E-1	9.363216E-1	9.293926E-1	9.989626E-1	9.668694E-1	1.028673E+0	9.122207E-1	9.845921E-1	9.972528E-1	1.027873E+0	1.004265E+0	9.871589E-1	9.889375E-1	9.443995E-1	9.638980E-1	9.646901E-1	9.606780E-1	9.763972E-1	9.959820E-1	1.053827E+0	9.733317E-1	9.895338E-1	9.621774E-1	9.167596E-1	1.015451E+0	9.267948E-1	9.050588E-1	9.648526E-1	9.773635E-1	9.486156E-1	9.576830E-1	1.014810E+0	1.076734E+0	9.980671E-1	9.269048E-1	9.875753E-1	9.682456E-1	9.459882E-1	9.915334E-1	9.251804E-1	9.644772E-1	9.426558E-1	1.073754E+0	1.034546E+0	1.051636E+0
2.940070E+2	1.119652E+0	1.068847E+0	1.101851E+0	1.056739E+0	1.089208E+0	1.046410E+0	1.061289E+0	1.111559E+0	1.060235E+0	1.078182E+0	1.073713E+0	1.060955E+0	1.097330E+0	1.032858E+0	1.089189E+0	1.033394E+0	1.084071E+0	1.033538E+0	1.064871E+0	1.029600E+0	1.121081E+0	1.040540E+0	1.021071E+0	1.013365E+0	1.092944E+0	1.061503E+0	1.066949E+0	1.057680E+0	1.065441E+0	1.069095E+0	1.050553E+0	1.052040E+0	1.030859E+0	1.072228E+0	1.142503E+0	1.018982E+0	1.068089E+0	1.039261E+0	1.046110E+0	1.033788E+0	1.133166E+0	1.066365E+0	1.150837E+0	1.088233E+0	1.113971E+0	1.059855E+0	1.081424E+0	1.067912E+0	1.084631E+0	1.106261E+0	1.081623E+0	1.077574E+0	1.080125E+0	1.087740E+0	1.134937E+0	1.047937E+0	1.088252E+0	1.068634E+0	1.104883E+0	1.056047E+0	1.055854E+0	1.059008E+0	1.087776E+0	1.080891E+0	1.083305E+0	1.098785E+0	1.109735E+0	1.083938E+0	9.740761E-1	1.075188E+0	1.075638E+0	1.092854E+0	1.102017E+0	1.057705E+0	1.043632E+0	1.077811E+0	1.055708E+0	1.103910E+0	1.005771E+0	1.021025E+0	1.078884E+0	1.093047E+0	1.082939E+0	1.079343E+0	1.001933E+0	1.161445E+0	1.079287E+0	1.010305E+0	1.079958E+0	1.091982E+0	1.062637E+0	1.095181E+0	1.041849E+0	1.046277E+0	1.007767E+0	1.075537E+0	1.025924E+0	1.027621E+0	1.089507E+0	1.122178E+0	1.084487E+0	1.064724E+0	1.104396E+0	1.005422E+0	1.052091E+0	1.099001E+0	1.028062E+0	1.042451E+0	1.145693E+0	1.071161E+0	1.080971E+0	1.075939E+0	1.092565E+0	1.072086E+0	1.110498E+0	1.065202E+0	1.078787E+0	1.143429E+0	1.077825E+0	1.115689E+0	1.006376E+0	1.092445E+0	1.116186E+0	1.081053E+0	1.101825E+0	1.102611E+0	1.076413E+0	1.115995E+0	1.105880E+0	1.074273E+0	1.035233E+0	1.029800E+0	1.037080E+0	1.134011E+0	1.033660E+0	1.070049E+0	1.053139E+0	1.093641E+0	1.079775E+0	1.037188E+0	1.113024E+0	1.123591E+0	1.031292E+0	1.064669E+0	1.059644E+0	1.048789E+0	1.066979E+0	1.062486E+0	1.097941E+0	1.128551E+0	1.094574E+0	1.065208E+0	1.118139E+0	1.057467E+0	1.123350E+0	9.780295E-1	1.025274E+0	1.073658E+0	1.023310E+0	1.008143E+0	1.093643E+0	1.088966E+0	1.049157E+0	1.158682E+0	1.050638E+0	1.061250E+0	1.069056E+0	1.112326E+0	1.059942E+0	1.090564E+0
2.945030E+2	1.089682E+0	1.156022E+0	1.156987E+0	1.101851E+0	1.081483E+0	1.096263E+0	1.141990E+0	1.136022E+0	1.089047E+0	1.161170E+0	1.135990E+0	1.106645E+0	1.145984E+0	1.107248E+0	1.130956E+0	1.117169E+0	1.131120E+0	1.126544E+0	1.070260E+0	1.086576E+0	1.134637E+0	1.119537E+0	1.179644E+0	1.063250E+0	1.131500E+0	1.049988E+0	1.093545E+0	1.160293E+0	1.109579E+0	1.129763E+0	1.140741E+0	1.142905E+0	1.122930E+0	1.104886E+0	1.124052E+0	1.016637E+0	1.100674E+0	1.131195E+0	1.114793E+0	1.072425E+0	1.133527E+0	1.102974E+0	1.158642E+0	1.124770E+0	1.107890E+0	1.091174E+0	1.124774E+0	1.181470E+0	1.115185E+0	1.079095E+0	1.169841E+0	1.168209E+0	1.120324E+0	1.124307E+0	1.103134E+0	1.098240E+0	1.184190E+0	1.095733E+0	1.117552E+0	1.140278E+0	1.130296E+0	1.108404E+0	1.086262E+0	1.133656E+0	1.112248E+0	1.092883E+0	1.170539E+0	1.101359E+0	1.064895E+0	1.121050E+0	1.105421E+0	1.117224E+0	1.127753E+0	1.163980E+0	1.096436E+0	1.087647E+0	1.124477E+0	1.143795E+0	1.113454E+0	1.083113E+0	1.069637E+0	1.136519E+0	1.056169E+0	1.106590E+0	1.124168E+0	1.112838E+0	1.087505E+0	1.112491E+0	1.147219E+0	1.129264E+0	1.088471E+0	1.155285E+0	1.136593E+0	1.175092E+0	1.084922E+0	1.086497E+0	1.147587E+0	1.177339E+0	1.103192E+0	1.085736E+0	1.128063E+0	1.105010E+0	1.085603E+0	1.103559E+0	1.122451E+0	1.101702E+0	1.082888E+0	1.107716E+0	1.046905E+0	1.068055E+0	1.121845E+0	1.055663E+0	1.179826E+0	1.089695E+0	1.065710E+0	1.085562E+0	1.165536E+0	1.105782E+0	1.096363E+0	1.122036E+0	1.090696E+0	1.079780E+0	1.187526E+0	1.050426E+0	1.047447E+0	1.092035E+0	1.080467E+0	1.085100E+0	1.123966E+0	1.108678E+0	1.146820E+0	1.118568E+0	1.193734E+0	1.078838E+0	1.096224E+0	1.092796E+0	1.101810E+0	1.127026E+0	1.073625E+0	1.158792E+0	1.180276E+0	1.130297E+0	1.120081E+0	1.158208E+0	1.142498E+0	1.149387E+0	1.106739E+0	1.120382E+0	1.070678E+0	1.119768E+0	1.179305E+0	1.106316E+0	1.102614E+0	1.080908E+0	1.136597E+0	1.136842E+0	1.145957E+0	1.044080E+0	1.119305E+0	1.076995E+0	1.071347E+0	1.123324E+0	1.139293E+0	1.180464E+0	1.047844E+0	1.154580E+0	1.150577E+0	1.240352E+0	1.152238E+0	1.089691E+0
2.950070E+2	1.036330E+0	1.097147E+0	1.035705E+0	9.815700E-1	1.006218E+0	1.073246E+0	1.085492E+0	1.092828E+0	1.013004E+0	1.012156E+0	1.060061E+0	9.955413E-1	1.035956E+0	9.950493E-1	1.020388E+0	1.047861E+0	1.032242E+0	1.060575E+0	1.039660E+0	1.080817E+0	1.049432E+0	1.036092E+0	1.011368E+0	1.117420E+0	1.060904E+0	1.064136E+0	1.028424E+0	1.062879E+0	1.044281E+0	1.059963E+0	1.071085E+0	1.034102E+0	1.002051E+0	1.008752E+0	1.072694E+0	1.033585E+0	1.038551E+0	9.692709E-1	1.076241E+0	1.018110E+0	1.043876E+0	1.022904E+0	1.039315E+0	1.025779E+0	1.082994E+0	1.054860E+0	1.066874E+0	1.081240E+0	1.052410E+0	1.096639E+0	1.040317E+0	1.013075E+0	9.606615E-1	1.026734E+0	1.049678E+0	1.059434E+0	1.006212E+0	1.018419E+0	1.046259E+0	1.076838E+0	1.043011E+0	9.906022E-1	1.038687E+0	1.105002E+0	1.097841E+0	1.022970E+0	9.966674E-1	1.055571E+0	1.043608E+0	9.938918E-1	1.048298E+0	1.041858E+0	1.095671E+0	9.754073E-1	9.978221E-1	1.066505E+0	1.028641E+0	9.898611E-1	9.992270E-1	1.072954E+0	9.888004E-1	1.096835E+0	9.716439E-1	1.045076E+0	1.040791E+0	1.024459E+0	1.044906E+0	1.091447E+0	1.059907E+0	1.027636E+0	9.954309E-1	1.062954E+0	9.997963E-1	1.092885E+0	9.743209E-1	1.028831E+0	1.007809E+0	1.023859E+0	1.095021E+0	9.990279E-1	1.029573E+0	1.057834E+0	1.063448E+0	1.071828E+0	1.030024E+0	1.100921E+0	1.053704E+0	1.052141E+0	1.074482E+0	1.042958E+0	1.059573E+0	1.022387E+0	1.150563E+0	1.081747E+0	1.069110E+0	1.061353E+0	1.058358E+0	1.055948E+0	1.069445E+0	1.048655E+0	1.029651E+0	1.033201E+0	1.068691E+0	1.042898E+0	9.999893E-1	1.070124E+0	1.007996E+0	1.006308E+0	1.075010E+0	1.048960E+0	1.028033E+0	1.027529E+0	1.050471E+0	1.113513E+0	1.022991E+0	1.012911E+0	1.115194E+0	1.063582E+0	1.054919E+0	9.900958E-1	1.008355E+0	1.052977E+0	1.129046E+0	1.004597E+0	9.824445E-1	1.071748E+0	1.034974E+0	9.755122E-1	1.016955E+0	1.086408E+0	1.035596E+0	1.066091E+0	1.014465E+0	1.023306E+0	1.063627E+0	1.008205E+0	1.074875E+0	1.019813E+0	9.567084E-1	1.005363E+0	1.059028E+0	1.050837E+0	1.094904E+0	1.054840E+0	1.046966E+0	1.052921E+0	1.085917E+0	1.097084E+0	1.059886E+0	1.099730E+0
2.955070E+2	9.959011E-1	1.026959E+0	1.075879E+0	1.004093E+0	1.004465E+0	1.061712E+0	1.003241E+0	1.079157E+0	1.043497E+0	9.771517E-1	1.089809E+0	1.066178E+0	1.054936E+0	1.035026E+0	1.070152E+0	1.020895E+0	1.040281E+0	1.019086E+0	1.020289E+0	1.095620E+0	1.065470E+0	1.090212E+0	9.973656E-1	1.067300E+0	1.093804E+0	9.911492E-1	1.066581E+0	1.065630E+0	1.030083E+0	1.008338E+0	1.058157E+0	1.104918E+0	1.048771E+0	1.048160E+0	1.097720E+0	9.962094E-1	1.056059E+0	1.061233E+0	1.065922E+0	1.022119E+0	1.014563E+0	1.003029E+0	1.072243E+0	1.035389E+0	9.575562E-1	1.020149E+0	1.113079E+0	1.036756E+0	1.041588E+0	1.074484E+0	1.113936E+0	1.016899E+0	1.009906E+0	1.064955E+0	1.073383E+0	1.076816E+0	1.088827E+0	1.038714E+0	1.025693E+0	1.068436E+0	1.017375E+0	1.062306E+0	1.021129E+0	1.055930E+0	1.062252E+0	1.039966E+0	1.043192E+0	1.047793E+0	1.029998E+0	1.056053E+0	1.039668E+0	1.095528E+0	1.111855E+0	1.059002E+0	9.956522E-1	1.094657E+0	1.052194E+0	1.048511E+0	1.050206E+0	1.083902E+0	1.057160E+0	1.001286E+0	1.042902E+0	1.109268E+0	1.078871E+0	1.071605E+0	1.015069E+0	1.010079E+0	9.983334E-1	1.042946E+0	1.016834E+0	1.049305E+0	1.061608E+0	1.115190E+0	1.024698E+0	1.040952E+0	1.067219E+0	1.058121E+0	1.050990E+0	1.060130E+0	1.136706E+0	1.037613E+0	1.081514E+0	1.074289E+0	9.896778E-1	1.008847E+0	1.034174E+0	1.024977E+0	1.079567E+0	1.009009E+0	1.015287E+0	1.039293E+0	1.024724E+0	1.079653E+0	9.991159E-1	1.020392E+0	1.060400E+0	1.037183E+0	1.024622E+0	1.018375E+0	1.035840E+0	1.044961E+0	1.084891E+0	1.074674E+0	1.109140E+0	1.025411E+0	9.607964E-1	1.020044E+0	1.047837E+0	1.010924E+0	1.089675E+0	1.118278E+0	1.076304E+0	1.029343E+0	1.083099E+0	1.020326E+0	1.020881E+0	1.117300E+0	1.039774E+0	1.091799E+0	1.011611E+0	9.890282E-1	1.039587E+0	1.029840E+0	1.008479E+0	1.057338E+0	9.817711E-1	1.079948E+0	1.047136E+0	1.014132E+0	1.069150E+0	1.005719E+0	1.083890E+0	1.037907E+0	9.854283E-1	9.875787E-1	1.035626E+0	1.021655E+0	1.010869E+0	1.021818E+0	1.021560E+0	1.128411E+0	1.044838E+0	9.892007E-1	1.063816E+0	1.071981E+0	1.032407E+0	1.017976E+0	1.154069E+0	9.982064E-1
2.960050E+2	1.119081E+0	1.191370E+0	1.156897E+0	1.169523E+0	1.199137E+0	1.245616E+0	1.163893E+0	1.228297E+0	1.215538E+0	1.172049E+0	1.182141E+0	1.228581E+0	1.174835E+0	1.159826E+0	1.206237E+0	1.212112E+0	1.197405E+0	1.227745E+0	1.221019E+0	1.142358E+0	1.142014E+0	1.170942E+0	1.112118E+0	1.133595E+0	1.191721E+0	1.147643E+0	1.156112E+0	1.200896E+0	1.174677E+0	1.204507E+0	1.192429E+0	1.170876E+0	1.158624E+0	1.186117E+0	1.248394E+0	1.151700E+0	1.197114E+0	1.180195E+0	1.197416E+0	1.163412E+0	1.136216E+0	1.248267E+0	1.271687E+0	1.238443E+0	1.172237E+0	1.189489E+0	1.191531E+0	1.200999E+0	1.188080E+0	1.164530E+0	1.268305E+0	1.211821E+0	1.211806E+0	1.181822E+0	1.216158E+0	1.255392E+0	1.257694E+0	1.171085E+0	1.199122E+0	1.243970E+0	1.177155E+0	1.193884E+0	1.194002E+0	1.184362E+0	1.176672E+0	1.212514E+0	1.212483E+0	1.195031E+0	1.163759E+0	1.221229E+0	1.233676E+0	1.225895E+0	1.227629E+0	1.167038E+0	1.223112E+0	1.174730E+0	1.159078E+0	1.185374E+0	1.226764E+0	1.216605E+0	1.203898E+0	1.215586E+0	1.181645E+0	1.242144E+0	1.165101E+0	1.184654E+0	1.202296E+0	1.143084E+0	1.232416E+0	1.194996E+0	1.139835E+0	1.210753E+0	1.179500E+0	1.213119E+0	1.148243E+0	1.169179E+0	1.157866E+0	1.174266E+0	1.162285E+0	1.245604E+0	1.255230E+0	1.196700E+0	1.241207E+0	1.185688E+0	1.182799E+0	1.175795E+0	1.204075E+0	1.259582E+0	1.230402E+0	1.162888E+0	1.213383E+0	1.195727E+0	1.250422E+0	1.235783E+0	1.220264E+0	1.113452E+0	1.193047E+0	1.235732E+0	1.262464E+0	1.189161E+0	1.181886E+0	1.265361E+0	1.188496E+0	1.257561E+0	1.142048E+0	1.196258E+0	1.149854E+0	1.178290E+0	1.226013E+0	1.174908E+0	1.216895E+0	1.163152E+0	1.235840E+0	1.214043E+0	1.255676E+0	1.207662E+0	1.136331E+0	1.250383E+0	1.188718E+0	1.179803E+0	1.195769E+0	1.240542E+0	1.186455E+0	1.215342E+0	1.174315E+0	1.214682E+0	1.139303E+0	1.128205E+0	1.198785E+0	1.183491E+0	1.184834E+0	1.221624E+0	1.115755E+0	1.174420E+0	1.218173E+0	1.208046E+0	1.136819E+0	1.230441E+0	1.191161E+0	1.203371E+0	1.111942E+0	1.185773E+0	1.198762E+0	1.203410E+0	1.186291E+0	1.214652E+0	1.185484E+0	1.183793E+0	1.227870E+0	1.157551E+0
2.965010E+2	1.119798E+0	1.070375E+0	1.120146E+0	1.043081E+0	1.099663E+0	1.116112E+0	1.029888E+0	1.146323E+0	1.151738E+0	1.117638E+0	1.123102E+0	1.078442E+0	1.105148E+0	1.103188E+0	1.113246E+0	1.062940E+0	1.075603E+0	1.104520E+0	1.113118E+0	1.131842E+0	1.137690E+0	1.070423E+0	1.127520E+0	1.093137E+0	1.140170E+0	1.054112E+0	1.042889E+0	1.111953E+0	1.097841E+0	1.082196E+0	1.099595E+0	1.138324E+0	1.096772E+0	1.131296E+0	1.159981E+0	1.074982E+0	1.095997E+0	1.113089E+0	1.072274E+0	1.101099E+0	1.088511E+0	1.115184E+0	1.105270E+0	1.119294E+0	1.110785E+0	1.104680E+0	1.145622E+0	1.169649E+0	1.090866E+0	1.130742E+0	1.104412E+0	1.100299E+0	1.101805E+0	1.133379E+0	1.108182E+0	1.102765E+0	1.161481E+0	1.089118E+0	1.107718E+0	1.093334E+0	1.105901E+0	1.067061E+0	1.057996E+0	1.140955E+0	1.152111E+0	1.130693E+0	1.095488E+0	1.135506E+0	1.107587E+0	1.171557E+0	1.119702E+0	1.138976E+0	1.087549E+0	1.039021E+0	1.103367E+0	1.123200E+0	1.080485E+0	1.101947E+0	1.101751E+0	1.132422E+0	1.100385E+0	1.123989E+0	1.085993E+0	1.093263E+0	1.111357E+0	1.121576E+0	1.105008E+0	1.045040E+0	1.063382E+0	1.093556E+0	1.109301E+0	1.167639E+0	1.068508E+0	1.157931E+0	1.103800E+0	1.077643E+0	1.111886E+0	1.062519E+0	1.087104E+0	1.089756E+0	1.096250E+0	1.107291E+0	1.118407E+0	1.064010E+0	1.116220E+0	1.053869E+0	1.056698E+0	1.157081E+0	1.125669E+0	1.085642E+0	1.112025E+0	1.093068E+0	1.100741E+0	1.123797E+0	1.047876E+0	1.080628E+0	1.110081E+0	1.111312E+0	1.167851E+0	1.122287E+0	1.143454E+0	1.130403E+0	1.082227E+0	1.104991E+0	1.164268E+0	1.092525E+0	1.105989E+0	1.066852E+0	1.053025E+0	1.068061E+0	1.122908E+0	1.135949E+0	1.110939E+0	1.092348E+0	1.102699E+0	1.069382E+0	1.044705E+0	1.050063E+0	1.125401E+0	1.101592E+0	1.137663E+0	1.093605E+0	1.132384E+0	1.100425E+0	1.099966E+0	1.117009E+0	1.105172E+0	1.074386E+0	1.100814E+0	1.108812E+0	1.107618E+0	1.163342E+0	1.120182E+0	1.073291E+0	1.125596E+0	1.139334E+0	1.095263E+0	1.111280E+0	1.105123E+0	1.098887E+0	1.075943E+0	1.109986E+0	1.191286E+0	1.105014E+0	1.027179E+0	1.073749E+0	1.139235E+0	1.156760E+0	1.097369E+0	1.009752E+0
2.970040E+2	9.511847E-1	8.977171E-1	9.562326E-1	9.761217E-1	9.177880E-1	9.078977E-1	8.960354E-1	9.025728E-1	9.461838E-1	9.123800E-1	9.559201E-1	9.049281E-1	9.715243E-1	8.990221E-1	9.407596E-1	9.530358E-1	8.884702E-1	9.271887E-1	9.589358E-1	9.240821E-1	9.636159E-1	8.992250E-1	9.029899E-1	8.864159E-1	8.900985E-1	9.411553E-1	8.724872E-1	9.646541E-1	9.605486E-1	9.279136E-1	9.507756E-1	9.819066E-1	9.121392E-1	9.451882E-1	9.450873E-1	9.249599E-1	9.409791E-1	9.010025E-1	9.088083E-1	9.511197E-1	8.926088E-1	8.968276E-1	9.790298E-1	9.090298E-1	9.222533E-1	9.520365E-1	9.042925E-1	9.118752E-1	8.967978E-1	9.708983E-1	9.286312E-1	9.170710E-1	9.140999E-1	9.146242E-1	9.227449E-1	9.389662E-1	9.637182E-1	8.958379E-1	9.305252E-1	9.198141E-1	9.934120E-1	9.240039E-1	8.855705E-1	9.678839E-1	9.244221E-1	9.643861E-1	9.814597E-1	9.441139E-1	9.297045E-1	9.120483E-1	9.397926E-1	8.940709E-1	9.446711E-1	8.960627E-1	9.224952E-1	9.574992E-1	9.448001E-1	9.737636E-1	9.599947E-1	9.309642E-1	9.105271E-1	9.104241E-1	9.161136E-1	9.789699E-1	9.138417E-1	9.384286E-1	9.372279E-1	9.363665E-1	9.638497E-1	8.919201E-1	8.709291E-1	9.431612E-1	9.121061E-1	9.760185E-1	8.593596E-1	9.151325E-1	9.680817E-1	9.318372E-1	9.147997E-1	9.144619E-1	9.965116E-1	9.414683E-1	9.516569E-1	9.191660E-1	8.858862E-1	9.531914E-1	8.798522E-1	9.720163E-1	9.036988E-1	9.223138E-1	9.573281E-1	9.111890E-1	9.455734E-1	9.258816E-1	9.141778E-1	8.973010E-1	9.290769E-1	9.794285E-1	9.115406E-1	9.542246E-1	9.162904E-1	9.805289E-1	9.593945E-1	9.416108E-1	9.357361E-1	8.950450E-1	9.083922E-1	9.345774E-1	9.546328E-1	9.337871E-1	9.533969E-1	8.828160E-1	9.066021E-1	9.870320E-1	1.002604E+0	9.801747E-1	9.459675E-1	8.782591E-1	9.130705E-1	9.199312E-1	9.343204E-1	9.215518E-1	9.220118E-1	9.722185E-1	9.717694E-1	9.721318E-1	9.221454E-1	8.960147E-1	9.385347E-1	9.056983E-1	9.443812E-1	9.470480E-1	9.074349E-1	9.583096E-1	9.710802E-1	8.637665E-1	9.329730E-1	9.310460E-1	9.250647E-1	9.267299E-1	9.006575E-1	9.948444E-1	9.594658E-1	9.308912E-1	9.195600E-1	9.471548E-1	8.993121E-1	9.133347E-1	9.619209E-1	8.591632E-1
2.975040E+2	8.177802E-1	7.864307E-1	8.652999E-1	8.319253E-1	8.255123E-1	7.720448E-1	7.821380E-1	7.945257E-1	8.022405E-1	8.592266E-1	8.224092E-1	7.820856E-1	8.237668E-1	7.978361E-1	8.048951E-1	8.133721E-1	7.389568E-1	7.980389E-1	7.866423E-1	8.012423E-1	7.658645E-1	8.398034E-1	7.853071E-1	8.117234E-1	8.005628E-1	8.335072E-1	8.385380E-1	8.193704E-1	8.386793E-1	8.168789E-1	7.980734E-1	7.728872E-1	8.123323E-1	7.731314E-1	7.781430E-1	8.367857E-1	8.127647E-1	7.720888E-1	7.986737E-1	7.712369E-1	8.208533E-1	7.799825E-1	7.964399E-1	8.295400E-1	8.442260E-1	7.933108E-1	7.981912E-1	8.282631E-1	8.192589E-1	8.211453E-1	7.931230E-1	7.812887E-1	8.203302E-1	7.754727E-1	8.337851E-1	8.015266E-1	8.014227E-1	7.881416E-1	8.025161E-1	8.098800E-1	8.291932E-1	7.940962E-1	8.226895E-1	8.399998E-1	8.142557E-1	8.117778E-1	8.157191E-1	7.820155E-1	8.494340E-1	8.190570E-1	8.258584E-1	8.192214E-1	8.330615E-1	7.939683E-1	8.213990E-1	7.736605E-1	8.507651E-1	7.996479E-1	7.976747E-1	8.209774E-1	7.934834E-1	8.385313E-1	8.076580E-1	8.211957E-1	8.027108E-1	7.865447E-1	8.175562E-1	7.869184E-1	8.531990E-1	8.199125E-1	8.769752E-1	7.891706E-1	7.622402E-1	8.134004E-1	8.019822E-1	7.732555E-1	7.800692E-1	8.449649E-1	8.044786E-1	7.215415E-1	8.089405E-1	8.174373E-1	8.136346E-1	8.266658E-1	8.154086E-1	8.309936E-1	8.416315E-1	8.097882E-1	8.068454E-1	8.456134E-1	8.110296E-1	8.237731E-1	7.822776E-1	8.397745E-1	7.955728E-1	8.139686E-1	7.821994E-1	8.474634E-1	7.871604E-1	8.180168E-1	8.096465E-1	7.992816E-1	8.183935E-1	7.762052E-1	8.315531E-1	7.825224E-1	8.132552E-1	8.374079E-1	8.296078E-1	8.309899E-1	8.047808E-1	7.805067E-1	8.049222E-1	8.416575E-1	8.186937E-1	7.809027E-1	8.411160E-1	8.064427E-1	8.699735E-1	8.516672E-1	8.139252E-1	7.738303E-1	8.061898E-1	8.163558E-1	8.489918E-1	7.862989E-1	7.957635E-1	7.975736E-1	8.434211E-1	8.064895E-1	8.431543E-1	7.553107E-1	7.882547E-1	8.194763E-1	8.109515E-1	8.344192E-1	7.970007E-1	7.929536E-1	8.215339E-1	8.236939E-1	8.556098E-1	7.768487E-1	8.375690E-1	7.647245E-1	8.321980E-1	7.432389E-1	8.225091E-1	8.173526E-1	7.791976E-1	7.776030E-1
2.980020E+2	9.263963E-1	9.362810E-1	9.087657E-1	9.491332E-1	9.112997E-1	9.179802E-1	9.373904E-1	9.717296E-1	9.630106E-1	9.336020E-1	9.496872E-1	9.447101E-1	9.777104E-1	8.974903E-1	9.243292E-1	9.087972E-1	9.563541E-1	9.382196E-1	9.292916E-1	9.458531E-1	9.499747E-1	9.665416E-1	9.919168E-1	9.328607E-1	9.777867E-1	9.489778E-1	9.396025E-1	9.000522E-1	9.437867E-1	9.199911E-1	9.641658E-1	9.726498E-1	9.319318E-1	9.685441E-1	9.403412E-1	9.037017E-1	9.185441E-1	9.389323E-1	9.379765E-1	9.434749E-1	9.260996E-1	9.472894E-1	9.303846E-1	9.494119E-1	9.188263E-1	9.536926E-1	9.335738E-1	9.246902E-1	9.436418E-1	9.384175E-1	9.255302E-1	9.455252E-1	9.732470E-1	9.418012E-1	8.980130E-1	9.510529E-1	9.575610E-1	9.771171E-1	9.610643E-1	9.124365E-1	9.641129E-1	9.144285E-1	9.309738E-1	9.388464E-1	9.689148E-1	9.510563E-1	9.489930E-1	9.202121E-1	9.412335E-1	9.200627E-1	9.220445E-1	8.888453E-1	9.205207E-1	9.475306E-1	9.158134E-1	9.617221E-1	9.023492E-1	9.364726E-1	9.016412E-1	9.352265E-1	9.718619E-1	8.962231E-1	9.557932E-1	9.355611E-1	9.171702E-1	9.473056E-1	9.275717E-1	9.432246E-1	8.816693E-1	8.883339E-1	9.569664E-1	9.774475E-1	9.377391E-1	9.636605E-1	9.729929E-1	9.231024E-1	9.355538E-1	9.629097E-1	9.000853E-1	8.737623E-1	9.600162E-1	9.350166E-1	9.225177E-1	9.579220E-1	9.625748E-1	9.460052E-1	9.184637E-1	9.407365E-1	9.224391E-1	9.751808E-1	9.269099E-1	9.054657E-1	9.174021E-1	9.157006E-1	9.662460E-1	9.892482E-1	9.416807E-1	9.388035E-1	9.878548E-1	9.543124E-1	9.345747E-1	9.209096E-1	9.688848E-1	9.328524E-1	9.481106E-1	9.500752E-1	9.000085E-1	8.787297E-1	9.664865E-1	9.211293E-1	8.935240E-1	9.812259E-1	9.421585E-1	8.991784E-1	9.534467E-1	9.671164E-1	9.175626E-1	9.294252E-1	9.053439E-1	9.039948E-1	9.742026E-1	9.500212E-1	9.437372E-1	9.314452E-1	9.645693E-1	9.689432E-1	9.300789E-1	9.513405E-1	9.287438E-1	9.441809E-1	9.807925E-1	9.347941E-1	9.208326E-1	9.617578E-1	9.267812E-1	9.294549E-1	9.200617E-1	9.376976E-1	9.345829E-1	8.809156E-1	9.104472E-1	9.968201E-1	8.848325E-1	9.413484E-1	9.737190E-1	9.390271E-1	9.356664E-1	9.999854E-1	9.162659E-1	9.663176E-1
2.985020E+2	1.056174E+0	1.046196E+0	1.128896E+0	1.073061E+0	1.090958E+0	1.091797E+0	1.077880E+0	1.103273E+0	1.078520E+0	1.080992E+0	1.050315E+0	1.092444E+0	1.085323E+0	1.096069E+0	1.090113E+0	1.070617E+0	1.093220E+0	1.103597E+0	1.039364E+0	1.102532E+0	1.099597E+0	1.121831E+0	1.101931E+0	1.076893E+0	1.074711E+0	1.138981E+0	1.093566E+0	1.056478E+0	1.069007E+0	1.047247E+0	1.081352E+0	1.073309E+0	1.093851E+0	1.101511E+0	1.076368E+0	1.128094E+0	1.084533E+0	1.124405E+0	1.094155E+0	1.062796E+0	1.078990E+0	1.075407E+0	1.080806E+0	1.105843E+0	1.074325E+0	1.124703E+0	1.096150E+0	1.117314E+0	1.113218E+0	1.129408E+0	1.108535E+0	1.138651E+0	1.087379E+0	1.097332E+0	1.109360E+0	1.039245E+0	1.089069E+0	1.074488E+0	1.065406E+0	1.099905E+0	1.087358E+0	1.099251E+0	1.072339E+0	1.090291E+0	1.071275E+0	1.068311E+0	1.125310E+0	1.066954E+0	1.076832E+0	1.070571E+0	1.083773E+0	1.100502E+0	1.101334E+0	1.075149E+0	1.081218E+0	1.100057E+0	1.076010E+0	1.119716E+0	1.114617E+0	1.109863E+0	1.049783E+0	1.073741E+0	1.103309E+0	1.063472E+0	1.081597E+0	1.062043E+0	1.103749E+0	1.123181E+0	1.097582E+0	1.099492E+0	1.043455E+0	1.086204E+0	1.063626E+0	1.086870E+0	1.066565E+0	1.117825E+0	1.128454E+0	1.071529E+0	1.117773E+0	1.158498E+0	1.053617E+0	1.070646E+0	1.053868E+0	1.030594E+0	1.069968E+0	1.092514E+0	1.086039E+0	1.085985E+0	1.045578E+0	1.081875E+0	1.084030E+0	1.063814E+0	1.069433E+0	1.105902E+0	1.070433E+0	1.014640E+0	1.132551E+0	1.089453E+0	1.092310E+0	1.065906E+0	1.020341E+0	1.093482E+0	1.063483E+0	1.090484E+0	1.022932E+0	1.049099E+0	1.088521E+0	1.081724E+0	1.081967E+0	1.097618E+0	1.108879E+0	1.078068E+0	1.084485E+0	1.063068E+0	1.142219E+0	1.073397E+0	1.063366E+0	1.059210E+0	1.023086E+0	1.108879E+0	1.025009E+0	1.093034E+0	1.054718E+0	1.103356E+0	1.094627E+0	1.068797E+0	1.059481E+0	1.087624E+0	1.093535E+0	1.117611E+0	1.089229E+0	1.057548E+0	1.040571E+0	1.089874E+0	1.067660E+0	1.045137E+0	1.105786E+0	1.064500E+0	1.095520E+0	1.108704E+0	1.084550E+0	1.097545E+0	1.085121E+0	1.125322E+0	1.038133E+0	1.092800E+0	1.037525E+0	1.039307E+0	1.116239E+0	1.070264E+0
2.990040E+2	1.154665E+0	1.152873E+0	1.096392E+0	1.154011E+0	1.122418E+0	1.165341E+0	1.194785E+0	1.112023E+0	1.146688E+0	1.115302E+0	1.140971E+0	1.164813E+0	1.132746E+0	1.169834E+0	1.153318E+0	1.166366E+0	1.129017E+0	1.209085E+0	1.180259E+0	1.112635E+0	1.121992E+0	1.119983E+0	1.135058E+0	1.126360E+0	1.113154E+0	1.079979E+0	1.116140E+0	1.186979E+0	1.131026E+0	1.160740E+0	1.126090E+0	1.130873E+0	1.138258E+0	1.148062E+0	1.133350E+0	1.134475E+0	1.149763E+0	1.151559E+0	1.164510E+0	1.169912E+0	1.122709E+0	1.149622E+0	1.120232E+0	1.136086E+0	1.149077E+0	1.127683E+0	1.150963E+0	1.149234E+0	1.144260E+0	1.179948E+0	1.177598E+0	1.140315E+0	1.132749E+0	1.147892E+0	1.108915E+0	1.193336E+0	1.109883E+0	1.123682E+0	1.161164E+0	1.134579E+0	1.111278E+0	1.168877E+0	1.169365E+0	1.119632E+0	1.135146E+0	1.158020E+0	1.117489E+0	1.155922E+0	1.126252E+0	1.138026E+0	1.152709E+0	1.112421E+0	1.156233E+0	1.161919E+0	1.158825E+0	1.138827E+0	1.111402E+0	1.155123E+0	1.164412E+0	1.140450E+0	1.115926E+0	1.175819E+0	1.095749E+0	1.099546E+0	1.173823E+0	1.140863E+0	1.151534E+0	1.103106E+0	1.142774E+0	1.161434E+0	1.136307E+0	1.161545E+0	1.177622E+0	1.119982E+0	1.169036E+0	1.133215E+0	1.142390E+0	1.117741E+0	1.169482E+0	1.157802E+0	1.121542E+0	1.167073E+0	1.136897E+0	1.137828E+0	1.138658E+0	1.157570E+0	1.140902E+0	1.127215E+0	1.166507E+0	1.096485E+0	1.145144E+0	1.163976E+0	1.149394E+0	1.078741E+0	1.189901E+0	1.139280E+0	1.137945E+0	1.159733E+0	1.138523E+0	1.124041E+0	1.144526E+0	1.167214E+0	1.109397E+0	1.148335E+0	1.116693E+0	1.160805E+0	1.144688E+0	1.164016E+0	1.175177E+0	1.126729E+0	1.176670E+0	1.188267E+0	1.132103E+0	1.116638E+0	1.134227E+0	1.152753E+0	1.148691E+0	1.135253E+0	1.147216E+0	1.119776E+0	1.121247E+0	1.128516E+0	1.152184E+0	1.099401E+0	1.097640E+0	1.170045E+0	1.161854E+0	1.136005E+0	1.099938E+0	1.103755E+0	1.106466E+0	1.191760E+0	1.141969E+0	1.152888E+0	1.099985E+0	1.123366E+0	1.134486E+0	1.158937E+0	1.083934E+0	1.137202E+0	1.114266E+0	1.150243E+0	1.133343E+0	1.115013E+0	1.208874E+0	1.139329E+0	1.160216E+0	1.100426E+0	1.093246E+0	1.172185E+0
2.995060E+2	1.039732E+0	1.029980E+0	1.021657E+0	9.872701E-1	1.022759E+0	1.005267E+0	1.015697E+0	1.014250E+0	9.741501E-1	1.036553E+0	1.016090E+0	1.026926E+0	9.936988E-1	1.028441E+0	1.019128E+0	1.045840E+0	1.061228E+0	9.732096E-1	1.054821E+0	1.031251E+0	1.048999E+0	9.862708E-1	1.016126E+0	1.080281E+0	1.057623E+0	9.850084E-1	1.040958E+0	1.039578E+0	1.032174E+0	1.029235E+0	1.033741E+0	1.050283E+0	1.000885E+0	9.791032E-1	1.070211E+0	1.017162E+0	1.035209E+0	1.010828E+0	1.010814E+0	1.047329E+0	1.067631E+0	1.083090E+0	1.033558E+0	1.036196E+0	1.021200E+0	1.037388E+0	9.935446E-1	1.000435E+0	1.008741E+0	9.494326E-1	1.008689E+0	1.003400E+0	9.973821E-1	1.009598E+0	1.050911E+0	1.006964E+0	1.003808E+0	1.042924E+0	1.038185E+0	1.022763E+0	1.037728E+0	1.009944E+0	1.030044E+0	1.011483E+0	1.030308E+0	1.002461E+0	9.982670E-1	1.061041E+0	1.000279E+0	1.046267E+0	1.015236E+0	1.058054E+0	1.000963E+0	9.882818E-1	1.064544E+0	9.994178E-1	1.022356E+0	1.003893E+0	1.024880E+0	9.980314E-1	1.059503E+0	1.026614E+0	1.024764E+0	1.059406E+0	1.026885E+0	1.047999E+0	1.027345E+0	1.065792E+0	9.947640E-1	9.980728E-1	1.032681E+0	1.035025E+0	1.012025E+0	1.044063E+0	9.996696E-1	1.003679E+0	1.002048E+0	1.032565E+0	9.993067E-1	1.050000E+0	1.050462E+0	1.010466E+0	1.032846E+0	1.007650E+0	1.003232E+0	9.998195E-1	1.034982E+0	9.986215E-1	1.040670E+0	1.027668E+0	1.044615E+0	1.029003E+0	1.059177E+0	1.064565E+0	9.941050E-1	1.010372E+0	9.911009E-1	9.704391E-1	1.011774E+0	1.053943E+0	1.073751E+0	1.025703E+0	1.040561E+0	1.045104E+0	1.093156E+0	1.026064E+0	1.020434E+0	1.028246E+0	9.546921E-1	1.007501E+0	9.808012E-1	1.032983E+0	1.043938E+0	1.073893E+0	1.003762E+0	1.014098E+0	1.019591E+0	1.050380E+0	1.031775E+0	1.020925E+0	1.044100E+0	1.039023E+0	1.001273E+0	1.042896E+0	9.976424E-1	9.948363E-1	1.045913E+0	1.004030E+0	1.026129E+0	1.030936E+0	9.977333E-1	1.003109E+0	1.090032E+0	9.814416E-1	1.063267E+0	1.015629E+0	1.009640E+0	1.022824E+0	1.051915E+0	1.093587E+0	1.028759E+0	9.726321E-1	1.045925E+0	1.022308E+0	9.825643E-1	1.077995E+0	1.049043E+0	1.018958E+0	1.054823E+0	1.037841E+0
3.000060E+2	1.005252E+0	1.048240E+0	9.789894E-1	1.004599E+0	1.027053E+0	1.047570E+0	9.921098E-1	1.004198E+0	1.035391E+0	9.743247E-1	1.020528E+0	9.890210E-1	9.867557E-1	1.010329E+0	1.008217E+0	9.950081E-1	1.021224E+0	9.778491E-1	1.009622E+0	1.006487E+0	1.013573E+0	9.655703E-1	9.696616E-1	9.718808E-1	9.761625E-1	1.013547E+0	9.711951E-1	9.975425E-1	9.853266E-1	1.025909E+0	9.965776E-1	9.999985E-1	1.022742E+0	1.029649E+0	1.001587E+0	9.797820E-1	9.991865E-1	1.002187E+0	9.938703E-1	1.005251E+0	9.837173E-1	9.646094E-1	1.038580E+0	9.429226E-1	9.923457E-1	9.632221E-1	1.027578E+0	9.800635E-1	9.708800E-1	9.816483E-1	9.865249E-1	9.908200E-1	9.889119E-1	1.027903E+0	9.990148E-1	1.007875E+0	1.038256E+0	9.936471E-1	9.716641E-1	1.020436E+0	9.703298E-1	1.013403E+0	9.745887E-1	9.997478E-1	9.801007E-1	1.008374E+0	9.942221E-1	1.013855E+0	1.005969E+0	1.006017E+0	1.000378E+0	1.020956E+0	9.878872E-1	1.033151E+0	9.582011E-1	1.026316E+0	1.037117E+0	9.851484E-1	9.967743E-1	9.954515E-1	1.009443E+0	9.890724E-1	1.012727E+0	1.020819E+0	9.978150E-1	1.015245E+0	9.722437E-1	9.777776E-1	1.030012E+0	1.032754E+0	9.536158E-1	9.506075E-1	1.046748E+0	9.720239E-1	9.897546E-1	1.048923E+0	1.011486E+0	9.702908E-1	1.008874E+0	1.038396E+0	1.005422E+0	9.993610E-1	1.040237E+0	1.039339E+0	1.010158E+0	9.730977E-1	9.779813E-1	1.037654E+0	1.017960E+0	9.731775E-1	9.882718E-1	1.013969E+0	1.022316E+0	9.953165E-1	9.837428E-1	1.032491E+0	1.014522E+0	9.941080E-1	9.823782E-1	9.837811E-1	1.017161E+0	9.934104E-1	9.992806E-1	1.007019E+0	9.875550E-1	1.031434E+0	1.033094E+0	1.009877E+0	9.920693E-1	1.016033E+0	1.035346E+0	9.389500E-1	9.923931E-1	1.005565E+0	9.476520E-1	1.011733E+0	1.009674E+0	1.019290E+0	1.022606E+0	9.947577E-1	1.021516E+0	1.015576E+0	1.041898E+0	1.006546E+0	9.965298E-1	1.011080E+0	1.006909E+0	1.023427E+0	1.008234E+0	9.970281E-1	9.826256E-1	1.057478E+0	1.018340E+0	9.945619E-1	1.031355E+0	1.051995E+0	1.033026E+0	1.023088E+0	1.012514E+0	9.558977E-1	1.006368E+0	1.005912E+0	1.013209E+0	1.031284E+0	9.645117E-1	1.007610E+0	9.950411E-1	1.023971E+0	1.040229E+0	9.757889E-1
