Photon Energy (eV)	#1	#2	#3	#4	#5	#6	#7	#8	#9	#10	#11	#12	#13	#14	#15	#16	#17	#18	#19	#20	#21	#22	#23	#24	#25	#26	#27	#28	#29	#30	#31	#32	#33	#34	#35	#36	#37	#38	#39	#40	#41	#42	#43	#44	#45	#46	#47	#48	#49	#50	#51	#52	#53	#54	#55	#56	#57	#58	#59	#60	#61	#62	#63	#64	#65	#66	#67	#68	#69	#70	#71	#72	#73	#74	#75	#76	#77	#78	#79	#80	#81	#82	#83	#84	#85	#86	#87	#88	#89	#90	#91	#92	#93	#94	#95	#96	#97	#98	#99	#100	#101	#102	#103	#104	#105	#106	#107	#108	#109	#110	#111	#112	#113	#114	#115	#116	#117	#118	#119	#120	#121	#122	#123	#124	#125	#126	#127	#128	#129	#130	#131	#132	#133	#134	#135	#136	#137	#138	#139	#140	#141	#142	#143	#144	#145	#146	#147	#148	#149	#150	#151	#152	#153	#154	#155	#156	#157	#158	#159	#160	#161	#162	#163	#164	#165	#166	#167	#168	#169	#170	#171	#172	
2.790030E+2	5.726202E-3	2.603226E-3	-1.712584E-2	-8.641921E-3	-4.919639E-3	-4.108463E-3	-6.323354E-3	-1.044526E-4	9.218826E-4	-4.606436E-3	-4.723843E-3	-2.933240E-3	6.766649E-3	-1.173652E-3	-1.411359E-2	-7.752511E-3	-5.106716E-3	-8.311502E-3	-2.147751E-3	-4.475143E-3	-9.693640E-4	-8.817431E-4	-1.294441E-3	-3.908994E-3	-5.630040E-3	-5.461289E-3	3.563277E-3	-6.501539E-3	-7.595840E-3	2.766007E-4	4.123478E-3	-8.258672E-3	-1.371374E-3	-4.820517E-3	-7.493755E-3	-1.073305E-2	-1.871387E-3	-1.345213E-2	1.057427E-4	-4.202346E-3	-3.241943E-3	1.706469E-3	-6.432431E-3	-6.498368E-3	2.761947E-3	-2.652495E-3	-1.102984E-2	-2.549499E-3	-4.610552E-3	-5.763673E-4	4.689935E-3	-1.333926E-2	-3.302907E-3	-5.996011E-3	-3.682222E-3	-3.501920E-3	-9.045628E-9	-6.407676E-3	-1.190936E-2	-7.620661E-3	1.363701E-3	-3.300328E-3	-7.813009E-3	-1.942011E-3	5.209953E-4	-5.925717E-3	-1.154551E-2	7.661488E-4	5.351008E-3	-3.039521E-3	-7.624324E-3	1.658160E-3	-1.184983E-2	-4.967680E-3	-4.865087E-3	-4.152989E-3	3.132782E-3	-5.076416E-3	-4.950524E-3	4.021707E-3	1.141301E-3	-3.268310E-3	-8.972145E-3	7.298584E-4	-2.927957E-3	1.551583E-3	1.244007E-2	-2.341304E-3	-2.955846E-4	-4.644606E-3	-9.704038E-3	-7.593869E-3	-4.567815E-3	-8.710082E-3	-1.418036E-2	-5.135475E-3	-2.770267E-3	2.611653E-3	-1.158127E-2	-9.949848E-3	-2.822588E-3	-3.617416E-3	-2.507296E-3	-2.050295E-3	-5.288552E-3	9.926823E-4	9.037262E-4	-8.809628E-4	-5.216734E-3	-2.361308E-3	-5.415541E-3	-1.214090E-2	-3.585835E-3	-9.419933E-3	8.096479E-4	9.178723E-4	1.693462E-3	-6.865271E-4	4.981835E-4	4.955647E-3	-2.236781E-3	-3.353451E-3	-5.272429E-3	-2.406324E-3	-4.806149E-3	1.026086E-3	-1.056491E-2	-1.183103E-3	-8.947056E-3	-1.319322E-3	-8.794832E-3	-1.362974E-2	6.913551E-3	4.902105E-3	-7.370479E-3	-6.347966E-3	-3.596213E-3	2.731882E-3	9.220968E-4	-7.372220E-3	6.179482E-3	-6.240286E-3	-9.287240E-3	-6.235056E-3	-9.633908E-3	-6.063653E-3	-2.748380E-3	-7.229495E-3	-3.198672E-3	-2.949985E-4	3.167621E-4	-4.832720E-3	2.336763E-3	-4.299226E-3	3.817505E-3	5.603695E-4	-1.388845E-3	-4.828432E-3	-8.871647E-3	-5.267231E-3	-7.338403E-3	-3.983440E-3	3.024992E-3	-2.454065E-3	-4.521788E-3	-1.483789E-3	3.799964E-3	-4.942659E-3	-8.239225E-4	2.874837E-3	-1.982817E-3	-8.544450E-3
2.795050E+2	-5.205664E-4	5.206528E-4	7.694230E-3	3.381627E-3	-1.421244E-3	-8.216915E-3	4.719158E-4	-6.786612E-3	5.019308E-3	2.603688E-3	1.322703E-3	-6.687771E-3	-5.413298E-3	-4.514019E-4	3.369037E-3	-2.511364E-3	-3.928221E-4	3.213796E-3	-1.278424E-2	-4.475143E-3	-5.199314E-3	-4.016857E-3	-6.040794E-4	-5.512679E-3	4.196972E-3	-1.332555E-2	-4.141101E-3	-1.114553E-2	-4.062869E-3	-3.411530E-3	-5.622929E-3	-1.079975E-2	-2.154996E-3	-1.795896E-3	-9.310435E-3	-4.338898E-3	2.672963E-4	6.154697E-4	-2.431721E-3	-7.937739E-3	8.104926E-4	-7.126852E-3	-3.625559E-3	-6.498378E-3	-3.866685E-3	1.326246E-3	1.210068E-2	-2.832597E-4	-6.551789E-3	1.921318E-4	4.689968E-3	-3.557127E-3	-7.077698E-3	-5.996011E-3	-3.682217E-3	-1.987547E-3	-2.737650E-3	1.021534E-3	7.377687E-4	-6.696941E-3	-1.753372E-3	-4.459959E-4	-3.806351E-3	-3.668269E-3	-2.813386E-3	-2.765383E-3	-3.236586E-4	-1.276940E-3	2.293325E-3	3.799364E-3	3.630517E-4	-2.487224E-3	-3.883560E-3	7.948284E-3	2.054137E-3	-1.027323E-2	-7.608064E-3	-3.599674E-3	1.650120E-3	-6.985092E-3	-5.499243E-3	1.054396E-4	-2.361099E-3	-1.289432E-2	-3.683495E-3	-7.757824E-4	-7.775266E-4	1.170654E-2	-5.025136E-3	-7.178047E-3	-1.940818E-3	7.593882E-3	1.164361E-3	5.332768E-4	-5.672219E-4	-2.034837E-3	4.107620E-3	-1.406260E-3	-6.812343E-4	-5.322023E-3	-5.080622E-3	-4.019307E-4	7.020519E-4	-2.795867E-3	2.069447E-3	2.757443E-3	-9.037428E-4	-8.809198E-4	-3.671006E-3	-3.060974E-3	-4.549065E-3	2.985436E-3	5.378734E-3	2.478924E-3	-1.966257E-3	-2.753572E-3	6.456395E-9	7.158977E-3	-2.690031E-3	-5.562485E-3	-6.945831E-3	-6.930470E-3	-5.858432E-4	-1.489625E-3	2.883685E-3	-4.664336E-4	-8.804450E-4	-1.183127E-3	4.526168E-3	9.423867E-4	-7.830982E-3	-7.277980E-3	-5.550326E-3	2.501066E-3	-4.139579E-3	-2.905017E-3	2.506465E-3	-2.019259E-3	-9.221109E-4	1.474426E-3	-2.175878E-3	-9.409973E-3	-5.462860E-4	-1.529365E-3	1.723961E-3	-2.659490E-3	-3.627827E-3	-9.125743E-3	-2.399077E-3	-4.228575E-3	7.075238E-3	8.812633E-3	-4.206239E-3	-3.439394E-3	3.271705E-4	-3.362491E-4	-5.662180E-3	3.669605E-3	3.954852E-3	-1.369479E-2	1.048325E-3	-3.046162E-3	-1.041940E-2	-1.561675E-3	-4.111031E-4	-1.483768E-3	4.621555E-3	-2.616674E-3	-3.021136E-3	-1.399093E-2	2.832517E-4	1.663921E-2
2.800020E+2	-4.685047E-3	3.644586E-3	7.445906E-4	-1.628218E-3	-5.466432E-4	1.441043E-8	-2.831265E-4	7.308728E-4	-5.633894E-3	-3.004236E-3	-6.235428E-3	-5.749137E-3	-3.383316E-3	1.715357E-3	-1.730061E-3	-9.499555E-3	-5.892363E-3	-2.105567E-3	7.670498E-3	-3.452221E-3	-3.084322E-3	-4.800631E-3	7.766573E-4	7.316871E-3	5.015872E-3	2.402968E-3	-4.141124E-3	7.430341E-3	5.829370E-3	2.489482E-3	1.874277E-3	-6.564532E-3	9.795736E-4	-2.835557E-4	5.222934E-3	-1.598519E-3	-6.861711E-3	4.132361E-3	-1.585903E-3	-1.213991E-3	8.104877E-4	9.736680E-3	-6.432511E-3	-1.161180E-2	1.288890E-3	-3.315688E-3	-4.176310E-3	5.004553E-3	2.426508E-4	-9.798272E-3	1.272982E-2	-3.557149E-3	-1.415510E-3	1.653447E-2	-6.070681E-3	-1.107361E-2	-9.125542E-4	-1.950134E-3	1.580871E-3	-4.849507E-3	-9.546052E-3	-2.586758E-3	1.001660E-3	-5.394569E-3	-6.981349E-3	-3.555421E-3	2.265910E-3	-3.319978E-3	-3.057736E-3	-7.598864E-4	-1.089224E-3	-8.290524E-4	-6.970539E-4	2.980666E-3	-8.324626E-3	7.213112E-3	-4.475728E-4	9.231862E-5	-9.075906E-3	-4.445058E-3	-4.669143E-3	-4.955175E-3	-5.194417E-3	-6.082158E-3	-4.439136E-3	1.551635E-3	-3.110010E-3	-2.341333E-3	-1.872105E-3	-4.222181E-4	-4.852025E-3	1.687513E-3	4.746959E-3	-1.599833E-3	-5.672274E-4	-2.034827E-3	-4.776023E-4	-6.027114E-4	4.768740E-3	-3.470885E-3	-2.822552E-3	4.421199E-3	-1.704922E-3	-1.025162E-2	-2.529344E-3	6.287007E-3	-6.326254E-3	-6.166486E-3	-2.898165E-3	4.372443E-4	-1.949564E-3	-8.956420E-3	-3.585852E-3	-4.660378E-3	5.436271E-3	-5.507088E-3	-4.233725E-3	-4.609143E-3	-2.988557E-4	9.102281E-4	1.530460E-3	-4.247703E-3	-8.084356E-3	-2.406307E-3	-1.922679E-4	-1.212641E-3	-4.027881E-9	-5.915617E-3	4.526173E-3	-3.581058E-3	5.662420E-3	2.249571E-3	-4.771359E-3	-9.504105E-3	7.168572E-3	3.120181E-3	-8.827063E-3	-4.869924E-3	-1.844170E-3	-2.457405E-3	-4.960978E-3	2.476267E-3	-1.278361E-2	-1.529348E-3	1.014019E-4	-7.765643E-3	-4.507305E-3	3.199954E-3	-3.998370E-3	-4.228522E-3	-8.131211E-3	-4.832753E-3	-4.672794E-4	1.719675E-3	1.199785E-3	-7.509252E-3	-3.952875E-3	2.124497E-3	-3.207107E-4	-9.480978E-3	-8.270236E-3	-2.343288E-4	2.128713E-3	4.685061E-3	5.343929E-3	1.907720E-3	-3.594521E-3	1.259864E-3	-6.316940E-3	2.874865E-3	-1.104711E-2	5.846205E-3
2.805050E+2	5.205553E-4	-1.561946E-3	-3.226626E-3	1.377666E-3	-1.421191E-3	-8.216861E-4	-9.343445E-3	-5.951358E-3	-2.355983E-3	-1.261766E-2	-2.456404E-3	-1.994629E-3	-4.736687E-3	-4.514239E-4	-1.001594E-3	9.717927E-3	5.892389E-3	-1.274425E-2	-4.602308E-3	6.776576E-3	8.195543E-3	6.858044E-4	-5.436824E-3	6.514985E-3	-3.173311E-3	4.150562E-3	-4.141096E-3	1.021671E-2	2.296403E-3	2.765917E-4	-8.621761E-3	4.446941E-3	1.958846E-4	-2.552062E-3	4.314564E-3	-3.425466E-3	1.693132E-3	3.428958E-3	-2.431690E-3	8.498040E-3	-8.104580E-4	-5.520787E-3	1.052547E-3	-2.237162E-3	-6.812713E-3	-5.968188E-3	3.533832E-3	3.493759E-3	-2.669257E-3	5.571565E-3	-5.136595E-3	-8.892601E-4	4.718193E-4	-1.635289E-3	-2.886043E-3	-5.773422E-3	2.737621E-3	-7.150598E-3	1.001228E-2	3.463935E-3	2.143003E-3	-1.873153E-3	4.207052E-3	-2.157585E-4	5.209953E-4	-6.715826E-3	6.582002E-3	-2.298481E-3	-6.879860E-3	6.079031E-3	3.267607E-3	-7.461658E-3	1.692827E-3	-6.954783E-3	-2.270390E-3	-2.404387E-3	5.996945E-3	6.737827E-3	-8.250710E-4	-1.058382E-3	3.112570E-4	9.488591E-4	4.249986E-3	4.622482E-3	-1.416755E-3	-6.206367E-3	-5.442507E-3	-9.365248E-3	-1.872090E-3	-1.266697E-3	9.703537E-4	-3.375053E-3	-9.583511E-3	-5.865974E-3	-3.289825E-3	-4.360351E-3	-4.776536E-4	-8.638585E-3	-1.589566E-3	-2.545301E-3	9.408919E-4	-2.813495E-3	-2.507301E-3	-2.795958E-3	-5.288552E-3	-4.301578E-3	-4.518708E-3	5.285588E-3	7.921705E-3	-9.619954E-4	4.982330E-3	-1.791275E-3	1.792906E-3	-5.453657E-3	8.096084E-4	-5.507128E-3	-5.080438E-3	-6.962832E-3	-1.892963E-3	1.011611E-4	3.414029E-3	-6.036213E-3	3.163462E-3	-6.073135E-3	-9.612410E-4	-2.705137E-3	-1.760762E-3	-4.338127E-3	-1.063120E-2	1.884364E-4	-4.939580E-3	-3.043527E-3	-3.992344E-3	2.501086E-3	6.360872E-3	-6.347977E-3	-2.724402E-3	8.314464E-4	-9.220843E-3	-8.355174E-3	-5.657263E-3	8.815719E-3	6.446437E-3	-4.352782E-3	-1.521128E-3	-1.063997E-4	1.044372E-2	1.303688E-3	-7.997018E-4	2.065076E-3	-1.372813E-3	-6.348905E-3	6.075705E-3	-6.878745E-3	-1.417941E-3	-3.362053E-4	-5.341975E-4	-1.931237E-4	3.954825E-3	4.003120E-3	5.707613E-3	-7.732598E-3	5.713882E-3	-5.131241E-3	-6.988226E-3	6.147093E-3	-3.081368E-4	-3.392025E-3	1.235925E-2	2.874846E-3	-4.248900E-3	-8.544450E-3
2.810050E+2	3.643959E-3	-9.892416E-3	8.687017E-3	3.381651E-3	3.279582E-4	-2.465092E-3	1.330732E-2	-1.774966E-3	-7.272847E-3	2.002713E-4	-4.723806E-3	1.759971E-3	2.030001E-3	1.715383E-3	-3.186929E-3	9.827238E-4	-3.928125E-4	5.873457E-3	-2.147746E-3	-1.406452E-3	-3.789337E-3	6.857996E-4	7.766994E-4	-1.503472E-3	-8.905729E-3	5.024378E-3	1.251970E-3	-5.572743E-3	3.709617E-3	3.227093E-3	4.873204E-3	5.294009E-3	-3.722364E-3	-9.357565E-3	6.812696E-4	1.141810E-3	3.118963E-3	-8.790769E-5	-5.814981E-3	-7.190660E-3	7.294305E-3	-3.111710E-3	4.795168E-3	5.433073E-3	-9.206691E-4	1.989375E-3	-5.889695E-3	-6.326527E-3	-7.279910E-4	-5.955795E-3	-1.138986E-2	-3.557144E-3	4.246609E-3	-5.269229E-3	-4.478357E-3	-1.987575E-3	-9.125598E-4	3.250262E-3	-3.477950E-3	5.311352E-3	7.597884E-3	-4.459654E-4	-2.203665E-3	8.415435E-3	-3.646998E-3	7.505905E-3	-1.186910E-3	3.830791E-3	3.057695E-3	-9.118524E-3	9.802716E-3	-1.658169E-3	-2.290285E-3	-2.980637E-3	5.513760E-3	-6.557733E-4	-4.743867E-3	-8.768409E-3	8.250899E-4	4.868411E-3	-4.669179E-3	-2.424891E-3	-3.305498E-3	7.298406E-4	-5.950324E-3	3.878948E-3	-8.552555E-3	-7.023938E-3	-1.872134E-3	4.644556E-3	1.940819E-3	-1.687516E-3	1.164330E-3	1.955318E-3	-4.197416E-3	-2.809989E-3	-6.591305E-3	-1.406260E-3	-1.589599E-3	1.156969E-3	5.456905E-3	-7.636654E-3	1.504352E-3	-1.304774E-3	3.908917E-3	-6.066398E-3	-4.518780E-3	-1.544928E-8	-1.352513E-3	3.235882E-3	3.249311E-3	-7.364144E-3	4.482299E-3	-6.941014E-4	-6.592926E-3	-2.753578E-3	1.162151E-8	-1.470998E-3	-5.878266E-3	-1.517027E-3	-2.236781E-3	2.012105E-3	5.038029E-3	2.177187E-3	-7.113072E-3	-2.705096E-3	2.641217E-3	3.943870E-4	1.157857E-3	-2.827153E-3	-7.830976E-3	1.323152E-4	1.460604E-3	3.301396E-3	1.514452E-3	7.423931E-3	6.865467E-3	-8.670877E-3	-5.532507E-3	2.457416E-3	2.001774E-3	-2.278211E-3	-2.294523E-3	-4.352753E-3	-1.521113E-3	5.850874E-3	-1.868881E-3	-6.281333E-3	-1.119552E-2	-3.441853E-3	-6.441636E-3	-1.042325E-3	3.271532E-3	9.458336E-3	1.199822E-3	5.604023E-4	8.012562E-3	4.442165E-3	1.389536E-3	-2.738980E-3	2.912087E-3	1.640290E-3	-2.352757E-3	-3.346472E-3	-3.699632E-3	-4.027423E-3	-3.594531E-3	-2.616693E-3	-9.612751E-3	1.207440E-2	2.549334E-3	-8.544450E-3
2.815000E+2	-5.726213E-3	5.206655E-4	-2.233802E-3	-2.630153E-3	-3.170426E-3	4.930137E-3	-3.303231E-3	-2.610245E-3	1.741352E-3	2.603625E-3	-2.456390E-3	5.514531E-3	-5.413347E-3	-8.396245E-3	4.553055E-4	8.844413E-3	-1.178478E-3	4.986874E-3	7.670538E-3	3.707966E-3	5.375506E-3	2.253371E-3	1.467082E-3	-4.710846E-3	5.834761E-3	3.276832E-3	5.104130E-3	-7.430329E-3	1.589846E-3	3.964735E-3	-1.124577E-3	-4.870443E-3	-1.371388E-3	8.034274E-3	3.406282E-3	1.027633E-2	3.118993E-3	-8.791198E-5	4.334790E-3	-6.443594E-3	2.431443E-3	6.524565E-3	1.169136E-4	1.171867E-3	4.971438E-3	1.326267E-3	1.820473E-3	-4.815720E-3	2.426627E-4	-2.881865E-3	-2.456663E-3	8.003531E-3	-2.359246E-3	-6.722784E-3	2.986005E-4	5.584105E-3	-3.650195E-3	3.250258E-3	-2.634791E-3	-4.849479E-3	-2.532627E-3	-3.300302E-3	-3.005028E-3	-1.078879E-3	1.354597E-3	-6.715812E-3	-2.050129E-3	-5.363067E-3	-7.644423E-4	-7.598772E-4	-7.624364E-3	3.316326E-3	5.675969E-3	-1.893939E-8	-5.405336E-4	4.590184E-3	9.845631E-4	2.307470E-3	4.125412E-3	2.328397E-3	1.971461E-3	1.054499E-4	3.305495E-3	6.568815E-3	8.406029E-3	-1.551609E-3	5.442530E-3	3.121779E-3	-4.236859E-3	2.955722E-3	-5.822372E-3	3.375051E-3	-2.687071E-4	-1.599802E-3	1.032332E-2	-4.360332E-3	4.871832E-3	-6.027310E-4	8.402117E-3	2.314028E-4	-8.844015E-3	-1.205753E-3	6.318345E-3	6.896534E-3	5.748455E-3	-5.184026E-3	-9.038089E-4	2.642789E-3	-5.796580E-4	-9.620125E-4	-1.949622E-3	6.169988E-3	-5.378755E-3	9.916356E-5	-3.816913E-3	4.589255E-3	4.233744E-3	-3.824701E-3	6.874531E-3	4.146585E-3	5.297650E-3	2.906313E-3	3.163479E-3	-1.489664E-3	7.497589E-3	1.026095E-3	-1.760789E-3	3.943437E-4	6.210290E-3	1.884962E-4	-1.204900E-4	9.659905E-3	4.576592E-3	-3.101332E-3	-2.524143E-3	2.259449E-3	6.865510E-3	6.532858E-3	4.610417E-3	-4.915104E-4	4.090632E-3	-3.070618E-3	9.942803E-3	3.529379E-4	3.346520E-3	-4.361537E-3	3.407952E-3	3.199937E-3	9.596142E-3	4.425232E-3	2.851184E-3	-5.590834E-3	-9.814609E-3	-7.738614E-3	-3.163042E-3	-4.819353E-3	-5.341558E-4	-2.510792E-3	-3.741053E-3	-4.424436E-3	1.164919E-4	-6.795291E-3	-5.041604E-3	2.230941E-4	-1.233204E-3	-1.483768E-3	-4.416132E-3	2.035195E-3	-8.239493E-4	-7.857929E-3	7.081486E-3	5.846183E-3
2.820040E+2	-3.643951E-3	5.727210E-3	-3.226595E-3	-1.628163E-3	1.082322E-2	8.216944E-3	1.226912E-3	5.742519E-3	-2.355973E-3	1.462046E-2	5.857516E-3	-4.810520E-3	8.796667E-3	3.159853E-3	1.211036E-2	-5.131948E-3	5.106685E-3	1.030624E-2	-5.113625E-4	1.662190E-3	7.490532E-3	1.469559E-3	2.847836E-3	-7.918210E-3	9.213178E-4	2.402979E-3	-4.141087E-3	5.572794E-3	-2.649721E-3	1.014216E-3	1.124587E-3	8.682161E-3	1.763200E-3	2.741060E-3	6.812364E-4	2.283503E-4	3.118993E-3	4.835717E-3	-7.400853E-4	1.970428E-2	-6.483864E-3	-7.929879E-3	3.859517E-3	6.285276E-3	8.654040E-3	8.620697E-3	5.247154E-3	2.738346E-3	5.095866E-3	7.877010E-3	2.903317E-3	1.333925E-2	-1.415515E-3	1.072014E-2	9.852370E-3	4.069816E-3	5.475334E-3	2.785491E-4	1.580871E-3	8.082505E-3	5.844455E-4	7.403425E-3	5.008332E-3	1.510478E-3	2.188204E-3	6.715853E-3	-2.050171E-3	1.787709E-3	7.643969E-4	8.691111E-9	7.624363E-3	-8.290827E-4	8.065821E-3	3.974175E-3	5.513702E-3	-2.404381E-3	-3.311757E-3	1.569070E-3	8.251251E-4	2.328346E-3	1.971436E-3	4.322593E-3	-2.361076E-3	-2.433198E-4	3.872437E-3	-6.206353E-3	-3.887522E-3	5.463065E-3	9.951727E-3	8.866986E-3	3.881614E-3	2.531285E-3	-9.852257E-4	9.065645E-3	2.155381E-3	7.267287E-3	-1.241838E-3	7.433197E-3	2.270698E-4	1.226379E-2	5.456964E-3	3.617381E-3	-4.111892E-3	7.642133E-3	3.908956E-3	1.875055E-3	5.422517E-3	-5.285587E-3	-3.671015E-3	5.334814E-3	-2.816098E-3	7.762182E-3	-2.689368E-3	4.065440E-3	3.585598E-3	9.178527E-3	-8.467472E-4	5.589854E-3	3.686301E-3	-7.180678E-3	4.355854E-3	1.274308E-2	3.163462E-3	6.760624E-3	1.345716E-3	6.249814E-3	5.282443E-3	8.281877E-3	2.841994E-3	-5.654587E-4	7.590026E-3	6.484057E-3	2.239647E-3	-3.901667E-3	7.067422E-4	-1.183490E-3	-4.468018E-3	4.632399E-3	8.298799E-3	6.389277E-3	1.305511E-3	6.438414E-3	2.950054E-3	5.999771E-3	9.836692E-3	1.010605E-2	-5.386767E-3	1.173308E-2	7.996800E-3	3.638520E-3	2.006440E-3	1.184496E-2	3.271509E-3	2.579534E-3	-3.163079E-3	-3.362381E-4	4.593853E-3	5.794229E-4	-7.161406E-3	2.001541E-2	1.048364E-3	1.007574E-2	1.232363E-3	-7.808417E-3	1.027684E-2	2.755595E-3	-7.702572E-3	5.911804E-3	1.373238E-3	2.874827E-3	2.832655E-4	-1.349122E-3
2.825040E+2	4.685061E-3	-1.561978E-3	8.687023E-3	6.387511E-3	3.279635E-4	2.465061E-3	4.247012E-3	1.075424E-2	9.936157E-3	2.002909E-4	1.341565E-2	1.490079E-2	1.353332E-3	3.882129E-3	4.097469E-3	5.350315E-3	1.964118E-3	-1.219050E-3	6.852374E-3	1.662227E-3	-8.019244E-3	4.604697E-3	1.467070E-3	9.722345E-3	1.740158E-3	1.529120E-3	6.645031E-3	7.430295E-3	8.831942E-4	-7.837190E-3	3.373720E-3	1.207029E-2	5.681464E-3	8.034260E-3	2.497905E-3	8.449443E-3	-2.584279E-3	6.154482E-4	8.563847E-3	-1.213991E-3	-8.104629E-4	5.721513E-3	6.666355E-3	1.395549E-2	-6.076248E-3	-1.326214E-3	-1.606291E-3	2.738346E-3	8.978409E-3	5.571593E-3	-6.029921E-3	3.557154E-3	1.085245E-2	-1.635276E-3	1.064855E-2	1.467015E-2	1.322053E-8	7.707805E-3	4.110313E-3	7.158797E-3	2.143018E-3	4.549076E-3	6.611009E-3	2.373573E-3	8.856941E-3	1.145640E-2	8.308467E-3	5.873817E-3	-7.643864E-4	3.799406E-3	-4.719826E-3	8.290700E-3	3.286117E-3	-6.818182E-9	2.919037E-3	8.087464E-3	5.996971E-3	6.737813E-3	7.425754E-3	-1.058330E-3	9.442110E-3	5.166033E-3	1.463875E-2	6.568797E-3	6.139200E-3	7.757946E-3	3.887521E-3	7.804404E-4	5.222181E-3	-2.955695E-3	1.552647E-2	-2.531292E-3	8.329609E-3	6.221450E-3	1.032335E-2	1.346853E-2	2.579214E-3	2.611697E-3	2.043744E-3	7.635899E-3	7.715017E-3	7.636669E-3	2.306662E-3	4.659843E-3	-2.529327E-3	3.639815E-3	1.084505E-2	5.285594E-3	9.467386E-3	-1.661649E-3	8.448249E-3	1.333513E-2	3.585870E-3	1.358454E-2	1.734970E-3	1.835711E-3	4.233687E-3	4.805369E-3	-2.988994E-4	4.146570E-3	-3.178600E-3	2.906340E-3	-5.858032E-4	4.927244E-3	1.345739E-3	-1.212686E-3	7.043255E-3	3.549367E-3	3.157777E-4	6.973672E-3	1.626441E-2	5.425394E-3	-8.763650E-4	3.301450E-3	-1.716438E-3	3.980887E-3	3.378255E-3	8.314754E-4	3.688318E-3	8.355190E-3	-7.832793E-4	3.268689E-3	5.572361E-3	1.164659E-2	-2.332427E-3	4.999795E-3	4.287484E-3	3.199913E-3	3.998400E-3	2.065119E-3	3.696036E-3	1.989943E-3	-4.673820E-4	8.598435E-3	1.199780E-3	1.221653E-2	-5.341610E-4	-3.283343E-3	1.079560E-2	1.158789E-2	4.775758E-3	1.007579E-2	5.713811E-3	1.539372E-2	1.233189E-3	-2.331658E-3	1.119437E-2	4.361189E-3	6.866208E-3	-1.724917E-3	7.081486E-3	-1.349122E-3
2.830040E+2	1.301409E-2	-5.727168E-3	-2.233802E-3	7.389495E-3	3.826406E-3	1.068203E-2	9.532206E-3	7.413022E-3	4.199809E-3	1.061484E-2	1.265987E-2	5.514491E-3	5.413311E-3	-4.514063E-4	-1.001589E-3	1.233845E-2	1.139192E-2	5.541416E-4	1.125026E-3	5.753741E-3	1.145616E-3	1.557756E-2	1.182292E-2	3.307592E-3	9.110430E-3	5.898247E-3	4.333715E-3	1.857600E-3	1.148208E-2	7.652825E-3	4.873149E-3	7.835093E-3	-5.877422E-4	-3.308255E-3	-2.043748E-3	2.968662E-3	5.257677E-3	1.186951E-2	4.334805E-3	7.750997E-3	1.864106E-2	6.524546E-3	8.537668E-3	2.876311E-3	4.234914E-3	1.326264E-2	9.530589E-3	1.331403E-2	4.125200E-3	9.414023E-3	3.796604E-3	8.892856E-3	3.302896E-3	1.072015E-2	-4.975882E-4	1.088432E-2	8.212898E-3	7.707787E-3	8.326005E-3	9.006224E-3	9.935721E-3	1.097137E-2	9.015029E-3	9.278561E-3	8.023375E-3	1.066634E-2	1.003492E-2	1.200305E-2	1.605302E-2	6.838944E-3	1.633786E-2	2.735940E-2	3.286059E-3	9.935629E-4	2.919000E-3	8.087453E-3	6.713032E-3	5.999454E-3	1.402637E-2	1.418188E-2	-2.178986E-3	6.852960E-3	7.083235E-3	-6.082181E-3	7.650444E-3	3.878981E-3	1.399508E-2	1.248697E-2	1.152825E-2	2.111146E-3	6.792821E-3	1.096892E-2	-3.134782E-3	9.776631E-3	4.878050E-3	7.267183E-3	1.098558E-2	1.808075E-3	1.476041E-2	1.596608E-2	-5.080613E-3	7.636640E-3	1.113230E-2	-1.304715E-3	1.310647E-2	1.334615E-2	1.807508E-3	-3.523740E-3	-2.898170E-3	6.734079E-3	1.451368E-2	1.393204E-3	1.523982E-2	6.445181E-3	7.286893E-3	1.193207E-2	3.386969E-3	7.159010E-3	6.077487E-3	9.001119E-3	1.471568E-2	-1.564947E-3	7.850053E-3	8.594027E-3	7.497594E-3	1.296600E-2	8.804127E-3	2.760646E-3	7.052394E-3	1.526668E-2	1.915589E-2	2.448069E-2	1.460646E-3	6.502771E-3	1.514462E-3	9.145380E-3	1.209637E-2	1.698540E-2	1.014289E-2	2.801443E-2	1.244595E-2	1.911712E-2	1.081695E-2	2.199919E-2	3.346510E-3	7.446527E-4	-1.868838E-3	9.836837E-3	9.596210E-3	9.145439E-3	1.129928E-2	1.639347E-2	2.103134E-2	1.719691E-3	1.199780E-3	1.457015E-3	7.157836E-3	9.077450E-3	1.165073E-2	5.688565E-3	1.048364E-3	1.007577E-2	1.232423E-3	3.792660E-3	1.438748E-2	1.038651E-2	-2.772900E-3	1.444032E-2	3.570445E-3	4.408085E-3	4.815417E-3	9.443857E-3
2.835010E+2	7.808376E-3	-6.768471E-3	4.715746E-3	-6.637972E-3	4.701045E-3	4.108562E-3	4.718651E-4	4.071976E-3	1.741457E-3	5.007032E-3	1.190400E-2	1.114629E-2	8.796614E-3	1.832740E-2	1.429574E-2	1.233851E-2	1.689147E-2	-7.424904E-3	8.488757E-3	1.802834E-2	5.375544E-3	7.739816E-3	2.217876E-2	4.109458E-3	6.653666E-3	5.024394E-3	8.956390E-3	1.857587E-2	1.289526E-2	2.388049E-2	1.237037E-2	7.835150E-3	5.681402E-3	6.521925E-3	1.248956E-2	9.362869E-3	1.238678E-2	1.608977E-2	1.279295E-2	1.774291E-3	4.862879E-3	9.736636E-3	1.134456E-2	2.024070E-3	1.454612E-2	1.326262E-2	7.817173E-3	1.180321E-2	1.771415E-2	1.709895E-2	1.183654E-2	8.892873E-3	4.246678E-3	4.179081E-3	1.224085E-2	1.769886E-2	1.277566E-2	2.785854E-4	1.675742E-2	-1.154663E-3	1.772843E-2	1.097134E-2	1.782971E-2	3.236688E-3	1.552569E-2	1.303662E-2	2.125673E-2	7.916856E-3	3.057705E-3	9.878418E-3	9.802778E-3	2.155589E-2	1.762540E-2	1.390959E-2	6.378628E-3	1.245901E-2	8.861151E-3	1.412175E-2	-2.076114E-8	1.079519E-2	1.359251E-2	1.781763E-2	1.086101E-2	1.532723E-2	1.520637E-2	5.430581E-3	1.321758E-2	4.682615E-3	4.433957E-3	7.178044E-3	4.851979E-3	2.193781E-2	7.613055E-3	7.643535E-3	-3.289803E-3	1.269336E-2	7.164455E-3	1.064754E-2	1.021878E-2	1.411496E-2	-5.645085E-4	1.728294E-2	7.120645E-3	1.435234E-2	1.310644E-2	7.169407E-3	6.326249E-3	1.585668E-2	1.178591E-2	1.163162E-2	9.314740E-3	3.005373E-2	7.171709E-3	8.031711E-3	1.839070E-2	1.009634E-2	1.439456E-2	8.826148E-4	1.883035E-2	1.223747E-2	1.471570E-2	1.006038E-2	1.066198E-2	1.226080E-2	8.266577E-3	1.221974E-2	1.144533E-2	1.774681E-2	2.136768E-2	1.074323E-2	2.108343E-2	1.071853E-2	6.913537E-3	9.704179E-3	1.928448E-2	1.775284E-2	1.296810E-2	1.603513E-2	9.220841E-3	1.130404E-2	1.035713E-2	5.645949E-3	1.955789E-2	2.670483E-2	1.794950E-2	1.606327E-2	1.132322E-2	1.173306E-2	2.399054E-3	1.937264E-2	3.168085E-4	1.639344E-2	1.074931E-2	1.547718E-2	2.475916E-2	1.131988E-2	1.741393E-2	1.139509E-2	1.849143E-2	1.495886E-2	9.435064E-3	1.757407E-2	7.506451E-3	1.450145E-2	1.109891E-2	7.842842E-3	2.516176E-2	2.762073E-2	1.126067E-2	2.280712E-2	1.161361E-2	1.304151E-2
2.840020E+2	2.030188E-2	1.197501E-2	2.357898E-2	2.141694E-2	1.257246E-2	2.793756E-2	2.161258E-2	9.918861E-3	1.731141E-2	1.462052E-2	1.190399E-2	1.959406E-2	2.232999E-2	1.471604E-2	2.449387E-2	2.893536E-2	1.767712E-2	2.715087E-2	2.157979E-2	2.685062E-3	2.934526E-2	2.106395E-2	1.320371E-2	1.934447E-2	1.156724E-2	2.075293E-2	3.129914E-2	2.321978E-2	1.572159E-2	2.092998E-2	3.861051E-2	3.070516E-2	4.114110E-3	2.542616E-2	3.247293E-2	1.758396E-2	1.595130E-2	1.960669E-2	9.515707E-4	2.343967E-2	2.269351E-2	1.616084E-2	1.508709E-2	2.333015E-2	2.043821E-2	2.055703E-2	1.809748E-2	2.237888E-2	2.256736E-2	1.863589E-2	1.808977E-2	2.312141E-2	3.255741E-2	2.234879E-2	2.259084E-2	2.678483E-2	2.190109E-2	1.513697E-2	1.675747E-2	9.006230E-3	2.863827E-2	2.310237E-2	1.542565E-2	2.826731E-2	1.385848E-2	1.461679E-2	2.211993E-2	2.936917E-2	1.223090E-2	2.203643E-2	6.898192E-3	3.233382E-2	1.921865E-2	2.285147E-2	4.648803E-3	2.295083E-2	1.244140E-2	2.519761E-2	2.145220E-2	2.688204E-2	1.359246E-2	1.950450E-2	2.502753E-2	1.532725E-2	2.502911E-2	2.404962E-2	2.177010E-2	2.497393E-2	1.546947E-2	1.477836E-2	1.940801E-2	3.543805E-2	1.047916E-2	2.044206E-2	2.212135E-2	2.044505E-2	2.244861E-2	2.009152E-4	7.493757E-3	2.892403E-2	2.728471E-2	1.728297E-2	1.594622E-2	1.211560E-2	2.138422E-2	2.922901E-2	1.446006E-2	2.290413E-2	5.603127E-3	1.582952E-2	2.144555E-2	3.323822E-2	1.703278E-2	1.913730E-2	2.209201E-2	3.028913E-2	2.286200E-2	1.108165E-2	1.165685E-2	2.113745E-2	1.377389E-2	3.331094E-2	2.659639E-2	1.409416E-2	1.826339E-2	2.042847E-2	3.169482E-2	3.509921E-2	2.389390E-2	1.375887E-2	3.168548E-2	2.977374E-2	2.171444E-2	1.130492E-2	3.220815E-2	1.861352E-2	1.994259E-2	2.553752E-2	3.042875E-2	3.194623E-2	2.010507E-2	2.149435E-2	1.169099E-2	2.576363E-2	1.957207E-2	1.180813E-2	2.451536E-2	2.405883E-2	1.839267E-2	2.881304E-2	1.214399E-2	1.563540E-2	2.009660E-2	2.751503E-2	2.475909E-2	2.476932E-2	2.766994E-2	2.607350E-2	1.592617E-2	2.338647E-2	2.527661E-2	2.975862E-2	2.632857E-2	2.877967E-2	3.000818E-2	1.716951E-2	5.135646E-4	2.839611E-2	2.444389E-2	3.967293E-2	2.832655E-4	2.023686E-2
2.841010E+2	2.446643E-2	1.718151E-2	3.648542E-2	3.243852E-2	2.044387E-2	1.232544E-2	1.934755E-2	1.743642E-2	1.321404E-2	3.625074E-2	1.719469E-2	2.898045E-2	2.435999E-2	1.616051E-2	1.866637E-2	2.456778E-2	1.924842E-2	2.803745E-2	3.303449E-2	1.802838E-2	1.595045E-2	2.184780E-2	1.803640E-2	1.052419E-2	2.794555E-2	1.900533E-2	3.361045E-2	3.993807E-2	1.784131E-2	1.650430E-2	2.211675E-2	3.155223E-2	2.213811E-2	9.546614E-3	1.975628E-2	3.585288E-2	1.666418E-2	2.242018E-2	2.632598E-2	2.642798E-2	1.864113E-2	1.053969E-2	3.473550E-2	2.759136E-2	2.706680E-2	1.591510E-2	2.409430E-2	1.709106E-2	2.062604E-2	2.247841E-2	1.451643E-2	2.401067E-2	2.689525E-2	1.290054E-2	8.260051E-3	2.148468E-2	7.300380E-3	2.108035E-2	1.760056E-2	2.563312E-2	2.863823E-2	1.882081E-2	2.984980E-2	1.273105E-2	2.386161E-2	2.014751E-2	2.039352E-2	2.732607E-2	2.140400E-2	2.735561E-2	2.722978E-2	1.989778E-2	2.240517E-2	3.378039E-2	2.194674E-2	2.120219E-2	1.100937E-2	2.002895E-2	1.650169E-2	2.518873E-2	2.687367E-2	1.444388E-2	4.486077E-2	2.213939E-2	1.218399E-2	2.094647E-2	2.488010E-2	2.575444E-2	2.177557E-2	2.237855E-2	2.426008E-2	2.193783E-2	2.194356E-2	1.546480E-2	1.849119E-2	2.509615E-2	1.709919E-2	2.029064E-2	3.020215E-2	3.077519E-2	2.051054E-2	4.220259E-2	2.236489E-2	1.957133E-2	1.678547E-2	2.216998E-2	2.620874E-2	1.497579E-2	3.033427E-2	2.772357E-2	2.404503E-2	2.368477E-2	1.882565E-2	1.675755E-2	2.856922E-2	2.386418E-2	1.947500E-2	2.363443E-2	2.281564E-2	2.356470E-2	2.601737E-2	3.152244E-2	2.003518E-2	7.677261E-3	2.287731E-2	1.445854E-2	2.112987E-2	2.957807E-2	1.884146E-2	1.752845E-2	1.626440E-2	2.977377E-2	1.704049E-2	1.370595E-2	1.928452E-2	3.582830E-2	2.255804E-2	2.933847E-2	7.376672E-3	2.506557E-2	2.428266E-2	1.753228E-2	2.480249E-2	3.893969E-2	4.066527E-2	1.180805E-2	2.891271E-2	4.491763E-2	1.439425E-2	2.487951E-2	1.636807E-2	2.549037E-2	2.103132E-2	1.289766E-2	2.912198E-2	1.938953E-2	2.681529E-2	3.611665E-2	3.131787E-2	1.832994E-2	3.925454E-2	1.476211E-2	2.901751E-2	3.234928E-2	3.576325E-2	3.412704E-2	2.187528E-2	2.994669E-2	2.334525E-2	3.507310E-2	1.841184E-2	1.663918E-2
2.842030E+2	3.695992E-2	2.863582E-2	3.648549E-2	4.045417E-2	4.405815E-2	3.122432E-2	3.595814E-2	4.834161E-2	1.649205E-2	2.503502E-2	2.475279E-2	2.334862E-2	2.436000E-2	3.710616E-2	4.270495E-2	3.505003E-2	2.631921E-2	3.158363E-2	3.630717E-2	3.234878E-2	3.146023E-2	3.987460E-2	3.598652E-2	2.816475E-2	2.876448E-2	3.473387E-2	4.362615E-2	2.600615E-2	3.055992E-2	3.494476E-2	4.085966E-2	3.239921E-2	4.094558E-2	4.357416E-2	4.246459E-2	3.585294E-2	2.949647E-2	2.945402E-2	3.562992E-2	3.091048E-2	4.943941E-2	2.178203E-2	4.596315E-2	3.100030E-2	4.842573E-2	2.785143E-2	3.009103E-2	2.917754E-2	5.265711E-2	3.323727E-2	4.310281E-2	4.357495E-2	4.105069E-2	2.452907E-2	2.259083E-2	3.814244E-2	4.653993E-2	1.736570E-2	3.783597E-2	3.394664E-2	4.188587E-2	3.309244E-2	3.626048E-2	3.862476E-2	3.136395E-2	2.567815E-2	4.024752E-2	2.834761E-2	3.363482E-2	3.115502E-2	4.683523E-2	3.730828E-2	2.957475E-2	2.682567E-2	2.194675E-2	3.781421E-2	3.105884E-2	3.996559E-2	3.382841E-2	4.466239E-2	3.849478E-2	4.986823E-2	3.730520E-2	3.868300E-2	1.898436E-2	3.335924E-2	3.498770E-2	4.994799E-2	2.571681E-2	3.757919E-2	2.523053E-2	4.134444E-2	3.412440E-2	2.755231E-2	4.299497E-2	2.199539E-2	2.550553E-2	3.073731E-2	2.475210E-2	4.836092E-2	2.879007E-2	3.175246E-2	4.162069E-2	3.224605E-2	3.518047E-2	3.981762E-2	2.440130E-2	4.668917E-2	3.265283E-2	4.171644E-2	3.617587E-2	4.199562E-2	2.689378E-2	2.310366E-2	3.319582E-2	4.313910E-2	3.895006E-2	3.383343E-2	3.397429E-2	2.518288E-2	2.036654E-2	3.241671E-2	3.878144E-2	4.251177E-2	3.441206E-2	3.535343E-2	4.842260E-2	3.667678E-2	2.726219E-2	2.582147E-2	4.903421E-2	4.777030E-2	3.573635E-2	2.090904E-2	3.463129E-2	3.754978E-2	4.435325E-2	2.933838E-2	3.872755E-2	4.570771E-2	2.846034E-2	3.179581E-2	4.665475E-2	6.340925E-2	3.336374E-2	2.712666E-2	1.835908E-2	3.638444E-2	3.918433E-2	3.825352E-2	3.157450E-2	3.458730E-2	3.131328E-2	3.697334E-2	3.522992E-2	4.808158E-2	3.707129E-2	3.843425E-2	5.355052E-2	3.265680E-2	3.552709E-2	3.538236E-2	2.722487E-2	3.234928E-2	4.316250E-2	3.836644E-2	3.173459E-2	4.855430E-2	4.751442E-2	3.047340E-2	3.654048E-2	4.901817E-2
2.843030E+2	4.841228E-2	4.737934E-2	6.428388E-2	3.043459E-2	6.067560E-2	3.944123E-2	4.803847E-2	2.495384E-2	5.172943E-2	4.506306E-2	4.515966E-2	4.212137E-2	3.044993E-2	4.071749E-2	6.528664E-2	6.737029E-2	5.303129E-2	5.906690E-2	5.267104E-2	6.201260E-2	6.741474E-2	4.771235E-2	4.979431E-2	4.500355E-2	6.070216E-2	5.920050E-2	4.824885E-2	5.851395E-2	4.681152E-2	4.895958E-2	4.685738E-2	5.103406E-2	4.878205E-2	6.096604E-2	4.428129E-2	5.320848E-2	4.446751E-2	5.547901E-2	5.592944E-2	5.332291E-2	4.376605E-2	4.828186E-2	5.251256E-2	5.401089E-2	4.916224E-2	5.835543E-2	4.379799E-2	6.165992E-2	6.624603E-2	4.015372E-2	4.935604E-2	4.891059E-2	5.048755E-2	5.360062E-2	4.488306E-2	4.495689E-2	6.022815E-2	3.519576E-2	5.132621E-2	5.519201E-2	5.747130E-2	4.165549E-2	4.667773E-2	7.142345E-2	4.636865E-2	4.069000E-2	5.405894E-2	5.592919E-2	4.663011E-2	3.343464E-2	3.957402E-2	5.140253E-2	4.550729E-2	7.153501E-2	5.308299E-2	4.655734E-2	6.041711E-2	5.325654E-2	5.693070E-2	5.397591E-2	5.094598E-2	5.492880E-2	5.902719E-2	4.841454E-2	2.956266E-2	4.887508E-2	4.898279E-2	7.258060E-2	4.778798E-2	4.095707E-2	4.560892E-2	6.412593E-2	3.770710E-2	5.101611E-2	4.571753E-2	6.773034E-2	4.996023E-2	5.484495E-2	6.744379E-2	5.206322E-2	3.255344E-2	3.979105E-2	5.365569E-2	5.908668E-2	4.161879E-2	3.981765E-2	4.518753E-2	5.285567E-2	5.197400E-2	4.941255E-2	5.523865E-2	5.951044E-2	5.020171E-2	4.848785E-2	5.817949E-2	6.424961E-2	4.233702E-2	4.089439E-2	4.832118E-2	4.217380E-2	4.296985E-2	6.460990E-2	5.565324E-2	5.351208E-2	4.287091E-2	7.191946E-2	5.546589E-2	6.507164E-2	4.241961E-2	4.693095E-2	5.096191E-2	7.423583E-2	3.106229E-2	4.251843E-2	4.997820E-2	5.218231E-2	4.348140E-2	4.929322E-2	4.057168E-2	4.767370E-2	3.194175E-2	5.794559E-2	4.752895E-2	6.999724E-2	6.581487E-2	4.329637E-2	6.233280E-2	6.672458E-2	5.517797E-2	5.634782E-2	4.847056E-2	4.141003E-2	3.785636E-2	4.987105E-2	4.482819E-2	4.718496E-2	3.878066E-2	5.620292E-2	6.039124E-2	5.962495E-2	5.602799E-2	3.913145E-2	5.859513E-2	4.930467E-2	5.549459E-2	6.549850E-2	5.638288E-2	5.630758E-2	3.762705E-2	4.733917E-2	4.787078E-2	5.621367E-2
2.844030E+2	7.756378E-2	5.987503E-2	6.229837E-2	6.750714E-2	8.603915E-2	5.998356E-2	6.540403E-2	6.421180E-2	7.877216E-2	7.550567E-2	6.481073E-2	6.277128E-2	7.104998E-2	6.671878E-2	6.674353E-2	7.697906E-2	6.010216E-2	6.615936E-2	6.658030E-2	5.996673E-2	8.362951E-2	6.025276E-2	6.843477E-2	6.825706E-2	7.871839E-2	6.356946E-2	6.134629E-2	6.687310E-2	7.366190E-2	6.002392E-2	7.309764E-2	6.628074E-2	5.505131E-2	5.037968E-2	7.425627E-2	6.782370E-2	7.084507E-2	5.758919E-2	6.523345E-2	6.004660E-2	7.861680E-2	5.872121E-2	6.561154E-2	6.764672E-2	6.389244E-2	5.437662E-2	7.292518E-2	8.960999E-2	9.924775E-2	5.475503E-2	8.151570E-2	7.292131E-2	5.992448E-2	5.941493E-2	6.797144E-2	7.145786E-2	8.486690E-2	7.159877E-2	6.650275E-2	7.828493E-2	5.279565E-2	5.592720E-2	7.392318E-2	7.919150E-2	6.304048E-2	5.491178E-2	6.959683E-2	7.533833E-2	7.644288E-2	6.382977E-2	6.208398E-2	6.881302E-2	6.542306E-2	7.153497E-2	4.875849E-2	6.054651E-2	6.113312E-2	5.768697E-2	7.178220E-2	7.175611E-2	3.683465E-2	6.842380E-2	8.641592E-2	7.468985E-2	6.356452E-2	5.896043E-2	6.142285E-2	6.789799E-2	6.434127E-2	6.460236E-2	6.889862E-2	5.231332E-2	5.705327E-2	5.670438E-2	8.564948E-2	5.920350E-2	3.620443E-2	5.805935E-2	6.017713E-2	7.242574E-2	5.061786E-2	5.667211E-2	6.248121E-2	7.250704E-2	6.553227E-2	6.364203E-2	4.518755E-2	7.135518E-2	6.974951E-2	6.550448E-2	7.343488E-2	7.543291E-2	4.930524E-2	5.959345E-2	7.205918E-2	8.077099E-2	6.265876E-2	5.501619E-2	5.708875E-2	6.401912E-2	6.368946E-2	7.176389E-2	5.940249E-2	5.351215E-2	6.670947E-2	7.863567E-2	6.427001E-2	7.532537E-2	7.189226E-2	4.542313E-2	4.807036E-2	7.317723E-2	4.041025E-2	5.612429E-2	6.613264E-2	7.456147E-2	6.004573E-2	6.639740E-2	4.794833E-2	7.028185E-2	5.770404E-2	7.854850E-2	7.112942E-2	7.282068E-2	6.094716E-2	5.265769E-2	5.617648E-2	8.663531E-2	5.517788E-2	7.522865E-2	6.452178E-2	5.581349E-2	7.524535E-2	5.932927E-2	6.315217E-2	7.677361E-2	7.553149E-2	6.315588E-2	8.176859E-2	6.889528E-2	6.068720E-2	7.662267E-2	7.383209E-2	8.410801E-2	4.891754E-2	7.228146E-2	5.556133E-2	8.421907E-2	6.179622E-2	9.487006E-2	7.279756E-2	7.779950E-2
2.845030E+2	7.860483E-2	7.341204E-2	7.421197E-2	8.754641E-2	1.009073E-1	6.573544E-2	7.597442E-2	7.339988E-2	6.402157E-2	6.348888E-2	8.899663E-2	7.966674E-2	7.781661E-2	7.899724E-2	8.131246E-2	1.040582E-1	7.267247E-2	9.364268E-2	9.194422E-2	6.303540E-2	8.926948E-2	8.376610E-2	9.466956E-2	5.943673E-2	8.608859E-2	8.017187E-2	8.754133E-2	8.823519E-2	5.953007E-2	6.887544E-2	9.109084E-2	8.237452E-2	8.796451E-2	5.794134E-2	9.333131E-2	8.243895E-2	1.000742E-1	6.884323E-2	6.607927E-2	7.722958E-2	1.077942E-1	7.638773E-2	8.713114E-2	9.065729E-2	9.556250E-2	7.294431E-2	9.005893E-2	1.122722E-1	5.459837E-2	8.318929E-2	9.402211E-2	9.426412E-2	9.295377E-2	7.249710E-2	6.160223E-2	7.221503E-2	1.067680E-1	7.085588E-2	8.758125E-2	8.844579E-2	8.162867E-2	6.591742E-2	7.312186E-2	8.868586E-2	9.304985E-2	6.834341E-2	9.376687E-2	8.555374E-2	8.867368E-2	6.990878E-2	7.370206E-2	6.632577E-2	9.171175E-2	8.445106E-2	6.086714E-2	8.240439E-2	7.115790E-2	6.728609E-2	8.663370E-2	7.260279E-2	7.584822E-2	8.529264E-2	8.074927E-2	9.123348E-2	7.792083E-2	6.904581E-2	8.708046E-2	8.272634E-2	8.956542E-2	7.895847E-2	9.218825E-2	7.340740E-2	8.929694E-2	8.230131E-2	7.112878E-2	9.176058E-2	6.753703E-2	6.770242E-2	7.925216E-2	7.335133E-2	7.244562E-2	5.988743E-2	7.291151E-2	6.728796E-2	6.921131E-2	9.099598E-2	8.947125E-2	8.192631E-2	6.356666E-2	6.270585E-2	9.942951E-2	8.817088E-2	7.799199E-2	9.132377E-2	8.316314E-2	9.270309E-2	6.858599E-2	6.129255E-2	8.578259E-2	8.020094E-2	9.100185E-2	6.013854E-2	9.783246E-2	5.901226E-2	5.901960E-2	6.147198E-2	1.003669E-1	8.479030E-2	7.189225E-2	5.597785E-2	8.276779E-2	1.059944E-1	7.702288E-2	7.053053E-2	7.744082E-2	6.853640E-2	6.440477E-2	6.734766E-2	5.440295E-2	8.600920E-2	5.909654E-2	7.775611E-2	8.773723E-2	1.095251E-1	7.798398E-2	9.095424E-2	6.673019E-2	9.896101E-2	7.996799E-2	6.500149E-2	9.662428E-2	8.158821E-2	7.337591E-2	9.114359E-2	9.805481E-2	6.870404E-2	7.553150E-2	7.551665E-2	8.176864E-2	8.912138E-2	9.143858E-2	8.318364E-2	8.189869E-2	8.500033E-2	8.509179E-2	9.008689E-2	7.610147E-2	8.344371E-2	7.607800E-2	8.720378E-2	8.639396E-2	9.578774E-2
2.846010E+2	1.389901E-1	1.129816E-1	1.516506E-1	1.095896E-1	1.673773E-1	1.035333E-1	1.326014E-1	1.118226E-1	1.344964E-1	1.203685E-1	1.124267E-1	1.172122E-1	1.102965E-1	1.317223E-1	1.417730E-1	1.162876E-1	1.025272E-1	1.370840E-1	1.222173E-1	1.100882E-1	1.618834E-1	1.268737E-1	1.347122E-1	1.356120E-1	1.810830E-1	1.247361E-1	1.268338E-1	1.328173E-1	9.203320E-2	1.028061E-1	1.353243E-1	1.442084E-1	1.114739E-1	1.138978E-1	1.342063E-1	1.089290E-1	1.392843E-1	1.068258E-1	1.041409E-1	1.108482E-1	1.280562E-1	1.060997E-1	1.226853E-1	1.332694E-1	1.242865E-1	1.034483E-1	1.448867E-1	1.122722E-1	1.312788E-1	1.239195E-1	1.520881E-1	1.369498E-1	1.608996E-1	9.648120E-2	1.117599E-1	1.131022E-1	1.505703E-1	1.050300E-1	1.305814E-1	1.189285E-1	1.268264E-1	1.265721E-1	1.388314E-1	1.361575E-1	1.447328E-1	1.157493E-1	1.153473E-1	1.356091E-1	1.391260E-1	1.147417E-1	9.911646E-2	1.102667E-1	1.339332E-1	1.241928E-1	1.162204E-1	1.103825E-1	1.313065E-1	1.167584E-1	1.369637E-1	1.361038E-1	1.082212E-1	1.004744E-1	1.591374E-1	1.350256E-1	1.202342E-1	1.318851E-1	1.205133E-1	1.389178E-1	1.534140E-1	1.220267E-1	1.154779E-1	1.215019E-1	1.287058E-1	1.270960E-1	1.446398E-1	1.243177E-1	1.324948E-1	1.223465E-1	1.065021E-1	1.538757E-1	1.319074E-1	1.314308E-1	1.306791E-1	1.112768E-1	1.133594E-1	1.289385E-1	1.102576E-1	1.286155E-1	1.323500E-1	1.053843E-1	1.470864E-1	1.431036E-1	1.290902E-1	1.127417E-1	1.618152E-1	1.450207E-1	1.109229E-1	9.659708E-2	1.168676E-1	1.336008E-1	1.201977E-1	1.164766E-1	1.334505E-1	1.149307E-1	1.143864E-1	1.286341E-1	1.496699E-1	1.534113E-1	1.131540E-1	9.141164E-2	1.521626E-1	1.546910E-1	1.268785E-1	1.129490E-1	1.380204E-1	1.356741E-1	1.489702E-1	1.205606E-1	1.401567E-1	1.469528E-1	1.113174E-1	1.165846E-1	1.200786E-1	1.810517E-1	1.315283E-1	1.045708E-1	1.089450E-1	1.293011E-1	1.247501E-1	1.169239E-1	1.430885E-1	1.316214E-1	1.528276E-1	1.281170E-1	1.634976E-1	1.305712E-1	1.285211E-1	1.203244E-1	1.476111E-1	1.329447E-1	1.259172E-1	1.403577E-1	1.249207E-1	1.305124E-1	1.311317E-1	1.367201E-1	1.492247E-1	1.361654E-1	1.299094E-1	1.301349E-1	8.412796E-2	1.281668E-1
2.847020E+2	2.691306E-1	2.858378E-1	2.727722E-1	2.819268E-1	3.274298E-1	2.333606E-1	2.315098E-1	2.613373E-1	2.762660E-1	2.693774E-1	2.507397E-1	2.946148E-1	2.341265E-1	2.906198E-1	3.114999E-1	2.857510E-1	2.588712E-1	2.842530E-1	2.670370E-1	2.819329E-1	2.944219E-1	2.601155E-1	2.803843E-1	2.518794E-1	3.039204E-1	2.680404E-1	2.554978E-1	2.544890E-1	2.510157E-1	2.540190E-1	2.770207E-1	2.780407E-1	2.446939E-1	2.416899E-1	2.895313E-1	3.208497E-1	2.889947E-1	2.566453E-1	2.352418E-1	2.438291E-1	2.763746E-1	2.385986E-1	2.639661E-1	2.721852E-1	2.634869E-1	2.387268E-1	2.922368E-1	3.101882E-1	2.943454E-1	2.491834E-1	2.976993E-1	2.916852E-1	2.826363E-1	2.374783E-1	2.463100E-1	2.804368E-1	2.956658E-1	2.432130E-1	2.587389E-1	2.713418E-1	2.421584E-1	2.664344E-1	3.047072E-1	3.122353E-1	3.064497E-1	3.006324E-1	2.992122E-1	2.919047E-1	3.210602E-1	2.720368E-1	2.363547E-1	2.288242E-1	2.765288E-1	2.871331E-1	2.969836E-1	2.651364E-1	2.695049E-1	2.636988E-1	2.830027E-1	2.944329E-1	2.609552E-1	2.835005E-1	3.272470E-1	2.771064E-1	3.106445E-1	2.629948E-1	2.627966E-1	2.614465E-1	3.126417E-1	2.790995E-1	2.717123E-1	2.455350E-1	2.469324E-1	2.280620E-1	2.925695E-1	2.638481E-1	2.532396E-1	2.244027E-1	2.736358E-1	3.204778E-1	2.869600E-1	2.552251E-1	2.678771E-1	2.641195E-1	3.055875E-1	2.542372E-1	2.837779E-1	2.739688E-1	2.683711E-1	2.397162E-1	3.247165E-1	3.198439E-1	2.796954E-1	2.602873E-1	3.163434E-1	2.992195E-1	2.955125E-1	2.550747E-1	2.587428E-1	2.735729E-1	3.010245E-1	2.667113E-1	2.665497E-1	2.643517E-1	2.566488E-1	2.495261E-1	3.213502E-1	2.677799E-1	2.714642E-1	2.256076E-1	2.813141E-1	3.156017E-1	2.632022E-1	2.233971E-1	2.624106E-1	2.553171E-1	2.710233E-1	2.526427E-1	2.526511E-1	2.865331E-1	2.638023E-1	2.449561E-1	2.940234E-1	3.099877E-1	2.621442E-1	2.560548E-1	2.311921E-1	3.217713E-1	2.455012E-1	2.435832E-1	2.757230E-1	2.877857E-1	2.790156E-1	2.622531E-1	2.900195E-1	2.605823E-1	2.558670E-1	2.941482E-1	3.006736E-1	3.099235E-1	2.694227E-1	2.781380E-1	3.176240E-1	3.348699E-1	2.708960E-1	2.503352E-1	2.675363E-1	2.609919E-1	2.408678E-1	2.773270E-1	2.790103E-1	2.432920E-1
2.848020E+2	6.480998E-1	5.388754E-1	6.053610E-1	5.113762E-1	7.201265E-1	4.856199E-1	5.191748E-1	5.277901E-1	5.753747E-1	5.489689E-1	5.591102E-1	5.292739E-1	5.508064E-1	5.607447E-1	6.691652E-1	5.914835E-1	5.244206E-1	6.025268E-1	5.984046E-1	6.297153E-1	5.982729E-1	5.328697E-1	5.303053E-1	5.501655E-1	6.216604E-1	5.546487E-1	5.305444E-1	5.777087E-1	5.166934E-1	5.328393E-1	6.143945E-1	6.465026E-1	5.675572E-1	5.592803E-1	6.174399E-1	6.515189E-1	6.140803E-1	5.063455E-1	5.363525E-1	5.478915E-1	6.597332E-1	5.140363E-1	5.774047E-1	5.508679E-1	6.214324E-1	4.608752E-1	6.220602E-1	6.508770E-1	5.690367E-1	5.073965E-1	5.907095E-1	6.002657E-1	6.374647E-1	4.983954E-1	5.146125E-1	5.886047E-1	5.749050E-1	5.010061E-1	5.437201E-1	6.519135E-1	5.780247E-1	4.847913E-1	6.028045E-1	6.471261E-1	6.032093E-1	5.526726E-1	5.676721E-1	6.136891E-1	6.084857E-1	5.250761E-1	5.500418E-1	5.181705E-1	6.286389E-1	6.030794E-1	5.374251E-1	5.116941E-1	5.337294E-1	5.708701E-1	5.981847E-1	5.848446E-1	5.315600E-1	5.550868E-1	6.899109E-1	6.021407E-1	6.363069E-1	5.384018E-1	5.590256E-1	5.673778E-1	6.153317E-1	5.586206E-1	6.443476E-1	5.526652E-1	5.607706E-1	5.103393E-1	6.256379E-1	5.444589E-1	5.551030E-1	5.530705E-1	5.325104E-1	6.046279E-1	5.933011E-1	5.076365E-1	5.198075E-1	5.653308E-1	6.137038E-1	5.577785E-1	5.973790E-1	5.153431E-1	6.022403E-1	5.181765E-1	6.219222E-1	6.422744E-1	6.212458E-1	4.831923E-1	6.207730E-1	6.268935E-1	6.426755E-1	4.873000E-1	5.608245E-1	5.227724E-1	6.758622E-1	5.206799E-1	5.646163E-1	5.201098E-1	5.965398E-1	5.577254E-1	6.497429E-1	6.148287E-1	5.400864E-1	4.834454E-1	5.598572E-1	6.437740E-1	6.308868E-1	4.867103E-1	5.846934E-1	5.626010E-1	6.267208E-1	5.595677E-1	5.597047E-1	5.843705E-1	5.771275E-1	5.080398E-1	5.903412E-1	6.497387E-1	5.249976E-1	5.624271E-1	5.266961E-1	6.412911E-1	5.749701E-1	5.456779E-1	5.333868E-1	5.167250E-1	6.276678E-1	5.769559E-1	5.910570E-1	5.932303E-1	5.849149E-1	5.931243E-1	6.478433E-1	6.748366E-1	5.965055E-1	5.911896E-1	5.892003E-1	6.231129E-1	5.931766E-1	5.877908E-1	5.879642E-1	5.936037E-1	5.748424E-1	5.701782E-1	5.237466E-1	6.030580E-1
2.849020E+2	1.047892E+0	9.127030E-1	8.902957E-1	8.670732E-1	1.107576E+0	7.871814E-1	8.106150E-1	9.178647E-1	9.269294E-1	8.125380E-1	8.712609E-1	9.441510E-1	8.674859E-1	8.886520E-1	1.049412E+0	9.417648E-1	8.229666E-1	9.340994E-1	9.903175E-1	9.263523E-1	9.768518E-1	8.902714E-1	8.941398E-1	8.476499E-1	1.060600E+0	8.246558E-1	8.495064E-1	8.888538E-1	8.494973E-1	8.382144E-1	9.930029E-1	1.007341E+0	9.115783E-1	8.451122E-1	9.580655E-1	1.014159E+0	9.983359E-1	8.453734E-1	9.288097E-1	9.049960E-1	1.018776E+0	8.240036E-1	9.479160E-1	8.960263E-1	9.160378E-1	8.269231E-1	9.544539E-1	9.855211E-1	9.087600E-1	8.201724E-1	9.399978E-1	1.026234E+0	9.573765E-1	8.072800E-1	8.593462E-1	9.225167E-1	9.791639E-1	8.234328E-1	8.742315E-1	9.604342E-1	8.492112E-1	7.837840E-1	9.577965E-1	9.802916E-1	9.099717E-1	8.695025E-1	9.526675E-1	9.293436E-1	1.008281E+0	8.920971E-1	9.094755E-1	8.514580E-1	9.847313E-1	1.014407E+0	8.288942E-1	8.614211E-1	8.559535E-1	8.891178E-1	9.397690E-1	9.616170E-1	9.042648E-1	9.700587E-1	1.071463E+0	1.015733E+0	9.415669E-1	8.719942E-1	8.544774E-1	8.896977E-1	9.361509E-1	9.166782E-1	9.626401E-1	9.171712E-1	8.172864E-1	8.452332E-1	9.859331E-1	1.002584E+0	8.775993E-1	8.190579E-1	9.648781E-1	1.055379E+0	9.342659E-1	8.733921E-1	8.343199E-1	8.941287E-1	1.010117E+0	9.239680E-1	9.200182E-1	9.003088E-1	9.438401E-1	7.798442E-1	1.028305E+0	1.008492E+0	9.923810E-1	8.171545E-1	1.083433E+0	9.499773E-1	9.940732E-1	7.901342E-1	9.043545E-1	8.528810E-1	1.005493E+0	9.499218E-1	9.245464E-1	8.317866E-1	8.787569E-1	8.733872E-1	1.054732E+0	9.863287E-1	9.106006E-1	7.133879E-1	9.155056E-1	1.004763E+0	1.070239E+0	8.188547E-1	8.867839E-1	9.094791E-1	1.013804E+0	8.436872E-1	9.110196E-1	9.588792E-1	9.043776E-1	8.899858E-1	1.004662E+0	1.009254E+0	8.762800E-1	8.619909E-1	8.028510E-1	9.551223E-1	9.140342E-1	8.627199E-1	8.645498E-1	8.677152E-1	1.043621E+0	8.968179E-1	9.863305E-1	8.980837E-1	9.054160E-1	8.928734E-1	1.105320E+0	9.672732E-1	9.972040E-1	9.979697E-1	8.921460E-1	1.042538E+0	1.014114E+0	9.252455E-1	9.741196E-1	9.696330E-1	1.037353E+0	9.887559E-1	8.568589E-1	9.304464E-1
2.850010E+2	1.213430E+0	1.030372E+0	1.145445E+0	1.038408E+0	1.194161E+0	9.778137E-1	1.035612E+0	9.654750E-1	1.102297E+0	1.005608E+0	1.007306E+0	1.128125E+0	1.001466E+0	1.029492E+0	1.198743E+0	1.179363E+0	9.384575E-1	1.083042E+0	1.132683E+0	1.091037E+0	1.110801E+0	1.072107E+0	1.002531E+0	1.009622E+0	1.144948E+0	1.006408E+0	1.016692E+0	1.026316E+0	1.014839E+0	9.820512E-1	1.160940E+0	1.183525E+0	1.051852E+0	9.986135E-1	1.164258E+0	1.127426E+0	1.142344E+0	9.558043E-1	1.130114E+0	1.031253E+0	1.116034E+0	9.974568E-1	1.074228E+0	1.017897E+0	1.096483E+0	9.602118E-1	1.160057E+0	1.124516E+0	1.103859E+0	9.538901E-1	1.084717E+0	1.139173E+0	1.217836E+0	9.308340E-1	9.731965E-1	1.080007E+0	1.073156E+0	9.735027E-1	9.492705E-1	1.160880E+0	1.048705E+0	8.901081E-1	1.079599E+0	1.148602E+0	1.044180E+0	1.006189E+0	1.103729E+0	1.147952E+0	1.192509E+0	1.006079E+0	9.806369E-1	9.393391E-1	1.120954E+0	1.110780E+0	1.120365E+0	9.759563E-1	9.626455E-1	1.070762E+0	1.159241E+0	1.125026E+0	1.115104E+0	1.070427E+0	1.265071E+0	1.191874E+0	1.098731E+0	1.031032E+0	1.036413E+0	1.037201E+0	1.119026E+0	1.058550E+0	1.140224E+0	1.009141E+0	1.057323E+0	9.405108E-1	1.192854E+0	1.130487E+0	1.012100E+0	9.412043E-1	1.048444E+0	1.175703E+0	1.096846E+0	9.907563E-1	1.021262E+0	1.023113E+0	1.161876E+0	1.062502E+0	1.054677E+0	9.901632E-1	1.094545E+0	9.582543E-1	1.160012E+0	1.197174E+0	1.116091E+0	9.615272E-1	1.249065E+0	1.151905E+0	1.221847E+0	9.580271E-1	1.020723E+0	9.790987E-1	1.175019E+0	1.016991E+0	1.069830E+0	1.011459E+0	1.002563E+0	9.524890E-1	1.177990E+0	1.074668E+0	1.031859E+0	8.611554E-1	1.098631E+0	1.149794E+0	1.194878E+0	9.429087E-1	1.013597E+0	1.039450E+0	1.123652E+0	9.273072E-1	9.976940E-1	1.171199E+0	9.858425E-1	1.008056E+0	1.159377E+0	1.177718E+0	1.032045E+0	9.300738E-1	9.163037E-1	1.223443E+0	1.141143E+0	9.382436E-1	1.061388E+0	1.017056E+0	1.220284E+0	9.871026E-1	1.169570E+0	1.026301E+0	1.075496E+0	1.108415E+0	1.235295E+0	1.174591E+0	1.202214E+0	1.096384E+0	1.173581E+0	1.232617E+0	1.277199E+0	1.004099E+0	9.954812E-1	1.031660E+0	1.147212E+0	1.114483E+0	1.151449E+0	1.059962E+0
2.851000E+2	1.169703E+0	1.037660E+0	1.114669E+0	1.014362E+0	1.190663E+0	9.506983E-1	9.465192E-1	9.880278E-1	1.040837E+0	9.751653E-1	1.044340E+0	1.094333E+0	9.791361E-1	1.017213E+0	1.187817E+0	1.162767E+0	9.706687E-1	1.059104E+0	1.095865E+0	1.103311E+0	1.132656E+0	9.725674E-1	1.029457E+0	9.767469E-1	1.163784E+0	9.609702E-1	9.982021E-1	9.845206E-1	9.576045E-1	9.304175E-1	1.150444E+0	1.177596E+0	1.032261E+0	9.971008E-1	1.143366E+0	1.144782E+0	1.093153E+0	9.719823E-1	1.010008E+0	9.976342E-1	1.137917E+0	9.372296E-1	1.070485E+0	1.002556E+0	1.076597E+0	9.356761E-1	1.146351E+0	1.154733E+0	1.060179E+0	9.146966E-1	1.053450E+0	1.156069E+0	1.234822E+0	9.228390E-1	9.445344E-1	1.095908E+0	1.097795E+0	8.947530E-1	9.349383E-1	1.069433E+0	9.918176E-1	9.157968E-1	1.152522E+0	1.184853E+0	1.071689E+0	1.007770E+0	1.050211E+0	1.141823E+0	1.113773E+0	9.962010E-1	9.457827E-1	9.393395E-1	1.065191E+0	1.066071E+0	1.033010E+0	9.287434E-1	9.927201E-1	1.065594E+0	1.127888E+0	1.067452E+0	9.930825E-1	1.099103E+0	1.241461E+0	1.175330E+0	1.144067E+0	1.021722E+0	1.033303E+0	1.098856E+0	1.119814E+0	1.016326E+0	1.075207E+0	9.509215E-1	9.534259E-1	9.561537E-1	1.182869E+0	1.102581E+0	1.017449E+0	8.994175E-1	1.073878E+0	1.111840E+0	1.158565E+0	9.827172E-1	9.225759E-1	9.940357E-1	1.106691E+0	1.024560E+0	1.061907E+0	9.901635E-1	9.963932E-1	9.428624E-1	1.180806E+0	1.092085E+0	1.124160E+0	9.861184E-1	1.203725E+0	1.137219E+0	1.201524E+0	9.439049E-1	9.681184E-1	1.000943E+0	1.157124E+0	1.030405E+0	1.067956E+0	1.015125E+0	1.048702E+0	1.044278E+0	1.146295E+0	1.110161E+0	1.068068E+0	8.023493E-1	1.080318E+0	1.163557E+0	1.197215E+0	9.060926E-1	9.748257E-1	1.044615E+0	1.132370E+0	9.064018E-1	1.064084E+0	1.101409E+0	1.005338E+0	9.929998E-1	1.038752E+0	1.239834E+0	1.018254E+0	9.726257E-1	9.207007E-1	1.098289E+0	1.062775E+0	9.319497E-1	1.051252E+0	9.465554E-1	1.192242E+0	9.991397E-1	1.128559E+0	1.028094E+0	1.059257E+0	1.006438E+0	1.210497E+0	1.127396E+0	1.123005E+0	1.056081E+0	1.062442E+0	1.158548E+0	1.154700E+0	1.046492E+0	1.048064E+0	9.773864E-1	1.067015E+0	1.131349E+0	1.029081E+0	1.020388E+0
2.851990E+2	1.030193E+0	8.950018E-1	1.010423E+0	8.941255E-1	1.076090E+0	8.537389E-1	8.408151E-1	8.961476E-1	9.785572E-1	8.614060E-1	9.385279E-1	9.554146E-1	8.654565E-1	9.052646E-1	1.025374E+0	9.714653E-1	8.928898E-1	9.270063E-1	9.706813E-1	9.376040E-1	9.789682E-1	8.965412E-1	8.886172E-1	9.350506E-1	1.003275E+0	8.814532E-1	8.733912E-1	9.083590E-1	8.629216E-1	8.883733E-1	1.026740E+0	9.895529E-1	8.982565E-1	8.284759E-1	9.271822E-1	1.010505E+0	9.997622E-1	8.073915E-1	9.102023E-1	8.937892E-1	1.031744E+0	8.505037E-1	9.516592E-1	8.696072E-1	9.823232E-1	8.003977E-1	9.947179E-1	1.057285E+0	9.242909E-1	8.647451E-1	9.283853E-1	1.017342E+0	1.097043E+0	8.298102E-1	8.983575E-1	8.907152E-1	9.700384E-1	8.761797E-1	8.270159E-1	9.816802E-1	8.071307E-1	7.937740E-1	9.986648E-1	1.021722E+0	8.916328E-1	9.153282E-1	9.388554E-1	1.021282E+0	1.074786E+0	8.662617E-1	8.441244E-1	8.605774E-1	9.536626E-1	9.905614E-1	9.473853E-1	8.692899E-1	8.910408E-1	8.935484E-1	9.240923E-1	9.218229E-1	9.075845E-1	9.422245E-1	1.040296E+0	9.651280E-1	9.491232E-1	9.022491E-1	8.995726E-1	8.896980E-1	9.771403E-1	8.651655E-1	9.005335E-1	8.606389E-1	8.789077E-1	7.983053E-1	1.041293E+0	9.428953E-1	9.135171E-1	8.512020E-1	9.276359E-1	1.006324E+0	1.000502E+0	8.766075E-1	8.407381E-1	8.904008E-1	1.022074E+0	9.195555E-1	9.299599E-1	8.641904E-1	9.098343E-1	8.512085E-1	1.008376E+0	1.046706E+0	9.905878E-1	8.353994E-1	1.128774E+0	9.949521E-1	1.010161E+0	8.081788E-1	9.346416E-1	8.860537E-1	1.062943E+0	9.123635E-1	9.601647E-1	8.620378E-1	9.256650E-1	8.614469E-1	1.080264E+0	1.006835E+0	9.139679E-1	7.043416E-1	9.453837E-1	9.899417E-1	1.035185E+0	8.340615E-1	9.021300E-1	8.888218E-1	9.946241E-1	8.617415E-1	8.953429E-1	9.441347E-1	8.577273E-1	8.899857E-1	9.627054E-1	1.056312E+0	8.892607E-1	8.262477E-1	8.397891E-1	1.007270E+0	9.980004E-1	8.257452E-1	9.270655E-1	8.464886E-1	1.061381E+0	8.589859E-1	1.048282E+0	9.303616E-1	9.883183E-1	9.222297E-1	1.067696E+0	1.030479E+0	9.739076E-1	9.332966E-1	9.979090E-1	9.907791E-1	1.135791E+0	9.498337E-1	9.009956E-1	9.076080E-1	1.007691E+0	9.718906E-1	9.950907E-1	9.664230E-1
2.853000E+2	7.542944E-1	6.929884E-1	7.433605E-1	7.428289E-1	7.804742E-1	7.567786E-1	6.377132E-1	6.773049E-1	6.827261E-1	7.236131E-1	6.687030E-1	7.292035E-1	6.435102E-1	7.376992E-1	7.995575E-1	7.583257E-1	6.131986E-1	7.408292E-1	7.448616E-1	6.992711E-1	7.195310E-1	6.731653E-1	6.676924E-1	6.576123E-1	7.887198E-1	5.834850E-1	6.985008E-1	6.743035E-1	6.198555E-1	6.707743E-1	7.635887E-1	7.710165E-1	6.804024E-1	6.469956E-1	7.909317E-1	7.848830E-1	8.201105E-1	6.280295E-1	7.122816E-1	6.338052E-1	7.837365E-1	6.232476E-1	7.261706E-1	6.795566E-1	7.223350E-1	5.968171E-1	7.762628E-1	7.029995E-1	6.826017E-1	5.742560E-1	7.220270E-1	7.754557E-1	7.290017E-1	6.190423E-1	6.730465E-1	6.438781E-1	7.628895E-1	5.983284E-1	6.229754E-1	6.934803E-1	6.255603E-1	5.911155E-1	7.510517E-1	7.809104E-1	7.357507E-1	6.490647E-1	7.325467E-1	7.240147E-1	7.537264E-1	6.063832E-1	6.197508E-1	6.425309E-1	7.513189E-1	7.501240E-1	6.464015E-1	6.568307E-1	6.576067E-1	6.882745E-1	7.046199E-1	7.474071E-1	7.374193E-1	6.959405E-1	8.183535E-1	7.578456E-1	7.209331E-1	6.974397E-1	7.083064E-1	6.212276E-1	7.201692E-1	7.013370E-1	7.501218E-1	6.648854E-1	6.524853E-1	6.290811E-1	7.517870E-1	7.475532E-1	6.597999E-1	6.326262E-1	6.569528E-1	7.277283E-1	7.317950E-1	6.643898E-1	6.794700E-1	7.114637E-1	7.249945E-1	6.883705E-1	6.127430E-1	6.818387E-1	7.428987E-1	6.063319E-1	7.233013E-1	7.258666E-1	7.117886E-1	5.966285E-1	7.891812E-1	7.058280E-1	7.688400E-1	6.214568E-1	7.034971E-1	6.328090E-1	8.105404E-1	6.208359E-1	7.099006E-1	6.346974E-1	6.757457E-1	6.644382E-1	7.888483E-1	7.347178E-1	7.076599E-1	5.920086E-1	6.803349E-1	8.205633E-1	7.827909E-1	6.211688E-1	6.913135E-1	7.158125E-1	8.028263E-1	6.697943E-1	6.473026E-1	7.485254E-1	6.509335E-1	6.514679E-1	7.861377E-1	7.918516E-1	6.612921E-1	6.551895E-1	6.313532E-1	7.398964E-1	7.405039E-1	6.274958E-1	6.508146E-1	6.486309E-1	8.220909E-1	7.102320E-1	7.690607E-1	6.631668E-1	7.567040E-1	6.989628E-1	8.043261E-1	7.388858E-1	7.996503E-1	6.755449E-1	7.460507E-1	7.890981E-1	8.028230E-1	7.276902E-1	6.495838E-1	7.246327E-1	7.692953E-1	7.311687E-1	6.733083E-1	6.570231E-1
2.854010E+2	5.429462E-1	4.680666E-1	4.762969E-1	4.983514E-1	5.198418E-1	4.946591E-1	4.149809E-1	4.684855E-1	4.336055E-1	4.776689E-1	4.298667E-1	4.954827E-1	4.533669E-1	4.950194E-1	5.052658E-1	4.901545E-1	3.916463E-1	5.147576E-1	4.715849E-1	4.466185E-1	4.713747E-1	5.242485E-1	4.295085E-1	4.242760E-1	4.947280E-1	4.847446E-1	4.172896E-1	4.049534E-1	4.262500E-1	4.236714E-1	4.726977E-1	4.872587E-1	4.155296E-1	4.201458E-1	4.775568E-1	4.779629E-1	4.750633E-1	4.796168E-1	4.365460E-1	4.156577E-1	4.409023E-1	4.762941E-1	4.370590E-1	4.485992E-1	4.490883E-1	4.184351E-1	4.867038E-1	4.793993E-1	4.477073E-1	4.097985E-1	4.683244E-1	4.908851E-1	5.223346E-1	4.148145E-1	4.063364E-1	4.447424E-1	5.028139E-1	4.051695E-1	4.290527E-1	4.653217E-1	4.206112E-1	3.920252E-1	4.505512E-1	4.891751E-1	4.398248E-1	4.159861E-1	4.744455E-1	4.594366E-1	5.037586E-1	4.148935E-1	4.215178E-1	4.493575E-1	4.884322E-1	5.166420E-1	4.111496E-1	4.120216E-1	4.363457E-1	4.601117E-1	4.389440E-1	4.739288E-1	4.244805E-1	4.741169E-1	5.038563E-1	4.717374E-1	5.025659E-1	4.522881E-1	4.571726E-1	4.339236E-1	5.246829E-1	5.163964E-1	5.104319E-1	4.396004E-1	4.117336E-1	4.072408E-1	5.530348E-1	4.824453E-1	4.198376E-1	3.843164E-1	4.444027E-1	4.509835E-1	4.736246E-1	4.505624E-1	4.259357E-1	4.467850E-1	4.849388E-1	4.598330E-1	4.437414E-1	4.025840E-1	4.492174E-1	4.286216E-1	4.590222E-1	4.814570E-1	4.984316E-1	3.919681E-1	5.032579E-1	5.075723E-1	4.877224E-1	4.080613E-1	4.444555E-1	4.370085E-1	5.496597E-1	4.518216E-1	4.277687E-1	4.036897E-1	4.535089E-1	3.756407E-1	4.895085E-1	5.067702E-1	4.584049E-1	3.477412E-1	4.740776E-1	5.093291E-1	5.381865E-1	3.994730E-1	4.611113E-1	4.197179E-1	5.255912E-1	4.170331E-1	4.269246E-1	4.752623E-1	4.441377E-1	4.264206E-1	4.775836E-1	4.916278E-1	4.219654E-1	4.194532E-1	4.361094E-1	4.857979E-1	4.830068E-1	3.906970E-1	3.973738E-1	4.454650E-1	5.341951E-1	4.299225E-1	4.706421E-1	4.533567E-1	4.626976E-1	4.231635E-1	5.306944E-1	4.700474E-1	4.902736E-1	5.096458E-1	4.861262E-1	4.838998E-1	4.945192E-1	4.673917E-1	4.277503E-1	4.462928E-1	4.507008E-1	4.490511E-1	4.761591E-1	4.555538E-1
2.855000E+2	4.294642E-1	4.035062E-1	3.621244E-1	3.871336E-1	4.507489E-1	3.952343E-1	2.881369E-1	3.381826E-1	3.549357E-1	3.967552E-1	3.739371E-1	3.565643E-1	3.613393E-1	3.693464E-1	3.909005E-1	3.792179E-1	3.342933E-1	3.968459E-1	3.742202E-1	3.883135E-1	3.832505E-1	4.184378E-1	3.570172E-1	3.168290E-1	3.841743E-1	3.449356E-1	3.340823E-1	3.529411E-1	3.096626E-1	3.240928E-1	4.067222E-1	3.737560E-1	3.332466E-1	3.203318E-1	3.894481E-1	3.500796E-1	3.681272E-1	3.762202E-1	3.375860E-1	3.177899E-1	3.752528E-1	3.927789E-1	3.154262E-1	3.318418E-1	3.459764E-1	3.388593E-1	3.907555E-1	3.509805E-1	3.554966E-1	3.629202E-1	3.593385E-1	3.921740E-1	3.958793E-1	3.326873E-1	3.291092E-1	3.440385E-1	3.549809E-1	3.643087E-1	3.438959E-1	3.600189E-1	3.473605E-1	3.563464E-1	3.672119E-1	3.553909E-1	3.406270E-1	3.393471E-1	3.535952E-1	4.165322E-1	4.082044E-1	3.335864E-1	3.220380E-1	3.026120E-1	4.119560E-1	3.725783E-1	3.713645E-1	3.071038E-1	3.174803E-1	3.537828E-1	3.646867E-1	3.858746E-1	3.257011E-1	3.712175E-1	3.952468E-1	3.880464E-1	3.620250E-1	3.716055E-1	3.242195E-1	3.457338E-1	3.946199E-1	3.542575E-1	3.260556E-1	3.273803E-1	3.293328E-1	3.084081E-1	3.923989E-1	3.630695E-1	3.411242E-1	3.079753E-1	3.381272E-1	3.963752E-1	3.750232E-1	3.227499E-1	3.352723E-1	3.409132E-1	4.205564E-1	3.336517E-1	3.669223E-1	3.602992E-1	3.371544E-1	3.467626E-1	3.784383E-1	3.827378E-1	3.944430E-1	3.300942E-1	4.033243E-1	4.075263E-1	3.878067E-1	3.515737E-1	3.551863E-1	3.196914E-1	4.262840E-1	3.445116E-1	3.771531E-1	3.312707E-1	3.420058E-1	3.301208E-1	4.041086E-1	3.805710E-1	3.430408E-1	2.889364E-1	3.786593E-1	4.045258E-1	3.745986E-1	3.002299E-1	3.552991E-1	3.706562E-1	3.878460E-1	3.229599E-1	3.393270E-1	3.700856E-1	3.438743E-1	3.360849E-1	3.691955E-1	4.088073E-1	3.294793E-1	3.275415E-1	3.059469E-1	4.052068E-1	3.702518E-1	3.112400E-1	3.357038E-1	3.188667E-1	4.023996E-1	3.404989E-1	3.860022E-1	3.439690E-1	3.832128E-1	3.405012E-1	4.203876E-1	4.118963E-1	3.607452E-1	3.756152E-1	3.785715E-1	3.687816E-1	3.983284E-1	3.486897E-1	3.258705E-1	3.586816E-1	3.661079E-1	3.616554E-1	3.605893E-1	3.404289E-1
2.856030E+2	3.118166E-1	3.243665E-1	2.827001E-1	2.839308E-1	3.064393E-1	3.294989E-1	2.549158E-1	2.630078E-1	2.959335E-1	3.086326E-1	2.424261E-1	3.021237E-1	2.638999E-1	2.949534E-1	3.013021E-1	3.137034E-1	2.557285E-1	3.285801E-1	3.267648E-1	2.676131E-1	2.894867E-1	3.110608E-1	2.748610E-1	2.775382E-1	3.121094E-1	3.230901E-1	2.747589E-1	2.739943E-1	2.573752E-1	2.577067E-1	3.197551E-1	3.034517E-1	2.509635E-1	2.772303E-1	2.504732E-1	3.034938E-1	3.061044E-1	2.904077E-1	3.240526E-1	2.498057E-1	3.112249E-1	3.301433E-1	2.742579E-1	2.807070E-1	2.782176E-1	2.553052E-1	3.076565E-1	2.996131E-1	2.691091E-1	2.952927E-1	2.905531E-1	3.379279E-1	3.411451E-1	3.028889E-1	2.590477E-1	2.857369E-1	2.929273E-1	2.989317E-1	2.671707E-1	2.722654E-1	2.678743E-1	2.678617E-1	2.790651E-1	2.587217E-1	3.147857E-1	2.650778E-1	2.715894E-1	3.266367E-1	3.118870E-1	2.826746E-1	2.893628E-1	2.346277E-1	2.940552E-1	3.318433E-1	2.978487E-1	2.467762E-1	2.573322E-1	2.732980E-1	2.879540E-1	2.681859E-1	2.692562E-1	2.784400E-1	3.159139E-1	2.741871E-1	3.076216E-1	3.025599E-1	2.868992E-1	2.559834E-1	3.039708E-1	2.841659E-1	3.221739E-1	2.539725E-1	2.662786E-1	2.721452E-1	3.315940E-1	2.770262E-1	2.624106E-1	2.533320E-1	2.709109E-1	2.973389E-1	3.208308E-1	2.672832E-1	2.550398E-1	2.656104E-1	3.092667E-1	2.568843E-1	3.009488E-1	2.563501E-1	2.946476E-1	2.362188E-1	2.874574E-1	2.991442E-1	3.012098E-1	2.483884E-1	3.367005E-1	2.872880E-1	3.132938E-1	2.535061E-1	2.762780E-1	2.493007E-1	3.076169E-1	2.711826E-1	3.049801E-1	2.597688E-1	2.666458E-1	2.666897E-1	3.187086E-1	3.048506E-1	2.664118E-1	2.339008E-1	2.832416E-1	2.997217E-1	3.153946E-1	2.442059E-1	2.817960E-1	2.871641E-1	3.041518E-1	2.535934E-1	2.664823E-1	2.708064E-1	2.296845E-1	2.623895E-1	2.905270E-1	3.363394E-1	2.613325E-1	2.432892E-1	2.698890E-1	2.800541E-1	3.110760E-1	2.459436E-1	2.909288E-1	2.612525E-1	3.238825E-1	2.777296E-1	3.057263E-1	2.641685E-1	2.738144E-1	2.663361E-1	2.921229E-1	3.217222E-1	3.057657E-1	2.865729E-1	2.719127E-1	3.339779E-1	3.473560E-1	2.986648E-1	2.790388E-1	2.850268E-1	2.529523E-1	2.711939E-1	2.926070E-1	3.008546E-1
2.858010E+2	2.618427E-1	2.504336E-1	2.161827E-1	2.418483E-1	2.941950E-1	2.341823E-1	1.786580E-1	1.794801E-1	2.057910E-1	2.413377E-1	2.084145E-1	2.016894E-1	2.199162E-1	2.350055E-1	2.357423E-1	2.377070E-1	2.038760E-1	2.283993E-1	2.269460E-1	2.307889E-1	2.457776E-1	2.467915E-1	1.975377E-1	2.085794E-1	2.400447E-1	2.461954E-1	2.138932E-1	2.191949E-1	1.944883E-1	2.112361E-1	2.267898E-1	2.263709E-1	1.788675E-1	2.106874E-1	2.341229E-1	2.075818E-1	2.283975E-1	2.728237E-1	2.090223E-1	2.199220E-1	2.350400E-1	2.514469E-1	1.891152E-1	2.133804E-1	2.141407E-1	1.916445E-1	2.271283E-1	2.369141E-1	2.351371E-1	2.030736E-1	2.271269E-1	2.258782E-1	2.260142E-1	2.178546E-1	2.025211E-1	2.100198E-1	2.354373E-1	2.164676E-1	1.870717E-1	2.325453E-1	2.039743E-1	2.143431E-1	2.349913E-1	2.172909E-1	2.105865E-1	1.813273E-1	2.310183E-1	1.928152E-1	2.308574E-1	2.446805E-1	2.131187E-1	2.271658E-1	2.359013E-1	2.493792E-1	2.226025E-1	2.074316E-1	1.964673E-1	2.245637E-1	2.169967E-1	2.123054E-1	2.103204E-1	2.531364E-1	2.516922E-1	2.274756E-1	2.486859E-1	2.389448E-1	2.278084E-1	2.154004E-1	2.487929E-1	2.495426E-1	2.406601E-1	2.109407E-1	1.817286E-1	2.230847E-1	2.290410E-1	2.297405E-1	1.989807E-1	2.059196E-1	2.118687E-1	2.381024E-1	2.101861E-1	2.118170E-1	2.125167E-1	2.141662E-1	2.402846E-1	2.524725E-1	2.042475E-1	2.404937E-1	2.274103E-1	2.173277E-1	2.501984E-1	2.211237E-1	2.285972E-1	2.214175E-1	2.173342E-1	2.606703E-1	2.548687E-1	1.978032E-1	2.348313E-1	2.161279E-1	2.501666E-1	2.479320E-1	2.253080E-1	2.056838E-1	2.020502E-1	2.308697E-1	2.236246E-1	2.212434E-1	2.335706E-1	1.539864E-1	2.389060E-1	2.277356E-1	2.538543E-1	1.817790E-1	2.163696E-1	2.234691E-1	2.439972E-1	1.946787E-1	2.157671E-1	2.364025E-1	2.143666E-1	2.092977E-1	2.144808E-1	2.544604E-1	1.826387E-1	1.845677E-1	1.757849E-1	2.440245E-1	2.231105E-1	1.790738E-1	2.047588E-1	1.915094E-1	2.528428E-1	2.184005E-1	2.315580E-1	2.094741E-1	2.182614E-1	2.223007E-1	2.562087E-1	2.728419E-1	2.116478E-1	2.097162E-1	2.154457E-1	2.304604E-1	2.552752E-1	2.130288E-1	2.108449E-1	2.338554E-1	2.134029E-1	2.144637E-1	2.427532E-1	1.785340E-1
2.860100E+2	4.086415E-1	3.691429E-1	3.611321E-1	3.761122E-1	4.236366E-1	3.804434E-1	3.560892E-1	3.022661E-1	3.623109E-1	3.847390E-1	3.565535E-1	3.396693E-1	2.997629E-1	3.484007E-1	3.377246E-1	3.818381E-1	3.264376E-1	3.534036E-1	3.496740E-1	3.883137E-1	3.719709E-1	3.667095E-1	3.204268E-1	3.577225E-1	3.612444E-1	3.737711E-1	3.363933E-1	2.981426E-1	3.336866E-1	3.358945E-1	3.977257E-1	3.991670E-1	3.120879E-1	3.173068E-1	3.640149E-1	3.537337E-1	3.873757E-1	3.558219E-1	3.342023E-1	3.394549E-1	3.776850E-1	3.879610E-1	3.884063E-1	3.429212E-1	3.621801E-1	2.891246E-1	3.624847E-1	3.615559E-1	3.535549E-1	3.598462E-1	3.468328E-1	3.557137E-1	3.534127E-1	3.799289E-1	2.980598E-1	3.470673E-1	3.677565E-1	3.605940E-1	3.287196E-1	3.360019E-1	3.029418E-1	3.071095E-1	3.535895E-1	3.778323E-1	3.572989E-1	3.235450E-1	3.432361E-1	3.562604E-1	3.730412E-1	3.731000E-1	3.213114E-1	2.951497E-1	3.458360E-1	4.013914E-1	3.436881E-1	3.272129E-1	3.239254E-1	3.478758E-1	3.820131E-1	3.435405E-1	3.456235E-1	3.965210E-1	3.754132E-1	3.510668E-1	3.680700E-1	3.708303E-1	3.226644E-1	3.363684E-1	3.749135E-1	3.956373E-1	3.571086E-1	3.029110E-1	2.920737E-1	3.204951E-1	3.633579E-1	3.281875E-1	3.151414E-1	3.320836E-1	3.235942E-1	3.639794E-1	3.419051E-1	3.444530E-1	3.152147E-1	3.237651E-1	3.773278E-1	3.892421E-1	3.253505E-1	3.241817E-1	3.363814E-1	3.026847E-1	3.853708E-1	3.763684E-1	3.406549E-1	3.594445E-1	3.616843E-1	3.497022E-1	3.751060E-1	3.672648E-1	3.161306E-1	3.310184E-1	3.876703E-1	3.731272E-1	3.312242E-1	3.716052E-1	3.297015E-1	3.181800E-1	3.926632E-1	3.718941E-1	3.346199E-1	2.625497E-1	3.169753E-1	3.918219E-1	4.322435E-1	3.450497E-1	3.246060E-1	3.276189E-1	3.826149E-1	3.191594E-1	3.153525E-1	3.553406E-1	2.902613E-1	3.075580E-1	3.482174E-1	3.862201E-1	3.132545E-1	3.632855E-1	3.068265E-1	3.587485E-1	3.286686E-1	3.741769E-1	3.010671E-1	3.158348E-1	3.837047E-1	4.187447E-1	3.746596E-1	3.242427E-1	3.609916E-1	3.690851E-1	3.921689E-1	3.697590E-1	3.598141E-1	3.409355E-1	3.373420E-1	3.429018E-1	3.975062E-1	3.537767E-1	3.332649E-1	3.098366E-1	3.452344E-1	3.524563E-1	3.447265E-1	3.871983E-1
2.862030E+2	8.011450E-1	7.783762E-1	7.562664E-1	8.119650E-1	8.766803E-1	7.814295E-1	6.603638E-1	6.631049E-1	7.482843E-1	7.965155E-1	6.989361E-1	7.564237E-1	6.746361E-1	7.543112E-1	7.784322E-1	8.203463E-1	6.611231E-1	8.046614E-1	7.522248E-1	7.872392E-1	7.766357E-1	8.205151E-1	7.118774E-1	7.177509E-1	7.993654E-1	7.669848E-1	7.169912E-1	6.835911E-1	6.799151E-1	7.356847E-1	7.598402E-1	7.752523E-1	6.584605E-1	7.468094E-1	8.290818E-1	7.547387E-1	7.566617E-1	8.376369E-1	7.173571E-1	6.801245E-1	7.877887E-1	8.127610E-1	7.093290E-1	7.136465E-1	7.311726E-1	6.836870E-1	7.865430E-1	7.717418E-1	7.262802E-1	7.010564E-1	7.390012E-1	8.341485E-1	8.214847E-1	8.174553E-1	6.563274E-1	7.423101E-1	8.112546E-1	7.625132E-1	6.373084E-1	7.368951E-1	7.292031E-1	7.238428E-1	7.462434E-1	7.394808E-1	7.682609E-1	6.941008E-1	7.299572E-1	7.893925E-1	8.011210E-1	8.100308E-1	6.792932E-1	6.599427E-1	7.736247E-1	8.196717E-1	7.337562E-1	7.040432E-1	6.704955E-1	7.569452E-1	7.945544E-1	7.507937E-1	6.917651E-1	7.954667E-1	8.372424E-1	8.220744E-1	7.390677E-1	8.262216E-1	6.717635E-1	7.000525E-1	8.210664E-1	8.685433E-1	7.753517E-1	6.623540E-1	6.696821E-1	7.037386E-1	8.252979E-1	7.506538E-1	6.957174E-1	6.647694E-1	7.205359E-1	7.730811E-1	7.491063E-1	7.592446E-1	6.818772E-1	7.293567E-1	7.682228E-1	8.180815E-1	7.428826E-1	6.606963E-1	7.197141E-1	6.609043E-1	8.385440E-1	7.553240E-1	7.772307E-1	6.775409E-1	8.280453E-1	7.976140E-1	8.458937E-1	7.477688E-1	7.034972E-1	7.040087E-1	7.832283E-1	7.996868E-1	7.464561E-1	6.649482E-1	7.026600E-1	6.898103E-1	8.258253E-1	7.654795E-1	7.733421E-1	5.814540E-1	7.323811E-1	7.803364E-1	8.240775E-1	7.748359E-1	7.131220E-1	6.891295E-1	7.444149E-1	6.688442E-1	6.934067E-1	7.092071E-1	6.697322E-1	7.386334E-1	8.307176E-1	7.909106E-1	7.107798E-1	7.513569E-1	6.524606E-1	7.986804E-1	7.644937E-1	7.903432E-1	7.403641E-1	7.077606E-1	7.921798E-1	8.134133E-1	7.524819E-1	7.044119E-1	7.507212E-1	7.476341E-1	8.333987E-1	7.919794E-1	7.940594E-1	7.561510E-1	7.218509E-1	7.890981E-1	7.880244E-1	8.387620E-1	6.939506E-1	7.362622E-1	7.374345E-1	7.541685E-1	7.072988E-1	5.886674E-1
2.864190E+2	1.065591E+0	1.053280E+0	1.025317E+0	1.058448E+0	1.140811E+0	1.085456E+0	9.087680E-1	9.186998E-1	9.818346E-1	1.054476E+0	9.052719E-1	9.319487E-1	9.304163E-1	9.868792E-1	1.046499E+0	1.108608E+0	8.614637E-1	1.058217E+0	9.878637E-1	1.129907E+0	1.076256E+0	1.111296E+0	9.272790E-1	9.526922E-1	1.040945E+0	9.732025E-1	9.504348E-1	9.594423E-1	9.215689E-1	9.038631E-1	1.016244E+0	1.054775E+0	8.904198E-1	9.381204E-1	1.022557E+0	1.001371E+0	9.976232E-1	1.059905E+0	9.262725E-1	9.221786E-1	1.030933E+0	1.080972E+0	9.909558E-1	9.352299E-1	9.830598E-1	8.779842E-1	1.052115E+0	1.042177E+0	1.024266E+0	9.523534E-1	9.918111E-1	1.029791E+0	1.067788E+0	1.031857E+0	8.784544E-1	9.104014E-1	9.417492E-1	9.883610E-1	8.826628E-1	1.007544E+0	8.873955E-1	9.479080E-1	1.003473E+0	1.062289E+0	9.599876E-1	9.382410E-1	9.828801E-1	1.090746E+0	1.062555E+0	9.855622E-1	8.797047E-1	8.547736E-1	1.057225E+0	1.086935E+0	9.612239E-1	9.339890E-1	9.590656E-1	9.976616E-1	9.942241E-1	1.006491E+0	9.499183E-1	1.084765E+0	1.118684E+0	1.124726E+0	1.020904E+0	1.055857E+0	9.073475E-1	8.982830E-1	1.039413E+0	1.108375E+0	9.636104E-1	9.070456E-1	8.746081E-1	8.942937E-1	1.066704E+0	1.008010E+0	9.601342E-1	9.122749E-1	9.766862E-1	1.048900E+0	1.031362E+0	9.811093E-1	8.896804E-1	8.911468E-1	1.048746E+0	1.010441E+0	9.706277E-1	9.390693E-1	9.500229E-1	8.693992E-1	1.062098E+0	1.029191E+0	1.004931E+0	9.551809E-1	1.100089E+0	1.008719E+0	1.061812E+0	1.034128E+0	9.465977E-1	9.087079E-1	1.142055E+0	9.830090E-1	1.011717E+0	8.950380E-1	9.018264E-1	9.502503E-1	1.082906E+0	1.007624E+0	9.636511E-1	7.488218E-1	1.018634E+0	1.058754E+0	1.116200E+0	9.509122E-1	9.247469E-1	9.155045E-1	1.016419E+0	9.387107E-1	9.174738E-1	9.795218E-1	9.078597E-1	9.042491E-1	1.066723E+0	1.126897E+0	8.754695E-1	9.309246E-1	8.521014E-1	1.021491E+0	1.015594E+0	1.035795E+0	9.693052E-1	9.078931E-1	1.123072E+0	1.104901E+0	1.050027E+0	1.007472E+0	1.037889E+0	1.058971E+0	1.086507E+0	1.022053E+0	1.052185E+0	1.041084E+0	1.044516E+0	1.035399E+0	1.091395E+0	1.065145E+0	9.470060E-1	9.153608E-1	1.107662E+0	9.979560E-1	9.429715E-1	9.484326E-1
2.866180E+2	9.802186E-1	9.304060E-1	8.902953E-1	9.071515E-1	9.274074E-1	9.334426E-1	7.932493E-1	8.167962E-1	9.031649E-1	9.262966E-1	7.843421E-1	8.915870E-1	7.903467E-1	8.705951E-1	8.665737E-1	9.042040E-1	7.978268E-1	9.660151E-1	8.913168E-1	9.355579E-1	8.971883E-1	9.427842E-1	7.498487E-1	8.300088E-1	9.500463E-1	9.242695E-1	8.225411E-1	8.015481E-1	7.986224E-1	8.168241E-1	9.330255E-1	9.065432E-1	7.963820E-1	8.519174E-1	9.017488E-1	9.255540E-1	9.277585E-1	9.754988E-1	8.129335E-1	8.116104E-1	9.336752E-1	9.283966E-1	8.187991E-1	7.826785E-1	8.806847E-1	7.957558E-1	9.296096E-1	8.948726E-1	8.349915E-1	8.194040E-1	8.640658E-1	9.061807E-1	9.507702E-1	8.726911E-1	7.781389E-1	8.074260E-1	8.778704E-1	9.370990E-1	7.966626E-1	8.819183E-1	8.001168E-1	8.287399E-1	8.600330E-1	9.466305E-1	8.391162E-1	8.086654E-1	8.249118E-1	9.201495E-1	8.951457E-1	8.753799E-1	8.412199E-1	7.246099E-1	9.377307E-1	9.925480E-1	7.977585E-1	7.940987E-1	7.836322E-1	8.337388E-1	9.051160E-1	8.617089E-1	8.303879E-1	9.261997E-1	9.109083E-1	8.833831E-1	8.637406E-1	9.891388E-1	8.568097E-1	8.545785E-1	8.888559E-1	9.783251E-1	8.520130E-1	8.125436E-1	7.929244E-1	7.833739E-1	9.705046E-1	8.932851E-1	7.851297E-1	7.764687E-1	8.604197E-1	9.295025E-1	9.071697E-1	9.280545E-1	8.311104E-1	7.979500E-1	9.117041E-1	8.913193E-1	8.305467E-1	7.699310E-1	8.611440E-1	7.812436E-1	9.234596E-1	9.161417E-1	9.421793E-1	8.219137E-1	9.548134E-1	8.710416E-1	9.017786E-1	8.630969E-1	8.533424E-1	7.905806E-1	9.659374E-1	9.266709E-1	8.908025E-1	8.400374E-1	8.172384E-1	8.196574E-1	9.314750E-1	9.350598E-1	8.171296E-1	6.862468E-1	8.846639E-1	9.423051E-1	9.588428E-1	8.532690E-1	8.043951E-1	8.096338E-1	8.812887E-1	8.341849E-1	8.372517E-1	8.497701E-1	7.630332E-1	8.353081E-1	8.971482E-1	9.640799E-1	8.349050E-1	8.322047E-1	7.764669E-1	9.134047E-1	9.044382E-1	9.209365E-1	8.442748E-1	8.191980E-1	9.389311E-1	9.905418E-1	9.592803E-1	8.577349E-1	8.609741E-1	9.052337E-1	9.633736E-1	9.150219E-1	9.329057E-1	8.817462E-1	8.446435E-1	9.033242E-1	1.017402E+0	9.600085E-1	8.270517E-1	7.982878E-1	8.857466E-1	9.059603E-1	8.477944E-1	7.793435E-1
2.868020E+2	1.046851E+0	9.762235E-1	9.885826E-1	9.472303E-1	1.062971E+0	9.802792E-1	9.034829E-1	9.379115E-1	9.744597E-1	9.991992E-1	9.150978E-1	9.704328E-1	7.977899E-1	9.608773E-1	1.015175E+0	9.478807E-1	8.253239E-1	1.013003E+0	9.338629E-1	1.095129E+0	9.599327E-1	1.044675E+0	9.086385E-1	8.636864E-1	1.016378E+0	9.889306E-1	8.579822E-1	8.758507E-1	8.261795E-1	8.957494E-1	9.187810E-1	9.988710E-1	8.535890E-1	9.078737E-1	9.689652E-1	9.630051E-1	9.883557E-1	1.031770E+0	9.051273E-1	8.541941E-1	1.015534E+0	9.476699E-1	9.273333E-1	8.832423E-1	9.219292E-1	8.448274E-1	1.024701E+0	9.651259E-1	9.437034E-1	8.793468E-1	9.328517E-1	1.042241E+0	9.536015E-1	9.984252E-1	8.649194E-1	9.202452E-1	9.517875E-1	9.541865E-1	7.907611E-1	9.752136E-1	8.632376E-1	8.194629E-1	9.057097E-1	1.019996E+0	9.783261E-1	8.465899E-1	9.431715E-1	9.865503E-1	9.692953E-1	9.574468E-1	8.513860E-1	8.473124E-1	1.047665E+0	1.023348E+0	9.058703E-1	8.614202E-1	8.824478E-1	8.883794E-1	9.678217E-1	9.700837E-1	8.876629E-1	9.523458E-1	1.012907E+0	9.845913E-1	9.332556E-1	1.090768E+0	9.260080E-1	8.936000E-1	9.637399E-1	1.057706E+0	9.286748E-1	8.530448E-1	8.746087E-1	8.395447E-1	9.559836E-1	9.049126E-1	8.363323E-1	8.110227E-1	9.530691E-1	9.332041E-1	9.515776E-1	9.730709E-1	8.632040E-1	9.075492E-1	1.001839E+0	1.042207E+0	8.956165E-1	8.439292E-1	9.368844E-1	8.428125E-1	1.024839E+0	9.583364E-1	9.457642E-1	8.568170E-1	1.000154E+0	9.527306E-1	1.001694E+0	9.666569E-1	8.429810E-1	8.512622E-1	1.057293E+0	9.409791E-1	9.142360E-1	8.116192E-1	8.872160E-1	8.301046E-1	1.017755E+0	9.713424E-1	9.097575E-1	7.156497E-1	9.530948E-1	1.039698E+0	1.077250E+0	8.716776E-1	9.352468E-1	8.802137E-1	1.026009E+0	8.911985E-1	8.971871E-1	9.667424E-1	8.382316E-1	9.129650E-1	9.863055E-1	1.048782E+0	8.632996E-1	9.496471E-1	7.905383E-1	9.892545E-1	9.612153E-1	1.007474E+0	8.890502E-1	8.980380E-1	1.020252E+0	1.002579E+0	9.741141E-1	8.953935E-1	9.789186E-1	1.006438E+0	1.041188E+0	1.005197E+0	9.999999E-1	9.520422E-1	9.468200E-1	9.559752E-1	1.004248E+0	1.054970E+0	8.862072E-1	9.176877E-1	1.007691E+0	1.016355E+0	8.953828E-1	9.232487E-1
2.870040E+2	1.111400E+0	1.079313E+0	1.128568E+0	1.022377E+0	1.091833E+0	1.065735E+0	1.084689E+0	9.621348E-1	1.021170E+0	1.073703E+0	1.094980E+0	1.001408E+0	8.844028E-1	9.370430E-1	1.105503E+0	1.057070E+0	8.811053E-1	1.100772E+0	1.068865E+0	1.151388E+0	9.930671E-1	1.099539E+0	9.832004E-1	9.438706E-1	9.860785E-1	1.034370E+0	1.052903E+0	9.566561E-1	8.904789E-1	9.429566E-1	1.065725E+0	1.062398E+0	9.617315E-1	9.819781E-1	1.039815E+0	1.006851E+0	1.011169E+0	1.059201E+0	9.736383E-1	8.698826E-1	1.057679E+0	1.137986E+0	9.815998E-1	9.514223E-1	9.587551E-1	9.290453E-1	1.048688E+0	1.036888E+0	1.017471E+0	9.162345E-1	1.000745E+0	1.098265E+0	1.112142E+0	9.955181E-1	9.309996E-1	9.899039E-1	9.855518E-1	1.021049E+0	8.910946E-1	9.973822E-1	8.725898E-1	9.172239E-1	9.954593E-1	1.042437E+0	1.056684E+0	9.382414E-1	9.768374E-1	1.097898E+0	1.051089E+0	1.023556E+0	9.116543E-1	8.755005E-1	1.085902E+0	1.157476E+0	9.646838E-1	9.348629E-1	9.089410E-1	9.703411E-1	9.909242E-1	9.937913E-1	9.333169E-1	1.072957E+0	1.095073E+0	1.079962E+0	1.044328E+0	1.086889E+0	9.267847E-1	9.872528E-1	9.921173E-1	1.102463E+0	1.005338E+0	9.374206E-1	8.961038E-1	9.326892E-1	1.083948E+0	9.459965E-1	8.982324E-1	9.363825E-1	9.912198E-1	1.004473E+0	1.011039E+0	1.000402E+0	9.001105E-1	9.604850E-1	1.021154E+0	1.111916E+0	9.624940E-1	9.549258E-1	9.538868E-1	9.309677E-1	1.035236E+0	1.062628E+0	9.852090E-1	9.329700E-1	1.031616E+0	9.967880E-1	1.057579E+0	1.012945E+0	9.163096E-1	8.876708E-1	1.125103E+0	1.002682E+0	9.386053E-1	9.271235E-1	9.425831E-1	8.853269E-1	1.069699E+0	1.018667E+0	9.501776E-1	7.533460E-1	9.955024E-1	1.133916E+0	1.060891E+0	9.701203E-1	9.699789E-1	9.576809E-1	1.006829E+0	9.358600E-1	8.962648E-1	1.002130E+0	8.960224E-1	9.692273E-1	1.030884E+0	1.092075E+0	9.111658E-1	1.036453E+0	9.092673E-1	9.920988E-1	1.001199E+0	1.001180E+0	9.870470E-1	9.276039E-1	1.114660E+0	1.127257E+0	1.091911E+0	9.769864E-1	9.541330E-1	1.006437E+0	1.137813E+0	1.049020E+0	1.053117E+0	1.033586E+0	9.279977E-1	1.035399E+0	1.098794E+0	1.116866E+0	8.903154E-1	9.347444E-1	1.014282E+0	1.033221E+0	9.792283E-1	1.002400E+0
2.872160E+2	8.157206E-1	8.169042E-1	8.485979E-1	8.099606E-1	8.539409E-1	8.693507E-1	8.423259E-1	7.324331E-1	7.556595E-1	7.909078E-1	8.546322E-1	7.395288E-1	7.253861E-1	7.629780E-1	8.461774E-1	7.810378E-1	7.208325E-1	7.949096E-1	8.757718E-1	7.954228E-1	7.956703E-1	8.416772E-1	8.582392E-1	7.329856E-1	8.173813E-1	7.897032E-1	8.911109E-1	6.993807E-1	7.025267E-1	7.216701E-1	8.333124E-1	8.472506E-1	6.717825E-1	7.377353E-1	8.390737E-1	7.994980E-1	7.730580E-1	8.193490E-1	7.858678E-1	6.913304E-1	8.129137E-1	8.448822E-1	8.187989E-1	7.264297E-1	7.724179E-1	7.214852E-1	8.079606E-1	8.140440E-1	7.476341E-1	7.164260E-1	7.997466E-1	8.706089E-1	8.488520E-1	7.992849E-1	7.470895E-1	7.544248E-1	8.076048E-1	7.424548E-1	7.174077E-1	7.572161E-1	6.730952E-1	7.131383E-1	7.799001E-1	7.964470E-1	7.907673E-1	7.122726E-1	7.429055E-1	8.210604E-1	8.118235E-1	7.287239E-1	6.996246E-1	7.130028E-1	7.377760E-1	8.027815E-1	7.709464E-1	7.014210E-1	7.399529E-1	7.946028E-1	8.044553E-1	7.931276E-1	7.540209E-1	8.561940E-1	8.296870E-1	8.415375E-1	7.488899E-1	8.681151E-1	7.199689E-1	7.195631E-1	7.611584E-1	8.440542E-1	8.034943E-1	7.197308E-1	7.112402E-1	7.506671E-1	8.942715E-1	8.196441E-1	7.025953E-1	6.808412E-1	7.296191E-1	7.693792E-1	8.070623E-1	7.753216E-1	6.890986E-1	7.666357E-1	8.353640E-1	8.110228E-1	7.736098E-1	6.844816E-1	7.452180E-1	7.035828E-1	8.298789E-1	8.070720E-1	7.682660E-1	7.370353E-1	8.076881E-1	7.049104E-1	8.645213E-1	7.979796E-1	7.321907E-1	7.056265E-1	8.312595E-1	8.095235E-1	7.689520E-1	7.538672E-1	7.472609E-1	7.166758E-1	8.170217E-1	7.812540E-1	7.219752E-1	6.101026E-1	7.169590E-1	7.951567E-1	8.170666E-1	7.660322E-1	7.106990E-1	7.218379E-1	7.967234E-1	7.344106E-1	7.275238E-1	7.642526E-1	6.913170E-1	7.132762E-1	8.079904E-1	8.586719E-1	7.237605E-1	8.083760E-1	6.885190E-1	8.024729E-1	7.644940E-1	8.115846E-1	7.412090E-1	6.759215E-1	8.342417E-1	8.718831E-1	8.057082E-1	7.295178E-1	7.370468E-1	7.816255E-1	8.599067E-1	8.324320E-1	7.940592E-1	7.683353E-1	7.720435E-1	8.488883E-1	8.414638E-1	8.582634E-1	7.161338E-1	7.238572E-1	8.319141E-1	8.200990E-1	7.390227E-1	7.289761E-1
2.874030E+2	5.918794E-1	5.638669E-1	6.232318E-1	6.286068E-1	6.527817E-1	6.376334E-1	6.588539E-1	5.252844E-1	5.598051E-1	5.890244E-1	6.626570E-1	5.546174E-1	5.115601E-1	5.629115E-1	6.473123E-1	6.010911E-1	5.299203E-1	6.113924E-1	5.934955E-1	6.133493E-1	5.785332E-1	6.190849E-1	6.041768E-1	4.956397E-1	6.061009E-1	6.062038E-1	6.437989E-1	4.643961E-1	4.976156E-1	5.195624E-1	5.859055E-1	6.007620E-1	5.205378E-1	5.486937E-1	5.992739E-1	5.510395E-1	5.705925E-1	6.216996E-1	5.955591E-1	5.053069E-1	5.511280E-1	5.806871E-1	6.372849E-1	5.295618E-1	5.750324E-1	5.152520E-1	6.143495E-1	5.685372E-1	6.369816E-1	5.166184E-1	6.630689E-1	5.993770E-1	6.063224E-1	5.608983E-1	6.268707E-1	5.674040E-1	5.803801E-1	6.280447E-1	6.229753E-1	5.466094E-1	5.203590E-1	5.368835E-1	6.308514E-1	6.195063E-1	5.406900E-1	5.526728E-1	6.056543E-1	5.442242E-1	6.268313E-1	5.531921E-1	5.369724E-1	5.256319E-1	6.127061E-1	6.338800E-1	5.832648E-1	5.134429E-1	5.172596E-1	5.487189E-1	6.031357E-1	5.806108E-1	4.892260E-1	6.301525E-1	6.067998E-1	6.089526E-1	6.083489E-1	6.819236E-1	4.898275E-1	5.174298E-1	6.011434E-1	6.033785E-1	5.608922E-1	4.969766E-1	5.055977E-1	5.053625E-1	5.720933E-1	5.870936E-1	5.252980E-1	4.903903E-1	5.043529E-1	6.157343E-1	5.835164E-1	5.663188E-1	4.957376E-1	5.548932E-1	5.723148E-1	6.142502E-1	5.196571E-1	5.364856E-1	5.759644E-1	5.258727E-1	5.993935E-1	5.937110E-1	5.262220E-1	5.101633E-1	6.031929E-1	6.186326E-1	5.834041E-1	6.159657E-1	5.114076E-1	5.332907E-1	5.995763E-1	5.779120E-1	5.608669E-1	5.531110E-1	5.373278E-1	5.286221E-1	6.453415E-1	5.643484E-1	5.417703E-1	4.080545E-1	5.762425E-1	6.310703E-1	6.495829E-1	5.243275E-1	5.281523E-1	5.436646E-1	5.744130E-1	5.139567E-1	5.209777E-1	6.158258E-1	5.346544E-1	5.429057E-1	5.737333E-1	6.318575E-1	5.355445E-1	5.513632E-1	4.836016E-1	5.938845E-1	5.325872E-1	6.094012E-1	5.300075E-1	4.818535E-1	6.183205E-1	6.251073E-1	6.067623E-1	5.421227E-1	5.661127E-1	5.946691E-1	6.521184E-1	5.897178E-1	5.937104E-1	5.799430E-1	5.775484E-1	6.115121E-1	6.129076E-1	6.140753E-1	5.435966E-1	5.145210E-1	5.957155E-1	5.962441E-1	5.282787E-1	6.246441E-1
2.876210E+2	4.180114E-1	3.649773E-1	4.276492E-1	4.091762E-1	4.472508E-1	4.018081E-1	4.512221E-1	3.707583E-1	3.959093E-1	3.959544E-1	4.185304E-1	3.734603E-1	3.295368E-1	4.300158E-1	4.710297E-1	4.490999E-1	3.500069E-1	4.074845E-1	4.347663E-1	4.619609E-1	3.642158E-1	4.474372E-1	4.364123E-1	3.464969E-1	4.111989E-1	4.200831E-1	4.265354E-1	4.095968E-1	3.570043E-1	3.609739E-1	4.284643E-1	4.279666E-1	3.583234E-1	3.944360E-1	4.130657E-1	4.158486E-1	4.579532E-1	4.303805E-1	3.739565E-1	3.439379E-1	4.028095E-1	4.088404E-1	4.146035E-1	3.684886E-1	4.004785E-1	3.514584E-1	3.958953E-1	4.023481E-1	4.069403E-1	3.790586E-1	3.977517E-1	3.895066E-1	3.902170E-1	4.060930E-1	4.127054E-1	3.864402E-1	4.590119E-1	4.163130E-1	4.467590E-1	4.117463E-1	3.652832E-1	3.463563E-1	4.305181E-1	4.477452E-1	3.698023E-1	3.488279E-1	4.088408E-1	4.134673E-1	4.212004E-1	4.232525E-1	4.541931E-1	3.639628E-1	4.597540E-1	4.162945E-1	4.362320E-1	3.429513E-1	3.568642E-1	4.047312E-1	4.290433E-1	3.714806E-1	3.306816E-1	4.117022E-1	4.613563E-1	4.065361E-1	3.703363E-1	4.204812E-1	4.190746E-1	3.808532E-1	3.914667E-1	4.403939E-1	3.910730E-1	3.467871E-1	3.515448E-1	3.332940E-1	4.314235E-1	3.902004E-1	3.395957E-1	3.457438E-1	3.808189E-1	4.037795E-1	3.848087E-1	4.063502E-1	3.882262E-1	3.513514E-1	4.040010E-1	4.254202E-1	4.030728E-1	3.250625E-1	3.773430E-1	3.915404E-1	4.330273E-1	4.137859E-1	4.123715E-1	3.642043E-1	4.199798E-1	4.047729E-1	4.301443E-1	4.111993E-1	3.504032E-1	3.585274E-1	4.451199E-1	4.330429E-1	4.174575E-1	3.991066E-1	3.619990E-1	3.584776E-1	4.366834E-1	3.774152E-1	3.758819E-1	2.949677E-1	4.181766E-1	4.161705E-1	4.003053E-1	3.458496E-1	3.415679E-1	3.844278E-1	4.201025E-1	3.628698E-1	3.467034E-1	3.779488E-1	3.396965E-1	3.416316E-1	4.233894E-1	4.163368E-1	3.773450E-1	4.143465E-1	3.226578E-1	4.308067E-1	4.046384E-1	3.851906E-1	3.635822E-1	3.757229E-1	4.089422E-1	4.600172E-1	4.584257E-1	3.672804E-1	3.806485E-1	4.077123E-1	4.238070E-1	3.958847E-1	3.877691E-1	3.803017E-1	3.875345E-1	4.116161E-1	4.287478E-1	4.597615E-1	3.685937E-1	3.664354E-1	4.001645E-1	4.153188E-1	3.560570E-1	3.836007E-1
2.878000E+2	4.398750E-1	4.191252E-1	4.574333E-1	4.111800E-1	4.148896E-1	4.445354E-1	4.768933E-1	3.699228E-1	4.090212E-1	4.504304E-1	4.094607E-1	3.894173E-1	3.877296E-1	4.271269E-1	4.440764E-1	4.246407E-1	3.987167E-1	3.941858E-1	4.511302E-1	4.507102E-1	3.888905E-1	4.568428E-1	4.301986E-1	3.593257E-1	4.505063E-1	4.017329E-1	4.280758E-1	4.058829E-1	3.584174E-1	3.786767E-1	4.577038E-1	4.482952E-1	3.833998E-1	3.777999E-1	4.548480E-1	4.112810E-1	4.123270E-1	4.346006E-1	4.458501E-1	3.678442E-1	4.814261E-1	4.265062E-1	4.333167E-1	3.676363E-1	3.945865E-1	3.899203E-1	4.378726E-1	4.529599E-1	4.040281E-1	3.659947E-1	4.647511E-1	4.553132E-1	4.553316E-1	4.373450E-1	4.533092E-1	3.917408E-1	4.334606E-1	4.438012E-1	4.349550E-1	4.015855E-1	3.917791E-1	3.848895E-1	4.721872E-1	4.710493E-1	4.406587E-1	3.622599E-1	4.399166E-1	4.277693E-1	4.418399E-1	4.262919E-1	4.629071E-1	3.324583E-1	4.302785E-1	4.391453E-1	4.734228E-1	3.665575E-1	4.019750E-1	4.084238E-1	4.381191E-1	4.180483E-1	4.028984E-1	4.344754E-1	4.292463E-1	4.697908E-1	4.292725E-1	4.297901E-1	4.696126E-1	3.964621E-1	3.961969E-1	4.707958E-1	4.560892E-1	3.704121E-1	3.766234E-1	3.702674E-1	4.105504E-1	4.351605E-1	3.663434E-1	3.594051E-1	4.498528E-1	4.130350E-1	4.472808E-1	4.031349E-1	4.556214E-1	3.863932E-1	4.251553E-1	4.113014E-1	4.753733E-1	3.796804E-1	4.144394E-1	3.628546E-1	4.512244E-1	4.352815E-1	4.195429E-1	4.157663E-1	4.569916E-1	4.332264E-1	4.623206E-1	4.284590E-1	4.851050E-1	3.674276E-1	4.422949E-1	4.142629E-1	4.230822E-1	3.697720E-1	4.019870E-1	4.054911E-1	4.674984E-1	4.136979E-1	3.767240E-1	3.130611E-1	4.085374E-1	4.606330E-1	4.579506E-1	3.818655E-1	4.191096E-1	3.930346E-1	4.157433E-1	3.714223E-1	3.983402E-1	4.339777E-1	3.640661E-1	3.558952E-1	4.478643E-1	4.586875E-1	3.732891E-1	4.083902E-1	3.639927E-1	4.696789E-1	4.286284E-1	4.481264E-1	3.830128E-1	3.840618E-1	4.444619E-1	4.668957E-1	4.287583E-1	4.040424E-1	3.738108E-1	4.447949E-1	4.315031E-1	4.287519E-1	4.613864E-1	4.712181E-1	4.242819E-1	4.098317E-1	4.723210E-1	4.555218E-1	4.129608E-1	4.183817E-1	4.320241E-1	4.275860E-1	4.353698E-1	3.620147E-1
2.880020E+2	4.825614E-1	4.732732E-1	5.338794E-1	4.712976E-1	5.084723E-1	4.946587E-1	4.784037E-1	4.726623E-1	4.688428E-1	5.065092E-1	5.190526E-1	4.992378E-1	4.405097E-1	4.762408E-1	5.518863E-1	4.735574E-1	4.395707E-1	4.881612E-1	5.435853E-1	5.458380E-1	4.713740E-1	5.595180E-1	5.102839E-1	4.371057E-1	4.980039E-1	5.022207E-1	5.035794E-1	4.708974E-1	3.916276E-1	4.406369E-1	5.296766E-1	5.397756E-1	4.233660E-1	4.511483E-1	5.175226E-1	5.236351E-1	4.793402E-1	5.056418E-1	5.135156E-1	4.283579E-1	4.676487E-1	4.907480E-1	4.838409E-1	4.434857E-1	4.579265E-1	4.131301E-1	4.815632E-1	4.756224E-1	4.632375E-1	4.635925E-1	5.451497E-1	5.086706E-1	5.412081E-1	4.671431E-1	5.392940E-1	4.311136E-1	4.891248E-1	4.861473E-1	5.395047E-1	4.523894E-1	4.338594E-1	4.533934E-1	5.170624E-1	5.116160E-1	5.073464E-1	4.388990E-1	5.115633E-1	4.676087E-1	4.777679E-1	4.802431E-1	4.992140E-1	4.352630E-1	5.274666E-1	5.663190E-1	5.339649E-1	4.399998E-1	4.284687E-1	4.697103E-1	5.379537E-1	4.561487E-1	4.518729E-1	5.238795E-1	5.369120E-1	4.795223E-1	4.579853E-1	5.236615E-1	5.077102E-1	4.347038E-1	4.797516E-1	4.995076E-1	5.152840E-1	4.598511E-1	4.289296E-1	3.887541E-1	4.849684E-1	4.529899E-1	4.236588E-1	4.140495E-1	5.016270E-1	4.796763E-1	4.856675E-1	4.819134E-1	5.486914E-1	4.646786E-1	5.401244E-1	4.730688E-1	5.666512E-1	4.431072E-1	4.345332E-1	4.531089E-1	5.188103E-1	5.228554E-1	4.805015E-1	4.244918E-1	5.162119E-1	4.791189E-1	4.648600E-1	5.108365E-1	5.313340E-1	4.410549E-1	5.270568E-1	4.983230E-1	4.849448E-1	4.669415E-1	4.358219E-1	4.554897E-1	5.493768E-1	4.602337E-1	4.592474E-1	3.650815E-1	5.367258E-1	5.125053E-1	5.140389E-1	4.619006E-1	5.192678E-1	4.240211E-1	4.758983E-1	4.265354E-1	5.255879E-1	4.959045E-1	4.434422E-1	4.589101E-1	5.177916E-1	5.132741E-1	4.893012E-1	4.594517E-1	4.123644E-1	4.971759E-1	4.926035E-1	5.071293E-1	4.818539E-1	4.401591E-1	5.126964E-1	5.150475E-1	5.238685E-1	4.165951E-1	4.943198E-1	5.035089E-1	5.195778E-1	4.995432E-1	4.977282E-1	5.180818E-1	4.681999E-1	5.383362E-1	5.364484E-1	5.140262E-1	4.762244E-1	4.408654E-1	5.056298E-1	5.594458E-1	3.945804E-1	4.375655E-1
2.882200E+2	5.793860E-1	5.898999E-1	5.944410E-1	5.294118E-1	5.793155E-1	5.529995E-1	5.750469E-1	4.668151E-1	5.294840E-1	5.689963E-1	5.507969E-1	5.527398E-1	4.871995E-1	5.542447E-1	6.196314E-1	5.486806E-1	4.780674E-1	5.599721E-1	6.458590E-1	6.143720E-1	5.552686E-1	5.932203E-1	5.441130E-1	4.836125E-1	5.848087E-1	5.555233E-1	5.821642E-1	5.414861E-1	4.601664E-1	4.856316E-1	6.166441E-1	5.889040E-1	4.860570E-1	4.851755E-1	5.593065E-1	5.702215E-1	5.941185E-1	5.534716E-1	5.634182E-1	4.769179E-1	5.559915E-1	5.847020E-1	5.830183E-1	4.971775E-1	4.866502E-1	4.549071E-1	5.826522E-1	5.164141E-1	5.370061E-1	5.043230E-1	6.318024E-1	5.513553E-1	6.063230E-1	5.318274E-1	5.591972E-1	5.128875E-1	5.466160E-1	5.426097E-1	5.411908E-1	5.244399E-1	4.845121E-1	4.726607E-1	6.052085E-1	5.892971E-1	5.540274E-1	5.147484E-1	6.004749E-1	5.534172E-1	5.779078E-1	5.645902E-1	5.834441E-1	4.394088E-1	5.362300E-1	6.299048E-1	5.702912E-1	4.706011E-1	4.671364E-1	5.413345E-1	6.303629E-1	5.077962E-1	5.033383E-1	5.635222E-1	5.661890E-1	5.924094E-1	5.494125E-1	6.066715E-1	5.699108E-1	5.330386E-1	5.483298E-1	5.805770E-1	5.395440E-1	4.809453E-1	4.676219E-1	4.982523E-1	6.002270E-1	4.917476E-1	4.832673E-1	4.863724E-1	5.779275E-1	5.527963E-1	5.338394E-1	5.381832E-1	5.599239E-1	5.138865E-1	5.290868E-1	5.904264E-1	5.964754E-1	4.757013E-1	4.917233E-1	4.726991E-1	6.132570E-1	5.539043E-1	6.131782E-1	5.458607E-1	5.911629E-1	5.635619E-1	5.554612E-1	5.547701E-1	5.576362E-1	5.114450E-1	6.005175E-1	5.770175E-1	5.786765E-1	5.173600E-1	4.719642E-1	5.017571E-1	6.198087E-1	5.746025E-1	5.426124E-1	3.914685E-1	6.186493E-1	5.919020E-1	5.794730E-1	4.755067E-1	5.911549E-1	5.161212E-1	5.665664E-1	4.702462E-1	6.030424E-1	5.578312E-1	4.469234E-1	5.547920E-1	5.553769E-1	5.885649E-1	4.576607E-1	5.411512E-1	4.211591E-1	5.644922E-1	5.325871E-1	5.590524E-1	5.511281E-1	4.591106E-1	5.930837E-1	5.528805E-1	6.023998E-1	5.367430E-1	5.370536E-1	5.699475E-1	5.794356E-1	5.534791E-1	5.452539E-1	5.508870E-1	5.488669E-1	5.365515E-1	6.112629E-1	5.708332E-1	5.978225E-1	4.532709E-1	5.847294E-1	5.793776E-1	6.461154E-1	5.095188E-1
2.884180E+2	6.418522E-1	6.065607E-1	5.864977E-1	6.817103E-1	6.790204E-1	5.875105E-1	6.105327E-1	5.428252E-1	6.384746E-1	6.306826E-1	6.377152E-1	6.053032E-1	5.514833E-1	6.271931E-1	6.349288E-1	5.923569E-1	5.432765E-1	6.078457E-1	6.311320E-1	6.675620E-1	5.996829E-1	6.112468E-1	6.683831E-1	5.670042E-1	6.183849E-1	6.297961E-1	6.484222E-1	5.823533E-1	5.060944E-1	5.402156E-1	6.601278E-1	6.160089E-1	5.252400E-1	5.766716E-1	5.992732E-1	5.802691E-1	6.212090E-1	6.385805E-1	6.860610E-1	5.322022E-1	6.111035E-1	6.128080E-1	6.101521E-1	5.534247E-1	5.941813E-1	5.384617E-1	6.134930E-1	5.987537E-1	6.243628E-1	5.404414E-1	6.148286E-1	6.198310E-1	6.459569E-1	6.190417E-1	6.507548E-1	6.014769E-1	5.676048E-1	5.916421E-1	6.870549E-1	5.613889E-1	5.203583E-1	5.197579E-1	6.108185E-1	6.617995E-1	5.798688E-1	5.013172E-1	6.470883E-1	6.249253E-1	5.939603E-1	6.041036E-1	6.386303E-1	4.891526E-1	6.429776E-1	6.428213E-1	6.818623E-1	4.933337E-1	5.258527E-1	5.922836E-1	6.386144E-1	5.619841E-1	5.398611E-1	6.478646E-1	6.559113E-1	6.439874E-1	6.378177E-1	6.718387E-1	6.290013E-1	5.595737E-1	5.853780E-1	6.295565E-1	6.307622E-1	4.978206E-1	5.421406E-1	5.487346E-1	6.501424E-1	5.591874E-1	5.428755E-1	5.177125E-1	6.424188E-1	6.499805E-1	6.249131E-1	6.258038E-1	6.353432E-1	5.295438E-1	5.907108E-1	6.239567E-1	6.606419E-1	5.312000E-1	5.496869E-1	5.412645E-1	6.799769E-1	5.881374E-1	5.925600E-1	5.212693E-1	6.688900E-1	5.782476E-1	6.359020E-1	5.563396E-1	6.006771E-1	5.470454E-1	6.146449E-1	6.199419E-1	6.311660E-1	5.219436E-1	5.404042E-1	5.726502E-1	6.902426E-1	6.164062E-1	5.485076E-1	4.480111E-1	6.890085E-1	5.950777E-1	6.752897E-1	5.827524E-1	6.299261E-1	5.686263E-1	6.214898E-1	5.329615E-1	6.242509E-1	5.597965E-1	5.353510E-1	5.310202E-1	6.191865E-1	6.233871E-1	5.477132E-1	5.751921E-1	5.187804E-1	6.517204E-1	6.005601E-1	6.290688E-1	6.584180E-1	5.470481E-1	6.482317E-1	6.457440E-1	6.678423E-1	5.367428E-1	6.156832E-1	5.629954E-1	6.538284E-1	6.461830E-1	6.365749E-1	6.249322E-1	6.824138E-1	6.275752E-1	6.441496E-1	6.318805E-1	6.569781E-1	5.687934E-1	6.253781E-1	6.223088E-1	6.869039E-1	4.843352E-1
2.886030E+2	7.022377E-1	7.065261E-1	7.046412E-1	7.107662E-1	7.428660E-1	7.493836E-1	7.252969E-1	5.996240E-1	6.827261E-1	6.779493E-1	7.510859E-1	6.597443E-1	5.981731E-1	6.763068E-1	7.551219E-1	6.639852E-1	5.786298E-1	7.089138E-1	7.276791E-1	7.626906E-1	6.652472E-1	7.092188E-1	7.477774E-1	6.544051E-1	7.150164E-1	7.119347E-1	7.547432E-1	6.733743E-1	5.922985E-1	6.434830E-1	7.800821E-1	7.439118E-1	6.067394E-1	6.515331E-1	6.964648E-1	7.136339E-1	6.832317E-1	6.807833E-1	7.706423E-1	5.658205E-1	7.310551E-1	7.461104E-1	7.514327E-1	6.002986E-1	6.626769E-1	5.848808E-1	7.282886E-1	7.437916E-1	6.884245E-1	6.411139E-1	7.488274E-1	7.576704E-1	7.639193E-1	6.968084E-1	7.391273E-1	6.181345E-1	6.670724E-1	7.372539E-1	7.443883E-1	6.731587E-1	6.091956E-1	6.175181E-1	7.430383E-1	7.144504E-1	6.482237E-1	6.079802E-1	7.135560E-1	7.495527E-1	6.948660E-1	6.876899E-1	7.293961E-1	6.184880E-1	7.178604E-1	7.848982E-1	7.251079E-1	6.087431E-1	5.974577E-1	6.461865E-1	7.252477E-1	6.373379E-1	6.411299E-1	7.001584E-1	7.560211E-1	7.082151E-1	6.929761E-1	7.424356E-1	7.230791E-1	6.719562E-1	6.681450E-1	6.726243E-1	7.248899E-1	6.117282E-1	6.037617E-1	5.871307E-1	7.173001E-1	6.816642E-1	6.108902E-1	6.028931E-1	7.641365E-1	7.619741E-1	6.399675E-1	6.788583E-1	7.364361E-1	5.988819E-1	6.744083E-1	7.748443E-1	7.257114E-1	6.219355E-1	6.509301E-1	5.902398E-1	7.380316E-1	7.091484E-1	6.696549E-1	6.458106E-1	7.456916E-1	6.929787E-1	7.298906E-1	6.724524E-1	7.050912E-1	6.279547E-1	7.107081E-1	7.379835E-1	7.183367E-1	6.200301E-1	6.103811E-1	6.293653E-1	7.897286E-1	6.771392E-1	6.899760E-1	5.143557E-1	7.497296E-1	7.284639E-1	7.781168E-1	6.419777E-1	7.470466E-1	6.340419E-1	7.095424E-1	5.985279E-1	7.229133E-1	6.541609E-1	5.959266E-1	6.316571E-1	8.044939E-1	7.118544E-1	5.988240E-1	6.500834E-1	5.548386E-1	6.991270E-1	6.829270E-1	7.407808E-1	7.293816E-1	6.046620E-1	7.669421E-1	7.386072E-1	7.847663E-1	6.577878E-1	6.951675E-1	7.260021E-1	7.162508E-1	7.051758E-1	7.083284E-1	6.802316E-1	7.514286E-1	7.061055E-1	7.337626E-1	7.463436E-1	7.448908E-1	6.215150E-1	6.879985E-1	6.989717E-1	8.002086E-1	6.642184E-1
2.888130E+2	9.562733E-1	8.648046E-1	9.329857E-1	8.800990E-1	9.615175E-1	9.013968E-1	9.351936E-1	8.309955E-1	8.671080E-1	9.447230E-1	9.226555E-1	8.559194E-1	7.497461E-1	8.965968E-1	9.787537E-1	8.779986E-1	7.719007E-1	8.986371E-1	9.624996E-1	9.007804E-1	9.141083E-1	9.239736E-1	9.438485E-1	8.011425E-1	9.009108E-1	8.674722E-1	9.296326E-1	8.266253E-1	7.322029E-1	7.187199E-1	9.615147E-1	9.192492E-1	7.760074E-1	8.201582E-1	8.672320E-1	9.675721E-1	8.842713E-1	9.445506E-1	9.389602E-1	7.787386E-1	9.190869E-1	9.002912E-1	9.198467E-1	8.039849E-1	8.740562E-1	7.738724E-1	9.141890E-1	8.631454E-1	8.806119E-1	7.594616E-1	9.685850E-1	9.221880E-1	9.403901E-1	9.126645E-1	9.341848E-1	8.748148E-1	8.641825E-1	8.694936E-1	9.458986E-1	8.579013E-1	7.471262E-1	7.759347E-1	9.473792E-1	9.587137E-1	8.191101E-1	8.236764E-1	9.431723E-1	8.762248E-1	8.829143E-1	8.594226E-1	9.269031E-1	7.063701E-1	8.986957E-1	9.279684E-1	9.058708E-1	8.002187E-1	7.685953E-1	8.027262E-1	9.306931E-1	8.405417E-1	8.204270E-1	8.975226E-1	9.382964E-1	9.388533E-1	8.297381E-1	9.550035E-1	8.871321E-1	8.428719E-1	8.581137E-1	9.335676E-1	9.044149E-1	7.416682E-1	7.262875E-1	7.812405E-1	9.786727E-1	8.762307E-1	7.943001E-1	7.314669E-1	9.703282E-1	8.702660E-1	8.153422E-1	8.460615E-1	9.490524E-1	8.404476E-1	8.914686E-1	8.895550E-1	9.480343E-1	7.620027E-1	8.039548E-1	7.707488E-1	9.459889E-1	9.073841E-1	8.892876E-1	8.052552E-1	9.603657E-1	8.967414E-1	9.034718E-1	8.372070E-1	9.537706E-1	7.954352E-1	9.414507E-1	8.211492E-1	9.395437E-1	7.914513E-1	8.180074E-1	7.741362E-1	9.235513E-1	8.680163E-1	8.364969E-1	6.455364E-1	8.923742E-1	9.232497E-1	9.487159E-1	8.092507E-1	9.005151E-1	7.855323E-1	8.594934E-1	7.648172E-1	9.451361E-1	8.959696E-1	7.769590E-1	7.822173E-1	9.574605E-1	9.405514E-1	7.708140E-1	8.670977E-1	7.430470E-1	8.555686E-1	8.508593E-1	9.075621E-1	8.704639E-1	7.396004E-1	9.492130E-1	9.036974E-1	8.824945E-1	8.415956E-1	7.977277E-1	8.426577E-1	9.120678E-1	8.888965E-1	9.058824E-1	8.198864E-1	8.795984E-1	8.711979E-1	9.450540E-1	9.693351E-1	8.812781E-1	7.657241E-1	8.769572E-1	9.366246E-1	1.006421E+0	8.512965E-1
2.890230E+2	8.063510E-1	7.877476E-1	7.890291E-1	8.219850E-1	8.268283E-1	8.085456E-1	8.521407E-1	7.867255E-1	7.441865E-1	7.877024E-1	8.107953E-1	7.667485E-1	6.326831E-1	7.593665E-1	8.461776E-1	7.906464E-1	6.509095E-1	7.842715E-1	8.201349E-1	8.076977E-1	7.406809E-1	8.118936E-1	8.251013E-1	7.193551E-1	7.649704E-1	7.888291E-1	8.171486E-1	7.801862E-1	6.707294E-1	7.083939E-1	7.973264E-1	8.015100E-1	7.266374E-1	7.173198E-1	8.209068E-1	7.364700E-1	7.523836E-1	7.848831E-1	8.078588E-1	6.958130E-1	8.574903E-1	8.023220E-1	8.543530E-1	7.213170E-1	7.142334E-1	6.956231E-1	8.319468E-1	7.369929E-1	7.243389E-1	7.433232E-1	8.649591E-1	8.092487E-1	8.460208E-1	7.455024E-1	8.068000E-1	6.991512E-1	7.984788E-1	8.167466E-1	7.873878E-1	7.064123E-1	6.762126E-1	6.824550E-1	7.927214E-1	7.921315E-1	7.582580E-1	7.027912E-1	8.257743E-1	8.302545E-1	7.659571E-1	7.773558E-1	8.397678E-1	6.060517E-1	7.776073E-1	8.544458E-1	7.622981E-1	6.498362E-1	6.819525E-1	7.421778E-1	7.640261E-1	7.728071E-1	6.909350E-1	7.802851E-1	7.852990E-1	7.850944E-1	7.133776E-1	8.114812E-1	7.868347E-1	6.899066E-1	7.256870E-1	8.043628E-1	8.461907E-1	6.488538E-1	6.567848E-1	6.546778E-1	8.035169E-1	7.297241E-1	7.079446E-1	7.113773E-1	7.850282E-1	7.888151E-1	7.746973E-1	7.536180E-1	8.246916E-1	6.637465E-1	7.856979E-1	8.101398E-1	7.826480E-1	6.871245E-1	7.506279E-1	6.699996E-1	8.246802E-1	8.014998E-1	8.032277E-1	6.862668E-1	8.113887E-1	7.608996E-1	7.790016E-1	7.791506E-1	7.712469E-1	6.797362E-1	7.917040E-1	7.665995E-1	8.383136E-1	6.649477E-1	7.234222E-1	7.077205E-1	8.689653E-1	7.639016E-1	7.354484E-1	5.927626E-1	8.239432E-1	7.898643E-1	7.991494E-1	6.964017E-1	8.318583E-1	6.882691E-1	7.775440E-1	7.078036E-1	7.828495E-1	7.269006E-1	6.495403E-1	7.069369E-1	7.782709E-1	8.652598E-1	6.677822E-1	7.377403E-1	6.375092E-1	7.503264E-1	7.652940E-1	7.824762E-1	7.952763E-1	6.334693E-1	8.267648E-1	8.073944E-1	7.734225E-1	7.079990E-1	7.156796E-1	7.963039E-1	7.940644E-1	7.810235E-1	8.285383E-1	7.449034E-1	8.285102E-1	8.176544E-1	7.954236E-1	8.048477E-1	7.941863E-1	6.920691E-1	7.758854E-1	8.062993E-1	9.203095E-1	7.469645E-1
2.892010E+2	6.241549E-1	6.169739E-1	6.589725E-1	6.807074E-1	6.527824E-1	6.211996E-1	6.807502E-1	5.745664E-1	5.466926E-1	6.074506E-1	6.241105E-1	6.278303E-1	5.629859E-1	5.462999E-1	6.575105E-1	6.369063E-1	4.874949E-1	6.574930E-1	6.294961E-1	6.450577E-1	6.095520E-1	6.425983E-1	6.200561E-1	6.095017E-1	5.659735E-1	5.686303E-1	6.222269E-1	6.241488E-1	5.166933E-1	5.402159E-1	6.346370E-1	6.414206E-1	5.471822E-1	5.638175E-1	6.419654E-1	6.232019E-1	6.019606E-1	6.174791E-1	6.530744E-1	6.211051E-1	6.281234E-1	5.975510E-1	6.372853E-1	6.190476E-1	5.617749E-1	5.225466E-1	6.297699E-1	6.236818E-1	5.787432E-1	5.442837E-1	6.139360E-1	6.536246E-1	6.148155E-1	6.117742E-1	6.324431E-1	5.749756E-1	5.794675E-1	6.065001E-1	5.875635E-1	5.650840E-1	5.141244E-1	5.169026E-1	6.028045E-1	5.832554E-1	5.615293E-1	5.463525E-1	6.729850E-1	5.789564E-1	6.161297E-1	5.737084E-1	6.400822E-1	5.256320E-1	5.680947E-1	6.924988E-1	6.732137E-1	5.283064E-1	5.258521E-1	5.494570E-1	6.089111E-1	5.831510E-1	5.348805E-1	6.099103E-1	6.814109E-1	5.943555E-1	5.728358E-1	5.996897E-1	6.523254E-1	5.447454E-1	5.735537E-1	5.788886E-1	6.511399E-1	5.197585E-1	5.349758E-1	5.394916E-1	5.929661E-1	5.692642E-1	4.932018E-1	5.305702E-1	6.424195E-1	6.194376E-1	6.091073E-1	5.663189E-1	6.433662E-1	5.325259E-1	5.851917E-1	6.433692E-1	6.136466E-1	5.171042E-1	5.674631E-1	4.971867E-1	6.609145E-1	5.547002E-1	5.952491E-1	5.363416E-1	6.402051E-1	6.204686E-1	5.961046E-1	5.979207E-1	6.477036E-1	5.470453E-1	6.655026E-1	5.877487E-1	6.142942E-1	5.476112E-1	5.104133E-1	5.554862E-1	6.206892E-1	5.722357E-1	5.341913E-1	4.367030E-1	6.128675E-1	6.077803E-1	6.176439E-1	5.523394E-1	6.258873E-1	5.428042E-1	6.145157E-1	5.206085E-1	5.781468E-1	5.942000E-1	5.068031E-1	5.397360E-1	6.279271E-1	6.666792E-1	5.517694E-1	5.658308E-1	5.249365E-1	6.005208E-1	5.429829E-1	6.117607E-1	6.423666E-1	5.500806E-1	6.566449E-1	6.552022E-1	6.495177E-1	5.923340E-1	5.524370E-1	5.714932E-1	6.598140E-1	6.680943E-1	6.095515E-1	5.621333E-1	6.340140E-1	6.025880E-1	6.630589E-1	6.488372E-1	7.103833E-1	5.470844E-1	5.638562E-1	6.146431E-1	6.121231E-1	5.275074E-1
2.894040E+2	5.294122E-1	5.086776E-1	5.289156E-1	5.103743E-1	5.207167E-1	5.045194E-1	5.690069E-1	5.202725E-1	5.016221E-1	5.385546E-1	5.583552E-1	5.161325E-1	4.560730E-1	5.253545E-1	5.518864E-1	4.997634E-1	3.892891E-1	5.014588E-1	5.771318E-1	5.662962E-1	4.544546E-1	5.101401E-1	5.261622E-1	5.581837E-1	5.414066E-1	4.908612E-1	5.035791E-1	5.749220E-1	4.340220E-1	4.598150E-1	5.199301E-1	4.914938E-1	4.374713E-1	4.647590E-1	5.338726E-1	5.409916E-1	5.399376E-1	5.478448E-1	5.871011E-1	5.478913E-1	4.652167E-1	5.108237E-1	5.427857E-1	5.960370E-1	4.829679E-1	4.250664E-1	4.918440E-1	5.300113E-1	4.603252E-1	4.658984E-1	5.085244E-1	5.477991E-1	5.091226E-1	4.765913E-1	5.822859E-1	5.348459E-1	5.110267E-1	4.906051E-1	5.673285E-1	5.355252E-1	4.408726E-1	4.698065E-1	5.314862E-1	5.331945E-1	4.798372E-1	4.712932E-1	5.072478E-1	5.207288E-1	4.815894E-1	5.083593E-1	5.522209E-1	5.281196E-1	5.091448E-1	5.007450E-1	5.261805E-1	5.029507E-1	4.384945E-1	4.556804E-1	5.297031E-1	5.619840E-1	4.518728E-1	4.918288E-1	5.085785E-1	5.116369E-1	5.101217E-1	5.748645E-1	5.053777E-1	5.166496E-1	5.152236E-1	5.307527E-1	5.337210E-1	4.969764E-1	4.260630E-1	4.427918E-1	5.194552E-1	5.204286E-1	4.152529E-1	4.494077E-1	5.007189E-1	4.778243E-1	4.600767E-1	4.971868E-1	5.270283E-1	4.467843E-1	5.189693E-1	4.871868E-1	5.503838E-1	4.704156E-1	5.087271E-1	4.552078E-1	5.413385E-1	5.212638E-1	4.796058E-1	4.451170E-1	5.652545E-1	5.029831E-1	5.258256E-1	4.849464E-1	5.600277E-1	4.564270E-1	5.571952E-1	4.714957E-1	4.821326E-1	4.201904E-1	4.619673E-1	4.853393E-1	5.291271E-1	5.091364E-1	4.381955E-1	3.454800E-1	5.425087E-1	4.987428E-1	5.171541E-1	4.458930E-1	5.095752E-1	4.584522E-1	5.473868E-1	4.892506E-1	4.960813E-1	4.959041E-1	4.517975E-1	4.597018E-1	4.976874E-1	5.528017E-1	4.592840E-1	5.190238E-1	4.519405E-1	5.095017E-1	5.021985E-1	5.417444E-1	5.367663E-1	4.469822E-1	5.098926E-1	5.674975E-1	4.915833E-1	4.999810E-1	5.071402E-1	4.625631E-1	5.349701E-1	5.290399E-1	5.303436E-1	4.749669E-1	5.183929E-1	5.088868E-1	5.158944E-1	5.157210E-1	5.526347E-1	4.214829E-1	5.396872E-1	5.180477E-1	5.033518E-1	4.231749E-1
2.896080E+2	6.012492E-1	5.419987E-1	6.083396E-1	5.835176E-1	5.933092E-1	5.669673E-1	5.705163E-1	6.121529E-1	5.229284E-1	5.818147E-1	6.309125E-1	5.405373E-1	4.736663E-1	5.116316E-1	6.014204E-1	5.853682E-1	4.293569E-1	5.963207E-1	6.074050E-1	5.601583E-1	5.771228E-1	6.073279E-1	5.938210E-1	5.926633E-1	5.569651E-1	5.686303E-1	6.099002E-1	6.055728E-1	4.735909E-1	4.753051E-1	6.143947E-1	5.711160E-1	4.664666E-1	4.972750E-1	5.711151E-1	5.272896E-1	5.328087E-1	5.837167E-1	5.371981E-1	5.852448E-1	5.462651E-1	5.927327E-1	5.923749E-1	6.360921E-1	5.470447E-1	4.522545E-1	5.543820E-1	5.647603E-1	5.166225E-1	4.597502E-1	5.540837E-1	5.709204E-1	5.770676E-1	5.761613E-1	5.377016E-1	5.545327E-1	5.612165E-1	5.968426E-1	6.128584E-1	5.484568E-1	4.517821E-1	4.855049E-1	6.028044E-1	6.108755E-1	4.840054E-1	5.068471E-1	5.305541E-1	5.554614E-1	5.916675E-1	5.022797E-1	5.594819E-1	5.911293E-1	5.441968E-1	5.673131E-1	5.348307E-1	5.711473E-1	5.000746E-1	5.169676E-1	5.693072E-1	6.051648E-1	5.141280E-1	5.340006E-1	5.586336E-1	6.147925E-1	5.607470E-1	6.105502E-1	5.807955E-1	6.103018E-1	5.104936E-1	5.594652E-1	5.715672E-1	5.864157E-1	5.005823E-1	4.904306E-1	5.766311E-1	5.677137E-1	4.901450E-1	4.791399E-1	5.988192E-1	5.750089E-1	5.172801E-1	5.558679E-1	5.992381E-1	5.414726E-1	6.017475E-1	5.374831E-1	6.064168E-1	5.400086E-1	5.048620E-1	4.845934E-1	5.777308E-1	5.475354E-1	5.190501E-1	5.188889E-1	5.819101E-1	5.718223E-1	5.512279E-1	5.626162E-1	5.536512E-1	4.912181E-1	6.052271E-1	5.573441E-1	5.411836E-1	4.724413E-1	4.827296E-1	5.129503E-1	5.854729E-1	5.722363E-1	5.114555E-1	4.276563E-1	6.167222E-1	5.919015E-1	6.082956E-1	4.562983E-1	5.814627E-1	5.195639E-1	5.273351E-1	4.778475E-1	5.550946E-1	5.568477E-1	4.629379E-1	4.826825E-1	5.798522E-1	5.443313E-1	5.006591E-1	5.420020E-1	4.475430E-1	5.654404E-1	5.165937E-1	5.763596E-1	5.840759E-1	4.606276E-1	6.099078E-1	5.838347E-1	5.788403E-1	5.035678E-1	5.464550E-1	5.738105E-1	5.922617E-1	5.897181E-1	5.871867E-1	5.340154E-1	6.098140E-1	5.615380E-1	5.948200E-1	5.496358E-1	6.027526E-1	5.308028E-1	6.034055E-1	5.471796E-1	6.053251E-1	4.447608E-1
2.898030E+2	6.002080E-1	6.055193E-1	6.182672E-1	6.917296E-1	6.405383E-1	6.096963E-1	6.505489E-1	6.071419E-1	5.524290E-1	5.898254E-1	5.734707E-1	6.193831E-1	4.878764E-1	5.665230E-1	6.334721E-1	6.072069E-1	4.984938E-1	5.768168E-1	6.303147E-1	5.918681E-1	5.884027E-1	6.300573E-1	6.159130E-1	6.095022E-1	5.577848E-1	5.826110E-1	6.091296E-1	5.832816E-1	5.011481E-1	4.981712E-1	6.023985E-1	6.270209E-1	5.330768E-1	5.434006E-1	6.237986E-1	6.012787E-1	6.090893E-1	5.907502E-1	6.040174E-1	5.508793E-1	6.337971E-1	6.144146E-1	5.933106E-1	6.181951E-1	5.514633E-1	5.225465E-1	6.331966E-1	6.478546E-1	5.768016E-1	5.512003E-1	5.746296E-1	6.189427E-1	6.119853E-1	5.718008E-1	6.013933E-1	6.211632E-1	5.621288E-1	5.693551E-1	6.061133E-1	6.232777E-1	5.024348E-1	5.511553E-1	6.084148E-1	6.272746E-1	5.698653E-1	5.076380E-1	6.220559E-1	6.279905E-1	5.412156E-1	6.139819E-1	6.182985E-1	6.143436E-1	6.071296E-1	6.140096E-1	6.221846E-1	6.690705E-1	5.308647E-1	5.361660E-1	5.973597E-1	6.102452E-1	4.933761E-1	5.542435E-1	5.822443E-1	6.469066E-1	5.388347E-1	6.338251E-1	5.893484E-1	6.430805E-1	5.743431E-1	6.320900E-1	5.667151E-1	6.243845E-1	5.163462E-1	4.982522E-1	6.111181E-1	5.932946E-1	5.428750E-1	4.566398E-1	6.124447E-1	6.009252E-1	6.000750E-1	6.081189E-1	6.088655E-1	6.503263E-1	6.054261E-1	5.824840E-1	5.802078E-1	5.955080E-1	5.427318E-1	5.447627E-1	6.054585E-1	5.984875E-1	5.602867E-1	4.998515E-1	6.124456E-1	6.305644E-1	6.240477E-1	5.649704E-1	5.528547E-1	5.591816E-1	6.099358E-1	5.823827E-1	6.367902E-1	5.851956E-1	5.242554E-1	5.174277E-1	5.986791E-1	6.518999E-1	5.476650E-1	4.223782E-1	5.772051E-1	6.384804E-1	6.168653E-1	5.211262E-1	6.186177E-1	5.273109E-1	5.770282E-1	5.510162E-1	6.021214E-1	5.833882E-1	5.088921E-1	5.294348E-1	5.947114E-1	5.923296E-1	5.006592E-1	5.275339E-1	4.844810E-1	6.223288E-1	5.637750E-1	5.991743E-1	5.857652E-1	4.841276E-1	6.472972E-1	6.457443E-1	5.884384E-1	5.627452E-1	5.934613E-1	5.614499E-1	6.230454E-1	6.141580E-1	6.179383E-1	5.743193E-1	6.214665E-1	5.758159E-1	6.457935E-1	6.276407E-1	6.068603E-1	4.928128E-1	5.957159E-1	5.885774E-1	6.325179E-1	4.915303E-1
2.900050E+2	6.022904E-1	5.482470E-1	6.291879E-1	5.704919E-1	6.177977E-1	5.447818E-1	5.961868E-1	5.653777E-1	5.565270E-1	5.834171E-1	6.074822E-1	6.231371E-1	4.865234E-1	5.585787E-1	6.145329E-1	5.539215E-1	4.969227E-1	5.697241E-1	6.164046E-1	5.847078E-1	5.707781E-1	5.657884E-1	6.131520E-1	5.894562E-1	5.733446E-1	5.293089E-1	5.675256E-1	6.195048E-1	4.714716E-1	4.635026E-1	5.904037E-1	5.778928E-1	4.711685E-1	5.305454E-1	5.811071E-1	6.149807E-1	5.306701E-1	5.675385E-1	5.803345E-1	5.800160E-1	5.916524E-1	6.144144E-1	5.998601E-1	6.360926E-1	5.801875E-1	4.960212E-1	5.989290E-1	6.093296E-1	5.340934E-1	5.235349E-1	6.282289E-1	5.566916E-1	5.893363E-1	5.783410E-1	6.228894E-1	6.014767E-1	5.758179E-1	5.537528E-1	5.707011E-1	5.807870E-1	4.759402E-1	4.847923E-1	5.851749E-1	5.487306E-1	5.731998E-1	5.139583E-1	5.935694E-1	6.004086E-1	6.107780E-1	5.113981E-1	5.696481E-1	5.803506E-1	5.585358E-1	6.130162E-1	6.213198E-1	6.113660E-1	4.979264E-1	5.088448E-1	5.775580E-1	5.772250E-1	4.809252E-1	5.593038E-1	5.520225E-1	6.040876E-1	5.894593E-1	6.175327E-1	5.870157E-1	6.196665E-1	5.861658E-1	5.814221E-1	5.841828E-1	6.134161E-1	4.912676E-1	4.911417E-1	5.866137E-1	6.033721E-1	4.511700E-1	4.694971E-1	5.670278E-1	6.046282E-1	5.564199E-1	5.341643E-1	6.241098E-1	6.070830E-1	5.612782E-1	5.957204E-1	5.937637E-1	6.140068E-1	5.025436E-1	4.796953E-1	6.193230E-1	5.897294E-1	5.791130E-1	4.720878E-1	5.698811E-1	5.754936E-1	5.774765E-1	5.084832E-1	5.648106E-1	5.996362E-1	5.430676E-1	5.662867E-1	5.814883E-1	6.007793E-1	4.804229E-1	4.823544E-1	5.995603E-1	5.958984E-1	5.131404E-1	4.065461E-1	5.444366E-1	5.749635E-1	5.981695E-1	5.099211E-1	5.806550E-1	5.823982E-1	5.691821E-1	5.263096E-1	5.993543E-1	6.099282E-1	4.789523E-1	4.850593E-1	6.366684E-1	5.876241E-1	4.584730E-1	5.300878E-1	4.686508E-1	6.593048E-1	5.461818E-1	5.889473E-1	6.288504E-1	6.084524E-1	5.584979E-1	5.812552E-1	6.050177E-1	5.564687E-1	5.404722E-1	5.328650E-1	5.896965E-1	5.762342E-1	5.713445E-1	5.508872E-1	5.802370E-1	5.927710E-1	6.318172E-1	5.962692E-1	6.052174E-1	5.610405E-1	5.704477E-1	6.085099E-1	6.551784E-1	4.987258E-1
2.905200E+2	5.127535E-1	5.086778E-1	5.289158E-1	5.855208E-1	5.408329E-1	5.053405E-1	5.599464E-1	5.261201E-1	5.024412E-1	4.776687E-1	5.258553E-1	5.377215E-1	4.391569E-1	4.849078E-1	5.074510E-1	5.102453E-1	4.332850E-1	4.801811E-1	5.092219E-1	5.161745E-1	5.510382E-1	5.532477E-1	5.075223E-1	5.501655E-1	5.274851E-1	5.153280E-1	5.359378E-1	5.043340E-1	4.128244E-1	4.612906E-1	5.446709E-1	5.482459E-1	4.312025E-1	4.511484E-1	5.365983E-1	5.108472E-1	4.850437E-1	5.119722E-1	5.355066E-1	5.269728E-1	5.446437E-1	4.883397E-1	5.689832E-1	5.355280E-1	4.616092E-1	4.515916E-1	5.141174E-1	5.262346E-1	4.768262E-1	4.789628E-1	5.228172E-1	5.380173E-1	5.393200E-1	4.947604E-1	5.448668E-1	5.007725E-1	4.818251E-1	5.195788E-1	4.880731E-1	5.373725E-1	4.284044E-1	4.498260E-1	5.202672E-1	4.969432E-1	4.823378E-1	4.752431E-1	5.452291E-1	5.483104E-1	5.243981E-1	4.620061E-1	5.224492E-1	5.206575E-1	4.971948E-1	5.534027E-1	5.123422E-1	5.230605E-1	4.456542E-1	4.623267E-1	5.404290E-1	4.857824E-1	4.875657E-1	5.348437E-1	5.246340E-1	5.534837E-1	5.252332E-1	4.871994E-1	4.929377E-1	5.494276E-1	4.742338E-1	5.189301E-1	5.084913E-1	5.467586E-1	4.497088E-1	4.555903E-1	5.430513E-1	5.483349E-1	4.534627E-1	4.405679E-1	5.061686E-1	4.861553E-1	4.653458E-1	4.521702E-1	5.382609E-1	5.794974E-1	5.180497E-1	5.101294E-1	5.178487E-1	5.488189E-1	5.009985E-1	4.510101E-1	5.318077E-1	5.117096E-1	4.885700E-1	4.395637E-1	5.217648E-1	5.204223E-1	5.088910E-1	4.771012E-1	5.130019E-1	5.074001E-1	5.148138E-1	5.188917E-1	5.749273E-1	5.201103E-1	4.465879E-1	4.293714E-1	5.123991E-1	5.209679E-1	4.407220E-1	3.454798E-1	5.280513E-1	4.775704E-1	5.576618E-1	4.979157E-1	5.273453E-1	4.946030E-1	5.168729E-1	4.740470E-1	5.292762E-1	5.686440E-1	4.448345E-1	4.462312E-1	5.361474E-1	5.575078E-1	4.463030E-1	5.054075E-1	4.449045E-1	5.189827E-1	5.197922E-1	4.819552E-1	5.249394E-1	5.470487E-1	5.416729E-1	5.090280E-1	5.596435E-1	5.824709E-1	4.712443E-1	5.011907E-1	5.435210E-1	5.475800E-1	5.079786E-1	4.834020E-1	5.497632E-1	5.552917E-1	5.060287E-1	4.868928E-1	5.485260E-1	5.447588E-1	5.221103E-1	4.843159E-1	5.735990E-1	4.771398E-1
2.910060E+2	6.158248E-1	6.169734E-1	5.954329E-1	6.867196E-1	6.492837E-1	6.072310E-1	6.407338E-1	6.221771E-1	5.663606E-1	6.282798E-1	6.256227E-1	5.668198E-1	4.756961E-1	5.788018E-1	6.334715E-1	6.325381E-1	5.314907E-1	6.113921E-1	6.630414E-1	6.041425E-1	5.785332E-1	6.488683E-1	6.041767E-1	5.854469E-1	6.003690E-1	5.703778E-1	6.268498E-1	6.696589E-1	5.562621E-1	5.439038E-1	6.173931E-1	6.261732E-1	5.040816E-1	5.592800E-1	6.410561E-1	6.295960E-1	5.705925E-1	6.245126E-1	6.463082E-1	6.338049E-1	6.013777E-1	6.063837E-1	6.457057E-1	6.480240E-1	5.477807E-1	5.245356E-1	6.066395E-1	6.395448E-1	5.564187E-1	5.235346E-1	6.362695E-1	6.811913E-1	6.280278E-1	5.957847E-1	6.348314E-1	5.961763E-1	6.305696E-1	5.760406E-1	6.305642E-1	6.362101E-1	5.071107E-1	5.704218E-1	6.076122E-1	6.126018E-1	5.248514E-1	5.242300E-1	6.479516E-1	5.789558E-1	6.245383E-1	6.003040E-1	6.349997E-1	6.516518E-1	5.585354E-1	6.557377E-1	6.014273E-1	5.912564E-1	5.609392E-1	5.088453E-1	6.476897E-1	6.686657E-1	5.523117E-1	6.276228E-1	6.190780E-1	6.459333E-1	5.871926E-1	6.431342E-1	6.632108E-1	6.719565E-1	5.924722E-1	6.312453E-1	6.094130E-1	6.513849E-1	5.349755E-1	5.466022E-1	6.392514E-1	6.243008E-1	5.291197E-1	5.169087E-1	6.206197E-1	6.092558E-1	6.030859E-1	5.872187E-1	6.241099E-1	6.644925E-1	6.173834E-1	6.160149E-1	6.552189E-1	6.571728E-1	5.195468E-1	5.314699E-1	5.768643E-1	6.589930E-1	5.638729E-1	5.220628E-1	7.022012E-1	6.112898E-1	6.342084E-1	5.469257E-1	6.604561E-1	6.400904E-1	5.920415E-1	6.118935E-1	6.396016E-1	6.521138E-1	5.665494E-1	5.562330E-1	6.559066E-1	6.329695E-1	5.476652E-1	4.495193E-1	6.292520E-1	6.109568E-1	6.114123E-1	5.731486E-1	6.501191E-1	5.996130E-1	5.604637E-1	5.738212E-1	6.473030E-1	6.875820E-1	5.353506E-1	5.738106E-1	6.043264E-1	6.732675E-1	5.079604E-1	5.556187E-1	4.730477E-1	6.697343E-1	5.469807E-1	6.212020E-1	6.043510E-1	6.023880E-1	6.052348E-1	6.294068E-1	6.530086E-1	6.353718E-1	5.293615E-1	5.714929E-1	6.572488E-1	6.394410E-1	5.685497E-1	5.733808E-1	6.151926E-1	6.284669E-1	6.145519E-1	6.564686E-1	6.430117E-1	6.742374E-1	5.770395E-1	5.870441E-1	6.483811E-1	6.894019E-1
2.915180E+2	7.959400E-1	8.116976E-1	8.376767E-1	8.199806E-1	8.312009E-1	7.888247E-1	8.491214E-1	8.042668E-1	7.736877E-1	7.836976E-1	7.601571E-1	8.277607E-1	7.220035E-1	7.897017E-1	8.097549E-1	8.142312E-1	6.815502E-1	8.170731E-1	8.234064E-1	8.209951E-1	7.991953E-1	7.727047E-1	8.354568E-1	8.107651E-1	7.854441E-1	7.634893E-1	8.256236E-1	8.452003E-1	6.580111E-1	7.024928E-1	8.355618E-1	8.260747E-1	6.655129E-1	7.120264E-1	8.626907E-1	8.205072E-1	7.210163E-1	7.947302E-1	7.816387E-1	8.101169E-1	7.229500E-1	7.750187E-1	8.347046E-1	8.176205E-1	7.186518E-1	6.492044E-1	7.993936E-1	8.321739E-1	7.699592E-1	6.956777E-1	8.721059E-1	7.736775E-1	7.592007E-1	7.607654E-1	8.195389E-1	7.900118E-1	7.993921E-1	7.543409E-1	8.287022E-1	7.719954E-1	7.027082E-1	6.489161E-1	8.199669E-1	8.456446E-1	8.116072E-1	6.980508E-1	8.128257E-1	8.220823E-1	7.950061E-1	7.887532E-1	7.729643E-1	8.116622E-1	7.855745E-1	7.690019E-1	7.882443E-1	8.124589E-1	6.762239E-1	7.325781E-1	8.077555E-1	7.931282E-1	6.735034E-1	7.659456E-1	8.523532E-1	7.559000E-1	7.821358E-1	7.936385E-1	8.194894E-1	7.921435E-1	7.516994E-1	7.942295E-1	8.015532E-1	8.226699E-1	6.954765E-1	6.731646E-1	7.889959E-1	8.103421E-1	6.735554E-1	7.113775E-1	8.159105E-1	8.869256E-1	7.039456E-1	7.640675E-1	8.295059E-1	8.568506E-1	7.700613E-1	8.013162E-1	8.522363E-1	8.659526E-1	6.710241E-1	6.706995E-1	8.697382E-1	8.373251E-1	7.673693E-1	6.830930E-1	8.382231E-1	8.012845E-1	8.044034E-1	7.320776E-1	8.126933E-1	8.116170E-1	7.709852E-1	7.755424E-1	7.867606E-1	8.134532E-1	6.734384E-1	6.517526E-1	8.707268E-1	8.262124E-1	7.346069E-1	5.452658E-1	7.979199E-1	8.322082E-1	8.092765E-1	7.652320E-1	8.334739E-1	8.104942E-1	8.071855E-1	6.669439E-1	8.243428E-1	8.546853E-1	6.739095E-1	7.116921E-1	7.896341E-1	7.739703E-1	6.969882E-1	7.198688E-1	6.929166E-1	8.214362E-1	7.868851E-1	7.982105E-1	8.020342E-1	8.207148E-1	8.781743E-1	7.927775E-1	8.353751E-1	8.111109E-1	7.575579E-1	7.445439E-1	8.248480E-1	7.776529E-1	7.977868E-1	7.608376E-1	8.285099E-1	8.319328E-1	8.579063E-1	7.921289E-1	8.434832E-1	7.920852E-1	7.429281E-1	7.419026E-1	8.160708E-1	7.937347E-1
2.920030E+2	6.033316E-1	5.774037E-1	5.815341E-1	6.215924E-1	6.186725E-1	6.055879E-1	6.701796E-1	6.322004E-1	5.712766E-1	5.914284E-1	5.946341E-1	6.634984E-1	4.811099E-1	5.867458E-1	6.298298E-1	5.897356E-1	5.189206E-1	6.211443E-1	6.466775E-1	6.205088E-1	5.665478E-1	5.736261E-1	6.076291E-1	6.391704E-1	5.987301E-1	5.354252E-1	6.222269E-1	6.222915E-1	5.230529E-1	5.269380E-1	6.248908E-1	6.202439E-1	5.142686E-1	5.456691E-1	6.192566E-1	6.012796E-1	5.634639E-1	6.083349E-1	5.591890E-1	6.031743E-1	5.665274E-1	5.919297E-1	6.391563E-1	6.181951E-1	5.684035E-1	5.086204E-1	6.049260E-1	6.561647E-1	5.738898E-1	5.189240E-1	6.273355E-1	6.242773E-1	6.280277E-1	5.885170E-1	6.045775E-1	6.400920E-1	5.584791E-1	5.574679E-1	5.976815E-1	5.909473E-1	5.172410E-1	5.575770E-1	6.084141E-1	6.082863E-1	5.715328E-1	5.305503E-1	5.978846E-1	6.187965E-1	6.107783E-1	5.820669E-1	6.415350E-1	6.524800E-1	6.087225E-1	6.259313E-1	6.377523E-1	6.043718E-1	4.800247E-1	5.088451E-1	6.419139E-1	6.373382E-1	5.108077E-1	5.846075E-1	6.058555E-1	6.381482E-1	5.977711E-1	6.291701E-1	5.940137E-1	6.493236E-1	5.633072E-1	6.025333E-1	5.967980E-1	6.522289E-1	4.726377E-1	5.217157E-1	6.192851E-1	6.103487E-1	4.985509E-1	5.000330E-1	6.406032E-1	6.000000E-1	5.556667E-1	5.518487E-1	6.192958E-1	6.227404E-1	5.603578E-1	5.604243E-1	6.082245E-1	6.034355E-1	5.643719E-1	5.349679E-1	6.071917E-1	6.502356E-1	5.755267E-1	5.395136E-1	6.216987E-1	6.379072E-1	5.977984E-1	5.790917E-1	6.349513E-1	6.158177E-1	6.024015E-1	6.092108E-1	6.349154E-1	6.209468E-1	5.342517E-1	5.502630E-1	6.242118E-1	6.306040E-1	5.232451E-1	4.389646E-1	5.569657E-1	6.194266E-1	5.747990E-1	5.499389E-1	6.048868E-1	6.538395E-1	6.232337E-1	5.111061E-1	6.150304E-1	6.325364E-1	5.061073E-1	4.803050E-1	6.357936E-1	5.960937E-1	5.452789E-1	5.445557E-1	4.721681E-1	6.308613E-1	5.549775E-1	6.172682E-1	5.756272E-1	5.978399E-1	6.229946E-1	6.053311E-1	6.469009E-1	6.479242E-1	5.703850E-1	5.931238E-1	6.452776E-1	6.150011E-1	5.405941E-1	5.799422E-1	5.972664E-1	5.990179E-1	5.981096E-1	6.267929E-1	6.569788E-1	6.408981E-1	6.034060E-1	6.085094E-1	6.257205E-1	6.390346E-1
2.925020E+2	6.262370E-1	6.242619E-1	6.252171E-1	5.765041E-1	6.492844E-1	5.718979E-1	6.324285E-1	5.812481E-1	5.434150E-1	5.946321E-1	5.999250E-1	5.968555E-1	4.899068E-1	5.715790E-1	6.225451E-1	5.818744E-1	4.254288E-1	6.105050E-1	6.139500E-1	6.113027E-1	5.517433E-1	5.595183E-1	5.876073E-1	5.982769E-1	5.848083E-1	5.598923E-1	5.867868E-1	5.860677E-1	5.004418E-1	4.716165E-1	5.731597E-1	6.117736E-1	4.868413E-1	4.965187E-1	6.365154E-1	5.601737E-1	5.335211E-1	6.069281E-1	6.217797E-1	5.747856E-1	6.127249E-1	6.079902E-1	5.699195E-1	6.199000E-1	5.293684E-1	5.145885E-1	5.715147E-1	6.357680E-1	5.399173E-1	5.097023E-1	6.014294E-1	5.940416E-1	5.506444E-1	5.659863E-1	5.966164E-1	6.166200E-1	5.685179E-1	5.418665E-1	6.204462E-1	6.149641E-1	4.829534E-1	4.926413E-1	5.907844E-1	5.892971E-1	5.531935E-1	4.823544E-1	6.125600E-1	6.167533E-1	5.901389E-1	5.949849E-1	6.349998E-1	5.811793E-1	5.665016E-1	6.577249E-1	6.256442E-1	6.349724E-1	4.771607E-1	5.553642E-1	6.138617E-1	6.026248E-1	5.323901E-1	6.369004E-1	6.011334E-1	5.924092E-1	5.471457E-1	5.888282E-1	6.274456E-1	6.266912E-1	5.428122E-1	6.092895E-1	6.191170E-1	6.075095E-1	4.790865E-1	5.046513E-1	6.129325E-1	6.374793E-1	5.176570E-1	4.871759E-1	6.351526E-1	6.064788E-1	5.406131E-1	5.365756E-1	6.626217E-1	6.145383E-1	5.704754E-1	6.001325E-1	6.434706E-1	5.875793E-1	4.468989E-1	4.761971E-1	6.063253E-1	6.438660E-1	5.764232E-1	5.268216E-1	6.041176E-1	5.810002E-1	5.673162E-1	5.837988E-1	5.895188E-1	6.158171E-1	6.494912E-1	5.573440E-1	6.246049E-1	5.576942E-1	5.042618E-1	5.286218E-1	6.066026E-1	5.627714E-1	5.341924E-1	4.397184E-1	6.080479E-1	6.321293E-1	6.168654E-1	5.003167E-1	5.871167E-1	6.572826E-1	5.683096E-1	5.225086E-1	5.578606E-1	6.069794E-1	4.893967E-1	5.104170E-1	6.008305E-1	5.819776E-1	5.185068E-1	5.428526E-1	5.143831E-1	6.422391E-1	5.533789E-1	5.448913E-1	5.832298E-1	5.758553E-1	6.033647E-1	5.760958E-1	6.390478E-1	6.066794E-1	5.644027E-1	5.467708E-1	6.495531E-1	6.276425E-1	6.011654E-1	5.518239E-1	6.420812E-1	6.364989E-1	6.227727E-1	5.776167E-1	6.060392E-1	5.974808E-1	5.737438E-1	6.177095E-1	5.826650E-1	5.994603E-1
2.930050E+2	6.491418E-1	6.867407E-1	6.530160E-1	6.756975E-1	7.070074E-1	6.581754E-1	6.611193E-1	6.814812E-1	6.745311E-1	6.475065E-1	7.148076E-1	6.381553E-1	6.651632E-1	6.438054E-1	6.851911E-1	6.762144E-1	6.571952E-1	6.220303E-1	6.679508E-1	6.583554E-1	6.405724E-1	6.504360E-1	6.884038E-1	6.439811E-1	6.257546E-1	6.184369E-1	6.576674E-1	6.956657E-1	5.449568E-1	5.593934E-1	6.826186E-1	6.769956E-1	5.416972E-1	6.114562E-1	6.910155E-1	6.789221E-1	6.376058E-1	6.442068E-1	6.420793E-1	6.771359E-1	6.759421E-1	6.730356E-1	6.784534E-1	7.204643E-1	6.251151E-1	5.344829E-1	6.640373E-1	7.014889E-1	6.195094E-1	5.919310E-1	6.773615E-1	6.856377E-1	6.327454E-1	6.125011E-1	6.690665E-1	7.082367E-1	6.196190E-1	6.399315E-1	6.027408E-1	7.082596E-1	5.865965E-1	5.768441E-1	6.893493E-1	6.894187E-1	6.173801E-1	5.629447E-1	6.902494E-1	6.504645E-1	6.184226E-1	6.208208E-1	6.749367E-1	6.508225E-1	6.318247E-1	7.103821E-1	6.879162E-1	6.848084E-1	5.860010E-1	5.937607E-1	6.922444E-1	6.601993E-1	5.730635E-1	6.571434E-1	6.757442E-1	6.761008E-1	6.128825E-1	6.780445E-1	6.601011E-1	7.195631E-1	6.279434E-1	6.751579E-1	6.695778E-1	6.783854E-1	5.887148E-1	5.650887E-1	6.256381E-1	7.111201E-1	5.337047E-1	5.442309E-1	6.287937E-1	7.110687E-1	6.309352E-1	6.450962E-1	6.979241E-1	6.734391E-1	6.532534E-1	6.557226E-1	7.031183E-1	6.562919E-1	6.068783E-1	5.384658E-1	7.207019E-1	6.685461E-1	6.445539E-1	6.045611E-1	7.281107E-1	6.994039E-1	6.850139E-1	6.112581E-1	6.492976E-1	6.400901E-1	6.852806E-1	6.226243E-1	7.127125E-1	7.025329E-1	5.642422E-1	5.547403E-1	7.184155E-1	6.369131E-1	5.813482E-1	4.857069E-1	6.735878E-1	6.871774E-1	6.612680E-1	5.651450E-1	6.880827E-1	6.744971E-1	6.293367E-1	5.586176E-1	6.823422E-1	7.141214E-1	5.889637E-1	6.023374E-1	7.170850E-1	6.553865E-1	6.109929E-1	5.581717E-1	6.709302E-1	7.067118E-1	6.453415E-1	6.448030E-1	6.254706E-1	6.539373E-1	6.818814E-1	6.414448E-1	6.957642E-1	6.963420E-1	6.173926E-1	6.804225E-1	6.965835E-1	7.060186E-1	6.449622E-1	6.530505E-1	6.895842E-1	7.310923E-1	6.778566E-1	6.649476E-1	6.791622E-1	6.819904E-1	6.187860E-1	7.311698E-1	6.801058E-1	6.534254E-1
2.935120E+2	8.209260E-1	8.491844E-1	8.098781E-1	9.011396E-1	8.845525E-1	8.003284E-1	8.136346E-1	8.076084E-1	8.777613E-1	8.293610E-1	8.228884E-1	8.146193E-1	8.410964E-1	7.658671E-1	8.243236E-1	8.255873E-1	8.253232E-1	8.197335E-1	8.708624E-1	8.936200E-1	8.654640E-1	8.142448E-1	8.361478E-1	8.773184E-1	8.755241E-1	7.748490E-1	8.364095E-1	9.148605E-1	8.473774E-1	7.356852E-1	8.333122E-1	8.497918E-1	8.128393E-1	7.868868E-1	8.536065E-1	8.369497E-1	8.094165E-1	8.123151E-1	8.281580E-1	8.549410E-1	8.064297E-1	8.191854E-1	8.440606E-1	8.363696E-1	7.311729E-1	7.274535E-1	8.713541E-1	8.646564E-1	8.019897E-1	7.048994E-1	8.658525E-1	8.270347E-1	8.582884E-1	7.643995E-1	8.505886E-1	8.331708E-1	7.857034E-1	7.840578E-1	8.657998E-1	8.542069E-1	7.292036E-1	7.102850E-1	8.015354E-1	8.741285E-1	7.474210E-1	7.249143E-1	8.706616E-1	8.568143E-1	8.141162E-1	7.879942E-1	8.252453E-1	8.423379E-1	7.831843E-1	8.196731E-1	8.669500E-1	8.710383E-1	7.206195E-1	7.429160E-1	8.061059E-1	8.193750E-1	7.473804E-1	8.401686E-1	8.561309E-1	8.464030E-1	8.070707E-1	8.673393E-1	9.026823E-1	8.982838E-1	7.753471E-1	8.212525E-1	8.112565E-1	8.471384E-1	6.653835E-1	6.952063E-1	8.661370E-1	8.475501E-1	6.926604E-1	6.904842E-1	8.349858E-1	7.999224E-1	7.430848E-1	7.383440E-1	8.864708E-1	8.598333E-1	7.875377E-1	8.171989E-1	8.278352E-1	8.227868E-1	7.622203E-1	6.965859E-1	9.078627E-1	9.049961E-1	7.512327E-1	7.251360E-1	8.261944E-1	8.609460E-1	8.077903E-1	7.650283E-1	8.134905E-1	8.666350E-1	8.783505E-1	8.139950E-1	8.636199E-1	8.904551E-1	7.065047E-1	7.383165E-1	8.601617E-1	7.875639E-1	7.169224E-1	5.626060E-1	8.268340E-1	8.480874E-1	9.011976E-1	7.676325E-1	8.367046E-1	8.561135E-1	7.888776E-1	7.078035E-1	8.630706E-1	7.888267E-1	7.365750E-1	7.354639E-1	8.805405E-1	8.662016E-1	7.205148E-1	7.479530E-1	8.037306E-1	8.517757E-1	7.357060E-1	8.013570E-1	8.746877E-1	7.941819E-1	8.735008E-1	8.297510E-1	8.589347E-1	8.783581E-1	7.960188E-1	7.661750E-1	8.496460E-1	8.644565E-1	7.866051E-1	7.477150E-1	8.294054E-1	8.819075E-1	8.447519E-1	7.785626E-1	8.656665E-1	8.525596E-1	8.330127E-1	9.028949E-1	8.885858E-1	9.016625E-1
2.940070E+2	7.032795E-1	6.482122E-1	7.225122E-1	6.907272E-1	7.087572E-1	7.156942E-1	7.049110E-1	7.048688E-1	7.171437E-1	6.907668E-1	6.989359E-1	6.888421E-1	6.922294E-1	6.373055E-1	7.478379E-1	6.919375E-1	6.729078E-1	6.858631E-1	7.088604E-1	7.534851E-1	7.004965E-1	6.755170E-1	7.194720E-1	6.672348E-1	7.223874E-1	6.778556E-1	6.869436E-1	7.207424E-1	6.905143E-1	5.925868E-1	7.306010E-1	6.456556E-1	7.101811E-1	6.318725E-1	6.873815E-1	6.853167E-1	7.288580E-1	6.639024E-1	6.691455E-1	7.227079E-1	6.872894E-1	6.722318E-1	7.383340E-1	7.102375E-1	6.847721E-1	6.147214E-1	6.511869E-1	7.324607E-1	6.893955E-1	6.080688E-1	7.273882E-1	7.203201E-1	7.214533E-1	6.982621E-1	7.009123E-1	7.067227E-1	6.953613E-1	6.555329E-1	7.030742E-1	7.128781E-1	7.097217E-1	6.132369E-1	6.885473E-1	7.204921E-1	7.157444E-1	6.293123E-1	7.489485E-1	6.923468E-1	7.231497E-1	6.405773E-1	6.829243E-1	6.466766E-1	7.266234E-1	7.074023E-1	6.870520E-1	6.883068E-1	6.905446E-1	6.048364E-1	6.567658E-1	6.872928E-1	7.299486E-1	7.026889E-1	6.955769E-1	7.286515E-1	6.808864E-1	7.214899E-1	6.958663E-1	6.961496E-1	7.658881E-1	6.751580E-1	6.744298E-1	6.707921E-1	7.133906E-1	5.444695E-1	7.145772E-1	7.204220E-1	7.362204E-1	5.771779E-1	7.141781E-1	7.443886E-1	7.393219E-1	6.418814E-1	7.083543E-1	6.794040E-1	6.872842E-1	6.654288E-1	7.157700E-1	7.250039E-1	6.918915E-1	5.958374E-1	7.215684E-1	6.812844E-1	7.207532E-1	6.299451E-1	6.864722E-1	7.085825E-1	6.850126E-1	6.371484E-1	6.580643E-1	7.007717E-1	7.107097E-1	6.637600E-1	7.070882E-1	7.575340E-1	7.157324E-1	6.069776E-1	7.289805E-1	7.299857E-1	7.143956E-1	4.939998E-1	6.812981E-1	6.554191E-1	6.971011E-1	5.779502E-1	6.945437E-1	6.753580E-1	6.807728E-1	7.258589E-1	6.878739E-1	7.141223E-1	7.254345E-1	6.197710E-1	7.625382E-1	6.977366E-1	7.188925E-1	6.373183E-1	7.324931E-1	6.393947E-1	7.165128E-1	6.424430E-1	7.217779E-1	7.176160E-1	7.248797E-1	6.964749E-1	7.088527E-1	7.115857E-1	6.720916E-1	6.935553E-1	7.025691E-1	6.975908E-1	7.185787E-1	6.605487E-1	7.173701E-1	7.248458E-1	7.395178E-1	6.556206E-1	7.605007E-1	7.075758E-1	7.363359E-1	7.296359E-1	7.639513E-1	6.318393E-1
2.945010E+2	6.387295E-1	5.721970E-1	6.351450E-1	6.466407E-1	6.116753E-1	6.244866E-1	6.324291E-1	6.238468E-1	6.466685E-1	6.250746E-1	6.203313E-1	6.390936E-1	6.698997E-1	5.607448E-1	6.050619E-1	6.176887E-1	6.713367E-1	5.963202E-1	6.450414E-1	6.184635E-1	6.659519E-1	6.386793E-1	6.283405E-1	6.287463E-1	6.503228E-1	5.878542E-1	6.229976E-1	6.037158E-1	6.276278E-1	5.453785E-1	6.346367E-1	6.270210E-1	6.404362E-1	5.494499E-1	6.437817E-1	6.149809E-1	6.397446E-1	6.153689E-1	5.989429E-1	6.203574E-1	6.005672E-1	6.264593E-1	6.382206E-1	6.480244E-1	6.531021E-1	5.596816E-1	5.955026E-1	6.478546E-1	6.282457E-1	5.688765E-1	6.862944E-1	6.891947E-1	6.082102E-1	6.030527E-1	6.332396E-1	6.007190E-1	6.542960E-1	6.265590E-1	6.314078E-1	6.417527E-1	6.349112E-1	5.383104E-1	6.412689E-1	6.540311E-1	6.282172E-1	5.289701E-1	6.099701E-1	6.463779E-1	6.283603E-1	6.056232E-1	6.233813E-1	6.400445E-1	6.238596E-1	6.766022E-1	6.187256E-1	6.367215E-1	6.719280E-1	5.479805E-1	6.295380E-1	7.016863E-1	6.892745E-1	6.554555E-1	6.474104E-1	6.585847E-1	6.891983E-1	6.695114E-1	6.414410E-1	6.524450E-1	6.381912E-1	5.957779E-1	5.938863E-1	6.176342E-1	6.274075E-1	5.402025E-1	6.283605E-1	6.584085E-1	6.452796E-1	5.088733E-1	6.115359E-1	6.397986E-1	6.776018E-1	5.823959E-1	6.273191E-1	6.339243E-1	6.302599E-1	5.966024E-1	5.955715E-1	6.395542E-1	6.547945E-1	5.125793E-1	6.843087E-1	6.669539E-1	7.108922E-1	5.339611E-1	6.448316E-1	6.581002E-1	6.680781E-1	5.539863E-1	6.110393E-1	6.635539E-1	6.598517E-1	5.340930E-1	6.199186E-1	6.310296E-1	6.411411E-1	5.457856E-1	6.594286E-1	6.187723E-1	6.099789E-1	4.472573E-1	6.225052E-1	6.374225E-1	6.597095E-1	5.499384E-1	6.202332E-1	6.228529E-1	6.633370E-1	6.669441E-1	6.546788E-1	6.158261E-1	6.537179E-1	5.698478E-1	6.532755E-1	6.459751E-1	6.767054E-1	5.394487E-1	6.471839E-1	5.976769E-1	6.301474E-1	5.991737E-1	6.271602E-1	6.463562E-1	6.678613E-1	6.560617E-1	6.311941E-1	6.066801E-1	6.088452E-1	6.240266E-1	6.598142E-1	6.571381E-1	6.347117E-1	6.136840E-1	6.411854E-1	6.873654E-1	6.334621E-1	6.454456E-1	6.824485E-1	6.261674E-1	6.649267E-1	6.729061E-1	6.574441E-1	7.109878E-1
2.950040E+2	7.105675E-1	7.398471E-1	7.800945E-1	7.247937E-1	7.349952E-1	7.354147E-1	7.668232E-1	7.783733E-1	7.220612E-1	7.123978E-1	7.934116E-1	7.160624E-1	7.443331E-1	6.633055E-1	7.886297E-1	7.373615E-1	7.813271E-1	7.514683E-1	8.135892E-1	7.800797E-1	7.667654E-1	7.515428E-1	7.505394E-1	7.634566E-1	7.641515E-1	7.398964E-1	7.971169E-1	7.058824E-1	7.322034E-1	6.235674E-1	7.358492E-1	7.362887E-1	7.524975E-1	6.651439E-1	7.400650E-1	7.218544E-1	7.780483E-1	7.018846E-1	7.418849E-1	7.324203E-1	7.488855E-1	7.589591E-1	7.635960E-1	8.014277E-1	7.024488E-1	6.107425E-1	7.317150E-1	7.694749E-1	7.709293E-1	6.580210E-1	7.264941E-1	7.754562E-1	7.658070E-1	6.662832E-1	7.462927E-1	7.786538E-1	7.263880E-1	7.105094E-1	7.671528E-1	7.646063E-1	7.058251E-1	6.210864E-1	7.061774E-1	7.317127E-1	7.649262E-1	6.182513E-1	7.308199E-1	7.567039E-1	7.583126E-1	6.945287E-1	7.497279E-1	6.964211E-1	7.616755E-1	7.600593E-1	7.138634E-1	7.643719E-1	7.163227E-1	7.008274E-1	7.120465E-1	7.575671E-1	7.805832E-1	7.397997E-1	8.240202E-1	7.695242E-1	7.526682E-1	7.191626E-1	7.199689E-1	8.046301E-1	7.619470E-1	7.435607E-1	7.161572E-1	7.602300E-1	7.298704E-1	6.475674E-1	7.036873E-1	7.320504E-1	7.323996E-1	6.173571E-1	7.159945E-1	7.305050E-1	7.701815E-1	7.278935E-1	7.717385E-1	7.181733E-1	7.525863E-1	7.571970E-1	8.142795E-1	7.197179E-1	7.738129E-1	6.014339E-1	7.752899E-1	7.306443E-1	7.628874E-1	6.339112E-1	7.558705E-1	7.627355E-1	7.171886E-1	6.818673E-1	7.497266E-1	7.209992E-1	7.154180E-1	7.147326E-1	7.933219E-1	7.813686E-1	8.010896E-1	6.226488E-1	7.888477E-1	7.639014E-1	7.607103E-1	5.166174E-1	7.497291E-1	7.337573E-1	7.485148E-1	5.883548E-1	7.817791E-1	7.743432E-1	7.435429E-1	7.543652E-1	7.330569E-1	7.377123E-1	7.463227E-1	6.522597E-1	7.459302E-1	7.739693E-1	7.781156E-1	7.002944E-1	7.201802E-1	7.256742E-1	7.652939E-1	6.872849E-1	7.454326E-1	7.191322E-1	7.360958E-1	7.411866E-1	7.428829E-1	7.716589E-1	7.994379E-1	7.229120E-1	7.838031E-1	7.945082E-1	7.716950E-1	6.343050E-1	7.738368E-1	7.114601E-1	7.543169E-1	7.794105E-1	7.268150E-1	7.455662E-1	7.736884E-1	7.419025E-1	8.523273E-1	6.929993E-1
2.955050E+2	9.021340E-1	8.231519E-1	9.022086E-1	9.301963E-1	9.623919E-1	9.145441E-1	9.019722E-1	9.404165E-1	9.269302E-1	8.870417E-1	9.105629E-1	9.159921E-1	9.236495E-1	8.937075E-1	9.984218E-1	9.304092E-1	9.203872E-1	9.394183E-1	9.338625E-1	9.283982E-1	9.366682E-1	9.028114E-1	9.017343E-1	9.061844E-1	8.951785E-1	8.910654E-1	8.656860E-1	9.139319E-1	9.095570E-1	8.588679E-1	9.150318E-1	8.845201E-1	9.139297E-1	8.133533E-1	9.090153E-1	8.762283E-1	8.949653E-1	8.566276E-1	9.203526E-1	9.035017E-1	8.769422E-1	8.786097E-1	9.666289E-1	9.701717E-1	9.639111E-1	7.374008E-1	9.081918E-1	9.205560E-1	9.388505E-1	7.986551E-1	9.149850E-1	8.519343E-1	9.167973E-1	8.930413E-1	9.071156E-1	9.043446E-1	8.815208E-1	8.828666E-1	9.577025E-1	9.438065E-1	8.780441E-1	7.709385E-1	9.233390E-1	9.474937E-1	9.641546E-1	7.557279E-1	9.233172E-1	8.660087E-1	9.746466E-1	8.366268E-1	9.247244E-1	8.829627E-1	9.719856E-1	8.872323E-1	9.248982E-1	8.806566E-1	9.576335E-1	8.396454E-1	8.919144E-1	9.421432E-1	8.818522E-1	8.933052E-1	9.241303E-1	8.931153E-1	9.075654E-1	8.735455E-1	9.485547E-1	8.982834E-1	9.527046E-1	8.980999E-1	9.325570E-1	9.137958E-1	9.376626E-1	7.599100E-1	9.441863E-1	9.281678E-1	9.593698E-1	7.419139E-1	9.194615E-1	9.146938E-1	9.583518E-1	8.637462E-1	9.129478E-1	9.351350E-1	9.135432E-1	8.842609E-1	9.570719E-1	9.654973E-1	9.662529E-1	7.532577E-1	9.364570E-1	9.448016E-1	8.659796E-1	7.481405E-1	9.390838E-1	9.380453E-1	9.720580E-1	8.372067E-1	9.752908E-1	9.483530E-1	9.574614E-1	8.435052E-1	9.086115E-1	9.069554E-1	9.479657E-1	7.786138E-1	9.878210E-1	9.311156E-1	9.367045E-1	6.575988E-1	9.155052E-1	9.243080E-1	9.136613E-1	8.292593E-1	9.077849E-1	8.974286E-1	8.987252E-1	8.911983E-1	9.156298E-1	8.654979E-1	9.176076E-1	8.075745E-1	9.216231E-1	9.499622E-1	9.565971E-1	8.373112E-1	9.127855E-1	9.285742E-1	9.300278E-1	8.863214E-1	9.034099E-1	9.003122E-1	8.959345E-1	8.942396E-1	9.261215E-1	9.106360E-1	9.378936E-1	8.341596E-1	9.180538E-1	8.905826E-1	9.021546E-1	8.958052E-1	9.306861E-1	9.247414E-1	9.064129E-1	8.930256E-1	9.272879E-1	9.215638E-1	9.252961E-1	9.442924E-1	9.905579E-1	9.052622E-1
2.960050E+2	1.018740E+0	9.762239E-1	1.059072E+0	1.006345E+0	1.058598E+0	1.004930E+0	1.036367E+0	9.955449E-1	1.062144E+0	9.719610E-1	1.035271E+0	9.741876E-1	9.980827E-1	1.033826E+0	1.012263E+0	1.005533E+0	9.981666E-1	1.051125E+0	1.023046E+0	1.009206E+0	1.024087E+0	1.020378E+0	1.010817E+0	1.024055E+0	1.049954E+0	9.592216E-1	9.881865E-1	1.029102E+0	1.057234E+0	9.488575E-1	9.787582E-1	1.052233E+0	1.069092E+0	9.487069E-1	9.834991E-1	1.003198E+0	1.007604E+0	1.005744E+0	9.651803E-1	9.826926E-1	1.014724E+0	1.068123E+0	9.872136E-1	1.030680E+0	1.058921E+0	8.872683E-1	1.006711E+0	1.036134E+0	1.031060E+0	8.478386E-1	1.028437E+0	1.020898E+0	1.015885E+0	9.976981E-1	9.811581E-1	1.058806E+0	1.001065E+0	9.727595E-1	1.047075E+0	1.087906E+0	1.043250E+0	8.280256E-1	1.043539E+0	1.019996E+0	1.044180E+0	8.426391E-1	1.065748E+0	1.042735E+0	1.023570E+0	9.209727E-1	1.093186E+0	9.924004E-1	1.033326E+0	1.061104E+0	1.020902E+0	1.002186E+0	1.043560E+0	9.112693E-1	1.023102E+0	1.045439E+0	1.071110E+0	9.590928E-1	1.037463E+0	1.026438E+0	1.040550E+0	1.050426E+0	1.013088E+0	1.045786E+0	1.028377E+0	1.016327E+0	9.830181E-1	9.964841E-1	9.720555E-1	8.850501E-1	1.063982E+0	1.052970E+0	1.058717E+0	8.479873E-1	1.008478E+0	1.024836E+0	1.020072E+0	9.111735E-1	1.014041E+0	1.065611E+0	9.852842E-1	9.822049E-1	1.055581E+0	1.000734E+0	1.072132E+0	8.260216E-1	1.037837E+0	1.037948E+0	1.032721E+0	8.742687E-1	1.064927E+0	1.016980E+0	1.009314E+0	9.297824E-1	1.020723E+0	9.993255E-1	1.053526E+0	9.365073E-1	1.010780E+0	9.802914E-1	1.026402E+0	8.823425E-1	1.077623E+0	1.015512E+0	1.072279E+0	7.420368E-1	9.906838E-1	1.005823E+0	1.022721E+0	8.820824E-1	1.045906E+0	9.852242E-1	1.064369E+0	1.029933E+0	1.021669E+0	1.071920E+0	1.012301E+0	9.137583E-1	1.049241E+0	1.028077E+0	1.032856E+0	9.096484E-1	1.006010E+0	1.022439E+0	1.025990E+0	9.461105E-1	1.089267E+0	9.890081E-1	1.033339E+0	9.724845E-1	1.015125E+0	1.014645E+0	1.032762E+0	9.987118E-1	1.072826E+0	1.022894E+0	1.000001E+0	9.332969E-1	9.898420E-1	1.044322E+0	9.935598E-1	9.515289E-1	1.036562E+0	1.035536E+0	9.681413E-1	1.025553E+0	1.006420E+0	9.880073E-1
2.964960E+2	9.344089E-1	9.043740E-1	9.041946E-1	9.452251E-1	9.562695E-1	8.742804E-1	9.148089E-1	9.429224E-1	9.302077E-1	9.246942E-1	9.332373E-1	9.770042E-1	9.419195E-1	9.168198E-1	9.335902E-1	8.876070E-1	9.274586E-1	9.473977E-1	9.191354E-1	9.590853E-1	9.747378E-1	9.420007E-1	9.562751E-1	9.270320E-1	9.181078E-1	9.330080E-1	9.011274E-1	9.640865E-1	9.879887E-1	9.422189E-1	9.570153E-1	9.963293E-1	9.484102E-1	9.487060E-1	9.462568E-1	9.219009E-1	9.184911E-1	9.600246E-1	9.541851E-1	8.668947E-1	9.409702E-1	9.854114E-1	9.385597E-1	9.855115E-1	9.359236E-1	9.801055E-1	9.613064E-1	9.568160E-1	9.524388E-1	9.769451E-1	9.694781E-1	9.364159E-1	9.479395E-1	9.671735E-1	8.943768E-1	9.028304E-1	9.746009E-1	8.821231E-1	9.189178E-1	9.983066E-1	9.193452E-1	8.158952E-1	9.481805E-1	9.103794E-1	9.474835E-1	8.924148E-1	9.751102E-1	9.324085E-1	9.280160E-1	9.072949E-1	9.131071E-1	9.584074E-1	9.114410E-1	9.538005E-1	9.906306E-1	9.532244E-1	9.562015E-1	7.960802E-1	8.910891E-1	9.167429E-1	9.806316E-1	9.034266E-1	9.628518E-1	9.018726E-1	9.559236E-1	9.487975E-1	9.392256E-1	9.427686E-1	9.337867E-1	9.225893E-1	8.995628E-1	9.424840E-1	9.527092E-1	7.990166E-1	9.460018E-1	9.444459E-1	9.135176E-1	7.378964E-1	9.430782E-1	9.674503E-1	9.606096E-1	8.380222E-1	9.145521E-1	9.478095E-1	9.135428E-1	1.001618E+0	9.534565E-1	9.531647E-1	9.685707E-1	7.868410E-1	9.260597E-1	9.248988E-1	9.439716E-1	8.425384E-1	8.928170E-1	9.352917E-1	9.458093E-1	8.654508E-1	8.876161E-1	8.941443E-1	9.386251E-1	9.266709E-1	9.264209E-1	8.941224E-1	8.910607E-1	7.704051E-1	1.000147E+0	9.295385E-1	9.518615E-1	6.824776E-1	9.714074E-1	9.285428E-1	9.837712E-1	7.956447E-1	9.312086E-1	9.232507E-1	9.675979E-1	9.738689E-1	9.368371E-1	9.392209E-1	9.196963E-1	8.265923E-1	9.329857E-1	9.198458E-1	9.517298E-1	8.551820E-1	9.127854E-1	9.228853E-1	9.252299E-1	9.099228E-1	9.608571E-1	9.018285E-1	9.903420E-1	8.856411E-1	9.287399E-1	9.572609E-1	9.088356E-1	8.859206E-1	9.248940E-1	9.470462E-1	9.068141E-1	9.267358E-1	9.387540E-1	9.640063E-1	9.343653E-1	1.004099E+0	9.667245E-1	9.347437E-1	9.121116E-1	9.289598E-1	9.429704E-1	9.160549E-1
2.970040E+2	9.062993E-1	8.533491E-1	9.359636E-1	9.161688E-1	1.023614E+0	8.767460E-1	8.906477E-1	8.619008E-1	8.933316E-1	9.190864E-1	9.279456E-1	8.531041E-1	8.871098E-1	9.341545E-1	9.430596E-1	8.570332E-1	8.567498E-1	8.924316E-1	9.019525E-1	8.966883E-1	9.401933E-1	9.333788E-1	8.975918E-1	8.965620E-1	9.615107E-1	8.884435E-1	9.496642E-1	8.368420E-1	9.498319E-1	9.429568E-1	9.952518E-1	9.175544E-1	8.731797E-1	9.154352E-1	8.763153E-1	8.762278E-1	9.634045E-1	8.699924E-1	9.220432E-1	8.908015E-1	9.498851E-1	9.155485E-1	8.796155E-1	9.105147E-1	8.873138E-1	8.985413E-1	8.747815E-1	9.069591E-1	8.912888E-1	9.123913E-1	9.131993E-1	8.537126E-1	9.611512E-1	8.966749E-1	9.198541E-1	9.051014E-1	8.258555E-1	8.850949E-1	8.868787E-1	9.336458E-1	9.279180E-1	9.286412E-1	8.864771E-1	8.430560E-1	9.066373E-1	9.382413E-1	8.533973E-1	8.833747E-1	8.859724E-1	8.662610E-1	9.007622E-1	9.012027E-1	9.464937E-1	9.597613E-1	9.093298E-1	8.902730E-1	8.896081E-1	8.381684E-1	8.877893E-1	8.981159E-1	9.017743E-1	8.781236E-1	9.836298E-1	9.047927E-1	8.924531E-1	9.069048E-1	8.816900E-1	8.951610E-1	9.203860E-1	9.082337E-1	8.539544E-1	9.838275E-1	9.362291E-1	8.253244E-1	9.233128E-1	8.808818E-1	9.028182E-1	8.287013E-1	8.804026E-1	8.721171E-1	8.793203E-1	8.774116E-1	9.209713E-1	9.097861E-1	8.666361E-1	8.824953E-1	9.100768E-1	8.844520E-1	9.345655E-1	7.546566E-1	9.208600E-1	9.121607E-1	8.883914E-1	7.957366E-1	9.039218E-1	9.132634E-1	8.585944E-1	8.348535E-1	8.876157E-1	9.572535E-1	9.263822E-1	8.739093E-1	8.523727E-1	8.272035E-1	8.964437E-1	7.480184E-1	8.988999E-1	9.098200E-1	8.853380E-1	6.379973E-1	9.424928E-1	8.798470E-1	8.957441E-1	7.908424E-1	9.376700E-1	8.629988E-1	9.065713E-1	8.911992E-1	8.556934E-1	8.369917E-1	9.217852E-1	8.162906E-1	8.499470E-1	9.904316E-1	9.395602E-1	8.415660E-1	8.820034E-1	9.551216E-1	8.396645E-1	8.540666E-1	9.591680E-1	8.381500E-1	8.697612E-1	9.131561E-1	8.763865E-1	9.411211E-1	9.344751E-1	8.233440E-1	9.052267E-1	9.040666E-1	9.077456E-1	8.039523E-1	9.046955E-1	8.827990E-1	8.858591E-1	8.277400E-1	9.133205E-1	8.455829E-1	8.857458E-1	8.691619E-1	9.384396E-1	8.333076E-1
2.975040E+2	1.022904E+0	9.647695E-1	1.024324E+0	1.000334E+0	9.877549E-1	9.556283E-1	9.706801E-1	1.038979E+0	1.026086E+0	9.623469E-1	1.014109E+0	9.826353E-1	1.072516E+0	1.003491E+0	1.055240E+0	9.688441E-1	9.463146E-1	1.012117E+0	1.014045E+0	1.043984E+0	9.690981E-1	9.623784E-1	9.880332E-1	9.430690E-1	9.991808E-1	1.030874E+0	9.743187E-1	9.845204E-1	1.010599E+0	1.044012E+0	1.018493E+0	1.034446E+0	1.015804E+0	9.388767E-1	1.028006E+0	1.051610E+0	9.912077E-1	1.031770E+0	1.062449E+0	1.026023E+0	1.035797E+0	9.669419E-1	1.017154E+0	1.018749E+0	9.823237E-1	1.013262E+0	1.030698E+0	1.019514E+0	9.446735E-1	1.005379E+0	1.009678E+0	1.010227E+0	1.044196E+0	1.006420E+0	9.915079E-1	1.014892E+0	1.033917E+0	1.020307E+0	1.041173E+0	1.004773E+0	9.980518E-1	1.035679E+0	1.005876E+0	1.000143E+0	1.060019E+0	1.001449E+0	9.811531E-1	1.005959E+0	9.685314E-1	1.026597E+0	1.040906E+0	9.965452E-1	9.950874E-1	9.935418E-1	1.001874E+0	1.011803E+0	9.733863E-1	9.459744E-1	1.020628E+0	1.005645E+0	1.016325E+0	1.005481E+0	9.666294E-1	1.048820E+0	9.937035E-1	1.044221E+0	1.027083E+0	1.007544E+0	1.021283E+0	1.012948E+0	1.008249E+0	1.008297E+0	1.006448E+0	1.018724E+0	9.759499E-1	9.870803E-1	9.983436E-1	9.685257E-1	1.003937E+0	1.011878E+0	1.014802E+0	1.019695E+0	1.026075E+0	9.962721E-1	9.760871E-1	9.566163E-1	1.009490E+0	1.044780E+0	1.031945E+0	9.309683E-1	9.988447E-1	1.051483E+0	9.762439E-1	9.464549E-1	9.909009E-1	1.027076E+0	1.021168E+0	9.588115E-1	9.896384E-1	9.855711E-1	1.003610E+0	9.534990E-1	1.037962E+0	1.016959E+0	1.002563E+0	8.539849E-1	1.009832E+0	1.017878E+0	9.981757E-1	8.536156E-1	1.001286E+0	1.032288E+0	9.604015E-1	9.285022E-1	9.885567E-1	9.938313E-1	9.954956E-1	1.030883E+0	1.003227E+0	1.031619E+0	9.914125E-1	8.551198E-1	1.023018E+0	1.010196E+0	1.020688E+0	8.883730E-1	9.954557E-1	1.011062E+0	9.876046E-1	9.799394E-1	1.024218E+0	1.028428E+0	9.875370E-1	9.871022E-1	9.872020E-1	1.001195E+0	1.030198E+0	9.021440E-1	9.667939E-1	9.933985E-1	9.571352E-1	8.958054E-1	9.835680E-1	1.012196E+0	1.057687E+0	9.676399E-1	1.029989E+0	9.967696E-1	1.010986E+0	1.016354E+0	9.950910E-1	9.556282E-1
2.980020E+2	9.729307E-1	1.043909E+0	1.020352E+0	1.043418E+0	9.833831E-1	9.926050E-1	9.895554E-1	9.796751E-1	1.003141E+0	9.791708E-1	1.024690E+0	1.014549E+0	1.022443E+0	9.796566E-1	1.030473E+0	9.470062E-1	1.006023E+0	9.642421E-1	1.005864E+0	9.928398E-1	1.029727E+0	1.027432E+0	9.797490E-1	1.011227E+0	9.983619E-1	9.863100E-1	9.535170E-1	1.017957E+0	1.014131E+0	1.013031E+0	1.010246E+0	9.776938E-1	1.011885E+0	1.004664E+0	9.544317E-1	1.036081E+0	1.054656E+0	1.047244E+0	9.846346E-1	1.011829E+0	1.013913E+0	1.036002E+0	9.656931E-1	9.727284E-1	1.036089E+0	1.040451E+0	9.690165E-1	1.024803E+0	9.485557E-1	1.004611E+0	9.927040E-1	1.000445E+0	1.023435E+0	9.657202E-1	9.875269E-1	9.558317E-1	9.700379E-1	9.891038E-1	9.804678E-1	1.014009E+0	1.028443E+0	9.907235E-1	9.626048E-1	9.630298E-1	9.941650E-1	1.025152E+0	1.008776E+0	1.049885E+0	1.024334E+0	9.779634E-1	9.726489E-1	1.048777E+0	1.009427E+0	1.043220E+0	9.378714E-1	9.750819E-1	1.016350E+0	1.027197E+0	9.752474E-1	9.624637E-1	9.881021E-1	9.810230E-1	1.031796E+0	9.806993E-1	1.014105E+0	1.003879E+0	9.967600E-1	1.014568E+0	9.818702E-1	9.555243E-1	1.007278E+0	1.026016E+0	9.856696E-1	1.032233E+0	9.695975E-1	1.054520E+0	9.945237E-1	1.044868E+0	9.630605E-1	1.002622E+0	9.937281E-1	1.047025E+0	1.006820E+0	1.036533E+0	9.908019E-1	9.786758E-1	1.028468E+0	1.006901E+0	9.994846E-1	1.027519E+0	1.084627E+0	1.005308E+0	1.043478E+0	1.036886E+0	9.474103E-1	9.903633E-1	1.036410E+0	9.949004E-1	1.035070E+0	9.952804E-1	9.913666E-1	9.722776E-1	9.704748E-1	9.454569E-1	1.031785E+0	9.950251E-1	1.012472E+0	1.009202E+0	9.956492E-1	1.028523E+0	1.028271E+0	1.024877E+0	9.845498E-1	9.877280E-1	9.707870E-1	9.835023E-1	1.013804E+0	9.624659E-1	1.024436E+0	9.765731E-1	9.983752E-1	8.361017E-1	9.696977E-1	9.970200E-1	1.027178E+0	9.011384E-1	9.884200E-1	1.010113E+0	9.988010E-1	9.807256E-1	9.904259E-1	9.837008E-1	1.014644E+0	9.896818E-1	9.697508E-1	9.913328E-1	9.729354E-1	9.299554E-1	1.017244E+0	1.007725E+0	1.019569E+0	9.070528E-1	1.002390E+0	9.756077E-1	9.943825E-1	9.837494E-1	9.806924E-1	9.696333E-1	9.846199E-1	9.565582E-1	1.020016E+0	9.988009E-1
2.985020E+2	9.052573E-1	9.304055E-1	9.538343E-1	9.291951E-1	9.492727E-1	9.202953E-1	9.412334E-1	9.061713E-1	9.064437E-1	9.447230E-1	9.491087E-1	9.300715E-1	9.263562E-1	9.529327E-1	8.665742E-1	9.740862E-1	9.415999E-1	9.296669E-1	9.682266E-1	9.110089E-1	9.493575E-1	8.855687E-1	8.913787E-1	9.085895E-1	9.172898E-1	9.356298E-1	9.149943E-1	9.204339E-1	9.194484E-1	9.215666E-1	9.180306E-1	9.319544E-1	9.374384E-1	9.146793E-1	9.326320E-1	9.018034E-1	9.548492E-1	9.178216E-1	9.152776E-1	9.475802E-1	8.842361E-1	9.035035E-1	9.217180E-1	9.267067E-1	9.425520E-1	9.409814E-1	9.373196E-1	9.356647E-1	9.116725E-1	9.146974E-1	9.158793E-1	9.168523E-1	9.583199E-1	9.344679E-1	9.365732E-1	9.497739E-1	9.426616E-1	8.806379E-1	9.096438E-1	9.317991E-1	9.364890E-1	9.179372E-1	9.377630E-1	9.276411E-1	8.916327E-1	9.437715E-1	9.345395E-1	9.630547E-1	9.845835E-1	9.574462E-1	9.196420E-1	9.285620E-1	9.433067E-1	8.981622E-1	9.517099E-1	8.850271E-1	9.232630E-1	9.075781E-1	9.785477E-1	9.201292E-1	9.208658E-1	9.278863E-1	8.901308E-1	9.281489E-1	8.924530E-1	9.216446E-1	8.987948E-1	9.162331E-1	9.542812E-1	9.268124E-1	8.966520E-1	9.315143E-1	8.853560E-1	9.227349E-1	9.214967E-1	8.886346E-1	9.249804E-1	9.548647E-1	9.394443E-1	9.045121E-1	9.282442E-1	8.838421E-1	9.041217E-1	9.612300E-1	9.420553E-1	9.539689E-1	9.236331E-1	8.835706E-1	8.943771E-1	9.015834E-1	9.173945E-1	8.731500E-1	9.242493E-1	9.678730E-1	9.594405E-1	9.031664E-1	9.093990E-1	8.811413E-1	9.139190E-1	9.273164E-1	9.179061E-1	9.007376E-1	9.057996E-1	9.051220E-1	9.418131E-1	9.621905E-1	8.971387E-1	8.916787E-1	9.409140E-1	9.222216E-1	9.434556E-1	9.475984E-1	9.261257E-1	9.461095E-1	8.803225E-1	9.680091E-1	8.969814E-1	9.026009E-1	9.045641E-1	9.018677E-1	9.196965E-1	9.882455E-1	9.478459E-1	9.405515E-1	8.779029E-1	9.343284E-1	9.602774E-1	9.579667E-1	9.532187E-1	9.492575E-1	9.304443E-1	9.692980E-1	8.893912E-1	8.865005E-1	9.400842E-1	9.411211E-1	9.763540E-1	8.411127E-1	9.300248E-1	9.040664E-1	9.524753E-1	8.742490E-1	9.127611E-1	8.756600E-1	8.907926E-1	9.235491E-1	9.330388E-1	9.487000E-1	9.769289E-1	9.381592E-1	9.044474E-1	8.836760E-1
2.990010E+2	8.948465E-1	9.179100E-1	7.979653E-1	8.460314E-1	8.670604E-1	9.170091E-1	8.521411E-1	8.961477E-1	8.900533E-1	8.774281E-1	9.241667E-1	8.624893E-1	8.783127E-1	9.103195E-1	8.731295E-1	9.426386E-1	9.148877E-1	9.208008E-1	9.027718E-1	8.752075E-1	9.190440E-1	9.114339E-1	8.899978E-1	9.350509E-1	8.976354E-1	8.901915E-1	9.126836E-1	8.944272E-1	8.784667E-1	9.016505E-1	8.730484E-1	8.574150E-1	8.888524E-1	8.919941E-1	8.953911E-1	8.917564E-1	8.757164E-1	8.826521E-1	8.501497E-1	8.810895E-1	8.907201E-1	9.187597E-1	8.945846E-1	8.440401E-1	8.607993E-1	8.567635E-1	8.910582E-1	9.107362E-1	8.980829E-1	8.847260E-1	8.944387E-1	8.652729E-1	8.922619E-1	9.075766E-1	8.896004E-1	8.884439E-1	8.696583E-1	8.873237E-1	8.826628E-1	8.782232E-1	8.632382E-1	8.736960E-1	9.297494E-1	9.052002E-1	8.616234E-1	8.378979E-1	8.818837E-1	8.465991E-1	8.829155E-1	8.776594E-1	8.971320E-1	8.912532E-1	8.843560E-1	8.842517E-1	8.747342E-1	9.322405E-1	8.588179E-1	8.928097E-1	9.067653E-1	9.277501E-1	8.909832E-1	9.076441E-1	9.203525E-1	8.454304E-1	9.370333E-1	8.789758E-1	9.089025E-1	9.099895E-1	8.809730E-1	8.736096E-1	8.888885E-1	8.623264E-1	8.896555E-1	8.516321E-1	8.997169E-1	8.622785E-1	8.714855E-1	8.897746E-1	8.704103E-1	9.063632E-1	8.748039E-1	8.725888E-1	8.768428E-1	9.090402E-1	8.565188E-1	9.010257E-1	8.540447E-1	9.055937E-1	9.090615E-1	8.868901E-1	8.515413E-1	9.344525E-1	8.471537E-1	8.409524E-1	8.918921E-1	9.132624E-1	8.848433E-1	8.811418E-1	8.557342E-1	8.577356E-1	9.310915E-1	8.998439E-1	8.711182E-1	9.032884E-1	9.002881E-1	9.189081E-1	8.936175E-1	9.208623E-1	9.080735E-1	9.176981E-1	8.702060E-1	8.756122E-1	9.253464E-1	9.100947E-1	9.110152E-1	8.853781E-1	9.126737E-1	9.016513E-1	8.898105E-1	8.763103E-1	8.848820E-1	9.573415E-1	9.102598E-1	8.671422E-1	9.249566E-1	9.411364E-1	9.092674E-1	8.859079E-1	8.780486E-1	9.162154E-1	9.372025E-1	8.654410E-1	8.744354E-1	8.658644E-1	8.781314E-1	8.487686E-1	8.208044E-1	9.693557E-1	8.812841E-1	8.888963E-1	8.630172E-1	9.586037E-1	8.733242E-1	8.988619E-1	8.809265E-1	9.472902E-1	8.747042E-1	9.231139E-1	8.461961E-1	8.768287E-1	9.656315E-1	9.268475E-1
2.995020E+2	1.049974E+0	1.008504E+0	1.057086E+0	1.027387E+0	1.045480E+0	1.074774E+0	1.045428E+0	1.025615E+0	1.051490E+0	1.066493E+0	9.846318E-1	1.073683E+0	9.987599E-1	1.025159E+0	1.031930E+0	1.015141E+0	1.030378E+0	1.045805E+0	9.755906E-1	1.050122E+0	9.930672E-1	1.051730E+0	1.099186E+0	1.047308E+0	1.007370E+0	1.012525E+0	1.052904E+0	1.017956E+0	1.057940E+0	9.894268E-1	1.026740E+0	1.045458E+0	9.703522E-1	1.061375E+0	1.013473E+0	1.012332E+0	1.009743E+0	1.022625E+0	1.031154E+0	9.886693E-1	1.064163E+0	1.047245E+0	1.058322E+0	1.073293E+0	1.055974E+0	1.009285E+0	1.011851E+0	1.013471E+0	1.099976E+0	1.045341E+0	1.023078E+0	1.024455E+0	9.592639E-1	1.054388E+0	1.032907E+0	1.049721E+0	1.073156E+0	1.009906E+0	1.021781E+0	1.038026E+0	1.039353E+0	1.062795E+0	1.014691E+0	1.072647E+0	1.048348E+0	1.041744E+0	1.042441E+0	9.957437E-1	1.038858E+0	1.026596E+0	1.030739E+0	1.013956E+0	1.017393E+0	1.053155E+0	1.015713E+0	1.054644E+0	1.084375E+0	1.036058E+0	9.909238E-1	1.020885E+0	1.032096E+0	1.041750E+0	1.045019E+0	1.033250E+0	1.030728E+0	9.937938E-1	1.037968E+0	1.031737E+0	9.826585E-1	1.027305E+0	1.054828E+0	1.020953E+0	1.047291E+0	1.040765E+0	1.037663E+0	1.028164E+0	1.050310E+0	9.918299E-1	9.939447E-1	9.942922E-1	1.038888E+0	1.037379E+0	1.049343E+0	9.850886E-1	1.041389E+0	1.012206E+0	1.075463E+0	1.034209E+0	1.014942E+0	1.110778E+0	1.051701E+0	1.011676E+0	1.003138E+0	1.014675E+0	1.010333E+0	1.061955E+0	1.011008E+0	1.078847E+0	1.024708E+0	1.045444E+0	1.049759E+0	1.084060E+0	1.094200E+0	1.046293E+0	1.013330E+0	1.071888E+0	1.053852E+0	9.831732E-1	1.048701E+0	1.066218E+0	9.964660E-1	9.941779E-1	1.047648E+0	1.064561E+0	1.037021E+0	1.031704E+0	1.026009E+0	1.039434E+0	1.023513E+0	1.015891E+0	1.038063E+0	1.112655E+0	1.010780E+0	1.014901E+0	1.002839E+0	1.110493E+0	9.769868E-1	9.864095E-1	1.017993E+0	9.972466E-1	9.785987E-1	1.013266E+0	1.061380E+0	1.099742E+0	1.022105E+0	1.047821E+0	1.043019E+0	1.103007E+0	1.079666E+0	1.059976E+0	1.078276E+0	1.105756E+0	1.088434E+0	1.009519E+0	9.993145E-1	1.052427E+0	1.031632E+0	1.042514E+0	1.049437E+0	1.073086E+0	1.020017E+0	1.081547E+0
3.000030E+2	1.154087E+0	1.134502E+0	1.146438E+0	1.153634E+0	1.167049E+0	1.139688E+0	1.200962E+0	1.153412E+0	1.122785E+0	1.169838E+0	1.103294E+0	1.136572E+0	1.101612E+0	1.128442E+0	1.142653E+0	1.152284E+0	1.160796E+0	1.127369E+0	1.133502E+0	1.126838E+0	1.139706E+0	1.161458E+0	1.151656E+0	1.154756E+0	1.180162E+0	1.144470E+0	1.191583E+0	1.164705E+0	1.119414E+0	1.130313E+0	1.153442E+0	1.153033E+0	1.175667E+0	1.188411E+0	1.176066E+0	1.106417E+0	1.113827E+0	1.097887E+0	1.156335E+0	1.144809E+0	1.111171E+0	1.127548E+0	1.142529E+0	1.164483E+0	1.122262E+0	1.139257E+0	1.160057E+0	1.095811E+0	1.197040E+0	1.145245E+0	1.164222E+0	1.182747E+0	1.122523E+0	1.131427E+0	1.161884E+0	1.141338E+0	1.110570E+0	1.212722E+0	1.164272E+0	1.133169E+0	1.134424E+0	1.119169E+0	1.149315E+0	1.131339E+0	1.144212E+0	1.149987E+0	1.151207E+0	1.138759E+0	1.100777E+0	1.133739E+0	1.138932E+0	1.120907E+0	1.150430E+0	1.127670E+0	1.218098E+0	1.141203E+0	1.143808E+0	1.190382E+0	1.127888E+0	1.163127E+0	1.151627E+0	1.136215E+0	1.146072E+0	1.163652E+0	1.131978E+0	1.157486E+0	1.130492E+0	1.119927E+0	1.178934E+0	1.203800E+0	1.144106E+0	1.150893E+0	1.185580E+0	1.133910E+0	1.195576E+0	1.179322E+0	1.160357E+0	1.150137E+0	1.229204E+0	1.180332E+0	1.149533E+0	1.139470E+0	1.136797E+0	1.111836E+0	1.193148E+0	1.197507E+0	1.108901E+0	1.124945E+0	1.150190E+0	1.142261E+0	1.095891E+0	1.123931E+0	1.205737E+0	1.193158E+0	1.200023E+0	1.104177E+0	1.137172E+0	1.205158E+0	1.180930E+0	1.188653E+0	1.106267E+0	1.189582E+0	1.120445E+0	1.182880E+0	1.110221E+0	1.198003E+0	1.133088E+0	1.177205E+0	1.108487E+0	1.211724E+0	1.160315E+0	1.125446E+0	1.155929E+0	1.163004E+0	1.212298E+0	1.137575E+0	1.155036E+0	1.162964E+0	1.154449E+0	1.197739E+0	1.167571E+0	1.250536E+0	1.138398E+0	1.170189E+0	1.146435E+0	1.224531E+0	1.169593E+0	1.148541E+0	1.164334E+0	1.176616E+0	1.139111E+0	1.139866E+0	1.172613E+0	1.171109E+0	1.202727E+0	1.169761E+0	1.156689E+0	1.254426E+0	1.124987E+0	1.145937E+0	1.129528E+0	1.258533E+0	1.139523E+0	1.228155E+0	1.176897E+0	1.125344E+0	1.149943E+0	1.119270E+0	1.131832E+0	1.139014E+0	1.094797E+0	1.153500E+0
