Photon Energy (eV)	#1	#2	#3	#4	#5	#6	#7	#8	#9	#10	#11	#12	#13	#14	#15	#16	#17	#18	#19	#20	#21	#22	#23	#24	#25	#26	#27	#28	#29	#30	#31	#32	#33	#34	#35	#36	#37	#38	#39	#40	#41	#42	#43	#44	#45	#46	#47	#48	#49	#50	#51	#52	#53	#54	#55	#56	#57	#58	#59	#60	#61	#62	#63	#64	#65	#66	#67	#68	#69	#70	#71	#72	#73	#74	#75	#76	#77	#78	#79	#80	#81	#82	#83	#84	#85	#86	#87	#88	#89	#90	#91	#92	#93	#94	#95	#96	#97	#98	#99	#100	#101	#102	#103	#104	#105	#106	#107	#108	#109	#110	#111	#112	#113	#114	#115	#116	#117	#118	#119	#120	#121	#122	#123	#124	#125	#126	#127	#128	#129	#130	#131	#132	#133	#134	#135	#136	#137	#138	#139	#140	#141	#142	#143	#144	#145	#146	#147	#148	#149	#150	#151	#152	#153	#154	#155	#156	#157	#158	#159	#160	#161	#162	#163	#164	#165	#166	#167	#168	#169	#170	#171	#172	
2.790030E+2	8.971298E-3	4.370055E-3	-2.449669E-2	-1.378152E-2	-7.370949E-3	-6.377977E-3	-1.005641E-2	2.290831E-4	1.914080E-3	-7.021079E-3	-6.981418E-3	-3.665107E-3	1.162400E-2	-1.548791E-3	-1.900458E-2	-7.648225E-3	-8.494883E-3	-1.167697E-2	-2.781753E-3	-4.992500E-3	-1.397083E-3	-1.053073E-3	-1.787342E-3	-5.471441E-3	-8.788225E-3	-8.377420E-3	5.828448E-3	-8.479844E-3	-1.245835E-2	6.919820E-4	5.834183E-3	-4.915614E-3	-2.307822E-3	-7.472719E-3	-9.856429E-3	-9.127105E-3	-3.078361E-3	-2.164902E-2	4.386864E-4	-2.833098E-3	-5.255572E-3	3.283263E-3	-9.093313E-3	-7.838578E-3	4.772113E-3	-4.218691E-3	-1.458949E-2	2.136122E-3	-6.778375E-3	-7.270473E-4	6.909823E-3	-1.466764E-2	-4.843262E-3	-9.933765E-3	-5.757465E-3	-2.939106E-3	2.324712E-4	-1.048328E-2	-1.884678E-2	-9.588527E-3	2.499753E-3	-5.559562E-3	-1.067929E-2	1.752532E-3	9.789879E-4	-9.020874E-3	-1.648006E-2	5.020336E-3	8.922624E-3	-4.635052E-3	-1.166573E-2	5.141076E-3	-1.961899E-2	-6.828151E-3	-7.253949E-3	-5.280227E-3	5.493591E-3	-7.218475E-3	-6.434704E-3	1.075707E-2	2.076430E-3	-4.390755E-3	-1.130962E-2	4.637676E-3	-4.764887E-3	2.659575E-3	1.870199E-2	-2.389748E-3	-2.651850E-4	-6.820327E-3	-1.314721E-2	-1.147972E-2	-7.904869E-3	-1.448333E-2	-1.792629E-2	-3.549894E-3	-4.609673E-3	4.775224E-3	-1.679980E-2	-1.070813E-2	-4.569450E-3	-5.565383E-3	-3.742313E-3	-2.309867E-4	-8.179467E-3	1.846122E-3	1.723059E-3	-3.597196E-4	-8.178493E-3	-3.594715E-3	-6.998630E-3	-1.531531E-2	-6.466220E-3	-1.609420E-2	1.289253E-3	6.596632E-3	3.071211E-3	-8.493023E-4	1.011239E-3	1.121543E-2	-3.255333E-3	-4.793724E-3	-7.461496E-3	-3.011929E-3	-7.557739E-3	1.936339E-3	-1.372493E-2	8.288570E-4	-1.473744E-2	-2.204348E-3	-1.216225E-2	-1.816369E-2	1.179143E-2	8.484312E-3	-1.090385E-2	-9.221843E-3	-5.573816E-3	4.982557E-3	1.747805E-3	-8.904464E-3	1.063483E-2	-9.383989E-3	-1.266612E-2	-6.730652E-3	-1.527230E-2	-9.445334E-3	-4.304974E-3	-9.013390E-3	-5.138693E-3	-1.633781E-4	8.042278E-4	-6.732246E-3	3.653842E-3	-6.434505E-3	5.395190E-3	1.898367E-3	-1.810507E-3	-7.097635E-3	-1.109135E-2	-6.189758E-3	-1.038130E-2	-5.339279E-3	4.662429E-3	-1.729191E-3	-6.796614E-3	-1.902724E-3	6.139209E-3	-7.209163E-3	-1.060130E-3	4.294676E-3	-2.696315E-3	-1.308529E-2
2.795050E+2	-4.022169E-4	1.193184E-3	1.151800E-2	5.894089E-3	-1.943871E-3	-1.327076E-2	1.062341E-3	-1.029468E-2	8.496905E-3	4.516637E-3	2.218097E-3	-9.103728E-3	-8.886671E-3	-5.207741E-4	4.798548E-3	-2.818340E-4	-5.316528E-4	5.025892E-3	-1.805602E-2	-5.251090E-3	-8.713919E-3	-6.058439E-3	-7.912924E-4	-8.170583E-3	7.043507E-3	-2.106711E-2	-6.136269E-3	-1.623638E-2	-6.594862E-3	-5.420973E-3	-7.532775E-3	-9.264611E-3	-3.645439E-3	-2.678544E-3	-1.238522E-2	1.836113E-3	4.651909E-4	1.213899E-3	-3.486372E-3	-9.448448E-3	1.436236E-3	-1.184907E-2	-5.101659E-3	-7.952919E-3	-6.196753E-3	2.419801E-3	1.640705E-2	5.930957E-3	-9.707512E-3	4.815380E-4	6.779382E-3	1.492336E-3	-1.052986E-2	-1.004989E-2	-5.870903E-3	-6.777196E-4	-4.658237E-3	1.949128E-3	1.385544E-3	-8.283563E-3	-2.746825E-3	-6.089360E-4	-5.145634E-3	-9.580646E-4	-4.469069E-3	-4.139866E-3	-2.825642E-4	1.728684E-3	3.827936E-3	6.319754E-3	7.839937E-4	-2.301974E-3	-6.328612E-3	1.171365E-2	3.338992E-3	-1.585216E-2	-1.266134E-2	-5.117194E-3	2.415878E-3	-7.309003E-3	-9.071121E-3	3.389453E-4	-2.847037E-3	-1.618921E-2	-6.148833E-3	-9.719235E-4	-9.818934E-4	2.007239E-2	-8.559339E-3	-1.080090E-2	-2.456593E-3	1.339383E-2	2.258769E-3	1.122130E-3	-5.026740E-4	1.641217E-3	6.984990E-3	-2.180547E-3	-7.955207E-4	-2.754377E-3	-8.398498E-3	-4.477032E-4	1.337098E-3	-1.530035E-3	3.375565E-3	4.431024E-3	-1.155535E-3	-4.396449E-4	-5.760518E-3	-4.824229E-3	-5.904752E-3	1.069326E-2	9.879298E-3	4.520908E-3	-2.404738E-3	-1.531784E-4	4.236755E-5	1.258029E-2	-3.853804E-3	-7.489411E-3	-1.060952E-2	-1.032989E-2	-6.355182E-4	-1.605289E-3	4.899950E-3	-5.504184E-4	-9.789054E-4	7.271727E-4	7.697726E-3	2.030000E-3	-1.087197E-2	-8.950479E-3	-9.074325E-3	4.374746E-3	-6.071124E-3	-4.012782E-3	4.328303E-3	-3.123244E-3	-1.174237E-3	6.033543E-3	-3.584026E-3	-1.437185E-2	-5.826831E-4	8.867191E-4	2.867745E-3	-4.053633E-3	-5.907326E-3	-1.221456E-2	-3.890897E-3	-6.647693E-3	1.101000E-2	1.613992E-2	-5.859590E-3	-5.172717E-3	6.141797E-4	3.039237E-4	-8.179740E-3	5.779002E-3	5.218846E-3	-1.973284E-2	1.661437E-3	-4.105506E-3	-1.473197E-2	-3.342056E-4	-5.201622E-4	-1.996357E-3	7.292641E-3	-3.466213E-3	-4.773800E-3	-1.911390E-2	6.894562E-4	2.682718E-2
2.800020E+2	-6.805896E-3	5.658123E-3	1.180875E-3	-2.560198E-3	-7.789990E-4	1.009694E-4	-3.854396E-4	1.308572E-3	-9.097743E-3	-4.640899E-3	-9.526981E-3	-8.065754E-3	-5.658779E-3	2.589279E-3	-2.300249E-3	-1.376141E-2	-9.887235E-3	-2.861903E-3	1.107765E-2	-5.471615E-3	-5.169289E-3	-7.440373E-3	1.188447E-3	1.134816E-2	8.187812E-3	3.981672E-3	-6.298898E-3	1.159920E-2	9.841354E-3	4.132994E-3	2.532277E-3	-1.017102E-2	1.807957E-3	-3.263191E-4	7.118267E-3	-3.561192E-3	-1.163096E-2	6.755823E-3	-2.343009E-3	-2.575112E-3	1.407006E-3	1.652444E-2	-9.301955E-3	-1.782748E-2	2.090132E-3	-5.608877E-3	-5.613773E-3	1.164991E-2	1.505577E-4	-1.655232E-2	1.796607E-2	-1.196964E-3	-2.233184E-3	2.817373E-2	-9.965510E-3	-1.537858E-2	-1.622257E-3	-3.232790E-3	2.553870E-3	-5.731817E-3	-1.566828E-2	-4.563029E-3	1.391015E-3	-3.826013E-3	-1.129317E-2	-5.560211E-3	3.225178E-3	-1.651599E-3	-5.048697E-3	-1.219360E-3	-1.708457E-3	4.359507E-4	-1.187942E-3	4.313527E-3	-1.278029E-2	1.380049E-2	-8.171701E-4	1.362980E-4	-1.222400E-2	-3.360872E-3	-7.869997E-3	-7.041119E-3	-6.679428E-3	-5.998714E-3	-7.605710E-3	2.355348E-3	-4.597307E-3	-2.620254E-3	-3.257497E-3	-6.078863E-4	-6.668771E-3	3.495254E-3	8.441829E-3	-2.685856E-3	-6.971486E-4	1.426310E-3	-9.691640E-4	-1.025971E-3	7.015129E-3	2.918407E-4	-4.848552E-3	7.136331E-3	-2.739187E-3	-1.420450E-2	-4.074304E-3	9.579941E-3	-9.612775E-3	-9.065055E-3	-4.691601E-3	7.347667E-4	-2.583168E-3	-1.005098E-2	-6.727695E-3	-8.056313E-3	7.006038E-3	-5.291385E-3	-7.415787E-3	-7.918404E-3	-4.510497E-4	3.697279E-3	2.283933E-3	-6.407104E-3	-1.183311E-2	-3.308576E-3	-3.046553E-4	-1.926573E-3	1.237956E-5	-7.197638E-3	7.455306E-3	-6.818275E-3	7.992937E-3	4.748441E-3	-7.930649E-3	-1.570204E-2	1.086190E-2	5.033575E-3	-1.433718E-2	-8.095820E-3	-2.764820E-3	-8.411163E-4	-8.444445E-3	3.823448E-3	-1.768415E-2	6.899068E-4	6.951168E-5	-1.242470E-2	-7.583595E-3	7.743396E-3	-6.721773E-3	-6.808837E-3	-1.235322E-2	-6.989354E-3	-7.002955E-4	2.714798E-3	1.598303E-3	-1.163594E-2	-5.774891E-3	3.232678E-3	-4.101725E-4	-1.317977E-2	-1.193613E-2	-3.112035E-4	3.045843E-3	9.993067E-3	8.174871E-3	2.815895E-3	-5.523978E-3	2.711124E-3	-1.031679E-2	3.986640E-3	-1.690444E-2	9.466039E-3
2.805050E+2	8.001715E-4	-2.303266E-3	-4.585816E-3	2.327190E-3	-2.169663E-3	-1.271584E-3	-1.525618E-2	-9.262036E-3	-3.786653E-3	-2.005850E-2	-3.727562E-3	-2.805174E-3	-7.872605E-3	-6.288088E-4	-1.314583E-3	1.236922E-2	1.011282E-2	-1.832080E-2	-6.512705E-3	9.808999E-3	1.413214E-2	1.136428E-3	-8.370091E-3	1.016679E-2	-5.058623E-3	6.706442E-3	-6.297666E-3	1.566100E-2	3.934760E-3	5.343730E-4	-1.165116E-2	4.114995E-3	4.576651E-4	-4.019649E-3	5.921050E-3	-6.838854E-3	3.028289E-3	5.651555E-3	-3.568016E-3	1.212916E-2	-1.254677E-3	-9.273777E-3	1.624735E-3	-4.580539E-3	-1.104930E-2	-1.003507E-2	4.772507E-3	1.626361E-3	-3.726786E-3	9.479356E-3	-7.220067E-3	-3.802514E-3	8.707897E-4	-2.788685E-3	-4.671971E-3	-9.147005E-3	4.877999E-3	-1.193247E-2	1.607297E-2	5.150553E-3	3.573372E-3	-3.275228E-3	5.909055E-3	-3.161563E-4	8.760670E-4	-1.046376E-2	9.520907E-3	-3.422638E-3	-1.116092E-2	9.803823E-3	5.158146E-3	-1.258812E-2	2.875335E-3	-9.943529E-3	-3.384953E-3	-2.968577E-3	1.009823E-2	9.916358E-3	-1.073259E-3	1.118759E-3	4.398566E-4	1.377462E-3	5.497312E-3	9.321394E-3	-2.430840E-3	-9.340472E-3	-8.013540E-3	-1.402486E-2	-3.227512E-3	-1.877691E-3	1.392515E-3	-4.750565E-3	-1.704723E-2	-9.864456E-3	-4.157864E-3	-2.508501E-3	-9.508446E-4	-1.462605E-2	-2.309908E-3	1.865636E-3	1.376562E-3	-4.520885E-3	-4.013871E-3	-1.678511E-3	-8.411559E-3	-6.533126E-3	-6.853750E-3	9.235508E-3	1.281966E-2	-1.538362E-3	6.667857E-3	2.252290E-3	3.090845E-3	-9.423871E-3	1.040006E-3	-5.294009E-3	-8.862947E-3	-1.195231E-2	-2.810608E-3	2.285471E-3	5.205043E-3	-9.115405E-3	4.684098E-3	-9.321146E-3	-1.540058E-3	-4.293950E-3	-2.285060E-3	-4.613666E-3	-1.777033E-2	3.804491E-4	-6.931368E-3	-2.955738E-3	-6.625496E-3	4.168259E-3	9.663285E-3	-9.446568E-3	-4.390505E-3	1.432766E-3	-1.398859E-2	-1.082086E-2	-9.599062E-3	1.362227E-2	8.950961E-3	-3.916006E-3	-2.508331E-3	-1.312191E-4	1.767109E-2	4.652214E-3	-1.383254E-3	3.372178E-3	-2.066485E-3	-9.522223E-3	8.661035E-3	-1.070320E-2	-1.881522E-3	9.657922E-5	-7.487351E-4	-2.674564E-4	5.057123E-3	8.242221E-3	8.204030E-3	-1.093260E-2	8.184507E-3	-6.568802E-3	-1.078185E-2	9.062991E-3	-4.749606E-4	-4.885801E-3	2.014374E-2	3.988795E-3	-6.475661E-3	-1.327647E-2
2.810050E+2	5.102361E-3	-1.504660E-2	1.226736E-2	5.262908E-3	2.862976E-4	-4.257319E-3	2.149635E-2	-3.004908E-3	-1.200916E-2	9.197778E-5	-7.402703E-3	2.245630E-3	3.150720E-3	2.411648E-3	-4.495228E-3	2.096541E-4	-8.315558E-4	8.183012E-3	-3.241687E-3	-2.717548E-3	-6.675510E-3	8.872466E-4	1.038517E-3	-2.600707E-3	-1.448603E-2	7.780000E-3	1.709477E-3	-9.398611E-3	6.011776E-3	5.075147E-3	6.448661E-3	4.972156E-3	-6.469413E-3	-1.513755E-2	7.758721E-4	-8.781285E-4	5.173970E-3	-3.110528E-4	-8.853879E-3	-1.241102E-2	1.196923E-2	-5.463264E-3	6.750510E-3	7.449191E-3	-1.643453E-3	3.160523E-3	-8.062529E-3	-1.224884E-2	-1.110190E-3	-1.020239E-2	-1.624804E-2	-7.665962E-3	6.230230E-3	-9.220401E-3	-7.547864E-3	-3.906263E-3	-1.745015E-3	5.231757E-3	-5.712124E-3	6.502704E-3	1.221452E-2	-1.012672E-3	-3.253354E-3	8.130993E-3	-5.923735E-3	1.149580E-2	-1.908769E-3	2.615932E-3	4.831804E-3	-1.479224E-2	1.502964E-2	-4.156997E-3	-3.990392E-3	-4.486199E-3	8.230183E-3	-2.394814E-3	-8.125720E-3	-1.298831E-2	9.204235E-4	3.482892E-3	-7.818388E-3	-3.620349E-3	-4.419646E-3	-1.640268E-3	-1.020332E-2	5.621957E-3	-1.275361E-2	-1.188250E-2	-3.374340E-3	6.879974E-3	2.472520E-3	-3.289849E-3	1.885151E-3	3.078789E-3	-5.534518E-3	-6.720356E-3	-1.124204E-2	-2.588133E-3	-2.494791E-3	-1.127742E-3	8.889991E-3	-1.248226E-2	2.216522E-3	-3.436365E-3	6.036940E-3	-9.430740E-3	-7.067839E-3	3.499967E-4	-2.412088E-3	5.065164E-3	4.124919E-3	-7.529906E-3	7.703098E-3	-1.435894E-3	-8.735806E-3	-6.113817E-4	-3.768545E-4	-2.788639E-3	-8.952232E-3	-8.485774E-4	-3.710527E-3	2.846820E-3	7.148716E-3	3.911547E-3	-1.172068E-2	-4.514276E-3	3.264794E-3	2.843745E-3	1.573224E-3	-5.615545E-3	-1.120117E-2	1.385198E-3	2.160602E-3	5.197857E-3	2.068124E-3	1.131884E-2	1.094577E-2	-1.465142E-2	-8.579803E-3	4.558369E-3	3.107662E-3	-3.724074E-3	-3.345847E-3	-4.643043E-3	-2.731868E-3	9.101022E-3	-3.386094E-3	-7.945129E-3	-1.883503E-2	-5.743958E-3	-9.987201E-3	-8.766400E-4	4.351589E-3	1.448227E-2	1.374857E-3	1.294528E-3	1.147739E-2	6.502902E-3	1.546862E-3	-2.737975E-3	3.904169E-3	2.070144E-3	-3.590577E-3	-3.811867E-3	-5.898938E-3	-6.114762E-3	-5.725181E-3	-3.822585E-3	-1.587234E-2	1.632175E-2	3.671584E-3	-1.343067E-2
2.815000E+2	-8.849510E-3	2.877739E-4	-3.566714E-3	-4.642949E-3	-5.296922E-3	7.686975E-3	-5.702183E-3	-4.445077E-3	2.409759E-3	3.751237E-3	-4.003060E-3	7.366434E-3	-9.275783E-3	-1.300747E-2	3.110435E-4	1.070171E-2	-2.281048E-3	6.738058E-3	1.054756E-2	4.703554E-3	8.830628E-3	3.180690E-3	2.019698E-3	-7.730686E-3	8.973563E-3	4.849942E-3	7.447703E-3	-1.241251E-2	2.308857E-3	6.138895E-3	-1.786909E-3	-8.789616E-3	-2.572000E-3	1.245103E-2	4.241649E-3	1.134984E-2	5.060262E-3	-4.417405E-4	6.156249E-3	-1.131971E-2	3.813974E-3	1.061554E-2	-1.168634E-4	4.343862E-4	7.814627E-3	1.954320E-3	2.138210E-3	-1.020749E-2	2.287529E-4	-5.120557E-3	-3.741449E-3	7.954011E-3	-3.679070E-3	-1.171545E-2	1.989759E-4	6.843700E-3	-6.590045E-3	5.118751E-3	-4.462655E-3	-8.070510E-3	-4.377443E-3	-6.053499E-3	-4.444076E-3	-4.453270E-3	1.968222E-3	-1.073910E-2	-3.182435E-3	-9.952757E-3	-1.452736E-3	-1.511946E-3	-1.216427E-2	3.855037E-3	9.191271E-3	-3.454522E-4	-1.119210E-3	5.904468E-3	1.392278E-3	3.079636E-3	5.249247E-3	-1.765879E-4	3.063253E-3	-1.344871E-4	3.941532E-3	6.154137E-3	1.398894E-2	-2.636538E-3	7.676714E-3	3.408321E-3	-7.524189E-3	4.198274E-3	-8.286913E-3	4.220120E-3	-7.385628E-4	-2.989228E-3	1.283420E-2	-1.072422E-2	8.160080E-3	-1.328017E-3	1.201085E-2	-4.778270E-3	-1.469796E-2	-2.244256E-3	9.814692E-3	7.529001E-3	8.880138E-3	-8.183859E-3	-1.699857E-3	2.678164E-3	-1.208037E-3	-1.860298E-3	-2.832310E-3	2.960994E-3	-9.818374E-3	-1.002640E-4	-5.169598E-3	9.681270E-4	7.225498E-3	-6.882657E-3	9.934314E-3	3.019614E-3	7.983683E-3	4.095249E-3	4.331074E-3	-2.608041E-3	1.177273E-2	1.314117E-3	-2.580462E-3	1.346086E-3	9.887520E-3	1.370614E-5	-4.827066E-4	1.405677E-2	7.211447E-3	-5.435629E-3	-4.099659E-3	3.209555E-3	1.082298E-2	1.047926E-2	6.647081E-3	-3.660458E-3	6.665300E-3	-5.008018E-3	1.343446E-2	1.852398E-3	4.938981E-3	-7.285264E-3	5.340463E-3	7.286352E-3	1.546600E-2	6.780376E-3	3.934521E-3	-8.546504E-3	-1.433420E-2	-1.229361E-2	-4.510187E-3	-7.549675E-3	-1.077065E-3	-4.076688E-3	-5.026246E-3	-5.513177E-3	-2.096202E-4	-9.923142E-3	-7.518008E-3	2.043352E-3	-2.207810E-3	-2.485887E-3	-7.067245E-3	3.646675E-3	-1.724463E-3	-1.103282E-2	1.044905E-2	9.073133E-3
2.820040E+2	-5.531845E-3	8.397744E-3	-4.710608E-3	-2.737426E-3	1.687922E-2	1.345117E-2	1.976581E-3	8.859198E-3	-3.897729E-3	2.315042E-2	8.968848E-3	-6.932870E-3	1.469507E-2	4.826203E-3	1.645120E-2	-7.860961E-3	8.647430E-3	1.477657E-2	-7.422072E-4	1.962966E-3	1.281212E-2	2.230875E-3	4.430787E-3	-1.248069E-2	1.432146E-3	3.783360E-3	-6.369322E-3	8.207426E-3	-4.461328E-3	1.664617E-3	1.545074E-3	9.743940E-3	3.065698E-3	4.379640E-3	8.870151E-4	-1.974039E-3	5.367631E-3	7.821390E-3	-1.071601E-3	2.948510E-2	-1.076834E-2	-1.342861E-2	5.618220E-3	9.000656E-3	1.415086E-2	1.458135E-2	7.096012E-3	5.732356E-4	7.649297E-3	1.329819E-2	4.122733E-3	1.565849E-2	-2.020834E-3	1.836244E-2	1.620659E-2	5.004641E-3	9.575452E-3	4.803278E-4	2.516450E-3	1.070586E-2	1.004406E-3	1.307494E-2	7.024756E-3	-7.129963E-4	3.611595E-3	1.053944E-2	-2.886612E-3	8.608722E-5	1.308411E-3	-7.942253E-6	1.195597E-2	-2.630772E-3	1.356181E-2	5.670288E-3	8.505830E-3	-5.031058E-3	-5.485598E-3	2.328782E-3	1.146658E-3	1.507007E-4	3.413165E-3	6.160810E-3	-2.999562E-3	-2.751315E-3	6.684281E-3	-9.362042E-3	-5.724754E-3	7.310437E-3	1.722010E-2	1.358118E-2	5.353678E-3	3.210658E-3	-1.714152E-3	1.533854E-2	2.794176E-3	5.880590E-3	-1.917053E-3	1.260222E-2	3.799842E-4	1.175350E-2	9.281118E-3	5.847410E-3	-6.572529E-3	9.029265E-3	6.306976E-3	2.832205E-3	8.247164E-3	-9.257471E-3	-5.882070E-3	8.751790E-3	-3.720201E-3	4.740742E-3	-4.596385E-3	7.085214E-3	4.704955E-3	7.103618E-3	-1.216890E-3	9.609030E-3	5.552999E-3	-1.483061E-2	6.897766E-3	1.934140E-2	4.655633E-3	9.444521E-3	2.246117E-3	9.988747E-3	7.004201E-3	6.317231E-3	5.093688E-3	-1.057617E-3	1.074745E-2	5.666764E-3	3.843196E-3	-6.470224E-3	1.089061E-3	-2.300165E-3	-7.260569E-3	7.689885E-3	1.258541E-2	5.550911E-3	2.388794E-3	9.988581E-3	4.148112E-3	2.975914E-3	1.609615E-2	1.623539E-2	-9.062431E-3	1.142556E-2	1.358690E-2	5.895295E-3	3.062257E-3	1.632714E-2	4.798844E-3	4.033870E-3	-4.199719E-3	-7.686142E-4	6.795748E-3	9.030601E-4	-9.072518E-3	2.999174E-2	1.544310E-3	1.427052E-2	1.763234E-3	-1.317410E-2	1.586123E-2	4.052291E-3	-1.182102E-2	9.222793E-3	2.247120E-3	3.952068E-3	4.307771E-4	-1.966705E-3
2.825040E+2	6.715637E-3	-2.557009E-3	1.239360E-2	1.023790E-2	3.948860E-4	3.938522E-3	6.864945E-3	1.660985E-2	1.597054E-2	2.101980E-4	2.045478E-2	2.096057E-2	2.224047E-3	5.878718E-3	5.553845E-3	6.271853E-3	3.266122E-3	-1.863858E-3	9.709163E-3	1.957234E-3	-1.381909E-2	7.116646E-3	2.271276E-3	1.493916E-2	2.695849E-3	2.343116E-3	1.011653E-2	1.105971E-2	1.417790E-3	-1.281704E-2	4.610654E-3	1.430977E-2	9.663354E-3	1.280411E-2	3.297797E-3	9.193360E-3	-4.386022E-3	9.591499E-4	1.272794E-2	-3.026860E-3	-1.347855E-3	9.591480E-3	9.620325E-3	2.131528E-2	-9.938222E-3	-2.253357E-3	-2.147994E-3	5.397409E-4	1.329426E-2	9.343240E-3	-8.568444E-3	2.228237E-3	1.620520E-2	-2.827982E-3	1.740814E-2	2.020034E-2	-7.036794E-5	1.286858E-2	6.492730E-3	9.315303E-3	3.500492E-3	7.997986E-3	9.197530E-3	3.829758E-4	1.425110E-2	1.788857E-2	1.199436E-2	5.575955E-3	-1.228419E-3	6.042963E-3	-7.389298E-3	1.224580E-2	5.497515E-3	-9.413404E-5	4.463399E-3	1.182188E-2	1.010573E-2	9.862910E-3	9.999756E-3	-4.662962E-3	1.576680E-2	7.309492E-3	1.881645E-2	6.466297E-3	1.048037E-2	1.167410E-2	5.692409E-3	1.262140E-4	8.987959E-3	-4.552627E-3	2.134077E-2	-4.799721E-3	1.481906E-2	1.048341E-2	1.319012E-2	1.455486E-2	4.543708E-3	4.371278E-3	2.994053E-3	5.457544E-3	1.296679E-2	1.227674E-2	3.699588E-3	4.522130E-3	-3.934289E-3	5.458433E-3	1.641953E-2	6.858222E-3	1.531315E-2	-2.734117E-3	1.124629E-2	1.224891E-2	6.935433E-3	2.350442E-2	2.269891E-3	-3.318423E-3	7.533402E-3	8.201992E-3	-4.308575E-4	2.950804E-3	-4.795041E-3	4.362656E-3	-8.893970E-4	6.498914E-3	2.204335E-3	-1.953986E-3	9.287985E-3	-2.517880E-4	8.003126E-4	1.327163E-2	2.290908E-2	4.212741E-3	-1.376209E-3	5.382724E-3	-2.607739E-3	5.419393E-3	5.465018E-3	1.286020E-3	5.527157E-3	8.084074E-3	-1.169057E-3	5.053630E-3	7.745272E-3	8.884762E-3	-3.459882E-3	8.003737E-3	7.232867E-3	-1.934439E-3	6.916749E-3	3.316017E-3	5.595899E-3	1.998976E-4	-5.712259E-4	1.337309E-2	1.608899E-3	1.636083E-2	-6.822044E-4	-4.975862E-3	1.377745E-2	9.119561E-3	7.213107E-3	1.427107E-2	8.184542E-3	1.358175E-2	2.169274E-3	-3.431447E-3	1.718054E-2	3.803172E-3	1.135666E-2	-2.397220E-3	1.083555E-2	-3.607203E-3
2.830040E+2	1.957674E-2	-8.406539E-3	-3.054733E-3	1.221713E-2	6.291215E-3	1.784344E-2	1.589067E-2	1.184058E-2	7.124815E-3	1.719452E-2	1.965731E-2	8.100218E-3	9.421590E-3	-4.674129E-4	-1.036559E-3	1.613553E-2	1.963782E-2	1.047160E-3	1.859960E-3	8.394140E-3	2.221339E-3	2.464107E-2	1.867284E-2	5.340333E-3	1.494234E-2	9.647654E-3	6.916370E-3	2.646459E-3	1.956797E-2	1.284702E-2	6.983405E-3	8.929130E-3	-6.769166E-4	-5.065890E-3	-2.499138E-3	2.077084E-3	9.367687E-3	1.963096E-2	6.758479E-3	1.125262E-2	3.156499E-2	1.131444E-2	1.267422E-2	3.862329E-3	7.255872E-3	2.281395E-2	1.311962E-2	1.565981E-2	6.433345E-3	1.617605E-2	5.623763E-3	9.865659E-3	5.227356E-3	1.866442E-2	-4.985112E-4	1.510610E-2	1.460251E-2	1.322270E-2	1.354388E-2	1.231823E-2	1.660498E-2	1.969904E-2	1.295698E-2	9.875510E-3	1.325575E-2	1.704644E-2	1.486221E-2	1.435744E-2	2.653228E-2	1.124953E-2	2.597944E-2	4.395545E-2	5.826190E-3	1.628926E-3	4.795493E-3	1.217445E-2	1.167205E-2	9.119832E-3	1.928962E-2	1.719768E-2	-3.269359E-3	1.003873E-2	9.447339E-3	-1.051468E-2	1.341687E-2	6.146869E-3	2.098187E-2	1.834111E-2	2.024082E-2	3.507491E-3	9.633827E-3	1.682326E-2	-5.337015E-3	1.689431E-2	6.569039E-3	6.191745E-3	1.923202E-2	3.326274E-3	2.205979E-2	1.708468E-2	-7.997846E-3	1.264414E-2	1.828473E-2	-4.135187E-3	2.117522E-2	2.064089E-2	3.028830E-3	-6.369860E-3	-4.394802E-3	1.136750E-2	1.971101E-2	-3.613579E-3	2.887253E-2	1.151016E-2	9.810216E-3	1.130143E-2	6.368728E-3	1.264977E-2	9.423399E-3	1.097211E-2	2.325314E-2	-2.176828E-3	1.181960E-2	1.263051E-2	1.258620E-2	2.108809E-2	1.197109E-2	-1.045403E-3	1.247378E-2	2.955890E-2	2.743267E-2	2.990382E-2	2.811113E-3	1.103724E-2	2.579697E-3	1.353553E-2	2.002449E-2	2.869025E-2	1.568724E-2	3.675172E-2	2.164493E-2	3.000100E-2	1.537201E-2	2.287922E-2	6.024243E-3	1.494412E-3	-2.859732E-3	7.355827E-3	1.667470E-2	1.512606E-2	1.756314E-2	2.281478E-2	3.073443E-2	2.942839E-3	1.912267E-3	1.435789E-4	1.097359E-2	1.415228E-2	1.527239E-2	1.527673E-3	2.107914E-3	1.467348E-2	2.121222E-3	-2.063818E-3	2.294144E-2	1.565746E-2	-3.974317E-3	1.938445E-2	6.314467E-3	6.340297E-3	7.702389E-3	1.200110E-2
2.835010E+2	1.323460E-2	-8.991835E-3	8.347640E-3	-9.831835E-3	8.993831E-3	8.338902E-3	2.119640E-3	7.930188E-3	4.394539E-3	9.468525E-3	2.007231E-2	1.757675E-2	1.662301E-2	3.011462E-2	2.144101E-2	1.765259E-2	3.078412E-2	-9.488490E-3	1.379156E-2	2.855677E-2	1.089382E-2	1.364388E-2	3.660878E-2	7.822861E-3	1.239497E-2	9.536891E-3	1.545147E-2	3.079607E-2	2.354226E-2	4.152217E-2	1.870446E-2	1.022997E-2	1.142984E-2	1.219980E-2	1.861001E-2	1.213301E-2	2.332472E-2	2.822838E-2	2.107803E-2	3.115102E-3	9.782135E-3	1.840219E-2	1.826153E-2	3.840099E-3	2.589016E-2	2.445235E-2	1.224741E-2	1.490954E-2	2.816103E-2	3.092852E-2	1.857697E-2	1.133344E-2	7.801489E-3	8.874307E-3	2.227932E-2	2.658145E-2	2.421487E-2	1.830825E-3	2.870956E-2	-1.166466E-3	3.121933E-2	2.135071E-2	2.709919E-2	3.104164E-3	2.700696E-2	2.242522E-2	3.306763E-2	1.011445E-2	6.390998E-3	1.757985E-2	1.733255E-2	3.623209E-2	3.177069E-2	2.188410E-2	1.157308E-2	2.085012E-2	1.682833E-2	2.267763E-2	1.373359E-3	1.385329E-2	2.483107E-2	2.738496E-2	1.581316E-2	2.046473E-2	2.810774E-2	9.840207E-3	2.135777E-2	7.626472E-3	9.111802E-3	1.268608E-2	8.217395E-3	3.601363E-2	1.533332E-2	1.476527E-2	-2.884508E-3	1.535549E-2	1.401470E-2	1.998126E-2	1.680662E-2	1.602648E-2	7.212309E-4	3.010606E-2	1.323556E-2	2.107336E-2	2.271087E-2	1.262207E-2	1.139695E-2	2.505211E-2	2.112042E-2	2.098930E-2	1.404026E-2	3.736308E-2	1.523440E-2	1.573165E-2	2.593582E-2	9.952427E-3	2.715790E-2	3.110328E-3	3.032176E-2	1.768781E-2	2.490252E-2	1.694124E-2	1.739144E-2	1.996907E-2	1.532999E-2	2.147705E-2	1.690913E-2	2.139593E-2	3.865883E-2	2.249795E-2	3.195360E-2	1.296177E-2	1.330189E-2	1.788210E-2	3.137814E-2	2.822236E-2	2.294699E-2	2.886915E-2	1.565881E-2	1.398012E-2	1.968923E-2	1.047716E-2	2.921805E-2	3.083976E-2	3.152670E-2	2.795111E-2	2.120422E-2	1.129215E-2	5.712198E-3	3.356796E-2	1.955573E-3	2.447743E-2	1.752108E-2	2.615684E-2	3.548650E-2	1.685323E-2	2.784511E-2	1.916550E-2	2.572712E-2	1.569719E-2	1.576515E-2	2.714200E-2	1.262379E-2	1.424173E-2	1.916167E-2	1.324031E-2	4.116884E-2	4.131256E-2	2.060068E-2	3.355280E-2	1.972065E-2	1.875065E-2
2.840020E+2	3.404408E-2	2.148082E-2	3.821477E-2	3.901814E-2	2.324313E-2	5.078240E-2	3.958611E-2	1.882369E-2	3.221749E-2	2.676323E-2	2.152126E-2	3.160402E-2	4.189500E-2	2.603864E-2	3.757566E-2	4.278585E-2	3.388722E-2	4.387035E-2	3.478011E-2	6.298237E-3	5.548098E-2	3.674730E-2	2.374156E-2	3.398277E-2	2.202504E-2	3.712179E-2	5.283931E-2	4.020956E-2	3.006059E-2	3.842374E-2	5.771253E-2	4.399018E-2	9.978964E-3	4.545481E-2	4.830508E-2	2.519652E-2	3.131875E-2	3.587499E-2	3.958892E-3	3.964438E-2	4.241471E-2	3.138937E-2	2.541610E-2	4.125711E-2	3.764884E-2	3.899734E-2	2.806807E-2	3.176780E-2	3.724940E-2	3.532766E-2	2.932597E-2	3.313129E-2	5.377236E-2	4.281478E-2	4.181570E-2	4.188555E-2	4.276544E-2	2.909580E-2	3.029150E-2	1.519058E-2	5.175164E-2	4.534075E-2	2.521039E-2	3.913837E-2	2.578211E-2	2.661838E-2	3.615120E-2	4.218327E-2	2.334791E-2	3.948533E-2	1.411620E-2	5.654719E-2	3.651281E-2	3.694200E-2	1.016514E-2	4.016274E-2	2.461505E-2	4.128990E-2	3.285370E-2	3.909558E-2	2.649363E-2	3.152914E-2	3.641187E-2	2.206373E-2	4.737975E-2	4.070688E-2	3.609537E-2	4.135272E-2	3.029074E-2	2.627852E-2	3.058545E-2	6.010257E-2	2.207073E-2	3.894609E-2	3.233183E-2	2.826598E-2	4.267303E-2	2.920433E-3	1.398813E-2	3.846453E-2	5.046539E-2	3.184367E-2	2.953918E-2	1.909204E-2	3.795467E-2	4.929982E-2	2.580101E-2	3.794587E-2	1.217281E-2	2.972961E-2	3.230241E-2	4.380319E-2	3.566742E-2	3.736487E-2	3.257890E-2	4.121803E-2	4.414001E-2	2.280012E-2	2.074262E-2	3.396602E-2	2.492847E-2	5.538867E-2	4.334691E-2	2.447988E-2	3.385766E-2	3.680210E-2	4.639571E-2	4.821012E-2	4.509361E-2	3.010921E-2	4.939130E-2	4.082516E-2	4.050679E-2	2.213441E-2	5.365887E-2	3.119833E-2	3.632787E-2	4.725400E-2	5.085604E-2	4.639466E-2	3.858953E-2	3.756027E-2	1.935440E-2	3.123437E-2	3.605735E-2	2.247463E-2	4.622835E-2	3.009224E-2	3.502790E-2	5.136949E-2	2.200680E-2	2.485086E-2	3.315824E-2	4.747850E-2	3.730623E-2	4.000275E-2	4.535304E-2	4.404517E-2	2.392176E-2	2.919974E-2	4.130556E-2	4.702572E-2	4.236099E-2	3.635064E-2	5.129642E-2	2.898043E-2	3.316823E-3	4.441719E-2	4.484780E-2	5.964412E-2	2.940598E-3	3.131494E-2
2.841010E+2	4.172600E-2	3.079665E-2	5.926097E-2	5.933803E-2	3.740274E-2	2.485969E-2	3.684292E-2	3.224281E-2	2.628004E-2	6.436401E-2	3.110855E-2	4.674814E-2	4.678390E-2	2.944512E-2	3.029853E-2	3.780375E-2	3.783103E-2	4.654740E-2	5.330230E-2	3.141515E-2	3.235354E-2	3.916211E-2	3.265711E-2	2.041858E-2	5.109244E-2	3.530746E-2	5.801178E-2	6.933904E-2	3.483264E-2	3.189067E-2	3.520906E-2	4.649712E-2	4.343540E-2	1.963840E-2	3.129269E-2	5.269215E-2	3.362239E-2	4.184415E-2	4.524247E-2	4.594217E-2	3.640575E-2	2.244323E-2	5.682029E-2	4.987887E-2	5.035012E-2	3.187391E-2	3.774375E-2	2.500377E-2	3.532889E-2	4.337085E-2	2.509033E-2	3.560100E-2	4.611441E-2	2.701300E-2	1.814948E-2	3.497798E-2	1.674090E-2	4.080337E-2	3.277006E-2	4.147845E-2	5.313628E-2	3.864643E-2	4.780733E-2	1.857771E-2	4.393396E-2	3.694771E-2	3.468512E-2	4.051348E-2	4.056930E-2	4.979316E-2	4.900492E-2	3.634866E-2	4.363213E-2	5.487748E-2	3.933654E-2	3.840484E-2	2.317287E-2	3.445702E-2	2.686260E-2	3.780910E-2	5.121277E-2	2.496801E-2	6.485905E-2	3.300705E-2	2.555955E-2	3.697957E-2	4.214834E-2	4.387020E-2	4.307562E-2	3.972280E-2	3.897796E-2	3.883814E-2	4.490154E-2	3.123347E-2	2.852478E-2	3.636188E-2	3.419224E-2	3.994850E-2	5.040495E-2	4.234868E-2	3.998240E-2	7.587277E-2	4.165486E-2	3.198894E-2	3.139789E-2	3.923211E-2	4.593627E-2	2.618502E-2	5.575047E-2	5.159384E-2	3.705135E-2	3.130930E-2	4.028579E-2	3.416795E-2	4.264421E-2	3.273488E-2	3.909867E-2	4.686806E-2	3.945394E-2	3.924252E-2	4.605045E-2	5.410834E-2	3.430766E-2	1.469246E-2	4.302118E-2	2.781763E-2	3.283081E-2	4.142029E-2	3.739442E-2	3.886368E-2	2.754715E-2	4.204736E-2	3.343517E-2	2.734856E-2	3.422309E-2	5.984583E-2	4.195028E-2	5.532988E-2	1.485579E-2	3.712078E-2	4.737706E-2	3.226573E-2	3.961839E-2	5.074652E-2	7.347178E-2	2.346441E-2	5.548701E-2	6.119047E-2	2.899042E-2	4.594643E-2	2.984839E-2	4.205791E-2	3.577200E-2	2.445569E-2	4.470356E-2	3.241211E-2	4.529706E-2	6.156722E-2	4.586071E-2	2.308400E-2	6.412032E-2	2.569880E-2	4.776305E-2	4.279263E-2	6.205874E-2	5.661691E-2	3.897583E-2	4.812838E-2	4.423449E-2	5.432243E-2	3.324572E-2	2.661779E-2
2.842030E+2	5.634089E-2	4.961386E-2	5.962451E-2	7.364236E-2	6.638979E-2	5.876459E-2	6.625786E-2	8.423463E-2	2.756882E-2	4.596196E-2	4.361039E-2	3.857214E-2	4.488647E-2	6.385922E-2	6.558553E-2	5.325919E-2	5.082188E-2	5.246975E-2	5.874698E-2	5.448243E-2	6.119398E-2	6.949278E-2	6.257082E-2	5.002061E-2	5.283822E-2	6.234889E-2	7.479146E-2	4.638192E-2	5.785917E-2	6.444673E-2	6.281338E-2	4.802579E-2	7.806595E-2	7.827170E-2	6.424129E-2	5.310976E-2	5.741119E-2	5.433388E-2	6.029082E-2	5.357942E-2	9.177975E-2	4.298279E-2	7.452184E-2	5.609539E-2	8.808561E-2	5.370815E-2	4.660245E-2	4.330919E-2	8.600125E-2	6.306890E-2	6.856499E-2	6.438720E-2	6.893936E-2	4.842736E-2	4.342635E-2	6.088187E-2	6.773060E-2	3.482217E-2	6.765435E-2	5.461756E-2	7.181042E-2	6.587994E-2	5.752696E-2	5.545388E-2	5.706544E-2	4.646476E-2	6.560819E-2	4.217743E-2	6.222880E-2	5.660394E-2	8.215953E-2	6.708219E-2	5.668906E-2	4.453918E-2	3.962939E-2	6.731445E-2	5.950742E-2	6.602265E-2	5.211172E-2	6.744139E-2	7.220860E-2	7.908389E-2	5.480457E-2	5.739106E-2	3.819757E-2	5.733210E-2	5.839665E-2	8.362173E-2	5.064580E-2	6.478411E-2	4.054136E-2	7.174261E-2	6.840381E-2	5.336420E-2	6.231948E-2	3.197425E-2	4.980417E-2	5.916279E-2	4.214280E-2	6.804557E-2	5.514910E-2	5.822565E-2	7.505255E-2	5.261253E-2	6.288498E-2	6.822031E-2	4.327923E-2	7.825476E-2	6.014810E-2	7.643283E-2	5.462265E-2	5.814264E-2	5.643671E-2	4.619173E-2	4.934977E-2	6.217636E-2	7.542733E-2	6.593622E-2	5.756288E-2	4.225470E-2	3.699466E-2	5.574877E-2	6.395164E-2	7.356981E-2	6.330568E-2	6.380969E-2	7.162814E-2	5.225575E-2	5.277793E-2	5.605339E-2	7.717876E-2	6.780627E-2	6.693269E-2	4.031422E-2	5.929909E-2	6.295380E-2	8.012527E-2	5.562917E-2	6.595548E-2	6.903354E-2	5.527744E-2	5.616816E-2	7.230165E-2	8.541519E-2	6.126273E-2	5.010333E-2	3.672713E-2	4.920658E-2	7.364746E-2	6.943532E-2	5.481914E-2	5.734840E-2	5.179611E-2	6.488475E-2	5.374662E-2	7.979155E-2	6.171651E-2	6.569747E-2	7.653956E-2	4.403491E-2	5.867437E-2	5.718904E-2	4.533567E-2	4.310067E-2	7.463711E-2	6.361708E-2	5.544173E-2	7.847225E-2	8.678889E-2	4.786474E-2	6.320560E-2	7.822868E-2
2.843030E+2	6.882172E-2	8.212587E-2	1.049489E-1	5.795704E-2	8.127285E-2	7.590146E-2	8.967761E-2	4.688484E-2	7.929396E-2	8.260244E-2	7.882407E-2	6.900819E-2	5.465318E-2	7.172459E-2	1.009682E-1	1.025843E-1	9.605272E-2	9.753728E-2	8.590918E-2	1.042186E-1	1.007334E-1	8.591296E-2	8.750654E-2	8.037390E-2	8.802720E-2	1.073553E-1	8.457897E-2	1.035579E-1	8.371645E-2	9.137726E-2	7.346531E-2	7.705630E-2	9.114986E-2	1.109212E-1	6.874204E-2	8.064770E-2	7.762076E-2	1.023708E-1	9.486888E-2	9.296938E-2	7.428644E-2	9.364294E-2	8.681618E-2	9.833785E-2	8.735860E-2	1.116202E-1	6.805426E-2	9.415592E-2	1.096041E-1	7.753240E-2	7.993250E-2	7.415980E-2	8.591505E-2	1.037661E-1	8.457127E-2	7.321799E-2	9.004758E-2	6.871574E-2	9.286605E-2	8.937614E-2	1.001014E-1	8.398850E-2	7.495451E-2	1.043884E-1	8.488548E-2	7.358641E-2	8.908423E-2	8.433553E-2	8.690737E-2	6.222415E-2	7.199754E-2	9.382638E-2	8.740117E-2	1.157624E-1	9.305120E-2	8.450678E-2	1.149681E-1	8.908639E-2	8.761376E-2	8.360586E-2	9.671712E-2	8.895206E-2	8.687888E-2	7.357300E-2	5.920589E-2	8.455271E-2	8.253637E-2	1.232898E-1	9.366398E-2	7.224633E-2	7.238026E-2	1.125475E-1	7.723087E-2	9.820190E-2	6.791737E-2	1.033420E-1	9.665228E-2	1.053125E-1	1.117095E-1	7.537661E-2	6.369084E-2	7.408438E-2	9.812678E-2	9.812239E-2	7.572837E-2	7.015381E-2	7.917848E-2	9.053564E-2	9.596713E-2	9.216719E-2	8.384376E-2	8.572065E-2	1.047517E-1	9.551631E-2	8.614145E-2	9.642107E-2	8.372985E-2	8.108788E-2	8.257884E-2	7.289568E-2	7.630659E-2	1.103732E-1	9.262304E-2	9.436749E-2	8.008166E-2	1.292002E-1	8.366258E-2	9.670480E-2	8.208448E-2	1.015398E-1	8.214038E-2	1.077841E-1	6.035669E-2	8.059644E-2	8.628342E-2	8.863981E-2	8.059099E-2	9.349738E-2	7.080264E-2	7.394305E-2	6.341425E-2	1.020134E-1	7.552414E-2	9.698183E-2	1.198962E-1	8.019297E-2	1.187804E-1	9.531321E-2	1.047256E-1	1.032854E-1	8.444312E-2	7.051502E-2	6.369774E-2	8.861624E-2	6.937039E-2	8.038623E-2	6.622922E-2	9.697806E-2	8.811840E-2	8.524360E-2	9.268695E-2	6.514138E-2	9.565805E-2	7.002756E-2	9.727753E-2	1.091955E-1	9.821438E-2	9.319468E-2	7.145196E-2	7.463930E-2	8.386401E-2	9.179668E-2
2.844030E+2	1.108557E-1	1.024954E-1	1.017942E-1	1.234199E-1	1.172396E-1	1.128682E-1	1.205891E-1	1.135936E-1	1.217023E-1	1.355661E-1	1.114763E-1	1.008933E-1	1.251740E-1	1.148639E-1	1.032037E-1	1.167893E-1	1.080293E-1	1.086034E-1	1.073929E-1	1.008719E-1	1.233005E-1	1.075402E-1	1.189268E-1	1.198512E-1	1.129165E-1	1.149086E-1	1.064122E-1	1.177431E-1	1.298982E-1	1.111521E-1	1.124390E-1	9.952654E-2	9.523640E-2	9.268819E-2	1.126997E-1	1.024930E-1	1.004365E-1	1.071754E-1	1.101344E-1	1.045537E-1	1.086030E-1	1.141471E-1	1.075629E-1	1.224812E-1	1.026273E-1	1.046563E-1	1.104124E-1	1.368422E-1	1.607419E-1	1.043914E-1	1.294299E-1	1.099413E-1	9.232675E-2	1.149646E-1	1.254447E-1	1.148259E-1	1.256929E-1	1.354506E-1	1.192229E-1	1.253600E-1	9.193902E-2	1.113662E-1	1.163318E-1	1.156368E-1	1.092869E-1	9.803144E-2	1.134387E-1	1.130484E-1	1.274942E-1	1.158608E-1	1.104085E-1	1.249190E-1	1.117316E-1	1.161869E-1	8.581751E-2	1.091018E-1	1.114135E-1	9.639786E-2	1.094860E-1	1.109515E-1	7.107197E-2	1.098953E-1	1.252775E-1	1.125185E-1	1.222512E-1	1.011777E-1	1.025399E-1	1.155616E-1	1.247970E-1	1.115997E-1	1.072880E-1	9.223606E-2	1.147685E-1	1.087321E-1	1.235646E-1	9.035879E-2	7.117858E-2	1.112693E-1	1.001304E-1	1.053402E-1	9.639812E-2	1.037620E-1	1.135825E-1	1.201097E-1	1.169107E-1	1.096225E-1	7.920760E-2	1.213178E-1	1.273312E-1	1.209258E-1	1.103004E-1	1.092880E-1	1.029337E-1	1.164651E-1	1.057550E-1	1.218886E-1	1.219941E-1	1.075058E-1	9.687201E-2	1.103451E-1	1.111213E-1	1.222314E-1	9.862263E-2	9.438988E-2	1.222582E-1	1.409654E-1	9.635479E-2	1.122453E-1	1.358077E-1	9.842160E-2	7.771318E-2	1.062755E-1	7.728161E-2	1.050856E-1	1.129026E-1	1.252820E-1	1.099090E-1	1.245181E-1	8.299081E-2	1.092235E-1	1.109279E-1	1.367605E-1	1.111631E-1	1.010629E-1	1.114055E-1	9.659453E-2	1.075045E-1	1.245816E-1	1.047625E-1	1.365656E-1	1.110262E-1	9.473221E-2	1.220046E-1	1.047200E-1	9.610304E-2	1.298168E-1	1.250198E-1	1.085754E-1	1.178818E-1	9.894930E-2	1.000605E-1	1.232383E-1	1.194055E-1	1.222286E-1	8.623553E-2	1.201760E-1	9.689683E-2	1.391009E-1	1.144130E-1	1.457398E-1	1.253983E-1	1.266621E-1
2.845030E+2	1.130601E-1	1.251387E-1	1.213941E-1	1.599554E-1	1.394313E-1	1.242009E-1	1.404825E-1	1.298117E-1	9.944661E-2	1.151966E-1	1.529845E-1	1.275441E-1	1.380205E-1	1.366700E-1	1.256002E-1	1.583094E-1	1.312346E-1	1.527100E-1	1.478705E-1	1.067076E-1	1.330732E-1	1.489605E-1	1.646291E-1	1.057431E-1	1.248664E-1	1.452203E-1	1.512704E-1	1.553167E-1	1.061951E-1	1.279481E-1	1.402899E-1	1.242291E-1	1.531443E-1	1.068331E-1	1.417883E-1	1.249148E-1	1.451081E-1	1.283733E-1	1.125555E-1	1.349060E-1	1.521154E-1	1.482067E-1	1.427178E-1	1.642469E-1	1.551028E-1	1.403245E-1	1.369380E-1	1.728130E-1	9.019285E-2	1.579108E-1	1.499881E-1	1.430514E-1	1.348301E-1	1.409011E-1	1.154863E-1	1.171260E-1	1.578907E-1	1.353946E-1	1.570530E-1	1.424010E-1	1.421171E-1	1.318783E-1	1.161849E-1	1.305047E-1	1.503176E-1	1.224322E-1	1.529850E-1	1.297463E-1	1.266296E-1	1.286390E-1	1.315225E-1	1.217735E-1	1.336238E-1	1.384555E-1	1.072226E-1	1.488685E-1	1.206977E-1	1.131451E-1	1.324809E-1	1.133707E-1	1.348130E-1	1.374624E-1	1.184498E-1	1.383079E-1	1.233331E-1	1.198802E-1	1.451023E-1	1.415979E-1	1.452183E-1	1.377901E-1	1.434806E-1	1.297094E-1	1.620773E-1	1.578074E-1	1.043651E-1	1.415950E-1	1.299161E-1	1.301944E-1	1.316917E-1	1.077318E-1	1.370874E-1	1.104146E-1	1.329759E-1	1.126311E-1	1.242465E-1	1.561799E-1	1.536625E-1	1.400233E-1	1.174661E-1	1.169980E-1	1.492394E-1	1.292580E-1	1.543603E-1	1.779750E-1	1.225365E-1	1.414799E-1	1.328672E-1	1.203921E-1	1.447019E-1	1.392374E-1	1.582260E-1	1.039768E-1	1.611458E-1	1.046878E-1	1.096607E-1	1.121541E-1	1.494427E-1	1.276553E-1	1.369502E-1	1.213919E-1	1.319541E-1	1.547443E-1	1.446595E-1	1.321029E-1	1.326166E-1	1.164112E-1	1.185932E-1	1.272999E-1	9.449244E-2	1.348329E-1	1.145434E-1	1.366407E-1	1.373489E-1	1.547272E-1	1.424456E-1	1.649093E-1	1.279286E-1	1.438739E-1	1.511287E-1	1.196009E-1	1.654326E-1	1.391639E-1	1.201576E-1	1.600280E-1	1.481887E-1	1.173794E-1	1.261089E-1	1.301617E-1	1.189564E-1	1.298405E-1	1.497088E-1	1.345232E-1	1.330853E-1	1.246781E-1	1.483801E-1	1.499717E-1	1.323049E-1	1.390235E-1	1.409716E-1	1.353987E-1	1.492379E-1	1.569477E-1
2.846010E+2	2.010369E-1	1.902530E-1	2.437212E-1	1.994489E-1	2.347168E-1	1.930145E-1	2.423641E-1	1.956835E-1	2.110567E-1	2.148674E-1	1.926791E-1	1.860050E-1	1.951737E-1	2.253383E-1	2.161355E-1	1.769257E-1	1.846375E-1	2.216305E-1	1.955496E-1	1.835750E-1	2.457509E-1	2.237699E-1	2.333857E-1	2.359289E-1	2.671215E-1	2.238235E-1	2.176831E-1	2.321421E-1	1.631825E-1	1.891339E-1	2.066998E-1	2.162696E-1	1.942441E-1	2.056632E-1	2.022140E-1	1.647358E-1	2.045755E-1	1.969152E-1	1.752360E-1	1.927747E-1	1.819831E-1	2.041767E-1	1.995895E-1	2.397116E-1	2.020774E-1	1.975893E-1	2.180633E-1	1.734022E-1	2.124467E-1	2.337298E-1	2.404368E-1	2.074991E-1	2.345746E-1	1.863544E-1	2.061446E-1	1.821377E-1	2.254870E-1	1.989121E-1	2.326791E-1	1.906263E-1	2.201731E-1	2.499137E-1	2.174409E-1	2.000278E-1	2.342602E-1	2.045134E-1	1.876535E-1	2.052514E-1	2.015323E-1	2.087118E-1	1.756000E-1	2.010806E-1	1.978482E-1	2.016999E-1	2.007410E-1	1.987218E-1	2.233470E-1	1.935004E-1	2.074246E-1	2.119819E-1	1.866206E-1	1.617598E-1	2.295822E-1	2.041772E-1	1.755177E-1	2.260339E-1	1.997974E-1	2.362990E-1	2.310481E-1	2.117398E-1	1.791334E-1	2.133793E-1	2.229446E-1	2.421089E-1	2.079931E-1	1.924567E-1	2.347633E-1	2.327715E-1	1.759776E-1	2.275942E-1	2.123595E-1	2.390534E-1	2.354373E-1	1.857151E-1	1.731221E-1	2.212325E-1	1.888126E-1	2.188707E-1	2.240967E-1	1.946485E-1	2.194405E-1	2.115607E-1	2.116023E-1	2.207866E-1	2.350693E-1	2.234375E-1	2.028729E-1	1.877089E-1	1.960506E-1	2.319202E-1	2.069207E-1	1.979912E-1	2.187722E-1	2.014390E-1	2.082325E-1	2.303302E-1	2.213096E-1	2.325122E-1	2.130924E-1	1.958926E-1	2.394726E-1	2.257911E-1	2.359062E-1	2.093288E-1	2.334564E-1	2.273365E-1	2.696192E-1	2.248446E-1	2.374206E-1	2.309853E-1	2.119457E-1	2.030284E-1	1.869519E-1	2.581285E-1	2.374308E-1	1.893734E-1	2.062701E-1	1.891409E-1	2.337391E-1	2.121183E-1	2.432961E-1	2.241797E-1	2.453293E-1	2.237523E-1	2.447835E-1	2.218535E-1	2.119184E-1	2.053711E-1	2.115909E-1	1.952120E-1	2.048623E-1	2.240854E-1	2.008790E-1	1.938057E-1	2.269950E-1	2.258326E-1	2.557675E-1	2.267684E-1	2.377619E-1	2.005120E-1	1.457986E-1	2.100465E-1
2.847020E+2	3.920828E-1	4.759121E-1	4.368239E-1	5.084174E-1	4.657373E-1	4.305257E-1	4.218466E-1	4.531380E-1	4.372582E-1	4.776098E-1	4.268813E-1	4.634104E-1	4.138600E-1	4.940647E-1	4.722917E-1	4.318443E-1	4.650847E-1	4.562918E-1	4.241519E-1	4.649288E-1	4.531929E-1	4.554567E-1	4.833411E-1	4.359024E-1	4.523428E-1	4.780804E-1	4.357616E-1	4.431310E-1	4.430611E-1	4.628862E-1	4.204965E-1	4.164405E-1	4.274076E-1	4.330597E-1	4.331188E-1	4.839675E-1	4.332001E-1	4.680416E-1	3.925420E-1	4.225853E-1	4.012037E-1	4.542546E-1	4.263905E-1	4.871754E-1	4.306367E-1	4.517081E-1	4.375363E-1	4.809238E-1	4.744385E-1	4.682565E-1	4.698843E-1	4.422174E-1	4.152346E-1	4.538991E-1	4.505412E-1	4.493466E-1	4.507290E-1	4.573367E-1	4.594161E-1	4.322776E-1	4.207287E-1	5.237195E-1	4.747926E-1	4.592940E-1	4.984066E-1	5.262040E-1	4.821362E-1	4.419456E-1	4.730285E-1	4.911504E-1	4.138980E-1	4.172910E-1	4.161642E-1	4.624726E-1	5.078638E-1	4.750276E-1	4.608123E-1	4.336386E-1	4.262177E-1	4.595993E-1	4.503855E-1	4.506201E-1	4.697801E-1	4.189198E-1	4.650438E-1	4.480995E-1	4.328896E-1	4.441806E-1	4.785198E-1	4.804115E-1	4.177103E-1	4.303622E-1	4.311889E-1	4.327973E-1	4.182145E-1	4.107350E-1	4.365324E-1	4.257689E-1	4.476392E-1	4.775252E-1	4.382451E-1	4.635478E-1	4.804108E-1	4.406338E-1	4.434466E-1	4.349316E-1	4.807537E-1	4.654216E-1	4.415786E-1	4.397781E-1	4.821381E-1	4.776885E-1	4.336069E-1	5.074127E-1	4.579082E-1	4.660458E-1	4.332722E-1	4.947924E-1	4.315694E-1	4.772195E-1	4.257364E-1	4.540556E-1	4.353623E-1	4.624275E-1	4.301090E-1	4.462733E-1	4.727345E-1	4.091524E-1	4.829414E-1	4.802670E-1	4.414751E-1	4.620562E-1	4.387955E-1	4.138529E-1	4.425198E-1	4.272927E-1	4.517227E-1	4.705635E-1	4.270062E-1	4.530640E-1	4.850144E-1	4.240036E-1	4.541417E-1	4.464187E-1	4.701091E-1	4.592236E-1	4.346101E-1	4.766423E-1	4.580366E-1	4.394374E-1	4.670002E-1	4.910249E-1	4.459691E-1	4.559096E-1	4.330890E-1	4.430630E-1	4.195359E-1	4.984790E-1	4.285577E-1	4.601914E-1	4.352182E-1	4.416395E-1	5.057797E-1	5.053943E-1	4.670182E-1	4.120319E-1	4.574139E-1	4.359383E-1	4.388619E-1	4.247747E-1	4.754719E-1	3.995512E-1
2.848020E+2	9.472566E-1	8.944616E-1	9.655640E-1	9.202455E-1	1.031941E+0	8.919674E-1	9.423753E-1	9.120616E-1	9.141627E-1	9.705958E-1	9.484782E-1	8.308108E-1	9.727108E-1	9.511212E-1	1.012316E+0	8.917866E-1	9.418141E-1	9.633677E-1	9.470897E-1	1.034455E+0	9.280594E-1	9.296319E-1	9.122481E-1	9.490247E-1	9.303749E-1	9.859194E-1	9.019408E-1	1.002202E+0	9.118110E-1	9.675871E-1	9.293704E-1	9.665552E-1	9.922786E-1	9.974334E-1	9.205726E-1	9.830569E-1	9.292972E-1	9.203163E-1	8.908686E-1	9.463948E-1	9.683241E-1	9.736912E-1	9.293787E-1	9.834872E-1	1.018204E+0	8.692496E-1	9.282937E-1	1.012028E+0	9.158216E-1	9.512689E-1	9.308135E-1	9.101292E-1	9.397664E-1	9.492128E-1	9.377102E-1	9.419078E-1	8.840562E-1	9.398185E-1	9.629810E-1	1.035339E+0	1.003510E+0	9.515197E-1	9.375714E-1	9.526817E-1	9.831229E-1	9.655281E-1	9.127801E-1	9.289803E-1	9.025494E-1	9.459082E-1	9.585378E-1	9.437444E-1	9.551884E-1	9.682535E-1	9.170953E-1	9.156493E-1	9.147920E-1	9.356787E-1	8.980917E-1	9.138149E-1	9.180016E-1	8.800694E-1	9.875355E-1	9.095480E-1	9.611128E-1	9.140804E-1	9.181071E-1	9.622211E-1	9.489372E-1	9.586880E-1	9.864721E-1	9.667455E-1	9.831162E-1	9.644319E-1	8.910236E-1	8.496580E-1	9.587062E-1	1.044212E+0	8.688277E-1	9.037198E-1	9.126721E-1	9.189396E-1	9.298318E-1	9.430604E-1	8.962852E-1	9.501212E-1	1.008698E+0	8.746843E-1	9.927708E-1	9.474694E-1	9.219532E-1	9.634420E-1	9.734411E-1	9.395850E-1	8.963960E-1	9.809604E-1	9.521548E-1	9.419913E-1	9.323210E-1	9.129303E-1	9.627377E-1	8.842311E-1	9.193066E-1	9.085926E-1	1.000596E+0	9.939099E-1	9.536004E-1	9.430807E-1	8.988497E-1	1.029219E+0	8.764995E-1	9.437125E-1	9.161986E-1	9.048960E-1	9.835838E-1	9.405152E-1	9.352785E-1	1.044982E+0	9.432558E-1	9.269636E-1	1.018902E+0	8.775645E-1	9.098377E-1	9.411420E-1	9.215857E-1	1.005824E+0	9.860037E-1	9.547619E-1	9.440749E-1	9.867065E-1	9.018763E-1	8.836228E-1	9.346946E-1	1.003139E+0	8.802107E-1	1.008853E+0	9.341174E-1	1.004025E+0	9.203218E-1	1.007001E+0	9.384354E-1	9.361828E-1	9.365356E-1	9.462267E-1	9.641759E-1	9.661894E-1	1.002581E+0	9.929737E-1	9.925623E-1	8.727786E-1	8.906884E-1	9.906915E-1
2.849020E+2	1.539355E+0	1.519367E+0	1.424551E+0	1.564086E+0	1.597536E+0	1.449509E+0	1.475989E+0	1.590335E+0	1.481040E+0	1.441651E+0	1.483069E+0	1.485971E+0	1.538662E+0	1.512371E+0	1.591634E+0	1.424868E+0	1.484079E+0	1.497980E+0	1.572376E+0	1.530125E+0	1.526456E+0	1.560596E+0	1.545661E+0	1.468804E+0	1.601078E+0	1.470597E+0	1.450106E+0	1.548481E+0	1.505363E+0	1.528129E+0	1.508626E+0	1.515379E+0	1.600914E+0	1.512536E+0	1.434266E+0	1.536677E+0	1.520720E+0	1.543245E+0	1.547655E+0	1.570429E+0	1.504795E+0	1.566372E+0	1.529681E+0	1.606669E+0	1.509736E+0	1.566119E+0	1.428479E+0	1.537833E+0	1.466974E+0	1.542062E+0	1.484458E+0	1.561916E+0	1.418085E+0	1.541725E+0	1.569596E+0	1.481598E+0	1.515895E+0	1.547208E+0	1.552624E+0	1.530338E+0	1.480066E+0	1.542851E+0	1.493705E+0	1.448111E+0	1.489874E+0	1.523311E+0	1.536117E+0	1.412437E+0	1.505866E+0	1.611307E+0	1.588849E+0	1.554289E+0	1.504918E+0	1.631690E+0	1.418318E+0	1.546024E+0	1.473824E+0	1.461695E+0	1.415050E+0	1.508812E+0	1.567841E+0	1.541741E+0	1.538233E+0	1.540169E+0	1.432106E+0	1.484204E+0	1.407635E+0	1.514031E+0	1.453426E+0	1.577080E+0	1.478724E+0	1.610054E+0	1.440461E+0	1.601582E+0	1.408258E+0	1.572238E+0	1.522914E+0	1.551094E+0	1.577714E+0	1.585349E+0	1.446642E+0	1.584732E+0	1.496537E+0	1.497739E+0	1.484718E+0	1.577941E+0	1.558127E+0	1.532903E+0	1.563321E+0	1.430751E+0	1.529278E+0	1.521624E+0	1.566675E+0	1.593091E+0	1.568779E+0	1.495000E+0	1.483877E+0	1.531174E+0	1.508092E+0	1.496107E+0	1.441383E+0	1.616790E+0	1.509794E+0	1.458237E+0	1.481113E+0	1.561535E+0	1.553050E+0	1.521359E+0	1.523382E+0	1.523761E+0	1.437269E+0	1.479443E+0	1.566832E+0	1.526316E+0	1.496885E+0	1.525475E+0	1.523081E+0	1.580421E+0	1.540148E+0	1.528469E+0	1.604025E+0	1.540974E+0	1.553086E+0	1.470720E+0	1.530906E+0	1.547047E+0	1.507877E+0	1.430441E+0	1.426623E+0	1.569435E+0	1.466692E+0	1.491040E+0	1.513001E+0	1.566864E+0	1.473305E+0	1.534101E+0	1.435778E+0	1.517550E+0	1.575106E+0	1.451961E+0	1.487748E+0	1.588796E+0	1.423309E+0	1.594441E+0	1.440485E+0	1.536928E+0	1.668198E+0	1.631810E+0	1.592177E+0	1.526702E+0	1.462438E+0	1.536933E+0
2.850010E+2	1.774005E+0	1.706457E+0	1.822404E+0	1.862800E+0	1.715020E+0	1.790535E+0	1.875662E+0	1.664673E+0	1.753291E+0	1.777071E+0	1.706091E+0	1.766252E+0	1.768178E+0	1.744634E+0	1.809429E+0	1.774968E+0	1.683997E+0	1.727845E+0	1.789577E+0	1.792671E+0	1.728924E+0	1.870857E+0	1.725126E+0	1.741094E+0	1.721721E+0	1.786678E+0	1.726776E+0	1.778786E+0	1.789830E+0	1.782702E+0	1.755756E+0	1.771897E+0	1.838503E+0	1.778460E+0	1.734997E+0	1.699979E+0	1.736174E+0	1.737197E+0	1.877013E+0	1.781968E+0	1.643803E+0	1.885982E+0	1.724710E+0	1.816421E+0	1.800034E+0	1.811163E+0	1.727467E+0	1.748970E+0	1.772570E+0	1.784631E+0	1.705797E+0	1.725970E+0	1.800217E+0	1.771156E+0	1.768733E+0	1.726540E+0	1.655787E+0	1.822586E+0	1.677560E+0	1.840192E+0	1.818856E+0	1.743966E+0	1.676394E+0	1.690063E+0	1.702053E+0	1.754023E+0	1.772010E+0	1.736138E+0	1.774577E+0	1.808376E+0	1.705116E+0	1.710031E+0	1.709053E+0	1.781791E+0	1.906082E+0	1.742804E+0	1.650875E+0	1.751689E+0	1.736828E+0	1.757165E+0	1.924386E+0	1.693312E+0	1.807248E+0	1.799793E+0	1.665210E+0	1.746017E+0	1.698842E+0	1.756489E+0	1.730807E+0	1.811996E+0	1.743141E+0	1.763923E+0	1.855694E+0	1.773724E+0	1.695184E+0	1.765298E+0	1.748580E+0	1.773277E+0	1.706053E+0	1.758197E+0	1.692053E+0	1.788712E+0	1.822318E+0	1.706059E+0	1.700610E+0	1.805415E+0	1.777256E+0	1.677692E+0	1.804958E+0	1.749262E+0	1.717025E+0	1.798991E+0	1.754940E+0	1.864993E+0	1.799948E+0	1.804962E+0	1.817620E+0	1.846751E+0	1.693995E+0	1.709483E+0	1.678472E+0	1.722887E+0	1.738128E+0	1.764060E+0	1.682623E+0	1.694928E+0	1.726375E+0	1.650541E+0	1.718362E+0	1.829427E+0	1.715747E+0	1.684791E+0	1.742893E+0	1.748538E+0	1.702506E+0	1.734919E+0	1.681109E+0	1.728204E+0	1.678192E+0	1.858184E+0	1.740857E+0	1.736812E+0	1.783401E+0	1.708808E+0	1.794134E+0	1.660788E+0	1.711994E+0	1.824404E+0	1.774310E+0	1.698402E+0	1.791083E+0	1.739525E+0	1.761185E+0	1.716097E+0	1.738375E+0	1.744605E+0	1.697037E+0	1.874376E+0	1.752185E+0	1.755691E+0	1.784993E+0	1.736644E+0	1.861867E+0	1.877261E+0	1.807398E+0	1.659617E+0	1.696903E+0	1.728400E+0	1.753235E+0	1.711957E+0	1.953934E+0	1.742403E+0
2.851000E+2	1.729036E+0	1.739636E+0	1.793220E+0	1.839691E+0	1.729475E+0	1.760490E+0	1.733732E+0	1.722392E+0	1.673989E+0	1.743225E+0	1.787967E+0	1.732595E+0	1.748624E+0	1.743918E+0	1.813060E+0	1.769874E+0	1.761108E+0	1.708892E+0	1.751328E+0	1.833070E+0	1.783433E+0	1.716998E+0	1.791510E+0	1.703539E+0	1.769861E+0	1.727318E+0	1.714714E+0	1.725258E+0	1.709581E+0	1.709975E+0	1.758633E+0	1.782976E+0	1.824377E+0	1.796304E+0	1.722352E+0	1.745228E+0	1.680388E+0	1.786690E+0	1.696864E+0	1.743685E+0	1.695216E+0	1.794052E+0	1.737810E+0	1.808256E+0	1.786949E+0	1.786396E+0	1.726332E+0	1.816506E+0	1.721138E+0	1.730724E+0	1.675281E+0	1.771229E+0	1.845154E+0	1.777749E+0	1.736225E+0	1.771621E+0	1.713149E+0	1.695814E+0	1.670533E+0	1.714402E+0	1.739507E+0	1.816288E+0	1.809312E+0	1.763152E+0	1.766507E+0	1.776908E+0	1.705983E+0	1.746273E+0	1.676600E+0	1.810886E+0	1.663489E+0	1.728994E+0	1.642374E+0	1.729524E+0	1.777572E+0	1.676997E+0	1.722120E+0	1.763173E+0	1.709218E+0	1.686330E+0	1.733414E+0	1.758194E+0	1.793746E+0	1.795794E+0	1.754414E+0	1.749874E+0	1.712957E+0	1.881663E+0	1.751856E+0	1.759277E+0	1.663474E+0	1.681329E+0	1.692572E+0	1.823696E+0	1.700226E+0	1.741624E+0	1.777831E+0	1.713813E+0	1.766838E+0	1.681461E+0	1.808113E+0	1.794049E+0	1.665229E+0	1.676699E+0	1.637979E+0	1.760463E+0	1.809351E+0	1.696363E+0	1.662033E+0	1.740953E+0	1.767661E+0	1.660112E+0	1.787713E+0	1.933988E+0	1.754533E+0	1.801932E+0	1.807812E+0	1.840013E+0	1.625126E+0	1.767331E+0	1.671235E+0	1.766260E+0	1.754415E+0	1.790139E+0	1.780129E+0	1.878842E+0	1.699346E+0	1.724746E+0	1.798831E+0	1.723813E+0	1.705972E+0	1.723921E+0	1.766851E+0	1.699309E+0	1.656027E+0	1.762986E+0	1.713581E+0	1.707849E+0	1.809358E+0	1.766958E+0	1.795751E+0	1.730246E+0	1.616340E+0	1.819372E+0	1.790094E+0	1.755898E+0	1.739178E+0	1.656124E+0	1.671276E+0	1.705950E+0	1.793942E+0	1.637395E+0	1.740219E+0	1.756191E+0	1.696605E+0	1.767102E+0	1.690267E+0	1.721622E+0	1.736852E+0	1.704495E+0	1.686176E+0	1.691700E+0	1.705016E+0	1.784144E+0	1.652627E+0	1.748826E+0	1.806323E+0	1.656163E+0	1.648937E+0	1.756873E+0	1.765904E+0	1.695989E+0
2.851990E+2	1.507340E+0	1.485612E+0	1.605685E+0	1.550077E+0	1.545175E+0	1.562116E+0	1.521995E+0	1.536039E+0	1.554992E+0	1.524940E+0	1.584129E+0	1.498327E+0	1.527160E+0	1.533703E+0	1.548784E+0	1.460219E+0	1.600237E+0	1.479189E+0	1.533427E+0	1.538680E+0	1.522622E+0	1.563986E+0	1.526066E+0	1.612785E+0	1.506763E+0	1.564850E+0	1.482377E+0	1.572236E+0	1.524308E+0	1.612685E+0	1.551686E+0	1.480485E+0	1.568945E+0	1.475299E+0	1.382049E+0	1.524518E+0	1.516919E+0	1.467283E+0	1.505943E+0	1.542366E+0	1.518128E+0	1.608181E+0	1.525341E+0	1.551177E+0	1.612517E+0	1.509084E+0	1.479572E+0	1.641656E+0	1.481720E+0	1.615737E+0	1.457648E+0	1.539284E+0	1.614366E+0	1.579816E+0	1.629910E+0	1.422023E+0	1.491258E+0	1.641689E+0	1.459175E+0	1.553841E+0	1.398037E+0	1.556047E+0	1.548329E+0	1.501256E+0	1.451189E+0	1.594305E+0	1.504172E+0	1.541554E+0	1.596859E+0	1.556151E+0	1.466505E+0	1.562591E+0	1.450271E+0	1.588727E+0	1.609925E+0	1.549621E+0	1.526049E+0	1.461660E+0	1.383452E+0	1.437972E+0	1.564141E+0	1.488897E+0	1.484882E+0	1.454235E+0	1.436613E+0	1.526562E+0	1.473244E+0	1.504917E+0	1.508987E+0	1.481291E+0	1.374374E+0	1.501670E+0	1.540668E+0	1.505573E+0	1.478340E+0	1.470868E+0	1.576162E+0	1.601915E+0	1.507217E+0	1.502541E+0	1.541755E+0	1.580579E+0	1.498655E+0	1.483350E+0	1.493487E+0	1.560501E+0	1.564997E+0	1.462066E+0	1.498694E+0	1.552734E+0	1.491459E+0	1.571633E+0	1.554932E+0	1.618600E+0	1.625197E+0	1.556567E+0	1.500461E+0	1.556386E+0	1.549535E+0	1.545096E+0	1.515468E+0	1.543521E+0	1.557747E+0	1.501289E+0	1.552088E+0	1.531638E+0	1.581991E+0	1.545020E+0	1.520089E+0	1.494759E+0	1.474699E+0	1.448484E+0	1.508659E+0	1.545005E+0	1.513808E+0	1.481873E+0	1.486233E+0	1.603209E+0	1.503826E+0	1.495643E+0	1.513636E+0	1.531970E+0	1.479670E+0	1.530481E+0	1.544966E+0	1.473445E+0	1.566595E+0	1.499716E+0	1.550162E+0	1.493069E+0	1.562751E+0	1.446267E+0	1.529895E+0	1.491405E+0	1.556713E+0	1.579060E+0	1.557607E+0	1.558467E+0	1.513894E+0	1.538641E+0	1.444224E+0	1.476791E+0	1.581723E+0	1.506515E+0	1.605913E+0	1.567870E+0	1.534201E+0	1.519073E+0	1.537792E+0	1.490916E+0	1.686056E+0	1.586125E+0
2.853000E+2	1.108989E+0	1.056880E+0	1.196137E+0	1.148797E+0	1.134161E+0	1.164716E+0	1.175443E+0	1.136660E+0	1.096310E+0	1.116268E+0	1.145969E+0	1.152469E+0	1.146424E+0	1.188033E+0	1.220118E+0	1.151030E+0	1.109148E+0	1.189566E+0	1.187347E+0	1.157793E+0	1.127708E+0	1.185061E+0	1.158379E+0	1.144972E+0	1.193682E+0	1.045718E+0	1.195842E+0	1.177057E+0	1.103170E+0	1.228592E+0	1.165299E+0	1.163679E+0	1.197939E+0	1.162662E+0	1.189353E+0	1.193073E+0	1.254362E+0	1.152191E+0	1.189746E+0	1.104144E+0	1.161425E+0	1.189644E+0	1.174738E+0	1.222655E+0	1.194872E+0	1.138559E+0	1.165728E+0	1.102402E+0	1.104380E+0	1.083648E+0	1.144902E+0	1.183941E+0	1.083949E+0	1.190171E+0	1.232908E+0	1.038065E+0	1.182760E+0	1.132418E+0	1.109399E+0	1.108210E+0	1.093357E+0	1.171551E+0	1.176201E+0	1.158149E+0	1.207928E+0	1.141828E+0	1.184858E+0	1.102794E+0	1.129213E+0	1.100136E+0	1.087792E+0	1.177956E+0	1.153037E+0	1.214755E+0	1.109577E+0	1.181646E+0	1.136526E+0	1.137051E+0	1.065220E+0	1.176173E+0	1.281992E+0	1.110389E+0	1.179248E+0	1.154787E+0	1.099724E+0	1.191679E+0	1.171206E+0	1.061116E+0	1.120741E+0	1.214728E+0	1.155069E+0	1.171011E+0	1.153506E+0	1.198736E+0	1.077713E+0	1.176249E+0	1.148111E+0	1.202230E+0	1.077809E+0	1.095856E+0	1.136849E+0	1.209310E+0	1.222593E+0	1.196055E+0	1.067524E+0	1.179346E+0	1.041706E+0	1.163791E+0	1.234357E+0	1.116658E+0	1.079985E+0	1.098809E+0	1.124786E+0	1.166882E+0	1.147238E+0	1.112922E+0	1.150322E+0	1.208183E+0	1.177175E+0	1.113055E+0	1.164701E+0	1.063200E+0	1.162369E+0	1.115044E+0	1.142985E+0	1.192360E+0	1.166347E+0	1.136915E+0	1.186592E+0	1.267262E+0	1.071354E+0	1.210549E+0	1.149416E+0	1.161394E+0	1.170713E+0	1.203769E+0	1.208783E+0	1.257000E+0	1.096951E+0	1.195398E+0	1.158903E+0	1.132198E+0	1.220342E+0	1.156121E+0	1.161243E+0	1.178364E+0	1.192356E+0	1.109747E+0	1.159352E+0	1.144607E+0	1.110013E+0	1.117280E+0	1.194650E+0	1.243470E+0	1.153797E+0	1.134879E+0	1.202980E+0	1.192020E+0	1.151261E+0	1.112054E+0	1.195517E+0	1.079003E+0	1.193385E+0	1.208818E+0	1.143593E+0	1.211849E+0	1.116217E+0	1.222917E+0	1.182523E+0	1.131536E+0	1.151165E+0	1.087323E+0
2.854010E+2	7.889913E-1	6.833067E-1	7.606183E-1	7.612890E-1	7.460524E-1	7.074538E-1	7.606396E-1	7.786224E-1	6.886114E-1	6.935246E-1	7.319874E-1	7.751523E-1	8.000104E-1	7.727994E-1	7.653040E-1	7.373554E-1	7.016354E-1	7.672203E-1	7.473861E-1	7.329211E-1	7.299370E-1	7.511571E-1	7.432618E-1	7.323840E-1	7.405608E-1	7.381341E-1	7.132538E-1	7.013698E-1	7.519317E-1	7.358193E-1	7.161332E-1	7.284395E-1	7.244683E-1	7.165423E-1	7.134322E-1	7.197777E-1	7.173132E-1	7.770082E-1	7.262886E-1	7.177379E-1	6.442712E-1	8.090565E-1	7.041299E-1	8.003417E-1	7.355934E-1	7.607920E-1	7.265255E-1	7.445080E-1	7.182812E-1	7.650067E-1	7.366960E-1	7.425581E-1	7.675071E-1	7.910290E-1	7.386686E-1	7.106437E-1	7.690377E-1	7.603545E-1	7.573984E-1	7.370621E-1	7.282201E-1	7.705332E-1	7.004070E-1	7.190110E-1	7.147447E-1	7.260414E-1	7.615874E-1	6.932555E-1	7.455792E-1	7.462981E-1	7.340407E-1	8.160026E-1	7.403310E-1	8.294851E-1	7.002964E-1	7.347533E-1	7.467522E-1	7.540002E-1	6.586928E-1	7.386521E-1	7.309177E-1	7.501090E-1	7.205685E-1	7.112256E-1	7.572886E-1	7.667141E-1	7.498946E-1	7.345960E-1	8.070592E-1	8.858769E-1	7.791915E-1	7.673929E-1	7.201284E-1	7.700096E-1	7.858680E-1	7.514632E-1	7.231571E-1	7.246760E-1	7.228003E-1	6.717150E-1	7.272053E-1	8.132364E-1	7.603097E-1	7.443766E-1	7.056268E-1	7.813838E-1	7.479116E-1	6.812567E-1	7.391259E-1	7.825758E-1	6.798811E-1	7.208337E-1	7.774092E-1	7.602244E-1	7.256184E-1	7.912852E-1	7.200681E-1	7.870065E-1	7.377679E-1	7.610073E-1	7.808866E-1	7.666661E-1	6.948377E-1	7.028094E-1	7.595340E-1	6.692461E-1	7.181115E-1	7.758433E-1	7.604204E-1	7.384056E-1	7.400216E-1	7.438685E-1	7.805685E-1	7.409233E-1	7.743435E-1	7.000685E-1	7.819951E-1	7.762165E-1	7.172956E-1	7.509903E-1	7.832632E-1	7.351760E-1	7.358738E-1	7.093830E-1	7.345903E-1	7.481909E-1	8.175465E-1	7.202337E-1	7.473504E-1	7.071017E-1	6.731942E-1	7.597581E-1	7.682186E-1	7.465788E-1	7.008992E-1	7.682406E-1	7.291035E-1	7.160121E-1	7.542330E-1	6.995612E-1	7.256784E-1	8.065059E-1	7.739353E-1	7.320140E-1	6.959138E-1	7.718892E-1	7.304590E-1	7.456887E-1	6.840416E-1	6.892353E-1	8.072686E-1	7.462877E-1
2.855000E+2	6.285129E-1	5.932811E-1	5.837987E-1	5.952116E-1	6.514473E-1	5.685087E-1	5.337983E-1	5.671917E-1	5.678704E-1	5.799273E-1	6.423440E-1	5.631689E-1	6.431165E-1	5.814918E-1	5.986368E-1	5.756817E-1	6.037563E-1	5.964695E-1	5.986845E-1	6.416170E-1	5.974487E-1	6.029909E-1	6.229322E-1	5.512601E-1	5.777255E-1	5.277230E-1	5.763298E-1	6.162554E-1	5.506513E-1	5.673117E-1	6.213577E-1	5.629245E-1	5.857692E-1	5.266825E-1	5.875548E-1	5.320691E-1	5.599273E-1	5.474356E-1	5.708165E-1	5.545366E-1	5.535955E-1	6.027320E-1	5.159351E-1	5.970432E-1	5.712351E-1	5.952230E-1	5.903658E-1	5.501437E-1	5.759968E-1	6.399185E-1	5.723501E-1	5.989256E-1	5.878125E-1	5.358885E-1	6.084432E-1	5.560114E-1	5.477377E-1	5.868499E-1	6.183511E-1	5.764632E-1	6.076683E-1	6.470280E-1	5.779749E-1	5.275980E-1	5.587290E-1	5.964339E-1	5.735283E-1	6.338827E-1	6.097731E-1	6.059657E-1	5.669432E-1	5.551572E-1	6.291827E-1	6.045054E-1	6.382655E-1	5.530643E-1	5.481636E-1	5.857301E-1	5.528030E-1	6.067396E-1	5.660275E-1	5.931888E-1	5.712545E-1	5.915018E-1	5.488553E-1	6.361655E-1	5.378092E-1	5.909767E-1	6.109604E-1	6.152080E-1	5.035989E-1	5.774647E-1	5.806569E-1	5.894256E-1	5.638570E-1	5.705359E-1	5.925638E-1	5.865893E-1	5.557102E-1	5.953803E-1	5.801400E-1	5.888521E-1	6.045942E-1	5.734041E-1	6.165369E-1	5.730871E-1	6.244895E-1	6.149955E-1	5.596777E-1	6.393044E-1	5.659753E-1	5.776407E-1	6.188600E-1	6.462183E-1	5.872692E-1	6.400391E-1	5.760985E-1	6.843770E-1	5.953978E-1	5.616701E-1	6.100540E-1	5.906138E-1	6.181273E-1	5.819079E-1	5.780013E-1	5.936711E-1	5.986227E-1	5.873603E-1	5.736385E-1	6.192506E-1	5.967365E-1	5.957365E-1	5.463284E-1	5.627208E-1	6.026300E-1	6.236412E-1	5.809484E-1	6.070616E-1	5.755681E-1	5.894741E-1	6.121159E-1	5.853870E-1	5.745863E-1	5.942643E-1	5.791606E-1	5.900550E-1	5.797169E-1	6.052576E-1	5.770152E-1	5.689028E-1	5.742562E-1	5.488737E-1	5.836073E-1	5.970731E-1	5.805625E-1	5.881373E-1	6.093775E-1	5.818397E-1	6.036271E-1	6.179431E-1	5.386325E-1	6.006166E-1	6.089115E-1	5.617257E-1	5.646749E-1	5.818551E-1	5.621976E-1	6.045562E-1	5.596103E-1	5.604603E-1	6.173475E-1	5.625873E-1
2.856030E+2	4.515199E-1	4.718509E-1	4.522694E-1	4.313878E-1	4.374073E-1	4.683729E-1	4.681897E-1	4.373837E-1	4.686686E-1	4.460083E-1	4.141576E-1	4.730636E-1	4.659283E-1	4.602029E-1	4.586331E-1	4.722182E-1	4.578857E-1	4.893261E-1	5.183280E-1	4.259822E-1	4.464107E-1	4.432713E-1	4.760093E-1	4.741574E-1	4.643396E-1	4.890573E-1	4.699219E-1	4.745038E-1	4.536802E-1	4.469716E-1	4.856240E-1	4.527495E-1	4.370765E-1	4.510810E-1	3.758223E-1	4.570261E-1	4.605244E-1	4.176500E-1	5.428612E-1	4.321485E-1	4.540882E-1	5.010548E-1	4.450262E-1	5.006981E-1	4.550840E-1	4.450055E-1	4.615305E-1	4.656147E-1	4.327205E-1	5.044687E-1	4.602151E-1	5.116099E-1	5.018781E-1	4.551144E-1	4.766292E-1	4.580807E-1	4.472953E-1	4.514867E-1	4.784280E-1	4.329363E-1	4.650319E-1	4.674643E-1	4.369728E-1	3.812266E-1	5.116806E-1	4.575265E-1	4.376752E-1	4.928895E-1	4.610937E-1	4.343189E-1	5.086867E-1	4.276090E-1	4.443821E-1	4.801408E-1	5.101010E-1	4.410116E-1	4.407099E-1	4.323444E-1	4.341519E-1	4.182467E-1	4.639182E-1	4.172392E-1	4.544552E-1	4.148775E-1	4.616106E-1	4.546456E-1	4.746730E-1	4.347729E-1	4.658110E-1	4.389837E-1	4.954169E-1	4.442037E-1	4.652930E-1	4.927091E-1	4.737471E-1	4.314758E-1	4.519465E-1	4.777679E-1	4.420503E-1	4.422759E-1	4.913927E-1	4.839451E-1	4.567557E-1	4.431806E-1	4.482354E-1	4.381113E-1	5.082625E-1	4.342841E-1	4.846545E-1	4.329908E-1	4.270744E-1	4.471248E-1	4.666730E-1	4.829780E-1	4.866333E-1	4.464716E-1	4.600203E-1	4.904376E-1	4.599122E-1	4.340830E-1	4.352191E-1	4.614679E-1	4.959993E-1	4.526316E-1	4.466970E-1	4.761485E-1	4.688397E-1	4.660723E-1	4.412533E-1	4.974710E-1	4.433707E-1	4.375114E-1	4.549502E-1	4.543144E-1	4.744564E-1	4.794699E-1	4.506381E-1	4.731369E-1	4.486878E-1	4.272960E-1	4.058591E-1	4.539791E-1	4.489580E-1	4.839418E-1	4.558328E-1	4.354072E-1	5.070626E-1	4.137230E-1	4.798756E-1	4.463747E-1	4.936856E-1	4.458288E-1	4.654356E-1	4.833280E-1	4.566426E-1	4.479710E-1	4.323583E-1	4.519865E-1	4.172435E-1	4.778386E-1	4.525597E-1	4.551051E-1	4.347511E-1	5.036167E-1	4.876419E-1	4.944593E-1	4.776169E-1	4.763652E-1	3.820681E-1	4.175321E-1	4.972162E-1	4.927184E-1
2.858010E+2	3.747151E-1	3.598243E-1	3.429908E-1	3.628446E-1	4.152491E-1	3.274371E-1	3.259648E-1	2.959776E-1	3.218805E-1	3.442005E-1	3.527971E-1	3.135976E-1	3.845534E-1	3.630245E-1	3.560937E-1	3.547798E-1	3.614816E-1	3.368309E-1	3.575530E-1	3.327854E-1	3.754161E-1	3.474657E-1	3.400344E-1	3.430042E-1	3.530336E-1	3.681168E-1	3.629938E-1	3.760427E-1	3.397028E-1	3.630848E-1	3.419537E-1	3.348222E-1	3.084046E-1	3.394805E-1	3.477743E-1	3.098467E-1	3.388269E-1	3.881557E-1	3.481139E-1	3.769321E-1	3.380373E-1	3.764181E-1	3.048833E-1	3.773242E-1	3.465725E-1	3.307111E-1	3.383375E-1	3.645618E-1	3.744114E-1	3.433586E-1	3.566280E-1	3.389680E-1	3.286032E-1	3.223518E-1	3.697047E-1	3.340252E-1	3.543458E-1	3.223137E-1	3.326737E-1	3.662371E-1	3.508350E-1	3.700338E-1	3.645641E-1	3.170576E-1	3.388095E-1	3.107636E-1	3.690212E-1	2.883845E-1	3.368279E-1	3.691956E-1	3.722548E-1	4.092445E-1	3.519571E-1	3.551578E-1	3.781696E-1	3.671523E-1	3.330680E-1	3.514409E-1	3.248619E-1	3.277615E-1	3.587739E-1	3.619318E-1	3.598021E-1	3.408364E-1	3.684135E-1	3.286791E-1	3.753477E-1	3.626819E-1	3.767991E-1	3.559639E-1	3.685445E-1	3.655533E-1	3.140619E-1	3.882898E-1	3.256400E-1	3.541452E-1	3.392663E-1	3.623798E-1	3.438663E-1	3.503800E-1	3.174882E-1	3.301808E-1	3.797859E-1	3.543219E-1	3.442277E-1	3.704465E-1	3.450833E-1	4.035090E-1	3.706518E-1	3.708064E-1	3.694659E-1	3.267690E-1	3.490813E-1	3.945550E-1	3.134329E-1	4.008650E-1	3.695457E-1	3.293137E-1	3.898617E-1	3.727926E-1	3.500191E-1	3.835485E-1	3.650581E-1	3.552526E-1	3.353709E-1	3.946431E-1	3.274198E-1	3.346201E-1	3.828425E-1	3.244731E-1	3.708332E-1	3.291772E-1	3.614898E-1	3.270953E-1	3.619867E-1	3.701139E-1	3.571145E-1	3.563803E-1	3.603604E-1	3.690013E-1	3.750351E-1	3.589383E-1	3.292421E-1	3.617687E-1	3.163250E-1	3.270438E-1	3.285557E-1	3.564323E-1	3.397762E-1	3.210391E-1	3.453847E-1	3.237781E-1	3.595075E-1	3.751644E-1	3.435187E-1	3.518342E-1	3.416047E-1	3.733500E-1	3.629284E-1	4.008527E-1	3.106468E-1	3.307797E-1	3.419575E-1	3.428399E-1	3.540958E-1	3.503878E-1	3.582580E-1	3.871233E-1	3.183300E-1	3.276155E-1	4.089459E-1	2.898891E-1
2.860100E+2	5.793405E-1	5.255351E-1	5.639727E-1	5.602131E-1	5.936845E-1	5.306359E-1	6.383150E-1	4.914340E-1	5.619564E-1	5.455661E-1	5.943656E-1	5.199746E-1	5.179865E-1	5.323923E-1	5.030353E-1	5.619141E-1	5.715972E-1	5.150311E-1	5.429004E-1	5.551672E-1	5.648231E-1	5.128954E-1	5.430183E-1	5.806006E-1	5.275875E-1	5.543164E-1	5.618335E-1	5.038109E-1	5.754766E-1	5.699643E-1	5.907180E-1	5.826680E-1	5.318060E-1	5.054230E-1	5.327249E-1	5.212336E-1	5.725515E-1	5.027164E-1	5.474030E-1	5.736496E-1	5.408433E-1	5.777763E-1	6.141093E-1	5.977127E-1	5.803855E-1	4.938090E-1	5.317641E-1	5.499430E-1	5.555255E-1	6.023499E-1	5.368891E-1	5.273509E-1	5.091580E-1	5.611636E-1	5.359118E-1	5.445580E-1	5.511924E-1	5.347714E-1	5.753101E-1	5.220725E-1	5.147521E-1	5.253577E-1	5.412506E-1	5.443534E-1	5.691229E-1	5.457769E-1	5.406299E-1	5.260499E-1	5.414003E-1	5.587277E-1	5.528609E-1	5.257666E-1	5.129532E-1	5.660997E-1	5.756699E-1	5.713807E-1	5.434226E-1	5.375751E-1	5.628951E-1	5.243006E-1	5.827941E-1	5.611846E-1	5.289332E-1	5.193277E-1	5.425730E-1	5.071844E-1	5.243372E-1	5.588296E-1	5.645995E-1	5.604226E-1	5.390427E-1	5.183128E-1	5.004027E-1	5.516884E-1	5.086338E-1	5.008431E-1	5.317752E-1	5.773616E-1	5.175184E-1	5.306321E-1	5.137030E-1	5.324199E-1	5.551759E-1	5.292139E-1	5.371826E-1	5.662124E-1	5.410067E-1	5.373205E-1	5.425436E-1	5.106097E-1	5.612142E-1	5.518480E-1	5.181553E-1	6.155574E-1	5.139866E-1	5.331600E-1	5.415557E-1	5.766846E-1	5.191349E-1	5.647425E-1	5.391623E-1	5.531444E-1	5.299829E-1	6.330432E-1	5.412121E-1	5.301350E-1	5.661485E-1	5.576154E-1	5.432103E-1	5.392236E-1	4.857201E-1	5.597495E-1	6.137705E-1	5.624782E-1	5.373213E-1	5.356917E-1	5.569156E-1	5.552236E-1	5.202083E-1	5.490765E-1	5.022207E-1	5.178595E-1	5.266543E-1	5.448850E-1	5.345389E-1	5.711985E-1	5.670183E-1	5.201590E-1	4.975983E-1	5.342050E-1	5.057683E-1	5.283995E-1	5.411314E-1	5.880324E-1	5.519724E-1	5.385718E-1	5.582184E-1	5.561088E-1	5.498085E-1	5.387149E-1	5.227044E-1	5.267174E-1	5.273049E-1	5.066912E-1	5.481479E-1	5.459495E-1	5.592681E-1	5.077057E-1	5.123127E-1	5.182448E-1	5.737136E-1	6.210524E-1
2.862030E+2	1.131193E+0	1.104288E+0	1.170766E+0	1.207189E+0	1.227020E+0	1.091593E+0	1.174016E+0	1.069841E+0	1.156362E+0	1.128239E+0	1.157830E+0	1.147543E+0	1.157456E+0	1.146295E+0	1.149726E+0	1.197002E+0	1.149501E+0	1.165307E+0	1.157638E+0	1.121288E+0	1.178375E+0	1.146584E+0	1.197132E+0	1.156546E+0	1.165731E+0	1.134283E+0	1.185687E+0	1.143291E+0	1.164645E+0	1.238877E+0	1.119740E+0	1.123910E+0	1.113819E+0	1.182317E+0	1.202064E+0	1.104408E+0	1.117182E+0	1.185021E+0	1.163693E+0	1.140142E+0	1.128610E+0	1.210404E+0	1.112805E+0	1.233467E+0	1.166377E+0	1.161788E+0	1.140566E+0	1.166967E+0	1.132137E+0	1.167957E+0	1.134241E+0	1.228739E+0	1.179599E+0	1.209127E+0	1.168322E+0	1.157987E+0	1.217552E+0	1.131882E+0	1.105820E+0	1.135266E+0	1.230549E+0	1.234579E+0	1.133279E+0	1.058954E+0	1.220721E+0	1.163248E+0	1.142287E+0	1.160393E+0	1.162859E+0	1.210621E+0	1.157673E+0	1.166966E+0	1.148218E+0	1.150767E+0	1.218656E+0	1.219852E+0	1.121243E+0	1.161413E+0	1.160742E+0	1.139362E+0	1.159801E+0	1.120538E+0	1.168644E+0	1.208272E+0	1.090343E+0	1.129933E+0	1.081672E+0	1.154191E+0	1.236542E+0	1.228155E+0	1.159450E+0	1.125152E+0	1.143737E+0	1.204344E+0	1.144075E+0	1.140498E+0	1.168307E+0	1.148632E+0	1.142033E+0	1.125095E+0	1.125087E+0	1.170081E+0	1.189731E+0	1.184348E+0	1.092248E+0	1.186256E+0	1.223053E+0	1.086848E+0	1.154997E+0	1.107823E+0	1.210603E+0	1.104120E+0	1.184993E+0	1.154678E+0	1.165381E+0	1.212987E+0	1.223477E+0	1.172693E+0	1.144159E+0	1.194244E+0	1.087749E+0	1.181743E+0	1.183270E+0	1.124776E+0	1.146582E+0	1.141280E+0	1.180195E+0	1.143453E+0	1.250340E+0	1.183485E+0	1.111300E+0	1.108101E+0	1.170069E+0	1.257216E+0	1.169332E+0	1.117300E+0	1.081874E+0	1.155032E+0	1.133335E+0	1.090580E+0	1.151327E+0	1.231394E+0	1.244656E+0	1.113187E+0	1.202618E+0	1.176014E+0	1.193859E+0	1.155236E+0	1.156482E+0	1.128240E+0	1.230107E+0	1.176609E+0	1.111886E+0	1.140381E+0	1.098345E+0	1.162056E+0	1.152111E+0	1.121046E+0	1.157434E+0	1.150524E+0	1.146772E+0	1.153436E+0	1.117270E+0	1.164919E+0	1.084962E+0	1.186799E+0	1.158291E+0	1.199668E+0	1.093921E+0	1.058289E+0	1.168795E+0	9.385497E-1
2.864190E+2	1.477024E+0	1.467208E+0	1.556279E+0	1.545701E+0	1.568914E+0	1.491266E+0	1.585171E+0	1.453890E+0	1.489651E+0	1.467617E+0	1.473671E+0	1.386472E+0	1.566438E+0	1.472219E+0	1.517516E+0	1.586621E+0	1.469498E+0	1.503779E+0	1.491833E+0	1.580286E+0	1.605451E+0	1.526099E+0	1.530620E+0	1.506284E+0	1.491335E+0	1.413169E+0	1.543233E+0	1.573304E+0	1.548915E+0	1.493538E+0	1.469955E+0	1.500396E+0	1.477346E+0	1.457791E+0	1.455058E+0	1.437953E+0	1.447970E+0	1.474110E+0	1.474001E+0	1.516728E+0	1.451916E+0	1.582338E+0	1.526866E+0	1.585872E+0	1.540163E+0	1.464754E+0	1.496636E+0	1.546847E+0	1.565497E+0	1.557292E+0	1.493166E+0	1.488320E+0	1.504950E+0	1.500416E+0	1.532871E+0	1.394065E+0	1.387955E+0	1.442126E+0	1.501366E+0	1.522052E+0	1.469232E+0	1.586939E+0	1.494419E+0	1.492275E+0	1.497419E+0	1.542583E+0	1.508107E+0	1.573918E+0	1.515660E+0	1.446885E+0	1.470130E+0	1.482492E+0	1.541976E+0	1.497760E+0	1.565263E+0	1.587008E+0	1.575051E+0	1.502206E+0	1.424733E+0	1.499008E+0	1.562807E+0	1.500222E+0	1.531237E+0	1.621507E+0	1.481067E+0	1.419108E+0	1.432653E+0	1.452741E+0	1.538142E+0	1.539554E+0	1.412819E+0	1.511539E+0	1.466765E+0	1.502210E+0	1.450308E+0	1.503754E+0	1.582928E+0	1.546627E+0	1.518732E+0	1.498922E+0	1.522453E+0	1.484851E+0	1.522046E+0	1.420125E+0	1.464928E+0	1.438532E+0	1.566653E+0	1.514942E+0	1.496577E+0	1.430383E+0	1.504356E+0	1.477909E+0	1.506023E+0	1.598323E+0	1.518500E+0	1.506400E+0	1.509516E+0	1.593845E+0	1.509708E+0	1.512749E+0	1.558344E+0	1.427793E+0	1.572465E+0	1.484919E+0	1.444307E+0	1.542805E+0	1.518074E+0	1.478202E+0	1.529428E+0	1.494695E+0	1.515506E+0	1.475136E+0	1.558623E+0	1.514682E+0	1.487064E+0	1.455794E+0	1.451602E+0	1.589837E+0	1.470411E+0	1.478322E+0	1.531797E+0	1.478626E+0	1.567718E+0	1.558080E+0	1.453122E+0	1.430225E+0	1.528411E+0	1.450804E+0	1.509643E+0	1.453462E+0	1.579095E+0	1.481203E+0	1.547509E+0	1.522309E+0	1.502664E+0	1.630419E+0	1.562548E+0	1.559299E+0	1.479995E+0	1.458013E+0	1.491010E+0	1.556806E+0	1.584673E+0	1.501565E+0	1.477075E+0	1.480018E+0	1.549850E+0	1.463887E+0	1.614972E+0	1.373903E+0	1.527533E+0	1.483468E+0
2.866180E+2	1.355742E+0	1.293037E+0	1.349199E+0	1.321515E+0	1.272489E+0	1.279524E+0	1.381812E+0	1.290434E+0	1.367739E+0	1.286768E+0	1.275087E+0	1.323800E+0	1.328703E+0	1.296849E+0	1.255543E+0	1.291844E+0	1.358717E+0	1.370653E+0	1.344448E+0	1.306571E+0	1.335896E+0	1.292431E+0	1.235267E+0	1.310209E+0	1.359786E+0	1.340451E+0	1.335226E+0	1.314710E+0	1.340235E+0	1.348797E+0	1.348254E+0	1.288355E+0	1.321900E+0	1.323598E+0	1.281247E+0	1.327072E+0	1.345644E+0	1.354305E+0	1.292391E+0	1.331532E+0	1.311135E+0	1.355944E+0	1.262040E+0	1.324803E+0	1.377399E+0	1.323732E+0	1.323599E+0	1.326634E+0	1.273408E+0	1.336915E+0	1.298719E+0	1.307016E+0	1.336196E+0	1.265475E+0	1.356270E+0	1.231371E+0	1.289279E+0	1.363060E+0	1.355729E+0	1.329604E+0	1.321774E+0	1.383785E+0	1.282123E+0	1.326011E+0	1.302856E+0	1.323821E+0	1.264216E+0	1.320589E+0	1.273293E+0	1.282261E+0	1.403366E+0	1.253518E+0	1.364166E+0	1.364527E+0	1.297228E+0	1.346428E+0	1.282384E+0	1.253101E+0	1.295478E+0	1.280491E+0	1.362900E+0	1.278244E+0	1.244949E+0	1.270297E+0	1.249751E+0	1.327004E+0	1.350154E+0	1.379239E+0	1.311981E+0	1.355931E+0	1.246505E+0	1.350005E+0	1.327035E+0	1.313438E+0	1.317127E+0	1.329952E+0	1.291608E+0	1.313465E+0	1.333904E+0	1.322983E+0	1.336198E+0	1.401985E+0	1.418994E+0	1.269299E+0	1.270206E+0	1.266224E+0	1.338005E+0	1.239517E+0	1.353876E+0	1.283337E+0	1.305969E+0	1.313193E+0	1.408840E+0	1.372674E+0	1.316000E+0	1.297837E+0	1.278863E+0	1.327300E+0	1.358870E+0	1.313569E+0	1.314357E+0	1.341634E+0	1.381955E+0	1.390737E+0	1.306532E+0	1.328667E+0	1.304023E+0	1.369422E+0	1.294152E+0	1.367185E+0	1.313861E+0	1.310159E+0	1.336113E+0	1.356655E+0	1.291532E+0	1.285164E+0	1.255795E+0	1.409817E+0	1.339149E+0	1.279676E+0	1.285376E+0	1.363628E+0	1.316467E+0	1.329963E+0	1.383240E+0	1.276044E+0	1.390025E+0	1.294376E+0	1.341790E+0	1.289859E+0	1.373177E+0	1.334114E+0	1.291110E+0	1.362052E+0	1.370593E+0	1.385258E+0	1.294000E+0	1.330799E+0	1.310576E+0	1.302822E+0	1.319547E+0	1.316352E+0	1.279596E+0	1.307036E+0	1.374674E+0	1.331619E+0	1.351373E+0	1.274517E+0	1.288116E+0	1.244898E+0	1.370686E+0	1.216527E+0
2.868020E+2	1.438678E+0	1.347966E+0	1.464272E+0	1.372328E+0	1.450525E+0	1.335978E+0	1.490680E+0	1.475691E+0	1.467214E+0	1.380558E+0	1.427829E+0	1.434015E+0	1.333202E+0	1.422918E+0	1.442974E+0	1.346614E+0	1.396639E+0	1.428375E+0	1.398982E+0	1.519359E+0	1.421348E+0	1.424169E+0	1.489059E+0	1.354664E+0	1.445269E+0	1.424639E+0	1.382657E+0	1.424359E+0	1.377794E+0	1.468623E+0	1.319563E+0	1.409846E+0	1.405423E+0	1.400065E+0	1.368392E+0	1.371343E+0	1.423917E+0	1.424776E+0	1.430346E+0	1.394405E+0	1.419003E+0	1.376136E+0	1.418631E+0	1.485258E+0	1.433260E+0	1.398976E+0	1.447446E+0	1.421877E+0	1.429650E+0	1.427191E+0	1.394093E+0	1.495140E+0	1.333935E+0	1.441727E+0	1.503129E+0	1.396688E+0	1.391802E+0	1.382597E+0	1.338092E+0	1.461765E+0	1.418259E+0	1.364213E+0	1.345236E+0	1.422931E+0	1.514792E+0	1.382076E+0	1.437061E+0	1.411553E+0	1.372845E+0	1.395515E+0	1.413434E+0	1.458129E+0	1.518853E+0	1.398833E+0	1.466839E+0	1.452235E+0	1.439141E+0	1.328146E+0	1.381230E+0	1.433687E+0	1.448965E+0	1.308684E+0	1.376894E+0	1.409083E+0	1.343818E+0	1.456300E+0	1.451917E+0	1.434396E+0	1.415399E+0	1.458436E+0	1.356411E+0	1.411708E+0	1.456049E+0	1.400047E+0	1.291838E+0	1.339707E+0	1.368183E+0	1.364057E+0	1.473819E+0	1.323794E+0	1.394432E+0	1.461942E+0	1.465263E+0	1.435636E+0	1.388444E+0	1.472855E+0	1.434235E+0	1.350614E+0	1.464872E+0	1.376616E+0	1.440729E+0	1.366140E+0	1.405867E+0	1.422746E+0	1.370297E+0	1.411510E+0	1.413289E+0	1.478882E+0	1.334500E+0	1.406028E+0	1.431261E+0	1.356788E+0	1.409544E+0	1.335490E+0	1.410164E+0	1.337708E+0	1.416164E+0	1.414453E+0	1.432445E+0	1.416794E+0	1.406630E+0	1.436708E+0	1.493689E+0	1.377725E+0	1.492168E+0	1.388476E+0	1.454202E+0	1.496686E+0	1.425880E+0	1.446866E+0	1.403794E+0	1.481153E+0	1.438334E+0	1.438845E+0	1.421636E+0	1.447687E+0	1.406157E+0	1.394868E+0	1.417830E+0	1.403475E+0	1.436831E+0	1.454405E+0	1.394418E+0	1.370353E+0	1.383148E+0	1.437342E+0	1.461988E+0	1.471036E+0	1.407709E+0	1.422843E+0	1.405590E+0	1.412038E+0	1.425069E+0	1.374977E+0	1.348830E+0	1.454705E+0	1.438601E+0	1.456081E+0	1.456936E+0	1.387663E+0	1.437801E+0	1.431872E+0
2.870040E+2	1.516586E+0	1.478596E+0	1.543593E+0	1.474615E+0	1.479188E+0	1.442704E+0	1.460190E+0	1.517775E+0	1.527815E+0	1.475133E+0	1.467788E+0	1.480673E+0	1.467464E+0	1.378652E+0	1.473802E+0	1.494558E+0	1.479859E+0	1.541063E+0	1.514833E+0	1.589287E+0	1.460265E+0	1.489076E+0	1.453361E+0	1.476909E+0	1.392312E+0	1.480594E+0	1.550171E+0	1.550741E+0	1.474427E+0	1.535328E+0	1.470017E+0	1.490788E+0	1.571399E+0	1.503785E+0	1.454930E+0	1.423584E+0	1.447759E+0	1.452697E+0	1.526664E+0	1.409419E+0	1.468028E+0	1.641412E+0	1.489716E+0	1.587764E+0	1.479733E+0	1.527009E+0	1.469901E+0	1.516786E+0	1.530855E+0	1.476058E+0	1.484249E+0	1.564157E+0	1.544626E+0	1.427433E+0	1.605842E+0	1.494084E+0	1.430341E+0	1.470351E+0	1.496053E+0	1.483649E+0	1.422910E+0	1.516477E+0	1.467364E+0	1.444238E+0	1.624478E+0	1.520371E+0	1.477164E+0	1.560266E+0	1.478540E+0	1.481137E+0	1.501886E+0	1.495204E+0	1.564947E+0	1.570598E+0	1.550005E+0	1.564103E+0	1.471616E+0	1.440007E+0	1.405429E+0	1.457854E+0	1.512033E+0	1.463438E+0	1.477230E+0	1.533851E+0	1.493627E+0	1.440823E+0	1.442576E+0	1.573169E+0	1.446672E+0	1.509435E+0	1.459261E+0	1.541485E+0	1.480867E+0	1.544229E+0	1.453822E+0	1.390430E+0	1.458499E+0	1.563019E+0	1.521911E+0	1.414690E+0	1.471169E+0	1.492171E+0	1.516367E+0	1.508449E+0	1.404780E+0	1.560300E+0	1.529485E+0	1.516706E+0	1.480539E+0	1.509393E+0	1.444356E+0	1.504010E+0	1.453568E+0	1.537706E+0	1.402599E+0	1.465780E+0	1.481497E+0	1.538654E+0	1.439453E+0	1.455033E+0	1.512887E+0	1.434930E+0	1.435869E+0	1.513701E+0	1.486917E+0	1.416077E+0	1.477199E+0	1.472753E+0	1.484796E+0	1.479674E+0	1.457808E+0	1.555030E+0	1.460362E+0	1.522126E+0	1.535834E+0	1.499029E+0	1.416224E+0	1.559392E+0	1.413363E+0	1.488265E+0	1.489648E+0	1.560418E+0	1.491850E+0	1.488841E+0	1.489084E+0	1.568304E+0	1.603943E+0	1.393645E+0	1.465570E+0	1.384418E+0	1.582357E+0	1.494775E+0	1.511542E+0	1.529890E+0	1.538129E+0	1.558162E+0	1.413913E+0	1.460261E+0	1.526536E+0	1.474935E+0	1.468977E+0	1.520732E+0	1.385794E+0	1.480851E+0	1.465228E+0	1.528585E+0	1.433809E+0	1.473743E+0	1.454883E+0	1.399645E+0	1.559703E+0	1.543505E+0
2.872160E+2	1.109306E+0	1.113039E+0	1.154975E+0	1.161951E+0	1.150678E+0	1.170448E+0	1.127742E+0	1.150435E+0	1.124732E+0	1.080614E+0	1.140101E+0	1.089050E+0	1.198640E+0	1.117823E+0	1.123605E+0	1.099746E+0	1.205416E+0	1.107783E+0	1.171064E+0	1.095427E+0	1.164605E+0	1.134633E+0	1.133019E+0	1.149621E+0	1.149316E+0	1.125977E+0	1.187983E+0	1.135757E+0	1.158998E+0	1.171273E+0	1.100734E+0	1.186480E+0	1.092484E+0	1.125248E+0	1.138148E+0	1.127125E+0	1.101098E+0	1.118558E+0	1.096789E+0	1.119323E+0	1.122554E+0	1.213265E+0	1.137327E+0	1.212267E+0	1.187506E+0	1.181774E+0	1.089656E+0	1.187733E+0	1.120726E+0	1.149709E+0	1.143617E+0	1.236997E+0	1.174046E+0	1.141234E+0	1.174811E+0	1.137612E+0	1.166941E+0	1.064246E+0	1.111959E+0	1.126149E+0	1.093601E+0	1.174592E+0	1.106295E+0	1.100355E+0	1.210430E+0	1.150605E+0	1.118082E+0	1.162198E+0	1.136862E+0	1.049502E+0	1.148894E+0	1.213032E+0	1.056550E+0	1.084135E+0	1.234253E+0	1.169102E+0	1.193350E+0	1.174927E+0	1.136923E+0	1.158876E+0	1.216521E+0	1.163116E+0	1.115400E+0	1.191123E+0	1.065191E+0	1.145722E+0	1.116854E+0	1.142547E+0	1.104284E+0	1.150288E+0	1.162154E+0	1.178905E+0	1.170442E+0	1.238088E+0	1.195349E+0	1.200153E+0	1.136107E+0	1.131712E+0	1.116227E+0	1.078591E+0	1.169001E+0	1.151347E+0	1.156917E+0	1.199555E+0	1.143708E+0	1.132858E+0	1.224961E+0	1.083143E+0	1.151980E+0	1.136402E+0	1.153849E+0	1.137279E+0	1.127086E+0	1.209492E+0	1.094342E+0	1.031242E+0	1.204982E+0	1.206366E+0	1.146146E+0	1.151801E+0	1.112266E+0	1.153632E+0	1.171958E+0	1.225959E+0	1.174063E+0	1.142114E+0	1.124502E+0	1.124659E+0	1.122872E+0	1.193618E+0	1.046116E+0	1.085532E+0	1.118971E+0	1.196835E+0	1.121409E+0	1.125670E+0	1.115215E+0	1.218724E+0	1.142993E+0	1.129920E+0	1.144957E+0	1.144539E+0	1.165248E+0	1.165294E+0	1.178330E+0	1.217943E+0	1.210041E+0	1.122159E+0	1.113686E+0	1.117097E+0	1.184271E+0	1.084850E+0	1.126300E+0	1.177728E+0	1.131259E+0	1.158735E+0	1.088145E+0	1.129607E+0	1.149989E+0	1.166361E+0	1.102874E+0	1.126362E+0	1.148670E+0	1.211071E+0	1.116556E+0	1.169562E+0	1.149043E+0	1.138646E+0	1.187291E+0	1.106316E+0	1.172472E+0	1.118635E+0
2.874030E+2	8.039087E-1	7.670951E-1	8.478618E-1	9.008212E-1	8.786805E-1	8.567589E-1	8.810949E-1	8.256011E-1	8.326734E-1	8.038585E-1	8.836008E-1	8.174913E-1	8.458097E-1	8.249473E-1	8.601657E-1	8.470463E-1	8.864731E-1	8.522272E-1	7.934486E-1	8.441575E-1	8.458165E-1	8.338109E-1	7.968863E-1	7.779328E-1	8.514016E-1	8.638152E-1	8.575377E-1	7.548644E-1	8.214097E-1	8.437952E-1	7.743975E-1	8.418238E-1	8.471426E-1	8.369921E-1	8.058374E-1	7.774000E-1	8.116280E-1	8.479847E-1	7.983863E-1	8.196058E-1	7.597258E-1	8.325275E-1	8.588665E-1	8.858392E-1	8.842864E-1	8.446956E-1	8.186674E-1	8.298633E-1	9.554337E-1	8.291092E-1	8.885808E-1	8.545741E-1	8.381905E-1	7.993947E-1	8.310913E-1	8.612177E-1	8.380310E-1	9.012259E-1	8.330375E-1	8.199552E-1	8.464988E-1	8.849854E-1	8.329432E-1	8.583872E-1	8.275142E-1	8.939712E-1	8.480155E-1	7.719085E-1	8.772480E-1	7.968025E-1	7.753549E-1	8.996827E-1	8.760606E-1	8.572418E-1	8.417152E-1	8.611594E-1	8.339487E-1	8.126333E-1	8.194161E-1	8.499658E-1	7.894298E-1	8.557808E-1	8.157125E-1	8.616289E-1	8.646892E-1	8.997344E-1	7.610272E-1	8.224121E-1	8.714203E-1	8.214637E-1	8.118122E-1	8.124420E-1	8.316509E-1	8.337172E-1	7.658778E-1	8.598469E-1	8.495850E-1	8.154679E-1	7.724402E-1	8.632860E-1	8.443841E-1	8.406586E-1	8.333336E-1	8.689692E-1	7.822568E-1	8.575902E-1	8.239515E-1	8.495814E-1	8.906277E-1	8.499106E-1	8.345687E-1	8.365278E-1	7.699059E-1	8.370417E-1	8.184306E-1	9.052557E-1	8.112190E-1	9.306811E-1	8.017382E-1	8.707643E-1	8.013462E-1	8.235009E-1	8.558322E-1	9.001864E-1	8.445979E-1	8.432102E-1	8.894819E-1	8.123923E-1	8.424179E-1	7.992433E-1	8.416128E-1	8.617595E-1	8.889720E-1	8.190994E-1	8.345759E-1	8.487525E-1	8.031236E-1	8.534914E-1	8.195130E-1	9.107631E-1	8.862757E-1	8.724402E-1	8.286371E-1	8.569805E-1	8.727544E-1	8.305424E-1	8.510460E-1	8.299419E-1	7.748859E-1	8.381854E-1	8.482344E-1	7.738804E-1	8.348534E-1	8.437685E-1	8.534225E-1	8.616920E-1	8.366473E-1	8.599613E-1	8.735958E-1	8.258899E-1	8.249179E-1	8.512749E-1	8.605088E-1	8.716121E-1	8.128291E-1	8.368665E-1	8.735136E-1	8.099941E-1	8.492956E-1	8.049382E-1	8.392841E-1	9.593098E-1
2.876210E+2	5.636735E-1	4.924883E-1	5.781793E-1	5.815785E-1	5.972647E-1	5.341973E-1	5.983005E-1	5.800608E-1	5.849951E-1	5.359843E-1	5.536927E-1	5.483292E-1	5.422768E-1	6.271139E-1	6.230682E-1	6.301456E-1	5.825857E-1	5.647782E-1	5.780227E-1	6.317835E-1	5.277811E-1	5.985121E-1	5.717345E-1	5.413480E-1	5.731556E-1	5.943681E-1	5.638114E-1	6.220310E-1	5.878718E-1	5.837524E-1	5.638230E-1	5.864531E-1	5.800843E-1	5.983655E-1	5.525504E-1	5.832847E-1	6.469114E-1	5.821868E-1	4.973235E-1	5.562865E-1	5.506487E-1	5.811982E-1	5.551385E-1	6.134222E-1	6.120945E-1	5.730387E-1	5.251057E-1	5.847593E-1	6.070907E-1	6.048565E-1	5.291673E-1	5.527117E-1	5.365271E-1	5.741498E-1	5.417677E-1	5.841419E-1	6.585152E-1	5.921555E-1	5.926425E-1	6.153372E-1	5.917092E-1	5.676121E-1	5.656703E-1	6.179054E-1	5.631057E-1	5.626149E-1	5.391912E-1	5.845825E-1	5.856471E-1	6.065712E-1	5.933574E-1	6.229662E-1	6.536677E-1	5.602543E-1	5.787087E-1	5.755049E-1	5.722474E-1	5.974682E-1	5.629816E-1	5.418381E-1	5.309605E-1	5.567549E-1	6.139323E-1	5.729646E-1	5.214291E-1	5.505566E-1	5.627276E-1	6.071262E-1	5.634784E-1	5.965830E-1	5.248631E-1	5.661818E-1	5.749117E-1	5.475630E-1	5.709542E-1	5.685317E-1	5.463085E-1	5.722827E-1	5.430839E-1	5.633740E-1	5.529194E-1	6.001567E-1	5.813264E-1	5.504066E-1	5.485460E-1	5.907922E-1	5.882715E-1	5.145027E-1	5.805727E-1	6.303048E-1	5.871533E-1	5.801345E-1	5.990357E-1	5.946206E-1	5.675859E-1	5.884791E-1	5.936494E-1	6.167978E-1	5.477236E-1	5.823067E-1	5.910891E-1	6.137543E-1	6.345081E-1	6.467814E-1	5.661225E-1	5.694448E-1	6.000592E-1	5.401254E-1	5.810427E-1	5.755712E-1	6.085553E-1	5.654429E-1	5.427408E-1	5.371662E-1	5.380710E-1	5.979304E-1	5.833437E-1	5.997050E-1	5.434077E-1	5.555884E-1	5.605751E-1	5.474165E-1	6.094956E-1	5.607827E-1	6.125735E-1	6.208725E-1	5.659458E-1	5.983160E-1	5.850309E-1	5.252995E-1	5.801566E-1	6.007049E-1	5.488514E-1	6.169728E-1	6.427387E-1	5.811220E-1	5.603279E-1	5.867182E-1	5.663603E-1	5.507323E-1	5.358932E-1	5.563014E-1	5.755747E-1	5.823345E-1	5.646956E-1	6.233179E-1	5.904123E-1	5.743194E-1	5.666281E-1	5.581106E-1	5.637509E-1	5.863204E-1
2.878000E+2	5.975681E-1	5.700838E-1	6.228488E-1	5.884096E-1	5.574418E-1	5.962148E-1	6.373994E-1	5.827178E-1	6.087142E-1	6.148972E-1	5.455132E-1	5.755459E-1	6.426400E-1	6.273651E-1	5.916733E-1	5.999598E-1	6.682597E-1	5.501404E-1	6.041882E-1	6.204925E-1	5.680890E-1	6.155803E-1	5.676991E-1	5.652890E-1	6.328879E-1	5.721294E-1	5.700357E-1	6.001101E-1	5.950824E-1	6.168206E-1	6.068933E-1	6.128325E-1	6.253403E-1	5.771308E-1	6.133164E-1	5.809654E-1	5.859040E-1	5.926188E-1	5.983575E-1	5.990160E-1	6.645066E-1	6.114278E-1	5.844776E-1	6.168082E-1	6.079840E-1	6.409409E-1	5.849305E-1	6.628471E-1	6.072086E-1	5.881937E-1	6.234678E-1	6.507664E-1	6.303977E-1	6.235947E-1	6.004726E-1	5.966565E-1	6.256634E-1	6.368776E-1	5.812853E-1	6.042793E-1	6.389923E-1	6.358114E-1	6.249621E-1	6.546102E-1	6.760477E-1	5.882635E-1	5.848015E-1	6.089031E-1	6.189056E-1	6.153345E-1	6.094648E-1	5.731888E-1	6.155239E-1	5.952679E-1	6.331112E-1	6.191972E-1	6.494522E-1	6.071937E-1	5.790102E-1	6.141483E-1	6.517120E-1	5.917175E-1	5.746780E-1	6.665098E-1	6.100464E-1	5.670505E-1	6.203830E-1	6.371656E-1	5.745369E-1	6.427953E-1	6.089712E-1	6.091472E-1	6.205156E-1	6.128294E-1	5.464433E-1	6.388451E-1	5.936097E-1	5.990725E-1	5.940394E-1	5.818000E-1	6.486535E-1	6.000249E-1	6.000852E-1	6.134655E-1	5.821059E-1	5.758227E-1	6.330788E-1	6.079882E-1	6.426436E-1	5.886883E-1	5.974104E-1	6.156672E-1	6.139182E-1	6.841406E-1	6.127695E-1	6.349791E-1	6.433246E-1	6.477969E-1	6.702091E-1	6.048976E-1	5.921279E-1	5.909479E-1	5.848919E-1	6.063787E-1	6.334891E-1	6.492605E-1	6.273615E-1	5.975051E-1	5.865913E-1	6.152947E-1	5.795963E-1	6.314305E-1	6.268098E-1	5.978596E-1	6.284571E-1	6.172968E-1	5.815714E-1	6.184581E-1	5.958479E-1	6.443654E-1	6.054226E-1	5.744272E-1	6.319327E-1	6.235919E-1	6.104221E-1	6.165093E-1	6.419746E-1	6.575167E-1	6.245992E-1	6.168039E-1	6.154004E-1	6.184873E-1	6.011520E-1	6.308330E-1	6.055416E-1	6.439805E-1	5.542389E-1	6.449651E-1	5.808772E-1	6.013902E-1	6.425904E-1	6.938059E-1	6.345025E-1	5.840939E-1	6.272366E-1	6.221062E-1	6.659145E-1	6.606893E-1	6.169638E-1	5.786757E-1	6.938278E-1	5.572256E-1
2.880020E+2	6.516839E-1	6.399521E-1	7.225769E-1	6.707367E-1	6.802302E-1	6.602014E-1	6.355159E-1	7.394700E-1	6.937498E-1	6.878117E-1	6.887008E-1	7.324378E-1	7.255074E-1	6.952977E-1	7.310103E-1	6.645826E-1	7.319758E-1	6.771892E-1	7.240681E-1	7.473536E-1	6.857162E-1	7.505388E-1	6.704661E-1	6.830608E-1	6.957196E-1	7.117316E-1	6.674175E-1	6.920848E-1	6.460457E-1	7.131606E-1	6.982056E-1	7.334624E-1	6.861890E-1	6.852070E-1	6.930211E-1	7.345562E-1	6.777303E-1	6.859921E-1	6.854635E-1	6.933633E-1	6.408398E-1	7.000627E-1	6.485421E-1	7.386535E-1	7.013238E-1	6.747418E-1	6.391476E-1	6.924149E-1	6.907769E-1	7.412151E-1	7.265719E-1	7.225772E-1	7.458338E-1	6.631324E-1	7.120535E-1	6.520702E-1	7.025122E-1	6.937410E-1	7.181899E-1	6.761527E-1	7.032429E-1	7.449616E-1	6.808524E-1	7.068222E-1	7.739440E-1	7.081375E-1	6.769292E-1	6.615986E-1	6.659028E-1	6.896708E-1	6.541568E-1	7.457754E-1	7.516848E-1	7.635966E-1	7.105372E-1	7.382788E-1	6.888620E-1	6.940758E-1	7.068864E-1	6.660394E-1	7.265366E-1	7.101622E-1	7.139335E-1	6.762659E-1	6.474830E-1	6.881386E-1	6.671887E-1	6.941761E-1	6.929103E-1	6.782157E-1	6.839144E-1	7.516276E-1	7.028918E-1	6.395792E-1	6.411716E-1	6.610857E-1	6.825411E-1	6.858952E-1	6.588489E-1	6.719009E-1	7.006604E-1	7.136212E-1	7.201657E-1	7.332114E-1	7.364546E-1	6.588154E-1	7.512459E-1	7.049128E-1	6.697701E-1	7.308030E-1	6.828073E-1	7.357984E-1	6.999747E-1	6.942304E-1	6.844377E-1	6.984319E-1	6.430113E-1	7.688630E-1	6.990006E-1	7.234635E-1	7.025622E-1	7.078402E-1	6.439707E-1	7.620251E-1	6.827469E-1	7.250067E-1	7.247691E-1	6.612944E-1	7.113152E-1	7.127927E-1	7.046061E-1	7.006535E-1	7.006926E-1	7.195907E-1	6.830411E-1	6.660594E-1	6.629710E-1	7.065981E-1	6.936591E-1	7.362946E-1	7.333920E-1	7.361464E-1	6.815824E-1	6.960781E-1	7.951104E-1	6.900760E-1	7.169484E-1	6.921677E-1	7.143447E-1	6.948776E-1	6.927276E-1	7.078477E-1	6.901049E-1	6.928627E-1	7.082664E-1	6.611161E-1	7.282062E-1	7.262453E-1	6.912461E-1	6.972571E-1	6.890197E-1	7.578863E-1	6.610911E-1	7.661291E-1	7.092562E-1	6.985810E-1	6.971116E-1	6.948228E-1	7.190488E-1	7.532016E-1	5.748054E-1	6.719026E-1
2.882200E+2	7.827992E-1	7.992221E-1	8.052560E-1	7.553419E-1	7.765542E-1	7.398077E-1	7.664807E-1	7.307583E-1	7.846950E-1	7.742037E-1	7.319931E-1	8.112974E-1	8.032350E-1	8.103670E-1	8.218145E-1	7.704010E-1	7.966297E-1	7.776320E-1	8.616848E-1	8.421487E-1	8.097837E-1	7.968850E-1	7.169674E-1	7.562219E-1	8.186883E-1	7.883838E-1	7.733654E-1	7.967241E-1	7.597991E-1	7.866507E-1	8.139057E-1	8.009848E-1	7.885244E-1	7.376666E-1	7.483346E-1	7.995637E-1	8.423712E-1	7.517330E-1	7.537605E-1	7.729187E-1	7.639222E-1	8.358850E-1	7.826487E-1	8.277195E-1	7.449827E-1	7.431352E-1	7.742122E-1	7.534522E-1	8.002119E-1	8.057282E-1	8.424527E-1	7.832945E-1	8.372098E-1	7.568513E-1	7.390987E-1	7.751739E-1	7.867336E-1	7.751497E-1	7.197487E-1	7.843587E-1	7.861207E-1	7.777619E-1	7.997327E-1	8.160504E-1	8.473327E-1	8.324423E-1	7.964205E-1	7.851758E-1	8.088511E-1	8.127548E-1	7.672499E-1	7.536520E-1	7.662623E-1	8.504580E-1	7.603305E-1	7.902349E-1	7.524443E-1	8.010095E-1	8.306383E-1	7.425413E-1	8.104192E-1	7.659955E-1	7.545777E-1	8.376523E-1	7.794285E-1	7.994296E-1	7.506778E-1	8.519436E-1	7.939513E-1	7.903634E-1	7.179387E-1	7.875282E-1	7.676329E-1	8.211982E-1	7.940967E-1	7.188402E-1	7.798132E-1	8.067713E-1	7.617790E-1	7.766829E-1	7.723506E-1	7.984038E-1	7.362629E-1	8.119041E-1	7.220950E-1	8.242394E-1	7.921764E-1	7.574522E-1	7.591677E-1	7.634104E-1	8.082106E-1	7.807205E-1	8.965314E-1	8.944270E-1	7.845741E-1	8.231356E-1	7.708532E-1	8.365933E-1	7.349600E-1	8.399894E-1	8.024139E-1	8.213037E-1	7.700806E-1	8.449531E-1	7.404252E-1	7.996351E-1	8.186559E-1	8.274296E-1	8.418841E-1	7.648368E-1	8.134268E-1	8.100772E-1	7.919972E-1	7.416703E-1	7.794907E-1	8.111307E-1	7.912709E-1	7.797189E-1	7.975739E-1	8.291809E-1	7.400656E-1	8.905041E-1	7.320973E-1	7.996551E-1	7.444490E-1	8.141149E-1	7.311673E-1	7.873209E-1	7.736724E-1	7.677177E-1	7.596568E-1	7.406786E-1	7.998147E-1	7.453756E-1	8.022876E-1	8.534107E-1	7.919633E-1	8.234611E-1	7.698691E-1	7.739531E-1	7.556201E-1	8.064598E-1	7.310565E-1	7.664659E-1	8.102082E-1	7.774357E-1	7.914682E-1	7.186219E-1	8.338484E-1	7.815583E-1	8.590383E-1	7.866633E-1
2.884180E+2	8.689696E-1	8.224058E-1	7.948635E-1	9.748783E-1	9.120787E-1	7.871787E-1	8.150209E-1	8.509272E-1	9.478612E-1	8.594989E-1	8.490915E-1	8.909590E-1	9.100550E-1	9.179828E-1	8.429352E-1	8.334634E-1	9.057900E-1	8.447019E-1	8.426475E-1	9.165392E-1	8.758482E-1	8.219543E-1	8.836084E-1	8.872768E-1	8.667976E-1	8.949435E-1	8.629071E-1	8.582487E-1	8.362145E-1	8.756475E-1	8.721532E-1	8.389165E-1	8.526606E-1	8.777764E-1	8.031887E-1	8.143179E-1	8.819429E-1	8.694534E-1	9.198113E-1	8.634557E-1	8.422098E-1	8.776534E-1	8.198504E-1	9.219109E-1	9.117147E-1	8.809210E-1	8.156769E-1	8.749165E-1	9.307290E-1	8.648456E-1	8.204516E-1	8.814842E-1	8.935327E-1	8.836633E-1	8.628226E-1	9.102374E-1	8.176648E-1	8.468180E-1	9.171411E-1	8.399210E-1	8.444043E-1	8.562601E-1	8.084155E-1	9.182829E-1	8.888303E-1	8.124608E-1	8.592462E-1	8.887181E-1	8.333550E-1	8.707901E-1	8.416157E-1	8.397379E-1	9.221107E-1	8.684631E-1	9.110716E-1	8.287068E-1	8.480709E-1	8.771029E-1	8.436933E-1	8.225423E-1	8.705523E-1	8.821362E-1	8.751138E-1	9.126423E-1	9.073923E-1	8.868850E-1	8.298813E-1	8.948687E-1	8.493323E-1	8.586317E-1	8.417845E-1	8.165956E-1	8.912601E-1	9.053455E-1	8.606835E-1	8.185001E-1	8.769558E-1	8.595052E-1	8.494533E-1	9.156506E-1	9.067709E-1	9.297734E-1	8.374713E-1	8.373275E-1	8.073866E-1	8.719986E-1	8.789053E-1	8.462373E-1	8.495798E-1	8.750283E-1	8.970025E-1	8.300115E-1	8.666799E-1	8.546672E-1	8.883300E-1	8.452742E-1	8.844701E-1	8.398273E-1	7.929388E-1	8.991185E-1	8.222376E-1	8.833135E-1	8.409661E-1	8.528409E-1	8.488013E-1	9.133774E-1	9.124849E-1	8.886112E-1	8.516232E-1	8.755835E-1	9.069145E-1	8.148245E-1	9.252480E-1	9.102426E-1	8.318988E-1	8.940250E-1	8.692350E-1	8.841235E-1	8.264092E-1	8.325066E-1	8.874411E-1	8.529828E-1	8.171445E-1	8.477981E-1	8.913340E-1	8.660445E-1	9.007027E-1	9.102119E-1	8.739094E-1	8.655901E-1	9.092331E-1	8.833195E-1	8.750636E-1	8.723380E-1	8.902228E-1	8.538406E-1	9.084444E-1	8.141137E-1	8.692153E-1	9.050258E-1	8.829078E-1	9.151689E-1	9.105309E-1	8.981172E-1	8.548939E-1	8.616478E-1	8.713260E-1	9.025556E-1	8.928623E-1	8.400049E-1	9.142621E-1	7.481140E-1
2.886030E+2	9.478903E-1	9.561957E-1	9.531264E-1	1.014130E+0	9.960461E-1	1.004283E+0	9.677049E-1	9.376657E-1	1.011300E+0	9.222454E-1	9.988474E-1	9.685065E-1	9.848846E-1	9.878446E-1	1.000601E+0	9.318995E-1	9.623580E-1	9.831860E-1	9.698532E-1	1.045081E+0	9.702551E-1	9.525410E-1	9.862795E-1	1.021831E+0	1.000962E+0	1.009864E+0	1.003093E+0	9.920891E-1	9.764362E-1	1.040613E+0	1.028725E+0	1.012171E+0	9.828697E-1	9.897076E-1	9.315982E-1	1.000115E+0	9.687781E-1	9.263745E-1	1.030745E+0	9.159495E-1	1.006478E+0	1.067820E+0	1.007973E+0	9.986666E-1	1.015477E+0	9.554175E-1	9.661209E-1	1.084977E+0	1.023817E+0	1.024860E+0	9.979150E-1	1.075706E+0	1.055140E+0	9.934515E-1	9.798201E-1	9.338547E-1	9.597078E-1	1.054805E+0	9.927623E-1	1.005201E+0	9.865746E-1	1.015258E+0	9.814688E-1	9.891620E-1	9.894743E-1	9.806592E-1	9.454811E-1	1.063038E+0	9.730758E-1	9.894997E-1	9.602498E-1	1.058442E+0	1.027480E+0	1.058123E+0	9.668746E-1	1.019473E+0	9.613365E-1	9.545100E-1	9.558708E-1	9.305879E-1	1.030587E+0	9.511530E-1	1.005256E+0	1.000825E+0	9.837533E-1	9.785187E-1	9.525879E-1	1.071568E+0	9.673308E-1	9.147833E-1	9.648406E-1	9.998485E-1	9.904508E-1	9.663433E-1	9.469607E-1	9.958331E-1	9.845412E-1	9.982358E-1	1.008598E+0	1.070958E+0	9.259179E-1	1.006459E+0	9.699370E-1	9.446134E-1	9.202449E-1	1.081119E+0	9.637059E-1	9.879684E-1	1.003930E+0	9.520834E-1	9.713131E-1	9.992587E-1	9.780522E-1	1.056870E+0	9.878254E-1	1.011221E+0	1.014037E+0	1.014038E+0	9.296402E-1	1.029686E+0	9.490061E-1	1.049476E+0	9.553812E-1	1.010301E+0	9.565901E-1	1.001491E+0	1.041536E+0	9.741947E-1	1.069443E+0	1.002392E+0	9.846362E-1	9.950823E-1	1.065040E+0	1.000541E+0	9.854800E-1	9.941506E-1	9.908514E-1	9.902589E-1	9.556404E-1	9.706470E-1	9.856375E-1	1.011771E+0	1.059822E+0	9.663400E-1	9.719181E-1	9.767200E-1	9.605794E-1	9.742070E-1	9.921782E-1	1.018202E+0	1.005346E+0	9.739910E-1	1.033240E+0	9.963043E-1	1.043660E+0	1.043751E+0	1.023143E+0	1.048105E+0	9.498431E-1	9.857026E-1	9.801419E-1	9.933869E-1	1.000523E+0	1.008611E+0	9.723856E-1	1.015904E+0	9.866021E-1	9.838347E-1	9.804374E-1	9.411617E-1	1.063439E+0	1.023415E+0
2.888130E+2	1.292226E+0	1.173951E+0	1.265848E+0	1.260117E+0	1.294560E+0	1.213125E+0	1.253782E+0	1.302661E+0	1.288776E+0	1.291022E+0	1.231806E+0	1.258841E+0	1.237754E+0	1.313644E+0	1.300918E+0	1.235015E+0	1.286783E+0	1.249887E+0	1.287321E+0	1.238135E+0	1.339643E+0	1.246193E+0	1.249779E+0	1.254136E+0	1.265976E+0	1.234566E+0	1.240462E+0	1.221414E+0	1.209997E+0	1.165267E+0	1.271887E+0	1.254337E+0	1.260570E+0	1.249716E+0	1.163057E+0	1.360198E+0	1.259785E+0	1.292595E+0	1.259753E+0	1.263742E+0	1.270192E+0	1.293890E+0	1.237785E+0	1.340409E+0	1.343567E+0	1.268061E+0	1.215882E+0	1.262974E+0	1.311983E+0	1.217426E+0	1.294616E+0	1.312153E+0	1.302560E+0	1.307345E+0	1.244160E+0	1.325481E+0	1.248620E+0	1.248395E+0	1.266416E+0	1.285896E+0	1.212731E+0	1.279822E+0	1.255518E+0	1.333447E+0	1.252849E+0	1.331281E+0	1.254207E+0	1.246542E+0	1.240269E+0	1.241162E+0	1.226010E+0	1.215815E+0	1.290439E+0	1.254352E+0	1.212579E+0	1.345707E+0	1.240703E+0	1.188839E+0	1.229933E+0	1.232931E+0	1.322109E+0	1.222780E+0	1.250165E+0	1.330877E+0	1.182617E+0	1.263957E+0	1.173098E+0	1.347485E+0	1.247562E+0	1.275416E+0	1.206680E+0	1.216186E+0	1.195236E+0	1.289579E+0	1.294648E+0	1.284772E+0	1.283923E+0	1.214094E+0	1.284971E+0	1.226766E+0	1.184925E+0	1.258533E+0	1.256111E+0	1.329048E+0	1.221162E+0	1.244829E+0	1.264211E+0	1.212942E+0	1.243564E+0	1.246787E+0	1.248447E+0	1.283157E+0	1.304749E+0	1.321729E+0	1.275204E+0	1.312971E+0	1.260518E+0	1.267488E+0	1.263027E+0	1.307805E+0	1.261709E+0	1.170977E+0	1.253935E+0	1.292213E+0	1.285667E+0	1.235055E+0	1.221193E+0	1.252997E+0	1.300379E+0	1.260577E+0	1.175458E+0	1.264331E+0	1.304104E+0	1.265131E+0	1.192559E+0	1.234131E+0	1.204500E+0	1.268083E+0	1.254190E+0	1.333044E+0	1.288733E+0	1.255444E+0	1.264955E+0	1.281330E+0	1.253821E+0	1.306851E+0	1.288606E+0	1.195967E+0	1.240826E+0	1.252428E+0	1.203862E+0	1.194304E+0	1.282562E+0	1.223419E+0	1.176594E+0	1.338365E+0	1.176831E+0	1.220069E+0	1.212095E+0	1.246763E+0	1.256719E+0	1.199632E+0	1.174705E+0	1.248724E+0	1.257251E+0	1.323744E+0	1.171627E+0	1.215107E+0	1.254356E+0	1.264193E+0	1.342146E+0	1.314603E+0
2.890230E+2	1.085873E+0	1.065857E+0	1.067133E+0	1.133825E+0	1.110770E+0	1.084747E+0	1.139170E+0	1.116435E+0	1.107255E+0	1.073360E+0	1.079952E+0	1.066002E+0	1.043966E+0	1.109883E+0	1.122382E+0	1.079262E+0	1.083416E+0	1.087986E+0	1.094150E+0	1.101871E+0	1.082022E+0	1.091850E+0	1.089646E+0	1.079263E+0	1.073302E+0	1.119759E+0	1.087512E+0	1.123377E+0	1.106640E+0	1.145801E+0	1.052394E+0	1.086145E+0	1.177587E+0	1.090126E+0	1.098684E+0	1.033022E+0	1.068863E+0	1.070913E+0	1.080529E+0	1.126658E+0	1.181663E+0	1.149612E+0	1.146459E+0	1.199887E+0	1.095050E+0	1.137411E+0	1.103589E+0	1.075658E+0	1.076609E+0	1.189035E+0	1.153387E+0	1.148947E+0	1.168860E+0	1.064601E+0	1.071050E+0	1.056973E+0	1.150013E+0	1.170063E+0	1.050467E+0	1.056250E+0	1.094871E+0	1.122550E+0	1.047753E+0	1.098977E+0	1.156703E+0	1.133068E+0	1.095129E+0	1.177972E+0	1.072729E+0	1.120885E+0	1.107639E+0	1.040835E+0	1.113006E+0	1.152022E+0	1.017022E+0	1.090092E+0	1.098052E+0	1.096641E+0	1.007126E+0	1.131289E+0	1.110372E+0	1.060255E+0	1.044140E+0	1.109839E+0	1.013435E+0	1.070738E+0	1.037642E+0	1.100912E+0	1.051596E+0	1.096662E+0	1.126070E+0	1.064319E+0	1.077906E+0	1.077847E+0	1.060541E+0	1.067954E+0	1.141102E+0	1.177553E+0	1.036057E+0	1.109610E+0	1.122451E+0	1.117793E+0	1.088030E+0	1.047009E+0	1.072931E+0	1.130603E+0	1.040138E+0	1.090983E+0	1.158186E+0	1.081216E+0	1.085785E+0	1.130339E+0	1.174594E+0	1.123151E+0	1.074879E+0	1.110405E+0	1.083192E+0	1.176357E+0	1.018062E+0	1.114440E+0	1.057303E+0	1.090183E+0	1.115647E+0	1.082689E+0	1.134100E+0	1.126378E+0	1.146320E+0	1.099739E+0	1.140004E+0	1.154386E+0	1.082296E+0	1.078529E+0	1.094833E+0	1.085583E+0	1.098748E+0	1.078576E+0	1.086336E+0	1.170239E+0	1.035270E+0	1.078130E+0	1.074625E+0	1.132004E+0	1.025443E+0	1.175345E+0	1.084127E+0	1.108622E+0	1.102676E+0	1.045468E+0	1.114428E+0	1.076242E+0	1.096895E+0	1.020139E+0	1.114688E+0	1.089576E+0	1.028565E+0	1.122543E+0	1.053494E+0	1.150075E+0	1.052940E+0	1.092176E+0	1.146260E+0	1.087196E+0	1.103551E+0	1.168566E+0	1.055498E+0	1.095814E+0	1.052832E+0	1.095354E+0	1.106485E+0	1.085183E+0	1.223528E+0	1.150165E+0
2.892010E+2	8.406750E-1	8.344852E-1	8.916828E-1	9.196938E-1	8.773528E-1	8.325274E-1	9.099481E-1	7.710152E-1	8.155085E-1	8.277328E-1	8.316710E-1	8.464883E-1	9.313301E-1	7.992085E-1	8.734646E-1	8.560829E-1	8.128021E-1	9.130644E-1	8.405229E-1	8.704564E-1	8.910977E-1	8.643830E-1	8.190829E-1	8.141280E-1	7.979303E-1	8.076009E-1	8.287754E-1	8.388302E-1	8.560564E-1	8.751028E-1	8.392559E-1	8.587452E-1	8.883806E-1	8.576559E-1	8.602820E-1	8.399369E-1	8.571106E-1	8.429472E-1	8.743031E-1	8.320493E-1	8.703875E-1	8.568940E-1	8.573367E-1	8.363352E-1	8.699378E-1	8.563328E-1	8.381543E-1	8.305849E-1	8.683123E-1	8.716828E-1	8.210546E-1	9.118819E-1	8.498058E-1	8.747179E-1	8.389754E-1	8.350763E-1	8.346700E-1	8.702665E-1	7.843192E-1	8.183106E-1	8.347673E-1	8.508869E-1	7.971724E-1	8.013247E-1	8.574384E-1	8.814400E-1	8.933579E-1	8.216450E-1	8.623528E-1	8.273794E-1	8.439668E-1	9.014608E-1	8.113956E-1	9.343875E-1	8.987621E-1	8.873696E-1	8.468296E-1	8.132098E-1	8.022472E-1	8.540952E-1	8.605534E-1	8.295500E-1	9.064646E-1	8.412480E-1	8.137382E-1	7.911614E-1	8.609662E-1	8.707176E-1	8.310975E-1	7.881402E-1	8.664582E-1	8.538927E-1	8.787711E-1	8.893951E-1	7.841077E-1	8.339408E-1	7.955765E-1	8.791689E-1	8.476792E-1	8.717429E-1	8.823182E-1	8.402703E-1	8.484986E-1	8.412954E-1	7.988372E-1	8.983842E-1	8.155932E-1	8.222049E-1	8.765142E-1	8.034638E-1	8.715221E-1	7.823899E-1	8.695102E-1	8.784272E-1	8.495378E-1	9.058960E-1	8.282368E-1	9.027293E-1	8.557355E-1	8.978830E-1	8.894093E-1	8.364544E-1	8.178293E-1	8.929262E-1	8.010548E-1	8.855003E-1	8.202376E-1	8.243266E-1	8.283488E-1	8.517400E-1	8.054163E-1	8.305354E-1	8.459117E-1	8.616875E-1	8.268824E-1	8.521558E-1	8.587279E-1	8.617801E-1	7.644211E-1	8.821133E-1	8.398398E-1	8.661151E-1	8.284543E-1	9.058056E-1	8.976320E-1	8.508549E-1	9.093480E-1	8.369177E-1	7.911629E-1	8.414107E-1	8.867193E-1	8.871007E-1	8.866573E-1	8.845457E-1	8.652904E-1	9.404315E-1	8.147759E-1	8.262866E-1	8.767383E-1	9.351787E-1	8.443464E-1	8.220387E-1	8.450978E-1	8.609654E-1	8.822091E-1	8.841122E-1	9.428695E-1	8.671404E-1	8.045334E-1	8.281603E-1	8.130614E-1	8.131450E-1
2.894040E+2	7.142538E-1	6.894907E-1	7.175924E-1	6.899072E-1	7.010978E-1	6.769443E-1	7.621875E-1	7.001441E-1	7.506542E-1	7.358686E-1	7.463808E-1	6.979756E-1	7.571903E-1	7.714791E-1	7.359717E-1	6.739322E-1	6.512296E-1	6.984918E-1	7.733789E-1	7.662198E-1	6.653261E-1	6.877087E-1	6.969749E-1	7.474748E-1	7.658845E-1	6.989783E-1	6.723296E-1	7.749020E-1	7.217014E-1	7.475448E-1	6.901353E-1	6.600094E-1	7.121278E-1	7.092225E-1	7.181245E-1	7.301425E-1	7.712794E-1	7.502134E-1	7.884944E-1	7.301659E-1	6.452707E-1	7.341886E-1	7.323365E-1	8.011628E-1	7.507194E-1	6.990560E-1	6.570276E-1	7.050344E-1	6.936300E-1	7.486128E-1	6.825437E-1	7.410137E-1	7.051952E-1	6.820703E-1	7.749752E-1	7.134270E-1	7.398369E-1	7.056900E-1	7.606709E-1	7.250592E-1	7.206614E-1	7.761099E-1	7.048072E-1	7.176540E-1	7.357032E-1	7.633570E-1	6.752131E-1	7.041615E-1	6.764592E-1	7.356891E-1	7.304424E-1	7.110524E-1	7.342710E-1	6.785585E-1	7.051922E-1	6.800981E-1	7.112522E-1	6.775232E-1	7.007035E-1	7.501203E-1	7.326088E-1	6.699499E-1	6.797158E-1	7.137708E-1	7.271148E-1	7.613156E-1	6.688684E-1	7.880472E-1	7.502856E-1	7.251368E-1	7.112998E-1	7.729466E-1	7.033289E-1	7.327063E-1	6.899143E-1	7.452524E-1	6.729280E-1	7.473103E-1	6.611429E-1	6.719640E-1	6.677460E-1	7.401617E-1	6.964642E-1	7.085541E-1	7.104980E-1	6.819794E-1	7.336336E-1	7.506039E-1	7.886723E-1	7.384702E-1	7.164912E-1	7.379014E-1	7.016432E-1	7.314052E-1	7.530358E-1	7.362416E-1	7.326626E-1	7.339552E-1	7.422380E-1	7.516891E-1	7.467479E-1	6.729710E-1	6.434239E-1	6.877053E-1	7.277539E-1	7.767515E-1	7.020118E-1	7.360932E-1	6.815767E-1	6.765090E-1	7.153328E-1	6.837716E-1	7.100499E-1	6.978042E-1	6.749791E-1	7.225605E-1	7.672195E-1	8.126867E-1	6.577400E-1	7.384544E-1	7.517512E-1	7.408570E-1	6.589036E-1	7.532367E-1	7.502734E-1	7.832435E-1	7.858869E-1	7.120678E-1	7.342491E-1	7.473978E-1	7.432882E-1	7.235022E-1	6.905944E-1	7.684404E-1	6.575899E-1	7.967864E-1	7.510008E-1	6.712086E-1	7.142414E-1	7.426548E-1	7.373253E-1	6.974323E-1	6.932052E-1	7.290390E-1	6.880666E-1	7.048947E-1	7.352491E-1	6.706246E-1	7.729245E-1	7.006414E-1	6.703019E-1	6.546909E-1
2.896080E+2	8.244901E-1	7.467576E-1	8.389274E-1	8.025441E-1	8.127676E-1	7.743288E-1	7.768843E-1	8.384868E-1	7.954428E-1	8.085398E-1	8.578286E-1	7.429025E-1	7.992421E-1	7.635412E-1	8.153317E-1	8.022394E-1	7.298732E-1	8.443773E-1	8.273687E-1	7.701306E-1	8.604804E-1	8.331317E-1	8.003333E-1	8.082462E-1	8.008809E-1	8.234917E-1	8.289268E-1	8.297917E-1	8.001566E-1	7.852597E-1	8.290370E-1	7.797697E-1	7.717256E-1	7.713903E-1	7.805997E-1	7.224323E-1	7.734425E-1	8.129449E-1	7.329480E-1	7.933617E-1	7.713247E-1	8.670992E-1	8.123556E-1	8.697714E-1	8.644773E-1	7.560487E-1	7.526829E-1	7.640963E-1	7.904409E-1	7.507802E-1	7.557484E-1	7.851859E-1	8.127292E-1	8.404215E-1	7.269987E-1	7.515754E-1	8.263689E-1	8.742680E-1	8.356596E-1	7.548786E-1	7.504807E-1	8.154570E-1	8.134801E-1	8.361878E-1	7.541714E-1	8.342859E-1	7.181504E-1	7.618010E-1	8.462229E-1	7.388827E-1	7.527125E-1	7.975860E-1	7.984932E-1	7.817450E-1	7.289388E-1	7.765387E-1	8.250353E-1	7.813086E-1	7.659459E-1	8.162088E-1	8.475305E-1	7.403900E-1	7.586671E-1	8.388374E-1	8.143413E-1	8.226583E-1	7.823963E-1	8.209374E-1	7.605654E-1	7.780281E-1	7.753343E-1	7.896682E-1	8.459655E-1	8.255890E-1	7.791898E-1	7.655705E-1	8.105861E-1	8.100258E-1	8.053931E-1	8.014775E-1	7.646912E-1	8.416335E-1	8.066213E-1	8.058567E-1	8.413802E-1	7.670227E-1	8.229028E-1	8.091735E-1	7.979320E-1	7.992176E-1	7.776115E-1	7.665151E-1	7.735098E-1	8.669578E-1	7.880117E-1	8.499963E-1	7.812339E-1	8.667061E-1	7.461342E-1	8.223202E-1	8.250913E-1	8.083043E-1	7.345423E-1	7.856050E-1	7.729336E-1	8.344439E-1	7.894755E-1	8.412567E-1	8.092649E-1	8.506499E-1	8.268680E-1	8.248437E-1	8.506169E-1	7.260796E-1	7.838378E-1	8.319905E-1	7.511088E-1	8.065527E-1	7.486650E-1	8.427632E-1	7.831391E-1	7.906133E-1	7.805557E-1	7.538235E-1	8.312557E-1	8.315667E-1	7.909033E-1	8.037459E-1	7.680552E-1	8.087569E-1	8.225555E-1	7.577840E-1	8.401648E-1	8.036737E-1	7.870566E-1	8.155352E-1	8.224692E-1	8.468729E-1	8.036082E-1	8.420896E-1	8.299752E-1	7.967400E-1	8.295717E-1	8.183112E-1	8.071780E-1	7.638756E-1	8.158207E-1	8.584248E-1	8.789841E-1	7.520441E-1	8.206798E-1	6.993569E-1
2.898030E+2	8.250731E-1	8.354166E-1	8.534018E-1	9.536693E-1	8.789228E-1	8.343255E-1	8.881731E-1	8.325965E-1	8.413923E-1	8.206889E-1	7.803500E-1	8.522707E-1	8.241534E-1	8.466369E-1	8.599898E-1	8.330817E-1	8.482120E-1	8.175701E-1	8.597570E-1	8.146945E-1	8.785783E-1	8.656068E-1	8.317217E-1	8.326867E-1	8.029355E-1	8.446915E-1	8.289965E-1	7.998334E-1	8.475957E-1	8.238821E-1	8.139602E-1	8.572178E-1	8.829366E-1	8.440091E-1	8.536241E-1	8.244447E-1	8.853703E-1	8.238231E-1	8.256926E-1	7.478443E-1	8.984194E-1	9.003142E-1	8.145993E-1	8.450235E-1	8.725653E-1	8.747919E-1	8.606167E-1	8.785430E-1	8.815246E-1	9.016535E-1	7.836475E-1	8.526303E-1	8.646003E-1	8.345415E-1	8.156386E-1	8.426296E-1	8.290566E-1	8.342999E-1	8.272356E-1	8.594481E-1	8.357010E-1	9.274477E-1	8.232536E-1	8.599304E-1	8.896571E-1	8.368810E-1	8.437669E-1	8.637937E-1	7.749463E-1	9.055009E-1	8.341617E-1	8.307585E-1	8.928593E-1	8.472725E-1	8.502098E-1	9.132205E-1	8.779403E-1	8.115802E-1	8.062620E-1	8.244542E-1	8.144294E-1	7.701682E-1	7.919054E-1	8.860017E-1	7.835656E-1	8.557420E-1	7.953871E-1	8.669594E-1	8.576846E-1	8.809241E-1	7.709364E-1	8.435530E-1	8.740111E-1	8.400824E-1	8.268107E-1	8.017873E-1	8.991398E-1	7.730218E-1	8.265656E-1	8.137626E-1	8.903888E-1	9.226291E-1	8.213466E-1	8.777661E-1	8.523668E-1	8.334322E-1	7.890416E-1	8.096583E-1	8.626620E-1	9.000735E-1	8.166719E-1	8.094785E-1	8.382938E-1	8.363488E-1	8.306976E-1	8.672608E-1	8.895324E-1	8.720847E-1	7.468152E-1	7.776646E-1	8.410772E-1	8.452707E-1	8.674605E-1	8.169056E-1	8.463820E-1	8.434572E-1	8.093886E-1	8.924692E-1	8.710918E-1	8.415056E-1	7.753836E-1	8.858282E-1	8.644202E-1	8.307047E-1	8.358379E-1	8.165119E-1	8.247270E-1	9.313894E-1	8.139066E-1	8.648910E-1	8.628978E-1	8.681378E-1	8.019183E-1	8.185075E-1	8.326231E-1	8.105117E-1	8.571226E-1	8.858417E-1	8.401544E-1	8.425109E-1	8.263258E-1	7.975626E-1	8.932578E-1	8.908612E-1	8.012645E-1	9.124260E-1	8.944449E-1	8.299588E-1	8.464527E-1	8.784742E-1	8.748033E-1	8.578438E-1	8.467760E-1	8.404556E-1	8.783260E-1	8.739406E-1	8.227592E-1	7.981660E-1	8.690033E-1	8.099809E-1	8.588783E-1	7.738416E-1
2.900050E+2	8.404851E-1	7.676738E-1	8.818830E-1	7.973607E-1	8.607133E-1	7.563831E-1	8.262028E-1	7.871317E-1	8.608228E-1	8.243676E-1	8.399241E-1	8.705684E-1	8.346971E-1	8.478483E-1	8.474997E-1	7.717519E-1	8.584822E-1	8.201624E-1	8.539542E-1	8.172118E-1	8.655412E-1	7.889884E-1	8.416983E-1	8.177791E-1	8.383059E-1	7.789252E-1	7.842512E-1	8.629661E-1	8.098034E-1	7.785085E-1	8.103309E-1	8.022930E-1	7.923202E-1	8.368974E-1	8.068139E-1	8.562055E-1	7.826836E-1	8.030872E-1	8.054979E-1	8.000519E-1	8.508998E-1	9.142524E-1	8.362799E-1	8.830702E-1	9.317851E-1	8.428206E-1	8.266585E-1	8.396752E-1	8.281145E-1	8.687645E-1	8.697676E-1	7.782291E-1	8.458625E-1	8.570928E-1	8.586105E-1	8.285984E-1	8.630528E-1	8.234383E-1	7.905692E-1	8.127438E-1	8.039550E-1	8.285103E-1	8.045396E-1	7.641685E-1	9.089566E-1	8.610798E-1	8.177734E-1	8.386253E-1	8.891773E-1	7.656534E-1	7.806706E-1	7.970903E-1	8.340449E-1	8.592197E-1	8.626132E-1	8.470259E-1	8.374809E-1	7.826247E-1	7.923901E-1	7.920882E-1	8.064179E-1	7.897626E-1	7.629486E-1	8.401282E-1	8.715385E-1	8.470714E-1	8.049394E-1	8.486206E-1	8.892878E-1	8.228753E-1	8.078239E-1	8.420162E-1	8.446365E-1	8.413207E-1	8.063715E-1	8.287104E-1	7.588538E-1	8.073019E-1	7.774372E-1	8.315922E-1	8.384888E-1	8.229552E-1	8.556830E-1	8.323143E-1	8.022341E-1	8.658711E-1	8.205690E-1	8.482574E-1	8.114316E-1	8.052291E-1	8.485229E-1	8.103951E-1	8.802294E-1	8.022927E-1	7.853539E-1	7.942153E-1	8.360012E-1	7.970751E-1	7.753820E-1	8.262056E-1	7.612747E-1	8.353508E-1	8.045204E-1	8.313009E-1	7.887244E-1	7.988819E-1	8.235841E-1	8.195045E-1	8.293436E-1	8.226721E-1	7.429182E-1	7.994937E-1	8.518314E-1	8.257241E-1	7.969473E-1	8.051797E-1	8.309544E-1	9.043337E-1	8.237804E-1	8.453728E-1	8.275730E-1	8.084032E-1	8.726019E-1	8.124146E-1	7.751214E-1	8.272743E-1	8.421878E-1	9.088323E-1	8.282719E-1	8.415868E-1	9.019524E-1	8.523090E-1	7.896448E-1	8.150637E-1	8.381497E-1	7.835107E-1	8.332163E-1	8.006481E-1	8.148434E-1	8.012358E-1	8.232476E-1	8.359608E-1	8.034448E-1	8.566614E-1	8.738597E-1	8.436198E-1	8.340638E-1	8.625354E-1	8.481547E-1	8.510504E-1	9.045607E-1	7.554930E-1
2.905200E+2	7.293220E-1	7.219655E-1	7.514321E-1	8.298979E-1	7.639169E-1	7.110424E-1	7.866893E-1	7.425134E-1	7.879871E-1	6.837241E-1	7.369768E-1	7.615678E-1	7.645876E-1	7.464970E-1	7.100283E-1	7.209231E-1	7.593899E-1	7.010085E-1	7.152600E-1	7.310620E-1	8.473596E-1	7.822547E-1	7.070889E-1	7.737182E-1	7.817344E-1	7.688317E-1	7.509822E-1	7.113281E-1	7.191455E-1	7.856269E-1	7.581960E-1	7.717175E-1	7.350582E-1	7.215596E-1	7.539636E-1	7.208571E-1	7.250685E-1	7.347392E-1	7.537071E-1	7.366577E-1	7.930809E-1	7.340741E-1	8.024091E-1	7.522757E-1	7.501821E-1	7.767525E-1	7.194474E-1	7.358549E-1	7.495402E-1	8.045955E-1	7.338401E-1	7.613908E-1	7.835243E-1	7.440708E-1	7.611718E-1	7.001838E-1	7.324994E-1	7.829636E-1	6.837866E-1	7.609612E-1	7.321990E-1	7.798697E-1	7.253403E-1	7.023784E-1	7.778082E-1	8.102057E-1	7.622941E-1	7.771286E-1	7.760076E-1	7.019950E-1	7.266390E-1	7.268696E-1	7.549622E-1	7.869099E-1	7.211739E-1	7.343812E-1	7.615689E-1	7.220421E-1	7.533281E-1	6.763569E-1	8.298412E-1	7.679391E-1	7.381539E-1	7.812245E-1	7.889738E-1	6.776388E-1	6.857837E-1	7.632780E-1	7.292408E-1	7.466651E-1	7.143545E-1	7.624732E-1	7.845230E-1	7.922306E-1	7.578037E-1	7.641122E-1	7.739702E-1	7.701773E-1	7.045717E-1	6.799559E-1	7.126073E-1	7.067431E-1	7.482105E-1	8.063003E-1	7.509752E-1	7.521956E-1	7.258184E-1	7.687964E-1	8.208539E-1	7.682792E-1	7.394738E-1	7.130385E-1	7.521630E-1	7.578572E-1	7.297548E-1	7.281490E-1	7.466733E-1	7.587039E-1	7.144086E-1	7.081684E-1	7.323282E-1	7.779256E-1	8.069101E-1	7.293796E-1	7.438753E-1	7.217308E-1	7.144462E-1	7.264260E-1	7.223811E-1	7.094687E-1	7.309476E-1	6.734655E-1	8.053898E-1	8.178693E-1	7.340977E-1	6.932021E-1	7.650446E-1	8.261529E-1	7.375014E-1	7.990271E-1	7.798634E-1	7.547777E-1	7.453823E-1	7.816520E-1	7.654088E-1	8.000636E-1	8.110203E-1	7.205146E-1	7.996281E-1	6.979154E-1	7.634599E-1	7.612230E-1	7.777503E-1	7.237028E-1	7.867277E-1	8.173703E-1	7.378333E-1	7.639508E-1	7.623103E-1	7.681042E-1	7.425164E-1	7.444431E-1	7.722183E-1	7.800506E-1	7.103822E-1	6.986916E-1	7.667660E-1	7.585063E-1	7.918912E-1	6.877320E-1	8.035617E-1	6.688195E-1
2.910060E+2	8.880253E-1	8.873481E-1	8.568545E-1	9.867451E-1	9.298038E-1	8.669486E-1	9.129112E-1	8.901965E-1	9.001957E-1	9.124238E-1	8.888571E-1	8.129457E-1	8.402588E-1	9.024553E-1	8.975187E-1	9.047653E-1	9.445765E-1	9.037075E-1	9.433905E-1	8.668457E-1	9.019109E-1	9.298590E-1	8.536543E-1	8.341654E-1	9.017287E-1	8.621336E-1	8.904140E-1	9.581342E-1	9.812944E-1	9.377958E-1	8.704217E-1	8.926524E-1	8.704773E-1	9.058974E-1	9.116551E-1	8.997267E-1	8.650155E-1	9.100372E-1	9.218199E-1	8.994749E-1	8.882883E-1	9.244288E-1	9.215593E-1	9.237463E-1	9.016057E-1	9.137213E-1	8.578838E-1	9.053570E-1	8.852153E-1	8.907056E-1	9.048457E-1	9.765957E-1	9.237501E-1	9.103034E-1	9.004162E-1	8.463828E-1	9.717430E-1	8.799918E-1	8.962537E-1	9.125885E-1	8.770936E-1	1.000901E+0	8.575442E-1	8.760774E-1	8.583597E-1	9.049741E-1	9.181800E-1	8.312496E-1	9.367777E-1	9.250000E-1	8.965236E-1	9.242184E-1	8.603845E-1	9.445741E-1	8.585385E-1	8.419774E-1	9.727044E-1	8.061776E-1	9.165789E-1	9.462113E-1	9.539972E-1	9.141910E-1	8.821716E-1	9.237400E-1	8.955798E-1	9.077330E-1	9.358632E-1	9.471314E-1	9.241381E-1	9.215966E-1	8.694337E-1	9.224203E-1	9.456347E-1	9.627760E-1	9.029772E-1	8.822960E-1	9.148712E-1	9.166560E-1	8.779789E-1	8.647026E-1	9.376658E-1	9.303858E-1	8.802356E-1	9.378819E-1	9.072276E-1	9.205691E-1	9.315131E-1	9.336168E-1	8.624674E-1	9.169225E-1	8.125159E-1	9.317403E-1	8.803289E-1	9.118578E-1	9.936578E-1	8.675416E-1	9.442150E-1	8.818729E-1	9.328307E-1	9.075754E-1	8.538416E-1	9.292238E-1	9.094920E-1	9.280025E-1	9.556264E-1	9.464295E-1	9.257784E-1	8.952890E-1	9.094832E-1	9.337511E-1	8.824455E-1	8.725779E-1	8.953177E-1	9.536446E-1	9.177624E-1	8.521265E-1	8.406567E-1	1.012274E+0	9.144653E-1	9.795233E-1	9.503956E-1	9.818044E-1	8.511153E-1	9.568687E-1	8.818962E-1	8.910028E-1	8.730377E-1	9.431845E-1	8.525737E-1	9.126004E-1	8.907777E-1	8.500909E-1	8.802475E-1	9.073961E-1	9.295359E-1	9.038375E-1	8.391655E-1	8.824677E-1	9.328650E-1	9.094152E-1	8.416056E-1	8.934645E-1	8.755000E-1	8.951686E-1	8.745704E-1	9.544980E-1	9.112618E-1	9.524794E-1	8.867997E-1	8.438942E-1	9.204869E-1	9.806428E-1
2.915180E+2	1.200801E+0	1.221632E+0	1.261028E+0	1.233560E+0	1.246545E+0	1.180468E+0	1.267777E+0	1.205268E+0	1.286829E+0	1.191517E+0	1.130678E+0	1.241317E+0	1.332497E+0	1.287516E+0	1.199930E+0	1.217841E+0	1.266015E+0	1.263051E+0	1.225759E+0	1.233221E+0	1.305167E+0	1.159169E+0	1.236408E+0	1.210133E+0	1.235590E+0	1.208175E+0	1.228135E+0	1.266044E+0	1.215208E+0	1.266172E+0	1.231822E+0	1.231647E+0	1.202767E+0	1.206410E+0	1.282663E+0	1.226498E+0	1.145272E+0	1.211284E+0	1.168138E+0	1.205650E+0	1.118150E+0	1.239176E+0	1.248321E+0	1.221621E+0	1.239316E+0	1.183022E+0	1.184208E+0	1.235653E+0	1.280997E+0	1.237423E+0	1.296578E+0	1.160222E+0	1.169422E+0	1.215794E+0	1.218877E+0	1.171729E+0	1.292009E+0	1.206702E+0	1.233331E+0	1.159051E+0	1.270898E+0	1.192479E+0	1.212158E+0	1.265641E+0	1.387152E+0	1.258166E+0	1.204433E+0	1.233824E+0	1.248635E+0	1.271099E+0	1.142789E+0	1.204949E+0	1.266617E+0	1.158236E+0	1.177975E+0	1.212557E+0	1.223919E+0	1.210340E+0	1.192209E+0	1.172797E+0	1.213576E+0	1.166044E+0	1.267504E+0	1.130484E+0	1.249042E+0	1.172320E+0	1.209688E+0	1.168580E+0	1.226828E+0	1.212994E+0	1.192322E+0	1.219063E+0	1.285442E+0	1.239491E+0	1.164356E+0	1.199204E+0	1.217328E+0	1.317550E+0	1.205989E+0	1.316765E+0	1.145462E+0	1.266253E+0	1.225630E+0	1.266553E+0	1.183806E+0	1.252417E+0	1.268151E+0	1.287716E+0	1.164603E+0	1.209640E+0	1.279682E+0	1.239460E+0	1.255040E+0	1.247602E+0	1.239599E+0	1.191090E+0	1.254012E+0	1.235959E+0	1.201234E+0	1.206330E+0	1.163383E+0	1.231502E+0	1.170264E+0	1.212100E+0	1.187696E+0	1.159387E+0	1.284210E+0	1.223803E+0	1.275944E+0	1.183695E+0	1.170315E+0	1.242678E+0	1.241479E+0	1.331460E+0	1.231704E+0	1.205747E+0	1.267370E+0	1.229762E+0	1.218698E+0	1.274086E+0	1.250708E+0	1.272181E+0	1.162797E+0	1.150815E+0	1.263924E+0	1.207301E+0	1.334968E+0	1.210904E+0	1.283974E+0	1.227850E+0	1.237121E+0	1.214187E+0	1.335448E+0	1.196287E+0	1.242800E+0	1.208510E+0	1.254177E+0	1.202281E+0	1.223206E+0	1.158116E+0	1.234431E+0	1.238258E+0	1.233461E+0	1.241493E+0	1.277959E+0	1.204832E+0	1.251647E+0	1.171661E+0	1.195214E+0	1.114979E+0	1.212741E+0	1.181434E+0
2.920030E+2	9.783299E-1	9.340987E-1	9.417299E-1	1.003800E+0	9.965917E-1	9.730782E-1	1.074250E+0	1.017887E+0	1.021580E+0	9.657623E-1	9.503613E-1	1.069167E+0	9.562056E-1	1.028745E+0	1.004095E+0	9.491184E-1	1.036458E+0	1.033003E+0	1.034872E+0	1.001729E+0	9.937838E-1	9.242878E-1	9.658615E-1	1.024704E+0	1.011881E+0	9.105784E-1	9.944275E-1	1.000939E+0	1.038713E+0	1.021645E+0	9.909431E-1	9.943279E-1	9.993339E-1	9.943381E-1	9.902953E-1	9.663068E-1	9.613852E-1	9.957546E-1	8.979765E-1	9.633989E-1	9.413740E-1	1.016073E+0	1.027204E+0	9.919281E-1	1.053953E+0	9.966523E-1	9.641553E-1	1.046450E+0	1.027001E+0	9.925537E-1	1.002928E+0	1.006863E+0	1.038898E+0	1.010436E+0	9.652912E-1	1.020372E+0	9.686178E-1	9.583864E-1	9.551500E-1	9.537645E-1	1.007692E+0	1.101250E+0	9.671674E-1	9.797540E-1	1.051677E+0	1.029382E+0	9.525491E-1	9.982927E-1	1.030738E+0	1.007861E+0	1.019372E+0	1.039540E+0	1.054628E+0	1.013686E+0	1.024168E+0	9.682522E-1	9.376690E-1	9.056437E-1	1.019409E+0	1.012976E+0	9.937494E-1	9.559963E-1	9.706153E-1	1.025986E+0	1.025726E+0	9.987241E-1	9.425008E-1	1.029007E+0	9.871244E-1	9.888347E-1	9.555019E-1	1.037616E+0	9.395377E-1	1.033469E+0	9.838400E-1	9.705558E-1	9.688244E-1	9.966680E-1	1.017648E+0	9.574810E-1	9.718017E-1	9.833216E-1	9.826820E-1	9.888313E-1	9.253140E-1	9.419849E-1	9.727892E-1	9.635704E-1	1.053214E+0	1.037732E+0	9.612198E-1	1.034025E+0	1.009812E+0	1.059184E+0	9.896417E-1	1.017973E+0	1.000130E+0	1.050813E+0	1.008571E+0	9.826994E-1	9.762738E-1	1.039565E+0	1.014719E+0	9.933955E-1	1.013456E+0	1.052557E+0	9.908323E-1	1.003423E+0	9.774381E-1	1.025066E+0	8.787027E-1	9.945458E-1	9.468764E-1	1.028935E+0	9.605799E-1	1.044853E+0	1.050676E+0	1.013790E+0	9.766071E-1	1.012249E+0	1.010816E+0	9.255604E-1	1.006330E+0	9.520861E-1	1.063800E+0	9.821350E-1	9.800634E-1	9.987843E-1	9.728137E-1	1.019810E+0	9.546462E-1	9.496079E-1	1.019233E+0	9.811136E-1	1.035173E+0	1.036603E+0	1.016098E+0	1.029595E+0	1.029955E+0	9.843816E-1	9.001361E-1	1.015991E+0	9.566391E-1	9.597936E-1	9.566756E-1	1.024537E+0	1.047256E+0	1.017958E+0	1.042951E+0	9.830582E-1	9.987707E-1	1.021089E+0
2.925020E+2	9.716849E-1	9.659879E-1	9.685141E-1	8.907350E-1	1.001118E+0	8.793878E-1	9.706017E-1	8.956445E-1	9.302020E-1	9.297131E-1	9.181328E-1	9.211922E-1	9.320693E-1	9.597849E-1	9.504903E-1	8.963064E-1	8.144408E-1	9.716814E-1	9.409478E-1	9.442946E-1	9.266761E-1	8.631782E-1	8.947220E-1	9.183031E-1	9.462271E-1	9.112525E-1	8.979875E-1	9.022754E-1	9.518424E-1	8.760116E-1	8.708199E-1	9.389788E-1	9.057616E-1	8.663216E-1	9.743129E-1	8.619419E-1	8.715736E-1	9.518873E-1	9.550318E-1	8.788615E-1	9.751237E-1	9.987299E-1	8.759133E-1	9.519673E-1	9.401464E-1	9.652431E-1	8.711503E-1	9.701751E-1	9.254457E-1	9.333890E-1	9.208203E-1	9.174083E-1	8.725093E-1	9.311124E-1	9.120404E-1	9.419708E-1	9.424879E-1	8.917414E-1	9.493714E-1	9.496782E-1	9.010569E-1	9.307570E-1	8.980240E-1	9.079469E-1	9.750451E-1	8.969312E-1	9.346173E-1	9.527955E-1	9.529722E-1	9.869698E-1	9.664902E-1	8.865908E-1	9.416204E-1	1.019688E+0	9.620521E-1	9.741258E-1	8.940270E-1	9.456091E-1	9.352586E-1	9.180659E-1	9.952248E-1	9.965021E-1	9.223958E-1	9.120989E-1	8.999409E-1	8.953018E-1	9.535404E-1	9.513440E-1	9.115195E-1	9.578218E-1	9.500251E-1	9.257670E-1	9.136180E-1	9.574740E-1	9.323146E-1	9.707309E-1	9.651606E-1	9.288813E-1	9.670086E-1	9.267595E-1	9.071956E-1	9.154564E-1	1.007122E+0	9.346834E-1	9.019007E-1	9.655348E-1	9.852191E-1	8.984432E-1	7.996386E-1	8.852969E-1	9.192509E-1	9.806910E-1	9.683919E-1	9.903898E-1	9.209249E-1	8.876237E-1	9.087435E-1	1.014142E+0	8.968987E-1	9.409653E-1	1.007497E+0	9.110764E-1	9.559625E-1	8.541093E-1	9.161572E-1	9.685672E-1	9.222522E-1	8.575346E-1	9.550270E-1	9.827911E-1	9.177997E-1	9.713182E-1	9.731758E-1	8.964969E-1	8.928365E-1	1.005875E+0	9.174524E-1	9.917262E-1	8.481930E-1	9.299938E-1	9.360915E-1	9.408440E-1	9.109422E-1	8.899239E-1	9.687510E-1	9.371814E-1	9.327118E-1	9.768348E-1	9.291596E-1	8.624225E-1	9.145517E-1	8.761907E-1	9.448833E-1	8.940556E-1	9.791958E-1	9.291022E-1	9.625697E-1	9.091859E-1	9.926987E-1	9.616403E-1	9.575505E-1	9.257381E-1	9.840795E-1	9.763877E-1	9.539665E-1	9.042205E-1	9.250059E-1	9.087776E-1	9.490883E-1	9.550229E-1	8.901279E-1	9.171515E-1
2.930050E+2	9.313588E-1	9.824473E-1	9.352599E-1	9.659355E-1	1.008697E+0	9.364686E-1	9.389678E-1	9.714584E-1	9.911652E-1	9.397611E-1	1.013064E+0	9.114911E-1	1.000721E+0	1.007434E+0	9.686251E-1	9.645470E-1	9.930336E-1	9.220838E-1	9.478580E-1	9.418266E-1	9.316652E-1	9.320056E-1	9.708210E-1	9.154172E-1	9.343845E-1	9.312038E-1	9.315270E-1	9.915333E-1	9.587824E-1	9.605495E-1	9.594118E-1	9.613841E-1	9.319415E-1	9.863733E-1	9.787756E-1	9.662811E-1	9.645780E-1	9.343062E-1	9.137313E-1	9.594285E-1	9.953221E-1	1.024111E+0	9.664890E-1	1.024286E+0	1.027204E+0	9.278601E-1	9.371492E-1	9.923359E-1	9.817315E-1	1.002816E+0	9.594251E-1	9.792279E-1	9.275228E-1	9.316154E-1	9.463516E-1	1.001260E+0	9.517360E-1	9.752832E-1	8.533977E-1	1.011760E+0	1.011781E+0	1.009182E+0	9.699951E-1	9.826180E-1	1.006560E+0	9.669465E-1	9.742514E-1	9.291258E-1	9.254303E-1	9.530727E-1	9.503942E-1	9.191351E-1	9.708916E-1	1.018673E+0	9.786018E-1	9.723679E-1	1.015147E+0	9.351340E-1	9.739021E-1	9.303424E-1	9.892491E-1	9.507677E-1	9.576450E-1	9.622499E-1	9.324385E-1	9.539563E-1	9.283551E-1	1.011348E+0	9.762653E-1	9.819916E-1	9.487892E-1	9.574200E-1	1.039186E+0	9.914379E-1	8.799500E-1	1.002359E+0	9.211883E-1	9.569272E-1	8.855759E-1	1.004865E+0	9.786914E-1	1.017929E+0	9.816861E-1	9.481471E-1	9.555385E-1	9.757576E-1	9.958644E-1	9.287582E-1	1.003121E+0	9.256756E-1	1.010754E+0	9.425497E-1	1.002554E+0	1.051362E+0	1.026003E+0	9.895158E-1	1.016313E+0	9.821600E-1	9.140761E-1	9.048149E-1	9.835301E-1	9.415147E-1	1.009322E+0	9.962814E-1	9.478138E-1	9.401903E-1	1.009968E+0	8.982031E-1	9.610671E-1	1.003731E+0	9.403729E-1	9.765404E-1	9.657916E-1	9.364508E-1	9.684440E-1	9.553655E-1	9.403676E-1	9.804681E-1	9.601114E-1	1.012978E+0	1.041443E+0	1.025857E+0	1.005854E+0	9.273151E-1	1.055096E+0	8.911322E-1	9.439283E-1	1.002484E+0	1.004058E+0	9.469363E-1	8.832698E-1	9.223106E-1	9.868559E-1	9.239999E-1	9.857671E-1	9.869604E-1	9.734253E-1	1.048751E+0	9.844381E-1	1.000718E+0	9.501905E-1	1.013685E+0	9.772639E-1	1.038339E+0	9.615102E-1	9.630909E-1	9.594238E-1	9.608059E-1	9.466854E-1	1.045384E+0	9.612382E-1	9.254948E-1
2.935120E+2	1.165813E+0	1.203212E+0	1.148605E+0	1.277710E+0	1.251458E+0	1.130070E+0	1.147424E+0	1.141653E+0	1.240200E+0	1.195795E+0	1.157243E+0	1.152797E+0	1.180280E+0	1.191864E+0	1.156010E+0	1.167293E+0	1.161727E+0	1.207239E+0	1.225807E+0	1.267638E+0	1.216303E+0	1.159236E+0	1.171532E+0	1.238352E+0	1.237447E+0	1.159214E+0	1.176331E+0	1.294160E+0	1.194474E+0	1.265038E+0	1.163345E+0	1.198855E+0	1.147638E+0	1.269425E+0	1.198745E+0	1.182569E+0	1.137906E+0	1.173619E+0	1.168491E+0	1.203618E+0	1.138270E+0	1.238879E+0	1.190864E+0	1.181271E+0	1.043975E+0	1.260545E+0	1.219635E+0	1.215469E+0	1.149415E+0	1.188437E+0	1.216052E+0	1.171914E+0	1.218108E+0	1.155958E+0	1.195924E+0	1.170696E+0	1.125768E+0	1.189493E+0	1.218741E+0	1.210874E+0	1.060859E+0	1.239557E+0	1.120761E+0	1.236879E+0	1.076669E+0	1.236929E+0	1.219584E+0	1.214078E+0	1.156482E+0	1.203366E+0	1.155419E+0	1.183188E+0	1.124277E+0	1.169574E+0	1.225114E+0	1.229734E+0	1.061246E+0	1.167994E+0	1.125348E+0	1.146032E+0	1.098678E+0	1.210558E+0	1.202521E+0	1.195741E+0	1.151709E+0	1.215327E+0	1.261347E+0	1.255258E+0	1.122048E+0	1.187318E+0	1.139233E+0	1.187200E+0	1.006012E+0	1.217578E+0	1.207264E+0	1.188083E+0	1.038891E+0	1.211666E+0	1.165170E+0	1.122833E+0	1.074902E+0	1.159491E+0	1.239641E+0	1.204248E+0	1.125824E+0	1.207287E+0	1.163687E+0	1.156512E+0	1.157545E+0	1.191221E+0	1.263170E+0	1.268628E+0	1.107426E+0	1.253250E+0	1.154193E+0	1.209883E+0	1.162245E+0	1.221831E+0	1.137285E+0	1.219018E+0	1.244802E+0	1.220919E+0	1.213229E+0	1.254201E+0	1.092563E+0	1.244843E+0	1.199682E+0	1.104269E+0	1.099706E+0	1.155973E+0	1.145025E+0	1.194863E+0	1.289162E+0	1.262656E+0	1.169414E+0	1.204064E+0	1.147934E+0	1.116519E+0	1.209952E+0	1.111113E+0	1.190754E+0	1.222766E+0	1.227405E+0	1.217633E+0	1.148214E+0	1.188408E+0	1.124221E+0	1.199606E+0	1.098571E+0	1.171600E+0	1.227465E+0	1.113900E+0	1.248896E+0	1.189076E+0	1.206908E+0	1.237169E+0	1.214052E+0	1.174615E+0	1.190615E+0	1.217390E+0	1.139775E+0	1.151330E+0	1.166290E+0	1.243917E+0	1.189166E+0	1.120097E+0	1.215058E+0	1.194484E+0	1.246267E+0	1.286498E+0	1.246377E+0	1.268910E+0
2.940070E+2	9.389894E-1	8.649674E-1	9.641728E-1	9.201601E-1	9.434091E-1	9.520222E-1	9.362163E-1	9.378999E-1	9.534081E-1	9.378916E-1	9.261158E-1	9.177587E-1	9.151114E-1	9.350186E-1	9.891828E-1	9.212134E-1	8.912270E-1	9.527555E-1	9.400465E-1	1.005324E+0	9.268586E-1	9.070478E-1	9.509078E-1	8.862481E-1	9.601675E-1	9.551906E-1	9.099475E-1	9.588673E-1	9.130991E-1	9.603582E-1	9.617923E-1	8.577895E-1	9.406013E-1	9.600990E-1	9.091791E-1	9.115416E-1	9.642810E-1	9.058140E-1	8.881052E-1	9.582905E-1	9.109849E-1	9.563989E-1	9.796574E-1	9.437696E-1	9.057714E-1	1.004661E+0	8.569941E-1	9.692895E-1	9.170131E-1	9.661137E-1	9.622688E-1	9.611690E-1	9.606436E-1	9.969934E-1	9.294483E-1	9.368155E-1	9.245520E-1	9.372209E-1	9.317502E-1	9.513732E-1	9.420056E-1	1.010326E+0	9.063542E-1	9.588468E-1	9.488961E-1	1.016465E+0	9.893496E-1	9.242128E-1	9.572781E-1	9.243428E-1	9.023222E-1	8.575614E-1	9.640292E-1	9.520610E-1	9.146899E-1	9.150310E-1	9.139854E-1	8.997711E-1	8.674794E-1	9.089141E-1	9.650619E-1	9.590284E-1	9.242840E-1	9.702323E-1	8.982912E-1	9.543224E-1	9.193695E-1	9.175331E-1	1.008743E+0	9.233348E-1	8.953609E-1	8.871381E-1	9.409031E-1	9.031032E-1	9.401665E-1	9.531235E-1	9.699916E-1	9.579573E-1	9.416133E-1	9.882753E-1	9.750378E-1	9.519910E-1	9.335163E-1	8.974072E-1	9.113078E-1	9.270216E-1	9.480922E-1	9.608144E-1	9.144729E-1	9.647922E-1	9.479639E-1	9.005802E-1	9.530166E-1	1.028658E+0	9.045854E-1	9.382130E-1	9.046942E-1	9.600065E-1	8.674201E-1	9.283630E-1	9.421895E-1	9.386392E-1	9.361177E-1	1.005418E+0	9.458862E-1	9.699814E-1	9.597937E-1	9.661430E-1	9.446781E-1	9.610506E-1	8.892371E-1	8.701020E-1	9.197164E-1	8.968357E-1	9.151558E-1	8.952110E-1	9.007461E-1	1.003287E+0	9.114387E-1	9.485431E-1	9.575950E-1	9.643350E-1	1.004464E+0	9.253337E-1	9.505041E-1	9.603412E-1	9.658242E-1	8.481693E-1	9.476638E-1	8.875099E-1	9.549097E-1	9.496545E-1	9.655515E-1	9.411713E-1	9.396592E-1	9.442498E-1	8.913161E-1	1.006544E+0	9.294746E-1	9.258352E-1	9.546577E-1	9.598293E-1	9.505813E-1	9.627558E-1	9.795627E-1	8.892415E-1	1.006513E+0	9.351080E-1	9.777337E-1	9.832674E-1	1.009967E+0	8.376059E-1
2.945010E+2	8.267908E-1	7.397448E-1	8.216119E-1	8.350903E-1	7.889583E-1	8.047155E-1	8.142611E-1	8.045538E-1	8.333033E-1	8.230795E-1	7.970672E-1	8.260496E-1	8.593873E-1	7.983271E-1	7.765501E-1	7.977080E-1	8.630049E-1	8.036159E-1	8.299047E-1	7.994650E-1	8.549462E-1	8.323242E-1	8.050102E-1	8.101068E-1	8.379862E-1	8.030700E-1	8.003948E-1	7.780038E-1	8.047295E-1	8.580753E-1	8.108699E-1	8.082402E-1	8.221102E-1	8.111615E-1	8.262291E-1	7.932948E-1	8.203985E-1	8.161745E-1	7.707518E-1	7.972996E-1	7.714061E-1	8.644038E-1	8.210663E-1	8.344798E-1	8.381469E-1	8.877023E-1	7.603224E-1	8.315448E-1	8.103245E-1	8.781629E-1	8.813962E-1	8.926783E-1	7.853540E-1	8.353237E-1	8.132651E-1	7.718660E-1	8.436387E-1	8.698359E-1	8.116145E-1	8.306849E-1	8.174014E-1	8.602502E-1	8.190519E-1	8.443059E-1	8.070522E-1	8.289107E-1	7.808278E-1	8.368839E-1	8.064070E-1	8.487897E-1	7.984037E-1	8.237278E-1	8.017554E-1	8.833649E-1	7.986353E-1	8.206622E-1	8.634878E-1	7.911786E-1	8.068863E-1	9.005330E-1	8.838608E-1	8.680310E-1	8.351505E-1	8.503639E-1	8.831787E-1	8.591127E-1	8.223100E-1	8.352294E-1	8.153707E-1	7.901223E-1	7.646649E-1	7.923649E-1	8.020172E-1	8.695981E-1	8.022826E-1	8.449126E-1	8.241926E-1	8.192173E-1	7.816335E-1	8.234000E-1	8.664497E-1	8.377998E-1	8.013381E-1	8.123035E-1	8.104313E-1	8.060400E-1	7.643689E-1	8.218254E-1	8.396197E-1	8.054240E-1	8.726938E-1	8.556459E-1	9.122337E-1	8.456396E-1	8.245479E-1	8.450889E-1	8.561933E-1	8.089955E-1	7.813410E-1	8.525559E-1	8.482438E-1	7.323489E-1	7.958961E-1	8.114541E-1	8.215534E-1	8.464757E-1	8.427045E-1	7.938515E-1	7.812452E-1	8.442265E-1	7.880937E-1	8.209797E-1	8.444386E-1	8.278657E-1	7.925115E-1	8.008089E-1	8.516747E-1	8.939048E-1	8.415307E-1	7.928186E-1	8.368032E-1	8.603762E-1	8.349581E-1	8.309341E-1	8.680151E-1	7.882319E-1	8.268043E-1	7.687653E-1	8.079115E-1	8.028728E-1	8.043854E-1	8.293427E-1	8.627969E-1	8.600174E-1	8.118503E-1	7.799469E-1	7.831326E-1	8.788238E-1	8.472691E-1	8.458454E-1	8.177802E-1	8.651797E-1	8.239869E-1	8.855777E-1	8.137946E-1	8.495943E-1	8.760665E-1	8.025085E-1	8.558348E-1	8.798720E-1	8.423802E-1	9.155888E-1
2.950040E+2	9.098881E-1	9.474934E-1	9.987145E-1	9.264512E-1	9.388620E-1	9.388443E-1	9.783346E-1	9.947076E-1	9.212178E-1	9.287429E-1	1.010281E+0	9.156079E-1	9.458705E-1	9.344903E-1	1.001806E+0	9.421262E-1	9.950268E-1	1.002014E+0	1.036133E+0	9.985758E-1	9.753402E-1	9.697677E-1	9.527121E-1	9.744823E-1	9.754468E-1	1.001268E+0	1.014932E+0	9.010708E-1	9.304008E-1	9.704778E-1	9.302644E-1	9.391495E-1	9.571430E-1	9.718023E-1	9.393476E-1	9.214523E-1	9.892088E-1	9.217197E-1	9.455190E-1	9.326233E-1	9.536734E-1	1.037588E+0	9.724240E-1	1.023332E+0	8.923691E-1	9.584164E-1	9.243143E-1	9.780779E-1	9.834586E-1	1.005768E+0	9.222507E-1	9.933630E-1	9.787138E-1	9.136843E-1	9.484725E-1	9.909678E-1	9.272235E-1	9.763038E-1	9.765922E-1	9.792093E-1	8.993130E-1	9.824832E-1	8.924771E-1	9.342348E-1	9.732320E-1	9.583666E-1	9.261698E-1	9.693125E-1	9.642272E-1	9.652849E-1	9.505300E-1	8.871881E-1	9.697542E-1	9.823891E-1	9.122628E-1	9.761813E-1	9.113925E-1	1.000930E+0	9.028209E-1	9.621264E-1	9.915802E-1	9.695568E-1	1.050945E+0	9.831747E-1	9.555424E-1	9.133003E-1	9.136610E-1	1.020983E+0	9.651989E-1	9.766947E-1	9.121882E-1	9.663649E-1	9.250916E-1	1.031349E+0	8.883919E-1	9.300163E-1	9.268252E-1	9.831731E-1	9.058572E-1	9.304947E-1	9.764230E-1	1.036768E+0	9.772049E-1	9.114411E-1	9.584646E-1	1.013362E+0	1.036269E+0	9.155444E-1	9.833038E-1	9.349483E-1	9.780855E-1	9.278270E-1	9.690285E-1	9.934180E-1	9.558985E-1	9.699782E-1	9.097864E-1	9.864490E-1	9.496405E-1	9.172297E-1	9.097615E-1	9.704935E-1	1.008738E+0	9.958406E-1	1.017888E+0	9.551164E-1	9.972061E-1	9.710950E-1	9.662628E-1	9.640871E-1	9.393932E-1	9.348284E-1	9.490901E-1	8.759810E-1	9.897671E-1	9.862488E-1	9.451892E-1	1.001037E+0	9.325507E-1	9.405739E-1	9.467949E-1	9.739347E-1	9.432072E-1	9.856904E-1	9.885381E-1	1.012932E+0	9.111162E-1	9.245140E-1	9.725961E-1	9.118281E-1	9.467992E-1	9.137205E-1	9.406708E-1	9.617040E-1	9.451727E-1	9.835489E-1	1.018653E+0	1.007296E+0	9.951801E-1	1.012974E+0	9.840897E-1	8.839988E-1	9.843061E-1	9.066265E-1	9.595672E-1	1.015458E+0	9.231493E-1	9.467267E-1	9.863073E-1	9.592746E-1	1.082009E+0	8.822236E-1
2.955050E+2	1.091071E+0	9.947135E-1	1.090162E+0	1.124331E+0	1.162366E+0	1.103782E+0	1.087450E+0	1.135472E+0	1.118278E+0	1.092933E+0	1.095174E+0	1.106179E+0	1.110344E+0	1.189420E+0	1.197974E+0	1.122410E+0	1.107998E+0	1.182482E+0	1.122838E+0	1.122020E+0	1.126841E+0	1.100727E+0	1.082661E+0	1.092707E+0	1.079501E+0	1.139026E+0	1.040646E+0	1.103089E+0	1.093325E+0	1.262345E+0	1.092464E+0	1.065149E+0	1.099218E+0	1.121865E+0	1.088907E+0	1.055885E+0	1.075318E+0	1.064124E+0	1.108015E+0	1.087604E+0	1.055302E+0	1.134609E+0	1.162753E+0	1.171004E+0	1.159398E+0	1.092526E+0	1.082804E+0	1.105581E+0	1.130939E+0	1.151393E+0	1.094593E+0	1.028846E+0	1.106136E+0	1.156825E+0	1.090498E+0	1.086948E+0	1.063877E+0	1.145007E+0	1.150870E+0	1.141000E+0	1.056011E+0	1.151749E+0	1.102165E+0	1.142317E+0	1.159883E+0	1.104317E+0	1.103531E+0	1.046288E+0	1.172115E+0	1.098938E+0	1.108581E+0	1.063153E+0	1.170699E+0	1.081997E+0	1.117113E+0	1.062321E+0	1.153143E+0	1.132486E+0	1.068179E+0	1.131555E+0	1.058693E+0	1.110941E+0	1.111215E+0	1.077240E+0	1.091028E+0	1.050697E+0	1.138208E+0	1.077457E+0	1.143074E+0	1.117437E+0	1.121792E+0	1.098169E+0	1.125690E+0	1.143222E+0	1.125153E+0	1.115185E+0	1.149559E+0	1.118951E+0	1.099466E+0	1.101028E+0	1.150937E+0	1.163160E+0	1.092743E+0	1.122960E+0	1.099624E+0	1.120499E+0	1.150599E+0	1.161989E+0	1.161454E+0	1.105672E+0	1.115681E+0	1.134704E+0	1.039772E+0	1.106962E+0	1.120986E+0	1.127961E+0	1.167866E+0	1.144484E+0	1.168034E+0	1.142183E+0	1.151254E+0	1.081587E+0	1.091012E+0	1.092261E+0	1.138773E+0	1.127575E+0	1.179131E+0	1.118937E+0	1.125214E+0	1.157847E+0	1.083284E+0	1.112007E+0	1.095677E+0	1.166758E+0	1.085766E+0	1.079693E+0	1.080043E+0	1.117473E+0	1.100860E+0	1.042529E+0	1.101468E+0	1.138107E+0	1.100715E+0	1.143203E+0	1.149050E+0	1.143414E+0	1.092579E+0	1.118252E+0	1.117701E+0	1.111875E+0	1.084236E+0	1.082006E+0	1.080971E+0	1.096409E+0	1.112438E+0	1.096889E+0	1.128765E+0	1.097461E+0	1.099845E+0	1.071960E+0	1.086073E+0	1.177883E+0	1.117690E+0	1.114612E+0	1.089604E+0	1.098489E+0	1.113444E+0	1.106559E+0	1.114767E+0	1.152591E+0	1.187616E+0	1.089767E+0
2.960050E+2	1.200439E+0	1.150137E+0	1.247248E+0	1.185346E+0	1.246228E+0	1.182391E+0	1.218803E+0	1.171049E+0	1.249706E+0	1.148315E+0	1.214851E+0	1.145916E+0	1.169909E+0	1.242274E+0	1.186986E+0	1.182399E+0	1.172255E+0	1.249617E+0	1.200311E+0	1.188367E+0	1.201750E+0	1.202506E+0	1.184315E+0	1.204038E+0	1.235091E+0	1.157673E+0	1.159730E+0	1.211185E+0	1.240523E+0	1.215475E+0	1.143943E+0	1.236340E+0	1.255884E+0	1.184604E+0	1.151873E+0	1.178712E+0	1.181617E+0	1.196511E+0	1.132984E+0	1.153259E+0	1.191461E+0	1.342722E+0	1.156727E+0	1.212587E+0	1.242256E+0	1.275261E+0	1.169943E+0	1.213495E+0	1.210493E+0	1.185294E+0	1.199161E+0	1.201957E+0	1.194481E+0	1.257897E+0	1.149673E+0	1.241907E+0	1.178195E+0	1.229507E+0	1.227156E+0	1.281938E+0	1.224477E+0	1.205814E+0	1.214361E+0	1.198363E+0	1.224440E+0	1.199398E+0	1.241528E+0	1.226619E+0	1.200154E+0	1.179631E+0	1.279159E+0	1.165286E+0	1.213278E+0	1.261241E+0	1.201837E+0	1.178711E+0	1.225118E+0	1.197742E+0	1.194401E+0	1.225010E+0	1.255805E+0	1.162293E+0	1.216972E+0	1.206918E+0	1.221207E+0	1.233918E+0	1.185215E+0	1.224366E+0	1.203433E+0	1.233307E+0	1.152083E+0	1.167628E+0	1.137752E+0	1.298402E+0	1.235552E+0	1.234082E+0	1.237520E+0	1.249328E+0	1.175574E+0	1.202651E+0	1.194912E+0	1.196476E+0	1.183776E+0	1.248354E+0	1.155864E+0	1.214256E+0	1.237029E+0	1.173537E+0	1.257108E+0	1.181572E+0	1.205115E+0	1.215516E+0	1.210833E+0	1.261235E+0	1.238823E+0	1.192173E+0	1.181863E+0	1.239175E+0	1.191304E+0	1.173041E+0	1.234844E+0	1.170230E+0	1.183060E+0	1.150761E+0	1.202385E+0	1.245298E+0	1.253607E+0	1.189940E+0	1.256878E+0	1.272800E+0	1.142405E+0	1.178885E+0	1.196475E+0	1.209153E+0	1.220139E+0	1.155457E+0	1.248046E+0	1.259712E+0	1.197449E+0	1.259983E+0	1.185696E+0	1.254921E+0	1.221576E+0	1.205818E+0	1.209663E+0	1.210495E+0	1.174428E+0	1.200316E+0	1.202456E+0	1.156877E+0	1.276016E+0	1.159196E+0	1.215329E+0	1.162187E+0	1.189890E+0	1.191585E+0	1.211458E+0	1.281172E+0	1.252986E+0	1.200654E+0	1.173219E+0	1.194997E+0	1.158401E+0	1.227554E+0	1.164321E+0	1.140423E+0	1.214157E+0	1.212952E+0	1.136444E+0	1.219381E+0	1.177715E+0	1.159045E+0
2.964960E+2	1.065265E+0	1.030864E+0	1.029822E+0	1.077469E+0	1.089315E+0	9.944335E-1	1.040709E+0	1.073577E+0	1.058411E+0	1.052241E+0	1.060214E+0	1.113210E+0	1.069141E+0	1.041328E+0	1.061301E+0	1.010225E+0	1.054578E+0	1.079172E+0	1.044380E+0	1.093110E+0	1.107854E+0	1.071773E+0	1.086321E+0	1.054808E+0	1.044608E+0	1.061580E+0	1.024647E+0	1.098410E+0	1.122846E+0	1.069916E+0	1.088081E+0	1.134523E+0	1.078693E+0	1.079962E+0	1.076941E+0	1.048897E+0	1.042927E+0	1.090480E+0	1.085778E+0	9.842439E-1	1.069743E+0	1.121753E+0	1.068665E+0	1.123151E+0	1.063232E+0	1.113142E+0	1.094564E+0	1.086831E+0	1.085538E+0	1.110663E+0	1.104012E+0	1.068141E+0	1.080709E+0	1.099648E+0	1.016596E+0	1.025778E+0	1.112001E+0	1.048820E+0	1.043472E+0	1.140004E+0	1.044564E+0	1.059277E+0	1.072763E+0	1.036207E+0	1.076611E+0	1.144951E+0	1.103930E+0	1.062213E+0	1.054148E+0	1.089083E+0	1.034634E+0	1.090150E+0	1.035904E+0	1.096117E+0	1.130357E+0	1.086149E+0	1.086941E+0	1.013327E+0	1.007490E+0	1.039399E+0	1.112819E+0	1.060417E+0	1.093749E+0	1.026305E+0	1.086163E+0	1.079915E+0	1.064664E+0	1.069075E+0	1.058188E+0	1.084776E+0	1.021264E+0	1.069964E+0	1.080765E+0	1.135268E+0	1.064081E+0	1.071625E+0	1.033233E+0	1.052621E+0	1.064837E+0	1.099667E+0	1.089865E+0	1.065711E+0	1.033641E+0	1.075062E+0	1.037643E+0	1.200230E+0	1.081621E+0	1.082633E+0	1.099524E+0	1.090328E+0	1.041695E+0	1.048536E+0	1.071358E+0	1.177541E+0	1.005826E+0	1.061604E+0	1.072603E+0	1.116879E+0	1.002786E+0	1.015375E+0	1.065174E+0	1.121886E+0	1.049885E+0	1.015794E+0	1.009999E+0	1.053019E+0	1.127328E+0	1.054773E+0	1.079751E+0	1.133923E+0	1.085448E+0	1.053719E+0	1.115217E+0	1.055893E+0	1.051716E+0	1.048577E+0	1.098507E+0	1.153510E+0	1.063138E+0	1.068298E+0	1.043102E+0	1.099593E+0	1.052179E+0	1.044482E+0	1.079548E+0	1.102317E+0	1.031193E+0	1.048757E+0	1.049858E+0	1.077847E+0	1.089691E+0	1.023279E+0	1.128181E+0	1.024726E+0	1.055086E+0	1.088707E+0	1.032228E+0	1.100867E+0	1.046588E+0	1.076314E+0	1.030219E+0	1.149702E+0	1.064239E+0	1.097060E+0	1.060819E+0	1.166765E+0	1.097414E+0	1.060358E+0	1.036536E+0	1.069722E+0	1.070628E+0	1.040653E+0
2.970040E+2	9.722043E-1	9.145282E-1	1.003908E+0	9.826370E-1	1.099049E+0	9.387831E-1	9.538953E-1	9.226124E-1	9.563051E-1	9.848690E-1	9.929081E-1	9.139867E-1	9.475335E-1	9.996740E-1	1.009913E+0	9.179425E-1	9.163565E-1	9.561510E-1	9.650139E-1	9.611552E-1	1.006163E+0	1.000290E+0	9.601073E-1	9.602841E-1	1.030925E+0	9.512343E-1	1.017754E+0	8.957456E-1	1.016531E+0	1.008762E+0	1.066434E+0	9.832837E-1	9.340800E-1	9.809009E-1	9.386511E-1	9.382453E-1	1.031370E+0	9.296557E-1	9.876951E-1	9.528915E-1	1.017377E+0	9.802274E-1	9.423267E-1	9.756165E-1	9.488774E-1	9.603967E-1	9.372635E-1	9.699947E-1	9.561544E-1	9.763715E-1	9.787632E-1	9.150587E-1	1.030451E+0	9.589331E-1	9.837708E-1	9.687994E-1	8.847134E-1	9.473011E-1	9.496600E-1	1.002055E+0	9.936697E-1	9.935249E-1	9.505290E-1	9.035112E-1	9.711125E-1	1.005782E+0	9.139332E-1	9.472995E-1	9.484352E-1	9.240215E-1	9.630724E-1	9.650871E-1	1.014274E+0	1.033535E+0	9.767767E-1	9.550487E-1	9.524506E-1	9.306491E-1	9.476529E-1	9.586849E-1	9.632486E-1	9.494528E-1	1.052126E+0	9.693359E-1	9.543209E-1	9.693914E-1	9.408475E-1	9.555436E-1	9.825294E-1	9.886282E-1	9.134067E-1	1.053329E+0	1.000820E+0	9.877388E-1	9.834481E-1	9.412352E-1	9.628412E-1	9.943549E-1	9.385811E-1	9.329179E-1	9.388220E-1	9.952722E-1	9.826778E-1	9.718427E-1	9.268834E-1	9.922897E-1	9.718209E-1	9.453796E-1	9.989903E-1	9.847920E-1	9.758718E-1	9.739371E-1	9.486915E-1	1.046893E+0	9.591333E-1	9.760677E-1	9.158573E-1	1.013923E+0	9.446742E-1	1.024977E+0	9.901254E-1	9.961711E-1	9.090837E-1	8.839259E-1	9.571959E-1	9.626374E-1	9.538392E-1	9.721983E-1	9.445466E-1	9.875655E-1	9.921384E-1	9.397258E-1	9.553541E-1	9.863415E-1	9.979581E-1	9.224756E-1	9.688672E-1	9.930154E-1	9.136534E-1	8.952415E-1	9.850630E-1	1.022638E+0	9.022062E-1	1.060254E+0	1.003818E+0	1.021545E+0	9.377708E-1	1.022743E+0	8.962364E-1	9.522977E-1	1.024714E+0	8.947234E-1	9.314805E-1	9.956242E-1	9.373719E-1	1.007861E+0	1.000045E+0	9.632445E-1	9.647822E-1	9.669162E-1	9.714352E-1	9.382162E-1	9.655426E-1	9.449277E-1	9.472896E-1	9.042323E-1	9.760904E-1	9.026352E-1	9.473701E-1	9.421425E-1	1.003470E+0	8.906782E-1
2.975040E+2	1.058368E+0	9.973611E-1	1.059330E+0	1.034797E+0	1.021076E+0	9.870785E-1	1.003065E+0	1.074423E+0	1.060572E+0	9.941933E-1	1.046856E+0	1.015659E+0	1.107633E+0	1.035952E+0	1.090185E+0	1.000895E+0	9.769345E-1	1.046187E+0	1.046812E+0	1.080005E+0	1.000006E+0	9.941907E-1	1.019860E+0	9.738461E-1	1.032700E+0	1.065576E+0	1.006438E+0	1.017673E+0	1.043425E+0	1.078190E+0	1.051952E+0	1.069330E+0	1.049800E+0	9.696079E-1	1.062264E+0	1.086963E+0	1.023082E+0	1.065316E+0	1.098402E+0	1.059853E+0	1.070314E+0	9.982908E-1	1.051424E+0	1.053611E+0	1.013968E+0	1.045972E+0	1.065377E+0	1.052365E+0	9.768839E-1	1.038427E+0	1.043496E+0	1.044739E+0	1.079100E+0	1.039281E+0	1.024046E+0	1.048251E+0	1.069187E+0	1.054805E+0	1.076437E+0	1.038740E+0	1.030943E+0	1.070270E+0	1.040315E+0	1.034556E+0	1.096554E+0	1.035492E+0	1.013594E+0	1.040082E+0	1.000401E+0	1.058122E+0	1.075184E+0	1.029285E+0	1.028262E+0	1.027162E+0	1.036249E+0	1.045985E+0	1.004733E+0	9.776032E-1	1.054160E+0	1.036639E+0	1.048900E+0	1.038177E+0	9.973393E-1	1.084596E+0	1.026316E+0	1.078447E+0	1.058961E+0	1.038969E+0	1.053283E+0	1.046417E+0	1.042091E+0	1.041224E+0	1.038981E+0	1.051130E+0	1.008592E+0	1.019126E+0	1.029256E+0	9.991055E-1	1.037242E+0	1.045799E+0	1.047857E+0	1.052911E+0	1.059660E+0	1.027508E+0	1.008411E+0	1.009208E+0	1.041620E+0	1.079092E+0	1.065388E+0	1.048594E+0	1.026385E+0	1.085140E+0	1.007645E+0	1.069815E+0	1.019279E+0	1.060315E+0	1.053798E+0	1.048169E+0	1.019556E+0	1.017751E+0	1.035610E+0	1.045497E+0	1.069648E+0	1.050711E+0	1.033913E+0	1.060421E+0	1.033865E+0	1.050130E+0	1.028509E+0	1.049097E+0	1.025044E+0	1.065774E+0	9.896425E-1	1.070372E+0	1.016679E+0	1.025628E+0	1.027102E+0	1.109228E+0	1.034645E+0	1.066507E+0	1.022607E+0	1.032886E+0	1.048804E+0	1.042558E+0	1.052635E+0	1.039671E+0	1.022465E+0	1.044073E+0	1.018734E+0	1.055104E+0	1.055540E+0	1.061841E+0	1.020402E+0	1.038351E+0	1.018926E+0	1.034228E+0	1.064024E+0	1.018192E+0	9.937959E-1	1.025395E+0	9.875928E-1	1.008170E+0	1.012583E+0	1.046431E+0	1.092526E+0	1.020562E+0	1.062921E+0	1.028212E+0	1.044244E+0	1.063309E+0	1.026203E+0	9.864440E-1
2.980020E+2	9.765352E-1	1.048960E+0	1.024529E+0	1.048827E+0	9.871284E-1	9.963622E-1	9.936224E-1	9.828554E-1	1.006546E+0	9.828030E-1	1.027742E+0	1.018734E+0	1.025103E+0	9.821874E-1	1.034064E+0	9.497475E-1	1.009950E+0	9.670210E-1	1.008479E+0	9.964124E-1	1.033435E+0	1.031983E+0	9.824981E-1	1.015312E+0	1.002109E+0	9.894672E-1	9.564112E-1	1.022334E+0	1.017385E+0	1.015941E+0	1.013604E+0	9.809604E-1	1.015678E+0	1.009017E+0	9.569911E-1	1.039819E+0	1.058657E+0	1.050720E+0	9.875144E-1	1.015050E+0	1.017367E+0	1.040192E+0	9.685851E-1	9.759429E-1	1.039931E+0	1.044090E+0	9.720789E-1	1.027720E+0	9.525607E-1	1.008019E+0	9.960968E-1	1.004554E+0	1.026867E+0	9.678259E-1	9.906574E-1	9.582648E-1	9.725173E-1	9.927350E-1	9.836321E-1	1.017937E+0	1.032385E+0	9.929964E-1	9.649240E-1	9.655229E-1	9.973247E-1	1.028858E+0	1.012457E+0	1.054557E+0	1.027350E+0	9.806590E-1	9.750724E-1	1.052974E+0	1.013107E+0	1.047804E+0	9.406392E-1	9.779633E-1	1.019988E+0	1.031302E+0	9.779405E-1	9.650834E-1	9.907325E-1	9.840779E-1	1.036456E+0	9.842671E-1	1.017609E+0	1.007527E+0	9.989437E-1	1.017056E+0	9.837676E-1	9.588091E-1	1.011384E+0	1.029996E+0	9.888471E-1	1.035736E+0	9.735223E-1	1.059333E+0	9.966803E-1	1.049122E+0	9.666295E-1	1.006661E+0	9.968206E-1	1.051326E+0	1.010253E+0	1.039791E+0	9.948584E-1	9.778369E-1	1.032574E+0	1.010279E+0	1.002526E+0	1.013172E+0	1.089942E+0	1.008321E+0	1.049115E+0	1.022170E+0	9.516470E-1	9.933822E-1	1.040552E+0	9.872326E-1	1.040077E+0	9.991035E-1	9.943337E-1	9.816753E-1	9.731557E-1	9.481757E-1	1.035032E+0	1.017249E+0	1.015061E+0	1.012694E+0	9.982681E-1	1.051626E+0	1.031428E+0	1.028634E+0	9.874434E-1	1.002106E+0	9.738234E-1	9.863884E-1	1.017513E+0	1.001284E+0	1.026908E+0	9.800171E-1	1.001201E+0	9.809145E-1	9.654766E-1	9.996632E-1	1.029561E+0	1.024458E+0	9.862148E-1	1.013270E+0	1.001328E+0	1.025823E+0	9.913108E-1	9.862177E-1	1.018783E+0	1.011487E+0	9.726468E-1	9.948706E-1	9.756203E-1	1.020231E+0	1.016621E+0	1.010769E+0	1.022620E+0	9.915288E-1	1.002840E+0	9.791467E-1	9.972710E-1	1.008285E+0	9.827301E-1	9.717299E-1	9.873541E-1	9.715659E-1	1.022533E+0	1.002436E+0
2.985020E+2	9.240678E-1	9.501464E-1	9.742820E-1	9.489972E-1	9.698415E-1	9.394810E-1	9.617797E-1	9.246307E-1	9.245869E-1	9.651463E-1	9.684899E-1	9.499302E-1	9.445500E-1	9.728896E-1	8.840170E-1	9.952141E-1	9.616537E-1	9.491025E-1	9.881546E-1	9.296807E-1	9.691386E-1	9.038089E-1	9.093116E-1	9.274907E-1	9.363726E-1	9.550867E-1	9.342348E-1	9.397189E-1	9.380321E-1	9.400535E-1	9.371609E-1	9.517288E-1	9.570674E-1	9.342406E-1	9.519836E-1	9.199417E-1	9.746295E-1	9.360232E-1	9.338194E-1	9.672655E-1	9.014383E-1	9.215029E-1	9.408326E-1	9.461349E-1	9.621843E-1	9.603714E-1	9.571636E-1	9.545316E-1	9.316195E-1	9.333279E-1	9.348946E-1	9.363613E-1	9.782015E-1	9.534807E-1	9.560672E-1	9.697948E-1	9.618883E-1	8.984378E-1	9.282420E-1	9.513625E-1	9.559888E-1	9.358925E-1	9.563475E-1	9.457351E-1	9.084614E-1	9.625229E-1	9.543569E-1	9.836646E-1	1.004288E+0	9.778065E-1	9.378133E-1	9.473820E-1	9.624347E-1	9.167794E-1	9.727113E-1	9.025545E-1	9.422836E-1	9.261631E-1	9.984818E-1	9.399764E-1	9.392707E-1	9.474351E-1	9.094818E-1	9.481961E-1	9.093470E-1	9.405107E-1	9.173308E-1	9.347847E-1	9.747181E-1	9.470071E-1	9.156287E-1	9.512406E-1	9.032796E-1	9.417065E-1	9.420545E-1	9.071053E-1	9.446848E-1	9.753310E-1	9.601995E-1	9.236101E-1	9.475883E-1	9.016423E-1	9.226240E-1	9.813940E-1	9.628090E-1	9.707672E-1	9.431274E-1	9.012147E-1	9.123539E-1	9.039418E-1	9.375780E-1	8.902448E-1	9.443700E-1	9.710076E-1	9.818236E-1	9.213765E-1	9.279921E-1	8.886419E-1	9.339499E-1	9.471989E-1	9.366420E-1	9.049446E-1	9.252783E-1	9.241267E-1	9.613253E-1	9.360690E-1	9.182751E-1	9.102030E-1	9.607830E-1	8.984569E-1	9.664636E-1	9.679405E-1	9.458018E-1	9.368226E-1	8.999838E-1	9.889284E-1	9.155917E-1	9.076456E-1	9.239528E-1	9.210031E-1	9.388295E-1	9.626246E-1	9.703958E-1	9.612501E-1	8.955507E-1	9.159333E-1	9.827684E-1	9.787139E-1	9.739149E-1	9.550593E-1	9.501864E-1	9.899833E-1	9.083150E-1	9.138966E-1	9.606040E-1	9.614150E-1	9.977955E-1	9.102191E-1	9.475650E-1	9.224075E-1	9.726796E-1	9.445538E-1	9.300610E-1	8.935715E-1	9.087024E-1	9.561051E-1	9.521987E-1	9.683934E-1	9.980608E-1	9.698772E-1	9.221327E-1	9.018574E-1
2.990010E+2	9.149180E-1	9.388140E-1	8.146100E-1	8.639909E-1	8.862195E-1	9.380010E-1	8.710874E-1	9.161009E-1	9.094281E-1	8.971522E-1	9.447757E-1	8.816928E-1	8.968527E-1	9.309112E-1	8.928847E-1	9.646195E-1	9.359358E-1	9.418378E-1	9.224317E-1	8.941929E-1	9.398740E-1	9.326536E-1	9.100498E-1	9.570273E-1	9.179732E-1	9.097982E-1	9.339530E-1	9.145536E-1	8.976999E-1	9.216028E-1	8.928252E-1	8.764565E-1	9.085287E-1	9.126761E-1	9.153555E-1	9.113271E-1	8.945166E-1	9.016964E-1	8.681392E-1	9.003758E-1	9.102414E-1	9.395900E-1	9.145909E-1	8.618843E-1	8.794627E-1	8.751430E-1	9.112920E-1	9.309127E-1	9.192778E-1	9.043085E-1	9.145749E-1	8.847313E-1	9.116735E-1	9.277598E-1	9.092145E-1	9.084562E-1	8.878792E-1	9.076208E-1	9.022217E-1	8.976695E-1	8.819355E-1	8.922073E-1	9.503321E-1	9.245170E-1	8.790498E-1	8.546913E-1	9.016972E-1	8.648145E-1	9.012008E-1	8.968382E-1	9.165641E-1	9.107122E-1	9.026495E-1	9.039655E-1	8.946980E-1	9.535916E-1	8.776030E-1	9.131377E-1	9.263647E-1	9.499687E-1	9.104642E-1	9.287452E-1	9.426877E-1	8.642099E-1	9.577135E-1	8.985285E-1	9.301217E-1	9.308614E-1	9.010258E-1	8.938049E-1	9.094644E-1	8.815445E-1	9.101730E-1	8.700730E-1	9.215413E-1	8.820176E-1	8.909978E-1	9.097671E-1	8.911175E-1	9.275033E-1	8.942287E-1	8.920890E-1	8.964073E-1	9.295446E-1	8.758422E-1	9.183646E-1	8.727732E-1	9.260904E-1	9.299419E-1	8.913881E-1	8.715333E-1	9.561204E-1	8.659268E-1	8.433077E-1	9.140051E-1	9.339029E-1	9.045527E-1	8.909822E-1	8.757197E-1	8.767714E-1	9.523845E-1	9.060581E-1	8.912702E-1	9.242477E-1	9.204935E-1	8.956270E-1	9.167838E-1	9.427146E-1	9.288006E-1	8.963631E-1	8.923782E-1	8.952171E-1	9.473628E-1	9.027421E-1	9.341018E-1	9.053846E-1	9.340113E-1	9.018010E-1	9.109938E-1	8.963946E-1	9.050907E-1	9.073922E-1	9.349576E-1	8.872524E-1	9.470327E-1	9.028995E-1	9.327013E-1	9.058984E-1	8.980985E-1	9.154347E-1	9.598405E-1	8.842194E-1	8.948465E-1	8.725828E-1	8.996228E-1	8.674931E-1	8.387603E-1	9.257284E-1	9.052793E-1	9.095912E-1	8.831580E-1	9.184526E-1	8.958751E-1	9.201827E-1	9.013215E-1	9.515688E-1	8.949254E-1	9.442465E-1	8.641715E-1	8.896774E-1	9.885975E-1	9.489671E-1
2.995020E+2	1.039531E+0	9.973793E-1	1.047360E+0	1.016939E+0	1.035666E+0	1.065186E+0	1.036533E+0	1.015334E+0	1.041373E+0	1.057203E+0	9.736452E-1	1.063613E+0	9.881880E-1	1.014948E+0	1.022078E+0	1.004622E+0	1.020714E+0	1.035078E+0	9.658258E-1	1.039444E+0	9.828964E-1	1.042180E+0	1.091029E+0	1.037660E+0	9.974935E-1	1.001964E+0	1.044053E+0	1.007810E+0	1.048306E+0	9.790006E-1	1.016964E+0	1.035346E+0	9.599485E-1	1.052634E+0	1.003843E+0	1.001238E+0	9.995494E-1	1.012288E+0	1.021421E+0	9.783443E-1	1.054060E+0	1.037650E+0	1.048245E+0	1.064107E+0	1.046488E+0	9.996794E-1	1.001301E+0	1.002829E+0	1.090799E+0	1.035876E+0	1.012568E+0	1.014616E+0	9.480039E-1	1.044937E+0	1.023157E+0	1.039787E+0	1.063064E+0	1.000786E+0	1.011655E+0	1.027614E+0	1.029533E+0	1.053498E+0	1.005098E+0	1.063866E+0	1.039380E+0	1.033319E+0	1.032678E+0	9.850892E-1	1.029484E+0	1.017296E+0	1.021022E+0	1.003757E+0	1.008134E+0	1.042959E+0	1.006251E+0	1.044821E+0	1.075948E+0	1.027690E+0	9.812567E-1	1.011432E+0	1.023499E+0	1.031473E+0	1.034924E+0	1.022864E+0	1.021749E+0	9.838353E-1	1.028826E+0	1.022642E+0	9.736295E-1	1.017906E+0	1.044413E+0	1.011008E+0	1.038589E+0	1.031534E+0	1.027763E+0	1.018997E+0	1.042487E+0	9.816990E-1	9.845057E-1	9.839805E-1	1.029363E+0	1.027704E+0	1.039596E+0	9.745098E-1	1.031926E+0	9.981681E-1	1.065732E+0	1.023818E+0	1.005072E+0	1.083377E+0	1.042205E+0	1.001357E+0	9.939172E-1	9.871322E-1	1.001376E+0	1.051607E+0	1.000999E+0	1.058736E+0	1.015882E+0	1.036585E+0	1.039663E+0	1.057531E+0	1.084857E+0	1.036793E+0	1.003192E+0	1.012681E+0	1.046301E+0	9.734893E-1	1.039157E+0	1.010171E+0	9.888264E-1	9.833808E-1	1.038748E+0	1.023600E+0	1.029369E+0	1.021715E+0	1.016445E+0	1.007200E+0	1.014463E+0	1.006187E+0	1.029408E+0	1.022111E+0	1.004271E+0	1.005556E+0	9.935491E-1	1.032865E+0	9.694689E-1	9.759748E-1	1.008866E+0	9.642876E-1	9.689864E-1	1.003217E+0	1.052078E+0	1.074988E+0	1.013310E+0	1.038521E+0	1.033413E+0	1.020363E+0	1.073581E+0	1.051085E+0	1.069270E+0	1.025857E+0	1.082014E+0	1.000445E+0	9.898413E-1	1.023084E+0	1.022526E+0	1.032639E+0	1.039683E+0	1.048080E+0	1.009917E+0	1.072472E+0
3.000030E+2	1.086580E+0	1.067339E+0	1.079889E+0	1.086450E+0	1.100069E+0	1.073891E+0	1.133913E+0	1.086656E+0	1.057494E+0	1.103503E+0	1.038491E+0	1.070371E+0	1.037673E+0	1.063112E+0	1.076772E+0	1.084902E+0	1.094811E+0	1.060773E+0	1.068297E+0	1.060264E+0	1.074650E+0	1.095184E+0	1.087252E+0	1.088664E+0	1.113352E+0	1.078108E+0	1.124910E+0	1.097910E+0	1.055153E+0	1.065212E+0	1.087494E+0	1.086178E+0	1.108978E+0	1.121824E+0	1.109563E+0	1.040711E+0	1.049565E+0	1.033956E+0	1.090704E+0	1.079111E+0	1.046579E+0	1.062774E+0	1.076322E+0	1.098320E+0	1.057965E+0	1.074744E+0	1.092787E+0	1.031643E+0	1.128859E+0	1.080042E+0	1.098370E+0	1.114998E+0	1.056153E+0	1.066715E+0	1.096858E+0	1.075446E+0	1.045464E+0	1.145615E+0	1.097812E+0	1.066677E+0	1.069214E+0	1.055135E+0	1.082983E+0	1.065803E+0	1.079229E+0	1.085117E+0	1.085216E+0	1.071792E+0	1.037276E+0	1.069278E+0	1.074345E+0	1.055890E+0	1.085412E+0	1.061330E+0	1.149452E+0	1.075084E+0	1.079444E+0	1.124104E+0	1.061796E+0	1.096900E+0	1.087134E+0	1.070092E+0	1.079111E+0	1.095867E+0	1.067265E+0	1.091151E+0	1.065817E+0	1.055687E+0	1.113576E+0	1.136056E+0	1.077019E+0	1.084986E+0	1.120130E+0	1.069820E+0	1.126527E+0	1.113421E+0	1.095894E+0	1.084975E+0	1.160305E+0	1.112446E+0	1.084142E+0	1.074327E+0	1.071460E+0	1.047253E+0	1.126154E+0	1.125655E+0	1.044174E+0	1.059506E+0	1.084718E+0	1.059528E+0	1.032356E+0	1.058816E+0	1.139026E+0	1.106567E+0	1.131869E+0	1.039416E+0	1.072106E+0	1.126239E+0	1.114815E+0	1.122590E+0	1.041367E+0	1.104294E+0	1.055791E+0	1.115947E+0	1.046044E+0	1.077952E+0	1.069714E+0	1.110769E+0	1.044482E+0	1.094286E+0	1.095860E+0	1.059054E+0	1.091001E+0	1.064357E+0	1.146043E+0	1.071955E+0	1.089338E+0	1.072841E+0	1.089037E+0	1.129891E+0	1.102863E+0	1.094072E+0	1.076095E+0	1.103720E+0	1.081672E+0	1.084174E+0	1.106382E+0	1.082069E+0	1.099058E+0	1.084291E+0	1.074136E+0	1.074521E+0	1.105576E+0	1.088695E+0	1.134890E+0	1.103473E+0	1.090387E+0	1.105266E+0	1.063158E+0	1.080752E+0	1.064679E+0	1.111438E+0	1.076627E+0	1.160223E+0	1.110338E+0	1.040396E+0	1.084700E+0	1.054779E+0	1.066486E+0	1.057491E+0	1.030617E+0	1.087823E+0
