Photon Energy (eV)	#1	#2	#3	#4	#5	#6	#7	#8	#9	#10	#11	#12	#13	#14	#15	#16	#17	#18	#19	#20	#21	#22	#23	#24	#25	#26	#27	#28	#29	#30	#31	#32	#33	#34	#35	#36	#37	#38	#39	#40	#41	#42	#43	#44	#45	#46	#47	#48	#49	#50	#51	#52	#53	#54	#55	#56	#57	#58	#59	#60	#61	#62	#63	#64	#65	#66	#67	#68	#69	#70	#71	#72	#73	#74	#75	#76	#77	#78	#79	#80	#81	#82	#83	#84	#85	#86	#87	#88	#89	#90	#91	#92	#93	#94	#95	#96	#97	#98	#99	#100	#101	#102	#103	#104	#105	#106	#107	#108	#109	#110	#111	#112	#113	#114	#115	#116	#117	#118	#119	#120	#121	#122	#123	#124	#125	#126	#127	#128	#129	#130	#131	#132	#133	#134	#135	#136	#137	#138	#139	#140	#141	#142	#143	#144	#145	#146	#147	#148	#149	#150	#151	#152	#153	#154	#155	#156	#157	#158	#159	#160	#161	#162	#163	#164	#165	#166	#167	#168	#169	#170	
5.300470E+2	-3.269690E-3	-5.063751E-3	-4.711243E-3	7.688865E-3	-7.451220E-3	4.035579E-3	-6.452949E-3	3.615114E-3	-1.345009E-2	-8.101518E-3	-8.350458E-3	-4.458499E-3	-6.140170E-3	-4.946995E-3	-7.881480E-3	2.521192E-4	-1.145678E-2	-1.605066E-2	-9.202344E-3	-6.342187E-3	-5.256113E-3	-9.843064E-3	-7.173268E-3	8.745067E-4	-1.569966E-2	-9.625854E-3	-7.381007E-3	-3.945755E-3	-6.536230E-3	-5.637397E-3	-1.157482E-2	-7.986123E-3	6.453071E-3	-8.354097E-3	-5.797254E-3	-4.907713E-3	-8.470489E-3	9.288921E-4	-7.695345E-3	7.357045E-3	-5.440477E-3	-7.590213E-3	-7.741877E-3	-1.741909E-3	-5.116677E-3	-1.984442E-3	-6.479744E-3	-1.449444E-2	-1.459666E-3	3.506487E-3	-1.636798E-3	-3.900049E-3	9.989625E-4	-7.805231E-3	-4.628722E-3	5.856224E-4	-9.572186E-3	-9.688880E-4	-7.878444E-3	-8.301365E-3	3.929532E-4	-3.073703E-3	-6.732236E-3	-9.813839E-3	3.651972E-3	-6.181114E-3	2.207975E-4	-2.267451E-3	-1.941757E-3	-5.177707E-3	-9.413616E-3	-2.497592E-3	-2.639560E-3	-7.576550E-3	-5.134752E-3	-2.745206E-3	3.547349E-3	-6.739077E-3	-1.486682E-3	-4.500680E-3	-4.680784E-3	-7.787409E-3	-4.063925E-3	-9.279654E-3	-1.733344E-3	-1.493758E-2	4.040768E-4	-3.857036E-3	-1.038505E-2	-1.419437E-2	-1.741469E-3	-1.073255E-2	-1.054407E-2	-2.922658E-3	-1.170756E-2	-1.126883E-2	-1.678152E-3	-8.674395E-3	-9.826437E-4	1.387868E-4	-5.699333E-3	-1.950218E-3	-1.715953E-3	-1.297154E-3	-4.338366E-3	-1.376722E-2	3.945395E-4	5.026237E-3	-5.125209E-3	-3.763002E-3	-7.694970E-3	2.256719E-3	1.383825E-3	-1.615492E-2	-1.242321E-2	-4.381596E-3	-6.038982E-3	-3.402697E-3	-1.204279E-3	-3.855335E-3	-5.632081E-4	-1.092662E-2	3.332393E-3	-5.009327E-3	-6.479655E-4	-6.568881E-3	-5.004156E-3	-9.090400E-3	-1.221367E-3	-6.412370E-3	-2.681171E-3	6.293906E-3	-4.543814E-3	-7.115633E-3	-7.147349E-3	-4.954838E-3	-8.850966E-3	-5.676675E-3	-4.046926E-3	-1.832005E-3	-3.097180E-3	5.486098E-4	-1.005457E-2	2.759523E-3	-1.566033E-2	-9.150996E-3	-4.803540E-3	-1.291437E-2	-1.424264E-3	-8.071286E-3	1.577197E-3	-1.024951E-2	-2.210463E-3	-1.138493E-2	-1.094107E-2	8.048463E-5	-6.070339E-3	-5.963976E-3	-1.127441E-3	-1.105605E-2	-1.360534E-2	-2.944890E-3	-9.242751E-3	9.560216E-3	5.074543E-3	-1.335947E-3	-3.835308E-3	-3.793973E-3	-1.488818E-3	-2.042518E-2
5.305130E+2	-1.645754E-3	2.711540E-3	-4.798208E-3	2.688119E-3	-6.160060E-3	-1.044379E-2	8.020186E-4	-3.940722E-3	-3.317444E-3	5.616340E-3	-5.583260E-3	-5.119821E-3	-2.911928E-3	-3.108692E-3	-3.889930E-3	-6.260591E-3	-4.540499E-3	1.760020E-3	-5.065010E-3	4.547466E-3	1.074696E-4	-5.096028E-3	-6.912411E-3	-5.193767E-3	-3.756125E-3	2.819931E-4	3.990528E-3	-3.518870E-3	-4.625164E-3	-4.098248E-3	-4.516066E-3	4.246644E-4	-9.184659E-3	3.942683E-3	3.800511E-3	2.464135E-3	-3.321031E-3	-5.501723E-3	1.009281E-3	-2.045629E-3	-2.484150E-3	-2.446740E-3	-1.968475E-3	1.184483E-3	-6.796958E-3	-1.040269E-2	-3.544239E-3	-3.020913E-3	3.525591E-3	-1.304411E-2	-7.781498E-3	-7.733086E-3	-4.468835E-3	-9.800841E-3	-8.535888E-3	-4.908473E-3	-1.846010E-3	-1.520828E-2	-6.943818E-3	-3.130424E-3	2.601731E-3	-3.846342E-3	-2.903882E-3	-5.526950E-3	-4.781744E-4	-3.778337E-3	-5.932923E-3	2.165035E-3	-5.285069E-3	-5.943716E-3	-4.035160E-3	3.273681E-3	-3.408386E-3	-2.826538E-3	-2.422870E-3	1.074406E-3	-4.514436E-3	-2.493656E-3	-5.524999E-3	-4.401700E-3	-4.368773E-4	-7.888276E-3	-5.420203E-3	6.395554E-3	5.358373E-3	-3.325129E-3	-9.747085E-3	-3.630654E-3	-3.976935E-3	-4.659794E-3	-8.816959E-3	-7.652283E-3	-3.203817E-3	-1.038627E-2	-1.239633E-2	1.275665E-3	1.543868E-3	-5.125989E-4	-2.975047E-3	-1.126638E-2	2.211287E-3	-5.129292E-4	-1.044982E-3	-1.510114E-3	-6.234196E-3	-1.269448E-2	-4.340254E-4	-5.092117E-3	-5.375237E-3	-3.191726E-3	-1.480670E-2	-9.331873E-3	-1.157291E-2	-9.525896E-4	-9.822852E-4	-4.528243E-3	-2.613550E-3	-4.117819E-3	-6.394284E-4	-2.559971E-3	-3.308919E-3	2.300932E-3	-3.865579E-3	-5.137269E-3	1.976273E-3	-4.471679E-3	-8.497610E-3	-3.526120E-4	-1.326013E-4	6.781430E-4	-1.340248E-2	-1.579658E-4	3.837015E-3	-1.931930E-3	-3.443718E-3	-3.188524E-3	-7.646906E-3	-1.355479E-3	-8.055836E-3	-5.249339E-3	-9.175919E-3	1.508359E-3	-6.344263E-3	-8.267836E-3	-2.335609E-3	-4.113535E-3	-2.437149E-3	-1.097054E-3	-7.745263E-3	-1.065630E-2	-5.993347E-3	2.158583E-3	-1.043674E-2	-1.081447E-2	-1.995638E-3	-1.304118E-3	-7.361952E-3	-7.219288E-3	-6.271595E-5	-6.684177E-3	1.735775E-2	-3.020076E-3	-1.221027E-3	-4.351071E-3	-8.043509E-3	-6.875627E-3	-3.276844E-3	-4.555018E-3	-3.600320E-3	3.204454E-3
5.310100E+2	-7.697587E-3	-9.702811E-3	4.334364E-3	1.536583E-2	-3.254890E-3	-2.656584E-3	-5.060582E-3	-4.932005E-4	-5.720448E-3	-8.258775E-3	6.501223E-4	2.093998E-3	-2.911985E-3	-9.212179E-3	-6.472531E-4	1.382686E-3	-3.275353E-3	3.433211E-3	3.864461E-3	2.118537E-3	-9.329901E-3	-9.120201E-3	2.217187E-3	2.106395E-3	-7.778784E-3	2.820361E-4	-8.581028E-3	-2.354509E-3	-3.739739E-3	-4.942786E-4	4.933651E-4	-2.732176E-3	-4.673785E-3	2.319911E-3	-7.108190E-3	-1.242392E-3	1.156775E-3	-4.644278E-3	-3.847084E-3	-8.744683E-3	-2.052327E-5	-8.340310E-3	-1.382283E-3	-1.204375E-3	-3.970358E-3	-2.756992E-3	-2.199767E-3	-6.339044E-4	-6.868341E-3	-1.823359E-3	3.570891E-3	-2.650612E-3	-7.566358E-4	5.057001E-3	-2.622358E-3	3.620013E-4	1.395736E-3	-3.489334E-3	4.379584E-3	-3.130414E-3	2.601728E-3	-3.408996E-3	-3.356069E-3	-5.995130E-4	-9.305939E-3	5.101639E-3	3.489102E-3	-3.101331E-3	-1.739193E-3	5.546533E-3	1.258263E-4	-3.661785E-3	-4.023389E-3	3.853237E-3	2.176902E-3	4.176880E-4	-3.563188E-3	-7.981488E-3	-1.046288E-3	-2.573469E-3	8.113099E-4	-4.860858E-3	-8.031817E-4	-2.916453E-3	-3.977116E-3	-4.985529E-4	-5.054720E-3	-4.098989E-3	1.819427E-3	1.387537E-3	-4.361650E-3	-2.101859E-4	2.640068E-3	-4.557979E-4	3.038576E-3	6.655332E-3	-7.182426E-3	-1.104044E-3	2.514232E-3	8.713389E-3	4.889821E-3	-2.770425E-3	-1.045025E-3	2.422236E-3	-3.826765E-3	6.615391E-3	-9.903090E-3	-6.410487E-3	-3.750050E-4	-6.948203E-3	6.867115E-3	2.866674E-3	4.847846E-4	-2.220297E-3	1.906806E-3	-1.386046E-3	1.001248E-3	-5.501957E-3	-3.280268E-3	-5.588164E-3	5.561798E-3	-4.057519E-3	-7.064671E-3	-1.300319E-3	-4.827321E-3	3.495028E-4	-1.647756E-3	-6.487161E-3	1.123657E-3	1.282485E-3	-4.767897E-3	-1.605833E-2	-1.029934E-2	-1.478537E-3	-5.880294E-3	1.787082E-3	7.381497E-4	-3.053753E-3	-8.854463E-4	7.157540E-3	1.010215E-2	-3.250646E-3	8.016190E-4	-5.856601E-3	2.998716E-3	-6.010482E-3	5.966751E-4	-4.382669E-3	6.361694E-3	-1.821481E-3	-7.367020E-3	-1.645376E-3	1.172382E-2	-1.021391E-2	1.590513E-3	2.559973E-3	-5.812039E-3	6.059018E-4	-4.385760E-3	-1.137439E-4	6.615243E-3	-5.597995E-3	-4.290542E-3	-5.706019E-3	3.468835E-3	-6.399483E-3	-6.165339E-3	-4.035678E-4	-3.600320E-3	-1.000469E-2
5.315180E+2	7.749396E-4	7.513796E-4	-2.841265E-3	-9.989592E-3	-2.286485E-3	7.077422E-3	-1.640695E-3	-6.239135E-3	-4.518979E-3	-5.483769E-3	-2.183236E-3	-1.113125E-2	-4.477114E-4	-4.928941E-4	-1.839789E-4	6.637438E-3	5.580800E-3	1.202266E-3	-3.026030E-4	-2.132036E-3	4.826162E-3	3.846562E-3	9.129681E-4	2.106397E-3	3.714578E-3	-3.048545E-4	5.133358E-3	-2.354558E-3	-1.083432E-3	-4.548712E-3	-1.328256E-3	8.756309E-4	7.167314E-3	-1.066192E-2	3.556561E-4	-6.802158E-3	-1.977668E-3	-2.500784E-3	7.190128E-3	-3.002645E-3	1.211252E-3	6.125765E-3	2.134479E-3	-4.787741E-3	1.393154E-2	1.101853E-4	-2.647933E-3	-3.020869E-3	-8.600687E-3	1.542852E-3	-5.078544E-3	-2.015356E-3	-1.514155E-2	7.678991E-3	4.135908E-3	-4.908502E-3	2.692469E-3	2.649158E-3	-4.247755E-3	1.432166E-3	-9.807138E-3	8.989457E-5	-1.999559E-3	1.864223E-3	-4.261509E-3	-1.688967E-3	-5.932952E-3	-6.392805E-3	9.911567E-3	-1.262518E-3	2.899876E-3	3.013705E-4	8.277441E-3	-1.173285E-2	-4.147714E-3	4.177120E-4	-1.660713E-3	3.451468E-3	7.451720E-4	-2.882079E-4	-1.167070E-2	3.010678E-3	9.282455E-4	-3.498495E-3	-6.925189E-3	2.327957E-3	1.068734E-4	-2.694059E-3	-4.620927E-3	2.596962E-3	3.912589E-3	-2.101481E-4	5.150263E-4	3.800110E-3	2.042764E-3	-5.571266E-3	1.543880E-3	6.703314E-4	-5.353843E-4	-6.271427E-3	-1.538663E-3	-1.867438E-3	-1.195621E-4	-5.934145E-3	1.061768E-2	-4.063414E-4	-3.984883E-3	-7.728809E-3	7.125334E-3	3.382147E-3	9.971532E-4	-2.500704E-3	-3.322871E-3	7.921646E-3	-3.293586E-3	2.384575E-3	-7.777511E-3	2.802902E-3	4.202132E-3	-1.045823E-3	-3.308939E-3	1.722874E-3	-3.332381E-3	-9.613673E-3	-2.883437E-3	-1.170345E-2	1.092180E-3	2.478742E-3	1.751799E-3	7.387840E-5	1.661499E-4	2.288244E-3	-1.211683E-3	-1.025153E-3	3.378751E-3	-3.686075E-3	3.318225E-3	2.607189E-3	1.721942E-3	-5.902352E-3	-6.570775E-3	-9.437345E-3	5.748744E-3	-1.034166E-3	1.033339E-2	5.371145E-3	5.450705E-3	-3.725548E-3	-3.404659E-3	-8.398339E-4	1.332986E-3	7.049381E-3	-1.706843E-3	1.020391E-2	1.294667E-2	6.279181E-4	1.937327E-3	2.562231E-3	-8.228456E-3	-1.124544E-3	-6.141552E-3	-2.375590E-3	7.987641E-3	-7.738516E-3	-2.590276E-3	-2.589950E-3	-2.121481E-3	4.578081E-3	3.360573E-3	1.641349E-2
5.320070E+2	3.195693E-3	7.514036E-4	4.204232E-4	-2.689314E-2	9.334227E-3	-4.603353E-3	-5.549165E-3	-1.642369E-3	1.530575E-2	6.628923E-5	2.350079E-3	8.105473E-3	1.030893E-3	8.662411E-3	1.093371E-2	-6.738267E-3	5.580742E-3	-4.710030E-4	9.222174E-3	2.118585E-3	1.523093E-3	1.144774E-2	6.999349E-3	-1.999952E-3	3.139948E-3	-1.478475E-3	1.133345E-3	2.884962E-3	5.557360E-3	5.362079E-3	2.770348E-3	-4.772907E-4	-4.673781E-3	8.269906E-3	3.800497E-3	8.023966E-3	2.052309E-3	1.164645E-2	5.677966E-4	-1.316117E-4	-3.715967E-3	7.679364E-4	1.548394E-3	1.781733E-3	-3.028134E-3	1.253446E-2	1.833761E-3	4.617533E-3	6.384039E-4	4.909063E-3	3.030295E-3	-2.015313E-3	8.059948E-3	4.183011E-3	5.825529E-3	3.715988E-3	5.285870E-3	9.750811E-4	6.050979E-4	5.994659E-3	-1.865474E-3	6.212983E-3	4.782901E-3	1.864205E-3	5.196807E-3	3.012224E-3	5.447305E-4	9.406365E-3	-5.285032E-3	5.120968E-3	1.050500E-3	1.292162E-3	5.817298E-3	1.387281E-2	5.626660E-3	-1.552255E-3	-7.843802E-3	1.164874E-3	2.536719E-3	5.653509E-3	5.804166E-3	4.827233E-3	-2.534563E-3	-1.170467E-3	8.306411E-3	9.147076E-4	1.277629E-2	5.840848E-4	6.971675E-3	1.348217E-2	1.366666E-3	1.030164E-3	-6.922669E-3	1.707471E-5	1.100499E-2	3.720943E-3	2.014164E-4	-6.426944E-3	-2.975032E-3	2.469727E-3	-2.074394E-3	8.415212E-4	-1.507731E-3	4.388461E-3	8.210309E-3	9.541190E-3	1.933298E-3	1.813089E-4	-3.375156E-3	6.669060E-3	3.706402E-3	1.402836E-3	-2.053672E-3	3.484495E-3	1.906802E-3	-7.042046E-3	4.099638E-3	1.156910E-2	-1.993086E-4	8.038733E-3	-4.576161E-3	1.722867E-3	1.466233E-3	9.571070E-3	-1.425466E-3	6.617126E-3	1.092149E-3	1.192644E-4	-5.157710E-3	3.095401E-3	1.065109E-2	-1.992671E-3	3.332125E-3	-5.559019E-3	2.891404E-3	3.777275E-3	5.898281E-3	8.268127E-3	6.936815E-3	-2.637390E-3	4.891863E-3	8.170908E-3	2.519559E-4	8.610781E-3	6.999474E-3	6.635757E-3	-2.437157E-3	5.474266E-3	-1.776941E-3	7.994939E-3	5.911920E-3	2.158583E-3	-6.407505E-3	1.196041E-3	9.928051E-4	-5.812268E-3	6.586996E-3	6.059137E-4	5.221018E-3	1.151094E-2	-8.155733E-3	-4.309061E-3	6.207541E-4	2.423972E-3	8.922101E-3	8.362415E-3	2.500163E-3	-7.045928E-3	-3.600320E-3	-3.400185E-3
5.325070E+2	8.642399E-3	1.055224E-2	7.595929E-3	1.113992E-2	9.818428E-3	6.590729E-3	1.790137E-2	8.700312E-3	1.170121E-2	1.616143E-2	1.311675E-2	1.051010E-2	1.138090E-2	9.098349E-3	1.668932E-3	4.726615E-3	8.111084E-3	1.012616E-2	1.483322E-3	-3.103656E-4	8.129289E-3	8.764994E-3	3.956175E-3	2.106420E-3	2.038004E-2	1.084515E-2	5.704805E-3	9.288730E-3	1.042720E-2	9.416557E-3	1.415543E-2	9.895295E-3	4.911841E-3	4.483516E-3	4.948781E-3	2.464162E-3	1.056010E-2	7.144439E-5	2.775223E-3	6.567523E-3	1.044986E-2	1.148356E-2	7.409762E-3	4.767809E-3	4.980584E-3	2.499483E-3	1.303792E-2	1.655259E-2	1.276470E-2	4.909063E-3	7.895654E-3	1.831442E-2	1.130811E-2	6.870689E-4	5.825531E-3	5.153364E-3	2.044120E-3	1.604226E-2	1.408533E-2	7.135377E-3	6.076200E-3	4.026163E-3	1.020885E-2	1.221187E-2	5.196842E-3	3.534555E-3	7.611246E-3	1.901873E-4	4.339485E-3	1.716440E-3	9.372574E-3	1.292165E-3	-4.023404E-3	4.409894E-3	3.901774E-3	2.387655E-3	1.403479E-2	1.259788E-2	4.776077E-3	6.110548E-3	1.017289E-2	1.269863E-2	1.189363E-2	1.046952E-2	-1.029136E-3	1.551860E-2	1.514562E-3	1.369665E-2	1.019181E-2	1.387500E-3	9.640823E-3	1.777500E-2	1.751546E-2	9.947541E-3	8.017558E-3	5.188157E-3	5.571414E-3	1.604765E-2	4.953876E-3	6.215901E-3	2.211283E-3	6.259488E-3	5.433253E-3	1.930715E-3	-4.428666E-3	1.071146E-2	1.199416E-2	1.402387E-2	7.125273E-3	3.851724E-3	1.093100E-2	5.306346E-3	1.508085E-2	7.921665E-3	1.288548E-2	1.495336E-2	1.132916E-2	-1.349531E-3	1.121153E-3	5.010561E-3	6.195429E-3	9.237461E-3	9.464005E-3	1.148952E-2	7.807917E-3	1.577738E-2	1.296519E-2	1.333217E-2	3.636223E-3	1.282463E-3	1.003431E-2	9.626817E-3	8.885694E-3	1.711027E-2	1.020121E-2	6.265079E-3	6.543217E-3	-7.894083E-4	4.329450E-3	8.463546E-3	3.849858E-3	2.460114E-3	9.596517E-3	3.788299E-3	-2.335641E-3	7.268111E-3	3.630466E-3	1.664538E-2	7.989433E-3	1.339396E-2	4.538266E-3	5.283351E-4	9.037732E-3	2.101335E-2	-2.593280E-3	3.848009E-3	1.072001E-2	9.409218E-3	8.583354E-3	7.467572E-3	3.929624E-3	1.824761E-2	6.145926E-3	5.811418E-3	-6.831694E-3	8.838591E-3	1.289881E-2	1.122041E-2	8.929206E-3	1.421211E-2
5.330030E+2	3.224443E-2	1.404758E-3	3.303667E-2	2.804357E-2	1.659717E-2	1.048433E-2	1.203873E-2	1.559541E-2	1.770877E-2	1.505138E-2	1.481677E-2	2.433648E-2	2.813812E-2	8.226388E-3	8.154276E-3	1.141451E-2	2.139536E-2	1.570362E-2	2.529525E-2	1.244148E-2	1.190425E-2	2.486164E-2	9.607833E-3	1.351293E-2	1.061061E-2	1.671363E-2	1.941927E-2	9.288687E-3	1.662528E-2	2.788672E-2	1.962020E-2	2.116982E-2	2.013604E-2	9.351797E-3	2.676618E-2	1.667248E-2	1.190342E-2	1.121771E-2	9.839042E-3	2.092266E-2	3.446998E-2	2.487814E-2	2.616611E-2	1.312887E-2	1.251821E-2	1.396804E-2	1.841592E-2	9.868939E-3	1.796167E-2	2.286224E-2	1.600450E-2	1.132603E-2	1.130816E-2	1.729289E-2	2.356606E-2	5.153381E-3	1.306613E-2	2.720314E-2	1.462456E-2	5.424379E-3	1.798874E-2	1.714711E-2	1.427838E-2	1.713926E-2	1.465510E-2	2.338378E-2	2.056654E-2	2.191403E-2	2.460167E-2	8.951085E-3	2.185558E-2	1.863083E-2	1.934821E-2	1.832599E-2	2.172576E-2	1.158090E-2	1.451042E-2	2.723209E-2	2.984525E-3	7.938770E-3	2.203090E-2	2.299224E-2	3.671016E-2	8.141526E-3	1.862460E-2	3.247802E-2	1.183782E-2	1.088681E-2	1.147989E-2	2.134358E-2	1.727861E-2	1.963558E-2	2.601569E-2	1.136619E-2	1.299658E-2	1.741480E-2	2.168156E-2	2.137055E-2	1.593241E-2	4.967174E-3	1.131832E-2	1.438639E-2	1.376241E-2	6.846201E-3	1.603439E-2	1.773319E-2	1.376966E-2	1.797892E-2	1.412560E-2	2.920802E-2	1.093100E-2	2.238425E-2	2.015783E-2	5.386153E-3	1.981932E-2	2.940754E-2	1.442754E-2	1.203050E-2	1.476556E-2	1.964686E-2	2.330329E-2	3.235907E-2	1.479584E-2	1.980290E-2	3.162051E-2	1.143830E-2	2.072834E-2	1.380409E-2	1.368644E-2	1.336863E-2	2.236947E-2	1.757699E-2	1.898311E-2	2.799152E-2	1.897294E-2	1.024560E-2	9.123281E-3	2.298654E-2	2.388499E-2	1.303450E-2	1.427047E-2	1.911664E-2	2.004048E-2	1.487997E-2	1.900170E-2	2.117900E-2	3.023703E-3	1.598825E-2	2.046870E-2	2.419204E-2	1.644349E-2	2.335198E-2	2.381153E-2	2.701856E-2	8.165158E-3	1.222027E-2	5.037115E-3	1.967977E-2	1.194575E-2	1.302718E-2	1.534352E-2	3.435955E-2	1.167112E-2	2.478133E-2	3.468935E-3	2.455284E-2	1.347651E-2	2.865646E-2	2.145871E-2	-1.198666E-3
5.331580E+2	1.832526E-2	1.969964E-2	1.607622E-2	2.381765E-2	2.724946E-2	9.024251E-3	2.767241E-2	1.099867E-2	2.611925E-2	2.781651E-2	2.501677E-2	1.592039E-2	3.010954E-2	1.999752E-2	2.622060E-2	2.049092E-2	1.633468E-2	2.239657E-2	1.636578E-2	1.851380E-2	2.558846E-2	3.156858E-2	4.825660E-3	2.126939E-2	1.233466E-2	3.021096E-2	2.684789E-2	8.124418E-3	1.485441E-2	2.293129E-2	2.417425E-2	2.522863E-2	1.618902E-2	1.692448E-2	1.815405E-2	2.346776E-2	2.623231E-2	1.593348E-2	2.308373E-2	1.565915E-2	2.523147E-2	2.166342E-2	1.678795E-2	2.268437E-2	1.581593E-2	1.922446E-2	1.527874E-2	1.512039E-2	1.969394E-2	1.444673E-2	2.681628E-2	2.974985E-2	2.801318E-2	1.598193E-2	1.680776E-2	1.569435E-2	1.241776E-2	1.883248E-2	2.055589E-2	1.112761E-2	2.593044E-2	1.452292E-2	2.151300E-2	2.551593E-2	1.087178E-2	2.704019E-2	2.292205E-2	1.269782E-2	1.143125E-2	2.256919E-2	1.769455E-2	1.020916E-2	2.549861E-2	2.611900E-2	2.920032E-2	1.223763E-2	2.259602E-2	2.082960E-2	1.910800E-2	2.347867E-2	2.140670E-2	2.662516E-2	2.459042E-2	3.083955E-2	1.567656E-2	1.551861E-2	1.136859E-2	8.545246E-3	2.178442E-2	1.469164E-2	1.664212E-2	3.079876E-2	1.804676E-2	1.893228E-2	2.046508E-2	1.986011E-2	3.309294E-2	2.314483E-2	2.447125E-2	2.307385E-2	1.613972E-2	2.341626E-2	1.283695E-2	2.699983E-2	1.603443E-2	2.182923E-2	2.525103E-3	1.138721E-2	2.612609E-2	1.277340E-2	1.815556E-2	7.746009E-3	2.015772E-2	7.287765E-3	2.213062E-2	1.369653E-2	2.733749E-2	3.417679E-2	1.784654E-2	2.721736E-2	3.534213E-2	2.600062E-2	3.079128E-2	1.276847E-2	2.190113E-2	1.625950E-2	3.168806E-2	2.277000E-2	4.006816E-2	2.545474E-2	1.990245E-2	2.369253E-2	2.251712E-2	2.300427E-2	1.361244E-2	2.168942E-2	4.137372E-2	2.128825E-2	1.997385E-2	7.810545E-3	1.739659E-2	2.625512E-2	2.333854E-2	2.259586E-2	1.633458E-2	2.054665E-2	3.032794E-2	1.664540E-2	2.480930E-2	2.026553E-2	1.919083E-2	1.574411E-2	1.776769E-2	2.281489E-2	2.848661E-2	2.316851E-2	1.381972E-2	2.016876E-2	2.107213E-2	2.566270E-2	2.340038E-2	2.275899E-2	1.903808E-2	2.884632E-2	1.679903E-2	2.550520E-2	2.560825E-2	1.122039E-2	3.398825E-2	2.081641E-2
5.333130E+2	2.195639E-2	2.623355E-2	4.086456E-2	2.688119E-3	2.482850E-2	2.654547E-2	2.864954E-2	2.191588E-2	1.410426E-2	3.170152E-2	2.615013E-2	2.674105E-2	1.778807E-2	3.002466E-2	2.483088E-2	3.100044E-2	3.594473E-2	3.132048E-2	3.184354E-2	2.458603E-2	2.700403E-2	3.335707E-2	2.830177E-2	2.263817E-2	2.210404E-2	2.962412E-2	3.027649E-2	2.034978E-2	2.946410E-2	2.923819E-2	3.009452E-2	2.162077E-2	2.577469E-2	2.016999E-2	2.045063E-2	2.470330E-2	2.533675E-2	3.093813E-2	4.427519E-2	1.039556E-2	3.693361E-2	3.237905E-2	3.378590E-2	1.312882E-2	3.136227E-2	2.830379E-2	2.782741E-2	3.326164E-2	2.893312E-2	1.388568E-2	3.168164E-2	2.784396E-2	3.126143E-2	3.520976E-2	2.314365E-2	2.144402E-2	1.371446E-2	2.831922E-2	3.026164E-2	2.424493E-2	2.642679E-2	2.152076E-2	2.965205E-2	3.339986E-2	2.348283E-2	2.129438E-2	2.998857E-2	2.718043E-2	2.004262E-2	1.916465E-2	2.509187E-2	2.358467E-2	3.226413E-2	2.667563E-2	2.402558E-2	1.486419E-2	2.877908E-2	1.762836E-2	3.343992E-2	1.753692E-2	2.702369E-2	3.631316E-2	4.825266E-2	3.142158E-2	2.550339E-2	2.635376E-2	1.934566E-2	1.791139E-2	2.436054E-2	3.162408E-2	4.210122E-2	3.203912E-2	3.239089E-2	1.562210E-2	4.087895E-2	2.279450E-2	2.302408E-2	1.486480E-2	3.788939E-2	2.244947E-2	2.899673E-2	2.793122E-2	1.607605E-2	3.437314E-2	3.348821E-2	3.119160E-2	2.856507E-2	2.457064E-2	2.112586E-2	2.310374E-2	1.770406E-2	2.287220E-2	2.460004E-2	3.581199E-2	1.981932E-2	1.998096E-2	2.888668E-2	2.771744E-2	2.885014E-2	1.712333E-2	4.864828E-2	3.235910E-2	3.079133E-2	1.276849E-2	3.064863E-2	2.638404E-2	2.666485E-2	2.843262E-2	4.132443E-2	2.182890E-2	2.113596E-2	2.980802E-2	2.504147E-2	1.620351E-2	1.409977E-2	1.173824E-2	1.105833E-2	4.506410E-2	2.844801E-2	4.372527E-2	2.729612E-2	2.577923E-2	2.278888E-2	2.404260E-2	2.233562E-2	4.078068E-2	2.729408E-2	2.913082E-2	3.077762E-2	3.204519E-2	2.605926E-2	2.987302E-2	3.186993E-2	3.242326E-2	2.071661E-2	3.089676E-2	3.190158E-2	2.603770E-2	2.443452E-2	1.858683E-2	2.138618E-2	3.951536E-2	3.377195E-2	2.207133E-2	2.407002E-2	2.264807E-2	2.560826E-2	2.782621E-2	2.841957E-2	2.081652E-2
5.334580E+2	2.800823E-2	2.296656E-2	4.869241E-2	2.381760E-2	2.192330E-2	3.481934E-2	2.522965E-2	3.628071E-2	3.032450E-2	2.337648E-2	3.635010E-2	2.613991E-2	2.419526E-2	3.351240E-2	4.197072E-2	2.479031E-2	3.910763E-2	2.016558E-2	3.720130E-2	4.037410E-2	2.558847E-2	1.904891E-2	4.047457E-2	3.495717E-2	2.382804E-2	4.898989E-2	4.113374E-2	1.511038E-2	3.920391E-2	3.554507E-2	3.100528E-2	3.740518E-2	2.013609E-2	4.072457E-2	4.341626E-2	3.582287E-2	3.832229E-2	3.093813E-2	2.882309E-2	3.240686E-2	3.939723E-2	2.702120E-2	4.609477E-2	2.148993E-2	3.230448E-2	4.455091E-2	3.947972E-2	2.275881E-2	2.142634E-2	2.959467E-2	4.573699E-2	4.055000E-2	4.286213E-2	4.001668E-2	3.750509E-2	2.479796E-2	1.825290E-2	3.110945E-2	3.619292E-2	4.192492E-2	3.734653E-2	2.633173E-2	2.603469E-2	3.044336E-2	3.609392E-2	4.897883E-2	2.645527E-2	3.244690E-2	3.270653E-2	2.937824E-2	3.572554E-2	2.160315E-2	3.287915E-2	2.723229E-2	5.277398E-2	3.128077E-2	2.116915E-2	2.814671E-2	3.388779E-2	2.713504E-2	3.014418E-2	3.268018E-2	4.652125E-2	2.967554E-2	3.189085E-2	3.907329E-2	3.623819E-2	2.353106E-2	4.174948E-2	4.976601E-2	4.528359E-2	3.638036E-2	3.770354E-2	2.460683E-2	3.739365E-2	2.475072E-2	3.846296E-2	3.083353E-2	2.935051E-2	3.119058E-2	3.971096E-2	1.664383E-2	1.885247E-2	2.896608E-2	2.385854E-2	3.353217E-2	3.389146E-2	2.522990E-2	3.362642E-2	3.906879E-2	1.273710E-2	3.360687E-2	3.792696E-2	2.376845E-2	3.946531E-2	3.380662E-2	4.179660E-2	4.155886E-2	3.457198E-2	3.125500E-2	4.738101E-2	3.987359E-2	3.185767E-2	2.747673E-2	2.676080E-2	3.506226E-2	3.305805E-2	3.551093E-2	4.195253E-2	1.759874E-2	2.483650E-2	3.836968E-2	3.917781E-2	3.751260E-2	3.018127E-2	2.616741E-2	3.814871E-2	3.487445E-2	3.105538E-2	4.503122E-2	3.042232E-2	4.148396E-2	2.993472E-2	4.092119E-2	5.167446E-2	3.066370E-2	2.850763E-2	4.293050E-2	3.132022E-2	2.468289E-2	2.331193E-2	3.313357E-2	3.589915E-2	2.461642E-2	3.147505E-2	4.184505E-2	3.345151E-2	3.728639E-2	3.932492E-2	4.840662E-2	4.152846E-2	2.984817E-2	3.438590E-2	3.900873E-2	3.437063E-2	4.550512E-2	2.791905E-2	2.699585E-2	3.120395E-2	1.421196E-2
5.336080E+2	5.282065E-2	4.126146E-2	5.521565E-2	5.762482E-2	3.693344E-2	3.335927E-2	5.063436E-2	3.340779E-2	3.813424E-2	4.169165E-2	5.108350E-2	4.477554E-2	4.834519E-2	4.484754E-2	3.687506E-2	3.529984E-2	4.859632E-2	3.578244E-2	3.898718E-2	3.551620E-2	3.596961E-2	4.095826E-2	4.525662E-2	4.590744E-2	3.704549E-2	6.072669E-2	4.799092E-2	3.723247E-2	4.495925E-2	4.140147E-2	4.466742E-2	4.416989E-2	3.197716E-2	5.046103E-2	5.949220E-2	4.632468E-2	5.668108E-2	5.151585E-2	5.487089E-2	3.527789E-2	4.494035E-2	5.541765E-2	5.430073E-2	4.537868E-2	3.418892E-2	4.168379E-2	4.889120E-2	3.421642E-2	3.297517E-2	3.576603E-2	4.573700E-2	3.864413E-2	4.100602E-2	4.438668E-2	6.242628E-2	3.821375E-2	3.186828E-2	3.892208E-2	5.722211E-2	3.964360E-2	3.685023E-2	5.038666E-2	5.542528E-2	4.867490E-2	4.113835E-2	4.584473E-2	4.294389E-2	4.034640E-2	3.827862E-2	3.108055E-2	7.363689E-2	3.596953E-2	4.394995E-2	3.947851E-2	5.909862E-2	3.193744E-2	2.877911E-2	3.775041E-2	3.702293E-2	3.216261E-2	4.512265E-2	5.871671E-2	4.536702E-2	4.713554E-2	3.631294E-2	3.860222E-2	6.298471E-2	3.804851E-2	4.754578E-2	4.734706E-2	6.183199E-2	4.878394E-2	5.417270E-2	4.115759E-2	4.386640E-2	4.284620E-2	4.316173E-2	3.970508E-2	4.581833E-2	4.929721E-2	4.935374E-2	4.779698E-2	4.198911E-2	3.486466E-2	4.131228E-2	4.991628E-2	5.223769E-2	5.027842E-2	5.462725E-2	4.658180E-2	4.253865E-2	4.190188E-2	5.061918E-2	3.327648E-2	4.177659E-2	4.449018E-2	4.696057E-2	4.801823E-2	4.029382E-2	3.175968E-2	4.864828E-2	3.698340E-2	4.465412E-2	3.770863E-2	5.786302E-2	3.843708E-2	5.178091E-2	3.409532E-2	5.137457E-2	4.479259E-2	4.950688E-2	5.121227E-2	3.715837E-2	4.839392E-2	4.723742E-2	4.557225E-2	4.653381E-2	4.336592E-2	4.213691E-2	3.850131E-2	4.709529E-2	4.624285E-2	3.872962E-2	4.670817E-2	3.433788E-2	5.153005E-2	3.942937E-2	5.673015E-2	4.488462E-2	4.922397E-2	2.834873E-2	3.150334E-2	6.544672E-2	4.263218E-2	3.506119E-2	4.120104E-2	4.740035E-2	4.511158E-2	4.989239E-2	4.385783E-2	3.884275E-2	5.176041E-2	3.070234E-2	3.426625E-2	4.285343E-2	6.026703E-2	3.196296E-2	5.522554E-2	5.069429E-2	3.182413E-2
5.337630E+2	3.466526E-2	5.171565E-2	5.847733E-2	1.536580E-2	4.661737E-2	5.039373E-2	6.235964E-2	4.662337E-2	4.954840E-2	5.778673E-2	5.618349E-2	4.597779E-2	4.440241E-2	5.095111E-2	5.679438E-2	3.959913E-2	5.998287E-2	5.418805E-2	3.720131E-2	5.737646E-2	4.635072E-2	4.721808E-2	6.134219E-2	5.138260E-2	6.462954E-2	6.835569E-2	7.141974E-2	4.247198E-2	6.399626E-2	6.122311E-2	5.058749E-2	4.507171E-2	6.580878E-2	5.695189E-2	6.753005E-2	5.064897E-2	6.295011E-2	6.223328E-2	6.237623E-2	4.532650E-2	6.526515E-2	5.595338E-2	6.602344E-2	5.732307E-2	4.031320E-2	5.028521E-2	5.830271E-2	5.713181E-2	4.683382E-2	4.418163E-2	5.168348E-2	3.356167E-2	5.353487E-2	6.317755E-2	6.580544E-2	4.875478E-2	3.964845E-2	5.454737E-2	6.153578E-2	3.565136E-2	6.067531E-2	5.563499E-2	5.497339E-2	5.508062E-2	5.122720E-2	5.994798E-2	5.118817E-2	4.824603E-2	4.385070E-2	4.937995E-2	6.947583E-2	3.894186E-2	4.641011E-2	6.675414E-2	6.714822E-2	4.835388E-2	5.684073E-2	6.473236E-2	5.896865E-2	4.953068E-2	5.261187E-2	5.690020E-2	5.229258E-2	6.052158E-2	5.744074E-2	5.226397E-2	6.861547E-2	4.975612E-2	5.205400E-2	6.186060E-2	5.928611E-2	5.932698E-2	6.586053E-2	4.635923E-2	5.830555E-2	5.311647E-2	7.068322E-2	5.922252E-2	4.764810E-2	5.678963E-2	4.560376E-2	6.043894E-2	6.096117E-2	4.174639E-2	4.973820E-2	4.933110E-2	4.750318E-2	6.609854E-2	4.312677E-2	5.644248E-2	4.073246E-2	5.410044E-2	6.204218E-2	4.912324E-2	5.217743E-2	4.260481E-2	4.799342E-2	4.663406E-2	6.274095E-2	5.194773E-2	7.145875E-2	5.374657E-2	5.531775E-2	5.049844E-2	5.494721E-2	5.193649E-2	5.223756E-2	6.240856E-2	6.519356E-2	7.259071E-2	6.554258E-2	5.610472E-2	5.078986E-2	6.834286E-2	7.014150E-2	4.009904E-2	3.685864E-2	6.374525E-2	5.973693E-2	6.266209E-2	6.428921E-2	5.861637E-2	6.236580E-2	5.490634E-2	5.567522E-2	5.279463E-2	5.459839E-2	6.198715E-2	4.922522E-2	5.462296E-2	4.758025E-2	4.943618E-2	6.208901E-2	5.164004E-2	5.538269E-2	4.828521E-2	4.688373E-2	5.587117E-2	5.277440E-2	7.671000E-2	4.757114E-2	5.304931E-2	5.648664E-2	5.255866E-2	5.073039E-2	4.264803E-2	5.044949E-2	3.529872E-2	4.373340E-2	3.622694E-2
5.339290E+2	6.673998E-2	6.282333E-2	9.435521E-2	9.988374E-2	6.598509E-2	7.034845E-2	8.971863E-2	6.443580E-2	8.258976E-2	9.164208E-2	7.998357E-2	6.461342E-2	7.988813E-2	6.969751E-2	7.208117E-2	6.252904E-2	7.579740E-2	6.813171E-2	6.994279E-2	8.045125E-2	7.985347E-2	7.046851E-2	6.742857E-2	6.050781E-2	1.123269E-1	9.593726E-2	8.570557E-2	7.740171E-2	6.753775E-2	7.744096E-2	9.020779E-2	6.040515E-2	9.625720E-2	6.668832E-2	8.532840E-2	7.844792E-2	7.190563E-2	7.723818E-2	8.268458E-2	5.681072E-2	9.606026E-2	7.363422E-2	9.474405E-2	7.404522E-2	6.952154E-2	8.946941E-2	7.622948E-2	7.049902E-2	6.877665E-2	8.906451E-2	7.763183E-2	7.676233E-2	5.771103E-2	7.585032E-2	8.945967E-2	6.025406E-2	6.752754E-2	7.854318E-2	8.580025E-2	5.047974E-2	7.953678E-2	7.181765E-2	9.385938E-2	7.479023E-2	6.509934E-2	7.666307E-2	8.769852E-2	7.589456E-2	7.120470E-2	7.108358E-2	8.380844E-2	5.925284E-2	8.454285E-2	8.623676E-2	8.382234E-2	7.199364E-2	7.919513E-2	8.439697E-2	8.718465E-2	7.786810E-2	7.195899E-2	8.959716E-2	7.076068E-2	7.681765E-2	7.414624E-2	6.875211E-2	7.706175E-2	6.286879E-2	9.649237E-2	9.693515E-2	7.456160E-2	7.235070E-2	9.136131E-2	8.608114E-2	7.374036E-2	6.485410E-2	8.545091E-2	8.287994E-2	9.339191E-2	6.490641E-2	7.078210E-2	8.030455E-2	7.345487E-2	6.140848E-2	5.816418E-2	8.795097E-2	8.656315E-2	8.257793E-2	8.462841E-2	7.898143E-2	7.504913E-2	6.629885E-2	7.854213E-2	7.954905E-2	9.609205E-2	5.957270E-2	8.569033E-2	7.708519E-2	8.914953E-2	6.910756E-2	7.082511E-2	8.727305E-2	8.890814E-2	6.712519E-2	7.875960E-2	7.556041E-2	7.415690E-2	6.004923E-2	7.712815E-2	6.715195E-2	8.466190E-2	7.078195E-2	9.319902E-2	6.879639E-2	9.694387E-2	5.353314E-2	8.136429E-2	9.431422E-2	9.558893E-2	6.853906E-2	6.845750E-2	8.479097E-2	7.830671E-2	7.660743E-2	7.901295E-2	7.871966E-2	7.340799E-2	8.958655E-2	7.852437E-2	8.603555E-2	6.772763E-2	6.356513E-2	9.096516E-2	7.926415E-2	8.526725E-2	6.052150E-2	6.289909E-2	7.298861E-2	7.150743E-2	7.671016E-2	7.308452E-2	7.109466E-2	8.165697E-2	6.339868E-2	7.436113E-2	7.264789E-2	1.007098E-1	6.767982E-2	5.765521E-2	1.022724E-1
5.340640E+2	1.078925E-1	8.111818E-2	1.165341E-1	7.875425E-2	8.583729E-2	9.273674E-2	9.655834E-2	8.052436E-2	9.580609E-2	1.094023E-1	1.292836E-1	8.986158E-2	1.168528E-1	9.105979E-2	9.570630E-2	9.787924E-2	1.175477E-1	8.653730E-2	8.482528E-2	1.126341E-1	9.448120E-2	9.997938E-2	1.000341E-1	8.286466E-2	1.427848E-1	1.364295E-1	1.165627E-1	9.137374E-2	1.242058E-1	1.089755E-1	1.170763E-1	9.558148E-2	1.126093E-1	1.083384E-1	1.186290E-1	1.031580E-1	1.153402E-1	9.995959E-2	1.228601E-1	8.743514E-2	1.194646E-1	1.095317E-1	1.123281E-1	9.255906E-2	1.062673E-1	1.057166E-1	1.201497E-1	1.048716E-1	1.040005E-1	1.002850E-1	1.197980E-1	1.078922E-1	1.092184E-1	9.289290E-2	1.274749E-1	7.366991E-2	1.031869E-1	1.176065E-1	1.100645E-1	8.698021E-2	9.988729E-2	1.107428E-1	1.214420E-1	9.400738E-2	9.914935E-2	1.147945E-1	1.130202E-1	8.906045E-2	1.061567E-1	1.055546E-1	1.439117E-1	8.055468E-2	1.023791E-1	1.207487E-1	1.441937E-1	9.694672E-2	8.728068E-2	1.282995E-1	1.176402E-1	1.007207E-1	1.131499E-1	1.004962E-1	9.961709E-2	1.158118E-1	9.674786E-2	1.172748E-1	1.249240E-1	8.862541E-2	1.016446E-1	1.108435E-1	9.047349E-2	9.343677E-2	1.216432E-1	9.270152E-2	8.668578E-2	1.064247E-1	1.076025E-1	1.177747E-1	1.196184E-1	8.051556E-2	1.104245E-1	1.019762E-1	1.151007E-1	9.335931E-2	9.547928E-2	1.131121E-1	1.072766E-1	8.653288E-2	1.051294E-1	1.010507E-1	9.265934E-2	9.606336E-2	1.045613E-1	1.131441E-1	9.493624E-2	1.054489E-1	1.218384E-1	1.089205E-1	1.142380E-1	9.484708E-2	1.164461E-1	1.063483E-1	1.129012E-1	1.054947E-1	1.147218E-1	1.030413E-1	1.161693E-1	1.044067E-1	1.173287E-1	1.022015E-1	1.266015E-1	1.325488E-1	1.149082E-1	1.109611E-1	1.105888E-1	9.333792E-2	1.123248E-1	1.158258E-1	1.555596E-1	8.747592E-2	9.659288E-2	1.204834E-1	1.134865E-1	1.089179E-1	1.156865E-1	1.312014E-1	7.644181E-2	1.093002E-1	1.230158E-1	1.120489E-1	1.052748E-1	9.182270E-2	1.090965E-1	1.194993E-1	1.031980E-1	9.658652E-2	1.099120E-1	9.988774E-2	1.056117E-1	1.115842E-1	9.524109E-2	1.058965E-1	1.019161E-1	1.108234E-1	1.137457E-1	1.202671E-1	1.405710E-1	1.208183E-1	7.992987E-2	1.441011E-1
5.342040E+2	1.399670E-1	1.588710E-1	1.595874E-1	1.548205E-1	1.502352E-1	1.462736E-1	1.639786E-1	1.035081E-1	1.444666E-1	1.682326E-1	1.462835E-1	1.397566E-1	1.592385E-1	1.490433E-1	1.378611E-1	1.509044E-1	1.491769E-1	1.596016E-1	1.425694E-1	1.411740E-1	1.685647E-1	1.522936E-1	1.422041E-1	1.175402E-1	2.088716E-1	2.050899E-1	1.914208E-1	1.693833E-1	1.587379E-1	1.842076E-1	1.712691E-1	1.542094E-1	1.774533E-1	1.586432E-1	1.737466E-1	1.791416E-1	1.713123E-1	1.745541E-1	1.912908E-1	1.362427E-1	1.755118E-1	1.754324E-1	1.644944E-1	1.271978E-1	1.576173E-1	1.463345E-1	1.586918E-1	1.626375E-1	1.536606E-1	1.608771E-1	1.608828E-1	1.599871E-1	1.491250E-1	1.588796E-1	1.654905E-1	1.234999E-1	1.544061E-1	1.762015E-1	1.785444E-1	1.383088E-1	1.867491E-1	1.501055E-1	1.526411E-1	1.590495E-1	1.659879E-1	1.644175E-1	1.613079E-1	1.746393E-1	1.654240E-1	1.630059E-1	1.845970E-1	1.365336E-1	1.688036E-1	1.636103E-1	1.844412E-1	1.415995E-1	1.472091E-1	1.735743E-1	1.794464E-1	1.455123E-1	1.699433E-1	1.671013E-1	1.596379E-1	1.582974E-1	1.679929E-1	1.625001E-1	1.784170E-1	1.396708E-1	1.634717E-1	1.695024E-1	1.795804E-1	1.480123E-1	1.864578E-1	1.778199E-1	1.653540E-1	1.812514E-1	1.592893E-1	1.574008E-1	1.543836E-1	1.616833E-1	1.522095E-1	1.633797E-1	1.581350E-1	1.361245E-1	1.568683E-1	1.651903E-1	1.676423E-1	1.643152E-1	1.661319E-1	1.696072E-1	1.793545E-1	1.570560E-1	1.819839E-1	1.499083E-1	1.677421E-1	1.613800E-1	1.631497E-1	1.693613E-1	1.463681E-1	1.518783E-1	1.760068E-1	1.693549E-1	1.720849E-1	1.470614E-1	1.555434E-1	1.459502E-1	1.695980E-1	1.525395E-1	1.669514E-1	1.638410E-1	1.771761E-1	1.570106E-1	1.669100E-1	1.730750E-1	1.880724E-1	1.530449E-1	1.568303E-1	1.814925E-1	2.018411E-1	1.521226E-1	1.559904E-1	1.799712E-1	1.585602E-1	1.667873E-1	1.923678E-1	1.691404E-1	1.195219E-1	1.717275E-1	1.745603E-1	1.645667E-1	1.597643E-1	1.467085E-1	1.621477E-1	1.579326E-1	1.737255E-1	1.474637E-1	1.636410E-1	1.693361E-1	1.642126E-1	1.535339E-1	1.402250E-1	1.555213E-1	1.418206E-1	1.853480E-1	1.537359E-1	1.650286E-1	1.613686E-1	1.548600E-1	1.495384E-1	1.286906E-1
5.343600E+2	2.168251E-1	2.320507E-1	2.724399E-1	2.013052E-1	2.412644E-1	2.358264E-1	2.519181E-1	2.212997E-1	2.459935E-1	2.703538E-1	2.392170E-1	2.455595E-1	2.607671E-1	2.528032E-1	2.476490E-1	2.388024E-1	2.554506E-1	2.393591E-1	2.044804E-1	2.425813E-1	2.572765E-1	2.609459E-1	2.317614E-1	2.229367E-1	3.617339E-1	3.148297E-1	3.382795E-1	2.799941E-1	3.141320E-1	2.950288E-1	3.083452E-1	2.628957E-1	2.896614E-1	2.695296E-1	3.098182E-1	2.853957E-1	3.043022E-1	2.894467E-1	2.822377E-1	2.367291E-1	3.073151E-1	2.916972E-1	3.028226E-1	2.376835E-1	2.636156E-1	2.686660E-1	3.021049E-1	2.447508E-1	2.887824E-1	2.786946E-1	2.781912E-1	2.616360E-1	2.646682E-1	2.768686E-1	2.698219E-1	2.145360E-1	2.490656E-1	2.493052E-1	2.777586E-1	1.919191E-1	2.557426E-1	2.585715E-1	2.584476E-1	2.428161E-1	2.839013E-1	2.856025E-1	2.696612E-1	2.661435E-1	2.636951E-1	2.672699E-1	2.992560E-1	2.281813E-1	2.825866E-1	2.866289E-1	3.310579E-1	2.223687E-1	2.827617E-1	2.783002E-1	2.752913E-1	2.734869E-1	2.685518E-1	2.942560E-1	2.652524E-1	2.624757E-1	2.608566E-1	2.925217E-1	2.567798E-1	2.300538E-1	2.536367E-1	2.789591E-1	2.705966E-1	2.528227E-1	2.762413E-1	2.979311E-1	2.569675E-1	2.663485E-1	2.754164E-1	2.969797E-1	2.617293E-1	2.815618E-1	2.534594E-1	2.536786E-1	2.964920E-1	2.344348E-1	2.507575E-1	2.787088E-1	2.794957E-1	2.638504E-1	2.646363E-1	2.583539E-1	2.633405E-1	2.619630E-1	2.625799E-1	2.792182E-1	2.648164E-1	2.518753E-1	2.896675E-1	2.634827E-1	2.986575E-1	2.538280E-1	2.818216E-1	2.601073E-1	2.749894E-1	2.461828E-1	2.605130E-1	2.568377E-1	2.828482E-1	2.653209E-1	2.699661E-1	2.502567E-1	2.740071E-1	2.891060E-1	2.719228E-1	2.700993E-1	2.991815E-1	2.495716E-1	2.800268E-1	3.020700E-1	2.696344E-1	2.631317E-1	2.846849E-1	2.837175E-1	2.827880E-1	2.733634E-1	2.937199E-1	2.652522E-1	2.317728E-1	2.919814E-1	3.020656E-1	2.489886E-1	2.440169E-1	2.428942E-1	2.897396E-1	2.630242E-1	2.609884E-1	2.183057E-1	2.566333E-1	2.651945E-1	2.593195E-1	2.596724E-1	2.503362E-1	2.760380E-1	2.658308E-1	2.686806E-1	2.797671E-1	2.674091E-1	2.745983E-1	2.569854E-1	2.609120E-1	2.629829E-1
5.345110E+2	4.316657E-1	4.248004E-1	4.681378E-1	4.041484E-1	4.078277E-1	4.061716E-1	4.698123E-1	4.476889E-1	4.760803E-1	4.729300E-1	4.879843E-1	4.842151E-1	4.381959E-1	4.533472E-1	4.352604E-1	4.633243E-1	4.648352E-1	4.267619E-1	4.509351E-1	4.399312E-1	4.309245E-1	4.250421E-1	4.347863E-1	4.674926E-1	6.249323E-1	5.589548E-1	5.868536E-1	5.611787E-1	5.284070E-1	5.171213E-1	5.365023E-1	4.960533E-1	5.501649E-1	4.940079E-1	4.952656E-1	4.861657E-1	5.035636E-1	5.260913E-1	5.131362E-1	4.238249E-1	5.401262E-1	5.451218E-1	5.191072E-1	4.353625E-1	4.610067E-1	4.564638E-1	4.925760E-1	4.304596E-1	4.441146E-1	4.643974E-1	4.749662E-1	4.312618E-1	4.637368E-1	4.835677E-1	4.717260E-1	3.788794E-1	4.610761E-1	4.619203E-1	5.004523E-1	3.858283E-1	4.299638E-1	4.658817E-1	4.836262E-1	4.640583E-1	4.629787E-1	4.537987E-1	5.128675E-1	5.083964E-1	4.450414E-1	4.787761E-1	5.692589E-1	3.976046E-1	5.058467E-1	5.410156E-1	5.219472E-1	4.410368E-1	4.925109E-1	5.161060E-1	5.162465E-1	4.521953E-1	5.050865E-1	4.765119E-1	5.012978E-1	4.754881E-1	4.588679E-1	5.111093E-1	4.782604E-1	4.183124E-1	4.610156E-1	5.202467E-1	4.939999E-1	4.537602E-1	5.131851E-1	4.719510E-1	4.526425E-1	4.932746E-1	4.848483E-1	4.962943E-1	4.721505E-1	4.663744E-1	4.709570E-1	4.947767E-1	4.491933E-1	4.064784E-1	4.090453E-1	4.776587E-1	5.073449E-1	4.721490E-1	4.821452E-1	4.846826E-1	4.692418E-1	4.717774E-1	5.240403E-1	4.750844E-1	4.820780E-1	4.554907E-1	4.662750E-1	4.517262E-1	4.817566E-1	4.042289E-1	5.016898E-1	4.774508E-1	4.685345E-1	4.885496E-1	4.675371E-1	4.627031E-1	4.696204E-1	5.022096E-1	4.778791E-1	4.635771E-1	5.022072E-1	4.554479E-1	4.415588E-1	4.623347E-1	5.306579E-1	3.968484E-1	4.786895E-1	5.035998E-1	5.395013E-1	4.322567E-1	4.831969E-1	4.840715E-1	4.834216E-1	4.599923E-1	5.110937E-1	5.194419E-1	3.889242E-1	4.845199E-1	4.822015E-1	4.580784E-1	4.596846E-1	4.254833E-1	5.194047E-1	4.503869E-1	4.910994E-1	4.321197E-1	4.668999E-1	4.803867E-1	4.841175E-1	4.633564E-1	4.282597E-1	4.668034E-1	4.549153E-1	4.577013E-1	4.875962E-1	4.788373E-1	4.635068E-1	3.939825E-1	4.836594E-1	5.139543E-1
5.346560E+2	6.894737E-1	6.750480E-1	7.832108E-1	6.999610E-1	6.828518E-1	7.098727E-1	7.336305E-1	7.165984E-1	8.040895E-1	7.704128E-1	7.458179E-1	7.499220E-1	7.955185E-1	7.737822E-1	7.275638E-1	7.456485E-1	7.235616E-1	6.922488E-1	7.176290E-1	7.988044E-1	6.909253E-1	7.559171E-1	7.021526E-1	7.590430E-1	9.588155E-1	9.539006E-1	8.954276E-1	8.796215E-1	8.870089E-1	8.680548E-1	8.798750E-1	7.770146E-1	8.050294E-1	8.099000E-1	8.202301E-1	7.660087E-1	8.317849E-1	7.695952E-1	7.647846E-1	8.310339E-1	8.474612E-1	8.274787E-1	8.397239E-1	7.978745E-1	7.766453E-1	7.517800E-1	7.820916E-1	7.336099E-1	7.697924E-1	7.426717E-1	7.712100E-1	7.889381E-1	7.560752E-1	7.693628E-1	7.661344E-1	7.061303E-1	7.392196E-1	7.716356E-1	8.331445E-1	7.034968E-1	7.173535E-1	7.580410E-1	7.974289E-1	7.597046E-1	7.845610E-1	7.353440E-1	7.961177E-1	7.987066E-1	7.322577E-1	8.017813E-1	8.901185E-1	6.849313E-1	7.721606E-1	8.493967E-1	9.019998E-1	7.220876E-1	7.793111E-1	8.156496E-1	8.503601E-1	7.602495E-1	7.927979E-1	8.319402E-1	7.915928E-1	7.146902E-1	7.477773E-1	8.314533E-1	7.842028E-1	6.777537E-1	7.662876E-1	8.087036E-1	8.046013E-1	7.222975E-1	8.059113E-1	7.939820E-1	7.538716E-1	7.475886E-1	7.593919E-1	8.073887E-1	8.320018E-1	7.523350E-1	6.873836E-1	7.710912E-1	8.110503E-1	6.748653E-1	6.479815E-1	7.953937E-1	7.872748E-1	7.193383E-1	7.986581E-1	7.898978E-1	8.327302E-1	7.035492E-1	7.759815E-1	8.116698E-1	7.877465E-1	6.880141E-1	7.704329E-1	7.267089E-1	7.550854E-1	6.772716E-1	7.830190E-1	8.179169E-1	7.639187E-1	7.283582E-1	7.610643E-1	8.107944E-1	7.943028E-1	7.933651E-1	7.234800E-1	7.482056E-1	8.346403E-1	7.453235E-1	7.056052E-1	7.511420E-1	8.820149E-1	7.058323E-1	8.005490E-1	8.172152E-1	8.458730E-1	7.450419E-1	7.786203E-1	7.948340E-1	7.818985E-1	8.139605E-1	8.404886E-1	7.641474E-1	6.461906E-1	7.966560E-1	7.925547E-1	7.496264E-1	7.243482E-1	7.238212E-1	7.940627E-1	7.620595E-1	7.995078E-1	7.187078E-1	7.179796E-1	7.850796E-1	7.713594E-1	7.681244E-1	7.203213E-1	7.432839E-1	7.115297E-1	7.957720E-1	7.451111E-1	7.659790E-1	7.997296E-1	7.111529E-1	6.994456E-1	8.243693E-1
5.348120E+2	1.087684E+0	1.021997E+0	1.228748E+0	9.873222E-1	1.009684E+0	1.055917E+0	1.031159E+0	1.096404E+0	1.202386E+0	1.165021E+0	1.093751E+0	1.131051E+0	1.128692E+0	1.137814E+0	1.075919E+0	1.100105E+0	1.079706E+0	1.085459E+0	1.043258E+0	1.141281E+0	1.146751E+0	1.116751E+0	1.056902E+0	1.154166E+0	1.366255E+0	1.313048E+0	1.325146E+0	1.302854E+0	1.218604E+0	1.282509E+0	1.302944E+0	1.125622E+0	1.207063E+0	1.124169E+0	1.274950E+0	1.209556E+0	1.177917E+0	1.201300E+0	1.197884E+0	1.189434E+0	1.282288E+0	1.212170E+0	1.183201E+0	1.188456E+0	1.134210E+0	1.145534E+0	1.123594E+0	1.108848E+0	1.164764E+0	1.144373E+0	1.157193E+0	1.173932E+0	1.090640E+0	1.179702E+0	1.156851E+0	1.180475E+0	1.147032E+0	1.158919E+0	1.185249E+0	1.068502E+0	1.051401E+0	1.110119E+0	1.156902E+0	1.197756E+0	1.130735E+0	1.119792E+0	1.199498E+0	1.241742E+0	1.072662E+0	1.169472E+0	1.254435E+0	1.193699E+0	1.167018E+0	1.268549E+0	1.327477E+0	1.205388E+0	1.145540E+0	1.221294E+0	1.253893E+0	1.177084E+0	1.128565E+0	1.244891E+0	1.258489E+0	1.145371E+0	1.111371E+0	1.195607E+0	1.183054E+0	1.140442E+0	1.201654E+0	1.258018E+0	1.143844E+0	1.092544E+0	1.219235E+0	1.144386E+0	1.128292E+0	1.161337E+0	1.060786E+0	1.138002E+0	1.169897E+0	1.131950E+0	1.031845E+0	1.151249E+0	1.143755E+0	9.865095E-1	9.862244E-1	1.217284E+0	1.183792E+0	1.079247E+0	1.160173E+0	1.146763E+0	1.127133E+0	1.073896E+0	1.178960E+0	1.200867E+0	1.191067E+0	1.042455E+0	1.175804E+0	1.081970E+0	1.132287E+0	1.059330E+0	1.215150E+0	1.157805E+0	1.148344E+0	1.091590E+0	1.148382E+0	1.154548E+0	1.182460E+0	1.164268E+0	1.161919E+0	1.153091E+0	1.227515E+0	1.107361E+0	1.084762E+0	1.158283E+0	1.231908E+0	9.894405E-1	1.141114E+0	1.216311E+0	1.253933E+0	1.134880E+0	1.197529E+0	1.218860E+0	1.197458E+0	1.160213E+0	1.199222E+0	1.089156E+0	9.392561E-1	1.196846E+0	1.197860E+0	1.132467E+0	1.103942E+0	1.076502E+0	1.186911E+0	1.151199E+0	1.168283E+0	1.019464E+0	1.109065E+0	1.168512E+0	1.132574E+0	1.147190E+0	1.145323E+0	1.078411E+0	1.063915E+0	1.148071E+0	1.122597E+0	1.115979E+0	1.111689E+0	1.062364E+0	1.001547E+0	1.203028E+0
5.349530E+2	1.523416E+0	1.429058E+0	1.656675E+0	1.371877E+0	1.440617E+0	1.457930E+0	1.459129E+0	1.497471E+0	1.601284E+0	1.667855E+0	1.585617E+0	1.572295E+0	1.590993E+0	1.596888E+0	1.506268E+0	1.519533E+0	1.597790E+0	1.557313E+0	1.495091E+0	1.515944E+0	1.547841E+0	1.540182E+0	1.473822E+0	1.648752E+0	1.750136E+0	1.796017E+0	1.690862E+0	1.741806E+0	1.639189E+0	1.668578E+0	1.720551E+0	1.576153E+0	1.567931E+0	1.546081E+0	1.624601E+0	1.595034E+0	1.652113E+0	1.630431E+0	1.577565E+0	1.605258E+0	1.666614E+0	1.657940E+0	1.672624E+0	1.639953E+0	1.591180E+0	1.523043E+0	1.585205E+0	1.542805E+0	1.631915E+0	1.588152E+0	1.553444E+0	1.536054E+0	1.531004E+0	1.593974E+0	1.537427E+0	1.568575E+0	1.536690E+0	1.627119E+0	1.572938E+0	1.501946E+0	1.537331E+0	1.590345E+0	1.559780E+0	1.619541E+0	1.573384E+0	1.580501E+0	1.629379E+0	1.634751E+0	1.477907E+0	1.615889E+0	1.741740E+0	1.646982E+0	1.619072E+0	1.683251E+0	1.800671E+0	1.725466E+0	1.546015E+0	1.623733E+0	1.696841E+0	1.587061E+0	1.664671E+0	1.699621E+0	1.627272E+0	1.580709E+0	1.472018E+0	1.672356E+0	1.581438E+0	1.754388E+0	1.593229E+0	1.711568E+0	1.579195E+0	1.712101E+0	1.583685E+0	1.571869E+0	1.543043E+0	1.650889E+0	1.543418E+0	1.608191E+0	1.535236E+0	1.605844E+0	1.408983E+0	1.506575E+0	1.582425E+0	1.664850E+0	1.376829E+0	1.636836E+0	1.593330E+0	1.683707E+0	1.581194E+0	1.623372E+0	1.614342E+0	1.532559E+0	1.726630E+0	1.562805E+0	1.593231E+0	1.519441E+0	1.558455E+0	1.493986E+0	1.548663E+0	1.515580E+0	1.625108E+0	1.637004E+0	1.563159E+0	1.626201E+0	1.571180E+0	1.541688E+0	1.619025E+0	1.636158E+0	1.610408E+0	1.494526E+0	1.696249E+0	1.547069E+0	1.485627E+0	1.577211E+0	1.678295E+0	1.384005E+0	1.553919E+0	1.683335E+0	1.681550E+0	1.512965E+0	1.553913E+0	1.646694E+0	1.645450E+0	1.613523E+0	1.615302E+0	1.587418E+0	1.287537E+0	1.569436E+0	1.593396E+0	1.432360E+0	1.448738E+0	1.392229E+0	1.612664E+0	1.563756E+0	1.592046E+0	1.357573E+0	1.538898E+0	1.476139E+0	1.533175E+0	1.521708E+0	1.542125E+0	1.491519E+0	1.508389E+0	1.553214E+0	1.494630E+0	1.550738E+0	1.491240E+0	1.380364E+0	1.449826E+0	1.517845E+0
5.351460E+2	1.935545E+0	1.805409E+0	2.160920E+0	1.760660E+0	1.862839E+0	1.845347E+0	1.900780E+0	1.943353E+0	2.177401E+0	2.127955E+0	2.021952E+0	2.042996E+0	1.989713E+0	2.008874E+0	1.855089E+0	2.074623E+0	2.014662E+0	1.963350E+0	1.827866E+0	1.968939E+0	1.972995E+0	1.925159E+0	1.912910E+0	2.017867E+0	2.129420E+0	2.104108E+0	2.079442E+0	2.116716E+0	2.051798E+0	2.066366E+0	2.099900E+0	1.919349E+0	2.023531E+0	2.022622E+0	2.127550E+0	1.944684E+0	2.116460E+0	2.008979E+0	1.968725E+0	1.996196E+0	2.124229E+0	2.005661E+0	2.093470E+0	2.025155E+0	1.920953E+0	1.986564E+0	2.040544E+0	1.887969E+0	1.947200E+0	1.992098E+0	1.943753E+0	1.966160E+0	1.925894E+0	1.991207E+0	1.909979E+0	2.046751E+0	1.905601E+0	2.050674E+0	2.105679E+0	1.899457E+0	1.847555E+0	1.905243E+0	1.988886E+0	2.019160E+0	1.956129E+0	1.919504E+0	2.084582E+0	2.083707E+0	1.854781E+0	1.936340E+0	2.184653E+0	2.065089E+0	1.994254E+0	2.149721E+0	2.265248E+0	2.196946E+0	1.943631E+0	2.013826E+0	2.140681E+0	2.019435E+0	1.961742E+0	2.099858E+0	2.024915E+0	2.041654E+0	1.869021E+0	2.054412E+0	2.011726E+0	2.071433E+0	1.950665E+0	2.151206E+0	1.976998E+0	2.064365E+0	2.026756E+0	1.996986E+0	2.033970E+0	1.980521E+0	2.015313E+0	2.022201E+0	1.890208E+0	2.016053E+0	1.839159E+0	1.969811E+0	1.969731E+0	2.030075E+0	1.709653E+0	2.048778E+0	2.013520E+0	2.051527E+0	1.950208E+0	1.988689E+0	1.986411E+0	1.948285E+0	2.034418E+0	2.010321E+0	2.000596E+0	1.924160E+0	1.925098E+0	1.916147E+0	1.932469E+0	2.128287E+0	2.118069E+0	1.970533E+0	2.013701E+0	2.018851E+0	1.966761E+0	1.945706E+0	1.976125E+0	1.995268E+0	1.991687E+0	1.920562E+0	2.049037E+0	1.981268E+0	1.809757E+0	1.978457E+0	2.103233E+0	2.118899E+0	1.966725E+0	2.055258E+0	2.124157E+0	2.151593E+0	1.907690E+0	2.083098E+0	1.970860E+0	2.047545E+0	1.980035E+0	1.988937E+0	1.629749E+0	2.076738E+0	1.969944E+0	1.855448E+0	1.809556E+0	1.989992E+0	2.132434E+0	1.948093E+0	1.936913E+0	1.813535E+0	1.884003E+0	1.928532E+0	1.916485E+0	2.007921E+0	1.846944E+0	1.856938E+0	1.894538E+0	1.892642E+0	1.917559E+0	1.873600E+0	1.869636E+0	1.817926E+0	1.782553E+0	1.865685E+0
5.352550E+2	2.163697E+0	1.954385E+0	2.314873E+0	1.921246E+0	1.938375E+0	2.027369E+0	1.991655E+0	2.022646E+0	2.230268E+0	2.201218E+0	2.140954E+0	2.184261E+0	2.163200E+0	2.186747E+0	2.070958E+0	2.093733E+0	2.051348E+0	2.066536E+0	2.071341E+0	2.089777E+0	2.137677E+0	2.050357E+0	2.048115E+0	2.143794E+0	2.256420E+0	2.207980E+0	2.176012E+0	2.217432E+0	2.167351E+0	2.196557E+0	2.252457E+0	2.048783E+0	2.073152E+0	2.127017E+0	2.184965E+0	2.060819E+0	2.118253E+0	2.099003E+0	2.096758E+0	2.076105E+0	2.178424E+0	2.191042E+0	2.228281E+0	2.169687E+0	2.060396E+0	2.091691E+0	2.098358E+0	1.990611E+0	1.996861E+0	2.044838E+0	2.019976E+0	2.046839E+0	2.027978E+0	2.012180E+0	2.006705E+0	2.057293E+0	2.000264E+0	2.168425E+0	2.159059E+0	1.961055E+0	1.970153E+0	2.074942E+0	2.092883E+0	2.118199E+0	2.040622E+0	2.122702E+0	2.128746E+0	2.293048E+0	2.012319E+0	2.055922E+0	2.338150E+0	2.162189E+0	2.050221E+0	2.188685E+0	2.301469E+0	2.279686E+0	2.072527E+0	2.172976E+0	2.187708E+0	2.129125E+0	2.098418E+0	2.245782E+0	2.109172E+0	2.063186E+0	2.019372E+0	2.207519E+0	2.102760E+0	2.194126E+0	2.089776E+0	2.261267E+0	2.058465E+0	2.163592E+0	2.147885E+0	2.144528E+0	2.053887E+0	2.092029E+0	2.026723E+0	2.081339E+0	2.021950E+0	2.142800E+0	1.885765E+0	2.019929E+0	2.002589E+0	2.166235E+0	1.801739E+0	2.164635E+0	2.074475E+0	2.215663E+0	2.087714E+0	2.091522E+0	2.089812E+0	2.041484E+0	2.170859E+0	2.076241E+0	2.156609E+0	2.078124E+0	1.989133E+0	1.989971E+0	1.991446E+0	2.157559E+0	2.126307E+0	2.171688E+0	2.078213E+0	2.188317E+0	2.034309E+0	2.074431E+0	2.109014E+0	2.150046E+0	2.051989E+0	2.007580E+0	2.217414E+0	2.117033E+0	1.936479E+0	2.133063E+0	2.202648E+0	2.199502E+0	2.056384E+0	2.187723E+0	2.236278E+0	2.209057E+0	2.020234E+0	2.173516E+0	2.109380E+0	2.187876E+0	2.251417E+0	2.104016E+0	1.708025E+0	2.175965E+0	2.132178E+0	1.976681E+0	1.886485E+0	2.353541E+0	2.133103E+0	1.945087E+0	2.052867E+0	1.989356E+0	1.945998E+0	1.956409E+0	1.967400E+0	2.097884E+0	2.002036E+0	1.920100E+0	1.935667E+0	2.143313E+0	1.955128E+0	1.932166E+0	1.953980E+0	2.282057E+0	1.852162E+0	2.112251E+0
5.354060E+2	2.121941E+0	1.950463E+0	2.209842E+0	1.942374E+0	1.957739E+0	1.953390E+0	2.012662E+0	2.070341E+0	2.188216E+0	2.203991E+0	2.130755E+0	2.076656E+0	2.137574E+0	2.124403E+0	1.984792E+0	2.116662E+0	2.043763E+0	2.082150E+0	1.983238E+0	2.078844E+0	2.089077E+0	2.044545E+0	1.993339E+0	2.096344E+0	2.166771E+0	2.143429E+0	2.148011E+0	2.093429E+0	2.071280E+0	2.099254E+0	2.119938E+0	1.999174E+0	2.151528E+0	2.025328E+0	2.118365E+0	2.014489E+0	2.179598E+0	2.107580E+0	2.117505E+0	2.033520E+0	2.179659E+0	2.136930E+0	2.123365E+0	2.124300E+0	2.025065E+0	2.069232E+0	2.017239E+0	1.961962E+0	1.993972E+0	1.950583E+0	2.024302E+0	2.047475E+0	1.918930E+0	2.063309E+0	2.013888E+0	2.043879E+0	1.955526E+0	2.122664E+0	2.129404E+0	1.909155E+0	1.943849E+0	2.009774E+0	2.063042E+0	2.111302E+0	2.028641E+0	2.089792E+0	2.177036E+0	2.169943E+0	1.983950E+0	2.094651E+0	2.385305E+0	2.150792E+0	2.114182E+0	2.222642E+0	2.352641E+0	2.188412E+0	2.062066E+0	2.129983E+0	2.180541E+0	2.047315E+0	2.017912E+0	2.240335E+0	2.051463E+0	2.082974E+0	1.918154E+0	2.155227E+0	2.064752E+0	2.156660E+0	2.130351E+0	2.206844E+0	2.012001E+0	2.154288E+0	2.067665E+0	2.070757E+0	2.047916E+0	2.084691E+0	1.991148E+0	2.052363E+0	1.992677E+0	2.060385E+0	1.868086E+0	2.058754E+0	1.994721E+0	2.180489E+0	1.783079E+0	2.194481E+0	2.068556E+0	2.214341E+0	2.033210E+0	2.033299E+0	2.114195E+0	1.937551E+0	2.083287E+0	2.059764E+0	2.099981E+0	2.029109E+0	1.978284E+0	1.926761E+0	2.057467E+0	2.178252E+0	2.101591E+0	2.080939E+0	2.069685E+0	2.135878E+0	2.010498E+0	2.024773E+0	2.047820E+0	2.105689E+0	2.022467E+0	2.011812E+0	2.214327E+0	2.068722E+0	1.953139E+0	2.023340E+0	2.196315E+0	2.237816E+0	2.024772E+0	2.161689E+0	2.214117E+0	2.212975E+0	2.062958E+0	2.137351E+0	2.074198E+0	2.144474E+0	2.174737E+0	2.023717E+0	1.726227E+0	2.160854E+0	2.090399E+0	1.921217E+0	1.838861E+0	2.245400E+0	2.132432E+0	2.012353E+0	2.032543E+0	2.049895E+0	1.971312E+0	1.909460E+0	2.040890E+0	2.115070E+0	1.964442E+0	1.857584E+0	1.914180E+0	2.096562E+0	1.963607E+0	1.889311E+0	1.875988E+0	2.258809E+0	1.785338E+0	2.105649E+0
5.355630E+2	1.910734E+0	1.836121E+0	2.160920E+0	1.625430E+0	1.815386E+0	1.879899E+0	1.848995E+0	1.863484E+0	2.035624E+0	2.073565E+0	1.998722E+0	2.008126E+0	1.973450E+0	1.976611E+0	1.843044E+0	1.971917E+0	1.945082E+0	1.898649E+0	1.902274E+0	1.942216E+0	1.921562E+0	1.886259E+0	1.899436E+0	1.980454E+0	2.100683E+0	1.992611E+0	2.008579E+0	2.017752E+0	1.970337E+0	1.986628E+0	2.023846E+0	1.900860E+0	1.973914E+0	1.942025E+0	2.004108E+0	1.811247E+0	1.939588E+0	1.898376E+0	1.908681E+0	1.956960E+0	2.016446E+0	1.989592E+0	2.026065E+0	1.943937E+0	1.856411E+0	1.918229E+0	1.933431E+0	1.844525E+0	1.913128E+0	1.828838E+0	1.895097E+0	1.932486E+0	1.803853E+0	1.892004E+0	1.854644E+0	1.924574E+0	1.821965E+0	1.928463E+0	2.016709E+0	1.758590E+0	1.837627E+0	1.875068E+0	1.898001E+0	1.965943E+0	1.912619E+0	1.936223E+0	2.058669E+0	2.077126E+0	1.847690E+0	1.934636E+0	2.063522E+0	2.007130E+0	1.972727E+0	2.105187E+0	2.173254E+0	2.128652E+0	1.933171E+0	1.955743E+0	2.077085E+0	1.951335E+0	1.884978E+0	2.018116E+0	1.933726E+0	1.897313E+0	1.828731E+0	1.969618E+0	1.960111E+0	1.999781E+0	1.946157E+0	2.120972E+0	1.942627E+0	1.998624E+0	1.951318E+0	1.937404E+0	1.908003E+0	1.926235E+0	1.879045E+0	1.942354E+0	1.885939E+0	1.941755E+0	1.764161E+0	1.844747E+0	1.853126E+0	1.973054E+0	1.632617E+0	2.011330E+0	1.968540E+0	2.107558E+0	1.939205E+0	1.933751E+0	1.937192E+0	1.880461E+0	1.994440E+0	1.870232E+0	1.956683E+0	1.877650E+0	1.900828E+0	1.840943E+0	1.836514E+0	2.068734E+0	2.033793E+0	1.930649E+0	1.941720E+0	2.070652E+0	1.890947E+0	1.909065E+0	1.924980E+0	1.980165E+0	1.933901E+0	1.870404E+0	1.990447E+0	1.977598E+0	1.795619E+0	1.919062E+0	2.020880E+0	2.089044E+0	1.914480E+0	2.016200E+0	2.021166E+0	2.034707E+0	1.979593E+0	2.015521E+0	2.007139E+0	2.032113E+0	1.979369E+0	1.859315E+0	1.607301E+0	1.981455E+0	1.973200E+0	1.788693E+0	1.729423E+0	2.134539E+0	2.008871E+0	1.917465E+0	1.973373E+0	1.877940E+0	1.841639E+0	1.747575E+0	1.909279E+0	1.969003E+0	1.861712E+0	1.826001E+0	1.831914E+0	1.996298E+0	1.852726E+0	1.840260E+0	1.820530E+0	2.194044E+0	1.776985E+0	1.969154E+0
5.357090E+2	1.676527E+0	1.538175E+0	1.860850E+0	1.528238E+0	1.583940E+0	1.634605E+0	1.685330E+0	1.654910E+0	1.734649E+0	1.787180E+0	1.694419E+0	1.743020E+0	1.714207E+0	1.709364E+0	1.672572E+0	1.734496E+0	1.704065E+0	1.657150E+0	1.644513E+0	1.745476E+0	1.689405E+0	1.705174E+0	1.645545E+0	1.666090E+0	1.738069E+0	1.743204E+0	1.710292E+0	1.781972E+0	1.717994E+0	1.665880E+0	1.826199E+0	1.675822E+0	1.693108E+0	1.652639E+0	1.771006E+0	1.672874E+0	1.680772E+0	1.700311E+0	1.702948E+0	1.693302E+0	1.728202E+0	1.730271E+0	1.749409E+0	1.721173E+0	1.665615E+0	1.652064E+0	1.687835E+0	1.572882E+0	1.629030E+0	1.665014E+0	1.643184E+0	1.642150E+0	1.606174E+0	1.619758E+0	1.651894E+0	1.690754E+0	1.668304E+0	1.721428E+0	1.724997E+0	1.583501E+0	1.592923E+0	1.617024E+0	1.651568E+0	1.686063E+0	1.690667E+0	1.660422E+0	1.837253E+0	1.845404E+0	1.604543E+0	1.665682E+0	1.880900E+0	1.752500E+0	1.716254E+0	1.836885E+0	1.920267E+0	1.869931E+0	1.617834E+0	1.715655E+0	1.837921E+0	1.684413E+0	1.645321E+0	1.788632E+0	1.724808E+0	1.685465E+0	1.611558E+0	1.733129E+0	1.668245E+0	1.769377E+0	1.749084E+0	1.873033E+0	1.644115E+0	1.758616E+0	1.750499E+0	1.717516E+0	1.666025E+0	1.719363E+0	1.632695E+0	1.672657E+0	1.665148E+0	1.670777E+0	1.533806E+0	1.672275E+0	1.632864E+0	1.739077E+0	1.497199E+0	1.831688E+0	1.746612E+0	1.787196E+0	1.603193E+0	1.719630E+0	1.689298E+0	1.697972E+0	1.780574E+0	1.611615E+0	1.741732E+0	1.639471E+0	1.668963E+0	1.595491E+0	1.651217E+0	1.769443E+0	1.728385E+0	1.734691E+0	1.640473E+0	1.814851E+0	1.691214E+0	1.622203E+0	1.682498E+0	1.685706E+0	1.616062E+0	1.606924E+0	1.759778E+0	1.765389E+0	1.589631E+0	1.669703E+0	1.842521E+0	1.877583E+0	1.648092E+0	1.761460E+0	1.829521E+0	1.771549E+0	1.625293E+0	1.732357E+0	1.750436E+0	1.761574E+0	1.753325E+0	1.727794E+0	1.400396E+0	1.767234E+0	1.740434E+0	1.597766E+0	1.494986E+0	1.882395E+0	1.759729E+0	1.674855E+0	1.664367E+0	1.658973E+0	1.613806E+0	1.597432E+0	1.645571E+0	1.710732E+0	1.595838E+0	1.595927E+0	1.549519E+0	1.776789E+0	1.630358E+0	1.640740E+0	1.578475E+0	1.841173E+0	1.621062E+0	1.632322E+0
5.358600E+2	1.533704E+0	1.376135E+0	1.647540E+0	1.515559E+0	1.384936E+0	1.400500E+0	1.364351E+0	1.427944E+0	1.579055E+0	1.579057E+0	1.483054E+0	1.514581E+0	1.725541E+0	1.497483E+0	1.465039E+0	1.509023E+0	1.533266E+0	1.435724E+0	1.417702E+0	1.464330E+0	1.507733E+0	1.431978E+0	1.437736E+0	1.549745E+0	1.522565E+0	1.557759E+0	1.504576E+0	1.559587E+0	1.540017E+0	1.491085E+0	1.526089E+0	1.441311E+0	1.523950E+0	1.464402E+0	1.470160E+0	1.409709E+0	1.490019E+0	1.430230E+0	1.452621E+0	1.432039E+0	1.504015E+0	1.520779E+0	1.548364E+0	1.489452E+0	1.380599E+0	1.451841E+0	1.444482E+0	1.390037E+0	1.462726E+0	1.436114E+0	1.403163E+0	1.499207E+0	1.440984E+0	1.461127E+0	1.419156E+0	1.470353E+0	1.459536E+0	1.516069E+0	1.540589E+0	1.438068E+0	1.438554E+0	1.399654E+0	1.467992E+0	1.492414E+0	1.413223E+0	1.481781E+0	1.523382E+0	1.603149E+0	1.401416E+0	1.490347E+0	1.597025E+0	1.531553E+0	1.480076E+0	1.552436E+0	1.674180E+0	1.557360E+0	1.473720E+0	1.485624E+0	1.551729E+0	1.444460E+0	1.456219E+0	1.581549E+0	1.502614E+0	1.495152E+0	1.391926E+0	1.545159E+0	1.438791E+0	1.551143E+0	1.493403E+0	1.603320E+0	1.420078E+0	1.576904E+0	1.519400E+0	1.531674E+0	1.453423E+0	1.529602E+0	1.472937E+0	1.453830E+0	1.455337E+0	1.483466E+0	1.402557E+0	1.463683E+0	1.439904E+0	1.528690E+0	1.250439E+0	1.580658E+0	1.567290E+0	1.583514E+0	1.468187E+0	1.528518E+0	1.496490E+0	1.462295E+0	1.507056E+0	1.470262E+0	1.556252E+0	1.464136E+0	1.411280E+0	1.358801E+0	1.445228E+0	1.601885E+0	1.575051E+0	1.509830E+0	1.492780E+0	1.595505E+0	1.459892E+0	1.439480E+0	1.503490E+0	1.482323E+0	1.542569E+0	1.424425E+0	1.566733E+0	1.512823E+0	1.362439E+0	1.456610E+0	1.556952E+0	1.579048E+0	1.557788E+0	1.509545E+0	1.549875E+0	1.591322E+0	1.480969E+0	1.527720E+0	1.484940E+0	1.540704E+0	1.545288E+0	1.507116E+0	1.251132E+0	1.595721E+0	1.535339E+0	1.431378E+0	1.371351E+0	1.653617E+0	1.573043E+0	1.455666E+0	1.488646E+0	1.468989E+0	1.390111E+0	1.402288E+0	1.434706E+0	1.507554E+0	1.444770E+0	1.405161E+0	1.341403E+0	1.535599E+0	1.420710E+0	1.411216E+0	1.396497E+0	1.629450E+0	1.401100E+0	1.484822E+0
5.360120E+2	1.234744E+0	1.092564E+0	1.335730E+0	1.139454E+0	1.221279E+0	1.231127E+0	1.217785E+0	1.234881E+0	1.340560E+0	1.314873E+0	1.319286E+0	1.325823E+0	1.489464E+0	1.232852E+0	1.199603E+0	1.198512E+0	1.381447E+0	1.219876E+0	1.206966E+0	1.279124E+0	1.331252E+0	1.220934E+0	1.225583E+0	1.244048E+0	1.394988E+0	1.302485E+0	1.285145E+0	1.318574E+0	1.511684E+0	1.231154E+0	1.273797E+0	1.192820E+0	1.441628E+0	1.234515E+0	1.313418E+0	1.250328E+0	1.276876E+0	1.227879E+0	1.206714E+0	1.243985E+0	1.322321E+0	1.274320E+0	1.295152E+0	1.242207E+0	1.394259E+0	1.216258E+0	1.239669E+0	1.211965E+0	1.318940E+0	1.197110E+0	1.193952E+0	1.222215E+0	1.227066E+0	1.213789E+0	1.205425E+0	1.220721E+0	1.196306E+0	1.288943E+0	1.304415E+0	1.156902E+0	1.200804E+0	1.199777E+0	1.263158E+0	1.288912E+0	1.220273E+0	1.231574E+0	1.330818E+0	1.374718E+0	1.136995E+0	1.227774E+0	1.381119E+0	1.256118E+0	1.226677E+0	1.376541E+0	1.418897E+0	1.377434E+0	1.216408E+0	1.327847E+0	1.331377E+0	1.281289E+0	1.230918E+0	1.282433E+0	1.319089E+0	1.298436E+0	1.204233E+0	1.341646E+0	1.246872E+0	1.316053E+0	1.256396E+0	1.331192E+0	1.287052E+0	1.284179E+0	1.290957E+0	1.292397E+0	1.206960E+0	1.266487E+0	1.241354E+0	1.259246E+0	1.238816E+0	1.287417E+0	1.151308E+0	1.202270E+0	1.240928E+0	1.260797E+0	1.066271E+0	1.298035E+0	1.240014E+0	1.325777E+0	1.268178E+0	1.289044E+0	1.263950E+0	1.241260E+0	1.267807E+0	1.270593E+0	1.291031E+0	1.204593E+0	1.226929E+0	1.193165E+0	1.209753E+0	1.313196E+0	1.300690E+0	1.278616E+0	1.251780E+0	1.306458E+0	1.199898E+0	1.237953E+0	1.261460E+0	1.264312E+0	1.273100E+0	1.250989E+0	1.265137E+0	1.292661E+0	1.169582E+0	1.296564E+0	1.340581E+0	1.374053E+0	1.277855E+0	1.315944E+0	1.399948E+0	1.445052E+0	1.276202E+0	1.333552E+0	1.311793E+0	1.320317E+0	1.334581E+0	1.296555E+0	1.043013E+0	1.342729E+0	1.323736E+0	1.214434E+0	1.132331E+0	1.390599E+0	1.375612E+0	1.258692E+0	1.311132E+0	1.268698E+0	1.196891E+0	1.199324E+0	1.204144E+0	1.299323E+0	1.186279E+0	1.204728E+0	1.156002E+0	1.389260E+0	1.231056E+0	1.210740E+0	1.182168E+0	1.478337E+0	1.176961E+0	1.244857E+0
5.362580E+2	8.843425E-1	8.455824E-1	9.802127E-1	7.887047E-1	8.682984E-1	8.252205E-1	8.635853E-1	9.309215E-1	1.030572E+0	1.002960E+0	9.169515E-1	9.038162E-1	1.099120E+0	9.394493E-1	8.822857E-1	9.032910E-1	1.022773E+0	8.852287E-1	8.926475E-1	9.360386E-1	9.603627E-1	9.070469E-1	9.021342E-1	9.561481E-1	9.955947E-1	9.808953E-1	9.211417E-1	9.739321E-1	1.114124E+0	8.986891E-1	9.345235E-1	9.055441E-1	1.045234E+0	8.888726E-1	9.442446E-1	8.988257E-1	9.701483E-1	9.389329E-1	9.065025E-1	9.229070E-1	1.031616E+0	9.169540E-1	9.563654E-1	9.268739E-1	1.137979E+0	8.965706E-1	9.107150E-1	8.749211E-1	1.042923E+0	9.076161E-1	8.701375E-1	9.363279E-1	9.379745E-1	8.856040E-1	9.722636E-1	9.284496E-1	9.758672E-1	9.507682E-1	9.302021E-1	8.517797E-1	1.065300E+0	8.586338E-1	9.064012E-1	9.439914E-1	1.035522E+0	9.260005E-1	9.504037E-1	1.035695E+0	9.227224E-1	9.541336E-1	1.013100E+0	9.494701E-1	9.216157E-1	9.846614E-1	1.014118E+0	1.022837E+0	9.876334E-1	9.821140E-1	9.726294E-1	9.298168E-1	1.003744E+0	9.633340E-1	9.693480E-1	9.661145E-1	9.315395E-1	9.525247E-1	9.606360E-1	1.011187E+0	9.375998E-1	9.858895E-1	9.993635E-1	9.939364E-1	9.599780E-1	9.528694E-1	9.291325E-1	9.358782E-1	8.869300E-1	9.055671E-1	9.204394E-1	9.533804E-1	8.518465E-1	8.636480E-1	8.929540E-1	1.007646E+0	8.080754E-1	9.223700E-1	9.156990E-1	1.017284E+0	9.011627E-1	9.584704E-1	9.108464E-1	8.718882E-1	9.105196E-1	9.606298E-1	9.362466E-1	8.903720E-1	9.191549E-1	8.655846E-1	9.196988E-1	9.891766E-1	9.724724E-1	9.219648E-1	9.180080E-1	1.050023E+0	9.340698E-1	9.284316E-1	9.829013E-1	9.325721E-1	9.521224E-1	9.294980E-1	9.505906E-1	9.465232E-1	8.611048E-1	9.279619E-1	1.049166E+0	1.003373E+0	9.211655E-1	1.004592E+0	1.026436E+0	1.018646E+0	9.380557E-1	9.942360E-1	9.660418E-1	9.687614E-1	9.791815E-1	9.323428E-1	7.523738E-1	1.014821E+0	9.531576E-1	8.983454E-1	8.415685E-1	1.084653E+0	9.928378E-1	9.254016E-1	9.578964E-1	9.788898E-1	9.080983E-1	8.863177E-1	9.322727E-1	9.419896E-1	8.700460E-1	8.721787E-1	9.196460E-1	1.019346E+0	9.238563E-1	9.016933E-1	9.262468E-1	1.060703E+0	8.873894E-1	9.916824E-1
5.365140E+2	6.622405E-1	6.508733E-1	7.799491E-1	6.830576E-1	6.281373E-1	6.514685E-1	6.603474E-1	6.447741E-1	7.788575E-1	7.043675E-1	7.004849E-1	6.976223E-1	8.334683E-1	7.048997E-1	6.659532E-1	7.012215E-1	7.861873E-1	6.548795E-1	6.777443E-1	6.919320E-1	7.201811E-1	6.942137E-1	6.817202E-1	7.293861E-1	8.134240E-1	7.561351E-1	7.165688E-1	7.585318E-1	8.020069E-1	7.297537E-1	7.623815E-1	6.629166E-1	8.366058E-1	6.984718E-1	6.898998E-1	7.172058E-1	7.708871E-1	7.172935E-1	7.073909E-1	7.104502E-1	7.507648E-1	7.074640E-1	7.353917E-1	6.867919E-1	8.421285E-1	6.499965E-1	6.745315E-1	6.610452E-1	7.998199E-1	6.815189E-1	6.966085E-1	6.936423E-1	7.092082E-1	7.011914E-1	7.192487E-1	6.912762E-1	7.230100E-1	7.381534E-1	7.182929E-1	6.082529E-1	8.007408E-1	6.915617E-1	7.042828E-1	7.010685E-1	7.687974E-1	7.165393E-1	7.425301E-1	7.315603E-1	7.079433E-1	7.111354E-1	7.763845E-1	7.121783E-1	7.192671E-1	7.826000E-1	7.576834E-1	7.470399E-1	7.992874E-1	7.173262E-1	7.186857E-1	6.889493E-1	8.146416E-1	7.386932E-1	7.148347E-1	7.420442E-1	6.829201E-1	7.518385E-1	6.959859E-1	7.325458E-1	7.501862E-1	7.935852E-1	6.804885E-1	7.464853E-1	7.899735E-1	7.050807E-1	7.195166E-1	6.928129E-1	7.835566E-1	7.316854E-1	7.325851E-1	7.311062E-1	6.718484E-1	7.250389E-1	6.699169E-1	7.313942E-1	6.582133E-1	7.544332E-1	7.351950E-1	7.780049E-1	8.091588E-1	6.997418E-1	7.442287E-1	7.069649E-1	7.772505E-1	7.020104E-1	7.299640E-1	6.679035E-1	7.280882E-1	6.681133E-1	6.815813E-1	7.211807E-1	7.532389E-1	7.150258E-1	7.596531E-1	7.571361E-1	8.193805E-1	7.278695E-1	6.920112E-1	7.254127E-1	7.869219E-1	7.046957E-1	7.661801E-1	7.110761E-1	6.637013E-1	6.949216E-1	7.596973E-1	7.322031E-1	7.263732E-1	7.339992E-1	7.500500E-1	7.496126E-1	7.035919E-1	7.386776E-1	7.439705E-1	7.305322E-1	7.164656E-1	6.534924E-1	6.085718E-1	7.184568E-1	7.323293E-1	6.872924E-1	6.332266E-1	7.846845E-1	7.517561E-1	7.062108E-1	7.206130E-1	7.013191E-1	7.148800E-1	6.774830E-1	7.017105E-1	7.266803E-1	7.008507E-1	6.240558E-1	6.796069E-1	7.361528E-1	6.936080E-1	6.578845E-1	6.951657E-1	8.406772E-1	6.465435E-1	7.208972E-1
5.368020E+2	5.496762E-1	5.064739E-1	5.920792E-1	4.633107E-1	5.172564E-1	5.122726E-1	5.118277E-1	5.321544E-1	5.848158E-1	5.717216E-1	5.928177E-1	5.521447E-1	6.412537E-1	5.405404E-1	4.977979E-1	5.550437E-1	6.217160E-1	5.528122E-1	5.366582E-1	5.395171E-1	5.710701E-1	5.515798E-1	5.569486E-1	5.587444E-1	6.203349E-1	5.906450E-1	5.857099E-1	5.739861E-1	6.926556E-1	5.527106E-1	5.975256E-1	5.122890E-1	6.753417E-1	5.805538E-1	5.888509E-1	5.355861E-1	5.658050E-1	5.638173E-1	5.524285E-1	5.683338E-1	6.011003E-1	5.810190E-1	5.788931E-1	5.709310E-1	6.612254E-1	5.534690E-1	5.611457E-1	5.402621E-1	6.421779E-1	5.328442E-1	5.771380E-1	5.767466E-1	5.644309E-1	5.731518E-1	5.701437E-1	5.480147E-1	5.648126E-1	5.897131E-1	5.732456E-1	5.449477E-1	6.677179E-1	5.358602E-1	5.464773E-1	5.803461E-1	5.890894E-1	5.420754E-1	5.905997E-1	6.091163E-1	5.549637E-1	5.523993E-1	6.099443E-1	5.952659E-1	5.882629E-1	6.122660E-1	6.311909E-1	6.413176E-1	7.022603E-1	5.851609E-1	6.022381E-1	5.490903E-1	6.261624E-1	6.030615E-1	5.797871E-1	5.691903E-1	5.492749E-1	6.100388E-1	5.209601E-1	6.365431E-1	5.666370E-1	6.055137E-1	5.786516E-1	5.920607E-1	6.821271E-1	5.599067E-1	5.676566E-1	5.651668E-1	6.318534E-1	5.631261E-1	5.721769E-1	5.918719E-1	5.288136E-1	5.394746E-1	5.347996E-1	6.247273E-1	5.360369E-1	6.081462E-1	5.718531E-1	6.085978E-1	6.676527E-1	5.457258E-1	6.051552E-1	5.303301E-1	6.065401E-1	5.454438E-1	5.629727E-1	5.572980E-1	6.113828E-1	5.472321E-1	5.310529E-1	5.818834E-1	6.043369E-1	5.676253E-1	5.682406E-1	6.042976E-1	7.042056E-1	5.687698E-1	5.810446E-1	5.744083E-1	6.751142E-1	5.765824E-1	5.965716E-1	5.802043E-1	5.667658E-1	5.634399E-1	5.715922E-1	6.043307E-1	6.128518E-1	6.275737E-1	6.366273E-1	6.529699E-1	6.817093E-1	5.692574E-1	5.983050E-1	5.805538E-1	6.704567E-1	5.472633E-1	4.890393E-1	6.218597E-1	5.500232E-1	5.209037E-1	5.128007E-1	6.167674E-1	5.939451E-1	6.011191E-1	5.831445E-1	5.551272E-1	6.342864E-1	5.610834E-1	5.422381E-1	5.866787E-1	6.397532E-1	5.331844E-1	5.476154E-1	6.311409E-1	6.105973E-1	5.412182E-1	5.594051E-1	6.638254E-1	5.449151E-1	5.932089E-1
5.370070E+2	4.964198E-1	4.372141E-1	5.151047E-1	4.168258E-1	4.528582E-1	4.528947E-1	4.771405E-1	4.861868E-1	5.655923E-1	5.178856E-1	5.055512E-1	4.842151E-1	5.924609E-1	4.607587E-1	4.769517E-1	5.087063E-1	5.502342E-1	4.446099E-1	4.896296E-1	5.103701E-1	4.861335E-1	4.442689E-1	4.860858E-1	4.820928E-1	5.347092E-1	5.125953E-1	5.262805E-1	5.402211E-1	5.970286E-1	4.869385E-1	5.169197E-1	4.847790E-1	5.484735E-1	4.664216E-1	5.216762E-1	4.923437E-1	5.272958E-1	4.845070E-1	4.959177E-1	5.137843E-1	5.487485E-1	4.722559E-1	4.821808E-1	5.321122E-1	5.608808E-1	4.946926E-1	4.638934E-1	4.734256E-1	5.070558E-1	4.514934E-1	5.095639E-1	4.871683E-1	4.985391E-1	4.678358E-1	4.767949E-1	4.886023E-1	5.200763E-1	5.149350E-1	5.171677E-1	4.582585E-1	5.525629E-1	4.720055E-1	4.700614E-1	5.256513E-1	5.014428E-1	4.929740E-1	4.916685E-1	5.334123E-1	4.956968E-1	5.068635E-1	5.466044E-1	5.264068E-1	5.519760E-1	5.471388E-1	5.317216E-1	5.277159E-1	5.629027E-1	4.795201E-1	5.435670E-1	5.239525E-1	5.937091E-1	5.237404E-1	5.012977E-1	4.993500E-1	4.917880E-1	5.440860E-1	5.195527E-1	5.185303E-1	5.415193E-1	5.347602E-1	4.831799E-1	5.182592E-1	5.918118E-1	5.187664E-1	4.994445E-1	5.206623E-1	5.264655E-1	5.347366E-1	4.971571E-1	4.819837E-1	4.800641E-1	4.934226E-1	4.797338E-1	5.598427E-1	4.367305E-1	5.156934E-1	5.032019E-1	5.393845E-1	5.381473E-1	5.020563E-1	4.882067E-1	4.981263E-1	5.811554E-1	4.985380E-1	5.404380E-1	4.787428E-1	4.864145E-1	4.969415E-1	4.984822E-1	5.394888E-1	5.796258E-1	4.999943E-1	5.074573E-1	5.256395E-1	6.074969E-1	4.940412E-1	5.330953E-1	5.168382E-1	5.526273E-1	5.004396E-1	5.188598E-1	5.092645E-1	4.885110E-1	4.881778E-1	5.443027E-1	5.083018E-1	5.431903E-1	5.228466E-1	5.649235E-1	5.524085E-1	5.545776E-1	5.131010E-1	5.026602E-1	4.898918E-1	5.964434E-1	4.764445E-1	4.235096E-1	5.068627E-1	5.228944E-1	4.458079E-1	4.500693E-1	5.716638E-1	5.697697E-1	5.116409E-1	4.893064E-1	4.810650E-1	5.898569E-1	4.745177E-1	4.966064E-1	4.881218E-1	5.679119E-1	4.958050E-1	4.604406E-1	5.274835E-1	5.154683E-1	5.083609E-1	4.559968E-1	5.866092E-1	5.017583E-1	4.765294E-1
5.372590E+2	4.352967E-1	3.999713E-1	4.727040E-1	3.872447E-1	4.363955E-1	4.134719E-1	4.497815E-1	4.632033E-1	5.163303E-1	5.034556E-1	4.715508E-1	5.064571E-1	5.658465E-1	4.611949E-1	4.301648E-1	4.542480E-1	5.242983E-1	4.546492E-1	4.318854E-1	4.763653E-1	4.696183E-1	4.536585E-1	4.495673E-1	4.319042E-1	5.318355E-1	4.967508E-1	4.885668E-1	4.994692E-1	5.403605E-1	4.725230E-1	5.164642E-1	4.838769E-1	5.309936E-1	4.696673E-1	4.952655E-1	4.521890E-1	4.847569E-1	4.780765E-1	4.469127E-1	4.788532E-1	5.087154E-1	4.749345E-1	4.722164E-1	5.153899E-1	5.863200E-1	4.578974E-1	4.836124E-1	4.357113E-1	5.492094E-1	4.666417E-1	4.668571E-1	4.611214E-1	4.396069E-1	4.468599E-1	4.615885E-1	4.656033E-1	4.727469E-1	5.177253E-1	4.982957E-1	4.371568E-1	5.595126E-1	4.475125E-1	4.637310E-1	4.734206E-1	5.027034E-1	4.548432E-1	4.598688E-1	5.044472E-1	4.536530E-1	4.762228E-1	5.086934E-1	4.882613E-1	4.972363E-1	4.931441E-1	5.397710E-1	5.139258E-1	5.405487E-1	4.726607E-1	5.135595E-1	4.535667E-1	5.400363E-1	4.946768E-1	5.047605E-1	4.842180E-1	4.436361E-1	4.503382E-1	4.824830E-1	5.180619E-1	4.945053E-1	4.881961E-1	5.054567E-1	5.120575E-1	5.376230E-1	4.899204E-1	4.217723E-1	4.986543E-1	4.861910E-1	4.815079E-1	4.593423E-1	4.732419E-1	4.463142E-1	4.500787E-1	4.714050E-1	4.949576E-1	4.307123E-1	5.057457E-1	4.676933E-1	5.044488E-1	5.501481E-1	4.489959E-1	4.859487E-1	4.522601E-1	5.456169E-1	4.617732E-1	4.682101E-1	4.686878E-1	4.766031E-1	4.466508E-1	4.386228E-1	4.935608E-1	5.244998E-1	5.069305E-1	4.466741E-1	4.891892E-1	5.676469E-1	4.573998E-1	4.673372E-1	4.918277E-1	5.677033E-1	4.502821E-1	5.114586E-1	4.841909E-1	4.425680E-1	4.777500E-1	4.984947E-1	5.122820E-1	4.819149E-1	5.103924E-1	4.782271E-1	5.080050E-1	5.764610E-1	5.002520E-1	4.982635E-1	4.898917E-1	5.517680E-1	4.827678E-1	4.156207E-1	4.759775E-1	4.946806E-1	4.443353E-1	4.239689E-1	5.303636E-1	5.301492E-1	4.666020E-1	4.420885E-1	4.714048E-1	5.960566E-1	4.823425E-1	4.620221E-1	4.810461E-1	5.007712E-1	4.365124E-1	4.487760E-1	4.908990E-1	5.124390E-1	4.416945E-1	4.536859E-1	5.658524E-1	4.850510E-1	4.699245E-1
5.375160E+2	4.582931E-1	4.698844E-1	5.503305E-1	4.590849E-1	4.552791E-1	4.309938E-1	4.771405E-1	4.988281E-1	5.217369E-1	5.350907E-1	5.236840E-1	4.830123E-1	5.752108E-1	4.908406E-1	4.825109E-1	4.972413E-1	5.508667E-1	4.685929E-1	4.414098E-1	4.642208E-1	4.866052E-1	4.782504E-1	4.426117E-1	4.912182E-1	5.674656E-1	5.260923E-1	5.605667E-1	5.413857E-1	5.837470E-1	4.824340E-1	5.059899E-1	4.947004E-1	5.772298E-1	4.539809E-1	4.964138E-1	4.911082E-1	5.071459E-1	5.218041E-1	4.782587E-1	4.874665E-1	5.019400E-1	5.044022E-1	5.495866E-1	4.897095E-1	5.990397E-1	4.774899E-1	5.028837E-1	4.385757E-1	5.497873E-1	4.773017E-1	4.852377E-1	4.693799E-1	4.535283E-1	4.765756E-1	4.738378E-1	4.933933E-1	4.960876E-1	4.725228E-1	5.452069E-1	4.497042E-1	5.744033E-1	4.448887E-1	4.935739E-1	5.162893E-1	5.254036E-1	4.778260E-1	4.952017E-1	5.439456E-1	4.754347E-1	5.000544E-1	5.336596E-1	5.328465E-1	5.052321E-1	5.120698E-1	5.575949E-1	5.369086E-1	6.114162E-1	5.179354E-1	5.883543E-1	4.924158E-1	5.837234E-1	5.176858E-1	4.862923E-1	4.894558E-1	4.731162E-1	5.261846E-1	5.139219E-1	5.321107E-1	4.951493E-1	5.402025E-1	4.768157E-1	5.101969E-1	5.673744E-1	4.780982E-1	5.014366E-1	5.191950E-1	5.197536E-1	4.992510E-1	5.166747E-1	4.994657E-1	4.473862E-1	4.681383E-1	4.899140E-1	5.303492E-1	4.547867E-1	5.303216E-1	4.949169E-1	5.532275E-1	6.001501E-1	4.729432E-1	4.773701E-1	4.844637E-1	5.532322E-1	4.662098E-1	5.075018E-1	4.887980E-1	5.266934E-1	4.531105E-1	4.870384E-1	5.531155E-1	5.276685E-1	4.797630E-1	5.015919E-1	5.077342E-1	5.997212E-1	4.699352E-1	4.787538E-1	5.154223E-1	5.834065E-1	4.804981E-1	5.348959E-1	5.013136E-1	5.087061E-1	4.723092E-1	5.530739E-1	5.381555E-1	5.477060E-1	5.409618E-1	5.557978E-1	4.995157E-1	5.821926E-1	5.230952E-1	4.988129E-1	5.332937E-1	5.957763E-1	5.137513E-1	4.386784E-1	5.305186E-1	5.125855E-1	4.605327E-1	4.555640E-1	5.912270E-1	5.314925E-1	4.852178E-1	5.251677E-1	4.772008E-1	5.898569E-1	4.529987E-1	5.018896E-1	5.199633E-1	5.813400E-1	4.900047E-1	4.880665E-1	5.498410E-1	5.397058E-1	5.135995E-1	4.837264E-1	5.600406E-1	5.240329E-1	5.117534E-1
5.377630E+2	5.194171E-1	4.770717E-1	5.849035E-1	5.562806E-1	4.964360E-1	4.957245E-1	5.088960E-1	5.470936E-1	5.619873E-1	6.061311E-1	5.452179E-1	5.425266E-1	6.437181E-1	5.714939E-1	5.441217E-1	5.459673E-1	5.793326E-1	5.305027E-1	5.128460E-1	5.862738E-1	5.507794E-1	5.296701E-1	4.782605E-1	5.646765E-1	6.714805E-1	5.941659E-1	6.177105E-1	5.961086E-1	6.753899E-1	5.653244E-1	5.706571E-1	5.262690E-1	6.510957E-1	5.351175E-1	5.549760E-1	5.312617E-1	5.850590E-1	5.706765E-1	5.683224E-1	5.587639E-1	6.288160E-1	5.622672E-1	5.501729E-1	5.745145E-1	6.442656E-1	5.410447E-1	5.494930E-1	4.982506E-1	6.444876E-1	5.356492E-1	5.614605E-1	5.367224E-1	5.351973E-1	5.390661E-1	5.654973E-1	5.499310E-1	5.712965E-1	5.740871E-1	5.559908E-1	5.004625E-1	6.086513E-1	5.454822E-1	5.347210E-1	5.453611E-1	6.225089E-1	5.603570E-1	5.817666E-1	6.288656E-1	5.706669E-1	5.400575E-1	5.979235E-1	6.046783E-1	5.931834E-1	5.643945E-1	5.955427E-1	6.104548E-1	6.447098E-1	6.093989E-1	5.735745E-1	5.618878E-1	6.442616E-1	5.915565E-1	5.751702E-1	5.680263E-1	5.266728E-1	5.601032E-1	5.397299E-1	5.826873E-1	5.917541E-1	5.982568E-1	5.608304E-1	5.889594E-1	6.906272E-1	5.405187E-1	5.547113E-1	5.485386E-1	5.694265E-1	5.524799E-1	5.605885E-1	5.263133E-1	5.057782E-1	5.485048E-1	5.570106E-1	5.829456E-1	4.951107E-1	5.595790E-1	6.026276E-1	5.756390E-1	6.361514E-1	5.692036E-1	5.532282E-1	5.264266E-1	6.224051E-1	5.777716E-1	5.745299E-1	5.441008E-1	5.550953E-1	5.006328E-1	5.468978E-1	5.849116E-1	5.999017E-1	5.393011E-1	5.533112E-1	6.177267E-1	6.050673E-1	5.576808E-1	5.678015E-1	5.560044E-1	6.179535E-1	5.330724E-1	5.922545E-1	5.600231E-1	5.546492E-1	5.570924E-1	5.998572E-1	5.799499E-1	5.818907E-1	5.737951E-1	6.216348E-1	6.288084E-1	6.801457E-1	5.635468E-1	5.686224E-1	5.622284E-1	6.737908E-1	5.346171E-1	5.442552E-1	5.633748E-1	5.407996E-1	5.302289E-1	5.425639E-1	5.939437E-1	6.302081E-1	5.746962E-1	5.556501E-1	5.557713E-1	6.637341E-1	5.180452E-1	5.211035E-1	5.664621E-1	6.511660E-1	5.306064E-1	5.113948E-1	5.654236E-1	5.833312E-1	5.297899E-1	5.368751E-1	5.857787E-1	5.504834E-1	4.765290E-1
5.380160E+2	6.114051E-1	5.378366E-1	6.807953E-1	5.224735E-1	5.680966E-1	5.940381E-1	6.080730E-1	6.114478E-1	7.043650E-1	6.882723E-1	6.194513E-1	6.687677E-1	7.368683E-1	7.681146E-1	6.390854E-1	5.918267E-1	6.805461E-1	7.201359E-1	6.485747E-1	6.500336E-1	6.508163E-1	6.097065E-1	6.008574E-1	6.445218E-1	6.864225E-1	7.479185E-1	6.948541E-1	6.834330E-1	7.617193E-1	7.671452E-1	6.835967E-1	6.403674E-1	7.503353E-1	6.952266E-1	7.157358E-1	6.548119E-1	6.737192E-1	6.619908E-1	6.292479E-1	6.458517E-1	6.965651E-1	6.276326E-1	6.820530E-1	6.330421E-1	7.398991E-1	6.313594E-1	6.409191E-1	5.994603E-1	7.640184E-1	6.618822E-1	6.544427E-1	6.301124E-1	6.512043E-1	6.142292E-1	6.436404E-1	6.701949E-1	6.555813E-1	6.784419E-1	6.508915E-1	5.900027E-1	7.734416E-1	6.272690E-1	6.188233E-1	6.404604E-1	7.025889E-1	6.183378E-1	6.441876E-1	6.861381E-1	6.501963E-1	5.838909E-1	7.125826E-1	6.690788E-1	7.272625E-1	6.968763E-1	7.507835E-1	6.879402E-1	7.655180E-1	6.533014E-1	6.815121E-1	6.496429E-1	7.260192E-1	7.132624E-1	6.680876E-1	6.134222E-1	6.165888E-1	6.915381E-1	6.532856E-1	7.063205E-1	6.883590E-1	7.149705E-1	6.378443E-1	6.931495E-1	7.485348E-1	6.577925E-1	6.313877E-1	6.297237E-1	7.097189E-1	6.506585E-1	6.124312E-1	6.780348E-1	6.166699E-1	6.514454E-1	6.347492E-1	6.783068E-1	5.932132E-1	6.485219E-1	6.700952E-1	6.876983E-1	7.541563E-1	6.631158E-1	6.606941E-1	6.669533E-1	6.960204E-1	6.348202E-1	6.623587E-1	6.201422E-1	6.640553E-1	6.224367E-1	6.604546E-1	7.161340E-1	7.310619E-1	6.589558E-1	6.295561E-1	6.778388E-1	7.931381E-1	6.618191E-1	6.422360E-1	6.612359E-1	7.963448E-1	6.636026E-1	6.668824E-1	6.970099E-1	6.379528E-1	6.618246E-1	6.982954E-1	6.993642E-1	6.760622E-1	7.034298E-1	7.344054E-1	6.914961E-1	7.332911E-1	6.677688E-1	7.137382E-1	6.374587E-1	7.444706E-1	6.490656E-1	6.279877E-1	6.698297E-1	6.601662E-1	6.033618E-1	6.213211E-1	7.433843E-1	7.007191E-1	6.611714E-1	6.351426E-1	6.684741E-1	7.598268E-1	6.241742E-1	6.152496E-1	6.837197E-1	7.485211E-1	6.047212E-1	6.317217E-1	7.341204E-1	6.493761E-1	6.407418E-1	6.709019E-1	7.219462E-1	5.880717E-1	6.702616E-1
5.382580E+2	7.348624E-1	7.077179E-1	8.047373E-1	7.718013E-1	7.375654E-1	7.079258E-1	7.424242E-1	7.780799E-1	8.461416E-1	8.447836E-1	8.104178E-1	7.360954E-1	9.310549E-1	9.272421E-1	7.317334E-1	7.638011E-1	8.380595E-1	8.428401E-1	7.337023E-1	7.787663E-1	8.037023E-1	7.787208E-1	7.651903E-1	8.019319E-1	9.185882E-1	9.304266E-1	8.519984E-1	8.301381E-1	9.543017E-1	9.333768E-1	8.397998E-1	7.756616E-1	8.986302E-1	8.769725E-1	8.345835E-1	8.345791E-1	8.067094E-1	8.000332E-1	7.621359E-1	8.051946E-1	8.813357E-1	8.580184E-1	8.414830E-1	8.349017E-1	9.344638E-1	9.161627E-1	7.982257E-1	7.632086E-1	8.985624E-1	9.008838E-1	7.728319E-1	7.717848E-1	7.444746E-1	8.034485E-1	7.842974E-1	8.033941E-1	8.675920E-1	8.754323E-1	8.401540E-1	7.548255E-1	9.352531E-1	8.542602E-1	7.883862E-1	7.971536E-1	8.898628E-1	8.361568E-1	8.326280E-1	8.612454E-1	7.743015E-1	8.175267E-1	8.697758E-1	7.949083E-1	8.656476E-1	8.488399E-1	9.238493E-1	9.289351E-1	9.467302E-1	8.055885E-1	8.418502E-1	7.844737E-1	8.807964E-1	8.392059E-1	8.579629E-1	7.635777E-1	7.610435E-1	8.154360E-1	7.677795E-1	8.313580E-1	8.403511E-1	8.244261E-1	8.116028E-1	8.165647E-1	9.073832E-1	8.006023E-1	8.091382E-1	8.018742E-1	8.976703E-1	8.204003E-1	7.990662E-1	8.491110E-1	7.334548E-1	7.990842E-1	7.805103E-1	8.282297E-1	7.021492E-1	8.305027E-1	8.068048E-1	8.571062E-1	9.406641E-1	7.889586E-1	8.110567E-1	7.684451E-1	8.330968E-1	8.129379E-1	8.224159E-1	7.835368E-1	7.678510E-1	7.599282E-1	8.109834E-1	8.574498E-1	8.501829E-1	7.895930E-1	8.129713E-1	7.993419E-1	9.335837E-1	7.780097E-1	8.020654E-1	8.193188E-1	8.943335E-1	7.935283E-1	8.044192E-1	7.960814E-1	7.833548E-1	7.933068E-1	8.586234E-1	8.745048E-1	8.766595E-1	8.455198E-1	9.019321E-1	8.586627E-1	9.307615E-1	8.557493E-1	8.110320E-1	8.033508E-1	8.911652E-1	8.210555E-1	8.088025E-1	8.367404E-1	8.549514E-1	7.594429E-1	7.215998E-1	9.243437E-1	8.766617E-1	8.263152E-1	8.335761E-1	8.191744E-1	9.297966E-1	7.679617E-1	7.843285E-1	8.242263E-1	8.881737E-1	7.555286E-1	7.753770E-1	8.459072E-1	8.299390E-1	7.640745E-1	7.610238E-1	8.572825E-1	8.261336E-1	7.561217E-1
5.385110E+2	9.533338E-1	9.154949E-1	1.050664E+0	8.816750E-1	9.278551E-1	8.816777E-1	9.197689E-1	9.372419E-1	1.057004E+0	1.069006E+0	9.430179E-1	9.681389E-1	1.198183E+0	1.119503E+0	9.591834E-1	9.572720E-1	1.073380E+0	1.057014E+0	9.539629E-1	9.815805E-1	1.016043E+0	1.001392E+0	9.164811E-1	9.538668E-1	1.158226E+0	1.124671E+0	1.024572E+0	1.055435E+0	1.215949E+0	1.202322E+0	1.025149E+0	9.632683E-1	1.081885E+0	1.079815E+0	1.090651E+0	9.538051E-1	1.037316E+0	1.032820E+0	1.009371E+0	1.004731E+0	1.056252E+0	1.063758E+0	1.009118E+0	9.961510E-1	1.194512E+0	1.152701E+0	1.002591E+0	9.231385E-1	1.100667E+0	1.069756E+0	9.344688E-1	1.005576E+0	9.815933E-1	1.015392E+0	1.008166E+0	1.008465E+0	1.045241E+0	1.105347E+0	1.031035E+0	9.253515E-1	1.105006E+0	1.167850E+0	9.692521E-1	1.014454E+0	1.130735E+0	1.085317E+0	1.044624E+0	1.049518E+0	9.830020E-1	1.018394E+0	1.070891E+0	1.008917E+0	9.911162E-1	1.100443E+0	1.122788E+0	1.076684E+0	1.171223E+0	1.176474E+0	1.107887E+0	9.668381E-1	1.106722E+0	1.134084E+0	1.016672E+0	9.742627E-1	9.718299E-1	1.054751E+0	9.850365E-1	1.042096E+0	1.003292E+0	1.091717E+0	1.047099E+0	1.031767E+0	1.144326E+0	1.124526E+0	9.505418E-1	1.007770E+0	1.037292E+0	1.030952E+0	9.558153E-1	9.802289E-1	9.498812E-1	9.783265E-1	9.836494E-1	1.046970E+0	8.995573E-1	1.004877E+0	1.042348E+0	1.066064E+0	1.100671E+0	9.946266E-1	1.000251E+0	9.850907E-1	1.055211E+0	9.752082E-1	1.054701E+0	9.997205E-1	9.661477E-1	9.297166E-1	9.518299E-1	1.040656E+0	1.044072E+0	1.045665E+0	9.798578E-1	1.028280E+0	1.183859E+0	9.858039E-1	1.000254E+0	1.009018E+0	1.105387E+0	1.003223E+0	1.091829E+0	9.997283E-1	9.661178E-1	9.869019E-1	1.054526E+0	1.060094E+0	1.080483E+0	1.055540E+0	1.059681E+0	1.091783E+0	1.140215E+0	1.040399E+0	9.770356E-1	1.031937E+0	1.157881E+0	9.835598E-1	9.817297E-1	1.039136E+0	1.016639E+0	9.734416E-1	9.180365E-1	1.108564E+0	1.086180E+0	9.596317E-1	9.841944E-1	1.016244E+0	1.220656E+0	9.366920E-1	9.803061E-1	1.009210E+0	1.094967E+0	9.682060E-1	9.337665E-1	1.087773E+0	1.033527E+0	9.688364E-1	9.170034E-1	1.077309E+0	9.124481E-1	9.828773E-1
5.387600E+2	1.177857E+0	1.104978E+0	1.292676E+0	1.038033E+0	1.100228E+0	1.147414E+0	1.106396E+0	1.168228E+0	1.326141E+0	1.317094E+0	1.173085E+0	1.227835E+0	1.383005E+0	1.387184E+0	1.134751E+0	1.166506E+0	1.306803E+0	1.267843E+0	1.121243E+0	1.199576E+0	1.193939E+0	1.178902E+0	1.179066E+0	1.192492E+0	1.355911E+0	1.319504E+0	1.288004E+0	1.253953E+0	1.430224E+0	1.422613E+0	1.236454E+0	1.202741E+0	1.409489E+0	1.327552E+0	1.249113E+0	1.205231E+0	1.247323E+0	1.277609E+0	1.217751E+0	1.189435E+0	1.313084E+0	1.294145E+0	1.258812E+0	1.200997E+0	1.383897E+0	1.366782E+0	1.192610E+0	1.128421E+0	1.383614E+0	1.279584E+0	1.192330E+0	1.164402E+0	1.149107E+0	1.142993E+0	1.146289E+0	1.202035E+0	1.273460E+0	1.341401E+0	1.281768E+0	1.105572E+0	1.326382E+0	1.446886E+0	1.205735E+0	1.172131E+0	1.341972E+0	1.362161E+0	1.236598E+0	1.319422E+0	1.184610E+0	1.235431E+0	1.304368E+0	1.268502E+0	1.302328E+0	1.354274E+0	1.351049E+0	1.317677E+0	1.409511E+0	1.363517E+0	1.291065E+0	1.239698E+0	1.378207E+0	1.379313E+0	1.253295E+0	1.204153E+0	1.141834E+0	1.243660E+0	1.197601E+0	1.265008E+0	1.250600E+0	1.344495E+0	1.188398E+0	1.270535E+0	1.404646E+0	1.412036E+0	1.199989E+0	1.178454E+0	1.279616E+0	1.372804E+0	1.189414E+0	1.233721E+0	1.178628E+0	1.174276E+0	1.203911E+0	1.263253E+0	1.076503E+0	1.340167E+0	1.232321E+0	1.296774E+0	1.347682E+0	1.418172E+0	1.235051E+0	1.232478E+0	1.338883E+0	1.342854E+0	1.168532E+0	1.216533E+0	1.200593E+0	1.186705E+0	1.187305E+0	1.259697E+0	1.309561E+0	1.199424E+0	1.131815E+0	1.243149E+0	1.420042E+0	1.271219E+0	1.224017E+0	1.200604E+0	1.344079E+0	1.292082E+0	1.225049E+0	1.287157E+0	1.163523E+0	1.241706E+0	1.300623E+0	1.298424E+0	1.236575E+0	1.254803E+0	1.306733E+0	1.358204E+0	1.393954E+0	1.270734E+0	1.180418E+0	1.291383E+0	1.401927E+0	1.199811E+0	1.193490E+0	1.275044E+0	1.230957E+0	1.094184E+0	1.116305E+0	1.290066E+0	1.290999E+0	1.185428E+0	1.254351E+0	1.196569E+0	1.444872E+0	1.147484E+0	1.144581E+0	1.237657E+0	1.389043E+0	1.128681E+0	1.169508E+0	1.269343E+0	1.268017E+0	1.200264E+0	1.153284E+0	1.332208E+0	1.143549E+0	1.205230E+0
5.390130E+2	1.359411E+0	1.324516E+0	1.530122E+0	1.118325E+0	1.245002E+0	1.275418E+0	1.304748E+0	1.334286E+0	1.516578E+0	1.565735E+0	1.432618E+0	1.400365E+0	1.712236E+0	1.652254E+0	1.303371E+0	1.356155E+0	1.528207E+0	1.534442E+0	1.345671E+0	1.425467E+0	1.467151E+0	1.384579E+0	1.316008E+0	1.376820E+0	1.605895E+0	1.578887E+0	1.522290E+0	1.506027E+0	1.655124E+0	1.726696E+0	1.527003E+0	1.389899E+0	1.642360E+0	1.507134E+0	1.495995E+0	1.331254E+0	1.455094E+0	1.478672E+0	1.423486E+0	1.429167E+0	1.546509E+0	1.524533E+0	1.432307E+0	1.446454E+0	1.618977E+0	1.656362E+0	1.340059E+0	1.327976E+0	1.519891E+0	1.528124E+0	1.456681E+0	1.422972E+0	1.382514E+0	1.405632E+0	1.378605E+0	1.434415E+0	1.499088E+0	1.554014E+0	1.441373E+0	1.274388E+0	1.612279E+0	1.668194E+0	1.400619E+0	1.417519E+0	1.546900E+0	1.588860E+0	1.442704E+0	1.487287E+0	1.420157E+0	1.503965E+0	1.525366E+0	1.497372E+0	1.456089E+0	1.539079E+0	1.608060E+0	1.487753E+0	1.643515E+0	1.662605E+0	1.497087E+0	1.431205E+0	1.564814E+0	1.599108E+0	1.387187E+0	1.404941E+0	1.394877E+0	1.492869E+0	1.399841E+0	1.420955E+0	1.477302E+0	1.567641E+0	1.348790E+0	1.494420E+0	1.620870E+0	1.608754E+0	1.354836E+0	1.422499E+0	1.488376E+0	1.548459E+0	1.387025E+0	1.448504E+0	1.323806E+0	1.432530E+0	1.352909E+0	1.440214E+0	1.333494E+0	1.583588E+0	1.421112E+0	1.522870E+0	1.585191E+0	1.648726E+0	1.459011E+0	1.371541E+0	1.557825E+0	1.572949E+0	1.459178E+0	1.396267E+0	1.374616E+0	1.351418E+0	1.337834E+0	1.481260E+0	1.575683E+0	1.453184E+0	1.443727E+0	1.515572E+0	1.590129E+0	1.694521E+0	1.469238E+0	1.361520E+0	1.594078E+0	1.587588E+0	1.506907E+0	1.348924E+0	1.378596E+0	1.433488E+0	1.532098E+0	1.522324E+0	1.424273E+0	1.469921E+0	1.554437E+0	1.470519E+0	1.632064E+0	1.645266E+0	1.390945E+0	1.426892E+0	1.607297E+0	1.562757E+0	1.381586E+0	1.467583E+0	1.423574E+0	1.313088E+0	1.340672E+0	1.569384E+0	1.522007E+0	1.429241E+0	1.351775E+0	1.419397E+0	1.685616E+0	1.432123E+0	1.346805E+0	1.475204E+0	1.531383E+0	1.432873E+0	1.326055E+0	1.423812E+0	1.473422E+0	1.359788E+0	1.338149E+0	1.541439E+0	1.419197E+0	1.337320E+0
5.392880E+2	1.624481E+0	1.573457E+0	1.797575E+0	1.524010E+0	1.528255E+0	1.562085E+0	1.589573E+0	1.663528E+0	1.831370E+0	1.797172E+0	1.696119E+0	1.745424E+0	1.968028E+0	1.996231E+0	1.635975E+0	1.649945E+0	1.890043E+0	1.817779E+0	1.659990E+0	1.731509E+0	1.752632E+0	1.718589E+0	1.683802E+0	1.683427E+0	1.878285E+0	1.875244E+0	1.752007E+0	1.772078E+0	2.073051E+0	2.009604E+0	1.809807E+0	1.697017E+0	1.929365E+0	1.851694E+0	1.733114E+0	1.654957E+0	1.745252E+0	1.748758E+0	1.651297E+0	1.699045E+0	1.864932E+0	1.827781E+0	1.740031E+0	1.711022E+0	1.929903E+0	1.925873E+0	1.678872E+0	1.589593E+0	1.851345E+0	1.847355E+0	1.629671E+0	1.688528E+0	1.657219E+0	1.689241E+0	1.649362E+0	1.627987E+0	1.762963E+0	1.807368E+0	1.711517E+0	1.580652E+0	1.940868E+0	1.999713E+0	1.652021E+0	1.676209E+0	1.852720E+0	1.945103E+0	1.757755E+0	1.830920E+0	1.699268E+0	1.792073E+0	1.821724E+0	1.752006E+0	1.822657E+0	1.804599E+0	1.890945E+0	1.846287E+0	1.934124E+0	1.943399E+0	1.815973E+0	1.742459E+0	1.847533E+0	1.951509E+0	1.772132E+0	1.707001E+0	1.666589E+0	1.824048E+0	1.712353E+0	1.743151E+0	1.735558E+0	1.934715E+0	1.630114E+0	1.781562E+0	1.931129E+0	1.942131E+0	1.655566E+0	1.706644E+0	1.813265E+0	1.834712E+0	1.612087E+0	1.718229E+0	1.580947E+0	1.689883E+0	1.660628E+0	1.741533E+0	1.526689E+0	1.821157E+0	1.692165E+0	1.775334E+0	1.955208E+0	1.991034E+0	1.694267E+0	1.620878E+0	1.881477E+0	1.889886E+0	1.747510E+0	1.637586E+0	1.700466E+0	1.664695E+0	1.611603E+0	1.791147E+0	1.803158E+0	1.713305E+0	1.672996E+0	1.770087E+0	1.964332E+0	1.962582E+0	1.698025E+0	1.723459E+0	1.899982E+0	1.889741E+0	1.742509E+0	1.690780E+0	1.620426E+0	1.728186E+0	1.744079E+0	1.791007E+0	1.719042E+0	1.783537E+0	1.710883E+0	1.861666E+0	1.963961E+0	2.005047E+0	1.665786E+0	1.736014E+0	1.998037E+0	1.816319E+0	1.721979E+0	1.708092E+0	1.823449E+0	1.676789E+0	1.538940E+0	1.874788E+0	1.868519E+0	1.734910E+0	1.705011E+0	1.655752E+0	1.947031E+0	1.869355E+0	1.657102E+0	1.718819E+0	1.867757E+0	1.857584E+0	1.543996E+0	1.658901E+0	1.715790E+0	1.592166E+0	1.549012E+0	1.806302E+0	1.601572E+0	1.713779E+0
5.395160E+2	1.790302E+0	1.696947E+0	1.997842E+0	1.553592E+0	1.677392E+0	1.699821E+0	1.702431E+0	1.777297E+0	2.048241E+0	2.017510E+0	1.797551E+0	1.862046E+0	2.240088E+0	2.146203E+0	1.756420E+0	1.836249E+0	2.038699E+0	2.049245E+0	1.749283E+0	1.876636E+0	1.925336E+0	1.849596E+0	1.765100E+0	1.810270E+0	2.006440E+0	1.984985E+0	1.931436E+0	1.951384E+0	2.178417E+0	2.130334E+0	1.946884E+0	1.782705E+0	2.096267E+0	1.989627E+0	1.910526E+0	1.763681E+0	1.867942E+0	1.927523E+0	1.822592E+0	1.815320E+0	2.034303E+0	2.005662E+0	1.920559E+0	1.887799E+0	2.179588E+0	2.086435E+0	1.833937E+0	1.764796E+0	1.991663E+0	1.988730E+0	1.818875E+0	1.816223E+0	1.817774E+0	1.810725E+0	1.817052E+0	1.823478E+0	1.950335E+0	1.990407E+0	1.909404E+0	1.680455E+0	2.129981E+0	2.111242E+0	1.777271E+0	1.843250E+0	2.039990E+0	2.058451E+0	1.816642E+0	1.955336E+0	1.708387E+0	1.871656E+0	2.008042E+0	1.898143E+0	1.980719E+0	2.050634E+0	1.977762E+0	1.960550E+0	2.075855E+0	2.108949E+0	1.943618E+0	1.813305E+0	2.059103E+0	2.048388E+0	1.923918E+0	1.849011E+0	1.771244E+0	1.922035E+0	1.821687E+0	1.846645E+0	1.912669E+0	2.073798E+0	1.777138E+0	1.945290E+0	2.086791E+0	2.168642E+0	1.792490E+0	1.864612E+0	1.957582E+0	1.941766E+0	1.739559E+0	1.833735E+0	1.659163E+0	1.819461E+0	1.744846E+0	1.851152E+0	1.641644E+0	1.923558E+0	1.914685E+0	1.951992E+0	2.025208E+0	2.104668E+0	1.806697E+0	1.765793E+0	1.969691E+0	2.007153E+0	1.803559E+0	1.811669E+0	1.790314E+0	1.755589E+0	1.712395E+0	1.917828E+0	1.948888E+0	1.926022E+0	1.794028E+0	1.925485E+0	2.119839E+0	2.163141E+0	1.793465E+0	1.874932E+0	2.039426E+0	1.994286E+0	1.920752E+0	1.795354E+0	1.732508E+0	1.887326E+0	1.885892E+0	1.944256E+0	1.917702E+0	1.964118E+0	1.946854E+0	1.942634E+0	2.044201E+0	2.120689E+0	1.813102E+0	1.870560E+0	2.112060E+0	2.052171E+0	1.768092E+0	1.887487E+0	1.872824E+0	1.700837E+0	1.737210E+0	2.035640E+0	2.017599E+0	1.868222E+0	1.876548E+0	1.815471E+0	2.145418E+0	2.062049E+0	1.740199E+0	1.832037E+0	2.012110E+0	1.979388E+0	1.722030E+0	1.925839E+0	1.906050E+0	1.817879E+0	1.707300E+0	2.023006E+0	1.747749E+0	1.870085E+0
5.397650E+2	1.953097E+0	1.747911E+0	2.110691E+0	1.638110E+0	1.767450E+0	1.819064E+0	1.795741E+0	1.886468E+0	2.108319E+0	2.160143E+0	1.970954E+0	2.005720E+0	2.326336E+0	2.293560E+0	1.840266E+0	1.905043E+0	2.158260E+0	2.178642E+0	1.798694E+0	1.978652E+0	2.064537E+0	1.931866E+0	1.864655E+0	1.912473E+0	2.119647E+0	2.193902E+0	2.037724E+0	2.033468E+0	2.330713E+0	2.271337E+0	1.984228E+0	1.876057E+0	2.276139E+0	2.119444E+0	1.917987E+0	1.946537E+0	2.022874E+0	1.992262E+0	1.951505E+0	1.883748E+0	2.139625E+0	2.165324E+0	2.026651E+0	1.971409E+0	2.292651E+0	2.199688E+0	1.899819E+0	1.882716E+0	2.185684E+0	2.067277E+0	1.903205E+0	1.947096E+0	1.904546E+0	1.933518E+0	1.866470E+0	1.981591E+0	1.925049E+0	2.152237E+0	1.971416E+0	1.851552E+0	2.198476E+0	2.316804E+0	1.885339E+0	1.960522E+0	2.153496E+0	2.123745E+0	2.039828E+0	2.070539E+0	1.870990E+0	2.006560E+0	2.069533E+0	1.978398E+0	2.026230E+0	2.097394E+0	2.147376E+0	2.118148E+0	2.270389E+0	2.237910E+0	2.034984E+0	1.980586E+0	2.198900E+0	2.243361E+0	2.000094E+0	1.952025E+0	1.902927E+0	2.040283E+0	1.923979E+0	2.003997E+0	2.026660E+0	2.188697E+0	1.876427E+0	2.073669E+0	2.131418E+0	2.253761E+0	1.930408E+0	1.971228E+0	2.060955E+0	2.049404E+0	1.876184E+0	1.999818E+0	1.772731E+0	1.910664E+0	1.881351E+0	2.017786E+0	1.759007E+0	2.081550E+0	1.933628E+0	2.021861E+0	2.137716E+0	2.237552E+0	1.943513E+0	1.812636E+0	2.170861E+0	2.125680E+0	1.970552E+0	1.908448E+0	1.894627E+0	1.895846E+0	1.820232E+0	2.024320E+0	2.023656E+0	2.020244E+0	1.931590E+0	1.960659E+0	2.227729E+0	2.362261E+0	1.966535E+0	1.921183E+0	2.177614E+0	2.138715E+0	2.005869E+0	1.960474E+0	1.800158E+0	1.925865E+0	1.977506E+0	2.074617E+0	2.009294E+0	2.050729E+0	2.012040E+0	2.100657E+0	2.173933E+0	2.302486E+0	1.943376E+0	1.993535E+0	2.218746E+0	2.051535E+0	1.866995E+0	1.985401E+0	1.970485E+0	1.856425E+0	1.820087E+0	2.191600E+0	2.120350E+0	2.058590E+0	1.877745E+0	1.902410E+0	2.195527E+0	2.222467E+0	1.911203E+0	1.963445E+0	2.145047E+0	2.029656E+0	1.753951E+0	2.078954E+0	1.995721E+0	1.774545E+0	1.826886E+0	2.087770E+0	1.909240E+0	2.017589E+0
5.400190E+2	1.922232E+0	1.800838E+0	2.120478E+0	1.933923E+0	1.778101E+0	1.871624E+0	1.844109E+0	1.956570E+0	2.173798E+0	2.165695E+0	2.028186E+0	2.032170E+0	2.330283E+0	2.353284E+0	1.983865E+0	1.894529E+0	2.181663E+0	2.232183E+0	1.964783E+0	1.992013E+0	2.051798E+0	1.936340E+0	1.858570E+0	1.991861E+0	2.181135E+0	2.184504E+0	2.082865E+0	2.044533E+0	2.252795E+0	2.319091E+0	2.009729E+0	1.879667E+0	2.208478E+0	2.159471E+0	2.035113E+0	1.875498E+0	1.986158E+0	1.994402E+0	1.929430E+0	1.898104E+0	2.169187E+0	2.102637E+0	2.062406E+0	1.976188E+0	2.308669E+0	2.235526E+0	1.912367E+0	1.816835E+0	2.134870E+0	2.123381E+0	1.908613E+0	1.889919E+0	1.905940E+0	2.004313E+0	1.890548E+0	1.890554E+0	2.080658E+0	2.083601E+0	2.006463E+0	1.831591E+0	2.191526E+0	2.244203E+0	1.888958E+0	1.880698E+0	2.127638E+0	2.140985E+0	1.985648E+0	2.065935E+0	1.925194E+0	1.975070E+0	2.106061E+0	1.953626E+0	2.072979E+0	2.055644E+0	2.169799E+0	2.138501E+0	2.283702E+0	2.216877E+0	2.065440E+0	1.965503E+0	2.141486E+0	2.254260E+0	2.019142E+0	1.904881E+0	1.884253E+0	1.996939E+0	1.935241E+0	2.068153E+0	1.998323E+0	2.148181E+0	1.881522E+0	2.056923E+0	2.161171E+0	2.290645E+0	1.976713E+0	1.974650E+0	2.060285E+0	2.149359E+0	1.913387E+0	1.996701E+0	1.841300E+0	1.952202E+0	1.840628E+0	2.018769E+0	1.777662E+0	2.120168E+0	1.937769E+0	2.126677E+0	2.170215E+0	2.282636E+0	1.910550E+0	1.865823E+0	2.175299E+0	2.163085E+0	1.935303E+0	1.877653E+0	1.907024E+0	1.840943E+0	1.822431E+0	2.033909E+0	2.059772E+0	2.061287E+0	1.900131E+0	2.032280E+0	2.260288E+0	2.255707E+0	1.974297E+0	1.928731E+0	2.143069E+0	2.150800E+0	1.985510E+0	1.965367E+0	1.863777E+0	1.953070E+0	2.045247E+0	2.056705E+0	1.971883E+0	2.174707E+0	2.049193E+0	2.046462E+0	2.169771E+0	2.284404E+0	1.966463E+0	1.935178E+0	2.203411E+0	2.147650E+0	1.881558E+0	2.019570E+0	2.057303E+0	1.825015E+0	1.836574E+0	2.060637E+0	2.061249E+0	2.032167E+0	1.904044E+0	1.848956E+0	2.171246E+0	2.252299E+0	1.855480E+0	1.941710E+0	2.208161E+0	2.117304E+0	1.821481E+0	2.093857E+0	2.009657E+0	1.895976E+0	1.841327E+0	2.120979E+0	1.918988E+0	1.942736E+0
5.402690E+2	1.925863E+0	1.733536E+0	2.081336E+0	1.798695E+0	1.798924E+0	1.776719E+0	1.833848E+0	1.867509E+0	2.086690E+0	2.121847E+0	2.048019E+0	1.964842E+0	2.357386E+0	2.238626E+0	2.193714E+0	1.895964E+0	2.043761E+0	2.127330E+0	2.061818E+0	1.919141E+0	1.936190E+0	1.912193E+0	1.877262E+0	1.932544E+0	2.159874E+0	2.051881E+0	2.086297E+0	1.987477E+0	2.263864E+0	2.269086E+0	2.173220E+0	1.870193E+0	2.181415E+0	2.108084E+0	1.975404E+0	1.874258E+0	1.977204E+0	1.958394E+0	1.868947E+0	1.948827E+0	2.158103E+0	2.076384E+0	2.038372E+0	1.925423E+0	2.254020E+0	2.214501E+0	2.007378E+0	1.742837E+0	2.157392E+0	2.014540E+0	1.954021E+0	1.914696E+0	1.909187E+0	1.930464E+0	1.859287E+0	1.855098E+0	2.006745E+0	2.089179E+0	1.962248E+0	1.796231E+0	2.119060E+0	2.214022E+0	1.881724E+0	1.894990E+0	2.062063E+0	2.170756E+0	1.998604E+0	2.023142E+0	1.841103E+0	1.973788E+0	2.087100E+0	1.965022E+0	1.942588E+0	2.147493E+0	2.109428E+0	2.154916E+0	2.209984E+0	2.185319E+0	2.007665E+0	1.888258E+0	2.105286E+0	2.211270E+0	1.922187E+0	1.853085E+0	1.878850E+0	1.963022E+0	1.849372E+0	2.033967E+0	1.977717E+0	2.140322E+0	1.885977E+0	2.012892E+0	2.147886E+0	2.188978E+0	1.870661E+0	1.876349E+0	2.025384E+0	2.039943E+0	1.939612E+0	1.868703E+0	1.755054E+0	1.885380E+0	1.831838E+0	1.992226E+0	1.750578E+0	2.047611E+0	1.976829E+0	2.044276E+0	2.107715E+0	2.194356E+0	1.873977E+0	1.862894E+0	2.115647E+0	2.065467E+0	1.982684E+0	1.902789E+0	1.861578E+0	1.852938E+0	1.795143E+0	1.979905E+0	1.997678E+0	1.949145E+0	1.884137E+0	1.951065E+0	2.179128E+0	2.215694E+0	1.902605E+0	1.892393E+0	2.092816E+0	2.139923E+0	1.952208E+0	1.959865E+0	1.864785E+0	1.925413E+0	2.019417E+0	2.029337E+0	2.032516E+0	2.070545E+0	2.025076E+0	2.073885E+0	2.139548E+0	2.203499E+0	1.871915E+0	1.948682E+0	2.094724E+0	2.036360E+0	1.844546E+0	1.986057E+0	1.888019E+0	1.854465E+0	1.769261E+0	2.117152E+0	2.047151E+0	1.954700E+0	1.834112E+0	1.939766E+0	2.180544E+0	2.143233E+0	1.797359E+0	1.905825E+0	2.010095E+0	2.023858E+0	1.765617E+0	1.914320E+0	1.932708E+0	1.842643E+0	1.743696E+0	2.051236E+0	1.776986E+0	1.933932E+0
5.405290E+2	1.793934E+0	1.704136E+0	2.020022E+0	1.671918E+0	1.754863E+0	1.706147E+0	1.770339E+0	1.780166E+0	1.970744E+0	2.020840E+0	1.989652E+0	1.907133E+0	2.287893E+0	2.202877E+0	2.143223E+0	1.849623E+0	2.014660E+0	2.107250E+0	1.959429E+0	1.894248E+0	1.883811E+0	1.904590E+0	1.811182E+0	1.841296E+0	2.025976E+0	2.003759E+0	1.969722E+0	1.939739E+0	2.188159E+0	2.233500E+0	2.121757E+0	1.790371E+0	2.115438E+0	2.012343E+0	2.015596E+0	1.732795E+0	1.944962E+0	1.917665E+0	1.853939E+0	1.855039E+0	2.022604E+0	2.012629E+0	2.104606E+0	1.899745E+0	2.164982E+0	2.129920E+0	2.160201E+0	1.759068E+0	2.010716E+0	2.034176E+0	2.052411E+0	1.790811E+0	1.813598E+0	1.870593E+0	1.845349E+0	1.787060E+0	1.987945E+0	1.959159E+0	2.007541E+0	1.738060E+0	2.057511E+0	2.191717E+0	2.142622E+0	1.886120E+0	2.112506E+0	2.064717E+0	2.114616E+0	1.955995E+0	1.819322E+0	1.872506E+0	2.088026E+0	1.894179E+0	1.868165E+0	2.023358E+0	2.051362E+0	2.000605E+0	2.155766E+0	2.142788E+0	2.000052E+0	1.874548E+0	2.069090E+0	2.134373E+0	1.979320E+0	1.841445E+0	1.797286E+0	1.892827E+0	1.825913E+0	1.927661E+0	1.906873E+0	2.015747E+0	1.824241E+0	1.890713E+0	2.058103E+0	2.124192E+0	1.853733E+0	1.872439E+0	1.915292E+0	2.001498E+0	1.826170E+0	1.841230E+0	1.715945E+0	1.815398E+0	1.751325E+0	1.869335E+0	1.668127E+0	1.965687E+0	1.914094E+0	1.948036E+0	2.062714E+0	2.151626E+0	1.798119E+0	1.803856E+0	2.022997E+0	2.075610E+0	1.932991E+0	1.780873E+0	1.864677E+0	1.762047E+0	1.742323E+0	1.932464E+0	1.985007E+0	1.948566E+0	1.748707E+0	1.886479E+0	2.074646E+0	2.209429E+0	1.848262E+0	1.801318E+0	2.089051E+0	2.040816E+0	1.903482E+0	1.872413E+0	1.768353E+0	1.834280E+0	1.875172E+0	2.019386E+0	1.908674E+0	1.978271E+0	1.875803E+0	1.942635E+0	2.080150E+0	2.137829E+0	1.843882E+0	1.861881E+0	2.097390E+0	1.980086E+0	1.785084E+0	1.905229E+0	1.847864E+0	1.771027E+0	1.646089E+0	2.029120E+0	2.003498E+0	1.904857E+0	1.834111E+0	1.738188E+0	2.144382E+0	2.089925E+0	1.757972E+0	1.859327E+0	1.997341E+0	1.936206E+0	1.720187E+0	1.975973E+0	1.886660E+0	1.812167E+0	1.750628E+0	1.964887E+0	1.738005E+0	1.876692E+0
5.407580E+2	1.776988E+0	1.846573E+0	1.948265E+0	1.684593E+0	1.670613E+0	1.812250E+0	1.745421E+0	1.794532E+0	1.995372E+0	2.041930E+0	1.988521E+0	1.824774E+0	2.187350E+0	2.139225E+0	2.143684E+0	1.804245E+0	1.990625E+0	2.034182E+0	2.002286E+0	1.844457E+0	1.868242E+0	1.867032E+0	1.727276E+0	1.847683E+0	2.000114E+0	1.973832E+0	1.907439E+0	1.905973E+0	2.100497E+0	2.211426E+0	2.197810E+0	1.749331E+0	2.026917E+0	1.978809E+0	2.036259E+0	1.722290E+0	1.809730E+0	1.879081E+0	1.859677E+0	1.785174E+0	2.050318E+0	2.009411E+0	1.981522E+0	1.830464E+0	2.052387E+0	2.026222E+0	2.125245E+0	1.642107E+0	2.022843E+0	1.906258E+0	1.909696E+0	1.755869E+0	1.793643E+0	1.829079E+0	1.826343E+0	1.764062E+0	1.857624E+0	1.969759E+0	2.002154E+0	1.722662E+0	2.047088E+0	2.097247E+0	2.109162E+0	1.807773E+0	2.038100E+0	2.018754E+0	2.210012E+0	1.891481E+0	1.756003E+0	1.843566E+0	2.027460E+0	1.925885E+0	1.900153E+0	2.028925E+0	2.039861E+0	2.049856E+0	2.076810E+0	2.060014E+0	2.123216E+0	1.774909E+0	2.026651E+0	2.083509E+0	1.987979E+0	1.794882E+0	1.749626E+0	1.931455E+0	1.801978E+0	1.853669E+0	1.823145E+0	1.981883E+0	1.927347E+0	1.892575E+0	2.096353E+0	2.071702E+0	2.047414E+0	1.764842E+0	1.870988E+0	2.000317E+0	1.923752E+0	1.794402E+0	1.673091E+0	1.850163E+0	1.792968E+0	1.853117E+0	1.640440E+0	1.987921E+0	1.795732E+0	1.960561E+0	2.055213E+0	2.111243E+0	1.845982E+0	1.714074E+0	2.089631E+0	1.971650E+0	1.905836E+0	1.829891E+0	1.807876E+0	1.760201E+0	1.744964E+0	1.895116E+0	1.985638E+0	1.896542E+0	1.714051E+0	1.857060E+0	2.130047E+0	2.193997E+0	1.768348E+0	1.849453E+0	1.948345E+0	1.942316E+0	1.906569E+0	1.831439E+0	1.705753E+0	1.793927E+0	1.923415E+0	1.905945E+0	1.978335E+0	1.925624E+0	1.939032E+0	1.969408E+0	2.059306E+0	2.120693E+0	1.847181E+0	1.885992E+0	1.984035E+0	1.947839E+0	1.789935E+0	1.886827E+0	1.878793E+0	1.703783E+0	1.689591E+0	1.986189E+0	1.952461E+0	1.891645E+0	1.801238E+0	1.737542E+0	2.087039E+0	2.010695E+0	1.750768E+0	1.851238E+0	1.983238E+0	1.909142E+0	1.680282E+0	1.870963E+0	1.794559E+0	1.743121E+0	1.751204E+0	1.957410E+0	1.753317E+0	1.883296E+0
5.410400E+2	1.666842E+0	1.809983E+0	1.887597E+0	1.676142E+0	1.625098E+0	1.652610E+0	1.613024E+0	1.677894E+0	1.808540E+0	1.818816E+0	1.796984E+0	1.787504E+0	2.081879E+0	1.970940E+0	1.949585E+0	1.677650E+0	1.850825E+0	1.896421E+0	1.815959E+0	1.744866E+0	1.779999E+0	1.782973E+0	1.674673E+0	1.750498E+0	1.923686E+0	1.868787E+0	1.848580E+0	1.793038E+0	1.988046E+0	2.033028E+0	2.013371E+0	1.695213E+0	1.975606E+0	1.906325E+0	1.909376E+0	1.643838E+0	1.766299E+0	1.787768E+0	1.691470E+0	1.656938E+0	1.893263E+0	1.818139E+0	1.919973E+0	1.703259E+0	1.985965E+0	1.998987E+0	2.001554E+0	1.633512E+0	1.928722E+0	1.827155E+0	1.823743E+0	1.691705E+0	1.646547E+0	1.721139E+0	1.676394E+0	1.703212E+0	1.775283E+0	1.884381E+0	1.808574E+0	1.587494E+0	1.930444E+0	1.997090E+0	2.035009E+0	1.678182E+0	1.977568E+0	1.890779E+0	2.041596E+0	1.873050E+0	1.685593E+0	1.745260E+0	1.885522E+0	1.760921E+0	1.794979E+0	1.842454E+0	1.970288E+0	1.879123E+0	1.983114E+0	1.969922E+0	2.071259E+0	1.706350E+0	1.946142E+0	1.981180E+0	1.843694E+0	1.719804E+0	1.644478E+0	1.744434E+0	1.725493E+0	1.745489E+0	1.759388E+0	1.907501E+0	1.782231E+0	1.748693E+0	1.925817E+0	1.995570E+0	1.981193E+0	1.675832E+0	1.828029E+0	1.882622E+0	1.953640E+0	1.721351E+0	1.547198E+0	1.634347E+0	1.716618E+0	1.780366E+0	1.594699E+0	1.815888E+0	1.834790E+0	1.808294E+0	1.892204E+0	1.979766E+0	2.049624E+0	1.675040E+0	1.863710E+0	1.918409E+0	1.939927E+0	1.665868E+0	1.698917E+0	1.720983E+0	1.673222E+0	1.865339E+0	1.838002E+0	1.797118E+0	1.783898E+0	1.835318E+0	1.995921E+0	1.996328E+0	1.975671E+0	1.697977E+0	1.834652E+0	1.884299E+0	1.942955E+0	1.703626E+0	1.643651E+0	1.739976E+0	1.836185E+0	1.834296E+0	1.753227E+0	1.845239E+0	1.776069E+0	1.828361E+0	1.914988E+0	2.014091E+0	1.837288E+0	1.756271E+0	2.000040E+0	1.871961E+0	1.752926E+0	1.780376E+0	1.749661E+0	1.652736E+0	1.618157E+0	1.788385E+0	1.857775E+0	1.740309E+0	1.757009E+0	1.680869E+0	2.012641E+0	1.903592E+0	1.720509E+0	1.737519E+0	1.904014E+0	1.814406E+0	1.637921E+0	1.801853E+0	1.744270E+0	1.687405E+0	1.654728E+0	1.840343E+0	1.596003E+0	1.731393E+0
5.412580E+2	1.607539E+0	1.712631E+0	1.738216E+0	1.587400E+0	1.499689E+0	1.620976E+0	1.573939E+0	1.579636E+0	1.756277E+0	1.803278E+0	1.733517E+0	1.687715E+0	1.917266E+0	1.848002E+0	1.862961E+0	1.588319E+0	1.764160E+0	1.804947E+0	1.721305E+0	1.614315E+0	1.680435E+0	1.622455E+0	1.642501E+0	1.608144E+0	1.771970E+0	1.729706E+0	1.761150E+0	1.725502E+0	1.911016E+0	1.934372E+0	1.927756E+0	1.575253E+0	1.823362E+0	1.785164E+0	1.741152E+0	1.617891E+0	1.678084E+0	1.649725E+0	1.600523E+0	1.633488E+0	1.754071E+0	1.785454E+0	1.747649E+0	1.638759E+0	1.852640E+0	1.864231E+0	1.880549E+0	1.499362E+0	1.732389E+0	1.765442E+0	1.791848E+0	1.547490E+0	1.556061E+0	1.591789E+0	1.616413E+0	1.604508E+0	1.671546E+0	1.755469E+0	1.797250E+0	1.510499E+0	1.821249E+0	1.915305E+0	1.898000E+0	1.550559E+0	1.828127E+0	1.804068E+0	1.918518E+0	1.722961E+0	1.621259E+0	1.635892E+0	1.805079E+0	1.620726E+0	1.722401E+0	1.789015E+0	1.870820E+0	1.756328E+0	1.852791E+0	1.850106E+0	1.862553E+0	1.607170E+0	1.833800E+0	1.912758E+0	1.748469E+0	1.640653E+0	1.561932E+0	1.694967E+0	1.602550E+0	1.685545E+0	1.658276E+0	1.786552E+0	1.644753E+0	1.684816E+0	1.845064E+0	1.843776E+0	1.896554E+0	1.609318E+0	1.747483E+0	1.705190E+0	1.745660E+0	1.627698E+0	1.468984E+0	1.567980E+0	1.648600E+0	1.666327E+0	1.465902E+0	1.762056E+0	1.761405E+0	1.725896E+0	1.795199E+0	1.829975E+0	1.897003E+0	1.603801E+0	1.802785E+0	1.764382E+0	1.872897E+0	1.548351E+0	1.560006E+0	1.568728E+0	1.528854E+0	1.658410E+0	1.761337E+0	1.720818E+0	1.691121E+0	1.617250E+0	1.816110E+0	1.854588E+0	1.857852E+0	1.630495E+0	1.775607E+0	1.791844E+0	1.820217E+0	1.642469E+0	1.483105E+0	1.636149E+0	1.746521E+0	1.694979E+0	1.672601E+0	1.705981E+0	1.766290E+0	1.746737E+0	1.801401E+0	1.877509E+0	1.870266E+0	1.634742E+0	1.837340E+0	1.730323E+0	1.788113E+0	1.706778E+0	1.632464E+0	1.526596E+0	1.554969E+0	1.815555E+0	1.830915E+0	1.635220E+0	1.723537E+0	1.551421E+0	1.859721E+0	1.844413E+0	1.914083E+0	1.548495E+0	1.809348E+0	1.737067E+0	1.769300E+0	1.688712E+0	1.665497E+0	1.581217E+0	1.651267E+0	1.812944E+0	1.470707E+0	1.652136E+0
5.415300E+2	1.497999E+0	1.638796E+0	1.620143E+0	1.485979E+0	1.389295E+0	1.499785E+0	1.417604E+0	1.466441E+0	1.612698E+0	1.604030E+0	1.650784E+0	1.535024E+0	1.824605E+0	1.765168E+0	1.703608E+0	1.587366E+0	1.702801E+0	1.639858E+0	1.580815E+0	1.477686E+0	1.574265E+0	1.530794E+0	1.519471E+0	1.541986E+0	1.650715E+0	1.623486E+0	1.633149E+0	1.606745E+0	1.743225E+0	1.748771E+0	1.755158E+0	1.482351E+0	1.732577E+0	1.660751E+0	1.649864E+0	1.457274E+0	1.550469E+0	1.541693E+0	1.531652E+0	1.528217E+0	1.645669E+0	1.619363E+0	1.643317E+0	1.528870E+0	1.775852E+0	1.728043E+0	1.758646E+0	1.416294E+0	1.699475E+0	1.552246E+0	1.693458E+0	1.485231E+0	1.488312E+0	1.482976E+0	1.483359E+0	1.466998E+0	1.567163E+0	1.696874E+0	1.641958E+0	1.392445E+0	1.745304E+0	1.769662E+0	1.757376E+0	1.522471E+0	1.721562E+0	1.721012E+0	1.813699E+0	1.624214E+0	1.551355E+0	1.594186E+0	1.720007E+0	1.564746E+0	1.631990E+0	1.591401E+0	1.732828E+0	1.657170E+0	1.773360E+0	1.740807E+0	1.839264E+0	1.511646E+0	1.718969E+0	1.734136E+0	1.674598E+0	1.583616E+0	1.508377E+0	1.596508E+0	1.539674E+0	1.551143E+0	1.546212E+0	1.686774E+0	1.579195E+0	1.563880E+0	1.737747E+0	1.761020E+0	1.750170E+0	1.482653E+0	1.573626E+0	1.669704E+0	1.643804E+0	1.588362E+0	1.388629E+0	1.478132E+0	1.475998E+0	1.564575E+0	1.309420E+0	1.684233E+0	1.637126E+0	1.689640E+0	1.689199E+0	1.791474E+0	1.789989E+0	1.480349E+0	1.699978E+0	1.695285E+0	1.713418E+0	1.459741E+0	1.508365E+0	1.478756E+0	1.483081E+0	1.595829E+0	1.622571E+0	1.639311E+0	1.518374E+0	1.546268E+0	1.733007E+0	1.792393E+0	1.782504E+0	1.516299E+0	1.743576E+0	1.654668E+0	1.761629E+0	1.570916E+0	1.453821E+0	1.486080E+0	1.610068E+0	1.654676E+0	1.576493E+0	1.597857E+0	1.666557E+0	1.632464E+0	1.739398E+0	1.767096E+0	1.754284E+0	1.523341E+0	1.713987E+0	1.726530E+0	1.613974E+0	1.574692E+0	1.553788E+0	1.506471E+0	1.432710E+0	1.667743E+0	1.611323E+0	1.564358E+0	1.585472E+0	1.496035E+0	1.780162E+0	1.704047E+0	1.739239E+0	1.531815E+0	1.703266E+0	1.606882E+0	1.639149E+0	1.569473E+0	1.518867E+0	1.487883E+0	1.445601E+0	1.709987E+0	1.423374E+0	1.599302E+0
5.417540E+2	1.406011E+0	1.491784E+0	1.514468E+0	1.240876E+0	1.348139E+0	1.378111E+0	1.274460E+0	1.316473E+0	1.533398E+0	1.499134E+0	1.497785E+0	1.417799E+0	1.644221E+0	1.610836E+0	1.617907E+0	1.360934E+0	1.506067E+0	1.595236E+0	1.519500E+0	1.444898E+0	1.443085E+0	1.400678E+0	1.339921E+0	1.369521E+0	1.501877E+0	1.466801E+0	1.496575E+0	1.445481E+0	1.606423E+0	1.620830E+0	1.582106E+0	1.336232E+0	1.571880E+0	1.489826E+0	1.509200E+0	1.332489E+0	1.418820E+0	1.412225E+0	1.453505E+0	1.384187E+0	1.522491E+0	1.553999E+0	1.556570E+0	1.454814E+0	1.564326E+0	1.535466E+0	1.621956E+0	1.319860E+0	1.552227E+0	1.508488E+0	1.504253E+0	1.335934E+0	1.351424E+0	1.345324E+0	1.354952E+0	1.372130E+0	1.438789E+0	1.488724E+0	1.501225E+0	1.305183E+0	1.542793E+0	1.596901E+0	1.625344E+0	1.424912E+0	1.565187E+0	1.554386E+0	1.644102E+0	1.500454E+0	1.351775E+0	1.424383E+0	1.554032E+0	1.428513E+0	1.481919E+0	1.514587E+0	1.589084E+0	1.521243E+0	1.624967E+0	1.552390E+0	1.671313E+0	1.380014E+0	1.572927E+0	1.602138E+0	1.533201E+0	1.378754E+0	1.364412E+0	1.455183E+0	1.418141E+0	1.417205E+0	1.471504E+0	1.585178E+0	1.467174E+0	1.411936E+0	1.569339E+0	1.604026E+0	1.617229E+0	1.369188E+0	1.488376E+0	1.591631E+0	1.530966E+0	1.442883E+0	1.305057E+0	1.321466E+0	1.337176E+0	1.454959E+0	1.303401E+0	1.547310E+0	1.476151E+0	1.507709E+0	1.584694E+0	1.625251E+0	1.647755E+0	1.350070E+0	1.543229E+0	1.493716E+0	1.574741E+0	1.375528E+0	1.402502E+0	1.329732E+0	1.401654E+0	1.473187E+0	1.462896E+0	1.443356E+0	1.466656E+0	1.435635E+0	1.636301E+0	1.587009E+0	1.604408E+0	1.415789E+0	1.544454E+0	1.589401E+0	1.596954E+0	1.449217E+0	1.341236E+0	1.457515E+0	1.531612E+0	1.514863E+0	1.410082E+0	1.498224E+0	1.502941E+0	1.491417E+0	1.600804E+0	1.550086E+0	1.648196E+0	1.367580E+0	1.557956E+0	1.557068E+0	1.493837E+0	1.415012E+0	1.424113E+0	1.372970E+0	1.399286E+0	1.520475E+0	1.508578E+0	1.422636E+0	1.475498E+0	1.380113E+0	1.620006E+0	1.575912E+0	1.561034E+0	1.420621E+0	1.573008E+0	1.520524E+0	1.541538E+0	1.452943E+0	1.424949E+0	1.312168E+0	1.419026E+0	1.512380E+0	1.324530E+0	1.418776E+0
5.420210E+2	1.335809E+0	1.282046E+0	1.245057E+0	1.071841E+0	1.108944E+0	1.185378E+0	1.109327E+0	1.180869E+0	1.288293E+0	1.251047E+0	1.279618E+0	1.221223E+0	1.411591E+0	1.412036E+0	1.353865E+0	1.244374E+0	1.294783E+0	1.296845E+0	1.322456E+0	1.272444E+0	1.242543E+0	1.204834E+0	1.150372E+0	1.139108E+0	1.351888E+0	1.266688E+0	1.270860E+0	1.241145E+0	1.386838E+0	1.360443E+0	1.357593E+0	1.129232E+0	1.381860E+0	1.295637E+0	1.339828E+0	1.178668E+0	1.226278E+0	1.259604E+0	1.162126E+0	1.198527E+0	1.314316E+0	1.268427E+0	1.295739E+0	1.233247E+0	1.395202E+0	1.349101E+0	1.383084E+0	1.132240E+0	1.323560E+0	1.230775E+0	1.345859E+0	1.191085E+0	1.141220E+0	1.179704E+0	1.170788E+0	1.171851E+0	1.274756E+0	1.278341E+0	1.309267E+0	1.115838E+0	1.350206E+0	1.372538E+0	1.369873E+0	1.226826E+0	1.344493E+0	1.314627E+0	1.349075E+0	1.224626E+0	1.189676E+0	1.243945E+0	1.359850E+0	1.247697E+0	1.246359E+0	1.295828E+0	1.363123E+0	1.313737E+0	1.367657E+0	1.362146E+0	1.450511E+0	1.260724E+0	1.332647E+0	1.408376E+0	1.290232E+0	1.244311E+0	1.184088E+0	1.238949E+0	1.193378E+0	1.224733E+0	1.251245E+0	1.360824E+0	1.273049E+0	1.224643E+0	1.364269E+0	1.377514E+0	1.405125E+0	1.207799E+0	1.289013E+0	1.294732E+0	1.314447E+0	1.236220E+0	1.124522E+0	1.192786E+0	1.231212E+0	1.259812E+0	1.131271E+0	1.267607E+0	1.280259E+0	1.299410E+0	1.306181E+0	1.375911E+0	1.435533E+0	1.160260E+0	1.318576E+0	1.278199E+0	1.366723E+0	1.135464E+0	1.196976E+0	1.171942E+0	1.193469E+0	1.279380E+0	1.343142E+0	1.257229E+0	1.216058E+0	1.287274E+0	1.362698E+0	1.449123E+0	1.332700E+0	1.211931E+0	1.335913E+0	1.349491E+0	1.361969E+0	1.277370E+0	1.166551E+0	1.197726E+0	1.346915E+0	1.285986E+0	1.283015E+0	1.283109E+0	1.303474E+0	1.351021E+0	1.424176E+0	1.421596E+0	1.396992E+0	1.222903E+0	1.379922E+0	1.362948E+0	1.277829E+0	1.267158E+0	1.236383E+0	1.172716E+0	1.147441E+0	1.345497E+0	1.354794E+0	1.238875E+0	1.256144E+0	1.208805E+0	1.344129E+0	1.390063E+0	1.426541E+0	1.169428E+0	1.381658E+0	1.266599E+0	1.269575E+0	1.241565E+0	1.269229E+0	1.169787E+0	1.216253E+0	1.270765E+0	1.124059E+0	1.293289E+0
5.422620E+2	1.148203E+0	1.198413E+0	1.218312E+0	9.915478E-1	1.034862E+0	1.012600E+0	1.024319E+0	1.085487E+0	1.186766E+0	1.179452E+0	1.166286E+0	1.160507E+0	1.262747E+0	1.211493E+0	1.266310E+0	1.233386E+0	1.106274E+0	1.174700E+0	1.153984E+0	1.258478E+0	1.107586E+0	1.059070E+0	1.126463E+0	1.103976E+0	1.199602E+0	1.134647E+0	1.157716E+0	1.185840E+0	1.283241E+0	1.276652E+0	1.216873E+0	1.241076E+0	1.244842E+0	1.186915E+0	1.195719E+0	1.233648E+0	1.099556E+0	1.130135E+0	1.115766E+0	1.138713E+0	1.230553E+0	1.225029E+0	1.238297E+0	1.112608E+0	1.283078E+0	1.236326E+0	1.271042E+0	1.074475E+0	1.148595E+0	1.172986E+0	1.174490E+0	1.125649E+0	1.068830E+0	1.080068E+0	1.065190E+0	1.096627E+0	1.097108E+0	1.148874E+0	1.186326E+0	1.001204E+0	1.241505E+0	1.271068E+0	1.221561E+0	1.084916E+0	1.241082E+0	1.187175E+0	1.298430E+0	1.147606E+0	1.079754E+0	1.085210E+0	1.220688E+0	1.095610E+0	1.114124E+0	1.142749E+0	1.250430E+0	1.229028E+0	1.241140E+0	1.237755E+0	1.244936E+0	1.047737E+0	1.235911E+0	1.261240E+0	1.173074E+0	1.111614E+0	1.053885E+0	1.173938E+0	1.117832E+0	1.127325E+0	1.130811E+0	1.236248E+0	1.152754E+0	1.171927E+0	1.204891E+0	1.230923E+0	1.296083E+0	1.054721E+0	1.077568E+0	1.249783E+0	1.172336E+0	1.155051E+0	1.036666E+0	1.065014E+0	1.094706E+0	1.155113E+0	1.033771E+0	1.174569E+0	1.163671E+0	1.124731E+0	1.245176E+0	1.242554E+0	1.291494E+0	1.051451E+0	1.190384E+0	1.190725E+0	1.226892E+0	1.074505E+0	1.094730E+0	1.078280E+0	1.052623E+0	1.180964E+0	1.222754E+0	1.171100E+0	1.149409E+0	1.143389E+0	1.230028E+0	1.294843E+0	1.276986E+0	1.108115E+0	1.219708E+0	1.244946E+0	1.278706E+0	1.079230E+0	1.095869E+0	1.133800E+0	1.168559E+0	1.149158E+0	1.155949E+0	1.171589E+0	1.184837E+0	1.147940E+0	1.230873E+0	1.290246E+0	1.310694E+0	1.109577E+0	1.223894E+0	1.208031E+0	1.201984E+0	1.139676E+0	1.148485E+0	1.016633E+0	1.086084E+0	1.188446E+0	1.205042E+0	1.159005E+0	1.170076E+0	1.081933E+0	1.284718E+0	1.275130E+0	1.259383E+0	1.155276E+0	1.229920E+0	1.228574E+0	1.218620E+0	1.158233E+0	1.112902E+0	1.106930E+0	1.062585E+0	1.188567E+0	1.019645E+0	1.176609E+0
5.425140E+2	1.043506E+0	1.005009E+0	1.023918E+0	8.647710E-1	8.992868E-1	9.814514E-1	8.484399E-1	9.309211E-1	1.000535E+0	9.968549E-1	1.030852E+0	9.993991E-1	1.104048E+0	1.106859E+0	1.087037E+0	1.107750E+0	1.007591E+0	1.030800E+0	1.037305E+0	1.126709E+0	9.745187E-1	9.548913E-1	9.273492E-1	1.039644E+0	1.066853E+0	1.097677E+0	1.053714E+0	1.074646E+0	1.138915E+0	1.105014E+0	1.142187E+0	1.111192E+0	1.094290E+0	1.084141E+0	1.045293E+0	1.121834E+0	9.737305E-1	9.706569E-1	9.303434E-1	9.879842E-1	1.082737E+0	1.004287E+0	1.068318E+0	1.033776E+0	1.156353E+0	1.095838E+0	1.115975E+0	1.119828E+0	1.070063E+0	1.023189E+0	1.030694E+0	1.103413E+0	9.588555E-1	9.738776E-1	9.731061E-1	1.069796E+0	1.010878E+0	1.046193E+0	1.036965E+0	9.042498E-1	1.108978E+0	1.107931E+0	1.135196E+0	1.045497E+0	1.051915E+0	1.044574E+0	1.140610E+0	1.139048E+0	9.186694E-1	9.809437E-1	1.093083E+0	1.007431E+0	1.029864E+0	1.073168E+0	1.136587E+0	1.041880E+0	1.106541E+0	1.114738E+0	1.104751E+0	1.026712E+0	1.106098E+0	1.101389E+0	1.058803E+0	1.048177E+0	9.285912E-1	9.831463E-1	9.836281E-1	1.013528E+0	1.037425E+0	1.065714E+0	1.009547E+0	9.629274E-1	1.088544E+0	1.083385E+0	1.138252E+0	1.004836E+0	1.020511E+0	1.030361E+0	1.070479E+0	9.727358E-1	9.011319E-1	9.873562E-1	9.614385E-1	9.889678E-1	8.471958E-1	1.055198E+0	1.052409E+0	1.029150E+0	1.080171E+0	1.108261E+0	1.153773E+0	9.079963E-1	1.095826E+0	1.046202E+0	1.101504E+0	9.758400E-1	9.429096E-1	9.204887E-1	9.469866E-1	1.002299E+0	1.032667E+0	9.947972E-1	1.012915E+0	1.030838E+0	1.085207E+0	1.098138E+0	1.146383E+0	9.608859E-1	1.057649E+0	1.110790E+0	1.130068E+0	1.001563E+0	9.449129E-1	9.932494E-1	1.049165E+0	9.983971E-1	9.656712E-1	1.064031E+0	1.062940E+0	1.086558E+0	1.087070E+0	1.151281E+0	1.141390E+0	9.716550E-1	1.147213E+0	1.102434E+0	1.029057E+0	1.043735E+0	9.971065E-1	9.336848E-1	9.230736E-1	1.057481E+0	1.070735E+0	1.001668E+0	1.000332E+0	9.814662E-1	1.092534E+0	1.089283E+0	1.098469E+0	1.012242E+0	1.111081E+0	1.032653E+0	1.049795E+0	1.018669E+0	1.000808E+0	9.650269E-1	9.713074E-1	1.065685E+0	8.818196E-1	1.029108E+0
5.427920E+2	9.648322E-1	9.814874E-1	9.567289E-1	8.140608E-1	8.663618E-1	8.709703E-1	8.015393E-1	8.091072E-1	9.440639E-1	9.957453E-1	9.554853E-1	9.483013E-1	9.759052E-1	9.852253E-1	1.007360E+0	1.052814E+0	9.645758E-1	9.727945E-1	9.605120E-1	1.018014E+0	8.952448E-1	8.650171E-1	8.817016E-1	9.050466E-1	9.777791E-1	9.679849E-1	9.731427E-1	9.535562E-1	1.036648E+0	1.081590E+0	1.050196E+0	1.039033E+0	1.034520E+0	9.862366E-1	9.982137E-1	1.046469E+0	9.392516E-1	9.140684E-1	8.822208E-1	9.099873E-1	9.934302E-1	9.833912E-1	1.030805E+0	9.244849E-1	1.064017E+0	1.032760E+0	1.069815E+0	1.062540E+0	9.782494E-1	9.558654E-1	9.993390E-1	1.049413E+0	8.535213E-1	8.484589E-1	8.953862E-1	8.944301E-1	9.577129E-1	9.619289E-1	9.825057E-1	8.757330E-1	1.022116E+0	1.031393E+0	1.031650E+0	1.004599E+0	9.901213E-1	9.865929E-1	1.071713E+0	1.069926E+0	9.146172E-1	9.081723E-1	9.955307E-1	9.266823E-1	9.154661E-1	9.863312E-1	1.046317E+0	1.012988E+0	1.018074E+0	1.029217E+0	1.058622E+0	1.082929E+0	9.644257E-1	1.045682E+0	9.970498E-1	1.041193E+0	8.951804E-1	9.322674E-1	9.245049E-1	9.896452E-1	9.182790E-1	1.013707E+0	9.478089E-1	9.368795E-1	1.000354E+0	1.048864E+0	1.062071E+0	1.006793E+0	9.735223E-1	9.818627E-1	9.478857E-1	9.814771E-1	8.330970E-1	8.884800E-1	9.285848E-1	9.643899E-1	8.158990E-1	9.639164E-1	9.387796E-1	9.750978E-1	9.606652E-1	1.000731E+0	1.062112E+0	8.982372E-1	9.568463E-1	9.599959E-1	1.044877E+0	9.745832E-1	9.088272E-1	8.771191E-1	8.831668E-1	1.009870E+0	9.750067E-1	9.676297E-1	9.201410E-1	9.502622E-1	1.067226E+0	1.107298E+0	1.009844E+0	9.070904E-1	1.026242E+0	9.585048E-1	1.101080E+0	9.024913E-1	8.393955E-1	9.429236E-1	9.931233E-1	9.774991E-1	9.321308E-1	9.677954E-1	1.016659E+0	9.683661E-1	1.061018E+0	9.989953E-1	1.040249E+0	9.055871E-1	1.060530E+0	9.835596E-1	1.020563E+0	9.707943E-1	9.124642E-1	8.585890E-1	8.869002E-1	1.000966E+0	9.961949E-1	9.410154E-1	9.853901E-1	8.706954E-1	1.055336E+0	1.043310E+0	1.003362E+0	9.333967E-1	9.660571E-1	9.778729E-1	1.043042E+0	1.001054E+0	9.093144E-1	8.969317E-1	9.158477E-1	1.052400E+0	8.804289E-1	9.652640E-1
5.430070E+2	1.001748E+0	9.618860E-1	1.021309E+0	8.436415E-1	8.799196E-1	9.318076E-1	8.582117E-1	9.148321E-1	9.753026E-1	9.835351E-1	1.022352E+0	9.483014E-1	1.111933E+0	1.106859E+0	1.058317E+0	1.066668E+0	1.033527E+0	1.059245E+0	9.682508E-1	1.047768E+0	1.010854E+0	9.235910E-1	9.238716E-1	9.848923E-1	1.058233E+0	1.060705E+0	1.005714E+0	1.071735E+0	1.122091E+0	1.088349E+0	1.116230E+0	1.117053E+0	1.043543E+0	1.040328E+0	1.021180E+0	1.114422E+0	9.473117E-1	9.560812E-1	9.678696E-1	1.019087E+0	1.040855E+0	1.013394E+0	1.064800E+0	1.021831E+0	1.099822E+0	1.050440E+0	1.077434E+0	1.090706E+0	1.040036E+0	1.006358E+0	1.009611E+0	1.074189E+0	8.966755E-1	9.559609E-1	9.152402E-1	9.715710E-1	9.927241E-1	1.014943E+0	1.049368E+0	8.797255E-1	1.068773E+0	1.090000E+0	1.103546E+0	1.070134E+0	1.104882E+0	1.036216E+0	1.114700E+0	1.044911E+0	9.389319E-1	9.596657E-1	1.050549E+0	9.737439E-1	9.775850E-1	1.041439E+0	1.075065E+0	1.068147E+0	1.093221E+0	1.088670E+0	1.124907E+0	1.129091E+0	1.063659E+0	1.105021E+0	1.032255E+0	1.119181E+0	9.271176E-1	9.812619E-1	9.315429E-1	1.021490E+0	9.659375E-1	1.105021E+0	1.010183E+0	1.003239E+0	1.077388E+0	1.059740E+0	1.098916E+0	1.093847E+0	9.762075E-1	1.014392E+0	1.066210E+0	1.090117E+0	8.973815E-1	9.543985E-1	9.924421E-1	1.003222E+0	8.592331E-1	1.067487E+0	1.012165E+0	1.087157E+0	1.036168E+0	1.105443E+0	1.131648E+0	1.090487E+0	1.077423E+0	1.032257E+0	1.025810E+0	1.087074E+0	9.305159E-1	9.292550E-1	9.196997E-1	1.026020E+0	9.997180E-1	1.002890E+0	9.633288E-1	1.035955E+0	1.110964E+0	1.116459E+0	1.065557E+0	1.072253E+0	1.037549E+0	1.062445E+0	1.108481E+0	1.055379E+0	8.999799E-1	9.497245E-1	1.028697E+0	1.018299E+0	9.372909E-1	1.056106E+0	1.096836E+0	1.036277E+0	1.072481E+0	1.099887E+0	1.122701E+0	1.043028E+0	1.081200E+0	1.000633E+0	9.968987E-1	9.977365E-1	9.862544E-1	9.189601E-1	8.951422E-1	1.054765E+0	1.047232E+0	1.003470E+0	1.020654E+0	9.396050E-1	1.079101E+0	1.078034E+0	1.064365E+0	9.707981E-1	1.072811E+0	1.021698E+0	9.914737E-1	1.002409E+0	9.917194E-1	9.193126E-1	9.193144E-1	1.071497E+0	9.096643E-1	9.960868E-1
5.432700E+2	1.143361E+0	1.149408E+0	1.169386E+0	1.092969E+0	9.859582E-1	1.066137E+0	1.008197E+0	1.061928E+0	1.150721E+0	1.145041E+0	1.170819E+0	1.131051E+0	1.257818E+0	1.201899E+0	1.259827E+0	1.256316E+0	1.184082E+0	1.157409E+0	1.120647E+0	1.208685E+0	1.114193E+0	1.076062E+0	1.033862E+0	1.124053E+0	1.265113E+0	1.172205E+0	1.178287E+0	1.161971E+0	1.266419E+0	1.302330E+0	1.255126E+0	1.268585E+0	1.235255E+0	1.226944E+0	1.184810E+0	1.158282E+0	1.117468E+0	1.132707E+0	1.095019E+0	1.161683E+0	1.220083E+0	1.166092E+0	1.162685E+0	1.168150E+0	1.238325E+0	1.216258E+0	1.241015E+0	1.235358E+0	1.195946E+0	1.148301E+0	1.163680E+0	1.245722E+0	1.022428E+0	1.066521E+0	1.090954E+0	1.100460E+0	1.059504E+0	1.137713E+0	1.149660E+0	1.050251E+0	1.230584E+0	1.249638E+0	1.246882E+0	1.250970E+0	1.265673E+0	1.227918E+0	1.290775E+0	1.205535E+0	1.075195E+0	1.103082E+0	1.242881E+0	1.125334E+0	1.175014E+0	1.190620E+0	1.165335E+0	1.194226E+0	1.233530E+0	1.252848E+0	1.263298E+0	1.305514E+0	1.210323E+0	1.200690E+0	1.166725E+0	1.247221E+0	1.083856E+0	1.088670E+0	1.093900E+0	1.164322E+0	1.167521E+0	1.195731E+0	1.154028E+0	1.197355E+0	1.234642E+0	1.241325E+0	1.239822E+0	1.196548E+0	1.137980E+0	1.168757E+0	1.177825E+0	1.231224E+0	1.022202E+0	1.081270E+0	1.067403E+0	1.191978E+0	1.018725E+0	1.206752E+0	1.156568E+0	1.235471E+0	1.190175E+0	1.245840E+0	1.217441E+0	1.292492E+0	1.191019E+0	1.171074E+0	1.196845E+0	1.166886E+0	1.085952E+0	1.045524E+0	1.033695E+0	1.178945E+0	1.178400E+0	1.145666E+0	1.176602E+0	1.209895E+0	1.243631E+0	1.270256E+0	1.234972E+0	1.244018E+0	1.215311E+0	1.176659E+0	1.222581E+0	1.219887E+0	1.069111E+0	1.090727E+0	1.176842E+0	1.215335E+0	1.100478E+0	1.177816E+0	1.258496E+0	1.230870E+0	1.247025E+0	1.296908E+0	1.224942E+0	1.248945E+0	1.237229E+0	1.182106E+0	1.102475E+0	1.238902E+0	1.093142E+0	1.073569E+0	1.045331E+0	1.237899E+0	1.195641E+0	1.153000E+0	1.158721E+0	1.072918E+0	1.294535E+0	1.254590E+0	1.249295E+0	1.229068E+0	1.195678E+0	1.179594E+0	1.227216E+0	1.223950E+0	1.123809E+0	1.066454E+0	1.101869E+0	1.245027E+0	1.012684E+0	1.092953E+0
5.435170E+2	1.277712E+0	1.240229E+0	1.215702E+0	1.088744E+0	1.103618E+0	1.142064E+0	1.123495E+0	1.136626E+0	1.332748E+0	1.287123E+0	1.253552E+0	1.246471E+0	1.345059E+0	1.359719E+0	1.307074E+0	1.308863E+0	1.258726E+0	1.268400E+0	1.267687E+0	1.381746E+0	1.197714E+0	1.176219E+0	1.157329E+0	1.217587E+0	1.310515E+0	1.290748E+0	1.261716E+0	1.319154E+0	1.408531E+0	1.440632E+0	1.342563E+0	1.353370E+0	1.386370E+0	1.311325E+0	1.291026E+0	1.318899E+0	1.199412E+0	1.176005E+0	1.154619E+0	1.219103E+0	1.289064E+0	1.263605E+0	1.285188E+0	1.357470E+0	1.395674E+0	1.339543E+0	1.367397E+0	1.351845E+0	1.313744E+0	1.294731E+0	1.314505E+0	1.357535E+0	1.154212E+0	1.184070E+0	1.215985E+0	1.189098E+0	1.215756E+0	1.273876E+0	1.273679E+0	1.109565E+0	1.390413E+0	1.352418E+0	1.360374E+0	1.264274E+0	1.308550E+0	1.328207E+0	1.369094E+0	1.314155E+0	1.142060E+0	1.163939E+0	1.299284E+0	1.268007E+0	1.253124E+0	1.291930E+0	1.330927E+0	1.311768E+0	1.394764E+0	1.325560E+0	1.378850E+0	1.380929E+0	1.325158E+0	1.362359E+0	1.256181E+0	1.360710E+0	1.188511E+0	1.261091E+0	1.140826E+0	1.351646E+0	1.201653E+0	1.326353E+0	1.242498E+0	1.261233E+0	1.305831E+0	1.371841E+0	1.399649E+0	1.335443E+0	1.260821E+0	1.230857E+0	1.247355E+0	1.306773E+0	1.100415E+0	1.107003E+0	1.213629E+0	1.232776E+0	1.048817E+0	1.236595E+0	1.277891E+0	1.261838E+0	1.315678E+0	1.357126E+0	1.370061E+0	1.446679E+0	1.272249E+0	1.332712E+0	1.338412E+0	1.342221E+0	1.180968E+0	1.155792E+0	1.184663E+0	1.315718E+0	1.262673E+0	1.246824E+0	1.261912E+0	1.325004E+0	1.360269E+0	1.380659E+0	1.355530E+0	1.395968E+0	1.316441E+0	1.329549E+0	1.349633E+0	1.358099E+0	1.175637E+0	1.195914E+0	1.303058E+0	1.282004E+0	1.211419E+0	1.279713E+0	1.279356E+0	1.295516E+0	1.323094E+0	1.387804E+0	1.335977E+0	1.362754E+0	1.358585E+0	1.371800E+0	1.222007E+0	1.352585E+0	1.228786E+0	1.118723E+0	1.160720E+0	1.361254E+0	1.290999E+0	1.234071E+0	1.263316E+0	1.193349E+0	1.368926E+0	1.344578E+0	1.358332E+0	1.334700E+0	1.343389E+0	1.267243E+0	1.258525E+0	1.339125E+0	1.171070E+0	1.136931E+0	1.154439E+0	1.328886E+0	1.170000E+0	1.229448E+0
5.437640E+2	1.410247E+0	1.380054E+0	1.453801E+0	1.262007E+0	1.263887E+0	1.290991E+0	1.230000E+0	1.272804E+0	1.440882E+0	1.470831E+0	1.411087E+0	1.372111E+0	1.531852E+0	1.526257E+0	1.446511E+0	1.523830E+0	1.392201E+0	1.443531E+0	1.390318E+0	1.512298E+0	1.343049E+0	1.328692E+0	1.287751E+0	1.333020E+0	1.501878E+0	1.458584E+0	1.424004E+0	1.406477E+0	1.499287E+0	1.573076E+0	1.591213E+0	1.570740E+0	1.526772E+0	1.464941E+0	1.411023E+0	1.490015E+0	1.325235E+0	1.339344E+0	1.335629E+0	1.338252E+0	1.465212E+0	1.407194E+0	1.459856E+0	1.428539E+0	1.501672E+0	1.491980E+0	1.516638E+0	1.477881E+0	1.458106E+0	1.437794E+0	1.413972E+0	1.504291E+0	1.302236E+0	1.290261E+0	1.303841E+0	1.359673E+0	1.335701E+0	1.417293E+0	1.417107E+0	1.297772E+0	1.514003E+0	1.513366E+0	1.486983E+0	1.541199E+0	1.459885E+0	1.432679E+0	1.517491E+0	1.539293E+0	1.256035E+0	1.315441E+0	1.483294E+0	1.396810E+0	1.385360E+0	1.380994E+0	1.512040E+0	1.401074E+0	1.501307E+0	1.469615E+0	1.534261E+0	1.551867E+0	1.519255E+0	1.502228E+0	1.448940E+0	1.563828E+0	1.343284E+0	1.386874E+0	1.319133E+0	1.418144E+0	1.349781E+0	1.477535E+0	1.361519E+0	1.470235E+0	1.462554E+0	1.511341E+0	1.496739E+0	1.497324E+0	1.430649E+0	1.443184E+0	1.408372E+0	1.452875E+0	1.203809E+0	1.274058E+0	1.325607E+0	1.446601E+0	1.245022E+0	1.420914E+0	1.396255E+0	1.377853E+0	1.447186E+0	1.482972E+0	1.511392E+0	1.505235E+0	1.493727E+0	1.401802E+0	1.496157E+0	1.477962E+0	1.300256E+0	1.229151E+0	1.266091E+0	1.374264E+0	1.378626E+0	1.432952E+0	1.359481E+0	1.399824E+0	1.534246E+0	1.577367E+0	1.469693E+0	1.539892E+0	1.450862E+0	1.436511E+0	1.497655E+0	1.497531E+0	1.238244E+0	1.309714E+0	1.418065E+0	1.449187E+0	1.382992E+0	1.366326E+0	1.433193E+0	1.451582E+0	1.476277E+0	1.518680E+0	1.523419E+0	1.558065E+0	1.489274E+0	1.462222E+0	1.425272E+0	1.581921E+0	1.350868E+0	1.258120E+0	1.285268E+0	1.472111E+0	1.472985E+0	1.358379E+0	1.379864E+0	1.344048E+0	1.458303E+0	1.534339E+0	1.549026E+0	1.474197E+0	1.493783E+0	1.445117E+0	1.429193E+0	1.477334E+0	1.343150E+0	1.244074E+0	1.328326E+0	1.507398E+0	1.246568E+0	1.440793E+0
5.440170E+2	1.616614E+0	1.540134E+0	1.539256E+0	1.380330E+0	1.380093E+0	1.398065E+0	1.369727E+0	1.437136E+0	1.583262E+0	1.584606E+0	1.517621E+0	1.516386E+0	1.710757E+0	1.706747E+0	1.649408E+0	1.658544E+0	1.569323E+0	1.638742E+0	1.551049E+0	1.682934E+0	1.460546E+0	1.444943E+0	1.431649E+0	1.500922E+0	1.594975E+0	1.536047E+0	1.557146E+0	1.554347E+0	1.725074E+0	1.696512E+0	1.706886E+0	1.673567E+0	1.624320E+0	1.588812E+0	1.601634E+0	1.604918E+0	1.468970E+0	1.494534E+0	1.437171E+0	1.519125E+0	1.580999E+0	1.570072E+0	1.591738E+0	1.555148E+0	1.685402E+0	1.707496E+0	1.664531E+0	1.701782E+0	1.590916E+0	1.519705E+0	1.578853E+0	1.626900E+0	1.470218E+0	1.406502E+0	1.430558E+0	1.502934E+0	1.521778E+0	1.585267E+0	1.584802E+0	1.368489E+0	1.610792E+0	1.742545E+0	1.656994E+0	1.632355E+0	1.630763E+0	1.604531E+0	1.681789E+0	1.661077E+0	1.417119E+0	1.475452E+0	1.629391E+0	1.528087E+0	1.515135E+0	1.625918E+0	1.644856E+0	1.634187E+0	1.613076E+0	1.671751E+0	1.712513E+0	1.714580E+0	1.635336E+0	1.662688E+0	1.555709E+0	1.690121E+0	1.456293E+0	1.542807E+0	1.387643E+0	1.555358E+0	1.536551E+0	1.569454E+0	1.531459E+0	1.601712E+0	1.626182E+0	1.662663E+0	1.653575E+0	1.733052E+0	1.536707E+0	1.507649E+0	1.595617E+0	1.654545E+0	1.380055E+0	1.415827E+0	1.407050E+0	1.533113E+0	1.362383E+0	1.576567E+0	1.523496E+0	1.594060E+0	1.575690E+0	1.692396E+0	1.622923E+0	1.674549E+0	1.567346E+0	1.700991E+0	1.594962E+0	1.675922E+0	1.409731E+0	1.351881E+0	1.388451E+0	1.564029E+0	1.605463E+0	1.584398E+0	1.468785E+0	1.604463E+0	1.683926E+0	1.707057E+0	1.619479E+0	1.633800E+0	1.578374E+0	1.607531E+0	1.683917E+0	1.660812E+0	1.379606E+0	1.423966E+0	1.532586E+0	1.560638E+0	1.540373E+0	1.470487E+0	1.602673E+0	1.605693E+0	1.626857E+0	1.690954E+0	1.684474E+0	1.649213E+0	1.639973E+0	1.548215E+0	1.558758E+0	1.627921E+0	1.577660E+0	1.372481E+0	1.394704E+0	1.641658E+0	1.536780E+0	1.495898E+0	1.504186E+0	1.494104E+0	1.682000E+0	1.647318E+0	1.613869E+0	1.645029E+0	1.619338E+0	1.575304E+0	1.550747E+0	1.613511E+0	1.452217E+0	1.396929E+0	1.465819E+0	1.596239E+0	1.360727E+0	1.489225E+0
5.442920E+2	1.698314E+0	1.512692E+0	1.561434E+0	1.270459E+0	1.736948E+0	1.428731E+0	1.358000E+0	1.425645E+0	1.672174E+0	1.619570E+0	1.542553E+0	1.560873E+0	1.728498E+0	1.701952E+0	1.641997E+0	1.724467E+0	1.661682E+0	1.562331E+0	1.592124E+0	1.679290E+0	1.563411E+0	1.444497E+0	1.386440E+0	1.516894E+0	1.701863E+0	1.623489E+0	1.520002E+0	1.546197E+0	1.729059E+0	1.664975E+0	1.710529E+0	1.641097E+0	1.628831E+0	1.551489E+0	1.528145E+0	1.609245E+0	1.484198E+0	1.450379E+0	1.389050E+0	1.518171E+0	1.627809E+0	1.530423E+0	1.628666E+0	1.620246E+0	1.661849E+0	1.654448E+0	1.702627E+0	1.657860E+0	1.613435E+0	1.546077E+0	1.549660E+0	1.659938E+0	1.437732E+0	1.420050E+0	1.422112E+0	1.489037E+0	1.527614E+0	1.483703E+0	1.602597E+0	1.359937E+0	1.622211E+0	1.659011E+0	1.661516E+0	1.613630E+0	1.551944E+0	1.604010E+0	1.639979E+0	1.657127E+0	1.426238E+0	1.456300E+0	1.568365E+0	1.507776E+0	1.593857E+0	1.645954E+0	1.694306E+0	1.642066E+0	1.656833E+0	1.660319E+0	1.666387E+0	1.689896E+0	1.648444E+0	1.691751E+0	1.562636E+0	1.642982E+0	1.396348E+0	1.484858E+0	1.488996E+0	1.602188E+0	1.503706E+0	1.627511E+0	1.464631E+0	1.596750E+0	1.624588E+0	1.721772E+0	1.634156E+0	1.654313E+0	1.527307E+0	1.530715E+0	1.585248E+0	1.600223E+0	1.297020E+0	1.394607E+0	1.466741E+0	1.522302E+0	1.441829E+0	1.551985E+0	1.516985E+0	1.661956E+0	1.620690E+0	1.643089E+0	1.645047E+0	1.710658E+0	1.571151E+0	1.683240E+0	1.609414E+0	1.631302E+0	1.390627E+0	1.375409E+0	1.416182E+0	1.606427E+0	1.577583E+0	1.494803E+0	1.508777E+0	1.632599E+0	1.650392E+0	1.694523E+0	1.680672E+0	1.655035E+0	1.602243E+0	1.600278E+0	1.691315E+0	1.588038E+0	1.419492E+0	1.472026E+0	1.543793E+0	1.574572E+0	1.511348E+0	1.524266E+0	1.601369E+0	1.586752E+0	1.640922E+0	1.710465E+0	1.656441E+0	1.649694E+0	1.677311E+0	1.554541E+0	1.570896E+0	1.645664E+0	1.470777E+0	1.394565E+0	1.373641E+0	1.668834E+0	1.554241E+0	1.503104E+0	1.504783E+0	1.415534E+0	1.643773E+0	1.632645E+0	1.598502E+0	1.645534E+0	1.593152E+0	1.534701E+0	1.521279E+0	1.654159E+0	1.507961E+0	1.410739E+0	1.424803E+0	1.582954E+0	1.412238E+0	1.423179E+0
5.445240E+2	1.708603E+0	1.543401E+0	1.517076E+0	1.397234E+0	1.695792E+0	1.434570E+0	1.358489E+0	1.367613E+0	1.675176E+0	1.581828E+0	1.572586E+0	1.580711E+0	1.744763E+0	1.662715E+0	1.642924E+0	1.642303E+0	1.666110E+0	1.610298E+0	1.492710E+0	1.679896E+0	1.745557E+0	1.452545E+0	1.420348E+0	1.493625E+0	1.692095E+0	1.571843E+0	1.488577E+0	1.563082E+0	1.707808E+0	1.701917E+0	1.697779E+0	1.686643E+0	1.693674E+0	1.625054E+0	1.587284E+0	1.626542E+0	1.756445E+0	1.438373E+0	1.456598E+0	1.504294E+0	1.716502E+0	1.559891E+0	1.633354E+0	1.538426E+0	1.761719E+0	1.635815E+0	1.640781E+0	1.691280E+0	1.680997E+0	1.566835E+0	1.536684E+0	1.610385E+0	1.615921E+0	1.452825E+0	1.437741E+0	1.500057E+0	1.632646E+0	1.524437E+0	1.528185E+0	1.390733E+0	1.660923E+0	1.594718E+0	1.661517E+0	1.651079E+0	1.651573E+0	1.587293E+0	1.668248E+0	1.617631E+0	1.458150E+0	1.516306E+0	1.639098E+0	1.531059E+0	1.577252E+0	1.578043E+0	1.604036E+0	1.608578E+0	1.676338E+0	1.665350E+0	1.696389E+0	1.722350E+0	1.596642E+0	1.692356E+0	1.538395E+0	1.693615E+0	1.420424E+0	1.543748E+0	1.443480E+0	1.534285E+0	1.461843E+0	1.589408E+0	1.527003E+0	1.550238E+0	1.671872E+0	1.664082E+0	1.627188E+0	1.668986E+0	1.501803E+0	1.566200E+0	1.530356E+0	1.632071E+0	1.318449E+0	1.421243E+0	1.404737E+0	1.523774E+0	1.497800E+0	1.544965E+0	1.564332E+0	1.553852E+0	1.684197E+0	1.652483E+0	1.674394E+0	1.696509E+0	1.618112E+0	1.637604E+0	1.617497E+0	1.678437E+0	1.454143E+0	1.396174E+0	1.407817E+0	1.555956E+0	1.500281E+0	1.547984E+0	1.498109E+0	1.615330E+0	1.635325E+0	1.740324E+0	1.685237E+0	1.664946E+0	1.669452E+0	1.617196E+0	1.645062E+0	1.611279E+0	1.412423E+0	1.493787E+0	1.596914E+0	1.566607E+0	1.448781E+0	1.580311E+0	1.571388E+0	1.681435E+0	1.677396E+0	1.661451E+0	1.685026E+0	1.718654E+0	1.610632E+0	1.516601E+0	1.600021E+0	1.585208E+0	1.466976E+0	1.384258E+0	1.437289E+0	1.629702E+0	1.534768E+0	1.500704E+0	1.559769E+0	1.387197E+0	1.680454E+0	1.613569E+0	1.654700E+0	1.634415E+0	1.605907E+0	1.469609E+0	1.596790E+0	1.648064E+0	1.490994E+0	1.439786E+0	1.435782E+0	1.596238E+0	1.346805E+0	1.487024E+0
5.447830E+2	1.743095E+0	1.578682E+0	1.579047E+0	1.494431E+0	1.716128E+0	1.474965E+0	1.380476E+0	1.447479E+0	1.809742E+0	1.647876E+0	1.571453E+0	1.556063E+0	1.769900E+0	1.694978E+0	1.704072E+0	1.702491E+0	1.645869E+0	1.593007E+0	1.562359E+0	1.692039E+0	1.763014E+0	1.473561E+0	1.429915E+0	1.583962E+0	1.731173E+0	1.632288E+0	1.534292E+0	1.586369E+0	1.752964E+0	1.709124E+0	1.746503E+0	1.689349E+0	1.738786E+0	1.598549E+0	1.631493E+0	1.712409E+0	1.781970E+0	1.509538E+0	1.454390E+0	1.497593E+0	1.730050E+0	1.570073E+0	1.638044E+0	1.628007E+0	1.764075E+0	1.654928E+0	1.695455E+0	1.689369E+0	1.714491E+0	1.539341E+0	1.537768E+0	1.655490E+0	1.742600E+0	1.480793E+0	1.426336E+0	1.550369E+0	1.645612E+0	1.588053E+0	1.616077E+0	1.412977E+0	1.735376E+0	1.732485E+0	1.689099E+0	1.609196E+0	1.684993E+0	1.641617E+0	1.695331E+0	1.734809E+0	1.717504E+0	1.500559E+0	1.602111E+0	1.575146E+0	1.675657E+0	1.573036E+0	1.678205E+0	1.630902E+0	1.698690E+0	1.594007E+0	1.707139E+0	1.739716E+0	1.713974E+0	1.640890E+0	1.586877E+0	1.715149E+0	1.678380E+0	1.523018E+0	1.439728E+0	1.609214E+0	1.763897E+0	1.634767E+0	1.571557E+0	1.552096E+0	1.723937E+0	1.654149E+0	1.692412E+0	1.703710E+0	1.545432E+0	1.529530E+0	1.621234E+0	1.706990E+0	1.368807E+0	1.442462E+0	1.473683E+0	1.568019E+0	1.532106E+0	1.624547E+0	1.564923E+0	1.628337E+0	1.650692E+0	1.680188E+0	1.699230E+0	1.711146E+0	1.559096E+0	1.590698E+0	1.710531E+0	1.660213E+0	1.468603E+0	1.400324E+0	1.475158E+0	1.621062E+0	1.616234E+0	1.553187E+0	1.475719E+0	1.561614E+0	1.687325E+0	1.718626E+0	1.642309E+0	1.694202E+0	1.620460E+0	1.625056E+0	1.748061E+0	1.701180E+0	1.379102E+0	1.464771E+0	1.580343E+0	1.567604E+0	1.568755E+0	1.608048E+0	1.667208E+0	1.632461E+0	1.662287E+0	1.699995E+0	1.674031E+0	1.693094E+0	1.710650E+0	1.546320E+0	1.493229E+0	1.738977E+0	1.529918E+0	1.419106E+0	1.414395E+0	1.671006E+0	1.585802E+0	1.527126E+0	1.553796E+0	1.501190E+0	1.681488E+0	1.693778E+0	1.663827E+0	1.628855E+0	1.727436E+0	1.564990E+0	1.567322E+0	1.648062E+0	1.517050E+0	1.452647E+0	1.452533E+0	1.732406E+0	1.565375E+0	1.575084E+0
5.450090E+2	1.662606E+0	1.499624E+0	1.520336E+0	1.371879E+0	1.638170E+0	1.368867E+0	1.320870E+0	1.356694E+0	1.658957E+0	1.547418E+0	1.501752E+0	1.482120E+0	1.661961E+0	1.617812E+0	1.558615E+0	1.596441E+0	1.603484E+0	1.560657E+0	1.474849E+0	1.608241E+0	1.677132E+0	1.412305E+0	1.381658E+0	1.411040E+0	1.536934E+0	1.508466E+0	1.474288E+0	1.476339E+0	1.607312E+0	1.593798E+0	1.631742E+0	1.595097E+0	1.632213E+0	1.498481E+0	1.483940E+0	1.533876E+0	1.610022E+0	1.377924E+0	1.385517E+0	1.441128E+0	1.649364E+0	1.515421E+0	1.466304E+0	1.488259E+0	1.625102E+0	1.538334E+0	1.579381E+0	1.610598E+0	1.565509E+0	1.481557E+0	1.442083E+0	1.523986E+0	1.613603E+0	1.412185E+0	1.362557E+0	1.389858E+0	1.665064E+0	1.539508E+0	1.522794E+0	1.303476E+0	1.619727E+0	1.572850E+0	1.563848E+0	1.535285E+0	1.607434E+0	1.474988E+0	1.664710E+0	1.632112E+0	1.598972E+0	1.361826E+0	1.526753E+0	1.479539E+0	1.681192E+0	1.526275E+0	1.545389E+0	1.511391E+0	1.608798E+0	1.577087E+0	1.602336E+0	1.591630E+0	1.604132E+0	1.599109E+0	1.514734E+0	1.573721E+0	1.693119E+0	1.442463E+0	1.356204E+0	1.471063E+0	1.599025E+0	1.524099E+0	1.450626E+0	1.514884E+0	1.626184E+0	1.573759E+0	1.609760E+0	1.598072E+0	1.554160E+0	1.444366E+0	1.491930E+0	1.569632E+0	1.594340E+0	1.351714E+0	1.392706E+0	1.468721E+0	1.650672E+0	1.487620E+0	1.431171E+0	1.536055E+0	1.603693E+0	1.561857E+0	1.543000E+0	1.615997E+0	1.520384E+0	1.551394E+0	1.562605E+0	1.592970E+0	1.494422E+0	1.317277E+0	1.338711E+0	1.450978E+0	1.532596E+0	1.484398E+0	1.442661E+0	1.471448E+0	1.607628E+0	1.561458E+0	1.605777E+0	1.608320E+0	1.543827E+0	1.554958E+0	1.580300E+0	1.626569E+0	1.359918E+0	1.456610E+0	1.431223E+0	1.514365E+0	1.505544E+0	1.472749E+0	1.514023E+0	1.558020E+0	1.607576E+0	1.613383E+0	1.614113E+0	1.570603E+0	1.552620E+0	1.499528E+0	1.423452E+0	1.572723E+0	1.401328E+0	1.285604E+0	1.358990E+0	1.537325E+0	1.474328E+0	1.443053E+0	1.474300E+0	1.396214E+0	1.608123E+0	1.531893E+0	1.588416E+0	1.564666E+0	1.549511E+0	1.501832E+0	1.428578E+0	1.633834E+0	1.462515E+0	1.322645E+0	1.289044E+0	1.597069E+0	1.408062E+0	1.449597E+0
5.452690E+2	1.478026E+0	1.366333E+0	1.375522E+0	1.109874E+0	1.447398E+0	1.278826E+0	1.210946E+0	1.192935E+0	1.490747E+0	1.356500E+0	1.420153E+0	1.285545E+0	1.478622E+0	1.450400E+0	1.484962E+0	1.519532E+0	1.475070E+0	1.405604E+0	1.340313E+0	1.488617E+0	1.499239E+0	1.289343E+0	1.223409E+0	1.316138E+0	1.478892E+0	1.389924E+0	1.412006E+0	1.419870E+0	1.520982E+0	1.456848E+0	1.461423E+0	1.456192E+0	1.439935E+0	1.337287E+0	1.399538E+0	1.475806E+0	1.499868E+0	1.272037E+0	1.227906E+0	1.288009E+0	1.517564E+0	1.376655E+0	1.384832E+0	1.327606E+0	1.487538E+0	1.428904E+0	1.463753E+0	1.483132E+0	1.462147E+0	1.317172E+0	1.421000E+0	1.445842E+0	1.473001E+0	1.216409E+0	1.245975E+0	1.283967E+0	1.418690E+0	1.352558E+0	1.343776E+0	1.220777E+0	1.457917E+0	1.453012E+0	1.454876E+0	1.411114E+0	1.519785E+0	1.397156E+0	1.427395E+0	1.440547E+0	1.534642E+0	1.280541E+0	1.413478E+0	1.318044E+0	1.526818E+0	1.337019E+0	1.486743E+0	1.467396E+0	1.494171E+0	1.424342E+0	1.452748E+0	1.453601E+0	1.544844E+0	1.426542E+0	1.320819E+0	1.436370E+0	1.496092E+0	1.301134E+0	1.245461E+0	1.397073E+0	1.497267E+0	1.402549E+0	1.382523E+0	1.335654E+0	1.478490E+0	1.399268E+0	1.506697E+0	1.428857E+0	1.491734E+0	1.361566E+0	1.341283E+0	1.447879E+0	1.468449E+0	1.225295E+0	1.245094E+0	1.376312E+0	1.517061E+0	1.402191E+0	1.311625E+0	1.404219E+0	1.534688E+0	1.414415E+0	1.479782E+0	1.410087E+0	1.437885E+0	1.372012E+0	1.451666E+0	1.460369E+0	1.497003E+0	1.223615E+0	1.247165E+0	1.425240E+0	1.522457E+0	1.351448E+0	1.236319E+0	1.366570E+0	1.464265E+0	1.465032E+0	1.425402E+0	1.485626E+0	1.488552E+0	1.430467E+0	1.424878E+0	1.439435E+0	1.493705E+0	1.301552E+0	1.340093E+0	1.405400E+0	1.439107E+0	1.344815E+0	1.399296E+0	1.433298E+0	1.431991E+0	1.493455E+0	1.451961E+0	1.462581E+0	1.490610E+0	1.422387E+0	1.359742E+0	1.419612E+0	1.434424E+0	1.237504E+0	1.244516E+0	1.396577E+0	1.474999E+0	1.284515E+0	1.366118E+0	1.284799E+0	1.476902E+0	1.480543E+0	1.429422E+0	1.422644E+0	1.393072E+0	1.394850E+0	1.374555E+0	1.397389E+0	1.325580E+0	1.217883E+0	1.274024E+0	1.421878E+0	1.467924E+0	1.295492E+0
5.455130E+2	1.478028E+0	1.291846E+0	1.282240E+0	1.143680E+0	1.503081E+0	1.260818E+0	1.128869E+0	1.201555E+0	1.469719E+0	1.340403E+0	1.324385E+0	1.267511E+0	1.537273E+0	1.427294E+0	1.394165E+0	1.436409E+0	1.468111E+0	1.379948E+0	1.312334E+0	1.424860E+0	1.523303E+0	1.254018E+0	1.185587E+0	1.306099E+0	1.468549E+0	1.350605E+0	1.306860E+0	1.311004E+0	1.479809E+0	1.419007E+0	1.469166E+0	1.420113E+0	1.397646E+0	1.306456E+0	1.371980E+0	1.386235E+0	1.489571E+0	1.246316E+0	1.293246E+0	1.274129E+0	1.523720E+0	1.316647E+0	1.380141E+0	1.300137E+0	1.415460E+0	1.449928E+0	1.410869E+0	1.420114E+0	1.435007E+0	1.326149E+0	1.303691E+0	1.409628E+0	1.504093E+0	1.237822E+0	1.199509E+0	1.289718E+0	1.440086E+0	1.368743E+0	1.341620E+0	1.152909E+0	1.424660E+0	1.392657E+0	1.388861E+0	1.314535E+0	1.504023E+0	1.341267E+0	1.387348E+0	1.399734E+0	1.480945E+0	1.231603E+0	1.407007E+0	1.268006E+0	1.449937E+0	1.368747E+0	1.470643E+0	1.385314E+0	1.467062E+0	1.403763E+0	1.455435E+0	1.421148E+0	1.467454E+0	1.405349E+0	1.341594E+0	1.438698E+0	1.472999E+0	1.290299E+0	1.230449E+0	1.329167E+0	1.456692E+0	1.380779E+0	1.270503E+0	1.399532E+0	1.446616E+0	1.429061E+0	1.417074E+0	1.419073E+0	1.442731E+0	1.334359E+0	1.382147E+0	1.457869E+0	1.442198E+0	1.213103E+0	1.229824E+0	1.341410E+0	1.427383E+0	1.288088E+0	1.311626E+0	1.373898E+0	1.439685E+0	1.379668E+0	1.445470E+0	1.436925E+0	1.464538E+0	1.398634E+0	1.384636E+0	1.456597E+0	1.474797E+0	1.178401E+0	1.221637E+0	1.364674E+0	1.393199E+0	1.309830E+0	1.306165E+0	1.340351E+0	1.503630E+0	1.433211E+0	1.393891E+0	1.493647E+0	1.430765E+0	1.420196E+0	1.455098E+0	1.444324E+0	1.419996E+0	1.224927E+0	1.319628E+0	1.382015E+0	1.430723E+0	1.334624E+0	1.353667E+0	1.453541E+0	1.441890E+0	1.414932E+0	1.401940E+0	1.413873E+0	1.471940E+0	1.437562E+0	1.359135E+0	1.417640E+0	1.463724E+0	1.219342E+0	1.216585E+0	1.387881E+0	1.509920E+0	1.271302E+0	1.336234E+0	1.247445E+0	1.465537E+0	1.427724E+0	1.363134E+0	1.440332E+0	1.432685E+0	1.363914E+0	1.247474E+0	1.439395E+0	1.428586E+0	1.218359E+0	1.196034E+0	1.383685E+0	1.355157E+0	1.220641E+0
5.457720E+2	1.277712E+0	1.140914E+0	1.213093E+0	1.177487E+0	1.317632E+0	1.119188E+0	1.029205E+0	1.056757E+0	1.303913E+0	1.191662E+0	1.190086E+0	1.127444E+0	1.312528E+0	1.290838E+0	1.274649E+0	1.273990E+0	1.327678E+0	1.240514E+0	1.239112E+0	1.321022E+0	1.307660E+0	1.080532E+0	1.112550E+0	1.136372E+0	1.339822E+0	1.191572E+0	1.157716E+0	1.187586E+0	1.316888E+0	1.328911E+0	1.303857E+0	1.278959E+0	1.317014E+0	1.197192E+0	1.220406E+0	1.246621E+0	1.338221E+0	1.092838E+0	1.100757E+0	1.152111E+0	1.335256E+0	1.225565E+0	1.249435E+0	1.195622E+0	1.306636E+0	1.264043E+0	1.298378E+0	1.274030E+0	1.297575E+0	1.164571E+0	1.197735E+0	1.210779E+0	1.314302E+0	1.092303E+0	1.099403E+0	1.160830E+0	1.301987E+0	1.200214E+0	1.193336E+0	1.031430E+0	1.298090E+0	1.254449E+0	1.300690E+0	1.252943E+0	1.315487E+0	1.212769E+0	1.311976E+0	1.330612E+0	1.252996E+0	1.134147E+0	1.223924E+0	1.153572E+0	1.254355E+0	1.261316E+0	1.251580E+0	1.246758E+0	1.300594E+0	1.274339E+0	1.267330E+0	1.269408E+0	1.381951E+0	1.264267E+0	1.259066E+0	1.290871E+0	1.273022E+0	1.178651E+0	1.057299E+0	1.198040E+0	1.280226E+0	1.303374E+0	1.195399E+0	1.194254E+0	1.319644E+0	1.261189E+0	1.324961E+0	1.238120E+0	1.274246E+0	1.244460E+0	1.234548E+0	1.273681E+0	1.263806E+0	1.117387E+0	1.104887E+0	1.161503E+0	1.284744E+0	1.199731E+0	1.177282E+0	1.259860E+0	1.370684E+0	1.343511E+0	1.317684E+0	1.274438E+0	1.264634E+0	1.223686E+0	1.251739E+0	1.300744E+0	1.262558E+0	1.105502E+0	1.082993E+0	1.219826E+0	1.291185E+0	1.172256E+0	1.119552E+0	1.198385E+0	1.288829E+0	1.282308E+0	1.282011E+0	1.295927E+0	1.294456E+0	1.282413E+0	1.294742E+0	1.216829E+0	1.246826E+0	1.132890E+0	1.182201E+0	1.216329E+0	1.288176E+0	1.246313E+0	1.228511E+0	1.290945E+0	1.300171E+0	1.259790E+0	1.318938E+0	1.308261E+0	1.282571E+0	1.239647E+0	1.246884E+0	1.282272E+0	1.304748E+0	1.079950E+0	1.061815E+0	1.202033E+0	1.318532E+0	1.126577E+0	1.168880E+0	1.112202E+0	1.293500E+0	1.278068E+0	1.267549E+0	1.274050E+0	1.281619E+0	1.267887E+0	1.253613E+0	1.272730E+0	1.318914E+0	1.056932E+0	1.094936E+0	1.230082E+0	1.278588E+0	1.141386E+0
5.460060E+2	1.242611E+0	1.123926E+0	1.186347E+0	9.873220E-1	1.285193E+0	1.070518E+0	1.033113E+0	1.070547E+0	1.334550E+0	1.181671E+0	1.148719E+0	1.132253E+0	1.259297E+0	1.235035E+0	1.239908E+0	1.252496E+0	1.261257E+0	1.216529E+0	1.130767E+0	1.212935E+0	1.289258E+0	1.073827E+0	1.033863E+0	1.096221E+0	1.293274E+0	1.216806E+0	1.178859E+0	1.191079E+0	1.249154E+0	1.291519E+0	1.272889E+0	1.247841E+0	1.275855E+0	1.218829E+0	1.164141E+0	1.239208E+0	1.304639E+0	1.095840E+0	1.073827E+0	1.160245E+0	1.305078E+0	1.224492E+0	1.225402E+0	1.172928E+0	1.284492E+0	1.202878E+0	1.273282E+0	1.247770E+0	1.254845E+0	1.130908E+0	1.200439E+0	1.253345E+0	1.299455E+0	1.036366E+0	1.065188E+0	1.134956E+0	1.222889E+0	1.139387E+0	1.171229E+0	1.022876E+0	1.270789E+0	1.244389E+0	1.289388E+0	1.181987E+0	1.338817E+0	1.198144E+0	1.240720E+0	1.235159E+0	1.292002E+0	1.147342E+0	1.189250E+0	1.124840E+0	1.267885E+0	1.192290E+0	1.203857E+0	1.143005E+0	1.249703E+0	1.262451E+0	1.294201E+0	1.252955E+0	1.277725E+0	1.284854E+0	1.188080E+0	1.288543E+0	1.266633E+0	1.153683E+0	1.108445E+0	1.186800E+0	1.334325E+0	1.258623E+0	1.161029E+0	1.170687E+0	1.288301E+0	1.280100E+0	1.237332E+0	1.253283E+0	1.229943E+0	1.205425E+0	1.185144E+0	1.230600E+0	1.272379E+0	1.085332E+0	1.058612E+0	1.173792E+0	1.312430E+0	1.157015E+0	1.129345E+0	1.155711E+0	1.237176E+0	1.230347E+0	1.226020E+0	1.277853E+0	1.244325E+0	1.203402E+0	1.232670E+0	1.237900E+0	1.268756E+0	1.055211E+0	1.062744E+0	1.197618E+0	1.286117E+0	1.103470E+0	1.160607E+0	1.168328E+0	1.277165E+0	1.234096E+0	1.282465E+0	1.244019E+0	1.262421E+0	1.174847E+0	1.326197E+0	1.219887E+0	1.293274E+0	1.097980E+0	1.190002E+0	1.199908E+0	1.195939E+0	1.120641E+0	1.169192E+0	1.198221E+0	1.296002E+0	1.247890E+0	1.252426E+0	1.270649E+0	1.277237E+0	1.167563E+0	1.220793E+0	1.263873E+0	1.298780E+0	1.092220E+0	1.029762E+0	1.203662E+0	1.281597E+0	1.147595E+0	1.123456E+0	1.139895E+0	1.289882E+0	1.290293E+0	1.220956E+0	1.240694E+0	1.217835E+0	1.196995E+0	1.181786E+0	1.206335E+0	1.269229E+0	1.064550E+0	1.064895E+0	1.245027E+0	1.403884E+0	1.170007E+0
5.467770E+2	1.294657E+0	1.237616E+0	1.151774E+0	9.070301E-1	1.278412E+0	1.210200E+0	1.014548E+0	1.083763E+0	1.284088E+0	1.249939E+0	1.166852E+0	1.174935E+0	1.276055E+0	1.247240E+0	1.239444E+0	1.276855E+0	1.264420E+0	1.173582E+0	1.167081E+0	1.266372E+0	1.283595E+0	1.102889E+0	1.076465E+0	1.112645E+0	1.311662E+0	1.254363E+0	1.197715E+0	1.139848E+0	1.308918E+0	1.297825E+0	1.226437E+0	1.247387E+0	1.294461E+0	1.182047E+0	1.166437E+0	1.307162E+0	1.280010E+0	1.131848E+0	1.109146E+0	1.173164E+0	1.312468E+0	1.141982E+0	1.208404E+0	1.187858E+0	1.305222E+0	1.241106E+0	1.249979E+0	1.264005E+0	1.246184E+0	1.232457E+0	1.203684E+0	1.235557E+0	1.327758E+0	1.080941E+0	1.093911E+0	1.140706E+0	1.217053E+0	1.211375E+0	1.175541E+0	9.966415E-1	1.303053E+0	1.246575E+0	1.245526E+0	1.194307E+0	1.272609E+0	1.221126E+0	1.310207E+0	1.272024E+0	1.274269E+0	1.093719E+0	1.237795E+0	1.136231E+0	1.280186E+0	1.158891E+0	1.197533E+0	1.215239E+0	1.239239E+0	1.208031E+0	1.287034E+0	1.277178E+0	1.287087E+0	1.252763E+0	1.222707E+0	1.301345E+0	1.333458E+0	1.123060E+0	1.064807E+0	1.208346E+0	1.267345E+0	1.225968E+0	1.182669E+0	1.193013E+0	1.243142E+0	1.231398E+0	1.269197E+0	1.250347E+0	1.293712E+0	1.234406E+0	1.183314E+0	1.270559E+0	1.313628E+0	1.116034E+0	1.123859E+0	1.134467E+0	1.258864E+0	1.188613E+0	1.152426E+0	1.198557E+0	1.319179E+0	1.300312E+0	1.255372E+0	1.314452E+0	1.241153E+0	1.201500E+0	1.215914E+0	1.268693E+0	1.295609E+0	1.049216E+0	1.069347E+0	1.206197E+0	1.314628E+0	1.172835E+0	1.165404E+0	1.209895E+0	1.296118E+0	1.306895E+0	1.261918E+0	1.289321E+0	1.272472E+0	1.242529E+0	1.300909E+0	1.246183E+0	1.288223E+0	1.061711E+0	1.180742E+0	1.220806E+0	1.272695E+0	1.215744E+0	1.175711E+0	1.276580E+0	1.248068E+0	1.265500E+0	1.261221E+0	1.228211E+0	1.239230E+0	1.237750E+0	1.169826E+0	1.250073E+0	1.290643E+0	1.042156E+0	1.041210E+0	1.242789E+0	1.307787E+0	1.143993E+0	1.167088E+0	1.224261E+0	1.261470E+0	1.259480E+0	1.214712E+0	1.303364E+0	1.201049E+0	1.175727E+0	1.190380E+0	1.217175E+0	1.252263E+0	1.085501E+0	1.068361E+0	1.215967E+0	1.360726E+0	1.183215E+0
5.475180E+2	1.363648E+0	1.335624E+0	1.316812E+0	1.114099E+0	1.439651E+0	1.456472E+0	1.084411E+0	1.193510E+0	1.376604E+0	1.376478E+0	1.291519E+0	1.266308E+0	1.424407E+0	1.416831E+0	1.375636E+0	1.378128E+0	1.346656E+0	1.389989E+0	1.245661E+0	1.344704E+0	1.432233E+0	1.434210E+0	1.180372E+0	1.249980E+0	1.426022E+0	1.440391E+0	1.285717E+0	1.306348E+0	1.385068E+0	1.435675E+0	1.410875E+0	1.401172E+0	1.452343E+0	1.376774E+0	1.256577E+0	1.360287E+0	1.384344E+0	1.359063E+0	1.191703E+0	1.246857E+0	1.428257E+0	1.360046E+0	1.310977E+0	1.286996E+0	1.386254E+0	1.423646E+0	1.362020E+0	1.358528E+0	1.427503E+0	1.268924E+0	1.303150E+0	1.329581E+0	1.389475E+0	1.201551E+0	1.186838E+0	1.261927E+0	1.402482E+0	1.275551E+0	1.308727E+0	1.157472E+0	1.428632E+0	1.309996E+0	1.361733E+0	1.350012E+0	1.448534E+0	1.316715E+0	1.376751E+0	1.390518E+0	1.416105E+0	1.190748E+0	1.296047E+0	1.265033E+0	1.377363E+0	1.333678E+0	1.414871E+0	1.353138E+0	1.433293E+0	1.375409E+0	1.383777E+0	1.400584E+0	1.402546E+0	1.344799E+0	1.328900E+0	1.430551E+0	1.371784E+0	1.274755E+0	1.198071E+0	1.271565E+0	1.374901E+0	1.351751E+0	1.238042E+0	1.295963E+0	1.455118E+0	1.364748E+0	1.380227E+0	1.304631E+0	1.353454E+0	1.311886E+0	1.323595E+0	1.342361E+0	1.414343E+0	1.200012E+0	1.197895E+0	1.228846E+0	1.384653E+0	1.237180E+0	1.305116E+0	1.283591E+0	1.398681E+0	1.362292E+0	1.403020E+0	1.400815E+0	1.411230E+0	1.331444E+0	1.347080E+0	1.403808E+0	1.422641E+0	1.153026E+0	1.173662E+0	1.347010E+0	1.389399E+0	1.252026E+0	1.248583E+0	1.285355E+0	1.388453E+0	1.404286E+0	1.385671E+0	1.375207E+0	1.379883E+0	1.286643E+0	1.381706E+0	1.389898E+0	1.457353E+0	1.165081E+0	1.305983E+0	1.340718E+0	1.388151E+0	1.281977E+0	1.357578E+0	1.328166E+0	1.437723E+0	1.361633E+0	1.402488E+0	1.386384E+0	1.338582E+0	1.276953E+0	1.313628E+0	1.344042E+0	1.425199E+0	1.149155E+0	1.144695E+0	1.337343E+0	1.407846E+0	1.216055E+0	1.278856E+0	1.402655E+0	1.410776E+0	1.338219E+0	1.362176E+0	1.400912E+0	1.352116E+0	1.331046E+0	1.256069E+0	1.362837E+0	1.365571E+0	1.158836E+0	1.181013E+0	1.316431E+0	1.384393E+0	1.194222E+0
5.482820E+2	1.408431E+0	1.477410E+0	1.266584E+0	1.249327E+0	1.476935E+0	1.441383E+0	1.109327E+0	1.164206E+0	1.442086E+0	1.458064E+0	1.290952E+0	1.323418E+0	1.436236E+0	1.381518E+0	1.375171E+0	1.407273E+0	1.404220E+0	1.400585E+0	1.274235E+0	1.432144E+0	1.488857E+0	1.462383E+0	1.212975E+0	1.250893E+0	1.407632E+0	1.439220E+0	1.318288E+0	1.292375E+0	1.452804E+0	1.404590E+0	1.418616E+0	1.443116E+0	1.429787E+0	1.406525E+0	1.314566E+0	1.370790E+0	1.451507E+0	1.471384E+0	1.239826E+0	1.255948E+0	1.421482E+0	1.450056E+0	1.329147E+0	1.329996E+0	1.426768E+0	1.448016E+0	1.444032E+0	1.376670E+0	1.436741E+0	1.362056E+0	1.289635E+0	1.410263E+0	1.453978E+0	1.428789E+0	1.188528E+0	1.237492E+0	1.367471E+0	1.437382E+0	1.333533E+0	1.207660E+0	1.406791E+0	1.430267E+0	1.424131E+0	1.335230E+0	1.463665E+0	1.393504E+0	1.446828E+0	1.414875E+0	1.471828E+0	1.358420E+0	1.351064E+0	1.287823E+0	1.342305E+0	1.381548E+0	1.352201E+0	1.338691E+0	1.391914E+0	1.419770E+0	1.403036E+0	1.388241E+0	1.442489E+0	1.393237E+0	1.354868E+0	1.388064E+0	1.405685E+0	1.283704E+0	1.199479E+0	1.336191E+0	1.431576E+0	1.382593E+0	1.296599E+0	1.255651E+0	1.464145E+0	1.415344E+0	1.362307E+0	1.333000E+0	1.353454E+0	1.310701E+0	1.329085E+0	1.394182E+0	1.450235E+0	1.204076E+0	1.189104E+0	1.272591E+0	1.436415E+0	1.321441E+0	1.309257E+0	1.292819E+0	1.409182E+0	1.414414E+0	1.388573E+0	1.352507E+0	1.394095E+0	1.297849E+0	1.394461E+0	1.370501E+0	1.447429E+0	1.174708E+0	1.171899E+0	1.308148E+0	1.423613E+0	1.297692E+0	1.252849E+0	1.302621E+0	1.395256E+0	1.426944E+0	1.397088E+0	1.431832E+0	1.399984E+0	1.384541E+0	1.415008E+0	1.372163E+0	1.426053E+0	1.229465E+0	1.307934E+0	1.355145E+0	1.392667E+0	1.281978E+0	1.334763E+0	1.334696E+0	1.428866E+0	1.357825E+0	1.421727E+0	1.408571E+0	1.431266E+0	1.297187E+0	1.272975E+0	1.404499E+0	1.448529E+0	1.129522E+0	1.153854E+0	1.359623E+0	1.448138E+0	1.257491E+0	1.311132E+0	1.326661E+0	1.422658E+0	1.374902E+0	1.380426E+0	1.353906E+0	1.355473E+0	1.278199E+0	1.323598E+0	1.397390E+0	1.396470E+0	1.121693E+0	1.225497E+0	1.445126E+0	1.435904E+0	1.247058E+0
5.490160E+2	1.490132E+0	1.414684E+0	1.352039E+0	1.181713E+0	1.437712E+0	1.498814E+0	1.204597E+0	1.194659E+0	1.491946E+0	1.451403E+0	1.300586E+0	1.331834E+0	1.480096E+0	1.452579E+0	1.399260E+0	1.494691E+0	1.456725E+0	1.438510E+0	1.356387E+0	1.448542E+0	1.494051E+0	1.423033E+0	1.240800E+0	1.262297E+0	1.436939E+0	1.499076E+0	1.313147E+0	1.319736E+0	1.505042E+0	1.499646E+0	1.431823E+0	1.459352E+0	1.460235E+0	1.459534E+0	1.324326E+0	1.451717E+0	1.477928E+0	1.491104E+0	1.243358E+0	1.290399E+0	1.516334E+0	1.454343E+0	1.407103E+0	1.349107E+0	1.450793E+0	1.435116E+0	1.442691E+0	1.413907E+0	1.427500E+0	1.406938E+0	1.342614E+0	1.424242E+0	1.439589E+0	1.480353E+0	1.229922E+0	1.290196E+0	1.441383E+0	1.457472E+0	1.321130E+0	1.212222E+0	1.456923E+0	1.448200E+0	1.448546E+0	1.420475E+0	1.434662E+0	1.512075E+0	1.472150E+0	1.464906E+0	1.464228E+0	1.436723E+0	1.413480E+0	1.313089E+0	1.457318E+0	1.438329E+0	1.437869E+0	1.343287E+0	1.442330E+0	1.494311E+0	1.430358E+0	1.423432E+0	1.437496E+0	1.436230E+0	1.390650E+0	1.468963E+0	1.465630E+0	1.478267E+0	1.181177E+0	1.304344E+0	1.431574E+0	1.489628E+0	1.308692E+0	1.326971E+0	1.471588E+0	1.466416E+0	1.471843E+0	1.430320E+0	1.485021E+0	1.450871E+0	1.394347E+0	1.417912E+0	1.439520E+0	1.387834E+0	1.241854E+0	1.350258E+0	1.442431E+0	1.468311E+0	1.375542E+0	1.441133E+0	1.412682E+0	1.430849E+0	1.412957E+0	1.409110E+0	1.458825E+0	1.366305E+0	1.404285E+0	1.423290E+0	1.480994E+0	1.335273E+0	1.237042E+0	1.392935E+0	1.465432E+0	1.391335E+0	1.273107E+0	1.345467E+0	1.429760E+0	1.441409E+0	1.436359E+0	1.451649E+0	1.470963E+0	1.369432E+0	1.494572E+0	1.411303E+0	1.468966E+0	1.285685E+0	1.289414E+0	1.367089E+0	1.460393E+0	1.369720E+0	1.311948E+0	1.409791E+0	1.435640E+0	1.417313E+0	1.434920E+0	1.415802E+0	1.461938E+0	1.353463E+0	1.296032E+0	1.439983E+0	1.481627E+0	1.230632E+0	1.204220E+0	1.388969E+0	1.474329E+0	1.280912E+0	1.312925E+0	1.400722E+0	1.460886E+0	1.424787E+0	1.419814E+0	1.458529E+0	1.407843E+0	1.299467E+0	1.334036E+0	1.413650E+0	1.420710E+0	1.205026E+0	1.259003E+0	1.363759E+0	1.426160E+0	1.209632E+0
5.497630E+2	1.547020E+0	1.423831E+0	1.364432E+0	1.131003E+0	1.473544E+0	1.464746E+0	1.178701E+0	1.214195E+0	1.494951E+0	1.443077E+0	1.289251E+0	1.276528E+0	1.477635E+0	1.423810E+0	1.436318E+0	1.426380E+0	1.431420E+0	1.409510E+0	1.326623E+0	1.481331E+0	1.438370E+0	1.487420E+0	1.231671E+0	1.288763E+0	1.473721E+0	1.482645E+0	1.350861E+0	1.352339E+0	1.466085E+0	1.519468E+0	1.405412E+0	1.415603E+0	1.439937E+0	1.433027E+0	1.361646E+0	1.409090E+0	1.512408E+0	1.498392E+0	1.236294E+0	1.240635E+0	1.426411E+0	1.475238E+0	1.397140E+0	1.332983E+0	1.459274E+0	1.414091E+0	1.420729E+0	1.413907E+0	1.458105E+0	1.453505E+0	1.341535E+0	1.449652E+0	1.440517E+0	1.475112E+0	1.215983E+0	1.263844E+0	1.488712E+0	1.423433E+0	1.336227E+0	1.155761E+0	1.418704E+0	1.458258E+0	1.416444E+0	1.374648E+0	1.461774E+0	1.435813E+0	1.423273E+0	1.433307E+0	1.466254E+0	1.514604E+0	1.368172E+0	1.352225E+0	1.468389E+0	1.498444E+0	1.342426E+0	1.387283E+0	1.380020E+0	1.449953E+0	1.429012E+0	1.435320E+0	1.438744E+0	1.466506E+0	1.326013E+0	1.436954E+0	1.468086E+0	1.435397E+0	1.253909E+0	1.386300E+0	1.470862E+0	1.458186E+0	1.297236E+0	1.331933E+0	1.442367E+0	1.460744E+0	1.461885E+0	1.453799E+0	1.434675E+0	1.448507E+0	1.372998E+0	1.390438E+0	1.483983E+0	1.440659E+0	1.224733E+0	1.356647E+0	1.486968E+0	1.473578E+0	1.354236E+0	1.457613E+0	1.461685E+0	1.459494E+0	1.445918E+0	1.419845E+0	1.447402E+0	1.463923E+0	1.389840E+0	1.435231E+0	1.430906E+0	1.440003E+0	1.168380E+0	1.331867E+0	1.488244E+0	1.468791E+0	1.268842E+0	1.370408E+0	1.478845E+0	1.509869E+0	1.368776E+0	1.472888E+0	1.447722E+0	1.378499E+0	1.445233E+0	1.373998E+0	1.453319E+0	1.464771E+0	1.366896E+0	1.351166E+0	1.429433E+0	1.424067E+0	1.396689E+0	1.307924E+0	1.468985E+0	1.422547E+0	1.443715E+0	1.478978E+0	1.435266E+0	1.403416E+0	1.360955E+0	1.410412E+0	1.459382E+0	1.323399E+0	1.171254E+0	1.412879E+0	1.436049E+0	1.369789E+0	1.312925E+0	1.367877E+0	1.414390E+0	1.433102E+0	1.411169E+0	1.457012E+0	1.434700E+0	1.317512E+0	1.378240E+0	1.423810E+0	1.455851E+0	1.151692E+0	1.249182E+0	1.374552E+0	1.394139E+0	1.297692E+0
5.505060E+2	1.394512E+0	1.383322E+0	1.322683E+0	1.076067E+0	1.395103E+0	1.435056E+0	1.088808E+0	1.130880E+0	1.348968E+0	1.429201E+0	1.279052E+0	1.259095E+0	1.456440E+0	1.334433E+0	1.330701E+0	1.354245E+0	1.381446E+0	1.389987E+0	1.268282E+0	1.328311E+0	1.369473E+0	1.387263E+0	1.149502E+0	1.219866E+0	1.370855E+0	1.398725E+0	1.257145E+0	1.279569E+0	1.398350E+0	1.401440E+0	1.336644E+0	1.323153E+0	1.391443E+0	1.365955E+0	1.292175E+0	1.289246E+0	1.425539E+0	1.452521E+0	1.173162E+0	1.197092E+0	1.459669E+0	1.410409E+0	1.305117E+0	1.275650E+0	1.357989E+0	1.389240E+0	1.363811E+0	1.358052E+0	1.388813E+0	1.334005E+0	1.276661E+0	1.370876E+0	1.379265E+0	1.382030E+0	1.171635E+0	1.205869E+0	1.362284E+0	1.417850E+0	1.279611E+0	1.123253E+0	1.368570E+0	1.425457E+0	1.330982E+0	1.328334E+0	1.405024E+0	1.399248E+0	1.364975E+0	1.372085E+0	1.399898E+0	1.381826E+0	1.290036E+0	1.249183E+0	1.376131E+0	1.379881E+0	1.349325E+0	1.343287E+0	1.387157E+0	1.392787E+0	1.364965E+0	1.360818E+0	1.347625E+0	1.389604E+0	1.285613E+0	1.350816E+0	1.445483E+0	1.364261E+0	1.170855E+0	1.305751E+0	1.363307E+0	1.376546E+0	1.244408E+0	1.284179E+0	1.432273E+0	1.389339E+0	1.418068E+0	1.358431E+0	1.388359E+0	1.376941E+0	1.261384E+0	1.281798E+0	1.374162E+0	1.444723E+0	1.179850E+0	1.255389E+0	1.418357E+0	1.377030E+0	1.277891E+0	1.304684E+0	1.398683E+0	1.388589E+0	1.355614E+0	1.394470E+0	1.310960E+0	1.410045E+0	1.349390E+0	1.376157E+0	1.430903E+0	1.386023E+0	1.125684E+0	1.279884E+0	1.381160E+0	1.430642E+0	1.179803E+0	1.257218E+0	1.420527E+0	1.373429E+0	1.352791E+0	1.334623E+0	1.332144E+0	1.448599E+0	1.281174E+0	1.375220E+0	1.385663E+0	1.383616E+0	1.277231E+0	1.311859E+0	1.355902E+0	1.323868E+0	1.340629E+0	1.375834E+0	1.372593E+0	1.367341E+0	1.376654E+0	1.358415E+0	1.383257E+0	1.396461E+0	1.277223E+0	1.329586E+0	1.459923E+0	1.433342E+0	1.119052E+0	1.287349E+0	1.389043E+0	1.382402E+0	1.210719E+0	1.369165E+0	1.351365E+0	1.422340E+0	1.367457E+0	1.372104E+0	1.332646E+0	1.331690E+0	1.265277E+0	1.391969E+0	1.442521E+0	1.352644E+0	1.183902E+0	1.282390E+0	1.263275E+0	1.326312E+0
5.512620E+2	1.304340E+0	1.290540E+0	1.220268E+0	1.088745E+0	1.345231E+0	1.380544E+0	1.096624E+0	1.065951E+0	1.299707E+0	1.361494E+0	1.276785E+0	1.247072E+0	1.367727E+0	1.383698E+0	1.259362E+0	1.294055E+0	1.323250E+0	1.291267E+0	1.211728E+0	1.322237E+0	1.377026E+0	1.366249E+0	1.072989E+0	1.163746E+0	1.401885E+0	1.373493E+0	1.202859E+0	1.197483E+0	1.335040E+0	1.345577E+0	1.334822E+0	1.346604E+0	1.373400E+0	1.355137E+0	1.274376E+0	1.356583E+0	1.417479E+0	1.357775E+0	1.149321E+0	1.191351E+0	1.416555E+0	1.356295E+0	1.323874E+0	1.286996E+0	1.371174E+0	1.349099E+0	1.314065E+0	1.278803E+0	1.353010E+0	1.268364E+0	1.235037E+0	1.249533E+0	1.411749E+0	1.379849E+0	1.074905E+0	1.179039E+0	1.363581E+0	1.378791E+0	1.203042E+0	1.062229E+0	1.311490E+0	1.343670E+0	1.300687E+0	1.276593E+0	1.341340E+0	1.297913E+0	1.329050E+0	1.316129E+0	1.316822E+0	1.375019E+0	1.261374E+0	1.193698E+0	1.353991E+0	1.340914E+0	1.291828E+0	1.284188E+0	1.355766E+0	1.345225E+0	1.271810E+0	1.290890E+0	1.351370E+0	1.383550E+0	1.214050E+0	1.325790E+0	1.339844E+0	1.343062E+0	1.132847E+0	1.207876E+0	1.359443E+0	1.329982E+0	1.221494E+0	1.258132E+0	1.380207E+0	1.307056E+0	1.318988E+0	1.307078E+0	1.330631E+0	1.356834E+0	1.254065E+0	1.260569E+0	1.325412E+0	1.393252E+0	1.110901E+0	1.244084E+0	1.368402E+0	1.276970E+0	1.226403E+0	1.266452E+0	1.348183E+0	1.339752E+0	1.308651E+0	1.313963E+0	1.336979E+0	1.344121E+0	1.256939E+0	1.280005E+0	1.364807E+0	1.330196E+0	1.140651E+0	1.275847E+0	1.365320E+0	1.321967E+0	1.132881E+0	1.257217E+0	1.359296E+0	1.380662E+0	1.308040E+0	1.341227E+0	1.371091E+0	1.342844E+0	1.339149E+0	1.260860E+0	1.317505E+0	1.364572E+0	1.230449E+0	1.227771E+0	1.337196E+0	1.297262E+0	1.201785E+0	1.272009E+0	1.340811E+0	1.371149E+0	1.373903E+0	1.357450E+0	1.324579E+0	1.374330E+0	1.274188E+0	1.324329E+0	1.332959E+0	1.333703E+0	1.095241E+0	1.287891E+0	1.408517E+0	1.330755E+0	1.182030E+0	1.243582E+0	1.354462E+0	1.330395E+0	1.349206E+0	1.344809E+0	1.337345E+0	1.262731E+0	1.225374E+0	1.335060E+0	1.299525E+0	1.297407E+0	1.120932E+0	1.230082E+0	1.350981E+0	1.247059E+0
5.520040E+2	1.339441E+0	1.357186E+0	1.260713E+0	1.054937E+0	1.366053E+0	1.354751E+0	1.132778E+0	1.132029E+0	1.355578E+0	1.384250E+0	1.269986E+0	1.260297E+0	1.400256E+0	1.369313E+0	1.283451E+0	1.328926E+0	1.392835E+0	1.347043E+0	1.284355E+0	1.341061E+0	1.410525E+0	1.350598E+0	1.099507E+0	1.196597E+0	1.349015E+0	1.382295E+0	1.229716E+0	1.334874E+0	1.440406E+0	1.371708E+0	1.357594E+0	1.324506E+0	1.368327E+0	1.361630E+0	1.249688E+0	1.303454E+0	1.394642E+0	1.405792E+0	1.137401E+0	1.172210E+0	1.383297E+0	1.424875E+0	1.271121E+0	1.196220E+0	1.386720E+0	1.291278E+0	1.366501E+0	1.378579E+0	1.383039E+0	1.328393E+0	1.205844E+0	1.369606E+0	1.423812E+0	1.367609E+0	1.153047E+0	1.217848E+0	1.335054E+0	1.440731E+0	1.203581E+0	1.147776E+0	1.403316E+0	1.366849E+0	1.313802E+0	1.342621E+0	1.372867E+0	1.355371E+0	1.316096E+0	1.361553E+0	1.406481E+0	1.416724E+0	1.290501E+0	1.222924E+0	1.310323E+0	1.384888E+0	1.311952E+0	1.261861E+0	1.355766E+0	1.363058E+0	1.335409E+0	1.351219E+0	1.367596E+0	1.372046E+0	1.249832E+0	1.395051E+0	1.351637E+0	1.333640E+0	1.142701E+0	1.270630E+0	1.367815E+0	1.337238E+0	1.232315E+0	1.282939E+0	1.362146E+0	1.386972E+0	1.269697E+0	1.357454E+0	1.354796E+0	1.378124E+0	1.257114E+0	1.239965E+0	1.348448E+0	1.361648E+0	1.139129E+0	1.258830E+0	1.429189E+0	1.362404E+0	1.286177E+0	1.316549E+0	1.332680E+0	1.355718E+0	1.350192E+0	1.314452E+0	1.334440E+0	1.357433E+0	1.332054E+0	1.338450E+0	1.359126E+0	1.376334E+0	1.147251E+0	1.286446E+0	1.379892E+0	1.412143E+0	1.217123E+0	1.255299E+0	1.404491E+0	1.356554E+0	1.338177E+0	1.304423E+0	1.369205E+0	1.399647E+0	1.379238E+0	1.329353E+0	1.353858E+0	1.399029E+0	1.276742E+0	1.240707E+0	1.357837E+0	1.351606E+0	1.311948E+0	1.322943E+0	1.369467E+0	1.421118E+0	1.326083E+0	1.384939E+0	1.377922E+0	1.310466E+0	1.251132E+0	1.324328E+0	1.363345E+0	1.431870E+0	1.091578E+0	1.287892E+0	1.415234E+0	1.330754E+0	1.186214E+0	1.324084E+0	1.321914E+0	1.369523E+0	1.325189E+0	1.340765E+0	1.365545E+0	1.397426E+0	1.220462E+0	1.312703E+0	1.316491E+0	1.371216E+0	1.134219E+0	1.331377E+0	1.342629E+0	1.454000E+0
5.527700E+2	1.323100E+0	1.336277E+0	1.207222E+0	1.088743E+0	1.352011E+0	1.326034E+0	1.052655E+0	1.045840E+0	1.348368E+0	1.325417E+0	1.156652E+0	1.136461E+0	1.343085E+0	1.293016E+0	1.307075E+0	1.307430E+0	1.275805E+0	1.304095E+0	1.236136E+0	1.298555E+0	1.341161E+0	1.323773E+0	1.113419E+0	1.169679E+0	1.333499E+0	1.297791E+0	1.251431E+0	1.213783E+0	1.318216E+0	1.286562E+0	1.297023E+0	1.287074E+0	1.340698E+0	1.321602E+0	1.231890E+0	1.229324E+0	1.346282E+0	1.341915E+0	1.135192E+0	1.171251E+0	1.364820E+0	1.318253E+0	1.285775E+0	1.232650E+0	1.297684E+0	1.252575E+0	1.261181E+0	1.289307E+0	1.325293E+0	1.309879E+0	1.199358E+0	1.330216E+0	1.347248E+0	1.302932E+0	1.092222E+0	1.132083E+0	1.278646E+0	1.296198E+0	1.203042E+0	1.105002E+0	1.319931E+0	1.294687E+0	1.303403E+0	1.286942E+0	1.311073E+0	1.288510E+0	1.310796E+0	1.300331E+0	1.316821E+0	1.321395E+0	1.249815E+0	1.161497E+0	1.301097E+0	1.355386E+0	1.219382E+0	1.282874E+0	1.287276E+0	1.306810E+0	1.297787E+0	1.301858E+0	1.338264E+0	1.315129E+0	1.249256E+0	1.258861E+0	1.277445E+0	1.280405E+0	1.158653E+0	1.176497E+0	1.347206E+0	1.347519E+0	1.183306E+0	1.202316E+0	1.324955E+0	1.305164E+0	1.300566E+0	1.258169E+0	1.302438E+0	1.347963E+0	1.232717E+0	1.241215E+0	1.350592E+0	1.289407E+0	1.118306E+0	1.235236E+0	1.307013E+0	1.296865E+0	1.251259E+0	1.209764E+0	1.329681E+0	1.293267E+0	1.319490E+0	1.302741E+0	1.308423E+0	1.329542E+0	1.239603E+0	1.262409E+0	1.330207E+0	1.317276E+0	1.079912E+0	1.251116E+0	1.331739E+0	1.366477E+0	1.137147E+0	1.199024E+0	1.293200E+0	1.314129E+0	1.266028E+0	1.324239E+0	1.367948E+0	1.345261E+0	1.290425E+0	1.309785E+0	1.303371E+0	1.361399E+0	1.228498E+0	1.217320E+0	1.356546E+0	1.291035E+0	1.233074E+0	1.246542E+0	1.290792E+0	1.308331E+0	1.300799E+0	1.312605E+0	1.319245E+0	1.250396E+0	1.231715E+0	1.286215E+0	1.319940E+0	1.314564E+0	1.106231E+0	1.296587E+0	1.311145E+0	1.267099E+0	1.205938E+0	1.255817E+0	1.316748E+0	1.289802E+0	1.269466E+0	1.289210E+0	1.286989E+0	1.328468E+0	1.166438E+0	1.302540E+0	1.275894E+0	1.314550E+0	1.150973E+0	1.321413E+0	1.309215E+0	1.277879E+0
5.535050E+2	1.234139E+0	1.231082E+0	1.234619E+0	1.050711E+0	1.243068E+0	1.294886E+0	1.182609E+0	1.042967E+0	1.276278E+0	1.256042E+0	1.176486E+0	1.113016E+0	1.251906E+0	1.238958E+0	1.230642E+0	1.261570E+0	1.206222E+0	1.224895E+0	1.186130E+0	1.226901E+0	1.265190E+0	1.255809E+0	1.084292E+0	1.097590E+0	1.326029E+0	1.279598E+0	1.178287E+0	1.132862E+0	1.273501E+0	1.234306E+0	1.292923E+0	1.285722E+0	1.237510E+0	1.216124E+0	1.210646E+0	1.222529E+0	1.227622E+0	1.227022E+0	9.961236E-1	1.113832E+0	1.289680E+0	1.248069E+0	1.189062E+0	1.118581E+0	1.238796E+0	1.255920E+0	1.209644E+0	1.225332E+0	1.278522E+0	1.227968E+0	1.106917E+0	1.262874E+0	1.241912E+0	1.192811E+0	1.038155E+0	1.079856E+0	1.212515E+0	1.283363E+0	1.143190E+0	1.091885E+0	1.236541E+0	1.227332E+0	1.262257E+0	1.239147E+0	1.262521E+0	1.209634E+0	1.201265E+0	1.210801E+0	1.242866E+0	1.232880E+0	1.219763E+0	1.094620E+0	1.208841E+0	1.296939E+0	1.221106E+0	1.192255E+0	1.284421E+0	1.204370E+0	1.257029E+0	1.264838E+0	1.292080E+0	1.242469E+0	1.163840E+0	1.233252E+0	1.247473E+0	1.249315E+0	1.034775E+0	1.113748E+0	1.234500E+0	1.215083E+0	1.125386E+0	1.100606E+0	1.244204E+0	1.239906E+0	1.237831E+0	1.215623E+0	1.221887E+0	1.246235E+0	1.138181E+0	1.228727E+0	1.276127E+0	1.235679E+0	1.053984E+0	1.161009E+0	1.228772E+0	1.274044E+0	1.180242E+0	1.251291E+0	1.263678E+0	1.244900E+0	1.250403E+0	1.250041E+0	1.272249E+0	1.224320E+0	1.167954E+0	1.242299E+0	1.274952E+0	1.234226E+0	1.032815E+0	1.194589E+0	1.229724E+0	1.257228E+0	1.149942E+0	1.186874E+0	1.265016E+0	1.271702E+0	1.241822E+0	1.209571E+0	1.239808E+0	1.257032E+0	1.223198E+0	1.181359E+0	1.225114E+0	1.259839E+0	1.168559E+0	1.132241E+0	1.273340E+0	1.191968E+0	1.175711E+0	1.217810E+0	1.219934E+0	1.240752E+0	1.201306E+0	1.252805E+0	1.213892E+0	1.255455E+0	1.154050E+0	1.206703E+0	1.272734E+0	1.259590E+0	9.853473E-1	1.174860E+0	1.316518E+0	1.257491E+0	1.106124E+0	1.176603E+0	1.192760E+0	1.277575E+0	1.225280E+0	1.260912E+0	1.227235E+0	1.175083E+0	1.146793E+0	1.226660E+0	1.243780E+0	1.223599E+0	1.084537E+0	1.211815E+0	1.176961E+0	1.209633E+0
5.542530E+2	1.115523E+0	1.170970E+0	1.196133E+0	9.788705E-1	1.131700E+0	1.181000E+0	1.162091E+0	9.728665E-1	1.197580E+0	1.198321E+0	1.214452E+0	1.055306E+0	1.195720E+0	1.167897E+0	1.170420E+0	1.127813E+0	1.101213E+0	1.168563E+0	1.201608E+0	1.166786E+0	1.203376E+0	1.149391E+0	1.159503E+0	1.016375E+0	1.205924E+0	1.189224E+0	1.142859E+0	1.074065E+0	1.190712E+0	1.167634E+0	1.200478E+0	1.181546E+0	1.181126E+0	1.124710E+0	1.144046E+0	1.131101E+0	1.183740E+0	1.169576E+0	1.185966E+0	9.970761E-1	1.210844E+0	1.237886E+0	1.119898E+0	1.089914E+0	1.194983E+0	1.173727E+0	1.184993E+0	1.132717E+0	1.171693E+0	1.138763E+0	1.142596E+0	1.199979E+0	1.176949E+0	1.153482E+0	9.895801E-1	1.044400E+0	1.165834E+0	1.174544E+0	1.083338E+0	1.026868E+0	1.165563E+0	1.145106E+0	1.176796E+0	1.108076E+0	1.183071E+0	1.224262E+0	1.131778E+0	1.175912E+0	1.151177E+0	1.171599E+0	1.101866E+0	1.104032E+0	1.163943E+0	1.175591E+0	1.115313E+0	1.091787E+0	1.137929E+0	1.122967E+0	1.167903E+0	1.156060E+0	1.185359E+0	1.137112E+0	1.080156E+0	1.161667E+0	1.151662E+0	1.141434E+0	1.010375E+0	1.067853E+0	1.126302E+0	1.180613E+0	1.106292E+0	1.099367E+0	1.177796E+0	1.156207E+0	1.164639E+0	1.168185E+0	1.131268E+0	1.164616E+0	1.089387E+0	1.160046E+0	1.201128E+0	1.204978E+0	9.785598E-1	1.039598E+0	1.235392E+0	1.127757E+0	1.081999E+0	1.127367E+0	1.170174E+0	1.202173E+0	1.152420E+0	1.176364E+0	1.173249E+0	1.176780E+0	1.091104E+0	1.143633E+0	1.147403E+0	1.207008E+0	1.014330E+0	1.105258E+0	1.158125E+0	1.156649E+0	1.053437E+0	1.101822E+0	1.182400E+0	1.211918E+0	1.133597E+0	1.161911E+0	1.134282E+0	1.181493E+0	1.203462E+0	1.128766E+0	1.191793E+0	1.154655E+0	1.069145E+0	1.132739E+0	1.175300E+0	1.215745E+0	1.072718E+0	1.131614E+0	1.161577E+0	1.195066E+0	1.180418E+0	1.179504E+0	1.127209E+0	1.198547E+0	1.093374E+0	1.143619E+0	1.226615E+0	1.197748E+0	9.519208E-1	1.154211E+0	1.211086E+0	1.195037E+0	1.061895E+0	1.074849E+0	1.201541E+0	1.157753E+0	1.128250E+0	1.187117E+0	1.161436E+0	1.175083E+0	1.116098E+0	1.144683E+0	1.146228E+0	1.188834E+0	9.585979E-1	1.151205E+0	1.157470E+0	1.284485E+0
5.550080E+2	1.088894E+0	1.072308E+0	1.095674E+0	9.408369E-1	1.071176E+0	1.069544E+0	1.052655E+0	9.039155E-1	1.076829E+0	1.086766E+0	1.118686E+0	9.591225E-1	1.116369E+0	1.056724E+0	1.074994E+0	1.083863E+0	1.125884E+0	1.082112E+0	1.083144E+0	1.064771E+0	1.124101E+0	1.112280E+0	1.066032E+0	9.552359E-1	1.050762E+0	1.084179E+0	1.112001E+0	1.025162E+0	1.123422E+0	1.106816E+0	1.098925E+0	1.098565E+0	1.103876E+0	1.124169E+0	1.106153E+0	1.063148E+0	1.099555E+0	1.116417E+0	1.142701E+0	9.836773E-1	1.115995E+0	1.067509E+0	1.108760E+0	1.005109E+0	1.096523E+0	1.115429E+0	1.060851E+0	1.032464E+0	1.076415E+0	1.083781E+0	1.151245E+0	1.080542E+0	1.095281E+0	1.125952E+0	1.085464E+0	9.754047E-1	1.138604E+0	1.071864E+0	1.118926E+0	9.436016E-1	1.067780E+0	1.121927E+0	1.085911E+0	1.088366E+0	1.112448E+0	1.099420E+0	1.093501E+0	1.061368E+0	1.152699E+0	1.074570E+0	1.098631E+0	9.806796E-1	1.083987E+0	1.073168E+0	1.056666E+0	1.079967E+0	1.105113E+0	1.094614E+0	1.094001E+0	1.093442E+0	1.080510E+0	1.079589E+0	1.050146E+0	1.103467E+0	1.126601E+0	1.088198E+0	9.911368E-1	1.046778E+0	1.078000E+0	1.114093E+0	1.037552E+0	1.041070E+0	1.122545E+0	1.071090E+0	1.097920E+0	1.040538E+0	1.064142E+0	1.122033E+0	1.028395E+0	1.047036E+0	1.085951E+0	1.120098E+0	9.679171E-1	1.007155E+0	1.113216E+0	1.116640E+0	1.019859E+0	1.037720E+0	1.094170E+0	1.126104E+0	1.053984E+0	1.067065E+0	1.100269E+0	1.093743E+0	1.061056E+0	1.036798E+0	1.108673E+0	1.111040E+0	8.946103E-1	1.027030E+0	1.093495E+0	1.072833E+0	9.617294E-1	1.014211E+0	1.065283E+0	1.126101E+0	1.113048E+0	1.091128E+0	1.136794E+0	1.144631E+0	1.034470E+0	1.033364E+0	1.091325E+0	1.118384E+0	1.044779E+0	9.765046E-1	1.128213E+0	1.105923E+0	9.801547E-1	1.108107E+0	1.103222E+0	1.087987E+0	1.089170E+0	1.070997E+0	1.124542E+0	1.077775E+0	1.012068E+0	1.035193E+0	1.029661E+0	1.115289E+0	8.814050E-1	1.020529E+0	1.088867E+0	1.079136E+0	1.051136E+0	1.022684E+0	1.109066E+0	1.079990E+0	1.080697E+0	1.061773E+0	1.049312E+0	1.081633E+0	1.007435E+0	1.093871E+0	1.104420E+0	1.098835E+0	9.135369E-1	1.075648E+0	1.037744E+0	1.073140E+0
5.557880E+2	9.999328E-1	1.008276E+0	9.782561E-1	8.689972E-1	9.835374E-1	1.003840E+0	9.989142E-1	7.999146E-1	9.801087E-1	1.039591E+0	1.033685E+0	8.677475E-1	1.013362E+0	9.756342E-1	1.030059E+0	1.027017E+0	9.860833E-1	9.711216E-1	1.007541E+0	9.615428E-1	1.016515E+0	1.010335E+0	9.786494E-1	9.032217E-1	1.069152E+0	1.026082E+0	9.925715E-1	9.104766E-1	9.875062E-1	1.005005E+0	9.823412E-1	1.006113E+0	1.034520E+0	9.748779E-1	9.741000E-1	9.680145E-1	1.018059E+0	1.037536E+0	1.016875E+0	8.922823E-1	1.005749E+0	1.036434E+0	9.956366E-1	9.107486E-1	1.008426E+0	9.940525E-1	1.062644E+0	9.689694E-1	1.037148E+0	1.002992E+0	1.020423E+0	9.731758E-1	1.013147E+0	1.026316E+0	1.023373E+0	8.450793E-1	9.415041E-1	1.018849E+0	1.005152E+0	8.951243E-1	1.016159E+0	1.009963E+0	1.010398E+0	9.755272E-1	1.071463E+0	1.002786E+0	1.003992E+0	9.797390E-1	1.027072E+0	9.890284E-1	1.033443E+0	9.172694E-1	9.868105E-1	1.061479E+0	1.030218E+0	9.840941E-1	9.571940E-1	9.972057E-1	9.936809E-1	9.704944E-1	1.024339E+0	1.005113E+0	9.843532E-1	1.020822E+0	1.025877E+0	1.031668E+0	1.004744E+0	9.428148E-1	1.006512E+0	1.001613E+0	9.929989E-1	9.325381E-1	1.000885E+0	9.996846E-1	1.002324E+0	9.838063E-1	9.849341E-1	9.972394E-1	1.049742E+0	9.895943E-1	1.023273E+0	1.022122E+0	1.015578E+0	8.931149E-1	1.024141E+0	1.058125E+0	1.001512E+0	9.830078E-1	9.946666E-1	1.002609E+0	1.019215E+0	1.047548E+0	9.949229E-1	1.043033E+0	9.894063E-1	9.745829E-1	1.021919E+0	1.004460E+0	9.346633E-1	9.245749E-1	1.004154E+0	1.017919E+0	9.953197E-1	9.585759E-1	9.865552E-1	1.014731E+0	1.011213E+0	1.009961E+0	9.841574E-1	1.041899E+0	9.888303E-1	9.917777E-1	1.034780E+0	1.017732E+0	9.326955E-1	9.784945E-1	1.005016E+0	9.757206E-1	9.299620E-1	9.820794E-1	9.781744E-1	9.875738E-1	9.424056E-1	1.016504E+0	1.035191E+0	9.772368E-1	9.441104E-1	1.012193E+0	1.004160E+0	1.016143E+0	8.621739E-1	1.024876E+0	1.010297E+0	9.842532E-1	9.070919E-1	9.724498E-1	1.021755E+0	9.635910E-1	9.750223E-1	1.017802E+0	9.734425E-1	9.746510E-1	9.276266E-1	1.002409E+0	1.026862E+0	1.022169E+0	8.523005E-1	1.005074E+0	1.016861E+0	1.011497E+0
5.560020E+2	9.605955E-1	9.847542E-1	9.776029E-1	8.056089E-1	9.448015E-1	9.692836E-1	9.769293E-1	8.246216E-1	9.392575E-1	1.022385E+0	9.957185E-1	8.569272E-1	9.655550E-1	9.560157E-1	1.002728E+0	9.266984E-1	9.196621E-1	9.510425E-1	9.527720E-1	9.536479E-1	9.759345E-1	9.316391E-1	9.690847E-1	8.881654E-1	9.783536E-1	1.008477E+0	1.016000E+0	9.098941E-1	1.015397E+0	9.671636E-1	9.859847E-1	9.614662E-1	9.922311E-1	9.251139E-1	9.528565E-1	9.136516E-1	9.598495E-1	9.650833E-1	9.634557E-1	8.377329E-1	9.798808E-1	1.001071E+0	9.745360E-1	8.868600E-1	9.895819E-1	9.610808E-1	9.546356E-1	9.517827E-1	9.626584E-1	9.222032E-1	9.593359E-1	9.522110E-1	9.672080E-1	9.542112E-1	1.007321E+0	8.647240E-1	9.590095E-1	9.859249E-1	9.566237E-1	8.825772E-1	9.615599E-1	9.762840E-1	9.773924E-1	9.696143E-1	9.730960E-1	9.573414E-1	9.763141E-1	9.422161E-1	9.470370E-1	9.528577E-1	1.005240E+0	8.721893E-1	9.468328E-1	1.007484E+0	9.773210E-1	9.197415E-1	9.819266E-1	9.848591E-1	1.002189E+0	9.663807E-1	1.013106E+0	1.008140E+0	9.514575E-1	9.870665E-1	9.777258E-1	9.595905E-1	1.004275E+0	9.381317E-1	1.027121E+0	9.659337E-1	9.548104E-1	9.306778E-1	9.663534E-1	9.571257E-1	9.824075E-1	9.515278E-1	9.755369E-1	9.605715E-1	9.527657E-1	9.683654E-1	9.600596E-1	9.909697E-1	9.952176E-1	8.749275E-1	1.006687E+0	9.615756E-1	9.423308E-1	9.375251E-1	9.716654E-1	9.453227E-1	1.007927E+0	9.811876E-1	9.822305E-1	9.637984E-1	1.006164E+0	9.337345E-1	9.439423E-1	9.827760E-1	9.892406E-1	9.276030E-1	1.013025E+0	1.024856E+0	9.462669E-1	8.799184E-1	9.573964E-1	9.747152E-1	1.005277E+0	9.420104E-1	9.741072E-1	9.379580E-1	9.956148E-1	9.232846E-1	9.913610E-1	9.855425E-1	9.512138E-1	9.232659E-1	9.585761E-1	9.440200E-1	9.117100E-1	9.539996E-1	9.875533E-1	9.880497E-1	9.808835E-1	9.755127E-1	1.028524E+0	9.791339E-1	9.890108E-1	9.826222E-1	9.743182E-1	9.773675E-1	9.592473E-1	9.189092E-1	1.000896E+0	9.638356E-1	9.728383E-1	8.983885E-1	9.690594E-1	9.802193E-1	9.706993E-1	9.778743E-1	9.761283E-1	9.211595E-1	9.718287E-1	9.502417E-1	9.935371E-1	1.017883E+0	9.551317E-1	9.444623E-1	1.022430E+0	1.026908E+0
5.564970E+2	9.612008E-1	1.033758E+0	9.619472E-1	8.394158E-1	9.975792E-1	9.760973E-1	9.910975E-1	8.154280E-1	9.795080E-1	1.002960E+0	9.645517E-1	9.038167E-1	9.970977E-1	9.625553E-1	9.809554E-1	9.668260E-1	9.373742E-1	9.856226E-1	9.492011E-1	9.038553E-1	9.764064E-1	9.499716E-1	9.682158E-1	8.936406E-1	9.639873E-1	1.019040E+0	9.399991E-1	9.256125E-1	9.587286E-1	9.680645E-1	9.909931E-1	9.700359E-1	9.454311E-1	9.819094E-1	1.014864E+0	9.704854E-1	1.022986E+0	9.985230E-1	9.771420E-1	8.654867E-1	9.743378E-1	1.010180E+0	9.786388E-1	9.017906E-1	9.844013E-1	9.615591E-1	9.716657E-1	9.240932E-1	9.638140E-1	9.620366E-1	9.809592E-1	9.687292E-1	9.876253E-1	9.979106E-1	1.013236E+0	8.704738E-1	9.804052E-1	9.736478E-1	9.889756E-1	8.329597E-1	9.268152E-1	9.596651E-1	9.823638E-1	9.705996E-1	1.003363E+0	9.907716E-1	1.013414E+0	9.909303E-1	9.652728E-1	9.562615E-1	1.051011E+0	8.969586E-1	9.800450E-1	9.774252E-1	9.692714E-1	9.880340E-1	9.957195E-1	9.450712E-1	9.806911E-1	9.576968E-1	1.014978E+0	9.827100E-1	9.572285E-1	9.556385E-1	1.004750E+0	9.402759E-1	9.779979E-1	9.100331E-1	9.685139E-1	1.025197E+0	9.554470E-1	9.226161E-1	9.796347E-1	9.944826E-1	9.784239E-1	9.295200E-1	9.144520E-1	9.676683E-1	9.619142E-1	9.371472E-1	9.348815E-1	1.008579E+0	1.039179E+0	9.191672E-1	1.028956E+0	9.920035E-1	9.973701E-1	9.375252E-1	1.015667E+0	9.509574E-1	9.605142E-1	9.875306E-1	8.978272E-1	9.637988E-1	1.017142E+0	9.902938E-1	9.816397E-1	9.647814E-1	9.940819E-1	9.376977E-1	9.750070E-1	1.005781E+0	1.002785E+0	9.329959E-1	9.661447E-1	9.930362E-1	9.902078E-1	9.405946E-1	1.006770E+0	9.615260E-1	9.586088E-1	9.514157E-1	9.964103E-1	9.878088E-1	9.984839E-1	9.133144E-1	9.953416E-1	9.474162E-1	9.377841E-1	9.272270E-1	9.844271E-1	1.023266E+0	9.413066E-1	9.398265E-1	1.009854E+0	9.728107E-1	9.962915E-1	9.543662E-1	9.726896E-1	9.724592E-1	9.610786E-1	9.308650E-1	9.854503E-1	9.938611E-1	1.055917E+0	9.376735E-1	1.014523E+0	9.357142E-1	9.692582E-1	9.642281E-1	9.848560E-1	9.636941E-1	1.005593E+0	9.983434E-1	1.018985E+0	9.821694E-1	1.046409E+0	9.535961E-1	1.050273E+0	1.037916E+0
5.570160E+2	9.775407E-1	1.009583E+0	9.906497E-1	7.887052E-1	9.830535E-1	9.775577E-1	9.363796E-1	8.068092E-1	9.837136E-1	9.924151E-1	9.826851E-1	8.569269E-1	1.036526E+0	9.869691E-1	9.517716E-1	9.577491E-1	9.645759E-1	9.744677E-1	9.664649E-1	9.281445E-1	9.631940E-1	9.642794E-1	9.912566E-1	8.507515E-1	1.005363E+0	9.503799E-1	9.537136E-1	9.285235E-1	1.004328E+0	9.950944E-1	9.659463E-1	9.596624E-1	1.004073E+0	9.667640E-1	9.488372E-1	9.235356E-1	1.009553E+0	9.740870E-1	9.691940E-1	8.683577E-1	9.595553E-1	1.013931E+0	9.962231E-1	8.999987E-1	1.000891E+0	1.006478E+0	9.756993E-1	9.388927E-1	9.337866E-1	9.945770E-1	1.010692E+0	9.776232E-1	9.945863E-1	9.944157E-1	9.701499E-1	8.503501E-1	9.927237E-1	9.513264E-1	1.005152E+0	8.951243E-1	1.004743E+0	9.994644E-1	9.778435E-1	9.489189E-1	9.730962E-1	9.698777E-1	9.633587E-1	9.283917E-1	9.794567E-1	9.690260E-1	9.659415E-1	8.905186E-1	9.788151E-1	9.857743E-1	9.991694E-1	9.355007E-1	1.010463E+0	9.889749E-1	9.668074E-1	9.636385E-1	9.444549E-1	9.736273E-1	9.416461E-1	9.597126E-1	9.678990E-1	9.855021E-1	9.864437E-1	9.114381E-1	9.781745E-1	9.604907E-1	9.840875E-1	9.257164E-1	9.838852E-1	9.784051E-1	9.978422E-1	9.715799E-1	9.916469E-1	9.558393E-1	9.643537E-1	9.427662E-1	9.632742E-1	9.534951E-1	9.517212E-1	8.955727E-1	9.741868E-1	9.902477E-1	9.606770E-1	8.933602E-1	9.846658E-1	9.918090E-1	9.867046E-1	9.543504E-1	9.447891E-1	9.783777E-1	9.870954E-1	9.620146E-1	9.991965E-1	9.726245E-1	9.998046E-1	9.225561E-1	9.648690E-1	9.260106E-1	1.002251E+0	9.189266E-1	9.676018E-1	9.795368E-1	1.033588E+0	9.632452E-1	1.003001E+0	9.808635E-1	9.875965E-1	9.538617E-1	9.620792E-1	9.764741E-1	9.760673E-1	9.327195E-1	9.437410E-1	1.027236E+0	1.055769E+0	9.546533E-1	9.698381E-1	9.566401E-1	9.979234E-1	9.586341E-1	9.538433E-1	9.601642E-1	9.841568E-1	9.589660E-1	9.998192E-1	9.886564E-1	9.972524E-1	8.825002E-1	9.525450E-1	9.464196E-1	1.008102E+0	9.434695E-1	9.845586E-1	1.009075E+0	1.000000E+0	9.783796E-1	9.942552E-1	9.546715E-1	9.712143E-1	9.841169E-1	9.941430E-1	9.950263E-1	9.666859E-1	9.635593E-1	1.022430E+0	9.740715E-1
5.575360E+2	9.950915E-1	1.035065E+0	9.749943E-1	7.379943E-1	9.975788E-1	9.994594E-1	1.012105E+0	8.194505E-1	1.054001E+0	1.012395E+0	9.775854E-1	9.008104E-1	9.847762E-1	1.040593E+0	1.014309E+0	1.004087E+0	1.066421E+0	9.727942E-1	1.003968E+0	9.803666E-1	1.033503E+0	1.011228E+0	1.019079E+0	9.128026E-1	1.009387E+0	9.932185E-1	1.010286E+0	9.296876E-1	1.011855E+0	1.009960E+0	9.978253E-1	9.619169E-1	1.010275E+0	1.033296E+0	1.003381E+0	9.958128E-1	1.017613E+0	1.016529E+0	1.052194E+0	9.052021E-1	1.002053E+0	9.667817E-1	1.044286E+0	9.310550E-1	1.008899E+0	1.016991E+0	1.009312E+0	9.708787E-1	1.029642E+0	9.956989E-1	1.010692E+0	9.331517E-1	9.927300E-1	1.046419E+0	1.018726E+0	8.829314E-1	9.765152E-1	1.064609E+0	1.015937E+0	8.905618E-1	1.016655E+0	1.043201E+0	1.017183E+0	9.415275E-1	9.926435E-1	9.536853E-1	1.049335E+0	9.981714E-1	1.051893E+0	1.032012E+0	1.024657E+0	8.736752E-1	1.022484E+0	1.039769E+0	9.945695E-1	9.604544E-1	1.021880E+0	1.008638E+0	1.009803E+0	1.053679E+0	9.806525E-1	9.923977E-1	1.046106E+0	9.957965E-1	1.003767E+0	1.023659E+0	1.013191E+0	9.268924E-1	9.884789E-1	1.015522E+0	9.777232E-1	9.393602E-1	1.017354E+0	1.025694E+0	1.057590E+0	9.750030E-1	9.795642E-1	9.978311E-1	1.013757E+0	1.004579E+0	1.011488E+0	1.044698E+0	1.009101E+0	9.511179E-1	1.013307E+0	9.762038E-1	9.991453E-1	9.863038E-1	1.013167E+0	1.004018E+0	1.013798E+0	9.499590E-1	9.968267E-1	9.701377E-1	1.018876E+0	9.419039E-1	1.015205E+0	1.012304E+0	1.003326E+0	9.397160E-1	9.933824E-1	9.815027E-1	1.016114E+0	9.342748E-1	9.991898E-1	1.030642E+0	1.014410E+0	1.005715E+0	1.042573E+0	1.003223E+0	1.038171E+0	9.556965E-1	1.010041E+0	9.687663E-1	9.994584E-1	9.819773E-1	9.682515E-1	9.660977E-1	9.957994E-1	9.873028E-1	1.022462E+0	1.023742E+0	1.011116E+0	1.027113E+0	1.005853E+0	1.056908E+0	1.018742E+0	1.013508E+0	1.006872E+0	1.036757E+0	1.049911E+0	9.629263E-1	1.043202E+0	1.022686E+0	1.011090E+0	9.672985E-1	1.010390E+0	1.019345E+0	9.855901E-1	1.004156E+0	1.044611E+0	9.901183E-1	1.019100E+0	9.949562E-1	1.033527E+0	1.005502E+0	9.770846E-1	9.535961E-1	9.876249E-1	9.564601E-1
5.580000E+2	1.041085E+0	9.893278E-1	1.012829E+0	1.038034E+0	1.044546E+0	1.030122E+0	1.002334E+0	1.031475E+0	1.057004E+0	1.020165E+0	1.056352E+0	1.037271E+0	1.038991E+0	1.052365E+0	1.008750E+0	1.057113E+0	9.949397E-1	1.004029E+0	1.052783E+0	1.022265E+0	1.000000E+0	1.063096E+0	1.043426E+0	9.611670E-1	1.031224E+0	1.015519E+0	1.004571E+0	1.000712E+0	1.023367E+0	1.044200E+0	1.052473E+0	1.019643E+0	1.033957E+0	1.016528E+0	1.073427E+0	1.003845E+0	1.053433E+0	1.052969E+0	1.021731E+0	9.114233E-1	1.056252E+0	1.060543E+0	9.798110E-1	9.382209E-1	1.037164E+0	1.005044E+0	1.033960E+0	1.004774E+0	1.054472E+0	1.042826E+0	1.047992E+0	9.890587E-1	1.062799E+0	1.018889E+0	1.035201E+0	9.006587E-1	1.004395E+0	1.032801E+0	1.055299E+0	8.706007E-1	1.040977E+0	9.859076E-1	1.026226E+0	1.036627E+0	1.032368E+0	9.970401E-1	1.002813E+0	1.015287E+0	9.921206E-1	1.026052E+0	1.034367E+0	9.484796E-1	1.032323E+0	1.000247E+0	1.063565E+0	9.919742E-1	1.053270E+0	1.010468E+0	9.905441E-1	1.030825E+0	1.064907E+0	9.621223E-1	1.027061E+0	1.030716E+0	1.050445E+0	1.013294E+0	1.041345E+0	9.540540E-1	1.011020E+0	9.840753E-1	1.050918E+0	9.319180E-1	1.031168E+0	1.037514E+0	1.051616E+0	9.706016E-1	1.019839E+0	1.094235E+0	9.917998E-1	1.032675E+0	1.021667E+0	1.034766E+0	1.019280E+0	9.486603E-1	1.010900E+0	9.744489E-1	1.068388E+0	9.612551E-1	1.020167E+0	1.027964E+0	1.051274E+0	1.044620E+0	1.031731E+0	1.060781E+0	1.006742E+0	9.752112E-1	1.074591E+0	1.016918E+0	1.028853E+0	9.664654E-1	1.022529E+0	1.028902E+0	9.734593E-1	1.009734E+0	1.013770E+0	1.000750E+0	1.027653E+0	1.051017E+0	1.009282E+0	1.016517E+0	1.018434E+0	9.734310E-1	1.021653E+0	1.057178E+0	1.057449E+0	9.551089E-1	1.057907E+0	1.030632E+0	9.918880E-1	9.559591E-1	1.029236E+0	1.016128E+0	1.030904E+0	9.774418E-1	1.016522E+0	9.886188E-1	1.034518E+0	9.885368E-1	1.000904E+0	1.017124E+0	1.044873E+0	9.737951E-1	1.019698E+0	9.926602E-1	1.048147E+0	9.808224E-1	1.027439E+0	1.009564E+0	1.050435E+0	1.036503E+0	9.801564E-1	1.057143E+0	9.963846E-1	1.051189E+0	1.050493E+0	1.040264E+0	1.037744E+0	9.577478E-1	1.019645E+0	9.960854E-1
5.585100E+2	1.035638E+0	9.841013E-1	1.019352E+0	1.088744E+0	1.011621E+0	9.649034E-1	1.003800E+0	1.105598E+0	1.002336E+0	1.006291E+0	1.014419E+0	1.094380E+0	9.763977E-1	9.704037E-1	1.034692E+0	1.038482E+0	1.009489E+0	9.789297E-1	9.873005E-1	1.029551E+0	1.010381E+0	9.821636E-1	1.007778E+0	1.108540E+0	1.043866E+0	1.033124E+0	9.971428E-1	1.051360E+0	9.999011E-1	1.020774E+0	9.864378E-1	1.016035E+0	1.015349E+0	1.039787E+0	1.006252E+0	1.045233E+0	9.894028E-1	9.942362E-1	1.001864E+0	1.022437E+0	1.023610E+0	1.048756E+0	1.008531E+0	1.000929E+0	1.018322E+0	1.026070E+0	1.027239E+0	9.541697E-1	1.023290E+0	9.973816E-1	1.009610E+0	9.935057E-1	1.014539E+0	1.005778E+0	1.005632E+0	1.001278E+0	1.036812E+0	9.769965E-1	9.792704E-1	9.937901E-1	1.007225E+0	9.990277E-1	9.995484E-1	1.007063E+0	1.028586E+0	1.015322E+0	1.004580E+0	9.665728E-1	1.001745E+0	1.014990E+0	1.034829E+0	9.593781E-1	1.016333E+0	1.010824E+0	1.029068E+0	9.630808E-1	1.014269E+0	1.006352E+0	1.017865E+0	1.000660E+0	1.047432E+0	1.018434E+0	1.075540E+0	9.620411E-1	1.021455E+0	1.021304E+0	1.004744E+0	8.884912E-1	1.026477E+0	9.852844E-1	1.000000E+0	9.257166E-1	9.860101E-1	1.021910E+0	9.928636E-1	1.003369E+0	1.007086E+0	1.049286E+0	1.008878E+0	1.003330E+0	1.004523E+0	1.008578E+0	9.878145E-1	9.270316E-1	1.006085E+0	1.014823E+0	1.016308E+0	9.592773E-1	1.016668E+0	1.025148E+0	9.898648E-1	9.860667E-1	9.936542E-1	9.834487E-1	1.015987E+0	1.027373E+0	9.955821E-1	1.028451E+0	9.998048E-1	9.382027E-1	1.016827E+0	1.019075E+0	1.040640E+0	9.540988E-1	9.899563E-1	1.009910E+0	9.815300E-1	1.025534E+0	1.020589E+0	1.037669E+0	9.875965E-1	9.917781E-1	1.002468E+0	1.020000E+0	9.848390E-1	9.670505E-1	1.060487E+0	9.694937E-1	1.004274E+0	9.735899E-1	1.049556E+0	1.028025E+0	1.057839E+0	1.073407E+0	1.052528E+0	1.013279E+0	1.038765E+0	1.045707E+0	1.043225E+0	9.822762E-1	1.020148E+0	9.949884E-1	9.888084E-1	1.039501E+0	9.818041E-1	9.653666E-1	1.015039E+0	1.031573E+0	1.012969E+0	9.773688E-1	1.025812E+0	1.013319E+0	1.043042E+0	9.834388E-1	1.022015E+0	1.013598E+0	1.036588E+0	1.035795E+0	9.904095E-1	1.057728E+0
5.590100E+2	9.848031E-1	1.049440E+0	1.043488E+0	1.122551E+0	9.966104E-1	1.012113E+0	1.035556E+0	1.067099E+0	9.741012E-1	1.002405E+0	1.030852E+0	1.031861E+0	1.004983E+0	1.021411E+0	1.017088E+0	9.754246E-1	1.027201E+0	1.021876E+0	9.974202E-1	1.016800E+0	1.057569E+0	1.028665E+0	1.029080E+0	1.036906E+0	9.720325E-1	1.024908E+0	1.018857E+0	1.032730E+0	9.999015E-1	9.847332E-1	1.005110E+0	1.016487E+0	9.854646E-1	9.975961E-1	1.000510E+0	1.022376E+0	9.688050E-1	9.565104E-1	9.850877E-1	1.078901E+0	1.006365E+0	1.011787E+0	1.013807E+0	1.052887E+0	9.749790E-1	1.005522E+0	9.532909E-1	1.069700E+0	9.834465E-1	9.861609E-1	9.971773E-1	1.038612E+0	9.853054E-1	9.699439E-1	9.971848E-1	1.082731E+0	1.014768E+0	1.043961E+0	9.776530E-1	1.086752E+0	9.923339E-1	1.007776E+0	1.014018E+0	1.039091E+0	1.058852E+0	1.012711E+0	1.006935E+0	1.025162E+0	9.900940E-1	9.822211E-1	9.983049E-1	1.062915E+0	9.861953E-1	1.044223E+0	9.830708E-1	1.077997E+0	1.018550E+0	1.039736E+0	9.986061E-1	9.814638E-1	1.072396E+0	9.718106E-1	1.008016E+0	1.032463E+0	9.983623E-1	1.023188E+0	9.962979E-1	1.002758E+0	1.012952E+0	9.858894E-1	9.942716E-1	9.976571E-1	9.753850E-1	9.949557E-1	1.001328E+0	9.808717E-1	1.001044E+0	1.023855E+0	1.025345E+0	1.012696E+0	9.691667E-1	9.769741E-1	1.022057E+0	9.167096E-1	1.006086E+0	9.691825E-1	1.005063E+0	8.821548E-1	1.000667E+0	1.032661E+0	1.020570E+0	1.017783E+0	1.046327E+0	1.010706E+0	1.022920E+0	9.551010E-1	9.929999E-1	1.009995E+0	1.027092E+0	9.104436E-1	1.016826E+0	1.029480E+0	1.003318E+0	9.604931E-1	1.036124E+0	1.002196E+0	9.897499E-1	9.712674E-1	9.929512E-1	9.675689E-1	9.610755E-1	1.014406E+0	1.022663E+0	1.046296E+0	1.002383E+0	9.376950E-1	9.811520E-1	1.036859E+0	1.009488E+0	9.801196E-1	1.001100E+0	1.007562E+0	9.841814E-1	9.716550E-1	1.013187E+0	9.993675E-1	9.689881E-1	9.372804E-1	1.001989E+0	9.444825E-1	1.001832E+0	9.243433E-1	9.646322E-1	1.023287E+0	9.883779E-1	1.016887E+0	9.933412E-1	9.968481E-1	1.001921E+0	9.894987E-1	9.882138E-1	1.064233E+0	1.038745E+0	1.020024E+0	9.929312E-1	9.797886E-1	1.033121E+0	1.000092E+0	1.039135E+0	1.024706E+0
5.595110E+2	1.001144E+0	1.014157E+0	1.053925E+0	1.092970E+0	1.000968E+0	1.019900E+0	1.046304E+0	1.076293E+0	9.903212E-1	1.015170E+0	1.048985E+0	1.061919E+0	1.038990E+0	1.022718E+0	1.029133E+0	1.049947E+0	1.020242E+0	1.035819E+0	1.012898E+0	1.041089E+0	1.017458E+0	1.030902E+0	1.025167E+0	1.072952E+0	9.915719E-1	1.021387E+0	1.046286E+0	1.076392E+0	1.015395E+0	1.025728E+0	1.011485E+0	1.053917E+0	1.040723E+0	1.031132E+0	9.941950E-1	1.029789E+0	1.036420E+0	1.002809E+0	1.024380E+0	1.088949E+0	1.025458E+0	1.041791E+0	9.844999E-1	1.080359E+0	1.018321E+0	1.003133E+0	1.037547E+0	1.056333E+0	1.014628E+0	1.019823E+0	1.019882E+0	1.054495E+0	1.022428E+0	1.011459E+0	1.019149E+0	1.100460E+0	1.055614E+0	1.023872E+0	9.992210E-1	1.061658E+0	1.018641E+0	1.029643E+0	1.047930E+0	1.028743E+0	1.034890E+0	1.092107E+0	1.012824E+0	1.062027E+0	1.044295E+0	1.023077E+0	1.011250E+0	1.064897E+0	1.008953E+0	1.015833E+0	1.011819E+0	1.084563E+0	1.007133E+0	9.999480E-1	1.035333E+0	1.015743E+0	9.819010E-1	1.072929E+0	1.013210E+0	1.038865E+0	1.001310E+0	1.013765E+0	1.009437E+0	1.139504E+0	1.037426E+0	1.022778E+0	9.821793E-1	1.089443E+0	1.049230E+0	9.788780E-1	9.918677E-1	1.095804E+0	1.035950E+0	1.032135E+0	1.052792E+0	1.036421E+0	1.031845E+0	1.057791E+0	1.011414E+0	1.083836E+0	9.994653E-1	1.068658E+0	1.012757E+0	1.079907E+0	1.033168E+0	1.024677E+0	1.039083E+0	1.050475E+0	1.006981E+0	1.018312E+0	1.051234E+0	1.022973E+0	1.008492E+0	1.028452E+0	1.007726E+0	1.005832E+0	1.043438E+0	9.994219E-1	1.051837E+0	1.003979E+0	1.030292E+0	1.016660E+0	1.032221E+0	1.034028E+0	1.018077E+0	1.014100E+0	1.022135E+0	1.014406E+0	1.020643E+0	9.918899E-1	1.035033E+0	9.312264E-1	1.023722E+0	1.046483E+0	1.008184E+0	1.003628E+0	1.017252E+0	1.022790E+0	1.013315E+0	1.014574E+0	1.014522E+0	9.886181E-1	9.920443E-1	9.944510E-1	1.036172E+0	9.911108E-1	1.024268E+0	9.417327E-1	1.027757E+0	9.872557E-1	1.037389E+0	1.032988E+0	1.021756E+0	1.014944E+0	1.007205E+0	1.036502E+0	1.021112E+0	9.991406E-1	1.039972E+0	9.895366E-1	9.880833E-1	9.974075E-1	1.019834E+0	1.001753E+0	9.723112E-1	1.040115E+0
5.600070E+2	9.460714E-1	9.560054E-1	9.404206E-1	1.135229E+0	9.632014E-1	1.008220E+0	9.730211E-1	1.001596E+0	9.722988E-1	9.735446E-1	9.452852E-1	9.849711E-1	9.699906E-1	9.843543E-1	9.934630E-1	9.696922E-1	9.380066E-1	9.744676E-1	1.020042E+0	1.012549E+0	9.518694E-1	9.602558E-1	9.486516E-1	1.001317E+0	9.915720E-1	1.007890E+0	9.765715E-1	9.535567E-1	9.494321E-1	9.608566E-1	9.955475E-1	9.727406E-1	9.724962E-1	9.564872E-1	9.804150E-1	9.976665E-1	9.553719E-1	1.006668E+0	9.519747E-1	1.029614E+0	9.804959E-1	9.635669E-1	9.774663E-1	1.060054E+0	9.575480E-1	9.830627E-1	9.949704E-1	9.999998E-1	9.915309E-1	9.289354E-1	9.755532E-1	9.630113E-1	9.449347E-1	9.821800E-1	9.684603E-1	1.047275E+0	9.518780E-1	9.669517E-1	9.668684E-1	1.042837E+0	9.496478E-1	9.911560E-1	9.642784E-1	9.952369E-1	9.730966E-1	1.004353E+0	9.822030E-1	9.757894E-1	9.713515E-1	9.737102E-1	9.895206E-1	1.052512E+0	9.658991E-1	9.551592E-1	9.548972E-1	1.018898E+0	9.514866E-1	9.834856E-1	9.914406E-1	9.517556E-1	9.893900E-1	9.742325E-1	9.595366E-1	9.713526E-1	9.688813E-1	9.496977E-1	1.014130E+0	1.033197E+0	9.582089E-1	1.014312E+0	1.025459E+0	1.047892E+0	9.695406E-1	9.646916E-1	9.644828E-1	1.013640E+0	9.782216E-1	9.203538E-1	9.655734E-1	9.995839E-1	9.670241E-1	9.647842E-1	9.878146E-1	1.120703E+0	9.862244E-1	9.861515E-1	9.825740E-1	1.084521E+0	9.911663E-1	9.777221E-1	9.343263E-1	9.899698E-1	9.999997E-1	9.650667E-1	9.657155E-1	1.053767E+0	9.537536E-1	9.380214E-1	9.610723E-1	1.117372E+0	9.553643E-1	9.849713E-1	9.734597E-1	1.057696E+0	1.009395E+0	9.886971E-1	9.591550E-1	9.769301E-1	9.552624E-1	9.856986E-1	9.999314E-1	9.673161E-1	9.716713E-1	9.778341E-1	9.560869E-1	1.058601E+0	9.618011E-1	1.007988E+0	9.723324E-1	9.925271E-1	9.531655E-1	9.594958E-1	9.880290E-1	9.851580E-1	9.798480E-1	9.867208E-1	9.908310E-1	1.012194E+0	9.672650E-1	1.029885E+0	9.162055E-1	9.830330E-1	9.619465E-1	9.692400E-1	9.357815E-1	9.273688E-1	9.447786E-1	1.007119E+0	9.375559E-1	9.647325E-1	9.707566E-1	9.701391E-1	9.914736E-1	9.360141E-1	9.802068E-1	9.659791E-1	9.869055E-1	9.012877E-1	9.890170E-1	1.037914E+0
5.605040E+2	1.010221E+0	9.769140E-1	1.005002E+0	8.985783E-1	1.047451E+0	1.010653E+0	1.013082E+0	1.070547E+0	9.356531E-1	1.008510E+0	9.883516E-1	1.021040E+0	9.675260E-1	9.826088E-1	9.888310E-1	9.988321E-1	9.930413E-1	1.009048E+0	9.640839E-1	9.827952E-1	1.008022E+0	9.803763E-1	1.012559E+0	1.003599E+0	9.806528E-1	1.006716E+0	1.024572E+0	1.028655E+0	1.007871E+0	9.892381E-1	9.969131E-1	1.016936E+0	9.634746E-1	9.678460E-1	1.015438E+0	9.834575E-1	9.970152E-1	9.985242E-1	1.011136E+0	1.055453E+0	9.989736E-1	9.796401E-1	9.932920E-1	9.985402E-1	9.928810E-1	9.725498E-1	9.877999E-1	1.017187E+0	1.003657E+0	1.030483E+0	9.620385E-1	1.048142E+0	9.922665E-1	9.983489E-1	1.002675E+0	1.089917E+0	1.021900E+0	9.714159E-1	9.965251E-1	1.090745E+0	9.526256E-1	9.964039E-1	9.484524E-1	1.022338E+0	9.743578E-1	9.625653E-1	9.986914E-1	1.002121E+0	9.774298E-1	1.004776E+0	9.553078E-1	1.086196E+0	1.014488E+0	1.021956E+0	9.945696E-1	9.827808E-1	9.714626E-1	9.994922E-1	9.815871E-1	9.650102E-1	1.001249E+0	9.839209E-1	9.376056E-1	1.018495E+0	9.905006E-1	1.001990E+0	9.409284E-1	1.062701E+0	1.040646E+0	1.007055E+0	1.024823E+0	1.072078E+0	9.817600E-1	9.831339E-1	9.968466E-1	9.715796E-1	1.006414E+0	9.901430E-1	1.027785E+0	9.989590E-1	1.030774E+0	1.008579E+0	1.004472E+0	1.103008E+0	1.016317E+0	1.017164E+0	9.843495E-1	1.078588E+0	9.811658E-1	9.749046E-1	1.001605E+0	9.968010E-1	9.866728E-1	1.012607E+0	9.570485E-1	1.053138E+0	9.837049E-1	9.841594E-1	1.016530E+0	1.111818E+0	9.997186E-1	1.024278E+0	9.665280E-1	1.074963E+0	9.627423E-1	9.896609E-1	9.719412E-1	9.618292E-1	9.860417E-1	9.748201E-1	1.006716E+0	1.062718E+0	1.011051E+0	9.950629E-1	1.016515E+0	1.115820E+0	9.837316E-1	9.468504E-1	9.762438E-1	1.089170E+0	9.818220E-1	1.003278E+0	9.726382E-1	9.991431E-1	9.798480E-1	1.019602E+0	1.008427E+0	1.066735E+0	9.895101E-1	1.045592E+0	9.862634E-1	1.154754E+0	1.009625E+0	1.016681E+0	1.006309E+0	1.064545E+0	9.737096E-1	9.650586E-1	1.013449E+0	1.042568E+0	1.021783E+0	9.566056E-1	9.448164E-1	1.024766E+0	9.729352E-1	1.022169E+0	9.973040E-1	1.073987E+0	9.820572E-1	9.212348E-1
5.610530E+2	1.008405E+0	9.854074E-1	9.593384E-1	1.097195E+0	9.549695E-1	9.770711E-1	9.774180E-1	1.021132E+0	1.030571E+0	9.691048E-1	9.554853E-1	1.010821E+0	9.818187E-1	9.385765E-1	9.619624E-1	9.486733E-1	9.860832E-1	1.028569E+0	9.950389E-1	9.864385E-1	9.580034E-1	9.790347E-1	9.230023E-1	1.051964E+0	9.743311E-1	9.468583E-1	9.679999E-1	9.983828E-1	9.879496E-1	9.694159E-1	9.882617E-1	9.826623E-1	9.741877E-1	9.905638E-1	9.775446E-1	9.982841E-1	9.723869E-1	9.976663E-1	9.824386E-1	1.039663E+0	9.472379E-1	9.132033E-1	1.002084E+0	1.037957E+0	9.909963E-1	9.811507E-1	9.801819E-1	9.880649E-1	9.655458E-1	1.004114E+0	9.663631E-1	1.002400E+0	9.904101E-1	9.725667E-1	9.828230E-1	1.044400E+0	9.453945E-1	9.680671E-1	1.004074E+0	1.067931E+0	1.017152E+0	9.474204E-1	1.004520E+0	9.804544E-1	9.321101E-1	9.923391E-1	9.792586E-1	1.026478E+0	9.916139E-1	9.741360E-1	9.858219E-1	1.061429E+0	9.745103E-1	9.262138E-1	9.692712E-1	9.847511E-1	9.514864E-1	9.629060E-1	1.008013E+0	1.037225E+0	9.176181E-1	1.050526E+0	9.912784E-1	9.905587E-1	9.973798E-1	9.675989E-1	9.934826E-1	1.080965E+0	9.466167E-1	1.024592E+0	9.605386E-1	1.070218E+0	1.005667E+0	1.014817E+0	9.455629E-1	1.017552E+0	9.802347E-1	9.363220E-1	9.497156E-1	9.689900E-1	1.000238E+0	9.503348E-1	1.006325E+0	1.053361E+0	9.874277E-1	1.003121E+0	9.707382E-1	1.074633E+0	9.591648E-1	9.410968E-1	9.627736E-1	1.009976E+0	9.930193E-1	1.000563E+0	9.743832E-1	1.008519E+0	9.764751E-1	1.009074E+0	9.557901E-1	1.087594E+0	9.870458E-1	1.006359E+0	9.723930E-1	1.085834E+0	9.909288E-1	9.819472E-1	9.897512E-1	1.010434E+0	9.722223E-1	1.019539E+0	9.783450E-1	1.066387E+0	9.777294E-1	9.664993E-1	9.721685E-1	1.119801E+0	1.019207E+0	9.683611E-1	9.860211E-1	1.063050E+0	9.755693E-1	9.823390E-1	9.440547E-1	9.928733E-1	9.838490E-1	9.867214E-1	9.635267E-1	9.826224E-1	9.542427E-1	9.641154E-1	9.592471E-1	1.181927E+0	1.031785E+0	1.002268E+0	9.829990E-1	1.101254E+0	1.028988E+0	9.464733E-1	9.908738E-1	9.702924E-1	9.532995E-1	9.946297E-1	9.552528E-1	1.015958E+0	9.656651E-1	9.802645E-1	9.447328E-1	1.112181E+0	9.973709E-1	9.916851E-1
