Photon Energy (eV)	#1	#2	#3	#4	#5	#6	#7	#8	#9	#10	#11	#12	#13	#14	#15	#16	#17	#18	#19	#20	#21	#22	#23	#24	#25	#26	#27	#28	#29	#30	#31	#32	#33	#34	#35	#36	#37	#38	#39	#40	#41	#42	#43	#44	#45	#46	#47	#48	#49	#50	#51	#52	#53	#54	#55	#56	#57	#58	#59	#60	#61	#62	#63	#64	#65	#66	#67	#68	#69	#70	#71	#72	#73	#74	#75	#76	#77	#78	#79	#80	#81	#82	#83	#84	#85	#86	#87	#88	#89	#90	#91	#92	#93	#94	#95	#96	#97	#98	#99	#100	#101	#102	#103	#104	#105	#106	#107	#108	#109	#110	#111	#112	#113	#114	#115	#116	#117	#118	#119	#120	#121	#122	#123	#124	#125	#126	#127	#128	#129	#130	#131	#132	#133	#134	#135	#136	#137	#138	#139	#140	#141	#142	#143	#144	#145	#146	#147	#148	#149	#150	#151	#152	#153	#154	#155	#156	#157	#158	#159	#160	#161	#162	#163	#164	#165	#166	#167	#168	#169	#170	
5.300220E+2	-4.660159E-3	-5.603336E-3	-6.076792E-3	-2.816230E-4	-9.317176E-3	-4.894402E-3	3.017418E-3	-1.467061E-3	-1.011468E-2	-5.842842E-3	-3.163653E-4	-7.627035E-3	-6.336303E-4	-1.204372E-3	3.618453E-3	-4.977982E-3	-7.928214E-3	-4.645737E-3	-1.062015E-2	-2.369646E-3	-8.264227E-3	-7.939689E-3	-1.074167E-3	-1.393532E-3	-1.021300E-2	3.322027E-3	-4.150981E-3	-8.374060E-3	-1.055595E-2	-1.142446E-2	-3.750662E-3	-2.202446E-3	-1.154758E-2	-3.651815E-3	-1.108366E-2	4.640331E-4	-3.942995E-3	-1.312805E-2	-5.108696E-3	-2.900706E-3	-6.131392E-4	-4.687446E-3	4.925876E-3	-6.405193E-3	-1.217146E-2	-8.918449E-3	3.079300E-4	-4.060039E-3	-2.731134E-3	-1.244530E-2	-3.782758E-3	-4.453482E-3	-6.230145E-3	-3.407868E-3	-3.065848E-3	-8.120173E-3	8.808500E-4	-1.263681E-2	-8.268523E-3	-1.097380E-2	-1.853545E-3	-2.956422E-3	-8.129218E-3	-1.050051E-2	-1.134991E-2	-6.701018E-3	3.817444E-3	-1.107869E-2	-1.318715E-2	-6.517570E-3	6.746933E-3	-6.807378E-3	-5.678131E-3	-8.596438E-3	-2.079340E-3	-4.688893E-3	-7.438594E-3	-6.388404E-3	-5.297292E-3	-5.341537E-3	-5.959841E-3	-3.150264E-3	9.494614E-4	-6.305622E-5	-4.462136E-3	-2.995782E-4	-5.909112E-3	-7.627132E-3	-1.272230E-2	-2.680897E-3	-1.918668E-3	-5.344591E-3	-1.844107E-3	-8.791184E-4	-3.717332E-3	-1.388183E-2	-3.679005E-3	-9.283188E-3	-5.303274E-3	-1.041030E-2	-5.083081E-3	-1.066508E-2	1.206719E-3	-1.127375E-2	-1.182548E-2	-5.501019E-3	1.488368E-3	-8.815886E-3	-2.475583E-3	3.704264E-3	8.898438E-4	-8.448775E-3	-6.969916E-3	-8.777480E-3	-1.167965E-2	-6.037697E-3	-5.553200E-3	4.315587E-3	-4.263472E-3	-4.937465E-3	-4.685902E-3	1.237672E-3	-2.440941E-3	-9.996348E-3	-3.786793E-3	-6.142148E-3	-6.042222E-3	-9.178935E-3	-7.586392E-3	-6.835220E-3	-2.173456E-3	6.080117E-3	-4.686952E-3	-7.295151E-3	-2.862615E-3	-5.907059E-3	-8.234353E-3	-8.861318E-3	-1.400939E-2	-7.424977E-3	-9.476537E-3	-1.182824E-2	-1.248307E-2	-7.173619E-3	-1.718758E-2	-6.440726E-3	-4.102911E-3	-7.512344E-4	-9.060353E-3	-4.012651E-3	-2.774667E-3	-2.218445E-3	1.357541E-3	-3.779868E-3	-4.580183E-3	-4.032248E-3	-5.575788E-3	-1.336384E-2	-9.374710E-3	-4.231669E-3	2.631817E-3	-4.403181E-3	-2.553014E-3	-9.193602E-3	-1.469784E-3	-8.623527E-3	-7.888078E-3	-2.926079E-3	-1.285043E-2	-1.062209E-3
5.305180E+2	-8.156405E-3	-1.228461E-2	5.655200E-3	-3.051550E-3	6.779586E-4	1.605223E-3	-2.811304E-3	-5.261206E-3	-1.056872E-2	-1.635483E-3	-7.271468E-3	-3.766551E-3	-4.087816E-3	-1.082477E-3	-9.078693E-3	-3.985615E-3	-8.927721E-3	-1.207284E-3	-8.728854E-3	-9.415976E-3	-8.163538E-3	-9.622865E-3	-2.968639E-3	-7.193085E-3	-8.049159E-3	-8.171045E-4	-8.887048E-3	-1.466174E-2	5.612527E-3	-5.499481E-3	-1.022846E-2	-1.267589E-2	-3.845058E-3	-9.050773E-3	-2.591649E-3	-9.946809E-3	-6.770292E-3	1.799089E-3	-3.516566E-3	-5.288220E-3	-4.920493E-3	-1.088060E-2	-1.450666E-2	-9.563295E-3	-1.152594E-5	7.027266E-3	-7.212712E-3	-8.020352E-4	-2.088285E-3	-2.308022E-3	-9.946644E-3	-7.983608E-3	-1.011918E-2	-4.211517E-3	-3.878058E-3	-6.873919E-3	-5.721210E-3	-6.351688E-3	-4.139857E-3	-4.933674E-3	-9.146009E-3	-8.187502E-3	-1.092377E-2	-4.949756E-3	-2.609814E-3	1.937114E-4	-6.811933E-3	-7.439558E-3	-7.632994E-3	-7.351628E-3	-3.154780E-4	-4.020143E-3	-4.525378E-3	-5.696538E-3	2.999292E-3	-8.570330E-3	-1.371092E-2	-6.754652E-3	-4.468795E-3	5.759356E-3	4.881993E-4	1.212297E-3	-3.706960E-3	-9.521335E-4	-3.340374E-3	-7.479859E-3	-9.513466E-3	-3.451443E-3	-5.829175E-3	-4.026652E-3	-9.523127E-3	-6.882504E-3	2.092100E-3	-4.761149E-3	-6.807337E-3	-4.837842E-3	-5.875224E-4	-6.931299E-3	1.435298E-3	6.568615E-4	-8.548161E-3	-1.286460E-5	-1.292836E-2	-7.904079E-3	-5.465244E-3	-9.147179E-3	-1.376202E-2	-3.804591E-3	-8.700878E-3	-5.907590E-3	-7.624922E-3	-3.229342E-3	-1.273197E-2	-6.049648E-4	-1.217862E-2	-6.134878E-4	-2.011634E-3	-9.957327E-3	-6.559111E-3	-4.813832E-3	-5.570733E-3	-3.908409E-3	-9.276862E-3	-6.288599E-3	-1.018654E-2	-1.424094E-3	-7.245639E-4	-2.417627E-3	-9.789631E-3	-3.245568E-4	-9.125744E-4	3.397516E-3	-1.236618E-2	-5.703334E-3	-5.653705E-3	-8.975783E-3	-1.835932E-3	-3.756522E-3	2.104957E-3	1.271146E-4	-3.513038E-3	-2.571462E-3	-8.574590E-3	-3.769910E-3	-2.084709E-3	-1.670600E-2	-1.239148E-2	-4.688177E-3	-4.155411E-3	-1.325900E-2	2.829168E-3	-9.443663E-3	4.202292E-4	-1.024163E-2	-4.990629E-3	-8.058525E-3	-1.442807E-2	-7.367002E-3	-5.547603E-3	-2.132801E-3	-5.212377E-3	-6.944717E-3	-4.130262E-3	-8.422834E-4	-8.513195E-4	1.424749E-3	4.832717E-3	-6.733715E-3	-7.062105E-3	-1.226516E-2
5.310250E+2	2.784323E-3	-1.660575E-4	-7.113716E-3	3.992794E-3	-3.386237E-3	-1.057693E-2	-8.135850E-3	-7.120889E-3	3.875264E-3	-2.044382E-3	-1.154036E-2	-1.515488E-3	-3.478569E-3	-7.345387E-3	-1.195066E-2	-8.097778E-4	-1.648924E-3	-1.090969E-3	-1.482037E-3	-3.261430E-3	-4.302193E-3	-1.834584E-3	-4.376349E-3	-2.639219E-3	-6.987809E-4	-6.417174E-3	-6.349569E-3	2.495200E-3	-1.539058E-3	1.505160E-3	-2.530708E-3	-6.613743E-4	-5.258067E-3	-3.432383E-3	-5.839011E-4	1.895355E-3	-1.238639E-3	-6.905611E-3	-6.493502E-3	-3.396356E-3	-4.306161E-3	3.545455E-3	-3.530979E-3	-1.650911E-3	5.046847E-3	1.677256E-3	-1.949875E-3	-2.443251E-3	-1.022700E-2	-3.262264E-3	3.529239E-3	1.178197E-3	-1.942580E-3	-9.378011E-3	-7.199022E-3	4.240964E-4	-1.973872E-3	-5.963371E-4	-5.961550E-3	-5.409529E-3	-1.276747E-2	-7.292527E-4	-4.110459E-3	-1.218146E-3	-7.304302E-3	-1.388804E-3	-3.290085E-3	6.434609E-3	-5.920619E-4	-3.781721E-3	1.866501E-3	-4.285640E-3	4.625963E-3	-1.722277E-3	-8.037060E-3	-7.787578E-3	1.204034E-2	-5.102344E-3	-9.789704E-3	-6.029076E-3	-6.322188E-3	-3.417071E-3	-2.551023E-3	3.493647E-4	-4.187918E-3	-9.619952E-4	9.017827E-6	-9.466265E-3	-2.258755E-3	8.301206E-3	-5.859297E-3	-4.218494E-3	8.145404E-4	-1.570833E-3	8.015604E-3	1.975196E-3	7.342990E-4	-5.683951E-3	-2.602952E-3	-1.744260E-4	2.931183E-3	1.601430E-3	-3.627879E-3	6.917439E-5	-1.650382E-3	-1.417383E-3	2.390927E-3	-5.918250E-3	-5.090136E-5	-4.202542E-3	-1.544471E-3	-5.537202E-3	-5.610605E-3	-1.935274E-3	1.720996E-3	-4.024553E-3	-9.655270E-3	-6.321344E-3	-3.383552E-3	-1.572605E-3	4.218674E-3	-6.702170E-3	-1.374226E-3	-4.414403E-3	-4.560694E-3	-4.384423E-3	4.446769E-3	3.349265E-3	-8.527902E-3	-8.953737E-3	-1.931422E-3	-4.407937E-3	-1.013367E-3	8.659009E-3	3.198258E-3	1.567738E-4	2.277902E-3	-3.099791E-3	2.219064E-3	-8.920379E-3	-1.265038E-3	-4.615739E-3	1.320557E-3	3.879242E-3	-5.999352E-3	-7.312553E-6	-1.170227E-2	-1.440466E-2	-3.074296E-3	-8.993936E-3	-4.383056E-3	-4.605894E-3	-9.716831E-3	-2.155300E-4	-1.027164E-2	-2.499894E-4	-3.737156E-3	1.152710E-2	2.548226E-3	1.934094E-3	5.968082E-4	2.224776E-3	-4.588516E-3	-6.047822E-3	4.952097E-3	2.980297E-3	9.414281E-3	2.044280E-3	-5.823489E-3	4.944255E-3
5.315180E+2	2.906267E-3	5.188086E-3	2.189247E-3	1.785514E-3	-2.233976E-3	1.355641E-3	-1.021237E-2	-2.591332E-3	2.890554E-3	4.247256E-3	-1.609899E-3	7.757048E-3	1.239913E-3	-1.843131E-3	3.010745E-3	1.062953E-3	1.177915E-4	-1.530005E-3	4.602215E-3	5.228486E-3	1.193992E-3	3.732778E-3	3.031764E-4	-5.372052E-4	-5.827565E-4	-6.791461E-3	6.015591E-4	7.964834E-3	3.774054E-3	-1.573378E-3	3.163150E-3	-1.810705E-3	-5.812642E-5	-2.320248E-3	-7.565365E-3	-1.182867E-3	-1.052523E-2	-2.611989E-3	6.070220E-3	2.970742E-3	5.298461E-3	4.906190E-4	-1.235818E-3	6.894222E-4	-6.934523E-3	-3.698158E-3	7.501472E-4	-5.374839E-4	4.871940E-3	5.868934E-3	-8.020796E-3	-2.982318E-3	7.158392E-4	5.188818E-3	-2.167788E-3	1.989603E-3	-3.956302E-3	1.188175E-2	8.730785E-3	4.035481E-3	5.465840E-3	3.327227E-3	3.254613E-3	5.253566E-3	6.302785E-3	-7.099089E-4	-3.732204E-3	8.368361E-4	2.513634E-3	3.756712E-3	-6.529720E-3	-2.225615E-3	7.261108E-4	-6.037317E-3	-8.118461E-4	-1.619092E-3	-4.421722E-3	1.156009E-3	3.233285E-3	-3.921911E-3	-7.961042E-3	-3.298913E-3	7.179305E-3	-1.136029E-3	-5.064260E-3	1.623901E-3	-2.098439E-3	2.176523E-3	2.731677E-3	6.430395E-3	-2.320584E-4	6.322573E-3	-1.100174E-2	-2.461111E-3	-4.791869E-3	3.533677E-3	-1.522063E-3	-1.645931E-3	2.759507E-3	-5.100883E-4	-3.641729E-3	-7.402516E-3	-4.249399E-3	-1.834903E-3	6.879866E-3	-2.908664E-3	5.425062E-3	1.170736E-2	2.217668E-3	-3.005852E-3	-2.531163E-3	-2.311071E-3	9.532890E-4	-3.798174E-3	9.793137E-4	-1.463994E-4	2.818000E-3	-1.630421E-3	1.920274E-3	-5.334158E-5	3.603543E-4	-4.610992E-3	7.785268E-3	7.536688E-3	3.145148E-3	-6.316576E-4	-6.782707E-3	-6.691412E-3	2.641372E-3	-2.398347E-3	-7.539357E-3	-1.161872E-2	-8.699525E-4	1.936183E-3	6.323741E-4	-2.225525E-3	-2.755752E-3	3.743073E-3	-5.272157E-3	1.646843E-3	-4.339326E-3	1.467555E-3	7.991437E-4	7.507310E-4	-1.816896E-3	1.002766E-2	1.310770E-2	4.265102E-3	3.308767E-3	2.627769E-3	-3.055345E-3	-4.489154E-3	-2.585095E-3	-3.401990E-3	3.867576E-3	1.050480E-3	-3.085910E-3	-2.852294E-3	-1.595887E-3	-8.787214E-3	-4.304903E-4	2.120464E-4	6.741320E-4	-6.096856E-4	-8.167005E-3	-5.904899E-3	-1.278897E-2	-3.360826E-3	3.426642E-3	-1.394306E-2
5.320020E+2	1.675301E-3	8.468738E-3	-7.795877E-4	-2.747297E-3	3.648188E-3	3.955125E-3	3.533604E-3	-6.870097E-6	1.188870E-2	-1.819657E-3	7.277403E-3	-1.835296E-3	4.443820E-3	2.214184E-3	1.651659E-3	6.031217E-3	8.564956E-3	-4.191106E-3	-5.431363E-3	1.469364E-3	1.159099E-2	2.519692E-3	2.972306E-3	1.577256E-3	4.223136E-3	3.843251E-3	2.203768E-3	1.185473E-2	-2.366557E-3	1.398057E-4	2.218013E-4	7.307197E-3	7.720908E-3	6.374843E-3	8.216365E-3	1.984177E-5	8.924165E-3	8.711128E-3	6.231068E-3	4.271494E-4	-1.557673E-3	2.222976E-3	-1.661900E-3	-4.815933E-3	6.963708E-3	5.199694E-3	3.465152E-3	-3.071504E-3	1.901414E-3	-4.115576E-3	1.432383E-3	-1.920972E-4	1.302325E-2	1.957747E-3	1.409385E-3	4.046243E-3	2.436423E-3	7.395729E-3	2.063579E-3	-8.117982E-3	1.362555E-2	2.477439E-3	3.901262E-3	3.585962E-3	7.410947E-3	1.678307E-3	2.452952E-3	3.254538E-3	8.620483E-3	5.879803E-3	2.383439E-4	7.618693E-3	-1.613319E-4	7.351450E-3	4.919881E-3	1.247763E-2	3.740774E-3	9.500524E-3	1.033736E-2	3.699529E-3	8.362286E-3	4.260275E-3	2.493334E-3	4.320999E-3	5.074061E-4	1.267189E-3	3.466809E-3	-2.064750E-4	9.694960E-3	-5.597709E-3	5.925645E-3	-2.850942E-3	-1.328986E-3	2.737216E-3	-3.170953E-3	-2.948755E-3	-3.794547E-3	9.729776E-3	-4.829627E-3	-3.710019E-3	7.877781E-3	8.165758E-3	1.093786E-2	7.094275E-3	1.756226E-3	3.168736E-3	-6.324023E-3	6.823135E-3	-1.955681E-3	1.262225E-3	7.526072E-3	7.577950E-3	9.142820E-3	1.368940E-3	7.579365E-3	5.991384E-4	4.398537E-3	6.517012E-3	2.583768E-3	8.495614E-3	-1.563754E-3	-1.096174E-3	4.879911E-3	-1.066172E-2	7.630908E-4	9.818477E-3	2.238407E-3	3.760826E-3	7.449748E-3	4.767265E-3	6.974291E-3	-5.302725E-4	1.602809E-2	-2.343120E-3	-2.508923E-3	7.315179E-3	-4.336424E-3	8.425714E-3	1.786661E-3	-3.818967E-3	-2.590609E-3	9.232515E-3	7.037261E-3	1.890522E-3	1.344322E-2	4.444650E-3	5.207722E-3	5.662109E-3	1.559217E-3	1.382930E-2	5.165912E-3	8.656275E-3	3.005464E-3	4.001219E-3	5.914901E-4	-2.839322E-3	1.317268E-3	2.159418E-3	-4.550446E-3	-2.171213E-3	-5.469544E-3	4.111065E-3	-1.823793E-3	1.953984E-3	-3.276119E-3	-1.476233E-3	5.357022E-3	7.639412E-5	7.026534E-3	9.114425E-3
5.325170E+2	5.450673E-3	4.397176E-3	6.125648E-3	3.021625E-4	1.061124E-2	8.555344E-3	1.460850E-2	1.644736E-2	2.028871E-3	7.095108E-3	1.346069E-2	6.987322E-3	2.516282E-3	9.261183E-3	1.274850E-2	2.679205E-3	9.822112E-3	1.266510E-2	2.166019E-2	8.349202E-3	7.944978E-3	1.314467E-2	5.143673E-3	1.018579E-2	1.532056E-2	6.860461E-3	1.658227E-2	7.210335E-4	5.074988E-3	1.685235E-2	1.312488E-2	1.004322E-2	1.298793E-2	1.208038E-2	1.360821E-2	8.750446E-3	1.355299E-2	1.213543E-2	2.817476E-3	8.187390E-3	6.099006E-3	9.309000E-3	1.600948E-2	2.174591E-2	7.106956E-3	-1.287610E-3	4.639358E-3	1.091431E-2	8.273066E-3	1.626222E-2	1.678858E-2	1.443331E-2	4.552817E-3	9.850832E-3	1.490133E-2	8.534149E-3	8.334111E-3	3.073529E-4	7.575567E-3	2.539950E-2	4.675638E-3	6.068511E-3	1.600757E-2	7.828886E-3	7.550297E-3	6.927713E-3	7.563827E-3	7.992262E-3	1.027808E-2	8.014404E-3	-2.006579E-3	9.720083E-3	5.012766E-3	1.470112E-2	3.009073E-3	1.018826E-2	9.790122E-3	7.588866E-3	5.985146E-3	5.833638E-3	1.139259E-2	4.393677E-3	-4.364118E-3	-2.519145E-3	1.654728E-2	5.850342E-3	1.404519E-2	1.857479E-2	8.383588E-3	-2.426343E-3	1.160751E-2	1.297396E-2	1.126820E-2	6.934995E-3	1.047189E-2	1.615956E-2	8.848839E-3	1.381459E-2	8.541047E-3	1.414797E-2	6.464007E-3	8.313277E-3	8.661057E-3	1.384928E-2	1.030501E-2	1.580551E-2	1.078169E-2	8.229477E-6	1.096537E-2	8.149496E-3	3.284640E-3	1.194844E-2	1.521639E-2	1.374695E-2	1.357859E-2	1.022300E-2	1.000357E-2	7.076493E-3	9.702092E-3	2.881630E-3	7.241361E-3	1.508007E-2	4.268495E-4	2.382439E-2	1.462578E-2	2.763846E-3	6.864316E-3	1.117788E-2	1.581280E-2	1.374460E-2	5.582518E-3	7.079294E-3	2.908367E-3	4.746413E-3	7.194612E-3	9.636414E-3	1.488456E-2	3.548843E-3	1.317087E-2	1.839037E-2	2.118455E-2	8.315367E-3	1.190070E-2	4.423035E-3	1.364532E-2	8.681722E-3	9.881245E-3	9.916863E-3	1.142208E-2	9.808519E-3	2.217988E-3	1.210088E-2	7.518691E-3	1.363780E-2	1.538338E-2	1.412960E-2	2.550966E-2	9.896622E-3	1.852042E-2	1.538880E-2	7.883786E-3	4.800012E-3	1.242145E-2	1.473941E-2	8.812130E-3	1.159961E-2	1.073033E-3	1.089995E-2	1.528285E-2	1.321175E-2
5.330280E+2	2.154726E-2	1.666645E-2	2.417560E-2	2.143100E-2	2.444840E-2	2.061515E-2	2.297112E-2	2.258626E-2	3.167958E-2	1.706809E-2	1.524412E-2	3.222581E-2	3.670229E-2	2.324990E-2	2.736832E-2	1.920966E-2	2.667960E-2	2.063183E-2	2.181605E-2	2.078115E-2	2.219816E-2	3.202546E-2	2.469306E-2	1.683607E-2	2.383931E-2	2.670341E-2	3.149942E-2	3.160601E-2	2.565271E-2	2.074956E-2	2.811424E-2	2.442080E-2	2.288558E-2	9.685677E-3	1.615023E-2	2.075360E-2	2.367899E-2	3.058843E-2	2.491183E-2	2.408726E-2	2.283475E-2	1.909341E-2	3.154992E-2	2.419747E-2	2.885414E-2	2.201839E-2	2.613088E-2	1.736635E-2	2.456409E-2	1.801221E-2	2.809678E-2	1.889598E-2	2.100065E-2	2.409175E-2	2.399298E-2	2.127749E-2	2.109853E-2	2.116960E-2	2.829783E-2	3.027925E-2	2.952532E-2	2.304387E-2	2.869521E-2	1.939708E-2	2.956242E-2	2.648200E-2	2.768429E-2	2.602690E-2	3.740492E-2	2.162530E-2	2.582481E-2	2.453061E-2	1.528025E-2	2.820427E-2	1.903229E-2	2.682207E-2	1.694645E-2	3.404851E-2	3.466875E-2	2.257394E-2	1.968109E-2	1.467721E-2	2.104392E-2	1.424437E-2	2.769491E-2	1.592435E-2	2.696265E-2	1.623058E-2	2.520530E-2	1.351912E-2	2.892744E-2	3.179934E-2	2.634942E-2	1.984352E-2	2.369903E-2	2.253246E-2	2.755250E-2	2.585516E-2	7.585289E-3	2.876903E-2	2.901518E-2	2.013143E-2	1.860092E-2	2.453294E-2	3.053699E-2	1.761064E-2	3.528661E-2	1.704041E-2	3.472992E-2	1.354032E-2	1.951695E-2	1.361416E-2	2.188949E-2	2.410561E-2	1.652275E-2	1.884868E-2	2.451796E-2	3.655554E-2	1.899786E-2	2.624911E-2	2.842523E-2	2.694940E-2	1.290295E-2	2.458397E-2	1.935910E-2	1.947171E-2	1.495303E-2	2.171072E-2	1.479017E-2	2.744677E-2	2.199443E-2	2.218119E-2	2.185011E-2	3.670689E-2	8.789491E-3	1.898658E-2	3.881456E-2	2.391620E-2	1.895548E-2	2.204112E-2	1.382599E-2	2.699269E-2	2.144469E-2	2.171896E-2	1.555818E-2	2.159482E-2	2.660394E-2	1.938931E-2	1.496128E-2	2.420636E-2	2.425718E-2	3.313696E-2	1.256254E-2	1.992929E-2	2.203380E-2	2.268640E-2	2.997853E-2	1.818174E-2	2.594057E-2	2.951402E-2	2.358009E-2	2.325454E-2	2.754827E-2	2.804380E-2	2.188363E-2	3.333670E-2	1.148212E-2	2.149038E-2	2.581460E-2	2.491117E-2
5.331580E+2	1.851535E-2	2.528207E-2	2.556611E-2	2.568263E-2	2.725662E-2	2.776144E-2	2.149172E-2	2.823118E-2	2.683532E-2	2.189789E-2	2.421898E-2	2.368111E-2	3.947828E-2	1.597780E-2	3.605899E-2	3.002186E-2	2.348941E-2	2.584463E-2	1.596978E-2	2.923559E-2	2.236733E-2	2.904660E-2	2.948727E-2	2.052203E-2	2.715932E-2	1.773349E-2	2.775490E-2	3.668484E-2	3.896123E-2	2.789489E-2	4.575115E-2	3.368677E-2	3.180384E-2	3.017160E-2	2.206380E-2	3.498976E-2	2.936417E-2	1.714990E-2	3.410568E-2	2.250196E-2	2.505309E-2	1.497598E-2	2.898345E-2	2.952584E-2	2.737020E-2	1.885647E-2	2.578215E-2	2.432618E-2	2.423065E-2	2.460398E-2	1.944269E-2	3.203947E-2	2.528492E-2	2.186041E-2	2.815987E-2	2.830366E-2	2.866253E-2	3.330541E-2	2.456755E-2	3.119006E-2	2.165128E-2	1.529044E-2	2.260561E-2	3.292075E-2	3.414959E-2	2.437348E-2	3.232267E-2	2.797352E-2	2.813204E-2	2.381470E-2	2.746819E-2	3.061327E-2	2.560289E-2	2.448055E-2	2.691192E-2	3.134201E-2	1.873570E-2	2.340303E-2	4.090804E-2	2.530798E-2	2.684735E-2	3.572831E-2	3.579138E-2	2.679263E-2	2.689234E-2	3.251321E-2	2.126749E-2	2.400927E-2	3.719802E-2	2.238563E-2	1.448438E-2	2.848776E-2	3.958088E-2	2.923985E-2	1.383277E-2	2.131205E-2	2.894538E-2	3.171463E-2	2.384056E-2	2.451033E-2	1.773116E-2	2.324533E-2	2.663007E-2	2.638565E-2	3.021366E-2	2.380042E-2	3.974457E-2	2.537498E-2	2.908720E-2	2.520814E-2	2.526582E-2	2.469235E-2	2.538596E-2	3.912033E-2	3.732224E-2	1.962860E-2	2.223912E-2	2.264239E-2	1.818518E-2	2.432035E-2	2.192483E-2	2.616745E-2	3.215316E-2	2.904963E-2	2.411905E-2	3.003483E-2	3.155673E-2	1.512437E-2	2.551931E-2	2.821965E-2	3.113148E-2	2.812226E-2	2.998358E-2	2.347231E-2	2.143127E-2	3.055829E-2	4.134401E-2	2.860662E-2	3.246331E-2	4.088931E-2	2.316163E-2	2.335250E-2	1.954098E-2	2.380984E-2	1.338540E-2	2.935992E-2	2.222234E-2	2.482815E-2	3.165072E-2	3.127615E-2	2.654405E-2	3.065937E-2	2.584040E-2	1.619329E-2	3.172645E-2	4.093455E-2	1.891239E-2	3.248527E-2	3.132388E-2	2.921893E-2	2.779657E-2	2.613114E-2	3.043169E-2	3.842040E-2	2.687794E-2	2.779054E-2	2.800289E-2	2.649762E-2	2.021532E-2	2.126590E-2
5.333130E+2	3.518664E-2	2.811526E-2	4.436857E-2	3.501277E-2	4.497142E-2	3.046187E-2	4.371912E-2	3.544856E-2	4.069844E-2	3.774070E-2	3.440691E-2	3.513255E-2	4.091298E-2	4.649770E-2	3.780582E-2	3.743235E-2	2.878577E-2	3.783527E-2	4.330382E-2	4.495273E-2	3.783440E-2	3.982590E-2	3.895275E-2	3.227371E-2	4.103293E-2	5.271729E-2	3.934361E-2	4.990712E-2	3.654004E-2	4.586325E-2	4.803791E-2	4.516511E-2	3.923477E-2	4.465068E-2	3.761351E-2	3.793316E-2	5.715890E-2	4.565509E-2	5.328641E-2	4.669054E-2	4.346590E-2	5.014308E-2	2.256474E-2	4.560641E-2	3.591795E-2	4.733179E-2	4.482469E-2	3.896568E-2	4.955962E-2	2.479245E-2	3.968627E-2	5.175175E-2	3.012284E-2	4.355853E-2	3.934959E-2	4.121134E-2	4.843949E-2	3.927346E-2	3.264870E-2	4.267150E-2	3.479952E-2	3.786553E-2	4.010984E-2	5.246749E-2	3.682696E-2	3.203365E-2	3.811493E-2	2.992181E-2	3.539991E-2	3.555253E-2	4.209564E-2	5.396723E-2	4.974877E-2	3.025131E-2	4.050334E-2	4.396901E-2	3.681048E-2	2.878569E-2	3.510568E-2	4.026119E-2	5.161343E-2	5.153233E-2	4.251175E-2	4.214067E-2	4.615607E-2	4.770490E-2	2.559896E-2	5.166848E-2	2.808821E-2	2.874054E-2	3.191001E-2	5.339727E-2	3.595284E-2	3.509647E-2	3.168964E-2	4.165733E-2	4.117633E-2	3.533605E-2	4.018431E-2	3.980658E-2	5.247455E-2	3.760950E-2	3.814902E-2	4.493659E-2	4.847228E-2	3.879603E-2	4.879542E-2	2.999932E-2	4.056847E-2	3.172142E-2	4.278960E-2	3.470312E-2	3.696271E-2	5.360438E-2	4.190232E-2	4.752609E-2	3.334232E-2	5.281132E-2	4.976153E-2	3.514333E-2	4.170129E-2	2.882226E-2	3.756007E-2	3.913525E-2	4.018298E-2	4.900886E-2	4.727385E-2	3.357157E-2	3.809891E-2	3.493885E-2	4.455155E-2	2.602079E-2	4.614177E-2	4.617994E-2	3.753239E-2	4.656928E-2	2.758584E-2	5.199359E-2	4.504018E-2	3.586915E-2	3.743135E-2	3.998502E-2	3.650480E-2	4.941619E-2	3.412862E-2	4.414364E-2	3.850476E-2	4.147267E-2	2.570135E-2	3.573378E-2	3.042818E-2	5.510713E-2	3.982566E-2	3.934187E-2	3.346533E-2	6.412556E-2	3.581826E-2	5.014623E-2	4.299942E-2	4.347099E-2	4.073487E-2	3.825115E-2	4.839193E-2	5.127239E-2	3.816772E-2	3.959143E-2	3.552514E-2	4.447441E-2	4.358404E-2	3.306952E-2
5.334630E+2	4.595004E-2	5.381785E-2	5.577757E-2	4.851679E-2	5.381036E-2	4.919712E-2	6.053161E-2	5.171958E-2	5.942466E-2	5.734271E-2	4.801435E-2	6.896584E-2	5.398552E-2	5.574022E-2	6.475558E-2	4.319636E-2	4.657290E-2	4.425528E-2	3.026079E-2	4.676786E-2	6.067846E-2	5.528685E-2	5.827419E-2	5.718254E-2	5.721195E-2	5.742366E-2	5.656281E-2	6.676289E-2	4.513153E-2	4.721620E-2	6.436290E-2	5.346402E-2	4.328420E-2	6.126324E-2	5.569086E-2	5.056838E-2	5.348618E-2	6.532611E-2	6.626176E-2	5.529532E-2	5.973154E-2	6.180172E-2	4.938857E-2	5.088650E-2	5.760659E-2	6.372853E-2	4.404201E-2	5.671376E-2	6.777678E-2	6.323048E-2	4.465620E-2	6.443867E-2	5.707892E-2	5.411679E-2	5.059868E-2	5.270420E-2	5.453892E-2	4.526916E-2	5.311759E-2	5.831466E-2	5.343946E-2	5.406763E-2	5.347873E-2	5.275434E-2	5.078649E-2	5.181185E-2	4.393236E-2	4.700567E-2	5.580350E-2	4.935934E-2	6.017998E-2	5.426437E-2	5.462100E-2	5.120227E-2	5.572075E-2	5.962052E-2	7.510409E-2	5.031901E-2	5.955572E-2	5.623878E-2	4.835226E-2	6.257461E-2	4.817827E-2	5.646181E-2	3.989549E-2	4.947916E-2	5.562291E-2	4.685805E-2	5.252043E-2	6.031547E-2	5.045562E-2	6.311497E-2	4.250443E-2	5.127688E-2	5.420395E-2	4.674998E-2	5.528482E-2	5.550939E-2	6.052499E-2	5.518418E-2	6.378180E-2	5.498737E-2	7.042969E-2	5.800832E-2	4.873344E-2	5.058178E-2	5.747473E-2	5.466500E-2	5.604012E-2	5.926258E-2	4.642845E-2	4.070123E-2	5.251790E-2	5.178741E-2	6.012970E-2	4.715816E-2	5.752173E-2	7.444504E-2	5.765015E-2	6.516540E-2	5.127351E-2	5.703752E-2	6.426589E-2	5.668920E-2	5.632280E-2	5.240916E-2	5.204877E-2	7.093958E-2	5.073356E-2	5.769485E-2	4.162511E-2	5.171329E-2	6.387718E-2	7.050179E-2	5.371245E-2	5.828654E-2	6.577460E-2	4.546237E-2	6.695526E-2	5.192530E-2	6.316271E-2	5.396298E-2	4.935603E-2	6.361979E-2	4.618892E-2	5.024862E-2	5.313336E-2	7.055195E-2	5.515974E-2	5.721649E-2	5.273069E-2	4.943400E-2	6.499466E-2	7.213503E-2	5.230022E-2	6.378545E-2	5.447400E-2	5.258553E-2	4.898308E-2	6.683161E-2	5.149277E-2	5.042060E-2	5.188455E-2	7.500810E-2	5.650278E-2	6.157476E-2	5.037998E-2	6.333835E-2	6.614055E-2	3.134573E-2
5.336130E+2	5.675329E-2	9.243124E-2	6.037469E-2	6.903382E-2	5.778439E-2	7.302915E-2	5.747368E-2	5.986121E-2	7.212992E-2	6.073518E-2	6.437627E-2	7.458984E-2	7.780268E-2	6.149567E-2	7.511958E-2	6.717143E-2	6.542389E-2	6.422744E-2	5.531935E-2	5.757345E-2	6.866123E-2	5.741402E-2	7.713030E-2	7.650632E-2	8.683151E-2	9.075497E-2	8.720021E-2	7.092858E-2	8.217058E-2	6.206805E-2	6.360522E-2	6.633798E-2	7.156992E-2	7.382641E-2	6.850719E-2	6.534637E-2	7.352978E-2	5.945121E-2	7.385131E-2	7.060793E-2	6.156735E-2	6.541556E-2	7.308817E-2	6.777601E-2	6.450950E-2	8.189470E-2	5.223530E-2	7.136257E-2	7.878962E-2	7.322260E-2	8.524638E-2	8.218668E-2	6.986190E-2	6.127747E-2	7.746561E-2	7.561969E-2	6.354148E-2	6.291318E-2	8.177563E-2	7.629280E-2	5.650836E-2	8.743187E-2	6.227619E-2	4.793429E-2	7.539121E-2	7.631582E-2	5.542060E-2	9.114040E-2	6.469889E-2	6.977323E-2	7.884554E-2	6.874709E-2	7.349377E-2	6.891601E-2	7.415704E-2	6.695359E-2	7.829909E-2	6.361779E-2	6.894890E-2	5.901795E-2	8.864319E-2	6.987472E-2	7.452772E-2	7.405463E-2	6.233340E-2	7.030801E-2	7.018517E-2	5.528965E-2	6.816899E-2	7.297775E-2	6.804740E-2	6.278804E-2	7.291917E-2	7.370482E-2	6.816330E-2	8.310892E-2	6.158661E-2	7.119127E-2	6.974590E-2	6.948636E-2	5.883505E-2	6.754181E-2	6.680671E-2	7.895568E-2	7.247025E-2	6.679107E-2	8.334860E-2	5.549174E-2	8.716537E-2	6.007660E-2	6.971070E-2	6.235512E-2	6.585984E-2	5.824990E-2	7.787019E-2	8.736926E-2	8.138176E-2	8.239505E-2	6.606879E-2	7.666524E-2	6.398896E-2	6.025119E-2	8.174927E-2	8.244897E-2	7.050122E-2	6.839833E-2	5.484903E-2	7.126991E-2	6.343054E-2	7.223203E-2	7.317755E-2	7.056625E-2	6.018836E-2	8.137413E-2	8.836663E-2	8.374347E-2	8.362981E-2	7.865284E-2	7.607771E-2	7.805914E-2	7.217887E-2	6.139975E-2	7.388767E-2	8.465984E-2	6.357837E-2	8.102195E-2	6.209409E-2	8.094275E-2	5.939790E-2	5.962584E-2	5.565229E-2	6.159729E-2	6.805520E-2	7.528266E-2	7.024620E-2	7.378901E-2	8.997436E-2	6.273197E-2	7.490022E-2	7.873969E-2	8.382795E-2	7.844778E-2	6.080156E-2	7.591196E-2	7.721496E-2	6.769712E-2	6.775794E-2	7.825033E-2	8.283248E-2	9.950207E-2
5.337580E+2	8.559439E-2	8.900678E-2	8.122654E-2	9.018756E-2	9.648235E-2	9.595145E-2	9.655771E-2	1.149573E-1	9.113458E-2	1.045696E-1	8.804341E-2	1.117785E-1	1.043425E-1	9.781731E-2	9.917475E-2	9.381190E-2	9.622255E-2	8.936439E-2	9.504903E-2	1.080628E-1	1.102476E-1	1.039695E-1	1.027895E-1	8.867677E-2	1.260663E-1	1.203279E-1	1.234334E-1	1.178281E-1	1.032811E-1	9.814126E-2	1.001962E-1	1.160729E-1	1.030781E-1	9.414602E-2	9.781497E-2	1.017221E-1	1.153081E-1	1.034788E-1	1.159829E-1	1.073439E-1	1.023601E-1	1.140020E-1	1.034531E-1	9.846106E-2	8.564442E-2	1.045647E-1	9.893041E-2	1.180108E-1	9.231422E-2	1.124682E-1	1.134901E-1	1.158800E-1	8.672443E-2	9.503271E-2	9.386839E-2	1.136259E-1	8.758267E-2	1.210330E-1	1.050114E-1	1.180174E-1	9.685427E-2	1.103771E-1	1.033094E-1	9.970079E-2	1.147713E-1	1.124636E-1	1.012202E-1	9.652130E-2	1.005041E-1	1.140264E-1	1.058288E-1	1.073350E-1	9.897158E-2	9.125638E-2	1.161261E-1	9.959285E-2	1.052968E-1	9.268165E-2	1.149809E-1	9.780235E-2	9.914000E-2	9.236111E-2	1.037431E-1	1.041242E-1	1.079289E-1	1.114095E-1	9.179928E-2	9.164781E-2	1.114586E-1	1.065665E-1	1.074658E-1	1.139049E-1	1.167434E-1	1.098151E-1	9.766000E-2	9.880826E-2	1.059980E-1	1.058968E-1	1.032443E-1	9.519165E-2	1.083019E-1	1.043272E-1	8.402206E-2	1.162268E-1	9.078983E-2	1.209071E-1	1.086498E-1	9.931182E-2	1.058540E-1	1.062923E-1	1.218429E-1	1.020714E-1	1.229188E-1	1.024823E-1	1.089122E-1	9.196078E-2	1.153514E-1	1.274999E-1	1.041461E-1	9.548273E-2	1.087512E-1	9.955568E-2	1.159616E-1	1.027447E-1	1.218705E-1	1.122376E-1	1.079450E-1	1.204259E-1	9.814117E-2	1.100738E-1	1.011255E-1	9.645056E-2	1.151679E-1	1.184914E-1	1.115280E-1	1.098434E-1	9.331982E-2	1.176404E-1	1.079712E-1	1.036652E-1	1.073628E-1	1.030748E-1	1.111511E-1	8.885227E-2	9.167033E-2	1.072039E-1	9.998662E-2	1.172784E-1	1.075783E-1	1.085168E-1	1.071818E-1	1.150132E-1	1.032363E-1	1.088646E-1	1.125052E-1	1.093680E-1	9.467043E-2	1.003480E-1	1.040630E-1	9.826310E-2	1.186248E-1	1.065867E-1	1.000633E-1	1.312963E-1	1.086523E-1	1.010418E-1	9.560501E-2	1.151878E-1	1.182660E-1	6.486531E-2
5.339140E+2	1.414050E-1	1.610680E-1	1.591849E-1	1.742784E-1	1.471405E-1	1.507693E-1	1.569680E-1	1.545357E-1	1.580265E-1	1.549439E-1	1.716281E-1	1.657284E-1	1.631397E-1	1.735233E-1	1.765962E-1	1.585194E-1	1.492804E-1	1.474924E-1	1.477581E-1	1.501646E-1	1.426429E-1	1.424228E-1	1.576593E-1	1.545417E-1	2.141680E-1	1.974630E-1	1.828713E-1	1.958091E-1	1.833561E-1	1.871553E-1	1.796345E-1	1.844132E-1	1.837751E-1	1.742918E-1	1.985534E-1	1.744637E-1	1.689881E-1	1.825792E-1	1.729345E-1	1.780455E-1	1.845056E-1	1.862174E-1	1.892678E-1	1.667776E-1	1.691050E-1	1.755610E-1	1.839611E-1	1.549401E-1	1.742753E-1	1.860868E-1	1.681025E-1	1.841887E-1	1.850239E-1	1.877172E-1	1.643014E-1	1.825413E-1	1.713877E-1	1.699602E-1	1.682206E-1	1.925447E-1	1.680120E-1	1.500195E-1	1.641472E-1	1.670930E-1	1.582619E-1	1.742789E-1	1.697793E-1	1.669494E-1	1.806121E-1	1.630645E-1	1.606302E-1	1.812380E-1	1.500148E-1	1.695968E-1	1.743688E-1	1.865223E-1	1.601105E-1	1.669314E-1	1.708621E-1	1.793755E-1	1.752216E-1	1.702776E-1	1.609638E-1	1.787077E-1	1.728242E-1	1.627570E-1	1.726582E-1	1.726682E-1	1.675595E-1	1.733248E-1	1.858627E-1	1.675922E-1	1.590149E-1	1.843584E-1	1.710825E-1	1.728795E-1	1.739904E-1	1.493455E-1	1.576382E-1	1.752284E-1	1.585628E-1	1.694161E-1	1.549431E-1	1.610462E-1	1.594454E-1	1.645580E-1	1.727725E-1	1.680074E-1	1.639399E-1	1.771454E-1	1.618574E-1	1.745835E-1	1.861350E-1	1.535207E-1	1.560752E-1	1.756841E-1	1.530888E-1	1.700907E-1	1.936286E-1	1.612881E-1	1.552425E-1	1.877497E-1	1.604857E-1	1.691066E-1	1.791012E-1	1.626912E-1	1.675165E-1	1.712918E-1	1.724589E-1	1.708410E-1	1.543467E-1	1.692679E-1	1.627633E-1	1.988408E-1	1.544065E-1	1.837461E-1	1.746252E-1	1.810549E-1	1.663159E-1	1.577610E-1	1.739511E-1	1.550600E-1	1.668168E-1	1.707450E-1	1.786060E-1	1.898832E-1	1.718666E-1	1.626255E-1	1.604558E-1	1.743457E-1	1.511253E-1	1.682296E-1	1.839395E-1	1.252177E-1	1.414596E-1	1.797843E-1	1.602826E-1	1.662639E-1	1.592232E-1	1.767729E-1	1.795621E-1	1.781116E-1	1.732221E-1	1.746921E-1	1.734894E-1	1.813929E-1	1.825810E-1	1.719196E-1	1.891484E-1	1.997480E-1
5.340800E+2	2.407419E-1	2.371714E-1	2.706975E-1	2.439270E-1	2.587397E-1	2.659438E-1	2.560609E-1	2.463181E-1	2.485754E-1	2.488374E-1	2.555807E-1	2.584850E-1	2.660301E-1	2.847981E-1	2.289561E-1	2.611279E-1	2.548335E-1	2.683360E-1	2.647296E-1	2.435484E-1	2.493029E-1	2.559447E-1	2.621817E-1	2.564327E-1	3.380359E-1	3.278662E-1	3.313091E-1	3.234477E-1	3.206167E-1	2.967589E-1	2.933117E-1	2.990355E-1	3.092732E-1	3.048330E-1	3.051458E-1	2.690691E-1	2.884977E-1	3.003189E-1	2.895585E-1	3.048630E-1	2.799389E-1	3.057011E-1	2.838641E-1	2.950438E-1	2.937649E-1	2.985693E-1	2.730909E-1	2.843201E-1	2.693565E-1	2.872371E-1	3.041731E-1	2.913237E-1	2.656148E-1	2.823539E-1	2.709656E-1	2.747014E-1	3.268334E-1	2.830386E-1	2.851849E-1	2.694705E-1	2.702716E-1	2.831657E-1	2.811053E-1	2.717112E-1	2.739368E-1	2.915781E-1	2.714324E-1	2.774527E-1	2.769331E-1	2.824216E-1	2.911751E-1	2.835611E-1	2.567557E-1	2.737764E-1	2.929519E-1	2.789441E-1	2.779820E-1	3.045739E-1	2.912762E-1	2.936325E-1	2.682398E-1	2.654381E-1	2.902358E-1	2.802150E-1	2.492423E-1	3.089289E-1	2.706523E-1	2.941364E-1	2.913440E-1	2.819952E-1	2.651429E-1	2.840875E-1	2.829423E-1	2.847741E-1	2.694521E-1	2.757940E-1	2.905497E-1	2.695676E-1	2.833775E-1	2.544352E-1	3.003276E-1	2.774098E-1	2.671107E-1	2.817407E-1	2.696739E-1	2.637188E-1	2.918351E-1	2.821311E-1	2.852652E-1	2.923203E-1	2.693299E-1	2.760425E-1	2.696572E-1	2.511799E-1	2.855607E-1	2.626381E-1	2.778858E-1	2.658830E-1	2.609492E-1	2.851904E-1	2.750198E-1	2.857934E-1	2.906281E-1	2.551361E-1	2.648477E-1	2.629717E-1	2.668153E-1	2.827597E-1	2.875805E-1	2.564202E-1	2.804970E-1	2.452032E-1	2.689349E-1	2.648699E-1	2.642859E-1	2.912102E-1	2.935040E-1	2.812449E-1	3.046007E-1	2.638450E-1	2.819687E-1	2.782677E-1	2.662321E-1	2.829917E-1	2.566590E-1	2.962282E-1	2.707570E-1	2.737584E-1	2.519431E-1	2.705988E-1	2.808822E-1	2.826779E-1	2.838678E-1	2.824983E-1	2.688567E-1	2.843299E-1	2.798252E-1	2.568231E-1	2.706598E-1	2.800369E-1	2.785275E-1	2.576805E-1	2.837762E-1	2.702551E-1	2.665886E-1	2.773218E-1	2.922108E-1	3.041209E-1	2.864183E-1	2.650956E-1
5.342040E+2	4.610156E-1	4.363633E-1	4.387802E-1	4.328418E-1	4.414688E-1	4.345240E-1	4.462373E-1	4.226618E-1	4.371293E-1	4.417186E-1	4.398531E-1	4.476030E-1	4.412356E-1	4.223613E-1	4.548184E-1	4.627923E-1	4.777021E-1	4.558087E-1	4.642322E-1	4.475922E-1	4.326812E-1	4.438332E-1	4.267298E-1	4.393416E-1	5.916366E-1	5.587027E-1	5.387866E-1	5.238887E-1	5.305971E-1	5.042050E-1	4.980197E-1	5.123073E-1	5.175654E-1	4.898181E-1	4.932008E-1	5.137923E-1	5.086721E-1	5.188542E-1	5.378444E-1	4.939146E-1	5.168888E-1	5.159802E-1	5.141602E-1	5.178659E-1	5.326591E-1	4.858332E-1	5.014658E-1	4.938806E-1	4.698241E-1	4.499143E-1	4.905456E-1	5.169689E-1	5.043653E-1	4.850824E-1	5.139029E-1	4.969849E-1	5.257467E-1	4.856331E-1	4.819189E-1	5.183212E-1	4.777626E-1	4.832214E-1	4.935189E-1	5.041307E-1	5.006777E-1	4.815991E-1	4.602265E-1	4.963449E-1	4.813733E-1	5.087276E-1	5.272809E-1	5.015130E-1	4.959340E-1	5.056426E-1	5.047553E-1	4.928154E-1	4.748511E-1	4.976279E-1	4.818138E-1	4.785946E-1	4.679908E-1	4.923812E-1	4.772301E-1	4.770880E-1	5.188533E-1	5.074863E-1	4.593279E-1	5.056543E-1	4.504555E-1	4.838636E-1	4.530366E-1	4.780723E-1	4.678022E-1	4.835525E-1	4.626789E-1	4.927780E-1	4.613679E-1	5.085681E-1	4.684275E-1	4.760438E-1	4.634569E-1	4.990269E-1	4.541922E-1	4.878271E-1	4.848313E-1	4.960197E-1	4.896013E-1	4.931689E-1	4.899138E-1	4.767344E-1	4.581431E-1	4.797369E-1	4.887017E-1	4.709642E-1	4.581877E-1	4.775381E-1	5.011444E-1	4.884607E-1	4.655978E-1	4.963697E-1	4.813775E-1	4.542928E-1	4.542599E-1	4.662227E-1	4.896992E-1	4.877680E-1	4.897187E-1	4.750236E-1	4.896088E-1	5.047629E-1	4.782561E-1	4.670167E-1	4.629663E-1	4.747170E-1	4.924221E-1	5.074780E-1	4.517372E-1	4.750919E-1	5.075709E-1	4.934162E-1	4.834013E-1	4.500472E-1	4.840314E-1	4.585508E-1	4.719979E-1	4.842359E-1	4.772426E-1	4.517549E-1	4.834318E-1	4.617182E-1	4.876795E-1	5.054736E-1	5.031929E-1	4.935000E-1	4.760454E-1	4.725899E-1	4.765027E-1	4.325988E-1	4.604935E-1	4.743851E-1	4.910847E-1	4.862334E-1	4.729953E-1	4.759197E-1	4.759781E-1	4.909934E-1	4.833221E-1	5.008813E-1	5.042206E-1	4.248695E-1
5.343600E+2	7.371623E-1	7.613415E-1	7.916303E-1	7.768960E-1	7.851237E-1	8.252654E-1	8.024468E-1	8.032789E-1	7.880280E-1	7.823021E-1	7.942598E-1	8.053187E-1	7.962113E-1	8.007497E-1	8.123933E-1	8.123026E-1	8.314259E-1	7.763577E-1	8.197210E-1	7.923151E-1	7.936715E-1	7.664319E-1	7.740217E-1	8.061696E-1	9.144274E-1	8.866794E-1	9.245569E-1	8.718288E-1	9.150288E-1	8.648182E-1	8.728388E-1	8.858022E-1	8.958306E-1	8.192828E-1	8.371236E-1	8.732208E-1	8.808878E-1	8.895470E-1	8.637399E-1	8.665495E-1	9.018859E-1	8.774824E-1	8.669809E-1	8.866443E-1	8.528545E-1	8.918170E-1	8.401829E-1	8.318655E-1	8.278911E-1	8.237424E-1	8.517987E-1	8.698865E-1	8.360010E-1	8.341908E-1	8.760101E-1	8.555339E-1	8.620304E-1	8.762462E-1	8.774893E-1	8.563420E-1	8.354575E-1	8.641988E-1	8.041155E-1	8.079735E-1	8.251503E-1	8.703068E-1	8.303779E-1	8.343187E-1	8.672577E-1	8.591697E-1	8.194655E-1	8.365302E-1	8.592090E-1	8.097421E-1	8.462086E-1	8.313796E-1	7.856431E-1	8.737830E-1	8.476402E-1	8.481288E-1	8.265877E-1	8.554397E-1	8.495968E-1	8.480383E-1	8.957464E-1	8.494053E-1	8.392546E-1	8.765518E-1	8.035133E-1	8.267503E-1	8.114578E-1	8.372209E-1	8.332467E-1	8.082571E-1	8.097981E-1	8.074593E-1	8.434535E-1	8.233495E-1	8.499310E-1	8.166975E-1	8.328311E-1	8.049840E-1	8.360952E-1	7.735364E-1	8.146504E-1	8.076771E-1	8.267850E-1	8.064722E-1	8.514138E-1	7.761552E-1	8.152448E-1	8.278175E-1	8.271353E-1	7.749195E-1	8.278736E-1	8.491145E-1	8.563978E-1	8.258727E-1	8.068122E-1	8.276078E-1	8.202228E-1	8.274852E-1	8.264579E-1	8.205674E-1	8.225612E-1	8.164770E-1	8.169863E-1	7.853582E-1	8.027965E-1	8.522435E-1	8.230226E-1	7.997292E-1	8.031829E-1	8.022193E-1	8.400028E-1	8.529204E-1	8.023461E-1	8.492941E-1	8.200497E-1	8.454680E-1	8.245960E-1	8.301104E-1	7.962549E-1	8.377629E-1	8.127809E-1	7.926936E-1	8.020281E-1	7.607010E-1	8.034856E-1	8.357243E-1	8.060557E-1	8.353369E-1	8.109239E-1	7.904093E-1	8.591785E-1	8.175189E-1	8.426620E-1	8.327572E-1	8.203796E-1	8.039818E-1	7.990835E-1	7.974093E-1	8.299926E-1	8.403152E-1	8.211100E-1	8.482516E-1	8.127362E-1	8.074042E-1	8.227323E-1	7.858815E-1
5.345160E+2	1.146168E+0	1.145961E+0	1.174629E+0	1.138669E+0	1.169018E+0	1.156991E+0	1.163953E+0	1.148804E+0	1.136410E+0	1.171328E+0	1.158252E+0	1.225921E+0	1.132383E+0	1.166277E+0	1.213654E+0	1.174370E+0	1.163616E+0	1.159296E+0	1.113428E+0	1.115415E+0	1.162795E+0	1.178617E+0	1.165900E+0	1.171425E+0	1.280472E+0	1.231446E+0	1.255645E+0	1.217708E+0	1.316414E+0	1.198453E+0	1.239839E+0	1.256515E+0	1.204107E+0	1.229076E+0	1.193367E+0	1.253712E+0	1.228535E+0	1.272134E+0	1.274575E+0	1.245343E+0	1.206546E+0	1.232441E+0	1.178048E+0	1.214708E+0	1.248635E+0	1.189690E+0	1.173554E+0	1.217025E+0	1.217038E+0	1.206919E+0	1.178506E+0	1.165967E+0	1.192581E+0	1.176641E+0	1.255237E+0	1.157186E+0	1.175459E+0	1.208032E+0	1.217191E+0	1.201106E+0	1.186312E+0	1.188970E+0	1.168004E+0	1.119924E+0	1.208110E+0	1.164792E+0	1.176084E+0	1.189401E+0	1.187997E+0	1.174055E+0	1.176342E+0	1.193280E+0	1.182483E+0	1.181930E+0	1.219618E+0	1.233485E+0	1.169788E+0	1.181193E+0	1.213084E+0	1.180950E+0	1.097429E+0	1.204993E+0	1.147058E+0	1.166310E+0	1.157099E+0	1.184304E+0	1.206182E+0	1.177573E+0	1.202677E+0	1.164492E+0	1.231458E+0	1.153927E+0	1.175845E+0	1.162126E+0	1.200171E+0	1.142172E+0	1.224053E+0	1.187582E+0	1.199042E+0	1.154960E+0	1.194717E+0	1.189628E+0	1.227189E+0	1.172250E+0	1.204024E+0	1.210748E+0	1.176229E+0	1.176500E+0	1.198050E+0	1.212430E+0	1.150389E+0	1.171226E+0	1.180196E+0	1.152969E+0	1.125730E+0	1.153615E+0	1.200084E+0	1.165526E+0	1.167797E+0	1.178143E+0	1.189051E+0	1.166679E+0	1.159678E+0	1.199189E+0	1.150291E+0	1.205227E+0	1.187730E+0	1.165644E+0	1.159900E+0	1.192659E+0	1.130879E+0	1.155375E+0	1.199033E+0	1.160002E+0	1.167662E+0	1.180336E+0	1.161733E+0	1.191850E+0	1.202951E+0	1.151541E+0	1.235186E+0	1.123503E+0	1.194571E+0	1.147759E+0	1.173704E+0	1.239618E+0	1.221669E+0	1.122017E+0	1.145439E+0	1.161011E+0	1.176393E+0	1.191795E+0	1.190665E+0	1.197066E+0	1.150637E+0	1.147757E+0	1.235898E+0	1.101366E+0	1.188677E+0	1.137608E+0	1.215029E+0	1.140250E+0	1.218663E+0	1.211742E+0	1.165950E+0	1.180713E+0	1.141922E+0	1.136578E+0	1.195049E+0	1.142601E+0
5.346560E+2	1.552572E+0	1.585310E+0	1.565578E+0	1.555991E+0	1.608652E+0	1.585275E+0	1.568271E+0	1.601595E+0	1.558661E+0	1.593175E+0	1.615987E+0	1.677317E+0	1.604835E+0	1.597539E+0	1.629186E+0	1.599527E+0	1.578808E+0	1.640745E+0	1.607835E+0	1.606879E+0	1.634647E+0	1.554808E+0	1.573149E+0	1.553363E+0	1.594317E+0	1.661471E+0	1.632781E+0	1.657601E+0	1.640528E+0	1.642969E+0	1.636960E+0	1.665138E+0	1.630506E+0	1.643597E+0	1.605559E+0	1.623893E+0	1.657309E+0	1.665508E+0	1.615514E+0	1.620200E+0	1.673976E+0	1.638692E+0	1.569808E+0	1.611777E+0	1.683127E+0	1.624459E+0	1.613676E+0	1.574462E+0	1.675608E+0	1.628918E+0	1.606810E+0	1.629762E+0	1.565271E+0	1.611058E+0	1.566755E+0	1.646058E+0	1.579950E+0	1.635120E+0	1.618852E+0	1.630070E+0	1.636948E+0	1.622686E+0	1.601963E+0	1.625197E+0	1.612636E+0	1.609602E+0	1.559735E+0	1.596783E+0	1.667300E+0	1.629028E+0	1.609210E+0	1.614526E+0	1.610780E+0	1.615282E+0	1.581947E+0	1.610251E+0	1.571677E+0	1.582051E+0	1.561744E+0	1.542825E+0	1.572621E+0	1.617038E+0	1.577481E+0	1.562600E+0	1.630363E+0	1.633327E+0	1.534756E+0	1.626778E+0	1.527920E+0	1.597313E+0	1.579836E+0	1.601702E+0	1.562011E+0	1.610655E+0	1.595468E+0	1.572727E+0	1.604193E+0	1.575664E+0	1.598220E+0	1.562977E+0	1.624152E+0	1.622804E+0	1.632863E+0	1.583270E+0	1.600723E+0	1.583784E+0	1.553194E+0	1.659644E+0	1.627987E+0	1.629379E+0	1.596883E+0	1.546394E+0	1.598680E+0	1.566581E+0	1.521635E+0	1.627659E+0	1.559675E+0	1.611630E+0	1.541176E+0	1.549326E+0	1.606453E+0	1.602914E+0	1.553319E+0	1.564278E+0	1.558772E+0	1.590201E+0	1.566639E+0	1.585260E+0	1.594493E+0	1.628454E+0	1.590216E+0	1.538697E+0	1.632738E+0	1.578224E+0	1.555247E+0	1.634471E+0	1.569433E+0	1.581763E+0	1.615745E+0	1.530712E+0	1.581723E+0	1.585613E+0	1.568211E+0	1.546408E+0	1.649629E+0	1.528784E+0	1.623515E+0	1.530548E+0	1.547308E+0	1.561476E+0	1.582552E+0	1.613400E+0	1.643607E+0	1.539803E+0	1.570066E+0	1.572847E+0	1.631752E+0	1.572248E+0	1.539680E+0	1.527435E+0	1.618748E+0	1.511892E+0	1.590149E+0	1.564894E+0	1.546088E+0	1.615037E+0	1.587907E+0	1.588939E+0	1.567763E+0	1.617277E+0
5.348230E+2	1.907718E+0	1.985721E+0	1.909108E+0	1.893952E+0	1.898506E+0	1.956119E+0	1.945369E+0	1.948165E+0	1.904110E+0	1.998125E+0	1.914530E+0	1.975318E+0	1.938198E+0	1.948778E+0	1.954460E+0	1.921940E+0	1.920051E+0	1.922886E+0	1.972793E+0	1.896333E+0	1.962069E+0	1.901352E+0	1.937454E+0	1.870561E+0	1.889665E+0	1.871394E+0	1.913952E+0	1.977391E+0	2.001639E+0	1.911291E+0	1.881387E+0	1.895550E+0	1.915200E+0	1.915600E+0	1.902259E+0	1.959182E+0	1.893659E+0	1.957927E+0	1.910730E+0	1.943370E+0	1.971516E+0	2.024632E+0	2.001372E+0	1.863199E+0	1.910765E+0	1.974074E+0	1.877008E+0	1.946459E+0	1.905991E+0	1.892689E+0	1.939022E+0	1.928102E+0	1.884007E+0	1.879532E+0	1.960162E+0	1.900730E+0	1.922546E+0	1.935812E+0	1.950776E+0	1.896230E+0	1.819671E+0	1.895014E+0	1.897702E+0	1.862158E+0	1.908314E+0	1.871371E+0	1.853930E+0	1.897325E+0	1.932644E+0	1.921617E+0	1.908257E+0	1.872106E+0	1.857099E+0	1.926463E+0	1.923172E+0	1.904788E+0	1.896813E+0	1.915045E+0	1.897718E+0	1.896638E+0	1.903439E+0	1.896625E+0	1.851777E+0	1.920548E+0	1.841075E+0	1.938842E+0	1.895164E+0	1.918982E+0	1.947183E+0	1.853858E+0	1.920979E+0	1.918192E+0	1.967081E+0	1.893459E+0	1.920477E+0	1.905249E+0	1.920689E+0	1.916646E+0	1.893079E+0	1.895484E+0	1.931528E+0	1.938977E+0	1.843708E+0	1.866880E+0	1.970059E+0	1.943318E+0	1.895535E+0	1.870781E+0	1.936654E+0	1.972570E+0	1.919624E+0	1.893742E+0	1.857691E+0	1.829645E+0	1.856004E+0	1.858931E+0	1.929952E+0	1.904092E+0	1.904364E+0	1.866006E+0	1.883177E+0	1.828004E+0	1.897070E+0	1.845036E+0	1.863925E+0	1.868747E+0	1.880704E+0	1.924679E+0	1.860963E+0	1.910316E+0	1.884990E+0	1.839048E+0	1.884270E+0	1.876012E+0	1.931313E+0	1.978250E+0	1.898505E+0	1.936781E+0	1.900962E+0	1.845333E+0	1.868940E+0	1.839986E+0	1.853231E+0	1.828323E+0	1.913110E+0	1.858771E+0	1.868909E+0	1.806669E+0	1.846937E+0	1.802500E+0	1.870433E+0	1.844087E+0	1.849400E+0	1.862573E+0	1.885444E+0	1.817999E+0	1.910177E+0	1.842001E+0	1.815814E+0	1.847845E+0	1.883782E+0	1.827916E+0	1.863920E+0	1.816561E+0	1.828896E+0	1.844156E+0	1.838040E+0	1.909506E+0	1.839190E+0	1.774989E+0
5.349580E+2	1.906336E+0	1.896238E+0	1.934837E+0	1.863861E+0	1.934607E+0	1.918383E+0	1.887696E+0	1.851057E+0	1.920208E+0	1.905386E+0	1.894059E+0	1.868993E+0	1.878327E+0	1.861477E+0	1.916616E+0	1.877807E+0	1.936419E+0	1.901886E+0	1.875253E+0	1.835732E+0	1.953485E+0	1.865254E+0	1.885804E+0	1.888718E+0	1.849541E+0	1.798975E+0	1.771213E+0	1.811512E+0	1.849485E+0	1.882371E+0	1.848996E+0	1.905581E+0	1.897593E+0	1.851676E+0	1.831143E+0	1.880342E+0	1.850706E+0	1.856964E+0	1.890860E+0	1.872992E+0	1.961012E+0	1.888693E+0	1.881937E+0	1.854355E+0	1.858964E+0	1.901786E+0	1.880444E+0	1.862876E+0	1.892453E+0	1.798458E+0	1.932634E+0	1.897551E+0	1.852833E+0	1.880825E+0	1.859110E+0	1.842010E+0	1.870016E+0	1.875796E+0	1.893095E+0	1.878025E+0	1.810519E+0	1.864076E+0	1.868874E+0	1.822735E+0	1.828990E+0	1.865045E+0	1.770302E+0	1.950334E+0	1.895044E+0	1.861871E+0	1.882285E+0	1.865165E+0	1.813747E+0	1.922150E+0	1.809571E+0	1.845382E+0	1.837119E+0	1.878110E+0	1.819691E+0	1.870946E+0	1.817180E+0	1.849693E+0	1.873495E+0	1.804490E+0	1.870211E+0	1.872185E+0	1.836719E+0	1.897874E+0	1.850412E+0	1.831048E+0	1.865028E+0	1.774385E+0	1.836844E+0	1.870096E+0	1.797746E+0	1.814649E+0	1.807052E+0	1.884898E+0	1.896537E+0	1.849001E+0	1.935358E+0	1.815964E+0	1.884601E+0	1.830707E+0	1.896073E+0	1.844335E+0	1.800867E+0	1.836257E+0	1.879542E+0	1.841742E+0	1.837532E+0	1.826706E+0	1.877137E+0	1.830026E+0	1.837479E+0	1.853124E+0	1.894268E+0	1.831837E+0	1.864946E+0	1.870822E+0	1.777566E+0	1.787265E+0	1.866961E+0	1.817641E+0	1.822893E+0	1.818107E+0	1.790519E+0	1.843738E+0	1.910887E+0	1.791023E+0	1.862205E+0	1.737315E+0	1.941527E+0	1.852392E+0	1.855956E+0	1.811483E+0	1.829587E+0	1.847861E+0	1.822392E+0	1.785759E+0	1.780309E+0	1.778331E+0	1.826650E+0	1.803782E+0	1.853714E+0	1.845988E+0	1.844062E+0	1.838347E+0	1.788987E+0	1.802547E+0	1.820280E+0	1.797193E+0	1.834731E+0	1.840862E+0	1.783101E+0	1.831517E+0	1.830599E+0	1.812537E+0	1.830674E+0	1.836168E+0	1.841417E+0	1.806556E+0	1.825260E+0	1.895616E+0	1.834542E+0	1.844926E+0	1.788582E+0	1.812338E+0	1.742023E+0	1.907104E+0
5.351090E+2	1.954429E+0	1.964703E+0	2.011950E+0	2.005475E+0	2.001388E+0	1.979540E+0	2.000628E+0	1.966337E+0	1.978875E+0	1.992699E+0	1.978462E+0	2.004806E+0	2.006029E+0	1.972634E+0	1.988967E+0	2.045198E+0	2.012030E+0	2.004110E+0	2.044585E+0	1.975655E+0	2.010846E+0	2.018960E+0	1.973200E+0	1.939883E+0	1.850215E+0	1.915634E+0	1.915152E+0	1.903981E+0	1.895381E+0	1.995031E+0	1.929107E+0	1.955452E+0	1.954499E+0	1.940729E+0	1.924994E+0	1.925777E+0	1.861563E+0	1.953630E+0	1.940725E+0	1.938842E+0	2.020139E+0	1.946881E+0	1.966869E+0	1.924102E+0	1.985557E+0	1.902254E+0	1.905102E+0	1.910340E+0	1.945549E+0	1.961139E+0	1.932231E+0	1.920103E+0	1.909036E+0	1.949308E+0	1.868084E+0	1.947139E+0	1.892209E+0	1.932257E+0	1.967260E+0	1.889135E+0	1.921046E+0	1.949393E+0	1.917865E+0	1.893141E+0	1.887551E+0	1.934385E+0	1.892330E+0	1.945509E+0	1.983930E+0	1.991001E+0	1.959015E+0	1.971240E+0	1.931714E+0	1.959543E+0	1.924088E+0	2.046377E+0	1.959228E+0	1.951037E+0	1.906237E+0	1.943512E+0	1.860964E+0	1.956528E+0	1.992805E+0	1.892040E+0	1.894242E+0	1.921304E+0	1.907326E+0	1.957316E+0	1.902693E+0	1.963984E+0	1.936560E+0	1.967536E+0	1.916868E+0	1.947861E+0	1.928190E+0	1.855972E+0	1.884515E+0	1.922889E+0	1.939682E+0	1.870014E+0	1.939215E+0	1.839792E+0	1.970564E+0	1.918695E+0	1.900964E+0	1.980639E+0	1.880877E+0	1.958474E+0	1.905661E+0	1.941103E+0	1.970328E+0	1.866046E+0	1.892089E+0	1.924579E+0	1.885097E+0	1.843812E+0	1.947746E+0	1.881667E+0	1.991079E+0	1.912078E+0	1.881546E+0	1.906769E+0	1.908396E+0	1.910949E+0	1.919936E+0	1.927183E+0	1.930046E+0	1.938299E+0	1.944858E+0	1.864156E+0	1.905881E+0	1.933271E+0	1.901913E+0	1.949758E+0	1.928377E+0	1.978078E+0	1.894305E+0	1.944636E+0	1.943077E+0	1.896095E+0	1.964789E+0	1.933566E+0	1.960594E+0	1.859189E+0	1.831821E+0	2.011892E+0	1.977598E+0	1.855745E+0	1.896556E+0	1.860874E+0	1.873952E+0	1.867336E+0	1.874773E+0	1.929267E+0	1.891609E+0	1.810586E+0	1.979758E+0	1.908880E+0	1.900337E+0	1.850392E+0	1.907632E+0	1.834990E+0	1.918964E+0	1.873529E+0	1.881825E+0	1.903079E+0	1.857158E+0	1.850487E+0	1.931915E+0	1.894743E+0
5.352550E+2	1.700727E+0	1.758046E+0	1.834056E+0	1.827552E+0	1.750452E+0	1.741954E+0	1.719912E+0	1.812795E+0	1.849696E+0	1.828297E+0	1.762899E+0	1.762600E+0	1.715658E+0	1.719969E+0	1.795342E+0	1.761883E+0	1.790379E+0	1.795261E+0	1.845616E+0	1.682187E+0	1.793104E+0	1.784976E+0	1.787690E+0	1.775494E+0	1.666869E+0	1.681075E+0	1.673642E+0	1.680735E+0	1.673084E+0	1.715510E+0	1.681069E+0	1.711954E+0	1.708007E+0	1.765005E+0	1.702591E+0	1.758377E+0	1.708183E+0	1.688026E+0	1.749063E+0	1.727210E+0	1.776412E+0	1.714607E+0	1.748526E+0	1.783284E+0	1.714756E+0	1.847861E+0	1.742990E+0	1.677000E+0	1.736229E+0	1.707018E+0	1.741234E+0	1.706645E+0	1.742995E+0	1.761384E+0	1.700928E+0	1.665689E+0	1.676914E+0	1.769899E+0	1.751869E+0	1.713997E+0	1.693917E+0	1.709501E+0	1.709215E+0	1.663845E+0	1.740618E+0	1.697614E+0	1.677677E+0	1.664571E+0	1.709491E+0	1.715882E+0	1.700528E+0	1.725623E+0	1.720845E+0	1.740486E+0	1.687303E+0	1.784563E+0	1.660214E+0	1.719763E+0	1.730055E+0	1.694061E+0	1.640653E+0	1.727808E+0	1.799441E+0	1.700482E+0	1.675230E+0	1.802963E+0	1.714674E+0	1.725788E+0	1.674851E+0	1.697140E+0	1.685121E+0	1.693380E+0	1.722845E+0	1.725470E+0	1.718900E+0	1.718035E+0	1.709949E+0	1.734749E+0	1.708099E+0	1.732980E+0	1.727566E+0	1.722646E+0	1.694041E+0	1.705839E+0	1.775970E+0	1.713472E+0	1.721490E+0	1.718118E+0	1.714142E+0	1.742839E+0	1.753054E+0	1.748139E+0	1.680859E+0	1.711614E+0	1.713632E+0	1.782016E+0	1.756546E+0	1.698157E+0	1.694596E+0	1.685989E+0	1.699502E+0	1.670439E+0	1.683767E+0	1.705256E+0	1.725930E+0	1.728019E+0	1.711086E+0	1.788850E+0	1.727877E+0	1.757700E+0	1.670882E+0	1.678608E+0	1.780160E+0	1.730647E+0	1.754815E+0	1.754621E+0	1.719350E+0	1.725360E+0	1.723908E+0	1.738047E+0	1.713077E+0	1.745549E+0	1.738683E+0	1.676208E+0	1.658616E+0	1.694662E+0	1.704239E+0	1.704404E+0	1.662637E+0	1.651891E+0	1.761682E+0	1.757868E+0	1.728162E+0	1.727446E+0	1.696144E+0	1.674455E+0	1.649481E+0	1.743456E+0	1.711160E+0	1.659152E+0	1.634477E+0	1.665952E+0	1.687053E+0	1.691103E+0	1.693552E+0	1.684177E+0	1.666540E+0	1.729094E+0	1.731028E+0	1.664621E+0
5.354110E+2	1.349241E+0	1.435620E+0	1.452529E+0	1.440191E+0	1.422491E+0	1.411472E+0	1.395281E+0	1.373079E+0	1.395192E+0	1.451574E+0	1.360099E+0	1.450113E+0	1.458571E+0	1.396096E+0	1.402952E+0	1.402566E+0	1.397599E+0	1.413834E+0	1.493310E+0	1.382625E+0	1.458621E+0	1.472229E+0	1.479186E+0	1.417940E+0	1.320071E+0	1.355109E+0	1.382181E+0	1.370117E+0	1.395973E+0	1.453017E+0	1.361641E+0	1.408137E+0	1.340754E+0	1.380646E+0	1.404441E+0	1.358397E+0	1.388108E+0	1.370473E+0	1.375515E+0	1.381700E+0	1.420928E+0	1.415758E+0	1.361942E+0	1.382825E+0	1.401316E+0	1.440066E+0	1.380357E+0	1.349076E+0	1.370814E+0	1.381006E+0	1.354875E+0	1.394550E+0	1.395447E+0	1.372653E+0	1.416314E+0	1.381802E+0	1.368716E+0	1.483214E+0	1.412601E+0	1.381950E+0	1.392233E+0	1.373467E+0	1.391505E+0	1.406817E+0	1.386013E+0	1.384811E+0	1.401106E+0	1.396120E+0	1.402165E+0	1.413362E+0	1.403210E+0	1.416947E+0	1.417948E+0	1.400448E+0	1.393613E+0	1.412876E+0	1.375307E+0	1.389752E+0	1.410739E+0	1.392490E+0	1.334679E+0	1.400660E+0	1.391595E+0	1.408928E+0	1.322872E+0	1.429467E+0	1.364689E+0	1.322232E+0	1.384736E+0	1.333319E+0	1.378174E+0	1.389351E+0	1.400194E+0	1.408917E+0	1.385975E+0	1.378994E+0	1.387034E+0	1.405667E+0	1.373413E+0	1.422107E+0	1.424561E+0	1.389319E+0	1.392915E+0	1.352149E+0	1.411908E+0	1.389941E+0	1.437239E+0	1.415171E+0	1.405127E+0	1.427031E+0	1.388371E+0	1.407055E+0	1.367972E+0	1.358604E+0	1.396566E+0	1.379614E+0	1.410738E+0	1.396251E+0	1.373770E+0	1.402744E+0	1.366663E+0	1.377738E+0	1.409919E+0	1.437594E+0	1.380093E+0	1.403539E+0	1.406941E+0	1.385217E+0	1.351589E+0	1.387749E+0	1.325096E+0	1.362492E+0	1.403348E+0	1.429854E+0	1.396027E+0	1.392251E+0	1.398114E+0	1.412674E+0	1.370543E+0	1.399898E+0	1.414942E+0	1.394607E+0	1.389903E+0	1.374530E+0	1.397569E+0	1.407031E+0	1.382758E+0	1.334998E+0	1.389133E+0	1.380487E+0	1.360932E+0	1.378986E+0	1.393438E+0	1.421953E+0	1.393420E+0	1.388637E+0	1.332560E+0	1.420631E+0	1.399607E+0	1.400776E+0	1.341021E+0	1.387276E+0	1.354258E+0	1.413111E+0	1.390703E+0	1.431063E+0	1.360624E+0	1.414290E+0	1.284977E+0	1.462391E+0
5.355580E+2	1.296965E+0	1.260362E+0	1.319821E+0	1.297573E+0	1.326751E+0	1.282772E+0	1.222082E+0	1.322696E+0	1.270013E+0	1.312560E+0	1.265981E+0	1.336720E+0	1.269665E+0	1.308315E+0	1.294214E+0	1.302021E+0	1.341831E+0	1.339199E+0	1.338843E+0	1.274721E+0	1.344420E+0	1.335407E+0	1.341019E+0	1.286033E+0	1.217038E+0	1.289039E+0	1.280831E+0	1.246394E+0	1.308762E+0	1.228635E+0	1.249035E+0	1.225372E+0	1.232575E+0	1.263498E+0	1.229209E+0	1.240549E+0	1.283267E+0	1.286867E+0	1.234218E+0	1.285441E+0	1.284008E+0	1.309051E+0	1.306088E+0	1.224556E+0	1.246145E+0	1.293399E+0	1.197303E+0	1.223664E+0	1.231650E+0	1.222591E+0	1.325009E+0	1.263307E+0	1.293415E+0	1.245807E+0	1.308990E+0	1.255762E+0	1.245067E+0	1.305936E+0	1.279328E+0	1.292084E+0	1.214698E+0	1.283795E+0	1.230255E+0	1.248652E+0	1.271211E+0	1.285088E+0	1.211092E+0	1.284997E+0	1.275021E+0	1.309414E+0	1.284386E+0	1.322966E+0	1.252427E+0	1.282732E+0	1.252578E+0	1.307656E+0	1.257724E+0	1.316115E+0	1.273946E+0	1.253827E+0	1.266416E+0	1.308674E+0	1.297716E+0	1.286900E+0	1.246024E+0	1.305241E+0	1.250772E+0	1.282623E+0	1.253706E+0	1.263527E+0	1.280876E+0	1.256677E+0	1.232397E+0	1.251865E+0	1.243790E+0	1.227809E+0	1.256980E+0	1.318071E+0	1.266074E+0	1.283501E+0	1.340617E+0	1.204991E+0	1.290113E+0	1.300914E+0	1.266057E+0	1.297052E+0	1.252504E+0	1.277901E+0	1.282852E+0	1.299497E+0	1.338533E+0	1.298170E+0	1.310326E+0	1.233718E+0	1.258493E+0	1.250590E+0	1.325686E+0	1.333592E+0	1.284120E+0	1.256156E+0	1.311213E+0	1.268373E+0	1.311593E+0	1.294826E+0	1.259399E+0	1.264953E+0	1.285748E+0	1.271075E+0	1.278545E+0	1.287136E+0	1.315341E+0	1.249672E+0	1.282695E+0	1.293927E+0	1.307458E+0	1.271889E+0	1.247064E+0	1.228034E+0	1.256626E+0	1.268596E+0	1.329081E+0	1.226950E+0	1.292798E+0	1.291381E+0	1.313218E+0	1.282445E+0	1.284025E+0	1.274981E+0	1.235980E+0	1.341213E+0	1.313430E+0	1.258030E+0	1.345437E+0	1.279769E+0	1.337317E+0	1.215562E+0	1.257720E+0	1.267066E+0	1.241496E+0	1.274525E+0	1.262839E+0	1.244918E+0	1.357419E+0	1.364330E+0	1.250310E+0	1.248084E+0	1.257030E+0	1.279258E+0	1.278186E+0	1.268447E+0
5.357190E+2	1.058532E+0	1.086047E+0	1.095074E+0	1.101124E+0	1.137843E+0	1.143431E+0	1.061509E+0	1.061582E+0	1.076906E+0	1.066117E+0	1.075172E+0	1.092135E+0	1.098138E+0	1.100822E+0	1.069767E+0	1.090941E+0	1.041113E+0	1.118392E+0	1.130004E+0	1.043418E+0	1.116509E+0	1.075271E+0	1.094471E+0	1.081469E+0	1.043285E+0	1.079132E+0	1.037586E+0	1.060551E+0	1.068936E+0	1.079661E+0	1.086677E+0	1.057754E+0	1.040279E+0	1.111030E+0	1.039367E+0	1.049293E+0	1.063558E+0	1.060052E+0	1.110592E+0	1.064902E+0	1.060459E+0	1.091970E+0	1.058859E+0	1.081460E+0	1.074292E+0	1.102567E+0	1.113759E+0	1.038013E+0	1.063333E+0	1.072849E+0	1.091003E+0	1.054936E+0	1.076183E+0	1.064713E+0	1.073252E+0	1.039964E+0	1.086722E+0	1.082553E+0	1.066052E+0	1.071286E+0	1.061707E+0	1.110505E+0	1.079116E+0	1.078113E+0	1.049474E+0	1.070434E+0	1.089238E+0	1.098846E+0	1.118798E+0	1.077042E+0	1.065253E+0	1.065652E+0	1.056277E+0	1.113177E+0	1.083174E+0	1.142881E+0	1.067912E+0	1.074479E+0	1.054469E+0	1.090281E+0	1.068005E+0	1.108287E+0	1.093022E+0	1.087717E+0	1.017708E+0	1.087496E+0	1.039515E+0	1.074870E+0	1.034449E+0	1.106423E+0	1.066060E+0	1.090084E+0	1.027707E+0	1.118107E+0	1.091781E+0	1.076687E+0	1.044834E+0	1.073236E+0	1.077123E+0	1.064456E+0	1.112292E+0	1.082746E+0	1.111653E+0	1.059851E+0	1.060722E+0	1.073407E+0	1.042878E+0	1.073264E+0	1.064037E+0	1.065350E+0	1.073837E+0	1.078300E+0	1.066915E+0	1.056931E+0	1.061706E+0	1.051312E+0	1.137322E+0	1.038954E+0	1.121397E+0	1.067836E+0	1.061905E+0	1.067670E+0	1.090462E+0	1.058392E+0	1.038029E+0	1.088126E+0	1.029319E+0	1.071437E+0	1.120982E+0	1.131706E+0	1.096211E+0	1.103023E+0	1.084208E+0	1.122686E+0	1.113257E+0	1.091109E+0	1.086355E+0	1.127008E+0	1.066469E+0	1.039680E+0	1.077350E+0	1.076491E+0	1.112682E+0	1.098852E+0	1.068090E+0	1.120517E+0	1.022110E+0	1.089996E+0	1.068788E+0	1.081002E+0	1.038718E+0	1.093509E+0	1.078129E+0	1.061191E+0	1.080773E+0	1.055521E+0	1.068501E+0	1.103032E+0	1.078787E+0	1.064216E+0	1.059346E+0	1.088195E+0	1.045418E+0	1.078095E+0	1.063257E+0	1.088979E+0	1.086901E+0	1.137393E+0	1.000907E+0	1.055365E+0
5.358650E+2	8.228669E-1	8.630121E-1	8.390139E-1	8.904410E-1	8.231452E-1	8.844929E-1	8.265757E-1	8.482337E-1	8.382215E-1	8.612989E-1	7.987168E-1	9.059524E-1	8.295381E-1	8.853126E-1	8.710127E-1	8.354809E-1	8.477074E-1	9.217527E-1	8.663232E-1	8.376075E-1	8.210372E-1	8.598933E-1	8.499806E-1	8.725468E-1	8.058640E-1	8.629950E-1	8.395162E-1	8.149634E-1	8.397858E-1	8.740534E-1	8.063637E-1	8.568752E-1	8.270463E-1	8.532103E-1	7.955443E-1	9.025332E-1	8.270754E-1	7.854695E-1	8.784487E-1	8.547355E-1	8.855337E-1	8.404507E-1	8.617711E-1	8.836477E-1	8.339458E-1	8.492075E-1	8.569907E-1	8.376131E-1	8.180668E-1	8.620702E-1	8.019650E-1	8.271944E-1	8.397436E-1	8.609522E-1	8.631219E-1	8.160900E-1	8.752719E-1	8.310067E-1	8.499696E-1	9.010725E-1	8.581512E-1	8.441502E-1	8.638302E-1	8.497625E-1	8.349671E-1	8.799639E-1	7.926246E-1	8.787623E-1	8.515057E-1	8.527680E-1	8.442526E-1	8.459925E-1	8.413342E-1	8.613665E-1	8.508804E-1	8.848869E-1	8.484105E-1	7.980248E-1	8.622035E-1	8.569582E-1	7.682457E-1	8.374414E-1	8.617200E-1	7.976707E-1	8.490857E-1	8.702857E-1	8.273664E-1	8.566733E-1	8.493342E-1	8.731223E-1	8.345672E-1	8.301460E-1	8.539539E-1	8.721617E-1	8.765741E-1	8.387644E-1	8.324746E-1	8.532291E-1	8.521628E-1	8.714078E-1	8.243652E-1	8.475064E-1	8.669375E-1	8.889649E-1	8.515512E-1	8.630129E-1	8.375587E-1	8.483367E-1	8.387126E-1	8.761863E-1	8.479151E-1	8.495819E-1	8.599733E-1	8.702554E-1	8.811224E-1	8.078186E-1	8.645760E-1	8.661657E-1	8.334389E-1	8.706697E-1	8.774485E-1	8.286717E-1	8.818434E-1	8.647597E-1	8.689957E-1	8.554005E-1	8.650102E-1	8.663271E-1	8.511030E-1	8.471690E-1	8.810617E-1	8.184167E-1	8.555839E-1	8.886286E-1	8.648953E-1	8.879219E-1	8.678228E-1	8.661374E-1	8.820835E-1	8.217355E-1	8.361917E-1	8.504731E-1	8.857986E-1	8.387706E-1	8.338827E-1	8.656660E-1	8.461413E-1	8.517964E-1	8.870438E-1	8.527718E-1	8.441648E-1	8.345428E-1	8.334851E-1	8.940863E-1	8.459092E-1	8.296269E-1	8.700594E-1	8.713914E-1	8.520066E-1	8.345699E-1	8.168995E-1	8.412793E-1	8.321778E-1	8.268965E-1	8.546714E-1	8.666570E-1	8.911710E-1	8.302775E-1	8.255800E-1	8.980001E-1
5.360120E+2	7.599157E-1	7.871148E-1	7.802821E-1	7.717205E-1	7.996394E-1	7.951889E-1	7.451968E-1	7.960777E-1	7.626923E-1	7.804229E-1	7.578340E-1	7.213104E-1	7.662821E-1	7.842137E-1	7.645614E-1	7.693084E-1	7.888070E-1	7.911410E-1	7.880969E-1	7.489707E-1	7.558123E-1	8.068513E-1	7.639065E-1	7.549796E-1	7.590807E-1	7.580544E-1	7.593567E-1	7.846825E-1	7.258243E-1	7.712365E-1	7.880832E-1	7.585089E-1	7.326310E-1	7.958125E-1	7.795813E-1	7.230283E-1	7.366418E-1	7.870073E-1	7.820339E-1	7.775722E-1	7.860368E-1	8.110135E-1	7.589116E-1	7.966130E-1	7.396729E-1	7.913233E-1	7.540148E-1	7.746971E-1	7.481552E-1	7.822073E-1	7.836366E-1	7.803891E-1	7.268103E-1	7.447281E-1	8.024161E-1	7.961508E-1	7.614077E-1	7.336318E-1	7.560266E-1	7.579264E-1	7.377848E-1	7.698338E-1	7.783017E-1	7.740175E-1	7.527164E-1	7.513421E-1	7.247269E-1	7.687446E-1	8.072795E-1	7.525235E-1	7.521029E-1	7.820584E-1	7.676146E-1	7.529794E-1	7.615833E-1	7.767607E-1	7.715793E-1	7.483784E-1	7.649366E-1	7.617461E-1	7.362484E-1	7.923210E-1	7.701786E-1	7.896873E-1	7.566310E-1	8.095131E-1	7.814224E-1	7.459707E-1	7.540063E-1	7.728802E-1	7.951123E-1	7.573354E-1	7.348199E-1	7.895586E-1	7.457759E-1	7.314304E-1	7.640407E-1	8.016600E-1	7.567257E-1	7.628364E-1	8.054383E-1	7.284564E-1	7.844871E-1	7.767538E-1	8.015349E-1	7.809726E-1	7.542485E-1	7.480347E-1	7.612106E-1	7.840902E-1	7.468086E-1	7.939614E-1	7.644828E-1	7.660652E-1	7.714076E-1	7.528680E-1	7.522605E-1	7.830361E-1	7.874749E-1	7.562859E-1	7.329458E-1	8.020242E-1	7.834904E-1	7.528560E-1	7.441965E-1	7.818135E-1	7.833352E-1	8.100704E-1	8.157383E-1	7.608201E-1	7.678517E-1	7.888996E-1	8.094122E-1	7.544065E-1	7.808010E-1	7.518063E-1	7.924671E-1	7.371101E-1	7.461099E-1	7.538336E-1	7.784032E-1	7.836788E-1	7.821123E-1	7.383119E-1	7.628688E-1	8.184476E-1	8.047944E-1	7.208848E-1	7.670425E-1	7.656967E-1	7.642043E-1	7.683211E-1	7.396835E-1	8.025634E-1	7.568667E-1	7.596723E-1	8.023804E-1	7.939814E-1	7.706963E-1	7.960890E-1	7.478790E-1	7.828304E-1	7.778903E-1	7.951723E-1	8.071994E-1	8.039316E-1	8.011079E-1	7.721701E-1	7.654798E-1	7.335273E-1
5.362680E+2	5.902095E-1	6.030331E-1	6.331775E-1	6.399430E-1	5.856029E-1	6.188925E-1	6.040591E-1	6.059939E-1	6.500371E-1	6.134854E-1	6.105725E-1	6.312869E-1	6.297949E-1	5.924165E-1	6.490559E-1	5.937298E-1	6.087695E-1	5.976845E-1	6.573951E-1	5.624133E-1	5.858380E-1	6.394051E-1	6.271593E-1	6.134615E-1	5.656488E-1	6.310047E-1	6.563627E-1	5.908282E-1	5.904564E-1	5.916677E-1	5.804596E-1	6.026747E-1	6.238859E-1	6.103209E-1	5.822794E-1	5.886423E-1	6.578127E-1	6.114937E-1	6.364505E-1	5.935160E-1	6.000810E-1	5.849974E-1	6.207442E-1	5.860405E-1	6.027299E-1	6.147003E-1	6.397712E-1	6.034137E-1	5.729660E-1	6.119249E-1	5.865647E-1	6.316871E-1	6.257919E-1	5.968033E-1	6.465961E-1	6.108648E-1	6.045501E-1	6.487493E-1	6.344476E-1	5.901834E-1	6.061789E-1	5.877346E-1	6.186296E-1	5.996945E-1	6.161131E-1	6.505220E-1	5.900361E-1	6.076584E-1	6.301969E-1	6.237615E-1	6.483671E-1	6.069203E-1	6.418811E-1	6.387035E-1	6.059028E-1	6.486514E-1	5.852036E-1	6.518437E-1	5.953110E-1	6.089504E-1	6.154554E-1	5.559327E-1	6.220472E-1	6.226637E-1	5.815491E-1	6.300064E-1	6.148651E-1	6.218136E-1	5.749628E-1	5.960684E-1	5.870311E-1	6.146053E-1	6.230895E-1	6.222027E-1	6.094578E-1	5.949528E-1	6.178760E-1	6.204544E-1	5.862499E-1	6.154785E-1	6.384295E-1	6.431963E-1	5.947652E-1	6.283260E-1	5.904829E-1	6.250072E-1	6.204238E-1	6.308410E-1	6.229975E-1	6.249336E-1	5.934930E-1	6.325130E-1	5.764978E-1	6.311160E-1	6.561553E-1	5.774700E-1	6.113126E-1	5.927095E-1	6.524386E-1	6.219531E-1	6.092602E-1	6.060268E-1	6.373466E-1	6.157845E-1	6.202769E-1	6.291717E-1	6.112232E-1	6.065020E-1	6.562474E-1	6.125980E-1	6.125603E-1	5.664891E-1	6.249542E-1	6.219922E-1	6.069155E-1	6.123440E-1	6.127880E-1	6.115437E-1	6.380930E-1	6.487132E-1	5.997839E-1	6.271751E-1	5.988004E-1	6.178806E-1	6.334981E-1	6.182547E-1	6.311972E-1	6.440570E-1	6.089136E-1	6.206418E-1	6.187331E-1	6.409160E-1	6.523999E-1	6.458275E-1	6.087319E-1	6.006720E-1	5.883255E-1	6.306427E-1	6.222824E-1	6.246355E-1	6.151053E-1	6.331962E-1	6.165298E-1	6.190876E-1	6.179172E-1	6.073658E-1	6.342732E-1	6.135172E-1	6.403316E-1	6.068341E-1
5.365140E+2	4.562480E-1	4.526942E-1	4.864546E-1	4.650530E-1	5.041171E-1	5.074706E-1	4.957062E-1	4.704086E-1	5.060933E-1	4.791492E-1	4.848157E-1	5.330903E-1	4.961426E-1	4.765061E-1	5.298666E-1	4.693505E-1	4.710576E-1	4.737854E-1	5.321732E-1	4.913358E-1	4.861282E-1	4.545555E-1	5.179298E-1	5.056749E-1	4.818850E-1	4.706718E-1	4.541093E-1	4.868786E-1	4.836640E-1	4.688864E-1	4.763388E-1	5.037349E-1	4.753543E-1	4.841147E-1	4.779113E-1	5.263618E-1	4.876268E-1	4.953852E-1	4.782656E-1	4.722258E-1	5.279232E-1	5.204157E-1	5.302835E-1	5.059555E-1	5.107598E-1	4.995405E-1	5.101747E-1	4.683095E-1	5.347496E-1	4.748312E-1	4.859844E-1	4.860718E-1	4.831330E-1	5.007587E-1	4.893223E-1	4.787676E-1	4.898183E-1	4.898282E-1	4.859350E-1	5.054762E-1	4.665064E-1	5.097624E-1	4.856616E-1	4.977239E-1	5.038630E-1	5.064663E-1	4.726135E-1	4.802931E-1	4.975534E-1	4.985612E-1	4.841878E-1	4.702090E-1	4.803752E-1	5.153475E-1	4.677620E-1	4.958450E-1	4.887674E-1	4.694292E-1	4.896179E-1	4.752478E-1	4.843574E-1	5.250810E-1	5.231891E-1	4.607402E-1	5.133165E-1	4.991672E-1	4.709928E-1	4.949411E-1	5.091289E-1	4.780035E-1	4.936646E-1	4.795250E-1	4.917234E-1	5.004259E-1	4.629570E-1	4.755912E-1	5.136471E-1	5.096851E-1	4.883019E-1	4.840136E-1	4.909952E-1	5.008686E-1	4.790535E-1	4.963561E-1	5.137669E-1	5.162452E-1	4.898205E-1	4.949732E-1	5.282503E-1	5.049790E-1	4.767738E-1	5.156272E-1	4.785948E-1	4.852215E-1	4.979045E-1	5.069279E-1	4.943656E-1	4.992618E-1	4.931045E-1	4.860230E-1	4.873954E-1	5.424060E-1	5.174259E-1	4.814506E-1	4.971379E-1	5.155334E-1	4.968875E-1	4.759131E-1	5.011538E-1	4.979954E-1	4.716376E-1	5.039012E-1	5.200034E-1	4.805820E-1	4.993017E-1	5.291784E-1	4.918156E-1	5.129276E-1	4.964894E-1	4.835952E-1	4.808035E-1	5.290721E-1	5.312765E-1	4.895291E-1	5.078404E-1	5.049851E-1	4.790875E-1	4.990474E-1	4.796970E-1	5.197664E-1	4.975684E-1	4.766943E-1	4.992617E-1	4.949721E-1	5.024643E-1	4.970115E-1	5.060868E-1	5.094445E-1	4.869019E-1	4.604455E-1	4.885720E-1	5.030184E-1	4.891790E-1	4.978452E-1	4.869700E-1	4.793874E-1	4.655446E-1	5.101658E-1	4.578981E-1	5.246306E-1
5.367710E+2	4.934436E-1	4.911605E-1	5.183846E-1	4.845589E-1	4.992146E-1	5.140426E-1	4.841156E-1	5.218800E-1	4.905295E-1	4.835579E-1	4.900841E-1	5.345368E-1	5.173376E-1	4.967051E-1	5.120255E-1	4.903126E-1	4.733609E-1	5.425361E-1	4.979948E-1	4.808058E-1	5.235664E-1	4.975756E-1	5.309796E-1	4.953336E-1	5.343351E-1	5.261485E-1	4.992055E-1	5.319071E-1	5.205385E-1	5.167219E-1	4.880079E-1	5.074148E-1	4.914123E-1	4.983231E-1	5.260719E-1	4.845758E-1	5.252788E-1	4.973029E-1	5.192529E-1	4.857475E-1	5.146795E-1	4.770978E-1	5.181302E-1	5.021418E-1	5.101638E-1	5.319332E-1	5.165019E-1	4.852681E-1	5.132117E-1	4.750477E-1	5.040301E-1	5.076520E-1	5.014758E-1	5.111988E-1	5.364637E-1	5.015150E-1	4.931687E-1	5.136724E-1	5.321248E-1	5.191872E-1	5.282716E-1	5.041640E-1	5.469207E-1	5.172079E-1	4.714966E-1	4.929224E-1	4.655714E-1	5.425249E-1	4.797743E-1	5.341414E-1	5.012693E-1	5.154902E-1	5.274990E-1	5.668559E-1	5.117555E-1	5.055187E-1	4.917103E-1	4.956215E-1	4.939949E-1	5.207316E-1	4.686470E-1	4.983886E-1	4.937060E-1	4.766870E-1	5.057324E-1	5.199963E-1	5.288760E-1	5.287194E-1	5.182429E-1	5.157699E-1	5.021832E-1	4.879368E-1	5.202037E-1	5.253261E-1	5.290892E-1	5.162546E-1	5.138356E-1	5.061622E-1	5.243194E-1	5.085849E-1	4.970115E-1	5.220167E-1	5.063584E-1	5.063865E-1	4.921580E-1	5.152083E-1	4.887903E-1	4.995219E-1	5.238952E-1	4.927470E-1	5.083785E-1	5.103818E-1	5.192004E-1	4.985901E-1	5.198375E-1	5.000604E-1	5.196385E-1	5.251712E-1	5.072612E-1	4.802841E-1	5.242520E-1	5.044880E-1	5.052735E-1	4.798227E-1	4.749381E-1	4.927028E-1	4.920380E-1	4.913070E-1	5.128887E-1	5.241304E-1	5.021388E-1	5.052569E-1	5.034916E-1	4.978612E-1	4.906293E-1	5.182505E-1	5.108730E-1	5.344687E-1	4.963455E-1	5.203389E-1	4.808875E-1	5.183160E-1	5.017722E-1	5.297289E-1	4.779985E-1	5.031084E-1	5.214077E-1	5.248711E-1	5.214594E-1	5.217313E-1	5.134261E-1	4.896033E-1	5.022652E-1	5.027850E-1	5.033860E-1	4.876707E-1	5.139881E-1	5.014717E-1	5.339626E-1	5.247691E-1	4.854463E-1	5.025939E-1	5.228672E-1	4.793553E-1	4.960500E-1	5.212476E-1	4.990198E-1	4.874297E-1	5.171479E-1	5.035183E-1
5.370170E+2	5.485982E-1	5.604311E-1	5.780477E-1	5.688668E-1	5.456448E-1	5.807482E-1	5.507814E-1	5.320623E-1	4.967547E-1	5.397961E-1	5.688365E-1	5.598340E-1	5.441398E-1	5.462772E-1	5.758253E-1	5.279291E-1	5.366295E-1	5.251246E-1	5.454545E-1	5.423044E-1	5.664933E-1	5.378302E-1	5.464583E-1	5.257696E-1	5.608814E-1	5.652958E-1	5.623604E-1	5.650866E-1	5.751361E-1	5.582198E-1	5.616061E-1	5.548994E-1	5.396934E-1	5.575338E-1	5.039423E-1	5.471847E-1	5.869523E-1	5.521319E-1	5.627798E-1	5.594908E-1	5.612530E-1	5.743276E-1	5.649959E-1	5.364418E-1	5.371550E-1	5.462890E-1	5.049994E-1	5.478445E-1	5.363579E-1	5.625594E-1	6.024203E-1	5.430411E-1	5.596728E-1	5.504845E-1	5.685183E-1	5.416762E-1	5.205764E-1	5.398518E-1	5.194785E-1	5.585396E-1	5.564243E-1	5.414163E-1	5.844594E-1	5.408208E-1	5.593917E-1	5.459095E-1	5.408673E-1	5.408808E-1	5.651386E-1	5.255218E-1	5.301359E-1	5.671693E-1	5.518528E-1	5.694690E-1	5.879552E-1	5.523543E-1	5.450092E-1	5.611290E-1	5.586258E-1	5.600431E-1	5.340390E-1	5.492941E-1	5.730526E-1	5.947725E-1	5.157454E-1	5.978167E-1	5.235767E-1	5.445903E-1	5.562487E-1	5.670435E-1	5.589954E-1	5.573272E-1	5.590872E-1	5.449075E-1	5.386011E-1	5.519527E-1	5.230966E-1	5.663258E-1	5.570543E-1	5.347525E-1	5.802290E-1	5.547452E-1	5.417340E-1	5.565355E-1	5.640513E-1	5.259847E-1	5.681175E-1	5.814612E-1	5.390707E-1	5.516179E-1	5.582262E-1	5.463797E-1	5.414363E-1	5.225812E-1	5.549487E-1	5.698586E-1	5.561200E-1	5.469152E-1	5.618859E-1	5.917373E-1	5.269198E-1	5.347947E-1	5.563405E-1	5.528557E-1	5.541641E-1	5.690503E-1	5.286052E-1	5.391676E-1	5.467019E-1	5.685951E-1	5.754742E-1	5.163765E-1	5.624100E-1	5.633876E-1	5.592430E-1	5.543903E-1	5.750566E-1	5.505331E-1	5.650463E-1	5.397991E-1	5.176995E-1	5.758585E-1	5.451810E-1	5.552126E-1	5.509103E-1	5.573883E-1	5.761891E-1	5.417198E-1	5.209669E-1	5.272665E-1	5.412522E-1	5.709526E-1	5.793236E-1	5.634204E-1	5.771743E-1	5.543419E-1	5.620260E-1	5.774247E-1	6.010066E-1	5.727319E-1	5.455846E-1	5.473777E-1	5.425866E-1	5.759083E-1	5.619428E-1	5.521471E-1	5.608527E-1	5.537676E-1	5.372517E-1	5.558616E-1
5.372640E+2	5.740754E-1	5.751171E-1	6.126700E-1	6.189743E-1	6.089802E-1	5.885656E-1	6.190329E-1	5.710361E-1	6.111870E-1	6.031678E-1	6.241736E-1	6.026926E-1	6.281279E-1	5.563155E-1	5.820857E-1	5.941292E-1	6.244557E-1	6.203864E-1	6.066050E-1	5.294081E-1	5.843461E-1	5.830723E-1	6.097786E-1	5.981260E-1	6.138713E-1	5.886147E-1	6.126770E-1	5.873214E-1	6.254686E-1	6.146485E-1	5.859999E-1	6.379679E-1	5.948933E-1	5.779725E-1	6.091019E-1	6.286840E-1	5.990241E-1	5.953924E-1	6.329489E-1	5.863613E-1	6.033934E-1	6.427950E-1	6.025514E-1	5.880623E-1	5.863569E-1	5.942717E-1	5.977005E-1	5.974935E-1	5.922547E-1	5.739985E-1	6.267251E-1	6.165724E-1	5.921315E-1	5.974615E-1	5.969354E-1	5.962851E-1	5.751416E-1	6.069187E-1	5.746544E-1	6.070939E-1	5.792292E-1	6.065120E-1	6.169829E-1	6.046917E-1	6.001028E-1	6.293024E-1	5.749369E-1	6.098498E-1	5.954447E-1	6.243127E-1	5.854822E-1	5.876890E-1	5.873712E-1	5.877014E-1	6.243341E-1	6.068012E-1	5.861312E-1	5.878244E-1	6.206734E-1	6.201921E-1	5.556723E-1	6.269247E-1	6.144542E-1	6.211069E-1	5.958461E-1	6.369927E-1	5.955853E-1	6.052114E-1	5.997481E-1	5.980238E-1	5.941794E-1	6.219892E-1	5.861009E-1	5.824223E-1	6.261677E-1	5.527651E-1	5.940812E-1	6.035562E-1	6.066611E-1	5.686932E-1	6.036812E-1	6.220308E-1	6.072431E-1	6.309586E-1	5.987166E-1	5.911304E-1	6.051566E-1	5.822131E-1	6.259874E-1	6.410316E-1	5.984149E-1	6.552803E-1	5.927486E-1	5.933621E-1	5.762770E-1	5.778785E-1	6.285614E-1	6.135541E-1	6.159679E-1	5.897749E-1	6.050652E-1	5.950587E-1	6.293167E-1	6.203623E-1	6.043364E-1	6.164201E-1	6.164591E-1	6.377802E-1	5.700804E-1	5.905962E-1	6.200876E-1	5.988681E-1	6.191611E-1	6.032892E-1	5.971826E-1	6.343521E-1	6.263897E-1	6.200099E-1	6.042003E-1	5.901384E-1	6.113752E-1	6.057608E-1	6.154988E-1	5.944289E-1	6.212749E-1	5.801445E-1	6.103392E-1	5.969438E-1	6.141772E-1	6.025994E-1	5.922570E-1	6.051276E-1	6.127931E-1	5.899097E-1	6.532149E-1	5.973565E-1	6.044808E-1	6.234240E-1	6.444381E-1	5.816364E-1	5.958701E-1	5.906414E-1	6.110030E-1	6.348598E-1	5.949773E-1	6.123260E-1	6.071758E-1	6.023123E-1	5.885009E-1	5.708251E-1
5.375160E+2	6.509007E-1	6.491719E-1	6.449451E-1	6.774087E-1	6.870399E-1	6.916201E-1	6.972059E-1	6.702670E-1	6.724439E-1	6.734536E-1	6.626071E-1	6.834906E-1	6.585218E-1	6.787852E-1	6.922605E-1	6.649419E-1	6.649831E-1	6.569500E-1	6.853430E-1	6.739919E-1	6.825197E-1	6.287128E-1	6.858369E-1	6.664763E-1	7.282214E-1	6.436120E-1	6.530351E-1	6.957222E-1	6.845969E-1	6.521708E-1	7.130730E-1	6.947016E-1	7.111340E-1	6.942893E-1	6.728780E-1	7.226383E-1	6.741215E-1	6.901826E-1	6.857475E-1	6.889031E-1	6.778612E-1	6.914737E-1	6.697838E-1	6.724984E-1	6.614005E-1	6.771969E-1	6.767888E-1	6.931359E-1	6.592337E-1	6.301764E-1	6.725101E-1	6.843938E-1	6.747028E-1	6.488156E-1	6.951779E-1	6.721547E-1	6.668195E-1	6.854686E-1	7.184406E-1	6.898092E-1	6.634523E-1	6.948286E-1	6.944729E-1	6.757654E-1	6.663061E-1	6.157668E-1	6.650384E-1	6.673085E-1	6.988315E-1	6.790720E-1	6.637131E-1	6.716808E-1	6.938872E-1	6.700678E-1	6.746914E-1	7.330223E-1	6.693950E-1	6.686219E-1	7.026310E-1	7.006672E-1	6.697383E-1	6.891804E-1	6.575045E-1	6.690800E-1	6.519813E-1	7.071970E-1	6.554338E-1	6.825096E-1	6.895924E-1	6.914923E-1	7.022586E-1	7.075373E-1	6.853476E-1	6.546317E-1	6.885409E-1	6.758314E-1	6.743577E-1	6.783888E-1	6.902827E-1	6.542800E-1	6.737388E-1	7.178716E-1	6.655303E-1	6.613598E-1	6.919471E-1	6.813742E-1	6.945625E-1	7.085900E-1	6.461142E-1	6.627873E-1	7.058544E-1	6.781820E-1	6.257158E-1	6.574516E-1	6.531010E-1	6.488473E-1	6.989273E-1	6.561838E-1	6.746499E-1	6.667615E-1	6.805323E-1	6.578553E-1	7.142194E-1	6.932013E-1	6.696796E-1	6.869651E-1	6.516750E-1	6.899929E-1	7.270686E-1	6.508272E-1	7.011290E-1	6.832493E-1	6.636798E-1	7.112834E-1	6.769026E-1	6.561230E-1	7.070276E-1	6.469147E-1	6.924332E-1	6.797081E-1	6.609204E-1	6.860928E-1	6.730089E-1	6.632913E-1	7.179033E-1	7.214524E-1	6.827543E-1	6.361541E-1	6.642906E-1	6.428792E-1	6.960106E-1	7.068810E-1	6.957673E-1	6.719359E-1	7.021690E-1	6.580829E-1	6.779983E-1	6.658435E-1	7.131234E-1	6.752054E-1	6.353752E-1	6.635208E-1	7.130216E-1	6.847762E-1	6.680841E-1	7.097183E-1	7.034299E-1	7.147545E-1	6.121629E-1	6.905967E-1
5.377630E+2	8.048363E-1	8.316007E-1	7.947155E-1	7.792945E-1	8.365485E-1	8.101527E-1	8.506417E-1	8.509591E-1	8.336972E-1	7.980099E-1	8.011727E-1	8.730102E-1	7.877801E-1	8.024748E-1	8.481506E-1	8.101531E-1	8.277372E-1	8.234272E-1	8.063131E-1	8.265950E-1	8.232023E-1	8.165452E-1	8.213225E-1	8.264488E-1	8.353031E-1	8.116309E-1	8.635807E-1	7.844673E-1	8.419901E-1	8.253526E-1	8.574433E-1	8.509451E-1	8.156724E-1	8.458104E-1	8.108350E-1	8.154033E-1	8.389231E-1	8.660509E-1	8.082652E-1	8.561251E-1	8.408192E-1	8.480528E-1	8.141298E-1	7.933471E-1	7.975647E-1	8.293252E-1	8.081278E-1	8.170700E-1	8.360859E-1	8.588809E-1	8.091818E-1	8.012871E-1	8.149407E-1	8.456025E-1	8.226217E-1	8.049657E-1	8.057926E-1	8.573087E-1	8.263456E-1	8.781308E-1	7.886593E-1	8.461687E-1	8.268830E-1	7.918756E-1	8.046662E-1	8.426025E-1	8.550571E-1	8.113485E-1	8.455736E-1	8.407619E-1	8.181355E-1	8.205825E-1	8.204988E-1	8.025712E-1	8.625636E-1	8.425502E-1	8.468183E-1	8.024736E-1	8.347512E-1	8.328154E-1	7.344483E-1	8.413340E-1	8.430931E-1	8.465704E-1	8.329146E-1	8.435577E-1	8.102489E-1	8.095404E-1	8.152409E-1	8.372386E-1	7.902977E-1	8.342359E-1	8.098710E-1	8.118432E-1	8.370232E-1	7.999916E-1	8.344547E-1	7.661799E-1	8.375112E-1	8.008254E-1	8.425476E-1	8.314153E-1	8.183933E-1	8.819911E-1	8.450826E-1	8.398927E-1	8.000063E-1	8.332206E-1	8.192875E-1	8.226037E-1	8.094031E-1	8.221556E-1	8.355795E-1	8.087216E-1	8.085240E-1	8.066379E-1	8.477828E-1	8.340781E-1	8.206200E-1	7.765450E-1	8.352984E-1	8.206723E-1	8.506717E-1	8.030017E-1	7.957904E-1	8.334726E-1	8.757640E-1	7.967331E-1	8.264702E-1	8.365569E-1	8.360529E-1	8.224959E-1	8.483768E-1	8.389662E-1	8.552595E-1	8.441329E-1	8.281608E-1	8.659153E-1	8.483377E-1	7.808389E-1	7.958784E-1	8.417559E-1	8.242610E-1	8.205899E-1	8.075235E-1	8.271445E-1	8.449210E-1	8.394958E-1	7.744868E-1	8.275891E-1	8.449200E-1	8.135645E-1	8.012086E-1	8.224589E-1	8.239394E-1	7.708327E-1	8.105307E-1	8.037355E-1	8.423957E-1	8.087887E-1	8.271896E-1	8.089210E-1	8.288877E-1	8.322942E-1	8.192037E-1	8.234911E-1	8.067746E-1	8.554914E-1	7.838220E-1	8.186978E-1
5.380160E+2	9.265664E-1	9.305384E-1	9.264851E-1	9.543891E-1	9.475663E-1	9.618100E-1	9.155428E-1	9.198315E-1	9.542245E-1	8.995667E-1	9.115025E-1	9.262245E-1	9.401248E-1	8.800355E-1	9.410858E-1	8.939197E-1	9.178828E-1	9.175549E-1	9.096968E-1	8.912716E-1	9.447696E-1	9.273102E-1	9.410177E-1	9.192062E-1	9.858246E-1	9.358406E-1	9.343020E-1	9.318192E-1	9.247801E-1	9.310696E-1	9.195851E-1	9.651115E-1	9.385922E-1	9.080545E-1	9.249998E-1	9.258958E-1	9.483632E-1	9.095726E-1	9.218613E-1	8.971387E-1	9.432058E-1	9.548831E-1	9.349892E-1	9.572659E-1	9.286611E-1	9.683759E-1	9.689602E-1	9.043578E-1	9.387103E-1	9.124466E-1	1.000600E+0	9.503352E-1	9.165061E-1	9.236912E-1	9.594966E-1	9.329386E-1	9.277605E-1	9.645094E-1	9.566465E-1	9.590109E-1	9.158145E-1	9.469256E-1	9.615986E-1	9.427965E-1	8.987936E-1	8.867106E-1	9.140397E-1	9.108864E-1	9.804801E-1	9.590166E-1	9.398589E-1	9.441501E-1	8.748413E-1	9.502843E-1	9.248223E-1	9.183610E-1	9.293786E-1	9.132438E-1	9.186893E-1	9.050957E-1	8.986058E-1	9.384835E-1	9.247442E-1	9.158009E-1	8.992826E-1	9.117280E-1	9.607418E-1	9.663409E-1	9.319129E-1	9.119606E-1	9.299308E-1	9.498851E-1	9.053250E-1	9.000839E-1	9.597418E-1	8.811903E-1	9.156939E-1	9.323117E-1	9.260191E-1	9.341206E-1	9.531156E-1	9.515710E-1	9.469215E-1	9.502628E-1	8.688035E-1	8.834004E-1	9.003211E-1	9.359814E-1	9.201942E-1	9.385376E-1	9.272860E-1	9.393318E-1	9.142207E-1	9.052948E-1	9.321519E-1	9.053785E-1	9.489274E-1	9.228560E-1	9.251426E-1	9.406157E-1	9.430430E-1	9.181624E-1	9.362195E-1	9.377163E-1	9.271976E-1	8.975289E-1	9.535278E-1	9.880562E-1	9.537499E-1	9.359471E-1	9.001124E-1	8.867286E-1	9.857578E-1	9.535147E-1	9.255163E-1	9.505675E-1	9.390006E-1	9.455841E-1	1.008391E+0	8.771143E-1	8.850087E-1	9.296137E-1	9.144066E-1	9.305021E-1	9.474900E-1	9.618057E-1	9.393979E-1	9.274694E-1	9.153724E-1	9.218140E-1	9.449046E-1	9.365149E-1	9.419830E-1	9.151943E-1	9.464245E-1	9.507500E-1	9.575893E-1	9.133860E-1	9.256980E-1	9.504957E-1	9.086007E-1	9.229594E-1	9.443335E-1	9.515152E-1	8.964197E-1	8.973396E-1	9.649331E-1	9.282588E-1	8.858966E-1	8.631643E-1
5.382900E+2	1.115769E+0	1.132850E+0	1.127161E+0	1.137130E+0	1.121236E+0	1.169521E+0	1.096114E+0	1.126242E+0	1.129811E+0	1.171700E+0	1.137007E+0	1.229289E+0	1.161201E+0	1.161524E+0	1.082250E+0	1.171122E+0	1.181040E+0	1.094385E+0	1.167036E+0	1.121255E+0	1.134527E+0	1.162368E+0	1.110093E+0	1.119967E+0	1.183756E+0	1.207333E+0	1.144145E+0	1.192226E+0	1.166943E+0	1.128042E+0	1.086987E+0	1.151787E+0	1.129471E+0	1.150832E+0	1.129640E+0	1.109245E+0	1.153044E+0	1.164190E+0	1.129159E+0	1.126207E+0	1.170967E+0	1.125622E+0	1.179024E+0	1.122068E+0	1.128475E+0	1.150019E+0	1.137888E+0	1.086436E+0	1.119559E+0	1.140638E+0	1.159440E+0	1.169823E+0	1.117617E+0	1.109445E+0	1.193143E+0	1.095918E+0	1.136363E+0	1.150198E+0	1.144983E+0	1.153587E+0	1.132369E+0	1.109608E+0	1.197099E+0	1.148791E+0	1.128043E+0	1.152586E+0	1.115133E+0	1.207100E+0	1.166494E+0	1.223267E+0	1.137578E+0	1.103982E+0	1.076182E+0	1.169366E+0	1.155275E+0	1.182664E+0	1.132588E+0	1.088900E+0	1.143756E+0	1.152806E+0	1.090183E+0	1.135814E+0	1.160526E+0	1.208606E+0	1.140815E+0	1.197097E+0	1.126126E+0	1.136979E+0	1.144084E+0	1.147863E+0	1.123163E+0	1.163463E+0	1.156811E+0	1.154688E+0	1.160061E+0	1.158976E+0	1.140942E+0	1.141918E+0	1.198582E+0	1.153355E+0	1.152275E+0	1.139904E+0	1.125964E+0	1.137302E+0	1.118556E+0	1.116590E+0	1.123740E+0	1.131292E+0	1.126253E+0	1.152931E+0	1.192664E+0	1.146096E+0	1.147314E+0	1.064347E+0	1.149643E+0	1.120312E+0	1.167904E+0	1.121303E+0	1.127058E+0	1.137890E+0	1.132000E+0	1.117403E+0	1.170918E+0	1.155280E+0	1.137335E+0	1.153347E+0	1.167201E+0	1.136258E+0	1.174226E+0	1.160729E+0	1.136554E+0	1.117562E+0	1.147795E+0	1.168679E+0	1.137373E+0	1.145258E+0	1.155936E+0	1.141606E+0	1.154468E+0	1.169329E+0	1.126265E+0	1.148442E+0	1.190995E+0	1.140015E+0	1.153958E+0	1.162136E+0	1.092360E+0	1.191600E+0	1.148353E+0	1.139253E+0	1.140907E+0	1.141008E+0	1.141478E+0	1.184239E+0	1.194893E+0	1.090250E+0	1.124671E+0	1.103417E+0	1.135323E+0	1.135795E+0	1.131878E+0	1.156972E+0	1.123694E+0	1.154717E+0	1.128139E+0	1.150307E+0	1.150993E+0	1.143891E+0	1.090662E+0	1.038350E+0
5.385110E+2	1.291382E+0	1.361466E+0	1.312304E+0	1.337426E+0	1.305239E+0	1.296867E+0	1.308181E+0	1.285296E+0	1.319056E+0	1.293805E+0	1.288842E+0	1.304985E+0	1.311197E+0	1.322952E+0	1.371512E+0	1.324279E+0	1.323904E+0	1.338819E+0	1.298539E+0	1.308380E+0	1.319881E+0	1.360081E+0	1.348309E+0	1.298702E+0	1.320923E+0	1.326850E+0	1.354564E+0	1.314131E+0	1.359325E+0	1.308186E+0	1.316900E+0	1.314556E+0	1.355927E+0	1.330977E+0	1.306961E+0	1.366155E+0	1.331013E+0	1.314360E+0	1.321426E+0	1.343206E+0	1.367139E+0	1.335240E+0	1.369198E+0	1.375772E+0	1.364179E+0	1.335506E+0	1.293186E+0	1.289934E+0	1.347359E+0	1.333156E+0	1.317460E+0	1.304425E+0	1.372272E+0	1.342069E+0	1.334095E+0	1.279740E+0	1.282901E+0	1.342165E+0	1.334364E+0	1.347735E+0	1.343525E+0	1.355331E+0	1.273158E+0	1.350166E+0	1.301917E+0	1.296520E+0	1.314036E+0	1.323739E+0	1.363008E+0	1.357948E+0	1.329810E+0	1.279284E+0	1.307757E+0	1.338931E+0	1.334772E+0	1.343140E+0	1.322737E+0	1.346284E+0	1.301796E+0	1.299632E+0	1.293785E+0	1.331017E+0	1.328500E+0	1.323984E+0	1.325447E+0	1.340837E+0	1.333477E+0	1.319605E+0	1.297262E+0	1.379701E+0	1.289080E+0	1.358631E+0	1.273162E+0	1.301048E+0	1.275458E+0	1.305412E+0	1.268387E+0	1.329728E+0	1.319336E+0	1.301797E+0	1.318092E+0	1.295865E+0	1.349778E+0	1.344510E+0	1.296161E+0	1.309098E+0	1.318330E+0	1.308000E+0	1.316631E+0	1.297835E+0	1.299684E+0	1.337567E+0	1.325011E+0	1.235610E+0	1.293797E+0	1.356151E+0	1.347441E+0	1.247823E+0	1.356499E+0	1.377458E+0	1.291512E+0	1.286145E+0	1.333582E+0	1.282397E+0	1.287982E+0	1.280431E+0	1.320625E+0	1.311684E+0	1.332357E+0	1.313589E+0	1.290316E+0	1.335314E+0	1.298650E+0	1.323146E+0	1.319463E+0	1.339814E+0	1.281672E+0	1.382294E+0	1.310927E+0	1.292775E+0	1.337549E+0	1.295689E+0	1.310115E+0	1.253977E+0	1.332807E+0	1.391641E+0	1.324786E+0	1.293018E+0	1.297534E+0	1.272227E+0	1.274399E+0	1.310990E+0	1.264112E+0	1.342628E+0	1.302382E+0	1.330358E+0	1.312420E+0	1.291327E+0	1.366643E+0	1.324930E+0	1.310765E+0	1.276102E+0	1.280467E+0	1.308503E+0	1.270950E+0	1.311553E+0	1.297949E+0	1.270600E+0	1.309966E+0	1.295876E+0
5.387700E+2	1.551027E+0	1.553472E+0	1.559638E+0	1.580359E+0	1.612681E+0	1.564452E+0	1.564101E+0	1.629951E+0	1.578031E+0	1.529212E+0	1.580519E+0	1.631387E+0	1.578825E+0	1.570758E+0	1.581893E+0	1.599317E+0	1.498834E+0	1.594829E+0	1.589670E+0	1.566276E+0	1.574231E+0	1.591052E+0	1.575821E+0	1.528530E+0	1.571772E+0	1.502696E+0	1.589514E+0	1.608068E+0	1.583641E+0	1.583833E+0	1.575215E+0	1.545131E+0	1.536121E+0	1.596577E+0	1.572936E+0	1.619798E+0	1.568126E+0	1.592997E+0	1.585380E+0	1.555889E+0	1.625959E+0	1.581039E+0	1.544573E+0	1.563910E+0	1.582269E+0	1.577699E+0	1.559430E+0	1.557627E+0	1.606896E+0	1.543415E+0	1.568963E+0	1.546345E+0	1.537458E+0	1.571330E+0	1.567669E+0	1.611794E+0	1.535870E+0	1.634816E+0	1.662858E+0	1.578517E+0	1.534130E+0	1.537289E+0	1.575600E+0	1.580990E+0	1.577480E+0	1.617138E+0	1.495160E+0	1.548823E+0	1.606439E+0	1.597989E+0	1.602612E+0	1.550939E+0	1.562933E+0	1.606690E+0	1.562883E+0	1.643763E+0	1.488265E+0	1.506206E+0	1.547715E+0	1.574530E+0	1.547560E+0	1.528067E+0	1.619347E+0	1.571274E+0	1.515490E+0	1.607999E+0	1.558411E+0	1.508514E+0	1.547611E+0	1.585240E+0	1.564548E+0	1.562821E+0	1.569778E+0	1.527740E+0	1.583287E+0	1.544582E+0	1.486538E+0	1.484932E+0	1.584026E+0	1.566620E+0	1.601451E+0	1.500881E+0	1.554366E+0	1.586823E+0	1.565823E+0	1.545410E+0	1.494193E+0	1.597708E+0	1.572090E+0	1.499598E+0	1.540053E+0	1.577837E+0	1.533791E+0	1.510597E+0	1.542168E+0	1.453975E+0	1.609516E+0	1.613353E+0	1.577900E+0	1.530148E+0	1.551117E+0	1.542657E+0	1.630839E+0	1.520268E+0	1.493330E+0	1.557890E+0	1.612700E+0	1.542302E+0	1.574361E+0	1.559396E+0	1.506973E+0	1.513196E+0	1.539950E+0	1.508083E+0	1.539511E+0	1.530362E+0	1.590219E+0	1.532048E+0	1.561290E+0	1.464739E+0	1.565142E+0	1.472749E+0	1.550691E+0	1.536267E+0	1.559880E+0	1.512172E+0	1.616414E+0	1.507809E+0	1.497656E+0	1.526473E+0	1.598676E+0	1.561416E+0	1.499471E+0	1.536065E+0	1.564260E+0	1.578436E+0	1.586035E+0	1.513154E+0	1.568499E+0	1.571146E+0	1.557248E+0	1.508757E+0	1.519368E+0	1.556634E+0	1.520854E+0	1.512143E+0	1.554310E+0	1.529967E+0	1.606997E+0	1.546717E+0
5.390240E+2	1.755793E+0	1.780915E+0	1.739335E+0	1.817283E+0	1.755844E+0	1.773004E+0	1.749769E+0	1.763526E+0	1.770512E+0	1.757222E+0	1.752551E+0	1.785305E+0	1.802040E+0	1.801381E+0	1.753500E+0	1.825069E+0	1.725328E+0	1.787208E+0	1.789196E+0	1.768267E+0	1.809082E+0	1.804156E+0	1.791941E+0	1.739917E+0	1.794770E+0	1.755763E+0	1.801425E+0	1.761280E+0	1.781149E+0	1.759713E+0	1.722147E+0	1.771830E+0	1.819205E+0	1.797615E+0	1.737188E+0	1.738177E+0	1.756874E+0	1.750721E+0	1.787150E+0	1.772641E+0	1.837740E+0	1.778950E+0	1.837515E+0	1.782912E+0	1.757295E+0	1.768280E+0	1.760840E+0	1.782467E+0	1.749122E+0	1.717769E+0	1.746375E+0	1.751349E+0	1.785229E+0	1.782463E+0	1.792627E+0	1.775527E+0	1.785586E+0	1.749714E+0	1.806238E+0	1.767472E+0	1.749210E+0	1.761845E+0	1.762867E+0	1.797124E+0	1.716767E+0	1.752654E+0	1.735123E+0	1.768726E+0	1.755745E+0	1.750967E+0	1.751384E+0	1.824770E+0	1.726526E+0	1.814769E+0	1.737849E+0	1.832238E+0	1.765638E+0	1.745083E+0	1.727274E+0	1.760296E+0	1.719244E+0	1.772073E+0	1.699422E+0	1.750051E+0	1.720010E+0	1.812385E+0	1.684195E+0	1.764426E+0	1.713761E+0	1.775973E+0	1.709848E+0	1.799764E+0	1.730473E+0	1.750292E+0	1.749778E+0	1.694762E+0	1.716069E+0	1.725664E+0	1.818476E+0	1.731513E+0	1.697595E+0	1.719578E+0	1.707045E+0	1.774921E+0	1.672047E+0	1.718177E+0	1.700708E+0	1.778245E+0	1.731064E+0	1.729096E+0	1.755317E+0	1.794444E+0	1.743325E+0	1.702156E+0	1.710023E+0	1.722618E+0	1.767662E+0	1.756510E+0	1.723898E+0	1.694026E+0	1.766703E+0	1.736893E+0	1.758601E+0	1.745633E+0	1.710480E+0	1.706472E+0	1.667496E+0	1.788520E+0	1.767182E+0	1.716068E+0	1.704803E+0	1.685202E+0	1.706719E+0	1.779455E+0	1.747515E+0	1.782091E+0	1.837277E+0	1.719978E+0	1.765869E+0	1.694584E+0	1.670297E+0	1.715846E+0	1.714173E+0	1.650547E+0	1.764003E+0	1.776447E+0	1.764104E+0	1.731161E+0	1.739676E+0	1.741701E+0	1.769282E+0	1.728279E+0	1.701825E+0	1.716108E+0	1.758217E+0	1.685719E+0	1.668576E+0	1.754312E+0	1.744631E+0	1.759710E+0	1.674490E+0	1.644287E+0	1.707798E+0	1.733672E+0	1.723869E+0	1.708068E+0	1.744479E+0	1.664456E+0	1.685948E+0	1.645685E+0
5.392880E+2	1.977318E+0	1.935455E+0	2.022187E+0	1.945100E+0	2.019134E+0	1.988781E+0	1.907015E+0	1.986736E+0	2.005326E+0	1.958414E+0	1.974241E+0	2.082131E+0	1.980661E+0	1.964846E+0	1.936367E+0	1.965503E+0	1.998249E+0	1.930752E+0	1.941610E+0	2.043505E+0	1.991433E+0	1.951735E+0	2.028991E+0	1.974337E+0	1.964201E+0	1.946003E+0	1.933635E+0	2.018084E+0	1.970414E+0	1.901854E+0	1.914727E+0	1.947660E+0	1.942224E+0	1.962659E+0	1.983237E+0	2.007881E+0	1.970186E+0	1.942201E+0	1.960225E+0	1.998265E+0	1.995055E+0	2.018030E+0	1.948354E+0	1.902122E+0	1.935832E+0	1.964626E+0	1.930536E+0	1.960687E+0	1.939113E+0	1.937447E+0	1.946837E+0	1.941749E+0	1.925057E+0	1.926679E+0	1.993204E+0	1.881729E+0	1.953794E+0	1.966079E+0	1.917198E+0	1.951285E+0	1.970409E+0	1.943436E+0	1.886725E+0	1.946077E+0	1.891495E+0	1.952542E+0	1.861251E+0	1.973953E+0	1.992752E+0	2.024622E+0	1.953732E+0	1.995940E+0	1.830248E+0	1.912775E+0	1.829471E+0	1.940100E+0	1.938539E+0	1.944577E+0	1.878987E+0	1.996643E+0	1.870487E+0	1.961588E+0	1.936006E+0	1.934996E+0	1.900796E+0	1.945087E+0	1.943620E+0	1.970312E+0	1.890928E+0	1.892845E+0	1.984841E+0	1.914014E+0	1.866191E+0	1.979485E+0	1.880802E+0	1.930986E+0	1.934163E+0	1.866198E+0	1.946896E+0	1.892628E+0	1.929462E+0	1.917184E+0	1.897153E+0	1.903735E+0	1.898402E+0	1.960171E+0	1.891920E+0	1.944908E+0	1.913302E+0	1.931145E+0	1.865202E+0	1.920011E+0	1.916527E+0	1.887021E+0	1.873467E+0	1.877651E+0	1.939276E+0	1.869564E+0	1.918043E+0	1.894645E+0	1.942416E+0	1.900418E+0	1.942810E+0	1.920954E+0	1.891206E+0	1.937184E+0	1.920093E+0	1.935305E+0	1.941126E+0	1.950863E+0	1.877381E+0	1.907804E+0	1.932093E+0	1.918466E+0	1.913476E+0	1.991670E+0	1.978781E+0	1.964738E+0	1.911933E+0	1.887707E+0	1.919068E+0	1.920405E+0	1.894100E+0	1.897282E+0	1.866363E+0	1.920908E+0	1.866194E+0	1.831368E+0	1.882724E+0	1.906921E+0	1.947912E+0	1.898909E+0	1.854325E+0	1.936499E+0	1.884559E+0	1.904990E+0	1.848883E+0	1.869713E+0	1.878940E+0	1.863050E+0	1.855592E+0	1.807849E+0	1.931773E+0	1.957634E+0	1.925866E+0	1.880414E+0	1.869681E+0	1.841990E+0	1.919499E+0	1.888414E+0
5.395160E+2	1.915370E+0	1.938965E+0	1.933613E+0	2.015174E+0	1.983498E+0	1.944034E+0	1.933704E+0	2.003947E+0	1.934204E+0	1.966750E+0	1.945072E+0	2.008541E+0	1.969828E+0	1.953701E+0	1.977344E+0	2.034597E+0	1.986534E+0	1.904490E+0	1.958660E+0	1.990548E+0	1.949864E+0	1.957550E+0	1.963916E+0	2.002149E+0	1.858435E+0	1.899902E+0	1.883908E+0	1.947275E+0	1.892693E+0	1.872098E+0	1.933420E+0	1.953572E+0	1.959440E+0	1.895986E+0	1.850434E+0	1.907713E+0	1.934904E+0	1.920142E+0	1.932561E+0	2.017307E+0	2.014595E+0	1.914166E+0	1.995375E+0	1.870878E+0	1.890774E+0	1.920238E+0	1.923969E+0	1.956969E+0	1.962248E+0	1.926416E+0	1.938687E+0	1.917277E+0	1.873555E+0	1.943934E+0	1.915069E+0	1.958167E+0	1.943435E+0	1.949763E+0	1.898449E+0	1.924081E+0	1.906312E+0	1.947764E+0	1.925880E+0	1.964488E+0	1.892084E+0	1.907336E+0	1.875785E+0	1.945628E+0	1.905200E+0	1.997299E+0	1.937458E+0	1.907018E+0	1.901982E+0	1.958967E+0	1.936921E+0	1.961449E+0	1.830309E+0	1.925242E+0	1.831790E+0	1.941084E+0	1.855879E+0	1.943740E+0	1.878007E+0	1.916912E+0	1.958255E+0	1.954421E+0	1.902785E+0	1.944818E+0	1.961372E+0	1.875965E+0	1.935660E+0	1.924866E+0	1.928565E+0	1.887751E+0	1.928470E+0	1.925594E+0	1.908190E+0	1.895524E+0	1.865634E+0	1.901185E+0	1.975995E+0	1.880100E+0	1.858595E+0	1.926839E+0	1.892101E+0	1.860293E+0	1.905490E+0	1.906211E+0	1.852273E+0	1.879651E+0	1.895327E+0	1.947395E+0	1.903534E+0	1.834242E+0	1.850450E+0	1.872506E+0	1.946215E+0	1.917185E+0	1.864346E+0	1.838782E+0	1.899073E+0	1.866358E+0	1.940351E+0	1.882730E+0	1.858970E+0	1.920410E+0	1.838655E+0	1.948428E+0	1.922725E+0	1.901465E+0	1.846587E+0	1.891086E+0	1.899432E+0	1.956107E+0	1.945949E+0	1.895029E+0	1.928392E+0	1.892989E+0	1.900159E+0	1.867985E+0	1.907464E+0	1.894449E+0	1.867585E+0	1.915793E+0	1.940315E+0	1.894636E+0	1.835191E+0	1.894560E+0	1.906175E+0	1.895536E+0	1.842119E+0	1.924696E+0	1.889369E+0	1.889893E+0	1.927010E+0	1.866853E+0	1.917871E+0	1.861892E+0	1.889754E+0	1.930966E+0	1.904779E+0	1.733873E+0	1.831056E+0	1.906581E+0	1.837556E+0	1.907543E+0	1.848638E+0	1.891707E+0	1.856263E+0	1.712548E+0
5.397750E+2	1.992561E+0	1.966126E+0	2.000107E+0	2.027847E+0	2.004392E+0	2.017250E+0	1.939316E+0	2.024834E+0	2.015656E+0	2.031717E+0	2.002148E+0	2.057259E+0	2.005082E+0	2.039198E+0	2.007335E+0	2.021079E+0	1.966119E+0	1.999269E+0	1.989665E+0	1.978777E+0	1.995751E+0	1.960860E+0	2.015031E+0	1.970575E+0	1.913298E+0	1.939544E+0	1.938344E+0	1.958188E+0	1.971260E+0	1.935492E+0	2.015846E+0	1.979466E+0	1.951834E+0	1.882666E+0	1.972202E+0	1.989367E+0	2.028103E+0	1.936179E+0	1.945210E+0	1.947463E+0	2.002340E+0	2.053687E+0	1.942960E+0	1.963278E+0	1.963464E+0	1.982655E+0	1.916102E+0	1.963915E+0	1.970544E+0	1.929205E+0	1.941754E+0	1.985651E+0	1.970311E+0	1.927986E+0	1.969702E+0	1.946133E+0	1.887470E+0	1.967951E+0	1.939136E+0	1.998012E+0	1.961505E+0	2.025187E+0	2.013446E+0	1.905236E+0	1.950207E+0	2.056570E+0	1.956774E+0	1.937828E+0	1.967289E+0	2.010417E+0	1.989126E+0	1.998903E+0	1.962661E+0	1.988592E+0	1.964060E+0	2.013420E+0	2.002705E+0	1.940530E+0	1.889780E+0	1.980805E+0	1.864775E+0	1.941872E+0	1.991731E+0	1.974800E+0	1.925567E+0	2.030276E+0	1.927508E+0	1.927289E+0	1.982910E+0	1.976808E+0	1.961001E+0	1.985395E+0	1.910829E+0	1.911014E+0	1.910658E+0	1.954438E+0	1.926674E+0	1.947972E+0	1.981164E+0	1.906231E+0	2.014428E+0	1.902483E+0	1.939697E+0	1.959874E+0	1.891741E+0	1.941255E+0	1.938497E+0	2.007216E+0	1.922027E+0	1.970986E+0	1.936397E+0	1.936503E+0	1.908702E+0	1.868856E+0	1.896314E+0	1.893293E+0	1.975406E+0	1.874432E+0	1.975176E+0	1.916536E+0	1.919669E+0	1.914713E+0	1.912960E+0	1.907030E+0	1.913882E+0	1.928399E+0	1.950292E+0	1.996263E+0	1.978691E+0	1.948877E+0	1.906745E+0	1.961837E+0	1.954771E+0	1.878976E+0	1.875897E+0	1.957161E+0	1.937274E+0	1.941854E+0	1.992480E+0	1.881902E+0	1.952159E+0	1.927187E+0	1.899729E+0	1.902635E+0	1.936935E+0	1.909810E+0	1.921419E+0	1.948171E+0	1.920846E+0	1.932125E+0	1.973053E+0	1.970679E+0	1.927116E+0	1.944079E+0	1.892262E+0	1.919154E+0	1.955100E+0	1.920929E+0	1.925104E+0	1.917687E+0	1.924915E+0	1.860368E+0	1.938547E+0	1.906055E+0	1.894495E+0	1.918849E+0	1.906021E+0	1.989678E+0	1.924161E+0	1.754082E+0
5.400140E+2	1.939050E+0	1.996913E+0	1.945090E+0	1.945374E+0	1.963982E+0	1.913915E+0	1.919307E+0	1.924705E+0	1.933441E+0	1.966557E+0	1.929397E+0	1.952370E+0	1.967424E+0	1.959143E+0	1.899963E+0	1.944672E+0	1.906445E+0	1.964497E+0	1.915197E+0	1.913411E+0	1.991932E+0	1.944821E+0	1.908897E+0	1.987057E+0	1.867643E+0	1.897932E+0	1.885960E+0	1.886214E+0	1.940699E+0	1.926543E+0	1.963535E+0	1.931381E+0	1.960048E+0	1.850681E+0	1.840864E+0	1.917029E+0	1.911908E+0	1.940642E+0	1.927024E+0	1.910236E+0	1.951979E+0	1.878396E+0	1.884735E+0	1.894737E+0	1.869200E+0	1.890876E+0	1.902828E+0	1.941770E+0	1.876886E+0	1.884311E+0	1.850441E+0	1.942468E+0	1.896347E+0	1.917329E+0	1.929231E+0	1.849769E+0	1.879881E+0	1.899026E+0	1.905950E+0	1.945383E+0	1.888339E+0	1.840978E+0	1.938061E+0	1.856397E+0	1.896428E+0	1.983633E+0	1.838540E+0	1.889346E+0	1.930642E+0	1.941388E+0	1.865755E+0	1.871119E+0	1.880643E+0	1.952028E+0	1.869829E+0	1.863914E+0	1.838422E+0	1.861008E+0	1.904395E+0	1.895142E+0	1.883462E+0	1.910437E+0	1.908700E+0	1.895027E+0	1.854182E+0	1.917956E+0	1.882477E+0	1.893926E+0	1.903818E+0	1.918683E+0	1.923555E+0	1.951532E+0	1.822434E+0	1.852019E+0	1.841685E+0	1.887469E+0	1.792209E+0	1.859641E+0	1.926351E+0	1.889633E+0	1.899887E+0	1.884010E+0	1.895457E+0	1.843624E+0	1.865520E+0	1.884765E+0	1.883176E+0	1.916583E+0	1.877258E+0	1.876945E+0	1.880743E+0	1.845253E+0	1.886849E+0	1.800451E+0	1.914408E+0	1.809802E+0	1.948550E+0	1.786437E+0	1.882361E+0	1.868698E+0	1.822769E+0	1.898933E+0	1.840806E+0	1.907613E+0	1.917517E+0	1.886055E+0	1.839099E+0	1.881640E+0	1.890829E+0	1.878486E+0	1.879358E+0	1.851980E+0	1.869362E+0	1.923411E+0	1.891008E+0	1.890001E+0	1.889249E+0	1.920464E+0	1.892046E+0	1.828643E+0	1.878186E+0	1.860947E+0	1.900878E+0	1.801956E+0	1.873217E+0	1.888827E+0	1.855984E+0	1.845230E+0	1.849486E+0	1.819479E+0	1.849766E+0	1.847887E+0	1.898836E+0	1.905059E+0	1.860276E+0	1.833924E+0	1.800092E+0	1.859441E+0	1.816774E+0	1.881330E+0	1.836750E+0	1.788686E+0	1.861449E+0	1.886156E+0	1.821842E+0	1.878730E+0	1.869651E+0	1.832654E+0	1.830497E+0	1.766434E+0
5.402740E+2	1.828771E+0	1.934109E+0	1.852224E+0	1.979797E+0	1.919622E+0	1.935910E+0	1.914242E+0	1.886184E+0	1.919405E+0	1.870012E+0	1.954885E+0	1.898365E+0	1.936354E+0	1.914426E+0	1.897633E+0	1.942423E+0	1.913091E+0	1.966721E+0	1.926520E+0	1.878104E+0	1.939745E+0	1.867091E+0	1.902311E+0	1.837495E+0	1.829309E+0	1.904532E+0	1.872025E+0	1.906199E+0	1.880336E+0	1.848523E+0	1.874392E+0	1.867194E+0	1.914803E+0	1.872028E+0	1.934559E+0	1.880236E+0	1.868888E+0	1.909268E+0	1.934587E+0	1.901591E+0	1.929833E+0	1.947168E+0	1.879143E+0	1.888549E+0	1.843840E+0	1.852396E+0	1.869821E+0	1.881286E+0	1.935758E+0	1.843791E+0	1.861636E+0	1.834064E+0	1.869226E+0	1.921827E+0	1.854429E+0	1.861440E+0	1.859498E+0	1.890421E+0	1.895683E+0	1.865867E+0	1.831980E+0	1.841624E+0	1.863101E+0	1.859516E+0	1.833535E+0	1.802734E+0	1.803191E+0	1.949550E+0	1.850878E+0	1.946483E+0	1.850998E+0	1.923920E+0	1.796226E+0	1.855254E+0	1.846198E+0	1.937518E+0	1.858972E+0	1.908047E+0	1.839895E+0	1.907706E+0	1.804460E+0	1.859229E+0	1.922648E+0	1.946726E+0	1.804342E+0	1.925383E+0	1.915300E+0	1.816722E+0	1.903859E+0	1.918000E+0	1.852045E+0	1.826019E+0	1.841948E+0	1.848036E+0	1.821068E+0	1.881807E+0	1.827463E+0	1.843088E+0	1.818765E+0	1.856582E+0	1.907009E+0	1.887306E+0	1.856411E+0	1.927879E+0	1.854772E+0	1.835930E+0	1.848840E+0	1.893708E+0	1.849992E+0	1.898707E+0	1.834901E+0	1.884702E+0	1.818636E+0	1.746078E+0	1.812488E+0	1.845934E+0	1.849020E+0	1.853270E+0	1.892175E+0	1.816991E+0	1.909796E+0	1.857847E+0	1.814403E+0	1.778894E+0	1.820932E+0	1.837295E+0	1.781564E+0	1.906565E+0	1.782594E+0	1.882768E+0	1.792317E+0	1.829711E+0	1.934184E+0	1.857156E+0	1.847359E+0	1.866255E+0	1.772873E+0	1.880711E+0	1.835123E+0	1.826992E+0	1.871000E+0	1.887619E+0	1.851468E+0	1.786627E+0	1.783947E+0	1.883679E+0	1.801454E+0	1.820011E+0	1.825629E+0	1.816851E+0	1.921960E+0	1.835902E+0	1.838434E+0	1.817599E+0	1.863108E+0	1.828693E+0	1.883919E+0	1.840645E+0	1.795636E+0	1.825210E+0	1.772071E+0	1.804523E+0	1.773367E+0	1.872010E+0	1.750503E+0	1.828148E+0	1.825613E+0	1.839147E+0	1.775069E+0	1.855487E+0
5.405080E+2	1.900870E+0	1.790819E+0	1.862957E+0	1.812011E+0	1.875370E+0	1.919667E+0	1.832277E+0	1.840654E+0	1.804152E+0	1.790696E+0	1.819280E+0	1.907395E+0	1.855035E+0	1.806770E+0	1.822287E+0	1.784151E+0	1.769474E+0	1.906110E+0	1.840603E+0	1.773563E+0	1.874988E+0	1.836046E+0	1.823504E+0	1.841226E+0	1.855597E+0	1.811107E+0	1.860260E+0	1.774552E+0	1.843923E+0	1.787085E+0	1.766571E+0	1.853098E+0	1.808331E+0	1.844739E+0	1.867345E+0	1.785378E+0	1.813388E+0	1.840476E+0	1.846434E+0	1.782442E+0	1.853774E+0	1.886847E+0	1.879650E+0	1.853958E+0	1.848079E+0	1.860426E+0	1.795683E+0	1.781437E+0	1.822102E+0	1.805693E+0	1.733427E+0	1.766319E+0	1.837851E+0	1.807689E+0	1.805399E+0	1.835499E+0	1.847839E+0	1.899138E+0	1.831999E+0	1.842229E+0	1.829470E+0	1.814671E+0	1.762161E+0	1.816500E+0	1.778139E+0	1.811720E+0	1.771730E+0	1.797249E+0	1.846647E+0	1.851646E+0	1.759010E+0	1.793662E+0	1.785721E+0	1.899984E+0	1.775530E+0	1.882617E+0	1.803570E+0	1.753503E+0	1.764999E+0	1.795395E+0	1.772101E+0	1.859836E+0	1.778235E+0	1.745299E+0	1.710742E+0	1.897469E+0	1.823584E+0	1.796404E+0	1.756678E+0	1.822192E+0	1.849882E+0	1.820198E+0	1.802466E+0	1.730085E+0	1.838460E+0	1.793417E+0	1.771458E+0	1.785902E+0	1.806520E+0	1.752951E+0	1.801706E+0	1.783071E+0	1.773060E+0	1.842565E+0	1.870366E+0	1.898800E+0	1.829555E+0	1.782141E+0	1.794994E+0	1.781156E+0	1.760362E+0	1.790257E+0	1.788236E+0	1.726912E+0	1.745100E+0	1.844750E+0	1.795189E+0	1.797709E+0	1.844025E+0	1.825683E+0	1.779181E+0	1.790298E+0	1.791090E+0	1.891978E+0	1.825456E+0	1.780553E+0	1.772195E+0	1.828179E+0	1.782075E+0	1.800689E+0	1.757142E+0	1.778035E+0	1.816094E+0	1.784279E+0	1.779668E+0	1.759218E+0	1.807427E+0	1.821408E+0	1.792207E+0	1.736726E+0	1.852692E+0	1.761421E+0	1.731600E+0	1.761696E+0	1.824851E+0	1.814313E+0	1.769293E+0	1.759534E+0	1.757008E+0	1.795491E+0	1.740942E+0	1.770346E+0	1.744166E+0	1.752588E+0	1.778343E+0	1.797069E+0	1.817790E+0	1.731435E+0	1.768267E+0	1.808823E+0	1.732006E+0	1.747853E+0	1.742166E+0	1.735097E+0	1.778669E+0	1.760633E+0	1.691644E+0	1.812687E+0	1.754788E+0	1.856159E+0
5.407680E+2	1.677122E+0	1.674022E+0	1.726012E+0	1.806379E+0	1.696854E+0	1.739689E+0	1.666856E+0	1.716080E+0	1.718516E+0	1.679705E+0	1.730871E+0	1.764469E+0	1.726938E+0	1.680497E+0	1.720138E+0	1.681841E+0	1.773018E+0	1.705508E+0	1.719437E+0	1.670504E+0	1.754197E+0	1.731187E+0	1.706787E+0	1.685951E+0	1.659998E+0	1.620167E+0	1.734881E+0	1.689464E+0	1.704762E+0	1.718610E+0	1.674516E+0	1.732332E+0	1.723640E+0	1.668769E+0	1.689488E+0	1.673049E+0	1.709296E+0	1.636070E+0	1.683882E+0	1.666046E+0	1.712588E+0	1.724134E+0	1.783546E+0	1.728209E+0	1.717632E+0	1.698132E+0	1.687477E+0	1.694003E+0	1.699945E+0	1.693972E+0	1.646066E+0	1.657658E+0	1.751849E+0	1.729093E+0	1.730404E+0	1.732862E+0	1.705437E+0	1.730755E+0	1.696667E+0	1.731121E+0	1.657988E+0	1.760486E+0	1.678745E+0	1.657237E+0	1.585837E+0	1.724637E+0	1.708848E+0	1.747568E+0	1.719295E+0	1.689867E+0	1.700431E+0	1.665522E+0	1.669186E+0	1.707550E+0	1.658019E+0	1.695009E+0	1.642550E+0	1.655908E+0	1.684401E+0	1.718279E+0	1.731702E+0	1.699831E+0	1.713095E+0	1.668609E+0	1.633551E+0	1.729192E+0	1.671042E+0	1.696574E+0	1.717603E+0	1.632693E+0	1.678164E+0	1.687712E+0	1.634607E+0	1.682684E+0	1.666288E+0	1.663722E+0	1.684507E+0	1.733027E+0	1.679344E+0	1.710423E+0	1.741678E+0	1.680685E+0	1.722181E+0	1.677501E+0	1.716688E+0	1.731484E+0	1.660419E+0	1.748267E+0	1.732138E+0	1.696752E+0	1.646712E+0	1.660604E+0	1.626335E+0	1.613164E+0	1.643337E+0	1.677533E+0	1.671827E+0	1.684934E+0	1.695187E+0	1.609790E+0	1.653262E+0	1.664099E+0	1.704851E+0	1.669264E+0	1.707324E+0	1.657670E+0	1.701612E+0	1.704438E+0	1.690890E+0	1.701879E+0	1.668422E+0	1.662141E+0	1.722816E+0	1.695909E+0	1.691544E+0	1.714140E+0	1.707093E+0	1.718021E+0	1.686365E+0	1.746225E+0	1.687935E+0	1.625644E+0	1.654864E+0	1.677636E+0	1.691098E+0	1.649122E+0	1.652185E+0	1.665545E+0	1.605713E+0	1.678384E+0	1.686919E+0	1.647800E+0	1.657660E+0	1.658063E+0	1.689520E+0	1.705256E+0	1.629781E+0	1.622832E+0	1.631889E+0	1.662999E+0	1.677940E+0	1.680779E+0	1.674803E+0	1.692164E+0	1.617416E+0	1.711618E+0	1.641160E+0	1.586058E+0	1.718435E+0	1.655493E+0
5.410190E+2	1.593718E+0	1.527440E+0	1.582543E+0	1.647247E+0	1.652584E+0	1.601201E+0	1.565655E+0	1.565480E+0	1.634707E+0	1.598467E+0	1.581938E+0	1.625073E+0	1.604604E+0	1.576935E+0	1.623820E+0	1.618211E+0	1.629320E+0	1.601916E+0	1.592250E+0	1.585152E+0	1.611212E+0	1.632239E+0	1.628839E+0	1.616461E+0	1.546016E+0	1.549145E+0	1.608431E+0	1.579155E+0	1.586656E+0	1.554049E+0	1.530384E+0	1.530382E+0	1.536760E+0	1.596371E+0	1.597524E+0	1.566942E+0	1.554771E+0	1.570657E+0	1.580690E+0	1.595543E+0	1.599288E+0	1.588077E+0	1.631396E+0	1.608295E+0	1.580833E+0	1.563510E+0	1.509812E+0	1.544009E+0	1.565848E+0	1.619759E+0	1.630227E+0	1.528087E+0	1.627012E+0	1.597306E+0	1.556476E+0	1.620457E+0	1.598128E+0	1.566044E+0	1.544685E+0	1.593317E+0	1.519775E+0	1.595518E+0	1.544534E+0	1.506721E+0	1.568952E+0	1.517536E+0	1.560150E+0	1.649229E+0	1.688691E+0	1.644319E+0	1.502718E+0	1.601339E+0	1.553721E+0	1.610002E+0	1.553892E+0	1.538247E+0	1.574158E+0	1.575956E+0	1.562156E+0	1.547581E+0	1.506317E+0	1.573508E+0	1.559686E+0	1.549118E+0	1.549363E+0	1.616103E+0	1.569619E+0	1.535577E+0	1.573334E+0	1.558178E+0	1.622725E+0	1.598919E+0	1.584704E+0	1.615853E+0	1.588482E+0	1.578549E+0	1.562718E+0	1.554414E+0	1.587662E+0	1.514344E+0	1.620854E+0	1.559294E+0	1.568305E+0	1.612887E+0	1.579336E+0	1.503556E+0	1.549281E+0	1.588375E+0	1.567613E+0	1.575900E+0	1.621812E+0	1.526313E+0	1.575060E+0	1.493431E+0	1.519141E+0	1.591911E+0	1.600990E+0	1.558384E+0	1.556841E+0	1.515420E+0	1.558775E+0	1.554874E+0	1.613236E+0	1.474979E+0	1.541727E+0	1.578755E+0	1.576210E+0	1.547938E+0	1.558481E+0	1.636111E+0	1.530240E+0	1.558045E+0	1.611421E+0	1.574502E+0	1.586012E+0	1.604414E+0	1.601818E+0	1.569146E+0	1.538173E+0	1.527760E+0	1.544439E+0	1.529415E+0	1.530307E+0	1.530541E+0	1.570863E+0	1.632314E+0	1.580657E+0	1.544512E+0	1.586706E+0	1.599651E+0	1.583253E+0	1.598348E+0	1.569019E+0	1.562749E+0	1.580576E+0	1.566515E+0	1.572174E+0	1.528965E+0	1.522734E+0	1.546663E+0	1.541494E+0	1.519765E+0	1.554723E+0	1.591570E+0	1.536580E+0	1.578452E+0	1.561094E+0	1.517275E+0	1.474746E+0	1.527418E+0
5.412850E+2	1.452752E+0	1.508682E+0	1.491748E+0	1.507987E+0	1.468516E+0	1.544560E+0	1.489962E+0	1.511173E+0	1.529703E+0	1.546393E+0	1.454004E+0	1.523933E+0	1.545259E+0	1.528464E+0	1.527121E+0	1.488527E+0	1.472223E+0	1.506235E+0	1.484256E+0	1.491730E+0	1.491801E+0	1.538314E+0	1.509779E+0	1.441025E+0	1.436710E+0	1.494157E+0	1.453934E+0	1.464836E+0	1.468850E+0	1.473911E+0	1.435324E+0	1.458409E+0	1.521955E+0	1.493312E+0	1.476256E+0	1.517183E+0	1.440809E+0	1.471579E+0	1.481683E+0	1.501242E+0	1.453273E+0	1.466961E+0	1.525346E+0	1.495949E+0	1.452060E+0	1.476811E+0	1.440496E+0	1.486402E+0	1.494760E+0	1.431689E+0	1.425344E+0	1.503517E+0	1.454178E+0	1.449876E+0	1.473842E+0	1.503933E+0	1.508478E+0	1.469733E+0	1.461188E+0	1.434405E+0	1.441192E+0	1.468252E+0	1.431880E+0	1.448166E+0	1.408848E+0	1.387626E+0	1.441602E+0	1.497011E+0	1.498882E+0	1.494615E+0	1.503418E+0	1.513576E+0	1.446343E+0	1.519844E+0	1.450903E+0	1.525479E+0	1.470139E+0	1.434985E+0	1.469620E+0	1.464226E+0	1.461464E+0	1.477276E+0	1.476931E+0	1.434233E+0	1.449919E+0	1.552021E+0	1.435705E+0	1.476141E+0	1.496988E+0	1.444923E+0	1.480541E+0	1.468487E+0	1.475728E+0	1.448141E+0	1.451299E+0	1.428827E+0	1.461712E+0	1.444734E+0	1.525718E+0	1.447157E+0	1.463784E+0	1.420506E+0	1.480723E+0	1.461654E+0	1.449661E+0	1.483427E+0	1.445297E+0	1.444376E+0	1.474035E+0	1.424553E+0	1.505033E+0	1.492440E+0	1.468404E+0	1.386272E+0	1.464281E+0	1.428381E+0	1.471868E+0	1.451054E+0	1.495278E+0	1.401532E+0	1.466763E+0	1.451392E+0	1.423093E+0	1.421766E+0	1.483299E+0	1.485727E+0	1.373062E+0	1.452815E+0	1.496218E+0	1.446199E+0	1.476729E+0	1.489821E+0	1.477924E+0	1.507282E+0	1.470959E+0	1.475948E+0	1.416917E+0	1.481159E+0	1.463744E+0	1.417919E+0	1.482084E+0	1.495773E+0	1.535345E+0	1.433635E+0	1.429040E+0	1.448821E+0	1.423284E+0	1.395866E+0	1.484506E+0	1.469609E+0	1.493265E+0	1.475288E+0	1.494776E+0	1.407749E+0	1.473756E+0	1.401573E+0	1.486336E+0	1.456594E+0	1.477253E+0	1.416111E+0	1.454277E+0	1.450164E+0	1.433091E+0	1.500192E+0	1.456901E+0	1.432230E+0	1.455331E+0	1.476577E+0	1.467182E+0	1.352494E+0
5.415190E+2	1.326677E+0	1.373624E+0	1.341157E+0	1.340204E+0	1.395242E+0	1.373368E+0	1.341642E+0	1.343817E+0	1.372350E+0	1.330890E+0	1.335739E+0	1.379680E+0	1.346731E+0	1.368088E+0	1.370945E+0	1.353353E+0	1.345826E+0	1.356100E+0	1.362771E+0	1.320491E+0	1.396331E+0	1.333890E+0	1.353321E+0	1.356497E+0	1.319121E+0	1.366289E+0	1.330640E+0	1.332532E+0	1.371646E+0	1.387116E+0	1.339987E+0	1.318267E+0	1.351439E+0	1.274442E+0	1.342772E+0	1.392460E+0	1.343413E+0	1.375767E+0	1.382992E+0	1.314355E+0	1.390437E+0	1.373145E+0	1.367022E+0	1.402308E+0	1.313948E+0	1.378584E+0	1.353297E+0	1.336518E+0	1.345678E+0	1.331890E+0	1.368489E+0	1.355058E+0	1.321948E+0	1.337634E+0	1.378721E+0	1.371303E+0	1.335783E+0	1.385832E+0	1.349553E+0	1.376678E+0	1.300934E+0	1.352648E+0	1.338981E+0	1.335718E+0	1.358500E+0	1.362499E+0	1.340239E+0	1.340654E+0	1.377016E+0	1.355754E+0	1.340744E+0	1.311751E+0	1.336676E+0	1.354222E+0	1.349748E+0	1.365591E+0	1.355157E+0	1.311039E+0	1.360311E+0	1.366108E+0	1.370712E+0	1.374177E+0	1.363739E+0	1.347402E+0	1.358951E+0	1.385721E+0	1.335134E+0	1.361640E+0	1.344589E+0	1.370569E+0	1.349557E+0	1.390714E+0	1.394467E+0	1.302732E+0	1.349632E+0	1.336878E+0	1.323971E+0	1.392150E+0	1.316076E+0	1.322351E+0	1.370572E+0	1.355189E+0	1.298464E+0	1.336497E+0	1.327919E+0	1.319449E+0	1.346745E+0	1.395537E+0	1.320228E+0	1.332374E+0	1.350564E+0	1.337033E+0	1.359408E+0	1.334663E+0	1.309776E+0	1.335427E+0	1.340573E+0	1.347105E+0	1.361077E+0	1.333325E+0	1.367266E+0	1.348071E+0	1.361298E+0	1.305279E+0	1.380169E+0	1.358737E+0	1.346961E+0	1.328600E+0	1.361487E+0	1.325029E+0	1.320646E+0	1.317720E+0	1.364191E+0	1.362031E+0	1.409246E+0	1.417063E+0	1.347134E+0	1.388323E+0	1.352970E+0	1.329028E+0	1.346641E+0	1.311468E+0	1.335811E+0	1.319354E+0	1.325040E+0	1.349523E+0	1.315328E+0	1.297813E+0	1.334821E+0	1.316873E+0	1.349587E+0	1.350401E+0	1.380661E+0	1.299947E+0	1.386501E+0	1.317059E+0	1.343961E+0	1.327349E+0	1.287985E+0	1.376331E+0	1.367218E+0	1.240282E+0	1.314507E+0	1.342660E+0	1.304276E+0	1.372964E+0	1.325190E+0	1.321406E+0	1.357105E+0	1.339877E+0
5.417860E+2	1.163804E+0	1.166836E+0	1.206745E+0	1.229489E+0	1.203989E+0	1.212816E+0	1.186647E+0	1.189612E+0	1.170736E+0	1.201296E+0	1.183998E+0	1.184471E+0	1.202766E+0	1.130657E+0	1.206867E+0	1.200120E+0	1.165318E+0	1.173199E+0	1.169044E+0	1.197134E+0	1.215050E+0	1.189315E+0	1.212993E+0	1.191793E+0	1.171717E+0	1.131565E+0	1.179115E+0	1.184797E+0	1.234135E+0	1.189095E+0	1.123791E+0	1.175235E+0	1.206132E+0	1.177152E+0	1.172535E+0	1.214739E+0	1.224228E+0	1.199065E+0	1.205321E+0	1.146861E+0	1.203595E+0	1.199384E+0	1.210946E+0	1.166652E+0	1.141227E+0	1.195508E+0	1.194484E+0	1.185161E+0	1.190443E+0	1.191094E+0	1.149466E+0	1.204421E+0	1.151986E+0	1.195482E+0	1.164090E+0	1.181456E+0	1.149235E+0	1.206060E+0	1.207717E+0	1.243479E+0	1.176940E+0	1.189518E+0	1.192450E+0	1.187238E+0	1.104510E+0	1.193885E+0	1.191509E+0	1.163530E+0	1.172817E+0	1.221711E+0	1.224066E+0	1.173695E+0	1.158640E+0	1.225798E+0	1.132642E+0	1.209150E+0	1.139393E+0	1.164857E+0	1.198174E+0	1.199235E+0	1.193788E+0	1.237205E+0	1.184651E+0	1.168763E+0	1.171138E+0	1.184937E+0	1.195843E+0	1.147070E+0	1.219642E+0	1.222463E+0	1.213073E+0	1.235785E+0	1.175036E+0	1.205590E+0	1.191601E+0	1.146224E+0	1.208712E+0	1.195495E+0	1.161825E+0	1.149274E+0	1.191601E+0	1.172504E+0	1.176523E+0	1.151657E+0	1.151321E+0	1.237848E+0	1.125377E+0	1.247962E+0	1.187669E+0	1.219282E+0	1.166755E+0	1.204983E+0	1.187286E+0	1.166846E+0	1.191697E+0	1.202450E+0	1.196844E+0	1.218516E+0	1.230533E+0	1.148356E+0	1.212997E+0	1.124930E+0	1.179897E+0	1.144159E+0	1.205535E+0	1.231559E+0	1.185537E+0	1.146941E+0	1.192173E+0	1.156401E+0	1.195412E+0	1.199427E+0	1.201410E+0	1.171516E+0	1.206249E+0	1.185825E+0	1.208499E+0	1.210549E+0	1.188860E+0	1.170680E+0	1.194240E+0	1.156353E+0	1.155516E+0	1.151708E+0	1.207692E+0	1.161971E+0	1.191018E+0	1.204898E+0	1.190660E+0	1.164710E+0	1.231550E+0	1.186793E+0	1.198204E+0	1.195731E+0	1.150168E+0	1.153742E+0	1.217902E+0	1.187282E+0	1.171697E+0	1.192231E+0	1.153685E+0	1.184171E+0	1.144856E+0	1.215301E+0	1.183470E+0	1.165027E+0	1.184181E+0	1.198842E+0	1.118434E+0	1.218019E+0
5.420160E+2	1.071618E+0	1.083375E+0	1.057933E+0	1.040423E+0	1.088773E+0	1.074894E+0	1.096279E+0	1.079959E+0	1.125277E+0	1.084635E+0	1.078464E+0	1.106698E+0	1.072293E+0	1.060235E+0	1.133369E+0	1.086624E+0	1.094432E+0	1.103561E+0	1.100698E+0	1.056742E+0	1.092736E+0	1.059016E+0	1.108314E+0	1.065736E+0	1.091370E+0	1.073662E+0	1.059483E+0	1.051611E+0	1.053648E+0	1.077669E+0	1.043603E+0	1.070468E+0	1.082091E+0	1.085801E+0	1.092068E+0	1.041312E+0	1.091244E+0	1.075612E+0	1.041807E+0	1.105759E+0	1.107204E+0	1.092652E+0	1.051003E+0	1.064003E+0	1.057723E+0	1.135087E+0	1.032063E+0	1.070858E+0	1.110333E+0	1.075948E+0	1.064273E+0	1.085242E+0	1.046506E+0	1.048423E+0	1.066717E+0	1.044387E+0	1.096118E+0	1.059682E+0	1.099521E+0	1.086747E+0	1.065898E+0	1.107329E+0	1.052798E+0	1.051587E+0	1.096590E+0	1.084655E+0	1.040019E+0	1.107288E+0	1.053871E+0	1.102883E+0	1.053935E+0	1.093025E+0	1.033369E+0	1.075331E+0	1.084390E+0	1.140473E+0	1.054404E+0	1.077739E+0	1.073545E+0	1.089434E+0	1.026876E+0	1.091143E+0	9.932868E-1	1.039796E+0	1.121111E+0	1.083092E+0	1.046283E+0	1.080843E+0	1.024413E+0	1.106258E+0	1.110286E+0	1.050022E+0	1.084823E+0	1.074851E+0	1.106935E+0	1.078140E+0	1.140721E+0	1.079536E+0	1.048145E+0	1.052349E+0	1.081229E+0	1.038503E+0	1.061740E+0	1.076181E+0	1.036241E+0	1.088651E+0	1.088771E+0	1.080505E+0	1.067273E+0	1.059950E+0	1.064463E+0	1.060223E+0	1.069940E+0	1.030102E+0	1.071010E+0	1.076147E+0	1.089377E+0	1.025215E+0	1.048914E+0	1.124925E+0	1.091956E+0	1.081587E+0	1.091060E+0	1.063550E+0	1.023733E+0	1.040681E+0	1.058596E+0	1.054767E+0	1.085874E+0	1.103342E+0	1.025818E+0	1.036204E+0	1.131534E+0	1.054895E+0	1.067247E+0	1.074827E+0	1.056115E+0	1.053240E+0	1.072332E+0	1.067233E+0	1.076701E+0	1.083273E+0	1.062497E+0	1.076297E+0	1.093197E+0	1.128749E+0	1.122323E+0	1.023966E+0	1.029747E+0	1.051022E+0	1.053048E+0	1.074506E+0	1.104907E+0	1.050853E+0	1.058175E+0	1.045546E+0	1.074270E+0	1.074436E+0	1.071386E+0	1.097129E+0	1.103025E+0	1.060533E+0	1.088213E+0	1.117484E+0	1.032149E+0	1.107618E+0	1.081290E+0	1.041477E+0	1.094236E+0	1.031351E+0
5.422670E+2	9.533916E-1	9.612644E-1	9.506917E-1	9.298365E-1	9.600571E-1	9.750093E-1	9.604029E-1	9.429401E-1	8.814016E-1	9.281371E-1	9.367179E-1	9.630431E-1	9.602030E-1	9.326569E-1	9.692885E-1	9.204132E-1	9.481231E-1	9.483581E-1	9.873765E-1	9.426184E-1	9.673123E-1	9.383062E-1	9.558259E-1	9.702633E-1	9.719747E-1	9.894864E-1	9.974932E-1	1.000228E+0	1.001386E+0	9.449463E-1	9.367599E-1	9.883595E-1	9.718122E-1	9.609177E-1	9.478378E-1	9.499594E-1	9.295657E-1	9.511811E-1	9.469093E-1	9.635188E-1	9.949234E-1	9.879031E-1	1.002259E+0	9.769517E-1	9.298640E-1	9.980318E-1	9.176964E-1	9.548937E-1	9.381439E-1	9.809949E-1	9.444341E-1	9.277635E-1	9.470598E-1	9.441185E-1	9.522123E-1	9.507076E-1	9.706103E-1	9.778857E-1	1.000916E+0	9.721224E-1	9.588536E-1	9.869418E-1	9.676149E-1	9.411301E-1	9.646755E-1	9.109695E-1	9.605427E-1	1.006233E+0	9.801079E-1	9.562874E-1	9.860951E-1	9.705731E-1	9.400532E-1	9.868178E-1	9.370134E-1	9.694619E-1	9.467515E-1	9.525454E-1	9.705787E-1	9.603487E-1	9.121585E-1	9.843807E-1	9.331846E-1	9.750164E-1	9.527918E-1	9.421181E-1	9.762758E-1	9.496158E-1	9.563639E-1	9.758074E-1	9.674011E-1	9.990265E-1	9.660298E-1	9.390620E-1	9.589708E-1	9.550493E-1	9.746306E-1	9.727721E-1	9.855873E-1	9.742387E-1	9.819781E-1	9.540987E-1	9.658162E-1	9.865529E-1	9.769443E-1	9.806339E-1	9.322061E-1	9.647733E-1	9.385568E-1	9.423299E-1	9.737766E-1	9.603172E-1	8.963017E-1	9.542247E-1	9.527512E-1	9.328643E-1	9.670466E-1	9.461314E-1	9.935999E-1	9.800483E-1	9.587644E-1	9.629532E-1	9.977845E-1	9.290809E-1	9.735757E-1	9.596032E-1	9.884912E-1	9.512888E-1	9.835107E-1	9.445993E-1	9.394012E-1	9.486196E-1	1.005305E+0	9.856693E-1	9.588779E-1	9.815742E-1	9.935108E-1	9.704581E-1	9.662470E-1	9.468348E-1	9.674212E-1	9.689103E-1	9.664267E-1	9.434913E-1	9.416814E-1	9.473021E-1	9.466421E-1	9.193322E-1	9.391846E-1	9.472629E-1	9.382755E-1	9.233957E-1	9.971670E-1	9.530690E-1	9.472026E-1	9.588651E-1	9.733352E-1	9.522113E-1	9.183121E-1	8.944777E-1	9.395930E-1	9.598547E-1	9.111884E-1	9.335388E-1	9.785388E-1	9.617593E-1	9.690515E-1	9.749440E-1	8.935969E-1	9.291322E-1
5.425300E+2	9.188471E-1	9.751361E-1	9.705196E-1	9.418050E-1	9.019559E-1	9.671975E-1	9.542841E-1	9.238183E-1	9.395374E-1	9.462097E-1	9.231001E-1	9.517274E-1	9.353253E-1	9.672376E-1	9.344011E-1	9.535566E-1	9.450062E-1	9.495972E-1	9.608147E-1	8.874305E-1	9.514039E-1	1.013399E+0	9.404438E-1	9.564271E-1	9.633801E-1	9.864504E-1	9.600963E-1	9.510420E-1	9.762841E-1	9.523200E-1	9.583029E-1	9.604534E-1	9.839956E-1	9.334274E-1	9.470154E-1	9.896443E-1	1.004219E+0	1.000560E+0	9.448323E-1	9.928576E-1	9.596025E-1	9.389302E-1	9.628259E-1	9.271099E-1	9.352841E-1	1.003789E+0	9.459533E-1	9.176147E-1	9.317197E-1	9.566451E-1	9.394263E-1	9.138873E-1	9.557093E-1	9.860909E-1	9.882664E-1	9.417449E-1	9.399364E-1	1.003487E+0	9.180529E-1	9.607673E-1	9.115482E-1	1.000127E+0	9.482377E-1	9.516162E-1	9.401561E-1	9.271491E-1	9.452279E-1	9.334295E-1	9.494789E-1	9.468026E-1	9.521195E-1	9.328039E-1	8.832007E-1	9.924403E-1	9.164233E-1	9.981096E-1	9.415954E-1	9.351394E-1	9.427198E-1	9.639045E-1	9.609220E-1	9.759097E-1	9.772140E-1	9.668614E-1	9.005192E-1	9.589922E-1	9.717764E-1	9.842219E-1	9.648349E-1	9.628220E-1	9.482404E-1	9.686649E-1	9.929142E-1	9.750825E-1	9.409002E-1	9.496820E-1	9.091157E-1	9.512352E-1	9.236381E-1	9.936432E-1	9.492293E-1	9.500141E-1	9.554593E-1	9.489930E-1	9.695869E-1	9.656602E-1	9.880786E-1	9.629762E-1	9.233007E-1	9.599455E-1	9.968509E-1	9.515633E-1	9.554344E-1	9.141118E-1	9.189055E-1	9.637975E-1	9.710685E-1	9.461738E-1	9.612359E-1	9.672010E-1	9.567146E-1	9.294071E-1	9.868756E-1	9.166009E-1	9.389873E-1	9.566202E-1	9.475593E-1	9.442115E-1	9.198585E-1	9.403298E-1	9.671066E-1	9.547600E-1	9.594856E-1	9.262925E-1	9.275214E-1	9.671038E-1	9.970218E-1	9.354255E-1	1.008689E+0	9.778659E-1	9.173793E-1	9.484816E-1	9.327394E-1	9.295612E-1	9.991193E-1	9.938917E-1	9.273607E-1	9.657775E-1	9.501483E-1	9.887620E-1	9.455464E-1	9.330637E-1	9.257995E-1	9.790759E-1	9.439881E-1	9.210837E-1	9.728842E-1	9.215765E-1	9.340313E-1	9.732085E-1	9.363028E-1	9.412270E-1	9.427181E-1	9.797957E-1	9.185738E-1	9.549344E-1	8.757560E-1	9.475888E-1	9.230058E-1	9.356019E-1
5.427600E+2	1.030244E+0	1.016376E+0	1.002870E+0	1.053151E+0	1.066871E+0	1.016807E+0	9.837070E-1	1.001852E+0	1.040794E+0	1.037341E+0	1.009993E+0	1.027767E+0	1.038430E+0	1.007651E+0	1.011283E+0	1.017512E+0	1.024606E+0	1.060422E+0	1.047560E+0	1.007585E+0	1.033223E+0	1.063882E+0	1.007000E+0	1.005711E+0	1.015154E+0	1.059154E+0	1.089758E+0	1.048931E+0	1.072420E+0	9.832942E-1	1.044269E+0	1.070988E+0	1.023319E+0	1.025978E+0	1.053519E+0	1.037366E+0	9.885653E-1	1.040965E+0	1.053629E+0	1.057373E+0	1.068956E+0	1.061240E+0	1.027414E+0	1.015380E+0	1.016466E+0	1.084064E+0	1.019671E+0	1.016804E+0	1.056162E+0	1.031856E+0	1.042677E+0	9.592264E-1	1.027216E+0	1.022365E+0	1.086734E+0	1.037610E+0	1.027145E+0	1.023926E+0	1.035208E+0	1.105292E+0	1.043735E+0	1.027171E+0	1.019921E+0	1.045797E+0	9.854290E-1	1.028232E+0	1.016340E+0	1.039769E+0	1.063976E+0	1.060891E+0	1.052367E+0	1.022758E+0	1.034870E+0	1.060849E+0	1.031452E+0	1.069541E+0	1.012720E+0	1.043646E+0	9.655506E-1	1.028236E+0	1.028909E+0	1.046089E+0	1.044944E+0	1.054136E+0	1.002229E+0	1.007436E+0	1.059931E+0	1.021401E+0	1.018331E+0	1.022283E+0	1.055771E+0	9.843703E-1	1.012379E+0	1.029973E+0	1.046606E+0	1.019725E+0	1.051640E+0	1.062976E+0	1.019080E+0	1.072458E+0	1.023780E+0	1.081186E+0	1.045097E+0	1.039755E+0	9.992247E-1	1.074865E+0	1.012981E+0	1.038716E+0	1.060275E+0	1.026643E+0	9.910293E-1	1.014181E+0	1.008207E+0	9.938613E-1	1.035755E+0	1.041711E+0	1.064232E+0	1.091860E+0	1.046982E+0	1.029044E+0	9.739782E-1	1.034199E+0	1.078057E+0	1.012805E+0	1.023473E+0	1.020968E+0	1.014948E+0	1.057215E+0	1.074343E+0	1.055108E+0	9.905121E-1	1.045205E+0	1.056498E+0	1.031582E+0	9.844992E-1	1.014447E+0	1.026512E+0	1.029113E+0	1.056686E+0	1.008872E+0	1.003997E+0	1.036515E+0	1.025672E+0	9.690086E-1	1.048195E+0	1.078688E+0	1.036757E+0	1.037464E+0	1.027155E+0	1.009368E+0	1.006625E+0	1.016917E+0	1.051542E+0	9.716690E-1	1.044521E+0	1.024863E+0	9.848057E-1	1.001628E+0	1.015384E+0	9.970168E-1	1.031371E+0	1.016666E+0	1.016010E+0	9.924578E-1	1.007293E+0	9.981602E-1	1.028007E+0	1.039341E+0	1.029462E+0	9.726725E-1
5.430120E+2	1.111013E+0	1.172007E+0	1.170841E+0	1.148115E+0	1.185326E+0	1.130983E+0	1.193098E+0	1.208915E+0	1.157436E+0	1.157306E+0	1.162523E+0	1.156772E+0	1.144470E+0	1.183849E+0	1.161159E+0	1.136628E+0	1.154792E+0	1.109015E+0	1.195749E+0	1.159999E+0	1.197411E+0	1.156660E+0	1.159748E+0	1.149270E+0	1.147558E+0	1.198562E+0	1.145524E+0	1.153024E+0	1.155572E+0	1.212827E+0	1.168277E+0	1.176530E+0	1.179419E+0	1.134672E+0	1.161223E+0	1.154902E+0	1.145691E+0	1.147693E+0	1.160685E+0	1.160953E+0	1.147961E+0	1.224846E+0	1.235295E+0	1.175861E+0	1.175064E+0	1.179162E+0	1.194602E+0	1.155295E+0	1.199288E+0	1.178651E+0	1.200787E+0	1.175068E+0	1.170442E+0	1.142584E+0	1.168193E+0	1.175554E+0	1.168218E+0	1.188610E+0	1.173662E+0	1.184573E+0	1.163600E+0	1.153655E+0	1.200044E+0	1.146086E+0	1.163378E+0	1.209731E+0	1.187061E+0	1.176508E+0	1.142530E+0	1.213781E+0	1.167030E+0	1.145677E+0	1.149090E+0	1.180837E+0	1.142744E+0	1.163468E+0	1.133530E+0	1.162003E+0	1.135769E+0	1.162494E+0	1.151638E+0	1.174059E+0	1.130963E+0	1.165030E+0	1.124487E+0	1.220226E+0	1.156574E+0	1.133332E+0	1.164751E+0	1.163042E+0	1.162697E+0	1.167455E+0	1.176053E+0	1.163189E+0	1.194941E+0	1.152679E+0	1.177665E+0	1.166707E+0	1.174521E+0	1.175245E+0	1.202385E+0	1.159936E+0	1.139907E+0	1.103206E+0	1.179339E+0	1.198084E+0	1.132355E+0	1.191502E+0	1.170150E+0	1.164435E+0	1.113374E+0	1.160206E+0	1.162315E+0	1.186478E+0	1.124960E+0	1.087408E+0	1.181223E+0	1.146280E+0	1.195423E+0	1.158725E+0	1.128522E+0	1.149007E+0	1.153837E+0	1.123550E+0	1.186462E+0	1.180171E+0	1.140689E+0	1.158670E+0	1.168618E+0	1.185377E+0	1.133752E+0	1.157449E+0	1.144002E+0	1.137324E+0	1.110118E+0	1.169430E+0	1.175594E+0	1.184646E+0	1.201527E+0	1.142880E+0	1.115138E+0	1.157929E+0	1.151354E+0	1.154381E+0	1.131202E+0	1.187706E+0	1.186535E+0	1.154070E+0	1.156900E+0	1.173771E+0	1.199953E+0	1.142518E+0	1.120488E+0	1.099077E+0	1.182765E+0	1.148580E+0	1.230308E+0	1.136191E+0	1.119624E+0	1.194412E+0	1.185226E+0	1.157191E+0	1.137778E+0	1.160318E+0	1.070652E+0	1.114031E+0	1.162545E+0	1.110767E+0	1.183878E+0	1.195822E+0
5.433070E+2	1.343131E+0	1.349773E+0	1.308615E+0	1.416619E+0	1.322081E+0	1.329058E+0	1.330823E+0	1.335618E+0	1.353359E+0	1.333886E+0	1.363668E+0	1.421851E+0	1.365411E+0	1.314920E+0	1.328795E+0	1.367844E+0	1.369135E+0	1.313733E+0	1.296462E+0	1.314037E+0	1.329392E+0	1.349326E+0	1.376549E+0	1.329936E+0	1.365014E+0	1.400534E+0	1.331221E+0	1.376014E+0	1.346071E+0	1.320109E+0	1.342920E+0	1.371464E+0	1.364797E+0	1.319261E+0	1.354646E+0	1.365068E+0	1.370927E+0	1.407652E+0	1.361837E+0	1.377717E+0	1.356356E+0	1.402512E+0	1.353625E+0	1.349936E+0	1.329697E+0	1.356158E+0	1.381791E+0	1.355667E+0	1.368744E+0	1.345694E+0	1.334762E+0	1.378051E+0	1.360255E+0	1.343423E+0	1.358151E+0	1.345736E+0	1.289980E+0	1.369917E+0	1.369097E+0	1.411078E+0	1.349237E+0	1.330682E+0	1.291522E+0	1.373395E+0	1.357560E+0	1.337028E+0	1.303265E+0	1.372773E+0	1.296842E+0	1.394662E+0	1.321951E+0	1.353208E+0	1.299707E+0	1.361797E+0	1.336671E+0	1.357769E+0	1.324337E+0	1.363090E+0	1.347216E+0	1.386691E+0	1.293906E+0	1.368702E+0	1.384213E+0	1.332832E+0	1.299715E+0	1.397076E+0	1.309596E+0	1.318569E+0	1.319554E+0	1.350386E+0	1.344226E+0	1.329096E+0	1.321113E+0	1.320433E+0	1.345729E+0	1.336044E+0	1.333702E+0	1.306293E+0	1.327491E+0	1.323630E+0	1.356610E+0	1.310561E+0	1.330996E+0	1.296038E+0	1.349862E+0	1.398375E+0	1.338519E+0	1.349103E+0	1.372900E+0	1.329811E+0	1.399207E+0	1.331310E+0	1.321891E+0	1.361693E+0	1.318076E+0	1.317601E+0	1.345903E+0	1.399181E+0	1.335181E+0	1.377669E+0	1.315055E+0	1.356312E+0	1.413486E+0	1.334141E+0	1.332881E+0	1.342384E+0	1.353951E+0	1.337437E+0	1.335899E+0	1.408151E+0	1.279625E+0	1.319324E+0	1.355907E+0	1.306106E+0	1.325788E+0	1.296161E+0	1.322498E+0	1.303699E+0	1.399376E+0	1.352639E+0	1.323360E+0	1.373850E+0	1.328370E+0	1.347533E+0	1.386465E+0	1.321952E+0	1.332354E+0	1.336349E+0	1.266020E+0	1.325531E+0	1.352625E+0	1.320176E+0	1.319073E+0	1.333347E+0	1.317050E+0	1.336481E+0	1.321684E+0	1.341456E+0	1.351329E+0	1.343776E+0	1.319330E+0	1.328328E+0	1.289344E+0	1.383374E+0	1.343097E+0	1.361258E+0	1.239268E+0	1.289863E+0	1.288298E+0	1.306843E+0
5.435220E+2	1.447651E+0	1.490795E+0	1.463870E+0	1.451959E+0	1.478962E+0	1.545352E+0	1.468383E+0	1.517610E+0	1.457942E+0	1.458713E+0	1.437633E+0	1.500827E+0	1.526155E+0	1.489178E+0	1.445328E+0	1.508336E+0	1.488699E+0	1.461951E+0	1.499645E+0	1.417172E+0	1.469865E+0	1.491112E+0	1.476083E+0	1.502797E+0	1.477553E+0	1.455157E+0	1.462987E+0	1.488066E+0	1.504959E+0	1.468493E+0	1.449683E+0	1.443103E+0	1.480874E+0	1.439957E+0	1.489589E+0	1.471579E+0	1.462736E+0	1.494172E+0	1.485254E+0	1.466752E+0	1.499060E+0	1.495664E+0	1.531607E+0	1.415350E+0	1.436815E+0	1.470943E+0	1.440188E+0	1.466873E+0	1.469265E+0	1.529276E+0	1.419682E+0	1.433624E+0	1.439884E+0	1.443561E+0	1.535687E+0	1.481599E+0	1.515395E+0	1.519556E+0	1.451211E+0	1.474720E+0	1.424993E+0	1.491203E+0	1.438214E+0	1.405051E+0	1.420074E+0	1.419482E+0	1.420963E+0	1.465982E+0	1.453277E+0	1.501694E+0	1.443886E+0	1.502743E+0	1.418107E+0	1.526044E+0	1.395561E+0	1.504894E+0	1.384252E+0	1.429289E+0	1.444956E+0	1.418451E+0	1.441555E+0	1.418675E+0	1.477626E+0	1.420289E+0	1.389539E+0	1.515391E+0	1.447782E+0	1.444205E+0	1.465617E+0	1.410610E+0	1.414593E+0	1.472772E+0	1.459336E+0	1.481829E+0	1.447766E+0	1.482105E+0	1.467243E+0	1.412892E+0	1.479784E+0	1.450660E+0	1.456767E+0	1.502342E+0	1.430806E+0	1.462362E+0	1.456368E+0	1.487474E+0	1.418816E+0	1.481779E+0	1.438504E+0	1.437829E+0	1.447462E+0	1.508409E+0	1.443943E+0	1.408814E+0	1.443740E+0	1.410789E+0	1.466131E+0	1.458457E+0	1.473363E+0	1.444912E+0	1.446243E+0	1.470299E+0	1.473615E+0	1.374352E+0	1.420573E+0	1.462558E+0	1.459030E+0	1.506443E+0	1.460704E+0	1.476505E+0	1.400629E+0	1.429469E+0	1.466492E+0	1.485618E+0	1.443064E+0	1.480668E+0	1.470135E+0	1.522322E+0	1.469299E+0	1.499311E+0	1.435157E+0	1.451953E+0	1.434088E+0	1.436121E+0	1.410208E+0	1.490015E+0	1.441508E+0	1.442309E+0	1.435853E+0	1.486833E+0	1.423720E+0	1.465917E+0	1.473621E+0	1.507268E+0	1.500563E+0	1.406104E+0	1.428130E+0	1.491924E+0	1.463265E+0	1.454397E+0	1.405767E+0	1.407855E+0	1.448012E+0	1.493896E+0	1.413167E+0	1.510178E+0	1.416871E+0	1.461018E+0	1.405957E+0	1.510504E+0
5.437690E+2	1.534294E+0	1.628039E+0	1.576897E+0	1.599819E+0	1.551605E+0	1.655051E+0	1.583526E+0	1.552273E+0	1.553317E+0	1.579659E+0	1.560972E+0	1.596886E+0	1.599305E+0	1.555520E+0	1.558616E+0	1.574093E+0	1.605862E+0	1.572468E+0	1.611116E+0	1.534412E+0	1.581886E+0	1.602416E+0	1.600578E+0	1.591592E+0	1.549189E+0	1.525495E+0	1.569026E+0	1.570320E+0	1.646983E+0	1.553423E+0	1.556465E+0	1.597104E+0	1.584775E+0	1.525603E+0	1.553260E+0	1.598847E+0	1.545863E+0	1.576881E+0	1.528605E+0	1.593237E+0	1.571126E+0	1.567145E+0	1.546716E+0	1.626704E+0	1.553118E+0	1.545426E+0	1.505724E+0	1.548417E+0	1.557590E+0	1.528045E+0	1.480719E+0	1.619764E+0	1.590816E+0	1.545402E+0	1.568950E+0	1.565061E+0	1.561280E+0	1.599454E+0	1.550447E+0	1.632009E+0	1.568510E+0	1.652340E+0	1.535750E+0	1.581066E+0	1.567356E+0	1.516718E+0	1.540081E+0	1.548238E+0	1.519207E+0	1.597860E+0	1.584534E+0	1.529166E+0	1.514476E+0	1.627857E+0	1.560031E+0	1.639906E+0	1.573634E+0	1.541837E+0	1.577880E+0	1.574198E+0	1.506254E+0	1.563839E+0	1.551557E+0	1.592954E+0	1.553387E+0	1.611537E+0	1.601157E+0	1.571494E+0	1.551122E+0	1.594678E+0	1.631184E+0	1.559301E+0	1.550045E+0	1.562753E+0	1.588410E+0	1.578463E+0	1.534665E+0	1.595734E+0	1.539446E+0	1.570182E+0	1.491650E+0	1.588855E+0	1.498580E+0	1.600740E+0	1.484712E+0	1.590278E+0	1.562374E+0	1.569133E+0	1.507945E+0	1.583002E+0	1.587536E+0	1.527540E+0	1.551906E+0	1.555095E+0	1.523960E+0	1.512092E+0	1.519624E+0	1.547450E+0	1.588125E+0	1.551969E+0	1.482065E+0	1.588910E+0	1.542662E+0	1.517342E+0	1.553501E+0	1.588845E+0	1.579840E+0	1.603410E+0	1.575882E+0	1.569496E+0	1.510031E+0	1.525631E+0	1.649625E+0	1.614320E+0	1.559611E+0	1.579885E+0	1.578928E+0	1.586820E+0	1.592892E+0	1.539403E+0	1.520636E+0	1.566856E+0	1.529922E+0	1.505885E+0	1.548518E+0	1.577223E+0	1.548428E+0	1.560464E+0	1.485235E+0	1.554498E+0	1.524803E+0	1.527004E+0	1.503912E+0	1.525328E+0	1.537219E+0	1.534140E+0	1.576892E+0	1.540506E+0	1.573255E+0	1.543781E+0	1.554245E+0	1.569127E+0	1.604107E+0	1.548714E+0	1.525059E+0	1.568313E+0	1.504241E+0	1.573143E+0	1.500364E+0	1.572888E+0
5.440170E+2	1.605405E+0	1.518238E+0	1.641282E+0	1.584840E+0	1.524034E+0	1.604465E+0	1.613381E+0	1.623203E+0	1.586980E+0	1.597837E+0	1.598767E+0	1.571252E+0	1.605617E+0	1.607679E+0	1.579068E+0	1.562814E+0	1.599630E+0	1.616662E+0	1.617178E+0	1.536998E+0	1.621211E+0	1.613049E+0	1.616854E+0	1.592286E+0	1.548513E+0	1.583062E+0	1.642902E+0	1.598110E+0	1.615013E+0	1.616614E+0	1.511048E+0	1.563433E+0	1.548559E+0	1.597520E+0	1.552007E+0	1.576716E+0	1.600875E+0	1.644407E+0	1.575305E+0	1.579718E+0	1.621569E+0	1.650196E+0	1.610033E+0	1.517049E+0	1.580819E+0	1.606724E+0	1.562986E+0	1.546896E+0	1.540907E+0	1.539016E+0	1.564854E+0	1.598065E+0	1.553036E+0	1.624336E+0	1.575349E+0	1.624608E+0	1.558553E+0	1.619417E+0	1.594061E+0	1.586262E+0	1.600360E+0	1.568031E+0	1.530871E+0	1.581039E+0	1.520421E+0	1.589565E+0	1.506024E+0	1.584703E+0	1.564893E+0	1.590006E+0	1.575140E+0	1.574147E+0	1.509909E+0	1.581145E+0	1.592658E+0	1.596521E+0	1.531902E+0	1.596352E+0	1.570419E+0	1.567281E+0	1.538974E+0	1.631591E+0	1.653481E+0	1.531744E+0	1.541625E+0	1.616462E+0	1.524347E+0	1.588921E+0	1.580937E+0	1.615019E+0	1.553752E+0	1.542833E+0	1.568141E+0	1.573743E+0	1.554765E+0	1.536226E+0	1.596723E+0	1.603558E+0	1.599356E+0	1.561056E+0	1.564956E+0	1.571718E+0	1.609809E+0	1.524087E+0	1.549786E+0	1.631477E+0	1.531586E+0	1.546893E+0	1.580976E+0	1.542113E+0	1.536050E+0	1.589424E+0	1.558624E+0	1.519420E+0	1.567424E+0	1.631332E+0	1.588966E+0	1.583921E+0	1.586130E+0	1.575616E+0	1.601246E+0	1.624757E+0	1.558604E+0	1.593098E+0	1.564200E+0	1.564643E+0	1.586253E+0	1.595376E+0	1.542049E+0	1.613812E+0	1.560770E+0	1.598234E+0	1.614711E+0	1.642833E+0	1.561706E+0	1.543320E+0	1.565481E+0	1.534337E+0	1.536367E+0	1.618495E+0	1.554961E+0	1.554159E+0	1.523104E+0	1.521992E+0	1.540655E+0	1.566786E+0	1.532499E+0	1.518751E+0	1.547443E+0	1.614439E+0	1.555209E+0	1.595242E+0	1.489977E+0	1.582472E+0	1.531442E+0	1.580095E+0	1.546464E+0	1.597222E+0	1.521728E+0	1.622862E+0	1.536279E+0	1.529278E+0	1.517073E+0	1.618028E+0	1.466403E+0	1.562278E+0	1.583251E+0	1.561779E+0	1.525790E+0	1.493051E+0
5.442920E+2	1.596425E+0	1.612635E+0	1.632922E+0	1.695897E+0	1.604649E+0	1.597358E+0	1.594700E+0	1.606300E+0	1.633008E+0	1.619752E+0	1.611206E+0	1.590789E+0	1.620137E+0	1.592995E+0	1.609665E+0	1.572010E+0	1.652373E+0	1.594957E+0	1.685782E+0	1.571468E+0	1.587127E+0	1.639840E+0	1.624637E+0	1.562027E+0	1.595574E+0	1.602939E+0	1.617203E+0	1.601036E+0	1.614271E+0	1.557881E+0	1.622225E+0	1.633161E+0	1.576930E+0	1.556584E+0	1.516286E+0	1.572549E+0	1.604342E+0	1.602113E+0	1.563117E+0	1.658418E+0	1.647395E+0	1.577777E+0	1.593668E+0	1.543536E+0	1.568081E+0	1.599568E+0	1.603189E+0	1.531190E+0	1.592484E+0	1.552044E+0	1.581997E+0	1.627333E+0	1.583899E+0	1.532525E+0	1.620252E+0	1.623829E+0	1.566624E+0	1.652973E+0	1.585146E+0	1.586480E+0	1.591053E+0	1.644270E+0	1.625589E+0	1.569870E+0	1.559543E+0	1.553140E+0	1.581081E+0	1.578902E+0	1.590058E+0	1.653003E+0	1.587090E+0	1.589838E+0	1.597219E+0	1.610480E+0	1.532332E+0	1.643314E+0	1.544465E+0	1.559487E+0	1.617616E+0	1.622120E+0	1.592750E+0	1.628429E+0	1.573485E+0	1.582764E+0	1.568049E+0	1.598064E+0	1.572858E+0	1.604869E+0	1.558429E+0	1.621965E+0	1.578015E+0	1.569675E+0	1.567485E+0	1.606578E+0	1.524381E+0	1.590124E+0	1.569888E+0	1.624827E+0	1.568159E+0	1.563680E+0	1.612044E+0	1.566604E+0	1.596140E+0	1.598979E+0	1.570439E+0	1.635318E+0	1.558901E+0	1.615823E+0	1.561956E+0	1.567383E+0	1.535592E+0	1.642668E+0	1.567925E+0	1.544111E+0	1.528451E+0	1.589726E+0	1.564896E+0	1.585825E+0	1.593229E+0	1.636874E+0	1.551722E+0	1.573001E+0	1.547446E+0	1.574265E+0	1.557068E+0	1.547353E+0	1.605990E+0	1.611227E+0	1.556175E+0	1.571195E+0	1.616493E+0	1.591634E+0	1.615191E+0	1.587869E+0	1.610393E+0	1.612020E+0	1.540292E+0	1.613408E+0	1.537913E+0	1.567120E+0	1.541906E+0	1.591718E+0	1.548845E+0	1.532220E+0	1.598272E+0	1.639347E+0	1.526061E+0	1.597553E+0	1.559956E+0	1.574032E+0	1.574269E+0	1.623977E+0	1.540947E+0	1.543885E+0	1.553252E+0	1.556747E+0	1.542143E+0	1.551288E+0	1.566791E+0	1.607206E+0	1.547273E+0	1.594926E+0	1.601366E+0	1.570953E+0	1.565413E+0	1.613609E+0	1.537209E+0	1.653531E+0	1.514495E+0	1.619250E+0
5.445240E+2	1.574557E+0	1.539170E+0	1.607565E+0	1.560050E+0	1.572105E+0	1.617488E+0	1.583500E+0	1.602967E+0	1.589457E+0	1.559695E+0	1.520196E+0	1.616476E+0	1.578381E+0	1.527386E+0	1.567548E+0	1.601089E+0	1.586472E+0	1.552760E+0	1.575221E+0	1.567113E+0	1.602128E+0	1.525024E+0	1.547914E+0	1.590036E+0	1.497291E+0	1.515548E+0	1.515280E+0	1.549866E+0	1.520223E+0	1.515995E+0	1.557553E+0	1.534212E+0	1.550847E+0	1.561702E+0	1.554002E+0	1.547611E+0	1.544365E+0	1.560076E+0	1.567690E+0	1.566051E+0	1.558332E+0	1.543577E+0	1.533676E+0	1.597100E+0	1.518454E+0	1.596461E+0	1.553824E+0	1.467090E+0	1.555491E+0	1.527108E+0	1.550835E+0	1.568813E+0	1.517547E+0	1.530123E+0	1.575752E+0	1.533537E+0	1.584919E+0	1.668340E+0	1.525461E+0	1.544396E+0	1.529801E+0	1.570898E+0	1.584933E+0	1.582344E+0	1.508330E+0	1.504690E+0	1.494485E+0	1.542746E+0	1.530127E+0	1.609752E+0	1.548683E+0	1.580057E+0	1.521395E+0	1.535715E+0	1.531534E+0	1.531478E+0	1.477307E+0	1.573066E+0	1.464936E+0	1.602238E+0	1.507923E+0	1.512983E+0	1.545962E+0	1.515847E+0	1.558566E+0	1.592328E+0	1.517755E+0	1.515364E+0	1.532361E+0	1.575940E+0	1.521230E+0	1.557999E+0	1.502120E+0	1.586149E+0	1.627497E+0	1.522611E+0	1.549746E+0	1.554625E+0	1.572889E+0	1.522936E+0	1.566845E+0	1.588941E+0	1.532141E+0	1.576789E+0	1.533328E+0	1.535598E+0	1.591537E+0	1.545353E+0	1.499792E+0	1.546126E+0	1.561399E+0	1.496259E+0	1.515899E+0	1.509389E+0	1.541897E+0	1.515609E+0	1.580028E+0	1.594070E+0	1.587322E+0	1.606200E+0	1.579883E+0	1.582712E+0	1.538952E+0	1.523845E+0	1.539716E+0	1.552872E+0	1.561982E+0	1.506555E+0	1.566849E+0	1.617796E+0	1.574440E+0	1.464059E+0	1.550292E+0	1.535325E+0	1.519049E+0	1.506704E+0	1.552060E+0	1.557771E+0	1.583924E+0	1.586820E+0	1.474026E+0	1.536852E+0	1.521589E+0	1.506059E+0	1.528780E+0	1.578220E+0	1.533118E+0	1.512672E+0	1.478474E+0	1.579039E+0	1.546616E+0	1.527067E+0	1.528771E+0	1.497178E+0	1.504014E+0	1.501249E+0	1.585522E+0	1.507336E+0	1.560414E+0	1.535812E+0	1.503106E+0	1.475259E+0	1.599961E+0	1.489789E+0	1.528059E+0	1.516400E+0	1.495198E+0	1.542046E+0	1.545980E+0	1.501072E+0
5.447720E+2	1.475851E+0	1.515885E+0	1.505498E+0	1.529838E+0	1.534357E+0	1.541808E+0	1.517353E+0	1.515915E+0	1.530562E+0	1.494057E+0	1.487249E+0	1.520487E+0	1.487526E+0	1.490488E+0	1.513919E+0	1.550684E+0	1.454820E+0	1.511977E+0	1.469016E+0	1.493401E+0	1.478441E+0	1.542701E+0	1.535208E+0	1.526419E+0	1.483497E+0	1.473065E+0	1.479514E+0	1.501544E+0	1.456776E+0	1.479477E+0	1.497480E+0	1.452388E+0	1.484441E+0	1.459175E+0	1.513808E+0	1.479591E+0	1.492541E+0	1.537038E+0	1.527080E+0	1.466191E+0	1.514238E+0	1.523073E+0	1.511005E+0	1.485572E+0	1.522033E+0	1.517898E+0	1.463778E+0	1.468728E+0	1.492031E+0	1.447979E+0	1.499747E+0	1.545445E+0	1.470978E+0	1.473334E+0	1.497169E+0	1.502526E+0	1.456441E+0	1.540259E+0	1.486897E+0	1.574903E+0	1.455301E+0	1.464098E+0	1.478373E+0	1.468541E+0	1.440262E+0	1.467656E+0	1.461375E+0	1.500761E+0	1.497391E+0	1.517077E+0	1.528519E+0	1.477534E+0	1.497777E+0	1.499671E+0	1.426897E+0	1.553650E+0	1.449297E+0	1.475292E+0	1.486586E+0	1.514380E+0	1.470391E+0	1.509003E+0	1.522471E+0	1.496435E+0	1.491095E+0	1.554642E+0	1.484435E+0	1.508468E+0	1.488970E+0	1.514884E+0	1.503239E+0	1.505543E+0	1.440612E+0	1.493334E+0	1.488824E+0	1.469907E+0	1.486606E+0	1.530769E+0	1.516272E+0	1.530989E+0	1.477278E+0	1.507255E+0	1.543000E+0	1.512937E+0	1.472079E+0	1.489455E+0	1.535394E+0	1.472387E+0	1.489646E+0	1.527351E+0	1.437281E+0	1.484916E+0	1.470268E+0	1.394861E+0	1.526496E+0	1.460829E+0	1.485683E+0	1.532159E+0	1.487010E+0	1.502151E+0	1.454822E+0	1.487546E+0	1.483579E+0	1.497940E+0	1.462153E+0	1.468282E+0	1.477591E+0	1.486478E+0	1.473353E+0	1.483683E+0	1.556957E+0	1.473199E+0	1.535862E+0	1.500998E+0	1.473542E+0	1.514806E+0	1.500299E+0	1.512265E+0	1.542712E+0	1.475658E+0	1.463130E+0	1.513344E+0	1.462919E+0	1.462947E+0	1.477106E+0	1.493904E+0	1.472055E+0	1.474841E+0	1.443204E+0	1.482666E+0	1.504926E+0	1.453387E+0	1.403640E+0	1.507181E+0	1.467865E+0	1.452392E+0	1.519723E+0	1.460069E+0	1.448354E+0	1.482287E+0	1.447690E+0	1.425196E+0	1.445708E+0	1.455719E+0	1.409708E+0	1.442358E+0	1.466739E+0	1.488924E+0	1.442860E+0	1.566721E+0
5.450150E+2	1.411500E+0	1.412763E+0	1.340896E+0	1.388284E+0	1.347164E+0	1.361795E+0	1.388829E+0	1.402381E+0	1.356506E+0	1.349383E+0	1.370751E+0	1.374074E+0	1.413764E+0	1.352004E+0	1.364248E+0	1.390229E+0	1.394517E+0	1.412699E+0	1.410331E+0	1.397778E+0	1.397769E+0	1.429715E+0	1.401168E+0	1.369164E+0	1.362211E+0	1.328374E+0	1.371181E+0	1.391283E+0	1.389424E+0	1.347851E+0	1.337240E+0	1.356756E+0	1.372013E+0	1.349740E+0	1.391022E+0	1.353919E+0	1.312526E+0	1.355240E+0	1.357161E+0	1.368644E+0	1.352963E+0	1.378811E+0	1.390790E+0	1.356248E+0	1.336161E+0	1.421975E+0	1.296826E+0	1.356796E+0	1.319176E+0	1.381401E+0	1.349488E+0	1.329865E+0	1.358905E+0	1.324801E+0	1.389263E+0	1.405751E+0	1.375685E+0	1.384668E+0	1.369619E+0	1.356356E+0	1.392789E+0	1.365270E+0	1.384658E+0	1.391631E+0	1.320921E+0	1.368803E+0	1.352946E+0	1.351592E+0	1.382750E+0	1.387459E+0	1.378491E+0	1.371279E+0	1.364477E+0	1.378990E+0	1.371842E+0	1.410960E+0	1.302423E+0	1.312932E+0	1.354490E+0	1.404900E+0	1.379926E+0	1.351681E+0	1.366331E+0	1.367460E+0	1.337121E+0	1.428827E+0	1.362064E+0	1.390239E+0	1.359765E+0	1.340591E+0	1.322654E+0	1.387865E+0	1.378652E+0	1.302153E+0	1.360181E+0	1.312439E+0	1.333877E+0	1.342498E+0	1.402854E+0	1.352777E+0	1.402726E+0	1.391028E+0	1.363628E+0	1.391833E+0	1.383231E+0	1.392145E+0	1.362123E+0	1.428647E+0	1.330985E+0	1.359970E+0	1.414035E+0	1.397747E+0	1.353926E+0	1.337086E+0	1.339481E+0	1.388284E+0	1.329277E+0	1.383010E+0	1.371734E+0	1.398018E+0	1.359806E+0	1.374178E+0	1.399705E+0	1.367817E+0	1.403628E+0	1.369770E+0	1.349371E+0	1.386416E+0	1.373565E+0	1.405515E+0	1.343211E+0	1.383651E+0	1.333394E+0	1.397358E+0	1.357158E+0	1.350839E+0	1.338590E+0	1.418612E+0	1.357551E+0	1.351299E+0	1.404600E+0	1.333090E+0	1.356371E+0	1.326095E+0	1.360510E+0	1.440885E+0	1.342076E+0	1.328999E+0	1.358348E+0	1.397531E+0	1.347233E+0	1.387891E+0	1.346007E+0	1.325340E+0	1.345107E+0	1.354434E+0	1.323575E+0	1.379291E+0	1.370754E+0	1.370503E+0	1.372968E+0	1.328016E+0	1.370960E+0	1.387186E+0	1.339237E+0	1.411804E+0	1.377295E+0	1.331894E+0	1.361592E+0	1.344135E+0
5.452580E+2	1.303801E+0	1.325577E+0	1.291794E+0	1.340477E+0	1.283810E+0	1.294197E+0	1.273911E+0	1.280986E+0	1.298220E+0	1.299387E+0	1.351462E+0	1.345896E+0	1.295392E+0	1.259204E+0	1.311508E+0	1.328570E+0	1.332368E+0	1.289379E+0	1.335071E+0	1.317621E+0	1.294238E+0	1.296055E+0	1.280207E+0	1.303898E+0	1.257178E+0	1.251998E+0	1.334350E+0	1.241854E+0	1.294347E+0	1.325961E+0	1.290303E+0	1.293413E+0	1.328955E+0	1.270697E+0	1.305289E+0	1.278548E+0	1.331639E+0	1.257454E+0	1.308021E+0	1.331809E+0	1.353840E+0	1.287991E+0	1.305124E+0	1.302372E+0	1.292924E+0	1.319542E+0	1.266831E+0	1.271310E+0	1.268150E+0	1.264096E+0	1.284281E+0	1.284335E+0	1.264556E+0	1.290529E+0	1.343049E+0	1.280619E+0	1.264087E+0	1.265493E+0	1.310754E+0	1.334126E+0	1.271032E+0	1.293325E+0	1.313660E+0	1.314217E+0	1.321135E+0	1.267657E+0	1.297212E+0	1.289675E+0	1.274099E+0	1.332488E+0	1.251776E+0	1.314790E+0	1.268566E+0	1.302557E+0	1.312863E+0	1.307045E+0	1.235019E+0	1.248229E+0	1.299778E+0	1.297720E+0	1.291955E+0	1.273600E+0	1.301293E+0	1.301387E+0	1.283216E+0	1.312443E+0	1.309789E+0	1.288454E+0	1.262531E+0	1.270677E+0	1.330105E+0	1.246517E+0	1.288510E+0	1.289644E+0	1.299811E+0	1.286253E+0	1.320211E+0	1.313678E+0	1.290850E+0	1.263510E+0	1.308702E+0	1.243790E+0	1.301650E+0	1.295159E+0	1.345627E+0	1.333290E+0	1.287886E+0	1.336810E+0	1.271092E+0	1.290321E+0	1.345608E+0	1.347994E+0	1.322088E+0	1.268009E+0	1.312279E+0	1.256651E+0	1.280377E+0	1.282727E+0	1.306500E+0	1.267278E+0	1.277632E+0	1.299120E+0	1.338040E+0	1.245650E+0	1.316388E+0	1.275736E+0	1.290148E+0	1.306802E+0	1.279148E+0	1.290206E+0	1.312116E+0	1.290738E+0	1.299911E+0	1.314631E+0	1.338962E+0	1.349338E+0	1.310709E+0	1.239411E+0	1.336442E+0	1.271526E+0	1.295214E+0	1.336644E+0	1.220512E+0	1.241265E+0	1.286828E+0	1.315128E+0	1.262325E+0	1.244745E+0	1.291971E+0	1.332731E+0	1.314335E+0	1.327321E+0	1.286207E+0	1.296057E+0	1.324095E+0	1.273531E+0	1.295750E+0	1.292496E+0	1.302340E+0	1.272827E+0	1.258578E+0	1.260471E+0	1.271860E+0	1.291747E+0	1.286980E+0	1.325760E+0	1.325626E+0	1.313888E+0	1.287358E+0	1.232748E+0
5.455500E+2	1.188701E+0	1.234659E+0	1.239153E+0	1.237884E+0	1.240765E+0	1.235082E+0	1.219617E+0	1.238355E+0	1.187936E+0	1.221632E+0	1.238916E+0	1.285232E+0	1.195194E+0	1.218665E+0	1.250209E+0	1.237528E+0	1.269420E+0	1.210721E+0	1.203462E+0	1.218035E+0	1.261228E+0	1.200282E+0	1.198047E+0	1.286989E+0	1.182841E+0	1.261036E+0	1.193227E+0	1.278986E+0	1.206884E+0	1.217985E+0	1.253786E+0	1.251175E+0	1.258530E+0	1.212940E+0	1.249839E+0	1.273476E+0	1.230750E+0	1.214504E+0	1.251086E+0	1.180097E+0	1.212123E+0	1.269898E+0	1.159078E+0	1.258742E+0	1.212755E+0	1.214196E+0	1.260156E+0	1.240387E+0	1.251986E+0	1.194542E+0	1.170270E+0	1.238647E+0	1.215780E+0	1.240910E+0	1.217652E+0	1.250644E+0	1.221788E+0	1.243702E+0	1.256044E+0	1.210806E+0	1.236068E+0	1.217023E+0	1.243379E+0	1.212742E+0	1.181351E+0	1.207137E+0	1.200626E+0	1.248793E+0	1.188730E+0	1.196505E+0	1.232237E+0	1.278863E+0	1.201231E+0	1.205666E+0	1.231775E+0	1.222708E+0	1.204594E+0	1.198362E+0	1.235324E+0	1.270047E+0	1.189810E+0	1.195867E+0	1.186432E+0	1.228797E+0	1.189923E+0	1.231443E+0	1.246128E+0	1.182986E+0	1.213408E+0	1.280948E+0	1.199876E+0	1.259113E+0	1.239837E+0	1.199371E+0	1.215225E+0	1.214023E+0	1.227774E+0	1.240744E+0	1.236124E+0	1.232368E+0	1.243475E+0	1.211964E+0	1.230757E+0	1.193690E+0	1.206381E+0	1.208626E+0	1.235790E+0	1.212478E+0	1.211133E+0	1.200843E+0	1.197226E+0	1.259256E+0	1.190598E+0	1.199166E+0	1.238581E+0	1.223128E+0	1.238553E+0	1.177646E+0	1.252403E+0	1.193877E+0	1.204664E+0	1.224113E+0	1.236398E+0	1.178242E+0	1.216992E+0	1.206520E+0	1.218447E+0	1.226793E+0	1.225674E+0	1.229975E+0	1.200247E+0	1.211005E+0	1.237844E+0	1.192140E+0	1.232169E+0	1.202385E+0	1.262769E+0	1.231901E+0	1.234687E+0	1.217127E+0	1.235239E+0	1.193979E+0	1.206385E+0	1.189337E+0	1.261573E+0	1.229168E+0	1.223331E+0	1.203789E+0	1.223648E+0	1.213920E+0	1.222905E+0	1.280514E+0	1.172200E+0	1.206810E+0	1.236248E+0	1.204164E+0	1.233262E+0	1.247626E+0	1.235739E+0	1.247902E+0	1.130165E+0	1.131344E+0	1.206007E+0	1.250111E+0	1.132635E+0	1.225373E+0	1.251310E+0	1.198668E+0	1.154917E+0	1.170563E+0
5.457830E+2	1.192032E+0	1.199448E+0	1.237811E+0	1.210131E+0	1.223690E+0	1.190711E+0	1.188365E+0	1.204411E+0	1.247889E+0	1.154864E+0	1.233833E+0	1.221793E+0	1.254950E+0	1.232251E+0	1.163821E+0	1.249486E+0	1.199436E+0	1.181923E+0	1.256016E+0	1.208885E+0	1.225147E+0	1.216761E+0	1.207048E+0	1.198140E+0	1.178994E+0	1.232976E+0	1.204336E+0	1.177091E+0	1.166280E+0	1.199410E+0	1.238105E+0	1.198303E+0	1.228730E+0	1.222216E+0	1.159143E+0	1.207134E+0	1.205758E+0	1.183791E+0	1.209871E+0	1.178882E+0	1.269639E+0	1.212587E+0	1.244079E+0	1.231549E+0	1.242781E+0	1.242482E+0	1.183668E+0	1.177601E+0	1.198738E+0	1.136721E+0	1.166267E+0	1.208309E+0	1.215908E+0	1.183163E+0	1.244826E+0	1.250591E+0	1.210108E+0	1.185181E+0	1.172738E+0	1.214787E+0	1.224306E+0	1.212732E+0	1.201257E+0	1.213621E+0	1.198088E+0	1.153188E+0	1.218553E+0	1.219595E+0	1.211557E+0	1.216014E+0	1.196131E+0	1.204243E+0	1.213946E+0	1.245672E+0	1.186479E+0	1.250951E+0	1.176393E+0	1.174327E+0	1.172407E+0	1.229124E+0	1.229669E+0	1.225340E+0	1.184900E+0	1.267493E+0	1.153699E+0	1.226148E+0	1.211748E+0	1.196051E+0	1.194119E+0	1.214778E+0	1.223244E+0	1.217679E+0	1.182245E+0	1.166535E+0	1.237897E+0	1.239801E+0	1.264802E+0	1.206973E+0	1.181097E+0	1.222713E+0	1.175955E+0	1.166481E+0	1.214746E+0	1.233724E+0	1.196763E+0	1.196010E+0	1.199296E+0	1.220201E+0	1.181707E+0	1.215254E+0	1.227683E+0	1.239155E+0	1.136440E+0	1.217104E+0	1.195109E+0	1.200056E+0	1.185197E+0	1.193280E+0	1.237541E+0	1.186066E+0	1.200762E+0	1.196527E+0	1.215437E+0	1.211836E+0	1.151370E+0	1.198169E+0	1.247737E+0	1.210960E+0	1.135942E+0	1.175210E+0	1.204376E+0	1.175665E+0	1.219966E+0	1.273609E+0	1.223563E+0	1.278636E+0	1.208824E+0	1.209678E+0	1.247367E+0	1.201553E+0	1.210222E+0	1.190529E+0	1.183962E+0	1.179515E+0	1.189792E+0	1.160452E+0	1.219059E+0	1.154162E+0	1.167671E+0	1.197579E+0	1.220560E+0	1.239989E+0	1.177112E+0	1.204208E+0	1.226471E+0	1.173973E+0	1.203800E+0	1.204528E+0	1.196857E+0	1.166207E+0	1.180133E+0	1.133202E+0	1.174160E+0	1.240013E+0	1.210482E+0	1.172163E+0	1.166831E+0	1.220809E+0	1.150297E+0	1.144939E+0
5.460060E+2	1.180936E+0	1.209409E+0	1.250341E+0	1.199468E+0	1.199447E+0	1.226734E+0	1.253746E+0	1.186539E+0	1.190352E+0	1.180735E+0	1.232375E+0	1.231434E+0	1.210031E+0	1.208126E+0	1.220202E+0	1.208943E+0	1.227814E+0	1.208368E+0	1.128160E+0	1.164721E+0	1.235943E+0	1.160002E+0	1.253034E+0	1.191969E+0	1.223465E+0	1.197246E+0	1.228367E+0	1.226982E+0	1.189116E+0	1.153851E+0	1.202909E+0	1.176216E+0	1.195869E+0	1.230464E+0	1.222498E+0	1.211283E+0	1.176133E+0	1.168508E+0	1.192488E+0	1.215789E+0	1.200489E+0	1.184645E+0	1.274197E+0	1.163509E+0	1.188066E+0	1.164922E+0	1.212322E+0	1.185984E+0	1.239323E+0	1.192510E+0	1.174330E+0	1.213915E+0	1.219159E+0	1.138191E+0	1.222957E+0	1.240540E+0	1.140064E+0	1.221809E+0	1.229032E+0	1.206218E+0	1.160038E+0	1.160427E+0	1.220227E+0	1.176313E+0	1.178076E+0	1.230027E+0	1.177699E+0	1.143871E+0	1.197633E+0	1.172759E+0	1.228854E+0	1.192759E+0	1.158235E+0	1.227215E+0	1.223217E+0	1.250639E+0	1.190889E+0	1.194621E+0	1.203912E+0	1.182364E+0	1.178799E+0	1.213423E+0	1.213418E+0	1.210335E+0	1.233582E+0	1.241939E+0	1.189682E+0	1.203967E+0	1.157638E+0	1.145956E+0	1.195830E+0	1.204447E+0	1.164063E+0	1.244437E+0	1.197426E+0	1.202581E+0	1.200947E+0	1.183816E+0	1.245666E+0	1.179563E+0	1.199674E+0	1.198894E+0	1.171429E+0	1.190381E+0	1.168463E+0	1.217761E+0	1.222327E+0	1.209870E+0	1.207915E+0	1.206628E+0	1.191344E+0	1.183197E+0	1.230188E+0	1.172516E+0	1.238385E+0	1.199989E+0	1.183025E+0	1.175520E+0	1.206498E+0	1.190637E+0	1.194354E+0	1.175924E+0	1.211521E+0	1.103948E+0	1.218471E+0	1.231376E+0	1.199564E+0	1.176742E+0	1.127519E+0	1.245702E+0	1.204907E+0	1.201403E+0	1.160686E+0	1.197662E+0	1.235127E+0	1.205115E+0	1.167910E+0	1.181510E+0	1.188479E+0	1.143513E+0	1.183867E+0	1.203950E+0	1.212678E+0	1.157491E+0	1.208062E+0	1.220544E+0	1.183971E+0	1.177856E+0	1.169180E+0	1.152629E+0	1.213146E+0	1.215696E+0	1.139222E+0	1.248064E+0	1.256549E+0	1.162555E+0	1.193999E+0	1.218582E+0	1.164668E+0	1.222120E+0	1.205020E+0	1.191785E+0	1.205732E+0	1.190255E+0	1.190685E+0	1.204568E+0	1.150301E+0	1.230915E+0	1.186917E+0	1.151037E+0
5.467710E+2	1.243778E+0	1.226353E+0	1.235234E+0	1.248640E+0	1.195519E+0	1.258125E+0	1.230339E+0	1.215049E+0	1.229081E+0	1.279735E+0	1.243679E+0	1.266865E+0	1.273908E+0	1.282875E+0	1.236227E+0	1.236508E+0	1.235162E+0	1.240721E+0	1.314062E+0	1.189527E+0	1.275404E+0	1.182502E+0	1.257530E+0	1.244242E+0	1.271244E+0	1.272756E+0	1.249988E+0	1.260630E+0	1.257584E+0	1.248110E+0	1.263392E+0	1.243497E+0	1.278086E+0	1.264964E+0	1.246267E+0	1.268445E+0	1.239966E+0	1.254486E+0	1.299352E+0	1.248879E+0	1.217465E+0	1.303727E+0	1.319831E+0	1.281093E+0	1.228085E+0	1.270857E+0	1.248530E+0	1.275203E+0	1.230756E+0	1.266597E+0	1.276465E+0	1.272237E+0	1.265618E+0	1.206567E+0	1.281797E+0	1.274177E+0	1.234199E+0	1.311730E+0	1.283538E+0	1.281922E+0	1.258493E+0	1.216264E+0	1.247724E+0	1.229496E+0	1.223325E+0	1.232195E+0	1.261933E+0	1.274353E+0	1.223451E+0	1.295657E+0	1.272263E+0	1.272155E+0	1.268882E+0	1.274774E+0	1.224712E+0	1.303182E+0	1.275113E+0	1.220001E+0	1.304688E+0	1.263058E+0	1.254758E+0	1.285386E+0	1.300639E+0	1.241565E+0	1.231648E+0	1.221222E+0	1.274487E+0	1.238796E+0	1.204988E+0	1.250419E+0	1.223841E+0	1.264029E+0	1.266010E+0	1.257323E+0	1.271782E+0	1.246417E+0	1.233709E+0	1.248243E+0	1.231579E+0	1.249436E+0	1.237055E+0	1.220546E+0	1.218907E+0	1.260195E+0	1.222655E+0	1.269577E+0	1.261391E+0	1.282079E+0	1.205836E+0	1.219716E+0	1.249752E+0	1.294178E+0	1.256656E+0	1.268263E+0	1.274583E+0	1.240869E+0	1.258789E+0	1.254815E+0	1.300187E+0	1.259249E+0	1.246627E+0	1.267969E+0	1.314711E+0	1.229315E+0	1.221304E+0	1.255300E+0	1.268412E+0	1.262697E+0	1.252501E+0	1.241574E+0	1.247029E+0	1.285534E+0	1.225928E+0	1.265753E+0	1.242284E+0	1.282531E+0	1.253660E+0	1.237520E+0	1.226169E+0	1.260997E+0	1.275835E+0	1.215397E+0	1.330556E+0	1.277292E+0	1.247630E+0	1.291539E+0	1.216196E+0	1.226697E+0	1.256917E+0	1.286317E+0	1.301098E+0	1.246625E+0	1.307454E+0	1.227685E+0	1.246800E+0	1.254461E+0	1.247748E+0	1.256518E+0	1.204713E+0	1.255502E+0	1.246898E+0	1.239664E+0	1.250447E+0	1.247520E+0	1.259837E+0	1.232068E+0	1.238786E+0	1.211072E+0	1.227229E+0	1.226704E+0
5.475120E+2	1.310553E+0	1.347374E+0	1.355840E+0	1.398539E+0	1.368981E+0	1.375560E+0	1.357303E+0	1.365012E+0	1.310473E+0	1.352244E+0	1.363857E+0	1.403345E+0	1.342655E+0	1.359440E+0	1.384331E+0	1.384381E+0	1.382162E+0	1.273215E+0	1.423178E+0	1.296471E+0	1.365008E+0	1.372680E+0	1.355192E+0	1.350771E+0	1.362834E+0	1.341479E+0	1.294845E+0	1.393928E+0	1.376685E+0	1.368062E+0	1.342362E+0	1.400441E+0	1.342929E+0	1.366891E+0	1.331691E+0	1.377581E+0	1.344611E+0	1.366690E+0	1.341596E+0	1.349686E+0	1.322613E+0	1.373089E+0	1.358734E+0	1.359727E+0	1.350495E+0	1.398104E+0	1.353712E+0	1.323544E+0	1.373473E+0	1.337460E+0	1.359592E+0	1.321877E+0	1.386266E+0	1.304079E+0	1.386230E+0	1.343735E+0	1.415278E+0	1.336657E+0	1.384633E+0	1.375218E+0	1.336181E+0	1.350365E+0	1.332868E+0	1.339917E+0	1.357197E+0	1.387648E+0	1.306567E+0	1.358931E+0	1.387525E+0	1.348359E+0	1.323130E+0	1.381905E+0	1.350549E+0	1.397023E+0	1.317188E+0	1.347211E+0	1.359333E+0	1.301169E+0	1.376319E+0	1.397668E+0	1.296645E+0	1.339925E+0	1.356105E+0	1.342990E+0	1.295319E+0	1.348463E+0	1.332296E+0	1.399186E+0	1.365031E+0	1.359979E+0	1.383922E+0	1.374773E+0	1.305224E+0	1.311653E+0	1.350412E+0	1.316325E+0	1.321699E+0	1.318417E+0	1.373844E+0	1.328810E+0	1.314272E+0	1.347821E+0	1.378989E+0	1.345343E+0	1.296947E+0	1.354832E+0	1.327830E+0	1.344905E+0	1.319646E+0	1.307105E+0	1.345951E+0	1.349666E+0	1.375815E+0	1.282166E+0	1.336674E+0	1.350675E+0	1.323912E+0	1.331222E+0	1.340985E+0	1.336714E+0	1.335991E+0	1.329521E+0	1.382562E+0	1.306708E+0	1.335864E+0	1.345610E+0	1.306078E+0	1.369620E+0	1.372141E+0	1.337713E+0	1.343072E+0	1.335976E+0	1.368231E+0	1.320373E+0	1.372091E+0	1.333869E+0	1.389736E+0	1.313219E+0	1.302062E+0	1.383286E+0	1.297169E+0	1.334058E+0	1.295260E+0	1.335340E+0	1.344440E+0	1.352158E+0	1.300041E+0	1.335766E+0	1.332454E+0	1.373601E+0	1.369206E+0	1.313110E+0	1.360881E+0	1.283932E+0	1.350381E+0	1.287728E+0	1.392490E+0	1.317175E+0	1.275492E+0	1.347262E+0	1.286032E+0	1.272085E+0	1.354291E+0	1.335994E+0	1.284531E+0	1.278030E+0	1.325480E+0	1.369688E+0	1.252664E+0	1.326204E+0
5.482660E+2	1.426230E+0	1.453990E+0	1.459170E+0	1.466927E+0	1.430271E+0	1.447604E+0	1.445139E+0	1.473410E+0	1.407387E+0	1.384652E+0	1.447145E+0	1.453926E+0	1.461744E+0	1.414585E+0	1.462651E+0	1.424333E+0	1.436431E+0	1.428114E+0	1.453177E+0	1.410848E+0	1.381146E+0	1.453496E+0	1.420866E+0	1.436802E+0	1.393875E+0	1.442140E+0	1.412137E+0	1.431020E+0	1.394582E+0	1.398739E+0	1.381581E+0	1.390480E+0	1.438476E+0	1.410367E+0	1.355315E+0	1.428092E+0	1.448048E+0	1.390987E+0	1.381147E+0	1.443031E+0	1.440894E+0	1.424874E+0	1.453019E+0	1.407718E+0	1.413140E+0	1.491859E+0	1.366025E+0	1.425581E+0	1.373721E+0	1.388418E+0	1.415947E+0	1.400246E+0	1.388990E+0	1.357920E+0	1.423168E+0	1.437640E+0	1.428572E+0	1.460225E+0	1.398025E+0	1.439985E+0	1.368025E+0	1.428193E+0	1.434354E+0	1.380004E+0	1.428464E+0	1.358797E+0	1.398817E+0	1.448169E+0	1.361786E+0	1.406346E+0	1.388854E+0	1.395375E+0	1.425752E+0	1.424263E+0	1.391769E+0	1.469791E+0	1.406067E+0	1.341121E+0	1.417355E+0	1.400729E+0	1.375859E+0	1.452417E+0	1.397409E+0	1.390425E+0	1.370786E+0	1.384370E+0	1.401709E+0	1.439196E+0	1.424555E+0	1.431801E+0	1.377383E+0	1.418009E+0	1.410802E+0	1.418981E+0	1.423923E+0	1.409286E+0	1.431927E+0	1.376666E+0	1.443096E+0	1.367129E+0	1.410799E+0	1.402812E+0	1.439331E+0	1.353505E+0	1.393717E+0	1.461219E+0	1.424131E+0	1.398858E+0	1.381415E+0	1.420236E+0	1.425309E+0	1.438685E+0	1.387210E+0	1.337561E+0	1.438008E+0	1.420891E+0	1.405397E+0	1.379350E+0	1.430016E+0	1.411566E+0	1.396070E+0	1.383294E+0	1.380957E+0	1.388937E+0	1.408417E+0	1.414320E+0	1.414297E+0	1.400930E+0	1.411006E+0	1.412934E+0	1.380184E+0	1.397731E+0	1.383891E+0	1.415033E+0	1.431379E+0	1.403773E+0	1.423069E+0	1.430060E+0	1.447231E+0	1.419215E+0	1.436356E+0	1.363878E+0	1.423786E+0	1.397288E+0	1.387469E+0	1.440700E+0	1.419876E+0	1.394533E+0	1.399865E+0	1.354071E+0	1.436536E+0	1.405923E+0	1.366687E+0	1.423534E+0	1.387571E+0	1.399022E+0	1.377156E+0	1.431028E+0	1.388879E+0	1.393096E+0	1.388280E+0	1.367315E+0	1.419067E+0	1.453158E+0	1.384476E+0	1.403659E+0	1.367695E+0	1.369537E+0	1.404895E+0	1.491257E+0
5.490540E+2	1.393658E+0	1.401815E+0	1.386203E+0	1.382530E+0	1.394719E+0	1.417940E+0	1.365913E+0	1.396834E+0	1.360063E+0	1.432555E+0	1.383555E+0	1.436807E+0	1.400976E+0	1.412868E+0	1.391170E+0	1.409313E+0	1.440479E+0	1.409680E+0	1.373499E+0	1.384925E+0	1.422377E+0	1.401511E+0	1.392815E+0	1.375999E+0	1.353478E+0	1.326422E+0	1.387201E+0	1.422098E+0	1.379662E+0	1.286571E+0	1.384532E+0	1.396317E+0	1.391787E+0	1.340317E+0	1.352000E+0	1.404235E+0	1.346671E+0	1.415459E+0	1.367201E+0	1.393156E+0	1.349356E+0	1.401063E+0	1.432743E+0	1.421076E+0	1.385022E+0	1.383884E+0	1.375946E+0	1.410345E+0	1.359900E+0	1.360132E+0	1.379661E+0	1.355585E+0	1.418629E+0	1.352832E+0	1.392436E+0	1.399266E+0	1.373590E+0	1.402042E+0	1.430900E+0	1.390257E+0	1.388879E+0	1.396460E+0	1.367450E+0	1.388718E+0	1.381467E+0	1.324325E+0	1.342268E+0	1.443275E+0	1.365915E+0	1.396244E+0	1.324510E+0	1.430515E+0	1.376243E+0	1.389091E+0	1.318722E+0	1.373769E+0	1.336241E+0	1.341584E+0	1.409730E+0	1.369894E+0	1.333414E+0	1.408370E+0	1.363435E+0	1.356188E+0	1.334209E+0	1.403074E+0	1.414840E+0	1.439643E+0	1.394937E+0	1.413027E+0	1.356311E+0	1.378387E+0	1.380660E+0	1.388495E+0	1.345645E+0	1.433464E+0	1.336106E+0	1.410592E+0	1.388066E+0	1.422573E+0	1.366713E+0	1.359974E+0	1.354294E+0	1.378687E+0	1.404046E+0	1.414040E+0	1.337841E+0	1.401025E+0	1.434278E+0	1.383110E+0	1.410430E+0	1.376732E+0	1.402071E+0	1.283979E+0	1.367009E+0	1.414823E+0	1.409043E+0	1.363176E+0	1.367917E+0	1.405544E+0	1.312259E+0	1.341003E+0	1.386239E+0	1.333418E+0	1.378601E+0	1.410274E+0	1.359003E+0	1.451896E+0	1.381817E+0	1.406095E+0	1.390532E+0	1.380473E+0	1.357298E+0	1.365639E+0	1.376839E+0	1.425992E+0	1.371617E+0	1.394478E+0	1.379909E+0	1.370732E+0	1.335444E+0	1.316363E+0	1.388107E+0	1.337371E+0	1.316274E+0	1.424294E+0	1.430046E+0	1.406218E+0	1.293191E+0	1.395329E+0	1.383560E+0	1.401958E+0	1.371270E+0	1.393960E+0	1.380741E+0	1.380833E+0	1.387191E+0	1.374371E+0	1.381951E+0	1.371063E+0	1.391507E+0	1.366387E+0	1.399398E+0	1.388860E+0	1.348603E+0	1.367282E+0	1.392004E+0	1.331379E+0	1.320367E+0	1.309600E+0
5.497960E+2	1.372242E+0	1.402176E+0	1.419317E+0	1.375889E+0	1.380021E+0	1.414949E+0	1.401659E+0	1.401912E+0	1.356431E+0	1.378697E+0	1.417541E+0	1.437126E+0	1.385085E+0	1.382260E+0	1.407830E+0	1.439307E+0	1.353545E+0	1.389437E+0	1.378709E+0	1.420514E+0	1.406078E+0	1.360431E+0	1.417931E+0	1.441431E+0	1.383085E+0	1.390209E+0	1.355859E+0	1.382360E+0	1.354982E+0	1.428399E+0	1.399920E+0	1.371658E+0	1.413858E+0	1.349212E+0	1.359094E+0	1.418763E+0	1.364331E+0	1.374551E+0	1.393298E+0	1.380627E+0	1.445651E+0	1.354817E+0	1.381238E+0	1.372804E+0	1.411155E+0	1.392691E+0	1.357118E+0	1.372322E+0	1.399873E+0	1.338715E+0	1.377269E+0	1.377779E+0	1.385196E+0	1.387479E+0	1.425345E+0	1.407839E+0	1.420883E+0	1.396482E+0	1.429722E+0	1.373876E+0	1.324464E+0	1.361681E+0	1.371476E+0	1.392463E+0	1.386065E+0	1.341175E+0	1.380878E+0	1.415121E+0	1.376859E+0	1.396217E+0	1.343107E+0	1.417840E+0	1.298906E+0	1.409617E+0	1.373998E+0	1.428304E+0	1.368929E+0	1.354713E+0	1.375165E+0	1.429917E+0	1.418069E+0	1.279080E+0	1.362201E+0	1.351872E+0	1.342600E+0	1.392601E+0	1.415171E+0	1.402914E+0	1.357078E+0	1.354979E+0	1.396178E+0	1.392182E+0	1.356476E+0	1.334327E+0	1.366398E+0	1.373460E+0	1.384286E+0	1.394451E+0	1.359861E+0	1.379147E+0	1.435790E+0	1.301923E+0	1.307985E+0	1.419431E+0	1.397970E+0	1.378459E+0	1.333182E+0	1.339912E+0	1.413127E+0	1.421012E+0	1.382298E+0	1.385872E+0	1.369738E+0	1.321835E+0	1.365119E+0	1.394169E+0	1.374420E+0	1.320511E+0	1.380736E+0	1.346023E+0	1.389421E+0	1.345025E+0	1.386663E+0	1.379773E+0	1.380755E+0	1.359538E+0	1.360288E+0	1.360866E+0	1.365485E+0	1.372953E+0	1.339847E+0	1.390861E+0	1.340266E+0	1.364529E+0	1.336330E+0	1.414106E+0	1.339921E+0	1.362541E+0	1.337110E+0	1.396206E+0	1.398150E+0	1.322552E+0	1.380281E+0	1.300264E+0	1.359340E+0	1.401767E+0	1.384841E+0	1.348509E+0	1.314847E+0	1.375021E+0	1.374567E+0	1.394541E+0	1.377652E+0	1.379140E+0	1.393077E+0	1.364112E+0	1.408237E+0	1.332846E+0	1.340623E+0	1.359167E+0	1.366710E+0	1.326099E+0	1.390997E+0	1.361027E+0	1.342742E+0	1.338849E+0	1.419813E+0	1.387095E+0	1.349991E+0	1.362368E+0
5.505110E+2	1.341791E+0	1.361006E+0	1.356138E+0	1.383295E+0	1.426459E+0	1.383313E+0	1.363585E+0	1.376289E+0	1.330615E+0	1.404918E+0	1.394592E+0	1.399968E+0	1.383608E+0	1.362557E+0	1.356093E+0	1.415715E+0	1.373680E+0	1.322888E+0	1.376804E+0	1.383744E+0	1.365794E+0	1.370342E+0	1.391369E+0	1.408583E+0	1.338926E+0	1.379316E+0	1.309904E+0	1.280646E+0	1.364370E+0	1.386518E+0	1.390145E+0	1.370942E+0	1.368585E+0	1.381045E+0	1.314313E+0	1.369587E+0	1.363933E+0	1.377811E+0	1.398415E+0	1.341457E+0	1.362420E+0	1.360804E+0	1.318641E+0	1.352218E+0	1.352314E+0	1.354848E+0	1.389554E+0	1.386904E+0	1.399983E+0	1.354574E+0	1.306540E+0	1.402940E+0	1.364244E+0	1.342484E+0	1.379546E+0	1.356066E+0	1.338526E+0	1.342319E+0	1.336507E+0	1.369229E+0	1.352830E+0	1.379872E+0	1.300593E+0	1.414172E+0	1.331836E+0	1.369345E+0	1.334701E+0	1.357206E+0	1.353795E+0	1.347129E+0	1.332095E+0	1.365514E+0	1.318416E+0	1.340391E+0	1.323852E+0	1.377286E+0	1.338649E+0	1.297988E+0	1.360176E+0	1.394001E+0	1.364113E+0	1.355749E+0	1.374424E+0	1.403412E+0	1.304256E+0	1.410700E+0	1.350576E+0	1.339240E+0	1.343370E+0	1.415204E+0	1.370047E+0	1.331515E+0	1.325571E+0	1.350994E+0	1.363034E+0	1.354325E+0	1.354541E+0	1.392264E+0	1.340053E+0	1.308130E+0	1.358329E+0	1.378687E+0	1.340037E+0	1.379096E+0	1.334329E+0	1.367706E+0	1.344674E+0	1.398143E+0	1.367005E+0	1.407572E+0	1.329673E+0	1.406988E+0	1.385570E+0	1.297597E+0	1.339392E+0	1.369899E+0	1.368508E+0	1.359845E+0	1.382413E+0	1.373291E+0	1.320504E+0	1.353086E+0	1.336262E+0	1.405360E+0	1.320992E+0	1.353222E+0	1.314548E+0	1.369998E+0	1.343546E+0	1.328269E+0	1.360434E+0	1.334166E+0	1.344330E+0	1.376517E+0	1.356441E+0	1.450860E+0	1.308893E+0	1.341941E+0	1.334108E+0	1.386632E+0	1.367073E+0	1.347335E+0	1.351617E+0	1.310238E+0	1.315281E+0	1.412198E+0	1.365926E+0	1.393410E+0	1.381393E+0	1.353157E+0	1.344369E+0	1.380041E+0	1.348445E+0	1.352268E+0	1.341550E+0	1.332658E+0	1.357335E+0	1.326508E+0	1.343253E+0	1.351900E+0	1.336938E+0	1.329528E+0	1.367400E+0	1.372664E+0	1.302361E+0	1.347044E+0	1.324166E+0	1.390726E+0	1.281823E+0	1.303852E+0
5.512510E+2	1.330277E+0	1.357043E+0	1.338671E+0	1.315804E+0	1.364667E+0	1.305782E+0	1.365136E+0	1.343159E+0	1.313188E+0	1.361615E+0	1.370072E+0	1.370117E+0	1.339407E+0	1.321711E+0	1.308110E+0	1.354973E+0	1.347207E+0	1.310506E+0	1.286018E+0	1.314099E+0	1.329572E+0	1.295222E+0	1.354828E+0	1.333489E+0	1.340370E+0	1.298272E+0	1.357953E+0	1.350713E+0	1.360098E+0	1.271249E+0	1.316671E+0	1.346339E+0	1.332129E+0	1.345493E+0	1.306280E+0	1.301840E+0	1.324946E+0	1.331870E+0	1.350287E+0	1.330881E+0	1.308990E+0	1.356717E+0	1.308431E+0	1.363986E+0	1.327342E+0	1.396510E+0	1.323020E+0	1.331541E+0	1.369870E+0	1.295855E+0	1.335558E+0	1.286605E+0	1.355949E+0	1.300670E+0	1.314587E+0	1.335244E+0	1.348757E+0	1.376311E+0	1.337927E+0	1.315046E+0	1.302081E+0	1.362350E+0	1.329304E+0	1.321252E+0	1.302406E+0	1.305125E+0	1.308750E+0	1.410876E+0	1.297098E+0	1.337218E+0	1.317197E+0	1.309404E+0	1.317626E+0	1.318015E+0	1.307575E+0	1.362096E+0	1.350334E+0	1.275482E+0	1.360750E+0	1.325461E+0	1.242524E+0	1.294591E+0	1.291507E+0	1.290765E+0	1.267803E+0	1.339968E+0	1.318766E+0	1.358813E+0	1.305671E+0	1.360317E+0	1.305514E+0	1.379499E+0	1.305896E+0	1.324441E+0	1.365800E+0	1.281029E+0	1.348941E+0	1.269563E+0	1.320314E+0	1.309869E+0	1.350393E+0	1.305367E+0	1.307387E+0	1.336445E+0	1.334038E+0	1.296602E+0	1.352781E+0	1.332253E+0	1.352204E+0	1.329622E+0	1.306966E+0	1.330091E+0	1.315866E+0	1.241576E+0	1.295234E+0	1.394662E+0	1.322165E+0	1.315892E+0	1.325343E+0	1.299076E+0	1.319645E+0	1.267724E+0	1.319177E+0	1.288700E+0	1.295373E+0	1.320651E+0	1.324991E+0	1.341113E+0	1.321227E+0	1.340082E+0	1.327083E+0	1.320732E+0	1.338357E+0	1.304673E+0	1.340593E+0	1.342847E+0	1.301130E+0	1.299553E+0	1.319826E+0	1.267016E+0	1.289987E+0	1.300387E+0	1.307973E+0	1.309473E+0	1.321466E+0	1.369610E+0	1.346971E+0	1.254617E+0	1.266646E+0	1.349226E+0	1.294797E+0	1.342225E+0	1.302895E+0	1.370875E+0	1.329234E+0	1.303782E+0	1.294533E+0	1.322757E+0	1.281171E+0	1.322050E+0	1.336978E+0	1.302017E+0	1.357095E+0	1.331955E+0	1.347584E+0	1.312274E+0	1.324221E+0	1.313289E+0	1.257032E+0	1.283829E+0
5.520210E+2	1.310590E+0	1.290232E+0	1.344747E+0	1.299774E+0	1.303907E+0	1.199046E+0	1.301870E+0	1.287486E+0	1.239966E+0	1.307632E+0	1.298379E+0	1.356303E+0	1.309156E+0	1.279337E+0	1.289212E+0	1.306591E+0	1.285006E+0	1.285062E+0	1.325625E+0	1.276125E+0	1.312421E+0	1.250319E+0	1.305393E+0	1.327408E+0	1.272709E+0	1.314772E+0	1.244407E+0	1.253752E+0	1.216887E+0	1.246257E+0	1.317479E+0	1.313643E+0	1.286434E+0	1.261354E+0	1.275480E+0	1.293310E+0	1.301488E+0	1.308958E+0	1.307822E+0	1.281896E+0	1.315378E+0	1.289950E+0	1.321916E+0	1.329270E+0	1.239777E+0	1.262661E+0	1.284407E+0	1.268018E+0	1.304924E+0	1.235229E+0	1.278627E+0	1.310465E+0	1.278358E+0	1.279621E+0	1.254555E+0	1.301459E+0	1.293808E+0	1.245603E+0	1.253590E+0	1.298073E+0	1.291030E+0	1.268648E+0	1.263762E+0	1.301687E+0	1.242702E+0	1.254590E+0	1.261546E+0	1.229848E+0	1.285360E+0	1.266749E+0	1.275688E+0	1.352174E+0	1.325481E+0	1.294415E+0	1.243597E+0	1.343341E+0	1.268827E+0	1.271087E+0	1.275735E+0	1.341863E+0	1.272277E+0	1.286362E+0	1.292207E+0	1.236395E+0	1.281777E+0	1.282276E+0	1.288638E+0	1.321895E+0	1.275223E+0	1.284169E+0	1.259853E+0	1.293117E+0	1.252094E+0	1.264029E+0	1.281805E+0	1.285673E+0	1.252538E+0	1.317562E+0	1.276008E+0	1.260707E+0	1.287595E+0	1.257568E+0	1.286437E+0	1.291076E+0	1.272730E+0	1.297491E+0	1.250632E+0	1.278980E+0	1.287409E+0	1.254652E+0	1.194459E+0	1.294451E+0	1.304235E+0	1.241092E+0	1.249121E+0	1.285402E+0	1.270770E+0	1.274111E+0	1.270877E+0	1.298378E+0	1.264655E+0	1.264450E+0	1.305028E+0	1.227540E+0	1.269667E+0	1.257348E+0	1.251339E+0	1.240736E+0	1.261063E+0	1.312030E+0	1.249190E+0	1.324414E+0	1.335199E+0	1.286068E+0	1.268795E+0	1.335563E+0	1.309225E+0	1.342860E+0	1.284502E+0	1.293527E+0	1.225576E+0	1.304952E+0	1.301368E+0	1.262788E+0	1.313493E+0	1.263046E+0	1.273378E+0	1.195231E+0	1.248355E+0	1.333000E+0	1.271616E+0	1.300064E+0	1.249577E+0	1.247814E+0	1.245149E+0	1.308250E+0	1.288231E+0	1.256841E+0	1.237148E+0	1.243129E+0	1.313922E+0	1.233521E+0	1.254799E+0	1.280413E+0	1.243401E+0	1.292034E+0	1.242993E+0	1.237557E+0	1.259194E+0	1.275242E+0
5.527590E+2	1.153318E+0	1.195038E+0	1.275635E+0	1.222518E+0	1.234087E+0	1.255654E+0	1.260258E+0	1.279108E+0	1.239387E+0	1.252861E+0	1.248109E+0	1.252026E+0	1.253579E+0	1.261492E+0	1.265050E+0	1.254701E+0	1.249156E+0	1.196589E+0	1.267257E+0	1.212624E+0	1.284782E+0	1.248913E+0	1.246157E+0	1.244825E+0	1.155337E+0	1.174385E+0	1.236638E+0	1.229247E+0	1.194957E+0	1.203138E+0	1.227058E+0	1.256544E+0	1.256811E+0	1.236446E+0	1.192612E+0	1.237178E+0	1.212550E+0	1.222407E+0	1.262572E+0	1.238892E+0	1.257550E+0	1.250446E+0	1.246873E+0	1.260561E+0	1.259611E+0	1.230429E+0	1.216808E+0	1.209105E+0	1.230704E+0	1.197862E+0	1.219532E+0	1.221737E+0	1.226442E+0	1.211298E+0	1.211596E+0	1.262294E+0	1.202790E+0	1.238023E+0	1.285702E+0	1.266194E+0	1.246799E+0	1.202082E+0	1.239316E+0	1.244532E+0	1.225076E+0	1.191032E+0	1.228958E+0	1.222503E+0	1.224509E+0	1.243073E+0	1.208361E+0	1.244712E+0	1.217514E+0	1.291492E+0	1.258698E+0	1.268242E+0	1.259971E+0	1.225177E+0	1.214469E+0	1.172462E+0	1.213443E+0	1.212869E+0	1.241364E+0	1.226808E+0	1.227109E+0	1.232195E+0	1.218535E+0	1.208652E+0	1.229757E+0	1.254382E+0	1.262443E+0	1.211026E+0	1.223018E+0	1.197170E+0	1.233510E+0	1.185212E+0	1.249260E+0	1.213024E+0	1.226065E+0	1.218090E+0	1.263713E+0	1.172235E+0	1.206973E+0	1.269408E+0	1.259106E+0	1.283054E+0	1.213656E+0	1.235575E+0	1.188093E+0	1.241362E+0	1.220648E+0	1.233991E+0	1.253984E+0	1.194813E+0	1.148668E+0	1.240939E+0	1.234775E+0	1.230834E+0	1.250404E+0	1.296833E+0	1.234715E+0	1.236451E+0	1.242267E+0	1.262950E+0	1.258632E+0	1.238795E+0	1.235177E+0	1.251316E+0	1.243432E+0	1.253384E+0	1.222360E+0	1.190481E+0	1.265408E+0	1.247836E+0	1.227896E+0	1.301398E+0	1.199955E+0	1.262849E+0	1.226390E+0	1.208158E+0	1.224072E+0	1.183989E+0	1.208056E+0	1.230436E+0	1.290757E+0	1.267914E+0	1.214907E+0	1.210376E+0	1.237988E+0	1.241126E+0	1.209334E+0	1.220037E+0	1.159686E+0	1.197192E+0	1.275257E+0	1.168226E+0	1.254275E+0	1.225799E+0	1.222226E+0	1.261998E+0	1.205583E+0	1.182554E+0	1.232520E+0	1.240913E+0	1.198531E+0	1.261351E+0	1.206242E+0	1.261239E+0	1.127204E+0	1.342613E+0
5.535490E+2	1.187262E+0	1.142557E+0	1.213309E+0	1.188497E+0	1.192452E+0	1.197596E+0	1.196786E+0	1.214810E+0	1.165825E+0	1.188667E+0	1.176991E+0	1.205561E+0	1.248409E+0	1.168781E+0	1.177367E+0	1.220452E+0	1.211912E+0	1.191670E+0	1.157027E+0	1.131300E+0	1.241678E+0	1.146017E+0	1.196567E+0	1.201847E+0	1.157908E+0	1.209337E+0	1.165289E+0	1.193333E+0	1.185964E+0	1.184117E+0	1.218029E+0	1.204230E+0	1.194777E+0	1.198541E+0	1.217144E+0	1.164305E+0	1.183516E+0	1.166412E+0	1.154283E+0	1.229056E+0	1.216012E+0	1.200077E+0	1.190522E+0	1.202045E+0	1.216406E+0	1.188724E+0	1.192141E+0	1.195393E+0	1.227583E+0	1.125860E+0	1.176500E+0	1.248234E+0	1.209856E+0	1.153181E+0	1.199351E+0	1.167923E+0	1.168008E+0	1.209240E+0	1.196362E+0	1.191201E+0	1.199779E+0	1.155262E+0	1.165584E+0	1.231557E+0	1.157203E+0	1.192688E+0	1.164183E+0	1.223147E+0	1.204574E+0	1.234527E+0	1.185306E+0	1.207435E+0	1.174873E+0	1.226110E+0	1.196107E+0	1.186601E+0	1.163365E+0	1.168970E+0	1.151533E+0	1.198722E+0	1.140504E+0	1.201610E+0	1.270983E+0	1.192972E+0	1.171811E+0	1.226660E+0	1.186273E+0	1.205910E+0	1.216597E+0	1.201897E+0	1.220251E+0	1.227075E+0	1.157673E+0	1.176113E+0	1.189916E+0	1.179673E+0	1.151974E+0	1.192929E+0	1.139879E+0	1.158109E+0	1.169584E+0	1.140018E+0	1.239907E+0	1.215831E+0	1.192313E+0	1.153782E+0	1.245100E+0	1.167957E+0	1.185003E+0	1.166820E+0	1.212633E+0	1.162844E+0	1.169891E+0	1.153617E+0	1.154575E+0	1.154090E+0	1.164044E+0	1.161427E+0	1.199632E+0	1.221381E+0	1.205966E+0	1.166630E+0	1.200112E+0	1.159065E+0	1.175496E+0	1.160339E+0	1.167874E+0	1.199332E+0	1.210358E+0	1.207671E+0	1.157883E+0	1.150891E+0	1.219527E+0	1.202308E+0	1.228985E+0	1.251187E+0	1.220235E+0	1.192361E+0	1.173003E+0	1.194769E+0	1.213544E+0	1.150884E+0	1.178432E+0	1.174191E+0	1.178403E+0	1.202412E+0	1.181922E+0	1.187316E+0	1.156739E+0	1.203457E+0	1.157860E+0	1.172218E+0	1.122323E+0	1.174736E+0	1.129639E+0	1.190670E+0	1.185980E+0	1.177713E+0	1.136609E+0	1.223828E+0	1.147885E+0	1.180660E+0	1.127819E+0	1.170933E+0	1.119782E+0	1.171638E+0	1.132255E+0	1.223455E+0	1.184291E+0	1.155291E+0
5.542580E+2	1.119884E+0	1.147253E+0	1.099214E+0	1.117232E+0	1.099187E+0	1.137094E+0	1.135964E+0	1.098796E+0	1.158712E+0	1.138337E+0	1.179281E+0	1.173551E+0	1.205651E+0	1.129487E+0	1.145926E+0	1.155933E+0	1.122055E+0	1.105571E+0	1.137125E+0	1.090150E+0	1.121886E+0	1.096446E+0	1.127635E+0	1.090452E+0	1.145641E+0	1.100351E+0	1.115988E+0	1.086128E+0	1.120977E+0	1.107410E+0	1.081943E+0	1.120570E+0	1.122887E+0	1.090289E+0	1.091987E+0	1.110591E+0	1.113115E+0	1.104659E+0	1.175323E+0	1.140651E+0	1.173348E+0	1.142368E+0	1.149775E+0	1.075502E+0	1.103543E+0	1.108071E+0	1.100616E+0	1.128684E+0	1.105269E+0	1.095780E+0	1.081666E+0	1.126989E+0	1.056629E+0	1.118447E+0	1.158603E+0	1.165048E+0	1.127732E+0	1.113087E+0	1.142827E+0	1.161200E+0	1.149686E+0	1.127549E+0	1.116621E+0	1.193553E+0	1.105846E+0	1.097240E+0	1.090764E+0	1.178202E+0	1.102001E+0	1.165586E+0	1.201062E+0	1.115399E+0	1.121408E+0	1.115584E+0	1.140968E+0	1.135878E+0	1.092932E+0	1.126294E+0	1.069541E+0	1.132377E+0	1.115929E+0	1.148398E+0	1.127115E+0	1.133413E+0	1.091240E+0	1.111591E+0	1.106269E+0	1.156098E+0	1.155277E+0	1.144169E+0	1.127257E+0	1.113259E+0	1.118127E+0	1.135358E+0	1.140274E+0	1.164534E+0	1.105546E+0	1.158726E+0	1.118728E+0	1.118139E+0	1.148145E+0	1.121835E+0	1.142651E+0	1.163917E+0	1.132368E+0	1.124421E+0	1.114939E+0	1.176724E+0	1.196029E+0	1.121437E+0	1.115518E+0	1.160328E+0	1.144301E+0	1.091252E+0	1.094069E+0	1.070832E+0	1.139299E+0	1.134618E+0	1.166906E+0	1.118197E+0	1.102794E+0	1.108291E+0	1.131198E+0	1.116570E+0	1.176843E+0	1.148244E+0	1.122650E+0	1.118915E+0	1.136752E+0	1.160595E+0	1.135428E+0	1.117505E+0	1.185120E+0	1.129818E+0	1.129020E+0	1.134713E+0	1.151794E+0	1.115943E+0	1.144275E+0	1.136426E+0	1.133408E+0	1.142074E+0	1.089125E+0	1.112478E+0	1.138150E+0	1.136578E+0	1.133427E+0	1.102826E+0	1.061435E+0	1.130835E+0	1.125396E+0	1.145050E+0	1.134102E+0	1.109913E+0	1.124755E+0	1.131841E+0	1.133404E+0	1.123305E+0	1.116189E+0	1.133183E+0	1.077247E+0	1.098607E+0	1.122903E+0	1.210010E+0	1.113985E+0	1.094773E+0	1.102836E+0	1.096901E+0	1.116666E+0	1.121434E+0
5.550190E+2	1.021946E+0	1.039581E+0	1.027526E+0	1.078792E+0	1.043529E+0	1.072922E+0	1.052679E+0	1.053799E+0	1.042191E+0	1.010727E+0	1.064461E+0	1.081664E+0	1.082651E+0	1.062563E+0	1.074639E+0	1.070613E+0	1.060924E+0	1.061076E+0	1.114056E+0	1.055681E+0	1.039427E+0	1.056246E+0	1.063843E+0	1.057883E+0	1.010743E+0	1.036588E+0	1.041993E+0	1.023972E+0	1.037316E+0	1.059992E+0	1.037953E+0	1.055260E+0	1.075098E+0	1.066582E+0	1.029233E+0	1.012577E+0	1.034786E+0	1.037884E+0	1.021334E+0	1.060799E+0	1.074829E+0	1.012927E+0	1.058984E+0	1.031037E+0	1.067614E+0	1.082068E+0	1.025051E+0	1.046770E+0	1.011190E+0	1.007218E+0	1.061977E+0	1.027899E+0	1.054061E+0	1.026181E+0	1.046484E+0	1.075597E+0	1.045721E+0	1.048476E+0	1.039252E+0	1.057514E+0	1.092827E+0	1.082671E+0	1.000553E+0	1.035663E+0	1.004417E+0	1.034817E+0	1.039448E+0	1.022274E+0	1.084513E+0	1.053935E+0	1.034703E+0	1.063450E+0	1.055388E+0	1.071098E+0	1.020822E+0	1.022511E+0	1.055342E+0	1.039431E+0	1.023665E+0	1.047000E+0	1.027299E+0	1.095373E+0	1.078550E+0	9.785412E-1	1.068567E+0	1.091025E+0	1.043858E+0	1.070039E+0	1.072582E+0	1.059653E+0	1.009074E+0	1.051144E+0	1.067055E+0	1.057702E+0	1.023846E+0	1.036027E+0	1.054282E+0	1.015227E+0	1.055931E+0	1.017657E+0	1.074489E+0	1.039783E+0	1.072774E+0	1.020608E+0	1.044202E+0	1.042689E+0	1.010773E+0	1.080557E+0	1.081372E+0	1.027633E+0	1.014744E+0	1.072696E+0	1.011672E+0	1.006553E+0	1.011894E+0	1.029575E+0	1.064044E+0	1.029134E+0	1.056813E+0	1.028187E+0	1.078698E+0	1.057537E+0	1.058526E+0	1.049676E+0	1.038291E+0	1.066946E+0	1.027149E+0	1.071743E+0	1.053918E+0	1.089554E+0	1.022901E+0	1.058425E+0	1.071319E+0	1.043705E+0	1.080407E+0	1.127093E+0	1.068529E+0	1.081593E+0	1.129332E+0	1.074852E+0	1.032752E+0	1.040173E+0	1.059915E+0	1.051378E+0	1.047338E+0	1.077299E+0	1.088051E+0	1.061502E+0	1.041524E+0	1.040692E+0	1.027464E+0	1.114772E+0	1.039855E+0	9.943621E-1	1.004930E+0	1.013581E+0	1.093633E+0	1.021119E+0	1.058266E+0	1.010873E+0	1.020808E+0	1.016863E+0	1.023399E+0	1.067352E+0	9.944572E-1	1.069451E+0	1.044532E+0	1.078262E+0	1.034042E+0	1.084075E+0
5.557600E+2	9.473130E-1	9.936333E-1	1.004238E+0	9.677484E-1	9.438857E-1	1.001152E+0	9.699564E-1	9.997038E-1	9.603498E-1	9.776126E-1	1.023636E+0	9.624478E-1	9.883767E-1	9.722548E-1	9.793040E-1	1.001130E+0	9.882734E-1	9.879365E-1	1.004491E+0	9.506790E-1	9.655792E-1	9.762426E-1	9.817288E-1	1.030499E+0	1.006307E+0	9.393973E-1	9.659110E-1	9.721768E-1	1.000926E+0	9.866879E-1	9.450686E-1	9.978402E-1	9.966486E-1	9.299969E-1	9.714033E-1	1.060531E+0	1.001276E+0	9.728945E-1	9.782903E-1	9.783367E-1	9.897867E-1	9.974620E-1	9.527507E-1	9.565454E-1	9.524385E-1	9.735272E-1	1.006803E+0	9.386942E-1	9.692374E-1	9.955621E-1	1.023982E+0	9.843636E-1	9.361464E-1	9.832352E-1	1.015126E+0	9.825458E-1	9.489907E-1	9.726303E-1	9.640851E-1	9.719611E-1	9.729086E-1	9.984938E-1	9.771217E-1	9.404173E-1	9.573018E-1	9.407664E-1	9.456424E-1	9.968651E-1	9.748316E-1	1.015461E+0	1.014286E+0	9.808763E-1	9.919675E-1	9.988671E-1	9.749142E-1	9.909836E-1	9.432591E-1	9.507976E-1	9.507517E-1	9.714031E-1	9.161134E-1	9.670781E-1	9.925484E-1	9.756190E-1	9.856478E-1	1.015930E+0	9.875861E-1	9.368527E-1	9.812721E-1	9.634754E-1	9.519457E-1	9.593078E-1	9.373472E-1	9.503800E-1	9.755828E-1	9.310864E-1	9.872066E-1	9.585204E-1	1.000577E+0	9.704009E-1	9.910952E-1	9.986753E-1	9.952082E-1	9.642826E-1	9.437616E-1	9.864416E-1	9.720433E-1	9.497067E-1	1.023039E+0	9.735611E-1	9.984097E-1	9.797859E-1	9.798417E-1	9.836330E-1	9.503044E-1	9.700504E-1	1.013191E+0	9.924961E-1	9.986611E-1	9.696309E-1	9.732533E-1	9.854456E-1	9.537257E-1	9.778519E-1	9.718066E-1	9.961417E-1	9.762113E-1	1.005028E+0	9.639682E-1	9.706622E-1	9.520747E-1	9.572632E-1	9.703814E-1	9.757105E-1	9.614053E-1	1.045187E+0	1.003927E+0	9.834880E-1	1.016818E+0	9.763623E-1	9.136837E-1	9.727742E-1	9.988682E-1	9.866257E-1	9.788503E-1	9.489964E-1	9.521070E-1	9.461734E-1	9.912951E-1	1.001312E+0	9.838713E-1	9.931202E-1	1.007258E+0	9.832856E-1	9.529660E-1	1.005315E+0	9.832663E-1	1.008259E+0	9.853702E-1	9.847615E-1	9.647872E-1	1.049824E+0	1.005074E+0	1.012883E+0	9.324421E-1	9.997845E-1	9.405496E-1	9.187527E-1	1.010923E+0	8.520074E-1
5.560190E+2	9.680158E-1	9.713226E-1	9.595972E-1	9.968232E-1	9.571666E-1	9.388892E-1	9.542644E-1	9.557977E-1	9.736881E-1	1.002452E+0	9.684955E-1	1.006782E+0	1.013082E+0	9.651194E-1	9.579337E-1	1.003541E+0	9.571303E-1	9.943789E-1	9.720240E-1	9.363569E-1	9.823497E-1	9.106588E-1	9.696762E-1	9.420473E-1	9.430853E-1	9.397372E-1	9.318006E-1	9.774659E-1	9.762128E-1	9.761659E-1	9.184466E-1	9.508642E-1	9.567412E-1	9.496055E-1	9.874186E-1	9.127698E-1	9.401410E-1	9.476899E-1	9.925021E-1	9.532060E-1	9.984312E-1	9.492186E-1	9.355765E-1	9.547198E-1	9.426813E-1	9.693133E-1	9.404676E-1	8.950262E-1	9.885421E-1	9.277215E-1	9.248748E-1	9.660192E-1	9.371696E-1	9.716160E-1	9.491861E-1	9.655340E-1	9.421444E-1	9.632157E-1	9.699356E-1	9.679962E-1	9.320268E-1	9.956987E-1	9.516895E-1	9.736416E-1	1.012330E+0	9.221441E-1	9.455900E-1	9.914818E-1	9.554338E-1	9.779727E-1	9.672887E-1	9.971753E-1	9.609972E-1	9.755183E-1	9.766534E-1	1.014854E+0	9.124113E-1	9.328659E-1	9.545015E-1	9.839312E-1	9.417127E-1	9.433651E-1	9.465649E-1	9.884716E-1	9.388299E-1	1.001940E+0	9.729498E-1	9.786727E-1	9.566224E-1	9.423464E-1	9.894988E-1	9.678522E-1	9.430510E-1	9.335322E-1	9.943511E-1	9.497847E-1	9.572839E-1	9.722468E-1	9.351808E-1	9.536004E-1	9.461596E-1	9.620031E-1	9.691192E-1	1.006243E+0	9.638330E-1	9.707510E-1	9.446686E-1	9.585356E-1	9.965618E-1	9.246444E-1	9.762097E-1	9.633486E-1	9.704360E-1	9.815943E-1	9.767295E-1	9.902028E-1	9.819713E-1	9.749480E-1	9.687324E-1	9.476840E-1	9.197402E-1	9.065208E-1	9.780118E-1	9.533712E-1	9.391578E-1	9.543958E-1	9.459466E-1	9.709398E-1	9.817797E-1	9.986697E-1	9.245751E-1	9.569190E-1	9.619803E-1	9.636318E-1	9.712978E-1	9.778849E-1	9.734291E-1	9.222528E-1	9.351072E-1	9.527802E-1	9.552880E-1	9.398468E-1	9.426580E-1	9.661780E-1	1.010776E+0	9.525142E-1	9.477906E-1	9.343520E-1	9.497199E-1	9.508759E-1	9.658738E-1	9.475978E-1	9.605228E-1	1.002839E+0	9.868890E-1	9.909503E-1	9.429353E-1	9.822270E-1	9.679893E-1	9.620751E-1	9.471752E-1	9.592703E-1	9.694078E-1	9.749553E-1	9.715694E-1	9.602842E-1	9.773194E-1	9.632024E-1	9.553973E-1	9.248254E-1
5.565030E+2	9.909336E-1	9.236373E-1	9.348366E-1	9.690476E-1	9.590553E-1	9.245056E-1	9.638678E-1	9.691725E-1	9.621666E-1	9.822797E-1	9.742748E-1	9.722194E-1	9.390845E-1	9.748576E-1	9.692630E-1	9.359370E-1	9.387095E-1	9.020910E-1	9.917642E-1	9.771253E-1	9.663877E-1	1.011600E+0	9.467563E-1	9.352382E-1	1.026491E+0	9.632976E-1	9.331531E-1	9.672185E-1	9.927765E-1	9.250433E-1	9.541986E-1	9.639508E-1	1.002371E+0	9.675594E-1	9.454714E-1	9.630700E-1	9.664365E-1	9.630309E-1	9.644957E-1	9.406461E-1	9.960192E-1	9.734149E-1	9.840787E-1	9.582420E-1	9.894543E-1	9.396989E-1	9.647078E-1	9.271199E-1	9.528887E-1	9.495954E-1	1.021148E+0	9.881566E-1	9.593610E-1	9.428434E-1	9.512060E-1	9.713891E-1	9.648567E-1	9.739095E-1	9.487920E-1	9.401088E-1	9.930184E-1	1.011255E+0	9.290232E-1	9.499931E-1	9.424740E-1	9.556310E-1	9.809552E-1	9.863757E-1	9.887708E-1	9.323974E-1	9.235233E-1	9.578533E-1	9.362326E-1	9.659472E-1	9.648318E-1	9.859812E-1	9.980962E-1	9.858135E-1	9.488656E-1	9.657307E-1	9.500983E-1	9.812106E-1	9.590717E-1	9.679232E-1	9.767601E-1	9.868160E-1	9.498032E-1	9.963629E-1	9.962022E-1	9.383592E-1	9.132202E-1	9.913753E-1	9.452358E-1	9.347268E-1	9.775276E-1	9.675051E-1	9.731707E-1	9.587534E-1	9.590248E-1	9.788565E-1	9.546921E-1	9.535218E-1	9.833693E-1	9.285105E-1	9.774384E-1	9.160447E-1	9.911699E-1	9.333274E-1	9.955339E-1	9.805125E-1	9.806636E-1	9.393127E-1	9.856716E-1	9.856286E-1	9.473314E-1	9.562930E-1	9.752066E-1	9.731854E-1	9.700059E-1	9.947911E-1	9.518108E-1	9.441045E-1	9.410017E-1	9.528048E-1	9.728630E-1	9.525560E-1	9.807311E-1	9.602211E-1	9.919644E-1	9.684784E-1	9.849112E-1	9.621019E-1	9.628732E-1	9.838107E-1	9.440950E-1	9.824839E-1	9.472979E-1	9.618480E-1	9.416653E-1	9.768636E-1	9.708967E-1	9.282690E-1	9.792640E-1	9.815713E-1	9.684022E-1	9.689105E-1	9.894517E-1	9.941943E-1	9.919502E-1	9.405107E-1	9.713933E-1	9.780480E-1	8.920499E-1	9.618693E-1	9.452690E-1	1.010079E+0	9.446602E-1	9.737531E-1	9.734237E-1	1.026869E+0	9.701017E-1	9.893470E-1	9.560258E-1	9.645802E-1	9.728068E-1	9.818102E-1	9.598277E-1	9.379963E-1	9.160206E-1	9.033395E-1
5.570500E+2	9.808827E-1	1.018760E+0	1.040243E+0	9.673733E-1	9.925210E-1	9.878445E-1	9.710656E-1	9.795158E-1	9.886782E-1	9.883970E-1	1.012283E+0	1.000999E+0	1.023479E+0	1.017799E+0	1.014481E+0	9.991670E-1	1.021839E+0	9.985441E-1	9.993450E-1	1.011542E+0	9.917517E-1	9.273136E-1	1.001281E+0	1.010617E+0	9.648721E-1	9.865825E-1	1.038882E+0	9.451937E-1	9.982341E-1	9.719737E-1	9.771309E-1	9.953528E-1	9.466234E-1	9.669946E-1	9.889608E-1	9.692710E-1	9.726773E-1	9.841151E-1	9.849158E-1	9.873880E-1	9.848880E-1	9.939603E-1	9.903200E-1	9.742218E-1	1.010502E+0	1.010482E+0	9.793712E-1	9.931474E-1	1.029201E+0	1.034308E+0	9.740751E-1	1.022776E+0	9.946913E-1	1.023277E+0	9.996684E-1	9.664349E-1	1.008781E+0	1.032694E+0	9.388757E-1	9.662070E-1	9.905025E-1	9.951889E-1	9.825491E-1	9.655097E-1	9.860364E-1	9.937920E-1	9.797808E-1	9.961692E-1	9.530904E-1	1.026050E+0	9.814732E-1	9.911152E-1	1.005570E+0	1.022863E+0	1.006986E+0	9.967260E-1	9.423032E-1	9.703354E-1	9.949245E-1	9.735214E-1	1.023587E+0	1.029549E+0	9.875530E-1	9.512109E-1	9.804447E-1	9.718700E-1	9.720630E-1	9.526749E-1	9.858929E-1	1.001418E+0	9.866264E-1	9.711685E-1	9.953244E-1	9.943192E-1	1.001331E+0	9.836647E-1	9.900088E-1	9.522105E-1	9.820729E-1	9.819323E-1	9.749194E-1	9.587264E-1	1.002413E+0	9.885679E-1	9.925602E-1	9.969943E-1	9.446616E-1	9.936275E-1	9.863732E-1	9.771317E-1	1.035175E+0	9.764722E-1	9.680965E-1	9.962782E-1	1.026899E+0	9.767027E-1	9.857556E-1	9.707929E-1	9.815240E-1	9.731609E-1	9.995997E-1	9.778606E-1	1.006031E+0	9.278276E-1	1.012756E+0	9.730921E-1	9.903332E-1	9.575141E-1	9.716075E-1	9.985962E-1	9.891276E-1	9.673144E-1	9.879486E-1	1.014182E+0	1.001041E+0	1.012713E+0	1.016351E+0	9.614316E-1	1.009664E+0	9.974045E-1	1.026737E+0	9.657953E-1	1.020859E+0	9.685183E-1	9.746586E-1	1.012657E+0	9.705451E-1	9.895652E-1	1.026014E+0	9.659336E-1	1.014266E+0	9.675643E-1	9.611483E-1	1.037364E+0	9.841736E-1	9.850778E-1	9.928353E-1	1.026848E+0	9.449060E-1	9.849983E-1	9.975339E-1	1.018209E+0	9.492070E-1	9.829438E-1	1.001237E+0	9.407847E-1	1.003771E+0	9.587250E-1	1.069602E+0	9.424136E-1
5.575700E+2	9.785732E-1	1.016748E+0	1.035343E+0	1.040845E+0	1.066755E+0	1.000716E+0	1.071853E+0	1.026844E+0	1.064850E+0	9.934352E-1	9.956926E-1	1.024944E+0	9.827254E-1	1.006827E+0	9.985017E-1	1.013042E+0	1.044981E+0	9.909733E-1	1.023721E+0	1.037375E+0	9.929626E-1	1.002654E+0	1.020070E+0	1.046752E+0	1.073459E+0	1.034009E+0	1.034063E+0	1.031059E+0	1.041364E+0	1.018444E+0	9.804536E-1	9.852271E-1	1.074828E+0	9.977124E-1	1.020240E+0	1.021756E+0	1.037910E+0	1.051868E+0	1.024745E+0	1.034487E+0	1.052255E+0	1.040229E+0	9.972899E-1	1.023333E+0	1.033036E+0	9.994092E-1	1.033107E+0	1.067666E+0	1.015656E+0	1.017013E+0	1.005285E+0	1.013540E+0	1.024408E+0	1.046409E+0	1.031101E+0	1.025582E+0	1.002010E+0	9.868296E-1	1.048821E+0	1.023216E+0	9.751659E-1	1.016866E+0	1.048002E+0	1.012641E+0	1.038870E+0	9.953527E-1	1.005496E+0	1.012195E+0	1.036320E+0	1.014609E+0	1.076288E+0	1.029785E+0	1.025920E+0	9.879358E-1	1.039771E+0	9.949910E-1	9.898391E-1	1.020195E+0	1.023162E+0	1.039605E+0	9.904993E-1	9.908216E-1	1.038404E+0	1.023587E+0	1.034076E+0	1.023249E+0	9.970448E-1	1.055120E+0	1.031187E+0	1.016184E+0	1.005961E+0	9.824141E-1	9.815097E-1	9.869992E-1	1.020336E+0	1.008576E+0	1.017998E+0	9.716752E-1	9.958688E-1	1.038685E+0	1.001546E+0	9.932271E-1	1.021142E+0	1.044535E+0	1.064608E+0	1.000879E+0	1.034861E+0	1.021130E+0	1.025248E+0	1.004886E+0	1.035251E+0	1.050937E+0	1.027612E+0	9.703393E-1	9.961722E-1	1.039024E+0	1.021222E+0	1.007951E+0	1.040400E+0	9.564959E-1	1.031774E+0	1.009605E+0	1.054454E+0	1.077250E+0	1.023272E+0	1.032876E+0	1.017472E+0	1.047166E+0	1.035088E+0	1.006728E+0	1.026455E+0	1.037860E+0	1.018153E+0	1.016394E+0	1.016228E+0	1.041486E+0	1.021174E+0	1.026427E+0	1.028185E+0	1.042093E+0	1.000450E+0	1.028377E+0	1.044957E+0	1.040829E+0	1.016946E+0	1.050559E+0	1.031901E+0	1.002553E+0	1.032072E+0	1.013271E+0	9.996628E-1	1.032936E+0	1.029936E+0	1.002104E+0	1.007005E+0	9.997406E-1	1.080524E+0	1.018076E+0	9.903189E-1	1.034890E+0	1.019819E+0	1.016603E+0	1.026293E+0	9.847811E-1	1.037790E+0	1.029951E+0	1.015968E+0	1.001769E+0	1.029618E+0	1.085906E+0
5.580230E+2	1.011700E+0	1.038696E+0	9.825656E-1	1.035306E+0	9.940802E-1	1.034060E+0	9.865998E-1	1.001586E+0	1.009326E+0	1.001614E+0	1.007626E+0	1.050753E+0	1.016733E+0	1.011302E+0	1.027096E+0	1.053910E+0	1.071457E+0	1.028606E+0	9.954804E-1	1.011457E+0	1.070452E+0	1.015449E+0	1.038334E+0	1.025063E+0	9.744132E-1	9.871788E-1	1.017862E+0	1.029268E+0	1.036359E+0	1.024707E+0	9.902176E-1	1.028693E+0	1.013167E+0	1.028459E+0	1.043969E+0	1.032671E+0	1.003384E+0	9.838739E-1	1.016507E+0	1.042835E+0	1.023788E+0	1.012514E+0	1.027049E+0	1.031541E+0	1.032773E+0	9.838444E-1	9.907620E-1	1.017689E+0	9.858486E-1	9.911557E-1	1.053252E+0	9.956176E-1	1.038708E+0	1.004192E+0	1.024046E+0	1.030463E+0	1.008108E+0	9.894658E-1	1.035227E+0	1.003711E+0	1.031901E+0	1.026534E+0	9.986995E-1	1.056663E+0	1.015846E+0	1.009741E+0	1.057746E+0	1.024515E+0	1.046411E+0	9.855497E-1	1.015716E+0	9.931935E-1	1.046120E+0	1.003223E+0	1.005777E+0	9.888027E-1	1.024510E+0	9.806333E-1	1.004306E+0	1.023156E+0	9.939547E-1	1.015654E+0	1.017657E+0	1.020465E+0	9.862670E-1	1.035152E+0	1.037296E+0	1.002406E+0	9.840896E-1	1.014714E+0	1.027455E+0	1.037274E+0	1.079395E+0	1.024633E+0	9.636611E-1	9.505081E-1	9.992888E-1	1.045182E+0	1.039191E+0	1.051385E+0	1.004998E+0	1.014238E+0	1.011473E+0	1.035913E+0	1.027875E+0	1.024300E+0	1.013913E+0	1.014748E+0	1.018969E+0	1.037559E+0	9.999167E-1	1.029572E+0	1.022550E+0	1.027495E+0	1.054525E+0	1.007324E+0	1.033850E+0	1.004762E+0	1.005932E+0	1.004882E+0	1.005025E+0	1.049790E+0	9.998350E-1	1.020036E+0	1.003779E+0	1.051481E+0	1.022187E+0	9.962184E-1	9.929876E-1	9.994329E-1	1.030253E+0	1.053973E+0	9.844804E-1	1.029506E+0	9.960585E-1	1.051627E+0	9.761791E-1	1.015361E+0	1.002140E+0	1.040599E+0	9.868477E-1	9.907063E-1	1.014741E+0	1.039757E+0	1.010922E+0	1.059557E+0	9.856302E-1	9.748126E-1	1.029398E+0	1.027037E+0	1.050573E+0	1.045000E+0	1.074483E+0	1.040705E+0	1.027002E+0	9.977623E-1	1.033301E+0	1.006881E+0	1.023505E+0	1.010563E+0	1.008877E+0	1.039401E+0	1.022914E+0	1.046707E+0	9.980676E-1	1.053429E+0	9.782306E-1	1.031614E+0	1.025336E+0	9.905855E-1
5.585160E+2	9.972707E-1	1.004064E+0	1.004244E+0	1.018683E+0	9.952387E-1	1.020565E+0	1.001809E+0	1.009633E+0	1.002544E+0	1.030563E+0	1.048026E+0	1.014456E+0	1.062474E+0	9.585510E-1	1.000398E+0	9.873052E-1	1.024621E+0	1.075496E+0	1.003687E+0	1.003764E+0	9.967902E-1	1.009671E+0	9.941133E-1	1.005167E+0	9.893547E-1	1.021170E+0	9.904625E-1	9.641192E-1	9.912304E-1	1.001018E+0	1.021697E+0	1.018864E+0	9.674879E-1	1.007764E+0	1.004892E+0	9.903266E-1	9.981233E-1	1.021071E+0	1.014174E+0	1.017214E+0	9.636587E-1	1.008814E+0	1.019818E+0	9.976108E-1	1.049119E+0	1.003312E+0	1.005068E+0	9.914756E-1	1.037493E+0	9.973477E-1	1.007567E+0	9.989145E-1	1.003117E+0	1.013137E+0	1.005220E+0	1.029957E+0	1.040376E+0	1.023124E+0	9.888040E-1	1.042584E+0	1.036985E+0	9.876806E-1	1.000891E+0	1.027924E+0	9.799471E-1	1.010761E+0	9.698206E-1	1.003516E+0	9.922388E-1	1.027188E+0	9.467292E-1	1.003738E+0	1.024147E+0	1.032545E+0	1.000063E+0	1.015654E+0	1.012614E+0	9.917534E-1	9.829128E-1	1.001480E+0	1.010025E+0	9.889625E-1	9.934021E-1	1.009680E+0	1.023856E+0	1.020393E+0	1.004195E+0	9.842512E-1	1.030812E+0	1.033492E+0	1.019686E+0	9.807358E-1	1.020189E+0	1.006232E+0	9.932782E-1	1.018172E+0	1.046681E+0	1.040736E+0	1.024818E+0	1.018287E+0	1.024169E+0	9.923569E-1	9.733890E-1	9.737714E-1	9.934396E-1	1.033925E+0	1.005496E+0	1.019451E+0	1.003983E+0	9.508081E-1	1.023223E+0	1.032215E+0	1.039430E+0	9.946989E-1	1.007389E+0	1.017873E+0	1.036404E+0	1.004844E+0	9.882195E-1	1.012861E+0	1.025014E+0	9.869440E-1	1.014838E+0	1.025884E+0	1.040518E+0	1.023611E+0	1.025293E+0	9.843768E-1	1.042555E+0	1.038956E+0	1.009831E+0	1.006712E+0	1.013144E+0	1.010379E+0	9.919428E-1	9.720644E-1	9.783392E-1	1.042280E+0	1.006769E+0	1.002995E+0	1.014579E+0	1.024064E+0	9.694283E-1	1.009864E+0	1.022503E+0	1.041757E+0	9.970489E-1	9.907248E-1	1.002903E+0	9.683246E-1	1.024825E+0	9.797595E-1	9.989559E-1	1.019056E+0	1.003715E+0	1.026146E+0	9.703817E-1	1.013163E+0	9.651821E-1	9.954795E-1	1.054758E+0	9.717081E-1	1.017631E+0	9.789917E-1	1.010685E+0	9.825895E-1	9.915010E-1	1.011279E+0	9.919659E-1	1.077579E+0
5.590100E+2	1.034097E+0	1.030691E+0	1.011868E+0	9.889124E-1	9.684313E-1	1.002698E+0	1.006608E+0	9.832969E-1	9.659608E-1	9.984086E-1	1.000040E+0	9.688503E-1	9.926728E-1	9.575853E-1	1.027124E+0	1.027930E+0	1.029290E+0	9.906545E-1	1.040029E+0	9.864399E-1	9.818998E-1	1.007024E+0	1.033042E+0	9.772094E-1	9.804345E-1	1.005298E+0	1.017445E+0	1.009888E+0	9.996961E-1	9.726640E-1	1.002072E+0	9.896666E-1	9.816712E-1	1.016967E+0	9.936747E-1	9.728203E-1	1.013774E+0	1.003899E+0	9.975711E-1	1.013669E+0	9.763391E-1	9.985140E-1	9.924667E-1	9.814194E-1	9.350105E-1	1.015370E+0	9.974071E-1	9.942622E-1	9.527458E-1	1.046809E+0	9.972541E-1	1.035492E+0	9.332020E-1	9.942394E-1	9.308202E-1	9.913298E-1	9.785488E-1	1.007709E+0	9.969468E-1	1.011853E+0	9.969942E-1	9.823589E-1	1.000162E+0	1.012133E+0	9.801582E-1	1.003254E+0	9.978048E-1	9.388380E-1	9.502874E-1	9.801365E-1	1.028550E+0	1.014012E+0	1.024741E+0	1.002581E+0	1.012436E+0	1.042199E+0	1.013980E+0	1.004163E+0	9.889861E-1	9.561759E-1	1.000220E+0	9.792487E-1	1.029845E+0	9.517262E-1	9.745886E-1	9.719961E-1	1.001911E+0	1.008693E+0	1.014564E+0	9.615662E-1	1.029700E+0	9.724319E-1	9.908282E-1	1.024664E+0	9.873985E-1	1.035720E+0	1.012140E+0	1.006631E+0	1.037116E+0	9.810880E-1	1.028635E+0	1.010063E+0	9.922348E-1	9.687649E-1	1.035416E+0	9.994887E-1	9.944949E-1	1.040653E+0	1.030671E+0	1.001239E+0	1.002486E+0	1.011378E+0	9.936381E-1	9.885912E-1	9.902672E-1	9.842131E-1	9.654264E-1	1.003315E+0	9.964527E-1	9.935568E-1	1.013072E+0	9.915151E-1	9.736214E-1	9.681638E-1	9.935436E-1	9.792525E-1	1.006353E+0	1.032851E+0	9.649782E-1	9.790669E-1	1.007219E+0	9.998435E-1	9.791415E-1	9.676552E-1	1.020353E+0	9.679451E-1	1.005629E+0	1.018047E+0	9.822625E-1	9.800604E-1	1.009753E+0	1.018146E+0	9.860918E-1	1.000545E+0	9.794156E-1	9.839424E-1	1.002061E+0	1.010095E+0	1.003681E+0	9.983384E-1	9.701791E-1	9.820465E-1	1.030402E+0	1.007694E+0	1.006700E+0	1.005410E+0	1.019505E+0	1.004015E+0	1.019129E+0	9.821387E-1	1.006072E+0	9.684901E-1	9.822886E-1	9.750154E-1	1.007904E+0	9.933266E-1	9.675726E-1	1.020140E+0	1.020838E+0	9.810621E-1
5.595390E+2	9.804803E-1	9.800317E-1	9.730015E-1	9.675083E-1	1.004980E+0	1.013740E+0	1.002626E+0	9.951758E-1	9.672668E-1	9.630351E-1	9.475896E-1	9.643367E-1	1.000362E+0	9.853414E-1	9.952164E-1	1.000610E+0	9.906864E-1	9.638257E-1	9.466484E-1	9.937172E-1	9.634673E-1	1.012982E+0	9.825640E-1	9.861767E-1	9.953281E-1	9.479196E-1	9.462990E-1	1.003357E+0	9.402870E-1	1.059948E+0	9.874748E-1	9.855158E-1	1.006625E+0	9.947451E-1	1.004842E+0	1.023442E+0	9.986434E-1	9.707845E-1	9.936765E-1	9.741825E-1	1.009079E+0	9.650704E-1	9.905304E-1	1.001164E+0	9.892346E-1	1.029823E+0	9.761135E-1	9.993695E-1	9.870980E-1	9.776431E-1	9.918761E-1	9.887186E-1	9.828551E-1	9.715210E-1	9.894966E-1	1.000178E+0	9.523415E-1	9.654504E-1	1.008932E+0	1.001574E+0	9.937179E-1	1.011069E+0	1.030217E+0	9.596884E-1	1.009764E+0	1.028534E+0	1.000856E+0	9.776994E-1	9.729411E-1	9.929378E-1	1.015145E+0	1.011200E+0	9.723019E-1	9.849009E-1	9.684637E-1	9.883362E-1	9.865604E-1	1.010639E+0	1.001351E+0	1.008384E+0	1.008624E+0	9.574686E-1	9.848451E-1	1.019933E+0	1.019522E+0	9.587503E-1	1.001068E+0	9.813043E-1	9.934086E-1	9.806868E-1	1.009653E+0	1.022195E+0	9.801813E-1	1.042268E+0	1.051352E+0	1.020126E+0	9.997042E-1	1.001875E+0	9.632020E-1	9.715398E-1	1.007750E+0	1.016354E+0	1.007627E+0	9.982814E-1	1.006756E+0	1.017911E+0	9.677851E-1	1.003438E+0	9.744018E-1	1.012421E+0	9.804512E-1	9.943164E-1	9.971461E-1	1.002295E+0	9.899466E-1	1.008128E+0	9.371876E-1	9.861932E-1	1.016139E+0	9.805439E-1	9.814618E-1	9.625887E-1	1.018545E+0	1.009130E+0	9.700119E-1	9.751066E-1	9.620184E-1	1.024055E+0	1.010839E+0	9.896178E-1	9.786101E-1	9.690540E-1	1.003998E+0	9.779125E-1	1.014249E+0	1.022988E+0	9.978165E-1	9.745480E-1	1.000490E+0	9.764549E-1	9.929658E-1	9.818830E-1	9.943612E-1	9.893429E-1	1.006573E+0	9.830601E-1	9.998244E-1	9.841960E-1	9.424768E-1	9.938116E-1	9.890423E-1	9.893966E-1	9.557865E-1	9.592409E-1	9.824113E-1	1.006242E+0	9.874841E-1	9.797530E-1	9.962771E-1	9.741584E-1	9.736003E-1	9.935092E-1	9.948469E-1	1.030555E+0	9.919797E-1	9.915338E-1	9.744876E-1	1.021044E+0	1.011832E+0	1.074996E+0
5.600180E+2	1.011753E+0	9.985246E-1	1.003417E+0	1.012655E+0	1.003628E+0	9.736532E-1	9.829539E-1	1.023066E+0	1.041624E+0	9.801894E-1	9.904635E-1	9.971238E-1	1.004464E+0	1.024537E+0	1.025403E+0	9.605204E-1	9.713207E-1	1.004902E+0	9.753841E-1	1.028639E+0	1.007489E+0	9.781713E-1	1.004395E+0	9.862951E-1	9.788806E-1	1.023320E+0	1.023625E+0	1.003120E+0	9.633996E-1	1.002260E+0	1.002434E+0	9.761209E-1	9.968236E-1	9.761728E-1	9.754455E-1	1.018188E+0	1.005563E+0	1.048103E+0	1.002034E+0	9.704161E-1	9.792552E-1	1.009007E+0	9.924155E-1	1.024249E+0	1.007998E+0	9.801329E-1	1.013196E+0	9.867946E-1	9.906738E-1	9.850864E-1	9.770621E-1	9.629722E-1	1.008510E+0	1.028920E+0	1.004237E+0	1.019963E+0	1.035846E+0	1.031299E+0	1.031950E+0	9.828287E-1	9.921875E-1	9.716314E-1	9.932477E-1	1.005373E+0	1.008657E+0	1.031456E+0	1.017600E+0	1.039408E+0	9.843146E-1	9.838506E-1	9.818275E-1	1.025422E+0	9.758061E-1	9.791815E-1	9.972313E-1	9.914041E-1	1.031672E+0	1.011584E+0	9.764744E-1	9.889207E-1	1.032620E+0	1.035276E+0	1.005861E+0	1.019627E+0	9.871536E-1	1.005413E+0	9.575257E-1	9.786475E-1	9.662935E-1	1.050021E+0	1.006681E+0	9.939402E-1	1.005688E+0	9.751440E-1	1.004860E+0	1.017086E+0	9.889593E-1	1.013885E+0	9.833498E-1	9.568777E-1	9.799320E-1	1.032574E+0	1.016144E+0	1.034975E+0	9.467383E-1	1.004630E+0	1.008822E+0	9.881429E-1	9.809800E-1	1.036371E+0	1.012081E+0	9.897990E-1	9.508247E-1	1.024415E+0	9.723693E-1	1.057616E+0	9.678082E-1	1.031597E+0	9.947107E-1	1.040365E+0	9.850864E-1	1.010667E+0	9.787149E-1	9.923736E-1	1.001523E+0	9.920242E-1	9.868704E-1	9.838953E-1	9.751480E-1	9.970306E-1	9.786556E-1	1.041266E+0	1.005533E+0	9.853281E-1	1.000578E+0	9.870250E-1	1.028263E+0	1.032726E+0	9.816075E-1	9.789549E-1	1.013878E+0	9.914881E-1	1.016789E+0	9.762284E-1	9.939501E-1	9.272175E-1	9.926493E-1	1.010377E+0	9.861520E-1	1.061777E+0	1.012245E+0	1.008072E+0	1.023621E+0	9.523553E-1	1.027484E+0	1.009061E+0	1.029409E+0	1.030919E+0	1.001582E+0	9.981390E-1	1.005031E+0	9.737531E-1	1.019929E+0	9.904625E-1	9.846250E-1	9.987654E-1	1.031858E+0	1.050031E+0	9.451395E-1	9.933846E-1
5.605150E+2	1.009701E+0	9.789743E-1	1.031290E+0	9.929064E-1	1.011469E+0	1.009927E+0	9.957485E-1	9.955094E-1	1.013425E+0	1.046905E+0	1.000602E+0	1.011220E+0	9.594932E-1	1.016460E+0	9.868146E-1	1.017982E+0	9.857142E-1	1.001561E+0	1.013323E+0	9.774385E-1	1.010957E+0	1.024145E+0	1.024611E+0	9.885480E-1	1.016329E+0	1.002381E+0	1.033581E+0	1.026703E+0	9.992552E-1	1.004189E+0	1.067941E+0	1.012901E+0	1.005537E+0	1.023364E+0	9.970760E-1	9.960325E-1	9.781677E-1	1.011972E+0	1.004124E+0	1.020158E+0	1.030625E+0	9.836287E-1	9.959082E-1	1.026673E+0	9.856781E-1	1.017446E+0	1.028691E+0	1.022685E+0	1.046538E+0	9.844803E-1	9.667991E-1	1.005502E+0	1.000173E+0	1.020589E+0	1.021554E+0	1.004307E+0	1.000330E+0	1.002222E+0	1.010326E+0	1.007065E+0	1.001520E+0	1.009834E+0	1.000571E+0	9.822630E-1	1.028389E+0	9.546023E-1	1.019846E+0	1.018764E+0	1.048146E+0	1.021901E+0	1.006153E+0	9.761045E-1	9.739565E-1	1.009205E+0	1.007686E+0	9.972408E-1	9.762298E-1	1.029907E+0	1.061872E+0	1.018100E+0	9.742688E-1	1.013012E+0	1.011759E+0	1.047217E+0	1.001283E+0	1.033706E+0	1.074926E+0	1.032288E+0	1.031251E+0	9.935678E-1	9.842868E-1	1.013680E+0	1.008093E+0	9.967012E-1	1.021429E+0	1.020673E+0	9.913459E-1	1.013894E+0	1.030455E+0	1.024301E+0	1.005258E+0	1.016763E+0	9.997803E-1	1.007436E+0	9.413995E-1	9.917701E-1	1.010240E+0	1.004111E+0	9.983975E-1	1.014299E+0	9.933228E-1	9.912596E-1	1.003183E+0	9.869301E-1	1.007656E+0	9.956820E-1	1.037946E+0	1.018697E+0	1.004466E+0	1.024924E+0	1.002798E+0	9.922555E-1	1.044869E+0	1.028462E+0	9.803878E-1	9.963485E-1	9.737186E-1	1.022139E+0	1.026583E+0	9.988113E-1	9.716332E-1	9.863986E-1	1.027708E+0	9.800851E-1	1.004533E+0	9.784234E-1	1.030258E+0	9.746873E-1	1.002022E+0	9.763635E-1	9.877780E-1	1.045066E+0	9.592248E-1	1.014969E+0	1.032134E+0	9.879023E-1	9.830413E-1	9.821389E-1	9.912242E-1	1.024130E+0	9.948826E-1	1.006396E+0	1.042938E+0	1.019884E+0	9.927205E-1	9.508793E-1	9.494517E-1	9.621475E-1	1.062777E+0	9.882407E-1	9.562356E-1	1.002921E+0	1.007855E+0	1.041204E+0	1.010934E+0	1.016768E+0	9.844031E-1	9.712481E-1	9.991504E-1	9.437510E-1
5.609950E+2	1.004608E+0	1.009872E+0	9.831919E-1	1.006764E+0	1.003841E+0	1.032292E+0	1.016869E+0	1.016200E+0	9.841584E-1	1.015173E+0	1.023402E+0	9.950993E-1	1.018512E+0	1.046739E+0	9.557016E-1	1.003596E+0	9.213815E-1	1.043347E+0	1.010618E+0	9.725021E-1	1.017842E+0	1.010991E+0	9.548338E-1	1.038934E+0	1.000438E+0	1.028843E+0	9.646283E-1	1.020074E+0	1.037398E+0	1.019753E+0	1.016380E+0	1.043708E+0	1.004867E+0	1.020262E+0	1.025429E+0	1.012422E+0	1.025321E+0	9.612833E-1	9.977572E-1	9.990053E-1	9.840930E-1	1.014846E+0	1.010123E+0	9.815451E-1	9.671933E-1	1.020481E+0	1.011576E+0	9.997902E-1	1.001857E+0	1.016562E+0	1.005681E+0	9.883103E-1	1.054973E+0	9.548727E-1	1.042651E+0	9.603963E-1	1.008802E+0	9.872963E-1	9.913253E-1	1.020853E+0	9.880077E-1	9.875825E-1	1.016637E+0	1.027811E+0	1.009858E+0	1.016876E+0	9.700942E-1	1.002520E+0	1.027481E+0	1.035380E+0	1.024594E+0	9.975781E-1	1.015205E+0	1.011617E+0	9.967530E-1	9.986649E-1	1.024195E+0	9.949762E-1	1.017146E+0	1.024926E+0	1.016103E+0	1.008796E+0	9.716017E-1	9.886304E-1	1.016050E+0	9.926545E-1	1.004168E+0	1.008252E+0	9.662984E-1	1.009991E+0	1.016731E+0	1.034785E+0	9.935559E-1	1.014311E+0	9.788270E-1	9.779688E-1	9.807038E-1	9.951572E-1	9.849025E-1	9.970476E-1	1.018100E+0	1.012175E+0	9.924280E-1	1.019245E+0	1.013769E+0	1.014057E+0	1.028556E+0	9.813709E-1	9.854429E-1	9.847725E-1	9.374310E-1	9.847388E-1	1.011847E+0	1.023328E+0	1.007444E+0	9.571437E-1	1.039193E+0	9.986622E-1	1.002149E+0	1.018418E+0	1.004357E+0	1.074669E+0	9.680910E-1	9.980690E-1	1.001345E+0	1.023652E+0	1.035023E+0	9.915630E-1	9.882495E-1	1.023282E+0	1.023304E+0	9.754775E-1	1.017020E+0	1.034748E+0	1.010922E+0	9.832453E-1	9.986937E-1	9.926443E-1	1.045194E+0	1.028212E+0	9.961156E-1	1.026206E+0	1.014284E+0	9.783753E-1	9.944964E-1	9.844369E-1	1.047847E+0	1.061343E+0	9.941282E-1	1.006867E+0	9.729312E-1	1.010782E+0	9.906808E-1	9.997279E-1	1.023520E+0	1.009601E+0	9.924482E-1	9.844450E-1	1.022899E+0	1.004524E+0	1.007971E+0	1.026059E+0	1.023010E+0	1.004759E+0	9.839709E-1	1.011041E+0	1.092379E+0	9.961539E-1	9.904977E-1	1.006983E+0
