Photon Energy (eV)	#1	#2	#3	#4	#5	#6	#7	#8	#9	#10	#11	#12	#13	#14	#15	#16	#17	#18	#19	#20	#21	#22	#23	#24	#25	#26	#27	#28	#29	#30	#31	#32	#33	#34	#35	#36	#37	#38	#39	#40	#41	#42	#43	#44	#45	#46	#47	#48	#49	#50	#51	#52	#53	#54	#55	#56	#57	#58	#59	#60	#61	#62	#63	#64	#65	#66	#67	#68	#69	#70	#71	#72	#73	#74	#75	#76	#77	#78	#79	#80	#81	#82	#83	#84	#85	#86	#87	#88	#89	#90	#91	#92	#93	#94	#95	#96	#97	#98	#99	#100	#101	#102	#103	#104	#105	#106	#107	#108	#109	#110	#111	#112	#113	#114	#115	#116	#117	#118	#119	#120	#121	#122	#123	#124	#125	#126	#127	#128	#129	#130	#131	#132	#133	#134	#135	#136	#137	#138	#139	#140	#141	#142	#143	#144	#145	#146	#147	#148	#149	#150	#151	#152	#153	#154	#155	#156	#157	#158	#159	#160	#161	#162	#163	#164	#165	#166	#167	#168	#169	#170	#171	
5.300220E+2	-5.646396E-3	-9.917663E-3	-1.157698E-2	-1.041245E-2	-8.294890E-3	-1.729869E-3	-6.483856E-3	-8.170982E-3	-9.093840E-3	-2.847118E-3	-1.023598E-3	-1.014458E-2	-6.341907E-3	-7.151063E-3	-8.648206E-3	-8.032612E-3	5.195736E-4	-2.279769E-3	-9.407489E-5	-6.119287E-3	-7.263359E-3	-7.140425E-3	-8.571500E-3	-7.073870E-3	-1.115662E-2	-4.355120E-3	-5.066553E-3	-5.909874E-3	-1.515040E-2	-1.101436E-2	-3.034448E-3	-2.495929E-3	-9.789427E-3	-3.716311E-3	-9.528537E-3	-8.849284E-3	-2.825151E-3	-6.225389E-3	-6.272398E-3	-1.083072E-2	-5.621303E-3	-4.178118E-3	-3.689472E-3	-7.943807E-4	-1.022468E-2	-9.366367E-3	-7.617368E-3	-8.390327E-3	-6.633636E-3	-1.609350E-4	-1.333978E-3	-5.249522E-3	-1.090467E-2	-1.325218E-2	-1.359830E-2	-4.762897E-3	-1.159787E-2	7.895577E-4	-1.025454E-2	-8.151920E-4	-6.525188E-3	-4.599044E-3	-1.065646E-2	-4.505337E-3	-9.309580E-3	-3.130945E-3	3.210161E-3	-4.047697E-3	-3.298275E-3	-7.046125E-3	-8.425475E-4	-9.469419E-3	-1.030786E-2	-4.577470E-3	-6.246964E-3	-7.845222E-3	2.201181E-3	-4.707679E-3	-6.697657E-3	-4.307010E-3	-9.514026E-3	-9.712217E-3	-1.323989E-3	-3.226183E-3	-3.935678E-3	-1.358753E-3	-1.130039E-2	-7.234778E-3	-6.388509E-3	-1.051409E-2	-3.751503E-3	-5.515528E-3	-6.656329E-3	-1.981479E-3	-1.113781E-2	-5.583776E-3	1.674052E-3	2.531711E-3	-3.663361E-3	-1.576061E-2	-1.672109E-2	-1.088457E-2	-8.717417E-3	-6.222652E-3	-6.346347E-3	-2.586636E-3	-2.067024E-3	-1.044558E-2	2.498562E-4	-4.448114E-3	-4.896868E-3	-2.191025E-3	-5.049691E-3	-4.678510E-3	-5.924299E-3	-9.568567E-3	-1.169053E-2	-1.201416E-2	-1.707509E-3	-3.068017E-3	-2.576494E-3	-2.216050E-3	-1.235074E-2	-3.691017E-4	-1.047125E-2	1.210859E-3	5.266357E-4	-9.483021E-3	-9.759119E-3	-7.682419E-3	-1.782611E-3	-1.772485E-3	-3.953362E-3	-5.308127E-3	-7.524646E-3	-1.108577E-2	-5.441203E-3	-6.953422E-3	-7.141656E-3	-1.363050E-2	-1.402793E-2	-1.219110E-2	-4.171398E-3	5.269474E-5	-1.184324E-2	-4.999294E-3	-3.745052E-3	7.130395E-3	-2.156986E-3	-3.877543E-3	-1.573611E-3	-1.060448E-2	-7.090971E-3	-1.165290E-2	-8.055532E-3	-1.562205E-2	-5.965518E-4	1.596616E-3	-7.735217E-3	-5.567953E-3	-8.443022E-4	-9.573063E-3	-5.855998E-3	-8.976986E-3	-4.999445E-3	-2.092178E-3	-6.705514E-3	-7.294264E-3	-3.622745E-4	-9.119936E-3	1.517790E-3
5.305180E+2	6.455685E-3	2.871085E-3	-2.565326E-3	-5.322981E-3	-7.568377E-3	-1.090377E-2	-4.776607E-3	3.735004E-3	-1.643597E-3	-6.981199E-3	-3.343087E-3	-2.363042E-3	-6.605932E-3	-7.875454E-3	-1.080832E-2	-6.889920E-3	-1.280935E-3	-4.648293E-3	-7.205304E-3	-2.655309E-3	3.143178E-3	-9.896699E-3	-3.067194E-3	-1.699925E-4	-3.580468E-3	-7.769791E-3	-9.024017E-3	4.523264E-4	-1.109847E-3	-5.751956E-3	1.651444E-4	-3.347830E-3	-4.140282E-3	4.257311E-4	-6.698648E-3	-6.103752E-3	-6.790952E-3	-5.038628E-3	-9.082348E-3	-3.652493E-3	-1.101020E-3	-8.382975E-3	-7.550503E-3	-1.003955E-2	-1.727625E-3	-7.161689E-3	1.262786E-3	-6.472562E-3	-9.817898E-3	-9.575011E-3	-4.649148E-3	-8.382927E-4	-3.444763E-3	8.929752E-4	-3.783825E-3	-6.965759E-3	-3.672602E-3	-7.090607E-4	-6.811041E-4	-5.358713E-3	-1.046841E-2	-5.719155E-3	1.161765E-3	-9.393892E-3	-2.079913E-3	-1.234561E-3	-1.398736E-2	-2.559140E-3	-9.242367E-3	-6.894474E-3	-9.671675E-3	-6.283651E-3	-6.130956E-3	-1.642318E-3	-3.433573E-3	-5.824102E-3	-4.657694E-3	-4.917805E-3	-6.267586E-3	-6.771600E-3	-1.275982E-2	5.234027E-3	-5.086307E-3	-3.893135E-3	-1.216740E-3	-6.573004E-3	-3.154179E-3	-5.955885E-3	-1.456322E-3	-5.132266E-3	-4.330267E-3	-1.017442E-2	-4.539599E-3	-1.229501E-2	1.009758E-3	-3.858443E-3	-1.168158E-2	-2.971689E-3	-7.554755E-3	-3.394849E-3	-1.953963E-3	-1.163471E-2	-1.079026E-2	-3.332942E-3	-6.587199E-3	-8.001500E-3	-1.228941E-2	-9.170524E-3	-3.490310E-3	-1.164126E-2	-8.338208E-4	8.516780E-5	-2.815486E-3	-8.783950E-3	-9.711314E-3	-8.829877E-3	-4.242490E-4	-4.216212E-3	-7.203085E-3	-8.163807E-4	-5.687509E-3	6.962629E-3	-6.193930E-4	-5.450988E-3	-6.485170E-3	-6.174219E-3	-1.566671E-2	-8.247304E-3	-7.418549E-4	4.016520E-3	-4.580970E-4	-1.239790E-2	1.813952E-3	-2.237740E-3	-7.364673E-3	-9.905473E-3	1.265099E-3	-9.942711E-3	5.457065E-3	-2.462145E-3	1.044124E-2	-1.102362E-2	-1.386196E-2	-7.288160E-3	-5.756895E-3	-5.415978E-3	-9.874485E-3	-7.734332E-3	-7.364799E-3	-4.107254E-3	-7.258429E-3	-7.876350E-3	3.102203E-3	-8.102727E-4	-2.199690E-3	-3.554746E-3	7.848794E-4	-1.246752E-2	-9.558747E-3	-1.470643E-2	-1.614385E-2	-2.125886E-3	-9.497168E-3	-3.789450E-3	-1.023524E-3	-5.746714E-3	-5.374196E-3	-7.796134E-3	-1.105404E-2	1.581164E-3	-2.066656E-3
5.310250E+2	1.958395E-3	-1.784365E-3	1.464525E-3	1.722168E-3	2.397178E-3	-6.742485E-3	-6.426366E-3	-5.723173E-3	-7.027351E-4	-8.056956E-3	5.394754E-3	2.079406E-3	-9.138867E-3	-3.764993E-3	-2.867330E-3	-4.046671E-3	-5.090554E-3	2.138035E-3	-2.781329E-3	-6.054431E-4	-3.573345E-3	3.496681E-3	-1.708962E-3	-3.118747E-3	-6.151882E-3	-2.330553E-3	-1.650536E-3	1.891055E-3	-1.704032E-3	-1.751346E-3	-1.316768E-2	-4.238862E-3	-1.278504E-3	-5.467022E-3	5.563985E-4	-3.650103E-3	-6.401622E-3	-4.682085E-3	1.056020E-3	1.032450E-4	3.060429E-3	6.470666E-3	-3.962361E-3	-5.325724E-3	3.419156E-3	-1.037504E-2	-6.802767E-3	-1.826525E-3	-1.074715E-3	-1.068604E-2	-7.556885E-4	-4.013684E-3	-1.226471E-2	-9.460912E-3	-6.690328E-3	-4.297600E-3	1.624912E-2	-8.668554E-3	-3.962970E-3	-1.050202E-3	3.243668E-3	-1.112201E-3	-9.394901E-3	2.810302E-3	-2.630606E-3	2.494136E-3	1.102950E-3	-2.610368E-3	-2.436868E-4	-5.565851E-3	3.457388E-3	-4.437183E-3	1.594346E-3	-5.913920E-3	3.489050E-3	-4.134181E-3	8.964459E-4	4.073651E-4	-1.266810E-4	-3.030403E-3	4.134691E-3	3.608310E-3	-7.519754E-3	7.883374E-3	1.106142E-3	-7.080450E-3	-5.549314E-3	2.892157E-3	-6.584118E-3	-2.299410E-3	1.040069E-3	-1.888170E-4	-9.394395E-4	2.664469E-3	1.429172E-3	1.582207E-3	-4.912330E-3	-4.099461E-3	-3.893113E-3	-7.089302E-3	-6.020021E-5	-1.908490E-3	-4.033856E-3	-2.136143E-3	-6.628566E-3	-1.060560E-2	1.990900E-3	-3.741123E-3	-2.001853E-3	7.162116E-4	3.711241E-4	-3.778850E-4	2.767055E-3	2.038915E-3	7.398664E-3	-3.123132E-3	-2.303018E-3	-4.732709E-3	-6.578706E-3	2.050331E-3	3.075168E-3	-1.207569E-2	6.186360E-4	2.804498E-4	-4.156737E-3	-1.410727E-3	3.153368E-3	-1.993177E-3	2.500310E-3	-3.782219E-3	-6.626401E-3	1.171645E-3	-6.085526E-3	-1.354706E-2	-2.469354E-4	3.084254E-3	-4.866026E-3	-2.694524E-3	-7.625837E-3	5.749689E-3	-4.348947E-3	1.276267E-2	-3.497442E-4	-6.907550E-3	-2.025039E-3	-6.324455E-4	3.190340E-4	-7.825670E-3	-2.823542E-3	-7.131728E-3	-8.511385E-4	1.588953E-3	-1.268209E-2	9.200093E-3	-3.831441E-3	-6.512544E-3	-6.378160E-3	-5.337672E-3	4.235423E-3	-2.528497E-3	3.801129E-3	-4.821583E-3	3.977611E-3	-7.800667E-3	-4.771755E-3	-2.680967E-3	4.431060E-3	3.780512E-3	-9.488992E-3	-1.872384E-3	1.124428E-2
5.315180E+2	-5.026904E-3	1.290655E-3	-4.532588E-3	6.195770E-3	7.581385E-3	2.234781E-3	2.434807E-3	-2.414300E-3	-3.871044E-3	1.372619E-3	-3.988031E-3	4.205865E-3	2.666988E-3	4.261883E-3	-2.353214E-3	7.465244E-3	1.287923E-3	2.728606E-3	-6.840582E-3	-1.197540E-2	-2.525945E-3	5.946261E-4	2.725392E-3	1.254043E-3	-6.628871E-4	-4.205535E-4	2.791957E-4	-2.748324E-3	4.352835E-3	-1.732608E-3	-3.865732E-3	2.030064E-3	2.879689E-4	-4.006227E-3	-3.518367E-3	9.676147E-3	-2.031556E-3	-4.168579E-3	-5.174819E-4	3.255403E-3	-3.053662E-3	3.067648E-3	-3.524978E-3	3.778654E-3	1.856321E-3	6.387976E-3	7.777286E-3	1.692648E-3	-3.489619E-3	2.211276E-3	-2.500152E-3	1.155720E-3	1.071258E-2	7.487477E-3	6.157581E-3	6.008544E-3	-2.705806E-3	6.731096E-3	1.155494E-3	-3.842215E-3	-2.920614E-3	-1.049045E-3	-3.604505E-4	2.095894E-3	2.480715E-4	-8.541374E-3	-4.249629E-3	-9.487865E-4	-1.171189E-3	-9.387994E-4	1.323882E-3	-1.602585E-3	3.192028E-3	-4.352547E-3	-3.796830E-3	5.045739E-3	3.952790E-4	-3.503127E-3	2.819505E-3	4.266835E-3	7.053213E-3	-6.477632E-3	1.598358E-3	-4.355865E-3	-7.502602E-3	-5.237028E-3	3.777989E-3	3.001293E-3	7.967221E-3	1.567421E-3	2.551008E-3	-1.306650E-3	-2.230360E-3	-6.523647E-3	-3.755863E-3	-5.528436E-4	-6.684796E-3	2.838628E-3	1.234001E-3	3.769909E-3	4.977678E-3	9.925463E-3	2.908018E-3	-1.407093E-3	8.076341E-3	-9.103121E-3	-6.106209E-4	4.751081E-3	3.189800E-3	-1.193759E-3	-4.342689E-3	-5.711042E-3	-2.936495E-4	-9.271711E-3	-8.256080E-4	2.933942E-3	3.936438E-3	6.938863E-3	-2.217318E-3	4.976300E-3	2.769056E-3	5.258905E-3	-2.728842E-3	-3.664648E-3	2.436127E-4	1.165824E-3	-2.029052E-3	3.149554E-3	-5.366233E-3	-2.689823E-3	-2.308572E-3	-2.553571E-3	1.811056E-3	-1.309308E-3	-9.089110E-4	-7.021363E-4	1.706522E-3	4.738026E-3	-1.440265E-3	8.919858E-4	-3.795240E-3	-1.721682E-3	-8.572482E-4	5.543414E-4	-4.811294E-3	-2.202855E-3	-2.048149E-3	1.102164E-4	-5.084795E-3	1.015206E-2	-8.860140E-4	-5.928509E-3	-1.136659E-3	-3.369080E-4	-1.749079E-3	4.982449E-3	-1.045244E-2	1.026719E-2	3.308624E-3	4.692547E-3	1.005539E-2	-1.090895E-4	-4.762137E-3	4.560433E-3	-5.479180E-4	-3.029858E-3	-6.055800E-4	-6.153077E-3	-4.902030E-3	7.671977E-3	-8.405367E-3
5.320020E+2	-4.481552E-3	-1.274897E-4	-4.341501E-3	-1.445024E-3	-2.479005E-3	7.998312E-3	2.564795E-3	9.822137E-4	5.198863E-3	5.403171E-3	-4.874802E-3	2.751185E-3	1.303536E-2	2.918856E-3	1.194857E-2	-1.073339E-4	-1.249792E-3	1.675043E-4	8.102393E-3	5.602022E-3	-3.711883E-4	3.696957E-3	7.659887E-3	-1.039625E-4	4.405465E-3	2.440962E-3	7.851332E-3	-1.591171E-5	3.442577E-3	9.635411E-4	5.132463E-3	4.100251E-3	1.356281E-3	8.712891E-3	1.223125E-2	2.601843E-3	2.855782E-3	3.413179E-4	2.530526E-3	4.567074E-3	-2.456938E-3	-4.839472E-3	6.129942E-3	-7.873656E-3	6.200091E-3	7.529500E-3	-2.668543E-3	4.352648E-3	1.581336E-2	8.987174E-3	2.831670E-3	-1.813088E-3	3.915490E-3	8.469506E-3	4.793751E-3	2.323188E-3	-3.619978E-3	1.824129E-3	5.370870E-3	2.961888E-3	9.029001E-3	2.343409E-3	6.225696E-3	-9.507577E-4	-1.529243E-3	2.650956E-3	1.791651E-3	-2.584398E-4	3.268226E-3	8.489313E-3	1.833034E-3	1.098483E-2	2.747665E-3	9.459229E-3	7.337720E-4	5.745125E-3	-2.038283E-3	2.047244E-3	5.284621E-3	9.607500E-4	-2.383215E-4	7.590061E-4	-2.323937E-3	-5.757070E-3	-3.517644E-3	-4.673591E-4	7.294528E-3	1.624848E-3	-2.250177E-3	8.320246E-3	-2.262898E-4	-1.144969E-3	5.206174E-3	3.327091E-3	7.799171E-3	-1.406204E-3	4.948768E-3	3.490869E-3	5.027107E-3	4.371586E-3	3.555631E-3	8.073355E-3	9.009098E-3	8.408882E-4	-2.446786E-3	1.134732E-2	7.418621E-3	1.078199E-2	-3.383540E-3	9.086164E-4	-1.295904E-6	3.719391E-3	1.878196E-3	9.683686E-3	6.043035E-3	4.258800E-3	5.353445E-3	9.828309E-3	-1.142550E-3	-4.383023E-3	-2.071342E-3	-4.445078E-3	8.639285E-3	7.218839E-3	1.054999E-2	-2.061966E-4	6.622641E-3	5.660856E-3	3.794718E-3	-4.155960E-3	-1.896402E-3	1.018393E-3	-1.758831E-3	1.010284E-2	6.268476E-3	-8.229572E-4	-4.677707E-3	-3.510842E-4	5.504576E-3	-7.165499E-3	4.459228E-3	9.394581E-3	6.722514E-3	5.720259E-3	1.237570E-2	4.600006E-3	6.777011E-3	-2.474913E-3	3.410322E-3	-2.049450E-3	1.133477E-2	1.121233E-2	3.748611E-3	3.056400E-3	3.453223E-3	8.196786E-3	1.353149E-2	-2.062557E-3	7.197282E-3	-3.917434E-4	-2.149069E-3	-2.043095E-3	6.424045E-3	7.562095E-3	3.681487E-3	-2.022146E-3	3.585819E-4	4.141888E-3	1.289805E-2	-2.841332E-3	4.520985E-3
5.325170E+2	6.740772E-3	7.667778E-3	2.155187E-2	9.262519E-3	8.363710E-3	9.143034E-3	1.268723E-2	1.159124E-2	1.011235E-2	1.110948E-2	7.834764E-3	3.471161E-3	6.384360E-3	1.161077E-2	1.272850E-2	1.161129E-2	5.813784E-3	1.893915E-3	8.818897E-3	1.575341E-2	1.059066E-2	9.248861E-3	2.962376E-3	9.212530E-3	1.714639E-2	1.243506E-2	7.610579E-3	6.330729E-3	1.016887E-2	1.928672E-2	1.477025E-2	3.952306E-3	1.356396E-2	4.050938E-3	6.957907E-3	6.325150E-3	1.519350E-2	1.977336E-2	1.228568E-2	6.557490E-3	9.172493E-3	7.862250E-3	1.259737E-2	2.025466E-2	4.767376E-4	1.298562E-2	8.048606E-3	1.064412E-2	5.202506E-3	9.223540E-3	6.407296E-3	1.075887E-2	1.198607E-2	5.863138E-3	1.312112E-2	7.694523E-3	5.347132E-3	3.283152E-5	8.372247E-3	8.104434E-3	7.641545E-3	1.013604E-2	1.302435E-2	9.943789E-3	1.530127E-2	7.761789E-3	1.213223E-2	1.042443E-2	1.068729E-2	1.195594E-2	3.899919E-3	1.080800E-2	8.904778E-3	7.027027E-3	9.254544E-3	7.012641E-3	3.203072E-3	1.067400E-2	4.987798E-3	8.881428E-3	1.132427E-2	6.588506E-3	1.465563E-2	9.348878E-3	1.506652E-2	2.071659E-2	8.931365E-3	5.672365E-3	8.711905E-3	8.058097E-3	4.716982E-3	1.833039E-2	9.159553E-3	1.480857E-2	4.655573E-3	9.819059E-3	1.665589E-2	-1.790059E-3	8.850121E-3	1.810327E-2	1.020195E-2	6.428950E-3	1.162441E-2	1.225794E-2	1.393256E-2	1.894954E-2	5.557530E-3	7.824154E-3	5.436046E-3	1.565831E-2	9.703550E-3	4.475394E-3	3.513575E-3	1.101157E-2	3.019522E-3	1.432883E-2	5.127913E-3	4.195905E-3	1.884917E-2	1.240789E-3	4.491122E-3	6.515283E-3	6.441050E-3	1.985449E-3	1.031956E-2	5.414460E-3	7.393120E-3	1.091309E-2	9.572178E-3	1.429390E-2	1.307208E-2	1.453392E-2	8.172711E-3	1.229939E-2	9.776689E-3	1.943208E-2	1.201332E-2	1.520372E-2	5.246118E-3	1.661647E-2	7.271641E-3	2.779147E-3	1.251784E-2	7.868415E-3	1.206077E-2	8.650567E-3	8.571642E-3	1.079430E-2	1.401980E-2	7.013912E-3	-7.655782E-4	1.160806E-2	1.405891E-2	5.435920E-4	1.238252E-2	1.251010E-2	3.110777E-3	8.003949E-3	2.552634E-3	1.850208E-2	5.280698E-3	1.867272E-2	9.713647E-3	8.444575E-3	7.661154E-3	1.557186E-2	7.895648E-3	1.332107E-2	1.290928E-2	4.580511E-3	-6.811035E-3
5.330280E+2	2.726849E-2	2.572317E-2	1.934326E-2	1.560169E-2	2.380784E-2	2.881925E-2	2.655174E-2	2.360998E-2	2.193467E-2	2.917309E-2	3.010635E-2	2.424561E-2	2.484265E-2	1.459513E-2	1.716688E-2	2.572501E-2	2.419711E-2	1.820023E-2	3.529935E-2	3.018273E-2	3.079495E-3	3.180360E-2	2.614830E-2	2.186047E-2	2.079292E-2	2.746584E-2	2.144930E-2	3.310852E-2	2.702267E-2	2.202142E-2	2.385227E-2	1.442861E-2	2.120517E-2	2.280226E-2	1.780224E-2	3.428236E-2	1.389147E-2	1.987366E-2	2.403574E-2	1.449417E-2	2.465569E-2	7.563258E-3	2.446107E-2	1.130571E-2	1.559228E-2	3.112571E-2	1.831251E-2	3.163776E-2	1.829255E-2	1.512578E-2	2.454769E-2	2.806927E-2	2.833939E-2	2.447700E-2	2.900819E-2	1.529181E-2	8.160597E-3	1.564136E-2	2.058189E-2	2.170954E-2	3.574484E-2	1.126421E-2	2.577779E-2	3.138984E-2	2.737155E-2	8.564080E-3	1.611422E-2	2.230332E-2	2.150223E-2	2.479309E-2	2.109319E-2	1.890973E-2	2.585215E-2	1.784471E-2	1.535924E-2	3.271535E-2	1.743904E-2	2.476222E-2	3.020136E-2	2.783054E-2	2.242262E-2	1.906206E-2	2.457277E-2	1.885045E-2	2.974693E-2	2.039789E-2	1.878444E-2	1.168339E-2	1.592268E-2	1.162303E-2	1.215450E-2	1.798424E-2	1.766943E-2	1.595626E-2	2.503915E-2	1.501877E-2	1.745223E-2	2.103193E-2	2.277486E-2	2.043399E-2	2.571578E-2	1.745976E-2	2.725601E-2	2.210833E-2	2.323391E-2	2.331890E-2	2.773567E-2	1.718622E-2	2.112490E-2	2.990936E-2	1.095775E-2	2.439737E-2	2.028658E-2	2.367382E-2	2.994129E-2	1.054356E-2	2.921847E-2	2.469237E-2	1.761714E-2	1.800918E-2	1.858695E-2	1.278141E-2	2.436763E-2	1.481783E-2	2.077440E-2	1.299074E-2	2.576008E-2	1.404204E-2	2.615369E-2	1.729058E-2	3.061577E-2	1.584326E-2	2.465243E-2	2.051845E-2	2.224014E-2	2.522497E-2	3.278838E-2	3.557401E-2	2.813404E-2	1.400705E-2	1.974426E-2	2.193787E-2	2.122578E-2	1.958807E-2	1.836062E-2	2.216920E-2	2.021625E-2	2.186430E-2	1.321500E-2	2.405655E-2	2.125311E-2	2.100310E-2	2.481284E-2	2.291745E-2	1.962848E-2	2.611375E-2	2.527650E-2	2.228441E-2	1.128626E-2	1.911041E-2	1.453509E-2	2.674014E-2	2.925265E-2	1.266153E-2	1.848760E-2	2.526105E-2	1.919977E-2	3.052466E-2	2.006773E-2	3.506069E-2	1.511521E-2
5.331580E+2	2.486002E-2	2.541174E-2	2.123751E-2	2.409500E-2	2.197212E-2	2.905869E-2	3.627269E-2	2.669893E-2	1.834707E-2	3.797512E-2	2.609814E-2	3.169367E-2	3.601796E-2	3.374204E-2	2.647506E-2	2.178589E-2	1.897543E-2	1.670954E-2	3.898588E-2	7.143954E-3	3.106462E-2	2.863314E-2	2.342335E-2	2.985044E-2	1.895495E-2	2.069806E-2	3.210627E-2	3.182018E-2	2.416937E-2	1.905935E-2	2.404558E-2	4.003787E-2	2.443932E-2	1.907723E-2	2.408603E-2	2.368904E-2	2.575275E-2	1.922527E-2	2.694978E-2	2.343906E-2	1.910694E-2	2.183909E-2	3.418461E-2	1.630025E-2	2.849753E-2	2.815510E-2	2.506980E-2	2.892918E-2	1.847430E-2	2.938005E-2	2.586528E-2	3.407990E-2	1.921602E-2	2.186013E-2	3.025059E-2	1.788376E-2	1.505668E-2	1.632160E-2	3.153153E-2	2.139420E-2	2.977016E-2	2.143382E-2	3.111406E-2	2.330641E-2	2.666635E-2	2.700955E-2	2.704110E-2	2.529292E-2	2.705084E-2	4.294748E-2	2.414203E-2	2.618426E-2	1.817026E-2	2.332661E-2	2.789968E-2	2.246982E-2	2.434237E-2	1.497109E-2	3.194861E-2	2.622419E-2	3.007814E-2	1.875291E-2	2.578261E-2	2.268537E-2	2.077020E-2	3.377712E-2	1.993924E-2	3.133244E-2	1.610876E-2	3.400546E-2	2.488425E-2	3.091641E-2	2.255767E-2	1.958007E-2	2.190701E-2	1.847505E-2	2.337325E-2	2.984033E-2	2.505963E-2	1.246297E-2	2.847309E-2	3.238034E-2	1.525529E-2	2.770618E-2	3.522310E-2	2.986171E-2	2.806438E-2	2.697172E-2	2.760520E-2	3.728567E-2	2.970500E-2	2.664672E-2	2.307902E-2	2.945834E-2	2.758321E-2	3.309689E-2	3.094892E-2	1.621931E-2	3.001842E-2	2.827593E-2	2.275741E-2	2.665914E-2	2.111924E-2	3.711470E-2	3.277381E-2	2.206897E-2	2.652475E-2	2.468372E-2	3.142101E-2	2.634601E-2	2.314869E-2	2.826242E-2	2.911469E-2	1.689830E-2	3.310347E-2	2.700965E-2	3.186828E-2	2.781285E-2	2.353282E-2	2.373723E-2	1.684476E-2	2.900644E-2	2.294576E-2	2.635843E-2	2.457946E-2	2.567043E-2	3.077233E-2	2.718240E-2	2.281877E-2	2.927107E-2	2.913829E-2	2.586750E-2	2.610843E-2	2.583430E-2	3.228489E-2	2.098774E-2	2.603603E-2	1.510906E-2	3.769447E-2	1.883657E-2	3.278538E-2	1.048182E-2	3.155757E-2	2.129420E-2	2.899698E-2	3.338794E-2	2.649799E-2	3.384845E-2	3.667959E-2	2.778279E-2	2.390807E-2
5.333130E+2	4.824637E-2	3.594334E-2	2.579846E-2	3.310029E-2	3.560177E-2	3.314072E-2	3.919038E-2	3.281341E-2	3.799741E-2	2.521938E-2	3.858997E-2	3.258825E-2	4.139300E-2	2.781380E-2	3.393881E-2	2.855563E-2	3.118476E-2	3.157678E-2	3.411925E-2	3.319656E-2	4.113114E-2	2.707434E-2	4.043231E-2	3.396257E-2	3.635448E-2	4.344044E-2	3.424102E-2	3.837092E-2	4.222173E-2	4.174081E-2	4.077380E-2	3.770586E-2	4.327981E-2	3.606077E-2	4.814943E-2	4.569927E-2	3.477343E-2	3.024904E-2	4.452684E-2	2.628520E-2	3.046561E-2	4.036764E-2	3.447953E-2	3.942957E-2	4.372066E-2	4.596373E-2	3.496472E-2	4.969759E-2	2.973607E-2	4.008874E-2	4.071057E-2	1.974781E-2	4.469602E-2	3.260076E-2	4.009950E-2	4.110984E-2	3.732081E-2	3.111289E-2	3.875068E-2	2.848959E-2	3.992256E-2	2.409176E-2	4.454140E-2	3.563357E-2	3.029674E-2	4.236427E-2	3.977864E-2	4.125345E-2	4.434508E-2	3.564088E-2	4.244113E-2	4.902613E-2	4.328999E-2	3.481294E-2	3.657402E-2	3.807064E-2	4.601099E-2	3.976273E-2	1.815934E-2	2.558060E-2	2.924510E-2	3.758442E-2	3.843769E-2	3.132845E-2	2.884902E-2	5.466861E-2	2.684469E-2	5.008831E-2	3.809219E-2	3.665720E-2	3.532368E-2	4.130313E-2	3.540451E-2	3.217696E-2	2.605073E-2	3.307322E-2	4.342059E-2	3.229694E-2	4.125682E-2	3.830979E-2	4.465548E-2	5.299467E-2	4.336404E-2	3.176408E-2	5.024945E-2	4.015673E-2	3.081402E-2	3.400131E-2	5.065148E-2	4.310418E-2	4.276775E-2	3.677822E-2	3.164534E-2	3.013323E-2	4.047741E-2	2.747849E-2	4.151465E-2	3.593587E-2	2.881676E-2	3.813164E-2	3.549580E-2	4.809928E-2	2.835450E-2	4.164349E-2	2.664732E-2	4.067529E-2	4.124703E-2	3.042704E-2	4.251483E-2	5.460997E-2	3.681152E-2	4.586221E-2	4.530841E-2	5.201072E-2	3.379901E-2	3.711105E-2	5.843723E-2	4.736186E-2	3.790834E-2	2.918071E-2	3.723075E-2	4.198215E-2	4.696506E-2	3.591046E-2	4.992726E-2	5.493500E-2	4.419163E-2	3.268161E-2	4.351977E-2	3.750569E-2	2.890357E-2	4.213267E-2	3.872094E-2	2.449835E-2	3.442824E-2	3.186846E-2	3.610987E-2	4.269232E-2	5.204814E-2	4.121965E-2	4.836237E-2	3.891089E-2	3.951708E-2	3.248039E-2	3.390689E-2	3.912084E-2	4.911913E-2	4.242533E-2	4.980197E-2	3.330220E-2	4.396410E-2
5.334630E+2	4.451807E-2	5.317462E-2	4.948546E-2	4.595083E-2	5.914487E-2	4.102095E-2	4.096254E-2	5.580146E-2	6.119203E-2	4.304355E-2	4.312072E-2	4.835567E-2	4.697541E-2	5.379206E-2	4.870664E-2	4.814544E-2	4.122296E-2	4.420418E-2	5.680662E-2	5.270922E-2	4.361628E-2	5.095651E-2	5.856172E-2	5.120660E-2	4.066060E-2	6.600652E-2	5.654747E-2	4.835298E-2	6.397036E-2	4.410199E-2	4.962135E-2	4.606604E-2	4.731389E-2	4.024578E-2	5.465555E-2	4.036387E-2	4.781730E-2	5.083651E-2	3.791182E-2	4.966914E-2	5.469040E-2	5.904343E-2	6.629808E-2	5.133156E-2	6.030457E-2	5.156263E-2	5.561199E-2	5.361328E-2	5.414634E-2	4.820925E-2	5.435365E-2	3.816054E-2	4.898952E-2	5.390306E-2	5.148564E-2	4.851568E-2	5.810874E-2	5.853624E-2	5.074722E-2	4.496953E-2	6.211501E-2	5.165861E-2	5.247872E-2	5.982672E-2	5.367446E-2	5.604371E-2	4.595479E-2	4.653323E-2	6.032233E-2	5.721299E-2	5.304567E-2	6.028270E-2	3.860154E-2	3.875329E-2	5.424955E-2	4.407974E-2	6.150205E-2	4.705692E-2	4.604326E-2	6.293237E-2	4.268556E-2	4.146895E-2	5.366980E-2	5.090471E-2	4.378062E-2	5.789556E-2	4.676429E-2	5.191550E-2	4.741068E-2	6.317187E-2	4.970138E-2	5.162529E-2	5.447804E-2	4.379724E-2	6.521792E-2	6.035935E-2	5.181396E-2	5.365264E-2	5.801712E-2	6.426015E-2	3.592670E-2	6.436561E-2	5.081137E-2	5.201822E-2	4.750082E-2	3.825701E-2	5.687004E-2	6.385912E-2	5.052908E-2	6.375686E-2	4.356088E-2	4.755412E-2	4.647327E-2	5.154297E-2	5.498567E-2	6.562359E-2	5.321310E-2	7.285384E-2	4.911439E-2	5.664508E-2	5.131811E-2	4.514001E-2	5.200783E-2	6.963628E-2	5.602210E-2	5.393452E-2	4.494530E-2	5.119447E-2	5.755407E-2	5.883575E-2	6.341664E-2	6.353793E-2	5.553273E-2	4.996721E-2	5.674491E-2	6.701910E-2	4.972423E-2	5.730951E-2	4.843600E-2	4.641715E-2	4.733340E-2	6.355197E-2	4.319978E-2	4.603156E-2	5.415939E-2	5.748297E-2	5.652644E-2	5.710811E-2	5.800301E-2	4.372981E-2	5.425859E-2	5.694919E-2	5.522321E-2	5.358273E-2	4.716629E-2	4.963539E-2	5.194596E-2	4.028885E-2	5.901465E-2	4.246972E-2	4.526964E-2	6.421074E-2	4.540389E-2	6.535848E-2	5.413039E-2	6.437875E-2	5.711078E-2	6.098415E-2	5.757834E-2	6.047536E-2	5.906089E-2
5.336130E+2	6.375667E-2	5.895910E-2	6.482742E-2	6.595421E-2	5.870764E-2	7.234030E-2	5.395822E-2	5.286417E-2	5.863736E-2	5.976377E-2	5.290033E-2	5.705074E-2	6.461791E-2	6.904989E-2	7.187259E-2	6.954155E-2	6.843539E-2	5.468612E-2	5.818829E-2	6.415898E-2	6.040626E-2	7.624371E-2	6.356007E-2	5.525487E-2	5.870724E-2	7.770107E-2	7.656306E-2	5.845350E-2	6.769889E-2	6.255810E-2	7.774580E-2	6.565339E-2	6.409641E-2	8.123306E-2	5.846008E-2	5.823193E-2	7.630950E-2	6.211582E-2	7.539850E-2	6.166469E-2	6.593187E-2	7.442606E-2	7.027666E-2	6.025928E-2	7.322886E-2	6.880798E-2	6.390827E-2	6.318132E-2	4.740206E-2	6.405608E-2	6.623615E-2	5.893303E-2	6.211307E-2	6.495858E-2	6.843881E-2	6.533261E-2	7.897227E-2	5.970409E-2	7.057337E-2	6.675941E-2	8.583768E-2	5.517570E-2	7.045424E-2	4.292598E-2	6.507587E-2	5.794272E-2	5.492418E-2	5.554894E-2	7.113147E-2	7.618374E-2	6.331450E-2	6.955104E-2	5.139178E-2	4.922297E-2	5.342846E-2	5.717985E-2	7.637031E-2	5.774963E-2	6.317708E-2	6.040214E-2	6.552113E-2	6.588905E-2	6.055557E-2	5.936244E-2	5.715487E-2	5.750994E-2	7.084209E-2	7.930503E-2	6.219200E-2	7.094079E-2	7.067092E-2	6.635019E-2	6.061143E-2	5.581063E-2	5.118442E-2	6.588473E-2	6.772865E-2	6.249536E-2	6.241490E-2	4.480645E-2	5.811278E-2	7.623012E-2	8.159476E-2	6.136640E-2	6.043940E-2	6.541957E-2	7.100353E-2	7.124519E-2	6.882463E-2	6.432022E-2	5.928049E-2	6.212850E-2	6.641375E-2	6.225411E-2	5.407068E-2	7.696640E-2	6.798667E-2	6.987011E-2	6.141034E-2	6.029403E-2	5.796846E-2	5.938892E-2	7.001702E-2	5.905675E-2	7.535509E-2	5.306827E-2	6.441454E-2	7.172485E-2	5.949596E-2	5.399842E-2	7.842553E-2	6.533777E-2	5.985654E-2	6.107865E-2	7.424262E-2	6.912660E-2	7.906003E-2	6.017029E-2	7.001197E-2	6.714631E-2	7.379598E-2	7.212147E-2	7.022496E-2	6.014086E-2	6.052797E-2	7.885184E-2	7.699162E-2	6.600347E-2	7.607565E-2	6.587980E-2	7.124080E-2	6.840650E-2	4.578732E-2	7.277682E-2	4.541706E-2	6.808220E-2	6.190150E-2	6.470219E-2	6.768458E-2	5.420141E-2	5.976373E-2	7.279649E-2	5.845248E-2	6.379592E-2	8.746612E-2	5.976446E-2	6.841546E-2	7.771154E-2	7.265724E-2	5.503513E-2	5.205633E-2
5.337580E+2	8.461741E-2	1.091992E-1	1.121199E-1	9.461484E-2	8.255868E-2	9.619124E-2	1.141934E-1	1.017610E-1	9.960390E-2	1.058267E-1	1.057129E-1	9.067940E-2	9.950263E-2	1.132658E-1	9.535919E-2	9.850555E-2	1.033047E-1	1.051913E-1	8.818383E-2	9.578358E-2	9.545361E-2	9.629877E-2	8.006281E-2	1.082642E-1	8.175282E-2	8.983121E-2	8.018053E-2	9.392161E-2	1.074856E-1	9.887268E-2	9.561087E-2	9.837027E-2	9.572243E-2	9.541831E-2	8.736354E-2	9.430813E-2	1.006900E-1	7.138874E-2	1.051568E-1	9.369627E-2	8.713510E-2	1.063706E-1	9.936143E-2	1.014749E-1	1.090651E-1	7.852211E-2	8.652638E-2	9.667064E-2	9.331867E-2	8.414601E-2	8.613091E-2	1.040080E-1	1.006946E-1	8.001403E-2	8.559436E-2	9.472967E-2	9.214394E-2	9.116320E-2	1.000622E-1	9.532553E-2	1.073437E-1	8.759449E-2	9.012488E-2	8.351288E-2	9.684109E-2	1.045490E-1	9.906310E-2	1.038762E-1	9.201721E-2	1.021409E-1	9.489001E-2	1.025888E-1	9.613960E-2	9.767064E-2	1.000539E-1	1.008136E-1	8.269178E-2	9.519352E-2	1.010294E-1	9.360091E-2	1.005524E-1	8.737255E-2	1.136070E-1	1.019972E-1	9.103157E-2	1.088963E-1	1.143446E-1	1.000927E-1	9.254926E-2	9.084304E-2	1.019480E-1	9.449670E-2	9.706560E-2	1.211822E-1	9.975601E-2	9.719847E-2	8.340981E-2	1.159750E-1	9.141056E-2	7.182094E-2	1.050560E-1	1.062730E-1	9.394651E-2	1.005592E-1	1.108828E-1	9.338626E-2	9.581717E-2	1.133394E-1	9.395648E-2	9.558894E-2	8.727951E-2	8.268439E-2	9.557169E-2	1.015086E-1	9.649528E-2	9.847971E-2	9.538712E-2	9.725821E-2	8.321956E-2	1.092970E-1	1.046761E-1	8.716211E-2	1.072528E-1	9.305188E-2	1.143658E-1	8.711070E-2	9.038328E-2	1.101224E-1	9.663398E-2	8.998968E-2	1.019898E-1	7.943658E-2	1.125536E-1	9.301691E-2	8.385558E-2	8.492046E-2	9.324166E-2	9.898228E-2	1.020907E-1	1.003366E-1	1.015801E-1	9.523413E-2	1.157944E-1	8.617507E-2	8.799447E-2	1.076566E-1	1.019721E-1	9.203893E-2	1.075153E-1	1.042446E-1	8.483049E-2	1.013548E-1	9.149568E-2	1.008609E-1	1.031878E-1	9.757636E-2	1.175935E-1	9.232027E-2	8.059755E-2	9.603551E-2	8.776804E-2	1.002244E-1	1.091644E-1	1.029309E-1	1.091668E-1	1.146245E-1	1.070136E-1	1.235445E-1	1.043310E-1	1.092136E-1	6.743670E-2
5.339140E+2	1.406537E-1	1.638847E-1	1.482269E-1	1.413060E-1	1.568550E-1	1.602790E-1	1.406375E-1	1.453870E-1	1.716823E-1	1.268292E-1	1.391135E-1	1.295118E-1	1.507296E-1	1.451743E-1	1.499730E-1	1.699150E-1	1.481846E-1	1.348202E-1	1.603091E-1	1.459560E-1	1.563482E-1	1.431604E-1	1.484638E-1	1.458011E-1	1.557246E-1	1.464755E-1	1.567265E-1	1.435430E-1	1.536793E-1	1.496273E-1	1.458035E-1	1.802882E-1	1.478554E-1	1.547717E-1	1.504445E-1	1.722370E-1	1.620629E-1	1.446919E-1	1.669398E-1	1.677594E-1	1.594629E-1	1.620059E-1	1.728686E-1	1.486238E-1	1.434723E-1	1.721289E-1	1.441572E-1	1.530010E-1	1.380614E-1	1.539830E-1	1.714180E-1	1.423631E-1	1.429679E-1	1.278894E-1	1.615680E-1	1.588424E-1	1.525831E-1	1.557007E-1	1.409237E-1	1.383066E-1	1.541267E-1	1.719287E-1	1.257421E-1	1.524970E-1	1.642232E-1	1.447560E-1	1.545020E-1	1.389998E-1	1.449202E-1	1.391236E-1	1.570225E-1	1.529776E-1	1.398121E-1	1.599420E-1	1.469232E-1	1.440272E-1	1.474643E-1	1.470142E-1	1.537184E-1	1.494654E-1	1.677996E-1	1.448957E-1	1.440683E-1	1.582976E-1	1.540617E-1	1.543284E-1	1.546946E-1	1.617589E-1	1.476590E-1	1.492846E-1	1.483379E-1	1.390858E-1	1.471998E-1	1.423976E-1	1.627206E-1	1.469633E-1	1.441831E-1	1.397194E-1	1.522039E-1	1.416419E-1	1.447107E-1	1.665349E-1	1.634690E-1	1.341881E-1	1.463161E-1	1.565908E-1	1.616918E-1	1.608225E-1	1.586827E-1	1.567571E-1	1.414352E-1	1.497850E-1	1.458045E-1	1.433529E-1	1.568113E-1	1.539769E-1	1.453747E-1	1.457230E-1	1.618503E-1	1.417854E-1	1.566806E-1	1.537876E-1	1.508340E-1	1.591258E-1	1.773078E-1	1.445204E-1	1.648879E-1	1.580912E-1	1.359946E-1	1.484248E-1	1.527239E-1	1.599613E-1	1.596994E-1	1.531986E-1	1.730053E-1	1.345346E-1	1.842026E-1	1.740214E-1	1.394683E-1	1.646548E-1	1.549918E-1	1.469571E-1	1.489532E-1	1.377390E-1	1.590116E-1	1.504999E-1	1.582069E-1	1.391829E-1	1.562322E-1	1.559796E-1	1.723643E-1	1.522017E-1	1.524616E-1	1.775639E-1	1.436370E-1	1.553665E-1	1.709470E-1	1.546305E-1	1.686306E-1	1.411706E-1	1.575115E-1	1.605039E-1	1.529885E-1	1.526615E-1	1.454978E-1	1.599932E-1	1.479069E-1	1.493576E-1	1.639837E-1	1.384535E-1	1.476533E-1
5.340800E+2	2.426728E-1	2.431371E-1	2.251157E-1	2.503381E-1	2.314754E-1	2.527060E-1	2.329699E-1	2.504288E-1	2.548065E-1	2.529470E-1	2.342279E-1	2.334278E-1	2.472011E-1	2.127068E-1	2.432344E-1	2.540274E-1	2.286158E-1	2.681802E-1	2.604834E-1	2.491129E-1	2.420428E-1	2.504371E-1	2.715109E-1	2.594964E-1	2.463858E-1	2.456466E-1	2.547755E-1	2.447618E-1	2.569352E-1	2.612336E-1	2.168500E-1	2.462310E-1	2.526971E-1	2.501781E-1	2.431782E-1	2.564887E-1	2.335360E-1	2.274067E-1	2.598905E-1	2.446034E-1	2.424118E-1	2.445983E-1	2.541742E-1	2.285814E-1	2.459131E-1	2.499065E-1	2.441043E-1	2.455594E-1	2.518997E-1	2.473227E-1	2.622318E-1	2.755603E-1	2.515855E-1	2.594302E-1	2.368920E-1	2.543231E-1	2.340283E-1	2.433179E-1	2.557633E-1	2.720064E-1	2.397064E-1	2.513143E-1	2.560712E-1	2.513965E-1	2.777739E-1	2.555997E-1	2.276155E-1	2.552397E-1	2.488874E-1	2.321955E-1	2.579987E-1	2.491245E-1	2.463900E-1	2.304863E-1	2.386785E-1	2.659619E-1	2.495510E-1	2.486986E-1	2.331197E-1	2.475253E-1	2.615111E-1	2.470140E-1	2.638733E-1	2.469582E-1	2.470930E-1	2.643413E-1	2.281782E-1	2.503692E-1	2.696246E-1	2.717483E-1	2.731464E-1	2.413306E-1	2.346920E-1	2.431946E-1	2.583892E-1	2.466196E-1	2.369179E-1	2.439544E-1	2.196171E-1	2.588143E-1	2.359739E-1	2.651021E-1	2.419582E-1	2.363113E-1	2.463942E-1	2.438052E-1	2.494428E-1	2.322225E-1	2.578524E-1	2.627378E-1	2.534840E-1	2.467054E-1	2.522330E-1	2.308311E-1	2.519342E-1	2.523310E-1	2.627263E-1	2.253687E-1	2.343513E-1	2.394739E-1	2.791593E-1	2.326143E-1	2.342170E-1	2.706266E-1	2.417131E-1	2.609458E-1	2.416292E-1	2.544803E-1	2.581135E-1	2.534314E-1	2.453007E-1	2.476870E-1	2.330084E-1	2.528402E-1	2.424910E-1	2.420548E-1	2.330247E-1	2.399544E-1	2.499040E-1	2.715227E-1	2.525133E-1	2.282544E-1	2.292846E-1	2.355308E-1	2.513982E-1	2.568464E-1	2.650225E-1	2.764199E-1	2.712137E-1	2.595031E-1	2.711965E-1	2.544548E-1	2.519705E-1	2.513710E-1	2.448850E-1	2.490715E-1	2.505740E-1	2.618792E-1	2.458761E-1	2.472724E-1	2.655694E-1	2.381893E-1	2.520524E-1	2.507549E-1	2.570764E-1	2.488920E-1	2.595512E-1	2.754721E-1	2.656032E-1	2.637228E-1	2.742240E-1
5.342040E+2	4.122258E-1	4.449603E-1	4.527694E-1	4.298170E-1	4.047325E-1	4.532479E-1	4.315129E-1	4.375530E-1	4.302151E-1	4.236087E-1	4.720656E-1	4.243305E-1	4.628386E-1	4.469539E-1	4.399134E-1	4.363624E-1	4.390226E-1	4.253725E-1	4.516664E-1	4.335165E-1	4.036906E-1	4.543965E-1	4.622920E-1	4.387098E-1	4.188944E-1	4.253315E-1	4.088996E-1	4.493296E-1	4.595673E-1	4.309546E-1	4.391852E-1	4.418433E-1	4.513332E-1	4.564103E-1	4.492015E-1	4.269050E-1	4.421536E-1	4.400208E-1	4.122043E-1	4.702421E-1	4.365260E-1	4.432759E-1	4.648897E-1	4.520088E-1	4.606839E-1	4.265296E-1	4.556946E-1	4.594605E-1	4.407862E-1	4.354379E-1	4.490662E-1	4.324920E-1	4.221222E-1	4.619800E-1	4.794203E-1	4.490020E-1	4.547291E-1	4.379401E-1	4.295098E-1	4.335747E-1	4.614390E-1	4.497319E-1	4.309252E-1	4.772606E-1	4.565126E-1	4.538883E-1	4.198962E-1	4.390596E-1	4.542912E-1	4.461463E-1	4.344319E-1	4.234055E-1	4.384443E-1	4.460979E-1	4.160057E-1	4.516136E-1	4.554407E-1	4.420900E-1	4.508439E-1	4.668674E-1	4.156365E-1	4.132676E-1	4.413101E-1	4.419729E-1	4.317085E-1	4.364659E-1	4.485996E-1	4.261546E-1	4.468381E-1	4.428124E-1	4.522658E-1	4.404174E-1	4.348172E-1	4.460345E-1	4.106167E-1	4.283437E-1	4.357246E-1	4.573096E-1	4.751201E-1	4.363000E-1	4.419223E-1	4.398000E-1	4.296916E-1	4.049777E-1	4.428424E-1	4.387047E-1	4.647985E-1	4.454748E-1	4.730457E-1	4.799656E-1	4.338315E-1	4.250365E-1	4.503847E-1	4.290403E-1	4.301369E-1	4.157261E-1	4.515656E-1	4.296579E-1	4.456088E-1	4.810439E-1	4.599280E-1	4.324068E-1	4.376102E-1	4.453871E-1	4.392705E-1	4.429657E-1	4.262302E-1	4.417830E-1	4.434199E-1	4.348037E-1	4.659708E-1	4.325391E-1	4.707498E-1	4.459605E-1	4.551003E-1	4.079711E-1	4.822494E-1	4.389060E-1	4.421330E-1	4.341567E-1	4.364876E-1	4.331684E-1	4.399712E-1	4.174110E-1	4.552060E-1	4.379899E-1	4.611175E-1	4.516197E-1	4.222868E-1	4.358040E-1	4.645122E-1	4.280291E-1	4.341068E-1	4.654221E-1	4.276277E-1	4.518693E-1	4.731179E-1	4.654944E-1	4.485874E-1	4.247500E-1	4.697472E-1	4.424006E-1	4.287384E-1	4.386894E-1	4.278283E-1	4.365718E-1	4.448543E-1	4.756589E-1	4.537968E-1	4.839785E-1	4.835774E-1
5.343600E+2	8.032410E-1	7.608340E-1	7.527520E-1	7.139895E-1	7.339216E-1	8.165653E-1	7.389011E-1	7.560357E-1	7.900210E-1	7.745553E-1	7.425418E-1	7.675267E-1	7.866484E-1	7.868688E-1	7.788283E-1	7.515225E-1	7.905717E-1	7.819323E-1	7.779575E-1	7.504670E-1	7.422812E-1	7.916725E-1	7.516748E-1	7.624098E-1	7.726384E-1	7.733602E-1	7.792962E-1	8.082773E-1	7.799092E-1	7.790334E-1	7.724148E-1	7.944739E-1	8.010079E-1	7.622558E-1	7.827160E-1	7.809398E-1	8.041718E-1	7.073340E-1	7.375761E-1	7.819980E-1	7.757804E-1	7.414571E-1	7.796296E-1	7.875564E-1	7.442272E-1	7.902764E-1	7.635120E-1	7.742542E-1	7.375204E-1	7.752398E-1	7.940815E-1	7.814880E-1	7.671443E-1	7.757194E-1	7.460242E-1	7.898842E-1	7.781416E-1	7.688809E-1	7.601476E-1	7.701329E-1	7.810346E-1	8.158312E-1	7.461891E-1	8.078272E-1	7.936317E-1	7.443236E-1	7.642120E-1	8.041479E-1	8.254255E-1	7.740057E-1	7.847662E-1	7.775963E-1	7.678198E-1	8.159919E-1	7.584154E-1	7.801081E-1	8.216091E-1	7.658755E-1	7.427210E-1	7.751958E-1	7.879099E-1	7.679662E-1	7.661986E-1	7.731337E-1	7.362089E-1	7.666317E-1	7.671193E-1	7.966629E-1	7.526237E-1	7.829089E-1	7.770192E-1	7.706698E-1	7.700109E-1	7.638280E-1	8.011269E-1	7.781033E-1	7.779296E-1	7.812827E-1	7.648118E-1	7.354125E-1	7.682476E-1	7.716342E-1	7.736343E-1	7.556998E-1	7.947499E-1	7.813845E-1	7.946922E-1	7.884713E-1	8.346050E-1	8.101904E-1	7.375739E-1	7.530394E-1	7.561472E-1	8.052527E-1	7.753371E-1	7.599188E-1	7.413239E-1	7.737542E-1	7.644208E-1	7.433410E-1	7.855823E-1	7.561687E-1	7.834006E-1	7.454575E-1	8.243624E-1	7.590371E-1	7.813271E-1	7.987790E-1	7.652688E-1	7.845265E-1	8.033459E-1	7.529257E-1	7.851268E-1	7.294741E-1	8.021591E-1	7.737334E-1	7.931411E-1	7.826218E-1	7.542431E-1	7.423217E-1	7.767403E-1	7.776103E-1	7.895609E-1	7.577360E-1	8.252795E-1	7.878274E-1	7.711475E-1	7.662626E-1	7.852785E-1	7.424693E-1	7.560143E-1	7.351929E-1	8.027390E-1	7.659930E-1	8.089608E-1	7.422615E-1	7.719621E-1	7.793555E-1	7.901849E-1	7.800931E-1	7.852690E-1	7.976713E-1	7.655170E-1	7.468534E-1	7.999303E-1	7.833958E-1	7.767048E-1	8.181510E-1	8.010115E-1	7.715695E-1	7.841538E-1
5.345160E+2	1.120981E+0	1.116164E+0	1.148386E+0	1.095445E+0	1.100453E+0	1.118862E+0	1.122414E+0	1.167412E+0	1.096019E+0	1.110637E+0	1.090232E+0	1.095997E+0	1.076747E+0	1.080800E+0	1.151397E+0	1.127143E+0	1.114889E+0	1.145196E+0	1.144324E+0	1.089205E+0	1.091243E+0	1.112683E+0	1.129970E+0	1.096204E+0	1.101263E+0	1.159315E+0	1.078348E+0	1.096910E+0	1.183169E+0	1.071835E+0	1.141805E+0	1.120231E+0	1.116514E+0	1.101226E+0	1.116248E+0	1.105739E+0	1.111735E+0	1.092403E+0	1.091404E+0	1.171343E+0	1.112816E+0	1.119000E+0	1.101465E+0	1.117842E+0	1.104370E+0	1.146363E+0	1.066484E+0	1.132556E+0	1.082791E+0	1.147225E+0	1.123183E+0	1.078003E+0	1.079082E+0	1.121147E+0	1.131974E+0	1.084138E+0	1.170451E+0	1.096836E+0	1.113592E+0	1.102066E+0	1.108328E+0	1.113270E+0	1.106318E+0	1.103247E+0	1.159468E+0	1.123440E+0	1.105730E+0	1.122920E+0	1.095087E+0	1.110938E+0	1.126066E+0	1.112138E+0	1.124382E+0	1.092013E+0	1.118964E+0	1.119623E+0	1.123223E+0	1.105535E+0	1.111647E+0	1.067030E+0	1.068488E+0	1.113415E+0	1.103590E+0	1.100816E+0	1.137588E+0	1.087453E+0	1.123059E+0	1.112799E+0	1.092347E+0	1.125302E+0	1.085120E+0	1.092852E+0	1.130642E+0	1.133565E+0	1.084338E+0	1.073427E+0	1.152960E+0	1.133283E+0	1.065980E+0	1.113472E+0	1.120019E+0	1.108533E+0	1.111789E+0	1.108088E+0	1.062559E+0	1.134369E+0	1.109194E+0	1.149046E+0	1.115090E+0	1.154544E+0	1.104545E+0	1.118976E+0	1.077039E+0	1.129615E+0	1.111940E+0	1.120452E+0	1.131826E+0	1.095930E+0	1.107718E+0	1.107313E+0	1.120338E+0	1.121118E+0	1.107728E+0	1.130809E+0	1.073169E+0	1.089471E+0	1.082321E+0	1.068536E+0	1.080809E+0	1.089957E+0	1.095756E+0	1.106007E+0	1.107488E+0	1.074524E+0	1.086004E+0	1.097997E+0	1.129581E+0	1.073679E+0	1.087992E+0	1.118271E+0	1.086534E+0	1.090335E+0	1.151547E+0	1.125283E+0	1.095221E+0	1.123344E+0	1.143582E+0	1.109409E+0	1.116013E+0	1.056505E+0	1.142718E+0	1.041225E+0	1.109705E+0	1.106987E+0	1.078517E+0	1.056408E+0	1.116194E+0	1.109855E+0	1.108836E+0	1.138698E+0	1.126536E+0	1.089473E+0	1.110240E+0	1.107888E+0	1.140714E+0	1.070996E+0	1.097867E+0	1.124929E+0	1.149605E+0	1.093195E+0	1.089103E+0
5.346560E+2	1.578589E+0	1.550185E+0	1.592968E+0	1.515754E+0	1.592226E+0	1.539203E+0	1.546806E+0	1.509469E+0	1.483102E+0	1.501401E+0	1.560990E+0	1.515075E+0	1.521239E+0	1.512410E+0	1.508543E+0	1.556710E+0	1.538994E+0	1.545816E+0	1.528448E+0	1.505720E+0	1.532562E+0	1.537040E+0	1.536295E+0	1.515560E+0	1.498758E+0	1.573180E+0	1.535112E+0	1.519887E+0	1.522891E+0	1.478945E+0	1.612376E+0	1.525086E+0	1.561942E+0	1.552260E+0	1.559248E+0	1.534554E+0	1.511019E+0	1.524989E+0	1.534854E+0	1.548172E+0	1.557534E+0	1.511183E+0	1.546451E+0	1.519439E+0	1.580497E+0	1.547996E+0	1.512946E+0	1.529317E+0	1.437669E+0	1.512456E+0	1.610028E+0	1.476109E+0	1.555895E+0	1.563361E+0	1.536205E+0	1.496552E+0	1.546323E+0	1.589132E+0	1.533226E+0	1.491951E+0	1.537701E+0	1.510420E+0	1.504081E+0	1.564355E+0	1.553519E+0	1.550882E+0	1.469792E+0	1.556948E+0	1.578760E+0	1.580334E+0	1.536405E+0	1.528220E+0	1.538508E+0	1.469326E+0	1.548247E+0	1.560378E+0	1.525515E+0	1.495327E+0	1.594340E+0	1.510723E+0	1.544073E+0	1.571828E+0	1.535277E+0	1.491030E+0	1.491239E+0	1.530095E+0	1.509217E+0	1.522697E+0	1.529649E+0	1.517981E+0	1.585789E+0	1.503207E+0	1.487365E+0	1.539236E+0	1.442970E+0	1.550810E+0	1.512394E+0	1.500499E+0	1.464391E+0	1.534153E+0	1.537960E+0	1.530986E+0	1.516212E+0	1.477512E+0	1.508903E+0	1.519821E+0	1.517571E+0	1.514641E+0	1.508560E+0	1.545082E+0	1.481319E+0	1.505482E+0	1.461168E+0	1.537089E+0	1.492866E+0	1.528647E+0	1.496392E+0	1.494158E+0	1.570014E+0	1.429829E+0	1.502346E+0	1.478637E+0	1.533762E+0	1.527089E+0	1.548067E+0	1.483369E+0	1.528183E+0	1.509268E+0	1.526726E+0	1.509201E+0	1.555869E+0	1.488266E+0	1.521034E+0	1.538392E+0	1.536689E+0	1.517109E+0	1.541798E+0	1.441572E+0	1.494111E+0	1.493543E+0	1.490921E+0	1.515880E+0	1.505360E+0	1.475860E+0	1.530977E+0	1.512985E+0	1.480858E+0	1.487720E+0	1.499168E+0	1.469516E+0	1.527204E+0	1.510168E+0	1.492517E+0	1.537091E+0	1.492843E+0	1.456996E+0	1.501445E+0	1.545922E+0	1.503957E+0	1.458570E+0	1.472866E+0	1.553399E+0	1.484044E+0	1.448292E+0	1.556161E+0	1.499833E+0	1.495342E+0	1.543191E+0	1.511578E+0	1.515890E+0	1.510777E+0
5.348230E+2	1.810384E+0	1.825872E+0	1.879258E+0	1.813341E+0	1.868520E+0	1.903476E+0	1.856001E+0	1.874940E+0	1.803201E+0	1.924769E+0	1.866072E+0	1.854721E+0	1.883844E+0	1.783982E+0	1.883122E+0	1.829116E+0	1.907285E+0	1.868059E+0	1.890102E+0	1.897673E+0	1.822097E+0	1.858493E+0	1.881043E+0	1.841882E+0	1.803132E+0	1.885804E+0	1.851679E+0	1.861754E+0	1.857988E+0	1.849022E+0	1.839117E+0	1.888427E+0	1.846810E+0	1.828307E+0	1.852687E+0	1.848522E+0	1.844147E+0	1.817998E+0	1.773029E+0	1.809843E+0	1.883887E+0	1.903316E+0	1.793261E+0	1.784547E+0	1.815149E+0	1.891821E+0	1.856944E+0	1.827655E+0	1.849543E+0	1.817023E+0	1.928696E+0	1.830285E+0	1.833103E+0	1.821295E+0	1.864827E+0	1.846883E+0	1.910527E+0	1.893658E+0	1.813786E+0	1.876918E+0	1.851653E+0	1.851475E+0	1.797967E+0	1.826189E+0	1.846944E+0	1.899807E+0	1.847803E+0	1.869224E+0	1.874751E+0	1.829599E+0	1.773690E+0	1.837387E+0	1.873585E+0	1.881007E+0	1.849243E+0	1.828137E+0	1.774014E+0	1.811778E+0	1.825591E+0	1.868486E+0	1.873467E+0	1.836920E+0	1.795669E+0	1.862879E+0	1.788566E+0	1.859122E+0	1.837262E+0	1.831341E+0	1.862595E+0	1.820318E+0	1.833641E+0	1.814821E+0	1.828331E+0	1.800383E+0	1.793383E+0	1.756496E+0	1.861634E+0	1.773497E+0	1.840023E+0	1.805191E+0	1.803160E+0	1.816356E+0	1.800421E+0	1.827508E+0	1.782445E+0	1.820907E+0	1.859803E+0	1.885564E+0	1.842086E+0	1.900783E+0	1.787471E+0	1.837343E+0	1.873287E+0	1.812113E+0	1.796636E+0	1.841132E+0	1.854714E+0	1.804456E+0	1.786523E+0	1.840786E+0	1.820070E+0	1.789738E+0	1.799754E+0	1.830269E+0	1.773340E+0	1.846976E+0	1.837949E+0	1.843146E+0	1.783455E+0	1.812693E+0	1.833508E+0	1.764687E+0	1.816007E+0	1.714186E+0	1.798160E+0	1.823931E+0	1.780770E+0	1.721926E+0	1.798029E+0	1.797889E+0	1.828846E+0	1.842325E+0	1.782193E+0	1.786947E+0	1.854390E+0	1.802102E+0	1.815963E+0	1.830551E+0	1.862334E+0	1.784282E+0	1.798770E+0	1.775817E+0	1.827218E+0	1.850442E+0	1.758063E+0	1.836379E+0	1.794270E+0	1.797156E+0	1.821979E+0	1.712913E+0	1.809595E+0	1.755508E+0	1.747352E+0	1.764374E+0	1.787243E+0	1.741693E+0	1.861122E+0	1.786628E+0	1.908300E+0	1.757968E+0	1.776850E+0
5.349580E+2	1.893854E+0	1.829926E+0	1.835595E+0	1.813403E+0	1.794930E+0	1.861726E+0	1.794438E+0	1.848210E+0	1.802666E+0	1.866680E+0	1.795868E+0	1.819257E+0	1.824762E+0	1.763646E+0	1.886019E+0	1.838835E+0	1.805407E+0	1.876653E+0	1.823444E+0	1.818235E+0	1.862534E+0	1.873343E+0	1.869945E+0	1.829966E+0	1.863497E+0	1.812435E+0	1.812617E+0	1.886479E+0	1.879653E+0	1.832606E+0	1.797599E+0	1.800547E+0	1.859488E+0	1.812135E+0	1.807689E+0	1.834642E+0	1.838735E+0	1.755805E+0	1.793345E+0	1.797671E+0	1.911411E+0	1.808441E+0	1.822756E+0	1.788739E+0	1.793384E+0	1.835208E+0	1.798799E+0	1.809250E+0	1.820696E+0	1.862411E+0	1.925625E+0	1.883695E+0	1.812156E+0	1.844266E+0	1.812577E+0	1.833491E+0	1.825389E+0	1.809674E+0	1.767932E+0	1.797511E+0	1.782763E+0	1.809181E+0	1.798017E+0	1.823758E+0	1.796295E+0	1.784594E+0	1.768766E+0	1.818948E+0	1.858498E+0	1.799455E+0	1.868904E+0	1.843487E+0	1.807904E+0	1.803150E+0	1.792037E+0	1.789276E+0	1.797183E+0	1.785806E+0	1.809702E+0	1.821967E+0	1.760103E+0	1.828489E+0	1.831818E+0	1.773816E+0	1.811759E+0	1.836085E+0	1.813878E+0	1.793964E+0	1.802832E+0	1.709469E+0	1.807859E+0	1.761756E+0	1.732621E+0	1.786667E+0	1.789157E+0	1.774853E+0	1.868350E+0	1.809147E+0	1.780566E+0	1.814864E+0	1.782023E+0	1.812026E+0	1.797424E+0	1.822876E+0	1.786911E+0	1.788166E+0	1.858174E+0	1.813242E+0	1.890194E+0	1.821193E+0	1.819913E+0	1.758686E+0	1.746931E+0	1.779468E+0	1.740260E+0	1.781262E+0	1.827456E+0	1.785143E+0	1.792549E+0	1.774250E+0	1.795051E+0	1.783604E+0	1.817816E+0	1.776833E+0	1.769125E+0	1.787250E+0	1.772252E+0	1.760768E+0	1.809634E+0	1.783809E+0	1.760281E+0	1.755076E+0	1.760840E+0	1.770328E+0	1.737027E+0	1.729149E+0	1.806144E+0	1.771568E+0	1.779588E+0	1.746750E+0	1.811816E+0	1.780589E+0	1.790201E+0	1.748838E+0	1.751227E+0	1.779029E+0	1.781570E+0	1.793119E+0	1.791237E+0	1.759555E+0	1.827670E+0	1.735220E+0	1.815974E+0	1.816582E+0	1.761807E+0	1.790422E+0	1.790185E+0	1.787962E+0	1.712043E+0	1.801849E+0	1.786107E+0	1.777394E+0	1.748571E+0	1.754986E+0	1.760236E+0	1.730934E+0	1.778070E+0	1.768986E+0	1.765830E+0	1.682618E+0	1.729076E+0
5.351090E+2	1.941566E+0	1.919607E+0	1.954635E+0	1.884421E+0	1.944984E+0	1.952156E+0	1.863249E+0	1.910173E+0	1.911876E+0	1.968566E+0	1.901976E+0	1.946595E+0	1.942051E+0	1.913634E+0	1.912575E+0	1.887488E+0	1.910791E+0	1.917921E+0	1.915919E+0	1.900965E+0	1.918369E+0	1.919207E+0	1.942288E+0	1.887852E+0	1.859014E+0	1.907577E+0	1.924970E+0	1.923751E+0	1.928004E+0	1.975180E+0	1.937619E+0	1.880840E+0	1.953864E+0	1.937780E+0	1.904252E+0	1.882133E+0	1.931150E+0	1.889584E+0	1.917551E+0	1.891395E+0	1.906553E+0	1.923995E+0	1.944638E+0	1.834950E+0	1.928874E+0	1.872439E+0	1.884514E+0	1.896862E+0	1.882867E+0	1.936033E+0	1.934464E+0	1.835909E+0	1.903128E+0	1.945244E+0	1.940133E+0	1.932533E+0	1.986429E+0	1.897768E+0	1.918702E+0	1.913545E+0	1.857210E+0	1.897817E+0	1.902183E+0	1.834089E+0	1.892288E+0	1.890262E+0	1.891534E+0	1.984206E+0	1.905355E+0	1.872941E+0	1.890654E+0	1.947291E+0	1.869331E+0	1.905767E+0	1.923264E+0	1.894460E+0	1.873611E+0	1.864017E+0	1.926564E+0	1.910324E+0	1.845729E+0	1.904025E+0	1.823445E+0	1.862593E+0	1.866869E+0	1.838871E+0	1.908103E+0	1.892421E+0	1.810822E+0	1.826203E+0	1.904587E+0	1.864491E+0	1.852534E+0	1.924357E+0	1.844834E+0	1.837870E+0	1.858638E+0	1.933042E+0	1.928791E+0	1.945983E+0	1.855940E+0	1.844435E+0	1.906663E+0	1.882274E+0	1.858428E+0	1.896748E+0	1.890688E+0	1.952393E+0	1.813701E+0	1.976460E+0	1.851265E+0	1.875863E+0	1.824076E+0	1.855030E+0	1.852653E+0	1.893174E+0	1.844664E+0	1.880982E+0	1.912356E+0	1.852011E+0	1.898759E+0	1.903140E+0	1.911145E+0	1.909413E+0	1.842645E+0	1.856056E+0	1.881122E+0	1.865458E+0	1.873582E+0	1.823720E+0	1.854424E+0	1.869857E+0	1.835991E+0	1.824793E+0	1.842053E+0	1.857716E+0	1.921804E+0	1.840678E+0	1.842184E+0	1.888406E+0	1.852439E+0	1.830090E+0	1.876882E+0	1.822923E+0	1.833922E+0	1.861116E+0	1.793765E+0	1.899366E+0	1.809712E+0	1.851461E+0	1.950595E+0	1.821865E+0	1.898940E+0	1.901474E+0	1.872464E+0	1.845534E+0	1.935072E+0	1.860869E+0	1.822994E+0	1.864937E+0	1.893856E+0	1.839740E+0	1.875457E+0	1.849131E+0	1.843481E+0	1.793862E+0	1.871085E+0	1.853540E+0	1.889168E+0	1.784004E+0	1.697578E+0
5.352550E+2	1.691490E+0	1.759558E+0	1.750607E+0	1.705391E+0	1.745242E+0	1.716752E+0	1.673648E+0	1.731042E+0	1.652415E+0	1.720165E+0	1.683622E+0	1.671623E+0	1.709548E+0	1.689201E+0	1.650809E+0	1.711832E+0	1.665798E+0	1.791161E+0	1.802895E+0	1.700704E+0	1.697381E+0	1.719807E+0	1.780084E+0	1.732924E+0	1.749172E+0	1.676069E+0	1.727232E+0	1.770869E+0	1.713132E+0	1.736748E+0	1.758854E+0	1.664276E+0	1.737281E+0	1.682775E+0	1.701103E+0	1.651309E+0	1.703806E+0	1.645447E+0	1.700366E+0	1.727348E+0	1.694747E+0	1.677172E+0	1.676495E+0	1.624137E+0	1.657445E+0	1.811075E+0	1.639283E+0	1.678820E+0	1.680343E+0	1.706865E+0	1.714898E+0	1.665498E+0	1.657368E+0	1.712613E+0	1.704764E+0	1.696657E+0	1.745252E+0	1.717233E+0	1.679847E+0	1.710669E+0	1.664267E+0	1.711374E+0	1.717034E+0	1.673284E+0	1.759123E+0	1.714444E+0	1.715665E+0	1.731617E+0	1.677939E+0	1.685304E+0	1.700267E+0	1.657877E+0	1.705012E+0	1.689684E+0	1.640767E+0	1.661067E+0	1.654556E+0	1.709974E+0	1.716997E+0	1.683481E+0	1.649115E+0	1.675308E+0	1.720243E+0	1.699305E+0	1.714397E+0	1.702491E+0	1.710718E+0	1.690945E+0	1.721861E+0	1.632071E+0	1.672570E+0	1.674206E+0	1.744189E+0	1.679104E+0	1.649679E+0	1.645888E+0	1.601292E+0	1.667734E+0	1.652663E+0	1.695250E+0	1.631358E+0	1.718454E+0	1.699057E+0	1.697565E+0	1.661184E+0	1.687858E+0	1.648690E+0	1.695147E+0	1.649754E+0	1.711411E+0	1.652814E+0	1.623294E+0	1.660581E+0	1.674439E+0	1.679778E+0	1.736072E+0	1.653876E+0	1.669633E+0	1.657818E+0	1.640240E+0	1.663479E+0	1.616714E+0	1.628582E+0	1.707165E+0	1.592837E+0	1.651575E+0	1.705774E+0	1.698810E+0	1.687440E+0	1.655888E+0	1.733640E+0	1.665773E+0	1.679097E+0	1.654159E+0	1.695144E+0	1.638749E+0	1.659745E+0	1.691732E+0	1.655568E+0	1.687661E+0	1.629984E+0	1.662074E+0	1.623042E+0	1.629427E+0	1.667238E+0	1.645797E+0	1.728002E+0	1.646757E+0	1.741091E+0	1.632388E+0	1.684810E+0	1.659922E+0	1.659807E+0	1.773719E+0	1.656473E+0	1.635168E+0	1.705508E+0	1.698196E+0	1.730688E+0	1.679301E+0	1.636993E+0	1.689244E+0	1.700099E+0	1.686382E+0	1.611497E+0	1.620246E+0	1.684297E+0	1.664262E+0	1.670394E+0	1.579356E+0	1.690058E+0
5.354110E+2	1.383234E+0	1.394356E+0	1.335365E+0	1.368487E+0	1.353708E+0	1.455533E+0	1.359521E+0	1.353729E+0	1.294738E+0	1.356656E+0	1.396334E+0	1.365629E+0	1.383845E+0	1.340686E+0	1.367059E+0	1.409808E+0	1.350066E+0	1.367557E+0	1.400344E+0	1.374718E+0	1.392772E+0	1.402453E+0	1.374501E+0	1.395642E+0	1.355950E+0	1.404676E+0	1.393449E+0	1.375778E+0	1.379956E+0	1.400950E+0	1.323943E+0	1.378918E+0	1.411658E+0	1.402650E+0	1.459972E+0	1.385694E+0	1.403724E+0	1.403879E+0	1.367492E+0	1.331002E+0	1.384286E+0	1.400431E+0	1.348069E+0	1.377344E+0	1.373656E+0	1.393023E+0	1.397053E+0	1.391929E+0	1.400889E+0	1.403425E+0	1.384143E+0	1.327367E+0	1.352633E+0	1.353929E+0	1.410586E+0	1.363594E+0	1.429557E+0	1.397015E+0	1.353668E+0	1.399928E+0	1.325567E+0	1.371466E+0	1.398794E+0	1.367437E+0	1.368100E+0	1.393936E+0	1.370258E+0	1.416669E+0	1.362767E+0	1.365606E+0	1.332699E+0	1.340099E+0	1.324880E+0	1.338964E+0	1.345743E+0	1.366114E+0	1.384729E+0	1.386206E+0	1.344166E+0	1.377641E+0	1.361327E+0	1.383680E+0	1.405217E+0	1.313227E+0	1.367533E+0	1.374286E+0	1.363438E+0	1.365608E+0	1.368788E+0	1.397965E+0	1.352721E+0	1.364263E+0	1.362262E+0	1.415772E+0	1.350903E+0	1.397894E+0	1.321177E+0	1.419107E+0	1.413271E+0	1.409980E+0	1.375803E+0	1.395148E+0	1.373433E+0	1.364360E+0	1.353351E+0	1.381694E+0	1.338704E+0	1.323934E+0	1.366324E+0	1.378890E+0	1.359209E+0	1.394895E+0	1.278385E+0	1.379878E+0	1.405073E+0	1.363950E+0	1.366823E+0	1.358387E+0	1.366125E+0	1.382311E+0	1.359120E+0	1.351058E+0	1.381686E+0	1.390477E+0	1.356600E+0	1.392498E+0	1.396456E+0	1.372001E+0	1.376947E+0	1.385943E+0	1.359461E+0	1.306461E+0	1.403536E+0	1.333744E+0	1.363763E+0	1.399756E+0	1.357279E+0	1.287501E+0	1.338089E+0	1.388845E+0	1.334982E+0	1.414318E+0	1.309983E+0	1.364262E+0	1.355021E+0	1.403502E+0	1.321955E+0	1.363957E+0	1.327864E+0	1.390011E+0	1.408588E+0	1.339726E+0	1.324394E+0	1.389760E+0	1.335609E+0	1.373320E+0	1.316031E+0	1.387495E+0	1.350396E+0	1.324944E+0	1.377540E+0	1.377911E+0	1.347973E+0	1.353776E+0	1.290372E+0	1.350762E+0	1.351057E+0	1.385139E+0	1.395900E+0	1.332572E+0	1.273921E+0
5.355580E+2	1.270850E+0	1.291843E+0	1.283823E+0	1.247025E+0	1.292998E+0	1.285143E+0	1.287337E+0	1.257161E+0	1.213321E+0	1.271672E+0	1.269484E+0	1.282817E+0	1.300666E+0	1.267892E+0	1.237388E+0	1.236967E+0	1.289097E+0	1.296240E+0	1.301860E+0	1.240788E+0	1.264161E+0	1.307303E+0	1.256686E+0	1.246463E+0	1.258727E+0	1.329821E+0	1.238197E+0	1.299575E+0	1.235044E+0	1.282994E+0	1.290869E+0	1.249849E+0	1.276607E+0	1.260261E+0	1.248146E+0	1.250852E+0	1.290891E+0	1.266545E+0	1.255171E+0	1.250575E+0	1.286499E+0	1.309846E+0	1.295955E+0	1.247469E+0	1.235142E+0	1.260600E+0	1.287424E+0	1.254339E+0	1.292257E+0	1.255623E+0	1.324608E+0	1.250111E+0	1.285726E+0	1.253304E+0	1.256040E+0	1.263149E+0	1.289526E+0	1.245037E+0	1.226929E+0	1.198859E+0	1.255780E+0	1.241238E+0	1.233419E+0	1.283028E+0	1.256962E+0	1.251311E+0	1.259380E+0	1.260782E+0	1.264907E+0	1.253115E+0	1.269817E+0	1.308268E+0	1.200638E+0	1.275407E+0	1.293798E+0	1.299298E+0	1.230309E+0	1.263333E+0	1.243323E+0	1.238576E+0	1.261565E+0	1.266316E+0	1.272405E+0	1.253191E+0	1.263580E+0	1.271230E+0	1.255800E+0	1.289245E+0	1.257247E+0	1.218843E+0	1.249780E+0	1.248303E+0	1.231940E+0	1.233692E+0	1.262297E+0	1.233511E+0	1.338585E+0	1.242112E+0	1.244428E+0	1.258731E+0	1.285555E+0	1.270079E+0	1.270040E+0	1.253284E+0	1.280778E+0	1.282567E+0	1.219185E+0	1.249548E+0	1.273649E+0	1.263522E+0	1.237090E+0	1.249068E+0	1.236057E+0	1.254165E+0	1.260480E+0	1.257735E+0	1.267214E+0	1.223726E+0	1.234965E+0	1.189469E+0	1.288672E+0	1.254067E+0	1.269417E+0	1.262685E+0	1.262406E+0	1.263662E+0	1.274429E+0	1.278219E+0	1.238461E+0	1.275717E+0	1.265156E+0	1.234185E+0	1.278578E+0	1.245917E+0	1.279271E+0	1.254666E+0	1.327245E+0	1.256532E+0	1.249435E+0	1.230266E+0	1.185641E+0	1.242819E+0	1.248816E+0	1.224046E+0	1.238864E+0	1.285080E+0	1.243892E+0	1.234937E+0	1.240047E+0	1.279503E+0	1.305367E+0	1.233547E+0	1.270544E+0	1.260543E+0	1.195897E+0	1.257041E+0	1.254913E+0	1.283759E+0	1.267259E+0	1.262837E+0	1.239073E+0	1.240310E+0	1.251027E+0	1.304496E+0	1.232868E+0	1.191781E+0	1.304907E+0	1.306397E+0	1.283733E+0	1.186476E+0	1.244325E+0
5.357190E+2	1.050198E+0	1.069688E+0	1.024417E+0	1.047489E+0	1.094316E+0	1.077547E+0	1.073161E+0	1.087616E+0	1.072475E+0	1.060244E+0	1.041207E+0	1.012126E+0	1.077757E+0	1.067333E+0	1.055138E+0	1.050946E+0	1.067161E+0	1.015131E+0	1.072742E+0	1.045339E+0	1.076527E+0	1.083820E+0	1.059656E+0	1.023524E+0	1.070767E+0	1.055283E+0	1.041224E+0	1.069108E+0	1.057767E+0	1.065850E+0	1.067339E+0	1.108645E+0	1.023261E+0	1.031016E+0	1.065302E+0	1.074199E+0	1.048233E+0	1.053729E+0	1.023484E+0	1.048604E+0	1.083188E+0	1.029296E+0	1.171858E+0	1.030417E+0	1.059648E+0	9.966994E-1	1.041016E+0	1.023716E+0	1.080968E+0	1.073054E+0	1.064521E+0	1.038599E+0	1.031101E+0	1.084656E+0	1.062534E+0	1.017212E+0	1.076399E+0	1.096651E+0	1.036713E+0	1.063920E+0	1.038776E+0	1.030435E+0	1.070577E+0	1.088771E+0	1.102302E+0	1.122212E+0	1.053952E+0	1.053789E+0	1.057730E+0	1.036445E+0	1.080148E+0	1.067155E+0	1.053777E+0	1.029951E+0	1.021116E+0	1.051955E+0	1.018082E+0	1.058540E+0	1.042113E+0	1.040392E+0	1.030390E+0	1.099372E+0	1.078293E+0	1.037813E+0	1.060731E+0	1.084823E+0	1.046333E+0	1.076001E+0	1.039455E+0	1.052416E+0	1.041715E+0	1.056432E+0	1.046399E+0	1.059024E+0	9.996545E-1	1.048332E+0	1.019339E+0	1.077313E+0	1.037121E+0	1.123779E+0	1.023939E+0	1.079644E+0	1.054927E+0	1.059433E+0	1.074333E+0	1.108791E+0	1.007261E+0	1.104319E+0	1.071865E+0	1.138778E+0	1.006527E+0	1.085625E+0	1.042678E+0	1.058859E+0	1.036948E+0	1.047354E+0	1.083752E+0	1.053652E+0	1.063392E+0	1.048316E+0	1.037085E+0	1.051050E+0	1.028883E+0	1.038469E+0	1.036318E+0	1.052238E+0	1.036248E+0	1.064153E+0	1.103124E+0	1.025859E+0	1.085180E+0	1.067736E+0	1.044008E+0	1.037738E+0	1.095758E+0	1.094174E+0	1.088933E+0	1.072713E+0	1.066806E+0	1.065291E+0	1.029068E+0	1.100839E+0	1.085612E+0	1.026301E+0	1.057062E+0	1.088492E+0	1.021779E+0	1.097974E+0	1.024409E+0	1.060112E+0	1.065273E+0	1.045462E+0	1.059491E+0	1.042900E+0	1.013626E+0	1.025219E+0	1.088753E+0	1.056752E+0	1.052121E+0	1.060799E+0	1.044229E+0	1.079889E+0	1.063512E+0	1.035022E+0	1.080968E+0	1.023667E+0	1.090006E+0	1.006766E+0	1.057841E+0	9.955795E-1	9.815010E-1
5.358650E+2	8.387359E-1	8.088445E-1	8.394824E-1	8.066492E-1	8.216594E-1	8.523459E-1	8.182008E-1	8.406844E-1	8.296331E-1	8.563649E-1	8.064311E-1	7.972272E-1	8.318692E-1	8.615654E-1	7.983112E-1	8.072772E-1	8.192436E-1	8.593278E-1	8.358933E-1	8.083188E-1	7.931045E-1	8.630124E-1	8.453223E-1	8.096473E-1	8.016162E-1	8.301016E-1	8.367916E-1	8.461627E-1	8.028280E-1	8.329198E-1	8.115350E-1	8.151646E-1	8.481768E-1	8.253828E-1	8.125519E-1	8.236546E-1	8.218538E-1	8.253230E-1	7.961311E-1	8.614341E-1	8.286308E-1	8.139695E-1	8.295530E-1	8.361422E-1	8.304860E-1	8.600321E-1	8.116389E-1	8.081640E-1	7.824784E-1	8.031659E-1	8.418507E-1	8.583450E-1	7.942611E-1	8.678573E-1	8.404930E-1	8.355935E-1	8.363720E-1	8.503024E-1	8.571560E-1	8.337949E-1	8.426166E-1	8.005991E-1	8.558935E-1	8.283899E-1	8.252387E-1	7.867181E-1	8.518765E-1	8.421473E-1	8.344816E-1	8.302213E-1	8.572407E-1	8.085152E-1	8.190363E-1	8.257905E-1	8.114630E-1	8.041569E-1	7.965718E-1	8.553784E-1	8.333842E-1	8.468989E-1	8.282709E-1	8.530322E-1	8.167431E-1	7.844998E-1	8.403103E-1	8.070085E-1	8.231304E-1	8.317903E-1	8.024247E-1	8.118969E-1	8.306067E-1	7.981708E-1	8.197493E-1	8.861879E-1	8.256526E-1	8.090083E-1	7.822346E-1	8.492166E-1	8.376725E-1	8.161693E-1	8.272092E-1	8.357204E-1	8.496766E-1	8.572795E-1	7.998265E-1	8.585200E-1	8.255530E-1	8.241614E-1	8.221186E-1	8.539016E-1	8.246039E-1	8.400507E-1	8.186411E-1	8.449110E-1	8.525244E-1	8.435337E-1	8.229598E-1	8.544997E-1	8.287270E-1	8.301291E-1	8.694042E-1	8.258187E-1	8.380919E-1	8.640220E-1	8.075902E-1	8.776014E-1	8.301981E-1	8.526088E-1	8.216004E-1	8.346171E-1	8.242375E-1	8.267264E-1	8.787919E-1	8.220305E-1	8.640529E-1	8.215812E-1	9.057611E-1	8.437144E-1	8.038927E-1	7.999098E-1	8.397282E-1	8.639450E-1	8.337442E-1	8.383052E-1	8.487817E-1	8.094556E-1	8.112678E-1	8.253057E-1	8.434036E-1	8.510187E-1	8.889290E-1	7.951545E-1	8.259639E-1	8.332857E-1	8.229441E-1	8.520589E-1	8.167069E-1	8.315106E-1	8.256155E-1	8.184211E-1	8.133252E-1	8.441968E-1	8.174921E-1	8.474349E-1	8.587333E-1	8.199519E-1	8.684273E-1	8.715294E-1	8.501561E-1	8.354699E-1	8.990260E-1
5.360120E+2	7.332217E-1	7.493995E-1	7.360982E-1	7.221971E-1	7.475688E-1	7.895348E-1	7.604275E-1	7.534222E-1	7.373079E-1	7.092179E-1	7.234339E-1	6.991156E-1	7.496361E-1	7.589027E-1	7.329419E-1	7.197504E-1	7.268021E-1	7.487634E-1	7.474153E-1	7.372639E-1	7.350526E-1	7.505793E-1	7.564922E-1	7.428653E-1	7.543661E-1	7.264722E-1	7.312395E-1	7.475198E-1	7.616395E-1	7.478042E-1	7.584685E-1	7.883271E-1	7.463972E-1	7.731272E-1	6.964081E-1	7.520520E-1	7.173637E-1	7.497107E-1	7.263912E-1	7.374918E-1	7.539479E-1	7.582167E-1	7.589495E-1	7.315986E-1	7.144359E-1	7.493426E-1	7.193178E-1	7.342450E-1	7.117897E-1	7.317494E-1	7.182708E-1	7.463117E-1	7.439467E-1	7.671788E-1	7.591522E-1	7.752619E-1	7.500513E-1	7.446145E-1	7.458379E-1	7.129840E-1	7.380411E-1	7.271068E-1	7.779423E-1	7.174321E-1	7.262275E-1	7.683754E-1	7.076655E-1	7.310878E-1	7.465940E-1	7.828345E-1	7.548120E-1	7.652730E-1	7.201710E-1	7.073667E-1	7.390469E-1	7.818772E-1	7.479629E-1	7.574014E-1	7.425829E-1	7.314539E-1	7.791645E-1	7.353544E-1	7.761207E-1	7.204770E-1	7.126961E-1	7.109212E-1	7.317826E-1	7.485557E-1	7.556159E-1	7.140841E-1	7.393766E-1	7.400019E-1	7.458454E-1	7.690623E-1	7.441806E-1	7.905266E-1	7.589824E-1	7.658192E-1	7.280291E-1	7.697632E-1	7.490130E-1	7.372413E-1	7.850482E-1	7.536491E-1	7.724594E-1	7.969376E-1	7.313822E-1	7.685986E-1	7.443504E-1	7.765813E-1	7.692763E-1	7.530645E-1	7.555981E-1	7.303032E-1	7.525630E-1	7.401595E-1	7.335652E-1	7.077195E-1	7.388395E-1	7.334434E-1	7.622865E-1	7.406316E-1	7.644579E-1	7.297906E-1	7.344624E-1	7.299013E-1	7.693853E-1	7.946999E-1	7.390414E-1	7.032946E-1	7.647346E-1	7.106831E-1	7.452444E-1	7.517976E-1	7.358052E-1	7.267254E-1	7.617299E-1	7.537314E-1	7.282724E-1	7.298948E-1	7.315227E-1	7.602879E-1	7.468650E-1	7.509330E-1	7.442367E-1	7.584308E-1	7.504456E-1	7.229251E-1	7.860366E-1	7.390976E-1	7.836543E-1	7.554140E-1	7.599597E-1	7.222270E-1	7.340762E-1	7.492363E-1	7.244913E-1	7.732592E-1	7.483605E-1	7.662268E-1	7.510101E-1	7.339644E-1	7.432790E-1	7.646619E-1	7.612984E-1	7.240405E-1	7.339169E-1	7.689488E-1	7.886689E-1	6.971307E-1	7.184314E-1
5.362680E+2	5.857281E-1	5.798119E-1	5.757498E-1	5.989238E-1	5.791607E-1	6.205006E-1	5.612621E-1	5.832370E-1	5.610008E-1	5.762021E-1	5.743472E-1	6.020422E-1	5.862555E-1	5.733764E-1	6.138838E-1	6.058251E-1	5.577329E-1	5.678963E-1	6.171766E-1	5.913551E-1	5.938398E-1	5.926971E-1	5.644458E-1	5.930268E-1	5.676238E-1	5.721380E-1	5.594302E-1	5.770095E-1	5.824678E-1	5.982642E-1	5.776955E-1	6.018527E-1	6.130035E-1	6.077396E-1	5.911711E-1	6.020310E-1	5.933957E-1	5.789193E-1	6.460879E-1	6.008616E-1	5.924720E-1	5.873299E-1	6.220415E-1	6.096173E-1	6.200678E-1	5.974494E-1	5.885911E-1	6.079072E-1	5.839374E-1	6.316099E-1	6.248588E-1	5.570069E-1	5.812571E-1	6.159102E-1	5.701363E-1	5.714442E-1	5.888225E-1	5.958508E-1	5.591005E-1	5.951854E-1	6.007074E-1	6.074873E-1	6.098951E-1	5.950705E-1	5.974913E-1	5.844139E-1	5.910040E-1	5.869856E-1	5.860870E-1	5.851541E-1	5.812020E-1	5.979081E-1	5.791986E-1	6.397156E-1	5.748088E-1	5.690181E-1	5.985338E-1	5.739558E-1	5.931506E-1	6.007618E-1	5.656470E-1	6.016175E-1	5.968695E-1	5.683240E-1	5.953392E-1	5.779183E-1	6.213947E-1	5.693770E-1	6.081831E-1	5.927356E-1	5.872974E-1	5.795148E-1	5.370211E-1	6.014852E-1	5.657017E-1	5.911787E-1	5.862995E-1	5.971443E-1	5.675325E-1	5.524399E-1	5.955926E-1	5.920163E-1	5.992826E-1	5.872905E-1	6.131173E-1	5.779673E-1	6.118915E-1	6.186381E-1	5.747184E-1	5.757164E-1	6.047640E-1	5.996175E-1	5.706880E-1	5.778432E-1	6.155165E-1	6.219890E-1	5.961390E-1	5.839561E-1	6.063013E-1	5.888403E-1	5.928132E-1	5.813369E-1	6.103379E-1	5.841756E-1	5.767625E-1	6.030726E-1	6.000871E-1	6.003675E-1	5.955224E-1	6.030071E-1	5.820376E-1	5.950140E-1	5.852192E-1	6.154312E-1	5.774456E-1	5.958350E-1	5.922950E-1	5.832971E-1	5.909082E-1	5.792114E-1	6.166706E-1	6.064243E-1	5.940349E-1	5.781244E-1	5.957983E-1	5.861954E-1	5.972410E-1	5.783480E-1	5.919160E-1	5.759934E-1	6.094386E-1	5.640425E-1	5.823588E-1	6.128545E-1	5.882887E-1	6.311842E-1	5.975846E-1	6.283970E-1	6.179586E-1	5.668416E-1	6.130731E-1	5.892639E-1	6.364334E-1	5.845572E-1	5.838514E-1	5.653955E-1	6.183938E-1	6.342380E-1	6.244555E-1	6.096161E-1	6.237885E-1
5.365140E+2	4.727599E-1	4.692953E-1	4.499038E-1	4.749191E-1	4.859704E-1	5.088171E-1	4.619830E-1	4.496386E-1	4.316195E-1	4.555311E-1	4.695983E-1	4.626402E-1	4.807164E-1	4.370944E-1	4.748238E-1	4.520364E-1	4.564220E-1	4.474772E-1	4.823597E-1	4.691297E-1	4.862488E-1	4.568936E-1	4.682573E-1	4.855457E-1	4.369132E-1	4.527746E-1	4.548713E-1	4.713341E-1	4.667597E-1	4.470780E-1	4.774292E-1	4.890779E-1	4.783894E-1	4.778778E-1	4.395286E-1	4.670007E-1	4.709396E-1	4.708765E-1	4.818226E-1	4.940317E-1	4.785494E-1	4.490407E-1	4.685553E-1	4.562771E-1	4.726936E-1	4.763065E-1	4.747759E-1	4.689500E-1	4.600722E-1	4.518659E-1	5.029313E-1	4.746856E-1	4.524950E-1	4.822679E-1	4.708371E-1	4.782217E-1	4.522188E-1	4.431758E-1	4.593829E-1	5.018592E-1	4.462116E-1	4.593510E-1	4.503131E-1	4.739764E-1	4.782567E-1	4.962676E-1	4.378961E-1	4.735063E-1	4.712369E-1	4.798188E-1	4.937601E-1	4.761570E-1	4.864890E-1	4.610656E-1	4.760041E-1	4.366221E-1	4.896297E-1	4.566856E-1	4.690307E-1	5.054761E-1	4.767138E-1	4.493012E-1	4.559340E-1	4.654306E-1	4.360126E-1	4.915171E-1	4.504874E-1	4.817345E-1	4.823317E-1	4.665149E-1	4.592363E-1	4.658830E-1	4.597021E-1	4.815383E-1	4.764853E-1	4.928679E-1	4.950622E-1	4.674822E-1	4.816967E-1	4.811475E-1	4.823799E-1	4.791696E-1	4.818241E-1	4.803271E-1	4.542495E-1	4.649438E-1	4.784381E-1	4.605986E-1	4.417462E-1	4.791737E-1	4.738237E-1	4.591142E-1	4.827416E-1	4.628919E-1	4.669913E-1	4.868881E-1	4.863431E-1	4.602459E-1	4.889684E-1	4.561866E-1	4.465049E-1	4.814788E-1	4.534126E-1	4.598421E-1	4.918082E-1	4.581569E-1	4.657450E-1	4.882525E-1	4.921788E-1	4.912363E-1	4.620080E-1	4.697092E-1	4.946603E-1	4.991947E-1	4.543061E-1	4.805693E-1	5.198974E-1	4.889235E-1	4.842375E-1	4.788783E-1	4.723459E-1	4.897752E-1	4.520708E-1	4.642381E-1	4.874885E-1	4.496931E-1	4.909594E-1	4.959090E-1	4.735355E-1	4.463260E-1	4.905275E-1	4.838332E-1	5.200043E-1	4.704413E-1	5.041604E-1	4.728976E-1	4.820513E-1	4.849541E-1	4.809007E-1	4.635983E-1	4.530262E-1	4.611507E-1	4.684789E-1	4.878363E-1	4.833043E-1	4.718755E-1	4.624211E-1	4.961722E-1	4.903471E-1	4.623627E-1	4.717166E-1
5.367710E+2	4.788578E-1	4.601211E-1	4.752523E-1	4.885093E-1	4.724513E-1	5.124259E-1	4.856945E-1	4.886226E-1	4.663381E-1	4.636368E-1	4.897012E-1	4.762179E-1	4.831236E-1	4.828467E-1	4.615767E-1	5.028452E-1	4.471830E-1	4.622468E-1	4.805964E-1	4.630430E-1	4.703412E-1	4.697478E-1	4.639389E-1	4.850294E-1	4.705528E-1	4.662764E-1	4.871093E-1	4.743103E-1	4.981541E-1	4.732025E-1	4.690254E-1	4.901712E-1	4.601531E-1	4.682486E-1	4.739714E-1	4.707778E-1	4.817605E-1	4.684058E-1	5.198196E-1	5.100006E-1	4.680344E-1	4.668589E-1	4.809191E-1	4.729668E-1	4.401412E-1	4.854590E-1	5.071951E-1	4.869851E-1	5.017706E-1	4.828405E-1	5.023843E-1	4.662711E-1	4.870284E-1	4.745105E-1	4.820978E-1	4.742485E-1	4.651893E-1	4.851003E-1	4.585549E-1	4.374770E-1	4.707030E-1	4.590501E-1	4.934525E-1	4.626458E-1	4.922257E-1	5.327592E-1	4.784318E-1	4.862624E-1	4.959322E-1	4.684132E-1	5.066813E-1	4.926774E-1	5.170228E-1	4.687785E-1	5.005090E-1	4.906743E-1	4.946123E-1	4.616683E-1	4.963764E-1	5.017698E-1	4.828512E-1	4.687104E-1	4.620668E-1	5.027995E-1	5.034731E-1	4.835215E-1	5.048036E-1	4.719284E-1	4.733293E-1	4.396562E-1	4.878152E-1	4.778228E-1	5.027419E-1	4.712996E-1	4.708152E-1	4.688663E-1	4.989170E-1	4.694019E-1	4.991899E-1	4.646082E-1	4.583559E-1	5.022542E-1	5.125437E-1	4.482914E-1	4.668643E-1	4.854713E-1	4.666744E-1	4.773511E-1	5.050165E-1	4.881493E-1	4.831537E-1	4.795626E-1	4.834476E-1	5.086851E-1	5.037350E-1	5.087813E-1	4.530337E-1	4.900306E-1	5.024910E-1	4.607682E-1	4.927779E-1	4.876476E-1	4.762474E-1	4.666332E-1	4.878681E-1	4.777929E-1	4.690705E-1	4.744547E-1	5.095553E-1	4.723638E-1	4.944836E-1	4.934421E-1	5.021274E-1	4.872494E-1	4.950945E-1	4.898928E-1	5.205327E-1	4.730364E-1	4.901772E-1	4.865226E-1	4.844459E-1	5.204405E-1	4.640628E-1	4.894887E-1	4.558858E-1	4.697813E-1	4.955005E-1	4.890416E-1	4.976121E-1	4.808303E-1	5.069761E-1	4.914589E-1	5.021884E-1	5.230860E-1	4.733974E-1	4.887758E-1	4.930395E-1	4.637232E-1	4.836670E-1	4.593113E-1	5.330939E-1	4.815115E-1	4.919443E-1	5.316098E-1	4.811894E-1	4.862825E-1	4.685290E-1	5.250730E-1	4.837306E-1	4.941610E-1	4.739426E-1
5.370170E+2	5.359251E-1	5.201157E-1	5.101631E-1	5.038492E-1	5.259451E-1	5.235331E-1	5.233560E-1	5.234427E-1	4.919890E-1	5.349527E-1	5.131868E-1	5.059907E-1	5.282128E-1	4.841492E-1	5.321641E-1	5.285657E-1	4.890837E-1	5.305588E-1	5.177138E-1	5.511021E-1	5.077146E-1	5.380757E-1	5.487304E-1	4.828519E-1	4.856989E-1	5.380247E-1	5.208438E-1	5.294206E-1	5.191493E-1	5.006189E-1	5.301995E-1	5.150260E-1	5.220874E-1	5.136271E-1	5.489847E-1	5.461867E-1	5.137314E-1	5.116288E-1	5.074033E-1	5.196853E-1	5.237381E-1	5.096053E-1	5.525473E-1	5.536236E-1	5.209848E-1	5.073197E-1	5.234229E-1	5.286745E-1	4.905687E-1	5.014381E-1	5.166085E-1	5.427135E-1	5.214853E-1	5.253029E-1	5.340419E-1	5.281421E-1	5.333857E-1	5.206889E-1	5.352978E-1	4.889169E-1	5.104503E-1	5.207101E-1	4.978658E-1	5.062797E-1	5.356926E-1	4.814558E-1	5.104860E-1	5.106633E-1	5.435574E-1	5.188045E-1	5.293373E-1	5.136226E-1	5.389482E-1	5.143956E-1	5.242512E-1	4.998110E-1	5.145112E-1	5.112072E-1	5.382694E-1	5.446585E-1	5.206425E-1	5.080141E-1	5.075651E-1	5.546822E-1	5.173929E-1	5.511995E-1	4.978421E-1	5.321356E-1	5.459327E-1	5.518684E-1	5.403865E-1	5.314179E-1	4.967371E-1	5.462671E-1	5.246917E-1	5.284378E-1	5.283959E-1	5.337329E-1	5.044377E-1	5.181135E-1	5.287710E-1	5.638909E-1	5.176976E-1	5.018926E-1	5.337365E-1	5.489671E-1	5.479625E-1	5.799237E-1	5.468570E-1	5.360871E-1	5.278587E-1	5.076797E-1	5.277826E-1	5.111248E-1	5.292217E-1	5.249638E-1	5.271782E-1	5.292812E-1	5.393463E-1	5.066652E-1	5.383115E-1	5.217051E-1	5.240109E-1	5.384744E-1	5.055479E-1	5.127912E-1	5.319846E-1	5.200108E-1	5.203699E-1	5.540865E-1	5.581885E-1	4.840024E-1	5.112896E-1	5.292134E-1	5.261880E-1	5.462128E-1	4.784843E-1	5.283925E-1	5.555141E-1	5.310980E-1	5.273261E-1	5.245792E-1	5.406865E-1	5.058259E-1	5.621898E-1	5.329640E-1	5.748735E-1	5.301914E-1	5.431240E-1	5.090445E-1	5.339305E-1	5.255092E-1	5.193117E-1	4.896040E-1	5.382640E-1	5.521807E-1	5.223886E-1	5.526971E-1	5.590791E-1	5.375916E-1	5.443845E-1	5.359892E-1	5.209689E-1	5.460861E-1	5.182168E-1	5.121665E-1	5.349295E-1	5.523124E-1	5.416807E-1	5.525912E-1	4.710152E-1
5.372640E+2	5.669101E-1	5.789296E-1	5.992870E-1	5.534401E-1	5.859084E-1	5.628270E-1	5.591960E-1	5.853408E-1	5.535522E-1	5.392522E-1	5.494618E-1	5.514141E-1	5.792038E-1	5.766140E-1	5.808018E-1	5.718030E-1	5.660933E-1	5.878829E-1	5.599547E-1	5.949119E-1	5.818055E-1	6.159301E-1	5.815763E-1	5.841672E-1	5.874393E-1	5.955526E-1	5.777993E-1	5.905082E-1	5.630235E-1	5.916837E-1	5.759719E-1	5.787419E-1	6.033645E-1	5.598836E-1	5.907155E-1	5.793891E-1	5.899191E-1	5.725738E-1	5.751532E-1	5.667429E-1	6.004675E-1	6.064995E-1	5.984612E-1	5.874473E-1	5.967925E-1	5.712381E-1	5.991364E-1	5.804987E-1	5.822728E-1	6.228029E-1	5.876559E-1	5.875427E-1	5.875944E-1	5.862590E-1	5.937774E-1	5.646986E-1	6.043071E-1	5.866248E-1	5.980827E-1	6.112846E-1	5.702879E-1	5.748698E-1	6.034654E-1	5.834140E-1	5.796722E-1	5.629667E-1	5.625488E-1	5.598424E-1	5.637562E-1	5.735236E-1	5.812388E-1	5.937867E-1	6.006338E-1	5.802578E-1	5.699621E-1	5.828741E-1	5.601134E-1	5.576473E-1	5.934892E-1	5.661088E-1	5.435500E-1	5.814381E-1	5.637838E-1	5.588019E-1	5.738493E-1	5.775324E-1	6.056742E-1	5.731192E-1	5.936667E-1	5.473006E-1	5.818374E-1	5.941689E-1	5.507465E-1	5.830774E-1	5.665403E-1	5.855018E-1	5.736846E-1	5.868653E-1	5.660216E-1	5.479701E-1	6.003248E-1	5.844461E-1	5.767759E-1	5.677188E-1	5.696408E-1	5.813070E-1	5.900551E-1	5.774076E-1	5.902720E-1	5.682283E-1	5.549774E-1	6.027724E-1	5.826230E-1	5.723312E-1	5.778116E-1	5.840531E-1	5.951184E-1	5.852728E-1	5.737063E-1	6.010183E-1	5.825920E-1	5.593377E-1	5.800664E-1	5.840081E-1	6.056996E-1	5.986724E-1	5.944284E-1	6.009094E-1	5.713010E-1	5.724587E-1	6.236563E-1	5.759017E-1	5.757773E-1	5.844038E-1	5.844516E-1	5.701497E-1	5.765849E-1	5.744807E-1	5.593057E-1	5.873465E-1	5.522653E-1	5.801246E-1	6.168164E-1	5.608472E-1	5.927542E-1	5.959937E-1	5.540239E-1	5.648651E-1	5.802946E-1	5.597843E-1	5.789500E-1	5.648989E-1	6.123879E-1	6.058432E-1	5.645184E-1	6.196862E-1	5.879076E-1	6.062492E-1	5.878528E-1	6.122465E-1	5.821572E-1	5.951834E-1	6.163125E-1	5.879876E-1	5.694988E-1	6.039296E-1	5.626929E-1	6.081356E-1	5.875250E-1	5.747974E-1	6.056824E-1
5.375160E+2	6.940261E-1	6.725089E-1	6.045416E-1	6.339510E-1	6.203469E-1	6.509771E-1	6.082228E-1	6.478479E-1	6.273056E-1	6.616650E-1	6.601132E-1	6.327882E-1	6.692670E-1	6.235270E-1	6.501544E-1	6.344158E-1	6.533350E-1	6.333261E-1	6.672937E-1	6.405450E-1	6.360090E-1	6.945383E-1	6.786604E-1	6.521040E-1	6.192129E-1	6.243307E-1	6.665206E-1	6.350716E-1	6.379710E-1	6.213075E-1	6.698945E-1	6.503468E-1	6.702255E-1	6.297725E-1	6.585427E-1	6.696649E-1	6.625322E-1	6.264968E-1	6.310392E-1	6.307970E-1	6.520540E-1	6.308853E-1	6.263341E-1	6.362587E-1	6.378184E-1	6.454834E-1	6.342921E-1	6.290497E-1	6.619832E-1	6.828263E-1	6.588501E-1	6.458574E-1	6.504463E-1	6.618240E-1	6.733899E-1	6.194111E-1	6.917632E-1	6.566077E-1	6.423564E-1	6.321026E-1	6.459822E-1	6.761370E-1	6.793402E-1	6.512642E-1	6.636215E-1	6.470484E-1	6.629016E-1	6.450805E-1	6.703164E-1	6.283001E-1	6.565040E-1	6.371619E-1	6.491996E-1	6.534382E-1	6.426030E-1	6.383740E-1	6.333365E-1	6.468330E-1	6.482085E-1	6.244979E-1	6.234667E-1	6.680380E-1	6.544068E-1	6.413452E-1	6.261636E-1	6.500917E-1	6.571544E-1	6.534684E-1	6.480962E-1	6.165870E-1	6.701406E-1	6.665354E-1	6.306391E-1	6.367851E-1	6.219528E-1	6.643214E-1	6.457037E-1	6.272777E-1	6.674842E-1	6.524501E-1	6.403167E-1	6.470863E-1	6.705358E-1	6.616931E-1	6.447937E-1	6.558543E-1	6.257133E-1	6.617550E-1	6.476312E-1	7.040205E-1	6.411952E-1	6.786921E-1	6.457495E-1	6.399650E-1	6.618152E-1	6.366698E-1	6.736212E-1	6.668723E-1	6.698019E-1	6.370078E-1	6.575178E-1	6.174757E-1	6.736712E-1	6.671794E-1	6.454551E-1	6.869914E-1	6.769799E-1	6.477653E-1	6.705581E-1	6.783790E-1	6.405598E-1	6.182427E-1	6.561601E-1	6.765814E-1	6.109099E-1	7.058591E-1	6.968655E-1	6.144694E-1	6.595111E-1	6.352721E-1	6.503697E-1	6.591397E-1	6.492061E-1	6.456290E-1	6.588442E-1	6.462535E-1	6.743810E-1	6.817427E-1	6.244691E-1	6.499689E-1	6.472310E-1	6.533710E-1	6.452926E-1	6.636712E-1	6.880152E-1	6.447510E-1	6.484083E-1	6.773821E-1	6.510084E-1	6.444278E-1	6.478962E-1	6.652686E-1	6.315056E-1	6.469198E-1	6.382235E-1	6.797946E-1	6.740252E-1	6.978344E-1	6.903208E-1	6.358272E-1	5.885078E-1
5.377630E+2	7.696987E-1	8.100787E-1	8.105726E-1	7.813995E-1	7.672190E-1	7.809934E-1	8.041648E-1	7.948616E-1	7.604464E-1	7.698525E-1	7.638476E-1	7.832621E-1	7.863580E-1	7.845251E-1	8.286142E-1	7.801600E-1	7.729974E-1	7.945049E-1	7.810677E-1	8.022040E-1	7.566260E-1	7.796673E-1	7.868002E-1	7.753913E-1	7.484748E-1	7.756184E-1	7.967278E-1	7.878481E-1	7.684259E-1	7.980043E-1	7.807567E-1	7.662204E-1	7.524807E-1	7.421014E-1	7.804618E-1	8.090023E-1	8.298198E-1	7.941853E-1	7.650290E-1	7.930710E-1	7.871207E-1	8.290212E-1	7.876937E-1	7.793456E-1	7.821558E-1	7.607177E-1	7.832090E-1	8.006475E-1	7.447697E-1	7.812768E-1	8.236108E-1	7.902189E-1	7.712088E-1	8.002248E-1	8.002787E-1	7.850538E-1	8.252397E-1	7.960389E-1	7.839543E-1	7.545785E-1	7.775958E-1	8.055411E-1	7.844531E-1	8.119282E-1	8.016587E-1	7.776315E-1	8.034109E-1	8.089477E-1	8.355767E-1	7.918149E-1	7.943225E-1	7.887941E-1	7.682404E-1	8.067174E-1	7.687273E-1	7.714991E-1	7.657245E-1	7.770799E-1	7.926250E-1	8.033254E-1	8.001428E-1	7.964607E-1	7.826497E-1	8.270397E-1	7.880552E-1	7.835344E-1	8.041884E-1	7.862657E-1	7.784968E-1	7.471285E-1	7.525152E-1	8.170797E-1	7.713477E-1	7.820005E-1	7.947125E-1	7.786926E-1	7.964141E-1	8.027208E-1	7.802411E-1	8.507374E-1	8.108597E-1	7.914041E-1	7.937815E-1	7.892962E-1	7.796966E-1	7.929300E-1	8.040129E-1	8.179946E-1	7.786753E-1	7.807283E-1	7.810426E-1	7.900598E-1	8.023062E-1	7.668902E-1	8.148979E-1	7.756634E-1	8.151058E-1	7.611689E-1	8.036602E-1	7.903188E-1	8.044289E-1	7.748501E-1	7.676367E-1	7.646488E-1	7.778866E-1	7.814727E-1	8.158572E-1	7.999218E-1	7.585755E-1	7.986020E-1	8.457522E-1	7.977011E-1	7.987432E-1	7.783025E-1	7.800264E-1	7.719470E-1	8.028672E-1	8.114152E-1	7.820291E-1	8.114270E-1	7.562286E-1	7.951841E-1	8.203180E-1	7.883002E-1	7.835348E-1	8.029909E-1	8.113003E-1	8.159700E-1	8.085624E-1	7.593076E-1	8.135961E-1	7.537692E-1	8.092203E-1	7.793549E-1	7.692590E-1	8.079267E-1	8.245222E-1	7.856500E-1	8.189308E-1	8.083583E-1	8.184880E-1	7.720938E-1	8.031818E-1	7.983912E-1	7.757091E-1	7.986724E-1	8.234006E-1	8.059609E-1	7.892354E-1	8.063741E-1	8.755527E-1
5.380160E+2	8.642586E-1	8.747078E-1	8.620486E-1	8.842026E-1	8.550822E-1	9.080804E-1	9.073318E-1	9.080165E-1	8.798568E-1	8.426747E-1	9.121294E-1	9.035839E-1	8.847131E-1	8.791810E-1	8.888921E-1	8.957204E-1	9.281718E-1	9.000175E-1	9.284354E-1	9.133835E-1	8.938932E-1	9.437572E-1	8.964186E-1	8.808760E-1	8.697750E-1	8.990736E-1	8.760439E-1	9.051119E-1	9.029197E-1	8.768039E-1	8.570371E-1	9.141964E-1	8.805290E-1	8.775182E-1	9.037063E-1	9.268099E-1	8.765201E-1	9.070523E-1	8.915667E-1	8.900352E-1	8.894192E-1	8.683100E-1	8.708497E-1	8.663908E-1	8.868255E-1	9.043137E-1	8.682250E-1	8.876080E-1	8.777474E-1	8.773546E-1	9.197412E-1	8.363155E-1	8.968880E-1	8.595300E-1	9.027519E-1	8.756613E-1	8.919686E-1	8.892464E-1	8.766686E-1	8.558940E-1	8.909700E-1	9.000735E-1	8.733921E-1	9.060284E-1	9.294312E-1	8.919067E-1	8.634733E-1	9.296712E-1	9.059507E-1	8.894454E-1	9.061680E-1	9.146745E-1	8.900677E-1	8.514005E-1	8.795311E-1	8.856032E-1	8.495617E-1	8.762459E-1	9.005302E-1	8.865906E-1	8.766813E-1	8.472617E-1	8.592902E-1	9.132173E-1	9.124428E-1	8.999356E-1	9.028613E-1	8.758683E-1	8.724968E-1	8.501560E-1	8.721066E-1	8.689991E-1	8.661226E-1	8.942714E-1	8.809203E-1	8.798454E-1	8.588274E-1	8.596079E-1	8.675257E-1	9.066141E-1	8.925049E-1	9.121984E-1	9.014814E-1	8.885158E-1	8.755222E-1	8.679667E-1	8.760924E-1	9.149360E-1	8.778088E-1	8.836608E-1	9.104957E-1	8.651763E-1	8.756663E-1	8.495157E-1	9.226550E-1	8.715860E-1	8.664273E-1	8.818706E-1	9.068823E-1	9.168392E-1	8.890187E-1	8.856214E-1	9.265376E-1	9.083880E-1	8.459923E-1	8.586656E-1	9.089774E-1	8.799540E-1	9.103216E-1	9.439178E-1	9.274892E-1	8.746543E-1	8.882403E-1	8.880478E-1	8.944039E-1	9.070765E-1	9.053728E-1	8.636758E-1	8.932426E-1	8.936836E-1	8.639060E-1	8.700710E-1	8.887374E-1	8.287567E-1	8.757772E-1	8.930810E-1	8.762249E-1	8.760087E-1	9.065507E-1	8.632053E-1	9.312189E-1	8.974688E-1	8.764949E-1	8.829284E-1	8.733726E-1	9.069684E-1	8.955830E-1	8.514185E-1	9.324733E-1	8.531990E-1	9.143383E-1	8.680556E-1	9.195444E-1	9.198859E-1	8.678118E-1	8.866521E-1	8.910037E-1	8.870036E-1	8.557224E-1	8.673093E-1	9.993495E-1
5.382900E+2	1.063541E+0	1.059248E+0	1.100990E+0	1.091524E+0	1.096533E+0	1.133426E+0	1.120308E+0	1.045909E+0	1.121201E+0	1.083214E+0	1.087711E+0	1.058416E+0	1.094277E+0	1.098171E+0	1.084469E+0	1.118947E+0	1.098149E+0	1.099094E+0	1.087640E+0	1.059704E+0	1.060524E+0	1.101701E+0	1.088998E+0	1.116780E+0	1.070474E+0	1.116425E+0	1.089250E+0	1.108437E+0	1.093069E+0	1.081063E+0	1.098309E+0	1.093644E+0	1.103527E+0	1.089602E+0	1.157775E+0	1.086771E+0	1.054141E+0	1.069863E+0	1.082385E+0	1.084681E+0	1.121813E+0	1.077099E+0	1.124470E+0	1.068787E+0	1.072527E+0	1.109709E+0	1.068311E+0	1.122307E+0	1.089380E+0	1.061717E+0	1.124759E+0	1.085451E+0	1.108719E+0	1.085508E+0	1.083707E+0	1.070355E+0	1.106693E+0	1.091733E+0	1.133700E+0	1.071109E+0	1.068333E+0	1.097048E+0	1.168722E+0	1.099361E+0	1.077614E+0	1.076135E+0	1.120049E+0	1.049907E+0	1.126351E+0	1.126195E+0	1.097414E+0	1.106738E+0	1.099349E+0	1.060524E+0	1.073097E+0	1.107770E+0	1.048795E+0	1.082740E+0	1.101083E+0	1.033412E+0	1.053595E+0	1.084337E+0	1.091246E+0	1.087905E+0	1.070930E+0	1.066346E+0	1.099510E+0	1.088154E+0	1.075455E+0	1.066281E+0	1.110711E+0	1.119467E+0	1.114853E+0	1.077806E+0	1.087660E+0	1.059901E+0	1.084611E+0	1.079918E+0	1.117642E+0	1.051074E+0	1.062122E+0	1.055622E+0	1.074522E+0	1.076679E+0	1.054831E+0	1.055468E+0	1.122422E+0	1.136388E+0	1.089619E+0	1.123375E+0	1.078649E+0	1.071389E+0	1.052766E+0	1.095377E+0	1.055957E+0	1.117093E+0	1.095585E+0	1.074259E+0	1.088243E+0	1.060012E+0	1.074497E+0	1.104590E+0	1.102070E+0	1.060705E+0	1.056767E+0	1.082305E+0	1.137916E+0	1.060730E+0	1.073196E+0	1.070828E+0	1.077329E+0	1.081961E+0	1.049300E+0	1.110891E+0	1.091845E+0	1.074484E+0	1.141503E+0	1.053422E+0	1.112023E+0	1.093461E+0	1.076360E+0	1.075430E+0	1.078366E+0	1.078846E+0	1.104798E+0	1.095204E+0	1.058731E+0	1.041111E+0	1.101123E+0	1.061558E+0	1.082031E+0	1.088294E+0	1.107450E+0	1.090884E+0	1.100495E+0	1.054287E+0	1.091244E+0	1.077817E+0	1.126028E+0	1.056564E+0	1.071549E+0	1.112318E+0	1.049898E+0	1.022082E+0	1.080463E+0	1.070248E+0	1.070500E+0	1.088451E+0	1.096379E+0	1.086168E+0	1.080704E+0
5.385110E+2	1.263117E+0	1.316779E+0	1.333073E+0	1.253508E+0	1.244961E+0	1.287334E+0	1.328812E+0	1.251119E+0	1.266042E+0	1.258656E+0	1.232366E+0	1.312288E+0	1.324308E+0	1.285106E+0	1.288805E+0	1.315162E+0	1.294118E+0	1.274744E+0	1.307499E+0	1.256693E+0	1.235842E+0	1.295246E+0	1.252089E+0	1.294369E+0	1.265883E+0	1.289465E+0	1.266092E+0	1.275960E+0	1.325087E+0	1.271556E+0	1.305377E+0	1.301249E+0	1.279280E+0	1.262417E+0	1.260992E+0	1.344716E+0	1.272432E+0	1.262150E+0	1.286918E+0	1.281944E+0	1.293661E+0	1.245895E+0	1.272464E+0	1.257970E+0	1.295205E+0	1.323513E+0	1.257351E+0	1.286183E+0	1.251241E+0	1.262955E+0	1.262182E+0	1.313255E+0	1.285672E+0	1.284414E+0	1.341712E+0	1.292126E+0	1.289663E+0	1.277586E+0	1.224136E+0	1.240920E+0	1.273353E+0	1.266900E+0	1.267629E+0	1.326897E+0	1.282789E+0	1.260301E+0	1.246821E+0	1.303102E+0	1.350016E+0	1.233783E+0	1.291792E+0	1.251616E+0	1.305691E+0	1.339497E+0	1.232230E+0	1.331677E+0	1.263301E+0	1.300658E+0	1.284464E+0	1.313764E+0	1.236855E+0	1.269434E+0	1.242307E+0	1.244852E+0	1.274796E+0	1.322917E+0	1.313575E+0	1.295839E+0	1.294040E+0	1.256605E+0	1.295320E+0	1.299820E+0	1.262704E+0	1.277882E+0	1.267955E+0	1.271371E+0	1.257790E+0	1.228505E+0	1.279795E+0	1.290444E+0	1.281085E+0	1.259474E+0	1.322096E+0	1.285779E+0	1.352978E+0	1.306671E+0	1.272122E+0	1.349798E+0	1.313959E+0	1.244260E+0	1.293596E+0	1.257294E+0	1.266325E+0	1.241155E+0	1.272065E+0	1.282667E+0	1.258359E+0	1.270797E+0	1.297394E+0	1.251270E+0	1.290373E+0	1.288430E+0	1.330201E+0	1.239357E+0	1.256874E+0	1.269635E+0	1.275385E+0	1.270903E+0	1.282993E+0	1.248629E+0	1.251916E+0	1.259343E+0	1.264299E+0	1.280558E+0	1.279021E+0	1.227333E+0	1.325204E+0	1.266875E+0	1.240521E+0	1.301375E+0	1.256025E+0	1.252461E+0	1.286955E+0	1.264565E+0	1.247769E+0	1.259482E+0	1.269040E+0	1.306271E+0	1.219205E+0	1.247667E+0	1.279288E+0	1.253390E+0	1.266230E+0	1.232886E+0	1.214305E+0	1.346447E+0	1.268797E+0	1.235208E+0	1.288175E+0	1.277979E+0	1.255871E+0	1.288650E+0	1.236883E+0	1.241848E+0	1.226975E+0	1.267201E+0	1.307276E+0	1.231742E+0	1.242596E+0	1.223622E+0	1.321163E+0
5.387700E+2	1.513971E+0	1.552523E+0	1.551829E+0	1.471972E+0	1.571682E+0	1.548763E+0	1.561601E+0	1.529461E+0	1.554574E+0	1.513507E+0	1.413255E+0	1.494349E+0	1.554189E+0	1.514557E+0	1.526166E+0	1.495768E+0	1.529158E+0	1.501017E+0	1.554909E+0	1.530537E+0	1.492650E+0	1.540814E+0	1.526943E+0	1.513522E+0	1.500437E+0	1.529250E+0	1.514018E+0	1.550361E+0	1.542051E+0	1.542972E+0	1.518423E+0	1.516431E+0	1.523502E+0	1.506965E+0	1.523207E+0	1.501139E+0	1.515910E+0	1.470537E+0	1.490317E+0	1.537080E+0	1.554758E+0	1.515454E+0	1.529669E+0	1.482775E+0	1.502429E+0	1.487267E+0	1.466493E+0	1.473868E+0	1.485727E+0	1.518148E+0	1.517382E+0	1.530660E+0	1.492397E+0	1.544548E+0	1.591022E+0	1.549089E+0	1.560018E+0	1.519137E+0	1.509827E+0	1.455179E+0	1.499949E+0	1.509194E+0	1.485551E+0	1.523776E+0	1.535717E+0	1.458970E+0	1.510082E+0	1.485994E+0	1.545948E+0	1.530125E+0	1.528402E+0	1.542258E+0	1.573160E+0	1.489618E+0	1.514757E+0	1.555611E+0	1.493907E+0	1.464459E+0	1.534978E+0	1.508795E+0	1.524297E+0	1.476230E+0	1.525861E+0	1.573283E+0	1.541388E+0	1.540761E+0	1.479515E+0	1.462822E+0	1.506146E+0	1.454978E+0	1.503278E+0	1.426375E+0	1.475996E+0	1.492376E+0	1.544239E+0	1.428323E+0	1.530624E+0	1.490480E+0	1.494140E+0	1.515190E+0	1.480801E+0	1.478205E+0	1.500935E+0	1.533803E+0	1.518240E+0	1.539472E+0	1.511682E+0	1.552797E+0	1.527023E+0	1.464412E+0	1.460812E+0	1.557431E+0	1.452321E+0	1.495871E+0	1.472222E+0	1.539736E+0	1.531622E+0	1.430562E+0	1.537231E+0	1.478873E+0	1.456493E+0	1.446445E+0	1.509327E+0	1.547955E+0	1.517074E+0	1.471617E+0	1.461866E+0	1.532436E+0	1.509745E+0	1.475957E+0	1.517833E+0	1.503975E+0	1.515742E+0	1.455675E+0	1.441325E+0	1.519327E+0	1.511913E+0	1.451306E+0	1.503887E+0	1.489441E+0	1.492204E+0	1.505384E+0	1.496931E+0	1.513555E+0	1.473810E+0	1.456975E+0	1.463419E+0	1.479839E+0	1.492388E+0	1.427252E+0	1.512764E+0	1.505180E+0	1.473251E+0	1.558663E+0	1.485936E+0	1.504895E+0	1.525733E+0	1.501265E+0	1.563739E+0	1.505637E+0	1.439638E+0	1.450088E+0	1.495610E+0	1.455028E+0	1.471480E+0	1.486131E+0	1.523080E+0	1.478756E+0	1.527834E+0	1.409645E+0	1.470350E+0
5.390240E+2	1.726225E+0	1.719255E+0	1.757175E+0	1.747951E+0	1.802853E+0	1.751753E+0	1.727922E+0	1.726117E+0	1.653343E+0	1.748778E+0	1.726439E+0	1.687038E+0	1.755382E+0	1.720733E+0	1.662068E+0	1.764839E+0	1.666160E+0	1.698038E+0	1.707072E+0	1.733848E+0	1.729577E+0	1.744305E+0	1.738840E+0	1.654982E+0	1.732467E+0	1.753879E+0	1.717083E+0	1.732195E+0	1.730239E+0	1.670158E+0	1.727360E+0	1.717487E+0	1.706070E+0	1.722944E+0	1.685192E+0	1.729030E+0	1.695574E+0	1.704144E+0	1.685488E+0	1.740292E+0	1.728955E+0	1.761213E+0	1.764752E+0	1.695676E+0	1.677781E+0	1.687506E+0	1.730100E+0	1.729234E+0	1.739534E+0	1.665454E+0	1.764929E+0	1.736407E+0	1.682076E+0	1.761124E+0	1.750613E+0	1.705598E+0	1.711316E+0	1.716601E+0	1.675697E+0	1.692533E+0	1.686365E+0	1.678511E+0	1.671325E+0	1.712413E+0	1.678051E+0	1.660756E+0	1.682537E+0	1.722293E+0	1.726452E+0	1.738694E+0	1.680816E+0	1.689317E+0	1.741784E+0	1.690688E+0	1.675674E+0	1.779376E+0	1.666445E+0	1.706038E+0	1.719525E+0	1.738427E+0	1.643788E+0	1.680700E+0	1.650715E+0	1.739987E+0	1.720613E+0	1.700807E+0	1.692878E+0	1.700750E+0	1.649363E+0	1.697462E+0	1.715695E+0	1.745301E+0	1.757984E+0	1.682513E+0	1.653213E+0	1.663636E+0	1.685216E+0	1.630557E+0	1.679345E+0	1.668201E+0	1.698548E+0	1.719356E+0	1.733351E+0	1.707018E+0	1.713045E+0	1.741385E+0	1.661081E+0	1.725805E+0	1.674244E+0	1.737629E+0	1.647276E+0	1.746352E+0	1.702616E+0	1.693644E+0	1.677527E+0	1.685333E+0	1.736571E+0	1.708654E+0	1.711591E+0	1.671647E+0	1.706102E+0	1.645696E+0	1.715518E+0	1.765726E+0	1.674141E+0	1.689744E+0	1.707158E+0	1.687342E+0	1.685129E+0	1.623760E+0	1.706529E+0	1.608091E+0	1.660046E+0	1.689007E+0	1.679616E+0	1.723237E+0	1.688028E+0	1.601208E+0	1.698650E+0	1.697831E+0	1.673516E+0	1.653701E+0	1.700227E+0	1.655805E+0	1.659521E+0	1.638084E+0	1.648175E+0	1.665195E+0	1.693162E+0	1.625342E+0	1.688648E+0	1.629446E+0	1.722963E+0	1.655344E+0	1.682267E+0	1.620939E+0	1.666332E+0	1.622228E+0	1.687628E+0	1.681082E+0	1.665621E+0	1.674801E+0	1.690843E+0	1.642379E+0	1.653732E+0	1.641958E+0	1.736329E+0	1.694433E+0	1.762609E+0	1.703537E+0	1.559351E+0
5.392880E+2	1.935999E+0	1.938443E+0	1.920494E+0	1.971875E+0	1.926048E+0	1.854328E+0	1.929706E+0	1.914555E+0	1.856036E+0	1.845610E+0	1.821991E+0	1.898909E+0	1.902447E+0	1.812346E+0	1.902030E+0	1.900956E+0	1.842043E+0	1.902768E+0	1.862570E+0	1.860812E+0	1.864254E+0	1.884076E+0	1.868297E+0	1.891575E+0	1.826442E+0	1.876197E+0	1.932057E+0	1.911215E+0	1.933196E+0	1.867691E+0	1.907847E+0	1.867555E+0	1.836417E+0	1.859960E+0	1.883408E+0	1.888292E+0	1.890621E+0	1.911545E+0	1.899205E+0	1.848861E+0	1.908041E+0	1.873900E+0	1.946363E+0	1.922781E+0	1.807914E+0	1.928969E+0	1.894012E+0	1.964592E+0	1.828016E+0	1.869233E+0	1.917229E+0	1.834248E+0	1.815828E+0	1.891535E+0	1.947251E+0	1.847772E+0	1.872017E+0	1.930102E+0	1.798813E+0	1.870062E+0	1.938431E+0	1.886703E+0	1.826686E+0	1.889138E+0	1.934494E+0	1.885231E+0	1.808127E+0	1.868738E+0	1.953962E+0	1.866976E+0	1.814719E+0	1.913724E+0	1.893788E+0	1.828131E+0	1.880604E+0	1.887118E+0	1.818822E+0	1.855411E+0	1.774918E+0	1.851048E+0	1.771861E+0	1.867781E+0	1.871535E+0	1.852450E+0	1.866680E+0	1.851935E+0	1.870690E+0	1.839097E+0	1.796716E+0	1.872467E+0	1.849370E+0	1.868367E+0	1.875156E+0	1.839342E+0	1.809292E+0	1.876407E+0	1.842266E+0	1.853217E+0	1.844691E+0	1.934423E+0	1.837003E+0	1.851333E+0	1.906306E+0	1.865886E+0	2.018233E+0	1.862512E+0	1.849172E+0	1.880383E+0	1.817039E+0	1.837031E+0	1.833080E+0	1.923185E+0	1.788896E+0	1.855031E+0	1.905046E+0	1.858441E+0	1.854289E+0	1.856072E+0	1.877402E+0	1.797511E+0	1.899844E+0	1.851280E+0	1.857088E+0	1.892907E+0	1.810692E+0	1.816026E+0	1.827775E+0	1.880079E+0	1.829057E+0	1.847923E+0	1.897452E+0	1.786428E+0	1.840155E+0	1.838826E+0	1.848519E+0	1.869640E+0	1.835563E+0	1.774914E+0	1.830991E+0	1.827774E+0	1.842176E+0	1.870511E+0	1.828558E+0	1.856825E+0	1.880800E+0	1.824759E+0	1.772581E+0	1.835916E+0	1.813132E+0	1.840693E+0	1.840845E+0	1.810925E+0	1.838378E+0	1.826318E+0	1.800534E+0	1.885756E+0	1.797391E+0	1.809017E+0	1.795081E+0	1.876697E+0	1.795712E+0	1.855617E+0	1.819325E+0	1.875859E+0	1.805778E+0	1.778501E+0	1.884201E+0	1.930611E+0	1.807107E+0	1.758117E+0	1.823001E+0
5.395160E+2	1.891384E+0	1.985975E+0	1.915780E+0	1.982209E+0	1.969561E+0	1.943337E+0	1.874611E+0	1.928080E+0	1.925600E+0	1.958248E+0	1.963403E+0	1.919618E+0	1.903024E+0	2.002674E+0	1.902157E+0	1.954368E+0	1.931939E+0	1.900118E+0	1.876158E+0	1.942802E+0	1.922238E+0	1.891398E+0	1.962046E+0	1.940010E+0	1.927334E+0	1.960929E+0	1.930708E+0	1.879626E+0	1.908412E+0	1.894307E+0	1.927599E+0	1.943176E+0	1.959886E+0	1.871256E+0	1.911929E+0	1.931833E+0	1.947430E+0	1.869029E+0	1.881439E+0	1.884743E+0	1.992439E+0	1.896026E+0	1.943324E+0	1.870640E+0	1.884712E+0	1.927055E+0	1.860036E+0	1.923182E+0	1.941804E+0	1.889315E+0	1.916942E+0	1.884883E+0	1.898194E+0	1.948856E+0	1.944866E+0	1.877333E+0	1.989370E+0	1.934651E+0	1.902507E+0	1.898358E+0	1.882215E+0	1.916289E+0	1.863075E+0	1.916351E+0	1.865375E+0	2.051039E+0	1.836958E+0	1.902223E+0	1.930786E+0	1.842977E+0	1.886052E+0	1.861574E+0	1.921942E+0	1.930138E+0	1.886523E+0	1.880071E+0	1.842796E+0	1.870427E+0	1.835647E+0	1.905874E+0	1.911550E+0	1.922938E+0	1.886836E+0	1.920853E+0	1.890456E+0	1.925908E+0	1.898293E+0	1.874501E+0	1.902397E+0	1.889417E+0	1.924629E+0	1.855071E+0	1.859500E+0	1.871086E+0	1.847141E+0	1.881172E+0	1.806183E+0	1.831993E+0	1.856360E+0	1.911144E+0	1.910770E+0	1.924379E+0	1.882897E+0	1.891278E+0	1.837740E+0	1.876046E+0	1.889248E+0	1.881494E+0	1.853809E+0	1.855212E+0	1.854257E+0	1.890106E+0	1.884818E+0	1.820488E+0	1.864157E+0	1.916001E+0	1.923717E+0	1.862470E+0	1.925399E+0	1.780866E+0	1.913882E+0	1.810639E+0	1.820462E+0	1.882500E+0	1.830599E+0	1.819531E+0	1.906782E+0	1.816196E+0	1.916937E+0	1.842798E+0	1.845556E+0	1.879484E+0	1.913603E+0	1.919761E+0	1.857682E+0	1.837608E+0	1.870500E+0	1.804287E+0	1.860057E+0	1.904849E+0	1.867291E+0	1.924447E+0	1.861469E+0	1.876708E+0	1.921555E+0	1.836566E+0	1.875963E+0	1.880704E+0	1.849626E+0	1.837822E+0	1.848414E+0	1.842778E+0	1.871310E+0	1.894752E+0	1.849624E+0	1.839229E+0	1.828361E+0	1.827444E+0	1.877617E+0	1.866592E+0	1.793753E+0	1.850986E+0	1.847437E+0	1.844840E+0	1.838264E+0	1.893360E+0	1.870933E+0	1.849464E+0	1.878279E+0	1.837697E+0	1.822499E+0
5.397750E+2	1.981643E+0	1.960680E+0	1.943497E+0	2.002861E+0	2.013684E+0	1.989231E+0	1.956177E+0	1.936150E+0	1.898172E+0	1.906537E+0	1.929832E+0	1.948148E+0	1.975492E+0	1.924795E+0	1.968019E+0	1.977463E+0	1.977035E+0	1.894982E+0	1.906948E+0	2.009563E+0	1.959018E+0	1.909561E+0	1.952870E+0	1.928567E+0	1.891596E+0	2.010729E+0	1.936290E+0	1.955949E+0	1.986822E+0	1.921422E+0	1.960240E+0	1.909969E+0	1.955877E+0	1.894898E+0	1.950072E+0	1.904303E+0	1.894240E+0	1.890205E+0	2.002139E+0	1.941834E+0	1.921833E+0	1.908448E+0	1.946415E+0	1.957196E+0	1.915803E+0	1.951814E+0	1.916961E+0	1.877843E+0	1.959495E+0	1.901675E+0	1.998594E+0	1.876416E+0	1.901669E+0	1.880345E+0	1.975004E+0	1.937521E+0	1.882085E+0	1.976158E+0	1.856294E+0	1.886002E+0	1.856831E+0	1.912727E+0	1.853424E+0	1.928445E+0	1.921185E+0	1.914620E+0	1.892346E+0	1.921473E+0	1.980451E+0	1.913643E+0	1.915394E+0	1.942392E+0	1.944503E+0	1.922472E+0	1.854683E+0	1.918824E+0	1.865142E+0	1.941045E+0	1.852740E+0	1.918109E+0	1.932604E+0	1.921729E+0	1.854107E+0	1.947448E+0	1.929668E+0	1.951891E+0	1.980201E+0	1.893587E+0	1.912726E+0	1.834012E+0	1.863433E+0	1.911595E+0	1.861960E+0	1.838140E+0	1.867526E+0	1.902812E+0	1.901421E+0	1.852910E+0	1.985185E+0	1.897706E+0	1.907275E+0	1.916689E+0	1.864210E+0	1.915060E+0	1.828299E+0	1.939285E+0	1.897509E+0	1.916850E+0	1.958219E+0	1.921240E+0	1.819596E+0	1.910339E+0	1.791858E+0	1.898654E+0	1.870157E+0	1.884782E+0	1.875765E+0	1.846594E+0	1.882736E+0	1.934209E+0	1.891317E+0	1.811480E+0	1.913409E+0	1.947132E+0	1.856903E+0	1.906715E+0	1.815892E+0	1.862340E+0	1.890252E+0	1.901697E+0	1.939500E+0	1.941080E+0	1.881088E+0	1.855677E+0	1.898181E+0	1.901194E+0	1.897743E+0	1.887735E+0	1.863075E+0	1.873524E+0	1.819922E+0	1.902294E+0	1.863170E+0	1.844877E+0	1.873796E+0	1.894112E+0	1.785949E+0	1.824693E+0	1.848883E+0	1.807184E+0	1.933810E+0	1.876232E+0	1.900513E+0	1.806220E+0	1.920004E+0	1.886378E+0	1.910220E+0	1.844464E+0	1.911557E+0	1.870962E+0	1.928831E+0	1.854081E+0	1.802398E+0	1.895365E+0	1.928754E+0	1.858897E+0	1.844413E+0	1.953830E+0	1.844340E+0	1.786261E+0	1.857762E+0
5.400140E+2	1.877484E+0	1.897689E+0	1.879941E+0	1.907660E+0	1.954316E+0	1.950355E+0	1.824664E+0	1.892823E+0	1.821167E+0	1.896609E+0	1.840868E+0	1.902734E+0	1.887113E+0	1.861926E+0	1.863412E+0	1.904310E+0	1.887719E+0	1.862750E+0	1.910029E+0	1.919143E+0	1.874812E+0	1.909826E+0	1.819062E+0	1.889027E+0	1.849929E+0	1.833184E+0	1.909181E+0	1.880383E+0	1.909956E+0	1.872623E+0	1.881903E+0	1.867183E+0	1.925906E+0	1.849394E+0	1.892542E+0	1.883585E+0	1.853661E+0	1.828610E+0	1.857417E+0	1.850546E+0	1.854786E+0	1.855836E+0	1.873161E+0	1.902083E+0	1.832629E+0	1.833688E+0	1.745589E+0	1.885675E+0	1.875747E+0	1.893255E+0	1.862907E+0	1.873631E+0	1.853284E+0	1.935321E+0	1.905802E+0	1.834389E+0	1.884951E+0	1.904098E+0	1.819559E+0	1.865915E+0	1.849043E+0	1.875984E+0	1.826579E+0	1.908263E+0	1.924938E+0	1.863006E+0	1.849783E+0	1.941242E+0	1.866097E+0	1.869150E+0	1.854948E+0	1.849715E+0	1.839722E+0	1.819306E+0	1.904753E+0	1.902669E+0	1.876533E+0	1.831712E+0	1.837913E+0	1.890547E+0	1.864567E+0	1.859727E+0	1.834170E+0	1.865487E+0	1.821334E+0	1.886860E+0	1.884773E+0	1.865928E+0	1.836606E+0	1.797634E+0	1.838932E+0	1.841464E+0	1.814629E+0	1.816632E+0	1.824656E+0	1.817860E+0	1.891244E+0	1.819855E+0	1.808913E+0	1.843936E+0	1.843952E+0	1.834724E+0	1.825188E+0	1.864003E+0	1.901914E+0	1.893384E+0	1.836025E+0	1.930615E+0	1.851357E+0	1.819521E+0	1.726504E+0	1.861664E+0	1.824474E+0	1.812252E+0	1.842706E+0	1.893418E+0	1.860192E+0	1.832626E+0	1.856937E+0	1.760998E+0	1.824278E+0	1.851952E+0	1.843267E+0	1.865687E+0	1.865710E+0	1.820327E+0	1.844980E+0	1.838697E+0	1.866955E+0	1.843248E+0	1.843286E+0	1.889937E+0	1.806214E+0	1.816874E+0	1.865991E+0	1.818486E+0	1.881884E+0	1.825934E+0	1.797538E+0	1.862701E+0	1.786358E+0	1.822217E+0	1.797747E+0	1.840085E+0	1.805241E+0	1.776061E+0	1.807666E+0	1.879869E+0	1.812018E+0	1.741850E+0	1.862740E+0	1.765596E+0	1.860575E+0	1.796848E+0	1.822792E+0	1.754771E+0	1.855217E+0	1.781656E+0	1.836478E+0	1.771741E+0	1.774623E+0	1.823930E+0	1.802606E+0	1.794234E+0	1.836039E+0	1.771553E+0	1.845410E+0	1.854113E+0	1.858528E+0	1.656367E+0	1.808739E+0
5.402740E+2	1.875577E+0	1.818352E+0	1.780537E+0	1.845289E+0	1.844602E+0	1.939358E+0	1.844748E+0	1.775981E+0	1.793056E+0	1.883201E+0	1.863670E+0	1.836676E+0	1.869461E+0	1.834492E+0	1.865366E+0	1.844457E+0	1.854941E+0	1.872111E+0	1.833097E+0	1.860458E+0	1.852180E+0	1.846274E+0	1.891343E+0	1.811103E+0	1.855046E+0	1.810663E+0	1.773822E+0	1.886041E+0	1.865641E+0	1.827310E+0	1.832181E+0	1.864229E+0	1.862792E+0	1.792667E+0	1.910782E+0	1.836383E+0	1.841384E+0	1.783898E+0	1.867198E+0	1.835206E+0	1.799255E+0	1.874469E+0	1.913198E+0	1.851080E+0	1.831475E+0	1.793505E+0	1.894443E+0	1.903194E+0	1.765780E+0	1.849471E+0	1.852716E+0	1.855929E+0	1.797261E+0	1.896598E+0	1.841503E+0	1.817088E+0	1.830954E+0	1.887469E+0	1.822262E+0	1.869581E+0	1.798522E+0	1.874924E+0	1.822033E+0	1.831508E+0	1.857185E+0	1.845595E+0	1.832031E+0	1.852366E+0	1.876909E+0	1.797749E+0	1.802167E+0	1.798937E+0	1.798633E+0	1.835304E+0	1.809159E+0	1.872514E+0	1.771638E+0	1.833736E+0	1.775221E+0	1.793129E+0	1.743580E+0	1.820702E+0	1.759909E+0	1.819728E+0	1.791046E+0	1.778396E+0	1.802661E+0	1.819298E+0	1.839502E+0	1.770982E+0	1.765928E+0	1.813616E+0	1.796407E+0	1.836411E+0	1.788634E+0	1.792305E+0	1.830454E+0	1.734051E+0	1.795952E+0	1.869149E+0	1.790777E+0	1.870123E+0	1.752064E+0	1.799418E+0	1.755156E+0	1.839991E+0	1.729651E+0	1.852410E+0	1.771605E+0	1.829451E+0	1.754077E+0	1.793578E+0	1.779634E+0	1.876964E+0	1.810748E+0	1.892877E+0	1.777659E+0	1.745409E+0	1.834041E+0	1.803192E+0	1.804589E+0	1.818970E+0	1.815689E+0	1.905278E+0	1.782934E+0	1.793854E+0	1.744277E+0	1.821942E+0	1.822406E+0	1.775227E+0	1.843782E+0	1.754767E+0	1.824299E+0	1.793822E+0	1.775057E+0	1.800521E+0	1.853795E+0	1.768475E+0	1.806599E+0	1.792765E+0	1.778347E+0	1.780803E+0	1.795363E+0	1.772606E+0	1.767106E+0	1.837412E+0	1.756869E+0	1.828991E+0	1.809107E+0	1.828864E+0	1.783179E+0	1.718963E+0	1.810818E+0	1.776012E+0	1.772738E+0	1.792949E+0	1.771674E+0	1.797120E+0	1.801886E+0	1.754228E+0	1.787957E+0	1.768748E+0	1.811156E+0	1.766026E+0	1.757970E+0	1.703154E+0	1.777162E+0	1.819245E+0	1.756836E+0	1.729723E+0	1.779697E+0
5.405080E+2	1.794985E+0	1.766702E+0	1.830199E+0	1.830440E+0	1.792404E+0	1.835871E+0	1.754205E+0	1.833925E+0	1.719469E+0	1.802982E+0	1.730565E+0	1.765909E+0	1.822380E+0	1.735215E+0	1.811951E+0	1.792804E+0	1.851122E+0	1.833202E+0	1.803120E+0	1.834615E+0	1.756079E+0	1.798001E+0	1.712133E+0	1.770289E+0	1.751359E+0	1.790612E+0	1.752720E+0	1.745484E+0	1.798241E+0	1.782956E+0	1.825486E+0	1.754709E+0	1.789880E+0	1.790939E+0	1.749041E+0	1.737587E+0	1.814977E+0	1.717680E+0	1.821134E+0	1.752567E+0	1.788265E+0	1.738645E+0	1.807978E+0	1.779252E+0	1.745344E+0	1.776669E+0	1.697295E+0	1.783964E+0	1.729090E+0	1.764865E+0	1.732062E+0	1.775384E+0	1.775742E+0	1.769674E+0	1.808493E+0	1.724400E+0	1.809334E+0	1.811317E+0	1.740624E+0	1.734339E+0	1.777972E+0	1.780706E+0	1.762240E+0	1.774290E+0	1.793691E+0	1.810553E+0	1.736324E+0	1.692770E+0	1.759599E+0	1.691733E+0	1.777722E+0	1.738776E+0	1.749678E+0	1.734147E+0	1.691293E+0	1.786321E+0	1.755770E+0	1.734111E+0	1.747164E+0	1.800178E+0	1.777428E+0	1.818845E+0	1.699903E+0	1.692432E+0	1.715730E+0	1.728308E+0	1.752994E+0	1.763042E+0	1.738140E+0	1.676531E+0	1.796781E+0	1.707336E+0	1.788958E+0	1.746594E+0	1.707819E+0	1.720172E+0	1.763242E+0	1.737908E+0	1.699452E+0	1.783663E+0	1.728352E+0	1.708745E+0	1.749642E+0	1.728411E+0	1.725888E+0	1.792465E+0	1.755495E+0	1.797418E+0	1.693093E+0	1.753736E+0	1.741473E+0	1.779424E+0	1.743489E+0	1.700722E+0	1.727685E+0	1.800136E+0	1.762102E+0	1.674243E+0	1.761726E+0	1.695914E+0	1.728541E+0	1.720982E+0	1.754446E+0	1.775076E+0	1.724290E+0	1.694966E+0	1.740589E+0	1.741030E+0	1.769314E+0	1.679278E+0	1.732656E+0	1.760843E+0	1.730518E+0	1.779563E+0	1.666094E+0	1.725256E+0	1.700818E+0	1.733169E+0	1.669282E+0	1.750506E+0	1.711616E+0	1.711312E+0	1.758441E+0	1.718476E+0	1.700680E+0	1.695885E+0	1.677893E+0	1.745769E+0	1.784377E+0	1.674848E+0	1.753901E+0	1.735557E+0	1.767750E+0	1.712637E+0	1.664149E+0	1.747455E+0	1.734964E+0	1.717853E+0	1.740068E+0	1.720973E+0	1.704970E+0	1.718872E+0	1.722776E+0	1.739986E+0	1.678408E+0	1.681503E+0	1.757401E+0	1.783659E+0	1.725373E+0	1.596247E+0	1.677361E+0
5.407680E+2	1.716133E+0	1.659325E+0	1.770473E+0	1.703318E+0	1.699530E+0	1.727175E+0	1.701282E+0	1.683670E+0	1.658546E+0	1.669148E+0	1.720813E+0	1.676611E+0	1.746213E+0	1.648158E+0	1.655726E+0	1.673331E+0	1.684533E+0	1.699555E+0	1.647182E+0	1.677975E+0	1.688659E+0	1.632866E+0	1.706429E+0	1.658605E+0	1.614519E+0	1.652215E+0	1.635689E+0	1.655916E+0	1.715525E+0	1.685388E+0	1.700819E+0	1.681180E+0	1.713542E+0	1.631073E+0	1.704747E+0	1.681272E+0	1.678774E+0	1.688732E+0	1.698159E+0	1.668862E+0	1.683130E+0	1.631174E+0	1.718309E+0	1.648965E+0	1.706613E+0	1.698580E+0	1.634746E+0	1.657512E+0	1.657332E+0	1.704740E+0	1.649014E+0	1.612255E+0	1.646841E+0	1.706838E+0	1.667315E+0	1.686864E+0	1.769765E+0	1.702020E+0	1.654244E+0	1.600683E+0	1.659873E+0	1.582912E+0	1.628453E+0	1.678638E+0	1.693067E+0	1.682035E+0	1.644972E+0	1.711019E+0	1.743542E+0	1.656766E+0	1.673615E+0	1.703521E+0	1.586531E+0	1.685670E+0	1.647036E+0	1.669601E+0	1.639311E+0	1.700849E+0	1.677602E+0	1.645285E+0	1.631168E+0	1.631856E+0	1.632794E+0	1.650995E+0	1.688699E+0	1.618221E+0	1.703318E+0	1.668443E+0	1.622300E+0	1.658404E+0	1.712449E+0	1.684479E+0	1.650342E+0	1.642320E+0	1.631756E+0	1.622212E+0	1.664298E+0	1.664030E+0	1.697438E+0	1.624638E+0	1.725818E+0	1.748258E+0	1.625048E+0	1.696158E+0	1.650441E+0	1.706602E+0	1.652553E+0	1.685017E+0	1.593638E+0	1.710973E+0	1.638821E+0	1.683087E+0	1.681972E+0	1.635451E+0	1.622550E+0	1.657817E+0	1.640518E+0	1.630045E+0	1.631652E+0	1.613770E+0	1.676867E+0	1.662302E+0	1.674175E+0	1.660379E+0	1.668757E+0	1.595457E+0	1.641229E+0	1.629853E+0	1.597039E+0	1.702460E+0	1.659071E+0	1.629764E+0	1.650677E+0	1.633702E+0	1.633128E+0	1.663398E+0	1.633925E+0	1.705756E+0	1.607548E+0	1.665127E+0	1.610390E+0	1.622147E+0	1.648983E+0	1.614421E+0	1.630488E+0	1.632527E+0	1.586373E+0	1.643749E+0	1.590070E+0	1.627906E+0	1.686783E+0	1.638445E+0	1.638189E+0	1.690967E+0	1.548805E+0	1.619796E+0	1.659925E+0	1.627870E+0	1.657511E+0	1.579923E+0	1.688750E+0	1.594747E+0	1.613030E+0	1.646500E+0	1.658863E+0	1.659258E+0	1.647631E+0	1.595706E+0	1.617179E+0	1.575115E+0	1.649497E+0
5.410190E+2	1.589071E+0	1.603019E+0	1.627205E+0	1.633672E+0	1.563169E+0	1.594312E+0	1.562943E+0	1.523289E+0	1.539983E+0	1.582982E+0	1.525955E+0	1.536995E+0	1.488951E+0	1.552109E+0	1.542668E+0	1.572176E+0	1.614738E+0	1.555695E+0	1.614287E+0	1.540957E+0	1.553107E+0	1.560338E+0	1.532510E+0	1.552416E+0	1.563854E+0	1.579393E+0	1.572465E+0	1.574560E+0	1.588376E+0	1.537866E+0	1.537487E+0	1.561035E+0	1.625907E+0	1.522711E+0	1.595318E+0	1.581913E+0	1.614039E+0	1.505847E+0	1.550197E+0	1.528787E+0	1.608207E+0	1.502168E+0	1.630301E+0	1.533983E+0	1.540946E+0	1.570871E+0	1.487409E+0	1.559737E+0	1.484260E+0	1.548220E+0	1.550035E+0	1.550723E+0	1.568536E+0	1.597883E+0	1.609730E+0	1.524243E+0	1.615500E+0	1.563452E+0	1.529642E+0	1.570984E+0	1.495595E+0	1.551435E+0	1.543556E+0	1.557448E+0	1.566746E+0	1.546317E+0	1.531615E+0	1.568005E+0	1.602266E+0	1.544646E+0	1.535469E+0	1.591927E+0	1.588220E+0	1.566614E+0	1.563412E+0	1.586896E+0	1.540327E+0	1.552005E+0	1.508998E+0	1.546575E+0	1.552740E+0	1.546430E+0	1.525231E+0	1.505003E+0	1.580932E+0	1.521968E+0	1.556231E+0	1.546443E+0	1.555433E+0	1.529407E+0	1.573992E+0	1.582384E+0	1.560289E+0	1.556440E+0	1.586660E+0	1.551431E+0	1.542351E+0	1.571617E+0	1.529830E+0	1.582068E+0	1.540587E+0	1.581525E+0	1.578896E+0	1.566758E+0	1.548055E+0	1.517353E+0	1.575186E+0	1.556392E+0	1.566583E+0	1.550789E+0	1.515263E+0	1.507441E+0	1.549876E+0	1.511464E+0	1.516957E+0	1.498496E+0	1.548373E+0	1.503526E+0	1.557097E+0	1.484559E+0	1.517469E+0	1.498035E+0	1.548063E+0	1.532271E+0	1.522903E+0	1.568916E+0	1.507376E+0	1.520856E+0	1.593375E+0	1.538199E+0	1.593676E+0	1.519871E+0	1.550570E+0	1.554634E+0	1.552301E+0	1.509984E+0	1.534803E+0	1.573518E+0	1.472246E+0	1.660124E+0	1.529867E+0	1.513887E+0	1.496747E+0	1.545211E+0	1.525236E+0	1.542049E+0	1.523473E+0	1.593202E+0	1.536340E+0	1.529209E+0	1.534302E+0	1.460858E+0	1.519163E+0	1.554592E+0	1.541523E+0	1.548816E+0	1.509987E+0	1.476534E+0	1.532604E+0	1.538869E+0	1.545740E+0	1.601411E+0	1.522061E+0	1.534384E+0	1.545918E+0	1.524756E+0	1.518116E+0	1.553507E+0	1.516435E+0	1.442304E+0	1.511898E+0
5.412850E+2	1.466758E+0	1.416885E+0	1.480505E+0	1.430299E+0	1.516537E+0	1.512759E+0	1.412792E+0	1.429041E+0	1.452342E+0	1.447790E+0	1.399817E+0	1.404107E+0	1.477252E+0	1.401799E+0	1.418288E+0	1.480915E+0	1.488317E+0	1.437039E+0	1.477271E+0	1.478117E+0	1.439835E+0	1.536362E+0	1.447196E+0	1.448197E+0	1.423189E+0	1.454684E+0	1.462437E+0	1.442104E+0	1.469187E+0	1.442558E+0	1.416882E+0	1.408828E+0	1.468960E+0	1.419557E+0	1.502984E+0	1.389968E+0	1.486732E+0	1.397987E+0	1.444811E+0	1.479347E+0	1.481142E+0	1.478914E+0	1.476088E+0	1.414386E+0	1.411453E+0	1.439579E+0	1.434730E+0	1.447069E+0	1.421630E+0	1.432072E+0	1.467005E+0	1.447923E+0	1.475174E+0	1.467081E+0	1.441836E+0	1.472803E+0	1.410479E+0	1.512987E+0	1.444539E+0	1.468950E+0	1.479525E+0	1.443294E+0	1.432426E+0	1.406527E+0	1.444280E+0	1.406410E+0	1.446273E+0	1.421250E+0	1.492570E+0	1.425581E+0	1.464467E+0	1.447226E+0	1.445444E+0	1.425449E+0	1.417541E+0	1.477459E+0	1.470307E+0	1.417971E+0	1.440180E+0	1.414429E+0	1.420382E+0	1.439271E+0	1.414518E+0	1.433895E+0	1.513543E+0	1.417449E+0	1.479508E+0	1.437926E+0	1.470955E+0	1.430576E+0	1.394092E+0	1.448236E+0	1.442780E+0	1.362694E+0	1.401296E+0	1.379709E+0	1.404238E+0	1.444426E+0	1.408661E+0	1.432680E+0	1.456368E+0	1.452516E+0	1.446251E+0	1.423196E+0	1.395734E+0	1.418679E+0	1.443165E+0	1.551378E+0	1.421284E+0	1.489192E+0	1.446035E+0	1.453527E+0	1.418934E+0	1.450703E+0	1.385161E+0	1.395564E+0	1.469280E+0	1.397897E+0	1.451673E+0	1.430586E+0	1.497571E+0	1.402584E+0	1.437424E+0	1.434912E+0	1.436390E+0	1.456394E+0	1.412584E+0	1.512578E+0	1.543795E+0	1.416631E+0	1.446860E+0	1.385737E+0	1.393128E+0	1.397004E+0	1.468023E+0	1.404004E+0	1.441661E+0	1.436009E+0	1.444338E+0	1.483859E+0	1.423964E+0	1.408577E+0	1.441375E+0	1.443612E+0	1.423600E+0	1.413509E+0	1.432091E+0	1.430603E+0	1.434203E+0	1.361799E+0	1.433890E+0	1.423093E+0	1.454532E+0	1.464626E+0	1.394813E+0	1.422262E+0	1.443490E+0	1.398466E+0	1.395160E+0	1.420639E+0	1.450848E+0	1.407532E+0	1.386211E+0	1.431361E+0	1.445420E+0	1.386186E+0	1.461262E+0	1.493143E+0	1.431466E+0	1.390399E+0	1.442588E+0
5.415190E+2	1.344894E+0	1.358283E+0	1.322393E+0	1.301131E+0	1.332116E+0	1.340404E+0	1.322612E+0	1.313724E+0	1.300439E+0	1.282477E+0	1.251972E+0	1.332256E+0	1.287402E+0	1.241569E+0	1.294827E+0	1.321911E+0	1.359607E+0	1.287252E+0	1.324027E+0	1.304259E+0	1.315745E+0	1.300822E+0	1.370289E+0	1.327061E+0	1.261121E+0	1.296024E+0	1.289436E+0	1.305218E+0	1.310558E+0	1.294612E+0	1.289835E+0	1.306832E+0	1.359672E+0	1.283720E+0	1.282678E+0	1.302113E+0	1.326514E+0	1.306439E+0	1.310898E+0	1.273312E+0	1.386501E+0	1.281072E+0	1.339965E+0	1.328957E+0	1.300045E+0	1.313501E+0	1.353154E+0	1.264066E+0	1.319215E+0	1.293549E+0	1.297273E+0	1.300390E+0	1.349580E+0	1.320041E+0	1.302816E+0	1.270577E+0	1.362073E+0	1.335406E+0	1.311730E+0	1.303070E+0	1.315225E+0	1.316045E+0	1.287590E+0	1.273636E+0	1.279009E+0	1.294997E+0	1.319600E+0	1.331835E+0	1.375757E+0	1.285437E+0	1.287638E+0	1.309970E+0	1.323345E+0	1.267212E+0	1.255003E+0	1.296331E+0	1.383643E+0	1.327043E+0	1.278633E+0	1.282359E+0	1.311814E+0	1.301993E+0	1.299627E+0	1.319669E+0	1.279766E+0	1.248522E+0	1.270412E+0	1.266350E+0	1.288567E+0	1.298410E+0	1.304427E+0	1.309022E+0	1.261004E+0	1.288899E+0	1.307070E+0	1.273644E+0	1.339271E+0	1.313664E+0	1.262225E+0	1.305453E+0	1.318888E+0	1.306551E+0	1.322029E+0	1.309808E+0	1.291294E+0	1.348461E+0	1.316331E+0	1.325642E+0	1.329031E+0	1.281511E+0	1.288039E+0	1.286657E+0	1.291802E+0	1.285852E+0	1.242315E+0	1.316740E+0	1.310387E+0	1.283950E+0	1.289995E+0	1.236664E+0	1.269961E+0	1.282910E+0	1.319027E+0	1.281054E+0	1.338675E+0	1.278672E+0	1.300527E+0	1.280203E+0	1.347811E+0	1.298370E+0	1.273591E+0	1.235044E+0	1.309469E+0	1.290892E+0	1.308959E+0	1.273229E+0	1.307654E+0	1.322554E+0	1.291892E+0	1.273366E+0	1.268304E+0	1.288518E+0	1.257502E+0	1.247875E+0	1.273941E+0	1.290540E+0	1.297845E+0	1.279852E+0	1.316303E+0	1.237219E+0	1.328701E+0	1.267634E+0	1.343307E+0	1.331314E+0	1.295115E+0	1.316346E+0	1.362572E+0	1.287389E+0	1.326050E+0	1.271209E+0	1.313562E+0	1.290168E+0	1.288936E+0	1.300217E+0	1.300907E+0	1.272435E+0	1.281284E+0	1.297485E+0	1.370954E+0	1.277316E+0	1.268745E+0
5.417860E+2	1.156373E+0	1.167686E+0	1.163174E+0	1.126744E+0	1.174332E+0	1.143907E+0	1.130011E+0	1.175603E+0	1.161625E+0	1.124881E+0	1.136930E+0	1.146900E+0	1.134681E+0	1.100165E+0	1.146554E+0	1.133860E+0	1.136057E+0	1.173759E+0	1.136928E+0	1.165371E+0	1.155492E+0	1.134751E+0	1.148440E+0	1.128145E+0	1.126788E+0	1.130520E+0	1.147058E+0	1.191716E+0	1.128812E+0	1.156415E+0	1.155039E+0	1.126480E+0	1.180690E+0	1.133656E+0	1.115511E+0	1.150050E+0	1.171641E+0	1.157455E+0	1.210921E+0	1.104724E+0	1.156403E+0	1.109276E+0	1.184451E+0	1.121786E+0	1.147803E+0	1.149351E+0	1.142494E+0	1.159418E+0	1.147822E+0	1.148065E+0	1.140472E+0	1.100594E+0	1.118130E+0	1.169805E+0	1.150479E+0	1.144390E+0	1.184463E+0	1.171656E+0	1.135073E+0	1.076659E+0	1.101695E+0	1.145778E+0	1.140071E+0	1.135291E+0	1.123053E+0	1.132430E+0	1.104399E+0	1.123719E+0	1.141233E+0	1.093984E+0	1.143377E+0	1.127367E+0	1.098621E+0	1.145581E+0	1.138051E+0	1.243530E+0	1.156647E+0	1.156097E+0	1.114870E+0	1.132711E+0	1.115272E+0	1.153174E+0	1.133867E+0	1.137545E+0	1.182256E+0	1.138136E+0	1.133874E+0	1.135237E+0	1.095189E+0	1.090080E+0	1.150479E+0	1.113311E+0	1.136924E+0	1.127189E+0	1.156104E+0	1.138241E+0	1.158039E+0	1.132141E+0	1.112899E+0	1.186949E+0	1.151063E+0	1.198783E+0	1.139417E+0	1.071713E+0	1.172920E+0	1.108166E+0	1.089745E+0	1.195574E+0	1.143024E+0	1.151549E+0	1.104803E+0	1.147863E+0	1.155462E+0	1.123716E+0	1.144553E+0	1.166345E+0	1.185902E+0	1.120706E+0	1.182144E+0	1.159066E+0	1.192286E+0	1.172238E+0	1.138072E+0	1.142294E+0	1.162518E+0	1.095381E+0	1.118409E+0	1.093214E+0	1.201002E+0	1.186926E+0	1.126192E+0	1.137411E+0	1.165440E+0	1.121991E+0	1.105095E+0	1.115803E+0	1.137504E+0	1.187338E+0	1.125679E+0	1.146447E+0	1.146890E+0	1.147829E+0	1.152942E+0	1.099691E+0	1.145535E+0	1.132229E+0	1.082597E+0	1.187716E+0	1.126775E+0	1.104186E+0	1.164978E+0	1.133423E+0	1.131476E+0	1.188807E+0	1.131919E+0	1.174368E+0	1.158945E+0	1.133268E+0	1.180810E+0	1.137566E+0	1.122319E+0	1.157400E+0	1.157662E+0	1.134681E+0	1.138263E+0	1.131535E+0	1.129502E+0	1.149876E+0	1.106410E+0	1.091989E+0	1.147924E+0
5.420160E+2	1.048189E+0	1.058491E+0	1.013100E+0	1.016292E+0	1.035022E+0	1.060456E+0	1.038455E+0	1.075395E+0	1.043644E+0	1.033668E+0	1.006602E+0	1.042751E+0	1.040226E+0	1.043886E+0	1.034207E+0	1.006032E+0	1.040974E+0	1.054542E+0	1.050148E+0	1.019309E+0	9.865190E-1	1.052273E+0	1.025015E+0	1.019810E+0	1.006754E+0	1.001719E+0	1.047614E+0	1.017792E+0	1.031266E+0	1.033045E+0	9.888329E-1	1.029305E+0	1.022894E+0	9.823697E-1	1.026779E+0	1.008109E+0	1.040872E+0	1.018504E+0	1.022310E+0	1.018224E+0	1.048111E+0	1.006243E+0	1.020601E+0	1.020533E+0	1.034418E+0	1.036490E+0	1.027597E+0	1.030812E+0	1.022581E+0	1.026650E+0	1.001696E+0	1.002931E+0	1.042265E+0	1.065313E+0	1.006428E+0	1.001112E+0	1.065908E+0	1.054214E+0	9.881867E-1	1.014952E+0	1.055354E+0	1.010287E+0	1.072213E+0	1.040931E+0	1.034752E+0	1.021720E+0	1.032536E+0	1.039081E+0	1.061714E+0	1.049063E+0	1.015159E+0	1.029559E+0	1.036098E+0	1.081721E+0	9.928905E-1	1.035259E+0	1.040124E+0	1.043865E+0	1.023891E+0	1.033357E+0	1.034158E+0	1.042857E+0	1.022189E+0	1.024645E+0	1.052084E+0	1.019995E+0	1.041921E+0	9.916286E-1	1.025990E+0	1.000544E+0	1.025770E+0	1.027536E+0	1.018493E+0	1.036191E+0	1.020373E+0	1.014419E+0	1.054985E+0	1.018913E+0	1.012488E+0	1.048095E+0	9.955329E-1	1.054604E+0	1.004557E+0	1.039834E+0	1.028904E+0	1.037231E+0	1.009270E+0	1.041648E+0	1.009514E+0	1.036119E+0	1.048534E+0	1.054173E+0	1.032107E+0	9.767600E-1	1.048493E+0	1.024971E+0	1.034140E+0	1.016830E+0	1.058600E+0	9.829061E-1	1.040462E+0	9.749062E-1	1.022319E+0	1.021195E+0	1.032055E+0	9.925899E-1	1.059239E+0	1.033809E+0	1.011401E+0	1.018853E+0	1.029704E+0	1.046832E+0	1.018455E+0	1.027143E+0	1.027418E+0	1.033436E+0	1.062004E+0	9.310231E-1	1.056998E+0	1.016471E+0	9.930305E-1	1.034343E+0	9.858147E-1	9.811681E-1	9.665918E-1	1.019493E+0	1.044316E+0	1.021445E+0	1.018432E+0	9.677345E-1	1.019923E+0	1.029916E+0	1.032172E+0	9.828593E-1	1.043844E+0	1.025260E+0	1.018058E+0	1.015073E+0	1.012426E+0	1.018568E+0	1.031114E+0	1.075057E+0	1.065551E+0	1.021287E+0	1.061433E+0	9.890676E-1	1.020220E+0	1.021651E+0	1.010362E+0	9.486091E-1	9.648106E-1
5.422670E+2	9.117600E-1	9.035836E-1	9.322265E-1	9.403786E-1	9.102180E-1	9.493134E-1	9.221854E-1	9.289631E-1	9.277835E-1	9.215505E-1	9.146705E-1	9.172200E-1	9.261457E-1	9.060921E-1	9.128024E-1	8.975931E-1	8.709262E-1	9.143897E-1	8.962738E-1	8.946931E-1	9.046755E-1	9.342291E-1	9.509693E-1	9.025717E-1	8.938330E-1	9.278002E-1	9.316066E-1	9.296533E-1	9.112180E-1	9.286141E-1	9.269699E-1	9.249820E-1	9.468545E-1	8.946668E-1	9.052257E-1	9.251868E-1	9.391331E-1	8.656831E-1	9.111220E-1	9.309096E-1	9.311288E-1	9.041795E-1	9.640585E-1	8.938531E-1	9.250817E-1	9.275438E-1	9.152964E-1	9.219603E-1	8.822952E-1	9.148069E-1	9.386936E-1	9.220713E-1	9.485901E-1	9.190839E-1	9.215840E-1	8.274426E-1	9.249697E-1	9.086376E-1	9.215664E-1	9.184976E-1	8.609167E-1	9.634565E-1	9.067057E-1	9.231441E-1	9.815873E-1	9.361367E-1	9.118073E-1	8.985319E-1	9.164454E-1	9.060228E-1	9.434467E-1	9.083604E-1	9.793106E-1	9.266828E-1	9.206346E-1	9.482655E-1	8.928763E-1	9.048603E-1	9.278726E-1	9.154998E-1	9.261632E-1	9.072294E-1	8.964703E-1	9.167065E-1	9.392098E-1	9.090768E-1	9.313828E-1	9.449278E-1	9.358017E-1	9.233176E-1	9.641845E-1	8.692470E-1	9.235533E-1	9.089938E-1	8.875130E-1	9.095355E-1	9.362836E-1	9.073020E-1	9.106320E-1	9.119587E-1	9.048213E-1	9.388003E-1	9.091343E-1	9.432990E-1	8.971795E-1	9.720226E-1	9.148138E-1	9.450153E-1	9.159982E-1	9.417488E-1	9.088128E-1	9.327506E-1	9.144312E-1	9.133946E-1	9.122620E-1	9.216372E-1	9.295783E-1	8.859534E-1	9.469537E-1	9.067852E-1	9.203189E-1	9.213321E-1	8.943808E-1	8.946877E-1	9.742321E-1	9.257550E-1	9.461466E-1	9.429901E-1	9.653931E-1	8.908773E-1	8.879994E-1	9.250616E-1	9.219626E-1	9.109251E-1	9.231437E-1	9.169472E-1	9.546514E-1	9.644798E-1	9.172568E-1	9.345413E-1	9.110634E-1	9.299564E-1	9.016912E-1	9.261968E-1	9.071625E-1	9.356567E-1	9.109386E-1	9.548851E-1	9.438522E-1	8.954321E-1	9.308787E-1	9.457379E-1	9.165247E-1	9.619226E-1	9.116479E-1	9.037245E-1	8.845238E-1	9.553026E-1	9.414523E-1	9.126237E-1	9.058717E-1	8.917534E-1	8.907228E-1	8.900197E-1	9.462268E-1	9.386493E-1	9.751036E-1	9.837246E-1	1.002405E+0	9.458448E-1	8.474848E-1
5.425300E+2	8.955598E-1	9.448203E-1	9.311639E-1	9.179045E-1	8.827533E-1	8.870308E-1	9.246307E-1	9.029645E-1	9.011618E-1	9.188922E-1	8.893547E-1	8.810376E-1	9.054989E-1	8.854677E-1	9.186144E-1	9.186049E-1	8.985176E-1	9.185524E-1	9.086807E-1	8.668073E-1	8.858628E-1	8.888798E-1	8.972630E-1	9.168989E-1	9.179333E-1	9.363570E-1	9.400842E-1	9.141212E-1	9.304379E-1	8.902621E-1	8.616850E-1	9.118260E-1	9.322940E-1	8.758725E-1	9.152561E-1	9.092512E-1	9.162065E-1	9.142818E-1	8.945528E-1	8.684528E-1	9.373247E-1	9.145891E-1	9.103824E-1	9.072140E-1	9.097195E-1	8.810415E-1	8.981878E-1	9.328836E-1	9.116207E-1	8.884690E-1	8.890788E-1	9.034260E-1	9.410375E-1	9.489026E-1	9.286574E-1	8.819533E-1	9.113854E-1	9.531611E-1	8.858273E-1	8.552730E-1	9.244949E-1	9.546460E-1	9.133535E-1	9.001667E-1	9.083204E-1	8.756487E-1	8.911136E-1	9.365419E-1	9.105212E-1	9.068184E-1	9.449831E-1	9.141851E-1	8.887420E-1	9.243337E-1	9.299841E-1	8.956283E-1	9.164985E-1	9.256164E-1	8.901108E-1	8.794418E-1	9.332824E-1	8.780278E-1	8.705325E-1	9.074596E-1	8.852982E-1	9.280629E-1	8.859344E-1	9.238808E-1	8.926702E-1	8.994271E-1	8.815243E-1	9.519131E-1	9.125039E-1	8.958265E-1	8.916350E-1	9.181007E-1	8.762968E-1	8.736551E-1	8.622016E-1	9.266154E-1	8.841050E-1	9.248917E-1	9.057816E-1	9.147013E-1	9.371661E-1	9.481735E-1	9.061613E-1	9.162856E-1	9.302841E-1	9.011514E-1	9.008235E-1	8.710923E-1	8.675544E-1	9.053851E-1	8.509660E-1	9.023547E-1	9.229214E-1	9.216760E-1	9.311475E-1	8.857708E-1	8.984217E-1	9.077627E-1	9.078553E-1	9.141274E-1	9.053720E-1	8.810870E-1	8.923612E-1	9.052996E-1	9.235257E-1	9.040205E-1	9.435291E-1	8.927588E-1	9.106043E-1	8.923986E-1	8.990675E-1	9.012451E-1	9.181485E-1	9.235242E-1	9.587908E-1	8.855462E-1	9.058039E-1	9.167793E-1	9.032205E-1	8.584858E-1	8.938408E-1	8.935918E-1	8.769430E-1	9.073588E-1	8.965648E-1	8.665733E-1	8.857231E-1	8.989500E-1	8.809726E-1	9.634856E-1	8.908718E-1	8.927971E-1	9.143124E-1	9.223223E-1	8.841064E-1	8.791779E-1	9.529888E-1	9.289778E-1	9.365530E-1	9.409651E-1	9.163717E-1	8.959034E-1	9.019215E-1	9.375482E-1	9.370873E-1	9.315841E-1	8.843105E-1
5.427600E+2	9.957712E-1	1.001139E+0	9.887923E-1	9.790761E-1	9.783968E-1	9.632849E-1	1.005656E+0	1.003147E+0	9.598963E-1	9.948596E-1	1.011162E+0	9.653130E-1	9.640817E-1	9.339365E-1	9.401347E-1	9.796163E-1	9.284924E-1	9.845079E-1	9.739757E-1	9.769822E-1	9.698444E-1	9.767760E-1	9.754836E-1	9.982515E-1	9.438402E-1	9.588649E-1	9.548749E-1	9.858744E-1	9.674717E-1	9.787659E-1	1.001318E+0	9.684530E-1	1.040214E+0	9.858477E-1	9.799231E-1	9.546365E-1	9.443429E-1	9.914660E-1	9.886321E-1	9.526931E-1	1.016961E+0	9.671191E-1	9.960452E-1	9.503107E-1	9.960211E-1	9.489942E-1	1.003935E+0	9.360682E-1	9.477664E-1	9.585959E-1	9.958309E-1	9.804879E-1	9.563485E-1	1.011412E+0	1.010349E+0	9.723090E-1	1.010742E+0	9.737800E-1	9.468772E-1	9.407984E-1	1.021462E+0	1.007619E+0	9.842579E-1	9.785430E-1	9.889990E-1	9.324382E-1	9.307760E-1	9.744874E-1	9.879997E-1	9.821551E-1	9.710302E-1	9.732418E-1	9.865763E-1	1.025016E+0	9.901107E-1	9.571585E-1	9.597158E-1	9.669883E-1	1.003263E+0	9.729204E-1	1.011989E+0	9.474891E-1	1.009364E+0	9.782140E-1	9.683855E-1	9.813680E-1	9.633774E-1	9.573860E-1	9.283967E-1	9.363666E-1	9.812283E-1	9.189193E-1	9.482864E-1	9.800700E-1	9.264388E-1	9.687259E-1	1.005769E+0	9.839725E-1	9.639302E-1	1.013134E+0	9.563903E-1	9.644556E-1	9.917621E-1	9.648779E-1	9.549324E-1	9.848428E-1	9.183340E-1	1.016808E+0	9.693309E-1	9.954825E-1	9.229793E-1	9.752081E-1	9.258476E-1	9.635114E-1	9.663912E-1	9.389156E-1	9.709193E-1	9.675168E-1	1.010374E+0	9.368813E-1	9.989339E-1	9.811960E-1	9.760496E-1	9.951598E-1	9.771362E-1	9.842288E-1	9.739422E-1	9.637460E-1	9.816176E-1	9.542643E-1	9.812190E-1	9.651595E-1	9.704642E-1	1.007877E+0	9.981569E-1	9.527338E-1	9.635372E-1	1.016493E+0	9.529312E-1	9.864494E-1	9.710530E-1	9.569959E-1	9.633668E-1	9.915866E-1	9.791967E-1	9.417059E-1	9.573449E-1	9.807436E-1	9.760555E-1	9.459481E-1	9.746096E-1	9.706647E-1	1.013509E+0	1.003554E+0	9.543841E-1	9.858465E-1	9.629296E-1	9.347602E-1	1.005840E+0	1.007859E+0	1.000085E+0	9.680451E-1	9.111353E-1	1.005457E+0	9.231164E-1	9.691974E-1	9.559175E-1	9.903949E-1	1.001150E+0	9.247714E-1	9.126567E-1
5.430120E+2	1.107582E+0	1.120709E+0	1.155498E+0	1.161141E+0	1.103909E+0	1.123212E+0	1.147690E+0	1.125340E+0	1.093979E+0	1.129110E+0	1.116895E+0	1.104285E+0	1.126711E+0	1.089272E+0	1.104296E+0	1.095260E+0	1.100187E+0	1.126168E+0	1.120871E+0	1.141857E+0	1.140481E+0	1.164081E+0	1.150148E+0	1.137696E+0	1.122710E+0	1.134213E+0	1.153182E+0	1.131208E+0	1.131600E+0	1.107497E+0	1.076577E+0	1.081465E+0	1.162582E+0	1.111498E+0	1.084853E+0	1.110803E+0	1.127501E+0	1.077892E+0	1.093850E+0	1.082088E+0	1.113205E+0	1.150450E+0	1.105610E+0	1.081955E+0	1.128646E+0	1.172872E+0	1.102987E+0	1.103543E+0	1.094469E+0	1.084604E+0	1.150050E+0	1.138992E+0	1.139414E+0	1.138673E+0	1.172630E+0	1.072009E+0	1.155195E+0	1.077764E+0	1.111858E+0	1.117728E+0	1.102514E+0	1.105999E+0	1.107107E+0	1.153585E+0	1.175157E+0	1.069213E+0	1.051804E+0	1.109537E+0	1.122723E+0	1.163645E+0	1.126867E+0	1.099581E+0	1.157517E+0	1.110318E+0	1.111643E+0	1.175772E+0	1.128631E+0	1.109615E+0	1.068066E+0	1.146363E+0	1.099650E+0	1.180934E+0	1.103748E+0	1.103456E+0	1.094957E+0	1.115054E+0	1.090186E+0	1.112240E+0	1.097811E+0	1.108356E+0	1.085743E+0	1.079894E+0	1.129063E+0	1.097300E+0	1.134887E+0	1.098723E+0	1.128614E+0	1.095226E+0	1.139532E+0	1.127178E+0	1.094215E+0	1.132041E+0	1.126643E+0	1.115419E+0	1.085065E+0	1.101165E+0	1.095407E+0	1.108511E+0	1.081974E+0	1.113502E+0	1.093587E+0	1.123868E+0	1.093808E+0	1.129488E+0	1.176060E+0	1.095764E+0	1.131856E+0	1.095730E+0	1.112264E+0	1.092293E+0	1.077048E+0	1.117319E+0	1.189556E+0	1.101061E+0	1.105799E+0	1.104259E+0	1.145411E+0	1.133390E+0	1.143823E+0	1.097680E+0	1.148281E+0	1.103500E+0	1.141289E+0	1.144955E+0	1.107824E+0	1.131574E+0	1.102583E+0	1.122728E+0	1.124793E+0	1.112452E+0	1.089158E+0	1.039123E+0	1.093077E+0	1.078393E+0	1.110883E+0	1.163792E+0	1.067112E+0	1.107980E+0	1.092481E+0	1.123786E+0	1.172338E+0	1.110939E+0	1.148479E+0	1.181556E+0	1.132312E+0	1.095223E+0	1.117907E+0	1.092916E+0	1.183657E+0	1.114069E+0	1.097222E+0	1.113006E+0	1.096463E+0	1.062278E+0	1.112493E+0	1.052025E+0	1.097394E+0	1.133655E+0	1.146785E+0	1.102224E+0	1.214678E+0
5.433070E+2	1.312572E+0	1.334657E+0	1.329135E+0	1.266918E+0	1.304074E+0	1.330944E+0	1.301375E+0	1.300570E+0	1.263636E+0	1.271789E+0	1.249972E+0	1.284732E+0	1.292188E+0	1.333419E+0	1.286255E+0	1.317319E+0	1.280157E+0	1.290720E+0	1.285036E+0	1.242251E+0	1.317879E+0	1.287550E+0	1.267473E+0	1.315962E+0	1.262244E+0	1.307975E+0	1.293580E+0	1.313092E+0	1.313894E+0	1.273383E+0	1.283543E+0	1.300727E+0	1.308353E+0	1.298396E+0	1.325046E+0	1.288057E+0	1.298391E+0	1.264400E+0	1.262123E+0	1.302248E+0	1.284958E+0	1.281507E+0	1.338195E+0	1.300993E+0	1.278755E+0	1.316430E+0	1.282227E+0	1.310417E+0	1.302674E+0	1.345870E+0	1.284638E+0	1.307877E+0	1.236658E+0	1.313981E+0	1.323769E+0	1.341547E+0	1.327680E+0	1.344817E+0	1.262619E+0	1.295916E+0	1.237698E+0	1.295413E+0	1.267797E+0	1.315674E+0	1.325982E+0	1.246642E+0	1.282394E+0	1.330042E+0	1.262022E+0	1.295322E+0	1.281980E+0	1.309028E+0	1.288179E+0	1.318832E+0	1.278117E+0	1.328076E+0	1.266472E+0	1.296260E+0	1.315696E+0	1.265944E+0	1.322416E+0	1.253357E+0	1.332984E+0	1.292131E+0	1.269832E+0	1.320617E+0	1.296680E+0	1.287953E+0	1.286838E+0	1.295329E+0	1.269321E+0	1.286212E+0	1.294282E+0	1.269313E+0	1.264508E+0	1.323339E+0	1.261295E+0	1.295543E+0	1.325070E+0	1.259521E+0	1.277601E+0	1.339309E+0	1.305782E+0	1.362435E+0	1.274002E+0	1.264015E+0	1.245385E+0	1.330359E+0	1.303748E+0	1.288360E+0	1.293043E+0	1.295231E+0	1.280603E+0	1.275607E+0	1.333521E+0	1.316284E+0	1.253069E+0	1.332507E+0	1.319239E+0	1.272864E+0	1.309679E+0	1.270960E+0	1.343341E+0	1.279307E+0	1.267019E+0	1.275341E+0	1.258338E+0	1.307670E+0	1.284326E+0	1.286224E+0	1.290909E+0	1.316888E+0	1.315659E+0	1.291012E+0	1.258560E+0	1.278377E+0	1.272285E+0	1.322601E+0	1.247841E+0	1.265011E+0	1.226058E+0	1.317180E+0	1.278706E+0	1.287246E+0	1.295279E+0	1.322711E+0	1.282630E+0	1.287611E+0	1.239576E+0	1.295983E+0	1.333859E+0	1.311457E+0	1.279132E+0	1.317750E+0	1.246697E+0	1.333943E+0	1.281649E+0	1.255759E+0	1.287617E+0	1.277391E+0	1.252477E+0	1.290825E+0	1.249100E+0	1.288624E+0	1.281955E+0	1.271130E+0	1.301918E+0	1.266283E+0	1.255630E+0	1.322688E+0	1.308503E+0
5.435220E+2	1.393504E+0	1.484516E+0	1.406371E+0	1.413909E+0	1.418119E+0	1.463598E+0	1.426791E+0	1.407135E+0	1.419038E+0	1.447876E+0	1.397863E+0	1.366875E+0	1.491783E+0	1.393652E+0	1.400670E+0	1.426836E+0	1.426109E+0	1.394802E+0	1.371859E+0	1.381018E+0	1.428581E+0	1.430256E+0	1.414759E+0	1.400838E+0	1.397587E+0	1.435364E+0	1.400644E+0	1.376926E+0	1.458823E+0	1.373047E+0	1.412370E+0	1.396520E+0	1.409194E+0	1.416438E+0	1.438408E+0	1.407708E+0	1.417076E+0	1.435006E+0	1.439862E+0	1.390798E+0	1.383406E+0	1.404408E+0	1.451550E+0	1.392613E+0	1.434983E+0	1.420269E+0	1.427337E+0	1.439606E+0	1.422893E+0	1.425088E+0	1.416193E+0	1.407957E+0	1.416542E+0	1.449047E+0	1.388152E+0	1.399344E+0	1.419430E+0	1.385641E+0	1.341876E+0	1.426406E+0	1.445785E+0	1.399003E+0	1.374798E+0	1.409528E+0	1.413312E+0	1.430803E+0	1.371976E+0	1.453617E+0	1.427140E+0	1.431334E+0	1.392170E+0	1.398578E+0	1.358888E+0	1.394297E+0	1.336455E+0	1.425178E+0	1.383815E+0	1.393603E+0	1.410590E+0	1.392981E+0	1.391022E+0	1.392762E+0	1.377301E+0	1.383187E+0	1.376559E+0	1.393393E+0	1.407351E+0	1.392843E+0	1.380542E+0	1.356567E+0	1.393222E+0	1.400592E+0	1.377851E+0	1.365751E+0	1.388017E+0	1.416682E+0	1.353653E+0	1.391978E+0	1.413395E+0	1.378477E+0	1.416681E+0	1.448656E+0	1.427718E+0	1.432825E+0	1.347825E+0	1.427867E+0	1.400679E+0	1.404155E+0	1.405030E+0	1.419313E+0	1.406333E+0	1.415395E+0	1.397882E+0	1.389697E+0	1.371918E+0	1.394285E+0	1.397194E+0	1.449025E+0	1.427243E+0	1.360723E+0	1.348698E+0	1.370561E+0	1.462906E+0	1.390534E+0	1.433782E+0	1.422485E+0	1.379981E+0	1.395321E+0	1.396646E+0	1.388928E+0	1.425526E+0	1.347168E+0	1.377482E+0	1.446156E+0	1.427861E+0	1.409958E+0	1.422351E+0	1.413784E+0	1.375742E+0	1.423228E+0	1.407520E+0	1.386302E+0	1.376877E+0	1.392433E+0	1.330954E+0	1.411156E+0	1.404289E+0	1.418218E+0	1.411694E+0	1.362975E+0	1.439490E+0	1.404441E+0	1.420038E+0	1.393570E+0	1.337918E+0	1.389700E+0	1.371530E+0	1.385173E+0	1.408108E+0	1.358568E+0	1.387878E+0	1.403861E+0	1.370720E+0	1.401271E+0	1.406289E+0	1.356787E+0	1.433830E+0	1.409248E+0	1.385100E+0	1.448213E+0	1.385415E+0
5.437690E+2	1.521381E+0	1.566744E+0	1.545287E+0	1.513740E+0	1.548714E+0	1.557853E+0	1.538239E+0	1.494124E+0	1.475436E+0	1.556099E+0	1.507633E+0	1.509181E+0	1.504804E+0	1.506265E+0	1.532897E+0	1.469775E+0	1.567024E+0	1.532676E+0	1.477178E+0	1.478942E+0	1.518946E+0	1.531275E+0	1.556775E+0	1.517270E+0	1.494764E+0	1.501452E+0	1.504766E+0	1.520217E+0	1.488499E+0	1.501441E+0	1.573973E+0	1.476056E+0	1.520008E+0	1.519803E+0	1.488263E+0	1.503085E+0	1.470194E+0	1.524448E+0	1.479040E+0	1.474980E+0	1.526576E+0	1.546112E+0	1.505332E+0	1.453136E+0	1.483257E+0	1.503367E+0	1.497142E+0	1.534481E+0	1.492315E+0	1.541522E+0	1.460832E+0	1.485987E+0	1.546789E+0	1.569424E+0	1.524529E+0	1.481747E+0	1.538297E+0	1.504491E+0	1.487661E+0	1.479776E+0	1.488377E+0	1.496803E+0	1.542262E+0	1.480835E+0	1.510942E+0	1.464024E+0	1.473702E+0	1.507127E+0	1.510621E+0	1.436360E+0	1.512159E+0	1.546123E+0	1.503012E+0	1.491275E+0	1.557456E+0	1.508873E+0	1.507492E+0	1.489304E+0	1.480409E+0	1.533393E+0	1.470230E+0	1.507406E+0	1.512155E+0	1.533983E+0	1.481828E+0	1.494210E+0	1.459927E+0	1.536859E+0	1.526837E+0	1.492955E+0	1.493563E+0	1.493797E+0	1.491469E+0	1.489034E+0	1.474238E+0	1.473203E+0	1.492415E+0	1.493685E+0	1.514197E+0	1.468718E+0	1.487106E+0	1.538289E+0	1.472030E+0	1.467772E+0	1.468796E+0	1.559959E+0	1.455362E+0	1.595681E+0	1.532301E+0	1.526395E+0	1.513120E+0	1.483630E+0	1.460171E+0	1.465453E+0	1.481480E+0	1.456734E+0	1.502026E+0	1.483600E+0	1.468514E+0	1.480654E+0	1.531363E+0	1.510894E+0	1.503488E+0	1.469420E+0	1.439049E+0	1.458766E+0	1.541847E+0	1.469814E+0	1.520664E+0	1.467620E+0	1.495769E+0	1.496882E+0	1.472360E+0	1.474008E+0	1.520236E+0	1.465065E+0	1.441529E+0	1.506205E+0	1.484860E+0	1.498504E+0	1.495576E+0	1.519823E+0	1.537726E+0	1.449480E+0	1.429504E+0	1.485704E+0	1.456024E+0	1.483868E+0	1.488463E+0	1.493761E+0	1.516019E+0	1.488667E+0	1.459765E+0	1.506772E+0	1.469817E+0	1.504457E+0	1.446210E+0	1.495577E+0	1.509420E+0	1.520981E+0	1.498844E+0	1.527042E+0	1.469547E+0	1.518470E+0	1.456329E+0	1.501176E+0	1.560557E+0	1.569955E+0	1.455351E+0	1.397686E+0	1.475560E+0
5.440170E+2	1.550020E+0	1.533329E+0	1.564112E+0	1.552381E+0	1.529600E+0	1.570974E+0	1.507826E+0	1.604471E+0	1.508010E+0	1.551913E+0	1.508176E+0	1.519541E+0	1.580738E+0	1.538974E+0	1.534703E+0	1.512975E+0	1.553058E+0	1.514077E+0	1.541301E+0	1.545024E+0	1.539924E+0	1.516904E+0	1.572695E+0	1.478562E+0	1.538574E+0	1.525078E+0	1.517170E+0	1.525538E+0	1.514490E+0	1.549058E+0	1.503866E+0	1.534923E+0	1.532752E+0	1.509388E+0	1.541858E+0	1.541012E+0	1.537035E+0	1.526278E+0	1.509437E+0	1.554443E+0	1.544583E+0	1.531780E+0	1.579866E+0	1.512936E+0	1.500035E+0	1.497872E+0	1.540080E+0	1.527887E+0	1.499694E+0	1.497249E+0	1.573228E+0	1.564734E+0	1.531742E+0	1.574267E+0	1.527907E+0	1.515823E+0	1.522722E+0	1.579311E+0	1.495845E+0	1.523019E+0	1.471280E+0	1.460768E+0	1.533079E+0	1.526847E+0	1.560902E+0	1.537853E+0	1.541328E+0	1.504801E+0	1.526640E+0	1.527703E+0	1.484710E+0	1.533105E+0	1.522274E+0	1.530336E+0	1.521558E+0	1.526871E+0	1.490482E+0	1.511454E+0	1.507924E+0	1.481807E+0	1.481326E+0	1.518097E+0	1.503026E+0	1.502917E+0	1.492133E+0	1.531163E+0	1.538379E+0	1.487689E+0	1.414395E+0	1.519609E+0	1.521989E+0	1.505746E+0	1.515296E+0	1.470230E+0	1.545197E+0	1.509391E+0	1.511513E+0	1.480948E+0	1.470120E+0	1.527499E+0	1.468038E+0	1.513776E+0	1.494801E+0	1.538064E+0	1.470139E+0	1.548797E+0	1.478350E+0	1.488197E+0	1.472040E+0	1.571203E+0	1.517419E+0	1.488484E+0	1.496857E+0	1.482033E+0	1.489964E+0	1.555208E+0	1.491699E+0	1.471555E+0	1.546522E+0	1.434199E+0	1.556279E+0	1.440871E+0	1.498702E+0	1.527576E+0	1.501710E+0	1.492271E+0	1.501080E+0	1.514689E+0	1.559326E+0	1.501600E+0	1.478399E+0	1.511112E+0	1.494012E+0	1.537093E+0	1.490374E+0	1.511440E+0	1.468607E+0	1.464862E+0	1.542220E+0	1.502492E+0	1.452848E+0	1.573933E+0	1.485052E+0	1.450133E+0	1.481403E+0	1.517442E+0	1.469849E+0	1.521987E+0	1.486452E+0	1.500564E+0	1.514402E+0	1.481501E+0	1.520865E+0	1.531997E+0	1.494422E+0	1.486145E+0	1.464676E+0	1.510676E+0	1.509020E+0	1.486299E+0	1.478898E+0	1.496871E+0	1.501136E+0	1.467330E+0	1.417889E+0	1.469285E+0	1.507214E+0	1.464400E+0	1.492525E+0	1.474930E+0	1.448404E+0
5.442920E+2	1.555512E+0	1.574140E+0	1.570680E+0	1.510092E+0	1.566410E+0	1.604422E+0	1.579180E+0	1.568645E+0	1.461698E+0	1.605791E+0	1.589659E+0	1.574718E+0	1.586282E+0	1.482108E+0	1.561317E+0	1.536939E+0	1.576029E+0	1.565386E+0	1.586562E+0	1.582860E+0	1.548896E+0	1.602836E+0	1.548940E+0	1.574718E+0	1.522338E+0	1.531892E+0	1.539760E+0	1.530584E+0	1.528691E+0	1.557123E+0	1.503750E+0	1.564992E+0	1.571439E+0	1.534512E+0	1.595103E+0	1.554740E+0	1.559205E+0	1.526938E+0	1.552591E+0	1.530382E+0	1.567691E+0	1.526518E+0	1.569773E+0	1.581392E+0	1.501543E+0	1.561383E+0	1.590123E+0	1.586799E+0	1.534164E+0	1.560858E+0	1.565942E+0	1.525640E+0	1.508505E+0	1.568909E+0	1.568263E+0	1.515039E+0	1.531400E+0	1.525097E+0	1.510620E+0	1.536898E+0	1.523750E+0	1.568426E+0	1.492294E+0	1.517477E+0	1.577545E+0	1.540113E+0	1.499661E+0	1.504087E+0	1.526761E+0	1.500409E+0	1.513893E+0	1.583451E+0	1.492055E+0	1.552284E+0	1.552092E+0	1.548874E+0	1.454444E+0	1.489512E+0	1.530981E+0	1.576833E+0	1.557994E+0	1.528810E+0	1.568654E+0	1.527338E+0	1.497872E+0	1.521843E+0	1.581262E+0	1.565624E+0	1.544013E+0	1.563991E+0	1.540915E+0	1.472443E+0	1.544860E+0	1.554494E+0	1.517538E+0	1.513937E+0	1.493685E+0	1.521856E+0	1.519534E+0	1.522930E+0	1.501237E+0	1.558973E+0	1.550738E+0	1.493850E+0	1.498974E+0	1.549402E+0	1.537630E+0	1.560010E+0	1.537890E+0	1.553981E+0	1.476329E+0	1.514355E+0	1.434613E+0	1.537857E+0	1.545741E+0	1.537915E+0	1.484856E+0	1.486998E+0	1.566332E+0	1.513203E+0	1.557509E+0	1.554046E+0	1.541473E+0	1.474274E+0	1.503377E+0	1.513868E+0	1.486108E+0	1.485283E+0	1.599736E+0	1.456244E+0	1.540899E+0	1.510102E+0	1.513227E+0	1.583092E+0	1.547110E+0	1.535233E+0	1.565334E+0	1.572984E+0	1.465836E+0	1.545687E+0	1.459143E+0	1.548885E+0	1.469005E+0	1.429578E+0	1.499119E+0	1.532706E+0	1.506307E+0	1.571124E+0	1.509375E+0	1.537536E+0	1.539501E+0	1.506154E+0	1.500156E+0	1.513508E+0	1.453973E+0	1.519074E+0	1.502646E+0	1.543308E+0	1.508731E+0	1.451450E+0	1.554765E+0	1.515690E+0	1.467348E+0	1.504533E+0	1.435487E+0	1.518221E+0	1.498676E+0	1.539913E+0	1.496551E+0	1.430326E+0	1.564108E+0
5.445240E+2	1.524236E+0	1.507203E+0	1.523089E+0	1.504821E+0	1.498574E+0	1.523440E+0	1.499090E+0	1.543506E+0	1.440474E+0	1.502660E+0	1.472645E+0	1.525998E+0	1.526823E+0	1.444253E+0	1.531008E+0	1.519178E+0	1.519565E+0	1.475912E+0	1.461542E+0	1.500948E+0	1.470565E+0	1.488800E+0	1.500214E+0	1.526920E+0	1.426619E+0	1.478563E+0	1.505939E+0	1.528046E+0	1.467092E+0	1.536983E+0	1.516319E+0	1.513334E+0	1.510938E+0	1.548749E+0	1.478250E+0	1.510036E+0	1.478573E+0	1.475241E+0	1.522283E+0	1.547495E+0	1.491012E+0	1.546356E+0	1.512040E+0	1.506105E+0	1.462973E+0	1.516547E+0	1.487408E+0	1.529324E+0	1.451748E+0	1.537996E+0	1.535282E+0	1.482486E+0	1.501502E+0	1.492757E+0	1.511395E+0	1.453199E+0	1.536605E+0	1.556320E+0	1.525441E+0	1.474566E+0	1.490580E+0	1.491689E+0	1.442618E+0	1.496155E+0	1.539153E+0	1.517480E+0	1.427129E+0	1.502114E+0	1.513572E+0	1.528593E+0	1.479382E+0	1.503477E+0	1.510410E+0	1.539090E+0	1.469627E+0	1.531171E+0	1.488427E+0	1.495563E+0	1.500905E+0	1.493534E+0	1.524022E+0	1.551613E+0	1.509512E+0	1.493065E+0	1.515944E+0	1.533722E+0	1.505694E+0	1.497879E+0	1.501490E+0	1.519553E+0	1.498674E+0	1.490542E+0	1.473227E+0	1.489865E+0	1.492533E+0	1.479677E+0	1.471433E+0	1.454509E+0	1.504974E+0	1.504751E+0	1.483537E+0	1.559012E+0	1.477600E+0	1.529490E+0	1.516986E+0	1.497129E+0	1.476435E+0	1.514136E+0	1.508667E+0	1.521143E+0	1.469028E+0	1.476995E+0	1.499597E+0	1.513453E+0	1.487424E+0	1.511653E+0	1.500464E+0	1.489465E+0	1.455048E+0	1.466392E+0	1.462592E+0	1.534141E+0	1.521447E+0	1.526269E+0	1.517109E+0	1.473357E+0	1.497949E+0	1.512503E+0	1.467409E+0	1.517224E+0	1.540027E+0	1.492738E+0	1.451037E+0	1.485533E+0	1.537056E+0	1.500729E+0	1.473763E+0	1.473807E+0	1.499950E+0	1.517974E+0	1.465288E+0	1.478620E+0	1.425079E+0	1.488068E+0	1.479056E+0	1.549073E+0	1.484840E+0	1.476363E+0	1.469272E+0	1.446514E+0	1.497795E+0	1.512995E+0	1.488311E+0	1.504933E+0	1.512610E+0	1.513289E+0	1.464125E+0	1.428751E+0	1.450069E+0	1.471632E+0	1.512175E+0	1.488887E+0	1.479910E+0	1.464487E+0	1.473524E+0	1.514331E+0	1.516820E+0	1.467969E+0	1.447227E+0	1.477825E+0	1.543288E+0
5.447720E+2	1.466507E+0	1.507807E+0	1.483903E+0	1.431222E+0	1.406279E+0	1.468473E+0	1.453694E+0	1.494118E+0	1.432352E+0	1.421096E+0	1.508943E+0	1.470838E+0	1.475811E+0	1.431078E+0	1.442977E+0	1.487972E+0	1.474872E+0	1.416549E+0	1.423255E+0	1.441513E+0	1.453728E+0	1.426645E+0	1.443701E+0	1.462722E+0	1.344491E+0	1.423031E+0	1.384552E+0	1.451368E+0	1.454006E+0	1.422012E+0	1.449194E+0	1.442538E+0	1.470329E+0	1.444212E+0	1.498360E+0	1.416130E+0	1.413883E+0	1.397229E+0	1.435020E+0	1.448071E+0	1.473428E+0	1.442090E+0	1.468974E+0	1.435222E+0	1.460462E+0	1.448808E+0	1.468429E+0	1.364443E+0	1.429590E+0	1.422683E+0	1.516646E+0	1.405337E+0	1.474212E+0	1.474473E+0	1.471515E+0	1.439186E+0	1.485249E+0	1.441406E+0	1.432048E+0	1.438271E+0	1.427262E+0	1.443825E+0	1.443202E+0	1.431096E+0	1.481787E+0	1.454782E+0	1.430996E+0	1.417679E+0	1.457547E+0	1.473701E+0	1.466882E+0	1.397082E+0	1.401319E+0	1.451339E+0	1.438436E+0	1.483573E+0	1.418841E+0	1.461306E+0	1.411662E+0	1.432704E+0	1.377376E+0	1.418678E+0	1.438038E+0	1.464851E+0	1.428589E+0	1.505797E+0	1.420276E+0	1.452248E+0	1.455147E+0	1.413230E+0	1.447511E+0	1.429789E+0	1.420705E+0	1.450987E+0	1.412799E+0	1.432154E+0	1.470174E+0	1.505273E+0	1.419872E+0	1.440087E+0	1.436179E+0	1.462265E+0	1.445859E+0	1.458657E+0	1.399582E+0	1.468956E+0	1.415459E+0	1.368044E+0	1.466511E+0	1.454442E+0	1.432386E+0	1.444642E+0	1.392504E+0	1.403004E+0	1.420955E+0	1.470366E+0	1.379078E+0	1.436334E+0	1.427117E+0	1.371321E+0	1.384564E+0	1.415540E+0	1.468696E+0	1.387865E+0	1.404317E+0	1.431436E+0	1.432172E+0	1.422556E+0	1.450233E+0	1.379575E+0	1.413795E+0	1.438066E+0	1.421139E+0	1.438704E+0	1.452170E+0	1.423560E+0	1.476332E+0	1.435826E+0	1.439741E+0	1.416428E+0	1.429743E+0	1.422986E+0	1.421134E+0	1.434910E+0	1.455128E+0	1.430831E+0	1.397167E+0	1.432261E+0	1.398311E+0	1.418931E+0	1.431911E+0	1.403130E+0	1.472683E+0	1.427231E+0	1.382656E+0	1.480207E+0	1.415643E+0	1.445070E+0	1.425500E+0	1.399504E+0	1.418623E+0	1.414905E+0	1.390145E+0	1.398558E+0	1.410276E+0	1.412390E+0	1.448133E+0	1.433306E+0	1.415647E+0	1.406560E+0	1.263267E+0
5.450150E+2	1.341840E+0	1.374732E+0	1.314881E+0	1.334292E+0	1.341167E+0	1.374947E+0	1.347539E+0	1.337793E+0	1.300401E+0	1.333869E+0	1.306313E+0	1.388233E+0	1.341504E+0	1.311369E+0	1.369823E+0	1.330487E+0	1.351985E+0	1.380591E+0	1.340148E+0	1.338979E+0	1.351544E+0	1.291443E+0	1.371697E+0	1.390435E+0	1.276708E+0	1.338525E+0	1.304762E+0	1.349280E+0	1.396000E+0	1.360554E+0	1.321181E+0	1.293928E+0	1.389553E+0	1.310087E+0	1.395118E+0	1.369409E+0	1.301305E+0	1.296144E+0	1.369277E+0	1.332939E+0	1.357556E+0	1.319140E+0	1.354805E+0	1.342438E+0	1.351115E+0	1.303943E+0	1.309047E+0	1.365841E+0	1.287324E+0	1.301943E+0	1.385633E+0	1.326899E+0	1.294864E+0	1.290255E+0	1.345206E+0	1.336248E+0	1.352802E+0	1.354962E+0	1.311688E+0	1.303341E+0	1.366562E+0	1.318597E+0	1.303364E+0	1.356608E+0	1.357596E+0	1.343537E+0	1.347907E+0	1.301013E+0	1.366596E+0	1.287712E+0	1.384293E+0	1.307575E+0	1.312262E+0	1.378573E+0	1.270664E+0	1.342883E+0	1.337098E+0	1.302572E+0	1.335162E+0	1.310000E+0	1.332951E+0	1.348418E+0	1.296309E+0	1.272451E+0	1.311794E+0	1.271783E+0	1.346561E+0	1.274747E+0	1.306443E+0	1.268794E+0	1.343925E+0	1.298228E+0	1.287914E+0	1.355687E+0	1.349728E+0	1.336442E+0	1.342279E+0	1.314600E+0	1.342433E+0	1.325344E+0	1.303820E+0	1.388749E+0	1.347972E+0	1.387703E+0	1.263292E+0	1.324914E+0	1.351261E+0	1.396390E+0	1.292235E+0	1.327186E+0	1.334917E+0	1.314421E+0	1.311145E+0	1.319541E+0	1.306256E+0	1.334517E+0	1.285597E+0	1.290283E+0	1.362190E+0	1.275361E+0	1.313031E+0	1.289203E+0	1.354200E+0	1.393362E+0	1.287250E+0	1.341376E+0	1.394875E+0	1.280116E+0	1.293405E+0	1.347572E+0	1.342542E+0	1.344913E+0	1.294662E+0	1.347030E+0	1.334104E+0	1.322537E+0	1.334016E+0	1.307947E+0	1.323278E+0	1.342164E+0	1.302796E+0	1.297368E+0	1.299871E+0	1.348409E+0	1.303269E+0	1.363910E+0	1.290818E+0	1.387355E+0	1.304616E+0	1.322904E+0	1.347107E+0	1.375782E+0	1.384875E+0	1.380783E+0	1.302742E+0	1.361986E+0	1.314604E+0	1.288997E+0	1.339541E+0	1.323045E+0	1.336650E+0	1.393705E+0	1.316857E+0	1.364261E+0	1.304766E+0	1.311270E+0	1.331647E+0	1.355922E+0	1.320899E+0	1.324866E+0	1.276051E+0
5.452580E+2	1.262055E+0	1.202022E+0	1.273407E+0	1.228429E+0	1.229471E+0	1.234448E+0	1.273441E+0	1.253339E+0	1.229702E+0	1.236311E+0	1.270830E+0	1.266322E+0	1.287919E+0	1.222988E+0	1.287556E+0	1.226386E+0	1.226540E+0	1.220300E+0	1.311519E+0	1.300890E+0	1.250433E+0	1.262279E+0	1.260654E+0	1.281917E+0	1.266195E+0	1.273576E+0	1.300770E+0	1.293724E+0	1.263937E+0	1.223582E+0	1.284136E+0	1.258117E+0	1.278339E+0	1.268824E+0	1.246793E+0	1.272085E+0	1.229565E+0	1.232330E+0	1.275673E+0	1.279082E+0	1.270925E+0	1.270874E+0	1.248210E+0	1.248580E+0	1.199023E+0	1.254593E+0	1.248197E+0	1.252682E+0	1.262910E+0	1.225853E+0	1.212197E+0	1.232085E+0	1.232227E+0	1.223068E+0	1.272408E+0	1.225560E+0	1.258346E+0	1.269483E+0	1.278432E+0	1.242834E+0	1.273403E+0	1.262373E+0	1.262912E+0	1.292344E+0	1.260513E+0	1.236526E+0	1.276307E+0	1.192385E+0	1.295568E+0	1.231071E+0	1.277972E+0	1.259551E+0	1.265860E+0	1.224009E+0	1.263950E+0	1.255222E+0	1.222979E+0	1.270162E+0	1.216625E+0	1.282807E+0	1.269339E+0	1.252154E+0	1.231680E+0	1.264376E+0	1.231425E+0	1.219260E+0	1.270488E+0	1.301296E+0	1.231804E+0	1.232368E+0	1.238757E+0	1.233489E+0	1.194256E+0	1.250795E+0	1.257084E+0	1.241516E+0	1.290005E+0	1.258706E+0	1.249713E+0	1.236789E+0	1.256115E+0	1.218085E+0	1.280344E+0	1.274433E+0	1.281277E+0	1.252961E+0	1.286350E+0	1.276909E+0	1.239374E+0	1.255072E+0	1.237361E+0	1.267793E+0	1.220985E+0	1.251926E+0	1.193368E+0	1.291529E+0	1.228746E+0	1.220969E+0	1.312790E+0	1.212226E+0	1.228710E+0	1.227693E+0	1.287808E+0	1.238771E+0	1.238008E+0	1.233757E+0	1.260197E+0	1.265011E+0	1.276879E+0	1.269701E+0	1.278573E+0	1.225708E+0	1.204143E+0	1.273779E+0	1.264599E+0	1.272767E+0	1.285632E+0	1.250612E+0	1.206026E+0	1.241530E+0	1.262762E+0	1.236944E+0	1.241685E+0	1.221858E+0	1.226412E+0	1.285736E+0	1.248267E+0	1.236547E+0	1.237178E+0	1.204117E+0	1.256664E+0	1.245904E+0	1.239196E+0	1.228348E+0	1.248052E+0	1.244100E+0	1.193971E+0	1.252639E+0	1.259071E+0	1.242623E+0	1.225934E+0	1.246026E+0	1.205922E+0	1.249985E+0	1.256351E+0	1.201478E+0	1.290563E+0	1.202613E+0	1.230325E+0	1.193574E+0	1.145282E+0
5.455500E+2	1.245965E+0	1.195409E+0	1.188073E+0	1.241349E+0	1.193579E+0	1.213282E+0	1.222866E+0	1.175568E+0	1.205885E+0	1.207133E+0	1.186087E+0	1.157586E+0	1.180481E+0	1.164647E+0	1.201683E+0	1.184934E+0	1.224358E+0	1.185411E+0	1.218788E+0	1.171155E+0	1.192573E+0	1.153301E+0	1.216888E+0	1.219275E+0	1.187150E+0	1.237239E+0	1.199346E+0	1.181503E+0	1.180475E+0	1.170950E+0	1.203962E+0	1.212134E+0	1.215712E+0	1.174035E+0	1.213654E+0	1.216337E+0	1.190129E+0	1.193801E+0	1.207455E+0	1.215702E+0	1.225527E+0	1.179498E+0	1.239755E+0	1.187324E+0	1.185574E+0	1.217153E+0	1.156832E+0	1.223370E+0	1.149823E+0	1.230855E+0	1.223487E+0	1.169317E+0	1.195798E+0	1.174736E+0	1.215243E+0	1.202139E+0	1.211417E+0	1.189794E+0	1.146061E+0	1.201193E+0	1.183338E+0	1.187856E+0	1.210567E+0	1.216476E+0	1.181260E+0	1.183659E+0	1.210473E+0	1.200975E+0	1.187332E+0	1.211582E+0	1.194953E+0	1.195912E+0	1.162579E+0	1.156762E+0	1.182441E+0	1.202662E+0	1.197896E+0	1.192414E+0	1.164250E+0	1.143176E+0	1.193469E+0	1.218114E+0	1.237707E+0	1.163794E+0	1.153615E+0	1.197212E+0	1.219785E+0	1.195111E+0	1.175496E+0	1.208557E+0	1.185965E+0	1.153011E+0	1.201993E+0	1.189099E+0	1.183905E+0	1.163659E+0	1.173820E+0	1.134161E+0	1.136458E+0	1.163484E+0	1.160399E+0	1.200068E+0	1.182601E+0	1.202001E+0	1.175375E+0	1.191282E+0	1.178887E+0	1.200925E+0	1.170814E+0	1.194000E+0	1.145835E+0	1.205930E+0	1.210454E+0	1.167956E+0	1.203390E+0	1.204442E+0	1.183240E+0	1.149151E+0	1.210223E+0	1.178377E+0	1.154020E+0	1.139077E+0	1.185256E+0	1.222246E+0	1.238381E+0	1.168914E+0	1.205126E+0	1.171654E+0	1.218116E+0	1.225576E+0	1.182552E+0	1.149953E+0	1.195848E+0	1.178463E+0	1.214869E+0	1.190007E+0	1.209392E+0	1.194596E+0	1.180842E+0	1.164396E+0	1.182973E+0	1.163135E+0	1.195945E+0	1.258745E+0	1.182198E+0	1.205757E+0	1.198015E+0	1.205435E+0	1.134789E+0	1.150820E+0	1.204614E+0	1.219379E+0	1.170797E+0	1.171080E+0	1.180161E+0	1.159916E+0	1.150376E+0	1.167611E+0	1.219572E+0	1.178160E+0	1.208829E+0	1.156901E+0	1.155814E+0	1.209611E+0	1.191359E+0	1.148324E+0	1.189033E+0	1.225901E+0	1.157780E+0	1.159815E+0	1.167944E+0
5.457830E+2	1.196859E+0	1.154926E+0	1.162235E+0	1.159715E+0	1.132589E+0	1.189777E+0	1.147802E+0	1.196684E+0	1.127150E+0	1.136850E+0	1.173483E+0	1.165006E+0	1.226030E+0	1.145215E+0	1.152007E+0	1.168121E+0	1.135160E+0	1.185882E+0	1.172783E+0	1.172462E+0	1.136401E+0	1.168154E+0	1.169444E+0	1.177016E+0	1.146780E+0	1.137971E+0	1.179587E+0	1.146536E+0	1.189190E+0	1.196679E+0	1.163476E+0	1.136226E+0	1.169868E+0	1.154779E+0	1.198824E+0	1.181099E+0	1.180098E+0	1.120606E+0	1.133104E+0	1.189342E+0	1.162652E+0	1.161193E+0	1.261118E+0	1.149999E+0	1.214898E+0	1.196623E+0	1.171240E+0	1.177863E+0	1.138600E+0	1.129123E+0	1.173422E+0	1.149120E+0	1.158245E+0	1.182012E+0	1.199223E+0	1.188426E+0	1.196560E+0	1.153991E+0	1.118022E+0	1.148317E+0	1.156111E+0	1.151196E+0	1.159173E+0	1.167811E+0	1.137393E+0	1.156915E+0	1.187968E+0	1.181937E+0	1.169344E+0	1.169535E+0	1.195143E+0	1.109677E+0	1.161311E+0	1.155973E+0	1.174717E+0	1.189426E+0	1.138482E+0	1.138072E+0	1.166074E+0	1.187805E+0	1.130872E+0	1.134429E+0	1.155195E+0	1.186414E+0	1.164627E+0	1.180969E+0	1.169466E+0	1.127915E+0	1.138452E+0	1.145950E+0	1.163298E+0	1.158809E+0	1.167509E+0	1.116666E+0	1.160944E+0	1.152600E+0	1.166862E+0	1.175039E+0	1.150049E+0	1.185015E+0	1.120856E+0	1.177637E+0	1.173927E+0	1.202485E+0	1.176199E+0	1.139761E+0	1.167395E+0	1.188180E+0	1.149890E+0	1.186379E+0	1.151535E+0	1.177618E+0	1.170383E+0	1.130377E+0	1.148281E+0	1.191808E+0	1.150806E+0	1.166853E+0	1.202967E+0	1.121710E+0	1.103541E+0	1.121782E+0	1.152275E+0	1.129733E+0	1.110579E+0	1.178627E+0	1.205641E+0	1.158161E+0	1.177932E+0	1.119984E+0	1.180099E+0	1.141408E+0	1.130372E+0	1.135323E+0	1.158059E+0	1.128749E+0	1.149992E+0	1.160099E+0	1.149645E+0	1.183085E+0	1.164520E+0	1.187103E+0	1.143432E+0	1.183937E+0	1.121033E+0	1.139391E+0	1.217417E+0	1.152170E+0	1.161622E+0	1.141172E+0	1.189887E+0	1.169893E+0	1.149963E+0	1.179247E+0	1.159048E+0	1.210108E+0	1.195740E+0	1.160999E+0	1.170481E+0	1.151299E+0	1.153708E+0	1.148877E+0	1.110757E+0	1.156220E+0	1.171373E+0	1.186978E+0	1.178751E+0	1.193550E+0	1.137698E+0	1.151857E+0	1.140293E+0
5.460060E+2	1.203949E+0	1.139584E+0	1.173837E+0	1.161476E+0	1.209620E+0	1.170345E+0	1.174587E+0	1.162220E+0	1.170379E+0	1.156279E+0	1.144543E+0	1.166591E+0	1.165828E+0	1.130643E+0	1.165707E+0	1.176781E+0	1.165393E+0	1.181810E+0	1.143174E+0	1.127341E+0	1.183139E+0	1.181485E+0	1.159779E+0	1.188679E+0	1.182894E+0	1.175540E+0	1.175146E+0	1.120786E+0	1.163634E+0	1.163399E+0	1.178811E+0	1.158400E+0	1.197071E+0	1.098016E+0	1.150542E+0	1.201027E+0	1.199033E+0	1.120431E+0	1.195351E+0	1.153465E+0	1.173978E+0	1.105753E+0	1.211781E+0	1.129861E+0	1.159394E+0	1.144915E+0	1.131735E+0	1.192839E+0	1.161755E+0	1.209170E+0	1.203775E+0	1.169411E+0	1.167301E+0	1.133502E+0	1.176398E+0	1.178376E+0	1.190598E+0	1.142008E+0	1.159695E+0	1.223379E+0	1.176107E+0	1.158635E+0	1.172521E+0	1.180824E+0	1.172693E+0	1.131601E+0	1.167191E+0	1.213207E+0	1.164618E+0	1.156385E+0	1.199633E+0	1.180104E+0	1.124103E+0	1.158013E+0	1.179979E+0	1.144930E+0	1.202242E+0	1.149198E+0	1.172039E+0	1.159829E+0	1.158086E+0	1.164821E+0	1.148291E+0	1.181888E+0	1.121694E+0	1.179501E+0	1.207569E+0	1.133233E+0	1.160497E+0	1.130532E+0	1.171628E+0	1.153901E+0	1.186061E+0	1.169407E+0	1.107295E+0	1.137284E+0	1.095489E+0	1.138111E+0	1.204338E+0	1.164258E+0	1.142769E+0	1.181895E+0	1.197918E+0	1.164242E+0	1.157344E+0	1.157791E+0	1.193226E+0	1.144765E+0	1.169286E+0	1.186582E+0	1.164488E+0	1.164713E+0	1.156056E+0	1.138096E+0	1.102868E+0	1.135981E+0	1.122916E+0	1.148003E+0	1.161080E+0	1.128361E+0	1.163143E+0	1.110345E+0	1.182751E+0	1.203848E+0	1.118718E+0	1.191926E+0	1.161651E+0	1.183911E+0	1.150438E+0	1.173140E+0	1.228948E+0	1.166238E+0	1.162039E+0	1.141971E+0	1.205576E+0	1.137577E+0	1.170714E+0	1.172290E+0	1.195052E+0	1.189270E+0	1.136418E+0	1.146265E+0	1.183190E+0	1.194918E+0	1.124294E+0	1.208646E+0	1.202456E+0	1.160044E+0	1.140331E+0	1.135070E+0	1.185536E+0	1.218502E+0	1.164150E+0	1.162367E+0	1.144425E+0	1.126929E+0	1.168872E+0	1.134779E+0	1.201383E+0	1.151660E+0	1.160357E+0	1.165109E+0	1.161179E+0	1.204864E+0	1.164899E+0	1.136487E+0	1.148091E+0	1.185476E+0	1.206089E+0	1.168308E+0	1.161731E+0
5.467710E+2	1.210603E+0	1.227126E+0	1.212361E+0	1.217582E+0	1.216074E+0	1.261827E+0	1.226244E+0	1.252215E+0	1.206451E+0	1.237464E+0	1.200979E+0	1.201821E+0	1.269144E+0	1.206768E+0	1.215233E+0	1.234873E+0	1.250191E+0	1.224958E+0	1.200062E+0	1.241615E+0	1.196742E+0	1.231367E+0	1.289403E+0	1.272905E+0	1.167873E+0	1.255737E+0	1.222561E+0	1.197604E+0	1.231813E+0	1.184537E+0	1.240578E+0	1.265268E+0	1.235109E+0	1.266633E+0	1.227306E+0	1.210120E+0	1.227290E+0	1.189139E+0	1.221794E+0	1.247071E+0	1.237840E+0	1.215163E+0	1.250694E+0	1.217365E+0	1.207206E+0	1.230425E+0	1.273484E+0	1.218770E+0	1.230850E+0	1.186686E+0	1.252169E+0	1.225444E+0	1.251297E+0	1.249040E+0	1.294901E+0	1.241028E+0	1.240752E+0	1.241510E+0	1.218817E+0	1.235261E+0	1.227846E+0	1.182453E+0	1.227376E+0	1.220079E+0	1.203246E+0	1.223555E+0	1.188918E+0	1.225140E+0	1.261113E+0	1.240394E+0	1.246975E+0	1.191548E+0	1.222656E+0	1.271235E+0	1.206765E+0	1.244415E+0	1.218707E+0	1.242292E+0	1.225048E+0	1.208729E+0	1.154871E+0	1.197842E+0	1.185693E+0	1.207686E+0	1.204394E+0	1.223904E+0	1.253965E+0	1.275657E+0	1.222821E+0	1.151993E+0	1.218039E+0	1.212896E+0	1.212767E+0	1.196449E+0	1.282172E+0	1.225465E+0	1.201641E+0	1.193362E+0	1.205219E+0	1.170187E+0	1.223120E+0	1.213609E+0	1.179909E+0	1.216477E+0	1.175044E+0	1.255128E+0	1.255323E+0	1.228755E+0	1.208781E+0	1.232843E+0	1.186703E+0	1.221872E+0	1.162044E+0	1.236194E+0	1.221946E+0	1.255682E+0	1.216944E+0	1.216036E+0	1.275529E+0	1.234681E+0	1.203051E+0	1.191194E+0	1.266120E+0	1.264645E+0	1.227655E+0	1.254712E+0	1.268660E+0	1.174445E+0	1.242226E+0	1.232374E+0	1.244167E+0	1.222814E+0	1.220629E+0	1.219479E+0	1.215409E+0	1.209007E+0	1.195513E+0	1.243764E+0	1.179381E+0	1.251079E+0	1.216423E+0	1.210625E+0	1.259726E+0	1.198442E+0	1.215807E+0	1.244986E+0	1.186963E+0	1.226674E+0	1.217242E+0	1.144828E+0	1.279891E+0	1.198767E+0	1.244588E+0	1.262791E+0	1.211801E+0	1.197559E+0	1.246569E+0	1.193672E+0	1.215394E+0	1.238801E+0	1.248661E+0	1.230385E+0	1.248820E+0	1.185157E+0	1.238437E+0	1.218646E+0	1.272289E+0	1.234554E+0	1.153406E+0	1.215794E+0	1.292182E+0
5.475120E+2	1.341649E+0	1.351545E+0	1.343451E+0	1.303246E+0	1.285712E+0	1.312525E+0	1.292888E+0	1.365147E+0	1.312319E+0	1.294345E+0	1.287461E+0	1.293436E+0	1.260870E+0	1.298670E+0	1.328064E+0	1.332008E+0	1.289482E+0	1.331323E+0	1.350958E+0	1.308188E+0	1.301972E+0	1.312204E+0	1.338386E+0	1.353433E+0	1.360476E+0	1.299675E+0	1.297153E+0	1.314522E+0	1.353617E+0	1.270070E+0	1.285497E+0	1.342309E+0	1.325628E+0	1.316597E+0	1.367048E+0	1.301777E+0	1.278107E+0	1.274724E+0	1.317816E+0	1.324907E+0	1.329095E+0	1.273861E+0	1.372900E+0	1.304098E+0	1.302529E+0	1.355739E+0	1.326427E+0	1.352727E+0	1.279102E+0	1.284263E+0	1.272971E+0	1.285566E+0	1.326315E+0	1.283752E+0	1.337612E+0	1.329009E+0	1.344938E+0	1.306722E+0	1.261780E+0	1.297941E+0	1.297206E+0	1.305606E+0	1.287928E+0	1.325269E+0	1.300300E+0	1.308973E+0	1.345740E+0	1.305567E+0	1.344331E+0	1.263398E+0	1.354285E+0	1.290119E+0	1.281602E+0	1.278407E+0	1.364213E+0	1.339618E+0	1.255512E+0	1.295837E+0	1.289404E+0	1.316125E+0	1.266018E+0	1.262421E+0	1.338363E+0	1.299698E+0	1.279405E+0	1.304478E+0	1.320737E+0	1.353699E+0	1.279726E+0	1.301875E+0	1.325487E+0	1.254991E+0	1.318649E+0	1.283347E+0	1.318224E+0	1.300797E+0	1.292316E+0	1.311395E+0	1.362754E+0	1.292463E+0	1.228940E+0	1.325580E+0	1.323172E+0	1.310918E+0	1.332351E+0	1.334818E+0	1.333884E+0	1.315291E+0	1.287345E+0	1.309203E+0	1.342660E+0	1.298385E+0	1.261694E+0	1.237422E+0	1.305657E+0	1.324062E+0	1.321338E+0	1.340360E+0	1.337402E+0	1.317151E+0	1.324551E+0	1.251016E+0	1.311554E+0	1.279000E+0	1.284422E+0	1.307396E+0	1.288920E+0	1.287293E+0	1.335656E+0	1.309399E+0	1.274022E+0	1.326535E+0	1.302177E+0	1.296753E+0	1.297919E+0	1.308924E+0	1.309321E+0	1.331264E+0	1.300190E+0	1.288701E+0	1.300700E+0	1.279077E+0	1.332359E+0	1.276739E+0	1.266377E+0	1.351311E+0	1.278556E+0	1.310298E+0	1.319087E+0	1.252756E+0	1.356036E+0	1.289841E+0	1.295212E+0	1.315938E+0	1.328411E+0	1.308528E+0	1.266409E+0	1.314610E+0	1.345055E+0	1.327263E+0	1.352704E+0	1.275619E+0	1.293497E+0	1.349213E+0	1.288125E+0	1.261092E+0	1.305906E+0	1.309351E+0	1.304029E+0	1.191310E+0	1.302182E+0
5.482660E+2	1.358008E+0	1.395207E+0	1.401926E+0	1.412649E+0	1.345659E+0	1.387426E+0	1.412991E+0	1.425170E+0	1.436642E+0	1.322650E+0	1.393476E+0	1.397959E+0	1.379958E+0	1.346076E+0	1.414456E+0	1.386007E+0	1.446176E+0	1.382214E+0	1.375947E+0	1.421483E+0	1.304548E+0	1.383054E+0	1.410745E+0	1.374155E+0	1.414703E+0	1.375651E+0	1.423386E+0	1.481485E+0	1.376934E+0	1.417814E+0	1.400998E+0	1.354527E+0	1.446424E+0	1.418064E+0	1.410043E+0	1.413952E+0	1.398581E+0	1.341766E+0	1.423322E+0	1.395495E+0	1.383901E+0	1.372338E+0	1.411647E+0	1.434449E+0	1.361768E+0	1.455476E+0	1.397694E+0	1.405130E+0	1.414133E+0	1.394745E+0	1.377109E+0	1.433640E+0	1.322562E+0	1.347760E+0	1.395025E+0	1.404235E+0	1.417877E+0	1.413762E+0	1.332349E+0	1.393245E+0	1.349661E+0	1.410997E+0	1.418212E+0	1.427872E+0	1.341894E+0	1.385097E+0	1.382167E+0	1.413182E+0	1.399154E+0	1.357382E+0	1.371782E+0	1.418072E+0	1.398035E+0	1.356473E+0	1.406431E+0	1.360802E+0	1.384557E+0	1.459996E+0	1.349565E+0	1.359889E+0	1.341565E+0	1.344245E+0	1.406497E+0	1.349559E+0	1.349117E+0	1.389292E+0	1.397545E+0	1.374275E+0	1.372242E+0	1.395218E+0	1.362315E+0	1.398462E+0	1.359358E+0	1.436327E+0	1.348825E+0	1.395229E+0	1.367181E+0	1.301366E+0	1.378153E+0	1.371372E+0	1.353167E+0	1.380597E+0	1.381561E+0	1.439534E+0	1.320016E+0	1.383556E+0	1.422841E+0	1.396786E+0	1.386188E+0	1.431513E+0	1.317296E+0	1.384745E+0	1.401466E+0	1.368318E+0	1.383706E+0	1.343345E+0	1.337476E+0	1.316761E+0	1.335631E+0	1.333046E+0	1.412922E+0	1.394546E+0	1.393603E+0	1.390567E+0	1.395754E+0	1.340875E+0	1.373060E+0	1.382143E+0	1.337218E+0	1.376066E+0	1.375365E+0	1.375011E+0	1.375164E+0	1.351104E+0	1.405277E+0	1.327253E+0	1.365236E+0	1.344675E+0	1.371483E+0	1.408003E+0	1.339975E+0	1.314781E+0	1.358407E+0	1.396002E+0	1.364888E+0	1.360995E+0	1.389083E+0	1.350002E+0	1.352751E+0	1.373493E+0	1.386619E+0	1.400214E+0	1.331347E+0	1.393620E+0	1.398316E+0	1.387287E+0	1.382000E+0	1.352931E+0	1.376736E+0	1.387579E+0	1.382520E+0	1.373713E+0	1.365532E+0	1.350370E+0	1.370945E+0	1.332313E+0	1.385462E+0	1.410811E+0	1.329261E+0	1.247558E+0	1.419624E+0
5.490540E+2	1.398893E+0	1.376400E+0	1.426267E+0	1.355792E+0	1.387303E+0	1.398968E+0	1.361228E+0	1.352600E+0	1.403622E+0	1.352333E+0	1.334753E+0	1.332900E+0	1.353596E+0	1.297747E+0	1.371623E+0	1.345361E+0	1.364261E+0	1.342520E+0	1.408943E+0	1.392792E+0	1.304485E+0	1.356574E+0	1.332478E+0	1.407163E+0	1.312221E+0	1.386154E+0	1.360205E+0	1.359784E+0	1.365366E+0	1.363860E+0	1.342207E+0	1.392379E+0	1.398273E+0	1.305665E+0	1.374089E+0	1.361838E+0	1.395918E+0	1.330040E+0	1.367118E+0	1.348116E+0	1.359940E+0	1.366823E+0	1.380162E+0	1.317777E+0	1.354775E+0	1.358723E+0	1.389326E+0	1.387391E+0	1.319304E+0	1.327617E+0	1.357324E+0	1.415791E+0	1.365127E+0	1.355576E+0	1.329956E+0	1.321034E+0	1.392029E+0	1.406122E+0	1.350658E+0	1.374822E+0	1.376842E+0	1.372253E+0	1.382983E+0	1.395195E+0	1.332314E+0	1.340436E+0	1.363330E+0	1.369327E+0	1.440794E+0	1.343268E+0	1.397526E+0	1.367923E+0	1.345853E+0	1.352215E+0	1.355160E+0	1.398144E+0	1.369375E+0	1.337785E+0	1.344547E+0	1.386619E+0	1.343788E+0	1.345950E+0	1.366242E+0	1.372259E+0	1.331165E+0	1.374186E+0	1.421559E+0	1.401975E+0	1.337512E+0	1.319086E+0	1.350490E+0	1.362429E+0	1.375319E+0	1.287989E+0	1.315308E+0	1.335655E+0	1.361568E+0	1.299794E+0	1.288379E+0	1.320374E+0	1.318744E+0	1.342043E+0	1.393215E+0	1.427978E+0	1.327421E+0	1.377060E+0	1.340163E+0	1.394897E+0	1.386928E+0	1.365110E+0	1.327821E+0	1.314773E+0	1.344205E+0	1.308277E+0	1.387465E+0	1.393264E+0	1.351951E+0	1.352435E+0	1.445106E+0	1.353422E+0	1.358137E+0	1.358778E+0	1.361014E+0	1.315670E+0	1.326550E+0	1.374794E+0	1.376817E+0	1.337733E+0	1.401607E+0	1.324785E+0	1.385637E+0	1.349814E+0	1.359532E+0	1.346111E+0	1.350132E+0	1.347634E+0	1.376404E+0	1.322619E+0	1.343354E+0	1.370654E+0	1.352659E+0	1.318710E+0	1.373398E+0	1.333118E+0	1.325871E+0	1.366018E+0	1.322814E+0	1.367215E+0	1.401819E+0	1.311147E+0	1.360352E+0	1.366341E+0	1.314398E+0	1.364772E+0	1.301538E+0	1.326979E+0	1.406651E+0	1.383871E+0	1.386797E+0	1.344760E+0	1.420723E+0	1.368873E+0	1.336184E+0	1.389707E+0	1.342450E+0	1.303866E+0	1.384849E+0	1.410241E+0	1.372621E+0	1.277537E+0	1.216814E+0
5.497960E+2	1.388020E+0	1.344786E+0	1.344435E+0	1.371045E+0	1.356976E+0	1.396150E+0	1.386735E+0	1.410034E+0	1.362094E+0	1.352399E+0	1.372340E+0	1.371850E+0	1.336603E+0	1.379116E+0	1.321967E+0	1.372906E+0	1.336237E+0	1.404960E+0	1.351836E+0	1.357003E+0	1.331881E+0	1.311236E+0	1.355347E+0	1.368815E+0	1.373281E+0	1.339698E+0	1.366757E+0	1.356049E+0	1.388545E+0	1.316426E+0	1.313402E+0	1.346477E+0	1.359529E+0	1.329842E+0	1.343969E+0	1.360394E+0	1.368293E+0	1.331530E+0	1.353587E+0	1.297979E+0	1.361053E+0	1.335473E+0	1.354108E+0	1.370936E+0	1.301824E+0	1.319439E+0	1.352123E+0	1.371365E+0	1.365126E+0	1.327293E+0	1.386723E+0	1.320693E+0	1.358767E+0	1.322864E+0	1.358652E+0	1.327888E+0	1.350833E+0	1.343953E+0	1.354203E+0	1.368022E+0	1.345745E+0	1.401935E+0	1.356654E+0	1.343653E+0	1.414075E+0	1.329374E+0	1.369286E+0	1.338828E+0	1.317903E+0	1.341603E+0	1.344532E+0	1.333786E+0	1.317846E+0	1.360901E+0	1.354811E+0	1.374416E+0	1.310246E+0	1.333075E+0	1.356076E+0	1.356598E+0	1.306950E+0	1.321107E+0	1.331946E+0	1.312329E+0	1.306906E+0	1.366557E+0	1.394044E+0	1.349920E+0	1.347814E+0	1.358554E+0	1.343577E+0	1.325658E+0	1.300781E+0	1.311173E+0	1.307022E+0	1.356266E+0	1.265639E+0	1.320580E+0	1.318624E+0	1.298244E+0	1.374896E+0	1.347965E+0	1.356515E+0	1.412072E+0	1.369421E+0	1.330537E+0	1.279963E+0	1.397060E+0	1.347029E+0	1.329325E+0	1.344896E+0	1.364372E+0	1.317391E+0	1.340900E+0	1.351975E+0	1.348395E+0	1.384810E+0	1.276190E+0	1.390626E+0	1.372083E+0	1.321342E+0	1.349753E+0	1.335303E+0	1.396450E+0	1.364893E+0	1.358149E+0	1.323510E+0	1.357061E+0	1.355342E+0	1.325531E+0	1.322592E+0	1.347146E+0	1.319660E+0	1.307856E+0	1.351257E+0	1.301633E+0	1.386057E+0	1.352547E+0	1.335606E+0	1.324583E+0	1.329375E+0	1.276946E+0	1.348345E+0	1.341564E+0	1.301173E+0	1.380886E+0	1.350772E+0	1.320639E+0	1.302298E+0	1.267333E+0	1.400109E+0	1.327084E+0	1.343198E+0	1.358004E+0	1.344004E+0	1.357204E+0	1.373695E+0	1.340583E+0	1.337867E+0	1.357057E+0	1.296151E+0	1.337884E+0	1.371831E+0	1.322269E+0	1.328182E+0	1.365403E+0	1.327982E+0	1.374829E+0	1.347078E+0	1.235738E+0	1.388167E+0
5.505110E+2	1.346141E+0	1.320283E+0	1.379617E+0	1.355593E+0	1.312520E+0	1.356324E+0	1.317819E+0	1.326765E+0	1.289828E+0	1.300855E+0	1.336998E+0	1.347440E+0	1.337932E+0	1.334015E+0	1.342680E+0	1.334752E+0	1.328682E+0	1.314594E+0	1.314557E+0	1.344324E+0	1.296824E+0	1.295314E+0	1.347912E+0	1.368484E+0	1.334144E+0	1.291250E+0	1.309026E+0	1.374510E+0	1.343582E+0	1.292613E+0	1.341808E+0	1.312302E+0	1.359321E+0	1.293752E+0	1.330757E+0	1.345278E+0	1.342737E+0	1.303424E+0	1.316800E+0	1.323283E+0	1.368701E+0	1.294758E+0	1.332567E+0	1.339709E+0	1.347339E+0	1.335799E+0	1.328826E+0	1.353499E+0	1.292619E+0	1.283129E+0	1.338045E+0	1.388866E+0	1.262631E+0	1.315684E+0	1.316916E+0	1.273196E+0	1.320283E+0	1.309903E+0	1.318575E+0	1.339115E+0	1.337729E+0	1.341964E+0	1.354127E+0	1.359745E+0	1.316755E+0	1.329051E+0	1.302567E+0	1.307989E+0	1.372858E+0	1.350889E+0	1.323109E+0	1.312626E+0	1.301671E+0	1.315992E+0	1.294429E+0	1.347428E+0	1.312021E+0	1.316790E+0	1.317503E+0	1.330205E+0	1.327196E+0	1.336004E+0	1.328774E+0	1.315080E+0	1.263546E+0	1.332301E+0	1.302300E+0	1.352534E+0	1.307864E+0	1.286883E+0	1.325040E+0	1.320220E+0	1.348724E+0	1.302537E+0	1.322792E+0	1.354114E+0	1.347627E+0	1.267037E+0	1.305671E+0	1.319149E+0	1.288647E+0	1.327885E+0	1.334364E+0	1.315049E+0	1.320811E+0	1.340244E+0	1.295854E+0	1.317351E+0	1.304604E+0	1.320682E+0	1.325267E+0	1.304898E+0	1.293584E+0	1.324551E+0	1.261337E+0	1.311856E+0	1.319659E+0	1.326088E+0	1.308208E+0	1.304206E+0	1.329365E+0	1.352530E+0	1.289346E+0	1.339060E+0	1.295583E+0	1.288868E+0	1.303060E+0	1.367453E+0	1.309171E+0	1.307914E+0	1.343628E+0	1.258746E+0	1.314025E+0	1.356192E+0	1.347315E+0	1.324565E+0	1.335766E+0	1.313113E+0	1.307086E+0	1.333161E+0	1.264518E+0	1.326333E+0	1.339692E+0	1.324792E+0	1.307834E+0	1.354445E+0	1.302805E+0	1.345073E+0	1.360519E+0	1.294409E+0	1.295955E+0	1.306321E+0	1.343719E+0	1.366327E+0	1.310546E+0	1.325674E+0	1.333780E+0	1.327038E+0	1.301677E+0	1.290514E+0	1.295960E+0	1.309157E+0	1.305598E+0	1.320029E+0	1.303097E+0	1.288677E+0	1.286317E+0	1.322527E+0	1.303985E+0	1.292965E+0	1.326346E+0
5.512510E+2	1.314489E+0	1.336741E+0	1.337844E+0	1.317628E+0	1.276653E+0	1.362926E+0	1.298881E+0	1.324507E+0	1.281882E+0	1.267427E+0	1.265276E+0	1.297248E+0	1.325858E+0	1.330154E+0	1.283022E+0	1.315958E+0	1.282126E+0	1.261204E+0	1.294036E+0	1.352040E+0	1.284576E+0	1.328050E+0	1.274908E+0	1.289627E+0	1.305811E+0	1.268175E+0	1.285084E+0	1.325281E+0	1.306744E+0	1.262931E+0	1.292270E+0	1.313324E+0	1.359880E+0	1.284812E+0	1.319342E+0	1.324027E+0	1.307692E+0	1.279592E+0	1.293608E+0	1.296431E+0	1.330159E+0	1.309895E+0	1.326348E+0	1.266822E+0	1.321098E+0	1.281537E+0	1.313498E+0	1.301913E+0	1.284407E+0	1.294491E+0	1.338102E+0	1.215786E+0	1.277969E+0	1.337725E+0	1.318024E+0	1.332473E+0	1.329637E+0	1.253462E+0	1.256682E+0	1.307438E+0	1.292065E+0	1.274468E+0	1.285593E+0	1.318952E+0	1.282068E+0	1.291171E+0	1.274173E+0	1.335502E+0	1.330433E+0	1.294265E+0	1.283244E+0	1.279728E+0	1.311463E+0	1.246437E+0	1.276289E+0	1.260304E+0	1.304154E+0	1.275270E+0	1.255835E+0	1.277051E+0	1.303264E+0	1.265992E+0	1.318178E+0	1.330408E+0	1.291235E+0	1.259890E+0	1.320881E+0	1.304551E+0	1.279336E+0	1.282104E+0	1.277484E+0	1.284836E+0	1.284883E+0	1.294010E+0	1.321565E+0	1.286246E+0	1.285168E+0	1.302383E+0	1.238581E+0	1.309326E+0	1.249916E+0	1.294580E+0	1.279059E+0	1.341493E+0	1.269272E+0	1.277095E+0	1.270595E+0	1.362031E+0	1.312302E+0	1.316710E+0	1.280504E+0	1.331936E+0	1.286801E+0	1.287126E+0	1.273461E+0	1.349202E+0	1.252623E+0	1.256418E+0	1.308557E+0	1.294719E+0	1.307553E+0	1.252728E+0	1.290007E+0	1.330572E+0	1.329370E+0	1.287762E+0	1.318633E+0	1.323680E+0	1.326956E+0	1.266084E+0	1.263763E+0	1.304990E+0	1.290398E+0	1.266150E+0	1.308029E+0	1.284769E+0	1.285649E+0	1.289112E+0	1.268866E+0	1.348793E+0	1.295242E+0	1.246970E+0	1.279519E+0	1.298178E+0	1.272904E+0	1.269706E+0	1.266412E+0	1.314765E+0	1.320025E+0	1.233736E+0	1.266069E+0	1.344207E+0	1.266269E+0	1.292888E+0	1.254971E+0	1.271759E+0	1.323783E+0	1.268181E+0	1.289412E+0	1.340967E+0	1.292261E+0	1.272825E+0	1.269147E+0	1.329286E+0	1.266706E+0	1.300933E+0	1.253809E+0	1.335411E+0	1.242339E+0	1.338232E+0	1.346205E+0
5.520210E+2	1.262664E+0	1.293535E+0	1.299033E+0	1.244159E+0	1.282192E+0	1.246119E+0	1.323675E+0	1.267910E+0	1.233563E+0	1.236960E+0	1.242919E+0	1.263421E+0	1.253881E+0	1.209169E+0	1.206282E+0	1.271411E+0	1.259962E+0	1.213670E+0	1.268999E+0	1.279899E+0	1.253613E+0	1.250460E+0	1.238035E+0	1.281686E+0	1.256341E+0	1.282481E+0	1.239290E+0	1.277254E+0	1.252721E+0	1.260678E+0	1.223552E+0	1.290201E+0	1.304106E+0	1.233718E+0	1.260129E+0	1.259416E+0	1.215109E+0	1.226375E+0	1.266468E+0	1.292697E+0	1.290707E+0	1.225584E+0	1.274778E+0	1.223100E+0	1.252402E+0	1.283756E+0	1.255548E+0	1.252020E+0	1.227163E+0	1.257905E+0	1.281171E+0	1.278211E+0	1.259102E+0	1.218587E+0	1.297951E+0	1.244118E+0	1.231784E+0	1.232486E+0	1.263860E+0	1.225773E+0	1.272645E+0	1.268308E+0	1.257669E+0	1.286119E+0	1.250411E+0	1.242977E+0	1.236144E+0	1.283285E+0	1.258809E+0	1.193208E+0	1.245349E+0	1.290658E+0	1.249716E+0	1.275105E+0	1.233063E+0	1.241413E+0	1.227604E+0	1.221899E+0	1.219838E+0	1.222208E+0	1.261812E+0	1.264534E+0	1.259820E+0	1.262344E+0	1.256364E+0	1.211900E+0	1.246739E+0	1.286168E+0	1.219779E+0	1.243290E+0	1.275249E+0	1.286956E+0	1.281338E+0	1.231574E+0	1.267633E+0	1.253698E+0	1.249805E+0	1.257781E+0	1.207222E+0	1.252178E+0	1.244387E+0	1.220969E+0	1.227604E+0	1.271636E+0	1.249774E+0	1.278219E+0	1.252546E+0	1.203180E+0	1.296051E+0	1.273872E+0	1.217963E+0	1.269195E+0	1.250987E+0	1.223257E+0	1.258603E+0	1.301577E+0	1.228237E+0	1.250300E+0	1.265616E+0	1.312930E+0	1.257081E+0	1.209895E+0	1.188074E+0	1.304180E+0	1.188444E+0	1.222092E+0	1.256548E+0	1.257559E+0	1.288476E+0	1.251522E+0	1.241388E+0	1.257662E+0	1.264958E+0	1.236823E+0	1.247559E+0	1.224717E+0	1.294010E+0	1.233585E+0	1.216613E+0	1.274031E+0	1.209885E+0	1.241371E+0	1.226929E+0	1.253281E+0	1.239883E+0	1.281709E+0	1.244827E+0	1.242217E+0	1.273642E+0	1.235732E+0	1.233994E+0	1.287174E+0	1.229498E+0	1.259774E+0	1.272499E+0	1.225441E+0	1.256736E+0	1.219535E+0	1.276211E+0	1.231523E+0	1.200165E+0	1.253089E+0	1.276387E+0	1.258655E+0	1.198582E+0	1.231619E+0	1.245783E+0	1.278932E+0	1.218071E+0	1.242692E+0	1.209231E+0
5.527590E+2	1.238706E+0	1.262981E+0	1.224548E+0	1.201516E+0	1.236912E+0	1.204456E+0	1.253245E+0	1.254656E+0	1.206872E+0	1.264751E+0	1.177323E+0	1.245047E+0	1.259741E+0	1.187224E+0	1.200513E+0	1.256790E+0	1.199530E+0	1.191234E+0	1.213117E+0	1.236960E+0	1.208062E+0	1.240233E+0	1.215354E+0	1.244905E+0	1.174697E+0	1.203487E+0	1.215954E+0	1.274056E+0	1.229887E+0	1.201984E+0	1.235588E+0	1.173721E+0	1.210016E+0	1.260704E+0	1.218162E+0	1.198667E+0	1.216681E+0	1.195142E+0	1.203468E+0	1.233057E+0	1.237589E+0	1.192441E+0	1.194625E+0	1.272639E+0	1.200544E+0	1.199684E+0	1.212398E+0	1.262373E+0	1.212271E+0	1.207087E+0	1.250563E+0	1.221983E+0	1.188762E+0	1.206178E+0	1.209811E+0	1.226422E+0	1.263970E+0	1.224182E+0	1.226957E+0	1.246517E+0	1.193736E+0	1.199186E+0	1.179281E+0	1.236557E+0	1.234355E+0	1.183374E+0	1.201557E+0	1.192238E+0	1.240121E+0	1.218033E+0	1.160531E+0	1.192198E+0	1.223766E+0	1.197971E+0	1.207601E+0	1.231399E+0	1.232091E+0	1.219143E+0	1.215188E+0	1.225160E+0	1.180224E+0	1.206601E+0	1.244141E+0	1.194287E+0	1.237901E+0	1.194817E+0	1.206750E+0	1.233485E+0	1.160871E+0	1.178308E+0	1.249657E+0	1.221024E+0	1.243659E+0	1.220629E+0	1.215178E+0	1.185091E+0	1.115353E+0	1.169215E+0	1.214908E+0	1.186681E+0	1.196752E+0	1.218988E+0	1.191477E+0	1.298958E+0	1.219087E+0	1.207847E+0	1.186432E+0	1.242041E+0	1.238381E+0	1.199536E+0	1.192935E+0	1.219466E+0	1.245076E+0	1.207126E+0	1.155128E+0	1.274399E+0	1.209549E+0	1.226802E+0	1.217864E+0	1.199334E+0	1.196384E+0	1.230816E+0	1.208275E+0	1.268840E+0	1.219728E+0	1.175638E+0	1.155012E+0	1.210831E+0	1.215592E+0	1.203663E+0	1.193590E+0	1.186635E+0	1.217650E+0	1.150567E+0	1.208517E+0	1.222019E+0	1.232203E+0	1.165739E+0	1.203842E+0	1.263002E+0	1.199200E+0	1.264777E+0	1.245726E+0	1.202472E+0	1.214379E+0	1.275896E+0	1.190661E+0	1.246231E+0	1.215182E+0	1.212431E+0	1.219101E+0	1.291134E+0	1.208156E+0	1.150825E+0	1.199963E+0	1.251487E+0	1.217926E+0	1.225287E+0	1.194469E+0	1.192333E+0	1.230052E+0	1.228432E+0	1.202887E+0	1.232892E+0	1.194346E+0	1.176945E+0	1.200853E+0	1.210389E+0	1.235546E+0	1.192620E+0	1.293428E+0
5.535490E+2	1.200480E+0	1.156819E+0	1.215747E+0	1.174340E+0	1.177866E+0	1.190908E+0	1.197886E+0	1.211756E+0	1.135678E+0	1.160459E+0	1.150899E+0	1.156938E+0	1.215245E+0	1.115022E+0	1.157955E+0	1.166009E+0	1.216515E+0	1.199005E+0	1.166611E+0	1.140343E+0	1.221780E+0	1.220597E+0	1.153385E+0	1.189370E+0	1.198280E+0	1.159402E+0	1.172345E+0	1.197347E+0	1.189759E+0	1.171522E+0	1.201258E+0	1.158625E+0	1.233564E+0	1.176535E+0	1.238275E+0	1.153030E+0	1.173388E+0	1.159096E+0	1.182111E+0	1.157782E+0	1.220360E+0	1.135309E+0	1.190966E+0	1.141710E+0	1.148863E+0	1.202923E+0	1.094329E+0	1.235133E+0	1.122324E+0	1.131863E+0	1.144348E+0	1.162917E+0	1.184364E+0	1.176104E+0	1.185723E+0	1.203314E+0	1.182756E+0	1.171642E+0	1.160809E+0	1.162976E+0	1.134593E+0	1.177198E+0	1.184500E+0	1.170994E+0	1.192182E+0	1.156555E+0	1.163213E+0	1.171100E+0	1.138092E+0	1.151493E+0	1.167302E+0	1.213256E+0	1.194295E+0	1.141699E+0	1.081499E+0	1.190547E+0	1.151282E+0	1.132632E+0	1.112598E+0	1.189178E+0	1.165617E+0	1.199914E+0	1.164026E+0	1.155935E+0	1.148033E+0	1.226026E+0	1.158666E+0	1.155337E+0	1.182255E+0	1.149222E+0	1.189418E+0	1.149744E+0	1.139148E+0	1.142279E+0	1.167934E+0	1.163330E+0	1.129190E+0	1.131915E+0	1.150992E+0	1.155047E+0	1.122399E+0	1.165100E+0	1.102858E+0	1.193319E+0	1.143712E+0	1.166403E+0	1.106936E+0	1.148742E+0	1.119969E+0	1.150371E+0	1.134273E+0	1.193817E+0	1.194457E+0	1.170048E+0	1.193187E+0	1.206648E+0	1.132655E+0	1.178930E+0	1.158805E+0	1.199899E+0	1.142900E+0	1.157043E+0	1.194106E+0	1.163410E+0	1.164768E+0	1.137343E+0	1.144528E+0	1.154978E+0	1.191351E+0	1.149425E+0	1.169992E+0	1.155131E+0	1.153500E+0	1.153591E+0	1.110329E+0	1.197009E+0	1.198160E+0	1.118513E+0	1.160168E+0	1.162505E+0	1.146772E+0	1.135870E+0	1.149516E+0	1.107902E+0	1.166009E+0	1.155059E+0	1.129875E+0	1.175574E+0	1.175641E+0	1.144021E+0	1.161282E+0	1.145465E+0	1.200424E+0	1.170708E+0	1.152635E+0	1.205742E+0	1.152272E+0	1.111603E+0	1.153055E+0	1.183659E+0	1.187919E+0	1.122405E+0	1.157547E+0	1.155968E+0	1.168369E+0	1.143270E+0	1.106014E+0	1.233829E+0	1.208229E+0	1.113704E+0	1.067249E+0
5.542580E+2	1.113898E+0	1.075846E+0	1.123957E+0	1.103429E+0	1.102677E+0	1.082302E+0	1.096604E+0	1.063585E+0	1.091016E+0	1.071564E+0	1.136288E+0	1.077396E+0	1.083805E+0	1.073329E+0	1.081404E+0	1.069347E+0	1.113126E+0	1.081118E+0	1.074376E+0	1.119688E+0	1.150290E+0	1.069395E+0	1.079420E+0	1.088320E+0	1.127056E+0	1.092249E+0	1.072483E+0	1.073311E+0	1.132312E+0	1.084892E+0	1.122398E+0	1.121542E+0	1.150306E+0	1.080732E+0	1.101765E+0	1.092863E+0	1.137586E+0	1.075600E+0	1.112014E+0	1.081889E+0	1.095919E+0	1.120460E+0	1.106964E+0	1.076266E+0	1.110988E+0	1.094079E+0	1.108164E+0	1.116208E+0	1.103015E+0	1.083435E+0	1.072908E+0	1.015913E+0	1.074993E+0	1.071415E+0	1.086073E+0	1.083021E+0	1.144517E+0	1.142986E+0	1.107314E+0	1.081979E+0	1.074619E+0	1.104972E+0	1.095609E+0	1.097276E+0	1.109985E+0	1.065544E+0	1.111371E+0	1.130203E+0	1.130197E+0	1.077285E+0	1.095387E+0	1.153940E+0	1.078176E+0	1.101055E+0	1.087394E+0	1.092909E+0	1.108281E+0	1.092980E+0	1.096378E+0	1.101077E+0	1.091626E+0	1.133073E+0	1.108806E+0	1.120628E+0	1.047156E+0	1.086267E+0	1.097257E+0	1.072822E+0	1.086010E+0	1.060636E+0	1.087929E+0	1.125832E+0	1.076657E+0	1.115898E+0	1.151773E+0	1.126735E+0	1.078841E+0	1.087851E+0	1.115405E+0	1.097230E+0	1.069353E+0	1.116985E+0	1.117734E+0	1.108455E+0	1.131196E+0	1.119149E+0	1.105559E+0	1.068294E+0	1.110883E+0	1.099959E+0	1.046515E+0	1.091666E+0	1.062561E+0	1.057912E+0	1.035187E+0	1.116392E+0	1.078303E+0	1.069833E+0	1.121127E+0	1.086361E+0	1.104351E+0	1.057779E+0	1.118063E+0	1.094608E+0	1.100082E+0	1.071970E+0	1.108320E+0	1.083869E+0	1.139537E+0	1.090077E+0	1.107225E+0	1.085195E+0	1.115990E+0	1.094657E+0	1.090619E+0	1.088576E+0	1.117787E+0	1.121546E+0	1.076919E+0	1.138843E+0	1.140037E+0	1.097405E+0	1.094650E+0	1.080742E+0	1.072300E+0	1.086626E+0	1.088563E+0	1.060219E+0	1.107235E+0	1.113492E+0	1.114013E+0	1.106393E+0	1.096629E+0	1.109233E+0	1.108523E+0	1.118719E+0	1.103059E+0	1.115006E+0	1.115753E+0	1.075261E+0	1.133639E+0	1.072404E+0	1.084484E+0	1.088254E+0	1.094487E+0	1.093387E+0	1.048757E+0	1.184769E+0	1.072118E+0	1.085184E+0	1.131451E+0
5.550190E+2	1.044608E+0	1.046591E+0	1.043087E+0	1.015614E+0	1.031023E+0	1.032242E+0	9.998361E-1	1.015333E+0	9.769728E-1	1.046907E+0	1.077998E+0	1.011597E+0	9.775093E-1	1.010147E+0	1.006671E+0	1.026911E+0	1.035255E+0	1.041885E+0	1.019929E+0	1.006475E+0	1.012473E+0	1.062149E+0	1.037048E+0	1.015490E+0	1.018747E+0	1.019459E+0	1.008023E+0	1.007384E+0	1.065081E+0	1.048125E+0	1.034293E+0	1.058009E+0	1.029762E+0	1.075137E+0	1.010488E+0	1.002197E+0	1.012549E+0	1.017053E+0	1.029156E+0	1.048256E+0	1.055744E+0	9.865471E-1	1.049390E+0	1.052513E+0	1.010626E+0	1.000994E+0	1.005501E+0	1.032073E+0	1.006287E+0	1.013260E+0	1.068702E+0	1.009140E+0	1.043815E+0	9.799513E-1	1.046858E+0	1.011825E+0	1.062294E+0	1.011092E+0	1.029907E+0	9.766637E-1	1.058299E+0	1.008415E+0	1.037722E+0	1.034901E+0	1.008172E+0	9.799370E-1	1.032422E+0	1.007932E+0	1.005415E+0	9.982808E-1	1.021652E+0	1.047328E+0	1.000335E+0	1.031107E+0	1.009922E+0	1.024728E+0	1.035933E+0	9.709880E-1	1.007329E+0	1.051567E+0	1.049788E+0	9.922353E-1	1.020942E+0	9.830688E-1	1.032242E+0	9.902652E-1	1.069154E+0	1.020418E+0	1.026492E+0	9.945859E-1	1.019298E+0	1.060367E+0	1.055345E+0	1.008582E+0	1.048898E+0	1.002919E+0	1.007913E+0	1.015525E+0	1.023894E+0	1.049921E+0	9.944023E-1	1.057550E+0	1.016299E+0	1.046158E+0	1.007889E+0	1.060746E+0	1.008275E+0	1.085762E+0	1.038704E+0	1.020804E+0	1.033004E+0	1.005625E+0	1.054480E+0	9.997751E-1	1.038220E+0	9.914793E-1	1.048703E+0	1.004969E+0	1.040131E+0	1.033131E+0	9.570988E-1	9.942492E-1	1.038568E+0	9.879959E-1	1.032745E+0	9.715774E-1	1.059608E+0	1.031256E+0	1.037166E+0	1.048754E+0	1.078280E+0	1.016858E+0	1.052322E+0	1.052425E+0	1.032144E+0	1.005285E+0	1.085620E+0	1.046072E+0	1.020643E+0	1.077918E+0	1.036153E+0	1.014078E+0	1.070040E+0	1.015523E+0	1.047697E+0	1.045639E+0	1.041680E+0	1.043996E+0	1.003134E+0	1.033247E+0	1.078429E+0	1.037156E+0	1.064479E+0	1.041962E+0	1.027682E+0	1.012411E+0	9.569790E-1	1.017139E+0	1.028991E+0	1.067423E+0	1.049767E+0	1.019179E+0	1.001841E+0	1.029230E+0	1.048020E+0	1.018110E+0	9.962711E-1	1.015700E+0	1.025401E+0	9.942642E-1	1.000858E+0
5.557600E+2	9.745737E-1	1.016694E+0	9.502149E-1	9.563719E-1	9.547395E-1	9.645608E-1	9.626095E-1	9.792820E-1	9.725811E-1	9.853127E-1	9.624925E-1	9.358847E-1	9.905914E-1	9.787294E-1	9.340434E-1	9.635118E-1	9.328806E-1	9.440934E-1	1.000909E+0	9.649410E-1	9.844727E-1	9.334938E-1	1.009800E+0	9.694273E-1	9.382071E-1	9.839670E-1	9.788893E-1	9.499258E-1	9.847039E-1	9.542585E-1	9.682649E-1	9.807979E-1	9.581425E-1	9.651366E-1	9.503618E-1	9.445262E-1	9.636760E-1	9.391146E-1	9.496185E-1	9.786754E-1	9.675605E-1	9.218591E-1	9.934364E-1	1.008899E+0	9.659211E-1	1.000470E+0	9.703877E-1	9.886578E-1	9.809353E-1	9.638233E-1	9.505794E-1	9.761469E-1	9.798647E-1	1.002381E+0	9.774197E-1	9.875438E-1	9.980608E-1	9.518455E-1	9.608734E-1	9.880521E-1	1.005443E+0	1.020082E+0	9.561658E-1	9.456828E-1	9.785627E-1	9.217163E-1	9.650078E-1	9.584973E-1	1.004618E+0	9.746810E-1	9.569048E-1	9.824733E-1	9.480760E-1	9.745463E-1	9.641316E-1	9.636682E-1	9.708556E-1	9.216885E-1	9.630341E-1	9.869749E-1	9.770951E-1	1.008935E+0	9.292741E-1	9.538682E-1	9.459328E-1	9.651299E-1	9.918347E-1	9.819696E-1	9.545232E-1	9.495885E-1	9.982793E-1	9.392905E-1	9.338032E-1	9.720278E-1	9.960262E-1	9.511992E-1	9.713071E-1	9.357663E-1	9.505675E-1	9.870966E-1	9.649779E-1	9.633065E-1	9.288171E-1	9.441350E-1	9.601855E-1	1.009732E+0	9.398780E-1	9.689981E-1	9.894787E-1	9.887090E-1	9.528818E-1	1.002214E+0	9.393299E-1	9.409369E-1	9.498445E-1	9.765522E-1	9.557526E-1	9.736486E-1	1.001190E+0	9.568491E-1	9.273683E-1	9.954274E-1	9.569488E-1	9.364610E-1	9.339238E-1	9.349786E-1	9.850411E-1	9.692412E-1	9.451153E-1	9.837584E-1	1.004551E+0	9.367631E-1	1.010944E+0	9.471767E-1	9.495463E-1	9.479213E-1	9.633486E-1	9.302050E-1	9.450464E-1	9.904210E-1	9.494864E-1	9.791333E-1	9.712541E-1	9.519028E-1	1.004903E+0	9.080804E-1	9.589868E-1	9.593470E-1	9.743738E-1	9.526665E-1	9.796111E-1	9.563276E-1	1.013219E+0	1.020771E+0	9.146030E-1	9.770581E-1	1.001103E+0	9.068460E-1	9.450359E-1	9.748753E-1	9.799455E-1	9.945554E-1	9.635809E-1	9.238457E-1	9.296458E-1	9.804301E-1	9.554033E-1	9.795210E-1	9.699773E-1	9.404925E-1	9.240109E-1
5.560190E+2	9.681697E-1	9.182008E-1	9.718140E-1	9.872246E-1	9.585049E-1	9.385639E-1	9.400105E-1	9.235994E-1	8.977401E-1	9.045131E-1	9.707758E-1	9.632855E-1	9.420824E-1	9.361246E-1	9.250305E-1	9.284544E-1	9.352182E-1	9.426124E-1	9.667589E-1	9.687568E-1	9.042569E-1	9.483118E-1	9.190256E-1	9.470512E-1	9.767707E-1	9.169634E-1	9.818682E-1	9.360792E-1	9.677704E-1	9.354977E-1	9.040114E-1	9.062515E-1	9.584928E-1	9.651524E-1	9.482258E-1	9.434873E-1	9.697547E-1	9.100770E-1	9.264347E-1	9.293778E-1	9.402730E-1	9.915362E-1	9.660756E-1	9.461156E-1	9.756677E-1	9.469213E-1	9.574745E-1	9.387039E-1	9.096960E-1	9.479308E-1	9.405534E-1	9.093513E-1	9.221526E-1	9.295234E-1	9.543110E-1	9.691484E-1	9.336333E-1	9.449773E-1	9.371247E-1	9.296768E-1	9.676868E-1	9.878216E-1	9.464573E-1	9.896181E-1	1.001540E+0	9.349558E-1	9.299225E-1	9.622330E-1	9.513565E-1	9.150502E-1	9.611343E-1	9.596318E-1	9.526068E-1	9.420541E-1	9.179876E-1	9.069019E-1	9.535661E-1	9.748532E-1	9.093557E-1	9.308603E-1	9.408731E-1	9.742951E-1	9.092620E-1	9.163291E-1	9.376441E-1	9.979040E-1	9.616828E-1	9.368518E-1	9.169419E-1	9.320400E-1	9.717979E-1	9.056767E-1	9.243690E-1	9.262718E-1	9.267642E-1	9.656803E-1	9.815079E-1	8.803246E-1	9.628645E-1	9.820042E-1	9.476474E-1	9.550004E-1	9.700498E-1	9.285278E-1	9.355575E-1	9.551343E-1	9.473437E-1	9.583277E-1	9.367648E-1	9.662322E-1	9.276660E-1	9.353391E-1	9.496436E-1	9.468790E-1	9.207157E-1	9.849551E-1	9.637726E-1	8.894674E-1	9.619233E-1	9.642162E-1	9.441432E-1	9.540492E-1	9.516830E-1	1.014053E+0	9.599600E-1	9.293781E-1	9.166164E-1	9.341951E-1	9.320506E-1	9.516622E-1	9.689823E-1	9.330560E-1	9.915952E-1	9.614824E-1	9.236463E-1	9.231202E-1	9.685232E-1	8.988206E-1	9.188748E-1	9.287515E-1	9.323848E-1	9.479756E-1	9.551960E-1	8.997336E-1	9.379564E-1	9.099389E-1	9.282703E-1	9.328049E-1	9.525466E-1	9.681716E-1	9.777413E-1	9.349110E-1	9.871385E-1	9.817361E-1	9.103404E-1	9.729268E-1	9.585665E-1	9.389581E-1	9.543308E-1	9.038092E-1	9.835086E-1	9.501614E-1	1.000286E+0	9.277814E-1	9.408036E-1	9.635023E-1	9.612730E-1	9.740311E-1	9.957537E-1	9.853558E-1	9.399884E-1
5.565030E+2	9.573007E-1	9.590035E-1	9.369157E-1	9.676588E-1	9.158805E-1	9.730009E-1	9.605139E-1	9.553079E-1	9.392963E-1	9.561810E-1	9.373873E-1	9.462058E-1	9.643029E-1	9.442846E-1	9.246762E-1	9.815763E-1	9.469130E-1	9.739615E-1	9.342335E-1	9.239841E-1	9.562919E-1	9.763862E-1	9.707893E-1	9.170441E-1	9.894237E-1	9.503307E-1	9.511690E-1	9.524491E-1	9.994770E-1	9.276901E-1	9.658188E-1	9.503376E-1	9.097889E-1	9.068324E-1	9.286823E-1	9.310326E-1	9.623384E-1	9.277735E-1	9.850983E-1	9.516322E-1	9.689670E-1	9.771864E-1	9.519801E-1	9.466996E-1	9.299253E-1	9.621243E-1	9.920142E-1	9.650113E-1	9.456314E-1	9.352363E-1	9.203151E-1	9.988908E-1	9.682019E-1	9.401448E-1	9.057105E-1	9.587183E-1	9.820147E-1	9.249234E-1	9.225027E-1	9.622397E-1	9.874893E-1	9.407223E-1	9.070005E-1	9.309362E-1	9.178040E-1	9.189945E-1	9.669528E-1	9.488898E-1	9.527310E-1	9.585742E-1	9.439288E-1	9.353178E-1	9.417694E-1	9.484737E-1	9.585355E-1	9.489144E-1	9.960514E-1	9.869426E-1	9.587023E-1	9.758821E-1	9.683929E-1	9.481973E-1	9.611636E-1	9.199464E-1	9.435784E-1	9.216317E-1	9.570940E-1	9.617073E-1	9.261821E-1	1.007600E+0	9.555367E-1	9.711748E-1	9.543297E-1	9.640933E-1	9.114665E-1	9.335219E-1	9.518356E-1	9.337525E-1	9.675672E-1	9.520008E-1	9.514210E-1	9.594129E-1	9.643960E-1	9.068803E-1	9.455016E-1	9.374064E-1	9.321188E-1	9.046159E-1	9.502697E-1	9.617273E-1	9.715641E-1	9.599031E-1	9.713622E-1	9.396024E-1	9.277110E-1	9.560528E-1	9.549862E-1	9.728487E-1	9.407202E-1	9.376396E-1	9.622986E-1	9.587194E-1	9.036586E-1	9.495083E-1	9.479548E-1	9.171068E-1	9.906078E-1	9.647392E-1	9.894870E-1	9.471660E-1	9.497689E-1	9.389044E-1	9.479277E-1	9.169933E-1	9.461051E-1	9.602700E-1	9.413026E-1	9.508651E-1	9.475730E-1	9.562323E-1	9.781041E-1	9.065312E-1	9.389028E-1	9.390093E-1	9.822742E-1	9.040493E-1	9.956347E-1	9.275669E-1	9.329927E-1	9.358514E-1	9.399555E-1	9.812485E-1	9.003739E-1	9.056657E-1	9.718363E-1	9.631389E-1	9.670510E-1	9.097151E-1	9.656726E-1	9.599324E-1	9.774171E-1	9.300102E-1	9.504698E-1	9.238772E-1	9.636115E-1	9.718695E-1	9.556559E-1	9.784520E-1	9.719989E-1	9.210057E-1	9.283458E-1
5.570500E+2	9.784356E-1	9.267744E-1	9.545676E-1	9.658716E-1	9.982846E-1	9.927694E-1	9.830555E-1	9.826620E-1	9.796637E-1	9.704131E-1	9.922117E-1	9.752373E-1	9.625454E-1	9.851665E-1	9.829358E-1	9.575583E-1	9.771216E-1	9.997341E-1	9.505169E-1	9.874089E-1	9.824809E-1	9.525739E-1	9.602603E-1	9.776881E-1	9.694736E-1	9.746331E-1	9.930355E-1	9.903867E-1	9.750894E-1	9.957146E-1	9.622933E-1	9.822011E-1	9.606894E-1	9.680946E-1	9.822799E-1	9.772690E-1	9.856049E-1	1.015468E+0	9.747769E-1	9.654378E-1	1.021533E+0	9.770884E-1	9.377153E-1	9.768649E-1	9.936015E-1	9.736565E-1	9.509345E-1	9.961058E-1	9.888551E-1	9.840014E-1	9.979817E-1	9.495405E-1	9.497545E-1	9.810351E-1	9.619458E-1	1.014585E+0	9.770869E-1	9.526751E-1	9.559724E-1	1.004950E+0	9.849634E-1	9.666526E-1	1.000697E+0	9.838568E-1	1.016746E+0	1.000900E+0	1.014002E+0	9.913477E-1	9.823655E-1	9.926758E-1	9.842432E-1	9.959414E-1	9.577940E-1	9.862304E-1	9.651717E-1	9.984231E-1	9.462315E-1	9.906951E-1	9.752594E-1	9.862675E-1	9.651931E-1	9.875399E-1	9.751920E-1	9.843131E-1	9.247154E-1	9.568930E-1	9.527116E-1	1.010215E+0	9.888331E-1	9.250267E-1	9.809343E-1	9.561489E-1	1.013118E+0	9.972426E-1	9.880189E-1	9.559682E-1	9.925439E-1	9.748204E-1	1.003734E+0	9.997154E-1	9.955959E-1	9.333216E-1	9.557081E-1	9.893573E-1	9.688689E-1	9.566196E-1	9.975762E-1	9.898292E-1	9.537863E-1	1.008237E+0	9.309027E-1	1.013210E+0	9.812118E-1	9.850944E-1	9.838823E-1	9.873725E-1	9.458172E-1	9.647246E-1	9.639257E-1	9.822151E-1	9.657429E-1	9.897613E-1	9.423986E-1	9.861139E-1	9.788347E-1	9.832120E-1	9.795296E-1	9.668273E-1	9.732325E-1	9.713298E-1	9.791702E-1	9.769026E-1	9.510692E-1	9.689358E-1	9.659299E-1	9.833096E-1	9.686721E-1	9.896548E-1	9.768118E-1	9.557382E-1	9.635106E-1	1.016645E+0	9.749821E-1	9.913534E-1	9.825936E-1	9.470824E-1	9.593618E-1	9.287317E-1	9.865614E-1	9.538714E-1	9.709361E-1	9.828348E-1	9.999117E-1	1.005759E+0	1.003275E+0	9.786595E-1	9.753531E-1	9.529011E-1	9.755201E-1	9.378442E-1	9.740148E-1	9.873727E-1	9.453307E-1	9.868820E-1	9.680803E-1	9.858430E-1	1.000419E+0	9.805621E-1	9.709724E-1	9.993276E-1	9.647695E-1
5.575700E+2	9.841982E-1	1.049775E+0	1.031607E+0	1.001061E+0	9.839665E-1	1.046685E+0	9.922699E-1	9.972131E-1	9.821805E-1	9.716816E-1	9.947281E-1	1.007303E+0	1.030165E+0	1.014258E+0	9.727664E-1	9.978048E-1	1.014917E+0	1.004539E+0	1.019233E+0	9.700638E-1	1.019426E+0	1.018333E+0	1.058250E+0	1.021792E+0	9.883320E-1	1.033954E+0	9.625994E-1	1.026113E+0	1.048590E+0	9.775317E-1	1.025400E+0	9.944716E-1	1.028260E+0	1.018837E+0	1.000507E+0	1.015295E+0	9.866303E-1	9.959124E-1	9.328798E-1	9.965620E-1	9.944353E-1	1.001716E+0	1.012871E+0	1.017037E+0	1.041011E+0	1.001510E+0	9.373707E-1	1.029133E+0	1.000630E+0	9.882138E-1	9.827800E-1	9.668146E-1	1.023727E+0	1.027335E+0	1.013477E+0	1.007185E+0	9.954966E-1	1.018581E+0	9.788896E-1	1.021794E+0	9.997334E-1	9.610240E-1	9.866981E-1	1.025905E+0	9.769261E-1	1.037433E+0	1.000720E+0	1.031699E+0	1.054472E+0	1.008290E+0	1.018488E+0	1.000299E+0	9.832501E-1	9.889026E-1	9.843293E-1	1.041674E+0	1.015683E+0	1.000913E+0	1.001421E+0	1.026824E+0	9.972879E-1	1.001556E+0	1.014234E+0	1.025660E+0	1.018541E+0	9.809788E-1	1.008188E+0	1.025811E+0	1.020990E+0	1.024113E+0	1.019939E+0	1.014358E+0	9.917546E-1	1.005789E+0	1.015576E+0	1.040840E+0	9.948712E-1	1.007677E+0	1.005916E+0	1.022136E+0	9.870361E-1	1.010395E+0	9.690084E-1	1.028009E+0	1.005958E+0	1.013551E+0	1.014961E+0	1.020071E+0	1.017107E+0	1.011960E+0	1.009974E+0	1.027738E+0	9.933369E-1	9.652808E-1	9.937472E-1	1.034011E+0	9.945507E-1	1.003030E+0	1.024285E+0	1.016475E+0	1.008080E+0	1.033504E+0	1.049346E+0	9.938129E-1	1.036655E+0	9.865634E-1	1.007114E+0	9.681123E-1	1.025219E+0	1.015391E+0	1.029749E+0	1.010393E+0	9.937952E-1	1.041744E+0	9.897544E-1	1.026270E+0	9.985039E-1	1.019183E+0	1.034680E+0	1.024901E+0	1.009669E+0	9.661386E-1	9.549559E-1	9.947047E-1	9.911104E-1	9.748275E-1	9.912738E-1	1.024199E+0	9.987130E-1	1.038616E+0	1.068028E+0	9.935565E-1	9.889726E-1	9.716033E-1	9.879537E-1	1.040665E+0	1.020576E+0	1.001043E+0	9.939528E-1	1.000017E+0	1.040337E+0	1.008353E+0	1.037198E+0	9.877604E-1	9.988770E-1	1.009203E+0	1.011034E+0	9.576965E-1	9.847466E-1	1.038905E+0	1.090450E+0
5.580230E+2	1.052423E+0	1.036090E+0	1.015631E+0	9.920484E-1	1.033859E+0	1.003999E+0	1.056896E+0	1.005105E+0	1.017165E+0	9.940947E-1	1.003591E+0	1.013629E+0	1.038931E+0	1.048514E+0	9.950261E-1	1.031607E+0	9.926176E-1	1.020999E+0	1.031433E+0	1.023445E+0	1.057790E+0	9.960969E-1	1.001438E+0	9.883060E-1	1.012076E+0	1.015990E+0	1.065638E+0	9.980535E-1	1.054587E+0	9.861628E-1	9.987612E-1	1.040453E+0	1.040632E+0	1.051951E+0	1.049606E+0	1.030041E+0	1.018275E+0	9.993119E-1	1.035843E+0	1.037484E+0	1.007825E+0	1.014441E+0	1.044178E+0	1.039571E+0	1.049287E+0	1.025408E+0	1.017862E+0	1.056042E+0	1.023783E+0	1.024120E+0	1.050996E+0	1.011403E+0	1.027703E+0	1.008973E+0	1.004129E+0	1.012292E+0	1.036920E+0	1.005843E+0	1.020528E+0	1.031781E+0	9.989114E-1	1.018665E+0	9.687422E-1	1.008747E+0	9.968990E-1	9.970884E-1	1.011382E+0	1.001430E+0	1.040043E+0	1.012687E+0	1.014777E+0	9.826931E-1	9.967729E-1	9.988150E-1	1.040586E+0	1.039678E+0	1.009853E+0	1.006135E+0	1.016773E+0	1.016205E+0	9.955288E-1	9.991467E-1	1.013677E+0	1.002561E+0	1.020160E+0	1.004025E+0	1.053945E+0	9.970722E-1	9.781037E-1	9.981365E-1	9.817854E-1	1.056037E+0	1.012245E+0	9.943291E-1	1.049681E+0	1.031669E+0	1.008885E+0	1.004372E+0	1.045414E+0	9.957059E-1	1.014751E+0	1.074105E+0	1.063185E+0	9.992972E-1	1.044090E+0	1.016298E+0	1.070672E+0	9.939657E-1	1.017082E+0	1.039218E+0	1.032083E+0	1.009815E+0	1.057563E+0	1.057679E+0	1.043397E+0	1.078365E+0	1.057312E+0	1.036775E+0	9.927805E-1	9.978133E-1	1.019370E+0	1.022163E+0	9.969293E-1	1.059072E+0	1.069922E+0	9.904012E-1	1.026128E+0	1.022195E+0	1.006859E+0	1.010632E+0	9.772393E-1	1.022737E+0	1.022529E+0	1.024458E+0	1.013619E+0	1.021279E+0	1.019347E+0	1.051857E+0	9.788790E-1	1.040640E+0	1.004227E+0	1.019653E+0	1.025108E+0	1.015506E+0	1.023220E+0	1.012536E+0	1.024509E+0	1.030166E+0	1.016068E+0	1.013434E+0	1.023023E+0	1.067949E+0	1.041013E+0	1.055223E+0	1.001245E+0	9.995256E-1	1.042221E+0	1.016967E+0	1.009858E+0	1.058041E+0	9.837052E-1	1.012840E+0	1.040178E+0	1.057055E+0	1.018988E+0	1.024978E+0	1.030458E+0	1.035725E+0	1.047383E+0	9.848138E-1	1.092359E+0
5.585160E+2	9.900953E-1	1.004686E+0	9.919524E-1	1.033848E+0	1.000584E+0	1.013430E+0	9.968788E-1	9.796846E-1	1.013851E+0	1.041993E+0	1.034518E+0	1.025203E+0	1.003383E+0	9.787434E-1	9.953933E-1	1.021689E+0	1.012236E+0	1.018758E+0	1.013479E+0	1.002497E+0	9.997755E-1	1.012965E+0	1.011062E+0	1.038830E+0	9.911397E-1	1.001942E+0	9.914684E-1	1.009435E+0	9.823923E-1	9.966107E-1	1.011523E+0	9.822211E-1	9.952954E-1	9.879996E-1	1.036227E+0	1.044739E+0	9.996895E-1	1.014603E+0	1.026424E+0	1.000452E+0	1.000473E+0	9.788711E-1	1.021676E+0	1.031965E+0	1.021075E+0	1.010386E+0	1.040100E+0	1.001833E+0	1.005583E+0	1.029690E+0	9.831187E-1	1.019109E+0	1.054401E+0	9.995821E-1	1.020066E+0	1.008466E+0	1.060104E+0	1.010366E+0	1.058773E+0	9.653396E-1	1.032654E+0	1.027980E+0	1.030366E+0	9.727403E-1	1.044562E+0	9.804924E-1	9.980606E-1	9.994065E-1	9.851589E-1	1.025116E+0	1.023300E+0	1.016666E+0	1.016766E+0	1.026541E+0	1.030358E+0	9.991931E-1	9.720935E-1	1.015945E+0	1.011628E+0	1.013345E+0	1.040858E+0	1.015989E+0	9.872406E-1	1.015746E+0	1.012974E+0	1.036858E+0	9.816576E-1	1.015597E+0	9.848028E-1	1.024402E+0	9.836640E-1	9.767628E-1	1.039670E+0	9.897457E-1	1.035295E+0	1.019079E+0	9.883066E-1	1.005266E+0	9.999820E-1	1.009741E+0	9.895413E-1	9.884667E-1	9.907833E-1	1.004955E+0	1.018230E+0	9.972581E-1	1.014423E+0	1.014346E+0	1.023453E+0	9.743414E-1	1.009261E+0	9.828432E-1	9.860001E-1	9.878125E-1	9.667624E-1	1.016692E+0	1.046011E+0	1.028939E+0	1.002671E+0	1.022188E+0	1.029005E+0	9.931557E-1	1.012029E+0	1.023604E+0	1.013406E+0	1.032105E+0	1.002081E+0	1.035481E+0	1.042555E+0	9.691098E-1	1.020235E+0	9.797976E-1	1.025152E+0	9.662395E-1	1.013375E+0	1.015718E+0	1.027498E+0	9.687663E-1	1.021242E+0	1.016722E+0	9.931909E-1	1.038050E+0	9.922767E-1	1.007701E+0	9.942113E-1	1.030692E+0	1.002454E+0	1.008606E+0	1.008609E+0	1.020542E+0	1.003558E+0	1.018875E+0	1.019251E+0	1.008439E+0	1.019384E+0	9.953223E-1	9.821742E-1	9.867310E-1	1.012588E+0	1.013408E+0	9.836888E-1	1.011908E+0	9.712950E-1	9.690533E-1	1.049520E+0	1.000224E+0	1.038949E+0	1.006700E+0	9.969612E-1	1.012213E+0	9.409678E-1
5.590100E+2	9.993149E-1	9.899476E-1	1.006546E+0	1.059233E+0	1.032490E+0	1.012512E+0	9.680609E-1	9.939420E-1	1.004257E+0	9.718352E-1	9.992923E-1	1.018568E+0	1.002731E+0	9.937478E-1	1.022261E+0	1.019835E+0	9.761332E-1	9.823058E-1	1.013432E+0	9.819476E-1	9.857699E-1	9.844646E-1	9.592122E-1	9.898241E-1	1.013474E+0	1.020758E+0	1.019667E+0	9.823166E-1	9.973277E-1	1.027166E+0	1.018486E+0	1.032648E+0	1.009443E+0	1.015482E+0	1.011751E+0	1.012788E+0	1.005831E+0	9.822700E-1	9.797368E-1	1.000347E+0	9.957671E-1	1.006671E+0	1.012135E+0	9.729912E-1	9.625964E-1	1.016202E+0	9.288542E-1	9.755856E-1	1.049600E+0	1.002219E+0	1.028847E+0	1.036936E+0	9.834819E-1	9.625824E-1	1.034480E+0	1.013607E+0	9.871337E-1	1.007281E+0	1.007985E+0	1.011290E+0	1.005299E+0	1.007025E+0	9.963872E-1	1.031874E+0	1.018531E+0	1.009261E+0	9.938888E-1	1.062935E+0	9.601191E-1	9.785775E-1	9.993328E-1	1.018648E+0	1.032084E+0	1.013381E+0	1.013171E+0	9.925024E-1	1.020428E+0	9.703989E-1	1.005061E+0	1.000688E+0	1.005902E+0	9.402375E-1	9.999423E-1	1.022961E+0	9.869528E-1	1.017543E+0	9.583493E-1	9.781859E-1	1.040853E+0	9.722949E-1	1.008446E+0	1.022949E+0	1.006802E+0	1.023784E+0	9.680777E-1	9.803335E-1	9.800479E-1	1.022019E+0	1.009569E+0	9.614414E-1	1.003294E+0	9.974860E-1	1.025507E+0	1.019076E+0	9.684660E-1	1.038818E+0	9.863872E-1	1.020777E+0	1.030325E+0	9.689036E-1	1.010084E+0	9.915034E-1	1.003239E+0	9.892040E-1	1.030405E+0	1.014096E+0	9.862820E-1	9.796980E-1	9.837068E-1	1.030513E+0	1.006490E+0	9.806201E-1	9.975822E-1	9.809043E-1	9.480322E-1	1.008168E+0	1.002328E+0	9.564725E-1	1.027699E+0	9.626422E-1	9.909660E-1	1.011745E+0	1.045458E+0	9.956669E-1	1.018960E+0	9.654625E-1	1.019532E+0	9.877195E-1	9.706991E-1	1.024469E+0	1.036085E+0	9.756549E-1	9.812822E-1	1.013393E+0	9.988775E-1	1.012997E+0	9.819834E-1	1.015518E+0	1.008286E+0	9.909307E-1	9.880501E-1	1.022319E+0	1.004629E+0	1.019660E+0	1.001249E+0	9.627187E-1	1.027978E+0	1.020130E+0	1.007387E+0	1.008937E+0	1.050888E+0	9.955263E-1	9.935931E-1	9.825055E-1	9.961966E-1	1.004447E+0	9.812413E-1	9.871829E-1	9.784007E-1	1.059722E+0	9.428825E-1
5.595390E+2	1.005021E+0	9.859234E-1	1.020140E+0	9.853827E-1	9.843617E-1	9.824116E-1	1.009356E+0	1.009388E+0	9.934962E-1	1.006309E+0	9.582127E-1	1.023854E+0	1.009654E+0	1.003209E+0	1.050685E+0	9.995852E-1	1.023347E+0	9.465741E-1	9.898536E-1	1.010263E+0	9.643221E-1	9.929771E-1	9.832810E-1	1.038843E+0	1.011526E+0	9.914287E-1	1.012391E+0	1.019426E+0	9.859325E-1	1.029709E+0	1.003764E+0	1.030108E+0	1.020104E+0	1.008002E+0	1.026075E+0	9.965136E-1	9.817508E-1	9.889324E-1	1.019225E+0	1.004680E+0	9.833174E-1	9.794532E-1	9.838812E-1	9.732956E-1	9.691740E-1	9.900818E-1	1.017582E+0	1.020228E+0	9.698020E-1	9.918158E-1	9.988769E-1	1.013563E+0	9.900194E-1	9.943110E-1	9.737116E-1	9.957274E-1	9.947965E-1	1.043155E+0	1.007401E+0	9.713420E-1	9.721768E-1	9.901411E-1	1.017666E+0	1.024036E+0	1.019687E+0	9.746814E-1	9.759110E-1	1.000680E+0	9.878921E-1	9.976005E-1	9.459117E-1	1.024691E+0	1.011818E+0	9.832181E-1	1.018762E+0	1.011636E+0	9.884959E-1	9.716977E-1	9.573539E-1	9.662222E-1	9.969407E-1	1.008391E+0	1.030428E+0	9.921412E-1	1.007869E+0	1.006264E+0	9.928777E-1	9.935769E-1	1.017257E+0	9.878200E-1	1.017549E+0	9.898864E-1	1.012704E+0	1.009854E+0	1.000173E+0	9.938965E-1	1.004939E+0	9.993885E-1	9.548090E-1	1.024013E+0	9.873806E-1	1.016167E+0	9.776518E-1	9.968078E-1	9.950176E-1	9.769097E-1	9.611735E-1	9.975719E-1	9.959622E-1	1.000784E+0	9.932958E-1	9.633073E-1	9.976937E-1	1.015935E+0	9.705470E-1	9.680244E-1	9.967090E-1	1.014584E+0	1.018062E+0	9.670756E-1	1.024514E+0	9.958662E-1	1.026932E+0	1.002112E+0	9.888301E-1	1.045354E+0	9.755810E-1	1.004180E+0	9.713727E-1	9.975662E-1	1.002335E+0	1.021215E+0	9.537586E-1	1.028455E+0	1.007352E+0	1.006806E+0	1.037115E+0	1.011211E+0	9.942190E-1	9.748485E-1	1.011252E+0	1.028697E+0	1.005566E+0	9.723328E-1	1.002543E+0	1.037970E+0	1.014375E+0	1.017216E+0	9.768188E-1	9.857745E-1	9.877452E-1	9.419563E-1	1.001493E+0	9.686691E-1	1.001090E+0	1.009952E+0	9.554585E-1	9.778439E-1	9.939075E-1	9.834426E-1	1.021981E+0	1.006132E+0	1.008550E+0	1.007292E+0	1.017595E+0	9.731100E-1	1.015072E+0	1.022067E+0	1.012278E+0	1.052611E+0	9.924358E-1
5.600180E+2	1.018826E+0	1.020478E+0	1.011835E+0	1.015571E+0	1.017101E+0	9.778151E-1	1.013774E+0	1.021928E+0	1.010510E+0	1.030984E+0	9.841036E-1	9.830703E-1	9.816874E-1	1.003761E+0	1.017649E+0	9.731481E-1	9.688139E-1	9.950075E-1	9.959450E-1	9.737570E-1	9.868400E-1	1.056030E+0	9.888001E-1	9.849125E-1	1.019900E+0	9.938954E-1	9.762336E-1	1.016552E+0	9.867116E-1	1.021593E+0	9.919703E-1	9.767332E-1	9.994693E-1	1.002695E+0	9.894833E-1	1.000120E+0	1.016952E+0	1.019652E+0	9.902548E-1	1.002376E+0	1.005374E+0	1.006963E+0	1.007761E+0	1.002509E+0	1.011207E+0	1.019527E+0	1.043617E+0	9.780747E-1	1.007081E+0	1.011754E+0	1.006816E+0	9.883392E-1	9.862602E-1	1.015102E+0	1.071481E+0	9.686588E-1	9.461069E-1	9.956322E-1	9.964401E-1	1.006051E+0	9.894744E-1	1.041338E+0	1.035416E+0	9.983333E-1	1.000391E+0	1.054521E+0	9.924019E-1	9.507587E-1	9.864043E-1	9.696665E-1	1.037145E+0	9.752912E-1	1.019184E+0	1.006385E+0	9.755188E-1	1.021276E+0	1.023194E+0	1.012835E+0	9.827043E-1	9.979102E-1	9.945442E-1	1.028738E+0	9.602315E-1	1.016945E+0	1.041154E+0	9.815293E-1	1.014042E+0	1.009065E+0	9.839696E-1	1.007468E+0	1.008831E+0	1.007363E+0	9.913930E-1	9.609664E-1	1.004827E+0	9.967967E-1	1.000733E+0	1.004005E+0	9.881139E-1	9.818477E-1	9.947874E-1	9.583710E-1	1.002031E+0	9.880350E-1	9.936449E-1	1.038262E+0	9.955116E-1	9.875579E-1	1.008067E+0	1.018965E+0	9.984366E-1	1.010491E+0	9.899431E-1	1.006724E+0	1.022746E+0	9.928502E-1	1.015187E+0	9.635018E-1	1.031358E+0	1.016637E+0	1.027721E+0	1.004222E+0	1.010939E+0	1.009025E+0	1.002303E+0	9.881876E-1	1.008102E+0	1.043758E+0	1.012555E+0	1.069040E+0	1.012981E+0	1.027091E+0	1.000699E+0	9.854320E-1	9.934986E-1	9.833031E-1	1.033665E+0	1.017822E+0	1.014207E+0	9.734221E-1	9.757298E-1	9.680825E-1	1.050084E+0	1.032505E+0	9.798326E-1	1.022101E+0	1.038086E+0	9.745951E-1	9.915905E-1	1.032629E+0	1.011698E+0	1.001506E+0	1.028769E+0	1.040768E+0	9.864619E-1	1.011735E+0	1.007012E+0	1.002311E+0	1.034982E+0	1.013465E+0	9.942840E-1	1.006929E+0	1.010695E+0	1.022853E+0	9.791087E-1	1.032972E+0	9.663828E-1	9.840191E-1	1.028659E+0	9.835206E-1	1.032662E+0
5.605150E+2	1.024043E+0	1.004338E+0	1.040749E+0	9.879058E-1	1.033195E+0	9.777288E-1	1.011958E+0	1.010354E+0	1.031677E+0	1.049205E+0	1.038634E+0	1.012530E+0	1.001687E+0	1.037810E+0	9.857701E-1	1.024700E+0	1.047858E+0	1.023016E+0	1.006023E+0	1.032381E+0	9.887700E-1	1.007881E+0	1.014629E+0	1.028724E+0	1.005330E+0	1.005462E+0	1.013880E+0	1.011358E+0	9.776630E-1	1.037337E+0	9.995147E-1	9.895299E-1	1.009058E+0	9.883548E-1	9.819310E-1	1.008811E+0	1.045902E+0	1.043218E+0	1.006879E+0	1.010959E+0	1.015649E+0	1.001975E+0	1.011471E+0	1.038145E+0	1.002209E+0	9.972650E-1	1.022890E+0	9.741031E-1	9.959729E-1	1.023588E+0	9.841001E-1	9.819610E-1	1.010451E+0	1.014199E+0	1.001141E+0	1.002718E+0	1.039300E+0	1.028739E+0	1.012849E+0	9.969904E-1	1.031164E+0	1.046454E+0	1.023560E+0	1.008056E+0	1.022214E+0	9.768159E-1	1.010426E+0	1.030965E+0	1.016363E+0	1.041161E+0	1.037325E+0	1.039464E+0	9.835794E-1	1.020413E+0	1.025775E+0	9.874478E-1	1.043728E+0	1.027477E+0	1.061540E+0	9.924051E-1	9.924131E-1	1.035407E+0	1.044755E+0	1.021469E+0	1.009191E+0	1.009945E+0	1.026494E+0	9.966287E-1	1.015315E+0	1.020926E+0	9.882237E-1	1.005310E+0	9.918857E-1	1.031910E+0	1.038785E+0	1.015756E+0	1.046085E+0	1.029287E+0	9.890583E-1	1.024523E+0	1.014034E+0	1.048740E+0	1.014766E+0	1.044300E+0	1.009086E+0	1.033054E+0	1.011891E+0	1.059535E+0	1.015334E+0	9.851439E-1	1.026976E+0	1.035144E+0	1.016130E+0	1.032953E+0	1.029279E+0	9.775479E-1	1.024347E+0	1.028633E+0	1.018944E+0	1.000733E+0	9.931787E-1	1.022635E+0	1.050671E+0	9.966053E-1	1.023841E+0	1.004179E+0	1.006515E+0	1.017569E+0	9.987810E-1	1.026499E+0	1.016411E+0	1.003055E+0	1.030668E+0	1.052030E+0	1.016009E+0	1.042264E+0	9.894634E-1	1.014139E+0	1.059477E+0	1.045650E+0	1.007792E+0	1.051527E+0	1.047897E+0	1.013085E+0	1.035128E+0	1.042907E+0	9.950526E-1	1.048783E+0	1.053149E+0	1.028864E+0	1.001171E+0	9.953406E-1	1.002754E+0	1.036894E+0	1.001096E+0	1.029020E+0	9.972276E-1	1.025227E+0	1.029828E+0	1.014250E+0	9.672124E-1	9.989197E-1	1.028366E+0	9.964580E-1	9.762920E-1	9.804409E-1	9.699326E-1	1.024620E+0	9.967314E-1	9.942282E-1	1.021955E+0
5.609950E+2	9.903419E-1	1.022984E+0	9.900565E-1	9.914196E-1	1.000277E+0	1.019648E+0	1.007237E+0	1.044415E+0	1.027903E+0	1.007304E+0	1.057322E+0	9.944010E-1	1.004914E+0	9.905051E-1	1.052837E+0	9.924968E-1	1.040043E+0	1.035105E+0	1.045852E+0	1.094253E+0	1.058533E+0	1.002292E+0	1.052278E+0	1.014036E+0	9.993251E-1	1.011606E+0	1.013917E+0	9.939106E-1	9.922297E-1	1.000485E+0	1.022468E+0	1.021296E+0	1.027261E+0	1.051752E+0	9.934573E-1	9.833914E-1	9.970256E-1	1.012859E+0	1.048882E+0	1.030068E+0	1.006659E+0	1.055635E+0	1.016332E+0	1.000921E+0	1.019914E+0	1.003839E+0	1.048776E+0	1.003883E+0	1.013062E+0	1.009361E+0	1.046169E+0	1.033443E+0	1.006001E+0	1.056735E+0	1.013858E+0	1.018042E+0	9.810408E-1	1.012804E+0	1.038659E+0	1.028223E+0	9.981352E-1	9.999983E-1	1.033468E+0	1.015515E+0	9.862393E-1	1.049813E+0	1.036255E+0	9.818883E-1	1.034451E+0	1.015651E+0	9.955474E-1	1.010989E+0	1.056982E+0	1.027641E+0	9.877926E-1	9.592556E-1	9.842422E-1	1.016961E+0	1.029557E+0	1.024251E+0	1.042940E+0	1.034798E+0	1.013136E+0	9.982567E-1	1.034864E+0	1.084332E+0	1.054642E+0	1.012141E+0	1.043694E+0	1.032214E+0	1.055092E+0	1.000010E+0	9.860978E-1	1.022285E+0	9.880986E-1	1.032137E+0	1.031753E+0	1.019413E+0	1.035837E+0	1.028876E+0	1.062160E+0	1.013535E+0	1.036963E+0	1.023282E+0	1.051136E+0	9.918231E-1	1.015286E+0	1.011731E+0	9.886145E-1	1.030719E+0	1.017423E+0	1.006045E+0	1.003520E+0	1.019714E+0	1.031523E+0	9.749894E-1	9.787975E-1	1.007267E+0	1.023547E+0	1.028711E+0	9.636006E-1	9.993532E-1	1.009515E+0	9.992432E-1	9.902206E-1	1.044722E+0	1.002013E+0	1.020665E+0	9.522392E-1	1.030625E+0	1.021145E+0	1.008160E+0	1.028944E+0	1.020046E+0	1.035398E+0	9.953184E-1	9.649006E-1	9.887830E-1	1.002213E+0	9.873772E-1	1.020440E+0	1.029020E+0	1.028945E+0	1.020410E+0	1.010209E+0	1.014838E+0	9.972704E-1	1.024619E+0	1.027211E+0	9.994873E-1	1.005835E+0	9.944139E-1	1.012833E+0	9.873194E-1	1.026409E+0	1.009262E+0	1.024948E+0	1.107132E+0	9.763047E-1	1.010662E+0	1.006471E+0	1.042009E+0	1.014325E+0	1.066264E+0	1.031731E+0	1.016913E+0	1.030857E+0	1.022976E+0	1.011869E+0	9.536540E-1	9.931714E-1
