Photon Energy (eV)	#1	#2	#3	#4	#5	#6	#7	#8	#9	#10	#11	#12	#13	#14	#15	#16	#17	#18	#19	#20	#21	#22	#23	#24	#25	#26	#27	#28	#29	#30	#31	#32	#33	#34	#35	#36	#37	#38	#39	#40	#41	#42	#43	#44	#45	#46	#47	#48	#49	#50	#51	#52	#53	#54	#55	#56	#57	#58	#59	#60	#61	#62	#63	#64	#65	#66	#67	#68	#69	#70	#71	#72	#73	#74	#75	#76	#77	#78	#79	#80	#81	#82	#83	#84	#85	#86	#87	#88	#89	#90	#91	#92	#93	#94	#95	#96	#97	#98	#99	#100	#101	#102	#103	#104	#105	#106	#107	#108	#109	#110	#111	#112	#113	#114	#115	#116	#117	#118	#119	#120	#121	#122	#123	#124	#125	#126	#127	#128	#129	#130	#131	#132	#133	#134	#135	#136	#137	#138	#139	#140	#141	#142	#143	#144	#145	#146	#147	#148	#149	#150	#151	#152	#153	#154	#155	#156	#157	#158	#159	#160	#161	#162	#163	#164	#165	#166	#167	#168	#169	#170	
5.300220E+2	-5.025729E-3	-6.076775E-3	-5.636958E-3	1.750560E-8	-9.566535E-3	-4.666051E-3	3.877508E-3	-1.056206E-3	-9.947376E-3	-5.685411E-3	3.449304E-8	-6.831844E-3	-3.068989E-4	-8.855513E-4	4.240222E-3	-4.637190E-3	-7.469127E-3	-4.292771E-3	-8.788540E-3	-2.008120E-3	-8.444001E-3	-7.670117E-3	-7.557274E-4	-9.473469E-4	-1.058796E-2	3.728264E-3	-4.188317E-3	-7.321483E-3	-9.175457E-3	-1.089831E-2	-3.879555E-3	-1.875736E-3	-1.068925E-2	-3.404788E-3	-1.402950E-2	9.234532E-4	-3.583593E-3	-1.282388E-2	-8.104234E-3	-2.367955E-3	-2.700530E-4	-4.502955E-3	3.056042E-3	-5.993645E-3	-1.118260E-2	-9.015851E-3	-1.798218E-4	-4.068278E-3	-2.445778E-3	-1.317295E-2	-4.761352E-3	-4.390373E-3	-6.063662E-3	-3.137224E-3	-6.971505E-3	-7.297287E-3	1.270645E-3	-1.343786E-2	-1.061424E-2	-1.007898E-2	-1.426961E-3	-2.970104E-3	-8.882471E-3	-1.088219E-2	-1.129831E-2	-6.080881E-3	5.016593E-4	-1.155019E-2	-1.286556E-2	-6.288977E-3	-4.198893E-4	-6.069894E-3	-5.632033E-3	-8.618237E-3	-6.139535E-3	-3.719714E-3	-7.126461E-3	-6.192987E-3	-6.474750E-3	-5.202333E-3	-5.790191E-3	-2.972898E-3	-1.566008E-3	3.604540E-4	-4.203094E-3	8.315363E-5	-1.370892E-2	-6.196324E-3	-1.310042E-2	-2.376561E-3	-7.926722E-3	-4.459288E-3	-1.516079E-3	-5.112762E-4	-6.254237E-3	-1.450352E-2	-3.266782E-3	-9.081117E-3	-8.133337E-3	-1.093171E-2	-4.707777E-3	-1.038648E-2	-3.875633E-3	-9.769647E-3	-1.176909E-2	-5.317055E-3	-1.602036E-3	-7.165997E-3	-2.049185E-3	4.194863E-3	-4.572897E-4	-8.420530E-3	-6.696834E-3	-8.875507E-3	-1.311760E-2	-5.901710E-3	-5.033802E-3	4.845697E-3	-8.158224E-3	-4.658774E-3	-4.430974E-3	1.712695E-3	-5.329047E-3	-9.217413E-3	-3.459441E-3	-6.091338E-3	-6.909819E-3	-9.163173E-3	-7.510208E-3	-6.852280E-3	-3.626554E-3	6.686052E-3	-4.575291E-3	-7.039585E-3	-6.278698E-3	-4.999980E-3	-8.346057E-3	-8.975950E-3	-1.552048E-2	-6.881461E-3	-8.952972E-3	-1.226712E-2	-1.280487E-2	-7.661416E-3	-1.679008E-2	-6.081558E-3	-4.733309E-3	-3.926424E-4	-9.072730E-3	-4.206746E-3	-4.468028E-3	-1.650744E-3	1.761651E-3	-3.584150E-3	-5.599123E-3	-3.644949E-3	-5.079541E-3	-1.371691E-2	-9.319138E-3	-4.219455E-3	2.835783E-3	-4.461676E-3	-3.078666E-3	-8.926456E-3	-1.100977E-3	-9.258293E-3	-8.439971E-3	-2.283540E-3	-1.295029E-2	-6.917736E-4
5.305180E+2	-9.184970E-3	-1.384709E-2	5.636982E-3	-2.869797E-3	9.198616E-4	1.833094E-3	-3.039137E-3	-4.677458E-3	-1.050518E-2	-1.486957E-3	-8.019262E-3	-3.332611E-3	-3.529576E-3	-8.854717E-4	-9.540452E-3	-3.767745E-3	-8.549002E-3	-1.004698E-3	-7.267384E-3	-9.127732E-3	-8.444018E-3	-9.492716E-3	-2.771036E-3	-6.194094E-3	-8.378313E-3	-6.483704E-4	-9.535189E-3	-1.311426E-2	5.165977E-3	-5.189672E-3	-1.126021E-2	-1.269749E-2	-3.455943E-3	-9.022656E-3	-2.475775E-3	-1.015828E-2	-6.515623E-3	2.008566E-3	-2.911227E-3	-4.951147E-3	-5.130728E-3	-1.111949E-2	-1.416900E-2	-9.313243E-3	1.720695E-4	7.497384E-3	-7.192543E-3	-6.509367E-4	-1.921667E-3	-2.290900E-3	-8.397233E-3	-8.399036E-3	-1.022156E-2	-4.127950E-3	-2.939805E-3	-6.385088E-3	-5.808681E-3	-6.718924E-3	-3.828063E-3	-4.530896E-3	-8.477853E-3	-9.095995E-3	-1.103572E-2	-5.078379E-3	-2.456166E-3	3.577189E-4	-7.324295E-3	-7.837636E-3	-7.422462E-3	-7.295219E-3	-4.199201E-4	-3.704948E-3	-4.575988E-3	-5.745450E-3	2.936319E-3	-7.530093E-3	-1.354022E-2	-6.716304E-3	-4.456601E-3	6.242860E-3	6.869708E-4	1.486431E-3	-5.676822E-3	-7.209360E-4	-3.194339E-3	-7.402716E-3	-1.524154E-2	-2.655592E-3	-5.908026E-3	-3.960898E-3	-1.438554E-2	-6.064568E-3	2.314024E-3	-4.601210E-3	-9.097084E-3	-4.890716E-3	-3.843326E-4	-6.810812E-3	-1.586991E-3	1.103199E-3	-8.302808E-3	2.415462E-4	-1.624471E-2	-6.789087E-3	-5.349609E-3	-9.234886E-3	-1.602051E-2	-2.919456E-3	-8.196714E-3	-5.767930E-3	-8.687838E-3	-3.045728E-3	-1.266965E-2	-3.549998E-4	-1.366422E-2	-3.105972E-4	-1.677927E-3	-9.946457E-3	-1.015619E-2	-4.658831E-3	-5.473603E-3	-3.939218E-3	-1.151756E-2	-5.724504E-3	-1.004082E-2	-1.254075E-3	-1.974236E-3	-2.224128E-3	-9.913496E-3	-1.022491E-4	-2.590423E-3	3.779098E-3	-1.286257E-2	-5.548820E-3	-8.663015E-3	-7.950813E-3	-1.709426E-3	-3.707471E-3	-6.208362E-4	4.713536E-4	-3.216078E-3	-2.491723E-3	-9.195436E-3	-3.962809E-3	-1.822944E-3	-1.634421E-2	-1.268532E-2	-4.515066E-3	-4.078575E-3	-1.502407E-2	1.514174E-9	-8.583967E-3	6.489906E-4	-1.055874E-2	-6.108091E-3	-7.782492E-3	-1.386117E-2	-7.516076E-3	-5.760982E-3	-2.064860E-3	-4.848202E-3	-7.371504E-3	-4.661979E-3	-5.951167E-4	-6.291076E-4	1.851671E-3	1.570242E-3	-5.889153E-3	-7.063808E-3	-1.314331E-2
5.310250E+2	3.292715E-3	-9.965201E-5	-6.823706E-3	4.017664E-3	-3.495467E-3	-1.066523E-2	-9.326994E-3	-6.488104E-3	3.997531E-3	-2.011751E-3	-1.295417E-2	-1.333043E-3	-3.069164E-3	-7.164574E-3	-1.272060E-2	-7.245728E-4	-1.529788E-3	-1.004695E-3	-1.183064E-3	-3.103448E-3	-4.459219E-3	-1.746673E-3	-4.282574E-3	-2.259002E-3	-6.444801E-4	-6.483908E-3	-6.861790E-3	2.333228E-3	-1.310764E-3	1.556892E-3	-2.744066E-3	-5.771421E-4	-4.902606E-3	-3.404795E-3	-2.750560E-4	2.031674E-3	-1.140200E-3	-6.798209E-3	-6.215867E-3	-3.228991E-3	-4.590619E-3	3.767758E-3	-3.056072E-3	-1.567565E-3	4.817138E-3	1.803141E-3	-1.798148E-3	-2.603710E-3	-1.030729E-2	-3.436417E-3	3.549355E-3	1.336199E-3	-1.905712E-3	-9.576804E-3	-6.467529E-3	4.560505E-4	-1.996714E-3	-5.598913E-4	-5.916142E-3	-5.085704E-3	-1.200329E-2	-7.425315E-4	-4.037417E-3	-1.209149E-3	-7.368474E-3	-1.251943E-3	-2.508355E-3	7.012634E-3	-4.948252E-4	-3.773378E-3	4.114872E-3	-4.177967E-3	4.928005E-3	-1.723607E-3	-7.207275E-3	-6.985768E-3	1.211492E-2	-5.146270E-3	-9.501882E-3	-6.242850E-3	-6.379046E-3	-3.530361E-3	-1.565979E-3	3.604870E-4	-4.203110E-3	-9.149518E-4	3.150492E-3	-8.409293E-3	-2.311865E-3	8.714038E-3	-4.403697E-3	-3.924121E-3	8.777182E-4	-1.533747E-3	1.023424E-2	2.192382E-3	7.686459E-4	-5.675683E-3	-2.777209E-3	-1.002918E-4	2.995858E-3	1.690815E-3	-3.875691E-3	1.656099E-4	-1.604872E-3	-1.399228E-3	2.136060E-3	-5.042741E-3	-9.895834E-9	-4.194852E-3	-1.554701E-3	-5.733113E-3	-5.610870E-3	-1.952604E-3	-5.465728E-4	-4.038013E-3	-9.348484E-3	-6.375898E-3	-7.159223E-3	-1.370261E-3	4.431009E-3	-7.022104E-3	-4.297584E-3	-3.978005E-3	-4.471972E-3	-4.478911E-3	2.961318E-3	3.647536E-3	-8.711821E-3	-9.306802E-3	-3.626550E-3	-4.360483E-3	-9.495942E-4	8.861585E-3	-1.510072E-3	4.098185E-4	2.513894E-3	-3.122059E-3	-6.208265E-4	-8.578261E-3	-1.130009E-3	-4.791844E-3	8.593901E-5	4.491163E-3	-5.852582E-3	1.900381E-4	-1.211730E-2	-1.452661E-2	-3.079731E-3	-1.021633E-2	-5.957433E-3	-4.126908E-3	-9.920794E-3	-9.687485E-5	-1.119819E-2	-9.848038E-5	-3.529839E-3	1.221370E-2	1.863819E-3	2.244396E-3	6.403053E-4	2.521835E-3	-5.189747E-3	-5.950982E-3	5.032953E-3	3.438781E-3	5.103268E-3	2.043181E-3	-5.886502E-3	5.534062E-3
5.315180E+2	3.292743E-3	5.877544E-3	2.076765E-3	1.721847E-3	-2.391635E-3	1.333131E-3	-1.184211E-2	-2.414200E-3	2.881988E-3	4.285930E-3	-1.850590E-3	7.165133E-3	1.074225E-3	-1.851543E-3	3.180125E-3	1.014379E-3	8.998000E-5	-1.552709E-3	3.887209E-3	5.111563E-3	1.233387E-3	3.721140E-3	2.519252E-4	-5.101062E-4	-6.444700E-4	-6.970255E-3	6.237953E-4	7.160554E-3	3.315509E-3	-1.556925E-3	3.501062E-3	-1.875781E-3	-8.036475E-5	-2.383352E-3	-8.527739E-3	-1.292860E-3	-1.042499E-2	-2.626584E-3	7.002683E-3	2.798480E-3	5.670779E-3	4.594665E-4	-8.334583E-4	6.454718E-4	-6.537518E-3	-3.891043E-3	8.990763E-4	-6.509218E-4	4.891574E-3	6.300078E-3	-6.839010E-3	-3.245096E-3	6.929631E-4	5.283761E-3	-1.427888E-3	1.824299E-3	-4.174988E-3	1.287795E-2	9.744191E-3	3.791163E-3	5.120313E-3	3.712658E-3	3.499127E-3	5.562033E-3	6.385996E-3	-7.153838E-4	-3.110323E-3	8.250138E-4	2.474168E-3	3.773377E-3	-4.954654E-3	-2.286078E-3	7.039639E-4	-6.320056E-3	2.669278E-4	-1.542351E-3	-4.454004E-3	1.133921E-3	3.615808E-3	-4.161912E-3	-8.145596E-3	-3.530327E-3	9.004594E-3	-1.261644E-3	-5.211828E-3	1.580354E-3	5.960498E-4	1.770391E-3	2.825591E-3	6.601540E-3	2.055068E-3	5.707856E-3	-1.109127E-2	-2.556220E-3	-4.548582E-3	3.710224E-3	-1.537294E-3	-1.702693E-3	4.959346E-3	-7.020427E-4	-3.680603E-3	-7.487932E-3	-1.401839E-3	-1.821488E-3	6.954489E-3	-3.078303E-3	7.476234E-3	9.820063E-3	2.049159E-3	-3.146136E-3	-1.554664E-3	-2.508207E-3	9.049568E-4	-4.082713E-3	2.732844E-3	-3.106351E-4	2.636749E-3	-1.785257E-3	5.827337E-3	-2.740225E-4	2.606706E-4	-4.966857E-3	1.065807E-2	7.082846E-3	3.121953E-3	-7.166257E-4	-5.429134E-3	-7.028097E-3	2.703682E-3	-2.556794E-3	-7.253134E-3	-1.191862E-2	-9.495310E-4	1.904802E-3	3.973852E-4	-2.049186E-3	-2.916113E-3	3.902588E-3	-5.410017E-3	1.602534E-3	-4.259149E-3	1.533386E-3	6.015699E-4	7.925413E-4	-1.822934E-3	9.882529E-3	1.117064E-2	4.318743E-3	3.412694E-3	3.004848E-3	-4.964487E-3	-4.126887E-3	-2.688813E-3	-3.584150E-3	2.036037E-3	1.083634E-3	-3.013316E-3	-3.006464E-3	-2.202696E-3	-9.606024E-3	-4.573667E-4	1.939830E-4	-4.398126E-4	-5.950767E-4	-8.178531E-3	-6.613038E-3	-1.256185E-2	-3.004671E-3	3.531891E-3	-1.521859E-2
5.320020E+2	1.733020E-3	9.463842E-3	-8.900332E-4	-2.869752E-3	3.679440E-3	3.832825E-3	3.877478E-3	-1.509279E-4	1.180667E-2	-2.011755E-3	8.019222E-3	-1.832973E-3	3.836491E-3	2.012525E-3	1.590054E-3	5.796540E-3	8.189043E-3	-4.292781E-3	-4.732289E-3	1.277866E-3	1.204935E-2	2.354223E-3	2.771046E-3	1.238849E-3	4.327275E-3	3.728246E-3	2.227834E-3	1.053970E-2	-2.236039E-3	7.386649E-9	9.463537E-5	7.214490E-3	7.152981E-3	6.298863E-3	9.628057E-3	-1.847204E-4	8.633184E-3	8.497765E-3	7.002674E-3	2.152614E-4	-1.890233E-3	2.113664E-3	-1.389139E-3	-4.887113E-3	6.365453E-3	5.219692E-3	3.596254E-3	-3.580095E-3	1.746952E-3	-4.581911E-3	1.471678E-3	-3.817976E-4	1.316679E-2	1.816291E-3	2.099842E-3	3.648657E-3	2.359759E-3	7.838726E-3	2.436052E-3	-7.859742E-3	1.267478E-2	2.598841E-3	4.037504E-3	3.627414E-3	7.368468E-3	1.430799E-3	3.511659E-3	3.300017E-3	8.412131E-3	5.785864E-3	2.099453E-3	7.173505E-3	-3.519884E-4	7.469096E-3	6.139534E-3	1.097765E-2	3.563214E-3	9.507530E-3	1.067910E-2	3.641658E-3	8.341829E-3	4.273601E-3	3.719263E-3	4.145322E-3	3.362390E-4	1.081302E-3	6.726720E-3	-4.426046E-4	1.001797E-2	-6.073434E-3	9.101052E-3	-2.853965E-3	-1.516071E-3	2.556228E-3	-2.842853E-3	-3.372905E-3	-3.843258E-3	9.648702E-3	-3.372375E-3	-4.312512E-3	7.618047E-3	7.971012E-3	1.393584E-2	6.126724E-3	1.604861E-3	3.078286E-3	-4.806135E-3	5.573538E-3	-2.049157E-3	1.048717E-3	8.322091E-3	7.703863E-3	9.049749E-3	1.242576E-3	9.291647E-3	3.106123E-4	4.074965E-3	6.375918E-3	6.326771E-3	8.495464E-3	-1.824529E-3	-1.370181E-3	7.563780E-3	-1.038170E-2	5.906314E-4	1.003278E-2	3.454921E-3	3.647484E-3	7.510233E-3	4.806784E-3	9.325432E-3	-8.720706E-4	1.666088E-2	-2.567378E-3	3.258539E-3	6.311461E-3	-4.726099E-3	8.585715E-3	5.232658E-3	-4.053478E-3	-2.694587E-3	9.583677E-3	8.336034E-3	1.849337E-3	1.314425E-2	4.181086E-3	6.626643E-3	5.496591E-3	1.415008E-3	1.562501E-2	8.439652E-3	7.758582E-3	2.874249E-3	3.971610E-3	2.545045E-3	-3.053898E-3	1.119218E-3	2.066899E-3	-3.727709E-3	-2.603536E-3	-5.397115E-3	4.267702E-3	-1.495339E-3	1.785328E-3	-3.460141E-3	-1.851655E-3	5.692077E-3	-1.201840E-4	7.063843E-3	9.684565E-3
5.325170E+2	5.892220E-3	4.682135E-3	5.636950E-3	2.100671E-8	1.085434E-2	8.332232E-3	1.645325E-2	1.478690E-2	1.766362E-3	6.909943E-3	1.480477E-2	6.165337E-3	1.994923E-3	8.774615E-3	1.325065E-2	2.318588E-3	9.268895E-3	1.214765E-2	1.808407E-2	7.849871E-3	8.064503E-3	1.283414E-2	4.786366E-3	8.671701E-3	1.592795E-2	6.646024E-3	1.773367E-2	4.022637E-4	4.240775E-3	1.608801E-2	1.428813E-2	9.811657E-3	1.197519E-2	1.191673E-2	1.568002E-2	8.680732E-3	1.303122E-2	1.174234E-2	3.225972E-3	7.534351E-3	6.210854E-3	9.281557E-3	1.639163E-2	2.111609E-2	6.365460E-3	-1.613323E-3	4.675182E-3	1.155394E-2	8.036206E-3	1.718210E-2	1.497656E-2	1.508010E-2	4.331179E-3	9.741926E-3	1.570689E-2	7.753368E-3	8.349978E-3	5.692423E-10	8.178205E-3	2.376416E-2	4.113010E-3	6.497132E-3	1.641898E-2	7.980269E-3	7.368489E-3	6.259690E-3	8.929655E-3	8.250160E-3	9.896551E-3	7.798333E-3	-4.198617E-4	9.065382E-3	4.928041E-3	1.493825E-2	4.004029E-3	8.800274E-3	9.442549E-3	7.414110E-3	6.138329E-3	5.722577E-3	1.128603E-2	4.273554E-3	-3.915049E-3	-2.883683E-3	1.647613E-2	5.572858E-3	1.847719E-2	1.593342E-2	8.476751E-3	-2.904685E-3	1.555984E-2	1.159409E-2	1.093168E-2	6.646225E-3	1.250851E-2	1.686453E-2	8.263020E-3	1.362160E-2	1.091057E-2	1.494335E-2	6.077284E-3	7.971042E-3	1.146204E-2	1.208789E-2	1.016423E-2	1.595119E-2	1.281639E-2	-2.654073E-4	1.024591E-2	7.865338E-3	3.932401E-3	1.200371E-2	1.502265E-2	1.402325E-2	1.530390E-2	1.025034E-2	9.348498E-3	6.885997E-3	1.331953E-2	2.466424E-3	7.037426E-3	1.558566E-2	2.922343E-3	2.221877E-2	1.425965E-2	2.508167E-3	7.896950E-3	1.112038E-2	1.592161E-2	1.401134E-2	7.771228E-3	6.686028E-3	2.676112E-3	4.389396E-3	1.279586E-2	8.278699E-3	1.518380E-2	3.317176E-3	1.693951E-2	1.743931E-2	2.025280E-2	8.433627E-3	1.297677E-2	4.491183E-3	1.314429E-2	8.172117E-3	1.173864E-2	9.618979E-3	1.140333E-2	1.081728E-2	6.950295E-3	1.072992E-2	7.324716E-3	1.385231E-2	1.832432E-2	1.349619E-2	2.436465E-2	9.958852E-3	1.914671E-2	1.624948E-2	7.226595E-3	4.849659E-3	1.486554E-2	1.428230E-2	8.335803E-3	1.243253E-2	8.636237E-3	9.254366E-3	1.530487E-2	1.383504E-2
5.330280E+2	2.408891E-2	1.842957E-2	2.284462E-2	2.066237E-2	2.520420E-2	2.033062E-2	2.588502E-2	2.021881E-2	3.132964E-2	1.688122E-2	1.665535E-2	2.916033E-2	3.237982E-2	2.229881E-2	2.862142E-2	1.840395E-2	2.546702E-2	1.981989E-2	1.808408E-2	1.989850E-2	2.286528E-2	3.151581E-2	2.393191E-2	1.435569E-2	2.476661E-2	2.658413E-2	3.377418E-2	2.791813E-2	2.228318E-2	1.972080E-2	3.075263E-2	2.409639E-2	2.113740E-2	9.363101E-3	1.843086E-2	2.087067E-2	2.280460E-2	2.981937E-2	2.635846E-2	2.260306E-2	2.403326E-2	1.920638E-2	3.194975E-2	2.332914E-2	2.649418E-2	2.230234E-2	2.679229E-2	1.838864E-2	2.428333E-2	1.890035E-2	2.484549E-2	1.966131E-2	2.096291E-2	2.410715E-2	2.477824E-2	1.961142E-2	2.141949E-2	2.239642E-2	3.010270E-2	2.820261E-2	2.728025E-2	2.543161E-2	2.933893E-2	2.007158E-2	2.947387E-2	2.450236E-2	3.060166E-2	2.743171E-2	3.661736E-2	2.138258E-2	2.880415E-2	2.325469E-2	1.548806E-2	2.872740E-2	2.055421E-2	2.349763E-2	1.639081E-2	3.410497E-2	3.489627E-2	2.289043E-2	1.952972E-2	1.486461E-2	2.368597E-2	1.387784E-2	2.757232E-2	1.555403E-2	3.278213E-2	1.372047E-2	2.594398E-2	1.346710E-2	3.552346E-2	2.871770E-2	2.577315E-2	1.942740E-2	2.729135E-2	2.344174E-2	2.613427E-2	2.554064E-2	9.720268E-3	3.058875E-2	2.816104E-2	1.956520E-2	2.135727E-2	2.152636E-2	3.049270E-2	1.763024E-2	3.791520E-2	1.406656E-2	3.278687E-2	1.310888E-2	1.984486E-2	1.361618E-2	2.153849E-2	2.467385E-2	1.803672E-2	1.894765E-2	2.325137E-2	3.647029E-2	2.231030E-2	2.658262E-2	2.841055E-2	2.791715E-2	1.529943E-2	2.280091E-2	1.881602E-2	1.970723E-2	1.579389E-2	2.179598E-2	1.472002E-2	2.812492E-2	2.383171E-2	2.180232E-2	2.235841E-2	3.619164E-2	1.422641E-2	1.663935E-2	3.992034E-2	2.439118E-2	2.279299E-2	2.083291E-2	1.295131E-2	2.798438E-2	2.225812E-2	2.351265E-2	1.487127E-2	2.071536E-2	2.821062E-2	1.904161E-2	1.489929E-2	2.704329E-2	2.780122E-2	3.004390E-2	1.233151E-2	2.024568E-2	2.494144E-2	2.177128E-2	2.849716E-2	1.841448E-2	2.626318E-2	3.133192E-2	2.204577E-2	2.463631E-2	2.964303E-2	2.737444E-2	2.107545E-2	3.623953E-2	1.864645E-2	1.862886E-2	2.590062E-2	2.628668E-2
5.331580E+2	2.044956E-2	2.799305E-2	2.403133E-2	2.468004E-2	2.796379E-2	2.732969E-2	2.399866E-2	2.519801E-2	2.630948E-2	2.160450E-2	2.652515E-2	2.116211E-2	3.468174E-2	1.505367E-2	3.763184E-2	2.883763E-2	2.222744E-2	2.475201E-2	1.301383E-2	2.811347E-2	2.286526E-2	2.832624E-2	2.846633E-2	1.741629E-2	2.808110E-2	1.734451E-2	2.949668E-2	3.226275E-2	3.384888E-2	2.646738E-2	5.005580E-2	3.318665E-2	2.933516E-2	2.979179E-2	2.503298E-2	3.527697E-2	2.818003E-2	1.637745E-2	3.580026E-2	2.088091E-2	2.619363E-2	1.479535E-2	2.917153E-2	2.830851E-2	2.494581E-2	1.888584E-2	2.625286E-2	2.571151E-2	2.375923E-2	2.577321E-2	1.705422E-2	3.340522E-2	2.512084E-2	2.163038E-2	2.880998E-2	2.599654E-2	2.904339E-2	3.527439E-2	2.592656E-2	2.875742E-2	1.972566E-2	1.652128E-2	2.287896E-2	3.409750E-2	3.389499E-2	2.235615E-2	3.541761E-2	2.928804E-2	2.721559E-2	2.339506E-2	3.031578E-2	2.893041E-2	2.604807E-2	2.470555E-2	2.856227E-2	2.730802E-2	1.799427E-2	2.311464E-2	4.095054E-2	2.549161E-2	2.659578E-2	3.660415E-2	3.954197E-2	2.631388E-2	2.656355E-2	3.202302E-2	2.614056E-2	2.035938E-2	3.827384E-2	2.244518E-2	1.849570E-2	2.550705E-2	3.869970E-2	2.862983E-2	1.591996E-2	2.192393E-2	2.728723E-2	3.121629E-2	2.697873E-2	2.577479E-2	1.686239E-2	2.246377E-2	2.927350E-2	2.301663E-2	2.995773E-2	2.378686E-2	4.218733E-2	2.096720E-2	2.715161E-2	2.464476E-2	2.533194E-2	2.490326E-2	2.479639E-2	4.011715E-2	3.880624E-2	1.956890E-2	2.085430E-2	2.218821E-2	2.131130E-2	2.439021E-2	2.163372E-2	2.688957E-2	3.438081E-2	2.687598E-2	2.337240E-2	3.045666E-2	3.208135E-2	1.485684E-2	2.553473E-2	2.873859E-2	3.263915E-2	2.761631E-2	3.064576E-2	2.277505E-2	2.662490E-2	2.696722E-2	4.233369E-2	2.907433E-2	3.662840E-2	3.893216E-2	2.181738E-2	2.395917E-2	2.019559E-2	2.562614E-2	1.256859E-2	2.812728E-2	2.366661E-2	2.434184E-2	3.187944E-2	3.485577E-2	2.978704E-2	2.756773E-2	2.568288E-2	1.617716E-2	3.461263E-2	3.950350E-2	1.764931E-2	3.307088E-2	3.134641E-2	3.079331E-2	2.588781E-2	2.754607E-2	3.228189E-2	3.749108E-2	2.579388E-2	2.989099E-2	3.454497E-2	2.295563E-2	2.001410E-2	2.213605E-2
5.333130E+2	3.916608E-2	3.098170E-2	4.183236E-2	3.501117E-2	4.617705E-2	2.982937E-2	4.915015E-2	3.560921E-2	3.969660E-2	3.734867E-2	3.762875E-2	3.515904E-2	3.560250E-2	4.451706E-2	3.922196E-2	3.753241E-2	2.708687E-2	3.626032E-2	3.583015E-2	4.344810E-2	3.880451E-2	3.880621E-2	3.753522E-2	2.747255E-2	4.244388E-2	5.235773E-2	4.179438E-2	4.384835E-2	3.153575E-2	4.359334E-2	5.232682E-2	4.444114E-2	3.608630E-2	4.409187E-2	4.263863E-2	3.804741E-2	5.505694E-2	4.418828E-2	5.562820E-2	4.369917E-2	4.563623E-2	5.063501E-2	2.250373E-2	4.379980E-2	3.268756E-2	4.792633E-2	4.567278E-2	4.133377E-2	4.891600E-2	2.577321E-2	3.471437E-2	5.402103E-2	2.979852E-2	4.342586E-2	3.989715E-2	3.785460E-2	4.919224E-2	4.143338E-2	3.427875E-2	3.929873E-2	3.181292E-2	4.158165E-2	4.064385E-2	5.441091E-2	3.635114E-2	2.933125E-2	4.143763E-2	3.114423E-2	3.414318E-2	3.496678E-2	4.543163E-2	5.116037E-2	5.086412E-2	3.045106E-2	4.244305E-2	3.819494E-2	3.563223E-2	2.834812E-2	3.489624E-2	4.057854E-2	5.132679E-2	5.276946E-2	4.658903E-2	4.145341E-2	4.572968E-2	4.699482E-2	3.073854E-2	4.425954E-2	2.851271E-2	2.878270E-2	3.845927E-2	4.798173E-2	3.486957E-2	3.425359E-2	3.581986E-2	4.317327E-2	3.881703E-2	3.462175E-2	4.423722E-2	4.202184E-2	5.075839E-2	3.647341E-2	4.065307E-2	3.940987E-2	4.814638E-2	3.889849E-2	5.126556E-2	2.468286E-2	3.790986E-2	3.093710E-2	4.234185E-2	3.511538E-2	3.619907E-2	5.502795E-2	4.317884E-2	4.814562E-2	3.140131E-2	5.228255E-2	5.227932E-2	3.535212E-2	4.144289E-2	2.945856E-2	3.953787E-2	3.619040E-2	3.906642E-2	4.980562E-2	4.738164E-2	3.353912E-2	3.815185E-2	3.548855E-2	4.559113E-2	2.529070E-2	4.722034E-2	4.513607E-2	4.236143E-2	4.122951E-2	2.785372E-2	5.307525E-2	4.939959E-2	3.384174E-2	3.537719E-2	4.120988E-2	3.669583E-2	5.362988E-2	3.271674E-2	4.238099E-2	3.957058E-2	4.083154E-2	2.538706E-2	3.966349E-2	3.326213E-2	4.985309E-2	3.959058E-2	4.000696E-2	3.613967E-2	6.196433E-2	3.366276E-2	5.110956E-2	4.252940E-2	4.587573E-2	3.796263E-2	4.034913E-2	4.969830E-2	4.998808E-2	3.664613E-2	4.258810E-2	4.161109E-2	3.882031E-2	4.356019E-2	3.458774E-2
5.334630E+2	5.112385E-2	5.967211E-2	5.251294E-2	5.108190E-2	5.500774E-2	4.832686E-2	6.801367E-2	5.960012E-2	5.754610E-2	5.676650E-2	5.243351E-2	7.665004E-2	4.665149E-2	5.321117E-2	6.731328E-2	4.622716E-2	4.382493E-2	4.228853E-2	2.467550E-2	4.947241E-2	6.214422E-2	5.384268E-2	5.617695E-2	6.157624E-2	5.846391E-2	5.673435E-2	5.997362E-2	7.088155E-2	3.847518E-2	4.463124E-2	6.992675E-2	5.699447E-2	3.946184E-2	6.043475E-2	6.299514E-2	5.245370E-2	5.114754E-2	6.319242E-2	6.884656E-2	5.704568E-2	6.237847E-2	6.221396E-2	4.917484E-2	5.375848E-2	5.230011E-2	6.443958E-2	4.459394E-2	6.232615E-2	6.673539E-2	6.643756E-2	3.886976E-2	6.719222E-2	5.682511E-2	5.382827E-2	5.098440E-2	4.834443E-2	5.518241E-2	4.759241E-2	5.568123E-2	5.372366E-2	4.893650E-2	5.940209E-2	5.410210E-2	5.441091E-2	5.010559E-2	4.757389E-2	4.745761E-2	4.908836E-2	5.393650E-2	4.855098E-2	6.407454E-2	5.116038E-2	5.561617E-2	5.170930E-2	5.792539E-2	5.180359E-2	7.304597E-2	4.980546E-2	5.911340E-2	5.670587E-2	4.779379E-2	6.391792E-2	5.246157E-2	5.551148E-2	3.917287E-2	4.849201E-2	6.394653E-2	3.983358E-2	5.368623E-2	6.099814E-2	5.959719E-2	5.654354E-2	4.109346E-2	5.010226E-2	6.083691E-2	4.823260E-2	5.207637E-2	5.448662E-2	6.566153E-2	5.826900E-2	6.154348E-2	5.338168E-2	7.281272E-2	5.083534E-2	4.814636E-2	5.065206E-2	5.980987E-2	4.538462E-2	5.225417E-2	5.820356E-2	4.563409E-2	4.102762E-2	5.140270E-2	5.289783E-2	6.121553E-2	4.752443E-2	5.441309E-2	7.370556E-2	5.977156E-2	6.604548E-2	5.082629E-2	5.874585E-2	6.583930E-2	5.249060E-2	5.476057E-2	5.303045E-2	5.182371E-2	7.143746E-2	5.076903E-2	5.880665E-2	4.248270E-2	5.087211E-2	6.534869E-2	6.898773E-2	5.809797E-2	5.155736E-2	6.707022E-2	4.605058E-2	7.174906E-2	4.911291E-2	5.988898E-2	5.558533E-2	4.907101E-2	6.895286E-2	4.422996E-2	4.808243E-2	5.377059E-2	6.968844E-2	5.485267E-2	6.370193E-2	5.411304E-2	4.440558E-2	6.462443E-2	7.371745E-2	5.497299E-2	6.137331E-2	5.122604E-2	5.336442E-2	4.812094E-2	7.065378E-2	4.784207E-2	5.315226E-2	5.286492E-2	7.319685E-2	5.410423E-2	6.639511E-2	5.574313E-2	5.540601E-2	6.592883E-2	3.251245E-2
5.336130E+2	6.308163E-2	1.027076E-1	5.666648E-2	7.174422E-2	5.887113E-2	7.182385E-2	6.424094E-2	6.774793E-2	6.981750E-2	5.991537E-2	7.032247E-2	8.214879E-2	6.736839E-2	5.852416E-2	7.791384E-2	7.057241E-2	6.164278E-2	6.146905E-2	4.546377E-2	6.097341E-2	7.011384E-2	5.566526E-2	7.431479E-2	8.256326E-2	8.884670E-2	8.980226E-2	9.258937E-2	7.667413E-2	7.039633E-2	5.864338E-2	6.879130E-2	7.084619E-2	6.550174E-2	7.269198E-2	7.729967E-2	7.073849E-2	7.020580E-2	5.716663E-2	7.640001E-2	8.330795E-2	6.345863E-2	6.552223E-2	7.251210E-2	8.142153E-2	5.797752E-2	8.266098E-2	5.268552E-2	8.234205E-2	7.721736E-2	7.674689E-2	7.419024E-2	9.009869E-2	6.929892E-2	6.076315E-2	7.769449E-2	8.574298E-2	6.335086E-2	6.606949E-2	8.543574E-2	8.756671E-2	5.095107E-2	9.615733E-2	6.271537E-2	5.441078E-2	7.417584E-2	7.010901E-2	5.949752E-2	9.673308E-2	6.234846E-2	6.867590E-2	8.322134E-2	6.818743E-2	7.462423E-2	6.952040E-2	7.661105E-2	6.105747E-2	7.571828E-2	6.288934E-2	6.819467E-2	6.034757E-2	8.783468E-2	7.116446E-2	8.064991E-2	7.281378E-2	6.136525E-2	6.895339E-2	7.978411E-2	4.691508E-2	6.961216E-2	7.367295E-2	7.956080E-2	5.600844E-2	7.077661E-2	7.208590E-2	7.618823E-2	8.617780E-2	5.784123E-2	6.981105E-2	7.518351E-2	7.331272E-2	5.640774E-2	6.545903E-2	6.885451E-2	6.921561E-2	7.168471E-2	6.688310E-2	8.597654E-2	4.591542E-2	8.145474E-2	5.872790E-2	6.813120E-2	6.306438E-2	6.443437E-2	5.928819E-2	7.870568E-2	8.852583E-2	7.694529E-2	8.135699E-2	6.776340E-2	7.755558E-2	6.333730E-2	6.182882E-2	8.285764E-2	7.635873E-2	6.842960E-2	6.915471E-2	5.429137E-2	7.143749E-2	6.338622E-2	7.353391E-2	7.304940E-2	6.947674E-2	6.120522E-2	7.942288E-2	9.195512E-2	7.418032E-2	8.517024E-2	8.000313E-2	8.079546E-2	7.399933E-2	6.823357E-2	6.306050E-2	7.279004E-2	9.167256E-2	6.092414E-2	7.773010E-2	6.229042E-2	7.970003E-2	5.884801E-2	6.610572E-2	5.659534E-2	5.530061E-2	6.740598E-2	7.662356E-2	7.278843E-2	7.083045E-2	8.480264E-2	6.351114E-2	7.302845E-2	8.304321E-2	7.802925E-2	8.283227E-2	6.130920E-2	7.379193E-2	7.392142E-2	7.274364E-2	7.223051E-2	6.838616E-2	8.241115E-2	1.051466E-1
5.337580E+2	9.531575E-2	9.852361E-2	7.624758E-2	9.298054E-2	9.860904E-2	9.432069E-2	1.082560E-1	1.243305E-1	8.822478E-2	1.034742E-1	9.623097E-2	1.201409E-1	9.038738E-2	9.330079E-2	1.028248E-1	9.752649E-2	9.079960E-2	8.558158E-2	7.842067E-2	1.124542E-1	1.128084E-1	1.012302E-1	9.900261E-2	9.436845E-2	1.291732E-1	1.189801E-1	1.310867E-1	1.234996E-1	8.843889E-2	9.289521E-2	1.085331E-1	1.223580E-1	9.443512E-2	9.261004E-2	1.103102E-1	1.089704E-1	1.102765E-1	9.980999E-2	1.198326E-1	1.229172E-1	1.061243E-1	1.145950E-1	1.025169E-1	1.151706E-1	7.707384E-2	1.054378E-1	1.001566E-1	1.345784E-1	9.031967E-2	1.179838E-1	9.860276E-2	1.273217E-1	8.593071E-2	9.444705E-2	9.382148E-2	1.295266E-1	8.731165E-2	1.276593E-1	1.094484E-1	1.358347E-1	8.771639E-2	1.212175E-1	1.041667E-1	1.124490E-1	1.129831E-1	1.033748E-1	1.082596E-1	1.041581E-1	9.698678E-2	1.124469E-1	1.109338E-1	1.169042E-1	9.996837E-2	9.192762E-2	1.193208E-1	9.970597E-2	1.013735E-1	9.167347E-2	1.136023E-1	1.035272E-1	9.784496E-2	9.401875E-2	1.117745E-1	1.101217E-1	1.062542E-1	1.093773E-1	1.032849E-1	9.958374E-2	1.127665E-1	1.074728E-1	1.241853E-1	1.271785E-1	1.124283E-1	1.073619E-1	1.085966E-1	1.114746E-1	9.934853E-2	1.038651E-1	1.102956E-1	1.021964E-1	1.041703E-1	1.012075E-1	8.567656E-2	1.094533E-1	8.933823E-2	1.211732E-1	1.110753E-1	8.731890E-2	9.836047E-2	1.043471E-1	1.186121E-1	1.055253E-1	1.203619E-1	1.045529E-1	1.093134E-1	9.349570E-2	1.090658E-1	1.257333E-1	1.047252E-1	9.893098E-2	1.076475E-1	1.024202E-1	1.163789E-1	9.673415E-2	1.185495E-1	1.137645E-1	1.061152E-1	1.216125E-1	9.823361E-2	1.121928E-1	9.998980E-2	9.505807E-2	1.176620E-1	1.156972E-1	1.143677E-1	9.729490E-2	9.482353E-2	1.198096E-1	1.132552E-1	9.832022E-2	1.016113E-1	1.061871E-1	1.088845E-1	9.589969E-2	8.798005E-2	1.028166E-1	9.921027E-2	1.156239E-1	1.072916E-1	1.207932E-1	1.047510E-1	1.038330E-1	1.024534E-1	1.109154E-1	1.150361E-1	1.051126E-1	8.893500E-2	1.018433E-1	1.009861E-1	1.035122E-1	1.104116E-1	1.125119E-1	9.930846E-2	1.279456E-1	1.041191E-1	1.087185E-1	9.872810E-2	1.008366E-1	1.177301E-1	6.779208E-2
5.339140E+2	1.577041E-1	1.786176E-1	1.498250E-1	1.779258E-1	1.504892E-1	1.483134E-1	1.761645E-1	1.646172E-1	1.534872E-1	1.533309E-1	1.881440E-1	1.751286E-1	1.414892E-1	1.657514E-1	1.833890E-1	1.631720E-1	1.410136E-1	1.414793E-1	1.220255E-1	1.551719E-1	1.458253E-1	1.385935E-1	1.519047E-1	1.595157E-1	2.197694E-1	1.953282E-1	1.941790E-1	2.012198E-1	1.573703E-1	1.774873E-1	1.948298E-1	1.929156E-1	1.686973E-1	1.717711E-1	2.241964E-1	1.854345E-1	1.615873E-1	1.762896E-1	1.783722E-1	1.991218E-1	1.919963E-1	1.873771E-1	1.875310E-1	1.904135E-1	1.529436E-1	1.771850E-1	1.864673E-1	1.755871E-1	1.710315E-1	1.953034E-1	1.458695E-1	2.011950E-1	1.841617E-1	1.870780E-1	1.638725E-1	2.034113E-1	1.717191E-1	1.791714E-1	1.752217E-1	2.162821E-1	1.526852E-1	1.646556E-1	1.655362E-1	1.864480E-1	1.557205E-1	1.602488E-1	1.811014E-1	1.796465E-1	1.746746E-1	1.607467E-1	1.673665E-1	1.939992E-1	1.517125E-1	1.712150E-1	1.785810E-1	1.829910E-1	1.542873E-1	1.654658E-1	1.685951E-1	1.888462E-1	1.732159E-1	1.737306E-1	1.728492E-1	1.874413E-1	1.703097E-1	1.597824E-1	1.921801E-1	1.810217E-1	1.697920E-1	1.750725E-1	2.134342E-1	1.833649E-1	1.531232E-1	1.804706E-1	1.899023E-1	1.929301E-1	1.633388E-1	1.464330E-1	1.674270E-1	1.906532E-1	1.524463E-1	1.644927E-1	1.559331E-1	1.621104E-1	1.567433E-1	1.648289E-1	1.756917E-1	1.552631E-1	1.521516E-1	1.740866E-1	1.570215E-1	1.839973E-1	1.822624E-1	1.567407E-1	1.557716E-1	1.835750E-1	1.445420E-1	1.675594E-1	1.916353E-1	1.849822E-1	1.530002E-1	1.933649E-1	1.596988E-1	1.706676E-1	1.737317E-1	1.648243E-1	1.638617E-1	1.765921E-1	1.727351E-1	1.741702E-1	1.512798E-1	1.776163E-1	1.658323E-1	1.942093E-1	1.558553E-1	1.931967E-1	1.762729E-1	1.842022E-1	1.723223E-1	1.763730E-1	1.636736E-1	1.596643E-1	1.625100E-1	1.968191E-1	1.714511E-1	1.826370E-1	1.690748E-1	1.662705E-1	1.602297E-1	1.941109E-1	1.454599E-1	1.696988E-1	1.820055E-1	1.271890E-1	1.435408E-1	1.866813E-1	1.504062E-1	1.689245E-1	1.538516E-1	1.907745E-1	1.669442E-1	1.881670E-1	1.700297E-1	1.701975E-1	1.664020E-1	1.954818E-1	1.817537E-1	1.505939E-1	1.883682E-1	2.109851E-1
5.340800E+2	2.684435E-1	2.628956E-1	2.548508E-1	2.479482E-1	2.647361E-1	2.617987E-1	2.874603E-1	2.583177E-1	2.416193E-1	2.462213E-1	2.800567E-1	2.696086E-1	2.308022E-1	2.720129E-1	2.374512E-1	2.670742E-1	2.409018E-1	2.576585E-1	2.188685E-1	2.499178E-1	2.551233E-1	2.493163E-1	2.526704E-1	2.600783E-1	3.468247E-1	3.241961E-1	3.519106E-1	3.281784E-1	2.753404E-1	2.812812E-1	3.180299E-1	3.110886E-1	2.839483E-1	3.004714E-1	3.441352E-1	2.846167E-1	2.759360E-1	2.898505E-1	2.982834E-1	3.356011E-1	2.913698E-1	3.075780E-1	2.808800E-1	3.314951E-1	2.659741E-1	3.013193E-1	2.765540E-1	3.200925E-1	2.643210E-1	3.012602E-1	2.637772E-1	3.168727E-1	2.642023E-1	2.811949E-1	2.697048E-1	3.019243E-1	3.280088E-1	2.984323E-1	2.968502E-1	2.989481E-1	2.458576E-1	3.111191E-1	2.834300E-1	3.010735E-1	2.696858E-1	2.680952E-1	2.888591E-1	2.978303E-1	2.677026E-1	2.784765E-1	3.018984E-1	3.004190E-1	2.599532E-1	2.763574E-1	2.992367E-1	2.711754E-1	2.681324E-1	3.020599E-1	2.871580E-1	3.079803E-1	2.650740E-1	2.707226E-1	3.108548E-1	2.923367E-1	2.454609E-1	3.035117E-1	2.994668E-1	3.027354E-1	2.956589E-1	2.849221E-1	3.032703E-1	3.053710E-1	2.728129E-1	2.786296E-1	2.984992E-1	3.057544E-1	2.728724E-1	2.644873E-1	2.995439E-1	2.761003E-1	2.890575E-1	2.693235E-1	2.667599E-1	2.798428E-1	2.653398E-1	2.638941E-1	2.953110E-1	2.582407E-1	2.648563E-1	2.873474E-1	2.607270E-1	2.898811E-1	2.637107E-1	2.563237E-1	2.836687E-1	2.736535E-1	2.624764E-1	2.619230E-1	2.565682E-1	3.231022E-1	2.713341E-1	2.940724E-1	2.870796E-1	2.556611E-1	2.567586E-1	2.664065E-1	2.601056E-1	2.908208E-1	2.880917E-1	2.613064E-1	2.730283E-1	2.566857E-1	2.740852E-1	2.583110E-1	2.626729E-1	3.043444E-1	2.963361E-1	2.860602E-1	3.128049E-1	2.923210E-1	2.653723E-1	2.867441E-1	2.584176E-1	3.252138E-1	2.462871E-1	2.846937E-1	2.650660E-1	2.893542E-1	2.516232E-1	3.010814E-1	2.660977E-1	3.148008E-1	2.793588E-1	2.876045E-1	2.702840E-1	3.173088E-1	2.619846E-1	2.608090E-1	2.605985E-1	3.087404E-1	2.586033E-1	2.719687E-1	2.766392E-1	2.666033E-1	2.555797E-1	2.986457E-1	2.859780E-1	2.948176E-1	2.837296E-1	2.794688E-1
5.342040E+2	5.138383E-1	4.834534E-1	4.126863E-1	4.379268E-1	4.512843E-1	4.272760E-1	5.006185E-1	4.380231E-1	4.245767E-1	4.367257E-1	4.817713E-1	4.620662E-1	3.818059E-1	4.029075E-1	4.717231E-1	4.709663E-1	4.509379E-1	4.374075E-1	3.836531E-1	4.558397E-1	4.424100E-1	4.320318E-1	4.108725E-1	4.402162E-1	6.064599E-1	5.517819E-1	5.716659E-1	5.270655E-1	4.548396E-1	4.774511E-1	5.394488E-1	5.305535E-1	4.744262E-1	4.822865E-1	5.554024E-1	5.411593E-1	4.860649E-1	5.002858E-1	5.532127E-1	5.383825E-1	5.381829E-1	5.187562E-1	5.081404E-1	5.760367E-1	4.822282E-1	4.897976E-1	5.074351E-1	5.534492E-1	4.608586E-1	4.713631E-1	4.247971E-1	5.602531E-1	5.017237E-1	4.828034E-1	5.106000E-1	5.395423E-1	5.273188E-1	5.117583E-1	5.009565E-1	5.669187E-1	4.347202E-1	5.305370E-1	4.971469E-1	5.554744E-1	4.927050E-1	4.424731E-1	4.887224E-1	5.317218E-1	4.651394E-1	5.013582E-1	5.447601E-1	5.269755E-1	5.023057E-1	5.101987E-1	5.143881E-1	4.753048E-1	4.578742E-1	4.930830E-1	4.743365E-1	5.004683E-1	4.623339E-1	5.020531E-1	5.099343E-1	4.956386E-1	5.112644E-1	4.981453E-1	5.058669E-1	5.142958E-1	4.569740E-1	4.887771E-1	5.164111E-1	5.081785E-1	4.509111E-1	4.729036E-1	5.117125E-1	5.435442E-1	4.331370E-1	4.988935E-1	4.935527E-1	5.155952E-1	4.456980E-1	4.842995E-1	4.513067E-1	4.805352E-1	4.771835E-1	4.961661E-1	4.944996E-1	4.493338E-1	4.554304E-1	4.682500E-1	4.423490E-1	5.021855E-1	4.781900E-1	4.799862E-1	4.541973E-1	4.972983E-1	4.729375E-1	4.817647E-1	4.548631E-1	5.576872E-1	4.751604E-1	4.667138E-1	4.464345E-1	4.640712E-1	4.744507E-1	4.937564E-1	4.757908E-1	4.872512E-1	4.899661E-1	5.141242E-1	4.631647E-1	4.863369E-1	4.714261E-1	4.625415E-1	4.839372E-1	5.246720E-1	4.556148E-1	4.827506E-1	5.182076E-1	5.400538E-1	4.546878E-1	4.632752E-1	4.682800E-1	5.244108E-1	4.529493E-1	4.642898E-1	4.650021E-1	4.748629E-1	4.818544E-1	5.132211E-1	4.577272E-1	5.549868E-1	4.952065E-1	5.020731E-1	4.759239E-1	5.224115E-1	4.458813E-1	4.389409E-1	4.420686E-1	5.209720E-1	4.556428E-1	5.129002E-1	4.587196E-1	4.689359E-1	4.561115E-1	5.282511E-1	4.673393E-1	4.844714E-1	4.991753E-1	4.475646E-1
5.343600E+2	8.205813E-1	8.426810E-1	7.437848E-1	7.834472E-1	8.017516E-1	8.107253E-1	8.992688E-1	8.254998E-1	7.648332E-1	7.726014E-1	8.691634E-1	8.254881E-1	6.884168E-1	7.632302E-1	8.416816E-1	8.235393E-1	7.840792E-1	7.442959E-1	6.767167E-1	8.052499E-1	8.107215E-1	7.450639E-1	7.444079E-1	8.009298E-1	9.356991E-1	8.741956E-1	9.796281E-1	8.717372E-1	7.828424E-1	8.178943E-1	9.442476E-1	9.140756E-1	8.196973E-1	8.055700E-1	9.410760E-1	9.168311E-1	8.403510E-1	8.562641E-1	8.865092E-1	9.374867E-1	9.378375E-1	8.810120E-1	8.554207E-1	9.799172E-1	7.702233E-1	8.980732E-1	8.489022E-1	9.288695E-1	8.104329E-1	8.619702E-1	7.364473E-1	9.399279E-1	8.302000E-1	8.290539E-1	8.684146E-1	9.217366E-1	8.633142E-1	9.221724E-1	9.107365E-1	9.297619E-1	7.585577E-1	9.476519E-1	8.088395E-1	8.867767E-1	8.100408E-1	7.987409E-1	8.800216E-1	8.918409E-1	8.367559E-1	8.454917E-1	8.440543E-1	8.741406E-1	8.692664E-1	8.158576E-1	8.603385E-1	7.975580E-1	7.566498E-1	8.646616E-1	8.330528E-1	8.844032E-1	8.156355E-1	8.710683E-1	9.057455E-1	8.779103E-1	8.814728E-1	8.325154E-1	9.207099E-1	8.843056E-1	8.145385E-1	8.341696E-1	9.221419E-1	8.827570E-1	8.023201E-1	7.893658E-1	8.937912E-1	8.870746E-1	7.911373E-1	8.065157E-1	8.928783E-1	8.826599E-1	8.000648E-1	7.799514E-1	8.273278E-1	7.577291E-1	8.008345E-1	8.067948E-1	8.325325E-1	7.311962E-1	7.904712E-1	7.613659E-1	7.858401E-1	8.644473E-1	8.083254E-1	7.888525E-1	8.182117E-1	8.818411E-1	8.070858E-1	8.133126E-1	7.840231E-1	9.249110E-1	8.087891E-1	8.489904E-1	8.089803E-1	8.133625E-1	7.959268E-1	8.253756E-1	7.916687E-1	8.037830E-1	8.023914E-1	8.669639E-1	7.942180E-1	8.299421E-1	8.169027E-1	7.805638E-1	8.201265E-1	8.758198E-1	8.085631E-1	8.620828E-1	8.337618E-1	9.190056E-1	7.749072E-1	8.537149E-1	7.683783E-1	9.545072E-1	7.793493E-1	7.590558E-1	7.791050E-1	7.964116E-1	7.999832E-1	9.278847E-1	7.521226E-1	9.095714E-1	7.972816E-1	8.031425E-1	8.556448E-1	8.977440E-1	7.878468E-1	8.442476E-1	7.856924E-1	8.802564E-1	7.405000E-1	8.399616E-1	8.017696E-1	8.265891E-1	7.859266E-1	9.112791E-1	7.794222E-1	7.772461E-1	8.135160E-1	8.273371E-1
5.345160E+2	1.273937E+0	1.266462E+0	1.102178E+0	1.145612E+0	1.191957E+0	1.134682E+0	1.302320E+0	1.175405E+0	1.127958E+0	1.153611E+0	1.265191E+0	1.250894E+0	1.062704E+0	1.105682E+0	1.254572E+0	1.186545E+0	1.171754E+0	1.106535E+0	9.175568E-1	1.128373E+0	1.213757E+0	1.142847E+0	1.119256E+0	1.158145E+0	1.308578E+0	1.211685E+0	1.327705E+0	1.212548E+0	1.124260E+0	1.131351E+0	1.338827E+0	1.292836E+0	1.099868E+0	1.206483E+0	1.338855E+0	1.313006E+0	1.169716E+0	1.221976E+0	1.305254E+0	1.340895E+0	1.252160E+0	1.234997E+0	1.159915E+0	1.337323E+0	1.125829E+0	1.195881E+0	1.183356E+0	1.355063E+0	1.189356E+0	1.260597E+0	1.016933E+0	1.256610E+0	1.182065E+0	1.166886E+0	1.241349E+0	1.240993E+0	1.174805E+0	1.268757E+0	1.260483E+0	1.298154E+0	1.074841E+0	1.301281E+0	1.172750E+0	1.225333E+0	1.183376E+0	1.067015E+0	1.243629E+0	1.268667E+0	1.143550E+0	1.152896E+0	1.208346E+0	1.242115E+0	1.193987E+0	1.188739E+0	1.237252E+0	1.179144E+0	1.124375E+0	1.166633E+0	1.189750E+0	1.228279E+0	1.080611E+0	1.224475E+0	1.219927E+0	1.203950E+0	1.136181E+0	1.158402E+0	1.319205E+0	1.182616E+0	1.216800E+0	1.172697E+0	1.395982E+0	1.211316E+0	1.128835E+0	1.132923E+0	1.321925E+0	1.250842E+0	1.145102E+0	1.161247E+0	1.256496E+0	1.245512E+0	1.145188E+0	1.150482E+0	1.210769E+0	1.143715E+0	1.181726E+0	1.207534E+0	1.181246E+0	1.062953E+0	1.110144E+0	1.187144E+0	1.104089E+0	1.217572E+0	1.150407E+0	1.170674E+0	1.106253E+0	1.191215E+0	1.127812E+0	1.144860E+0	1.128667E+0	1.311865E+0	1.169525E+0	1.194785E+0	1.131816E+0	1.182447E+0	1.110314E+0	1.216118E+0	1.148018E+0	1.190239E+0	1.154470E+0	1.208145E+0	1.085896E+0	1.193896E+0	1.217282E+0	1.126413E+0	1.135336E+0	1.206803E+0	1.168751E+0	1.207462E+0	1.219025E+0	1.246489E+0	1.158754E+0	1.153300E+0	1.149946E+0	1.303763E+0	1.123594E+0	1.182676E+0	1.180681E+0	1.168607E+0	1.137590E+0	1.286058E+0	1.093184E+0	1.290896E+0	1.168895E+0	1.212317E+0	1.142726E+0	1.255344E+0	1.153576E+0	1.113137E+0	1.135924E+0	1.242234E+0	1.124152E+0	1.198448E+0	1.173846E+0	1.189598E+0	1.113854E+0	1.265738E+0	1.089739E+0	1.090212E+0	1.179656E+0	1.200887E+0
5.346560E+2	1.722614E+0	1.748818E+0	1.466504E+0	1.561727E+0	1.635699E+0	1.551626E+0	1.751275E+0	1.632594E+0	1.593163E+0	1.564011E+0	1.761764E+0	1.705297E+0	1.664876E+0	1.504161E+0	1.679653E+0	1.610415E+0	1.725192E+0	1.557001E+0	1.322167E+0	1.618534E+0	1.755690E+0	1.502811E+0	1.507204E+0	1.529790E+0	1.718472E+0	1.627950E+0	1.722302E+0	1.644112E+0	1.668311E+0	1.534589E+0	1.761796E+0	1.706227E+0	1.693965E+0	1.600245E+0	1.796598E+0	1.694771E+0	1.668648E+0	1.592786E+0	1.650354E+0	1.737418E+0	1.762531E+0	1.637504E+0	1.542200E+0	1.767755E+0	1.584145E+0	1.626362E+0	1.623000E+0	1.747572E+0	1.686204E+0	1.695302E+0	1.383641E+0	1.751961E+0	1.567715E+0	1.593382E+0	1.545742E+0	1.757730E+0	1.576692E+0	1.713325E+0	1.672351E+0	1.754757E+0	1.480266E+0	1.771860E+0	1.605028E+0	1.772827E+0	1.576363E+0	1.471573E+0	1.645763E+0	1.699943E+0	1.601760E+0	1.596145E+0	1.648723E+0	1.674891E+0	1.623254E+0	1.620799E+0	1.600820E+0	1.534604E+0	1.507600E+0	1.559147E+0	1.528287E+0	1.600772E+0	1.545794E+0	1.639756E+0	1.673876E+0	1.608931E+0	1.597681E+0	1.594081E+0	1.673765E+0	1.626979E+0	1.542513E+0	1.605225E+0	1.786448E+0	1.674724E+0	1.496520E+0	1.566974E+0	1.753468E+0	1.717317E+0	1.497914E+0	1.537544E+0	1.670701E+0	1.681780E+0	1.553480E+0	1.565941E+0	1.606580E+0	1.539633E+0	1.567968E+0	1.576369E+0	1.556125E+0	1.494507E+0	1.505637E+0	1.592470E+0	1.528240E+0	1.602407E+0	1.552761E+0	1.587111E+0	1.491035E+0	1.677019E+0	1.462919E+0	1.580465E+0	1.484302E+0	1.719650E+0	1.576134E+0	1.639232E+0	1.511897E+0	1.536394E+0	1.501148E+0	1.600944E+0	1.510291E+0	1.614592E+0	1.582252E+0	1.644438E+0	1.521087E+0	1.583431E+0	1.653917E+0	1.528911E+0	1.506812E+0	1.664672E+0	1.576001E+0	1.599089E+0	1.632491E+0	1.650893E+0	1.480536E+0	1.624243E+0	1.505215E+0	1.751295E+0	1.576064E+0	1.453494E+0	1.564080E+0	1.587914E+0	1.531631E+0	1.724757E+0	1.465521E+0	1.740070E+0	1.610605E+0	1.551749E+0	1.555022E+0	1.714022E+0	1.519819E+0	1.583267E+0	1.467858E+0	1.663464E+0	1.494631E+0	1.584872E+0	1.527453E+0	1.532969E+0	1.473869E+0	1.726007E+0	1.508990E+0	1.519278E+0	1.544618E+0	1.690648E+0
5.348230E+2	2.112541E+0	2.186351E+0	1.785143E+0	1.896920E+0	1.928214E+0	1.910577E+0	2.168159E+0	1.979781E+0	1.941782E+0	1.957610E+0	2.083156E+0	2.002731E+0	2.004174E+0	1.831158E+0	2.010915E+0	1.929946E+0	2.091807E+0	1.821144E+0	1.619287E+0	1.906059E+0	2.102373E+0	1.833611E+0	1.852328E+0	1.836285E+0	2.048262E+0	1.828790E+0	2.014239E+0	1.955476E+0	2.079125E+0	1.779024E+0	2.020117E+0	1.936511E+0	2.020913E+0	1.859179E+0	2.123405E+0	2.039412E+0	1.917871E+0	1.867191E+0	1.946825E+0	2.076678E+0	2.163805E+0	2.014647E+0	1.961160E+0	2.036640E+0	2.036779E+0	1.960044E+0	1.881931E+0	2.152284E+0	2.093953E+0	1.956471E+0	1.665165E+0	2.065781E+0	1.952843E+0	1.851459E+0	1.928755E+0	2.022259E+0	2.037938E+0	2.017915E+0	2.009050E+0	2.033268E+0	1.898787E+0	2.050865E+0	1.894650E+0	2.022875E+0	2.040574E+0	1.697996E+0	1.950374E+0	2.013035E+0	1.929340E+0	1.874372E+0	1.949028E+0	1.935029E+0	1.896228E+0	1.926459E+0	1.940366E+0	1.808952E+0	1.895634E+0	1.878393E+0	1.851183E+0	1.961296E+0	1.935603E+0	1.915122E+0	1.959283E+0	1.971197E+0	1.820613E+0	1.885532E+0	2.059994E+0	1.911572E+0	1.960698E+0	1.857145E+0	2.165170E+0	1.997927E+0	1.879052E+0	1.836400E+0	2.104277E+0	2.073495E+0	1.788467E+0	1.865030E+0	1.973023E+0	2.033795E+0	1.842112E+0	1.864976E+0	1.807947E+0	1.808876E+0	1.922642E+0	1.925617E+0	1.889348E+0	1.676043E+0	1.782276E+0	1.920717E+0	1.831671E+0	1.956068E+0	1.800360E+0	1.845921E+0	1.816243E+0	1.910607E+0	1.802820E+0	1.858452E+0	1.830943E+0	2.066046E+0	1.840431E+0	1.864286E+0	1.842469E+0	1.812915E+0	1.791742E+0	1.877746E+0	1.809388E+0	1.956210E+0	1.845410E+0	1.927940E+0	1.801367E+0	1.893311E+0	1.904607E+0	1.813644E+0	1.865889E+0	2.008931E+0	1.903007E+0	1.954419E+0	1.916118E+0	1.984598E+0	1.745998E+0	1.880704E+0	1.775407E+0	2.065146E+0	1.824173E+0	1.767079E+0	1.798095E+0	1.874129E+0	1.827286E+0	1.986776E+0	1.727648E+0	1.982733E+0	1.808647E+0	1.874321E+0	1.862974E+0	1.975864E+0	1.775521E+0	1.851031E+0	1.727100E+0	2.007127E+0	1.735577E+0	1.911933E+0	1.786059E+0	1.775766E+0	1.739514E+0	1.965666E+0	1.741582E+0	1.820706E+0	1.808335E+0	1.850442E+0
5.349580E+2	2.105784E+0	2.082942E+0	1.805319E+0	1.862478E+0	1.959672E+0	1.869084E+0	2.098994E+0	1.876120E+0	1.953499E+0	1.862097E+0	2.056009E+0	1.890258E+0	1.936958E+0	1.744700E+0	1.966925E+0	1.880389E+0	2.104223E+0	1.797032E+0	1.535627E+0	1.840889E+0	2.088142E+0	1.793972E+0	1.798417E+0	1.848967E+0	1.999646E+0	1.753415E+0	1.859180E+0	1.787001E+0	1.916282E+0	1.747885E+0	1.980373E+0	1.941277E+0	1.996800E+0	1.792787E+0	2.038675E+0	1.952420E+0	1.869491E+0	1.766139E+0	1.921335E+0	1.995739E+0	2.146523E+0	1.874597E+0	1.839476E+0	2.021706E+0	1.976395E+0	1.883742E+0	1.880855E+0	2.054156E+0	2.073514E+0	1.854525E+0	1.655818E+0	2.027983E+0	1.915421E+0	1.847990E+0	1.824436E+0	1.954301E+0	2.006900E+0	1.949047E+0	1.944321E+0	2.008305E+0	1.948142E+0	2.009098E+0	1.860735E+0	1.974027E+0	1.993415E+0	1.686189E+0	1.857669E+0	2.063774E+0	1.905586E+0	1.810474E+0	1.917282E+0	1.922260E+0	1.933191E+0	1.913245E+0	1.820245E+0	1.747444E+0	2.073617E+0	1.826583E+0	1.768945E+0	1.927478E+0	2.047479E+0	1.854365E+0	1.976314E+0	1.845755E+0	1.911397E+0	1.813169E+0	1.990517E+0	1.884571E+0	1.909325E+0	1.827037E+0	2.095884E+0	1.842749E+0	1.936498E+0	1.799590E+0	1.962702E+0	1.967249E+0	1.850731E+0	1.821330E+0	1.970641E+0	1.977236E+0	1.915036E+0	1.738404E+0	1.842585E+0	1.768144E+0	1.871292E+0	1.821513E+0	1.788426E+0	1.639420E+0	1.793545E+0	1.784386E+0	1.749917E+0	1.881897E+0	1.863891E+0	1.840066E+0	1.795474E+0	1.902531E+0	1.780766E+0	1.781944E+0	1.788487E+0	2.065501E+0	1.733045E+0	1.817527E+0	1.808429E+0	1.782644E+0	1.748203E+0	1.821847E+0	1.718076E+0	1.869206E+0	1.893472E+0	1.805210E+0	1.776499E+0	1.785174E+0	1.957443E+0	1.785816E+0	1.788162E+0	1.834834E+0	1.829400E+0	1.859586E+0	1.832042E+0	1.915594E+0	1.658904E+0	1.812851E+0	1.745500E+0	2.031859E+0	1.763153E+0	1.752819E+0	1.770260E+0	1.903575E+0	1.765357E+0	1.981369E+0	1.677009E+0	1.926772E+0	1.789734E+0	1.847587E+0	1.757103E+0	1.985324E+0	1.697000E+0	1.816643E+0	1.736760E+0	1.988815E+0	1.692219E+0	1.884578E+0	1.744367E+0	1.848369E+0	1.739985E+0	1.960900E+0	1.690352E+0	1.723353E+0	1.708263E+0	1.983260E+0
5.351090E+2	2.153613E+0	2.152877E+0	1.872962E+0	1.999080E+0	2.018728E+0	1.923577E+0	2.219088E+0	1.987023E+0	2.008163E+0	1.942395E+0	2.142373E+0	2.021728E+0	2.062180E+0	1.844198E+0	2.035831E+0	2.042110E+0	2.180359E+0	1.889101E+0	1.670497E+0	1.975062E+0	2.143930E+0	1.936590E+0	1.877018E+0	1.893566E+0	1.995228E+0	1.862346E+0	2.005150E+0	1.872928E+0	1.957917E+0	1.848047E+0	2.060991E+0	1.986291E+0	2.050810E+0	1.874502E+0	2.137710E+0	1.994534E+0	1.875355E+0	1.853280E+0	1.966655E+0	2.059457E+0	2.205389E+0	1.927530E+0	1.917821E+0	2.091969E+0	2.104913E+0	1.879755E+0	1.900814E+0	2.100539E+0	2.125921E+0	2.017756E+0	1.651664E+0	2.046883E+0	1.968433E+0	1.910406E+0	1.828467E+0	2.059652E+0	2.025415E+0	2.002799E+0	2.015311E+0	2.014961E+0	2.060957E+0	2.095972E+0	1.904876E+0	2.044642E+0	2.051386E+0	1.745208E+0	1.981077E+0	2.053874E+0	1.989710E+0	1.931225E+0	1.990340E+0	2.025837E+0	2.053578E+0	1.945993E+0	1.930754E+0	1.933065E+0	2.205097E+0	1.893044E+0	1.848658E+0	1.997191E+0	2.091641E+0	1.956929E+0	2.097289E+0	1.930645E+0	1.931069E+0	1.856090E+0	2.061529E+0	1.938126E+0	1.975084E+0	1.954315E+0	2.171044E+0	2.037530E+0	2.078213E+0	1.867076E+0	2.099729E+0	2.006210E+0	1.983323E+0	1.851410E+0	2.010516E+0	1.994685E+0	1.938149E+0	1.756280E+0	1.921747E+0	1.848619E+0	1.968651E+0	1.949123E+0	1.865854E+0	1.745049E+0	2.099388E+0	1.866183E+0	1.870633E+0	1.915763E+0	2.071856E+0	1.925268E+0	1.834827E+0	1.883272E+0	1.894864E+0	1.823259E+0	1.901367E+0	2.103867E+0	1.889954E+0	1.931080E+0	1.842467E+0	1.865892E+0	1.994245E+0	1.918590E+0	1.845417E+0	1.957816E+0	2.026857E+0	1.870869E+0	1.812247E+0	1.979942E+0	1.947085E+0	1.872774E+0	1.852059E+0	1.996639E+0	1.942824E+0	1.949152E+0	1.946981E+0	2.027018E+0	1.967128E+0	1.959479E+0	1.867191E+0	2.086811E+0	1.833960E+0	1.901632E+0	1.892951E+0	1.913586E+0	1.901700E+0	2.037860E+0	1.721195E+0	1.995115E+0	1.824780E+0	1.930698E+0	1.858394E+0	1.956952E+0	1.830276E+0	1.907965E+0	1.797760E+0	1.998511E+0	1.748754E+0	1.909021E+0	1.828809E+0	1.822186E+0	1.779620E+0	2.016454E+0	1.749821E+0	1.754363E+0	1.889569E+0	1.964583E+0
5.352550E+2	1.869229E+0	1.921559E+0	1.703258E+0	1.817140E+0	1.759327E+0	1.688107E+0	1.902811E+0	1.827237E+0	1.872615E+0	1.777603E+0	1.904263E+0	1.773284E+0	1.759713E+0	1.603662E+0	1.832830E+0	1.754314E+0	1.935768E+0	1.687979E+0	1.504190E+0	1.676038E+0	1.907114E+0	1.707397E+0	1.696141E+0	1.728728E+0	1.793046E+0	1.629896E+0	1.747431E+0	1.649423E+0	1.724290E+0	1.584930E+0	1.791316E+0	1.733931E+0	1.787998E+0	1.700345E+0	1.885729E+0	1.816670E+0	1.716539E+0	1.596958E+0	1.767433E+0	1.829985E+0	1.934272E+0	1.693195E+0	1.700564E+0	1.934289E+0	1.813818E+0	1.821673E+0	1.734667E+0	1.838861E+0	1.892699E+0	1.752006E+0	1.484928E+0	1.814953E+0	1.792760E+0	1.721677E+0	1.660645E+0	1.757730E+0	1.790708E+0	1.829787E+0	1.789803E+0	1.824107E+0	1.813168E+0	1.833116E+0	1.693313E+0	1.792174E+0	1.886821E+0	1.527908E+0	1.752316E+0	1.753157E+0	1.710129E+0	1.660041E+0	1.723294E+0	1.769014E+0	1.824949E+0	1.724217E+0	1.688913E+0	1.682122E+0	1.864635E+0	1.664341E+0	1.673588E+0	1.736553E+0	1.840211E+0	1.723926E+0	1.889401E+0	1.731130E+0	1.703600E+0	1.737311E+0	1.848486E+0	1.704880E+0	1.734138E+0	1.684450E+0	1.884505E+0	1.750173E+0	1.863251E+0	1.649796E+0	1.867185E+0	1.852400E+0	1.795960E+0	1.666382E+0	1.766516E+0	1.844247E+0	1.722448E+0	1.640339E+0	1.648140E+0	1.639981E+0	1.834911E+0	1.682152E+0	1.705649E+0	1.531132E+0	1.884224E+0	1.671645E+0	1.658834E+0	1.789449E+0	1.836199E+0	1.706397E+0	1.661564E+0	1.815554E+0	1.705497E+0	1.643206E+0	1.613166E+0	1.849545E+0	1.726268E+0	1.685478E+0	1.620712E+0	1.656900E+0	1.851479E+0	1.712204E+0	1.630719E+0	1.800881E+0	1.836996E+0	1.756733E+0	1.582220E+0	1.711335E+0	1.831581E+0	1.656617E+0	1.680389E+0	1.765983E+0	1.845685E+0	1.720846E+0	1.721890E+0	1.852248E+0	1.933747E+0	1.751321E+0	1.649595E+0	1.873877E+0	1.813815E+0	1.590331E+0	1.625423E+0	1.749276E+0	1.718411E+0	1.801083E+0	1.613464E+0	1.872296E+0	1.782503E+0	1.719136E+0	1.660899E+0	1.803861E+0	1.757952E+0	1.725888E+0	1.612727E+0	1.784663E+0	1.682337E+0	1.719883E+0	1.602922E+0	1.638895E+0	1.684306E+0	1.775206E+0	1.566108E+0	1.633935E+0	1.712973E+0	1.719702E+0
5.354110E+2	1.479297E+0	1.563529E+0	1.493801E+0	1.423407E+0	1.429281E+0	1.362152E+0	1.563266E+0	1.380913E+0	1.409645E+0	1.407091E+0	1.465673E+0	1.456350E+0	1.493156E+0	1.298402E+0	1.428421E+0	1.393044E+0	1.508673E+0	1.325740E+0	1.214171E+0	1.376464E+0	1.547913E+0	1.404390E+0	1.399889E+0	1.378073E+0	1.416851E+0	1.310402E+0	1.439456E+0	1.341919E+0	1.436071E+0	1.338939E+0	1.447269E+0	1.422263E+0	1.400774E+0	1.326502E+0	1.551222E+0	1.399997E+0	1.391571E+0	1.292894E+0	1.385981E+0	1.460584E+0	1.543260E+0	1.394347E+0	1.321053E+0	1.497214E+0	1.479373E+0	1.415678E+0	1.370003E+0	1.475158E+0	1.491238E+0	1.413517E+0	1.152501E+0	1.479375E+0	1.431540E+0	1.337780E+0	1.378931E+0	1.454893E+0	1.457978E+0	1.529116E+0	1.439010E+0	1.467922E+0	1.487317E+0	1.468349E+0	1.374624E+0	1.511172E+0	1.498748E+0	1.243001E+0	1.459745E+0	1.466669E+0	1.398880E+0	1.363204E+0	1.417955E+0	1.448805E+0	1.499701E+0	1.383512E+0	1.391008E+0	1.328841E+0	1.541272E+0	1.340911E+0	1.360785E+0	1.423372E+0	1.493975E+0	1.393372E+0	1.457180E+0	1.430502E+0	1.341459E+0	1.372997E+0	1.466853E+0	1.303446E+0	1.429490E+0	1.318985E+0	1.536902E+0	1.432849E+0	1.510403E+0	1.343048E+0	1.501024E+0	1.482561E+0	1.453527E+0	1.346274E+0	1.416583E+0	1.509076E+0	1.416354E+0	1.318597E+0	1.351282E+0	1.296716E+0	1.454554E+0	1.360330E+0	1.417813E+0	1.255108E+0	1.540983E+0	1.364376E+0	1.313149E+0	1.436326E+0	1.490861E+0	1.351733E+0	1.352754E+0	1.401814E+0	1.364640E+0	1.345321E+0	1.304986E+0	1.535487E+0	1.384300E+0	1.386438E+0	1.354088E+0	1.397259E+0	1.477351E+0	1.387034E+0	1.337547E+0	1.390938E+0	1.435053E+0	1.384258E+0	1.254793E+0	1.388083E+0	1.440002E+0	1.364930E+0	1.334188E+0	1.398606E+0	1.497567E+0	1.405322E+0	1.365894E+0	1.489132E+0	1.594233E+0	1.398260E+0	1.315462E+0	1.530436E+0	1.525982E+0	1.320651E+0	1.318704E+0	1.369427E+0	1.432746E+0	1.501203E+0	1.244106E+0	1.466210E+0	1.454838E+0	1.410511E+0	1.361092E+0	1.492957E+0	1.465580E+0	1.400066E+0	1.315362E+0	1.502405E+0	1.416144E+0	1.426575E+0	1.283624E+0	1.365748E+0	1.397432E+0	1.503281E+0	1.276400E+0	1.333229E+0	1.326819E+0	1.503873E+0
5.355580E+2	1.418472E+0	1.368074E+0	1.538301E+0	1.271882E+0	1.328831E+0	1.232671E+0	1.393494E+0	1.325688E+0	1.280237E+0	1.268543E+0	1.360804E+0	1.339375E+0	1.297036E+0	1.212908E+0	1.313936E+0	1.289580E+0	1.444961E+0	1.250114E+0	1.085891E+0	1.265837E+0	1.423245E+0	1.269062E+0	1.265871E+0	1.246903E+0	1.303054E+0	1.242807E+0	1.330379E+0	1.217859E+0	1.343085E+0	1.128756E+0	1.324067E+0	1.233967E+0	1.284559E+0	1.210059E+0	1.353707E+0	1.275326E+0	1.283088E+0	1.210390E+0	1.240104E+0	1.355106E+0	1.390959E+0	1.285726E+0	1.263822E+0	1.322940E+0	1.312665E+0	1.268198E+0	1.184975E+0	1.334069E+0	1.336627E+0	1.247997E+0	1.124453E+0	1.336781E+0	1.323436E+0	1.210971E+0	1.271081E+0	1.318983E+0	1.322926E+0	1.342664E+0	1.299636E+0	1.369167E+0	1.294928E+0	1.368667E+0	1.212048E+0	1.337540E+0	1.371028E+0	1.150716E+0	1.258679E+0	1.346631E+0	1.268742E+0	1.259560E+0	1.294508E+0	1.349009E+0	1.321237E+0	1.264005E+0	1.246864E+0	1.227048E+0	1.406049E+0	1.266595E+0	1.225572E+0	1.278223E+0	1.414481E+0	1.298611E+0	1.355586E+0	1.303438E+0	1.260256E+0	1.250229E+0	1.340663E+0	1.260953E+0	1.290779E+0	1.246633E+0	1.424756E+0	1.293188E+0	1.326083E+0	1.190184E+0	1.343530E+0	1.316614E+0	1.314592E+0	1.259436E+0	1.302916E+0	1.358642E+0	1.329561E+0	1.140338E+0	1.248371E+0	1.244555E+0	1.301021E+0	1.266303E+0	1.234113E+0	1.133022E+0	1.403688E+0	1.239054E+0	1.261020E+0	1.321305E+0	1.424615E+0	1.223396E+0	1.214473E+0	1.267628E+0	1.279304E+0	1.282583E+0	1.216078E+0	1.371062E+0	1.324871E+0	1.272371E+0	1.256101E+0	1.252887E+0	1.344208E+0	1.246216E+0	1.218597E+0	1.272441E+0	1.353341E+0	1.279940E+0	1.239769E+0	1.267733E+0	1.312069E+0	1.231263E+0	1.245966E+0	1.274179E+0	1.332254E+0	1.217999E+0	1.248824E+0	1.346035E+0	1.493056E+0	1.224603E+0	1.220072E+0	1.430572E+0	1.430424E+0	1.198069E+0	1.219872E+0	1.301702E+0	1.270434E+0	1.454327E+0	1.197438E+0	1.333983E+0	1.400876E+0	1.265790E+0	1.302555E+0	1.303813E+0	1.379315E+0	1.245046E+0	1.163375E+0	1.362893E+0	1.329973E+0	1.276431E+0	1.283098E+0	1.315163E+0	1.252575E+0	1.307006E+0	1.176297E+0	1.202707E+0	1.316223E+0	1.300498E+0
5.357190E+2	1.154360E+0	1.175610E+0	1.274847E+0	1.076738E+0	1.135110E+0	1.095687E+0	1.207374E+0	1.061788E+0	1.082777E+0	1.027132E+0	1.152304E+0	1.091931E+0	1.119329E+0	1.017292E+0	1.082843E+0	1.077428E+0	1.119380E+0	1.040772E+0	9.140075E-1	1.032532E+0	1.179032E+0	1.018454E+0	1.030079E+0	1.046215E+0	1.114129E+0	1.037104E+0	1.074267E+0	1.033936E+0	1.095116E+0	9.886347E-1	1.148635E+0	1.062117E+0	1.082026E+0	1.059907E+0	1.141340E+0	1.075855E+0	1.060743E+0	9.934643E-1	1.112640E+0	1.120034E+0	1.145764E+0	1.069033E+0	1.021559E+0	1.165813E+0	1.129445E+0	1.077442E+0	1.099203E+0	1.128543E+0	1.151623E+0	1.089920E+0	9.234377E-1	1.113444E+0	1.098387E+0	1.030663E+0	1.039259E+0	1.090030E+0	1.151933E+0	1.109183E+0	1.079868E+0	1.133375E+0	1.129736E+0	1.180434E+0	1.060239E+0	1.151820E+0	1.129340E+0	9.554133E-1	1.129249E+0	1.148626E+0	1.110396E+0	1.032652E+0	1.070793E+0	1.084142E+0	1.111619E+0	1.093938E+0	1.075490E+0	1.070275E+0	1.191719E+0	1.031087E+0	1.011654E+0	1.108626E+0	1.190724E+0	1.096824E+0	1.138887E+0	1.099056E+0	1.026732E+0	1.038627E+0	1.111272E+0	1.054705E+0	1.062163E+0	1.088725E+0	1.182843E+0	1.119811E+0	1.103459E+0	1.060326E+0	1.176370E+0	1.151679E+0	1.090913E+0	1.022760E+0	1.105931E+0	1.123959E+0	1.100506E+0	1.021981E+0	1.073225E+0	1.012071E+0	1.087573E+0	1.045223E+0	1.025312E+0	9.504219E-1	1.162399E+0	1.012532E+0	1.008066E+0	1.094489E+0	1.157467E+0	1.044999E+0	1.022628E+0	1.065105E+0	1.094731E+0	9.969398E-1	1.061235E+0	1.162785E+0	1.070479E+0	1.068902E+0	1.041567E+0	1.020608E+0	1.105252E+0	1.068313E+0	9.723111E-1	1.069071E+0	1.180306E+0	1.119168E+0	1.029427E+0	1.114244E+0	1.105404E+0	1.064797E+0	1.058082E+0	1.090246E+0	1.157288E+0	1.114385E+0	1.056725E+0	1.100564E+0	1.207777E+0	1.070497E+0	1.046820E+0	1.213409E+0	1.161012E+0	1.042419E+0	9.665446E-1	1.109126E+0	1.095139E+0	1.168269E+0	9.447453E-1	1.156690E+0	1.119384E+0	1.046090E+0	1.049578E+0	1.129446E+0	1.169073E+0	1.080440E+0	1.007828E+0	1.134503E+0	1.113174E+0	1.112319E+0	9.854336E-1	1.036063E+0	1.061953E+0	1.136653E+0	1.014956E+0	1.066415E+0	1.027784E+0	1.078446E+0
5.358650E+2	8.944078E-1	9.311429E-1	9.763839E-1	8.683921E-1	8.183088E-1	8.447207E-1	9.376244E-1	8.467751E-1	8.406935E-1	8.271812E-1	8.531240E-1	9.039705E-1	8.444844E-1	8.153951E-1	8.787833E-1	8.226696E-1	9.098845E-1	8.549953E-1	6.985194E-1	8.271571E-1	8.648005E-1	8.115886E-1	7.973102E-1	8.424666E-1	8.583608E-1	8.265386E-1	8.662757E-1	7.930514E-1	8.591762E-1	7.976544E-1	8.494353E-1	8.578030E-1	8.587572E-1	8.111882E-1	8.706539E-1	9.229265E-1	8.227588E-1	7.334331E-1	8.770672E-1	8.970165E-1	9.540394E-1	8.198092E-1	8.287492E-1	9.505941E-1	8.755118E-1	8.268955E-1	8.429685E-1	9.078777E-1	8.843309E-1	8.728525E-1	6.767141E-1	8.706356E-1	8.546284E-1	8.305403E-1	8.331374E-1	8.537804E-1	9.253952E-1	8.482643E-1	8.580126E-1	9.513990E-1	9.116623E-1	8.936326E-1	8.459847E-1	9.051554E-1	8.964972E-1	7.821080E-1	8.192205E-1	9.159728E-1	8.426934E-1	8.142988E-1	8.460696E-1	8.585323E-1	8.829947E-1	8.434362E-1	8.421868E-1	8.269524E-1	9.453222E-1	7.626083E-1	8.244761E-1	8.687963E-1	8.556766E-1	8.248020E-1	8.951745E-1	8.038358E-1	8.542366E-1	8.275249E-1	8.818817E-1	8.391608E-1	8.695088E-1	8.558224E-1	9.233165E-1	8.517206E-1	9.148289E-1	8.241309E-1	9.415514E-1	8.946639E-1	8.678111E-1	8.099211E-1	8.726443E-1	9.175609E-1	8.134179E-1	7.968598E-1	8.347491E-1	8.471463E-1	8.709142E-1	8.375776E-1	8.213179E-1	7.497740E-1	9.149591E-1	8.300561E-1	7.935214E-1	8.590727E-1	9.315839E-1	8.575491E-1	8.466336E-1	8.159906E-1	8.291383E-1	8.281050E-1	7.865206E-1	9.462865E-1	8.822914E-1	8.274102E-1	8.404385E-1	8.314093E-1	9.240104E-1	8.366625E-1	8.143725E-1	8.614305E-1	8.937155E-1	8.344410E-1	8.247849E-1	8.241277E-1	8.692161E-1	8.396966E-1	8.201270E-1	8.851637E-1	9.219900E-1	8.533016E-1	8.715432E-1	8.681018E-1	9.360601E-1	8.427893E-1	8.302539E-1	9.228049E-1	9.048435E-1	8.023869E-1	7.978491E-1	8.641370E-1	9.053601E-1	9.182691E-1	7.660228E-1	8.813431E-1	8.629263E-1	8.781193E-1	8.189960E-1	8.859228E-1	9.500482E-1	8.504483E-1	7.933169E-1	8.867204E-1	8.568581E-1	8.568379E-1	7.822421E-1	7.920731E-1	8.510405E-1	9.012274E-1	8.306508E-1	7.765249E-1	8.453028E-1	9.144982E-1
5.360120E+2	8.237007E-1	8.468651E-1	9.063664E-1	7.507321E-1	7.940247E-1	7.572325E-1	8.433065E-1	7.929084E-1	7.631593E-1	7.720765E-1	8.062423E-1	7.185115E-1	7.781906E-1	8.004215E-1	7.653575E-1	7.548509E-1	8.440124E-1	7.990982E-1	6.310843E-1	7.389829E-1	7.936432E-1	7.810605E-1	7.136742E-1	7.274755E-1	8.064335E-1	7.244171E-1	7.812605E-1	7.616738E-1	7.412058E-1	7.016453E-1	8.278605E-1	7.569440E-1	7.589371E-1	7.544989E-1	8.508474E-1	7.373068E-1	7.308890E-1	7.329693E-1	7.784003E-1	8.139238E-1	8.444049E-1	7.889320E-1	7.276216E-1	8.548798E-1	7.748683E-1	7.682455E-1	7.393958E-1	8.370898E-1	8.067641E-1	7.898054E-1	6.595740E-1	8.190964E-1	7.376863E-1	7.161136E-1	7.711494E-1	8.305207E-1	8.028675E-1	7.463606E-1	7.603962E-1	7.988273E-1	7.822281E-1	8.123264E-1	7.598514E-1	8.219676E-1	8.061110E-1	6.656772E-1	7.469803E-1	7.990267E-1	7.966747E-1	7.161903E-1	7.513434E-1	7.913697E-1	8.032667E-1	7.348461E-1	7.514284E-1	7.240711E-1	8.576669E-1	7.128899E-1	7.291213E-1	7.699511E-1	8.179911E-1	7.779779E-1	7.976900E-1	7.935626E-1	7.589109E-1	7.671385E-1	8.302822E-1	7.289541E-1	7.693295E-1	7.549512E-1	8.769302E-1	7.752000E-1	7.850853E-1	7.433540E-1	7.982716E-1	7.777927E-1	7.945965E-1	7.577049E-1	7.726645E-1	8.008220E-1	7.923615E-1	6.818840E-1	7.531128E-1	7.383550E-1	8.174180E-1	7.553026E-1	7.374776E-1	6.595363E-1	8.283812E-1	7.403911E-1	6.969489E-1	8.010243E-1	8.257013E-1	7.526403E-1	7.389591E-1	7.582161E-1	7.193542E-1	7.464930E-1	7.415669E-1	8.196765E-1	7.347652E-1	7.981230E-1	7.445162E-1	7.225469E-1	7.888387E-1	7.624917E-1	7.354032E-1	8.032489E-1	8.546623E-1	7.473049E-1	7.170240E-1	7.927324E-1	8.200102E-1	7.104995E-1	7.385834E-1	7.479509E-1	8.399363E-1	7.239305E-1	7.353174E-1	7.945739E-1	8.693048E-1	7.743617E-1	7.312524E-1	8.102610E-1	8.259775E-1	7.567755E-1	7.569530E-1	7.298638E-1	7.810054E-1	8.221155E-1	6.915551E-1	8.095347E-1	7.639033E-1	7.862873E-1	7.294104E-1	8.096741E-1	8.741129E-1	7.726566E-1	7.145277E-1	8.436278E-1	7.827621E-1	7.951503E-1	7.289373E-1	7.599383E-1	8.014973E-1	8.335095E-1	7.452699E-1	7.202780E-1	7.817279E-1	7.443267E-1
5.362680E+2	6.375749E-1	6.466299E-1	7.354775E-1	6.210185E-1	5.793291E-1	5.872549E-1	6.817087E-1	6.027915E-1	6.488106E-1	6.246063E-1	6.464745E-1	6.275309E-1	6.386965E-1	6.651798E-1	6.445116E-1	5.805208E-1	6.501738E-1	6.544216E-1	5.225797E-1	5.538725E-1	6.131879E-1	6.343405E-1	5.831819E-1	5.901852E-1	5.992781E-1	6.534175E-1	6.705819E-1	5.724422E-1	6.019553E-1	6.549379E-1	6.019003E-1	5.989466E-1	6.441687E-1	6.656335E-1	6.291263E-1	5.982308E-1	6.502582E-1	6.008682E-1	6.296915E-1	6.201837E-1	6.424176E-1	5.783048E-1	5.925991E-1	6.280428E-1	6.303546E-1	6.230424E-1	6.239547E-1	6.496230E-1	6.165160E-1	6.317299E-1	4.912823E-1	6.610415E-1	6.332185E-1	5.764245E-1	6.189524E-1	6.362310E-1	6.356870E-1	6.578953E-1	6.356361E-1	6.212900E-1	6.417142E-1	6.174125E-1	6.015825E-1	6.347939E-1	6.582504E-1	5.744641E-1	6.061123E-1	6.294864E-1	6.200205E-1	5.914167E-1	6.455326E-1	6.125840E-1	6.696817E-1	6.210856E-1	5.955371E-1	6.032261E-1	6.497533E-1	6.186868E-1	5.651507E-1	6.133599E-1	6.825587E-1	5.433022E-1	6.420668E-1	6.237839E-1	5.813722E-1	5.944638E-1	6.509595E-1	6.063555E-1	5.843825E-1	5.796143E-1	6.450003E-1	6.280433E-1	6.639589E-1	5.833331E-1	6.498748E-1	6.305649E-1	6.412500E-1	5.840290E-1	5.965087E-1	6.437668E-1	6.259625E-1	5.997584E-1	5.690607E-1	5.957840E-1	6.002245E-1	6.019481E-1	6.045074E-1	5.544349E-1	6.767415E-1	5.878033E-1	5.520906E-1	6.360184E-1	6.215386E-1	6.179114E-1	6.263660E-1	5.786793E-1	5.827221E-1	5.623564E-1	6.117012E-1	6.722393E-1	6.086113E-1	5.997909E-1	6.037270E-1	5.898161E-1	6.556920E-1	6.114620E-1	5.720347E-1	5.993454E-1	6.870344E-1	6.006464E-1	5.709254E-1	5.683142E-1	6.309568E-1	5.837875E-1	5.731109E-1	6.082789E-1	6.480773E-1	5.986579E-1	6.272950E-1	6.825855E-1	6.695582E-1	6.173806E-1	5.580003E-1	6.760536E-1	6.849410E-1	5.697670E-1	5.922334E-1	6.503603E-1	6.181956E-1	6.640629E-1	5.585072E-1	6.743373E-1	6.721128E-1	6.305217E-1	5.838336E-1	6.394448E-1	6.406261E-1	6.114357E-1	5.742315E-1	6.599451E-1	6.428034E-1	6.409309E-1	5.758842E-1	5.897406E-1	6.118177E-1	6.271825E-1	5.886392E-1	5.710061E-1	6.522250E-1	6.135863E-1
5.365140E+2	4.909627E-1	4.834535E-1	5.657744E-1	4.499802E-1	4.970933E-1	4.797696E-1	5.578379E-1	4.674460E-1	5.037837E-1	4.865823E-1	5.113816E-1	5.290521E-1	5.028848E-1	5.347681E-1	5.241956E-1	4.574897E-1	5.027718E-1	5.185138E-1	4.424691E-1	4.815806E-1	5.073055E-1	4.493467E-1	4.834239E-1	4.856880E-1	5.092345E-1	4.890503E-1	4.615206E-1	4.710683E-1	4.927753E-1	5.257151E-1	4.917584E-1	4.989539E-1	4.903397E-1	5.323367E-1	5.141396E-1	5.334024E-1	4.806894E-1	4.873072E-1	4.710689E-1	4.927459E-1	5.635668E-1	5.341948E-1	5.036951E-1	5.411812E-1	5.333238E-1	5.569895E-1	4.934100E-1	5.021887E-1	5.735394E-1	5.166095E-1	4.045398E-1	5.069959E-1	4.871714E-1	4.907288E-1	4.662509E-1	4.980387E-1	5.137049E-1	4.955210E-1	4.847747E-1	5.314112E-1	4.936457E-1	5.639502E-1	4.691537E-1	5.250047E-1	5.369160E-1	4.564235E-1	4.833046E-1	4.958334E-1	4.879016E-1	4.731835E-1	4.802650E-1	4.735290E-1	4.996654E-1	5.176672E-1	4.572634E-1	4.600634E-1	5.417876E-1	5.066903E-1	4.602099E-1	4.765373E-1	5.359384E-1	5.633697E-1	5.357735E-1	4.599525E-1	5.112646E-1	4.856690E-1	4.961597E-1	4.819866E-1	5.155405E-1	4.734619E-1	5.398978E-1	4.894494E-1	5.227252E-1	5.086910E-1	4.895384E-1	5.020576E-1	5.317171E-1	5.147852E-1	4.935529E-1	5.041623E-1	4.795939E-1	4.794684E-1	4.562546E-1	4.696063E-1	5.205157E-1	4.956060E-1	4.747406E-1	4.328787E-1	5.727459E-1	4.729693E-1	4.423489E-1	5.166973E-1	5.151131E-1	4.730629E-1	4.738738E-1	5.059947E-1	4.695814E-1	4.715631E-1	4.608567E-1	5.242530E-1	4.850650E-1	5.350507E-1	4.887230E-1	4.599963E-1	5.245708E-1	4.991311E-1	4.634516E-1	4.685695E-1	5.242134E-1	4.871240E-1	4.382964E-1	5.043606E-1	5.232218E-1	4.491248E-1	4.705855E-1	5.246722E-1	5.189646E-1	5.003122E-1	4.868117E-1	5.083802E-1	5.365674E-1	5.190521E-1	4.935462E-1	5.339215E-1	5.485093E-1	4.637197E-1	4.485296E-1	5.025425E-1	4.853501E-1	5.540867E-1	4.482946E-1	5.015019E-1	5.130085E-1	4.811488E-1	4.805052E-1	5.283223E-1	5.502273E-1	4.919292E-1	4.476599E-1	4.843431E-1	5.099799E-1	5.070808E-1	4.555530E-1	4.725066E-1	4.806467E-1	4.928054E-1	4.320094E-1	4.736556E-1	4.650341E-1	5.284993E-1
5.367710E+2	5.299555E-1	5.234999E-1	6.007834E-1	4.677722E-1	4.910226E-1	4.847685E-1	5.433756E-1	5.167864E-1	4.870497E-1	4.897314E-1	5.156996E-1	5.290522E-1	5.226812E-1	5.555376E-1	5.051149E-1	4.766185E-1	5.038520E-1	5.913999E-1	5.017914E-1	4.667935E-1	5.443070E-1	4.898998E-1	5.106309E-1	4.738830E-1	5.633707E-1	5.449744E-1	5.064341E-1	5.130659E-1	5.283974E-1	5.770926E-1	5.025453E-1	5.011184E-1	5.052881E-1	5.461262E-1	5.647559E-1	4.896293E-1	5.163623E-1	4.877707E-1	5.102522E-1	5.052313E-1	5.479046E-1	4.884304E-1	4.909152E-1	5.356484E-1	5.312591E-1	5.911549E-1	4.982645E-1	5.187872E-1	5.489069E-1	5.154636E-1	4.185638E-1	5.281844E-1	5.043226E-1	4.996446E-1	5.100960E-1	5.199306E-1	5.158826E-1	5.184769E-1	5.296674E-1	5.441717E-1	5.566000E-1	5.561537E-1	5.272935E-1	5.438671E-1	5.010558E-1	4.430098E-1	4.748770E-1	5.589474E-1	4.690979E-1	5.058866E-1	4.958854E-1	5.175160E-1	5.471857E-1	5.739728E-1	4.989056E-1	4.676842E-1	5.433912E-1	5.527453E-1	4.622283E-1	5.207576E-1	5.170959E-1	5.477619E-1	5.034746E-1	4.745514E-1	5.021856E-1	5.096234E-1	5.554232E-1	5.129680E-1	5.232469E-1	5.241618E-1	5.469435E-1	4.964056E-1	5.509717E-1	5.894681E-1	5.554925E-1	5.430383E-1	5.299874E-1	5.579207E-1	5.262846E-1	5.282319E-1	4.837026E-1	5.181158E-1	4.800037E-1	4.775547E-1	4.969773E-1	5.112779E-1	4.715369E-1	4.355326E-1	5.660863E-1	5.185887E-1	4.681387E-1	5.102480E-1	5.563801E-1	5.321738E-1	4.919102E-1	4.985403E-1	4.916340E-1	5.138995E-1	4.728448E-1	5.165802E-1	5.199916E-1	4.980559E-1	4.758301E-1	4.582501E-1	4.997634E-1	4.792447E-1	4.575296E-1	4.824474E-1	5.350273E-1	5.141241E-1	4.657545E-1	5.049419E-1	5.050932E-1	4.650256E-1	4.610480E-1	5.123774E-1	5.376676E-1	5.202156E-1	4.852155E-1	5.451445E-1	5.350030E-1	5.075518E-1	4.646707E-1	5.761918E-1	5.151210E-1	4.614388E-1	4.871536E-1	5.278655E-1	5.268021E-1	5.546875E-1	4.612023E-1	5.133880E-1	5.146773E-1	4.875421E-1	4.799962E-1	5.170920E-1	5.569425E-1	4.829102E-1	4.898505E-1	5.489819E-1	5.055893E-1	5.053349E-1	4.856361E-1	4.534634E-1	4.881961E-1	5.345994E-1	4.614510E-1	4.512999E-1	5.238987E-1	5.056725E-1
5.370170E+2	5.881842E-1	5.964216E-1	6.672403E-1	5.481260E-1	5.357278E-1	5.467606E-1	6.169435E-1	5.253869E-1	4.920701E-1	5.453610E-1	5.977426E-1	5.525468E-1	5.480020E-1	6.086685E-1	5.671274E-1	5.118318E-1	5.691840E-1	5.711234E-1	5.474243E-1	5.253933E-1	5.875711E-1	5.281744E-1	5.242342E-1	5.014285E-1	5.898872E-1	5.838776E-1	5.695268E-1	5.434778E-1	5.815997E-1	6.212053E-1	5.774871E-1	5.465700E-1	5.530285E-1	6.089444E-1	5.394472E-1	5.516875E-1	5.754916E-1	5.401482E-1	5.517959E-1	5.797136E-1	5.959709E-1	5.865757E-1	5.342559E-1	5.705040E-1	5.575815E-1	6.053906E-1	4.858575E-1	5.842051E-1	5.719676E-1	6.088201E-1	4.995933E-1	5.636893E-1	5.614942E-1	5.367966E-1	5.393260E-1	5.596093E-1	5.431110E-1	5.436731E-1	5.155735E-1	5.835629E-1	5.843002E-1	5.956936E-1	5.622846E-1	5.670822E-1	5.924253E-1	4.896891E-1	5.507283E-1	5.558537E-1	5.512397E-1	4.963274E-1	5.230940E-1	5.676514E-1	5.709459E-1	5.751219E-1	5.720464E-1	5.095985E-1	6.000462E-1	6.233972E-1	5.217618E-1	5.587348E-1	5.871676E-1	6.018319E-1	5.833419E-1	5.908007E-1	5.107599E-1	5.844823E-1	5.482709E-1	5.266882E-1	5.602363E-1	5.748611E-1	6.074221E-1	5.649003E-1	5.902300E-1	6.094068E-1	5.640215E-1	5.789599E-1	5.380583E-1	6.220564E-1	5.578258E-1	5.541071E-1	5.633065E-1	5.490336E-1	5.121628E-1	5.232568E-1	5.681272E-1	5.325463E-1	5.462993E-1	5.056003E-1	5.804304E-1	6.218866E-1	5.109377E-1	5.451846E-1	5.780995E-1	5.891538E-1	5.225185E-1	5.674976E-1	5.251929E-1	5.475646E-1	5.222933E-1	6.344204E-1	5.210343E-1	5.586860E-1	5.212128E-1	5.269440E-1	5.807651E-1	6.420982E-1	4.871428E-1	5.278187E-1	5.680724E-1	6.135327E-1	5.310334E-1	5.148256E-1	5.625863E-1	5.455252E-1	5.230402E-1	5.463114E-1	6.034309E-1	5.407044E-1	5.506676E-1	5.638090E-1	5.735967E-1	6.053053E-1	5.023115E-1	6.020821E-1	5.911080E-1	5.355584E-1	5.371375E-1	5.443554E-1	5.253038E-1	5.667072E-1	4.845358E-1	5.960912E-1	5.920041E-1	5.642630E-1	5.482031E-1	5.856564E-1	6.065326E-1	6.018527E-1	5.483071E-1	5.974609E-1	5.659637E-1	5.821530E-1	5.014687E-1	5.439178E-1	5.514230E-1	5.763939E-1	5.162127E-1	5.111532E-1	5.427362E-1	5.575539E-1
5.372640E+2	6.136598E-1	6.101688E-1	7.034360E-1	5.946160E-1	5.953347E-1	5.522593E-1	6.905117E-1	5.615997E-1	6.036288E-1	6.072879E-1	6.538769E-1	5.925386E-1	6.294888E-1	6.173625E-1	5.713682E-1	5.739994E-1	6.593536E-1	6.714098E-1	6.057327E-1	5.111542E-1	6.040795E-1	5.705499E-1	5.831823E-1	5.678871E-1	6.434714E-1	6.057611E-1	6.187175E-1	5.627876E-1	6.297125E-1	6.808867E-1	6.007646E-1	6.262175E-1	6.070369E-1	6.288621E-1	6.505828E-1	6.320304E-1	5.852648E-1	5.804737E-1	6.188331E-1	6.051150E-1	6.386370E-1	6.543953E-1	5.681501E-1	6.230635E-1	6.060971E-1	6.560690E-1	5.737869E-1	6.349772E-1	6.290946E-1	6.191293E-1	5.182922E-1	6.381352E-1	5.921589E-1	5.808825E-1	5.645245E-1	6.134265E-1	5.981118E-1	6.097425E-1	5.688184E-1	6.318315E-1	6.059563E-1	6.653048E-1	5.918924E-1	6.318922E-1	6.331973E-1	5.631960E-1	5.838386E-1	6.251549E-1	5.789496E-1	5.883979E-1	5.759992E-1	5.860975E-1	6.057944E-1	5.917841E-1	6.056806E-1	5.580452E-1	6.428049E-1	6.506113E-1	5.782685E-1	6.170014E-1	6.089544E-1	6.843309E-1	6.238627E-1	6.151324E-1	5.884335E-1	6.209137E-1	6.218387E-1	5.828984E-1	6.023628E-1	6.044365E-1	6.438255E-1	6.280437E-1	6.165617E-1	6.487729E-1	6.544231E-1	5.779480E-1	6.089662E-1	6.606502E-1	6.060302E-1	5.878047E-1	5.843629E-1	6.137679E-1	5.725239E-1	5.913132E-1	6.012949E-1	5.969108E-1	5.815442E-1	5.061311E-1	6.711068E-1	7.194169E-1	5.466039E-1	6.505308E-1	6.302262E-1	6.658384E-1	5.411021E-1	5.730886E-1	5.908721E-1	6.133638E-1	5.697445E-1	6.294875E-1	5.966220E-1	6.203438E-1	5.872240E-1	5.869053E-1	6.303792E-1	6.920833E-1	5.661125E-1	6.222977E-1	5.885006E-1	6.343964E-1	5.693706E-1	5.938952E-1	6.169716E-1	5.817999E-1	5.559440E-1	6.220490E-1	6.547142E-1	6.103654E-1	5.863206E-1	6.135817E-1	6.732091E-1	6.570575E-1	5.641875E-1	6.417095E-1	6.630655E-1	5.686267E-1	5.649699E-1	5.955908E-1	6.151988E-1	6.502408E-1	5.277267E-1	6.287765E-1	6.237140E-1	6.177347E-1	6.169191E-1	6.282139E-1	6.488913E-1	7.219228E-1	5.828732E-1	6.039253E-1	6.148121E-1	6.781760E-1	5.605788E-1	5.974770E-1	5.811483E-1	6.557510E-1	5.556649E-1	5.536988E-1	5.921828E-1	6.218875E-1
5.375160E+2	6.947649E-1	6.878722E-1	7.378508E-1	6.497155E-1	6.698431E-1	6.482468E-1	7.760263E-1	6.571103E-1	6.627558E-1	6.765622E-1	6.927397E-1	6.700219E-1	6.580319E-1	7.501890E-1	6.784336E-1	6.409493E-1	7.003887E-1	7.092232E-1	6.807735E-1	6.497134E-1	7.042695E-1	6.138366E-1	6.537187E-1	6.308478E-1	7.616882E-1	6.607127E-1	6.577493E-1	6.646446E-1	6.870789E-1	7.203282E-1	7.302091E-1	6.803260E-1	7.232531E-1	7.529666E-1	7.171544E-1	7.251168E-1	6.570996E-1	6.713221E-1	6.688752E-1	7.084431E-1	7.158671E-1	7.023655E-1	6.303830E-1	7.104785E-1	6.814503E-1	7.454680E-1	6.487687E-1	7.350573E-1	6.982757E-1	6.781219E-1	5.551706E-1	7.068550E-1	6.732382E-1	6.294271E-1	6.562458E-1	6.891359E-1	6.917769E-1	6.875702E-1	7.102841E-1	7.156065E-1	6.915740E-1	7.605350E-1	6.651055E-1	7.044396E-1	7.009871E-1	5.497828E-1	6.741383E-1	6.826994E-1	6.779161E-1	6.387100E-1	6.515785E-1	6.679225E-1	7.140342E-1	6.733699E-1	6.531950E-1	6.723583E-1	7.315290E-1	7.374873E-1	6.534422E-1	6.955573E-1	7.314319E-1	7.501068E-1	6.661447E-1	6.610911E-1	6.424007E-1	6.877880E-1	6.826349E-1	6.550411E-1	6.912409E-1	6.973855E-1	7.594978E-1	7.120561E-1	7.185373E-1	7.264825E-1	7.181033E-1	7.049377E-1	6.890984E-1	7.401102E-1	6.881569E-1	6.750578E-1	6.506144E-1	7.065215E-1	6.259585E-1	6.181388E-1	6.933077E-1	6.864609E-1	6.659188E-1	6.138864E-1	6.905737E-1	7.409160E-1	6.437243E-1	6.714921E-1	6.633480E-1	7.355994E-1	6.110626E-1	6.408028E-1	6.551128E-1	6.541697E-1	6.211919E-1	7.100574E-1	6.690817E-1	6.830287E-1	6.650964E-1	6.544349E-1	6.961930E-1	7.689418E-1	5.972066E-1	6.719388E-1	7.483179E-1	6.976006E-1	6.413841E-1	6.752909E-1	6.599621E-1	6.846605E-1	6.284270E-1	6.417214E-1	7.373703E-1	6.355369E-1	6.703979E-1	7.046434E-1	7.253622E-1	7.410104E-1	6.157508E-1	7.146254E-1	7.638065E-1	7.043217E-1	6.297216E-1	6.332819E-1	6.636426E-1	6.923076E-1	6.185770E-1	7.317837E-1	7.066036E-1	7.020107E-1	6.617121E-1	6.902770E-1	7.253427E-1	7.687105E-1	6.438714E-1	6.998064E-1	6.537806E-1	7.596503E-1	6.529385E-1	6.432996E-1	6.509808E-1	7.583857E-1	6.416347E-1	6.553769E-1	6.145513E-1	7.505523E-1
5.377630E+2	8.580137E-1	8.803370E-1	9.051805E-1	7.461401E-1	8.161013E-1	7.582324E-1	9.451696E-1	8.313842E-1	8.200550E-1	7.998912E-1	8.364691E-1	8.529817E-1	7.841752E-1	8.834988E-1	8.300206E-1	7.791958E-1	8.688487E-1	8.856843E-1	7.973905E-1	7.953926E-1	8.477229E-1	7.956408E-1	7.811869E-1	7.795059E-1	8.716186E-1	8.309155E-1	8.689491E-1	7.471919E-1	8.415966E-1	9.076760E-1	8.761190E-1	8.313973E-1	8.269305E-1	9.143529E-1	8.618510E-1	8.165419E-1	8.159175E-1	8.405045E-1	7.864256E-1	8.772119E-1	8.859905E-1	8.595085E-1	7.648502E-1	8.355158E-1	8.187385E-1	9.100312E-1	7.733806E-1	8.644280E-1	8.827584E-1	9.221082E-1	6.663259E-1	8.259680E-1	8.114899E-1	8.191471E-1	7.746775E-1	8.223111E-1	8.339082E-1	8.589024E-1	8.152081E-1	9.075695E-1	8.189932E-1	9.242627E-1	7.905362E-1	8.234184E-1	8.439357E-1	7.515244E-1	8.649718E-1	8.287272E-1	8.184469E-1	7.896461E-1	8.012257E-1	8.135996E-1	8.423387E-1	8.049413E-1	8.336445E-1	7.708849E-1	9.218053E-1	8.819327E-1	7.750321E-1	8.250961E-1	7.997366E-1	9.128745E-1	8.528926E-1	8.346551E-1	8.189308E-1	8.185416E-1	8.420326E-1	7.740993E-1	8.155662E-1	8.426196E-1	8.528562E-1	8.367376E-1	8.463658E-1	8.972396E-1	8.716166E-1	8.324340E-1	8.499401E-1	8.331914E-1	8.333664E-1	8.248922E-1	8.118776E-1	8.161831E-1	7.679560E-1	8.218112E-1	8.447017E-1	8.442937E-1	7.652461E-1	7.195181E-1	8.719264E-1	9.155261E-1	7.370041E-1	8.128495E-1	8.827145E-1	9.017484E-1	7.553564E-1	7.954900E-1	7.936625E-1	8.296351E-1	7.540541E-1	8.246096E-1	8.197357E-1	8.500178E-1	7.904151E-1	7.563115E-1	8.247833E-1	9.296451E-1	8.015395E-1	7.744250E-1	8.486540E-1	8.939637E-1	7.641697E-1	8.113374E-1	8.422823E-1	8.059069E-1	7.915152E-1	8.227048E-1	8.616563E-1	8.497889E-1	8.193946E-1	8.070172E-1	8.698258E-1	9.066165E-1	7.529089E-1	8.821199E-1	8.564877E-1	8.058081E-1	7.779690E-1	8.341022E-1	7.720156E-1	8.900242E-1	7.486470E-1	8.392488E-1	8.117456E-1	8.571957E-1	7.747127E-1	8.061275E-1	8.637817E-1	9.242943E-1	7.592594E-1	8.366250E-1	8.480764E-1	9.231816E-1	7.574375E-1	7.807665E-1	7.963072E-1	8.779499E-1	7.334929E-1	7.822939E-1	7.852601E-1	8.875204E-1
5.380160E+2	9.859107E-1	9.831442E-1	1.051148E+0	9.120132E-1	9.237252E-1	8.987135E-1	1.014966E+0	8.961149E-1	9.366347E-1	8.996043E-1	9.499720E-1	9.024709E-1	9.324168E-1	9.656097E-1	9.190647E-1	8.574490E-1	9.606385E-1	9.837785E-1	8.962612E-1	8.556352E-1	9.706828E-1	9.013519E-1	8.930369E-1	8.643278E-1	1.026295E+0	9.554063E-1	9.379228E-1	8.847712E-1	9.211685E-1	1.020291E+0	9.374348E-1	9.404793E-1	9.484506E-1	9.787033E-1	9.812391E-1	9.251426E-1	9.200041E-1	8.803667E-1	8.950066E-1	9.163910E-1	9.913050E-1	9.653732E-1	8.765347E-1	1.004814E+0	9.498328E-1	1.059219E+0	9.255031E-1	9.542559E-1	9.881028E-1	9.770910E-1	8.429279E-1	9.765782E-1	9.102403E-1	8.924590E-1	9.047003E-1	9.495575E-1	9.575241E-1	9.641657E-1	9.415347E-1	9.880162E-1	9.474208E-1	1.031743E+0	9.170436E-1	9.777036E-1	9.397259E-1	7.890828E-1	9.215597E-1	9.283475E-1	9.466075E-1	8.988226E-1	9.176189E-1	9.332627E-1	8.956669E-1	9.508765E-1	8.913032E-1	8.378399E-1	1.008391E+0	1.000209E+0	8.507113E-1	8.942883E-1	9.752102E-1	1.015441E+0	9.315845E-1	9.006201E-1	8.819774E-1	8.824212E-1	9.947890E-1	9.205981E-1	9.301310E-1	9.155009E-1	1.000822E+0	9.496462E-1	9.430757E-1	9.913082E-1	9.972706E-1	9.143960E-1	9.300716E-1	1.010273E+0	9.190637E-1	9.602847E-1	9.161330E-1	9.316425E-1	8.862044E-1	8.829129E-1	8.660993E-1	8.857111E-1	8.586991E-1	8.060407E-1	9.759217E-1	1.040847E+0	8.423567E-1	9.262577E-1	9.630769E-1	1.006124E+0	8.690424E-1	8.911598E-1	8.857087E-1	9.148172E-1	8.479568E-1	9.961631E-1	9.234740E-1	9.486702E-1	8.677718E-1	8.814740E-1	9.579297E-1	9.979042E-1	8.706382E-1	9.585785E-1	9.772286E-1	9.976678E-1	8.206400E-1	8.729649E-1	9.764334E-1	9.137363E-1	8.539843E-1	9.235243E-1	9.744794E-1	9.258899E-1	9.715843E-1	9.037349E-1	9.637012E-1	9.991950E-1	8.333473E-1	9.978334E-1	1.001555E+0	9.352315E-1	8.637373E-1	9.194949E-1	9.108541E-1	9.891824E-1	8.350297E-1	9.625607E-1	9.519351E-1	9.513529E-1	8.877125E-1	9.911342E-1	1.016685E+0	1.046619E+0	8.324578E-1	9.809859E-1	9.287581E-1	1.050049E+0	8.608798E-1	8.908594E-1	8.689701E-1	9.541322E-1	8.742241E-1	8.464732E-1	8.853303E-1	9.331763E-1
5.382900E+2	1.185554E+0	1.195334E+0	1.274254E+0	1.084773E+0	1.091508E+0	1.091188E+0	1.213032E+0	1.093928E+0	1.106762E+0	1.169355E+0	1.277528E+0	1.190908E+0	1.147415E+0	1.268938E+0	1.219060E+0	1.114813E+0	1.231148E+0	1.168460E+0	1.233435E+0	1.070320E+0	1.163093E+0	1.126899E+0	1.080966E+0	1.048838E+0	1.229583E+0	1.229189E+0	1.148588E+0	1.128551E+0	1.158034E+0	1.231513E+0	1.131034E+0	1.118821E+0	1.137479E+0	1.236105E+0	1.204061E+0	1.105775E+0	1.115961E+0	1.124176E+0	1.096117E+0	1.146297E+0	1.227856E+0	1.135198E+0	1.119353E+0	1.173558E+0	1.150087E+0	1.253962E+0	1.118623E+0	1.142212E+0	1.174683E+0	1.218213E+0	1.177953E+0	1.189608E+0	1.106183E+0	1.068310E+0	1.162225E+0	1.110098E+0	1.169904E+0	1.147256E+0	1.124761E+0	1.184418E+0	1.167004E+0	1.206050E+0	1.139374E+0	1.188092E+0	1.175516E+0	1.023554E+0	1.122025E+0	1.227828E+0	1.123262E+0	1.144345E+0	1.108079E+0	1.087926E+0	1.098947E+0	1.167481E+0	1.111260E+0	1.075719E+0	1.224321E+0	1.188091E+0	1.057062E+0	1.136199E+0	1.178947E+0	1.225032E+0	1.166487E+0	1.185567E+0	1.116006E+0	1.155907E+0	1.162870E+0	1.079048E+0	1.139223E+0	1.149460E+0	1.205742E+0	1.158875E+0	1.200647E+0	1.266358E+0	1.202524E+0	1.199237E+0	1.154903E+0	1.232762E+0	1.186272E+0	1.182931E+0	1.104616E+0	1.112803E+0	1.050466E+0	1.053302E+0	1.111646E+0	1.115744E+0	1.066965E+0	9.700624E-1	1.188524E+0	1.273660E+0	1.079397E+0	1.125663E+0	1.203077E+0	1.177066E+0	1.070725E+0	1.102379E+0	1.086102E+0	1.107115E+0	1.031768E+0	1.202247E+0	1.104884E+0	1.151625E+0	1.083339E+0	1.084062E+0	1.172076E+0	1.278464E+0	1.064113E+0	1.100564E+0	1.203737E+0	1.234531E+0	1.036162E+0	1.100872E+0	1.134928E+0	1.117967E+0	1.046637E+0	1.109426E+0	1.197108E+0	1.116141E+0	1.109938E+0	1.201240E+0	1.221859E+0	1.233804E+0	1.083945E+0	1.220278E+0	1.216276E+0	1.130222E+0	1.004601E+0	1.179207E+0	1.140585E+0	1.220552E+0	1.005808E+0	1.167587E+0	1.151093E+0	1.228592E+0	1.118803E+0	1.130628E+0	1.190767E+0	1.260265E+0	1.019519E+0	1.168438E+0	1.153790E+0	1.312512E+0	1.022377E+0	1.078910E+0	1.091207E+0	1.220771E+0	1.039688E+0	1.040455E+0	1.087827E+0	1.119951E+0
5.385110E+2	1.369599E+0	1.433825E+0	1.478372E+0	1.273030E+0	1.266466E+0	1.207171E+0	1.444426E+0	1.244661E+0	1.289163E+0	1.287960E+0	1.457653E+0	1.260393E+0	1.291510E+0	1.440405E+0	1.565696E+0	1.256539E+0	1.375852E+0	1.424384E+0	1.379462E+0	1.245574E+0	1.349810E+0	1.315082E+0	1.314238E+0	1.212362E+0	1.368793E+0	1.347359E+0	1.358720E+0	1.240546E+0	1.344473E+0	1.423531E+0	1.404685E+0	1.272491E+0	1.361233E+0	1.425068E+0	1.401024E+0	1.358438E+0	1.285041E+0	1.266008E+0	1.282593E+0	1.362852E+0	1.430383E+0	1.343619E+0	1.360506E+0	1.431931E+0	1.385437E+0	1.451550E+0	1.401830E+0	1.347741E+0	1.408954E+0	1.419246E+0	1.406497E+0	1.320175E+0	1.355139E+0	1.289236E+0	1.330048E+0	1.291164E+0	1.317479E+0	1.335947E+0	1.398818E+0	1.375272E+0	1.379538E+0	1.468908E+0	1.398310E+0	1.384936E+0	1.351871E+0	1.147497E+0	1.423024E+0	1.339207E+0	1.309315E+0	1.267104E+0	1.320707E+0	1.256305E+0	1.332325E+0	1.333525E+0	1.354171E+0	1.215071E+0	1.424752E+0	1.463376E+0	1.366333E+0	1.270417E+0	1.393873E+0	1.430163E+0	1.450132E+0	1.291004E+0	1.293543E+0	1.291150E+0	1.419341E+0	1.246788E+0	1.288722E+0	1.378135E+0	1.384242E+0	1.348840E+0	1.317466E+0	1.422291E+0	1.330452E+0	1.346971E+0	1.280580E+0	1.431411E+0	1.309462E+0	1.332164E+0	1.260742E+0	1.262078E+0	1.259750E+0	1.241577E+0	1.285508E+0	1.306038E+0	1.250667E+0	1.119221E+0	1.386271E+0	1.428868E+0	1.175970E+0	1.312705E+0	1.387151E+0	1.365047E+0	1.201902E+0	1.329130E+0	1.251497E+0	1.230043E+0	1.237055E+0	1.450534E+0	1.258144E+0	1.321700E+0	1.230317E+0	1.199911E+0	1.322945E+0	1.414446E+0	1.200828E+0	1.267102E+0	1.358747E+0	1.392850E+0	1.170863E+0	1.308430E+0	1.280473E+0	1.262071E+0	1.210202E+0	1.293360E+0	1.323808E+0	1.348540E+0	1.256806E+0	1.323976E+0	1.445597E+0	1.384459E+0	1.189135E+0	1.338108E+0	1.399913E+0	1.345737E+0	1.211921E+0	1.275788E+0	1.284916E+0	1.359375E+0	1.119992E+0	1.336458E+0	1.271256E+0	1.389008E+0	1.216025E+0	1.374741E+0	1.384478E+0	1.469403E+0	1.224373E+0	1.359122E+0	1.331621E+0	1.442869E+0	1.161709E+0	1.219353E+0	1.225680E+0	1.387948E+0	1.168642E+0	1.152228E+0	1.303273E+0	1.393885E+0
5.387700E+2	1.642028E+0	1.632863E+0	1.751318E+0	1.501464E+0	1.563396E+0	1.453640E+0	1.723605E+0	1.573746E+0	1.539056E+0	1.518876E+0	1.783357E+0	1.571324E+0	1.550242E+0	1.704610E+0	1.800500E+0	1.513903E+0	1.553492E+0	1.691816E+0	1.681653E+0	1.488189E+0	1.606548E+0	1.534704E+0	1.532395E+0	1.422667E+0	1.625114E+0	1.521938E+0	1.591303E+0	1.513773E+0	1.561446E+0	1.717785E+0	1.676634E+0	1.491957E+0	1.537727E+0	1.704434E+0	1.682715E+0	1.607225E+0	1.510319E+0	1.530679E+0	1.535636E+0	1.573812E+0	1.697181E+0	1.587328E+0	1.531089E+0	1.623357E+0	1.602210E+0	1.710068E+0	1.685578E+0	1.623569E+0	1.675718E+0	1.639175E+0	1.668802E+0	1.561837E+0	1.514701E+0	1.506200E+0	1.558846E+0	1.620906E+0	1.573425E+0	1.624300E+0	1.738646E+0	1.606071E+0	1.570417E+0	1.662150E+0	1.725077E+0	1.617575E+0	1.633345E+0	1.428649E+0	1.615062E+0	1.563817E+0	1.539413E+0	1.487974E+0	1.587756E+0	1.518809E+0	1.588407E+0	1.596667E+0	1.624848E+0	1.481255E+0	1.597926E+0	1.631894E+0	1.720514E+0	1.531059E+0	1.661793E+0	1.636410E+0	1.835958E+0	1.525666E+0	1.475119E+0	1.544176E+0	1.681424E+0	1.419844E+0	1.533778E+0	1.579349E+0	1.704243E+0	1.545763E+0	1.619081E+0	1.664111E+0	1.784168E+0	1.584255E+0	1.495611E+0	1.592599E+0	1.642732E+0	1.596332E+0	1.527803E+0	1.457244E+0	1.482396E+0	1.459654E+0	1.548709E+0	1.537193E+0	1.479228E+0	1.360210E+0	1.647542E+0	1.644904E+0	1.586404E+0	1.538448E+0	1.598913E+0	1.660599E+0	1.575755E+0	1.561473E+0	1.487848E+0	1.584544E+0	1.491791E+0	1.645107E+0	1.503154E+0	1.581172E+0	1.532526E+0	1.419381E+0	1.529498E+0	1.715427E+0	1.532995E+0	1.483816E+0	1.603882E+0	1.648735E+0	1.414358E+0	1.479942E+0	1.515105E+0	1.434995E+0	1.428604E+0	1.472377E+0	1.638744E+0	1.491374E+0	1.494140E+0	1.495920E+0	1.686022E+0	1.571918E+0	1.404666E+0	1.635582E+0	1.633629E+0	1.461478E+0	1.478879E+0	1.485445E+0	1.480192E+0	1.628004E+0	1.401478E+0	1.586549E+0	1.504350E+0	1.585456E+0	1.457295E+0	1.626542E+0	1.667555E+0	1.716307E+0	1.402285E+0	1.607982E+0	1.577508E+0	1.701261E+0	1.375454E+0	1.447868E+0	1.463016E+0	1.596390E+0	1.395342E+0	1.383707E+0	1.595243E+0	1.659520E+0
5.390240E+2	1.855192E+0	1.868362E+0	1.947723E+0	1.723010E+0	1.699168E+0	1.644114E+0	1.924191E+0	1.698226E+0	1.723126E+0	1.741391E+0	1.972735E+0	1.715294E+0	1.764318E+0	1.949011E+0	1.990247E+0	1.723448E+0	1.783503E+0	1.890743E+0	1.886491E+0	1.676585E+0	1.842219E+0	1.736103E+0	1.738463E+0	1.615049E+0	1.851605E+0	1.773839E+0	1.799831E+0	1.653768E+0	1.751121E+0	1.903058E+0	1.828786E+0	1.706662E+0	1.815969E+0	1.913829E+0	1.854368E+0	1.720813E+0	1.688195E+0	1.678071E+0	1.727306E+0	1.787788E+0	1.913752E+0	1.781967E+0	1.817247E+0	1.845773E+0	1.774594E+0	1.911646E+0	1.898119E+0	1.853511E+0	1.819325E+0	1.820163E+0	1.851637E+0	1.765130E+0	1.754822E+0	1.704836E+0	1.778073E+0	1.780533E+0	1.825016E+0	1.734603E+0	1.883766E+0	1.793596E+0	1.785467E+0	1.900503E+0	1.924796E+0	1.834251E+0	1.772856E+0	1.545077E+0	1.869706E+0	1.782235E+0	1.678460E+0	1.626835E+0	1.730853E+0	1.782255E+0	1.750501E+0	1.799482E+0	1.802092E+0	1.647284E+0	1.890289E+0	1.885195E+0	1.914249E+0	1.707940E+0	1.841386E+0	1.892828E+0	1.921699E+0	1.695444E+0	1.670311E+0	1.736312E+0	1.812213E+0	1.655750E+0	1.694579E+0	1.765253E+0	1.858083E+0	1.775324E+0	1.779948E+0	1.900815E+0	1.966682E+0	1.734014E+0	1.722170E+0	1.845733E+0	1.881375E+0	1.760609E+0	1.615623E+0	1.665458E+0	1.623894E+0	1.628555E+0	1.649817E+0	1.705656E+0	1.713124E+0	1.508838E+0	1.809937E+0	1.890305E+0	1.903007E+0	1.743226E+0	1.812851E+0	1.865094E+0	1.815695E+0	1.856558E+0	1.628793E+0	1.719204E+0	1.653125E+0	1.819404E+0	1.709584E+0	1.775395E+0	1.762530E+0	1.623715E+0	1.746176E+0	1.872365E+0	1.831102E+0	1.704801E+0	1.796144E+0	1.807051E+0	1.785827E+0	1.637498E+0	1.674639E+0	1.687923E+0	1.696603E+0	1.706477E+0	1.888524E+0	1.669920E+0	1.760206E+0	1.722725E+0	1.793458E+0	1.826650E+0	1.746016E+0	1.744426E+0	1.840867E+0	1.712913E+0	1.799234E+0	1.696865E+0	1.715416E+0	1.852163E+0	1.620910E+0	1.747996E+0	1.702953E+0	1.766216E+0	1.636465E+0	1.732343E+0	1.749175E+0	1.983501E+0	1.556308E+0	1.796514E+0	1.691669E+0	1.849081E+0	1.542757E+0	1.609141E+0	1.654113E+0	1.799017E+0	1.561985E+0	1.501250E+0	1.669414E+0	1.761207E+0
5.392880E+2	2.084986E+0	2.026158E+0	2.257464E+0	1.840098E+0	1.946981E+0	1.840086E+0	2.091444E+0	1.907810E+0	1.947361E+0	1.936095E+0	2.217013E+0	1.995232E+0	1.933735E+0	2.119512E+0	2.191658E+0	1.851263E+0	2.059952E+0	2.037064E+0	2.040630E+0	1.933441E+0	2.023245E+0	1.873253E+0	1.963672E+0	1.827541E+0	2.021744E+0	1.961065E+0	1.927621E+0	1.889823E+0	1.931546E+0	2.050963E+0	2.028636E+0	1.871150E+0	1.933627E+0	2.083892E+0	2.112400E+0	1.983452E+0	1.888549E+0	1.856990E+0	1.890174E+0	2.009517E+0	2.072532E+0	2.016853E+0	1.922264E+0	1.964167E+0	1.949555E+0	2.118346E+0	2.075591E+0	2.033651E+0	2.011672E+0	2.048111E+0	2.057844E+0	1.952965E+0	1.887871E+0	1.838579E+0	1.972099E+0	1.881784E+0	1.992193E+0	1.945129E+0	1.994432E+0	1.975017E+0	2.005558E+0	2.091515E+0	2.054534E+0	1.981282E+0	1.948225E+0	1.717850E+0	2.000944E+0	1.985189E+0	1.900638E+0	1.877391E+0	1.926353E+0	1.944489E+0	1.851351E+0	1.892559E+0	1.892320E+0	1.740365E+0	2.069874E+0	2.095056E+0	2.076198E+0	1.933199E+0	1.998608E+0	2.090156E+0	2.183613E+0	1.870630E+0	1.841795E+0	1.859083E+0	2.086050E+0	1.843852E+0	1.865657E+0	1.877212E+0	2.152251E+0	1.883420E+0	1.914477E+0	2.143664E+0	2.108822E+0	1.971298E+0	1.936623E+0	1.991033E+0	2.009917E+0	1.920669E+0	1.832350E+0	1.852414E+0	1.800529E+0	1.742808E+0	1.869150E+0	1.941848E+0	1.903234E+0	1.648439E+0	1.995390E+0	2.104768E+0	2.016040E+0	1.862013E+0	1.987694E+0	2.062664E+0	1.985135E+0	2.018076E+0	1.782207E+0	1.826830E+0	1.832939E+0	2.029323E+0	1.875878E+0	1.938274E+0	1.941484E+0	1.779730E+0	1.924888E+0	2.118531E+0	2.100590E+0	1.839847E+0	1.965571E+0	2.047598E+0	1.959901E+0	1.849128E+0	1.890627E+0	1.814636E+0	1.851584E+0	1.901228E+0	2.028495E+0	1.902904E+0	1.951774E+0	1.911070E+0	2.053180E+0	2.035383E+0	2.067257E+0	1.993290E+0	1.941032E+0	1.844046E+0	2.028136E+0	1.785793E+0	1.850257E+0	2.021634E+0	1.832891E+0	1.912409E+0	1.850373E+0	1.987082E+0	1.901660E+0	1.944536E+0	1.931003E+0	2.105826E+0	2.037174E+0	1.880543E+0	1.866757E+0	2.023668E+0	2.039390E+0	1.798381E+0	1.841902E+0	1.973073E+0	1.801645E+0	1.651963E+0	1.895456E+0	2.014390E+0
5.395160E+2	2.014280E+0	2.024966E+0	2.153624E+0	1.898066E+0	1.908894E+0	1.794094E+0	2.113455E+0	1.916860E+0	1.873732E+0	1.939247E+0	2.178767E+0	1.918753E+0	1.918083E+0	2.101640E+0	2.231939E+0	1.911256E+0	2.042672E+0	2.004183E+0	2.052799E+0	1.878676E+0	1.975997E+0	1.873708E+0	1.895658E+0	1.848091E+0	1.907948E+0	1.909518E+0	1.873087E+0	1.818863E+0	1.850587E+0	2.013597E+0	2.043395E+0	1.871582E+0	1.945687E+0	2.007797E+0	1.965506E+0	1.879837E+0	1.849945E+0	1.831035E+0	1.858542E+0	2.022862E+0	2.087652E+0	1.908231E+0	1.963938E+0	1.927097E+0	1.899491E+0	2.065387E+0	2.063187E+0	2.024378E+0	2.030536E+0	2.031502E+0	2.043824E+0	1.923761E+0	1.832782E+0	1.850469E+0	1.889948E+0	1.952932E+0	1.976948E+0	1.924412E+0	1.969894E+0	1.942838E+0	1.935552E+0	2.090962E+0	2.091677E+0	1.994827E+0	1.943804E+0	1.674389E+0	2.011779E+0	1.952396E+0	1.812560E+0	1.847705E+0	1.905695E+0	1.853204E+0	1.919461E+0	1.933929E+0	1.998561E+0	1.755607E+0	1.949615E+0	2.068889E+0	2.018685E+0	1.874938E+0	1.978584E+0	2.066185E+0	2.113146E+0	1.849004E+0	1.893240E+0	1.863575E+0	2.037004E+0	1.815523E+0	1.930900E+0	1.856085E+0	2.094125E+0	1.889837E+0	1.973364E+0	2.039365E+0	2.157153E+0	1.961179E+0	1.906648E+0	2.017705E+0	1.921839E+0	1.925483E+0	1.872410E+0	1.812320E+0	1.759958E+0	1.760198E+0	1.858986E+0	1.838864E+0	1.912850E+0	1.615533E+0	1.927253E+0	2.046562E+0	2.045119E+0	1.882972E+0	1.969229E+0	1.997162E+0	1.957802E+0	2.010002E+0	1.784122E+0	1.869676E+0	1.777497E+0	1.963551E+0	1.830006E+0	1.901279E+0	1.933750E+0	1.736654E+0	1.886922E+0	2.093273E+0	2.004838E+0	1.846790E+0	1.937938E+0	1.988690E+0	1.921565E+0	1.827616E+0	1.852814E+0	1.844453E+0	1.876858E+0	1.803361E+0	1.971180E+0	1.827971E+0	1.933679E+0	1.885619E+0	2.034406E+0	1.999732E+0	2.031678E+0	2.006502E+0	2.011839E+0	1.809838E+0	1.984966E+0	1.842323E+0	1.866741E+0	2.003606E+0	1.728142E+0	1.932222E+0	1.879857E+0	1.933609E+0	1.938307E+0	1.900208E+0	1.996607E+0	2.090606E+0	2.042260E+0	1.943565E+0	1.910663E+0	1.935210E+0	1.927503E+0	1.812069E+0	1.749893E+0	1.995293E+0	1.775730E+0	1.706047E+0	1.827172E+0	1.821389E+0
5.397750E+2	2.090708E+0	2.048875E+0	2.222454E+0	1.904956E+0	1.927111E+0	1.857584E+0	2.117229E+0	1.931342E+0	1.948480E+0	1.998548E+0	2.237369E+0	1.960243E+0	1.947088E+0	2.187618E+0	2.260031E+0	1.892558E+0	2.016758E+0	2.098989E+0	2.080179E+0	1.860056E+0	2.018122E+0	1.872342E+0	1.940497E+0	1.812676E+0	1.959877E+0	1.944529E+0	1.922809E+0	1.823689E+0	1.922294E+0	2.076390E+0	2.125718E+0	1.891063E+0	1.933149E+0	1.988901E+0	2.090396E+0	1.953528E+0	1.934485E+0	1.841695E+0	1.866097E+0	1.946227E+0	2.069830E+0	2.042768E+0	1.907819E+0	2.016725E+0	1.967621E+0	2.127459E+0	2.049702E+0	2.026328E+0	2.034206E+0	2.029780E+0	2.041741E+0	1.987896E+0	1.922697E+0	1.830658E+0	1.938836E+0	1.935604E+0	1.915413E+0	1.937850E+0	2.006959E+0	2.012744E+0	1.986416E+0	2.168923E+0	2.181040E+0	1.929533E+0	1.998326E+0	1.801550E+0	2.093650E+0	1.940021E+0	1.866990E+0	1.855250E+0	1.951547E+0	1.937395E+0	1.975958E+0	1.958635E+0	2.021515E+0	1.798068E+0	2.127597E+0	2.079881E+0	2.076705E+0	1.908749E+0	1.983296E+0	2.058939E+0	2.235292E+0	1.900369E+0	1.856928E+0	1.930947E+0	2.057956E+0	1.794281E+0	1.947342E+0	1.951148E+0	2.116432E+0	1.944419E+0	1.949907E+0	2.058795E+0	2.131563E+0	1.985460E+0	1.920481E+0	2.068221E+0	2.036104E+0	1.926085E+0	1.904252E+0	1.829228E+0	1.832192E+0	1.786029E+0	1.854170E+0	1.914425E+0	1.941152E+0	1.697276E+0	1.994364E+0	2.140424E+0	2.084079E+0	1.869000E+0	1.969776E+0	2.030709E+0	2.000986E+0	2.026775E+0	1.806176E+0	1.823772E+0	1.877895E+0	2.042476E+0	1.845646E+0	1.944954E+0	1.902807E+0	1.754700E+0	1.938051E+0	2.096495E+0	2.119835E+0	1.887355E+0	1.990808E+0	2.034099E+0	1.978551E+0	1.891569E+0	1.902021E+0	1.766932E+0	1.804375E+0	1.857461E+0	1.975401E+0	1.870706E+0	2.022011E+0	1.894667E+0	2.076125E+0	2.029056E+0	2.060555E+0	1.987479E+0	2.003204E+0	1.820669E+0	2.073577E+0	1.890029E+0	1.875729E+0	2.037260E+0	1.845802E+0	1.972832E+0	1.912677E+0	1.984170E+0	1.898093E+0	1.948674E+0	2.029670E+0	2.150925E+0	2.074282E+0	1.925253E+0	1.926031E+0	2.070807E+0	2.034638E+0	1.888837E+0	1.796609E+0	2.001113E+0	1.825194E+0	1.808448E+0	1.888392E+0	1.860819E+0
5.400140E+2	2.029876E+0	2.076372E+0	2.156590E+0	1.823452E+0	1.884061E+0	1.758100E+0	2.091447E+0	1.831306E+0	1.864810E+0	1.929798E+0	2.151010E+0	1.855764E+0	1.905655E+0	2.096327E+0	2.133885E+0	1.816046E+0	1.950883E+0	2.057340E+0	1.997529E+0	1.794335E+0	2.009582E+0	1.852294E+0	1.833685E+0	1.823171E+0	1.908504E+0	1.897845E+0	1.866136E+0	1.752243E+0	1.887597E+0	2.061341E+0	2.065540E+0	1.839550E+0	1.936045E+0	1.950084E+0	1.946249E+0	1.875957E+0	1.819158E+0	1.841234E+0	1.843912E+0	1.902744E+0	2.012585E+0	1.863572E+0	1.846140E+0	1.940929E+0	1.868529E+0	2.023822E+0	2.030283E+0	1.998015E+0	1.932532E+0	1.977667E+0	1.940976E+0	1.939222E+0	1.845777E+0	1.815797E+0	1.893983E+0	1.834350E+0	1.902885E+0	1.865061E+0	1.967290E+0	1.954490E+0	1.907347E+0	1.966218E+0	2.093830E+0	1.874878E+0	1.937910E+0	1.733405E+0	1.962415E+0	1.886187E+0	1.827402E+0	1.786828E+0	1.825579E+0	1.808271E+0	1.888309E+0	1.917840E+0	1.919546E+0	1.660345E+0	1.948014E+0	1.989341E+0	2.086795E+0	1.820831E+0	1.998016E+0	2.020476E+0	2.136636E+0	1.817644E+0	1.783289E+0	1.819156E+0	2.004311E+0	1.757548E+0	1.864628E+0	1.888832E+0	2.070635E+0	1.905889E+0	1.854631E+0	1.989776E+0	2.049125E+0	1.912103E+0	1.782124E+0	1.969466E+0	1.974805E+0	1.904421E+0	1.791266E+0	1.806524E+0	1.785686E+0	1.675746E+0	1.823677E+0	1.853975E+0	1.880806E+0	1.616593E+0	1.942623E+0	2.031358E+0	2.017685E+0	1.775478E+0	1.942624E+0	1.951362E+0	2.014649E+0	1.932969E+0	1.776933E+0	1.733488E+0	1.785489E+0	1.985474E+0	1.748162E+0	1.923886E+0	1.825963E+0	1.751209E+0	1.936025E+0	2.045435E+0	1.993484E+0	1.774194E+0	1.897081E+0	1.955554E+0	1.944875E+0	1.781103E+0	1.813967E+0	1.804201E+0	1.813914E+0	1.789096E+0	1.921705E+0	1.845536E+0	1.915055E+0	1.836409E+0	1.992160E+0	1.954306E+0	2.055913E+0	1.877049E+0	1.932401E+0	1.795584E+0	1.997462E+0	1.785791E+0	1.801315E+0	1.913465E+0	1.726158E+0	1.845058E+0	1.879855E+0	1.939417E+0	1.860937E+0	1.857649E+0	1.863852E+0	2.076514E+0	1.952287E+0	1.883773E+0	1.833277E+0	1.985839E+0	1.948611E+0	1.864438E+0	1.723001E+0	1.954027E+0	1.785743E+0	1.661339E+0	1.791853E+0	1.869120E+0
5.402740E+2	1.909779E+0	2.006436E+0	2.049188E+0	1.851576E+0	1.837150E+0	1.774097E+0	2.081385E+0	1.790114E+0	1.846959E+0	1.830611E+0	2.174448E+0	1.884256E+0	1.867442E+0	2.042714E+0	2.124875E+0	2.036025E+0	1.940625E+0	2.052958E+0	2.001589E+0	1.939465E+0	1.944118E+0	1.773009E+0	1.821593E+0	1.737474E+0	1.862100E+0	1.899306E+0	1.847420E+0	1.788446E+0	1.823290E+0	1.972596E+0	1.966182E+0	1.857299E+0	1.882031E+0	1.966428E+0	2.039230E+0	1.912529E+0	1.770779E+0	1.806467E+0	1.845800E+0	1.919537E+0	1.982879E+0	1.926982E+0	1.835583E+0	1.930420E+0	1.838079E+0	1.977128E+0	1.989824E+0	1.930154E+0	1.987560E+0	1.930128E+0	1.947208E+0	1.826406E+0	1.814592E+0	1.815302E+0	1.815872E+0	1.840738E+0	1.877294E+0	1.851624E+0	1.951104E+0	1.869602E+0	1.844895E+0	1.961204E+0	2.007160E+0	1.872459E+0	1.868155E+0	1.861106E+0	1.905827E+0	1.938786E+0	1.744766E+0	1.839156E+0	1.803912E+0	1.854152E+0	1.798019E+0	1.817869E+0	1.890184E+0	1.721313E+0	1.964049E+0	2.033301E+0	2.010109E+0	1.827074E+0	1.908513E+0	1.960830E+0	2.146030E+0	1.860897E+0	1.730333E+0	1.821153E+0	2.033428E+0	1.680094E+0	1.859495E+0	1.883021E+0	1.987847E+0	1.778002E+0	1.868517E+0	1.979549E+0	2.020126E+0	1.900467E+0	1.812101E+0	1.946192E+0	1.859354E+0	1.865310E+0	1.792808E+0	1.804588E+0	1.743634E+0	1.747280E+0	1.808165E+0	1.800804E+0	1.841289E+0	1.592705E+0	1.908812E+0	2.046561E+0	1.961718E+0	1.810949E+0	1.866608E+0	1.889057E+0	1.902604E+0	1.965892E+0	1.681527E+0	1.793676E+0	1.788486E+0	1.924088E+0	1.826358E+0	1.875074E+0	1.792446E+0	1.629537E+0	1.833255E+0	1.986310E+0	1.925868E+0	1.793411E+0	1.787131E+0	1.956166E+0	1.850065E+0	1.755526E+0	1.871975E+0	1.737617E+0	1.767178E+0	1.762049E+0	1.798628E+0	1.802802E+0	1.852793E+0	1.830190E+0	1.979119E+0	1.977306E+0	1.997132E+0	1.856442E+0	1.835686E+0	1.788173E+0	1.935551E+0	1.756934E+0	1.773349E+0	1.905652E+0	1.788712E+0	1.828221E+0	1.813658E+0	1.845844E+0	1.858902E+0	1.848189E+0	1.940819E+0	2.050588E+0	1.924326E+0	1.822907E+0	1.761373E+0	1.998641E+0	1.851503E+0	1.845990E+0	1.649865E+0	1.896360E+0	1.739224E+0	1.662780E+0	1.732988E+0	1.958357E+0
5.405080E+2	1.981003E+0	1.853419E+0	2.056311E+0	1.690868E+0	1.790787E+0	1.755101E+0	1.987700E+0	1.742590E+0	1.732053E+0	1.748741E+0	2.018999E+0	1.915753E+0	1.783650E+0	1.922926E+0	2.035298E+0	1.932557E+0	1.787286E+0	1.984455E+0	1.907280E+0	1.883054E+0	1.872391E+0	1.738836E+0	1.741487E+0	1.754525E+0	1.883642E+0	1.801561E+0	1.831378E+0	1.692870E+0	1.782119E+0	1.902018E+0	1.848092E+0	1.975038E+0	1.766299E+0	1.931701E+0	1.961653E+0	1.931919E+0	1.709209E+0	1.736476E+0	1.756098E+0	1.841608E+0	1.897547E+0	1.862471E+0	1.831140E+0	1.904972E+0	1.837041E+0	1.980547E+0	1.905670E+0	1.956520E+0	1.859680E+0	1.884307E+0	1.807484E+0	1.892832E+0	1.774052E+0	1.702359E+0	1.762449E+0	1.850314E+0	1.858776E+0	1.855544E+0	1.880110E+0	1.851846E+0	1.836837E+0	1.927232E+0	1.893036E+0	1.951778E+0	1.800856E+0	1.870762E+0	1.866098E+0	1.871339E+0	1.732890E+0	1.745572E+0	1.709185E+0	1.747731E+0	1.781652E+0	1.856937E+0	1.812768E+0	1.682119E+0	1.899377E+0	1.863214E+0	1.922321E+0	1.807303E+0	1.864352E+0	1.955254E+0	1.978665E+0	1.770603E+0	1.631471E+0	1.789213E+0	1.929719E+0	1.698238E+0	1.708451E+0	1.783731E+0	1.979625E+0	1.771579E+0	1.822554E+0	1.847648E+0	2.033206E+0	1.831658E+0	1.750418E+0	1.880356E+0	1.841500E+0	1.775046E+0	1.688038E+0	1.699757E+0	1.660511E+0	1.673263E+0	1.817791E+0	1.857336E+0	1.816727E+0	1.492916E+0	1.846313E+0	1.914427E+0	1.877218E+0	1.715815E+0	1.830773E+0	1.863495E+0	1.825536E+0	1.957820E+0	1.628795E+0	1.734505E+0	1.736539E+0	1.928473E+0	1.696034E+0	1.800573E+0	1.765112E+0	1.731414E+0	1.833253E+0	1.920203E+0	1.910566E+0	1.715477E+0	1.784126E+0	1.867190E+0	1.809139E+0	1.702035E+0	1.752849E+0	1.665067E+0	1.698033E+0	1.656805E+0	1.829398E+0	1.741923E+0	1.804901E+0	1.735733E+0	1.954608E+0	1.841024E+0	1.863066E+0	1.825795E+0	1.873102E+0	1.719184E+0	1.898061E+0	1.694512E+0	1.701929E+0	1.878607E+0	1.616443E+0	1.758393E+0	1.715746E+0	1.775515E+0	1.769827E+0	1.812138E+0	1.866435E+0	1.924311E+0	1.889763E+0	1.801899E+0	1.716369E+0	1.931132E+0	1.814031E+0	1.706735E+0	1.671570E+0	1.821234E+0	1.607913E+0	1.634657E+0	1.708264E+0	1.954208E+0
5.407680E+2	1.743412E+0	1.728498E+0	1.901443E+0	1.682257E+0	1.616383E+0	1.586623E+0	1.804093E+0	1.620821E+0	1.646153E+0	1.636434E+0	1.916600E+0	1.768282E+0	1.656589E+0	1.784305E+0	1.916574E+0	1.816916E+0	1.786745E+0	1.771824E+0	1.777986E+0	1.769688E+0	1.747721E+0	1.635404E+0	1.626109E+0	1.602807E+0	1.680906E+0	1.607529E+0	1.703590E+0	1.607904E+0	1.643794E+0	1.824692E+0	1.747600E+0	1.841283E+0	1.679501E+0	1.743246E+0	1.770192E+0	1.806141E+0	1.607076E+0	1.539483E+0	1.597008E+0	1.716750E+0	1.748487E+0	1.697607E+0	1.733346E+0	1.771634E+0	1.703369E+0	1.803457E+0	1.786452E+0	1.855462E+0	1.730752E+0	1.763460E+0	1.712434E+0	1.772003E+0	1.686737E+0	1.624095E+0	1.684837E+0	1.742226E+0	1.711198E+0	1.686448E+0	1.736559E+0	1.738667E+0	1.660566E+0	1.864861E+0	1.798825E+0	1.809102E+0	1.600434E+0	1.776332E+0	1.795060E+0	1.839782E+0	1.608195E+0	1.588600E+0	1.647717E+0	1.624757E+0	1.660745E+0	1.664465E+0	1.688378E+0	1.520449E+0	1.725134E+0	1.754879E+0	1.829485E+0	1.795859E+0	1.813712E+0	1.781900E+0	1.900560E+0	1.770059E+0	1.550271E+0	1.625524E+0	1.762657E+0	1.630966E+0	1.664267E+0	1.593610E+0	1.790560E+0	1.649575E+0	1.647811E+0	1.791921E+0	1.837617E+0	1.778533E+0	1.655875E+0	1.819061E+0	1.706410E+0	1.791296E+0	1.624866E+0	1.597343E+0	1.608066E+0	1.544601E+0	1.662655E+0	1.688867E+0	1.643167E+0	1.469027E+0	1.776127E+0	1.818468E+0	1.751015E+0	1.686256E+0	1.656471E+0	1.735156E+0	1.711851E+0	1.823013E+0	1.513258E+0	1.619738E+0	1.594687E+0	1.709235E+0	1.570923E+0	1.669038E+0	1.675894E+0	1.803598E+0	1.700106E+0	1.781536E+0	1.827650E+0	1.803019E+0	1.678982E+0	1.759804E+0	1.712258E+0	1.690404E+0	1.654956E+0	1.578600E+0	1.609813E+0	1.648445E+0	1.722007E+0	1.638895E+0	1.693688E+0	1.743649E+0	1.776244E+0	1.698993E+0	1.775921E+0	1.760278E+0	1.730917E+0	1.561253E+0	1.768560E+0	1.609117E+0	1.553601E+0	1.751806E+0	1.562331E+0	1.635083E+0	1.626180E+0	1.675545E+0	1.677189E+0	1.717564E+0	1.669108E+0	1.799169E+0	1.739809E+0	1.666157E+0	1.658188E+0	1.852567E+0	1.739614E+0	1.671030E+0	1.515387E+0	1.765687E+0	1.556097E+0	1.430581E+0	1.668236E+0	1.738379E+0
5.410190E+2	1.652426E+0	1.573092E+0	1.740046E+0	1.530736E+0	1.566156E+0	1.456638E+0	1.689652E+0	1.475067E+0	1.560809E+0	1.553513E+0	1.747579E+0	1.624813E+0	1.535050E+0	1.670316E+0	1.804739E+0	1.743443E+0	1.638263E+0	1.660579E+0	1.643120E+0	1.675489E+0	1.601424E+0	1.537895E+0	1.548015E+0	1.532851E+0	1.561586E+0	1.533125E+0	1.575265E+0	1.499290E+0	1.526285E+0	1.646169E+0	1.593176E+0	1.622249E+0	1.493844E+0	1.663575E+0	1.669508E+0	1.687571E+0	1.458032E+0	1.474127E+0	1.495036E+0	1.639684E+0	1.628592E+0	1.559761E+0	1.581651E+0	1.644936E+0	1.564013E+0	1.656542E+0	1.594411E+0	1.686547E+0	1.590293E+0	1.682132E+0	1.691657E+0	1.629410E+0	1.562515E+0	1.496295E+0	1.511471E+0	1.625013E+0	1.599563E+0	1.521837E+0	1.576823E+0	1.596639E+0	1.518543E+0	1.685538E+0	1.650788E+0	1.640306E+0	1.579310E+0	1.559564E+0	1.634926E+0	1.732117E+0	1.575535E+0	1.541809E+0	1.452218E+0	1.558066E+0	1.541940E+0	1.565641E+0	1.578400E+0	1.376740E+0	1.649236E+0	1.665911E+0	1.692259E+0	1.613255E+0	1.574058E+0	1.645330E+0	1.726140E+0	1.639211E+0	1.466540E+0	1.515231E+0	1.651281E+0	1.472514E+0	1.520420E+0	1.517036E+0	1.727146E+0	1.559137E+0	1.593230E+0	1.716258E+0	1.747210E+0	1.682910E+0	1.532505E+0	1.627786E+0	1.609404E+0	1.581888E+0	1.508286E+0	1.478021E+0	1.460626E+0	1.481512E+0	1.525705E+0	1.462751E+0	1.529958E+0	1.334202E+0	1.603481E+0	1.684230E+0	1.719741E+0	1.568008E+0	1.598915E+0	1.601493E+0	1.578489E+0	1.736659E+0	1.443742E+0	1.493752E+0	1.460326E+0	1.606741E+0	1.477088E+0	1.554970E+0	1.581517E+0	1.625465E+0	1.529497E+0	1.691777E+0	1.687972E+0	1.736831E+0	1.538394E+0	1.686782E+0	1.565641E+0	1.650871E+0	1.541005E+0	1.461333E+0	1.504903E+0	1.564838E+0	1.610390E+0	1.492547E+0	1.540433E+0	1.525330E+0	1.620833E+0	1.593768E+0	1.637736E+0	1.653547E+0	1.601393E+0	1.540160E+0	1.686201E+0	1.505468E+0	1.531131E+0	1.665263E+0	1.462544E+0	1.586548E+0	1.534943E+0	1.574995E+0	1.564696E+0	1.592257E+0	1.605048E+0	1.690373E+0	1.618831E+0	1.675854E+0	1.513839E+0	1.669838E+0	1.609783E+0	1.667459E+0	1.432348E+0	1.623373E+0	1.476017E+0	1.404620E+0	1.425711E+0	1.599336E+0
5.412850E+2	1.502177E+0	1.550378E+0	1.637393E+0	1.398726E+0	1.381817E+0	1.402147E+0	1.602251E+0	1.420748E+0	1.455942E+0	1.499458E+0	1.602615E+0	1.520336E+0	1.474279E+0	1.615254E+0	1.693435E+0	1.599981E+0	1.476818E+0	1.558098E+0	1.529035E+0	1.573625E+0	1.477895E+0	1.445854E+0	1.431628E+0	1.363643E+0	1.446685E+0	1.475256E+0	1.420208E+0	1.387782E+0	1.409705E+0	1.557943E+0	1.490981E+0	1.542168E+0	1.476003E+0	1.552750E+0	1.539120E+0	1.630499E+0	1.347104E+0	1.377717E+0	1.397783E+0	1.538939E+0	1.475753E+0	1.437356E+0	1.475525E+0	1.527092E+0	1.433437E+0	1.561447E+0	1.517809E+0	1.619665E+0	1.514824E+0	1.483390E+0	1.476616E+0	1.599634E+0	1.393078E+0	1.354622E+0	1.427815E+0	1.504607E+0	1.506443E+0	1.424970E+0	1.488081E+0	1.434632E+0	1.436953E+0	1.547430E+0	1.526968E+0	1.572597E+0	1.414748E+0	1.423283E+0	1.507302E+0	1.568765E+0	1.394922E+0	1.397917E+0	1.449698E+0	1.469148E+0	1.432119E+0	1.474865E+0	1.470557E+0	1.362588E+0	1.536998E+0	1.513617E+0	1.588325E+0	1.522732E+0	1.524007E+0	1.541091E+0	1.631007E+0	1.514313E+0	1.369201E+0	1.451846E+0	1.506701E+0	1.412324E+0	1.443360E+0	1.403486E+0	1.572133E+0	1.429107E+0	1.480242E+0	1.534762E+0	1.592562E+0	1.519496E+0	1.430465E+0	1.509735E+0	1.543343E+0	1.508477E+0	1.358834E+0	1.343236E+0	1.376020E+0	1.339934E+0	1.397314E+0	1.439807E+0	1.423154E+0	1.211052E+0	1.504099E+0	1.519060E+0	1.592439E+0	1.528236E+0	1.486513E+0	1.480608E+0	1.519457E+0	1.552776E+0	1.321491E+0	1.386127E+0	1.396890E+0	1.480678E+0	1.385339E+0	1.448097E+0	1.391733E+0	1.562010E+0	1.467229E+0	1.588048E+0	1.466858E+0	1.625799E+0	1.473502E+0	1.486737E+0	1.507098E+0	1.574710E+0	1.409445E+0	1.395242E+0	1.392365E+0	1.435986E+0	1.420944E+0	1.405322E+0	1.462211E+0	1.412208E+0	1.551466E+0	1.551218E+0	1.638766E+0	1.544699E+0	1.453447E+0	1.361131E+0	1.512961E+0	1.356472E+0	1.425253E+0	1.525842E+0	1.376163E+0	1.460763E+0	1.458731E+0	1.414582E+0	1.455258E+0	1.421437E+0	1.513619E+0	1.606383E+0	1.566472E+0	1.530415E+0	1.424924E+0	1.589526E+0	1.480481E+0	1.568080E+0	1.354492E+0	1.468891E+0	1.372970E+0	1.363516E+0	1.415116E+0	1.412562E+0
5.415190E+2	1.368039E+0	1.408121E+0	1.469471E+0	1.240315E+0	1.312275E+0	1.243668E+0	1.442539E+0	1.260504E+0	1.303108E+0	1.287438E+0	1.468754E+0	1.373370E+0	1.281844E+0	1.442338E+0	1.516401E+0	1.450866E+0	1.346692E+0	1.399722E+0	1.401263E+0	1.390158E+0	1.379411E+0	1.250382E+0	1.279977E+0	1.280570E+0	1.324600E+0	1.345415E+0	1.296162E+0	1.259373E+0	1.313013E+0	1.462453E+0	1.388223E+0	1.390233E+0	1.306742E+0	1.321905E+0	1.396071E+0	1.493086E+0	1.251323E+0	1.284551E+0	1.301006E+0	1.343910E+0	1.407160E+0	1.341965E+0	1.318832E+0	1.428059E+0	1.293569E+0	1.453828E+0	1.422326E+0	1.452215E+0	1.359688E+0	1.376289E+0	1.414288E+0	1.438143E+0	1.261066E+0	1.246139E+0	1.332062E+0	1.368240E+0	1.328917E+0	1.339865E+0	1.370626E+0	1.373607E+0	1.293417E+0	1.421570E+0	1.424151E+0	1.446360E+0	1.360220E+0	1.393773E+0	1.397742E+0	1.401083E+0	1.277153E+0	1.264087E+0	1.288966E+0	1.269549E+0	1.319125E+0	1.310544E+0	1.364315E+0	1.216704E+0	1.412994E+0	1.379116E+0	1.466230E+0	1.416607E+0	1.425670E+0	1.429608E+0	1.501807E+0	1.418608E+0	1.279424E+0	1.292149E+0	1.396862E+0	1.299017E+0	1.292320E+0	1.327435E+0	1.428865E+0	1.349910E+0	1.394547E+0	1.376791E+0	1.476575E+0	1.417297E+0	1.292107E+0	1.450707E+0	1.327314E+0	1.374284E+0	1.268446E+0	1.277536E+0	1.202853E+0	1.221704E+0	1.275879E+0	1.276937E+0	1.320622E+0	1.165400E+0	1.342727E+0	1.416286E+0	1.425084E+0	1.363230E+0	1.370318E+0	1.420967E+0	1.353849E+0	1.446544E+0	1.198284E+0	1.283093E+0	1.268023E+0	1.407781E+0	1.287859E+0	1.341222E+0	1.328301E+0	1.432188E+0	1.361927E+0	1.448842E+0	1.435272E+0	1.483284E+0	1.337718E+0	1.359712E+0	1.344938E+0	1.389824E+0	1.297565E+0	1.257597E+0	1.330848E+0	1.375492E+0	1.347941E+0	1.314003E+0	1.348334E+0	1.320583E+0	1.406481E+0	1.356285E+0	1.422713E+0	1.417889E+0	1.344647E+0	1.267057E+0	1.397657E+0	1.259300E+0	1.278426E+0	1.363582E+0	1.241127E+0	1.333982E+0	1.344133E+0	1.303569E+0	1.365673E+0	1.332775E+0	1.365367E+0	1.460382E+0	1.362635E+0	1.483551E+0	1.336558E+0	1.356159E+0	1.354873E+0	1.400262E+0	1.209167E+0	1.404348E+0	1.247546E+0	1.217129E+0	1.305627E+0	1.395960E+0
5.417860E+2	1.196473E+0	1.192346E+0	1.319350E+0	1.134707E+0	1.128487E+0	1.094687E+0	1.272139E+0	1.112940E+0	1.108436E+0	1.158860E+0	1.298501E+0	1.176412E+0	1.141888E+0	1.189243E+0	1.331425E+0	1.283057E+0	1.163115E+0	1.207917E+0	1.199972E+0	1.257075E+0	1.196679E+0	1.111406E+0	1.143944E+0	1.122291E+0	1.173238E+0	1.111021E+0	1.144846E+0	1.116967E+0	1.178389E+0	1.250713E+0	1.160557E+0	1.235699E+0	1.163039E+0	1.217718E+0	1.215063E+0	1.299154E+0	1.136973E+0	1.116296E+0	1.130107E+0	1.169545E+0	1.214355E+0	1.168832E+0	1.164916E+0	1.185177E+0	1.120669E+0	1.257379E+0	1.251865E+0	1.283788E+0	1.199315E+0	1.227378E+0	1.185744E+0	1.274935E+0	1.095269E+0	1.110413E+0	1.121406E+0	1.175775E+0	1.139953E+0	1.162374E+0	1.222899E+0	1.237679E+0	1.167004E+0	1.246146E+0	1.264805E+0	1.281921E+0	1.102323E+0	1.218323E+0	1.239415E+0	1.212978E+0	1.083181E+0	1.135792E+0	1.173581E+0	1.132859E+0	1.139076E+0	1.182993E+0	1.141690E+0	1.074630E+0	1.184770E+0	1.222110E+0	1.288133E+0	1.240244E+0	1.238419E+0	1.283561E+0	1.301556E+0	1.227741E+0	1.097849E+0	1.101509E+0	1.247681E+0	1.091884E+0	1.167480E+0	1.180617E+0	1.280900E+0	1.196868E+0	1.171444E+0	1.270961E+0	1.300318E+0	1.211886E+0	1.176810E+0	1.242977E+0	1.169014E+0	1.191355E+0	1.099479E+0	1.102174E+0	1.087078E+0	1.050322E+0	1.103087E+0	1.195220E+0	1.102745E+0	1.040130E+0	1.205943E+0	1.293061E+0	1.228646E+0	1.227784E+0	1.196018E+0	1.242035E+0	1.228684E+0	1.298689E+0	1.067405E+0	1.158122E+0	1.142651E+0	1.207178E+0	1.139811E+0	1.115145E+0	1.147803E+0	1.252304E+0	1.185745E+0	1.309100E+0	1.259562E+0	1.276712E+0	1.167688E+0	1.182987E+0	1.213865E+0	1.261337E+0	1.138554E+0	1.077717E+0	1.135812E+0	1.147788E+0	1.205554E+0	1.141899E+0	1.181244E+0	1.159952E+0	1.243763E+0	1.192402E+0	1.227291E+0	1.233488E+0	1.222033E+0	1.084610E+0	1.259064E+0	1.165662E+0	1.136092E+0	1.201923E+0	1.129425E+0	1.169072E+0	1.162775E+0	1.195463E+0	1.129493E+0	1.164319E+0	1.233643E+0	1.302543E+0	1.236062E+0	1.281019E+0	1.124701E+0	1.290980E+0	1.177014E+0	1.263985E+0	1.093566E+0	1.187442E+0	1.112114E+0	1.101028E+0	1.072522E+0	1.265218E+0
5.420160E+2	1.123686E+0	1.103285E+0	1.154394E+0	9.573555E-1	1.083229E+0	9.647048E-1	1.171533E+0	1.007016E+0	1.102300E+0	1.041827E+0	1.179446E+0	1.096429E+0	1.029096E+0	1.111962E+0	1.247152E+0	1.158723E+0	1.090224E+0	1.133387E+0	1.127467E+0	1.107014E+0	1.073150E+0	9.865585E-1	1.042171E+0	1.001181E+0	1.089823E+0	1.051207E+0	1.025611E+0	9.890418E-1	1.003979E+0	1.130831E+0	1.074828E+0	1.122285E+0	1.040555E+0	1.120171E+0	1.128136E+0	1.110763E+0	1.010408E+0	9.980993E-1	9.733740E-1	1.124338E+0	1.113901E+0	1.061865E+0	1.008223E+0	1.078397E+0	1.036025E+0	1.190756E+0	1.078705E+0	1.156368E+0	1.115459E+0	1.105384E+0	1.095365E+0	1.145513E+0	9.918400E-1	9.707248E-1	1.024644E+0	1.036670E+0	1.084408E+0	1.017917E+0	1.110144E+0	1.079004E+0	1.054191E+0	1.156488E+0	1.113533E+0	1.131988E+0	1.091025E+0	1.104036E+0	1.078681E+0	1.151102E+0	9.703593E-1	1.022087E+0	1.007306E+0	1.051981E+0	1.012884E+0	1.034760E+0	1.089905E+0	1.010941E+0	1.093374E+0	1.127384E+0	1.150903E+0	1.123192E+0	1.062358E+0	1.128597E+0	1.088383E+0	1.089323E+0	1.047411E+0	1.003693E+0	1.088282E+0	1.025936E+0	9.768819E-1	1.064959E+0	1.168751E+0	1.014395E+0	1.078086E+0	1.129856E+0	1.204230E+0	1.136502E+0	1.107055E+0	1.119247E+0	1.051775E+0	1.087855E+0	9.931696E-1	9.731886E-1	9.782307E-1	9.772982E-1	9.891402E-1	1.048022E+0	1.063227E+0	8.978711E-1	1.080432E+0	1.121074E+0	1.118356E+0	1.076753E+0	1.074389E+0	1.092393E+0	1.101881E+0	1.160154E+0	9.681674E-1	9.709256E-1	9.718288E-1	1.179776E+0	1.023041E+0	1.069416E+0	1.058585E+0	1.160907E+0	1.003999E+0	1.103248E+0	1.121859E+0	1.171023E+0	1.060743E+0	1.125304E+0	1.039271E+0	1.086918E+0	1.069147E+0	9.674033E-1	1.002289E+0	1.037623E+0	1.050499E+0	9.902833E-1	1.062579E+0	1.054750E+0	1.118596E+0	1.113624E+0	1.125711E+0	1.149477E+0	1.103447E+0	1.049831E+0	1.184656E+0	9.872214E-1	9.792740E-1	1.080529E+0	9.636102E-1	1.055664E+0	1.069315E+0	1.046090E+0	1.036343E+0	1.052606E+0	1.085388E+0	1.175708E+0	1.127285E+0	1.175441E+0	1.072559E+0	1.153056E+0	1.115792E+0	1.159248E+0	9.505983E-1	1.125543E+0	1.013190E+0	9.539201E-1	1.046621E+0	1.068069E+0
5.422670E+2	1.036862E+0	9.735806E-1	1.034534E+0	8.523217E-1	1.056737E+0	8.677178E-1	1.021882E+0	8.757454E-1	9.171114E-1	8.859597E-1	1.020912E+0	9.509609E-1	9.407035E-1	9.743040E-1	1.063232E+0	9.783061E-1	9.541592E-1	9.706264E-1	1.008822E+0	9.843368E-1	1.026470E+0	8.680893E-1	8.950521E-1	9.080508E-1	1.028505E+0	9.631877E-1	9.619842E-1	9.373894E-1	9.757581E-1	9.875965E-1	9.612807E-1	1.032250E+0	9.908863E-1	9.853426E-1	9.746369E-1	1.009364E+0	9.967258E-1	8.734143E-1	8.803719E-1	9.753751E-1	1.076096E+0	9.532431E-1	9.582151E-1	9.865559E-1	9.405431E-1	1.042137E+0	9.557118E-1	1.026997E+0	9.655664E-1	1.002863E+0	9.691465E-1	9.754328E-1	9.767675E-1	8.671961E-1	9.107480E-1	9.399796E-1	1.011981E+0	9.333704E-1	1.006786E+0	9.619408E-1	9.665586E-1	1.025617E+0	1.019864E+0	1.009141E+0	9.701825E-1	9.237568E-1	9.925958E-1	1.042200E+0	9.401752E-1	8.807105E-1	9.387804E-1	9.304246E-1	9.489949E-1	9.445559E-1	9.382844E-1	8.563473E-1	9.912879E-1	9.923591E-1	1.036880E+0	9.863698E-1	9.410575E-1	1.014326E+0	1.019086E+0	1.017951E+0	8.865167E-1	8.694458E-1	1.011649E+0	8.984688E-1	9.085535E-1	9.355687E-1	1.014327E+0	9.619536E-1	9.564805E-1	9.836401E-1	1.039345E+0	1.002935E+0	9.427543E-1	1.005165E+0	9.857175E-1	1.003610E+0	8.986717E-1	8.905798E-1	8.866988E-1	8.928485E-1	9.292250E-1	9.400008E-1	9.072945E-1	7.996713E-1	9.467211E-1	9.931309E-1	1.019589E+0	9.714062E-1	8.968323E-1	1.007722E+0	9.778095E-1	1.003603E+0	8.564651E-1	8.923745E-1	9.173856E-1	1.023019E+0	8.942818E-1	9.481566E-1	9.647255E-1	1.011294E+0	9.513487E-1	1.013490E+0	1.043877E+0	1.052524E+0	9.574023E-1	9.596228E-1	9.486064E-1	9.915702E-1	9.458733E-1	9.003196E-1	8.973789E-1	9.441803E-1	9.847360E-1	9.089132E-1	9.540236E-1	9.325807E-1	1.001773E+0	9.917194E-1	1.020522E+0	1.003646E+0	9.474420E-1	8.736555E-1	9.966486E-1	8.818045E-1	8.888800E-1	9.687498E-1	8.558803E-1	9.041237E-1	9.613926E-1	9.437968E-1	9.243614E-1	9.621715E-1	9.800087E-1	1.038163E+0	9.630962E-1	9.545909E-1	9.106466E-1	1.038409E+0	9.316014E-1	9.652467E-1	8.977526E-1	9.721194E-1	9.054328E-1	8.897408E-1	8.511887E-1	9.580795E-1
5.425300E+2	9.968286E-1	9.855352E-1	1.053522E+0	8.615042E-1	9.905067E-1	8.587183E-1	1.013079E+0	8.558281E-1	9.751226E-1	9.011789E-1	1.003640E+0	9.374641E-1	9.140013E-1	1.007631E+0	1.022421E+0	1.010477E+0	9.487597E-1	9.695308E-1	9.794148E-1	9.246417E-1	1.007116E+0	9.355258E-1	8.784266E-1	8.927478E-1	1.016904E+0	9.578382E-1	9.234863E-1	8.891159E-1	9.489259E-1	9.927862E-1	9.811504E-1	1.000217E+0	1.000530E+0	9.546994E-1	9.713359E-1	1.048705E+0	1.073448E+0	9.165209E-1	8.761227E-1	1.002068E+0	1.035051E+0	9.036190E-1	9.182086E-1	9.339964E-1	9.436396E-1	1.045553E+0	9.826841E-1	9.840357E-1	9.718558E-1	9.747999E-1	9.613550E-1	9.582527E-1	1.033419E+0	9.013751E-1	9.424975E-1	9.281221E-1	1.009802E+0	9.540868E-1	9.206541E-1	9.480699E-1	9.287863E-1	1.036199E+0	9.967157E-1	1.017363E+0	9.839366E-1	9.355605E-1	9.739335E-1	9.636169E-1	1.031223E+0	8.641077E-1	9.030063E-1	8.906949E-1	9.785631E-1	9.428326E-1	9.147939E-1	8.786649E-1	1.022288E+0	9.698547E-1	1.004087E+0	9.868902E-1	1.034683E+0	1.000947E+0	1.063717E+0	1.006056E+0	9.596504E-1	8.769317E-1	1.002963E+0	9.272375E-1	1.020036E+0	9.155006E-1	9.908407E-1	9.293118E-1	1.019198E+0	1.016360E+0	1.016602E+0	9.938273E-1	8.839524E-1	9.796244E-1	9.208490E-1	1.020460E+0	8.806962E-1	8.833334E-1	8.743298E-1	8.560879E-1	9.308298E-1	9.220907E-1	9.574924E-1	7.954246E-1	9.318649E-1	1.008337E+0	1.040440E+0	9.590442E-1	9.527602E-1	9.624572E-1	9.400960E-1	1.034044E+0	8.574238E-1	8.903344E-1	8.854184E-1	1.008221E+0	8.895898E-1	9.127035E-1	9.518325E-1	9.955755E-1	9.154040E-1	1.007578E+0	9.979764E-1	1.041848E+0	8.931150E-1	9.534866E-1	9.739923E-1	9.956390E-1	9.002938E-1	8.436720E-1	8.659056E-1	9.279509E-1	9.859419E-1	8.737906E-1	9.934019E-1	9.608605E-1	9.475338E-1	9.681439E-1	9.823660E-1	9.862093E-1	1.002706E+0	9.158465E-1	9.750651E-1	9.253846E-1	8.973694E-1	1.009015E+0	8.603488E-1	9.110566E-1	8.901850E-1	9.682077E-1	9.187623E-1	9.219781E-1	9.769094E-1	1.002086E+0	9.768210E-1	1.035928E+0	9.051574E-1	1.015713E+0	9.611562E-1	1.010474E+0	8.401879E-1	9.625971E-1	8.165188E-1	8.623381E-1	8.770892E-1	9.622295E-1
5.427600E+2	1.115367E+0	1.024985E+0	1.085564E+0	9.613731E-1	1.167120E+0	9.007130E-1	1.040116E+0	9.255371E-1	1.077199E+0	9.856727E-1	1.095552E+0	1.009448E+0	1.011602E+0	1.046754E+0	1.103513E+0	1.074818E+0	1.025971E+0	1.079681E+0	1.064089E+0	1.046771E+0	1.090797E+0	9.797240E-1	9.383821E-1	9.360338E-1	1.068830E+0	1.025919E+0	1.046464E+0	9.779387E-1	1.039138E+0	1.022367E+0	1.066879E+0	1.111897E+0	1.037662E+0	1.046628E+0	1.078620E+0	1.096356E+0	1.053899E+0	9.512844E-1	9.752623E-1	1.064064E+0	1.150087E+0	1.019409E+0	9.776623E-1	1.020305E+0	1.022606E+0	1.126412E+0	1.056588E+0	1.087533E+0	1.098688E+0	1.049256E+0	1.063680E+0	1.003493E+0	1.107743E+0	9.325828E-1	1.034218E+0	1.019793E+0	1.100744E+0	9.714440E-1	1.036019E+0	1.087881E+0	1.060234E+0	1.061815E+0	1.069391E+0	1.115061E+0	1.028639E+0	1.034822E+0	1.044970E+0	1.071282E+0	1.151962E+0	9.667436E-1	9.962213E-1	9.744117E-1	1.143299E+0	1.006033E+0	1.027441E+0	9.396320E-1	1.096581E+0	1.079758E+0	1.025781E+0	1.050359E+0	1.118886E+0	1.070068E+0	1.134775E+0	1.094189E+0	1.104406E+0	9.178549E-1	1.091348E+0	9.595467E-1	1.105832E+0	9.688404E-1	1.101227E+0	9.421543E-1	1.047923E+0	1.070552E+0	1.128611E+0	1.064659E+0	1.091489E+0	1.089165E+0	1.013688E+0	1.098686E+0	1.110265E+0	9.963777E-1	9.534921E-1	9.345766E-1	1.076339E+0	1.019477E+0	9.799211E-1	8.575294E-1	1.111168E+0	1.073882E+0	1.032209E+0	1.019780E+0	1.045068E+0	1.042869E+0	1.057062E+0	1.114804E+0	1.065967E+0	1.019383E+0	9.618398E-1	1.067416E+0	9.865505E-1	1.010328E+0	1.036410E+0	1.094541E+0	1.028300E+0	1.070462E+0	1.065100E+0	1.161949E+0	1.042118E+0	1.065781E+0	9.941976E-1	1.086337E+0	9.888640E-1	9.370911E-1	9.159767E-1	9.702459E-1	1.012488E+0	9.586721E-1	1.037568E+0	9.885751E-1	1.033587E+0	1.054972E+0	1.076210E+0	1.024781E+0	1.048758E+0	9.905356E-1	1.084689E+0	9.907544E-1	9.672882E-1	1.027043E+0	9.129725E-1	9.897988E-1	1.008678E+0	9.560017E-1	1.013438E+0	1.023052E+0	9.856914E-1	1.085514E+0	1.058152E+0	1.058013E+0	9.940730E-1	1.093695E+0	1.032405E+0	1.020590E+0	9.189849E-1	1.003333E+0	9.548952E-1	9.431033E-1	9.759831E-1	9.975102E-1
5.430120E+2	1.199592E+0	1.179794E+0	1.262980E+0	1.045744E+0	1.293510E+0	9.997002E-1	1.260192E+0	1.113391E+0	1.194337E+0	1.096932E+0	1.257787E+0	1.132421E+0	1.111045E+0	1.225468E+0	1.263053E+0	1.196110E+0	1.152856E+0	1.125715E+0	1.209607E+0	1.201213E+0	1.260436E+0	1.062196E+0	1.077942E+0	1.065890E+0	1.204725E+0	1.157705E+0	1.097259E+0	1.071589E+0	1.115934E+0	1.256422E+0	1.190648E+0	1.217085E+0	1.191491E+0	1.153879E+0	1.185905E+0	1.216593E+0	1.216629E+0	1.045842E+0	1.071569E+0	1.163948E+0	1.231098E+0	1.173795E+0	1.172695E+0	1.177984E+0	1.177958E+0	1.221505E+0	1.234065E+0	1.231551E+0	1.243340E+0	1.195303E+0	1.220026E+0	1.225686E+0	1.257428E+0	1.039579E+0	1.108303E+0	1.151144E+0	1.247777E+0	1.125420E+0	1.171220E+0	1.162226E+0	1.177580E+0	1.189345E+0	1.254039E+0	1.217594E+0	1.209902E+0	1.212957E+0	1.217141E+0	1.208646E+0	1.232122E+0	1.103089E+0	1.101529E+0	1.087928E+0	1.264741E+0	1.116920E+0	1.134749E+0	1.019107E+0	1.222718E+0	1.198037E+0	1.201859E+0	1.183540E+0	1.247841E+0	1.197161E+0	1.224039E+0	1.205032E+0	1.234029E+0	1.108994E+0	1.186883E+0	1.060457E+0	1.259954E+0	1.099287E+0	1.209265E+0	1.113390E+0	1.212616E+0	1.204501E+0	1.284398E+0	1.199238E+0	1.217740E+0	1.191327E+0	1.164849E+0	1.200381E+0	1.298232E+0	1.065459E+0	1.036613E+0	9.882267E-1	1.265179E+0	1.133095E+0	1.091531E+0	9.790856E-1	1.221311E+0	1.213360E+0	1.155119E+0	1.162749E+0	1.236742E+0	1.239372E+0	1.143419E+0	1.158912E+0	1.290811E+0	1.062229E+0	1.093703E+0	1.197861E+0	1.214877E+0	1.115146E+0	1.105514E+0	1.210390E+0	1.218654E+0	1.232239E+0	1.192438E+0	1.268706E+0	1.208544E+0	1.192190E+0	1.133561E+0	1.198547E+0	1.238518E+0	1.023554E+0	1.028516E+0	1.113361E+0	1.284590E+0	1.096823E+0	1.175923E+0	1.115835E+0	1.191088E+0	1.172851E+0	1.203572E+0	1.217110E+0	1.200158E+0	1.086891E+0	1.238048E+0	1.099704E+0	1.234475E+0	1.184495E+0	1.083751E+0	1.107168E+0	1.177240E+0	1.076895E+0	1.143745E+0	1.142450E+0	1.272384E+0	1.225315E+0	1.162359E+0	1.263243E+0	1.165316E+0	1.239767E+0	1.151681E+0	1.189003E+0	1.022318E+0	1.114432E+0	1.075606E+0	1.004398E+0	1.161997E+0	1.221638E+0
5.433070E+2	1.447584E+0	1.356120E+0	1.407761E+0	1.288527E+0	1.439218E+0	1.173175E+0	1.404184E+0	1.227007E+0	1.392912E+0	1.261720E+0	1.472458E+0	1.387864E+0	1.321437E+0	1.357326E+0	1.441671E+0	1.434783E+0	1.363430E+0	1.330124E+0	1.307465E+0	1.357297E+0	1.395922E+0	1.236711E+0	1.276954E+0	1.229851E+0	1.429559E+0	1.349792E+0	1.273169E+0	1.275304E+0	1.295896E+0	1.363848E+0	1.366080E+0	1.414474E+0	1.374736E+0	1.338247E+0	1.381218E+0	1.434348E+0	1.451190E+0	1.280381E+0	1.255211E+0	1.377062E+0	1.450905E+0	1.341414E+0	1.282159E+0	1.348941E+0	1.329180E+0	1.401442E+0	1.423946E+0	1.441474E+0	1.415246E+0	1.361970E+0	1.351956E+0	1.434134E+0	1.457008E+0	1.220383E+0	1.285698E+0	1.313965E+0	1.374115E+0	1.295074E+0	1.363321E+0	1.380816E+0	1.361408E+0	1.369223E+0	1.346090E+0	1.455070E+0	1.407870E+0	1.336898E+0	1.333327E+0	1.407268E+0	1.393936E+0	1.265093E+0	1.245129E+0	1.281846E+0	1.426310E+0	1.285838E+0	1.324277E+0	1.186765E+0	1.424217E+0	1.401620E+0	1.421329E+0	1.408283E+0	1.397994E+0	1.392260E+0	1.494177E+0	1.374810E+0	1.421656E+0	1.267198E+0	1.340662E+0	1.229973E+0	1.423326E+0	1.274097E+0	1.395395E+0	1.264292E+0	1.358162E+0	1.363495E+0	1.443028E+0	1.386437E+0	1.375121E+0	1.330383E+0	1.313627E+0	1.349012E+0	1.460011E+0	1.201207E+0	1.207800E+0	1.158118E+0	1.443855E+0	1.320031E+0	1.287516E+0	1.179203E+0	1.425206E+0	1.381153E+0	1.446483E+0	1.352482E+0	1.401812E+0	1.419367E+0	1.335811E+0	1.399950E+0	1.465795E+0	1.294313E+0	1.217076E+0	1.419841E+0	1.411405E+0	1.313479E+0	1.350480E+0	1.432187E+0	1.364964E+0	1.397781E+0	1.410592E+0	1.459799E+0	1.377974E+0	1.413100E+0	1.275514E+0	1.362500E+0	1.463311E+0	1.173124E+0	1.224507E+0	1.230412E+0	1.440854E+0	1.204535E+0	1.365894E+0	1.317189E+0	1.408569E+0	1.388484E+0	1.384044E+0	1.417361E+0	1.493744E+0	1.205481E+0	1.385727E+0	1.271078E+0	1.398288E+0	1.332332E+0	1.217792E+0	1.275053E+0	1.421459E+0	1.302988E+0	1.269979E+0	1.325682E+0	1.378282E+0	1.441778E+0	1.398217E+0	1.417298E+0	1.380468E+0	1.415522E+0	1.300512E+0	1.412757E+0	1.464904E+0	1.350386E+0	1.142145E+0	1.161602E+0	1.402166E+0	1.325402E+0
5.435220E+2	1.556765E+0	1.494788E+0	1.570345E+0	1.317798E+0	1.605895E+0	1.361153E+0	1.546290E+0	1.390872E+0	1.497221E+0	1.374553E+0	1.548950E+0	1.461352E+0	1.472898E+0	1.531210E+0	1.564106E+0	1.577374E+0	1.478977E+0	1.475896E+0	1.507236E+0	1.460259E+0	1.539945E+0	1.363381E+0	1.366133E+0	1.385940E+0	1.543910E+0	1.397935E+0	1.396680E+0	1.375713E+0	1.444863E+0	1.512272E+0	1.471680E+0	1.484164E+0	1.487575E+0	1.456734E+0	1.516012E+0	1.542397E+0	1.544038E+0	1.355930E+0	1.366154E+0	1.461878E+0	1.599426E+0	1.427428E+0	1.447743E+0	1.410909E+0	1.432406E+0	1.516465E+0	1.480587E+0	1.555710E+0	1.515350E+0	1.544672E+0	1.434024E+0	1.488537E+0	1.538087E+0	1.308556E+0	1.450493E+0	1.442580E+0	1.609911E+0	1.433933E+0	1.441621E+0	1.439630E+0	1.433932E+0	1.531281E+0	1.495210E+0	1.484572E+0	1.468783E+0	1.415770E+0	1.450715E+0	1.499465E+0	1.557228E+0	1.359175E+0	1.356987E+0	1.419956E+0	1.551972E+0	1.438091E+0	1.379264E+0	1.312509E+0	1.484617E+0	1.465990E+0	1.520215E+0	1.436894E+0	1.553449E+0	1.439642E+0	1.591074E+0	1.461321E+0	1.515467E+0	1.371500E+0	1.478605E+0	1.343277E+0	1.576419E+0	1.327964E+0	1.465268E+0	1.397535E+0	1.496041E+0	1.526075E+0	1.548784E+0	1.534167E+0	1.508872E+0	1.435384E+0	1.461220E+0	1.475380E+0	1.563239E+0	1.374155E+0	1.295374E+0	1.303671E+0	1.553524E+0	1.401188E+0	1.361744E+0	1.392590E+0	1.485142E+0	1.488645E+0	1.491476E+0	1.556185E+0	1.525611E+0	1.465164E+0	1.458790E+0	1.495621E+0	1.591400E+0	1.345830E+0	1.339450E+0	1.486162E+0	1.547985E+0	1.420351E+0	1.404113E+0	1.471191E+0	1.450520E+0	1.518715E+0	1.515228E+0	1.639146E+0	1.502945E+0	1.478144E+0	1.392085E+0	1.472386E+0	1.577782E+0	1.331637E+0	1.328941E+0	1.401558E+0	1.597115E+0	1.404155E+0	1.430283E+0	1.456328E+0	1.522783E+0	1.463809E+0	1.489749E+0	1.506659E+0	1.515043E+0	1.356001E+0	1.495920E+0	1.368838E+0	1.580574E+0	1.491589E+0	1.278359E+0	1.411731E+0	1.583344E+0	1.469798E+0	1.443043E+0	1.391293E+0	1.484693E+0	1.599053E+0	1.509540E+0	1.529879E+0	1.466639E+0	1.496411E+0	1.456205E+0	1.521663E+0	1.536150E+0	1.494817E+0	1.301720E+0	1.312317E+0	1.525782E+0	1.528777E+0
5.437690E+2	1.645149E+0	1.628082E+0	1.686049E+0	1.448085E+0	1.679299E+0	1.453640E+0	1.663241E+0	1.418032E+0	1.590372E+0	1.484238E+0	1.677256E+0	1.549829E+0	1.538274E+0	1.594001E+0	1.681243E+0	1.639977E+0	1.590208E+0	1.582211E+0	1.613204E+0	1.575813E+0	1.652089E+0	1.459979E+0	1.476973E+0	1.462892E+0	1.614064E+0	1.459209E+0	1.493996E+0	1.447154E+0	1.575788E+0	1.593231E+0	1.575575E+0	1.636532E+0	1.586430E+0	1.537935E+0	1.575981E+0	1.670392E+0	1.626136E+0	1.425461E+0	1.401561E+0	1.582426E+0	1.671259E+0	1.488082E+0	1.457742E+0	1.616720E+0	1.543372E+0	1.585936E+0	1.543163E+0	1.636752E+0	1.601300E+0	1.537800E+0	1.490645E+0	1.676946E+0	1.693493E+0	1.396727E+0	1.477204E+0	1.518744E+0	1.653476E+0	1.503919E+0	1.535585E+0	1.588313E+0	1.572934E+0	1.691106E+0	1.591574E+0	1.664973E+0	1.615663E+0	1.507521E+0	1.568105E+0	1.579286E+0	1.622052E+0	1.442190E+0	1.484969E+0	1.440296E+0	1.651765E+0	1.530020E+0	1.537293E+0	1.426277E+0	1.681837E+0	1.576418E+0	1.654416E+0	1.589846E+0	1.618216E+0	1.582341E+0	1.665655E+0	1.633805E+0	1.687961E+0	1.454345E+0	1.630337E+0	1.456580E+0	1.662728E+0	1.497494E+0	1.685455E+0	1.475128E+0	1.583654E+0	1.604294E+0	1.694338E+0	1.628777E+0	1.573434E+0	1.616437E+0	1.515968E+0	1.592717E+0	1.595079E+0	1.449034E+0	1.352767E+0	1.422895E+0	1.578663E+0	1.494098E+0	1.495248E+0	1.470091E+0	1.551742E+0	1.633893E+0	1.630847E+0	1.569620E+0	1.634208E+0	1.611611E+0	1.535310E+0	1.598744E+0	1.643176E+0	1.424380E+0	1.440843E+0	1.589750E+0	1.581347E+0	1.531335E+0	1.465482E+0	1.616730E+0	1.581137E+0	1.643942E+0	1.634174E+0	1.737896E+0	1.615900E+0	1.565892E+0	1.495182E+0	1.565989E+0	1.767871E+0	1.442451E+0	1.430989E+0	1.490079E+0	1.709335E+0	1.459178E+0	1.545225E+0	1.490261E+0	1.607271E+0	1.574793E+0	1.583075E+0	1.574287E+0	1.657233E+0	1.430690E+0	1.598159E+0	1.474843E+0	1.628015E+0	1.554689E+0	1.364245E+0	1.465219E+0	1.610049E+0	1.482582E+0	1.473074E+0	1.513052E+0	1.632948E+0	1.645279E+0	1.616794E+0	1.618217E+0	1.615381E+0	1.662270E+0	1.607143E+0	1.572243E+0	1.650807E+0	1.547191E+0	1.377091E+0	1.408225E+0	1.622322E+0	1.586884E+0
5.440170E+2	1.717418E+0	1.513918E+0	1.750132E+0	1.430865E+0	1.644530E+0	1.405149E+0	1.690281E+0	1.478690E+0	1.620496E+0	1.497357E+0	1.713651E+0	1.520838E+0	1.540114E+0	1.642783E+0	1.698733E+0	1.623457E+0	1.579947E+0	1.622218E+0	1.614724E+0	1.574173E+0	1.688519E+0	1.465446E+0	1.488061E+0	1.459396E+0	1.609091E+0	1.510269E+0	1.560828E+0	1.468882E+0	1.541089E+0	1.653432E+0	1.525612E+0	1.597142E+0	1.545924E+0	1.605863E+0	1.570476E+0	1.642685E+0	1.678910E+0	1.482472E+0	1.440745E+0	1.564344E+0	1.720402E+0	1.563065E+0	1.513863E+0	1.503857E+0	1.566596E+0	1.644587E+0	1.597650E+0	1.630402E+0	1.579814E+0	1.544676E+0	1.570633E+0	1.650028E+0	1.648794E+0	1.464094E+0	1.479218E+0	1.572108E+0	1.646397E+0	1.517358E+0	1.574736E+0	1.540049E+0	1.600633E+0	1.599221E+0	1.582419E+0	1.660137E+0	1.563098E+0	1.575125E+0	1.529580E+0	1.612698E+0	1.666088E+0	1.430618E+0	1.472372E+0	1.479078E+0	1.642789E+0	1.480035E+0	1.565586E+0	1.385452E+0	1.633204E+0	1.626659E+0	1.642310E+0	1.578922E+0	1.649427E+0	1.646444E+0	1.770774E+0	1.567298E+0	1.670813E+0	1.455342E+0	1.548082E+0	1.468974E+0	1.690470E+0	1.512278E+0	1.601489E+0	1.456398E+0	1.598017E+0	1.610942E+0	1.654536E+0	1.581217E+0	1.633392E+0	1.620410E+0	1.571911E+0	1.580081E+0	1.669033E+0	1.430195E+0	1.450235E+0	1.351857E+0	1.643933E+0	1.529917E+0	1.462672E+0	1.446200E+0	1.622955E+0	1.590897E+0	1.575976E+0	1.627671E+0	1.639096E+0	1.567410E+0	1.573021E+0	1.719883E+0	1.711733E+0	1.455492E+0	1.436351E+0	1.610580E+0	1.704373E+0	1.564220E+0	1.478892E+0	1.692413E+0	1.589740E+0	1.616532E+0	1.636645E+0	1.725085E+0	1.576242E+0	1.600872E+0	1.538185E+0	1.633430E+0	1.724359E+0	1.463317E+0	1.428130E+0	1.450739E+0	1.689427E+0	1.406495E+0	1.485623E+0	1.562091E+0	1.638038E+0	1.557541E+0	1.570704E+0	1.585914E+0	1.643418E+0	1.414158E+0	1.574873E+0	1.427729E+0	1.686948E+0	1.609975E+0	1.387082E+0	1.525635E+0	1.590019E+0	1.533731E+0	1.462894E+0	1.553836E+0	1.596270E+0	1.700517E+0	1.558848E+0	1.695785E+0	1.591779E+0	1.615131E+0	1.515313E+0	1.637706E+0	1.581919E+0	1.536612E+0	1.444808E+0	1.393803E+0	1.644690E+0	1.501798E+0
5.442920E+2	1.702857E+0	1.698611E+0	1.732331E+0	1.526719E+0	1.725659E+0	1.657613E+0	1.651297E+0	1.457413E+0	1.660099E+0	1.699409E+0	1.712418E+0	1.534334E+0	1.547940E+0	1.699782E+0	1.722584E+0	1.626936E+0	1.626382E+0	1.620022E+0	1.676581E+0	1.604294E+0	1.647535E+0	1.541997E+0	1.488061E+0	1.426601E+0	1.652181E+0	1.565219E+0	1.529816E+0	1.466950E+0	1.535076E+0	1.606725E+0	1.632349E+0	1.662075E+0	1.568588E+0	1.559900E+0	1.529214E+0	1.632712E+0	1.676467E+0	1.439363E+0	1.424693E+0	1.636244E+0	1.742006E+0	1.489734E+0	1.493861E+0	1.525429E+0	1.549046E+0	1.632058E+0	1.633253E+0	1.607949E+0	1.626980E+0	1.552693E+0	1.582062E+0	1.674652E+0	1.675299E+0	1.376418E+0	1.516514E+0	1.563897E+0	1.649664E+0	1.544233E+0	1.560644E+0	1.535055E+0	1.586029E+0	1.671619E+0	1.674472E+0	1.642242E+0	1.597483E+0	1.533814E+0	1.600612E+0	1.601559E+0	1.686378E+0	1.482439E+0	1.478417E+0	1.488538E+0	1.731492E+0	1.502441E+0	1.500987E+0	1.421377E+0	1.640685E+0	1.583220E+0	1.685192E+0	1.628342E+0	1.701244E+0	1.637527E+0	1.679164E+0	1.613798E+0	1.693007E+0	1.433384E+0	1.591509E+0	1.478269E+0	1.660158E+0	1.511750E+0	1.620869E+0	1.476730E+0	1.591316E+0	1.637015E+0	1.616441E+0	1.630800E+0	1.600531E+0	1.635737E+0	1.536203E+0	1.577674E+0	1.712688E+0	1.420529E+0	1.432920E+0	1.413458E+0	1.659444E+0	1.528237E+0	1.483500E+0	1.505123E+0	1.597335E+0	1.609252E+0	1.568843E+0	1.676578E+0	1.641811E+0	1.588711E+0	1.529294E+0	1.670810E+0	1.679609E+0	1.451924E+0	1.437848E+0	1.667034E+0	1.645467E+0	1.508728E+0	1.462387E+0	1.665634E+0	1.576073E+0	1.591810E+0	1.649477E+0	1.735230E+0	1.585858E+0	1.554846E+0	1.587917E+0	1.622963E+0	1.718664E+0	1.409652E+0	1.467707E+0	1.510248E+0	1.656846E+0	1.474985E+0	1.482431E+0	1.507796E+0	1.618743E+0	1.590315E+0	1.590295E+0	1.591198E+0	1.699255E+0	1.476302E+0	1.554426E+0	1.501346E+0	1.694941E+0	1.564903E+0	1.394035E+0	1.548416E+0	1.638977E+0	1.491882E+0	1.477654E+0	1.526648E+0	1.586457E+0	1.646404E+0	1.599005E+0	1.673697E+0	1.597816E+0	1.679146E+0	1.592896E+0	1.585335E+0	1.681951E+0	1.582108E+0	1.397698E+0	1.470963E+0	1.627030E+0	1.624240E+0
5.445240E+2	1.675820E+0	1.637046E+0	1.700885E+0	1.401021E+0	1.686475E+0	1.731602E+0	1.633061E+0	1.450620E+0	1.611569E+0	1.671068E+0	1.610017E+0	1.555330E+0	1.504204E+0	1.641818E+0	1.672760E+0	1.652586E+0	1.557808E+0	1.660030E+0	1.559964E+0	1.595530E+0	1.658350E+0	1.642693E+0	1.403921E+0	1.447155E+0	1.544460E+0	1.629899E+0	1.422347E+0	1.416260E+0	1.441161E+0	1.630599E+0	1.560248E+0	1.556886E+0	1.538209E+0	1.639059E+0	1.560023E+0	1.602238E+0	1.608543E+0	1.586762E+0	1.416668E+0	1.539804E+0	1.641552E+0	1.588432E+0	1.428293E+0	1.574118E+0	1.495370E+0	1.682737E+0	1.576608E+0	1.536181E+0	1.584529E+0	1.534938E+0	1.546220E+0	1.609942E+0	1.600455E+0	1.395243E+0	1.469644E+0	1.472680E+0	1.664370E+0	1.576146E+0	1.496952E+0	1.490671E+0	1.521058E+0	1.601447E+0	1.627637E+0	1.650462E+0	1.540500E+0	1.482304E+0	1.508509E+0	1.560720E+0	1.618090E+0	1.439675E+0	1.438611E+0	1.475294E+0	1.644904E+0	1.428899E+0	1.496184E+0	1.321218E+0	1.565320E+0	1.592641E+0	1.521727E+0	1.603892E+0	1.606442E+0	1.517123E+0	1.645100E+0	1.541346E+0	1.677876E+0	1.424402E+0	1.531223E+0	1.391960E+0	1.627792E+0	1.464749E+0	1.558041E+0	1.461746E+0	1.520458E+0	1.611454E+0	1.721059E+0	1.556932E+0	1.575740E+0	1.560814E+0	1.536798E+0	1.532546E+0	1.659790E+0	1.436957E+0	1.371567E+0	1.390110E+0	1.615579E+0	1.430849E+0	1.510201E+0	1.435586E+0	1.529202E+0	1.582507E+0	1.589697E+0	1.524473E+0	1.582084E+0	1.550903E+0	1.541869E+0	1.590671E+0	1.691115E+0	1.456008E+0	1.429356E+0	1.629761E+0	1.669969E+0	1.513350E+0	1.448464E+0	1.609163E+0	1.552279E+0	1.592347E+0	1.600118E+0	1.617797E+0	1.593067E+0	1.600872E+0	1.544398E+0	1.489826E+0	1.645116E+0	1.359466E+0	1.380918E+0	1.407952E+0	1.665292E+0	1.420544E+0	1.522872E+0	1.523065E+0	1.543642E+0	1.531662E+0	1.557809E+0	1.560024E+0	1.621544E+0	1.419857E+0	1.556130E+0	1.419484E+0	1.603544E+0	1.566105E+0	1.366231E+0	1.452341E+0	1.621730E+0	1.443062E+0	1.426754E+0	1.468724E+0	1.626748E+0	1.595669E+0	1.586803E+0	1.595055E+0	1.548419E+0	1.549369E+0	1.582868E+0	1.500236E+0	1.637124E+0	1.482648E+0	1.353537E+0	1.368563E+0	1.656462E+0	1.501798E+0
5.447720E+2	1.567163E+0	1.608953E+0	1.589923E+0	1.371177E+0	1.642322E+0	1.646615E+0	1.561381E+0	1.368692E+0	1.548537E+0	1.597075E+0	1.571770E+0	1.459849E+0	1.414430E+0	1.598349E+0	1.611809E+0	1.596504E+0	1.425527E+0	1.612899E+0	1.451968E+0	1.517215E+0	1.526848E+0	1.657274E+0	1.389309E+0	1.385941E+0	1.526783E+0	1.580295E+0	1.385452E+0	1.368953E+0	1.377782E+0	1.587522E+0	1.496659E+0	1.469880E+0	1.468766E+0	1.563471E+0	1.514361E+0	1.527992E+0	1.550388E+0	1.652114E+0	1.372293E+0	1.437336E+0	1.590246E+0	1.629786E+0	1.401066E+0	1.460702E+0	1.494855E+0	1.623516E+0	1.480590E+0	1.533743E+0	1.515873E+0	1.545819E+0	1.488048E+0	1.581310E+0	1.546403E+0	1.582483E+0	1.381954E+0	1.437561E+0	1.523324E+0	1.650616E+0	1.447365E+0	1.515638E+0	1.441989E+0	1.570818E+0	1.510821E+0	1.527133E+0	1.466326E+0	1.517715E+0	1.467571E+0	1.513697E+0	1.578009E+0	1.516653E+0	1.408383E+0	1.374552E+0	1.613222E+0	1.516232E+0	1.385136E+0	1.336459E+0	1.530580E+0	1.543448E+0	1.537367E+0	1.511291E+0	1.561688E+0	1.510434E+0	1.615150E+0	1.517011E+0	1.600203E+0	1.386475E+0	1.492908E+0	1.381340E+0	1.576935E+0	1.404015E+0	1.535139E+0	1.408774E+0	1.453914E+0	1.512784E+0	1.569253E+0	1.498243E+0	1.507139E+0	1.532433E+0	1.476692E+0	1.536155E+0	1.560158E+0	1.358694E+0	1.377009E+0	1.330000E+0	1.546571E+0	1.383838E+0	1.452528E+0	1.363396E+0	1.514346E+0	1.557339E+0	1.459101E+0	1.509422E+0	1.530498E+0	1.428951E+0	1.520549E+0	1.527304E+0	1.585646E+0	1.393779E+0	1.333955E+0	1.522334E+0	1.532867E+0	1.416242E+0	1.392765E+0	1.580054E+0	1.470265E+0	1.502052E+0	1.510293E+0	1.592709E+0	1.495134E+0	1.465259E+0	1.524196E+0	1.496218E+0	1.625951E+0	1.326171E+0	1.336570E+0	1.412375E+0	1.606167E+0	1.376055E+0	1.479772E+0	1.413341E+0	1.528516E+0	1.504638E+0	1.494389E+0	1.511944E+0	1.563401E+0	1.341747E+0	1.493649E+0	1.381794E+0	1.562593E+0	1.466947E+0	1.328004E+0	1.379049E+0	1.485436E+0	1.449456E+0	1.389087E+0	1.417890E+0	1.555460E+0	1.542118E+0	1.469383E+0	1.535802E+0	1.488045E+0	1.493503E+0	1.427177E+0	1.462747E+0	1.506427E+0	1.406465E+0	1.324684E+0	1.318085E+0	1.542265E+0	1.564056E+0
5.450150E+2	1.495417E+0	1.495985E+0	1.413697E+0	1.241462E+0	1.437007E+0	1.451140E+0	1.425562E+0	1.263221E+0	1.369486E+0	1.439106E+0	1.445315E+0	1.316382E+0	1.341231E+0	1.446685E+0	1.449092E+0	1.427824E+0	1.363432E+0	1.503846E+0	1.391124E+0	1.416994E+0	1.440323E+0	1.531973E+0	1.264864E+0	1.240343E+0	1.398621E+0	1.421763E+0	1.280657E+0	1.265648E+0	1.311163E+0	1.443252E+0	1.333150E+0	1.369456E+0	1.354481E+0	1.442944E+0	1.387821E+0	1.395008E+0	1.360299E+0	1.453269E+0	1.216030E+0	1.338310E+0	1.417424E+0	1.472091E+0	1.286603E+0	1.330685E+0	1.309566E+0	1.517605E+0	1.308508E+0	1.413159E+0	1.337154E+0	1.471365E+0	1.336374E+0	1.357396E+0	1.425307E+0	1.419513E+0	1.279145E+0	1.341787E+0	1.435651E+0	1.480405E+0	1.329912E+0	1.302590E+0	1.377022E+0	1.461110E+0	1.411768E+0	1.443462E+0	1.341555E+0	1.460302E+0	1.353193E+0	1.359625E+0	1.453316E+0	1.487474E+0	1.262261E+0	1.271913E+0	1.465382E+0	1.470267E+0	1.325343E+0	1.210718E+0	1.371839E+0	1.403712E+0	1.396104E+0	1.398399E+0	1.462178E+0	1.441313E+0	1.441914E+0	1.382380E+0	1.430734E+0	1.532198E+0	1.354457E+0	1.268479E+0	1.434113E+0	1.435700E+0	1.337267E+0	1.294794E+0	1.386408E+0	1.396216E+0	1.425973E+0	1.333816E+0	1.348605E+0	1.372951E+0	1.361238E+0	1.353226E+0	1.476959E+0	1.331641E+0	1.209778E+0	1.219717E+0	1.448672E+0	1.356970E+0	1.281107E+0	1.318806E+0	1.349386E+0	1.408947E+0	1.430571E+0	1.414825E+0	1.405067E+0	1.365581E+0	1.329254E+0	1.447165E+0	1.414017E+0	1.254016E+0	1.226068E+0	1.411619E+0	1.428087E+0	1.305256E+0	1.310768E+0	1.438010E+0	1.407995E+0	1.397783E+0	1.375549E+0	1.481684E+0	1.390591E+0	1.383031E+0	1.310744E+0	1.401451E+0	1.407890E+0	1.231262E+0	1.227845E+0	1.256475E+0	1.429995E+0	1.287662E+0	1.298846E+0	1.291172E+0	1.463848E+0	1.321782E+0	1.381981E+0	1.366639E+0	1.436754E+0	1.289864E+0	1.356759E+0	1.240452E+0	1.465208E+0	1.379206E+0	1.184034E+0	1.313677E+0	1.420903E+0	1.271022E+0	1.269469E+0	1.319180E+0	1.351419E+0	1.453053E+0	1.387036E+0	1.416223E+0	1.407910E+0	1.388168E+0	1.350122E+0	1.390740E+0	1.427156E+0	1.373134E+0	1.241069E+0	1.176025E+0	1.451613E+0	1.337852E+0
5.452580E+2	1.377918E+0	1.400351E+0	1.359106E+0	1.196120E+0	1.367465E+0	1.375650E+0	1.304207E+0	1.150963E+0	1.307571E+0	1.382425E+0	1.421874E+0	1.286387E+0	1.226139E+0	1.344284E+0	1.389728E+0	1.360876E+0	1.299718E+0	1.369582E+0	1.314056E+0	1.332652E+0	1.330455E+0	1.385253E+0	1.152509E+0	1.178257E+0	1.287587E+0	1.336662E+0	1.243227E+0	1.127104E+0	1.218639E+0	1.416265E+0	1.283189E+0	1.301928E+0	1.308673E+0	1.355102E+0	1.298691E+0	1.314112E+0	1.376422E+0	1.344808E+0	1.168819E+0	1.298706E+0	1.414724E+0	1.371742E+0	1.204367E+0	1.274804E+0	1.264151E+0	1.404860E+0	1.275063E+0	1.320403E+0	1.282123E+0	1.343070E+0	1.268849E+0	1.307577E+0	1.322915E+0	1.378895E+0	1.233286E+0	1.219101E+0	1.315848E+0	1.349387E+0	1.269359E+0	1.278179E+0	1.253629E+0	1.380362E+0	1.335863E+0	1.359307E+0	1.338115E+0	1.349239E+0	1.294197E+0	1.294036E+0	1.335543E+0	1.424581E+0	1.142845E+0	1.216101E+0	1.358725E+0	1.385233E+0	1.265016E+0	1.118722E+0	1.297546E+0	1.330967E+0	1.336062E+0	1.288109E+0	1.365608E+0	1.354352E+0	1.369678E+0	1.312091E+0	1.369200E+0	1.403440E+0	1.298767E+0	1.172437E+0	1.327769E+0	1.357011E+0	1.341376E+0	1.159945E+0	1.292091E+0	1.378833E+0	1.358882E+0	1.303462E+0	1.331310E+0	1.397923E+0	1.246380E+0	1.259954E+0	1.373730E+0	1.332608E+0	1.144470E+0	1.130797E+0	1.403734E+0	1.423574E+0	1.201540E+0	1.228568E+0	1.283811E+0	1.380630E+0	1.355948E+0	1.361618E+0	1.368144E+0	1.342148E+0	1.297004E+0	1.305524E+0	1.358406E+0	1.328486E+0	1.160633E+0	1.277885E+0	1.335818E+0	1.357665E+0	1.244756E+0	1.308191E+0	1.316363E+0	1.352636E+0	1.309904E+0	1.393075E+0	1.291457E+0	1.300804E+0	1.277070E+0	1.304359E+0	1.368525E+0	1.228780E+0	1.205434E+0	1.251557E+0	1.396209E+0	1.179948E+0	1.273303E+0	1.211987E+0	1.346505E+0	1.353408E+0	1.239667E+0	1.275757E+0	1.355586E+0	1.175834E+0	1.273264E+0	1.160362E+0	1.391294E+0	1.311900E+0	1.154246E+0	1.253259E+0	1.354703E+0	1.240216E+0	1.246563E+0	1.237613E+0	1.319907E+0	1.358350E+0	1.314346E+0	1.311720E+0	1.287710E+0	1.314259E+0	1.249319E+0	1.291954E+0	1.367705E+0	1.285843E+0	1.191607E+0	1.157276E+0	1.369202E+0	1.223713E+0
5.455500E+2	1.252102E+0	1.299934E+0	1.299176E+0	1.100843E+0	1.313931E+0	1.308160E+0	1.244472E+0	1.108866E+0	1.192663E+0	1.295308E+0	1.299118E+0	1.224400E+0	1.127617E+0	1.296469E+0	1.320295E+0	1.263060E+0	1.234387E+0	1.281899E+0	1.181213E+0	1.228049E+0	1.292314E+0	1.278173E+0	1.074919E+0	1.159022E+0	1.207487E+0	1.341527E+0	1.107417E+0	1.157033E+0	1.132588E+0	1.296902E+0	1.242880E+0	1.254745E+0	1.235371E+0	1.289219E+0	1.239271E+0	1.304695E+0	1.267939E+0	1.294284E+0	1.114056E+0	1.146725E+0	1.262420E+0	1.348032E+0	1.066011E+0	1.228331E+0	1.182087E+0	1.288696E+0	1.264273E+0	1.283787E+0	1.261684E+0	1.265176E+0	1.153020E+0	1.257181E+0	1.267821E+0	1.321432E+0	1.114350E+0	1.186718E+0	1.267924E+0	1.321950E+0	1.212459E+0	1.156677E+0	1.215353E+0	1.294598E+0	1.260496E+0	1.249999E+0	1.192711E+0	1.281097E+0	1.194265E+0	1.249485E+0	1.242021E+0	1.275157E+0	1.121683E+0	1.179211E+0	1.282693E+0	1.278367E+0	1.183332E+0	1.043602E+0	1.261738E+0	1.273923E+0	1.265937E+0	1.256893E+0	1.254318E+0	1.267954E+0	1.245180E+0	1.235311E+0	1.265803E+0	1.312612E+0	1.231843E+0	1.073295E+0	1.272284E+0	1.363877E+0	1.206330E+0	1.168507E+0	1.239427E+0	1.278629E+0	1.266773E+0	1.226559E+0	1.235036E+0	1.316759E+0	1.190438E+0	1.225655E+0	1.301315E+0	1.294444E+0	1.079162E+0	1.039393E+0	1.255015E+0	1.287011E+0	1.151875E+0	1.114442E+0	1.220287E+0	1.282050E+0	1.202857E+0	1.265945E+0	1.228054E+0	1.276118E+0	1.219939E+0	1.267628E+0	1.307110E+0	1.255548E+0	1.106689E+0	1.195670E+0	1.255539E+0	1.306283E+0	1.144193E+0	1.230183E+0	1.211568E+0	1.286526E+0	1.231429E+0	1.302333E+0	1.232576E+0	1.307552E+0	1.161020E+0	1.217151E+0	1.297049E+0	1.273498E+0	1.098138E+0	1.109918E+0	1.338285E+0	1.309904E+0	1.166344E+0	1.155427E+0	1.278185E+0	1.269456E+0	1.218011E+0	1.217109E+0	1.323349E+0	1.094302E+0	1.227824E+0	1.157417E+0	1.308889E+0	1.248197E+0	1.066872E+0	1.213641E+0	1.228976E+0	1.168146E+0	1.158506E+0	1.166092E+0	1.251205E+0	1.310999E+0	1.242165E+0	1.281017E+0	1.152144E+0	1.195539E+0	1.179125E+0	1.245537E+0	1.198787E+0	1.279494E+0	1.116824E+0	1.051272E+0	1.223216E+0	1.227864E+0
5.457830E+2	1.252622E+0	1.259888E+0	1.294428E+0	1.073868E+0	1.292958E+0	1.258166E+0	1.209260E+0	1.075821E+0	1.250117E+0	1.221834E+0	1.289248E+0	1.161414E+0	1.181019E+0	1.307579E+0	1.225420E+0	1.271756E+0	1.163655E+0	1.248470E+0	1.229382E+0	1.215999E+0	1.252467E+0	1.292300E+0	1.079958E+0	1.076383E+0	1.200858E+0	1.308458E+0	1.113834E+0	1.062418E+0	1.091879E+0	1.274068E+0	1.223576E+0	1.198470E+0	1.203062E+0	1.295859E+0	1.145741E+0	1.233769E+0	1.239107E+0	1.258132E+0	1.074400E+0	1.142422E+0	1.319129E+0	1.284070E+0	1.141579E+0	1.199007E+0	1.208410E+0	1.315460E+0	1.184435E+0	1.215438E+0	1.205079E+0	1.201031E+0	1.146268E+0	1.223396E+0	1.264705E+0	1.256543E+0	1.136524E+0	1.183528E+0	1.252676E+0	1.256439E+0	1.128937E+0	1.157787E+0	1.200748E+0	1.286803E+0	1.214740E+0	1.247581E+0	1.206465E+0	1.221004E+0	1.209315E+0	1.217309E+0	1.262309E+0	1.292260E+0	1.085909E+0	1.107319E+0	1.292725E+0	1.317436E+0	1.136886E+0	1.065376E+0	1.229134E+0	1.245138E+0	1.198327E+0	1.213194E+0	1.293181E+0	1.295825E+0	1.240481E+0	1.270996E+0	1.223940E+0	1.303127E+0	1.194547E+0	1.082145E+0	1.248651E+0	1.289938E+0	1.226881E+0	1.127303E+0	1.178625E+0	1.240287E+0	1.287241E+0	1.249324E+0	1.269047E+0	1.277598E+0	1.134498E+0	1.213018E+0	1.227361E+0	1.242268E+0	1.062340E+0	1.071683E+0	1.241642E+0	1.270219E+0	1.115027E+0	1.118690E+0	1.187499E+0	1.293063E+0	1.230292E+0	1.241758E+0	1.169412E+0	1.291562E+0	1.174574E+0	1.241536E+0	1.246702E+0	1.268299E+0	1.089707E+0	1.184708E+0	1.248242E+0	1.273403E+0	1.122018E+0	1.261619E+0	1.143222E+0	1.274165E+0	1.257590E+0	1.282050E+0	1.139450E+0	1.246804E+0	1.162056E+0	1.179360E+0	1.274775E+0	1.356484E+0	1.087648E+0	1.177295E+0	1.277954E+0	1.282977E+0	1.175391E+0	1.137893E+0	1.248979E+0	1.262555E+0	1.192227E+0	1.203899E+0	1.245059E+0	1.029876E+0	1.220441E+0	1.185096E+0	1.244466E+0	1.227765E+0	1.062404E+0	1.190862E+0	1.230089E+0	1.162915E+0	1.146291E+0	1.134174E+0	1.218146E+0	1.262518E+0	1.199972E+0	1.193755E+0	1.199894E+0	1.200194E+0	1.144820E+0	1.232445E+0	1.277112E+0	1.246693E+0	1.037921E+0	1.067857E+0	1.214975E+0	1.217487E+0
5.460060E+2	1.237024E+0	1.266462E+0	1.303329E+0	1.061241E+0	1.263154E+0	1.291660E+0	1.272138E+0	1.056356E+0	1.188758E+0	1.244927E+0	1.283696E+0	1.166914E+0	1.134983E+0	1.277630E+0	1.280542E+0	1.226106E+0	1.187413E+0	1.272036E+0	1.101102E+0	1.167805E+0	1.259298E+0	1.227596E+0	1.117241E+0	1.067202E+0	1.242289E+0	1.266148E+0	1.132013E+0	1.103933E+0	1.109458E+0	1.221652E+0	1.184402E+0	1.172066E+0	1.166898E+0	1.299943E+0	1.204611E+0	1.233770E+0	1.204412E+0	1.237272E+0	1.054574E+0	1.173850E+0	1.242980E+0	1.250437E+0	1.163805E+0	1.129297E+0	1.151636E+0	1.229477E+0	1.208171E+0	1.219835E+0	1.241768E+0	1.256015E+0	1.149904E+0	1.225114E+0	1.263666E+0	1.204531E+0	1.112334E+0	1.169844E+0	1.176439E+0	1.291154E+0	1.177483E+0	1.146136E+0	1.134269E+0	1.227215E+0	1.228199E+0	1.205021E+0	1.182395E+0	1.297732E+0	1.164165E+0	1.138108E+0	1.243507E+0	1.241951E+0	1.112110E+0	1.093129E+0	1.229365E+0	1.293880E+0	1.167851E+0	1.062110E+0	1.240359E+0	1.262407E+0	1.226077E+0	1.163251E+0	1.236065E+0	1.279103E+0	1.266321E+0	1.209898E+0	1.304136E+0	1.315106E+0	1.169002E+0	1.085687E+0	1.206526E+0	1.212835E+0	1.195761E+0	1.111784E+0	1.156601E+0	1.318506E+0	1.241188E+0	1.207837E+0	1.201599E+0	1.249220E+0	1.193414E+0	1.166683E+0	1.247905E+0	1.272224E+0	1.021275E+0	1.030949E+0	1.208474E+0	1.289248E+0	1.133183E+0	1.105951E+0	1.210041E+0	1.281528E+0	1.190236E+0	1.181561E+0	1.261177E+0	1.238840E+0	1.211740E+0	1.235324E+0	1.239513E+0	1.245346E+0	1.059739E+0	1.185804E+0	1.237815E+0	1.247708E+0	1.114798E+0	1.144606E+0	1.205998E+0	1.304800E+0	1.204285E+0	1.240948E+0	1.126832E+0	1.314304E+0	1.157912E+0	1.197965E+0	1.207958E+0	1.270518E+0	1.093846E+0	1.105491E+0	1.230291E+0	1.248439E+0	1.115792E+0	1.079072E+0	1.217166E+0	1.272330E+0	1.216462E+0	1.176953E+0	1.259451E+0	1.079479E+0	1.181248E+0	1.205119E+0	1.240470E+0	1.177283E+0	1.049992E+0	1.163129E+0	1.186141E+0	1.201275E+0	1.170214E+0	1.119397E+0	1.203682E+0	1.272666E+0	1.163375E+0	1.246545E+0	1.220750E+0	1.257808E+0	1.171209E+0	1.178885E+0	1.251160E+0	1.276319E+0	1.019667E+0	1.072905E+0	1.249117E+0	1.219563E+0
5.467710E+2	1.299934E+0	1.281405E+0	1.284935E+0	1.186363E+0	1.255427E+0	1.320656E+0	1.248245E+0	1.096644E+0	1.223342E+0	1.345688E+0	1.292949E+0	1.197408E+0	1.191610E+0	1.352979E+0	1.294323E+0	1.250452E+0	1.191732E+0	1.302723E+0	1.278056E+0	1.189711E+0	1.296300E+0	1.247644E+0	1.118249E+0	1.110927E+0	1.287586E+0	1.342011E+0	1.149123E+0	1.131447E+0	1.170062E+0	1.317660E+0	1.241178E+0	1.235698E+0	1.243569E+0	1.332629E+0	1.224967E+0	1.288623E+0	1.265983E+0	1.323950E+0	1.146630E+0	1.202266E+0	1.257022E+0	1.372291E+0	1.202699E+0	1.240501E+0	1.187249E+0	1.337667E+0	1.241077E+0	1.308198E+0	1.229714E+0	1.330472E+0	1.245998E+0	1.280661E+0	1.307843E+0	1.272888E+0	1.162730E+0	1.198120E+0	1.270102E+0	1.382420E+0	1.226552E+0	1.214932E+0	1.226938E+0	1.282903E+0	1.252423E+0	1.255806E+0	1.224150E+0	1.296122E+0	1.244231E+0	1.264954E+0	1.266269E+0	1.367729E+0	1.147884E+0	1.162656E+0	1.342884E+0	1.340422E+0	1.164646E+0	1.104024E+0	1.324272E+0	1.285435E+0	1.323956E+0	1.239206E+0	1.312024E+0	1.351009E+0	1.353236E+0	1.237473E+0	1.298082E+0	1.289155E+0	1.248702E+0	1.113570E+0	1.252247E+0	1.319513E+0	1.218660E+0	1.163691E+0	1.254268E+0	1.328223E+0	1.313395E+0	1.248313E+0	1.231000E+0	1.313354E+0	1.176156E+0	1.232876E+0	1.282824E+0	1.291063E+0	1.059867E+0	1.088573E+0	1.260901E+0	1.340181E+0	1.166294E+0	1.168587E+0	1.204404E+0	1.290440E+0	1.245108E+0	1.289057E+0	1.285069E+0	1.337355E+0	1.245081E+0	1.275704E+0	1.315259E+0	1.324917E+0	1.139656E+0	1.250478E+0	1.288382E+0	1.341224E+0	1.206593E+0	1.272098E+0	1.204986E+0	1.326298E+0	1.269928E+0	1.327956E+0	1.248798E+0	1.307553E+0	1.195213E+0	1.280523E+0	1.272183E+0	1.338596E+0	1.097184E+0	1.173361E+0	1.317170E+0	1.304051E+0	1.148250E+0	1.187100E+0	1.307911E+0	1.280955E+0	1.330932E+0	1.295836E+0	1.295717E+0	1.141055E+0	1.210217E+0	1.251643E+0	1.328867E+0	1.311297E+0	1.123964E+0	1.189376E+0	1.357484E+0	1.178608E+0	1.157996E+0	1.205103E+0	1.254305E+0	1.308745E+0	1.199974E+0	1.277246E+0	1.259719E+0	1.304948E+0	1.211319E+0	1.232445E+0	1.319578E+0	1.301715E+0	1.095038E+0	1.052714E+0	1.287968E+0	1.296348E+0
5.475120E+2	1.366999E+0	1.405133E+0	1.409542E+0	1.394134E+0	1.432040E+0	1.439642E+0	1.415502E+0	1.242400E+0	1.300316E+0	1.418115E+0	1.423725E+0	1.322879E+0	1.252840E+0	1.429780E+0	1.448564E+0	1.396087E+0	1.330497E+0	1.333413E+0	1.473771E+0	1.289387E+0	1.383396E+0	1.443120E+0	1.395356E+0	1.195746E+0	1.375972E+0	1.409119E+0	1.338935E+0	1.241996E+0	1.276930E+0	1.439100E+0	1.395034E+0	1.385468E+0	1.302884E+0	1.435284E+0	1.354260E+0	1.393903E+0	1.368607E+0	1.437511E+0	1.303365E+0	1.290955E+0	1.361255E+0	1.440113E+0	1.334944E+0	1.309106E+0	1.301826E+0	1.466928E+0	1.382410E+0	1.352622E+0	1.368598E+0	1.400918E+0	1.326505E+0	1.327045E+0	1.428426E+0	1.371465E+0	1.258988E+0	1.259692E+0	1.452532E+0	1.404812E+0	1.323125E+0	1.299816E+0	1.298957E+0	1.421015E+0	1.335864E+0	1.364623E+0	1.354323E+0	1.454937E+0	1.285167E+0	1.345394E+0	1.431541E+0	1.419049E+0	1.190712E+0	1.259618E+0	1.425253E+0	1.465095E+0	1.249531E+0	1.138318E+0	1.407649E+0	1.367077E+0	1.392569E+0	1.367705E+0	1.352064E+0	1.404521E+0	1.407261E+0	1.334798E+0	1.361130E+0	1.418910E+0	1.301834E+0	1.253873E+0	1.414590E+0	1.430949E+0	1.374846E+0	1.262152E+0	1.289219E+0	1.381389E+0	1.390719E+0	1.314591E+0	1.315168E+0	1.383167E+0	1.308867E+0	1.308094E+0	1.358836E+0	1.421015E+0	1.196420E+0	1.159113E+0	1.333653E+0	1.425813E+0	1.224501E+0	1.222200E+0	1.314037E+0	1.377486E+0	1.337289E+0	1.341732E+0	1.403442E+0	1.349605E+0	1.302470E+0	1.386284E+0	1.379981E+0	1.401428E+0	1.171623E+0	1.323924E+0	1.376479E+0	1.401341E+0	1.265387E+0	1.348942E+0	1.314845E+0	1.417668E+0	1.303982E+0	1.436311E+0	1.365357E+0	1.406349E+0	1.284320E+0	1.328198E+0	1.416179E+0	1.392261E+0	1.208773E+0	1.217132E+0	1.456541E+0	1.380152E+0	1.216365E+0	1.299088E+0	1.326165E+0	1.402285E+0	1.292260E+0	1.351315E+0	1.391275E+0	1.193509E+0	1.290303E+0	1.358829E+0	1.404780E+0	1.397235E+0	1.179567E+0	1.249301E+0	1.409220E+0	1.229754E+0	1.251146E+0	1.234066E+0	1.395845E+0	1.368498E+0	1.267072E+0	1.365586E+0	1.295944E+0	1.335791E+0	1.308428E+0	1.312783E+0	1.341753E+0	1.346683E+0	1.168643E+0	1.185400E+0	1.311514E+0	1.398036E+0
5.482660E+2	1.485018E+0	1.513319E+0	1.513379E+0	1.458991E+0	1.492755E+0	1.511130E+0	1.504161E+0	1.337909E+0	1.393470E+0	1.448549E+0	1.507618E+0	1.367371E+0	1.360565E+0	1.483877E+0	1.527005E+0	1.432609E+0	1.379629E+0	1.491788E+0	1.512812E+0	1.399467E+0	1.396489E+0	1.523770E+0	1.484533E+0	1.267888E+0	1.404148E+0	1.510755E+0	1.477419E+0	1.271443E+0	1.290344E+0	1.467642E+0	1.442725E+0	1.371618E+0	1.392098E+0	1.477163E+0	1.416428E+0	1.439890E+0	1.469761E+0	1.458830E+0	1.448295E+0	1.372327E+0	1.478991E+0	1.489734E+0	1.517196E+0	1.348389E+0	1.358600E+0	1.560882E+0	1.426647E+0	1.452212E+0	1.365454E+0	1.450746E+0	1.476098E+0	1.398058E+0	1.426864E+0	1.423475E+0	1.490309E+0	1.336313E+0	1.461245E+0	1.529113E+0	1.464071E+0	1.351413E+0	1.326155E+0	1.498423E+0	1.498976E+0	1.399449E+0	1.421623E+0	1.420601E+0	1.426034E+0	1.428307E+0	1.400860E+0	1.475399E+0	1.374622E+0	1.263400E+0	1.499703E+0	1.488652E+0	1.402221E+0	1.235213E+0	1.452014E+0	1.404759E+0	1.463706E+0	1.365626E+0	1.430969E+0	1.518235E+0	1.449543E+0	1.378054E+0	1.436281E+0	1.452349E+0	1.385109E+0	1.285296E+0	1.472128E+0	1.502241E+0	1.378955E+0	1.298005E+0	1.389759E+0	1.490285E+0	1.468046E+0	1.403635E+0	1.421242E+0	1.440489E+0	1.371950E+0	1.342395E+0	1.454361E+0	1.474640E+0	1.245899E+0	1.163086E+0	1.429413E+0	1.533835E+0	1.310475E+0	1.267848E+0	1.371925E+0	1.492844E+0	1.412464E+0	1.425578E+0	1.411584E+0	1.403923E+0	1.398119E+0	1.455240E+0	1.459561E+0	1.447844E+0	1.246545E+0	1.394629E+0	1.434343E+0	1.454776E+0	1.260744E+0	1.429276E+0	1.382177E+0	1.485926E+0	1.408122E+0	1.465136E+0	1.400804E+0	1.481213E+0	1.316444E+0	1.385755E+0	1.428605E+0	1.487668E+0	1.257889E+0	1.277622E+0	1.487913E+0	1.498986E+0	1.348866E+0	1.329633E+0	1.464371E+0	1.429885E+0	1.416527E+0	1.410493E+0	1.432147E+0	1.269338E+0	1.405608E+0	1.414772E+0	1.471203E+0	1.373798E+0	1.233182E+0	1.333984E+0	1.411445E+0	1.360527E+0	1.282196E+0	1.337504E+0	1.376730E+0	1.482931E+0	1.375852E+0	1.408141E+0	1.395288E+0	1.432397E+0	1.367537E+0	1.424067E+0	1.441782E+0	1.475242E+0	1.202795E+0	1.181794E+0	1.466917E+0	1.568208E+0
5.490540E+2	1.447585E+0	1.455341E+0	1.434462E+0	1.371749E+0	1.451909E+0	1.476135E+0	1.418017E+0	1.265030E+0	1.343269E+0	1.494732E+0	1.437912E+0	1.347874E+0	1.300720E+0	1.478078E+0	1.448562E+0	1.413482E+0	1.380171E+0	1.468771E+0	1.426617E+0	1.370441E+0	1.434629E+0	1.464992E+0	1.451281E+0	1.211049E+0	1.359953E+0	1.385780E+0	1.447474E+0	1.260340E+0	1.273227E+0	1.346723E+0	1.442158E+0	1.373350E+0	1.343390E+0	1.400045E+0	1.409277E+0	1.412186E+0	1.363230E+0	1.480151E+0	1.429414E+0	1.321095E+0	1.381237E+0	1.461062E+0	1.492194E+0	1.357793E+0	1.328150E+0	1.444150E+0	1.433116E+0	1.432685E+0	1.348157E+0	1.417526E+0	1.434545E+0	1.349954E+0	1.453369E+0	1.414066E+0	1.454022E+0	1.297088E+0	1.401341E+0	1.464164E+0	1.494344E+0	1.301481E+0	1.342774E+0	1.461109E+0	1.425227E+0	1.404285E+0	1.371028E+0	1.380894E+0	1.395933E+0	1.418408E+0	1.400862E+0	1.460304E+0	1.383693E+0	1.288468E+0	1.443207E+0	1.447287E+0	1.375530E+0	1.273863E+0	1.370771E+0	1.400050E+0	1.471276E+0	1.362499E+0	1.381507E+0	1.468069E+0	1.419006E+0	1.340208E+0	1.393913E+0	1.467321E+0	1.479114E+0	1.278658E+0	1.436682E+0	1.477425E+0	1.415360E+0	1.255730E+0	1.355765E+0	1.453477E+0	1.404366E+0	1.422862E+0	1.322662E+0	1.471706E+0	1.416586E+0	1.388728E+0	1.404031E+0	1.424396E+0	1.360683E+0	1.172527E+0	1.434226E+0	1.477863E+0	1.359608E+0	1.259887E+0	1.419568E+0	1.448273E+0	1.454716E+0	1.361619E+0	1.422443E+0	1.344812E+0	1.360954E+0	1.441573E+0	1.460999E+0	1.425913E+0	1.270022E+0	1.383667E+0	1.343115E+0	1.403394E+0	1.324176E+0	1.369316E+0	1.349269E+0	1.477329E+0	1.373576E+0	1.513176E+0	1.368363E+0	1.471392E+0	1.323699E+0	1.367150E+0	1.397014E+0	1.431519E+0	1.206861E+0	1.294344E+0	1.430596E+0	1.458007E+0	1.282883E+0	1.280990E+0	1.357979E+0	1.376410E+0	1.377338E+0	1.346031E+0	1.355011E+0	1.252234E+0	1.411857E+0	1.423019E+0	1.356332E+0	1.412262E+0	1.188007E+0	1.326555E+0	1.412558E+0	1.329142E+0	1.272525E+0	1.316817E+0	1.382931E+0	1.420356E+0	1.365176E+0	1.381746E+0	1.394738E+0	1.427741E+0	1.344844E+0	1.357415E+0	1.400262E+0	1.432919E+0	1.221049E+0	1.145738E+0	1.375087E+0	1.373132E+0
5.497960E+2	1.422110E+0	1.452352E+0	1.465316E+0	1.361993E+0	1.433145E+0	1.469138E+0	1.451972E+0	1.266388E+0	1.336573E+0	1.434909E+0	1.469991E+0	1.344877E+0	1.282763E+0	1.442339E+0	1.462344E+0	1.439564E+0	1.293780E+0	1.444112E+0	1.428138E+0	1.402204E+0	1.414705E+0	1.418061E+0	1.473448E+0	1.265267E+0	1.386469E+0	1.448511E+0	1.411117E+0	1.222201E+0	1.247320E+0	1.490995E+0	1.454647E+0	1.345212E+0	1.361233E+0	1.405662E+0	1.413129E+0	1.423268E+0	1.377403E+0	1.433341E+0	1.452546E+0	1.305592E+0	1.476294E+0	1.409235E+0	1.434963E+0	1.308554E+0	1.349827E+0	1.449843E+0	1.409924E+0	1.390213E+0	1.384320E+0	1.391754E+0	1.428314E+0	1.368850E+0	1.415431E+0	1.446262E+0	1.484259E+0	1.301651E+0	1.445999E+0	1.454650E+0	1.489125E+0	1.283171E+0	1.277302E+0	1.421014E+0	1.425764E+0	1.404284E+0	1.372010E+0	1.394847E+0	1.432656E+0	1.387468E+0	1.408283E+0	1.456281E+0	1.399313E+0	1.273805E+0	1.358724E+0	1.465096E+0	1.429447E+0	1.321220E+0	1.400703E+0	1.409994E+0	1.431418E+0	1.418687E+0	1.465709E+0	1.329827E+0	1.414311E+0	1.332637E+0	1.398958E+0	1.452347E+0	1.475538E+0	1.242809E+0	1.394041E+0	1.412992E+0	1.453524E+0	1.265362E+0	1.328476E+0	1.393148E+0	1.422559E+0	1.359618E+0	1.367053E+0	1.451273E+0	1.412419E+0	1.341791E+0	1.470794E+0	1.359661E+0	1.363652E+0	1.201834E+0	1.424064E+0	1.436447E+0	1.388979E+0	1.200436E+0	1.394979E+0	1.483927E+0	1.439348E+0	1.365918E+0	1.386062E+0	1.379960E+0	1.423263E+0	1.415481E+0	1.420249E+0	1.376945E+0	1.439347E+0	1.315705E+0	1.417139E+0	1.403396E+0	1.444335E+0	1.407156E+0	1.347245E+0	1.419279E+0	1.418490E+0	1.412291E+0	1.348532E+0	1.431507E+0	1.373950E+0	1.368894E+0	1.374739E+0	1.425058E+0	1.354216E+0	1.271721E+0	1.392585E+0	1.418788E+0	1.366427E+0	1.295696E+0	1.417435E+0	1.378133E+0	1.425294E+0	1.302704E+0	1.395307E+0	1.228857E+0	1.384592E+0	1.360005E+0	1.374813E+0	1.387622E+0	1.239637E+0	1.313184E+0	1.414783E+0	1.311127E+0	1.323935E+0	1.295538E+0	1.399975E+0	1.373568E+0	1.339761E+0	1.365048E+0	1.366196E+0	1.381764E+0	1.333762E+0	1.326470E+0	1.389879E+0	1.399058E+0	1.242247E+0	1.190447E+0	1.402165E+0	1.425015E+0
5.505110E+2	1.387277E+0	1.406327E+0	1.397081E+0	1.366009E+0	1.477850E+0	1.432644E+0	1.409214E+0	1.240135E+0	1.308127E+0	1.458523E+0	1.442848E+0	1.306885E+0	1.278159E+0	1.418185E+0	1.405101E+0	1.412176E+0	1.309977E+0	1.371774E+0	1.422558E+0	1.362774E+0	1.370874E+0	1.424438E+0	1.442212E+0	1.233347E+0	1.338961E+0	1.433434E+0	1.359788E+0	1.129518E+0	1.252870E+0	1.443769E+0	1.441020E+0	1.340886E+0	1.314458E+0	1.435282E+0	1.363063E+0	1.370629E+0	1.373490E+0	1.432875E+0	1.453963E+0	1.265124E+0	1.387717E+0	1.411992E+0	1.366615E+0	1.285870E+0	1.290472E+0	1.407137E+0	1.440132E+0	1.401441E+0	1.381177E+0	1.404925E+0	1.351957E+0	1.390613E+0	1.390481E+0	1.395735E+0	1.432857E+0	1.250571E+0	1.358868E+0	1.394738E+0	1.388379E+0	1.275961E+0	1.301475E+0	1.436606E+0	1.348783E+0	1.422663E+0	1.315027E+0	1.420599E+0	1.381486E+0	1.327450E+0	1.381068E+0	1.401439E+0	1.384195E+0	1.223670E+0	1.375620E+0	1.389830E+0	1.373927E+0	1.271140E+0	1.366496E+0	1.347714E+0	1.412247E+0	1.379670E+0	1.406827E+0	1.406194E+0	1.423705E+0	1.380219E+0	1.355583E+0	1.467317E+0	1.404523E+0	1.183501E+0	1.376574E+0	1.472142E+0	1.422994E+0	1.207570E+0	1.294963E+0	1.406953E+0	1.415739E+0	1.337356E+0	1.334768E+0	1.445600E+0	1.388611E+0	1.269582E+0	1.388111E+0	1.435992E+0	1.393335E+0	1.165074E+0	1.356124E+0	1.421895E+0	1.397523E+0	1.249802E+0	1.346313E+0	1.467673E+0	1.382283E+0	1.380431E+0	1.397466E+0	1.348540E+0	1.392107E+0	1.388147E+0	1.408264E+0	1.414181E+0	1.437347E+0	1.338724E+0	1.343638E+0	1.409048E+0	1.389157E+0	1.429277E+0	1.285480E+0	1.408532E+0	1.366663E+0	1.417629E+0	1.323300E+0	1.378736E+0	1.412808E+0	1.308430E+0	1.374739E+0	1.433008E+0	1.410961E+0	1.299263E+0	1.356387E+0	1.393030E+0	1.386648E+0	1.282121E+0	1.381967E+0	1.399985E+0	1.404154E+0	1.308520E+0	1.346375E+0	1.232848E+0	1.422079E+0	1.398872E+0	1.439740E+0	1.361177E+0	1.397506E+0	1.287928E+0	1.379738E+0	1.280320E+0	1.399774E+0	1.255935E+0	1.345219E+0	1.362297E+0	1.396694E+0	1.351582E+0	1.332719E+0	1.381185E+0	1.387067E+0	1.330636E+0	1.343642E+0	1.402763E+0	1.311142E+0	1.183957E+0	1.326819E+0	1.358606E+0
5.512510E+2	1.372199E+0	1.399155E+0	1.376313E+0	1.295989E+0	1.410515E+0	1.349153E+0	1.407956E+0	1.207090E+0	1.288047E+0	1.410239E+0	1.414471E+0	1.274892E+0	1.234424E+0	1.372300E+0	1.352097E+0	1.347399E+0	1.281901E+0	1.355880E+0	1.326226E+0	1.291031E+0	1.331594E+0	1.342875E+0	1.400898E+0	1.164705E+0	1.337303E+0	1.345903E+0	1.406308E+0	1.188410E+0	1.245933E+0	1.320775E+0	1.361537E+0	1.313182E+0	1.276362E+0	1.394936E+0	1.351507E+0	1.299707E+0	1.330975E+0	1.381427E+0	1.400144E+0	1.251775E+0	1.329930E+0	1.404273E+0	1.352724E+0	1.294168E+0	1.263635E+0	1.446996E+0	1.367846E+0	1.341881E+0	1.348159E+0	1.340777E+0	1.378447E+0	1.272071E+0	1.378528E+0	1.348678E+0	1.361795E+0	1.228220E+0	1.365949E+0	1.426648E+0	1.386287E+0	1.222699E+0	1.249601E+0	1.414887E+0	1.375161E+0	1.325450E+0	1.282606E+0	1.350850E+0	1.351387E+0	1.376949E+0	1.319709E+0	1.387351E+0	1.365047E+0	1.170227E+0	1.371398E+0	1.363401E+0	1.353640E+0	1.254264E+0	1.375047E+0	1.321024E+0	1.409220E+0	1.308396E+0	1.278460E+0	1.339304E+0	1.334444E+0	1.266130E+0	1.314224E+0	1.389967E+0	1.367738E+0	1.197665E+0	1.334447E+0	1.411410E+0	1.352534E+0	1.248240E+0	1.272461E+0	1.375766E+0	1.415168E+0	1.261466E+0	1.326121E+0	1.315059E+0	1.364807E+0	1.268378E+0	1.376298E+0	1.355798E+0	1.355735E+0	1.126327E+0	1.352377E+0	1.344658E+0	1.402327E+0	1.188226E+0	1.328381E+0	1.382727E+0	1.354849E+0	1.301418E+0	1.321988E+0	1.286767E+0	1.341277E+0	1.408648E+0	1.356489E+0	1.364703E+0	1.374413E+0	1.263087E+0	1.338943E+0	1.316562E+0	1.368013E+0	1.307609E+0	1.257129E+0	1.370910E+0	1.373576E+0	1.384001E+0	1.298066E+0	1.386713E+0	1.374470E+0	1.292151E+0	1.364901E+0	1.354497E+0	1.390454E+0	1.199427E+0	1.344924E+0	1.345614E+0	1.368022E+0	1.168435E+0	1.300608E+0	1.347657E+0	1.355168E+0	1.304292E+0	1.349254E+0	1.191798E+0	1.398792E+0	1.256355E+0	1.314881E+0	1.353966E+0	1.342402E+0	1.249297E+0	1.329667E+0	1.294851E+0	1.382977E+0	1.225791E+0	1.279615E+0	1.354969E+0	1.328579E+0	1.318184E+0	1.329425E+0	1.349176E+0	1.404484E+0	1.286599E+0	1.386107E+0	1.362553E+0	1.370614E+0	1.112567E+0	1.297386E+0	1.333702E+0
5.520210E+2	1.348803E+0	1.326831E+0	1.379278E+0	1.277048E+0	1.344284E+0	1.235668E+0	1.339418E+0	1.153678E+0	1.213302E+0	1.350937E+0	1.337363E+0	1.257893E+0	1.203578E+0	1.324966E+0	1.329305E+0	1.295230E+0	1.219807E+0	1.326289E+0	1.363236E+0	1.250503E+0	1.311103E+0	1.292758E+0	1.346484E+0	1.155521E+0	1.266595E+0	1.359517E+0	1.285467E+0	1.098139E+0	1.112232E+0	1.291711E+0	1.359268E+0	1.276387E+0	1.229587E+0	1.304541E+0	1.316296E+0	1.287515E+0	1.304099E+0	1.354078E+0	1.352466E+0	1.202264E+0	1.333172E+0	1.332042E+0	1.363282E+0	1.257654E+0	1.177442E+0	1.305210E+0	1.324688E+0	1.274021E+0	1.281074E+0	1.274915E+0	1.316637E+0	1.292688E+0	1.296408E+0	1.323414E+0	1.296281E+0	1.194014E+0	1.307133E+0	1.287794E+0	1.295460E+0	1.203836E+0	1.236004E+0	1.314089E+0	1.304103E+0	1.302233E+0	1.220709E+0	1.295585E+0	1.299615E+0	1.196890E+0	1.304368E+0	1.310878E+0	1.318691E+0	1.205698E+0	1.376150E+0	1.335824E+0	1.284235E+0	1.234124E+0	1.288995E+0	1.313174E+0	1.317902E+0	1.321404E+0	1.306136E+0	1.327597E+0	1.332092E+0	1.209898E+0	1.325321E+0	1.326584E+0	1.332997E+0	1.162255E+0	1.300026E+0	1.329021E+0	1.302037E+0	1.167437E+0	1.216926E+0	1.309814E+0	1.324767E+0	1.262985E+0	1.228694E+0	1.361598E+0	1.316009E+0	1.217832E+0	1.309017E+0	1.302657E+0	1.330503E+0	1.085592E+0	1.287113E+0	1.342420E+0	1.293388E+0	1.138330E+0	1.261784E+0	1.302502E+0	1.236328E+0	1.263259E+0	1.306245E+0	1.283042E+0	1.289352E+0	1.293099E+0	1.300399E+0	1.317775E+0	1.314477E+0	1.259249E+0	1.280038E+0	1.309882E+0	1.350994E+0	1.242408E+0	1.230299E+0	1.302113E+0	1.293618E+0	1.276711E+0	1.233177E+0	1.353576E+0	1.290020E+0	1.291570E+0	1.357649E+0	1.331143E+0	1.312250E+0	1.189593E+0	1.349750E+0	1.386589E+0	1.327579E+0	1.189928E+0	1.232289E+0	1.348808E+0	1.344340E+0	1.254095E+0	1.337165E+0	1.095443E+0	1.318704E+0	1.193342E+0	1.290412E+0	1.334133E+0	1.314603E+0	1.206709E+0	1.271813E+0	1.175120E+0	1.291865E+0	1.226973E+0	1.269801E+0	1.283940E+0	1.279269E+0	1.235770E+0	1.303080E+0	1.274685E+0	1.295235E+0	1.233635E+0	1.275223E+0	1.337690E+0	1.283466E+0	1.045503E+0	1.296209E+0	1.321251E+0
5.527590E+2	1.183474E+0	1.225818E+0	1.305703E+0	1.198416E+0	1.269226E+0	1.290660E+0	1.293517E+0	1.143268E+0	1.209955E+0	1.291110E+0	1.282462E+0	1.158414E+0	1.149717E+0	1.303232E+0	1.301215E+0	1.240454E+0	1.183093E+0	1.232028E+0	1.300366E+0	1.185330E+0	1.280361E+0	1.287743E+0	1.281993E+0	1.080756E+0	1.146721E+0	1.211197E+0	1.274238E+0	1.074003E+0	1.089565E+0	1.243968E+0	1.262751E+0	1.217515E+0	1.198242E+0	1.275429E+0	1.227167E+0	1.228229E+0	1.211743E+0	1.260911E+0	1.301951E+0	1.158349E+0	1.271063E+0	1.287932E+0	1.282714E+0	1.189049E+0	1.193443E+0	1.268767E+0	1.251866E+0	1.211046E+0	1.205082E+0	1.233104E+0	1.252748E+0	1.201634E+0	1.240276E+0	1.249113E+0	1.248403E+0	1.154335E+0	1.211835E+0	1.276596E+0	1.325212E+0	1.169992E+0	1.190676E+0	1.241693E+0	1.275571E+0	1.240811E+0	1.200080E+0	1.226907E+0	1.262893E+0	1.186371E+0	1.239051E+0	1.282700E+0	1.245634E+0	1.105899E+0	1.260515E+0	1.329503E+0	1.296514E+0	1.160637E+0	1.276702E+0	1.262406E+0	1.251303E+0	1.150245E+0	1.242541E+0	1.248444E+0	1.276304E+0	1.196921E+0	1.265300E+0	1.271188E+0	1.256876E+0	1.059572E+0	1.250192E+0	1.294692E+0	1.301451E+0	1.089846E+0	1.185326E+0	1.237220E+0	1.271320E+0	1.160279E+0	1.222353E+0	1.250355E+0	1.261258E+0	1.173303E+0	1.281285E+0	1.210872E+0	1.244911E+0	1.064728E+0	1.269994E+0	1.323950E+0	1.251736E+0	1.096927E+0	1.161374E+0	1.284673E+0	1.259373E+0	1.200373E+0	1.253030E+0	1.231385E+0	1.182772E+0	1.245264E+0	1.259647E+0	1.269321E+0	1.289502E+0	1.254318E+0	1.246677E+0	1.276997E+0	1.281373E+0	1.275008E+0	1.215617E+0	1.279538E+0	1.273383E+0	1.284184E+0	1.213351E+0	1.289756E+0	1.258938E+0	1.157849E+0	1.283060E+0	1.287911E+0	1.266471E+0	1.156149E+0	1.233911E+0	1.300539E+0	1.264255E+0	1.108482E+0	1.227597E+0	1.220578E+0	1.244821E+0	1.218695E+0	1.310684E+0	1.097154E+0	1.255089E+0	1.205119E+0	1.276427E+0	1.238582E+0	1.247082E+0	1.129454E+0	1.177240E+0	1.124555E+0	1.319354E+0	1.092799E+0	1.233127E+0	1.248991E+0	1.260465E+0	1.251391E+0	1.192759E+0	1.218817E+0	1.268846E+0	1.192573E+0	1.225682E+0	1.302244E+0	1.242247E+0	1.062809E+0	1.157287E+0	1.387659E+0
5.535490E+2	1.215708E+0	1.169034E+0	1.239246E+0	1.186937E+0	1.222312E+0	1.227668E+0	1.224980E+0	1.159109E+0	1.131305E+0	1.221311E+0	1.205354E+0	1.169913E+0	1.139586E+0	1.204216E+0	1.207400E+0	1.226977E+0	1.143678E+0	1.223809E+0	1.184762E+0	1.104823E+0	1.234251E+0	1.178387E+0	1.227579E+0	1.044903E+0	1.146169E+0	1.243780E+0	1.197246E+0	1.044073E+0	1.078461E+0	1.221134E+0	1.250260E+0	1.165139E+0	1.136035E+0	1.233038E+0	1.249176E+0	1.152873E+0	1.179488E+0	1.199729E+0	1.186759E+0	1.145865E+0	1.225697E+0	1.232792E+0	1.221592E+0	1.130957E+0	1.149571E+0	1.222644E+0	1.223275E+0	1.193960E+0	1.198790E+0	1.155785E+0	1.205481E+0	1.224539E+0	1.220007E+0	1.185708E+0	1.232279E+0	1.064945E+0	1.173716E+0	1.243563E+0	1.229685E+0	1.097868E+0	1.142830E+0	1.189902E+0	1.196436E+0	1.224365E+0	1.130325E+0	1.225296E+0	1.193061E+0	1.183896E+0	1.215300E+0	1.270125E+0	1.218424E+0	1.069479E+0	1.212998E+0	1.258834E+0	1.228713E+0	1.082795E+0	1.175684E+0	1.201176E+0	1.183192E+0	1.172615E+0	1.164816E+0	1.233394E+0	1.303319E+0	1.160693E+0	1.204774E+0	1.261707E+0	1.220091E+0	1.053819E+0	1.233239E+0	1.237127E+0	1.254477E+0	1.100013E+0	1.118780E+0	1.212169E+0	1.222993E+0	1.150668E+0	1.124349E+0	1.226518E+0	1.169609E+0	1.111925E+0	1.182680E+0	1.174154E+0	1.275086E+0	1.017039E+0	1.199379E+0	1.187385E+0	1.280574E+0	1.034291E+0	1.155226E+0	1.203923E+0	1.246754E+0	1.128350E+0	1.166154E+0	1.185586E+0	1.185505E+0	1.155184E+0	1.184859E+0	1.194337E+0	1.233559E+0	1.177583E+0	1.214356E+0	1.201466E+0	1.234959E+0	1.167310E+0	1.132591E+0	1.195693E+0	1.200830E+0	1.227603E+0	1.177301E+0	1.239440E+0	1.188996E+0	1.115407E+0	1.232820E+0	1.237227E+0	1.263611E+0	1.108443E+0	1.251408E+0	1.224438E+0	1.205722E+0	1.093211E+0	1.213513E+0	1.183202E+0	1.210789E+0	1.159516E+0	1.191523E+0	1.233988E+0	1.213057E+0	1.178030E+0	1.186034E+0	1.236780E+0	1.189495E+0	1.082406E+0	1.134960E+0	1.100725E+0	1.165632E+0	1.111122E+0	1.162356E+0	1.196565E+0	1.168966E+0	1.209915E+0	1.132384E+0	1.213579E+0	1.158014E+0	1.122352E+0	1.141692E+0	1.205957E+0	1.163343E+0	1.028196E+0	1.212621E+0	1.190509E+0
5.542580E+2	1.143961E+0	1.171425E+0	1.120572E+0	1.139872E+0	1.122967E+0	1.162678E+0	1.159585E+0	1.124707E+0	1.117360E+0	1.166206E+0	1.204121E+0	1.199907E+0	1.095390E+0	1.160744E+0	1.171887E+0	1.184805E+0	1.055128E+0	1.132839E+0	1.161438E+0	1.113586E+0	1.110152E+0	1.124166E+0	1.153517E+0	1.117484E+0	1.121310E+0	1.127557E+0	1.141638E+0	1.111656E+0	1.009993E+0	1.138616E+0	1.106054E+0	1.149989E+0	1.061773E+0	1.118639E+0	1.116582E+0	1.116303E+0	1.105700E+0	1.132982E+0	1.204699E+0	1.111424E+0	1.176550E+0	1.169935E+0	1.176030E+0	1.051287E+0	1.038606E+0	1.136661E+0	1.126175E+0	1.139281E+0	1.075628E+0	1.121993E+0	1.105753E+0	1.109436E+0	1.062005E+0	1.146574E+0	1.186922E+0	1.077260E+0	1.129062E+0	1.141097E+0	1.171219E+0	1.083442E+0	1.091460E+0	1.158158E+0	1.143141E+0	1.188576E+0	1.076779E+0	1.124425E+0	1.114801E+0	1.137489E+0	1.108417E+0	1.195665E+0	1.231022E+0	9.848171E-1	1.154388E+0	1.142200E+0	1.168919E+0	1.033804E+0	1.101392E+0	1.154074E+0	1.095910E+0	1.104464E+0	1.136551E+0	1.175421E+0	1.152393E+0	1.099596E+0	1.118526E+0	1.139936E+0	1.134261E+0	1.007347E+0	1.167480E+0	1.174282E+0	1.155246E+0	9.951308E-1	1.077128E+0	1.166666E+0	1.168411E+0	1.132454E+0	1.075924E+0	1.187922E+0	1.144614E+0	1.070405E+0	1.157515E+0	1.151932E+0	1.171683E+0	9.708405E-1	1.135719E+0	1.153803E+0	1.143330E+0	1.039067E+0	1.162398E+0	1.152011E+0	1.143597E+0	1.122976E+0	1.139005E+0	1.119553E+0	1.122103E+0	1.071318E+0	1.155615E+0	1.163733E+0	1.196598E+0	1.075637E+0	1.106970E+0	1.137754E+0	1.159665E+0	1.121902E+0	1.129552E+0	1.179031E+0	1.150979E+0	1.142198E+0	1.105203E+0	1.189122E+0	1.163611E+0	1.082268E+0	1.195010E+0	1.159707E+0	1.158223E+0	1.002705E+0	1.178405E+0	1.143069E+0	1.173262E+0	1.037216E+0	1.130591E+0	1.171127E+0	1.116430E+0	1.095583E+0	1.148923E+0	1.164430E+0	1.160800E+0	1.092048E+0	1.083653E+0	1.159255E+0	1.153255E+0	1.054674E+0	1.142748E+0	1.037372E+0	1.157488E+0	1.053788E+0	1.107601E+0	1.138503E+0	1.145074E+0	1.117265E+0	1.059386E+0	1.126285E+0	1.150098E+0	1.157462E+0	1.129426E+0	1.123955E+0	1.130368E+0	9.193064E-1	1.137272E+0	1.153153E+0
5.550190E+2	1.041021E+0	1.058456E+0	1.045215E+0	1.097974E+0	1.063360E+0	1.094187E+0	1.071556E+0	1.075820E+0	1.002454E+0	1.032905E+0	1.083832E+0	1.103427E+0	9.812169E-1	1.089259E+0	1.096093E+0	1.094380E+0	9.951944E-1	1.084614E+0	1.135074E+0	1.075797E+0	1.025901E+0	1.079967E+0	1.085500E+0	1.081195E+0	9.865212E-1	1.059473E+0	1.063039E+0	1.045522E+0	9.322710E-1	1.087239E+0	1.058364E+0	1.079865E+0	1.014033E+0	1.091571E+0	1.049461E+0	1.032635E+0	1.024580E+0	1.061601E+0	1.043715E+0	1.085160E+0	1.071776E+0	1.034296E+0	1.079902E+0	1.051288E+0	1.000413E+0	1.107052E+0	1.045799E+0	1.069470E+0	9.807654E-1	1.028637E+0	1.082899E+0	1.048161E+0	1.055249E+0	1.048990E+0	1.068993E+0	1.099607E+0	1.038664E+0	1.071109E+0	1.061075E+0	1.078450E+0	1.031024E+0	1.108594E+0	1.020941E+0	1.058473E+0	9.741119E-1	1.057894E+0	1.059417E+0	1.031681E+0	1.086150E+0	1.077933E+0	1.057189E+0	1.060021E+0	1.077300E+0	1.092789E+0	1.041856E+0	1.022373E+0	1.056495E+0	1.061965E+0	1.045458E+0	1.059724E+0	1.041749E+0	1.118007E+0	1.099540E+0	9.660447E-1	1.091291E+0	1.115481E+0	1.066825E+0	9.896431E-1	1.077575E+0	1.083971E+0	1.030180E+0	9.865687E-1	1.023028E+0	1.083845E+0	1.045599E+0	1.024184E+0	1.022310E+0	1.038084E+0	1.077366E+0	9.717184E-1	1.079964E+0	1.064492E+0	1.096974E+0	8.486364E-1	1.044241E+0	1.067051E+0	1.033856E+0	9.520144E-1	1.048156E+0	1.053432E+0	1.037696E+0	1.034829E+0	1.003258E+0	1.029023E+0	1.034652E+0	1.026589E+0	1.076036E+0	1.052538E+0	1.081217E+0	9.857497E-1	1.079341E+0	1.082775E+0	1.082824E+0	1.052044E+0	9.933677E-1	1.092499E+0	1.050294E+0	1.090956E+0	1.021089E+0	1.113032E+0	1.045488E+0	1.021802E+0	1.076917E+0	1.068275E+0	1.105291E+0	9.933611E-1	1.090319E+0	1.105019E+0	1.154638E+0	9.783939E-1	1.027328E+0	1.063597E+0	1.083429E+0	1.032178E+0	1.053939E+0	1.100574E+0	1.111385E+0	1.047879E+0	1.060180E+0	1.063702E+0	1.050489E+0	1.023969E+0	1.044838E+0	9.263603E-1	1.031253E+0	9.408923E-1	1.065242E+0	1.031962E+0	1.082551E+0	9.933747E-1	1.001208E+0	1.039573E+0	1.045599E+0	1.018210E+0	1.005332E+0	1.094858E+0	1.067952E+0	9.012789E-1	1.050152E+0	1.111650E+0
5.557600E+2	9.625149E-1	1.009444E+0	1.019699E+0	9.831832E-1	9.595998E-1	1.018698E+0	9.847834E-1	1.018333E+0	9.215737E-1	9.966936E-1	1.040035E+0	9.799540E-1	8.937452E-1	9.945905E-1	9.964490E-1	1.020910E+0	9.250032E-1	1.007891E+0	1.022005E+0	9.668119E-1	9.507587E-1	9.956713E-1	9.993449E-1	1.050587E+0	9.798919E-1	9.578382E-1	9.828364E-1	9.904900E-1	8.975744E-1	1.009912E+0	9.612803E-1	1.018398E+0	9.378414E-1	9.495918E-1	9.878413E-1	1.079179E+0	9.889073E-1	9.925367E-1	9.969785E-1	9.981924E-1	9.842844E-1	1.016100E+0	9.693288E-1	9.732773E-1	8.904790E-1	9.937360E-1	1.024761E+0	9.562090E-1	9.377895E-1	1.014318E+0	1.041865E+0	1.001203E+0	9.346686E-1	1.002427E+0	1.034219E+0	1.002007E+0	9.400982E-1	9.910414E-1	9.817300E-1	9.891257E-1	9.156912E-1	1.019491E+0	9.945629E-1	9.583577E-1	9.259715E-1	9.597052E-1	9.612918E-1	1.013737E+0	9.733285E-1	1.035671E+0	1.033507E+0	1.000426E+0	1.008659E+0	1.016375E+0	9.922054E-1	1.008764E+0	9.410462E-1	9.688082E-1	9.682650E-1	9.889710E-1	9.263367E-1	9.842250E-1	1.009103E+0	9.930787E-1	1.002522E+0	1.035633E+0	1.006029E+0	9.564488E-1	9.779090E-1	9.820437E-1	9.679406E-1	9.769363E-1	8.928057E-1	9.708591E-1	9.927219E-1	9.487991E-1	9.531313E-1	9.773543E-1	1.017853E+0	9.705150E-1	9.916284E-1	1.019082E+0	1.014348E+0	9.340795E-1	9.345745E-1	1.005485E+0	9.900673E-1	9.329053E-1	9.841188E-1	9.941796E-1	1.017394E+0	9.843054E-1	9.679635E-1	1.002396E+0	9.663314E-1	9.632234E-1	1.021382E+0	1.011222E+0	1.017282E+0	9.375170E-1	9.693480E-1	1.004676E+0	9.724608E-1	9.816038E-1	9.275542E-1	1.017790E+0	9.960021E-1	1.021565E+0	9.315674E-1	9.890773E-1	9.714018E-1	9.218026E-1	9.728072E-1	9.962234E-1	9.817839E-1	9.190984E-1	1.022142E+0	1.002576E+0	1.037568E+0	8.867665E-1	9.068545E-1	9.922946E-1	1.018975E+0	9.661315E-1	9.825570E-1	9.671598E-1	9.705208E-1	9.318629E-1	1.006243E+0	1.021034E+0	1.003822E+0	9.100661E-1	1.009791E+0	9.141546E-1	9.757710E-1	9.314353E-1	9.557304E-1	1.016743E+0	1.005795E+0	9.653649E-1	9.441266E-1	1.070999E+0	1.024488E+0	9.640566E-1	9.402178E-1	1.020792E+0	9.601946E-1	7.657083E-1	1.024253E+0	8.709195E-1
5.560190E+2	9.807120E-1	9.837425E-1	9.716370E-1	1.009585E+0	9.700860E-1	9.522061E-1	9.659203E-1	9.703506E-1	9.316142E-1	1.018736E+0	9.808152E-1	1.021445E+0	9.130804E-1	9.839641E-1	9.715376E-1	1.019608E+0	8.931469E-1	1.011179E+0	9.860056E-1	9.492861E-1	9.644210E-1	9.255015E-1	9.837260E-1	9.574573E-1	9.152596E-1	9.549205E-1	9.448742E-1	9.924209E-1	8.725922E-1	9.959002E-1	9.311903E-1	9.668855E-1	8.973352E-1	9.664456E-1	1.001045E+0	9.256967E-1	9.253797E-1	9.633358E-1	1.007837E+0	9.689151E-1	9.896840E-1	9.637194E-1	9.487695E-1	9.682981E-1	8.786082E-1	9.863337E-1	9.540936E-1	9.083662E-1	9.535122E-1	9.421536E-1	9.385010E-1	9.794411E-1	9.325899E-1	9.870718E-1	9.636643E-1	9.810269E-1	9.302961E-1	9.781639E-1	9.843398E-1	9.819138E-1	8.743932E-1	1.013365E+0	9.654933E-1	9.888274E-1	9.760772E-1	9.377068E-1	9.582814E-1	1.005074E+0	9.505661E-1	9.939119E-1	9.821129E-1	1.013196E+0	9.738110E-1	9.893708E-1	9.906040E-1	1.029449E+0	9.073742E-1	9.473512E-1	9.687699E-1	9.983354E-1	9.493013E-1	9.569108E-1	9.591859E-1	1.002812E+0	9.515803E-1	1.017667E+0	9.876365E-1	9.949534E-1	9.501670E-1	9.572218E-1	1.003171E+0	9.822880E-1	8.951995E-1	9.504089E-1	1.008642E+0	9.644832E-1	9.214241E-1	9.881379E-1	9.482246E-1	9.669041E-1	9.428388E-1	9.780194E-1	9.841676E-1	1.022006E+0	9.490179E-1	9.858961E-1	9.585604E-1	9.743086E-1	9.538936E-1	9.406953E-1	9.910557E-1	9.783937E-1	9.543890E-1	9.970712E-1	9.898337E-1	9.831024E-1	9.859051E-1	9.903083E-1	9.838169E-1	9.583451E-1	9.109627E-1	9.198966E-1	9.930892E-1	9.676323E-1	8.926220E-1	9.715677E-1	9.614534E-1	9.863348E-1	9.447846E-1	1.014236E+0	9.397987E-1	9.718021E-1	9.588225E-1	9.798253E-1	9.875061E-1	9.938522E-1	9.805123E-1	9.358412E-1	9.497665E-1	9.670826E-1	9.407538E-1	9.549188E-1	9.576150E-1	9.809256E-1	1.010189E+0	9.671595E-1	9.625687E-1	9.483519E-1	9.592980E-1	9.657456E-1	9.814825E-1	9.630561E-1	9.547165E-1	9.286848E-1	1.005803E+0	1.005911E+0	9.102726E-1	9.868658E-1	9.839372E-1	9.766762E-1	9.221722E-1	9.749760E-1	9.843780E-1	9.694116E-1	9.741906E-1	9.763516E-1	9.931692E-1	9.236334E-1	9.583234E-1	9.414781E-1
5.565030E+2	1.000988E+0	9.329366E-1	9.443423E-1	9.791656E-1	9.689821E-1	9.352087E-1	9.734651E-1	9.812149E-1	9.182269E-1	9.956441E-1	9.845170E-1	9.839533E-1	8.435640E-1	9.912095E-1	9.805480E-1	9.483092E-1	8.731689E-1	9.152774E-1	1.003245E+0	9.881702E-1	9.462052E-1	1.025288E+0	9.580308E-1	9.478387E-1	9.942548E-1	9.763174E-1	9.438048E-1	9.793871E-1	8.850832E-1	9.414083E-1	9.652545E-1	9.772742E-1	9.378415E-1	9.822783E-1	9.559309E-1	9.744572E-1	9.488361E-1	9.763140E-1	9.766786E-1	9.534166E-1	9.848239E-1	9.857745E-1	9.954431E-1	9.694045E-1	9.198985E-1	9.538768E-1	9.762105E-1	9.386342E-1	9.168254E-1	9.621987E-1	1.033035E+0	9.994850E-1	9.523397E-1	9.553686E-1	9.631602E-1	9.842206E-1	9.504449E-1	9.865624E-1	9.603274E-1	9.513993E-1	9.292897E-1	1.026731E+0	9.401918E-1	9.622263E-1	9.063220E-1	9.693632E-1	9.919929E-1	9.976484E-1	9.812463E-1	9.451096E-1	9.352536E-1	9.706282E-1	9.463548E-1	9.773056E-1	9.761893E-1	9.978772E-1	9.902192E-1	9.986392E-1	9.606976E-1	9.775255E-1	9.546009E-1	9.931434E-1	9.697563E-1	9.795614E-1	9.873907E-1	9.997005E-1	9.615811E-1	1.010003E+0	9.871566E-1	9.508848E-1	9.233160E-1	1.003692E+0	8.951995E-1	9.493867E-1	9.893106E-1	9.801673E-1	9.346830E-1	9.722458E-1	9.702442E-1	9.903723E-1	9.490022E-1	9.669083E-1	9.960417E-1	9.410338E-1	9.602527E-1	9.282474E-1	1.003418E+0	9.467065E-1	9.508196E-1	9.952285E-1	9.910561E-1	9.509817E-1	9.652489E-1	9.986685E-1	9.586795E-1	9.483136E-1	9.763170E-1	9.862283E-1	9.828176E-1	1.002740E+0	9.406768E-1	9.574052E-1	9.528641E-1	9.641399E-1	9.219852E-1	9.667305E-1	9.935349E-1	9.724573E-1	9.501919E-1	9.804865E-1	9.957514E-1	9.723835E-1	9.567508E-1	9.972170E-1	9.569870E-1	9.953278E-1	9.515527E-1	9.733066E-1	9.534920E-1	9.885748E-1	9.532708E-1	9.405424E-1	9.916467E-1	9.936066E-1	9.629849E-1	9.808427E-1	1.000057E+0	1.005477E+0	9.982517E-1	9.525237E-1	9.839645E-1	9.907888E-1	8.840659E-1	8.880002E-1	9.605010E-1	1.022461E+0	9.092397E-1	9.755914E-1	9.864785E-1	1.039699E+0	9.419308E-1	1.002910E+0	9.680172E-1	9.759582E-1	9.718312E-1	9.953972E-1	9.725600E-1	9.510360E-1	9.135861E-1	9.165746E-1
5.570500E+2	9.885102E-1	1.027376E+0	1.048182E+0	9.751478E-1	1.000442E+0	9.967003E-1	9.784955E-1	9.889098E-1	9.410967E-1	9.993177E-1	1.020911E+0	1.010448E+0	9.163034E-1	1.032265E+0	1.024011E+0	1.009608E+0	9.476800E-1	1.010631E+0	1.008315E+0	1.020483E+0	9.684059E-1	9.373483E-1	1.010429E+0	1.020856E+0	9.318322E-1	9.972281E-1	1.048603E+0	9.547680E-1	8.869337E-1	9.865587E-1	9.862605E-1	1.006276E+0	8.828687E-1	9.792138E-1	9.977445E-1	9.783350E-1	9.522568E-1	9.948550E-1	9.946183E-1	9.977619E-1	9.707819E-1	1.003970E+0	9.993331E-1	9.832361E-1	9.358978E-1	1.023346E+0	9.886180E-1	1.003076E+0	9.870549E-1	1.045819E+0	9.831706E-1	1.032126E+0	9.845633E-1	1.034130E+0	1.009525E+0	9.764663E-1	9.912869E-1	1.043673E+0	9.477988E-1	9.752555E-1	9.242529E-1	1.007797E+0	9.918716E-1	9.752854E-1	9.456204E-1	1.005312E+0	9.883813E-1	1.005074E+0	9.431443E-1	1.037180E+0	9.911821E-1	1.001372E+0	1.013939E+0	1.032462E+0	1.016230E+0	1.006042E+0	9.324945E-1	9.803220E-1	1.004591E+0	9.827284E-1	1.025850E+0	1.039410E+0	9.961829E-1	9.600969E-1	9.883994E-1	9.817345E-1	9.815055E-1	9.630876E-1	9.743129E-1	1.012147E+0	9.955378E-1	9.806826E-1	9.402027E-1	1.007158E+0	1.010917E+0	9.938274E-1	9.485198E-1	9.631646E-1	9.910732E-1	9.909739E-1	9.664634E-1	9.693238E-1	1.012369E+0	9.986590E-1	9.725568E-1	1.007724E+0	9.537541E-1	1.004565E+0	9.395493E-1	9.889359E-1	1.043732E+0	9.864561E-1	9.462440E-1	1.006656E+0	1.036292E+0	9.663292E-1	9.839880E-1	9.806172E-1	9.908100E-1	9.780766E-1	9.855082E-1	9.887475E-1	1.016296E+0	9.361959E-1	9.574235E-1	9.850045E-1	1.000444E+0	9.671191E-1	9.291632E-1	1.008100E+0	9.978239E-1	9.752907E-1	9.790229E-1	1.025044E+0	1.011349E+0	1.022869E+0	1.018522E+0	9.703791E-1	1.019476E+0	1.006674E+0	1.005424E+0	9.761940E-1	1.030835E+0	9.777552E-1	9.670150E-1	1.022464E+0	9.784725E-1	9.978207E-1	1.029216E+0	9.759618E-1	1.024177E+0	9.774177E-1	9.502661E-1	9.560018E-1	9.971494E-1	9.946804E-1	9.531478E-1	1.026325E+0	9.549633E-1	9.944523E-1	9.660804E-1	1.029680E+0	9.585174E-1	9.920257E-1	9.973107E-1	9.509577E-1	1.013779E+0	9.690638E-1	1.064281E+0	9.539297E-1
5.575700E+2	9.838307E-1	1.023191E+0	1.041061E+0	1.046892E+0	1.073294E+0	1.007199E+0	1.078472E+0	1.033723E+0	1.011379E+0	1.001942E+0	1.001789E+0	1.031943E+0	8.776316E-1	1.018741E+0	1.005459E+0	1.020911E+0	9.671175E-1	1.000767E+0	1.030117E+0	1.044032E+0	9.672677E-1	1.010708E+0	1.026551E+0	1.054085E+0	1.034581E+0	1.042454E+0	1.041117E+0	1.038281E+0	9.230187E-1	1.031190E+0	9.873961E-1	9.932894E-1	1.000048E+0	1.007814E+0	1.026904E+0	1.028757E+0	1.013341E+0	1.060211E+0	1.031913E+0	1.042107E+0	1.034511E+0	1.048080E+0	1.003779E+0	1.030263E+0	9.539620E-1	1.009680E+0	1.040404E+0	1.075817E+0	9.713318E-1	1.025773E+0	1.011739E+0	1.020100E+0	1.011071E+0	1.054439E+0	1.038251E+0	1.033020E+0	9.814846E-1	9.944007E-1	1.056377E+0	1.030182E+0	9.061225E-1	1.027288E+0	1.055394E+0	1.020265E+0	9.927788E-1	1.004239E+0	1.011860E+0	1.018687E+0	1.022317E+0	1.022590E+0	1.083894E+0	1.037318E+0	1.031363E+0	9.945417E-1	1.046661E+0	1.001687E+0	9.757876E-1	1.027947E+0	1.030322E+0	1.046717E+0	9.893417E-1	9.976032E-1	1.044925E+0	1.030387E+0	1.039340E+0	1.030642E+0	1.003985E+0	1.062671E+0	1.016440E+0	1.024294E+0	1.012565E+0	9.892440E-1	9.244039E-1	9.969321E-1	1.027405E+0	1.016089E+0	9.727320E-1	9.801919E-1	1.002381E+0	1.045733E+0	9.900880E-1	1.001208E+0	1.028202E+0	1.051812E+0	1.040496E+0	1.008843E+0	1.041867E+0	1.028982E+0	9.738730E-1	1.014105E+0	1.042634E+0	1.059015E+0	1.002715E+0	9.779004E-1	1.001859E+0	1.024725E+0	1.016588E+0	1.015302E+0	1.047751E+0	9.594409E-1	1.014701E+0	1.017007E+0	1.061679E+0	1.084645E+0	9.650173E-1	1.043052E+0	1.025122E+0	1.055192E+0	9.886445E-1	1.014850E+0	1.034090E+0	1.045640E+0	1.006474E+0	1.024547E+0	1.023748E+0	1.048935E+0	1.020936E+0	1.033601E+0	1.035440E+0	1.049094E+0	9.772612E-1	1.037147E+0	1.052491E+0	1.048557E+0	1.007886E+0	1.058383E+0	1.039249E+0	1.009599E+0	1.033711E+0	1.021634E+0	1.006801E+0	1.040311E+0	1.015910E+0	9.211293E-1	1.017510E+0	1.007093E+0	1.034765E+0	1.015051E+0	9.981698E-1	1.042392E+0	9.852909E-1	1.025606E+0	1.033460E+0	9.914308E-1	1.030811E+0	1.038779E+0	1.023200E+0	1.009447E+0	1.021898E+0	1.097121E+0
5.580230E+2	1.015025E+0	1.042916E+0	9.858777E-1	1.038857E+0	9.976816E-1	1.038195E+0	9.898137E-1	1.005658E+0	1.006359E+0	1.005616E+0	1.011042E+0	1.054438E+0	1.006537E+0	1.015843E+0	1.030900E+0	1.058299E+0	1.065387E+0	1.033100E+0	9.991890E-1	1.015006E+0	1.070304E+0	1.019821E+0	1.042170E+0	1.029163E+0	9.401179E-1	9.923648E-1	1.021869E+0	1.033454E+0	9.253321E-1	1.034304E+0	9.947767E-1	1.033980E+0	9.460392E-1	1.035904E+0	1.048360E+0	1.037069E+0	9.791332E-1	9.888297E-1	1.020584E+0	1.047273E+0	1.003727E+0	1.017203E+0	1.031005E+0	1.035796E+0	9.513816E-1	9.914586E-1	9.950913E-1	1.022604E+0	9.404096E-1	9.971369E-1	1.056929E+0	9.994847E-1	1.022505E+0	1.008867E+0	1.028172E+0	1.034844E+0	9.847521E-1	9.944011E-1	1.039673E+0	1.007989E+0	9.564861E-1	1.034527E+0	1.003176E+0	1.061860E+0	9.682173E-1	1.016043E+0	1.061825E+0	1.028586E+0	1.029244E+0	9.903905E-1	1.019902E+0	9.975878E-1	1.048788E+0	1.007182E+0	1.009823E+0	9.929779E-1	1.006788E+0	9.855555E-1	1.008627E+0	1.027468E+0	9.899308E-1	1.019900E+0	1.021435E+0	1.024439E+0	9.883995E-1	1.039625E+0	1.041791E+0	1.006905E+0	9.671201E-1	1.020069E+0	1.031942E+0	1.041685E+0	1.013453E+0	1.032208E+0	9.677051E-1	9.548700E-1	9.519779E-1	1.051706E+0	1.043444E+0	1.055962E+0	9.906015E-1	1.019565E+0	1.015833E+0	1.040387E+0	1.001980E+0	1.030111E+0	1.018370E+0	1.018897E+0	9.656762E-1	1.044518E+0	1.002579E+0	1.033754E+0	9.940273E-1	1.032751E+0	1.058701E+0	9.924205E-1	1.026176E+0	1.009691E+0	1.009790E+0	1.004933E+0	9.860292E-1	1.056057E+0	1.004435E+0	1.023519E+0	9.437543E-1	1.058638E+0	1.026603E+0	1.000747E+0	9.447853E-1	1.004418E+0	1.033054E+0	1.057267E+0	9.702176E-1	1.034486E+0	1.000382E+0	1.055820E+0	9.732727E-1	1.019552E+0	1.006173E+0	1.044569E+0	9.610936E-1	9.963194E-1	1.018975E+0	1.044331E+0	9.975251E-1	1.064085E+0	9.886966E-1	9.772090E-1	1.026719E+0	1.031851E+0	1.054461E+0	1.049226E+0	1.057077E+0	9.501895E-1	1.034816E+0	1.002364E+0	9.867244E-1	9.998312E-1	1.028669E+0	1.014921E+0	9.721183E-1	1.045393E+0	1.027128E+0	1.050940E+0	9.883457E-1	1.059412E+0	9.825703E-1	1.036128E+0	1.014834E+0	9.975099E-1
5.585160E+2	9.983883E-1	1.005857E+0	1.005459E+0	1.019916E+0	9.965782E-1	1.022197E+0	1.003018E+0	1.011090E+0	1.033691E+0	1.030806E+0	1.049288E+0	1.015446E+0	1.125775E+0	9.573991E-1	1.001219E+0	9.883059E-1	1.069706E+0	1.075297E+0	1.004766E+0	1.004600E+0	1.014516E+0	1.010708E+0	9.953149E-1	1.006426E+0	1.018561E+0	1.021543E+0	9.913917E-1	9.653880E-1	1.073836E+0	9.984951E-1	1.022596E+0	1.019695E+0	1.018373E+0	1.006793E+0	1.005997E+0	9.910789E-1	1.019205E+0	1.021739E+0	1.015390E+0	1.018426E+0	9.621408E-1	1.010035E+0	1.021004E+0	9.987274E-1	1.039122E+0	1.005125E+0	1.006419E+0	9.928233E-1	1.031603E+0	9.988544E-1	1.008622E+0	1.000057E+0	1.001715E+0	1.014316E+0	1.006501E+0	1.031196E+0	1.019060E+0	1.025196E+0	9.900816E-1	1.044052E+0	9.726021E-1	9.916463E-1	1.002637E+0	1.029938E+0	9.402174E-1	1.013896E+0	9.709232E-1	1.005074E+0	9.767928E-1	1.029131E+0	9.478503E-1	1.005156E+0	1.023971E+0	1.033611E+0	1.001281E+0	1.016929E+0	9.923571E-1	9.939294E-1	9.844106E-1	1.003018E+0	1.003474E+0	9.903564E-1	9.944209E-1	1.010922E+0	1.023201E+0	1.021659E+0	1.005518E+0	9.856605E-1	1.010274E+0	1.035912E+0	1.021373E+0	9.822880E-1	9.550444E-1	1.010736E+0	9.949967E-1	1.020137E+0	9.946386E-1	1.044327E+0	1.026185E+0	1.019858E+0	1.006522E+0	9.944440E-1	9.747670E-1	9.753111E-1	9.656018E-1	1.036828E+0	1.007156E+0	1.020489E+0	9.487704E-1	9.543284E-1	1.024528E+0	1.033753E+0	1.008145E+0	9.970711E-1	1.008417E+0	9.980128E-1	1.025696E+0	1.007141E+0	9.903102E-1	1.010962E+0	1.002710E+0	9.887472E-1	1.016297E+0	1.027594E+0	9.761553E-1	1.028002E+0	1.027096E+0	9.863351E-1	9.898464E-1	1.041850E+0	1.011294E+0	1.009012E+0	9.961154E-1	1.012622E+0	9.937052E-1	9.736884E-1	9.732725E-1	1.044139E+0	1.008301E+0	1.004412E+0	9.856057E-1	1.027371E+0	9.710214E-1	1.011572E+0	1.006735E+0	1.043559E+0	9.989208E-1	9.925210E-1	9.987517E-1	9.693511E-1	1.026163E+0	9.813797E-1	9.803066E-1	9.251976E-1	1.008857E+0	1.028372E+0	9.242198E-1	1.002650E+0	9.676711E-1	9.971447E-1	1.013831E+0	9.743942E-1	1.019211E+0	9.807188E-1	9.982543E-1	9.842875E-1	9.931696E-1	1.013052E+0	9.795143E-1	1.078445E+0
5.590100E+2	1.033222E+0	1.030364E+0	1.010799E+0	9.877751E-1	9.673266E-1	1.001700E+0	1.005534E+0	9.821197E-1	9.935298E-1	9.961688E-1	9.987042E-1	9.674571E-1	1.049352E+0	9.540176E-1	1.025600E+0	1.026126E+0	1.071866E+0	9.881630E-1	1.038230E+0	9.848847E-1	9.968691E-1	1.005240E+0	1.031590E+0	9.758214E-1	1.006960E+0	1.003064E+0	1.015987E+0	1.008351E+0	1.079850E+0	9.678761E-1	1.000454E+0	9.876628E-1	1.030428E+0	1.013432E+0	9.922423E-1	9.711320E-1	1.032399E+0	1.001807E+0	9.960346E-1	1.011968E+0	9.940053E-1	9.962506E-1	9.909988E-1	9.799166E-1	1.000929E+0	1.010820E+0	9.956307E-1	9.923356E-1	9.912479E-1	1.043528E+0	9.956369E-1	1.033845E+0	9.471420E-1	9.920249E-1	9.293948E-1	9.896927E-1	1.002723E+0	1.005039E+0	9.953018E-1	1.010209E+0	1.070811E+0	9.771673E-1	9.983313E-1	1.010108E+0	1.026674E+0	9.994095E-1	9.962075E-1	9.370103E-1	9.678860E-1	9.778122E-1	1.026957E+0	1.012250E+0	1.023971E+0	1.000862E+0	1.010891E+0	1.040336E+0	1.021219E+0	1.002302E+0	9.874370E-1	9.546349E-1	1.001707E+0	9.775360E-1	1.028482E+0	9.503641E-1	9.737731E-1	9.702559E-1	1.000409E+0	1.006905E+0	1.013358E+0	9.598628E-1	1.028418E+0	9.710505E-1	9.899939E-1	1.023007E+0	9.858991E-1	1.034302E+0	1.011357E+0	1.005165E+0	1.035707E+0	9.795404E-1	1.027066E+0	1.008454E+0	9.905993E-1	9.673628E-1	1.004119E+0	9.993284E-1	9.932712E-1	1.038537E+0	9.713112E-1	1.002045E+0	1.002030E+0	1.010105E+0	9.625343E-1	9.880183E-1	9.887407E-1	9.626019E-1	9.528262E-1	1.002550E+0	9.953048E-1	9.890379E-1	9.881143E-1	9.902890E-1	9.724613E-1	9.676324E-1	9.295788E-1	9.807049E-1	1.005380E+0	1.032240E+0	9.141430E-1	9.792595E-1	1.006631E+0	9.997093E-1	9.598584E-1	9.669057E-1	1.018979E+0	9.668031E-1	9.980091E-1	1.017210E+0	9.811623E-1	9.789593E-1	9.783043E-1	1.018745E+0	9.849432E-1	9.994189E-1	9.629848E-1	9.831238E-1	1.001192E+0	1.009599E+0	9.967534E-1	9.969953E-1	9.690714E-1	9.808841E-1	1.008679E+0	9.629765E-1	1.007330E+0	1.004728E+0	9.681277E-1	9.981401E-1	1.018503E+0	9.809851E-1	9.644339E-1	9.685739E-1	9.812115E-1	9.741725E-1	9.925920E-1	9.922228E-1	9.666719E-1	1.018821E+0	1.005416E+0	9.788328E-1
5.595390E+2	9.770721E-1	9.771669E-1	9.698571E-1	9.642424E-1	1.001545E+0	1.010199E+0	9.992452E-1	9.911729E-1	9.924137E-1	9.583831E-1	9.438036E-1	9.604586E-1	1.054417E+0	9.791342E-1	9.911488E-1	9.961298E-1	1.029210E+0	9.591182E-1	9.434155E-1	9.898136E-1	9.758063E-1	1.008430E+0	9.786879E-1	9.819422E-1	1.019666E+0	9.432495E-1	9.422007E-1	9.991791E-1	1.013231E+0	1.051949E+0	9.834219E-1	9.807377E-1	1.053575E+0	9.889175E-1	1.001045E+0	1.019337E+0	1.014318E+0	9.661166E-1	9.894250E-1	9.697768E-1	1.024789E+0	9.604107E-1	9.865533E-1	9.970680E-1	1.055638E+0	1.022777E+0	9.718953E-1	9.947757E-1	1.024266E+0	9.719359E-1	9.878459E-1	9.845951E-1	9.949583E-1	9.667617E-1	9.853348E-1	9.956215E-1	9.733166E-1	9.602463E-1	1.004698E+0	9.974479E-1	1.064265E+0	1.003342E+0	1.025786E+0	9.549721E-1	1.054674E+0	1.021945E+0	9.968094E-1	9.735167E-1	9.881738E-1	9.878749E-1	1.010833E+0	1.006574E+0	9.695870E-1	9.807529E-1	9.644442E-1	9.842685E-1	1.005718E+0	1.005443E+0	9.970232E-1	1.004058E+0	1.012895E+0	9.530091E-1	9.809144E-1	1.015789E+0	1.017149E+0	9.542862E-1	9.968322E-1	9.768071E-1	1.015926E+0	9.751782E-1	1.005519E+0	1.017605E+0	1.057020E+0	1.033742E+0	1.046737E+0	1.015077E+0	1.060359E+0	9.949483E-1	9.589365E-1	9.669042E-1	1.026552E+0	1.010870E+0	1.002969E+0	9.936913E-1	1.045846E+0	1.011641E+0	9.633663E-1	9.981953E-1	1.050718E+0	1.004667E+0	9.767896E-1	9.907551E-1	1.038552E+0	9.981361E-1	9.865540E-1	9.843448E-1	9.504294E-1	9.811273E-1	1.010788E+0	9.731435E-1	9.891576E-1	9.568911E-1	1.014234E+0	1.005472E+0	9.974183E-1	9.699551E-1	9.579975E-1	1.019963E+0	1.034307E+0	9.860091E-1	9.755471E-1	9.659885E-1	1.009064E+0	9.733655E-1	1.009918E+0	1.018443E+0	9.883552E-1	9.709647E-1	9.965946E-1	9.727382E-1	9.595293E-1	9.796441E-1	9.906156E-1	9.856807E-1	9.883141E-1	9.797028E-1	9.966490E-1	9.813313E-1	9.333279E-1	9.897837E-1	9.849579E-1	9.853414E-1	9.330202E-1	1.079801E+0	9.742442E-1	1.001773E+0	9.340354E-1	9.958847E-1	9.920705E-1	9.707508E-1	9.309533E-1	9.912705E-1	9.912390E-1	1.027137E+0	9.741905E-1	9.874619E-1	9.707933E-1	1.016658E+0	9.936417E-1	1.070145E+0
5.600180E+2	1.006187E+0	9.933055E-1	9.977453E-1	1.006715E+0	9.976821E-1	9.677041E-1	9.772380E-1	1.016069E+0	1.066043E+0	9.730777E-1	9.845167E-1	9.904521E-1	1.055798E+0	1.015360E+0	1.018710E+0	9.535268E-1	1.006533E+0	9.974794E-1	9.692739E-1	1.022126E+0	1.017932E+0	9.710662E-1	9.978332E-1	9.793190E-1	1.000331E+0	1.015707E+0	1.017056E+0	9.962823E-1	1.034975E+0	9.922671E-1	9.959123E-1	9.686198E-1	1.040555E+0	9.679781E-1	9.691351E-1	1.011580E+0	1.018716E+0	1.040281E+0	9.950901E-1	9.633180E-1	9.918447E-1	1.001764E+0	9.859977E-1	1.017538E+0	1.072670E+0	9.709594E-1	1.006420E+0	9.796420E-1	1.025313E+0	9.770903E-1	9.707049E-1	9.565348E-1	1.018347E+0	1.021250E+0	9.974295E-1	1.012496E+0	1.056090E+0	1.023516E+0	1.025057E+0	9.763651E-1	1.059731E+0	9.615743E-1	9.864879E-1	9.980170E-1	1.050744E+0	1.022481E+0	1.011258E+0	1.032918E+0	9.970802E-1	9.763029E-1	9.750588E-1	1.017926E+0	9.706436E-1	9.727094E-1	9.906037E-1	9.848128E-1	1.049012E+0	1.003873E+0	9.697789E-1	9.822080E-1	1.034682E+0	1.028262E+0	9.997064E-1	1.013085E+0	9.823471E-1	9.982036E-1	9.508524E-1	9.714960E-1	9.856156E-1	1.041722E+0	1.000235E+0	9.871040E-1	1.081438E+0	9.647239E-1	9.978399E-1	1.009512E+0	1.046522E+0	1.004598E+0	9.767904E-1	9.500550E-1	9.957372E-1	1.024396E+0	1.008906E+0	1.027471E+0	9.843255E-1	9.959703E-1	1.001815E+0	9.806785E-1	1.061475E+0	1.025641E+0	1.005871E+0	9.821558E-1	9.913122E-1	1.015710E+0	9.663313E-1	1.030316E+0	9.796733E-1	1.023973E+0	9.883121E-1	1.029597E+0	1.021477E+0	1.002107E+0	9.714294E-1	9.856787E-1	1.113352E+0	9.801673E-1	9.792214E-1	9.761934E-1	1.062545E+0	9.890770E-1	9.724382E-1	1.034593E+0	1.032372E+0	9.768438E-1	9.932286E-1	9.795901E-1	1.037226E+0	1.025406E+0	9.747771E-1	9.721726E-1	1.078438E+0	9.813698E-1	1.009178E+0	9.687728E-1	1.025156E+0	9.198377E-1	9.864247E-1	1.004299E+0	9.927587E-1	1.054087E+0	1.004815E+0	1.000693E+0	1.053739E+0	1.066432E+0	1.015474E+0	1.001182E+0	1.115864E+0	1.038163E+0	9.935950E-1	9.906813E-1	1.073108E+0	9.639185E-1	1.012878E+0	9.836941E-1	1.002501E+0	9.901069E-1	1.024378E+0	1.041897E+0	9.394859E-1	9.850585E-1
5.605150E+2	1.002028E+0	9.687991E-1	1.023260E+0	9.849048E-1	1.003201E+0	1.000700E+0	9.879273E-1	9.861939E-1	1.034807E+0	1.036579E+0	9.925361E-1	1.001949E+0	1.006077E+0	1.004733E+0	9.778982E-1	1.007868E+0	1.018952E+0	9.914507E-1	1.004259E+0	9.690020E-1	1.019071E+0	1.013897E+0	1.015468E+0	9.788817E-1	1.036239E+0	9.923651E-1	1.024542E+0	1.017041E+0	1.070134E+0	9.917486E-1	1.058931E+0	1.002381E+0	1.046824E+0	1.012410E+0	9.883911E-1	9.872002E-1	9.884190E-1	1.001807E+0	9.946189E-1	1.009816E+0	1.041532E+0	9.741957E-1	9.871092E-1	1.017538E+0	1.046347E+0	1.005694E+0	1.019366E+0	1.012839E+0	1.080344E+0	9.742269E-1	9.582390E-1	9.966215E-1	1.007433E+0	1.010353E+0	1.012044E+0	9.942534E-1	1.017426E+0	9.921611E-1	1.001044E+0	9.980026E-1	1.066781E+0	9.972152E-1	9.913330E-1	9.723834E-1	1.068428E+0	9.441454E-1	1.011257E+0	1.010024E+0	1.058934E+0	1.011522E+0	9.967252E-1	9.663712E-1	9.664191E-1	1.000287E+0	9.986115E-1	9.880789E-1	9.902189E-1	1.019573E+0	1.052017E+0	1.008740E+0	9.740328E-1	1.003735E+0	1.003230E+0	1.037957E+0	9.939478E-1	1.023656E+0	1.065292E+0	1.021510E+0	1.049320E+0	9.830999E-1	9.755737E-1	1.004228E+0	1.080958E+0	9.836402E-1	1.012054E+0	1.010523E+0	1.046523E+0	1.002327E+0	1.021424E+0	1.015044E+0	1.018848E+0	1.006038E+0	9.901046E-1	9.976652E-1	9.763014E-1	9.808585E-1	1.000747E+0	9.939488E-1	1.077357E+0	1.000996E+0	9.839231E-1	9.810806E-1	1.042352E+0	9.757698E-1	9.985789E-1	1.040256E+0	1.045351E+0	1.008161E+0	9.948051E-1	1.025212E+0	1.036594E+0	9.815545E-1	1.034346E+0	1.018861E+0	1.087533E+0	9.817798E-1	9.634274E-1	1.011423E+0	1.115417E+0	9.872357E-1	9.625945E-1	9.764539E-1	1.052054E+0	9.688936E-1	9.941822E-1	9.682789E-1	1.036622E+0	9.651107E-1	9.923369E-1	9.670824E-1	1.047668E+0	1.031972E+0	9.493650E-1	1.004703E+0	1.061423E+0	9.768516E-1	9.744972E-1	9.730863E-1	9.952556E-1	1.013822E+0	9.849575E-1	9.962358E-1	1.087118E+0	1.137922E+0	9.783164E-1	9.408925E-1	1.064727E+0	9.643170E-1	1.051035E+0	9.777535E-1	1.049507E+0	9.889429E-1	9.981002E-1	1.031302E+0	1.037417E+0	1.004920E+0	9.749159E-1	9.611318E-1	1.039558E+0	9.311005E-1
5.609950E+2	9.947489E-1	9.980876E-1	9.734171E-1	9.963840E-1	9.932663E-1	1.020197E+0	1.006791E+0	1.003848E+0	1.002454E+0	1.002467E+0	1.012893E+0	9.834534E-1	1.064545E+0	1.031299E+0	9.445062E-1	9.909145E-1	9.503801E-1	1.028716E+0	9.991886E-1	9.618828E-1	1.023624E+0	9.974940E-1	9.439240E-1	1.025666E+0	1.017456E+0	1.015707E+0	9.534293E-1	1.007869E+0	1.107607E+0	1.004204E+0	1.004996E+0	1.030085E+0	1.043448E+0	1.005260E+0	1.014250E+0	1.001053E+0	1.033376E+0	9.480397E-1	9.856471E-1	9.861365E-1	9.918444E-1	1.002316E+0	9.987774E-1	9.705113E-1	1.024154E+0	1.006264E+0	9.999459E-1	9.874533E-1	1.031604E+0	1.003436E+0	9.940782E-1	9.771507E-1	1.059926E+0	9.424894E-1	1.030187E+0	9.481894E-1	1.023416E+0	9.748042E-1	9.796414E-1	1.009099E+0	1.049659E+0	9.727120E-1	1.004792E+0	1.014945E+0	1.046324E+0	1.003165E+0	9.594856E-1	9.914615E-1	1.035182E+0	1.022087E+0	1.012344E+0	9.848174E-1	1.004963E+0	1.000287E+0	9.852650E-1	9.869900E-1	1.036185E+0	9.824155E-1	1.005096E+0	1.012902E+0	1.013484E+0	9.970452E-1	9.609476E-1	9.773982E-1	1.006052E+0	9.802368E-1	9.922346E-1	9.949550E-1	9.804780E-1	9.968313E-1	1.005519E+0	1.022421E+0	1.062287E+0	9.984659E-1	9.671366E-1	9.654954E-1	1.032687E+0	9.813270E-1	9.738147E-1	9.855580E-1	1.029120E+0	9.987924E-1	9.802095E-1	1.006607E+0	1.048520E+0	1.000448E+0	1.016234E+0	9.690004E-1	1.060451E+0	9.695348E-1	9.268573E-1	9.719437E-1	1.048869E+0	1.009319E+0	9.958464E-1	1.052680E+0	1.042955E+0	9.852077E-1	9.893107E-1	1.026857E+0	1.035031E+0	1.061195E+0	9.559581E-1	9.862614E-1	1.107783E+0	1.005966E+0	1.021174E+0	9.783284E-1	1.070956E+0	1.008714E+0	1.010776E+0	9.636628E-1	1.038070E+0	1.020075E+0	9.975208E-1	9.702455E-1	1.002232E+0	9.803306E-1	1.032247E+0	1.015724E+0	1.053405E+0	1.010696E+0	1.000928E+0	9.656033E-1	1.019975E+0	9.711508E-1	1.035841E+0	1.049057E+0	9.952556E-1	9.939901E-1	9.606315E-1	9.977222E-1	1.029818E+0	1.112349E+0	1.005803E+0	9.964534E-1	1.109150E+0	9.840469E-1	1.008845E+0	9.912201E-1	1.102746E+0	1.009311E+0	1.010239E+0	9.926208E-1	1.006747E+0	9.964551E-1	1.077962E+0	9.827655E-1	1.027785E+0	9.912838E-1
