Photon Energy (eV)	#1	#2	#3	#4	#5	#6	#7	#8	#9	#10	#11	#12	#13	#14	#15	#16	#17	#18	#19	#20	#21	#22	#23	#24	#25	#26	#27	#28	#29	#30	#31	#32	#33	#34	#35	#36	#37	#38	#39	#40	#41	#42	#43	#44	#45	#46	#47	#48	#49	#50	#51	#52	#53	#54	#55	#56	#57	#58	#59	#60	#61	#62	#63	#64	#65	#66	#67	#68	#69	#70	#71	#72	#73	#74	#75	#76	#77	#78	#79	#80	#81	#82	#83	#84	#85	#86	#87	#88	#89	#90	#91	#92	#93	#94	#95	#96	#97	#98	#99	#100	#101	#102	#103	#104	#105	#106	#107	#108	#109	#110	#111	#112	#113	#114	#115	#116	#117	#118	#119	#120	#121	#122	#123	#124	#125	#126	#127	#128	#129	#130	#131	#132	#133	#134	#135	#136	#137	#138	#139	#140	#141	#142	#143	#144	#145	#146	#147	#148	#149	#150	#151	#152	#153	#154	#155	#156	#157	#158	#159	#160	#161	#162	#163	#164	#165	#166	#167	#168	#169	#170	#171	
5.300220E+2	-5.875848E-3	-1.093765E-2	-1.088453E-2	-9.973178E-3	-8.244063E-3	-9.969398E-4	-6.909087E-3	-7.134156E-3	-8.809107E-3	-2.099964E-3	-2.047487E-4	-9.074848E-3	-5.206981E-3	-6.551500E-3	-8.800943E-3	-7.447461E-3	1.437664E-3	-1.459944E-3	6.704004E-4	-5.410866E-3	-7.105995E-3	-6.634622E-3	-8.123440E-3	-5.763165E-3	-1.155625E-2	-3.760883E-3	-4.892171E-3	-4.853875E-3	-1.347087E-2	-1.044439E-2	-2.577299E-3	-1.730069E-3	-8.881567E-3	-3.075508E-3	-1.217384E-2	-8.718514E-3	-1.975026E-3	-5.581470E-3	-8.913655E-3	-1.006152E-2	-5.443897E-3	-3.603347E-3	-4.831111E-3	1.836637E-4	-9.349661E-3	-9.353735E-3	-8.153063E-3	-8.781583E-3	-6.155608E-3	8.690982E-4	-2.304187E-3	-4.885874E-3	-1.086673E-2	-1.347621E-2	-1.691492E-2	-3.648950E-3	-1.177198E-2	2.051869E-3	-1.259514E-2	1.827213E-4	-5.722282E-3	-4.452108E-3	-1.146227E-2	-4.005988E-3	-9.118761E-3	-2.258406E-3	6.071090E-4	-3.411696E-3	-2.576984E-3	-6.731562E-3	-7.250905E-3	-8.641000E-3	-1.037157E-2	-3.992655E-3	-9.883538E-3	-6.450913E-3	3.209427E-3	-4.113103E-3	-7.662097E-3	-3.635787E-3	-9.249405E-3	-9.746039E-3	-3.295703E-3	-2.349870E-3	-3.234784E-3	-4.892725E-4	-1.843017E-2	-5.666514E-3	-6.063509E-3	-1.061847E-2	-8.655397E-3	-4.316595E-3	-6.086438E-3	-1.107590E-3	-1.417394E-2	-5.165901E-3	2.698788E-3	3.648206E-3	-6.090355E-3	-1.694606E-2	-1.660538E-2	-1.057668E-2	-1.245178E-2	-4.845126E-3	-5.792396E-3	-1.774442E-3	-4.559093E-3	-8.521929E-3	1.195911E-3	-3.776225E-3	-5.537910E-3	-1.337552E-3	-4.495582E-3	-4.077872E-3	-7.414315E-3	-9.391362E-3	-1.111899E-2	-1.193134E-2	-5.421666E-3	-2.259392E-3	-1.750001E-3	-1.371592E-3	-1.423670E-2	5.896349E-4	-1.022065E-2	2.396139E-3	-1.653545E-4	-9.279371E-3	-9.739920E-3	-7.542390E-3	-2.714806E-3	-7.791913E-4	-3.471583E-3	-4.691351E-3	-1.019388E-2	-9.713402E-3	-5.114317E-3	-6.724554E-3	-8.816199E-3	-1.313536E-2	-1.353446E-2	-1.271747E-2	-4.487611E-3	1.247624E-3	-1.154341E-2	-4.344347E-3	-3.942997E-3	8.699852E-3	-1.342096E-3	-3.624646E-3	-3.183451E-3	-9.462977E-3	-6.658892E-3	-1.191403E-2	-8.728813E-3	-1.538366E-2	3.423384E-4	2.824408E-3	-7.518146E-3	-5.291376E-3	9.311593E-5	-9.980243E-3	-5.851220E-3	-8.529434E-3	-4.289224E-3	-1.310533E-3	-7.346417E-3	-6.053261E-3	5.896669E-4	-9.600599E-3	1.068134E-3
5.305180E+2	7.805255E-3	3.512084E-3	-2.496431E-3	-5.414034E-3	-8.244107E-3	-1.146499E-2	-5.652884E-3	3.679710E-3	-1.651714E-3	-7.349833E-3	-3.889869E-3	-2.207398E-3	-6.125859E-3	-7.989626E-3	-1.196930E-2	-7.013639E-3	-1.257960E-3	-4.744863E-3	-6.368866E-3	-2.612144E-3	3.552979E-3	-1.029511E-2	-3.098587E-3	-7.298610E-5	-3.852076E-3	-8.175837E-3	-1.022913E-2	4.853841E-4	-9.290280E-4	-5.744396E-3	2.863891E-4	-3.460202E-3	-3.992623E-3	5.126232E-4	-7.713158E-3	-6.515907E-3	-6.912568E-3	-5.122712E-3	-9.386944E-3	-3.593388E-3	-1.160173E-3	-9.008336E-3	-7.618265E-3	-1.028448E-2	-1.629765E-3	-7.653073E-3	1.630634E-3	-7.304315E-3	-1.031713E-2	-1.071903E-2	-3.899317E-3	-8.621814E-4	-3.564289E-3	1.088139E-3	-3.281999E-3	-6.841792E-3	-3.923979E-3	-7.461546E-4	-2.569927E-4	-5.299584E-3	-1.026640E-2	-6.678131E-3	1.534339E-3	-1.038276E-2	-2.091479E-3	-1.174376E-3	-1.578433E-2	-2.791340E-3	-9.559738E-3	-7.224118E-3	-1.079206E-2	-6.284413E-3	-6.616352E-3	-1.711188E-3	-4.006850E-3	-5.375759E-3	-4.814114E-3	-5.163308E-3	-6.651743E-3	-7.271609E-3	-1.347197E-2	5.847616E-3	-7.366755E-3	-3.976708E-3	-1.191762E-3	-6.849993E-3	-9.128955E-3	-5.224953E-3	-1.451830E-3	-5.438703E-3	-8.655426E-3	-9.602160E-3	-4.644925E-3	-1.286487E-2	-5.669701E-4	-4.149627E-3	-1.175903E-2	-3.086979E-3	-1.080548E-2	-3.551572E-3	-1.863884E-3	-1.204114E-2	-1.492561E-2	-2.840222E-3	-6.861740E-3	-8.498478E-3	-1.528640E-2	-7.989336E-3	-3.416989E-3	-1.220691E-2	-2.269631E-3	2.675006E-4	-2.877175E-3	-9.515000E-3	-1.180798E-2	-9.391382E-3	-2.365970E-4	-4.315606E-3	-1.092670E-2	-6.326324E-4	-5.949973E-3	7.886555E-3	-3.945109E-3	-5.306609E-3	-6.672989E-3	-6.656018E-3	-1.703236E-2	-8.749128E-3	-7.028837E-4	4.525417E-3	-2.189361E-3	-1.305075E-2	2.116811E-3	-2.222192E-3	-1.066806E-2	-9.227805E-3	1.504209E-3	-1.075931E-2	2.705977E-3	-2.284442E-3	1.077583E-2	-1.213942E-2	-1.484374E-2	-8.376839E-3	-5.866303E-3	-5.477684E-3	-1.070240E-2	-8.099837E-3	-7.884846E-3	-4.800152E-3	-8.712532E-3	-7.488096E-3	3.470089E-3	-7.812485E-4	-3.692961E-3	-3.473741E-3	8.558247E-4	-1.355704E-2	-1.008114E-2	-1.659162E-2	-1.610294E-2	-2.272698E-3	-1.004315E-2	-3.823538E-3	-9.531592E-4	-6.552772E-3	-6.833872E-3	-7.224829E-3	-1.179348E-2	1.920106E-3	-3.204458E-3
5.310250E+2	2.543289E-3	-1.906519E-3	1.697577E-3	1.994610E-3	2.871596E-3	-6.978722E-3	-7.537259E-3	-5.331853E-3	-5.505908E-4	-8.399831E-3	6.551340E-3	2.207385E-3	-8.423060E-3	-3.675262E-3	-2.992310E-3	-3.976804E-3	-5.031786E-3	2.372413E-3	-2.346420E-3	-3.731356E-4	-3.739973E-3	3.889249E-3	-1.591160E-3	-2.699175E-3	-6.603585E-3	-2.289202E-3	-1.690000E-3	1.941544E-3	-1.393507E-3	-1.566703E-3	-1.517756E-2	-4.325275E-3	-1.059273E-3	-5.638412E-3	1.208076E-3	-3.762658E-3	-6.418807E-3	-4.663979E-3	1.972029E-3	2.874492E-4	3.658996E-3	7.206699E-3	-3.716218E-3	-5.325892E-3	3.516828E-3	-1.105441E-2	-7.065987E-3	-1.887631E-3	-9.537032E-4	-1.187782E-2	-1.772125E-4	-4.311102E-3	-1.295312E-2	-9.960664E-3	-6.311551E-3	-4.105101E-3	1.793823E-2	-9.699832E-3	-3.855644E-3	-9.137237E-4	3.366039E-3	-1.113050E-3	-9.837723E-3	3.351945E-3	-2.593393E-3	2.619786E-3	2.428343E-3	-2.791423E-3	-8.311437E-5	-5.746468E-3	5.901888E-3	-4.399077E-3	1.967032E-3	-6.274232E-3	5.075362E-3	-3.763043E-3	1.069820E-3	6.126040E-4	4.210103E-4	-3.116389E-3	4.624717E-3	4.176873E-3	-7.366744E-3	8.495685E-3	1.362022E-3	-7.339283E-3	-3.444898E-3	2.722886E-3	-7.088302E-3	-2.330888E-3	3.598322E-3	-8.810167E-5	-8.008269E-4	2.981941E-3	2.834805E-3	1.947783E-3	-4.819310E-3	-4.209435E-3	-4.322205E-3	-7.813462E-3	1.694387E-4	-1.789874E-3	-4.535441E-3	-1.837798E-3	-6.861736E-3	-1.130017E-2	1.877268E-3	-3.195759E-3	-1.879318E-3	9.659873E-4	4.539209E-4	-2.675017E-4	3.057027E-3	2.446729E-3	5.217474E-3	-3.060135E-3	-2.129168E-3	-4.823300E-3	-9.925741E-3	2.620894E-3	3.499978E-3	-1.320142E-2	-2.401371E-3	5.895954E-4	-4.138949E-3	-1.331182E-3	1.818975E-3	-1.855906E-3	2.911954E-3	-3.922031E-3	-7.969313E-3	1.558299E-3	-6.519799E-3	-1.407409E-2	-4.504291E-3	3.399703E-3	-5.114339E-3	-2.689820E-3	-9.863674E-3	6.282114E-3	-4.224133E-3	1.445173E-2	-1.380771E-3	-7.842180E-3	-1.892362E-3	-3.777698E-4	-5.633065E-4	-8.099830E-3	-2.851978E-3	-8.326807E-3	-3.183436E-3	1.892583E-3	-1.341160E-2	1.035157E-2	-5.203628E-3	-6.451241E-3	-6.333016E-3	-5.648764E-3	3.759052E-3	-2.600868E-3	4.002473E-3	-5.237182E-3	3.056616E-3	-7.941150E-3	-4.765732E-3	-2.883201E-3	1.366778E-3	3.905307E-3	-1.002450E-2	-1.920106E-3	9.613318E-3
5.315180E+2	-6.402062E-3	1.103795E-3	-4.893069E-3	5.983916E-3	7.873536E-3	1.993902E-3	2.512419E-3	-2.628392E-3	-4.404556E-3	1.049955E-3	-5.118212E-3	3.679010E-3	2.144042E-3	3.994809E-3	-2.992319E-3	7.302834E-3	8.984975E-4	2.372440E-3	-6.368902E-3	-1.268751E-2	-3.178982E-3	2.287590E-4	2.428609E-3	8.024760E-4	-1.100587E-3	-8.175711E-4	-8.898076E-5	-2.912368E-3	3.716071E-3	-2.088881E-3	-4.868261E-3	1.730065E-3	-8.146719E-5	-4.613249E-3	-4.367697E-3	1.000331E-2	-2.468764E-3	-4.663990E-3	-3.943857E-4	2.874711E-3	-3.837498E-3	2.882665E-3	-3.716191E-3	3.489376E-3	1.458227E-3	6.519282E-3	8.153069E-3	1.559340E-3	-4.074854E-3	2.027882E-3	-2.304161E-3	8.621861E-4	1.104058E-2	7.616994E-3	6.816460E-3	5.473443E-3	-3.363441E-3	7.088345E-3	1.285211E-3	-4.203129E-3	-3.197682E-3	-1.669518E-3	-6.317886E-4	1.880329E-3	-8.365083E-5	-8.762752E-3	-4.249660E-3	-1.550809E-3	-1.579456E-3	-1.313488E-3	2.866629E-3	-2.042406E-3	3.039923E-3	-5.133520E-3	-3.472587E-3	4.300586E-3	-1.468307E-8	-4.113132E-3	2.946976E-3	4.155208E-3	7.037563E-3	-7.518381E-3	2.520233E-3	-5.061295E-3	-8.342404E-3	-5.871397E-3	6.889752E-3	2.281335E-3	8.283929E-3	1.294916E-3	4.765332E-3	-1.673758E-3	-2.722885E-3	-7.241774E-3	-3.968697E-3	-1.100940E-3	-7.132497E-3	2.525686E-3	2.750471E-3	3.754532E-3	4.744386E-3	9.925799E-3	5.360038E-3	-1.837843E-3	8.109337E-3	-1.017950E-2	8.045752E-4	3.728340E-3	2.733619E-3	-1.668528E-3	-3.903749E-3	-6.687696E-3	-7.193053E-4	-1.060243E-2	8.238050E-4	2.638058E-3	3.548612E-3	6.854189E-3	1.084350E-3	4.789945E-3	2.449983E-3	5.314872E-3	-3.430691E-4	-4.127359E-3	-8.444203E-5	7.987444E-4	-1.157560E-3	2.916387E-3	-6.125097E-3	-3.318642E-3	-2.714835E-3	-3.116628E-3	1.608767E-3	-1.728396E-3	-1.659495E-3	-9.713506E-4	1.504216E-3	4.803248E-3	-2.007638E-3	5.711315E-4	-4.224142E-3	-2.312322E-3	-1.380818E-3	1.782380E-4	-5.298627E-3	-2.644395E-3	-3.379721E-3	-3.000085E-4	-5.871696E-3	1.165753E-2	-3.686067E-3	-6.006953E-3	-1.594341E-3	-7.812807E-4	-3.692945E-3	4.863206E-3	-1.095439E-2	1.073264E-2	2.221292E-3	4.932638E-3	9.587286E-3	-4.940892E-4	-5.851185E-3	4.411778E-3	-9.531505E-4	-3.931621E-3	-3.246103E-3	-6.053278E-3	-5.601924E-3	8.320528E-3	-9.613340E-3
5.320020E+2	-5.349702E-3	-1.003731E-4	-4.293899E-3	-1.424731E-3	-2.686285E-3	8.474144E-3	3.140492E-3	9.762573E-4	5.505729E-3	5.774902E-3	-5.732424E-3	2.697935E-3	1.225173E-2	3.036074E-3	1.337742E-2	-7.229918E-5	-1.257914E-3	1.824746E-4	7.206891E-3	5.783990E-3	-3.740340E-4	3.889274E-3	7.955933E-3	-7.295139E-5	4.952703E-3	2.616234E-3	8.983811E-3	3.108922E-8	3.251595E-3	1.044428E-3	6.013727E-3	4.325282E-3	1.385202E-3	9.226496E-3	1.514761E-2	2.844965E-3	2.962537E-3	3.823104E-4	3.391926E-3	4.599535E-3	-2.766576E-3	-5.224858E-3	6.875016E-3	-8.080671E-3	6.090162E-3	8.219962E-3	-2.717716E-3	5.006326E-3	1.673285E-2	1.013964E-2	3.013102E-3	-2.011858E-3	4.259766E-3	9.123635E-3	5.806616E-3	2.280585E-3	-3.923972E-3	2.051900E-3	6.426054E-3	2.923909E-3	8.919938E-3	2.782549E-3	6.949552E-3	-1.062787E-3	-1.589479E-3	2.619770E-3	3.035473E-3	-3.101410E-4	3.408231E-3	9.030159E-3	3.878420E-3	1.115479E-2	3.039966E-3	1.026694E-2	1.869877E-3	5.375785E-3	-2.139619E-3	2.187806E-3	5.978124E-3	1.038778E-3	-2.010732E-4	8.354042E-4	-1.550886E-3	-6.145808E-3	-3.745580E-3	-4.892815E-4	1.154039E-2	1.398212E-3	-2.476655E-3	9.064558E-3	1.847810E-3	-1.145215E-3	5.445771E-3	3.493083E-3	1.020525E-2	-1.609067E-3	5.012056E-3	3.648162E-3	7.465622E-3	4.972205E-3	3.727764E-3	8.461355E-3	1.228687E-2	6.683034E-4	-2.584326E-3	1.223407E-2	9.922748E-3	9.587222E-3	-3.417020E-3	9.660098E-4	9.986213E-4	4.012657E-3	1.978031E-3	1.060244E-2	8.512751E-3	4.537432E-3	5.441237E-3	1.040818E-2	2.585732E-3	-4.970696E-3	-2.274969E-3	-4.971965E-3	1.200687E-2	7.075471E-3	1.106531E-2	-2.662481E-4	8.268149E-3	6.097863E-3	4.116869E-3	-4.525424E-3	4.378716E-4	9.739521E-4	-1.947462E-3	1.061729E-2	1.209046E-2	-9.713446E-4	-5.114306E-3	-3.842580E-4	9.514490E-3	-7.424296E-3	4.568954E-3	1.040523E-2	8.457439E-3	6.594556E-3	1.286807E-2	4.722128E-3	8.449296E-3	-2.699955E-3	3.690803E-3	-2.449043E-3	1.491188E-2	1.077957E-2	4.032844E-3	3.320317E-3	5.875143E-3	8.436210E-3	1.369300E-2	-2.259497E-3	8.372461E-3	-4.484070E-4	-2.140879E-3	-2.272708E-3	6.724505E-3	7.941181E-3	3.812596E-3	-2.358981E-3	1.366781E-3	3.905353E-3	1.385737E-2	-3.200215E-3	5.340739E-3
5.325170E+2	7.279067E-3	8.328662E-3	2.087035E-2	8.833416E-3	8.429323E-3	8.972604E-3	1.444632E-2	1.043843E-2	9.910239E-3	1.102477E-2	8.393913E-3	2.697917E-3	5.360127E-3	1.118551E-2	1.337745E-2	1.120737E-2	5.211497E-3	1.277479E-3	7.206897E-3	1.529967E-2	1.084601E-2	8.922454E-3	2.428645E-3	7.805802E-3	1.815980E-2	1.242726E-2	7.916475E-3	5.339284E-3	8.825735E-3	1.879995E-2	1.632300E-2	3.460198E-3	1.262973E-2	3.588050E-3	7.899005E-3	6.148806E-3	1.481263E-2	1.964984E-2	1.333103E-2	5.893208E-3	9.549149E-3	7.747176E-3	1.300677E-2	2.001800E-2	-8.579099E-5	1.332198E-2	8.153063E-3	1.140786E-2	4.768449E-3	9.560224E-3	5.671776E-3	1.120883E-2	1.208380E-2	5.608102E-3	1.388540E-2	6.841814E-3	5.045134E-3	-7.461273E-4	8.996511E-3	7.309806E-3	6.900387E-3	1.113026E-2	1.344789E-2	1.021926E-2	1.547676E-2	6.955978E-3	1.396306E-2	1.085541E-2	1.039106E-2	1.198548E-2	5.396031E-3	1.021211E-2	8.941004E-3	6.844651E-3	1.041773E-2	5.913344E-3	2.674500E-3	1.058913E-2	4.967730E-3	8.829799E-3	1.126017E-2	6.404528E-3	1.705985E-2	9.037997E-3	1.515251E-2	2.103923E-2	1.257388E-2	4.489034E-3	8.796368E-3	8.028591E-3	7.099359E-3	1.682583E-2	8.809304E-3	1.473921E-2	5.669552E-3	1.007775E-2	1.600000E-2	-2.525640E-3	1.100194E-2	1.958436E-2	9.827673E-3	6.020540E-3	1.426593E-2	1.069269E-2	1.399086E-2	1.951851E-2	7.240900E-3	6.391462E-3	4.783797E-3	1.571967E-2	1.025875E-2	4.012592E-3	3.057004E-3	1.114613E-2	4.668270E-3	1.466739E-2	4.494904E-3	3.807877E-3	2.260403E-2	4.518817E-4	4.024982E-3	6.343553E-3	8.919385E-3	1.179267E-3	1.005172E-2	5.058565E-3	8.268152E-3	1.087016E-2	9.539079E-3	1.478307E-2	1.515044E-2	1.441432E-2	8.213266E-3	1.209874E-2	1.493527E-2	1.748420E-2	1.233454E-2	1.575469E-2	8.467044E-3	1.599085E-2	6.637952E-3	2.312253E-3	1.363551E-2	8.198601E-3	1.173263E-2	8.122069E-3	1.013913E-2	1.049978E-2	1.425981E-2	7.543119E-3	3.853604E-3	1.028587E-2	1.416190E-2	-1.953340E-4	1.544320E-2	1.200923E-2	2.396243E-3	7.908257E-3	3.246477E-3	1.999963E-2	4.560943E-3	2.025692E-2	1.196444E-2	7.941163E-3	7.148669E-3	1.703711E-2	1.469283E-2	1.152071E-2	1.297287E-2	4.480286E-3	-3.204393E-3
5.330280E+2	3.201025E-2	3.000323E-2	1.907289E-2	1.567218E-2	2.565862E-2	2.990881E-2	3.140506E-2	2.215346E-2	2.257333E-2	3.044941E-2	3.480395E-2	2.280978E-2	2.281881E-2	1.454112E-2	1.865801E-2	2.595767E-2	2.408077E-2	1.824948E-2	3.083884E-2	3.041270E-2	2.992029E-3	3.271565E-2	2.654762E-2	1.962382E-2	2.256217E-2	2.861535E-2	2.392730E-2	3.057961E-2	2.461908E-2	2.193328E-2	2.720502E-2	1.470592E-2	2.045206E-2	2.357882E-2	2.128097E-2	3.643407E-2	1.382510E-2	2.010854E-2	2.658311E-2	1.408611E-2	2.721955E-2	7.747229E-3	2.582779E-2	1.120274E-2	1.483932E-2	3.316325E-2	1.956738E-2	3.553665E-2	1.881358E-2	1.651314E-2	2.268703E-2	3.075243E-2	2.981834E-2	2.569687E-2	3.105277E-2	1.459584E-2	8.408511E-3	1.716130E-2	2.287682E-2	2.101569E-2	3.467018E-2	1.279985E-2	2.752755E-2	3.425498E-2	2.852744E-2	8.040055E-3	1.881977E-2	2.450221E-2	2.186275E-2	2.577700E-2	2.461935E-2	1.869602E-2	2.771715E-2	1.882271E-2	1.736293E-2	3.010427E-2	1.765179E-2	2.581647E-2	3.174308E-2	2.960583E-2	2.332457E-2	2.032754E-2	2.869161E-2	1.934129E-2	3.098610E-2	2.103925E-2	2.445873E-2	1.022914E-2	1.699487E-2	1.217240E-2	1.643551E-2	1.682581E-2	1.793897E-2	1.627273E-2	3.004876E-2	1.617523E-2	1.715665E-2	2.160857E-2	2.691552E-2	2.262862E-2	2.609415E-2	1.773626E-2	3.108817E-2	2.021586E-2	2.414986E-2	2.456154E-2	3.137741E-2	1.491343E-2	2.067280E-2	3.100027E-2	1.189285E-2	2.594833E-2	2.085957E-2	2.528275E-2	3.322719E-2	1.086860E-2	2.909867E-2	2.563974E-2	2.160314E-2	1.888874E-2	1.924995E-2	1.354437E-2	2.795885E-2	1.415097E-2	2.120149E-2	1.357825E-2	2.761563E-2	1.458190E-2	2.761324E-2	1.840343E-2	3.354116E-2	1.616734E-2	2.650254E-2	2.098764E-2	2.821108E-2	2.331230E-2	3.519858E-2	3.823390E-2	3.360623E-2	1.370645E-2	1.956896E-2	2.370081E-2	2.295596E-2	2.210061E-2	1.854513E-2	2.228850E-2	2.253139E-2	2.249955E-2	1.375659E-2	2.811521E-2	2.597010E-2	1.966657E-2	2.597911E-2	2.441404E-2	2.350055E-2	2.630113E-2	2.498974E-2	2.372483E-2	1.247332E-2	2.107590E-2	1.405510E-2	2.974310E-2	3.240002E-2	1.264706E-2	1.858648E-2	2.856993E-2	2.648121E-2	2.792312E-2	2.093347E-2	3.904253E-2	2.029477E-2
5.331580E+2	2.832688E-2	2.879906E-2	2.027122E-2	2.365076E-2	2.287969E-2	2.941032E-2	4.208281E-2	2.440637E-2	1.816881E-2	3.884920E-2	2.927629E-2	2.918672E-2	3.246705E-2	3.323694E-2	2.816305E-2	2.118549E-2	1.815046E-2	1.605956E-2	3.335285E-2	6.343742E-3	3.272499E-2	2.859756E-2	2.303026E-2	2.618947E-2	1.981071E-2	2.076657E-2	3.513489E-2	2.863799E-2	2.136755E-2	1.827770E-2	2.663231E-2	4.065742E-2	2.289652E-2	1.896558E-2	2.797193E-2	2.431993E-2	2.518145E-2	1.873232E-2	2.894961E-2	2.227905E-2	2.025846E-2	2.234072E-2	3.530416E-2	1.561038E-2	2.667651E-2	2.919499E-2	2.608982E-2	3.159731E-2	1.829339E-2	3.157778E-2	2.321870E-2	3.650052E-2	1.938630E-2	2.218128E-2	3.155771E-2	1.642033E-2	1.513537E-2	1.716131E-2	3.418669E-2	1.991920E-2	2.810642E-2	2.393012E-2	3.240131E-2	2.444448E-2	2.702160E-2	2.538485E-2	3.035454E-2	2.698343E-2	2.685044E-2	4.400151E-2	2.714872E-2	2.529460E-2	1.859733E-2	2.395620E-2	3.018484E-2	1.989029E-2	2.407064E-2	1.478977E-2	3.275351E-2	2.700874E-2	3.056316E-2	1.921366E-2	2.927320E-2	2.259498E-2	2.077093E-2	3.424995E-2	2.497548E-2	2.744945E-2	1.648249E-2	3.548116E-2	3.102329E-2	2.845412E-2	2.226348E-2	1.933983E-2	2.551312E-2	1.922395E-2	2.236141E-2	3.002748E-2	2.868366E-2	1.288715E-2	2.812746E-2	3.238089E-2	1.772933E-2	2.472682E-2	3.591283E-2	3.072525E-2	3.084104E-2	2.290281E-2	2.631089E-2	3.785024E-2	3.041309E-2	2.755337E-2	2.301745E-2	3.071985E-2	2.993189E-2	3.429428E-2	3.004497E-2	1.599311E-2	3.361410E-2	2.919164E-2	2.292499E-2	2.794590E-2	2.384217E-2	3.537734E-2	3.285804E-2	2.263047E-2	2.761567E-2	2.518692E-2	3.243300E-2	2.745430E-2	2.513401E-2	2.843892E-2	3.056681E-2	1.654322E-2	3.864208E-2	2.428364E-2	3.339350E-2	2.901169E-2	2.784514E-2	2.284407E-2	1.594824E-2	3.063760E-2	2.399159E-2	2.905165E-2	2.422216E-2	2.512179E-2	3.267049E-2	2.729947E-2	2.331901E-2	3.340519E-2	3.300720E-2	2.361635E-2	2.654184E-2	2.675784E-2	3.609019E-2	2.034617E-2	2.498976E-2	1.525164E-2	3.861600E-2	1.999964E-2	3.136806E-2	1.077071E-2	3.397203E-2	2.088233E-2	2.859459E-2	3.695744E-2	3.314424E-2	3.026634E-2	3.773918E-2	3.008194E-2	2.883996E-2
5.333130E+2	5.621522E-2	4.144260E-2	2.506441E-2	3.447886E-2	3.788582E-2	3.389661E-2	4.585141E-2	3.431909E-2	3.853989E-2	2.572450E-2	4.401677E-2	3.409201E-2	3.752085E-2	2.748440E-2	3.661198E-2	2.986220E-2	3.055026E-2	3.138914E-2	2.933044E-2	3.321142E-2	4.394497E-2	2.722485E-2	4.061705E-2	3.012882E-2	3.907105E-2	4.480346E-2	3.780333E-2	3.494804E-2	3.808992E-2	4.125538E-2	4.610541E-2	3.849490E-2	4.147446E-2	3.690605E-2	5.696593E-2	4.799752E-2	3.456278E-2	3.020110E-2	4.835441E-2	2.529757E-2	3.310963E-2	4.233933E-2	3.586163E-2	3.930138E-2	4.160163E-2	4.846941E-2	3.696057E-2	5.523341E-2	3.025784E-2	4.374530E-2	3.704361E-2	2.098063E-2	4.650961E-2	3.373230E-2	4.216109E-2	3.922631E-2	3.923986E-2	3.394952E-2	4.241207E-2	2.704629E-2	3.820452E-2	2.726924E-2	4.702253E-2	3.817915E-2	3.103721E-2	4.056154E-2	4.492473E-2	4.497241E-2	4.480614E-2	3.661319E-2	4.738378E-2	4.838965E-2	4.595682E-2	3.650469E-2	3.980130E-2	3.440488E-2	4.653655E-2	4.104388E-2	1.860803E-2	2.648935E-2	2.996000E-2	3.981959E-2	4.381289E-2	3.181377E-2	2.945382E-2	5.626779E-2	3.324318E-2	4.466989E-2	4.056571E-2	3.858904E-2	4.386050E-2	3.849676E-2	3.571772E-2	3.263071E-2	3.061571E-2	3.548384E-2	4.260241E-2	3.283377E-2	4.695480E-2	4.211147E-2	4.490236E-2	5.385979E-2	4.741562E-2	2.873659E-2	5.195336E-2	4.193210E-2	3.405923E-2	2.929423E-2	4.937556E-2	4.417315E-2	4.403082E-2	3.878873E-2	3.218845E-2	3.180729E-2	4.366212E-2	2.859616E-2	4.092728E-2	3.680945E-2	3.261323E-2	4.003690E-2	3.657494E-2	5.160547E-2	3.156091E-2	4.009429E-2	2.677637E-2	4.286479E-2	4.299436E-2	3.154989E-2	4.448238E-2	5.822721E-2	3.932109E-2	4.713857E-2	4.834802E-2	5.308649E-2	3.959034E-2	3.399710E-2	6.227424E-2	5.033814E-2	4.355721E-2	2.855512E-2	3.663795E-2	4.508932E-2	4.884614E-2	4.028020E-2	5.033684E-2	5.515470E-2	4.675263E-2	3.329931E-2	4.546369E-2	4.339732E-2	3.300716E-2	3.941543E-2	4.004725E-2	2.558595E-2	3.860809E-2	3.166064E-2	3.525949E-2	4.519005E-2	5.348140E-2	4.529070E-2	4.700556E-2	4.278659E-2	4.235585E-2	3.264707E-2	3.383697E-2	4.377226E-2	5.620859E-2	3.846752E-2	5.189137E-2	3.648228E-2	5.020294E-2
5.334630E+2	5.095330E-2	6.070885E-2	4.783207E-2	4.986604E-2	6.234007E-2	4.137386E-2	4.710759E-2	6.540902E-2	6.111324E-2	4.357412E-2	4.831608E-2	5.714705E-2	4.165583E-2	5.289142E-2	5.192573E-2	5.285535E-2	3.971529E-2	4.343380E-2	4.843714E-2	5.728042E-2	4.562795E-2	5.101798E-2	5.820379E-2	5.726656E-2	4.237293E-2	6.736856E-2	6.181949E-2	5.387832E-2	5.667037E-2	4.282211E-2	5.526933E-2	5.060558E-2	4.440788E-2	4.049412E-2	6.365696E-2	4.304170E-2	4.690675E-2	5.038596E-2	4.030858E-2	5.289483E-2	5.881199E-2	6.125684E-2	6.819284E-2	5.582997E-2	5.652673E-2	5.357143E-2	5.815851E-2	6.065020E-2	5.470693E-2	5.185705E-2	4.874159E-2	4.052427E-2	5.016086E-2	5.532768E-2	5.326941E-2	4.561217E-2	6.054153E-2	6.360873E-2	5.475016E-2	4.239687E-2	5.890567E-2	5.843400E-2	5.460388E-2	6.368658E-2	5.462879E-2	5.302810E-2	5.099559E-2	4.993483E-2	6.026799E-2	5.828557E-2	5.800718E-2	5.875887E-2	4.005578E-2	3.992696E-2	5.796565E-2	3.924310E-2	6.151378E-2	4.786997E-2	4.689894E-2	6.544428E-2	4.323082E-2	4.316106E-2	6.009732E-2	5.133583E-2	4.426589E-2	5.871419E-2	5.546270E-2	4.555278E-2	4.978906E-2	6.604163E-2	6.019880E-2	4.748242E-2	5.445753E-2	4.387682E-2	7.540529E-2	6.444664E-2	5.012047E-2	5.416179E-2	6.463655E-2	7.011812E-2	3.524408E-2	6.459908E-2	5.434245E-2	4.678049E-2	4.821059E-2	3.913032E-2	6.087747E-2	5.486018E-2	4.835041E-2	6.472294E-2	4.403087E-2	4.948904E-2	4.675420E-2	5.409959E-2	5.794157E-2	6.848303E-2	5.180985E-2	7.438055E-2	5.263155E-2	5.901601E-2	5.232489E-2	4.749091E-2	5.523157E-2	6.662739E-2	5.617122E-2	5.617676E-2	4.597090E-2	5.275996E-2	5.954407E-2	6.184759E-2	6.559352E-2	6.466945E-2	5.850872E-2	5.012348E-2	6.234891E-2	6.119467E-2	5.204570E-2	6.013680E-2	5.403191E-2	4.511705E-2	4.594823E-2	6.763401E-2	4.418593E-2	5.097416E-2	5.374313E-2	5.685467E-2	5.858167E-2	5.789886E-2	5.955569E-2	4.986288E-2	5.713423E-2	5.274590E-2	5.636629E-2	5.605472E-2	5.119763E-2	4.893010E-2	5.015069E-2	4.180079E-2	5.963264E-2	4.582879E-2	4.309620E-2	7.005931E-2	4.759572E-2	6.558827E-2	5.337663E-2	7.155603E-2	6.338417E-2	5.486998E-2	5.896745E-2	6.592417E-2	6.515692E-2
5.336130E+2	7.463209E-2	6.853578E-2	6.400907E-2	7.209208E-2	6.289596E-2	7.477201E-2	6.343822E-2	6.315615E-2	5.946154E-2	6.194884E-2	6.059983E-2	6.744828E-2	5.865505E-2	6.919033E-2	7.832853E-2	7.671624E-2	6.774970E-2	5.493103E-2	5.044834E-2	7.127396E-2	6.470195E-2	7.801427E-2	6.423363E-2	6.426997E-2	6.273385E-2	8.061332E-2	8.530177E-2	6.698364E-2	6.085099E-2	6.214415E-2	8.848805E-2	7.352940E-2	6.151918E-2	8.406381E-2	6.923290E-2	6.616861E-2	7.653202E-2	6.277240E-2	8.195812E-2	7.704242E-2	7.166315E-2	7.855300E-2	7.320960E-2	7.676626E-2	6.939318E-2	7.284584E-2	6.794205E-2	7.640776E-2	4.846456E-2	7.039816E-2	6.043954E-2	6.811518E-2	6.476587E-2	6.788314E-2	7.195147E-2	7.890892E-2	8.296409E-2	6.584715E-2	7.736981E-2	8.077355E-2	8.213134E-2	6.344259E-2	7.464024E-2	5.142326E-2	6.717744E-2	5.573829E-2	6.192322E-2	6.172071E-2	7.223852E-2	7.897265E-2	7.014824E-2	7.242722E-2	5.454012E-2	5.190513E-2	5.796562E-2	5.483282E-2	7.756086E-2	5.994679E-2	6.559129E-2	6.492493E-2	6.796293E-2	7.045001E-2	6.882108E-2	6.109688E-2	5.907795E-2	5.920336E-2	8.439992E-2	7.116247E-2	6.669864E-2	7.536518E-2	8.645663E-2	6.228194E-2	6.166513E-2	5.716771E-2	6.009747E-2	7.156035E-2	6.689157E-2	6.426443E-2	7.053047E-2	4.941752E-2	5.862726E-2	7.777930E-2	8.749212E-2	5.630365E-2	6.264692E-2	6.882835E-2	7.696850E-2	6.231691E-2	6.731481E-2	6.630358E-2	6.091688E-2	6.607457E-2	6.833299E-2	6.660491E-2	5.794155E-2	8.177856E-2	6.742379E-2	7.234964E-2	6.614398E-2	6.389641E-2	6.019983E-2	6.394979E-2	7.478550E-2	5.719336E-2	7.695025E-2	5.617676E-2	6.680652E-2	7.556073E-2	6.255649E-2	5.762385E-2	8.188249E-2	6.759127E-2	6.409710E-2	6.246914E-2	8.131442E-2	6.410882E-2	8.453669E-2	6.417150E-2	7.812371E-2	6.681896E-2	7.336202E-2	7.803920E-2	7.266517E-2	6.808409E-2	6.112340E-2	7.952084E-2	8.054967E-2	6.809860E-2	7.968713E-2	7.690038E-2	7.472677E-2	6.459524E-2	4.736268E-2	7.773427E-2	5.019052E-2	6.858151E-2	6.093384E-2	6.891481E-2	6.937198E-2	5.981948E-2	5.817524E-2	8.073123E-2	6.174349E-2	6.500009E-2	8.816658E-2	6.736216E-2	7.568507E-2	7.127234E-2	7.577320E-2	6.080393E-2	5.874813E-2
5.337580E+2	9.778453E-2	1.257323E-1	1.095445E-1	1.011570E-1	8.735034E-2	9.820063E-2	1.331577E-1	1.145221E-1	1.002036E-1	1.086728E-1	1.201762E-1	1.022758E-1	8.943760E-2	1.123344E-1	1.026188E-1	1.062170E-1	1.011753E-1	1.047520E-1	7.558869E-2	1.037389E-1	1.011670E-1	9.723180E-2	7.981034E-2	1.181078E-1	8.639666E-2	9.189635E-2	8.797063E-2	1.029027E-1	9.568938E-2	9.713289E-2	1.073882E-1	1.076990E-1	9.085270E-2	9.739068E-2	1.021296E-1	1.047134E-1	9.973840E-2	7.102994E-2	1.127219E-1	1.119703E-1	9.361715E-2	1.109828E-1	1.021959E-1	1.230464E-1	1.023314E-1	8.191612E-2	9.077044E-2	1.143246E-1	9.476154E-2	9.125648E-2	7.745470E-2	1.186984E-1	1.038859E-1	8.244746E-2	8.861389E-2	1.135741E-1	9.529689E-2	9.942339E-2	1.082151E-1	1.147639E-1	1.013179E-1	9.961612E-2	9.413527E-2	9.802295E-2	9.880018E-2	9.964221E-2	1.098832E-1	1.163077E-1	9.218932E-2	1.045859E-1	1.030304E-1	1.157896E-1	1.006759E-1	1.020989E-1	1.065819E-1	1.042896E-1	8.237498E-2	9.775240E-2	1.034808E-1	1.028410E-1	1.029498E-1	9.216986E-2	1.269798E-1	1.120714E-1	9.278777E-2	1.110676E-1	1.329728E-1	1.117849E-1	9.693060E-2	9.504812E-2	1.220507E-1	1.103808E-1	9.674225E-2	1.231108E-1	1.150924E-1	1.137344E-1	8.077101E-2	1.181457E-1	1.011787E-1	7.985955E-2	1.048851E-1	1.070684E-1	9.887212E-2	9.840604E-2	1.134419E-1	9.684523E-2	1.016413E-1	1.033287E-1	9.037960E-2	9.739161E-2	8.815248E-2	8.854520E-2	9.692488E-2	1.073838E-1	1.007799E-1	1.039379E-1	9.344682E-2	9.925870E-2	8.716321E-2	1.175802E-1	1.074500E-1	9.275285E-2	1.118354E-1	9.080185E-2	1.154677E-1	9.132061E-2	9.210744E-2	1.153293E-1	1.005121E-1	9.503399E-2	1.044766E-1	8.103151E-2	1.194727E-1	9.407415E-2	8.984856E-2	7.770746E-2	9.837547E-2	1.045190E-1	1.111190E-1	9.880076E-2	9.974131E-2	1.017399E-1	1.177142E-1	9.642268E-2	8.780546E-2	1.072869E-1	1.047709E-1	9.389807E-2	1.113944E-1	1.203958E-1	8.679058E-2	9.471226E-2	9.406884E-2	1.064454E-1	1.096133E-1	9.716540E-2	1.148502E-1	9.715871E-2	8.116192E-2	1.050205E-1	8.442376E-2	1.097828E-1	1.120465E-1	1.038232E-1	1.086596E-1	1.281715E-1	1.131004E-1	1.122785E-1	1.076157E-1	1.196877E-1	7.370212E-2
5.339140E+2	1.630330E-1	1.889502E-1	1.448941E-1	1.501678E-1	1.668268E-1	1.639998E-1	1.639341E-1	1.609317E-1	1.734296E-1	1.301974E-1	1.582558E-1	1.434809E-1	1.358409E-1	1.439736E-1	1.617614E-1	1.817034E-1	1.453835E-1	1.343165E-1	1.379369E-1	1.569147E-1	1.662428E-1	1.448180E-1	1.486499E-1	1.566258E-1	1.656396E-1	1.502714E-1	1.728277E-1	1.543540E-1	1.370308E-1	1.472662E-1	1.640895E-1	1.959342E-1	1.407201E-1	1.583884E-1	1.762880E-1	1.900628E-1	1.609638E-1	1.448890E-1	1.789826E-1	1.951934E-1	1.723310E-1	1.693573E-1	1.780072E-1	1.770398E-1	1.347550E-1	1.805552E-1	1.516471E-1	1.798169E-1	1.405386E-1	1.677383E-1	1.545551E-1	1.618094E-1	1.477006E-1	1.321670E-1	1.673820E-1	1.851853E-1	1.586414E-1	1.704936E-1	1.524265E-1	1.630084E-1	1.457497E-1	1.964495E-1	1.315006E-1	1.769976E-1	1.680694E-1	1.381262E-1	1.711995E-1	1.553870E-1	1.455573E-1	1.425123E-1	1.698058E-1	1.704636E-1	1.468115E-1	1.676934E-1	1.562666E-1	1.472958E-1	1.476330E-1	1.513109E-1	1.575365E-1	1.636108E-1	1.723204E-1	1.534305E-1	1.607119E-1	1.728064E-1	1.576546E-1	1.575499E-1	1.789620E-1	1.762508E-1	1.553454E-1	1.566872E-1	1.769009E-1	1.590085E-1	1.471956E-1	1.445807E-1	1.876630E-1	1.706440E-1	1.403372E-1	1.422798E-1	1.677802E-1	1.602266E-1	1.445349E-1	1.680879E-1	1.706141E-1	1.410099E-1	1.492656E-1	1.629651E-1	1.708324E-1	1.544605E-1	1.529103E-1	1.600946E-1	1.426235E-1	1.639827E-1	1.481747E-1	1.519682E-1	1.628404E-1	1.672504E-1	1.426545E-1	1.490153E-1	1.667364E-1	1.690947E-1	1.604745E-1	1.642464E-1	1.560894E-1	1.668632E-1	1.788188E-1	1.520233E-1	1.675127E-1	1.694151E-1	1.414800E-1	1.571835E-1	1.554455E-1	1.745297E-1	1.692603E-1	1.553087E-1	1.804087E-1	1.486159E-1	1.934416E-1	1.840610E-1	1.503989E-1	1.907483E-1	1.514653E-1	1.572343E-1	1.508533E-1	1.653980E-1	1.587690E-1	1.503531E-1	1.616630E-1	1.478970E-1	1.622266E-1	1.803487E-1	1.717377E-1	1.598839E-1	1.565313E-1	1.878909E-1	1.514107E-1	1.680297E-1	1.667125E-1	1.632490E-1	1.693289E-1	1.582932E-1	1.520003E-1	1.761860E-1	1.560618E-1	1.544120E-1	1.448793E-1	1.790209E-1	1.535911E-1	1.357100E-1	1.695313E-1	1.516896E-1	1.570178E-1
5.340800E+2	2.809004E-1	2.798627E-1	2.197879E-1	2.641477E-1	2.457482E-1	2.582123E-1	2.713399E-1	2.722245E-1	2.571158E-1	2.598700E-1	2.663526E-1	2.533601E-1	2.226749E-1	2.106070E-1	2.620923E-1	2.697718E-1	2.240951E-1	2.673552E-1	2.239170E-1	2.655051E-1	2.571248E-1	2.532599E-1	2.717572E-1	2.730564E-1	2.619417E-1	2.518149E-1	2.806340E-1	2.587131E-1	2.290039E-1	2.569325E-1	2.437000E-1	2.660034E-1	2.404542E-1	2.557794E-1	2.844583E-1	2.814690E-1	2.315705E-1	2.274638E-1	2.779002E-1	2.805724E-1	2.617532E-1	2.552967E-1	2.610649E-1	2.679477E-1	2.309964E-1	2.616215E-1	2.565493E-1	2.866732E-1	2.565413E-1	2.691350E-1	2.359094E-1	3.112607E-1	2.598451E-1	2.682682E-1	2.446351E-1	2.910051E-1	2.432875E-1	2.661870E-1	2.763214E-1	3.126771E-1	2.265345E-1	2.866047E-1	2.679654E-1	2.893276E-1	2.840193E-1	2.438205E-1	2.513354E-1	2.844115E-1	2.498001E-1	2.375752E-1	2.775578E-1	2.741557E-1	2.589320E-1	2.412730E-1	2.529649E-1	2.682506E-1	2.497998E-1	2.558023E-1	2.383682E-1	2.695680E-1	2.682325E-1	2.614724E-1	2.933134E-1	2.677051E-1	2.526559E-1	2.695959E-1	2.621559E-1	2.680921E-1	2.839597E-1	2.851446E-1	3.239454E-1	2.700057E-1	2.346478E-1	2.468179E-1	2.970861E-1	2.839553E-1	2.305542E-1	2.483581E-1	2.408641E-1	2.917363E-1	2.355253E-1	2.671830E-1	2.507669E-1	2.442610E-1	2.513901E-1	2.531799E-1	2.620148E-1	2.210386E-1	2.482445E-1	2.681126E-1	2.548342E-1	2.688458E-1	2.560689E-1	2.443997E-1	2.600502E-1	2.729826E-1	2.576295E-1	2.302502E-1	2.393026E-1	2.818853E-1	2.859490E-1	2.480839E-1	2.404801E-1	2.812502E-1	2.431834E-1	2.744943E-1	2.444065E-1	2.717536E-1	2.686011E-1	2.682071E-1	2.479242E-1	2.691964E-1	2.464819E-1	2.560494E-1	2.501066E-1	2.637204E-1	2.439833E-1	2.532279E-1	2.666676E-1	3.118218E-1	2.466379E-1	2.439447E-1	2.311131E-1	2.814272E-1	2.507383E-1	2.563184E-1	2.692504E-1	3.032939E-1	2.815057E-1	2.996664E-1	2.667382E-1	2.951629E-1	2.572591E-1	2.652346E-1	2.556528E-1	2.895116E-1	2.432221E-1	2.762240E-1	2.457069E-1	2.831338E-1	2.558778E-1	2.609683E-1	2.550955E-1	2.567649E-1	2.559214E-1	2.780983E-1	2.637870E-1	2.774744E-1	2.730196E-1	2.886585E-1	2.873317E-1
5.342040E+2	4.708575E-1	5.056392E-1	4.366802E-1	4.459448E-1	4.241543E-1	4.571056E-1	4.962000E-1	4.646219E-1	4.283431E-1	4.294414E-1	5.304534E-1	4.495732E-1	4.110447E-1	4.373529E-1	4.680347E-1	4.554526E-1	4.246486E-1	4.184618E-1	3.833069E-1	4.530190E-1	4.231801E-1	4.536717E-1	4.566692E-1	4.507651E-1	4.396875E-1	4.303746E-1	4.444782E-1	4.640324E-1	4.041249E-1	4.182986E-1	4.876865E-1	4.692905E-1	4.237893E-1	4.608125E-1	5.186417E-1	4.609776E-1	4.330223E-1	4.348193E-1	4.345595E-1	5.259299E-1	4.657659E-1	4.569036E-1	4.712173E-1	5.164279E-1	4.275965E-1	4.407598E-1	4.728775E-1	5.274694E-1	4.432904E-1	4.678718E-1	3.986175E-1	4.808296E-1	4.304096E-1	4.716664E-1	4.885128E-1	5.008209E-1	4.675147E-1	4.732414E-1	4.577936E-1	4.870157E-1	4.310218E-1	5.064279E-1	4.450437E-1	5.394953E-1	4.607056E-1	4.275675E-1	4.571390E-1	4.822903E-1	4.503055E-1	4.508511E-1	4.601792E-1	4.565598E-1	4.552772E-1	4.614415E-1	4.346084E-1	4.467263E-1	4.503878E-1	4.490321E-1	4.550968E-1	5.007011E-1	4.208476E-1	4.318888E-1	4.834925E-1	4.710602E-1	4.360187E-1	4.393775E-1	5.065711E-1	4.451527E-1	4.648397E-1	4.586655E-1	5.281735E-1	4.803726E-1	4.297338E-1	4.472030E-1	4.654723E-1	4.846630E-1	4.190841E-1	4.599539E-1	5.131626E-1	4.847382E-1	4.358065E-1	4.375486E-1	4.377909E-1	4.096637E-1	4.465494E-1	4.498591E-1	4.813883E-1	4.165114E-1	4.507014E-1	4.836217E-1	4.296868E-1	4.561020E-1	4.518971E-1	4.482929E-1	4.374449E-1	4.439258E-1	4.369531E-1	4.343522E-1	4.464926E-1	5.540991E-1	4.654992E-1	4.553640E-1	4.411664E-1	4.545992E-1	4.362773E-1	4.597973E-1	4.244869E-1	4.647645E-1	4.553667E-1	4.540518E-1	4.628328E-1	4.620358E-1	4.918630E-1	4.456790E-1	4.587266E-1	4.337057E-1	4.990971E-1	4.572704E-1	4.630678E-1	4.877209E-1	4.209486E-1	4.572521E-1	4.366816E-1	4.899567E-1	4.483007E-1	4.308490E-1	4.607670E-1	4.868902E-1	4.314859E-1	4.965717E-1	4.471885E-1	4.832712E-1	4.378939E-1	4.849611E-1	4.384536E-1	5.128231E-1	4.537519E-1	4.846635E-1	4.415206E-1	4.784670E-1	4.468793E-1	4.785570E-1	4.264405E-1	4.432351E-1	4.203405E-1	4.814954E-1	4.411260E-1	4.719595E-1	4.605363E-1	5.229146E-1	4.966893E-1
5.343600E+2	9.202289E-1	8.668818E-1	7.278664E-1	7.411528E-1	7.715182E-1	8.254826E-1	8.517052E-1	7.998528E-1	7.889667E-1	7.874844E-1	8.363194E-1	8.101147E-1	7.004915E-1	7.719592E-1	8.308102E-1	7.842980E-1	7.669909E-1	7.715888E-1	6.618623E-1	7.855064E-1	7.805368E-1	7.922666E-1	7.440878E-1	7.799205E-1	8.133391E-1	7.845509E-1	8.495518E-1	8.319584E-1	6.870125E-1	7.582642E-1	8.599658E-1	8.438580E-1	7.537926E-1	7.714386E-1	9.056022E-1	8.436731E-1	7.895127E-1	7.004356E-1	7.791151E-1	8.713278E-1	8.298828E-1	7.660707E-1	7.917424E-1	8.965858E-1	6.916163E-1	8.188774E-1	7.941080E-1	8.889091E-1	7.429209E-1	8.352160E-1	7.064871E-1	8.694028E-1	7.840564E-1	7.935883E-1	7.611716E-1	8.766647E-1	8.021746E-1	8.330692E-1	8.119988E-1	8.609127E-1	7.304308E-1	9.210304E-1	7.726673E-1	9.127848E-1	8.020314E-1	7.029162E-1	8.335356E-1	8.848707E-1	8.198943E-1	7.838183E-1	8.319985E-1	8.364504E-1	7.996854E-1	8.464521E-1	7.936210E-1	7.703477E-1	8.146565E-1	7.798334E-1	7.511410E-1	8.320780E-1	8.002729E-1	8.050235E-1	8.405866E-1	8.240842E-1	7.455391E-1	7.735592E-1	8.662180E-1	8.275321E-1	7.850955E-1	8.129595E-1	9.080393E-1	8.366223E-1	7.632064E-1	7.677166E-1	9.099673E-1	8.799817E-1	7.504578E-1	7.877305E-1	8.267190E-1	8.183827E-1	7.596114E-1	7.694935E-1	7.880891E-1	7.620205E-1	8.037176E-1	8.034333E-1	8.235893E-1	7.360853E-1	7.971841E-1	8.182138E-1	7.320020E-1	8.092132E-1	7.604748E-1	8.441168E-1	7.889389E-1	8.124055E-1	7.189499E-1	7.841694E-1	7.647843E-1	8.550540E-1	7.972980E-1	7.984296E-1	7.895368E-1	7.606132E-1	8.209446E-1	7.899359E-1	7.791903E-1	8.417730E-1	7.879304E-1	8.215172E-1	7.980697E-1	8.044724E-1	8.220859E-1	7.306174E-1	8.062678E-1	8.183583E-1	8.228039E-1	8.175150E-1	7.893541E-1	8.309536E-1	7.514655E-1	8.231693E-1	7.846456E-1	8.893721E-1	8.150404E-1	7.770771E-1	7.711368E-1	8.258837E-1	8.049257E-1	8.480602E-1	7.261576E-1	8.249264E-1	8.126685E-1	8.001959E-1	8.292346E-1	8.397513E-1	7.423321E-1	8.134210E-1	7.788125E-1	8.793562E-1	7.490181E-1	8.651185E-1	7.612700E-1	7.561759E-1	7.882572E-1	8.662720E-1	7.665895E-1	8.105518E-1	8.152251E-1	8.352526E-1	8.043151E-1
5.345160E+2	1.292775E+0	1.280505E+0	1.118512E+0	1.144070E+0	1.165011E+0	1.138527E+0	1.302683E+0	1.239617E+0	1.128668E+0	1.135553E+0	1.236155E+0	1.161336E+0	1.049664E+0	1.063422E+0	1.235830E+0	1.182122E+0	1.164863E+0	1.134572E+0	9.801394E-1	1.144302E+0	1.182773E+0	1.119881E+0	1.125971E+0	1.125270E+0	1.167730E+0	1.183856E+0	1.183109E+0	1.133870E+0	1.049331E+0	1.050185E+0	1.279782E+0	1.196365E+0	1.057886E+0	1.122046E+0	1.299809E+0	1.201591E+0	1.098603E+0	1.088997E+0	1.160115E+0	1.309434E+0	1.198284E+0	1.163880E+0	1.125646E+0	1.277845E+0	1.033350E+0	1.195862E+0	1.116426E+0	1.307472E+0	1.098214E+0	1.244277E+0	1.005849E+0	1.206244E+0	1.110059E+0	1.154181E+0	1.162081E+0	1.207352E+0	1.214753E+0	1.196256E+0	1.197049E+0	1.236456E+0	1.042967E+0	1.264955E+0	1.153360E+0	1.253208E+0	1.178994E+0	1.068240E+0	1.213574E+0	1.243409E+0	1.094217E+0	1.132055E+0	1.200784E+0	1.201729E+0	1.178965E+0	1.140201E+0	1.178279E+0	1.111171E+0	1.120621E+0	1.133214E+0	1.131553E+0	1.152031E+0	1.092232E+0	1.174817E+0	1.218037E+0	1.179820E+0	1.159766E+0	1.104318E+0	1.274955E+0	1.160018E+0	1.146856E+0	1.176060E+0	1.275650E+0	1.190757E+0	1.126951E+0	1.147017E+0	1.239369E+0	1.220423E+0	1.118843E+0	1.150305E+0	1.159135E+0	1.247007E+0	1.114424E+0	1.112667E+0	1.138882E+0	1.122396E+0	1.081753E+0	1.174378E+0	1.156137E+0	1.078029E+0	1.071910E+0	1.173355E+0	1.100772E+0	1.207265E+0	1.089552E+0	1.191006E+0	1.134392E+0	1.201144E+0	1.104093E+0	1.117233E+0	1.111602E+0	1.279642E+0	1.143796E+0	1.191900E+0	1.122471E+0	1.157430E+0	1.074855E+0	1.141374E+0	1.085774E+0	1.132881E+0	1.117482E+0	1.146141E+0	1.092321E+0	1.186646E+0	1.167043E+0	1.083210E+0	1.096439E+0	1.165614E+0	1.179603E+0	1.128766E+0	1.144446E+0	1.256425E+0	1.058190E+0	1.161917E+0	1.151251E+0	1.327822E+0	1.088676E+0	1.113105E+0	1.147411E+0	1.199676E+0	1.150685E+0	1.214244E+0	1.102138E+0	1.171519E+0	1.131171E+0	1.162304E+0	1.111747E+0	1.200027E+0	1.080720E+0	1.164774E+0	1.099701E+0	1.291008E+0	1.081873E+0	1.188834E+0	1.110248E+0	1.129118E+0	1.131391E+0	1.191810E+0	1.087438E+0	1.119855E+0	1.177875E+0	1.191116E+0	1.122622E+0
5.346560E+2	1.816343E+0	1.774206E+0	1.548099E+0	1.578333E+0	1.680221E+0	1.562235E+0	1.790715E+0	1.596474E+0	1.571878E+0	1.529294E+0	1.765586E+0	1.598402E+0	1.638664E+0	1.477123E+0	1.613922E+0	1.625937E+0	1.743882E+0	1.521646E+0	1.305454E+0	1.574184E+0	1.708428E+0	1.541292E+0	1.526950E+0	1.548534E+0	1.675656E+0	1.598864E+0	1.679444E+0	1.563925E+0	1.607672E+0	1.432973E+0	1.800400E+0	1.621106E+0	1.682690E+0	1.567993E+0	1.809996E+0	1.660825E+0	1.578529E+0	1.512883E+0	1.626778E+0	1.722531E+0	1.700548E+0	1.566552E+0	1.576052E+0	1.729078E+0	1.542862E+0	1.607425E+0	1.578977E+0	1.759021E+0	1.500841E+0	1.633638E+0	1.438141E+0	1.646549E+0	1.616537E+0	1.604168E+0	1.572584E+0	1.658455E+0	1.601545E+0	1.728440E+0	1.643277E+0	1.666271E+0	1.443359E+0	1.711282E+0	1.563838E+0	1.770711E+0	1.575535E+0	1.470964E+0	1.608788E+0	1.719804E+0	1.573537E+0	1.605889E+0	1.633305E+0	1.644778E+0	1.609207E+0	1.529774E+0	1.625438E+0	1.542845E+0	1.518051E+0	1.528599E+0	1.618560E+0	1.626239E+0	1.574810E+0	1.654319E+0	1.689705E+0	1.593036E+0	1.516278E+0	1.549564E+0	1.707460E+0	1.579927E+0	1.601877E+0	1.582149E+0	1.858577E+0	1.630518E+0	1.478682E+0	1.553409E+0	1.644743E+0	1.756997E+0	1.464097E+0	1.519055E+0	1.587624E+0	1.713380E+0	1.526171E+0	1.532479E+0	1.548060E+0	1.490796E+0	1.532490E+0	1.569417E+0	1.577183E+0	1.415711E+0	1.446584E+0	1.566435E+0	1.471175E+0	1.618159E+0	1.472039E+0	1.616191E+0	1.517738E+0	1.634203E+0	1.456116E+0	1.519852E+0	1.569022E+0	1.646210E+0	1.529147E+0	1.568915E+0	1.549056E+0	1.556013E+0	1.546186E+0	1.549785E+0	1.528287E+0	1.595261E+0	1.572951E+0	1.581189E+0	1.544209E+0	1.589274E+0	1.598364E+0	1.546420E+0	1.544971E+0	1.603204E+0	1.606198E+0	1.511490E+0	1.566051E+0	1.671045E+0	1.448189E+0	1.611077E+0	1.499732E+0	1.735258E+0	1.517867E+0	1.493334E+0	1.480313E+0	1.601668E+0	1.539728E+0	1.683286E+0	1.467058E+0	1.689928E+0	1.517761E+0	1.605272E+0	1.533748E+0	1.647844E+0	1.449918E+0	1.615548E+0	1.487227E+0	1.648308E+0	1.410820E+0	1.689823E+0	1.479139E+0	1.472058E+0	1.539343E+0	1.663086E+0	1.474406E+0	1.530500E+0	1.544949E+0	1.641704E+0	1.552019E+0
5.348230E+2	2.072074E+0	2.078852E+0	1.817120E+0	1.878098E+0	1.963117E+0	1.921639E+0	2.137432E+0	1.970454E+0	1.900566E+0	1.950334E+0	2.099703E+0	1.944716E+0	2.015866E+0	1.733110E+0	2.004154E+0	1.899250E+0	2.147682E+0	1.829331E+0	1.606136E+0	1.973282E+0	2.019783E+0	1.853351E+0	1.859591E+0	1.869812E+0	2.020692E+0	1.905453E+0	2.014604E+0	1.903700E+0	1.996936E+0	1.779726E+0	2.042095E+0	1.994810E+0	2.014163E+0	1.835052E+0	2.138410E+0	1.989007E+0	1.931566E+0	1.792721E+0	1.868156E+0	2.000230E+0	2.136958E+0	1.958418E+0	1.816866E+0	2.017226E+0	1.999881E+0	1.941895E+0	1.925753E+0	2.087471E+0	2.101142E+0	1.943045E+0	1.712512E+0	2.028224E+0	1.964445E+0	1.855277E+0	1.897754E+0	2.032020E+0	2.095410E+0	2.042380E+0	1.931676E+0	2.080739E+0	1.997744E+0	2.072460E+0	1.856802E+0	2.051782E+0	2.042346E+0	1.782630E+0	2.010078E+0	2.051055E+0	1.935142E+0	1.844781E+0	1.873599E+0	1.963865E+0	1.979361E+0	1.945585E+0	1.929429E+0	1.795504E+0	1.833111E+0	1.837349E+0	1.841355E+0	1.998130E+0	1.970522E+0	1.918858E+0	1.964210E+0	1.977514E+0	1.829370E+0	1.870046E+0	2.065040E+0	1.886362E+0	1.939039E+0	1.885166E+0	2.135162E+0	1.954526E+0	1.806386E+0	1.805426E+0	2.031410E+0	1.977012E+0	1.791422E+0	1.784532E+0	1.982514E+0	2.003792E+0	1.778302E+0	1.806335E+0	1.826123E+0	1.831126E+0	1.797695E+0	1.865835E+0	1.916704E+0	1.747537E+0	1.752062E+0	1.913672E+0	1.764229E+0	1.962173E+0	1.877180E+0	1.891312E+0	1.818156E+0	1.957096E+0	1.791580E+0	1.820929E+0	1.776712E+0	2.107132E+0	1.839418E+0	1.887804E+0	1.807889E+0	1.859668E+0	1.762089E+0	1.919860E+0	1.828417E+0	1.937802E+0	1.830204E+0	1.891930E+0	1.812190E+0	1.879114E+0	1.898105E+0	1.713828E+0	1.797211E+0	1.915494E+0	1.845669E+0	1.796228E+0	1.874007E+0	1.999429E+0	1.767327E+0	1.947512E+0	1.766402E+0	2.088691E+0	1.828971E+0	1.772697E+0	1.807018E+0	1.964064E+0	1.905615E+0	2.033014E+0	1.717881E+0	1.974310E+0	1.848645E+0	1.923436E+0	1.796115E+0	2.064095E+0	1.723608E+0	1.868046E+0	1.791713E+0	1.924359E+0	1.724130E+0	1.899109E+0	1.731700E+0	1.783824E+0	1.758090E+0	1.919952E+0	1.823448E+0	1.761306E+0	1.940325E+0	1.892600E+0	1.814782E+0
5.349580E+2	2.159419E+0	2.075843E+0	1.768588E+0	1.871259E+0	1.878078E+0	1.872290E+0	2.058914E+0	1.934412E+0	1.892860E+0	1.884189E+0	2.013104E+0	1.900078E+0	1.944654E+0	1.706747E+0	1.999404E+0	1.901417E+0	2.025305E+0	1.830974E+0	1.543787E+0	1.883722E+0	2.056808E+0	1.860669E+0	1.841502E+0	1.850115E+0	2.080121E+0	1.824020E+0	1.964437E+0	1.921173E+0	2.011797E+0	1.757276E+0	1.988257E+0	1.894032E+0	2.019540E+0	1.811984E+0	2.078191E+0	1.966430E+0	1.918233E+0	1.724367E+0	1.881883E+0	1.978236E+0	2.159444E+0	1.853560E+0	1.839721E+0	2.013922E+0	1.967971E+0	1.876703E+0	1.858355E+0	2.057925E+0	2.060049E+0	1.984182E+0	1.703475E+0	2.079381E+0	1.934190E+0	1.871351E+0	1.837161E+0	2.008755E+0	2.024219E+0	1.942770E+0	1.875127E+0	1.984796E+0	1.980577E+0	2.014026E+0	1.849223E+0	2.040013E+0	2.021767E+0	1.666094E+0	1.916583E+0	1.987780E+0	1.929655E+0	1.806363E+0	1.966172E+0	1.961981E+0	1.991166E+0	1.853750E+0	1.861576E+0	1.749813E+0	2.094144E+0	1.793239E+0	1.816597E+0	1.938396E+0	2.048946E+0	1.893796E+0	1.995040E+0	1.873936E+0	1.912624E+0	1.836776E+0	2.029901E+0	1.839558E+0	1.920590E+0	1.760851E+0	2.096067E+0	1.888985E+0	1.887115E+0	1.775262E+0	2.016668E+0	1.987178E+0	1.974749E+0	1.805297E+0	1.910019E+0	2.005015E+0	1.821003E+0	1.791200E+0	1.815236E+0	1.818092E+0	1.820148E+0	1.823810E+0	1.905438E+0	1.672437E+0	1.861750E+0	1.821990E+0	1.790379E+0	1.870686E+0	1.790865E+0	1.848359E+0	1.756098E+0	1.888721E+0	1.774073E+0	1.793003E+0	1.775709E+0	2.022539E+0	1.807395E+0	1.873404E+0	1.818699E+0	1.799530E+0	1.751445E+0	1.850110E+0	1.755989E+0	1.843947E+0	1.853098E+0	1.856935E+0	1.734418E+0	1.862750E+0	1.833078E+0	1.762714E+0	1.728936E+0	1.808645E+0	1.864923E+0	1.840609E+0	1.847294E+0	1.934892E+0	1.744052E+0	1.874672E+0	1.767434E+0	2.035754E+0	1.720539E+0	1.745497E+0	1.766460E+0	1.917863E+0	1.825593E+0	1.996569E+0	1.738492E+0	1.920991E+0	1.830077E+0	1.880662E+0	1.792592E+0	2.004546E+0	1.712824E+0	1.851100E+0	1.676890E+0	2.015839E+0	1.695086E+0	1.915117E+0	1.725935E+0	1.767354E+0	1.724254E+0	1.900032E+0	1.735291E+0	1.736701E+0	1.788189E+0	1.804275E+0	1.759239E+0
5.351090E+2	2.208880E+0	2.172772E+0	1.879431E+0	1.940220E+0	2.027031E+0	1.958523E+0	2.133031E+0	1.993888E+0	2.002971E+0	1.982362E+0	2.127344E+0	2.027615E+0	2.063645E+0	1.847685E+0	2.022635E+0	1.946538E+0	2.137981E+0	1.867110E+0	1.618705E+0	1.963768E+0	2.113473E+0	1.901393E+0	1.908331E+0	1.903513E+0	2.070221E+0	1.915265E+0	2.081316E+0	1.954181E+0	2.057786E+0	1.889917E+0	2.138316E+0	1.973182E+0	2.116341E+0	1.933465E+0	2.184133E+0	2.012682E+0	2.009577E+0	1.851439E+0	2.007304E+0	2.075261E+0	2.148736E+0	1.967606E+0	1.958454E+0	2.060749E+0	2.111048E+0	1.910713E+0	1.942605E+0	2.151980E+0	2.125072E+0	2.058345E+0	1.707726E+0	2.021900E+0	2.026513E+0	1.969279E+0	1.961879E+0	2.111382E+0	2.197435E+0	2.032866E+0	2.030379E+0	2.107601E+0	2.057830E+0	2.108071E+0	1.952112E+0	2.046387E+0	2.124163E+0	1.761491E+0	2.045292E+0	2.163949E+0	1.973548E+0	1.875811E+0	1.984388E+0	2.067085E+0	2.053931E+0	1.955281E+0	1.993535E+0	1.848728E+0	2.177588E+0	1.867802E+0	1.929762E+0	2.027735E+0	2.143649E+0	1.967863E+0	1.981662E+0	1.963414E+0	1.966256E+0	1.835306E+0	2.130146E+0	1.935372E+0	1.941091E+0	1.876358E+0	2.203430E+0	1.994167E+0	2.075474E+0	1.905107E+0	2.074498E+0	2.052216E+0	2.019277E+0	1.922601E+0	2.064443E+0	2.145047E+0	1.916058E+0	1.818539E+0	1.921117E+0	1.873224E+0	1.986972E+0	1.928035E+0	1.937085E+0	1.797602E+0	2.063179E+0	1.962680E+0	1.815975E+0	1.988927E+0	2.062217E+0	1.917411E+0	1.862643E+0	1.997616E+0	1.853561E+0	1.882361E+0	1.886815E+0	2.104422E+0	1.970147E+0	1.991189E+0	1.906176E+0	1.925708E+0	1.975964E+0	1.909210E+0	1.857691E+0	1.946814E+0	2.018175E+0	1.890726E+0	1.821644E+0	1.978458E+0	1.941286E+0	1.810618E+0	1.828034E+0	1.936862E+0	2.035801E+0	1.905166E+0	1.906479E+0	2.085093E+0	1.916294E+0	1.915716E+0	1.847181E+0	2.114888E+0	1.896528E+0	1.818027E+0	1.773781E+0	2.023461E+0	1.874412E+0	2.093555E+0	1.850081E+0	2.010349E+0	1.909982E+0	1.963280E+0	1.899854E+0	2.060519E+0	1.846843E+0	1.921709E+0	1.780949E+0	2.080949E+0	1.793380E+0	1.977374E+0	1.846451E+0	1.857940E+0	1.800983E+0	1.963461E+0	1.820885E+0	1.814613E+0	1.908482E+0	1.907961E+0	1.722922E+0
5.352550E+2	1.918947E+0	1.986132E+0	1.678714E+0	1.751012E+0	1.811943E+0	1.717260E+0	1.910682E+0	1.801942E+0	1.726587E+0	1.727216E+0	1.877980E+0	1.736734E+0	1.811873E+0	1.626210E+0	1.740653E+0	1.759989E+0	1.859254E+0	1.738993E+0	1.519150E+0	1.750505E+0	1.864948E+0	1.698694E+0	1.744022E+0	1.742437E+0	1.942551E+0	1.677842E+0	1.861969E+0	1.793999E+0	1.823669E+0	1.657009E+0	1.935570E+0	1.740483E+0	1.876782E+0	1.674097E+0	1.945487E+0	1.761041E+0	1.768133E+0	1.607387E+0	1.774446E+0	1.889841E+0	1.904563E+0	1.710327E+0	1.683637E+0	1.819436E+0	1.809457E+0	1.843255E+0	1.684966E+0	1.898871E+0	1.891503E+0	1.809781E+0	1.509925E+0	1.829339E+0	1.759978E+0	1.728720E+0	1.719008E+0	1.848658E+0	1.925559E+0	1.834207E+0	1.772311E+0	1.879531E+0	1.839203E+0	1.895485E+0	1.757161E+0	1.861457E+0	1.969066E+0	1.593466E+0	1.850415E+0	1.883565E+0	1.733143E+0	1.683223E+0	1.779507E+0	1.755069E+0	1.868318E+0	1.728837E+0	1.695961E+0	1.617030E+0	1.918160E+0	1.708700E+0	1.715054E+0	1.782057E+0	1.910802E+0	1.726718E+0	1.864762E+0	1.786633E+0	1.800768E+0	1.694397E+0	1.904337E+0	1.724755E+0	1.840658E+0	1.672280E+0	1.929766E+0	1.786446E+0	1.948617E+0	1.657694E+0	1.849984E+0	1.832708E+0	1.735903E+0	1.654320E+0	1.764442E+0	1.863760E+0	1.679688E+0	1.689664E+0	1.707374E+0	1.685270E+0	1.771495E+0	1.711182E+0	1.686601E+0	1.560585E+0	1.872000E+0	1.695003E+0	1.615522E+0	1.715534E+0	1.872325E+0	1.724390E+0	1.681953E+0	1.826669E+0	1.658151E+0	1.668105E+0	1.630076E+0	1.857695E+0	1.744922E+0	1.684638E+0	1.619040E+0	1.712854E+0	1.763609E+0	1.690364E+0	1.678601E+0	1.766528E+0	1.853701E+0	1.709104E+0	1.695535E+0	1.754062E+0	1.783797E+0	1.635310E+0	1.676782E+0	1.703255E+0	1.839651E+0	1.742046E+0	1.707461E+0	1.857224E+0	1.900777E+0	1.722064E+0	1.590866E+0	1.882297E+0	1.881765E+0	1.595896E+0	1.702249E+0	1.745667E+0	1.858309E+0	1.837285E+0	1.593225E+0	1.825698E+0	1.768738E+0	1.820897E+0	1.674750E+0	1.819347E+0	1.875602E+0	1.736429E+0	1.684066E+0	1.865707E+0	1.740322E+0	1.801287E+0	1.668297E+0	1.687943E+0	1.655152E+0	1.763735E+0	1.634318E+0	1.623643E+0	1.706814E+0	1.682667E+0	1.710103E+0
5.354110E+2	1.559030E+0	1.561672E+0	1.412694E+0	1.390836E+0	1.398996E+0	1.444094E+0	1.565227E+0	1.400026E+0	1.344490E+0	1.352374E+0	1.547548E+0	1.410529E+0	1.458104E+0	1.282018E+0	1.431739E+0	1.439823E+0	1.498040E+0	1.318526E+0	1.172213E+0	1.407940E+0	1.520494E+0	1.375659E+0	1.337516E+0	1.394898E+0	1.496259E+0	1.396758E+0	1.492119E+0	1.385302E+0	1.460423E+0	1.327485E+0	1.447020E+0	1.432093E+0	1.515487E+0	1.386028E+0	1.658337E+0	1.468099E+0	1.447193E+0	1.361956E+0	1.417113E+0	1.446989E+0	1.545265E+0	1.418457E+0	1.344719E+0	1.533488E+0	1.490368E+0	1.407879E+0	1.426242E+0	1.563533E+0	1.566908E+0	1.477780E+0	1.210563E+0	1.448239E+0	1.426672E+0	1.357076E+0	1.412521E+0	1.476462E+0	1.566792E+0	1.481654E+0	1.418108E+0	1.528665E+0	1.455980E+0	1.508153E+0	1.421414E+0	1.510735E+0	1.521323E+0	1.286675E+0	1.467946E+0	1.530613E+0	1.397967E+0	1.354196E+0	1.384920E+0	1.409115E+0	1.441830E+0	1.360369E+0	1.381291E+0	1.321364E+0	1.595081E+0	1.375276E+0	1.333127E+0	1.448087E+0	1.567570E+0	1.415963E+0	1.512902E+0	1.371247E+0	1.426381E+0	1.357765E+0	1.506968E+0	1.383881E+0	1.452762E+0	1.422098E+0	1.549901E+0	1.446580E+0	1.511838E+0	1.387788E+0	1.504139E+0	1.545618E+0	1.423035E+0	1.397824E+0	1.498627E+0	1.539248E+0	1.406714E+0	1.361624E+0	1.370435E+0	1.345440E+0	1.433038E+0	1.390670E+0	1.357809E+0	1.207988E+0	1.540380E+0	1.355670E+0	1.322470E+0	1.464074E+0	1.432115E+0	1.412299E+0	1.399657E+0	1.425269E+0	1.359595E+0	1.345703E+0	1.334808E+0	1.555655E+0	1.415745E+0	1.398153E+0	1.364835E+0	1.389741E+0	1.492466E+0	1.415602E+0	1.365072E+0	1.417094E+0	1.504265E+0	1.421890E+0	1.324046E+0	1.368966E+0	1.481007E+0	1.309382E+0	1.340618E+0	1.445848E+0	1.494886E+0	1.316668E+0	1.371223E+0	1.519132E+0	1.547499E+0	1.458465E+0	1.275524E+0	1.563084E+0	1.520699E+0	1.355633E+0	1.296682E+0	1.439071E+0	1.408366E+0	1.553977E+0	1.323806E+0	1.464788E+0	1.422663E+0	1.416017E+0	1.341379E+0	1.518619E+0	1.487405E+0	1.406541E+0	1.304742E+0	1.461589E+0	1.496268E+0	1.457409E+0	1.314078E+0	1.345587E+0	1.333462E+0	1.459165E+0	1.303218E+0	1.342458E+0	1.482147E+0	1.407450E+0	1.280707E+0
5.355580E+2	1.424850E+0	1.438248E+0	1.535519E+0	1.253491E+0	1.328411E+0	1.266140E+0	1.504304E+0	1.292335E+0	1.253649E+0	1.260499E+0	1.399531E+0	1.318308E+0	1.363463E+0	1.205317E+0	1.288636E+0	1.256310E+0	1.423103E+0	1.240783E+0	1.084221E+0	1.264087E+0	1.372953E+0	1.274080E+0	1.216419E+0	1.239510E+0	1.381795E+0	1.314831E+0	1.318668E+0	1.301815E+0	1.300632E+0	1.208941E+0	1.403492E+0	1.290657E+0	1.363444E+0	1.237889E+0	1.409652E+0	1.318326E+0	1.323757E+0	1.221577E+0	1.293580E+0	1.352123E+0	1.428534E+0	1.319545E+0	1.286187E+0	1.381975E+0	1.333396E+0	1.267290E+0	1.307207E+0	1.401032E+0	1.437900E+0	1.314967E+0	1.152605E+0	1.356844E+0	1.348953E+0	1.249601E+0	1.250945E+0	1.360609E+0	1.405907E+0	1.313212E+0	1.278274E+0	1.302790E+0	1.372168E+0	1.357340E+0	1.246503E+0	1.409686E+0	1.390314E+0	1.149002E+0	1.342279E+0	1.355066E+0	1.290735E+0	1.235982E+0	1.312580E+0	1.368106E+0	1.299668E+0	1.289073E+0	1.320919E+0	1.250402E+0	1.410002E+0	1.246630E+0	1.226528E+0	1.294863E+0	1.445719E+0	1.288983E+0	1.362851E+0	1.301833E+0	1.310950E+0	1.249143E+0	1.380367E+0	1.299545E+0	1.327224E+0	1.233036E+0	1.424445E+0	1.317082E+0	1.359998E+0	1.202738E+0	1.398117E+0	1.356598E+0	1.434601E+0	1.217098E+0	1.312966E+0	1.366947E+0	1.307589E+0	1.232753E+0	1.260598E+0	1.229658E+0	1.349095E+0	1.284206E+0	1.231765E+0	1.136620E+0	1.428642E+0	1.235532E+0	1.195550E+0	1.303568E+0	1.377629E+0	1.275824E+0	1.247528E+0	1.307509E+0	1.254080E+0	1.206591E+0	1.199685E+0	1.331158E+0	1.335423E+0	1.290139E+0	1.246998E+0	1.252949E+0	1.380968E+0	1.277158E+0	1.238569E+0	1.312635E+0	1.345215E+0	1.301213E+0	1.223157E+0	1.284234E+0	1.341300E+0	1.216051E+0	1.250535E+0	1.288975E+0	1.453971E+0	1.278052E+0	1.273284E+0	1.338663E+0	1.366980E+0	1.272327E+0	1.209245E+0	1.391450E+0	1.383314E+0	1.232105E+0	1.212188E+0	1.293274E+0	1.307207E+0	1.422318E+0	1.220260E+0	1.341358E+0	1.357386E+0	1.277150E+0	1.194333E+0	1.382845E+0	1.410381E+0	1.294132E+0	1.217599E+0	1.385177E+0	1.338774E+0	1.304449E+0	1.212951E+0	1.289706E+0	1.266739E+0	1.279879E+0	1.251965E+0	1.259275E+0	1.355663E+0	1.246160E+0	1.244391E+0
5.357190E+2	1.174381E+0	1.187786E+0	1.224561E+0	1.050607E+0	1.119993E+0	1.058771E+0	1.251178E+0	1.115710E+0	1.105545E+0	1.047879E+0	1.144641E+0	1.038213E+0	1.127769E+0	1.011647E+0	1.095895E+0	1.064554E+0	1.176184E+0	9.686840E-1	8.911419E-1	1.061459E+0	1.166505E+0	1.053076E+0	1.022963E+0	1.015844E+0	1.172683E+0	1.040126E+0	1.105725E+0	1.068829E+0	1.112040E+0	1.001097E+0	1.157216E+0	1.141870E+0	1.091131E+0	1.008766E+0	1.200004E+0	1.129455E+0	1.072432E+0	1.012846E+0	1.051731E+0	1.131343E+0	1.199890E+0	1.033619E+0	1.160207E+0	1.139556E+0	1.141945E+0	9.985830E-1	1.053919E+0	1.140537E+0	1.200690E+0	1.118547E+0	9.239633E-1	1.124619E+0	1.079284E+0	1.077342E+0	1.055542E+0	1.093778E+0	1.171030E+0	1.153165E+0	1.077267E+0	1.154220E+0	1.133345E+0	1.123602E+0	1.079171E+0	1.193364E+0	1.216641E+0	1.027589E+0	1.120690E+0	1.129892E+0	1.076760E+0	1.019259E+0	1.113772E+0	1.113590E+0	1.138191E+0	1.038101E+0	1.039908E+0	1.010644E+0	1.165018E+0	1.041850E+0	1.025462E+0	1.085025E+0	1.179097E+0	1.116340E+0	1.152318E+0	1.075702E+0	1.097962E+0	1.063216E+0	1.147321E+0	1.082745E+0	1.094590E+0	1.062105E+0	1.184623E+0	1.113060E+0	1.152897E+0	1.029955E+0	1.104434E+0	1.150302E+0	1.091084E+0	1.053208E+0	1.091944E+0	1.217783E+0	1.039193E+0	1.045299E+0	1.044875E+0	1.037692E+0	1.129340E+0	1.107697E+0	1.015608E+0	1.003462E+0	1.200561E+0	1.110652E+0	9.694962E-1	1.130222E+0	1.159682E+0	1.074108E+0	1.024549E+0	1.088447E+0	1.070027E+0	1.037011E+0	1.032530E+0	1.170649E+0	1.072397E+0	1.079261E+0	1.008233E+0	1.027123E+0	1.131112E+0	1.059904E+0	1.003917E+0	1.089400E+0	1.192188E+0	1.040548E+0	1.045556E+0	1.106587E+0	1.091853E+0	1.009630E+0	1.068466E+0	1.121417E+0	1.189832E+0	1.087842E+0	1.084216E+0	1.156482E+0	1.183878E+0	1.123186E+0	1.048208E+0	1.163135E+0	1.177807E+0	1.039439E+0	9.913817E-1	1.146277E+0	1.076702E+0	1.174863E+0	9.935660E-1	1.134491E+0	1.128920E+0	1.053320E+0	1.009519E+0	1.125591E+0	1.220902E+0	1.061967E+0	1.007945E+0	1.160248E+0	1.125994E+0	1.132510E+0	1.028505E+0	1.020294E+0	1.107564E+0	1.095879E+0	1.043874E+0	9.681326E-1	1.114191E+0	1.042626E+0	9.794918E-1
5.358650E+2	9.407503E-1	9.005980E-1	1.008867E+0	8.118198E-1	8.432141E-1	8.399377E-1	9.572265E-1	8.660877E-1	8.583386E-1	8.489079E-1	8.891391E-1	8.213970E-1	8.746186E-1	8.189384E-1	8.313384E-1	8.203061E-1	9.071630E-1	8.225053E-1	6.965554E-1	8.241285E-1	8.624429E-1	8.407683E-1	8.184541E-1	8.070585E-1	8.810257E-1	8.203612E-1	8.911797E-1	8.494320E-1	8.481979E-1	7.843750E-1	8.823026E-1	8.421277E-1	9.082832E-1	8.098825E-1	9.178685E-1	8.690024E-1	8.438252E-1	7.953973E-1	8.202917E-1	9.329910E-1	9.209118E-1	8.195807E-1	8.235161E-1	9.285414E-1	8.990244E-1	8.642289E-1	8.240027E-1	9.031893E-1	8.729691E-1	8.392721E-1	7.330736E-1	9.326319E-1	8.341309E-1	8.644009E-1	8.374150E-1	9.022072E-1	9.131675E-1	8.963051E-1	8.932245E-1	9.086088E-1	9.233049E-1	8.748405E-1	8.652690E-1	9.108230E-1	9.144680E-1	7.213453E-1	9.088150E-1	9.059611E-1	8.523143E-1	8.182970E-1	8.866330E-1	8.468191E-1	8.876645E-1	8.344741E-1	8.288815E-1	7.757232E-1	9.157531E-1	8.438935E-1	8.223735E-1	8.860954E-1	9.522854E-1	8.673981E-1	8.754822E-1	8.159500E-1	8.727182E-1	7.921520E-1	9.054891E-1	8.407786E-1	8.476090E-1	8.212475E-1	9.477180E-1	8.450791E-1	9.068781E-1	8.643311E-1	9.150694E-1	8.906526E-1	8.412531E-1	8.320701E-1	8.850690E-1	8.871815E-1	8.424694E-1	8.109866E-1	8.444934E-1	8.432185E-1	8.438192E-1	8.600274E-1	8.353892E-1	7.520643E-1	9.253215E-1	8.350752E-1	7.968225E-1	8.766247E-1	9.147638E-1	8.593407E-1	8.455082E-1	8.795164E-1	8.145260E-1	8.430642E-1	8.073233E-1	9.309701E-1	9.022977E-1	8.508921E-1	8.245282E-1	8.573118E-1	8.858161E-1	8.863152E-1	8.064755E-1	8.751789E-1	8.909535E-1	8.486699E-1	7.964932E-1	8.594021E-1	9.216608E-1	8.017289E-1	8.456212E-1	8.455560E-1	9.930807E-1	8.578623E-1	8.197304E-1	8.720729E-1	9.702585E-1	8.838667E-1	8.069109E-1	9.524659E-1	9.495872E-1	7.748097E-1	7.897259E-1	8.642827E-1	8.884712E-1	9.456314E-1	8.322164E-1	8.668926E-1	8.830091E-1	8.435542E-1	8.221848E-1	9.391996E-1	9.199992E-1	8.377107E-1	7.931649E-1	8.976517E-1	8.808201E-1	8.876482E-1	7.932335E-1	8.379417E-1	8.826195E-1	8.799014E-1	8.352701E-1	8.410141E-1	8.983693E-1	8.774957E-1	9.004482E-1
5.360120E+2	8.234083E-1	8.355742E-1	8.872400E-1	7.280451E-1	7.692951E-1	7.791235E-1	8.912758E-1	7.777746E-1	7.641914E-1	7.271104E-1	7.976250E-1	7.218192E-1	7.896223E-1	8.026395E-1	7.605790E-1	7.318042E-1	8.058085E-1	7.836341E-1	6.211344E-1	7.541607E-1	8.001722E-1	7.529169E-1	7.325308E-1	7.418399E-1	8.303986E-1	7.193078E-1	7.796379E-1	7.518689E-1	8.059273E-1	7.049978E-1	8.256011E-1	8.153108E-1	8.007264E-1	7.596492E-1	7.873953E-1	7.946659E-1	7.376691E-1	7.233731E-1	7.492982E-1	8.001779E-1	8.389854E-1	7.644496E-1	7.543938E-1	8.139427E-1	7.749913E-1	7.536847E-1	7.310577E-1	8.214470E-1	7.954607E-1	7.656870E-1	6.261965E-1	8.119217E-1	7.824915E-1	7.649618E-1	7.561220E-1	8.383508E-1	8.201131E-1	7.855019E-1	7.775546E-1	7.786771E-1	8.102058E-1	7.952585E-1	7.872891E-1	7.896634E-1	8.060466E-1	7.056266E-1	7.558277E-1	7.874818E-1	7.635335E-1	7.724895E-1	7.814109E-1	8.025145E-1	7.814458E-1	7.152631E-1	7.556894E-1	7.552952E-1	8.611928E-1	7.478030E-1	7.334593E-1	7.661142E-1	8.973922E-1	7.482175E-1	8.330263E-1	7.503345E-1	7.409424E-1	6.982096E-1	8.057595E-1	7.577679E-1	7.989302E-1	7.228326E-1	8.444358E-1	7.848231E-1	8.261526E-1	7.503366E-1	8.254899E-1	8.713436E-1	8.175420E-1	7.501264E-1	7.701376E-1	8.378658E-1	7.636783E-1	7.153088E-1	7.811622E-1	7.424737E-1	8.160151E-1	7.989504E-1	7.409890E-1	7.025301E-1	8.392132E-1	7.602528E-1	7.445304E-1	7.872772E-1	8.451714E-1	7.435299E-1	7.471990E-1	7.725184E-1	7.269938E-1	6.988731E-1	7.212447E-1	8.236031E-1	7.920478E-1	7.634543E-1	7.530018E-1	7.258259E-1	8.062472E-1	7.377526E-1	7.484328E-1	8.168516E-1	8.029924E-1	7.159233E-1	7.402708E-1	7.401923E-1	7.824594E-1	7.340740E-1	7.213972E-1	7.493928E-1	8.366430E-1	7.673686E-1	7.437895E-1	7.972588E-1	8.471553E-1	7.786577E-1	7.240624E-1	8.546165E-1	8.343424E-1	7.272105E-1	7.317069E-1	7.586849E-1	8.295866E-1	8.221985E-1	7.347030E-1	8.249263E-1	8.137939E-1	7.322265E-1	7.330504E-1	8.278414E-1	8.178147E-1	7.800937E-1	7.188381E-1	8.416890E-1	8.149189E-1	7.726283E-1	7.219709E-1	7.573532E-1	7.834919E-1	7.776791E-1	7.076472E-1	7.431851E-1	8.346844E-1	7.328472E-1	7.209995E-1
5.362680E+2	6.560786E-1	6.447176E-1	6.949132E-1	6.026669E-1	5.942235E-1	6.106376E-1	6.563655E-1	6.015981E-1	5.803007E-1	6.084629E-1	6.305660E-1	6.207695E-1	6.173329E-1	6.674550E-1	6.322605E-1	6.142357E-1	6.176541E-1	6.445729E-1	5.095115E-1	6.041495E-1	6.447755E-1	6.097003E-1	5.441014E-1	5.917068E-1	6.234864E-1	6.143308E-1	5.923113E-1	5.795554E-1	6.159420E-1	6.867202E-1	6.211339E-1	6.202421E-1	6.560141E-1	6.873753E-1	6.624976E-1	6.344299E-1	6.083052E-1	5.898768E-1	6.631590E-1	6.509802E-1	6.574629E-1	6.022990E-1	6.161506E-1	6.773064E-1	6.715451E-1	6.278344E-1	5.951736E-1	6.781511E-1	6.513675E-1	6.764582E-1	5.427152E-1	6.044145E-1	6.098409E-1	6.173095E-1	5.657662E-1	6.175874E-1	6.424125E-1	6.265736E-1	5.806601E-1	6.492941E-1	6.587339E-1	6.622518E-1	6.150832E-1	6.532972E-1	6.619877E-1	5.348884E-1	6.295531E-1	6.305439E-1	5.979418E-1	5.754672E-1	5.998009E-1	6.257663E-1	6.269447E-1	6.451060E-1	5.857997E-1	5.488658E-1	6.884195E-1	5.645499E-1	5.839216E-1	6.274347E-1	6.512778E-1	6.101026E-1	6.387763E-1	5.903617E-1	6.173388E-1	5.656133E-1	6.822605E-1	5.758507E-1	6.411085E-1	5.980006E-1	6.687997E-1	6.140980E-1	5.940677E-1	5.847121E-1	6.253546E-1	6.498027E-1	6.307475E-1	5.828702E-1	5.986245E-1	5.992004E-1	6.055886E-1	5.722794E-1	5.946331E-1	5.775721E-1	6.459861E-1	5.770559E-1	6.181611E-1	5.640480E-1	6.475196E-1	5.616054E-1	5.838400E-1	6.251672E-1	6.374754E-1	5.863960E-1	6.093473E-1	6.465263E-1	5.893075E-1	5.744819E-1	5.896239E-1	6.598402E-1	6.140737E-1	5.962935E-1	5.996571E-1	5.801885E-1	6.319050E-1	6.078280E-1	5.822436E-1	6.153563E-1	6.469524E-1	6.133472E-1	5.626684E-1	6.192291E-1	6.127750E-1	5.992591E-1	5.654071E-1	6.138905E-1	6.495186E-1	5.921459E-1	6.023813E-1	6.322101E-1	7.137066E-1	6.191105E-1	5.744171E-1	6.562461E-1	6.674361E-1	5.606133E-1	5.813104E-1	6.056881E-1	6.232384E-1	6.388126E-1	5.703369E-1	6.160822E-1	6.224673E-1	6.197266E-1	5.849965E-1	6.968321E-1	6.740382E-1	6.320959E-1	5.912003E-1	6.210645E-1	6.646870E-1	6.184783E-1	6.166494E-1	5.773528E-1	5.995327E-1	6.052107E-1	5.948883E-1	6.119658E-1	6.595509E-1	6.394002E-1	6.227293E-1
5.365140E+2	5.266342E-1	5.188850E-1	5.427293E-1	4.755800E-1	4.958505E-1	4.979810E-1	5.376547E-1	4.623691E-1	4.443099E-1	4.787906E-1	5.126422E-1	4.755714E-1	5.047705E-1	5.078216E-1	4.859890E-1	4.558865E-1	5.038996E-1	5.066059E-1	4.154863E-1	4.759684E-1	5.252828E-1	4.673985E-1	4.521472E-1	4.827177E-1	4.776583E-1	4.867879E-1	4.786344E-1	4.717990E-1	4.923818E-1	5.190874E-1	5.100230E-1	5.012977E-1	5.103238E-1	5.438518E-1	4.890898E-1	4.896113E-1	4.804225E-1	4.793182E-1	4.913541E-1	5.332603E-1	5.284155E-1	4.769025E-1	4.606264E-1	5.054083E-1	5.104566E-1	5.496031E-1	4.750515E-1	5.200825E-1	5.109153E-1	5.090097E-1	4.331797E-1	5.124445E-1	4.721377E-1	4.892442E-1	4.642765E-1	5.149605E-1	4.910590E-1	4.637281E-1	4.742443E-1	5.456773E-1	4.880758E-1	5.259053E-1	4.499180E-1	5.174217E-1	5.274647E-1	4.627989E-1	4.632104E-1	5.058621E-1	4.782369E-1	4.715386E-1	5.067197E-1	4.961514E-1	5.239446E-1	4.791237E-1	4.816217E-1	4.193097E-1	5.611126E-1	5.099412E-1	4.561066E-1	5.245936E-1	5.463173E-1	4.992760E-1	4.829112E-1	4.808211E-1	4.492989E-1	4.951563E-1	4.910694E-1	4.853335E-1	5.053203E-1	4.783484E-1	5.194212E-1	4.920014E-1	5.061345E-1	5.065004E-1	5.216012E-1	5.385240E-1	5.301205E-1	4.885783E-1	5.037330E-1	5.188335E-1	4.876559E-1	4.746483E-1	4.748988E-1	4.703111E-1	4.759572E-1	4.616264E-1	4.797794E-1	4.170440E-1	4.963180E-1	4.646527E-1	4.552885E-1	4.758977E-1	5.371336E-1	4.667786E-1	4.599622E-1	5.028068E-1	4.781168E-1	4.495835E-1	4.730170E-1	5.090921E-1	4.597235E-1	4.908535E-1	4.432250E-1	4.545991E-1	5.366253E-1	4.587324E-1	4.492911E-1	4.976406E-1	5.330853E-1	4.974959E-1	4.444424E-1	4.865791E-1	5.152327E-1	4.832100E-1	4.430801E-1	4.934433E-1	5.676893E-1	4.935828E-1	4.913495E-1	5.208452E-1	5.456036E-1	4.971386E-1	4.346100E-1	5.241771E-1	5.442438E-1	4.274487E-1	4.759759E-1	5.168901E-1	4.959070E-1	4.918691E-1	4.572417E-1	5.267185E-1	5.532526E-1	4.726563E-1	4.988835E-1	5.205646E-1	5.420720E-1	4.846636E-1	4.574110E-1	5.048339E-1	4.898820E-1	4.809288E-1	4.515919E-1	4.791177E-1	4.937331E-1	5.019396E-1	4.436888E-1	4.766463E-1	5.153758E-1	4.819513E-1	4.689169E-1
5.367710E+2	5.334744E-1	5.086495E-1	5.726867E-1	4.892575E-1	4.819557E-1	5.014705E-1	5.652909E-1	5.020201E-1	4.800969E-1	4.871901E-1	5.347526E-1	4.893064E-1	5.070677E-1	5.600739E-1	4.722594E-1	5.070789E-1	4.936564E-1	5.230308E-1	5.019692E-1	4.664525E-1	5.073300E-1	4.797526E-1	4.626990E-1	4.814043E-1	5.145280E-1	5.010138E-1	5.127907E-1	4.747112E-1	5.248983E-1	5.488541E-1	5.008590E-1	5.021626E-1	4.907682E-1	5.325746E-1	5.275633E-1	4.934655E-1	4.912851E-1	4.765654E-1	5.301643E-1	5.500777E-1	5.166352E-1	4.958203E-1	4.728899E-1	5.235900E-1	4.754595E-1	5.598071E-1	5.076636E-1	5.397796E-1	5.566923E-1	5.437745E-1	4.326477E-1	5.032479E-1	5.081283E-1	4.812087E-1	4.753849E-1	5.103993E-1	5.050733E-1	5.079370E-1	4.732157E-1	4.760512E-1	5.143312E-1	5.253490E-1	4.932398E-1	5.046684E-1	5.425230E-1	4.969466E-1	5.063130E-1	5.195088E-1	5.031753E-1	4.602097E-1	5.198725E-1	5.131189E-1	5.566683E-1	4.922425E-1	5.061974E-1	4.709169E-1	5.664617E-1	5.340952E-1	4.818721E-1	5.204386E-1	5.529528E-1	5.349187E-1	4.887266E-1	5.193226E-1	5.187622E-1	4.917311E-1	5.499765E-1	4.751777E-1	4.955846E-1	4.633277E-1	5.509310E-1	5.041577E-1	5.527441E-1	5.489291E-1	5.125296E-1	5.115935E-1	5.335906E-1	5.368465E-1	5.196463E-1	5.005684E-1	4.627480E-1	5.171179E-1	5.040900E-1	4.387342E-1	4.887895E-1	4.997295E-1	4.669064E-1	4.319573E-1	5.660250E-1	5.326248E-1	4.618250E-1	4.972978E-1	5.371338E-1	5.635602E-1	4.945631E-1	5.262324E-1	4.445234E-1	4.973091E-1	4.860288E-1	5.139720E-1	5.069737E-1	4.990829E-1	4.653517E-1	4.622643E-1	5.320645E-1	4.821620E-1	4.522677E-1	4.833234E-1	5.517622E-1	4.806008E-1	4.759692E-1	5.117064E-1	5.228534E-1	4.723458E-1	4.824333E-1	5.026714E-1	5.682910E-1	4.774443E-1	4.971108E-1	5.288409E-1	5.590518E-1	5.289322E-1	4.460019E-1	5.525158E-1	5.090458E-1	4.472818E-1	4.804820E-1	5.102897E-1	5.215743E-1	5.300741E-1	4.723212E-1	5.346181E-1	5.341199E-1	5.259765E-1	4.681646E-1	5.378341E-1	5.538820E-1	4.631981E-1	4.599743E-1	4.983763E-1	5.758883E-1	5.022728E-1	4.741235E-1	5.220589E-1	4.913505E-1	5.171420E-1	4.493274E-1	5.041783E-1	5.082993E-1	5.152331E-1	4.710526E-1
5.370170E+2	5.987230E-1	5.766838E-1	6.152264E-1	5.057843E-1	5.380896E-1	5.134341E-1	6.105141E-1	5.385169E-1	5.076252E-1	5.633137E-1	5.617770E-1	5.207008E-1	5.548494E-1	5.624708E-1	5.461875E-1	5.339763E-1	5.405599E-1	6.007740E-1	5.411884E-1	5.565713E-1	5.488444E-1	5.506747E-1	5.486234E-1	4.800915E-1	5.321373E-1	5.790107E-1	5.496155E-1	5.305312E-1	5.476588E-1	5.812315E-1	5.678694E-1	5.285464E-1	5.572579E-1	5.848584E-1	6.128727E-1	5.738588E-1	5.248605E-1	5.215225E-1	5.183323E-1	5.612889E-1	5.792844E-1	5.423034E-1	5.447991E-1	6.133950E-1	5.629514E-1	5.858843E-1	5.250570E-1	5.870530E-1	5.452477E-1	5.657916E-1	4.459409E-1	5.871700E-1	5.451623E-1	5.339416E-1	5.278967E-1	5.687831E-1	5.801896E-1	5.465500E-1	5.539274E-1	5.325192E-1	5.582578E-1	5.971393E-1	4.986552E-1	5.532299E-1	5.912122E-1	4.497902E-1	5.415245E-1	5.468023E-1	5.525536E-1	5.109427E-1	5.441548E-1	5.357427E-1	5.813450E-1	5.412958E-1	5.313071E-1	4.805935E-1	5.899976E-1	5.918540E-1	5.238030E-1	5.661458E-1	5.969880E-1	5.805858E-1	5.381618E-1	5.740933E-1	5.340846E-1	5.616990E-1	5.432590E-1	5.361113E-1	5.729583E-1	5.829792E-1	6.116161E-1	5.612424E-1	5.469775E-1	6.363421E-1	5.726271E-1	5.776492E-1	5.659753E-1	6.109335E-1	5.261293E-1	5.596256E-1	5.349304E-1	5.815548E-1	5.100270E-1	4.918635E-1	5.599025E-1	5.792972E-1	5.489698E-1	5.256993E-1	6.131789E-1	6.290506E-1	5.037678E-1	5.277942E-1	5.867649E-1	6.010763E-1	5.192772E-1	5.445932E-1	5.188077E-1	5.521425E-1	5.225621E-1	5.660292E-1	5.547486E-1	5.680045E-1	5.116639E-1	5.347878E-1	5.518294E-1	6.035678E-1	5.108064E-1	5.305159E-1	5.638117E-1	6.230013E-1	5.369216E-1	5.029410E-1	5.330138E-1	5.340745E-1	5.127777E-1	5.609520E-1	5.231649E-1	5.408469E-1	5.641487E-1	5.779553E-1	6.087071E-1	5.746000E-1	5.195299E-1	5.717648E-1	6.276964E-1	5.339808E-1	5.587791E-1	5.552890E-1	5.708962E-1	5.700434E-1	4.979556E-1	5.721407E-1	5.532524E-1	5.101559E-1	5.326232E-1	6.081026E-1	5.872586E-1	6.004627E-1	5.312259E-1	5.844738E-1	5.887337E-1	5.941700E-1	5.018952E-1	5.373531E-1	5.299533E-1	5.569827E-1	5.128815E-1	5.311257E-1	5.702147E-1	5.779561E-1	4.689168E-1
5.372640E+2	6.234543E-1	6.320741E-1	7.086933E-1	5.468167E-1	5.892218E-1	5.433430E-1	6.412911E-1	5.921357E-1	5.621316E-1	5.585891E-1	5.918722E-1	5.579811E-1	5.980367E-1	6.578670E-1	5.868474E-1	5.682493E-1	6.149587E-1	6.544272E-1	5.753789E-1	5.912755E-1	6.189695E-1	6.202241E-1	5.722395E-1	5.706968E-1	6.333916E-1	6.305182E-1	6.003169E-1	5.819822E-1	5.838908E-1	6.747092E-1	6.073889E-1	5.843422E-1	6.330360E-1	6.268900E-1	6.491154E-1	5.991890E-1	5.929989E-1	5.742792E-1	5.784400E-1	6.018226E-1	6.537143E-1	6.352695E-1	5.810322E-1	6.403922E-1	6.339742E-1	6.488099E-1	5.919121E-1	6.343253E-1	6.362816E-1	6.915226E-1	4.996458E-1	6.256827E-1	6.046252E-1	5.866741E-1	5.778844E-1	5.979749E-1	6.468971E-1	6.064278E-1	6.094488E-1	6.542277E-1	6.132922E-1	6.488950E-1	5.955884E-1	6.272993E-1	6.293605E-1	5.180853E-1	5.876641E-1	5.902238E-1	5.640249E-1	5.562581E-1	5.881657E-1	6.092699E-1	6.376735E-1	6.011865E-1	5.687041E-1	5.515537E-1	6.317198E-1	6.349110E-1	5.687653E-1	5.791305E-1	6.132752E-1	6.535420E-1	5.887596E-1	5.692131E-1	5.831175E-1	5.793136E-1	6.507401E-1	5.679027E-1	6.134387E-1	5.689942E-1	6.483771E-1	6.172699E-1	5.964703E-1	6.680359E-1	6.089121E-1	6.299858E-1	6.047225E-1	6.608855E-1	5.815325E-1	5.827619E-1	5.979631E-1	5.932702E-1	5.595043E-1	5.474990E-1	5.882402E-1	6.039526E-1	5.832975E-1	5.166444E-1	6.511080E-1	6.559235E-1	5.217430E-1	6.155366E-1	6.369358E-1	6.614288E-1	5.582712E-1	5.958764E-1	5.755858E-1	6.018989E-1	5.460839E-1	6.598401E-1	5.909736E-1	5.998940E-1	5.569468E-1	5.683964E-1	6.496436E-1	6.919601E-1	5.614070E-1	6.031598E-1	6.071890E-1	6.326548E-1	5.894667E-1	5.876744E-1	5.904219E-1	5.800000E-1	5.597173E-1	5.755218E-1	6.200355E-1	5.817707E-1	5.583877E-1	6.282126E-1	6.262933E-1	6.474366E-1	5.821841E-1	6.230949E-1	6.504046E-1	6.014124E-1	5.277985E-1	5.798884E-1	5.980741E-1	6.211791E-1	5.306278E-1	6.042327E-1	6.416007E-1	6.519533E-1	5.482348E-1	6.706303E-1	6.488771E-1	7.224764E-1	5.466038E-1	6.544280E-1	6.183335E-1	7.032608E-1	5.820652E-1	5.691177E-1	5.723684E-1	6.654959E-1	5.297955E-1	5.750604E-1	6.082489E-1	6.432415E-1	5.906844E-1
5.375160E+2	7.665797E-1	7.374370E-1	7.164828E-1	6.288825E-1	6.253473E-1	6.310751E-1	6.997046E-1	6.570190E-1	6.392113E-1	6.877361E-1	7.140954E-1	6.418620E-1	6.922217E-1	7.129960E-1	6.591917E-1	6.324568E-1	7.114618E-1	7.069860E-1	6.854941E-1	6.388535E-1	6.789962E-1	7.016697E-1	6.692184E-1	6.385414E-1	6.697119E-1	6.628949E-1	6.947804E-1	6.276087E-1	6.628579E-1	7.102200E-1	7.093357E-1	6.587370E-1	7.049034E-1	7.068532E-1	7.260614E-1	6.950000E-1	6.680488E-1	6.302468E-1	6.366543E-1	6.712470E-1	7.120802E-1	6.628350E-1	6.100187E-1	6.954875E-1	6.792645E-1	7.349774E-1	6.288730E-1	6.894765E-1	7.252347E-1	7.604729E-1	5.623891E-1	6.900614E-1	6.713900E-1	6.645183E-1	6.576621E-1	6.572704E-1	7.427542E-1	6.814153E-1	6.567445E-1	6.783503E-1	6.960968E-1	7.657632E-1	6.730265E-1	7.023499E-1	7.222212E-1	5.977633E-1	6.951189E-1	6.826500E-1	6.727569E-1	6.114242E-1	6.665768E-1	6.554599E-1	6.913199E-1	6.793295E-1	6.434983E-1	6.058487E-1	7.156992E-1	7.378269E-1	6.233269E-1	6.409389E-1	7.049641E-1	7.526729E-1	6.858851E-1	6.554354E-1	6.382793E-1	6.541740E-1	7.080971E-1	6.487055E-1	6.718533E-1	6.430641E-1	7.493238E-1	6.939111E-1	6.844029E-1	7.309116E-1	6.707110E-1	7.168746E-1	6.822174E-1	7.080314E-1	6.882118E-1	6.966155E-1	6.396460E-1	6.586827E-1	6.525215E-1	6.397232E-1	6.679081E-1	6.835206E-1	6.203071E-1	5.933422E-1	7.156891E-1	8.129443E-1	6.050842E-1	6.952541E-1	7.076067E-1	7.413546E-1	6.406525E-1	6.503246E-1	6.531821E-1	6.877031E-1	6.381685E-1	7.015944E-1	6.686734E-1	6.631576E-1	6.490565E-1	6.515330E-1	6.937359E-1	7.957934E-1	6.417737E-1	6.524735E-1	7.144293E-1	7.521269E-1	6.062806E-1	6.320859E-1	6.752640E-1	6.738274E-1	5.867431E-1	7.139390E-1	7.518048E-1	6.244239E-1	6.605159E-1	6.813249E-1	7.385344E-1	7.364588E-1	6.148060E-1	7.198746E-1	7.247753E-1	6.529789E-1	6.438347E-1	7.022854E-1	6.453825E-1	7.240404E-1	5.949668E-1	7.000146E-1	6.781772E-1	7.164061E-1	6.706059E-1	6.998091E-1	7.171712E-1	8.089022E-1	6.076034E-1	6.910190E-1	6.898190E-1	7.880436E-1	5.983096E-1	6.285292E-1	6.433784E-1	7.514677E-1	6.358913E-1	6.617586E-1	7.170448E-1	7.136451E-1	5.757307E-1
5.377630E+2	8.476135E-1	8.861479E-1	9.543447E-1	7.730665E-1	7.731848E-1	7.551963E-1	9.226806E-1	8.025563E-1	7.724494E-1	7.974592E-1	8.240353E-1	7.909837E-1	8.093785E-1	8.922837E-1	8.382033E-1	7.751881E-1	8.381555E-1	8.827289E-1	7.981227E-1	7.978209E-1	8.052210E-1	7.849459E-1	7.732312E-1	7.558467E-1	8.067359E-1	8.203607E-1	8.282042E-1	7.751675E-1	7.943145E-1	9.070974E-1	8.238834E-1	7.733563E-1	7.880153E-1	8.293607E-1	8.570926E-1	8.370654E-1	8.339502E-1	7.963151E-1	7.691765E-1	8.398502E-1	8.566557E-1	8.682257E-1	7.649855E-1	8.481022E-1	8.290306E-1	8.625286E-1	7.745404E-1	8.746287E-1	8.126268E-1	8.670837E-1	7.006381E-1	8.418120E-1	7.934453E-1	8.011218E-1	7.788437E-1	8.287720E-1	8.828966E-1	8.241155E-1	7.991463E-1	8.060890E-1	8.339364E-1	9.093433E-1	7.748335E-1	8.725621E-1	8.687904E-1	7.164664E-1	8.396068E-1	8.538554E-1	8.358546E-1	7.685491E-1	8.036690E-1	8.081701E-1	8.152427E-1	8.361849E-1	7.674436E-1	7.294912E-1	8.611933E-1	8.822243E-1	7.602344E-1	8.222096E-1	9.004079E-1	8.935732E-1	8.179054E-1	8.425219E-1	8.007013E-1	7.857913E-1	8.636340E-1	7.767543E-1	8.045669E-1	7.767017E-1	8.386011E-1	8.466648E-1	8.333605E-1	8.929577E-1	8.549725E-1	8.372994E-1	8.377828E-1	9.016671E-1	8.019642E-1	9.060561E-1	8.073941E-1	8.026881E-1	7.697827E-1	7.600165E-1	8.047869E-1	8.236049E-1	7.946256E-1	7.302261E-1	8.561277E-1	8.972511E-1	7.352700E-1	8.070729E-1	8.753823E-1	8.843512E-1	7.867423E-1	7.902462E-1	7.885026E-1	7.821384E-1	7.632828E-1	8.669837E-1	8.156732E-1	8.292904E-1	7.370499E-1	7.441039E-1	8.326014E-1	9.012244E-1	7.712530E-1	8.035950E-1	8.054021E-1	8.818562E-1	7.991205E-1	8.132378E-1	8.195456E-1	7.725925E-1	7.460530E-1	7.775614E-1	8.631163E-1	8.227026E-1	7.804505E-1	8.663618E-1	8.543966E-1	8.850226E-1	7.748069E-1	8.760051E-1	8.581859E-1	8.088100E-1	7.722637E-1	8.378833E-1	8.331097E-1	8.433581E-1	7.447555E-1	8.036959E-1	8.475578E-1	8.382815E-1	7.471505E-1	8.730996E-1	9.071616E-1	9.337399E-1	7.624087E-1	8.642893E-1	8.674163E-1	9.107708E-1	7.586500E-1	7.738231E-1	7.792025E-1	8.799016E-1	7.732516E-1	7.613446E-1	8.169942E-1	9.018178E-1	8.534507E-1
5.380160E+2	9.533786E-1	9.583967E-1	1.015458E+0	8.762182E-1	8.643335E-1	8.798166E-1	1.042648E+0	9.174537E-1	8.952265E-1	8.741076E-1	9.861808E-1	9.131269E-1	9.109147E-1	1.000145E+0	9.005135E-1	8.910210E-1	1.006901E+0	1.000438E+0	9.484622E-1	9.097697E-1	9.527641E-1	9.514991E-1	8.822693E-1	8.591452E-1	9.388066E-1	9.518279E-1	9.119938E-1	8.911755E-1	9.332031E-1	9.969206E-1	9.057844E-1	9.238747E-1	9.224614E-1	9.810855E-1	9.942569E-1	9.604087E-1	8.818446E-1	9.105436E-1	8.979109E-1	9.429090E-1	9.691036E-1	9.103846E-1	8.469283E-1	9.434169E-1	9.401970E-1	1.025793E+0	8.598764E-1	9.706519E-1	9.582805E-1	9.748537E-1	8.032612E-1	8.912455E-1	9.238460E-1	8.613874E-1	8.828575E-1	9.245581E-1	9.552104E-1	9.220470E-1	8.947665E-1	9.146396E-1	9.556189E-1	1.017308E+0	8.636440E-1	9.745914E-1	1.007830E+0	8.232457E-1	9.027438E-1	9.828798E-1	9.071790E-1	8.645969E-1	9.174914E-1	9.377854E-1	9.456025E-1	8.835272E-1	8.791000E-1	8.380818E-1	9.558706E-1	9.951166E-1	8.648095E-1	9.084302E-1	9.872720E-1	9.514926E-1	8.975826E-1	9.314555E-1	9.283913E-1	9.037088E-1	9.695640E-1	8.655055E-1	9.029495E-1	8.849579E-1	9.728083E-1	9.011063E-1	9.361889E-1	1.021265E+0	9.490871E-1	9.470535E-1	9.042895E-1	9.662120E-1	8.927308E-1	9.669400E-1	8.897432E-1	9.261912E-1	8.751691E-1	8.562504E-1	9.047730E-1	9.026133E-1	8.664985E-1	8.175763E-1	9.653003E-1	1.015808E+0	8.583749E-1	8.846502E-1	9.563029E-1	9.800457E-1	8.921901E-1	8.896468E-1	8.386567E-1	9.065292E-1	8.623740E-1	1.006887E+0	9.028228E-1	9.491316E-1	8.909091E-1	8.856130E-1	9.060882E-1	9.906816E-1	8.605492E-1	8.852536E-1	9.680693E-1	1.043565E+0	8.774127E-1	8.932952E-1	9.125164E-1	8.827159E-1	8.560521E-1	9.140361E-1	9.744288E-1	8.768830E-1	8.925298E-1	9.548825E-1	9.759481E-1	9.699981E-1	8.405681E-1	9.219882E-1	9.598063E-1	9.011749E-1	8.359154E-1	9.008824E-1	9.357806E-1	9.603253E-1	8.533274E-1	9.567498E-1	9.190236E-1	9.507812E-1	8.493780E-1	9.808840E-1	9.857249E-1	1.012258E+0	8.695429E-1	9.132568E-1	9.696185E-1	1.024605E+0	8.697366E-1	8.932355E-1	8.726115E-1	9.779298E-1	8.373199E-1	8.386711E-1	8.868702E-1	9.709416E-1	9.752195E-1
5.382900E+2	1.173855E+0	1.161295E+0	1.294062E+0	1.081951E+0	1.109434E+0	1.098648E+0	1.287608E+0	1.055783E+0	1.140780E+0	1.123477E+0	1.269935E+0	1.065683E+0	1.124552E+0	1.246543E+0	1.269625E+0	1.106634E+0	1.189123E+0	1.218884E+0	1.194837E+0	1.051384E+0	1.130039E+0	1.109814E+0	1.101853E+0	1.086754E+0	1.155074E+0	1.180914E+0	1.136145E+0	1.090186E+0	1.127834E+0	1.226694E+0	1.187571E+0	1.103806E+0	1.154196E+0	1.216361E+0	1.282525E+0	1.125601E+0	1.060091E+0	1.073400E+0	1.091959E+0	1.147299E+0	1.221844E+0	1.128748E+0	1.109480E+0	1.161595E+0	1.135252E+0	1.257088E+0	1.091423E+0	1.225233E+0	1.187684E+0	1.178806E+0	1.187701E+0	1.147035E+0	1.140311E+0	1.086381E+0	1.096945E+0	1.126619E+0	1.184484E+0	1.131900E+0	1.157465E+0	1.142706E+0	1.143949E+0	1.239355E+0	1.156068E+0	1.181593E+0	1.166949E+0	9.928995E-1	1.171079E+0	1.109423E+0	1.127137E+0	1.094620E+0	1.110735E+0	1.133386E+0	1.167160E+0	1.100274E+0	1.072497E+0	1.047199E+0	1.177855E+0	1.227202E+0	1.057288E+0	1.058017E+0	1.184525E+0	1.216029E+0	1.139523E+0	1.108781E+0	1.088770E+0	1.070066E+0	1.179875E+0	1.073033E+0	1.112524E+0	1.109240E+0	1.238305E+0	1.158515E+0	1.202871E+0	1.228296E+0	1.171335E+0	1.139630E+0	1.140240E+0	1.211483E+0	1.149116E+0	1.120368E+0	1.058000E+0	1.070686E+0	1.041907E+0	1.036188E+0	1.088704E+0	1.095930E+0	1.107327E+0	1.013049E+0	1.194409E+0	1.288752E+0	1.014707E+0	1.093306E+0	1.146735E+0	1.259514E+0	1.021804E+0	1.142263E+0	1.058672E+0	1.101999E+0	1.035532E+0	1.163601E+0	1.089722E+0	1.183157E+0	1.059691E+0	1.034198E+0	1.131112E+0	1.247337E+0	1.077836E+0	1.067659E+0	1.143990E+0	1.183552E+0	1.020860E+0	1.107757E+0	1.078136E+0	1.104444E+0	1.044285E+0	1.081593E+0	1.228339E+0	1.069974E+0	1.110927E+0	1.167333E+0	1.213879E+0	1.200648E+0	1.020247E+0	1.200564E+0	1.209598E+0	1.107438E+0	1.012223E+0	1.070678E+0	1.136592E+0	1.181329E+0	9.910531E-1	1.157202E+0	1.160996E+0	1.174609E+0	1.070453E+0	1.136309E+0	1.199849E+0	1.279445E+0	1.050491E+0	1.129576E+0	1.135488E+0	1.311560E+0	9.928738E-1	9.920589E-1	1.086117E+0	1.180278E+0	1.004920E+0	1.028470E+0	1.136303E+0	1.215438E+0	1.054261E+0
5.385110E+2	1.379595E+0	1.428614E+0	1.547500E+0	1.228985E+0	1.244489E+0	1.234234E+0	1.510584E+0	1.248181E+0	1.274020E+0	1.290951E+0	1.435767E+0	1.305552E+0	1.344624E+0	1.441171E+0	1.516230E+0	1.285377E+0	1.384827E+0	1.396819E+0	1.430655E+0	1.232740E+0	1.302265E+0	1.290093E+0	1.257118E+0	1.244764E+0	1.350978E+0	1.348682E+0	1.307995E+0	1.240657E+0	1.350799E+0	1.425659E+0	1.434423E+0	1.297578E+0	1.322376E+0	1.392691E+0	1.392372E+0	1.377242E+0	1.265493E+0	1.252315E+0	1.286954E+0	1.340048E+0	1.393730E+0	1.291437E+0	1.302355E+0	1.348917E+0	1.354498E+0	1.481576E+0	1.404502E+0	1.383304E+0	1.347907E+0	1.385653E+0	1.388693E+0	1.369489E+0	1.307747E+0	1.271197E+0	1.378187E+0	1.342819E+0	1.364987E+0	1.310415E+0	1.321970E+0	1.304435E+0	1.346921E+0	1.414658E+0	1.434953E+0	1.402327E+0	1.372244E+0	1.149004E+0	1.390846E+0	1.358164E+0	1.336122E+0	1.185743E+0	1.321689E+0	1.266302E+0	1.371016E+0	1.374631E+0	1.287798E+0	1.241265E+0	1.401444E+0	1.456137E+0	1.388697E+0	1.322912E+0	1.373332E+0	1.405938E+0	1.396584E+0	1.250314E+0	1.281839E+0	1.312752E+0	1.440306E+0	1.261130E+0	1.324151E+0	1.292603E+0	1.432029E+0	1.329240E+0	1.346543E+0	1.438904E+0	1.362401E+0	1.351521E+0	1.307374E+0	1.362464E+0	1.308253E+0	1.360860E+0	1.262349E+0	1.263505E+0	1.271481E+0	1.223142E+0	1.381710E+0	1.343040E+0	1.243026E+0	1.190412E+0	1.424545E+0	1.410469E+0	1.206445E+0	1.270934E+0	1.365221E+0	1.413384E+0	1.217322E+0	1.294845E+0	1.203929E+0	1.290362E+0	1.219203E+0	1.357188E+0	1.294996E+0	1.364207E+0	1.264494E+0	1.194575E+0	1.329275E+0	1.445420E+0	1.194417E+0	1.264912E+0	1.348830E+0	1.363963E+0	1.170614E+0	1.271379E+0	1.284398E+0	1.258519E+0	1.208809E+0	1.220496E+0	1.410046E+0	1.272864E+0	1.225100E+0	1.372928E+0	1.399054E+0	1.378693E+0	1.204065E+0	1.390915E+0	1.349823E+0	1.255337E+0	1.196417E+0	1.328074E+0	1.243794E+0	1.372945E+0	1.157932E+0	1.316180E+0	1.312369E+0	1.312303E+0	1.167640E+0	1.433464E+0	1.378031E+0	1.448340E+0	1.188380E+0	1.350737E+0	1.314762E+0	1.501286E+0	1.156358E+0	1.192059E+0	1.219083E+0	1.381579E+0	1.212501E+0	1.150317E+0	1.273403E+0	1.353686E+0	1.274300E+0
5.387700E+2	1.653746E+0	1.684497E+0	1.799144E+0	1.443265E+0	1.572958E+0	1.484969E+0	1.775016E+0	1.524381E+0	1.564170E+0	1.551868E+0	1.645819E+0	1.485580E+0	1.576182E+0	1.696201E+0	1.793459E+0	1.461079E+0	1.634976E+0	1.643184E+0	1.698149E+0	1.501418E+0	1.572668E+0	1.533974E+0	1.532478E+0	1.453989E+0	1.600815E+0	1.598373E+0	1.564169E+0	1.506165E+0	1.570050E+0	1.727506E+0	1.668098E+0	1.511245E+0	1.573179E+0	1.660773E+0	1.681755E+0	1.536928E+0	1.506937E+0	1.458292E+0	1.489998E+0	1.604812E+0	1.674312E+0	1.570339E+0	1.564903E+0	1.588586E+0	1.569626E+0	1.663550E+0	1.636589E+0	1.584212E+0	1.599156E+0	1.664928E+0	1.666253E+0	1.595963E+0	1.517432E+0	1.528332E+0	1.633175E+0	1.607825E+0	1.650317E+0	1.558321E+0	1.629397E+0	1.528118E+0	1.584732E+0	1.684571E+0	1.679722E+0	1.609331E+0	1.641288E+0	1.330039E+0	1.683464E+0	1.548599E+0	1.529144E+0	1.470438E+0	1.562992E+0	1.558996E+0	1.651050E+0	1.528061E+0	1.625440E+0	1.447158E+0	1.654988E+0	1.637292E+0	1.761026E+0	1.514049E+0	1.690026E+0	1.632605E+0	1.785081E+0	1.576769E+0	1.548964E+0	1.527549E+0	1.647519E+0	1.420972E+0	1.540386E+0	1.495648E+0	1.688777E+0	1.456094E+0	1.571901E+0	1.677629E+0	1.795554E+0	1.512084E+0	1.588433E+0	1.649829E+0	1.598823E+0	1.594048E+0	1.458056E+0	1.481223E+0	1.477804E+0	1.456208E+0	1.549067E+0	1.580623E+0	1.544464E+0	1.365116E+0	1.651089E+0	1.657067E+0	1.553429E+0	1.567333E+0	1.562130E+0	1.698292E+0	1.552886E+0	1.707012E+0	1.461319E+0	1.449790E+0	1.500459E+0	1.640787E+0	1.456697E+0	1.530340E+0	1.464153E+0	1.491746E+0	1.602947E+0	1.673323E+0	1.434029E+0	1.522085E+0	1.588612E+0	1.610753E+0	1.470644E+0	1.518563E+0	1.539432E+0	1.429876E+0	1.380922E+0	1.508497E+0	1.608003E+0	1.457884E+0	1.485398E+0	1.569961E+0	1.659741E+0	1.658477E+0	1.400313E+0	1.664142E+0	1.592801E+0	1.454232E+0	1.382301E+0	1.505069E+0	1.522617E+0	1.570432E+0	1.368540E+0	1.578347E+0	1.526203E+0	1.658593E+0	1.428497E+0	1.600798E+0	1.654799E+0	1.757892E+0	1.442632E+0	1.590733E+0	1.505763E+0	1.688043E+0	1.397916E+0	1.396765E+0	1.461183E+0	1.619575E+0	1.411365E+0	1.379951E+0	1.565292E+0	1.558499E+0	1.417432E+0
5.390240E+2	1.872646E+0	1.852472E+0	2.021427E+0	1.701999E+0	1.792490E+0	1.667910E+0	1.950253E+0	1.707319E+0	1.651712E+0	1.780238E+0	1.995908E+0	1.664623E+0	1.766389E+0	1.911921E+0	1.938146E+0	1.711400E+0	1.768143E+0	1.844658E+0	1.849492E+0	1.688930E+0	1.809411E+0	1.723861E+0	1.732464E+0	1.577861E+0	1.835242E+0	1.819609E+0	1.761636E+0	1.670226E+0	1.747956E+0	1.855449E+0	1.884022E+0	1.698960E+0	1.748204E+0	1.884258E+0	1.847353E+0	1.757735E+0	1.673333E+0	1.677573E+0	1.673162E+0	1.802736E+0	1.848339E+0	1.811941E+0	1.792339E+0	1.802906E+0	1.739460E+0	1.873299E+0	1.915969E+0	1.845198E+0	1.858212E+0	1.813257E+0	1.922014E+0	1.797728E+0	1.697906E+0	1.730225E+0	1.783637E+0	1.756523E+0	1.797184E+0	1.748587E+0	1.794932E+0	1.763856E+0	1.768014E+0	1.859871E+0	1.875216E+0	1.795239E+0	1.779830E+0	1.503487E+0	1.861949E+0	1.782456E+0	1.695235E+0	1.659087E+0	1.706154E+0	1.694741E+0	1.814669E+0	1.721997E+0	1.784647E+0	1.643377E+0	1.832041E+0	1.892482E+0	1.957041E+0	1.732199E+0	1.808856E+0	1.844784E+0	1.916522E+0	1.731318E+0	1.716494E+0	1.673842E+0	1.870749E+0	1.639093E+0	1.674637E+0	1.732360E+0	1.913426E+0	1.767947E+0	1.857804E+0	1.876482E+0	1.907812E+0	1.748362E+0	1.735905E+0	1.791267E+0	1.783892E+0	1.742602E+0	1.660367E+0	1.710170E+0	1.694016E+0	1.608581E+0	1.735133E+0	1.775623E+0	1.718247E+0	1.504661E+0	1.797170E+0	1.950028E+0	1.834498E+0	1.742280E+0	1.817837E+0	1.907081E+0	1.829690E+0	1.865926E+0	1.643481E+0	1.717354E+0	1.686129E+0	1.843598E+0	1.695571E+0	1.727849E+0	1.766212E+0	1.686911E+0	1.754488E+0	1.904953E+0	1.925156E+0	1.651996E+0	1.760316E+0	1.756170E+0	1.835831E+0	1.605051E+0	1.673047E+0	1.645679E+0	1.675361E+0	1.694511E+0	1.781887E+0	1.596221E+0	1.738885E+0	1.772702E+0	1.845947E+0	1.808197E+0	1.779345E+0	1.798347E+0	1.778446E+0	1.623100E+0	1.726469E+0	1.676666E+0	1.714871E+0	1.774390E+0	1.588700E+0	1.692396E+0	1.771550E+0	1.747654E+0	1.607775E+0	1.710967E+0	1.792928E+0	1.884428E+0	1.545666E+0	1.762926E+0	1.728597E+0	1.934683E+0	1.569265E+0	1.565588E+0	1.629891E+0	1.776312E+0	1.596904E+0	1.569163E+0	1.792612E+0	1.869558E+0	1.492201E+0
5.392880E+2	2.119956E+0	2.108353E+0	2.228134E+0	1.937938E+0	1.929764E+0	1.781565E+0	2.197097E+0	1.910081E+0	1.871388E+0	1.895737E+0	2.125498E+0	1.890265E+0	1.930869E+0	2.030807E+0	2.237025E+0	1.859771E+0	1.971931E+0	2.085007E+0	2.034524E+0	1.829426E+0	1.968172E+0	1.878518E+0	1.878183E+0	1.819038E+0	1.952456E+0	1.963830E+0	2.000730E+0	1.859044E+0	1.969528E+0	2.092538E+0	2.099942E+0	1.863752E+0	1.898292E+0	2.051873E+0	2.083768E+0	1.937242E+0	1.882682E+0	1.898692E+0	1.902709E+0	1.931666E+0	2.058243E+0	1.945445E+0	1.994687E+0	2.062400E+0	1.890771E+0	2.160148E+0	2.115993E+0	2.115049E+0	1.970054E+0	2.053713E+0	2.105458E+0	1.916711E+0	1.849694E+0	1.875367E+0	2.001768E+0	1.919357E+0	1.983858E+0	1.984741E+0	1.944017E+0	1.966157E+0	2.049751E+0	2.109745E+0	2.067456E+0	1.998316E+0	2.069955E+0	1.723009E+0	2.019184E+0	1.952424E+0	1.936140E+0	1.797984E+0	1.858929E+0	1.936999E+0	1.991165E+0	1.879423E+0	2.020785E+0	1.758951E+0	2.017120E+0	2.076258E+0	2.037368E+0	1.861530E+0	1.967506E+0	2.068668E+0	2.192195E+0	1.860382E+0	1.879428E+0	1.839222E+0	2.085706E+0	1.787895E+0	1.841169E+0	1.928675E+0	2.081476E+0	1.909600E+0	1.999071E+0	2.069198E+0	2.106816E+0	1.990226E+0	1.915181E+0	2.053939E+0	1.977802E+0	2.040324E+0	1.812359E+0	1.858078E+0	1.880052E+0	1.774485E+0	2.063431E+0	1.916829E+0	1.932255E+0	1.656458E+0	1.967846E+0	2.079127E+0	2.058375E+0	1.937565E+0	1.926816E+0	2.107708E+0	2.097154E+0	2.075493E+0	1.770283E+0	1.883885E+0	1.864289E+0	1.999762E+0	1.906094E+0	1.961871E+0	1.928304E+0	1.821935E+0	1.913623E+0	2.064161E+0	2.077454E+0	1.857201E+0	1.925395E+0	2.015025E+0	2.057572E+0	1.799056E+0	1.870670E+0	1.807160E+0	1.858849E+0	1.853814E+0	1.954571E+0	1.785275E+0	1.941568E+0	1.922330E+0	2.048189E+0	2.059658E+0	2.073976E+0	2.027734E+0	2.031641E+0	1.820862E+0	2.000790E+0	1.860264E+0	1.851264E+0	2.026548E+0	1.799310E+0	1.894327E+0	1.906606E+0	1.944532E+0	1.887266E+0	1.999782E+0	1.949030E+0	2.117155E+0	2.021871E+0	1.968484E+0	1.877153E+0	2.158201E+0	1.995266E+0	1.790293E+0	1.794310E+0	1.938825E+0	1.885978E+0	1.798211E+0	1.853643E+0	1.945084E+0	1.816920E+0
5.395160E+2	2.022082E+0	2.109555E+0	2.170618E+0	1.898615E+0	1.928103E+0	1.823438E+0	2.082155E+0	1.875837E+0	1.896161E+0	1.963985E+0	2.236666E+0	1.864760E+0	1.885845E+0	2.190444E+0	2.184221E+0	1.866712E+0	2.019371E+0	2.032995E+0	2.000838E+0	1.865251E+0	1.981633E+0	1.840998E+0	1.925921E+0	1.821223E+0	2.011889E+0	2.004056E+0	1.952164E+0	1.785264E+0	1.898458E+0	2.072172E+0	2.071881E+0	1.893167E+0	1.977983E+0	2.015482E+0	2.065368E+0	1.935591E+0	1.893544E+0	1.812446E+0	1.840230E+0	1.922182E+0	2.098938E+0	1.922204E+0	1.945073E+0	1.959378E+0	1.924740E+0	2.107426E+0	2.029026E+0	2.021486E+0	2.043403E+0	2.027058E+0	2.055479E+0	1.923606E+0	1.888290E+0	1.886916E+0	1.952285E+0	1.903848E+0	2.058973E+0	1.942770E+0	2.007765E+0	1.949165E+0	1.943721E+0	2.092495E+0	2.058792E+0	1.979185E+0	1.948987E+0	1.831412E+0	2.003399E+0	1.941255E+0	1.868309E+0	1.733463E+0	1.886753E+0	1.839904E+0	1.973465E+0	1.938170E+0	1.979645E+0	1.711646E+0	1.995724E+0	2.043706E+0	2.057068E+0	1.871915E+0	2.073070E+0	2.079806E+0	2.158463E+0	1.884243E+0	1.858995E+0	1.868089E+0	2.066590E+0	1.779507E+0	1.904198E+0	1.900705E+0	2.115903E+0	1.851984E+0	1.935646E+0	2.055397E+0	2.100577E+0	1.948562E+0	1.834216E+0	1.983218E+0	1.944206E+0	1.969093E+0	1.841336E+0	1.886390E+0	1.813752E+0	1.756943E+0	1.835124E+0	1.886009E+0	1.928502E+0	1.622373E+0	1.960670E+0	2.053306E+0	2.034948E+0	1.858380E+0	1.982377E+0	2.016909E+0	2.005984E+0	2.091950E+0	1.793471E+0	1.846821E+0	1.867294E+0	1.933608E+0	1.875646E+0	1.875973E+0	1.845458E+0	1.765922E+0	1.888791E+0	2.017839E+0	2.114164E+0	1.750623E+0	1.966361E+0	1.960116E+0	1.953007E+0	1.847563E+0	1.898615E+0	1.841237E+0	1.822814E+0	1.778046E+0	1.944343E+0	1.771444E+0	1.924809E+0	1.955453E+0	2.025952E+0	2.066015E+0	2.059998E+0	1.999931E+0	2.025962E+0	1.785161E+0	2.062751E+0	1.860262E+0	1.842202E+0	1.974823E+0	1.763120E+0	1.880999E+0	1.894225E+0	1.969139E+0	1.891794E+0	1.903905E+0	1.934651E+0	2.087217E+0	2.063392E+0	1.910905E+0	1.830242E+0	2.101285E+0	1.977453E+0	1.783234E+0	1.780491E+0	2.014313E+0	1.827545E+0	1.695699E+0	1.880178E+0	1.984766E+0	1.866053E+0
5.397750E+2	2.141005E+0	2.104740E+0	2.225142E+0	1.937939E+0	1.994792E+0	1.886246E+0	2.198351E+0	1.902422E+0	1.889004E+0	1.931964E+0	2.221310E+0	1.911854E+0	1.977273E+0	2.126685E+0	2.282967E+0	1.907061E+0	2.087838E+0	2.048871E+0	2.054640E+0	1.946415E+0	2.041103E+0	1.878061E+0	1.936971E+0	1.827354E+0	1.995376E+0	2.076165E+0	1.978314E+0	1.876030E+0	1.996470E+0	2.123348E+0	2.129154E+0	1.879326E+0	1.994116E+0	2.062123E+0	2.128931E+0	1.925684E+0	1.860959E+0	1.851900E+0	1.978906E+0	1.998935E+0	2.045391E+0	1.955177E+0	1.968485E+0	2.070670E+0	1.976722E+0	2.156745E+0	2.112733E+0	1.993906E+0	2.083457E+0	2.061823E+0	2.164479E+0	1.935105E+0	1.911238E+0	1.839207E+0	2.002777E+0	1.984583E+0	1.968160E+0	2.005450E+0	1.978976E+0	1.956833E+0	1.937154E+0	2.110302E+0	2.069084E+0	2.012054E+0	2.027790E+0	1.727341E+0	2.085357E+0	1.981576E+0	1.936140E+0	1.818673E+0	1.935821E+0	1.939359E+0	2.017452E+0	1.950717E+0	1.966288E+0	1.765402E+0	2.040652E+0	2.142422E+0	2.096979E+0	1.903601E+0	2.117707E+0	2.099856E+0	2.142761E+0	1.930334E+0	1.917222E+0	1.912614E+0	2.177685E+0	1.815711E+0	1.934428E+0	1.863928E+0	2.069810E+0	1.928099E+0	1.957750E+0	2.039548E+0	2.145367E+0	1.991244E+0	1.951037E+0	2.026436E+0	2.100980E+0	1.975792E+0	1.857092E+0	1.898105E+0	1.814245E+0	1.797539E+0	1.844744E+0	1.970061E+0	1.956927E+0	1.670307E+0	2.091884E+0	2.148150E+0	2.017523E+0	1.899041E+0	1.904154E+0	2.126196E+0	2.032898E+0	2.078658E+0	1.766503E+0	1.850372E+0	1.844273E+0	2.122858E+0	1.873019E+0	1.895520E+0	1.960721E+0	1.845518E+0	1.935923E+0	2.136047E+0	2.033304E+0	1.813722E+0	1.960340E+0	2.044590E+0	2.072809E+0	1.928204E+0	1.885401E+0	1.797779E+0	1.881138E+0	1.858183E+0	1.993083E+0	1.872885E+0	1.947332E+0	1.942889E+0	1.994400E+0	2.063126E+0	2.082260E+0	1.986027E+0	1.995875E+0	1.861092E+0	1.985017E+0	1.823663E+0	1.859816E+0	1.961890E+0	1.863147E+0	1.934318E+0	1.943745E+0	1.896485E+0	1.983448E+0	1.972986E+0	2.041455E+0	2.127890E+0	2.121317E+0	1.935120E+0	1.988288E+0	2.126186E+0	1.948630E+0	1.935003E+0	1.884384E+0	1.997012E+0	1.819350E+0	1.828671E+0	1.864256E+0	1.948924E+0	1.921596E+0
5.400140E+2	2.014186E+0	2.022857E+0	2.137665E+0	1.833075E+0	1.922546E+0	1.836397E+0	2.036932E+0	1.846548E+0	1.799813E+0	1.908337E+0	2.104004E+0	1.853970E+0	1.875278E+0	2.042313E+0	2.146201E+0	1.822896E+0	1.979478E+0	1.999597E+0	2.043073E+0	1.845659E+0	1.939563E+0	1.864787E+0	1.791252E+0	1.777013E+0	1.937596E+0	1.878967E+0	1.936687E+0	1.790603E+0	1.905425E+0	2.054416E+0	2.029496E+0	1.823096E+0	1.949137E+0	1.998049E+0	2.051426E+0	1.889341E+0	1.808127E+0	1.778502E+0	1.822249E+0	1.889839E+0	1.959715E+0	1.887610E+0	1.880969E+0	1.997389E+0	1.877391E+0	2.011621E+0	1.909991E+0	1.987509E+0	1.979938E+0	2.038067E+0	2.003366E+0	1.917860E+0	1.849170E+0	1.879382E+0	1.918455E+0	1.864623E+0	1.956950E+0	1.918148E+0	1.925512E+0	1.921746E+0	1.914938E+0	2.054650E+0	2.024135E+0	1.976240E+0	2.016745E+0	1.668803E+0	2.024037E+0	1.987157E+0	1.810951E+0	1.763511E+0	1.860952E+0	1.832838E+0	1.894602E+0	1.832649E+0	2.004752E+0	1.737982E+0	2.037978E+0	2.006947E+0	2.064647E+0	1.862048E+0	2.028432E+0	2.017429E+0	2.104374E+0	1.834352E+0	1.796173E+0	1.835307E+0	2.057289E+0	1.775091E+0	1.843731E+0	1.813688E+0	2.027795E+0	1.843528E+0	1.893839E+0	2.000699E+0	2.080733E+0	1.888093E+0	1.926746E+0	1.975920E+0	1.900589E+0	1.905769E+0	1.782369E+0	1.803405E+0	1.763285E+0	1.736894E+0	1.905163E+0	1.909545E+0	1.879693E+0	1.670304E+0	1.963232E+0	2.018005E+0	1.899320E+0	1.836443E+0	1.925191E+0	2.014733E+0	1.988413E+0	2.073589E+0	1.739058E+0	1.822959E+0	1.806238E+0	1.917883E+0	1.793748E+0	1.923811E+0	1.874789E+0	1.755899E+0	1.930346E+0	2.024763E+0	2.050170E+0	1.777667E+0	1.921777E+0	1.967356E+0	1.955635E+0	1.863922E+0	1.797006E+0	1.747407E+0	1.835616E+0	1.764449E+0	1.962397E+0	1.798533E+0	1.865103E+0	1.917763E+0	1.943189E+0	1.961964E+0	1.994233E+0	1.966242E+0	1.909014E+0	1.731894E+0	1.994027E+0	1.865663E+0	1.809490E+0	1.877251E+0	1.781717E+0	1.806942E+0	1.889160E+0	1.873047E+0	1.869133E+0	1.822321E+0	1.968029E+0	2.040334E+0	2.022895E+0	1.818890E+0	1.816281E+0	2.076380E+0	1.934480E+0	1.818531E+0	1.780492E+0	1.889021E+0	1.807049E+0	1.722644E+0	1.865141E+0	1.794034E+0	1.857508E+0
5.402740E+2	2.019451E+0	1.945191E+0	2.032211E+0	1.779506E+0	1.820837E+0	1.832411E+0	2.067079E+0	1.738407E+0	1.778340E+0	1.901516E+0	2.137783E+0	1.879968E+0	1.860574E+0	2.018346E+0	2.154650E+0	1.993828E+0	1.939581E+0	2.014928E+0	1.965139E+0	1.982239E+0	1.914876E+0	1.808053E+0	1.867633E+0	1.766077E+0	1.946953E+0	1.861794E+0	1.804865E+0	1.824579E+0	1.866406E+0	2.011070E+0	1.981961E+0	1.912195E+0	1.887049E+0	1.942183E+0	2.077075E+0	1.925680E+0	1.799239E+0	1.740424E+0	1.837390E+0	1.910540E+0	1.905631E+0	1.913013E+0	1.927239E+0	1.951112E+0	1.882024E+0	1.973643E+0	2.079573E+0	2.012131E+0	1.869657E+0	1.997509E+0	1.998581E+0	1.906361E+0	1.799097E+0	1.847743E+0	1.859883E+0	1.852761E+0	1.907059E+0	1.907519E+0	1.934249E+0	1.931617E+0	1.867983E+0	2.059658E+0	2.025216E+0	1.902173E+0	1.951495E+0	1.964751E+0	1.996721E+0	1.899698E+0	1.824914E+0	1.751195E+0	1.811376E+0	1.788057E+0	1.857590E+0	1.854896E+0	1.910197E+0	1.715943E+0	1.929928E+0	2.014826E+0	1.999984E+0	1.770632E+0	1.902359E+0	1.981230E+0	2.025279E+0	1.793680E+0	1.771656E+0	1.735004E+0	1.973576E+0	1.734911E+0	1.852444E+0	1.792448E+0	1.953106E+0	1.820800E+0	1.879902E+0	2.028305E+0	2.045584E+0	1.866753E+0	1.870652E+0	1.888363E+0	1.892928E+0	1.937432E+0	1.736112E+0	1.843924E+0	1.697479E+0	1.681760E+0	1.763472E+0	1.861355E+0	1.776177E+0	1.607454E+0	1.884300E+0	2.032756E+0	1.934184E+0	1.777057E+0	1.883113E+0	2.095202E+0	1.960401E+0	2.079291E+0	1.667141E+0	1.741725E+0	1.788222E+0	1.968853E+0	1.779572E+0	1.893464E+0	1.850083E+0	1.800118E+0	1.850272E+0	2.000796E+0	1.944502E+0	1.767591E+0	1.885633E+0	1.902189E+0	1.962466E+0	1.736530E+0	1.820887E+0	1.731109E+0	1.751693E+0	1.752792E+0	1.939532E+0	1.747809E+0	1.880816E+0	1.852082E+0	1.940605E+0	1.923812E+0	1.997863E+0	1.900476E+0	1.874954E+0	1.799896E+0	1.946146E+0	1.821263E+0	1.812509E+0	1.977765E+0	1.711349E+0	1.764971E+0	1.843020E+0	1.857811E+0	1.823809E+0	1.868768E+0	1.881248E+0	2.065183E+0	1.991115E+0	1.807055E+0	1.833032E+0	2.020655E+0	1.949680E+0	1.796178E+0	1.709001E+0	1.821923E+0	1.746054E+0	1.695696E+0	1.768729E+0	1.879800E+0	1.834011E+0
5.405080E+2	1.933682E+0	1.891006E+0	2.089733E+0	1.766398E+0	1.770254E+0	1.735206E+0	1.966586E+0	1.795632E+0	1.706215E+0	1.821187E+0	1.986076E+0	1.834348E+0	1.813254E+0	1.909526E+0	2.093395E+0	2.008142E+0	1.932574E+0	1.973319E+0	1.932958E+0	2.015262E+0	1.813898E+0	1.760924E+0	1.690757E+0	1.744625E+0	1.837994E+0	1.841684E+0	1.784049E+0	1.721677E+0	1.798126E+0	1.962504E+0	1.975083E+0	1.933823E+0	1.806871E+0	1.939617E+0	1.899768E+0	1.943304E+0	1.769121E+0	1.675739E+0	1.791482E+0	1.872594E+0	1.892244E+0	1.774648E+0	1.821324E+0	1.890507E+0	1.793503E+0	1.955497E+0	1.863248E+0	2.023950E+0	1.824921E+0	1.905382E+0	1.867780E+0	1.967870E+0	1.772496E+0	1.723696E+0	1.826053E+0	1.797574E+0	1.882952E+0	1.830851E+0	1.847368E+0	1.802784E+0	1.846272E+0	1.956147E+0	1.958605E+0	1.971829E+0	1.878711E+0	1.933313E+0	1.891088E+0	1.822778E+0	1.707704E+0	1.648743E+0	1.786589E+0	1.752239E+0	1.806083E+0	1.752797E+0	1.785712E+0	1.650895E+0	1.911742E+0	1.905082E+0	1.967652E+0	1.873992E+0	1.934329E+0	1.978450E+0	1.955491E+0	1.775786E+0	1.692487E+0	1.685585E+0	1.918287E+0	1.723431E+0	1.747909E+0	1.696622E+0	1.986950E+0	1.718260E+0	1.871256E+0	1.928621E+0	1.952601E+0	1.816955E+0	1.800671E+0	1.892296E+0	1.790963E+0	1.868632E+0	1.674602E+0	1.684297E+0	1.695004E+0	1.623118E+0	1.733532E+0	1.813166E+0	1.802457E+0	1.557923E+0	1.800241E+0	1.948453E+0	1.920564E+0	1.763684E+0	1.845352E+0	1.898923E+0	1.869232E+0	1.976091E+0	1.653419E+0	1.670139E+0	1.716156E+0	1.852270E+0	1.703971E+0	1.790081E+0	1.788336E+0	1.679835E+0	1.789960E+0	1.891111E+0	1.940535E+0	1.689643E+0	1.833218E+0	1.800821E+0	1.844763E+0	1.743544E+0	1.727407E+0	1.717779E+0	1.644540E+0	1.679941E+0	1.780085E+0	1.713804E+0	1.738360E+0	1.809251E+0	1.868190E+0	1.849818E+0	1.956956E+0	1.842728E+0	1.805125E+0	1.662762E+0	1.861093E+0	1.739067E+0	1.787844E+0	1.811424E+0	1.683700E+0	1.782251E+0	1.799126E+0	1.792187E+0	1.712520E+0	1.822323E+0	1.841194E+0	1.974805E+0	1.922939E+0	1.773149E+0	1.747586E+0	1.964329E+0	1.854840E+0	1.770296E+0	1.631322E+0	1.798857E+0	1.727091E+0	1.662889E+0	1.736887E+0	1.735151E+0	1.729331E+0
5.407680E+2	1.826864E+0	1.754938E+0	1.998061E+0	1.624496E+0	1.658549E+0	1.613081E+0	1.884933E+0	1.628917E+0	1.626383E+0	1.665794E+0	1.951683E+0	1.721036E+0	1.716769E+0	1.792079E+0	1.890092E+0	1.851528E+0	1.737954E+0	1.807981E+0	1.745410E+0	1.821589E+0	1.723577E+0	1.579728E+0	1.665132E+0	1.615065E+0	1.674003E+0	1.678819E+0	1.644757E+0	1.613921E+0	1.695000E+0	1.832994E+0	1.818153E+0	1.830016E+0	1.709093E+0	1.745350E+0	1.829512E+0	1.857953E+0	1.616547E+0	1.627572E+0	1.649969E+0	1.761341E+0	1.759448E+0	1.644926E+0	1.710392E+0	1.731280E+0	1.732772E+0	1.847223E+0	1.773017E+0	1.857510E+0	1.728165E+0	1.818469E+0	1.757178E+0	1.765536E+0	1.623837E+0	1.642338E+0	1.662966E+0	1.736909E+0	1.819611E+0	1.699340E+0	1.734268E+0	1.646534E+0	1.702880E+0	1.717400E+0	1.788029E+0	1.877153E+0	1.750214E+0	1.774500E+0	1.769671E+0	1.845106E+0	1.670795E+0	1.595056E+0	1.661133E+0	1.702279E+0	1.617253E+0	1.683206E+0	1.717867E+0	1.534246E+0	1.763039E+0	1.845747E+0	1.866104E+0	1.761282E+0	1.750344E+0	1.752896E+0	1.854875E+0	1.794221E+0	1.641922E+0	1.558374E+0	1.840261E+0	1.642626E+0	1.609561E+0	1.657776E+0	1.870245E+0	1.686018E+0	1.704521E+0	1.791112E+0	1.842614E+0	1.776309E+0	1.674603E+0	1.789026E+0	1.766211E+0	1.743212E+0	1.649187E+0	1.701870E+0	1.554490E+0	1.599559E+0	1.636222E+0	1.705018E+0	1.674803E+0	1.450865E+0	1.673132E+0	1.877317E+0	1.784929E+0	1.750307E+0	1.754178E+0	1.802685E+0	1.731381E+0	1.845666E+0	1.520939E+0	1.604640E+0	1.572523E+0	1.754664E+0	1.632046E+0	1.707787E+0	1.685933E+0	1.837265E+0	1.701270E+0	1.756922E+0	1.805601E+0	1.766529E+0	1.625363E+0	1.803233E+0	1.743878E+0	1.697961E+0	1.624275E+0	1.557778E+0	1.592387E+0	1.638172E+0	1.688028E+0	1.666538E+0	1.653515E+0	1.703028E+0	1.736289E+0	1.736514E+0	1.813005E+0	1.735789E+0	1.709180E+0	1.583996E+0	1.738860E+0	1.626868E+0	1.575963E+0	1.739712E+0	1.599759E+0	1.664746E+0	1.646629E+0	1.748241E+0	1.574539E+0	1.671068E+0	1.740039E+0	1.848838E+0	1.809653E+0	1.621404E+0	1.709608E+0	1.800691E+0	1.715982E+0	1.665588E+0	1.592244E+0	1.753250E+0	1.599978E+0	1.473679E+0	1.607749E+0	1.691628E+0	1.680197E+0
5.410190E+2	1.674269E+0	1.678475E+0	1.818918E+0	1.542996E+0	1.505708E+0	1.474005E+0	1.713462E+0	1.459050E+0	1.493695E+0	1.563943E+0	1.713377E+0	1.562102E+0	1.448917E+0	1.670796E+0	1.743294E+0	1.721810E+0	1.649533E+0	1.638805E+0	1.693625E+0	1.656466E+0	1.569302E+0	1.494166E+0	1.480217E+0	1.496445E+0	1.605217E+0	1.588558E+0	1.565236E+0	1.519269E+0	1.553792E+0	1.655963E+0	1.626863E+0	1.681661E+0	1.605445E+0	1.613099E+0	1.694577E+0	1.730754E+0	1.538536E+0	1.436271E+0	1.490470E+0	1.597049E+0	1.664138E+0	1.499531E+0	1.606712E+0	1.594644E+0	1.549039E+0	1.691329E+0	1.596912E+0	1.729970E+0	1.532053E+0	1.634796E+0	1.635414E+0	1.681038E+0	1.530995E+0	1.521804E+0	1.589247E+0	1.553550E+0	1.644153E+0	1.544890E+0	1.587240E+0	1.599934E+0	1.519092E+0	1.666202E+0	1.677560E+0	1.723620E+0	1.603142E+0	1.615143E+0	1.631253E+0	1.673906E+0	1.519666E+0	1.471918E+0	1.508357E+0	1.574550E+0	1.602769E+0	1.548597E+0	1.614222E+0	1.443934E+0	1.640010E+0	1.667220E+0	1.661503E+0	1.638707E+0	1.649610E+0	1.644295E+0	1.715293E+0	1.619065E+0	1.521384E+0	1.450728E+0	1.664052E+0	1.507072E+0	1.527576E+0	1.513262E+0	1.701611E+0	1.568150E+0	1.594964E+0	1.680184E+0	1.773445E+0	1.681291E+0	1.536384E+0	1.672841E+0	1.575834E+0	1.680500E+0	1.457037E+0	1.523691E+0	1.495117E+0	1.462725E+0	1.519124E+0	1.500495E+0	1.580938E+0	1.329427E+0	1.628026E+0	1.683936E+0	1.633499E+0	1.573751E+0	1.598813E+0	1.648270E+0	1.602319E+0	1.662061E+0	1.419213E+0	1.464511E+0	1.484943E+0	1.599578E+0	1.461423E+0	1.522621E+0	1.542879E+0	1.715803E+0	1.535037E+0	1.709532E+0	1.640896E+0	1.735247E+0	1.600061E+0	1.611958E+0	1.657181E+0	1.637191E+0	1.507425E+0	1.466915E+0	1.497558E+0	1.496843E+0	1.568292E+0	1.521289E+0	1.498492E+0	1.684752E+0	1.632329E+0	1.603561E+0	1.628664E+0	1.697826E+0	1.580313E+0	1.479733E+0	1.651552E+0	1.578866E+0	1.507013E+0	1.617456E+0	1.440418E+0	1.473675E+0	1.511012E+0	1.590626E+0	1.550869E+0	1.600203E+0	1.565967E+0	1.659605E+0	1.655873E+0	1.695126E+0	1.543178E+0	1.788836E+0	1.601751E+0	1.634412E+0	1.464997E+0	1.593888E+0	1.459029E+0	1.461375E+0	1.490108E+0	1.532898E+0	1.524248E+0
5.412850E+2	1.546403E+0	1.484605E+0	1.657748E+0	1.352653E+0	1.455685E+0	1.400232E+0	1.548268E+0	1.370285E+0	1.408908E+0	1.431645E+0	1.573346E+0	1.428677E+0	1.438350E+0	1.510682E+0	1.604416E+0	1.623332E+0	1.521763E+0	1.515622E+0	1.552332E+0	1.590978E+0	1.454859E+0	1.472661E+0	1.399320E+0	1.397526E+0	1.461039E+0	1.464451E+0	1.456896E+0	1.393069E+0	1.438594E+0	1.555174E+0	1.500858E+0	1.519032E+0	1.451935E+0	1.505458E+0	1.598115E+0	1.522614E+0	1.417567E+0	1.334429E+0	1.390132E+0	1.546598E+0	1.533485E+0	1.477912E+0	1.456202E+0	1.472334E+0	1.420372E+0	1.551870E+0	1.542013E+0	1.606371E+0	1.469107E+0	1.513702E+0	1.549803E+0	1.571246E+0	1.441274E+0	1.398258E+0	1.424641E+0	1.502465E+0	1.436738E+0	1.496765E+0	1.500359E+0	1.497963E+0	1.504454E+0	1.551561E+0	1.558423E+0	1.557823E+0	1.479159E+0	1.470965E+0	1.542010E+0	1.518826E+0	1.416919E+0	1.359615E+0	1.440062E+0	1.432680E+0	1.460071E+0	1.410564E+0	1.465167E+0	1.346092E+0	1.567261E+0	1.524925E+0	1.587239E+0	1.500027E+0	1.510867E+0	1.531800E+0	1.592579E+0	1.544230E+0	1.458049E+0	1.352383E+0	1.583445E+0	1.402867E+0	1.446103E+0	1.416919E+0	1.508470E+0	1.437064E+0	1.476279E+0	1.472642E+0	1.567639E+0	1.496332E+0	1.400482E+0	1.539262E+0	1.452653E+0	1.523421E+0	1.378757E+0	1.400677E+0	1.370931E+0	1.330404E+0	1.371016E+0	1.404116E+0	1.448990E+0	1.327298E+0	1.478361E+0	1.618598E+0	1.560507E+0	1.517572E+0	1.464482E+0	1.580852E+0	1.466115E+0	1.547461E+0	1.345401E+0	1.361444E+0	1.383353E+0	1.541012E+0	1.442523E+0	1.426953E+0	1.433790E+0	1.607310E+0	1.448371E+0	1.588124E+0	1.538703E+0	1.726760E+0	1.551863E+0	1.485247E+0	1.505851E+0	1.494019E+0	1.355012E+0	1.318768E+0	1.417430E+0	1.392906E+0	1.474427E+0	1.389296E+0	1.471257E+0	1.507138E+0	1.520602E+0	1.489683E+0	1.569637E+0	1.587147E+0	1.476422E+0	1.355068E+0	1.551848E+0	1.418073E+0	1.404341E+0	1.441126E+0	1.347431E+0	1.436649E+0	1.447986E+0	1.499221E+0	1.404327E+0	1.470978E+0	1.498184E+0	1.573180E+0	1.508757E+0	1.565980E+0	1.449914E+0	1.573619E+0	1.460274E+0	1.526177E+0	1.370636E+0	1.449731E+0	1.405728E+0	1.405728E+0	1.407849E+0	1.479134E+0	1.455884E+0
5.415190E+2	1.436426E+0	1.442462E+0	1.501371E+0	1.247222E+0	1.297843E+0	1.257165E+0	1.472269E+0	1.276564E+0	1.278423E+0	1.285174E+0	1.425938E+0	1.373738E+0	1.270195E+0	1.355842E+0	1.484019E+0	1.468020E+0	1.408548E+0	1.376012E+0	1.410541E+0	1.423053E+0	1.346586E+0	1.263097E+0	1.342540E+0	1.297728E+0	1.311359E+0	1.321701E+0	1.301056E+0	1.277547E+0	1.300166E+0	1.414175E+0	1.384021E+0	1.427336E+0	1.360999E+0	1.379364E+0	1.381217E+0	1.445524E+0	1.279810E+0	1.263324E+0	1.277489E+0	1.348675E+0	1.453165E+0	1.296842E+0	1.339144E+0	1.401810E+0	1.325161E+0	1.434525E+0	1.473531E+0	1.421222E+0	1.380679E+0	1.385075E+0	1.389223E+0	1.429845E+0	1.333826E+0	1.274214E+0	1.303963E+0	1.313174E+0	1.404227E+0	1.337835E+0	1.380064E+0	1.346652E+0	1.354495E+0	1.433021E+0	1.419248E+0	1.428818E+0	1.326568E+0	1.372318E+0	1.425448E+0	1.441907E+0	1.322155E+0	1.241401E+0	1.282229E+0	1.313434E+0	1.353313E+0	1.270247E+0	1.313975E+0	1.196646E+0	1.493983E+0	1.445637E+0	1.427599E+0	1.377448E+0	1.413752E+0	1.403710E+0	1.482077E+0	1.439571E+0	1.248128E+0	1.206087E+0	1.376749E+0	1.251418E+0	1.282643E+0	1.302442E+0	1.429696E+0	1.316024E+0	1.306664E+0	1.410791E+0	1.480893E+0	1.398774E+0	1.353059E+0	1.418030E+0	1.318272E+0	1.405915E+0	1.264381E+0	1.275709E+0	1.269008E+0	1.240185E+0	1.284397E+0	1.352006E+0	1.336890E+0	1.147270E+0	1.399431E+0	1.410468E+0	1.407989E+0	1.358674E+0	1.348500E+0	1.418824E+0	1.330461E+0	1.477819E+0	1.213390E+0	1.266501E+0	1.245225E+0	1.352307E+0	1.238821E+0	1.322029E+0	1.333447E+0	1.455778E+0	1.367791E+0	1.412940E+0	1.435514E+0	1.481255E+0	1.372929E+0	1.380256E+0	1.343485E+0	1.349681E+0	1.290492E+0	1.234815E+0	1.280879E+0	1.280233E+0	1.355296E+0	1.296495E+0	1.333512E+0	1.310680E+0	1.372672E+0	1.380428E+0	1.387887E+0	1.389843E+0	1.339037E+0	1.255903E+0	1.427927E+0	1.286675E+0	1.306200E+0	1.326509E+0	1.265497E+0	1.296922E+0	1.355136E+0	1.381444E+0	1.321235E+0	1.379868E+0	1.432973E+0	1.467546E+0	1.452885E+0	1.419616E+0	1.330398E+0	1.461563E+0	1.375912E+0	1.405000E+0	1.249584E+0	1.348030E+0	1.249402E+0	1.237600E+0	1.366276E+0	1.376729E+0	1.297800E+0
5.417860E+2	1.236472E+0	1.241370E+0	1.323421E+0	1.081381E+0	1.145003E+0	1.073725E+0	1.259343E+0	1.144094E+0	1.143534E+0	1.128727E+0	1.296960E+0	1.184881E+0	1.121339E+0	1.203402E+0	1.316094E+0	1.261082E+0	1.178881E+0	1.256662E+0	1.213945E+0	1.273603E+0	1.183896E+0	1.102952E+0	1.126474E+0	1.105138E+0	1.173234E+0	1.154425E+0	1.158560E+0	1.168334E+0	1.121795E+0	1.265341E+0	1.240836E+0	1.231834E+0	1.183530E+0	1.219950E+0	1.202234E+0	1.278680E+0	1.131685E+0	1.120651E+0	1.181412E+0	1.171881E+0	1.213277E+0	1.124423E+0	1.185292E+0	1.185286E+0	1.171793E+0	1.257086E+0	1.245789E+0	1.305009E+0	1.202772E+0	1.230953E+0	1.223856E+0	1.211989E+0	1.105886E+0	1.130576E+0	1.152992E+0	1.184547E+0	1.222602E+0	1.174990E+0	1.195508E+0	1.114745E+0	1.136375E+0	1.248817E+0	1.258416E+0	1.275283E+0	1.165943E+0	1.202123E+0	1.194755E+0	1.218597E+0	1.096710E+0	1.057677E+0	1.140077E+0	1.131974E+0	1.123708E+0	1.149897E+0	1.193236E+0	1.149877E+0	1.250603E+0	1.261335E+0	1.246737E+0	1.218510E+0	1.203828E+0	1.244986E+0	1.295387E+0	1.243265E+0	1.153124E+0	1.100891E+0	1.230516E+0	1.123808E+0	1.089978E+0	1.094738E+0	1.262813E+0	1.121517E+0	1.179325E+0	1.235962E+0	1.311941E+0	1.251924E+0	1.172047E+0	1.224392E+0	1.164440E+0	1.280493E+0	1.104768E+0	1.172221E+0	1.095342E+0	1.016641E+0	1.168372E+0	1.112740E+0	1.110543E+0	1.037018E+0	1.206712E+0	1.269783E+0	1.210259E+0	1.216362E+0	1.210392E+0	1.244833E+0	1.227757E+0	1.310675E+0	1.100308E+0	1.107584E+0	1.142132E+0	1.267173E+0	1.165324E+0	1.208873E+0	1.151800E+0	1.300118E+0	1.188888E+0	1.211662E+0	1.236090E+0	1.266503E+0	1.224722E+0	1.263199E+0	1.189528E+0	1.244499E+0	1.149262E+0	1.073827E+0	1.082691E+0	1.123361E+0	1.180204E+0	1.165079E+0	1.163301E+0	1.181610E+0	1.242844E+0	1.231285E+0	1.273970E+0	1.225692E+0	1.205626E+0	1.100072E+0	1.190221E+0	1.195476E+0	1.118475E+0	1.184855E+0	1.111184E+0	1.161152E+0	1.142426E+0	1.234961E+0	1.156061E+0	1.232780E+0	1.220389E+0	1.293565E+0	1.295514E+0	1.271634E+0	1.138280E+0	1.312747E+0	1.237579E+0	1.227941E+0	1.094220E+0	1.199674E+0	1.103328E+0	1.098180E+0	1.103577E+0	1.178315E+0	1.176031E+0
5.420160E+2	1.147545E+0	1.125773E+0	1.155060E+0	9.765205E-1	1.075531E+0	9.939686E-1	1.158219E+0	1.047220E+0	1.067004E+0	1.036854E+0	1.149555E+0	1.078927E+0	1.043233E+0	1.142997E+0	1.188834E+0	1.120520E+0	1.082378E+0	1.130740E+0	1.123440E+0	1.115755E+0	1.011669E+0	1.023792E+0	1.006381E+0	1.000525E+0	1.049417E+0	1.023938E+0	1.059293E+0	9.994180E-1	1.026570E+0	1.132174E+0	1.063288E+0	1.126730E+0	1.026596E+0	1.058486E+0	1.107446E+0	1.122297E+0	1.006271E+0	9.866971E-1	9.977764E-1	1.081325E+0	1.100828E+0	1.021188E+0	1.022520E+0	1.080054E+0	1.057540E+0	1.135204E+0	1.121861E+0	1.161221E+0	1.072723E+0	1.101744E+0	1.077101E+0	1.105650E+0	1.031818E+0	1.030636E+0	1.009593E+0	1.037675E+0	1.101519E+0	1.058032E+0	1.041795E+0	1.052247E+0	1.089925E+0	1.101898E+0	1.184768E+0	1.170310E+0	1.075092E+0	1.086127E+0	1.118261E+0	1.128032E+0	1.021397E+0	1.015319E+0	1.013102E+0	1.034880E+0	1.060942E+0	1.087155E+0	1.042045E+0	9.584991E-1	1.125970E+0	1.140041E+0	1.146203E+0	1.112554E+0	1.117567E+0	1.126921E+0	1.169184E+0	1.121254E+0	1.026457E+0	9.873765E-1	1.131819E+0	9.829565E-1	1.021828E+0	1.005646E+0	1.126856E+0	1.036418E+0	1.057276E+0	1.137305E+0	1.158862E+0	1.116766E+0	1.068530E+0	1.103160E+0	1.060707E+0	1.131936E+0	9.548096E-1	1.032122E+0	9.667015E-1	9.860663E-1	1.025077E+0	1.042698E+0	1.029018E+0	9.043940E-1	1.066785E+0	1.143847E+0	1.150342E+0	1.117916E+0	1.081999E+0	1.082264E+0	1.126702E+0	1.154293E+0	9.597828E-1	1.005534E+0	1.024523E+0	1.076296E+0	1.017798E+0	1.006224E+0	1.036021E+0	1.163915E+0	1.056610E+0	1.099308E+0	1.172094E+0	1.199162E+0	1.032533E+0	1.085199E+0	1.089169E+0	1.146909E+0	1.004979E+0	9.839507E-1	1.007776E+0	1.041766E+0	1.103189E+0	9.137721E-1	1.093644E+0	1.049115E+0	1.077845E+0	1.110469E+0	1.091186E+0	1.094694E+0	1.018848E+0	9.907068E-1	1.150791E+0	1.028680E+0	1.011777E+0	1.038499E+0	9.744654E-1	1.056482E+0	1.043386E+0	1.020508E+0	1.067429E+0	1.077951E+0	1.073532E+0	1.160255E+0	1.112516E+0	1.139800E+0	1.047248E+0	1.220850E+0	1.140640E+0	1.106765E+0	1.021302E+0	1.049224E+0	9.982574E-1	9.769191E-1	1.008933E+0	1.024705E+0	9.901727E-1
5.422670E+2	1.023889E+0	9.451511E-1	1.048411E+0	8.904652E-1	1.035515E+0	8.728376E-1	1.013127E+0	8.913205E-1	9.965314E-1	9.087564E-1	1.029788E+0	9.356911E-1	9.380226E-1	9.776119E-1	1.034640E+0	9.855966E-1	9.050070E-1	9.664939E-1	9.464510E-1	9.657436E-1	9.920339E-1	8.929304E-1	9.199554E-1	8.727144E-1	9.767772E-1	9.326962E-1	9.280049E-1	8.999125E-1	9.178745E-1	1.002664E+0	9.825316E-1	9.978368E-1	9.967733E-1	9.477678E-1	9.613602E-1	1.014922E+0	1.040339E+0	8.206285E-1	8.751933E-1	9.735241E-1	1.039785E+0	9.011961E-1	9.522836E-1	9.323977E-1	9.659300E-1	1.000284E+0	9.848896E-1	1.023341E+0	9.379929E-1	9.661620E-1	9.952147E-1	1.001609E+0	1.010432E+0	8.724368E-1	9.106288E-1	8.451924E-1	9.966925E-1	8.957447E-1	9.574852E-1	9.387621E-1	8.965447E-1	1.034559E+0	9.876534E-1	1.022661E+0	1.019877E+0	9.804331E-1	9.731668E-1	9.611682E-1	9.081763E-1	8.621345E-1	9.276092E-1	8.996078E-1	1.021780E+0	9.160388E-1	9.522919E-1	8.654982E-1	9.654991E-1	9.735885E-1	1.023947E+0	9.712776E-1	9.872718E-1	9.659721E-1	1.010991E+0	9.889375E-1	9.028534E-1	8.670127E-1	9.969511E-1	9.233479E-1	9.183215E-1	9.144825E-1	1.043996E+0	8.646358E-1	9.448377E-1	9.834378E-1	9.933098E-1	9.866871E-1	9.349399E-1	9.684571E-1	9.404715E-1	9.705934E-1	8.551771E-1	9.052007E-1	8.623055E-1	8.818125E-1	8.807119E-1	9.625694E-1	9.195988E-1	8.095871E-1	9.540244E-1	1.024765E+0	9.831137E-1	9.745331E-1	9.449745E-1	9.969007E-1	9.674316E-1	1.024502E+0	8.504853E-1	8.628654E-1	9.034115E-1	9.776049E-1	8.865478E-1	9.367879E-1	8.934823E-1	1.005896E+0	9.831235E-1	1.010383E+0	1.032195E+0	1.078265E+0	9.716844E-1	9.349542E-1	9.262794E-1	9.990652E-1	8.962591E-1	8.595061E-1	8.925608E-1	9.111222E-1	9.774370E-1	9.333691E-1	9.354761E-1	9.508847E-1	9.749137E-1	9.832940E-1	9.839999E-1	1.018233E+0	9.427751E-1	8.921084E-1	9.902544E-1	9.464812E-1	9.231982E-1	9.456310E-1	8.769518E-1	9.562564E-1	9.128337E-1	9.830080E-1	9.188727E-1	9.368177E-1	9.194853E-1	1.076089E+0	1.019735E+0	1.006350E+0	9.070687E-1	9.967395E-1	9.404743E-1	9.508826E-1	8.969169E-1	9.800272E-1	9.408530E-1	9.271266E-1	9.868205E-1	1.006784E+0	8.577234E-1
5.425300E+2	1.009682E+0	9.927146E-1	1.051407E+0	8.727987E-1	1.008281E+0	8.185037E-1	1.020036E+0	8.696926E-1	9.717559E-1	9.098069E-1	1.005221E+0	9.023352E-1	9.205628E-1	9.589173E-1	1.045202E+0	1.012061E+0	9.373538E-1	9.747062E-1	9.630438E-1	9.394359E-1	9.752039E-1	8.526649E-1	8.712146E-1	8.897850E-1	1.007044E+0	9.449600E-1	9.402803E-1	8.882637E-1	9.406360E-1	9.650639E-1	9.166673E-1	9.870235E-1	9.850398E-1	9.313650E-1	9.758569E-1	1.001156E+0	1.018614E+0	8.701735E-1	8.624142E-1	9.114295E-1	1.050494E+0	9.152495E-1	9.026719E-1	9.500283E-1	9.535778E-1	9.537979E-1	9.702138E-1	1.039099E+0	9.884518E-1	9.412479E-1	9.462960E-1	9.849395E-1	1.057376E+0	9.020675E-1	9.207271E-1	9.035758E-1	1.018554E+0	9.421925E-1	9.235555E-1	8.773600E-1	9.788447E-1	1.028438E+0	9.984840E-1	1.000590E+0	9.882542E-1	9.186421E-1	9.543467E-1	1.005211E+0	1.027383E+0	8.606566E-1	9.316564E-1	9.076205E-1	1.024463E+0	9.126169E-1	9.651136E-1	8.198046E-1	1.033966E+0	9.977423E-1	9.855518E-1	9.359584E-1	1.045182E+0	9.364556E-1	9.848209E-1	9.818880E-1	9.809997E-1	8.826698E-1	9.504455E-1	9.048030E-1	9.808356E-1	8.891021E-1	9.570532E-1	9.492057E-1	9.741490E-1	9.706581E-1	1.001248E+0	9.988820E-1	8.852051E-1	9.353426E-1	8.933197E-1	9.894672E-1	8.526357E-1	8.939731E-1	8.618099E-1	8.577533E-1	9.347149E-1	9.412763E-1	9.126264E-1	7.872173E-1	9.755513E-1	9.836655E-1	9.776668E-1	9.124711E-1	8.991186E-1	9.914636E-1	9.053710E-1	1.006775E+0	8.471735E-1	9.014519E-1	8.919007E-1	9.597103E-1	8.681727E-1	9.265012E-1	9.104630E-1	1.031840E+0	9.172384E-1	9.651228E-1	9.771301E-1	1.039026E+0	9.331263E-1	9.530559E-1	9.877568E-1	9.680939E-1	8.886386E-1	8.451850E-1	8.726466E-1	8.989799E-1	9.437426E-1	8.970570E-1	9.815645E-1	9.046255E-1	9.728449E-1	9.728888E-1	9.891783E-1	9.471191E-1	9.325558E-1	8.564087E-1	9.581477E-1	9.038820E-1	8.804184E-1	9.185931E-1	8.377457E-1	9.123151E-1	8.807584E-1	9.894538E-1	9.012471E-1	9.290764E-1	9.538891E-1	1.042761E+0	9.612983E-1	9.729867E-1	9.578905E-1	1.042391E+0	9.923494E-1	1.009118E+0	8.716585E-1	9.386140E-1	8.737102E-1	8.867062E-1	9.257894E-1	9.952639E-1	8.983122E-1
5.427600E+2	1.127550E+0	1.056534E+0	1.120309E+0	9.349173E-1	1.120549E+0	8.927764E-1	1.112368E+0	9.697204E-1	1.038925E+0	9.890802E-1	1.147712E+0	9.921024E-1	9.835062E-1	1.015004E+0	1.073718E+0	1.082776E+0	9.723966E-1	1.048617E+0	1.035448E+0	1.062579E+0	1.071696E+0	9.409735E-1	9.511089E-1	9.720746E-1	1.039511E+0	9.714497E-1	9.589590E-1	9.615570E-1	9.815129E-1	1.064809E+0	1.070160E+0	1.051902E+0	1.102862E+0	1.052335E+0	1.049457E+0	1.055119E+0	1.053671E+0	9.477030E-1	9.575457E-1	1.003278E+0	1.144203E+0	9.720020E-1	9.918610E-1	9.990633E-1	1.047760E+0	1.031463E+0	1.088706E+0	1.046485E+0	1.031628E+0	1.020048E+0	1.063275E+0	1.073461E+0	1.078762E+0	9.658493E-1	1.006059E+0	9.998175E-1	1.134032E+0	9.668155E-1	9.914150E-1	9.689152E-1	1.085381E+0	1.090211E+0	1.080254E+0	1.091827E+0	1.080110E+0	9.820591E-1	1.001093E+0	1.050493E+0	1.118656E+0	9.365102E-1	9.615028E-1	9.703059E-1	1.141412E+0	1.016997E+0	1.031894E+0	8.800127E-1	1.086921E+0	1.046575E+0	1.114883E+0	1.039838E+0	1.151951E+0	1.014424E+0	1.146502E+0	1.062688E+0	1.116863E+0	9.360017E-1	1.037773E+0	9.410094E-1	1.054622E+0	9.284680E-1	1.070255E+0	9.201345E-1	1.027486E+0	1.065738E+0	1.044903E+0	1.058332E+0	1.091662E+0	1.054891E+0	1.002947E+0	1.086273E+0	1.085451E+0	9.296084E-1	9.469111E-1	9.073741E-1	1.075871E+0	9.771384E-1	9.292532E-1	8.788280E-1	1.062685E+0	1.089049E+0	1.005992E+0	1.025894E+0	1.003776E+0	1.058341E+0	1.032239E+0	1.051726E+0	1.017508E+0	9.446076E-1	9.714735E-1	1.016647E+0	1.058746E+0	1.002625E+0	9.819897E-1	1.125000E+0	1.026709E+0	1.080139E+0	1.069403E+0	1.109019E+0	9.969877E-1	1.008568E+0	1.030318E+0	1.049905E+0	9.506184E-1	9.582720E-1	9.717412E-1	9.533752E-1	9.942838E-1	9.910086E-1	9.789460E-1	1.011422E+0	1.046293E+0	1.019134E+0	1.058045E+0	1.097902E+0	1.025093E+0	9.051413E-1	1.047711E+0	9.800804E-1	9.619514E-1	1.006759E+0	9.247035E-1	9.883481E-1	1.017501E+0	1.032227E+0	9.687270E-1	1.029715E+0	1.007805E+0	1.060272E+0	1.096625E+0	1.119352E+0	1.008712E+0	1.089823E+0	9.687703E-1	1.082059E+0	8.811900E-1	1.019344E+0	9.290646E-1	9.400142E-1	9.930124E-1	9.914228E-1	9.303555E-1
5.430120E+2	1.233315E+0	1.163703E+0	1.286274E+0	1.091070E+0	1.243377E+0	1.024375E+0	1.249922E+0	1.069298E+0	1.163906E+0	1.104053E+0	1.246596E+0	1.115225E+0	1.129147E+0	1.163131E+0	1.239526E+0	1.189063E+0	1.132516E+0	1.178918E+0	1.170201E+0	1.220426E+0	1.238874E+0	1.102949E+0	1.102857E+0	1.088505E+0	1.215606E+0	1.129898E+0	1.139880E+0	1.084361E+0	1.127832E+0	1.183873E+0	1.131443E+0	1.153980E+0	1.210906E+0	1.166127E+0	1.142573E+0	1.206545E+0	1.235371E+0	1.012846E+0	1.041792E+0	1.119271E+0	1.230947E+0	1.137396E+0	1.082723E+0	1.118069E+0	1.166646E+0	1.253119E+0	1.175671E+0	1.212432E+0	1.170519E+0	1.134770E+0	1.205779E+0	1.225786E+0	1.262367E+0	1.069306E+0	1.147943E+0	1.082831E+0	1.273613E+0	1.052435E+0	1.144612E+0	1.131193E+0	1.151017E+0	1.176470E+0	1.193974E+0	1.264492E+0	1.260811E+0	1.106183E+0	1.112190E+0	1.175795E+0	1.248336E+0	1.091172E+0	1.097078E+0	1.077297E+0	1.315226E+0	1.083162E+0	1.138743E+0	1.062789E+0	1.255415E+0	1.179946E+0	1.165908E+0	1.203969E+0	1.229767E+0	1.242761E+0	1.231995E+0	1.177649E+0	1.239957E+0	1.045602E+0	1.154037E+0	1.073475E+0	1.224744E+0	1.080752E+0	1.164200E+0	1.062318E+0	1.201429E+0	1.172064E+0	1.258079E+0	1.179265E+0	1.203277E+0	1.153675E+0	1.165619E+0	1.187949E+0	1.219141E+0	1.072638E+0	1.057245E+0	1.030675E+0	1.200452E+0	1.074077E+0	1.089091E+0	9.400802E-1	1.164683E+0	1.196539E+0	1.170494E+0	1.161789E+0	1.200145E+0	1.217648E+0	1.233249E+0	1.204943E+0	1.275845E+0	1.047167E+0	1.050045E+0	1.164685E+0	1.196298E+0	1.118351E+0	1.175986E+0	1.223469E+0	1.171149E+0	1.189829E+0	1.235095E+0	1.280822E+0	1.221106E+0	1.138900E+0	1.184274E+0	1.179049E+0	1.274237E+0	1.063457E+0	1.058984E+0	1.111220E+0	1.242780E+0	1.072279E+0	1.135542E+0	1.120502E+0	1.200430E+0	1.085612E+0	1.179212E+0	1.173295E+0	1.215276E+0	1.099505E+0	1.148538E+0	1.089278E+0	1.202523E+0	1.169574E+0	1.092085E+0	1.110298E+0	1.245403E+0	1.193359E+0	1.129372E+0	1.123804E+0	1.192148E+0	1.216179E+0	1.267323E+0	1.215673E+0	1.113149E+0	1.230336E+0	1.144832E+0	1.123235E+0	1.096126E+0	1.085396E+0	1.047461E+0	1.057174E+0	1.161069E+0	1.160394E+0	1.216620E+0
5.433070E+2	1.463261E+0	1.387674E+0	1.479799E+0	1.191942E+0	1.469581E+0	1.215793E+0	1.420138E+0	1.236464E+0	1.345042E+0	1.244750E+0	1.396458E+0	1.297704E+0	1.295005E+0	1.423914E+0	1.444413E+0	1.429843E+0	1.318514E+0	1.351923E+0	1.341156E+0	1.328456E+0	1.432418E+0	1.221002E+0	1.216416E+0	1.259210E+0	1.367489E+0	1.304043E+0	1.280243E+0	1.259099E+0	1.309459E+0	1.361430E+0	1.350802E+0	1.387974E+0	1.362952E+0	1.362960E+0	1.397946E+0	1.399819E+0	1.422503E+0	1.189463E+0	1.203657E+0	1.346950E+0	1.421572E+0	1.268195E+0	1.311831E+0	1.345062E+0	1.322073E+0	1.407312E+0	1.367541E+0	1.440423E+0	1.393679E+0	1.409988E+0	1.346686E+0	1.408577E+0	1.370337E+0	1.235539E+0	1.296897E+0	1.355135E+0	1.464209E+0	1.316010E+0	1.300896E+0	1.312109E+0	1.292391E+0	1.379596E+0	1.367804E+0	1.442551E+0	1.422944E+0	1.289930E+0	1.357454E+0	1.410891E+0	1.402956E+0	1.215787E+0	1.249348E+0	1.283270E+0	1.463823E+0	1.288503E+0	1.310237E+0	1.201486E+0	1.408932E+0	1.378951E+0	1.436185E+0	1.330181E+0	1.478899E+0	1.319614E+0	1.488474E+0	1.379377E+0	1.437618E+0	1.239846E+0	1.373650E+0	1.243028E+0	1.435855E+0	1.264634E+0	1.362592E+0	1.265811E+0	1.377296E+0	1.356091E+0	1.402651E+0	1.421129E+0	1.344963E+0	1.365269E+0	1.356583E+0	1.328591E+0	1.422980E+0	1.270340E+0	1.226458E+0	1.259734E+0	1.409515E+0	1.234334E+0	1.239272E+0	1.203728E+0	1.399940E+0	1.384125E+0	1.383479E+0	1.361350E+0	1.404605E+0	1.376412E+0	1.398563E+0	1.447430E+0	1.412111E+0	1.275134E+0	1.244725E+0	1.357188E+0	1.454598E+0	1.273168E+0	1.328301E+0	1.420988E+0	1.341941E+0	1.374602E+0	1.356637E+0	1.477542E+0	1.371724E+0	1.335607E+0	1.331400E+0	1.407536E+0	1.468814E+0	1.200249E+0	1.203118E+0	1.255465E+0	1.434115E+0	1.264793E+0	1.260192E+0	1.274701E+0	1.350948E+0	1.377535E+0	1.379085E+0	1.401607E+0	1.443493E+0	1.249104E+0	1.380047E+0	1.267474E+0	1.416418E+0	1.347669E+0	1.242377E+0	1.310256E+0	1.427164E+0	1.331057E+0	1.243683E+0	1.369147E+0	1.382138E+0	1.396939E+0	1.378555E+0	1.394327E+0	1.356646E+0	1.423618E+0	1.303599E+0	1.362059E+0	1.446887E+0	1.304518E+0	1.241201E+0	1.179607E+0	1.414040E+0	1.386969E+0	1.310616E+0
5.435220E+2	1.553767E+0	1.544212E+0	1.565477E+0	1.330999E+0	1.597967E+0	1.336920E+0	1.557691E+0	1.337844E+0	1.510765E+0	1.415372E+0	1.562290E+0	1.380605E+0	1.494400E+0	1.486232E+0	1.572731E+0	1.547843E+0	1.468930E+0	1.460324E+0	1.431154E+0	1.476788E+0	1.553034E+0	1.356439E+0	1.358115E+0	1.340186E+0	1.514417E+0	1.430113E+0	1.386982E+0	1.320261E+0	1.453456E+0	1.466916E+0	1.487112E+0	1.489619E+0	1.467577E+0	1.486493E+0	1.518384E+0	1.529772E+0	1.551870E+0	1.350487E+0	1.374040E+0	1.437937E+0	1.530270E+0	1.390353E+0	1.423317E+0	1.439828E+0	1.483164E+0	1.518427E+0	1.522448E+0	1.582245E+0	1.522167E+0	1.493423E+0	1.483873E+0	1.516641E+0	1.569071E+0	1.363103E+0	1.360013E+0	1.413067E+0	1.565110E+0	1.356303E+0	1.382634E+0	1.444235E+0	1.508995E+0	1.490348E+0	1.483147E+0	1.545071E+0	1.516305E+0	1.480178E+0	1.452769E+0	1.542398E+0	1.585508E+0	1.343855E+0	1.357097E+0	1.370938E+0	1.543757E+0	1.362652E+0	1.370069E+0	1.289646E+0	1.538917E+0	1.482391E+0	1.539246E+0	1.463668E+0	1.555504E+0	1.466638E+0	1.537908E+0	1.476447E+0	1.557647E+0	1.308348E+0	1.490947E+0	1.343701E+0	1.539873E+0	1.324719E+0	1.496218E+0	1.378395E+0	1.465707E+0	1.458840E+0	1.539859E+0	1.521232E+0	1.443278E+0	1.466856E+0	1.447348E+0	1.454620E+0	1.577003E+0	1.374320E+0	1.341242E+0	1.324890E+0	1.490784E+0	1.395150E+0	1.394283E+0	1.369375E+0	1.503991E+0	1.523752E+0	1.503314E+0	1.514364E+0	1.531379E+0	1.499835E+0	1.438106E+0	1.533535E+0	1.572983E+0	1.386829E+0	1.346316E+0	1.451539E+0	1.497644E+0	1.372951E+0	1.446140E+0	1.543634E+0	1.517807E+0	1.532746E+0	1.486613E+0	1.575639E+0	1.491618E+0	1.442407E+0	1.469594E+0	1.439675E+0	1.536892E+0	1.344939E+0	1.364327E+0	1.384165E+0	1.602588E+0	1.352405E+0	1.389031E+0	1.434037E+0	1.549569E+0	1.449795E+0	1.484198E+0	1.516031E+0	1.482664E+0	1.332969E+0	1.511293E+0	1.396472E+0	1.611696E+0	1.417612E+0	1.340392E+0	1.402579E+0	1.583601E+0	1.407812E+0	1.334330E+0	1.426318E+0	1.478160E+0	1.540416E+0	1.506704E+0	1.482574E+0	1.502411E+0	1.548121E+0	1.429880E+0	1.480882E+0	1.585570E+0	1.392587E+0	1.366261E+0	1.312582E+0	1.559101E+0	1.518818E+0	1.387523E+0
5.437690E+2	1.703734E+0	1.636933E+0	1.726648E+0	1.431300E+0	1.751917E+0	1.429142E+0	1.687080E+0	1.426156E+0	1.577383E+0	1.527720E+0	1.692497E+0	1.530217E+0	1.513241E+0	1.612314E+0	1.727979E+0	1.599904E+0	1.620421E+0	1.610883E+0	1.546301E+0	1.587618E+0	1.657939E+0	1.457562E+0	1.500820E+0	1.457056E+0	1.626681E+0	1.500264E+0	1.496924E+0	1.463449E+0	1.488758E+0	1.608960E+0	1.664662E+0	1.580016E+0	1.588824E+0	1.600800E+0	1.577484E+0	1.639899E+0	1.616057E+0	1.439482E+0	1.417111E+0	1.530642E+0	1.695731E+0	1.534126E+0	1.482401E+0	1.508698E+0	1.539257E+0	1.611397E+0	1.603436E+0	1.693039E+0	1.602801E+0	1.621469E+0	1.536515E+0	1.607462E+0	1.719814E+0	1.482632E+0	1.499874E+0	1.502006E+0	1.703008E+0	1.478297E+0	1.539430E+0	1.504541E+0	1.559484E+0	1.600533E+0	1.670517E+0	1.629443E+0	1.627234E+0	1.520287E+0	1.567510E+0	1.606290E+0	1.684259E+0	1.354194E+0	1.480534E+0	1.521760E+0	1.713816E+0	1.464181E+0	1.603536E+0	1.371358E+0	1.682802E+0	1.590559E+0	1.621590E+0	1.617930E+0	1.650818E+0	1.594174E+0	1.695520E+0	1.644009E+0	1.682782E+0	1.409140E+0	1.552956E+0	1.488086E+0	1.709480E+0	1.464570E+0	1.611165E+0	1.476177E+0	1.592561E+0	1.596862E+0	1.642478E+0	1.588303E+0	1.597686E+0	1.580792E+0	1.557562E+0	1.556906E+0	1.661385E+0	1.465602E+0	1.388741E+0	1.362984E+0	1.630873E+0	1.531313E+0	1.454890E+0	1.562182E+0	1.646476E+0	1.645470E+0	1.624241E+0	1.592476E+0	1.605825E+0	1.587375E+0	1.559479E+0	1.609507E+0	1.696473E+0	1.426432E+0	1.392359E+0	1.584391E+0	1.707118E+0	1.521081E+0	1.492454E+0	1.635615E+0	1.529463E+0	1.577478E+0	1.666196E+0	1.665253E+0	1.630182E+0	1.529901E+0	1.547359E+0	1.605635E+0	1.648151E+0	1.376051E+0	1.457728E+0	1.443418E+0	1.630263E+0	1.446932E+0	1.504775E+0	1.515702E+0	1.651986E+0	1.596045E+0	1.662840E+0	1.583936E+0	1.597910E+0	1.408901E+0	1.569873E+0	1.465471E+0	1.704302E+0	1.560441E+0	1.416794E+0	1.491943E+0	1.633685E+0	1.528514E+0	1.471301E+0	1.550179E+0	1.563911E+0	1.669208E+0	1.620503E+0	1.666067E+0	1.628072E+0	1.690416E+0	1.538345E+0	1.610886E+0	1.647048E+0	1.547230E+0	1.492346E+0	1.467820E+0	1.644014E+0	1.471453E+0	1.483656E+0
5.440170E+2	1.728466E+0	1.594784E+0	1.739830E+0	1.461505E+0	1.721904E+0	1.434625E+0	1.646255E+0	1.524383E+0	1.604910E+0	1.516694E+0	1.685738E+0	1.533650E+0	1.582153E+0	1.639633E+0	1.722170E+0	1.638950E+0	1.598857E+0	1.584057E+0	1.605635E+0	1.650871E+0	1.673087E+0	1.436969E+0	1.509361E+0	1.413282E+0	1.666849E+0	1.516941E+0	1.502795E+0	1.461994E+0	1.507802E+0	1.652306E+0	1.583333E+0	1.634948E+0	1.594690E+0	1.582346E+0	1.627110E+0	1.673487E+0	1.681234E+0	1.434435E+0	1.439828E+0	1.605243E+0	1.708050E+0	1.513042E+0	1.549297E+0	1.563790E+0	1.549553E+0	1.598358E+0	1.642024E+0	1.677774E+0	1.603316E+0	1.567590E+0	1.646580E+0	1.685062E+0	1.695297E+0	1.480122E+0	1.496340E+0	1.529375E+0	1.678346E+0	1.543772E+0	1.540974E+0	1.541819E+0	1.534749E+0	1.553787E+0	1.653189E+0	1.672118E+0	1.673414E+0	1.589128E+0	1.632466E+0	1.596985E+0	1.694238E+0	1.433498E+0	1.447145E+0	1.502436E+0	1.728302E+0	1.493839E+0	1.559728E+0	1.382112E+0	1.656591E+0	1.605784E+0	1.644326E+0	1.556638E+0	1.656244E+0	1.598072E+0	1.678071E+0	1.603883E+0	1.686872E+0	1.438007E+0	1.629431E+0	1.434220E+0	1.576768E+0	1.483734E+0	1.635092E+0	1.481994E+0	1.610822E+0	1.569258E+0	1.714479E+0	1.620316E+0	1.611568E+0	1.560587E+0	1.506290E+0	1.612919E+0	1.632919E+0	1.436313E+0	1.404574E+0	1.422629E+0	1.625525E+0	1.514503E+0	1.472057E+0	1.451399E+0	1.575235E+0	1.689737E+0	1.623698E+0	1.589265E+0	1.640890E+0	1.594987E+0	1.559478E+0	1.710177E+0	1.675660E+0	1.409677E+0	1.460923E+0	1.528543E+0	1.727597E+0	1.445984E+0	1.483191E+0	1.692217E+0	1.590787E+0	1.608361E+0	1.615102E+0	1.708733E+0	1.663317E+0	1.553429E+0	1.519511E+0	1.610892E+0	1.663390E+0	1.427901E+0	1.421694E+0	1.481301E+0	1.652526E+0	1.400246E+0	1.555053E+0	1.512279E+0	1.596637E+0	1.645182E+0	1.597596E+0	1.576454E+0	1.647303E+0	1.429301E+0	1.574944E+0	1.492471E+0	1.689706E+0	1.559856E+0	1.408249E+0	1.477132E+0	1.693331E+0	1.546679E+0	1.488427E+0	1.523979E+0	1.575722E+0	1.677680E+0	1.611790E+0	1.619791E+0	1.598467E+0	1.648914E+0	1.563498E+0	1.549118E+0	1.595100E+0	1.506864E+0	1.434429E+0	1.362374E+0	1.677625E+0	1.545699E+0	1.449475E+0
5.442920E+2	1.725308E+0	1.724834E+0	1.733837E+0	1.413633E+0	1.753028E+0	1.730722E+0	1.700271E+0	1.480679E+0	1.544899E+0	1.752940E+0	1.757601E+0	1.579762E+0	1.577563E+0	1.644908E+0	1.738541E+0	1.654567E+0	1.612873E+0	1.653586E+0	1.642337E+0	1.681655E+0	1.673089E+0	1.567830E+0	1.475697E+0	1.496008E+0	1.639336E+0	1.555694E+0	1.515069E+0	1.458596E+0	1.512913E+0	1.670586E+0	1.573598E+0	1.656574E+0	1.625002E+0	1.599771E+0	1.673945E+0	1.678444E+0	1.695058E+0	1.426639E+0	1.472487E+0	1.570748E+0	1.723577E+0	1.499531E+0	1.530899E+0	1.625497E+0	1.542349E+0	1.656746E+0	1.685507E+0	1.731940E+0	1.630372E+0	1.624948E+0	1.629033E+0	1.633326E+0	1.659306E+0	1.466562E+0	1.527141E+0	1.517515E+0	1.678343E+0	1.482214E+0	1.547141E+0	1.546756E+0	1.580189E+0	1.658967E+0	1.599578E+0	1.651516E+0	1.680945E+0	1.582079E+0	1.579044E+0	1.587059E+0	1.683764E+0	1.399511E+0	1.466873E+0	1.542501E+0	1.683771E+0	1.506389E+0	1.581633E+0	1.393934E+0	1.606847E+0	1.572707E+0	1.658975E+0	1.646494E+0	1.731648E+0	1.599740E+0	1.740883E+0	1.620151E+0	1.682784E+0	1.420391E+0	1.664572E+0	1.500007E+0	1.710506E+0	1.516369E+0	1.645594E+0	1.440764E+0	1.631960E+0	1.647469E+0	1.673660E+0	1.615234E+0	1.583228E+0	1.593702E+0	1.548134E+0	1.598917E+0	1.659354E+0	1.470484E+0	1.448610E+0	1.373509E+0	1.646914E+0	1.506099E+0	1.521937E+0	1.512117E+0	1.635201E+0	1.659172E+0	1.569223E+0	1.607460E+0	1.562130E+0	1.646640E+0	1.608907E+0	1.681686E+0	1.657677E+0	1.415769E+0	1.470931E+0	1.602831E+0	1.718146E+0	1.550393E+0	1.515610E+0	1.622641E+0	1.582171E+0	1.620606E+0	1.587814E+0	1.664722E+0	1.697058E+0	1.499125E+0	1.574684E+0	1.602127E+0	1.674570E+0	1.462469E+0	1.467213E+0	1.495871E+0	1.751201E+0	1.495928E+0	1.469684E+0	1.547116E+0	1.594052E+0	1.609921E+0	1.569635E+0	1.544906E+0	1.657519E+0	1.436667E+0	1.595785E+0	1.536268E+0	1.705813E+0	1.589833E+0	1.417800E+0	1.493425E+0	1.660694E+0	1.519727E+0	1.438568E+0	1.549584E+0	1.607045E+0	1.704232E+0	1.601539E+0	1.572439E+0	1.670516E+0	1.660179E+0	1.518437E+0	1.579707E+0	1.604635E+0	1.548280E+0	1.417516E+0	1.424472E+0	1.672317E+0	1.490654E+0	1.556292E+0
5.445240E+2	1.686897E+0	1.667636E+0	1.676919E+0	1.405653E+0	1.672998E+0	1.695332E+0	1.607311E+0	1.453193E+0	1.518471E+0	1.675242E+0	1.622481E+0	1.527277E+0	1.514618E+0	1.614707E+0	1.699991E+0	1.631140E+0	1.551414E+0	1.640996E+0	1.506578E+0	1.590417E+0	1.583886E+0	1.668039E+0	1.415398E+0	1.445671E+0	1.530374E+0	1.653804E+0	1.470770E+0	1.452286E+0	1.447420E+0	1.719673E+0	1.579898E+0	1.597317E+0	1.558023E+0	1.691014E+0	1.543474E+0	1.625583E+0	1.602231E+0	1.561053E+0	1.431309E+0	1.582819E+0	1.633083E+0	1.655197E+0	1.465126E+0	1.543959E+0	1.498088E+0	1.662415E+0	1.570279E+0	1.664478E+0	1.538295E+0	1.608724E+0	1.592345E+0	1.582744E+0	1.646790E+0	1.416341E+0	1.466548E+0	1.451377E+0	1.679466E+0	1.529779E+0	1.557423E+0	1.480419E+0	1.541814E+0	1.582168E+0	1.541636E+0	1.623554E+0	1.635268E+0	1.554979E+0	1.498299E+0	1.580858E+0	1.664310E+0	1.422169E+0	1.429441E+0	1.460489E+0	1.699869E+0	1.489846E+0	1.493481E+0	1.374584E+0	1.640009E+0	1.574807E+0	1.621593E+0	1.555081E+0	1.689422E+0	1.619237E+0	1.670510E+0	1.579478E+0	1.698109E+0	1.427731E+0	1.580344E+0	1.431127E+0	1.658750E+0	1.469232E+0	1.595996E+0	1.454507E+0	1.551718E+0	1.574371E+0	1.641343E+0	1.574077E+0	1.555468E+0	1.519056E+0	1.529275E+0	1.575781E+0	1.634955E+0	1.466578E+0	1.376371E+0	1.402580E+0	1.661884E+0	1.451186E+0	1.457037E+0	1.463651E+0	1.599323E+0	1.619128E+0	1.556152E+0	1.565191E+0	1.627404E+0	1.618366E+0	1.547398E+0	1.650660E+0	1.670452E+0	1.414753E+0	1.363333E+0	1.547522E+0	1.608420E+0	1.525707E+0	1.489880E+0	1.676297E+0	1.590278E+0	1.572150E+0	1.596249E+0	1.690173E+0	1.553066E+0	1.561880E+0	1.571532E+0	1.580508E+0	1.601413E+0	1.368643E+0	1.453938E+0	1.458476E+0	1.644704E+0	1.397941E+0	1.500061E+0	1.515706E+0	1.596637E+0	1.533036E+0	1.518374E+0	1.604255E+0	1.631404E+0	1.450832E+0	1.567623E+0	1.441473E+0	1.657495E+0	1.491675E+0	1.376081E+0	1.496388E+0	1.643249E+0	1.507421E+0	1.492453E+0	1.540056E+0	1.561857E+0	1.573746E+0	1.533874E+0	1.590196E+0	1.620811E+0	1.626978E+0	1.523150E+0	1.534410E+0	1.642284E+0	1.540417E+0	1.428279E+0	1.354761E+0	1.613055E+0	1.536737E+0	1.530656E+0
5.447720E+2	1.623226E+0	1.668841E+0	1.634381E+0	1.337265E+0	1.570178E+0	1.634014E+0	1.558947E+0	1.406781E+0	1.510214E+0	1.584420E+0	1.663015E+0	1.472334E+0	1.464079E+0	1.599849E+0	1.602301E+0	1.597302E+0	1.506126E+0	1.575298E+0	1.467361E+0	1.527725E+0	1.565937E+0	1.598032E+0	1.362136E+0	1.384831E+0	1.442326E+0	1.591502E+0	1.351757E+0	1.379479E+0	1.434412E+0	1.591209E+0	1.510022E+0	1.522057E+0	1.515979E+0	1.613612E+0	1.562988E+0	1.524266E+0	1.531627E+0	1.566556E+0	1.344696E+0	1.480193E+0	1.612732E+0	1.608713E+0	1.420529E+0	1.471228E+0	1.495001E+0	1.615364E+0	1.549081E+0	1.484252E+0	1.514366E+0	1.584390E+0	1.568947E+0	1.499397E+0	1.615492E+0	1.650874E+0	1.416563E+0	1.435413E+0	1.620607E+0	1.611483E+0	1.453577E+0	1.443137E+0	1.474661E+0	1.615560E+0	1.538386E+0	1.551940E+0	1.573024E+0	1.568530E+0	1.498302E+0	1.490916E+0	1.600968E+0	1.535455E+0	1.409203E+0	1.355381E+0	1.574872E+0	1.530343E+0	1.456084E+0	1.331040E+0	1.561915E+0	1.593709E+0	1.522070E+0	1.490677E+0	1.525951E+0	1.481119E+0	1.590251E+0	1.548570E+0	1.599016E+0	1.400822E+0	1.489399E+0	1.386530E+0	1.606485E+0	1.365636E+0	1.540565E+0	1.394781E+0	1.495500E+0	1.532451E+0	1.552332E+0	1.522247E+0	1.553158E+0	1.571249E+0	1.441454E+0	1.506983E+0	1.581580E+0	1.374317E+0	1.345695E+0	1.336920E+0	1.532491E+0	1.423166E+0	1.395892E+0	1.321436E+0	1.553707E+0	1.545887E+0	1.516388E+0	1.530952E+0	1.510880E+0	1.499292E+0	1.475999E+0	1.603180E+0	1.534659E+0	1.361952E+0	1.335306E+0	1.448829E+0	1.521271E+0	1.404838E+0	1.437908E+0	1.526534E+0	1.471687E+0	1.527424E+0	1.526299E+0	1.589959E+0	1.535596E+0	1.420684E+0	1.443321E+0	1.523238E+0	1.568389E+0	1.325677E+0	1.373808E+0	1.383681E+0	1.647715E+0	1.362206E+0	1.439833E+0	1.414617E+0	1.557845E+0	1.475228E+0	1.514233E+0	1.547046E+0	1.605293E+0	1.340903E+0	1.478061E+0	1.399473E+0	1.578478E+0	1.463459E+0	1.317270E+0	1.387768E+0	1.625807E+0	1.429492E+0	1.364042E+0	1.506710E+0	1.509995E+0	1.591821E+0	1.507731E+0	1.512172E+0	1.520840E+0	1.546342E+0	1.430928E+0	1.465591E+0	1.571272E+0	1.436099E+0	1.363699E+0	1.322542E+0	1.577675E+0	1.462493E+0	1.252937E+0
5.450150E+2	1.468000E+0	1.503872E+0	1.432466E+0	1.232404E+0	1.478473E+0	1.512386E+0	1.428301E+0	1.245025E+0	1.355503E+0	1.469969E+0	1.422870E+0	1.373738E+0	1.315679E+0	1.449321E+0	1.503555E+0	1.411620E+0	1.364877E+0	1.517814E+0	1.366294E+0	1.402906E+0	1.439150E+0	1.429649E+0	1.279229E+0	1.301228E+0	1.353732E+0	1.479658E+0	1.258896E+0	1.267835E+0	1.361483E+0	1.505039E+0	1.360538E+0	1.349046E+0	1.416245E+0	1.447022E+0	1.438088E+0	1.457085E+0	1.393376E+0	1.436272E+0	1.268024E+0	1.346522E+0	1.468693E+0	1.454669E+0	1.295105E+0	1.360489E+0	1.367364E+0	1.437360E+0	1.364821E+0	1.468491E+0	1.347908E+0	1.433166E+0	1.417405E+0	1.399378E+0	1.402678E+0	1.427890E+0	1.279726E+0	1.317276E+0	1.459160E+0	1.497322E+0	1.315803E+0	1.292921E+0	1.395896E+0	1.458068E+0	1.373219E+0	1.453832E+0	1.424448E+0	1.480723E+0	1.392666E+0	1.351963E+0	1.483260E+0	1.425125E+0	1.309547E+0	1.253103E+0	1.456852E+0	1.518935E+0	1.268033E+0	1.190733E+0	1.454398E+0	1.438285E+0	1.421534E+0	1.346801E+0	1.459596E+0	1.486132E+0	1.412868E+0	1.328944E+0	1.450386E+0	1.409137E+0	1.383465E+0	1.201522E+0	1.423042E+0	1.402934E+0	1.403440E+0	1.251012E+0	1.338373E+0	1.501267E+0	1.461615E+0	1.403347E+0	1.401060E+0	1.388843E+0	1.345383E+0	1.369992E+0	1.418405E+0	1.373340E+0	1.235859E+0	1.256224E+0	1.366207E+0	1.334074E+0	1.312756E+0	1.332091E+0	1.352788E+0	1.419955E+0	1.395459E+0	1.374190E+0	1.405143E+0	1.392722E+0	1.339246E+0	1.437301E+0	1.412584E+0	1.208113E+0	1.258240E+0	1.330075E+0	1.424671E+0	1.264423E+0	1.310292E+0	1.512969E+0	1.333326E+0	1.414538E+0	1.468754E+0	1.413913E+0	1.353649E+0	1.369999E+0	1.353467E+0	1.407535E+0	1.411915E+0	1.226418E+0	1.247213E+0	1.270521E+0	1.472021E+0	1.226176E+0	1.307849E+0	1.324957E+0	1.403191E+0	1.328978E+0	1.368727E+0	1.436363E+0	1.421355E+0	1.262137E+0	1.347941E+0	1.338274E+0	1.453663E+0	1.348257E+0	1.222773E+0	1.344816E+0	1.511009E+0	1.366797E+0	1.269868E+0	1.370341E+0	1.385732E+0	1.403151E+0	1.400087E+0	1.412619E+0	1.416404E+0	1.505436E+0	1.339755E+0	1.413237E+0	1.436402E+0	1.317101E+0	1.239663E+0	1.236430E+0	1.454728E+0	1.361366E+0	1.250800E+0
5.452580E+2	1.385913E+0	1.319640E+0	1.392922E+0	1.138941E+0	1.361758E+0	1.362845E+0	1.354815E+0	1.170680E+0	1.286683E+0	1.367597E+0	1.389701E+0	1.257971E+0	1.267898E+0	1.356801E+0	1.418537E+0	1.305763E+0	1.243036E+0	1.346993E+0	1.342160E+0	1.368199E+0	1.336487E+0	1.402195E+0	1.179736E+0	1.204059E+0	1.347676E+0	1.412942E+0	1.259963E+0	1.220271E+0	1.237458E+0	1.358818E+0	1.327320E+0	1.316176E+0	1.307708E+0	1.406530E+0	1.289215E+0	1.358521E+0	1.321288E+0	1.370212E+0	1.185199E+0	1.296500E+0	1.379806E+0	1.406563E+0	1.197555E+0	1.270134E+0	1.218112E+0	1.388040E+0	1.306120E+0	1.351296E+0	1.327095E+0	1.354365E+0	1.245125E+0	1.303960E+0	1.339563E+0	1.358081E+0	1.214591E+0	1.212369E+0	1.362185E+0	1.407788E+0	1.287014E+0	1.237550E+0	1.305519E+0	1.400747E+0	1.335313E+0	1.389574E+0	1.327070E+0	1.367982E+0	1.323458E+0	1.243409E+0	1.410936E+0	1.367002E+0	1.212924E+0	1.211156E+0	1.410179E+0	1.353527E+0	1.265896E+0	1.117084E+0	1.335116E+0	1.407306E+0	1.299783E+0	1.323429E+0	1.395049E+0	1.384773E+0	1.347148E+0	1.325152E+0	1.366113E+0	1.355320E+0	1.309576E+0	1.230663E+0	1.346182E+0	1.367191E+0	1.297824E+0	1.192872E+0	1.245155E+0	1.389828E+0	1.365801E+0	1.307821E+0	1.351327E+0	1.392212E+0	1.254027E+0	1.282319E+0	1.370620E+0	1.356256E+0	1.170548E+0	1.156481E+0	1.388662E+0	1.390669E+0	1.247318E+0	1.220238E+0	1.300508E+0	1.395185E+0	1.296324E+0	1.330853E+0	1.312894E+0	1.378045E+0	1.226109E+0	1.394881E+0	1.354863E+0	1.314228E+0	1.212696E+0	1.270425E+0	1.335420E+0	1.333861E+0	1.245456E+0	1.352005E+0	1.286195E+0	1.360224E+0	1.329850E+0	1.402251E+0	1.340998E+0	1.330780E+0	1.293568E+0	1.287741E+0	1.317421E+0	1.237781E+0	1.183682E+0	1.226808E+0	1.423284E+0	1.237705E+0	1.194200E+0	1.230155E+0	1.364913E+0	1.301809E+0	1.311253E+0	1.305897E+0	1.342443E+0	1.195837E+0	1.308512E+0	1.198476E+0	1.384711E+0	1.231290E+0	1.146872E+0	1.222371E+0	1.357387E+0	1.220313E+0	1.221023E+0	1.256601E+0	1.263524E+0	1.368694E+0	1.320632E+0	1.331363E+0	1.304150E+0	1.350692E+0	1.231287E+0	1.299706E+0	1.387790E+0	1.210684E+0	1.205838E+0	1.100523E+0	1.360084E+0	1.230798E+0	1.126896E+0
5.455500E+2	1.345920E+0	1.290740E+0	1.277885E+0	1.132102E+0	1.296731E+0	1.316983E+0	1.279442E+0	1.079662E+0	1.240985E+0	1.312998E+0	1.275463E+0	1.130924E+0	1.142930E+0	1.270514E+0	1.301838E+0	1.240257E+0	1.220393E+0	1.286772E+0	1.227018E+0	1.211470E+0	1.253460E+0	1.259437E+0	1.119943E+0	1.126146E+0	1.242571E+0	1.349664E+0	1.142016E+0	1.096011E+0	1.136659E+0	1.278919E+0	1.223653E+0	1.246539E+0	1.223130E+0	1.279923E+0	1.234016E+0	1.277577E+0	1.257591E+0	1.305067E+0	1.102847E+0	1.211550E+0	1.308590E+0	1.283873E+0	1.170240E+0	1.188040E+0	1.184660E+0	1.324546E+0	1.190347E+0	1.297622E+0	1.188204E+0	1.337563E+0	1.236087E+0	1.217165E+0	1.278534E+0	1.282750E+0	1.140873E+0	1.169494E+0	1.289870E+0	1.297544E+0	1.134330E+0	1.176697E+0	1.193429E+0	1.296123E+0	1.258958E+0	1.286074E+0	1.223168E+0	1.288303E+0	1.234824E+0	1.232244E+0	1.271781E+0	1.323165E+0	1.115290E+0	1.131030E+0	1.273917E+0	1.258272E+0	1.164922E+0	1.053113E+0	1.286440E+0	1.299664E+0	1.223500E+0	1.159819E+0	1.290692E+0	1.325184E+0	1.332029E+0	1.199881E+0	1.258851E+0	1.308835E+0	1.236717E+0	1.111886E+0	1.263686E+0	1.319020E+0	1.222552E+0	1.097202E+0	1.232663E+0	1.299861E+0	1.265448E+0	1.205688E+0	1.210217E+0	1.234495E+0	1.122004E+0	1.186732E+0	1.245574E+0	1.314274E+0	1.063678E+0	1.073278E+0	1.253385E+0	1.301015E+0	1.126637E+0	1.132356E+0	1.209271E+0	1.306666E+0	1.180845E+0	1.243111E+0	1.279987E+0	1.275284E+0	1.215675E+0	1.280285E+0	1.280577E+0	1.256345E+0	1.097089E+0	1.210234E+0	1.233572E+0	1.246936E+0	1.125042E+0	1.308373E+0	1.263895E+0	1.278752E+0	1.248985E+0	1.276047E+0	1.257255E+0	1.336210E+0	1.173240E+0	1.185475E+0	1.284906E+0	1.291111E+0	1.110664E+0	1.126272E+0	1.314380E+0	1.302262E+0	1.143922E+0	1.133638E+0	1.255776E+0	1.268280E+0	1.238760E+0	1.321936E+0	1.271478E+0	1.101772E+0	1.233031E+0	1.188877E+0	1.244799E+0	1.213068E+0	1.077508E+0	1.184849E+0	1.259472E+0	1.161133E+0	1.133902E+0	1.151793E+0	1.196255E+0	1.258545E+0	1.257071E+0	1.240427E+0	1.263937E+0	1.254052E+0	1.158978E+0	1.236176E+0	1.292954E+0	1.229555E+0	1.088465E+0	1.102281E+0	1.257481E+0	1.246160E+0	1.126895E+0
5.457830E+2	1.304877E+0	1.258830E+0	1.261708E+0	1.067704E+0	1.242266E+0	1.303524E+0	1.211607E+0	1.109402E+0	1.171063E+0	1.248424E+0	1.272392E+0	1.149072E+0	1.198064E+0	1.260925E+0	1.259064E+0	1.233750E+0	1.142221E+0	1.299364E+0	1.191822E+0	1.224345E+0	1.205775E+0	1.287347E+0	1.085775E+0	1.097258E+0	1.211753E+0	1.253026E+0	1.132408E+0	1.073682E+0	1.155706E+0	1.319129E+0	1.192726E+0	1.179066E+0	1.187931E+0	1.270697E+0	1.230114E+0	1.252247E+0	1.258581E+0	1.236256E+0	1.044157E+0	1.196028E+0	1.252899E+0	1.275763E+0	1.201456E+0	1.161594E+0	1.225318E+0	1.314343E+0	1.216438E+0	1.260690E+0	1.187683E+0	1.238484E+0	1.196738E+0	1.207392E+0	1.249847E+0	1.302334E+0	1.136329E+0	1.166757E+0	1.285945E+0	1.270122E+0	1.116852E+0	1.135579E+0	1.176768E+0	1.267738E+0	1.216717E+0	1.245853E+0	1.188533E+0	1.270959E+0	1.223288E+0	1.224180E+0	1.263801E+0	1.288686E+0	1.125912E+0	1.058918E+0	1.284110E+0	1.269110E+0	1.168128E+0	1.051500E+0	1.234019E+0	1.251881E+0	1.236633E+0	1.216436E+0	1.234593E+0	1.245543E+0	1.254677E+0	1.234590E+0	1.282348E+0	1.302477E+0	1.196412E+0	1.058904E+0	1.234989E+0	1.262043E+0	1.210297E+0	1.113060E+0	1.208157E+0	1.231873E+0	1.252410E+0	1.205179E+0	1.214266E+0	1.290622E+0	1.146169E+0	1.220218E+0	1.214055E+0	1.301094E+0	1.065656E+0	1.083805E+0	1.265683E+0	1.256186E+0	1.126098E+0	1.130758E+0	1.198513E+0	1.309303E+0	1.197732E+0	1.224384E+0	1.249235E+0	1.245377E+0	1.171188E+0	1.279651E+0	1.255974E+0	1.286809E+0	1.099591E+0	1.162515E+0	1.190520E+0	1.239221E+0	1.103945E+0	1.220518E+0	1.143780E+0	1.301121E+0	1.260892E+0	1.272866E+0	1.227131E+0	1.233029E+0	1.181649E+0	1.188398E+0	1.225467E+0	1.255060E+0	1.068465E+0	1.078192E+0	1.261430E+0	1.276324E+0	1.124021E+0	1.162764E+0	1.247501E+0	1.306433E+0	1.195265E+0	1.254568E+0	1.216978E+0	1.050206E+0	1.264574E+0	1.227875E+0	1.284558E+0	1.213656E+0	1.074494E+0	1.165593E+0	1.247657E+0	1.180469E+0	1.123830E+0	1.213129E+0	1.254792E+0	1.263063E+0	1.217599E+0	1.223209E+0	1.217585E+0	1.262947E+0	1.123872E+0	1.192647E+0	1.282467E+0	1.310286E+0	1.087952E+0	1.082949E+0	1.246867E+0	1.269202E+0	1.109805E+0
5.460060E+2	1.298563E+0	1.228726E+0	1.260510E+0	1.058015E+0	1.312294E+0	1.268133E+0	1.226682E+0	1.065693E+0	1.202996E+0	1.255775E+0	1.227557E+0	1.138281E+0	1.126850E+0	1.231203E+0	1.260120E+0	1.228978E+0	1.160011E+0	1.280751E+0	1.149082E+0	1.164453E+0	1.241680E+0	1.287347E+0	1.064668E+0	1.095946E+0	1.236518E+0	1.280005E+0	1.115331E+0	1.038249E+0	1.118543E+0	1.268474E+0	1.195017E+0	1.188581E+0	1.202107E+0	1.194832E+0	1.167105E+0	1.259405E+0	1.264503E+0	1.222036E+0	1.089120E+0	1.146870E+0	1.251295E+0	1.201717E+0	1.140139E+0	1.129089E+0	1.156867E+0	1.244047E+0	1.161540E+0	1.262659E+0	1.198608E+0	1.312069E+0	1.213755E+0	1.215439E+0	1.245675E+0	1.235038E+0	1.101993E+0	1.143951E+0	1.265764E+0	1.243262E+0	1.144097E+0	1.196981E+0	1.184342E+0	1.262175E+0	1.215636E+0	1.245853E+0	1.212124E+0	1.229765E+0	1.188077E+0	1.243409E+0	1.244846E+0	1.260121E+0	1.117819E+0	1.114061E+0	1.229391E+0	1.257700E+0	1.160113E+0	1.001505E+0	1.289113E+0	1.250307E+0	1.229058E+0	1.174883E+0	1.250880E+0	1.265037E+0	1.233740E+0	1.216695E+0	1.221568E+0	1.286330E+0	1.222246E+0	1.052278E+0	1.245237E+0	1.231483E+0	1.206213E+0	1.096673E+0	1.213922E+0	1.275833E+0	1.181540E+0	1.176216E+0	1.128096E+0	1.236741E+0	1.188015E+0	1.186123E+0	1.224225E+0	1.291329E+0	1.076047E+0	1.038193E+0	1.231998E+0	1.262351E+0	1.138973E+0	1.078030E+0	1.205685E+0	1.297180E+0	1.198276E+0	1.197634E+0	1.220105E+0	1.238855E+0	1.111325E+0	1.204310E+0	1.211497E+0	1.252286E+0	1.050547E+0	1.157092E+0	1.241448E+0	1.213503E+0	1.120925E+0	1.284786E+0	1.139727E+0	1.301117E+0	1.200866E+0	1.286124E+0	1.184958E+0	1.274663E+0	1.216328E+0	1.197748E+0	1.245278E+0	1.247652E+0	1.099759E+0	1.074309E+0	1.269855E+0	1.275168E+0	1.155443E+0	1.155911E+0	1.203536E+0	1.247471E+0	1.222706E+0	1.251896E+0	1.206760E+0	1.101772E+0	1.235283E+0	1.222476E+0	1.245806E+0	1.193672E+0	1.056397E+0	1.200156E+0	1.248782E+0	1.150586E+0	1.097142E+0	1.117253E+0	1.212686E+0	1.220696E+0	1.235540E+0	1.209753E+0	1.210883E+0	1.266501E+0	1.161598E+0	1.229117E+0	1.260544E+0	1.240040E+0	1.047974E+0	1.063618E+0	1.307015E+0	1.273041E+0	1.118351E+0
5.467710E+2	1.292775E+0	1.310608E+0	1.289269E+0	1.182253E+0	1.305624E+0	1.352873E+0	1.271277E+0	1.155359E+0	1.226670E+0	1.330324E+0	1.276078E+0	1.160844E+0	1.214145E+0	1.300713E+0	1.300780E+0	1.276264E+0	1.232253E+0	1.314148E+0	1.193831E+0	1.269685E+0	1.243363E+0	1.327612E+0	1.172199E+0	1.161600E+0	1.208452E+0	1.353095E+0	1.148954E+0	1.098437E+0	1.171963E+0	1.278397E+0	1.245418E+0	1.285035E+0	1.227533E+0	1.363987E+0	1.232901E+0	1.256103E+0	1.280796E+0	1.283048E+0	1.101901E+0	1.227075E+0	1.305912E+0	1.307112E+0	1.165223E+0	1.204569E+0	1.192382E+0	1.323413E+0	1.294161E+0	1.276938E+0	1.256870E+0	1.274406E+0	1.249381E+0	1.260851E+0	1.321309E+0	1.346530E+0	1.200959E+0	1.192299E+0	1.305567E+0	1.337836E+0	1.190367E+0	1.196433E+0	1.223725E+0	1.274975E+0	1.259501E+0	1.273812E+0	1.230696E+0	1.315403E+0	1.197790E+0	1.242789E+0	1.333626E+0	1.337449E+0	1.149688E+0	1.113120E+0	1.323273E+0	1.366642E+0	1.172936E+0	1.077841E+0	1.293394E+0	1.337470E+0	1.270483E+0	1.211760E+0	1.234593E+0	1.287313E+0	1.260492E+0	1.230253E+0	1.297671E+0	1.320577E+0	1.255834E+0	1.171937E+0	1.298528E+0	1.241843E+0	1.239472E+0	1.141074E+0	1.228336E+0	1.291682E+0	1.353327E+0	1.254469E+0	1.224674E+0	1.283325E+0	1.176228E+0	1.180034E+0	1.296407E+0	1.311834E+0	1.048835E+0	1.073780E+0	1.237879E+0	1.354246E+0	1.186173E+0	1.145140E+0	1.233365E+0	1.332484E+0	1.208625E+0	1.243646E+0	1.214170E+0	1.332919E+0	1.220067E+0	1.319538E+0	1.299503E+0	1.312195E+0	1.143133E+0	1.253074E+0	1.270846E+0	1.288084E+0	1.187821E+0	1.337262E+0	1.237539E+0	1.355434E+0	1.298101E+0	1.262792E+0	1.266894E+0	1.326556E+0	1.218953E+0	1.245081E+0	1.294560E+0	1.318271E+0	1.097388E+0	1.130159E+0	1.283694E+0	1.339148E+0	1.128734E+0	1.203883E+0	1.274914E+0	1.304120E+0	1.288470E+0	1.242805E+0	1.290215E+0	1.125005E+0	1.207119E+0	1.279476E+0	1.315259E+0	1.191908E+0	1.129784E+0	1.168556E+0	1.321374E+0	1.237891E+0	1.150019E+0	1.175612E+0	1.279953E+0	1.270970E+0	1.237079E+0	1.288317E+0	1.289630E+0	1.324012E+0	1.236528E+0	1.196765E+0	1.325837E+0	1.316051E+0	1.149458E+0	1.096423E+0	1.237138E+0	1.311444E+0	1.231575E+0
5.475120E+2	1.434848E+0	1.445472E+0	1.432467E+0	1.332137E+0	1.379545E+0	1.407705E+0	1.381823E+0	1.274314E+0	1.334582E+0	1.392269E+0	1.378033E+0	1.250122E+0	1.207251E+0	1.400426E+0	1.425403E+0	1.377351E+0	1.272148E+0	1.429119E+0	1.435181E+0	1.334612E+0	1.353317E+0	1.414550E+0	1.412889E+0	1.228569E+0	1.408211E+0	1.399699E+0	1.375239E+0	1.200855E+0	1.288092E+0	1.370307E+0	1.369702E+0	1.361591E+0	1.317976E+0	1.417806E+0	1.425822E+0	1.350262E+0	1.334123E+0	1.375260E+0	1.312985E+0	1.299517E+0	1.402295E+0	1.369809E+0	1.383180E+0	1.287214E+0	1.287079E+0	1.458335E+0	1.389281E+0	1.416788E+0	1.306811E+0	1.379859E+0	1.273839E+0	1.323502E+0	1.401113E+0	1.384197E+0	1.245897E+0	1.277142E+0	1.415999E+0	1.408907E+0	1.236120E+0	1.257835E+0	1.293400E+0	1.409096E+0	1.323943E+0	1.384177E+0	1.330583E+0	1.407550E+0	1.357455E+0	1.325290E+0	1.421910E+0	1.362568E+0	1.249853E+0	1.205970E+0	1.387648E+0	1.375199E+0	1.327333E+0	1.161167E+0	1.332978E+0	1.395753E+0	1.337673E+0	1.320315E+0	1.354031E+0	1.357484E+0	1.423918E+0	1.324605E+0	1.378882E+0	1.407672E+0	1.323526E+0	1.243910E+0	1.359506E+0	1.403968E+0	1.349757E+0	1.181241E+0	1.335973E+0	1.385741E+0	1.391884E+0	1.332209E+0	1.317783E+0	1.410731E+0	1.331239E+0	1.304846E+0	1.303014E+0	1.432896E+0	1.177474E+0	1.157984E+0	1.404167E+0	1.440538E+0	1.261262E+0	1.226101E+0	1.313833E+0	1.414157E+0	1.368224E+0	1.323364E+0	1.319368E+0	1.336178E+0	1.304647E+0	1.393614E+0	1.412111E+0	1.446742E+0	1.198683E+0	1.337666E+0	1.399470E+0	1.352372E+0	1.231047E+0	1.353777E+0	1.295824E+0	1.412937E+0	1.319431E+0	1.384748E+0	1.363892E+0	1.411634E+0	1.249429E+0	1.352606E+0	1.381939E+0	1.402221E+0	1.172778E+0	1.224380E+0	1.407040E+0	1.434253E+0	1.245527E+0	1.241005E+0	1.363882E+0	1.378692E+0	1.363550E+0	1.325146E+0	1.343576E+0	1.224171E+0	1.301189E+0	1.367071E+0	1.425983E+0	1.305937E+0	1.197640E+0	1.257919E+0	1.375959E+0	1.291212E+0	1.261814E+0	1.285780E+0	1.301007E+0	1.400892E+0	1.369839E+0	1.379795E+0	1.397974E+0	1.373814E+0	1.281594E+0	1.359706E+0	1.379690E+0	1.362708E+0	1.180722E+0	1.161447E+0	1.399888E+0	1.285842E+0	1.242253E+0
5.482660E+2	1.442742E+0	1.482199E+0	1.484591E+0	1.434150E+0	1.434010E+0	1.477493E+0	1.500535E+0	1.321172E+0	1.451303E+0	1.412745E+0	1.481829E+0	1.341851E+0	1.312005E+0	1.441174E+0	1.507780E+0	1.422904E+0	1.417173E+0	1.473464E+0	1.462834E+0	1.439847E+0	1.346585E+0	1.479980E+0	1.504339E+0	1.237762E+0	1.454435E+0	1.470830E+0	1.519870E+0	1.343559E+0	1.301098E+0	1.518618E+0	1.493416E+0	1.363753E+0	1.427979E+0	1.516223E+0	1.504443E+0	1.454884E+0	1.449167E+0	1.436732E+0	1.523600E+0	1.354712E+0	1.449418E+0	1.464399E+0	1.504143E+0	1.402363E+0	1.335970E+0	1.554138E+0	1.490379E+0	1.460122E+0	1.434778E+0	1.488207E+0	1.465793E+0	1.461459E+0	1.386510E+0	1.441952E+0	1.491288E+0	1.331874E+0	1.481025E+0	1.511874E+0	1.424273E+0	1.334590E+0	1.335814E+0	1.511492E+0	1.513476E+0	1.478362E+0	1.363211E+0	1.478011E+0	1.438198E+0	1.422678E+0	1.468795E+0	1.452706E+0	1.385935E+0	1.311077E+0	1.501913E+0	1.447637E+0	1.446471E+0	1.167616E+0	1.459213E+0	1.560632E+0	1.422546E+0	1.353038E+0	1.424609E+0	1.434895E+0	1.489056E+0	1.365280E+0	1.443239E+0	1.487915E+0	1.409820E+0	1.252741E+0	1.447129E+0	1.493579E+0	1.391770E+0	1.306511E+0	1.367206E+0	1.539610E+0	1.419094E+0	1.418592E+0	1.384290E+0	1.389966E+0	1.337133E+0	1.374863E+0	1.423996E+0	1.481222E+0	1.221015E+0	1.262739E+0	1.381176E+0	1.482563E+0	1.336354E+0	1.292676E+0	1.404555E+0	1.535348E+0	1.332819E+0	1.400407E+0	1.455315E+0	1.466670E+0	1.373297E+0	1.404375E+0	1.417791E+0	1.410693E+0	1.188673E+0	1.344173E+0	1.481897E+0	1.497418E+0	1.298971E+0	1.460497E+0	1.397692E+0	1.438499E+0	1.395332E+0	1.475952E+0	1.356061E+0	1.472575E+0	1.339282E+0	1.391756E+0	1.449002E+0	1.450123E+0	1.260965E+0	1.232636E+0	1.456981E+0	1.438289E+0	1.304710E+0	1.346658E+0	1.394914E+0	1.407018E+0	1.380119E+0	1.439035E+0	1.437816E+0	1.224736E+0	1.403706E+0	1.398272E+0	1.451147E+0	1.422319E+0	1.214731E+0	1.355678E+0	1.404092E+0	1.358007E+0	1.318719E+0	1.353666E+0	1.409355E+0	1.431394E+0	1.391883E+0	1.431991E+0	1.418640E+0	1.469268E+0	1.343424E+0	1.350882E+0	1.457371E+0	1.429285E+0	1.243766E+0	1.242287E+0	1.416694E+0	1.337046E+0	1.344798E+0
5.490540E+2	1.481152E+0	1.456912E+0	1.504964E+0	1.371460E+0	1.472915E+0	1.483975E+0	1.440236E+0	1.249081E+0	1.412763E+0	1.438995E+0	1.414270E+0	1.274649E+0	1.282141E+0	1.384124E+0	1.456559E+0	1.375612E+0	1.331994E+0	1.425833E+0	1.491997E+0	1.405702E+0	1.341535E+0	1.445662E+0	1.415398E+0	1.262711E+0	1.343825E+0	1.476222E+0	1.446755E+0	1.228520E+0	1.285304E+0	1.455430E+0	1.425258E+0	1.396193E+0	1.375178E+0	1.390639E+0	1.460390E+0	1.395966E+0	1.440776E+0	1.418379E+0	1.457339E+0	1.303396E+0	1.418895E+0	1.453047E+0	1.465122E+0	1.283357E+0	1.324132E+0	1.445296E+0	1.475706E+0	1.435993E+0	1.333337E+0	1.411147E+0	1.439206E+0	1.437892E+0	1.425626E+0	1.444464E+0	1.416057E+0	1.247947E+0	1.448513E+0	1.497883E+0	1.438156E+0	1.312111E+0	1.357523E+0	1.464187E+0	1.470152E+0	1.438626E+0	1.348152E+0	1.424892E+0	1.445485E+0	1.371814E+0	1.506202E+0	1.431529E+0	1.488626E+0	1.256404E+0	1.439684E+0	1.436804E+0	1.441127E+0	1.321901E+0	1.431934E+0	1.423058E+0	1.430629E+0	1.406015E+0	1.419781E+0	1.430997E+0	1.449507E+0	1.382632E+0	1.418213E+0	1.465409E+0	1.515236E+0	1.269521E+0	1.404084E+0	1.405522E+0	1.436116E+0	1.265282E+0	1.377298E+0	1.374495E+0	1.399251E+0	1.351516E+0	1.373302E+0	1.382668E+0	1.340078E+0	1.313979E+0	1.381297E+0	1.432895E+0	1.427337E+0	1.238180E+0	1.381711E+0	1.467436E+0	1.388381E+0	1.279360E+0	1.398919E+0	1.456835E+0	1.396551E+0	1.325505E+0	1.390038E+0	1.397620E+0	1.408449E+0	1.447430E+0	1.429147E+0	1.442171E+0	1.368339E+0	1.358274E+0	1.417320E+0	1.450101E+0	1.325728E+0	1.377356E+0	1.323189E+0	1.468849E+0	1.418650E+0	1.421867E+0	1.416306E+0	1.413442E+0	1.345061E+0	1.363121E+0	1.426647E+0	1.438766E+0	1.206912E+0	1.246722E+0	1.463600E+0	1.409466E+0	1.273284E+0	1.306112E+0	1.402668E+0	1.405861E+0	1.389957E+0	1.368457E+0	1.391267E+0	1.225302E+0	1.331605E+0	1.410871E+0	1.498959E+0	1.352371E+0	1.190604E+0	1.317662E+0	1.381022E+0	1.325196E+0	1.222532E+0	1.289948E+0	1.428864E+0	1.458510E+0	1.396496E+0	1.381948E+0	1.452146E+0	1.458598E+0	1.309364E+0	1.385001E+0	1.421152E+0	1.393113E+0	1.238638E+0	1.237015E+0	1.457381E+0	1.363927E+0	1.148259E+0
5.497960E+2	1.472736E+0	1.426206E+0	1.421680E+0	1.389697E+0	1.443458E+0	1.483474E+0	1.470384E+0	1.304502E+0	1.373670E+0	1.441621E+0	1.457266E+0	1.314382E+0	1.268357E+0	1.473292E+0	1.406395E+0	1.405980E+0	1.307192E+0	1.494818E+0	1.434174E+0	1.372118E+0	1.372392E+0	1.399450E+0	1.442030E+0	1.230320E+0	1.409311E+0	1.429133E+0	1.456360E+0	1.227551E+0	1.309458E+0	1.407382E+0	1.397193E+0	1.352074E+0	1.339486E+0	1.418830E+0	1.430844E+0	1.397068E+0	1.414603E+0	1.422050E+0	1.445035E+0	1.256828E+0	1.422642E+0	1.422237E+0	1.440040E+0	1.337899E+0	1.274725E+0	1.406179E+0	1.438745E+0	1.421714E+0	1.382235E+0	1.413463E+0	1.472707E+0	1.343621E+0	1.421456E+0	1.411820E+0	1.448878E+0	1.256613E+0	1.408150E+0	1.434089E+0	1.444325E+0	1.308272E+0	1.329249E+0	1.498694E+0	1.444704E+0	1.387612E+0	1.433482E+0	1.415680E+0	1.454590E+0	1.343899E+0	1.380013E+0	1.432019E+0	1.434497E+0	1.227179E+0	1.412325E+0	1.448780E+0	1.443264E+0	1.302011E+0	1.372561E+0	1.420433E+0	1.445282E+0	1.377967E+0	1.383588E+0	1.407051E+0	1.415777E+0	1.324608E+0	1.394718E+0	1.459538E+0	1.488363E+0	1.224481E+0	1.417409E+0	1.450067E+0	1.431448E+0	1.233570E+0	1.304739E+0	1.401587E+0	1.393017E+0	1.374894E+0	1.279036E+0	1.407365E+0	1.401963E+0	1.293278E+0	1.442299E+0	1.441196E+0	1.448116E+0	1.224145E+0	1.427690E+0	1.419806E+0	1.365318E+0	1.282023E+0	1.360987E+0	1.421007E+0	1.434137E+0	1.376865E+0	1.364685E+0	1.434046E+0	1.443597E+0	1.401846E+0	1.465108E+0	1.362458E+0	1.484445E+0	1.373454E+0	1.380046E+0	1.442385E+0	1.424529E+0	1.458139E+0	1.363228E+0	1.452342E+0	1.413192E+0	1.442546E+0	1.371724E+0	1.415252E+0	1.388674E+0	1.357862E+0	1.386004E+0	1.398766E+0	1.402256E+0	1.198157E+0	1.475031E+0	1.441745E+0	1.397408E+0	1.258710E+0	1.380432E+0	1.362506E+0	1.426207E+0	1.377013E+0	1.367422E+0	1.240602E+0	1.382863E+0	1.364071E+0	1.394276E+0	1.308876E+0	1.292640E+0	1.279149E+0	1.413098E+0	1.320507E+0	1.307640E+0	1.319722E+0	1.397542E+0	1.415015E+0	1.368818E+0	1.395937E+0	1.327048E+0	1.427767E+0	1.347091E+0	1.319705E+0	1.407805E+0	1.461260E+0	1.189948E+0	1.207725E+0	1.432615E+0	1.321685E+0	1.312754E+0
5.505110E+2	1.436952E+0	1.408746E+0	1.467817E+0	1.382288E+0	1.404553E+0	1.449576E+0	1.405692E+0	1.234662E+0	1.308704E+0	1.394897E+0	1.428394E+0	1.298684E+0	1.277089E+0	1.433505E+0	1.437022E+0	1.374743E+0	1.307732E+0	1.407220E+0	1.403000E+0	1.367638E+0	1.344340E+0	1.390301E+0	1.442535E+0	1.237323E+0	1.377393E+0	1.385471E+0	1.402991E+0	1.251819E+0	1.274620E+0	1.390152E+0	1.436140E+0	1.325259E+0	1.347310E+0	1.388587E+0	1.425267E+0	1.389909E+0	1.396339E+0	1.400029E+0	1.413799E+0	1.288738E+0	1.439241E+0	1.387110E+0	1.425543E+0	1.315311E+0	1.327220E+0	1.432255E+0	1.422438E+0	1.411373E+0	1.316693E+0	1.374646E+0	1.429635E+0	1.421795E+0	1.328613E+0	1.412321E+0	1.412523E+0	1.211914E+0	1.384606E+0	1.406105E+0	1.414507E+0	1.288535E+0	1.329248E+0	1.443040E+0	1.450656E+0	1.412631E+0	1.342629E+0	1.423809E+0	1.392060E+0	1.320948E+0	1.445850E+0	1.450245E+0	1.419826E+0	1.214925E+0	1.403206E+0	1.409423E+0	1.387166E+0	1.284269E+0	1.382723E+0	1.411506E+0	1.412442E+0	1.359267E+0	1.413750E+0	1.431554E+0	1.421011E+0	1.335455E+0	1.356408E+0	1.431157E+0	1.398455E+0	1.234196E+0	1.383589E+0	1.381694E+0	1.420363E+0	1.236213E+0	1.360958E+0	1.400565E+0	1.418527E+0	1.380989E+0	1.370409E+0	1.358534E+0	1.396657E+0	1.322505E+0	1.359947E+0	1.428014E+0	1.432778E+0	1.146957E+0	1.385453E+0	1.438859E+0	1.390526E+0	1.216510E+0	1.326136E+0	1.421531E+0	1.422697E+0	1.321759E+0	1.346880E+0	1.422084E+0	1.354077E+0	1.372722E+0	1.402177E+0	1.423893E+0	1.404870E+0	1.312721E+0	1.396846E+0	1.454731E+0	1.384393E+0	1.406251E+0	1.301400E+0	1.385783E+0	1.398803E+0	1.461635E+0	1.332563E+0	1.401979E+0	1.440694E+0	1.274885E+0	1.387529E+0	1.458026E+0	1.447302E+0	1.224381E+0	1.429302E+0	1.407163E+0	1.402645E+0	1.272987E+0	1.320431E+0	1.423204E+0	1.437595E+0	1.366852E+0	1.382183E+0	1.221903E+0	1.400325E+0	1.394672E+0	1.464232E+0	1.344144E+0	1.391158E+0	1.258415E+0	1.420411E+0	1.334571E+0	1.411879E+0	1.289949E+0	1.364168E+0	1.407671E+0	1.397521E+0	1.332442E+0	1.334309E+0	1.404643E+0	1.367527E+0	1.321471E+0	1.388267E+0	1.385774E+0	1.315009E+0	1.162032E+0	1.393697E+0	1.389527E+0	1.374706E+0
5.512510E+2	1.383806E+0	1.406939E+0	1.404305E+0	1.324728E+0	1.347306E+0	1.436619E+0	1.366748E+0	1.215287E+0	1.282827E+0	1.340299E+0	1.333197E+0	1.231971E+0	1.248144E+0	1.409533E+0	1.354114E+0	1.335700E+0	1.244654E+0	1.331668E+0	1.362271E+0	1.356444E+0	1.313488E+0	1.405397E+0	1.345554E+0	1.149783E+0	1.329517E+0	1.341815E+0	1.358163E+0	1.190175E+0	1.222596E+0	1.339497E+0	1.363974E+0	1.307526E+0	1.329222E+0	1.359886E+0	1.393485E+0	1.349163E+0	1.341035E+0	1.355072E+0	1.369308E+0	1.244753E+0	1.379271E+0	1.383863E+0	1.399347E+0	1.226604E+0	1.283475E+0	1.355158E+0	1.386563E+0	1.338494E+0	1.290162E+0	1.367694E+0	1.409960E+0	1.226934E+0	1.326003E+0	1.415838E+0	1.393840E+0	1.250682E+0	1.375078E+0	1.326644E+0	1.329170E+0	1.240840E+0	1.266136E+0	1.351216E+0	1.358058E+0	1.350821E+0	1.288922E+0	1.364183E+0	1.342883E+0	1.330253E+0	1.381509E+0	1.369958E+0	1.357607E+0	1.167794E+0	1.394086E+0	1.316448E+0	1.348701E+0	1.184819E+0	1.355444E+0	1.347971E+0	1.327569E+0	1.286554E+0	1.369111E+0	1.337435E+0	1.390187E+0	1.332201E+0	1.366621E+0	1.334278E+0	1.398455E+0	1.173704E+0	1.334399E+0	1.357351E+0	1.350337E+0	1.186529E+0	1.278310E+0	1.371937E+0	1.397551E+0	1.293083E+0	1.288869E+0	1.377057E+0	1.306483E+0	1.294497E+0	1.300472E+0	1.372366E+0	1.354108E+0	1.153974E+0	1.312735E+0	1.352005E+0	1.344400E+0	1.240481E+0	1.315373E+0	1.397297E+0	1.355151E+0	1.330319E+0	1.319368E+0	1.362278E+0	1.346386E+0	1.391081E+0	1.311806E+0	1.329966E+0	1.385354E+0	1.285063E+0	1.354320E+0	1.328201E+0	1.365866E+0	1.377951E+0	1.316605E+0	1.365017E+0	1.395333E+0	1.394825E+0	1.331962E+0	1.337415E+0	1.336130E+0	1.303519E+0	1.343331E+0	1.341975E+0	1.385189E+0	1.170958E+0	1.356497E+0	1.362204E+0	1.342417E+0	1.270131E+0	1.333363E+0	1.319153E+0	1.353713E+0	1.320333E+0	1.326547E+0	1.128405E+0	1.342308E+0	1.344273E+0	1.398804E+0	1.263029E+0	1.339890E+0	1.276682E+0	1.319686E+0	1.244922E+0	1.332820E+0	1.220275E+0	1.334897E+0	1.326330E+0	1.364715E+0	1.365268E+0	1.311968E+0	1.346541E+0	1.340802E+0	1.310884E+0	1.330126E+0	1.378959E+0	1.324749E+0	1.154417E+0	1.308784E+0	1.417690E+0	1.421704E+0
5.520210E+2	1.328557E+0	1.360580E+0	1.362965E+0	1.250071E+0	1.352312E+0	1.312496E+0	1.392501E+0	1.162116E+0	1.233827E+0	1.307224E+0	1.309244E+0	1.198126E+0	1.179686E+0	1.280580E+0	1.272266E+0	1.288845E+0	1.222551E+0	1.280751E+0	1.335121E+0	1.283118E+0	1.280949E+0	1.322121E+0	1.305860E+0	1.141027E+0	1.278339E+0	1.356039E+0	1.309063E+0	1.144065E+0	1.171498E+0	1.336363E+0	1.290664E+0	1.282006E+0	1.273976E+0	1.305039E+0	1.329919E+0	1.281984E+0	1.245247E+0	1.297727E+0	1.339491E+0	1.240011E+0	1.337503E+0	1.294141E+0	1.344158E+0	1.183080E+0	1.216056E+0	1.356859E+0	1.324601E+0	1.285806E+0	1.231902E+0	1.328291E+0	1.349346E+0	1.289591E+0	1.305659E+0	1.288776E+0	1.371624E+0	1.166756E+0	1.273055E+0	1.303698E+0	1.335851E+0	1.162444E+0	1.246444E+0	1.343981E+0	1.327731E+0	1.315998E+0	1.256296E+0	1.312695E+0	1.302211E+0	1.277526E+0	1.306193E+0	1.262088E+0	1.316628E+0	1.177219E+0	1.327564E+0	1.346111E+0	1.302224E+0	1.166541E+0	1.275208E+0	1.290736E+0	1.288670E+0	1.230458E+0	1.325077E+0	1.335209E+0	1.327955E+0	1.263330E+0	1.328828E+0	1.282414E+0	1.318875E+0	1.156484E+0	1.271371E+0	1.315394E+0	1.347420E+0	1.188115E+0	1.273985E+0	1.304974E+0	1.339720E+0	1.259550E+0	1.253012E+0	1.329347E+0	1.272888E+0	1.237265E+0	1.293867E+0	1.293282E+0	1.298695E+0	1.093326E+0	1.291880E+0	1.352567E+0	1.324555E+0	1.095606E+0	1.298457E+0	1.351980E+0	1.289243E+0	1.266652E+0	1.281064E+0	1.293772E+0	1.328810E+0	1.339167E+0	1.285308E+0	1.322349E+0	1.338812E+0	1.302416E+0	1.301298E+0	1.281910E+0	1.258320E+0	1.349645E+0	1.177231E+0	1.294727E+0	1.328361E+0	1.323770E+0	1.289788E+0	1.320521E+0	1.310906E+0	1.254431E+0	1.315389E+0	1.309383E+0	1.319756E+0	1.115105E+0	1.364321E+0	1.302261E+0	1.285852E+0	1.198744E+0	1.244397E+0	1.312217E+0	1.296755E+0	1.273282E+0	1.290780E+0	1.138038E+0	1.318087E+0	1.268675E+0	1.346464E+0	1.264205E+0	1.304704E+0	1.221386E+0	1.280293E+0	1.212109E+0	1.349942E+0	1.175017E+0	1.266091E+0	1.274360E+0	1.349336E+0	1.252263E+0	1.217587E+0	1.324606E+0	1.347090E+0	1.240294E+0	1.257208E+0	1.303994E+0	1.315007E+0	1.104624E+0	1.282249E+0	1.315284E+0	1.276436E+0
5.527590E+2	1.292249E+0	1.317231E+0	1.274290E+0	1.197070E+0	1.293397E+0	1.257664E+0	1.307079E+0	1.140038E+0	1.196940E+0	1.325074E+0	1.229400E+0	1.170655E+0	1.175092E+0	1.246545E+0	1.255370E+0	1.262817E+0	1.154081E+0	1.246259E+0	1.265731E+0	1.229383E+0	1.223726E+0	1.299704E+0	1.270686E+0	1.098571E+0	1.184789E+0	1.261366E+0	1.273306E+0	1.131444E+0	1.140374E+0	1.263253E+0	1.292384E+0	1.155708E+0	1.171795E+0	1.321954E+0	1.274164E+0	1.209298E+0	1.235866E+0	1.253230E+0	1.261399E+0	1.171881E+0	1.271105E+0	1.248199E+0	1.248839E+0	1.219996E+0	1.155840E+0	1.257086E+0	1.268072E+0	1.284818E+0	1.206413E+0	1.263399E+0	1.305742E+0	1.221761E+0	1.221681E+0	1.264167E+0	1.267103E+0	1.139390E+0	1.294914E+0	1.283554E+0	1.285473E+0	1.170666E+0	1.159097E+0	1.259392E+0	1.234048E+0	1.253208E+0	1.229187E+0	1.238978E+0	1.254857E+0	1.175796E+0	1.275270E+0	1.276864E+0	1.215958E+0	1.076826E+0	1.288402E+0	1.253706E+0	1.264291E+0	1.145576E+0	1.268788E+0	1.276559E+0	1.272502E+0	1.221626E+0	1.228561E+0	1.262811E+0	1.300043E+0	1.184158E+0	1.297670E+0	1.253058E+0	1.265137E+0	1.099084E+0	1.199123E+0	1.235626E+0	1.308910E+0	1.116759E+0	1.225455E+0	1.281971E+0	1.272821E+0	1.179265E+0	1.108434E+0	1.224953E+0	1.269941E+0	1.161769E+0	1.233374E+0	1.279613E+0	1.249216E+0	1.107361E+0	1.249111E+0	1.266834E+0	1.243565E+0	1.121172E+0	1.229778E+0	1.261351E+0	1.251113E+0	1.205662E+0	1.264341E+0	1.264953E+0	1.209083E+0	1.299911E+0	1.254082E+0	1.285795E+0	1.276752E+0	1.178784E+0	1.227796E+0	1.292198E+0	1.267068E+0	1.301888E+0	1.196994E+0	1.234558E+0	1.210293E+0	1.263322E+0	1.206647E+0	1.258975E+0	1.249432E+0	1.173205E+0	1.254931E+0	1.207163E+0	1.267129E+0	1.102962E+0	1.287907E+0	1.219835E+0	1.261238E+0	1.178184E+0	1.222673E+0	1.325509E+0	1.305039E+0	1.210723E+0	1.253313E+0	1.123305E+0	1.249929E+0	1.261476E+0	1.273485E+0	1.229526E+0	1.277562E+0	1.214473E+0	1.247092E+0	1.097266E+0	1.261812E+0	1.189904E+0	1.216280E+0	1.269277E+0	1.251942E+0	1.201681E+0	1.237132E+0	1.287252E+0	1.258535E+0	1.204412E+0	1.241482E+0	1.234796E+0	1.256578E+0	1.036085E+0	1.289324E+0	1.251279E+0	1.353343E+0
5.535490E+2	1.256468E+0	1.210062E+0	1.269497E+0	1.198781E+0	1.234485E+0	1.247197E+0	1.253062E+0	1.181944E+0	1.125916E+0	1.219026E+0	1.204832E+0	1.147600E+0	1.134662E+0	1.174158E+0	1.214180E+0	1.198175E+0	1.172950E+0	1.258303E+0	1.220985E+0	1.138704E+0	1.241678E+0	1.282772E+0	1.209385E+0	1.056989E+0	1.212304E+0	1.218688E+0	1.231144E+0	1.070771E+0	1.106467E+0	1.235052E+0	1.260310E+0	1.145763E+0	1.198199E+0	1.237377E+0	1.299254E+0	1.166898E+0	1.195378E+0	1.218824E+0	1.242467E+0	1.103317E+0	1.257184E+0	1.191986E+0	1.248840E+0	1.097684E+0	1.109520E+0	1.264456E+0	1.147951E+0	1.260690E+0	1.120061E+0	1.188076E+0	1.198865E+0	1.166006E+0	1.220637E+0	1.236042E+0	1.245395E+0	1.121145E+0	1.215315E+0	1.232071E+0	1.219670E+0	1.095557E+0	1.105070E+0	1.239913E+0	1.243254E+0	1.189930E+0	1.190540E+0	1.214587E+0	1.218431E+0	1.158427E+0	1.173521E+0	1.210371E+0	1.226581E+0	1.098978E+0	1.261042E+0	1.198381E+0	1.135538E+0	1.110634E+0	1.189087E+0	1.189396E+0	1.168432E+0	1.188905E+0	1.217099E+0	1.259468E+0	1.219783E+0	1.149454E+0	1.206755E+0	1.289265E+0	1.218114E+0	1.031968E+0	1.224741E+0	1.208692E+0	1.249393E+0	1.053332E+0	1.125508E+0	1.203249E+0	1.226897E+0	1.159957E+0	1.125783E+0	1.189593E+0	1.206876E+0	1.133762E+0	1.160173E+0	1.226405E+0	1.159663E+0	1.020149E+0	1.175322E+0	1.227050E+0	1.163646E+0	1.040213E+0	1.115477E+0	1.212873E+0	1.192283E+0	1.184261E+0	1.216867E+0	1.229610E+0	1.252471E+0	1.234699E+0	1.178379E+0	1.239083E+0	1.218202E+0	1.182580E+0	1.176349E+0	1.218132E+0	1.256259E+0	1.197524E+0	1.146824E+0	1.198350E+0	1.202849E+0	1.208707E+0	1.185561E+0	1.205877E+0	1.227887E+0	1.144571E+0	1.191934E+0	1.213581E+0	1.167562E+0	1.083535E+0	1.256018E+0	1.173723E+0	1.218815E+0	1.087379E+0	1.172500E+0	1.193711E+0	1.207691E+0	1.118221E+0	1.205057E+0	1.212272E+0	1.185151E+0	1.192476E+0	1.232215E+0	1.201313E+0	1.219255E+0	1.080674E+0	1.241464E+0	1.120117E+0	1.215483E+0	1.150006E+0	1.153636E+0	1.154606E+0	1.211960E+0	1.196302E+0	1.198040E+0	1.179348E+0	1.214523E+0	1.132647E+0	1.217652E+0	1.202819E+0	1.161244E+0	1.059517E+0	1.264557E+0	1.171915E+0	1.120486E+0
5.542580E+2	1.171224E+0	1.130589E+0	1.179625E+0	1.158887E+0	1.160010E+0	1.138527E+0	1.151937E+0	1.120664E+0	1.082420E+0	1.130302E+0	1.194391E+0	1.134358E+0	1.014289E+0	1.135327E+0	1.138667E+0	1.128328E+0	1.076987E+0	1.140048E+0	1.129975E+0	1.177888E+0	1.172115E+0	1.128575E+0	1.136523E+0	1.148032E+0	1.135263E+0	1.151971E+0	1.129206E+0	1.130474E+0	1.050724E+0	1.148365E+0	1.181271E+0	1.184686E+0	1.118998E+0	1.141523E+0	1.159858E+0	1.130557E+0	1.163285E+0	1.135789E+0	1.173367E+0	1.085207E+0	1.130815E+0	1.181174E+0	1.165223E+0	1.082808E+0	1.076067E+0	1.155046E+0	1.167517E+0	1.159252E+0	1.104976E+0	1.142303E+0	1.129210E+0	1.029200E+0	1.112145E+0	1.130577E+0	1.145417E+0	1.030376E+0	1.179999E+0	1.206887E+0	1.168261E+0	1.039090E+0	1.050541E+0	1.168679E+0	1.154985E+0	1.124691E+0	1.112738E+0	1.124070E+0	1.169257E+0	1.123069E+0	1.170029E+0	1.136982E+0	1.155758E+0	1.049490E+0	1.143020E+0	1.160735E+0	1.146756E+0	1.024083E+0	1.149504E+0	1.152642E+0	1.156306E+0	1.105282E+0	1.144713E+0	1.194306E+0	1.166857E+0	1.119086E+0	1.105115E+0	1.146882E+0	1.158172E+0	9.622040E-1	1.129434E+0	1.120118E+0	1.147278E+0	1.035889E+0	1.067848E+0	1.180244E+0	1.214990E+0	1.127944E+0	1.080096E+0	1.148061E+0	1.174460E+0	1.081402E+0	1.109851E+0	1.180519E+0	1.179950E+0	9.514819E-1	1.167302E+0	1.182222E+0	1.166864E+0	9.715046E-1	1.110864E+0	1.162817E+0	1.104585E+0	1.087422E+0	1.088474E+0	1.117605E+0	1.093201E+0	1.149861E+0	1.125857E+0	1.129417E+0	1.183667E+0	1.075754E+0	1.141171E+0	1.117836E+0	1.180103E+0	1.132076E+0	1.086513E+0	1.133386E+0	1.169614E+0	1.139245E+0	1.141580E+0	1.149761E+0	1.167986E+0	1.082045E+0	1.158405E+0	1.156789E+0	1.151914E+0	9.898008E-1	1.177196E+0	1.182371E+0	1.136590E+0	1.070245E+0	1.170949E+0	1.158447E+0	1.155393E+0	1.095763E+0	1.114223E+0	1.146538E+0	1.147412E+0	1.080879E+0	1.163769E+0	1.174863E+0	1.175022E+0	1.048582E+0	1.137924E+0	1.066211E+0	1.174189E+0	1.071996E+0	1.108962E+0	1.163644E+0	1.178129E+0	1.091370E+0	1.147774E+0	1.131917E+0	1.143259E+0	1.071471E+0	1.142353E+0	1.155639E+0	1.106403E+0	1.022026E+0	1.123920E+0	1.147593E+0	1.193121E+0
5.550190E+2	1.088085E+0	1.089648E+0	1.084959E+0	1.056875E+0	1.074419E+0	1.075719E+0	1.040135E+0	1.059838E+0	9.601934E-1	1.094078E+0	1.122530E+0	1.055381E+0	9.063203E-1	1.058627E+0	1.049954E+0	1.073232E+0	9.923443E-1	1.088583E+0	1.063103E+0	1.049146E+0	1.021767E+0	1.110271E+0	1.081753E+0	1.061366E+0	1.016399E+0	1.065146E+0	1.051288E+0	1.051355E+0	9.791908E-1	1.099272E+0	1.078178E+0	1.106835E+0	9.923733E-1	1.125122E+0	1.053360E+0	1.044657E+0	1.025033E+0	1.063765E+0	1.075396E+0	1.096417E+0	1.076197E+0	1.029835E+0	1.093872E+0	1.097133E+0	9.679886E-1	1.046769E+0	1.049027E+0	1.077510E+0	9.978151E-1	1.058288E+0	1.114320E+0	1.052193E+0	1.068331E+0	1.024106E+0	1.093410E+0	1.057746E+0	1.079096E+0	1.056352E+0	1.075211E+0	1.018256E+0	1.021257E+0	1.055707E+0	1.082962E+0	1.081525E+0	9.997991E-1	1.024337E+0	1.075765E+0	1.039948E+0	1.029378E+0	1.043394E+0	1.067232E+0	1.067400E+0	1.044312E+0	1.075747E+0	1.053799E+0	1.047199E+0	1.060178E+0	1.014020E+0	1.051732E+0	1.088142E+0	1.088613E+0	1.035587E+0	1.063917E+0	9.921909E-1	1.078044E+0	1.035327E+0	1.117351E+0	9.648533E-1	1.054110E+0	1.039832E+0	1.063836E+0	1.017389E+0	1.034694E+0	1.056537E+0	1.095362E+0	1.013617E+0	9.985539E-1	1.061627E+0	1.067780E+0	1.025389E+0	1.021909E+0	1.106809E+0	1.062688E+0	8.893309E-1	1.029888E+0	1.109939E+0	1.054227E+0	9.784287E-1	1.028857E+0	1.069553E+0	1.080072E+0	9.916533E-1	1.069053E+0	1.045291E+0	1.085512E+0	1.010573E+0	1.084222E+0	1.050721E+0	1.088081E+0	1.012852E+0	9.789472E-1	1.040684E+0	1.086448E+0	1.012382E+0	1.009984E+0	1.017306E+0	1.107600E+0	1.073492E+0	1.028316E+0	1.095457E+0	1.126475E+0	1.003740E+0	1.081692E+0	1.101482E+0	1.079843E+0	9.052938E-1	1.132671E+0	1.092454E+0	1.066933E+0	1.003427E+0	1.054051E+0	1.060177E+0	1.118629E+0	1.019303E+0	1.077890E+0	1.092705E+0	1.087703E+0	1.053879E+0	1.043988E+0	1.079644E+0	1.126768E+0	9.735368E-1	1.094032E+0	9.917966E-1	1.078005E+0	9.606373E-1	9.523482E-1	1.051234E+0	1.076122E+0	1.073075E+0	1.052832E+0	1.065514E+0	1.046321E+0	1.003823E+0	1.083258E+0	1.065476E+0	1.041311E+0	8.673748E-1	1.064658E+0	1.041346E+0	1.045717E+0
5.557600E+2	1.007051E+0	1.050514E+0	9.813063E-1	9.879178E-1	9.871618E-1	9.974578E-1	9.936564E-1	1.014328E+0	9.486319E-1	1.021629E+0	9.941652E-1	9.690476E-1	9.113735E-1	1.017880E+0	9.665217E-1	9.990450E-1	8.872154E-1	9.790861E-1	1.035448E+0	9.982086E-1	9.858630E-1	9.679698E-1	1.045072E+0	1.005338E+0	9.283513E-1	1.020015E+0	1.012862E+0	9.838848E-1	8.983654E-1	9.932638E-1	1.001432E+0	1.017733E+0	9.161061E-1	1.002101E+0	9.825479E-1	9.769280E-1	9.677580E-1	9.743099E-1	9.840498E-1	1.015351E+0	9.782067E-1	9.547061E-1	1.027537E+0	1.043691E+0	9.180662E-1	1.038265E+0	1.004457E+0	1.023834E+0	9.650427E-1	9.986095E-1	9.840482E-1	1.009657E+0	9.947840E-1	1.039173E+0	1.012623E+0	1.023993E+0	1.005662E+0	9.864016E-1	9.950132E-1	1.022094E+0	9.626875E-1	1.059603E+0	9.898192E-1	9.799865E-1	9.626545E-1	9.560413E-1	9.974506E-1	9.909429E-1	1.019901E+0	1.010393E+0	9.913491E-1	1.018854E+0	9.804731E-1	1.008442E+0	9.977028E-1	9.972046E-1	9.847555E-1	9.546858E-1	9.971708E-1	1.021659E+0	1.004765E+0	1.044498E+0	9.603939E-1	9.873111E-1	9.784458E-1	1.000587E+0	1.027439E+0	1.018722E+0	9.670010E-1	9.838913E-1	1.032326E+0	9.724621E-1	9.044754E-1	1.009508E+0	1.030729E+0	9.856704E-1	9.528676E-1	9.701405E-1	9.829072E-1	1.004080E+0	9.817506E-1	9.994148E-1	9.627435E-1	9.299290E-1	9.662612E-1	1.046620E+0	9.732354E-1	9.677763E-1	9.673504E-1	1.026346E+0	9.874717E-1	1.023754E+0	9.433557E-1	9.751524E-1	9.822612E-1	9.858811E-1	9.796545E-1	1.008581E+0	1.037034E+0	9.407314E-1	9.390477E-1	1.031941E+0	9.922812E-1	9.557783E-1	9.060882E-1	9.715122E-1	1.021779E+0	1.001909E+0	9.295107E-1	1.019429E+0	1.041878E+0	9.172541E-1	1.030889E+0	9.834571E-1	9.859659E-1	8.470127E-1	9.972922E-1	9.639183E-1	9.805173E-1	9.149056E-1	9.583623E-1	1.015666E+0	1.007819E+0	9.476540E-1	1.025661E+0	9.414078E-1	9.936347E-1	9.608806E-1	1.005737E+0	9.873628E-1	1.016185E+0	8.905913E-1	1.033257E+0	9.642577E-1	9.521091E-1	9.201440E-1	9.888062E-1	9.297858E-1	9.807770E-1	9.719109E-1	9.752030E-1	1.031720E+0	9.986379E-1	8.938235E-1	9.531532E-1	1.017771E+0	9.910818E-1	8.298834E-1	9.992044E-1	9.773423E-1	9.581290E-1
5.560190E+2	9.960012E-1	9.439473E-1	9.992814E-1	1.015274E+0	9.866056E-1	9.660535E-1	9.660195E-1	9.521485E-1	8.715518E-1	9.334313E-1	9.984646E-1	9.925931E-1	8.626737E-1	9.689843E-1	9.527914E-1	9.578311E-1	8.855983E-1	9.730635E-1	9.957259E-1	9.976489E-1	9.011515E-1	9.784956E-1	9.465865E-1	9.773269E-1	9.624700E-1	9.459413E-1	1.011261E+0	9.649548E-1	8.788557E-1	9.692414E-1	9.304127E-1	9.355537E-1	9.121944E-1	9.974882E-1	9.758570E-1	9.714210E-1	9.692390E-1	9.394443E-1	9.551799E-1	9.592933E-1	9.460789E-1	1.022269E+0	9.946485E-1	9.742703E-1	9.232132E-1	9.781745E-1	9.865204E-1	9.672047E-1	8.906557E-1	9.777506E-1	9.691599E-1	9.360810E-1	9.316699E-1	9.588175E-1	9.838429E-1	9.998174E-1	9.361510E-1	9.746499E-1	9.657104E-1	9.574018E-1	9.222950E-1	1.021204E+0	9.751981E-1	1.020700E+0	9.807249E-1	9.652564E-1	9.567746E-1	9.903234E-1	9.610459E-1	9.438982E-1	9.908436E-1	9.901038E-1	9.804727E-1	9.702257E-1	9.453469E-1	9.343083E-1	9.628249E-1	1.005093E+0	9.370532E-1	9.588115E-1	9.631433E-1	1.003842E+0	9.353856E-1	9.439287E-1	9.651667E-1	1.029454E+0	9.912673E-1	9.670623E-1	9.244708E-1	9.611001E-1	1.000234E+0	9.333486E-1	8.910213E-1	9.573670E-1	9.541896E-1	9.958334E-1	9.586504E-1	9.084023E-1	9.911588E-1	1.011386E+0	9.588761E-1	9.857467E-1	1.000346E+0	9.579979E-1	9.347149E-1	9.849825E-1	9.759170E-1	9.890816E-1	9.099453E-1	9.978929E-1	9.564231E-1	9.643680E-1	9.482108E-1	9.767837E-1	9.476603E-1	9.928462E-1	9.824939E-1	9.171910E-1	9.919926E-1	9.900767E-1	9.495477E-1	9.830786E-1	9.814753E-1	1.044811E+0	9.263604E-1	9.608628E-1	9.458764E-1	9.637310E-1	9.114370E-1	9.814151E-1	9.998420E-1	9.622504E-1	1.003963E+0	9.928395E-1	9.537240E-1	9.528895E-1	9.906738E-1	9.258769E-1	9.475219E-1	9.571670E-1	9.324996E-1	9.780912E-1	9.855535E-1	9.273350E-1	9.518586E-1	9.385742E-1	9.570219E-1	9.614809E-1	9.770496E-1	9.985308E-1	1.008646E+0	9.646496E-1	9.966798E-1	9.220702E-1	9.420374E-1	1.002918E+0	9.389978E-1	9.580296E-1	9.848777E-1	9.315531E-1	9.724109E-1	9.807313E-1	1.031125E+0	9.367647E-1	9.579188E-1	9.947055E-1	9.915942E-1	9.482156E-1	1.014240E+0	1.018305E+0	9.688097E-1
5.565030E+2	9.796891E-1	9.818775E-1	9.591379E-1	9.907675E-1	9.376970E-1	9.969594E-1	9.829785E-1	9.800844E-1	9.078895E-1	9.822555E-1	9.597703E-1	9.705189E-1	8.782942E-1	9.728191E-1	9.480391E-1	1.007722E+0	8.920677E-1	1.000985E+0	9.580156E-1	9.472724E-1	9.488369E-1	1.002745E+0	9.953267E-1	9.418729E-1	9.707243E-1	9.758650E-1	9.749699E-1	9.770898E-1	9.034747E-1	9.567084E-1	9.899769E-1	9.762105E-1	8.618382E-1	9.329029E-1	9.513235E-1	9.543520E-1	9.573892E-1	9.532065E-1	1.011027E+0	9.774049E-1	9.707103E-1	1.002811E+0	9.756959E-1	9.704133E-1	8.758647E-1	9.895123E-1	1.017502E+0	9.898558E-1	9.218667E-1	9.603686E-1	9.441688E-1	1.024027E+0	9.739199E-1	9.653468E-1	9.293110E-1	9.843103E-1	9.804360E-1	9.494675E-1	9.461751E-1	9.864590E-1	9.369370E-1	9.677782E-1	9.302517E-1	9.554604E-1	8.943895E-1	9.446592E-1	9.907723E-1	9.723345E-1	9.580537E-1	9.842879E-1	9.685851E-1	9.604093E-1	9.649151E-1	9.725076E-1	9.827435E-1	9.730135E-1	1.001337E+0	1.012969E+0	9.835307E-1	1.000883E+0	9.860659E-1	9.726553E-1	9.848206E-1	9.433859E-1	9.666984E-1	9.462771E-1	9.819659E-1	9.878147E-1	9.295952E-1	1.034652E+0	9.792276E-1	9.962475E-1	9.160080E-1	9.921279E-1	9.343467E-1	9.582334E-1	9.256868E-1	9.594768E-1	9.917481E-1	9.760724E-1	9.583679E-1	9.857463E-1	9.899560E-1	9.314332E-1	9.405964E-1	9.625695E-1	9.560716E-1	9.299605E-1	9.191710E-1	9.889345E-1	9.950976E-1	9.846985E-1	9.638555E-1	9.648215E-1	9.515048E-1	9.605564E-1	9.687717E-1	9.989339E-1	9.659688E-1	9.575407E-1	9.637230E-1	9.851357E-1	9.274443E-1	9.734672E-1	9.101427E-1	9.432909E-1	1.016817E+0	9.902433E-1	9.614419E-1	9.717611E-1	9.730446E-1	9.616660E-1	9.546833E-1	9.419752E-1	9.717415E-1	9.859158E-1	9.581829E-1	9.748691E-1	9.721374E-1	9.805821E-1	9.733617E-1	9.306902E-1	9.638053E-1	9.631597E-1	9.898949E-1	9.278081E-1	1.019546E+0	9.506811E-1	9.513823E-1	9.603253E-1	9.649151E-1	1.007110E+0	9.043935E-1	8.458983E-1	1.000453E+0	9.880305E-1	9.425923E-1	9.235723E-1	9.915421E-1	9.848252E-1	9.618002E-1	9.552371E-1	9.750582E-1	9.473529E-1	9.755520E-1	9.983747E-1	9.808310E-1	1.005038E+0	9.823988E-1	9.466211E-1	9.517195E-1
5.570500E+2	9.965273E-1	9.439473E-1	9.723192E-1	9.839286E-1	1.017173E+0	1.011914E+0	1.001193E+0	1.002613E+0	9.420250E-1	9.917050E-1	1.011363E+0	9.950460E-1	8.714027E-1	1.009730E+0	1.002957E+0	9.777873E-1	9.152496E-1	1.022337E+0	9.695804E-1	1.007165E+0	9.695939E-1	9.730037E-1	9.792476E-1	9.983377E-1	9.459606E-1	9.954871E-1	1.012862E+0	1.010582E+0	8.760686E-1	1.021463E+0	9.813860E-1	1.003461E+0	9.048610E-1	9.908252E-1	1.001505E+0	9.967515E-1	9.751639E-1	1.037617E+0	9.949355E-1	9.860293E-1	1.017832E+0	9.974057E-1	9.561857E-1	9.963085E-1	9.299038E-1	9.963151E-1	9.702140E-1	1.016447E+0	9.582807E-1	1.005562E+0	1.018079E+0	9.682703E-1	9.499262E-1	1.002009E+0	9.818226E-1	1.035851E+0	9.703461E-1	9.729706E-1	9.754777E-1	1.024835E+0	9.293635E-1	9.894824E-1	1.021228E+0	1.004513E+0	9.857442E-1	1.023253E+0	1.033875E+0	1.010793E+0	9.824933E-1	1.013841E+0	1.004501E+0	1.016968E+0	9.761811E-1	1.006160E+0	9.843467E-1	1.018170E+0	9.462425E-1	1.011395E+0	9.951504E-1	1.006077E+0	9.776202E-1	1.007741E+0	9.941261E-1	1.004121E+0	9.421821E-1	9.771017E-1	9.721480E-1	1.031525E+0	9.874970E-1	9.445249E-1	1.000234E+0	9.756333E-1	9.674218E-1	1.020754E+0	1.008051E+0	9.760167E-1	9.603858E-1	9.965200E-1	1.023576E+0	1.019910E+0	9.975090E-1	9.535281E-1	9.756077E-1	1.010124E+0	9.587759E-1	9.771387E-1	1.017754E+0	1.011451E+0	9.176335E-1	1.031088E+0	9.487973E-1	1.034454E+0	9.692502E-1	1.006144E+0	1.003680E+0	9.871477E-1	9.541049E-1	9.847179E-1	9.834850E-1	9.976685E-1	9.621475E-1	1.011367E+0	9.624359E-1	1.005306E+0	9.349764E-1	1.006123E+0	9.999501E-1	9.870621E-1	9.415605E-1	9.910700E-1	9.982659E-1	9.955589E-1	9.526507E-1	9.898768E-1	9.864395E-1	1.003885E+0	9.810468E-1	1.009453E+0	9.967529E-1	9.748713E-1	9.537070E-1	1.038789E+0	9.953917E-1	1.011817E+0	9.853532E-1	9.669071E-1	9.773000E-1	9.464815E-1	1.000201E+0	9.738444E-1	9.910525E-1	1.003160E+0	9.994935E-1	9.355472E-1	1.027144E+0	9.987496E-1	9.456731E-1	9.625492E-1	9.961559E-1	9.568437E-1	9.534220E-1	1.009190E+0	9.645783E-1	1.006765E+0	9.745985E-1	1.007286E+0	1.020809E+0	1.001523E+0	9.762063E-1	1.022145E+0	9.837630E-1
5.575700E+2	1.002841E+0	1.070984E+0	1.051407E+0	1.020403E+0	1.003280E+0	1.067245E+0	1.011244E+0	1.017482E+0	9.447781E-1	9.932801E-1	1.014433E+0	1.027911E+0	9.329673E-1	1.039933E+0	9.929241E-1	1.019004E+0	9.513708E-1	1.027812E+0	1.039470E+0	9.898128E-1	1.006620E+0	1.040265E+0	1.079241E+0	1.042982E+0	9.646710E-1	1.056315E+0	9.819074E-1	1.046986E+0	9.424940E-1	1.003186E+0	1.046679E+0	1.016003E+0	9.689059E-1	1.043109E+0	1.020463E+0	1.035847E+0	9.761519E-1	1.017432E+0	9.518665E-1	1.017507E+0	9.905223E-1	1.022810E+0	1.033111E+0	1.037630E+0	9.741643E-1	1.025227E+0	9.566259E-1	1.050425E+0	9.697249E-1	1.010198E+0	1.002659E+0	9.860890E-1	1.023994E+0	1.049217E+0	1.034335E+0	1.028098E+0	9.882841E-1	1.040683E+0	9.991262E-1	1.042378E+0	9.419866E-1	9.839169E-1	1.007148E+0	1.047679E+0	9.460905E-1	1.060653E+0	1.020519E+0	1.052354E+0	1.054316E+0	1.029603E+0	1.039408E+0	1.021209E+0	1.001931E+0	1.009012E+0	1.004114E+0	1.062251E+0	1.014710E+0	1.021896E+0	1.021926E+0	1.047629E+0	1.009591E+0	1.022221E+0	1.034255E+0	1.046419E+0	1.037694E+0	1.001566E+0	1.028989E+0	1.046981E+0	1.019779E+0	1.046048E+0	1.040496E+0	1.034832E+0	9.467604E-1	1.029444E+0	1.036399E+0	1.062905E+0	9.626984E-1	1.030196E+0	1.025933E+0	1.043045E+0	9.888676E-1	1.032120E+0	9.889668E-1	1.049220E+0	9.956692E-1	1.035414E+0	1.035454E+0	1.041811E+0	9.786268E-1	1.034777E+0	1.031049E+0	1.049435E+0	9.821973E-1	9.860264E-1	1.013016E+0	1.033365E+0	1.003311E+0	1.023812E+0	1.045542E+0	1.033457E+0	1.004672E+0	1.055086E+0	1.071011E+0	1.014151E+0	9.907252E-1	1.009851E+0	1.028227E+0	9.886525E-1	9.933729E-1	1.037531E+0	1.051336E+0	1.031789E+0	9.958343E-1	1.064444E+0	1.010621E+0	1.047595E+0	1.011733E+0	1.040001E+0	1.055935E+0	1.045688E+0	9.997416E-1	9.873401E-1	9.751968E-1	1.015560E+0	9.955716E-1	9.958067E-1	1.011660E+0	1.045479E+0	1.013791E+0	1.061423E+0	1.089573E+0	1.014021E+0	9.888018E-1	9.039061E-1	1.011532E+0	1.062468E+0	9.898326E-1	1.011693E+0	1.015121E+0	1.020879E+0	1.018765E+0	1.031126E+0	1.058373E+0	1.007941E+0	1.005576E+0	1.031401E+0	1.031572E+0	9.780910E-1	9.903586E-1	1.063108E+0	1.111943E+0
5.580230E+2	1.054935E+0	1.039075E+0	1.017854E+0	9.941871E-1	1.036626E+0	1.006430E+0	1.059607E+0	1.008022E+0	1.012498E+0	9.969554E-1	1.005834E+0	1.016139E+0	1.028072E+0	1.051918E+0	9.976765E-1	1.034622E+0	9.853361E-1	1.023980E+0	1.033940E+0	1.026196E+0	1.056549E+0	9.990851E-1	1.003869E+0	9.913336E-1	9.751264E-1	1.020014E+0	1.068900E+0	1.000874E+0	9.411003E-1	9.943077E-1	1.002004E+0	1.044549E+0	9.698841E-1	1.058485E+0	1.052803E+0	1.033093E+0	9.924454E-1	1.003211E+0	1.038953E+0	1.040793E+0	9.867738E-1	1.017945E+0	1.047047E+0	1.042589E+0	9.654153E-1	1.032029E+0	1.021307E+0	1.059779E+0	9.754466E-1	1.029318E+0	1.053704E+0	1.014255E+0	1.010432E+0	1.012555E+0	1.007069E+0	1.015325E+0	1.011828E+0	1.009905E+0	1.023802E+0	1.034704E+0	9.253242E-1	1.025655E+0	9.719490E-1	1.012361E+0	9.491020E-1	1.002114E+0	1.013842E+0	1.003970E+0	1.021896E+0	1.016303E+0	1.017656E+0	9.858607E-1	9.981762E-1	1.001597E+0	1.043647E+0	1.042361E+0	9.911741E-1	1.009819E+0	1.019905E+0	1.019061E+0	9.902880E-1	1.002172E+0	1.016226E+0	1.005206E+0	1.021350E+0	1.007436E+0	1.057409E+0	1.000178E+0	9.598270E-1	1.002020E+0	9.844781E-1	1.059146E+0	9.491618E-1	1.000307E+0	1.053407E+0	1.035467E+0	9.592289E-1	1.009429E+0	1.048330E+0	9.985996E-1	9.990343E-1	1.078496E+0	1.066646E+0	1.002606E+0	1.015987E+0	1.020845E+0	1.074072E+0	9.970706E-1	9.622251E-1	1.044788E+0	1.033772E+0	1.012520E+0	1.026974E+0	1.062147E+0	1.046518E+0	1.061223E+0	1.048261E+0	1.040566E+0	9.954963E-1	9.965838E-1	9.988978E-1	1.026797E+0	1.000515E+0	1.061321E+0	1.004916E+0	9.960065E-1	1.029221E+0	1.025770E+0	9.578269E-1	1.014602E+0	9.788241E-1	1.024777E+0	1.007011E+0	1.028395E+0	1.016785E+0	1.024284E+0	1.015343E+0	1.054988E+0	9.815642E-1	1.043404E+0	9.769829E-1	1.024336E+0	1.028531E+0	1.018768E+0	1.008629E+0	1.016207E+0	1.026305E+0	1.031679E+0	1.012280E+0	1.016752E+0	1.025736E+0	1.070800E+0	1.023128E+0	9.613282E-1	1.007504E+0	1.002918E+0	9.934276E-1	1.008868E+0	1.013584E+0	1.061775E+0	9.467210E-1	1.017490E+0	1.043176E+0	1.060294E+0	1.007958E+0	1.029304E+0	1.033110E+0	1.039015E+0	1.035469E+0	9.901435E-1	1.094850E+0
5.585160E+2	9.917916E-1	1.007165E+0	9.938883E-1	1.035790E+0	1.002723E+0	1.015402E+0	9.986812E-1	9.818869E-1	1.045532E+0	1.043154E+0	1.036545E+0	1.026930E+0	1.065287E+0	9.780922E-1	9.971486E-1	1.023338E+0	1.057039E+0	1.019053E+0	1.015336E+0	1.004366E+0	1.018401E+0	1.014641E+0	1.012913E+0	1.040795E+0	1.020801E+0	1.002845E+0	9.931153E-1	1.011067E+0	1.065588E+0	9.948298E-1	1.012887E+0	9.835634E-1	1.047619E+0	9.877493E-1	1.038306E+0	1.046309E+0	1.021577E+0	1.016057E+0	1.028539E+0	1.002415E+0	9.996247E-1	9.806497E-1	1.023635E+0	1.033774E+0	1.011735E+0	1.012755E+0	1.042504E+0	1.003644E+0	1.000416E+0	1.032215E+0	9.851112E-1	1.021153E+0	1.053725E+0	1.001507E+0	1.022217E+0	1.010308E+0	1.039296E+0	1.013263E+0	1.061331E+0	9.672705E-1	9.697561E-1	1.033446E+0	1.033141E+0	9.750813E-1	1.003314E+0	9.842270E-1	9.998786E-1	1.001489E+0	9.705226E-1	1.027632E+0	1.025244E+0	1.018852E+0	1.017489E+0	1.028405E+0	1.032429E+0	1.000967E+0	9.531960E-1	1.018745E+0	1.013841E+0	1.015426E+0	1.034926E+0	1.018323E+0	9.888916E-1	1.017678E+0	1.013177E+0	1.039241E+0	9.835165E-1	1.017396E+0	9.654632E-1	1.027401E+0	9.856457E-1	9.788048E-1	9.741490E-1	9.946834E-1	1.038099E+0	1.021748E+0	9.389880E-1	1.009429E+0	1.001768E+0	1.011994E+0	9.731094E-1	9.911157E-1	9.929250E-1	1.007117E+0	9.897878E-1	1.000672E+0	1.016681E+0	1.016245E+0	9.673507E-1	9.783966E-1	1.011439E+0	9.846985E-1	9.568419E-1	9.909200E-1	9.685300E-1	9.972776E-1	1.035960E+0	1.031935E+0	1.005505E+0	1.020985E+0	1.007297E+0	9.954226E-1	1.014408E+0	1.025944E+0	9.511945E-1	1.037540E+0	1.004415E+0	1.038498E+0	9.915655E-1	9.723652E-1	1.022437E+0	9.827028E-1	1.009044E+0	9.691358E-1	1.015836E+0	1.017970E+0	1.023165E+0	9.708344E-1	1.023463E+0	1.018846E+0	9.656037E-1	1.042257E+0	9.948738E-1	1.010213E+0	9.796758E-1	1.033773E+0	1.004901E+0	1.011280E+0	1.005234E+0	1.022629E+0	1.005629E+0	1.020934E+0	1.001181E+0	9.150391E-1	1.025128E+0	9.981537E-1	9.354035E-1	9.772354E-1	1.015635E+0	1.016036E+0	9.461624E-1	1.015712E+0	9.734860E-1	9.714706E-1	1.037506E+0	1.002569E+0	1.040797E+0	1.009138E+0	9.850525E-1	1.013184E+0	9.431754E-1
5.590100E+2	9.949486E-1	9.860922E-1	1.002277E+0	1.054596E+0	1.028289E+0	1.007926E+0	9.635073E-1	9.895467E-1	1.029015E+0	9.665052E-1	9.947793E-1	1.013685E+0	1.057475E+0	9.867214E-1	1.017743E+0	1.014664E+0	1.012831E+0	9.763489E-1	1.008799E+0	9.774983E-1	9.976439E-1	9.794089E-1	9.546262E-1	9.852053E-1	1.037311E+0	1.015109E+0	1.014997E+0	9.775749E-1	1.074417E+0	1.018852E+0	1.013460E+0	1.027251E+0	1.055441E+0	1.008765E+0	1.007081E+0	1.007764E+0	1.021083E+0	9.770628E-1	9.750578E-1	9.955158E-1	1.010334E+0	1.001189E+0	1.007470E+0	9.682095E-1	1.026145E+0	1.008220E+0	9.240132E-1	9.701591E-1	1.088329E+0	9.957124E-1	1.023928E+0	1.032075E+0	9.947835E-1	9.573111E-1	1.029790E+0	1.008485E+0	1.008465E+0	1.001511E+0	1.003239E+0	1.006195E+0	1.075787E+0	9.989422E-1	9.914441E-1	1.026587E+0	1.063547E+0	1.002114E+0	9.889507E-1	1.057937E+0	9.745130E-1	9.729578E-1	9.943846E-1	1.013668E+0	1.028218E+0	1.008442E+0	1.008388E+0	9.875284E-1	1.024338E+0	9.651873E-1	1.000202E+0	9.956892E-1	1.004163E+0	9.353421E-1	9.952895E-1	1.018221E+0	9.830429E-1	1.012820E+0	9.535455E-1	9.732410E-1	1.036175E+0	9.673157E-1	1.003734E+0	1.017918E+0	1.002980E+0	1.018709E+0	9.632608E-1	9.755081E-1	9.754219E-1	1.017287E+0	1.004715E+0	9.565901E-1	9.985256E-1	9.925792E-1	1.020631E+0	1.014134E+0	9.352498E-1	1.035413E+0	9.818173E-1	1.015712E+0	9.673507E-1	9.662775E-1	1.006537E+0	9.868385E-1	9.687105E-1	9.854825E-1	1.025648E+0	9.884134E-1	9.701919E-1	9.755789E-1	9.794815E-1	1.022612E+0	9.784224E-1	9.758774E-1	9.933111E-1	9.770043E-1	8.837883E-1	1.006656E+0	9.979659E-1	9.525958E-1	9.716834E-1	9.596936E-1	9.872315E-1	1.008415E+0	1.022252E+0	9.918519E-1	1.014414E+0	9.611459E-1	1.008724E+0	9.835151E-1	9.663764E-1	1.019989E+0	1.000776E+0	9.728881E-1	9.772689E-1	1.009143E+0	9.791086E-1	1.009406E+0	9.778626E-1	1.011880E+0	9.981879E-1	9.861876E-1	9.835130E-1	1.017478E+0	9.803605E-1	9.701168E-1	9.984390E-1	9.588510E-1	9.723744E-1	1.011128E+0	1.003332E+0	1.004735E+0	1.004244E+0	9.925889E-1	9.892056E-1	9.785296E-1	9.779351E-1	9.999474E-1	9.767310E-1	9.827774E-1	9.602850E-1	1.054147E+0	9.389026E-1
5.595390E+2	9.944222E-1	9.758568E-1	1.009467E+0	9.748101E-1	9.738228E-1	9.715370E-1	9.986806E-1	9.981072E-1	1.011397E+0	9.943305E-1	9.474870E-1	1.012214E+0	1.057477E+0	9.895975E-1	1.039393E+0	9.877660E-1	1.054883E+0	9.347399E-1	9.791331E-1	9.993284E-1	9.695937E-1	9.812408E-1	9.722129E-1	1.026787E+0	1.028506E+0	9.792998E-1	1.001121E+0	1.007669E+0	1.054904E+0	1.014674E+0	9.922681E-1	1.017734E+0	1.059352E+0	9.949251E-1	1.014888E+0	9.851878E-1	9.899770E-1	9.770638E-1	1.007714E+0	9.929283E-1	9.910576E-1	9.676781E-1	9.729083E-1	9.621498E-1	1.026145E+0	9.759074E-1	1.006088E+0	1.008076E+0	9.988557E-1	9.789094E-1	9.877704E-1	1.002184E+0	9.947837E-1	9.824221E-1	9.626358E-1	9.838537E-1	1.009586E+0	1.030611E+0	9.960414E-1	9.601433E-1	1.033374E+0	9.755692E-1	1.006065E+0	1.011870E+0	1.057525E+0	9.614619E-1	9.646675E-1	9.890819E-1	9.959602E-1	9.852724E-1	9.346914E-1	1.012726E+0	1.001931E+0	9.719369E-1	1.007320E+0	9.998927E-1	1.000267E+0	9.594110E-1	9.461465E-1	9.546563E-1	9.939073E-1	9.966028E-1	1.019134E+0	9.808032E-1	9.983655E-1	9.947148E-1	9.814494E-1	9.816311E-1	1.032591E+0	9.750851E-1	1.006069E+0	9.782761E-1	1.084664E+0	9.941727E-1	9.882077E-1	9.816056E-1	1.057542E+0	9.852948E-1	9.434182E-1	1.011994E+0	9.985257E-1	1.003320E+0	9.662071E-1	9.850637E-1	1.025611E+0	9.636899E-1	9.496352E-1	9.853528E-1	1.065761E+0	9.857731E-1	9.825690E-1	9.525975E-1	1.031289E+0	1.004513E+0	9.602924E-1	9.377637E-1	1.003312E+0	1.001980E+0	1.005505E+0	9.526609E-1	1.025147E+0	9.825641E-1	1.015437E+0	9.911560E-1	1.008971E+0	1.032748E+0	9.642317E-1	9.928944E-1	9.873481E-1	9.868458E-1	9.919607E-1	1.010752E+0	9.516349E-1	1.016543E+0	9.959226E-1	9.951431E-1	1.020156E+0	1.000231E+0	9.831356E-1	9.640209E-1	9.702580E-1	1.019134E+0	9.948736E-1	9.615554E-1	9.774050E-1	1.027539E+0	1.003774E+0	1.007080E+0	9.604419E-1	9.744312E-1	9.764762E-1	9.310767E-1	9.707943E-1	1.080860E+0	9.853454E-1	9.981537E-1	8.963782E-1	9.868387E-1	9.823153E-1	9.729872E-1	9.701769E-1	9.967391E-1	9.975898E-1	9.967650E-1	9.922322E-1	9.616799E-1	1.003383E+0	1.010310E+0	9.868204E-1	1.040066E+0	9.816271E-1
5.600180E+2	1.007577E+0	1.009573E+0	1.000479E+0	1.003875E+0	1.005502E+0	9.660537E-1	1.002449E+0	1.009372E+0	1.027914E+0	1.017955E+0	9.726686E-1	9.710101E-1	1.027152E+0	9.891188E-1	1.005597E+0	9.604335E-1	9.977361E-1	9.818236E-1	9.841617E-1	9.623851E-1	9.914731E-1	1.042554E+0	9.767355E-1	9.725120E-1	1.036210E+0	9.807706E-1	9.642958E-1	1.003786E+0	1.054440E+0	1.005797E+0	9.796678E-1	9.636667E-1	1.036862E+0	9.887747E-1	9.775297E-1	9.879404E-1	1.024540E+0	1.006422E+0	9.778989E-1	9.894774E-1	1.012476E+0	9.941622E-1	9.957636E-1	9.902481E-1	1.069375E+0	1.004251E+0	1.031090E+0	9.652349E-1	1.036310E+0	9.980304E-1	9.946827E-1	9.763177E-1	9.900894E-1	1.002009E+0	1.058571E+0	9.560290E-1	9.591347E-1	9.824845E-1	9.842173E-1	9.935852E-1	1.050542E+0	1.025655E+0	1.022852E+0	9.853827E-1	1.036440E+0	1.039513E+0	9.804518E-1	9.388376E-1	9.934659E-1	9.567043E-1	1.024232E+0	9.627648E-1	1.008369E+0	9.941818E-1	9.635110E-1	1.008493E+0	1.034501E+0	9.993172E-1	9.703959E-1	9.853008E-1	9.908912E-1	1.016094E+0	9.487625E-1	1.004664E+0	1.030544E+0	9.692733E-1	1.001602E+0	9.957616E-1	9.977450E-1	9.937321E-1	9.967322E-1	9.946618E-1	1.060640E+0	9.450986E-1	9.921757E-1	9.836381E-1	1.052337E+0	9.892239E-1	9.758349E-1	9.693756E-1	1.005134E+0	9.452296E-1	9.894612E-1	9.755405E-1	1.026680E+0	1.023646E+0	9.828899E-1	9.747007E-1	1.084210E+0	1.002634E+0	9.869267E-1	9.970037E-1	1.025895E+0	9.925511E-1	1.010820E+0	9.611891E-1	1.021764E+0	9.507006E-1	1.019017E+0	1.000380E+0	1.059798E+0	9.897647E-1	9.979419E-1	9.964619E-1	1.107292E+0	9.709802E-1	9.944946E-1	1.030012E+0	1.097600E+0	1.055029E+0	1.000894E+0	1.014843E+0	1.021743E+0	9.716048E-1	9.807501E-1	9.703741E-1	1.037003E+0	1.004841E+0	1.001466E+0	9.611650E-1	1.032328E+0	9.526564E-1	1.036816E+0	1.019302E+0	1.004655E+0	1.008840E+0	1.025742E+0	9.632805E-1	9.926517E-1	1.019103E+0	9.985926E-1	9.883482E-1	1.053515E+0	1.157031E+0	9.692311E-1	9.981539E-1	1.084830E+0	1.003785E+0	1.020760E+0	1.000431E+0	1.056183E+0	9.914032E-1	9.981137E-1	1.010294E+0	9.912787E-1	1.018295E+0	9.541787E-1	9.710615E-1	1.016894E+0	9.696624E-1	1.020082E+0
5.605150E+2	1.007051E+0	9.848879E-1	1.023247E+0	9.708213E-1	1.015506E+0	9.595733E-1	9.949125E-1	9.917990E-1	1.043330E+0	1.029504E+0	1.021190E+0	9.940645E-1	1.041395E+0	1.016442E+0	9.681053E-1	1.005118E+0	1.072674E+0	1.003175E+0	9.881841E-1	1.014441E+0	9.875456E-1	9.885605E-1	9.963318E-1	1.009279E+0	1.015298E+0	9.861653E-1	9.957839E-1	9.926220E-1	1.038182E+0	1.015196E+0	9.813859E-1	9.701571E-1	1.040286E+0	9.687834E-1	9.641472E-1	9.906943E-1	1.047252E+0	1.023396E+0	9.883097E-1	9.916353E-1	1.016761E+0	9.833526E-1	9.935342E-1	1.019449E+0	1.053421E+0	9.764737E-1	1.004457E+0	9.553866E-1	1.018622E+0	1.003824E+0	9.665013E-1	9.642469E-1	1.008346E+0	9.949780E-1	9.828326E-1	9.833974E-1	1.047704E+0	1.009345E+0	9.944992E-1	9.787833E-1	1.087904E+0	1.024542E+0	1.004982E+0	9.888161E-1	1.052503E+0	9.571257E-1	9.925936E-1	1.012654E+0	1.017407E+0	1.021229E+0	1.018161E+0	1.019795E+0	9.670614E-1	1.002167E+0	1.007320E+0	9.692506E-1	1.048943E+0	1.007719E+0	1.042133E+0	9.738739E-1	9.830496E-1	1.016652E+0	1.026695E+0	1.003037E+0	9.927475E-1	9.912913E-1	1.007803E+0	9.772168E-1	1.023366E+0	1.000984E+0	9.704746E-1	9.867330E-1	1.054393E+0	1.008997E+0	1.019957E+0	9.963419E-1	1.093398E+0	1.008306E+0	9.711201E-1	1.005906E+0	1.018351E+0	1.028215E+0	9.958934E-1	1.024660E+0	1.036305E+0	1.012439E+0	9.930809E-1	1.039147E+0	1.085237E+0	9.631160E-1	1.008171E+0	1.015195E+0	1.045855E+0	1.012125E+0	1.010819E+0	1.011840E+0	1.022239E+0	1.008580E+0	9.999997E-1	9.917033E-1	1.017272E+0	1.002108E+0	1.030875E+0	9.781841E-1	1.124522E+0	9.805642E-1	9.865558E-1	9.976661E-1	1.075911E+0	1.005551E+0	9.977404E-1	9.838717E-1	1.045622E+0	1.030864E+0	9.963969E-1	1.021855E+0	9.864619E-1	9.950432E-1	1.039699E+0	1.026271E+0	1.059224E+0	1.028961E+0	1.028013E+0	9.936371E-1	1.054613E+0	1.022440E+0	9.772999E-1	1.029879E+0	1.048014E+0	1.009110E+0	9.820049E-1	9.760050E-1	1.036071E+0	1.144727E+0	9.772884E-1	1.008873E+0	1.106907E+0	1.018472E+0	1.008970E+0	9.945113E-1	1.052274E+0	9.759882E-1	1.009117E+0	9.779406E-1	9.927094E-1	9.595829E-1	9.516166E-1	1.004452E+0	1.027508E+0	9.722227E-1	1.002991E+0
5.609950E+2	9.702168E-1	1.000542E+0	9.699225E-1	9.708214E-1	9.793803E-1	9.969592E-1	9.867469E-1	1.021087E+0	1.035622E+0	9.843553E-1	1.035930E+0	9.724811E-1	1.040478E+0	9.656285E-1	1.030416E+0	9.695444E-1	1.060813E+0	1.009745E+0	1.023380E+0	1.071535E+0	1.053744E+0	9.784951E-1	1.029496E+0	9.908958E-1	1.005393E+0	9.881285E-1	9.920480E-1	9.717503E-1	1.049332E+0	9.749858E-1	1.000286E+0	9.974046E-1	1.054951E+0	1.025681E+0	9.719539E-1	9.620608E-1	9.944205E-1	9.885317E-1	1.025699E+0	1.006295E+0	1.003909E+0	1.031998E+0	9.946482E-1	9.792291E-1	1.067831E+0	9.793084E-1	1.026198E+0	9.809926E-1	1.032148E+0	9.858623E-1	1.023396E+0	1.011381E+0	1.000000E+0	1.032644E+0	9.914167E-1	9.943440E-1	9.849208E-1	9.897591E-1	1.016091E+0	1.005646E+0	1.049027E+0	9.750129E-1	1.010939E+0	9.922498E-1	1.011344E+0	1.024879E+0	1.014449E+0	9.605482E-1	1.031372E+0	9.921690E-1	9.731378E-1	9.877459E-1	1.035728E+0	1.005590E+0	9.661822E-1	9.380711E-1	9.852902E-1	9.935416E-1	1.006769E+0	1.001402E+0	1.029498E+0	1.012197E+0	9.917993E-1	9.764649E-1	1.014199E+0	1.060279E+0	1.031573E+0	9.882547E-1	1.047961E+0	1.008236E+0	1.032910E+0	9.777474E-1	1.043822E+0	9.957061E-1	9.660960E-1	1.008536E+0	1.074313E+0	9.948366E-1	1.013556E+0	1.006514E+0	1.062576E+0	9.896513E-1	1.013705E+0	1.000100E+0	1.075337E+0	9.681727E-1	9.925442E-1	9.885486E-1	1.052434E+0	1.004215E+0	9.956422E-1	9.825583E-1	1.029132E+0	9.952698E-1	1.009172E+0	1.061224E+0	9.720845E-1	9.831944E-1	1.000000E+0	1.026408E+0	9.826224E-1	9.758776E-1	9.866211E-1	9.770046E-1	1.083472E+0	1.016241E+0	9.781220E-1	9.966060E-1	1.021689E+0	1.005551E+0	9.982661E-1	9.856250E-1	1.039525E+0	9.953088E-1	1.011093E+0	9.718306E-1	9.581832E-1	9.662241E-1	9.794697E-1	9.651627E-1	1.068017E+0	1.002949E+0	1.005230E+0	9.968458E-1	1.025093E+0	9.912739E-1	9.756096E-1	1.002280E+0	1.017816E+0	9.761952E-1	9.825079E-1	9.710680E-1	1.042261E+0	1.085547E+0	9.979341E-1	9.856487E-1	1.132582E+0	1.095859E+0	9.525843E-1	9.869775E-1	1.090251E+0	1.014526E+0	9.913015E-1	1.042647E+0	1.044655E+0	9.915602E-1	1.006971E+0	9.985943E-1	1.039007E+0	9.286998E-1	9.709468E-1
