Photon Energy (eV)	#1	#2	#3	#4	#5	#6	#7	#8	#9	#10	#11	#12	#13	#14	#15	#16	#17	#18	#19	#20	#21	#22	#23	#24	#25	#26	#27	#28	#29	#30	#31	#32	#33	#34	#35	#36	#37	#38	#39	#40	#41	#42	#43	#44	#45	#46	#47	#48	#49	#50	#51	#52	#53	#54	#55	#56	#57	#58	#59	#60	#61	#62	#63	#64	#65	#66	#67	#68	#69	#70	#71	#72	#73	#74	#75	#76	#77	#78	#79	#80	#81	#82	#83	#84	#85	#86	#87	#88	#89	#90	#91	#92	#93	#94	#95	#96	#97	#98	#99	#100	#101	#102	#103	#104	#105	#106	#107	#108	#109	#110	#111	#112	#113	#114	#115	#116	#117	#118	#119	#120	#121	#122	#123	#124	#125	#126	#127	#128	#129	#130	#131	#132	#133	#134	#135	#136	#137	#138	#139	#140	#141	#142	#143	#144	#145	#146	#147	#148	#149	#150	#151	#152	#153	#154	#155	#156	#157	#158	#159	#160	#161	#162	#163	#164	#165	#166	#167	#168	#169	#170	#171	
5.300220E+2	-5.368365E-3	-9.834975E-3	-1.152276E-2	-1.032374E-2	-8.090703E-3	-1.278804E-3	-6.248548E-3	-8.011572E-3	-8.989387E-3	-2.377828E-3	-4.726140E-4	-1.005366E-2	-6.079340E-3	-6.938888E-3	-8.511908E-3	-7.821197E-3	1.168696E-3	-1.776649E-3	4.887785E-4	-5.817999E-3	-7.009605E-3	-6.909767E-3	-8.441127E-3	-6.824101E-3	-1.112913E-2	-3.996149E-3	-4.761402E-3	-5.639181E-3	-1.536304E-2	-1.097765E-2	-2.606675E-3	-2.039606E-3	-9.664945E-3	-3.325143E-3	-9.446957E-3	-8.728677E-3	-2.346934E-3	-5.937598E-3	-6.001806E-3	-1.080415E-2	-5.330746E-3	-3.793115E-3	-3.357908E-3	-2.132189E-4	-1.020044E-2	-9.275490E-3	-7.392367E-3	-8.286733E-3	-6.378623E-3	4.573961E-4	-7.811126E-4	-4.917687E-3	-1.085403E-2	-1.336674E-2	-1.372113E-2	-4.365764E-3	-1.157272E-2	1.487033E-3	-1.021554E-2	-2.454828E-4	-6.321977E-3	-4.249324E-3	-1.058239E-2	-4.120484E-3	-9.221418E-3	-2.689522E-3	3.964883E-3	-3.622567E-3	-2.910464E-3	-6.901503E-3	-2.694291E-4	-9.378650E-3	-1.020469E-2	-4.205525E-3	-5.993334E-3	-7.647406E-3	2.885292E-3	-4.357060E-3	-6.472081E-3	-3.891966E-3	-9.369863E-3	-9.574261E-3	-8.241322E-4	-2.765137E-3	-3.522880E-3	-8.536722E-4	-1.127344E-2	-7.010253E-3	-6.097661E-3	-1.049179E-2	-3.369547E-3	-5.200475E-3	-6.401126E-3	-1.479306E-3	-1.113421E-2	-5.242763E-3	2.406483E-3	3.253322E-3	-3.279819E-3	-1.591444E-2	-1.697725E-2	-1.086510E-2	-8.583090E-3	-5.909269E-3	-6.036730E-3	-2.115177E-3	-1.593774E-3	-1.037022E-2	8.717701E-4	-4.074828E-3	-4.548206E-3	-1.704311E-3	-4.751058E-3	-4.310238E-3	-5.637446E-3	-9.408360E-3	-1.171389E-2	-1.204932E-2	-1.161841E-3	-2.627527E-3	-2.104640E-3	-1.677632E-3	-1.240901E-2	2.160126E-4	-1.046119E-2	1.903524E-3	1.169889E-3	-9.327602E-3	-9.684343E-3	-7.468026E-3	-1.281450E-3	-1.212901E-3	-3.595270E-3	-4.996398E-3	-7.307122E-3	-1.103602E-2	-5.159313E-3	-6.723456E-3	-6.931873E-3	-1.371692E-2	-1.411945E-2	-1.224098E-2	-3.778465E-3	6.800544E-4	-1.187923E-2	-4.667715E-3	-3.354438E-3	8.141856E-3	-1.660404E-3	-3.477327E-3	-1.043766E-3	-1.053277E-2	-6.809597E-3	-1.163520E-2	-7.844953E-3	-1.581465E-2	-1.035624E-5	2.319905E-3	-7.515920E-3	-5.229034E-3	-2.444915E-4	-9.457384E-3	-5.588829E-3	-8.821181E-3	-4.651379E-3	-1.568574E-3	-6.459364E-3	-7.073970E-3	2.055076E-4	-9.065139E-3	2.200166E-3
5.305180E+2	6.604839E-3	2.886050E-3	-2.768696E-3	-5.637989E-3	-7.979666E-3	-1.144673E-2	-5.062942E-3	3.785884E-3	-1.817253E-3	-7.380821E-3	-3.605455E-3	-2.570371E-3	-6.986873E-3	-8.289094E-3	-1.135636E-2	-7.265922E-3	-1.459754E-3	-4.966058E-3	-7.631658E-3	-2.890198E-3	3.156457E-3	-1.040972E-2	-3.300534E-3	-2.854719E-4	-3.817737E-3	-8.190547E-3	-9.501409E-3	3.568462E-4	-1.234682E-3	-6.076768E-3	6.387057E-5	-3.602584E-3	-4.413376E-3	3.150349E-4	-7.086150E-3	-6.440862E-3	-7.182231E-3	-5.344457E-3	-9.558953E-3	-3.901723E-3	-1.256022E-3	-8.833311E-3	-7.955187E-3	-1.054146E-2	-1.904858E-3	-7.535923E-3	1.217175E-3	-6.822177E-3	-1.034787E-2	-1.009033E-2	-4.971580E-3	-9.775748E-4	-3.666680E-3	8.428194E-4	-4.015398E-3	-7.364205E-3	-3.941394E-3	-8.738962E-4	-8.062396E-4	-5.707243E-3	-1.100116E-2	-6.063164E-3	1.105591E-3	-9.889056E-3	-2.249912E-3	-1.418467E-3	-1.468201E-2	-2.782825E-3	-9.723003E-3	-7.260713E-3	-1.019636E-2	-6.644549E-3	-6.490785E-3	-1.837920E-3	-3.684765E-3	-6.165415E-3	-4.971331E-3	-5.232855E-3	-6.629895E-3	-7.161698E-3	-1.337941E-2	5.319383E-3	-5.388264E-3	-4.178291E-3	-1.384422E-3	-6.940827E-3	-3.383836E-3	-6.307576E-3	-1.614308E-3	-5.438536E-3	-4.617392E-3	-1.068567E-2	-4.839206E-3	-1.291784E-2	9.359802E-4	-4.132691E-3	-1.229294E-2	-3.228213E-3	-7.968999E-3	-3.621841E-3	-2.120295E-3	-1.219885E-2	-1.132781E-2	-3.584000E-3	-6.949950E-3	-8.447724E-3	-1.291272E-2	-9.651404E-3	-3.752708E-3	-1.222014E-2	-9.861300E-4	-4.611328E-5	-3.043226E-3	-9.276482E-3	-1.023334E-2	-9.294753E-3	-5.400983E-4	-4.485439E-3	-7.607507E-3	-9.663841E-4	-6.038067E-3	7.128946E-3	-7.537913E-4	-5.814975E-3	-6.841829E-3	-6.558845E-3	-1.644015E-2	-8.694825E-3	-8.814067E-4	4.077949E-3	-5.865180E-4	-1.303030E-2	1.787093E-3	-2.436167E-3	-7.778643E-3	-1.040070E-2	1.225555E-3	-1.043395E-2	5.566211E-3	-2.647736E-3	1.075288E-2	-1.159204E-2	-1.454443E-2	-7.713724E-3	-6.095824E-3	-5.753997E-3	-1.039454E-2	-8.185200E-3	-7.785193E-3	-4.371440E-3	-7.697507E-3	-8.317094E-3	3.117351E-3	-9.674836E-4	-2.400653E-3	-3.786410E-3	6.616876E-4	-1.309244E-2	-1.007111E-2	-1.539980E-2	-1.691946E-2	-2.301397E-3	-9.998739E-3	-4.050214E-3	-1.182230E-3	-6.097013E-3	-5.703940E-3	-8.228377E-3	-1.162735E-2	1.565004E-3	-2.318559E-3
5.310250E+2	2.149141E-3	-1.742020E-3	1.671935E-3	1.930334E-3	2.632119E-3	-6.951051E-3	-6.598538E-3	-5.861479E-3	-6.245910E-4	-8.309353E-3	5.731961E-3	2.292323E-3	-9.440974E-3	-3.816920E-3	-2.887632E-3	-4.097498E-3	-5.217661E-3	2.333818E-3	-2.821728E-3	-5.264536E-4	-3.612190E-3	3.761945E-3	-1.678875E-3	-3.138781E-3	-6.296139E-3	-2.328618E-3	-1.626855E-3	2.077743E-3	-1.647823E-3	-1.698616E-3	-1.364768E-2	-4.330901E-3	-1.207138E-3	-5.618648E-3	6.830729E-4	-3.692543E-3	-6.577059E-3	-4.771130E-3	1.213277E-3	2.262278E-4	3.302071E-3	6.867293E-3	-4.047775E-3	-5.442262E-3	3.674238E-3	-1.071357E-2	-6.977636E-3	-1.800247E-3	-1.028009E-3	-1.106381E-2	-6.926244E-4	-4.077103E-3	-1.267161E-2	-9.755006E-3	-6.853870E-3	-4.371282E-3	1.709369E-2	-8.953163E-3	-4.023996E-3	-1.002759E-3	3.478373E-3	-1.057560E-3	-9.685661E-3	3.046905E-3	-2.625419E-3	2.699335E-3	1.234393E-3	-2.613585E-3	-1.591566E-4	-5.714993E-3	3.705845E-3	-4.524549E-3	1.792761E-3	-6.078303E-3	3.747648E-3	-4.202098E-3	1.019381E-3	5.290186E-4	-2.881790E-5	-3.049415E-3	4.449343E-3	3.888525E-3	-7.748411E-3	8.341495E-3	1.265134E-3	-7.292350E-3	-5.671011E-3	3.131629E-3	-6.751654E-3	-2.289400E-3	1.186527E-3	-8.115728E-5	-8.739231E-4	2.879519E-3	1.601522E-3	1.767943E-3	-5.035400E-3	-4.200593E-3	-3.966436E-3	-7.251467E-3	7.878441E-5	-1.873197E-3	-4.099582E-3	-2.112917E-3	-6.792259E-3	-1.097946E-2	2.167173E-3	-3.787871E-3	-1.990987E-3	8.578799E-4	4.935796E-4	-3.032863E-4	2.985604E-3	2.225071E-3	7.825516E-3	-3.130197E-3	-2.285612E-3	-4.822943E-3	-6.757936E-3	2.245987E-3	3.314074E-3	-1.249236E-2	7.599006E-4	3.766254E-4	-4.231604E-3	-1.377688E-3	3.380466E-3	-1.955480E-3	2.720880E-3	-3.826262E-3	-6.815522E-3	1.332176E-3	-6.250249E-3	-1.404333E-2	-1.471322E-4	3.354717E-3	-4.968044E-3	-2.693334E-3	-7.857970E-3	6.148074E-3	-4.410883E-3	1.343764E-2	-2.615820E-4	-7.118506E-3	-2.003235E-3	-5.588989E-4	4.283819E-4	-8.085118E-3	-2.848815E-3	-7.332052E-3	-8.040640E-4	1.773124E-3	-1.312197E-2	9.728025E-3	-3.881561E-3	-6.661929E-3	-6.582319E-3	-5.468542E-3	4.532751E-3	-2.516250E-3	4.078814E-3	-4.903750E-3	4.250407E-3	-8.026908E-3	-4.876630E-3	-2.689317E-3	4.736031E-3	4.056394E-3	-9.823935E-3	-1.841517E-3	1.181212E-2
5.315180E+2	-5.533918E-3	1.006027E-3	-5.044643E-3	6.072087E-3	7.500768E-3	1.995918E-3	2.207846E-3	-2.821960E-3	-4.341119E-3	1.066650E-3	-4.490031E-3	4.001364E-3	2.414398E-3	4.090876E-3	-2.780006E-3	7.391282E-3	9.697416E-4	2.453458E-3	-7.449275E-3	-1.277240E-2	-2.970666E-3	2.653096E-4	2.485540E-3	9.532130E-4	-1.012572E-3	-7.695845E-4	-4.823903E-5	-3.182866E-3	4.204290E-3	-2.121002E-3	-4.331890E-3	1.755293E-3	-5.215097E-5	-4.504824E-3	-3.991038E-3	9.702499E-3	-2.460092E-3	-4.652002E-3	-8.779665E-4	3.038355E-3	-3.496794E-3	2.831016E-3	-3.954183E-3	3.582673E-3	1.594089E-3	6.305413E-3	7.722362E-3	1.452447E-3	-3.988171E-3	1.919836E-3	-2.965152E-3	8.612008E-4	1.077429E-2	7.444499E-3	6.072162E-3	5.856267E-3	-3.171382E-3	6.584757E-3	8.767766E-4	-4.348470E-3	-3.352588E-3	-1.427433E-3	-7.182689E-4	1.814653E-3	-4.705713E-5	-9.214795E-3	-4.760362E-3	-1.346572E-3	-1.539767E-3	-1.260680E-3	9.951667E-4	-1.996250E-3	2.944668E-3	-4.874882E-3	-4.269408E-3	4.881857E-3	6.321605E-5	-3.975109E-3	2.584584E-3	4.055295E-3	6.951362E-3	-7.086847E-3	1.343309E-3	-4.881766E-3	-8.124373E-3	-5.742852E-3	3.570981E-3	2.761009E-3	7.915095E-3	1.299816E-3	2.305155E-3	-1.685263E-3	-2.660674E-3	-7.118567E-3	-4.234102E-3	-9.345083E-4	-7.310187E-3	2.574288E-3	9.441602E-4	3.558363E-3	4.828018E-3	9.952019E-3	2.678852E-3	-1.818674E-3	8.024843E-3	-9.784215E-3	-9.907578E-4	4.566249E-3	2.949024E-3	-1.579992E-3	-4.848403E-3	-6.281993E-3	-6.377906E-4	-9.982076E-3	-1.222055E-3	2.674746E-3	3.749449E-3	6.853865E-3	-2.649604E-3	4.805099E-3	2.511330E-3	5.087447E-3	-3.166531E-3	-4.176962E-3	-6.167306E-5	8.305882E-4	-2.486214E-3	2.895327E-3	-5.892493E-3	-3.117976E-3	-2.724351E-3	-3.027271E-3	1.562211E-3	-1.689658E-3	-1.296332E-3	-1.064884E-3	1.464553E-3	4.587802E-3	-1.825196E-3	5.992881E-4	-4.288024E-3	-2.144056E-3	-1.248001E-3	2.019332E-4	-5.318442E-3	-2.631107E-3	-2.473270E-3	-2.645975E-4	-5.623591E-3	1.018503E-2	-1.306999E-3	-6.509861E-3	-1.534455E-3	-7.220639E-4	-2.166217E-3	4.830202E-3	-1.122238E-2	1.027151E-2	3.053084E-3	4.519147E-3	1.003811E-2	-4.349672E-4	-5.276204E-3	4.374036E-3	-9.192514E-4	-3.496822E-3	-9.723579E-4	-6.724702E-3	-5.432722E-3	7.661552E-3	-9.114823E-3
5.320020E+2	-4.511481E-3	6.511128E-5	-4.317672E-3	-1.300304E-3	-2.385539E-3	8.523945E-3	2.868957E-3	1.218918E-3	5.623685E-3	5.840063E-3	-4.926970E-3	3.078642E-3	1.381864E-2	3.243226E-3	1.268667E-2	9.677743E-5	-1.128408E-3	3.554770E-4	8.637465E-3	6.049279E-3	-1.868911E-4	4.054791E-3	8.193847E-3	8.936300E-5	4.816328E-3	2.733670E-3	8.384756E-3	1.603903E-4	3.805594E-3	1.216779E-3	5.549066E-3	4.461832E-3	1.628947E-3	9.285109E-3	1.297434E-2	2.915329E-3	3.177848E-3	5.543531E-4	2.834265E-3	4.972861E-3	-2.390007E-3	-4.878468E-3	6.569361E-3	-8.039906E-3	6.661483E-3	8.072186E-3	-2.584556E-3	4.728316E-3	1.671948E-2	9.583843E-3	3.140058E-3	-1.704740E-3	4.312910E-3	9.060842E-3	5.224249E-3	2.630899E-3	-3.586790E-3	2.096584E-3	5.808915E-3	3.271732E-3	9.605965E-3	2.631710E-3	6.725427E-3	-8.048062E-4	-1.405253E-3	2.946026E-3	2.031639E-3	-7.612527E-5	3.585501E-3	9.041471E-3	2.091293E-3	1.167891E-2	3.084780E-3	1.007679E-2	9.453983E-4	6.203555E-3	-1.976522E-3	2.321720E-3	5.706195E-3	1.202463E-3	-3.816298E-5	9.967382E-4	-2.254597E-3	-5.837711E-3	-3.492476E-3	-3.127142E-4	7.838162E-3	1.887778E-3	-2.149481E-3	8.889638E-3	-6.279322E-5	-1.005763E-3	5.631629E-3	3.654899E-3	8.345084E-3	-1.275616E-3	5.357731E-3	3.810011E-3	5.431608E-3	4.814271E-3	3.941068E-3	8.642189E-3	9.615793E-3	1.080179E-3	-2.347632E-3	1.205048E-2	7.924068E-3	1.148287E-2	-3.362822E-3	1.137147E-3	1.820495E-4	4.060570E-3	2.132822E-3	1.030844E-2	6.497066E-3	4.672022E-3	5.796332E-3	1.047904E-2	-1.000991E-3	-4.404890E-3	-1.987857E-3	-4.446524E-3	9.229825E-3	7.715450E-3	1.121663E-2	-3.935828E-5	7.094944E-3	6.134439E-3	4.154480E-3	-4.145693E-3	-1.803199E-3	1.256785E-3	-1.662712E-3	1.075314E-2	6.748684E-3	-6.484622E-4	-4.708204E-3	-1.719228E-4	5.941015E-3	-7.275801E-3	4.881725E-3	1.001207E-2	7.217018E-3	6.162967E-3	1.313514E-2	4.991901E-3	7.260828E-3	-2.418737E-3	3.747035E-3	-1.951451E-3	1.202440E-2	1.192617E-2	4.133742E-3	3.396153E-3	3.814729E-3	8.796108E-3	1.432059E-2	-1.970012E-3	7.719875E-3	-2.058552E-4	-2.059059E-3	-1.927342E-3	6.890784E-3	8.116054E-3	4.037731E-3	-1.924471E-3	5.593756E-4	4.518415E-3	1.365798E-2	-2.791334E-3	4.876053E-3
5.325170E+2	6.659783E-3	7.619807E-3	2.198183E-2	9.259613E-3	8.323021E-3	9.156721E-3	1.283323E-2	1.169021E-2	1.014866E-2	1.116129E-2	7.763109E-3	3.251698E-3	6.274148E-3	1.171080E-2	1.284924E-2	1.169656E-2	5.667384E-3	1.599954E-3	8.776417E-3	1.595777E-2	1.062289E-2	9.237440E-3	2.741148E-3	9.205777E-3	1.743925E-2	1.255123E-2	7.553149E-3	6.227068E-3	1.023567E-2	1.965725E-2	1.497331E-2	3.755966E-3	1.370866E-2	3.848470E-3	6.866734E-3	6.244255E-3	1.538847E-2	2.015083E-2	1.239118E-2	6.468431E-3	9.171497E-3	7.806584E-3	1.274569E-2	2.065418E-2	1.754907E-4	1.314738E-2	8.015023E-3	1.072839E-2	5.023199E-3	9.193062E-3	6.270411E-3	1.081590E-2	1.210511E-2	5.773587E-3	1.329399E-2	7.614084E-3	5.178595E-3	-3.413143E-4	8.360088E-3	8.032223E-3	7.591390E-3	1.016577E-2	1.315530E-2	9.952788E-3	1.554906E-2	7.677424E-3	1.221146E-2	1.044167E-2	1.074689E-2	1.209642E-2	3.673484E-3	1.086509E-2	8.873271E-3	6.919842E-3	9.254460E-3	6.929507E-3	2.979964E-3	1.071429E-2	4.840015E-3	8.845322E-3	1.138673E-2	6.456463E-3	1.487210E-2	9.321408E-3	1.525902E-2	2.114242E-2	8.919146E-3	5.537413E-3	8.698009E-3	8.030272E-3	4.558051E-3	1.865833E-2	9.143300E-3	1.498130E-2	4.485724E-3	9.817635E-3	1.687431E-2	-2.208815E-3	8.839486E-3	1.841511E-2	1.024967E-2	6.342940E-3	1.171584E-2	1.234468E-2	1.410173E-2	1.927610E-2	5.406010E-3	7.760379E-3	5.285722E-3	1.587993E-2	9.707110E-3	4.275132E-3	3.313649E-3	1.103528E-2	2.770263E-3	1.448654E-2	4.993815E-3	4.024790E-3	1.917788E-2	9.477143E-4	4.305160E-3	6.400124E-3	6.339609E-3	1.683850E-3	1.037966E-2	5.241779E-3	7.281066E-3	1.094814E-2	9.582882E-3	1.448001E-2	1.321104E-2	1.468151E-2	8.158926E-3	1.241241E-2	9.780544E-3	1.979535E-2	1.214545E-2	1.543486E-2	5.107813E-3	1.689310E-2	7.183747E-3	2.527367E-3	1.261546E-2	7.787275E-3	1.216159E-2	8.619817E-3	8.533035E-3	1.081180E-2	1.417097E-2	6.947241E-3	-1.172067E-3	1.166043E-2	1.421493E-2	2.005671E-4	1.247866E-2	1.263668E-2	2.832783E-3	7.939580E-3	2.281319E-3	1.883179E-2	5.106085E-3	1.902484E-2	9.722579E-3	8.408214E-3	7.591758E-3	1.577620E-2	7.840256E-3	1.345224E-2	1.302052E-2	4.471434E-3	-7.454955E-3
5.330280E+2	2.849536E-2	2.689986E-2	2.026203E-2	1.634706E-2	2.490846E-2	3.009511E-2	2.775701E-2	2.469191E-2	2.293729E-2	3.048883E-2	3.144976E-2	2.535621E-2	2.596392E-2	1.528441E-2	1.796167E-2	2.690894E-2	2.528795E-2	1.902763E-2	3.685700E-2	3.154307E-2	3.270457E-3	3.323145E-2	2.732668E-2	2.286827E-2	2.176368E-2	2.870148E-2	2.241856E-2	3.458515E-2	2.826068E-2	2.304882E-2	2.493240E-2	1.509221E-2	2.219355E-2	2.382624E-2	1.861617E-2	3.582753E-2	1.454355E-2	2.079552E-2	2.513014E-2	1.518151E-2	2.576880E-2	7.938692E-3	2.555451E-2	1.185632E-2	1.631168E-2	3.253716E-2	1.917759E-2	3.305260E-2	1.911959E-2	1.582174E-2	2.565089E-2	2.934271E-2	2.964564E-2	2.560599E-2	3.034272E-2	1.600995E-2	8.568188E-3	1.636320E-2	2.153329E-2	2.268354E-2	3.732248E-2	1.179870E-2	2.696810E-2	3.280284E-2	2.862152E-2	8.967799E-3	1.683519E-2	2.332142E-2	2.246959E-2	2.590617E-2	2.204084E-2	1.978113E-2	2.704200E-2	1.865851E-2	1.606916E-2	3.418603E-2	1.821928E-2	2.587807E-2	3.155522E-2	2.909056E-2	2.346337E-2	1.994555E-2	2.568486E-2	1.971223E-2	3.108923E-2	2.133100E-2	1.966568E-2	1.223886E-2	1.667967E-2	1.218003E-2	1.272288E-2	1.881962E-2	1.848140E-2	1.668350E-2	2.617395E-2	1.572330E-2	1.824539E-2	2.196775E-2	2.380103E-2	2.141196E-2	2.691274E-2	1.827838E-2	2.849448E-2	2.312597E-2	2.431400E-2	2.437142E-2	2.896557E-2	1.799187E-2	2.208119E-2	3.125447E-2	1.147845E-2	2.548489E-2	2.120228E-2	2.473741E-2	3.127830E-2	1.106755E-2	3.054594E-2	2.582311E-2	1.843583E-2	1.883421E-2	1.943368E-2	1.339505E-2	2.548001E-2	1.548310E-2	2.172443E-2	1.359029E-2	2.690162E-2	1.471580E-2	2.733319E-2	1.810558E-2	3.198887E-2	1.657639E-2	2.576980E-2	2.145825E-2	2.325654E-2	2.638939E-2	3.426400E-2	3.717577E-2	2.940140E-2	1.469422E-2	2.067070E-2	2.293458E-2	2.219315E-2	2.047551E-2	1.920849E-2	2.317713E-2	2.112783E-2	2.284597E-2	1.382915E-2	2.515735E-2	2.219773E-2	2.196382E-2	2.595848E-2	2.396715E-2	2.053868E-2	2.732492E-2	2.639269E-2	2.330318E-2	1.182084E-2	2.000416E-2	1.520981E-2	2.797312E-2	3.055760E-2	1.327343E-2	1.933671E-2	2.640584E-2	2.007836E-2	3.189694E-2	2.096728E-2	3.663060E-2	1.577361E-2
5.331580E+2	2.543168E-2	2.600405E-2	2.166633E-2	2.463016E-2	2.242739E-2	2.978334E-2	3.726522E-2	2.734460E-2	1.868530E-2	3.899728E-2	2.668729E-2	3.249105E-2	3.697106E-2	3.463784E-2	2.709648E-2	2.224284E-2	1.930763E-2	1.695187E-2	4.002973E-2	7.047817E-3	3.183706E-2	2.932156E-2	2.393668E-2	3.059010E-2	1.932130E-2	2.111635E-2	3.292972E-2	3.263074E-2	2.473922E-2	1.943105E-2	2.458700E-2	4.113581E-2	2.498285E-2	1.941936E-2	2.461349E-2	2.423289E-2	2.633424E-2	1.959251E-2	2.758805E-2	2.396031E-2	1.946691E-2	2.228983E-2	3.510599E-2	1.656818E-2	2.919793E-2	2.886408E-2	2.565373E-2	2.966725E-2	1.877720E-2	3.007967E-2	2.643406E-2	3.497736E-2	1.960086E-2	2.234714E-2	3.104265E-2	1.817565E-2	1.524325E-2	1.654025E-2	3.235408E-2	2.180408E-2	3.051210E-2	2.187557E-2	3.190279E-2	2.380147E-2	2.732680E-2	2.762113E-2	2.765935E-2	2.584974E-2	2.769868E-2	4.419082E-2	2.464658E-2	2.679815E-2	1.848007E-2	2.381066E-2	2.857214E-2	2.294421E-2	2.487784E-2	1.517249E-2	3.276872E-2	2.681533E-2	3.082061E-2	1.906601E-2	2.640242E-2	2.314369E-2	2.117590E-2	3.467841E-2	2.032914E-2	3.211841E-2	1.636722E-2	3.490781E-2	2.545072E-2	3.170183E-2	2.302697E-2	1.993193E-2	2.236045E-2	1.879182E-2	2.384211E-2	3.055813E-2	2.563226E-2	1.258248E-2	2.918251E-2	3.322791E-2	1.548454E-2	2.835548E-2	3.616278E-2	3.058782E-2	2.872221E-2	2.760212E-2	2.825355E-2	3.828665E-2	3.043146E-2	2.724421E-2	2.358165E-2	3.015286E-2	2.822110E-2	3.393415E-2	3.174284E-2	1.648388E-2	3.075633E-2	2.895411E-2	2.323030E-2	2.727159E-2	2.155050E-2	3.807625E-2	3.363803E-2	2.250189E-2	2.710380E-2	2.522214E-2	3.221515E-2	2.697155E-2	2.365465E-2	2.891197E-2	2.985337E-2	1.718362E-2	3.395092E-2	2.765288E-2	3.271328E-2	2.850093E-2	2.405302E-2	2.427701E-2	1.710794E-2	2.970228E-2	2.342625E-2	2.694721E-2	2.513471E-2	2.625830E-2	3.153283E-2	2.779638E-2	2.329337E-2	3.000489E-2	2.980699E-2	2.643811E-2	2.670600E-2	2.640706E-2	3.310106E-2	2.142531E-2	2.658593E-2	1.530809E-2	3.868887E-2	1.918755E-2	3.360093E-2	1.055067E-2	3.235332E-2	2.172674E-2	2.969711E-2	3.423735E-2	2.711276E-2	3.472243E-2	3.764732E-2	2.849981E-2	2.436894E-2
5.333130E+2	5.020904E-2	3.740883E-2	2.685472E-2	3.445212E-2	3.705740E-2	3.446225E-2	4.078718E-2	3.414831E-2	3.954121E-2	2.622622E-2	4.014204E-2	3.390914E-2	4.306723E-2	2.893892E-2	3.531301E-2	2.971851E-2	3.243145E-2	3.283470E-2	3.547498E-2	3.453438E-2	4.280681E-2	2.815738E-2	4.206823E-2	3.534340E-2	3.784415E-2	4.520193E-2	3.561719E-2	3.991895E-2	4.395259E-2	4.345965E-2	4.242629E-2	3.922327E-2	4.505687E-2	3.750713E-2	5.010369E-2	4.756978E-2	3.617800E-2	3.147665E-2	4.634202E-2	2.734802E-2	3.168794E-2	4.200374E-2	3.586483E-2	4.103867E-2	4.549154E-2	4.784853E-2	3.640038E-2	5.171952E-2	3.091407E-2	4.170566E-2	4.235086E-2	2.053558E-2	4.653984E-2	3.393679E-2	4.175601E-2	4.277986E-2	3.883207E-2	3.235710E-2	4.033482E-2	2.961453E-2	4.152533E-2	2.505249E-2	4.637495E-2	3.707447E-2	3.153441E-2	4.406821E-2	4.136502E-2	4.292554E-2	4.613503E-2	3.708015E-2	4.414677E-2	5.102711E-2	4.506613E-2	3.620942E-2	3.805044E-2	3.961379E-2	4.785939E-2	4.136724E-2	1.887221E-2	2.660236E-2	3.043477E-2	3.910986E-2	3.999714E-2	3.258244E-2	3.000834E-2	5.690658E-2	2.793582E-2	5.212575E-2	3.965254E-2	3.814498E-2	3.674583E-2	4.298558E-2	3.683063E-2	3.345937E-2	2.709283E-2	3.440923E-2	4.517146E-2	3.357545E-2	4.292155E-2	3.989786E-2	4.650249E-2	5.517129E-2	4.513535E-2	3.305003E-2	5.232022E-2	4.177781E-2	3.203357E-2	3.538397E-2	5.270767E-2	4.485336E-2	4.450257E-2	3.824496E-2	3.291052E-2	3.133025E-2	4.210836E-2	2.859044E-2	4.321205E-2	3.739993E-2	2.997801E-2	3.967142E-2	3.692141E-2	5.006479E-2	2.949929E-2	4.330711E-2	2.771917E-2	4.231505E-2	4.289311E-2	3.166326E-2	4.423587E-2	5.685695E-2	3.829936E-2	4.772416E-2	4.715509E-2	5.413557E-2	3.516531E-2	3.863115E-2	6.083304E-2	4.930127E-2	3.944328E-2	3.038148E-2	3.875400E-2	4.368429E-2	4.887808E-2	3.735020E-2	5.196420E-2	5.718244E-2	4.597402E-2	3.398294E-2	4.528202E-2	3.903396E-2	3.003453E-2	4.383926E-2	4.030692E-2	2.547647E-2	3.582515E-2	3.317897E-2	3.753701E-2	4.443188E-2	5.416703E-2	4.290794E-2	5.032330E-2	4.051187E-2	4.110850E-2	3.380395E-2	3.527312E-2	4.070338E-2	5.111517E-2	4.414722E-2	5.181324E-2	3.465866E-2	4.570281E-2
5.334630E+2	4.578227E-2	5.474817E-2	5.091893E-2	4.725861E-2	6.092345E-2	4.216118E-2	4.211449E-2	5.747617E-2	6.305119E-2	4.423939E-2	4.431078E-2	4.974065E-2	4.831087E-2	5.539310E-2	5.011613E-2	4.953525E-2	4.234365E-2	4.542047E-2	5.847874E-2	5.424284E-2	4.482935E-2	5.243324E-2	6.031580E-2	5.270178E-2	4.179343E-2	6.802734E-2	5.823377E-2	4.974372E-2	6.593906E-2	4.536188E-2	5.106451E-2	4.737112E-2	4.866937E-2	4.133762E-2	5.626501E-2	4.149342E-2	4.917962E-2	5.232423E-2	3.893487E-2	5.111878E-2	5.630711E-2	6.081261E-2	6.834915E-2	5.283939E-2	6.212577E-2	5.309533E-2	5.728106E-2	5.521575E-2	5.571614E-2	4.957497E-2	5.593533E-2	3.919633E-2	5.042651E-2	5.552217E-2	5.302685E-2	4.989406E-2	5.982570E-2	6.026326E-2	5.224789E-2	4.621261E-2	6.399522E-2	5.317314E-2	5.402528E-2	6.161862E-2	5.528745E-2	5.768432E-2	4.723865E-2	4.784061E-2	6.214181E-2	5.895231E-2	5.457471E-2	6.210449E-2	3.963792E-2	3.978203E-2	5.585298E-2	4.531501E-2	6.335012E-2	4.839320E-2	4.735783E-2	6.482415E-2	4.387145E-2	4.259009E-2	5.527195E-2	5.236490E-2	4.500290E-2	5.964951E-2	4.810633E-2	5.342568E-2	4.878002E-2	6.510215E-2	5.114373E-2	5.314015E-2	5.607644E-2	4.500605E-2	6.720831E-2	6.216619E-2	5.329483E-2	5.521277E-2	5.975153E-2	6.622578E-2	3.689544E-2	6.634529E-2	5.230260E-2	5.353046E-2	4.887151E-2	3.927598E-2	5.854558E-2	6.580175E-2	5.198730E-2	6.569154E-2	4.477475E-2	4.888877E-2	4.780007E-2	5.302183E-2	5.659639E-2	6.761264E-2	5.479246E-2	7.512671E-2	5.052742E-2	5.832647E-2	5.280131E-2	4.640458E-2	5.353577E-2	7.175058E-2	5.770246E-2	5.550269E-2	4.617410E-2	5.267645E-2	5.926700E-2	6.061354E-2	6.534706E-2	6.544395E-2	5.720305E-2	5.142478E-2	5.843008E-2	6.908034E-2	5.119542E-2	5.903790E-2	4.983512E-2	4.775806E-2	4.868025E-2	6.547697E-2	4.439960E-2	4.731653E-2	5.576037E-2	5.920366E-2	5.819617E-2	5.878704E-2	5.972739E-2	4.497112E-2	5.581589E-2	5.862134E-2	5.685684E-2	5.514344E-2	4.850609E-2	5.108655E-2	5.341437E-2	4.138549E-2	6.076314E-2	4.365807E-2	4.652292E-2	6.618846E-2	4.668564E-2	6.736166E-2	5.571913E-2	6.632490E-2	5.880682E-2	6.281949E-2	5.928293E-2	6.233876E-2	6.076980E-2
5.336130E+2	6.696691E-2	6.196936E-2	6.815820E-2	6.931304E-2	6.172992E-2	7.591283E-2	5.671328E-2	5.557992E-2	6.162117E-2	6.281045E-2	5.560678E-2	5.998148E-2	6.787590E-2	7.252048E-2	7.548762E-2	7.306480E-2	7.188222E-2	5.748248E-2	6.112972E-2	6.742413E-2	6.349518E-2	8.005860E-2	6.676253E-2	5.809873E-2	6.171549E-2	8.156712E-2	8.037205E-2	6.141318E-2	7.110608E-2	6.575630E-2	8.161311E-2	6.895253E-2	6.737524E-2	8.526998E-2	6.142783E-2	6.119632E-2	8.013654E-2	6.527725E-2	7.917825E-2	6.480167E-2	6.924430E-2	7.815162E-2	7.375947E-2	6.332794E-2	7.687551E-2	7.226895E-2	6.717181E-2	6.634423E-2	4.985176E-2	6.730002E-2	6.958315E-2	6.193791E-2	6.528789E-2	6.824775E-2	7.190516E-2	6.865310E-2	8.293746E-2	6.276012E-2	7.412392E-2	7.011387E-2	9.005588E-2	5.799546E-2	7.403546E-2	4.518021E-2	6.836242E-2	6.088593E-2	5.770043E-2	5.840103E-2	7.466741E-2	7.993876E-2	6.651201E-2	7.304948E-2	5.407533E-2	5.176513E-2	5.615729E-2	6.009759E-2	8.014744E-2	6.068271E-2	6.636253E-2	6.348398E-2	6.886509E-2	6.925108E-2	6.360760E-2	6.239074E-2	6.008148E-2	6.043100E-2	7.443003E-2	8.325718E-2	6.536744E-2	7.449366E-2	7.420341E-2	6.969952E-2	6.368622E-2	5.865242E-2	5.381920E-2	6.922980E-2	7.115115E-2	6.563564E-2	6.555197E-2	4.720561E-2	6.111366E-2	8.005166E-2	8.566614E-2	6.450662E-2	6.354248E-2	6.872093E-2	7.454278E-2	7.485073E-2	7.228016E-2	6.756928E-2	6.229662E-2	6.525930E-2	6.973590E-2	6.541401E-2	5.683699E-2	8.084986E-2	7.141846E-2	7.339086E-2	6.454201E-2	6.335041E-2	6.091429E-2	6.243203E-2	7.354830E-2	6.204309E-2	7.910276E-2	5.579489E-2	6.765441E-2	7.537061E-2	6.250839E-2	5.678512E-2	8.232818E-2	6.866004E-2	6.288065E-2	6.417533E-2	7.797596E-2	7.263301E-2	8.298714E-2	6.322786E-2	7.352234E-2	7.056683E-2	7.753693E-2	7.574974E-2	7.376750E-2	6.319660E-2	6.360091E-2	8.279591E-2	8.082109E-2	6.933475E-2	7.988107E-2	6.920719E-2	7.480264E-2	7.186625E-2	4.820547E-2	7.645915E-2	4.780045E-2	7.154660E-2	6.502508E-2	6.799347E-2	7.110878E-2	5.700069E-2	6.280920E-2	7.647294E-2	6.141023E-2	6.705375E-2	9.180903E-2	6.280991E-2	7.185320E-2	8.159951E-2	7.627861E-2	5.781942E-2	5.469772E-2
5.337580E+2	8.777349E-2	1.133272E-1	1.163826E-1	9.817526E-2	8.565128E-2	9.977443E-2	1.185124E-1	1.056009E-1	1.033555E-1	1.098194E-1	1.096869E-1	9.407863E-2	1.032323E-1	1.175493E-1	9.894787E-2	1.022188E-1	1.071874E-1	1.091356E-1	9.146138E-2	9.938592E-2	9.903714E-2	9.990869E-2	8.303389E-2	1.123591E-1	8.481328E-2	9.318577E-2	8.315929E-2	9.743258E-2	1.115383E-1	1.026150E-1	9.919343E-2	1.020566E-1	9.933385E-2	9.899064E-2	9.062048E-2	9.785354E-2	1.044760E-1	7.403734E-2	1.091266E-1	9.722030E-2	9.038170E-2	1.103765E-1	1.030873E-1	1.052988E-1	1.131670E-1	8.145496E-2	8.978447E-2	1.002912E-1	9.679802E-2	8.727552E-2	8.933734E-2	1.079313E-1	1.045016E-1	8.301134E-2	8.882162E-2	9.827830E-2	9.558997E-2	9.457285E-2	1.038430E-1	9.887830E-2	1.113671E-1	9.087378E-2	9.352182E-2	8.662570E-2	1.004940E-1	1.084696E-1	1.027558E-1	1.077798E-1	9.544788E-2	1.059760E-1	9.842878E-2	1.064534E-1	9.976789E-2	1.013302E-1	1.038118E-1	1.045963E-1	8.575022E-2	9.875217E-2	1.048261E-1	9.710116E-2	1.043475E-1	9.064016E-2	1.178971E-1	1.058281E-1	9.444492E-2	1.130176E-1	1.186863E-1	1.038450E-1	9.603438E-2	9.424485E-2	1.057767E-1	9.804344E-2	1.006996E-1	1.257553E-1	1.035056E-1	1.008496E-1	8.650458E-2	1.203407E-1	9.481925E-2	7.450419E-2	1.090443E-1	1.102933E-1	9.748048E-2	1.043496E-1	1.150906E-1	9.688025E-2	9.938912E-2	1.176360E-1	9.746922E-2	9.916903E-2	9.053819E-2	8.573912E-2	9.914482E-2	1.053206E-1	1.001102E-1	1.021797E-1	9.897714E-2	1.009175E-1	8.632612E-2	1.134140E-1	1.086057E-1	9.041860E-2	1.113084E-1	9.651108E-2	1.186800E-1	9.035838E-2	9.373312E-2	1.142971E-1	1.002459E-1	9.337402E-2	1.058220E-1	8.238267E-2	1.168091E-1	9.650804E-2	8.698633E-2	8.810152E-2	9.674583E-2	1.027093E-1	1.059288E-1	1.041324E-1	1.054150E-1	9.880925E-2	1.201843E-1	8.938059E-2	9.128380E-2	1.117299E-1	1.057923E-1	9.547615E-2	1.115656E-1	1.081775E-1	8.796110E-2	1.051563E-1	9.494012E-2	1.046620E-1	1.070749E-1	1.012608E-1	1.220083E-1	9.579178E-2	8.358796E-2	9.965474E-2	9.103220E-2	1.040159E-1	1.132721E-1	1.068255E-1	1.132806E-1	1.189486E-1	1.110367E-1	1.282283E-1	1.082420E-1	1.133336E-1	6.986706E-2
5.339140E+2	1.461530E-1	1.703255E-1	1.540743E-1	1.468534E-1	1.630389E-1	1.665158E-1	1.461406E-1	1.510911E-1	1.784371E-1	1.317910E-1	1.445514E-1	1.345820E-1	1.566249E-1	1.508611E-1	1.558693E-1	1.766055E-1	1.539908E-1	1.400769E-1	1.665860E-1	1.516976E-1	1.624891E-1	1.487626E-1	1.542649E-1	1.515290E-1	1.618469E-1	1.522001E-1	1.628665E-1	1.491475E-1	1.596900E-1	1.555241E-1	1.515031E-1	1.873672E-1	1.536800E-1	1.608388E-1	1.563333E-1	1.790030E-1	1.684301E-1	1.503708E-1	1.735098E-1	1.743616E-1	1.657013E-1	1.683619E-1	1.796321E-1	1.544522E-1	1.490706E-1	1.788919E-1	1.498377E-1	1.589688E-1	1.434500E-1	1.600233E-1	1.781609E-1	1.479441E-1	1.485838E-1	1.328994E-1	1.679392E-1	1.650773E-1	1.585678E-1	1.618249E-1	1.464590E-1	1.436958E-1	1.601344E-1	1.786968E-1	1.306850E-1	1.584818E-1	1.706788E-1	1.504123E-1	1.605261E-1	1.444355E-1	1.505669E-1	1.445417E-1	1.631673E-1	1.589797E-1	1.453184E-1	1.662183E-1	1.526736E-1	1.496549E-1	1.532093E-1	1.527582E-1	1.597395E-1	1.553175E-1	1.744149E-1	1.505913E-1	1.497003E-1	1.645110E-1	1.601188E-1	1.603931E-1	1.607880E-1	1.680924E-1	1.534666E-1	1.551274E-1	1.541393E-1	1.445288E-1	1.529553E-1	1.479585E-1	1.691096E-1	1.527306E-1	1.498303E-1	1.451691E-1	1.581450E-1	1.472290E-1	1.504140E-1	1.730900E-1	1.699007E-1	1.394526E-1	1.520753E-1	1.627326E-1	1.680110E-1	1.671583E-1	1.648998E-1	1.628967E-1	1.469731E-1	1.556274E-1	1.514950E-1	1.489713E-1	1.629649E-1	1.600209E-1	1.510786E-1	1.514363E-1	1.682175E-1	1.473294E-1	1.628136E-1	1.598234E-1	1.567632E-1	1.653476E-1	1.842550E-1	1.501881E-1	1.713329E-1	1.643279E-1	1.412905E-1	1.542620E-1	1.587019E-1	1.662512E-1	1.659633E-1	1.592107E-1	1.798206E-1	1.398097E-1	1.914397E-1	1.808582E-1	1.449199E-1	1.711441E-1	1.610949E-1	1.527271E-1	1.548108E-1	1.431232E-1	1.652480E-1	1.564220E-1	1.643953E-1	1.446306E-1	1.623624E-1	1.621016E-1	1.791084E-1	1.581636E-1	1.584732E-1	1.845747E-1	1.492693E-1	1.614812E-1	1.776380E-1	1.607260E-1	1.752587E-1	1.467166E-1	1.636796E-1	1.668278E-1	1.589748E-1	1.586783E-1	1.511938E-1	1.662664E-1	1.536887E-1	1.552165E-1	1.704033E-1	1.438553E-1	1.533936E-1
5.340800E+2	2.519022E-1	2.523991E-1	2.337228E-1	2.598927E-1	2.403207E-1	2.622555E-1	2.418228E-1	2.599778E-1	2.645296E-1	2.626089E-1	2.431405E-1	2.423250E-1	2.565984E-1	2.207807E-1	2.525268E-1	2.637228E-1	2.373168E-1	2.783955E-1	2.704070E-1	2.586521E-1	2.512681E-1	2.599746E-1	2.818394E-1	2.694144E-1	2.557814E-1	2.549794E-1	2.644767E-1	2.540571E-1	2.666837E-1	2.712362E-1	2.250707E-1	2.555983E-1	2.623721E-1	2.597148E-1	2.524293E-1	2.662546E-1	2.424311E-1	2.360680E-1	2.698197E-1	2.539336E-1	2.516136E-1	2.539095E-1	2.638198E-1	2.372751E-1	2.552445E-1	2.594181E-1	2.534471E-1	2.548549E-1	2.614909E-1	2.567552E-1	2.722519E-1	2.860842E-1	2.611811E-1	2.693253E-1	2.459381E-1	2.640191E-1	2.429371E-1	2.526186E-1	2.655359E-1	2.823597E-1	2.487807E-1	2.609096E-1	2.658869E-1	2.609866E-1	2.883746E-1	2.653335E-1	2.362320E-1	2.649648E-1	2.583217E-1	2.409799E-1	2.678222E-1	2.586199E-1	2.558309E-1	2.392590E-1	2.477564E-1	2.760783E-1	2.590159E-1	2.581501E-1	2.419804E-1	2.569455E-1	2.715138E-1	2.564615E-1	2.739107E-1	2.563747E-1	2.565320E-1	2.744412E-1	2.368888E-1	2.598838E-1	2.799389E-1	2.820955E-1	2.835514E-1	2.505134E-1	2.436064E-1	2.524421E-1	2.682423E-1	2.560305E-1	2.459501E-1	2.532313E-1	2.279276E-1	2.687337E-1	2.449949E-1	2.752286E-1	2.511886E-1	2.453354E-1	2.558128E-1	2.530943E-1	2.589147E-1	2.410892E-1	2.676727E-1	2.727404E-1	2.631501E-1	2.560692E-1	2.618128E-1	2.396332E-1	2.615475E-1	2.619493E-1	2.727518E-1	2.339391E-1	2.432886E-1	2.485821E-1	2.897990E-1	2.414691E-1	2.431532E-1	2.809350E-1	2.508822E-1	2.709250E-1	2.507990E-1	2.642302E-1	2.679069E-1	2.631153E-1	2.546267E-1	2.571477E-1	2.418674E-1	2.624821E-1	2.517477E-1	2.512830E-1	2.418775E-1	2.490804E-1	2.594119E-1	2.819041E-1	2.621676E-1	2.369600E-1	2.380415E-1	2.444981E-1	2.609703E-1	2.666811E-1	2.751071E-1	2.869957E-1	2.815725E-1	2.693955E-1	2.815152E-1	2.641476E-1	2.616219E-1	2.609914E-1	2.542212E-1	2.585775E-1	2.600995E-1	2.719218E-1	2.552504E-1	2.567171E-1	2.756862E-1	2.472814E-1	2.616433E-1	2.603549E-1	2.668730E-1	2.583669E-1	2.694240E-1	2.859997E-1	2.757148E-1	2.737267E-1	2.846502E-1
5.342040E+2	4.226925E-1	4.563120E-1	4.643748E-1	4.407560E-1	4.150290E-1	4.647358E-1	4.424976E-1	4.487247E-1	4.411973E-1	4.344133E-1	4.841678E-1	4.351285E-1	4.746487E-1	4.583573E-1	4.511871E-1	4.474814E-1	4.502273E-1	4.361596E-1	4.632103E-1	4.446277E-1	4.139119E-1	4.659956E-1	4.740772E-1	4.499197E-1	4.295421E-1	4.361264E-1	4.192833E-1	4.607707E-1	4.712374E-1	4.419790E-1	4.503608E-1	4.531102E-1	4.629069E-1	4.681014E-1	4.606634E-1	4.377604E-1	4.534378E-1	4.512549E-1	4.227014E-1	4.823059E-1	4.476129E-1	4.545791E-1	4.767696E-1	4.635460E-1	4.724232E-1	4.373762E-1	4.674050E-1	4.711392E-1	4.520124E-1	4.465467E-1	4.605600E-1	4.435175E-1	4.328493E-1	4.738063E-1	4.917556E-1	4.604424E-1	4.663252E-1	4.491418E-1	4.404951E-1	4.445782E-1	4.731840E-1	4.612605E-1	4.419579E-1	4.895038E-1	4.681937E-1	4.654741E-1	4.305266E-1	4.502262E-1	4.658480E-1	4.574958E-1	4.454775E-1	4.341854E-1	4.496807E-1	4.574913E-1	4.265742E-1	4.630942E-1	4.670429E-1	4.533320E-1	4.623567E-1	4.787776E-1	4.262062E-1	4.237819E-1	4.525558E-1	4.532487E-1	4.427402E-1	4.476474E-1	4.600909E-1	4.369530E-1	4.582721E-1	4.540879E-1	4.638104E-1	4.516366E-1	4.458635E-1	4.573999E-1	4.210419E-1	4.392533E-1	4.468422E-1	4.690032E-1	4.872409E-1	4.474369E-1	4.532315E-1	4.510402E-1	4.406634E-1	4.152683E-1	4.541681E-1	4.499005E-1	4.766584E-1	4.568789E-1	4.851543E-1	4.922416E-1	4.448927E-1	4.357995E-1	4.618602E-1	4.399971E-1	4.411129E-1	4.262404E-1	4.631097E-1	4.405907E-1	4.570022E-1	4.933699E-1	4.716642E-1	4.433977E-1	4.488045E-1	4.567312E-1	4.504311E-1	4.543085E-1	4.370256E-1	4.530944E-1	4.546591E-1	4.459118E-1	4.778776E-1	4.435714E-1	4.828171E-1	4.573636E-1	4.667635E-1	4.183095E-1	4.946072E-1	4.500813E-1	4.533979E-1	4.452214E-1	4.476197E-1	4.442462E-1	4.512559E-1	4.280186E-1	4.668275E-1	4.492360E-1	4.728863E-1	4.631937E-1	4.330406E-1	4.469110E-1	4.763493E-1	4.388866E-1	4.452116E-1	4.773804E-1	4.385013E-1	4.634054E-1	4.852030E-1	4.774949E-1	4.600386E-1	4.355783E-1	4.817340E-1	4.537113E-1	4.396487E-1	4.499282E-1	4.387076E-1	4.476708E-1	4.561693E-1	4.878689E-1	4.653806E-1	4.963382E-1	4.959294E-1
5.343600E+2	8.267951E-1	7.831281E-1	7.749229E-1	7.349003E-1	7.555157E-1	8.403179E-1	7.604953E-1	7.782040E-1	8.132418E-1	7.973531E-1	7.643302E-1	7.900743E-1	8.096842E-1	8.099196E-1	8.017776E-1	7.735584E-1	8.138252E-1	8.048563E-1	8.008085E-1	7.726242E-1	7.640452E-1	8.149007E-1	7.736277E-1	7.848231E-1	7.952953E-1	7.959778E-1	8.021531E-1	8.319390E-1	8.026054E-1	8.019740E-1	7.950071E-1	8.177835E-1	8.246397E-1	7.846558E-1	8.056711E-1	8.037954E-1	8.278224E-1	7.280525E-1	7.592423E-1	8.049712E-1	7.984530E-1	7.631745E-1	8.023988E-1	8.106411E-1	7.659381E-1	8.134042E-1	7.860076E-1	7.967759E-1	7.591391E-1	7.980445E-1	8.174858E-1	8.044285E-1	7.896118E-1	7.984499E-1	7.679210E-1	8.130721E-1	8.009823E-1	7.915686E-1	7.824903E-1	7.926810E-1	8.038137E-1	8.398674E-1	7.681835E-1	8.315901E-1	8.168946E-1	7.661449E-1	7.865490E-1	8.277538E-1	8.495413E-1	7.965418E-1	8.077979E-1	8.004201E-1	7.904903E-1	8.400129E-1	7.806375E-1	8.029059E-1	8.456581E-1	7.882790E-1	7.644627E-1	7.979066E-1	8.110970E-1	7.906075E-1	7.885938E-1	7.958618E-1	7.578602E-1	7.891723E-1	7.896945E-1	8.199730E-1	7.747347E-1	8.058125E-1	7.997791E-1	7.932416E-1	7.925508E-1	7.862174E-1	8.246605E-1	8.009850E-1	8.008460E-1	8.042227E-1	7.871307E-1	7.570315E-1	7.908461E-1	7.942915E-1	7.963715E-1	7.779429E-1	8.181452E-1	8.043503E-1	8.179668E-1	8.117047E-1	8.591271E-1	8.339358E-1	7.592088E-1	7.750529E-1	7.782421E-1	8.290224E-1	7.981563E-1	7.821777E-1	7.630448E-1	7.964288E-1	7.868966E-1	7.651092E-1	8.086059E-1	7.783355E-1	8.064598E-1	7.673052E-1	8.484522E-1	7.814079E-1	8.042162E-1	8.223692E-1	7.875743E-1	8.075990E-1	8.268836E-1	7.750898E-1	8.081353E-1	7.508588E-1	8.257927E-1	7.964254E-1	8.163462E-1	8.055251E-1	7.763147E-1	7.640786E-1	7.995921E-1	8.005292E-1	8.128781E-1	7.799970E-1	8.494991E-1	8.110995E-1	7.937271E-1	7.888413E-1	8.083729E-1	7.642055E-1	7.781465E-1	7.567171E-1	8.264412E-1	7.885864E-1	8.327367E-1	7.640058E-1	7.946089E-1	8.023972E-1	8.134242E-1	8.030342E-1	8.082895E-1	8.211211E-1	7.879512E-1	7.688562E-1	8.234139E-1	8.063664E-1	7.994289E-1	8.422363E-1	8.245148E-1	7.940236E-1	8.071431E-1
5.345160E+2	1.163546E+0	1.158588E+0	1.192284E+0	1.137151E+0	1.142482E+0	1.161035E+0	1.164976E+0	1.211802E+0	1.137733E+0	1.153005E+0	1.131752E+0	1.137760E+0	1.117625E+0	1.121818E+0	1.195342E+0	1.170042E+0	1.157385E+0	1.188765E+0	1.187902E+0	1.130902E+0	1.132797E+0	1.155001E+0	1.172813E+0	1.137991E+0	1.143132E+0	1.203294E+0	1.119322E+0	1.138509E+0	1.227851E+0	1.112710E+0	1.185115E+0	1.162814E+0	1.159172E+0	1.143181E+0	1.158686E+0	1.147678E+0	1.154092E+0	1.133979E+0	1.132996E+0	1.215938E+0	1.155000E+0	1.161551E+0	1.143127E+0	1.160309E+0	1.146192E+0	1.189829E+0	1.107192E+0	1.175281E+0	1.124021E+0	1.190992E+0	1.166076E+0	1.119007E+0	1.120065E+0	1.163714E+0	1.175045E+0	1.125415E+0	1.215050E+0	1.138808E+0	1.155996E+0	1.143947E+0	1.150242E+0	1.155702E+0	1.148611E+0	1.145280E+0	1.203479E+0	1.166214E+0	1.147675E+0	1.165657E+0	1.136513E+0	1.152847E+0	1.168934E+0	1.154444E+0	1.167421E+0	1.133638E+0	1.161488E+0	1.162081E+0	1.165798E+0	1.147501E+0	1.153874E+0	1.107599E+0	1.109240E+0	1.156001E+0	1.145398E+0	1.142792E+0	1.181012E+0	1.128849E+0	1.165905E+0	1.155020E+0	1.133967E+0	1.167974E+0	1.126315E+0	1.134358E+0	1.173593E+0	1.176688E+0	1.125593E+0	1.114355E+0	1.197017E+0	1.176416E+0	1.106335E+0	1.155994E+0	1.162726E+0	1.150711E+0	1.154125E+0	1.150404E+0	1.103069E+0	1.177588E+0	1.151305E+0	1.192921E+0	1.157497E+0	1.198394E+0	1.146604E+0	1.161468E+0	1.117862E+0	1.172798E+0	1.154361E+0	1.163094E+0	1.174860E+0	1.137569E+0	1.149958E+0	1.149407E+0	1.162917E+0	1.163797E+0	1.149962E+0	1.173861E+0	1.113767E+0	1.131110E+0	1.123467E+0	1.109408E+0	1.121708E+0	1.131481E+0	1.137343E+0	1.148273E+0	1.149514E+0	1.115400E+0	1.127433E+0	1.139766E+0	1.172379E+0	1.114398E+0	1.129296E+0	1.160818E+0	1.127994E+0	1.131970E+0	1.195584E+0	1.168187E+0	1.136829E+0	1.166290E+0	1.187022E+0	1.151795E+0	1.158546E+0	1.096631E+0	1.186188E+0	1.080844E+0	1.152137E+0	1.149332E+0	1.119585E+0	1.096582E+0	1.158710E+0	1.152345E+0	1.151118E+0	1.182101E+0	1.169396E+0	1.130944E+0	1.152433E+0	1.150222E+0	1.184114E+0	1.111725E+0	1.139533E+0	1.167800E+0	1.193312E+0	1.134421E+0	1.130546E+0
5.346560E+2	1.637623E+0	1.608209E+0	1.652937E+0	1.572585E+0	1.652129E+0	1.596330E+0	1.604562E+0	1.565975E+0	1.538688E+0	1.557807E+0	1.619555E+0	1.571935E+0	1.578123E+0	1.568936E+0	1.565237E+0	1.615055E+0	1.596774E+0	1.603734E+0	1.585771E+0	1.562502E+0	1.590043E+0	1.594613E+0	1.593653E+0	1.572460E+0	1.554867E+0	1.631946E+0	1.592568E+0	1.576652E+0	1.579498E+0	1.534487E+0	1.672609E+0	1.582178E+0	1.620718E+0	1.610515E+0	1.617634E+0	1.591866E+0	1.567716E+0	1.582151E+0	1.592465E+0	1.606205E+0	1.615681E+0	1.567771E+0	1.604052E+0	1.576279E+0	1.639447E+0	1.605784E+0	1.569824E+0	1.586114E+0	1.491583E+0	1.569277E+0	1.670604E+0	1.531401E+0	1.614091E+0	1.621808E+0	1.593754E+0	1.552672E+0	1.604343E+0	1.649050E+0	1.590720E+0	1.547792E+0	1.594969E+0	1.567116E+0	1.560707E+0	1.623063E+0	1.611573E+0	1.609045E+0	1.524699E+0	1.615310E+0	1.637584E+0	1.639038E+0	1.594014E+0	1.585470E+0	1.596510E+0	1.524487E+0	1.606194E+0	1.618651E+0	1.582460E+0	1.551224E+0	1.653991E+0	1.567301E+0	1.602084E+0	1.631054E+0	1.592551E+0	1.547028E+0	1.547292E+0	1.587462E+0	1.565916E+0	1.579591E+0	1.587049E+0	1.574659E+0	1.645091E+0	1.559428E+0	1.543000E+0	1.596906E+0	1.497031E+0	1.609061E+0	1.569309E+0	1.556741E+0	1.518986E+0	1.591848E+0	1.595706E+0	1.588349E+0	1.573068E+0	1.533078E+0	1.565563E+0	1.576845E+0	1.574316E+0	1.571590E+0	1.565059E+0	1.602867E+0	1.536867E+0	1.561784E+0	1.515706E+0	1.594967E+0	1.548958E+0	1.585940E+0	1.552410E+0	1.550059E+0	1.628985E+0	1.483346E+0	1.558575E+0	1.534064E+0	1.591353E+0	1.584354E+0	1.605742E+0	1.539213E+0	1.585419E+0	1.566137E+0	1.583624E+0	1.565823E+0	1.614027E+0	1.544283E+0	1.577870E+0	1.596035E+0	1.594435E+0	1.573943E+0	1.599313E+0	1.495401E+0	1.549970E+0	1.549492E+0	1.546950E+0	1.572898E+0	1.562049E+0	1.531273E+0	1.588258E+0	1.569951E+0	1.536244E+0	1.543705E+0	1.555436E+0	1.524480E+0	1.584423E+0	1.566781E+0	1.548719E+0	1.595008E+0	1.548830E+0	1.511558E+0	1.557778E+0	1.604222E+0	1.560441E+0	1.513304E+0	1.528045E+0	1.611634E+0	1.539582E+0	1.502784E+0	1.614468E+0	1.556014E+0	1.551229E+0	1.601112E+0	1.568169E+0	1.572172E+0	1.567419E+0
5.348230E+2	1.871986E+0	1.888062E+0	1.943662E+0	1.875215E+0	1.932515E+0	1.967744E+0	1.919062E+0	1.938829E+0	1.864719E+0	1.990626E+0	1.929803E+0	1.918086E+0	1.947960E+0	1.844647E+0	1.947568E+0	1.891501E+0	1.972486E+0	1.931766E+0	1.954645E+0	1.962862E+0	1.884293E+0	1.921852E+0	1.944953E+0	1.904831E+0	1.864560E+0	1.949907E+0	1.914759E+0	1.925032E+0	1.920804E+0	1.912244E+0	1.901620E+0	1.952781E+0	1.910076E+0	1.890766E+0	1.915826E+0	1.911342E+0	1.907138E+0	1.880018E+0	1.833597E+0	1.871583E+0	1.947885E+0	1.968199E+0	1.854026E+0	1.845288E+0	1.876734E+0	1.956088E+0	1.920506E+0	1.889391E+0	1.912700E+0	1.879168E+0	1.994771E+0	1.892691E+0	1.895486E+0	1.883248E+0	1.928412E+0	1.909925E+0	1.975786E+0	1.958677E+0	1.875691E+0	1.940868E+0	1.914394E+0	1.914749E+0	1.859591E+0	1.888564E+0	1.909749E+0	1.964672E+0	1.910634E+0	1.932997E+0	1.938302E+0	1.891413E+0	1.834210E+0	1.900036E+0	1.937907E+0	1.945312E+0	1.912234E+0	1.890248E+0	1.834262E+0	1.873410E+0	1.887741E+0	1.932178E+0	1.937542E+0	1.899931E+0	1.856613E+0	1.926581E+0	1.849768E+0	1.922579E+0	1.900098E+0	1.893602E+0	1.926219E+0	1.882160E+0	1.896036E+0	1.876588E+0	1.890571E+0	1.861768E+0	1.854543E+0	1.816532E+0	1.925431E+0	1.834001E+0	1.902448E+0	1.866976E+0	1.864777E+0	1.878294E+0	1.861870E+0	1.890085E+0	1.843360E+0	1.883098E+0	1.923097E+0	1.950118E+0	1.904883E+0	1.965483E+0	1.848481E+0	1.899880E+0	1.936933E+0	1.874238E+0	1.858093E+0	1.903927E+0	1.917912E+0	1.865891E+0	1.847590E+0	1.903511E+0	1.882066E+0	1.850792E+0	1.861265E+0	1.892743E+0	1.833431E+0	1.910302E+0	1.900602E+0	1.906383E+0	1.843909E+0	1.874595E+0	1.895871E+0	1.825153E+0	1.877759E+0	1.772621E+0	1.859665E+0	1.886111E+0	1.841201E+0	1.780420E+0	1.859199E+0	1.859176E+0	1.891410E+0	1.905423E+0	1.843299E+0	1.848024E+0	1.917535E+0	1.863884E+0	1.877781E+0	1.893282E+0	1.925976E+0	1.845015E+0	1.860101E+0	1.836394E+0	1.889867E+0	1.913930E+0	1.818061E+0	1.898970E+0	1.855546E+0	1.858866E+0	1.884271E+0	1.771407E+0	1.871298E+0	1.815386E+0	1.806857E+0	1.824811E+0	1.848176E+0	1.801052E+0	1.924429E+0	1.847658E+0	1.973346E+0	1.817322E+0	1.837479E+0
5.349580E+2	1.955645E+0	1.889671E+0	1.895895E+0	1.872716E+0	1.853850E+0	1.921957E+0	1.852864E+0	1.908576E+0	1.861621E+0	1.927901E+0	1.854650E+0	1.878831E+0	1.884279E+0	1.821126E+0	1.947904E+0	1.898956E+0	1.864552E+0	1.938005E+0	1.883121E+0	1.878105E+0	1.923488E+0	1.934568E+0	1.930840E+0	1.889920E+0	1.924365E+0	1.871473E+0	1.871802E+0	1.947944E+0	1.940558E+0	1.892676E+0	1.856147E+0	1.859347E+0	1.920563E+0	1.871480E+0	1.866732E+0	1.894402E+0	1.898942E+0	1.813208E+0	1.852079E+0	1.856455E+0	1.973657E+0	1.867517E+0	1.881961E+0	1.847097E+0	1.851698E+0	1.894954E+0	1.857817E+0	1.867813E+0	1.880288E+0	1.923488E+0	1.988876E+0	1.945277E+0	1.871263E+0	1.904405E+0	1.871814E+0	1.893480E+0	1.885138E+0	1.869228E+0	1.825768E+0	1.856197E+0	1.840643E+0	1.868447E+0	1.857099E+0	1.883473E+0	1.854835E+0	1.842976E+0	1.826394E+0	1.878423E+0	1.918877E+0	1.857715E+0	1.930057E+0	1.903744E+0	1.867398E+0	1.862228E+0	1.850538E+0	1.847531E+0	1.855688E+0	1.844026E+0	1.868754E+0	1.881487E+0	1.817785E+0	1.888620E+0	1.891417E+0	1.831943E+0	1.871200E+0	1.896163E+0	1.873346E+0	1.852413E+0	1.861855E+0	1.765108E+0	1.866821E+0	1.819217E+0	1.789132E+0	1.845056E+0	1.847645E+0	1.833010E+0	1.929737E+0	1.868321E+0	1.838450E+0	1.874413E+0	1.840393E+0	1.871258E+0	1.856233E+0	1.882715E+0	1.845453E+0	1.846705E+0	1.918792E+0	1.872741E+0	1.951975E+0	1.880597E+0	1.879467E+0	1.816041E+0	1.803792E+0	1.837948E+0	1.797313E+0	1.839479E+0	1.887141E+0	1.843395E+0	1.851288E+0	1.832187E+0	1.853654E+0	1.841924E+0	1.877382E+0	1.834958E+0	1.826578E+0	1.845987E+0	1.830143E+0	1.818666E+0	1.868427E+0	1.842197E+0	1.817653E+0	1.812723E+0	1.818222E+0	1.828190E+0	1.793970E+0	1.785630E+0	1.864896E+0	1.829259E+0	1.837614E+0	1.803812E+0	1.871230E+0	1.839041E+0	1.849053E+0	1.806129E+0	1.808363E+0	1.837502E+0	1.839693E+0	1.852023E+0	1.849904E+0	1.816956E+0	1.887410E+0	1.791944E+0	1.875666E+0	1.876330E+0	1.819441E+0	1.848905E+0	1.848788E+0	1.846825E+0	1.768125E+0	1.860854E+0	1.844476E+0	1.835511E+0	1.805648E+0	1.812617E+0	1.817754E+0	1.787474E+0	1.836022E+0	1.826910E+0	1.823496E+0	1.737043E+0	1.785614E+0
5.351090E+2	2.005351E+0	1.982724E+0	2.019308E+0	1.946489E+0	2.009297E+0	2.015761E+0	1.924341E+0	1.972998E+0	1.974849E+0	2.033588E+0	1.964677E+0	2.010801E+0	2.005850E+0	1.976459E+0	1.975759E+0	1.949627E+0	1.973836E+0	1.981054E+0	1.979069E+0	1.964000E+0	1.981586E+0	1.982365E+0	2.005983E+0	1.950134E+0	1.920143E+0	1.970156E+0	1.988274E+0	1.986862E+0	1.990909E+0	2.040391E+0	2.001188E+0	1.942696E+0	2.018492E+0	2.001698E+0	1.966892E+0	1.943864E+0	1.994832E+0	1.951811E+0	1.980806E+0	1.953683E+0	1.969058E+0	1.987298E+0	2.008255E+0	1.895231E+0	1.992049E+0	1.933817E+0	1.946779E+0	1.958697E+0	1.944925E+0	1.999969E+0	1.998433E+0	1.896321E+0	1.965643E+0	2.009126E+0	2.003994E+0	1.996214E+0	2.051930E+0	1.960665E+0	1.981929E+0	1.976473E+0	1.917932E+0	1.960427E+0	1.965134E+0	1.894549E+0	1.954393E+0	1.952546E+0	1.953611E+0	2.049565E+0	1.967686E+0	1.934006E+0	1.952940E+0	2.011395E+0	1.931275E+0	1.968654E+0	1.986504E+0	1.956583E+0	1.935036E+0	1.925217E+0	1.989881E+0	1.973175E+0	1.906647E+0	1.967081E+0	1.883169E+0	1.924064E+0	1.928543E+0	1.899445E+0	1.971104E+0	1.954519E+0	1.870507E+0	1.886072E+0	1.967146E+0	1.925739E+0	1.913396E+0	1.987706E+0	1.905562E+0	1.898514E+0	1.920112E+0	1.996726E+0	1.991954E+0	2.010297E+0	1.917159E+0	1.905139E+0	1.969492E+0	1.944494E+0	1.919740E+0	1.959288E+0	1.952790E+0	2.016924E+0	1.873363E+0	2.041401E+0	1.912261E+0	1.937485E+0	1.883869E+0	1.916423E+0	1.913831E+0	1.955497E+0	1.905320E+0	1.942799E+0	1.975474E+0	1.912915E+0	1.961192E+0	1.965820E+0	1.974212E+0	1.972332E+0	1.902907E+0	1.917481E+0	1.943014E+0	1.927239E+0	1.934881E+0	1.883826E+0	1.915296E+0	1.931720E+0	1.896242E+0	1.884850E+0	1.902873E+0	1.918840E+0	1.984766E+0	1.901041E+0	1.902672E+0	1.950548E+0	1.913605E+0	1.890584E+0	1.939020E+0	1.883064E+0	1.894180E+0	1.922718E+0	1.852684E+0	1.962208E+0	1.869387E+0	1.912290E+0	2.014817E+0	1.881848E+0	1.961799E+0	1.964457E+0	1.934160E+0	1.906238E+0	1.998885E+0	1.922562E+0	1.883144E+0	1.926434E+0	1.956194E+0	1.900317E+0	1.937121E+0	1.910285E+0	1.904147E+0	1.852871E+0	1.932504E+0	1.914662E+0	1.951311E+0	1.842123E+0	1.753451E+0
5.352550E+2	1.746594E+0	1.816950E+0	1.808055E+0	1.761105E+0	1.802478E+0	1.772222E+0	1.728076E+0	1.787516E+0	1.706382E+0	1.776506E+0	1.738662E+0	1.726286E+0	1.765240E+0	1.744199E+0	1.704882E+0	1.767731E+0	1.720294E+0	1.849655E+0	1.861855E+0	1.756634E+0	1.752850E+0	1.775937E+0	1.837991E+0	1.789637E+0	1.806240E+0	1.730594E+0	1.783569E+0	1.828500E+0	1.768566E+0	1.793614E+0	1.816091E+0	1.718554E+0	1.794272E+0	1.737812E+0	1.756599E+0	1.705017E+0	1.759521E+0	1.699177E+0	1.755993E+0	1.783776E+0	1.749848E+0	1.731889E+0	1.730880E+0	1.677048E+0	1.711268E+0	1.869989E+0	1.692990E+0	1.733095E+0	1.735266E+0	1.762762E+0	1.771134E+0	1.719857E+0	1.711352E+0	1.768391E+0	1.760415E+0	1.752094E+0	1.802317E+0	1.773681E+0	1.734742E+0	1.766458E+0	1.718233E+0	1.767373E+0	1.773396E+0	1.727996E+0	1.816404E+0	1.770474E+0	1.771511E+0	1.788174E+0	1.732372E+0	1.739806E+0	1.755819E+0	1.711985E+0	1.761054E+0	1.744976E+0	1.694255E+0	1.715077E+0	1.708345E+0	1.765664E+0	1.772963E+0	1.738402E+0	1.703093E+0	1.730322E+0	1.776147E+0	1.754931E+0	1.770579E+0	1.758128E+0	1.766739E+0	1.745973E+0	1.778174E+0	1.685135E+0	1.727049E+0	1.728752E+0	1.801041E+0	1.733912E+0	1.703534E+0	1.699747E+0	1.653796E+0	1.722208E+0	1.706321E+0	1.750805E+0	1.684719E+0	1.774566E+0	1.754585E+0	1.753220E+0	1.715538E+0	1.743049E+0	1.702384E+0	1.750702E+0	1.703580E+0	1.767167E+0	1.706820E+0	1.676160E+0	1.714573E+0	1.729401E+0	1.734794E+0	1.792761E+0	1.707812E+0	1.724050E+0	1.712070E+0	1.693730E+0	1.717714E+0	1.669496E+0	1.681862E+0	1.762953E+0	1.644487E+0	1.705778E+0	1.761436E+0	1.754615E+0	1.742196E+0	1.710020E+0	1.790098E+0	1.720423E+0	1.733758E+0	1.708158E+0	1.750665E+0	1.692217E+0	1.713664E+0	1.746766E+0	1.709482E+0	1.742741E+0	1.683350E+0	1.716566E+0	1.676317E+0	1.682736E+0	1.721574E+0	1.699819E+0	1.784325E+0	1.700775E+0	1.798062E+0	1.685573E+0	1.739802E+0	1.714126E+0	1.714286E+0	1.832006E+0	1.710595E+0	1.688505E+0	1.761275E+0	1.754041E+0	1.787347E+0	1.734224E+0	1.690411E+0	1.744420E+0	1.755543E+0	1.741704E+0	1.664079E+0	1.673104E+0	1.739131E+0	1.718690E+0	1.724881E+0	1.630382E+0	1.745270E+0
5.354110E+2	1.422367E+0	1.433841E+0	1.373392E+0	1.407296E+0	1.392249E+0	1.496367E+0	1.397906E+0	1.392067E+0	1.331435E+0	1.395237E+0	1.435987E+0	1.404404E+0	1.422979E+0	1.378571E+0	1.405967E+0	1.449790E+0	1.388414E+0	1.406299E+0	1.440104E+0	1.413999E+0	1.432294E+0	1.442200E+0	1.413295E+0	1.435312E+0	1.394341E+0	1.444361E+0	1.432921E+0	1.414630E+0	1.418695E+0	1.440801E+0	1.361311E+0	1.417975E+0	1.451892E+0	1.442511E+0	1.501366E+0	1.424836E+0	1.443595E+0	1.443711E+0	1.406346E+0	1.368737E+0	1.423355E+0	1.440115E+0	1.386032E+0	1.416315E+0	1.412381E+0	1.432355E+0	1.436839E+0	1.430989E+0	1.440657E+0	1.443348E+0	1.423566E+0	1.364970E+0	1.390878E+0	1.392208E+0	1.450599E+0	1.402262E+0	1.470148E+0	1.436909E+0	1.392091E+0	1.439564E+0	1.362855E+0	1.410446E+0	1.438691E+0	1.406262E+0	1.406772E+0	1.433493E+0	1.408965E+0	1.456845E+0	1.401135E+0	1.403941E+0	1.370476E+0	1.378069E+0	1.362683E+0	1.376994E+0	1.383833E+0	1.404663E+0	1.423820E+0	1.425395E+0	1.382191E+0	1.416650E+0	1.400021E+0	1.423149E+0	1.444877E+0	1.350520E+0	1.406453E+0	1.413306E+0	1.402210E+0	1.404173E+0	1.407658E+0	1.437446E+0	1.390970E+0	1.402850E+0	1.400788E+0	1.455914E+0	1.389194E+0	1.437636E+0	1.358787E+0	1.459387E+0	1.453121E+0	1.450117E+0	1.414900E+0	1.434717E+0	1.412418E+0	1.403202E+0	1.391803E+0	1.420933E+0	1.376541E+0	1.361594E+0	1.405032E+0	1.417884E+0	1.397776E+0	1.434346E+0	1.314430E+0	1.419228E+0	1.445060E+0	1.402585E+0	1.405534E+0	1.396821E+0	1.404952E+0	1.421463E+0	1.397585E+0	1.389350E+0	1.420967E+0	1.429930E+0	1.394792E+0	1.432215E+0	1.436012E+0	1.411145E+0	1.415716E+0	1.425305E+0	1.397882E+0	1.343652E+0	1.443232E+0	1.371545E+0	1.402552E+0	1.439426E+0	1.395564E+0	1.323823E+0	1.375911E+0	1.428207E+0	1.372924E+0	1.454625E+0	1.347326E+0	1.403027E+0	1.393357E+0	1.443561E+0	1.359328E+0	1.402825E+0	1.365566E+0	1.429352E+0	1.448510E+0	1.377684E+0	1.362134E+0	1.429420E+0	1.373481E+0	1.412220E+0	1.353348E+0	1.427151E+0	1.388760E+0	1.362556E+0	1.416566E+0	1.417000E+0	1.386130E+0	1.392347E+0	1.326901E+0	1.389015E+0	1.389225E+0	1.424491E+0	1.435449E+0	1.369944E+0	1.309985E+0
5.355580E+2	1.303254E+0	1.324818E+0	1.316805E+0	1.278883E+0	1.326209E+0	1.317600E+0	1.320112E+0	1.289255E+0	1.244322E+0	1.304284E+0	1.301972E+0	1.315658E+0	1.333825E+0	1.300195E+0	1.269129E+0	1.268548E+0	1.322126E+0	1.329348E+0	1.335191E+0	1.272742E+0	1.296477E+0	1.340706E+0	1.288637E+0	1.278378E+0	1.290846E+0	1.363700E+0	1.269788E+0	1.332663E+0	1.266250E+0	1.315898E+0	1.323735E+0	1.281743E+0	1.309398E+0	1.292531E+0	1.279995E+0	1.282680E+0	1.323941E+0	1.298923E+0	1.287317E+0	1.282541E+0	1.319221E+0	1.343313E+0	1.328875E+0	1.279263E+0	1.266496E+0	1.292665E+0	1.320487E+0	1.286034E+0	1.325320E+0	1.287800E+0	1.358652E+0	1.282039E+0	1.318504E+0	1.285241E+0	1.288142E+0	1.295424E+0	1.322507E+0	1.277065E+0	1.258314E+0	1.229385E+0	1.287619E+0	1.273031E+0	1.265107E+0	1.315874E+0	1.288985E+0	1.283293E+0	1.291430E+0	1.292976E+0	1.296996E+0	1.284809E+0	1.302271E+0	1.341719E+0	1.231502E+0	1.308078E+0	1.326831E+0	1.332349E+0	1.261579E+0	1.295506E+0	1.275021E+0	1.270152E+0	1.293884E+0	1.298870E+0	1.304762E+0	1.285283E+0	1.296001E+0	1.303781E+0	1.287989E+0	1.322063E+0	1.289426E+0	1.249824E+0	1.281628E+0	1.280113E+0	1.263313E+0	1.265176E+0	1.294552E+0	1.265085E+0	1.373007E+0	1.273857E+0	1.276014E+0	1.291002E+0	1.318498E+0	1.302545E+0	1.302542E+0	1.285441E+0	1.313598E+0	1.315405E+0	1.250219E+0	1.281600E+0	1.306175E+0	1.295713E+0	1.268715E+0	1.280873E+0	1.267483E+0	1.286398E+0	1.292802E+0	1.289825E+0	1.299565E+0	1.254909E+0	1.266585E+0	1.219780E+0	1.321556E+0	1.286093E+0	1.301952E+0	1.294961E+0	1.294432E+0	1.296147E+0	1.306947E+0	1.311103E+0	1.269849E+0	1.308379E+0	1.297382E+0	1.265861E+0	1.311172E+0	1.277752E+0	1.312085E+0	1.286689E+0	1.361027E+0	1.288504E+0	1.281265E+0	1.261659E+0	1.215971E+0	1.274721E+0	1.280933E+0	1.255370E+0	1.270440E+0	1.318160E+0	1.275588E+0	1.266648E+0	1.271786E+0	1.312143E+0	1.338708E+0	1.265027E+0	1.303208E+0	1.292961E+0	1.226424E+0	1.289119E+0	1.286993E+0	1.316854E+0	1.299714E+0	1.295168E+0	1.270678E+0	1.272008E+0	1.282944E+0	1.338039E+0	1.264334E+0	1.222151E+0	1.338154E+0	1.339873E+0	1.316514E+0	1.216428E+0	1.276093E+0
5.357190E+2	1.077198E+0	1.097219E+0	1.050913E+0	1.074474E+0	1.122667E+0	1.105006E+0	1.100722E+0	1.115647E+0	1.100149E+0	1.087657E+0	1.068058E+0	1.038207E+0	1.105461E+0	1.094766E+0	1.082444E+0	1.078013E+0	1.094722E+0	1.041221E+0	1.100425E+0	1.072480E+0	1.104287E+0	1.111740E+0	1.086834E+0	1.049933E+0	1.098336E+0	1.082364E+0	1.068018E+0	1.096551E+0	1.084744E+0	1.093413E+0	1.094742E+0	1.137220E+0	1.049728E+0	1.057619E+0	1.092729E+0	1.101788E+0	1.075270E+0	1.080890E+0	1.049897E+0	1.075636E+0	1.110982E+0	1.055772E+0	1.201950E+0	1.056893E+0	1.086797E+0	1.022235E+0	1.067952E+0	1.049800E+0	1.108854E+0	1.100793E+0	1.092075E+0	1.065344E+0	1.057585E+0	1.112561E+0	1.089935E+0	1.043384E+0	1.104152E+0	1.125128E+0	1.063466E+0	1.091276E+0	1.065334E+0	1.057043E+0	1.098336E+0	1.116887E+0	1.130666E+0	1.151188E+0	1.081000E+0	1.080916E+0	1.084797E+0	1.062891E+0	1.107995E+0	1.094658E+0	1.081119E+0	1.056523E+0	1.047369E+0	1.078918E+0	1.044169E+0	1.085725E+0	1.068908E+0	1.067134E+0	1.056984E+0	1.127892E+0	1.105966E+0	1.064596E+0	1.088175E+0	1.112857E+0	1.073373E+0	1.103621E+0	1.066274E+0	1.079418E+0	1.068484E+0	1.083590E+0	1.073280E+0	1.086292E+0	1.025371E+0	1.075396E+0	1.045690E+0	1.105103E+0	1.063668E+0	1.152881E+0	1.050364E+0	1.107491E+0	1.082148E+0	1.086845E+0	1.102096E+0	1.137444E+0	1.033102E+0	1.132923E+0	1.099472E+0	1.168096E+0	1.032449E+0	1.113528E+0	1.069420E+0	1.086298E+0	1.063742E+0	1.074289E+0	1.111674E+0	1.080748E+0	1.090866E+0	1.075289E+0	1.063742E+0	1.078112E+0	1.055451E+0	1.065214E+0	1.062826E+0	1.079502E+0	1.062881E+0	1.091747E+0	1.131368E+0	1.052316E+0	1.113078E+0	1.095383E+0	1.070839E+0	1.064475E+0	1.124117E+0	1.122367E+0	1.116887E+0	1.100259E+0	1.094230E+0	1.092729E+0	1.055631E+0	1.129375E+0	1.113792E+0	1.052777E+0	1.084246E+0	1.116757E+0	1.048019E+0	1.126445E+0	1.050834E+0	1.087381E+0	1.092684E+0	1.072366E+0	1.086949E+0	1.069927E+0	1.039718E+0	1.051583E+0	1.116837E+0	1.084207E+0	1.079279E+0	1.088188E+0	1.071084E+0	1.107751E+0	1.090887E+0	1.061819E+0	1.108822E+0	1.049983E+0	1.118015E+0	1.032719E+0	1.085070E+0	1.020940E+0	1.006706E+0
5.358650E+2	8.656038E-1	8.347593E-1	8.665465E-1	8.325307E-1	8.481259E-1	8.794377E-1	8.443655E-1	8.676529E-1	8.562747E-1	8.839366E-1	8.323198E-1	8.228249E-1	8.584991E-1	8.891649E-1	8.239999E-1	8.331699E-1	8.455701E-1	8.868946E-1	8.627376E-1	8.344162E-1	8.185452E-1	8.907052E-1	8.723497E-1	8.356697E-1	8.273047E-1	8.566488E-1	8.636209E-1	8.732293E-1	8.283631E-1	8.597277E-1	8.374799E-1	8.412876E-1	8.755213E-1	8.519068E-1	8.385909E-1	8.500006E-1	8.482524E-1	8.518165E-1	8.217097E-1	8.891107E-1	8.551118E-1	8.400599E-1	8.560278E-1	8.629328E-1	8.570051E-1	8.875508E-1	8.377764E-1	8.338574E-1	8.075691E-1	8.289829E-1	8.689686E-1	8.859022E-1	8.196840E-1	8.956750E-1	8.674857E-1	8.624138E-1	8.632270E-1	8.777563E-1	8.847174E-1	8.605030E-1	8.694900E-1	8.263299E-1	8.835150E-1	8.550041E-1	8.516612E-1	8.119427E-1	8.791296E-1	8.691673E-1	8.611019E-1	8.566437E-1	8.847634E-1	8.344451E-1	8.454746E-1	8.523323E-1	8.374612E-1	8.298425E-1	8.220094E-1	8.827656E-1	8.600864E-1	8.740499E-1	8.549125E-1	8.805566E-1	8.428388E-1	8.096936E-1	8.673713E-1	8.329308E-1	8.496159E-1	8.583913E-1	8.282014E-1	8.378494E-1	8.572042E-1	8.237178E-1	8.459912E-1	9.146396E-1	8.521454E-1	8.350084E-1	8.074003E-1	8.764831E-1	8.644173E-1	8.424405E-1	8.538155E-1	8.625506E-1	8.769854E-1	8.849056E-1	8.255344E-1	8.861191E-1	8.519728E-1	8.506968E-1	8.484760E-1	8.812523E-1	8.510824E-1	8.669391E-1	8.448051E-1	8.721588E-1	8.799690E-1	8.705895E-1	8.493474E-1	8.818940E-1	8.553779E-1	8.567400E-1	8.972820E-1	8.523131E-1	8.650549E-1	8.917683E-1	8.333443E-1	9.059249E-1	8.567963E-1	8.801322E-1	8.477989E-1	8.614448E-1	8.506153E-1	8.533612E-1	9.069561E-1	8.484105E-1	8.918790E-1	8.479283E-1	9.347503E-1	8.707112E-1	8.296171E-1	8.255583E-1	8.667509E-1	8.917984E-1	8.606451E-1	8.652579E-1	8.759854E-1	8.355622E-1	8.372355E-1	8.518980E-1	8.705202E-1	8.782985E-1	9.174545E-1	8.206381E-1	8.526004E-1	8.601705E-1	8.493614E-1	8.793990E-1	8.429103E-1	8.583763E-1	8.521534E-1	8.447239E-1	8.393876E-1	8.713158E-1	8.436858E-1	8.747645E-1	8.862940E-1	8.462341E-1	8.962343E-1	8.995649E-1	8.774190E-1	8.620526E-1	9.278958E-1
5.360120E+2	7.598336E-1	7.766316E-1	7.629886E-1	7.484734E-1	7.748648E-1	8.179969E-1	7.880031E-1	7.808113E-1	7.641358E-1	7.350650E-1	7.497596E-1	7.245630E-1	7.768430E-1	7.864479E-1	7.596771E-1	7.459263E-1	7.532712E-1	7.759801E-1	7.746127E-1	7.642405E-1	7.618031E-1	7.778653E-1	7.839108E-1	7.699368E-1	7.817913E-1	7.528043E-1	7.578002E-1	7.746194E-1	7.891391E-1	7.750779E-1	7.859726E-1	8.169853E-1	7.736577E-1	8.012929E-1	7.216955E-1	7.793279E-1	7.434755E-1	7.769930E-1	7.528500E-1	7.643264E-1	7.812697E-1	7.857796E-1	7.864048E-1	7.581644E-1	7.402894E-1	7.765095E-1	7.455667E-1	7.607233E-1	7.376779E-1	7.584182E-1	7.444712E-1	7.734540E-1	7.709657E-1	7.950396E-1	7.867805E-1	8.034846E-1	7.773563E-1	7.718444E-1	7.729962E-1	7.388619E-1	7.647181E-1	7.535948E-1	8.063874E-1	7.435478E-1	7.525782E-1	7.963392E-1	7.333036E-1	7.576707E-1	7.735941E-1	8.110884E-1	7.822708E-1	7.931098E-1	7.465104E-1	7.331217E-1	7.658923E-1	8.102286E-1	7.750591E-1	7.848849E-1	7.695471E-1	7.580298E-1	8.075881E-1	7.622286E-1	8.042460E-1	7.467223E-1	7.386852E-1	7.367911E-1	7.584671E-1	7.757011E-1	7.831470E-1	7.399600E-1	7.662097E-1	7.668693E-1	7.729221E-1	7.970276E-1	7.712476E-1	8.193564E-1	7.866944E-1	7.936801E-1	7.543730E-1	7.978736E-1	7.763219E-1	7.640596E-1	8.136437E-1	7.811614E-1	8.006298E-1	8.259749E-1	7.579123E-1	7.966563E-1	7.714047E-1	8.047797E-1	7.972853E-1	7.803910E-1	7.829827E-1	7.569735E-1	7.800047E-1	7.670749E-1	7.602255E-1	7.334141E-1	7.657671E-1	7.600896E-1	7.899800E-1	7.675745E-1	7.923290E-1	7.563281E-1	7.610267E-1	7.565576E-1	7.973431E-1	8.237790E-1	7.657712E-1	7.288983E-1	7.924879E-1	7.366211E-1	7.722867E-1	7.791457E-1	7.626353E-1	7.531474E-1	7.893321E-1	7.810687E-1	7.546985E-1	7.564405E-1	7.581992E-1	7.880461E-1	7.741625E-1	7.782940E-1	7.712657E-1	7.861546E-1	7.776886E-1	7.493110E-1	8.146843E-1	7.659396E-1	8.121448E-1	7.828933E-1	7.877424E-1	7.486216E-1	7.607916E-1	7.764839E-1	7.508422E-1	8.015699E-1	7.756318E-1	7.941524E-1	7.783117E-1	7.606773E-1	7.702779E-1	7.926020E-1	7.889849E-1	7.503512E-1	7.605359E-1	7.969666E-1	8.173382E-1	7.222623E-1	7.445319E-1
5.362680E+2	6.073588E-1	6.012447E-1	5.971450E-1	6.211055E-1	6.006689E-1	6.432609E-1	5.819584E-1	6.048054E-1	5.817590E-1	5.975690E-1	5.956067E-1	6.243561E-1	6.078988E-1	5.945423E-1	6.366769E-1	6.282566E-1	5.783849E-1	5.888819E-1	6.400304E-1	6.133660E-1	6.158305E-1	6.146161E-1	5.852468E-1	6.150147E-1	5.886108E-1	5.932355E-1	5.800939E-1	5.982855E-1	6.038656E-1	6.204677E-1	5.990012E-1	6.241025E-1	6.357892E-1	6.302594E-1	6.130250E-1	6.242524E-1	6.153784E-1	6.003477E-1	6.700586E-1	6.231124E-1	6.143147E-1	6.090459E-1	6.449466E-1	6.321525E-1	6.429197E-1	6.194931E-1	6.104512E-1	6.302266E-1	6.055475E-1	6.550469E-1	6.480666E-1	5.776036E-1	6.027371E-1	6.386753E-1	5.912415E-1	5.925894E-1	6.106256E-1	6.180144E-1	5.798029E-1	6.171719E-1	6.228050E-1	6.300133E-1	6.325810E-1	6.171172E-1	6.195609E-1	6.060371E-1	6.127965E-1	6.087004E-1	6.076504E-1	6.066363E-1	6.026997E-1	6.200324E-1	6.007506E-1	6.634431E-1	5.960463E-1	5.899924E-1	6.205939E-1	5.951333E-1	6.150652E-1	6.229760E-1	5.866200E-1	6.239894E-1	6.188730E-1	5.893800E-1	6.174357E-1	5.993197E-1	6.444647E-1	5.903742E-1	6.307331E-1	6.146004E-1	6.089821E-1	6.009199E-1	5.568319E-1	6.237304E-1	5.866239E-1	6.130972E-1	6.080641E-1	6.192370E-1	5.884225E-1	5.729454E-1	6.176898E-1	6.139313E-1	6.214841E-1	6.090955E-1	6.358679E-1	5.993683E-1	6.344833E-1	6.416168E-1	5.959614E-1	5.969698E-1	6.271624E-1	6.217513E-1	5.917199E-1	5.993041E-1	6.383542E-1	6.450153E-1	6.181894E-1	6.055367E-1	6.287893E-1	6.106065E-1	6.147178E-1	6.028492E-1	6.329783E-1	6.057823E-1	5.979878E-1	6.254838E-1	6.222614E-1	6.227036E-1	6.174416E-1	6.253608E-1	6.035197E-1	6.171157E-1	6.068248E-1	6.382160E-1	5.988619E-1	6.178847E-1	6.141325E-1	6.048199E-1	6.127287E-1	6.006476E-1	6.395644E-1	6.289473E-1	6.161202E-1	5.995424E-1	6.178156E-1	6.079861E-1	6.192979E-1	5.998183E-1	6.138486E-1	5.972740E-1	6.319687E-1	5.848989E-1	6.040091E-1	6.356541E-1	6.100721E-1	6.545563E-1	6.196991E-1	6.518062E-1	6.408758E-1	5.878449E-1	6.357520E-1	6.110894E-1	6.599710E-1	6.062782E-1	6.054445E-1	5.862922E-1	6.412277E-1	6.577574E-1	6.475470E-1	6.320034E-1	6.468599E-1
5.365140E+2	4.892146E-1	4.856425E-1	4.656408E-1	4.914877E-1	5.029862E-1	5.264198E-1	4.780421E-1	4.652973E-1	4.466511E-1	4.714371E-1	4.859752E-1	4.787813E-1	4.974416E-1	4.522822E-1	4.914320E-1	4.677865E-1	4.723400E-1	4.630362E-1	4.991828E-1	4.855752E-1	5.032174E-1	4.727984E-1	4.845205E-1	5.025155E-1	4.521179E-1	4.684978E-1	4.707015E-1	4.877118E-1	4.829184E-1	4.626968E-1	4.940283E-1	5.061208E-1	4.951391E-1	4.945588E-1	4.548118E-1	4.832404E-1	4.873711E-1	4.873017E-1	4.986576E-1	5.112832E-1	4.951752E-1	4.646667E-1	4.848112E-1	4.721541E-1	4.891008E-1	4.928725E-1	4.913963E-1	4.851733E-1	4.760979E-1	4.676295E-1	5.205348E-1	4.912374E-1	4.682429E-1	4.990708E-1	4.872742E-1	4.948961E-1	4.679709E-1	4.586732E-1	4.754183E-1	5.193372E-1	4.616579E-1	4.753880E-1	4.660742E-1	4.905174E-1	4.949126E-1	5.135802E-1	4.530782E-1	4.900038E-1	4.875749E-1	4.964348E-1	5.109776E-1	4.927595E-1	5.035553E-1	4.771485E-1	4.925830E-1	4.517631E-1	5.066410E-1	4.725523E-1	4.853567E-1	5.230977E-1	4.933747E-1	4.650124E-1	4.717657E-1	4.816721E-1	4.512303E-1	5.086930E-1	4.662221E-1	4.984817E-1	4.991850E-1	4.827277E-1	4.752058E-1	4.820958E-1	4.756845E-1	4.983143E-1	4.930991E-1	5.100938E-1	5.123856E-1	4.837680E-1	4.984160E-1	4.979883E-1	4.992507E-1	4.958910E-1	4.986500E-1	4.971317E-1	4.701122E-1	4.811597E-1	4.950738E-1	4.766987E-1	4.571097E-1	4.958472E-1	4.903523E-1	4.750596E-1	4.995190E-1	4.790793E-1	4.832999E-1	5.038603E-1	5.033038E-1	4.762665E-1	5.060599E-1	4.720616E-1	4.620251E-1	4.982681E-1	4.692425E-1	4.758488E-1	5.088825E-1	4.741772E-1	4.819383E-1	5.053696E-1	5.092553E-1	5.084055E-1	4.780705E-1	4.861337E-1	5.118920E-1	5.166219E-1	4.701701E-1	4.973273E-1	5.379975E-1	5.059387E-1	5.010944E-1	4.955860E-1	4.888534E-1	5.069193E-1	4.678893E-1	4.804332E-1	5.044706E-1	4.654311E-1	5.080505E-1	5.132704E-1	4.900645E-1	4.618527E-1	5.076059E-1	5.006965E-1	5.382526E-1	4.869153E-1	5.217674E-1	4.893857E-1	4.988479E-1	5.019719E-1	4.976924E-1	4.797845E-1	4.687828E-1	4.772410E-1	4.847866E-1	5.049283E-1	5.001519E-1	4.883085E-1	4.784901E-1	5.135092E-1	5.074298E-1	4.783645E-1	4.881229E-1
5.367710E+2	4.967389E-1	4.773142E-1	4.931118E-1	5.068041E-1	4.901907E-1	5.314363E-1	5.038174E-1	5.069002E-1	4.837885E-1	4.810146E-1	5.080352E-1	4.940569E-1	5.011587E-1	5.008771E-1	4.788872E-1	5.216764E-1	4.639167E-1	4.795128E-1	4.985751E-1	4.804552E-1	4.879446E-1	4.873053E-1	4.812270E-1	5.032131E-1	4.881493E-1	4.836608E-1	5.053141E-1	4.919948E-1	5.166733E-1	4.909559E-1	4.865149E-1	5.084917E-1	4.774299E-1	4.857763E-1	4.916819E-1	4.883430E-1	4.998029E-1	4.859349E-1	5.393178E-1	5.291063E-1	4.854748E-1	4.843057E-1	4.988171E-1	4.906370E-1	4.565167E-1	5.035736E-1	5.262547E-1	5.050653E-1	5.205539E-1	5.009381E-1	5.212427E-1	4.837093E-1	5.052359E-1	4.922387E-1	5.001537E-1	4.919935E-1	4.825958E-1	5.033383E-1	4.757248E-1	4.537893E-1	4.882025E-1	4.762441E-1	5.120100E-1	4.799643E-1	5.106157E-1	5.527135E-1	4.962634E-1	5.044521E-1	5.143896E-1	4.858017E-1	5.256421E-1	5.111128E-1	5.364941E-1	4.863322E-1	5.192203E-1	5.089741E-1	5.130454E-1	4.788870E-1	5.149248E-1	5.205338E-1	5.009625E-1	4.863190E-1	4.792827E-1	5.216501E-1	5.223736E-1	5.016318E-1	5.237539E-1	4.895278E-1	4.910664E-1	4.560378E-1	5.060302E-1	4.956710E-1	5.215241E-1	4.889110E-1	4.884240E-1	4.864342E-1	5.176477E-1	4.869478E-1	5.177848E-1	4.820528E-1	4.755424E-1	5.210633E-1	5.317539E-1	4.651035E-1	4.843685E-1	5.036504E-1	4.840778E-1	4.952662E-1	5.239053E-1	5.063780E-1	5.012407E-1	4.974527E-1	5.014696E-1	5.278001E-1	5.226298E-1	5.278269E-1	4.699649E-1	5.083489E-1	5.213382E-1	4.779790E-1	5.111905E-1	5.058986E-1	4.941007E-1	4.840721E-1	5.060314E-1	4.957333E-1	4.865794E-1	4.922933E-1	5.285303E-1	4.900624E-1	5.129458E-1	5.119735E-1	5.208839E-1	5.054836E-1	5.136696E-1	5.082271E-1	5.399570E-1	4.906865E-1	5.084830E-1	5.047380E-1	5.026226E-1	5.399938E-1	4.814942E-1	5.078283E-1	4.729070E-1	4.874316E-1	5.140050E-1	5.074005E-1	5.162592E-1	4.987987E-1	5.259251E-1	5.098456E-1	5.210769E-1	5.427700E-1	4.911172E-1	5.070702E-1	5.114824E-1	4.811652E-1	5.017904E-1	4.765179E-1	5.530463E-1	4.995477E-1	5.103280E-1	5.516072E-1	4.991839E-1	5.044645E-1	4.860059E-1	5.447633E-1	5.018027E-1	5.125168E-1	4.916380E-1
5.370170E+2	5.584293E-1	5.419862E-1	5.317360E-1	5.250751E-1	5.481633E-1	5.453618E-1	5.453099E-1	5.454541E-1	5.126963E-1	5.575155E-1	5.347930E-1	5.273179E-1	5.503949E-1	5.044781E-1	5.546152E-1	5.508226E-1	5.096908E-1	5.528745E-1	5.394977E-1	5.744233E-1	5.291020E-1	5.607081E-1	5.717427E-1	5.032097E-1	5.061332E-1	5.605960E-1	5.427284E-1	5.516277E-1	5.408519E-1	5.217416E-1	5.524415E-1	5.366701E-1	5.441490E-1	5.352564E-1	5.720639E-1	5.691078E-1	5.353751E-1	5.331697E-1	5.287854E-1	5.415641E-1	5.456985E-1	5.310345E-1	5.756605E-1	5.768922E-1	5.428090E-1	5.286029E-1	5.455256E-1	5.507422E-1	5.112189E-1	5.225803E-1	5.384116E-1	5.655495E-1	5.434107E-1	5.473713E-1	5.565243E-1	5.503872E-1	5.558602E-1	5.427128E-1	5.578405E-1	5.094583E-1	5.317985E-1	5.426516E-1	5.189167E-1	5.276099E-1	5.581858E-1	5.017158E-1	5.318920E-1	5.321579E-1	5.663019E-1	5.404558E-1	5.516129E-1	5.352301E-1	5.617601E-1	5.360730E-1	5.462817E-1	5.207807E-1	5.360692E-1	5.326685E-1	5.608805E-1	5.675710E-1	5.426132E-1	5.294981E-1	5.288350E-1	5.780696E-1	5.392257E-1	5.744013E-1	5.188497E-1	5.544702E-1	5.689448E-1	5.750184E-1	5.630750E-1	5.537464E-1	5.176050E-1	5.692411E-1	5.467700E-1	5.507230E-1	5.507076E-1	5.561809E-1	5.255636E-1	5.400140E-1	5.510809E-1	5.876240E-1	5.394991E-1	5.230874E-1	5.562530E-1	5.720886E-1	5.709625E-1	6.044093E-1	5.698525E-1	5.586046E-1	5.500845E-1	5.289929E-1	5.499077E-1	5.327143E-1	5.515371E-1	5.470715E-1	5.493498E-1	5.515301E-1	5.620904E-1	5.279641E-1	5.609350E-1	5.436749E-1	5.461030E-1	5.611305E-1	5.267102E-1	5.344517E-1	5.543443E-1	5.420121E-1	5.421593E-1	5.774386E-1	5.816213E-1	5.044484E-1	5.327479E-1	5.514793E-1	5.483850E-1	5.692068E-1	4.985398E-1	5.505684E-1	5.788424E-1	5.534619E-1	5.495889E-1	5.467234E-1	5.635366E-1	5.271425E-1	5.858158E-1	5.554821E-1	5.990177E-1	5.525763E-1	5.660077E-1	5.304368E-1	5.563785E-1	5.476330E-1	5.412732E-1	5.103090E-1	5.609396E-1	5.754268E-1	5.443769E-1	5.760862E-1	5.826531E-1	5.602558E-1	5.672893E-1	5.585658E-1	5.428578E-1	5.691620E-1	5.400178E-1	5.337124E-1	5.573865E-1	5.755849E-1	5.644434E-1	5.756561E-1	4.908116E-1
5.372640E+2	5.832450E-1	5.956306E-1	6.166818E-1	5.693933E-1	6.028979E-1	5.789101E-1	5.752853E-1	6.022514E-1	5.695303E-1	5.548218E-1	5.653066E-1	5.673202E-1	5.958832E-1	5.932317E-1	5.976407E-1	5.883033E-1	5.824457E-1	6.048345E-1	5.761091E-1	6.122173E-1	5.986054E-1	6.337363E-1	5.983058E-1	6.010743E-1	6.044009E-1	6.127102E-1	5.944733E-1	6.075121E-1	5.791371E-1	6.088410E-1	5.925499E-1	5.954372E-1	6.208839E-1	5.760554E-1	6.077668E-1	5.960789E-1	6.069779E-1	5.891103E-1	5.917946E-1	5.831105E-1	6.177576E-1	6.240263E-1	6.156909E-1	6.043937E-1	6.139634E-1	5.876822E-1	6.165348E-1	5.971299E-1	5.990821E-1	6.408667E-1	6.046840E-1	6.045190E-1	6.045445E-1	6.031791E-1	6.109678E-1	5.809733E-1	6.217725E-1	6.036522E-1	6.154150E-1	6.289219E-1	5.866472E-1	5.915097E-1	6.210075E-1	6.002796E-1	5.963944E-1	5.791968E-1	5.787107E-1	5.759645E-1	5.799282E-1	5.899708E-1	5.980075E-1	6.109503E-1	6.181014E-1	5.970331E-1	5.863955E-1	5.996325E-1	5.762024E-1	5.736769E-1	6.106202E-1	5.824025E-1	5.592359E-1	5.982957E-1	5.799990E-1	5.749322E-1	5.904673E-1	5.942528E-1	6.232426E-1	5.895973E-1	6.108563E-1	5.630242E-1	5.986109E-1	6.113114E-1	5.665768E-1	5.998971E-1	5.828861E-1	6.024387E-1	5.902881E-1	6.038189E-1	5.822693E-1	5.638009E-1	6.177274E-1	6.013437E-1	5.934564E-1	5.841501E-1	5.861171E-1	5.981107E-1	6.070543E-1	5.941323E-1	6.073116E-1	5.845821E-1	5.709868E-1	6.201399E-1	5.993922E-1	5.889157E-1	5.945344E-1	6.008872E-1	6.123155E-1	6.021576E-1	5.902982E-1	6.183763E-1	5.993841E-1	5.754513E-1	5.968622E-1	6.008600E-1	6.231254E-1	6.160537E-1	6.115601E-1	6.183682E-1	5.876821E-1	5.890129E-1	6.416674E-1	5.925764E-1	5.923827E-1	6.012959E-1	6.013789E-1	5.865906E-1	5.931860E-1	5.910209E-1	5.754031E-1	6.043138E-1	5.682110E-1	5.969412E-1	6.347655E-1	5.770386E-1	6.098579E-1	6.133256E-1	5.699575E-1	5.812196E-1	5.970760E-1	5.759119E-1	5.956213E-1	5.811671E-1	6.301897E-1	6.234484E-1	5.808008E-1	6.376106E-1	6.048697E-1	6.239051E-1	6.048513E-1	6.299923E-1	5.989326E-1	6.124073E-1	6.341283E-1	6.050543E-1	5.859202E-1	6.213664E-1	5.788703E-1	6.257521E-1	6.044774E-1	5.912766E-1	6.231559E-1
5.375160E+2	7.179246E-1	6.956769E-1	6.254427E-1	6.558024E-1	6.417920E-1	6.732020E-1	6.291016E-1	6.701649E-1	6.489276E-1	6.845334E-1	6.828863E-1	6.546157E-1	6.922896E-1	6.449570E-1	6.726339E-1	6.562761E-1	6.758862E-1	6.551210E-1	6.903097E-1	6.627504E-1	6.579320E-1	7.184835E-1	7.019785E-1	6.746237E-1	6.405262E-1	6.457651E-1	6.894769E-1	6.568775E-1	6.597874E-1	6.427678E-1	6.929202E-1	6.727366E-1	6.934311E-1	6.514928E-1	6.812212E-1	6.926905E-1	6.853974E-1	6.480866E-1	6.528169E-1	6.525400E-1	6.744412E-1	6.526012E-1	6.477960E-1	6.581480E-1	6.596919E-1	6.676589E-1	6.562283E-1	6.505408E-1	6.848103E-1	7.064274E-1	6.816340E-1	6.681132E-1	6.728326E-1	6.846040E-1	6.966281E-1	6.407437E-1	7.156402E-1	6.793591E-1	6.645232E-1	6.538348E-1	6.681071E-1	6.995006E-1	7.028857E-1	6.737355E-1	6.864569E-1	6.693474E-1	6.856745E-1	6.673010E-1	6.932973E-1	6.497765E-1	6.791278E-1	6.591119E-1	6.717050E-1	6.759936E-1	6.647199E-1	6.602865E-1	6.550657E-1	6.690645E-1	6.705131E-1	6.459799E-1	6.449903E-1	6.911801E-1	6.768771E-1	6.634807E-1	6.477966E-1	6.725267E-1	6.798702E-1	6.759192E-1	6.704692E-1	6.377511E-1	6.931997E-1	6.894769E-1	6.523174E-1	6.587064E-1	6.433721E-1	6.872683E-1	6.680292E-1	6.488802E-1	6.903842E-1	6.750173E-1	6.624347E-1	6.693955E-1	6.936826E-1	6.845831E-1	6.670652E-1	6.784838E-1	6.472068E-1	6.846442E-1	6.699323E-1	7.282607E-1	6.633032E-1	7.020348E-1	6.679211E-1	6.621062E-1	6.846851E-1	6.585919E-1	6.968379E-1	6.898356E-1	6.929452E-1	6.589318E-1	6.801474E-1	6.387372E-1	6.969543E-1	6.901767E-1	6.675788E-1	7.107904E-1	7.002875E-1	6.702053E-1	6.935473E-1	7.018119E-1	6.625771E-1	6.396095E-1	6.787312E-1	6.999182E-1	6.319976E-1	7.302107E-1	7.208186E-1	6.355688E-1	6.821980E-1	6.571619E-1	6.728429E-1	6.819435E-1	6.716907E-1	6.679105E-1	6.815218E-1	6.686369E-1	6.975881E-1	7.053452E-1	6.460068E-1	6.723402E-1	6.695024E-1	6.758816E-1	6.676375E-1	6.866665E-1	7.117621E-1	6.669642E-1	6.707506E-1	7.008912E-1	6.734813E-1	6.666741E-1	6.702017E-1	6.882262E-1	6.532319E-1	6.693119E-1	6.602027E-1	7.032205E-1	6.972035E-1	7.219463E-1	7.141060E-1	6.575609E-1	6.087236E-1
5.377630E+2	7.952751E-1	8.370411E-1	8.377010E-1	8.074324E-1	7.928600E-1	8.067481E-1	8.308702E-1	8.213235E-1	7.857757E-1	7.955510E-1	7.892970E-1	8.093815E-1	8.124844E-1	8.105921E-1	8.563252E-1	8.061413E-1	7.987752E-1	8.209455E-1	8.070918E-1	8.291016E-1	7.818216E-1	8.056117E-1	8.129031E-1	8.012607E-1	7.733655E-1	8.013582E-1	8.232399E-1	8.139969E-1	7.938043E-1	8.246632E-1	8.066712E-1	7.917012E-1	7.776282E-1	7.668273E-1	8.064259E-1	8.358755E-1	8.575116E-1	8.206508E-1	7.905445E-1	8.195017E-1	8.132309E-1	8.566325E-1	8.137852E-1	8.052562E-1	8.080771E-1	7.859552E-1	8.093918E-1	8.270884E-1	7.695596E-1	8.073524E-1	8.511561E-1	8.165358E-1	7.968430E-1	8.268344E-1	8.269534E-1	8.112033E-1	8.527602E-1	8.227030E-1	8.100985E-1	7.796450E-1	8.033257E-1	8.324350E-1	8.107092E-1	8.390152E-1	8.283081E-1	8.035299E-1	8.300839E-1	8.358919E-1	8.632659E-1	8.179738E-1	8.207787E-1	8.150619E-1	7.939708E-1	8.336400E-1	7.942893E-1	7.970850E-1	7.911111E-1	8.028848E-1	8.189837E-1	8.300564E-1	8.268625E-1	8.231223E-1	8.086087E-1	8.546579E-1	8.143861E-1	8.096625E-1	8.310560E-1	8.123645E-1	8.044624E-1	7.719061E-1	7.775063E-1	8.442580E-1	7.969743E-1	8.080241E-1	8.211842E-1	8.046735E-1	8.230412E-1	8.294654E-1	8.060906E-1	8.792034E-1	8.379414E-1	8.177721E-1	8.202511E-1	8.156785E-1	8.057197E-1	8.193712E-1	8.307300E-1	8.453474E-1	8.045849E-1	8.066676E-1	8.070707E-1	8.163030E-1	8.289343E-1	7.925338E-1	8.421236E-1	8.014740E-1	8.422497E-1	7.864705E-1	8.304923E-1	8.166146E-1	8.311882E-1	8.006483E-1	7.932512E-1	7.901002E-1	8.036432E-1	8.076141E-1	8.430036E-1	8.267138E-1	7.836746E-1	8.252466E-1	8.738783E-1	8.243803E-1	8.252922E-1	8.042235E-1	8.060728E-1	7.976387E-1	8.295094E-1	8.383686E-1	8.080145E-1	8.384621E-1	7.814637E-1	8.217727E-1	8.477988E-1	8.145991E-1	8.095873E-1	8.298844E-1	8.382773E-1	8.432723E-1	8.355451E-1	7.845451E-1	8.406739E-1	7.788452E-1	8.363176E-1	8.054424E-1	7.948833E-1	8.348337E-1	8.520095E-1	8.119876E-1	8.462712E-1	8.353389E-1	8.457400E-1	7.978209E-1	8.299067E-1	8.251073E-1	8.015263E-1	8.252561E-1	8.507642E-1	8.328541E-1	8.154920E-1	8.330126E-1	9.047417E-1
5.380160E+2	8.963091E-1	9.071815E-1	8.942260E-1	9.170866E-1	8.869762E-1	9.415182E-1	9.409475E-1	9.417446E-1	9.125701E-1	8.740619E-1	9.460686E-1	9.372225E-1	9.175237E-1	9.117784E-1	9.220285E-1	9.290215E-1	9.627384E-1	9.334562E-1	9.629739E-1	9.475489E-1	9.271450E-1	9.788312E-1	9.296170E-1	9.136774E-1	9.020763E-1	9.323858E-1	9.085619E-1	9.386464E-1	9.362263E-1	9.094731E-1	8.887804E-1	9.481461E-1	9.133887E-1	9.101720E-1	9.372689E-1	9.611611E-1	9.091353E-1	9.407836E-1	9.247604E-1	9.231297E-1	9.223521E-1	9.005549E-1	9.030263E-1	8.985375E-1	9.196316E-1	9.378124E-1	9.006022E-1	9.203162E-1	9.103903E-1	9.100369E-1	9.540536E-1	8.673806E-1	9.301725E-1	8.914057E-1	9.363137E-1	9.082239E-1	9.251551E-1	9.224835E-1	9.092797E-1	8.876511E-1	9.238829E-1	9.335893E-1	9.060059E-1	9.397515E-1	9.639025E-1	9.250716E-1	8.954566E-1	9.642387E-1	9.394338E-1	9.222277E-1	9.398615E-1	9.486701E-1	9.233464E-1	8.830895E-1	9.121779E-1	9.184040E-1	8.810014E-1	9.087310E-1	9.339480E-1	9.195191E-1	9.093449E-1	8.789004E-1	8.910867E-1	9.472369E-1	9.464674E-1	9.334117E-1	9.365125E-1	9.083230E-1	9.049707E-1	8.816373E-1	9.044463E-1	9.012361E-1	8.982499E-1	9.274960E-1	9.136603E-1	9.126149E-1	8.908619E-1	8.915506E-1	8.996063E-1	9.404401E-1	9.257524E-1	9.461119E-1	9.350198E-1	9.216592E-1	9.081329E-1	9.002577E-1	9.085740E-1	9.490635E-1	9.104113E-1	9.164358E-1	9.443680E-1	8.972538E-1	9.080883E-1	8.812183E-1	9.570448E-1	9.039771E-1	8.986012E-1	9.146015E-1	9.406667E-1	9.508915E-1	9.220186E-1	9.185485E-1	9.610564E-1	9.421652E-1	8.772503E-1	8.907131E-1	9.427342E-1	9.128349E-1	9.439775E-1	9.790648E-1	9.618862E-1	9.072953E-1	9.211703E-1	9.210535E-1	9.277375E-1	9.407901E-1	9.388879E-1	8.956726E-1	9.263718E-1	9.269017E-1	8.961012E-1	9.025214E-1	9.219305E-1	8.595980E-1	9.082757E-1	9.264340E-1	9.087266E-1	9.086938E-1	9.403020E-1	8.952334E-1	9.658195E-1	9.308342E-1	9.092295E-1	9.159155E-1	9.058564E-1	9.406745E-1	9.288950E-1	8.832494E-1	9.672146E-1	8.849550E-1	9.483167E-1	9.003348E-1	9.536869E-1	9.542314E-1	9.000514E-1	9.195907E-1	9.240352E-1	9.200200E-1	8.874842E-1	8.992639E-1	1.036522E+0
5.382900E+2	1.105078E+0	1.100660E+0	1.144276E+0	1.134277E+0	1.139614E+0	1.177383E+0	1.164011E+0	1.086805E+0	1.165103E+0	1.125717E+0	1.130325E+0	1.099902E+0	1.137021E+0	1.141050E+0	1.127035E+0	1.162757E+0	1.141206E+0	1.142104E+0	1.130237E+0	1.101430E+0	1.102066E+0	1.144804E+0	1.131471E+0	1.160578E+0	1.112340E+0	1.159988E+0	1.131831E+0	1.151686E+0	1.135530E+0	1.123475E+0	1.141162E+0	1.136407E+0	1.146896E+0	1.132303E+0	1.203062E+0	1.129174E+0	1.095449E+0	1.111750E+0	1.124816E+0	1.127149E+0	1.165564E+0	1.119228E+0	1.168228E+0	1.110552E+0	1.114310E+0	1.152991E+0	1.110260E+0	1.165864E+0	1.132057E+0	1.103369E+0	1.168943E+0	1.127927E+0	1.152046E+0	1.127903E+0	1.126119E+0	1.112280E+0	1.150064E+0	1.134708E+0	1.178110E+0	1.112981E+0	1.109893E+0	1.140058E+0	1.214690E+0	1.142449E+0	1.119682E+0	1.118278E+0	1.163762E+0	1.091005E+0	1.170192E+0	1.169905E+0	1.140388E+0	1.150047E+0	1.142632E+0	1.102106E+0	1.115044E+0	1.150989E+0	1.089682E+0	1.125021E+0	1.144109E+0	1.073832E+0	1.094934E+0	1.126997E+0	1.133775E+0	1.130579E+0	1.112971E+0	1.108100E+0	1.142658E+0	1.130627E+0	1.117607E+0	1.107871E+0	1.154094E+0	1.163211E+0	1.158421E+0	1.119978E+0	1.130233E+0	1.101474E+0	1.127233E+0	1.122191E+0	1.161182E+0	1.092361E+0	1.103778E+0	1.096934E+0	1.116609E+0	1.118972E+0	1.096202E+0	1.096823E+0	1.166263E+0	1.181021E+0	1.132244E+0	1.167264E+0	1.120899E+0	1.113238E+0	1.093815E+0	1.138444E+0	1.097388E+0	1.160833E+0	1.138433E+0	1.116246E+0	1.130930E+0	1.101460E+0	1.116503E+0	1.147848E+0	1.145292E+0	1.102236E+0	1.097895E+0	1.124855E+0	1.182433E+0	1.102468E+0	1.114979E+0	1.112793E+0	1.119391E+0	1.124492E+0	1.090255E+0	1.154370E+0	1.134694E+0	1.116533E+0	1.185996E+0	1.094521E+0	1.155457E+0	1.136259E+0	1.118612E+0	1.117671E+0	1.120773E+0	1.121154E+0	1.147979E+0	1.138267E+0	1.100092E+0	1.082017E+0	1.144291E+0	1.103039E+0	1.124367E+0	1.130908E+0	1.151010E+0	1.133808E+0	1.143610E+0	1.095537E+0	1.134001E+0	1.120257E+0	1.170203E+0	1.097982E+0	1.113483E+0	1.155879E+0	1.090935E+0	1.062244E+0	1.122743E+0	1.112122E+0	1.112294E+0	1.131117E+0	1.139252E+0	1.128310E+0	1.123011E+0
5.385110E+2	1.301142E+0	1.356475E+0	1.373516E+0	1.291335E+0	1.282672E+0	1.325763E+0	1.368777E+0	1.288829E+0	1.304264E+0	1.296744E+0	1.269577E+0	1.351963E+0	1.364188E+0	1.323779E+0	1.327844E+0	1.354861E+0	1.333254E+0	1.313182E+0	1.347006E+0	1.294883E+0	1.273138E+0	1.334311E+0	1.289697E+0	1.333519E+0	1.304036E+0	1.328235E+0	1.304248E+0	1.314315E+0	1.364717E+0	1.310032E+0	1.344632E+0	1.340484E+0	1.318059E+0	1.300573E+0	1.298998E+0	1.385173E+0	1.310878E+0	1.300242E+0	1.325836E+0	1.320646E+0	1.332532E+0	1.283445E+0	1.310619E+0	1.295846E+0	1.334083E+0	1.363304E+0	1.295434E+0	1.324612E+0	1.289017E+0	1.301165E+0	1.300420E+0	1.352889E+0	1.324382E+0	1.323079E+0	1.382228E+0	1.331137E+0	1.328615E+0	1.316390E+0	1.261098E+0	1.278285E+0	1.311508E+0	1.305212E+0	1.306082E+0	1.367017E+0	1.321391E+0	1.298345E+0	1.284299E+0	1.342427E+0	1.390517E+0	1.270646E+0	1.330791E+0	1.289364E+0	1.345369E+0	1.380031E+0	1.269343E+0	1.371710E+0	1.301251E+0	1.339803E+0	1.323156E+0	1.353377E+0	1.274255E+0	1.307954E+0	1.279603E+0	1.282488E+0	1.313403E+0	1.362906E+0	1.353346E+0	1.334808E+0	1.333158E+0	1.294364E+0	1.334323E+0	1.338967E+0	1.300714E+0	1.316424E+0	1.306212E+0	1.309822E+0	1.295907E+0	1.265570E+0	1.318196E+0	1.329527E+0	1.319830E+0	1.297474E+0	1.362053E+0	1.324738E+0	1.393933E+0	1.346171E+0	1.310408E+0	1.390716E+0	1.353599E+0	1.281697E+0	1.332674E+0	1.295124E+0	1.304374E+0	1.278791E+0	1.310569E+0	1.321350E+0	1.296286E+0	1.309074E+0	1.336647E+0	1.288975E+0	1.329256E+0	1.327314E+0	1.370464E+0	1.276754E+0	1.294545E+0	1.308150E+0	1.313824E+0	1.309482E+0	1.321455E+0	1.286351E+0	1.289574E+0	1.297517E+0	1.302341E+0	1.319204E+0	1.317738E+0	1.264322E+0	1.365023E+0	1.304957E+0	1.277844E+0	1.340637E+0	1.294026E+0	1.290409E+0	1.326024E+0	1.302801E+0	1.285340E+0	1.297705E+0	1.307250E+0	1.345895E+0	1.256038E+0	1.285234E+0	1.317861E+0	1.291195E+0	1.304643E+0	1.270290E+0	1.250941E+0	1.387074E+0	1.307113E+0	1.272738E+0	1.327138E+0	1.316611E+0	1.293729E+0	1.327560E+0	1.274141E+0	1.279489E+0	1.263962E+0	1.305405E+0	1.346613E+0	1.268955E+0	1.280039E+0	1.260159E+0	1.361050E+0
5.387700E+2	1.562545E+0	1.602390E+0	1.601978E+0	1.519313E+0	1.622451E+0	1.598049E+0	1.611635E+0	1.578599E+0	1.604599E+0	1.562319E+0	1.458723E+0	1.542471E+0	1.604057E+0	1.563123E+0	1.575415E+0	1.543859E+0	1.578435E+0	1.549259E+0	1.604973E+0	1.580111E+0	1.540678E+0	1.590339E+0	1.575844E+0	1.562292E+0	1.548630E+0	1.578251E+0	1.562644E+0	1.600042E+0	1.591194E+0	1.592728E+0	1.567072E+0	1.565144E+0	1.572714E+0	1.555504E+0	1.572145E+0	1.549229E+0	1.564725E+0	1.517824E+0	1.538324E+0	1.586531E+0	1.604551E+0	1.564148E+0	1.578549E+0	1.530354E+0	1.550481E+0	1.534885E+0	1.513811E+0	1.520786E+0	1.533540E+0	1.567105E+0	1.566379E+0	1.579872E+0	1.540272E+0	1.594096E+0	1.642196E+0	1.598943E+0	1.610250E+0	1.568308E+0	1.558424E+0	1.501887E+0	1.547850E+0	1.557824E+0	1.533561E+0	1.572849E+0	1.584960E+0	1.505900E+0	1.558479E+0	1.533768E+0	1.595350E+0	1.578867E+0	1.577580E+0	1.591846E+0	1.624101E+0	1.537614E+0	1.563400E+0	1.605443E+0	1.541738E+0	1.511406E+0	1.584253E+0	1.557266E+0	1.573445E+0	1.523959E+0	1.574696E+0	1.624018E+0	1.591138E+0	1.590360E+0	1.527215E+0	1.509684E+0	1.554649E+0	1.501562E+0	1.551500E+0	1.472118E+0	1.523349E+0	1.540342E+0	1.593907E+0	1.474333E+0	1.580077E+0	1.538422E+0	1.541916E+0	1.564088E+0	1.528509E+0	1.525726E+0	1.549240E+0	1.583330E+0	1.567172E+0	1.589055E+0	1.560174E+0	1.602927E+0	1.576102E+0	1.511375E+0	1.507812E+0	1.607411E+0	1.498813E+0	1.544222E+0	1.519696E+0	1.589242E+0	1.580829E+0	1.476459E+0	1.586788E+0	1.526368E+0	1.503245E+0	1.492944E+0	1.557972E+0	1.597776E+0	1.565545E+0	1.519176E+0	1.508816E+0	1.582015E+0	1.557987E+0	1.523473E+0	1.566504E+0	1.552569E+0	1.564343E+0	1.502465E+0	1.487790E+0	1.568159E+0	1.560294E+0	1.497784E+0	1.552125E+0	1.537307E+0	1.540324E+0	1.553995E+0	1.545334E+0	1.562335E+0	1.521106E+0	1.504068E+0	1.510367E+0	1.527643E+0	1.540460E+0	1.473035E+0	1.561387E+0	1.553586E+0	1.520867E+0	1.609098E+0	1.533746E+0	1.553248E+0	1.574858E+0	1.549881E+0	1.614159E+0	1.554134E+0	1.485887E+0	1.496716E+0	1.543636E+0	1.502019E+0	1.518768E+0	1.533882E+0	1.571915E+0	1.526379E+0	1.576923E+0	1.454496E+0	1.517632E+0
5.390240E+2	1.772841E+0	1.765720E+0	1.805007E+0	1.795296E+0	1.851923E+0	1.798614E+0	1.774496E+0	1.772797E+0	1.698102E+0	1.796294E+0	1.773247E+0	1.732770E+0	1.802782E+0	1.767165E+0	1.707221E+0	1.812624E+0	1.711346E+0	1.743967E+0	1.753337E+0	1.781180E+0	1.776435E+0	1.791499E+0	1.785694E+0	1.699862E+0	1.779310E+0	1.801174E+0	1.763507E+0	1.778893E+0	1.776583E+0	1.715487E+0	1.773929E+0	1.763928E+0	1.752481E+0	1.769685E+0	1.730749E+0	1.775642E+0	1.741535E+0	1.750285E+0	1.731205E+0	1.787431E+0	1.775531E+0	1.808865E+0	1.812207E+0	1.741465E+0	1.722908E+0	1.732957E+0	1.777140E+0	1.775524E+0	1.786685E+0	1.710661E+0	1.812957E+0	1.783405E+0	1.727470E+0	1.808676E+0	1.798008E+0	1.751784E+0	1.757682E+0	1.763416E+0	1.721100E+0	1.738261E+0	1.731652E+0	1.724049E+0	1.716818E+0	1.758841E+0	1.723311E+0	1.705724E+0	1.727899E+0	1.768909E+0	1.772850E+0	1.785270E+0	1.726322E+0	1.735023E+0	1.789298E+0	1.736556E+0	1.720951E+0	1.827336E+0	1.711324E+0	1.752069E+0	1.765979E+0	1.785436E+0	1.688379E+0	1.726472E+0	1.695135E+0	1.787227E+0	1.767383E+0	1.746903E+0	1.738842E+0	1.746596E+0	1.694058E+0	1.743197E+0	1.762017E+0	1.792442E+0	1.805474E+0	1.728026E+0	1.697940E+0	1.708766E+0	1.731060E+0	1.674688E+0	1.724503E+0	1.713507E+0	1.744626E+0	1.765899E+0	1.780334E+0	1.753432E+0	1.759530E+0	1.788614E+0	1.705900E+0	1.772723E+0	1.719518E+0	1.784545E+0	1.691885E+0	1.793509E+0	1.748489E+0	1.739763E+0	1.723086E+0	1.730908E+0	1.783535E+0	1.754810E+0	1.758047E+0	1.716827E+0	1.752205E+0	1.690214E+0	1.762084E+0	1.813583E+0	1.719111E+0	1.735755E+0	1.753318E+0	1.733313E+0	1.730397E+0	1.667746E+0	1.752572E+0	1.651809E+0	1.704821E+0	1.734720E+0	1.725228E+0	1.769851E+0	1.733464E+0	1.644323E+0	1.744496E+0	1.743752E+0	1.718943E+0	1.698662E+0	1.746552E+0	1.700717E+0	1.704328E+0	1.682688E+0	1.692662E+0	1.710504E+0	1.739087E+0	1.669209E+0	1.734318E+0	1.673513E+0	1.769891E+0	1.700429E+0	1.727824E+0	1.664730E+0	1.711474E+0	1.666466E+0	1.733417E+0	1.726661E+0	1.710655E+0	1.720139E+0	1.736541E+0	1.687047E+0	1.698453E+0	1.686337E+0	1.783177E+0	1.740384E+0	1.810296E+0	1.749127E+0	1.601504E+0
5.392880E+2	2.011081E+0	2.013692E+0	1.995460E+0	2.048561E+0	2.001184E+0	1.925715E+0	2.004432E+0	1.988886E+0	1.928183E+0	1.917520E+0	1.892874E+0	1.972824E+0	1.976235E+0	1.882591E+0	1.976162E+0	1.974843E+0	1.913762E+0	1.976713E+0	1.935017E+0	1.933583E+0	1.936770E+0	1.957267E+0	1.940643E+0	1.965226E+0	1.897355E+0	1.948879E+0	2.007056E+0	1.985254E+0	2.007733E+0	1.940434E+0	1.981752E+0	1.940063E+0	1.908069E+0	1.932345E+0	1.956546E+0	1.961431E+0	1.964198E+0	1.985856E+0	1.973132E+0	1.920727E+0	1.981920E+0	1.946678E+0	2.021554E+0	1.997384E+0	1.877838E+0	2.003651E+0	1.967852E+0	2.040276E+0	1.899133E+0	1.942067E+0	1.992025E+0	1.905509E+0	1.886256E+0	1.964866E+0	2.022898E+0	1.919642E+0	1.944865E+0	2.005566E+0	1.868753E+0	1.942669E+0	2.013314E+0	1.960149E+0	1.897999E+0	1.962659E+0	2.009462E+0	1.958557E+0	1.878193E+0	1.941386E+0	2.029472E+0	1.938895E+0	1.885288E+0	1.988077E+0	1.967823E+0	1.899317E+0	1.953598E+0	1.960212E+0	1.889237E+0	1.927353E+0	1.843768E+0	1.922953E+0	1.840886E+0	1.940757E+0	1.943942E+0	1.924610E+0	1.939450E+0	1.923933E+0	1.943574E+0	1.910367E+0	1.866626E+0	1.944978E+0	1.921084E+0	1.940843E+0	1.947913E+0	1.910812E+0	1.879603E+0	1.949499E+0	1.914169E+0	1.925264E+0	1.916033E+0	2.009869E+0	1.908524E+0	1.923266E+0	1.980443E+0	1.938667E+0	2.096839E+0	1.934988E+0	1.920888E+0	1.953705E+0	1.887618E+0	1.908281E+0	1.904374E+0	1.997798E+0	1.858154E+0	1.927467E+0	1.979290E+0	1.930685E+0	1.926282E+0	1.928095E+0	1.950524E+0	1.867301E+0	1.973601E+0	1.923262E+0	1.929399E+0	1.966533E+0	1.880651E+0	1.886931E+0	1.898778E+0	1.953547E+0	1.899759E+0	1.919822E+0	1.971009E+0	1.856162E+0	1.911462E+0	1.910274E+0	1.920552E+0	1.942281E+0	1.906570E+0	1.843656E+0	1.901989E+0	1.898782E+0	1.913976E+0	1.943476E+0	1.899965E+0	1.929141E+0	1.953783E+0	1.896000E+0	1.841344E+0	1.907570E+0	1.883709E+0	1.912101E+0	1.912383E+0	1.881337E+0	1.910170E+0	1.897676E+0	1.870567E+0	1.959007E+0	1.867338E+0	1.879750E+0	1.865000E+0	1.949745E+0	1.865494E+0	1.927751E+0	1.889941E+0	1.949064E+0	1.875939E+0	1.847594E+0	1.957248E+0	2.005763E+0	1.877274E+0	1.825811E+0	1.893897E+0
5.395160E+2	1.923396E+0	2.019673E+0	1.948558E+0	2.015925E+0	2.003283E+0	1.975784E+0	1.906238E+0	1.960802E+0	1.958364E+0	1.991718E+0	1.996868E+0	1.952303E+0	1.935205E+0	2.036594E+0	1.934677E+0	1.987572E+0	1.964885E+0	1.932344E+0	1.908078E+0	1.976240E+0	1.954915E+0	1.923474E+0	1.995168E+0	1.973098E+0	1.960013E+0	1.994066E+0	1.963473E+0	1.911337E+0	1.940302E+0	1.926626E+0	1.960156E+0	1.976160E+0	1.993453E+0	1.903131E+0	1.944360E+0	1.964461E+0	1.980606E+0	1.900767E+0	1.913499E+0	1.916768E+0	2.026084E+0	1.928181E+0	1.976044E+0	1.902281E+0	1.916428E+0	1.959574E+0	1.891809E+0	1.955324E+0	1.974857E+0	1.921547E+0	1.949742E+0	1.916874E+0	1.930288E+0	1.981849E+0	1.977930E+0	1.909198E+0	2.023237E+0	1.967888E+0	1.934903E+0	1.930505E+0	1.913815E+0	1.948986E+0	1.894971E+0	1.948982E+0	1.896895E+0	2.086010E+0	1.867946E+0	1.934502E+0	1.963250E+0	1.873783E+0	1.918090E+0	1.893160E+0	1.954953E+0	1.963055E+0	1.918494E+0	1.911740E+0	1.873852E+0	1.902019E+0	1.866699E+0	1.938160E+0	1.944144E+0	1.955905E+0	1.918638E+0	1.953612E+0	1.922757E+0	1.958729E+0	1.930683E+0	1.906116E+0	1.934787E+0	1.921288E+0	1.957215E+0	1.886431E+0	1.890930E+0	1.902823E+0	1.878482E+0	1.913223E+0	1.837024E+0	1.863106E+0	1.887568E+0	1.943758E+0	1.943333E+0	1.957086E+0	1.914930E+0	1.923600E+0	1.869018E+0	1.907976E+0	1.921200E+0	1.913630E+0	1.885233E+0	1.886555E+0	1.885770E+0	1.922059E+0	1.916613E+0	1.851638E+0	1.895971E+0	1.948478E+0	1.956352E+0	1.893980E+0	1.958243E+0	1.810985E+0	1.946311E+0	1.841308E+0	1.851464E+0	1.914491E+0	1.861315E+0	1.850666E+0	1.939105E+0	1.847278E+0	1.949134E+0	1.874134E+0	1.876721E+0	1.911635E+0	1.945985E+0	1.952393E+0	1.889371E+0	1.868723E+0	1.902012E+0	1.834681E+0	1.891495E+0	1.937156E+0	1.899109E+0	1.957397E+0	1.893384E+0	1.908685E+0	1.954104E+0	1.868048E+0	1.907703E+0	1.912906E+0	1.881113E+0	1.868901E+0	1.879726E+0	1.874007E+0	1.903349E+0	1.927243E+0	1.881021E+0	1.870359E+0	1.859408E+0	1.858828E+0	1.909599E+0	1.898359E+0	1.824090E+0	1.882410E+0	1.878727E+0	1.876389E+0	1.869421E+0	1.925457E+0	1.902518E+0	1.880938E+0	1.910127E+0	1.868372E+0	1.853401E+0
5.397750E+2	2.041054E+0	2.019510E+0	2.002186E+0	2.063087E+0	2.074479E+0	2.048340E+0	2.014710E+0	1.994260E+0	1.955222E+0	1.963995E+0	1.987896E+0	2.006786E+0	2.034708E+0	1.982448E+0	2.027379E+0	2.036887E+0	2.036584E+0	1.951885E+0	1.964304E+0	2.070434E+0	2.017935E+0	1.966893E+0	2.011292E+0	1.986640E+0	1.948350E+0	2.070932E+0	1.994395E+0	2.014494E+0	2.045945E+0	1.979307E+0	2.018915E+0	1.967288E+0	2.014930E+0	1.951929E+0	2.008613E+0	1.961282E+0	1.951230E+0	1.947002E+0	2.062440E+0	2.000201E+0	1.979308E+0	1.965735E+0	2.004502E+0	2.015885E+0	1.973033E+0	2.010195E+0	1.974779E+0	1.933655E+0	2.018448E+0	1.958980E+0	2.058939E+0	1.932760E+0	1.958653E+0	1.936666E+0	2.034336E+0	1.995776E+0	1.938682E+0	2.035969E+0	1.912101E+0	1.942576E+0	1.912197E+0	1.970321E+0	1.909396E+0	1.986478E+0	1.978717E+0	1.972190E+0	1.948997E+0	1.979205E+0	2.039562E+0	1.970550E+0	1.972976E+0	2.000739E+0	2.003343E+0	1.980369E+0	1.910306E+0	1.976220E+0	1.920915E+0	1.999200E+0	1.908274E+0	1.975681E+0	1.990833E+0	1.979823E+0	1.909506E+0	2.006123E+0	1.987868E+0	2.010599E+0	2.039892E+0	1.950264E+0	1.970280E+0	1.888853E+0	1.919261E+0	1.968893E+0	1.917762E+0	1.893325E+0	1.923621E+0	1.960122E+0	1.958830E+0	1.908591E+0	2.044499E+0	1.954927E+0	1.964697E+0	1.974267E+0	1.920255E+0	1.972843E+0	1.883329E+0	1.997649E+0	1.954370E+0	1.974666E+0	2.017030E+0	1.978817E+0	1.874288E+0	1.967595E+0	1.845422E+0	1.956022E+0	1.926520E+0	1.941379E+0	1.932044E+0	1.901946E+0	1.939435E+0	1.992264E+0	1.948049E+0	1.865881E+0	1.971035E+0	2.005691E+0	1.912289E+0	1.964327E+0	1.870374E+0	1.918632E+0	1.946653E+0	1.958908E+0	1.997601E+0	1.999713E+0	1.937416E+0	1.911408E+0	1.955391E+0	1.958273E+0	1.954453E+0	1.944214E+0	1.918885E+0	1.929766E+0	1.874741E+0	1.959704E+0	1.919472E+0	1.900420E+0	1.929972E+0	1.951352E+0	1.839455E+0	1.879773E+0	1.904523E+0	1.861335E+0	1.991896E+0	1.932600E+0	1.957935E+0	1.860797E+0	1.977737E+0	1.942992E+0	1.967692E+0	1.900280E+0	1.969134E+0	1.927260E+0	1.986762E+0	1.909784E+0	1.856443E+0	1.952589E+0	1.986687E+0	1.914695E+0	1.899630E+0	2.012653E+0	1.899678E+0	1.839316E+0	1.913591E+0
5.400140E+2	1.924710E+0	1.945474E+0	1.927616E+0	1.955800E+0	2.003885E+0	1.998940E+0	1.870446E+0	1.940514E+0	1.867107E+0	1.944627E+0	1.887354E+0	1.950819E+0	1.934567E+0	1.908718E+0	1.910609E+0	1.952337E+0	1.935454E+0	1.909692E+0	1.958285E+0	1.967995E+0	1.922129E+0	1.957969E+0	1.864681E+0	1.936794E+0	1.896506E+0	1.879194E+0	1.957283E+0	1.927595E+0	1.957589E+0	1.920001E+0	1.929157E+0	1.914216E+0	1.974760E+0	1.896132E+0	1.940228E+0	1.930878E+0	1.900479E+0	1.874723E+0	1.904368E+0	1.897227E+0	1.901308E+0	1.902587E+0	1.920051E+0	1.949948E+0	1.878531E+0	1.879680E+0	1.789758E+0	1.932668E+0	1.923111E+0	1.941177E+0	1.910127E+0	1.920868E+0	1.899875E+0	1.984001E+0	1.953869E+0	1.880654E+0	1.932540E+0	1.952517E+0	1.865489E+0	1.912885E+0	1.895284E+0	1.923428E+0	1.872916E+0	1.956488E+0	1.973333E+0	1.910027E+0	1.896240E+0	1.990220E+0	1.912791E+0	1.915756E+0	1.901748E+0	1.896340E+0	1.886473E+0	1.865286E+0	1.952730E+0	1.950416E+0	1.923626E+0	1.877732E+0	1.884150E+0	1.938168E+0	1.911728E+0	1.906943E+0	1.880149E+0	1.912667E+0	1.867446E+0	1.934522E+0	1.932474E+0	1.912779E+0	1.882991E+0	1.842719E+0	1.885167E+0	1.887769E+0	1.860248E+0	1.862404E+0	1.870654E+0	1.863809E+0	1.939218E+0	1.865763E+0	1.854201E+0	1.890608E+0	1.890556E+0	1.880978E+0	1.871254E+0	1.911236E+0	1.950017E+0	1.941231E+0	1.882180E+0	1.979547E+0	1.898006E+0	1.865249E+0	1.770031E+0	1.908474E+0	1.870243E+0	1.858231E+0	1.889348E+0	1.941139E+0	1.907043E+0	1.878726E+0	1.903896E+0	1.805307E+0	1.870184E+0	1.898647E+0	1.889877E+0	1.912776E+0	1.912391E+0	1.866515E+0	1.891445E+0	1.885384E+0	1.913666E+0	1.889799E+0	1.889601E+0	1.937886E+0	1.851590E+0	1.862676E+0	1.913225E+0	1.864282E+0	1.929073E+0	1.871754E+0	1.842704E+0	1.909636E+0	1.831520E+0	1.868395E+0	1.843376E+0	1.886606E+0	1.850640E+0	1.821130E+0	1.853118E+0	1.927570E+0	1.857798E+0	1.785623E+0	1.909683E+0	1.810069E+0	1.907796E+0	1.842455E+0	1.868773E+0	1.798920E+0	1.902063E+0	1.826949E+0	1.882905E+0	1.816470E+0	1.819298E+0	1.869927E+0	1.847973E+0	1.839711E+0	1.882307E+0	1.816145E+0	1.891766E+0	1.900966E+0	1.905347E+0	1.697557E+0	1.854345E+0
5.402740E+2	1.934107E+0	1.875132E+0	1.836476E+0	1.903027E+0	1.902540E+0	1.999374E+0	1.902207E+0	1.831448E+0	1.849146E+0	1.942292E+0	1.922041E+0	1.894212E+0	1.927792E+0	1.891695E+0	1.923920E+0	1.902140E+0	1.913084E+0	1.930652E+0	1.890488E+0	1.919083E+0	1.910158E+0	1.903983E+0	1.950256E+0	1.867858E+0	1.913000E+0	1.867071E+0	1.829211E+0	1.944815E+0	1.923442E+0	1.884607E+0	1.889263E+0	1.922479E+0	1.921326E+0	1.848821E+0	1.970506E+0	1.893593E+0	1.899059E+0	1.839690E+0	1.925717E+0	1.892619E+0	1.855266E+0	1.933057E+0	1.972655E+0	1.908858E+0	1.888437E+0	1.849337E+0	1.953931E+0	1.962125E+0	1.821045E+0	1.907490E+0	1.910918E+0	1.913960E+0	1.853324E+0	1.955766E+0	1.899078E+0	1.873948E+0	1.888280E+0	1.946919E+0	1.879301E+0	1.927983E+0	1.854366E+0	1.933698E+0	1.879317E+0	1.888874E+0	1.915089E+0	1.903366E+0	1.889136E+0	1.910307E+0	1.935231E+0	1.853409E+0	1.858553E+0	1.855171E+0	1.855256E+0	1.892833E+0	1.865653E+0	1.930840E+0	1.826789E+0	1.890925E+0	1.830617E+0	1.849146E+0	1.798230E+0	1.877981E+0	1.814653E+0	1.876782E+0	1.847253E+0	1.834048E+0	1.859193E+0	1.875992E+0	1.897120E+0	1.826123E+0	1.821002E+0	1.870205E+0	1.852460E+0	1.893828E+0	1.844561E+0	1.848487E+0	1.887979E+0	1.788282E+0	1.851790E+0	1.927831E+0	1.846887E+0	1.928613E+0	1.806885E+0	1.855918E+0	1.810149E+0	1.897625E+0	1.783582E+0	1.910570E+0	1.826960E+0	1.886526E+0	1.808963E+0	1.849530E+0	1.835041E+0	1.936006E+0	1.867557E+0	1.952079E+0	1.833178E+0	1.799871E+0	1.891542E+0	1.859518E+0	1.860939E+0	1.875867E+0	1.872603E+0	1.964935E+0	1.838307E+0	1.850255E+0	1.798761E+0	1.879272E+0	1.879028E+0	1.830806E+0	1.901279E+0	1.809901E+0	1.881177E+0	1.849909E+0	1.830730E+0	1.856790E+0	1.911480E+0	1.823551E+0	1.862946E+0	1.848791E+0	1.834120E+0	1.836728E+0	1.851831E+0	1.828158E+0	1.822251E+0	1.895208E+0	1.811681E+0	1.886481E+0	1.865791E+0	1.885946E+0	1.838913E+0	1.772700E+0	1.867759E+0	1.831882E+0	1.828207E+0	1.848964E+0	1.827141E+0	1.853728E+0	1.858370E+0	1.809164E+0	1.843840E+0	1.824064E+0	1.867719E+0	1.821507E+0	1.812911E+0	1.756351E+0	1.832557E+0	1.876241E+0	1.811708E+0	1.783231E+0	1.835371E+0
5.405080E+2	1.856148E+0	1.826952E+0	1.893002E+0	1.892993E+0	1.853865E+0	1.897934E+0	1.813874E+0	1.896499E+0	1.778198E+0	1.864735E+0	1.789725E+0	1.826308E+0	1.884481E+0	1.794298E+0	1.874037E+0	1.854032E+0	1.914482E+0	1.895803E+0	1.864763E+0	1.897715E+0	1.816094E+0	1.859374E+0	1.770355E+0	1.830864E+0	1.811100E+0	1.851549E+0	1.812496E+0	1.804873E+0	1.859114E+0	1.843994E+0	1.887614E+0	1.814566E+0	1.851272E+0	1.852202E+0	1.808711E+0	1.796701E+0	1.877056E+0	1.776341E+0	1.883447E+0	1.812428E+0	1.849085E+0	1.797967E+0	1.869333E+0	1.839900E+0	1.804633E+0	1.837090E+0	1.755444E+0	1.844304E+0	1.788192E+0	1.825301E+0	1.791443E+0	1.835995E+0	1.836250E+0	1.829949E+0	1.870237E+0	1.783319E+0	1.871204E+0	1.873580E+0	1.800104E+0	1.793486E+0	1.838289E+0	1.841635E+0	1.822720E+0	1.834969E+0	1.854763E+0	1.872439E+0	1.795426E+0	1.750567E+0	1.819311E+0	1.748948E+0	1.838469E+0	1.798128E+0	1.809806E+0	1.793485E+0	1.748954E+0	1.847091E+0	1.815481E+0	1.793169E+0	1.806713E+0	1.861616E+0	1.838286E+0	1.881322E+0	1.757663E+0	1.750351E+0	1.774509E+0	1.787359E+0	1.813017E+0	1.823054E+0	1.797573E+0	1.733542E+0	1.858002E+0	1.765507E+0	1.849938E+0	1.806220E+0	1.766127E+0	1.779044E+0	1.823731E+0	1.797275E+0	1.757164E+0	1.844795E+0	1.787483E+0	1.767076E+0	1.809434E+0	1.787658E+0	1.784944E+0	1.853768E+0	1.815304E+0	1.859025E+0	1.750862E+0	1.813488E+0	1.800989E+0	1.840065E+0	1.802784E+0	1.759086E+0	1.786853E+0	1.861613E+0	1.822213E+0	1.731300E+0	1.822027E+0	1.753756E+0	1.787485E+0	1.779761E+0	1.814485E+0	1.835741E+0	1.782795E+0	1.753129E+0	1.799986E+0	1.800828E+0	1.829374E+0	1.736679E+0	1.791654E+0	1.821263E+0	1.789431E+0	1.840330E+0	1.723135E+0	1.784137E+0	1.758604E+0	1.792133E+0	1.726127E+0	1.810255E+0	1.770229E+0	1.769978E+0	1.818814E+0	1.777282E+0	1.758642E+0	1.754086E+0	1.735063E+0	1.805662E+0	1.845428E+0	1.731916E+0	1.813778E+0	1.794837E+0	1.828435E+0	1.771451E+0	1.721003E+0	1.807084E+0	1.794285E+0	1.776906E+0	1.799626E+0	1.779830E+0	1.763166E+0	1.777577E+0	1.781524E+0	1.799669E+0	1.735689E+0	1.738880E+0	1.817245E+0	1.844676E+0	1.784231E+0	1.650190E+0	1.734652E+0
5.407680E+2	1.757655E+0	1.699477E+0	1.813687E+0	1.744640E+0	1.740957E+0	1.768531E+0	1.742352E+0	1.724454E+0	1.698785E+0	1.709768E+0	1.762628E+0	1.717333E+0	1.788456E+0	1.687970E+0	1.696046E+0	1.713889E+0	1.725485E+0	1.740741E+0	1.687163E+0	1.719029E+0	1.729634E+0	1.672400E+0	1.747603E+0	1.698914E+0	1.653577E+0	1.692082E+0	1.675280E+0	1.695872E+0	1.756655E+0	1.726395E+0	1.741885E+0	1.721898E+0	1.755335E+0	1.670692E+0	1.746049E+0	1.721856E+0	1.719546E+0	1.729699E+0	1.739450E+0	1.709343E+0	1.723723E+0	1.670662E+0	1.759687E+0	1.688834E+0	1.747736E+0	1.739565E+0	1.674550E+0	1.697208E+0	1.697550E+0	1.746233E+0	1.689190E+0	1.651302E+0	1.686634E+0	1.748111E+0	1.707737E+0	1.727781E+0	1.812761E+0	1.743633E+0	1.694407E+0	1.639377E+0	1.699778E+0	1.621358E+0	1.668168E+0	1.719410E+0	1.733985E+0	1.722855E+0	1.684678E+0	1.752508E+0	1.785517E+0	1.696477E+0	1.714211E+0	1.744829E+0	1.625260E+0	1.726654E+0	1.686895E+0	1.709859E+0	1.678841E+0	1.741956E+0	1.718193E+0	1.685096E+0	1.670811E+0	1.671667E+0	1.672140E+0	1.691125E+0	1.729835E+0	1.657497E+0	1.744776E+0	1.708710E+0	1.661680E+0	1.698410E+0	1.753874E+0	1.725216E+0	1.690233E+0	1.682103E+0	1.671299E+0	1.661624E+0	1.704871E+0	1.704403E+0	1.738325E+0	1.664152E+0	1.767792E+0	1.790686E+0	1.664477E+0	1.737493E+0	1.690551E+0	1.748073E+0	1.692491E+0	1.726062E+0	1.632207E+0	1.752348E+0	1.678583E+0	1.723773E+0	1.722558E+0	1.675348E+0	1.662019E+0	1.697958E+0	1.680230E+0	1.669457E+0	1.671305E+0	1.652817E+0	1.717451E+0	1.702592E+0	1.714891E+0	1.700658E+0	1.708896E+0	1.634356E+0	1.680951E+0	1.669630E+0	1.635407E+0	1.743825E+0	1.699150E+0	1.669482E+0	1.690562E+0	1.673300E+0	1.672855E+0	1.703682E+0	1.673296E+0	1.746939E+0	1.646374E+0	1.705461E+0	1.649528E+0	1.661665E+0	1.689244E+0	1.653639E+0	1.669910E+0	1.672381E+0	1.624696E+0	1.683832E+0	1.628672E+0	1.667264E+0	1.727652E+0	1.678138E+0	1.678147E+0	1.732273E+0	1.586314E+0	1.658990E+0	1.700212E+0	1.667676E+0	1.697797E+0	1.618260E+0	1.729662E+0	1.633391E+0	1.652054E+0	1.686643E+0	1.699056E+0	1.699438E+0	1.687412E+0	1.634440E+0	1.656320E+0	1.612803E+0	1.689484E+0
5.410190E+2	1.615145E+0	1.629347E+0	1.654198E+0	1.660586E+0	1.589045E+0	1.620099E+0	1.588499E+0	1.548287E+0	1.565334E+0	1.609166E+0	1.551077E+0	1.562297E+0	1.513269E+0	1.577516E+0	1.568196E+0	1.598015E+0	1.641423E+0	1.581225E+0	1.640934E+0	1.566595E+0	1.578643E+0	1.585959E+0	1.557508E+0	1.578024E+0	1.589518E+0	1.605223E+0	1.598305E+0	1.600303E+0	1.614094E+0	1.563261E+0	1.562604E+0	1.586672E+0	1.652887E+0	1.547812E+0	1.621540E+0	1.607791E+0	1.640675E+0	1.530579E+0	1.575780E+0	1.553926E+0	1.634494E+0	1.526790E+0	1.656930E+0	1.559101E+0	1.566051E+0	1.596542E+0	1.511978E+0	1.584979E+0	1.508629E+0	1.573783E+0	1.575691E+0	1.576208E+0	1.594222E+0	1.624091E+0	1.636256E+0	1.549261E+0	1.642110E+0	1.589430E+0	1.554851E+0	1.596741E+0	1.519874E+0	1.577059E+0	1.569147E+0	1.583109E+0	1.592414E+0	1.571753E+0	1.556638E+0	1.593760E+0	1.628374E+0	1.569684E+0	1.560699E+0	1.618127E+0	1.614637E+0	1.592466E+0	1.589079E+0	1.612802E+0	1.565478E+0	1.577390E+0	1.533711E+0	1.571913E+0	1.578353E+0	1.572061E+0	1.550116E+0	1.529787E+0	1.607107E+0	1.547059E+0	1.581938E+0	1.571692E+0	1.581071E+0	1.554373E+0	1.599799E+0	1.608326E+0	1.585839E+0	1.582007E+0	1.612775E+0	1.577017E+0	1.567876E+0	1.597506E+0	1.554733E+0	1.608207E+0	1.565987E+0	1.607562E+0	1.604933E+0	1.592685E+0	1.573587E+0	1.542333E+0	1.600995E+0	1.582134E+0	1.592322E+0	1.576169E+0	1.540183E+0	1.532067E+0	1.575196E+0	1.536501E+0	1.542004E+0	1.523008E+0	1.573791E+0	1.528130E+0	1.582795E+0	1.508869E+0	1.542318E+0	1.522587E+0	1.573624E+0	1.557459E+0	1.547659E+0	1.594958E+0	1.532054E+0	1.546060E+0	1.619299E+0	1.563539E+0	1.619789E+0	1.545006E+0	1.575978E+0	1.580213E+0	1.577954E+0	1.534724E+0	1.559850E+0	1.599247E+0	1.496293E+0	1.687459E+0	1.555086E+0	1.538933E+0	1.521564E+0	1.570695E+0	1.550214E+0	1.567670E+0	1.548412E+0	1.619648E+0	1.561668E+0	1.554260E+0	1.559457E+0	1.484758E+0	1.544320E+0	1.580391E+0	1.566861E+0	1.574215E+0	1.534792E+0	1.501057E+0	1.557856E+0	1.564226E+0	1.571083E+0	1.627797E+0	1.547021E+0	1.559798E+0	1.571304E+0	1.549746E+0	1.542908E+0	1.579125E+0	1.541307E+0	1.465582E+0	1.536701E+0
5.412850E+2	1.495727E+0	1.444850E+0	1.510007E+0	1.458592E+0	1.546776E+0	1.542304E+0	1.440595E+0	1.457291E+0	1.481131E+0	1.476573E+0	1.427540E+0	1.431912E+0	1.506403E+0	1.429412E+0	1.446499E+0	1.510234E+0	1.517889E+0	1.465432E+0	1.506585E+0	1.507704E+0	1.468335E+0	1.566802E+0	1.475668E+0	1.476946E+0	1.451292E+0	1.483335E+0	1.491366E+0	1.470495E+0	1.497889E+0	1.471226E+0	1.444765E+0	1.436653E+0	1.498229E+0	1.447718E+0	1.532736E+0	1.417305E+0	1.516238E+0	1.425634E+0	1.473498E+0	1.508674E+0	1.510300E+0	1.508176E+0	1.505105E+0	1.442277E+0	1.439159E+0	1.467911E+0	1.463283E+0	1.475326E+0	1.449774E+0	1.460513E+0	1.496225E+0	1.476576E+0	1.504288E+0	1.496043E+0	1.470387E+0	1.501964E+0	1.438371E+0	1.543250E+0	1.473200E+0	1.497963E+0	1.508561E+0	1.471967E+0	1.460978E+0	1.434386E+0	1.472769E+0	1.434234E+0	1.474762E+0	1.449331E+0	1.521884E+0	1.453447E+0	1.493469E+0	1.475869E+0	1.474312E+0	1.453726E+0	1.445534E+0	1.506530E+0	1.499264E+0	1.445896E+0	1.468619E+0	1.442328E+0	1.448559E+0	1.467958E+0	1.442329E+0	1.462348E+0	1.543707E+0	1.445566E+0	1.508934E+0	1.466222E+0	1.500151E+0	1.458727E+0	1.421568E+0	1.476814E+0	1.471235E+0	1.389580E+0	1.429001E+0	1.407042E+0	1.432164E+0	1.473044E+0	1.436298E+0	1.461131E+0	1.485283E+0	1.481282E+0	1.474931E+0	1.451495E+0	1.423402E+0	1.446796E+0	1.471627E+0	1.582320E+0	1.449371E+0	1.518589E+0	1.474693E+0	1.482186E+0	1.446849E+0	1.479637E+0	1.412657E+0	1.423081E+0	1.498344E+0	1.425460E+0	1.480502E+0	1.458848E+0	1.527181E+0	1.430288E+0	1.465975E+0	1.463317E+0	1.464563E+0	1.485449E+0	1.440455E+0	1.542804E+0	1.574126E+0	1.444709E+0	1.475387E+0	1.413282E+0	1.420585E+0	1.424635E+0	1.497223E+0	1.431719E+0	1.470023E+0	1.464280E+0	1.472829E+0	1.513222E+0	1.452220E+0	1.436606E+0	1.470147E+0	1.472266E+0	1.451689E+0	1.441717E+0	1.460344E+0	1.459105E+0	1.462660E+0	1.388628E+0	1.462212E+0	1.451209E+0	1.483536E+0	1.493861E+0	1.422388E+0	1.450343E+0	1.472078E+0	1.426407E+0	1.422805E+0	1.448804E+0	1.479513E+0	1.435382E+0	1.413566E+0	1.459875E+0	1.474007E+0	1.413530E+0	1.490062E+0	1.522807E+0	1.459756E+0	1.417526E+0	1.471122E+0
5.415190E+2	1.393023E+0	1.406940E+0	1.370028E+0	1.347810E+0	1.380074E+0	1.388004E+0	1.369868E+0	1.360788E+0	1.347085E+0	1.328581E+0	1.296899E+0	1.380106E+0	1.333458E+0	1.285958E+0	1.341396E+0	1.369319E+0	1.408462E+0	1.333389E+0	1.371545E+0	1.351330E+0	1.362964E+0	1.347440E+0	1.419251E+0	1.374743E+0	1.306292E+0	1.342338E+0	1.335611E+0	1.351860E+0	1.357165E+0	1.341144E+0	1.335925E+0	1.353643E+0	1.408642E+0	1.329812E+0	1.328625E+0	1.348645E+0	1.374147E+0	1.353299E+0	1.357985E+0	1.318976E+0	1.436040E+0	1.326969E+0	1.387729E+0	1.376533E+0	1.346430E+0	1.360420E+0	1.401852E+0	1.308973E+0	1.366566E+0	1.340049E+0	1.343964E+0	1.347006E+0	1.397888E+0	1.367266E+0	1.349523E+0	1.316158E+0	1.410981E+0	1.383586E+0	1.358805E+0	1.349735E+0	1.362089E+0	1.363323E+0	1.333980E+0	1.319359E+0	1.324739E+0	1.341459E+0	1.366774E+0	1.379603E+0	1.424809E+0	1.331117E+0	1.333826E+0	1.356929E+0	1.371092E+0	1.312731E+0	1.299934E+0	1.342642E+0	1.433078E+0	1.374514E+0	1.324394E+0	1.328302E+0	1.358974E+0	1.348929E+0	1.346017E+0	1.367099E+0	1.325797E+0	1.293308E+0	1.316079E+0	1.311610E+0	1.334833E+0	1.344796E+0	1.351095E+0	1.355871E+0	1.306126E+0	1.335097E+0	1.353938E+0	1.319409E+0	1.387507E+0	1.360784E+0	1.307245E+0	1.352431E+0	1.366279E+0	1.353398E+0	1.369475E+0	1.356951E+0	1.337692E+0	1.396885E+0	1.363426E+0	1.373344E+0	1.376665E+0	1.327358E+0	1.334257E+0	1.332690E+0	1.337942E+0	1.332176E+0	1.286969E+0	1.363957E+0	1.357333E+0	1.329913E+0	1.336350E+0	1.280948E+0	1.315432E+0	1.328921E+0	1.366426E+0	1.327008E+0	1.386400E+0	1.324736E+0	1.347124E+0	1.326359E+0	1.395875E+0	1.344986E+0	1.319131E+0	1.279511E+0	1.356293E+0	1.337173E+0	1.356027E+0	1.318861E+0	1.354331E+0	1.369821E+0	1.338106E+0	1.319007E+0	1.313906E+0	1.334894E+0	1.302812E+0	1.292698E+0	1.319541E+0	1.337042E+0	1.344293E+0	1.325937E+0	1.363584E+0	1.281490E+0	1.376332E+0	1.313090E+0	1.391727E+0	1.379322E+0	1.341590E+0	1.363525E+0	1.411501E+0	1.333847E+0	1.373709E+0	1.316858E+0	1.360652E+0	1.336446E+0	1.335093E+0	1.347042E+0	1.347540E+0	1.318033E+0	1.327098E+0	1.344081E+0	1.420083E+0	1.322689E+0	1.314241E+0
5.417860E+2	1.202730E+0	1.214546E+0	1.210108E+0	1.172037E+0	1.221684E+0	1.189437E+0	1.175248E+0	1.222787E+0	1.208302E+0	1.170179E+0	1.182644E+0	1.193044E+0	1.180170E+0	1.144249E+0	1.192739E+0	1.179419E+0	1.181771E+0	1.220905E+0	1.182627E+0	1.212469E+0	1.201953E+0	1.180315E+0	1.194413E+0	1.173547E+0	1.172018E+0	1.175791E+0	1.193079E+0	1.239441E+0	1.173818E+0	1.202977E+0	1.201292E+0	1.171683E+0	1.228312E+0	1.179251E+0	1.160282E+0	1.196104E+0	1.218771E+0	1.203967E+0	1.259646E+0	1.149111E+0	1.202689E+0	1.153804E+0	1.231754E+0	1.166779E+0	1.193700E+0	1.195358E+0	1.188536E+0	1.205600E+0	1.193974E+0	1.194296E+0	1.186447E+0	1.144793E+0	1.162971E+0	1.216695E+0	1.196686E+0	1.190401E+0	1.232109E+0	1.218992E+0	1.180697E+0	1.119856E+0	1.145684E+0	1.191878E+0	1.186078E+0	1.180956E+0	1.168047E+0	1.177948E+0	1.148630E+0	1.168872E+0	1.186821E+0	1.137555E+0	1.189330E+0	1.172640E+0	1.143006E+0	1.191686E+0	1.183709E+0	1.293332E+0	1.202935E+0	1.202435E+0	1.159577E+0	1.178194E+0	1.160185E+0	1.199739E+0	1.179219E+0	1.183341E+0	1.229894E+0	1.183873E+0	1.179538E+0	1.180717E+0	1.139241E+0	1.133717E+0	1.196597E+0	1.157954E+0	1.182521E+0	1.172456E+0	1.202547E+0	1.184066E+0	1.204748E+0	1.177626E+0	1.157391E+0	1.234809E+0	1.197397E+0	1.246940E+0	1.185220E+0	1.114913E+0	1.220140E+0	1.152731E+0	1.133422E+0	1.243764E+0	1.188917E+0	1.197720E+0	1.149214E+0	1.193888E+0	1.201710E+0	1.169056E+0	1.190648E+0	1.213218E+0	1.233504E+0	1.165663E+0	1.229737E+0	1.205587E+0	1.240133E+0	1.219357E+0	1.183876E+0	1.188206E+0	1.208962E+0	1.139573E+0	1.163307E+0	1.137361E+0	1.249005E+0	1.234670E+0	1.171320E+0	1.183299E+0	1.212131E+0	1.167054E+0	1.149601E+0	1.160620E+0	1.183001E+0	1.234891E+0	1.170801E+0	1.192499E+0	1.193098E+0	1.194102E+0	1.199474E+0	1.143949E+0	1.191486E+0	1.177913E+0	1.126004E+0	1.235623E+0	1.172107E+0	1.148468E+0	1.211767E+0	1.178975E+0	1.177146E+0	1.236818E+0	1.177431E+0	1.221534E+0	1.205556E+0	1.179062E+0	1.228353E+0	1.183336E+0	1.167400E+0	1.203916E+0	1.204110E+0	1.180448E+0	1.183979E+0	1.176977E+0	1.174765E+0	1.196137E+0	1.150810E+0	1.135470E+0	1.194053E+0
5.420160E+2	1.094502E+0	1.105312E+0	1.058158E+0	1.061331E+0	1.081015E+0	1.106997E+0	1.084282E+0	1.122962E+0	1.089859E+0	1.079543E+0	1.051213E+0	1.088994E+0	1.086199E+0	1.089998E+0	1.080113E+0	1.050596E+0	1.087141E+0	1.101231E+0	1.096668E+0	1.064698E+0	1.030250E+0	1.098847E+0	1.070251E+0	1.065048E+0	1.051307E+0	1.045944E+0	1.093937E+0	1.062723E+0	1.076612E+0	1.078884E+0	1.032487E+0	1.074833E+0	1.068362E+0	1.025916E+0	1.072206E+0	1.052614E+0	1.087019E+0	1.063618E+0	1.067639E+0	1.063322E+0	1.094359E+0	1.050773E+0	1.065526E+0	1.065657E+0	1.080019E+0	1.082226E+0	1.073233E+0	1.076084E+0	1.067901E+0	1.072214E+0	1.046199E+0	1.047332E+0	1.088348E+0	1.112378E+0	1.050982E+0	1.045488E+0	1.113170E+0	1.101145E+0	1.031964E+0	1.059852E+0	1.101812E+0	1.055083E+0	1.119892E+0	1.087080E+0	1.080449E+0	1.066988E+0	1.078126E+0	1.085110E+0	1.108468E+0	1.095127E+0	1.060134E+0	1.075131E+0	1.082231E+0	1.129699E+0	1.036801E+0	1.080965E+0	1.086006E+0	1.089988E+0	1.069150E+0	1.079104E+0	1.080067E+0	1.089266E+0	1.067259E+0	1.070114E+0	1.098797E+0	1.065164E+0	1.088168E+0	1.035432E+0	1.071480E+0	1.044706E+0	1.071093E+0	1.072960E+0	1.063526E+0	1.082061E+0	1.065554E+0	1.059436E+0	1.101878E+0	1.064030E+0	1.057119E+0	1.094678E+0	1.039706E+0	1.101291E+0	1.049065E+0	1.086037E+0	1.074559E+0	1.083207E+0	1.053868E+0	1.087915E+0	1.054193E+0	1.081917E+0	1.094993E+0	1.100769E+0	1.077644E+0	1.020195E+0	1.095026E+0	1.070388E+0	1.079892E+0	1.061798E+0	1.105567E+0	1.026395E+0	1.086485E+0	1.018110E+0	1.067665E+0	1.066436E+0	1.077511E+0	1.036725E+0	1.106117E+0	1.079825E+0	1.055973E+0	1.064021E+0	1.075190E+0	1.093379E+0	1.063425E+0	1.072612E+0	1.073024E+0	1.079199E+0	1.108826E+0	9.721365E-1	1.103702E+0	1.061485E+0	1.037138E+0	1.080291E+0	1.029657E+0	1.024698E+0	1.009338E+0	1.064816E+0	1.090478E+0	1.066842E+0	1.063591E+0	1.010524E+0	1.065079E+0	1.075551E+0	1.078089E+0	1.026603E+0	1.090112E+0	1.070656E+0	1.063189E+0	1.060269E+0	1.057355E+0	1.063740E+0	1.076778E+0	1.122677E+0	1.112669E+0	1.066686E+0	1.108423E+0	1.032861E+0	1.065295E+0	1.066951E+0	1.055056E+0	9.902654E-1	1.007549E+0
5.422670E+2	9.417790E-1	9.333552E-1	9.631294E-1	9.714295E-1	9.403646E-1	9.803369E-1	9.525109E-1	9.595975E-1	9.584177E-1	9.520410E-1	9.448770E-1	9.475247E-1	9.566332E-1	9.359092E-1	9.430181E-1	9.271996E-1	8.996872E-1	9.445333E-1	9.258544E-1	9.243961E-1	9.345349E-1	9.650399E-1	9.822372E-1	9.324036E-1	9.232893E-1	9.583120E-1	9.623168E-1	9.602237E-1	9.410299E-1	9.593429E-1	9.574550E-1	9.554721E-1	9.782420E-1	9.242182E-1	9.350577E-1	9.556179E-1	9.701665E-1	8.942323E-1	9.412370E-1	9.616450E-1	9.617313E-1	9.339821E-1	9.957052E-1	9.232839E-1	9.554557E-1	9.580413E-1	9.456090E-1	9.521084E-1	9.114036E-1	9.450610E-1	9.697878E-1	9.524911E-1	9.798439E-1	9.493474E-1	9.520032E-1	8.547051E-1	9.555115E-1	9.387862E-1	9.520129E-1	9.487507E-1	8.891136E-1	9.953323E-1	9.367678E-1	9.536432E-1	1.013925E+0	9.670429E-1	9.417852E-1	9.281602E-1	9.464996E-1	9.356577E-1	9.745897E-1	9.383208E-1	1.011853E+0	9.573164E-1	9.509735E-1	9.794430E-1	9.222028E-1	9.346278E-1	9.584402E-1	9.456700E-1	9.567998E-1	9.373101E-1	9.259141E-1	9.470122E-1	9.703107E-1	9.391032E-1	9.622054E-1	9.760131E-1	9.667349E-1	9.536751E-1	9.959485E-1	8.978495E-1	9.539637E-1	9.389630E-1	9.167810E-1	9.396030E-1	9.673061E-1	9.372373E-1	9.405175E-1	9.421492E-1	9.347370E-1	9.697909E-1	9.391577E-1	9.745494E-1	9.268381E-1	1.004159E+0	9.449188E-1	9.763166E-1	9.461984E-1	9.727605E-1	9.388169E-1	9.634532E-1	9.444844E-1	9.436704E-1	9.424402E-1	9.520308E-1	9.602314E-1	9.151259E-1	9.782804E-1	9.366674E-1	9.506392E-1	9.517326E-1	9.239466E-1	9.241985E-1	1.006212E+0	9.564480E-1	9.773359E-1	9.742880E-1	9.970752E-1	9.203025E-1	9.172073E-1	9.557151E-1	9.523109E-1	9.409803E-1	9.536907E-1	9.471874E-1	9.860335E-1	9.962195E-1	9.474515E-1	9.653776E-1	9.412012E-1	9.607657E-1	9.315917E-1	9.568159E-1	9.370395E-1	9.667019E-1	9.409289E-1	9.865439E-1	9.750575E-1	9.249191E-1	9.615666E-1	9.769488E-1	9.469173E-1	9.938548E-1	9.417418E-1	9.335195E-1	9.137023E-1	9.870529E-1	9.725860E-1	9.427845E-1	9.357298E-1	9.211837E-1	9.200615E-1	9.195053E-1	9.774475E-1	9.696053E-1	1.007210E+0	1.016265E+0	1.035484E+0	9.767874E-1	8.753922E-1
5.425300E+2	9.309258E-1	9.821783E-1	9.681828E-1	9.542583E-1	9.178156E-1	9.218080E-1	9.611022E-1	9.386684E-1	9.368344E-1	9.553480E-1	9.245781E-1	9.159539E-1	9.412596E-1	9.204239E-1	9.550704E-1	9.549701E-1	9.341325E-1	9.548934E-1	9.446592E-1	9.013090E-1	9.209486E-1	9.240375E-1	9.326450E-1	9.532544E-1	9.542385E-1	9.733011E-1	9.772449E-1	9.501819E-1	9.669909E-1	9.255767E-1	8.956714E-1	9.478729E-1	9.693414E-1	9.105702E-1	9.514461E-1	9.451251E-1	9.525117E-1	9.504784E-1	9.300074E-1	9.028281E-1	9.742874E-1	9.507602E-1	9.462000E-1	9.430632E-1	9.455562E-1	9.157849E-1	9.338496E-1	9.694950E-1	9.477257E-1	9.237082E-1	9.243800E-1	9.391715E-1	9.782263E-1	9.863824E-1	9.654111E-1	9.168795E-1	9.474959E-1	9.910991E-1	9.209063E-1	8.890692E-1	9.608636E-1	9.924927E-1	9.496681E-1	9.358351E-1	9.441774E-1	9.103131E-1	9.262676E-1	9.736174E-1	9.463518E-1	9.424048E-1	9.823994E-1	9.503548E-1	9.241155E-1	9.609806E-1	9.667441E-1	9.309555E-1	9.526279E-1	9.621650E-1	9.252742E-1	9.142235E-1	9.703150E-1	9.129476E-1	9.048329E-1	9.434473E-1	9.204342E-1	9.648107E-1	9.210833E-1	9.603444E-1	9.280471E-1	9.349013E-1	9.163307E-1	9.895264E-1	9.485562E-1	9.312630E-1	9.269187E-1	9.545148E-1	9.111042E-1	9.082240E-1	8.961539E-1	9.634268E-1	9.191663E-1	9.614962E-1	9.416540E-1	9.510308E-1	9.743397E-1	9.857447E-1	9.419401E-1	9.526677E-1	9.670812E-1	9.367440E-1	9.364978E-1	9.054882E-1	9.017551E-1	9.413703E-1	8.847155E-1	9.380754E-1	9.594197E-1	9.581047E-1	9.680789E-1	9.207893E-1	9.339320E-1	9.437050E-1	9.438530E-1	9.503166E-1	9.410053E-1	9.161019E-1	9.276444E-1	9.413188E-1	9.598864E-1	9.398440E-1	9.807823E-1	9.282356E-1	9.465458E-1	9.277086E-1	9.347389E-1	9.369090E-1	9.543328E-1	9.599645E-1	9.966607E-1	9.205914E-1	9.417567E-1	9.531883E-1	9.391305E-1	8.925142E-1	9.291608E-1	9.291108E-1	9.115791E-1	9.434061E-1	9.320967E-1	9.008098E-1	9.207536E-1	9.345377E-1	9.160023E-1	1.001822E+0	9.261578E-1	9.281219E-1	9.505281E-1	9.590423E-1	9.191640E-1	9.140250E-1	9.907037E-1	9.657658E-1	9.735733E-1	9.783627E-1	9.526296E-1	9.313449E-1	9.375262E-1	9.747091E-1	9.741377E-1	9.681386E-1	9.193002E-1
5.427600E+2	1.041778E+0	1.047448E+0	1.034777E+0	1.024452E+0	1.023861E+0	1.007504E+0	1.052061E+0	1.049546E+0	1.004349E+0	1.041025E+0	1.058014E+0	1.010084E+0	1.008644E+0	9.770884E-1	9.837745E-1	1.024995E+0	9.715613E-1	1.030093E+0	1.019093E+0	1.022469E+0	1.014802E+0	1.021990E+0	1.020506E+0	1.044551E+0	9.875261E-1	1.003137E+0	9.990308E-1	1.031386E+0	1.011970E+0	1.024181E+0	1.047538E+0	1.013249E+0	1.088551E+0	1.031538E+0	1.025259E+0	9.987128E-1	9.881316E-1	1.037386E+0	1.034466E+0	9.968204E-1	1.063884E+0	1.011875E+0	1.041888E+0	9.942583E-1	1.041937E+0	9.927927E-1	1.050550E+0	9.790721E-1	9.916969E-1	1.003086E+0	1.042087E+0	1.025877E+0	1.000576E+0	1.058137E+0	1.057110E+0	1.017382E+0	1.057608E+0	1.019112E+0	9.907400E-1	9.843287E-1	1.068483E+0	1.054327E+0	1.030027E+0	1.023911E+0	1.034671E+0	9.756469E-1	9.737614E-1	1.019635E+0	1.033501E+0	1.027255E+0	1.016019E+0	1.018291E+0	1.032508E+0	1.072552E+0	1.035895E+0	1.001360E+0	1.003991E+0	1.011674E+0	1.049633E+0	1.017968E+0	1.058963E+0	9.915888E-1	1.055897E+0	1.023607E+0	1.013349E+0	1.026805E+0	1.008096E+0	1.001616E+0	9.714519E-1	9.795925E-1	1.026564E+0	9.614125E-1	9.921408E-1	1.025441E+0	9.693450E-1	1.013683E+0	1.052513E+0	1.029529E+0	1.008368E+0	1.060221E+0	1.000769E+0	1.009108E+0	1.037704E+0	1.009713E+0	9.992471E-1	1.030490E+0	9.607780E-1	1.064029E+0	1.014193E+0	1.041496E+0	9.657553E-1	1.020290E+0	9.685738E-1	1.008310E+0	1.011241E+0	9.824374E-1	1.015841E+0	1.012264E+0	1.057247E+0	9.802331E-1	1.045139E+0	1.026665E+0	1.021319E+0	1.041260E+0	1.022145E+0	1.029985E+0	1.019022E+0	1.008607E+0	1.026861E+0	9.985064E-1	1.026546E+0	1.010040E+0	1.015273E+0	1.054525E+0	1.044483E+0	9.968618E-1	1.007966E+0	1.063417E+0	9.969696E-1	1.032132E+0	1.016157E+0	1.001452E+0	1.008162E+0	1.037583E+0	1.024476E+0	9.854822E-1	1.001603E+0	1.026319E+0	1.021312E+0	9.896883E-1	1.019735E+0	1.015647E+0	1.060649E+0	1.050249E+0	9.986297E-1	1.031495E+0	1.007573E+0	9.782833E-1	1.052512E+0	1.054594E+0	1.046401E+0	1.012892E+0	9.532803E-1	1.052186E+0	9.658654E-1	1.014075E+0	1.000089E+0	1.036312E+0	1.047456E+0	9.672430E-1	9.549421E-1
5.430120E+2	1.142507E+0	1.156083E+0	1.192202E+0	1.197871E+0	1.138933E+0	1.158343E+0	1.183842E+0	1.160880E+0	1.128563E+0	1.164903E+0	1.152232E+0	1.139230E+0	1.162235E+0	1.123595E+0	1.139312E+0	1.129862E+0	1.135014E+0	1.161738E+0	1.156326E+0	1.178208E+0	1.176557E+0	1.200866E+0	1.186362E+0	1.173735E+0	1.158160E+0	1.169937E+0	1.189602E+0	1.166833E+0	1.167051E+0	1.142592E+0	1.110463E+0	1.115591E+0	1.199506E+0	1.146681E+0	1.119090E+0	1.145785E+0	1.163185E+0	1.111952E+0	1.128477E+0	1.116285E+0	1.148234E+0	1.186794E+0	1.140338E+0	1.116070E+0	1.164135E+0	1.209817E+0	1.137974E+0	1.138083E+0	1.129072E+0	1.118955E+0	1.186554E+0	1.174990E+0	1.175357E+0	1.174587E+0	1.209718E+0	1.105878E+0	1.191749E+0	1.112017E+0	1.147037E+0	1.152994E+0	1.137118E+0	1.141023E+0	1.142274E+0	1.190108E+0	1.212223E+0	1.102997E+0	1.084901E+0	1.144590E+0	1.157984E+0	1.200108E+0	1.162492E+0	1.134316E+0	1.194353E+0	1.145473E+0	1.146727E+0	1.212803E+0	1.164155E+0	1.144581E+0	1.101740E+0	1.182564E+0	1.134482E+0	1.218490E+0	1.138468E+0	1.138399E+0	1.129672E+0	1.150335E+0	1.124726E+0	1.147266E+0	1.132552E+0	1.143247E+0	1.119964E+0	1.113936E+0	1.164674E+0	1.131951E+0	1.170762E+0	1.133515E+0	1.164440E+0	1.129840E+0	1.175360E+0	1.162930E+0	1.128863E+0	1.167828E+0	1.162291E+0	1.150805E+0	1.119420E+0	1.136004E+0	1.129928E+0	1.143666E+0	1.116129E+0	1.148606E+0	1.128167E+0	1.159298E+0	1.128228E+0	1.165370E+0	1.213365E+0	1.130364E+0	1.167603E+0	1.130293E+0	1.147494E+0	1.126766E+0	1.111016E+0	1.152631E+0	1.227272E+0	1.135862E+0	1.140525E+0	1.139329E+0	1.181580E+0	1.169424E+0	1.179755E+0	1.132414E+0	1.184484E+0	1.138525E+0	1.177275E+0	1.181156E+0	1.142935E+0	1.167323E+0	1.137267E+0	1.158089E+0	1.160258E+0	1.147595E+0	1.123662E+0	1.072063E+0	1.127805E+0	1.112524E+0	1.145927E+0	1.200801E+0	1.100743E+0	1.143153E+0	1.127057E+0	1.159243E+0	1.209383E+0	1.146040E+0	1.184982E+0	1.219142E+0	1.168127E+0	1.129802E+0	1.153262E+0	1.127689E+0	1.221176E+0	1.149338E+0	1.131863E+0	1.148199E+0	1.131063E+0	1.095983E+0	1.147636E+0	1.085217E+0	1.131962E+0	1.169550E+0	1.183005E+0	1.136724E+0	1.253108E+0
5.433070E+2	1.358086E+0	1.380986E+0	1.375540E+0	1.310955E+0	1.349569E+0	1.376739E+0	1.346431E+0	1.345722E+0	1.307554E+0	1.316095E+0	1.293440E+0	1.329438E+0	1.336985E+0	1.379640E+0	1.331089E+0	1.363101E+0	1.324718E+0	1.335551E+0	1.329722E+0	1.285688E+0	1.363714E+0	1.332262E+0	1.311336E+0	1.361785E+0	1.306055E+0	1.353272E+0	1.338474E+0	1.358565E+0	1.359169E+0	1.317736E+0	1.327987E+0	1.345879E+0	1.354012E+0	1.343581E+0	1.371056E+0	1.332659E+0	1.343568E+0	1.308340E+0	1.306048E+0	1.347516E+0	1.329425E+0	1.326000E+0	1.384422E+0	1.346121E+0	1.322963E+0	1.362001E+0	1.326935E+0	1.355536E+0	1.347982E+0	1.392774E+0	1.329445E+0	1.353315E+0	1.279528E+0	1.359535E+0	1.369768E+0	1.388205E+0	1.373872E+0	1.391847E+0	1.306523E+0	1.340887E+0	1.280413E+0	1.340512E+0	1.312061E+0	1.361459E+0	1.371937E+0	1.289972E+0	1.326809E+0	1.376271E+0	1.305600E+0	1.339929E+0	1.326541E+0	1.354505E+0	1.333217E+0	1.364757E+0	1.322466E+0	1.374059E+0	1.310294E+0	1.341188E+0	1.361339E+0	1.309890E+0	1.368492E+0	1.297132E+0	1.379102E+0	1.337131E+0	1.314095E+0	1.366547E+0	1.341859E+0	1.332563E+0	1.331616E+0	1.340173E+0	1.313320E+0	1.330815E+0	1.339169E+0	1.313396E+0	1.308438E+0	1.369435E+0	1.305300E+0	1.340575E+0	1.370883E+0	1.303433E+0	1.322082E+0	1.385857E+0	1.351197E+0	1.409976E+0	1.318361E+0	1.307985E+0	1.288544E+0	1.376758E+0	1.349026E+0	1.333028E+0	1.338010E+0	1.340138E+0	1.324924E+0	1.320144E+0	1.380002E+0	1.362023E+0	1.296559E+0	1.378746E+0	1.365191E+0	1.317044E+0	1.355132E+0	1.315128E+0	1.390133E+0	1.323779E+0	1.310773E+0	1.319868E+0	1.302015E+0	1.353371E+0	1.328690E+0	1.330976E+0	1.335645E+0	1.362862E+0	1.361254E+0	1.335868E+0	1.302407E+0	1.322776E+0	1.316287E+0	1.368409E+0	1.291087E+0	1.308947E+0	1.268765E+0	1.363136E+0	1.323367E+0	1.332066E+0	1.340213E+0	1.368917E+0	1.327110E+0	1.332550E+0	1.282706E+0	1.340938E+0	1.380198E+0	1.357042E+0	1.323802E+0	1.363803E+0	1.290038E+0	1.380279E+0	1.326226E+0	1.299672E+0	1.332457E+0	1.321847E+0	1.295970E+0	1.335697E+0	1.292436E+0	1.333600E+0	1.326483E+0	1.315271E+0	1.347034E+0	1.310346E+0	1.299207E+0	1.368225E+0	1.353985E+0
5.435220E+2	1.445348E+0	1.539815E+0	1.459043E+0	1.466660E+0	1.471199E+0	1.517655E+0	1.479801E+0	1.459550E+0	1.471967E+0	1.502011E+0	1.450038E+0	1.417912E+0	1.547302E+0	1.445480E+0	1.453048E+0	1.480046E+0	1.479384E+0	1.446794E+0	1.423044E+0	1.432835E+0	1.481896E+0	1.483563E+0	1.467316E+0	1.453169E+0	1.449650E+0	1.488713E+0	1.452803E+0	1.428090E+0	1.512786E+0	1.424357E+0	1.464857E+0	1.448536E+0	1.461953E+0	1.469328E+0	1.492000E+0	1.460021E+0	1.469985E+0	1.488532E+0	1.493642E+0	1.442667E+0	1.434785E+0	1.456736E+0	1.505352E+0	1.444448E+0	1.488234E+0	1.473025E+0	1.480736E+0	1.492810E+0	1.476002E+0	1.478364E+0	1.469197E+0	1.460441E+0	1.469261E+0	1.502954E+0	1.439894E+0	1.451559E+0	1.472420E+0	1.437610E+0	1.391934E+0	1.479534E+0	1.499365E+0	1.451255E+0	1.426296E+0	1.462156E+0	1.465863E+0	1.484193E+0	1.422973E+0	1.507837E+0	1.480045E+0	1.484237E+0	1.444104E+0	1.450709E+0	1.409852E+0	1.446384E+0	1.386210E+0	1.478134E+0	1.435207E+0	1.445438E+0	1.463094E+0	1.444887E+0	1.443016E+0	1.444967E+0	1.428421E+0	1.434874E+0	1.428043E+0	1.445373E+0	1.459962E+0	1.444622E+0	1.432084E+0	1.406959E+0	1.445052E+0	1.452716E+0	1.429131E+0	1.416654E+0	1.439768E+0	1.469626E+0	1.404329E+0	1.443892E+0	1.465835E+0	1.430054E+0	1.469610E+0	1.502671E+0	1.480994E+0	1.486453E+0	1.398177E+0	1.481178E+0	1.452789E+0	1.456688E+0	1.457390E+0	1.472127E+0	1.458812E+0	1.468067E+0	1.449805E+0	1.441757E+0	1.423205E+0	1.446276E+0	1.449240E+0	1.502978E+0	1.480580E+0	1.411405E+0	1.398915E+0	1.421679E+0	1.517572E+0	1.442410E+0	1.486935E+0	1.475779E+0	1.431398E+0	1.447633E+0	1.448433E+0	1.440778E+0	1.478545E+0	1.397613E+0	1.428694E+0	1.500077E+0	1.481251E+0	1.462516E+0	1.475148E+0	1.466325E+0	1.426917E+0	1.476284E+0	1.460155E+0	1.438183E+0	1.428466E+0	1.444457E+0	1.380490E+0	1.464026E+0	1.456555E+0	1.471328E+0	1.464419E+0	1.413701E+0	1.493156E+0	1.456828E+0	1.473252E+0	1.445812E+0	1.387835E+0	1.441489E+0	1.422724E+0	1.437144E+0	1.460731E+0	1.409297E+0	1.439615E+0	1.456224E+0	1.421759E+0	1.453741E+0	1.458712E+0	1.407349E+0	1.487159E+0	1.461876E+0	1.436694E+0	1.501723E+0	1.437090E+0
5.437690E+2	1.589339E+0	1.636796E+0	1.614741E+0	1.581544E+0	1.618273E+0	1.626980E+0	1.606858E+0	1.560937E+0	1.541489E+0	1.625910E+0	1.575180E+0	1.576836E+0	1.572040E+0	1.573526E+0	1.601677E+0	1.535583E+0	1.637279E+0	1.601281E+0	1.543342E+0	1.545516E+0	1.587001E+0	1.599792E+0	1.626228E+0	1.585301E+0	1.561624E+0	1.568462E+0	1.572036E+0	1.588061E+0	1.554658E+0	1.568782E+0	1.644209E+0	1.542064E+0	1.588298E+0	1.587908E+0	1.554831E+0	1.570159E+0	1.536089E+0	1.592700E+0	1.545335E+0	1.541016E+0	1.594675E+0	1.615274E+0	1.572324E+0	1.518089E+0	1.549364E+0	1.570424E+0	1.564346E+0	1.602611E+0	1.559182E+0	1.610684E+0	1.526446E+0	1.552486E+0	1.615910E+0	1.639509E+0	1.592736E+0	1.548140E+0	1.607247E+0	1.572201E+0	1.554275E+0	1.545960E+0	1.554626E+0	1.563894E+0	1.611583E+0	1.547207E+0	1.578390E+0	1.529606E+0	1.539497E+0	1.574619E+0	1.577881E+0	1.500130E+0	1.579890E+0	1.615303E+0	1.570655E+0	1.558150E+0	1.627080E+0	1.576216E+0	1.574730E+0	1.555833E+0	1.546565E+0	1.602015E+0	1.536204E+0	1.575217E+0	1.579556E+0	1.602796E+0	1.548343E+0	1.561100E+0	1.525432E+0	1.605482E+0	1.595262E+0	1.559566E+0	1.560279E+0	1.560552E+0	1.558137E+0	1.555679E+0	1.540229E+0	1.539292E+0	1.559483E+0	1.560558E+0	1.581675E+0	1.534696E+0	1.553792E+0	1.607127E+0	1.537957E+0	1.533700E+0	1.534673E+0	1.629860E+0	1.520384E+0	1.667318E+0	1.600857E+0	1.594599E+0	1.580898E+0	1.549937E+0	1.525307E+0	1.531332E+0	1.547956E+0	1.521983E+0	1.569200E+0	1.549921E+0	1.534382E+0	1.546878E+0	1.599842E+0	1.578568E+0	1.570900E+0	1.535242E+0	1.503128E+0	1.524341E+0	1.610842E+0	1.535945E+0	1.588410E+0	1.533387E+0	1.562566E+0	1.564170E+0	1.538083E+0	1.539973E+0	1.588450E+0	1.530643E+0	1.505783E+0	1.573423E+0	1.551191E+0	1.565574E+0	1.562714E+0	1.588076E+0	1.606852E+0	1.514492E+0	1.493408E+0	1.552474E+0	1.521099E+0	1.550544E+0	1.555187E+0	1.560519E+0	1.583882E+0	1.555350E+0	1.525407E+0	1.574554E+0	1.535676E+0	1.571782E+0	1.511038E+0	1.562891E+0	1.577134E+0	1.589161E+0	1.565950E+0	1.595413E+0	1.535251E+0	1.586695E+0	1.521513E+0	1.568365E+0	1.630254E+0	1.640322E+0	1.520443E+0	1.459729E+0	1.541655E+0
5.440170E+2	1.616248E+0	1.598910E+0	1.631365E+0	1.618893E+0	1.595324E+0	1.637643E+0	1.572164E+0	1.673098E+0	1.572588E+0	1.618519E+0	1.572814E+0	1.584702E+0	1.648291E+0	1.604707E+0	1.600582E+0	1.577769E+0	1.619668E+0	1.578903E+0	1.607340E+0	1.611561E+0	1.605920E+0	1.581828E+0	1.639805E+0	1.541981E+0	1.604399E+0	1.590180E+0	1.582048E+0	1.590658E+0	1.578863E+0	1.615519E+0	1.568058E+0	1.600579E+0	1.598629E+0	1.574093E+0	1.607824E+0	1.606786E+0	1.602930E+0	1.591644E+0	1.574158E+0	1.621011E+0	1.610486E+0	1.597325E+0	1.647115E+0	1.577615E+0	1.563976E+0	1.561776E+0	1.606214E+0	1.592765E+0	1.563971E+0	1.561511E+0	1.640823E+0	1.631712E+0	1.597214E+0	1.641515E+0	1.593299E+0	1.580787E+0	1.588008E+0	1.647309E+0	1.559919E+0	1.588172E+0	1.533913E+0	1.523403E+0	1.599003E+0	1.592307E+0	1.627551E+0	1.603746E+0	1.607145E+0	1.569258E+0	1.591652E+0	1.592568E+0	1.548321E+0	1.598726E+0	1.587816E+0	1.595983E+0	1.586625E+0	1.592047E+0	1.554068E+0	1.576032E+0	1.572380E+0	1.545236E+0	1.544909E+0	1.583427E+0	1.567106E+0	1.567411E+0	1.556205E+0	1.596734E+0	1.604404E+0	1.551225E+0	1.475033E+0	1.584457E+0	1.587018E+0	1.570107E+0	1.580080E+0	1.533171E+0	1.611357E+0	1.574161E+0	1.576492E+0	1.544371E+0	1.532781E+0	1.593132E+0	1.531011E+0	1.578577E+0	1.558839E+0	1.604150E+0	1.533211E+0	1.615189E+0	1.541523E+0	1.552117E+0	1.535039E+0	1.638355E+0	1.582439E+0	1.552111E+0	1.560721E+0	1.545768E+0	1.553919E+0	1.621829E+0	1.555512E+0	1.534477E+0	1.612875E+0	1.495557E+0	1.622847E+0	1.502603E+0	1.562985E+0	1.593027E+0	1.565661E+0	1.556443E+0	1.565330E+0	1.579882E+0	1.625765E+0	1.565966E+0	1.541549E+0	1.576092E+0	1.557801E+0	1.602891E+0	1.554348E+0	1.576148E+0	1.531216E+0	1.527391E+0	1.608114E+0	1.566815E+0	1.515236E+0	1.641553E+0	1.548922E+0	1.512347E+0	1.544742E+0	1.582686E+0	1.532681E+0	1.587410E+0	1.550194E+0	1.564709E+0	1.579244E+0	1.544975E+0	1.586286E+0	1.597927E+0	1.558471E+0	1.549758E+0	1.527474E+0	1.575727E+0	1.573777E+0	1.550033E+0	1.542229E+0	1.560983E+0	1.565334E+0	1.530402E+0	1.478591E+0	1.532186E+0	1.571602E+0	1.527191E+0	1.556376E+0	1.537539E+0	1.510460E+0
5.442920E+2	1.617953E+0	1.637391E+0	1.634138E+0	1.570874E+0	1.629653E+0	1.668374E+0	1.642482E+0	1.631684E+0	1.520504E+0	1.670553E+0	1.653675E+0	1.638163E+0	1.649968E+0	1.541574E+0	1.624296E+0	1.598773E+0	1.639543E+0	1.628351E+0	1.650435E+0	1.646923E+0	1.611259E+0	1.667290E+0	1.611030E+0	1.638181E+0	1.583524E+0	1.593322E+0	1.601621E+0	1.591958E+0	1.589715E+0	1.619897E+0	1.564045E+0	1.627885E+0	1.634903E+0	1.596320E+0	1.659221E+0	1.617079E+0	1.622010E+0	1.588376E+0	1.615142E+0	1.591956E+0	1.630525E+0	1.587883E+0	1.632545E+0	1.644905E+0	1.561663E+0	1.623960E+0	1.654288E+0	1.650086E+0	1.595940E+0	1.623804E+0	1.629164E+0	1.586993E+0	1.569075E+0	1.631873E+0	1.631325E+0	1.576035E+0	1.593082E+0	1.586799E+0	1.571416E+0	1.598661E+0	1.584680E+0	1.631619E+0	1.552591E+0	1.578600E+0	1.640829E+0	1.602111E+0	1.559814E+0	1.564609E+0	1.587832E+0	1.560245E+0	1.574827E+0	1.647129E+0	1.552418E+0	1.614848E+0	1.614449E+0	1.610978E+0	1.512726E+0	1.549293E+0	1.592460E+0	1.640240E+0	1.620825E+0	1.590628E+0	1.631480E+0	1.588917E+0	1.558304E+0	1.583080E+0	1.645030E+0	1.628435E+0	1.606204E+0	1.626689E+0	1.602767E+0	1.531564E+0	1.606906E+0	1.617016E+0	1.578582E+0	1.574972E+0	1.554016E+0	1.583090E+0	1.580370E+0	1.584408E+0	1.561737E+0	1.621674E+0	1.613158E+0	1.554156E+0	1.559393E+0	1.611805E+0	1.599356E+0	1.622969E+0	1.599724E+0	1.616373E+0	1.535758E+0	1.575162E+0	1.492105E+0	1.600003E+0	1.608085E+0	1.599800E+0	1.544528E+0	1.546725E+0	1.629476E+0	1.574019E+0	1.620096E+0	1.616594E+0	1.603597E+0	1.533615E+0	1.563512E+0	1.575040E+0	1.545859E+0	1.545348E+0	1.663759E+0	1.514888E+0	1.602731E+0	1.571114E+0	1.573926E+0	1.646766E+0	1.609509E+0	1.596978E+0	1.628023E+0	1.636059E+0	1.524669E+0	1.607852E+0	1.518005E+0	1.611415E+0	1.528371E+0	1.487195E+0	1.559331E+0	1.594635E+0	1.566796E+0	1.634588E+0	1.570187E+0	1.599282E+0	1.601425E+0	1.566772E+0	1.560789E+0	1.574710E+0	1.512510E+0	1.580155E+0	1.563170E+0	1.605761E+0	1.569558E+0	1.509921E+0	1.617311E+0	1.576679E+0	1.526299E+0	1.565299E+0	1.493215E+0	1.579278E+0	1.558815E+0	1.601950E+0	1.556697E+0	1.487347E+0	1.627068E+0
5.445240E+2	1.585447E+0	1.567790E+0	1.584650E+0	1.565418E+0	1.559102E+0	1.584187E+0	1.559206E+0	1.605562E+0	1.498451E+0	1.563283E+0	1.531967E+0	1.587505E+0	1.588146E+0	1.502225E+0	1.592790E+0	1.580325E+0	1.580827E+0	1.535300E+0	1.520399E+0	1.561718E+0	1.529797E+0	1.548688E+0	1.560375E+0	1.588482E+0	1.483979E+0	1.537878E+0	1.566467E+0	1.589346E+0	1.525681E+0	1.598973E+0	1.577146E+0	1.574176E+0	1.571983E+0	1.611160E+0	1.537689E+0	1.570608E+0	1.538152E+0	1.534623E+0	1.583638E+0	1.609788E+0	1.550796E+0	1.608549E+0	1.572529E+0	1.566618E+0	1.521574E+0	1.577352E+0	1.547450E+0	1.590344E+0	1.510226E+0	1.600047E+0	1.597293E+0	1.542129E+0	1.561819E+0	1.552689E+0	1.572196E+0	1.511728E+0	1.598525E+0	1.619317E+0	1.586863E+0	1.533847E+0	1.550209E+0	1.551813E+0	1.500932E+0	1.556445E+0	1.600924E+0	1.578593E+0	1.484394E+0	1.562584E+0	1.574142E+0	1.589583E+0	1.538951E+0	1.563963E+0	1.571545E+0	1.601150E+0	1.528692E+0	1.592592E+0	1.548102E+0	1.555615E+0	1.561203E+0	1.553614E+0	1.585508E+0	1.614384E+0	1.569995E+0	1.553286E+0	1.577134E+0	1.595466E+0	1.566438E+0	1.557995E+0	1.561993E+0	1.580495E+0	1.558855E+0	1.550419E+0	1.532418E+0	1.549810E+0	1.552597E+0	1.539355E+0	1.530891E+0	1.513054E+0	1.565254E+0	1.565522E+0	1.543350E+0	1.621744E+0	1.537099E+0	1.591265E+0	1.578159E+0	1.557451E+0	1.535727E+0	1.575269E+0	1.569351E+0	1.582244E+0	1.528189E+0	1.536326E+0	1.559726E+0	1.574639E+0	1.547438E+0	1.572508E+0	1.560792E+0	1.549319E+0	1.513725E+0	1.525351E+0	1.521385E+0	1.595915E+0	1.582791E+0	1.587735E+0	1.577822E+0	1.532915E+0	1.558205E+0	1.573699E+0	1.526155E+0	1.578355E+0	1.601853E+0	1.553075E+0	1.509265E+0	1.545304E+0	1.599077E+0	1.561112E+0	1.532808E+0	1.532927E+0	1.560182E+0	1.579051E+0	1.524426E+0	1.538335E+0	1.482693E+0	1.548074E+0	1.538487E+0	1.611694E+0	1.544492E+0	1.536019E+0	1.528492E+0	1.504627E+0	1.558066E+0	1.573917E+0	1.548492E+0	1.565816E+0	1.573540E+0	1.574165E+0	1.523121E+0	1.486587E+0	1.508552E+0	1.530945E+0	1.573033E+0	1.548823E+0	1.539394E+0	1.523660E+0	1.532812E+0	1.575260E+0	1.577716E+0	1.527131E+0	1.505413E+0	1.536769E+0	1.605436E+0
5.447720E+2	1.528975E+0	1.572099E+0	1.547514E+0	1.492357E+0	1.466522E+0	1.530600E+0	1.515532E+0	1.557831E+0	1.493503E+0	1.481902E+0	1.573417E+0	1.533718E+0	1.538688E+0	1.492017E+0	1.504730E+0	1.551500E+0	1.537936E+0	1.477014E+0	1.484049E+0	1.503404E+0	1.515841E+0	1.487520E+0	1.505119E+0	1.525270E+0	1.401841E+0	1.483591E+0	1.443578E+0	1.513131E+0	1.515619E+0	1.482839E+0	1.510863E+0	1.504053E+0	1.533331E+0	1.505934E+0	1.562268E+0	1.476390E+0	1.474314E+0	1.456887E+0	1.496363E+0	1.509896E+0	1.536102E+0	1.503609E+0	1.531312E+0	1.496392E+0	1.522526E+0	1.510430E+0	1.531295E+0	1.422205E+0	1.490675E+0	1.483558E+0	1.581611E+0	1.465310E+0	1.537034E+0	1.537268E+0	1.534302E+0	1.500678E+0	1.548734E+0	1.503278E+0	1.493202E+0	1.499610E+0	1.487835E+0	1.505545E+0	1.505074E+0	1.492264E+0	1.544865E+0	1.516924E+0	1.491914E+0	1.478218E+0	1.519426E+0	1.536081E+0	1.529536E+0	1.456699E+0	1.461471E+0	1.513407E+0	1.499761E+0	1.546708E+0	1.479185E+0	1.523551E+0	1.471818E+0	1.493843E+0	1.436318E+0	1.479545E+0	1.499160E+0	1.527519E+0	1.489745E+0	1.570085E+0	1.481048E+0	1.514081E+0	1.517340E+0	1.473355E+0	1.509169E+0	1.490717E+0	1.481260E+0	1.512914E+0	1.473107E+0	1.493422E+0	1.533183E+0	1.569540E+0	1.480206E+0	1.501777E+0	1.497597E+0	1.524670E+0	1.507612E+0	1.521139E+0	1.459445E+0	1.531733E+0	1.475759E+0	1.426626E+0	1.529081E+0	1.516414E+0	1.493574E+0	1.506205E+0	1.451734E+0	1.463155E+0	1.481761E+0	1.533160E+0	1.437894E+0	1.497562E+0	1.488161E+0	1.429808E+0	1.443605E+0	1.476001E+0	1.531500E+0	1.447148E+0	1.463938E+0	1.492804E+0	1.493284E+0	1.483597E+0	1.511834E+0	1.438531E+0	1.474000E+0	1.499716E+0	1.481633E+0	1.500103E+0	1.514314E+0	1.484320E+0	1.539078E+0	1.496928E+0	1.501069E+0	1.476883E+0	1.490951E+0	1.483935E+0	1.482069E+0	1.496282E+0	1.517153E+0	1.492164E+0	1.456709E+0	1.493639E+0	1.458090E+0	1.479403E+0	1.493032E+0	1.463063E+0	1.535839E+0	1.488465E+0	1.441734E+0	1.543371E+0	1.476152E+0	1.507106E+0	1.486486E+0	1.459334E+0	1.479186E+0	1.475323E+0	1.449414E+0	1.458491E+0	1.470467E+0	1.472671E+0	1.509808E+0	1.494576E+0	1.476023E+0	1.466084E+0	1.317220E+0
5.450150E+2	1.386099E+0	1.420127E+0	1.358538E+0	1.378416E+0	1.385680E+0	1.419939E+0	1.391918E+0	1.381974E+0	1.343394E+0	1.378085E+0	1.349533E+0	1.434209E+0	1.385744E+0	1.354591E+0	1.415265E+0	1.374464E+0	1.396767E+0	1.426221E+0	1.384488E+0	1.383547E+0	1.396257E+0	1.334090E+0	1.416867E+0	1.436508E+0	1.318849E+0	1.382614E+0	1.347829E+0	1.393723E+0	1.441757E+0	1.405653E+0	1.364693E+0	1.336640E+0	1.435702E+0	1.353453E+0	1.441210E+0	1.414525E+0	1.344366E+0	1.338989E+0	1.414634E+0	1.377014E+0	1.402249E+0	1.362705E+0	1.399317E+0	1.386732E+0	1.395551E+0	1.346862E+0	1.352468E+0	1.410569E+0	1.329897E+0	1.345083E+0	1.431635E+0	1.370746E+0	1.337562E+0	1.332787E+0	1.389670E+0	1.380442E+0	1.397568E+0	1.400039E+0	1.355081E+0	1.346350E+0	1.411444E+0	1.362266E+0	1.346656E+0	1.401521E+0	1.402351E+0	1.387978E+0	1.392320E+0	1.344004E+0	1.411496E+0	1.329874E+0	1.430087E+0	1.350776E+0	1.355909E+0	1.424250E+0	1.312590E+0	1.387098E+0	1.381113E+0	1.345502E+0	1.379216E+0	1.353254E+0	1.377124E+0	1.393242E+0	1.338948E+0	1.314587E+0	1.355296E+0	1.313840E+0	1.391199E+0	1.316723E+0	1.349682E+0	1.310553E+0	1.388248E+0	1.341042E+0	1.330384E+0	1.400489E+0	1.394348E+0	1.380720E+0	1.386847E+0	1.358062E+0	1.386572E+0	1.369306E+0	1.346998E+0	1.434670E+0	1.392573E+0	1.433770E+0	1.305119E+0	1.368764E+0	1.395824E+0	1.442734E+0	1.334909E+0	1.370952E+0	1.379080E+0	1.357760E+0	1.354304E+0	1.363375E+0	1.349553E+0	1.378617E+0	1.328037E+0	1.332848E+0	1.407331E+0	1.317456E+0	1.356366E+0	1.331810E+0	1.399070E+0	1.439466E+0	1.329521E+0	1.385943E+0	1.440962E+0	1.322657E+0	1.335883E+0	1.392182E+0	1.386799E+0	1.389580E+0	1.337326E+0	1.391560E+0	1.378333E+0	1.366229E+0	1.377906E+0	1.351019E+0	1.366910E+0	1.386515E+0	1.345974E+0	1.340416E+0	1.343062E+0	1.393081E+0	1.346264E+0	1.409247E+0	1.333387E+0	1.433446E+0	1.347807E+0	1.366550E+0	1.391615E+0	1.421278E+0	1.430909E+0	1.426704E+0	1.345826E+0	1.406985E+0	1.358096E+0	1.331884E+0	1.383920E+0	1.366848E+0	1.380813E+0	1.439812E+0	1.360324E+0	1.409574E+0	1.347871E+0	1.354580E+0	1.375536E+0	1.400824E+0	1.364514E+0	1.368236E+0	1.318216E+0
5.452580E+2	1.311698E+0	1.249345E+0	1.323825E+0	1.276879E+0	1.278111E+0	1.282654E+0	1.323464E+0	1.302695E+0	1.278184E+0	1.285164E+0	1.320975E+0	1.316315E+0	1.338586E+0	1.271073E+0	1.338453E+0	1.274733E+0	1.274968E+0	1.268388E+0	1.363259E+0	1.352487E+0	1.299765E+0	1.312014E+0	1.310170E+0	1.332544E+0	1.316067E+0	1.323621E+0	1.351984E+0	1.344560E+0	1.313378E+0	1.271920E+0	1.334594E+0	1.307658E+0	1.328932E+0	1.318905E+0	1.295896E+0	1.322069E+0	1.278092E+0	1.280918E+0	1.326037E+0	1.329517E+0	1.320839E+0	1.320937E+0	1.297119E+0	1.297718E+0	1.246060E+0	1.303866E+0	1.297554E+0	1.301636E+0	1.312738E+0	1.274289E+0	1.260144E+0	1.280636E+0	1.280712E+0	1.271166E+0	1.322552E+0	1.273905E+0	1.308009E+0	1.319812E+0	1.328858E+0	1.291769E+0	1.323298E+0	1.312213E+0	1.312922E+0	1.343357E+0	1.310066E+0	1.285295E+0	1.326472E+0	1.239392E+0	1.346351E+0	1.279180E+0	1.328376E+0	1.309186E+0	1.316050E+0	1.272344E+0	1.313709E+0	1.304537E+0	1.270998E+0	1.320116E+0	1.264495E+0	1.333353E+0	1.319502E+0	1.301767E+0	1.280016E+0	1.314327E+0	1.280109E+0	1.267336E+0	1.320697E+0	1.352453E+0	1.280423E+0	1.280775E+0	1.287478E+0	1.282021E+0	1.241247E+0	1.300085E+0	1.306636E+0	1.290561E+0	1.341067E+0	1.308332E+0	1.298738E+0	1.285715E+0	1.305727E+0	1.266090E+0	1.330850E+0	1.324853E+0	1.331891E+0	1.302409E+0	1.336949E+0	1.327410E+0	1.288199E+0	1.304448E+0	1.286170E+0	1.317673E+0	1.268933E+0	1.301498E+0	1.240522E+0	1.342457E+0	1.277135E+0	1.269025E+0	1.364654E+0	1.259961E+0	1.277085E+0	1.276107E+0	1.338672E+0	1.287627E+0	1.286532E+0	1.282606E+0	1.309843E+0	1.315146E+0	1.326950E+0	1.319813E+0	1.328849E+0	1.274230E+0	1.251471E+0	1.323983E+0	1.314580E+0	1.322930E+0	1.336089E+0	1.299752E+0	1.253456E+0	1.290461E+0	1.312684E+0	1.285875E+0	1.290860E+0	1.270113E+0	1.274679E+0	1.336650E+0	1.297383E+0	1.285486E+0	1.286019E+0	1.251497E+0	1.306187E+0	1.295036E+0	1.288277E+0	1.277019E+0	1.297292E+0	1.293122E+0	1.241081E+0	1.302314E+0	1.308811E+0	1.291681E+0	1.274251E+0	1.295161E+0	1.253392E+0	1.299459E+0	1.305864E+0	1.248817E+0	1.341313E+0	1.250081E+0	1.278774E+0	1.240201E+0	1.190426E+0
5.455500E+2	1.277763E+0	1.225905E+0	1.218574E+0	1.273101E+0	1.224215E+0	1.243925E+0	1.254004E+0	1.205571E+0	1.236733E+0	1.238091E+0	1.216428E+0	1.187181E+0	1.210544E+0	1.194299E+0	1.232526E+0	1.215194E+0	1.255730E+0	1.215658E+0	1.249983E+0	1.201309E+0	1.223054E+0	1.182713E+0	1.247844E+0	1.250519E+0	1.217440E+0	1.268749E+0	1.229964E+0	1.211556E+0	1.210311E+0	1.200953E+0	1.234606E+0	1.243084E+0	1.246942E+0	1.204084E+0	1.244643E+0	1.247308E+0	1.220576E+0	1.224315E+0	1.238391E+0	1.246797E+0	1.256704E+0	1.209597E+0	1.271259E+0	1.217589E+0	1.215681E+0	1.248130E+0	1.186501E+0	1.254308E+0	1.179190E+0	1.262423E+0	1.254910E+0	1.199172E+0	1.226272E+0	1.204665E+0	1.246321E+0	1.232856E+0	1.242390E+0	1.220404E+0	1.175368E+0	1.231822E+0	1.213338E+0	1.218290E+0	1.241696E+0	1.247618E+0	1.211352E+0	1.213909E+0	1.241290E+0	1.231644E+0	1.217449E+0	1.242245E+0	1.225486E+0	1.226465E+0	1.192479E+0	1.186357E+0	1.212606E+0	1.233237E+0	1.228363E+0	1.222777E+0	1.193923E+0	1.172295E+0	1.224041E+0	1.249438E+0	1.269204E+0	1.193577E+0	1.183184E+0	1.227866E+0	1.251071E+0	1.225516E+0	1.205572E+0	1.239312E+0	1.216188E+0	1.182373E+0	1.232627E+0	1.219456E+0	1.214149E+0	1.193439E+0	1.203940E+0	1.163117E+0	1.165277E+0	1.193291E+0	1.190098E+0	1.230744E+0	1.212853E+0	1.232849E+0	1.205468E+0	1.221767E+0	1.208910E+0	1.231740E+0	1.200690E+0	1.224418E+0	1.175109E+0	1.236651E+0	1.241256E+0	1.197955E+0	1.234252E+0	1.235178E+0	1.213438E+0	1.178425E+0	1.241236E+0	1.208438E+0	1.183424E+0	1.168129E+0	1.215622E+0	1.253503E+0	1.269826E+0	1.198941E+0	1.235871E+0	1.201766E+0	1.249018E+0	1.256966E+0	1.212665E+0	1.179448E+0	1.226327E+0	1.208574E+0	1.246032E+0	1.220380E+0	1.240153E+0	1.224997E+0	1.210923E+0	1.194107E+0	1.213274E+0	1.192980E+0	1.226710E+0	1.291024E+0	1.212335E+0	1.236789E+0	1.228554E+0	1.236410E+0	1.163805E+0	1.180140E+0	1.235358E+0	1.250530E+0	1.200871E+0	1.201178E+0	1.210316E+0	1.189495E+0	1.179751E+0	1.197678E+0	1.250817E+0	1.208311E+0	1.239683E+0	1.186455E+0	1.185283E+0	1.240697E+0	1.221779E+0	1.177597E+0	1.219299E+0	1.257307E+0	1.187306E+0	1.189119E+0	1.197749E+0
5.457830E+2	1.241872E+0	1.198398E+0	1.206228E+0	1.203444E+0	1.175426E+0	1.234192E+0	1.190902E+0	1.241746E+0	1.169633E+0	1.179797E+0	1.217752E+0	1.208976E+0	1.272146E+0	1.188261E+0	1.195544E+0	1.212149E+0	1.178007E+0	1.230562E+0	1.217011E+0	1.216924E+0	1.179256E+0	1.212154E+0	1.213353E+0	1.221458E+0	1.189959E+0	1.180711E+0	1.223987E+0	1.189597E+0	1.233657E+0	1.241889E+0	1.207177E+0	1.178994E+0	1.214135E+0	1.198352E+0	1.243968E+0	1.225467E+0	1.224630E+0	1.162841E+0	1.175868E+0	1.234180E+0	1.206300E+0	1.204921E+0	1.308377E+0	1.193263E+0	1.260473E+0	1.241557E+0	1.215526E+0	1.221864E+0	1.181540E+0	1.171772E+0	1.217803E+0	1.192411E+0	1.201815E+0	1.226459E+0	1.244414E+0	1.233249E+0	1.241710E+0	1.197729E+0	1.160177E+0	1.191535E+0	1.199409E+0	1.194650E+0	1.203062E+0	1.211879E+0	1.180137E+0	1.200536E+0	1.232605E+0	1.226489E+0	1.213157E+0	1.213229E+0	1.240207E+0	1.151473E+0	1.205334E+0	1.199615E+0	1.218931E+0	1.234099E+0	1.181212E+0	1.180852E+0	1.209942E+0	1.232545E+0	1.173590E+0	1.177397E+0	1.198536E+0	1.231227E+0	1.208652E+0	1.225501E+0	1.213653E+0	1.170290E+0	1.181410E+0	1.188980E+0	1.207040E+0	1.202398E+0	1.211430E+0	1.158724E+0	1.204693E+0	1.196130E+0	1.211016E+0	1.219330E+0	1.193173E+0	1.229837E+0	1.163174E+0	1.222016E+0	1.218202E+0	1.247973E+0	1.220621E+0	1.182760E+0	1.211290E+0	1.233111E+0	1.193196E+0	1.231000E+0	1.194962E+0	1.221908E+0	1.214325E+0	1.173165E+0	1.191664E+0	1.236732E+0	1.194134E+0	1.210762E+0	1.248406E+0	1.163934E+0	1.145065E+0	1.164065E+0	1.195783E+0	1.172320E+0	1.152183E+0	1.223251E+0	1.251051E+0	1.202044E+0	1.222083E+0	1.162237E+0	1.224461E+0	1.184605E+0	1.172847E+0	1.178098E+0	1.201817E+0	1.171270E+0	1.193137E+0	1.203676E+0	1.192870E+0	1.227666E+0	1.208532E+0	1.232008E+0	1.186729E+0	1.228645E+0	1.163206E+0	1.182526E+0	1.263222E+0	1.195767E+0	1.205466E+0	1.184102E+0	1.234715E+0	1.213997E+0	1.193510E+0	1.223927E+0	1.202764E+0	1.255701E+0	1.240855E+0	1.205023E+0	1.214687E+0	1.194753E+0	1.197174E+0	1.192190E+0	1.152552E+0	1.199975E+0	1.215507E+0	1.231696E+0	1.223061E+0	1.238602E+0	1.180525E+0	1.194876E+0	1.183268E+0
5.460060E+2	1.239740E+0	1.173458E+0	1.208959E+0	1.196070E+0	1.245814E+0	1.204820E+0	1.209436E+0	1.196799E+0	1.205255E+0	1.190809E+0	1.178654E+0	1.201380E+0	1.200453E+0	1.164202E+0	1.200548E+0	1.211824E+0	1.200163E+0	1.216981E+0	1.177235E+0	1.161136E+0	1.218398E+0	1.216648E+0	1.194162E+0	1.224162E+0	1.218089E+0	1.210419E+0	1.210105E+0	1.154010E+0	1.197959E+0	1.198142E+0	1.213790E+0	1.192854E+0	1.232895E+0	1.130736E+0	1.184760E+0	1.236679E+0	1.234802E+0	1.153783E+0	1.231035E+0	1.187823E+0	1.208785E+0	1.138621E+0	1.247666E+0	1.163422E+0	1.193728E+0	1.178860E+0	1.165554E+0	1.228021E+0	1.196372E+0	1.245298E+0	1.239788E+0	1.204227E+0	1.201983E+0	1.167161E+0	1.211441E+0	1.213479E+0	1.226087E+0	1.176219E+0	1.194272E+0	1.259774E+0	1.210891E+0	1.193214E+0	1.207629E+0	1.216042E+0	1.207522E+0	1.165296E+0	1.201823E+0	1.249346E+0	1.199070E+0	1.190497E+0	1.235380E+0	1.215245E+0	1.157777E+0	1.192562E+0	1.215077E+0	1.178862E+0	1.237905E+0	1.183309E+0	1.206880E+0	1.194316E+0	1.192655E+0	1.199699E+0	1.182318E+0	1.217169E+0	1.155193E+0	1.214679E+0	1.243656E+0	1.166836E+0	1.195107E+0	1.164046E+0	1.206438E+0	1.188181E+0	1.221308E+0	1.204212E+0	1.140238E+0	1.171211E+0	1.128214E+0	1.172000E+0	1.240016E+0	1.199046E+0	1.176864E+0	1.217102E+0	1.233646E+0	1.199047E+0	1.191883E+0	1.192311E+0	1.228678E+0	1.178970E+0	1.204081E+0	1.221836E+0	1.199193E+0	1.199300E+0	1.190334E+0	1.172150E+0	1.135778E+0	1.169764E+0	1.156303E+0	1.182119E+0	1.195733E+0	1.161905E+0	1.197722E+0	1.143375E+0	1.218067E+0	1.239728E+0	1.151794E+0	1.227622E+0	1.196194E+0	1.219385E+0	1.184459E+0	1.208130E+0	1.265469E+0	1.201127E+0	1.196550E+0	1.175969E+0	1.241608E+0	1.171415E+0	1.205417E+0	1.207073E+0	1.230563E+0	1.224679E+0	1.170336E+0	1.180537E+0	1.218640E+0	1.230590E+0	1.157691E+0	1.244874E+0	1.238204E+0	1.194752E+0	1.174338E+0	1.168794E+0	1.220814E+0	1.254804E+0	1.199003E+0	1.197182E+0	1.178511E+0	1.160438E+0	1.203703E+0	1.168805E+0	1.237252E+0	1.186007E+0	1.194875E+0	1.199823E+0	1.195710E+0	1.240938E+0	1.199571E+0	1.170283E+0	1.182160E+0	1.220849E+0	1.241987E+0	1.202760E+0	1.196313E+0
5.467710E+2	1.237240E+0	1.254153E+0	1.239238E+0	1.244435E+0	1.243031E+0	1.289327E+0	1.253184E+0	1.279845E+0	1.233087E+0	1.264881E+0	1.227498E+0	1.228355E+0	1.297084E+0	1.233294E+0	1.242174E+0	1.262110E+0	1.277860E+0	1.251942E+0	1.226557E+0	1.269275E+0	1.223126E+0	1.258509E+0	1.317746E+0	1.301099E+0	1.193558E+0	1.283338E+0	1.249508E+0	1.223881E+0	1.258671E+0	1.210739E+0	1.267839E+0	1.293185E+0	1.262514E+0	1.294683E+0	1.254353E+0	1.236693E+0	1.254408E+0	1.215358E+0	1.248825E+0	1.274622E+0	1.265008E+0	1.241936E+0	1.278126E+0	1.244151E+0	1.233653E+0	1.257446E+0	1.301766E+0	1.245336E+0	1.258027E+0	1.212921E+0	1.279956E+0	1.252476E+0	1.278839E+0	1.276542E+0	1.323541E+0	1.268409E+0	1.268138E+0	1.269125E+0	1.245766E+0	1.262451E+0	1.254713E+0	1.208597E+0	1.254639E+0	1.247034E+0	1.229703E+0	1.250560E+0	1.215005E+0	1.252141E+0	1.288745E+0	1.267484E+0	1.274501E+0	1.217809E+0	1.249846E+0	1.299386E+0	1.233339E+0	1.271720E+0	1.245454E+0	1.269608E+0	1.252025E+0	1.235318E+0	1.180361E+0	1.224413E+0	1.211690E+0	1.234381E+0	1.231073E+0	1.250979E+0	1.281754E+0	1.303700E+0	1.249852E+0	1.177234E+0	1.244838E+0	1.239573E+0	1.239429E+0	1.222801E+0	1.310506E+0	1.252568E+0	1.228269E+0	1.219687E+0	1.231609E+0	1.196044E+0	1.250175E+0	1.240389E+0	1.205952E+0	1.243433E+0	1.200998E+0	1.282893E+0	1.282953E+0	1.255989E+0	1.235414E+0	1.259957E+0	1.212883E+0	1.248726E+0	1.187512E+0	1.263657E+0	1.249011E+0	1.283350E+0	1.243762E+0	1.242798E+0	1.303790E+0	1.261892E+0	1.229518E+0	1.217425E+0	1.294180E+0	1.292584E+0	1.254532E+0	1.282603E+0	1.296625E+0	1.200492E+0	1.269408E+0	1.259623E+0	1.271537E+0	1.249932E+0	1.247490E+0	1.246394E+0	1.242321E+0	1.235633E+0	1.221733E+0	1.271096E+0	1.205290E+0	1.278675E+0	1.243327E+0	1.237474E+0	1.287760E+0	1.224925E+0	1.242563E+0	1.272693E+0	1.213051E+0	1.253904E+0	1.244156E+0	1.169973E+0	1.308124E+0	1.225161E+0	1.272239E+0	1.290879E+0	1.238530E+0	1.223917E+0	1.274098E+0	1.220234E+0	1.242258E+0	1.266201E+0	1.276178E+0	1.257554E+0	1.276355E+0	1.211433E+0	1.265751E+0	1.245485E+0	1.300278E+0	1.261859E+0	1.178769E+0	1.242307E+0	1.320724E+0
5.475120E+2	1.375692E+0	1.385869E+0	1.377794E+0	1.336372E+0	1.318531E+0	1.345484E+0	1.325605E+0	1.399851E+0	1.345707E+0	1.327350E+0	1.320219E+0	1.326353E+0	1.292793E+0	1.331573E+0	1.361981E+0	1.365869E+0	1.322319E+0	1.365142E+0	1.385366E+0	1.341718E+0	1.335075E+0	1.345530E+0	1.372256E+0	1.387945E+0	1.395043E+0	1.332566E+0	1.330082E+0	1.347794E+0	1.387678E+0	1.302436E+0	1.318023E+0	1.376411E+0	1.359503E+0	1.350141E+0	1.401794E+0	1.334727E+0	1.310621E+0	1.307116E+0	1.351401E+0	1.358612E+0	1.362719E+0	1.306188E+0	1.407602E+0	1.337167E+0	1.335432E+0	1.390069E+0	1.360308E+0	1.386753E+0	1.311620E+0	1.316991E+0	1.305456E+0	1.318221E+0	1.359946E+0	1.316283E+0	1.371638E+0	1.362803E+0	1.379162E+0	1.340175E+0	1.293880E+0	1.330856E+0	1.329917E+0	1.338885E+0	1.320851E+0	1.359016E+0	1.333250E+0	1.342263E+0	1.379833E+0	1.338730E+0	1.378273E+0	1.295162E+0	1.388743E+0	1.322895E+0	1.314403E+0	1.310956E+0	1.398874E+0	1.373510E+0	1.287243E+0	1.328655E+0	1.322104E+0	1.349524E+0	1.298257E+0	1.294675E+0	1.372227E+0	1.332809E+0	1.312042E+0	1.337696E+0	1.354426E+0	1.387986E+0	1.312295E+0	1.334815E+0	1.359104E+0	1.286779E+0	1.352082E+0	1.315930E+0	1.351738E+0	1.333936E+0	1.325316E+0	1.344752E+0	1.397203E+0	1.325419E+0	1.260204E+0	1.359291E+0	1.356860E+0	1.344387E+0	1.366315E+0	1.368819E+0	1.367705E+0	1.348866E+0	1.320029E+0	1.342382E+0	1.376844E+0	1.331276E+0	1.293591E+0	1.269019E+0	1.338962E+0	1.357682E+0	1.354898E+0	1.374379E+0	1.371504E+0	1.350595E+0	1.358166E+0	1.282765E+0	1.344990E+0	1.311503E+0	1.316819E+0	1.340830E+0	1.321616E+0	1.320214E+0	1.369361E+0	1.342739E+0	1.306281E+0	1.360438E+0	1.335183E+0	1.329717E+0	1.331019E+0	1.342162E+0	1.342434E+0	1.364975E+0	1.333141E+0	1.321421E+0	1.333852E+0	1.311735E+0	1.366472E+0	1.309247E+0	1.298474E+0	1.385927E+0	1.310958E+0	1.343790E+0	1.352696E+0	1.284502E+0	1.390493E+0	1.322594E+0	1.328324E+0	1.349613E+0	1.362204E+0	1.341748E+0	1.298592E+0	1.348314E+0	1.379345E+0	1.361077E+0	1.387073E+0	1.308041E+0	1.326323E+0	1.383723E+0	1.320835E+0	1.293079E+0	1.338976E+0	1.342700E+0	1.337138E+0	1.221201E+0	1.335265E+0
5.482660E+2	1.386114E+0	1.424127E+0	1.431210E+0	1.441996E+0	1.373718E+0	1.415828E+0	1.442210E+0	1.454765E+0	1.466546E+0	1.350178E+0	1.422465E+0	1.427041E+0	1.408502E+0	1.373899E+0	1.444004E+0	1.414768E+0	1.476328E+0	1.410868E+0	1.404555E+0	1.451319E+0	1.331578E+0	1.411735E+0	1.439885E+0	1.402757E+0	1.444050E+0	1.404067E+0	1.452937E+0	1.512159E+0	1.405149E+0	1.447392E+0	1.429959E+0	1.382596E+0	1.476677E+0	1.447613E+0	1.439302E+0	1.443192E+0	1.427676E+0	1.369605E+0	1.452993E+0	1.424499E+0	1.412462E+0	1.400790E+0	1.440764E+0	1.464187E+0	1.389826E+0	1.485585E+0	1.426883E+0	1.433942E+0	1.443540E+0	1.423815E+0	1.405852E+0	1.463435E+0	1.349883E+0	1.375634E+0	1.424013E+0	1.433395E+0	1.447345E+0	1.443384E+0	1.360041E+0	1.422102E+0	1.377410E+0	1.440418E+0	1.447893E+0	1.457601E+0	1.369637E+0	1.413872E+0	1.410730E+0	1.442515E+0	1.427970E+0	1.385226E+0	1.400255E+0	1.447535E+0	1.427323E+0	1.384689E+0	1.435604E+0	1.388858E+0	1.413150E+0	1.490242E+0	1.377502E+0	1.388035E+0	1.369466E+0	1.372314E+0	1.435550E+0	1.377628E+0	1.377240E+0	1.418220E+0	1.426682E+0	1.402649E+0	1.400783E+0	1.424044E+0	1.390505E+0	1.427423E+0	1.387468E+0	1.466164E+0	1.376805E+0	1.424283E+0	1.395714E+0	1.328349E+0	1.406549E+0	1.399936E+0	1.381316E+0	1.409270E+0	1.410295E+0	1.469615E+0	1.347450E+0	1.412338E+0	1.452311E+0	1.425935E+0	1.414944E+0	1.461163E+0	1.344630E+0	1.413384E+0	1.430426E+0	1.396918E+0	1.412560E+0	1.371141E+0	1.365180E+0	1.343984E+0	1.363409E+0	1.360646E+0	1.442212E+0	1.423485E+0	1.422647E+0	1.419455E+0	1.424497E+0	1.368883E+0	1.401499E+0	1.411052E+0	1.364690E+0	1.404689E+0	1.403809E+0	1.403717E+0	1.403630E+0	1.379146E+0	1.434592E+0	1.354727E+0	1.393408E+0	1.372431E+0	1.399858E+0	1.437222E+0	1.367844E+0	1.342192E+0	1.386824E+0	1.425075E+0	1.393142E+0	1.389480E+0	1.417847E+0	1.378191E+0	1.380887E+0	1.401936E+0	1.415362E+0	1.429266E+0	1.359138E+0	1.422783E+0	1.427367E+0	1.416044E+0	1.410708E+0	1.381285E+0	1.405384E+0	1.416455E+0	1.411170E+0	1.402246E+0	1.393831E+0	1.378565E+0	1.399378E+0	1.359890E+0	1.414100E+0	1.440193E+0	1.356788E+0	1.273054E+0	1.449109E+0
5.490540E+2	1.426203E+0	1.403268E+0	1.454367E+0	1.382289E+0	1.414600E+0	1.425946E+0	1.387715E+0	1.379020E+0	1.431137E+0	1.378881E+0	1.360876E+0	1.358978E+0	1.379955E+0	1.322982E+0	1.398603E+0	1.371634E+0	1.391010E+0	1.368709E+0	1.436577E+0	1.420333E+0	1.329945E+0	1.383061E+0	1.358350E+0	1.434792E+0	1.337794E+0	1.413137E+0	1.386774E+0	1.386229E+0	1.391703E+0	1.390640E+0	1.368306E+0	1.419596E+0	1.425806E+0	1.331225E+0	1.400931E+0	1.388337E+0	1.423283E+0	1.356032E+0	1.393939E+0	1.374486E+0	1.386362E+0	1.393520E+0	1.406965E+0	1.343435E+0	1.381064E+0	1.385143E+0	1.416670E+0	1.414174E+0	1.345083E+0	1.353642E+0	1.384010E+0	1.443509E+0	1.391725E+0	1.381996E+0	1.355955E+0	1.346814E+0	1.419269E+0	1.433891E+0	1.377128E+0	1.401636E+0	1.403525E+0	1.399196E+0	1.410242E+0	1.422548E+0	1.358259E+0	1.366641E+0	1.389858E+0	1.396074E+0	1.468777E+0	1.369212E+0	1.424878E+0	1.394671E+0	1.372390E+0	1.378717E+0	1.381611E+0	1.425324E+0	1.396007E+0	1.363810E+0	1.370767E+0	1.413677E+0	1.370123E+0	1.372438E+0	1.392805E+0	1.399172E+0	1.357302E+0	1.401147E+0	1.449512E+0	1.429264E+0	1.363700E+0	1.344707E+0	1.376811E+0	1.388986E+0	1.402124E+0	1.313089E+0	1.340990E+0	1.361818E+0	1.388344E+0	1.325185E+0	1.313317E+0	1.346246E+0	1.344568E+0	1.368281E+0	1.420533E+0	1.456098E+0	1.353422E+0	1.404052E+0	1.366256E+0	1.422333E+0	1.414040E+0	1.391702E+0	1.353789E+0	1.340334E+0	1.370334E+0	1.334002E+0	1.414737E+0	1.420461E+0	1.378347E+0	1.378804E+0	1.473518E+0	1.379838E+0	1.384623E+0	1.385315E+0	1.387725E+0	1.341364E+0	1.352235E+0	1.401889E+0	1.403685E+0	1.364069E+0	1.428775E+0	1.350715E+0	1.412644E+0	1.376351E+0	1.386039E+0	1.372435E+0	1.376636E+0	1.373930E+0	1.403171E+0	1.348319E+0	1.369519E+0	1.397428E+0	1.379178E+0	1.344622E+0	1.400494E+0	1.359232E+0	1.351700E+0	1.392975E+0	1.348571E+0	1.394138E+0	1.429336E+0	1.336683E+0	1.386897E+0	1.393023E+0	1.340241E+0	1.391669E+0	1.326939E+0	1.352847E+0	1.434204E+0	1.411238E+0	1.413998E+0	1.371101E+0	1.448492E+0	1.395662E+0	1.362254E+0	1.417088E+0	1.368661E+0	1.329266E+0	1.411816E+0	1.437922E+0	1.399437E+0	1.302140E+0	1.240459E+0
5.497960E+2	1.421242E+0	1.376969E+0	1.376831E+0	1.403931E+0	1.389672E+0	1.429224E+0	1.419861E+0	1.443849E+0	1.394790E+0	1.384942E+0	1.405306E+0	1.404805E+0	1.368538E+0	1.412092E+0	1.353790E+0	1.405823E+0	1.368339E+0	1.438642E+0	1.384291E+0	1.389829E+0	1.363812E+0	1.342617E+0	1.387676E+0	1.401726E+0	1.406174E+0	1.371669E+0	1.399501E+0	1.388417E+0	1.421479E+0	1.348075E+0	1.344731E+0	1.378720E+0	1.392301E+0	1.361786E+0	1.376150E+0	1.392877E+0	1.401158E+0	1.363453E+0	1.386126E+0	1.329083E+0	1.393518E+0	1.367449E+0	1.386355E+0	1.403738E+0	1.332807E+0	1.350903E+0	1.384698E+0	1.403875E+0	1.397891E+0	1.359201E+0	1.420157E+0	1.352330E+0	1.391252E+0	1.354476E+0	1.391242E+0	1.359705E+0	1.383231E+0	1.376413E+0	1.386734E+0	1.400759E+0	1.377747E+0	1.435681E+0	1.389392E+0	1.375913E+0	1.447913E+0	1.361250E+0	1.401991E+0	1.370896E+0	1.349239E+0	1.373424E+0	1.376768E+0	1.365748E+0	1.349665E+0	1.393614E+0	1.387249E+0	1.407201E+0	1.341480E+0	1.364910E+0	1.388527E+0	1.389064E+0	1.338341E+0	1.352960E+0	1.363701E+0	1.343845E+0	1.338347E+0	1.399399E+0	1.427609E+0	1.382135E+0	1.380186E+0	1.390979E+0	1.375701E+0	1.357342E+0	1.331844E+0	1.342562E+0	1.338331E+0	1.388868E+0	1.296080E+0	1.352244E+0	1.350007E+0	1.329443E+0	1.407958E+0	1.380289E+0	1.389089E+0	1.446124E+0	1.402350E+0	1.362479E+0	1.310511E+0	1.430731E+0	1.379296E+0	1.361082E+0	1.377171E+0	1.396982E+0	1.348806E+0	1.373246E+0	1.384514E+0	1.380671E+0	1.417998E+0	1.306674E+0	1.424084E+0	1.404950E+0	1.352940E+0	1.382097E+0	1.367406E+0	1.429974E+0	1.397377E+0	1.390925E+0	1.355168E+0	1.389823E+0	1.387575E+0	1.357352E+0	1.354177E+0	1.379613E+0	1.351193E+0	1.339195E+0	1.383775E+0	1.332773E+0	1.419134E+0	1.384834E+0	1.367524E+0	1.356297E+0	1.361326E+0	1.307675E+0	1.380904E+0	1.373802E+0	1.332269E+0	1.414260E+0	1.383076E+0	1.352467E+0	1.333561E+0	1.297601E+0	1.433667E+0	1.358862E+0	1.375598E+0	1.390792E+0	1.376235E+0	1.389704E+0	1.406668E+0	1.373007E+0	1.370009E+0	1.389663E+0	1.327145E+0	1.369971E+0	1.404690E+0	1.354136E+0	1.359991E+0	1.398107E+0	1.359681E+0	1.407877E+0	1.379337E+0	1.264967E+0	1.421462E+0
5.505110E+2	1.389958E+0	1.363287E+0	1.424844E+0	1.399837E+0	1.355499E+0	1.400113E+0	1.360637E+0	1.370000E+0	1.331906E+0	1.343398E+0	1.380660E+0	1.391463E+0	1.381469E+0	1.377410E+0	1.386628E+0	1.378289E+0	1.372104E+0	1.357445E+0	1.357468E+0	1.388484E+0	1.339141E+0	1.337525E+0	1.391704E+0	1.413225E+0	1.377618E+0	1.333204E+0	1.351665E+0	1.419195E+0	1.387022E+0	1.334874E+0	1.385421E+0	1.355055E+0	1.403863E+0	1.336007E+0	1.374123E+0	1.389006E+0	1.386597E+0	1.345943E+0	1.359827E+0	1.366458E+0	1.413169E+0	1.336944E+0	1.375763E+0	1.383328E+0	1.391063E+0	1.379195E+0	1.372329E+0	1.397231E+0	1.334805E+0	1.325078E+0	1.381867E+0	1.434176E+0	1.303704E+0	1.358489E+0	1.359863E+0	1.314725E+0	1.363385E+0	1.352892E+0	1.361624E+0	1.382734E+0	1.381074E+0	1.385830E+0	1.398531E+0	1.404169E+0	1.359579E+0	1.372428E+0	1.344903E+0	1.350642E+0	1.417369E+0	1.394552E+0	1.366281E+0	1.355424E+0	1.344392E+0	1.359000E+0	1.336582E+0	1.391207E+0	1.354631E+0	1.359620E+0	1.360394E+0	1.373552E+0	1.370596E+0	1.379826E+0	1.371914E+0	1.358069E+0	1.304878E+0	1.375799E+0	1.344887E+0	1.396509E+0	1.350580E+0	1.328683E+0	1.368158E+0	1.363190E+0	1.392633E+0	1.344996E+0	1.365936E+0	1.398393E+0	1.391785E+0	1.308358E+0	1.348020E+0	1.362325E+0	1.330756E+0	1.371197E+0	1.377930E+0	1.358105E+0	1.363986E+0	1.384023E+0	1.338007E+0	1.360471E+0	1.347122E+0	1.363655E+0	1.368530E+0	1.347351E+0	1.335596E+0	1.367975E+0	1.302577E+0	1.354625E+0	1.362659E+0	1.369268E+0	1.350971E+0	1.346693E+0	1.372665E+0	1.396662E+0	1.331483E+0	1.382763E+0	1.337566E+0	1.331108E+0	1.345513E+0	1.412332E+0	1.351602E+0	1.350628E+0	1.387337E+0	1.299968E+0	1.356761E+0	1.400437E+0	1.391398E+0	1.367746E+0	1.379133E+0	1.355785E+0	1.349609E+0	1.376630E+0	1.305860E+0	1.369773E+0	1.383636E+0	1.368095E+0	1.350411E+0	1.398874E+0	1.345204E+0	1.389157E+0	1.404987E+0	1.336541E+0	1.338188E+0	1.348924E+0	1.387785E+0	1.411166E+0	1.353318E+0	1.368883E+0	1.377331E+0	1.370625E+0	1.344219E+0	1.332666E+0	1.338198E+0	1.351871E+0	1.348121E+0	1.363282E+0	1.345578E+0	1.330670E+0	1.328136E+0	1.365735E+0	1.346468E+0	1.334721E+0	1.369614E+0
5.512510E+2	1.341769E+0	1.364514E+0	1.365849E+0	1.345037E+0	1.303323E+0	1.390919E+0	1.325769E+0	1.352050E+0	1.308561E+0	1.293865E+0	1.291605E+0	1.324263E+0	1.353351E+0	1.357744E+0	1.309834E+0	1.343320E+0	1.308842E+0	1.287357E+0	1.320983E+0	1.380475E+0	1.311280E+0	1.355656E+0	1.301249E+0	1.316510E+0	1.332927E+0	1.294396E+0	1.311772E+0	1.352723E+0	1.333578E+0	1.289270E+0	1.319012E+0	1.340615E+0	1.388369E+0	1.311593E+0	1.346759E+0	1.351453E+0	1.334934E+0	1.306198E+0	1.320586E+0	1.323409E+0	1.357679E+0	1.337112E+0	1.353759E+0	1.293070E+0	1.348395E+0	1.308038E+0	1.340974E+0	1.328647E+0	1.311122E+0	1.321499E+0	1.366109E+0	1.240998E+0	1.304439E+0	1.365493E+0	1.345465E+0	1.360195E+0	1.357310E+0	1.279701E+0	1.282848E+0	1.334558E+0	1.318694E+0	1.301048E+0	1.312504E+0	1.346440E+0	1.308636E+0	1.318027E+0	1.300528E+0	1.363272E+0	1.357893E+0	1.320878E+0	1.309913E+0	1.306322E+0	1.338977E+0	1.272380E+0	1.302773E+0	1.286314E+0	1.331135E+0	1.301663E+0	1.281864E+0	1.303520E+0	1.330443E+0	1.292465E+0	1.345454E+0	1.358171E+0	1.318211E+0	1.286136E+0	1.348470E+0	1.331539E+0	1.305979E+0	1.308618E+0	1.303960E+0	1.311466E+0	1.311501E+0	1.320892E+0	1.349066E+0	1.313051E+0	1.312027E+0	1.329494E+0	1.264103E+0	1.336655E+0	1.275941E+0	1.321510E+0	1.305691E+0	1.369561E+0	1.295715E+0	1.303686E+0	1.296905E+0	1.390539E+0	1.339576E+0	1.344007E+0	1.307149E+0	1.359550E+0	1.313416E+0	1.314069E+0	1.300034E+0	1.377234E+0	1.278609E+0	1.282450E+0	1.335857E+0	1.321601E+0	1.334687E+0	1.278716E+0	1.316921E+0	1.358274E+0	1.356808E+0	1.314722E+0	1.346008E+0	1.351427E+0	1.354317E+0	1.292440E+0	1.289920E+0	1.332283E+0	1.317155E+0	1.292469E+0	1.335349E+0	1.311435E+0	1.312229E+0	1.315785E+0	1.295146E+0	1.376850E+0	1.322251E+0	1.273013E+0	1.306328E+0	1.325244E+0	1.299289E+0	1.296314E+0	1.292648E+0	1.342297E+0	1.347563E+0	1.259285E+0	1.292320E+0	1.372162E+0	1.292752E+0	1.319969E+0	1.281036E+0	1.298138E+0	1.351342E+0	1.294795E+0	1.316278E+0	1.368947E+0	1.319074E+0	1.299292E+0	1.295480E+0	1.357131E+0	1.293001E+0	1.327941E+0	1.279730E+0	1.363275E+0	1.268100E+0	1.365751E+0	1.374216E+0
5.520210E+2	1.291260E+0	1.322869E+0	1.328704E+0	1.272386E+0	1.311458E+0	1.274028E+0	1.353636E+0	1.296676E+0	1.261577E+0	1.265127E+0	1.271162E+0	1.292145E+0	1.282244E+0	1.236493E+0	1.233760E+0	1.300265E+0	1.288630E+0	1.241145E+0	1.297851E+0	1.309231E+0	1.282069E+0	1.278807E+0	1.265972E+0	1.310869E+0	1.284815E+0	1.311477E+0	1.267379E+0	1.306125E+0	1.280818E+0	1.289400E+0	1.251177E+0	1.319477E+0	1.333900E+0	1.261773E+0	1.288699E+0	1.287881E+0	1.242697E+0	1.254199E+0	1.295301E+0	1.322084E+0	1.319866E+0	1.253349E+0	1.303533E+0	1.250768E+0	1.280640E+0	1.312773E+0	1.284189E+0	1.280099E+0	1.255012E+0	1.286549E+0	1.310413E+0	1.307232E+0	1.287594E+0	1.246146E+0	1.327456E+0	1.272336E+0	1.259724E+0	1.260653E+0	1.292614E+0	1.253501E+0	1.301304E+0	1.297198E+0	1.286403E+0	1.315377E+0	1.278705E+0	1.271191E+0	1.264065E+0	1.312405E+0	1.287160E+0	1.219966E+0	1.273605E+0	1.319974E+0	1.278300E+0	1.304129E+0	1.260994E+0	1.269413E+0	1.255307E+0	1.249503E+0	1.247445E+0	1.249859E+0	1.290532E+0	1.293423E+0	1.288268E+0	1.291070E+0	1.285009E+0	1.239445E+0	1.275129E+0	1.315240E+0	1.247491E+0	1.271366E+0	1.304131E+0	1.316110E+0	1.310350E+0	1.259486E+0	1.296414E+0	1.282220E+0	1.278312E+0	1.286352E+0	1.234399E+0	1.280691E+0	1.272695E+0	1.248667E+0	1.255492E+0	1.300643E+0	1.278209E+0	1.307298E+0	1.280881E+0	1.230569E+0	1.325472E+0	1.302702E+0	1.245609E+0	1.297907E+0	1.279242E+0	1.251176E+0	1.287283E+0	1.331096E+0	1.256066E+0	1.278612E+0	1.294428E+0	1.342731E+0	1.285553E+0	1.237300E+0	1.215077E+0	1.333826E+0	1.215164E+0	1.249986E+0	1.285009E+0	1.286299E+0	1.317495E+0	1.279978E+0	1.269457E+0	1.286358E+0	1.293601E+0	1.264894E+0	1.275976E+0	1.252455E+0	1.323254E+0	1.261444E+0	1.244117E+0	1.302934E+0	1.237386E+0	1.269691E+0	1.254964E+0	1.281794E+0	1.267949E+0	1.311048E+0	1.272998E+0	1.270570E+0	1.302632E+0	1.263706E+0	1.261938E+0	1.316383E+0	1.257561E+0	1.288569E+0	1.301400E+0	1.253191E+0	1.285272E+0	1.247446E+0	1.305256E+0	1.259514E+0	1.227314E+0	1.281547E+0	1.305334E+0	1.287396E+0	1.225724E+0	1.259512E+0	1.273935E+0	1.308040E+0	1.245659E+0	1.270569E+0	1.236618E+0
5.527590E+2	1.259011E+0	1.283711E+0	1.244774E+0	1.221207E+0	1.257359E+0	1.223897E+0	1.273752E+0	1.275280E+0	1.226713E+0	1.285662E+0	1.196647E+0	1.265541E+0	1.280370E+0	1.206612E+0	1.220340E+0	1.277438E+0	1.219259E+0	1.210710E+0	1.233067E+0	1.257523E+0	1.227874E+0	1.260582E+0	1.235166E+0	1.265434E+0	1.193899E+0	1.223117E+0	1.235901E+0	1.294903E+0	1.249780E+0	1.221798E+0	1.255780E+0	1.192924E+0	1.230000E+0	1.281517E+0	1.238130E+0	1.218225E+0	1.236683E+0	1.214750E+0	1.223287E+0	1.253336E+0	1.257781E+0	1.211964E+0	1.214080E+0	1.293517E+0	1.220076E+0	1.219250E+0	1.232430E+0	1.282837E+0	1.232172E+0	1.226967E+0	1.271253E+0	1.242044E+0	1.208166E+0	1.225910E+0	1.229693E+0	1.246533E+0	1.284746E+0	1.244468E+0	1.247182E+0	1.266931E+0	1.213113E+0	1.218948E+0	1.198761E+0	1.256909E+0	1.254574E+0	1.202768E+0	1.221155E+0	1.211741E+0	1.260305E+0	1.237789E+0	1.179510E+0	1.211746E+0	1.244057E+0	1.217670E+0	1.227386E+0	1.251462E+0	1.252210E+0	1.239056E+0	1.235092E+0	1.245200E+0	1.199611E+0	1.226537E+0	1.264472E+0	1.213917E+0	1.258361E+0	1.214498E+0	1.226636E+0	1.253612E+0	1.179917E+0	1.197501E+0	1.270142E+0	1.241002E+0	1.264011E+0	1.240642E+0	1.235125E+0	1.204560E+0	1.133659E+0	1.188385E+0	1.234676E+0	1.206187E+0	1.216439E+0	1.239019E+0	1.211061E+0	1.320482E+0	1.239162E+0	1.227709E+0	1.205797E+0	1.262565E+0	1.258707E+0	1.219120E+0	1.212520E+0	1.239381E+0	1.265425E+0	1.227091E+0	1.174121E+0	1.295293E+0	1.229376E+0	1.246892E+0	1.237922E+0	1.218969E+0	1.215942E+0	1.250996E+0	1.228190E+0	1.289721E+0	1.239563E+0	1.195054E+0	1.173840E+0	1.230860E+0	1.235317E+0	1.223458E+0	1.213079E+0	1.206195E+0	1.237594E+0	1.169409E+0	1.228442E+0	1.242037E+0	1.252329E+0	1.184722E+0	1.223520E+0	1.283748E+0	1.218916E+0	1.285737E+0	1.266409E+0	1.222250E+0	1.234253E+0	1.297128E+0	1.210113E+0	1.266876E+0	1.235189E+0	1.232280E+0	1.239054E+0	1.312354E+0	1.228129E+0	1.169802E+0	1.219634E+0	1.272013E+0	1.237910E+0	1.245657E+0	1.214092E+0	1.211930E+0	1.250190E+0	1.248628E+0	1.222592E+0	1.253302E+0	1.213906E+0	1.196172E+0	1.220439E+0	1.230306E+0	1.255822E+0	1.211916E+0	1.314703E+0
5.535490E+2	1.227076E+0	1.182427E+0	1.242894E+0	1.200391E+0	1.204132E+0	1.217000E+0	1.224371E+0	1.238654E+0	1.160877E+0	1.186293E+0	1.176454E+0	1.182628E+0	1.242149E+0	1.139638E+0	1.183764E+0	1.191858E+0	1.243604E+0	1.225586E+0	1.192525E+0	1.165846E+0	1.248930E+0	1.247685E+0	1.178822E+0	1.215839E+0	1.224847E+0	1.184997E+0	1.198332E+0	1.223807E+0	1.215857E+0	1.197611E+0	1.227815E+0	1.184292E+0	1.261129E+0	1.202708E+0	1.265768E+0	1.178489E+0	1.199457E+0	1.184812E+0	1.208420E+0	1.183476E+0	1.247323E+0	1.160440E+0	1.217235E+0	1.166953E+0	1.174168E+0	1.229509E+0	1.118671E+0	1.262261E+0	1.147194E+0	1.157019E+0	1.169837E+0	1.188705E+0	1.210569E+0	1.202135E+0	1.212060E+0	1.230022E+0	1.209002E+0	1.197829E+0	1.186616E+0	1.188701E+0	1.159531E+0	1.203408E+0	1.210963E+0	1.197011E+0	1.218575E+0	1.182210E+0	1.188898E+0	1.197051E+0	1.163120E+0	1.176764E+0	1.193190E+0	1.240204E+0	1.221020E+0	1.167061E+0	1.105389E+0	1.216817E+0	1.176681E+0	1.157632E+0	1.137189E+0	1.215510E+0	1.191538E+0	1.226723E+0	1.189715E+0	1.181626E+0	1.173599E+0	1.253342E+0	1.184452E+0	1.180827E+0	1.208544E+0	1.174581E+0	1.215753E+0	1.175166E+0	1.164313E+0	1.167574E+0	1.193843E+0	1.189192E+0	1.154328E+0	1.157014E+0	1.176335E+0	1.180740E+0	1.147326E+0	1.190956E+0	1.127314E+0	1.219931E+0	1.169129E+0	1.192320E+0	1.131361E+0	1.174320E+0	1.144751E+0	1.175789E+0	1.159434E+0	1.220219E+0	1.220849E+0	1.196172E+0	1.219780E+0	1.233386E+0	1.157729E+0	1.205033E+0	1.184574E+0	1.226506E+0	1.168176E+0	1.182676E+0	1.220705E+0	1.189216E+0	1.190406E+0	1.162711E+0	1.169839E+0	1.180760E+0	1.217569E+0	1.174958E+0	1.195860E+0	1.180874E+0	1.179017E+0	1.179184E+0	1.135005E+0	1.223550E+0	1.224629E+0	1.143179E+0	1.185823E+0	1.188264E+0	1.172259E+0	1.161179E+0	1.175194E+0	1.132484E+0	1.191815E+0	1.180877E+0	1.154841E+0	1.201814E+0	1.201788E+0	1.169329E+0	1.186987E+0	1.170822E+0	1.227248E+0	1.196858E+0	1.178193E+0	1.232477E+0	1.177822E+0	1.136447E+0	1.178671E+0	1.209984E+0	1.214235E+0	1.147285E+0	1.183183E+0	1.181755E+0	1.194268E+0	1.168568E+0	1.130395E+0	1.261313E+0	1.235034E+0	1.138098E+0	1.090809E+0
5.542580E+2	1.146591E+0	1.107426E+0	1.157175E+0	1.135887E+0	1.135240E+0	1.113775E+0	1.128730E+0	1.094818E+0	1.123116E+0	1.103153E+0	1.169761E+0	1.109109E+0	1.115581E+0	1.104792E+0	1.113313E+0	1.100770E+0	1.145929E+0	1.112869E+0	1.105984E+0	1.152866E+0	1.184160E+0	1.100799E+0	1.111012E+0	1.120384E+0	1.160178E+0	1.124243E+0	1.103972E+0	1.104737E+0	1.165313E+0	1.116880E+0	1.155293E+0	1.154499E+0	1.184314E+0	1.112557E+0	1.134131E+0	1.124881E+0	1.171101E+0	1.107227E+0	1.144789E+0	1.113709E+0	1.127999E+0	1.153391E+0	1.139324E+0	1.107840E+0	1.143487E+0	1.126119E+0	1.140888E+0	1.148717E+0	1.135472E+0	1.115369E+0	1.104569E+0	1.045735E+0	1.106520E+0	1.102834E+0	1.118013E+0	1.114862E+0	1.178217E+0	1.176836E+0	1.139927E+0	1.113725E+0	1.105987E+0	1.137545E+0	1.127999E+0	1.129584E+0	1.142546E+0	1.096870E+0	1.143940E+0	1.163441E+0	1.163230E+0	1.108664E+0	1.127598E+0	1.187895E+0	1.110079E+0	1.133497E+0	1.119321E+0	1.124898E+0	1.140734E+0	1.125020E+0	1.128559E+0	1.133409E+0	1.123801E+0	1.166594E+0	1.141267E+0	1.153665E+0	1.078030E+0	1.118251E+0	1.129616E+0	1.104235E+0	1.117990E+0	1.091682E+0	1.119840E+0	1.158881E+0	1.108229E+0	1.148701E+0	1.185671E+0	1.159956E+0	1.110689E+0	1.119845E+0	1.148026E+0	1.129603E+0	1.100854E+0	1.149846E+0	1.150650E+0	1.141183E+0	1.164554E+0	1.152115E+0	1.137985E+0	1.099807E+0	1.143532E+0	1.132220E+0	1.077285E+0	1.123671E+0	1.093658E+0	1.089159E+0	1.065683E+0	1.149199E+0	1.109973E+0	1.101221E+0	1.154185E+0	1.118263E+0	1.136773E+0	1.088854E+0	1.151033E+0	1.126800E+0	1.132224E+0	1.103642E+0	1.140868E+0	1.115919E+0	1.172842E+0	1.122176E+0	1.139694E+0	1.117241E+0	1.148733E+0	1.126849E+0	1.122784E+0	1.120558E+0	1.150517E+0	1.154417E+0	1.108495E+0	1.172337E+0	1.173676E+0	1.129814E+0	1.127027E+0	1.112575E+0	1.103759E+0	1.118765E+0	1.120496E+0	1.091521E+0	1.139859E+0	1.146185E+0	1.146743E+0	1.138918E+0	1.129048E+0	1.142047E+0	1.141141E+0	1.151598E+0	1.135514E+0	1.148047E+0	1.148638E+0	1.106923E+0	1.166961E+0	1.103943E+0	1.116325E+0	1.120406E+0	1.126652E+0	1.125504E+0	1.079469E+0	1.219716E+0	1.103596E+0	1.116780E+0	1.164727E+0
5.550190E+2	1.067985E+0	1.070022E+0	1.066589E+0	1.038355E+0	1.054240E+0	1.055090E+0	1.022134E+0	1.038067E+0	9.988514E-1	1.070471E+0	1.102235E+0	1.034278E+0	9.992951E-1	1.032703E+0	1.029324E+0	1.049909E+0	1.058511E+0	1.065204E+0	1.042807E+0	1.029207E+0	1.035145E+0	1.085955E+0	1.060175E+0	1.038291E+0	1.041537E+0	1.042198E+0	1.030579E+0	1.029839E+0	1.088710E+0	1.071721E+0	1.057381E+0	1.081721E+0	1.052957E+0	1.099333E+0	1.033090E+0	1.024547E+0	1.035253E+0	1.039845E+0	1.052286E+0	1.071785E+0	1.079300E+0	1.008594E+0	1.072789E+0	1.076066E+0	1.033118E+0	1.023307E+0	1.028131E+0	1.054949E+0	1.028823E+0	1.036018E+0	1.092800E+0	1.031735E+0	1.067153E+0	1.001823E+0	1.070359E+0	1.034465E+0	1.086122E+0	1.033892E+0	1.053049E+0	9.984391E-1	1.081856E+0	1.031074E+0	1.061136E+0	1.058130E+0	1.030696E+0	1.001854E+0	1.055461E+0	1.030469E+0	1.027760E+0	1.020417E+0	1.044531E+0	1.070815E+0	1.022895E+0	1.054265E+0	1.032510E+0	1.047553E+0	1.059043E+0	9.926125E-1	1.029846E+0	1.075091E+0	1.073389E+0	1.014561E+0	1.043710E+0	1.005100E+0	1.055480E+0	1.012492E+0	1.093235E+0	1.043164E+0	1.049540E+0	1.016747E+0	1.042079E+0	1.084098E+0	1.078943E+0	1.031142E+0	1.072423E+0	1.025417E+0	1.030582E+0	1.038287E+0	1.046683E+0	1.073539E+0	1.016714E+0	1.081290E+0	1.039105E+0	1.069719E+0	1.030514E+0	1.084586E+0	1.030778E+0	1.110250E+0	1.061969E+0	1.043597E+0	1.056181E+0	1.028050E+0	1.078028E+0	1.022288E+0	1.061582E+0	1.013604E+0	1.072204E+0	1.027423E+0	1.063511E+0	1.056257E+0	9.784327E-1	1.016473E+0	1.061929E+0	1.010094E+0	1.055725E+0	9.934307E-1	1.083322E+0	1.054516E+0	1.060220E+0	1.072322E+0	1.102410E+0	1.039740E+0	1.075878E+0	1.076047E+0	1.055362E+0	1.027760E+0	1.109887E+0	1.069434E+0	1.043445E+0	1.102097E+0	1.059435E+0	1.036911E+0	1.094235E+0	1.038316E+0	1.071142E+0	1.069274E+0	1.064974E+0	1.067539E+0	1.025641E+0	1.056363E+0	1.102591E+0	1.060370E+0	1.088512E+0	1.065477E+0	1.050710E+0	1.035050E+0	9.783470E-1	1.040132E+0	1.052090E+0	1.091428E+0	1.073259E+0	1.042030E+0	1.024242E+0	1.052430E+0	1.071505E+0	1.040875E+0	1.018476E+0	1.038497E+0	1.048352E+0	1.016290E+0	1.023226E+0
5.557600E+2	9.909264E-1	1.033800E+0	9.662328E-1	9.724063E-1	9.708487E-1	9.805278E-1	9.787152E-1	9.957513E-1	9.889651E-1	1.001963E+0	9.786839E-1	9.515800E-1	1.007189E+0	9.951361E-1	9.498017E-1	9.796730E-1	9.485461E-1	9.598727E-1	1.017796E+0	9.813211E-1	1.001016E+0	9.491059E-1	1.026708E+0	9.857628E-1	9.539052E-1	1.000433E+0	9.953469E-1	9.657782E-1	1.001036E+0	9.703541E-1	9.844565E-1	9.972768E-1	9.743202E-1	9.814040E-1	9.662845E-1	9.603008E-1	9.798782E-1	9.548666E-1	9.656124E-1	9.951527E-1	9.837097E-1	9.372696E-1	1.010069E+0	1.025851E+0	9.820303E-1	1.017239E+0	9.868034E-1	1.005082E+0	9.974263E-1	9.800612E-1	9.666104E-1	9.925573E-1	9.962798E-1	1.019229E+0	9.938898E-1	1.004122E+0	1.014834E+0	9.679380E-1	9.770786E-1	1.004607E+0	1.022228E+0	1.037368E+0	9.723388E-1	9.615627E-1	9.949865E-1	9.371376E-1	9.811290E-1	9.745431E-1	1.021395E+0	9.909062E-1	9.729459E-1	9.990027E-1	9.641156E-1	9.909623E-1	9.803077E-1	9.797238E-1	9.870830E-1	9.370396E-1	9.791827E-1	1.003505E+0	9.935558E-1	1.026037E+0	9.447740E-1	9.699026E-1	9.618825E-1	9.814277E-1	1.008597E+0	9.983743E-1	9.705818E-1	9.654413E-1	1.015048E+0	9.549875E-1	9.493787E-1	9.883366E-1	1.012796E+0	9.671871E-1	9.877054E-1	9.514664E-1	9.663910E-1	1.003740E+0	9.812358E-1	9.795071E-1	9.444189E-1	9.600379E-1	9.763518E-1	1.026782E+0	9.555706E-1	9.853565E-1	1.006109E+0	1.005273E+0	9.688911E-1	1.019001E+0	9.550009E-1	9.568218E-1	9.658513E-1	9.928856E-1	9.717856E-1	9.899720E-1	1.018101E+0	9.728847E-1	9.428488E-1	1.012144E+0	9.730842E-1	9.521402E-1	9.494463E-1	9.507598E-1	1.001542E+0	9.856378E-1	9.607929E-1	1.000348E+0	1.021410E+0	9.525309E-1	1.027959E+0	9.630878E-1	9.655454E-1	9.637823E-1	9.794597E-1	9.457161E-1	9.608469E-1	1.007063E+0	9.654396E-1	9.957069E-1	9.877288E-1	9.679072E-1	1.021787E+0	9.234258E-1	9.750348E-1	9.755623E-1	9.907964E-1	9.686234E-1	9.960193E-1	9.723242E-1	1.030414E+0	1.038113E+0	9.298849E-1	9.934423E-1	1.017939E+0	9.221787E-1	9.609008E-1	9.913003E-1	9.963565E-1	1.011317E+0	9.797474E-1	9.394209E-1	9.451958E-1	9.968663E-1	9.713520E-1	9.960328E-1	9.862570E-1	9.560921E-1	9.394268E-1
5.560190E+2	9.830669E-1	9.322584E-1	9.868707E-1	1.002444E+0	9.733481E-1	9.527740E-1	9.544097E-1	9.377846E-1	9.115252E-1	9.184368E-1	9.857694E-1	9.781365E-1	9.565002E-1	9.504688E-1	9.393389E-1	9.426903E-1	9.496243E-1	9.570525E-1	9.816874E-1	9.838587E-1	9.180888E-1	9.628727E-1	9.330322E-1	9.616643E-1	9.918073E-1	9.309553E-1	9.970205E-1	9.503845E-1	9.824627E-1	9.499525E-1	9.177964E-1	9.201283E-1	9.733422E-1	9.800810E-1	9.627933E-1	9.579353E-1	9.847191E-1	9.240380E-1	9.407209E-1	9.436741E-1	9.546293E-1	1.006827E+0	9.808890E-1	9.606253E-1	9.906009E-1	9.614212E-1	9.723252E-1	9.529471E-1	9.236298E-1	9.625609E-1	9.550920E-1	9.232928E-1	9.362491E-1	9.437761E-1	9.690421E-1	9.840451E-1	9.479383E-1	9.596258E-1	9.516014E-1	9.438858E-1	9.824613E-1	1.003155E+0	9.611353E-1	1.004919E+0	1.016992E+0	9.493152E-1	9.441229E-1	9.770071E-1	9.658688E-1	9.289575E-1	9.759152E-1	9.744182E-1	9.674009E-1	9.565701E-1	9.320583E-1	9.206782E-1	9.681634E-1	9.898066E-1	9.232764E-1	9.450813E-1	9.553655E-1	9.894072E-1	9.231443E-1	9.304043E-1	9.521383E-1	1.013414E+0	9.765611E-1	9.511451E-1	9.310442E-1	9.462858E-1	9.867452E-1	9.195099E-1	9.384885E-1	9.404661E-1	9.409960E-1	9.805869E-1	9.967261E-1	8.937969E-1	9.775741E-1	9.971860E-1	9.622733E-1	9.697264E-1	9.850509E-1	9.428519E-1	9.499750E-1	9.698689E-1	9.618555E-1	9.731586E-1	9.511426E-1	9.810514E-1	9.419291E-1	9.496230E-1	9.641838E-1	9.615534E-1	9.349114E-1	1.000068E+0	9.786131E-1	9.030391E-1	9.767850E-1	9.790465E-1	9.586133E-1	9.686901E-1	9.664010E-1	1.029729E+0	9.746179E-1	9.437619E-1	9.306053E-1	9.486476E-1	9.462006E-1	9.663491E-1	9.838609E-1	9.474536E-1	1.006894E+0	9.763181E-1	9.378890E-1	9.372479E-1	9.833881E-1	9.125205E-1	9.329290E-1	9.429893E-1	9.467260E-1	9.626640E-1	9.700499E-1	9.135367E-1	9.523338E-1	9.240516E-1	9.424761E-1	9.472373E-1	9.672502E-1	9.830649E-1	9.927565E-1	9.492166E-1	1.002485E+0	9.969991E-1	9.242748E-1	9.878846E-1	9.732969E-1	9.535700E-1	9.690350E-1	9.176885E-1	9.986161E-1	9.648023E-1	1.015729E+0	9.421353E-1	9.552464E-1	9.782934E-1	9.759927E-1	9.890912E-1	1.011119E+0	1.000391E+0	9.543838E-1
5.565030E+2	9.700369E-1	9.717530E-1	9.494303E-1	9.805414E-1	9.280970E-1	9.857689E-1	9.732676E-1	9.680437E-1	9.518292E-1	9.689887E-1	9.498750E-1	9.588031E-1	9.770922E-1	9.568090E-1	9.370585E-1	9.946641E-1	9.595488E-1	9.869042E-1	9.466783E-1	9.364023E-1	9.690077E-1	9.893922E-1	9.836451E-1	9.292458E-1	1.002623E+0	9.629081E-1	9.638411E-1	9.650538E-1	1.012626E+0	9.400864E-1	9.786311E-1	9.629807E-1	9.219203E-1	9.188984E-1	9.409962E-1	9.433455E-1	9.751807E-1	9.401032E-1	9.983288E-1	9.643275E-1	9.817938E-1	9.902142E-1	9.645998E-1	9.592560E-1	9.421768E-1	9.748868E-1	1.005391E+0	9.776956E-1	9.582024E-1	9.477079E-1	9.325960E-1	1.012261E+0	9.810573E-1	9.526272E-1	9.177515E-1	9.714463E-1	9.950900E-1	9.373027E-1	9.348226E-1	9.749951E-1	1.000553E+0	9.533155E-1	9.191219E-1	9.433175E-1	9.299660E-1	9.311747E-1	9.797671E-1	9.614674E-1	9.652973E-1	9.712213E-1	9.564596E-1	9.477581E-1	9.544182E-1	9.611270E-1	9.712974E-1	9.614184E-1	1.009297E+0	1.000054E+0	9.714602E-1	9.888282E-1	9.813350E-1	9.608912E-1	9.739195E-1	9.321663E-1	9.562122E-1	9.339584E-1	9.699076E-1	9.744194E-1	9.385142E-1	1.021018E+0	9.682362E-1	9.840866E-1	9.669682E-1	9.769202E-1	9.235482E-1	9.459451E-1	9.645715E-1	9.461820E-1	9.803542E-1	9.646928E-1	9.641339E-1	9.722256E-1	9.773052E-1	9.189481E-1	9.581207E-1	9.498970E-1	9.444438E-1	9.166569E-1	9.629021E-1	9.744781E-1	9.845484E-1	9.726048E-1	9.842552E-1	9.521990E-1	9.400959E-1	9.686915E-1	9.677017E-1	9.857938E-1	9.532703E-1	9.500811E-1	9.750760E-1	9.714451E-1	9.156913E-1	9.621305E-1	9.604552E-1	9.293732E-1	1.003779E+0	9.777004E-1	1.002539E+0	9.598118E-1	9.623613E-1	9.514441E-1	9.605436E-1	9.291830E-1	9.587599E-1	9.730236E-1	9.537727E-1	9.634590E-1	9.601413E-1	9.689434E-1	9.911804E-1	9.186337E-1	9.515302E-1	9.515200E-1	9.953564E-1	9.161828E-1	1.008903E+0	9.399809E-1	9.454298E-1	9.482669E-1	9.523833E-1	9.942911E-1	9.123743E-1	9.177504E-1	9.847823E-1	9.759338E-1	9.799139E-1	9.219364E-1	9.785602E-1	9.727602E-1	9.903924E-1	9.423830E-1	9.631135E-1	9.362421E-1	9.764368E-1	9.847831E-1	9.683010E-1	9.915581E-1	9.849553E-1	9.330894E-1	9.406132E-1
5.570500E+2	9.888284E-1	9.365259E-1	9.647368E-1	9.760957E-1	1.009010E+0	1.003139E+0	9.934751E-1	9.931340E-1	9.901326E-1	9.807911E-1	1.002815E+0	9.856079E-1	9.726918E-1	9.956176E-1	9.935128E-1	9.676833E-1	9.875462E-1	1.010338E+0	9.606165E-1	9.980885E-1	9.929078E-1	9.626357E-1	9.703541E-1	9.881275E-1	9.797428E-1	9.849208E-1	1.003631E+0	1.000860E+0	9.852431E-1	1.006413E+0	9.724421E-1	9.926469E-1	9.709583E-1	9.784361E-1	9.927144E-1	9.876066E-1	9.961100E-1	1.026335E+0	9.852056E-1	9.757121E-1	1.032361E+0	9.874595E-1	9.475912E-1	9.872100E-1	1.004089E+0	9.839474E-1	9.611114E-1	1.006547E+0	9.993750E-1	9.945187E-1	1.008704E+0	9.596006E-1	9.597545E-1	9.914557E-1	9.722019E-1	1.025377E+0	9.874242E-1	9.628669E-1	9.661901E-1	1.015603E+0	9.953249E-1	9.770032E-1	1.011492E+0	9.943443E-1	1.027604E+0	1.011570E+0	1.024758E+0	1.001853E+0	9.927021E-1	1.003137E+0	9.946913E-1	1.006572E+0	9.680669E-1	9.967600E-1	9.754100E-1	1.008939E+0	9.561813E-1	1.001172E+0	9.856140E-1	9.966803E-1	9.754550E-1	9.981269E-1	9.855123E-1	9.948072E-1	9.345455E-1	9.671446E-1	9.628638E-1	1.020895E+0	9.994032E-1	9.347241E-1	9.913457E-1	9.662407E-1	1.023869E+0	1.007849E+0	9.985452E-1	9.661168E-1	1.003183E+0	9.852086E-1	1.014329E+0	1.010389E+0	1.006255E+0	9.432104E-1	9.658908E-1	9.999575E-1	9.791951E-1	9.667903E-1	1.008155E+0	1.000442E+0	9.638753E-1	1.018934E+0	9.407491E-1	1.023944E+0	9.915896E-1	9.956877E-1	9.944257E-1	9.977794E-1	9.558256E-1	9.749279E-1	9.741940E-1	9.926443E-1	9.759440E-1	1.000249E+0	9.524389E-1	9.965950E-1	9.891322E-1	9.937883E-1	9.898708E-1	9.771792E-1	9.834047E-1	9.816908E-1	9.895362E-1	9.873435E-1	9.611529E-1	9.792594E-1	9.762488E-1	9.937262E-1	9.789176E-1	1.000132E+0	9.871573E-1	9.658384E-1	9.737392E-1	1.027626E+0	9.854947E-1	1.001943E+0	9.930121E-1	9.572802E-1	9.694900E-1	9.386277E-1	9.971100E-1	9.639590E-1	9.811757E-1	9.932218E-1	1.010674E+0	1.016601E+0	1.013955E+0	9.890188E-1	9.856804E-1	9.631713E-1	9.858946E-1	9.477881E-1	9.842848E-1	9.979085E-1	9.553291E-1	9.974992E-1	9.783375E-1	9.962796E-1	1.011004E+0	9.910329E-1	9.812764E-1	1.009842E+0	9.749458E-1
5.575700E+2	9.973891E-1	1.063922E+0	1.045597E+0	1.014499E+0	9.972570E-1	1.060577E+0	1.005548E+0	1.010626E+0	9.954063E-1	9.847795E-1	1.008125E+0	1.020866E+0	1.043984E+0	1.027869E+0	9.859228E-1	1.011194E+0	1.028623E+0	1.017995E+0	1.032997E+0	9.832328E-1	1.033138E+0	1.032019E+0	1.072447E+0	1.035608E+0	1.001576E+0	1.047817E+0	9.754988E-1	1.039858E+0	1.062512E+0	9.907266E-1	1.039146E+0	1.007825E+0	1.042219E+0	1.032623E+0	1.013939E+0	1.028900E+0	9.998930E-1	1.009308E+0	9.453955E-1	1.009981E+0	1.007695E+0	1.015167E+0	1.026436E+0	1.030688E+0	1.054944E+0	1.014908E+0	9.499943E-1	1.042803E+0	1.014076E+0	1.001533E+0	9.960522E-1	9.797723E-1	1.037459E+0	1.041156E+0	1.027165E+0	1.020691E+0	1.008833E+0	1.032426E+0	9.921015E-1	1.035489E+0	1.013037E+0	9.739771E-1	1.000069E+0	1.039755E+0	9.900123E-1	1.051428E+0	1.014091E+0	1.045563E+0	1.068580E+0	1.021714E+0	1.032184E+0	1.013758E+0	9.965806E-1	1.002216E+0	9.975308E-1	1.055597E+0	1.029278E+0	1.014292E+0	1.014867E+0	1.040584E+0	1.010720E+0	1.015109E+0	1.027825E+0	1.039512E+0	1.032352E+0	9.942412E-1	1.021821E+0	1.039524E+0	1.034786E+0	1.037835E+0	1.033645E+0	1.027966E+0	1.005004E+0	1.019293E+0	1.029255E+0	1.054920E+0	1.008311E+0	1.021260E+0	1.019323E+0	1.035934E+0	1.000337E+0	1.024020E+0	9.820455E-1	1.041943E+0	1.019535E+0	1.027231E+0	1.028564E+0	1.033891E+0	1.030786E+0	1.025510E+0	1.023588E+0	1.041499E+0	1.006612E+0	9.783207E-1	1.007174E+0	1.047863E+0	1.007909E+0	1.016479E+0	1.038137E+0	1.030139E+0	1.021592E+0	1.047398E+0	1.063601E+0	1.007152E+0	1.050506E+0	9.999279E-1	1.020591E+0	9.811839E-1	1.038853E+0	1.029107E+0	1.043576E+0	1.024062E+0	1.007143E+0	1.055836E+0	1.003118E+0	1.040058E+0	1.011868E+0	1.032837E+0	1.048588E+0	1.038686E+0	1.023276E+0	9.791882E-1	9.678821E-1	1.008103E+0	1.004383E+0	9.880772E-1	1.004540E+0	1.038118E+0	1.012185E+0	1.052603E+0	1.082412E+0	1.006842E+0	1.002357E+0	9.847343E-1	1.001199E+0	1.054665E+0	1.034295E+0	1.014694E+0	1.007322E+0	1.013499E+0	1.054305E+0	1.021943E+0	1.051180E+0	1.001138E+0	1.012284E+0	1.022729E+0	1.024552E+0	9.705547E-1	9.979514E-1	1.052746E+0	1.105184E+0
5.580230E+2	1.051259E+0	1.034876E+0	1.014444E+0	9.907742E-1	1.032726E+0	1.002635E+0	1.055711E+0	1.003927E+0	1.016027E+0	9.929358E-1	1.002406E+0	1.012407E+0	1.037680E+0	1.047318E+0	9.939277E-1	1.030375E+0	9.914198E-1	1.019719E+0	1.030285E+0	1.022393E+0	1.056571E+0	9.948425E-1	1.000145E+0	9.871119E-1	1.010840E+0	1.014730E+0	1.064512E+0	9.967774E-1	1.053210E+0	9.850139E-1	9.975038E-1	1.039278E+0	1.039510E+0	1.050851E+0	1.048417E+0	1.028816E+0	1.017073E+0	9.981061E-1	1.034731E+0	1.036332E+0	1.006535E+0	1.013221E+0	1.043013E+0	1.038349E+0	1.048031E+0	1.024180E+0	1.016766E+0	1.054736E+0	1.022558E+0	1.022953E+0	1.049886E+0	1.010206E+0	1.026446E+0	1.007772E+0	1.002987E+0	1.011000E+0	1.035645E+0	1.004698E+0	1.019438E+0	1.030504E+0	9.976136E-1	1.017567E+0	9.675880E-1	1.007541E+0	9.957066E-1	9.958500E-1	1.010109E+0	1.000130E+0	1.038772E+0	1.011446E+0	1.013529E+0	9.814846E-1	9.956391E-1	9.976118E-1	1.039411E+0	1.038355E+0	1.008605E+0	1.004850E+0	1.015578E+0	1.014886E+0	9.942962E-1	9.979500E-1	1.012469E+0	1.001339E+0	1.019036E+0	1.002957E+0	1.052825E+0	9.957430E-1	9.769000E-1	9.968756E-1	9.805544E-1	1.054826E+0	1.010960E+0	9.930744E-1	1.048512E+0	1.030475E+0	1.007703E+0	1.003197E+0	1.044139E+0	9.944388E-1	1.013577E+0	1.072992E+0	1.062087E+0	9.981116E-1	1.042933E+0	1.015124E+0	1.069462E+0	9.927900E-1	1.015864E+0	1.037964E+0	1.030911E+0	1.008507E+0	1.056356E+0	1.056605E+0	1.042285E+0	1.077058E+0	1.056149E+0	1.035555E+0	9.915827E-1	9.965781E-1	1.018115E+0	1.020880E+0	9.957875E-1	1.057876E+0	1.068671E+0	9.892677E-1	1.024836E+0	1.021047E+0	1.005484E+0	1.009464E+0	9.759755E-1	1.021557E+0	1.021379E+0	1.023311E+0	1.012470E+0	1.020013E+0	1.018146E+0	1.050632E+0	9.776226E-1	1.039413E+0	1.002978E+0	1.018552E+0	1.024059E+0	1.014314E+0	1.021991E+0	1.011517E+0	1.023273E+0	1.029067E+0	1.014905E+0	1.012221E+0	1.021729E+0	1.066684E+0	1.039894E+0	1.054124E+0	9.999772E-1	9.982426E-1	1.040973E+0	1.015934E+0	1.008626E+0	1.056899E+0	9.823626E-1	1.011656E+0	1.039004E+0	1.055984E+0	1.017759E+0	1.023704E+0	1.029181E+0	1.034574E+0	1.046206E+0	9.835259E-1	1.091137E+0
5.585160E+2	9.907525E-1	1.005345E+0	9.926244E-1	1.034563E+0	1.001314E+0	1.013975E+0	9.975308E-1	9.803367E-1	1.014622E+0	1.042845E+0	1.035312E+0	1.025930E+0	1.004000E+0	9.793452E-1	9.961759E-1	1.022379E+0	1.012969E+0	1.019403E+0	1.014228E+0	1.003322E+0	1.000399E+0	1.013638E+0	1.011682E+0	1.039642E+0	9.917608E-1	1.002563E+0	9.921542E-1	1.010070E+0	9.828320E-1	9.973551E-1	1.012181E+0	9.828548E-1	9.960149E-1	9.887098E-1	1.036982E+0	1.045489E+0	1.000362E+0	1.015326E+0	1.027240E+0	1.001158E+0	1.001065E+0	9.794735E-1	1.022415E+0	1.032683E+0	1.021723E+0	1.011052E+0	1.040988E+0	1.002383E+0	1.006244E+0	1.030474E+0	9.838052E-1	1.019842E+0	1.055151E+0	1.000259E+0	1.020859E+0	1.009081E+0	1.060854E+0	1.011141E+0	1.059707E+0	9.658392E-1	1.033317E+0	1.028828E+0	1.031221E+0	9.733457E-1	1.045367E+0	9.810959E-1	9.986616E-1	9.999980E-1	9.857114E-1	1.025801E+0	1.023993E+0	1.017403E+0	1.017579E+0	1.027302E+0	1.031117E+0	9.997304E-1	9.726540E-1	1.016584E+0	1.012336E+0	1.013941E+0	1.041635E+0	1.016737E+0	9.878736E-1	1.016458E+0	1.013759E+0	1.037768E+0	9.823313E-1	1.016199E+0	9.854682E-1	1.025088E+0	9.842904E-1	9.773384E-1	1.040368E+0	9.903591E-1	1.036067E+0	1.019801E+0	9.889782E-1	1.005989E+0	1.000563E+0	1.010403E+0	9.902187E-1	9.891514E-1	9.914955E-1	1.005679E+0	1.018976E+0	9.979526E-1	1.015084E+0	1.015109E+0	1.024172E+0	9.748815E-1	1.009977E+0	9.833738E-1	9.866027E-1	9.885390E-1	9.674096E-1	1.017261E+0	1.046810E+0	1.029654E+0	1.003379E+0	1.022900E+0	1.029701E+0	9.937304E-1	1.012812E+0	1.024312E+0	1.014029E+0	1.032965E+0	1.002666E+0	1.036308E+0	1.043167E+0	9.697409E-1	1.020926E+0	9.804343E-1	1.025932E+0	9.668711E-1	1.014141E+0	1.016368E+0	1.028233E+0	9.693145E-1	1.021942E+0	1.017397E+0	9.938167E-1	1.038926E+0	9.930714E-1	1.008408E+0	9.948379E-1	1.031636E+0	1.003094E+0	1.009394E+0	1.009346E+0	1.021258E+0	1.004146E+0	1.019497E+0	1.020040E+0	1.009203E+0	1.020061E+0	9.959196E-1	9.827339E-1	9.875352E-1	1.013275E+0	1.014142E+0	9.842112E-1	1.012634E+0	9.719020E-1	9.697335E-1	1.050295E+0	1.000822E+0	1.039637E+0	1.007427E+0	9.976250E-1	1.012836E+0	9.413991E-1
5.590100E+2	9.960811E-1	9.866815E-1	1.003292E+0	1.055860E+0	1.029251E+0	1.009102E+0	9.648470E-1	9.907338E-1	1.001066E+0	9.686717E-1	9.960677E-1	1.015274E+0	9.994115E-1	9.904922E-1	1.019108E+0	1.016515E+0	9.729279E-1	9.789878E-1	1.010207E+0	9.788449E-1	9.824750E-1	9.811932E-1	9.559348E-1	9.866120E-1	1.010175E+0	1.017428E+0	1.016434E+0	9.790302E-1	9.938958E-1	1.023964E+0	1.015174E+0	1.029369E+0	1.006230E+0	1.012284E+0	1.008474E+0	1.009493E+0	1.002567E+0	9.790474E-1	9.765781E-1	9.971276E-1	9.924431E-1	1.003396E+0	1.008904E+0	9.697356E-1	9.593260E-1	1.012905E+0	9.257752E-1	9.722620E-1	1.046261E+0	9.989869E-1	1.025619E+0	1.033652E+0	9.801879E-1	9.593884E-1	1.031262E+0	1.010246E+0	9.837967E-1	1.004079E+0	1.004837E+0	1.007937E+0	1.001965E+0	1.003868E+0	9.932260E-1	1.028587E+0	1.015287E+0	1.005976E+0	9.905810E-1	1.059523E+0	9.568482E-1	9.753396E-1	9.960323E-1	1.015397E+0	1.028881E+0	1.010125E+0	1.009915E+0	9.891241E-1	1.017117E+0	9.671088E-1	1.001814E+0	9.973133E-1	1.002624E+0	9.370500E-1	9.966963E-1	1.019672E+0	9.837839E-1	1.014422E+0	9.551840E-1	9.748485E-1	1.037586E+0	9.690377E-1	1.005185E+0	1.019633E+0	1.003462E+0	1.020470E+0	9.648666E-1	9.770887E-1	9.768321E-1	1.018781E+0	1.006220E+0	9.581702E-1	1.000064E+0	9.942816E-1	1.022293E+0	1.015830E+0	9.652626E-1	1.035551E+0	9.831053E-1	1.017545E+0	1.027022E+0	9.656206E-1	1.006837E+0	9.881597E-1	9.999569E-1	9.860396E-1	1.027183E+0	1.010662E+0	9.830555E-1	9.764386E-1	9.804925E-1	1.027208E+0	1.003175E+0	9.772977E-1	9.944087E-1	9.776386E-1	9.447797E-1	1.004996E+0	9.989716E-1	9.532963E-1	1.024248E+0	9.594684E-1	9.876961E-1	1.008487E+0	1.042208E+0	9.924705E-1	1.015740E+0	9.621785E-1	1.016265E+0	9.844418E-1	9.674596E-1	1.021142E+0	1.032752E+0	9.725189E-1	9.781855E-1	1.010132E+0	9.955965E-1	1.009917E+0	9.787151E-1	1.012334E+0	1.005063E+0	9.876844E-1	9.847081E-1	1.018928E+0	1.001421E+0	1.016442E+0	9.979377E-1	9.594390E-1	1.024620E+0	1.017021E+0	1.004096E+0	1.005695E+0	1.047461E+0	9.923002E-1	9.903612E-1	9.793550E-1	9.929184E-1	1.001108E+0	9.779283E-1	9.839760E-1	9.751745E-1	1.056329E+0	9.395975E-1
5.595390E+2	9.977691E-1	9.787156E-1	1.012779E+0	9.781367E-1	9.772179E-1	9.751326E-1	1.002065E+0	1.002131E+0	9.863454E-1	9.990807E-1	9.511889E-1	1.016454E+0	1.002290E+0	9.959359E-1	1.043310E+0	9.922827E-1	1.015998E+0	9.394910E-1	9.826925E-1	1.003085E+0	9.571761E-1	9.857195E-1	9.760415E-1	1.031426E+0	1.004184E+0	9.841730E-1	1.005127E+0	1.012024E+0	9.785794E-1	1.022387E+0	9.964628E-1	1.022720E+0	1.012791E+0	1.000782E+0	1.018683E+0	9.892605E-1	9.745754E-1	9.817426E-1	1.011950E+0	9.974380E-1	9.760775E-1	9.722865E-1	9.767735E-1	9.661422E-1	9.620217E-1	9.828653E-1	1.010342E+0	1.012782E+0	9.626557E-1	9.846169E-1	9.916719E-1	1.006254E+0	9.827539E-1	9.871071E-1	9.666698E-1	9.883887E-1	9.874558E-1	1.035739E+0	1.000232E+0	9.641381E-1	9.650078E-1	9.830417E-1	1.010406E+0	1.016659E+0	1.012378E+0	9.675247E-1	9.687206E-1	9.933229E-1	9.806428E-1	9.903719E-1	9.388677E-1	1.017340E+0	1.004572E+0	9.760502E-1	1.011433E+0	1.004188E+0	9.812786E-1	9.645141E-1	9.503316E-1	9.590038E-1	9.896715E-1	1.001090E+0	1.023041E+0	9.849022E-1	1.000643E+0	9.991427E-1	9.856970E-1	9.862433E-1	1.009945E+0	9.805968E-1	1.010217E+0	9.826499E-1	1.005306E+0	1.002514E+0	9.929244E-1	9.866501E-1	9.976661E-1	9.921792E-1	9.477125E-1	1.016567E+0	9.802091E-1	1.008882E+0	9.705771E-1	9.895831E-1	9.877972E-1	9.697929E-1	9.540720E-1	9.903625E-1	9.887130E-1	9.934593E-1	9.860895E-1	9.561330E-1	9.904371E-1	1.008675E+0	9.634922E-1	9.607461E-1	9.894852E-1	1.007228E+0	1.010735E+0	9.599696E-1	1.017083E+0	9.885307E-1	1.019623E+0	9.948089E-1	9.815775E-1	1.037965E+0	9.683389E-1	9.969264E-1	9.641082E-1	9.903610E-1	9.950470E-1	1.013849E+0	9.468113E-1	1.021117E+0	1.000109E+0	9.994414E-1	1.029698E+0	1.003867E+0	9.869774E-1	9.676687E-1	1.003885E+0	1.021394E+0	9.984194E-1	9.652113E-1	9.952490E-1	1.030721E+0	1.007015E+0	1.009956E+0	9.697132E-1	9.785922E-1	9.804405E-1	9.348604E-1	9.942665E-1	9.616010E-1	9.937646E-1	1.002573E+0	9.483335E-1	9.708483E-1	9.866407E-1	9.762851E-1	1.014489E+0	9.988694E-1	1.001272E+0	1.000080E+0	1.010222E+0	9.658999E-1	1.007660E+0	1.014735E+0	1.004969E+0	1.045054E+0	9.851165E-1
5.600180E+2	1.013151E+0	1.014750E+0	1.006159E+0	1.009825E+0	1.011451E+0	9.721387E-1	1.008098E+0	1.016261E+0	1.004911E+0	1.025308E+0	9.785502E-1	9.774672E-1	9.760552E-1	9.981091E-1	1.012081E+0	9.675577E-1	9.633040E-1	9.893021E-1	9.903682E-1	9.683347E-1	9.811880E-1	1.050169E+0	9.831340E-1	9.793568E-1	1.014168E+0	9.882362E-1	9.707297E-1	1.010809E+0	9.809506E-1	1.015966E+0	9.863337E-1	9.711934E-1	9.938804E-1	9.971248E-1	9.838765E-1	9.944662E-1	1.011254E+0	1.013962E+0	9.847270E-1	9.967693E-1	9.996492E-1	1.001291E+0	1.002152E+0	9.968329E-1	1.005474E+0	1.013808E+0	1.037941E+0	9.724293E-1	1.001388E+0	1.006101E+0	1.001208E+0	9.827575E-1	9.806135E-1	1.009434E+0	1.065682E+0	9.630299E-1	9.405471E-1	9.900603E-1	9.909371E-1	1.000307E+0	9.838147E-1	1.035673E+0	1.029751E+0	9.927028E-1	9.947954E-1	1.048681E+0	9.867357E-1	9.451962E-1	9.807569E-1	9.641474E-1	1.031336E+0	9.697667E-1	1.013560E+0	1.000738E+0	9.699854E-1	1.015433E+0	1.017453E+0	1.007085E+0	9.771466E-1	9.921569E-1	9.889037E-1	1.023014E+0	9.547563E-1	1.011237E+0	1.035454E+0	9.761171E-1	1.008404E+0	1.003289E+0	9.784183E-1	1.001774E+0	1.003175E+0	1.001670E+0	9.857092E-1	9.554287E-1	9.991839E-1	9.911561E-1	9.951077E-1	9.983989E-1	9.824458E-1	9.762054E-1	9.891949E-1	9.529274E-1	9.964594E-1	9.824594E-1	9.880451E-1	1.032527E+0	9.898508E-1	9.820018E-1	1.002391E+0	1.013200E+0	9.928243E-1	1.004719E+0	9.843267E-1	1.001142E+0	1.017097E+0	9.870664E-1	1.009514E+0	9.579649E-1	1.025639E+0	1.010931E+0	1.021939E+0	9.984774E-1	1.005346E+0	1.003325E+0	9.966000E-1	9.826752E-1	1.002336E+0	1.038013E+0	1.006718E+0	1.063213E+0	1.007278E+0	1.021366E+0	9.951307E-1	9.799027E-1	9.879357E-1	9.776523E-1	1.027932E+0	1.012090E+0	1.008506E+0	9.678311E-1	9.701231E-1	9.626432E-1	1.044426E+0	1.026766E+0	9.742409E-1	1.016583E+0	1.032287E+0	9.691228E-1	9.860219E-1	1.026882E+0	1.005918E+0	9.957465E-1	1.023084E+0	1.035049E+0	9.808114E-1	1.005989E+0	1.001273E+0	9.968274E-1	1.029196E+0	1.007805E+0	9.885451E-1	1.001294E+0	1.005042E+0	1.017227E+0	9.735153E-1	1.027141E+0	9.607843E-1	9.784698E-1	1.022932E+0	9.779139E-1	1.026822E+0
5.605150E+2	1.014727E+0	9.951023E-1	1.031278E+0	9.787368E-1	1.023822E+0	9.685968E-1	1.002708E+0	1.001147E+0	1.022353E+0	1.039748E+0	1.029217E+0	1.003229E+0	9.924309E-1	1.028368E+0	9.768061E-1	1.015296E+0	1.038371E+0	1.013582E+0	9.968431E-1	1.023106E+0	9.795917E-1	9.986055E-1	1.005277E+0	1.019372E+0	9.960796E-1	9.961998E-1	1.004658E+0	1.002050E+0	9.684703E-1	1.027980E+0	9.903105E-1	9.804360E-1	9.998477E-1	9.793236E-1	9.728629E-1	9.995546E-1	1.036398E+0	1.033752E+0	9.977239E-1	1.001738E+0	1.006290E+0	9.927641E-1	1.002282E+0	1.028669E+0	9.929600E-1	9.880931E-1	1.013652E+0	9.650288E-1	9.867743E-1	1.014260E+0	9.750621E-1	9.729135E-1	1.001134E+0	1.004944E+0	9.920357E-1	9.934056E-1	1.029735E+0	1.019401E+0	1.003705E+0	9.877341E-1	1.021711E+0	1.037067E+0	1.014296E+0	9.988119E-1	1.012927E+0	9.677604E-1	1.001116E+0	1.021469E+0	1.007015E+0	1.031712E+0	1.027833E+0	1.030040E+0	9.745605E-1	1.011095E+0	1.016437E+0	9.782152E-1	1.034227E+0	1.018035E+0	1.051958E+0	9.831375E-1	9.832453E-1	1.025975E+0	1.035291E+0	1.012115E+0	1.000011E+0	1.000864E+0	1.017170E+0	9.873568E-1	1.006055E+0	1.011571E+0	9.791357E-1	9.960592E-1	9.826763E-1	1.022473E+0	1.029346E+0	1.006442E+0	1.036597E+0	1.019950E+0	9.798825E-1	1.015091E+0	1.004775E+0	1.039278E+0	1.005554E+0	1.034832E+0	9.998485E-1	1.023672E+0	1.002587E+0	1.049985E+0	1.006032E+0	9.759962E-1	1.017626E+0	1.025617E+0	1.006826E+0	1.023618E+0	1.019957E+0	9.683270E-1	1.015014E+0	1.019227E+0	1.009647E+0	9.915300E-1	9.839867E-1	1.013192E+0	1.041225E+0	9.874043E-1	1.014442E+0	9.950440E-1	9.971766E-1	1.008283E+0	9.894509E-1	1.017174E+0	1.007096E+0	9.938335E-1	1.021354E+0	1.042553E+0	1.006763E+0	1.032714E+0	9.803888E-1	1.004829E+0	1.049872E+0	1.036105E+0	9.984904E-1	1.042089E+0	1.038530E+0	1.003810E+0	1.025679E+0	1.033627E+0	9.858710E-1	1.039351E+0	1.043644E+0	1.019486E+0	9.918656E-1	9.860565E-1	9.935810E-1	1.027500E+0	9.918349E-1	1.019561E+0	9.879706E-1	1.016030E+0	1.020399E+0	1.004985E+0	9.581163E-1	9.897654E-1	1.019011E+0	9.873725E-1	9.672366E-1	9.712984E-1	9.608745E-1	1.015300E+0	9.875778E-1	9.850749E-1	1.012518E+0
5.609950E+2	9.800056E-1	1.012328E+0	9.796614E-1	9.809691E-1	9.898539E-1	1.008934E+0	9.967502E-1	1.033659E+0	1.017307E+0	9.968519E-1	1.046444E+0	9.839608E-1	9.943645E-1	9.801363E-1	1.042097E+0	9.820533E-1	1.029293E+0	1.024279E+0	1.035084E+0	1.083191E+0	1.047546E+0	9.917852E-1	1.041340E+0	1.003498E+0	9.888509E-1	1.001024E+0	1.003415E+0	9.834672E-1	9.816808E-1	9.901079E-1	1.011815E+0	1.010696E+0	1.016629E+0	1.040968E+0	9.830538E-1	9.730679E-1	9.865859E-1	1.002317E+0	1.038120E+0	1.019416E+0	9.960905E-1	1.044727E+0	1.005832E+0	9.904336E-1	1.009256E+0	9.933551E-1	1.038040E+0	9.933333E-1	1.002465E+0	9.988490E-1	1.035396E+0	1.022741E+0	9.954420E-1	1.045856E+0	1.003386E+0	1.007335E+0	9.706194E-1	1.002285E+0	1.028030E+0	1.017454E+0	9.876554E-1	9.896592E-1	1.022829E+0	1.004935E+0	9.759559E-1	1.038940E+0	1.025460E+0	9.714771E-1	1.023674E+0	1.005109E+0	9.850744E-1	1.000481E+0	1.046143E+0	1.016974E+0	9.774644E-1	9.490009E-1	9.739087E-1	1.006305E+0	1.018895E+0	1.013469E+0	1.032114E+0	1.024057E+0	1.002616E+0	9.877914E-1	1.024203E+0	1.073385E+0	1.043796E+0	1.001482E+0	1.032924E+0	1.021480E+0	1.044216E+0	9.895300E-1	9.756787E-1	1.011619E+0	9.777514E-1	1.021406E+0	1.021051E+0	1.008854E+0	1.025031E+0	1.018109E+0	1.051235E+0	1.003031E+0	1.026292E+0	1.012656E+0	1.040287E+0	9.814623E-1	1.004675E+0	1.001216E+0	9.782421E-1	1.019957E+0	1.006850E+0	9.954426E-1	9.930378E-1	1.009174E+0	1.020881E+0	9.645450E-1	9.685358E-1	9.967327E-1	1.012923E+0	1.018019E+0	9.533879E-1	9.887995E-1	9.990675E-1	9.887582E-1	9.798070E-1	1.033998E+0	9.914341E-1	1.010063E+0	9.420269E-1	1.019969E+0	1.010508E+0	9.976243E-1	1.018346E+0	1.009498E+0	1.024713E+0	9.848249E-1	9.547788E-1	9.783980E-1	9.917345E-1	9.769755E-1	1.009759E+0	1.018429E+0	1.018402E+0	1.009794E+0	9.996535E-1	1.004459E+0	9.868123E-1	1.014049E+0	1.016581E+0	9.890476E-1	9.952222E-1	9.838733E-1	1.002308E+0	9.769956E-1	1.015677E+0	9.986590E-1	1.014206E+0	1.096002E+0	9.659919E-1	1.000141E+0	9.958331E-1	1.031246E+0	1.003785E+0	1.055368E+0	1.020995E+0	1.006235E+0	1.020078E+0	1.012373E+0	1.001334E+0	9.435889E-1	9.826673E-1
