Photon Energy (eV)	#1	#2	#3	#4	#5	#6	#7	#8	#9	#10	#11	#12	#13	#14	#15	#16	#17	#18	#19	#20	#21	#22	#23	#24	#25	#26	#27	#28	#29	#30	#31	#32	#33	#34	#35	#36	#37	#38	#39	#40	#41	#42	#43	#44	#45	#46	#47	#48	#49	#50	#51	#52	#53	#54	#55	#56	#57	#58	#59	#60	#61	#62	#63	#64	#65	#66	#67	#68	#69	#70	#71	#72	#73	#74	#75	#76	#77	#78	#79	#80	#81	#82	#83	#84	#85	#86	#87	#88	#89	#90	#91	#92	#93	#94	#95	#96	#97	#98	#99	#100	#101	#102	#103	#104	#105	#106	#107	#108	#109	#110	#111	#112	#113	#114	#115	#116	#117	#118	#119	#120	#121	#122	#123	#124	#125	#126	#127	#128	#129	#130	#131	#132	#133	#134	#135	#136	#137	#138	#139	#140	#141	#142	#143	#144	#145	#146	#147	#148	#149	#150	#151	#152	#153	#154	#155	#156	#157	#158	#159	#160	#161	#162	#163	#164	#165	#166	
5.300520E+2	-3.990301E-3	-8.913406E-3	-1.947981E-3	-6.008651E-3	-1.144400E-2	-4.157085E-3	2.567795E-3	-2.177461E-3	-8.029627E-3	-4.739193E-3	-2.077166E-3	-1.224178E-2	-6.661353E-3	-1.017386E-2	-1.202636E-2	-9.042888E-3	-3.362981E-3	-6.327617E-3	-5.369564E-3	-5.432929E-3	-6.959586E-3	8.002269E-4	-2.088347E-3	-1.426844E-2	-1.276965E-2	-6.452161E-3	-7.200640E-3	-1.830604E-2	-5.413914E-3	-3.820420E-3	-9.132021E-3	-1.600246E-3	2.240589E-3	-1.077354E-2	-8.709227E-3	-6.556076E-3	-2.115671E-3	-1.535296E-3	-1.028223E-2	-4.388300E-3	-9.942298E-3	-1.162286E-2	-9.885286E-3	-1.163676E-2	-6.344890E-3	-8.157315E-3	-6.865570E-3	-9.223881E-3	-5.127424E-3	-3.762189E-4	-2.346313E-3	-4.262595E-3	-1.041254E-2	-4.913816E-3	-1.412918E-2	-1.034153E-2	2.739925E-3	4.801759E-4	-2.790532E-3	-1.269255E-2	-2.561936E-3	-1.165301E-2	-4.965798E-3	1.203437E-3	3.725859E-3	-1.762072E-4	-1.573657E-2	-1.241264E-3	9.719965E-4	7.455909E-4	2.298027E-3	-6.032187E-3	-7.246810E-3	-1.243299E-2	-1.959203E-3	-6.814866E-4	-6.781894E-3	1.344991E-3	-5.752184E-3	1.988238E-3	-4.563751E-4	-8.008443E-3	-4.421179E-3	-8.537170E-3	-1.950720E-3	-7.392096E-4	-7.195829E-3	-5.690751E-3	-1.598055E-3	-1.398100E-2	-2.475830E-3	9.913535E-5	-1.804639E-3	-1.097877E-2	-1.332425E-2	-8.711881E-3	-6.296028E-3	-1.432649E-2	-1.345875E-2	-3.607476E-3	1.045616E-3	-8.110558E-3	3.770322E-3	-2.721430E-3	-6.527854E-3	-1.188314E-2	-5.262610E-3	-3.114274E-3	-8.333294E-3	-7.867955E-3	-1.123800E-2	-1.022579E-3	-1.750110E-4	-1.437662E-2	-5.191677E-3	-1.070064E-2	-3.060171E-3	-1.504365E-3	-8.611751E-3	-7.908163E-3	-1.386751E-2	-1.893572E-2	1.666323E-3	-1.274223E-2	-7.103825E-3	-4.567194E-3	5.501928E-3	2.249942E-3	-5.029223E-4	-1.000619E-2	-1.165769E-2	-3.911786E-3	-1.013307E-2	-4.548143E-3	-9.186268E-3	1.277959E-3	-4.461214E-4	-4.113468E-3	-8.664455E-3	-4.920983E-3	-9.052475E-3	1.260044E-3	-6.640938E-3	-1.014092E-2	-7.659061E-3	-3.769055E-3	-1.381809E-3	-6.440298E-3	-1.310401E-2	1.772398E-3	-8.717930E-5	-1.019562E-2	2.127195E-3	-9.907933E-3	-6.527346E-3	-5.423687E-3	-1.280490E-2	1.186510E-3	-5.775261E-3	-7.690008E-3	-3.952113E-4	-3.448229E-3	9.614787E-4	-1.002507E-2	-1.268070E-2	-1.988032E-2
5.305180E+2	-1.516321E-2	-4.560385E-3	-6.971612E-3	-2.382746E-3	1.688474E-3	-2.375453E-3	-1.106806E-2	-7.027249E-3	-6.176646E-3	-7.341049E-3	-9.906427E-3	9.416842E-4	-8.233142E-3	-7.302182E-3	-9.703985E-3	-1.029638E-2	-2.788827E-3	-9.491406E-3	-1.038112E-2	-6.066779E-3	-3.599768E-3	1.360407E-3	-6.181487E-3	-2.586686E-3	-5.215787E-3	-5.231490E-3	-5.421632E-3	-2.515972E-3	-5.979560E-3	-9.168940E-3	-2.925780E-3	-6.906343E-3	-1.008261E-2	-8.280477E-3	-1.935386E-3	-3.895630E-3	-4.485283E-3	-1.058552E-2	-1.285269E-3	-9.508008E-3	-1.696577E-2	-6.331128E-3	1.865129E-3	8.951311E-4	-8.485365E-3	-1.301702E-2	-5.419949E-4	-1.325932E-2	-7.520240E-3	-1.025243E-2	-6.136510E-3	1.814009E-4	-6.195891E-3	-1.694199E-4	3.800839E-3	-8.708682E-3	-1.284346E-2	-1.094772E-2	-5.842749E-3	-8.281679E-3	-3.089374E-3	-6.594300E-3	-7.911623E-3	-9.025968E-3	-8.072659E-3	-1.436202E-2	-3.844737E-3	-1.327223E-2	-2.650949E-4	-1.099786E-2	-1.034111E-2	4.639960E-4	-4.678288E-3	-4.774264E-3	-1.240813E-2	-6.048305E-3	-2.872355E-3	-8.069952E-3	-7.030464E-3	-1.491212E-3	4.654922E-3	-3.103266E-3	-4.703101E-4	-3.728878E-3	-5.674938E-3	-4.620273E-3	-6.616830E-3	-8.755039E-3	-6.204244E-3	-7.932383E-4	-1.176012E-2	-1.308370E-2	-1.553551E-2	-7.904699E-3	-1.271862E-2	2.750903E-4	-8.678390E-3	-1.872742E-3	1.670046E-3	-1.202495E-2	-6.273773E-3	3.244245E-3	-8.825930E-3	-9.648690E-3	-8.871118E-3	6.601559E-4	-4.592771E-3	-4.360032E-3	5.729167E-3	-1.224894E-2	-1.305336E-2	-5.198189E-3	-2.012409E-3	-1.280127E-3	-1.083086E-2	-2.529230E-3	-6.732471E-3	3.539612E-4	2.728470E-3	-1.216636E-2	-2.482430E-3	-9.515921E-3	-8.701795E-3	-7.336462E-3	-9.866398E-3	-6.565333E-3	-3.636860E-3	-7.199909E-3	-6.957305E-3	-1.158626E-3	-3.760550E-3	8.801496E-4	7.354516E-4	-1.434413E-2	8.573798E-3	-1.542083E-2	2.676872E-3	-5.452734E-3	-6.620040E-3	-7.570756E-3	-1.563629E-3	-1.512051E-2	-1.567997E-2	-7.754821E-3	-9.033786E-3	-1.915956E-2	-1.243633E-2	5.671314E-3	-4.586430E-3	4.529443E-3	-7.409889E-3	-2.072296E-3	-3.233327E-3	-5.906671E-3	-7.698899E-3	-4.237293E-3	-5.487824E-3	-1.680861E-2	-2.616946E-3	-4.596316E-3	4.031048E-3	-1.441986E-2	-9.975398E-3	4.455592E-3	-1.665521E-2	-1.472619E-2
5.310250E+2	8.977871E-4	4.871292E-3	1.640430E-3	-3.107924E-3	-9.380278E-4	-5.344807E-3	-1.664637E-2	-9.899505E-5	-1.050029E-2	1.115087E-3	-8.787961E-3	-5.650069E-3	1.197538E-3	5.333081E-3	-2.737013E-3	-5.909189E-3	-6.233842E-3	-6.327482E-4	-7.248900E-3	-6.066779E-3	-3.599804E-3	-4.801457E-3	-7.350946E-3	-7.843450E-3	-7.104226E-3	-1.569449E-3	-2.456706E-3	3.557100E-3	-1.454485E-3	-2.631832E-3	-3.546416E-3	-1.600273E-3	5.601447E-4	-5.164140E-3	-7.354443E-3	-7.886248E-3	-3.300545E-3	-1.535265E-3	5.141430E-4	-7.801483E-3	-2.918833E-3	-1.700894E-3	-1.445494E-2	8.951224E-4	4.357320E-3	-8.157340E-3	-1.445380E-2	6.341389E-3	-3.418301E-4	2.257438E-3	-4.873094E-3	-4.262601E-3	-4.388744E-3	4.235798E-4	-1.181562E-2	-3.810050E-3	-1.455577E-3	4.801759E-4	-1.569686E-3	-7.651544E-3	-7.309001E-3	-9.755990E-3	-2.019960E-3	4.813858E-3	-7.451690E-3	-5.727211E-3	1.788235E-3	-3.246436E-3	-1.387309E-2	-7.735761E-3	-5.745062E-3	-1.160041E-3	-1.467688E-3	7.956942E-4	-9.142877E-3	-6.815003E-4	-6.781876E-3	-7.397446E-3	-1.789566E-2	-4.970582E-3	-5.567657E-3	-3.803991E-3	-9.030534E-3	-6.476430E-3	-8.778370E-3	-3.326616E-3	3.804672E-3	2.276300E-3	-7.520309E-3	-4.957780E-3	-1.114119E-2	-4.757696E-3	-1.255397E-3	-1.897128E-2	-1.211291E-3	5.410555E-3	-8.082812E-3	4.026403E-3	-7.957378E-3	-3.607498E-3	-1.528223E-2	8.537344E-4	1.371015E-3	5.360375E-3	-3.598700E-3	-1.254333E-2	-1.664894E-2	1.868574E-3	-7.812490E-3	2.145820E-3	2.074666E-3	-9.970280E-3	-1.399947E-3	-1.280083E-3	-5.818266E-3	-6.614923E-3	-2.448178E-3	-1.079622E-2	5.712776E-3	3.649911E-3	-6.848289E-4	-5.478869E-3	-5.461745E-3	2.123707E-3	6.709174E-3	-1.903015E-3	-1.277570E-2	-7.199892E-3	-7.544056E-3	-1.148078E-2	-1.363196E-2	-4.596323E-3	-2.124686E-3	9.621024E-4	-7.348986E-3	-1.107590E-3	-1.043969E-2	5.739795E-4	1.947241E-4	-1.618246E-2	-1.078066E-2	-1.575050E-2	-8.301083E-4	1.685610E-8	-1.178317E-2	1.361046E-3	-2.763600E-3	-3.748820E-3	-1.113842E-2	-1.132363E-2	-7.409895E-3	-2.072275E-3	-6.806989E-3	8.764725E-3	1.673683E-3	2.881349E-3	-1.158536E-2	-8.503164E-3	-7.670274E-3	-7.689999E-3	-1.256731E-2	1.671843E-3	-7.451457E-3	-7.797271E-3	-8.706142E-3	-1.840771E-3
5.315130E+2	-4.688619E-3	5.596785E-3	1.640387E-3	-2.382783E-3	-8.817467E-3	-1.781596E-3	5.047052E-3	-1.484658E-3	-1.853012E-3	-2.787725E-3	1.837493E-3	-8.945915E-3	-8.981610E-4	2.461438E-3	7.713438E-3	-5.909224E-3	6.561830E-4	1.265492E-3	7.785868E-3	-9.960398E-4	-8.079502E-3	-6.481946E-3	-2.088355E-3	-7.843466E-3	1.708640E-3	-1.194523E-2	1.101276E-3	-8.675438E-5	-1.454505E-3	-6.197540E-3	1.418568E-3	-3.958516E-3	-1.680434E-3	1.041732E-2	4.161085E-3	2.755441E-3	4.993049E-3	1.615927E-4	5.140768E-4	-1.544039E-3	-9.303814E-3	1.606407E-3	-5.315676E-3	-1.602290E-2	4.357355E-3	-5.727476E-3	-6.865576E-3	-3.458977E-3	7.434805E-3	-1.354451E-2	-1.055840E-2	8.162324E-4	2.839778E-3	-1.321637E-2	2.644058E-3	-5.443007E-4	-6.849834E-3	-2.208747E-3	-1.072618E-2	-5.131037E-3	-1.507031E-3	-7.858987E-3	2.104137E-3	-3.610376E-3	-3.104839E-3	-8.811066E-3	-4.470652E-3	-1.909658E-3	-2.739252E-3	-1.211623E-3	-3.447035E-3	-4.949473E-3	-4.678324E-3	7.957070E-4	-2.612248E-3	-4.855661E-3	2.712782E-3	-6.724904E-4	4.473944E-3	-2.650969E-3	-6.206583E-3	-1.001036E-3	-6.396635E-3	3.925173E-4	-7.093709E-4	-4.620293E-3	-4.879910E-3	-6.303625E-3	3.760330E-4	3.371287E-3	-3.713722E-3	-1.982391E-3	6.983119E-3	1.317467E-3	1.816953E-3	2.750933E-4	1.038002E-2	7.491214E-4	2.357744E-3	-8.016674E-4	1.045634E-3	1.451373E-3	-6.426692E-3	9.401290E-3	-9.456933E-3	-6.601832E-4	-1.913683E-3	-4.982881E-3	-4.166687E-3	-7.867969E-3	8.644729E-4	-4.260563E-4	-5.074791E-3	7.680672E-3	3.580484E-3	-1.167375E-3	-4.896359E-3	-4.601679E-3	-9.805480E-3	-3.198020E-9	-6.676924E-3	-3.460310E-3	-1.064581E-2	4.150903E-3	-9.313918E-3	-8.563456E-3	-7.553524E-3	-2.159969E-3	-3.436773E-3	-2.633203E-3	8.461323E-4	-4.889968E-4	-7.272937E-3	-2.099149E-3	-6.124171E-3	-5.878643E-3	4.550608E-3	-7.652957E-4	-1.168238E-3	3.690758E-3	-6.748220E-3	1.890072E-3	-8.577852E-3	-2.386114E-3	4.025898E-3	-8.899213E-3	1.243633E-2	-1.451466E-2	-8.517605E-3	5.218713E-3	-3.748536E-3	-9.118279E-4	-8.508836E-4	-7.907339E-3	-1.841055E-3	-8.389737E-3	2.439043E-3	-1.582001E-3	-5.143587E-3	-8.839321E-4	-3.714869E-3	9.403949E-4	-1.249928E-2	-1.559458E-2	-7.570166E-4	-1.840806E-3
5.320120E+2	6.484280E-3	-4.560331E-3	-1.947968E-3	6.319458E-3	7.598039E-3	3.563206E-3	5.047004E-3	-3.563114E-3	-2.470676E-3	-7.341109E-3	5.752073E-3	2.919193E-3	6.736129E-4	-5.579209E-3	1.177750E-2	6.625491E-3	-4.921326E-4	-5.062076E-3	2.684651E-4	-9.960398E-4	4.799725E-3	4.161270E-3	-3.341193E-4	7.926882E-3	-1.025167E-2	-2.179798E-3	-3.049689E-3	-1.223294E-2	-4.848247E-3	-2.631824E-3	-4.167015E-3	1.347567E-3	4.481157E-3	1.353369E-2	2.806300E-3	7.601232E-4	-6.854884E-3	-5.494790E-3	-1.885051E-3	5.851066E-3	2.736432E-4	2.929316E-3	2.517994E-3	1.521748E-3	-9.937802E-4	-2.603378E-4	1.355067E-3	9.223914E-3	2.563457E-4	-3.668303E-3	-8.031566E-3	-1.088347E-3	3.442141E-3	-8.472078E-3	1.487288E-3	9.797264E-3	-4.452381E-3	-1.536519E-3	5.755491E-3	6.211272E-3	6.932258E-3	2.258342E-3	-2.524929E-4	-6.017511E-4	-7.451684E-3	-7.929863E-4	6.169484E-3	5.442570E-3	-2.739275E-3	-3.168862E-3	-4.596025E-3	-3.325438E-3	2.385027E-3	-1.293027E-3	3.265316E-3	5.110999E-4	-7.340399E-3	-6.725183E-4	-4.473910E-3	3.727949E-3	2.099295E-3	1.101174E-3	-2.445757E-3	-5.789581E-3	-5.674884E-3	-4.620287E-3	1.488812E-3	4.727703E-3	-1.278453E-2	-5.651905E-3	-2.475847E-3	4.955925E-3	-4.001560E-3	3.161912E-3	-3.633875E-3	-5.502262E-3	-8.082774E-3	4.681845E-3	-6.581992E-3	3.407082E-3	-1.769505E-3	-1.348913E-2	-2.827728E-3	-5.607783E-3	2.259653E-3	3.300859E-3	4.114377E-3	1.245708E-3	-3.645838E-3	4.649223E-3	-7.607255E-3	-1.022598E-3	4.374739E-4	-5.907938E-4	2.953867E-3	8.754989E-4	6.120551E-4	-2.743316E-3	-8.526530E-4	3.649900E-3	6.505725E-3	2.595266E-3	-2.869736E-3	7.722721E-4	5.051607E-3	7.612169E-4	-1.678535E-3	6.029922E-3	1.005873E-2	7.688939E-3	6.769001E-3	-5.965513E-3	1.634489E-4	-8.221634E-3	6.124283E-4	-2.300332E-3	-2.944503E-3	-9.566427E-5	2.239111E-3	-2.839141E-4	4.197057E-3	1.890046E-3	-6.640908E-3	1.789577E-3	4.025929E-3	5.758310E-3	-2.072711E-3	-8.458920E-3	1.310407E-3	-9.255888E-3	2.963930E-3	-2.072248E-3	6.892074E-3	-3.905987E-3	-2.426825E-3	2.881354E-3	6.707323E-3	-1.581998E-3	5.414715E-4	1.210959E-2	7.113631E-4	-5.642574E-3	1.021576E-2	2.005016E-2	1.381628E-2	8.467557E-3
5.325070E+2	5.785978E-3	-3.834821E-3	3.075706E-3	1.968376E-3	3.752081E-4	-2.375464E-3	8.146095E-3	1.286703E-3	7.411979E-3	3.717011E-3	1.022602E-2	2.260015E-3	7.484664E-3	-9.845767E-4	-3.898191E-3	1.226610E-2	-1.066321E-3	8.858632E-3	6.532972E-3	1.168081E-2	-7.999533E-4	8.002269E-4	1.428421E-2	1.084736E-2	9.891963E-3	1.246838E-2	-1.863686E-3	2.056176E-2	2.504942E-3	-2.546714E-4	1.418562E-3	4.884971E-3	-1.288335E-8	-8.013256E-4	-1.257984E-3	-1.900307E-3	5.585455E-3	5.252355E-3	-2.484880E-3	6.988832E-3	1.176660E-2	2.267895E-3	-9.326036E-5	1.280044E-2	2.216914E-3	1.917841E-2	9.575649E-3	-1.152995E-3	8.545766E-4	4.891064E-3	3.970713E-3	5.895077E-3	7.056438E-3	1.584276E-2	6.692757E-3	-2.177174E-3	4.538005E-3	-1.536554E-3	1.124944E-2	1.188238E-2	5.349920E-3	1.806663E-2	9.258327E-4	-4.813826E-3	7.451668E-3	1.462637E-2	1.162363E-3	9.547997E-5	7.157442E-3	6.617369E-3	5.170549E-3	-7.733889E-5	7.521973E-3	1.491939E-3	7.836729E-3	1.107449E-3	1.276591E-2	-3.362473E-3	1.342173E-2	-2.650969E-3	-3.650909E-3	-2.402502E-3	1.881519E-4	5.200784E-3	5.497577E-3	-3.973423E-3	-8.271280E-4	4.114897E-3	9.588371E-3	4.759497E-3	1.299807E-2	-1.100222E-2	9.415445E-4	1.545807E-2	1.453554E-2	-3.576464E-3	1.446387E-3	7.490852E-4	7.859120E-3	-8.016835E-4	1.005411E-2	2.646568E-3	6.169585E-3	-5.607791E-3	1.163294E-2	9.242450E-3	1.951942E-2	-1.868547E-3	1.041666E-2	8.940953E-4	1.236180E-2	-4.260782E-4	-2.624911E-3	1.477007E-3	4.833619E-3	1.040880E-2	-1.836134E-3	5.309624E-3	3.922174E-3	-1.155804E-2	5.906541E-3	9.323681E-3	7.498328E-3	8.880947E-3	8.919257E-3	1.275008E-2	-3.636854E-3	-3.419955E-3	5.364685E-3	-4.212913E-4	3.478515E-3	7.041219E-3	3.595597E-3	3.411099E-3	6.124227E-4	1.380207E-2	-2.319946E-3	-3.443803E-3	-4.867382E-4	8.990269E-3	1.456627E-2	5.670219E-3	1.660230E-2	6.561772E-3	4.713262E-3	9.422736E-3	3.454503E-3	6.344152E-3	5.241593E-3	3.150938E-3	-2.528085E-3	6.051064E-3	-3.828907E-3	1.429053E-3	-8.369291E-5	-1.864355E-3	9.756093E-3	6.723443E-3	3.699764E-3	-2.651933E-4	5.137554E-3	2.403346E-3	7.691841E-3	7.797295E-3	1.381624E-2	8.467569E-3
5.330280E+2	1.067408E-2	1.140087E-2	4.511037E-3	5.594270E-3	1.153777E-2	1.247120E-2	6.906482E-3	1.306477E-2	2.161828E-2	1.737698E-2	2.955970E-3	2.071687E-2	6.436841E-3	1.624531E-2	8.874619E-3	1.226609E-2	1.328792E-2	1.138972E-2	8.412279E-3	7.877758E-3	1.823889E-2	4.161272E-3	3.759045E-3	1.376779E-2	2.374073E-2	1.490975E-2	1.889108E-2	9.022841E-3	1.664577E-2	2.470523E-2	1.693410E-2	7.832839E-3	4.481168E-3	1.068471E-3	1.228965E-2	1.672270E-2	6.177880E-3	1.373693E-2	1.490921E-2	1.040193E-2	2.709048E-2	1.285126E-2	2.536604E-2	1.154722E-2	4.892446E-3	1.614108E-2	1.779623E-2	1.152987E-2	4.443767E-3	2.069296E-2	2.797517E-2	2.720832E-3	7.658815E-3	1.050535E-2	1.131987E-2	1.578448E-2	1.832332E-2	1.526919E-2	3.924222E-3	1.566316E-2	2.185165E-3	1.553731E-2	1.211990E-2	1.203463E-2	1.490334E-2	1.524311E-2	1.493188E-2	1.413154E-2	1.148727E-2	1.575115E-2	1.666066E-2	1.508048E-2	8.164111E-3	1.541694E-2	1.502041E-2	1.064840E-2	8.297834E-3	1.882989E-2	1.725654E-2	6.047546E-3	9.127308E-3	1.721806E-2	2.257626E-2	1.893876E-2	1.729071E-2	2.190010E-2	1.422621E-2	9.630515E-3	1.814273E-2	1.725314E-2	1.856864E-2	2.577095E-2	1.467244E-2	1.791730E-2	1.453554E-2	1.182987E-2	1.931360E-2	5.992781E-3	1.611122E-2	1.743619E-2	1.118015E-2	1.340377E-2	6.769428E-3	8.824029E-3	1.456201E-2	1.188319E-2	4.784201E-3	1.121145E-2	7.812487E-3	2.029572E-2	1.659767E-2	1.806578E-2	1.084959E-2	8.369945E-3	1.047284E-2	9.727861E-3	1.836126E-2	1.398199E-2	6.906464E-3	2.433276E-2	1.129943E-2	2.547187E-2	1.851443E-2	4.150859E-3	5.604102E-3	8.087706E-3	2.377954E-2	1.169986E-2	3.017642E-3	1.801115E-2	1.795655E-2	7.041250E-3	1.503620E-2	2.483986E-2	1.286078E-2	9.627367E-3	8.922776E-3	1.329699E-2	1.450564E-2	1.627708E-2	9.381653E-3	2.016063E-2	2.176747E-2	1.193049E-2	1.571093E-2	1.528573E-2	2.763621E-3	2.114724E-2	3.079446E-2	5.908028E-3	1.821965E-2	1.127321E-2	5.700838E-3	1.743415E-2	1.690414E-2	1.415237E-2	1.097563E-2	2.056582E-2	1.696483E-2	9.015860E-3	6.797423E-3	1.849508E-2	1.105705E-2	1.113873E-3	1.116656E-2	2.135296E-2
5.331680E+2	9.277522E-3	3.316622E-2	1.599365E-2	3.242601E-2	2.401357E-2	1.781607E-2	5.047046E-3	2.068591E-2	2.161830E-2	1.087224E-2	2.812147E-2	1.148842E-2	1.901112E-2	1.222498E-2	5.391130E-3	2.856120E-2	1.558464E-2	1.898285E-2	1.906189E-2	2.879454E-2	2.719837E-2	2.824859E-2	2.130106E-2	2.136094E-2	1.366893E-2	3.923633E-3	1.355415E-2	1.752520E-2	2.060525E-2	5.093859E-3	2.189911E-2	2.434068E-2	1.848480E-2	2.225931E-2	2.854693E-2	2.090338E-3	1.802582E-2	2.787787E-2	1.790819E-2	1.267738E-2	7.935563E-3	1.483563E-2	1.361559E-2	1.718661E-2	1.987560E-2	2.160829E-2	3.884436E-3	1.441232E-2	1.102400E-2	2.464344E-2	1.849971E-2	1.668765E-2	-7.744830E-4	1.821496E-2	1.536857E-2	2.122737E-2	2.551557E-2	3.274714E-2	2.284774E-2	9.361903E-3	1.115192E-2	7.317017E-3	5.639154E-3	1.564497E-2	2.049211E-2	2.511151E-2	1.430598E-2	1.613673E-2	2.076545E-2	8.574574E-3	2.068224E-2	1.291508E-2	1.843804E-2	1.402444E-2	1.828569E-2	2.436347E-2	1.499993E-2	1.950236E-2	1.086523E-2	1.010684E-2	1.551643E-2	2.492617E-2	1.796695E-2	1.756494E-2	2.598033E-2	2.642793E-2	1.075237E-2	2.188759E-2	2.011675E-2	2.905266E-2	2.042552E-2	1.466958E-2	2.400944E-2	2.529504E-2	2.725415E-2	1.118790E-2	1.871801E-2	2.565662E-2	1.473587E-2	1.252598E-2	1.906259E-2	1.878231E-2	7.369238E-3	9.978545E-3	1.807700E-2	2.244598E-2	1.349136E-2	7.474329E-3	1.145833E-2	2.655430E-2	1.599262E-2	3.297864E-2	2.126172E-2	2.077716E-2	2.739055E-2	2.266587E-2	2.692985E-2	2.079598E-2	6.906450E-3	7.908146E-3	1.429547E-2	2.883608E-2	1.462641E-2	2.780124E-2	3.946573E-3	1.807848E-2	2.508506E-2	1.358980E-2	3.604390E-3	1.579921E-2	2.387945E-2	2.073248E-2	1.274808E-2	2.300309E-2	2.143458E-2	3.467557E-2	1.267037E-2	1.865405E-2	1.246120E-2	8.327833E-3	1.399020E-2	2.709089E-2	1.337406E-2	1.491315E-2	1.089943E-2	1.528583E-2	2.072721E-2	1.172708E-2	1.834561E-2	2.382884E-2	2.188103E-2	1.591514E-2	1.642185E-2	6.097205E-3	3.154877E-2	1.593203E-2	1.402440E-2	1.433674E-2	2.707155E-2	1.705948E-2	1.509658E-2	3.751252E-2	1.802742E-3	7.797285E-3	3.501380E-2	1.104471E-2
5.333080E+2	1.695885E-2	3.244067E-2	3.393521E-2	1.139572E-2	2.860995E-2	5.938689E-3	2.240180E-2	2.207156E-2	2.223592E-2	1.087220E-2	2.141063E-2	8.851735E-3	2.477430E-2	2.888058E-2	2.338916E-2	2.229382E-2	2.477139E-2	2.784149E-2	2.908508E-2	3.132991E-2	2.999815E-2	2.712816E-2	3.182626E-2	1.668822E-2	1.303941E-2	1.552011E-2	2.185607E-2	6.593634E-3	1.494891E-2	2.232810E-2	2.996721E-2	3.731116E-2	1.624422E-2	1.665000E-2	2.515996E-2	3.002484E-2	2.750419E-2	2.109022E-2	3.890110E-2	2.632997E-2	1.815155E-2	1.748149E-2	2.601883E-2	2.219934E-2	1.880535E-2	3.011275E-2	3.044330E-2	3.286007E-2	1.700595E-2	3.056918E-2	1.218273E-2	3.382874E-2	8.261198E-3	3.126191E-2	2.173081E-2	2.993606E-2	2.191945E-2	2.535264E-2	1.796420E-2	2.511504E-2	2.803050E-2	2.438995E-2	1.860073E-2	1.444152E-2	2.173406E-2	3.127928E-2	2.369427E-2	2.749926E-2	2.076544E-2	1.640354E-2	6.319584E-3	2.969695E-2	2.614349E-2	2.237946E-2	2.938775E-2	2.853765E-2	3.343071E-2	3.160722E-2	2.812170E-2	2.054512E-2	2.062771E-2	1.721803E-2	2.850257E-2	1.756491E-2	1.418722E-2	1.737222E-2	2.059492E-2	2.556476E-2	3.064524E-2	3.599362E-2	2.909089E-2	1.813876E-2	1.577091E-2	2.775432E-2	3.270502E-2	1.247179E-2	1.990915E-2	1.451377E-2	2.780164E-2	1.603330E-2	1.286925E-2	1.937993E-2	2.356443E-2	3.999671E-2	1.749120E-2	1.254331E-2	3.023597E-2	1.868575E-2	2.343748E-2	2.405087E-2	2.325407E-2	1.031113E-2	2.064924E-2	2.353433E-2	1.736521E-2	3.764685E-2	2.509371E-2	1.955709E-2	1.466561E-2	1.399131E-2	2.508132E-2	1.941631E-2	2.305046E-2	1.293531E-2	1.665452E-2	3.339757E-2	2.377954E-2	1.169987E-2	1.240582E-2	1.063818E-2	2.190514E-2	2.894725E-2	2.876491E-2	1.565605E-2	1.286076E-2	2.036234E-2	2.266393E-2	1.262734E-2	1.859446E-2	3.085075E-2	2.608759E-2	2.646086E-2	3.403476E-2	2.147492E-2	3.564415E-2	7.224133E-3	2.003629E-2	2.787588E-2	1.769039E-2	3.347855E-2	1.821967E-2	2.751989E-2	2.714288E-2	1.343286E-2	2.451931E-2	2.720310E-2	1.768291E-2	4.409782E-2	1.127978E-2	1.767816E-2	1.841625E-2	2.068935E-2	1.946998E-2	2.339181E-2	2.044045E-2	2.135293E-2
5.334580E+2	2.813181E-2	3.244067E-2	3.824120E-2	1.792238E-2	2.795330E-2	1.840992E-2	3.107911E-2	2.137874E-2	2.100061E-2	3.103691E-2	3.762847E-2	2.862692E-2	3.106150E-2	2.715759E-2	3.035608E-2	3.044139E-2	2.304883E-2	2.024838E-2	3.472312E-2	4.210524E-2	2.159870E-2	1.536459E-2	2.714838E-2	3.654724E-2	1.555737E-2	1.674076E-2	1.770511E-2	2.967138E-2	2.852410E-2	2.827090E-2	4.175900E-2	4.733381E-2	2.296593E-2	2.475235E-2	3.464338E-2	3.002481E-2	2.928139E-2	3.353427E-2	3.050394E-2	3.144970E-2	2.709049E-2	1.748151E-2	4.168610E-2	1.593341E-2	3.004272E-2	3.558000E-2	2.159042E-2	4.035450E-2	1.580960E-2	4.966318E-2	4.187252E-2	3.382873E-2	2.392299E-2	3.482015E-2	2.751466E-2	3.211324E-2	1.832328E-2	1.123585E-2	3.017290E-2	2.700542E-2	3.225019E-2	2.375763E-2	1.506572E-2	3.730724E-2	2.173407E-2	3.189603E-2	2.744957E-2	4.420891E-2	1.829126E-2	2.814705E-2	3.791739E-2	1.832858E-2	3.513319E-2	3.282316E-2	3.918361E-2	3.867495E-2	3.566478E-2	3.429726E-2	3.323479E-2	1.764560E-2	3.340598E-2	1.791877E-2	4.430598E-2	1.825186E-2	2.784244E-2	2.901535E-2	3.796411E-2	2.924183E-2	2.472300E-2	2.419403E-2	2.228237E-2	1.536343E-2	3.719117E-2	3.451719E-2	1.938072E-2	1.311372E-2	2.765164E-2	4.400958E-2	4.568114E-2	1.813766E-2	1.849956E-2	3.491810E-2	1.516690E-2	3.191489E-2	2.979359E-2	2.640703E-2	3.291506E-2	2.055434E-2	2.239584E-2	3.156113E-2	2.688480E-2	4.013676E-2	2.187417E-2	4.903809E-2	2.801711E-2	3.151825E-2	2.754189E-2	3.752129E-2	3.615245E-2	2.433271E-2	1.908915E-2	2.883607E-2	3.212254E-2	2.171973E-2	3.212504E-2	4.005808E-2	2.443234E-2	2.366973E-2	1.416611E-2	4.381659E-2	3.111850E-2	2.689353E-2	1.503621E-2	2.728899E-2	2.327182E-2	1.916953E-2	1.766713E-2	2.401112E-2	2.200181E-2	3.880002E-2	3.760893E-2	3.591119E-2	3.661725E-2	1.789575E-2	2.258441E-2	3.727215E-2	3.869077E-2	2.249297E-2	3.210484E-2	2.727519E-2	2.188102E-2	2.461870E-2	2.892972E-2	2.210234E-2	1.631836E-2	2.127095E-2	2.621952E-2	3.925302E-2	3.086156E-2	2.077191E-2	1.896956E-2	1.703217E-2	3.124809E-2	1.002505E-2	1.911561E-2	2.392999E-2
5.336080E+2	3.651145E-2	2.446007E-2	3.178222E-2	5.128075E-2	4.108574E-2	2.316087E-2	3.355835E-2	3.246402E-2	3.705988E-2	2.908551E-2	3.315456E-2	3.324113E-2	3.210928E-2	4.438743E-2	3.500080E-2	6.052477E-2	3.280982E-2	4.619152E-2	2.720570E-2	4.590831E-2	3.839768E-2	4.393314E-2	3.767360E-2	4.998132E-2	4.010749E-2	3.260962E-2	1.770510E-2	4.728345E-2	3.870551E-2	3.718529E-2	4.362093E-2	4.910249E-2	2.128555E-2	2.849188E-2	5.293275E-2	4.332694E-2	2.750422E-2	4.597835E-2	4.070047E-2	3.031199E-2	3.028298E-2	4.658583E-2	3.581091E-2	3.723764E-2	3.753429E-2	4.590672E-2	3.360498E-2	4.669603E-2	3.794313E-2	5.427222E-2	4.566268E-2	3.319389E-2	3.597058E-2	4.786719E-2	3.156342E-2	4.735338E-2	2.551559E-2	3.745273E-2	4.604415E-2	4.275860E-2	3.119525E-2	5.790351E-2	3.332984E-2	3.790900E-2	3.974226E-2	3.559673E-2	3.245672E-2	5.423465E-2	4.550723E-2	3.989049E-2	3.217240E-2	4.323072E-2	3.063836E-2	3.003816E-2	4.310199E-2	4.225275E-2	3.622325E-2	3.967718E-2	3.451302E-2	3.736221E-2	3.787834E-2	2.142248E-2	3.903821E-2	6.152637E-2	3.404928E-2	4.324578E-2	2.464774E-2	4.211175E-2	3.064524E-2	4.224040E-2	3.899424E-2	4.034143E-2	3.114952E-2	4.927265E-2	2.483154E-2	3.622315E-2	4.075428E-2	4.269865E-2	4.636882E-2	5.110606E-2	3.257527E-2	3.252760E-2	2.296464E-2	3.306943E-2	3.155109E-2	3.961049E-2	4.564107E-2	3.861726E-2	3.281246E-2	4.470431E-2	3.959252E-2	2.701355E-2	3.289880E-2	3.180586E-2	4.368162E-2	2.811351E-2	3.182618E-2	4.061858E-2	2.899013E-2	2.919931E-2	2.627974E-2	3.892873E-2	4.054663E-2	4.807303E-2	3.930785E-2	3.539567E-2	3.552946E-2	2.681969E-2	2.883520E-2	2.907056E-2	4.033188E-2	3.168549E-2	3.334118E-2	2.728883E-2	3.919465E-2	2.274786E-2	4.077718E-2	2.869853E-2	3.494981E-2	2.952590E-2	3.300040E-2	5.103170E-2	5.146716E-2	3.698457E-2	3.495679E-2	3.360778E-2	4.007259E-2	3.460457E-2	5.831289E-2	3.141075E-2	4.262877E-2	2.868040E-2	4.143754E-2	3.810753E-2	3.096301E-2	4.440628E-2	3.231706E-2	2.748700E-2	3.717825E-2	3.129040E-2	3.169491E-2	4.482698E-2	2.956550E-2	1.559453E-2	3.766354E-2	2.908426E-2
5.337580E+2	6.165053E-2	6.871635E-2	6.694779E-2	4.040303E-2	3.714604E-2	2.909956E-2	6.021036E-2	4.147078E-2	4.014826E-2	3.038644E-2	4.545776E-2	5.169778E-2	4.573142E-2	5.070508E-2	3.035614E-2	3.921571E-2	4.773814E-2	6.137795E-2	5.101069E-2	5.858513E-2	4.567735E-2	3.328998E-2	4.644467E-2	4.764500E-2	4.514338E-2	4.054407E-2	4.023891E-2	5.092722E-2	4.832130E-2	3.599663E-2	5.975707E-2	5.146083E-2	5.377396E-2	5.217582E-2	4.683625E-2	5.529888E-2	4.409134E-2	4.371582E-2	3.470246E-2	5.818593E-2	3.602947E-2	3.997117E-2	4.821413E-2	4.037050E-2	6.054402E-2	4.165447E-2	6.459039E-2	6.168491E-2	3.555026E-2	5.756412E-2	4.755781E-2	5.477898E-2	3.657294E-2	4.608807E-2	5.759087E-2	4.953066E-2	3.510536E-2	5.560296E-2	4.665468E-2	4.653939E-2	3.752478E-2	5.600670E-2	5.218315E-2	5.054532E-2	3.601645E-2	5.471673E-2	4.872997E-2	6.626551E-2	4.983705E-2	6.207265E-2	3.791743E-2	3.348641E-2	4.540716E-2	5.440697E-2	4.179593E-2	3.688598E-2	4.180825E-2	3.967722E-2	4.346084E-2	7.273611E-2	5.832356E-2	3.403573E-2	5.154930E-2	6.083960E-2	3.218728E-2	5.618254E-2	3.912204E-2	3.843460E-2	5.170209E-2	5.195772E-2	5.137332E-2	5.352430E-2	3.993729E-2	4.619869E-2	4.966318E-2	6.318428E-2	5.326127E-2	4.794234E-2	6.493626E-2	3.777839E-2	3.876856E-2	3.790622E-2	3.436123E-2	6.308751E-2	5.088347E-2	4.291141E-2	4.898997E-2	4.422301E-2	3.958343E-2	5.596969E-2	5.290522E-2	5.803217E-2	3.289878E-2	5.041674E-2	6.122596E-2	5.194678E-2	4.773928E-2	4.433533E-2	5.584876E-2	4.379892E-2	3.586711E-2	4.633002E-2	4.508264E-2	3.455846E-2	2.549480E-2	5.737530E-2	5.511258E-2	3.626959E-2	2.707488E-2	5.487618E-2	4.493849E-2	4.400761E-2	3.620144E-2	4.565645E-2	5.205542E-2	5.435619E-2	5.701674E-2	3.807340E-2	4.926073E-2	4.078738E-2	5.258670E-2	6.300211E-2	4.694774E-2	3.459845E-2	3.908090E-2	3.580653E-2	4.974526E-2	4.873475E-2	3.603602E-2	5.760290E-2	3.591627E-2	4.840837E-2	3.965074E-2	3.877435E-2	2.334777E-2	4.025380E-2	4.085363E-2	5.517166E-2	4.475845E-2	4.614021E-2	3.224817E-2	4.702132E-2	3.124809E-2	4.232803E-2	4.163809E-2	5.743214E-2
5.339140E+2	5.187419E-2	6.944171E-2	6.192411E-2	5.128076E-2	5.290502E-2	6.057458E-2	6.021027E-2	5.463448E-2	7.226695E-2	5.640545E-2	6.670857E-2	7.279131E-2	6.721246E-2	6.850931E-2	6.402987E-2	5.864447E-2	4.371890E-2	7.719679E-2	4.913147E-2	7.633267E-2	6.135622E-2	5.737720E-2	5.930875E-2	7.626545E-2	6.654594E-2	6.495763E-2	5.624977E-2	6.793188E-2	6.529050E-2	6.155074E-2	7.154885E-2	9.155113E-2	5.377408E-2	7.274343E-2	5.631967E-2	6.195012E-2	6.304817E-2	5.898816E-2	7.368926E-2	7.638942E-2	4.305290E-2	4.989308E-2	6.192307E-2	6.042158E-2	4.663121E-2	7.445732E-2	6.711963E-2	7.321459E-2	7.323703E-2	7.336603E-2	6.903579E-2	6.557166E-2	6.247506E-2	5.023934E-2	4.660160E-2	5.061918E-2	6.147735E-2	6.703095E-2	7.046170E-2	7.363480E-2	4.385433E-2	6.612391E-2	5.453968E-2	7.040235E-2	5.837150E-2	5.903416E-2	5.624029E-2	9.300110E-2	5.973373E-2	6.729187E-2	7.526010E-2	5.459895E-2	7.687111E-2	4.744443E-2	6.204086E-2	6.789399E-2	4.124981E-2	8.675186E-2	8.180867E-2	6.693728E-2	4.873987E-2	6.977332E-2	6.537718E-2	8.419402E-2	8.060118E-2	6.006361E-2	6.054413E-2	7.520572E-2	8.789346E-2	5.889877E-2	5.323016E-2	6.740100E-2	5.696361E-2	6.771691E-2	5.269151E-2	6.511016E-2	6.159926E-2	6.826157E-2	5.324555E-2	7.916410E-2	5.960075E-2	7.077527E-2	5.955366E-2	7.059213E-2	6.318582E-2	4.819276E-2	7.779074E-2	6.477731E-2	7.291668E-2	6.160255E-2	6.682276E-2	8.845422E-2	7.638481E-2	5.179528E-2	6.373238E-2	8.122774E-2	5.936824E-2	6.106045E-2	6.897942E-2	7.056489E-2	6.822458E-2	6.786102E-2	6.322695E-2	6.564190E-2	6.361866E-2	6.203770E-2	6.816803E-2	8.918892E-2	5.113223E-2	8.510524E-2	5.086134E-2	9.124235E-2	5.507834E-2	8.177914E-2	6.491622E-2	5.435645E-2	7.075780E-2	6.418914E-2	6.766062E-2	6.198549E-2	6.295578E-2	5.418176E-2	7.148203E-2	5.547700E-2	6.245097E-2	5.486135E-2	5.734528E-2	4.469754E-2	5.503673E-2	7.276678E-2	7.924264E-2	6.523545E-2	4.501122E-2	5.077826E-2	6.142390E-2	5.805024E-2	4.878049E-2	6.693785E-2	7.571034E-2	6.593973E-2	5.935893E-2	8.213043E-2	8.256724E-2	6.794762E-2	6.151080E-2	4.454678E-2
5.340640E+2	8.329823E-2	9.193256E-2	8.560686E-2	8.536425E-2	9.755505E-2	7.423352E-2	9.491985E-2	7.472657E-2	8.091414E-2	8.242441E-2	9.690732E-2	7.542828E-2	9.131327E-2	1.018203E-1	9.189791E-2	1.043962E-1	9.137504E-2	9.175061E-2	1.036321E-1	1.181664E-1	8.039494E-2	1.066719E-1	8.913030E-2	8.969921E-2	7.221153E-2	8.692995E-2	9.479439E-2	8.311479E-2	8.734986E-2	7.284204E-2	1.000975E-1	9.273047E-2	7.113841E-2	9.268767E-2	9.018881E-2	9.720038E-2	9.207554E-2	8.953262E-2	8.208647E-2	1.008504E-1	8.966331E-2	8.693503E-2	1.115359E-1	7.921947E-2	9.425616E-2	8.660661E-2	9.936982E-2	9.569787E-2	9.297764E-2	9.245973E-2	1.006206E-1	1.125509E-1	8.717241E-2	1.071716E-1	7.725614E-2	8.871959E-2	8.425292E-2	9.459241E-2	9.976231E-2	9.631940E-2	7.286433E-2	1.040637E-1	7.574972E-2	1.028957E-1	8.196862E-2	9.295661E-2	9.066421E-2	9.166423E-2	7.643442E-2	9.469329E-2	7.353672E-2	8.545618E-2	7.943953E-2	8.573808E-2	8.424488E-2	8.578325E-2	8.202102E-2	1.062541E-1	9.714779E-2	1.040509E-1	8.771344E-2	9.009442E-2	8.578989E-2	1.137306E-1	9.053226E-2	9.693335E-2	8.601888E-2	1.076870E-1	7.144283E-2	9.082683E-2	1.015086E-1	1.111123E-1	7.948209E-2	1.138278E-1	9.145282E-2	1.081192E-1	7.172415E-2	9.054725E-2	9.794431E-2	8.898474E-2	8.493688E-2	8.870379E-2	8.654588E-2	9.541500E-2	1.071229E-1	1.029871E-1	8.381863E-2	8.034871E-2	8.541666E-2	1.079160E-1	1.007098E-1	1.045603E-1	8.067204E-2	7.247386E-2	9.380821E-2	1.030180E-1	7.650545E-2	8.955536E-2	9.762856E-2	9.428949E-2	1.017803E-1	9.006464E-2	9.173943E-2	8.388652E-2	8.682433E-2	1.046649E-1	9.101508E-2	9.044906E-2	6.580136E-2	9.690209E-2	1.054832E-1	9.466544E-2	7.166734E-2	7.871772E-2	8.696325E-2	9.431410E-2	8.824653E-2	7.490318E-2	9.014893E-2	1.050441E-1	8.254204E-2	8.379259E-2	1.044101E-1	1.145329E-1	7.757261E-2	9.663555E-2	9.879956E-2	1.240959E-1	8.321054E-2	9.620160E-2	8.717545E-2	9.308707E-2	8.968212E-2	9.145797E-2	7.489685E-2	8.177895E-2	7.256095E-2	1.063886E-1	9.592360E-2	8.759558E-2	6.710465E-2	9.017648E-2	9.771033E-2	8.465603E-2	4.561258E-2	8.062598E-2
5.342090E+2	1.545251E-1	1.492482E-1	1.200548E-1	1.230738E-1	1.021517E-1	9.739448E-2	1.370670E-1	1.329242E-1	1.439158E-1	1.357632E-1	1.444420E-1	1.334352E-1	1.421340E-1	1.466183E-1	1.429890E-1	1.695765E-1	1.103228E-1	1.259197E-1	1.324488E-1	1.536616E-1	1.358318E-1	1.520457E-1	1.154430E-1	1.393468E-1	1.137578E-1	1.345367E-1	1.048751E-1	1.414164E-1	1.275101E-1	1.340537E-1	1.602980E-1	1.499184E-1	1.159499E-1	1.163718E-1	1.518311E-1	1.590553E-1	1.341361E-1	1.279960E-1	1.414662E-1	1.372571E-1	1.183954E-1	1.332374E-1	1.239392E-1	1.525308E-1	1.322490E-1	1.552497E-1	1.600758E-1	1.470058E-1	1.282712E-1	1.392071E-1	1.840044E-1	1.525468E-1	1.293389E-1	1.409750E-1	1.258404E-1	1.409715E-1	1.417915E-1	1.355983E-1	1.278423E-1	1.309765E-1	1.166433E-1	1.685617E-1	1.411468E-1	1.630687E-1	1.316467E-1	1.287295E-1	1.444905E-1	1.598395E-1	1.333404E-1	1.338383E-1	1.258168E-1	1.352606E-1	1.378723E-1	1.421340E-1	1.410611E-1	1.346807E-1	1.155314E-1	1.775384E-1	1.463611E-1	1.527628E-1	1.464934E-1	1.370440E-1	1.503205E-1	1.631871E-1	1.395667E-1	1.344503E-1	1.207572E-1	1.420067E-1	1.464578E-1	1.352489E-1	1.442168E-1	1.534365E-1	1.239704E-1	1.439532E-1	1.283973E-1	1.845092E-1	1.098408E-1	1.475725E-1	1.426432E-1	1.472057E-1	1.299792E-1	1.323301E-1	1.159371E-1	1.566057E-1	1.112237E-1	1.293943E-1	1.467785E-1	1.557146E-1	1.119793E-1	1.623659E-1	1.527507E-1	1.719661E-1	1.063961E-1	1.586352E-1	1.395485E-1	1.425131E-1	1.224083E-1	1.607930E-1	1.232935E-1	1.374801E-1	1.329396E-1	1.358179E-1	1.390432E-1	1.210512E-1	1.078201E-1	1.586147E-1	1.686953E-1	1.628978E-1	1.168495E-1	1.300801E-1	1.232519E-1	1.501149E-1	1.191455E-1	1.142282E-1	1.371811E-1	1.456034E-1	1.207257E-1	1.345006E-1	1.289932E-1	1.375038E-1	1.194102E-1	1.669557E-1	1.670376E-1	1.598690E-1	1.518065E-1	1.581972E-1	1.430175E-1	1.563932E-1	1.461096E-1	1.279081E-1	1.451471E-1	1.342838E-1	1.081460E-1	1.154656E-1	1.141446E-1	1.078802E-1	1.323171E-1	1.652183E-1	1.691972E-1	1.748374E-1	1.025147E-1	1.443033E-1	1.406168E-1	1.470345E-1	8.535806E-2	1.192819E-1
5.343550E+2	2.180714E-1	2.406621E-1	2.061745E-1	1.926912E-1	2.157472E-1	1.799423E-1	2.114446E-1	2.063643E-1	2.019764E-1	2.157719E-1	2.042800E-1	2.349476E-1	1.955746E-1	2.517205E-1	2.393657E-1	2.485446E-1	1.889841E-1	2.334890E-1	2.207778E-1	2.316242E-1	2.063876E-1	2.097430E-1	1.978909E-1	2.170303E-1	2.163642E-1	2.114394E-1	1.801856E-1	2.276540E-1	2.129209E-1	2.428074E-1	2.056032E-1	2.513237E-1	1.814868E-1	1.998886E-1	2.337943E-1	2.295568E-1	1.939680E-1	2.156700E-1	2.272375E-1	2.311186E-1	2.135313E-1	2.159198E-1	2.153315E-1	2.390010E-1	1.921816E-1	2.123512E-1	2.214144E-1	2.542335E-1	1.797168E-1	2.406030E-1	2.111674E-1	2.541237E-1	2.064434E-1	2.210364E-1	2.056579E-1	2.090082E-1	1.945350E-1	2.182821E-1	2.096405E-1	2.317969E-1	1.999810E-1	2.330600E-1	2.424829E-1	2.659647E-1	1.856710E-1	2.045931E-1	1.908061E-1	2.547505E-1	1.723089E-1	2.375721E-1	2.229086E-1	2.289139E-1	1.982320E-1	2.305579E-1	2.174692E-1	2.294938E-1	2.127121E-1	2.696707E-1	2.364781E-1	2.426476E-1	2.538303E-1	2.274386E-1	2.530426E-1	2.655350E-1	1.948081E-1	2.256543E-1	2.180248E-1	2.241286E-1	2.260794E-1	2.393624E-1	2.222048E-1	2.505728E-1	2.063555E-1	2.220343E-1	2.374137E-1	2.801565E-1	1.878608E-1	2.544125E-1	2.368546E-1	2.327831E-1	2.155595E-1	1.992636E-1	2.125086E-1	2.368464E-1	2.125722E-1	2.020136E-1	2.331809E-1	2.049206E-1	1.947916E-1	2.481083E-1	2.302067E-1	2.268450E-1	1.958177E-1	2.227392E-1	2.178709E-1	2.412512E-1	2.301276E-1	2.190214E-1	2.241624E-1	2.031786E-1	2.234210E-1	2.347258E-1	2.343002E-1	1.913266E-1	2.072735E-1	2.558576E-1	2.594305E-1	2.492072E-1	1.825667E-1	2.414123E-1	2.088040E-1	2.445848E-1	1.883613E-1	1.938207E-1	1.782133E-1	2.326757E-1	2.162885E-1	2.128475E-1	2.271251E-1	2.593924E-1	2.115811E-1	2.394077E-1	2.638846E-1	2.421890E-1	2.074824E-1	2.556703E-1	2.314532E-1	2.351186E-1	1.978707E-1	2.209585E-1	2.006779E-1	2.178383E-1	2.016570E-1	1.928239E-1	1.873681E-1	2.093199E-1	1.749999E-1	2.254332E-1	2.007805E-1	2.565105E-1	1.689078E-1	2.393909E-1	2.272699E-1	2.461704E-1	2.138686E-1	2.172112E-1
5.345050E+2	4.135969E-1	4.082552E-1	3.389423E-1	4.363523E-1	3.365657E-1	2.708041E-1	3.787936E-1	3.774932E-1	3.588635E-1	3.549735E-1	3.530362E-1	4.188569E-1	3.448944E-1	4.096611E-1	4.152819E-1	4.409528E-1	3.428618E-1	3.980067E-1	4.268791E-1	4.560042E-1	3.631782E-1	3.660298E-1	3.879297E-1	3.928412E-1	3.321904E-1	3.835554E-1	3.225041E-1	3.740158E-1	3.560261E-1	3.812760E-1	3.837224E-1	4.399851E-1	3.125609E-1	3.849971E-1	4.133011E-1	3.818664E-1	3.687255E-1	3.231418E-1	3.783861E-1	3.693509E-1	3.840105E-1	3.845929E-1	3.687401E-1	3.849975E-1	3.971294E-1	4.340743E-1	4.370472E-1	3.989334E-1	3.083300E-1	4.137654E-1	4.253129E-1	4.420407E-1	3.612547E-1	3.704829E-1	3.577741E-1	3.918901E-1	3.353846E-1	4.065063E-1	3.872769E-1	3.697943E-1	3.671846E-1	4.170685E-1	4.251237E-1	4.525012E-1	3.520921E-1	3.822239E-1	4.123702E-1	4.064738E-1	3.615836E-1	4.019807E-1	3.619391E-1	3.913191E-1	3.523406E-1	4.101901E-1	3.866118E-1	3.350405E-1	3.400524E-1	4.391393E-1	3.943435E-1	4.200977E-1	3.605288E-1	4.278492E-1	4.137104E-1	4.118438E-1	3.791538E-1	4.003003E-1	3.755054E-1	4.190158E-1	3.767671E-1	4.205201E-1	3.917989E-1	4.219499E-1	3.716755E-1	4.532025E-1	4.275875E-1	4.335775E-1	3.284163E-1	4.451518E-1	4.149615E-1	4.039385E-1	3.484346E-1	3.905022E-1	3.576656E-1	3.927099E-1	3.350108E-1	4.027071E-1	3.899100E-1	3.942695E-1	3.374999E-1	4.114577E-1	4.147697E-1	4.648539E-1	3.324001E-1	4.191865E-1	3.745160E-1	4.012743E-1	3.402954E-1	3.974245E-1	3.954596E-1	3.728996E-1	3.648349E-1	4.177389E-1	4.092616E-1	3.737723E-1	3.354579E-1	4.390210E-1	4.630952E-1	4.533244E-1	3.456867E-1	4.109913E-1	3.930716E-1	4.020341E-1	3.582542E-1	3.474951E-1	3.398914E-1	3.895249E-1	3.630687E-1	3.856126E-1	4.165745E-1	4.157284E-1	3.803687E-1	4.107732E-1	4.646799E-1	4.563416E-1	3.738219E-1	4.234989E-1	4.207614E-1	4.154470E-1	3.695331E-1	4.394553E-1	3.709313E-1	3.901692E-1	3.404348E-1	3.508745E-1	3.103832E-1	3.066070E-1	3.548782E-1	4.206102E-1	3.991249E-1	4.229509E-1	2.773505E-1	4.171311E-1	3.837505E-1	4.622669E-1	3.993473E-1	4.208009E-1
5.346870E+2	7.473872E-1	6.716161E-1	6.568668E-1	7.764629E-1	6.464913E-1	5.338878E-1	6.670061E-1	7.287575E-1	6.442245E-1	6.535409E-1	6.785104E-1	8.024955E-1	6.189083E-1	7.364545E-1	7.700176E-1	7.674813E-1	6.276503E-1	7.042634E-1	7.137918E-1	7.583473E-1	6.381220E-1	6.674000E-1	6.165605E-1	6.854691E-1	6.072773E-1	6.630918E-1	5.342033E-1	6.582365E-1	6.275303E-1	7.265546E-1	6.865857E-1	7.400746E-1	5.495025E-1	7.034834E-1	7.790880E-1	7.031128E-1	6.157559E-1	6.138795E-1	6.650888E-1	6.947372E-1	6.783573E-1	6.379328E-1	6.683765E-1	7.070668E-1	6.411403E-1	6.904232E-1	7.740918E-1	7.413706E-1	6.295641E-1	7.001750E-1	7.095769E-1	7.448674E-1	6.762980E-1	7.304609E-1	6.111073E-1	6.607699E-1	6.110900E-1	7.083369E-1	6.827270E-1	6.804470E-1	6.298578E-1	7.711746E-1	7.291319E-1	7.726218E-1	6.644414E-1	6.320175E-1	7.009045E-1	7.540342E-1	6.300324E-1	7.536323E-1	6.422981E-1	6.657840E-1	6.104735E-1	7.743282E-1	6.471836E-1	6.737440E-1	5.908224E-1	7.296568E-1	7.132697E-1	7.135280E-1	6.716793E-1	7.915308E-1	7.442649E-1	7.085840E-1	6.801887E-1	6.797348E-1	6.534121E-1	7.076692E-1	6.945939E-1	6.821934E-1	6.616631E-1	6.987897E-1	6.320131E-1	7.845855E-1	7.219316E-1	7.487649E-1	6.053581E-1	7.387988E-1	7.175384E-1	7.700980E-1	6.220670E-1	6.588336E-1	6.551772E-1	6.900049E-1	6.320260E-1	6.489522E-1	6.926529E-1	6.807845E-1	6.062497E-1	7.394073E-1	7.179366E-1	8.042695E-1	5.847408E-1	7.031743E-1	6.978311E-1	7.860112E-1	6.389716E-1	6.774184E-1	6.992594E-1	6.429932E-1	6.620440E-1	7.662718E-1	7.138239E-1	6.954170E-1	5.990094E-1	7.414067E-1	7.901339E-1	7.317812E-1	5.909532E-1	7.272918E-1	6.898722E-1	7.983964E-1	6.219598E-1	6.646405E-1	6.142540E-1	6.942775E-1	6.353921E-1	7.050274E-1	6.605418E-1	7.310495E-1	6.436313E-1	7.541347E-1	7.487636E-1	7.886063E-1	6.631974E-1	7.760136E-1	6.791605E-1	7.518803E-1	6.113021E-1	7.330823E-1	6.223454E-1	6.617214E-1	5.959522E-1	5.749470E-1	5.241949E-1	6.376203E-1	5.719510E-1	7.652852E-1	6.795859E-1	7.106635E-1	5.091737E-1	7.550577E-1	7.169045E-1	7.050960E-1	5.980743E-1	7.017028E-1
5.348070E+2	1.017632E+0	1.019861E+0	9.848396E-1	1.118748E+0	9.157062E-1	8.171631E-1	9.322851E-1	1.001732E+0	9.660295E-1	9.299921E-1	9.631616E-1	1.072756E+0	8.997332E-1	1.062098E+0	1.109078E+0	1.116573E+0	9.147354E-1	1.066835E+0	1.004462E+0	1.100621E+0	9.449817E-1	1.014705E+0	9.966380E-1	1.007885E+0	8.829934E-1	9.285902E-1	8.063872E-1	9.685721E-1	9.041261E-1	1.046281E+0	1.045305E+0	1.074358E+0	7.920459E-1	9.889358E-1	1.121844E+0	1.067593E+0	9.640854E-1	8.921737E-1	1.006373E+0	1.003057E+0	9.273705E-1	9.627106E-1	1.009139E+0	1.033522E+0	9.686285E-1	1.031815E+0	1.094062E+0	1.086689E+0	9.370398E-1	1.042550E+0	1.100598E+0	1.084514E+0	9.443563E-1	9.878430E-1	9.413668E-1	9.595865E-1	8.993824E-1	9.489948E-1	9.836712E-1	9.734567E-1	8.714328E-1	1.118959E+0	1.010753E+0	1.090335E+0	9.401539E-1	9.589079E-1	1.042637E+0	1.062161E+0	9.665213E-1	1.050481E+0	9.622982E-1	9.656912E-1	8.968595E-1	1.066056E+0	9.521629E-1	8.973602E-1	9.052625E-1	1.123067E+0	1.085245E+0	1.051031E+0	9.668564E-1	1.065518E+0	1.043212E+0	1.135834E+0	9.743961E-1	1.009622E+0	9.828481E-1	1.052705E+0	9.814930E-1	1.068108E+0	9.655705E-1	1.047094E+0	8.868583E-1	1.111664E+0	1.044742E+0	1.117232E+0	9.192256E-1	1.035068E+0	1.057248E+0	1.048575E+0	9.187833E-1	9.982824E-1	9.616850E-1	1.001731E+0	8.798320E-1	9.328275E-1	9.605662E-1	9.996871E-1	8.822920E-1	1.019165E+0	1.105822E+0	1.109683E+0	8.750549E-1	1.096070E+0	1.025534E+0	1.052263E+0	9.137786E-1	9.902433E-1	9.821683E-1	9.994667E-1	9.017288E-1	1.056939E+0	1.020979E+0	9.717889E-1	8.581411E-1	1.141700E+0	1.070826E+0	1.058117E+0	8.913760E-1	1.047279E+0	1.030767E+0	1.046208E+0	9.217035E-1	9.940307E-1	9.296488E-1	9.906804E-1	9.014699E-1	9.333719E-1	1.029900E+0	1.047035E+0	9.063167E-1	1.058434E+0	1.078042E+0	1.065991E+0	9.250786E-1	1.154913E+0	1.025305E+0	1.066782E+0	9.264538E-1	9.798392E-1	9.561395E-1	9.553214E-1	8.538520E-1	9.130552E-1	7.919000E-1	8.731264E-1	8.530482E-1	1.118958E+0	1.054797E+0	1.041069E+0	7.481897E-1	1.034469E+0	1.004627E+0	1.060429E+0	8.524448E-1	9.181776E-1
5.349630E+2	1.718732E+0	1.486367E+0	1.445579E+0	1.598816E+0	1.668851E+0	1.143195E+0	1.351895E+0	1.528976E+0	1.542926E+0	1.347597E+0	1.445219E+0	1.621188E+0	1.362360E+0	1.522713E+0	1.567738E+0	1.624853E+0	1.352255E+0	1.521159E+0	1.477429E+0	1.580443E+0	1.402474E+0	1.405704E+0	1.358591E+0	1.510202E+0	1.332450E+0	1.411369E+0	1.232750E+0	1.381542E+0	1.315905E+0	1.481890E+0	1.497117E+0	1.580797E+0	1.198709E+0	1.430830E+0	1.591272E+0	1.489268E+0	1.382318E+0	1.324323E+0	1.355455E+0	1.398414E+0	1.362187E+0	1.362893E+0	1.431503E+0	1.437677E+0	1.318592E+0	1.475262E+0	1.545565E+0	1.553648E+0	1.296559E+0	1.534383E+0	1.583217E+0	1.523833E+0	1.344335E+0	1.393485E+0	1.415065E+0	1.424410E+0	1.289567E+0	1.394011E+0	1.306591E+0	1.367285E+0	1.299728E+0	1.527444E+0	1.529805E+0	1.502519E+0	1.286656E+0	1.338225E+0	1.465113E+0	1.536713E+0	1.314143E+0	1.463458E+0	1.393751E+0	1.383615E+0	1.309744E+0	1.478931E+0	1.340733E+0	1.348766E+0	1.254888E+0	1.576999E+0	1.510906E+0	1.506834E+0	1.380871E+0	1.461434E+0	1.516658E+0	1.629713E+0	1.435568E+0	1.349211E+0	1.381180E+0	1.516635E+0	1.442771E+0	1.421400E+0	1.346227E+0	1.548042E+0	1.304824E+0	1.561090E+0	1.525022E+0	1.558240E+0	1.224160E+0	1.476195E+0	1.541372E+0	1.526967E+0	1.278560E+0	1.381955E+0	1.425948E+0	1.378691E+0	1.274093E+0	1.389008E+0	1.351052E+0	1.421987E+0	1.230728E+0	1.456016E+0	1.519119E+0	1.564224E+0	1.192930E+0	1.534455E+0	1.403361E+0	1.557528E+0	1.277944E+0	1.452976E+0	1.385047E+0	1.387575E+0	1.287021E+0	1.462662E+0	1.457086E+0	1.364383E+0	1.200152E+0	1.572634E+0	1.466406E+0	1.488401E+0	1.241673E+0	1.512515E+0	1.452604E+0	1.465161E+0	1.260344E+0	1.383423E+0	1.338132E+0	1.432004E+0	1.293093E+0	1.325777E+0	1.412206E+0	1.504779E+0	1.376390E+0	1.537877E+0	1.603598E+0	1.540230E+0	1.400039E+0	1.576318E+0	1.431556E+0	1.482612E+0	1.250124E+0	1.494719E+0	1.310072E+0	1.353364E+0	1.272565E+0	1.294511E+0	1.151573E+0	1.232613E+0	1.200610E+0	1.587524E+0	1.436324E+0	1.479135E+0	1.042534E+0	1.550866E+0	1.416863E+0	1.491507E+0	1.241951E+0	1.369169E+0
5.351090E+2	2.086741E+0	1.839688E+0	1.839580E+0	1.978813E+0	1.996509E+0	1.494768E+0	1.606022E+0	1.902409E+0	1.840024E+0	1.753491E+0	1.715332E+0	1.975164E+0	1.756879E+0	1.986196E+0	1.928859E+0	1.974573E+0	1.819628E+0	1.911574E+0	1.889009E+0	1.863770E+0	1.921003E+0	1.826947E+0	1.777257E+0	1.811592E+0	1.823450E+0	1.703721E+0	1.486551E+0	1.687628E+0	1.706761E+0	1.867578E+0	1.908590E+0	1.895624E+0	1.450217E+0	1.786712E+0	2.001085E+0	1.836457E+0	1.821878E+0	1.656353E+0	1.759720E+0	1.761344E+0	1.782956E+0	1.714791E+0	1.783365E+0	1.816142E+0	1.615582E+0	1.899878E+0	1.925609E+0	1.867836E+0	1.600446E+0	1.849764E+0	1.847898E+0	1.878722E+0	1.755154E+0	1.789639E+0	1.673606E+0	1.703090E+0	1.685142E+0	1.855829E+0	1.711919E+0	1.668485E+0	1.648902E+0	1.891035E+0	1.872696E+0	1.974280E+0	1.631918E+0	1.657097E+0	1.853163E+0	1.902986E+0	1.671664E+0	1.792927E+0	1.724093E+0	1.712216E+0	1.644929E+0	1.849338E+0	1.636572E+0	1.682103E+0	1.527999E+0	1.980495E+0	1.971076E+0	1.851875E+0	1.701607E+0	1.913407E+0	1.863670E+0	1.899663E+0	1.729780E+0	1.715322E+0	1.696142E+0	1.846350E+0	1.752698E+0	1.866313E+0	1.720696E+0	1.843613E+0	1.581090E+0	1.934280E+0	1.904158E+0	1.839404E+0	1.581502E+0	1.864226E+0	1.835008E+0	1.890325E+0	1.610183E+0	1.773993E+0	1.707866E+0	1.756226E+0	1.542989E+0	1.628653E+0	1.678576E+0	1.728435E+0	1.591145E+0	1.879723E+0	1.929394E+0	1.954343E+0	1.591653E+0	1.844639E+0	1.820664E+0	1.847616E+0	1.577842E+0	1.768897E+0	1.740176E+0	1.696599E+0	1.644752E+0	1.865694E+0	1.789515E+0	1.683327E+0	1.492433E+0	1.920977E+0	1.900500E+0	1.899155E+0	1.539747E+0	1.876001E+0	1.727030E+0	1.914234E+0	1.599558E+0	1.630154E+0	1.624128E+0	1.699784E+0	1.625379E+0	1.695414E+0	1.710690E+0	1.829373E+0	1.673638E+0	1.940462E+0	1.893490E+0	1.927970E+0	1.646800E+0	1.995525E+0	1.861299E+0	1.818373E+0	1.570516E+0	1.896560E+0	1.621289E+0	1.663792E+0	1.573948E+0	1.603945E+0	1.371827E+0	1.549987E+0	1.481096E+0	1.910743E+0	1.822276E+0	1.809540E+0	1.345175E+0	1.833204E+0	1.801336E+0	1.868003E+0	1.550639E+0	1.678417E+0
5.352650E+2	2.246654E+0	2.098694E+0	2.050568E+0	2.304417E+0	2.221073E+0	1.620072E+0	1.949396E+0	2.088779E+0	2.114887E+0	1.949290E+0	1.916654E+0	2.223670E+0	1.919821E+0	2.090147E+0	2.192444E+0	2.219626E+0	1.968912E+0	2.098869E+0	2.081324E+0	2.185761E+0	2.108034E+0	1.947943E+0	1.928119E+0	1.983315E+0	1.985230E+0	1.961900E+0	1.628278E+0	2.001606E+0	1.884934E+0	2.048244E+0	2.109675E+0	2.154447E+0	1.659154E+0	1.975557E+0	2.270010E+0	2.109147E+0	2.120447E+0	1.844711E+0	1.949853E+0	2.040653E+0	2.051124E+0	1.957551E+0	2.037954E+0	2.071789E+0	1.794844E+0	2.045667E+0	2.241786E+0	2.133024E+0	1.993463E+0	2.077575E+0	2.191538E+0	2.127585E+0	2.285852E+0	1.946794E+0	1.939666E+0	1.909918E+0	2.002202E+0	1.949943E+0	1.884059E+0	1.996151E+0	1.866215E+0	2.150291E+0	2.175527E+0	2.184882E+0	1.905769E+0	1.866799E+0	2.045308E+0	2.070084E+0	2.080521E+0	2.016058E+0	1.922299E+0	1.879492E+0	2.052675E+0	2.111126E+0	1.947426E+0	1.824026E+0	1.854169E+0	2.154675E+0	2.109131E+0	2.080359E+0	1.861333E+0	2.103311E+0	2.065168E+0	2.189533E+0	1.973708E+0	1.968881E+0	1.921944E+0	2.063914E+0	2.000777E+0	2.053024E+0	1.851915E+0	2.086456E+0	1.793097E+0	2.165447E+0	2.077976E+0	2.133408E+0	1.826879E+0	2.059551E+0	2.078444E+0	2.093744E+0	1.820192E+0	1.942521E+0	1.894411E+0	1.979055E+0	1.742760E+0	1.968640E+0	1.931755E+0	1.934600E+0	1.722916E+0	2.174502E+0	2.086123E+0	2.069476E+0	1.760697E+0	2.096917E+0	2.012397E+0	2.033515E+0	1.804914E+0	1.985711E+0	1.915055E+0	1.880923E+0	1.828711E+0	2.138867E+0	1.938558E+0	1.827255E+0	1.675869E+0	2.190726E+0	2.145290E+0	2.204704E+0	1.683505E+0	2.120049E+0	1.969210E+0	2.050462E+0	1.745999E+0	1.864037E+0	1.859295E+0	1.945495E+0	1.855848E+0	1.961258E+0	1.995546E+0	2.049969E+0	1.857979E+0	2.048825E+0	2.106553E+0	2.153459E+0	1.883939E+0	2.223451E+0	2.001553E+0	2.037055E+0	1.723179E+0	2.115058E+0	1.839140E+0	1.877905E+0	1.712128E+0	1.767996E+0	1.565721E+0	1.691168E+0	1.674389E+0	2.081694E+0	1.979561E+0	1.991447E+0	1.432042E+0	2.103838E+0	1.965384E+0	2.010581E+0	1.581110E+0	1.809848E+0
5.354170E+2	2.282263E+0	2.028324E+0	2.044112E+0	2.308769E+0	2.266377E+0	1.589193E+0	1.897951E+0	2.155987E+0	2.110562E+0	1.891395E+0	1.939023E+0	2.226968E+0	1.956496E+0	2.104506E+0	2.240632E+0	2.241561E+0	1.967191E+0	2.086213E+0	2.076938E+0	2.128716E+0	2.141073E+0	1.971468E+0	1.955601E+0	2.043473E+0	2.048179E+0	1.966166E+0	1.697066E+0	1.926300E+0	1.951682E+0	2.074985E+0	2.091677E+0	2.109050E+0	1.685478E+0	1.987403E+0	2.205658E+0	2.093190E+0	2.109785E+0	1.850366E+0	1.987041E+0	1.987180E+0	2.051765E+0	1.886108E+0	1.958966E+0	2.042340E+0	1.846211E+0	2.111884E+0	2.252534E+0	2.150321E+0	1.942616E+0	2.049264E+0	2.180803E+0	2.112347E+0	2.212964E+0	2.024481E+0	1.928671E+0	1.879440E+0	2.067535E+0	1.969437E+0	1.912143E+0	1.928100E+0	1.853557E+0	2.149659E+0	2.065945E+0	2.145770E+0	1.885896E+0	1.868034E+0	2.071598E+0	2.026640E+0	2.125058E+0	2.083908E+0	1.915978E+0	1.869747E+0	1.922326E+0	2.162648E+0	2.022531E+0	1.821043E+0	1.884886E+0	2.251513E+0	2.141728E+0	2.107033E+0	1.955892E+0	2.197206E+0	2.086894E+0	2.131147E+0	2.172328E+0	2.025809E+0	1.950310E+0	2.123359E+0	2.036968E+0	1.952381E+0	1.910716E+0	2.041359E+0	1.866695E+0	2.133480E+0	2.084037E+0	2.103877E+0	1.998406E+0	2.014980E+0	2.136895E+0	2.147758E+0	2.104522E+0	1.917420E+0	1.888411E+0	1.938064E+0	1.975919E+0	2.003631E+0	1.915010E+0	1.917781E+0	1.893752E+0	2.111916E+0	2.071599E+0	2.115405E+0	1.809696E+0	2.096918E+0	1.999238E+0	2.111141E+0	1.983016E+0	1.990666E+0	1.935943E+0	1.869974E+0	1.932375E+0	2.103883E+0	1.949570E+0	1.887394E+0	1.716755E+0	2.179405E+0	2.101551E+0	2.190841E+0	1.694066E+0	2.128157E+0	1.998167E+0	2.075109E+0	1.791190E+0	1.829136E+0	1.823780E+0	2.005729E+0	1.801512E+0	1.934473E+0	1.932852E+0	2.046652E+0	1.880445E+0	2.104266E+0	2.118820E+0	2.134369E+0	1.912805E+0	2.179476E+0	2.020901E+0	2.070698E+0	1.738245E+0	2.085419E+0	1.826326E+0	1.874423E+0	1.722254E+0	1.780003E+0	1.544638E+0	1.675745E+0	1.655487E+0	2.140524E+0	2.025041E+0	2.065697E+0	1.448084E+0	2.078971E+0	1.970437E+0	2.009468E+0	1.700347E+0	1.760883E+0
5.355630E+2	2.162156E+0	2.034849E+0	1.952967E+0	2.128199E+0	2.129800E+0	1.533963E+0	1.760356E+0	1.998713E+0	1.991972E+0	1.737233E+0	1.809282E+0	2.071402E+0	1.853807E+0	1.998832E+0	2.056585E+0	2.057301E+0	1.906332E+0	1.951435E+0	1.965436E+0	2.060893E+0	2.039157E+0	1.876243E+0	1.808251E+0	1.923152E+0	1.929205E+0	1.802598E+0	1.820407E+0	1.816376E+0	1.827239E+0	1.927011E+0	1.960100E+0	2.002929E+0	1.571765E+0	1.920089E+0	2.066116E+0	1.938217E+0	1.975308E+0	1.746291E+0	1.844888E+0	1.899009E+0	1.910017E+0	1.879496E+0	1.880632E+0	1.918273E+0	1.760059E+0	1.951512E+0	2.019198E+0	2.037904E+0	1.797851E+0	2.024244E+0	1.987499E+0	1.940299E+0	2.014180E+0	1.869107E+0	1.840180E+0	1.756972E+0	1.900314E+0	1.879360E+0	1.787003E+0	1.824760E+0	1.738570E+0	2.029516E+0	2.034133E+0	2.009781E+0	1.750525E+0	1.721242E+0	1.906361E+0	1.896304E+0	1.979080E+0	1.965818E+0	1.808544E+0	1.804786E+0	1.903707E+0	2.015740E+0	1.787430E+0	1.664809E+0	1.779887E+0	2.063215E+0	1.986420E+0	1.984676E+0	1.853668E+0	2.026927E+0	1.972322E+0	2.119474E+0	1.997914E+0	1.853098E+0	1.793991E+0	1.892927E+0	1.926420E+0	1.870477E+0	1.726268E+0	1.917161E+0	1.792550E+0	2.059087E+0	2.011355E+0	1.970358E+0	1.793527E+0	1.904865E+0	1.986296E+0	2.027808E+0	2.003177E+0	1.824791E+0	1.763649E+0	1.858979E+0	1.844693E+0	1.866976E+0	1.775024E+0	1.822485E+0	1.745313E+0	1.963587E+0	1.941498E+0	2.010418E+0	1.774784E+0	1.996284E+0	1.976055E+0	1.874851E+0	1.955474E+0	1.888453E+0	1.772405E+0	1.760474E+0	2.018060E+0	1.963931E+0	1.876992E+0	1.798876E+0	1.663712E+0	2.012227E+0	1.977524E+0	2.028936E+0	1.772104E+0	2.036730E+0	1.850095E+0	1.975848E+0	1.889005E+0	1.775262E+0	1.759474E+0	1.839338E+0	1.928930E+0	1.754341E+0	1.779521E+0	1.854549E+0	1.772145E+0	2.024259E+0	1.977426E+0	1.984639E+0	1.805577E+0	2.038034E+0	1.888936E+0	1.922669E+0	1.603934E+0	1.881396E+0	1.699396E+0	1.780421E+0	1.635294E+0	1.653294E+0	1.469068E+0	1.584986E+0	1.553049E+0	1.893438E+0	1.876599E+0	1.828723E+0	1.350157E+0	1.930487E+0	1.924163E+0	1.939291E+0	1.594360E+0	1.778921E+0
5.357090E+2	1.872357E+0	1.730864E+0	1.782879E+0	1.915722E+0	1.898670E+0	1.355801E+0	1.610979E+0	1.689019E+0	1.839407E+0	1.600632E+0	1.651577E+0	1.863104E+0	1.659431E+0	1.841465E+0	1.925956E+0	1.928194E+0	1.735799E+0	1.751483E+0	1.697314E+0	1.857432E+0	1.843170E+0	1.623050E+0	1.720539E+0	1.661481E+0	1.698810E+0	1.610341E+0	1.675124E+0	1.650581E+0	1.619087E+0	1.757044E+0	1.808049E+0	1.802475E+0	1.376278E+0	1.653956E+0	1.848676E+0	1.813841E+0	1.747237E+0	1.533609E+0	1.680545E+0	1.668052E+0	1.724213E+0	1.616234E+0	1.671081E+0	1.752223E+0	1.575444E+0	1.804507E+0	1.799135E+0	1.766373E+0	1.653684E+0	1.768119E+0	1.821364E+0	1.757460E+0	1.790093E+0	1.719064E+0	1.626175E+0	1.626890E+0	1.715713E+0	1.719369E+0	1.636223E+0	1.583420E+0	1.581388E+0	1.846140E+0	1.738957E+0	1.793155E+0	1.610185E+0	1.567045E+0	1.692311E+0	1.760623E+0	1.819494E+0	1.713334E+0	1.632174E+0	1.592577E+0	1.701436E+0	1.811044E+0	1.622858E+0	1.542567E+0	1.518508E+0	1.790853E+0	1.819604E+0	1.768950E+0	1.635796E+0	1.776764E+0	1.712223E+0	1.825481E+0	1.776951E+0	1.735375E+0	1.609298E+0	1.723778E+0	1.719797E+0	1.677521E+0	1.586381E+0	1.723581E+0	1.512988E+0	1.795334E+0	1.739420E+0	1.770718E+0	1.629148E+0	1.708884E+0	1.746985E+0	1.789313E+0	1.757696E+0	1.648492E+0	1.580101E+0	1.652316E+0	1.685933E+0	1.640532E+0	1.645755E+0	1.731545E+0	1.584375E+0	1.762061E+0	1.796871E+0	1.824308E+0	1.571441E+0	1.755029E+0	1.662765E+0	1.760452E+0	1.800016E+0	1.703854E+0	1.621402E+0	1.541481E+0	1.802344E+0	1.763423E+0	1.586037E+0	1.640078E+0	1.520611E+0	1.909656E+0	1.850887E+0	1.748588E+0	1.658862E+0	1.817019E+0	1.667801E+0	1.705444E+0	1.767735E+0	1.606280E+0	1.624744E+0	1.676525E+0	1.699079E+0	1.596306E+0	1.680705E+0	1.738619E+0	1.705898E+0	1.794928E+0	1.795355E+0	1.781820E+0	1.668108E+0	1.837957E+0	1.722425E+0	1.746378E+0	1.758558E+0	1.667722E+0	1.591997E+0	1.543685E+0	1.720467E+0	1.502577E+0	1.353669E+0	1.451510E+0	1.541464E+0	1.809694E+0	1.720579E+0	1.646194E+0	1.287635E+0	1.780540E+0	1.714680E+0	1.806739E+0	1.593035E+0	1.673262E+0
5.358550E+2	1.697782E+0	1.528443E+0	1.441989E+0	1.640881E+0	1.622886E+0	1.166952E+0	1.413879E+0	1.481862E+0	1.579369E+0	1.338491E+0	1.461996E+0	1.637668E+0	1.453524E+0	1.531327E+0	1.598506E+0	1.607305E+0	1.468235E+0	1.537611E+0	1.493092E+0	1.567765E+0	1.539108E+0	1.421948E+0	1.476704E+0	1.440109E+0	1.511226E+0	1.417474E+0	1.449192E+0	1.424661E+0	1.387179E+0	1.523488E+0	1.562903E+0	1.579030E+0	1.247444E+0	1.421480E+0	1.675266E+0	1.511883E+0	1.533973E+0	1.373534E+0	1.470613E+0	1.457577E+0	1.512235E+0	1.382740E+0	1.462185E+0	1.510990E+0	1.385481E+0	1.551801E+0	1.618915E+0	1.608995E+0	1.483197E+0	1.538993E+0	1.554786E+0	1.600654E+0	1.606371E+0	1.469987E+0	1.409282E+0	1.371074E+0	1.553285E+0	1.464594E+0	1.415861E+0	1.397533E+0	1.357222E+0	1.600795E+0	1.580475E+0	1.620461E+0	1.434449E+0	1.361044E+0	1.508924E+0	1.521339E+0	1.586922E+0	1.494125E+0	1.425349E+0	1.411225E+0	1.537052E+0	1.554128E+0	1.419753E+0	1.319546E+0	1.428587E+0	1.621388E+0	1.623393E+0	1.528872E+0	1.416651E+0	1.600181E+0	1.528507E+0	1.589188E+0	1.576467E+0	1.448825E+0	1.425184E+0	1.548501E+0	1.486858E+0	1.497058E+0	1.380271E+0	1.566080E+0	1.318010E+0	1.583222E+0	1.578922E+0	1.628207E+0	1.401639E+0	1.526665E+0	1.559939E+0	1.570461E+0	1.527982E+0	1.456058E+0	1.397156E+0	1.434684E+0	1.518384E+0	1.437199E+0	1.467595E+0	1.425103E+0	1.377605E+0	1.588698E+0	1.583870E+0	1.589875E+0	1.397498E+0	1.588912E+0	1.496096E+0	1.592938E+0	1.583353E+0	1.438109E+0	1.436377E+0	1.445365E+0	1.538692E+0	1.555513E+0	1.510221E+0	1.400199E+0	1.339937E+0	1.611930E+0	1.555833E+0	1.582270E+0	1.408314E+0	1.597305E+0	1.463792E+0	1.490490E+0	1.594410E+0	1.380972E+0	1.379774E+0	1.488663E+0	1.512950E+0	1.380018E+0	1.479671E+0	1.539228E+0	1.423048E+0	1.578203E+0	1.586812E+0	1.636268E+0	1.526513E+0	1.621753E+0	1.564211E+0	1.527024E+0	1.578376E+0	1.516086E+0	1.443711E+0	1.402107E+0	1.565014E+0	1.267835E+0	1.216594E+0	1.240919E+0	1.397559E+0	1.557070E+0	1.539918E+0	1.526778E+0	1.168680E+0	1.568420E+0	1.463974E+0	1.487050E+0	1.440677E+0	1.276392E+0
5.360170E+2	1.357709E+0	1.268710E+0	1.210186E+0	1.408821E+0	1.343824E+0	1.026205E+0	1.147359E+0	1.280248E+0	1.254477E+0	1.105620E+0	1.178464E+0	1.318627E+0	1.177940E+0	1.321697E+0	1.300669E+0	1.376040E+0	1.204693E+0	1.287671E+0	1.184255E+0	1.350990E+0	1.324641E+0	1.229248E+0	1.155685E+0	1.242689E+0	1.305381E+0	1.170896E+0	1.209624E+0	1.185987E+0	1.173368E+0	1.254873E+0	1.230250E+0	1.304879E+0	1.039069E+0	1.230139E+0	1.337932E+0	1.263135E+0	1.261469E+0	1.100895E+0	1.230697E+0	1.207276E+0	1.229380E+0	1.147918E+0	1.243497E+0	1.212728E+0	1.123277E+0	1.233492E+0	1.336254E+0	1.297110E+0	1.224776E+0	1.274309E+0	1.273053E+0	1.366389E+0	1.352165E+0	1.184140E+0	1.130500E+0	1.154442E+0	1.221238E+0	1.179570E+0	1.158255E+0	1.157454E+0	1.104039E+0	1.275774E+0	1.294139E+0	1.320197E+0	1.160601E+0	1.163676E+0	1.204116E+0	1.295427E+0	1.304245E+0	1.306227E+0	1.203589E+0	1.155167E+0	1.241679E+0	1.252651E+0	1.208162E+0	1.107856E+0	1.094596E+0	1.333557E+0	1.246305E+0	1.303870E+0	1.228810E+0	1.288352E+0	1.323064E+0	1.309620E+0	1.313915E+0	1.212084E+0	1.222543E+0	1.321134E+0	1.275630E+0	1.263146E+0	1.196443E+0	1.208064E+0	1.138958E+0	1.360664E+0	1.276098E+0	1.356031E+0	1.266443E+0	1.264478E+0	1.275241E+0	1.299696E+0	1.357948E+0	1.263624E+0	1.148830E+0	1.212436E+0	1.286981E+0	1.273478E+0	1.227810E+0	1.218935E+0	1.185415E+0	1.283904E+0	1.279491E+0	1.310708E+0	1.158633E+0	1.339389E+0	1.259872E+0	1.335538E+0	1.323846E+0	1.184132E+0	1.236427E+0	1.138773E+0	1.302000E+0	1.268885E+0	1.229636E+0	1.156263E+0	1.136060E+0	1.366160E+0	1.328672E+0	1.351693E+0	1.217030E+0	1.268470E+0	1.172916E+0	1.340571E+0	1.334708E+0	1.155664E+0	1.152568E+0	1.244742E+0	1.221262E+0	1.160377E+0	1.201631E+0	1.273588E+0	1.212787E+0	1.314222E+0	1.322096E+0	1.290285E+0	1.228890E+0	1.302953E+0	1.299595E+0	1.314398E+0	1.330712E+0	1.272087E+0	1.103815E+0	1.201925E+0	1.272568E+0	1.087111E+0	1.002783E+0	1.026177E+0	1.113414E+0	1.318287E+0	1.182393E+0	1.301558E+0	1.018743E+0	1.358497E+0	1.264588E+0	1.263158E+0	1.247250E+0	1.093420E+0
5.362580E+2	1.036486E+0	9.857617E-1	9.259913E-1	1.016498E+0	1.041778E+0	8.688296E-1	8.857992E-1	1.010739E+0	9.542931E-1	8.701488E-1	8.932566E-1	1.020021E+0	8.384346E-1	9.506786E-1	9.836713E-1	1.065807E+0	9.221993E-1	9.978639E-1	9.844174E-1	1.011251E+0	9.819400E-1	8.914684E-1	8.773532E-1	9.576529E-1	9.402773E-1	9.102798E-1	9.048244E-1	8.513607E-1	9.012974E-1	9.339598E-1	9.534532E-1	9.440636E-1	7.825233E-1	8.879682E-1	9.768841E-1	9.791322E-1	9.504608E-1	8.203384E-1	8.654210E-1	9.359317E-1	9.165164E-1	8.793661E-1	9.092605E-1	9.307622E-1	8.921070E-1	9.443419E-1	1.009327E+0	9.858035E-1	9.149064E-1	9.661735E-1	9.988953E-1	9.715108E-1	9.925472E-1	8.876179E-1	8.430404E-1	8.866524E-1	9.581204E-1	8.925274E-1	9.098081E-1	8.606634E-1	8.434777E-1	9.634036E-1	9.695105E-1	1.002483E+0	8.594270E-1	9.083323E-1	9.637751E-1	9.699228E-1	9.745634E-1	9.754531E-1	8.525673E-1	8.709550E-1	9.610715E-1	9.748483E-1	8.724893E-1	8.335553E-1	8.812471E-1	9.878952E-1	9.708394E-1	9.936227E-1	9.176601E-1	1.026277E+0	9.312718E-1	9.943330E-1	1.022191E+0	9.242393E-1	9.139509E-1	9.718092E-1	9.880731E-1	9.619116E-1	8.671567E-1	9.624466E-1	8.720282E-1	9.979252E-1	1.003557E+0	9.740822E-1	9.096958E-1	9.328155E-1	1.024928E+0	9.658039E-1	1.000423E+0	8.978814E-1	9.178998E-1	9.353456E-1	9.378286E-1	9.011390E-1	8.701455E-1	9.293051E-1	8.812515E-1	9.716011E-1	1.000529E+0	1.020802E+0	8.444315E-1	9.554546E-1	9.716469E-1	9.923395E-1	1.018437E+0	9.202452E-1	9.075620E-1	9.191700E-1	1.016777E+0	9.216981E-1	9.296104E-1	8.616459E-1	8.349352E-1	9.971692E-1	9.977161E-1	1.009608E+0	8.919628E-1	9.905072E-1	9.248127E-1	9.798056E-1	9.823391E-1	8.146415E-1	8.824924E-1	9.238877E-1	9.820429E-1	8.878364E-1	8.779313E-1	9.489923E-1	9.570117E-1	1.049613E+0	9.844239E-1	1.073148E+0	9.292025E-1	1.035453E+0	9.368686E-1	9.557588E-1	1.016873E+0	1.002584E+0	8.762001E-1	8.793101E-1	9.098393E-1	8.316963E-1	7.145759E-1	8.007542E-1	8.951220E-1	9.646150E-1	9.771024E-1	9.699143E-1	7.421035E-1	9.913136E-1	9.903251E-1	9.456974E-1	9.730055E-1	8.924067E-1
5.365090E+2	7.634487E-1	7.354605E-1	7.135623E-1	8.032945E-1	7.778155E-1	6.758222E-1	6.713442E-1	7.232148E-1	7.269919E-1	6.802105E-1	6.773917E-1	7.972220E-1	6.461526E-1	7.381776E-1	7.433106E-1	7.781358E-1	6.982733E-1	7.162851E-1	7.350910E-1	7.253874E-1	7.422753E-1	7.480646E-1	6.762035E-1	6.965669E-1	7.042185E-1	7.271778E-1	6.913465E-1	6.594516E-1	7.123756E-1	7.461660E-1	7.412003E-1	7.465601E-1	6.027167E-1	7.284138E-1	7.926359E-1	7.456797E-1	7.810351E-1	6.087891E-1	7.340653E-1	6.958750E-1	7.058129E-1	6.319792E-1	6.957940E-1	7.358905E-1	6.539831E-1	7.371976E-1	7.272976E-1	7.569354E-1	7.234820E-1	6.942493E-1	7.999098E-1	7.835933E-1	7.991830E-1	7.446943E-1	6.712597E-1	6.798207E-1	7.429495E-1	7.150597E-1	6.949360E-1	6.823376E-1	6.862956E-1	7.363965E-1	7.644818E-1	7.539681E-1	6.377400E-1	6.375684E-1	7.359531E-1	7.399981E-1	7.630197E-1	7.366691E-1	7.204310E-1	6.701150E-1	7.170660E-1	7.903421E-1	6.550198E-1	6.653956E-1	6.483486E-1	7.693344E-1	8.053044E-1	7.384639E-1	6.882907E-1	7.445818E-1	7.350464E-1	7.910114E-1	7.614992E-1	7.288941E-1	6.823611E-1	7.309578E-1	7.682926E-1	7.384144E-1	6.882786E-1	7.168292E-1	6.765011E-1	8.122519E-1	7.855250E-1	7.352842E-1	6.857605E-1	7.099585E-1	7.608616E-1	7.623819E-1	7.870343E-1	6.731763E-1	6.683734E-1	7.050138E-1	7.105277E-1	7.242120E-1	7.120769E-1	7.069444E-1	7.052080E-1	8.019935E-1	7.457722E-1	8.203754E-1	6.864119E-1	7.011064E-1	7.335467E-1	7.764784E-1	7.362863E-1	7.170638E-1	6.897098E-1	6.691505E-1	7.788908E-1	7.655985E-1	6.801285E-1	6.940658E-1	6.498414E-1	8.020170E-1	7.953558E-1	7.922603E-1	7.276691E-1	8.039710E-1	7.214609E-1	7.689600E-1	7.523830E-1	7.032122E-1	7.006046E-1	7.479529E-1	7.440715E-1	6.722149E-1	7.355034E-1	7.827199E-1	7.006619E-1	7.415338E-1	7.946047E-1	7.868168E-1	7.669876E-1	8.324456E-1	7.959237E-1	7.485158E-1	8.013105E-1	7.489351E-1	6.797066E-1	6.768073E-1	7.746353E-1	6.796469E-1	5.827741E-1	6.287222E-1	6.871949E-1	7.645934E-1	7.288562E-1	7.682060E-1	6.048912E-1	7.645670E-1	7.396191E-1	7.685882E-1	7.186344E-1	6.192357E-1
5.367600E+2	6.740654E-1	5.642399E-1	5.836651E-1	6.328765E-1	6.123466E-1	5.231980E-1	5.511015E-1	6.026626E-1	6.275476E-1	5.832899E-1	5.795263E-1	6.449530E-1	5.487018E-1	5.986155E-1	6.097767E-1	6.364936E-1	5.392284E-1	5.928972E-1	5.797319E-1	6.467910E-1	6.050839E-1	5.844955E-1	5.744601E-1	5.668988E-1	5.965757E-1	5.642166E-1	5.929094E-1	5.780718E-1	5.534322E-1	6.160178E-1	6.077663E-1	6.221615E-1	4.929281E-1	5.576405E-1	6.348055E-1	5.840587E-1	6.234571E-1	5.329936E-1	5.577251E-1	5.741397E-1	6.285543E-1	5.420209E-1	5.600111E-1	5.648298E-1	5.287670E-1	5.968740E-1	6.703858E-1	6.652728E-1	5.553875E-1	6.369672E-1	5.876595E-1	6.267843E-1	6.299151E-1	5.667808E-1	5.752470E-1	5.889239E-1	6.422567E-1	5.799416E-1	5.466005E-1	5.348879E-1	5.259489E-1	6.371203E-1	6.248504E-1	6.191804E-1	5.868200E-1	5.413516E-1	5.675902E-1	6.163467E-1	6.244655E-1	6.107533E-1	5.750807E-1	5.661754E-1	6.053365E-1	6.462185E-1	5.629385E-1	5.365930E-1	5.461414E-1	6.260927E-1	6.525523E-1	6.178442E-1	5.732863E-1	6.100404E-1	6.349581E-1	6.591271E-1	6.392234E-1	5.775344E-1	5.694612E-1	6.341274E-1	5.702272E-1	5.919613E-1	5.966731E-1	6.280190E-1	5.315029E-1	6.616232E-1	5.880836E-1	6.357858E-1	5.654545E-1	6.404793E-1	6.136993E-1	6.319113E-1	6.462772E-1	5.375171E-1	5.394111E-1	5.710871E-1	5.804735E-1	5.981190E-1	5.533376E-1	5.618186E-1	5.291663E-1	6.348895E-1	6.211163E-1	6.139818E-1	6.116898E-1	6.294204E-1	5.725152E-1	6.402875E-1	6.775304E-1	6.210478E-1	6.127151E-1	5.426205E-1	6.374763E-1	6.175733E-1	5.965351E-1	5.663541E-1	5.498349E-1	6.414995E-1	6.674127E-1	6.782315E-1	5.633759E-1	6.845282E-1	5.575951E-1	6.299940E-1	6.162395E-1	5.844357E-1	5.934318E-1	5.714227E-1	5.991659E-1	5.590477E-1	5.562763E-1	6.065110E-1	5.998500E-1	6.319108E-1	6.499798E-1	6.615463E-1	5.772780E-1	6.037875E-1	6.356335E-1	5.924110E-1	6.493034E-1	5.917831E-1	5.539998E-1	5.503152E-1	6.346672E-1	5.716122E-1	4.738178E-1	5.403334E-1	5.280488E-1	6.317069E-1	6.277888E-1	6.327026E-1	4.909159E-1	6.365644E-1	5.965990E-1	5.680872E-1	5.980743E-1	6.011967E-1
5.370280E+2	5.742075E-1	5.127290E-1	4.968281E-1	5.589080E-1	5.992140E-1	4.810333E-1	4.643275E-1	5.195232E-1	5.200742E-1	5.026308E-1	5.040298E-1	5.348717E-1	4.894982E-1	5.371620E-1	5.401067E-1	5.625389E-1	4.967394E-1	5.169658E-1	5.258579E-1	5.428409E-1	5.037296E-1	4.674200E-1	4.575130E-1	4.903834E-1	5.109653E-1	4.915862E-1	5.223429E-1	5.094455E-1	4.940410E-1	5.042924E-1	4.972958E-1	5.920932E-1	4.128273E-1	4.946908E-1	5.643579E-1	5.421568E-1	5.292653E-1	4.781265E-1	4.887488E-1	5.229424E-1	5.014938E-1	5.109316E-1	4.960366E-1	5.316205E-1	4.784667E-1	5.361279E-1	5.306353E-1	5.361386E-1	4.830046E-1	5.145026E-1	5.333333E-1	5.391738E-1	5.648580E-1	4.867201E-1	4.838622E-1	5.225201E-1	5.433628E-1	4.972574E-1	5.069218E-1	4.788068E-1	5.080156E-1	5.833716E-1	5.553289E-1	5.541933E-1	4.849800E-1	4.833748E-1	5.162675E-1	5.100736E-1	5.415806E-1	5.552981E-1	4.946499E-1	4.974237E-1	5.212185E-1	5.591872E-1	4.937141E-1	4.751731E-1	4.690674E-1	6.146603E-1	5.336741E-1	5.267996E-1	5.074784E-1	5.273534E-1	5.486978E-1	5.766996E-1	5.436366E-1	5.070287E-1	5.075112E-1	5.477147E-1	5.221908E-1	5.163052E-1	4.982592E-1	5.031287E-1	4.644961E-1	5.435799E-1	5.293361E-1	5.876405E-1	4.945815E-1	5.329838E-1	5.504336E-1	5.708845E-1	5.578815E-1	4.843286E-1	5.100201E-1	5.058552E-1	5.394654E-1	5.096555E-1	5.098014E-1	5.132357E-1	5.229165E-1	5.485206E-1	5.509225E-1	6.062273E-1	4.818442E-1	5.591128E-1	5.010848E-1	5.190789E-1	5.410452E-1	5.163601E-1	4.724544E-1	4.635393E-1	5.601779E-1	5.449061E-1	5.297909E-1	4.981054E-1	4.890584E-1	5.802229E-1	5.610108E-1	5.975926E-1	4.970718E-1	5.569759E-1	5.299549E-1	5.396312E-1	5.178504E-1	4.864761E-1	4.782974E-1	5.159586E-1	5.773044E-1	4.659683E-1	4.956254E-1	5.170816E-1	5.249615E-1	5.518980E-1	5.415116E-1	5.637162E-1	5.449728E-1	5.700752E-1	5.465065E-1	5.419461E-1	5.529893E-1	5.518056E-1	4.551433E-1	4.760445E-1	5.107796E-1	5.175948E-1	3.994223E-1	4.810121E-1	4.682925E-1	5.472675E-1	5.475671E-1	5.268989E-1	4.449935E-1	5.787801E-1	5.175172E-1	5.324415E-1	5.278571E-1	5.341931E-1
5.372640E+2	5.895703E-1	5.649661E-1	5.183584E-1	5.668850E-1	5.269860E-1	5.671446E-1	4.630878E-1	5.174444E-1	5.206917E-1	6.021535E-1	4.816602E-1	5.843094E-1	4.900224E-1	5.463513E-1	5.435906E-1	5.506312E-1	5.007588E-1	4.948191E-1	5.227255E-1	5.624900E-1	5.322878E-1	4.948685E-1	4.458181E-1	5.195882E-1	4.857857E-1	4.757171E-1	5.069254E-1	4.857607E-1	4.702841E-1	5.316294E-1	5.488073E-1	5.673317E-1	4.173085E-1	5.264772E-1	5.271011E-1	5.481432E-1	5.215643E-1	4.571978E-1	4.719541E-1	4.984814E-1	4.823384E-1	4.977027E-1	5.058287E-1	5.034241E-1	4.661589E-1	4.972506E-1	5.243121E-1	5.413273E-1	5.194952E-1	5.401808E-1	5.465993E-1	5.442527E-1	5.485938E-1	4.914639E-1	4.584134E-1	4.996601E-1	5.169910E-1	5.187683E-1	4.739586E-1	4.813271E-1	4.642362E-1	5.201384E-1	5.140872E-1	5.265140E-1	4.526897E-1	4.735064E-1	5.294112E-1	5.495083E-1	5.397249E-1	4.861418E-1	4.808616E-1	5.174538E-1	5.154400E-1	5.104503E-1	4.904483E-1	5.043923E-1	4.701845E-1	5.588433E-1	5.381477E-1	5.505753E-1	4.825613E-1	5.483757E-1	5.065555E-1	5.815077E-1	5.461195E-1	5.206128E-1	4.710357E-1	5.207493E-1	5.695685E-1	5.169991E-1	4.753577E-1	5.100669E-1	4.606515E-1	5.441953E-1	5.190397E-1	5.536182E-1	5.410358E-1	5.126648E-1	5.153621E-1	5.386175E-1	5.443688E-1	4.795477E-1	4.860271E-1	4.971960E-1	5.447376E-1	4.938109E-1	4.964059E-1	4.970413E-1	4.796875E-1	5.078401E-1	5.606042E-1	5.710329E-1	4.769446E-1	5.239590E-1	5.148697E-1	5.510838E-1	5.416574E-1	5.083071E-1	5.136376E-1	4.957798E-1	5.595789E-1	5.334678E-1	5.142387E-1	4.920240E-1	4.835332E-1	5.902137E-1	5.832049E-1	5.541232E-1	4.894433E-1	5.687725E-1	4.917857E-1	5.704366E-1	5.167062E-1	4.938231E-1	5.150422E-1	5.147656E-1	5.354567E-1	4.646294E-1	4.942622E-1	5.058196E-1	5.030712E-1	5.374073E-1	5.563617E-1	5.708747E-1	5.312253E-1	5.466234E-1	5.395974E-1	5.331985E-1	5.601966E-1	5.249241E-1	4.783317E-1	4.853281E-1	5.334129E-1	4.615771E-1	4.210973E-1	4.638086E-1	5.067075E-1	5.839499E-1	5.197736E-1	5.089551E-1	4.234155E-1	5.363569E-1	4.990086E-1	5.346701E-1	6.113234E-1	5.213079E-1
5.375060E+2	5.804927E-1	5.606127E-1	5.291233E-1	5.995179E-1	5.604735E-1	5.784279E-1	5.145326E-1	5.583216E-1	5.521928E-1	5.676786E-1	5.336686E-1	5.533284E-1	4.648736E-1	5.779397E-1	5.528796E-1	5.688066E-1	5.105193E-1	5.542988E-1	5.634446E-1	5.846746E-1	5.681255E-1	5.895370E-1	5.200797E-1	5.090743E-1	5.569182E-1	5.507890E-1	5.264944E-1	4.900121E-1	4.985660E-1	5.785783E-1	5.773558E-1	5.885561E-1	4.408342E-1	4.990539E-1	5.460682E-1	5.328458E-1	5.227489E-1	4.883082E-1	5.253362E-1	5.360262E-1	5.232021E-1	5.129163E-1	5.267181E-1	5.548046E-1	5.004063E-1	5.780428E-1	5.666795E-1	5.488212E-1	5.200935E-1	5.368884E-1	5.630230E-1	5.747258E-1	5.949771E-1	5.199302E-1	4.971651E-1	5.372161E-1	5.409650E-1	5.409525E-1	4.873879E-1	5.027514E-1	4.805876E-1	5.466966E-1	5.441349E-1	5.692364E-1	4.564154E-1	4.759737E-1	5.168935E-1	5.769119E-1	5.508589E-1	5.272443E-1	5.205027E-1	5.055443E-1	5.552514E-1	5.376036E-1	5.309387E-1	5.115482E-1	4.936417E-1	5.884329E-1	5.477346E-1	5.598542E-1	5.317572E-1	5.707989E-1	5.473810E-1	5.931849E-1	5.560503E-1	5.173782E-1	4.982477E-1	5.084923E-1	5.373252E-1	5.287989E-1	5.378723E-1	5.648798E-1	5.111814E-1	5.638689E-1	5.396320E-1	5.362865E-1	5.279338E-1	5.434713E-1	5.800029E-1	5.659739E-1	5.871590E-1	5.345284E-1	4.902259E-1	5.352961E-1	5.259913E-1	5.868958E-1	5.258768E-1	5.175951E-1	4.979165E-1	5.516500E-1	5.745222E-1	5.871389E-1	5.057310E-1	5.618699E-1	5.599836E-1	5.735548E-1	5.716472E-1	5.529079E-1	5.088623E-1	4.854387E-1	5.781542E-1	5.509619E-1	5.284945E-1	5.514883E-1	5.067389E-1	5.702321E-1	5.466497E-1	5.881427E-1	5.076334E-1	5.864680E-1	5.200835E-1	6.046645E-1	5.350113E-1	4.772917E-1	5.046314E-1	5.237119E-1	5.523208E-1	5.021287E-1	5.337880E-1	5.475534E-1	5.192011E-1	5.846588E-1	6.222176E-1	6.078593E-1	5.360370E-1	6.140475E-1	5.485790E-1	5.419460E-1	6.263720E-1	5.242353E-1	4.740600E-1	5.073772E-1	5.691494E-1	5.556075E-1	4.339843E-1	4.495715E-1	5.201220E-1	5.811815E-1	5.513568E-1	5.603109E-1	4.754236E-1	5.436713E-1	5.335013E-1	6.059594E-1	5.768769E-1	5.290385E-1
5.377630E+2	6.468316E-1	6.999105E-1	6.260072E-1	6.647850E-1	6.707862E-1	6.954196E-1	5.238295E-1	6.366108E-1	6.176650E-1	6.327259E-1	5.912698E-1	6.495677E-1	5.843288E-1	6.853395E-1	6.091960E-1	6.227056E-1	5.926256E-1	6.770544E-1	5.509158E-1	6.543973E-1	6.655601E-1	6.892468E-1	6.054507E-1	5.943516E-1	5.978347E-1	6.734676E-1	6.190012E-1	5.750357E-1	5.839765E-1	6.748518E-1	6.071464E-1	6.575352E-1	5.248562E-1	6.698275E-1	6.578363E-1	6.359364E-1	6.039078E-1	6.314149E-1	6.231032E-1	6.014447E-1	6.151456E-1	6.630681E-1	6.481398E-1	6.105713E-1	5.838836E-1	6.065935E-1	6.659591E-1	6.583548E-1	5.721370E-1	6.323585E-1	6.520929E-1	6.553524E-1	6.642502E-1	5.804208E-1	5.278201E-1	5.970882E-1	6.056956E-1	5.940581E-1	5.685758E-1	5.834081E-1	5.702553E-1	6.560904E-1	6.266176E-1	6.396394E-1	5.812314E-1	5.672560E-1	6.088984E-1	6.283777E-1	6.065279E-1	6.166252E-1	5.739316E-1	5.699649E-1	6.008418E-1	6.726760E-1	6.008160E-1	5.354006E-1	5.589875E-1	6.583727E-1	6.538306E-1	6.108852E-1	5.809531E-1	6.142445E-1	6.277148E-1	6.556926E-1	6.696372E-1	5.865900E-1	5.567239E-1	5.979687E-1	5.919415E-1	6.606761E-1	5.743904E-1	6.287126E-1	5.518251E-1	6.554753E-1	6.044360E-1	6.312914E-1	5.970201E-1	6.031183E-1	6.185132E-1	6.571639E-1	6.772433E-1	6.128170E-1	5.520079E-1	6.080324E-1	6.460862E-1	5.736925E-1	6.116091E-1	6.359388E-1	5.562499E-1	6.386442E-1	6.350347E-1	6.479828E-1	5.737162E-1	6.611276E-1	6.076041E-1	6.375645E-1	6.408079E-1	6.402512E-1	5.631764E-1	5.833778E-1	6.572504E-1	6.438140E-1	6.094958E-1	5.650025E-1	5.553608E-1	6.614809E-1	6.608845E-1	6.599620E-1	5.575084E-1	6.041638E-1	6.016877E-1	6.354704E-1	6.265361E-1	5.666804E-1	6.026177E-1	6.036273E-1	6.485084E-1	5.255659E-1	5.814909E-1	6.681181E-1	6.223165E-1	6.230903E-1	6.357756E-1	6.669152E-1	6.178321E-1	6.587538E-1	6.356335E-1	6.186530E-1	6.827195E-1	6.682914E-1	5.741375E-1	5.978948E-1	6.483658E-1	6.516379E-1	4.621020E-1	5.409266E-1	5.981705E-1	6.739256E-1	6.145239E-1	6.413645E-1	4.770837E-1	6.402213E-1	6.319333E-1	6.349206E-1	6.762401E-1	5.857347E-1
5.380110E+2	7.620520E-1	7.978542E-1	7.128448E-1	7.779126E-1	7.896351E-1	7.815305E-1	6.484114E-1	7.031226E-1	7.331688E-1	7.524131E-1	6.443971E-1	7.629454E-1	6.775881E-1	7.554073E-1	7.125398E-1	8.138600E-1	6.287986E-1	7.504544E-1	6.912399E-1	7.241201E-1	7.176368E-1	8.192059E-1	6.680172E-1	7.216826E-1	7.205849E-1	7.326707E-1	6.522091E-1	6.230128E-1	6.518525E-1	7.437892E-1	7.356146E-1	6.958572E-1	5.719089E-1	7.689259E-1	7.364133E-1	7.277223E-1	7.472682E-1	7.524614E-1	6.818834E-1	6.566238E-1	7.192208E-1	7.913916E-1	6.899188E-1	7.152126E-1	6.250872E-1	7.663559E-1	7.241357E-1	7.644299E-1	6.702422E-1	8.035456E-1	7.146303E-1	7.543900E-1	7.299097E-1	7.779047E-1	6.244103E-1	6.313786E-1	6.566417E-1	8.306827E-1	6.784538E-1	6.930497E-1	6.351325E-1	7.382930E-1	7.332562E-1	7.305007E-1	6.340135E-1	6.381851E-1	7.221842E-1	7.079155E-1	7.438450E-1	7.340599E-1	6.319573E-1	6.825658E-1	7.029392E-1	7.527447E-1	6.543666E-1	6.415437E-1	6.159551E-1	7.471419E-1	7.535351E-1	7.378842E-1	6.288720E-1	7.543918E-1	6.909283E-1	7.326255E-1	7.242580E-1	6.997868E-1	6.916242E-1	7.616007E-1	6.972257E-1	7.578492E-1	6.424758E-1	7.480518E-1	6.440963E-1	7.569194E-1	7.267768E-1	7.250138E-1	6.875473E-1	7.152021E-1	7.326669E-1	7.462483E-1	7.656392E-1	6.468811E-1	6.695730E-1	6.813459E-1	7.181434E-1	6.898826E-1	6.584940E-1	7.169101E-1	6.526039E-1	7.481697E-1	7.590845E-1	7.732507E-1	6.821246E-1	7.217848E-1	7.266541E-1	7.124685E-1	7.479152E-1	6.960021E-1	6.897097E-1	6.959170E-1	7.345488E-1	7.205181E-1	7.079921E-1	6.650096E-1	6.387912E-1	7.740430E-1	7.490092E-1	7.576107E-1	6.865957E-1	7.803773E-1	6.457800E-1	7.340474E-1	7.518105E-1	6.285177E-1	6.307892E-1	6.853322E-1	7.496932E-1	6.601618E-1	6.803045E-1	7.191254E-1	6.701304E-1	7.346042E-1	7.584483E-1	7.647455E-1	7.491165E-1	7.423013E-1	7.344332E-1	7.088170E-1	7.541357E-1	7.385963E-1	6.632306E-1	6.814491E-1	7.317516E-1	7.763450E-1	5.657862E-1	6.245695E-1	6.725608E-1	7.549035E-1	7.370678E-1	7.440750E-1	5.683744E-1	7.645667E-1	7.312058E-1	7.284879E-1	7.438069E-1	6.140818E-1
5.382900E+2	9.240590E-1	9.037792E-1	8.398714E-1	9.541321E-1	9.334347E-1	9.299977E-1	8.077032E-1	8.382247E-1	8.406420E-1	9.794286E-1	7.914759E-1	9.448768E-1	8.017590E-1	9.053068E-1	8.681358E-1	8.853073E-1	8.354997E-1	9.655937E-1	8.378281E-1	8.870171E-1	8.968257E-1	9.110732E-1	7.820407E-1	8.466773E-1	8.452239E-1	9.237080E-1	8.229912E-1	7.991326E-1	7.796860E-1	8.763147E-1	8.982179E-1	8.798019E-1	7.102646E-1	9.446850E-1	9.301450E-1	9.019798E-1	8.633784E-1	9.085775E-1	8.522254E-1	8.153349E-1	8.743754E-1	9.369129E-1	8.537726E-1	8.536902E-1	7.433469E-1	8.629421E-1	9.056212E-1	8.941411E-1	8.221857E-1	9.661737E-1	9.211959E-1	9.226266E-1	9.190562E-1	9.854700E-1	8.060236E-1	8.485513E-1	8.664174E-1	9.489949E-1	7.919945E-1	8.052123E-1	7.854570E-1	9.279934E-1	8.781904E-1	8.544572E-1	7.780795E-1	7.633903E-1	8.642606E-1	9.231354E-1	8.558013E-1	9.904595E-1	7.951164E-1	7.778437E-1	8.576903E-1	9.107934E-1	7.862853E-1	8.102993E-1	8.091989E-1	9.065229E-1	9.088434E-1	8.840189E-1	8.052113E-1	9.512988E-1	9.003236E-1	8.830560E-1	9.328100E-1	9.320016E-1	8.103139E-1	8.872351E-1	8.275150E-1	1.004945E+0	8.077369E-1	8.840432E-1	7.506483E-1	9.259922E-1	8.721323E-1	9.439116E-1	8.418007E-1	9.262604E-1	8.757031E-1	8.626900E-1	8.788083E-1	8.727814E-1	8.369236E-1	8.095004E-1	8.798322E-1	8.951973E-1	8.440243E-1	7.972591E-1	8.286460E-1	8.439260E-1	8.958430E-1	9.623453E-1	7.746091E-1	8.961751E-1	8.381858E-1	8.963249E-1	9.211231E-1	9.152884E-1	8.466826E-1	7.695232E-1	9.035266E-1	8.941115E-1	8.142655E-1	8.055601E-1	7.559249E-1	8.985942E-1	8.691193E-1	8.829792E-1	8.045351E-1	9.455324E-1	8.043807E-1	9.010804E-1	9.285686E-1	8.128045E-1	8.157388E-1	8.857178E-1	8.995959E-1	7.840440E-1	9.140494E-1	8.993088E-1	8.337332E-1	9.223496E-1	9.095297E-1	9.019464E-1	8.398468E-1	9.335829E-1	8.981782E-1	8.501186E-1	9.185912E-1	8.991953E-1	8.011420E-1	7.974971E-1	8.574253E-1	9.323948E-1	6.647836E-1	7.402465E-1	7.975610E-1	9.258569E-1	8.381347E-1	8.579228E-1	6.646446E-1	9.276783E-1	8.531939E-1	9.100527E-1	8.643674E-1	8.202482E-1
5.385060E+2	1.137043E+0	1.074999E+0	1.042252E+0	1.085390E+0	1.092995E+0	1.160418E+0	9.335246E-1	1.030138E+0	1.064854E+0	1.110175E+0	1.001188E+0	1.084621E+0	9.730841E-1	1.120106E+0	1.031278E+0	1.141642E+0	9.417202E-1	1.125050E+0	1.046436E+0	1.084142E+0	1.068175E+0	1.170431E+0	9.434273E-1	1.009055E+0	1.023370E+0	1.094604E+0	1.002669E+0	9.618913E-1	9.256187E-1	1.065892E+0	1.061443E+0	1.071412E+0	8.587031E-1	1.141014E+0	1.112361E+0	1.044978E+0	1.065384E+0	1.142753E+0	9.937774E-1	1.004197E+0	1.071671E+0	1.151887E+0	1.030029E+0	1.042295E+0	9.044163E-1	1.093779E+0	1.145916E+0	1.108019E+0	9.986539E-1	1.158428E+0	1.045639E+0	1.080705E+0	1.087120E+0	1.142034E+0	9.795405E-1	9.759137E-1	9.922822E-1	1.078734E+0	9.830606E-1	9.955107E-1	9.452766E-1	1.149309E+0	1.046690E+0	1.028358E+0	9.283550E-1	9.397877E-1	1.032625E+0	1.020051E+0	1.053735E+0	1.103979E+0	9.393189E-1	9.792262E-1	1.023358E+0	1.123149E+0	1.002448E+0	9.116717E-1	9.281605E-1	1.106253E+0	1.090997E+0	1.031315E+0	9.904962E-1	1.146103E+0	1.009632E+0	1.087064E+0	1.068121E+0	1.118936E+0	9.567935E-1	1.056996E+0	9.900470E-1	1.152093E+0	9.278139E-1	1.040849E+0	9.461748E-1	1.162079E+0	1.059279E+0	1.122367E+0	9.412622E-1	1.108480E+0	1.031805E+0	1.066112E+0	1.020691E+0	1.142905E+0	9.640854E-1	9.913410E-1	1.018090E+0	1.136160E+0	9.853475E-1	9.990637E-1	9.494788E-1	1.152474E+0	1.076773E+0	1.083436E+0	9.338531E-1	1.138116E+0	1.032425E+0	9.991489E-1	1.056384E+0	1.114753E+0	1.004849E+0	9.404611E-1	1.048536E+0	1.089908E+0	1.031347E+0	9.447594E-1	9.028941E-1	1.160351E+0	1.031008E+0	1.126786E+0	1.002859E+0	1.055390E+0	1.004443E+0	1.069483E+0	1.073293E+0	9.028053E-1	9.210748E-1	1.006187E+0	1.040131E+0	9.956473E-1	9.944636E-1	1.082805E+0	1.016347E+0	1.088674E+0	1.029619E+0	1.099396E+0	9.993128E-1	1.129261E+0	1.068141E+0	1.029102E+0	1.026044E+0	1.061172E+0	9.768877E-1	9.698276E-1	1.050998E+0	1.061103E+0	8.311475E-1	8.547369E-1	9.804887E-1	1.110653E+0	1.021951E+0	1.021271E+0	7.974316E-1	1.061532E+0	1.043327E+0	1.063771E+0	1.041899E+0	9.310635E-1
5.387600E+2	1.345836E+0	1.405833E+0	1.177890E+0	1.336305E+0	1.330691E+0	1.362926E+0	1.125045E+0	1.237295E+0	1.232240E+0	1.300764E+0	1.181262E+0	1.298193E+0	1.104590E+0	1.295852E+0	1.253641E+0	1.323394E+0	1.141534E+0	1.316776E+0	1.223719E+0	1.295212E+0	1.308402E+0	1.340163E+0	1.149836E+0	1.174351E+0	1.151155E+0	1.316766E+0	1.185905E+0	1.192059E+0	1.144521E+0	1.374916E+0	1.263765E+0	1.277760E+0	9.640115E-1	1.285611E+0	1.295931E+0	1.287742E+0	1.239552E+0	1.340724E+0	1.134728E+0	1.199882E+0	1.200009E+0	1.364878E+0	1.178214E+0	1.277268E+0	1.125952E+0	1.321573E+0	1.312856E+0	1.308064E+0	1.161365E+0	1.346078E+0	1.278104E+0	1.258466E+0	1.282894E+0	1.337739E+0	1.108520E+0	1.123420E+0	1.189472E+0	1.326785E+0	1.110641E+0	1.175098E+0	1.104570E+0	1.348495E+0	1.229921E+0	1.339453E+0	1.105332E+0	1.073011E+0	1.222267E+0	1.268022E+0	1.253525E+0	1.325799E+0	1.165674E+0	1.166532E+0	1.170404E+0	1.334113E+0	1.160492E+0	1.132900E+0	1.075607E+0	1.328848E+0	1.296795E+0	1.233701E+0	1.189836E+0	1.334601E+0	1.259851E+0	1.278021E+0	1.265500E+0	1.339510E+0	1.114853E+0	1.242076E+0	1.265759E+0	1.321454E+0	1.152495E+0	1.312829E+0	1.108751E+0	1.323776E+0	1.288818E+0	1.302750E+0	1.199740E+0	1.375909E+0	1.225727E+0	1.274444E+0	1.277433E+0	1.352671E+0	1.158429E+0	1.151821E+0	1.245975E+0	1.432581E+0	1.173559E+0	1.174710E+0	1.102604E+0	1.362140E+0	1.234711E+0	1.287446E+0	1.144547E+0	1.346972E+0	1.172152E+0	1.193219E+0	1.313442E+0	1.346428E+0	1.200019E+0	1.146682E+0	1.261857E+0	1.346935E+0	1.174556E+0	1.162344E+0	1.090199E+0	1.329526E+0	1.266656E+0	1.287433E+0	1.127841E+0	1.348832E+0	1.180811E+0	1.268008E+0	1.270071E+0	1.256687E+0	1.143995E+0	1.222677E+0	1.246873E+0	1.227339E+0	1.147791E+0	1.219267E+0	1.155755E+0	1.319265E+0	1.304664E+0	1.228842E+0	1.237823E+0	1.347661E+0	1.285083E+0	1.219523E+0	1.253398E+0	1.212121E+0	1.144700E+0	1.115469E+0	1.299369E+0	1.309180E+0	9.336600E-1	1.047531E+0	1.113416E+0	1.396495E+0	1.239877E+0	1.265671E+0	9.955050E-1	1.267799E+0	1.217475E+0	1.301031E+0	1.286995E+0	1.093419E+0
5.390390E+2	1.616078E+0	1.602447E+0	1.433379E+0	1.557484E+0	1.532273E+0	1.577907E+0	1.340742E+0	1.497798E+0	1.476221E+0	1.594776E+0	1.376436E+0	1.565154E+0	1.330926E+0	1.556597E+0	1.471357E+0	1.607308E+0	1.426895E+0	1.559125E+0	1.477432E+0	1.542411E+0	1.471350E+0	1.585515E+0	1.323503E+0	1.421420E+0	1.406099E+0	1.551749E+0	1.347199E+0	1.376683E+0	1.353804E+0	1.584105E+0	1.471052E+0	1.479982E+0	1.175744E+0	1.521825E+0	1.568239E+0	1.493927E+0	1.462293E+0	1.573768E+0	1.404038E+0	1.366558E+0	1.502020E+0	1.532228E+0	1.372752E+0	1.393813E+0	1.311102E+0	1.580960E+0	1.513946E+0	1.511565E+0	1.385692E+0	1.556770E+0	1.567422E+0	1.505424E+0	1.540711E+0	1.616471E+0	1.321368E+0	1.386856E+0	1.529909E+0	1.493500E+0	1.359697E+0	1.292930E+0	1.298672E+0	1.636836E+0	1.482085E+0	1.550659E+0	1.299699E+0	1.300601E+0	1.403776E+0	1.421083E+0	1.467544E+0	1.586114E+0	1.367324E+0	1.311073E+0	1.438809E+0	1.563875E+0	1.347263E+0	1.283173E+0	1.259357E+0	1.593140E+0	1.524965E+0	1.492916E+0	1.355317E+0	1.634516E+0	1.475173E+0	1.517749E+0	1.490191E+0	1.606653E+0	1.391601E+0	1.433900E+0	1.431583E+0	1.571327E+0	1.353656E+0	1.466865E+0	1.287254E+0	1.585070E+0	1.436599E+0	1.502390E+0	1.345060E+0	1.532561E+0	1.449912E+0	1.415438E+0	1.519536E+0	1.609048E+0	1.360567E+0	1.344053E+0	1.425239E+0	1.574518E+0	1.320909E+0	1.329802E+0	1.327604E+0	1.593705E+0	1.493706E+0	1.496820E+0	1.320327E+0	1.602011E+0	1.376418E+0	1.504414E+0	1.470739E+0	1.538461E+0	1.303875E+0	1.338908E+0	1.497943E+0	1.635585E+0	1.379326E+0	1.322492E+0	1.311207E+0	1.617928E+0	1.509488E+0	1.530610E+0	1.364894E+0	1.562650E+0	1.406537E+0	1.439832E+0	1.505746E+0	1.602608E+0	1.332006E+0	1.376544E+0	1.500457E+0	1.576216E+0	1.437419E+0	1.442510E+0	1.349891E+0	1.547961E+0	1.535805E+0	1.550965E+0	1.424783E+0	1.544803E+0	1.520683E+0	1.405906E+0	1.482064E+0	1.547106E+0	1.305188E+0	1.319129E+0	1.473884E+0	1.563933E+0	1.124628E+0	1.164989E+0	1.345121E+0	1.559835E+0	1.424324E+0	1.442011E+0	1.121653E+0	1.474796E+0	1.366384E+0	1.453634E+0	1.435378E+0	1.330512E+0
5.392720E+2	1.847219E+0	1.807767E+0	1.636479E+0	1.864233E+0	1.743706E+0	1.870683E+0	1.481438E+0	1.687633E+0	1.643606E+0	1.759997E+0	1.572168E+0	1.794548E+0	1.531592E+0	1.716833E+0	1.768621E+0	1.784671E+0	1.575030E+0	1.804636E+0	1.639683E+0	1.788343E+0	1.776532E+0	1.857759E+0	1.529332E+0	1.669073E+0	1.607536E+0	1.767808E+0	1.635393E+0	1.525474E+0	1.533676E+0	1.793888E+0	1.682685E+0	1.706964E+0	1.366197E+0	1.727500E+0	1.753844E+0	1.726047E+0	1.687404E+0	1.794934E+0	1.537791E+0	1.583293E+0	1.643127E+0	1.871557E+0	1.627342E+0	1.620642E+0	1.525147E+0	1.794787E+0	1.789017E+0	1.739857E+0	1.569339E+0	1.768780E+0	1.727873E+0	1.747940E+0	1.717809E+0	1.859617E+0	1.486207E+0	1.600218E+0	1.597040E+0	1.801380E+0	1.521466E+0	1.536790E+0	1.507017E+0	1.795554E+0	1.664137E+0	1.758857E+0	1.491579E+0	1.539293E+0	1.640361E+0	1.744582E+0	1.729807E+0	1.719859E+0	1.560933E+0	1.494591E+0	1.589709E+0	1.732367E+0	1.559510E+0	1.499037E+0	1.512919E+0	1.763952E+0	1.655348E+0	1.597298E+0	1.585324E+0	1.829318E+0	1.630571E+0	1.752666E+0	1.662744E+0	1.783241E+0	1.593087E+0	1.664945E+0	1.638861E+0	1.814950E+0	1.533772E+0	1.688194E+0	1.462458E+0	1.774431E+0	1.652814E+0	1.775852E+0	1.588650E+0	1.846529E+0	1.699537E+0	1.666557E+0	1.746436E+0	1.871404E+0	1.535115E+0	1.551873E+0	1.559397E+0	1.859712E+0	1.607579E+0	1.549672E+0	1.475520E+0	1.807749E+0	1.690372E+0	1.752130E+0	1.482632E+0	1.834989E+0	1.576924E+0	1.660351E+0	1.683724E+0	1.915711E+0	1.571267E+0	1.520797E+0	1.709468E+0	1.811197E+0	1.601592E+0	1.502234E+0	1.488564E+0	1.817076E+0	1.679208E+0	1.704491E+0	1.494566E+0	1.802274E+0	1.546711E+0	1.661628E+0	1.705385E+0	1.829752E+0	1.534103E+0	1.661018E+0	1.624126E+0	1.793181E+0	1.538279E+0	1.683636E+0	1.579161E+0	1.800596E+0	1.623613E+0	1.701887E+0	1.591122E+0	1.782258E+0	1.709302E+0	1.697929E+0	1.736281E+0	1.788347E+0	1.451646E+0	1.508871E+0	1.675793E+0	1.818014E+0	1.221281E+0	1.358376E+0	1.481706E+0	1.822150E+0	1.637827E+0	1.638769E+0	1.263292E+0	1.723489E+0	1.688601E+0	1.659704E+0	1.612907E+0	1.789231E+0
5.395260E+2	1.993865E+0	2.094339E+0	1.878329E+0	2.094843E+0	2.098283E+0	2.043501E+0	1.734322E+0	1.903103E+0	1.935764E+0	1.994820E+0	1.690167E+0	2.015374E+0	1.795127E+0	2.102210E+0	1.961373E+0	2.045394E+0	1.793216E+0	2.007121E+0	1.788148E+0	1.985467E+0	1.897485E+0	2.046532E+0	1.746852E+0	1.819768E+0	1.855553E+0	1.931992E+0	1.797281E+0	1.773863E+0	1.732777E+0	1.944244E+0	1.884389E+0	1.990549E+0	1.513513E+0	1.992388E+0	2.066116E+0	1.849759E+0	1.886452E+0	1.968587E+0	1.733927E+0	1.745417E+0	1.825100E+0	2.022370E+0	1.789890E+0	1.849349E+0	1.714040E+0	2.032305E+0	1.921813E+0	1.916840E+0	1.821183E+0	2.022266E+0	1.876322E+0	1.890147E+0	2.003335E+0	2.059473E+0	1.679967E+0	1.734658E+0	1.777445E+0	2.020527E+0	1.686281E+0	1.719527E+0	1.738571E+0	2.033943E+0	1.884483E+0	1.928544E+0	1.713886E+0	1.642912E+0	1.798085E+0	1.915020E+0	1.851041E+0	1.966473E+0	1.763736E+0	1.691100E+0	1.788124E+0	1.939849E+0	1.720162E+0	1.658848E+0	1.696109E+0	1.973770E+0	1.934011E+0	1.875071E+0	1.736745E+0	1.959658E+0	1.839311E+0	1.965607E+0	1.936468E+0	2.088550E+0	1.708302E+0	1.842062E+0	1.840878E+0	1.942661E+0	1.686655E+0	1.881080E+0	1.673366E+0	2.015436E+0	1.940493E+0	1.917076E+0	1.760174E+0	2.062175E+0	1.824004E+0	1.916279E+0	1.947436E+0	2.073998E+0	1.713861E+0	1.756807E+0	1.788456E+0	2.020797E+0	1.712732E+0	1.790097E+0	1.690104E+0	2.028054E+0	1.856780E+0	1.928100E+0	1.701284E+0	1.993526E+0	1.779309E+0	1.874852E+0	1.812259E+0	2.045796E+0	1.759874E+0	1.685651E+0	1.877845E+0	2.053419E+0	1.726006E+0	1.725222E+0	1.655976E+0	1.969599E+0	1.902455E+0	1.887188E+0	1.675290E+0	2.033049E+0	1.721111E+0	1.819077E+0	1.827229E+0	2.069141E+0	1.651688E+0	1.822640E+0	1.810882E+0	2.008799E+0	1.716824E+0	1.856534E+0	1.726058E+0	2.020478E+0	1.857981E+0	1.941691E+0	1.754027E+0	2.060018E+0	1.870970E+0	1.852690E+0	1.905981E+0	2.004776E+0	1.626168E+0	1.670755E+0	1.846739E+0	2.006740E+0	1.455598E+0	1.509051E+0	1.615853E+0	1.991026E+0	1.842487E+0	1.816965E+0	1.456937E+0	1.955357E+0	1.791241E+0	1.827902E+0	1.734794E+0	2.108790E+0
5.397910E+2	2.204753E+0	2.268464E+0	2.008945E+0	2.147781E+0	2.163286E+0	2.223445E+0	1.818615E+0	2.031969E+0	2.074122E+0	2.160689E+0	1.974812E+0	2.180829E+0	1.904625E+0	2.209606E+0	2.117549E+0	2.240306E+0	1.932741E+0	2.236812E+0	2.057522E+0	2.100827E+0	2.151149E+0	2.310935E+0	1.886607E+0	2.019528E+0	2.007893E+0	2.187722E+0	1.909948E+0	1.892898E+0	1.809140E+0	2.155808E+0	2.045744E+0	2.091361E+0	1.605936E+0	2.134489E+0	2.062730E+0	2.103164E+0	2.009670E+0	2.135450E+0	1.923460E+0	1.941103E+0	1.991746E+0	2.170541E+0	1.956355E+0	2.008502E+0	1.861197E+0	2.178704E+0	2.089391E+0	2.111694E+0	1.918687E+0	2.222426E+0	2.077836E+0	2.062195E+0	2.089475E+0	2.170372E+0	1.833241E+0	1.898489E+0	1.975834E+0	2.186566E+0	1.893219E+0	1.908563E+0	1.827712E+0	2.155984E+0	2.151376E+0	2.124708E+0	1.793370E+0	1.819307E+0	1.920757E+0	2.058721E+0	1.961141E+0	2.132837E+0	1.906786E+0	1.893564E+0	1.973698E+0	2.131317E+0	1.954612E+0	1.838931E+0	1.806136E+0	2.075318E+0	2.027962E+0	2.006710E+0	1.971227E+0	2.247658E+0	2.030267E+0	2.109167E+0	2.058743E+0	2.177812E+0	1.774881E+0	2.026528E+0	1.973798E+0	2.291791E+0	1.827775E+0	1.989321E+0	1.776070E+0	2.150079E+0	2.025892E+0	2.070496E+0	1.853680E+0	2.191959E+0	2.017241E+0	1.996240E+0	2.045966E+0	2.199499E+0	1.829030E+0	1.890730E+0	1.907963E+0	2.187161E+0	1.915010E+0	1.880412E+0	1.832290E+0	2.138203E+0	2.124851E+0	2.068876E+0	1.820718E+0	2.229263E+0	1.972922E+0	2.050537E+0	2.007496E+0	2.117033E+0	1.887596E+0	1.868149E+0	2.086969E+0	2.214900E+0	1.876346E+0	1.887394E+0	1.757089E+0	2.145437E+0	2.015387E+0	2.144224E+0	1.814353E+0	2.179769E+0	1.915903E+0	1.908074E+0	2.026294E+0	2.154246E+0	1.796827E+0	1.880489E+0	2.001383E+0	2.146075E+0	1.924676E+0	1.976436E+0	1.841850E+0	2.146482E+0	2.100099E+0	2.099768E+0	1.932739E+0	2.213188E+0	2.054751E+0	1.989282E+0	2.105814E+0	2.119191E+0	1.815340E+0	1.805953E+0	1.977771E+0	2.220146E+0	1.572170E+0	1.609899E+0	1.805487E+0	2.168903E+0	1.968191E+0	1.907918E+0	1.548782E+0	2.165279E+0	1.948561E+0	1.984961E+0	1.966643E+0	2.224759E+0
5.400140E+2	2.277377E+0	2.277172E+0	1.945792E+0	2.337056E+0	2.173797E+0	2.254325E+0	1.906007E+0	2.070076E+0	2.087088E+0	2.260864E+0	1.999421E+0	2.191374E+0	1.862188E+0	2.183765E+0	2.194768E+0	2.247830E+0	1.967188E+0	2.245670E+0	2.022440E+0	2.187031E+0	2.149473E+0	2.249874E+0	1.880756E+0	2.038215E+0	2.007262E+0	2.182229E+0	1.991783E+0	1.939660E+0	1.844208E+0	2.168885E+0	2.081744E+0	2.155036E+0	1.671474E+0	2.140100E+0	2.139955E+0	2.039977E+0	2.072459E+0	2.210112E+0	1.973241E+0	1.943380E+0	2.009621E+0	2.185092E+0	2.015108E+0	1.989702E+0	1.837114E+0	2.238236E+0	2.143774E+0	2.112269E+0	1.991668E+0	2.232303E+0	2.183329E+0	2.095838E+0	2.200312E+0	2.246875E+0	1.811841E+0	1.916996E+0	2.002803E+0	2.201358E+0	1.915192E+0	1.931250E+0	1.799226E+0	2.247670E+0	2.071836E+0	2.098835E+0	1.815104E+0	1.801421E+0	2.037800E+0	2.110857E+0	2.156601E+0	2.152411E+0	1.921146E+0	1.819402E+0	1.983969E+0	2.138280E+0	1.858612E+0	1.856820E+0	1.840764E+0	2.226632E+0	2.127025E+0	2.068758E+0	1.898389E+0	2.272183E+0	2.043435E+0	2.119471E+0	2.149366E+0	2.171346E+0	1.899939E+0	1.969532E+0	1.975774E+0	2.243901E+0	1.868006E+0	1.953238E+0	1.816714E+0	2.184507E+0	2.067677E+0	2.062794E+0	1.866186E+0	2.226692E+0	2.024115E+0	2.069896E+0	2.095516E+0	2.278983E+0	1.849421E+0	1.914976E+0	2.005795E+0	2.165377E+0	1.887548E+0	1.938339E+0	1.846353E+0	2.218938E+0	2.025612E+0	2.118385E+0	1.798059E+0	2.178945E+0	1.957886E+0	2.115906E+0	2.039937E+0	2.198799E+0	1.924605E+0	1.806101E+0	2.079182E+0	2.209518E+0	1.993635E+0	1.876585E+0	1.753221E+0	2.234688E+0	2.062384E+0	2.103902E+0	1.857186E+0	2.238754E+0	1.906691E+0	2.090850E+0	1.999980E+0	2.205060E+0	1.850111E+0	1.956231E+0	1.999509E+0	2.231121E+0	1.895369E+0	2.047976E+0	1.891970E+0	2.191842E+0	2.103323E+0	2.058013E+0	1.934115E+0	2.199263E+0	2.017447E+0	2.001392E+0	2.109748E+0	2.277032E+0	1.789711E+0	1.777520E+0	2.048054E+0	2.202136E+0	1.607900E+0	1.659134E+0	1.805489E+0	2.251262E+0	2.013040E+0	1.992070E+0	1.548784E+0	2.174057E+0	1.862749E+0	2.035085E+0	2.076605E+0	2.155177E+0
5.402630E+2	2.216626E+0	2.248877E+0	1.978086E+0	2.239879E+0	2.246024E+0	2.260264E+0	1.853944E+0	2.099868E+0	2.073503E+0	2.268016E+0	1.899877E+0	2.195326E+0	1.934490E+0	2.228562E+0	2.231343E+0	2.154443E+0	1.947094E+0	2.203905E+0	2.001767E+0	2.165479E+0	2.122591E+0	2.266682E+0	1.825208E+0	1.996163E+0	1.974530E+0	2.102276E+0	1.928930E+0	1.902008E+0	1.832330E+0	2.231281E+0	2.027131E+0	2.065421E+0	1.617700E+0	2.136982E+0	2.142661E+0	2.096511E+0	2.126371E+0	2.181266E+0	1.933057E+0	1.958740E+0	1.960456E+0	2.216180E+0	1.893033E+0	1.947097E+0	1.868687E+0	2.111275E+0	2.183608E+0	2.156087E+0	1.910315E+0	2.227034E+0	2.084153E+0	2.052035E+0	2.132247E+0	2.165628E+0	1.827457E+0	1.911009E+0	2.009396E+0	2.234295E+0	1.880398E+0	1.844293E+0	1.786041E+0	2.162937E+0	2.088332E+0	2.125313E+0	1.764805E+0	1.765648E+0	1.978965E+0	2.094815E+0	2.065058E+0	2.158933E+0	1.917125E+0	1.897356E+0	1.955076E+0	2.167522E+0	1.897141E+0	1.762604E+0	1.792731E+0	2.147947E+0	2.065669E+0	2.093695E+0	1.823636E+0	2.210519E+0	2.088869E+0	2.125651E+0	2.026466E+0	2.199157E+0	1.859416E+0	2.024075E+0	2.050128E+0	2.205030E+0	1.840156E+0	2.055927E+0	1.772775E+0	2.131635E+0	2.092514E+0	2.036472E+0	1.834025E+0	2.264059E+0	1.995237E+0	2.069896E+0	2.071867E+0	2.115231E+0	1.793639E+0	1.899966E+0	1.905033E+0	2.138304E+0	1.904961E+0	1.915913E+0	1.809373E+0	2.176383E+0	2.038922E+0	2.102877E+0	1.784586E+0	2.203072E+0	1.937207E+0	1.965420E+0	2.030144E+0	2.125085E+0	1.927586E+0	1.827999E+0	2.025850E+0	2.182603E+0	1.880234E+0	1.790766E+0	1.757089E+0	2.196722E+0	2.044761E+0	2.083745E+0	1.846622E+0	2.147324E+0	1.852072E+0	2.048408E+0	2.050889E+0	2.190978E+0	1.795608E+0	1.919254E+0	2.002630E+0	2.123309E+0	1.940347E+0	1.947291E+0	1.863163E+0	2.205071E+0	2.052968E+0	2.083066E+0	1.928614E+0	2.146499E+0	1.923480E+0	1.977171E+0	1.997052E+0	2.132289E+0	1.795813E+0	1.772878E+0	1.992064E+0	2.183463E+0	1.507145E+0	1.676931E+0	1.803658E+0	2.179977E+0	1.995352E+0	1.985263E+0	1.490136E+0	2.146993E+0	1.941828E+0	2.111946E+0	2.001089E+0	2.126829E+0
5.405080E+2	2.134924E+0	2.122639E+0	1.923542E+0	2.099920E+0	2.060855E+0	2.136739E+0	1.889274E+0	1.968923E+0	1.949349E+0	2.111904E+0	1.916657E+0	2.099088E+0	1.808749E+0	2.052819E+0	2.119869E+0	2.128122E+0	1.891973E+0	2.126713E+0	1.922835E+0	2.041881E+0	2.015077E+0	2.189937E+0	1.888942E+0	1.866495E+0	1.921021E+0	2.038191E+0	1.870812E+0	1.804227E+0	1.811970E+0	2.117182E+0	1.855217E+0	2.038890E+0	1.581291E+0	2.086500E+0	2.084408E+0	1.960829E+0	1.945097E+0	2.079452E+0	1.847290E+0	1.839275E+0	1.910657E+0	2.113652E+0	1.857783E+0	1.919529E+0	1.711900E+0	2.104592E+0	2.074845E+0	1.998700E+0	1.839128E+0	2.124320E+0	1.983080E+0	1.948552E+0	2.033455E+0	2.083195E+0	1.755156E+0	1.817391E+0	1.911702E+0	2.135477E+0	1.814471E+0	1.793250E+0	1.729605E+0	2.103499E+0	1.956947E+0	2.017001E+0	1.787162E+0	1.730494E+0	1.913874E+0	1.943758E+0	1.942585E+0	2.070859E+0	1.774078E+0	1.784213E+0	1.819589E+0	2.118786E+0	1.826611E+0	1.771550E+0	1.721803E+0	2.084735E+0	1.964047E+0	1.942343E+0	1.865807E+0	2.105414E+0	1.919642E+0	2.043911E+0	2.005984E+0	2.094369E+0	1.762727E+0	1.937052E+0	1.958003E+0	2.105777E+0	1.781969E+0	1.858883E+0	1.740920E+0	2.103971E+0	1.928382E+0	2.058301E+0	1.827476E+0	2.125102E+0	1.976666E+0	1.914871E+0	1.971646E+0	2.179179E+0	1.757649E+0	1.840511E+0	1.793142E+0	2.119160E+0	1.827936E+0	1.834316E+0	1.724480E+0	2.086882E+0	2.002615E+0	2.021750E+0	1.813372E+0	2.093475E+0	1.879562E+0	1.853741E+0	1.928544E+0	2.135618E+0	1.818957E+0	1.773858E+0	1.944358E+0	2.157036E+0	1.884772E+0	1.740763E+0	1.663162E+0	2.169413E+0	2.035622E+0	1.928138E+0	1.737485E+0	2.071386E+0	1.806005E+0	2.000488E+0	1.919322E+0	2.122405E+0	1.697010E+0	1.845897E+0	1.901450E+0	2.066392E+0	1.754306E+0	1.859186E+0	1.804406E+0	2.066467E+0	1.970324E+0	1.967937E+0	1.921739E+0	2.082736E+0	1.951811E+0	1.910556E+0	2.046195E+0	2.097137E+0	1.670106E+0	1.798409E+0	1.917017E+0	2.048754E+0	1.429821E+0	1.540494E+0	1.730486E+0	2.029094E+0	1.830488E+0	1.850995E+0	1.410465E+0	2.051175E+0	1.828256E+0	1.924814E+0	1.880527E+0	2.070134E+0
5.407630E+2	2.069979E+0	2.039202E+0	2.061334E+0	2.001297E+0	1.955140E+0	2.022714E+0	2.034310E+0	1.858761E+0	1.934528E+0	1.957090E+0	2.043041E+0	2.000871E+0	1.740636E+0	2.003427E+0	2.105356E+0	1.990240E+0	1.722020E+0	1.961560E+0	1.932857E+0	1.972157E+0	1.896926E+0	2.058296E+0	1.846259E+0	1.773624E+0	1.834154E+0	2.019271E+0	1.895123E+0	1.710704E+0	1.689791E+0	1.976335E+0	1.940866E+0	1.927463E+0	1.464221E+0	1.943772E+0	1.943508E+0	1.954182E+0	1.852685E+0	1.966322E+0	1.758521E+0	1.788649E+0	1.789977E+0	2.004509E+0	1.735056E+0	1.789821E+0	1.688354E+0	1.964272E+0	1.880712E+0	1.894934E+0	1.761962E+0	2.016999E+0	1.856111E+0	1.873640E+0	1.973217E+0	1.993053E+0	1.668403E+0	1.742824E+0	1.864952E+0	2.015150E+0	1.714362E+0	1.637609E+0	1.706392E+0	2.019398E+0	1.818496E+0	1.938174E+0	1.662345E+0	1.694719E+0	1.825624E+0	1.922371E+0	1.893102E+0	1.980822E+0	1.730990E+0	1.645087E+0	1.803534E+0	1.928709E+0	1.728654E+0	1.637975E+0	1.660926E+0	1.967048E+0	1.874572E+0	1.822300E+0	1.776997E+0	2.019921E+0	1.789268E+0	1.984151E+0	1.871915E+0	2.027743E+0	1.697303E+0	1.866573E+0	1.795475E+0	1.985000E+0	1.680464E+0	1.896346E+0	1.644252E+0	1.963175E+0	1.841168E+0	1.893327E+0	1.687514E+0	2.013018E+0	1.808876E+0	1.888218E+0	1.871989E+0	1.996906E+0	1.638287E+0	1.705426E+0	1.782008E+0	2.023434E+0	1.786410E+0	1.748985E+0	1.718747E+0	1.939180E+0	1.859807E+0	1.972836E+0	1.709862E+0	2.019030E+0	1.786201E+0	1.844209E+0	1.899778E+0	2.025354E+0	1.720478E+0	1.678961E+0	1.892828E+0	2.014393E+0	1.802476E+0	1.744140E+0	1.568127E+0	2.059516E+0	1.894622E+0	1.847499E+0	1.694068E+0	2.047057E+0	1.797445E+0	1.823872E+0	1.843244E+0	1.987708E+0	1.619232E+0	1.752864E+0	1.825870E+0	2.013491E+0	1.741359E+0	1.807515E+0	1.710509E+0	1.966294E+0	1.963220E+0	1.882631E+0	1.747839E+0	1.912710E+0	1.885482E+0	1.810972E+0	1.893529E+0	1.955148E+0	1.645697E+0	1.728200E+0	1.832442E+0	1.980734E+0	1.398188E+0	1.512019E+0	1.634145E+0	1.984803E+0	1.777427E+0	1.768086E+0	1.398846E+0	1.969253E+0	1.788715E+0	1.850181E+0	1.807661E+0	1.912932E+0
5.410190E+2	2.002941E+0	1.957945E+0	1.950097E+0	1.878016E+0	1.843515E+0	1.998960E+0	1.948156E+0	1.831739E+0	1.841877E+0	1.938879E+0	1.964190E+0	1.936932E+0	1.678290E+0	1.912108E+0	1.946854E+0	1.869909E+0	1.652543E+0	1.899550E+0	1.874597E+0	1.834611E+0	1.754696E+0	1.958029E+0	1.924026E+0	1.660312E+0	1.725251E+0	1.862414E+0	1.923587E+0	1.654221E+0	1.638319E+0	1.867578E+0	1.965068E+0	1.790093E+0	1.441254E+0	1.857140E+0	1.944863E+0	1.801203E+0	1.757308E+0	1.832835E+0	1.757321E+0	1.678290E+0	1.706974E+0	1.931753E+0	1.774223E+0	1.770396E+0	1.626818E+0	1.890767E+0	1.893359E+0	1.870144E+0	1.647105E+0	1.955770E+0	1.840318E+0	1.822851E+0	1.911778E+0	1.914768E+0	1.607668E+0	1.682949E+0	1.722905E+0	1.934481E+0	1.671629E+0	1.672898E+0	1.593523E+0	1.861950E+0	1.862094E+0	1.861151E+0	1.618254E+0	1.599119E+0	1.722354E+0	1.829467E+0	1.762588E+0	1.895358E+0	1.619532E+0	1.680276E+0	1.746386E+0	1.873707E+0	1.620246E+0	1.571788E+0	1.607865E+0	1.905851E+0	1.872650E+0	1.739374E+0	1.628130E+0	1.915511E+0	1.737903E+0	1.837157E+0	1.807984E+0	1.917781E+0	1.611035E+0	1.786902E+0	1.773755E+0	1.871173E+0	1.647659E+0	1.696521E+0	1.539899E+0	1.837755E+0	1.819970E+0	1.858661E+0	1.645228E+0	1.942225E+0	1.784809E+0	1.843326E+0	1.864671E+0	1.969414E+0	1.619091E+0	1.655782E+0	1.729284E+0	1.958743E+0	1.653794E+0	1.662412E+0	1.614063E+0	1.844050E+0	1.779930E+0	1.835043E+0	1.627179E+0	1.932178E+0	1.666524E+0	1.725042E+0	1.805522E+0	1.868631E+0	1.679297E+0	1.668009E+0	1.827512E+0	1.909429E+0	1.729896E+0	1.583996E+0	1.494090E+0	1.981591E+0	1.754930E+0	1.818517E+0	1.631283E+0	1.901806E+0	1.652009E+0	1.798544E+0	1.799769E+0	1.855465E+0	1.548189E+0	1.679507E+0	1.742177E+0	1.917731E+0	1.710007E+0	1.769755E+0	1.703017E+0	1.910854E+0	1.816659E+0	1.831929E+0	1.690103E+0	1.898049E+0	1.708612E+0	1.750415E+0	1.814251E+0	1.808336E+0	1.571859E+0	1.576759E+0	1.777049E+0	1.896703E+0	1.672923E+0	1.491256E+0	1.581098E+0	1.861599E+0	1.740157E+0	1.698166E+0	1.329686E+0	1.881478E+0	1.701219E+0	1.746589E+0	1.716246E+0	1.845927E+0
5.412640E+2	1.885629E+0	1.841866E+0	1.874745E+0	1.771411E+0	1.776538E+0	1.856432E+0	1.887416E+0	1.755531E+0	1.692400E+0	1.794473E+0	1.842277E+0	1.799824E+0	1.611226E+0	1.751871E+0	1.905056E+0	1.835438E+0	1.643934E+0	1.783753E+0	1.878355E+0	1.783905E+0	1.753573E+0	1.868400E+0	1.862628E+0	1.651552E+0	1.628311E+0	1.776965E+0	1.886822E+0	1.566769E+0	1.514445E+0	1.785570E+0	1.844668E+0	1.698120E+0	1.421090E+0	1.847790E+0	1.871709E+0	1.724720E+0	1.717024E+0	1.788146E+0	1.866483E+0	1.623680E+0	1.650790E+0	1.912569E+0	1.928937E+0	1.722149E+0	1.525682E+0	1.799646E+0	1.837707E+0	1.739276E+0	1.608223E+0	1.842524E+0	1.855476E+0	1.725085E+0	1.791301E+0	1.848943E+0	1.717563E+0	1.636687E+0	1.632997E+0	1.760374E+0	1.733285E+0	1.585940E+0	1.565563E+0	1.870800E+0	1.830865E+0	1.760663E+0	1.541254E+0	1.570133E+0	1.562751E+0	1.778670E+0	1.727948E+0	1.748564E+0	1.551168E+0	1.555224E+0	1.718132E+0	1.779710E+0	1.566041E+0	1.475781E+0	1.460980E+0	1.852051E+0	1.741630E+0	1.766630E+0	1.615991E+0	1.860855E+0	1.650985E+0	1.759535E+0	1.735982E+0	1.855039E+0	1.587295E+0	1.739713E+0	1.704662E+0	1.817727E+0	1.563482E+0	1.611179E+0	1.500356E+0	1.832837E+0	1.684911E+0	1.752741E+0	1.574357E+0	1.800644E+0	1.691970E+0	1.736705E+0	1.762763E+0	1.814630E+0	1.511724E+0	1.569190E+0	1.636723E+0	1.886120E+0	1.618963E+0	1.587666E+0	1.536977E+0	1.809628E+0	1.724865E+0	1.818341E+0	1.517545E+0	1.809485E+0	1.598226E+0	1.690315E+0	1.735140E+0	1.846331E+0	1.553360E+0	1.556688E+0	1.662730E+0	1.823976E+0	1.615201E+0	1.551558E+0	1.502932E+0	1.897001E+0	1.773210E+0	1.701971E+0	1.590208E+0	1.817018E+0	1.611208E+0	1.760889E+0	1.673350E+0	1.823017E+0	1.510831E+0	1.631795E+0	1.712196E+0	1.838047E+0	1.622780E+0	1.672378E+0	1.586078E+0	1.842812E+0	1.709485E+0	1.768100E+0	1.663295E+0	1.802778E+0	1.684430E+0	1.745702E+0	1.704829E+0	1.813849E+0	1.410150E+0	1.587203E+0	1.623383E+0	1.845352E+0	1.503045E+0	1.350662E+0	1.440245E+0	1.897591E+0	1.702892E+0	1.662897E+0	1.308108E+0	1.882943E+0	1.643171E+0	1.673071E+0	1.659277E+0	1.740266E+0
5.415140E+2	1.796947E+0	1.813571E+0	1.778574E+0	1.819273E+0	1.789013E+0	1.774477E+0	1.861382E+0	1.578859E+0	1.674491E+0	1.802929E+0	1.756710E+0	1.683812E+0	1.477625E+0	1.718557E+0	1.793002E+0	1.789058E+0	1.510725E+0	1.721741E+0	1.782513E+0	1.747777E+0	1.718857E+0	1.848234E+0	1.733403E+0	1.607745E+0	1.565990E+0	1.713487E+0	1.726123E+0	1.516974E+0	1.491819E+0	1.691673E+0	1.732954E+0	1.690456E+0	1.301775E+0	1.763028E+0	1.781615E+0	1.677495E+0	1.611576E+0	1.690858E+0	1.769313E+0	1.557692E+0	1.593962E+0	1.724713E+0	1.734402E+0	1.604976E+0	1.450231E+0	1.706100E+0	1.783327E+0	1.667794E+0	1.513704E+0	1.777337E+0	1.793569E+0	1.645727E+0	1.673231E+0	1.740415E+0	1.767304E+0	1.516942E+0	1.511329E+0	1.741553E+0	1.768686E+0	1.476927E+0	1.451107E+0	1.720306E+0	1.810837E+0	1.677626E+0	1.556159E+0	1.464663E+0	1.763034E+0	1.683757E+0	1.669186E+0	1.729646E+0	1.674687E+0	1.490800E+0	1.578151E+0	1.687810E+0	1.750203E+0	1.435231E+0	1.449811E+0	1.659718E+0	1.713510E+0	1.633250E+0	1.543156E+0	1.743131E+0	1.559455E+0	1.702525E+0	1.634811E+0	1.767715E+0	1.429814E+0	1.626948E+0	1.616490E+0	1.735131E+0	1.463831E+0	1.563307E+0	1.424011E+0	1.740002E+0	1.611629E+0	1.609593E+0	1.488593E+0	1.748208E+0	1.573692E+0	1.587994E+0	1.650721E+0	1.792520E+0	1.429547E+0	1.544369E+0	1.558807E+0	1.749463E+0	1.530553E+0	1.503581E+0	1.433332E+0	1.768946E+0	1.658905E+0	1.654301E+0	1.529793E+0	1.777089E+0	1.553741E+0	1.606556E+0	1.594982E+0	1.719343E+0	1.503822E+0	1.454490E+0	1.660329E+0	1.743240E+0	1.523183E+0	1.487364E+0	1.400716E+0	1.771115E+0	1.619156E+0	1.650941E+0	1.424742E+0	1.675457E+0	1.551322E+0	1.621929E+0	1.659051E+0	1.731179E+0	1.431831E+0	1.574546E+0	1.592270E+0	1.730906E+0	1.562812E+0	1.600169E+0	1.538839E+0	1.692863E+0	1.693342E+0	1.672657E+0	1.510016E+0	1.720691E+0	1.600136E+0	1.570756E+0	1.704834E+0	1.729071E+0	1.422962E+0	1.446783E+0	1.632315E+0	1.723315E+0	1.508903E+0	1.325748E+0	1.435367E+0	1.741865E+0	1.630248E+0	1.558332E+0	1.213496E+0	1.697887E+0	1.569978E+0	1.698692E+0	1.522818E+0	1.683570E+0
5.417650E+2	1.670551E+0	1.629291E+0	1.659442E+0	1.585764E+0	1.587431E+0	1.659863E+0	1.600441E+0	1.479092E+0	1.531194E+0	1.585021E+0	1.600687E+0	1.593502E+0	1.357120E+0	1.515820E+0	1.593284E+0	1.654938E+0	1.415411E+0	1.621769E+0	1.689795E+0	1.599457E+0	1.502151E+0	1.582715E+0	1.618794E+0	1.438942E+0	1.415543E+0	1.568228E+0	1.686393E+0	1.373039E+0	1.373036E+0	1.562119E+0	1.621866E+0	1.529505E+0	1.240160E+0	1.549873E+0	1.628530E+0	1.551788E+0	1.475324E+0	1.588477E+0	1.619967E+0	1.402967E+0	1.438169E+0	1.659890E+0	1.637790E+0	1.427649E+0	1.324477E+0	1.611335E+0	1.661916E+0	1.575555E+0	1.389281E+0	1.634464E+0	1.644490E+0	1.449556E+0	1.626849E+0	1.621213E+0	1.585112E+0	1.433665E+0	1.457987E+0	1.615172E+0	1.646604E+0	1.412024E+0	1.341923E+0	1.614706E+0	1.621128E+0	1.551261E+0	1.359309E+0	1.332675E+0	1.638482E+0	1.519336E+0	1.476819E+0	1.585461E+0	1.616659E+0	1.429089E+0	1.468989E+0	1.550647E+0	1.589552E+0	1.363673E+0	1.304597E+0	1.585745E+0	1.601022E+0	1.545109E+0	1.450511E+0	1.544120E+0	1.612137E+0	1.564456E+0	1.520606E+0	1.635116E+0	1.567032E+0	1.475572E+0	1.497385E+0	1.644896E+0	1.515823E+0	1.387769E+0	1.335034E+0	1.582608E+0	1.615869E+0	1.560809E+0	1.409379E+0	1.626950E+0	1.495986E+0	1.528372E+0	1.501517E+0	1.629967E+0	1.313784E+0	1.345209E+0	1.403564E+0	1.637235E+0	1.388557E+0	1.374649E+0	1.340625E+0	1.576181E+0	1.461635E+0	1.563033E+0	1.348499E+0	1.597183E+0	1.417771E+0	1.492156E+0	1.574786E+0	1.597930E+0	1.379079E+0	1.344994E+0	1.500943E+0	1.649712E+0	1.436351E+0	1.398169E+0	1.284684E+0	1.679869E+0	1.577378E+0	1.448085E+0	1.354919E+0	1.603203E+0	1.409829E+0	1.467898E+0	1.498878E+0	1.647303E+0	1.340579E+0	1.343147E+0	1.513571E+0	1.598988E+0	1.380178E+0	1.496829E+0	1.389636E+0	1.650024E+0	1.550652E+0	1.502647E+0	1.446780E+0	1.580714E+0	1.495122E+0	1.506165E+0	1.515479E+0	1.647734E+0	1.362551E+0	1.412551E+0	1.444698E+0	1.647290E+0	1.399359E+0	1.178040E+0	1.346340E+0	1.577833E+0	1.460330E+0	1.479753E+0	1.135482E+0	1.605725E+0	1.443785E+0	1.465887E+0	1.500296E+0	1.603682E+0
5.420110E+2	1.482006E+0	1.436304E+0	1.475003E+0	1.441452E+0	1.444286E+0	1.419940E+0	1.465945E+0	1.359234E+0	1.352069E+0	1.447774E+0	1.432917E+0	1.411571E+0	1.240287E+0	1.457236E+0	1.476007E+0	1.446238E+0	1.283928E+0	1.418650E+0	1.411029E+0	1.398528E+0	1.331921E+0	1.470682E+0	1.487232E+0	1.265467E+0	1.278944E+0	1.411981E+0	1.452160E+0	1.297734E+0	1.209004E+0	1.443855E+0	1.436300E+0	1.327284E+0	1.106288E+0	1.394057E+0	1.488986E+0	1.343613E+0	1.364546E+0	1.468559E+0	1.468815E+0	1.283505E+0	1.311107E+0	1.428379E+0	1.441946E+0	1.321758E+0	1.188026E+0	1.336761E+0	1.453872E+0	1.346687E+0	1.284595E+0	1.480394E+0	1.465720E+0	1.331475E+0	1.390718E+0	1.435589E+0	1.423740E+0	1.261668E+0	1.297356E+0	1.386614E+0	1.462864E+0	1.226138E+0	1.153092E+0	1.378844E+0	1.423757E+0	1.380969E+0	1.246294E+0	1.151959E+0	1.421927E+0	1.384322E+0	1.379706E+0	1.385823E+0	1.452926E+0	1.253692E+0	1.314882E+0	1.401649E+0	1.409305E+0	1.209826E+0	1.170552E+0	1.425019E+0	1.474476E+0	1.354898E+0	1.240309E+0	1.474748E+0	1.390227E+0	1.352208E+0	1.398948E+0	1.412603E+0	1.439080E+0	1.330940E+0	1.288791E+0	1.458881E+0	1.435357E+0	1.315608E+0	1.227934E+0	1.427061E+0	1.459005E+0	1.386843E+0	1.261085E+0	1.427689E+0	1.448534E+0	1.403512E+0	1.415374E+0	1.473989E+0	1.476334E+0	1.224559E+0	1.247148E+0	1.420037E+0	1.448170E+0	1.221425E+0	1.201562E+0	1.429105E+0	1.475552E+0	1.426432E+0	1.196606E+0	1.447606E+0	1.298720E+0	1.336218E+0	1.373424E+0	1.467225E+0	1.285372E+0	1.250095E+0	1.310989E+0	1.472083E+0	1.302861E+0	1.254919E+0	1.153738E+0	1.479388E+0	1.368489E+0	1.348544E+0	1.153071E+0	1.437309E+0	1.300583E+0	1.330302E+0	1.324412E+0	1.442808E+0	1.211973E+0	1.330621E+0	1.290594E+0	1.418186E+0	1.320888E+0	1.302073E+0	1.239283E+0	1.458496E+0	1.447351E+0	1.341587E+0	1.325116E+0	1.412886E+0	1.290612E+0	1.317091E+0	1.421129E+0	1.458879E+0	1.206942E+0	1.207145E+0	1.398241E+0	1.466566E+0	1.316180E+0	1.121684E+0	1.190244E+0	1.433871E+0	1.330835E+0	1.366525E+0	1.033127E+0	1.472604E+0	1.293192E+0	1.356725E+0	1.347938E+0	1.364013E+0
5.422670E+2	1.284385E+0	1.213572E+0	1.261138E+0	1.238403E+0	1.232198E+0	1.270284E+0	1.328346E+0	1.125054E+0	1.141444E+0	1.221406E+0	1.233271E+0	1.218433E+0	1.043815E+0	1.201086E+0	1.254223E+0	1.298326E+0	1.078373E+0	1.192756E+0	1.253165E+0	1.199501E+0	1.197527E+0	1.261178E+0	1.277314E+0	1.106011E+0	1.129124E+0	1.227656E+0	1.340676E+0	1.090033E+0	1.036483E+0	1.227534E+0	1.303483E+0	1.225289E+0	9.191980E-1	1.193990E+0	1.295934E+0	1.154720E+0	1.113372E+0	1.250790E+0	1.234896E+0	1.117966E+0	1.152121E+0	1.276905E+0	1.257859E+0	1.090543E+0	1.028562E+0	1.246859E+0	1.286930E+0	1.231390E+0	1.118893E+0	1.224930E+0	1.290106E+0	1.191171E+0	1.243136E+0	1.273098E+0	1.184869E+0	1.060280E+0	1.166697E+0	1.195703E+0	1.227236E+0	1.049072E+0	1.039164E+0	1.302966E+0	1.251721E+0	1.205868E+0	1.040131E+0	1.007017E+0	1.263575E+0	1.102263E+0	1.174352E+0	1.249467E+0	1.246679E+0	1.089119E+0	1.129951E+0	1.254044E+0	1.259754E+0	9.903831E-1	1.046008E+0	1.242096E+0	1.258450E+0	1.180347E+0	1.122750E+0	1.310075E+0	1.282896E+0	1.205211E+0	1.191019E+0	1.284529E+0	1.309967E+0	1.227981E+0	1.144684E+0	1.277029E+0	1.190253E+0	1.144230E+0	1.052729E+0	1.252455E+0	1.262775E+0	1.174366E+0	1.099089E+0	1.271033E+0	1.280055E+0	1.273743E+0	1.228447E+0	1.258844E+0	1.259198E+0	1.087745E+0	1.121781E+0	1.293284E+0	1.255273E+0	1.098100E+0	1.079688E+0	1.253236E+0	1.237133E+0	1.276706E+0	1.017763E+0	1.309062E+0	1.269273E+0	1.182326E+0	1.172672E+0	1.236168E+0	1.301486E+0	1.060908E+0	1.145010E+0	1.260137E+0	1.243243E+0	1.090038E+0	1.060916E+0	1.265588E+0	1.282324E+0	1.211207E+0	1.108476E+0	1.300909E+0	1.104471E+0	1.171482E+0	1.144795E+0	1.258523E+0	1.149505E+0	1.160057E+0	1.149435E+0	1.246089E+0	1.131440E+0	1.196744E+0	1.103909E+0	1.248072E+0	1.199423E+0	1.237195E+0	1.153281E+0	1.264112E+0	1.140686E+0	1.187900E+0	1.198364E+0	1.176281E+0	1.008010E+0	1.056862E+0	1.117708E+0	1.272503E+0	1.111154E+0	9.597354E-1	1.112194E+0	1.256689E+0	1.183027E+0	1.171005E+0	8.892759E-1	1.305833E+0	1.150171E+0	1.153996E+0	1.139937E+0	1.271238E+0
5.425080E+2	1.112602E+0	1.069921E+0	1.133395E+0	1.118749E+0	1.073296E+0	1.110535E+0	1.146741E+0	1.015589E+0	1.001852E+0	1.103669E+0	1.107443E+0	1.080665E+0	9.903745E-1	1.091965E+0	1.096305E+0	1.115321E+0	9.899535E-1	1.080755E+0	1.119104E+0	1.063859E+0	1.063698E+0	1.154188E+0	1.096044E+0	9.973723E-1	1.013927E+0	1.093382E+0	1.127196E+0	9.922552E-1	9.352357E-1	1.051033E+0	1.098058E+0	1.051956E+0	8.239743E-1	1.073076E+0	1.106265E+0	1.058280E+0	1.006738E+0	1.090149E+0	1.098743E+0	9.552737E-1	1.005268E+0	1.087065E+0	1.163852E+0	1.043549E+0	9.113736E-1	1.043358E+0	1.121886E+0	1.065359E+0	9.334503E-1	1.141969E+0	1.103126E+0	1.068010E+0	1.106396E+0	1.121870E+0	1.141491E+0	9.672076E-1	9.755021E-1	1.099573E+0	1.064247E+0	9.482514E-1	9.199585E-1	1.103781E+0	1.100895E+0	1.077096E+0	9.190405E-1	9.348538E-1	1.081443E+0	1.006684E+0	1.042603E+0	1.126813E+0	1.103052E+0	9.332113E-1	1.027211E+0	1.110616E+0	1.130449E+0	9.021307E-1	9.074968E-1	1.144586E+0	1.151714E+0	1.055672E+0	9.758012E-1	1.126482E+0	1.102475E+0	1.076074E+0	1.030258E+0	1.067838E+0	1.098063E+0	1.000613E+0	1.044006E+0	1.093789E+0	1.106072E+0	1.069296E+0	9.604567E-1	1.169455E+0	1.121052E+0	1.035066E+0	9.442390E-1	1.112411E+0	1.217478E+0	1.056292E+0	1.035330E+0	1.124978E+0	1.121239E+0	9.965376E-1	1.038005E+0	1.155306E+0	1.161501E+0	1.007786E+0	9.630206E-1	1.115547E+0	1.089482E+0	1.073893E+0	9.234406E-1	1.092623E+0	1.106362E+0	1.042730E+0	1.092494E+0	1.122806E+0	1.100347E+0	9.289030E-1	1.045541E+0	1.141717E+0	1.120772E+0	9.603007E-1	9.089727E-1	1.126383E+0	1.160908E+0	1.085836E+0	9.500528E-1	1.155662E+0	1.093285E+0	1.076329E+0	9.954951E-1	1.129948E+0	1.125011E+0	1.025868E+0	1.042629E+0	1.140289E+0	1.086462E+0	9.947003E-1	9.368486E-1	1.137186E+0	1.138086E+0	1.046901E+0	1.006874E+0	1.135857E+0	1.033595E+0	1.074182E+0	1.085011E+0	1.138369E+0	1.006178E+0	9.854952E-1	1.037895E+0	1.123123E+0	9.975094E-1	8.493981E-1	9.774384E-1	1.094041E+0	1.049112E+0	1.026838E+0	8.035175E-1	1.106882E+0	1.002104E+0	1.000278E+0	1.024676E+0	1.057340E+0
5.427600E+2	1.024616E+0	1.018410E+0	1.085312E+0	1.024475E+0	1.006977E+0	1.041644E+0	1.024018E+0	9.580836E-1	9.641759E-1	1.012603E+0	1.022440E+0	1.015408E+0	8.787772E-1	1.022469E+0	1.049858E+0	1.028203E+0	8.699502E-1	1.052281E+0	1.013234E+0	1.025195E+0	9.416238E-1	1.081925E+0	1.034645E+0	8.782180E-1	9.352413E-1	9.993899E-1	1.052479E+0	9.394207E-1	8.492590E-1	9.773427E-1	1.013654E+0	9.782592E-1	7.388319E-1	1.021345E+0	1.014140E+0	9.352351E-1	9.546087E-1	1.043200E+0	1.055556E+0	9.029385E-1	9.388641E-1	1.024227E+0	1.018932E+0	8.988046E-1	8.535801E-1	1.017238E+0	1.023239E+0	9.858030E-1	9.059335E-1	1.026089E+0	1.019109E+0	9.702411E-1	9.883289E-1	1.025203E+0	1.071505E+0	8.942706E-1	9.467319E-1	1.069324E+0	9.958806E-1	8.619237E-1	8.703774E-1	9.899630E-1	1.034908E+0	1.006696E+0	8.693630E-1	8.515887E-1	1.018230E+0	9.512082E-1	1.030849E+0	1.017208E+0	1.033538E+0	8.823232E-1	9.610719E-1	9.922541E-1	1.015509E+0	8.735075E-1	8.616992E-1	9.737724E-1	1.059678E+0	9.797052E-1	9.336327E-1	1.001051E+0	1.048482E+0	1.027991E+0	9.923965E-1	9.973324E-1	1.035534E+0	9.534235E-1	9.275351E-1	1.009804E+0	1.067078E+0	9.742414E-1	8.736776E-1	1.060635E+0	1.007796E+0	1.002327E+0	8.900424E-1	1.046210E+0	1.033868E+0	1.014906E+0	9.536911E-1	9.923054E-1	1.048061E+0	8.689590E-1	9.524762E-1	1.000165E+0	1.014149E+0	9.305506E-1	8.562490E-1	1.063604E+0	9.938742E-1	1.017224E+0	8.572929E-1	1.042994E+0	1.078165E+0	1.006639E+0	9.915077E-1	1.077588E+0	1.047229E+0	8.911873E-1	9.946068E-1	1.074433E+0	1.045603E+0	8.562392E-1	8.437752E-1	1.029140E+0	1.023826E+0	9.705491E-1	9.042844E-1	1.068661E+0	1.016289E+0	1.024986E+0	9.617451E-1	1.044847E+0	1.058869E+0	9.358142E-1	1.022642E+0	1.022433E+0	1.018314E+0	9.277941E-1	8.855790E-1	1.079854E+0	1.049634E+0	1.027217E+0	9.484487E-1	1.055241E+0	9.969774E-1	9.685433E-1	1.003112E+0	1.037737E+0	1.056826E+0	8.624836E-1	9.104349E-1	1.035095E+0	1.055502E+0	8.013473E-1	8.847562E-1	1.032443E+0	1.060482E+0	9.606328E-1	7.255057E-1	1.105419E+0	9.718165E-1	9.111668E-1	9.571082E-1	1.080534E+0
5.430330E+2	1.085368E+0	1.037999E+0	1.102536E+0	1.082490E+0	1.040466E+0	1.051741E+0	1.087857E+0	9.608550E-1	9.950577E-1	1.101068E+0	1.102409E+0	1.032547E+0	9.049734E-1	1.053483E+0	1.082371E+0	1.087115E+0	9.480362E-1	1.096578E+0	1.108454E+0	1.039774E+0	1.016100E+0	1.067921E+0	1.098380E+0	9.611575E-1	9.723810E-1	1.033569E+0	1.102883E+0	9.224165E-1	9.007306E-1	1.081937E+0	1.119160E+0	1.043701E+0	7.886850E-1	1.017608E+0	1.093395E+0	9.911042E-1	1.007924E+0	9.973833E-1	1.037563E+0	9.592567E-1	1.012292E+0	1.069206E+0	1.067891E+0	9.645975E-1	8.765897E-1	1.056115E+0	1.131372E+0	1.060746E+0	9.184958E-1	1.086665E+0	1.096810E+0	1.032457E+0	1.063627E+0	1.076204E+0	1.045477E+0	9.394470E-1	9.539247E-1	1.084786E+0	1.080731E+0	9.400593E-1	8.809279E-1	1.040549E+0	1.064367E+0	1.027155E+0	9.060001E-1	8.855115E-1	1.097718E+0	1.044781E+0	9.968299E-1	1.096803E+0	1.094435E+0	8.823237E-1	9.925354E-1	1.070930E+0	1.103022E+0	8.800672E-1	8.320976E-1	1.026227E+0	1.124230E+0	1.041173E+0	9.400217E-1	1.087941E+0	1.060333E+0	1.058215E+0	1.055086E+0	1.062015E+0	1.095749E+0	9.509722E-1	9.946532E-1	1.050756E+0	1.077602E+0	1.014484E+0	8.907029E-1	1.101827E+0	1.108335E+0	1.035065E+0	9.335183E-1	1.075706E+0	1.127391E+0	1.009996E+0	1.051095E+0	1.086730E+0	1.085249E+0	9.428514E-1	1.015161E+0	1.127579E+0	1.132702E+0	9.654307E-1	9.463534E-1	1.071111E+0	1.079801E+0	1.026172E+0	9.283402E-1	1.129844E+0	1.082550E+0	1.032516E+0	1.023334E+0	1.107938E+0	1.110493E+0	9.410693E-1	9.838213E-1	1.157864E+0	1.069580E+0	9.271906E-1	8.763735E-1	1.115725E+0	1.071478E+0	1.061897E+0	8.995908E-1	1.107738E+0	1.084731E+0	1.028409E+0	1.015516E+0	1.058926E+0	1.142771E+0	9.596692E-1	1.030138E+0	1.100779E+0	1.116448E+0	1.042397E+0	1.004825E+0	1.072924E+0	1.098056E+0	1.042725E+0	9.697565E-1	1.066234E+0	1.067449E+0	1.010261E+0	1.043079E+0	1.135613E+0	1.097712E+0	9.129645E-1	9.842904E-1	1.061103E+0	1.098852E+0	7.788052E-1	8.841464E-1	1.108576E+0	1.052270E+0	1.003945E+0	7.891322E-1	1.128825E+0	1.067724E+0	9.869115E-1	9.730058E-1	9.826038E-1
5.432640E+2	1.141931E+0	1.101844E+0	1.138419E+0	1.083939E+0	1.106784E+0	1.145571E+0	1.144262E+0	1.062701E+0	1.067943E+0	1.101719E+0	1.139319E+0	1.085938E+0	9.819900E-1	1.112067E+0	1.137525E+0	1.122839E+0	1.004881E+0	1.104801E+0	1.144788E+0	1.112030E+0	1.130331E+0	1.170991E+0	1.152764E+0	1.049356E+0	1.029665E+0	1.040282E+0	1.189460E+0	9.801117E-1	9.821829E-1	1.109867E+0	1.189910E+0	1.077897E+0	8.077297E-1	1.121069E+0	1.184842E+0	1.100181E+0	1.070717E+0	1.160288E+0	1.162321E+0	1.010453E+0	1.053792E+0	1.137336E+0	1.163200E+0	1.074878E+0	9.525754E-1	1.105319E+0	1.171210E+0	1.123585E+0	1.028566E+0	1.170939E+0	1.155555E+0	1.057217E+0	1.094349E+0	1.166941E+0	1.150745E+0	9.606743E-1	9.976777E-1	1.084113E+0	1.125902E+0	9.759777E-1	9.368381E-1	1.142355E+0	1.124461E+0	1.111997E+0	9.979035E-1	9.459558E-1	1.162807E+0	1.034087E+0	1.082189E+0	1.128119E+0	1.163374E+0	9.624452E-1	1.070233E+0	1.171190E+0	1.138285E+0	9.528171E-1	1.012496E+0	1.115670E+0	1.130620E+0	1.057989E+0	9.898568E-1	1.146805E+0	1.164373E+0	1.084317E+0	1.104119E+0	1.164862E+0	1.163486E+0	1.107862E+0	1.000576E+0	1.134047E+0	1.180969E+0	1.063746E+0	9.796794E-1	1.135641E+0	1.169503E+0	1.131355E+0	9.359016E-1	1.160261E+0	1.165215E+0	1.087857E+0	1.058415E+0	1.162031E+0	1.164425E+0	1.024823E+0	1.056165E+0	1.159927E+0	1.120645E+0	1.030208E+0	9.651037E-1	1.113671E+0	1.147574E+0	1.134738E+0	9.577392E-1	1.142943E+0	1.137691E+0	1.091077E+0	1.046591E+0	1.169266E+0	1.128996E+0	9.550607E-1	1.099471E+0	1.195545E+0	1.134378E+0	9.575985E-1	9.631179E-1	1.139704E+0	1.174617E+0	1.102218E+0	9.611998E-1	1.171146E+0	1.149881E+0	1.083174E+0	1.090452E+0	1.112806E+0	1.158692E+0	1.012749E+0	1.076357E+0	1.123548E+0	1.161423E+0	1.082143E+0	9.990630E-1	1.140967E+0	1.186512E+0	1.142945E+0	9.890026E-1	1.195954E+0	1.192505E+0	1.061399E+0	1.160362E+0	1.114935E+0	1.171552E+0	9.779501E-1	1.043853E+0	1.161802E+0	1.184962E+0	8.565167E-1	9.560982E-1	1.200628E+0	1.184923E+0	1.057773E+0	8.234353E-1	1.129557E+0	1.154378E+0	1.119466E+0	1.078994E+0	1.191348E+0
5.435110E+2	1.394717E+0	1.371010E+0	1.363767E+0	1.328327E+0	1.303770E+0	1.380151E+0	1.407681E+0	1.277477E+0	1.255714E+0	1.315076E+0	1.391533E+0	1.273803E+0	1.193131E+0	1.326865E+0	1.389499E+0	1.357865E+0	1.157609E+0	1.345883E+0	1.346505E+0	1.328172E+0	1.219927E+0	1.316075E+0	1.366775E+0	1.190123E+0	1.217880E+0	1.342400E+0	1.344824E+0	1.151373E+0	1.154701E+0	1.310735E+0	1.376098E+0	1.278349E+0	1.003780E+0	1.344820E+0	1.320318E+0	1.227217E+0	1.281610E+0	1.323190E+0	1.312866E+0	1.137876E+0	1.253004E+0	1.355621E+0	1.367529E+0	1.235285E+0	1.148962E+0	1.320358E+0	1.331197E+0	1.325933E+0	1.214606E+0	1.296039E+0	1.373491E+0	1.280687E+0	1.297951E+0	1.366796E+0	1.377469E+0	1.168050E+0	1.217642E+0	1.324097E+0	1.398156E+0	1.183916E+0	1.111424E+0	1.325099E+0	1.354232E+0	1.237157E+0	1.163703E+0	1.126670E+0	1.367473E+0	1.264014E+0	1.264660E+0	1.348635E+0	1.375942E+0	1.142712E+0	1.214068E+0	1.343164E+0	1.351181E+0	1.121574E+0	1.109676E+0	1.316073E+0	1.359431E+0	1.260956E+0	1.141920E+0	1.320587E+0	1.350062E+0	1.284891E+0	1.269848E+0	1.356974E+0	1.344704E+0	1.262300E+0	1.219041E+0	1.337417E+0	1.293616E+0	1.222633E+0	1.099412E+0	1.347751E+0	1.321523E+0	1.298899E+0	1.190807E+0	1.334611E+0	1.388708E+0	1.262520E+0	1.254910E+0	1.404067E+0	1.332978E+0	1.144894E+0	1.244803E+0	1.316390E+0	1.375833E+0	1.144814E+0	1.114061E+0	1.265754E+0	1.345449E+0	1.261795E+0	1.186807E+0	1.300102E+0	1.283056E+0	1.263355E+0	1.274883E+0	1.334042E+0	1.340283E+0	1.070641E+0	1.255865E+0	1.351646E+0	1.332670E+0	1.129232E+0	1.102355E+0	1.366825E+0	1.386768E+0	1.346653E+0	1.088531E+0	1.373903E+0	1.328227E+0	1.281015E+0	1.300385E+0	1.385257E+0	1.309960E+0	1.244743E+0	1.239377E+0	1.332475E+0	1.357008E+0	1.250402E+0	1.135017E+0	1.389195E+0	1.355669E+0	1.322496E+0	1.195893E+0	1.391633E+0	1.396320E+0	1.243072E+0	1.285503E+0	1.288629E+0	1.330208E+0	1.124754E+0	1.232661E+0	1.379207E+0	1.364799E+0	1.023210E+0	1.151828E+0	1.330745E+0	1.342207E+0	1.248964E+0	9.656283E-1	1.335092E+0	1.407606E+0	1.229741E+0	1.224727E+0	1.356281E+0
5.437640E+2	1.495276E+0	1.463871E+0	1.509451E+0	1.564010E+0	1.489595E+0	1.514959E+0	1.522347E+0	1.421589E+0	1.397159E+0	1.514119E+0	1.477097E+0	1.489356E+0	1.308923E+0	1.493422E+0	1.494585E+0	1.451874E+0	1.285077E+0	1.529383E+0	1.511887E+0	1.468884E+0	1.467431E+0	1.544065E+0	1.550382E+0	1.309859E+0	1.333080E+0	1.434564E+0	1.585583E+0	1.385186E+0	1.284798E+0	1.496747E+0	1.512013E+0	1.454631E+0	1.116369E+0	1.471964E+0	1.559435E+0	1.456679E+0	1.395352E+0	1.504196E+0	1.544990E+0	1.379641E+0	1.415183E+0	1.499819E+0	1.550969E+0	1.451462E+0	1.274714E+0	1.471013E+0	1.548726E+0	1.418749E+0	1.290578E+0	1.524505E+0	1.558578E+0	1.438763E+0	1.490111E+0	1.496672E+0	1.561398E+0	1.295958E+0	1.366883E+0	1.535179E+0	1.517801E+0	1.341451E+0	1.283375E+0	1.516695E+0	1.540409E+0	1.409252E+0	1.261197E+0	1.248792E+0	1.498910E+0	1.405042E+0	1.421149E+0	1.492166E+0	1.547720E+0	1.254773E+0	1.390650E+0	1.525582E+0	1.510529E+0	1.246201E+0	1.235343E+0	1.501680E+0	1.558202E+0	1.441885E+0	1.304202E+0	1.547624E+0	1.475830E+0	1.510879E+0	1.425640E+0	1.507040E+0	1.544452E+0	1.414287E+0	1.339460E+0	1.558832E+0	1.513345E+0	1.388459E+0	1.262533E+0	1.510677E+0	1.505034E+0	1.404174E+0	1.289672E+0	1.531250E+0	1.495982E+0	1.407721E+0	1.432831E+0	1.481157E+0	1.536915E+0	1.304223E+0	1.343224E+0	1.540188E+0	1.556006E+0	1.331050E+0	1.269791E+0	1.504832E+0	1.528802E+0	1.444326E+0	1.274390E+0	1.523428E+0	1.466019E+0	1.323280E+0	1.467065E+0	1.556426E+0	1.571266E+0	1.300585E+0	1.383496E+0	1.592522E+0	1.524480E+0	1.280597E+0	1.224461E+0	1.535335E+0	1.533642E+0	1.502894E+0	1.265730E+0	1.515464E+0	1.548029E+0	1.408342E+0	1.397058E+0	1.527299E+0	1.518791E+0	1.327043E+0	1.421756E+0	1.495192E+0	1.486485E+0	1.392166E+0	1.306684E+0	1.486849E+0	1.555822E+0	1.459698E+0	1.389041E+0	1.557261E+0	1.535191E+0	1.401869E+0	1.451268E+0	1.495408E+0	1.495583E+0	1.301727E+0	1.414918E+0	1.555263E+0	1.504802E+0	1.186343E+0	1.275609E+0	1.491317E+0	1.495700E+0	1.385706E+0	1.103946E+0	1.512833E+0	1.521184E+0	1.404623E+0	1.390333E+0	1.570179E+0
5.440280E+2	1.690799E+0	1.627114E+0	1.622124E+0	1.638707E+0	1.634706E+0	1.646205E+0	1.689075E+0	1.470779E+0	1.502162E+0	1.628605E+0	1.701911E+0	1.579002E+0	1.385415E+0	1.641022E+0	1.648438E+0	1.680633E+0	1.497516E+0	1.650873E+0	1.612118E+0	1.639390E+0	1.515029E+0	1.677942E+0	1.627568E+0	1.482749E+0	1.465274E+0	1.581045E+0	1.648437E+0	1.400975E+0	1.364550E+0	1.626302E+0	1.651655E+0	1.596129E+0	1.198150E+0	1.602851E+0	1.618368E+0	1.517205E+0	1.544047E+0	1.611668E+0	1.640358E+0	1.447337E+0	1.509041E+0	1.703546E+0	1.588178E+0	1.460861E+0	1.389226E+0	1.599184E+0	1.654960E+0	1.565178E+0	1.449700E+0	1.620638E+0	1.696290E+0	1.524470E+0	1.607577E+0	1.646119E+0	1.655676E+0	1.414070E+0	1.471171E+0	1.636686E+0	1.591664E+0	1.354054E+0	1.318716E+0	1.614074E+0	1.665901E+0	1.545847E+0	1.435068E+0	1.363510E+0	1.602183E+0	1.505967E+0	1.515788E+0	1.630479E+0	1.665492E+0	1.375496E+0	1.450366E+0	1.664135E+0	1.617634E+0	1.358902E+0	1.379437E+0	1.566913E+0	1.661740E+0	1.525969E+0	1.402597E+0	1.557435E+0	1.633206E+0	1.569955E+0	1.505708E+0	1.658402E+0	1.657353E+0	1.516022E+0	1.493437E+0	1.667110E+0	1.612378E+0	1.509187E+0	1.353708E+0	1.627492E+0	1.664925E+0	1.549248E+0	1.408192E+0	1.617114E+0	1.639021E+0	1.558533E+0	1.517281E+0	1.639530E+0	1.619092E+0	1.397163E+0	1.469763E+0	1.604225E+0	1.646426E+0	1.446901E+0	1.326562E+0	1.624999E+0	1.594158E+0	1.580333E+0	1.345437E+0	1.566165E+0	1.556873E+0	1.481943E+0	1.542348E+0	1.651822E+0	1.636322E+0	1.371761E+0	1.502140E+0	1.679993E+0	1.640472E+0	1.417769E+0	1.337728E+0	1.688526E+0	1.659625E+0	1.581639E+0	1.347289E+0	1.625321E+0	1.630948E+0	1.491857E+0	1.469708E+0	1.612402E+0	1.561663E+0	1.445724E+0	1.472976E+0	1.578896E+0	1.694337E+0	1.469007E+0	1.401737E+0	1.609702E+0	1.632652E+0	1.585564E+0	1.485273E+0	1.637144E+0	1.629848E+0	1.436858E+0	1.499098E+0	1.613961E+0	1.616408E+0	1.381797E+0	1.459589E+0	1.605944E+0	1.598530E+0	1.170328E+0	1.358536E+0	1.638046E+0	1.657411E+0	1.445721E+0	1.222350E+0	1.574274E+0	1.647379E+0	1.587302E+0	1.551965E+0	1.567602E+0
5.442810E+2	1.732000E+0	1.752625E+0	1.735514E+0	1.709769E+0	1.626826E+0	1.735875E+0	1.713247E+0	1.508190E+0	1.584313E+0	1.648114E+0	1.667238E+0	1.618553E+0	1.439379E+0	1.622646E+0	1.683272E+0	1.699435E+0	1.483167E+0	1.682508E+0	1.713602E+0	1.615935E+0	1.591181E+0	1.690827E+0	1.685456E+0	1.457634E+0	1.569135E+0	1.639636E+0	1.720784E+0	1.475674E+0	1.485597E+0	1.658986E+0	1.714958E+0	1.613813E+0	1.256407E+0	1.630895E+0	1.714554E+0	1.553783E+0	1.515018E+0	1.660311E+0	1.681145E+0	1.525270E+0	1.483501E+0	1.698256E+0	1.673038E+0	1.523519E+0	1.415982E+0	1.638672E+0	1.686579E+0	1.618216E+0	1.476019E+0	1.703597E+0	1.770200E+0	1.620970E+0	1.679255E+0	1.741602E+0	1.660881E+0	1.426588E+0	1.513726E+0	1.698529E+0	1.646601E+0	1.483228E+0	1.365659E+0	1.686161E+0	1.709500E+0	1.609629E+0	1.383528E+0	1.377079E+0	1.727359E+0	1.588844E+0	1.601149E+0	1.719857E+0	1.666067E+0	1.404729E+0	1.484398E+0	1.673884E+0	1.707101E+0	1.421517E+0	1.367151E+0	1.656356E+0	1.732685E+0	1.538728E+0	1.452427E+0	1.716504E+0	1.630571E+0	1.643453E+0	1.597571E+0	1.703679E+0	1.686299E+0	1.598758E+0	1.517127E+0	1.703199E+0	1.642091E+0	1.551511E+0	1.360847E+0	1.672984E+0	1.695816E+0	1.581988E+0	1.467152E+0	1.666274E+0	1.698159E+0	1.565550E+0	1.583157E+0	1.661640E+0	1.701866E+0	1.535708E+0	1.493779E+0	1.686084E+0	1.708717E+0	1.445652E+0	1.406249E+0	1.670683E+0	1.659510E+0	1.633422E+0	1.422611E+0	1.699887E+0	1.663392E+0	1.578637E+0	1.563155E+0	1.667927E+0	1.688250E+0	1.353510E+0	1.558463E+0	1.725743E+0	1.672873E+0	1.419116E+0	1.326124E+0	1.683200E+0	1.645266E+0	1.540692E+0	1.429436E+0	1.703474E+0	1.640165E+0	1.561682E+0	1.558372E+0	1.745872E+0	1.611881E+0	1.500590E+0	1.539805E+0	1.696753E+0	1.628915E+0	1.532603E+0	1.429389E+0	1.680265E+0	1.690758E+0	1.595108E+0	1.466709E+0	1.633482E+0	1.658867E+0	1.551246E+0	1.583621E+0	1.693228E+0	1.734789E+0	1.446203E+0	1.526297E+0	1.665301E+0	1.658279E+0	1.268801E+0	1.378048E+0	1.700339E+0	1.664990E+0	1.578129E+0	1.219584E+0	1.634982E+0	1.648218E+0	1.526037E+0	1.509570E+0	1.559872E+0
5.445400E+2	1.754344E+0	1.654684E+0	1.754174E+0	1.711949E+0	1.737139E+0	1.687180E+0	1.694654E+0	1.682089E+0	1.541074E+0	1.717066E+0	1.692401E+0	1.673923E+0	1.492295E+0	1.680653E+0	1.739590E+0	1.677501E+0	1.475701E+0	1.704657E+0	1.738659E+0	1.669812E+0	1.606860E+0	1.707637E+0	1.746266E+0	1.577371E+0	1.496745E+0	1.639635E+0	1.719005E+0	1.648758E+0	1.458446E+0	1.695830E+0	1.718679E+0	1.686329E+0	1.344909E+0	1.663928E+0	1.751134E+0	1.592362E+0	1.604468E+0	1.622413E+0	1.697339E+0	1.522994E+0	1.533943E+0	1.706857E+0	1.670429E+0	1.544199E+0	1.392973E+0	1.648997E+0	1.695432E+0	1.643580E+0	1.494564E+0	1.658167E+0	1.716502E+0	1.599382E+0	1.666004E+0	1.707797E+0	1.748217E+0	1.387945E+0	1.538303E+0	1.675676E+0	1.699713E+0	1.425887E+0	1.372515E+0	1.666558E+0	1.676507E+0	1.596390E+0	1.433829E+0	1.451093E+0	1.696690E+0	1.577486E+0	1.611667E+0	1.630478E+0	1.658023E+0	1.456697E+0	1.531276E+0	1.676668E+0	1.629388E+0	1.405414E+0	1.434728E+0	1.685273E+0	1.769752E+0	1.575844E+0	1.472235E+0	1.735421E+0	1.691151E+0	1.640703E+0	1.586399E+0	1.680391E+0	1.698460E+0	1.568115E+0	1.534892E+0	1.688626E+0	1.639613E+0	1.604241E+0	1.417420E+0	1.666839E+0	1.734574E+0	1.632060E+0	1.418912E+0	1.676109E+0	1.704352E+0	1.589400E+0	1.573585E+0	1.705862E+0	1.684472E+0	1.465857E+0	1.466248E+0	1.671562E+0	1.693980E+0	1.469949E+0	1.422915E+0	1.680072E+0	1.690371E+0	1.564823E+0	1.437307E+0	1.656464E+0	1.637701E+0	1.530971E+0	1.533778E+0	1.685889E+0	1.674524E+0	1.379667E+0	1.629173E+0	1.710944E+0	1.697496E+0	1.452229E+0	1.389112E+0	1.680535E+0	1.719683E+0	1.600541E+0	1.424742E+0	1.673248E+0	1.625685E+0	1.575376E+0	1.558372E+0	1.721384E+0	1.672510E+0	1.538162E+0	1.598518E+0	1.721527E+0	1.645269E+0	1.539889E+0	1.462221E+0	1.692865E+0	1.662997E+0	1.536053E+0	1.562942E+0	1.669396E+0	1.731410E+0	1.547209E+0	1.643245E+0	1.720802E+0	1.754929E+0	1.410228E+0	1.516171E+0	1.645960E+0	1.673510E+0	1.311513E+0	1.385366E+0	1.667808E+0	1.648566E+0	1.552764E+0	1.212944E+0	1.719830E+0	1.705426E+0	1.559454E+0	1.533417E+0	1.724806E+0
5.447610E+2	1.607000E+0	1.656859E+0	1.668056E+0	1.751833E+0	1.686584E+0	1.687180E+0	1.726886E+0	1.641215E+0	1.544782E+0	1.661124E+0	1.622496E+0	1.603390E+0	1.465051E+0	1.661126E+0	1.747717E+0	1.696929E+0	1.479719E+0	1.621133E+0	1.712974E+0	1.683758E+0	1.558148E+0	1.684107E+0	1.626399E+0	1.638699E+0	1.535144E+0	1.650624E+0	1.675124E+0	1.643291E+0	1.406973E+0	1.581134E+0	1.656619E+0	1.680432E+0	1.492787E+0	1.633391E+0	1.700328E+0	1.626284E+0	1.591433E+0	1.642777E+0	1.648154E+0	1.639040E+0	1.508405E+0	1.630786E+0	1.697847E+0	1.575527E+0	1.345348E+0	1.676940E+0	1.703021E+0	1.694313E+0	1.459270E+0	1.646314E+0	1.738612E+0	1.602557E+0	1.623236E+0	1.668657E+0	1.676497E+0	1.445093E+0	1.496344E+0	1.651476E+0	1.581286E+0	1.435340E+0	1.419987E+0	1.725997E+0	1.670617E+0	1.547648E+0	1.448730E+0	1.403602E+0	1.635979E+0	1.584838E+0	1.559086E+0	1.651353E+0	1.729264E+0	1.429089E+0	1.468347E+0	1.630718E+0	1.756732E+0	1.397662E+0	1.395635E+0	1.698050E+0	1.687946E+0	1.589180E+0	1.490765E+0	1.762753E+0	1.629254E+0	1.587813E+0	1.577710E+0	1.649343E+0	1.704829E+0	1.506214E+0	1.509230E+0	1.632404E+0	1.630947E+0	1.575797E+0	1.350412E+0	1.672371E+0	1.659476E+0	1.577496E+0	1.439163E+0	1.570579E+0	1.620453E+0	1.567653E+0	1.518971E+0	1.741122E+0	1.647284E+0	1.469324E+0	1.536546E+0	1.691368E+0	1.651785E+0	1.481159E+0	1.381772E+0	1.664426E+0	1.702473E+0	1.634016E+0	1.418934E+0	1.697130E+0	1.654619E+0	1.540503E+0	1.575394E+0	1.753411E+0	1.672134E+0	1.383318E+0	1.555470E+0	1.702194E+0	1.678703E+0	1.365736E+0	1.351542E+0	1.652559E+0	1.665501E+0	1.566522E+0	1.478725E+0	1.672508E+0	1.642137E+0	1.539778E+0	1.546359E+0	1.751993E+0	1.662710E+0	1.512520E+0	1.508575E+0	1.714164E+0	1.624824E+0	1.627994E+0	1.417865E+0	1.617260E+0	1.695279E+0	1.620161E+0	1.528576E+0	1.741217E+0	1.712064E+0	1.502128E+0	1.611792E+0	1.682201E+0	1.615188E+0	1.374257E+0	1.497709E+0	1.684637E+0	1.648902E+0	1.257528E+0	1.390246E+0	1.666423E+0	1.602456E+0	1.486558E+0	1.231202E+0	1.655464E+0	1.728982E+0	1.493735E+0	1.412856E+0	1.616568E+0
5.450150E+2	1.620969E+0	1.639446E+0	1.627868E+0	1.630728E+0	1.600562E+0	1.615320E+0	1.615941E+0	1.619738E+0	1.477455E+0	1.568109E+0	1.578318E+0	1.650190E+0	1.349265E+0	1.593352E+0	1.620572E+0	1.586624E+0	1.426897E+0	1.536978E+0	1.553858E+0	1.548750E+0	1.511109E+0	1.575435E+0	1.570848E+0	1.521299E+0	1.435688E+0	1.497427E+0	1.616417E+0	1.590457E+0	1.392267E+0	1.510414E+0	1.642343E+0	1.607917E+0	1.370118E+0	1.602228E+0	1.640039E+0	1.643573E+0	1.485990E+0	1.547752E+0	1.561785E+0	1.585001E+0	1.457963E+0	1.563320E+0	1.595357E+0	1.547957E+0	1.295583E+0	1.579140E+0	1.597417E+0	1.613027E+0	1.380906E+0	1.575862E+0	1.576896E+0	1.591129E+0	1.543722E+0	1.573177E+0	1.614609E+0	1.664988E+0	1.416028E+0	1.556017E+0	1.626456E+0	1.623748E+0	1.297616E+0	1.561589E+0	1.605218E+0	1.651749E+0	1.381666E+0	1.283331E+0	1.572138E+0	1.477226E+0	1.483622E+0	1.557406E+0	1.586787E+0	1.470234E+0	1.451011E+0	1.597991E+0	1.668571E+0	1.422115E+0	1.320234E+0	1.550103E+0	1.562675E+0	1.506833E+0	1.401315E+0	1.565843E+0	1.614110E+0	1.539040E+0	1.537364E+0	1.618298E+0	1.630141E+0	1.425321E+0	1.417105E+0	1.580349E+0	1.654468E+0	1.420376E+0	1.261986E+0	1.582611E+0	1.600727E+0	1.517796E+0	1.367095E+0	1.540429E+0	1.573690E+0	1.485580E+0	1.509962E+0	1.626380E+0	1.598098E+0	1.371188E+0	1.452188E+0	1.536887E+0	1.537922E+0	1.352227E+0	1.355206E+0	1.597461E+0	1.550586E+0	1.552893E+0	1.344823E+0	1.595115E+0	1.514265E+0	1.502372E+0	1.546629E+0	1.592973E+0	1.592752E+0	1.301802E+0	1.475173E+0	1.600595E+0	1.567895E+0	1.316409E+0	1.291869E+0	1.586621E+0	1.628947E+0	1.558331E+0	1.343769E+0	1.631218E+0	1.523679E+0	1.488436E+0	1.469136E+0	1.648526E+0	1.524917E+0	1.437969E+0	1.483593E+0	1.519970E+0	1.607108E+0	1.443835E+0	1.428809E+0	1.587020E+0	1.626195E+0	1.544402E+0	1.334051E+0	1.591708E+0	1.568355E+0	1.448970E+0	1.434890E+0	1.553306E+0	1.612135E+0	1.330155E+0	1.467330E+0	1.580606E+0	1.592085E+0	1.196430E+0	1.324390E+0	1.615205E+0	1.558869E+0	1.469852E+0	1.141569E+0	1.578664E+0	1.601945E+0	1.405736E+0	1.473799E+0	1.562448E+0
5.452640E+2	1.552534E+0	1.532071E+0	1.577629E+0	1.473364E+0	1.499444E+0	1.526835E+0	1.495692E+0	1.457616E+0	1.437306E+0	1.459480E+0	1.540289E+0	1.534836E+0	1.283773E+0	1.480785E+0	1.566575E+0	1.502641E+0	1.351681E+0	1.542038E+0	1.497477E+0	1.519592E+0	1.427673E+0	1.550225E+0	1.514713E+0	1.476322E+0	1.343151E+0	1.440666E+0	1.506119E+0	1.498145E+0	1.274049E+0	1.392747E+0	1.458020E+0	1.461705E+0	1.320264E+0	1.485676E+0	1.564175E+0	1.521196E+0	1.401866E+0	1.453287E+0	1.491010E+0	1.467814E+0	1.389003E+0	1.536859E+0	1.491560E+0	1.510987E+0	1.234581E+0	1.460078E+0	1.566433E+0	1.506952E+0	1.342619E+0	1.483028E+0	1.549100E+0	1.495267E+0	1.466618E+0	1.496676E+0	1.509344E+0	1.515855E+0	1.339311E+0	1.509634E+0	1.512305E+0	1.569559E+0	1.298672E+0	1.579926E+0	1.520382E+0	1.553666E+0	1.234495E+0	1.234604E+0	1.550859E+0	1.498613E+0	1.371048E+0	1.511737E+0	1.510951E+0	1.521117E+0	1.366891E+0	1.455955E+0	1.480488E+0	1.497843E+0	1.209089E+0	1.468057E+0	1.552450E+0	1.513214E+0	1.284394E+0	1.505580E+0	1.480438E+0	1.520497E+0	1.410742E+0	1.529679E+0	1.492921E+0	1.446770E+0	1.383548E+0	1.506080E+0	1.520774E+0	1.378747E+0	1.224639E+0	1.506374E+0	1.489287E+0	1.473505E+0	1.271209E+0	1.505686E+0	1.498047E+0	1.400707E+0	1.396793E+0	1.522993E+0	1.533918E+0	1.335972E+0	1.342050E+0	1.548110E+0	1.517158E+0	1.342882E+0	1.261460E+0	1.530494E+0	1.541510E+0	1.461030E+0	1.247441E+0	1.519985E+0	1.450355E+0	1.444492E+0	1.418100E+0	1.516162E+0	1.490095E+0	1.247056E+0	1.429634E+0	1.597230E+0	1.547809E+0	1.221808E+0	1.228330E+0	1.521350E+0	1.481420E+0	1.411544E+0	1.258689E+0	1.516939E+0	1.517756E+0	1.363160E+0	1.406785E+0	1.522400E+0	1.418357E+0	1.352093E+0	1.372414E+0	1.471759E+0	1.503524E+0	1.382893E+0	1.299193E+0	1.513311E+0	1.505460E+0	1.481174E+0	1.329928E+0	1.454661E+0	1.468864E+0	1.473864E+0	1.381818E+0	1.524358E+0	1.537688E+0	1.279673E+0	1.319026E+0	1.478570E+0	1.445638E+0	1.159649E+0	1.254269E+0	1.519003E+0	1.467907E+0	1.367760E+0	1.031468E+0	1.491618E+0	1.437052E+0	1.351155E+0	1.325416E+0	1.541833E+0
5.455070E+2	1.488990E+0	1.501600E+0	1.440554E+0	1.493668E+0	1.465957E+0	1.482888E+0	1.493836E+0	1.509576E+0	1.347125E+0	1.454276E+0	1.476537E+0	1.477487E+0	1.293727E+0	1.394637E+0	1.438851E+0	1.401111E+0	1.225937E+0	1.446490E+0	1.440470E+0	1.437190E+0	1.374475E+0	1.497010E+0	1.445712E+0	1.482751E+0	1.316081E+0	1.426631E+0	1.474691E+0	1.424661E+0	1.173931E+0	1.414737E+0	1.476637E+0	1.496487E+0	1.320823E+0	1.393434E+0	1.495082E+0	1.400146E+0	1.347370E+0	1.379192E+0	1.456820E+0	1.484878E+0	1.303446E+0	1.454174E+0	1.457615E+0	1.483417E+0	1.206218E+0	1.416340E+0	1.427312E+0	1.496002E+0	1.234345E+0	1.449450E+0	1.474563E+0	1.455270E+0	1.399752E+0	1.420766E+0	1.448611E+0	1.426589E+0	1.317737E+0	1.407456E+0	1.425016E+0	1.459914E+0	1.174720E+0	1.453459E+0	1.466764E+0	1.482062E+0	1.199722E+0	1.230906E+0	1.395639E+0	1.445812E+0	1.377233E+0	1.408657E+0	1.484525E+0	1.465899E+0	1.284701E+0	1.435763E+0	1.426939E+0	1.412570E+0	1.200156E+0	1.440484E+0	1.440600E+0	1.476678E+0	1.258200E+0	1.462135E+0	1.469245E+0	1.374187E+0	1.334398E+0	1.481168E+0	1.410709E+0	1.482311E+0	1.290108E+0	1.465823E+0	1.423598E+0	1.401642E+0	1.180700E+0	1.462722E+0	1.465668E+0	1.431777E+0	1.272996E+0	1.531251E+0	1.454726E+0	1.463835E+0	1.417063E+0	1.401674E+0	1.428948E+0	1.464705E+0	1.316861E+0	1.464269E+0	1.419369E+0	1.426346E+0	1.189062E+0	1.451637E+0	1.442272E+0	1.427030E+0	1.211307E+0	1.485518E+0	1.410254E+0	1.379122E+0	1.340983E+0	1.473419E+0	1.385047E+0	1.309101E+0	1.321777E+0	1.474100E+0	1.458382E+0	1.217751E+0	1.226119E+0	1.468067E+0	1.427238E+0	1.347284E+0	1.144271E+0	1.469752E+0	1.449975E+0	1.313871E+0	1.334710E+0	1.466687E+0	1.428769E+0	1.274562E+0	1.293717E+0	1.439612E+0	1.447643E+0	1.294785E+0	1.275000E+0	1.432668E+0	1.459617E+0	1.393483E+0	1.323743E+0	1.492769E+0	1.457812E+0	1.301609E+0	1.435543E+0	1.482313E+0	1.435170E+0	1.205405E+0	1.338680E+0	1.438557E+0	1.489573E+0	1.067106E+0	1.197561E+0	1.491318E+0	1.468539E+0	1.331256E+0	1.020957E+0	1.419938E+0	1.403403E+0	1.402394E+0	1.334690E+0	1.492867E+0
5.457670E+2	1.356312E+0	1.378989E+0	1.403238E+0	1.416073E+0	1.355640E+0	1.378961E+0	1.391565E+0	1.381401E+0	1.285361E+0	1.333939E+0	1.313242E+0	1.395751E+0	1.172702E+0	1.357879E+0	1.418528E+0	1.352850E+0	1.202971E+0	1.350313E+0	1.384090E+0	1.376343E+0	1.304480E+0	1.379933E+0	1.377885E+0	1.408570E+0	1.239283E+0	1.279535E+0	1.417171E+0	1.348747E+0	1.189205E+0	1.345797E+0	1.402783E+0	1.373860E+0	1.242403E+0	1.328613E+0	1.374509E+0	1.337627E+0	1.264432E+0	1.388805E+0	1.368651E+0	1.393295E+0	1.222994E+0	1.345694E+0	1.377973E+0	1.393816E+0	1.144146E+0	1.366526E+0	1.393166E+0	1.362831E+0	1.218194E+0	1.347394E+0	1.367175E+0	1.348615E+0	1.246750E+0	1.382218E+0	1.382099E+0	1.366174E+0	1.228430E+0	1.291829E+0	1.339553E+0	1.406984E+0	1.137795E+0	1.351656E+0	1.365429E+0	1.371947E+0	1.138864E+0	1.161210E+0	1.322410E+0	1.347561E+0	1.302391E+0	1.324495E+0	1.350089E+0	1.399315E+0	1.239109E+0	1.371710E+0	1.359674E+0	1.388719E+0	1.062760E+0	1.311365E+0	1.418866E+0	1.352002E+0	1.168115E+0	1.412383E+0	1.321089E+0	1.306185E+0	1.271709E+0	1.352447E+0	1.321548E+0	1.391612E+0	1.228909E+0	1.384612E+0	1.323328E+0	1.392624E+0	1.158181E+0	1.336688E+0	1.336059E+0	1.327786E+0	1.196762E+0	1.373940E+0	1.342633E+0	1.371244E+0	1.279686E+0	1.389723E+0	1.352173E+0	1.330777E+0	1.180362E+0	1.336195E+0	1.361766E+0	1.326689E+0	1.109895E+0	1.352122E+0	1.345451E+0	1.424641E+0	1.154956E+0	1.340078E+0	1.355113E+0	1.377755E+0	1.299976E+0	1.315456E+0	1.325958E+0	1.380276E+0	1.274441E+0	1.405471E+0	1.307397E+0	1.349521E+0	1.102354E+0	1.320202E+0	1.371753E+0	1.327755E+0	1.157766E+0	1.428462E+0	1.370343E+0	1.241992E+0	1.298102E+0	1.377299E+0	1.314861E+0	1.269789E+0	1.269981E+0	1.389390E+0	1.352917E+0	1.296112E+0	1.174189E+0	1.369664E+0	1.441541E+0	1.388709E+0	1.263945E+0	1.390165E+0	1.362468E+0	1.230963E+0	1.311057E+0	1.374096E+0	1.416864E+0	1.157246E+0	1.277927E+0	1.327189E+0	1.335511E+0	1.160243E+0	1.088413E+0	1.335591E+0	1.352315E+0	1.280521E+0	9.750342E-1	1.381906E+0	1.363019E+0	1.296575E+0	1.253874E+0	1.446480E+0
5.460060E+2	1.359106E+0	1.302083E+0	1.299176E+0	1.345731E+0	1.295234E+0	1.326107E+0	1.354378E+0	1.325284E+0	1.206301E+0	1.218154E+0	1.300939E+0	1.308740E+0	1.089395E+0	1.327439E+0	1.275704E+0	1.309607E+0	1.099044E+0	1.278178E+0	1.342118E+0	1.290774E+0	1.224966E+0	1.267899E+0	1.325843E+0	1.332056E+0	1.208441E+0	1.288081E+0	1.364394E+0	1.311700E+0	1.072119E+0	1.288747E+0	1.300381E+0	1.323158E+0	1.153338E+0	1.246965E+0	1.280353E+0	1.295724E+0	1.233628E+0	1.244001E+0	1.344659E+0	1.261885E+0	1.148931E+0	1.315268E+0	1.282664E+0	1.308596E+0	1.091703E+0	1.280269E+0	1.297050E+0	1.249838E+0	1.148206E+0	1.308548E+0	1.333061E+0	1.328934E+0	1.278073E+0	1.260642E+0	1.350865E+0	1.262211E+0	1.173290E+0	1.275027E+0	1.277901E+0	1.366025E+0	1.070282E+0	1.322568E+0	1.300032E+0	1.297934E+0	1.072421E+0	1.089663E+0	1.312397E+0	1.357585E+0	1.191672E+0	1.277521E+0	1.307577E+0	1.338683E+0	1.194161E+0	1.269360E+0	1.309387E+0	1.332069E+0	1.097948E+0	1.309346E+0	1.328116E+0	1.334605E+0	1.152780E+0	1.347918E+0	1.335576E+0	1.279396E+0	1.254330E+0	1.285822E+0	1.294336E+0	1.344421E+0	1.160477E+0	1.383226E+0	1.258335E+0	1.313525E+0	1.027462E+0	1.304715E+0	1.312437E+0	1.260381E+0	1.096708E+0	1.310361E+0	1.273177E+0	1.362125E+0	1.247593E+0	1.341314E+0	1.309583E+0	1.254575E+0	1.178017E+0	1.360622E+0	1.318901E+0	1.342882E+0	1.078647E+0	1.264502E+0	1.376917E+0	1.336359E+0	1.115145E+0	1.256673E+0	1.261130E+0	1.341669E+0	1.200214E+0	1.302447E+0	1.274629E+0	1.403392E+0	1.249869E+0	1.355682E+0	1.326836E+0	1.339384E+0	1.048209E+0	1.292894E+0	1.310395E+0	1.319561E+0	1.092048E+0	1.388646E+0	1.272288E+0	1.298127E+0	1.214009E+0	1.324034E+0	1.268315E+0	1.343741E+0	1.188158E+0	1.328455E+0	1.377450E+0	1.342482E+0	1.183982E+0	1.256890E+0	1.288521E+0	1.267021E+0	1.178024E+0	1.322740E+0	1.296831E+0	1.230288E+0	1.254052E+0	1.291385E+0	1.336923E+0	1.237318E+0	1.223130E+0	1.299846E+0	1.252329E+0	1.275324E+0	1.095730E+0	1.289220E+0	1.315044E+0	1.235972E+0	9.595428E-1	1.309490E+0	1.321794E+0	1.198552E+0	1.133313E+0	1.351127E+0
5.467660E+2	1.258547E+0	1.166414E+0	1.250375E+0	1.252183E+0	1.259121E+0	1.263156E+0	1.310368E+0	1.272628E+0	1.170477E+0	1.250026E+0	1.248930E+0	1.310060E+0	1.033335E+0	1.238419E+0	1.247836E+0	1.282029E+0	1.039904E+0	1.217431E+0	1.305157E+0	1.247040E+0	1.171210E+0	1.248294E+0	1.303039E+0	1.297009E+0	1.127237E+0	1.233761E+0	1.266551E+0	1.291660E+0	1.099835E+0	1.170487E+0	1.275557E+0	1.264200E+0	1.096204E+0	1.175293E+0	1.284417E+0	1.217239E+0	1.187420E+0	1.246263E+0	1.309871E+0	1.285779E+0	1.092103E+0	1.196870E+0	1.250676E+0	1.245313E+0	1.026958E+0	1.248073E+0	1.273018E+0	1.193342E+0	1.107526E+0	1.271019E+0	1.295161E+0	1.214661E+0	1.164225E+0	1.258271E+0	1.287241E+0	1.255136E+0	1.100766E+0	1.230657E+0	1.227236E+0	1.250085E+0	1.021757E+0	1.231512E+0	1.252309E+0	1.264235E+0	1.056277E+0	1.034155E+0	1.285484E+0	1.244628E+0	1.129198E+0	1.265778E+0	1.282297E+0	1.259105E+0	1.138939E+0	1.224802E+0	1.249957E+0	1.234276E+0	1.030925E+0	1.213181E+0	1.211792E+0	1.234861E+0	1.001357E+0	1.291157E+0	1.228903E+0	1.284203E+0	1.204052E+0	1.202381E+0	1.234703E+0	1.302751E+0	1.159160E+0	1.344356E+0	1.221199E+0	1.208065E+0	1.002748E+0	1.259833E+0	1.237942E+0	1.229571E+0	1.131843E+0	1.280213E+0	1.264237E+0	1.303907E+0	1.160323E+0	1.245696E+0	1.251401E+0	1.285751E+0	1.115334E+0	1.293944E+0	1.188964E+0	1.288693E+0	1.021353E+0	1.216312E+0	1.222611E+0	1.281479E+0	1.036750E+0	1.291828E+0	1.256114E+0	1.294001E+0	1.169612E+0	1.281388E+0	1.241203E+0	1.259221E+0	1.183956E+0	1.237934E+0	1.252317E+0	1.240050E+0	1.057048E+0	1.265587E+0	1.245115E+0	1.310746E+0	1.055668E+0	1.231603E+0	1.226221E+0	1.259792E+0	1.161384E+0	1.254849E+0	1.288524E+0	1.232217E+0	1.120704E+0	1.194527E+0	1.237749E+0	1.317309E+0	1.056671E+0	1.273272E+0	1.265281E+0	1.247929E+0	1.107915E+0	1.289028E+0	1.243631E+0	1.218848E+0	1.189844E+0	1.241760E+0	1.310072E+0	1.237320E+0	1.105198E+0	1.257832E+0	1.270487E+0	1.251004E+0	1.056706E+0	1.235236E+0	1.200081E+0	1.234116E+0	8.649312E-1	1.252439E+0	1.242714E+0	1.228627E+0	1.157160E+0	1.330512E+0
5.475340E+2	1.387736E+0	1.371008E+0	1.348695E+0	1.393592E+0	1.346451E+0	1.359364E+0	1.392185E+0	1.391102E+0	1.324893E+0	1.328734E+0	1.310444E+0	1.366745E+0	1.157507E+0	1.319400E+0	1.423750E+0	1.428060E+0	1.171963E+0	1.345250E+0	1.321446E+0	1.390288E+0	1.294963E+0	1.389459E+0	1.397768E+0	1.350161E+0	1.224176E+0	1.305169E+0	1.346012E+0	1.362110E+0	1.159791E+0	1.335103E+0	1.390371E+0	1.373269E+0	1.177988E+0	1.378475E+0	1.287127E+0	1.364896E+0	1.329005E+0	1.362787E+0	1.404638E+0	1.334132E+0	1.276630E+0	1.399938E+0	1.336193E+0	1.378148E+0	1.167156E+0	1.313677E+0	1.428578E+0	1.371476E+0	1.224775E+0	1.388876E+0	1.418342E+0	1.370202E+0	1.313612E+0	1.340110E+0	1.337562E+0	1.352566E+0	1.236224E+0	1.379218E+0	1.331010E+0	1.355942E+0	1.132524E+0	1.377583E+0	1.364251E+0	1.394810E+0	1.107816E+0	1.185262E+0	1.352454E+0	1.417073E+0	1.311051E+0	1.336892E+0	1.408689E+0	1.397690E+0	1.232048E+0	1.355000E+0	1.356407E+0	1.338031E+0	1.128107E+0	1.402824E+0	1.346007E+0	1.398971E+0	1.127222E+0	1.318482E+0	1.338209E+0	1.320610E+0	1.329433E+0	1.382848E+0	1.428659E+0	1.398354E+0	1.242730E+0	1.334639E+0	1.359844E+0	1.381523E+0	1.126873E+0	1.384025E+0	1.401468E+0	1.388127E+0	1.175916E+0	1.366075E+0	1.411399E+0	1.375453E+0	1.297138E+0	1.354461E+0	1.386362E+0	1.379266E+0	1.190323E+0	1.377785E+0	1.361100E+0	1.291808E+0	1.126563E+0	1.342109E+0	1.360576E+0	1.428223E+0	1.143318E+0	1.356621E+0	1.339448E+0	1.431553E+0	1.225922E+0	1.375545E+0	1.377287E+0	1.399133E+0	1.286425E+0	1.404125E+0	1.374143E+0	1.350870E+0	1.104012E+0	1.387476E+0	1.378933E+0	1.337835E+0	1.205880E+0	1.383487E+0	1.294663E+0	1.364530E+0	1.233461E+0	1.377912E+0	1.371202E+0	1.399802E+0	1.243747E+0	1.341177E+0	1.401303E+0	1.392827E+0	1.169580E+0	1.358322E+0	1.375683E+0	1.382744E+0	1.239199E+0	1.335201E+0	1.383887E+0	1.368899E+0	1.287470E+0	1.374789E+0	1.322275E+0	1.411972E+0	1.264821E+0	1.405214E+0	1.337854E+0	1.327529E+0	1.127438E+0	1.399265E+0	1.291042E+0	1.330019E+0	9.584350E-1	1.377516E+0	1.413495E+0	1.270955E+0	1.261823E+0	1.333088E+0
5.482660E+2	1.475721E+0	1.431224E+0	1.471415E+0	1.454510E+0	1.445600E+0	1.491205E+0	1.484537E+0	1.488790E+0	1.330452E+0	1.440617E+0	1.455285E+0	1.443869E+0	1.246573E+0	1.426224E+0	1.473102E+0	1.495748E+0	1.271295E+0	1.438267E+0	1.413533E+0	1.442895E+0	1.347598E+0	1.465640E+0	1.509447E+0	1.452962E+0	1.321118E+0	1.426018E+0	1.440890E+0	1.472640E+0	1.188073E+0	1.399286E+0	1.462986E+0	1.409822E+0	1.281614E+0	1.412753E+0	1.475436E+0	1.440051E+0	1.323081E+0	1.367877E+0	1.450822E+0	1.492274E+0	1.313661E+0	1.442931E+0	1.443904E+0	1.526653E+0	1.179998E+0	1.401152E+0	1.483592E+0	1.444117E+0	1.295363E+0	1.438916E+0	1.465087E+0	1.401945E+0	1.410597E+0	1.476513E+0	1.468277E+0	1.442373E+0	1.297359E+0	1.431655E+0	1.420130E+0	1.486381E+0	1.223246E+0	1.468005E+0	1.426701E+0	1.511546E+0	1.235738E+0	1.181563E+0	1.416294E+0	1.463193E+0	1.345071E+0	1.406698E+0	1.450628E+0	1.453448E+0	1.307816E+0	1.419058E+0	1.451100E+0	1.453119E+0	1.161060E+0	1.460661E+0	1.443156E+0	1.500454E+0	1.286310E+0	1.443917E+0	1.427762E+0	1.417462E+0	1.336878E+0	1.448825E+0	1.470919E+0	1.457187E+0	1.284844E+0	1.410295E+0	1.442166E+0	1.441885E+0	1.160927E+0	1.390174E+0	1.431144E+0	1.440766E+0	1.247984E+0	1.406059E+0	1.451284E+0	1.470852E+0	1.386659E+0	1.441717E+0	1.443942E+0	1.449693E+0	1.361969E+0	1.380427E+0	1.420707E+0	1.441918E+0	1.238541E+0	1.415961E+0	1.425931E+0	1.473556E+0	1.205795E+0	1.418658E+0	1.435317E+0	1.498286E+0	1.339757E+0	1.367490E+0	1.479946E+0	1.467873E+0	1.333763E+0	1.486216E+0	1.452552E+0	1.409657E+0	1.211752E+0	1.465400E+0	1.413530E+0	1.472022E+0	1.190625E+0	1.468278E+0	1.450633E+0	1.445311E+0	1.333565E+0	1.469134E+0	1.453877E+0	1.423659E+0	1.336190E+0	1.477113E+0	1.458545E+0	1.457744E+0	1.269816E+0	1.386673E+0	1.522247E+0	1.403026E+0	1.305184E+0	1.419481E+0	1.454358E+0	1.374282E+0	1.353642E+0	1.443713E+0	1.407709E+0	1.456649E+0	1.309495E+0	1.437225E+0	1.477857E+0	1.494221E+0	1.196342E+0	1.417260E+0	1.423061E+0	1.375805E+0	1.029808E+0	1.486501E+0	1.474910E+0	1.474798E+0	1.346614E+0	1.387207E+0
5.490160E+2	1.431031E+0	1.483460E+0	1.493664E+0	1.496568E+0	1.405547E+0	1.436568E+0	1.532880E+0	1.419511E+0	1.358865E+0	1.417849E+0	1.414463E+0	1.441893E+0	1.228760E+0	1.431395E+0	1.498067E+0	1.427434E+0	1.269573E+0	1.474334E+0	1.440472E+0	1.406771E+0	1.356560E+0	1.451075E+0	1.445714E+0	1.438945E+0	1.319860E+0	1.438225E+0	1.449194E+0	1.447131E+0	1.236717E+0	1.435533E+0	1.436920E+0	1.453451E+0	1.305138E+0	1.427709E+0	1.511341E+0	1.450692E+0	1.422603E+0	1.415390E+0	1.442425E+0	1.397276E+0	1.288123E+0	1.415147E+0	1.401476E+0	1.420758E+0	1.199800E+0	1.409047E+0	1.481697E+0	1.442385E+0	1.269042E+0	1.462619E+0	1.424657E+0	1.446382E+0	1.378068E+0	1.448639E+0	1.427212E+0	1.451082E+0	1.365684E+0	1.469302E+0	1.426235E+0	1.497094E+0	1.214807E+0	1.423741E+0	1.486208E+0	1.519371E+0	1.227045E+0	1.184030E+0	1.481387E+0	1.424426E+0	1.369813E+0	1.535224E+0	1.479355E+0	1.498379E+0	1.311671E+0	1.444818E+0	1.469387E+0	1.444175E+0	1.183399E+0	1.461332E+0	1.437406E+0	1.460441E+0	1.298451E+0	1.384354E+0	1.447516E+0	1.438759E+0	1.374742E+0	1.445593E+0	1.414183E+0	1.501312E+0	1.330905E+0	1.423484E+0	1.413076E+0	1.369034E+0	1.225734E+0	1.440590E+0	1.431145E+0	1.399681E+0	1.262275E+0	1.413921E+0	1.434094E+0	1.461732E+0	1.357946E+0	1.493110E+0	1.433746E+0	1.499918E+0	1.271753E+0	1.425320E+0	1.469602E+0	1.410777E+0	1.212499E+0	1.437239E+0	1.409594E+0	1.495630E+0	1.173945E+0	1.522052E+0	1.470403E+0	1.450618E+0	1.306709E+0	1.430057E+0	1.409518E+0	1.469090E+0	1.391286E+0	1.442475E+0	1.468750E+0	1.464390E+0	1.180260E+0	1.526677E+0	1.412877E+0	1.460051E+0	1.201772E+0	1.430675E+0	1.432862E+0	1.349470E+0	1.360452E+0	1.397505E+0	1.426930E+0	1.431412E+0	1.303709E+0	1.459034E+0	1.447641E+0	1.478280E+0	1.247924E+0	1.396127E+0	1.488027E+0	1.368429E+0	1.272878E+0	1.453194E+0	1.414284E+0	1.448972E+0	1.429647E+0	1.424414E+0	1.490091E+0	1.440981E+0	1.322003E+0	1.369870E+0	1.406977E+0	1.488881E+0	1.181707E+0	1.395804E+0	1.462855E+0	1.409835E+0	1.017637E+0	1.487233E+0	1.508564E+0	1.444723E+0	1.354563E+0	1.402667E+0
5.497570E+2	1.425444E+0	1.415263E+0	1.411132E+0	1.424773E+0	1.370746E+0	1.374209E+0	1.401481E+0	1.373089E+0	1.310685E+0	1.323530E+0	1.458082E+0	1.442551E+0	1.166939E+0	1.322844E+0	1.413882E+0	1.401737E+0	1.205264E+0	1.430675E+0	1.409150E+0	1.399163E+0	1.338638E+0	1.311591E+0	1.382563E+0	1.412657E+0	1.301605E+0	1.365595E+0	1.493077E+0	1.398547E+0	1.206738E+0	1.386212E+0	1.403404E+0	1.433406E+0	1.259766E+0	1.347316E+0	1.438860E+0	1.347600E+0	1.327820E+0	1.373533E+0	1.389046E+0	1.396705E+0	1.238958E+0	1.438301E+0	1.419750E+0	1.438931E+0	1.152708E+0	1.410871E+0	1.459563E+0	1.395115E+0	1.289976E+0	1.379001E+0	1.404445E+0	1.390515E+0	1.361201E+0	1.389927E+0	1.367061E+0	1.386854E+0	1.251806E+0	1.363761E+0	1.336500E+0	1.417066E+0	1.177356E+0	1.373154E+0	1.429652E+0	1.475442E+0	1.150042E+0	1.155042E+0	1.353076E+0	1.431107E+0	1.297442E+0	1.363639E+0	1.385710E+0	1.456154E+0	1.294333E+0	1.371014E+0	1.368815E+0	1.432250E+0	1.138718E+0	1.355077E+0	1.461050E+0	1.494076E+0	1.180893E+0	1.387154E+0	1.394840E+0	1.385865E+0	1.328188E+0	1.421657E+0	1.435025E+0	1.411839E+0	1.245362E+0	1.401270E+0	1.439692E+0	1.384991E+0	1.129072E+0	1.382181E+0	1.417818E+0	1.439481E+0	1.212844E+0	1.375251E+0	1.397648E+0	1.449107E+0	1.294887E+0	1.378968E+0	1.383364E+0	1.396010E+0	1.239534E+0	1.367882E+0	1.409320E+0	1.402676E+0	1.187499E+0	1.395308E+0	1.394464E+0	1.359026E+0	1.113310E+0	1.396600E+0	1.365138E+0	1.369588E+0	1.311603E+0	1.430674E+0	1.428022E+0	1.453883E+0	1.333761E+0	1.443153E+0	1.389694E+0	1.366412E+0	1.073071E+0	1.424772E+0	1.409613E+0	1.453125E+0	1.194147E+0	1.330402E+0	1.417728E+0	1.338518E+0	1.337568E+0	1.444034E+0	1.385286E+0	1.422462E+0	1.281849E+0	1.397427E+0	1.418341E+0	1.468346E+0	1.224306E+0	1.407467E+0	1.406030E+0	1.401835E+0	1.226137E+0	1.446597E+0	1.401847E+0	1.375627E+0	1.339887E+0	1.398912E+0	1.407707E+0	1.395145E+0	1.341659E+0	1.394541E+0	1.350738E+0	1.367272E+0	1.192683E+0	1.413110E+0	1.370633E+0	1.334348E+0	1.004357E+0	1.436763E+0	1.438737E+0	1.325536E+0	1.232676E+0	1.431016E+0
5.505110E+2	1.424746E+0	1.417440E+0	1.429790E+0	1.448708E+0	1.339228E+0	1.402719E+0	1.399006E+0	1.394567E+0	1.326746E+0	1.342393E+0	1.407190E+0	1.363450E+0	1.193132E+0	1.338352E+0	1.445233E+0	1.446234E+0	1.209859E+0	1.379420E+0	1.376573E+0	1.325638E+0	1.319037E+0	1.377134E+0	1.418230E+0	1.434271E+0	1.266353E+0	1.299069E+0	1.372698E+0	1.402799E+0	1.168842E+0	1.315489E+0	1.423885E+0	1.381524E+0	1.269848E+0	1.382213E+0	1.403634E+0	1.356911E+0	1.353885E+0	1.370140E+0	1.389042E+0	1.340959E+0	1.249813E+0	1.369508E+0	1.408652E+0	1.374390E+0	1.169296E+0	1.350128E+0	1.387475E+0	1.407797E+0	1.209221E+0	1.416528E+0	1.439187E+0	1.391786E+0	1.400959E+0	1.433218E+0	1.353176E+0	1.395020E+0	1.211647E+0	1.324771E+0	1.382283E+0	1.383668E+0	1.158369E+0	1.362403E+0	1.383692E+0	1.417075E+0	1.161841E+0	1.110019E+0	1.403149E+0	1.384990E+0	1.246721E+0	1.398217E+0	1.417307E+0	1.394982E+0	1.224342E+0	1.399560E+0	1.304163E+0	1.381562E+0	1.091806E+0	1.402822E+0	1.393306E+0	1.327645E+0	1.149586E+0	1.392761E+0	1.335577E+0	1.323357E+0	1.267361E+0	1.345333E+0	1.357443E+0	1.350552E+0	1.317744E+0	1.376285E+0	1.366655E+0	1.438418E+0	1.127423E+0	1.365583E+0	1.405103E+0	1.365661E+0	1.196167E+0	1.404747E+0	1.375641E+0	1.429466E+0	1.294888E+0	1.387928E+0	1.348569E+0	1.375805E+0	1.236601E+0	1.428618E+0	1.346362E+0	1.356587E+0	1.132290E+0	1.414709E+0	1.353923E+0	1.431204E+0	1.150670E+0	1.384881E+0	1.360125E+0	1.381844E+0	1.252851E+0	1.432532E+0	1.413696E+0	1.360810E+0	1.288820E+0	1.377212E+0	1.372198E+0	1.383303E+0	1.170313E+0	1.392805E+0	1.349559E+0	1.429186E+0	1.144272E+0	1.370951E+0	1.358495E+0	1.376170E+0	1.280368E+0	1.403623E+0	1.333845E+0	1.396224E+0	1.246247E+0	1.383366E+0	1.391762E+0	1.372955E+0	1.207024E+0	1.336902E+0	1.413133E+0	1.348145E+0	1.229576E+0	1.343262E+0	1.428103E+0	1.428785E+0	1.301230E+0	1.395465E+0	1.428456E+0	1.409068E+0	1.281501E+0	1.348531E+0	1.352498E+0	1.429564E+0	1.150001E+0	1.361892E+0	1.370632E+0	1.334353E+0	9.877587E-1	1.389949E+0	1.357131E+0	1.336675E+0	1.312168E+0	1.297009E+0
5.512570E+2	1.357010E+0	1.405108E+0	1.317118E+0	1.350805E+0	1.345792E+0	1.423501E+0	1.400245E+0	1.402880E+0	1.313156E+0	1.350200E+0	1.392094E+0	1.375974E+0	1.248668E+0	1.341223E+0	1.434205E+0	1.363507E+0	1.275887E+0	1.351577E+0	1.311423E+0	1.382047E+0	1.337517E+0	1.418026E+0	1.383735E+0	1.323876E+0	1.227954E+0	1.308832E+0	1.343049E+0	1.374256E+0	1.171671E+0	1.366598E+0	1.394716E+0	1.357941E+0	1.222239E+0	1.361649E+0	1.390765E+0	1.392165E+0	1.326042E+0	1.290384E+0	1.324265E+0	1.451887E+0	1.208948E+0	1.390676E+0	1.402781E+0	1.348701E+0	1.100800E+0	1.368959E+0	1.369769E+0	1.393382E+0	1.200845E+0	1.370440E+0	1.351382E+0	1.384802E+0	1.293735E+0	1.350785E+0	1.374579E+0	1.381411E+0	1.195464E+0	1.352331E+0	1.343216E+0	1.383041E+0	1.126720E+0	1.327628E+0	1.370141E+0	1.368937E+0	1.158735E+0	1.139006E+0	1.433191E+0	1.381649E+0	1.226929E+0	1.400176E+0	1.405815E+0	1.381991E+0	1.293690E+0	1.372405E+0	1.347266E+0	1.332070E+0	1.142070E+0	1.353731E+0	1.427178E+0	1.386794E+0	1.187282E+0	1.381552E+0	1.319114E+0	1.318549E+0	1.277915E+0	1.347920E+0	1.391026E+0	1.342587E+0	1.246017E+0	1.351993E+0	1.392030E+0	1.353768E+0	1.139505E+0	1.363738E+0	1.341510E+0	1.390694E+0	1.186041E+0	1.374597E+0	1.392834E+0	1.338276E+0	1.279685E+0	1.331156E+0	1.364767E+0	1.385038E+0	1.185635E+0	1.368541E+0	1.387889E+0	1.370290E+0	1.140103E+0	1.339608E+0	1.349081E+0	1.373344E+0	1.122495E+0	1.351109E+0	1.281805E+0	1.390014E+0	1.293242E+0	1.342093E+0	1.293132E+0	1.410082E+0	1.261255E+0	1.395379E+0	1.332669E+0	1.344789E+0	1.093514E+0	1.409452E+0	1.387421E+0	1.458161E+0	1.187690E+0	1.365053E+0	1.356524E+0	1.369319E+0	1.286088E+0	1.407298E+0	1.354667E+0	1.378929E+0	1.210021E+0	1.353901E+0	1.395169E+0	1.355729E+0	1.198959E+0	1.382893E+0	1.418943E+0	1.383342E+0	1.198644E+0	1.345463E+0	1.389411E+0	1.369571E+0	1.276331E+0	1.356869E+0	1.391232E+0	1.388759E+0	1.261844E+0	1.378539E+0	1.356598E+0	1.412952E+0	1.115245E+0	1.357737E+0	1.334628E+0	1.337443E+0	9.423893E-1	1.377517E+0	1.414338E+0	1.353383E+0	1.223403E+0	1.366590E+0
5.520150E+2	1.441505E+0	1.355046E+0	1.385293E+0	1.374012E+0	1.395041E+0	1.449632E+0	1.425035E+0	1.390409E+0	1.356392E+0	1.369714E+0	1.365247E+0	1.364110E+0	1.334594E+0	1.321122E+0	1.341310E+0	1.375415E+0	1.356845E+0	1.357903E+0	1.441099E+0	1.382051E+0	1.354879E+0	1.411864E+0	1.365023E+0	1.402144E+0	1.290901E+0	1.334467E+0	1.388116E+0	1.301377E+0	1.349279E+0	1.422463E+0	1.358099E+0	1.400389E+0	1.340427E+0	1.327369E+0	1.414475E+0	1.353586E+0	1.340851E+0	1.297173E+0	1.356653E+0	1.375090E+0	1.214694E+0	1.386707E+0	1.455656E+0	1.361231E+0	1.116854E+0	1.325219E+0	1.489917E+0	1.384735E+0	1.205631E+0	1.411918E+0	1.381703E+0	1.386706E+0	1.300963E+0	1.400008E+0	1.378050E+0	1.364540E+0	1.170293E+0	1.344936E+0	1.342607E+0	1.365393E+0	1.148874E+0	1.340274E+0	1.383103E+0	1.435728E+0	1.140727E+0	1.175395E+0	1.406279E+0	1.339539E+0	1.280742E+0	1.327103E+0	1.383411E+0	1.430712E+0	1.249383E+0	1.332718E+0	1.366855E+0	1.300466E+0	1.110235E+0	1.407530E+0	1.425262E+0	1.345043E+0	1.162362E+0	1.353521E+0	1.285530E+0	1.324728E+0	1.313913E+0	1.339509E+0	1.356863E+0	1.384258E+0	1.269709E+0	1.401964E+0	1.341896E+0	1.324624E+0	1.132366E+0	1.373574E+0	1.380877E+0	1.337414E+0	1.186637E+0	1.347725E+0	1.326129E+0	1.453314E+0	1.231827E+0	1.436935E+0	1.399556E+0	1.397741E+0	1.228403E+0	1.387028E+0	1.321579E+0	1.366554E+0	1.171354E+0	1.353374E+0	1.366026E+0	1.390044E+0	1.165369E+0	1.371787E+0	1.321280E+0	1.366862E+0	1.316502E+0	1.392271E+0	1.306857E+0	1.348646E+0	1.315185E+0	1.415565E+0	1.369605E+0	1.352899E+0	1.104013E+0	1.404126E+0	1.372407E+0	1.419734E+0	1.146615E+0	1.388649E+0	1.339413E+0	1.410394E+0	1.275790E+0	1.391994E+0	1.281786E+0	1.410537E+0	1.268107E+0	1.423542E+0	1.404031E+0	1.425950E+0	1.179950E+0	1.398645E+0	1.387953E+0	1.360077E+0	1.279067E+0	1.393831E+0	1.384578E+0	1.396487E+0	1.287468E+0	1.387886E+0	1.406488E+0	1.421835E+0	1.266016E+0	1.351198E+0	1.380617E+0	1.357188E+0	1.079878E+0	1.402035E+0	1.311888E+0	1.383228E+0	1.020956E+0	1.343870E+0	1.320113E+0	1.350042E+0	1.212803E+0	1.449058E+0
5.527650E+2	1.313713E+0	1.372458E+0	1.353719E+0	1.329776E+0	1.309678E+0	1.317794E+0	1.402723E+0	1.303806E+0	1.353304E+0	1.300113E+0	1.331696E+0	1.359497E+0	1.300012E+0	1.286662E+0	1.319247E+0	1.349091E+0	1.335028E+0	1.337026E+0	1.372187E+0	1.307890E+0	1.305604E+0	1.261177E+0	1.347479E+0	1.332641E+0	1.336857E+0	1.272213E+0	1.351349E+0	1.309273E+0	1.407542E+0	1.267356E+0	1.305967E+0	1.371502E+0	1.327545E+0	1.294958E+0	1.378571E+0	1.314346E+0	1.372842E+0	1.344120E+0	1.357256E+0	1.334699E+0	1.251088E+0	1.289472E+0	1.300289E+0	1.359353E+0	1.263473E+0	1.294239E+0	1.358386E+0	1.369172E+0	1.269043E+0	1.387559E+0	1.340643E+0	1.261006E+0	1.322047E+0	1.270726E+0	1.363588E+0	1.355829E+0	1.252405E+0	1.318048E+0	1.312085E+0	1.287889E+0	1.034418E+0	1.324467E+0	1.325954E+0	1.368937E+0	1.136382E+0	1.087197E+0	1.405654E+0	1.320827E+0	1.253525E+0	1.309489E+0	1.362155E+0	1.373330E+0	1.225627E+0	1.288856E+0	1.300899E+0	1.280788E+0	1.062205E+0	1.328849E+0	1.365184E+0	1.368238E+0	1.142557E+0	1.357026E+0	1.398788E+0	1.262909E+0	1.205915E+0	1.353740E+0	1.248595E+0	1.313781E+0	1.270366E+0	1.283277E+0	1.304757E+0	1.285080E+0	1.086780E+0	1.284426E+0	1.316678E+0	1.367585E+0	1.106832E+0	1.317572E+0	1.333007E+0	1.313026E+0	1.288131E+0	1.331753E+0	1.301184E+0	1.290368E+0	1.182706E+0	1.371844E+0	1.333637E+0	1.331673E+0	1.114060E+0	1.318952E+0	1.305512E+0	1.360218E+0	1.106571E+0	1.357999E+0	1.279297E+0	1.384567E+0	1.265091E+0	1.356341E+0	1.398775E+0	1.329786E+0	1.221709E+0	1.347607E+0	1.308694E+0	1.365059E+0	1.074728E+0	1.284903E+0	1.316268E+0	1.361145E+0	1.126668E+0	1.362106E+0	1.253203E+0	1.286489E+0	1.232315E+0	1.339337E+0	1.288524E+0	1.379525E+0	1.207523E+0	1.333813E+0	1.376770E+0	1.375605E+0	1.147114E+0	1.277681E+0	1.333719E+0	1.294460E+0	1.174586E+0	1.305884E+0	1.328613E+0	1.317763E+0	1.297297E+0	1.355488E+0	1.295427E+0	1.301144E+0	1.209430E+0	1.331190E+0	1.378272E+0	1.396341E+0	1.136584E+0	1.387502E+0	1.296726E+0	1.254535E+0	9.446036E-1	1.287547E+0	1.345352E+0	1.312169E+0	1.169084E+0	1.232583E+0
5.535550E+2	1.315112E+0	1.252024E+0	1.278364E+0	1.322525E+0	1.257149E+0	1.282756E+0	1.297973E+0	1.328055E+0	1.277951E+0	1.238319E+0	1.299259E+0	1.254029E+0	1.247621E+0	1.247606E+0	1.277447E+0	1.260721E+0	1.264979E+0	1.220597E+0	1.237500E+0	1.263519E+0	1.275364E+0	1.237653E+0	1.257431E+0	1.240938E+0	1.301606E+0	1.249628E+0	1.292642E+0	1.274656E+0	1.289321E+0	1.218622E+0	1.251351E+0	1.261253E+0	1.265368E+0	1.213311E+0	1.251904E+0	1.225889E+0	1.244289E+0	1.247961E+0	1.318266E+0	1.240270E+0	1.232573E+0	1.282859E+0	1.293106E+0	1.247192E+0	1.230835E+0	1.280875E+0	1.271757E+0	1.270589E+0	1.268445E+0	1.271019E+0	1.295162E+0	1.278780E+0	1.293135E+0	1.223872E+0	1.247334E+0	1.295959E+0	1.264392E+0	1.292505E+0	1.254705E+0	1.229287E+0	1.251726E+0	1.247953E+0	1.249364E+0	1.302143E+0	1.228286E+0	1.090896E+0	1.277971E+0	1.290080E+0	1.246722E+0	1.199885E+0	1.289191E+0	1.281300E+0	1.108758E+0	1.222015E+0	1.274775E+0	1.263494E+0	1.080076E+0	1.269669E+0	1.293599E+0	1.219782E+0	1.046082E+0	1.257519E+0	1.243390E+0	1.320610E+0	1.135777E+0	1.285175E+0	1.246860E+0	1.370778E+0	1.226278E+0	1.199291E+0	1.271335E+0	1.256630E+0	1.016477E+0	1.278279E+0	1.319707E+0	1.253321E+0	1.100278E+0	1.247436E+0	1.271801E+0	1.291979E+0	1.147935E+0	1.294702E+0	1.305982E+0	1.238990E+0	1.127638E+0	1.182373E+0	1.209057E+0	1.268141E+0	1.073959E+0	1.287035E+0	1.286147E+0	1.225406E+0	1.084521E+0	1.245645E+0	1.231676E+0	1.269485E+0	1.175121E+0	1.240503E+0	1.254932E+0	1.268954E+0	1.222908E+0	1.280322E+0	1.287309E+0	1.233969E+0	1.062020E+0	1.294893E+0	1.286892E+0	1.292475E+0	1.074445E+0	1.254461E+0	1.272948E+0	1.246099E+0	1.171681E+0	1.237094E+0	1.264030E+0	1.287681E+0	1.138816E+0	1.225331E+0	1.259556E+0	1.300747E+0	1.116007E+0	1.244919E+0	1.278192E+0	1.231827E+0	1.140907E+0	1.270706E+0	1.315485E+0	1.294884E+0	1.212122E+0	1.316198E+0	1.282002E+0	1.302886E+0	1.193946E+0	1.302515E+0	1.282205E+0	1.253378E+0	9.926839E-1	1.298908E+0	1.253771E+0	1.264435E+0	9.091935E-1	1.280966E+0	1.304970E+0	1.247563E+0	1.159811E+0	1.175885E+0
5.542640E+2	1.285083E+0	1.196886E+0	1.213774E+0	1.223900E+0	1.136987E+0	1.196051E+0	1.220497E+0	1.251150E+0	1.174183E+0	1.160260E+0	1.185177E+0	1.249415E+0	1.136549E+0	1.144805E+0	1.189779E+0	1.199928E+0	1.244311E+0	1.118723E+0	1.166085E+0	1.215982E+0	1.167290E+0	1.207402E+0	1.219424E+0	1.179022E+0	1.207181E+0	1.173336E+0	1.183532E+0	1.210283E+0	1.171670E+0	1.141959E+0	1.216599E+0	1.173407E+0	1.195350E+0	1.150362E+0	1.187551E+0	1.223227E+0	1.179126E+0	1.139926E+0	1.196508E+0	1.208984E+0	1.167447E+0	1.173716E+0	1.196492E+0	1.174507E+0	1.202472E+0	1.117468E+0	1.161725E+0	1.147221E+0	1.159572E+0	1.194643E+0	1.176400E+0	1.167047E+0	1.202775E+0	1.172872E+0	1.204533E+0	1.308479E+0	1.167295E+0	1.170157E+0	1.168023E+0	1.169426E+0	1.163117E+0	1.246056E+0	1.184555E+0	1.213088E+0	1.202206E+0	1.042790E+0	1.170947E+0	1.188484E+0	1.157651E+0	1.207713E+0	1.207612E+0	1.271015E+0	1.194162E+0	1.153785E+0	1.216001E+0	1.230696E+0	1.166644E+0	1.185608E+0	1.199648E+0	1.189049E+0	1.218587E+0	1.182540E+0	1.174910E+0	1.166744E+0	1.189776E+0	1.191386E+0	1.172751E+0	1.234723E+0	1.080855E+0	1.211091E+0	1.216865E+0	1.168514E+0	9.807783E-1	1.199582E+0	1.136802E+0	1.196831E+0	1.061566E+0	1.149772E+0	1.171401E+0	1.200090E+0	1.101205E+0	1.214621E+0	1.165026E+0	1.161059E+0	1.036836E+0	1.158606E+0	1.146098E+0	1.189036E+0	1.052084E+0	1.154980E+0	1.197800E+0	1.242110E+0	9.810139E-1	1.158796E+0	1.150849E+0	1.226588E+0	1.127381E+0	1.200859E+0	1.180325E+0	1.244620E+0	1.131227E+0	1.216404E+0	1.193996E+0	1.158288E+0	9.924013E-1	1.222958E+0	1.147199E+0	1.202386E+0	1.043935E+0	1.170408E+0	1.171597E+0	1.129725E+0	1.127635E+0	1.152604E+0	1.124396E+0	1.183912E+0	1.091971E+0	1.173101E+0	1.190726E+0	1.153686E+0	1.034203E+0	1.171208E+0	1.155519E+0	1.212739E+0	1.061175E+0	1.253852E+0	1.148977E+0	1.185880E+0	1.124326E+0	1.187997E+0	1.179484E+0	1.234418E+0	1.078994E+0	1.203149E+0	1.173832E+0	1.203546E+0	1.020733E+0	1.200626E+0	1.162183E+0	1.149348E+0	8.383738E-1	1.185146E+0	1.163632E+0	1.194097E+0	1.002153E+0	1.150115E+0
5.550360E+2	1.059531E+0	1.129412E+0	1.120478E+0	1.099169E+0	1.112692E+0	1.111722E+0	1.124428E+0	1.104964E+0	1.077826E+0	1.086759E+0	1.094021E+0	1.114285E+0	1.077869E+0	1.075883E+0	1.091079E+0	1.087116E+0	1.038757E+0	1.088350E+0	1.125367E+0	1.063227E+0	1.078254E+0	1.078562E+0	1.056865E+0	1.133466E+0	1.106462E+0	1.069579E+0	1.090430E+0	1.040841E+0	1.150743E+0	1.070050E+0	1.120403E+0	1.072591E+0	1.118610E+0	1.058120E+0	1.099490E+0	1.048303E+0	1.070126E+0	1.055645E+0	1.086746E+0	1.087818E+0	1.114450E+0	1.043410E+0	1.109018E+0	1.074879E+0	1.092241E+0	1.125973E+0	1.036519E+0	1.083230E+0	1.072233E+0	1.087322E+0	1.051325E+0	1.104831E+0	1.110011E+0	1.088065E+0	1.079601E+0	1.116887E+0	1.079189E+0	1.086802E+0	1.085613E+0	1.090029E+0	1.111424E+0	1.086710E+0	1.037854E+0	1.105981E+0	1.130794E+0	9.064819E-1	1.095212E+0	1.092905E+0	1.098271E+0	1.128117E+0	1.128906E+0	1.128099E+0	1.094633E+0	1.052131E+0	1.077549E+0	1.057171E+0	1.071698E+0	1.059852E+0	1.110169E+0	1.105541E+0	1.132971E+0	1.125082E+0	1.068235E+0	1.068518E+0	1.099156E+0	1.177799E+0	1.088801E+0	1.134215E+0	1.114415E+0	1.112529E+0	1.085027E+0	1.109539E+0	1.123577E+0	1.027436E+0	1.057460E+0	1.046619E+0	1.112788E+0	1.044899E+0	1.108137E+0	1.075934E+0	1.090507E+0	1.111232E+0	1.089449E+0	1.094096E+0	9.624341E-1	1.088629E+0	1.007452E+0	1.127996E+0	9.208337E-1	1.084255E+0	1.105215E+0	1.120420E+0	9.657004E-1	1.142943E+0	1.098215E+0	1.095844E+0	1.011094E+0	1.096170E+0	1.112878E+0	1.124172E+0	1.041945E+0	1.175360E+0	1.118179E+0	1.068418E+0	8.957122E-1	1.079095E+0	1.088449E+0	1.124267E+0	8.714260E-1	1.059076E+0	1.099208E+0	1.015402E+0	9.680371E-1	1.119542E+0	1.117659E+0	1.154091E+0	9.658029E-1	1.096762E+0	1.044211E+0	1.144413E+0	9.835105E-1	1.055285E+0	1.075460E+0	1.055850E+0	9.663198E-1	1.094816E+0	1.109595E+0	1.082931E+0	1.085013E+0	1.045319E+0	1.133717E+0	1.071950E+0	9.771416E-1	1.116455E+0	1.077765E+0	1.066513E+0	8.884143E-1	1.087120E+0	1.075642E+0	1.081288E+0	8.068367E-1	1.110539E+0	1.167838E+0	1.072681E+0	1.004803E+0	1.049608E+0
5.557600E+2	1.022520E+0	1.000272E+0	9.496741E-1	9.809639E-1	1.006320E+0	1.015514E+0	1.000466E+0	9.961896E-1	1.006794E+0	9.989436E-1	9.693131E-1	9.811316E-1	1.030714E+0	9.851381E-1	1.028957E+0	9.962398E-1	9.847839E-1	1.037728E+0	1.003210E+0	1.011884E+0	9.886600E-1	9.928561E-1	1.021782E+0	1.014312E+0	9.849707E-1	9.877923E-1	1.017493E+0	9.533891E-1	1.080037E+0	9.440635E-1	9.751751E-1	9.670592E-1	1.018344E+0	9.976617E-1	1.012108E+0	9.611745E-1	1.051170E+0	1.011522E+0	9.835805E-1	9.882681E-1	1.020591E+0	9.924757E-1	9.895558E-1	9.790091E-1	9.766571E-1	1.008125E+0	1.023239E+0	1.021546E+0	1.019591E+0	9.905353E-1	9.641506E-1	9.816682E-1	1.051579E+0	1.002075E+0	1.021184E+0	1.018915E+0	1.003671E+0	9.873117E-1	1.006256E+0	1.030798E+0	9.869465E-1	9.924911E-1	1.015467E+0	1.018729E+0	1.018397E+0	8.404874E-1	1.082071E+0	1.059486E+0	1.010439E+0	9.826296E-1	1.024918E+0	1.066385E+0	1.017578E+0	1.008964E+0	1.017469E+0	9.802464E-1	9.879238E-1	9.704101E-1	1.034113E+0	1.017975E+0	1.060136E+0	1.017168E+0	1.016874E+0	9.888378E-1	1.029636E+0	9.921584E-1	9.955858E-1	1.000612E+0	9.795190E-1	1.022298E+0	9.767117E-1	9.957503E-1	1.054924E+0	1.002843E+0	9.605573E-1	9.638109E-1	1.014516E+0	9.944289E-1	1.003610E+0	1.001578E+0	1.010558E+0	1.049080E+0	1.023467E+0	9.728683E-1	9.835243E-1	1.005447E+0	1.008121E+0	1.018374E+0	1.028644E+0	1.038568E+0	1.024735E+0	1.001117E+0	1.000002E+0	1.010597E+0	1.035560E+0	9.957439E-1	9.737574E-1	9.964376E-1	1.025741E+0	1.068208E+0	9.898130E-1	1.021951E+0	1.063747E+0	1.022468E+0	8.592452E-1	1.021147E+0	1.028396E+0	1.029137E+0	8.761214E-1	9.905069E-1	1.002468E+0	1.010611E+0	9.714698E-1	1.019745E+0	1.005588E+0	1.096242E+0	9.670526E-1	1.016406E+0	9.937815E-1	1.056307E+0	8.896118E-1	1.039534E+0	1.024453E+0	1.000968E+0	9.237040E-1	1.034720E+0	1.023232E+0	1.008916E+0	9.696973E-1	1.023263E+0	1.051335E+0	1.037137E+0	9.515324E-1	1.027758E+0	1.020943E+0	1.041006E+0	8.548780E-1	1.054591E+0	1.020687E+0	9.655847E-1	6.795835E-1	1.027155E+0	9.692927E-1	1.030354E+0	8.815924E-1	9.619898E-1
5.560190E+2	1.030900E+0	1.000997E+0	1.035076E+0	1.004895E+0	1.005007E+0	9.976995E-1	9.831100E-1	9.857969E-1	1.014207E+0	1.049680E+0	9.312856E-1	9.666296E-1	9.767511E-1	1.027640E+0	1.002250E+0	9.818248E-1	1.049091E+0	1.018745E+0	9.825375E-1	1.008715E+0	1.046896E+0	9.861369E-1	1.049263E+0	9.903635E-1	9.830824E-1	9.816888E-1	1.006226E+0	1.005618E+0	9.895372E-1	9.862562E-1	1.018619E+0	9.959469E-1	1.006582E+0	9.982846E-1	1.010753E+0	1.015048E+0	9.948899E-1	9.396881E-1	1.029765E+0	1.041740E+0	9.567414E-1	1.005044E+0	1.003265E+0	1.001565E+0	9.723742E-1	9.935451E-1	9.663270E-1	9.984870E-1	1.007627E+0	1.041233E+0	9.963676E-1	1.043250E+0	1.026280E+0	9.611552E-1	9.859016E-1	9.639414E-1	1.013861E+0	1.043107E+0	1.033118E+0	1.006854E+0	1.057097E+0	1.013989E+0	9.930771E-1	1.025348E+0	1.002250E+0	8.306191E-1	1.036381E+0	1.052803E+0	9.547672E-1	9.473995E-1	1.009408E+0	1.030113E+0	1.015009E+0	9.845957E-1	1.016162E+0	9.999249E-1	9.856874E-1	1.012104E+0	1.037308E+0	9.982611E-1	1.051194E+0	9.660144E-1	1.037286E+0	9.483112E-1	9.762597E-1	1.035495E+0	1.019325E+0	9.901930E-1	1.015710E+0	1.009804E+0	1.041082E+0	9.624462E-1	1.051079E+0	1.035428E+0	1.000530E+0	1.010029E+0	1.020473E+0	9.760758E-1	9.685391E-1	1.036651E+0	1.011120E+0	9.737779E-1	9.988748E-1	9.561272E-1	9.436864E-1	1.033173E+0	1.010131E+0	1.017128E+0	9.906245E-1	9.985131E-1	1.023525E+0	1.021996E+0	9.816271E-1	9.802686E-1	1.002976E+0	9.882536E-1	9.927312E-1	9.964392E-1	1.022756E+0	1.006160E+0	9.670430E-1	1.073761E+0	9.684906E-1	9.866544E-1	1.051523E+0	9.978352E-1	1.027742E+0	9.988965E-1	9.934737E-1	1.010415E+0	9.998357E-1	9.572147E-1	9.949220E-1	1.022806E+0	9.994644E-1	1.024079E+0	9.258293E-1	9.695329E-1	1.019678E+0	1.030472E+0	8.556236E-1	9.885026E-1	9.573071E-1	1.011109E+0	9.237037E-1	9.922134E-1	1.025304E+0	1.003533E+0	9.683868E-1	1.021884E+0	1.023875E+0	1.047581E+0	9.199647E-1	9.837449E-1	1.018014E+0	9.840574E-1	8.341464E-1	9.597701E-1	1.044059E+0	9.711518E-1	8.345011E-1	1.047635E+0	1.022294E+0	1.003620E+0	8.855670E-1	9.439499E-1
5.565030E+2	9.834153E-1	9.785065E-1	1.047994E+0	1.028826E+0	9.616699E-1	9.567229E-1	1.046331E+0	9.802549E-1	1.019765E+0	9.748754E-1	9.653978E-1	1.028592E+0	9.982334E-1	9.489564E-1	9.918003E-1	9.730504E-1	9.623927E-1	9.871067E-1	9.862965E-1	9.814602E-1	9.735407E-1	1.008544E+0	1.035815E+0	9.997075E-1	9.415360E-1	9.810784E-1	9.878437E-1	9.764676E-1	1.024605E+0	9.648627E-1	9.981376E-1	9.588038E-1	1.004901E+0	1.006389E+0	1.024979E+0	9.950944E-1	1.023919E+0	9.690995E-1	1.021969E+0	1.000781E+0	9.746196E-1	9.838768E-1	9.908611E-1	9.739970E-1	1.003413E+0	9.753224E-1	9.947822E-1	1.008865E+0	9.968605E-1	1.008971E+0	9.982633E-1	9.784940E-1	1.024473E+0	1.017494E+0	9.905279E-1	9.976855E-1	1.000074E+0	9.846227E-1	1.001983E+0	1.021347E+0	1.002241E+0	1.013990E+0	1.033730E+0	9.561499E-1	9.600239E-1	8.269184E-1	1.001331E+0	1.013368E+0	9.795106E-1	9.780631E-1	1.005961E+0	1.036068E+0	9.893242E-1	9.664932E-1	9.959180E-1	9.903849E-1	9.879206E-1	9.993271E-1	1.020692E+0	9.866614E-1	1.072276E+0	1.023474E+0	9.971193E-1	9.970810E-1	9.905347E-1	9.831017E-1	1.018166E+0	1.013482E+0	9.939958E-1	1.034792E+0	9.729980E-1	9.700786E-1	9.697926E-1	9.616522E-1	9.799369E-1	9.946242E-1	9.930766E-1	9.859075E-1	1.022177E+0	1.034547E+0	1.000985E+0	1.004855E+0	9.844799E-1	1.043294E+0	1.002271E+0	9.935636E-1	1.005442E+0	9.685441E-1	1.004165E+0	9.697237E-1	1.013238E+0	9.891889E-1	9.779511E-1	9.830263E-1	9.779125E-1	1.004596E+0	9.731468E-1	1.003252E+0	1.006640E+0	1.001902E+0	1.040147E+0	1.028680E+0	1.030699E+0	1.017738E+0	1.004007E+0	1.044459E+0	9.428825E-1	1.072606E+0	1.039826E+0	9.941938E-1	9.939125E-1	9.435237E-1	1.022382E+0	1.014236E+0	1.019674E+0	1.035412E+0	9.520620E-1	1.026451E+0	1.036715E+0	9.900631E-1	1.018075E+0	9.822017E-1	9.960458E-1	9.967926E-1	1.019245E+0	9.563020E-1	9.928321E-1	1.000841E+0	9.742832E-1	1.050833E+0	1.014723E+0	1.002323E+0	9.944159E-1	9.590701E-1	9.910665E-1	1.036259E+0	9.426828E-1	1.002682E+0	1.008054E+0	1.001471E+0	9.468157E-1	9.832682E-1	1.030708E+0	9.869118E-1	9.478341E-1	9.800284E-1
5.570440E+2	1.070005E+0	9.705261E-1	9.697685E-1	9.853147E-1	9.866212E-1	1.011358E+0	1.024017E+0	9.920321E-1	1.021000E+0	9.989425E-1	9.760217E-1	1.029910E+0	1.023905E+0	9.690570E-1	1.006896E+0	1.022563E+0	1.007176E+0	1.018113E+0	1.005090E+0	1.061959E+0	9.707411E-1	1.015824E+0	1.018274E+0	1.004383E+0	1.001969E+0	9.829113E-1	9.896226E-1	9.886129E-1	1.018384E+0	9.773426E-1	1.032893E+0	1.011866E+0	1.042431E+0	9.677455E-1	1.035817E+0	1.019039E+0	9.871885E-1	1.014353E+0	9.817809E-1	9.956634E-1	9.414177E-1	1.006367E+0	1.004570E+0	1.015351E+0	9.894975E-1	9.692481E-1	9.732829E-1	1.016934E+0	9.627635E-1	1.051767E+0	1.015950E+0	1.040075E+0	1.002787E+0	9.890270E-1	9.887942E-1	1.023813E+0	9.814946E-1	9.523562E-1	9.549817E-1	1.008114E+0	1.005933E+0	1.012094E+0	1.000737E+0	1.034375E+0	9.985254E-1	8.238343E-1	9.800495E-1	1.016709E+0	9.801290E-1	9.650130E-1	1.015727E+0	1.012789E+0	1.030420E+0	9.268069E-1	9.913461E-1	9.402943E-1	9.923903E-1	9.939473E-1	1.020692E+0	1.028414E+0	1.051192E+0	9.996491E-1	9.931685E-1	1.019748E+0	9.855691E-1	9.889226E-1	1.021061E+0	1.054545E+0	9.788608E-1	1.018827E+0	1.003946E+0	1.019341E+0	1.041742E+0	1.015140E+0	9.744881E-1	1.040201E+0	9.787829E-1	9.570675E-1	1.013925E+0	1.017010E+0	9.964804E-1	1.013821E+0	1.036064E+0	1.016163E+0	9.735659E-1	1.041755E+0	9.612361E-1	1.018995E+0	1.035418E+0	9.759836E-1	9.696684E-1	1.001715E+0	9.644760E-1	9.733759E-1	9.346791E-1	1.054306E+0	1.003138E+0	1.025552E+0	1.021560E+0	1.018934E+0	9.784285E-1	1.066359E+0	9.963542E-1	9.974663E-1	9.885357E-1	9.658651E-1	9.702993E-1	1.081428E+0	1.025746E+0	1.022211E+0	1.018920E+0	9.264095E-1	9.548825E-1	1.027705E+0	9.988506E-1	1.022291E+0	9.764216E-1	1.017746E+0	1.031944E+0	9.887387E-1	9.921513E-1	1.020003E+0	9.837786E-1	1.015882E+0	1.056363E+0	9.936793E-1	9.721046E-1	1.004878E+0	9.506961E-1	1.018438E+0	1.029978E+0	1.053382E+0	1.017645E+0	9.564028E-1	1.054332E+0	9.893971E-1	1.026830E+0	1.035211E+0	9.840502E-1	9.618706E-1	1.005464E+0	1.018377E+0	1.051740E+0	1.034808E+0	9.491591E-1	1.031570E+0
5.575190E+2	1.009253E+0	1.011880E+0	1.060194E+0	9.874903E-1	1.002381E+0	9.887894E-1	1.041992E+0	1.030138E+0	1.011119E+0	9.716229E-1	1.041454E+0	1.043093E+0	1.032285E+0	9.770981E-1	1.006896E+0	9.743038E-1	9.755963E-1	9.928023E-1	9.468304E-1	9.649793E-1	1.003221E+0	1.023669E+0	1.048094E+0	9.997087E-1	9.780464E-1	9.682614E-1	9.985200E-1	1.006832E+0	9.578595E-1	9.791256E-1	1.006206E+0	9.817977E-1	9.640112E-1	9.515413E-1	9.768843E-1	1.000416E+0	9.623095E-1	9.668404E-1	9.895785E-1	9.723397E-1	9.816428E-1	9.891687E-1	1.002611E+0	1.014098E+0	1.003411E+0	1.008125E+0	1.006797E+0	1.015782E+0	9.854932E-1	9.984363E-1	9.698354E-1	9.969048E-1	9.738725E-1	1.009786E+0	9.951575E-1	9.835355E-1	1.000075E+0	9.792454E-1	1.012973E+0	1.006853E+0	1.022812E+0	9.741530E-1	1.008396E+0	1.027756E+0	9.767929E-1	7.936124E-1	1.022610E+0	9.859638E-1	1.022191E+0	9.460946E-1	1.022621E+0	9.748939E-1	9.809774E-1	1.045866E+0	9.711013E-1	1.005889E+0	9.773100E-1	1.030936E+0	1.000240E+0	9.971005E-1	1.029469E+0	1.008759E+0	1.002387E+0	9.634230E-1	9.892935E-1	9.843961E-1	1.036113E+0	9.797757E-1	1.001234E+0	9.889814E-1	9.748554E-1	1.031136E+0	9.571608E-1	9.948510E-1	1.006587E+0	1.014524E+0	1.011539E+0	1.001638E+0	9.788541E-1	9.440588E-1	1.009431E+0	9.833402E-1	1.012672E+0	9.942271E-1	9.770798E-1	9.981845E-1	1.034243E+0	9.542182E-1	1.038020E+0	9.997647E-1	9.787453E-1	9.993289E-1	1.042260E+0	9.775120E-1	9.628753E-1	1.003915E+0	1.005585E+0	1.029889E+0	1.007236E+0	9.885183E-1	9.934080E-1	9.546672E-1	9.879309E-1	9.880061E-1	9.924023E-1	9.798520E-1	1.023174E+0	9.862971E-1	1.001100E+0	9.809222E-1	9.945709E-1	1.056476E+0	9.932072E-1	1.008725E+0	9.780289E-1	1.018115E+0	9.957839E-1	1.003683E+0	9.965078E-1	9.430301E-1	1.018649E+0	9.444008E-1	9.895894E-1	9.866516E-1	1.002062E+0	9.973433E-1	1.008032E+0	1.045250E+0	1.012940E+0	1.050833E+0	1.023264E+0	9.941985E-1	9.747607E-1	1.035762E+0	1.038515E+0	1.014312E+0	9.920724E-1	1.008911E+0	1.013107E+0	9.730077E-1	1.001590E+0	1.008137E+0	1.032390E+0	9.646341E-1	9.981781E-1	9.207555E-1
5.580230E+2	1.000873E+0	1.014783E+0	9.776627E-1	1.049856E+0	9.866215E-1	1.026204E+0	9.341462E-1	1.011432E+0	1.034588E+0	1.017157E+0	1.028589E+0	1.018046E+0	1.026525E+0	9.914582E-1	1.045212E+0	1.055778E+0	1.033016E+0	1.019378E+0	1.065855E+0	1.009349E+0	1.023938E+0	1.023107E+0	9.902063E-1	1.009053E+0	1.023999E+0	1.000610E+0	1.028166E+0	1.041450E+0	1.041575E+0	9.963590E-1	1.011172E+0	1.008919E+0	1.034031E+0	1.019477E+0	1.029720E+0	1.053624E+0	1.042877E+0	9.968182E-1	9.565902E-1	1.031500E+0	9.701498E-1	1.012320E+0	1.041780E+0	1.011591E+0	1.026957E+0	1.019666E+0	1.020078E+0	1.004251E+0	9.860926E-1	1.025431E+0	1.065855E+0	1.005158E+0	1.045554E+0	1.028763E+0	1.002096E+0	1.009659E+0	1.037834E+0	1.081423E+0	1.049599E+0	1.024496E+0	1.035471E+0	1.040549E+0	1.027248E+0	1.022940E+0	1.042614E+0	8.540559E-1	1.037631E+0	1.026736E+0	9.869334E-1	9.969846E-1	1.054794E+0	1.002505E+0	1.011798E+0	9.971281E-1	1.033144E+0	1.071481E+0	1.016964E+0	9.744452E-1	1.020053E+0	1.027255E+0	1.023719E+0	1.084438E+0	1.026751E+0	9.963938E-1	1.036467E+0	1.043256E+0	1.062166E+0	9.834530E-1	1.014394E+0	1.080601E+0	1.015707E+0	1.001301E+0	1.047783E+0	1.038502E+0	1.019911E+0	9.869206E-1	1.009752E+0	1.000983E+0	1.037994E+0	1.073127E+0	1.034767E+0	9.803543E-1	1.016270E+0	1.049647E+0	1.033319E+0	1.009408E+0	1.003433E+0	1.044535E+0	1.061980E+0	9.935064E-1	1.017474E+0	1.056594E+0	1.030012E+0	1.025762E+0	1.013628E+0	1.019577E+0	1.008032E+0	9.914826E-1	9.917193E-1	1.041441E+0	1.022771E+0	1.050211E+0	1.046252E+0	1.037334E+0	1.004560E+0	9.945051E-1	1.004243E+0	1.028508E+0	9.629606E-1	1.061288E+0	1.024843E+0	9.777517E-1	1.028100E+0	1.015459E+0	1.050295E+0	9.853145E-1	1.011398E+0	1.055244E+0	9.958256E-1	1.024511E+0	1.014617E+0	1.051503E+0	9.560149E-1	1.026619E+0	1.011685E+0	1.022994E+0	9.893775E-1	1.060726E+0	1.069943E+0	1.043251E+0	9.622413E-1	1.029012E+0	1.019433E+0	9.924140E-1	1.019184E+0	1.004226E+0	1.004879E+0	9.812262E-1	1.021319E+0	9.791949E-1	1.057472E+0	1.041053E+0	1.045009E+0	1.069340E+0	9.889045E-1	1.028993E+0
5.585220E+2	1.034392E+0	9.966444E-1	9.884274E-1	1.025200E+0	1.042434E+0	1.029769E+0	1.048811E+0	1.049536E+0	1.027795E+0	1.039922E+0	1.005102E+0	1.033864E+0	1.020759E+0	9.604436E-1	9.610295E-1	1.026322E+0	1.062872E+0	1.014316E+0	1.035159E+0	1.030901E+0	9.763407E-1	9.934162E-1	9.703235E-1	1.043516E+0	1.044142E+0	9.938977E-1	1.035875E+0	1.004402E+0	1.060240E+0	9.399023E-1	1.014895E+0	1.028373E+0	1.022265E+0	9.851972E-1	1.076460E+0	1.017043E+0	1.004367E+0	1.056775E+0	1.027365E+0	9.990768E-1	1.037192E+0	9.732935E-1	1.001305E+0	1.059841E+0	1.035518E+0	9.917233E-1	1.009327E+0	1.020971E+0	9.771186E-1	9.483965E-1	1.047536E+0	1.030554E+0	1.022061E+0	1.067310E+0	1.020026E+0	9.846227E-1	1.052818E+0	1.023612E+0	1.014802E+0	1.016934E+0	1.021231E+0	1.012093E+0	1.024304E+0	9.645737E-1	9.798959E-1	1.127288E+0	1.010093E+0	1.027404E+0	1.006727E+0	1.091582E+0	1.003663E+0	1.019826E+0	1.032989E+0	1.027763E+0	1.050775E+0	9.879989E-1	1.039862E+0	1.000672E+0	1.001519E+0	9.924622E-1	9.936919E-1	9.772259E-1	9.872421E-1	1.030052E+0	1.015984E+0	1.041963E+0	1.001375E+0	9.895814E-1	1.016369E+0	1.032709E+0	9.952804E-1	1.006158E+0	1.020872E+0	9.979258E-1	1.065336E+0	1.008746E+0	1.012729E+0	9.950840E-1	9.960465E-1	1.021219E+0	1.030262E+0	1.008442E+0	1.003675E+0	1.052531E+0	9.700490E-1	1.033174E+0	1.041609E+0	1.028340E+0	1.035418E+0	1.001017E+0	1.033205E+0	1.002312E+0	1.020212E+0	1.023007E+0	1.018642E+0	1.016854E+0	1.011093E+0	9.970573E-1	9.821690E-1	1.018934E+0	1.065914E+0	1.019934E+0	1.034588E+0	1.026522E+0	1.016714E+0	1.009825E+0	1.023173E+0	1.012128E+0	1.006968E+0	1.019999E+0	1.021552E+0	1.011296E+0	1.016660E+0	1.024643E+0	1.025185E+0	9.912789E-1	1.025140E+0	9.715405E-1	9.849221E-1	1.011923E+0	1.042845E+0	1.040163E+0	1.016062E+0	1.031392E+0	1.023370E+0	1.042782E+0	1.022541E+0	1.016990E+0	9.814901E-1	9.860422E-1	1.012281E+0	1.024370E+0	1.018241E+0	9.884129E-1	1.012154E+0	9.793124E-1	1.017074E+0	1.046978E+0	1.028267E+0	1.005801E+0	9.960579E-1	9.905825E-1	1.053423E+0	1.051518E+0	9.889044E-1	9.826036E-1
5.590210E+2	9.897000E-1	1.008253E+0	9.905804E-1	9.787885E-1	9.465672E-1	1.001857E+0	9.657553E-1	9.670909E-1	9.913525E-1	9.696714E-1	9.570096E-1	9.415813E-1	1.039099E+0	9.908812E-1	9.807683E-1	1.008147E+0	9.974169E-1	9.801477E-1	1.027642E+0	1.026463E+0	9.785809E-1	9.654104E-1	9.989779E-1	9.938677E-1	9.509798E-1	9.670412E-1	9.890298E-1	9.230240E-1	1.004807E+0	9.393093E-1	9.633832E-1	9.953558E-1	9.718524E-1	9.721086E-1	9.674010E-1	9.565188E-1	9.676398E-1	9.509994E-1	9.841803E-1	9.973692E-1	9.982438E-1	9.355900E-1	1.005222E+0	9.802619E-1	9.889635E-1	9.668183E-1	9.922540E-1	1.010016E+0	1.024975E+0	9.813173E-1	9.717313E-1	9.962699E-1	9.889306E-1	9.380277E-1	9.830104E-1	1.007485E+0	9.539243E-1	9.664729E-1	1.014191E+0	9.677837E-1	1.000132E+0	9.886973E-1	9.730470E-1	9.946590E-1	1.001009E+0	1.042788E+0	1.018855E+0	1.022056E+0	9.714702E-1	9.747997E-1	9.870013E-1	9.927604E-1	9.963883E-1	9.818101E-1	9.978777E-1	9.826322E-1	1.008029E+0	1.004707E+0	9.593349E-1	1.010438E+0	9.540780E-1	9.323790E-1	9.609032E-1	1.017688E+0	9.806034E-1	9.410571E-1	1.012375E+0	9.834527E-1	9.999179E-1	9.716295E-1	1.038608E+0	1.006852E+0	9.818758E-1	9.634954E-1	9.411760E-1	9.933400E-1	1.002010E+0	9.668993E-1	1.022865E+0	1.012801E+0	9.672031E-1	1.007844E+0	9.796816E-1	9.832587E-1	9.923124E-1	1.000165E+0	9.672646E-1	9.978197E-1	9.354165E-1	9.747306E-1	9.914512E-1	1.014838E+0	9.975510E-1	9.795799E-1	9.666341E-1	9.725917E-1	9.817152E-1	9.667039E-1	1.004849E+0	1.019542E+0	9.448727E-1	1.009167E+0	9.944107E-1	9.488142E-1	1.028316E+0	9.925064E-1	1.015992E+0	9.995272E-1	9.694155E-1	9.779733E-1	1.005758E+0	9.791208E-1	1.010940E+0	1.020969E+0	9.541451E-1	1.008573E+0	9.451919E-1	9.989961E-1	9.774265E-1	9.880765E-1	1.016924E+0	9.431408E-1	1.050924E+0	9.574233E-1	1.023370E+0	9.321174E-1	9.410137E-1	9.820006E-1	9.506957E-1	9.805283E-1	9.915322E-1	9.350124E-1	1.003351E+0	1.024424E+0	9.512333E-1	9.893950E-1	1.010976E+0	9.999139E-1	9.865770E-1	9.934267E-1	9.993764E-1	1.044710E+0	9.692928E-1	9.768865E-1	1.039249E+0	1.041878E+0
5.595050E+2	9.547847E-1	9.966442E-1	1.007087E+0	9.628346E-1	9.938442E-1	1.015515E+0	1.013479E+0	1.038452E+0	9.728224E-1	9.774774E-1	9.715491E-1	1.020682E+0	9.521257E-1	9.679081E-1	1.032440E+0	1.000001E+0	1.006602E+0	9.681229E-1	9.643706E-1	9.935029E-1	1.020018E+0	9.967790E-1	9.866986E-1	9.868571E-1	1.020222E+0	9.371344E-1	9.647166E-1	1.002581E+0	9.912318E-1	9.410929E-1	9.894497E-1	1.003611E+0	9.679310E-1	9.203787E-1	1.006689E+0	9.804625E-1	1.020363E+0	9.849391E-1	1.006972E+0	9.922487E-1	9.656806E-1	1.025549E+0	9.986945E-1	1.005326E+0	9.846815E-1	9.406973E-1	1.004268E+0	9.863805E-1	9.789126E-1	9.997532E-1	9.546754E-1	9.911910E-1	1.027483E+0	9.587832E-1	1.038535E+0	9.955091E-1	9.617161E-1	9.779002E-1	9.671890E-1	9.904696E-1	9.753412E-1	1.027903E+0	9.706890E-1	9.681837E-1	1.015291E+0	1.022435E+0	9.606470E-1	9.806170E-1	9.751798E-1	1.052437E+0	9.611477E-1	9.873457E-1	9.784086E-1	9.595306E-1	9.756735E-1	9.802470E-1	9.778680E-1	9.811700E-1	1.015579E+0	9.901404E-1	1.013497E+0	1.005956E+0	1.017531E+0	1.008758E+0	9.973609E-1	1.003153E+0	9.660591E-1	1.031868E+0	9.841251E-1	9.931459E-1	1.002088E+0	9.520387E-1	9.642992E-1	9.641103E-1	9.484451E-1	9.971916E-1	9.627035E-1	1.003605E+0	9.520347E-1	9.882506E-1	1.004364E+0	9.917079E-1	1.010871E+0	9.815266E-1	9.665333E-1	9.896024E-1	9.987443E-1	9.903455E-1	1.022396E+0	9.878744E-1	1.009001E+0	9.772592E-1	9.583507E-1	9.885401E-1	1.032425E+0	1.001192E+0	1.002525E+0	9.890044E-1	9.690374E-1	9.489776E-1	9.790267E-1	9.580310E-1	9.717307E-1	9.744913E-1	9.874292E-1	1.019149E+0	9.206882E-1	9.881879E-1	9.981665E-1	9.698626E-1	9.833830E-1	9.887048E-1	9.869141E-1	9.744393E-1	9.712929E-1	9.912769E-1	1.010776E+0	1.023102E+0	9.903741E-1	9.973505E-1	9.967594E-1	9.809421E-1	1.012831E+0	1.020059E+0	9.601335E-1	9.724256E-1	9.845413E-1	1.005551E+0	9.664208E-1	9.922454E-1	1.001908E+0	1.002321E+0	9.830988E-1	1.002417E+0	9.377600E-1	1.010160E+0	1.008535E+0	9.618467E-1	1.015633E+0	9.835247E-1	9.955047E-1	9.964343E-1	9.819124E-1	9.991645E-1	9.889047E-1	9.697189E-1
5.600410E+2	9.589743E-1	9.690747E-1	9.633095E-1	9.432545E-1	9.859646E-1	9.923537E-1	9.837302E-1	9.650124E-1	9.629416E-1	1.020408E+0	1.023557E+0	9.521276E-1	9.667959E-1	9.960507E-1	9.964436E-1	9.724230E-1	9.658371E-1	9.928029E-1	9.994517E-1	1.025830E+0	9.993002E-1	9.693302E-1	9.972222E-1	9.967878E-1	9.786759E-1	9.591074E-1	9.682745E-1	1.000758E+0	9.889712E-1	9.630790E-1	1.001863E+0	1.000664E+0	1.032909E+0	9.602672E-1	9.762072E-1	9.864485E-1	9.990382E-1	9.826783E-1	1.027965E+0	9.990766E-1	1.026339E+0	9.527885E-1	1.003264E+0	9.664771E-1	9.702340E-1	9.668168E-1	9.663271E-1	9.454495E-1	9.920746E-1	9.036245E-1	9.900515E-1	9.899218E-1	9.762823E-1	9.670862E-1	9.864802E-1	1.036332E+0	9.755014E-1	9.436169E-1	9.818397E-1	1.011264E+0	9.341997E-1	9.684625E-1	9.712784E-1	1.006694E+0	9.743072E-1	1.061907E+0	9.894393E-1	9.799483E-1	1.022809E+0	9.454418E-1	9.628719E-1	1.005211E+0	9.796928E-1	9.734558E-1	1.006367E+0	9.736890E-1	9.683751E-1	9.899128E-1	9.459134E-1	9.785445E-1	9.847458E-1	9.884374E-1	9.569521E-1	9.888377E-1	9.917759E-1	9.669309E-1	9.394254E-1	1.011643E+0	1.011104E+0	9.938398E-1	1.024991E+0	9.895057E-1	1.020321E+0	1.037272E+0	9.902336E-1	9.856373E-1	1.014517E+0	9.937735E-1	1.016676E+0	9.910565E-1	9.593207E-1	1.028761E+0	9.430915E-1	9.746003E-1	1.008129E+0	1.003466E+0	1.003433E+0	9.940828E-1	9.708339E-1	1.044828E+0	1.007793E+0	9.772582E-1	9.920377E-1	1.002326E+0	9.622483E-1	9.657823E-1	9.933442E-1	1.012544E+0	1.003059E+0	9.982505E-1	1.005393E+0	9.748524E-1	9.950584E-1	1.009629E+0	9.973760E-1	1.020481E+0	1.033619E+0	9.951173E-1	1.005208E+0	9.772363E-1	9.754861E-1	9.962350E-1	9.771919E-1	9.958686E-1	9.694559E-1	9.656332E-1	9.807947E-1	9.842639E-1	1.038759E+0	9.774771E-1	9.604672E-1	1.005513E+0	9.463311E-1	9.961980E-1	1.002062E+0	1.039118E+0	1.012868E+0	9.483571E-1	9.998358E-1	9.612291E-1	1.034249E+0	1.013925E+0	9.902460E-1	1.009753E+0	1.004539E+0	1.014310E+0	9.658530E-1	1.010296E+0	9.878403E-1	9.884761E-1	1.012104E+0	9.269475E-1	9.406885E-1	9.612919E-1	1.004803E+0	1.062495E+0
5.604980E+2	9.987780E-1	1.035097E+0	1.034358E+0	1.062910E+0	1.041778E+0	1.005419E+0	1.035175E+0	1.001040E+0	1.051265E+0	1.006098E+0	1.000630E+0	1.006839E+0	9.940423E-1	1.050040E+0	1.027795E+0	9.755587E-1	9.893772E-1	1.001028E+0	9.894287E-1	9.865311E-1	1.000980E+0	9.967785E-1	1.005992E+0	9.623257E-1	1.004484E+0	1.118407E+0	9.967382E-1	1.005618E+0	9.934959E-1	1.111057E+0	1.002482E+0	1.005969E+0	1.017784E+0	1.087413E+0	9.579175E-1	1.001746E+0	1.034581E+0	1.030758E+0	1.018970E+0	1.016141E+0	9.810044E-1	1.025549E+0	9.614852E-1	9.796357E-1	1.003947E+0	9.315855E-1	9.947827E-1	1.023851E+0	1.056081E+0	9.944858E-1	9.969992E-1	1.004523E+0	1.002184E+0	9.979249E-1	1.017134E+0	9.851691E-1	1.013860E+0	1.025629E+0	9.714615E-1	9.797572E-1	1.031780E+0	1.017784E+0	9.889519E-1	1.003083E+0	1.005356E+0	1.068078E+0	9.856832E-1	1.024062E+0	1.031467E+0	9.826295E-1	1.026644E+0	1.011165E+0	1.026568E+0	9.922538E-1	9.724082E-1	1.008274E+0	1.003003E+0	1.011432E+0	1.029000E+0	9.866620E-1	1.002636E+0	1.013665E+0	1.029385E+0	9.826559E-1	9.762572E-1	9.986261E-1	1.006585E+0	1.039224E+0	9.986016E-1	9.688530E-1	9.971361E-1	1.010321E+0	1.008787E+0	9.745625E-1	1.024149E+0	1.001043E+0	1.030599E+0	1.021302E+0	9.905448E-1	9.770275E-1	1.029700E+0	1.030552E+0	1.012671E+0	9.890324E-1	1.014572E+0	9.711172E-1	1.014819E+0	9.810038E-1	9.557281E-1	1.002895E+0	9.351769E-1	9.724854E-1	9.804008E-1	9.947439E-1	1.033677E+0	1.065882E+0	1.038636E+0	1.006350E+0	1.059163E+0	1.011634E+0	1.031158E+0	1.025316E+0	9.808029E-1	9.548956E-1	9.664352E-1	1.001831E+0	1.004896E+0	1.003308E+0	1.040412E+0	9.897699E-1	1.000494E+0	9.962347E-1	1.002360E+0	1.006275E+0	1.052745E+0	1.030639E+0	1.028264E+0	9.902906E-1	9.876485E-1	1.035772E+0	9.858143E-1	9.910222E-1	1.008958E+0	1.012901E+0	1.020620E+0	1.011268E+0	1.007341E+0	1.004206E+0	1.043735E+0	9.784607E-1	9.671240E-1	9.785322E-1	1.007519E+0	9.677400E-1	1.001027E+0	9.745654E-1	1.011586E+0	1.001990E+0	9.600471E-1	1.015081E+0	9.877598E-1	9.927769E-1	1.001262E+0	1.005848E+0	9.955291E-1	9.594105E-1
5.610070E+2	1.053246E+0	9.676240E-1	9.783804E-1	9.896661E-1	1.000410E+0	9.400937E-1	9.769116E-1	9.372993E-1	9.481154E-1	9.976423E-1	9.721085E-1	9.837677E-1	9.683673E-1	1.066120E+0	9.494167E-1	9.874662E-1	9.692824E-1	1.031402E+0	9.712620E-1	9.624444E-1	9.976205E-1	1.031509E+0	1.002486E+0	1.007884E+0	9.994497E-1	1.055541E+0	1.018680E+0	1.015335E+0	9.618198E-1	1.130075E+0	1.010550E+0	9.753119E-1	9.892168E-1	1.103617E+0	1.008721E+0	1.003742E+0	9.688247E-1	1.030191E+0	9.883785E-1	9.922486E-1	1.039747E+0	1.085741E+0	9.856384E-1	9.827683E-1	9.862871E-1	1.174569E+0	1.006165E+0	9.932987E-1	9.992521E-1	1.148556E+0	1.003316E+0	9.854775E-1	9.636330E-1	1.032320E+0	9.575604E-1	9.976872E-1	1.004271E+0	1.002101E+0	9.879441E-1	1.002442E+0	9.790335E-1	9.703592E-1	1.036087E+0	1.012111E+0	1.004734E+0	1.029836E+0	9.750424E-1	9.532131E-1	9.832226E-1	1.010030E+0	9.812567E-1	1.006293E+0	9.931778E-1	1.022193E+0	9.926538E-1	9.897890E-1	1.008588E+0	1.006725E+0	1.028362E+0	1.017398E+0	9.981629E-1	9.891382E-1	1.018849E+0	1.012192E+0	1.012258E+0	1.020618E+0	9.759011E-1	9.810016E-1	9.742544E-1	9.702409E-1	9.513346E-1	1.002688E+0	9.989024E-1	1.029281E+0	1.004163E+0	1.012597E+0	9.561507E-1	1.016714E+0	1.004986E+0	9.924594E-1	9.649517E-1	9.689992E-1	1.021068E+0	9.751770E-1	1.038005E+0	9.948835E-1	9.364541E-1	1.009656E+0	9.802071E-1	9.953837E-1	1.027154E+0	9.999245E-1	9.791759E-1	1.008530E+0	1.009869E+0	9.542060E-1	9.590689E-1	1.006969E+0	9.827667E-1	9.727016E-1	9.574563E-1	1.007822E+0	9.892269E-1	1.060308E+0	1.006768E+0	9.818510E-1	9.742154E-1	9.869266E-1	1.015769E+0	1.022949E+0	9.939130E-1	9.941813E-1	9.846263E-1	9.536223E-1	9.988517E-1	1.009170E+0	1.002653E+0	9.728798E-1	1.028537E+0	1.021860E+0	9.639243E-1	1.043315E+0	1.019289E+0	9.687564E-1	9.566969E-1	9.819524E-1	1.034286E+0	9.369190E-1	9.749388E-1	1.007410E+0	1.007400E+0	1.022629E+0	1.003351E+0	9.790766E-1	1.035587E+0	1.013719E+0	9.890246E-1	9.888397E-1	9.872092E-1	1.061488E+0	9.501352E-1	9.993597E-1	9.760232E-1	9.713172E-1	9.955279E-1	1.034146E+0
