Photon Energy (eV)	#1	#2	#3	#4	#5	#6	#7	#8	#9	#10	#11	#12	#13	#14	#15	#16	#17	#18	#19	#20	#21	#22	#23	#24	#25	#26	#27	#28	#29	#30	#31	#32	#33	#34	#35	#36	#37	#38	#39	#40	#41	#42	#43	#44	#45	#46	#47	#48	#49	#50	#51	#52	#53	#54	#55	#56	#57	#58	#59	#60	#61	#62	#63	#64	#65	#66	#67	#68	#69	#70	#71	#72	#73	#74	#75	#76	#77	#78	#79	#80	#81	#82	#83	#84	#85	#86	#87	#88	#89	#90	#91	#92	#93	#94	#95	#96	#97	#98	#99	#100	#101	#102	#103	#104	#105	#106	#107	#108	#109	#110	#111	#112	#113	#114	#115	#116	#117	#118	#119	#120	#121	#122	#123	#124	#125	#126	#127	#128	#129	#130	#131	#132	#133	#134	#135	#136	#137	#138	#139	#140	#141	#142	#143	#144	#145	#146	#147	#148	#149	#150	#151	#152	#153	#154	#155	#156	#157	#158	#159	#160	#161	#162	#163	#164	#165	
5.300520E+2	-1.064643E-2	-9.214105E-3	-1.082997E-2	-5.608151E-3	-1.354087E-2	-1.021965E-2	-5.237962E-3	-8.279951E-4	-7.931004E-3	-1.027387E-2	-5.280905E-3	-6.549145E-3	-6.659619E-3	-7.062934E-3	-1.480889E-3	-6.813863E-3	3.573490E-3	-1.137093E-2	1.321703E-3	-1.250426E-3	-3.088420E-3	4.412912E-3	-4.269902E-3	-6.783855E-3	-8.172311E-3	-1.393159E-2	-6.591698E-3	-9.745529E-3	-9.577689E-3	-5.073120E-3	-4.609314E-3	-3.850774E-4	-4.618766E-3	-5.882174E-3	-2.309402E-3	-8.540915E-3	-1.334559E-2	-6.250649E-3	-2.964423E-3	-7.244456E-3	-4.861148E-3	-2.369742E-2	-1.055862E-2	-6.174566E-3	-3.506188E-3	6.257015E-4	-7.209716E-3	-1.593674E-2	-9.480112E-3	-3.859450E-3	-1.043607E-2	-2.813058E-3	-9.489114E-3	-9.910496E-3	-1.016714E-2	-7.568099E-3	-2.560814E-3	-1.352177E-2	-1.267783E-2	-6.382641E-3	-1.287094E-2	-9.745425E-3	-1.282425E-2	-5.577888E-3	-8.172865E-3	-1.842852E-2	-1.138232E-2	-9.825993E-3	-8.695836E-3	-7.554903E-3	-5.287131E-3	-9.710244E-3	-7.476517E-3	-1.655535E-2	-3.296078E-3	-2.420469E-3	-9.171259E-3	-8.077934E-3	-2.697591E-3	-9.455793E-3	-8.552169E-3	-1.114782E-2	-9.064446E-3	-3.189490E-3	-5.719900E-3	-7.623090E-3	-4.218258E-3	-1.008077E-2	-8.230078E-3	-5.362228E-3	-5.300941E-3	-4.517282E-3	-6.634860E-3	-7.144723E-3	-2.493902E-3	-1.013545E-2	-1.168181E-2	-1.153564E-2	-8.004080E-3	-1.103316E-2	-7.830069E-3	-1.194829E-2	-5.419940E-3	-1.241742E-2	-1.110582E-2	-8.544891E-3	-7.558173E-3	-7.361665E-3	-1.122299E-2	-8.126599E-3	-5.165681E-3	-4.532775E-3	-1.273991E-2	2.869043E-3	-1.619016E-3	1.306558E-3	-4.915492E-3	-7.530230E-3	-1.183870E-2	-2.128880E-3	-2.558418E-3	-1.228993E-2	-3.639824E-3	-7.782439E-3	2.040108E-3	-1.515786E-3	-1.096819E-2	-1.420560E-2	-1.209962E-2	-2.304097E-3	-5.080516E-3	-7.424712E-3	-9.001742E-3	-1.346143E-2	-2.961600E-3	-5.892715E-3	-3.018829E-3	-1.248622E-2	-3.443042E-3	-1.242563E-2	-1.247883E-2	-8.448675E-3	-7.049882E-3	-8.414564E-3	-1.069714E-2	-9.147402E-3	-8.967743E-3	-1.373053E-2	-5.633010E-3	-5.100193E-3	-3.196422E-3	-3.392360E-3	-9.111207E-3	-1.135621E-2	-4.093387E-3	-4.730347E-3	-7.555041E-3	-8.025422E-3	-5.242114E-3	-4.341482E-3	-7.668069E-3	-8.756852E-3	-3.529273E-3	-8.669365E-3	-1.654646E-4
5.305180E+2	-7.170786E-3	1.414030E-3	-7.168027E-3	-1.630718E-3	-6.482851E-3	-1.465359E-2	-1.409954E-2	-1.049284E-2	-3.771068E-3	-4.122286E-3	-8.071390E-3	-1.454915E-3	1.289904E-3	-8.696227E-3	-7.029849E-3	-1.376293E-2	-1.134587E-2	-9.355701E-3	6.472388E-4	1.301398E-3	1.294783E-4	-9.745300E-3	-3.863954E-3	-6.328825E-3	-1.050187E-2	-2.907890E-3	-9.612024E-3	-7.456583E-3	-4.492400E-3	-8.892798E-3	-1.481719E-2	-1.029303E-2	-6.912541E-3	-9.539395E-3	-2.442653E-3	-1.224012E-2	-6.103910E-3	-1.215721E-2	-3.124347E-3	-6.297242E-3	3.588636E-3	-2.595323E-3	-1.321633E-2	5.350302E-3	-1.382241E-2	-2.661451E-3	-1.103123E-2	-6.299591E-3	-4.904044E-3	-7.505700E-3	-3.633879E-3	-1.613937E-2	-9.668636E-3	-8.975479E-3	4.358578E-3	-6.053407E-3	-3.368989E-3	4.712863E-4	-1.348282E-2	-1.332389E-3	-8.246322E-3	-1.203054E-2	-8.920228E-3	-2.807553E-3	-1.033302E-2	-2.612974E-4	-6.014069E-3	-6.698717E-3	-8.322126E-3	-7.156369E-3	-1.042199E-3	-7.084002E-3	-4.357103E-3	-7.294949E-3	-7.861624E-3	-9.588655E-3	-2.536408E-3	-7.147041E-3	-2.244894E-3	-1.086689E-2	-3.813631E-3	-3.653574E-3	-1.333833E-2	-8.336664E-3	-1.184340E-2	-3.703068E-3	-1.375833E-2	-7.941168E-3	-9.750318E-3	-3.684173E-3	-7.241434E-3	-9.822615E-3	-1.127490E-2	-3.184439E-3	-2.535953E-3	-5.970742E-3	-1.441786E-2	5.630623E-3	-3.379795E-4	-6.672292E-3	-5.764749E-4	-5.940725E-3	-7.935400E-3	-1.604393E-2	-1.260095E-2	-5.612658E-3	-6.500301E-5	-1.516637E-2	-7.596716E-3	-1.045111E-2	1.394325E-3	-4.698284E-3	-3.315215E-3	-6.617966E-3	-4.584346E-3	-1.084114E-2	-1.964766E-3	-4.911144E-3	2.164129E-3	6.622319E-3	-1.239937E-2	-4.363227E-3	-2.624696E-3	-1.376597E-2	-1.059699E-2	-1.417893E-2	-5.602858E-3	-5.988193E-3	-1.112856E-2	-4.976598E-3	-3.488179E-3	1.659169E-3	-5.653498E-3	-5.986462E-3	-7.230358E-3	-1.108223E-2	-6.384299E-3	-8.880054E-3	-1.257808E-3	-3.448527E-3	-7.640394E-3	-1.019453E-2	-2.876957E-3	-9.219882E-3	-8.386955E-3	-3.934159E-3	-1.949888E-3	-9.841854E-3	-9.977841E-3	-6.584059E-3	-2.121553E-3	-7.158133E-3	-8.104183E-3	-4.896242E-3	-1.200659E-2	2.360128E-3	-1.365798E-2	-4.145356E-3	-6.486788E-3	-3.279709E-3	-5.083987E-3	-6.006983E-3	-2.126358E-3	3.972892E-3	-8.641930E-3
5.310250E+2	-7.806615E-4	2.963987E-4	1.637300E-3	1.371466E-3	-8.353184E-3	1.288637E-3	2.754303E-3	-8.420297E-3	-6.734168E-3	4.476478E-3	-1.006388E-2	-1.277618E-3	-7.010585E-4	-1.521611E-3	1.067316E-3	-4.255994E-5	-9.563702E-4	-9.208758E-3	-4.266039E-3	-6.249809E-3	-9.822791E-3	-1.170326E-2	2.489964E-4	-5.573941E-3	-2.974507E-3	-8.707589E-3	-3.316265E-3	-4.269707E-3	-6.088195E-3	2.864877E-3	-5.149278E-3	-9.415712E-3	-1.407751E-3	-7.101543E-3	1.546838E-5	-7.782705E-3	-6.540556E-3	-1.658338E-3	-4.673171E-3	-1.036060E-3	-5.569420E-3	-1.147710E-3	-3.264251E-3	-9.265413E-3	-1.098924E-2	-8.376128E-3	-1.452312E-3	-4.393380E-3	5.534362E-3	-5.044071E-3	-4.027695E-3	2.298254E-3	-7.118243E-3	-9.947625E-3	7.958335E-3	-1.149243E-2	-1.073327E-2	-6.135519E-4	-1.159125E-2	-2.471602E-3	-1.105748E-3	2.756211E-4	4.991312E-3	-1.455830E-3	-1.272360E-3	-7.541279E-3	7.618751E-3	-9.998885E-3	1.677796E-3	-7.004435E-3	-1.019314E-2	-3.012555E-3	-5.514062E-3	6.578553E-3	-9.591239E-3	-5.378598E-4	-8.687802E-3	6.866383E-4	-1.428156E-2	-9.554530E-3	-5.291597E-4	3.694045E-3	7.262484E-3	-4.004911E-3	-5.723118E-3	-6.490969E-3	-6.380181E-3	-6.605578E-3	-2.763131E-3	-1.173838E-2	-5.288673E-3	-2.005231E-3	6.255069E-3	-2.493877E-3	-1.073371E-2	-2.006195E-3	3.808880E-3	-4.071107E-3	-5.638567E-3	1.545343E-3	7.496489E-4	-2.373330E-3	4.172520E-4	-2.749704E-3	-1.406620E-3	-2.273182E-3	-8.286452E-3	-6.224912E-3	-1.421357E-3	-7.602227E-3	-9.644853E-3	-2.804884E-3	5.956094E-3	-7.045050E-3	-7.270339E-3	-7.723003E-3	-6.904272E-3	-8.694991E-3	-5.891485E-3	-1.114718E-2	-1.234983E-3	5.720569E-3	-6.021873E-3	-1.291197E-2	-1.170730E-2	-3.061581E-3	1.467619E-4	2.660257E-4	-8.489717E-3	3.847540E-3	3.872566E-3	-1.091005E-2	-4.317140E-3	-3.367932E-3	-1.419128E-2	2.631417E-3	-5.529753E-3	-1.001068E-2	-5.993524E-3	-8.238304E-3	3.898001E-4	-5.183272E-3	1.084120E-3	-1.024105E-2	-1.619091E-2	-4.967461E-3	-9.601492E-3	-2.617525E-3	-3.020049E-3	-5.194666E-3	-1.945206E-3	-8.793717E-3	2.138132E-3	-1.768622E-2	-2.068439E-3	-8.861403E-3	-3.663363E-3	-1.094719E-2	-8.532090E-3	-6.302824E-3	-9.281685E-3	-6.636097E-3	-8.144498E-3	-8.111647E-3	-1.147473E-2
5.315130E+2	3.542253E-3	-6.814094E-3	-5.744040E-3	-3.648566E-3	-4.362973E-3	-3.569954E-3	-1.615460E-3	7.555135E-3	-4.193202E-3	5.081611E-3	2.173823E-3	-6.000856E-3	-5.059958E-3	-5.426199E-4	-7.412759E-3	-2.554922E-3	4.145382E-3	-2.469862E-3	-4.285350E-3	-5.636216E-3	-8.160979E-3	-4.362825E-3	-7.120590E-3	-2.659819E-3	1.692164E-3	1.994607E-3	-1.019388E-2	3.685643E-3	-1.980763E-3	1.780394E-3	-1.816237E-3	-6.964330E-3	-1.014274E-2	-6.548555E-3	5.615063E-4	4.559882E-3	1.138531E-2	-2.837553E-3	-1.311446E-3	-6.102539E-3	-1.873056E-3	1.188303E-2	9.987110E-4	1.265602E-3	-1.293342E-3	-5.198616E-3	-7.248748E-3	6.143373E-3	-5.983670E-3	1.302214E-3	8.407809E-3	-5.525571E-3	-6.552499E-3	2.904611E-3	-6.838370E-3	-1.394458E-3	-6.382990E-3	6.199316E-3	7.125271E-3	-3.804502E-3	3.709483E-3	-2.797062E-4	1.402708E-3	-2.668078E-3	-1.946540E-3	-7.538899E-4	-3.080004E-3	-3.813535E-4	4.108612E-4	-5.306818E-3	-8.934455E-4	-9.732712E-3	-2.887842E-3	-1.171947E-3	-7.127806E-3	-3.114897E-3	3.326174E-3	-4.276112E-3	6.879893E-4	1.048369E-2	5.973645E-5	-2.335567E-3	2.144161E-4	-6.138892E-3	2.008220E-3	-1.801550E-3	-1.398224E-3	-2.512530E-3	-3.415678E-3	-4.181191E-3	-3.529165E-3	-1.401996E-3	2.301169E-3	-5.565310E-3	-1.074847E-2	-5.217189E-3	-9.946709E-3	-3.519766E-3	4.149848E-4	7.560903E-3	-4.267936E-4	-1.236225E-4	-1.132082E-2	4.085115E-3	-8.252371E-4	-9.280662E-3	4.605076E-3	-5.848168E-4	1.834408E-3	-5.981323E-4	5.524751E-4	-1.150294E-2	-5.785762E-3	-3.543389E-3	-5.581250E-3	-9.250696E-3	1.359766E-3	3.112206E-3	-9.717981E-4	-2.842160E-3	-8.603563E-3	-1.703583E-2	-7.240465E-3	9.851310E-3	-6.096542E-3	4.040512E-3	-4.349230E-3	2.665870E-3	1.470145E-3	-5.239644E-4	-6.952744E-3	-4.909317E-3	-3.157050E-3	-3.933882E-3	-2.908161E-3	-4.667949E-3	-5.500811E-3	-3.578545E-3	-1.133879E-3	-2.069103E-3	-4.119566E-3	2.876925E-3	-5.624092E-4	-5.491400E-4	3.566796E-4	-3.812881E-3	-6.556110E-3	-1.469924E-2	-3.100507E-3	-2.793336E-3	-3.826421E-3	4.227668E-3	8.134621E-4	-5.465909E-3	-3.504867E-3	-2.870325E-3	2.541165E-4	-4.003630E-3	-1.231330E-3	-3.133077E-3	-1.886902E-3	-3.415129E-4	-3.963357E-3	7.245171E-4	6.261286E-3
5.320120E+2	3.325350E-3	3.877665E-3	-1.213548E-2	-1.185493E-2	1.419765E-3	-1.012766E-2	-5.608119E-3	-4.257231E-3	6.886001E-3	-8.202399E-3	1.505998E-3	2.045394E-3	4.021168E-3	3.366467E-4	-1.093144E-3	1.089761E-2	-1.798290E-3	-5.519680E-3	-4.473648E-3	3.157654E-3	-2.166494E-3	1.305111E-3	4.286611E-5	4.249583E-3	2.756158E-3	5.461318E-3	1.842190E-3	1.641370E-3	8.133981E-4	5.371960E-3	2.533812E-3	4.467309E-3	-3.110483E-3	4.816157E-3	-8.248289E-3	-4.895252E-4	1.928314E-3	1.604894E-3	-2.654514E-3	1.025419E-3	-7.142417E-3	3.187164E-3	-5.317872E-3	2.282250E-3	-3.376550E-4	5.883120E-3	1.530287E-3	-5.199917E-3	-2.596209E-3	5.198581E-3	-6.449148E-3	9.346402E-3	5.282308E-3	-2.311694E-3	-1.049060E-2	-2.679837E-3	-2.871695E-3	-8.632045E-4	4.097836E-3	-2.671096E-3	-1.286246E-3	2.768697E-3	-9.475246E-3	-4.021843E-3	-9.195686E-4	-2.270281E-3	1.229519E-3	8.467869E-3	-2.298081E-3	3.752547E-3	-2.158949E-3	5.291504E-3	4.255355E-3	-1.030852E-2	-1.810000E-3	1.132631E-3	1.990215E-3	3.267961E-3	1.005635E-2	-4.508756E-3	-7.878078E-4	3.440000E-3	-8.210942E-3	-5.071966E-3	-1.775184E-3	3.928356E-3	6.294454E-3	6.198379E-3	-5.591109E-3	4.703327E-6	-6.142679E-3	9.276862E-4	-1.210215E-4	9.150293E-3	-1.955684E-3	-4.225082E-3	4.202753E-3	-6.091236E-3	2.001615E-4	-4.212798E-3	-8.132446E-3	-6.043468E-3	5.497777E-3	4.528000E-3	3.879648E-3	-3.187230E-3	-1.383498E-2	1.374512E-2	7.200075E-3	-2.364135E-3	-2.623723E-3	5.671994E-3	-5.435771E-3	2.174713E-3	1.694461E-3	8.306573E-3	-7.889483E-3	1.372917E-2	-3.372819E-3	1.405066E-3	7.991047E-3	3.207735E-3	1.477585E-3	8.181516E-3	-3.239241E-3	-1.265493E-2	2.755168E-3	2.444523E-3	2.495676E-3	-7.833685E-4	-2.404181E-3	1.518404E-3	-3.387459E-3	7.871514E-3	4.604530E-4	8.076845E-4	5.081187E-3	-3.186472E-3	-1.973675E-4	1.077293E-2	4.701131E-3	2.763661E-3	-7.370621E-4	8.417000E-3	1.376631E-3	7.597802E-4	2.891763E-3	1.192492E-2	3.361971E-3	-3.730492E-3	-1.026900E-2	-1.033327E-2	-6.470782E-3	1.400071E-2	-5.979117E-3	-9.266274E-3	3.971359E-3	8.052333E-3	-8.676230E-3	-7.916892E-3	-5.954378E-3	4.026672E-3	-3.618533E-3	9.933967E-3	3.681815E-3
5.325070E+2	-1.793647E-3	-6.544366E-3	9.939556E-3	1.092350E-2	1.350225E-2	1.400726E-2	3.668315E-3	5.895850E-3	-3.909730E-3	-5.663370E-3	7.334206E-3	1.379699E-3	-4.764242E-3	3.308192E-3	8.864963E-3	-5.975976E-3	-1.283339E-3	1.994707E-2	-1.858193E-5	4.827841E-4	4.549668E-3	-3.701564E-4	1.077069E-2	4.769203E-3	5.383222E-3	8.927488E-3	1.759673E-2	7.098077E-3	1.562134E-2	-1.010637E-2	-3.630818E-4	1.117531E-2	6.236507E-3	9.388956E-3	4.940468E-3	1.594339E-2	3.023355E-3	4.432269E-3	-2.142880E-3	9.425963E-3	-3.243106E-4	1.803958E-3	1.121508E-2	-2.774625E-3	5.034333E-3	-6.211894E-4	4.645677E-3	8.292711E-3	5.855481E-3	-1.180016E-4	4.410288E-3	-2.608479E-3	8.812316E-3	8.905651E-3	3.171926E-4	1.530526E-2	1.282857E-2	2.880480E-4	6.930895E-3	-8.117393E-3	8.234223E-4	2.179305E-3	9.453516E-3	7.847947E-3	9.274314E-3	1.512943E-2	4.213875E-5	4.223935E-3	1.978929E-3	1.237629E-2	4.960230E-3	5.791577E-3	1.155613E-2	5.252271E-3	1.252461E-2	1.002928E-2	3.667424E-3	-6.723535E-3	2.162724E-3	5.572423E-3	2.292393E-3	3.615787E-4	1.114159E-2	1.535853E-2	5.973108E-3	3.263195E-3	6.192117E-4	1.331567E-2	2.500859E-3	5.023360E-3	1.592471E-3	4.097532E-3	4.339647E-3	-3.198763E-3	5.897807E-3	1.234117E-2	5.391198E-3	2.632589E-3	4.418956E-3	5.915705E-3	1.030231E-2	5.919209E-3	7.782679E-3	-1.851655E-3	1.493436E-2	5.696988E-4	1.537196E-2	3.627974E-4	3.830386E-3	7.922218E-3	9.156246E-3	4.442098E-3	6.272612E-3	5.663068E-3	3.360677E-3	1.483123E-3	9.390607E-3	-5.153354E-4	7.068263E-3	-5.762757E-3	-3.189127E-3	5.488587E-3	5.604898E-3	1.024284E-2	2.996788E-3	4.416789E-3	7.756132E-3	3.603538E-3	8.077674E-3	4.135371E-3	-3.063235E-3	-5.973417E-3	1.024190E-2	2.380695E-3	6.983453E-3	8.123183E-3	1.139165E-2	7.169370E-3	2.820372E-3	5.080334E-3	5.204407E-3	5.318378E-4	-2.434533E-4	8.354670E-3	1.663393E-2	6.685871E-4	7.679864E-3	6.122205E-3	7.352149E-3	1.033598E-2	3.167432E-3	6.322627E-3	8.656338E-3	9.824086E-3	9.442399E-3	1.088758E-2	1.048066E-2	1.613072E-2	7.600534E-3	1.722435E-2	8.064934E-3	-2.410668E-3	-5.245570E-4	-7.969752E-4	2.744489E-2
5.330280E+2	1.352392E-2	1.698447E-2	2.430066E-2	1.044740E-2	1.781787E-2	2.327496E-2	2.013846E-2	1.054738E-2	1.965317E-2	1.870383E-2	1.240215E-2	1.185744E-2	1.187380E-2	1.417855E-2	7.084362E-3	1.825264E-2	7.664998E-3	1.797786E-2	1.107468E-2	8.194614E-3	1.855954E-2	2.046352E-2	4.191898E-3	1.232765E-2	1.181714E-2	9.163653E-3	1.027495E-2	9.046729E-3	5.704310E-3	1.405506E-2	2.422129E-2	1.141552E-2	1.995578E-2	1.486655E-2	7.482902E-3	8.549989E-3	9.653071E-3	1.686658E-2	1.687078E-2	1.022891E-2	1.618171E-2	1.056630E-2	2.014328E-2	9.316451E-3	2.491450E-2	1.034856E-2	2.076604E-2	1.739355E-2	1.157419E-2	1.002643E-2	1.172869E-2	1.544182E-2	1.873387E-2	1.933503E-2	1.486200E-2	1.388297E-2	1.308919E-2	8.039875E-3	1.959790E-2	2.477962E-2	1.897635E-2	1.683205E-2	1.537218E-2	8.683246E-3	1.337004E-2	1.412583E-2	1.158598E-2	1.421314E-2	1.524846E-2	1.089369E-2	1.461463E-2	1.845643E-2	4.424040E-3	2.349994E-2	1.716213E-2	4.499966E-3	1.141166E-2	2.227002E-2	6.316972E-3	1.832985E-2	1.133064E-2	9.641342E-3	1.199523E-2	1.138340E-2	1.708027E-2	1.242713E-2	1.884133E-2	7.625992E-3	2.724946E-2	1.993791E-2	2.591042E-2	1.272191E-2	5.134894E-3	1.243682E-2	2.256991E-2	1.521349E-2	2.264355E-2	1.695453E-2	8.946525E-3	6.896299E-3	5.913823E-3	2.051022E-2	1.097845E-2	2.444959E-2	7.124616E-3	2.832892E-2	9.767574E-3	1.522984E-2	7.376200E-3	2.121998E-2	6.331211E-3	1.342479E-2	1.504795E-2	6.499582E-3	1.399981E-2	1.671858E-2	1.092364E-2	4.810329E-3	1.284241E-2	1.385360E-2	1.999442E-2	1.927209E-2	1.244437E-2	6.184719E-3	2.660318E-2	2.295393E-2	1.026222E-2	1.121384E-2	1.967440E-2	6.051177E-4	1.711629E-2	2.603992E-2	1.527499E-2	1.649749E-2	1.984750E-2	1.008061E-2	3.960858E-3	3.097261E-2	9.205249E-3	1.032830E-2	1.394345E-2	1.765405E-2	1.038564E-2	1.165297E-2	1.690777E-2	2.043354E-2	1.650361E-2	2.284203E-2	1.101729E-2	1.306676E-2	1.819117E-2	1.912719E-2	1.207824E-2	1.557979E-2	1.821000E-2	1.248064E-2	1.017025E-2	2.938548E-3	2.256802E-2	7.749636E-3	2.181009E-2	2.012544E-2	2.190658E-2	2.946611E-3	-1.710587E-2
5.331680E+2	4.634859E-3	1.113672E-2	2.029900E-2	8.930416E-3	1.033666E-2	9.327078E-3	9.516625E-3	1.509285E-2	2.102918E-2	2.074281E-2	1.414929E-2	1.576493E-2	1.592454E-2	1.844385E-2	3.307084E-2	1.109285E-2	2.305725E-2	1.527166E-2	1.179348E-2	7.873890E-3	1.486956E-2	2.121326E-2	1.115773E-2	2.236092E-2	1.949723E-2	3.049366E-2	1.512838E-2	7.034295E-3	2.815017E-2	2.119928E-2	1.645480E-2	1.008512E-2	3.461381E-2	2.088803E-2	9.922554E-3	1.154042E-2	1.700472E-2	1.231856E-2	1.933054E-2	1.577407E-2	2.968901E-2	2.243826E-2	1.406655E-2	2.881503E-2	1.197400E-2	9.338411E-3	2.097357E-2	2.707761E-2	3.075062E-2	2.722098E-2	2.562498E-2	2.209968E-2	1.891775E-2	1.093809E-2	1.556743E-2	9.427824E-3	1.442766E-2	2.900844E-2	1.318725E-2	8.771522E-3	1.203499E-2	1.105237E-2	1.609469E-2	2.445298E-2	1.666182E-2	1.793119E-2	2.425852E-2	1.632409E-2	4.639770E-3	2.038066E-2	1.252422E-2	1.867376E-2	3.065993E-3	-1.257648E-3	2.483613E-2	1.745079E-2	1.673764E-2	1.017925E-2	5.818278E-3	4.574711E-3	1.455932E-2	1.819755E-2	1.686171E-2	3.061001E-2	9.917625E-3	-7.411855E-4	1.735382E-2	1.309924E-2	2.169183E-2	2.135835E-2	1.398703E-2	1.342166E-2	6.881536E-3	1.417731E-2	1.698782E-2	1.008977E-2	1.327647E-2	1.471039E-2	2.327185E-2	2.883213E-2	3.468245E-2	2.417872E-2	1.404204E-2	1.125275E-2	1.714544E-2	1.303303E-2	2.099658E-2	3.006939E-2	1.584082E-2	2.855601E-2	1.771458E-3	1.470076E-2	2.904714E-2	3.300681E-2	2.407737E-2	2.278135E-2	2.005848E-2	5.399572E-3	2.695564E-2	2.241335E-2	1.627004E-2	1.469996E-2	1.798517E-2	-1.158055E-3	2.997818E-2	2.041830E-2	2.746881E-2	2.681102E-2	2.426824E-2	2.515886E-2	2.946963E-2	2.207884E-2	1.781171E-2	1.783835E-2	1.028954E-2	1.420272E-2	1.752062E-2	1.603433E-2	1.543340E-2	1.987595E-2	1.177576E-2	1.127095E-2	2.102374E-2	5.585094E-3	1.562485E-2	1.200159E-2	1.730207E-2	1.643633E-2	1.726814E-2	1.248823E-2	1.654829E-2	1.078351E-2	2.310601E-2	2.603337E-2	1.401377E-2	1.519455E-2	1.770607E-2	1.358477E-2	2.338475E-2	1.755283E-2	1.673216E-2	2.730024E-2	1.412324E-2	5.304136E-3	4.677440E-2
5.333080E+2	1.188614E-2	1.596220E-2	2.798609E-2	9.987166E-3	2.016879E-2	3.195020E-2	9.782942E-3	1.856319E-2	2.941103E-2	2.492879E-2	2.892627E-2	1.366930E-2	2.654801E-2	2.724165E-2	2.049611E-2	1.124641E-2	3.136176E-2	3.662193E-2	2.697418E-2	1.832895E-2	2.136410E-2	1.336093E-2	2.399512E-2	2.084784E-2	2.867581E-2	2.819078E-2	2.444680E-2	2.406781E-2	2.109385E-2	2.992492E-2	2.518467E-2	2.738671E-2	1.590712E-2	1.055842E-2	2.536776E-2	2.305838E-2	2.982152E-2	1.488249E-2	2.413732E-2	2.258902E-2	2.679905E-2	2.650216E-2	1.802842E-2	2.069037E-2	2.164360E-2	1.390489E-2	2.328617E-2	3.090991E-2	1.968752E-2	1.742478E-2	3.190235E-2	1.821331E-2	3.026476E-3	2.823800E-2	1.466323E-2	1.551185E-2	3.016277E-2	1.401131E-2	1.700026E-2	2.901543E-2	2.589712E-2	2.092916E-2	3.953940E-2	3.363953E-2	2.983858E-2	2.950695E-2	1.301841E-2	2.360973E-2	3.431775E-2	2.346687E-2	1.661512E-2	1.881582E-2	1.964607E-2	8.700010E-3	2.505371E-2	2.220940E-2	2.279034E-2	2.710156E-2	1.620208E-2	2.765119E-2	4.013229E-2	3.122394E-2	1.764679E-2	1.309377E-2	8.348270E-3	1.634153E-2	1.808291E-2	2.829983E-2	2.320999E-2	2.863382E-2	1.359860E-2	2.730686E-2	2.537194E-2	2.259450E-2	1.605471E-2	2.004980E-2	1.985752E-2	1.433837E-2	1.914431E-2	1.538420E-2	1.729843E-2	2.146165E-2	1.367732E-2	1.206373E-2	2.674428E-2	2.295877E-2	1.138166E-2	3.281155E-2	1.886016E-2	3.574514E-2	1.183928E-2	1.784753E-2	3.385514E-2	6.801530E-3	1.667963E-2	2.007462E-2	2.613949E-2	2.854877E-2	2.709502E-2	2.003180E-2	1.141075E-2	1.429662E-2	7.935503E-3	2.165762E-2	1.614197E-2	1.388420E-2	1.512458E-2	2.637749E-2	1.750210E-2	3.290523E-2	1.381262E-2	1.553349E-2	2.162789E-2	3.259429E-2	2.020992E-2	3.444494E-2	1.583401E-2	2.284871E-2	2.874012E-2	2.827691E-2	1.428857E-2	2.187298E-2	2.339794E-2	2.363958E-2	2.398148E-2	2.763006E-2	3.174725E-2	1.461136E-2	2.795024E-2	3.697482E-2	2.423652E-2	2.368514E-2	2.019225E-2	2.626176E-2	1.927614E-2	9.374839E-3	3.132511E-2	1.910481E-2	2.748377E-2	1.521209E-2	1.559042E-2	2.607087E-2	9.513401E-3	2.467462E-2	2.218337E-2
5.334580E+2	2.678344E-2	1.756266E-2	2.220769E-2	2.759328E-2	1.979991E-2	3.370886E-2	4.222963E-2	3.249947E-2	2.922467E-2	2.855551E-2	2.059382E-2	2.757676E-2	2.137263E-2	2.759517E-2	2.943897E-2	2.038791E-2	5.220685E-2	2.149901E-2	2.964171E-2	3.488932E-2	2.687414E-2	2.969253E-2	3.355386E-2	4.086587E-2	3.245297E-2	2.733108E-2	2.478676E-2	3.157128E-2	2.264375E-2	3.567548E-2	2.153231E-2	3.346724E-2	2.784107E-2	3.496148E-2	2.161065E-2	2.750899E-2	2.126638E-2	3.809149E-2	2.331396E-2	1.597489E-2	3.285241E-2	2.157995E-2	2.710815E-2	2.187327E-2	3.586846E-2	3.543036E-2	2.630972E-2	2.923861E-2	3.260578E-2	3.608730E-2	3.672738E-2	3.462178E-2	1.508605E-2	2.233452E-2	3.527741E-2	3.314215E-2	2.612165E-2	2.256336E-2	1.912796E-2	3.215918E-2	2.362263E-2	3.045906E-2	2.127460E-2	3.522917E-2	2.419883E-2	3.371654E-2	2.541345E-2	3.011912E-2	2.761145E-2	2.914396E-2	3.435899E-2	2.619841E-2	1.404829E-2	2.904123E-2	2.160853E-2	1.724993E-2	2.607667E-2	1.963533E-2	3.297927E-2	3.265084E-2	3.686811E-2	2.915293E-2	2.753582E-2	3.873273E-2	3.372739E-2	3.050739E-2	2.525016E-2	2.548546E-2	3.568073E-2	2.836889E-2	2.244297E-2	3.285334E-2	3.834327E-2	1.101792E-2	1.961103E-2	2.555814E-2	4.182973E-2	3.778565E-2	2.690934E-2	2.529433E-2	2.524212E-2	2.876430E-2	2.830864E-2	3.282923E-2	3.462847E-2	2.978736E-2	1.300050E-2	3.640332E-2	2.703081E-2	3.009255E-2	2.676860E-2	3.172060E-2	3.027833E-2	2.690835E-2	2.984956E-2	2.646213E-2	2.910525E-2	3.409707E-2	1.961394E-2	2.886690E-2	3.493495E-2	1.817771E-2	3.792151E-2	3.290061E-2	2.857536E-2	2.036514E-2	3.710217E-2	1.864984E-2	2.291793E-2	2.634163E-2	3.735880E-2	3.566594E-2	2.499645E-2	2.253227E-2	2.904923E-2	2.561602E-2	2.255283E-2	2.122648E-2	2.786807E-2	2.045154E-2	2.776991E-2	5.251324E-2	3.427982E-2	3.499714E-2	2.772783E-2	2.004730E-2	2.899562E-2	3.227297E-2	1.452077E-2	3.247691E-2	2.959200E-2	3.370369E-2	2.828400E-2	4.395661E-2	1.749338E-2	3.421961E-2	3.576619E-2	4.604661E-2	3.242375E-2	2.400300E-2	3.777081E-2	4.173878E-2	3.120011E-2	1.604330E-2	4.064043E-2
5.336080E+2	3.362383E-2	3.507289E-2	3.013325E-2	4.186126E-2	3.536913E-2	2.927937E-2	3.834063E-2	3.232408E-2	3.037802E-2	4.031306E-2	4.781456E-2	2.977885E-2	2.347599E-2	2.858102E-2	4.165426E-2	3.706158E-2	4.691602E-2	3.119275E-2	3.422253E-2	3.870114E-2	3.777446E-2	3.931937E-2	3.695883E-2	3.318123E-2	4.607918E-2	4.858078E-2	3.436552E-2	4.949743E-2	3.222046E-2	3.511589E-2	4.329558E-2	3.564531E-2	3.726043E-2	4.080995E-2	3.798718E-2	2.268273E-2	4.200744E-2	2.918642E-2	3.883512E-2	3.740028E-2	3.462939E-2	3.812642E-2	3.518273E-2	5.740181E-2	3.475289E-2	3.375452E-2	3.755318E-2	3.225716E-2	4.999836E-2	3.362928E-2	3.445205E-2	3.231612E-2	3.961522E-2	3.543995E-2	4.514342E-2	4.115602E-2	3.563201E-2	3.642605E-2	3.580456E-2	3.412924E-2	3.073594E-2	2.986144E-2	3.377538E-2	4.067877E-2	4.380676E-2	3.166389E-2	3.799806E-2	4.078804E-2	2.815095E-2	3.732945E-2	3.659127E-2	2.241166E-2	3.373001E-2	2.528657E-2	2.586451E-2	2.911298E-2	4.080888E-2	3.136128E-2	3.810479E-2	3.004204E-2	4.188533E-2	5.557154E-2	3.113219E-2	3.350767E-2	4.774702E-2	2.015571E-2	4.469272E-2	4.373913E-2	3.585035E-2	2.694662E-2	3.153248E-2	3.114142E-2	4.993924E-2	3.703716E-2	3.140927E-2	5.767720E-2	5.101639E-2	3.419060E-2	4.493292E-2	4.052875E-2	3.410887E-2	2.926477E-2	3.243131E-2	3.253065E-2	4.658205E-2	1.339349E-2	2.403121E-2	4.268881E-2	2.528209E-2	2.671125E-2	3.726957E-2	4.527407E-2	5.147933E-2	3.466315E-2	4.152486E-2	3.074551E-2	3.025595E-2	4.098236E-2	4.538341E-2	5.106844E-2	4.755060E-2	1.922874E-2	4.275246E-2	3.270679E-2	3.357560E-2	2.590333E-2	4.281470E-2	4.535288E-2	4.581296E-2	4.141519E-2	3.911865E-2	2.175671E-2	4.733507E-2	3.461842E-2	4.053837E-2	4.107234E-2	3.345909E-2	3.633706E-2	4.471102E-2	4.450507E-2	4.270622E-2	4.210795E-2	3.537281E-2	2.990969E-2	3.640196E-2	2.926436E-2	3.513418E-2	4.222693E-2	3.663350E-2	3.180046E-2	3.705387E-2	4.337624E-2	2.755855E-2	5.638119E-2	4.306583E-2	5.190899E-2	2.888581E-2	4.905337E-2	3.700585E-2	4.752649E-2	5.042981E-2	3.825295E-2	2.309346E-2	7.617841E-2	6.856766E-2
5.337580E+2	2.689241E-2	4.453074E-2	3.251035E-2	2.915550E-2	2.675912E-2	4.154657E-2	4.049150E-2	3.215409E-2	3.962840E-2	4.660571E-2	4.470629E-2	3.966083E-2	4.368094E-2	4.523216E-2	4.691476E-2	5.235428E-2	6.238642E-2	3.491023E-2	4.438186E-2	4.711400E-2	4.837898E-2	5.938635E-2	4.988114E-2	3.448469E-2	2.637884E-2	4.757525E-2	4.306870E-2	3.670996E-2	3.548900E-2	4.881243E-2	3.373246E-2	4.568131E-2	5.131340E-2	4.456407E-2	4.525299E-2	4.472646E-2	4.103389E-2	5.532472E-2	4.367933E-2	5.152904E-2	4.000139E-2	4.985068E-2	4.442747E-2	4.142306E-2	3.938336E-2	4.651772E-2	4.150968E-2	4.494227E-2	5.643510E-2	4.217319E-2	3.911907E-2	4.708893E-2	3.675018E-2	4.939901E-2	4.938600E-2	4.823257E-2	5.195822E-2	4.625383E-2	4.748361E-2	4.144451E-2	4.583994E-2	4.145097E-2	3.655869E-2	2.878975E-2	4.601497E-2	5.666222E-2	4.568505E-2	4.766302E-2	4.616628E-2	3.047776E-2	4.858023E-2	5.355051E-2	3.468932E-2	3.167535E-2	6.050424E-2	5.407829E-2	5.100808E-2	4.391149E-2	4.227066E-2	3.997011E-2	4.275824E-2	4.899517E-2	4.692978E-2	3.613669E-2	4.731677E-2	3.010689E-2	4.598675E-2	3.347057E-2	4.764003E-2	5.825185E-2	4.335704E-2	4.498444E-2	5.655537E-2	5.594970E-2	4.984724E-2	3.361400E-2	2.661650E-2	5.767917E-2	3.712329E-2	5.153783E-2	4.102547E-2	4.813205E-2	4.348592E-2	4.414333E-2	6.010019E-2	5.003822E-2	4.615568E-2	4.853341E-2	4.088236E-2	5.181996E-2	3.066168E-2	6.508428E-2	4.912828E-2	4.702371E-2	3.480134E-2	4.339891E-2	4.752113E-2	4.411515E-2	4.620768E-2	5.818055E-2	3.095433E-2	4.690197E-2	4.361919E-2	4.225604E-2	3.386203E-2	4.073200E-2	5.387000E-2	4.867896E-2	4.283743E-2	4.102697E-2	4.670722E-2	5.290611E-2	5.357107E-2	5.508216E-2	4.804558E-2	4.711089E-2	4.870591E-2	3.723817E-2	5.176598E-2	5.605876E-2	4.575198E-2	5.661460E-2	4.723917E-2	3.637538E-2	5.495121E-2	3.683650E-2	4.654388E-2	3.531544E-2	5.553081E-2	5.507895E-2	4.847728E-2	4.417714E-2	5.294147E-2	6.150667E-2	4.335512E-2	5.011259E-2	3.393497E-2	5.573069E-2	5.149575E-2	4.379568E-2	5.075167E-2	5.724972E-2	5.707214E-2	6.116472E-2	4.688544E-2
5.339140E+2	5.298253E-2	6.026815E-2	7.814124E-2	6.457383E-2	6.447139E-2	6.608376E-2	6.139972E-2	6.014514E-2	6.460870E-2	4.530613E-2	6.777238E-2	5.910182E-2	5.876889E-2	6.185955E-2	6.134051E-2	5.984576E-2	9.852688E-2	6.388944E-2	7.134727E-2	7.354314E-2	7.339045E-2	7.958190E-2	7.085560E-2	5.598826E-2	6.427008E-2	7.095949E-2	6.617365E-2	7.994705E-2	7.078941E-2	8.095594E-2	6.487650E-2	6.093111E-2	6.574394E-2	6.949127E-2	6.124242E-2	7.553989E-2	5.896731E-2	5.541715E-2	6.111816E-2	6.677380E-2	7.961564E-2	6.653408E-2	5.891432E-2	4.376190E-2	6.561332E-2	7.841060E-2	5.884133E-2	8.233946E-2	5.897943E-2	7.795048E-2	7.036846E-2	8.820268E-2	6.519482E-2	7.021965E-2	7.282777E-2	5.531402E-2	6.683237E-2	5.389868E-2	6.088448E-2	6.593589E-2	5.754873E-2	6.055188E-2	6.075352E-2	6.145902E-2	5.322425E-2	7.961708E-2	6.595236E-2	5.318287E-2	6.078791E-2	6.653681E-2	6.165244E-2	5.862445E-2	6.278357E-2	6.354447E-2	7.397775E-2	7.587776E-2	6.227865E-2	5.242394E-2	5.832308E-2	7.047654E-2	7.177973E-2	6.257143E-2	5.719670E-2	7.393372E-2	5.723961E-2	6.887809E-2	6.440341E-2	4.949102E-2	7.140262E-2	7.064819E-2	5.257294E-2	6.846088E-2	5.781757E-2	6.190332E-2	5.700364E-2	5.618436E-2	7.359953E-2	6.734853E-2	5.898409E-2	6.841734E-2	5.466220E-2	5.871227E-2	8.567157E-2	5.043419E-2	5.889301E-2	5.917490E-2	6.339708E-2	7.537681E-2	4.944984E-2	5.970121E-2	5.334960E-2	7.368973E-2	6.004357E-2	7.436153E-2	7.901237E-2	6.167283E-2	6.217966E-2	9.055300E-2	7.340635E-2	6.332364E-2	5.559311E-2	4.803483E-2	5.533349E-2	5.076789E-2	6.167114E-2	6.180013E-2	6.953882E-2	6.067138E-2	6.855513E-2	6.269958E-2	6.533959E-2	7.051901E-2	7.056671E-2	5.263003E-2	7.143268E-2	5.698065E-2	6.702847E-2	6.449380E-2	6.251104E-2	6.447740E-2	7.124422E-2	7.345673E-2	4.789836E-2	6.525264E-2	6.387573E-2	4.313357E-2	6.532673E-2	4.999040E-2	6.756176E-2	5.776400E-2	6.930988E-2	8.390293E-2	7.646557E-2	6.779329E-2	6.051705E-2	6.790344E-2	6.430309E-2	6.601220E-2	6.022726E-2	7.286789E-2	7.427500E-2	6.205137E-2	7.183948E-2	5.644001E-2	5.363730E-2
5.340640E+2	7.566969E-2	9.683826E-2	8.799814E-2	8.516798E-2	9.787076E-2	8.398552E-2	8.650430E-2	8.333317E-2	1.022642E-1	7.747762E-2	7.905493E-2	1.063216E-1	9.089427E-2	9.167362E-2	9.549288E-2	8.483926E-2	1.282938E-1	9.846097E-2	1.172382E-1	9.520323E-2	9.468320E-2	1.058957E-1	7.287775E-2	9.383542E-2	9.369004E-2	8.480974E-2	9.177994E-2	9.900452E-2	1.046318E-1	1.139566E-1	7.968952E-2	1.025655E-1	9.440590E-2	9.415882E-2	9.476996E-2	9.547318E-2	8.622587E-2	9.127738E-2	1.015894E-1	1.049532E-1	1.023654E-1	8.424563E-2	9.528197E-2	9.517572E-2	9.830945E-2	9.522969E-2	9.812157E-2	9.430077E-2	8.813783E-2	9.917055E-2	8.520450E-2	8.345094E-2	8.409847E-2	9.708777E-2	9.713821E-2	9.424218E-2	1.014361E-1	8.504645E-2	9.021453E-2	9.792518E-2	9.340218E-2	9.031636E-2	9.050213E-2	9.239321E-2	6.601258E-2	1.156801E-1	8.246173E-2	7.970516E-2	9.806560E-2	8.224882E-2	8.570581E-2	9.282811E-2	8.440741E-2	8.350128E-2	1.095147E-1	9.859326E-2	1.146761E-1	8.322316E-2	8.896231E-2	8.164485E-2	1.122201E-1	9.810178E-2	1.069377E-1	8.086083E-2	8.788097E-2	8.376256E-2	1.106401E-1	1.172480E-1	9.876223E-2	8.721479E-2	8.111011E-2	1.015405E-1	9.521196E-2	8.845858E-2	9.786504E-2	8.699743E-2	8.424222E-2	9.523528E-2	8.686318E-2	1.018675E-1	9.653638E-2	9.065737E-2	1.029047E-1	8.528363E-2	8.070757E-2	9.145143E-2	1.076101E-1	9.246540E-2	7.519859E-2	8.558935E-2	8.582716E-2	1.021885E-1	7.785854E-2	9.957688E-2	9.114046E-2	8.523223E-2	9.027399E-2	8.797894E-2	9.069262E-2	9.755865E-2	8.619478E-2	8.477912E-2	8.631998E-2	8.870027E-2	1.026400E-1	7.856207E-2	8.539961E-2	9.718855E-2	9.606360E-2	6.868884E-2	7.550928E-2	8.562866E-2	9.785752E-2	1.001716E-1	9.812940E-2	9.328113E-2	9.606649E-2	9.345406E-2	8.735004E-2	9.254890E-2	9.272160E-2	1.022186E-1	1.036910E-1	8.274096E-2	8.995286E-2	9.279762E-2	8.321920E-2	1.153159E-1	8.376413E-2	7.952813E-2	8.493271E-2	9.012148E-2	1.059280E-1	1.045316E-1	9.330803E-2	1.085967E-1	8.432577E-2	1.141457E-1	8.074404E-2	9.807144E-2	9.223961E-2	8.668730E-2	8.621961E-2	1.000145E-1	8.766510E-2
5.342090E+2	1.223857E-1	1.323830E-1	1.475068E-1	1.331429E-1	1.440235E-1	1.141369E-1	1.361179E-1	1.291091E-1	1.511566E-1	1.283723E-1	1.147194E-1	1.257665E-1	1.412278E-1	1.456606E-1	1.273561E-1	1.380204E-1	2.292104E-1	1.490579E-1	1.602286E-1	1.518651E-1	1.476136E-1	1.623550E-1	1.416164E-1	1.386559E-1	1.484360E-1	1.338079E-1	1.544513E-1	1.399828E-1	1.523177E-1	1.319388E-1	1.491114E-1	1.398037E-1	1.572667E-1	1.238164E-1	1.474674E-1	1.494562E-1	1.552610E-1	1.286212E-1	1.423891E-1	1.266345E-1	1.536579E-1	1.377677E-1	1.484630E-1	1.481720E-1	1.413794E-1	1.541903E-1	1.377232E-1	1.388352E-1	1.660816E-1	1.601872E-1	1.462317E-1	1.410035E-1	1.318270E-1	1.555061E-1	1.305092E-1	1.168005E-1	1.428356E-1	1.388260E-1	1.623412E-1	1.372869E-1	1.345787E-1	1.400706E-1	1.326766E-1	1.273137E-1	1.677848E-1	1.436957E-1	1.544079E-1	1.248438E-1	1.593310E-1	1.368435E-1	1.395274E-1	1.498343E-1	1.359674E-1	1.227957E-1	1.485563E-1	1.015611E-1	1.502455E-1	1.245041E-1	1.210365E-1	1.370809E-1	1.432526E-1	1.556626E-1	1.419311E-1	1.374390E-1	1.517491E-1	1.220173E-1	1.382375E-1	1.410862E-1	1.548254E-1	1.719202E-1	1.475151E-1	1.330498E-1	1.538689E-1	1.542714E-1	1.461420E-1	1.521591E-1	1.411280E-1	1.324150E-1	1.546832E-1	1.243054E-1	1.524542E-1	1.581901E-1	1.512283E-1	1.357906E-1	1.370694E-1	1.489062E-1	1.421504E-1	1.392286E-1	1.603180E-1	1.407507E-1	1.313212E-1	1.304775E-1	1.494032E-1	1.439533E-1	1.330972E-1	1.039854E-1	1.159693E-1	1.263153E-1	1.474086E-1	1.442696E-1	1.338831E-1	1.361720E-1	1.310777E-1	1.307175E-1	1.302914E-1	1.574686E-1	1.540905E-1	1.425726E-1	1.744422E-1	1.369050E-1	1.485345E-1	1.522272E-1	1.437933E-1	1.367258E-1	1.324672E-1	1.383627E-1	1.459788E-1	1.454422E-1	1.345469E-1	1.533083E-1	1.519978E-1	1.440520E-1	1.435359E-1	1.314957E-1	1.362300E-1	1.337450E-1	1.381775E-1	1.304234E-1	1.159669E-1	1.424037E-1	1.353375E-1	1.578615E-1	1.541304E-1	1.366539E-1	1.458702E-1	1.350927E-1	1.470006E-1	1.255490E-1	1.339790E-1	1.579717E-1	1.277008E-1	1.437558E-1	1.236847E-1	1.393992E-1	1.565742E-1
5.343550E+2	2.138062E-1	2.224954E-1	2.416596E-1	2.324851E-1	1.905205E-1	2.118235E-1	2.256196E-1	2.257903E-1	2.082934E-1	2.203377E-1	2.140355E-1	2.171968E-1	2.176644E-1	2.243728E-1	2.145807E-1	2.205203E-1	3.230257E-1	2.875980E-1	2.776899E-1	2.603506E-1	2.780535E-1	2.431875E-1	2.328615E-1	2.597664E-1	2.706067E-1	2.421779E-1	2.441852E-1	2.405776E-1	2.624743E-1	2.485402E-1	2.357085E-1	2.373187E-1	2.419617E-1	2.146048E-1	2.283941E-1	2.382447E-1	2.245761E-1	2.204000E-1	2.290259E-1	2.093273E-1	2.528822E-1	2.111146E-1	2.451484E-1	2.392318E-1	2.188800E-1	2.382967E-1	2.314290E-1	2.409927E-1	2.291698E-1	2.322671E-1	2.452435E-1	2.249019E-1	2.109154E-1	2.298488E-1	2.382135E-1	2.279924E-1	2.240911E-1	2.063903E-1	2.250351E-1	2.314120E-1	2.368790E-1	2.400165E-1	2.300542E-1	2.314403E-1	2.394239E-1	2.295994E-1	2.470811E-1	2.180754E-1	2.388141E-1	2.459788E-1	2.431317E-1	2.302163E-1	2.126447E-1	2.228294E-1	2.180121E-1	2.121722E-1	2.169061E-1	2.239754E-1	2.068043E-1	2.427140E-1	2.427061E-1	2.072233E-1	2.140486E-1	2.384617E-1	2.190129E-1	2.277399E-1	2.260114E-1	2.195370E-1	2.616922E-1	2.301212E-1	2.321479E-1	2.156671E-1	2.302711E-1	2.235644E-1	2.278070E-1	2.249926E-1	2.261923E-1	2.047268E-1	2.133078E-1	2.569483E-1	2.367185E-1	2.254201E-1	2.198034E-1	2.367216E-1	2.421400E-1	2.269603E-1	2.290090E-1	2.278018E-1	2.156451E-1	2.241787E-1	2.040923E-1	2.049383E-1	2.416251E-1	2.483898E-1	2.233447E-1	2.164833E-1	2.683755E-1	2.267828E-1	2.271566E-1	2.350863E-1	2.330274E-1	2.327581E-1	2.285000E-1	2.361067E-1	2.619623E-1	1.922656E-1	2.294905E-1	2.114982E-1	2.075686E-1	2.111869E-1	2.181356E-1	2.453861E-1	2.330244E-1	2.337526E-1	2.187571E-1	2.480241E-1	2.123819E-1	2.096949E-1	2.288891E-1	2.276304E-1	2.243788E-1	2.297533E-1	2.061049E-1	2.109916E-1	2.267449E-1	2.064037E-1	2.206257E-1	2.236089E-1	2.511825E-1	2.190289E-1	2.505385E-1	2.160811E-1	2.353265E-1	2.392193E-1	2.594271E-1	2.559167E-1	2.295505E-1	2.228174E-1	2.356101E-1	2.020052E-1	2.234438E-1	2.325998E-1	2.503734E-1	2.050021E-1	2.807569E-1
5.345050E+2	3.658691E-1	3.656916E-1	3.488636E-1	3.795405E-1	3.562001E-1	3.738977E-1	3.719803E-1	3.789727E-1	3.650829E-1	3.897117E-1	3.859592E-1	3.864293E-1	3.852488E-1	3.729909E-1	3.912916E-1	3.713881E-1	5.408081E-1	5.036414E-1	4.604762E-1	4.404356E-1	4.540798E-1	4.585152E-1	4.167820E-1	4.187949E-1	4.252887E-1	4.277390E-1	4.076316E-1	4.096688E-1	3.855688E-1	3.844734E-1	4.221014E-1	3.812813E-1	4.203429E-1	3.936165E-1	3.588532E-1	3.718287E-1	4.232902E-1	4.048147E-1	4.358951E-1	3.879659E-1	4.258911E-1	3.994844E-1	4.168337E-1	3.948830E-1	3.883948E-1	4.055533E-1	3.928536E-1	4.043193E-1	3.769805E-1	3.777453E-1	4.034521E-1	4.098932E-1	3.838309E-1	3.925598E-1	3.972833E-1	4.096774E-1	3.934434E-1	4.018498E-1	3.985407E-1	4.303938E-1	4.160414E-1	4.164806E-1	3.630280E-1	3.883615E-1	4.060934E-1	3.893792E-1	4.302490E-1	3.894690E-1	4.236068E-1	4.018465E-1	3.827508E-1	3.723514E-1	4.183318E-1	3.842004E-1	3.971577E-1	3.956714E-1	3.944734E-1	3.913387E-1	3.999777E-1	3.833993E-1	3.923719E-1	3.864062E-1	3.930994E-1	4.032115E-1	4.186226E-1	3.641717E-1	3.780515E-1	4.033686E-1	4.075123E-1	3.878987E-1	3.842374E-1	4.035890E-1	4.042216E-1	3.610782E-1	4.016369E-1	4.009716E-1	3.939573E-1	4.057942E-1	3.812230E-1	3.891150E-1	4.083903E-1	3.942436E-1	3.984230E-1	3.822748E-1	3.970362E-1	4.305881E-1	3.982967E-1	3.997383E-1	3.742122E-1	3.853222E-1	4.077971E-1	3.849557E-1	3.698739E-1	3.847284E-1	3.797109E-1	3.950462E-1	4.263042E-1	3.741591E-1	3.867758E-1	3.961403E-1	3.732736E-1	3.848001E-1	4.199063E-1	4.013259E-1	3.861792E-1	3.737021E-1	3.891110E-1	4.001478E-1	4.028360E-1	3.863302E-1	3.824008E-1	3.949495E-1	4.048748E-1	4.076364E-1	4.181923E-1	3.992608E-1	4.316486E-1	3.557843E-1	4.114959E-1	3.824344E-1	3.967400E-1	3.828700E-1	4.035908E-1	3.863467E-1	3.913336E-1	3.936431E-1	3.781310E-1	3.897436E-1	4.127506E-1	3.976007E-1	3.999430E-1	3.960647E-1	4.003978E-1	4.050681E-1	4.077600E-1	3.606486E-1	4.289982E-1	4.178147E-1	3.785078E-1	3.871942E-1	3.981417E-1	3.441837E-1	3.947860E-1	4.075199E-1	3.710447E-1
5.346870E+2	6.427591E-1	6.592355E-1	7.252230E-1	6.803645E-1	7.147587E-1	6.530865E-1	6.635010E-1	6.613066E-1	6.745220E-1	6.965222E-1	6.688746E-1	6.746247E-1	6.769969E-1	6.776693E-1	6.901081E-1	6.491439E-1	8.570895E-1	8.270467E-1	7.585920E-1	7.579834E-1	7.659051E-1	7.543701E-1	7.758798E-1	6.871515E-1	7.437840E-1	6.953795E-1	7.462017E-1	7.275999E-1	7.382805E-1	7.105949E-1	7.129076E-1	6.866456E-1	7.610186E-1	6.700051E-1	6.803649E-1	6.529524E-1	6.759558E-1	7.207514E-1	6.556432E-1	6.918482E-1	7.243992E-1	7.157704E-1	7.178125E-1	6.873872E-1	7.044666E-1	7.112077E-1	7.009619E-1	7.051192E-1	7.143138E-1	7.378429E-1	7.231868E-1	6.744298E-1	6.812441E-1	7.119360E-1	7.335258E-1	7.084994E-1	6.980311E-1	6.997481E-1	6.453705E-1	6.744218E-1	6.621979E-1	6.556693E-1	7.042529E-1	6.737919E-1	6.996592E-1	6.691158E-1	6.687672E-1	6.564965E-1	7.272352E-1	7.053029E-1	6.826057E-1	7.026607E-1	7.053806E-1	6.768414E-1	7.166210E-1	7.194606E-1	6.591096E-1	6.845530E-1	6.837179E-1	6.896138E-1	7.078420E-1	6.905560E-1	6.947630E-1	7.109630E-1	7.073048E-1	7.112264E-1	7.106679E-1	6.820151E-1	7.060456E-1	6.709634E-1	7.268894E-1	7.045834E-1	6.925995E-1	6.377766E-1	6.643438E-1	6.811540E-1	6.960530E-1	7.155204E-1	6.827577E-1	7.030886E-1	7.056376E-1	7.456808E-1	7.179913E-1	7.193085E-1	6.706939E-1	7.357487E-1	6.963213E-1	7.007033E-1	7.074767E-1	6.990209E-1	7.037444E-1	6.589555E-1	6.807953E-1	6.753245E-1	6.648355E-1	6.692826E-1	7.270098E-1	6.822390E-1	6.618876E-1	6.702692E-1	7.129862E-1	6.850890E-1	6.744122E-1	7.152068E-1	7.014114E-1	6.604849E-1	7.006627E-1	7.347280E-1	7.192940E-1	6.737745E-1	6.837235E-1	6.596290E-1	7.342110E-1	7.253696E-1	7.061392E-1	6.757558E-1	7.280255E-1	6.796062E-1	6.319095E-1	6.674177E-1	7.114935E-1	6.737313E-1	7.031038E-1	6.835715E-1	6.928797E-1	7.059306E-1	6.793674E-1	6.973174E-1	7.227036E-1	6.852915E-1	7.017675E-1	7.265461E-1	7.331265E-1	6.483135E-1	6.915886E-1	7.023387E-1	6.877859E-1	6.807609E-1	7.245281E-1	6.902165E-1	7.346250E-1	6.799682E-1	6.917053E-1	7.716931E-1	6.831599E-1
5.348070E+2	9.466952E-1	9.300321E-1	9.534605E-1	9.553220E-1	1.008912E+0	9.578709E-1	1.000849E+0	9.837264E-1	9.781845E-1	9.701062E-1	9.620835E-1	9.869678E-1	9.470693E-1	9.707950E-1	9.712283E-1	9.582727E-1	1.098883E+0	1.077710E+0	1.032859E+0	1.022168E+0	1.067158E+0	1.098050E+0	1.048432E+0	1.015835E+0	1.093945E+0	1.064311E+0	1.068544E+0	1.030252E+0	1.112878E+0	9.806565E-1	9.737490E-1	9.666075E-1	1.082995E+0	9.910915E-1	1.001255E+0	9.729648E-1	1.041863E+0	1.039957E+0	9.885141E-1	9.784582E-1	1.077686E+0	9.812899E-1	1.034685E+0	9.937731E-1	9.908167E-1	9.880731E-1	1.055590E+0	1.020708E+0	9.307591E-1	1.040843E+0	9.791741E-1	1.003872E+0	1.090219E+0	1.028802E+0	9.639685E-1	1.003446E+0	1.046924E+0	9.902065E-1	1.003964E+0	1.014305E+0	9.935466E-1	1.004186E+0	9.507400E-1	9.924695E-1	1.032756E+0	1.027489E+0	1.014508E+0	1.014275E+0	9.667937E-1	9.707727E-1	9.813488E-1	1.021609E+0	1.045341E+0	9.636616E-1	1.000996E+0	1.003456E+0	9.915453E-1	9.475411E-1	9.849831E-1	9.336587E-1	1.024238E+0	9.986636E-1	1.003194E+0	9.662233E-1	1.002122E+0	1.008610E+0	1.003355E+0	9.902711E-1	9.610410E-1	9.973346E-1	9.730346E-1	9.861416E-1	1.020399E+0	9.744910E-1	9.359172E-1	9.608952E-1	9.823640E-1	1.011518E+0	9.461838E-1	9.517368E-1	1.027407E+0	9.637458E-1	1.027328E+0	9.825113E-1	1.033176E+0	1.016423E+0	1.061162E+0	1.015226E+0	9.835440E-1	1.009428E+0	1.009814E+0	1.009657E+0	9.784479E-1	9.607642E-1	1.005440E+0	9.917258E-1	1.042756E+0	9.832309E-1	9.627144E-1	9.755210E-1	9.897368E-1	1.016371E+0	9.714228E-1	9.882854E-1	9.795428E-1	9.863222E-1	9.888813E-1	9.922345E-1	1.003526E+0	9.699841E-1	9.623880E-1	1.019997E+0	1.015852E+0	9.687470E-1	1.003269E+0	9.914655E-1	1.025561E+0	9.960487E-1	9.323373E-1	9.950419E-1	1.019448E+0	9.736187E-1	1.004395E+0	9.531454E-1	1.000155E+0	1.006219E+0	9.970246E-1	9.572481E-1	9.595318E-1	1.035376E+0	1.031036E+0	9.799147E-1	9.827525E-1	9.708769E-1	9.772708E-1	9.781484E-1	9.574113E-1	9.599450E-1	9.853488E-1	9.803084E-1	1.004147E+0	9.962796E-1	1.023494E+0	1.020170E+0	1.030701E+0
5.349630E+2	1.375792E+0	1.357734E+0	1.410270E+0	1.329185E+0	1.396610E+0	1.394508E+0	1.408280E+0	1.364002E+0	1.373323E+0	1.437282E+0	1.422948E+0	1.311479E+0	1.427456E+0	1.368615E+0	1.420269E+0	1.459784E+0	1.567745E+0	1.460272E+0	1.477093E+0	1.461786E+0	1.478825E+0	1.437043E+0	1.428467E+0	1.441324E+0	1.496361E+0	1.492247E+0	1.425257E+0	1.509592E+0	1.474244E+0	1.407699E+0	1.438294E+0	1.432553E+0	1.453610E+0	1.398048E+0	1.504110E+0	1.413884E+0	1.423578E+0	1.387517E+0	1.422248E+0	1.452420E+0	1.443974E+0	1.483884E+0	1.492287E+0	1.482228E+0	1.430089E+0	1.443166E+0	1.435196E+0	1.402537E+0	1.460171E+0	1.388845E+0	1.467225E+0	1.363929E+0	1.429165E+0	1.398266E+0	1.449163E+0	1.421549E+0	1.465355E+0	1.412819E+0	1.396480E+0	1.469971E+0	1.483877E+0	1.410428E+0	1.384259E+0	1.402018E+0	1.429034E+0	1.460887E+0	1.433068E+0	1.441137E+0	1.420451E+0	1.381994E+0	1.438022E+0	1.485013E+0	1.422214E+0	1.392618E+0	1.413520E+0	1.467715E+0	1.395135E+0	1.376782E+0	1.415373E+0	1.421375E+0	1.434282E+0	1.380920E+0	1.432542E+0	1.421524E+0	1.483202E+0	1.364340E+0	1.415138E+0	1.445671E+0	1.478190E+0	1.381380E+0	1.447669E+0	1.365796E+0	1.391293E+0	1.401850E+0	1.292474E+0	1.406795E+0	1.447261E+0	1.418614E+0	1.400426E+0	1.445563E+0	1.428138E+0	1.430623E+0	1.417151E+0	1.492329E+0	1.400356E+0	1.384319E+0	1.392652E+0	1.417042E+0	1.389168E+0	1.353838E+0	1.386719E+0	1.386170E+0	1.444488E+0	1.376839E+0	1.467468E+0	1.425893E+0	1.420241E+0	1.400209E+0	1.377257E+0	1.390801E+0	1.432410E+0	1.424556E+0	1.408498E+0	1.480238E+0	1.387486E+0	1.358921E+0	1.347497E+0	1.402671E+0	1.418563E+0	1.392030E+0	1.365555E+0	1.428495E+0	1.401648E+0	1.415445E+0	1.428027E+0	1.434184E+0	1.437950E+0	1.346797E+0	1.391032E+0	1.373244E+0	1.423250E+0	1.363755E+0	1.344316E+0	1.345752E+0	1.411831E+0	1.462844E+0	1.396871E+0	1.396430E+0	1.421577E+0	1.415715E+0	1.401206E+0	1.427477E+0	1.510019E+0	1.408718E+0	1.466825E+0	1.428051E+0	1.432847E+0	1.368230E+0	1.386815E+0	1.392858E+0	1.435336E+0	1.406559E+0	1.428388E+0	1.440873E+0	1.418347E+0
5.351090E+2	1.836462E+0	1.797784E+0	1.785432E+0	1.787200E+0	1.742694E+0	1.768642E+0	1.762004E+0	1.726397E+0	1.767396E+0	1.769229E+0	1.807634E+0	1.727136E+0	1.745522E+0	1.769603E+0	1.756340E+0	1.736317E+0	1.791915E+0	1.852353E+0	1.754939E+0	1.767090E+0	1.752705E+0	1.775775E+0	1.745690E+0	1.736840E+0	1.810977E+0	1.827481E+0	1.855049E+0	1.729336E+0	1.780388E+0	1.774924E+0	1.725404E+0	1.758527E+0	1.767352E+0	1.733565E+0	1.735031E+0	1.694867E+0	1.743799E+0	1.783462E+0	1.794106E+0	1.712657E+0	1.851366E+0	1.763190E+0	1.779796E+0	1.781328E+0	1.785278E+0	1.762109E+0	1.759173E+0	1.714907E+0	1.859791E+0	1.779228E+0	1.748492E+0	1.714693E+0	1.722200E+0	1.774375E+0	1.765102E+0	1.833121E+0	1.756512E+0	1.779870E+0	1.765488E+0	1.824422E+0	1.736320E+0	1.732305E+0	1.722850E+0	1.711853E+0	1.757946E+0	1.739461E+0	1.737928E+0	1.740128E+0	1.794934E+0	1.676084E+0	1.692980E+0	1.783387E+0	1.788509E+0	1.774548E+0	1.723722E+0	1.798703E+0	1.689658E+0	1.710465E+0	1.735844E+0	1.698672E+0	1.806654E+0	1.669757E+0	1.761890E+0	1.692924E+0	1.777022E+0	1.691334E+0	1.813184E+0	1.757728E+0	1.755038E+0	1.741136E+0	1.733590E+0	1.741241E+0	1.760810E+0	1.732787E+0	1.661467E+0	1.693571E+0	1.773046E+0	1.709471E+0	1.754362E+0	1.763383E+0	1.832458E+0	1.735133E+0	1.792093E+0	1.734376E+0	1.715310E+0	1.695003E+0	1.750425E+0	1.684278E+0	1.715906E+0	1.712799E+0	1.680053E+0	1.631093E+0	1.771270E+0	1.692035E+0	1.761082E+0	1.734638E+0	1.769505E+0	1.788877E+0	1.650047E+0	1.750740E+0	1.724556E+0	1.821295E+0	1.783235E+0	1.755741E+0	1.714028E+0	1.679540E+0	1.728867E+0	1.700997E+0	1.693517E+0	1.676935E+0	1.719882E+0	1.726494E+0	1.718062E+0	1.703176E+0	1.728146E+0	1.739325E+0	1.740161E+0	1.704313E+0	1.649114E+0	1.713949E+0	1.745654E+0	1.721683E+0	1.683880E+0	1.716935E+0	1.745171E+0	1.687911E+0	1.697778E+0	1.703496E+0	1.720726E+0	1.698925E+0	1.686534E+0	1.677031E+0	1.767335E+0	1.692749E+0	1.731418E+0	1.800140E+0	1.718454E+0	1.682360E+0	1.634714E+0	1.726257E+0	1.711036E+0	1.707056E+0	1.767290E+0	1.755891E+0	1.619125E+0
5.352650E+2	2.095209E+0	1.958368E+0	2.051206E+0	2.029165E+0	2.007585E+0	2.029920E+0	2.054219E+0	2.029844E+0	1.959953E+0	2.079959E+0	1.985512E+0	1.992454E+0	2.051205E+0	2.010779E+0	2.008653E+0	2.036144E+0	1.937468E+0	1.945007E+0	1.971740E+0	1.930637E+0	1.959922E+0	2.008083E+0	1.995332E+0	1.964373E+0	1.996949E+0	1.996873E+0	2.109522E+0	2.009705E+0	2.036243E+0	2.031772E+0	1.977082E+0	2.029926E+0	2.010504E+0	1.998624E+0	1.945618E+0	1.918018E+0	1.963142E+0	2.001525E+0	1.987581E+0	1.955198E+0	2.014798E+0	1.975144E+0	2.037987E+0	2.013964E+0	2.004122E+0	1.908407E+0	1.927895E+0	1.981538E+0	2.016197E+0	1.952554E+0	2.025071E+0	1.957395E+0	1.995932E+0	1.994234E+0	1.984442E+0	2.002175E+0	2.002181E+0	1.946392E+0	2.025500E+0	2.036301E+0	1.963087E+0	1.951186E+0	1.970686E+0	1.971284E+0	2.012453E+0	1.965037E+0	1.991895E+0	1.975170E+0	1.969351E+0	1.995239E+0	1.942362E+0	1.998448E+0	2.025078E+0	1.952939E+0	1.974983E+0	2.011864E+0	1.945904E+0	1.889250E+0	2.009788E+0	1.923790E+0	2.034847E+0	1.925413E+0	2.027972E+0	2.018459E+0	1.993191E+0	2.018583E+0	1.931954E+0	1.976296E+0	1.927395E+0	1.967562E+0	2.023458E+0	1.900820E+0	1.956760E+0	1.929140E+0	1.913449E+0	1.928830E+0	1.976550E+0	1.955341E+0	1.948257E+0	1.987349E+0	1.965133E+0	1.973903E+0	2.035161E+0	1.977536E+0	1.949749E+0	1.959219E+0	2.028719E+0	1.910432E+0	1.910775E+0	1.973768E+0	1.896038E+0	1.853207E+0	1.939579E+0	1.950165E+0	1.987680E+0	2.001529E+0	1.968347E+0	1.925313E+0	1.907803E+0	1.976821E+0	1.989217E+0	1.943630E+0	1.965095E+0	2.044751E+0	1.896744E+0	1.910208E+0	1.906647E+0	1.929543E+0	1.944371E+0	1.873625E+0	1.923142E+0	1.987169E+0	1.970363E+0	1.951101E+0	1.925103E+0	1.937275E+0	1.944732E+0	1.922572E+0	1.875926E+0	1.912967E+0	1.983496E+0	1.947226E+0	1.979383E+0	1.910936E+0	1.951914E+0	1.865086E+0	1.935086E+0	1.942405E+0	1.948335E+0	1.879872E+0	1.949698E+0	1.937277E+0	2.029350E+0	1.912505E+0	1.985693E+0	1.964364E+0	1.937720E+0	1.866968E+0	1.963784E+0	1.902301E+0	1.988297E+0	1.936926E+0	1.946644E+0	2.006836E+0	1.937705E+0
5.354170E+2	2.066402E+0	1.980376E+0	2.006831E+0	1.918560E+0	1.981624E+0	2.072889E+0	2.078923E+0	1.993813E+0	1.996736E+0	2.034626E+0	2.016878E+0	2.044473E+0	2.043795E+0	1.940982E+0	2.067433E+0	1.966631E+0	1.904415E+0	1.949968E+0	1.944639E+0	1.903587E+0	1.955842E+0	1.909968E+0	1.991903E+0	1.970919E+0	2.010839E+0	2.043753E+0	2.062491E+0	1.994015E+0	1.994824E+0	1.975997E+0	1.992111E+0	1.913090E+0	2.095165E+0	1.941981E+0	1.924462E+0	1.966697E+0	1.939539E+0	2.004223E+0	1.993880E+0	1.993817E+0	1.965187E+0	1.958698E+0	1.995228E+0	1.956267E+0	1.965272E+0	1.975788E+0	1.953809E+0	1.920978E+0	1.947811E+0	1.968299E+0	1.924603E+0	1.953128E+0	2.024514E+0	2.047023E+0	1.998099E+0	1.934852E+0	1.936486E+0	2.022715E+0	2.025747E+0	2.087944E+0	2.032178E+0	1.915771E+0	2.016908E+0	1.918585E+0	1.992114E+0	1.950758E+0	1.933262E+0	1.953446E+0	1.996335E+0	1.920945E+0	1.923467E+0	1.990844E+0	1.955836E+0	1.970044E+0	1.949957E+0	1.968244E+0	1.963381E+0	1.890615E+0	1.947134E+0	1.942820E+0	1.999810E+0	1.944705E+0	1.959518E+0	1.986985E+0	2.010268E+0	1.953600E+0	1.985869E+0	1.895861E+0	1.963555E+0	1.981322E+0	1.971432E+0	1.887892E+0	1.968356E+0	1.949438E+0	1.913097E+0	1.925740E+0	2.028815E+0	1.920847E+0	1.997252E+0	1.948268E+0	1.939515E+0	1.947627E+0	1.975513E+0	2.018750E+0	1.858363E+0	1.998256E+0	1.970148E+0	1.936992E+0	1.917934E+0	1.938772E+0	1.948410E+0	1.885077E+0	1.973298E+0	1.924864E+0	1.970475E+0	1.880731E+0	1.931771E+0	1.983393E+0	1.951980E+0	1.954015E+0	1.945723E+0	1.861547E+0	1.898040E+0	1.922179E+0	1.929213E+0	1.890880E+0	1.933716E+0	1.930074E+0	1.942079E+0	1.890594E+0	1.925094E+0	1.900219E+0	1.870593E+0	1.948593E+0	1.915493E+0	1.966326E+0	2.009488E+0	1.953096E+0	1.901996E+0	1.945346E+0	1.947377E+0	1.926626E+0	1.986781E+0	1.880148E+0	1.966036E+0	1.877326E+0	1.900887E+0	1.929766E+0	1.882635E+0	1.942315E+0	1.962081E+0	1.946156E+0	1.914910E+0	1.837638E+0	2.019819E+0	1.944279E+0	1.905366E+0	1.960225E+0	1.873965E+0	1.992218E+0	1.951375E+0	1.956260E+0	1.940441E+0	1.820149E+0	1.910140E+0
5.355630E+2	1.841996E+0	1.894232E+0	1.875929E+0	1.873974E+0	1.865011E+0	1.923915E+0	1.890481E+0	1.839829E+0	1.885230E+0	1.845354E+0	1.874578E+0	1.865872E+0	1.909343E+0	1.868540E+0	1.877296E+0	1.886113E+0	1.768588E+0	1.858721E+0	1.862844E+0	1.785592E+0	1.780368E+0	1.898800E+0	1.823814E+0	1.818907E+0	1.928580E+0	1.904482E+0	1.841707E+0	1.867526E+0	1.840810E+0	1.840057E+0	1.853245E+0	1.798389E+0	1.906751E+0	1.825069E+0	1.904265E+0	1.835470E+0	1.840513E+0	1.920842E+0	1.888058E+0	1.846021E+0	1.857158E+0	1.894504E+0	1.874239E+0	1.861665E+0	1.828165E+0	1.817496E+0	1.811912E+0	1.788340E+0	1.862336E+0	1.912779E+0	1.813558E+0	1.851309E+0	1.806494E+0	1.963953E+0	1.902336E+0	1.906583E+0	1.838516E+0	1.882280E+0	1.826618E+0	1.913253E+0	1.835670E+0	1.811497E+0	1.848792E+0	1.861659E+0	1.884514E+0	1.852279E+0	1.842899E+0	1.802661E+0	1.842340E+0	1.769164E+0	1.843563E+0	1.814888E+0	1.850333E+0	1.800205E+0	1.816448E+0	1.842673E+0	1.830064E+0	1.768817E+0	1.828909E+0	1.800261E+0	1.859239E+0	1.857670E+0	1.833033E+0	1.837185E+0	1.907296E+0	1.879180E+0	1.845009E+0	1.838992E+0	1.834640E+0	1.833336E+0	1.776287E+0	1.861130E+0	1.844010E+0	1.744648E+0	1.795935E+0	1.836293E+0	1.849007E+0	1.869951E+0	1.860253E+0	1.864091E+0	1.809084E+0	1.864381E+0	1.885007E+0	1.840850E+0	1.765299E+0	1.835681E+0	1.793865E+0	1.780373E+0	1.785157E+0	1.877971E+0	1.801827E+0	1.817479E+0	1.841081E+0	1.754948E+0	1.865854E+0	1.843771E+0	1.846314E+0	1.846585E+0	1.762429E+0	1.897116E+0	1.784927E+0	1.795669E+0	1.800637E+0	1.890044E+0	1.804044E+0	1.751741E+0	1.834745E+0	1.793994E+0	1.792695E+0	1.764550E+0	1.773459E+0	1.806746E+0	1.805437E+0	1.767395E+0	1.864653E+0	1.871620E+0	1.845887E+0	1.836179E+0	1.725931E+0	1.800021E+0	1.841665E+0	1.738823E+0	1.778408E+0	1.824651E+0	1.836193E+0	1.818549E+0	1.750993E+0	1.756326E+0	1.847670E+0	1.772582E+0	1.811268E+0	1.830667E+0	1.760411E+0	1.796548E+0	1.885441E+0	1.845446E+0	1.801480E+0	1.803203E+0	1.821216E+0	1.824627E+0	1.878063E+0	1.780549E+0	1.765627E+0	1.747131E+0	1.828409E+0
5.357090E+2	1.642176E+0	1.613004E+0	1.736886E+0	1.679367E+0	1.641330E+0	1.736355E+0	1.686054E+0	1.702798E+0	1.654005E+0	1.672441E+0	1.674889E+0	1.682496E+0	1.680730E+0	1.687029E+0	1.673955E+0	1.675893E+0	1.572367E+0	1.648281E+0	1.600518E+0	1.607803E+0	1.630043E+0	1.737985E+0	1.649070E+0	1.631650E+0	1.627153E+0	1.737410E+0	1.659805E+0	1.697278E+0	1.632983E+0	1.688326E+0	1.614260E+0	1.625086E+0	1.710144E+0	1.587357E+0	1.666625E+0	1.646992E+0	1.705163E+0	1.625880E+0	1.658371E+0	1.642493E+0	1.663503E+0	1.667611E+0	1.611324E+0	1.648177E+0	1.656215E+0	1.629347E+0	1.655351E+0	1.618770E+0	1.695050E+0	1.741556E+0	1.607428E+0	1.633032E+0	1.678882E+0	1.734026E+0	1.635846E+0	1.602723E+0	1.687194E+0	1.607876E+0	1.661162E+0	1.639460E+0	1.611951E+0	1.666514E+0	1.614922E+0	1.643807E+0	1.674066E+0	1.614020E+0	1.673369E+0	1.701331E+0	1.649555E+0	1.605977E+0	1.692874E+0	1.676087E+0	1.655332E+0	1.592304E+0	1.683663E+0	1.670951E+0	1.608546E+0	1.583190E+0	1.632881E+0	1.636820E+0	1.695857E+0	1.635248E+0	1.669243E+0	1.585977E+0	1.627479E+0	1.635501E+0	1.682243E+0	1.658474E+0	1.652601E+0	1.679338E+0	1.674962E+0	1.635703E+0	1.603578E+0	1.610316E+0	1.635989E+0	1.668452E+0	1.703799E+0	1.584213E+0	1.641208E+0	1.657313E+0	1.612233E+0	1.686008E+0	1.666443E+0	1.692385E+0	1.616955E+0	1.682558E+0	1.620538E+0	1.623844E+0	1.625554E+0	1.619183E+0	1.621646E+0	1.605319E+0	1.621297E+0	1.634526E+0	1.641930E+0	1.692040E+0	1.655635E+0	1.609450E+0	1.605146E+0	1.625900E+0	1.570766E+0	1.603707E+0	1.698322E+0	1.656034E+0	1.677721E+0	1.641497E+0	1.660389E+0	1.613526E+0	1.597827E+0	1.605415E+0	1.659833E+0	1.607632E+0	1.658419E+0	1.630278E+0	1.574204E+0	1.677518E+0	1.566538E+0	1.579328E+0	1.611687E+0	1.643620E+0	1.646860E+0	1.632952E+0	1.599138E+0	1.570885E+0	1.592564E+0	1.628095E+0	1.627020E+0	1.608001E+0	1.596625E+0	1.631584E+0	1.610486E+0	1.592638E+0	1.585842E+0	1.684727E+0	1.650179E+0	1.632490E+0	1.570610E+0	1.665719E+0	1.597040E+0	1.580392E+0	1.694763E+0	1.629129E+0	1.626248E+0	1.626784E+0	1.738729E+0
5.358550E+2	1.561018E+0	1.488993E+0	1.454856E+0	1.459421E+0	1.471658E+0	1.535345E+0	1.538236E+0	1.455129E+0	1.421626E+0	1.409990E+0	1.464622E+0	1.421582E+0	1.457443E+0	1.561396E+0	1.465582E+0	1.435200E+0	1.479585E+0	1.434931E+0	1.403669E+0	1.399669E+0	1.434231E+0	1.476204E+0	1.435685E+0	1.409866E+0	1.460923E+0	1.530607E+0	1.501245E+0	1.512124E+0	1.497950E+0	1.442656E+0	1.490826E+0	1.474033E+0	1.534201E+0	1.449331E+0	1.482555E+0	1.518625E+0	1.456658E+0	1.465319E+0	1.497635E+0	1.490503E+0	1.535500E+0	1.425984E+0	1.514345E+0	1.479415E+0	1.480293E+0	1.422391E+0	1.470210E+0	1.451456E+0	1.501888E+0	1.464075E+0	1.526598E+0	1.401888E+0	1.440364E+0	1.465812E+0	1.480697E+0	1.429778E+0	1.492543E+0	1.435569E+0	1.404446E+0	1.496366E+0	1.494928E+0	1.393468E+0	1.433485E+0	1.417656E+0	1.458835E+0	1.462698E+0	1.454609E+0	1.474114E+0	1.491626E+0	1.451332E+0	1.468784E+0	1.490048E+0	1.447249E+0	1.409637E+0	1.461794E+0	1.478905E+0	1.419010E+0	1.440771E+0	1.508342E+0	1.478167E+0	1.468506E+0	1.412010E+0	1.428372E+0	1.412680E+0	1.480568E+0	1.420466E+0	1.472082E+0	1.497855E+0	1.469171E+0	1.512203E+0	1.435224E+0	1.484045E+0	1.423801E+0	1.392240E+0	1.464382E+0	1.432118E+0	1.446731E+0	1.455207E+0	1.431576E+0	1.430864E+0	1.453417E+0	1.456392E+0	1.421271E+0	1.475498E+0	1.366326E+0	1.477665E+0	1.407153E+0	1.453260E+0	1.475798E+0	1.460720E+0	1.436184E+0	1.427315E+0	1.427322E+0	1.474552E+0	1.491573E+0	1.464580E+0	1.507917E+0	1.436997E+0	1.381421E+0	1.459575E+0	1.450786E+0	1.428684E+0	1.458385E+0	1.468151E+0	1.412936E+0	1.463758E+0	1.443168E+0	1.440514E+0	1.463390E+0	1.420132E+0	1.461339E+0	1.467733E+0	1.439334E+0	1.437851E+0	1.416846E+0	1.452823E+0	1.438428E+0	1.500494E+0	1.464490E+0	1.466581E+0	1.506532E+0	1.422710E+0	1.432766E+0	1.395423E+0	1.460137E+0	1.444215E+0	1.424531E+0	1.459574E+0	1.469125E+0	1.434049E+0	1.465743E+0	1.491319E+0	1.448051E+0	1.426295E+0	1.465358E+0	1.422671E+0	1.418563E+0	1.463238E+0	1.429347E+0	1.470497E+0	1.439136E+0	1.413813E+0	1.456878E+0	1.436048E+0	1.554374E+0
5.360170E+2	1.268757E+0	1.222644E+0	1.237167E+0	1.241811E+0	1.229641E+0	1.277897E+0	1.252295E+0	1.214481E+0	1.215910E+0	1.261944E+0	1.203219E+0	1.174810E+0	1.234379E+0	1.181585E+0	1.240213E+0	1.172604E+0	1.239829E+0	1.207664E+0	1.201710E+0	1.147692E+0	1.204780E+0	1.248108E+0	1.224260E+0	1.187141E+0	1.230116E+0	1.269845E+0	1.203779E+0	1.258834E+0	1.218573E+0	1.217253E+0	1.257877E+0	1.189123E+0	1.273164E+0	1.211259E+0	1.253810E+0	1.150962E+0	1.246695E+0	1.221107E+0	1.233240E+0	1.198664E+0	1.190883E+0	1.251854E+0	1.242029E+0	1.279882E+0	1.216560E+0	1.235066E+0	1.235763E+0	1.166974E+0	1.166260E+0	1.169312E+0	1.247084E+0	1.215216E+0	1.252492E+0	1.255292E+0	1.156642E+0	1.161106E+0	1.197861E+0	1.214118E+0	1.239309E+0	1.225810E+0	1.217234E+0	1.183392E+0	1.173317E+0	1.240903E+0	1.227156E+0	1.266840E+0	1.215655E+0	1.155236E+0	1.201640E+0	1.225818E+0	1.199778E+0	1.219385E+0	1.253089E+0	1.167558E+0	1.173333E+0	1.260955E+0	1.183567E+0	1.180164E+0	1.213162E+0	1.173889E+0	1.261038E+0	1.165553E+0	1.212856E+0	1.189419E+0	1.233691E+0	1.162600E+0	1.201708E+0	1.159338E+0	1.196949E+0	1.193371E+0	1.211245E+0	1.160702E+0	1.225388E+0	1.161289E+0	1.153363E+0	1.221967E+0	1.224080E+0	1.214823E+0	1.248986E+0	1.204370E+0	1.213268E+0	1.239795E+0	1.258367E+0	1.248714E+0	1.208821E+0	1.238335E+0	1.166898E+0	1.180074E+0	1.253254E+0	1.200107E+0	1.183421E+0	1.213763E+0	1.208466E+0	1.202284E+0	1.233982E+0	1.240355E+0	1.223489E+0	1.202930E+0	1.187483E+0	1.229041E+0	1.188123E+0	1.213936E+0	1.210996E+0	1.217399E+0	1.206885E+0	1.210117E+0	1.133750E+0	1.230060E+0	1.241660E+0	1.176909E+0	1.194009E+0	1.198734E+0	1.188183E+0	1.240249E+0	1.179505E+0	1.224842E+0	1.206415E+0	1.217372E+0	1.203165E+0	1.228762E+0	1.232744E+0	1.235702E+0	1.226981E+0	1.236001E+0	1.174121E+0	1.177969E+0	1.214114E+0	1.195327E+0	1.200416E+0	1.189045E+0	1.203129E+0	1.228001E+0	1.216303E+0	1.221040E+0	1.240104E+0	1.258088E+0	1.237747E+0	1.201586E+0	1.199449E+0	1.183827E+0	1.242231E+0	1.206871E+0	1.260069E+0	1.191141E+0	1.189203E+0
5.362580E+2	8.621668E-1	8.999525E-1	8.948844E-1	8.834368E-1	8.989842E-1	9.155594E-1	8.909265E-1	9.188431E-1	9.351085E-1	9.374255E-1	8.958773E-1	9.226507E-1	9.467415E-1	9.292754E-1	9.270789E-1	9.046473E-1	9.121480E-1	8.982963E-1	8.851154E-1	8.789718E-1	8.795616E-1	9.194116E-1	8.730875E-1	8.913276E-1	9.809353E-1	9.513664E-1	8.906370E-1	9.150272E-1	9.426729E-1	9.176692E-1	9.221919E-1	9.438803E-1	9.281542E-1	8.969783E-1	9.364760E-1	8.804835E-1	9.177717E-1	9.686539E-1	9.320253E-1	9.163557E-1	9.723211E-1	9.205097E-1	9.239718E-1	9.222102E-1	9.290438E-1	9.347270E-1	9.223364E-1	9.122613E-1	8.982995E-1	9.350116E-1	8.991809E-1	9.080774E-1	9.328313E-1	9.404528E-1	9.277820E-1	9.204783E-1	9.191200E-1	9.299212E-1	9.760927E-1	9.348397E-1	9.266554E-1	8.814773E-1	9.046957E-1	9.107925E-1	9.411179E-1	9.284870E-1	8.965491E-1	9.101562E-1	9.538711E-1	8.955746E-1	8.912830E-1	9.181972E-1	9.261805E-1	8.892442E-1	9.091756E-1	9.571669E-1	8.904049E-1	9.082866E-1	9.136308E-1	9.042071E-1	9.280248E-1	8.888766E-1	9.575183E-1	9.018730E-1	9.366680E-1	9.086334E-1	9.163941E-1	9.364443E-1	9.365042E-1	8.861369E-1	9.339404E-1	8.738692E-1	9.146640E-1	9.031691E-1	9.161951E-1	9.052811E-1	9.355759E-1	9.181978E-1	9.368127E-1	8.996589E-1	8.939901E-1	9.245236E-1	9.520987E-1	9.493940E-1	9.382375E-1	9.290694E-1	9.555678E-1	9.391602E-1	9.043952E-1	8.718018E-1	9.500426E-1	8.840226E-1	9.152389E-1	9.238373E-1	9.270288E-1	9.376126E-1	9.253327E-1	9.493499E-1	9.119019E-1	9.339764E-1	9.127481E-1	9.531805E-1	9.023740E-1	9.488628E-1	8.939624E-1	8.605408E-1	8.828925E-1	9.359747E-1	9.141806E-1	9.196487E-1	9.056931E-1	9.066245E-1	9.548860E-1	9.123778E-1	9.150043E-1	9.667173E-1	9.295145E-1	9.439090E-1	9.165843E-1	9.382041E-1	9.278977E-1	9.251766E-1	9.705272E-1	9.137446E-1	9.223025E-1	8.962920E-1	9.102287E-1	9.220563E-1	9.199824E-1	9.286155E-1	9.196244E-1	9.553612E-1	9.233286E-1	9.441157E-1	1.021286E+0	9.041697E-1	9.038244E-1	9.376109E-1	9.023943E-1	9.450688E-1	9.545593E-1	8.682433E-1	8.880827E-1	9.857797E-1	9.391045E-1
5.365090E+2	6.965392E-1	6.673297E-1	7.177294E-1	6.940281E-1	7.253046E-1	7.137714E-1	6.957731E-1	7.227019E-1	6.820691E-1	6.980270E-1	7.465175E-1	6.732564E-1	7.242653E-1	7.057486E-1	7.266399E-1	7.480684E-1	6.893280E-1	6.958582E-1	7.268322E-1	6.842744E-1	7.172547E-1	7.275503E-1	6.909384E-1	7.078614E-1	6.990861E-1	7.520595E-1	7.623745E-1	7.501645E-1	7.309549E-1	6.922610E-1	7.462052E-1	7.097856E-1	7.294700E-1	6.631578E-1	6.976975E-1	6.703245E-1	7.198838E-1	6.971165E-1	7.267441E-1	6.890968E-1	7.030222E-1	7.251029E-1	7.642453E-1	6.772030E-1	7.232897E-1	7.270606E-1	6.918458E-1	6.644614E-1	7.282418E-1	7.007839E-1	7.134146E-1	7.195554E-1	7.040107E-1	7.082663E-1	6.991559E-1	7.418598E-1	7.113938E-1	7.039085E-1	7.464953E-1	7.367026E-1	7.428795E-1	7.320769E-1	6.945024E-1	6.941438E-1	7.297495E-1	7.719357E-1	6.968756E-1	6.801298E-1	7.098057E-1	6.994655E-1	6.989684E-1	6.904166E-1	7.181990E-1	6.624558E-1	6.947126E-1	7.498341E-1	7.096254E-1	7.035345E-1	7.608989E-1	6.941414E-1	7.341385E-1	7.389982E-1	7.370759E-1	7.434048E-1	7.187204E-1	7.103070E-1	7.308504E-1	6.991029E-1	7.454698E-1	7.213693E-1	6.870210E-1	6.790511E-1	6.787303E-1	6.913279E-1	7.311237E-1	7.567376E-1	7.219013E-1	6.727915E-1	7.342794E-1	6.859905E-1	7.121682E-1	7.372361E-1	7.443543E-1	7.077228E-1	6.727109E-1	7.285505E-1	7.208636E-1	7.485067E-1	6.806834E-1	7.090552E-1	6.781011E-1	7.104115E-1	7.079944E-1	7.118550E-1	7.053142E-1	7.086924E-1	7.067004E-1	7.185048E-1	7.269291E-1	7.411105E-1	7.369970E-1	7.085485E-1	7.028653E-1	7.799436E-1	6.986545E-1	7.122039E-1	7.754257E-1	7.454630E-1	6.869369E-1	7.114557E-1	6.756208E-1	7.199370E-1	7.013882E-1	7.711335E-1	6.943133E-1	6.974880E-1	7.374684E-1	7.448657E-1	7.078287E-1	7.206588E-1	7.307153E-1	7.011859E-1	7.094701E-1	7.164439E-1	7.205541E-1	7.161804E-1	7.008684E-1	7.013339E-1	7.214966E-1	7.049825E-1	7.352383E-1	7.320493E-1	7.074961E-1	7.199335E-1	7.612376E-1	6.988948E-1	6.875587E-1	7.033026E-1	7.410681E-1	7.328837E-1	7.365738E-1	7.525273E-1	6.816852E-1	7.090140E-1	7.020931E-1
5.367600E+2	5.495756E-1	5.938739E-1	5.813269E-1	5.320427E-1	6.016239E-1	5.673965E-1	5.796602E-1	5.480958E-1	5.602638E-1	5.600025E-1	5.597480E-1	5.613971E-1	5.861753E-1	5.839635E-1	6.036049E-1	5.644228E-1	6.060512E-1	5.720720E-1	5.577466E-1	5.878034E-1	5.639498E-1	6.056876E-1	5.691570E-1	5.575860E-1	5.838820E-1	5.853630E-1	5.708556E-1	6.378174E-1	6.042287E-1	5.720592E-1	5.747341E-1	5.808344E-1	6.167839E-1	5.741095E-1	5.528754E-1	5.604444E-1	6.031520E-1	5.614656E-1	6.054556E-1	5.673637E-1	6.211803E-1	5.802105E-1	5.684176E-1	5.874525E-1	5.927742E-1	5.541846E-1	5.655225E-1	6.173210E-1	5.936080E-1	5.891436E-1	5.479109E-1	5.639203E-1	6.059712E-1	5.743649E-1	6.054259E-1	5.962470E-1	5.772487E-1	5.974305E-1	5.747394E-1	6.186330E-1	5.822417E-1	5.695845E-1	5.821447E-1	5.752749E-1	6.039722E-1	5.787278E-1	5.896386E-1	6.263122E-1	5.542051E-1	5.806147E-1	5.971051E-1	5.861116E-1	5.508794E-1	5.661751E-1	6.209619E-1	5.897705E-1	6.049165E-1	5.578264E-1	5.955799E-1	5.636556E-1	5.661472E-1	6.022182E-1	5.984202E-1	6.000223E-1	6.014498E-1	5.496276E-1	6.185134E-1	5.700323E-1	5.937352E-1	6.232373E-1	5.740595E-1	5.486210E-1	6.159220E-1	5.741852E-1	5.625609E-1	5.841038E-1	5.981721E-1	5.702004E-1	5.612534E-1	5.793834E-1	5.841951E-1	6.019569E-1	6.036328E-1	5.979148E-1	6.204099E-1	6.104390E-1	6.180532E-1	5.486728E-1	6.002157E-1	5.943633E-1	5.941840E-1	5.575749E-1	5.970685E-1	5.769705E-1	5.320364E-1	6.087983E-1	6.231920E-1	6.176051E-1	5.719230E-1	5.460330E-1	5.710767E-1	6.202382E-1	6.093820E-1	5.516888E-1	5.813002E-1	5.724954E-1	5.984203E-1	6.218193E-1	6.012844E-1	6.218867E-1	5.968819E-1	5.673729E-1	6.078092E-1	5.939360E-1	6.007441E-1	5.587516E-1	5.912568E-1	5.868518E-1	5.934645E-1	5.744556E-1	6.093856E-1	5.756665E-1	5.771816E-1	5.861315E-1	6.006734E-1	5.652310E-1	6.172340E-1	5.581789E-1	6.141408E-1	5.860782E-1	6.465514E-1	5.900623E-1	6.044212E-1	5.987881E-1	6.193750E-1	5.970099E-1	6.039891E-1	5.818141E-1	6.322014E-1	5.932082E-1	5.862271E-1	5.987508E-1	6.231410E-1	6.727210E-1	4.983742E-1
5.370280E+2	5.110253E-1	5.048033E-1	5.432906E-1	4.735841E-1	4.960799E-1	4.948014E-1	5.259867E-1	4.851479E-1	4.821796E-1	4.990363E-1	4.799878E-1	4.951185E-1	5.052355E-1	4.917503E-1	5.389393E-1	5.260817E-1	5.287519E-1	5.215566E-1	5.279395E-1	5.238073E-1	5.256247E-1	5.331260E-1	5.090026E-1	4.964222E-1	5.241798E-1	5.390557E-1	4.854757E-1	5.076690E-1	5.081652E-1	5.351677E-1	4.899344E-1	4.954006E-1	5.520927E-1	5.001301E-1	5.355533E-1	4.922198E-1	5.037637E-1	5.092576E-1	5.264968E-1	5.001602E-1	5.345926E-1	4.895366E-1	5.230324E-1	5.064515E-1	5.027245E-1	5.070693E-1	4.982911E-1	5.013504E-1	5.286133E-1	5.065377E-1	5.135194E-1	5.045115E-1	5.250107E-1	5.125009E-1	4.941930E-1	5.200711E-1	5.100874E-1	4.781501E-1	4.980516E-1	5.092587E-1	4.977895E-1	5.273935E-1	5.191234E-1	4.810011E-1	5.348666E-1	5.213037E-1	5.014052E-1	5.072158E-1	5.350111E-1	5.198276E-1	5.186030E-1	5.308237E-1	5.546843E-1	4.958336E-1	5.100155E-1	5.072356E-1	5.181875E-1	5.264170E-1	5.292612E-1	5.043485E-1	5.454763E-1	5.164810E-1	5.330347E-1	5.479454E-1	5.439257E-1	5.052432E-1	5.130741E-1	5.180992E-1	5.138038E-1	5.429310E-1	5.221363E-1	4.904190E-1	5.333197E-1	5.221171E-1	5.588155E-1	5.250936E-1	5.193566E-1	4.943494E-1	5.074204E-1	5.172657E-1	4.914988E-1	5.477678E-1	5.153813E-1	5.114292E-1	5.053652E-1	5.246048E-1	5.291451E-1	4.884783E-1	5.200021E-1	5.266438E-1	4.938472E-1	4.876749E-1	5.300250E-1	5.254672E-1	5.080118E-1	5.345708E-1	5.144919E-1	5.155944E-1	5.388940E-1	5.035799E-1	5.338092E-1	5.326905E-1	4.870115E-1	5.550865E-1	5.025585E-1	5.369451E-1	4.972922E-1	5.394142E-1	5.320049E-1	5.450092E-1	5.038897E-1	5.271145E-1	5.234957E-1	5.365519E-1	5.328834E-1	5.008884E-1	5.203030E-1	5.132871E-1	4.737281E-1	4.601552E-1	5.134259E-1	5.133024E-1	5.222289E-1	4.991504E-1	5.043150E-1	5.357808E-1	5.238025E-1	5.320839E-1	5.289247E-1	5.288623E-1	5.369066E-1	4.588047E-1	5.178585E-1	5.386948E-1	5.577570E-1	5.318548E-1	4.826919E-1	5.361286E-1	5.061594E-1	5.329008E-1	5.694751E-1	4.947959E-1	5.309656E-1	5.139891E-1	5.602529E-1
5.372640E+2	5.061190E-1	4.770994E-1	4.959675E-1	5.075499E-1	5.120231E-1	4.998109E-1	5.271559E-1	5.436332E-1	4.952525E-1	4.949328E-1	5.221989E-1	5.355497E-1	5.120524E-1	4.885415E-1	5.097766E-1	5.336389E-1	5.445505E-1	5.358338E-1	5.035565E-1	4.677088E-1	5.198261E-1	5.175465E-1	5.012110E-1	4.844063E-1	5.443995E-1	5.231917E-1	5.159404E-1	5.076736E-1	4.860820E-1	5.330785E-1	5.303202E-1	5.151070E-1	5.379018E-1	4.901245E-1	5.054078E-1	4.942365E-1	5.107700E-1	4.955478E-1	4.888737E-1	5.065836E-1	5.029378E-1	5.441117E-1	5.126899E-1	5.293395E-1	5.061983E-1	5.252170E-1	5.087955E-1	4.953542E-1	5.040095E-1	5.015875E-1	5.817722E-1	4.934136E-1	5.258905E-1	4.973869E-1	4.856744E-1	5.141692E-1	5.274094E-1	5.129851E-1	5.277303E-1	5.327247E-1	4.752698E-1	5.242451E-1	5.029021E-1	4.884234E-1	5.388318E-1	5.272879E-1	5.106326E-1	5.059813E-1	5.046362E-1	5.374174E-1	5.295335E-1	5.363080E-1	4.620893E-1	5.102164E-1	5.227897E-1	5.092718E-1	5.338101E-1	5.034422E-1	5.180646E-1	4.932519E-1	5.148856E-1	5.113078E-1	5.256239E-1	4.762315E-1	5.182528E-1	4.817567E-1	5.470039E-1	5.160578E-1	5.310878E-1	5.146076E-1	5.183825E-1	4.438070E-1	5.293903E-1	5.072014E-1	4.927266E-1	4.724390E-1	5.250064E-1	4.982886E-1	5.356828E-1	5.304096E-1	4.997738E-1	5.498121E-1	5.040985E-1	4.871895E-1	4.949149E-1	5.018206E-1	5.109918E-1	4.765215E-1	5.094572E-1	4.956550E-1	5.118563E-1	5.139389E-1	5.145319E-1	5.063587E-1	5.111913E-1	4.798368E-1	5.245815E-1	5.359305E-1	5.384933E-1	5.322008E-1	5.010440E-1	4.970780E-1	5.204092E-1	5.332793E-1	5.247258E-1	5.705936E-1	5.180169E-1	5.211040E-1	5.267519E-1	4.879672E-1	5.356697E-1	5.160380E-1	5.308751E-1	4.873494E-1	5.206672E-1	4.980606E-1	5.420504E-1	5.032881E-1	4.985863E-1	5.080277E-1	5.344247E-1	5.310378E-1	5.141462E-1	5.094814E-1	5.055099E-1	5.297658E-1	5.048567E-1	4.974544E-1	4.720841E-1	5.340197E-1	5.354136E-1	5.224066E-1	4.975332E-1	5.023378E-1	4.998525E-1	5.405599E-1	4.964875E-1	5.203891E-1	4.791023E-1	5.301278E-1	5.123942E-1	5.422480E-1	5.253122E-1	4.950901E-1	4.987166E-1
5.375060E+2	4.950616E-1	5.101003E-1	5.051595E-1	5.194730E-1	4.902392E-1	5.288099E-1	5.557530E-1	5.030590E-1	5.224805E-1	5.295915E-1	5.308288E-1	5.367964E-1	5.314778E-1	5.308236E-1	5.368939E-1	4.918602E-1	5.271011E-1	5.736746E-1	5.538383E-1	5.292639E-1	5.118220E-1	5.395063E-1	5.586387E-1	5.075518E-1	5.427671E-1	5.587638E-1	5.120766E-1	5.371934E-1	4.915924E-1	5.463662E-1	5.099630E-1	5.299532E-1	5.292283E-1	5.060631E-1	5.772512E-1	5.230459E-1	4.944538E-1	5.510036E-1	5.613769E-1	5.100363E-1	5.296988E-1	5.407435E-1	5.162627E-1	5.460830E-1	5.213132E-1	5.269234E-1	4.953557E-1	5.420566E-1	5.537334E-1	5.305211E-1	5.461720E-1	5.384105E-1	5.497786E-1	5.376822E-1	5.300035E-1	5.204778E-1	5.262816E-1	5.153939E-1	5.254895E-1	5.333175E-1	5.269817E-1	5.478563E-1	5.190562E-1	5.306796E-1	5.655695E-1	5.268268E-1	5.114324E-1	5.572099E-1	5.541742E-1	5.163305E-1	5.290942E-1	5.077183E-1	5.224249E-1	5.292790E-1	5.297422E-1	5.284244E-1	5.457425E-1	5.083908E-1	5.110577E-1	5.123568E-1	5.469614E-1	5.302294E-1	5.289789E-1	5.407015E-1	5.349615E-1	5.030813E-1	5.243142E-1	5.121855E-1	5.681790E-1	5.278328E-1	5.410906E-1	5.339152E-1	5.574080E-1	5.067844E-1	5.365701E-1	5.135711E-1	5.405242E-1	5.244306E-1	5.365677E-1	5.097108E-1	5.387981E-1	5.500282E-1	5.309106E-1	5.665478E-1	5.211296E-1	5.213999E-1	5.363052E-1	5.389413E-1	5.445643E-1	5.357607E-1	4.915099E-1	5.219697E-1	5.464506E-1	5.167900E-1	5.244122E-1	5.421027E-1	5.213185E-1	5.373453E-1	5.309429E-1	4.961710E-1	5.410205E-1	5.532151E-1	5.450633E-1	5.270790E-1	5.403885E-1	5.331134E-1	5.381816E-1	5.253577E-1	5.021348E-1	5.090502E-1	5.274866E-1	5.690033E-1	5.401918E-1	5.505875E-1	5.228381E-1	5.158848E-1	5.164400E-1	5.190381E-1	5.318339E-1	5.290356E-1	5.391791E-1	5.575918E-1	5.086457E-1	5.288826E-1	5.503299E-1	4.815709E-1	5.349859E-1	5.245136E-1	5.435797E-1	5.189436E-1	5.648478E-1	5.634174E-1	5.427316E-1	5.528811E-1	5.711648E-1	5.360814E-1	5.116826E-1	5.255878E-1	5.056906E-1	5.391106E-1	5.448907E-1	5.212315E-1	5.743825E-1	5.117453E-1	5.758772E-1
5.377630E+2	6.049737E-1	5.497099E-1	5.963759E-1	6.081575E-1	6.109695E-1	5.810361E-1	5.754815E-1	6.152498E-1	6.079170E-1	5.803130E-1	5.794441E-1	5.301940E-1	6.024217E-1	5.989315E-1	6.243772E-1	5.646767E-1	6.122661E-1	6.254270E-1	6.175904E-1	6.158737E-1	6.188369E-1	6.138423E-1	6.034016E-1	5.956092E-1	6.076412E-1	6.161235E-1	6.513288E-1	6.100238E-1	6.024774E-1	6.223183E-1	6.350176E-1	6.083681E-1	6.683878E-1	5.604383E-1	5.943891E-1	5.818761E-1	6.098072E-1	5.883526E-1	5.999811E-1	5.885567E-1	6.145219E-1	5.876144E-1	6.221706E-1	5.853623E-1	6.089356E-1	6.097968E-1	5.748924E-1	5.987165E-1	6.013619E-1	5.792580E-1	5.767805E-1	6.283514E-1	6.011803E-1	6.328282E-1	6.170381E-1	6.074255E-1	5.748888E-1	6.047731E-1	6.255544E-1	6.321773E-1	5.971647E-1	5.731260E-1	6.027302E-1	6.129617E-1	6.102081E-1	5.974557E-1	5.941130E-1	6.167006E-1	5.979428E-1	6.287177E-1	5.850495E-1	6.463264E-1	5.748268E-1	5.907250E-1	6.081126E-1	6.079368E-1	5.967851E-1	5.976697E-1	6.421400E-1	6.197167E-1	6.439986E-1	5.762011E-1	6.175204E-1	5.842145E-1	6.296850E-1	5.867851E-1	6.238137E-1	5.872494E-1	6.248187E-1	6.049990E-1	6.247629E-1	5.772552E-1	6.092064E-1	5.893823E-1	5.918709E-1	6.287881E-1	6.106096E-1	6.134362E-1	6.311411E-1	6.485367E-1	6.048422E-1	6.331275E-1	6.018760E-1	6.072376E-1	5.524207E-1	6.148114E-1	6.301733E-1	5.848648E-1	6.017245E-1	6.305071E-1	5.804330E-1	5.927205E-1	6.079037E-1	5.824434E-1	6.111236E-1	6.528597E-1	6.385178E-1	5.883768E-1	6.195760E-1	6.309339E-1	6.360017E-1	6.010265E-1	6.093246E-1	6.546798E-1	6.167769E-1	6.359425E-1	6.224022E-1	5.992478E-1	6.300995E-1	6.329704E-1	5.844164E-1	5.865868E-1	5.981647E-1	6.119699E-1	6.012841E-1	5.700995E-1	6.401552E-1	5.812027E-1	6.029747E-1	6.046748E-1	5.966340E-1	5.888301E-1	6.200935E-1	5.921780E-1	6.084067E-1	5.764974E-1	6.283740E-1	5.838839E-1	5.701193E-1	6.694836E-1	6.243369E-1	6.122398E-1	5.976539E-1	6.010085E-1	6.079171E-1	6.109972E-1	6.232667E-1	5.868378E-1	6.076057E-1	5.909992E-1	6.475676E-1	6.055746E-1	6.052797E-1	6.531320E-1	5.041154E-1
5.380110E+2	6.913034E-1	6.771992E-1	7.116001E-1	7.083976E-1	6.488009E-1	6.646563E-1	7.259977E-1	6.923044E-1	7.091454E-1	6.915008E-1	6.661399E-1	6.844589E-1	6.783741E-1	6.836517E-1	7.174531E-1	6.650705E-1	7.247304E-1	7.179833E-1	7.142956E-1	6.657261E-1	7.104164E-1	6.883889E-1	6.742305E-1	7.138904E-1	7.297493E-1	6.761906E-1	7.251961E-1	7.035651E-1	7.016166E-1	7.228125E-1	6.353561E-1	6.802265E-1	7.123347E-1	6.908002E-1	6.601352E-1	6.842707E-1	7.053980E-1	6.957200E-1	6.842240E-1	6.703224E-1	7.000228E-1	7.026391E-1	7.043408E-1	6.973270E-1	7.310368E-1	6.637000E-1	6.911604E-1	6.722593E-1	6.962862E-1	7.001485E-1	7.207948E-1	6.788275E-1	7.045960E-1	7.058874E-1	7.038654E-1	6.904682E-1	6.769904E-1	7.054967E-1	6.865736E-1	6.722338E-1	7.169027E-1	6.732342E-1	7.115844E-1	6.908831E-1	6.999719E-1	7.054968E-1	6.820404E-1	6.796700E-1	6.644521E-1	7.083889E-1	6.908297E-1	7.530632E-1	6.924613E-1	7.039546E-1	6.870396E-1	7.211262E-1	7.147933E-1	6.781219E-1	7.090327E-1	6.780526E-1	6.974803E-1	7.229857E-1	7.046754E-1	6.823375E-1	7.428642E-1	7.122849E-1	7.264973E-1	6.930656E-1	7.091325E-1	7.194310E-1	6.791373E-1	6.588102E-1	6.963499E-1	6.776178E-1	7.057511E-1	7.035658E-1	7.137385E-1	7.288411E-1	7.605726E-1	7.124150E-1	7.040561E-1	7.290875E-1	6.946652E-1	7.264123E-1	6.704374E-1	7.485369E-1	7.291514E-1	7.185621E-1	6.981247E-1	7.239452E-1	7.038099E-1	7.026878E-1	7.090893E-1	6.911441E-1	7.099904E-1	6.798819E-1	7.260279E-1	6.757481E-1	6.894868E-1	7.304396E-1	6.984558E-1	6.929993E-1	6.918734E-1	6.832998E-1	6.940096E-1	7.422564E-1	7.153866E-1	6.944004E-1	7.050142E-1	7.087433E-1	7.109322E-1	6.837763E-1	6.823573E-1	6.745008E-1	7.321163E-1	7.195322E-1	7.168585E-1	7.251136E-1	6.887498E-1	7.108750E-1	6.977731E-1	7.208284E-1	7.461900E-1	7.174396E-1	6.941428E-1	6.590299E-1	6.941745E-1	6.887833E-1	7.048665E-1	6.774189E-1	7.050719E-1	7.416152E-1	6.974440E-1	6.750438E-1	7.104031E-1	6.912086E-1	6.981545E-1	7.004619E-1	6.915585E-1	7.179638E-1	7.239404E-1	6.882362E-1	7.180699E-1	7.413412E-1	6.871705E-1
5.382900E+2	8.312516E-1	7.765406E-1	8.672102E-1	8.239602E-1	8.351167E-1	8.372403E-1	8.887565E-1	7.992215E-1	7.997312E-1	8.147786E-1	8.175688E-1	8.219727E-1	8.052160E-1	8.049210E-1	8.367755E-1	7.822781E-1	8.928781E-1	8.462935E-1	8.309427E-1	8.338152E-1	8.123544E-1	8.671676E-1	8.727507E-1	8.707603E-1	8.732483E-1	8.392284E-1	8.228342E-1	8.387445E-1	8.471204E-1	8.450119E-1	8.744988E-1	8.406557E-1	8.457592E-1	7.936130E-1	8.502516E-1	8.024578E-1	8.366663E-1	8.162717E-1	8.406071E-1	8.339632E-1	8.689692E-1	8.485989E-1	8.297667E-1	8.310668E-1	8.018316E-1	8.824625E-1	8.348535E-1	8.354485E-1	9.022419E-1	8.354872E-1	8.586559E-1	8.118462E-1	8.233942E-1	8.015203E-1	8.391300E-1	8.428101E-1	8.439442E-1	8.322796E-1	8.393789E-1	8.637803E-1	8.456603E-1	8.270843E-1	8.116601E-1	8.427825E-1	8.914757E-1	8.216211E-1	8.714893E-1	8.754737E-1	8.404756E-1	8.131440E-1	8.324151E-1	8.028123E-1	8.652064E-1	8.369379E-1	8.366344E-1	8.875141E-1	8.178814E-1	8.074383E-1	8.162667E-1	8.204200E-1	8.285828E-1	8.285394E-1	8.208336E-1	8.400696E-1	8.340114E-1	8.232066E-1	8.255957E-1	8.501952E-1	8.491408E-1	8.384506E-1	7.986348E-1	8.137166E-1	8.515540E-1	8.405164E-1	8.672964E-1	8.186523E-1	8.686532E-1	8.294888E-1	8.107152E-1	8.207510E-1	8.693508E-1	8.689160E-1	8.386883E-1	8.752451E-1	8.096129E-1	8.432039E-1	8.876433E-1	8.203112E-1	8.502992E-1	8.683169E-1	7.890736E-1	8.433890E-1	8.533721E-1	8.010775E-1	8.383338E-1	8.223465E-1	8.028090E-1	8.323432E-1	8.348927E-1	8.644742E-1	7.874806E-1	8.674774E-1	8.401841E-1	8.477834E-1	8.036676E-1	8.457482E-1	8.274153E-1	8.907091E-1	8.479105E-1	8.133640E-1	8.351133E-1	8.237748E-1	8.602717E-1	8.308363E-1	8.339659E-1	8.110143E-1	8.382797E-1	8.660104E-1	7.984105E-1	8.376701E-1	8.470652E-1	8.051475E-1	8.324511E-1	8.364313E-1	8.648486E-1	8.620173E-1	8.805514E-1	8.092141E-1	8.520656E-1	8.373462E-1	8.271856E-1	8.423680E-1	8.718208E-1	7.835105E-1	9.001257E-1	8.326079E-1	8.335790E-1	8.142772E-1	8.629463E-1	8.095356E-1	8.344898E-1	8.602180E-1	8.697369E-1	8.014634E-1	8.001036E-1
5.385060E+2	9.838151E-1	1.015171E+0	1.077167E+0	1.016160E+0	9.842719E-1	1.008088E+0	1.038445E+0	1.012379E+0	9.745682E-1	1.002954E+0	1.023630E+0	1.031872E+0	9.954483E-1	1.002602E+0	9.961139E-1	9.796381E-1	1.032008E+0	1.068870E+0	1.004615E+0	1.036112E+0	1.000805E+0	9.794016E-1	1.027933E+0	1.073580E+0	1.020278E+0	1.049045E+0	1.029668E+0	1.038926E+0	1.047164E+0	1.038143E+0	1.020706E+0	1.012610E+0	1.036242E+0	1.034035E+0	1.021094E+0	1.003616E+0	1.085841E+0	9.920348E-1	1.045303E+0	1.031597E+0	1.004809E+0	9.641312E-1	1.011709E+0	1.044574E+0	9.853003E-1	9.699154E-1	1.000960E+0	1.025314E+0	1.097142E+0	1.049172E+0	1.011831E+0	9.984753E-1	1.024822E+0	1.034096E+0	1.061318E+0	1.053588E+0	1.028463E+0	1.024255E+0	1.021033E+0	1.065123E+0	9.853456E-1	1.020300E+0	9.933103E-1	9.765720E-1	1.033817E+0	9.995158E-1	9.946299E-1	1.000074E+0	1.046478E+0	1.046353E+0	1.035703E+0	1.026241E+0	1.022837E+0	9.675620E-1	1.003628E+0	1.065686E+0	9.824761E-1	1.005502E+0	1.002423E+0	9.931013E-1	1.049675E+0	9.747026E-1	1.038273E+0	9.711384E-1	1.033213E+0	9.777916E-1	1.056042E+0	9.993779E-1	1.038422E+0	1.012761E+0	9.743450E-1	9.208663E-1	1.046678E+0	1.004924E+0	9.886087E-1	1.010433E+0	1.021669E+0	1.010580E+0	1.001585E+0	9.942201E-1	9.885784E-1	1.027487E+0	1.043377E+0	1.059410E+0	9.940507E-1	1.000698E+0	1.049805E+0	1.006159E+0	1.003565E+0	1.010877E+0	9.871905E-1	9.959592E-1	1.014915E+0	9.904960E-1	1.002813E+0	1.056602E+0	1.033109E+0	1.049908E+0	9.715399E-1	1.021724E+0	9.693807E-1	9.818529E-1	1.024377E+0	1.046900E+0	1.003596E+0	1.021913E+0	1.039170E+0	9.545776E-1	1.017369E+0	9.871824E-1	1.030097E+0	1.036869E+0	1.003515E+0	9.873383E-1	1.012006E+0	1.020767E+0	1.013084E+0	1.051029E+0	9.910056E-1	1.025765E+0	1.001380E+0	1.025417E+0	1.039275E+0	1.003193E+0	9.688303E-1	9.869910E-1	9.698942E-1	9.762984E-1	9.919247E-1	1.025451E+0	1.017835E+0	1.003056E+0	1.030732E+0	9.898349E-1	1.062572E+0	1.002262E+0	1.012904E+0	9.743568E-1	9.761127E-1	9.544033E-1	1.030045E+0	1.037595E+0	9.602189E-1	9.710342E-1	9.897936E-1
5.387600E+2	1.236591E+0	1.143098E+0	1.223681E+0	1.186244E+0	1.218593E+0	1.191060E+0	1.210822E+0	1.159547E+0	1.203700E+0	1.207497E+0	1.236102E+0	1.212083E+0	1.196535E+0	1.149474E+0	1.202732E+0	1.218275E+0	1.268712E+0	1.251404E+0	1.236804E+0	1.223365E+0	1.156031E+0	1.206890E+0	1.249576E+0	1.204765E+0	1.203422E+0	1.153093E+0	1.231265E+0	1.231890E+0	1.249320E+0	1.171296E+0	1.199728E+0	1.193786E+0	1.185117E+0	1.206866E+0	1.179153E+0	1.205107E+0	1.201072E+0	1.185674E+0	1.185156E+0	1.175950E+0	1.235208E+0	1.202240E+0	1.239590E+0	1.168015E+0	1.203140E+0	1.189531E+0	1.226901E+0	1.130434E+0	1.167896E+0	1.245901E+0	1.215894E+0	1.176865E+0	1.243505E+0	1.202511E+0	1.168289E+0	1.228063E+0	1.167488E+0	1.191551E+0	1.232675E+0	1.249247E+0	1.193721E+0	1.199654E+0	1.174710E+0	1.238558E+0	1.247831E+0	1.178119E+0	1.176793E+0	1.195664E+0	1.209892E+0	1.167504E+0	1.206447E+0	1.221507E+0	1.234849E+0	1.164020E+0	1.202542E+0	1.261182E+0	1.200091E+0	1.192924E+0	1.191143E+0	1.207811E+0	1.201866E+0	1.199326E+0	1.261334E+0	1.198412E+0	1.242631E+0	1.175968E+0	1.185452E+0	1.209313E+0	1.158611E+0	1.213199E+0	1.213627E+0	1.166512E+0	1.199048E+0	1.119806E+0	1.175716E+0	1.253819E+0	1.180729E+0	1.176482E+0	1.181200E+0	1.207520E+0	1.169971E+0	1.218108E+0	1.259119E+0	1.210592E+0	1.146082E+0	1.222563E+0	1.216846E+0	1.166554E+0	1.168684E+0	1.154930E+0	1.178700E+0	1.178789E+0	1.197700E+0	1.174803E+0	1.215648E+0	1.219844E+0	1.142717E+0	1.155490E+0	1.134064E+0	1.184394E+0	1.214776E+0	1.200526E+0	1.169946E+0	1.237371E+0	1.177401E+0	1.202970E+0	1.174981E+0	1.217017E+0	1.175202E+0	1.149622E+0	1.253461E+0	1.176771E+0	1.128721E+0	1.184829E+0	1.199250E+0	1.183562E+0	1.189699E+0	1.202718E+0	1.165147E+0	1.215575E+0	1.187525E+0	1.210436E+0	1.212344E+0	1.189001E+0	1.241586E+0	1.222647E+0	1.195529E+0	1.195943E+0	1.134295E+0	1.159641E+0	1.220350E+0	1.168148E+0	1.169270E+0	1.159851E+0	1.280724E+0	1.175345E+0	1.138711E+0	1.217582E+0	1.164704E+0	1.218528E+0	1.252622E+0	1.213125E+0	1.223569E+0	1.104370E+0	1.213335E+0
5.390390E+2	1.436470E+0	1.414546E+0	1.388361E+0	1.418071E+0	1.409489E+0	1.414204E+0	1.464239E+0	1.392679E+0	1.487731E+0	1.431338E+0	1.425902E+0	1.410411E+0	1.417260E+0	1.403647E+0	1.426717E+0	1.365394E+0	1.435258E+0	1.505300E+0	1.462860E+0	1.393034E+0	1.439462E+0	1.390514E+0	1.452062E+0	1.449981E+0	1.440426E+0	1.424243E+0	1.425171E+0	1.454410E+0	1.505509E+0	1.406979E+0	1.401639E+0	1.409551E+0	1.447565E+0	1.419792E+0	1.463069E+0	1.416579E+0	1.443669E+0	1.370147E+0	1.431140E+0	1.384492E+0	1.439049E+0	1.480476E+0	1.446549E+0	1.463137E+0	1.426928E+0	1.402926E+0	1.360053E+0	1.393723E+0	1.427477E+0	1.426358E+0	1.418335E+0	1.389578E+0	1.453284E+0	1.399246E+0	1.489102E+0	1.392000E+0	1.413661E+0	1.434296E+0	1.466300E+0	1.387183E+0	1.370275E+0	1.358844E+0	1.403908E+0	1.391519E+0	1.505806E+0	1.449313E+0	1.393901E+0	1.440137E+0	1.441213E+0	1.379054E+0	1.451140E+0	1.384931E+0	1.427088E+0	1.347361E+0	1.418372E+0	1.463317E+0	1.369408E+0	1.359205E+0	1.457137E+0	1.421761E+0	1.446614E+0	1.390623E+0	1.438319E+0	1.414380E+0	1.382265E+0	1.313411E+0	1.504312E+0	1.344023E+0	1.440668E+0	1.431337E+0	1.378087E+0	1.401294E+0	1.391458E+0	1.398840E+0	1.440039E+0	1.401533E+0	1.415413E+0	1.355355E+0	1.444624E+0	1.403349E+0	1.471507E+0	1.417528E+0	1.405834E+0	1.445289E+0	1.379099E+0	1.429792E+0	1.502115E+0	1.378000E+0	1.407211E+0	1.430171E+0	1.397780E+0	1.417592E+0	1.397094E+0	1.381947E+0	1.464284E+0	1.428905E+0	1.387752E+0	1.384613E+0	1.387602E+0	1.439928E+0	1.431802E+0	1.424506E+0	1.457789E+0	1.483931E+0	1.419187E+0	1.384158E+0	1.406584E+0	1.380998E+0	1.367863E+0	1.339046E+0	1.431601E+0	1.410469E+0	1.406251E+0	1.425725E+0	1.434875E+0	1.413124E+0	1.427620E+0	1.344364E+0	1.366776E+0	1.405465E+0	1.429701E+0	1.399612E+0	1.424502E+0	1.408076E+0	1.422618E+0	1.404409E+0	1.391669E+0	1.423265E+0	1.364358E+0	1.347530E+0	1.413328E+0	1.357640E+0	1.368965E+0	1.357597E+0	1.485634E+0	1.393153E+0	1.430134E+0	1.414371E+0	1.338409E+0	1.388407E+0	1.401768E+0	1.376996E+0	1.470164E+0	1.414460E+0	1.386673E+0
5.392720E+2	1.607552E+0	1.578184E+0	1.648412E+0	1.631243E+0	1.662974E+0	1.628943E+0	1.641528E+0	1.641981E+0	1.610469E+0	1.614065E+0	1.652649E+0	1.640604E+0	1.682553E+0	1.610999E+0	1.638552E+0	1.618874E+0	1.646188E+0	1.684695E+0	1.581257E+0	1.665470E+0	1.657718E+0	1.600417E+0	1.628309E+0	1.646933E+0	1.584327E+0	1.646519E+0	1.612739E+0	1.700730E+0	1.683346E+0	1.592866E+0	1.644863E+0	1.679160E+0	1.704866E+0	1.607384E+0	1.654276E+0	1.613676E+0	1.626180E+0	1.560980E+0	1.579650E+0	1.596588E+0	1.653069E+0	1.613920E+0	1.651263E+0	1.589418E+0	1.630680E+0	1.561163E+0	1.569932E+0	1.655816E+0	1.600441E+0	1.571745E+0	1.591853E+0	1.606234E+0	1.651897E+0	1.659587E+0	1.697791E+0	1.627192E+0	1.617112E+0	1.587999E+0	1.670879E+0	1.708670E+0	1.607669E+0	1.607522E+0	1.616780E+0	1.598745E+0	1.636954E+0	1.638272E+0	1.623048E+0	1.641999E+0	1.627324E+0	1.591808E+0	1.602165E+0	1.585746E+0	1.612587E+0	1.595863E+0	1.624882E+0	1.654676E+0	1.578700E+0	1.577225E+0	1.692807E+0	1.600151E+0	1.683893E+0	1.582549E+0	1.631404E+0	1.620558E+0	1.704512E+0	1.573676E+0	1.602360E+0	1.602601E+0	1.598035E+0	1.569621E+0	1.552695E+0	1.502562E+0	1.626741E+0	1.534026E+0	1.556017E+0	1.609166E+0	1.634099E+0	1.612947E+0	1.648855E+0	1.603651E+0	1.599691E+0	1.659838E+0	1.633442E+0	1.600950E+0	1.640133E+0	1.666766E+0	1.617967E+0	1.614924E+0	1.554139E+0	1.584212E+0	1.599183E+0	1.575789E+0	1.605069E+0	1.529222E+0	1.633167E+0	1.561732E+0	1.627212E+0	1.528773E+0	1.598809E+0	1.627417E+0	1.588132E+0	1.590428E+0	1.575933E+0	1.738064E+0	1.602851E+0	1.560434E+0	1.640132E+0	1.599714E+0	1.553932E+0	1.525978E+0	1.517853E+0	1.610453E+0	1.606096E+0	1.579572E+0	1.531410E+0	1.606909E+0	1.550309E+0	1.541970E+0	1.666401E+0	1.589312E+0	1.539778E+0	1.604607E+0	1.518344E+0	1.565859E+0	1.615562E+0	1.544893E+0	1.633807E+0	1.569088E+0	1.526101E+0	1.553855E+0	1.597828E+0	1.598375E+0	1.595612E+0	1.525515E+0	1.667064E+0	1.656845E+0	1.557929E+0	1.552520E+0	1.612160E+0	1.610537E+0	1.590535E+0	1.532921E+0	1.603722E+0	1.600677E+0	1.510160E+0
5.395260E+2	1.814762E+0	1.788199E+0	1.861763E+0	1.831876E+0	1.855625E+0	1.793448E+0	1.877425E+0	1.887166E+0	1.876842E+0	1.757161E+0	1.861976E+0	1.823752E+0	1.908605E+0	1.869605E+0	1.890937E+0	1.766742E+0	1.870123E+0	1.862810E+0	1.894918E+0	1.831155E+0	1.848303E+0	1.881008E+0	1.906715E+0	1.801905E+0	1.790272E+0	1.843014E+0	1.880909E+0	1.904693E+0	1.858896E+0	1.857723E+0	1.817807E+0	1.848902E+0	1.801821E+0	1.732555E+0	1.872537E+0	1.831124E+0	1.885754E+0	1.833978E+0	1.906213E+0	1.807734E+0	1.830086E+0	1.787723E+0	1.821913E+0	1.809934E+0	1.879364E+0	1.826347E+0	1.769839E+0	1.794241E+0	1.827561E+0	1.807272E+0	1.826276E+0	1.839241E+0	1.868785E+0	1.838803E+0	1.835185E+0	1.821506E+0	1.852689E+0	1.805979E+0	1.829286E+0	1.887181E+0	1.813857E+0	1.793726E+0	1.766009E+0	1.852438E+0	1.872532E+0	1.867000E+0	1.859115E+0	1.813645E+0	1.796543E+0	1.846250E+0	1.815152E+0	1.766020E+0	1.797271E+0	1.859942E+0	1.846254E+0	1.811676E+0	1.784354E+0	1.714339E+0	1.884087E+0	1.790575E+0	1.843969E+0	1.722959E+0	1.826162E+0	1.781673E+0	1.925797E+0	1.732250E+0	1.831838E+0	1.829771E+0	1.817914E+0	1.774133E+0	1.828122E+0	1.804017E+0	1.813371E+0	1.762523E+0	1.722871E+0	1.785783E+0	1.824107E+0	1.782236E+0	1.826067E+0	1.806711E+0	1.797552E+0	1.857583E+0	1.857159E+0	1.826244E+0	1.776956E+0	1.793310E+0	1.881831E+0	1.826674E+0	1.812595E+0	1.728494E+0	1.771171E+0	1.711611E+0	1.834217E+0	1.728027E+0	1.835132E+0	1.801195E+0	1.755098E+0	1.733918E+0	1.810555E+0	1.752960E+0	1.826295E+0	1.765340E+0	1.787890E+0	1.846263E+0	1.819112E+0	1.779367E+0	1.791506E+0	1.803593E+0	1.880816E+0	1.814648E+0	1.825898E+0	1.778098E+0	1.783777E+0	1.769190E+0	1.761038E+0	1.818233E+0	1.785171E+0	1.756706E+0	1.818020E+0	1.808841E+0	1.727906E+0	1.800611E+0	1.763031E+0	1.796480E+0	1.794137E+0	1.782293E+0	1.855975E+0	1.777420E+0	1.762842E+0	1.794848E+0	1.854343E+0	1.813187E+0	1.772581E+0	1.745951E+0	1.869744E+0	1.795056E+0	1.784420E+0	1.735121E+0	1.790789E+0	1.757883E+0	1.755049E+0	1.848883E+0	1.791909E+0	1.780189E+0	1.755109E+0
5.397910E+2	1.929032E+0	1.966442E+0	1.974450E+0	2.006504E+0	1.978295E+0	1.982703E+0	2.041498E+0	1.946773E+0	1.979305E+0	2.039293E+0	2.024351E+0	1.946884E+0	1.967012E+0	1.979313E+0	2.009569E+0	1.964041E+0	1.975065E+0	1.965437E+0	2.078008E+0	1.905812E+0	2.013051E+0	1.961648E+0	2.033169E+0	1.986382E+0	2.001844E+0	2.054578E+0	2.054237E+0	1.990192E+0	2.010418E+0	1.965576E+0	1.984670E+0	1.957575E+0	2.037999E+0	1.913941E+0	1.977523E+0	1.945227E+0	1.966865E+0	1.998838E+0	2.025384E+0	1.979982E+0	2.098830E+0	2.028269E+0	2.054729E+0	1.961914E+0	2.020543E+0	2.019480E+0	1.980586E+0	1.926535E+0	1.976116E+0	1.954993E+0	1.989199E+0	1.904181E+0	2.062593E+0	1.955957E+0	1.954874E+0	1.992590E+0	1.921770E+0	2.001853E+0	1.985519E+0	2.068108E+0	1.896679E+0	1.844889E+0	1.912672E+0	1.950408E+0	1.958745E+0	1.953794E+0	1.931770E+0	1.948050E+0	2.041739E+0	1.963089E+0	1.950718E+0	1.991933E+0	2.027470E+0	1.946896E+0	1.961685E+0	2.035596E+0	1.930151E+0	1.841502E+0	1.963067E+0	1.895623E+0	2.083888E+0	1.882308E+0	2.064178E+0	1.983520E+0	1.950962E+0	1.882464E+0	1.979619E+0	1.911888E+0	1.974016E+0	1.973375E+0	2.008744E+0	1.836049E+0	1.979417E+0	1.918566E+0	2.000371E+0	2.057716E+0	1.965912E+0	1.928204E+0	1.963114E+0	1.969349E+0	1.968193E+0	1.975722E+0	1.899668E+0	1.970573E+0	1.820941E+0	1.924375E+0	2.019597E+0	1.990531E+0	1.906654E+0	1.937179E+0	1.886804E+0	1.927194E+0	1.983788E+0	1.946464E+0	1.928236E+0	1.969863E+0	1.970948E+0	1.861174E+0	1.890300E+0	1.978674E+0	1.870968E+0	1.923677E+0	1.939006E+0	1.988287E+0	1.961356E+0	1.906607E+0	2.009647E+0	2.016122E+0	1.922332E+0	1.922042E+0	1.847030E+0	1.901162E+0	1.924341E+0	1.939875E+0	1.938954E+0	1.908243E+0	1.920403E+0	1.883691E+0	1.844159E+0	1.903993E+0	1.981647E+0	1.884092E+0	1.940858E+0	1.891902E+0	1.895732E+0	1.892066E+0	1.936686E+0	1.952430E+0	1.964143E+0	1.911117E+0	1.935672E+0	1.933279E+0	1.858655E+0	1.857762E+0	2.050119E+0	1.939521E+0	1.865503E+0	1.896381E+0	1.917096E+0	1.912126E+0	1.977938E+0	1.818904E+0	2.014266E+0	2.084241E+0	1.861039E+0
5.400140E+2	2.107071E+0	1.964618E+0	2.054410E+0	2.042318E+0	2.031794E+0	2.021397E+0	2.081035E+0	2.091737E+0	2.062120E+0	2.115505E+0	2.059139E+0	2.058313E+0	2.044538E+0	2.027285E+0	2.041060E+0	1.967552E+0	1.989676E+0	1.977103E+0	2.018817E+0	2.017856E+0	2.000166E+0	2.028695E+0	2.058968E+0	2.026240E+0	2.059341E+0	2.015423E+0	2.040891E+0	2.004490E+0	2.070783E+0	2.012149E+0	2.031135E+0	2.070475E+0	2.069964E+0	1.961129E+0	2.023725E+0	1.979465E+0	2.046889E+0	1.998936E+0	2.013091E+0	2.064122E+0	2.050601E+0	2.049187E+0	2.115515E+0	1.991339E+0	2.057995E+0	2.035081E+0	2.033211E+0	1.928771E+0	2.001378E+0	2.010696E+0	2.083291E+0	1.987400E+0	1.949158E+0	2.016393E+0	2.034131E+0	2.061671E+0	2.037169E+0	1.988956E+0	1.972166E+0	2.116382E+0	2.017286E+0	1.985948E+0	1.972032E+0	1.990781E+0	2.048356E+0	2.071822E+0	2.051934E+0	2.038474E+0	1.969826E+0	1.943562E+0	1.976875E+0	2.027320E+0	1.950272E+0	1.967425E+0	2.000723E+0	2.005461E+0	1.912130E+0	1.996143E+0	1.985261E+0	1.999107E+0	2.010844E+0	2.022147E+0	2.090070E+0	1.970314E+0	2.024943E+0	1.925619E+0	1.980292E+0	1.992662E+0	2.024136E+0	1.930815E+0	1.947061E+0	1.988672E+0	2.001663E+0	1.954100E+0	1.997431E+0	1.929026E+0	1.992172E+0	1.958759E+0	1.930538E+0	1.961750E+0	2.025235E+0	2.032842E+0	1.998218E+0	2.043332E+0	1.997108E+0	2.003902E+0	1.974570E+0	1.978112E+0	1.999385E+0	1.959597E+0	1.951786E+0	1.928689E+0	1.960965E+0	1.937126E+0	1.957020E+0	1.996627E+0	1.989494E+0	1.951331E+0	1.969456E+0	1.997145E+0	1.982779E+0	1.899753E+0	1.969129E+0	2.027642E+0	1.950868E+0	2.004329E+0	1.942036E+0	1.944845E+0	2.011988E+0	1.985000E+0	1.935815E+0	1.950752E+0	1.961507E+0	1.956138E+0	1.947416E+0	1.993798E+0	2.022166E+0	1.973186E+0	1.918485E+0	1.947155E+0	1.933479E+0	1.939956E+0	1.930286E+0	1.884749E+0	1.964298E+0	1.951263E+0	1.934960E+0	1.913420E+0	1.912539E+0	1.922241E+0	2.031891E+0	1.945555E+0	1.939487E+0	1.900208E+0	2.129984E+0	1.967341E+0	1.868475E+0	1.878466E+0	1.930930E+0	1.944124E+0	1.985452E+0	1.897493E+0	1.908257E+0	1.952766E+0	1.852376E+0
5.402630E+2	2.012192E+0	1.991907E+0	2.071244E+0	2.030394E+0	1.999116E+0	1.933153E+0	2.032361E+0	2.001619E+0	2.059759E+0	2.076807E+0	2.101070E+0	2.051376E+0	2.022349E+0	2.021980E+0	2.028360E+0	2.027239E+0	1.938166E+0	1.973328E+0	2.049030E+0	1.983527E+0	1.971589E+0	2.054196E+0	2.058193E+0	1.967597E+0	2.001730E+0	1.951342E+0	1.976051E+0	2.015942E+0	2.007613E+0	2.050074E+0	2.032170E+0	2.005842E+0	2.121126E+0	1.947724E+0	2.009693E+0	1.937184E+0	2.059054E+0	1.966345E+0	2.077739E+0	1.878337E+0	2.011611E+0	1.948161E+0	2.012141E+0	1.974878E+0	2.028851E+0	1.991291E+0	1.958711E+0	2.008193E+0	2.009012E+0	1.946431E+0	2.071789E+0	1.928566E+0	2.029235E+0	1.948767E+0	1.999100E+0	2.017958E+0	1.968652E+0	2.004931E+0	1.970456E+0	2.035237E+0	1.961813E+0	1.961564E+0	1.998357E+0	1.974566E+0	2.015608E+0	1.997343E+0	1.966386E+0	1.970064E+0	2.029833E+0	1.995442E+0	1.953198E+0	2.017074E+0	2.003037E+0	1.899403E+0	1.967351E+0	2.012730E+0	1.897171E+0	1.904498E+0	2.030860E+0	2.014306E+0	2.013177E+0	1.966654E+0	2.067148E+0	1.864091E+0	1.992927E+0	1.942816E+0	1.976936E+0	1.936271E+0	1.952556E+0	1.979871E+0	2.029849E+0	1.893553E+0	1.999472E+0	1.962686E+0	1.927975E+0	1.942079E+0	1.976766E+0	1.936974E+0	1.976495E+0	1.836443E+0	1.989983E+0	1.927946E+0	2.036898E+0	1.991042E+0	1.931542E+0	1.997052E+0	1.994908E+0	2.018775E+0	1.932704E+0	1.940851E+0	1.922025E+0	1.892552E+0	1.970312E+0	1.878672E+0	2.006469E+0	1.987526E+0	1.923063E+0	1.952142E+0	1.987984E+0	1.950216E+0	1.921939E+0	1.888224E+0	1.976665E+0	1.972985E+0	1.996621E+0	1.960285E+0	1.957542E+0	1.958104E+0	1.980596E+0	1.857912E+0	1.901466E+0	1.944341E+0	1.881890E+0	1.915706E+0	2.025941E+0	1.956214E+0	1.934119E+0	1.946278E+0	1.855346E+0	1.954010E+0	1.954006E+0	1.912447E+0	1.912348E+0	1.890909E+0	1.956149E+0	1.911617E+0	1.918885E+0	1.930070E+0	1.921153E+0	1.959054E+0	1.896186E+0	1.898913E+0	1.902027E+0	1.861810E+0	2.080378E+0	1.954519E+0	1.936037E+0	1.870891E+0	1.982021E+0	1.972135E+0	1.957546E+0	1.910302E+0	1.937698E+0	1.957162E+0	1.944386E+0
5.405080E+2	1.995285E+0	1.931553E+0	1.965965E+0	1.962804E+0	1.913760E+0	1.958172E+0	1.937895E+0	1.904420E+0	1.917595E+0	1.959184E+0	1.954204E+0	1.901645E+0	1.981014E+0	1.869999E+0	1.950117E+0	1.914065E+0	1.898448E+0	1.873690E+0	1.903039E+0	1.894526E+0	1.857483E+0	1.873463E+0	1.958027E+0	1.939007E+0	1.966353E+0	1.903925E+0	1.959351E+0	1.893441E+0	2.030540E+0	1.875556E+0	1.851463E+0	1.850184E+0	1.923168E+0	1.904756E+0	1.897757E+0	1.895055E+0	1.891049E+0	1.880730E+0	1.925662E+0	1.906278E+0	1.955208E+0	1.909793E+0	1.970273E+0	1.948545E+0	1.901893E+0	1.863937E+0	1.911419E+0	1.884269E+0	1.920599E+0	1.837315E+0	1.972941E+0	1.888122E+0	1.903273E+0	1.866052E+0	1.931290E+0	1.897830E+0	1.940947E+0	1.897698E+0	1.974214E+0	1.980188E+0	1.894780E+0	1.817096E+0	1.848400E+0	1.899875E+0	1.926706E+0	1.946769E+0	1.926201E+0	1.892073E+0	1.859735E+0	1.923665E+0	1.874404E+0	1.920987E+0	1.952642E+0	1.912067E+0	1.923286E+0	1.962846E+0	1.940078E+0	1.837974E+0	1.922613E+0	1.859693E+0	1.990616E+0	1.906154E+0	1.957827E+0	1.917110E+0	1.994869E+0	1.796337E+0	1.934778E+0	1.855063E+0	1.885438E+0	1.848701E+0	1.846396E+0	1.849626E+0	1.880955E+0	1.812653E+0	1.916103E+0	1.876916E+0	1.937309E+0	1.786347E+0	1.911644E+0	1.924993E+0	1.923771E+0	1.901727E+0	1.966712E+0	1.893659E+0	1.912975E+0	1.932136E+0	2.000225E+0	1.929107E+0	1.930164E+0	1.847218E+0	1.805614E+0	1.901708E+0	1.890519E+0	1.856419E+0	1.919349E+0	1.946734E+0	1.878471E+0	1.878812E+0	1.925265E+0	1.878341E+0	1.850236E+0	1.850108E+0	1.872623E+0	1.929762E+0	1.875447E+0	1.899282E+0	1.860361E+0	1.887473E+0	1.841317E+0	1.803650E+0	1.826633E+0	1.892039E+0	1.889165E+0	1.830527E+0	1.922104E+0	1.860667E+0	1.857500E+0	1.786860E+0	1.839531E+0	1.870623E+0	1.864067E+0	1.870542E+0	1.896862E+0	1.837036E+0	1.882225E+0	1.873866E+0	1.913380E+0	1.853826E+0	1.893501E+0	1.921134E+0	1.937400E+0	1.841566E+0	1.808873E+0	1.777881E+0	1.982505E+0	1.888499E+0	1.833026E+0	1.845999E+0	1.839183E+0	1.894711E+0	1.908148E+0	1.831790E+0	1.920287E+0	1.831360E+0	1.847247E+0
5.407630E+2	1.909922E+0	1.780619E+0	1.831325E+0	1.794094E+0	1.844843E+0	1.825948E+0	1.852099E+0	1.813069E+0	1.908062E+0	1.842866E+0	1.847988E+0	1.829712E+0	1.924376E+0	1.796411E+0	1.867193E+0	1.754055E+0	1.862529E+0	1.820696E+0	1.787397E+0	1.803644E+0	1.751026E+0	1.842311E+0	1.796777E+0	1.795966E+0	1.830613E+0	1.838512E+0	1.808151E+0	1.816438E+0	1.885539E+0	1.875186E+0	1.792866E+0	1.801485E+0	1.921412E+0	1.823461E+0	1.830987E+0	1.796967E+0	1.818510E+0	1.783212E+0	1.806572E+0	1.783844E+0	1.826990E+0	1.794684E+0	1.808072E+0	1.786716E+0	1.846543E+0	1.782725E+0	1.767730E+0	1.801659E+0	1.817968E+0	1.799983E+0	1.781040E+0	1.780061E+0	1.849175E+0	1.827126E+0	1.844563E+0	1.841581E+0	1.799103E+0	1.764919E+0	1.813368E+0	1.871340E+0	1.807580E+0	1.765593E+0	1.860345E+0	1.844435E+0	1.830683E+0	1.786403E+0	1.816252E+0	1.770055E+0	1.815124E+0	1.725824E+0	1.803761E+0	1.864366E+0	1.770044E+0	1.795583E+0	1.837527E+0	1.845001E+0	1.769834E+0	1.758715E+0	1.797224E+0	1.760450E+0	1.882264E+0	1.750444E+0	1.829811E+0	1.829124E+0	1.873557E+0	1.733036E+0	1.804076E+0	1.805883E+0	1.841750E+0	1.803437E+0	1.725717E+0	1.758017E+0	1.812488E+0	1.757568E+0	1.730791E+0	1.821298E+0	1.858970E+0	1.737141E+0	1.781673E+0	1.872055E+0	1.820989E+0	1.825498E+0	1.792614E+0	1.794582E+0	1.775222E+0	1.811439E+0	1.824457E+0	1.790238E+0	1.775952E+0	1.748876E+0	1.721373E+0	1.754825E+0	1.792035E+0	1.769681E+0	1.802332E+0	1.834884E+0	1.790844E+0	1.743900E+0	1.762217E+0	1.800329E+0	1.816514E+0	1.810015E+0	1.777114E+0	1.902321E+0	1.732594E+0	1.777195E+0	1.783366E+0	1.808246E+0	1.814474E+0	1.712339E+0	1.717541E+0	1.799077E+0	1.764279E+0	1.778715E+0	1.776249E+0	1.806715E+0	1.835696E+0	1.823521E+0	1.780886E+0	1.763073E+0	1.800449E+0	1.813032E+0	1.836021E+0	1.772060E+0	1.786739E+0	1.803178E+0	1.823823E+0	1.757034E+0	1.782482E+0	1.702661E+0	1.778004E+0	1.731330E+0	1.779050E+0	1.779408E+0	1.921640E+0	1.790078E+0	1.795144E+0	1.764018E+0	1.713833E+0	1.775754E+0	1.819105E+0	1.748758E+0	1.762433E+0	1.791804E+0	1.746117E+0
5.410190E+2	1.733616E+0	1.716803E+0	1.772407E+0	1.759660E+0	1.782062E+0	1.723761E+0	1.771870E+0	1.757592E+0	1.739444E+0	1.781621E+0	1.759338E+0	1.761130E+0	1.795009E+0	1.784190E+0	1.819002E+0	1.736506E+0	1.771889E+0	1.733215E+0	1.689239E+0	1.696356E+0	1.709878E+0	1.698510E+0	1.837143E+0	1.785209E+0	1.754395E+0	1.770452E+0	1.725329E+0	1.796601E+0	1.780929E+0	1.733250E+0	1.785727E+0	1.767044E+0	1.811372E+0	1.728046E+0	1.683769E+0	1.657760E+0	1.749218E+0	1.752396E+0	1.729201E+0	1.725211E+0	1.760317E+0	1.660479E+0	1.761372E+0	1.702683E+0	1.768718E+0	1.737410E+0	1.732081E+0	1.720701E+0	1.790403E+0	1.747731E+0	1.679913E+0	1.730119E+0	1.762733E+0	1.785294E+0	1.794751E+0	1.723383E+0	1.717683E+0	1.726770E+0	1.749623E+0	1.831211E+0	1.725042E+0	1.672986E+0	1.700352E+0	1.728097E+0	1.780778E+0	1.765299E+0	1.726856E+0	1.777206E+0	1.746144E+0	1.764892E+0	1.722317E+0	1.683347E+0	1.744584E+0	1.695494E+0	1.702326E+0	1.774574E+0	1.726313E+0	1.663276E+0	1.724227E+0	1.731807E+0	1.773284E+0	1.642602E+0	1.723727E+0	1.786715E+0	1.746797E+0	1.680041E+0	1.714908E+0	1.684410E+0	1.742131E+0	1.714989E+0	1.696460E+0	1.730060E+0	1.713688E+0	1.651875E+0	1.716883E+0	1.764431E+0	1.712173E+0	1.711337E+0	1.669743E+0	1.735639E+0	1.685279E+0	1.718981E+0	1.783253E+0	1.779226E+0	1.641123E+0	1.717502E+0	1.746647E+0	1.718087E+0	1.751905E+0	1.679523E+0	1.647264E+0	1.705537E+0	1.673290E+0	1.696321E+0	1.762615E+0	1.755735E+0	1.705295E+0	1.703420E+0	1.678156E+0	1.719898E+0	1.709834E+0	1.692930E+0	1.752790E+0	1.761739E+0	1.683643E+0	1.659767E+0	1.728500E+0	1.696982E+0	1.711263E+0	1.754629E+0	1.677771E+0	1.715275E+0	1.701947E+0	1.656938E+0	1.790735E+0	1.729932E+0	1.720439E+0	1.642446E+0	1.651259E+0	1.679702E+0	1.737927E+0	1.725229E+0	1.772280E+0	1.714460E+0	1.700483E+0	1.698073E+0	1.701675E+0	1.684533E+0	1.652907E+0	1.707161E+0	1.717083E+0	1.705606E+0	1.737504E+0	1.652905E+0	1.673441E+0	1.735951E+0	1.612526E+0	1.639537E+0	1.719050E+0	1.702849E+0	1.826927E+0	1.716526E+0	1.774654E+0	1.634231E+0	1.623938E+0
5.412640E+2	1.702132E+0	1.591211E+0	1.744428E+0	1.723902E+0	1.719819E+0	1.727276E+0	1.744042E+0	1.696074E+0	1.584065E+0	1.602011E+0	1.631465E+0	1.722602E+0	1.632115E+0	1.633877E+0	1.676862E+0	1.658160E+0	1.740630E+0	1.705294E+0	1.646535E+0	1.661587E+0	1.706045E+0	1.642608E+0	1.682174E+0	1.682074E+0	1.666618E+0	1.761873E+0	1.655374E+0	1.739411E+0	1.763376E+0	1.662675E+0	1.697189E+0	1.648119E+0	1.748030E+0	1.622654E+0	1.631529E+0	1.695667E+0	1.687847E+0	1.628016E+0	1.644533E+0	1.647172E+0	1.747694E+0	1.648034E+0	1.652248E+0	1.706924E+0	1.643875E+0	1.675059E+0	1.673732E+0	1.691203E+0	1.641919E+0	1.650125E+0	1.662522E+0	1.627579E+0	1.714905E+0	1.628042E+0	1.715100E+0	1.688913E+0	1.650696E+0	1.689465E+0	1.716131E+0	1.717392E+0	1.610947E+0	1.694682E+0	1.645762E+0	1.646451E+0	1.742558E+0	1.656989E+0	1.678796E+0	1.685923E+0	1.702838E+0	1.660976E+0	1.722778E+0	1.727263E+0	1.643470E+0	1.643056E+0	1.701581E+0	1.692822E+0	1.718843E+0	1.599657E+0	1.717505E+0	1.684181E+0	1.685736E+0	1.597110E+0	1.751745E+0	1.689881E+0	1.687439E+0	1.570102E+0	1.723714E+0	1.679208E+0	1.659570E+0	1.652082E+0	1.671853E+0	1.612801E+0	1.670776E+0	1.610223E+0	1.621262E+0	1.729016E+0	1.712120E+0	1.666483E+0	1.703968E+0	1.614751E+0	1.695035E+0	1.689964E+0	1.653591E+0	1.646471E+0	1.655083E+0	1.602602E+0	1.659438E+0	1.667280E+0	1.681943E+0	1.695089E+0	1.665993E+0	1.666260E+0	1.607832E+0	1.593490E+0	1.687068E+0	1.651433E+0	1.670079E+0	1.667248E+0	1.689747E+0	1.621040E+0	1.648272E+0	1.664194E+0	1.659848E+0	1.693206E+0	1.683825E+0	1.641445E+0	1.651896E+0	1.676075E+0	1.586918E+0	1.602515E+0	1.599335E+0	1.636091E+0	1.699806E+0	1.664922E+0	1.714025E+0	1.595914E+0	1.655010E+0	1.633842E+0	1.633324E+0	1.678806E+0	1.609970E+0	1.619960E+0	1.642362E+0	1.572774E+0	1.709518E+0	1.683179E+0	1.673698E+0	1.689394E+0	1.543314E+0	1.630663E+0	1.668631E+0	1.662284E+0	1.599464E+0	1.585363E+0	1.677538E+0	1.720283E+0	1.617351E+0	1.594207E+0	1.652528E+0	1.584864E+0	1.727268E+0	1.651403E+0	1.684142E+0	1.598318E+0	1.592515E+0
5.415140E+2	1.619256E+0	1.513164E+0	1.654255E+0	1.634425E+0	1.616929E+0	1.622971E+0	1.605456E+0	1.618834E+0	1.619157E+0	1.607342E+0	1.602697E+0	1.694201E+0	1.619874E+0	1.602828E+0	1.652805E+0	1.593192E+0	1.612613E+0	1.582962E+0	1.591064E+0	1.563369E+0	1.604320E+0	1.626914E+0	1.502687E+0	1.622889E+0	1.638934E+0	1.615757E+0	1.617731E+0	1.649140E+0	1.696595E+0	1.617943E+0	1.618291E+0	1.553176E+0	1.607498E+0	1.586589E+0	1.608691E+0	1.558945E+0	1.620852E+0	1.582142E+0	1.586652E+0	1.624342E+0	1.580743E+0	1.572724E+0	1.577503E+0	1.593808E+0	1.607127E+0	1.583881E+0	1.518620E+0	1.557764E+0	1.607210E+0	1.629508E+0	1.556734E+0	1.585646E+0	1.554621E+0	1.642355E+0	1.581974E+0	1.622415E+0	1.565502E+0	1.562515E+0	1.610079E+0	1.672023E+0	1.607524E+0	1.533538E+0	1.579764E+0	1.610162E+0	1.637899E+0	1.610645E+0	1.620684E+0	1.520166E+0	1.608929E+0	1.529664E+0	1.560079E+0	1.675109E+0	1.669646E+0	1.582261E+0	1.551106E+0	1.644297E+0	1.554610E+0	1.592436E+0	1.651295E+0	1.611161E+0	1.599533E+0	1.552054E+0	1.567967E+0	1.596168E+0	1.606796E+0	1.530178E+0	1.593902E+0	1.565635E+0	1.634342E+0	1.576322E+0	1.587164E+0	1.593695E+0	1.617761E+0	1.513581E+0	1.546210E+0	1.624440E+0	1.575954E+0	1.597364E+0	1.553949E+0	1.622785E+0	1.637596E+0	1.604703E+0	1.623511E+0	1.557823E+0	1.594145E+0	1.560760E+0	1.592363E+0	1.568555E+0	1.534492E+0	1.538564E+0	1.622015E+0	1.525655E+0	1.579962E+0	1.543633E+0	1.675591E+0	1.656446E+0	1.584764E+0	1.561990E+0	1.532740E+0	1.560874E+0	1.592342E+0	1.582379E+0	1.562228E+0	1.579817E+0	1.572208E+0	1.580656E+0	1.583418E+0	1.556577E+0	1.626899E+0	1.497232E+0	1.607867E+0	1.646783E+0	1.495407E+0	1.601753E+0	1.615670E+0	1.553091E+0	1.521546E+0	1.581947E+0	1.552670E+0	1.547300E+0	1.560120E+0	1.575561E+0	1.592087E+0	1.595405E+0	1.587715E+0	1.561230E+0	1.538973E+0	1.574733E+0	1.577954E+0	1.542986E+0	1.574519E+0	1.560560E+0	1.600891E+0	1.538935E+0	1.566826E+0	1.596091E+0	1.567720E+0	1.572094E+0	1.577212E+0	1.548021E+0	1.594927E+0	1.541065E+0	1.538022E+0	1.509670E+0	1.606654E+0
5.417650E+2	1.494788E+0	1.430833E+0	1.476474E+0	1.497910E+0	1.492148E+0	1.490785E+0	1.474371E+0	1.497275E+0	1.547625E+0	1.480375E+0	1.461596E+0	1.470824E+0	1.440630E+0	1.433218E+0	1.502172E+0	1.446650E+0	1.433591E+0	1.482653E+0	1.420481E+0	1.458270E+0	1.471538E+0	1.434985E+0	1.490530E+0	1.493452E+0	1.501000E+0	1.490664E+0	1.538948E+0	1.537129E+0	1.527767E+0	1.458073E+0	1.472738E+0	1.413736E+0	1.522883E+0	1.462112E+0	1.432129E+0	1.438950E+0	1.527267E+0	1.441769E+0	1.475021E+0	1.475714E+0	1.493333E+0	1.506084E+0	1.412531E+0	1.497432E+0	1.490778E+0	1.431985E+0	1.481623E+0	1.446729E+0	1.500950E+0	1.444765E+0	1.449092E+0	1.487590E+0	1.467821E+0	1.471648E+0	1.480596E+0	1.484262E+0	1.410095E+0	1.441120E+0	1.472012E+0	1.535650E+0	1.453096E+0	1.441267E+0	1.408118E+0	1.466532E+0	1.470435E+0	1.451759E+0	1.471761E+0	1.501778E+0	1.463816E+0	1.422881E+0	1.476247E+0	1.545213E+0	1.491065E+0	1.524317E+0	1.474358E+0	1.565531E+0	1.476286E+0	1.484720E+0	1.436241E+0	1.452316E+0	1.480265E+0	1.454254E+0	1.504157E+0	1.442028E+0	1.463939E+0	1.414913E+0	1.426635E+0	1.497114E+0	1.494889E+0	1.459351E+0	1.426642E+0	1.416258E+0	1.464364E+0	1.396046E+0	1.445737E+0	1.514798E+0	1.415607E+0	1.413448E+0	1.476259E+0	1.443357E+0	1.476938E+0	1.436239E+0	1.494640E+0	1.474139E+0	1.417601E+0	1.438343E+0	1.454323E+0	1.490060E+0	1.453740E+0	1.459003E+0	1.412904E+0	1.407716E+0	1.495155E+0	1.432074E+0	1.449131E+0	1.441631E+0	1.452894E+0	1.435103E+0	1.476552E+0	1.568736E+0	1.368690E+0	1.443929E+0	1.463118E+0	1.423250E+0	1.423084E+0	1.392414E+0	1.463565E+0	1.458593E+0	1.483346E+0	1.422751E+0	1.446164E+0	1.508071E+0	1.422046E+0	1.453756E+0	1.497979E+0	1.457952E+0	1.414450E+0	1.399362E+0	1.536092E+0	1.402745E+0	1.495101E+0	1.460475E+0	1.455225E+0	1.458701E+0	1.427274E+0	1.433383E+0	1.423198E+0	1.477029E+0	1.402064E+0	1.444052E+0	1.480959E+0	1.469303E+0	1.461670E+0	1.419617E+0	1.476419E+0	1.529936E+0	1.484661E+0	1.387363E+0	1.422069E+0	1.465882E+0	1.464705E+0	1.419747E+0	1.502368E+0	1.397082E+0	1.364354E+0
5.420110E+2	1.361521E+0	1.305559E+0	1.319799E+0	1.278342E+0	1.347123E+0	1.296136E+0	1.344950E+0	1.306792E+0	1.308953E+0	1.306000E+0	1.310205E+0	1.314242E+0	1.334660E+0	1.350365E+0	1.308422E+0	1.327310E+0	1.336549E+0	1.329256E+0	1.287918E+0	1.330262E+0	1.302381E+0	1.327449E+0	1.317664E+0	1.309203E+0	1.300219E+0	1.328600E+0	1.348212E+0	1.350989E+0	1.337560E+0	1.330475E+0	1.306097E+0	1.320742E+0	1.367269E+0	1.260010E+0	1.318198E+0	1.284388E+0	1.291162E+0	1.310644E+0	1.302321E+0	1.318154E+0	1.393315E+0	1.344151E+0	1.259277E+0	1.342311E+0	1.323706E+0	1.308543E+0	1.307969E+0	1.265981E+0	1.285086E+0	1.314063E+0	1.298362E+0	1.281997E+0	1.324201E+0	1.277236E+0	1.310330E+0	1.354243E+0	1.359315E+0	1.309787E+0	1.293153E+0	1.354393E+0	1.323729E+0	1.290156E+0	1.223779E+0	1.323353E+0	1.307603E+0	1.328709E+0	1.301382E+0	1.294422E+0	1.331616E+0	1.264414E+0	1.283745E+0	1.338740E+0	1.322956E+0	1.312822E+0	1.312951E+0	1.346184E+0	1.310411E+0	1.306701E+0	1.334801E+0	1.275452E+0	1.346311E+0	1.270385E+0	1.354201E+0	1.350459E+0	1.350168E+0	1.205244E+0	1.282820E+0	1.267801E+0	1.318210E+0	1.318674E+0	1.285688E+0	1.279739E+0	1.294670E+0	1.294003E+0	1.330009E+0	1.297727E+0	1.348083E+0	1.340609E+0	1.363562E+0	1.271266E+0	1.321567E+0	1.310415E+0	1.313912E+0	1.333099E+0	1.283527E+0	1.366330E+0	1.317116E+0	1.315569E+0	1.279246E+0	1.278873E+0	1.288718E+0	1.244538E+0	1.290226E+0	1.294330E+0	1.307236E+0	1.342718E+0	1.360147E+0	1.338551E+0	1.336408E+0	1.298276E+0	1.258994E+0	1.271431E+0	1.268444E+0	1.362578E+0	1.292826E+0	1.304063E+0	1.330288E+0	1.285200E+0	1.337714E+0	1.263389E+0	1.290682E+0	1.330421E+0	1.317500E+0	1.281242E+0	1.319981E+0	1.294160E+0	1.294199E+0	1.327586E+0	1.279395E+0	1.310488E+0	1.271296E+0	1.305414E+0	1.277407E+0	1.318556E+0	1.333292E+0	1.342813E+0	1.338394E+0	1.264900E+0	1.256247E+0	1.267559E+0	1.331915E+0	1.279801E+0	1.296905E+0	1.235344E+0	1.255830E+0	1.294637E+0	1.229155E+0	1.229153E+0	1.258672E+0	1.304933E+0	1.314190E+0	1.310386E+0	1.313679E+0	1.368063E+0	1.363560E+0
5.422670E+2	1.154033E+0	1.098813E+0	1.180148E+0	1.173622E+0	1.166550E+0	1.095162E+0	1.258428E+0	1.161895E+0	1.134668E+0	1.107236E+0	1.169056E+0	1.185962E+0	1.162217E+0	1.159034E+0	1.147565E+0	1.156557E+0	1.144811E+0	1.181450E+0	1.160621E+0	1.169027E+0	1.111849E+0	1.157371E+0	1.169537E+0	1.182306E+0	1.214148E+0	1.184665E+0	1.157698E+0	1.200873E+0	1.202345E+0	1.156511E+0	1.167878E+0	1.174081E+0	1.164921E+0	1.113543E+0	1.188769E+0	1.129174E+0	1.184597E+0	1.118809E+0	1.177800E+0	1.105203E+0	1.195620E+0	1.154874E+0	1.210968E+0	1.156983E+0	1.145654E+0	1.110658E+0	1.169071E+0	1.140694E+0	1.123764E+0	1.099147E+0	1.146401E+0	1.158536E+0	1.192783E+0	1.118534E+0	1.123906E+0	1.183098E+0	1.147276E+0	1.164249E+0	1.190456E+0	1.174180E+0	1.161614E+0	1.158043E+0	1.137522E+0	1.156483E+0	1.192624E+0	1.167429E+0	1.162197E+0	1.195604E+0	1.132342E+0	1.168391E+0	1.146613E+0	1.225219E+0	1.156402E+0	1.174096E+0	1.140556E+0	1.225058E+0	1.152601E+0	1.144082E+0	1.163983E+0	1.171630E+0	1.180873E+0	1.093358E+0	1.180107E+0	1.143000E+0	1.184375E+0	1.157007E+0	1.154828E+0	1.137676E+0	1.178791E+0	1.201833E+0	1.147494E+0	1.110355E+0	1.186339E+0	1.181088E+0	1.124902E+0	1.156846E+0	1.138738E+0	1.128364E+0	1.139071E+0	1.149439E+0	1.196921E+0	1.168292E+0	1.129036E+0	1.243531E+0	1.154841E+0	1.179196E+0	1.188718E+0	1.144867E+0	1.165826E+0	1.125933E+0	1.157939E+0	1.151202E+0	1.159665E+0	1.129923E+0	1.141715E+0	1.187187E+0	1.156753E+0	1.163086E+0	1.115911E+0	1.161929E+0	1.191993E+0	1.146036E+0	1.154702E+0	1.209697E+0	1.184064E+0	1.122339E+0	1.136199E+0	1.183475E+0	1.133381E+0	1.107163E+0	1.119071E+0	1.208143E+0	1.168405E+0	1.125521E+0	1.134982E+0	1.151843E+0	1.160537E+0	1.216072E+0	1.118514E+0	1.128387E+0	1.125582E+0	1.151880E+0	1.156257E+0	1.112089E+0	1.128138E+0	1.158300E+0	1.139818E+0	1.108080E+0	1.138046E+0	1.095389E+0	1.174313E+0	1.194702E+0	1.131836E+0	1.112503E+0	1.192899E+0	1.136648E+0	1.124748E+0	1.132052E+0	1.150140E+0	1.182325E+0	1.146860E+0	1.083335E+0	1.189640E+0	1.134204E+0	1.176838E+0
5.425080E+2	1.022401E+0	1.002381E+0	1.010129E+0	1.036868E+0	1.006777E+0	9.983779E-1	1.072515E+0	1.038641E+0	9.925761E-1	1.018748E+0	1.028092E+0	1.017092E+0	1.044276E+0	1.046512E+0	1.039509E+0	9.930202E-1	1.067716E+0	1.011853E+0	9.856732E-1	9.937599E-1	1.005435E+0	9.863828E-1	1.018815E+0	1.068402E+0	1.069337E+0	1.061633E+0	1.009290E+0	1.040391E+0	1.015879E+0	1.025594E+0	9.749616E-1	9.957787E-1	1.015782E+0	1.015544E+0	1.003932E+0	1.099449E+0	1.031718E+0	1.006065E+0	9.976080E-1	1.047322E+0	1.039045E+0	1.035048E+0	1.053181E+0	1.040248E+0	1.051185E+0	9.929340E-1	9.979946E-1	1.018416E+0	1.039042E+0	1.036332E+0	1.020440E+0	9.759088E-1	1.054302E+0	9.974367E-1	9.983617E-1	1.008562E+0	1.034803E+0	1.038989E+0	1.041924E+0	1.054562E+0	1.063223E+0	1.036583E+0	1.034558E+0	1.059676E+0	1.097769E+0	1.034867E+0	1.020261E+0	1.040295E+0	1.046195E+0	1.056746E+0	1.052229E+0	1.046731E+0	1.060002E+0	9.936120E-1	1.046469E+0	1.088756E+0	1.035257E+0	1.001006E+0	1.030140E+0	9.866972E-1	1.004095E+0	1.034142E+0	1.005312E+0	1.067939E+0	1.042505E+0	1.012731E+0	1.020721E+0	1.026910E+0	1.014021E+0	9.969221E-1	9.880096E-1	1.040333E+0	1.024911E+0	1.015717E+0	1.030475E+0	1.061002E+0	1.021981E+0	1.083553E+0	1.005854E+0	1.018647E+0	1.037544E+0	1.015959E+0	9.626656E-1	1.035005E+0	1.033170E+0	1.018721E+0	1.012339E+0	1.037486E+0	9.839081E-1	1.060105E+0	1.017242E+0	9.910817E-1	1.035698E+0	1.005084E+0	1.061962E+0	9.658475E-1	1.092288E+0	1.001126E+0	1.014454E+0	1.064362E+0	1.005340E+0	1.013209E+0	9.487680E-1	1.089171E+0	1.024824E+0	9.753885E-1	1.025361E+0	1.039987E+0	1.084029E+0	1.008970E+0	1.020401E+0	1.049647E+0	1.023006E+0	1.058626E+0	9.958056E-1	1.021116E+0	1.034761E+0	1.029905E+0	9.842500E-1	1.064218E+0	1.012821E+0	1.043151E+0	1.043849E+0	1.023895E+0	1.014477E+0	1.044975E+0	1.016309E+0	1.011731E+0	1.007416E+0	1.060700E+0	1.067307E+0	1.060207E+0	9.899887E-1	9.828127E-1	1.058864E+0	1.063232E+0	1.025810E+0	1.007657E+0	1.034420E+0	1.023784E+0	1.035442E+0	1.017479E+0	1.042356E+0	1.039631E+0	9.823480E-1
5.427600E+2	9.469008E-1	9.466490E-1	9.741600E-1	9.514472E-1	9.538022E-1	9.528245E-1	9.505629E-1	1.007844E+0	1.017115E+0	9.698506E-1	9.452797E-1	9.323546E-1	9.975724E-1	9.319325E-1	9.869483E-1	9.338000E-1	1.022988E+0	9.971260E-1	9.915127E-1	9.821798E-1	9.986764E-1	9.686358E-1	9.762734E-1	9.179573E-1	9.962560E-1	9.666746E-1	9.597440E-1	9.584231E-1	9.977993E-1	9.536686E-1	9.325878E-1	9.928057E-1	9.469905E-1	9.118903E-1	9.011534E-1	9.589440E-1	9.293867E-1	9.534210E-1	9.449805E-1	9.855700E-1	9.586911E-1	9.992325E-1	9.674750E-1	9.714588E-1	9.492619E-1	9.891331E-1	9.088861E-1	9.428444E-1	9.897718E-1	9.370938E-1	9.990266E-1	9.638964E-1	9.619453E-1	9.760038E-1	9.472841E-1	9.640860E-1	9.580959E-1	9.531999E-1	9.649680E-1	9.496690E-1	9.359914E-1	9.591344E-1	8.953053E-1	9.148914E-1	9.407204E-1	9.819295E-1	9.814392E-1	9.963967E-1	9.657390E-1	9.553970E-1	9.435875E-1	1.034731E+0	9.688856E-1	9.526508E-1	9.406873E-1	1.053473E+0	9.491638E-1	9.112499E-1	9.379756E-1	9.310508E-1	9.555236E-1	9.614254E-1	9.389303E-1	9.793036E-1	9.844846E-1	9.400694E-1	9.461019E-1	9.541012E-1	9.410123E-1	1.017020E+0	9.479238E-1	9.731591E-1	9.441728E-1	9.449685E-1	9.301644E-1	9.709100E-1	9.730040E-1	9.236839E-1	8.938217E-1	9.247867E-1	9.632732E-1	1.013715E+0	9.374202E-1	9.287197E-1	9.374736E-1	8.896242E-1	9.434343E-1	9.406672E-1	9.313469E-1	9.447586E-1	9.615626E-1	9.379615E-1	9.594855E-1	9.517714E-1	9.924499E-1	1.000713E+0	9.707891E-1	9.627357E-1	8.846688E-1	9.523380E-1	1.024905E+0	9.681631E-1	9.503051E-1	1.035056E+0	9.667050E-1	9.559943E-1	9.371565E-1	9.893977E-1	9.346843E-1	9.194658E-1	9.471326E-1	9.683037E-1	9.482655E-1	9.543340E-1	9.146169E-1	9.620770E-1	9.686074E-1	9.274761E-1	9.105068E-1	9.797096E-1	9.425087E-1	1.024426E+0	9.424601E-1	9.706899E-1	1.018329E+0	9.436333E-1	9.254618E-1	9.030586E-1	9.493616E-1	9.331270E-1	9.908082E-1	1.009196E+0	9.342989E-1	9.234091E-1	9.548431E-1	9.362170E-1	9.616493E-1	9.500575E-1	9.586507E-1	9.704900E-1	9.549444E-1	8.899682E-1	9.153291E-1	9.401205E-1	9.650146E-1
5.430330E+2	1.008977E+0	9.795926E-1	1.038376E+0	9.627729E-1	9.918032E-1	9.755802E-1	1.019068E+0	1.036540E+0	1.015065E+0	9.967045E-1	1.025461E+0	9.723366E-1	9.883795E-1	9.889454E-1	1.024159E+0	9.824783E-1	1.047132E+0	1.023749E+0	1.008942E+0	1.000443E+0	9.778655E-1	1.020902E+0	1.035273E+0	1.010433E+0	1.006635E+0	1.047347E+0	9.940387E-1	1.039832E+0	1.056870E+0	9.862160E-1	9.824888E-1	1.002019E+0	1.035720E+0	9.620352E-1	1.006836E+0	9.798678E-1	1.005984E+0	1.000213E+0	9.931012E-1	1.016652E+0	1.024897E+0	9.531580E-1	1.028493E+0	9.953703E-1	1.007869E+0	1.037218E+0	9.593347E-1	9.889687E-1	9.771511E-1	1.012019E+0	9.888971E-1	1.046281E+0	1.062695E+0	9.597636E-1	9.732073E-1	9.769597E-1	1.046722E+0	1.014880E+0	1.023181E+0	1.023648E+0	9.951159E-1	9.771336E-1	9.458872E-1	1.016042E+0	1.037171E+0	9.624483E-1	9.676956E-1	9.945928E-1	1.022031E+0	1.029386E+0	9.905146E-1	1.013259E+0	9.876930E-1	9.756213E-1	9.488975E-1	1.074524E+0	9.596698E-1	9.896101E-1	1.040274E+0	9.881361E-1	9.808608E-1	9.883113E-1	9.723561E-1	9.965965E-1	1.003428E+0	8.991044E-1	9.998361E-1	1.007082E+0	1.023344E+0	9.901358E-1	9.771409E-1	9.869119E-1	1.000422E+0	9.750684E-1	9.616206E-1	1.009244E+0	9.693100E-1	9.574002E-1	1.028640E+0	1.044118E+0	1.008490E+0	1.062494E+0	1.014118E+0	1.037700E+0	9.739101E-1	1.012988E+0	1.015713E+0	9.844147E-1	1.040050E+0	9.825277E-1	1.010598E+0	9.986111E-1	9.887423E-1	9.954336E-1	9.731465E-1	1.029226E+0	1.021962E+0	9.937398E-1	9.696080E-1	9.819796E-1	9.787787E-1	9.298583E-1	9.414879E-1	1.068693E+0	1.021904E+0	9.762591E-1	1.011361E+0	9.874805E-1	1.036894E+0	9.824391E-1	1.005372E+0	9.870759E-1	1.038463E+0	9.794247E-1	9.732049E-1	1.011438E+0	1.001165E+0	9.973304E-1	9.353000E-1	1.014162E+0	1.047867E+0	1.007319E+0	9.961460E-1	9.952633E-1	9.723923E-1	1.027017E+0	1.034821E+0	9.617840E-1	9.688142E-1	9.646026E-1	9.838325E-1	1.012917E+0	9.331804E-1	9.510239E-1	1.010754E+0	1.046030E+0	9.433383E-1	1.000342E+0	9.870511E-1	1.042699E+0	1.007062E+0	9.913142E-1	9.744587E-1	9.598529E-1	1.056253E+0
5.432640E+2	9.983190E-1	1.069778E+0	1.068537E+0	1.082619E+0	1.054065E+0	1.042046E+0	1.075505E+0	1.133574E+0	1.032201E+0	1.065869E+0	1.076238E+0	1.050476E+0	1.058876E+0	1.053216E+0	1.069649E+0	1.082569E+0	1.126577E+0	1.098976E+0	1.073310E+0	1.088921E+0	1.091648E+0	1.086029E+0	1.140294E+0	1.097966E+0	1.055788E+0	1.077004E+0	1.096509E+0	1.103642E+0	1.111266E+0	1.054496E+0	1.096197E+0	1.095726E+0	1.159249E+0	1.101186E+0	1.105986E+0	1.090374E+0	1.027481E+0	1.119914E+0	1.105268E+0	1.090239E+0	1.102446E+0	1.107442E+0	1.121135E+0	1.108922E+0	1.109152E+0	1.103843E+0	1.060099E+0	1.069764E+0	1.049103E+0	1.095965E+0	1.056394E+0	1.027089E+0	1.067644E+0	1.115278E+0	1.059528E+0	1.008976E+0	1.052951E+0	1.089268E+0	1.055957E+0	1.098977E+0	1.088987E+0	1.082867E+0	1.058306E+0	1.079309E+0	1.091679E+0	1.127033E+0	1.047424E+0	1.063166E+0	1.092217E+0	1.076826E+0	1.035435E+0	1.107293E+0	1.107727E+0	1.089849E+0	1.085123E+0	1.117640E+0	1.043327E+0	1.041930E+0	1.015333E+0	1.095290E+0	1.091667E+0	1.044283E+0	1.030078E+0	1.086896E+0	1.074449E+0	1.046584E+0	1.037050E+0	1.123440E+0	1.035771E+0	1.075647E+0	1.020814E+0	1.035901E+0	1.070878E+0	1.029008E+0	1.091926E+0	1.059384E+0	1.093670E+0	1.044478E+0	1.105230E+0	1.067822E+0	1.095400E+0	1.085272E+0	1.042505E+0	1.115519E+0	1.030701E+0	1.083139E+0	1.024350E+0	1.035538E+0	1.079130E+0	1.059629E+0	1.072212E+0	1.050438E+0	1.123899E+0	1.060047E+0	1.019259E+0	1.097898E+0	1.137339E+0	1.031899E+0	1.041161E+0	1.097862E+0	1.073143E+0	1.040228E+0	1.045239E+0	1.132696E+0	1.021600E+0	1.061389E+0	1.043085E+0	1.054129E+0	1.061247E+0	1.006202E+0	1.062316E+0	1.074645E+0	1.122922E+0	1.078715E+0	1.031638E+0	1.105447E+0	1.050238E+0	1.067904E+0	1.069864E+0	1.027706E+0	1.072200E+0	1.069416E+0	1.060805E+0	1.018994E+0	1.062766E+0	1.040090E+0	1.048932E+0	1.040243E+0	1.023197E+0	1.078834E+0	1.056399E+0	1.077858E+0	1.105948E+0	1.017906E+0	1.055062E+0	1.129160E+0	1.062315E+0	1.067633E+0	1.052508E+0	1.072774E+0	1.130688E+0	1.062039E+0	1.082172E+0	1.105019E+0	1.151510E+0
5.435110E+2	1.243984E+0	1.197438E+0	1.289364E+0	1.245386E+0	1.193210E+0	1.229907E+0	1.277022E+0	1.260277E+0	1.264452E+0	1.189402E+0	1.242488E+0	1.265957E+0	1.279199E+0	1.207711E+0	1.215133E+0	1.232708E+0	1.302072E+0	1.218465E+0	1.245436E+0	1.281614E+0	1.290163E+0	1.208132E+0	1.223606E+0	1.293236E+0	1.300555E+0	1.316073E+0	1.242643E+0	1.308297E+0	1.270144E+0	1.234986E+0	1.222745E+0	1.284124E+0	1.324637E+0	1.242213E+0	1.293085E+0	1.264630E+0	1.295175E+0	1.219951E+0	1.242525E+0	1.259607E+0	1.224638E+0	1.240180E+0	1.223778E+0	1.296507E+0	1.245228E+0	1.217801E+0	1.230218E+0	1.236447E+0	1.269720E+0	1.244408E+0	1.255212E+0	1.216386E+0	1.282963E+0	1.246808E+0	1.227191E+0	1.257501E+0	1.251929E+0	1.262512E+0	1.199382E+0	1.339302E+0	1.159116E+0	1.203277E+0	1.205379E+0	1.201108E+0	1.257175E+0	1.255375E+0	1.253171E+0	1.270967E+0	1.266130E+0	1.196448E+0	1.238807E+0	1.310775E+0	1.259320E+0	1.204266E+0	1.268694E+0	1.283369E+0	1.236919E+0	1.229631E+0	1.238460E+0	1.216913E+0	1.301149E+0	1.203539E+0	1.212252E+0	1.261285E+0	1.289273E+0	1.184866E+0	1.226048E+0	1.221789E+0	1.216320E+0	1.290078E+0	1.239390E+0	1.202252E+0	1.258119E+0	1.185105E+0	1.239622E+0	1.252800E+0	1.211888E+0	1.287627E+0	1.258002E+0	1.278748E+0	1.272948E+0	1.223269E+0	1.268809E+0	1.272534E+0	1.282597E+0	1.272624E+0	1.207767E+0	1.251331E+0	1.217627E+0	1.270207E+0	1.207976E+0	1.203873E+0	1.238462E+0	1.212882E+0	1.251733E+0	1.255475E+0	1.274337E+0	1.261285E+0	1.188191E+0	1.236212E+0	1.255976E+0	1.228107E+0	1.224277E+0	1.260216E+0	1.220106E+0	1.264240E+0	1.231077E+0	1.235016E+0	1.253433E+0	1.230680E+0	1.201052E+0	1.234786E+0	1.286521E+0	1.221208E+0	1.239678E+0	1.315091E+0	1.245908E+0	1.239509E+0	1.274411E+0	1.304077E+0	1.259406E+0	1.211775E+0	1.205670E+0	1.206759E+0	1.226224E+0	1.234420E+0	1.215538E+0	1.241597E+0	1.235955E+0	1.229910E+0	1.271676E+0	1.319235E+0	1.207050E+0	1.213731E+0	1.256130E+0	1.252133E+0	1.217687E+0	1.225534E+0	1.182297E+0	1.256501E+0	1.318692E+0	1.231317E+0	1.230512E+0	1.308532E+0	1.301494E+0
5.437640E+2	1.477660E+0	1.377541E+0	1.366410E+0	1.416263E+0	1.380631E+0	1.433235E+0	1.455209E+0	1.449169E+0	1.382964E+0	1.441152E+0	1.357817E+0	1.421101E+0	1.425528E+0	1.409408E+0	1.387399E+0	1.366397E+0	1.446205E+0	1.411329E+0	1.472675E+0	1.395387E+0	1.411928E+0	1.446566E+0	1.461653E+0	1.471787E+0	1.439961E+0	1.353765E+0	1.389399E+0	1.471869E+0	1.430021E+0	1.384971E+0	1.437153E+0	1.400255E+0	1.452574E+0	1.411447E+0	1.491695E+0	1.483126E+0	1.390940E+0	1.382331E+0	1.327577E+0	1.380292E+0	1.490018E+0	1.393031E+0	1.397662E+0	1.367254E+0	1.441657E+0	1.416476E+0	1.366924E+0	1.386956E+0	1.413063E+0	1.417835E+0	1.444090E+0	1.337603E+0	1.440207E+0	1.445529E+0	1.349194E+0	1.449131E+0	1.418084E+0	1.368803E+0	1.405664E+0	1.470670E+0	1.381861E+0	1.369747E+0	1.363493E+0	1.399824E+0	1.378824E+0	1.408984E+0	1.342742E+0	1.441224E+0	1.384209E+0	1.413228E+0	1.327314E+0	1.417963E+0	1.443099E+0	1.407887E+0	1.395584E+0	1.447165E+0	1.383396E+0	1.315558E+0	1.412639E+0	1.459688E+0	1.488417E+0	1.409164E+0	1.334635E+0	1.337752E+0	1.446125E+0	1.426662E+0	1.380069E+0	1.392454E+0	1.427824E+0	1.401741E+0	1.370332E+0	1.366178E+0	1.351240E+0	1.378188E+0	1.410053E+0	1.424878E+0	1.467222E+0	1.336637E+0	1.362985E+0	1.420342E+0	1.380839E+0	1.413618E+0	1.413220E+0	1.474739E+0	1.400594E+0	1.482411E+0	1.455189E+0	1.485498E+0	1.431898E+0	1.393282E+0	1.381427E+0	1.340530E+0	1.410923E+0	1.353756E+0	1.369202E+0	1.424625E+0	1.380087E+0	1.391990E+0	1.387777E+0	1.383727E+0	1.392775E+0	1.370620E+0	1.376155E+0	1.463132E+0	1.387823E+0	1.385087E+0	1.376794E+0	1.415789E+0	1.397085E+0	1.382353E+0	1.337966E+0	1.425287E+0	1.391587E+0	1.375796E+0	1.394656E+0	1.378067E+0	1.419185E+0	1.349457E+0	1.341650E+0	1.388767E+0	1.378857E+0	1.361220E+0	1.384803E+0	1.374231E+0	1.445333E+0	1.459205E+0	1.369810E+0	1.376365E+0	1.357550E+0	1.428897E+0	1.391039E+0	1.386928E+0	1.397062E+0	1.406823E+0	1.456138E+0	1.472005E+0	1.398432E+0	1.359033E+0	1.381746E+0	1.423332E+0	1.451057E+0	1.366897E+0	1.374820E+0	1.529929E+0	1.259733E+0
5.440280E+2	1.591586E+0	1.477981E+0	1.573553E+0	1.527106E+0	1.509391E+0	1.543298E+0	1.527362E+0	1.545704E+0	1.564273E+0	1.517186E+0	1.521455E+0	1.522024E+0	1.539297E+0	1.538894E+0	1.565192E+0	1.545269E+0	1.567034E+0	1.543070E+0	1.557658E+0	1.501840E+0	1.528690E+0	1.523620E+0	1.601397E+0	1.506386E+0	1.544292E+0	1.573091E+0	1.525337E+0	1.568449E+0	1.551814E+0	1.528090E+0	1.490395E+0	1.508519E+0	1.580508E+0	1.491932E+0	1.538440E+0	1.539329E+0	1.506156E+0	1.545036E+0	1.523638E+0	1.484666E+0	1.574429E+0	1.527569E+0	1.543701E+0	1.549671E+0	1.548929E+0	1.465989E+0	1.486683E+0	1.516648E+0	1.480767E+0	1.500359E+0	1.477379E+0	1.552153E+0	1.514908E+0	1.561861E+0	1.483919E+0	1.555110E+0	1.479494E+0	1.495317E+0	1.510892E+0	1.550616E+0	1.504691E+0	1.503285E+0	1.498329E+0	1.539378E+0	1.584013E+0	1.436711E+0	1.525959E+0	1.565764E+0	1.503809E+0	1.483778E+0	1.469881E+0	1.533562E+0	1.525119E+0	1.448359E+0	1.475873E+0	1.551017E+0	1.491032E+0	1.513397E+0	1.511690E+0	1.551286E+0	1.521534E+0	1.459520E+0	1.521598E+0	1.523270E+0	1.512121E+0	1.453051E+0	1.526258E+0	1.531967E+0	1.535257E+0	1.481999E+0	1.443049E+0	1.574364E+0	1.515126E+0	1.439148E+0	1.494045E+0	1.481499E+0	1.487404E+0	1.504699E+0	1.510764E+0	1.515459E+0	1.519765E+0	1.494042E+0	1.494009E+0	1.551883E+0	1.495444E+0	1.534488E+0	1.520207E+0	1.513827E+0	1.470494E+0	1.535073E+0	1.465871E+0	1.472869E+0	1.559321E+0	1.465567E+0	1.476944E+0	1.496242E+0	1.459178E+0	1.488568E+0	1.447398E+0	1.550801E+0	1.546944E+0	1.520840E+0	1.505398E+0	1.541799E+0	1.544609E+0	1.499809E+0	1.523948E+0	1.525475E+0	1.534658E+0	1.452568E+0	1.443150E+0	1.569448E+0	1.518460E+0	1.418851E+0	1.495955E+0	1.556070E+0	1.467275E+0	1.485779E+0	1.440513E+0	1.513627E+0	1.531002E+0	1.495643E+0	1.534504E+0	1.509025E+0	1.445673E+0	1.502980E+0	1.509633E+0	1.538519E+0	1.459319E+0	1.526539E+0	1.457008E+0	1.445984E+0	1.490410E+0	1.518968E+0	1.525786E+0	1.544111E+0	1.477325E+0	1.421932E+0	1.463025E+0	1.490836E+0	1.573236E+0	1.472314E+0	1.425523E+0	1.476890E+0	1.553285E+0
5.442810E+2	1.552673E+0	1.538728E+0	1.535416E+0	1.636798E+0	1.581416E+0	1.530097E+0	1.617007E+0	1.605605E+0	1.604908E+0	1.637572E+0	1.585292E+0	1.571055E+0	1.605427E+0	1.563144E+0	1.576910E+0	1.526762E+0	1.568257E+0	1.574543E+0	1.522577E+0	1.531991E+0	1.554283E+0	1.532322E+0	1.536708E+0	1.542081E+0	1.619776E+0	1.583944E+0	1.520045E+0	1.569607E+0	1.599051E+0	1.565191E+0	1.567959E+0	1.606780E+0	1.590303E+0	1.553912E+0	1.540863E+0	1.556951E+0	1.577224E+0	1.526581E+0	1.547672E+0	1.579028E+0	1.579494E+0	1.551246E+0	1.567277E+0	1.540023E+0	1.548279E+0	1.548390E+0	1.538516E+0	1.564767E+0	1.607493E+0	1.505330E+0	1.590537E+0	1.544044E+0	1.568806E+0	1.619057E+0	1.579653E+0	1.592623E+0	1.556002E+0	1.589259E+0	1.565496E+0	1.642115E+0	1.530330E+0	1.540399E+0	1.504963E+0	1.533902E+0	1.583178E+0	1.593785E+0	1.537961E+0	1.607342E+0	1.548468E+0	1.503333E+0	1.512563E+0	1.583821E+0	1.655225E+0	1.572843E+0	1.585357E+0	1.638094E+0	1.498092E+0	1.561795E+0	1.527247E+0	1.507676E+0	1.552023E+0	1.534135E+0	1.519782E+0	1.600503E+0	1.567055E+0	1.499588E+0	1.552202E+0	1.558014E+0	1.551272E+0	1.593803E+0	1.538837E+0	1.544343E+0	1.585569E+0	1.534365E+0	1.565640E+0	1.600502E+0	1.588560E+0	1.606192E+0	1.527304E+0	1.602629E+0	1.499412E+0	1.558521E+0	1.575412E+0	1.577833E+0	1.528119E+0	1.530097E+0	1.549761E+0	1.561337E+0	1.529085E+0	1.481025E+0	1.530429E+0	1.509512E+0	1.593570E+0	1.516718E+0	1.569461E+0	1.538126E+0	1.581332E+0	1.552775E+0	1.525183E+0	1.608263E+0	1.568958E+0	1.529921E+0	1.495380E+0	1.607615E+0	1.593369E+0	1.558913E+0	1.550278E+0	1.504078E+0	1.580524E+0	1.476267E+0	1.444677E+0	1.569200E+0	1.516447E+0	1.491566E+0	1.568521E+0	1.527359E+0	1.557166E+0	1.537433E+0	1.475500E+0	1.506775E+0	1.549219E+0	1.480985E+0	1.481655E+0	1.549320E+0	1.551968E+0	1.547786E+0	1.548140E+0	1.614270E+0	1.560230E+0	1.540404E+0	1.530184E+0	1.597242E+0	1.554537E+0	1.494701E+0	1.478670E+0	1.615160E+0	1.513608E+0	1.522450E+0	1.504095E+0	1.530321E+0	1.626255E+0	1.625876E+0	1.570536E+0	1.581015E+0	1.570193E+0
5.445400E+2	1.571377E+0	1.582280E+0	1.579342E+0	1.601730E+0	1.614202E+0	1.660487E+0	1.631671E+0	1.602812E+0	1.603426E+0	1.618255E+0	1.608489E+0	1.614858E+0	1.555144E+0	1.648410E+0	1.573231E+0	1.565289E+0	1.508472E+0	1.551015E+0	1.550215E+0	1.550224E+0	1.566014E+0	1.625851E+0	1.576777E+0	1.577055E+0	1.612734E+0	1.593198E+0	1.545650E+0	1.635573E+0	1.630806E+0	1.594801E+0	1.601464E+0	1.579011E+0	1.591701E+0	1.519885E+0	1.596003E+0	1.536216E+0	1.570743E+0	1.582285E+0	1.586766E+0	1.545559E+0	1.633212E+0	1.557562E+0	1.560979E+0	1.560877E+0	1.560849E+0	1.542610E+0	1.593384E+0	1.584449E+0	1.582778E+0	1.572595E+0	1.613682E+0	1.546262E+0	1.600206E+0	1.588490E+0	1.529041E+0	1.590968E+0	1.565959E+0	1.578720E+0	1.570100E+0	1.700599E+0	1.578657E+0	1.524276E+0	1.526707E+0	1.539508E+0	1.583186E+0	1.574252E+0	1.538497E+0	1.616200E+0	1.631595E+0	1.549594E+0	1.571106E+0	1.631198E+0	1.642332E+0	1.547292E+0	1.522373E+0	1.659056E+0	1.629984E+0	1.453783E+0	1.609695E+0	1.546665E+0	1.627189E+0	1.503069E+0	1.547851E+0	1.640083E+0	1.590350E+0	1.516234E+0	1.523217E+0	1.604082E+0	1.635327E+0	1.566759E+0	1.549835E+0	1.529099E+0	1.605779E+0	1.521092E+0	1.548436E+0	1.618064E+0	1.524762E+0	1.543617E+0	1.533597E+0	1.572697E+0	1.595198E+0	1.576277E+0	1.514071E+0	1.581900E+0	1.500488E+0	1.575234E+0	1.578863E+0	1.524443E+0	1.515369E+0	1.515808E+0	1.575453E+0	1.557495E+0	1.594671E+0	1.529289E+0	1.525646E+0	1.593914E+0	1.605062E+0	1.554791E+0	1.477181E+0	1.579804E+0	1.521634E+0	1.536207E+0	1.567704E+0	1.643900E+0	1.549261E+0	1.543629E+0	1.541290E+0	1.520838E+0	1.508840E+0	1.498990E+0	1.519497E+0	1.587397E+0	1.600437E+0	1.552800E+0	1.492672E+0	1.587508E+0	1.611745E+0	1.515672E+0	1.498726E+0	1.501762E+0	1.590640E+0	1.521166E+0	1.502014E+0	1.493568E+0	1.601176E+0	1.584667E+0	1.531923E+0	1.529600E+0	1.500980E+0	1.557420E+0	1.546312E+0	1.546083E+0	1.587249E+0	1.559354E+0	1.569357E+0	1.653190E+0	1.554543E+0	1.555447E+0	1.608073E+0	1.527320E+0	1.570550E+0	1.525776E+0	1.532533E+0	1.480100E+0	1.478565E+0
5.447610E+2	1.568767E+0	1.555238E+0	1.563370E+0	1.601645E+0	1.564861E+0	1.570486E+0	1.590542E+0	1.608218E+0	1.522739E+0	1.607672E+0	1.562189E+0	1.568713E+0	1.593139E+0	1.564430E+0	1.571269E+0	1.580933E+0	1.536805E+0	1.576965E+0	1.507050E+0	1.520000E+0	1.545371E+0	1.578341E+0	1.574336E+0	1.547792E+0	1.619483E+0	1.520332E+0	1.575885E+0	1.592870E+0	1.537634E+0	1.553826E+0	1.581563E+0	1.559961E+0	1.629409E+0	1.519797E+0	1.558921E+0	1.495155E+0	1.575308E+0	1.542456E+0	1.479064E+0	1.536774E+0	1.571770E+0	1.630106E+0	1.555279E+0	1.576077E+0	1.591801E+0	1.548394E+0	1.526138E+0	1.550582E+0	1.566477E+0	1.594048E+0	1.506660E+0	1.486945E+0	1.584767E+0	1.546503E+0	1.556316E+0	1.605451E+0	1.570161E+0	1.542678E+0	1.525730E+0	1.571202E+0	1.524679E+0	1.519460E+0	1.516879E+0	1.547790E+0	1.608290E+0	1.549320E+0	1.535631E+0	1.564003E+0	1.547150E+0	1.512318E+0	1.539403E+0	1.550018E+0	1.523870E+0	1.501434E+0	1.566543E+0	1.632606E+0	1.539615E+0	1.548259E+0	1.552466E+0	1.575361E+0	1.588657E+0	1.549935E+0	1.531049E+0	1.616333E+0	1.559411E+0	1.470736E+0	1.527700E+0	1.567046E+0	1.563163E+0	1.550197E+0	1.530279E+0	1.570052E+0	1.565083E+0	1.461043E+0	1.542598E+0	1.562829E+0	1.574903E+0	1.532071E+0	1.571612E+0	1.542762E+0	1.530038E+0	1.578090E+0	1.575732E+0	1.594692E+0	1.543277E+0	1.582918E+0	1.563430E+0	1.547786E+0	1.593162E+0	1.584840E+0	1.505270E+0	1.527070E+0	1.528055E+0	1.504312E+0	1.523859E+0	1.597595E+0	1.596523E+0	1.533551E+0	1.504690E+0	1.500258E+0	1.552069E+0	1.521106E+0	1.568480E+0	1.592239E+0	1.597351E+0	1.523446E+0	1.552024E+0	1.540745E+0	1.542759E+0	1.511610E+0	1.513397E+0	1.575969E+0	1.566774E+0	1.479700E+0	1.474510E+0	1.566567E+0	1.570959E+0	1.548660E+0	1.518096E+0	1.515340E+0	1.492758E+0	1.536541E+0	1.555645E+0	1.513986E+0	1.530285E+0	1.529037E+0	1.478762E+0	1.452409E+0	1.538683E+0	1.579245E+0	1.515780E+0	1.507577E+0	1.574830E+0	1.539467E+0	1.593770E+0	1.568243E+0	1.495879E+0	1.488380E+0	1.499422E+0	1.513668E+0	1.584579E+0	1.467483E+0	1.569652E+0	1.513626E+0	1.671196E+0
5.450150E+2	1.549707E+0	1.480837E+0	1.459471E+0	1.498881E+0	1.453765E+0	1.493988E+0	1.575316E+0	1.460645E+0	1.519271E+0	1.479358E+0	1.484979E+0	1.486504E+0	1.547394E+0	1.454508E+0	1.498994E+0	1.510821E+0	1.515574E+0	1.459050E+0	1.487814E+0	1.423107E+0	1.486068E+0	1.481443E+0	1.451375E+0	1.491292E+0	1.505033E+0	1.486680E+0	1.482687E+0	1.457755E+0	1.518394E+0	1.528513E+0	1.483647E+0	1.490829E+0	1.479939E+0	1.475530E+0	1.491587E+0	1.447308E+0	1.483713E+0	1.491035E+0	1.538370E+0	1.464788E+0	1.485893E+0	1.484343E+0	1.535779E+0	1.471380E+0	1.537386E+0	1.485645E+0	1.455581E+0	1.463847E+0	1.482194E+0	1.522676E+0	1.439550E+0	1.476993E+0	1.481743E+0	1.485518E+0	1.505587E+0	1.491254E+0	1.449691E+0	1.489129E+0	1.482923E+0	1.538111E+0	1.484236E+0	1.467726E+0	1.455421E+0	1.471913E+0	1.492139E+0	1.523226E+0	1.362168E+0	1.496637E+0	1.457207E+0	1.436784E+0	1.419534E+0	1.472185E+0	1.505455E+0	1.490254E+0	1.499032E+0	1.492622E+0	1.527823E+0	1.469868E+0	1.487419E+0	1.458447E+0	1.495654E+0	1.500297E+0	1.484402E+0	1.542275E+0	1.531503E+0	1.501575E+0	1.516275E+0	1.520412E+0	1.491012E+0	1.504154E+0	1.510071E+0	1.460364E+0	1.464964E+0	1.454692E+0	1.542955E+0	1.420323E+0	1.505905E+0	1.460649E+0	1.452036E+0	1.499156E+0	1.549213E+0	1.514820E+0	1.439313E+0	1.494426E+0	1.468395E+0	1.509374E+0	1.438350E+0	1.466476E+0	1.471164E+0	1.500667E+0	1.450476E+0	1.472366E+0	1.451751E+0	1.442408E+0	1.459514E+0	1.529156E+0	1.470550E+0	1.439882E+0	1.427185E+0	1.452107E+0	1.524838E+0	1.471372E+0	1.469871E+0	1.532575E+0	1.470290E+0	1.448344E+0	1.432832E+0	1.474582E+0	1.483248E+0	1.438744E+0	1.432709E+0	1.443518E+0	1.504847E+0	1.469353E+0	1.414021E+0	1.506525E+0	1.471174E+0	1.451870E+0	1.442088E+0	1.447846E+0	1.484588E+0	1.474979E+0	1.445045E+0	1.492459E+0	1.481558E+0	1.474992E+0	1.459037E+0	1.495907E+0	1.484752E+0	1.504897E+0	1.443055E+0	1.494694E+0	1.463531E+0	1.455111E+0	1.443473E+0	1.506378E+0	1.413743E+0	1.481531E+0	1.434151E+0	1.490209E+0	1.461544E+0	1.481624E+0	1.511921E+0	1.443410E+0	1.489496E+0
5.452640E+2	1.409515E+0	1.366318E+0	1.447974E+0	1.431947E+0	1.423356E+0	1.405970E+0	1.458842E+0	1.501088E+0	1.436116E+0	1.372748E+0	1.369940E+0	1.403976E+0	1.444831E+0	1.435428E+0	1.409132E+0	1.428929E+0	1.397762E+0	1.404704E+0	1.406992E+0	1.368660E+0	1.380908E+0	1.447152E+0	1.386603E+0	1.389591E+0	1.485260E+0	1.438035E+0	1.385258E+0	1.372913E+0	1.422067E+0	1.409492E+0	1.398108E+0	1.365043E+0	1.460295E+0	1.348853E+0	1.446643E+0	1.343290E+0	1.351691E+0	1.318533E+0	1.368593E+0	1.405734E+0	1.451397E+0	1.388155E+0	1.469624E+0	1.382137E+0	1.424337E+0	1.337179E+0	1.356195E+0	1.469524E+0	1.442260E+0	1.379801E+0	1.402532E+0	1.377225E+0	1.437559E+0	1.448627E+0	1.398416E+0	1.373717E+0	1.441894E+0	1.350598E+0	1.396719E+0	1.430302E+0	1.406046E+0	1.373128E+0	1.393219E+0	1.399317E+0	1.423928E+0	1.467391E+0	1.378464E+0	1.421064E+0	1.381451E+0	1.432789E+0	1.345891E+0	1.415179E+0	1.483752E+0	1.399833E+0	1.371771E+0	1.412297E+0	1.398172E+0	1.358603E+0	1.381021E+0	1.406675E+0	1.450887E+0	1.369606E+0	1.397234E+0	1.437434E+0	1.474501E+0	1.339054E+0	1.396175E+0	1.344772E+0	1.357902E+0	1.437374E+0	1.360632E+0	1.417155E+0	1.439397E+0	1.386005E+0	1.381537E+0	1.378229E+0	1.426142E+0	1.403148E+0	1.421025E+0	1.445867E+0	1.388303E+0	1.425491E+0	1.363360E+0	1.459866E+0	1.421528E+0	1.449107E+0	1.407468E+0	1.410212E+0	1.406351E+0	1.359614E+0	1.358489E+0	1.374224E+0	1.446738E+0	1.370433E+0	1.357677E+0	1.410282E+0	1.491521E+0	1.407255E+0	1.319804E+0	1.389327E+0	1.401009E+0	1.411318E+0	1.375506E+0	1.531519E+0	1.342818E+0	1.436708E+0	1.402443E+0	1.397950E+0	1.358163E+0	1.391253E+0	1.349197E+0	1.429314E+0	1.362436E+0	1.402685E+0	1.352160E+0	1.402720E+0	1.392847E+0	1.365248E+0	1.358364E+0	1.353689E+0	1.373535E+0	1.380713E+0	1.356588E+0	1.354255E+0	1.413487E+0	1.397874E+0	1.450082E+0	1.387925E+0	1.420453E+0	1.397786E+0	1.388458E+0	1.432832E+0	1.418240E+0	1.401538E+0	1.457007E+0	1.469273E+0	1.432495E+0	1.355783E+0	1.412775E+0	1.369521E+0	1.406823E+0	1.357202E+0	1.330195E+0	1.407756E+0	1.361799E+0
5.455070E+2	1.427188E+0	1.318164E+0	1.343864E+0	1.360868E+0	1.346398E+0	1.344515E+0	1.339563E+0	1.317487E+0	1.362994E+0	1.331755E+0	1.317961E+0	1.353037E+0	1.436376E+0	1.332062E+0	1.378294E+0	1.313202E+0	1.358209E+0	1.348994E+0	1.355163E+0	1.315218E+0	1.383123E+0	1.360774E+0	1.346750E+0	1.332757E+0	1.444042E+0	1.368174E+0	1.372609E+0	1.378323E+0	1.409011E+0	1.399598E+0	1.335622E+0	1.329499E+0	1.337542E+0	1.292617E+0	1.341082E+0	1.317316E+0	1.394717E+0	1.396233E+0	1.312416E+0	1.387264E+0	1.392736E+0	1.328480E+0	1.346480E+0	1.323183E+0	1.362014E+0	1.346721E+0	1.348511E+0	1.338686E+0	1.363112E+0	1.376187E+0	1.362916E+0	1.381174E+0	1.344025E+0	1.402254E+0	1.354292E+0	1.370641E+0	1.332122E+0	1.364187E+0	1.342574E+0	1.415733E+0	1.302343E+0	1.314041E+0	1.326354E+0	1.353544E+0	1.418195E+0	1.431099E+0	1.307606E+0	1.394087E+0	1.405843E+0	1.351795E+0	1.307931E+0	1.371008E+0	1.413538E+0	1.328672E+0	1.323421E+0	1.409310E+0	1.382971E+0	1.327551E+0	1.373266E+0	1.313100E+0	1.329328E+0	1.317175E+0	1.355869E+0	1.324864E+0	1.391843E+0	1.356524E+0	1.365378E+0	1.337082E+0	1.339002E+0	1.354523E+0	1.382990E+0	1.329201E+0	1.383679E+0	1.275620E+0	1.354605E+0	1.426383E+0	1.391979E+0	1.344803E+0	1.390861E+0	1.343114E+0	1.356391E+0	1.341459E+0	1.345269E+0	1.379295E+0	1.330667E+0	1.374522E+0	1.366217E+0	1.392757E+0	1.329382E+0	1.359661E+0	1.363784E+0	1.302613E+0	1.397301E+0	1.356577E+0	1.338950E+0	1.390067E+0	1.398837E+0	1.337920E+0	1.302336E+0	1.368906E+0	1.340471E+0	1.372610E+0	1.282480E+0	1.398299E+0	1.396279E+0	1.376228E+0	1.410422E+0	1.353783E+0	1.342409E+0	1.316378E+0	1.306799E+0	1.374359E+0	1.304072E+0	1.358281E+0	1.346983E+0	1.387346E+0	1.354005E+0	1.311939E+0	1.325127E+0	1.358475E+0	1.337160E+0	1.354892E+0	1.305903E+0	1.270230E+0	1.359797E+0	1.327159E+0	1.334008E+0	1.378340E+0	1.353704E+0	1.327430E+0	1.342046E+0	1.350554E+0	1.376021E+0	1.344619E+0	1.400983E+0	1.386352E+0	1.385382E+0	1.313685E+0	1.321816E+0	1.356986E+0	1.371379E+0	1.359216E+0	1.318385E+0	1.348954E+0	1.289741E+0
5.457670E+2	1.298478E+0	1.273755E+0	1.277554E+0	1.281878E+0	1.290094E+0	1.283795E+0	1.300683E+0	1.284614E+0	1.260081E+0	1.288347E+0	1.258439E+0	1.285782E+0	1.280280E+0	1.303158E+0	1.294550E+0	1.255796E+0	1.278539E+0	1.343439E+0	1.271640E+0	1.239482E+0	1.278167E+0	1.278522E+0	1.245244E+0	1.250190E+0	1.308562E+0	1.292781E+0	1.283465E+0	1.249485E+0	1.331160E+0	1.357441E+0	1.232510E+0	1.345334E+0	1.293806E+0	1.257302E+0	1.305372E+0	1.233592E+0	1.262900E+0	1.224515E+0	1.302482E+0	1.242233E+0	1.354858E+0	1.295145E+0	1.298553E+0	1.303179E+0	1.264139E+0	1.327498E+0	1.228134E+0	1.299218E+0	1.336022E+0	1.296381E+0	1.259090E+0	1.247562E+0	1.308997E+0	1.304898E+0	1.284704E+0	1.275405E+0	1.289441E+0	1.277611E+0	1.260093E+0	1.349048E+0	1.276058E+0	1.274262E+0	1.260564E+0	1.275696E+0	1.330815E+0	1.238293E+0	1.262856E+0	1.278481E+0	1.292081E+0	1.268576E+0	1.248294E+0	1.257589E+0	1.265649E+0	1.247577E+0	1.252987E+0	1.299961E+0	1.254338E+0	1.232897E+0	1.272237E+0	1.274199E+0	1.344450E+0	1.311741E+0	1.291162E+0	1.306153E+0	1.356280E+0	1.245483E+0	1.251668E+0	1.237004E+0	1.312045E+0	1.259392E+0	1.216458E+0	1.300910E+0	1.308524E+0	1.271798E+0	1.259219E+0	1.267655E+0	1.291547E+0	1.281921E+0	1.301523E+0	1.297080E+0	1.227798E+0	1.291112E+0	1.275446E+0	1.290155E+0	1.270997E+0	1.267724E+0	1.280288E+0	1.280019E+0	1.296181E+0	1.279037E+0	1.289782E+0	1.276839E+0	1.271987E+0	1.231353E+0	1.262922E+0	1.384673E+0	1.296483E+0	1.310891E+0	1.296875E+0	1.282320E+0	1.299890E+0	1.287415E+0	1.290634E+0	1.271291E+0	1.309518E+0	1.267394E+0	1.247497E+0	1.269049E+0	1.275723E+0	1.273399E+0	1.233177E+0	1.288737E+0	1.269318E+0	1.311830E+0	1.268026E+0	1.248123E+0	1.275688E+0	1.323814E+0	1.241745E+0	1.266164E+0	1.301581E+0	1.229915E+0	1.287112E+0	1.236624E+0	1.341632E+0	1.252136E+0	1.179896E+0	1.328922E+0	1.249231E+0	1.270631E+0	1.234637E+0	1.325784E+0	1.295024E+0	1.249055E+0	1.263182E+0	1.322040E+0	1.247550E+0	1.298575E+0	1.231284E+0	1.279549E+0	1.305546E+0	1.200411E+0	1.289924E+0	1.278409E+0	1.339495E+0
5.460060E+2	1.238395E+0	1.193322E+0	1.279511E+0	1.242599E+0	1.239764E+0	1.285387E+0	1.240177E+0	1.234535E+0	1.238171E+0	1.226295E+0	1.211212E+0	1.174931E+0	1.267967E+0	1.238999E+0	1.219065E+0	1.229378E+0	1.295473E+0	1.214589E+0	1.231575E+0	1.241019E+0	1.264243E+0	1.193286E+0	1.213566E+0	1.216661E+0	1.291703E+0	1.203396E+0	1.276602E+0	1.228408E+0	1.296288E+0	1.259970E+0	1.267440E+0	1.192338E+0	1.229926E+0	1.196171E+0	1.258504E+0	1.196672E+0	1.277591E+0	1.219435E+0	1.298945E+0	1.169658E+0	1.276377E+0	1.236723E+0	1.215757E+0	1.197539E+0	1.247140E+0	1.215324E+0	1.231939E+0	1.213354E+0	1.246208E+0	1.277118E+0	1.238643E+0	1.197011E+0	1.277666E+0	1.277320E+0	1.214341E+0	1.213700E+0	1.221017E+0	1.210976E+0	1.205899E+0	1.279900E+0	1.185899E+0	1.169656E+0	1.192310E+0	1.184898E+0	1.321425E+0	1.214813E+0	1.213148E+0	1.261096E+0	1.245250E+0	1.304137E+0	1.175787E+0	1.211770E+0	1.308787E+0	1.208541E+0	1.229348E+0	1.230985E+0	1.248727E+0	1.229382E+0	1.213417E+0	1.192858E+0	1.243576E+0	1.226464E+0	1.216965E+0	1.216336E+0	1.317774E+0	1.201667E+0	1.198093E+0	1.203749E+0	1.218047E+0	1.248941E+0	1.185689E+0	1.159446E+0	1.254344E+0	1.188512E+0	1.140631E+0	1.217439E+0	1.241939E+0	1.245331E+0	1.240205E+0	1.208758E+0	1.207601E+0	1.278554E+0	1.216801E+0	1.264918E+0	1.213660E+0	1.253768E+0	1.217822E+0	1.183877E+0	1.233943E+0	1.178751E+0	1.225958E+0	1.197766E+0	1.283476E+0	1.183475E+0	1.234883E+0	1.216594E+0	1.186974E+0	1.232656E+0	1.181139E+0	1.212544E+0	1.207870E+0	1.182777E+0	1.205433E+0	1.240452E+0	1.245211E+0	1.263474E+0	1.241142E+0	1.241724E+0	1.246709E+0	1.185843E+0	1.232968E+0	1.240151E+0	1.258754E+0	1.208884E+0	1.206953E+0	1.228394E+0	1.215395E+0	1.193503E+0	1.187358E+0	1.216905E+0	1.259432E+0	1.222664E+0	1.207275E+0	1.206345E+0	1.254709E+0	1.264421E+0	1.223810E+0	1.240802E+0	1.220292E+0	1.239450E+0	1.184808E+0	1.178289E+0	1.220670E+0	1.172702E+0	1.243012E+0	1.238324E+0	1.301570E+0	1.202062E+0	1.211644E+0	1.223556E+0	1.247243E+0	1.184635E+0	1.143740E+0	1.272386E+0	1.276125E+0
5.467660E+2	1.198961E+0	1.203642E+0	1.165309E+0	1.118610E+0	1.195861E+0	1.173674E+0	1.206664E+0	1.191703E+0	1.190374E+0	1.154814E+0	1.158866E+0	1.175945E+0	1.216658E+0	1.181382E+0	1.194416E+0	1.153593E+0	1.139053E+0	1.186910E+0	1.206840E+0	1.154953E+0	1.181793E+0	1.214482E+0	1.202586E+0	1.205945E+0	1.247873E+0	1.261220E+0	1.185611E+0	1.230287E+0	1.240994E+0	1.179027E+0	1.208567E+0	1.220901E+0	1.184133E+0	1.169539E+0	1.190165E+0	1.169835E+0	1.189778E+0	1.189020E+0	1.213448E+0	1.160272E+0	1.236732E+0	1.147358E+0	1.197655E+0	1.162476E+0	1.210288E+0	1.181399E+0	1.214871E+0	1.170982E+0	1.229155E+0	1.237522E+0	1.220114E+0	1.213612E+0	1.262196E+0	1.224990E+0	1.173079E+0	1.169433E+0	1.145775E+0	1.174120E+0	1.128536E+0	1.183603E+0	1.223487E+0	1.183596E+0	1.214199E+0	1.192291E+0	1.203485E+0	1.190532E+0	1.095481E+0	1.225690E+0	1.125446E+0	1.164388E+0	1.167312E+0	1.205684E+0	1.212046E+0	1.147096E+0	1.218406E+0	1.206830E+0	1.170534E+0	1.173653E+0	1.214714E+0	1.186579E+0	1.244501E+0	1.224363E+0	1.178229E+0	1.196248E+0	1.191253E+0	1.168995E+0	1.170506E+0	1.181656E+0	1.257663E+0	1.218402E+0	1.207666E+0	1.208283E+0	1.161823E+0	1.242355E+0	1.169231E+0	1.216066E+0	1.233883E+0	1.189578E+0	1.195651E+0	1.172290E+0	1.239801E+0	1.172595E+0	1.182969E+0	1.111157E+0	1.225839E+0	1.179093E+0	1.210999E+0	1.237235E+0	1.214396E+0	1.138675E+0	1.179941E+0	1.176310E+0	1.220547E+0	1.164403E+0	1.191041E+0	1.236818E+0	1.195333E+0	1.163059E+0	1.134584E+0	1.200807E+0	1.102619E+0	1.214642E+0	1.167742E+0	1.234942E+0	1.186749E+0	1.187208E+0	1.153574E+0	1.231824E+0	1.201167E+0	1.164190E+0	1.185158E+0	1.179944E+0	1.182313E+0	1.190971E+0	1.189845E+0	1.168060E+0	1.142636E+0	1.181240E+0	1.181409E+0	1.185678E+0	1.195708E+0	1.232172E+0	1.190219E+0	1.210753E+0	1.186174E+0	1.141877E+0	1.218209E+0	1.215142E+0	1.160501E+0	1.201352E+0	1.199788E+0	1.212919E+0	1.194195E+0	1.126563E+0	1.235046E+0	1.179371E+0	1.182436E+0	1.185584E+0	1.172498E+0	1.196977E+0	1.203124E+0	1.151778E+0	1.105497E+0	1.149038E+0	1.180487E+0
5.475340E+2	1.332847E+0	1.252251E+0	1.297989E+0	1.346612E+0	1.316368E+0	1.295180E+0	1.343572E+0	1.278206E+0	1.279025E+0	1.331897E+0	1.299682E+0	1.291602E+0	1.306656E+0	1.264280E+0	1.352257E+0	1.282047E+0	1.302038E+0	1.310424E+0	1.269405E+0	1.293051E+0	1.300770E+0	1.332474E+0	1.298620E+0	1.307644E+0	1.343188E+0	1.274705E+0	1.329815E+0	1.308013E+0	1.301927E+0	1.291186E+0	1.296032E+0	1.264814E+0	1.301928E+0	1.302130E+0	1.323905E+0	1.267397E+0	1.318215E+0	1.281532E+0	1.352559E+0	1.344642E+0	1.330724E+0	1.345998E+0	1.300040E+0	1.296718E+0	1.345156E+0	1.230242E+0	1.318779E+0	1.280574E+0	1.355600E+0	1.283904E+0	1.321337E+0	1.278015E+0	1.311085E+0	1.255965E+0	1.282682E+0	1.284431E+0	1.306003E+0	1.324352E+0	1.290684E+0	1.303388E+0	1.279278E+0	1.245371E+0	1.284964E+0	1.284159E+0	1.412034E+0	1.271081E+0	1.243107E+0	1.335187E+0	1.312610E+0	1.299312E+0	1.293410E+0	1.286172E+0	1.313807E+0	1.291312E+0	1.336888E+0	1.346355E+0	1.298735E+0	1.251348E+0	1.358023E+0	1.272521E+0	1.278031E+0	1.301551E+0	1.301651E+0	1.230912E+0	1.336917E+0	1.264284E+0	1.271867E+0	1.270151E+0	1.322078E+0	1.314153E+0	1.280296E+0	1.186451E+0	1.338980E+0	1.262894E+0	1.285815E+0	1.337936E+0	1.271406E+0	1.279339E+0	1.258341E+0	1.325050E+0	1.328655E+0	1.355083E+0	1.264114E+0	1.315632E+0	1.265665E+0	1.373756E+0	1.325507E+0	1.283732E+0	1.321729E+0	1.301378E+0	1.269434E+0	1.242130E+0	1.376340E+0	1.325878E+0	1.260747E+0	1.325442E+0	1.335699E+0	1.335514E+0	1.311286E+0	1.292139E+0	1.249751E+0	1.271024E+0	1.301183E+0	1.309965E+0	1.308710E+0	1.280536E+0	1.280218E+0	1.252161E+0	1.295962E+0	1.247005E+0	1.290049E+0	1.300426E+0	1.283914E+0	1.251200E+0	1.294831E+0	1.343551E+0	1.303280E+0	1.239660E+0	1.241738E+0	1.277380E+0	1.308459E+0	1.241038E+0	1.269351E+0	1.279366E+0	1.289149E+0	1.297406E+0	1.299641E+0	1.263724E+0	1.257078E+0	1.335255E+0	1.312874E+0	1.222571E+0	1.359932E+0	1.247181E+0	1.319075E+0	1.344547E+0	1.304703E+0	1.322648E+0	1.312513E+0	1.279359E+0	1.364548E+0	1.296237E+0	1.256505E+0	1.275125E+0	1.288505E+0
5.482660E+2	1.455147E+0	1.342941E+0	1.410062E+0	1.351940E+0	1.358402E+0	1.332678E+0	1.427152E+0	1.435120E+0	1.384171E+0	1.329886E+0	1.346181E+0	1.410011E+0	1.412545E+0	1.366484E+0	1.400036E+0	1.358919E+0	1.334521E+0	1.373788E+0	1.365198E+0	1.402704E+0	1.379102E+0	1.411377E+0	1.396384E+0	1.411078E+0	1.431133E+0	1.350928E+0	1.392629E+0	1.400929E+0	1.380607E+0	1.443021E+0	1.367512E+0	1.390743E+0	1.326834E+0	1.371648E+0	1.443803E+0	1.316595E+0	1.385635E+0	1.347392E+0	1.374997E+0	1.372207E+0	1.453655E+0	1.438497E+0	1.408658E+0	1.403943E+0	1.389987E+0	1.356100E+0	1.339874E+0	1.362153E+0	1.387462E+0	1.383263E+0	1.341698E+0	1.370229E+0	1.407327E+0	1.384814E+0	1.370077E+0	1.375645E+0	1.374758E+0	1.311550E+0	1.314391E+0	1.424880E+0	1.370912E+0	1.312763E+0	1.337573E+0	1.386244E+0	1.429923E+0	1.400358E+0	1.346631E+0	1.387003E+0	1.409392E+0	1.358691E+0	1.376451E+0	1.357873E+0	1.415695E+0	1.371969E+0	1.373717E+0	1.418731E+0	1.373363E+0	1.406478E+0	1.380647E+0	1.317320E+0	1.437360E+0	1.337163E+0	1.377876E+0	1.389670E+0	1.434643E+0	1.372538E+0	1.322666E+0	1.376838E+0	1.397602E+0	1.334698E+0	1.338177E+0	1.365502E+0	1.426944E+0	1.326460E+0	1.352041E+0	1.357423E+0	1.386560E+0	1.371414E+0	1.343267E+0	1.401359E+0	1.411339E+0	1.424022E+0	1.394762E+0	1.376414E+0	1.359261E+0	1.406244E+0	1.355273E+0	1.374997E+0	1.381713E+0	1.443900E+0	1.356346E+0	1.343924E+0	1.429343E+0	1.357971E+0	1.331487E+0	1.375345E+0	1.346205E+0	1.380724E+0	1.359849E+0	1.379040E+0	1.366020E+0	1.362093E+0	1.326571E+0	1.475644E+0	1.285074E+0	1.382330E+0	1.378424E+0	1.363483E+0	1.378610E+0	1.303629E+0	1.360091E+0	1.356323E+0	1.343543E+0	1.368704E+0	1.370232E+0	1.355759E+0	1.405021E+0	1.389806E+0	1.358424E+0	1.374585E+0	1.379627E+0	1.371036E+0	1.367484E+0	1.398852E+0	1.348541E+0	1.319280E+0	1.355539E+0	1.393662E+0	1.383232E+0	1.317378E+0	1.383886E+0	1.362722E+0	1.371443E+0	1.297150E+0	1.409814E+0	1.355940E+0	1.380940E+0	1.361250E+0	1.339289E+0	1.379488E+0	1.398632E+0	1.401802E+0	1.339270E+0	1.368766E+0	1.318828E+0
5.490160E+2	1.420204E+0	1.329013E+0	1.453659E+0	1.402733E+0	1.386012E+0	1.394337E+0	1.358559E+0	1.433688E+0	1.395122E+0	1.401491E+0	1.396201E+0	1.358081E+0	1.380553E+0	1.353602E+0	1.430306E+0	1.357890E+0	1.365858E+0	1.374248E+0	1.363697E+0	1.354912E+0	1.374191E+0	1.340672E+0	1.352306E+0	1.371954E+0	1.392538E+0	1.419086E+0	1.411821E+0	1.458683E+0	1.423254E+0	1.357267E+0	1.393171E+0	1.376952E+0	1.376929E+0	1.310278E+0	1.427517E+0	1.351564E+0	1.418039E+0	1.374381E+0	1.340831E+0	1.326553E+0	1.475701E+0	1.366031E+0	1.393341E+0	1.407550E+0	1.420328E+0	1.349520E+0	1.422528E+0	1.367646E+0	1.409411E+0	1.443963E+0	1.402015E+0	1.410169E+0	1.410948E+0	1.338103E+0	1.377991E+0	1.431649E+0	1.387202E+0	1.368790E+0	1.375395E+0	1.427580E+0	1.383577E+0	1.399071E+0	1.390257E+0	1.388034E+0	1.392244E+0	1.378548E+0	1.320628E+0	1.406650E+0	1.414302E+0	1.379699E+0	1.373053E+0	1.350397E+0	1.463453E+0	1.374547E+0	1.388406E+0	1.405407E+0	1.393491E+0	1.389269E+0	1.378402E+0	1.321830E+0	1.365280E+0	1.390965E+0	1.385804E+0	1.431165E+0	1.408941E+0	1.322293E+0	1.392288E+0	1.383005E+0	1.401458E+0	1.424121E+0	1.383126E+0	1.334104E+0	1.398537E+0	1.365814E+0	1.334954E+0	1.408603E+0	1.400665E+0	1.416083E+0	1.384259E+0	1.364640E+0	1.374171E+0	1.366457E+0	1.356442E+0	1.376649E+0	1.383720E+0	1.374587E+0	1.442969E+0	1.306099E+0	1.371796E+0	1.389811E+0	1.348446E+0	1.386191E+0	1.399881E+0	1.298853E+0	1.354446E+0	1.291707E+0	1.398849E+0	1.393995E+0	1.344615E+0	1.366684E+0	1.368865E+0	1.333925E+0	1.363198E+0	1.366169E+0	1.380937E+0	1.359894E+0	1.381540E+0	1.327787E+0	1.390616E+0	1.288916E+0	1.399221E+0	1.364271E+0	1.411344E+0	1.333046E+0	1.334960E+0	1.387882E+0	1.370322E+0	1.377008E+0	1.340088E+0	1.301476E+0	1.368326E+0	1.338344E+0	1.419942E+0	1.420565E+0	1.395867E+0	1.352136E+0	1.395254E+0	1.448649E+0	1.395228E+0	1.370237E+0	1.327940E+0	1.376266E+0	1.410511E+0	1.315195E+0	1.415347E+0	1.315164E+0	1.361592E+0	1.431366E+0	1.394287E+0	1.344931E+0	1.472272E+0	1.354295E+0	1.346176E+0	1.299153E+0	1.316013E+0
5.497570E+2	1.288554E+0	1.350429E+0	1.355239E+0	1.304437E+0	1.346777E+0	1.349055E+0	1.339485E+0	1.305718E+0	1.352877E+0	1.346067E+0	1.339676E+0	1.340228E+0	1.348983E+0	1.312706E+0	1.342779E+0	1.311828E+0	1.301783E+0	1.323251E+0	1.375522E+0	1.295497E+0	1.323697E+0	1.348987E+0	1.390244E+0	1.287963E+0	1.353074E+0	1.321408E+0	1.366641E+0	1.352051E+0	1.404854E+0	1.323132E+0	1.333643E+0	1.291691E+0	1.380736E+0	1.328009E+0	1.343784E+0	1.336932E+0	1.350353E+0	1.260783E+0	1.356324E+0	1.345458E+0	1.356383E+0	1.352468E+0	1.356672E+0	1.322078E+0	1.394001E+0	1.378743E+0	1.296624E+0	1.315416E+0	1.359351E+0	1.351548E+0	1.344780E+0	1.309262E+0	1.357365E+0	1.339496E+0	1.288275E+0	1.344870E+0	1.374785E+0	1.322471E+0	1.335181E+0	1.306268E+0	1.340299E+0	1.320597E+0	1.297479E+0	1.363342E+0	1.393341E+0	1.299824E+0	1.269227E+0	1.339253E+0	1.359841E+0	1.345658E+0	1.313038E+0	1.314955E+0	1.362543E+0	1.317297E+0	1.294164E+0	1.375347E+0	1.347101E+0	1.268145E+0	1.341975E+0	1.293377E+0	1.319695E+0	1.353254E+0	1.303835E+0	1.331324E+0	1.348102E+0	1.290958E+0	1.337070E+0	1.266400E+0	1.357314E+0	1.319880E+0	1.287578E+0	1.274908E+0	1.419361E+0	1.344689E+0	1.302810E+0	1.323078E+0	1.401825E+0	1.334849E+0	1.295876E+0	1.349473E+0	1.368616E+0	1.344487E+0	1.379196E+0	1.291030E+0	1.355077E+0	1.322081E+0	1.359289E+0	1.267578E+0	1.365533E+0	1.274877E+0	1.293844E+0	1.302340E+0	1.261015E+0	1.293734E+0	1.333121E+0	1.399018E+0	1.338277E+0	1.323950E+0	1.284871E+0	1.304459E+0	1.328103E+0	1.339409E+0	1.296963E+0	1.299437E+0	1.292672E+0	1.326758E+0	1.322588E+0	1.362973E+0	1.409333E+0	1.268800E+0	1.298591E+0	1.358252E+0	1.322425E+0	1.371057E+0	1.344578E+0	1.328028E+0	1.342419E+0	1.314360E+0	1.306185E+0	1.352614E+0	1.411701E+0	1.304644E+0	1.338887E+0	1.298071E+0	1.336226E+0	1.301794E+0	1.297209E+0	1.347552E+0	1.331841E+0	1.275767E+0	1.307423E+0	1.344486E+0	1.356361E+0	1.315035E+0	1.327353E+0	1.327643E+0	1.316284E+0	1.337256E+0	1.348726E+0	1.311385E+0	1.337895E+0	1.328042E+0	1.294751E+0	1.252307E+0	1.292163E+0
5.505110E+2	1.306966E+0	1.325590E+0	1.397102E+0	1.409001E+0	1.303840E+0	1.290398E+0	1.352837E+0	1.367520E+0	1.336324E+0	1.297472E+0	1.325767E+0	1.358843E+0	1.336057E+0	1.314809E+0	1.306249E+0	1.353269E+0	1.322506E+0	1.317102E+0	1.314101E+0	1.323493E+0	1.286701E+0	1.317468E+0	1.327970E+0	1.343857E+0	1.368538E+0	1.331926E+0	1.342504E+0	1.350731E+0	1.343188E+0	1.331840E+0	1.352788E+0	1.311288E+0	1.336094E+0	1.308272E+0	1.332079E+0	1.263278E+0	1.351571E+0	1.292150E+0	1.362171E+0	1.354008E+0	1.350648E+0	1.272561E+0	1.372427E+0	1.302301E+0	1.416020E+0	1.297713E+0	1.283313E+0	1.318441E+0	1.335965E+0	1.310754E+0	1.371509E+0	1.313976E+0	1.350843E+0	1.343670E+0	1.298482E+0	1.337343E+0	1.320569E+0	1.232505E+0	1.304112E+0	1.337196E+0	1.263898E+0	1.335888E+0	1.278813E+0	1.306562E+0	1.407302E+0	1.390214E+0	1.260516E+0	1.343911E+0	1.365369E+0	1.346124E+0	1.288772E+0	1.371464E+0	1.397482E+0	1.272664E+0	1.301142E+0	1.311022E+0	1.295463E+0	1.285798E+0	1.309328E+0	1.285617E+0	1.395493E+0	1.335189E+0	1.279406E+0	1.315778E+0	1.288060E+0	1.276930E+0	1.300909E+0	1.285216E+0	1.342445E+0	1.345285E+0	1.296963E+0	1.276820E+0	1.283191E+0	1.307462E+0	1.360370E+0	1.286831E+0	1.287233E+0	1.298928E+0	1.294493E+0	1.311926E+0	1.329027E+0	1.365906E+0	1.328179E+0	1.364017E+0	1.349357E+0	1.348266E+0	1.308237E+0	1.363454E+0	1.283843E+0	1.280160E+0	1.267951E+0	1.292389E+0	1.336057E+0	1.298352E+0	1.273301E+0	1.327376E+0	1.324239E+0	1.298472E+0	1.278075E+0	1.326482E+0	1.329544E+0	1.285659E+0	1.326215E+0	1.361894E+0	1.262954E+0	1.276156E+0	1.304539E+0	1.294508E+0	1.349872E+0	1.305878E+0	1.283725E+0	1.331245E+0	1.287428E+0	1.301143E+0	1.311881E+0	1.282139E+0	1.343885E+0	1.341870E+0	1.307063E+0	1.319709E+0	1.261155E+0	1.369721E+0	1.332884E+0	1.317107E+0	1.301580E+0	1.306448E+0	1.298572E+0	1.333974E+0	1.303371E+0	1.257569E+0	1.308804E+0	1.320678E+0	1.321124E+0	1.252709E+0	1.383628E+0	1.307642E+0	1.330638E+0	1.279255E+0	1.317413E+0	1.264937E+0	1.362046E+0	1.372222E+0	1.279947E+0	1.423472E+0	1.290299E+0
5.512570E+2	1.351710E+0	1.230611E+0	1.379804E+0	1.352750E+0	1.315420E+0	1.284321E+0	1.350701E+0	1.301165E+0	1.303432E+0	1.256286E+0	1.324657E+0	1.362413E+0	1.320124E+0	1.306945E+0	1.290949E+0	1.291236E+0	1.328368E+0	1.345854E+0	1.317405E+0	1.271186E+0	1.300176E+0	1.303688E+0	1.301826E+0	1.343781E+0	1.331415E+0	1.263880E+0	1.281503E+0	1.331074E+0	1.363969E+0	1.332172E+0	1.265985E+0	1.305951E+0	1.305090E+0	1.258752E+0	1.359840E+0	1.277947E+0	1.362307E+0	1.309545E+0	1.330647E+0	1.268928E+0	1.348609E+0	1.284904E+0	1.321892E+0	1.300727E+0	1.359785E+0	1.308747E+0	1.263280E+0	1.335309E+0	1.285132E+0	1.336806E+0	1.289728E+0	1.296168E+0	1.301545E+0	1.300860E+0	1.291836E+0	1.278581E+0	1.321566E+0	1.319673E+0	1.341962E+0	1.396094E+0	1.320827E+0	1.205500E+0	1.251889E+0	1.329523E+0	1.337752E+0	1.345632E+0	1.267717E+0	1.344416E+0	1.270089E+0	1.278440E+0	1.297426E+0	1.299590E+0	1.380429E+0	1.308838E+0	1.289607E+0	1.302634E+0	1.305145E+0	1.304741E+0	1.267342E+0	1.327569E+0	1.407386E+0	1.247636E+0	1.285033E+0	1.280532E+0	1.358484E+0	1.312495E+0	1.288406E+0	1.297168E+0	1.336574E+0	1.348054E+0	1.257197E+0	1.338672E+0	1.246263E+0	1.299325E+0	1.304550E+0	1.273142E+0	1.381166E+0	1.297040E+0	1.290393E+0	1.307710E+0	1.333638E+0	1.312785E+0	1.313499E+0	1.322398E+0	1.305218E+0	1.297995E+0	1.316088E+0	1.281555E+0	1.313019E+0	1.338895E+0	1.257756E+0	1.237384E+0	1.239885E+0	1.287658E+0	1.302165E+0	1.323043E+0	1.276031E+0	1.296792E+0	1.266056E+0	1.316192E+0	1.293478E+0	1.310250E+0	1.340201E+0	1.349182E+0	1.323430E+0	1.316295E+0	1.334659E+0	1.340728E+0	1.284290E+0	1.267187E+0	1.309326E+0	1.302138E+0	1.338618E+0	1.293723E+0	1.264092E+0	1.277211E+0	1.243467E+0	1.323404E+0	1.238101E+0	1.257801E+0	1.301409E+0	1.326644E+0	1.290508E+0	1.293195E+0	1.322669E+0	1.284006E+0	1.329105E+0	1.291370E+0	1.300313E+0	1.313893E+0	1.284985E+0	1.291165E+0	1.298315E+0	1.245015E+0	1.329528E+0	1.275181E+0	1.325877E+0	1.308923E+0	1.299753E+0	1.265978E+0	1.303159E+0	1.258020E+0	1.326904E+0	1.289170E+0	1.351129E+0
5.520150E+2	1.340762E+0	1.298191E+0	1.323178E+0	1.299430E+0	1.266244E+0	1.318052E+0	1.310901E+0	1.296754E+0	1.331034E+0	1.381409E+0	1.261181E+0	1.289911E+0	1.292611E+0	1.336768E+0	1.314160E+0	1.276755E+0	1.311622E+0	1.310919E+0	1.296878E+0	1.269371E+0	1.307271E+0	1.279146E+0	1.272991E+0	1.298373E+0	1.327062E+0	1.313085E+0	1.274540E+0	1.330021E+0	1.349150E+0	1.311951E+0	1.284955E+0	1.250208E+0	1.297586E+0	1.237682E+0	1.347400E+0	1.245169E+0	1.272691E+0	1.343725E+0	1.273267E+0	1.322792E+0	1.359773E+0	1.344825E+0	1.357340E+0	1.319501E+0	1.319811E+0	1.310286E+0	1.243167E+0	1.301315E+0	1.303994E+0	1.349011E+0	1.298196E+0	1.294726E+0	1.328550E+0	1.337947E+0	1.255238E+0	1.310782E+0	1.301456E+0	1.325365E+0	1.272363E+0	1.262791E+0	1.281389E+0	1.237285E+0	1.300945E+0	1.307429E+0	1.357348E+0	1.352971E+0	1.276209E+0	1.290345E+0	1.348336E+0	1.258007E+0	1.259326E+0	1.323844E+0	1.303905E+0	1.295162E+0	1.266053E+0	1.287599E+0	1.291679E+0	1.275753E+0	1.309973E+0	1.284570E+0	1.284633E+0	1.358246E+0	1.276310E+0	1.280714E+0	1.305237E+0	1.255290E+0	1.269894E+0	1.302265E+0	1.400274E+0	1.296717E+0	1.271231E+0	1.287885E+0	1.336490E+0	1.284527E+0	1.259100E+0	1.321170E+0	1.305789E+0	1.299958E+0	1.323607E+0	1.296460E+0	1.278651E+0	1.280724E+0	1.343506E+0	1.319088E+0	1.251559E+0	1.308546E+0	1.296896E+0	1.322216E+0	1.302798E+0	1.285684E+0	1.328804E+0	1.320423E+0	1.339535E+0	1.283331E+0	1.276878E+0	1.329722E+0	1.285935E+0	1.320121E+0	1.248080E+0	1.280853E+0	1.322827E+0	1.312157E+0	1.263414E+0	1.301687E+0	1.314476E+0	1.301791E+0	1.310044E+0	1.278077E+0	1.272514E+0	1.312018E+0	1.280755E+0	1.323117E+0	1.270652E+0	1.253982E+0	1.319058E+0	1.286024E+0	1.321773E+0	1.307466E+0	1.247128E+0	1.265099E+0	1.337313E+0	1.253959E+0	1.223702E+0	1.302515E+0	1.282417E+0	1.307282E+0	1.324873E+0	1.244685E+0	1.275206E+0	1.295668E+0	1.298666E+0	1.260827E+0	1.353807E+0	1.239562E+0	1.329908E+0	1.267137E+0	1.281651E+0	1.271625E+0	1.284544E+0	1.298040E+0	1.269630E+0	1.320861E+0	1.292738E+0	1.239926E+0	1.260397E+0
5.527650E+2	1.239573E+0	1.258993E+0	1.270531E+0	1.268048E+0	1.248976E+0	1.257771E+0	1.244077E+0	1.208728E+0	1.272273E+0	1.253462E+0	1.264352E+0	1.274187E+0	1.300157E+0	1.262023E+0	1.264987E+0	1.258946E+0	1.250379E+0	1.276288E+0	1.268728E+0	1.273958E+0	1.259107E+0	1.319496E+0	1.282836E+0	1.224963E+0	1.280325E+0	1.256607E+0	1.278429E+0	1.237860E+0	1.268219E+0	1.312982E+0	1.260056E+0	1.323193E+0	1.179741E+0	1.200796E+0	1.274348E+0	1.221536E+0	1.251084E+0	1.209095E+0	1.231628E+0	1.253785E+0	1.318492E+0	1.279706E+0	1.282928E+0	1.248273E+0	1.247645E+0	1.267530E+0	1.277256E+0	1.300882E+0	1.233400E+0	1.263258E+0	1.277304E+0	1.148584E+0	1.301165E+0	1.291593E+0	1.253605E+0	1.243519E+0	1.250354E+0	1.234498E+0	1.251937E+0	1.301588E+0	1.310746E+0	1.234000E+0	1.214404E+0	1.277527E+0	1.309233E+0	1.315098E+0	1.251779E+0	1.284928E+0	1.314577E+0	1.278432E+0	1.219859E+0	1.242290E+0	1.347272E+0	1.319677E+0	1.196574E+0	1.361913E+0	1.268758E+0	1.261826E+0	1.263088E+0	1.217994E+0	1.270756E+0	1.209030E+0	1.233290E+0	1.301810E+0	1.241854E+0	1.223311E+0	1.221011E+0	1.267872E+0	1.227698E+0	1.257897E+0	1.221298E+0	1.218108E+0	1.317933E+0	1.201518E+0	1.234373E+0	1.273931E+0	1.245524E+0	1.234237E+0	1.242462E+0	1.266877E+0	1.262754E+0	1.237433E+0	1.237807E+0	1.323685E+0	1.301437E+0	1.236316E+0	1.267950E+0	1.222583E+0	1.243230E+0	1.216466E+0	1.257890E+0	1.297749E+0	1.215105E+0	1.233491E+0	1.246548E+0	1.284006E+0	1.301230E+0	1.226137E+0	1.237584E+0	1.245923E+0	1.267656E+0	1.276413E+0	1.296624E+0	1.287822E+0	1.269307E+0	1.218435E+0	1.308714E+0	1.231308E+0	1.301664E+0	1.220851E+0	1.232103E+0	1.302312E+0	1.283626E+0	1.242761E+0	1.240716E+0	1.259249E+0	1.256462E+0	1.197500E+0	1.217658E+0	1.280815E+0	1.240002E+0	1.248039E+0	1.286433E+0	1.232878E+0	1.291216E+0	1.278638E+0	1.238299E+0	1.214053E+0	1.283829E+0	1.200383E+0	1.222841E+0	1.275440E+0	1.276991E+0	1.239637E+0	1.271993E+0	1.263392E+0	1.194481E+0	1.273346E+0	1.254714E+0	1.294300E+0	1.294713E+0	1.327058E+0	1.296044E+0	1.289473E+0	1.201442E+0
5.535550E+2	1.261001E+0	1.165630E+0	1.238285E+0	1.188922E+0	1.200317E+0	1.199128E+0	1.220936E+0	1.183473E+0	1.233799E+0	1.176974E+0	1.175497E+0	1.239273E+0	1.168987E+0	1.233146E+0	1.245016E+0	1.206039E+0	1.216409E+0	1.216855E+0	1.222976E+0	1.181552E+0	1.184042E+0	1.180581E+0	1.178156E+0	1.168292E+0	1.295531E+0	1.261635E+0	1.212727E+0	1.190614E+0	1.212897E+0	1.176714E+0	1.237034E+0	1.209432E+0	1.199431E+0	1.156071E+0	1.259114E+0	1.219184E+0	1.206968E+0	1.240191E+0	1.223497E+0	1.198493E+0	1.247677E+0	1.246707E+0	1.204927E+0	1.197182E+0	1.210363E+0	1.188891E+0	1.184254E+0	1.216508E+0	1.194990E+0	1.162240E+0	1.220929E+0	1.121774E+0	1.217047E+0	1.213001E+0	1.203607E+0	1.174481E+0	1.233371E+0	1.204834E+0	1.247272E+0	1.254188E+0	1.200692E+0	1.210740E+0	1.149285E+0	1.173999E+0	1.207708E+0	1.235010E+0	1.188147E+0	1.153937E+0	1.215568E+0	1.159299E+0	1.164762E+0	1.236908E+0	1.225846E+0	1.195142E+0	1.160361E+0	1.220167E+0	1.205127E+0	1.163790E+0	1.209336E+0	1.232153E+0	1.267760E+0	1.178193E+0	1.173131E+0	1.175486E+0	1.202926E+0	1.175409E+0	1.158659E+0	1.174395E+0	1.280266E+0	1.219957E+0	1.198916E+0	1.126190E+0	1.179633E+0	1.112793E+0	1.209289E+0	1.204806E+0	1.183214E+0	1.184892E+0	1.196002E+0	1.222278E+0	1.206041E+0	1.235351E+0	1.196601E+0	1.159518E+0	1.203234E+0	1.256515E+0	1.201414E+0	1.195854E+0	1.182221E+0	1.186344E+0	1.156431E+0	1.179810E+0	1.221041E+0	1.179039E+0	1.187939E+0	1.210975E+0	1.267165E+0	1.190099E+0	1.195141E+0	1.232281E+0	1.182554E+0	1.218778E+0	1.192282E+0	1.179979E+0	1.210606E+0	1.187307E+0	1.208467E+0	1.173213E+0	1.242991E+0	1.164461E+0	1.135094E+0	1.171860E+0	1.214991E+0	1.225012E+0	1.200723E+0	1.196326E+0	1.223548E+0	1.177158E+0	1.178676E+0	1.204507E+0	1.256898E+0	1.228991E+0	1.225711E+0	1.177901E+0	1.255039E+0	1.171087E+0	1.177437E+0	1.207093E+0	1.211662E+0	1.247157E+0	1.179031E+0	1.186506E+0	1.243209E+0	1.182534E+0	1.198551E+0	1.199927E+0	1.226981E+0	1.213045E+0	1.189858E+0	1.256472E+0	1.217905E+0	1.163205E+0	1.241297E+0	1.244625E+0	1.275685E+0
5.542640E+2	1.195151E+0	1.062065E+0	1.134861E+0	1.093940E+0	1.161599E+0	1.163307E+0	1.123453E+0	1.151002E+0	1.132947E+0	1.132059E+0	1.122810E+0	1.163325E+0	1.137552E+0	1.136778E+0	1.174602E+0	1.149657E+0	1.132249E+0	1.118707E+0	1.102270E+0	1.128770E+0	1.176657E+0	1.132768E+0	1.136390E+0	1.179426E+0	1.103832E+0	1.175764E+0	1.106442E+0	1.184656E+0	1.132094E+0	1.125711E+0	1.198731E+0	1.110899E+0	1.133398E+0	1.140024E+0	1.161761E+0	1.133589E+0	1.094096E+0	1.090319E+0	1.153830E+0	1.118730E+0	1.131732E+0	1.156346E+0	1.139433E+0	1.128573E+0	1.130558E+0	1.159277E+0	1.141048E+0	1.109022E+0	1.113104E+0	1.127336E+0	1.123854E+0	1.108642E+0	1.144091E+0	1.189417E+0	1.151333E+0	1.141340E+0	1.152917E+0	1.127492E+0	1.148548E+0	1.232974E+0	1.117541E+0	1.175195E+0	1.130030E+0	1.133382E+0	1.138589E+0	1.175803E+0	1.112132E+0	1.117667E+0	1.167935E+0	1.119189E+0	1.159024E+0	1.148140E+0	1.166999E+0	1.177035E+0	1.148197E+0	1.152797E+0	1.121471E+0	1.120000E+0	1.173598E+0	1.143477E+0	1.144005E+0	1.140679E+0	1.170074E+0	1.133244E+0	1.175825E+0	1.108955E+0	1.114719E+0	1.079172E+0	1.160044E+0	1.134320E+0	1.121956E+0	1.064797E+0	1.150265E+0	1.167419E+0	1.117670E+0	1.128011E+0	1.148677E+0	1.128831E+0	1.119266E+0	1.123966E+0	1.189595E+0	1.161451E+0	1.143043E+0	1.163462E+0	1.130720E+0	1.113583E+0	1.153556E+0	1.102811E+0	1.142331E+0	1.128624E+0	1.071445E+0	1.120233E+0	1.161623E+0	1.155697E+0	1.089709E+0	1.174370E+0	1.119230E+0	1.109462E+0	1.126898E+0	1.127881E+0	1.192039E+0	1.147006E+0	1.143774E+0	1.173523E+0	1.139108E+0	1.075932E+0	1.160118E+0	1.107867E+0	1.164754E+0	1.108585E+0	1.153690E+0	1.192012E+0	1.151256E+0	1.125897E+0	1.161381E+0	1.176213E+0	1.144000E+0	1.135225E+0	1.137836E+0	1.113317E+0	1.168764E+0	1.160016E+0	1.146052E+0	1.133241E+0	1.226571E+0	1.128262E+0	1.138294E+0	1.110274E+0	1.115949E+0	1.143237E+0	1.116582E+0	1.102752E+0	1.085866E+0	1.153968E+0	1.181681E+0	1.147350E+0	1.151580E+0	1.130441E+0	1.116245E+0	1.166309E+0	1.158772E+0	1.142057E+0	1.153355E+0	1.231270E+0	1.234994E+0
5.550360E+2	1.054588E+0	1.027067E+0	1.098668E+0	1.041355E+0	1.081927E+0	1.043785E+0	1.059856E+0	1.059527E+0	1.059533E+0	1.029484E+0	1.050234E+0	1.015208E+0	1.037664E+0	1.057975E+0	1.041878E+0	1.047346E+0	1.045481E+0	1.029341E+0	1.027791E+0	9.676736E-1	1.032674E+0	9.994327E-1	1.037389E+0	1.022831E+0	1.025603E+0	1.030494E+0	1.022879E+0	1.058059E+0	1.060271E+0	1.062323E+0	1.024902E+0	1.061548E+0	1.044703E+0	1.003061E+0	1.042656E+0	1.011095E+0	1.024404E+0	1.055918E+0	1.018651E+0	1.056490E+0	1.042335E+0	1.030606E+0	1.113729E+0	1.076715E+0	1.007527E+0	1.037873E+0	1.031676E+0	9.907533E-1	1.070053E+0	1.096340E+0	1.002895E+0	1.081042E+0	1.037710E+0	1.039746E+0	1.025243E+0	1.031357E+0	1.032462E+0	9.898778E-1	1.051663E+0	1.036559E+0	1.012600E+0	1.057110E+0	1.010479E+0	1.018632E+0	1.110734E+0	1.116991E+0	1.045934E+0	1.030819E+0	1.091462E+0	1.065577E+0	1.066756E+0	1.041871E+0	1.001020E+0	1.044912E+0	1.020323E+0	1.096465E+0	1.000344E+0	1.013916E+0	1.055166E+0	1.036121E+0	1.072334E+0	1.042388E+0	1.044544E+0	1.043874E+0	1.061574E+0	9.707909E-1	1.066619E+0	1.063052E+0	1.098316E+0	9.856161E-1	1.012267E+0	1.039914E+0	1.058736E+0	1.031560E+0	1.008998E+0	1.027957E+0	1.069977E+0	1.044659E+0	1.037222E+0	1.096440E+0	1.084318E+0	1.038094E+0	1.038446E+0	1.104281E+0	1.037926E+0	1.038027E+0	1.051174E+0	1.027688E+0	1.051217E+0	1.003984E+0	9.972010E-1	1.060129E+0	1.022576E+0	1.010370E+0	9.934429E-1	1.077908E+0	1.068748E+0	1.009509E+0	9.959595E-1	1.043866E+0	1.041531E+0	1.053925E+0	1.067043E+0	1.084665E+0	1.046147E+0	1.028148E+0	1.070628E+0	9.893306E-1	1.043185E+0	1.038071E+0	1.057353E+0	1.068856E+0	1.030115E+0	1.023997E+0	1.032361E+0	1.014847E+0	1.016042E+0	1.045440E+0	1.020170E+0	1.046328E+0	1.081301E+0	1.056757E+0	1.044705E+0	1.069513E+0	1.067656E+0	1.078546E+0	1.009334E+0	1.118515E+0	1.100562E+0	1.026842E+0	1.029250E+0	1.036451E+0	1.074110E+0	1.033130E+0	1.013549E+0	1.072895E+0	1.076970E+0	1.047912E+0	1.014946E+0	1.044419E+0	1.058659E+0	9.978394E-1	9.963931E-1	1.013717E+0	1.065118E+0
5.557600E+2	9.839056E-1	9.775613E-1	9.279185E-1	9.975324E-1	9.849859E-1	9.973210E-1	9.692890E-1	9.824558E-1	9.364293E-1	9.312029E-1	9.321962E-1	9.872733E-1	9.878810E-1	9.462547E-1	9.635241E-1	9.360635E-1	9.426007E-1	9.564324E-1	9.509634E-1	1.005353E+0	9.639423E-1	1.004477E+0	9.735712E-1	9.528410E-1	1.000122E+0	1.016138E+0	9.850938E-1	9.922044E-1	9.132313E-1	9.632144E-1	9.508480E-1	9.865918E-1	9.422654E-1	9.897934E-1	1.000857E+0	9.971939E-1	9.154271E-1	9.535067E-1	9.461059E-1	9.721394E-1	1.006711E+0	9.732108E-1	1.003422E+0	9.769272E-1	9.739018E-1	9.343367E-1	9.531722E-1	9.598096E-1	9.800994E-1	9.751397E-1	1.040425E+0	9.963061E-1	1.009113E+0	9.820595E-1	1.011007E+0	9.662177E-1	9.931676E-1	9.454049E-1	9.832163E-1	9.998425E-1	9.659846E-1	9.559800E-1	9.476791E-1	9.650061E-1	9.706798E-1	9.727810E-1	9.501247E-1	1.005342E+0	9.862755E-1	9.503135E-1	9.907027E-1	1.006798E+0	9.944687E-1	9.460542E-1	9.932846E-1	9.975884E-1	9.737665E-1	9.942839E-1	9.549428E-1	9.762022E-1	9.767459E-1	9.535566E-1	9.616923E-1	9.530796E-1	9.505427E-1	9.872012E-1	9.315856E-1	9.792939E-1	9.804463E-1	9.839834E-1	9.835789E-1	9.849618E-1	9.886338E-1	9.834235E-1	9.792638E-1	1.007946E+0	9.741060E-1	9.296756E-1	9.691532E-1	9.875014E-1	9.862609E-1	9.808690E-1	9.620919E-1	9.479881E-1	9.623722E-1	9.535219E-1	9.775614E-1	9.826816E-1	9.900864E-1	1.001679E+0	9.736436E-1	9.443961E-1	9.796067E-1	9.749147E-1	9.757367E-1	9.734784E-1	9.799964E-1	9.401302E-1	9.433606E-1	9.876342E-1	9.798893E-1	9.870966E-1	9.989868E-1	1.025428E+0	9.439587E-1	9.989022E-1	9.872320E-1	9.656007E-1	9.707580E-1	9.260808E-1	9.213652E-1	1.005386E+0	9.925793E-1	9.847954E-1	9.278695E-1	9.701115E-1	9.822118E-1	9.502441E-1	9.173545E-1	9.750772E-1	9.748433E-1	9.827674E-1	9.298700E-1	9.938034E-1	1.009302E+0	9.925723E-1	9.495033E-1	9.175170E-1	1.042441E+0	9.711249E-1	9.760484E-1	9.235072E-1	9.672011E-1	9.826232E-1	9.784558E-1	9.570440E-1	1.002474E+0	9.754325E-1	9.560350E-1	1.004903E+0	9.542749E-1	9.741398E-1	1.029476E+0	9.136344E-1	1.001791E+0
5.560190E+2	1.009938E+0	9.257150E-1	9.824932E-1	1.025627E+0	9.275334E-1	1.000838E+0	1.066275E+0	9.864834E-1	9.938431E-1	9.768372E-1	9.314827E-1	9.407357E-1	9.731044E-1	9.934914E-1	9.539173E-1	9.795630E-1	9.423951E-1	9.825221E-1	1.032064E+0	9.853139E-1	9.308452E-1	9.477731E-1	9.156546E-1	9.532617E-1	9.385378E-1	9.998284E-1	9.539810E-1	9.992104E-1	9.766052E-1	9.861554E-1	9.613899E-1	9.407621E-1	9.556542E-1	9.769766E-1	9.808770E-1	9.480945E-1	9.442849E-1	9.338648E-1	9.642510E-1	9.660298E-1	1.002628E+0	9.945967E-1	9.906010E-1	9.754112E-1	9.367950E-1	1.010280E+0	9.649682E-1	9.831217E-1	1.006097E+0	9.753809E-1	9.921184E-1	9.537835E-1	9.670404E-1	9.813165E-1	9.858412E-1	9.929853E-1	9.323357E-1	9.391068E-1	9.827289E-1	1.018209E+0	9.616109E-1	9.714276E-1	9.926591E-1	9.625690E-1	1.003388E+0	1.040333E+0	9.380833E-1	1.021213E+0	9.457609E-1	9.721610E-1	9.704372E-1	9.758970E-1	9.857853E-1	1.013329E+0	9.334972E-1	1.020448E+0	9.737611E-1	9.449108E-1	9.198302E-1	9.218155E-1	9.954384E-1	9.953867E-1	9.568266E-1	9.254248E-1	9.877931E-1	9.131842E-1	9.464553E-1	1.033834E+0	9.418314E-1	9.564858E-1	9.815400E-1	9.773280E-1	9.637781E-1	9.295797E-1	9.507731E-1	9.875993E-1	9.499679E-1	9.794928E-1	9.496280E-1	9.803729E-1	9.468281E-1	1.013224E+0	1.019900E+0	9.643014E-1	9.927327E-1	1.020005E+0	9.602242E-1	1.023315E+0	9.812892E-1	9.971310E-1	9.809067E-1	9.881464E-1	9.479151E-1	9.463727E-1	9.705347E-1	9.703827E-1	9.875250E-1	9.457942E-1	9.600725E-1	9.643534E-1	9.827520E-1	9.869482E-1	9.449406E-1	1.027503E+0	9.707146E-1	9.834834E-1	9.604608E-1	9.465995E-1	9.226770E-1	1.022480E+0	9.879002E-1	9.883920E-1	9.710347E-1	9.878293E-1	9.475049E-1	9.553834E-1	9.479780E-1	9.489553E-1	9.237869E-1	9.732955E-1	1.049293E+0	9.505538E-1	9.739909E-1	9.922210E-1	9.700639E-1	9.772690E-1	9.809771E-1	9.807916E-1	9.338946E-1	9.593395E-1	9.500412E-1	9.475465E-1	1.040471E+0	9.318791E-1	1.017248E+0	9.751542E-1	9.514096E-1	9.613176E-1	9.742440E-1	1.001176E+0	9.434530E-1	1.001757E+0	9.948615E-1	1.019168E+0	9.563037E-1
5.565030E+2	9.789953E-1	9.088434E-1	9.304182E-1	9.949880E-1	9.200933E-1	9.629941E-1	9.934709E-1	9.686742E-1	9.615909E-1	9.400701E-1	9.270042E-1	9.601306E-1	9.886726E-1	9.872632E-1	9.476177E-1	9.868760E-1	9.605388E-1	9.476727E-1	9.896079E-1	8.989607E-1	9.677270E-1	9.794298E-1	1.016078E+0	1.024412E+0	9.794723E-1	9.734905E-1	9.483204E-1	9.889232E-1	1.019613E+0	1.000506E+0	9.660055E-1	1.017266E+0	1.034042E+0	9.935697E-1	9.872457E-1	9.145892E-1	9.633945E-1	9.791228E-1	9.801309E-1	9.651026E-1	1.021871E+0	9.941567E-1	9.987595E-1	9.530115E-1	9.312061E-1	9.629253E-1	9.241321E-1	9.832739E-1	9.483520E-1	1.007844E+0	9.672689E-1	9.416995E-1	9.896170E-1	9.694763E-1	9.687262E-1	9.543454E-1	9.686394E-1	9.850535E-1	9.933245E-1	1.012569E+0	9.871351E-1	9.802394E-1	9.859846E-1	9.514366E-1	9.615401E-1	9.870775E-1	9.591889E-1	1.008165E+0	9.756479E-1	9.828736E-1	9.790641E-1	9.827449E-1	9.625304E-1	9.423912E-1	9.719476E-1	1.001373E+0	9.308133E-1	9.571826E-1	9.695937E-1	9.648641E-1	1.030558E+0	9.715274E-1	9.983791E-1	9.348957E-1	9.443273E-1	9.362096E-1	9.756597E-1	9.817998E-1	9.818276E-1	1.043384E+0	1.015377E+0	9.352906E-1	9.789695E-1	9.643513E-1	9.643418E-1	9.660682E-1	9.548106E-1	9.664670E-1	9.727361E-1	9.769422E-1	9.845942E-1	1.007467E+0	1.000537E+0	9.981250E-1	9.571490E-1	9.650725E-1	9.807657E-1	1.015816E+0	9.693083E-1	9.820854E-1	9.325674E-1	9.930735E-1	9.873575E-1	9.087133E-1	9.516187E-1	9.999426E-1	9.792582E-1	9.754701E-1	1.000777E+0	9.665156E-1	9.630470E-1	9.473584E-1	9.674916E-1	9.521627E-1	9.807735E-1	9.841085E-1	9.673359E-1	9.350106E-1	9.489064E-1	9.543214E-1	9.950780E-1	9.933396E-1	9.725576E-1	9.476593E-1	9.632127E-1	1.013515E+0	9.849792E-1	9.533163E-1	9.756386E-1	9.645730E-1	9.527920E-1	9.593067E-1	9.784505E-1	9.851387E-1	9.512326E-1	1.021452E+0	9.661816E-1	9.427993E-1	9.917863E-1	9.720698E-1	9.796339E-1	9.734235E-1	9.701895E-1	9.674498E-1	9.388417E-1	9.653368E-1	9.273176E-1	1.002632E+0	9.798591E-1	9.733258E-1	9.378833E-1	1.021551E+0	9.506093E-1	9.872414E-1	1.036067E+0
5.570440E+2	1.023747E+0	9.752815E-1	9.852097E-1	1.001662E+0	1.023700E+0	9.696076E-1	1.020633E+0	1.011818E+0	9.813167E-1	9.528966E-1	9.704634E-1	1.002717E+0	9.647417E-1	9.810024E-1	1.011489E+0	9.364671E-1	9.612477E-1	1.034524E+0	9.639217E-1	9.583204E-1	9.819674E-1	9.529394E-1	9.927935E-1	1.039348E+0	9.685873E-1	1.007636E+0	9.820028E-1	9.761810E-1	9.843907E-1	9.824906E-1	9.287711E-1	9.949966E-1	1.005915E+0	9.651316E-1	9.916920E-1	9.932207E-1	9.791601E-1	9.534823E-1	9.616860E-1	9.980403E-1	9.779531E-1	1.025034E+0	1.001782E+0	9.947275E-1	9.816699E-1	9.014788E-1	9.720563E-1	1.017333E+0	1.029603E+0	1.005929E+0	9.357554E-1	9.814776E-1	9.757017E-1	1.026893E+0	9.391572E-1	9.833557E-1	9.570109E-1	9.466351E-1	1.002761E+0	9.813646E-1	9.377071E-1	9.944627E-1	9.508192E-1	1.004588E+0	9.932275E-1	1.007463E+0	9.068797E-1	1.004286E+0	9.551872E-1	1.008596E+0	9.954020E-1	9.598475E-1	1.020067E+0	1.035455E+0	9.407497E-1	9.944429E-1	9.834981E-1	9.037665E-1	1.042731E+0	9.774206E-1	9.708986E-1	9.861832E-1	9.693715E-1	9.691385E-1	9.714219E-1	9.394257E-1	9.506574E-1	9.449770E-1	9.876948E-1	9.759118E-1	1.021682E+0	9.367157E-1	9.859515E-1	9.955831E-1	9.628910E-1	1.008812E+0	9.968723E-1	9.214962E-1	1.018058E+0	9.951848E-1	9.595364E-1	1.018931E+0	9.573353E-1	1.000282E+0	9.962721E-1	9.846992E-1	9.518948E-1	9.826503E-1	9.811039E-1	9.572465E-1	9.270283E-1	1.004130E+0	9.948982E-1	9.694590E-1	9.753203E-1	9.873237E-1	1.006170E+0	9.488275E-1	9.887737E-1	1.003158E+0	9.975404E-1	9.513903E-1	9.859123E-1	9.994187E-1	9.141658E-1	1.007468E+0	9.700271E-1	9.868164E-1	1.022498E+0	9.829292E-1	9.573591E-1	1.008527E+0	9.946238E-1	9.298599E-1	9.997824E-1	1.005427E+0	9.299276E-1	1.001744E+0	9.836689E-1	9.482138E-1	9.554285E-1	9.788347E-1	9.196154E-1	9.116802E-1	9.834166E-1	9.740611E-1	9.464938E-1	9.803737E-1	9.587843E-1	9.911322E-1	9.245994E-1	9.723596E-1	9.569814E-1	9.660422E-1	9.759814E-1	9.636096E-1	9.683537E-1	1.019481E+0	9.564708E-1	1.023666E+0	9.819352E-1	9.918657E-1	9.394210E-1	1.009733E+0	9.954529E-1
5.575190E+2	1.044480E+0	9.637271E-1	9.783629E-1	9.380937E-1	9.441293E-1	9.790479E-1	1.006314E+0	1.001665E+0	9.705268E-1	9.920449E-1	9.479761E-1	9.745828E-1	1.030445E+0	1.020382E+0	9.340343E-1	9.649048E-1	9.555218E-1	9.745108E-1	9.807985E-1	9.572297E-1	1.028920E+0	9.477932E-1	9.519197E-1	1.010733E+0	9.727556E-1	9.853845E-1	9.370230E-1	9.988728E-1	9.432772E-1	1.010544E+0	9.555193E-1	1.000220E+0	9.591820E-1	9.808884E-1	1.015254E+0	9.597793E-1	9.947823E-1	9.772632E-1	9.737125E-1	9.812145E-1	9.596376E-1	9.998130E-1	9.648792E-1	1.005245E+0	9.604805E-1	1.021124E+0	9.700329E-1	9.488081E-1	1.000407E+0	9.901515E-1	9.825628E-1	1.024524E+0	9.933206E-1	9.677624E-1	9.957596E-1	9.793166E-1	1.010079E+0	9.663041E-1	1.009124E+0	1.022288E+0	9.710229E-1	1.012389E+0	9.931885E-1	9.693648E-1	9.672293E-1	1.015424E+0	9.840761E-1	1.001142E+0	1.024902E+0	1.007069E+0	9.736653E-1	1.013364E+0	1.005634E+0	1.009724E+0	9.869341E-1	1.004521E+0	9.637385E-1	9.754100E-1	9.739689E-1	1.009011E+0	9.894756E-1	9.772852E-1	9.935174E-1	1.015741E+0	9.800383E-1	9.470801E-1	9.835235E-1	9.681602E-1	9.696836E-1	9.879073E-1	9.430098E-1	9.988443E-1	9.991351E-1	1.015117E+0	9.490694E-1	9.548933E-1	9.893960E-1	9.788342E-1	9.450231E-1	9.445523E-1	9.976301E-1	9.602987E-1	9.745459E-1	9.952634E-1	9.572755E-1	9.920368E-1	1.049314E+0	9.766172E-1	9.934960E-1	9.457269E-1	9.510500E-1	9.761357E-1	9.545683E-1	9.779007E-1	1.009440E+0	9.579601E-1	9.765648E-1	1.002340E+0	9.722827E-1	9.741806E-1	1.009228E+0	9.746328E-1	9.824656E-1	9.701490E-1	9.798388E-1	9.492967E-1	9.361994E-1	9.844973E-1	9.917714E-1	1.018347E+0	9.941854E-1	1.034328E+0	9.959879E-1	9.517192E-1	9.810076E-1	9.235755E-1	9.673089E-1	9.889895E-1	9.865292E-1	9.456913E-1	9.695941E-1	1.018323E+0	9.855754E-1	1.000501E+0	1.014686E+0	9.952173E-1	9.690809E-1	9.998690E-1	1.011087E+0	9.468504E-1	9.488199E-1	9.560914E-1	9.819652E-1	9.382851E-1	9.659529E-1	9.548145E-1	9.951940E-1	1.018534E+0	9.846414E-1	9.529398E-1	1.008366E+0	1.042160E+0	9.911721E-1	9.476139E-1	9.504889E-1
5.580230E+2	1.016657E+0	1.005750E+0	9.855581E-1	9.904191E-1	9.903321E-1	9.726614E-1	9.292495E-1	9.764989E-1	1.007401E+0	1.002727E+0	9.803568E-1	9.657500E-1	9.724586E-1	9.864988E-1	1.017227E+0	9.897464E-1	1.034786E+0	1.039434E+0	9.807664E-1	9.884157E-1	1.009928E+0	1.017206E+0	1.042883E+0	1.010683E+0	1.010470E+0	1.021525E+0	1.027506E+0	9.971587E-1	1.047187E+0	9.952225E-1	9.879874E-1	1.035055E+0	1.001709E+0	1.025252E+0	9.746691E-1	1.010402E+0	1.009954E+0	1.013806E+0	9.778672E-1	1.016495E+0	9.944188E-1	9.858496E-1	1.025743E+0	9.824808E-1	1.014400E+0	9.768883E-1	1.011705E+0	9.876711E-1	1.008688E+0	9.734571E-1	1.004650E+0	9.558025E-1	9.994052E-1	9.773121E-1	9.777441E-1	9.923211E-1	9.443642E-1	9.910887E-1	1.013622E+0	1.014819E+0	9.997097E-1	9.865364E-1	1.000749E+0	1.014653E+0	9.866524E-1	1.028756E+0	1.012796E+0	9.599299E-1	9.886340E-1	9.652221E-1	9.995119E-1	1.014598E+0	1.006445E+0	9.941964E-1	9.857774E-1	1.010090E+0	1.033578E+0	1.003687E+0	1.005278E+0	9.644493E-1	9.834661E-1	1.031202E+0	1.024167E+0	1.022022E+0	1.023271E+0	9.942603E-1	1.007453E+0	9.979283E-1	9.970410E-1	1.041634E+0	1.000948E+0	9.610250E-1	9.907387E-1	1.050608E+0	9.998984E-1	1.040055E+0	1.021064E+0	9.925148E-1	9.921043E-1	1.005247E+0	1.020589E+0	9.941715E-1	1.028444E+0	9.815755E-1	9.878776E-1	9.699468E-1	1.006946E+0	9.786107E-1	1.038494E+0	9.784266E-1	1.006891E+0	1.009640E+0	9.995412E-1	1.059660E+0	1.033230E+0	9.818004E-1	1.007181E+0	9.789764E-1	9.929625E-1	1.029202E+0	9.463337E-1	1.007636E+0	1.019336E+0	9.811837E-1	9.967503E-1	1.018820E+0	9.874884E-1	1.009307E+0	1.002184E+0	1.013750E+0	1.011349E+0	1.028762E+0	1.013217E+0	1.046263E+0	1.015747E+0	1.023976E+0	9.886000E-1	1.019211E+0	9.922914E-1	1.025404E+0	1.010706E+0	9.838370E-1	1.028719E+0	9.725969E-1	9.941980E-1	1.009558E+0	1.004629E+0	9.910945E-1	9.888789E-1	1.010862E+0	1.009444E+0	1.000981E+0	9.783714E-1	1.054083E+0	1.044892E+0	9.911425E-1	9.689570E-1	9.689792E-1	9.975140E-1	1.016587E+0	9.636551E-1	9.956298E-1	9.918783E-1	1.054300E+0	9.483995E-1
5.585220E+2	1.008006E+0	1.003569E+0	9.887873E-1	1.032416E+0	1.037019E+0	1.005702E+0	1.030095E+0	1.012819E+0	1.007890E+0	9.602493E-1	1.033776E+0	1.014761E+0	1.007900E+0	9.845696E-1	9.751591E-1	1.020052E+0	1.032566E+0	1.028859E+0	1.020222E+0	1.014132E+0	1.022438E+0	1.035245E+0	9.906448E-1	1.001348E+0	9.971189E-1	9.934574E-1	1.006192E+0	9.747155E-1	1.042594E+0	1.042331E+0	9.759289E-1	1.030701E+0	1.012279E+0	1.021140E+0	9.939119E-1	1.007424E+0	1.003041E+0	9.509772E-1	1.011832E+0	1.024331E+0	1.000723E+0	9.706536E-1	9.912700E-1	9.538657E-1	1.002852E+0	9.807672E-1	1.023297E+0	9.918969E-1	1.025850E+0	1.017630E+0	9.864675E-1	9.791837E-1	9.814686E-1	1.029462E+0	1.015621E+0	1.014071E+0	9.959248E-1	1.041623E+0	1.011498E+0	1.007405E+0	1.038860E+0	9.878520E-1	9.748557E-1	1.016081E+0	1.025513E+0	1.017430E+0	1.030475E+0	1.000765E+0	9.960668E-1	1.024636E+0	1.015706E+0	9.766167E-1	1.001915E+0	1.025826E+0	1.024251E+0	9.627952E-1	9.923920E-1	1.028612E+0	1.040561E+0	1.039631E+0	9.868768E-1	9.868041E-1	1.024179E+0	9.990154E-1	1.028680E+0	1.030337E+0	9.922818E-1	1.030007E+0	9.991154E-1	1.010626E+0	9.921099E-1	1.023924E+0	9.807537E-1	9.859953E-1	1.010799E+0	9.605092E-1	1.024223E+0	1.001986E+0	9.825245E-1	1.024358E+0	9.884525E-1	1.039194E+0	9.798615E-1	9.890574E-1	1.018053E+0	9.825751E-1	9.919294E-1	9.985544E-1	1.017459E+0	1.034234E+0	1.019856E+0	1.014979E+0	1.017380E+0	9.864172E-1	9.561452E-1	1.044125E+0	1.016527E+0	1.017968E+0	9.976076E-1	1.056715E+0	9.919273E-1	1.012813E+0	1.006609E+0	1.009537E+0	1.001733E+0	1.034038E+0	1.007621E+0	1.006461E+0	9.509662E-1	9.947687E-1	1.033373E+0	9.948317E-1	1.017558E+0	1.038383E+0	9.886752E-1	1.039533E+0	9.949841E-1	1.043668E+0	9.989843E-1	1.036641E+0	1.016082E+0	1.019235E+0	1.007614E+0	1.007491E+0	9.953863E-1	9.817191E-1	1.071040E+0	1.041852E+0	9.928082E-1	9.925782E-1	1.055089E+0	1.030113E+0	1.021725E+0	1.013424E+0	1.015841E+0	9.772512E-1	1.034123E+0	1.037827E+0	9.863546E-1	1.043954E+0	9.694452E-1	1.000774E+0	1.054198E+0	1.016190E+0	1.013115E+0
5.590210E+2	9.840709E-1	9.922188E-1	1.044387E+0	9.874282E-1	1.007078E+0	9.521414E-1	9.862994E-1	9.761297E-1	9.887788E-1	9.857687E-1	1.004760E+0	1.025290E+0	9.661107E-1	9.802857E-1	1.016895E+0	9.889271E-1	9.826010E-1	1.020083E+0	9.774491E-1	1.004270E+0	9.528959E-1	9.919543E-1	9.998292E-1	9.903590E-1	9.591058E-1	9.712076E-1	9.761865E-1	9.799996E-1	9.936500E-1	9.486880E-1	9.391075E-1	1.025063E+0	1.016574E+0	9.668214E-1	9.520810E-1	9.449979E-1	1.009463E+0	9.927808E-1	9.822482E-1	9.475644E-1	1.034051E+0	1.017079E+0	1.011117E+0	1.007995E+0	9.733069E-1	9.882872E-1	9.786438E-1	9.802842E-1	9.312532E-1	1.012490E+0	9.681128E-1	9.586328E-1	1.002502E+0	9.877815E-1	9.801795E-1	9.494648E-1	9.879402E-1	9.561752E-1	1.015095E+0	9.702455E-1	9.896883E-1	1.014472E+0	9.698424E-1	9.847277E-1	9.678404E-1	9.573425E-1	1.016202E+0	9.930288E-1	1.004610E+0	1.006046E+0	1.014718E+0	9.491945E-1	1.013429E+0	9.763100E-1	9.755405E-1	9.921021E-1	9.666790E-1	9.707113E-1	1.023848E+0	9.995854E-1	9.991552E-1	1.009018E+0	1.006762E+0	9.895402E-1	9.886833E-1	9.552308E-1	9.883837E-1	9.691203E-1	9.926826E-1	9.790454E-1	1.009593E+0	1.011866E+0	9.921826E-1	9.628068E-1	1.000303E+0	9.766639E-1	9.963153E-1	1.009443E+0	9.866040E-1	1.009392E+0	9.631799E-1	9.834556E-1	9.773391E-1	1.021998E+0	1.008964E+0	9.938069E-1	9.678631E-1	9.965649E-1	9.627217E-1	9.653856E-1	1.009602E+0	1.000969E+0	1.001138E+0	9.369954E-1	9.831463E-1	9.958715E-1	9.988757E-1	9.789521E-1	9.959448E-1	9.842605E-1	9.734115E-1	9.692235E-1	9.542996E-1	9.759529E-1	9.683762E-1	9.823715E-1	1.002294E+0	1.013586E+0	9.504886E-1	9.910305E-1	1.015146E+0	9.755668E-1	1.000604E+0	9.840239E-1	9.974533E-1	9.643823E-1	1.028088E+0	9.993758E-1	1.019609E+0	9.949871E-1	1.003122E+0	9.714855E-1	1.004072E+0	1.024568E+0	9.647287E-1	1.032743E+0	9.876895E-1	9.544357E-1	1.011459E+0	9.654223E-1	9.884473E-1	9.905639E-1	1.017273E+0	1.001833E+0	9.871255E-1	1.001033E+0	9.793895E-1	9.528457E-1	9.566678E-1	9.427607E-1	1.025307E+0	1.004220E+0	9.329471E-1	9.641496E-1	9.570069E-1
5.595050E+2	9.613599E-1	9.797919E-1	1.007272E+0	1.032791E+0	9.787810E-1	1.016796E+0	9.712327E-1	1.000916E+0	9.597714E-1	1.056991E+0	9.998791E-1	1.002840E+0	1.000246E+0	9.823800E-1	1.033853E+0	1.036375E+0	1.027608E+0	9.431632E-1	9.980068E-1	9.724120E-1	1.017180E+0	9.821860E-1	9.884163E-1	1.003634E+0	9.692956E-1	9.873942E-1	9.999067E-1	1.016967E+0	9.918434E-1	9.927991E-1	1.025312E+0	9.756006E-1	9.690215E-1	1.008441E+0	9.979156E-1	1.040402E+0	9.843924E-1	1.045335E+0	1.001279E+0	9.880366E-1	1.019694E+0	9.884661E-1	9.987924E-1	9.802273E-1	9.982966E-1	9.931529E-1	9.922673E-1	1.026572E+0	9.826859E-1	1.004677E+0	9.507447E-1	9.738639E-1	9.613451E-1	1.029111E+0	1.000279E+0	1.001666E+0	9.685129E-1	9.790202E-1	1.008498E+0	9.620638E-1	1.007445E+0	9.943547E-1	1.001940E+0	9.923322E-1	9.876473E-1	1.013254E+0	9.480329E-1	9.602437E-1	9.770944E-1	9.888182E-1	9.968212E-1	1.005182E+0	9.637220E-1	1.014765E+0	9.667766E-1	9.939458E-1	1.028609E+0	1.005117E+0	9.813866E-1	9.804493E-1	9.951773E-1	9.722463E-1	9.444408E-1	1.002430E+0	9.847537E-1	9.882117E-1	9.891816E-1	9.852725E-1	1.016511E+0	9.813213E-1	9.932474E-1	1.003080E+0	9.581720E-1	9.849839E-1	1.054732E+0	9.642957E-1	9.549773E-1	9.517643E-1	1.021606E+0	1.018449E+0	1.006078E+0	1.008391E+0	1.017025E+0	9.714254E-1	9.605159E-1	1.040685E+0	9.409568E-1	1.003884E+0	1.014774E+0	9.967723E-1	1.010381E+0	9.952828E-1	9.848212E-1	9.519938E-1	1.000745E+0	9.676152E-1	1.001738E+0	9.996330E-1	1.003643E+0	9.683264E-1	9.928010E-1	1.002813E+0	9.768199E-1	9.926233E-1	9.832930E-1	1.021205E+0	1.026127E+0	1.008850E+0	9.663609E-1	1.016156E+0	9.540386E-1	1.002327E+0	9.960662E-1	9.807374E-1	1.009307E+0	9.620169E-1	9.619406E-1	9.824788E-1	9.588573E-1	1.001214E+0	1.015108E+0	9.705681E-1	9.955260E-1	1.004124E+0	1.020442E+0	9.768786E-1	9.293765E-1	1.005920E+0	1.003084E+0	9.974676E-1	1.015702E+0	9.842954E-1	9.761409E-1	9.668697E-1	9.686925E-1	1.029076E+0	9.963080E-1	9.702171E-1	9.702003E-1	1.023163E+0	9.833222E-1	9.510259E-1	9.876415E-1	1.011108E+0	1.002520E+0
5.600410E+2	9.462437E-1	9.786552E-1	9.794236E-1	1.022235E+0	1.007129E+0	1.010005E+0	9.948116E-1	9.686515E-1	1.029124E+0	1.006026E+0	9.603886E-1	9.947248E-1	9.867029E-1	1.003872E+0	9.751418E-1	9.981866E-1	9.542242E-1	9.905730E-1	9.511073E-1	1.042466E+0	9.824821E-1	1.013872E+0	9.701241E-1	9.696427E-1	1.009570E+0	1.006509E+0	9.810838E-1	9.618482E-1	9.544184E-1	1.037596E+0	1.036900E+0	9.522130E-1	1.006631E+0	9.873512E-1	9.764128E-1	1.015514E+0	9.710860E-1	9.702503E-1	1.002606E+0	9.882387E-1	9.734768E-1	1.018131E+0	1.019160E+0	9.852411E-1	1.008858E+0	9.845058E-1	9.960618E-1	9.875985E-1	1.015836E+0	9.663420E-1	9.937043E-1	1.009612E+0	1.003535E+0	9.524723E-1	1.017383E+0	1.016708E+0	1.010246E+0	9.645867E-1	9.576243E-1	1.005855E+0	9.699789E-1	1.001877E+0	1.040449E+0	9.756364E-1	1.009264E+0	9.815761E-1	9.895781E-1	1.039756E+0	1.004834E+0	9.790890E-1	9.565582E-1	1.003293E+0	9.578119E-1	1.001665E+0	1.007838E+0	9.893478E-1	9.656048E-1	9.871945E-1	9.576002E-1	9.353272E-1	1.018870E+0	9.949066E-1	1.017911E+0	9.859941E-1	9.854823E-1	9.753919E-1	9.806708E-1	9.965887E-1	9.782994E-1	1.021901E+0	1.005413E+0	1.003193E+0	1.020326E+0	9.888689E-1	1.003198E+0	1.016394E+0	9.846272E-1	9.892673E-1	1.026592E+0	9.659832E-1	9.944447E-1	9.368624E-1	1.000796E+0	9.790015E-1	1.005683E+0	9.825820E-1	1.023768E+0	9.423660E-1	1.008210E+0	9.993807E-1	9.766525E-1	9.576592E-1	1.034727E+0	1.011025E+0	1.034701E+0	9.818454E-1	9.944092E-1	9.564750E-1	9.902882E-1	9.739925E-1	1.012102E+0	1.016474E+0	1.024593E+0	1.022401E+0	9.993826E-1	9.942902E-1	1.023421E+0	9.651488E-1	1.046664E+0	9.773933E-1	9.827543E-1	9.850914E-1	9.459522E-1	9.528680E-1	9.799479E-1	1.001417E+0	1.010234E+0	9.751077E-1	9.839746E-1	1.015370E+0	1.012649E+0	1.012399E+0	9.525039E-1	9.809817E-1	9.705504E-1	1.004735E+0	1.034719E+0	1.020859E+0	9.735459E-1	1.009744E+0	9.906502E-1	1.000052E+0	1.019031E+0	9.980508E-1	9.881766E-1	1.016900E+0	9.774431E-1	9.987031E-1	1.014535E+0	9.878388E-1	1.018195E+0	1.002984E+0	9.894971E-1	9.246516E-1	1.090432E+0
5.604980E+2	1.034017E+0	9.876696E-1	1.010472E+0	9.920091E-1	1.008635E+0	1.036921E+0	1.052415E+0	1.063614E+0	9.919584E-1	1.019917E+0	1.024462E+0	9.984399E-1	1.012747E+0	1.044565E+0	1.068510E+0	1.009781E+0	9.988491E-1	9.847876E-1	1.061468E+0	1.024496E+0	9.773614E-1	1.005601E+0	1.030259E+0	1.030030E+0	1.065616E+0	9.920944E-1	1.025212E+0	1.040108E+0	9.942449E-1	9.777055E-1	1.018006E+0	9.806613E-1	9.908092E-1	1.027156E+0	1.039949E+0	1.004244E+0	9.984484E-1	1.022383E+0	1.014493E+0	1.021699E+0	9.968853E-1	1.015930E+0	1.010349E+0	1.046881E+0	1.022875E+0	1.034447E+0	1.013353E+0	1.033195E+0	9.952356E-1	9.643787E-1	1.010033E+0	1.016521E+0	1.032608E+0	1.043911E+0	9.945732E-1	9.899675E-1	1.056462E+0	1.043566E+0	1.007165E+0	1.016880E+0	1.021170E+0	9.933391E-1	1.011907E+0	1.011051E+0	1.007166E+0	1.004339E+0	9.764731E-1	1.009525E+0	1.013611E+0	9.918379E-1	1.033904E+0	1.022853E+0	9.961811E-1	9.976958E-1	1.033209E+0	1.019145E+0	1.036686E+0	1.037447E+0	1.026709E+0	1.039911E+0	1.038005E+0	1.012387E+0	1.012963E+0	1.008066E+0	9.840190E-1	1.078916E+0	1.068709E+0	1.040765E+0	1.018517E+0	9.666938E-1	1.013587E+0	1.006766E+0	1.027793E+0	9.949816E-1	9.888428E-1	1.049191E+0	9.878866E-1	1.021654E+0	1.015779E+0	1.007323E+0	1.027105E+0	1.035224E+0	9.835033E-1	1.064402E+0	9.959029E-1	1.040182E+0	1.016530E+0	1.045020E+0	9.903348E-1	1.020735E+0	1.018394E+0	1.020843E+0	1.004912E+0	1.031719E+0	9.702748E-1	1.052891E+0	9.949477E-1	1.010907E+0	1.017387E+0	1.019453E+0	1.026042E+0	1.020143E+0	9.936856E-1	1.044834E+0	1.033360E+0	9.770486E-1	1.029104E+0	9.711115E-1	1.043135E+0	1.002421E+0	1.033264E+0	9.771014E-1	1.008757E+0	1.046962E+0	1.020837E+0	1.062788E+0	1.006845E+0	1.027838E+0	1.023287E+0	9.998353E-1	1.013653E+0	9.994379E-1	9.796948E-1	1.026450E+0	1.018547E+0	9.771789E-1	1.008800E+0	9.906345E-1	1.037478E+0	1.050735E+0	1.014104E+0	9.975012E-1	1.015590E+0	1.004191E+0	9.945300E-1	1.022984E+0	9.925785E-1	1.007244E+0	1.026870E+0	1.047215E+0	1.009041E+0	1.004903E+0	1.065284E+0	1.087226E+0	9.923870E-1
5.610070E+2	1.005166E+0	1.088619E+0	1.005738E+0	1.004608E+0	1.026897E+0	1.026725E+0	1.029582E+0	9.997059E-1	1.044551E+0	9.762762E-1	1.048401E+0	1.023612E+0	1.023390E+0	9.974475E-1	9.791803E-1	9.920279E-1	1.013843E+0	1.018590E+0	1.030182E+0	9.965781E-1	1.008795E+0	1.006144E+0	1.025923E+0	9.835711E-1	1.016068E+0	1.042428E+0	1.046890E+0	1.030330E+0	1.032786E+0	9.951136E-1	1.061239E+0	1.000487E+0	1.043794E+0	9.829503E-1	1.049807E+0	1.017238E+0	1.028834E+0	1.027204E+0	1.035962E+0	1.032421E+0	1.021114E+0	1.004078E+0	9.786894E-1	1.038063E+0	1.018932E+0	1.020828E+0	1.014639E+0	1.043974E+0	1.040044E+0	1.070874E+0	1.103724E+0	1.081860E+0	1.025816E+0	1.012188E+0	1.018460E+0	1.056486E+0	1.026470E+0	1.057636E+0	9.773727E-1	1.000444E+0	1.002125E+0	1.009180E+0	1.007068E+0	1.036154E+0	1.048688E+0	9.818782E-1	1.042367E+0	1.035610E+0	9.902478E-1	1.037282E+0	1.009116E+0	1.014898E+0	1.054863E+0	9.798190E-1	1.019673E+0	1.028053E+0	1.012712E+0	9.918216E-1	9.906481E-1	1.031635E+0	9.889739E-1	1.016151E+0	9.760606E-1	9.771904E-1	1.025072E+0	1.030572E+0	9.897958E-1	1.012158E+0	1.028150E+0	1.010870E+0	1.042091E+0	9.913028E-1	1.030899E+0	1.016639E+0	9.931576E-1	1.037998E+0	1.041511E+0	1.054536E+0	1.029768E+0	1.024695E+0	1.002521E+0	1.042403E+0	1.038484E+0	9.972767E-1	1.065728E+0	9.981853E-1	1.002693E+0	1.058383E+0	9.745114E-1	1.059339E+0	1.007172E+0	1.024491E+0	1.002913E+0	1.044289E+0	1.012318E+0	1.017891E+0	1.009757E+0	1.054748E+0	1.029884E+0	9.938693E-1	1.048155E+0	9.962649E-1	1.042192E+0	1.003319E+0	1.037266E+0	1.022931E+0	9.877447E-1	1.041039E+0	1.048430E+0	9.861331E-1	9.758905E-1	1.001993E+0	1.021858E+0	9.990435E-1	1.007024E+0	1.022311E+0	1.042000E+0	9.633308E-1	1.036467E+0	9.808588E-1	9.590859E-1	1.024714E+0	1.046295E+0	9.832881E-1	1.021462E+0	1.021970E+0	9.946643E-1	9.953361E-1	9.816591E-1	1.026341E+0	9.777443E-1	1.040402E+0	9.899047E-1	1.023263E+0	1.034790E+0	1.006799E+0	1.056007E+0	1.045650E+0	1.063216E+0	9.855425E-1	1.022667E+0	9.983028E-1	9.873820E-1	9.947599E-1	1.045651E+0
