Photon Energy (eV)	#1	#2	#3	#4	#5	#6	#7	#8	#9	#10	#11	#12	#13	#14	#15	#16	#17	#18	#19	#20	#21	#22	#23	#24	#25	#26	#27	#28	#29	#30	#31	#32	#33	#34	#35	#36	#37	#38	#39	#40	#41	#42	#43	#44	#45	#46	#47	#48	#49	#50	#51	#52	#53	#54	#55	#56	#57	#58	#59	#60	#61	#62	#63	#64	#65	#66	#67	#68	#69	#70	#71	#72	#73	#74	#75	#76	#77	#78	#79	#80	#81	#82	#83	#84	#85	#86	#87	#88	#89	#90	#91	#92	#93	#94	#95	#96	#97	#98	#99	#100	#101	#102	#103	#104	#105	#106	#107	#108	#109	#110	#111	#112	#113	#114	#115	#116	#117	#118	#119	#120	#121	#122	#123	#124	#125	#126	#127	#128	#129	#130	#131	#132	#133	#134	#135	#136	#137	#138	#139	#140	#141	#142	#143	#144	#145	#146	#147	#148	#149	#150	#151	#152	#153	#154	#155	#156	#157	#158	#159	#160	#161	#162	#163	#164	#165	#166	
5.300520E+2	-4.264752E-3	-8.597613E-3	-2.388194E-3	-6.492935E-3	-1.197341E-2	-5.353212E-3	1.847017E-3	-2.747436E-3	-8.696807E-3	-5.304243E-3	-2.576489E-3	-1.125394E-2	-7.444248E-3	-9.411261E-3	-1.096351E-2	-8.873364E-3	-4.005049E-3	-6.180501E-3	-5.464886E-3	-5.573065E-3	-7.513176E-3	4.607494E-5	-2.638413E-3	-1.469362E-2	-1.428343E-2	-6.842263E-3	-8.968874E-3	-1.840484E-2	-6.280712E-3	-4.084653E-3	-8.709446E-3	-2.473291E-3	2.046238E-3	-1.072835E-2	-7.982163E-3	-7.636136E-3	-2.694929E-3	-2.165727E-3	-1.025365E-2	-5.008892E-3	-1.004461E-2	-1.208314E-2	-9.738671E-3	-1.215222E-2	-6.990632E-3	-7.794715E-3	-6.496314E-3	-9.917514E-3	-5.929934E-3	-9.978945E-4	-2.682965E-3	-5.126602E-3	-1.091690E-2	-5.242746E-3	-1.443317E-2	-1.126341E-2	2.152859E-3	-2.154324E-4	-3.286257E-3	-1.359759E-2	-3.349092E-3	-1.026744E-2	-4.932315E-3	4.575145E-4	3.042750E-3	-8.363940E-4	-1.482984E-2	-1.942629E-3	2.656278E-4	-5.853399E-5	1.468709E-3	-6.813480E-3	-7.869503E-3	-1.105152E-2	-2.595332E-3	-1.400281E-3	-7.586263E-3	4.282577E-4	-5.667329E-3	1.282450E-3	-1.113398E-3	-7.636950E-3	-4.502531E-3	-9.090447E-3	-2.534359E-3	-1.358653E-3	-7.538292E-3	-6.261557E-3	-2.159302E-3	-1.309630E-2	-3.035129E-3	-6.263837E-4	-2.523774E-3	-9.644250E-3	-1.219108E-2	-9.098823E-3	-7.234899E-3	-1.305888E-2	-1.245753E-2	-4.233553E-3	3.214768E-4	-8.219428E-3	2.946802E-3	-3.290180E-3	-7.515539E-3	-1.186954E-2	-5.647560E-3	-3.811354E-3	-9.435069E-3	-7.424087E-3	-1.015749E-2	-1.780912E-3	-8.560444E-4	-1.297741E-2	-5.267710E-3	-1.216599E-2	-3.794102E-3	-2.034754E-3	-8.762225E-3	-9.114527E-3	-1.746749E-2	-1.724360E-2	8.298568E-4	-1.374724E-2	-8.820649E-3	-4.400222E-3	3.957628E-3	1.497073E-3	-1.310945E-3	-9.204322E-3	-1.141775E-2	-4.343361E-3	-1.097581E-2	-5.293575E-3	-9.560533E-3	3.855830E-4	-1.166480E-3	-4.633733E-3	-8.641988E-3	-5.279241E-3	-9.593301E-3	3.469627E-4	-6.297147E-3	-1.094361E-2	-8.049579E-3	-3.755983E-3	-1.898091E-3	-7.469845E-3	-1.405196E-2	9.856509E-4	-7.560628E-4	-1.111593E-2	1.621362E-3	-1.075700E-2	-8.217521E-3	-6.668788E-3	-1.463843E-2	2.255592E-4	-5.790611E-3	-8.398576E-3	-1.230072E-3	-3.645516E-3	1.045562E-4	-1.067027E-2	-1.430844E-2	-1.966249E-2
5.305180E+2	-1.384241E-2	-4.317128E-3	-6.657324E-3	-2.540046E-3	1.474099E-3	-2.943121E-3	-1.127195E-2	-6.694187E-3	-6.454454E-3	-7.447339E-3	-9.525616E-3	8.020455E-4	-8.661792E-3	-6.573883E-3	-8.581435E-3	-9.665426E-3	-3.022883E-3	-8.596059E-3	-9.569764E-3	-5.687363E-3	-3.838265E-3	1.013767E-3	-6.151766E-3	-2.500876E-3	-5.868909E-3	-5.279070E-3	-6.524069E-3	-2.706854E-3	-6.500940E-3	-8.394840E-3	-2.838533E-3	-7.513250E-3	-1.228430E-2	-8.053473E-3	-1.884283E-3	-4.498377E-3	-4.589053E-3	-1.092027E-2	-1.445644E-3	-9.626640E-3	-1.630741E-2	-6.469495E-3	1.441825E-3	5.278992E-4	-8.763639E-3	-1.169634E-2	-7.399433E-4	-1.362050E-2	-7.947754E-3	-9.359716E-3	-5.533723E-3	-8.976507E-5	-6.379760E-3	-4.059594E-4	3.450104E-3	-9.244114E-3	-1.352042E-2	-1.021270E-2	-5.752222E-3	-8.776153E-3	-3.462910E-3	-5.746925E-3	-7.060338E-3	-9.290318E-3	-8.344720E-3	-1.463201E-2	-3.758583E-3	-1.382451E-2	-4.949742E-4	-1.001738E-2	-1.022078E-2	2.025182E-4	-4.929502E-3	-4.289299E-3	-1.221703E-2	-6.523208E-3	-3.196207E-3	-6.761146E-3	-6.360346E-3	-1.809929E-3	4.325631E-3	-2.959354E-3	-6.574253E-4	-3.973254E-3	-5.621202E-3	-4.525524E-3	-6.607527E-3	-8.802027E-3	-6.058648E-3	-9.624884E-4	-1.150916E-2	-1.253533E-2	-1.601517E-2	-6.770976E-3	-1.129063E-2	8.270298E-6	-9.346204E-3	-1.876128E-3	1.219798E-3	-1.191696E-2	-6.585614E-3	2.789756E-3	-8.882739E-3	-9.577940E-3	-9.576180E-3	3.518131E-4	-4.616493E-3	-4.643769E-3	5.776531E-3	-1.077297E-2	-1.132408E-2	-5.467645E-3	-2.349054E-3	-1.356757E-3	-9.916865E-3	-2.980686E-3	-7.160541E-3	7.528187E-5	2.287210E-3	-1.327899E-2	-3.300631E-3	-8.659210E-3	-8.218635E-3	-7.822638E-3	-1.159357E-2	-5.634684E-3	-3.325695E-3	-7.364270E-3	-7.804828E-3	-1.257306E-3	-3.754458E-3	6.228843E-4	4.857647E-4	-1.448090E-2	7.996132E-3	-1.505385E-2	2.355894E-3	-5.513336E-3	-6.377751E-3	-7.417427E-3	-1.831162E-3	-1.298711E-2	-1.353172E-2	-8.159469E-3	-9.035437E-3	-1.588745E-2	-1.118605E-2	5.809765E-3	-4.947673E-3	3.815908E-3	-7.666111E-3	-2.388313E-3	-3.604891E-3	-6.292334E-3	-9.206930E-3	-4.966982E-3	-6.285454E-3	-1.418427E-2	-2.634562E-3	-4.912517E-3	4.799060E-3	-1.248207E-2	-9.405599E-3	4.097825E-3	-1.828842E-2	-1.442811E-2
5.310250E+2	7.433033E-4	4.335540E-3	1.483834E-3	-3.094788E-3	-1.011683E-3	-6.232878E-3	-1.671781E-2	-1.424705E-4	-1.062892E-2	1.027160E-3	-8.346067E-3	-4.883449E-3	1.138315E-3	4.554739E-3	-2.445894E-3	-5.134511E-3	-6.299174E-3	-6.269003E-4	-6.601435E-3	-5.517046E-3	-3.692954E-3	-4.570495E-3	-7.130305E-3	-7.635544E-3	-7.742685E-3	-1.606639E-3	-2.936698E-3	3.364794E-3	-1.597596E-3	-2.432785E-3	-3.247230E-3	-1.708537E-3	6.282541E-4	-4.970406E-3	-6.321982E-3	-8.205317E-3	-3.281286E-3	-1.628529E-3	4.053236E-4	-7.755280E-3	-2.881392E-3	-1.780952E-3	-1.345451E-2	8.003002E-4	4.312673E-3	-7.290612E-3	-1.232844E-2	6.274376E-3	-4.240146E-4	1.935296E-3	-4.294061E-3	-4.583513E-3	-4.432828E-3	3.211112E-4	-1.169718E-2	-4.065103E-3	-1.577233E-3	3.710262E-4	-1.569219E-3	-7.998817E-3	-7.691325E-3	-8.251632E-3	-1.824807E-3	4.730207E-3	-7.578203E-3	-5.841417E-3	1.516468E-3	-3.443417E-3	-1.373276E-2	-6.967531E-3	-5.628849E-3	-1.295860E-3	-1.550584E-3	5.536363E-4	-8.921092E-3	-7.906160E-4	-7.046593E-3	-6.072545E-3	-1.563399E-2	-5.237443E-3	-5.531387E-3	-3.388556E-3	-7.997277E-3	-6.544088E-3	-8.406407E-3	-3.163856E-3	3.577347E-3	2.104683E-3	-7.145572E-3	-4.537218E-3	-1.078451E-2	-4.567176E-3	-1.358983E-3	-1.572923E-2	-1.166678E-3	5.184765E-3	-8.578595E-3	3.449282E-3	-7.128612E-3	-3.607672E-3	-1.553742E-2	7.334372E-4	1.288727E-3	5.129810E-3	-3.879722E-3	-1.198632E-2	-1.596011E-2	1.814677E-3	-8.352035E-3	1.715865E-3	1.658678E-3	-1.007853E-2	-1.535855E-3	-1.182475E-3	-5.288101E-3	-7.251059E-3	-2.597118E-3	-9.929584E-3	5.290992E-3	3.824900E-3	-9.380973E-4	-4.948918E-3	-5.093628E-3	2.124962E-3	7.630292E-3	-1.641894E-3	-1.094398E-2	-7.202583E-3	-8.269853E-3	-9.916830E-3	-1.271941E-2	-4.446831E-3	-2.264496E-3	8.353392E-4	-7.186957E-3	-1.159283E-3	-1.051357E-2	4.996385E-4	1.177358E-4	-1.543589E-2	-1.069374E-2	-1.338507E-2	-8.090316E-4	-1.501583E-4	-1.155964E-2	1.084660E-3	-2.479354E-3	-4.045298E-3	-1.158331E-2	-1.005166E-2	-7.516600E-3	-2.218362E-3	-7.256364E-3	8.963813E-3	1.889957E-3	3.168946E-3	-1.281124E-2	-7.152764E-3	-6.890724E-3	-7.882551E-3	-1.612739E-2	1.356510E-3	-6.851925E-3	-7.855999E-3	-9.558369E-3	-1.903357E-3
5.315130E+2	-4.338006E-3	4.944173E-3	1.438592E-3	-2.434114E-3	-8.955749E-3	-2.157631E-3	4.948880E-3	-1.368431E-3	-1.938484E-3	-2.848023E-3	1.633062E-3	-7.848499E-3	-1.038182E-3	2.030976E-3	6.482280E-3	-5.177770E-3	5.314786E-4	1.012363E-3	6.907743E-3	-3.830612E-4	-8.178395E-3	-6.144422E-3	-2.105023E-3	-7.666564E-3	1.672193E-3	-1.159395E-2	1.150482E-3	-1.562547E-4	-1.634356E-3	-5.628771E-3	1.157468E-3	-4.153447E-3	-2.103533E-3	9.751752E-3	3.412043E-3	2.825800E-3	4.791611E-3	6.648174E-5	3.752515E-4	-1.615091E-3	-8.963126E-3	1.482316E-3	-5.036768E-3	-1.588531E-2	4.287090E-3	-5.173845E-3	-5.931450E-3	-3.608938E-3	7.523299E-3	-1.218577E-2	-9.223257E-3	7.832566E-4	2.682901E-3	-1.250531E-2	2.466091E-3	-6.826026E-4	-7.215219E-3	-2.127919E-3	-1.023819E-2	-5.417555E-3	-1.674826E-3	-6.687269E-3	1.711181E-3	-3.741793E-3	-3.229554E-3	-8.966514E-3	-4.180998E-3	-2.111664E-3	-2.795002E-3	-1.188139E-3	-3.435592E-3	-5.208743E-3	-4.822573E-3	5.475936E-4	-2.639168E-3	-5.162677E-3	2.674019E-3	-6.405699E-4	3.765194E-3	-2.862517E-3	-6.188369E-3	-9.881068E-4	-5.713604E-3	2.230503E-4	-7.815153E-4	-4.399768E-3	-4.805979E-3	-6.284187E-3	2.534317E-4	2.911652E-3	-3.679726E-3	-1.990532E-3	6.997179E-3	9.551723E-4	1.440139E-3	1.476615E-4	1.079018E-2	5.468862E-4	1.971301E-3	-9.285479E-4	9.523228E-4	1.267322E-3	-6.396648E-3	9.018953E-3	-1.007247E-2	-7.495669E-4	-1.936164E-3	-5.144859E-3	-4.516400E-3	-6.872081E-3	6.086620E-4	-5.393133E-4	-5.455408E-3	6.521451E-3	3.099293E-3	-1.385446E-3	-5.152595E-3	-4.294609E-3	-9.327665E-3	-1.316415E-4	-8.281820E-3	-3.205139E-3	-9.885258E-3	4.173039E-3	-1.083226E-2	-7.143745E-3	-6.521116E-3	-2.241463E-3	-3.843475E-3	-2.377044E-3	6.514245E-4	-5.575092E-4	-7.550018E-3	-2.152928E-3	-6.025504E-3	-5.706863E-3	4.513888E-3	-8.495465E-4	-1.194961E-3	3.391588E-3	-6.744490E-3	1.485608E-3	-7.395598E-3	-2.520805E-3	3.817212E-3	-7.384609E-3	1.094588E-2	-1.553336E-2	-8.932433E-3	4.575154E-3	-3.862235E-3	-1.052115E-3	-9.703279E-4	-8.245296E-3	-2.257363E-3	-9.524155E-3	2.536910E-3	-1.418826E-3	-4.632141E-3	-1.015804E-3	-4.805562E-3	6.953156E-4	-1.146842E-2	-1.561944E-2	-9.840569E-4	-1.869860E-3
5.320120E+2	6.170948E-3	-3.862966E-3	-1.557580E-3	6.502993E-3	7.910388E-3	4.390261E-3	5.384485E-3	-2.954259E-3	-2.205165E-3	-6.953498E-3	5.726481E-3	3.130067E-3	9.697612E-4	-4.614969E-3	1.047731E-2	7.793269E-3	-2.367981E-4	-4.230736E-3	5.576425E-4	-3.521124E-5	5.038086E-3	4.275560E-3	-4.842091E-5	8.784783E-3	-1.083986E-2	-1.789553E-3	-3.282093E-3	-1.172542E-2	-4.826845E-3	-2.069304E-3	-3.496325E-3	1.759817E-3	5.695059E-3	1.316449E-2	2.720183E-3	1.224444E-3	-6.449581E-3	-5.352014E-3	-1.533497E-3	6.091296E-3	5.078283E-4	3.188840E-3	2.647698E-3	1.821401E-3	-7.256633E-4	1.708743E-5	1.448615E-3	9.660887E-3	5.878052E-4	-3.028288E-3	-6.718390E-3	-8.153722E-4	3.720175E-3	-7.730520E-3	1.743821E-3	1.044211E-2	-4.386254E-3	-1.110513E-3	5.789656E-3	6.718150E-3	7.575114E-3	2.123543E-3	6.519987E-5	-2.671283E-4	-7.275480E-3	-5.523770E-4	5.899163E-3	5.920188E-3	-2.425283E-3	-2.549075E-3	-4.174085E-3	-3.147513E-3	2.672283E-3	-7.919655E-4	3.457607E-3	8.379652E-4	-7.309195E-3	-2.793894E-4	-3.630752E-3	4.225603E-3	2.373158E-3	1.269042E-3	-1.893701E-3	-5.541526E-3	-5.136090E-3	-4.049603E-3	1.714920E-3	4.927130E-3	-1.183466E-2	-4.853337E-3	-2.135511E-3	4.970885E-3	-3.818258E-3	2.869270E-3	-2.890035E-3	-5.103307E-3	-8.289507E-3	4.386990E-3	-5.604821E-3	3.595380E-3	-1.501383E-3	-1.246023E-2	-2.479303E-3	-5.199316E-3	2.662418E-3	3.433800E-3	4.221100E-3	1.550062E-3	-3.597981E-3	4.315068E-3	-6.235554E-3	-7.225124E-4	7.534699E-4	-2.353672E-4	2.926082E-3	1.216524E-3	9.004208E-4	-2.241551E-3	-4.982128E-4	4.210803E-3	8.256884E-3	2.546827E-3	-2.384599E-3	1.081209E-3	6.136076E-3	9.032943E-4	-1.162501E-3	6.322370E-3	1.132807E-2	6.906947E-3	6.580110E-3	-5.467350E-3	4.420191E-4	-7.850622E-3	9.003860E-4	-1.885147E-3	-2.631164E-3	1.924023E-4	2.357703E-3	-1.679238E-5	4.444596E-3	1.877333E-3	-5.411307E-3	2.161257E-3	4.195496E-3	4.998079E-3	-1.547825E-3	-8.812980E-3	1.552456E-3	-7.999324E-3	3.255436E-3	-1.910701E-3	7.633836E-3	-3.822359E-3	-2.633100E-3	3.500758E-3	7.659728E-3	-1.020140E-3	8.029763E-4	1.264624E-2	1.218612E-3	-4.526568E-3	9.699647E-3	2.045837E-2	1.530636E-2	8.450737E-3
5.325070E+2	5.436767E-3	-3.272517E-3	3.070786E-3	2.139459E-3	5.410797E-4	-2.580882E-3	8.413662E-3	1.423769E-3	7.681346E-3	3.895251E-3	9.889648E-3	2.464656E-3	7.919658E-3	-6.532659E-4	-3.126107E-3	1.332626E-2	-8.792128E-4	8.055116E-3	6.112067E-3	1.289050E-2	-6.474490E-4	1.009905E-3	1.400393E-2	1.167738E-2	1.083438E-2	1.224653E-2	-1.975669E-3	2.042588E-2	2.849170E-3	-5.291821E-6	1.466918E-3	5.385959E-3	2.006975E-4	-5.705835E-4	-8.674831E-4	-1.679020E-3	5.714762E-3	5.555973E-3	-2.161309E-3	7.149109E-3	1.138970E-2	2.463758E-3	9.924568E-5	1.293809E-2	2.473591E-3	1.718721E-2	8.387209E-3	-9.543788E-4	1.125644E-3	4.596770E-3	3.657171E-3	6.491131E-3	7.242601E-3	1.518212E-2	6.825395E-3	-2.036743E-3	4.940394E-3	-1.210599E-3	1.090355E-2	1.245334E-2	5.848393E-3	1.535875E-2	1.036271E-3	-4.576991E-3	7.786277E-3	1.497607E-2	1.267946E-3	3.381763E-4	7.322128E-3	6.162106E-3	5.267393E-3	1.637823E-4	7.810985E-3	1.521548E-3	7.831440E-3	1.397625E-3	1.341691E-2	-2.527040E-3	1.195099E-2	-2.472626E-3	-3.367496E-3	-1.860198E-3	3.698747E-4	5.462903E-3	5.470772E-3	-3.503730E-3	-5.931847E-4	4.319402E-3	9.287621E-3	4.494161E-3	1.274571E-2	-1.018675E-2	1.191247E-3	1.300558E-2	1.290887E-2	-3.263227E-3	1.737148E-3	8.567212E-4	7.197329E-3	-5.516341E-4	1.047035E-2	2.733706E-3	6.343125E-3	-5.234126E-3	1.250643E-2	9.021519E-3	1.892888E-2	-1.673322E-3	1.132308E-2	1.024186E-3	1.077609E-2	-1.871730E-4	-2.567527E-3	1.499245E-3	4.562543E-3	1.153250E-2	-1.702099E-3	5.100338E-3	3.964848E-3	-1.226531E-2	7.425936E-3	8.447244E-3	7.146647E-3	9.441287E-3	1.053659E-2	1.076878E-2	-2.891231E-3	-3.181318E-3	6.107105E-3	-1.549870E-4	3.445267E-3	6.982640E-3	3.909877E-3	3.654245E-3	8.364494E-4	1.359415E-2	-2.061403E-3	-3.141899E-3	-2.553987E-4	8.763630E-3	1.464267E-2	5.032084E-3	1.437108E-2	6.947855E-3	4.792642E-3	7.911899E-3	3.276718E-3	6.938881E-3	5.543576E-3	2.988992E-3	-2.392834E-3	6.492704E-3	-3.921133E-3	1.646133E-3	6.823197E-5	-1.922832E-3	1.092104E-2	5.844980E-3	3.547536E-3	-6.100327E-5	6.842722E-3	2.292306E-3	7.292254E-3	8.041109E-3	1.521473E-2	8.371279E-3
5.330280E+2	1.009415E-2	1.077051E-2	4.609887E-3	5.919431E-3	1.201528E-2	1.487746E-2	7.395720E-3	1.248301E-2	2.224249E-2	1.763069E-2	3.198982E-3	1.758912E-2	7.116487E-3	1.466766E-2	8.157350E-3	7.731539E-3	1.391164E-2	1.056672E-2	8.058632E-3	4.305243E-3	1.883215E-2	4.369610E-3	4.069999E-3	1.203444E-2	2.622831E-2	1.486494E-2	2.253692E-2	9.202694E-3	1.799128E-2	2.261564E-2	1.566715E-2	8.702750E-3	5.817589E-3	1.406568E-3	1.092369E-2	1.796861E-2	6.508476E-3	1.444408E-2	1.461352E-2	1.076550E-2	2.629901E-2	1.319867E-2	2.404118E-2	1.194983E-2	5.406580E-3	1.475121E-2	1.566033E-2	1.216607E-2	5.064954E-3	1.903961E-2	2.479522E-2	3.340865E-3	8.083815E-3	1.038130E-2	1.164495E-2	1.684987E-2	1.960587E-2	1.450614E-2	4.152681E-3	1.661863E-2	2.754645E-3	1.347097E-2	1.100481E-2	1.268851E-2	1.559893E-2	1.585264E-2	1.408585E-2	1.506385E-2	1.186026E-2	1.461855E-2	1.672321E-2	1.609930E-2	8.688894E-3	1.351001E-2	1.508357E-2	1.164119E-2	9.047326E-3	1.585243E-2	1.557623E-2	6.874463E-3	9.501862E-3	1.556412E-2	2.039466E-2	1.946336E-2	1.700880E-2	2.100113E-2	1.425272E-2	9.996556E-3	1.765712E-2	1.604353E-2	1.839833E-2	2.493529E-2	1.552776E-2	1.531443E-2	1.318942E-2	1.212466E-2	2.092188E-2	5.695126E-3	1.480253E-2	1.764299E-2	1.188026E-2	1.315544E-2	7.180036E-3	9.152800E-3	1.587506E-2	1.179829E-2	5.010350E-3	1.190856E-2	8.801877E-3	1.801402E-2	1.467369E-2	1.877609E-2	1.201042E-2	7.731315E-3	9.884757E-3	1.103415E-2	1.950604E-2	1.332488E-2	7.045052E-3	2.675476E-2	1.430521E-2	2.306279E-2	1.760562E-2	4.749380E-3	6.943511E-3	7.148472E-3	2.088690E-2	1.217019E-2	3.793925E-3	1.600354E-2	1.721481E-2	7.209527E-3	1.595266E-2	2.528844E-2	1.304003E-2	9.825413E-3	9.502832E-3	1.344647E-2	1.399466E-2	1.599414E-2	9.775434E-3	1.763019E-2	1.907373E-2	1.266494E-2	1.583930E-2	1.303341E-2	2.888726E-3	2.311284E-2	3.241935E-2	5.685276E-3	1.893841E-2	1.219272E-2	6.497518E-3	1.850704E-2	2.035672E-2	1.641305E-2	1.261745E-2	1.770546E-2	1.559753E-2	9.624212E-3	9.302629E-3	1.631003E-2	1.062949E-2	1.548405E-3	1.261820E-2	2.104180E-2
5.331680E+2	9.492269E-3	3.141095E-2	1.603964E-2	3.325811E-2	2.538806E-2	2.179847E-2	6.134420E-3	2.031619E-2	2.298956E-2	1.185295E-2	2.790995E-2	8.366535E-3	2.095823E-2	1.177957E-2	5.793577E-3	1.588388E-2	1.715657E-2	1.807536E-2	1.852602E-2	1.757009E-2	2.885500E-2	2.797803E-2	2.187162E-2	1.651962E-2	1.618002E-2	4.809108E-3	1.703350E-2	1.667784E-2	2.301152E-2	5.615112E-3	2.087712E-2	1.862359E-2	2.377879E-2	2.245738E-2	2.570114E-2	-2.238279E-3	1.915329E-2	2.973009E-2	1.820545E-2	1.136131E-2	8.711352E-3	1.578088E-2	1.376497E-2	1.819963E-2	2.141238E-2	2.034626E-2	4.390675E-3	1.579340E-2	1.259123E-2	2.335224E-2	1.722454E-2	1.884620E-2	2.218242E-4	1.840315E-2	1.637162E-2	2.327243E-2	2.795761E-2	3.149712E-2	2.295890E-2	1.068599E-2	1.288747E-2	7.085188E-3	5.948979E-3	1.708589E-2	2.205478E-2	2.664242E-2	1.420436E-2	1.782204E-2	2.185940E-2	8.807630E-3	2.143493E-2	1.452121E-2	1.987095E-2	1.292276E-2	1.902495E-2	2.688037E-2	1.672299E-2	1.708849E-2	1.062819E-2	1.184866E-2	1.654923E-2	2.315260E-2	1.700596E-2	1.881642E-2	2.616804E-2	2.607082E-2	1.152823E-2	2.290498E-2	2.028478E-2	2.756439E-2	2.093880E-2	1.509103E-2	2.595264E-2	2.220592E-2	2.517473E-2	1.218905E-2	2.105159E-2	2.385389E-2	1.425902E-2	1.356693E-2	2.072869E-2	1.901093E-2	8.437858E-3	1.093314E-2	2.038312E-2	2.271856E-2	1.407664E-2	8.730633E-3	1.340905E-2	2.420146E-2	1.485917E-2	3.485097E-2	2.392329E-2	1.931338E-2	2.598974E-2	2.602261E-2	2.926090E-2	2.035552E-2	7.713879E-3	9.641047E-3	1.874953E-2	2.688801E-2	1.468273E-2	3.033015E-2	5.640245E-3	1.615428E-2	2.277597E-2	1.479236E-2	5.112584E-3	1.482537E-2	2.357734E-2	2.117639E-2	1.430037E-2	2.429121E-2	2.222352E-2	3.503171E-2	1.397034E-2	1.945417E-2	1.280272E-2	9.038945E-3	1.509234E-2	2.434481E-2	1.257164E-2	1.648985E-2	1.179560E-2	1.379547E-2	1.967708E-2	1.372847E-2	2.019443E-2	2.247692E-2	2.353798E-2	1.779021E-2	1.880422E-2	7.358363E-3	3.860533E-2	1.913278E-2	1.685546E-2	1.317210E-2	2.540151E-2	1.856830E-2	2.089585E-2	3.351892E-2	2.711405E-3	8.939732E-3	3.974374E-2	1.172472E-2
5.333080E+2	1.608755E-2	3.024450E-2	3.256593E-2	1.190193E-2	2.962571E-2	7.490928E-3	2.338391E-2	2.115737E-2	2.311350E-2	1.146947E-2	2.106537E-2	5.757211E-3	2.654603E-2	2.612744E-2	2.112180E-2	1.023842E-2	2.607613E-2	2.558438E-2	2.728787E-2	1.935932E-2	3.125404E-2	2.646993E-2	3.172573E-2	1.174110E-2	1.508096E-2	1.576991E-2	2.637030E-2	4.794052E-3	1.659717E-2	2.084938E-2	2.781513E-2	2.425456E-2	2.079428E-2	1.669509E-2	2.239610E-2	1.848633E-2	2.840442E-2	2.232249E-2	3.800102E-2	2.207482E-2	1.828149E-2	1.793555E-2	2.502324E-2	1.817086E-2	2.007476E-2	2.758179E-2	2.692348E-2	2.366113E-2	1.890721E-2	2.836742E-2	1.138074E-2	2.560639E-2	9.322033E-3	3.047400E-2	2.238647E-2	2.761285E-2	2.391687E-2	2.417339E-2	1.789512E-2	2.663417E-2	3.037904E-2	2.127497E-2	1.700553E-2	1.546146E-2	2.289710E-2	3.250531E-2	2.246723E-2	2.923916E-2	2.144092E-2	1.552948E-2	6.920601E-3	3.166351E-2	2.736249E-2	1.969185E-2	2.950405E-2	3.083100E-2	3.557468E-2	2.670594E-2	2.549446E-2	2.246433E-2	2.126954E-2	1.590605E-2	2.599917E-2	1.840412E-2	1.437289E-2	1.708105E-2	2.080340E-2	2.609922E-2	2.995389E-2	3.344803E-2	2.898421E-2	1.801080E-2	1.701471E-2	2.387355E-2	2.953770E-2	1.307535E-2	2.191294E-2	1.353841E-2	2.564065E-2	1.662413E-2	1.396084E-2	1.919534E-2	2.423533E-2	4.022103E-2	1.934632E-2	1.276775E-2	2.990217E-2	1.988172E-2	2.599025E-2	2.155795E-2	2.075136E-2	1.125349E-2	2.283299E-2	2.132952E-2	1.646233E-2	4.203915E-2	2.689808E-2	1.881928E-2	1.478299E-2	1.589435E-2	3.172641E-2	1.800586E-2	2.217505E-2	1.424448E-2	2.009787E-2	2.858859E-2	2.125558E-2	1.250311E-2	1.446210E-2	9.950282E-3	2.129648E-2	2.874375E-2	3.055478E-2	1.645211E-2	1.337119E-2	2.060159E-2	2.376346E-2	1.310896E-2	1.818219E-2	3.038008E-2	2.680797E-2	2.339903E-2	3.002709E-2	2.277896E-2	3.588955E-2	6.745583E-3	1.872073E-2	3.078035E-2	1.916769E-2	3.076956E-2	1.939230E-2	2.959762E-2	3.005582E-2	1.467062E-2	2.973364E-2	3.157059E-2	2.053325E-2	3.790307E-2	1.082799E-2	1.883127E-2	2.481235E-2	1.852864E-2	1.874496E-2	2.439068E-2	2.319478E-2	2.137750E-2
5.334580E+2	2.661911E-2	3.059293E-2	3.698574E-2	1.866641E-2	2.928124E-2	2.237156E-2	3.255646E-2	2.085844E-2	2.226163E-2	3.192084E-2	3.694261E-2	2.303496E-2	3.347652E-2	2.494888E-2	2.757437E-2	1.738374E-2	2.468383E-2	1.910811E-2	3.281712E-2	2.886274E-2	2.303826E-2	1.559129E-2	2.750672E-2	3.070941E-2	1.813925E-2	1.726609E-2	2.182245E-2	2.704581E-2	3.141335E-2	2.657459E-2	3.890562E-2	3.342913E-2	2.936181E-2	2.480369E-2	3.092937E-2	1.881558E-2	3.053757E-2	3.549896E-2	3.029677E-2	2.722466E-2	2.724970E-2	1.825775E-2	4.011434E-2	1.122394E-2	3.203823E-2	3.286124E-2	1.966562E-2	2.724105E-2	1.815025E-2	4.612085E-2	3.785987E-2	2.261349E-2	2.564420E-2	3.426518E-2	2.854772E-2	2.864584E-2	2.049557E-2	1.134080E-2	2.998129E-2	2.565294E-2	3.538394E-2	2.106179E-2	1.423255E-2	2.796400E-2	2.370865E-2	3.357438E-2	2.636904E-2	3.491704E-2	1.968314E-2	2.655217E-2	3.842954E-2	1.706100E-2	3.713771E-2	2.896763E-2	3.956568E-2	4.095496E-2	3.835586E-2	2.927977E-2	3.040744E-2	1.743753E-2	3.451912E-2	1.687558E-2	4.049738E-2	1.702708E-2	2.799510E-2	2.844817E-2	3.820734E-2	2.864690E-2	2.470291E-2	2.303190E-2	2.269749E-2	1.564201E-2	3.960014E-2	2.991089E-2	1.815144E-2	1.401548E-2	3.055447E-2	4.017076E-2	4.211727E-2	1.903281E-2	2.009108E-2	3.441454E-2	1.618199E-2	3.263135E-2	3.288309E-2	2.648001E-2	3.287844E-2	2.214074E-2	2.524912E-2	2.846446E-2	2.424167E-2	4.206989E-2	2.449597E-2	4.413859E-2	2.649861E-2	3.568608E-2	2.983058E-2	3.588139E-2	3.573960E-2	2.751807E-2	2.465857E-2	2.678851E-2	3.101111E-2	2.381323E-2	3.858220E-2	3.455141E-2	2.215488E-2	2.491652E-2	1.674906E-2	3.920586E-2	3.035060E-2	2.710027E-2	1.663304E-2	2.840321E-2	2.397041E-2	1.975155E-2	1.894046E-2	2.465739E-2	2.176439E-2	3.846824E-2	3.875560E-2	3.189999E-2	3.265581E-2	1.937664E-2	2.334565E-2	3.219187E-2	3.578424E-2	2.534992E-2	3.472922E-2	2.561807E-2	2.349934E-2	2.691352E-2	3.241564E-2	2.407379E-2	2.033381E-2	2.515607E-2	3.044972E-2	3.422050E-2	2.871776E-2	2.231678E-2	2.590488E-2	1.569137E-2	3.005420E-2	1.116752E-2	2.207912E-2	2.419327E-2
5.336080E+2	3.479992E-2	2.369691E-2	3.132539E-2	5.244770E-2	4.321297E-2	2.838410E-2	3.560230E-2	3.170467E-2	3.919840E-2	3.046081E-2	3.313471E-2	2.748335E-2	3.508601E-2	4.077098E-2	3.217362E-2	4.322514E-2	3.516650E-2	4.301531E-2	2.639242E-2	3.261512E-2	4.069687E-2	4.342827E-2	3.833727E-2	4.393479E-2	4.565921E-2	3.330687E-2	2.226970E-2	4.444408E-2	4.285534E-2	3.519570E-2	4.114182E-2	3.562125E-2	2.774043E-2	2.888765E-2	4.734891E-2	3.114387E-2	2.922840E-2	4.893725E-2	4.066367E-2	2.662476E-2	3.084193E-2	4.811507E-2	3.513037E-2	3.141126E-2	4.031132E-2	4.270359E-2	3.056076E-2	3.322253E-2	4.207637E-2	5.091833E-2	4.175134E-2	2.249271E-2	3.843439E-2	4.734795E-2	3.312327E-2	4.410509E-2	2.860159E-2	3.630585E-2	4.585565E-2	4.146233E-2	3.480998E-2	5.075252E-2	3.082191E-2	2.770458E-2	4.297252E-2	3.788687E-2	3.152578E-2	4.308257E-2	4.783995E-2	3.777761E-2	3.329828E-2	4.202307E-2	3.302323E-2	2.704588E-2	4.401747E-2	4.141171E-2	3.964009E-2	3.426401E-2	3.208374E-2	2.647575E-2	4.015319E-2	2.051687E-2	3.641227E-2	4.494363E-2	3.504234E-2	4.257629E-2	2.566748E-2	3.453348E-2	3.117874E-2	4.013559E-2	3.965251E-2	3.776607E-2	3.393123E-2	4.289540E-2	2.347965E-2	3.215404E-2	4.544190E-2	3.957839E-2	4.336302E-2	4.782695E-2	3.530560E-2	3.265451E-2	2.449375E-2	3.292863E-2	3.538387E-2	3.982158E-2	4.585548E-2	4.126996E-2	3.707973E-2	4.051932E-2	3.580437E-2	2.917380E-2	3.692926E-2	2.945789E-2	4.136485E-2	3.242382E-2	3.485250E-2	3.931682E-2	2.937888E-2	3.336297E-2	3.416058E-2	3.640149E-2	3.946283E-2	5.222944E-2	4.764593E-2	3.114690E-2	3.230036E-2	2.860968E-2	3.357012E-2	2.682971E-2	3.961336E-2	3.226677E-2	3.627234E-2	2.890443E-2	4.026905E-2	2.366911E-2	4.312500E-2	2.981227E-2	3.459752E-2	3.005569E-2	3.471153E-2	4.553514E-2	4.612580E-2	3.950845E-2	3.620210E-2	2.972482E-2	3.759888E-2	3.903670E-2	6.317379E-2	2.991588E-2	4.550697E-2	3.174560E-2	4.668927E-2	4.141581E-2	3.833832E-2	5.223747E-2	3.783291E-2	2.474585E-2	3.494861E-2	3.370900E-2	4.305970E-2	4.035473E-2	2.899030E-2	1.734426E-2	4.318345E-2	2.977853E-2
5.337580E+2	5.745176E-2	6.404971E-2	6.432739E-2	4.116328E-2	3.879250E-2	3.505028E-2	6.242288E-2	3.998146E-2	4.198599E-2	3.146260E-2	4.464941E-2	4.307145E-2	4.902331E-2	4.603410E-2	2.776585E-2	2.492560E-2	5.011693E-2	5.635056E-2	4.806234E-2	4.321754E-2	4.778086E-2	3.291338E-2	4.658921E-2	4.133954E-2	5.076891E-2	4.074999E-2	4.860224E-2	4.771683E-2	5.275260E-2	3.376294E-2	5.552456E-2	3.734309E-2	6.745689E-2	5.149397E-2	4.165942E-2	4.143565E-2	4.554836E-2	4.619820E-2	3.450786E-2	5.256386E-2	3.606672E-2	4.119663E-2	4.669698E-2	3.413575E-2	6.373084E-2	3.850609E-2	5.704862E-2	4.582289E-2	3.914195E-2	5.350274E-2	4.306243E-2	4.150637E-2	3.866051E-2	4.524249E-2	5.890591E-2	4.585864E-2	3.846734E-2	5.291364E-2	4.612115E-2	4.485960E-2	4.120821E-2	4.874347E-2	4.713845E-2	3.858496E-2	3.870361E-2	5.715750E-2	4.626254E-2	5.351642E-2	5.179993E-2	5.759030E-2	3.862830E-2	3.193558E-2	4.790165E-2	4.769145E-2	4.231494E-2	3.560541E-2	4.513384E-2	3.392060E-2	3.968353E-2	5.801519E-2	6.044178E-2	3.138423E-2	4.727386E-2	4.396216E-2	3.285653E-2	5.448492E-2	3.960798E-2	3.083106E-2	5.115688E-2	4.866327E-2	5.142189E-2	4.611012E-2	4.285691E-2	3.994911E-2	4.521873E-2	4.786284E-2	5.894138E-2	4.394823E-2	5.984914E-2	2.924813E-2	4.157494E-2	3.747268E-2	3.563457E-2	5.920615E-2	5.590490E-2	4.262206E-2	4.871741E-2	4.035529E-2	4.429411E-2	5.005335E-2	4.705984E-2	4.513759E-2	3.720523E-2	4.563254E-2	5.717900E-2	4.154597E-2	5.191763E-2	4.247022E-2	5.497402E-2	4.190255E-2	4.616562E-2	4.269218E-2	4.339289E-2	3.726788E-2	3.099341E-2	4.930155E-2	4.902989E-2	3.782824E-2	3.121799E-2	4.904837E-2	4.357341E-2	4.391540E-2	3.889107E-2	4.715341E-2	5.260032E-2	5.440267E-2	5.940046E-2	3.871466E-2	4.770579E-2	4.056433E-2	5.404406E-2	5.548779E-2	4.180558E-2	3.669063E-2	3.990151E-2	3.109040E-2	4.595510E-2	5.399563E-2	3.899713E-2	5.318073E-2	3.812252E-2	5.225858E-2	4.424967E-2	4.174567E-2	2.886062E-2	4.705742E-2	4.705592E-2	4.791681E-2	4.142002E-2	4.871118E-2	4.339436E-2	4.185136E-2	3.021823E-2	4.421825E-2	4.719283E-2	5.710141E-2
5.339140E+2	4.911178E-2	6.540665E-2	6.020816E-2	5.261660E-2	5.552451E-2	7.279286E-2	6.312615E-2	5.297083E-2	7.555103E-2	5.835401E-2	6.579189E-2	6.196729E-2	7.230547E-2	6.255915E-2	5.801668E-2	4.188121E-2	4.665027E-2	7.138539E-2	4.701521E-2	5.918469E-2	6.449440E-2	5.670571E-2	5.989799E-2	6.907658E-2	7.507396E-2	6.552192E-2	6.832009E-2	6.467139E-2	7.170462E-2	5.768773E-2	6.701839E-2	7.342999E-2	6.816375E-2	7.215222E-2	5.051833E-2	4.799968E-2	6.529389E-2	6.270506E-2	7.292262E-2	7.047957E-2	4.347834E-2	5.179814E-2	6.031901E-2	5.338988E-2	4.998153E-2	6.879603E-2	5.996251E-2	5.646429E-2	7.980052E-2	6.865693E-2	6.274462E-2	5.181758E-2	6.576256E-2	4.985829E-2	4.850856E-2	4.755350E-2	6.723783E-2	6.429290E-2	6.998171E-2	7.264146E-2	4.859759E-2	5.803582E-2	4.986469E-2	5.689713E-2	6.259104E-2	6.227588E-2	5.389986E-2	7.835456E-2	6.252909E-2	6.307191E-2	7.637673E-2	5.365837E-2	8.116890E-2	4.235029E-2	6.302881E-2	6.765202E-2	4.515506E-2	7.375741E-2	7.455362E-2	5.350858E-2	5.137721E-2	6.387220E-2	6.036600E-2	6.448346E-2	8.096822E-2	5.886242E-2	6.142407E-2	6.493099E-2	8.695551E-2	5.569197E-2	5.389969E-2	5.935309E-2	6.133299E-2	5.877887E-2	4.856231E-2	5.019201E-2	6.870180E-2	6.284675E-2	4.988887E-2	6.703173E-2	6.394443E-2	6.980159E-2	6.165771E-2	6.711230E-2	6.991189E-2	4.837700E-2	7.757760E-2	5.942909E-2	8.144788E-2	5.568325E-2	5.988145E-2	6.949083E-2	8.555884E-2	4.749156E-2	6.019320E-2	6.595336E-2	6.512531E-2	5.879244E-2	6.843307E-2	6.818761E-2	7.026621E-2	6.334438E-2	6.124439E-2	6.416482E-2	7.469634E-2	5.400094E-2	6.114070E-2	7.561807E-2	5.935843E-2	7.641517E-2	4.995188E-2	7.771764E-2	5.978390E-2	8.439889E-2	6.618567E-2	5.116329E-2	7.430846E-2	6.534802E-2	6.593791E-2	6.128648E-2	6.526239E-2	4.852208E-2	6.386692E-2	5.748725E-2	6.396102E-2	4.781990E-2	5.351657E-2	4.908794E-2	5.991272E-2	6.779721E-2	8.375488E-2	7.037780E-2	5.085019E-2	5.501532E-2	7.512615E-2	6.813985E-2	5.664996E-2	5.866454E-2	7.007861E-2	7.006355E-2	7.973931E-2	7.319222E-2	7.892071E-2	7.110785E-2	7.005634E-2	4.518740E-2
5.340640E+2	7.836071E-2	8.649029E-2	8.306526E-2	8.699259E-2	1.017638E-1	8.923246E-2	9.909282E-2	7.219840E-2	8.475334E-2	8.481325E-2	9.537039E-2	6.452613E-2	9.808912E-2	9.269068E-2	8.295441E-2	8.092102E-2	9.597335E-2	8.489554E-2	9.784838E-2	9.557789E-2	8.442027E-2	1.046045E-1	8.966434E-2	8.213745E-2	8.163126E-2	8.759715E-2	1.145673E-1	7.964159E-2	9.578309E-2	6.831090E-2	9.366728E-2	7.477602E-2	9.001997E-2	9.189721E-2	8.044631E-2	7.990763E-2	9.494156E-2	9.486902E-2	8.138911E-2	9.401052E-2	8.929656E-2	8.960866E-2	1.079089E-1	7.120294E-2	9.987219E-2	8.012400E-2	8.840779E-2	7.631088E-2	1.011448E-1	8.649302E-2	9.116934E-2	9.446064E-2	9.139302E-2	1.051991E-1	7.979386E-2	8.540198E-2	9.192545E-2	9.062353E-2	9.887602E-2	9.575847E-2	8.006330E-2	9.098310E-2	6.900698E-2	8.624747E-2	8.751503E-2	9.766618E-2	8.634670E-2	7.744424E-2	7.984133E-2	8.850581E-2	7.496497E-2	8.496823E-2	8.412007E-2	7.578450E-2	8.540844E-2	8.614135E-2	8.863980E-2	9.037604E-2	8.860084E-2	8.753743E-2	9.137960E-2	8.234672E-2	7.909226E-2	9.001160E-2	9.105705E-2	9.448783E-2	8.699643E-2	9.492313E-2	7.124778E-2	8.548195E-2	1.019344E-1	9.942519E-2	8.530461E-2	9.825313E-2	8.352037E-2	8.771768E-2	8.001427E-2	8.323880E-2	9.094049E-2	7.617519E-2	9.076288E-2	8.745635E-2	8.926389E-2	9.127143E-2	1.178928E-1	1.021336E-1	8.379017E-2	7.466962E-2	9.547692E-2	9.689091E-2	8.986700E-2	8.387635E-2	9.056722E-2	6.615152E-2	8.826337E-2	8.621236E-2	8.371518E-2	8.590135E-2	9.656040E-2	9.252168E-2	9.872470E-2	8.416153E-2	8.860080E-2	8.238472E-2	1.008623E-1	9.050822E-2	8.148478E-2	7.615464E-2	7.618695E-2	8.711137E-2	1.023678E-1	8.028942E-2	7.765504E-2	8.153019E-2	8.850594E-2	8.912027E-2	9.262637E-2	7.630891E-2	8.767282E-2	9.491750E-2	8.575542E-2	7.462262E-2	9.304866E-2	8.904749E-2	8.055677E-2	8.349350E-2	9.159595E-2	1.059386E-1	9.146665E-2	8.956642E-2	9.255445E-2	9.135453E-2	1.006733E-1	9.842169E-2	9.173178E-2	9.436614E-2	8.389722E-2	9.274383E-2	8.879121E-2	8.736895E-2	9.041379E-2	8.046239E-2	9.350450E-2	8.335227E-2	5.268855E-2	8.101835E-2
5.342090E+2	1.447306E-1	1.401433E-1	1.164661E-1	1.254130E-1	1.069416E-1	1.171699E-1	1.430209E-1	1.277722E-1	1.502115E-1	1.396429E-1	1.420607E-1	1.154710E-1	1.524493E-1	1.334103E-1	1.287341E-1	1.367910E-1	1.161466E-1	1.164615E-1	1.253307E-1	1.268802E-1	1.420793E-1	1.491005E-1	1.162236E-1	1.298871E-1	1.281972E-1	1.351931E-1	1.271754E-1	1.364766E-1	1.397731E-1	1.249717E-1	1.496808E-1	1.260901E-1	1.462233E-1	1.154929E-1	1.348735E-1	1.359394E-1	1.380773E-1	1.356029E-1	1.398232E-1	1.291732E-1	1.179121E-1	1.371172E-1	1.202745E-1	1.403296E-1	1.400705E-1	1.430954E-1	1.420423E-1	1.215118E-1	1.393328E-1	1.300342E-1	1.661478E-1	1.311302E-1	1.352390E-1	1.385011E-1	1.295676E-1	1.375790E-1	1.542458E-1	1.297264E-1	1.268754E-1	1.311411E-1	1.277442E-1	1.471687E-1	1.278411E-1	1.407035E-1	1.400281E-1	1.352463E-1	1.372754E-1	1.398432E-1	1.385080E-1	1.249943E-1	1.276744E-1	1.356809E-1	1.454721E-1	1.252648E-1	1.425666E-1	1.365002E-1	1.247379E-1	1.506709E-1	1.332891E-1	1.324574E-1	1.519679E-1	1.249461E-1	1.380458E-1	1.328595E-1	1.399303E-1	1.310262E-1	1.220469E-1	1.268624E-1	1.448706E-1	1.271225E-1	1.447969E-1	1.385572E-1	1.326997E-1	1.244264E-1	1.171577E-1	1.545991E-1	1.221050E-1	1.353229E-1	1.323284E-1	1.292485E-1	1.385276E-1	1.302718E-1	1.195470E-1	1.507609E-1	1.228588E-1	1.284682E-1	1.462285E-1	1.477711E-1	1.251630E-1	1.456338E-1	1.361092E-1	1.434090E-1	1.193242E-1	1.435577E-1	1.311364E-1	1.229881E-1	1.333822E-1	1.536560E-1	1.220596E-1	1.369015E-1	1.318402E-1	1.265403E-1	1.340457E-1	1.201844E-1	1.257310E-1	1.369326E-1	1.503766E-1	1.419023E-1	1.342644E-1	1.169017E-1	1.198832E-1	1.300488E-1	1.284808E-1	1.184378E-1	1.392887E-1	1.388125E-1	1.269114E-1	1.363944E-1	1.252768E-1	1.253269E-1	1.238265E-1	1.477681E-1	1.485295E-1	1.284085E-1	1.566346E-1	1.359171E-1	1.323420E-1	1.360137E-1	1.596510E-1	1.189082E-1	1.536125E-1	1.332029E-1	1.214689E-1	1.244314E-1	1.396460E-1	1.203946E-1	1.524955E-1	1.438620E-1	1.562046E-1	1.514898E-1	1.383888E-1	1.286689E-1	1.345926E-1	1.259730E-1	9.834681E-2	1.197294E-1
5.343550E+2	2.042363E-1	2.257593E-1	1.995924E-1	1.960619E-1	2.252426E-1	2.159593E-1	2.204161E-1	1.980259E-1	2.111088E-1	2.210060E-1	2.009173E-1	2.046413E-1	2.098581E-1	2.286494E-1	2.149968E-1	2.046599E-1	1.984782E-1	2.152980E-1	2.081449E-1	1.949829E-1	2.161509E-1	2.054180E-1	1.986966E-1	2.045754E-1	2.431359E-1	2.120360E-1	2.179481E-1	2.206960E-1	2.333137E-1	2.257107E-1	1.921284E-1	2.171991E-1	2.285447E-1	1.978942E-1	2.074067E-1	1.999832E-1	1.994481E-1	2.281794E-1	2.243402E-1	2.193460E-1	2.119310E-1	2.219713E-1	2.083915E-1	2.221028E-1	2.034123E-1	1.957857E-1	1.964494E-1	2.159027E-1	1.949336E-1	2.242884E-1	1.910742E-1	2.238341E-1	2.152822E-1	2.169321E-1	2.113530E-1	2.056431E-1	2.116247E-1	2.084820E-1	2.076826E-1	2.335765E-1	2.184417E-1	2.035886E-1	2.191342E-1	2.338316E-1	1.972923E-1	2.147183E-1	1.813421E-1	2.268903E-1	1.790000E-1	2.212505E-1	2.255739E-1	2.310203E-1	2.090711E-1	2.029178E-1	2.195642E-1	2.340561E-1	2.288977E-1	2.287717E-1	2.149984E-1	2.152258E-1	2.625816E-1	2.068213E-1	2.319940E-1	2.213452E-1	1.951498E-1	2.194941E-1	2.197237E-1	2.028807E-1	2.233222E-1	2.244502E-1	2.229466E-1	2.280124E-1	2.203928E-1	1.917035E-1	2.158226E-1	2.385503E-1	2.080796E-1	2.328703E-1	2.193327E-1	2.073418E-1	2.291958E-1	1.959492E-1	2.183661E-1	2.289484E-1	2.339439E-1	2.002621E-1	2.320728E-1	1.958974E-1	2.170242E-1	2.224201E-1	2.049583E-1	1.922113E-1	2.184952E-1	2.015306E-1	2.044724E-1	2.145411E-1	2.497301E-1	2.093812E-1	2.211201E-1	2.044021E-1	2.274958E-1	2.179210E-1	2.254371E-1	1.915067E-1	2.420637E-1	2.205559E-1	2.311408E-1	2.204951E-1	2.091870E-1	2.161340E-1	2.025208E-1	2.148184E-1	2.026559E-1	2.002876E-1	1.810167E-1	2.226399E-1	2.267223E-1	2.155447E-1	2.199616E-1	2.385758E-1	2.186548E-1	2.118727E-1	2.344187E-1	1.998440E-1	2.138073E-1	2.192464E-1	2.139259E-1	2.090828E-1	2.160477E-1	2.048931E-1	2.122720E-1	2.178596E-1	2.254505E-1	2.072942E-1	2.288157E-1	2.345179E-1	2.016940E-1	1.962227E-1	1.856934E-1	2.257744E-1	2.272774E-1	2.127532E-1	2.170489E-1	2.155768E-1	2.440546E-1	2.176690E-1
5.345050E+2	3.862465E-1	3.822836E-1	3.275518E-1	3.808873E-1	3.535408E-1	3.250264E-1	3.944796E-1	3.498235E-1	3.749190E-1	3.627557E-1	3.466221E-1	3.659181E-1	3.692606E-1	3.716070E-1	3.721469E-1	3.694125E-1	3.595919E-1	3.664180E-1	4.015426E-1	3.907673E-1	3.805340E-1	3.575072E-1	3.884374E-1	3.730989E-1	3.731343E-1	3.835748E-1	3.891935E-1	3.632065E-1	3.902885E-1	3.539780E-1	3.578258E-1	3.863718E-1	3.931347E-1	3.802929E-1	3.658455E-1	3.378491E-1	3.785559E-1	3.415910E-1	3.729353E-1	3.519795E-1	3.809078E-1	3.942648E-1	3.558921E-1	3.598757E-1	4.192980E-1	3.990769E-1	3.865016E-1	3.432594E-1	3.332684E-1	3.850670E-1	3.836361E-1	3.950373E-1	3.757321E-1	3.629599E-1	3.668609E-1	3.879237E-1	3.641066E-1	3.879592E-1	3.826922E-1	3.737335E-1	4.001475E-1	3.636610E-1	3.834605E-1	4.023931E-1	3.727576E-1	4.002242E-1	3.903363E-1	3.658227E-1	3.738458E-1	3.736976E-1	3.656900E-1	3.961623E-1	3.708011E-1	3.602587E-1	3.895376E-1	3.426840E-1	3.653390E-1	3.720786E-1	3.578710E-1	3.782944E-1	3.725703E-1	3.878690E-1	3.787843E-1	3.477074E-1	3.783667E-1	3.885859E-1	3.777532E-1	3.827909E-1	3.713764E-1	3.936107E-1	3.923696E-1	3.855645E-1	3.960142E-1	3.901016E-1	3.878151E-1	3.729493E-1	3.627072E-1	4.068151E-1	3.835125E-1	3.631469E-1	3.697699E-1	3.828617E-1	3.667996E-1	3.803890E-1	3.681293E-1	3.979409E-1	3.874457E-1	3.796473E-1	3.751016E-1	3.685776E-1	3.684604E-1	4.021364E-1	3.698389E-1	3.782504E-1	3.507770E-1	3.627441E-1	3.687873E-1	3.790619E-1	3.891592E-1	3.780416E-1	3.767254E-1	3.867517E-1	3.929824E-1	3.760422E-1	3.920388E-1	3.777428E-1	4.118922E-1	4.058089E-1	3.945317E-1	3.671707E-1	3.801171E-1	3.558734E-1	3.841093E-1	3.585705E-1	3.440444E-1	3.737020E-1	3.798025E-1	3.895489E-1	4.024262E-1	3.838343E-1	3.920831E-1	3.628961E-1	4.120303E-1	3.846586E-1	3.849782E-1	3.620826E-1	3.874464E-1	3.756533E-1	4.013507E-1	4.060933E-1	3.904655E-1	3.920848E-1	3.788822E-1	3.760742E-1	3.783008E-1	3.439662E-1	4.073516E-1	3.650670E-1	3.677849E-1	3.766930E-1	3.726537E-1	3.703589E-1	3.658064E-1	4.107433E-1	4.545706E-1	4.196725E-1
5.346870E+2	6.997929E-1	6.307329E-1	6.362131E-1	6.643894E-1	6.814434E-1	6.422883E-1	6.966065E-1	6.742448E-1	6.753543E-1	6.702787E-1	6.680815E-1	7.052572E-1	6.645432E-1	6.700702E-1	6.918566E-1	6.517006E-1	6.596223E-1	6.503484E-1	6.735992E-1	6.572888E-1	6.705981E-1	6.538646E-1	6.193332E-1	6.563327E-1	6.836363E-1	6.661338E-1	6.474469E-1	6.429917E-1	6.898451E-1	6.762179E-1	6.430860E-1	6.582225E-1	6.945178E-1	6.966633E-1	6.927235E-1	6.323678E-1	6.338240E-1	6.504907E-1	6.574235E-1	6.666801E-1	6.745553E-1	6.564289E-1	6.471719E-1	6.662248E-1	6.801821E-1	6.369270E-1	6.864856E-1	6.469406E-1	6.816696E-1	6.536641E-1	6.420025E-1	6.735657E-1	7.064597E-1	7.172941E-1	6.283207E-1	6.585140E-1	6.661508E-1	6.780298E-1	6.769306E-1	6.928659E-1	6.886577E-1	6.742578E-1	6.595886E-1	6.943388E-1	7.050481E-1	6.638985E-1	6.652890E-1	6.864426E-1	6.535632E-1	7.022512E-1	6.505070E-1	6.777531E-1	6.447832E-1	6.813599E-1	6.537793E-1	6.931654E-1	6.364932E-1	6.199297E-1	6.487740E-1	6.504519E-1	6.953019E-1	7.191097E-1	6.831683E-1	6.060778E-1	6.801347E-1	6.615753E-1	6.590053E-1	6.518002E-1	6.859756E-1	6.403067E-1	6.644184E-1	6.423436E-1	6.751084E-1	6.771774E-1	6.564959E-1	6.511907E-1	6.697106E-1	6.770479E-1	6.648216E-1	6.989079E-1	6.614775E-1	6.475716E-1	6.733051E-1	6.715999E-1	6.957903E-1	6.429222E-1	6.899070E-1	6.601741E-1	6.751263E-1	6.650179E-1	6.393125E-1	7.042285E-1	6.514957E-1	6.359004E-1	6.548908E-1	7.211976E-1	6.934120E-1	6.476299E-1	6.895058E-1	6.566587E-1	6.937507E-1	7.107533E-1	6.869278E-1	7.037256E-1	7.024886E-1	6.393737E-1	7.045018E-1	6.609546E-1	6.754281E-1	6.509054E-1	6.683760E-1	7.129624E-1	6.680165E-1	6.868226E-1	6.227839E-1	6.689848E-1	6.658720E-1	7.134957E-1	6.396038E-1	6.788359E-1	6.647946E-1	6.675536E-1	6.655770E-1	6.743380E-1	6.839813E-1	6.643956E-1	6.267312E-1	6.887861E-1	6.651136E-1	6.788793E-1	6.563298E-1	6.688343E-1	6.643265E-1	6.158322E-1	6.384159E-1	7.163781E-1	6.559555E-1	6.640416E-1	6.267482E-1	6.387392E-1	6.863134E-1	6.710164E-1	6.840958E-1	6.320419E-1	6.821050E-1	7.019478E-1
5.348070E+2	9.537223E-1	9.585971E-1	9.547628E-1	9.640664E-1	9.661959E-1	9.839138E-1	9.747337E-1	9.259671E-1	1.012663E+0	9.531386E-1	9.493680E-1	9.447351E-1	9.670528E-1	9.674777E-1	9.976221E-1	9.533116E-1	9.597868E-1	9.857025E-1	9.469645E-1	9.566853E-1	9.932663E-1	9.945547E-1	1.001955E+0	9.682403E-1	9.949044E-1	9.323578E-1	9.768505E-1	9.477688E-1	9.927187E-1	9.750338E-1	9.785188E-1	9.608141E-1	9.998988E-1	9.806057E-1	9.967293E-1	9.637886E-1	9.932142E-1	9.466079E-1	9.959532E-1	9.653707E-1	9.233365E-1	9.899724E-1	9.776232E-1	9.770231E-1	1.027226E+0	9.531018E-1	9.716494E-1	9.537616E-1	1.015571E+0	9.745356E-1	9.970089E-1	9.861597E-1	9.877053E-1	9.715952E-1	9.690242E-1	9.594817E-1	9.815968E-1	9.081599E-1	9.744887E-1	9.919918E-1	9.543263E-1	9.799883E-1	9.159589E-1	9.846484E-1	9.994255E-1	1.008709E+0	9.911582E-1	9.714442E-1	1.004517E+0	9.804879E-1	9.759996E-1	9.859005E-1	9.491244E-1	9.375795E-1	9.632288E-1	9.257058E-1	9.767495E-1	9.557075E-1	9.886758E-1	9.639396E-1	1.003154E+0	9.698573E-1	9.592516E-1	9.780822E-1	9.775451E-1	9.841526E-1	9.928006E-1	9.735121E-1	9.724253E-1	1.003746E+0	9.710229E-1	9.655534E-1	9.494487E-1	9.613944E-1	9.517292E-1	9.770179E-1	1.018882E+0	9.503593E-1	9.811327E-1	9.553141E-1	9.793107E-1	9.827990E-1	9.898252E-1	9.776298E-1	9.709954E-1	9.255908E-1	9.584296E-1	9.729952E-1	9.845369E-1	9.166676E-1	9.864909E-1	9.773731E-1	9.763625E-1	9.928099E-1	9.642088E-1	9.709360E-1	9.932903E-1	9.485117E-1	9.704020E-1	1.025105E+0	9.485939E-1	9.821993E-1	9.844227E-1	9.867063E-1	1.008949E+0	9.863423E-1	9.568963E-1	9.607358E-1	1.020331E+0	9.389382E-1	1.000437E+0	9.380448E-1	9.917313E-1	1.029089E+0	9.442171E-1	9.574944E-1	9.465543E-1	9.466740E-1	9.989595E-1	9.756998E-1	9.381073E-1	9.388697E-1	9.602163E-1	9.172952E-1	9.554955E-1	9.905247E-1	9.477998E-1	9.831814E-1	1.009527E+0	9.092591E-1	1.010138E+0	9.690501E-1	9.535658E-1	9.805443E-1	9.672653E-1	9.846763E-1	9.818560E-1	9.745333E-1	9.762646E-1	9.424703E-1	1.008683E+0	9.214838E-1	9.600844E-1	9.557340E-1	9.736959E-1	9.195194E-1
5.349630E+2	1.499125E+0	1.411085E+0	1.411263E+0	1.391357E+0	1.438716E+0	1.395620E+0	1.424570E+0	1.424893E+0	1.407230E+0	1.394642E+0	1.434340E+0	1.439479E+0	1.389430E+0	1.399533E+0	1.419852E+0	1.401374E+0	1.400535E+0	1.413746E+0	1.401295E+0	1.386443E+0	1.415364E+0	1.389477E+0	1.375223E+0	1.463031E+0	1.449606E+0	1.428111E+0	1.501835E+0	1.359623E+0	1.432049E+0	1.391060E+0	1.410828E+0	1.427022E+0	1.521740E+0	1.426316E+0	1.423232E+0	1.357075E+0	1.433090E+0	1.414439E+0	1.350392E+0	1.356222E+0	1.364657E+0	1.408301E+0	1.393778E+0	1.368675E+0	1.407909E+0	1.372099E+0	1.382059E+0	1.376834E+0	1.414441E+0	1.444021E+0	1.443873E+0	1.398556E+0	1.415156E+0	1.379898E+0	1.466254E+0	1.435655E+0	1.416728E+0	1.342799E+0	1.302532E+0	1.403647E+0	1.432943E+0	1.347215E+0	1.395818E+0	1.369271E+0	1.376709E+0	1.417255E+0	1.402139E+0	1.418206E+0	1.374934E+0	1.375335E+0	1.423405E+0	1.423694E+0	1.395201E+0	1.309793E+0	1.365487E+0	1.402115E+0	1.363366E+0	1.351304E+0	1.386043E+0	1.395569E+0	1.442336E+0	1.339242E+0	1.404163E+0	1.417001E+0	1.449875E+0	1.324361E+0	1.405030E+0	1.414966E+0	1.439192E+0	1.345212E+0	1.363233E+0	1.438754E+0	1.406506E+0	1.359803E+0	1.398957E+0	1.375368E+0	1.366947E+0	1.364910E+0	1.440254E+0	1.403349E+0	1.373460E+0	1.370293E+0	1.477730E+0	1.355966E+0	1.416699E+0	1.387477E+0	1.357209E+0	1.395451E+0	1.383341E+0	1.318188E+0	1.364949E+0	1.391637E+0	1.340093E+0	1.399710E+0	1.328861E+0	1.451948E+0	1.398645E+0	1.401425E+0	1.378031E+0	1.434979E+0	1.367114E+0	1.368629E+0	1.414705E+0	1.396060E+0	1.421415E+0	1.368641E+0	1.319874E+0	1.364067E+0	1.431164E+0	1.365521E+0	1.419780E+0	1.325159E+0	1.365636E+0	1.441985E+0	1.368515E+0	1.394608E+0	1.367034E+0	1.353737E+0	1.379453E+0	1.413574E+0	1.434421E+0	1.375266E+0	1.438576E+0	1.339184E+0	1.455186E+0	1.365694E+0	1.330190E+0	1.379767E+0	1.371218E+0	1.399448E+0	1.393610E+0	1.383911E+0	1.430592E+0	1.400812E+0	1.416472E+0	1.401124E+0	1.390842E+0	1.392944E+0	1.338149E+0	1.351363E+0	1.414951E+0	1.392107E+0	1.363813E+0	1.356787E+0	1.428298E+0	1.382678E+0
5.351090E+2	1.824201E+0	1.749363E+0	1.798669E+0	1.726990E+0	1.728443E+0	1.834054E+0	1.695571E+0	1.782810E+0	1.685342E+0	1.822889E+0	1.705966E+0	1.757798E+0	1.796239E+0	1.829068E+0	1.750324E+0	1.708425E+0	1.809275E+0	1.786289E+0	1.801304E+0	1.645520E+0	1.733119E+0	1.818502E+0	1.803533E+0	1.761474E+0	1.789571E+0	1.734611E+0	1.815783E+0	1.668767E+0	1.789741E+0	1.758914E+0	1.804060E+0	1.718478E+0	1.788610E+0	1.789947E+0	1.795829E+0	1.681524E+0	1.759684E+0	1.777895E+0	1.757169E+0	1.713191E+0	1.718341E+0	1.781347E+0	1.743095E+0	1.736080E+0	1.707449E+0	1.771551E+0	1.725618E+0	1.660929E+0	1.703579E+0	1.746518E+0	1.689309E+0	1.730317E+0	1.757694E+0	1.779421E+0	1.737891E+0	1.721414E+0	1.775375E+0	1.797002E+0	1.714909E+0	1.719741E+0	1.794239E+0	1.672601E+0	1.712561E+0	1.805641E+0	1.748289E+0	1.758508E+0	1.776915E+0	1.761343E+0	1.751859E+0	1.688055E+0	1.764113E+0	1.765905E+0	1.755093E+0	1.645841E+0	1.670087E+0	1.752699E+0	1.663337E+0	1.700615E+0	1.811816E+0	1.720911E+0	1.780469E+0	1.756556E+0	1.728661E+0	1.656516E+0	1.750180E+0	1.686853E+0	1.728770E+0	1.727393E+0	1.751597E+0	1.769585E+0	1.745761E+0	1.717503E+0	1.707778E+0	1.688461E+0	1.750073E+0	1.628280E+0	1.768889E+0	1.726933E+0	1.717894E+0	1.741917E+0	1.733256E+0	1.762480E+0	1.773466E+0	1.731482E+0	1.718874E+0	1.630142E+0	1.689190E+0	1.700340E+0	1.791630E+0	1.709356E+0	1.736841E+0	1.744433E+0	1.790392E+0	1.685625E+0	1.726922E+0	1.727626E+0	1.729565E+0	1.709704E+0	1.734384E+0	1.758692E+0	1.760893E+0	1.748032E+0	1.740318E+0	1.725801E+0	1.771429E+0	1.674758E+0	1.713309E+0	1.745604E+0	1.777369E+0	1.696464E+0	1.690995E+0	1.735870E+0	1.736057E+0	1.702524E+0	1.663844E+0	1.659203E+0	1.720929E+0	1.733893E+0	1.673547E+0	1.722151E+0	1.747329E+0	1.738571E+0	1.701936E+0	1.685105E+0	1.714226E+0	1.731715E+0	1.734636E+0	1.697465E+0	1.724944E+0	1.778494E+0	1.727426E+0	1.705126E+0	1.772137E+0	1.738678E+0	1.689933E+0	1.765677E+0	1.719392E+0	1.680247E+0	1.704386E+0	1.661324E+0	1.829628E+0	1.651983E+0	1.736069E+0	1.708982E+0	1.785978E+0	1.703651E+0
5.352650E+2	1.987004E+0	2.018418E+0	2.027933E+0	2.036029E+0	1.946632E+0	2.010631E+0	2.081696E+0	1.980371E+0	1.963735E+0	2.050801E+0	1.928975E+0	2.003483E+0	1.986722E+0	1.948165E+0	2.013428E+0	1.944812E+0	1.981974E+0	1.984966E+0	2.008525E+0	1.954028E+0	1.926181E+0	1.962274E+0	1.979897E+0	1.952173E+0	1.972300E+0	2.020991E+0	2.012989E+0	2.003722E+0	2.004296E+0	1.952357E+0	2.020793E+0	1.978956E+0	2.042710E+0	2.003738E+0	2.063700E+0	1.958243E+0	2.005934E+0	2.006642E+0	1.970641E+0	2.009709E+0	1.963526E+0	2.061802E+0	2.015567E+0	2.004805E+0	1.909519E+0	1.930945E+0	2.033069E+0	1.921169E+0	2.022737E+0	1.989914E+0	2.028030E+0	1.985097E+0	2.068236E+0	1.968764E+0	2.039474E+0	1.955978E+0	1.937748E+0	1.916409E+0	1.910645E+0	2.085692E+0	1.983746E+0	1.927521E+0	2.013539E+0	2.023807E+0	1.993958E+0	2.007547E+0	1.985104E+0	1.940296E+0	1.941365E+0	1.931509E+0	1.992185E+0	1.964023E+0	1.967184E+0	1.905017E+0	2.011646E+0	1.925274E+0	1.950344E+0	1.876126E+0	1.962432E+0	1.958601E+0	1.953165E+0	1.954902E+0	1.938728E+0	1.933924E+0	1.932425E+0	1.963326E+0	1.983157E+0	1.955653E+0	1.968586E+0	1.972220E+0	1.901523E+0	1.967394E+0	1.937933E+0	1.914260E+0	1.933294E+0	1.912844E+0	2.047768E+0	1.931914E+0	1.969279E+0	1.953442E+0	1.948927E+0	1.954874E+0	1.991165E+0	1.975092E+0	1.933192E+0	1.995218E+0	1.967102E+0	1.926465E+0	1.947710E+0	2.002115E+0	1.901009E+0	1.870691E+0	2.003457E+0	1.939219E+0	1.931670E+0	1.925186E+0	2.001645E+0	1.942435E+0	1.931505E+0	1.973617E+0	1.982811E+0	2.027805E+0	1.907898E+0	1.895758E+0	2.013073E+0	1.933088E+0	1.957250E+0	2.052081E+0	1.966351E+0	1.939966E+0	1.950859E+0	1.882068E+0	1.917599E+0	1.969977E+0	1.927315E+0	1.922332E+0	1.988061E+0	2.029679E+0	1.975277E+0	1.953348E+0	1.963022E+0	1.858294E+0	1.916252E+0	1.905513E+0	1.983958E+0	1.952561E+0	1.887622E+0	1.925773E+0	1.915043E+0	2.007236E+0	1.982607E+0	1.948516E+0	1.950803E+0	1.938896E+0	1.951193E+0	1.948493E+0	1.966394E+0	1.853643E+0	1.873420E+0	1.850974E+0	1.970762E+0	1.918429E+0	1.916892E+0	1.862264E+0	1.843050E+0	1.859123E+0
5.354170E+2	2.016799E+0	1.948921E+0	2.019656E+0	2.035137E+0	1.985239E+0	1.970419E+0	2.025181E+0	2.042122E+0	1.959257E+0	1.988380E+0	1.950418E+0	2.009187E+0	2.023824E+0	1.960586E+0	2.056809E+0	1.964887E+0	1.978842E+0	1.974374E+0	2.002638E+0	1.901443E+0	1.959070E+0	1.984669E+0	2.006439E+0	2.010499E+0	2.033236E+0	2.023773E+0	2.062488E+0	1.931348E+0	2.074053E+0	1.976858E+0	1.998787E+0	1.940447E+0	2.074756E+0	2.013962E+0	2.005036E+0	1.942800E+0	1.994660E+0	2.011166E+0	2.006609E+0	1.955843E+0	1.962861E+0	1.985510E+0	1.938058E+0	1.974664E+0	1.965097E+0	1.992234E+0	2.041700E+0	1.935964E+0	1.969767E+0	1.961199E+0	2.016775E+0	1.969484E+0	2.001131E+0	2.045744E+0	2.026391E+0	1.923753E+0	1.999774E+0	1.933749E+0	1.938110E+0	2.013905E+0	1.969151E+0	1.925569E+0	1.911091E+0	1.986290E+0	1.969405E+0	2.007128E+0	2.008941E+0	1.898060E+0	1.974424E+0	1.994976E+0	1.984332E+0	1.952517E+0	1.834423E+0	1.950675E+0	2.087169E+0	1.920493E+0	1.978356E+0	1.958674E+0	1.991203E+0	1.982379E+0	2.032185E+0	2.040714E+0	1.957525E+0	1.880757E+0	2.013781E+0	2.023315E+0	2.011495E+0	2.011329E+0	1.936340E+0	1.876583E+0	1.960083E+0	1.923453E+0	1.987610E+0	1.885642E+0	1.937430E+0	1.885001E+0	2.042620E+0	1.896042E+0	2.024133E+0	2.003702E+0	1.913503E+0	1.942915E+0	1.985296E+0	1.935382E+0	1.880023E+0	2.043530E+0	1.949396E+0	1.910169E+0	1.974422E+0	1.949578E+0	1.887061E+0	1.912329E+0	1.947591E+0	1.941634E+0	1.917813E+0	1.998068E+0	1.960702E+0	1.954632E+0	1.952094E+0	1.961932E+0	1.887098E+0	2.001343E+0	1.917761E+0	1.957783E+0	1.932932E+0	1.926773E+0	1.916401E+0	2.038508E+0	1.972911E+0	1.945797E+0	1.977546E+0	1.902834E+0	1.964936E+0	1.931303E+0	1.888609E+0	1.980080E+0	1.927715E+0	2.000040E+0	1.911319E+0	1.948314E+0	1.984852E+0	1.907551E+0	1.926111E+0	1.889708E+0	2.011920E+0	1.912642E+0	1.903990E+0	1.955752E+0	1.929375E+0	1.977506E+0	1.966874E+0	1.943088E+0	1.960368E+0	1.948608E+0	1.920615E+0	1.927169E+0	1.939204E+0	1.901918E+0	1.915272E+0	1.921006E+0	1.990703E+0	1.893200E+0	1.920105E+0	1.859754E+0	1.979560E+0	1.807459E+0
5.355630E+2	1.909819E+0	1.954518E+0	1.928980E+0	1.875256E+0	1.865196E+0	1.901313E+0	1.878229E+0	1.892838E+0	1.848592E+0	1.826464E+0	1.820016E+0	1.869082E+0	1.917651E+0	1.862460E+0	1.888389E+0	1.803063E+0	1.917761E+0	1.846994E+0	1.895366E+0	1.840911E+0	1.866757E+0	1.889078E+0	1.855560E+0	1.891812E+0	1.914924E+0	1.855450E+0	1.850371E+0	1.829755E+0	1.944122E+0	1.838615E+0	1.831450E+0	1.843795E+0	1.934247E+0	1.946132E+0	1.877890E+0	1.798477E+0	1.867704E+0	1.898069E+0	1.863596E+0	1.869325E+0	1.827765E+0	1.978269E+0	1.860340E+0	1.855065E+0	1.873706E+0	1.841465E+0	1.830152E+0	1.834893E+0	1.822992E+0	1.937031E+0	1.838557E+0	1.809037E+0	1.821595E+0	1.889619E+0	1.933659E+0	1.799027E+0	1.838107E+0	1.845247E+0	1.811224E+0	1.905834E+0	1.847521E+0	1.818150E+0	1.882160E+0	1.860745E+0	1.828062E+0	1.849748E+0	1.849247E+0	1.776057E+0	1.839330E+0	1.882314E+0	1.873767E+0	1.885253E+0	1.816832E+0	1.817594E+0	1.844736E+0	1.755948E+0	1.868453E+0	1.795420E+0	1.847555E+0	1.867665E+0	1.926488E+0	1.882961E+0	1.850547E+0	1.870871E+0	1.852377E+0	1.851326E+0	1.850768E+0	1.793374E+0	1.831404E+0	1.797918E+0	1.771341E+0	1.806544E+0	1.909313E+0	1.820765E+0	1.870619E+0	1.765904E+0	1.833508E+0	1.792879E+0	1.881889E+0	1.891772E+0	1.822135E+0	1.849312E+0	1.854620E+0	1.856858E+0	1.755399E+0	1.904604E+0	1.807179E+0	1.815828E+0	1.820521E+0	1.813616E+0	1.769470E+0	1.818000E+0	1.845221E+0	1.851550E+0	1.896245E+0	1.774502E+0	1.798223E+0	1.861023E+0	1.788711E+0	1.848456E+0	1.844854E+0	1.874445E+0	1.847593E+0	1.867395E+0	1.795439E+0	1.783264E+0	1.804269E+0	1.889142E+0	1.878685E+0	1.870790E+0	1.832646E+0	1.813531E+0	1.780773E+0	1.887349E+0	1.824588E+0	1.819155E+0	1.842073E+0	1.824711E+0	1.761302E+0	1.767528E+0	1.790568E+0	1.839425E+0	1.799105E+0	1.756550E+0	1.896536E+0	1.789482E+0	1.780607E+0	1.816919E+0	1.781222E+0	1.785119E+0	1.831825E+0	1.846483E+0	1.862619E+0	1.812380E+0	1.830438E+0	1.825467E+0	1.822802E+0	1.685289E+0	1.775704E+0	1.699525E+0	1.856657E+0	1.759230E+0	1.875990E+0	1.795381E+0	1.857289E+0	1.826511E+0
5.357090E+2	1.648531E+0	1.657891E+0	1.755794E+0	1.684103E+0	1.657419E+0	1.675585E+0	1.713862E+0	1.594946E+0	1.702244E+0	1.677834E+0	1.657086E+0	1.675477E+0	1.712073E+0	1.711457E+0	1.763969E+0	1.683776E+0	1.741381E+0	1.651784E+0	1.632548E+0	1.654103E+0	1.681022E+0	1.630090E+0	1.760620E+0	1.629670E+0	1.680896E+0	1.653049E+0	1.696008E+0	1.656302E+0	1.717315E+0	1.672153E+0	1.684830E+0	1.652506E+0	1.688457E+0	1.672023E+0	1.675925E+0	1.678249E+0	1.647415E+0	1.662580E+0	1.693076E+0	1.637578E+0	1.645254E+0	1.696948E+0	1.647997E+0	1.689767E+0	1.671821E+0	1.698344E+0	1.626691E+0	1.585769E+0	1.672224E+0	1.687677E+0	1.680571E+0	1.633650E+0	1.614319E+0	1.733563E+0	1.704581E+0	1.661551E+0	1.654914E+0	1.683563E+0	1.654455E+0	1.649198E+0	1.676219E+0	1.649802E+0	1.605396E+0	1.655570E+0	1.676936E+0	1.679421E+0	1.637626E+0	1.644267E+0	1.686448E+0	1.636519E+0	1.686881E+0	1.659454E+0	1.619186E+0	1.628784E+0	1.670417E+0	1.622502E+0	1.590103E+0	1.554674E+0	1.688295E+0	1.659976E+0	1.695756E+0	1.646410E+0	1.602632E+0	1.606250E+0	1.643218E+0	1.729109E+0	1.656265E+0	1.628719E+0	1.630555E+0	1.608238E+0	1.623594E+0	1.619632E+0	1.607812E+0	1.584056E+0	1.614266E+0	1.582546E+0	1.661079E+0	1.604491E+0	1.651048E+0	1.664464E+0	1.594531E+0	1.666687E+0	1.657514E+0	1.646429E+0	1.599981E+0	1.669452E+0	1.671104E+0	1.720694E+0	1.648776E+0	1.623383E+0	1.634107E+0	1.645506E+0	1.629576E+0	1.623982E+0	1.592083E+0	1.661548E+0	1.651049E+0	1.675201E+0	1.632549E+0	1.614342E+0	1.640538E+0	1.679116E+0	1.557662E+0	1.697984E+0	1.636830E+0	1.688429E+0	1.684846E+0	1.623791E+0	1.721355E+0	1.666612E+0	1.648350E+0	1.561332E+0	1.613003E+0	1.704310E+0	1.681197E+0	1.654774E+0	1.581376E+0	1.658263E+0	1.659593E+0	1.653222E+0	1.703901E+0	1.628103E+0	1.629942E+0	1.572290E+0	1.635577E+0	1.614603E+0	1.621556E+0	1.646627E+0	1.575581E+0	1.594405E+0	1.715975E+0	1.599827E+0	1.623805E+0	1.663415E+0	1.686017E+0	1.671736E+0	1.623940E+0	1.614044E+0	1.622298E+0	1.524784E+0	1.682595E+0	1.622034E+0	1.668106E+0	1.666600E+0	1.665484E+0	1.722592E+0
5.358550E+2	1.505652E+0	1.475898E+0	1.430981E+0	1.452898E+0	1.426560E+0	1.453371E+0	1.515779E+0	1.409931E+0	1.472149E+0	1.414705E+0	1.478243E+0	1.484120E+0	1.511246E+0	1.435514E+0	1.476029E+0	1.413379E+0	1.484263E+0	1.462389E+0	1.447361E+0	1.406019E+0	1.414083E+0	1.439428E+0	1.522948E+0	1.423148E+0	1.506124E+0	1.466278E+0	1.478089E+0	1.440789E+0	1.483131E+0	1.461553E+0	1.468029E+0	1.459125E+0	1.542461E+0	1.448240E+0	1.530858E+0	1.408199E+0	1.457313E+0	1.500522E+0	1.493219E+0	1.441925E+0	1.453971E+0	1.463036E+0	1.452761E+0	1.468016E+0	1.483130E+0	1.472261E+0	1.475534E+0	1.455459E+0	1.511334E+0	1.480565E+0	1.446166E+0	1.498882E+0	1.459662E+0	1.494218E+0	1.488970E+0	1.411060E+0	1.509473E+0	1.445413E+0	1.442761E+0	1.466890E+0	1.450025E+0	1.442063E+0	1.470882E+0	1.507491E+0	1.505421E+0	1.470079E+0	1.471834E+0	1.431080E+0	1.482003E+0	1.438591E+0	1.484966E+0	1.482028E+0	1.473620E+0	1.408773E+0	1.472772E+0	1.398593E+0	1.507595E+0	1.418635E+0	1.518338E+0	1.445375E+0	1.480116E+0	1.494462E+0	1.441935E+0	1.408350E+0	1.469144E+0	1.455203E+0	1.478517E+0	1.474469E+0	1.420615E+0	1.446407E+0	1.423829E+0	1.482762E+0	1.411754E+0	1.408350E+0	1.477126E+0	1.466244E+0	1.440022E+0	1.444726E+0	1.485833E+0	1.471788E+0	1.396699E+0	1.483942E+0	1.477246E+0	1.440943E+0	1.451931E+0	1.474064E+0	1.501755E+0	1.426934E+0	1.444929E+0	1.475943E+0	1.452191E+0	1.444847E+0	1.460270E+0	1.481933E+0	1.443875E+0	1.514434E+0	1.463251E+0	1.425371E+0	1.457894E+0	1.525240E+0	1.410714E+0	1.493094E+0	1.494789E+0	1.460662E+0	1.453295E+0	1.436776E+0	1.427763E+0	1.480578E+0	1.472418E+0	1.476618E+0	1.458238E+0	1.374768E+0	1.466416E+0	1.478032E+0	1.439143E+0	1.481015E+0	1.418982E+0	1.444855E+0	1.472598E+0	1.474938E+0	1.432732E+0	1.443213E+0	1.452221E+0	1.455831E+0	1.508070E+0	1.436010E+0	1.483254E+0	1.450025E+0	1.424436E+0	1.460387E+0	1.567282E+0	1.464325E+0	1.488346E+0	1.414932E+0	1.526772E+0	1.440052E+0	1.483027E+0	1.399948E+0	1.464031E+0	1.425849E+0	1.467327E+0	1.443367E+0	1.436126E+0	1.383949E+0	1.363256E+0	1.329686E+0
5.360170E+2	1.207447E+0	1.229301E+0	1.205181E+0	1.251068E+0	1.184097E+0	1.283080E+0	1.234916E+0	1.222182E+0	1.171996E+0	1.179210E+0	1.195880E+0	1.196570E+0	1.228637E+0	1.247213E+0	1.205557E+0	1.212837E+0	1.221821E+0	1.232246E+0	1.152481E+0	1.214980E+0	1.219103E+0	1.249302E+0	1.196621E+0	1.232037E+0	1.304711E+0	1.217252E+0	1.234655E+0	1.201907E+0	1.258757E+0	1.209901E+0	1.158474E+0	1.207774E+0	1.288339E+0	1.258072E+0	1.226754E+0	1.179783E+0	1.202338E+0	1.207376E+0	1.254278E+0	1.198387E+0	1.186063E+0	1.218868E+0	1.239994E+0	1.182069E+0	1.205478E+0	1.174915E+0	1.222709E+0	1.176510E+0	1.252221E+0	1.230754E+0	1.188765E+0	1.283149E+0	1.232343E+0	1.208574E+0	1.199156E+0	1.192200E+0	1.190227E+0	1.168562E+0	1.185106E+0	1.218900E+0	1.183818E+0	1.153948E+0	1.209342E+0	1.231882E+0	1.222538E+0	1.261553E+0	1.179301E+0	1.222105E+0	1.221819E+0	1.262429E+0	1.258835E+0	1.217599E+0	1.194043E+0	1.139975E+0	1.258057E+0	1.178363E+0	1.159555E+0	1.171589E+0	1.170723E+0	1.236496E+0	1.288647E+0	1.208144E+0	1.252894E+0	1.163732E+0	1.228679E+0	1.222185E+0	1.273298E+0	1.262242E+0	1.223189E+0	1.225142E+0	1.238955E+0	1.147833E+0	1.224662E+0	1.215296E+0	1.198927E+0	1.224916E+0	1.305597E+0	1.201401E+0	1.219439E+0	1.221858E+0	1.245432E+0	1.292988E+0	1.219654E+0	1.222383E+0	1.234503E+0	1.311096E+0	1.261253E+0	1.224754E+0	1.247916E+0	1.197919E+0	1.178245E+0	1.194770E+0	1.214906E+0	1.254300E+0	1.220856E+0	1.273288E+0	1.227202E+0	1.178651E+0	1.260169E+0	1.205909E+0	1.195535E+0	1.223147E+0	1.222095E+0	1.210521E+0	1.236273E+0	1.222727E+0	1.224266E+0	1.269119E+0	1.276862E+0	1.177627E+0	1.173496E+0	1.240796E+0	1.231535E+0	1.241461E+0	1.207097E+0	1.243242E+0	1.149059E+0	1.219845E+0	1.200878E+0	1.224916E+0	1.225786E+0	1.206959E+0	1.215082E+0	1.150293E+0	1.218498E+0	1.158822E+0	1.237802E+0	1.251885E+0	1.204438E+0	1.230348E+0	1.204564E+0	1.259910E+0	1.213827E+0	1.218124E+0	1.263826E+0	1.195721E+0	1.186057E+0	1.190108E+0	1.128994E+0	1.218754E+0	1.283719E+0	1.254797E+0	1.245658E+0	1.178944E+0	1.183328E+0	1.144872E+0
5.362580E+2	9.212613E-1	9.556222E-1	9.224602E-1	9.009181E-1	9.164530E-1	9.664925E-1	9.587696E-1	9.657679E-1	8.912542E-1	9.114609E-1	9.076881E-1	9.256790E-1	8.747279E-1	8.977432E-1	9.126486E-1	9.381688E-1	9.352230E-1	9.549597E-1	9.585191E-1	9.081945E-1	9.033640E-1	9.076519E-1	9.091721E-1	9.489526E-1	9.383570E-1	9.508964E-1	9.213651E-1	8.634117E-1	9.663613E-1	9.044769E-1	8.967581E-1	8.722233E-1	9.698875E-1	9.093699E-1	8.959048E-1	9.128093E-1	9.053776E-1	9.003621E-1	8.827558E-1	9.289587E-1	8.840423E-1	9.342220E-1	9.077385E-1	9.068074E-1	9.585047E-1	9.001946E-1	9.246267E-1	8.929634E-1	9.351379E-1	9.338095E-1	9.333950E-1	9.106584E-1	9.034022E-1	9.066479E-1	8.950657E-1	9.154800E-1	9.329755E-1	8.848124E-1	9.315535E-1	9.064978E-1	9.047192E-1	8.721392E-1	9.068635E-1	9.343851E-1	9.056077E-1	9.851467E-1	9.445116E-1	9.137900E-1	9.122315E-1	9.435664E-1	8.927234E-1	9.182344E-1	9.235278E-1	8.879287E-1	9.093743E-1	8.866427E-1	9.336993E-1	8.686456E-1	9.126679E-1	9.410872E-1	9.627716E-1	9.629672E-1	8.827094E-1	8.820617E-1	9.555931E-1	9.326622E-1	9.527147E-1	9.281217E-1	9.474111E-1	9.335720E-1	8.987383E-1	9.142192E-1	9.380697E-1	8.922298E-1	9.436729E-1	8.786157E-1	9.373736E-1	8.870551E-1	9.805772E-1	9.073050E-1	9.163094E-1	9.198100E-1	9.751070E-1	9.432915E-1	8.983093E-1	9.286572E-1	8.946419E-1	9.334347E-1	9.276004E-1	9.072311E-1	9.220979E-1	9.293756E-1	8.850984E-1	8.956511E-1	9.422452E-1	9.442505E-1	9.429457E-1	9.167122E-1	9.259690E-1	9.729404E-1	9.311012E-1	8.895074E-1	9.245482E-1	9.018635E-1	9.076173E-1	8.934103E-1	9.201482E-1	9.470498E-1	9.351914E-1	9.201472E-1	9.259052E-1	9.061836E-1	9.049695E-1	8.762760E-1	9.248648E-1	9.231378E-1	9.232689E-1	9.338788E-1	8.781198E-1	9.125849E-1	9.674282E-1	9.646148E-1	9.055260E-1	9.562804E-1	9.211441E-1	9.214746E-1	8.942563E-1	9.082442E-1	9.186555E-1	9.701734E-1	9.564480E-1	9.215772E-1	8.662332E-1	9.319625E-1	9.009357E-1	9.328115E-1	9.523311E-1	8.716973E-1	9.337541E-1	9.074397E-1	9.339284E-1	9.163923E-1	9.759224E-1	8.814338E-1	9.220033E-1	9.340705E-1
5.365090E+2	6.778136E-1	7.132959E-1	7.109559E-1	7.104576E-1	6.823483E-1	7.107508E-1	7.288145E-1	6.911796E-1	6.778881E-1	7.059264E-1	6.888958E-1	7.232517E-1	6.738986E-1	6.978651E-1	6.901449E-1	6.828816E-1	7.077651E-1	6.864367E-1	7.160470E-1	6.496325E-1	6.819251E-1	7.618162E-1	7.009692E-1	6.894757E-1	7.012963E-1	7.599475E-1	7.020197E-1	6.687769E-1	7.636321E-1	7.230826E-1	6.972425E-1	6.892145E-1	7.472530E-1	7.458725E-1	7.270623E-1	6.933885E-1	7.432591E-1	6.689576E-1	7.488001E-1	6.902185E-1	6.803204E-1	6.754787E-1	6.948949E-1	7.161016E-1	7.032077E-1	7.051054E-1	6.666924E-1	6.840110E-1	7.387815E-1	6.718189E-1	7.476414E-1	7.328902E-1	7.260869E-1	7.609759E-1	7.128783E-1	7.013949E-1	7.221691E-1	7.102411E-1	7.117451E-1	7.182540E-1	7.357824E-1	6.672359E-1	7.153237E-1	7.012589E-1	6.718768E-1	6.919927E-1	7.215396E-1	6.956653E-1	7.131240E-1	7.129613E-1	7.543455E-1	7.062172E-1	6.879018E-1	7.199310E-1	6.829892E-1	7.073372E-1	6.867315E-1	6.766822E-1	7.570458E-1	6.976379E-1	7.221869E-1	6.990986E-1	6.968126E-1	6.999473E-1	7.111007E-1	7.356242E-1	7.116322E-1	6.971750E-1	7.361898E-1	7.167432E-1	7.133728E-1	6.803664E-1	7.277171E-1	7.262968E-1	7.389270E-1	6.616743E-1	7.057251E-1	6.753603E-1	7.281729E-1	7.151110E-1	7.193665E-1	6.899954E-1	7.103768E-1	7.107456E-1	6.788602E-1	7.463178E-1	7.319524E-1	7.092546E-1	7.415848E-1	7.489983E-1	6.877228E-1	7.453055E-1	7.185955E-1	6.576413E-1	7.114956E-1	7.366884E-1	6.797192E-1	7.144542E-1	7.039474E-1	7.072994E-1	7.103350E-1	7.389041E-1	6.766301E-1	7.256137E-1	7.050474E-1	7.186194E-1	7.335380E-1	7.417920E-1	7.617394E-1	7.467392E-1	7.223386E-1	7.100038E-1	6.914446E-1	7.575791E-1	7.341995E-1	7.469112E-1	6.980796E-1	7.071193E-1	7.353590E-1	7.518990E-1	7.078851E-1	6.819661E-1	7.308499E-1	6.999455E-1	7.594624E-1	7.407460E-1	7.599501E-1	7.090792E-1	7.217947E-1	7.248356E-1	7.413020E-1	7.086500E-1	7.359479E-1	7.591470E-1	7.324247E-1	7.299486E-1	7.283369E-1	6.910011E-1	6.963388E-1	7.185871E-1	7.604119E-1	7.067945E-1	7.288869E-1	7.149253E-1	6.796745E-1	6.480929E-1
5.367600E+2	5.977393E-1	5.475736E-1	5.815545E-1	5.583554E-1	5.356284E-1	5.473323E-1	5.985701E-1	5.747483E-1	5.830112E-1	6.040910E-1	5.893246E-1	5.844001E-1	5.719632E-1	5.650597E-1	5.665301E-1	5.571875E-1	5.464064E-1	5.675326E-1	5.648697E-1	5.784280E-1	5.542322E-1	5.957365E-1	5.955965E-1	5.606073E-1	5.931379E-1	5.889923E-1	6.007799E-1	5.854285E-1	5.920792E-1	5.964924E-1	5.714345E-1	5.718691E-1	6.097274E-1	5.716139E-1	5.815928E-1	5.411886E-1	5.927581E-1	5.858150E-1	5.693466E-1	5.692476E-1	6.055573E-1	5.776048E-1	5.593808E-1	5.492853E-1	5.677951E-1	5.703888E-1	6.145690E-1	6.004405E-1	5.667840E-1	6.163700E-1	5.499830E-1	5.849334E-1	5.711756E-1	5.803259E-1	6.111953E-1	6.073678E-1	6.235608E-1	5.779193E-1	5.594477E-1	5.622003E-1	5.639173E-1	5.780907E-1	5.851701E-1	5.750830E-1	6.180825E-1	5.880110E-1	5.571425E-1	5.784763E-1	5.829458E-1	5.917517E-1	6.027885E-1	5.966486E-1	5.800696E-1	5.906684E-1	5.871904E-1	5.702825E-1	5.784704E-1	5.516785E-1	6.139423E-1	5.827888E-1	6.017944E-1	5.735002E-1	6.021510E-1	5.821546E-1	5.966448E-1	5.834648E-1	5.943423E-1	6.045312E-1	5.464068E-1	5.750816E-1	6.186727E-1	5.958651E-1	5.721405E-1	5.922362E-1	5.541435E-1	5.715220E-1	5.815448E-1	6.094844E-1	5.878222E-1	5.921951E-1	5.898430E-1	5.516821E-1	5.739336E-1	5.759584E-1	5.537203E-1	6.169002E-1	5.693935E-1	5.634406E-1	5.563702E-1	5.937830E-1	5.734442E-1	5.565578E-1	6.402468E-1	5.907031E-1	5.560851E-1	6.063125E-1	6.251220E-1	6.192951E-1	6.258306E-1	5.733311E-1	5.783354E-1	5.968289E-1	5.939016E-1	5.920785E-1	5.960948E-1	5.756139E-1	6.161586E-1	6.346470E-1	5.893143E-1	6.363616E-1	5.591419E-1	5.813648E-1	5.655579E-1	6.293652E-1	6.224017E-1	5.711370E-1	5.616169E-1	5.886875E-1	5.570742E-1	5.827209E-1	6.062975E-1	5.817538E-1	5.985802E-1	5.868223E-1	5.716965E-1	5.384407E-1	6.076170E-1	5.599678E-1	5.837075E-1	5.735613E-1	6.048562E-1	5.762785E-1	6.021159E-1	6.406684E-1	5.971534E-1	6.286926E-1	5.597101E-1	5.717668E-1	6.005884E-1	5.901577E-1	6.169476E-1	5.892624E-1	5.888010E-1	5.274955E-1	5.644408E-1	6.291591E-1
5.370280E+2	5.100140E-1	4.988924E-1	4.964520E-1	4.935584E-1	5.251383E-1	5.037678E-1	5.060500E-1	4.960517E-1	4.834117E-1	5.212320E-1	5.140282E-1	4.858493E-1	5.113949E-1	5.085147E-1	5.033853E-1	4.928809E-1	5.043264E-1	4.958503E-1	5.133809E-1	4.858334E-1	4.618914E-1	4.782879E-1	4.760836E-1	4.858782E-1	5.085820E-1	5.143255E-1	5.296902E-1	5.172270E-1	5.292275E-1	4.898135E-1	4.689896E-1	5.451276E-1	5.114504E-1	5.086555E-1	5.185974E-1	5.024739E-1	5.041907E-1	5.270641E-1	5.004597E-1	5.196693E-1	4.843307E-1	5.457951E-1	4.965829E-1	5.181402E-1	5.150570E-1	5.139129E-1	4.884266E-1	4.841284E-1	4.940540E-1	4.997242E-1	5.006674E-1	5.036416E-1	5.130457E-1	5.001484E-1	5.158763E-1	5.401727E-1	5.283099E-1	4.968446E-1	5.199843E-1	5.039198E-1	5.460660E-1	5.308678E-1	5.217735E-1	5.156439E-1	5.123499E-1	5.265962E-1	5.083482E-1	4.791955E-1	5.064902E-1	5.398540E-1	5.203405E-1	5.256266E-1	5.002664E-1	5.140400E-1	5.165990E-1	5.062927E-1	4.981820E-1	5.434255E-1	5.039899E-1	4.974731E-1	5.342471E-1	4.976497E-1	5.220667E-1	5.098858E-1	5.085379E-1	5.141809E-1	5.314178E-1	5.232603E-1	5.016146E-1	5.038237E-1	5.184241E-1	4.784797E-1	5.015526E-1	4.889198E-1	5.004080E-1	5.292154E-1	5.097692E-1	5.092941E-1	5.287736E-1	5.360529E-1	5.098761E-1	4.987447E-1	5.441821E-1	5.116217E-1	5.155863E-1	5.274784E-1	5.260515E-1	5.158910E-1	5.512199E-1	5.148653E-1	5.103789E-1	5.508974E-1	5.054446E-1	5.264212E-1	4.883612E-1	4.915428E-1	4.995136E-1	5.168823E-1	4.847087E-1	4.908588E-1	5.078093E-1	5.284119E-1	5.291247E-1	5.219490E-1	5.312283E-1	5.222896E-1	5.198041E-1	5.603053E-1	5.210247E-1	5.197918E-1	5.328799E-1	4.989508E-1	4.757461E-1	5.260917E-1	5.036300E-1	5.172156E-1	5.423598E-1	4.925050E-1	4.979652E-1	4.980895E-1	5.321096E-1	5.098636E-1	5.005584E-1	5.007922E-1	5.410293E-1	5.098215E-1	5.241869E-1	5.129927E-1	4.974099E-1	5.363152E-1	4.988077E-1	4.997953E-1	4.847938E-1	5.815677E-1	5.044784E-1	5.604923E-1	4.972544E-1	4.971621E-1	5.256315E-1	4.927545E-1	5.605320E-1	5.374610E-1	5.126578E-1	4.955715E-1	4.991112E-1	5.606507E-1
5.372640E+2	5.250070E-1	5.077469E-1	5.211915E-1	5.022514E-1	4.626939E-1	5.021370E-1	5.104113E-1	4.956957E-1	4.858977E-1	5.374911E-1	4.954977E-1	5.322724E-1	5.138017E-1	4.909985E-1	5.091239E-1	4.837263E-1	5.101691E-1	4.739308E-1	5.116168E-1	5.049140E-1	4.896898E-1	5.047913E-1	4.652377E-1	5.162083E-1	4.845839E-1	4.962401E-1	5.152689E-1	4.944978E-1	5.053662E-1	5.163311E-1	5.187773E-1	5.237384E-1	5.185741E-1	5.424161E-1	4.859336E-1	5.095220E-1	4.981529E-1	5.053765E-1	4.846704E-1	4.966826E-1	4.670148E-1	5.330226E-1	5.078162E-1	4.919300E-1	5.030479E-1	4.782409E-1	4.840490E-1	4.902594E-1	5.328242E-1	5.258456E-1	5.144310E-1	5.097665E-1	4.995160E-1	5.063069E-1	4.902323E-1	5.179556E-1	5.038378E-1	5.199336E-1	4.881661E-1	5.083201E-1	5.004980E-1	4.750123E-1	4.846709E-1	4.910568E-1	4.795515E-1	5.172109E-1	5.225807E-1	5.178693E-1	5.060998E-1	4.743878E-1	5.073501E-1	5.482297E-1	4.960243E-1	4.709372E-1	5.146091E-1	5.388162E-1	5.007227E-1	4.957436E-1	5.095436E-1	5.215976E-1	5.094450E-1	5.186500E-1	4.835537E-1	5.155308E-1	5.123007E-1	5.293765E-1	4.948427E-1	4.988446E-1	5.485002E-1	5.061327E-1	4.960774E-1	4.863291E-1	4.987506E-1	4.910319E-1	4.920753E-1	4.996511E-1	5.591763E-1	4.914218E-1	4.966037E-1	5.069925E-1	4.988809E-1	4.951639E-1	5.201684E-1	5.042392E-1	5.221233E-1	5.124854E-1	5.136162E-1	5.008823E-1	5.070700E-1	4.782258E-1	5.206941E-1	5.200858E-1	5.015693E-1	4.948277E-1	5.029878E-1	5.235474E-1	5.014491E-1	5.101730E-1	5.279508E-1	5.263762E-1	5.091457E-1	5.187341E-1	5.150150E-1	5.168119E-1	5.265793E-1	5.325844E-1	5.416822E-1	5.207424E-1	5.143836E-1	5.320089E-1	4.961072E-1	5.288319E-1	4.760178E-1	5.354853E-1	5.433185E-1	5.173529E-1	5.041417E-1	4.922756E-1	4.977808E-1	4.885522E-1	5.113175E-1	4.978516E-1	5.160782E-1	5.084001E-1	5.286474E-1	4.901453E-1	5.203164E-1	5.057086E-1	5.052165E-1	5.115207E-1	5.264223E-1	5.106703E-1	5.078016E-1	5.195933E-1	5.330935E-1	5.415827E-1	5.392783E-1	5.314457E-1	5.005631E-1	4.771152E-1	5.344951E-1	4.994882E-1	4.955481E-1	4.986419E-1	5.805112E-1	5.486701E-1
5.375060E+2	5.157169E-1	4.960225E-1	5.310733E-1	5.303465E-1	4.915049E-1	4.976525E-1	5.660859E-1	5.337676E-1	5.145266E-1	4.931982E-1	5.479455E-1	5.030390E-1	4.865230E-1	5.135738E-1	5.168670E-1	4.988336E-1	5.189625E-1	4.891662E-1	5.512805E-1	5.239302E-1	5.221982E-1	5.107206E-1	5.452542E-1	5.051650E-1	5.556704E-1	4.927561E-1	5.377082E-1	4.979786E-1	5.350991E-1	5.266264E-1	5.459815E-1	5.423969E-1	5.466167E-1	5.121887E-1	5.021586E-1	4.936111E-1	4.982861E-1	5.382844E-1	5.378661E-1	5.329289E-1	5.054206E-1	5.479242E-1	5.268914E-1	5.410707E-1	5.387782E-1	5.540703E-1	5.218151E-1	4.961439E-1	5.323754E-1	5.214767E-1	5.287965E-1	5.374790E-1	5.410244E-1	5.342290E-1	5.302709E-1	5.557927E-1	5.262118E-1	5.402650E-1	5.003622E-1	5.294881E-1	5.170415E-1	4.980906E-1	5.118107E-1	5.301739E-1	4.823976E-1	5.187708E-1	5.092973E-1	5.427167E-1	5.155500E-1	5.130388E-1	5.477547E-1	5.345944E-1	5.333816E-1	4.948172E-1	5.556166E-1	5.453570E-1	5.245480E-1	5.207705E-1	5.175383E-1	5.294175E-1	5.598118E-1	5.384717E-1	5.211707E-1	5.249066E-1	5.206263E-1	5.249998E-1	5.222073E-1	4.861535E-1	5.164855E-1	5.164899E-1	5.597006E-1	5.373980E-1	5.520924E-1	5.076714E-1	5.104536E-1	4.829426E-1	5.445457E-1	5.197022E-1	5.572836E-1	5.317331E-1	5.375798E-1	5.503895E-1	5.235902E-1	5.417202E-1	5.031369E-1	6.070243E-1	5.427392E-1	5.205500E-1	5.254160E-1	5.180911E-1	5.325256E-1	5.338853E-1	5.307923E-1	5.292421E-1	5.456640E-1	5.440741E-1	5.285203E-1	5.534848E-1	5.220756E-1	5.142946E-1	5.250043E-1	5.344014E-1	5.281501E-1	5.779556E-1	5.509464E-1	5.136947E-1	5.070241E-1	5.518511E-1	5.325306E-1	5.472864E-1	5.233550E-1	5.595220E-1	4.922121E-1	5.166406E-1	5.313595E-1	5.252847E-1	5.190909E-1	5.305487E-1	5.361736E-1	5.277515E-1	5.266530E-1	5.402701E-1	5.757792E-1	5.405844E-1	5.323278E-1	5.489211E-1	5.281497E-1	5.130706E-1	5.645619E-1	5.097936E-1	5.208813E-1	5.327892E-1	5.412216E-1	5.298774E-1	5.527800E-1	5.247054E-1	5.534269E-1	5.154681E-1	5.312687E-1	5.233162E-1	5.990844E-1	5.049988E-1	5.298559E-1	5.638366E-1	5.459631E-1	5.561368E-1
5.377630E+2	5.757970E-1	6.206774E-1	6.288627E-1	5.897604E-1	5.905704E-1	6.019921E-1	5.777197E-1	6.095621E-1	5.773961E-1	5.517109E-1	6.079911E-1	5.916112E-1	6.126989E-1	6.102970E-1	5.703925E-1	5.479288E-1	6.037420E-1	5.989862E-1	5.402872E-1	5.885982E-1	6.137968E-1	5.991730E-1	6.354495E-1	5.912372E-1	5.980590E-1	6.046904E-1	6.346668E-1	5.853588E-1	6.278937E-1	6.155511E-1	5.753733E-1	6.081537E-1	6.525198E-1	6.029337E-1	6.090401E-1	5.920166E-1	5.777798E-1	5.587180E-1	6.454061E-1	6.000549E-1	5.966319E-1	5.900218E-1	6.527178E-1	5.973401E-1	6.303356E-1	5.422798E-1	6.157495E-1	5.977086E-1	5.873766E-1	6.133764E-1	6.132705E-1	6.150256E-1	6.060435E-1	5.972499E-1	5.639380E-1	6.191589E-1	5.908940E-1	5.938044E-1	5.839112E-1	6.151170E-1	6.147248E-1	5.982702E-1	5.902836E-1	5.975921E-1	6.151514E-1	6.188223E-1	6.007288E-1	5.928283E-1	5.692756E-1	6.005912E-1	6.050132E-1	6.039887E-1	5.786323E-1	6.194555E-1	6.297382E-1	5.720762E-1	5.951297E-1	5.835912E-1	6.185217E-1	5.795864E-1	6.126127E-1	5.805029E-1	5.985891E-1	5.821043E-1	6.285761E-1	5.960131E-1	5.844087E-1	5.732757E-1	5.701356E-1	6.458415E-1	5.988637E-1	5.994817E-1	5.971866E-1	5.909568E-1	5.726397E-1	5.705080E-1	6.173540E-1	5.775891E-1	5.953718E-1	6.190817E-1	6.223854E-1	6.317760E-1	5.904825E-1	6.165288E-1	6.206126E-1	5.947868E-1	6.320837E-1	6.411350E-1	5.884791E-1	6.005125E-1	5.895995E-1	5.911986E-1	6.035433E-1	6.233694E-1	5.930853E-1	6.068267E-1	5.945215E-1	6.417457E-1	5.786817E-1	6.196438E-1	6.000847E-1	6.250925E-1	6.098622E-1	5.933637E-1	6.055416E-1	5.966028E-1	6.136211E-1	6.210458E-1	5.864373E-1	5.649290E-1	6.061818E-1	5.894226E-1	5.787317E-1	6.135567E-1	6.352405E-1	6.065527E-1	6.114699E-1	5.562908E-1	5.850423E-1	6.452973E-1	6.325233E-1	5.768495E-1	5.896648E-1	5.950202E-1	6.148649E-1	5.898959E-1	6.127401E-1	5.878569E-1	6.174176E-1	6.501682E-1	6.314284E-1	6.291623E-1	6.187751E-1	5.901821E-1	5.916884E-1	6.323742E-1	6.383225E-1	5.938313E-1	5.934011E-1	6.008588E-1	6.025670E-1	5.951443E-1	6.283047E-1	5.917098E-1	6.429969E-1	6.160966E-1
5.380110E+2	6.811829E-1	7.105298E-1	7.183942E-1	6.937002E-1	6.990461E-1	6.817557E-1	7.167723E-1	6.759224E-1	6.894825E-1	6.606080E-1	6.650524E-1	6.975200E-1	7.133751E-1	6.755408E-1	6.692892E-1	7.208653E-1	6.431789E-1	6.669028E-1	6.802317E-1	6.544363E-1	6.649675E-1	7.159307E-1	7.035250E-1	7.210592E-1	7.244878E-1	6.609983E-1	6.718293E-1	6.366654E-1	7.052214E-1	6.812950E-1	6.995244E-1	6.468418E-1	7.147546E-1	6.939731E-1	6.842044E-1	6.818309E-1	7.181890E-1	6.656784E-1	7.089870E-1	6.578232E-1	7.003644E-1	7.045276E-1	6.976020E-1	7.026734E-1	6.778507E-1	6.864448E-1	6.720217E-1	6.978082E-1	6.909918E-1	7.169210E-1	6.769609E-1	7.120669E-1	6.696419E-1	6.827636E-1	6.743719E-1	6.580697E-1	6.444563E-1	7.278371E-1	7.027409E-1	7.335725E-1	6.879744E-1	6.423191E-1	6.943392E-1	6.859594E-1	6.738163E-1	6.954460E-1	7.147542E-1	6.711380E-1	7.017129E-1	6.995925E-1	6.692308E-1	7.261855E-1	6.802568E-1	6.843996E-1	6.887125E-1	6.880924E-1	6.583945E-1	6.607196E-1	7.154227E-1	7.040166E-1	6.656295E-1	7.128825E-1	6.613937E-1	6.537695E-1	6.828053E-1	7.096391E-1	7.282606E-1	7.335201E-1	6.740432E-1	7.404850E-1	6.722433E-1	7.159640E-1	6.994098E-1	6.837210E-1	6.906734E-1	6.585146E-1	7.140591E-1	6.869466E-1	7.075287E-1	7.061354E-1	7.072852E-1	6.693724E-1	7.182788E-1	6.934502E-1	6.931408E-1	7.171655E-1	6.829628E-1	7.257121E-1	6.933084E-1	7.055686E-1	7.068556E-1	7.093552E-1	7.204385E-1	6.828291E-1	7.113437E-1	6.814452E-1	6.974852E-1	6.999353E-1	7.105182E-1	7.421562E-1	6.756328E-1	7.017473E-1	7.106335E-1	7.009353E-1	6.997008E-1	7.001672E-1	6.976324E-1	7.161853E-1	7.254734E-1	7.311326E-1	6.528188E-1	6.837039E-1	6.982887E-1	6.834247E-1	6.673298E-1	6.911245E-1	7.101482E-1	7.003995E-1	6.863951E-1	6.972549E-1	6.837560E-1	6.820568E-1	7.054043E-1	6.867876E-1	7.481018E-1	6.666447E-1	7.100044E-1	6.769782E-1	6.853624E-1	7.208533E-1	7.315813E-1	7.199173E-1	7.019040E-1	7.070826E-1	7.256207E-1	7.323245E-1	7.204015E-1	6.663956E-1	7.127232E-1	6.999056E-1	7.206490E-1	7.119251E-1	7.289916E-1	6.829420E-1	7.098938E-1	6.489523E-1
5.382900E+2	8.175756E-1	7.966933E-1	8.370469E-1	8.414440E-1	8.190042E-1	8.056819E-1	8.824016E-1	7.980055E-1	7.842249E-1	8.541583E-1	8.077134E-1	8.546968E-1	8.354351E-1	8.016082E-1	8.062074E-1	7.767931E-1	8.455958E-1	8.500037E-1	8.165433E-1	7.944904E-1	8.243051E-1	7.886746E-1	8.144496E-1	8.374139E-1	8.415993E-1	8.257520E-1	8.405606E-1	8.077285E-1	8.350459E-1	7.952412E-1	8.449658E-1	8.112961E-1	8.786769E-1	8.450877E-1	8.542427E-1	8.386578E-1	8.215356E-1	7.970161E-1	8.760222E-1	8.083492E-1	8.424944E-1	8.265157E-1	8.534171E-1	8.301467E-1	7.988200E-1	7.651372E-1	8.308435E-1	8.087817E-1	8.389463E-1	8.533827E-1	8.626363E-1	8.630969E-1	8.356721E-1	8.572171E-1	8.603114E-1	8.753984E-1	8.425726E-1	8.233954E-1	8.112676E-1	8.441796E-1	8.418294E-1	7.988418E-1	8.223139E-1	7.947930E-1	8.178178E-1	8.176536E-1	8.459635E-1	8.673773E-1	7.995015E-1	8.824067E-1	8.343306E-1	8.192782E-1	8.224032E-1	7.908971E-1	8.195193E-1	8.599293E-1	8.557679E-1	7.822803E-1	8.536122E-1	8.357731E-1	8.426096E-1	8.214039E-1	8.547323E-1	7.813908E-1	8.711857E-1	8.057123E-1	8.492497E-1	8.466548E-1	7.925923E-1	8.710435E-1	8.393924E-1	8.376277E-1	8.069001E-1	7.935032E-1	8.209438E-1	8.497606E-1	8.659174E-1	8.414167E-1	8.380440E-1	8.084419E-1	8.047501E-1	8.230851E-1	8.909546E-1	8.155512E-1	8.420754E-1	8.474083E-1	8.686584E-1	7.991192E-1	8.719813E-1	7.571189E-1	8.264495E-1	8.753040E-1	8.101040E-1	8.370828E-1	8.117201E-1	8.500382E-1	8.514843E-1	9.096490E-1	8.622762E-1	8.122258E-1	8.257104E-1	8.605558E-1	8.084265E-1	8.401511E-1	8.201224E-1	8.038859E-1	8.008409E-1	8.266936E-1	8.416865E-1	8.757282E-1	8.037994E-1	8.309574E-1	8.548802E-1	8.729910E-1	8.529656E-1	8.834061E-1	8.439196E-1	8.223182E-1	9.113239E-1	8.628589E-1	8.416326E-1	8.467001E-1	8.366007E-1	8.028007E-1	8.298682E-1	8.284783E-1	8.584815E-1	8.045849E-1	8.276876E-1	8.676113E-1	8.737883E-1	8.338418E-1	8.150888E-1	8.417823E-1	8.431214E-1	8.587751E-1	8.457935E-1	8.084346E-1	8.019006E-1	7.993225E-1	8.340472E-1	8.541076E-1	8.410812E-1	8.454238E-1	8.175921E-1	8.572969E-1
5.385060E+2	1.017629E+0	9.586283E-1	1.049716E+0	9.691884E-1	9.709780E-1	1.019913E+0	1.030758E+0	9.917153E-1	1.005323E+0	9.795577E-1	1.032417E+0	9.922468E-1	1.025507E+0	1.003122E+0	9.680922E-1	1.015328E+0	9.640242E-1	1.002261E+0	1.030942E+0	9.834178E-1	9.940852E-1	1.026114E+0	9.937951E-1	1.009671E+0	1.031571E+0	9.905703E-1	1.037357E+0	9.830260E-1	1.002581E+0	9.786445E-1	1.009797E+0	1.001123E+0	1.073974E+0	1.033047E+0	1.032588E+0	9.834008E-1	1.025802E+0	1.015761E+0	1.032618E+0	1.007090E+0	1.044352E+0	1.029743E+0	1.040593E+0	1.025428E+0	9.819477E-1	9.811144E-1	1.062411E+0	1.015231E+0	1.030911E+0	1.035204E+0	9.899629E-1	1.023556E+0	1.000874E+0	1.005660E+0	1.056660E+0	1.018484E+0	9.765940E-1	9.471989E-1	1.017601E+0	1.056116E+0	1.024706E+0	1.000604E+0	9.908334E-1	9.684943E-1	9.866484E-1	1.017496E+0	1.021736E+0	9.698950E-1	9.965245E-1	9.950380E-1	9.963188E-1	1.043079E+0	9.930371E-1	9.859672E-1	1.055795E+0	9.786122E-1	9.928171E-1	9.650790E-1	1.035825E+0	9.873709E-1	1.047724E+0	1.001317E+0	9.691673E-1	9.743952E-1	1.009435E+0	9.794030E-1	1.013665E+0	1.020674E+0	9.591057E-1	1.010485E+0	9.747606E-1	9.975982E-1	1.028218E+0	1.007064E+0	1.007913E+0	1.023020E+0	9.797011E-1	9.672089E-1	1.000758E+0	1.011577E+0	9.470206E-1	9.933855E-1	1.042713E+0	1.010602E+0	9.874791E-1	9.901427E-1	1.030131E+0	1.013606E+0	1.011644E+0	9.979805E-1	1.006199E+0	9.979703E-1	9.886097E-1	1.025875E+0	1.012607E+0	9.597519E-1	9.892566E-1	1.028805E+0	1.038547E+0	1.005146E+0	9.720335E-1	9.958250E-1	1.037873E+0	9.970810E-1	9.921976E-1	1.024176E+0	9.615066E-1	1.068385E+0	1.062375E+0	9.875227E-1	1.014630E+0	9.982988E-1	1.000844E+0	9.808003E-1	9.739854E-1	1.015234E+0	9.878481E-1	1.055241E+0	1.002957E+0	1.051081E+0	1.037833E+0	1.010422E+0	9.579339E-1	9.917552E-1	9.989530E-1	1.013068E+0	1.032392E+0	9.868578E-1	9.362627E-1	1.035119E+0	1.077202E+0	1.025936E+0	1.012183E+0	9.702392E-1	1.065267E+0	1.002789E+0	1.052413E+0	9.812294E-1	9.892638E-1	9.638826E-1	1.012785E+0	9.890882E-1	1.040027E+0	1.000607E+0	9.994646E-1	9.837511E-1
5.387600E+2	1.199888E+0	1.249036E+0	1.181395E+0	1.189769E+0	1.178974E+0	1.195969E+0	1.236508E+0	1.187255E+0	1.159728E+0	1.144869E+0	1.212962E+0	1.182954E+0	1.159837E+0	1.156145E+0	1.171636E+0	1.173223E+0	1.164104E+0	1.169597E+0	1.200515E+0	1.171802E+0	1.214723E+0	1.171382E+0	1.208008E+0	1.170730E+0	1.156503E+0	1.187996E+0	1.223821E+0	1.213267E+0	1.234855E+0	1.258125E+0	1.197290E+0	1.191058E+0	1.201245E+0	1.160265E+0	1.198065E+0	1.209260E+0	1.189481E+0	1.188840E+0	1.174149E+0	1.199011E+0	1.164993E+0	1.216285E+0	1.185367E+0	1.252140E+0	1.217946E+0	1.181288E+0	1.212238E+0	1.195322E+0	1.194623E+0	1.198825E+0	1.204861E+0	1.188498E+0	1.177768E+0	1.174623E+0	1.190891E+0	1.168283E+0	1.167156E+0	1.161423E+0	1.145062E+0	1.242577E+0	1.192979E+0	1.169746E+0	1.159580E+0	1.258189E+0	1.170107E+0	1.156931E+0	1.204335E+0	1.202184E+0	1.181703E+0	1.190738E+0	1.230942E+0	1.238053E+0	1.132022E+0	1.166785E+0	1.217195E+0	1.211445E+0	1.146247E+0	1.154635E+0	1.226121E+0	1.178015E+0	1.253313E+0	1.161884E+0	1.204003E+0	1.142311E+0	1.191956E+0	1.169094E+0	1.176275E+0	1.195442E+0	1.221489E+0	1.155255E+0	1.205453E+0	1.253559E+0	1.200231E+0	1.143090E+0	1.221093E+0	1.183840E+0	1.244607E+0	1.196549E+0	1.183753E+0	1.205180E+0	1.182487E+0	1.172652E+0	1.247477E+0	1.169823E+0	1.205352E+0	1.245373E+0	1.221639E+0	1.187616E+0	1.170861E+0	1.175677E+0	1.149225E+0	1.182895E+0	1.207485E+0	1.171864E+0	1.146755E+0	1.143615E+0	1.227357E+0	1.168594E+0	1.238615E+0	1.221859E+0	1.169452E+0	1.173855E+0	1.179761E+0	1.222367E+0	1.194883E+0	1.149151E+0	1.177188E+0	1.217040E+0	1.191123E+0	1.206397E+0	1.190019E+0	1.180188E+0	1.181777E+0	1.184381E+0	1.212274E+0	1.230122E+0	1.182128E+0	1.151410E+0	1.159258E+0	1.180026E+0	1.177081E+0	1.171893E+0	1.210856E+0	1.104500E+0	1.233440E+0	1.201839E+0	1.237164E+0	1.166699E+0	1.141480E+0	1.177808E+0	1.257254E+0	1.176109E+0	1.248646E+0	1.194493E+0	1.193776E+0	1.226197E+0	1.192120E+0	1.229683E+0	1.195093E+0	1.192232E+0	1.260465E+0	1.176567E+0	1.209120E+0	1.218991E+0	1.232549E+0	1.148562E+0
5.390390E+2	1.447491E+0	1.430377E+0	1.443332E+0	1.394602E+0	1.364771E+0	1.393584E+0	1.479288E+0	1.441605E+0	1.396704E+0	1.411449E+0	1.419308E+0	1.432526E+0	1.403891E+0	1.395300E+0	1.380962E+0	1.432649E+0	1.461638E+0	1.390708E+0	1.454734E+0	1.402930E+0	1.372502E+0	1.393268E+0	1.396185E+0	1.423763E+0	1.419826E+0	1.407217E+0	1.397515E+0	1.407316E+0	1.467182E+0	1.456096E+0	1.399805E+0	1.385658E+0	1.471443E+0	1.380473E+0	1.455671E+0	1.409910E+0	1.410084E+0	1.403421E+0	1.458640E+0	1.371935E+0	1.464694E+0	1.372846E+0	1.386759E+0	1.372810E+0	1.424636E+0	1.419825E+0	1.403882E+0	1.388726E+0	1.432040E+0	1.393121E+0	1.483580E+0	1.429379E+0	1.422149E+0	1.427160E+0	1.425404E+0	1.449117E+0	1.509153E+0	1.313836E+0	1.407509E+0	1.373151E+0	1.409086E+0	1.426371E+0	1.403115E+0	1.464122E+0	1.381795E+0	1.408082E+0	1.389035E+0	1.354133E+0	1.390552E+0	1.431381E+0	1.450088E+0	1.397984E+0	1.398662E+0	1.373922E+0	1.419032E+0	1.378359E+0	1.348192E+0	1.390199E+0	1.447944E+0	1.433358E+0	1.433803E+0	1.429784E+0	1.415692E+0	1.363976E+0	1.410543E+0	1.409750E+0	1.474108E+0	1.386871E+0	1.387964E+0	1.380537E+0	1.421781E+0	1.407131E+0	1.399705E+0	1.375064E+0	1.367283E+0	1.372369E+0	1.402162E+0	1.339368E+0	1.406051E+0	1.345009E+0	1.414410E+0	1.402672E+0	1.471211E+0	1.371290E+0	1.386144E+0	1.375992E+0	1.380804E+0	1.350834E+0	1.416771E+0	1.383052E+0	1.396221E+0	1.382910E+0	1.399554E+0	1.400437E+0	1.352308E+0	1.450224E+0	1.381618E+0	1.342356E+0	1.351799E+0	1.433546E+0	1.397388E+0	1.432638E+0	1.391211E+0	1.397196E+0	1.444715E+0	1.404780E+0	1.408829E+0	1.454480E+0	1.448864E+0	1.366480E+0	1.425002E+0	1.346909E+0	1.409235E+0	1.394264E+0	1.423849E+0	1.392111E+0	1.430991E+0	1.379431E+0	1.463032E+0	1.403136E+0	1.382038E+0	1.344827E+0	1.433222E+0	1.401821E+0	1.426574E+0	1.362332E+0	1.471149E+0	1.352596E+0	1.357806E+0	1.402994E+0	1.444663E+0	1.398244E+0	1.424950E+0	1.385085E+0	1.446583E+0	1.369908E+0	1.447368E+0	1.359571E+0	1.379088E+0	1.365366E+0	1.426971E+0	1.338202E+0	1.364591E+0	1.367006E+0	1.382927E+0	1.304791E+0
5.392720E+2	1.653156E+0	1.612422E+0	1.643087E+0	1.664699E+0	1.551088E+0	1.650407E+0	1.632836E+0	1.624788E+0	1.554792E+0	1.557982E+0	1.620216E+0	1.641817E+0	1.614425E+0	1.539506E+0	1.658603E+0	1.592354E+0	1.612000E+0	1.610555E+0	1.613679E+0	1.625963E+0	1.658540E+0	1.632197E+0	1.611324E+0	1.670626E+0	1.622303E+0	1.602533E+0	1.696372E+0	1.558755E+0	1.660423E+0	1.649154E+0	1.601847E+0	1.600750E+0	1.708436E+0	1.566125E+0	1.626176E+0	1.628854E+0	1.626143E+0	1.600500E+0	1.595748E+0	1.588258E+0	1.600899E+0	1.680091E+0	1.642634E+0	1.594744E+0	1.655909E+0	1.611810E+0	1.656882E+0	1.598169E+0	1.620462E+0	1.581657E+0	1.633698E+0	1.659144E+0	1.584949E+0	1.641221E+0	1.601233E+0	1.670757E+0	1.574256E+0	1.583942E+0	1.573096E+0	1.632120E+0	1.633700E+0	1.563326E+0	1.573753E+0	1.659873E+0	1.583810E+0	1.664316E+0	1.620993E+0	1.661659E+0	1.638057E+0	1.550811E+0	1.653308E+0	1.592191E+0	1.544142E+0	1.521050E+0	1.640213E+0	1.608430E+0	1.617780E+0	1.537528E+0	1.569849E+0	1.532682E+0	1.674704E+0	1.598632E+0	1.562890E+0	1.574354E+0	1.572618E+0	1.563701E+0	1.685326E+0	1.608985E+0	1.587002E+0	1.593143E+0	1.608672E+0	1.617542E+0	1.588264E+0	1.537788E+0	1.570799E+0	1.621171E+0	1.654565E+0	1.612374E+0	1.645589E+0	1.582160E+0	1.625098E+0	1.630746E+0	1.657437E+0	1.581297E+0	1.515466E+0	1.624340E+0	1.677329E+0	1.572324E+0	1.573176E+0	1.567580E+0	1.577766E+0	1.617981E+0	1.569625E+0	1.602245E+0	1.546821E+0	1.599067E+0	1.580681E+0	1.670483E+0	1.625923E+0	1.626164E+0	1.596041E+0	1.584896E+0	1.612417E+0	1.584592E+0	1.638546E+0	1.575512E+0	1.564719E+0	1.618043E+0	1.584545E+0	1.573770E+0	1.564411E+0	1.552388E+0	1.594985E+0	1.591684E+0	1.636687E+0	1.677107E+0	1.547121E+0	1.568028E+0	1.562915E+0	1.635161E+0	1.614422E+0	1.562392E+0	1.512897E+0	1.539921E+0	1.590648E+0	1.558235E+0	1.651247E+0	1.632413E+0	1.589653E+0	1.566759E+0	1.606509E+0	1.597396E+0	1.619282E+0	1.582898E+0	1.567298E+0	1.592571E+0	1.591817E+0	1.570898E+0	1.582672E+0	1.549695E+0	1.603577E+0	1.487246E+0	1.684832E+0	1.562654E+0	1.551093E+0	1.557359E+0
5.395260E+2	1.802457E+0	1.886952E+0	1.905201E+0	1.890332E+0	1.887027E+0	1.822600E+0	1.931410E+0	1.850809E+0	1.850546E+0	1.785059E+0	1.762211E+0	1.861593E+0	1.911522E+0	1.905457E+0	1.859829E+0	1.842737E+0	1.853941E+0	1.809656E+0	1.778202E+0	1.824338E+0	1.790488E+0	1.817396E+0	1.859375E+0	1.840585E+0	1.892510E+0	1.769872E+0	1.886699E+0	1.829925E+0	1.895099E+0	1.806079E+0	1.815988E+0	1.887287E+0	1.912595E+0	1.825332E+0	1.938480E+0	1.764265E+0	1.837037E+0	1.774563E+0	1.817374E+0	1.769029E+0	1.796425E+0	1.835408E+0	1.825212E+0	1.838648E+0	1.880444E+0	1.844686E+0	1.798122E+0	1.779755E+0	1.900146E+0	1.827273E+0	1.792281E+0	1.813155E+0	1.868477E+0	1.837188E+0	1.828032E+0	1.830002E+0	1.770603E+0	1.796224E+0	1.761975E+0	1.845089E+0	1.904702E+0	1.789190E+0	1.800177E+0	1.839359E+0	1.838279E+0	1.794529E+0	1.794990E+0	1.843200E+0	1.771413E+0	1.791605E+0	1.886959E+0	1.820081E+0	1.755061E+0	1.720829E+0	1.827407E+0	1.798253E+0	1.832330E+0	1.738020E+0	1.852557E+0	1.818901E+0	1.853292E+0	1.730510E+0	1.780709E+0	1.784576E+0	1.850759E+0	1.851258E+0	1.825812E+0	1.798805E+0	1.800978E+0	1.723190E+0	1.786900E+0	1.820844E+0	1.835815E+0	1.764687E+0	1.862738E+0	1.768569E+0	1.852283E+0	1.819476E+0	1.783896E+0	1.838218E+0	1.831851E+0	1.826826E+0	1.868901E+0	1.808504E+0	1.756902E+0	1.784055E+0	1.805096E+0	1.835136E+0	1.820822E+0	1.777213E+0	1.750808E+0	1.799764E+0	1.819715E+0	1.758769E+0	1.762857E+0	1.825152E+0	1.719541E+0	1.802963E+0	1.839486E+0	1.821207E+0	1.773718E+0	1.815957E+0	1.755370E+0	1.838446E+0	1.842310E+0	1.725447E+0	1.790587E+0	1.810417E+0	1.794967E+0	1.793530E+0	1.758263E+0	1.717104E+0	1.727373E+0	1.820261E+0	1.779882E+0	1.859156E+0	1.743273E+0	1.775706E+0	1.761737E+0	1.821542E+0	1.783020E+0	1.771522E+0	1.748650E+0	1.777518E+0	1.771365E+0	1.819292E+0	1.825560E+0	1.800086E+0	1.763878E+0	1.774697E+0	1.817539E+0	1.787000E+0	1.803759E+0	1.766312E+0	1.886187E+0	1.786962E+0	1.754075E+0	1.733645E+0	1.799538E+0	1.737917E+0	1.868513E+0	1.704159E+0	1.804765E+0	1.740523E+0	1.686088E+0	1.855848E+0
5.397910E+2	1.987844E+0	2.038812E+0	2.034623E+0	1.936262E+0	1.942706E+0	1.982494E+0	2.019933E+0	1.972205E+0	1.978862E+0	1.929558E+0	2.053248E+0	2.009633E+0	2.023304E+0	1.999813E+0	2.002668E+0	2.016612E+0	1.993504E+0	2.012010E+0	2.040491E+0	1.926306E+0	2.026286E+0	2.048280E+0	2.003716E+0	2.038090E+0	2.043217E+0	2.001481E+0	2.004617E+0	1.949298E+0	1.973856E+0	1.998259E+0	1.968942E+0	1.979039E+0	2.025659E+0	1.951388E+0	1.935057E+0	2.002246E+0	1.952713E+0	1.921477E+0	2.012139E+0	1.962919E+0	1.955908E+0	1.966143E+0	1.997699E+0	1.992279E+0	2.036607E+0	1.976185E+0	1.955649E+0	1.956710E+0	1.997184E+0	2.003640E+0	1.980910E+0	1.974266E+0	1.944752E+0	1.932414E+0	1.989698E+0	1.998300E+0	1.963952E+0	1.941703E+0	1.976853E+0	2.043360E+0	1.999547E+0	1.892353E+0	2.049979E+0	2.022442E+0	1.919004E+0	1.982098E+0	1.912653E+0	1.977109E+0	1.872734E+0	1.938723E+0	2.035054E+0	2.033319E+0	1.932900E+0	1.887134E+0	2.070941E+0	1.989428E+0	1.946779E+0	1.823236E+0	1.938248E+0	1.942892E+0	2.098216E+0	1.980341E+0	1.960558E+0	1.910844E+0	1.963269E+0	1.926338E+0	1.892554E+0	1.974626E+0	1.926545E+0	2.028507E+0	1.931723E+0	1.921243E+0	1.944170E+0	1.878634E+0	1.940396E+0	1.906299E+0	1.946415E+0	1.929887E+0	1.967930E+0	1.910528E+0	1.921026E+0	1.933903E+0	1.989733E+0	1.942067E+0	1.870684E+0	1.927362E+0	2.013012E+0	1.923595E+0	1.969916E+0	1.870074E+0	1.998774E+0	1.927602E+0	1.943142E+0	1.962561E+0	1.949997E+0	1.992395E+0	1.901406E+0	1.862419E+0	1.968284E+0	2.013897E+0	1.973243E+0	1.954378E+0	1.903523E+0	2.006413E+0	1.951162E+0	1.875231E+0	1.892620E+0	2.052998E+0	1.939903E+0	1.918681E+0	1.952494E+0	1.797272E+0	1.912389E+0	1.892043E+0	1.931597E+0	1.914067E+0	1.922849E+0	1.893458E+0	1.969773E+0	1.934866E+0	1.898575E+0	1.878125E+0	1.971628E+0	1.918987E+0	1.947460E+0	1.950025E+0	2.000029E+0	1.929114E+0	1.945313E+0	1.872002E+0	2.023858E+0	1.927383E+0	1.928075E+0	1.950917E+0	2.031732E+0	1.901925E+0	1.955630E+0	1.884528E+0	1.918452E+0	1.821821E+0	1.983492E+0	1.883623E+0	1.961028E+0	1.886522E+0	1.908681E+0	1.954949E+0
5.400140E+2	2.063268E+0	2.056795E+0	1.980805E+0	2.119891E+0	1.961865E+0	2.021602E+0	2.126988E+0	2.018699E+0	2.000862E+0	2.028870E+0	2.089017E+0	2.028762E+0	1.988190E+0	1.986058E+0	2.085907E+0	2.031654E+0	2.039154E+0	2.030175E+0	2.015747E+0	2.015507E+0	2.034873E+0	2.004327E+0	2.007475E+0	2.067070E+0	2.052801E+0	2.005002E+0	2.100000E+0	2.005904E+0	2.022277E+0	2.020134E+0	2.013682E+0	2.049856E+0	2.117224E+0	1.966368E+0	2.016706E+0	1.951462E+0	2.023922E+0	1.999158E+0	2.075217E+0	1.975210E+0	1.982835E+0	1.989168E+0	2.070032E+0	1.983679E+0	2.020626E+0	2.040285E+0	2.020182E+0	1.967211E+0	2.083468E+0	2.022607E+0	2.092388E+0	2.016783E+0	2.058621E+0	2.010992E+0	1.977861E+0	2.028294E+0	2.000807E+0	1.963032E+0	2.013099E+0	2.077178E+0	1.977625E+0	1.982614E+0	1.986072E+0	2.007847E+0	1.951688E+0	1.972243E+0	2.040026E+0	2.037302E+0	2.069981E+0	1.966463E+0	2.060596E+0	1.963733E+0	1.952718E+0	1.902217E+0	1.979168E+0	2.018345E+0	1.994111E+0	1.965807E+0	2.042966E+0	2.013437E+0	2.030807E+0	2.012124E+0	1.983173E+0	1.929818E+0	2.060191E+0	1.930639E+0	2.035687E+0	1.928791E+0	1.938141E+0	1.996203E+0	1.983991E+0	1.895644E+0	1.998767E+0	1.918665E+0	1.990600E+0	1.908874E+0	1.969481E+0	1.970593E+0	1.984439E+0	1.990904E+0	1.977990E+0	2.014522E+0	2.021886E+0	1.977052E+0	1.977011E+0	1.918107E+0	1.993988E+0	1.992830E+0	1.995546E+0	1.950920E+0	1.915639E+0	1.984242E+0	1.928799E+0	1.928092E+0	1.944971E+0	2.066471E+0	1.942264E+0	1.944671E+0	2.017068E+0	1.956909E+0	1.976967E+0	1.959859E+0	2.032327E+0	2.004886E+0	1.956981E+0	1.963261E+0	1.946494E+0	2.024819E+0	1.996004E+0	1.980726E+0	1.952998E+0	1.979582E+0	1.897529E+0	1.948252E+0	1.998745E+0	2.001356E+0	1.930927E+0	1.978991E+0	1.949656E+0	2.015097E+0	1.960308E+0	1.927788E+0	1.984725E+0	1.890628E+0	1.958492E+0	1.947623E+0	1.973604E+0	1.950633E+0	1.959005E+0	2.021855E+0	2.005324E+0	1.906714E+0	2.007299E+0	1.945062E+0	2.088026E+0	1.969533E+0	1.965562E+0	1.966407E+0	1.972379E+0	1.912335E+0	1.993245E+0	1.901136E+0	1.884245E+0	1.943929E+0	2.026618E+0	1.903698E+0
5.402630E+2	2.011564E+0	2.034766E+0	2.017230E+0	2.036834E+0	2.030943E+0	2.030697E+0	2.072838E+0	2.047377E+0	1.990767E+0	2.038709E+0	1.988632E+0	2.035806E+0	2.069136E+0	2.028283E+0	2.124567E+0	1.948830E+0	2.022159E+0	1.996213E+0	1.999014E+0	1.999385E+0	2.012997E+0	2.023272E+0	1.951762E+0	2.027833E+0	2.022677E+0	1.934711E+0	2.034920E+0	1.970014E+0	2.012984E+0	2.081906E+0	1.964292E+0	1.965568E+0	2.052316E+0	1.967507E+0	2.021785E+0	2.008502E+0	2.080674E+0	1.976993E+0	2.036766E+0	1.994460E+0	1.937915E+0	2.020923E+0	1.948249E+0	1.944786E+0	2.059117E+0	1.926039E+0	2.061438E+0	2.012272E+0	2.002335E+0	2.022009E+0	2.001543E+0	1.978481E+0	1.998951E+0	1.942218E+0	1.999490E+0	2.026004E+0	2.011441E+0	1.994403E+0	1.982736E+0	1.986784E+0	1.965539E+0	1.911949E+0	2.006722E+0	2.037485E+0	1.901367E+0	1.936728E+0	1.985545E+0	2.025753E+0	1.986135E+0	1.976452E+0	2.061423E+0	2.052240E+0	1.927939E+0	1.931323E+0	2.027280E+0	1.919177E+0	1.946011E+0	1.900084E+0	1.990441E+0	2.041927E+0	1.954594E+0	1.961397E+0	2.031906E+0	1.939278E+0	1.946503E+0	1.959635E+0	1.997095E+0	1.986369E+0	2.014837E+0	1.965540E+0	1.959437E+0	1.999133E+0	1.954295E+0	1.876364E+0	2.019471E+0	1.888353E+0	1.939466E+0	2.007875E+0	1.960438E+0	1.994794E+0	1.960035E+0	1.873946E+0	1.965155E+0	1.965757E+0	1.881654E+0	1.898298E+0	2.016281E+0	1.973828E+0	1.959878E+0	1.917985E+0	1.932519E+0	1.974315E+0	1.918316E+0	1.953857E+0	1.928804E+0	1.923331E+0	1.937456E+0	1.883900E+0	2.024792E+0	1.984977E+0	1.927229E+0	1.940416E+0	1.921153E+0	1.917332E+0	1.965664E+0	1.934428E+0	1.934237E+0	2.009899E+0	1.989134E+0	1.903986E+0	1.901249E+0	1.943594E+0	1.950628E+0	1.939359E+0	1.944274E+0	1.968067E+0	1.938387E+0	1.887583E+0	2.000034E+0	1.920331E+0	1.935055E+0	1.943947E+0	1.941755E+0	1.918278E+0	1.957167E+0	1.905065E+0	1.885892E+0	1.931260E+0	1.858264E+0	1.897544E+0	2.016638E+0	1.906046E+0	1.956869E+0	1.933034E+0	1.961883E+0	1.994862E+0	1.967889E+0	1.910164E+0	1.961455E+0	1.911708E+0	1.921723E+0	1.882907E+0	1.967978E+0	2.021986E+0	1.959199E+0	1.882758E+0
5.405080E+2	1.941852E+0	1.925340E+0	1.870556E+0	1.918273E+0	1.868705E+0	1.921535E+0	1.923674E+0	1.928113E+0	1.873526E+0	1.901677E+0	1.880793E+0	1.957680E+0	1.940209E+0	1.871609E+0	1.969540E+0	1.932192E+0	1.970630E+0	1.928019E+0	1.923755E+0	1.890529E+0	1.912674E+0	1.960490E+0	2.025141E+0	1.901139E+0	1.972942E+0	1.880793E+0	1.978674E+0	1.873626E+0	1.994882E+0	1.978369E+0	1.800664E+0	1.943406E+0	2.008819E+0	1.926949E+0	1.967917E+0	1.881197E+0	1.908824E+0	1.890241E+0	1.951775E+0	1.878166E+0	1.893714E+0	1.928147E+0	1.915736E+0	1.922931E+0	1.889966E+0	1.922959E+0	1.962081E+0	1.870802E+0	1.933302E+0	1.934379E+0	1.910355E+0	1.883940E+0	1.911944E+0	1.873940E+0	1.925976E+0	1.932428E+0	1.919073E+0	1.911506E+0	1.917687E+0	1.932810E+0	1.909219E+0	1.865099E+0	1.886649E+0	1.939445E+0	1.931009E+0	1.903587E+0	1.926146E+0	1.884951E+0	1.873895E+0	1.901507E+0	1.913973E+0	1.936132E+0	1.799592E+0	1.892371E+0	1.958246E+0	1.934811E+0	1.874925E+0	1.849965E+0	1.898775E+0	1.900168E+0	2.005671E+0	1.873817E+0	1.873325E+0	1.870413E+0	1.932813E+0	1.872134E+0	1.900777E+0	1.907244E+0	1.930245E+0	1.882782E+0	1.906405E+0	1.813163E+0	1.925197E+0	1.857983E+0	1.869229E+0	1.914500E+0	1.938255E+0	1.890459E+0	1.948918E+0	1.850755E+0	1.871303E+0	1.937384E+0	1.931787E+0	1.910541E+0	1.776805E+0	1.887599E+0	1.940823E+0	1.895733E+0	1.874209E+0	1.845393E+0	1.904462E+0	1.904485E+0	1.955594E+0	1.862889E+0	1.877568E+0	1.819697E+0	1.846559E+0	1.899910E+0	1.917314E+0	1.932446E+0	1.853494E+0	1.923910E+0	1.932011E+0	1.869801E+0	1.866612E+0	1.916924E+0	1.932044E+0	1.866158E+0	1.877957E+0	1.842824E+0	1.860288E+0	1.904420E+0	1.831786E+0	1.884802E+0	1.843838E+0	1.899267E+0	1.846584E+0	1.843145E+0	1.814696E+0	1.839540E+0	1.880695E+0	1.828194E+0	1.869977E+0	1.819463E+0	1.956498E+0	1.854614E+0	1.919517E+0	1.874675E+0	1.910209E+0	1.872392E+0	1.881679E+0	1.941728E+0	1.889240E+0	1.819372E+0	1.871734E+0	1.843041E+0	1.895809E+0	1.785977E+0	1.807439E+0	1.789806E+0	1.825121E+0	1.806749E+0	1.858884E+0	1.848930E+0	1.848414E+0	1.837911E+0
5.407630E+2	1.874038E+0	1.841385E+0	1.865334E+0	1.825397E+0	1.765545E+0	1.810195E+0	1.822737E+0	1.819216E+0	1.850602E+0	1.753299E+0	1.826394E+0	1.866040E+0	1.859559E+0	1.819829E+0	1.875139E+0	1.801767E+0	1.786188E+0	1.769664E+0	1.825385E+0	1.819089E+0	1.791980E+0	1.835483E+0	1.806807E+0	1.805113E+0	1.875923E+0	1.856314E+0	1.843220E+0	1.774844E+0	1.850036E+0	1.837845E+0	1.804083E+0	1.829279E+0	1.851109E+0	1.787691E+0	1.824672E+0	1.863441E+0	1.810223E+0	1.779746E+0	1.849882E+0	1.818454E+0	1.766388E+0	1.819514E+0	1.781061E+0	1.785059E+0	1.854709E+0	1.787155E+0	1.768703E+0	1.766112E+0	1.844265E+0	1.828822E+0	1.780430E+0	1.803691E+0	1.847262E+0	1.785196E+0	1.822893E+0	1.845499E+0	1.864128E+0	1.795911E+0	1.803643E+0	1.756647E+0	1.875882E+0	1.782849E+0	1.746118E+0	1.855830E+0	1.788493E+0	1.855937E+0	1.829599E+0	1.856311E+0	1.818316E+0	1.811081E+0	1.859631E+0	1.778011E+0	1.776137E+0	1.715416E+0	1.845466E+0	1.781615E+0	1.801064E+0	1.738405E+0	1.804859E+0	1.775160E+0	1.902062E+0	1.790006E+0	1.738919E+0	1.807804E+0	1.796092E+0	1.805129E+0	1.822751E+0	1.830282E+0	1.762707E+0	1.767434E+0	1.790510E+0	1.841796E+0	1.810898E+0	1.726856E+0	1.777569E+0	1.753537E+0	1.782297E+0	1.783353E+0	1.776341E+0	1.817208E+0	1.769489E+0	1.768126E+0	1.793532E+0	1.763280E+0	1.758537E+0	1.794968E+0	1.888748E+0	1.800078E+0	1.860494E+0	1.707982E+0	1.761763E+0	1.850811E+0	1.836211E+0	1.789318E+0	1.777147E+0	1.802650E+0	1.811504E+0	1.794634E+0	1.806207E+0	1.821369E+0	1.796384E+0	1.789165E+0	1.840088E+0	1.865363E+0	1.752578E+0	1.812554E+0	1.791131E+0	1.780977E+0	1.823381E+0	1.813661E+0	1.843654E+0	1.729064E+0	1.752040E+0	1.757288E+0	1.752221E+0	1.796303E+0	1.765781E+0	1.788460E+0	1.793696E+0	1.780965E+0	1.775853E+0	1.732720E+0	1.855618E+0	1.734958E+0	1.772084E+0	1.696312E+0	1.846389E+0	1.772927E+0	1.759664E+0	1.738291E+0	1.846131E+0	1.861010E+0	1.798055E+0	1.751539E+0	1.823087E+0	1.803205E+0	1.783938E+0	1.740593E+0	1.748448E+0	1.704158E+0	1.802489E+0	1.727823E+0	1.811129E+0	1.771614E+0	1.769672E+0	1.690856E+0
5.410190E+2	1.813830E+0	1.768597E+0	1.765418E+0	1.713456E+0	1.665341E+0	1.794053E+0	1.747445E+0	1.793580E+0	1.762822E+0	1.739098E+0	1.756887E+0	1.807240E+0	1.793967E+0	1.738356E+0	1.735435E+0	1.693575E+0	1.714932E+0	1.716741E+0	1.677127E+0	1.696089E+0	1.658974E+0	1.747800E+0	1.722080E+0	1.697636E+0	1.765849E+0	1.714068E+0	1.723582E+0	1.724006E+0	1.796121E+0	1.740034E+0	1.751656E+0	1.704360E+0	1.825347E+0	1.709575E+0	1.800183E+0	1.719082E+0	1.717826E+0	1.659678E+0	1.766449E+0	1.710191E+0	1.685730E+0	1.755122E+0	1.753184E+0	1.768394E+0	1.789933E+0	1.721804E+0	1.754389E+0	1.744940E+0	1.724894E+0	1.774104E+0	1.765070E+0	1.755399E+0	1.790525E+0	1.715946E+0	1.757312E+0	1.783136E+0	1.722780E+0	1.724700E+0	1.760115E+0	1.795629E+0	1.752841E+0	1.644735E+0	1.788488E+0	1.782880E+0	1.741459E+0	1.751933E+0	1.726839E+0	1.767094E+0	1.693573E+0	1.733664E+0	1.740902E+0	1.816930E+0	1.720454E+0	1.667749E+0	1.730546E+0	1.710357E+0	1.744232E+0	1.684940E+0	1.803714E+0	1.694987E+0	1.743229E+0	1.698053E+0	1.689694E+0	1.674206E+0	1.735423E+0	1.707849E+0	1.730980E+0	1.752966E+0	1.741812E+0	1.666609E+0	1.756111E+0	1.648259E+0	1.696772E+0	1.617358E+0	1.757816E+0	1.722025E+0	1.738117E+0	1.721336E+0	1.753283E+0	1.774562E+0	1.763441E+0	1.744697E+0	1.772983E+0	1.712490E+0	1.706910E+0	1.738077E+0	1.749005E+0	1.711364E+0	1.747793E+0	1.624747E+0	1.686732E+0	1.721849E+0	1.747594E+0	1.712722E+0	1.658624E+0	1.686080E+0	1.721741E+0	1.656189E+0	1.763265E+0	1.809519E+0	1.735880E+0	1.696381E+0	1.766250E+0	1.694255E+0	1.669493E+0	1.744518E+0	1.659630E+0	1.753289E+0	1.755937E+0	1.685131E+0	1.694914E+0	1.705046E+0	1.711131E+0	1.641101E+0	1.675517E+0	1.721460E+0	1.684834E+0	1.703605E+0	1.761421E+0	1.744059E+0	1.768257E+0	1.684357E+0	1.717690E+0	1.688644E+0	1.713468E+0	1.683408E+0	1.673677E+0	1.713557E+0	1.685943E+0	1.607964E+0	1.763528E+0	1.698239E+0	1.743984E+0	1.677158E+0	1.752171E+0	1.792981E+0	1.725982E+0	1.634116E+0	1.666917E+0	1.638815E+0	1.712362E+0	1.649680E+0	1.722289E+0	1.673929E+0	1.678488E+0	1.632350E+0
5.412640E+2	1.722903E+0	1.678658E+0	1.712400E+0	1.630538E+0	1.619183E+0	1.681351E+0	1.708691E+0	1.734511E+0	1.634900E+0	1.627036E+0	1.663129E+0	1.694712E+0	1.738182E+0	1.608223E+0	1.714080E+0	1.677611E+0	1.721524E+0	1.629631E+0	1.696288E+0	1.665498E+0	1.673527E+0	1.683284E+0	1.682448E+0	1.704092E+0	1.681657E+0	1.650357E+0	1.706161E+0	1.647826E+0	1.677947E+0	1.681833E+0	1.660637E+0	1.632085E+0	1.816737E+0	1.716559E+0	1.686486E+0	1.663252E+0	1.694232E+0	1.634536E+0	1.683222E+0	1.678484E+0	1.646508E+0	1.755755E+0	1.739225E+0	1.739961E+0	1.695101E+0	1.655158E+0	1.647570E+0	1.640274E+0	1.699837E+0	1.687298E+0	1.712751E+0	1.679731E+0	1.693550E+0	1.673039E+0	1.652539E+0	1.759996E+0	1.649193E+0	1.585707E+0	1.647915E+0	1.726429E+0	1.738616E+0	1.668919E+0	1.686544E+0	1.705771E+0	1.674228E+0	1.736707E+0	1.578688E+0	1.733941E+0	1.675626E+0	1.614509E+0	1.682975E+0	1.697308E+0	1.708199E+0	1.598694E+0	1.687773E+0	1.620675E+0	1.599634E+0	1.652376E+0	1.693058E+0	1.737829E+0	1.746273E+0	1.664828E+0	1.619995E+0	1.618406E+0	1.681820E+0	1.667262E+0	1.721115E+0	1.722667E+0	1.689212E+0	1.633662E+0	1.681694E+0	1.579760E+0	1.668556E+0	1.627953E+0	1.642899E+0	1.639023E+0	1.678543E+0	1.610568E+0	1.677475E+0	1.687394E+0	1.682453E+0	1.622356E+0	1.670823E+0	1.638151E+0	1.630290E+0	1.689029E+0	1.727833E+0	1.649610E+0	1.679968E+0	1.609261E+0	1.649866E+0	1.722157E+0	1.644672E+0	1.618600E+0	1.605219E+0	1.666974E+0	1.669581E+0	1.651549E+0	1.646412E+0	1.704230E+0	1.592733E+0	1.635544E+0	1.664599E+0	1.674800E+0	1.694900E+0	1.685650E+0	1.692153E+0	1.655968E+0	1.727294E+0	1.624650E+0	1.668143E+0	1.684328E+0	1.605349E+0	1.627494E+0	1.650050E+0	1.688006E+0	1.670857E+0	1.647933E+0	1.687022E+0	1.663244E+0	1.662106E+0	1.639653E+0	1.631446E+0	1.644831E+0	1.701494E+0	1.613700E+0	1.664941E+0	1.724573E+0	1.598444E+0	1.627753E+0	1.597183E+0	1.725245E+0	1.607544E+0	1.646712E+0	1.588277E+0	1.638648E+0	1.586549E+0	1.680387E+0	1.645975E+0	1.619123E+0	1.699804E+0	1.665853E+0	1.678805E+0	1.618535E+0	1.637213E+0	1.553024E+0
5.415140E+2	1.640890E+0	1.652074E+0	1.622838E+0	1.672196E+0	1.629950E+0	1.606055E+0	1.686585E+0	1.559680E+0	1.620001E+0	1.634649E+0	1.585693E+0	1.585168E+0	1.593985E+0	1.579998E+0	1.613337E+0	1.634918E+0	1.581785E+0	1.572651E+0	1.612895E+0	1.633259E+0	1.643376E+0	1.665067E+0	1.565434E+0	1.658516E+0	1.616755E+0	1.591204E+0	1.559861E+0	1.595138E+0	1.653054E+0	1.594052E+0	1.562491E+0	1.624655E+0	1.663993E+0	1.637392E+0	1.605163E+0	1.619044E+0	1.589905E+0	1.545311E+0	1.595389E+0	1.609892E+0	1.589506E+0	1.585496E+0	1.564409E+0	1.622349E+0	1.612167E+0	1.570385E+0	1.598707E+0	1.572511E+0	1.599568E+0	1.627251E+0	1.615556E+0	1.603673E+0	1.581760E+0	1.574975E+0	1.589111E+0	1.636198E+0	1.526490E+0	1.569500E+0	1.589306E+0	1.612016E+0	1.611760E+0	1.535189E+0	1.623829E+0	1.626763E+0	1.689834E+0	1.620271E+0	1.613322E+0	1.648335E+0	1.619333E+0	1.598152E+0	1.558748E+0	1.638051E+0	1.570035E+0	1.518299E+0	1.634178E+0	1.585690E+0	1.587958E+0	1.482361E+0	1.563725E+0	1.610171E+0	1.667760E+0	1.560266E+0	1.526830E+0	1.565638E+0	1.583681E+0	1.588723E+0	1.550472E+0	1.610691E+0	1.601651E+0	1.558955E+0	1.574090E+0	1.532418E+0	1.583459E+0	1.545409E+0	1.571210E+0	1.504943E+0	1.586939E+0	1.563480E+0	1.560019E+0	1.542847E+0	1.575410E+0	1.602458E+0	1.579828E+0	1.612090E+0	1.552240E+0	1.566000E+0	1.633027E+0	1.562003E+0	1.566631E+0	1.572715E+0	1.586654E+0	1.566436E+0	1.657354E+0	1.589139E+0	1.560134E+0	1.583737E+0	1.533980E+0	1.537567E+0	1.593442E+0	1.591804E+0	1.590739E+0	1.562618E+0	1.569487E+0	1.605076E+0	1.579056E+0	1.573603E+0	1.545191E+0	1.605902E+0	1.546974E+0	1.497580E+0	1.605540E+0	1.550731E+0	1.591314E+0	1.545467E+0	1.563348E+0	1.628558E+0	1.553323E+0	1.551400E+0	1.624281E+0	1.591124E+0	1.612367E+0	1.506299E+0	1.615712E+0	1.555528E+0	1.544047E+0	1.539767E+0	1.581217E+0	1.550793E+0	1.597885E+0	1.551296E+0	1.611043E+0	1.572386E+0	1.616066E+0	1.537118E+0	1.594099E+0	1.607777E+0	1.580393E+0	1.540432E+0	1.573454E+0	1.514942E+0	1.575752E+0	1.500543E+0	1.603330E+0	1.641802E+0	1.500216E+0	1.502192E+0
5.417650E+2	1.523428E+0	1.482379E+0	1.513019E+0	1.454468E+0	1.444117E+0	1.500784E+0	1.448976E+0	1.459431E+0	1.479443E+0	1.435079E+0	1.443334E+0	1.498452E+0	1.462554E+0	1.392580E+0	1.432440E+0	1.510310E+0	1.480301E+0	1.479710E+0	1.527583E+0	1.492623E+0	1.434555E+0	1.424200E+0	1.460262E+0	1.482830E+0	1.459391E+0	1.454577E+0	1.522322E+0	1.442358E+0	1.519839E+0	1.470444E+0	1.461169E+0	1.467610E+0	1.583146E+0	1.437770E+0	1.465767E+0	1.495766E+0	1.453838E+0	1.450121E+0	1.459098E+0	1.448625E+0	1.432594E+0	1.524282E+0	1.476380E+0	1.441682E+0	1.471106E+0	1.482207E+0	1.488591E+0	1.483931E+0	1.466582E+0	1.494882E+0	1.479952E+0	1.410536E+0	1.536274E+0	1.465551E+0	1.423628E+0	1.544820E+0	1.470987E+0	1.453916E+0	1.478068E+0	1.539412E+0	1.489196E+0	1.439758E+0	1.452603E+0	1.502608E+0	1.474812E+0	1.472911E+0	1.461225E+0	1.487259E+0	1.431344E+0	1.463860E+0	1.447804E+0	1.571650E+0	1.460184E+0	1.393948E+0	1.430901E+0	1.507575E+0	1.427853E+0	1.415341E+0	1.436166E+0	1.522645E+0	1.566208E+0	1.380983E+0	1.472631E+0	1.441335E+0	1.472272E+0	1.468857E+0	1.449089E+0	1.470093E+0	1.483938E+0	1.478552E+0	1.403219E+0	1.369087E+0	1.484211E+0	1.406121E+0	1.467556E+0	1.462596E+0	1.501472E+0	1.454677E+0	1.478233E+0	1.483475E+0	1.431693E+0	1.456046E+0	1.450937E+0	1.403336E+0	1.396269E+0	1.464104E+0	1.480183E+0	1.426769E+0	1.464207E+0	1.400334E+0	1.397326E+0	1.478875E+0	1.459577E+0	1.427131E+0	1.422696E+0	1.469579E+0	1.513393E+0	1.427930E+0	1.460397E+0	1.470819E+0	1.435408E+0	1.477273E+0	1.478863E+0	1.507468E+0	1.446921E+0	1.491302E+0	1.504134E+0	1.407448E+0	1.469926E+0	1.431540E+0	1.458254E+0	1.402301E+0	1.436290E+0	1.468650E+0	1.462691E+0	1.388738E+0	1.475137E+0	1.431584E+0	1.433768E+0	1.487302E+0	1.455197E+0	1.467182E+0	1.478865E+0	1.396119E+0	1.478032E+0	1.413554E+0	1.476362E+0	1.485405E+0	1.418670E+0	1.477165E+0	1.541415E+0	1.534011E+0	1.428857E+0	1.468056E+0	1.476995E+0	1.427948E+0	1.481150E+0	1.396961E+0	1.410554E+0	1.439460E+0	1.473837E+0	1.419397E+0	1.474423E+0	1.416742E+0	1.478921E+0	1.429445E+0
5.420110E+2	1.350057E+0	1.305441E+0	1.343087E+0	1.320474E+0	1.312198E+0	1.280822E+0	1.324579E+0	1.339978E+0	1.305321E+0	1.308717E+0	1.290819E+0	1.326265E+0	1.335525E+0	1.337677E+0	1.326112E+0	1.318056E+0	1.341643E+0	1.293297E+0	1.274008E+0	1.303127E+0	1.270599E+0	1.322251E+0	1.340232E+0	1.302681E+0	1.316853E+0	1.308223E+0	1.308151E+0	1.361920E+0	1.337065E+0	1.357847E+0	1.292576E+0	1.272039E+0	1.410951E+0	1.291862E+0	1.339059E+0	1.293452E+0	1.343381E+0	1.339222E+0	1.321619E+0	1.324153E+0	1.304794E+0	1.309923E+0	1.298521E+0	1.333477E+0	1.318518E+0	1.229507E+0	1.301467E+0	1.266779E+0	1.354807E+0	1.352826E+0	1.318067E+0	1.293952E+0	1.311719E+0	1.296537E+0	1.277335E+0	1.358505E+0	1.307451E+0	1.246863E+0	1.311821E+0	1.335680E+0	1.278932E+0	1.228841E+0	1.275045E+0	1.336305E+0	1.351063E+0	1.272427E+0	1.266918E+0	1.353535E+0	1.335919E+0	1.278650E+0	1.299926E+0	1.377889E+0	1.305501E+0	1.258584E+0	1.267190E+0	1.336470E+0	1.280273E+0	1.271119E+0	1.321634E+0	1.333683E+0	1.338538E+0	1.317852E+0	1.251386E+0	1.244836E+0	1.353483E+0	1.267837E+0	1.288994E+0	1.326998E+0	1.276534E+0	1.310500E+0	1.289075E+0	1.298681E+0	1.364405E+0	1.267553E+0	1.305329E+0	1.299132E+0	1.342382E+0	1.275670E+0	1.312024E+0	1.366320E+0	1.349131E+0	1.316410E+0	1.337289E+0	1.287932E+0	1.240785E+0	1.270513E+0	1.314410E+0	1.275541E+0	1.312214E+0	1.270250E+0	1.323966E+0	1.351960E+0	1.294647E+0	1.293439E+0	1.291635E+0	1.314945E+0	1.318633E+0	1.310515E+0	1.346086E+0	1.366679E+0	1.251583E+0	1.317499E+0	1.329217E+0	1.352645E+0	1.298446E+0	1.312872E+0	1.299722E+0	1.310067E+0	1.250044E+0	1.282887E+0	1.344347E+0	1.270124E+0	1.268124E+0	1.284777E+0	1.321828E+0	1.375052E+0	1.256710E+0	1.268314E+0	1.371198E+0	1.293263E+0	1.297238E+0	1.296312E+0	1.379755E+0	1.245521E+0	1.352920E+0	1.262985E+0	1.274274E+0	1.297719E+0	1.329127E+0	1.307007E+0	1.364949E+0	1.310477E+0	1.381872E+0	1.305330E+0	1.388081E+0	1.361146E+0	1.309071E+0	1.268758E+0	1.283158E+0	1.328484E+0	1.339478E+0	1.300923E+0	1.319748E+0	1.309495E+0	1.327477E+0	1.214364E+0
5.422670E+2	1.180553E+0	1.112152E+0	1.157336E+0	1.142422E+0	1.128493E+0	1.154930E+0	1.211711E+0	1.119267E+0	1.111059E+0	1.113091E+0	1.120367E+0	1.154968E+0	1.134052E+0	1.112588E+0	1.137043E+0	1.193274E+0	1.136800E+0	1.096864E+0	1.141637E+0	1.126898E+0	1.152139E+0	1.143548E+0	1.160772E+0	1.148564E+0	1.172263E+0	1.147272E+0	1.217521E+0	1.154232E+0	1.156440E+0	1.164953E+0	1.182977E+0	1.183932E+0	1.182636E+0	1.115878E+0	1.176108E+0	1.120593E+0	1.105674E+0	1.150020E+0	1.120556E+0	1.163587E+0	1.156697E+0	1.180933E+0	1.141744E+0	1.110210E+0	1.152005E+0	1.156888E+0	1.162538E+0	1.168133E+0	1.190352E+0	1.129213E+0	1.170431E+0	1.167228E+0	1.182426E+0	1.159638E+0	1.071714E+0	1.151881E+0	1.185713E+0	1.084562E+0	1.109791E+0	1.152819E+0	1.162872E+0	1.171359E+0	1.131012E+0	1.176764E+0	1.137791E+0	1.122312E+0	1.135604E+0	1.086417E+0	1.146773E+0	1.162967E+0	1.124758E+0	1.207700E+0	1.131296E+0	1.136392E+0	1.142251E+0	1.103946E+0	1.154159E+0	1.118053E+0	1.138113E+0	1.171615E+0	1.222412E+0	1.180937E+0	1.164755E+0	1.118642E+0	1.162369E+0	1.162679E+0	1.183367E+0	1.235000E+0	1.143684E+0	1.157002E+0	1.077788E+0	1.139403E+0	1.180435E+0	1.122603E+0	1.139926E+0	1.109206E+0	1.180068E+0	1.145552E+0	1.163465E+0	1.250820E+0	1.180814E+0	1.133819E+0	1.137186E+0	1.154885E+0	1.125517E+0	1.166975E+0	1.138216E+0	1.157171E+0	1.189513E+0	1.123922E+0	1.115917E+0	1.220498E+0	1.110683E+0	1.179837E+0	1.149203E+0	1.178821E+0	1.135923E+0	1.114496E+0	1.173323E+0	1.179512E+0	1.102079E+0	1.139146E+0	1.125142E+0	1.193309E+0	1.204833E+0	1.134536E+0	1.159637E+0	1.189697E+0	1.212497E+0	1.171993E+0	1.134807E+0	1.128754E+0	1.105480E+0	1.130433E+0	1.240624E+0	1.210157E+0	1.129093E+0	1.123889E+0	1.169212E+0	1.199795E+0	1.166025E+0	1.119533E+0	1.147797E+0	1.158846E+0	1.188058E+0	1.140513E+0	1.136363E+0	1.180387E+0	1.129923E+0	1.063155E+0	1.150737E+0	1.157769E+0	1.113612E+0	1.141525E+0	1.181453E+0	1.174949E+0	1.233735E+0	1.122386E+0	1.151517E+0	1.148285E+0	1.163058E+0	1.164666E+0	1.184791E+0	1.123740E+0	1.132111E+0	1.141168E+0
5.425080E+2	1.025197E+0	9.827215E-1	1.040559E+0	1.033344E+0	9.833833E-1	1.009461E+0	1.047771E+0	1.014581E+0	9.773774E-1	1.008082E+0	1.008119E+0	1.027093E+0	1.078568E+0	1.014039E+0	9.968242E-1	1.028103E+0	1.046188E+0	9.963721E-1	1.021925E+0	1.001378E+0	1.026196E+0	1.049065E+0	9.981553E-1	1.038382E+0	1.054921E+0	1.024514E+0	1.024485E+0	1.053442E+0	1.046124E+0	1.000753E+0	9.997404E-1	1.020115E+0	1.064469E+0	1.005098E+0	1.007874E+0	1.030262E+0	1.002257E+0	1.004350E+0	9.992872E-1	9.969981E-1	1.011945E+0	1.007588E+0	1.060174E+0	1.066140E+0	1.024188E+0	9.712369E-1	1.017831E+0	1.012645E+0	9.956402E-1	1.055282E+0	1.003610E+0	1.048567E+0	1.054791E+0	1.024254E+0	1.034991E+0	1.053461E+0	9.935570E-1	1.001127E+0	9.644999E-1	1.044550E+0	1.032308E+0	9.950979E-1	9.974229E-1	1.053373E+0	1.007908E+0	1.044504E+0	9.741893E-1	9.942642E-1	1.020417E+0	1.051464E+0	9.973572E-1	1.037717E+0	1.030757E+0	1.009399E+0	1.027127E+0	1.008062E+0	1.004166E+0	1.032997E+0	1.044199E+0	1.050072E+0	1.065347E+0	1.018059E+0	1.003555E+0	1.000594E+0	1.007934E+0	9.685244E-1	9.939408E-1	1.008900E+0	1.045653E+0	9.933054E-1	1.003750E+0	1.067212E+0	1.079840E+0	1.050936E+0	1.014690E+0	9.796163E-1	1.016207E+0	1.005018E+0	1.109092E+0	1.039492E+0	9.971741E-1	1.015395E+0	1.014560E+0	1.060732E+0	1.043586E+0	1.044509E+0	1.055321E+0	1.064402E+0	1.063620E+0	1.002961E+0	9.853477E-1	1.028496E+0	1.009924E+0	9.872263E-1	1.003989E+0	1.041158E+0	1.060318E+0	1.014506E+0	9.939183E-1	1.034982E+0	1.008087E+0	1.034454E+0	1.016450E+0	1.053656E+0	1.034309E+0	1.012321E+0	1.052388E+0	1.068687E+0	1.041375E+0	1.043430E+0	9.919898E-1	1.045421E+0	9.638162E-1	1.017842E+0	1.017565E+0	1.081065E+0	1.027246E+0	1.031837E+0	9.854701E-1	1.005649E+0	9.926596E-1	1.023513E+0	1.031227E+0	9.845723E-1	1.040042E+0	1.028032E+0	1.007773E+0	1.070459E+0	1.025040E+0	1.031543E+0	1.083456E+0	1.084925E+0	1.036578E+0	1.009480E+0	1.018577E+0	1.044717E+0	1.087211E+0	9.792821E-1	1.004961E+0	1.009090E+0	1.053466E+0	9.887695E-1	1.034300E+0	9.756206E-1	1.019041E+0	9.510299E-1
5.427600E+2	9.480439E-1	9.392308E-1	9.993481E-1	9.493726E-1	9.253832E-1	9.498607E-1	9.393533E-1	9.622400E-1	9.446412E-1	9.288020E-1	9.339900E-1	9.692672E-1	9.610478E-1	9.529620E-1	9.588919E-1	9.514938E-1	9.229520E-1	9.741771E-1	9.291729E-1	9.688114E-1	9.120483E-1	9.875568E-1	9.461586E-1	9.183076E-1	9.768461E-1	9.413899E-1	9.600090E-1	1.001656E+0	9.540541E-1	9.349426E-1	9.268135E-1	9.532980E-1	9.599942E-1	9.605415E-1	9.292386E-1	9.141250E-1	9.543412E-1	9.650518E-1	9.640650E-1	9.464437E-1	9.491732E-1	9.531079E-1	9.329363E-1	9.227389E-1	9.637440E-1	9.514534E-1	9.333643E-1	9.408665E-1	9.703828E-1	9.523247E-1	9.313211E-1	9.562600E-1	9.460317E-1	9.399410E-1	9.756040E-1	9.782550E-1	9.682205E-1	9.784885E-1	9.062813E-1	9.535532E-1	9.809726E-1	8.965561E-1	9.418122E-1	9.885670E-1	9.575097E-1	9.557997E-1	9.211921E-1	9.432406E-1	1.013111E+0	9.533853E-1	9.384160E-1	9.853785E-1	9.682838E-1	9.065660E-1	9.262546E-1	9.801251E-1	9.575090E-1	8.831701E-1	9.649186E-1	9.784414E-1	1.023619E+0	9.087168E-1	9.584788E-1	9.596601E-1	9.749989E-1	9.083227E-1	9.412518E-1	9.654061E-1	9.330372E-1	9.208133E-1	9.723456E-1	9.764430E-1	9.866719E-1	9.574786E-1	9.162821E-1	9.524840E-1	9.618577E-1	9.491623E-1	9.459061E-1	1.002870E+0	9.222930E-1	8.992832E-1	9.521642E-1	9.292073E-1	9.612945E-1	9.076477E-1	9.249761E-1	9.869358E-1	9.498351E-1	9.603230E-1	9.029456E-1	9.781404E-1	9.413557E-1	9.463188E-1	9.824480E-1	1.008909E+0	9.659411E-1	9.776899E-1	9.498883E-1	9.969670E-1	9.625373E-1	9.776468E-1	9.521186E-1	9.433877E-1	9.638996E-1	9.290749E-1	9.321805E-1	9.589699E-1	9.951859E-1	9.689174E-1	9.258093E-1	9.994432E-1	9.349038E-1	9.449245E-1	9.624400E-1	9.912184E-1	1.011516E+0	9.285657E-1	9.273246E-1	9.418301E-1	9.423171E-1	9.760619E-1	9.552107E-1	9.699235E-1	9.835916E-1	9.592212E-1	9.099183E-1	9.718562E-1	9.515744E-1	9.447157E-1	9.578808E-1	9.618156E-1	9.136376E-1	9.350635E-1	9.540548E-1	9.968305E-1	9.880717E-1	9.288955E-1	9.601357E-1	9.502811E-1	9.554303E-1	9.922321E-1	9.662657E-1	8.940549E-1	9.560609E-1	9.765098E-1
5.430330E+2	9.988662E-1	9.522646E-1	1.010212E+0	9.982516E-1	9.512444E-1	9.546015E-1	9.931680E-1	9.601030E-1	9.700403E-1	1.004826E+0	1.002472E+0	9.804225E-1	9.844615E-1	9.765424E-1	9.835907E-1	1.001211E+0	1.000211E+0	1.009899E+0	1.011331E+0	9.775662E-1	9.793777E-1	9.699045E-1	9.995832E-1	9.996251E-1	1.010305E+0	9.686472E-1	1.001539E+0	9.784368E-1	1.006447E+0	1.029579E+0	1.017866E+0	1.012013E+0	1.018877E+0	9.521695E-1	9.966252E-1	9.639526E-1	1.002480E+0	9.179873E-1	9.428860E-1	1.000141E+0	1.018017E+0	9.901883E-1	9.728155E-1	9.850529E-1	9.845441E-1	9.829534E-1	1.026457E+0	1.007546E+0	9.787181E-1	1.003336E+0	9.971006E-1	1.012574E+0	1.013134E+0	9.819324E-1	9.472032E-1	1.022398E+0	9.706203E-1	9.877450E-1	9.793147E-1	1.034288E+0	9.881597E-1	9.375290E-1	9.638310E-1	1.003639E+0	9.924870E-1	9.885068E-1	9.882381E-1	1.030882E+0	9.747387E-1	1.022651E+0	9.891085E-1	9.804231E-1	9.947854E-1	9.734343E-1	1.001307E+0	9.823099E-1	9.199865E-1	9.256862E-1	1.018488E+0	1.034749E+0	1.025260E+0	9.823448E-1	9.644369E-1	9.829028E-1	1.031222E+0	9.624850E-1	9.914298E-1	9.580341E-1	9.951330E-1	9.532456E-1	9.771529E-1	1.011275E+0	1.000732E+0	9.895654E-1	1.002558E+0	9.786251E-1	1.003652E+0	9.710256E-1	1.026141E+0	9.928587E-1	1.011838E+0	9.802670E-1	9.813162E-1	1.002813E+0	1.019538E+0	1.018494E+0	1.028141E+0	1.018576E+0	1.044417E+0	9.623873E-1	9.759710E-1	9.819185E-1	1.013968E+0	1.019717E+0	9.816639E-1	1.029617E+0	9.920583E-1	1.000369E+0	1.002579E+0	1.047234E+0	9.471872E-1	1.048251E+0	9.691481E-1	1.015875E+0	9.961518E-1	1.001841E+0	9.706309E-1	1.044010E+0	9.849746E-1	9.991181E-1	9.833296E-1	9.975947E-1	9.824630E-1	9.532220E-1	1.033955E+0	1.011196E+0	1.013813E+0	9.949440E-1	1.011666E+0	1.052355E+0	1.063304E+0	9.650115E-1	9.941918E-1	9.797305E-1	1.000325E+0	9.640958E-1	9.692185E-1	1.008643E+0	9.846496E-1	1.028485E+0	9.903521E-1	1.012703E+0	9.830545E-1	9.538695E-1	9.890071E-1	9.632792E-1	9.822731E-1	9.923927E-1	9.480209E-1	9.879540E-1	1.033425E+0	1.007844E+0	9.660033E-1	9.673605E-1	9.676103E-1	8.839288E-1
5.432640E+2	1.058535E+0	1.018253E+0	1.050136E+0	1.006762E+0	1.019957E+0	1.048107E+0	1.052894E+0	1.071027E+0	1.049278E+0	1.013157E+0	1.043807E+0	1.043547E+0	1.075539E+0	1.038738E+0	1.041585E+0	1.044030E+0	1.067392E+0	1.025161E+0	1.052386E+0	1.054311E+0	1.098234E+0	1.072115E+0	1.057504E+0	1.099632E+0	1.078176E+0	9.829157E-1	1.089676E+0	1.047333E+0	1.105539E+0	1.064723E+0	1.090774E+0	1.053192E+0	1.050703E+0	1.057175E+0	1.088226E+0	1.078836E+0	1.073168E+0	1.077109E+0	1.064863E+0	1.061572E+0	1.068537E+0	1.061862E+0	1.068389E+0	1.105761E+0	1.077653E+0	1.036847E+0	1.071372E+0	1.075841E+0	1.104191E+0	1.089426E+0	1.058691E+0	1.044951E+0	1.050720E+0	1.073304E+0	1.051358E+0	1.053554E+0	1.023016E+0	9.950280E-1	1.029208E+0	1.081843E+0	1.059975E+0	1.036981E+0	1.026216E+0	1.095147E+0	1.101119E+0	1.063605E+0	1.055202E+0	1.028006E+0	1.066470E+0	1.060014E+0	1.060192E+0	1.077428E+0	1.080877E+0	1.073056E+0	1.041572E+0	1.071303E+0	1.127310E+0	1.013760E+0	1.032401E+0	1.059865E+0	1.087478E+0	1.043469E+0	1.067212E+0	1.014959E+0	1.087504E+0	1.064103E+0	1.061409E+0	1.124463E+0	1.008669E+0	1.036750E+0	1.079634E+0	1.068260E+0	1.108693E+0	1.027839E+0	1.066218E+0	1.078060E+0	1.013978E+0	1.055325E+0	1.068715E+0	1.077491E+0	1.026978E+0	1.056665E+0	1.061723E+0	1.097971E+0	1.069094E+0	1.055942E+0	1.025174E+0	1.095016E+0	1.073373E+0	1.008382E+0	1.045242E+0	1.094591E+0	1.053874E+0	1.039461E+0	1.039647E+0	1.096428E+0	1.022564E+0	1.064069E+0	1.027501E+0	1.070804E+0	1.068649E+0	1.090746E+0	1.035945E+0	1.056864E+0	1.103172E+0	1.031196E+0	1.071999E+0	1.091953E+0	1.060442E+0	1.064099E+0	1.050543E+0	1.058575E+0	1.063405E+0	1.010943E+0	1.056849E+0	1.074959E+0	1.067316E+0	1.023396E+0	1.060559E+0	1.100490E+0	1.065290E+0	1.034002E+0	1.082242E+0	1.082640E+0	1.027688E+0	1.088843E+0	1.090766E+0	1.067805E+0	1.104095E+0	1.017437E+0	1.065736E+0	1.092649E+0	1.050672E+0	1.052929E+0	1.075879E+0	1.066016E+0	1.070043E+0	1.081491E+0	1.075888E+0	1.048440E+0	1.084657E+0	1.015151E+0	1.050986E+0	1.103979E+0	1.080912E+0	1.080667E+0
5.435110E+2	1.285809E+0	1.260472E+0	1.254699E+0	1.229473E+0	1.198760E+0	1.260504E+0	1.289963E+0	1.280238E+0	1.227679E+0	1.204325E+0	1.270399E+0	1.217185E+0	1.301234E+0	1.234863E+0	1.265282E+0	1.259398E+0	1.224731E+0	1.242265E+0	1.231663E+0	1.253573E+0	1.179555E+0	1.199347E+0	1.248198E+0	1.241520E+0	1.269398E+0	1.261495E+0	1.227203E+0	1.228842E+0	1.292952E+0	1.249725E+0	1.254848E+0	1.246202E+0	1.296355E+0	1.261982E+0	1.205690E+0	1.200591E+0	1.277818E+0	1.223074E+0	1.197221E+0	1.189274E+0	1.263279E+0	1.259618E+0	1.249488E+0	1.264226E+0	1.292818E+0	1.231788E+0	1.210928E+0	1.263982E+0	1.297152E+0	1.199740E+0	1.251843E+0	1.260422E+0	1.240519E+0	1.251430E+0	1.253381E+0	1.274167E+0	1.242597E+0	1.208747E+0	1.272286E+0	1.304956E+0	1.250730E+0	1.196609E+0	1.229627E+0	1.212777E+0	1.277164E+0	1.260940E+0	1.235199E+0	1.250887E+0	1.240420E+0	1.260605E+0	1.248710E+0	1.272390E+0	1.220097E+0	1.223451E+0	1.231051E+0	1.254238E+0	1.229256E+0	1.189180E+0	1.235027E+0	1.257693E+0	1.247677E+0	1.195467E+0	1.231256E+0	1.197439E+0	1.244500E+0	1.233981E+0	1.221597E+0	1.274778E+0	1.222342E+0	1.216760E+0	1.177482E+0	1.221504E+0	1.237781E+0	1.213500E+0	1.199004E+0	1.232108E+0	1.283771E+0	1.207985E+0	1.267476E+0	1.244340E+0	1.212594E+0	1.271432E+0	1.210554E+0	1.220410E+0	1.254679E+0	1.193231E+0	1.253459E+0	1.210955E+0	1.233150E+0	1.140661E+0	1.219552E+0	1.212017E+0	1.299478E+0	1.176661E+0	1.167197E+0	1.264339E+0	1.240697E+0	1.208890E+0	1.214980E+0	1.194719E+0	1.217469E+0	1.227366E+0	1.211776E+0	1.239922E+0	1.257214E+0	1.230218E+0	1.259464E+0	1.328196E+0	1.195498E+0	1.242209E+0	1.208349E+0	1.246127E+0	1.263192E+0	1.253912E+0	1.189940E+0	1.314157E+0	1.223644E+0	1.208981E+0	1.233888E+0	1.265375E+0	1.204406E+0	1.252750E+0	1.230662E+0	1.247800E+0	1.236293E+0	1.260295E+0	1.271294E+0	1.245451E+0	1.218224E+0	1.170487E+0	1.205650E+0	1.250446E+0	1.235772E+0	1.245617E+0	1.235685E+0	1.268334E+0	1.283154E+0	1.194051E+0	1.214092E+0	1.234201E+0	1.267828E+0	1.195330E+0	1.277886E+0	1.209193E+0	1.223689E+0	1.225479E+0
5.437640E+2	1.379689E+0	1.347027E+0	1.391974E+0	1.452706E+0	1.371534E+0	1.387673E+0	1.396958E+0	1.425378E+0	1.367664E+0	1.388416E+0	1.350043E+0	1.425203E+0	1.428616E+0	1.390940E+0	1.362206E+0	1.347862E+0	1.360655E+0	1.412759E+0	1.384282E+0	1.388202E+0	1.420652E+0	1.409048E+0	1.417867E+0	1.367726E+0	1.390982E+0	1.350263E+0	1.450542E+0	1.480280E+0	1.439629E+0	1.428056E+0	1.380156E+0	1.419912E+0	1.441572E+0	1.382892E+0	1.425739E+0	1.428000E+0	1.392975E+0	1.392637E+0	1.410765E+0	1.444540E+0	1.426602E+0	1.395315E+0	1.418747E+0	1.488598E+0	1.434388E+0	1.373355E+0	1.409914E+0	1.355654E+0	1.379368E+0	1.412529E+0	1.421738E+0	1.418747E+0	1.426002E+0	1.372143E+0	1.422991E+0	1.414906E+0	1.396431E+0	1.403311E+0	1.383595E+0	1.479480E+0	1.446211E+0	1.370659E+0	1.400184E+0	1.383313E+0	1.385162E+0	1.398747E+0	1.355596E+0	1.391957E+0	1.395506E+0	1.395976E+0	1.406839E+0	1.398342E+0	1.398890E+0	1.392596E+0	1.378245E+0	1.394625E+0	1.369577E+0	1.357627E+0	1.417215E+0	1.440291E+0	1.425685E+0	1.402032E+0	1.347303E+0	1.410111E+0	1.398499E+0	1.372107E+0	1.405380E+0	1.429694E+0	1.344207E+0	1.419693E+0	1.379676E+0	1.388207E+0	1.422397E+0	1.361472E+0	1.366993E+0	1.333579E+0	1.391779E+0	1.387364E+0	1.366850E+0	1.388781E+0	1.386685E+0	1.343168E+0	1.398381E+0	1.391336E+0	1.355793E+0	1.398381E+0	1.419689E+0	1.409238E+0	1.407041E+0	1.357458E+0	1.387262E+0	1.389637E+0	1.396813E+0	1.380080E+0	1.335356E+0	1.326075E+0	1.430009E+0	1.412567E+0	1.426864E+0	1.452504E+0	1.346646E+0	1.447408E+0	1.388064E+0	1.407115E+0	1.398535E+0	1.383090E+0	1.394395E+0	1.484253E+0	1.391690E+0	1.371518E+0	1.410406E+0	1.371481E+0	1.359249E+0	1.385858E+0	1.382362E+0	1.402503E+0	1.405543E+0	1.358766E+0	1.353455E+0	1.410060E+0	1.387766E+0	1.342372E+0	1.413734E+0	1.379531E+0	1.437108E+0	1.411310E+0	1.399379E+0	1.406617E+0	1.377588E+0	1.359800E+0	1.358189E+0	1.448401E+0	1.420828E+0	1.407185E+0	1.365615E+0	1.471593E+0	1.422905E+0	1.340046E+0	1.356576E+0	1.372176E+0	1.451425E+0	1.356715E+0	1.383287E+0	1.383490E+0	1.392020E+0	1.421329E+0
5.440280E+2	1.575734E+0	1.512669E+0	1.511266E+0	1.538564E+0	1.521106E+0	1.524032E+0	1.566533E+0	1.489473E+0	1.485583E+0	1.508956E+0	1.572180E+0	1.525584E+0	1.527708E+0	1.544265E+0	1.518046E+0	1.577210E+0	1.601635E+0	1.540959E+0	1.491713E+0	1.566010E+0	1.482329E+0	1.547736E+0	1.504430E+0	1.564408E+0	1.545065E+0	1.502327E+0	1.524697E+0	1.511918E+0	1.544922E+0	1.567692E+0	1.523249E+0	1.574966E+0	1.562710E+0	1.521952E+0	1.494881E+0	1.503670E+0	1.557686E+0	1.508580E+0	1.514005E+0	1.532021E+0	1.537124E+0	1.602194E+0	1.468037E+0	1.514577E+0	1.578964E+0	1.508892E+0	1.522323E+0	1.512168E+0	1.565553E+0	1.517421E+0	1.563603E+0	1.519477E+0	1.555128E+0	1.525522E+0	1.525386E+0	1.561302E+0	1.519125E+0	1.511925E+0	1.465229E+0	1.516081E+0	1.498976E+0	1.473934E+0	1.530195E+0	1.535184E+0	1.591863E+0	1.540976E+0	1.464524E+0	1.508369E+0	1.504296E+0	1.541347E+0	1.530638E+0	1.549120E+0	1.474392E+0	1.534158E+0	1.491936E+0	1.537411E+0	1.545113E+0	1.431371E+0	1.527387E+0	1.541439E+0	1.548923E+0	1.426012E+0	1.506681E+0	1.481149E+0	1.492764E+0	1.526177E+0	1.524768E+0	1.548683E+0	1.514103E+0	1.534308E+0	1.485927E+0	1.524506E+0	1.540999E+0	1.482262E+0	1.528352E+0	1.487234E+0	1.535733E+0	1.480727E+0	1.513424E+0	1.553667E+0	1.484415E+0	1.503146E+0	1.489367E+0	1.505974E+0	1.499494E+0	1.472154E+0	1.518356E+0	1.547877E+0	1.485739E+0	1.481559E+0	1.462094E+0	1.537136E+0	1.490269E+0	1.433992E+0	1.433404E+0	1.501328E+0	1.519697E+0	1.515358E+0	1.502268E+0	1.548142E+0	1.478495E+0	1.543293E+0	1.509842E+0	1.573787E+0	1.544284E+0	1.536837E+0	1.524865E+0	1.578773E+0	1.497282E+0	1.486473E+0	1.502053E+0	1.468226E+0	1.445642E+0	1.479516E+0	1.436982E+0	1.543782E+0	1.471719E+0	1.450418E+0	1.559331E+0	1.503490E+0	1.504382E+0	1.468641E+0	1.499294E+0	1.514991E+0	1.552627E+0	1.499175E+0	1.501368E+0	1.457123E+0	1.438364E+0	1.483218E+0	1.484371E+0	1.553602E+0	1.481528E+0	1.468792E+0	1.467249E+0	1.466338E+0	1.531289E+0	1.486906E+0	1.519364E+0	1.446628E+0	1.623474E+0	1.426772E+0	1.514130E+0	1.579402E+0	1.570820E+0	1.434492E+0
5.442810E+2	1.605272E+0	1.620704E+0	1.608468E+0	1.597166E+0	1.506196E+0	1.600154E+0	1.580917E+0	1.519653E+0	1.556447E+0	1.519316E+0	1.532515E+0	1.552578E+0	1.578906E+0	1.518925E+0	1.542162E+0	1.587150E+0	1.578305E+0	1.562653E+0	1.577563E+0	1.536084E+0	1.549345E+0	1.552206E+0	1.550428E+0	1.530178E+0	1.646006E+0	1.549012E+0	1.584264E+0	1.581261E+0	1.672294E+0	1.591530E+0	1.574076E+0	1.584692E+0	1.630719E+0	1.541175E+0	1.575121E+0	1.529532E+0	1.520878E+0	1.546891E+0	1.544240E+0	1.606268E+0	1.503278E+0	1.589592E+0	1.538322E+0	1.571564E+0	1.601709E+0	1.538989E+0	1.543918E+0	1.556072E+0	1.585952E+0	1.587421E+0	1.623876E+0	1.608013E+0	1.616750E+0	1.606559E+0	1.523124E+0	1.567780E+0	1.555380E+0	1.560583E+0	1.507929E+0	1.652036E+0	1.544357E+0	1.532309E+0	1.563009E+0	1.591050E+0	1.527311E+0	1.548286E+0	1.571485E+0	1.583861E+0	1.581394E+0	1.617856E+0	1.524148E+0	1.575492E+0	1.501837E+0	1.535616E+0	1.566991E+0	1.602774E+0	1.523967E+0	1.505478E+0	1.584889E+0	1.548514E+0	1.595622E+0	1.563697E+0	1.497034E+0	1.543566E+0	1.576281E+0	1.560391E+0	1.544405E+0	1.626749E+0	1.530711E+0	1.559719E+0	1.506131E+0	1.562420E+0	1.541589E+0	1.516232E+0	1.549151E+0	1.513204E+0	1.591877E+0	1.518242E+0	1.560264E+0	1.553981E+0	1.541736E+0	1.516390E+0	1.558616E+0	1.646871E+0	1.516759E+0	1.539860E+0	1.568431E+0	1.538875E+0	1.567367E+0	1.515908E+0	1.514904E+0	1.581346E+0	1.567808E+0	1.548618E+0	1.524212E+0	1.591654E+0	1.532987E+0	1.523154E+0	1.542999E+0	1.520068E+0	1.526735E+0	1.577747E+0	1.532458E+0	1.567301E+0	1.523444E+0	1.524696E+0	1.504570E+0	1.530483E+0	1.580715E+0	1.550087E+0	1.503428E+0	1.529251E+0	1.525792E+0	1.595541E+0	1.476405E+0	1.594382E+0	1.531008E+0	1.551459E+0	1.492019E+0	1.560632E+0	1.526638E+0	1.525561E+0	1.545087E+0	1.516947E+0	1.525474E+0	1.488393E+0	1.520561E+0	1.565406E+0	1.512188E+0	1.548269E+0	1.586101E+0	1.617769E+0	1.541862E+0	1.515911E+0	1.515620E+0	1.580821E+0	1.545529E+0	1.535729E+0	1.519081E+0	1.570962E+0	1.610923E+0	1.473666E+0	1.506952E+0	1.510414E+0	1.519983E+0	1.420829E+0
5.445400E+2	1.631358E+0	1.535384E+0	1.631307E+0	1.595401E+0	1.614597E+0	1.560225E+0	1.567907E+0	1.567987E+0	1.521882E+0	1.588612E+0	1.561999E+0	1.552539E+0	1.644827E+0	1.578218E+0	1.599638E+0	1.554159E+0	1.576558E+0	1.588840E+0	1.606426E+0	1.563173E+0	1.570302E+0	1.573487E+0	1.612493E+0	1.522986E+0	1.581848E+0	1.555188E+0	1.589249E+0	1.602628E+0	1.651421E+0	1.632660E+0	1.583833E+0	1.592265E+0	1.614431E+0	1.581931E+0	1.612908E+0	1.571053E+0	1.596757E+0	1.517583E+0	1.564599E+0	1.609540E+0	1.559366E+0	1.602864E+0	1.540536E+0	1.598290E+0	1.581149E+0	1.553708E+0	1.557479E+0	1.586215E+0	1.611619E+0	1.550640E+0	1.580487E+0	1.592051E+0	1.609768E+0	1.581122E+0	1.609425E+0	1.530692E+0	1.586314E+0	1.542750E+0	1.561749E+0	1.592229E+0	1.557811E+0	1.520219E+0	1.538505E+0	1.583722E+0	1.588261E+0	1.636763E+0	1.549251E+0	1.577883E+0	1.597609E+0	1.539479E+0	1.522597E+0	1.639655E+0	1.554792E+0	1.541109E+0	1.501147E+0	1.590254E+0	1.604891E+0	1.537148E+0	1.624729E+0	1.591850E+0	1.622974E+0	1.586614E+0	1.558036E+0	1.546438E+0	1.571119E+0	1.544745E+0	1.561713E+0	1.601711E+0	1.554359E+0	1.552133E+0	1.509550E+0	1.621661E+0	1.611369E+0	1.516354E+0	1.590588E+0	1.567258E+0	1.545317E+0	1.532901E+0	1.571740E+0	1.583570E+0	1.538314E+0	1.562876E+0	1.548792E+0	1.578121E+0	1.494389E+0	1.532404E+0	1.560866E+0	1.570390E+0	1.592040E+0	1.530158E+0	1.548981E+0	1.520817E+0	1.589800E+0	1.514816E+0	1.506517E+0	1.549167E+0	1.509861E+0	1.545481E+0	1.536577E+0	1.555075E+0	1.602819E+0	1.570027E+0	1.560920E+0	1.609586E+0	1.601916E+0	1.528024E+0	1.578580E+0	1.595988E+0	1.581646E+0	1.528413E+0	1.495979E+0	1.548352E+0	1.531799E+0	1.577874E+0	1.538119E+0	1.640349E+0	1.595380E+0	1.580166E+0	1.512753E+0	1.573903E+0	1.567705E+0	1.543095E+0	1.525643E+0	1.466493E+0	1.631601E+0	1.526831E+0	1.592995E+0	1.567027E+0	1.577006E+0	1.579207E+0	1.610949E+0	1.583467E+0	1.538339E+0	1.504107E+0	1.535915E+0	1.642194E+0	1.560421E+0	1.512861E+0	1.510495E+0	1.552241E+0	1.609037E+0	1.556288E+0	1.565562E+0	1.549526E+0	1.552180E+0	1.576385E+0
5.447610E+2	1.500040E+0	1.543357E+0	1.557219E+0	1.638076E+0	1.573721E+0	1.566052E+0	1.603841E+0	1.524598E+0	1.532040E+0	1.542471E+0	1.503718E+0	1.487997E+0	1.621580E+0	1.564791E+0	1.613860E+0	1.576324E+0	1.587415E+0	1.517201E+0	1.589306E+0	1.567208E+0	1.527362E+0	1.558448E+0	1.508198E+0	1.519711E+0	1.632618E+0	1.572477E+0	1.555494E+0	1.524458E+0	1.601320E+0	1.528241E+0	1.533169E+0	1.557582E+0	1.596303E+0	1.564127E+0	1.572773E+0	1.532956E+0	1.563139E+0	1.544766E+0	1.525946E+0	1.564186E+0	1.547661E+0	1.535822E+0	1.571183E+0	1.496847E+0	1.535504E+0	1.583570E+0	1.569532E+0	1.585195E+0	1.582834E+0	1.546257E+0	1.607893E+0	1.582477E+0	1.575720E+0	1.551547E+0	1.550238E+0	1.554864E+0	1.551481E+0	1.526376E+0	1.459474E+0	1.559820E+0	1.620045E+0	1.581264E+0	1.540150E+0	1.524444E+0	1.612385E+0	1.589801E+0	1.500447E+0	1.591122E+0	1.552156E+0	1.565964E+0	1.595319E+0	1.615606E+0	1.497366E+0	1.504418E+0	1.625681E+0	1.588008E+0	1.568226E+0	1.555427E+0	1.556420E+0	1.612364E+0	1.650354E+0	1.618374E+0	1.507495E+0	1.502875E+0	1.569600E+0	1.522832E+0	1.574913E+0	1.545289E+0	1.535123E+0	1.507010E+0	1.508232E+0	1.599785E+0	1.542134E+0	1.528277E+0	1.528670E+0	1.521526E+0	1.574219E+0	1.442787E+0	1.501138E+0	1.568744E+0	1.491762E+0	1.602690E+0	1.521544E+0	1.588898E+0	1.573287E+0	1.557540E+0	1.528851E+0	1.589247E+0	1.553280E+0	1.522860E+0	1.567186E+0	1.595630E+0	1.576486E+0	1.558931E+0	1.529095E+0	1.565854E+0	1.558053E+0	1.614773E+0	1.541737E+0	1.566099E+0	1.536414E+0	1.568932E+0	1.550871E+0	1.520624E+0	1.565772E+0	1.509622E+0	1.536009E+0	1.569248E+0	1.649173E+0	1.534546E+0	1.518184E+0	1.520305E+0	1.527136E+0	1.611762E+0	1.536100E+0	1.620522E+0	1.512618E+0	1.580705E+0	1.501126E+0	1.671330E+0	1.527488E+0	1.481327E+0	1.562582E+0	1.554381E+0	1.603183E+0	1.599492E+0	1.582506E+0	1.528231E+0	1.554187E+0	1.550967E+0	1.489507E+0	1.550400E+0	1.526805E+0	1.547009E+0	1.520624E+0	1.583004E+0	1.575856E+0	1.519168E+0	1.475112E+0	1.493147E+0	1.641396E+0	1.505591E+0	1.594870E+0	1.491329E+0	1.438165E+0	1.483429E+0
5.450150E+2	1.520449E+0	1.534616E+0	1.527235E+0	1.532218E+0	1.500803E+0	1.507048E+0	1.510312E+0	1.512535E+0	1.472712E+0	1.463299E+0	1.470530E+0	1.539111E+0	1.501452E+0	1.509950E+0	1.504723E+0	1.481345E+0	1.538590E+0	1.446020E+0	1.449235E+0	1.448662E+0	1.489492E+0	1.465658E+0	1.464261E+0	1.418062E+0	1.534537E+0	1.433969E+0	1.508558E+0	1.483182E+0	1.593372E+0	1.468241E+0	1.527925E+0	1.498971E+0	1.472383E+0	1.542293E+0	1.524979E+0	1.534393E+0	1.468073E+0	1.463042E+0	1.453803E+0	1.474650E+0	1.506295E+0	1.481015E+0	1.484196E+0	1.443041E+0	1.487569E+0	1.498919E+0	1.480784E+0	1.500935E+0	1.506450E+0	1.487871E+0	1.466429E+0	1.484546E+0	1.510175E+0	1.471065E+0	1.501626E+0	1.546134E+0	1.487205E+0	1.446695E+0	1.511230E+0	1.513902E+0	1.498172E+0	1.439349E+0	1.489371E+0	1.535814E+0	1.550616E+0	1.461771E+0	1.450291E+0	1.453793E+0	1.486209E+0	1.484969E+0	1.472080E+0	1.567310E+0	1.492144E+0	1.481958E+0	1.553159E+0	1.522531E+0	1.495505E+0	1.428126E+0	1.449440E+0	1.493462E+0	1.562010E+0	1.445692E+0	1.501767E+0	1.462394E+0	1.537910E+0	1.502143E+0	1.514156E+0	1.470117E+0	1.449279E+0	1.466635E+0	1.538095E+0	1.449615E+0	1.449213E+0	1.454216E+0	1.482481E+0	1.471597E+0	1.503608E+0	1.422727E+0	1.465546E+0	1.494449E+0	1.491177E+0	1.505110E+0	1.483925E+0	1.490859E+0	1.494719E+0	1.422552E+0	1.430720E+0	1.458665E+0	1.531674E+0	1.469426E+0	1.435324E+0	1.524457E+0	1.502168E+0	1.473044E+0	1.406848E+0	1.534812E+0	1.537695E+0	1.474685E+0	1.476281E+0	1.481420E+0	1.464313E+0	1.482980E+0	1.456215E+0	1.473207E+0	1.504637E+0	1.457136E+0	1.510341E+0	1.569274E+0	1.506686E+0	1.504329E+0	1.415962E+0	1.477107E+0	1.458414E+0	1.524149E+0	1.416335E+0	1.548897E+0	1.495270E+0	1.408618E+0	1.492674E+0	1.490408E+0	1.547337E+0	1.461472E+0	1.507058E+0	1.489415E+0	1.406793E+0	1.470135E+0	1.457395E+0	1.481524E+0	1.390357E+0	1.439571E+0	1.494809E+0	1.508593E+0	1.503851E+0	1.458751E+0	1.476034E+0	1.514114E+0	1.507759E+0	1.480365E+0	1.442149E+0	1.484015E+0	1.529947E+0	1.443125E+0	1.485643E+0	1.410700E+0	1.508438E+0	1.441248E+0
5.452640E+2	1.450718E+0	1.428813E+0	1.474575E+0	1.378914E+0	1.400673E+0	1.419267E+0	1.392266E+0	1.356222E+0	1.427524E+0	1.357013E+0	1.430181E+0	1.426373E+0	1.423660E+0	1.398813E+0	1.449588E+0	1.398137E+0	1.452407E+0	1.445498E+0	1.391643E+0	1.416087E+0	1.403360E+0	1.437135E+0	1.406888E+0	1.371177E+0	1.430094E+0	1.374572E+0	1.400090E+0	1.392009E+0	1.453005E+0	1.349380E+0	1.351812E+0	1.356729E+0	1.413566E+0	1.425200E+0	1.449277E+0	1.415284E+0	1.379941E+0	1.368807E+0	1.382959E+0	1.360696E+0	1.429877E+0	1.451087E+0	1.382922E+0	1.403283E+0	1.412670E+0	1.381501E+0	1.448258E+0	1.397076E+0	1.459425E+0	1.395272E+0	1.435541E+0	1.389750E+0	1.429619E+0	1.394635E+0	1.398755E+0	1.402595E+0	1.401553E+0	1.398475E+0	1.400180E+0	1.458145E+0	1.494006E+0	1.451045E+0	1.406019E+0	1.439367E+0	1.380886E+0	1.401267E+0	1.425645E+0	1.392570E+0	1.371613E+0	1.436901E+0	1.397446E+0	1.405883E+0	1.411563E+0	1.346852E+0	1.374768E+0	1.388816E+0	1.373968E+0	1.348879E+0	1.436433E+0	1.400031E+0	1.431846E+0	1.385461E+0	1.373545E+0	1.429143E+0	1.406863E+0	1.414930E+0	1.382104E+0	1.436374E+0	1.412193E+0	1.393147E+0	1.409204E+0	1.360421E+0	1.403090E+0	1.379692E+0	1.375034E+0	1.404443E+0	1.394233E+0	1.385941E+0	1.390520E+0	1.403448E+0	1.374981E+0	1.404815E+0	1.419662E+0	1.447589E+0	1.376659E+0	1.427916E+0	1.406396E+0	1.443222E+0	1.421117E+0	1.403197E+0	1.422020E+0	1.429290E+0	1.388778E+0	1.398986E+0	1.343005E+0	1.470312E+0	1.405108E+0	1.398983E+0	1.376236E+0	1.414133E+0	1.412679E+0	1.474681E+0	1.432519E+0	1.362578E+0	1.425786E+0	1.392659E+0	1.369143E+0	1.416607E+0	1.406526E+0	1.394274E+0	1.405612E+0	1.348055E+0	1.391948E+0	1.402268E+0	1.311518E+0	1.451173E+0	1.378407E+0	1.359154E+0	1.391759E+0	1.422762E+0	1.402815E+0	1.389227E+0	1.390902E+0	1.423628E+0	1.397380E+0	1.339845E+0	1.360290E+0	1.501627E+0	1.334128E+0	1.407797E+0	1.420962E+0	1.446563E+0	1.347324E+0	1.360360E+0	1.335845E+0	1.463011E+0	1.424314E+0	1.387753E+0	1.353386E+0	1.375253E+0	1.377446E+0	1.358912E+0	1.328068E+0	1.350605E+0	1.351958E+0	1.417556E+0
5.455070E+2	1.397320E+0	1.406432E+0	1.352286E+0	1.403960E+0	1.375261E+0	1.384280E+0	1.395156E+0	1.410264E+0	1.343653E+0	1.358039E+0	1.377093E+0	1.379158E+0	1.440848E+0	1.322654E+0	1.337707E+0	1.309178E+0	1.323380E+0	1.362055E+0	1.344732E+0	1.345058E+0	1.354834E+0	1.394057E+0	1.348827E+0	1.383432E+0	1.407304E+0	1.367128E+0	1.376838E+0	1.329393E+0	1.345102E+0	1.376703E+0	1.375343E+0	1.394524E+0	1.420480E+0	1.342678E+0	1.391499E+0	1.306504E+0	1.332303E+0	1.304790E+0	1.357421E+0	1.382931E+0	1.347853E+0	1.376472E+0	1.356952E+0	1.382162E+0	1.386497E+0	1.345759E+0	1.323753E+0	1.393316E+0	1.347863E+0	1.369859E+0	1.372920E+0	1.358624E+0	1.370634E+0	1.330034E+0	1.348690E+0	1.326013E+0	1.385074E+0	1.309635E+0	1.325378E+0	1.362091E+0	1.358036E+0	1.341255E+0	1.362875E+0	1.379314E+0	1.348080E+0	1.403198E+0	1.289002E+0	1.349440E+0	1.383972E+0	1.345175E+0	1.379513E+0	1.361347E+0	1.332698E+0	1.334790E+0	1.331148E+0	1.315695E+0	1.370105E+0	1.329685E+0	1.339428E+0	1.372687E+0	1.409042E+0	1.351714E+0	1.369415E+0	1.284457E+0	1.337556E+0	1.376448E+0	1.312341E+0	1.379975E+0	1.327790E+0	1.362885E+0	1.326102E+0	1.308263E+0	1.362514E+0	1.346503E+0	1.360326E+0	1.333850E+0	1.404314E+0	1.416127E+0	1.356989E+0	1.369911E+0	1.405355E+0	1.299743E+0	1.329588E+0	1.367162E+0	1.367164E+0	1.358588E+0	1.323814E+0	1.333407E+0	1.354237E+0	1.337365E+0	1.338644E+0	1.327924E+0	1.359059E+0	1.374219E+0	1.313032E+0	1.378041E+0	1.336376E+0	1.366631E+0	1.285341E+0	1.416973E+0	1.312279E+0	1.368180E+0	1.357111E+0	1.303083E+0	1.432741E+0	1.350994E+0	1.326152E+0	1.332287E+0	1.286510E+0	1.357916E+0	1.349878E+0	1.305075E+0	1.327651E+0	1.357832E+0	1.325594E+0	1.373624E+0	1.306099E+0	1.336172E+0	1.346681E+0	1.340407E+0	1.384257E+0	1.322153E+0	1.355420E+0	1.346146E+0	1.398718E+0	1.384310E+0	1.357375E+0	1.334353E+0	1.393946E+0	1.377221E+0	1.333301E+0	1.369724E+0	1.376121E+0	1.332316E+0	1.385789E+0	1.352850E+0	1.367838E+0	1.368997E+0	1.360152E+0	1.342502E+0	1.371046E+0	1.299773E+0	1.303185E+0	1.408636E+0	1.368040E+0	1.380475E+0
5.457670E+2	1.271931E+0	1.290673E+0	1.316200E+0	1.329104E+0	1.270695E+0	1.286370E+0	1.301124E+0	1.293347E+0	1.281461E+0	1.245288E+0	1.224408E+0	1.302634E+0	1.305897E+0	1.289052E+0	1.318471E+0	1.263485E+0	1.297884E+0	1.270985E+0	1.291439E+0	1.287213E+0	1.288348E+0	1.284692E+0	1.285065E+0	1.313639E+0	1.324406E+0	1.225721E+0	1.322436E+0	1.258069E+0	1.362174E+0	1.309749E+0	1.306329E+0	1.280723E+0	1.335392E+0	1.282544E+0	1.281615E+0	1.249128E+0	1.249798E+0	1.313471E+0	1.274784E+0	1.297042E+0	1.264278E+0	1.275982E+0	1.285525E+0	1.300254E+0	1.315080E+0	1.301089E+0	1.294655E+0	1.268500E+0	1.329519E+0	1.272885E+0	1.272561E+0	1.257994E+0	1.220116E+0	1.293282E+0	1.286113E+0	1.269320E+0	1.290446E+0	1.201713E+0	1.245300E+0	1.312066E+0	1.314799E+0	1.246916E+0	1.268319E+0	1.275861E+0	1.278928E+0	1.323006E+0	1.220746E+0	1.256651E+0	1.308047E+0	1.264301E+0	1.253932E+0	1.298833E+0	1.284456E+0	1.274408E+0	1.267621E+0	1.292728E+0	1.212898E+0	1.210172E+0	1.318450E+0	1.255633E+0	1.307525E+0	1.304860E+0	1.230845E+0	1.219913E+0	1.273976E+0	1.256019E+0	1.228690E+0	1.294619E+0	1.263913E+0	1.286445E+0	1.231728E+0	1.298835E+0	1.335552E+0	1.229993E+0	1.239522E+0	1.235882E+0	1.319236E+0	1.269978E+0	1.251651E+0	1.279411E+0	1.268281E+0	1.287766E+0	1.257150E+0	1.235788E+0	1.224595E+0	1.238489E+0	1.268907E+0	1.233855E+0	1.263424E+0	1.245764E+0	1.248091E+0	1.322392E+0	1.294617E+0	1.238749E+0	1.260600E+0	1.285854E+0	1.297592E+0	1.219523E+0	1.230943E+0	1.283362E+0	1.269942E+0	1.304606E+0	1.216975E+0	1.257948E+0	1.294143E+0	1.214918E+0	1.274722E+0	1.233265E+0	1.304092E+0	1.318838E+0	1.275082E+0	1.221199E+0	1.290425E+0	1.273927E+0	1.221772E+0	1.342949E+0	1.281855E+0	1.288340E+0	1.257511E+0	1.321486E+0	1.274217E+0	1.263143E+0	1.337628E+0	1.334063E+0	1.334050E+0	1.285372E+0	1.267215E+0	1.258402E+0	1.271185E+0	1.274436E+0	1.314753E+0	1.313769E+0	1.310617E+0	1.224822E+0	1.238234E+0	1.282485E+0	1.249759E+0	1.226791E+0	1.253132E+0	1.262220E+0	1.309401E+0	1.264126E+0	1.265016E+0	1.300963E+0	1.284263E+0	1.334784E+0
5.460060E+2	1.278344E+0	1.222408E+0	1.222413E+0	1.266773E+0	1.217667E+0	1.240956E+0	1.270312E+0	1.245304E+0	1.206807E+0	1.140742E+0	1.216956E+0	1.225611E+0	1.217379E+0	1.264568E+0	1.190172E+0	1.227365E+0	1.189786E+0	1.207046E+0	1.256358E+0	1.210804E+0	1.214090E+0	1.184331E+0	1.240586E+0	1.246193E+0	1.295365E+0	1.237988E+0	1.277062E+0	1.227470E+0	1.232777E+0	1.258936E+0	1.215463E+0	1.237213E+0	1.243382E+0	1.206766E+0	1.199268E+0	1.213918E+0	1.223341E+0	1.180129E+0	1.256554E+0	1.178448E+0	1.191679E+0	1.251483E+0	1.201062E+0	1.224531E+0	1.259584E+0	1.223772E+0	1.209999E+0	1.166914E+0	1.257295E+0	1.240171E+0	1.244953E+0	1.243604E+0	1.254894E+0	1.183462E+0	1.261201E+0	1.176481E+0	1.236468E+0	1.190315E+0	1.192520E+0	1.277944E+0	1.241076E+0	1.224101E+0	1.211771E+0	1.210856E+0	1.208336E+0	1.245758E+0	1.215580E+0	1.270093E+0	1.200779E+0	1.223518E+0	1.218593E+0	1.246762E+0	1.241717E+0	1.183815E+0	1.224673E+0	1.244018E+0	1.256819E+0	1.212181E+0	1.238426E+0	1.243682E+0	1.294323E+0	1.249440E+0	1.248315E+0	1.198593E+0	1.260710E+0	1.198029E+0	1.207393E+0	1.254780E+0	1.197478E+0	1.289192E+0	1.175073E+0	1.228946E+0	1.189366E+0	1.204629E+0	1.221782E+0	1.176872E+0	1.212972E+0	1.215094E+0	1.190795E+0	1.274904E+0	1.240571E+0	1.247078E+0	1.221643E+0	1.168956E+0	1.226126E+0	1.265230E+0	1.232877E+0	1.253146E+0	1.231999E+0	1.169132E+0	1.281434E+0	1.244468E+0	1.253925E+0	1.165472E+0	1.177111E+0	1.256034E+0	1.201744E+0	1.211498E+0	1.187279E+0	1.309348E+0	1.249348E+0	1.262574E+0	1.239054E+0	1.252473E+0	1.234583E+0	1.193705E+0	1.221802E+0	1.229775E+0	1.234120E+0	1.286144E+0	1.187737E+0	1.213353E+0	1.213210E+0	1.229413E+0	1.182479E+0	1.248428E+0	1.209269E+0	1.236904E+0	1.285928E+0	1.252504E+0	1.294095E+0	1.163763E+0	1.200902E+0	1.180446E+0	1.249747E+0	1.227390E+0	1.210593E+0	1.196268E+0	1.222568E+0	1.202316E+0	1.245366E+0	1.252468E+0	1.264282E+0	1.204715E+0	1.165670E+0	1.264067E+0	1.266591E+0	1.188674E+0	1.223712E+0	1.178213E+0	1.293920E+0	1.201881E+0	1.231348E+0	1.205328E+0	1.164173E+0	1.251128E+0
5.467660E+2	1.194739E+0	1.105361E+0	1.187252E+0	1.190103E+0	1.194592E+0	1.192417E+0	1.239979E+0	1.204572E+0	1.181283E+0	1.181206E+0	1.179162E+0	1.237586E+0	1.165588E+0	1.190587E+0	1.175126E+0	1.212420E+0	1.136421E+0	1.160450E+0	1.233214E+0	1.180474E+0	1.171159E+0	1.176944E+0	1.230518E+0	1.224619E+0	1.219356E+0	1.196523E+0	1.195807E+0	1.219827E+0	1.275569E+0	1.154069E+0	1.203072E+0	1.193027E+0	1.192504E+0	1.146597E+0	1.211968E+0	1.150437E+0	1.188458E+0	1.193453E+0	1.235470E+0	1.212142E+0	1.143354E+0	1.148811E+0	1.180812E+0	1.175737E+0	1.195624E+0	1.202616E+0	1.198185E+0	1.124462E+0	1.224154E+0	1.215900E+0	1.220976E+0	1.146962E+0	1.153918E+0	1.192478E+0	1.213265E+0	1.181166E+0	1.170928E+0	1.158961E+0	1.155454E+0	1.180115E+0	1.196167E+0	1.150821E+0	1.178545E+0	1.190578E+0	1.201275E+0	1.193441E+0	1.201945E+0	1.174958E+0	1.148570E+0	1.223691E+0	1.206493E+0	1.183824E+0	1.195388E+0	1.152693E+0	1.180075E+0	1.163314E+0	1.191553E+0	1.134096E+0	1.140998E+0	1.161435E+0	1.135776E+0	1.208233E+0	1.159672E+0	1.214255E+0	1.221651E+0	1.130996E+0	1.162877E+0	1.227556E+0	1.207400E+0	1.264792E+0	1.151313E+0	1.140954E+0	1.171934E+0	1.174545E+0	1.163791E+0	1.159004E+0	1.263588E+0	1.198514E+0	1.193674E+0	1.231959E+0	1.164920E+0	1.169370E+0	1.178564E+0	1.209716E+0	1.171955E+0	1.214731E+0	1.122034E+0	1.214143E+0	1.178076E+0	1.135727E+0	1.149528E+0	1.204901E+0	1.177188E+0	1.209568E+0	1.183861E+0	1.222845E+0	1.182402E+0	1.203569E+0	1.167545E+0	1.185834E+0	1.194187E+0	1.164255E+0	1.180836E+0	1.170546E+0	1.256970E+0	1.179926E+0	1.172507E+0	1.233522E+0	1.204693E+0	1.152164E+0	1.155956E+0	1.188864E+0	1.172009E+0	1.176273E+0	1.211385E+0	1.155893E+0	1.150445E+0	1.122844E+0	1.166792E+0	1.240993E+0	1.166715E+0	1.190319E+0	1.190806E+0	1.173961E+0	1.186931E+0	1.208627E+0	1.172282E+0	1.150231E+0	1.173283E+0	1.167798E+0	1.232721E+0	1.160906E+0	1.157596E+0	1.179732E+0	1.196726E+0	1.175859E+0	1.235750E+0	1.150517E+0	1.128053E+0	1.159503E+0	1.177369E+0	1.161205E+0	1.169389E+0	1.178120E+0	1.203209E+0	1.244465E+0
5.475340E+2	1.316721E+0	1.296800E+0	1.278548E+0	1.322606E+0	1.276491E+0	1.281950E+0	1.316443E+0	1.313852E+0	1.335412E+0	1.254157E+0	1.235896E+0	1.289375E+0	1.303635E+0	1.266314E+0	1.338496E+0	1.348678E+0	1.278586E+0	1.280317E+0	1.247016E+0	1.314796E+0	1.293611E+0	1.308653E+0	1.318760E+0	1.273667E+0	1.322605E+0	1.264208E+0	1.270155E+0	1.285031E+0	1.343007E+0	1.314062E+0	1.309339E+0	1.294966E+0	1.280385E+0	1.342902E+0	1.212244E+0	1.288905E+0	1.328609E+0	1.304004E+0	1.323507E+0	1.256617E+0	1.333968E+0	1.342500E+0	1.259366E+0	1.300419E+0	1.356287E+0	1.263814E+0	1.342580E+0	1.291632E+0	1.351780E+0	1.326938E+0	1.335273E+0	1.293069E+0	1.300547E+0	1.268740E+0	1.259553E+0	1.272080E+0	1.313332E+0	1.297102E+0	1.251891E+0	1.279033E+0	1.323755E+0	1.285367E+0	1.282272E+0	1.312590E+0	1.258063E+0	1.365190E+0	1.263295E+0	1.336764E+0	1.331833E+0	1.290748E+0	1.324354E+0	1.313493E+0	1.291336E+0	1.272907E+0	1.279371E+0	1.260442E+0	1.301790E+0	1.308832E+0	1.265712E+0	1.315330E+0	1.276098E+0	1.232331E+0	1.261101E+0	1.247363E+0	1.347020E+0	1.299309E+0	1.344558E+0	1.316557E+0	1.292573E+0	1.254303E+0	1.280916E+0	1.303343E+0	1.314639E+0	1.288477E+0	1.315774E+0	1.307327E+0	1.311164E+0	1.277256E+0	1.330785E+0	1.298125E+0	1.301128E+0	1.270340E+0	1.304854E+0	1.296781E+0	1.249466E+0	1.292186E+0	1.283285E+0	1.215914E+0	1.297653E+0	1.251415E+0	1.277398E+0	1.342168E+0	1.296309E+0	1.268658E+0	1.261036E+0	1.352134E+0	1.238151E+0	1.290726E+0	1.294537E+0	1.317278E+0	1.296931E+0	1.318740E+0	1.294350E+0	1.274245E+0	1.311297E+0	1.291602E+0	1.296632E+0	1.257943E+0	1.374217E+0	1.292199E+0	1.219189E+0	1.286407E+0	1.243602E+0	1.290698E+0	1.288381E+0	1.312109E+0	1.274849E+0	1.259542E+0	1.319498E+0	1.310832E+0	1.289440E+0	1.268227E+0	1.293003E+0	1.300223E+0	1.325421E+0	1.249689E+0	1.302858E+0	1.291219E+0	1.268344E+0	1.291255E+0	1.243189E+0	1.324811E+0	1.323026E+0	1.316450E+0	1.259573E+0	1.247549E+0	1.316771E+0	1.301194E+0	1.212396E+0	1.248797E+0	1.303614E+0	1.275148E+0	1.328382E+0	1.195284E+0	1.312019E+0	1.245479E+0
5.482660E+2	1.401222E+0	1.354815E+0	1.396139E+0	1.381704E+0	1.371982E+0	1.408466E+0	1.404761E+0	1.406569E+0	1.342717E+0	1.361072E+0	1.374161E+0	1.363174E+0	1.406844E+0	1.367269E+0	1.386294E+0	1.413951E+0	1.388632E+0	1.370068E+0	1.335181E+0	1.366038E+0	1.347759E+0	1.382220E+0	1.425896E+0	1.372491E+0	1.429973E+0	1.382974E+0	1.361948E+0	1.390865E+0	1.383214E+0	1.376261E+0	1.378833E+0	1.330942E+0	1.397230E+0	1.376969E+0	1.389879E+0	1.361087E+0	1.324865E+0	1.310427E+0	1.368605E+0	1.407627E+0	1.373851E+0	1.384847E+0	1.361257E+0	1.442112E+0	1.372575E+0	1.348118E+0	1.395480E+0	1.361816E+0	1.430870E+0	1.376110E+0	1.380696E+0	1.324736E+0	1.398220E+0	1.399589E+0	1.384614E+0	1.358686E+0	1.379660E+0	1.347680E+0	1.337299E+0	1.404087E+0	1.430826E+0	1.370878E+0	1.342475E+0	1.424565E+0	1.404065E+0	1.362252E+0	1.324555E+0	1.381852E+0	1.367933E+0	1.359455E+0	1.365649E+0	1.368066E+0	1.371951E+0	1.333922E+0	1.370363E+0	1.371021E+0	1.341115E+0	1.363924E+0	1.358387E+0	1.413116E+0	1.456626E+0	1.350697E+0	1.346853E+0	1.340427E+0	1.356096E+0	1.362867E+0	1.386228E+0	1.373715E+0	1.337564E+0	1.326669E+0	1.360205E+0	1.361788E+0	1.355681E+0	1.295860E+0	1.345284E+0	1.358604E+0	1.392952E+0	1.316079E+0	1.369834E+0	1.389805E+0	1.392740E+0	1.353984E+0	1.360978E+0	1.364999E+0	1.431351E+0	1.296266E+0	1.341127E+0	1.359385E+0	1.428110E+0	1.321906E+0	1.340362E+0	1.386829E+0	1.368411E+0	1.328033E+0	1.352835E+0	1.417216E+0	1.354965E+0	1.284881E+0	1.393060E+0	1.384315E+0	1.346493E+0	1.397499E+0	1.369829E+0	1.331691E+0	1.440828E+0	1.365411E+0	1.330672E+0	1.386240E+0	1.358425E+0	1.372619E+0	1.367739E+0	1.364262E+0	1.346438E+0	1.377979E+0	1.368161E+0	1.336198E+0	1.371907E+0	1.389218E+0	1.375070E+0	1.373779E+0	1.401134E+0	1.296209E+0	1.431956E+0	1.321186E+0	1.397185E+0	1.329365E+0	1.370732E+0	1.297989E+0	1.335309E+0	1.357420E+0	1.325642E+0	1.369032E+0	1.372001E+0	1.348117E+0	1.394007E+0	1.407042E+0	1.398582E+0	1.319580E+0	1.337852E+0	1.293602E+0	1.402429E+0	1.377389E+0	1.387878E+0	1.389585E+0	1.402295E+0	1.298231E+0
5.490160E+2	1.364554E+0	1.410112E+0	1.423306E+0	1.427700E+0	1.339626E+0	1.362584E+0	1.455132E+0	1.346620E+0	1.377209E+0	1.345328E+0	1.341540E+0	1.367107E+0	1.392914E+0	1.378214E+0	1.416007E+0	1.355299E+0	1.392656E+0	1.410407E+0	1.366214E+0	1.337460E+0	1.362478E+0	1.374541E+0	1.371702E+0	1.365252E+0	1.434977E+0	1.400919E+0	1.375974E+0	1.372733E+0	1.446973E+0	1.417056E+0	1.360307E+0	1.378052E+0	1.429407E+0	1.397597E+0	1.430180E+0	1.377410E+0	1.430796E+0	1.362217E+0	1.366695E+0	1.323887E+0	1.353707E+0	1.363784E+0	1.327536E+0	1.347112E+0	1.404619E+0	1.361358E+0	1.399560E+0	1.366210E+0	1.408903E+0	1.404694E+0	1.348546E+0	1.372897E+0	1.372406E+0	1.379237E+0	1.351995E+0	1.373305E+0	1.458571E+0	1.389152E+0	1.349030E+0	1.420522E+0	1.427232E+0	1.335510E+0	1.404483E+0	1.438430E+0	1.400200E+0	1.370834E+0	1.391531E+0	1.351134E+0	1.399187E+0	1.489807E+0	1.399066E+0	1.417134E+0	1.381740E+0	1.363861E+0	1.393860E+0	1.368754E+0	1.372730E+0	1.370476E+0	1.359062E+0	1.381714E+0	1.476622E+0	1.300914E+0	1.371407E+0	1.366464E+0	1.400512E+0	1.365835E+0	1.338825E+0	1.421715E+0	1.391217E+0	1.344844E+0	1.338789E+0	1.298655E+0	1.437304E+0	1.348645E+0	1.351479E+0	1.325659E+0	1.415094E+0	1.329242E+0	1.359565E+0	1.387260E+0	1.370055E+0	1.408598E+0	1.357528E+0	1.418861E+0	1.342404E+0	1.344357E+0	1.393486E+0	1.336056E+0	1.404440E+0	1.347823E+0	1.331167E+0	1.414184E+0	1.338153E+0	1.430883E+0	1.392116E+0	1.378010E+0	1.327445E+0	1.349733E+0	1.332915E+0	1.391937E+0	1.411021E+0	1.362552E+0	1.391355E+0	1.389785E+0	1.409608E+0	1.428556E+0	1.336049E+0	1.381272E+0	1.377204E+0	1.343330E+0	1.356998E+0	1.279342E+0	1.379888E+0	1.317021E+0	1.348654E+0	1.350028E+0	1.344079E+0	1.378265E+0	1.370899E+0	1.399300E+0	1.383410E+0	1.310838E+0	1.406101E+0	1.294407E+0	1.368579E+0	1.366868E+0	1.338914E+0	1.374879E+0	1.416652E+0	1.345453E+0	1.410113E+0	1.361256E+0	1.391178E+0	1.290229E+0	1.332416E+0	1.408498E+0	1.387428E+0	1.305260E+0	1.381288E+0	1.331631E+0	1.392522E+0	1.383960E+0	1.425677E+0	1.366913E+0	1.416772E+0	1.318124E+0
5.497570E+2	1.354968E+0	1.341149E+0	1.340570E+0	1.355002E+0	1.302499E+0	1.298357E+0	1.325854E+0	1.298846E+0	1.324270E+0	1.250812E+0	1.378904E+0	1.363513E+0	1.319071E+0	1.270457E+0	1.332813E+0	1.326019E+0	1.318322E+0	1.364601E+0	1.332417E+0	1.326319E+0	1.339880E+0	1.238877E+0	1.308037E+0	1.336339E+0	1.410914E+0	1.326164E+0	1.413803E+0	1.322690E+0	1.407470E+0	1.364675E+0	1.323755E+0	1.354890E+0	1.376051E+0	1.314700E+0	1.357282E+0	1.274256E+0	1.331671E+0	1.318215E+0	1.312461E+0	1.319619E+0	1.299070E+0	1.380746E+0	1.340888E+0	1.360089E+0	1.349067E+0	1.358572E+0	1.373955E+0	1.317571E+0	1.428849E+0	1.320676E+0	1.325601E+0	1.315761E+0	1.352016E+0	1.319703E+0	1.291344E+0	1.308792E+0	1.333768E+0	1.285728E+0	1.260517E+0	1.340421E+0	1.381181E+0	1.284505E+0	1.347331E+0	1.392712E+0	1.310379E+0	1.333207E+0	1.267442E+0	1.353491E+0	1.322009E+0	1.319849E+0	1.306848E+0	1.373480E+0	1.359480E+0	1.289963E+0	1.294564E+0	1.353590E+0	1.317378E+0	1.267502E+0	1.377372E+0	1.409704E+0	1.339633E+0	1.299612E+0	1.317785E+0	1.312174E+0	1.349310E+0	1.339318E+0	1.354804E+0	1.333130E+0	1.298165E+0	1.319899E+0	1.360142E+0	1.309909E+0	1.320567E+0	1.290530E+0	1.335153E+0	1.359468E+0	1.355792E+0	1.289143E+0	1.321162E+0	1.371231E+0	1.302762E+0	1.297367E+0	1.306119E+0	1.316872E+0	1.304555E+0	1.286364E+0	1.332425E+0	1.324612E+0	1.371683E+0	1.304891E+0	1.313272E+0	1.281202E+0	1.265324E+0	1.309418E+0	1.288962E+0	1.296905E+0	1.328565E+0	1.346523E+0	1.346724E+0	1.373704E+0	1.348313E+0	1.359273E+0	1.312717E+0	1.292758E+0	1.277886E+0	1.329717E+0	1.329025E+0	1.370819E+0	1.364309E+0	1.245705E+0	1.338791E+0	1.265203E+0	1.352792E+0	1.357287E+0	1.307300E+0	1.338294E+0	1.319163E+0	1.316126E+0	1.339160E+0	1.385878E+0	1.353045E+0	1.317576E+0	1.325010E+0	1.322316E+0	1.314315E+0	1.356455E+0	1.323161E+0	1.301131E+0	1.323522E+0	1.317203E+0	1.328046E+0	1.314850E+0	1.408759E+0	1.309035E+0	1.275376E+0	1.288432E+0	1.396168E+0	1.317587E+0	1.290874E+0	1.256718E+0	1.370672E+0	1.333309E+0	1.355945E+0	1.250589E+0	1.285319E+0	1.340703E+0
5.505110E+2	1.357691E+0	1.346745E+0	1.361931E+0	1.381349E+0	1.276031E+0	1.326887E+0	1.326239E+0	1.322530E+0	1.344176E+0	1.270041E+0	1.334564E+0	1.292457E+0	1.352354E+0	1.288442E+0	1.366244E+0	1.372072E+0	1.327226E+0	1.319432E+0	1.304436E+0	1.260192E+0	1.322313E+0	1.304665E+0	1.345852E+0	1.360927E+0	1.376662E+0	1.265289E+0	1.302956E+0	1.330658E+0	1.365528E+0	1.298142E+0	1.347370E+0	1.309059E+0	1.390821E+0	1.352879E+0	1.327741E+0	1.286084E+0	1.362010E+0	1.319074E+0	1.316473E+0	1.270850E+0	1.314168E+0	1.316740E+0	1.332933E+0	1.301271E+0	1.372780E+0	1.304131E+0	1.308824E+0	1.333745E+0	1.343664E+0	1.360571E+0	1.362547E+0	1.321124E+0	1.395917E+0	1.365024E+0	1.282344E+0	1.320785E+0	1.295230E+0	1.252769E+0	1.307720E+0	1.312740E+0	1.363815E+0	1.278377E+0	1.308330E+0	1.341720E+0	1.328149E+0	1.285202E+0	1.318528E+0	1.313675E+0	1.274372E+0	1.357451E+0	1.340975E+0	1.320005E+0	1.291367E+0	1.320639E+0	1.237125E+0	1.309633E+0	1.269486E+0	1.315816E+0	1.317742E+0	1.256128E+0	1.309602E+0	1.308681E+0	1.265749E+0	1.256543E+0	1.292071E+0	1.271316E+0	1.285705E+0	1.279114E+0	1.377825E+0	1.300487E+0	1.295177E+0	1.364519E+0	1.323707E+0	1.279120E+0	1.327347E+0	1.293570E+0	1.341902E+0	1.320623E+0	1.304237E+0	1.356646E+0	1.307093E+0	1.309951E+0	1.277324E+0	1.302084E+0	1.305464E+0	1.347657E+0	1.276853E+0	1.285104E+0	1.312198E+0	1.327233E+0	1.279314E+0	1.353851E+0	1.311512E+0	1.302455E+0	1.288279E+0	1.312664E+0	1.273028E+0	1.352544E+0	1.337628E+0	1.289661E+0	1.306405E+0	1.301424E+0	1.300343E+0	1.312889E+0	1.397871E+0	1.304038E+0	1.276665E+0	1.352565E+0	1.311465E+0	1.287508E+0	1.287005E+0	1.304891E+0	1.299181E+0	1.323473E+0	1.261310E+0	1.317631E+0	1.285203E+0	1.306951E+0	1.318133E+0	1.299875E+0	1.338128E+0	1.255750E+0	1.335897E+0	1.275706E+0	1.321898E+0	1.263961E+0	1.351978E+0	1.355860E+0	1.289236E+0	1.317984E+0	1.352042E+0	1.332411E+0	1.348976E+0	1.269390E+0	1.280673E+0	1.352517E+0	1.350229E+0	1.273573E+0	1.294666E+0	1.260461E+0	1.351770E+0	1.293563E+0	1.282752E+0	1.264829E+0	1.372433E+0	1.218670E+0
5.512570E+2	1.295659E+0	1.337638E+0	1.256966E+0	1.290447E+0	1.284848E+0	1.349205E+0	1.329953E+0	1.333078E+0	1.294628E+0	1.281376E+0	1.323426E+0	1.307126E+0	1.305974E+0	1.298261E+0	1.359328E+0	1.293907E+0	1.310953E+0	1.294729E+0	1.243689E+0	1.316693E+0	1.309477E+0	1.347795E+0	1.316029E+0	1.258997E+0	1.336640E+0	1.277463E+0	1.277389E+0	1.306386E+0	1.369862E+0	1.351079E+0	1.319608E+0	1.287459E+0	1.341247E+0	1.333345E+0	1.318399E+0	1.320468E+0	1.336967E+0	1.245140E+0	1.257977E+0	1.379454E+0	1.274002E+0	1.340024E+0	1.330204E+0	1.278891E+0	1.293480E+0	1.325167E+0	1.294367E+0	1.323123E+0	1.337236E+0	1.319396E+0	1.282622E+0	1.317555E+0	1.292177E+0	1.289736E+0	1.305923E+0	1.311165E+0	1.280785E+0	1.281595E+0	1.273836E+0	1.315186E+0	1.329789E+0	1.248851E+0	1.298804E+0	1.299319E+0	1.327662E+0	1.321532E+0	1.350055E+0	1.313488E+0	1.257134E+0	1.362535E+0	1.333462E+0	1.311130E+0	1.367512E+0	1.294700E+0	1.281168E+0	1.265714E+0	1.330924E+0	1.273115E+0	1.353107E+0	1.315896E+0	1.355442E+0	1.301396E+0	1.253217E+0	1.254849E+0	1.305896E+0	1.276884E+0	1.320994E+0	1.274852E+0	1.306831E+0	1.280836E+0	1.322617E+0	1.287332E+0	1.343089E+0	1.280726E+0	1.270744E+0	1.320445E+0	1.335349E+0	1.295436E+0	1.323616E+0	1.272996E+0	1.295678E+0	1.259719E+0	1.296074E+0	1.314423E+0	1.254894E+0	1.294338E+0	1.319597E+0	1.301562E+0	1.324765E+0	1.259087E+0	1.278204E+0	1.302643E+0	1.282707E+0	1.274128E+0	1.217512E+0	1.323992E+0	1.317645E+0	1.270739E+0	1.226911E+0	1.340029E+0	1.281446E+0	1.321960E+0	1.266308E+0	1.279715E+0	1.309604E+0	1.323015E+0	1.315819E+0	1.383820E+0	1.364773E+0	1.285307E+0	1.288619E+0	1.301878E+0	1.308528E+0	1.330485E+0	1.283864E+0	1.304773E+0	1.250621E+0	1.282620E+0	1.325175E+0	1.287334E+0	1.333070E+0	1.302213E+0	1.344926E+0	1.312537E+0	1.292302E+0	1.270469E+0	1.319333E+0	1.303199E+0	1.267889E+0	1.285841E+0	1.320551E+0	1.315172E+0	1.331753E+0	1.304045E+0	1.288000E+0	1.340761E+0	1.312454E+0	1.274574E+0	1.263341E+0	1.266818E+0	1.292364E+0	1.286100E+0	1.340314E+0	1.282043E+0	1.282862E+0	1.287427E+0
5.520150E+2	1.360951E+0	1.275934E+0	1.307240E+0	1.298230E+0	1.317554E+0	1.360342E+0	1.339979E+0	1.306826E+0	1.276152E+0	1.287830E+0	1.284284E+0	1.282136E+0	1.254706E+0	1.270652E+0	1.258608E+0	1.292918E+0	1.274977E+0	1.291019E+0	1.353117E+0	1.303065E+0	1.271618E+0	1.329170E+0	1.284410E+0	1.319558E+0	1.262780E+0	1.293087E+0	1.307037E+0	1.224550E+0	1.340574E+0	1.399487E+0	1.272152E+0	1.315836E+0	1.313690E+0	1.290298E+0	1.326651E+0	1.271487E+0	1.282612E+0	1.240185E+0	1.275090E+0	1.292819E+0	1.264104E+0	1.321793E+0	1.365395E+0	1.278223E+0	1.297589E+0	1.269158E+0	1.392701E+0	1.300789E+0	1.327719E+0	1.344642E+0	1.297191E+0	1.305251E+0	1.285234E+0	1.322706E+0	1.295321E+0	1.281537E+0	1.240236E+0	1.260979E+0	1.259687E+0	1.284448E+0	1.341212E+0	1.247303E+0	1.297109E+0	1.348185E+0	1.292835E+0	1.348839E+0	1.310674E+0	1.259466E+0	1.298212E+0	1.277919E+0	1.298476E+0	1.343333E+0	1.306530E+0	1.244961E+0	1.285797E+0	1.222395E+0	1.279986E+0	1.309295E+0	1.336853E+0	1.262541E+0	1.312914E+0	1.261381E+0	1.208375E+0	1.247178E+0	1.328243E+0	1.255569E+0	1.274955E+0	1.300566E+0	1.317251E+0	1.313864E+0	1.261402E+0	1.246100E+0	1.320446E+0	1.276398E+0	1.294050E+0	1.256426E+0	1.321816E+0	1.256708E+0	1.246863E+0	1.367816E+0	1.234055E+0	1.345397E+0	1.315190E+0	1.312643E+0	1.286294E+0	1.297820E+0	1.243095E+0	1.284391E+0	1.346680E+0	1.258548E+0	1.280553E+0	1.304677E+0	1.317201E+0	1.279677E+0	1.241556E+0	1.287934E+0	1.326840E+0	1.304339E+0	1.226539E+0	1.267865E+0	1.324132E+0	1.326555E+0	1.287582E+0	1.273812E+0	1.308035E+0	1.304172E+0	1.287812E+0	1.333140E+0	1.303543E+0	1.293398E+0	1.258753E+0	1.326559E+0	1.284112E+0	1.303264E+0	1.202631E+0	1.321449E+0	1.297565E+0	1.334379E+0	1.319869E+0	1.339442E+0	1.299044E+0	1.303120E+0	1.301820E+0	1.276606E+0	1.364603E+0	1.303117E+0	1.301032E+0	1.315262E+0	1.266396E+0	1.302739E+0	1.321489E+0	1.332934E+0	1.323746E+0	1.267405E+0	1.297984E+0	1.275469E+0	1.258610E+0	1.303769E+0	1.229055E+0	1.297919E+0	1.386522E+0	1.242241E+0	1.238188E+0	1.266219E+0	1.258479E+0	1.355149E+0
5.527650E+2	1.249451E+0	1.301652E+0	1.287140E+0	1.265502E+0	1.246057E+0	1.247432E+0	1.332398E+0	1.235369E+0	1.282982E+0	1.231613E+0	1.262249E+0	1.287492E+0	1.231615E+0	1.246990E+0	1.247328E+0	1.280333E+0	1.266740E+0	1.282097E+0	1.301409E+0	1.243304E+0	1.234792E+0	1.196703E+0	1.277677E+0	1.263773E+0	1.269971E+0	1.244133E+0	1.282255E+0	1.241700E+0	1.331024E+0	1.260234E+0	1.233486E+0	1.301869E+0	1.259793E+0	1.271124E+0	1.303187E+0	1.247307E+0	1.301401E+0	1.295965E+0	1.285589E+0	1.264732E+0	1.223991E+0	1.242324E+0	1.229517E+0	1.288565E+0	1.275651E+0	1.257406E+0	1.281862E+0	1.297687E+0	1.262410E+0	1.337899E+0	1.268966E+0	1.196638E+0	1.272888E+0	1.211591E+0	1.291795E+0	1.283771E+0	1.335430E+0	1.245185E+0	1.240755E+0	1.220916E+0	1.217640E+0	1.242321E+0	1.253517E+0	1.295580E+0	1.297486E+0	1.257713E+0	1.320254E+0	1.251368E+0	1.280328E+0	1.270835E+0	1.288639E+0	1.299777E+0	1.291400E+0	1.216404E+0	1.233323E+0	1.213502E+0	1.234396E+0	1.246165E+0	1.290800E+0	1.294578E+0	1.300519E+0	1.274591E+0	1.324690E+0	1.197900E+0	1.228848E+0	1.278948E+0	1.182645E+0	1.244121E+0	1.328231E+0	1.212357E+0	1.236209E+0	1.218374E+0	1.277492E+0	1.203504E+0	1.243847E+0	1.294864E+0	1.242713E+0	1.238361E+0	1.263236E+0	1.245170E+0	1.301074E+0	1.257098E+0	1.232523E+0	1.221555E+0	1.248153E+0	1.293852E+0	1.264360E+0	1.261534E+0	1.291114E+0	1.237620E+0	1.233899E+0	1.286982E+0	1.260681E+0	1.276945E+0	1.211702E+0	1.315134E+0	1.285146E+0	1.281113E+0	1.323867E+0	1.260466E+0	1.243416E+0	1.272388E+0	1.240045E+0	1.295575E+0	1.283056E+0	1.203610E+0	1.245151E+0	1.288411E+0	1.291109E+0	1.278761E+0	1.187234E+0	1.219521E+0	1.250706E+0	1.264406E+0	1.221053E+0	1.303454E+0	1.248604E+0	1.262443E+0	1.306628E+0	1.304997E+0	1.274879E+0	1.200525E+0	1.261671E+0	1.225259E+0	1.265708E+0	1.232167E+0	1.260758E+0	1.252727E+0	1.287947E+0	1.284506E+0	1.228847E+0	1.232496E+0	1.277610E+0	1.259383E+0	1.308395E+0	1.323895E+0	1.336872E+0	1.300655E+0	1.225714E+0	1.186504E+0	1.296413E+0	1.200685E+0	1.273587E+0	1.243209E+0	1.222488E+0	1.165507E+0
5.535550E+2	1.251106E+0	1.188112E+0	1.215988E+0	1.259050E+0	1.196505E+0	1.215013E+0	1.233148E+0	1.259370E+0	1.212130E+0	1.173541E+0	1.232320E+0	1.188396E+0	1.182774E+0	1.209984E+0	1.208748E+0	1.197076E+0	1.201017E+0	1.171237E+0	1.174642E+0	1.201718E+0	1.207073E+0	1.175239E+0	1.193071E+0	1.177455E+0	1.237141E+0	1.222819E+0	1.227043E+0	1.209649E+0	1.219852E+0	1.212762E+0	1.183198E+0	1.197706E+0	1.201373E+0	1.191790E+0	1.184612E+0	1.163826E+0	1.180284E+0	1.203975E+0	1.249611E+0	1.176044E+0	1.169381E+0	1.237989E+0	1.223761E+0	1.182992E+0	1.165784E+0	1.249297E+0	1.200747E+0	1.205629E+0	1.202834E+0	1.229370E+0	1.227141E+0	1.214838E+0	1.226659E+0	1.168495E+0	1.182514E+0	1.228192E+0	1.220253E+0	1.227525E+0	1.188191E+0	1.167150E+0	1.220992E+0	1.182218E+0	1.183643E+0	1.235277E+0	1.195533E+0	1.272290E+0	1.202009E+0	1.224416E+0	1.194216E+0	1.168891E+0	1.220956E+0	1.214227E+0	1.166965E+0	1.154172E+0	1.209621E+0	1.198379E+0	1.256026E+0	1.191897E+0	1.224445E+0	1.154715E+0	1.191909E+0	1.182317E+0	1.178878E+0	1.253631E+0	1.158291E+0	1.215461E+0	1.182236E+0	1.299502E+0	1.283159E+0	1.134301E+0	1.205699E+0	1.192272E+0	1.196202E+0	1.198971E+0	1.247813E+0	1.187344E+0	1.236223E+0	1.173707E+0	1.206365E+0	1.226064E+0	1.160610E+0	1.223464E+0	1.238351E+0	1.174107E+0	1.191091E+0	1.116231E+0	1.147126E+0	1.202311E+0	1.245918E+0	1.208894E+0	1.216847E+0	1.160326E+0	1.236690E+0	1.172795E+0	1.167849E+0	1.206289E+0	1.194831E+0	1.173031E+0	1.188900E+0	1.203674E+0	1.245214E+0	1.209952E+0	1.220814E+0	1.171780E+0	1.268919E+0	1.214137E+0	1.218624E+0	1.224732E+0	1.232535E+0	1.179212E+0	1.207098E+0	1.182466E+0	1.190392E+0	1.167691E+0	1.196870E+0	1.217073E+0	1.177463E+0	1.161448E+0	1.197259E+0	1.235838E+0	1.242222E+0	1.171084E+0	1.211322E+0	1.167137E+0	1.231318E+0	1.200348E+0	1.249996E+0	1.232864E+0	1.204852E+0	1.249145E+0	1.217777E+0	1.236186E+0	1.262546E+0	1.233440E+0	1.218046E+0	1.187823E+0	1.168889E+0	1.220225E+0	1.186174E+0	1.197594E+0	1.248542E+0	1.196668E+0	1.237210E+0	1.183878E+0	1.215323E+0	1.111512E+0
5.542640E+2	1.230879E+0	1.143586E+0	1.162427E+0	1.173002E+0	1.089322E+0	1.140626E+0	1.167785E+0	1.196475E+0	1.121369E+0	1.108889E+0	1.132183E+0	1.192292E+0	1.085056E+0	1.118639E+0	1.134252E+0	1.147768E+0	1.189690E+0	1.081779E+0	1.114640E+0	1.164317E+0	1.113805E+0	1.154712E+0	1.165113E+0	1.126585E+0	1.154936E+0	1.156281E+0	1.130655E+0	1.156578E+0	1.117387E+0	1.144821E+0	1.159756E+0	1.121792E+0	1.142501E+0	1.137894E+0	1.131736E+0	1.169894E+0	1.126256E+0	1.107345E+0	1.142127E+0	1.154462E+0	1.115382E+0	1.140416E+0	1.140327E+0	1.122482E+0	1.147165E+0	1.098177E+0	1.105257E+0	1.096048E+0	1.107128E+0	1.163671E+0	1.122867E+0	1.116085E+0	1.148859E+0	1.127716E+0	1.149995E+0	1.249058E+0	1.115759E+0	1.120014E+0	1.113974E+0	1.118083E+0	1.109435E+0	1.190390E+0	1.130532E+0	1.159022E+0	1.148880E+0	1.226348E+0	1.109334E+0	1.135775E+0	1.104559E+0	1.185137E+0	1.151837E+0	1.213233E+0	1.148945E+0	1.099855E+0	1.162564E+0	1.176228E+0	1.126289E+0	1.131582E+0	1.145102E+0	1.135207E+0	1.176349E+0	1.128264E+0	1.122702E+0	1.116503E+0	1.141546E+0	1.137964E+0	1.120106E+0	1.179285E+0	1.133525E+0	1.153579E+0	1.162164E+0	1.116598E+0	1.154095E+0	1.133793E+0	1.083273E+0	1.141908E+0	1.194261E+0	1.089938E+0	1.119177E+0	1.146814E+0	1.118968E+0	1.156299E+0	1.112481E+0	1.108193E+0	1.102722E+0	1.101745E+0	1.095066E+0	1.135090E+0	1.229111E+0	1.092820E+0	1.141546E+0	1.184378E+0	1.126522E+0	1.098942E+0	1.098969E+0	1.173281E+0	1.154256E+0	1.143758E+0	1.126250E+0	1.188868E+0	1.159855E+0	1.157812E+0	1.140269E+0	1.107193E+0	1.193922E+0	1.155039E+0	1.094414E+0	1.147107E+0	1.205866E+0	1.108324E+0	1.119038E+0	1.080014E+0	1.153649E+0	1.096057E+0	1.072309E+0	1.127391E+0	1.137164E+0	1.118662E+0	1.139420E+0	1.103579E+0	1.159496E+0	1.109866E+0	1.103212E+0	1.158062E+0	1.153264E+0	1.192723E+0	1.099715E+0	1.136449E+0	1.125056E+0	1.135507E+0	1.128053E+0	1.178179E+0	1.148837E+0	1.146831E+0	1.122195E+0	1.148591E+0	1.210529E+0	1.135824E+0	1.107515E+0	1.095625E+0	1.159585E+0	1.114785E+0	1.111047E+0	1.140938E+0	1.056875E+0	1.095145E+0
5.550360E+2	1.012380E+0	1.076083E+0	1.069995E+0	1.050201E+0	1.062943E+0	1.056811E+0	1.072622E+0	1.054807E+0	1.026473E+0	1.037044E+0	1.042355E+0	1.060871E+0	1.026194E+0	1.048746E+0	1.037795E+0	1.036627E+0	9.901169E-1	1.049929E+0	1.072680E+0	1.014812E+0	1.027239E+0	1.028832E+0	1.006990E+0	1.080001E+0	1.055103E+0	1.051163E+0	1.038134E+0	9.917911E-1	1.095858E+0	1.070126E+0	1.066373E+0	1.022225E+0	1.065709E+0	1.044581E+0	1.046050E+0	9.989096E-1	1.019257E+0	1.022539E+0	1.034585E+0	1.035812E+0	1.061752E+0	1.010802E+0	1.055461E+0	1.024791E+0	1.039091E+0	1.103376E+0	9.854942E-1	1.031966E+0	1.020638E+0	1.056384E+0	1.001184E+0	1.053415E+0	1.057231E+0	1.043367E+0	1.027758E+0	1.062870E+0	1.028430E+0	1.037359E+0	1.032566E+0	1.039112E+0	1.057303E+0	1.035985E+0	9.884036E-1	1.053585E+0	1.077535E+0	1.063884E+0	1.034857E+0	1.041241E+0	1.044942E+0	1.104171E+0	1.073825E+0	1.073654E+0	1.043831E+0	1.000460E+0	1.027213E+0	1.007087E+0	1.019978E+0	1.010082E+0	1.057121E+0	1.052413E+0	1.079542E+0	1.071150E+0	1.018252E+0	1.019458E+0	1.047366E+0	1.122039E+0	1.037174E+0	1.080335E+0	1.062905E+0	1.061116E+0	1.033902E+0	1.058072E+0	1.068586E+0	9.786388E-1	1.006547E+0	9.975546E-1	1.060094E+0	9.955900E-1	1.056720E+0	1.026528E+0	1.038513E+0	1.057919E+0	1.037695E+0	1.042063E+0	9.958487E-1	1.033447E+0	9.601635E-1	1.074257E+0	1.026113E+0	1.024954E+0	1.051357E+0	1.065779E+0	1.061955E+0	1.082812E+0	1.046169E+0	1.044910E+0	1.017285E+0	1.042181E+0	1.059287E+0	1.070729E+0	1.064223E+0	1.116030E+0	1.065284E+0	1.018206E+0	1.074927E+0	1.017341E+0	1.035833E+0	1.069452E+0	1.004206E+0	1.001123E+0	1.046984E+0	9.684798E-1	9.877234E-1	1.061704E+0	1.062834E+0	1.095895E+0	1.003252E+0	1.044035E+0	9.966806E-1	1.091993E+0	1.100050E+0	9.980187E-1	1.024943E+0	1.005652E+0	1.047774E+0	1.039644E+0	1.059589E+0	1.034255E+0	1.082826E+0	9.969782E-1	1.081413E+0	1.020999E+0	1.037560E+0	1.061187E+0	1.026923E+0	1.014310E+0	1.050459E+0	1.026677E+0	1.022878E+0	1.028491E+0	1.112884E+0	1.042572E+0	1.112347E+0	1.021854E+0	1.057274E+0	9.959054E-1
5.557600E+2	9.852546E-1	9.613052E-1	9.147148E-1	9.449805E-1	9.691888E-1	9.732966E-1	9.623971E-1	9.591545E-1	9.671843E-1	9.610967E-1	9.317360E-1	9.430766E-1	9.899555E-1	9.692116E-1	9.876874E-1	9.584205E-1	9.468154E-1	1.011197E+0	9.648569E-1	9.739670E-1	9.499231E-1	9.555274E-1	9.821295E-1	9.747579E-1	9.469746E-1	9.793638E-1	9.767442E-1	9.163691E-1	1.037389E+0	9.531971E-1	9.365698E-1	9.293675E-1	9.780457E-1	9.939893E-1	9.719572E-1	9.238207E-1	1.010053E+0	9.883717E-1	9.446752E-1	9.492409E-1	9.808869E-1	9.699896E-1	9.509700E-1	9.414284E-1	9.372941E-1	9.970555E-1	9.821058E-1	9.816276E-1	9.790262E-1	9.710497E-1	9.265961E-1	9.436887E-1	1.010362E+0	9.695111E-1	9.807262E-1	9.780225E-1	9.645927E-1	9.507045E-1	9.657043E-1	9.910994E-1	9.469185E-1	9.548487E-1	9.757053E-1	9.787939E-1	9.787075E-1	9.953087E-1	1.031427E+0	1.018011E+0	9.697129E-1	9.707690E-1	9.835672E-1	1.023866E+0	9.785968E-1	9.687492E-1	9.783919E-1	9.418104E-1	9.483967E-1	9.334580E-1	9.936272E-1	9.773535E-1	1.018957E+0	9.772559E-1	9.779298E-1	9.514469E-1	9.897741E-1	9.536307E-1	9.567464E-1	9.613888E-1	9.424342E-1	9.836716E-1	9.388482E-1	9.578987E-1	1.012082E+0	9.637237E-1	9.228957E-1	9.265343E-1	9.746392E-1	9.558614E-1	9.657058E-1	9.637698E-1	9.707861E-1	1.007500E+0	9.833711E-1	9.347596E-1	9.444700E-1	9.666490E-1	9.697877E-1	9.787534E-1	9.869602E-1	9.962182E-1	9.847709E-1	9.618110E-1	9.613649E-1	9.726304E-1	9.957850E-1	9.582215E-1	9.359869E-1	9.579757E-1	9.852200E-1	1.026573E+0	9.963566E-1	9.803352E-1	1.022568E+0	9.831744E-1	9.640346E-1	9.747554E-1	9.881361E-1	9.881000E-1	9.573407E-1	9.480519E-1	9.642282E-1	9.724071E-1	9.786571E-1	9.770664E-1	9.654509E-1	1.051141E+0	1.012317E+0	9.762473E-1	9.570077E-1	1.016833E+0	1.004274E+0	9.927552E-1	9.847177E-1	9.614231E-1	1.010232E+0	9.916732E-1	9.858740E-1	9.717860E-1	9.758136E-1	9.846734E-1	1.011617E+0	9.963784E-1	1.019011E+0	9.853406E-1	9.808852E-1	9.989376E-1	1.019903E+0	1.005129E+0	9.794214E-1	9.262126E-1	9.461305E-1	9.731497E-1	9.318606E-1	9.899449E-1	9.356370E-1	9.213593E-1
5.560190E+2	9.933147E-1	9.620681E-1	9.969420E-1	9.681388E-1	9.680195E-1	9.561490E-1	9.458922E-1	9.492029E-1	9.745195E-1	1.010469E+0	8.955762E-1	9.293025E-1	9.384513E-1	1.011084E+0	9.625746E-1	9.444344E-1	1.009131E+0	9.928350E-1	9.452138E-1	9.710626E-1	1.006624E+0	9.494546E-1	1.008909E+0	9.521089E-1	9.453742E-1	9.735913E-1	9.661795E-1	9.669938E-1	9.507836E-1	9.958130E-1	9.784775E-1	9.575157E-1	9.670693E-1	9.951293E-1	9.713661E-1	9.758713E-1	9.562794E-1	9.184295E-1	9.893584E-1	1.001147E+0	9.198591E-1	9.823336E-1	9.646513E-1	9.634484E-1	9.337006E-1	9.830057E-1	9.283935E-1	9.598035E-1	9.679114E-1	1.020773E+0	9.576773E-1	1.003470E+0	9.864230E-1	9.303670E-1	9.472008E-1	9.256073E-1	9.747856E-1	1.004560E+0	9.915735E-1	9.683711E-1	1.015140E+0	9.756976E-1	9.546762E-1	9.855837E-1	9.635741E-1	9.838876E-1	9.883387E-1	1.011857E+0	9.165409E-1	9.364019E-1	9.691227E-1	9.894505E-1	9.763705E-1	9.452442E-1	9.774222E-1	9.612078E-1	9.467622E-1	9.734549E-1	9.970526E-1	9.588115E-1	1.010728E+0	9.286093E-1	9.977230E-1	9.125618E-1	9.388303E-1	9.954927E-1	9.799984E-1	9.517544E-1	9.774444E-1	9.718706E-1	1.001079E+0	9.260853E-1	1.009014E+0	9.951713E-1	9.614580E-1	9.713715E-1	9.808826E-1	9.385195E-1	9.323322E-1	9.977640E-1	9.718203E-1	9.356192E-1	9.601239E-1	9.190849E-1	9.064785E-1	9.935621E-1	9.719823E-1	9.779102E-1	9.509577E-1	9.582627E-1	9.839781E-1	9.823769E-1	9.440132E-1	9.437780E-1	9.648639E-1	9.511929E-1	9.546333E-1	9.583192E-1	9.828540E-1	9.670490E-1	9.279618E-1	1.032294E+0	9.317541E-1	9.492963E-1	1.009985E+0	9.604367E-1	9.889824E-1	9.607425E-1	9.540535E-1	9.743377E-1	9.622972E-1	9.221831E-1	9.557782E-1	9.818729E-1	9.585387E-1	9.824513E-1	9.620800E-1	9.318255E-1	9.826628E-1	9.927250E-1	9.570392E-1	9.448333E-1	9.212791E-1	9.719042E-1	1.002551E+0	9.521138E-1	9.883512E-1	9.672804E-1	9.724201E-1	9.841497E-1	9.859965E-1	1.007357E+0	9.855203E-1	9.437549E-1	9.790995E-1	9.441473E-1	9.940029E-1	9.158101E-1	1.001768E+0	9.314983E-1	9.542120E-1	1.002572E+0	9.844244E-1	9.659360E-1	9.155914E-1	9.046004E-1
5.565030E+2	9.579796E-1	9.507046E-1	1.020244E+0	1.001942E+0	9.363109E-1	9.266287E-1	1.017929E+0	9.545860E-1	9.912950E-1	9.488192E-1	9.386530E-1	9.995716E-1	9.699396E-1	9.444214E-1	9.631702E-1	9.464967E-1	9.357965E-1	9.728200E-1	9.591869E-1	9.550530E-1	9.464805E-1	9.816813E-1	1.006902E+0	9.717512E-1	9.151977E-1	9.836288E-1	9.588542E-1	9.492695E-1	9.957056E-1	9.850043E-1	9.694786E-1	9.318407E-1	9.761984E-1	1.013921E+0	9.952621E-1	9.670808E-1	9.950980E-1	9.577134E-1	9.927108E-1	9.723889E-1	9.473487E-1	9.725719E-1	9.624273E-1	9.472284E-1	9.743889E-1	9.756543E-1	9.660913E-1	9.805478E-1	9.682649E-1	1.000093E+0	9.701068E-1	9.513156E-1	9.956527E-1	9.957298E-1	9.622809E-1	9.688905E-1	9.721404E-1	9.586915E-1	9.726338E-1	9.931707E-1	9.732049E-1	9.863468E-1	1.004546E+0	9.291853E-1	9.331128E-1	9.900826E-1	9.655943E-1	9.845279E-1	9.507271E-1	9.771935E-1	9.766016E-1	1.006409E+0	9.620822E-1	9.386614E-1	9.685381E-1	9.626140E-1	9.595827E-1	9.717175E-1	9.920058E-1	9.583060E-1	1.042415E+0	9.943295E-1	9.698178E-1	9.700768E-1	9.631072E-1	9.556261E-1	9.898453E-1	9.850639E-1	9.671529E-1	1.006715E+0	9.459708E-1	9.437030E-1	9.413130E-1	9.350627E-1	9.523166E-1	9.670874E-1	9.650812E-1	9.583227E-1	9.945338E-1	1.006724E+0	9.729074E-1	9.762330E-1	9.568977E-1	1.014190E+0	9.738960E-1	9.661394E-1	9.781755E-1	9.414733E-1	9.750407E-1	9.411889E-1	9.850002E-1	9.615305E-1	9.509739E-1	9.568880E-1	9.512715E-1	9.777275E-1	9.462422E-1	9.755867E-1	9.782468E-1	9.738605E-1	1.010066E+0	1.000115E+0	1.002571E+0	9.901907E-1	9.750400E-1	1.016054E+0	9.179178E-1	1.043259E+0	1.010261E+0	9.691281E-1	9.672712E-1	9.192191E-1	9.934759E-1	9.851028E-1	9.892117E-1	1.004557E+0	9.246382E-1	1.001179E+0	1.010708E+0	9.652302E-1	9.908318E-1	9.565879E-1	9.706336E-1	9.705057E-1	9.941214E-1	9.327919E-1	9.681092E-1	9.761129E-1	9.497163E-1	1.024602E+0	9.881259E-1	9.752366E-1	1.021454E+0	9.322230E-1	9.629617E-1	1.006552E+0	1.021020E+0	9.708842E-1	9.783854E-1	9.723316E-1	9.904993E-1	9.549863E-1	1.004093E+0	9.602466E-1	9.541667E-1	9.499349E-1
5.570440E+2	1.042232E+0	9.438301E-1	9.446796E-1	9.598513E-1	9.609907E-1	9.813475E-1	9.967857E-1	9.660784E-1	9.921222E-1	9.728821E-1	9.495260E-1	1.000752E+0	9.957602E-1	9.648743E-1	9.783523E-1	9.949966E-1	9.801257E-1	1.002970E+0	9.779515E-1	1.034164E+0	9.442306E-1	9.895122E-1	9.905816E-1	9.770332E-1	9.750104E-1	9.860670E-1	9.613141E-1	9.616933E-1	9.902586E-1	9.983121E-1	1.003570E+0	9.843227E-1	1.013810E+0	9.754426E-1	1.007572E+0	9.910097E-1	9.601536E-1	1.003302E+0	9.544223E-1	9.681922E-1	9.157289E-1	9.949649E-1	9.761464E-1	9.881308E-1	9.617626E-1	9.702180E-1	9.460369E-1	9.891102E-1	9.358020E-1	1.042971E+0	9.878642E-1	1.012187E+0	9.753428E-1	9.687417E-1	9.614043E-1	9.952770E-1	9.547604E-1	9.279554E-1	9.274532E-1	9.810208E-1	9.777645E-1	9.852591E-1	9.734759E-1	1.006171E+0	9.714984E-1	9.870327E-1	9.459007E-1	9.884832E-1	9.521205E-1	9.648946E-1	9.869848E-1	9.846817E-1	1.002848E+0	9.005860E-1	9.648344E-1	9.145229E-1	9.649328E-1	9.672005E-1	9.928011E-1	9.999475E-1	1.022790E+0	9.719673E-1	9.666704E-1	9.927988E-1	9.590770E-1	9.620432E-1	9.935339E-1	1.025889E+0	9.531487E-1	9.919958E-1	9.768751E-1	9.923523E-1	1.012432E+0	9.874654E-1	9.479239E-1	1.012256E+0	9.520521E-1	9.310858E-1	9.872358E-1	9.903453E-1	9.694594E-1	9.857920E-1	1.007996E+0	9.888115E-1	9.467825E-1	1.013750E+0	9.359680E-1	9.914791E-1	1.006760E+0	9.478900E-1	9.438069E-1	9.746627E-1	9.386954E-1	9.482628E-1	9.101310E-1	1.027213E+0	9.763916E-1	9.981228E-1	9.937423E-1	9.914799E-1	9.503466E-1	1.037464E+0	9.700859E-1	9.712414E-1	9.609949E-1	9.410153E-1	9.451875E-1	1.052832E+0	9.975997E-1	9.975771E-1	9.922122E-1	9.033260E-1	9.288482E-1	9.986658E-1	9.698010E-1	9.928559E-1	9.487651E-1	9.935402E-1	1.007061E+0	9.647749E-1	9.671330E-1	9.941475E-1	9.600405E-1	9.906174E-1	1.031371E+0	9.699185E-1	9.489830E-1	9.810977E-1	9.276445E-1	9.941455E-1	1.004135E+0	1.026313E+0	9.901807E-1	9.332472E-1	1.027014E+0	9.619280E-1	9.976226E-1	1.009520E+0	9.581692E-1	9.359149E-1	9.781887E-1	9.914411E-1	1.025706E+0	1.008765E+0	9.226780E-1	1.002845E+0
5.575190E+2	9.908708E-1	9.933124E-1	1.040820E+0	9.693765E-1	9.839636E-1	9.703187E-1	1.022465E+0	1.011190E+0	9.907367E-1	9.548840E-1	1.021408E+0	1.022038E+0	1.012287E+0	9.810155E-1	9.864826E-1	9.558831E-1	9.570680E-1	9.878106E-1	9.288072E-1	9.470698E-1	9.839314E-1	1.006701E+0	1.027895E+0	9.805058E-1	9.593876E-1	9.795489E-1	9.780261E-1	9.874194E-1	9.391335E-1	1.008301E+0	9.858411E-1	9.628069E-1	9.446813E-1	9.674479E-1	9.586795E-1	9.808843E-1	9.436799E-1	9.641345E-1	9.699212E-1	9.533934E-1	9.626561E-1	9.859435E-1	9.831469E-1	9.949281E-1	9.834897E-1	1.017067E+0	9.866890E-1	9.961519E-1	9.659063E-1	9.983538E-1	9.510182E-1	9.779565E-1	9.550707E-1	9.972166E-1	9.756491E-1	9.640320E-1	9.809077E-1	9.617898E-1	9.922919E-1	9.877690E-1	1.002608E+0	9.562446E-1	9.889317E-1	1.007960E+0	9.581246E-1	9.586820E-1	9.949706E-1	9.662313E-1	1.001159E+0	9.538005E-1	1.001957E+0	9.557105E-1	9.624023E-1	1.024524E+0	9.528920E-1	9.866860E-1	9.582159E-1	1.010895E+0	9.809908E-1	9.774864E-1	1.009857E+0	9.887224E-1	9.834893E-1	9.455302E-1	9.706119E-1	9.654351E-1	1.016523E+0	9.609776E-1	9.827628E-1	9.707982E-1	9.563595E-1	1.011890E+0	9.379134E-1	9.757681E-1	9.870228E-1	9.953006E-1	9.922055E-1	9.820537E-1	9.609294E-1	9.267202E-1	9.902502E-1	9.640606E-1	9.933103E-1	9.754598E-1	9.580235E-1	9.792858E-1	1.015114E+0	9.359891E-1	1.017857E+0	9.790455E-1	9.603473E-1	9.803726E-1	1.023017E+0	9.598984E-1	9.450430E-1	9.856758E-1	9.867423E-1	1.010400E+0	9.878573E-1	9.695933E-1	9.729185E-1	9.368997E-1	9.696605E-1	9.697245E-1	9.728256E-1	9.621247E-1	1.004267E+0	9.678931E-1	9.815384E-1	9.639452E-1	9.763382E-1	1.037390E+0	9.741978E-1	9.882445E-1	9.586467E-1	9.971375E-1	9.754312E-1	9.872411E-1	9.799415E-1	9.271281E-1	1.000137E+0	9.277057E-1	9.720396E-1	9.687215E-1	9.855159E-1	9.809722E-1	9.912456E-1	1.028650E+0	9.963869E-1	1.033584E+0	1.005666E+0	9.758631E-1	9.562577E-1	1.018644E+0	1.020050E+0	9.947501E-1	9.721321E-1	9.923931E-1	9.942423E-1	9.544059E-1	9.818244E-1	9.900817E-1	1.015262E+0	9.488782E-1	9.793914E-1	9.033835E-1
5.580230E+2	9.813792E-1	9.949717E-1	9.587909E-1	1.029420E+0	9.673056E-1	1.006174E+0	9.155378E-1	9.914419E-1	1.012582E+0	9.986408E-1	1.007905E+0	9.964617E-1	1.005751E+0	9.948744E-1	1.022842E+0	1.034436E+0	1.012311E+0	1.015127E+0	1.043704E+0	9.894343E-1	1.003025E+0	1.007928E+0	9.699876E-1	9.885111E-1	1.003482E+0	1.011391E+0	1.006270E+0	1.020240E+0	1.020306E+0	1.025138E+0	9.894615E-1	9.883933E-1	1.012910E+0	1.036805E+0	1.007070E+0	1.031758E+0	1.021558E+0	9.937514E-1	9.365747E-1	1.010379E+0	9.502756E-1	1.009543E+0	1.020015E+0	9.913165E-1	1.005825E+0	1.027443E+0	9.984516E-1	9.838087E-1	9.655402E-1	1.023957E+0	1.043365E+0	9.849742E-1	1.024352E+0	1.014841E+0	9.814460E-1	9.888107E-1	1.017019E+0	1.060499E+0	1.027145E+0	1.003989E+0	1.014262E+0	1.019731E+0	1.006225E+0	1.002143E+0	1.021680E+0	9.863628E-1	1.010003E+0	1.005387E+0	9.658895E-1	9.983037E-1	1.032599E+0	9.819712E-1	9.915672E-1	9.754297E-1	1.012536E+0	1.050125E+0	9.962633E-1	9.548083E-1	9.992065E-1	1.006156E+0	1.003171E+0	1.061096E+0	1.006047E+0	9.766397E-1	1.015663E+0	1.021761E+0	1.041026E+0	9.635241E-1	9.944630E-1	1.059014E+0	9.952930E-1	9.814236E-1	1.026046E+0	1.017091E+0	9.990263E-1	9.670436E-1	9.894418E-1	9.802113E-1	1.017400E+0	1.052008E+0	1.014125E+0	9.600802E-1	9.957693E-1	1.028801E+0	1.012324E+0	9.891329E-1	9.837658E-1	1.023607E+0	1.040658E+0	9.719672E-1	9.970307E-1	1.035564E+0	1.009860E+0	1.005651E+0	9.934962E-1	9.998904E-1	9.880944E-1	9.718145E-1	9.716808E-1	1.020762E+0	1.000895E+0	1.028881E+0	1.025602E+0	1.017068E+0	9.840183E-1	9.752041E-1	9.846623E-1	1.008189E+0	9.430551E-1	1.040477E+0	1.004743E+0	9.588346E-1	1.007530E+0	9.939451E-1	1.028666E+0	9.642500E-1	9.896640E-1	1.035937E+0	9.779204E-1	1.005383E+0	9.952766E-1	1.030480E+0	9.376930E-1	1.006590E+0	9.932143E-1	1.004466E+0	9.716277E-1	1.042328E+0	1.051033E+0	1.024656E+0	9.443871E-1	1.009368E+0	9.989778E-1	9.745796E-1	9.999596E-1	9.840541E-1	9.844983E-1	9.628032E-1	9.996447E-1	9.583483E-1	1.035398E+0	1.019989E+0	1.026020E+0	1.050847E+0	9.681052E-1	1.008450E+0
5.585220E+2	1.021844E+0	9.846842E-1	9.766589E-1	1.012919E+0	1.029870E+0	1.017490E+0	1.035952E+0	1.036732E+0	1.015044E+0	1.029662E+0	9.925986E-1	1.021152E+0	1.008022E+0	9.717398E-1	9.484648E-1	1.013370E+0	1.049642E+0	1.017813E+0	1.021895E+0	1.018254E+0	9.639699E-1	9.865186E-1	9.579214E-1	1.030345E+0	1.031208E+0	1.012364E+0	1.021810E+0	9.916058E-1	1.046842E+0	9.752787E-1	1.000756E+0	1.015224E+0	1.009077E+0	1.013919E+0	1.061019E+0	1.004544E+0	9.913671E-1	1.062436E+0	1.013416E+0	9.861590E-1	1.023610E+0	9.798862E-1	9.880954E-1	1.046495E+0	1.022231E+0	1.007182E+0	9.958254E-1	1.007968E+0	9.642138E-1	9.549872E-1	1.033372E+0	1.017654E+0	1.009051E+0	1.061088E+0	1.006796E+0	9.717658E-1	1.039677E+0	1.011667E+0	1.002412E+0	1.004216E+0	1.008239E+0	9.995819E-1	1.011065E+0	9.522324E-1	9.675552E-1	1.053195E+0	9.999484E-1	1.015231E+0	9.945259E-1	1.067918E+0	9.913487E-1	1.006524E+0	1.020239E+0	1.013948E+0	1.037515E+0	9.755716E-1	1.026633E+0	9.878074E-1	9.886682E-1	9.797056E-1	9.814488E-1	9.641023E-1	9.749695E-1	1.017165E+0	1.003294E+0	1.028038E+0	9.889135E-1	9.769367E-1	1.003705E+0	1.019779E+0	9.827696E-1	9.936891E-1	1.007718E+0	9.850433E-1	1.051485E+0	9.961226E-1	9.999995E-1	9.818344E-1	9.836618E-1	1.008634E+0	1.017348E+0	9.949507E-1	9.910562E-1	1.039442E+0	9.574743E-1	1.020037E+0	1.028937E+0	1.015562E+0	1.022512E+0	9.881793E-1	1.019999E+0	9.897575E-1	1.007686E+0	1.010248E+0	1.005805E+0	1.004457E+0	9.984870E-1	9.846714E-1	9.696813E-1	1.006321E+0	1.052793E+0	1.007076E+0	1.021808E+0	1.013812E+0	1.003722E+0	9.972494E-1	1.010454E+0	9.995061E-1	9.938670E-1	1.007471E+0	1.008842E+0	9.989917E-1	1.003951E+0	1.010877E+0	1.012692E+0	9.782668E-1	1.012116E+0	9.594228E-1	9.725494E-1	9.989480E-1	1.029570E+0	1.026916E+0	1.003022E+0	1.018598E+0	1.010633E+0	1.031375E+0	1.009671E+0	1.005054E+0	9.696448E-1	9.746342E-1	9.996320E-1	1.011312E+0	1.005482E+0	9.778668E-1	1.000486E+0	9.666845E-1	1.005326E+0	1.033809E+0	1.013963E+0	9.915674E-1	9.821289E-1	9.768372E-1	1.040255E+0	1.038769E+0	9.760803E-1	9.706193E-1
5.590210E+2	9.945143E-1	1.013116E+0	9.954196E-1	9.836885E-1	9.511700E-1	1.006879E+0	9.704463E-1	9.721035E-1	9.958624E-1	9.763998E-1	9.617628E-1	9.462329E-1	1.044234E+0	1.019553E+0	9.847203E-1	1.013132E+0	1.002173E+0	1.000779E+0	1.032036E+0	1.031370E+0	9.829732E-1	9.757276E-1	1.003507E+0	9.986462E-1	9.555039E-1	1.002437E+0	9.924932E-1	9.274058E-1	1.009283E+0	9.918271E-1	9.667515E-1	9.998814E-1	9.758172E-1	1.018268E+0	9.704100E-1	9.610840E-1	9.720588E-1	9.728570E-1	9.879248E-1	1.001947E+0	1.002596E+0	9.587891E-1	1.009737E+0	9.850533E-1	9.935468E-1	9.995525E-1	9.961661E-1	1.014761E+0	1.029451E+0	1.006092E+0	9.759536E-1	1.001041E+0	9.935935E-1	9.497227E-1	9.874489E-1	1.012016E+0	9.583800E-1	9.721665E-1	1.019467E+0	9.723840E-1	1.004954E+0	9.947776E-1	9.779066E-1	9.992917E-1	1.005709E+0	9.931944E-1	1.026311E+0	1.027350E+0	9.764327E-1	9.727710E-1	9.920469E-1	9.971054E-1	1.001086E+0	9.874875E-1	1.002545E+0	9.873591E-1	1.012777E+0	1.009060E+0	9.640707E-1	1.015248E+0	9.589259E-1	9.366196E-1	9.656640E-1	1.022437E+0	9.854240E-1	9.452135E-1	1.017374E+0	9.879809E-1	1.004803E+0	9.765038E-1	1.043450E+0	1.011752E+0	9.865065E-1	9.680834E-1	9.461837E-1	9.981007E-1	1.006851E+0	9.707515E-1	1.027543E+0	1.017803E+0	9.719913E-1	1.011855E+0	9.844325E-1	9.882706E-1	9.968910E-1	1.004840E+0	9.723464E-1	1.002663E+0	9.400123E-1	9.796586E-1	9.962862E-1	1.019867E+0	1.002525E+0	9.845233E-1	9.713757E-1	9.773567E-1	9.864911E-1	9.715137E-1	1.009632E+0	1.024759E+0	9.491593E-1	1.014022E+0	9.994469E-1	9.533645E-1	1.033349E+0	9.973707E-1	1.020875E+0	1.004420E+0	9.737336E-1	9.830474E-1	1.010776E+0	9.840655E-1	1.015940E+0	1.025907E+0	9.592279E-1	1.013729E+0	9.498563E-1	1.003548E+0	9.814224E-1	9.923369E-1	1.021797E+0	9.481189E-1	1.055164E+0	9.621373E-1	1.027996E+0	9.387080E-1	9.454376E-1	9.865283E-1	9.549044E-1	9.850866E-1	9.956985E-1	9.391806E-1	1.007836E+0	1.030594E+0	9.557863E-1	9.950006E-1	1.017182E+0	1.004689E+0	9.905883E-1	9.977783E-1	1.003437E+0	1.048597E+0	9.738487E-1	9.813831E-1	1.044691E+0	1.047033E+0
5.595050E+2	9.556764E-1	9.975757E-1	1.007862E+0	9.637521E-1	9.945853E-1	1.016707E+0	1.014361E+0	1.039697E+0	9.745990E-1	9.825516E-1	9.726902E-1	1.022397E+0	9.532926E-1	9.928594E-1	1.032280E+0	1.000858E+0	1.007561E+0	9.847514E-1	9.649725E-1	9.943741E-1	1.020818E+0	1.003670E+0	9.874621E-1	9.879658E-1	1.021403E+0	9.679401E-1	9.643239E-1	1.003501E+0	9.921155E-1	9.899437E-1	9.888801E-1	1.004315E+0	9.682769E-1	9.609901E-1	1.007464E+0	9.828411E-1	1.021167E+0	1.003932E+0	1.006998E+0	9.932309E-1	9.663186E-1	1.047009E+0	9.995284E-1	1.006362E+0	9.857500E-1	9.690147E-1	1.004396E+0	9.872934E-1	9.794150E-1	1.020966E+0	9.553280E-1	9.922035E-1	1.028557E+0	9.670603E-1	1.039334E+0	9.963906E-1	9.626312E-1	9.798533E-1	9.690075E-1	9.914750E-1	9.765308E-1	1.030095E+0	9.718394E-1	9.691047E-1	1.016268E+0	9.703422E-1	9.643525E-1	9.819558E-1	9.764984E-1	1.045806E+0	9.625672E-1	9.881508E-1	9.792241E-1	9.615990E-1	9.766263E-1	9.813089E-1	9.788181E-1	9.825467E-1	1.016468E+0	9.910758E-1	1.014539E+0	1.008141E+0	1.018174E+0	1.009363E+0	9.982431E-1	1.004741E+0	9.671763E-1	1.032476E+0	9.850544E-1	9.946201E-1	1.002927E+0	9.530237E-1	9.652829E-1	9.651492E-1	9.498037E-1	9.979747E-1	9.635562E-1	1.003838E+0	9.529725E-1	9.890916E-1	1.005452E+0	9.921995E-1	1.011733E+0	9.826753E-1	9.671601E-1	9.903974E-1	9.998952E-1	9.912199E-1	1.023955E+0	9.896275E-1	1.009763E+0	9.781959E-1	9.592130E-1	9.892756E-1	1.032898E+0	1.002055E+0	1.003432E+0	9.898522E-1	9.698957E-1	9.497994E-1	9.806625E-1	9.591162E-1	9.727494E-1	9.751541E-1	9.881818E-1	1.019585E+0	9.220178E-1	9.889760E-1	9.987472E-1	9.707229E-1	9.841951E-1	9.895531E-1	9.878469E-1	9.765132E-1	9.724046E-1	9.927302E-1	1.012494E+0	1.023406E+0	9.902578E-1	9.973985E-1	9.975604E-1	9.816371E-1	1.013078E+0	1.020846E+0	9.604695E-1	9.721178E-1	9.845109E-1	1.006027E+0	9.664814E-1	9.923449E-1	1.001837E+0	1.002862E+0	9.838776E-1	1.001866E+0	9.366438E-1	1.011554E+0	1.009781E+0	9.627223E-1	1.016519E+0	9.850282E-1	9.973365E-1	9.981626E-1	9.825359E-1	9.993094E-1	9.897946E-1	9.697173E-1
5.600410E+2	9.670262E-1	9.774902E-1	9.713241E-1	9.512588E-1	9.941131E-1	1.000885E+0	9.920347E-1	9.736719E-1	9.722013E-1	1.028454E+0	1.032558E+0	9.615239E-1	9.755688E-1	9.978185E-1	1.005534E+0	9.808837E-1	9.743857E-1	9.969680E-1	1.007953E+0	1.034466E+0	1.007930E+0	9.768657E-1	1.005791E+0	1.005566E+0	9.870670E-1	9.842541E-1	9.758073E-1	1.009355E+0	9.975238E-1	9.980960E-1	1.009435E+0	1.009157E+0	1.041885E+0	9.914502E-1	9.846701E-1	9.963914E-1	1.007560E+0	1.001217E+0	1.036076E+0	1.007806E+0	1.034767E+0	9.799931E-1	1.011792E+0	9.749871E-1	9.789008E-1	1.003293E+0	9.741620E-1	9.535614E-1	1.000269E+0	9.303392E-1	9.979254E-1	9.984124E-1	9.848797E-1	9.829630E-1	9.949668E-1	1.045458E+0	9.840507E-1	9.528746E-1	9.912082E-1	1.020067E+0	9.426966E-1	9.783356E-1	9.799564E-1	1.015500E+0	9.827205E-1	1.015806E+0	1.000708E+0	9.888053E-1	1.032080E+0	9.473547E-1	9.718155E-1	1.014002E+0	9.880036E-1	9.832370E-1	1.014999E+0	9.823442E-1	9.769286E-1	9.987857E-1	9.545662E-1	9.872383E-1	9.934025E-1	9.983632E-1	9.653455E-1	9.970290E-1	1.000404E+0	9.760264E-1	9.479541E-1	1.020145E+0	1.019692E+0	1.002783E+0	1.033798E+0	9.979330E-1	1.029510E+0	1.046236E+0	9.991675E-1	9.940134E-1	1.023428E+0	1.003277E+0	1.024960E+0	9.993603E-1	9.678478E-1	1.038236E+0	9.512431E-1	9.833303E-1	1.016644E+0	1.012452E+0	1.012140E+0	1.002605E+0	9.799368E-1	1.054253E+0	1.016334E+0	9.858273E-1	1.000682E+0	1.010516E+0	9.704328E-1	9.737444E-1	1.001852E+0	1.021025E+0	1.011623E+0	1.007018E+0	1.015088E+0	9.833279E-1	1.003628E+0	1.018014E+0	1.006144E+0	1.028578E+0	1.041965E+0	1.003567E+0	1.013712E+0	9.852827E-1	9.837655E-1	1.004474E+0	9.856846E-1	1.005651E+0	9.780393E-1	9.745923E-1	9.899659E-1	9.920231E-1	1.046296E+0	9.849893E-1	9.687783E-1	1.013615E+0	9.542689E-1	1.004598E+0	1.009834E+0	1.045723E+0	1.020223E+0	9.557556E-1	1.007476E+0	9.687001E-1	1.042188E+0	1.022398E+0	9.986991E-1	1.016708E+0	1.012040E+0	1.022793E+0	9.738724E-1	1.017898E+0	9.976872E-1	9.972039E-1	1.022728E+0	9.363391E-1	9.488024E-1	9.689465E-1	1.013486E+0	1.070220E+0
5.604980E+2	1.011062E+0	1.047940E+0	1.047234E+0	1.076210E+0	1.054742E+0	1.018594E+0	1.048409E+0	1.014117E+0	1.066164E+0	1.013321E+0	1.014279E+0	1.020846E+0	1.007754E+0	1.007479E+0	1.043687E+0	9.886877E-1	1.002935E+0	9.778996E-1	1.003709E+0	9.991474E-1	1.014327E+0	9.978829E-1	1.019628E+0	9.752141E-1	1.017676E+0	1.044668E+0	1.013388E+0	1.019412E+0	1.007698E+0	9.912804E-1	1.019444E+0	1.019938E+0	1.032426E+0	9.922040E-1	9.738917E-1	1.013999E+0	1.048880E+0	9.952761E-1	1.034244E+0	1.029785E+0	9.941440E-1	1.057314E+0	9.741854E-1	9.925746E-1	1.017695E+0	9.712006E-1	1.006848E+0	1.037290E+0	1.069596E+0	1.027447E+0	1.009277E+0	1.017570E+0	1.015598E+0	1.018486E+0	1.030574E+0	9.983931E-1	1.027383E+0	1.039629E+0	9.852653E-1	9.926514E-1	1.046153E+0	1.032004E+0	1.002161E+0	1.016328E+0	1.018359E+0	1.026253E+0	1.001405E+0	1.037916E+0	1.045304E+0	9.887493E-1	1.040815E+0	1.024733E+0	1.039713E+0	1.005878E+0	9.852751E-1	1.021754E+0	1.016367E+0	1.024586E+0	1.042243E+0	9.998872E-1	1.015756E+0	1.028060E+0	1.042402E+0	9.950757E-1	9.890438E-1	1.012287E+0	1.020144E+0	1.052544E+0	1.011374E+0	9.818734E-1	1.010153E+0	1.023170E+0	1.022528E+0	9.878189E-1	1.037704E+0	1.013923E+0	1.044372E+0	1.035332E+0	1.003059E+0	9.895179E-1	1.043537E+0	1.044615E+0	1.025848E+0	1.002231E+0	1.027691E+0	9.841294E-1	1.027982E+0	9.937278E-1	9.691711E-1	1.016601E+0	9.478546E-1	9.853683E-1	9.932603E-1	1.007152E+0	1.046453E+0	1.079505E+0	1.052104E+0	1.019112E+0	1.072492E+0	1.024879E+0	1.046171E+0	1.038258E+0	9.934798E-1	9.667825E-1	9.792130E-1	1.014166E+0	1.017561E+0	1.016120E+0	1.054051E+0	1.001895E+0	1.013136E+0	1.008588E+0	1.015516E+0	1.020430E+0	1.066482E+0	1.044513E+0	1.042277E+0	1.002303E+0	9.991655E-1	1.047900E+0	9.987165E-1	1.003406E+0	1.021176E+0	1.025818E+0	1.032757E+0	1.022236E+0	1.019065E+0	1.016430E+0	1.056132E+0	9.900913E-1	9.789268E-1	9.910280E-1	1.020534E+0	9.783963E-1	1.013681E+0	9.866415E-1	1.023886E+0	1.014015E+0	9.742622E-1	1.028415E+0	1.002222E+0	1.005970E+0	1.013626E+0	1.017814E+0	1.008544E+0	9.714435E-1
5.610070E+2	1.077627E+0	9.909098E-1	1.001890E+0	1.013376E+0	1.024251E+0	9.629524E-1	1.000794E+0	9.610454E-1	9.728110E-1	1.016088E+0	9.967983E-1	1.009348E+0	9.930912E-1	1.034661E+0	9.759890E-1	1.012749E+0	9.939241E-1	1.018851E+0	9.969223E-1	9.858848E-1	1.023025E+0	1.044707E+0	1.027809E+0	1.033246E+0	1.024273E+0	9.973966E-1	1.047882E+0	1.041061E+0	9.870982E-1	1.020136E+0	1.039431E+0	1.000284E+0	1.014927E+0	1.018916E+0	1.036795E+0	1.028499E+0	9.937298E-1	1.006396E+0	1.014844E+0	1.017299E+0	1.065633E+0	9.815223E-1	1.013500E+0	1.008284E+0	1.012562E+0	1.005247E+0	1.037463E+0	1.019166E+0	1.025609E+0	1.037857E+0	1.033760E+0	1.010189E+0	9.888974E-1	1.008622E+0	9.837848E-1	1.023133E+0	1.029952E+0	1.021520E+0	1.013203E+0	1.027448E+0	1.004556E+0	9.892297E-1	1.061915E+0	1.037439E+0	1.029585E+0	9.961639E-1	1.002301E+0	9.771238E-1	1.008111E+0	1.025297E+0	1.006851E+0	1.031803E+0	1.017765E+0	1.047897E+0	1.017611E+0	1.014851E+0	1.033998E+0	1.031511E+0	1.053786E+0	1.043203E+0	1.022900E+0	1.014896E+0	1.043910E+0	1.036760E+0	1.037317E+0	1.046499E+0	1.000890E+0	1.005415E+0	9.981464E-1	9.946279E-1	9.752497E-1	1.027119E+0	1.024494E+0	1.054809E+0	1.029606E+0	1.037521E+0	9.801461E-1	1.042702E+0	1.029474E+0	1.016865E+0	9.894489E-1	9.940032E-1	1.046607E+0	9.997891E-1	1.063792E+0	1.019726E+0	9.598195E-1	1.034626E+0	1.005898E+0	1.020669E+0	1.052385E+0	1.025048E+0	1.003757E+0	1.032737E+0	1.034496E+0	9.773150E-1	9.827969E-1	1.031610E+0	1.007138E+0	9.968680E-1	9.823133E-1	1.032419E+0	1.013625E+0	1.086080E+0	1.032546E+0	1.005722E+0	9.981971E-1	1.011330E+0	1.041296E+0	1.047159E+0	1.018205E+0	1.018103E+0	1.009334E+0	9.784324E-1	1.023840E+0	1.034781E+0	1.028195E+0	9.961186E-1	1.052447E+0	1.045916E+0	9.881637E-1	1.068121E+0	1.043559E+0	9.926917E-1	9.795798E-1	1.004401E+0	1.058219E+0	9.592262E-1	9.979411E-1	1.030903E+0	1.031664E+0	1.047989E+0	1.028336E+0	1.001345E+0	1.061353E+0	1.038523E+0	1.013323E+0	1.011672E+0	1.013094E+0	1.087253E+0	9.749261E-1	1.024024E+0	9.996496E-1	9.940532E-1	1.019907E+0	1.059133E+0
