Photon Energy (eV)	#1	#2	#3	#4	#5	#6	#7	#8	#9	#10	#11	#12	#13	#14	#15	#16	#17	#18	#19	#20	#21	#22	#23	#24	#25	#26	#27	#28	#29	#30	#31	#32	#33	#34	#35	#36	#37	#38	#39	#40	#41	#42	#43	#44	#45	#46	#47	#48	#49	#50	#51	#52	#53	#54	#55	#56	#57	#58	#59	#60	#61	#62	#63	#64	#65	#66	#67	#68	#69	#70	#71	#72	#73	#74	#75	#76	#77	#78	#79	#80	#81	#82	#83	#84	#85	#86	#87	#88	#89	#90	#91	#92	#93	#94	#95	#96	#97	#98	#99	#100	#101	#102	#103	#104	#105	#106	#107	#108	#109	#110	#111	#112	#113	#114	#115	#116	#117	#118	#119	#120	#121	#122	#123	#124	#125	#126	#127	#128	#129	#130	#131	#132	#133	#134	#135	#136	#137	#138	#139	#140	#141	#142	#143	#144	#145	#146	#147	#148	#149	#150	#151	#152	#153	#154	#155	#156	#157	#158	#159	#160	#161	#162	#163	#164	#165	#166	#167	#168	#169	
5.300270E+2	-1.012376E-2	-1.701415E-3	-1.740847E-2	-8.960403E-3	-1.050600E-2	-7.968414E-3	-3.059702E-3	-8.793988E-3	-1.224861E-2	-1.346557E-2	-1.250199E-2	3.724200E-3	-1.496560E-2	-5.746681E-3	-1.294105E-2	-1.177933E-2	-9.670814E-3	-9.755433E-3	-1.338894E-2	-1.154924E-2	-9.918230E-3	-8.491025E-3	-4.072503E-3	-1.231252E-2	-5.628856E-3	-5.107175E-4	-1.851728E-2	3.977069E-3	-1.530916E-2	-3.799351E-3	-6.602323E-3	-5.002077E-3	-1.018965E-2	-1.697610E-2	-4.210571E-3	-1.415503E-2	-1.148225E-2	-4.331139E-3	-8.219516E-3	-1.290796E-2	-3.521805E-3	-9.362620E-3	-1.399061E-2	-1.230972E-2	-8.990345E-3	-8.409744E-3	-8.732205E-3	-3.214031E-3	-1.454222E-2	-1.758100E-2	-1.226994E-3	-1.322617E-2	-5.045402E-3	-1.093534E-2	-8.082847E-3	-5.295166E-3	-5.794375E-3	-1.381505E-2	-1.367518E-2	-1.465152E-2	-9.996186E-3	-9.079126E-3	-4.050254E-3	-7.394640E-3	-1.335459E-2	-1.599723E-2	-1.037760E-2	-4.203597E-3	-4.766968E-3	-7.415443E-3	-1.313600E-2	1.039548E-3	-1.201244E-4	1.469260E-3	-5.575767E-3	-7.579459E-3	-1.150530E-2	-4.584403E-3	-9.013283E-3	-1.469489E-2	-1.403194E-2	-1.106439E-2	-2.085719E-3	-1.176964E-2	-9.574097E-3	-3.633904E-3	-8.557186E-3	-1.658204E-3	-1.309898E-2	-1.573209E-3	-3.597906E-3	-1.359769E-2	-6.112095E-3	-1.480344E-2	-1.128378E-2	-6.352732E-3	-1.353500E-3	-1.080551E-2	-4.809873E-3	-1.645627E-2	-6.889467E-3	-5.001641E-4	9.066923E-4	-9.874533E-4	-9.973317E-3	-4.194205E-3	3.178499E-3	-2.003957E-2	-1.537401E-2	-1.194597E-2	-9.558651E-3	-8.505882E-4	-1.548245E-2	-7.652481E-3	-1.611372E-2	-1.477937E-2	-2.902651E-3	2.677512E-4	-1.632830E-2	-8.903398E-3	-6.290716E-3	-3.392922E-3	-9.031079E-3	-5.504268E-3	-3.331177E-3	-1.001174E-2	-8.921737E-3	-5.399403E-3	-7.650719E-3	-9.282220E-3	-8.319505E-3	-1.180007E-2	-1.591361E-2	-7.376250E-3	-1.036303E-2	-1.837554E-2	-6.494331E-3	-9.495483E-3	-6.094290E-3	-7.319733E-3	-1.225259E-2	-4.323715E-3	-3.517977E-3	-6.608615E-3	2.413919E-4	-9.013073E-3	-2.776194E-3	-1.668115E-2	-2.078892E-2	-1.380512E-3	-3.459371E-4	-4.315465E-3	-1.414556E-2	-1.774742E-2	-6.564102E-3	-5.333811E-3	-1.292000E-2	-6.701061E-3	-4.177748E-3	-7.842157E-3	-1.239480E-2	-9.101392E-3	-1.299732E-2	-1.382834E-2	-5.449097E-3	-7.671759E-3	-6.979686E-3	-6.201174E-4	-9.425833E-3
5.305230E+2	-1.663881E-2	-6.034335E-3	-8.010002E-3	-6.801358E-3	-6.177500E-3	-1.031934E-2	-1.258184E-2	-1.463748E-2	-7.488430E-3	2.202709E-3	-1.032022E-2	-5.664236E-3	-2.328350E-3	-3.956830E-3	-6.828874E-3	-6.843984E-3	-8.295696E-3	-8.404731E-3	-8.624407E-3	-1.084328E-2	1.380895E-3	-7.283406E-3	-1.311796E-2	-1.525197E-3	-2.103765E-4	-4.433826E-3	-7.335092E-3	-2.056781E-2	-1.828191E-3	-6.781247E-3	-2.203014E-3	-8.544147E-3	-7.615710E-3	-2.398925E-3	-9.470512E-3	-1.937491E-3	1.949027E-3	-1.942121E-3	-7.514618E-3	-1.343659E-2	-1.329220E-2	-6.841087E-3	-1.458527E-2	-1.020886E-2	1.806948E-3	-1.522777E-2	-8.616978E-3	-1.205272E-2	-4.053341E-3	-2.890041E-3	-1.522048E-2	-9.982216E-3	-1.356141E-2	-3.130855E-3	-1.629090E-2	-9.685874E-3	-1.288303E-2	-3.818535E-3	-8.597893E-3	-1.045524E-2	-1.462754E-2	-1.327357E-2	1.909752E-3	-1.088696E-2	-7.290016E-3	-8.223185E-3	-1.181199E-2	-6.939684E-4	-9.834905E-3	-1.479694E-2	-3.573683E-3	-5.882379E-3	-1.025660E-2	-7.488219E-3	-9.922708E-3	-3.124941E-3	-3.590533E-3	-3.875975E-3	-1.005675E-2	-8.254603E-3	-1.745894E-3	-6.208292E-3	-9.218363E-3	-1.447818E-2	-1.264822E-2	-7.926280E-3	-1.118820E-2	-5.308875E-3	-2.217306E-3	1.067981E-3	-1.456703E-2	-8.773239E-3	-1.125082E-2	-4.921236E-3	-7.060055E-3	-7.480265E-3	-1.367374E-2	-6.441969E-3	-6.239960E-3	1.948174E-4	1.250769E-4	-4.848125E-3	-1.283658E-2	-8.775342E-3	-7.713990E-3	-7.120486E-3	-1.103524E-2	-7.027818E-3	-9.592541E-3	-7.990813E-4	-6.398206E-3	-6.385802E-3	-8.230470E-3	-2.845529E-3	-3.517550E-3	-8.837254E-3	-1.239365E-4	-1.291353E-2	-5.449096E-3	-1.024526E-2	-1.434190E-2	-1.346086E-3	-1.172907E-2	4.904460E-3	-8.347654E-3	-2.534762E-3	-6.960548E-3	-3.264386E-3	-2.568850E-3	-5.950713E-3	-8.825599E-3	-1.323952E-2	-3.103241E-3	2.745646E-3	-1.014429E-2	-1.155274E-3	-1.297834E-2	-2.426347E-3	-1.358637E-2	-7.222311E-3	-1.411486E-2	-2.570762E-3	-3.379207E-3	-5.243304E-3	-9.652911E-3	6.206310E-4	-9.398202E-3	-1.879362E-2	3.251301E-3	-4.184255E-3	-4.040522E-3	-7.475018E-3	-6.050108E-3	-9.011739E-3	-5.569682E-3	-4.473588E-3	-2.469400E-3	-1.045339E-2	-2.772553E-2	7.975611E-4	-3.427684E-4	-3.197758E-3	-8.961237E-3	-3.496988E-3	-7.740503E-3	-1.185044E-2	-1.711240E-2	-8.786818E-3	2.649414E-3
5.310100E+2	-7.314033E-3	-2.804194E-3	-6.331027E-3	-4.920251E-4	-3.001977E-3	7.311835E-3	-1.399157E-2	1.238925E-3	-8.752152E-3	-6.820490E-3	-1.648545E-2	-1.236537E-2	7.067369E-4	-5.010874E-3	-1.303487E-3	-1.106137E-2	-8.226632E-3	-3.220616E-3	1.459584E-3	-8.044537E-3	-5.021232E-3	-4.211990E-3	-4.503838E-3	-4.088374E-3	-8.833886E-3	-5.742951E-3	-9.875668E-3	-3.872598E-3	4.160099E-3	-7.352914E-3	-1.344934E-2	-5.463675E-3	-4.483735E-3	-9.575006E-3	-1.006008E-2	-1.851426E-3	-1.302425E-2	-1.514401E-2	-1.243219E-2	4.141393E-3	-7.330350E-3	-1.522651E-2	2.463977E-5	-4.012286E-3	-6.480689E-3	-3.624598E-3	-4.106668E-3	-6.607042E-3	-1.349421E-3	-9.828837E-3	9.569699E-4	-4.514366E-4	-7.144125E-3	-6.009589E-3	-7.921481E-3	-3.857682E-3	-7.639504E-3	-6.437523E-3	-7.817101E-3	3.241870E-3	-1.548665E-3	-4.625826E-3	-9.112206E-3	-5.420982E-3	-1.386832E-2	2.163531E-3	-2.672956E-3	-1.230440E-2	-7.445382E-3	-1.183491E-2	-6.022201E-3	-7.706950E-3	-5.696452E-3	-1.003607E-2	-1.111101E-2	-1.107370E-4	-1.014214E-2	-6.289209E-3	-3.161177E-3	-1.136473E-2	-4.537078E-3	-6.116179E-3	-3.875806E-3	1.653917E-3	-5.000966E-3	-7.208299E-3	-4.989913E-3	-8.339383E-3	-1.219776E-2	-3.298509E-3	-8.160252E-3	-1.416176E-2	-6.587272E-3	-6.241588E-3	-4.895191E-3	-8.606308E-3	-4.089253E-3	-3.283400E-3	-1.067918E-2	-1.055038E-2	-1.427158E-2	-1.174731E-2	-8.134471E-3	-8.681889E-3	-1.050930E-3	3.249778E-3	-6.850782E-3	-9.824384E-3	-9.504599E-3	-6.234988E-3	-1.062150E-2	-1.005528E-2	6.251296E-3	-6.285439E-3	-6.902092E-3	-1.170421E-2	-9.427717E-3	-3.941689E-3	-2.642277E-3	-2.128134E-4	-4.093316E-3	-1.559858E-2	-4.689070E-3	-1.153155E-2	-1.081306E-2	-7.976455E-3	-1.817925E-2	-1.608251E-2	-9.623349E-3	-7.780667E-3	-3.814331E-3	-1.086135E-2	-4.211204E-3	-3.149826E-3	-3.479101E-3	-6.769869E-3	-1.143380E-2	8.974681E-3	-8.852708E-3	-1.203397E-2	-6.139930E-3	-1.180467E-2	-7.357143E-3	-6.429262E-3	-1.758687E-2	3.423019E-3	-8.300586E-4	-2.564571E-3	-8.918710E-3	-1.526085E-2	-1.325744E-2	-7.368810E-3	-7.927091E-3	-4.297884E-3	-1.475083E-2	-1.329081E-2	-1.141043E-2	-8.304715E-3	-1.865770E-3	-3.691754E-3	-7.540759E-3	-1.380848E-3	-1.341030E-2	-5.575335E-3	-9.413865E-3	-1.687644E-3	-1.133514E-2	-5.333510E-3	-1.040061E-2
5.315080E+2	-4.577835E-3	-8.262650E-4	-8.129436E-4	-4.707252E-4	-4.193995E-3	-5.342099E-3	1.813418E-4	-5.936574E-3	-1.289911E-3	-6.752161E-3	4.622411E-3	-8.914667E-3	1.437051E-3	-4.949768E-3	2.785135E-3	7.421733E-3	-7.499723E-3	-5.063378E-3	-1.553569E-2	-4.625059E-3	-1.939198E-4	-2.325926E-3	2.343438E-3	-9.456615E-3	-8.088289E-3	-7.624037E-3	8.632247E-3	-1.774321E-3	-2.825945E-3	8.968899E-4	-4.690708E-3	-4.142853E-3	-3.100162E-3	2.425972E-3	-4.598715E-3	-3.204025E-3	-6.169269E-3	-5.937653E-4	1.208685E-2	-1.077483E-2	-1.049137E-2	-1.827687E-3	-5.791507E-3	-2.560869E-3	-5.745686E-3	1.705776E-3	-1.178220E-2	-4.720568E-3	-4.525110E-3	-6.479001E-3	-1.099992E-2	-5.995900E-3	-9.348145E-3	-1.068573E-2	-7.832375E-3	7.128547E-3	6.921860E-3	1.055549E-3	7.495412E-3	-6.863399E-4	-1.149312E-2	-8.447600E-4	-8.373895E-3	8.454962E-3	-7.776569E-3	-2.886150E-3	4.257263E-3	-5.337357E-3	-7.923383E-3	-2.021139E-4	-6.572754E-3	-8.896909E-3	1.705048E-4	-5.980746E-3	-1.494543E-3	-1.475653E-3	-9.776754E-4	-8.712225E-3	3.537396E-4	2.341810E-4	2.764383E-3	5.981805E-3	-5.762857E-3	-1.781614E-2	-1.060419E-2	-7.749047E-3	-4.894921E-3	-1.358933E-3	-4.372334E-3	-5.125258E-3	7.780672E-3	9.143148E-3	-1.907299E-3	4.398559E-3	-3.422410E-3	1.797389E-3	-6.199075E-3	-1.964789E-3	-2.287768E-3	-1.785410E-3	3.409535E-4	-2.115541E-3	-3.420185E-3	-4.639017E-3	1.964660E-3	-1.300175E-2	-4.026078E-3	-9.028184E-3	-6.238104E-3	-3.044253E-5	-4.978933E-3	1.326453E-3	-3.735704E-3	3.183824E-4	8.689686E-4	-1.306324E-3	1.431693E-3	-9.406000E-3	-1.874842E-3	-1.258056E-4	4.142936E-3	-3.754572E-3	9.651794E-4	5.816638E-3	-4.332720E-3	-2.324857E-3	-2.379445E-3	-5.779797E-3	-6.683889E-3	-2.523513E-3	-2.324245E-3	-8.128905E-4	-5.948361E-3	-1.210069E-2	3.851082E-3	-1.114935E-2	4.068190E-3	-1.223930E-2	-8.785676E-3	1.376538E-3	-1.323816E-4	-1.792865E-3	-9.328031E-3	-6.354460E-3	-2.802856E-3	-7.483832E-3	-5.349230E-3	4.634769E-4	-1.207422E-3	-4.949363E-3	-5.143499E-3	-2.015791E-3	-6.512499E-3	2.252377E-3	6.197143E-3	1.679129E-3	2.942928E-3	-1.171345E-3	-2.456128E-3	-3.608431E-3	-5.458682E-3	-7.158338E-3	-7.727641E-4	-9.916568E-3	3.221298E-3	-3.871876E-3	-4.054862E-3	-6.913913E-3	-5.517515E-3
5.320020E+2	8.793583E-3	4.325122E-3	-3.019675E-3	3.246430E-4	5.795363E-3	-3.723786E-4	-7.153187E-3	-2.538261E-3	1.158839E-2	3.136784E-3	3.332000E-3	-7.475006E-3	3.119653E-4	-1.410146E-3	4.580607E-3	-3.600675E-3	5.004911E-3	7.194181E-3	2.845764E-3	5.660022E-3	-1.287917E-3	-4.400308E-4	-4.274789E-3	-5.144880E-4	2.761513E-3	-1.553273E-4	1.529473E-3	-1.687483E-3	-5.053033E-3	-1.547409E-3	-5.028439E-3	-1.676939E-3	1.920716E-3	7.832481E-3	2.101024E-4	-4.563824E-3	7.836395E-5	5.877187E-3	-8.500104E-3	4.979145E-3	4.750677E-3	6.709753E-3	-1.680336E-3	-1.791813E-3	2.753688E-3	2.938377E-3	1.802974E-3	-1.641735E-3	-8.371186E-3	1.144776E-2	-8.920558E-3	2.931984E-3	1.723558E-3	3.743276E-3	4.458220E-3	-3.044138E-3	-8.750979E-3	-3.542821E-3	-1.119936E-2	-2.696174E-3	4.033621E-3	-1.367451E-3	-5.644543E-3	1.967784E-3	5.030911E-3	-4.088184E-3	-4.731981E-3	2.335331E-3	9.479274E-3	3.953583E-3	7.517760E-3	2.745896E-3	-4.237432E-3	-6.720936E-4	6.243301E-3	7.821297E-5	7.608236E-3	-4.648842E-4	-8.077875E-3	-3.110273E-4	2.131902E-3	3.083706E-3	1.580943E-3	1.307544E-2	6.573602E-3	8.092736E-3	-2.077450E-3	4.392875E-3	7.366178E-3	1.374671E-3	-7.994756E-3	1.706821E-3	-7.068069E-3	9.683780E-4	-4.734178E-3	1.897517E-3	-2.415849E-4	3.681021E-3	-2.200931E-3	3.377982E-3	2.347620E-3	-6.488901E-3	7.276864E-3	7.354843E-3	-7.484917E-3	-1.396515E-3	1.554936E-3	4.077453E-3	2.153553E-3	-6.048796E-3	3.789120E-3	-1.178901E-2	-7.253046E-3	4.581680E-3	3.773878E-3	5.438406E-3	8.669203E-4	4.068438E-3	3.661802E-3	-2.624130E-5	-4.614847E-3	8.136733E-3	1.766467E-3	2.465991E-3	2.823169E-3	-3.455675E-3	6.552645E-3	-8.957622E-4	-5.158798E-3	-2.414043E-3	6.238637E-3	-3.791288E-3	-5.854869E-3	-1.750589E-3	-3.308174E-3	5.539085E-3	1.961181E-3	-1.490831E-3	9.211010E-3	-2.039580E-3	5.254060E-3	-4.037999E-3	5.040886E-3	5.301945E-3	-2.799073E-5	-3.720534E-3	3.966357E-3	2.776411E-3	7.138166E-3	2.848382E-4	-3.538731E-4	-6.540446E-3	9.402478E-4	4.088212E-4	-5.964842E-3	1.037908E-3	4.601154E-4	2.469422E-3	7.866870E-3	-1.474665E-2	-2.688984E-3	3.359372E-3	3.305771E-3	1.209999E-3	-9.792006E-3	-7.805723E-3	-2.365121E-3	8.194297E-3	-5.423379E-3
5.325070E+2	8.223618E-3	1.886612E-3	1.043988E-2	5.291490E-3	4.654558E-3	2.173416E-3	4.847306E-3	7.484437E-3	7.664200E-3	5.850504E-3	3.449058E-3	6.909705E-3	1.644755E-3	9.027084E-3	6.329460E-3	7.565493E-3	1.624144E-2	-1.691382E-3	4.738345E-3	7.793435E-3	5.973140E-4	-9.522733E-4	9.949971E-3	1.924086E-2	1.162591E-2	4.039785E-3	6.902684E-3	5.807111E-3	9.739879E-3	6.076152E-3	2.175506E-2	1.450033E-3	1.634303E-2	6.297183E-4	-1.039221E-3	9.919745E-3	4.688520E-3	7.724031E-3	1.171450E-2	1.770521E-2	1.352076E-2	1.472089E-2	1.241363E-2	1.264920E-2	1.045172E-3	3.639197E-3	8.669581E-3	9.250847E-3	9.459941E-3	5.850637E-3	6.095617E-3	5.615266E-3	3.573030E-3	-3.464909E-4	1.037308E-2	7.328501E-3	7.754398E-3	3.876696E-3	1.139148E-2	-1.923946E-3	8.359986E-3	1.170905E-2	8.295195E-3	8.687358E-3	7.821264E-3	1.153929E-2	4.576516E-3	2.427958E-3	7.869019E-3	9.280089E-3	7.006115E-3	4.781966E-3	8.083740E-3	1.126248E-2	8.955089E-3	1.640757E-3	2.857543E-3	4.028803E-3	2.902368E-3	1.070035E-2	-2.853305E-3	3.788463E-3	1.028890E-2	6.176174E-3	7.309977E-3	-6.383620E-4	1.031594E-2	-3.681421E-3	2.817192E-3	-6.239470E-3	7.222541E-3	-4.385955E-3	2.547940E-4	4.589154E-3	5.839416E-3	-4.471940E-4	6.467152E-3	-3.647430E-3	1.760936E-2	1.000970E-2	9.432018E-3	7.025765E-3	4.726011E-3	-2.469773E-3	8.763973E-3	2.949325E-3	-4.087548E-4	1.504898E-2	1.440485E-2	6.318401E-3	1.258021E-2	1.034755E-2	1.091104E-2	-6.619900E-4	6.677341E-3	3.423097E-4	-3.893268E-4	3.064981E-3	3.079188E-3	9.346305E-3	1.798429E-2	2.997737E-3	6.052880E-3	-3.682293E-3	-9.378400E-4	1.650177E-2	9.818577E-3	3.309953E-3	1.506147E-2	4.168650E-3	-2.855335E-3	4.765628E-3	1.500201E-2	1.044949E-2	9.346929E-3	8.203872E-3	6.475676E-3	6.613565E-3	3.064238E-3	2.979790E-3	7.344091E-3	3.092217E-3	7.855024E-3	3.463580E-3	5.826660E-5	2.501186E-3	2.105655E-4	1.098950E-2	3.125094E-3	5.531927E-3	1.050705E-2	8.105393E-3	1.041836E-2	9.588272E-3	-1.099896E-4	2.621544E-3	4.464579E-3	5.520112E-3	7.970573E-3	8.495713E-3	6.107469E-3	-4.388375E-3	9.374921E-3	1.295395E-3	-1.936870E-3	1.027262E-2	2.006454E-2	-2.559125E-3	-7.762280E-3
5.330180E+2	2.163724E-2	5.154475E-3	2.514224E-2	1.110838E-2	1.342955E-2	1.451698E-2	3.175765E-2	2.318294E-2	1.052652E-2	1.584823E-2	2.790418E-2	2.378538E-2	1.319344E-2	1.204722E-2	7.378206E-3	1.829813E-2	1.244651E-2	2.094136E-2	2.850534E-2	2.160866E-2	1.444309E-2	2.370465E-2	1.367568E-2	8.656334E-3	8.373988E-3	1.442707E-2	1.866364E-2	1.811803E-2	1.111635E-2	1.250788E-2	1.021876E-2	2.337966E-2	7.125510E-3	1.806187E-2	2.916899E-2	1.579205E-2	2.395987E-2	8.409817E-3	1.286509E-2	1.029364E-2	1.636429E-2	1.182727E-2	2.360946E-2	1.823435E-2	1.561091E-2	1.897877E-2	2.276549E-2	1.898525E-2	2.338133E-2	1.948049E-2	2.931536E-2	2.110848E-2	2.980249E-2	2.736473E-2	2.529631E-2	7.425813E-3	2.039163E-2	2.268169E-2	2.240264E-2	2.717135E-2	2.527191E-2	1.748169E-2	1.697595E-2	4.592477E-3	2.943732E-2	1.749194E-2	2.076075E-2	1.777604E-2	1.262234E-2	2.101574E-2	1.478076E-2	1.391883E-2	1.205637E-2	1.144538E-2	1.290564E-2	1.057182E-2	1.574987E-2	1.989789E-2	2.705298E-2	2.369072E-2	1.827193E-2	1.053489E-2	9.072905E-3	2.315842E-2	2.394389E-2	1.906316E-2	2.139173E-2	1.595394E-2	2.170301E-2	1.379379E-2	1.931674E-2	3.006867E-2	3.267076E-2	1.601017E-2	2.555620E-2	1.919159E-2	1.909000E-2	2.246207E-2	8.608348E-3	1.520956E-2	8.915379E-3	1.867428E-2	1.148167E-2	1.819863E-2	1.549452E-2	1.951385E-2	1.758742E-2	2.679353E-2	2.415085E-2	1.874088E-2	1.518796E-2	1.740668E-2	1.753933E-2	1.254538E-2	1.521318E-2	3.084644E-2	1.054502E-2	1.886005E-2	1.955353E-2	1.016721E-2	7.213558E-3	1.295769E-2	1.666469E-2	7.531025E-3	2.493928E-2	9.801716E-3	2.006976E-2	2.811191E-2	1.662413E-2	2.378251E-2	1.990038E-2	3.573949E-2	2.002927E-2	1.118222E-2	1.409659E-2	2.370707E-2	1.840142E-2	1.006372E-2	2.504379E-2	2.425927E-2	2.004161E-2	2.143779E-2	1.068645E-2	1.587012E-2	2.977097E-2	1.367260E-2	1.417676E-2	2.380995E-2	1.740050E-2	1.995821E-2	1.263422E-2	1.961014E-2	2.327665E-2	1.880757E-2	2.676230E-2	1.775963E-2	1.893220E-2	1.864098E-2	2.038773E-2	2.059572E-2	2.231852E-2	2.186734E-2	2.346092E-2	3.031183E-2	3.111104E-2	2.261482E-2	2.178267E-2	1.601919E-2	3.588020E-2
5.331580E+2	1.640384E-2	1.863073E-2	2.601950E-2	2.511528E-2	3.277158E-2	1.640115E-2	1.315422E-2	2.128652E-2	1.808586E-2	1.463720E-2	8.642329E-3	1.769084E-2	2.062064E-2	9.923726E-3	1.975787E-2	2.648321E-2	2.375495E-2	2.170646E-2	2.467176E-2	3.070138E-2	2.235190E-2	2.506151E-2	3.195126E-2	3.079898E-2	1.323613E-2	1.527245E-2	2.680580E-2	2.713912E-2	1.890192E-2	1.900469E-2	1.908394E-2	2.905358E-2	2.164392E-2	2.688607E-2	2.291544E-2	2.850143E-2	2.697211E-2	1.730940E-2	2.294456E-2	2.270526E-2	2.773844E-2	3.878508E-2	3.194704E-2	2.147224E-2	1.878172E-2	2.203156E-2	2.099630E-2	2.525602E-2	2.480490E-2	2.736216E-2	2.305654E-2	3.470121E-2	1.020657E-2	2.934805E-2	2.002874E-2	2.514299E-2	1.719444E-2	1.884330E-2	1.076832E-2	1.977844E-2	2.778953E-2	1.136976E-2	2.165938E-2	2.891933E-2	2.824945E-2	1.243637E-2	2.544925E-2	2.692922E-2	1.972669E-2	2.233018E-2	2.835708E-2	2.051259E-2	1.670408E-2	1.354696E-2	3.610986E-2	1.954390E-2	3.052924E-2	1.876332E-2	1.976625E-2	2.061774E-2	1.403532E-2	2.639238E-2	2.711309E-2	9.229450E-3	2.854523E-2	1.539816E-2	2.221862E-2	1.167356E-2	3.110808E-2	2.423034E-2	1.865262E-2	3.159522E-2	7.063034E-3	3.598719E-2	3.271004E-2	2.790486E-2	2.661150E-2	2.074048E-2	4.756003E-2	2.335748E-2	1.541203E-2	3.230010E-2	1.959997E-2	3.031533E-2	2.520870E-2	1.965542E-2	1.772888E-2	2.403727E-2	3.908047E-2	3.682551E-2	2.903466E-2	2.007606E-2	2.203036E-2	2.163456E-2	2.097543E-2	5.720053E-3	2.220888E-2	2.406861E-2	3.746358E-2	2.319039E-2	2.584517E-2	1.374601E-2	3.013083E-2	3.550504E-2	2.315567E-2	1.492062E-2	2.275143E-2	2.759917E-2	2.541691E-2	8.311381E-3	1.223037E-2	1.966765E-2	2.262820E-2	3.076465E-2	2.418966E-2	2.386690E-2	3.926924E-2	2.293487E-2	2.048850E-2	1.309046E-2	2.948300E-2	2.925561E-2	2.790833E-2	1.665364E-2	3.869771E-2	2.736444E-2	2.435603E-2	3.064325E-2	2.228567E-2	2.241787E-2	2.899098E-2	2.775336E-2	1.469237E-2	2.547525E-2	2.836723E-2	9.646701E-3	2.431843E-2	3.124125E-2	2.053471E-2	1.479362E-2	1.306238E-2	9.552176E-3	3.361165E-2	2.089361E-2	1.508090E-2	2.452438E-2	2.113045E-2	2.629011E-2	3.362955E-2
5.333130E+2	3.186034E-2	4.236221E-2	2.230923E-2	1.334794E-2	2.916707E-2	3.423769E-2	3.205932E-2	3.880065E-2	2.430183E-2	4.174035E-2	2.770319E-2	4.329472E-2	3.044976E-2	2.567298E-2	2.417905E-2	3.899658E-2	2.122034E-2	4.183529E-2	2.817136E-2	2.606762E-2	2.007888E-2	3.181479E-2	3.714604E-2	2.958455E-2	3.168167E-2	3.797971E-2	3.233393E-2	2.865133E-2	3.973469E-2	2.608269E-2	3.017796E-2	4.202728E-2	2.306200E-2	2.235049E-2	2.682320E-2	3.154672E-2	2.543308E-2	2.679926E-2	3.444067E-2	1.521284E-2	2.791789E-2	3.104452E-2	3.150342E-2	2.923309E-2	3.651473E-2	3.629196E-2	3.586791E-2	4.293888E-2	5.074075E-2	2.623596E-2	2.817272E-2	2.973962E-2	4.065761E-2	2.772246E-2	3.152828E-2	3.522456E-2	3.783819E-2	4.721271E-2	3.685021E-2	2.626699E-2	3.637498E-2	3.385956E-2	4.021994E-2	2.611679E-2	2.300900E-2	3.341497E-2	2.952083E-2	3.213717E-2	1.582149E-2	1.493322E-2	3.610053E-2	3.913500E-2	3.761169E-2	2.626244E-2	4.917509E-2	2.664820E-2	4.050012E-2	2.337336E-2	3.304459E-2	2.530103E-2	3.089818E-2	4.414634E-2	3.534966E-2	2.852649E-2	3.638364E-2	2.444719E-2	3.766827E-2	2.213411E-2	3.518799E-2	4.122459E-2	3.531041E-2	3.469585E-2	2.904435E-2	2.907513E-2	4.038739E-2	2.383980E-2	3.120140E-2	2.774132E-2	4.083791E-2	3.374558E-2	2.513337E-2	4.148990E-2	2.842164E-2	2.382582E-2	3.717928E-2	2.468598E-2	3.236818E-2	3.367973E-2	3.604212E-2	3.812755E-2	4.480204E-2	3.988596E-2	3.599021E-2	3.615032E-2	3.663618E-2	3.339287E-2	2.712097E-2	2.310629E-2	4.243032E-2	3.123792E-2	4.042694E-2	3.434375E-2	3.098545E-2	2.869996E-2	5.306818E-2	2.193314E-2	3.498266E-2	3.328299E-2	1.761303E-2	3.454776E-2	3.226468E-2	2.832612E-2	2.830591E-2	3.885320E-2	3.564368E-2	2.852847E-2	2.607828E-2	3.383718E-2	3.003329E-2	2.952661E-2	4.161779E-2	1.760753E-2	3.354861E-2	3.299465E-2	3.413771E-2	2.319865E-2	3.456215E-2	3.823308E-2	3.429777E-2	3.580646E-2	2.981429E-2	3.658728E-2	2.898429E-2	4.589990E-2	4.305792E-2	1.579916E-2	3.431181E-2	4.389901E-2	2.274429E-2	2.827203E-2	2.397475E-2	3.134724E-2	3.444455E-2	2.846302E-2	2.906125E-2	3.284551E-2	3.893671E-2	3.571651E-2	4.595574E-2
5.334630E+2	3.137395E-2	4.959699E-2	4.806419E-2	2.475689E-2	3.678675E-2	3.451268E-2	2.954984E-2	3.566401E-2	3.193443E-2	2.943332E-2	2.272872E-2	3.458182E-2	3.537807E-2	3.155042E-2	4.203031E-2	4.223237E-2	1.873610E-2	4.850611E-2	3.621994E-2	3.304200E-2	4.127361E-2	4.642115E-2	3.563530E-2	3.719461E-2	3.794295E-2	5.245022E-2	4.684661E-2	3.756541E-2	3.229199E-2	2.806103E-2	4.503217E-2	3.784534E-2	3.755997E-2	2.784296E-2	3.954092E-2	4.694247E-2	4.371655E-2	4.921558E-2	4.768117E-2	4.527857E-2	4.738716E-2	4.276340E-2	3.223341E-2	4.523030E-2	4.510301E-2	5.341641E-2	4.091004E-2	4.856123E-2	5.421293E-2	5.025464E-2	3.342316E-2	5.362161E-2	4.201103E-2	3.754400E-2	4.155217E-2	3.863410E-2	3.264427E-2	3.386483E-2	3.562718E-2	4.721072E-2	3.347701E-2	3.896855E-2	5.125231E-2	3.720414E-2	4.275611E-2	3.227399E-2	5.053311E-2	3.787200E-2	2.762746E-2	2.442801E-2	3.274242E-2	3.084643E-2	4.751717E-2	3.824847E-2	3.571383E-2	3.719883E-2	4.865026E-2	4.065837E-2	3.551402E-2	3.581480E-2	4.418364E-2	5.285098E-2	2.622625E-2	5.287091E-2	3.400418E-2	3.288867E-2	4.830724E-2	4.282574E-2	4.792219E-2	4.079215E-2	3.898985E-2	4.749264E-2	4.979379E-2	4.848606E-2	4.644032E-2	3.573971E-2	4.026756E-2	3.914056E-2	5.168162E-2	3.719622E-2	5.158595E-2	3.012840E-2	3.862984E-2	3.845041E-2	3.889357E-2	3.534443E-2	3.150043E-2	4.815858E-2	4.269920E-2	3.949908E-2	4.167499E-2	4.138163E-2	2.451390E-2	3.996363E-2	3.885466E-2	4.420000E-2	5.186935E-2	3.346459E-2	4.919139E-2	3.313386E-2	4.067457E-2	2.860752E-2	4.276683E-2	5.299704E-2	3.580808E-2	3.529936E-2	3.923644E-2	4.462641E-2	3.299823E-2	3.935193E-2	3.543356E-2	4.640790E-2	4.020950E-2	5.373652E-2	1.909904E-2	3.457230E-2	4.112956E-2	3.538164E-2	3.634386E-2	4.752183E-2	4.584251E-2	5.508641E-2	4.655509E-2	3.971055E-2	4.314286E-2	4.381239E-2	4.561794E-2	5.560838E-2	3.570291E-2	3.660851E-2	6.056735E-2	4.149111E-2	4.810019E-2	4.612224E-2	2.943112E-2	3.482706E-2	2.335956E-2	5.128267E-2	3.187468E-2	3.449758E-2	3.226573E-2	4.142269E-2	3.866868E-2	4.729054E-2	3.168237E-2	5.572590E-2	3.434639E-2	3.510304E-2	4.132088E-2
5.336130E+2	5.771035E-2	5.174623E-2	4.756532E-2	5.013150E-2	5.260660E-2	4.891416E-2	4.996554E-2	4.325072E-2	3.895276E-2	5.145519E-2	4.248985E-2	6.380473E-2	4.468452E-2	4.332344E-2	4.175292E-2	4.432941E-2	4.736367E-2	5.782076E-2	5.953001E-2	6.138278E-2	4.872872E-2	4.666708E-2	6.335075E-2	7.528928E-2	6.270202E-2	5.128924E-2	5.550992E-2	5.680617E-2	5.396181E-2	4.660761E-2	4.691093E-2	5.941173E-2	4.594498E-2	5.826392E-2	4.420003E-2	5.666350E-2	4.909534E-2	4.007647E-2	6.506693E-2	4.489479E-2	7.310508E-2	5.339571E-2	6.006750E-2	5.930033E-2	6.303639E-2	5.607255E-2	5.982616E-2	4.701212E-2	7.240256E-2	5.183626E-2	6.394276E-2	6.102145E-2	5.341341E-2	4.021777E-2	6.334159E-2	5.323513E-2	6.271498E-2	6.243452E-2	4.104121E-2	4.260336E-2	5.183050E-2	4.922227E-2	6.753694E-2	6.605739E-2	5.656241E-2	4.165958E-2	5.876380E-2	5.701311E-2	4.773911E-2	6.101132E-2	4.537127E-2	5.980267E-2	8.034228E-2	5.710480E-2	4.966882E-2	4.934108E-2	6.429152E-2	5.554662E-2	5.296729E-2	4.903030E-2	7.294114E-2	6.471713E-2	8.938257E-2	5.030529E-2	4.320642E-2	6.504716E-2	5.791380E-2	5.969999E-2	5.995817E-2	4.753498E-2	6.386634E-2	6.374291E-2	6.138111E-2	3.945396E-2	7.170232E-2	6.190442E-2	5.685243E-2	6.253269E-2	5.404936E-2	4.700292E-2	4.866529E-2	6.595029E-2	5.217095E-2	4.340214E-2	3.911209E-2	6.450638E-2	3.689884E-2	6.018410E-2	5.977237E-2	5.897624E-2	5.002142E-2	6.012491E-2	3.420882E-2	5.165524E-2	4.834292E-2	4.304523E-2	5.421965E-2	5.466381E-2	7.080569E-2	5.674508E-2	6.027768E-2	5.874720E-2	4.944251E-2	5.348539E-2	4.842936E-2	5.003046E-2	4.841310E-2	5.049538E-2	6.594011E-2	5.668919E-2	4.107453E-2	6.259733E-2	7.079368E-2	5.103189E-2	5.258439E-2	6.318455E-2	5.785423E-2	5.665983E-2	5.880386E-2	5.467848E-2	5.886780E-2	4.476538E-2	5.382204E-2	5.179703E-2	5.359769E-2	6.770363E-2	4.619244E-2	5.330800E-2	6.465297E-2	5.835779E-2	6.490663E-2	5.507995E-2	4.575327E-2	5.372269E-2	6.455242E-2	3.785256E-2	3.812398E-2	3.851626E-2	6.282392E-2	7.119769E-2	3.389148E-2	4.899300E-2	5.558312E-2	7.163447E-2	4.945448E-2	4.835854E-2	5.078321E-2	5.503259E-2	3.918672E-2
5.337630E+2	7.137542E-2	7.833496E-2	7.340455E-2	8.752080E-2	8.660492E-2	6.880317E-2	7.723654E-2	7.180922E-2	5.964107E-2	4.900296E-2	6.362800E-2	7.104520E-2	6.379966E-2	6.690816E-2	7.434320E-2	7.086660E-2	7.144973E-2	8.538187E-2	5.923288E-2	7.817324E-2	7.857908E-2	7.418869E-2	1.058444E-1	9.238151E-2	7.804585E-2	7.228845E-2	6.242673E-2	7.359747E-2	7.613967E-2	6.542219E-2	5.553732E-2	6.180583E-2	7.453609E-2	8.414228E-2	7.922609E-2	8.260658E-2	6.596335E-2	7.925338E-2	8.942718E-2	6.955530E-2	7.815201E-2	8.326125E-2	7.606710E-2	5.629109E-2	7.310552E-2	8.537928E-2	5.964019E-2	5.830036E-2	7.207374E-2	6.967819E-2	7.022687E-2	8.728504E-2	7.487952E-2	5.811011E-2	7.768992E-2	7.315997E-2	7.511650E-2	8.035418E-2	7.617227E-2	7.359295E-2	7.944286E-2	8.706665E-2	7.235888E-2	8.471861E-2	8.403867E-2	7.932391E-2	6.852045E-2	8.751290E-2	5.742820E-2	6.488124E-2	8.413133E-2	7.975144E-2	7.090422E-2	7.013183E-2	7.865095E-2	7.797903E-2	7.632592E-2	6.987165E-2	7.455159E-2	8.512713E-2	7.765474E-2	6.688091E-2	9.806696E-2	6.839743E-2	7.113368E-2	7.498459E-2	5.512438E-2	7.731740E-2	7.573234E-2	7.989570E-2	8.465702E-2	7.605337E-2	6.679757E-2	8.345335E-2	6.386390E-2	6.780252E-2	7.500252E-2	6.660419E-2	5.923845E-2	6.423711E-2	7.858025E-2	7.926177E-2	6.520100E-2	7.134351E-2	5.945419E-2	8.890895E-2	7.915503E-2	7.153468E-2	8.406253E-2	6.722412E-2	8.771829E-2	6.871881E-2	9.156304E-2	5.316563E-2	7.200663E-2	7.264415E-2	8.536247E-2	7.486852E-2	8.295729E-2	8.829141E-2	8.689245E-2	7.769617E-2	7.896414E-2	5.869952E-2	7.477718E-2	7.616340E-2	7.045444E-2	8.134463E-2	7.499454E-2	7.477021E-2	8.612654E-2	7.540218E-2	7.920057E-2	6.730423E-2	6.186083E-2	7.327716E-2	7.232370E-2	7.117916E-2	9.008966E-2	6.857453E-2	6.989774E-2	6.112464E-2	9.373273E-2	7.562217E-2	9.269255E-2	6.554721E-2	7.364492E-2	8.215203E-2	7.755026E-2	8.246813E-2	7.009234E-2	8.374188E-2	7.523230E-2	7.971435E-2	7.471112E-2	7.087268E-2	7.669849E-2	7.714171E-2	8.633623E-2	5.940796E-2	6.332176E-2	7.573459E-2	8.815841E-2	7.208031E-2	7.895203E-2	6.808317E-2	5.894644E-2	7.940443E-2	6.762256E-2
5.339140E+2	9.999958E-2	1.096763E-1	1.131306E-1	9.659898E-2	1.140598E-1	1.194178E-1	1.054446E-1	1.090872E-1	9.710075E-2	9.718881E-2	1.173617E-1	1.074582E-1	9.039933E-2	9.053893E-2	1.114785E-1	1.002474E-1	1.117781E-1	1.236110E-1	9.413695E-2	1.068145E-1	1.177459E-1	1.067207E-1	1.519613E-1	1.357133E-1	1.380163E-1	1.402062E-1	1.140086E-1	1.306551E-1	1.375970E-1	1.160819E-1	1.234464E-1	1.009405E-1	1.260489E-1	1.209805E-1	1.302993E-1	1.005727E-1	1.075133E-1	1.156954E-1	1.162020E-1	1.079182E-1	1.120762E-1	1.336376E-1	1.047420E-1	1.083507E-1	1.094666E-1	1.082424E-1	1.227945E-1	1.039288E-1	1.243944E-1	1.077785E-1	1.294977E-1	1.144997E-1	1.017747E-1	1.236472E-1	1.319102E-1	1.221537E-1	1.054318E-1	9.357092E-2	1.153741E-1	1.398616E-1	1.076626E-1	1.106997E-1	1.177924E-1	9.065115E-2	1.246295E-1	1.086556E-1	1.102238E-1	1.160771E-1	8.659203E-2	1.147896E-1	1.130234E-1	9.006547E-2	1.210248E-1	1.098569E-1	1.137942E-1	1.129686E-1	1.174890E-1	1.169466E-1	1.055008E-1	1.058559E-1	1.110540E-1	8.806212E-2	1.080848E-1	9.874622E-2	1.127847E-1	1.023177E-1	1.110236E-1	9.511014E-2	1.104622E-1	9.143232E-2	1.149215E-1	9.121716E-2	1.094067E-1	1.017620E-1	1.198798E-1	1.061362E-1	1.081815E-1	1.147623E-1	9.395617E-2	9.941969E-2	1.170345E-1	1.121918E-1	1.001721E-1	1.048345E-1	1.150206E-1	9.612001E-2	9.898857E-2	1.014473E-1	1.163168E-1	1.107866E-1	9.813670E-2	1.100865E-1	1.044372E-1	1.006715E-1	1.018505E-1	9.711028E-2	1.063749E-1	1.105587E-1	1.256332E-1	1.222057E-1	1.087633E-1	1.041228E-1	9.147015E-2	9.938172E-2	1.320523E-1	1.030839E-1	1.013782E-1	8.660746E-2	9.944987E-2	9.956100E-2	1.240629E-1	1.252013E-1	1.019625E-1	9.848435E-2	1.204791E-1	1.109047E-1	1.041364E-1	1.096055E-1	1.010727E-1	1.027117E-1	9.913855E-2	9.553240E-2	1.365653E-1	1.212399E-1	1.081292E-1	1.108459E-1	1.048560E-1	9.984471E-2	1.109727E-1	1.125599E-1	1.168632E-1	1.315676E-1	1.028910E-1	9.263276E-2	1.218385E-1	1.048129E-1	9.761048E-2	1.190034E-1	1.046687E-1	1.150929E-1	1.119700E-1	1.086186E-1	1.092312E-1	1.070236E-1	1.042904E-1	1.204685E-1	1.228880E-1	1.259075E-1	1.502637E-1
5.340590E+2	1.565904E-1	1.629865E-1	1.543127E-1	1.265806E-1	1.568868E-1	1.646269E-1	1.540638E-1	1.475246E-1	1.692586E-1	1.694350E-1	1.592849E-1	1.855252E-1	1.541041E-1	1.660709E-1	1.575889E-1	1.385483E-1	1.416039E-1	1.718772E-1	1.682800E-1	1.684079E-1	1.433473E-1	1.545045E-1	2.354212E-1	2.055449E-1	1.968673E-1	1.968318E-1	1.960289E-1	1.969195E-1	1.751632E-1	1.824835E-1	1.676038E-1	1.718928E-1	2.002116E-1	1.895735E-1	1.693872E-1	1.725052E-1	2.009636E-1	1.770300E-1	1.693784E-1	1.753703E-1	1.825996E-1	1.853906E-1	1.733072E-1	1.850580E-1	1.941145E-1	1.620456E-1	1.847612E-1	1.804762E-1	1.822180E-1	1.980607E-1	1.801249E-1	1.806681E-1	1.900558E-1	1.728433E-1	1.774178E-1	1.764283E-1	1.895160E-1	1.605788E-1	1.606450E-1	1.913898E-1	1.654468E-1	1.673330E-1	1.768147E-1	1.823599E-1	1.911889E-1	1.762198E-1	1.715562E-1	1.735344E-1	1.547001E-1	1.612422E-1	1.764147E-1	2.015728E-1	1.856631E-1	1.831664E-1	1.801846E-1	1.718619E-1	1.822661E-1	1.718094E-1	1.670806E-1	1.683744E-1	1.754686E-1	1.731328E-1	1.500534E-1	1.813586E-1	1.661241E-1	1.618116E-1	1.664322E-1	1.701789E-1	1.742780E-1	1.892116E-1	1.736743E-1	1.991045E-1	1.679851E-1	1.783465E-1	1.780991E-1	1.787903E-1	1.878187E-1	1.636464E-1	1.611031E-1	1.598919E-1	1.865975E-1	1.875405E-1	1.552865E-1	1.648048E-1	1.864612E-1	1.789463E-1	1.493437E-1	1.706903E-1	1.694753E-1	1.732446E-1	1.918592E-1	1.753085E-1	1.827670E-1	1.907569E-1	1.713442E-1	1.745194E-1	1.611370E-1	2.005224E-1	1.646583E-1	1.598428E-1	1.717688E-1	1.693717E-1	1.710371E-1	1.799671E-1	1.953940E-1	1.838728E-1	1.636199E-1	1.937252E-1	1.854648E-1	1.818963E-1	1.587147E-1	1.696102E-1	1.795800E-1	1.637011E-1	1.823063E-1	1.676306E-1	1.780926E-1	1.597307E-1	1.552233E-1	1.455824E-1	1.695235E-1	1.575931E-1	1.754401E-1	1.801259E-1	1.661474E-1	1.700458E-1	1.656179E-1	1.749515E-1	1.640207E-1	1.642823E-1	1.625453E-1	1.713528E-1	1.732834E-1	1.731038E-1	1.770245E-1	1.663976E-1	1.451410E-1	1.651915E-1	1.855953E-1	1.648644E-1	1.929195E-1	1.695351E-1	1.646487E-1	1.714661E-1	1.634624E-1	1.571725E-1	1.631307E-1	1.922391E-1	1.792996E-1
5.342090E+2	2.460907E-1	2.690726E-1	2.587232E-1	2.486275E-1	2.615648E-1	2.717629E-1	2.716990E-1	2.535711E-1	2.673235E-1	2.657427E-1	2.708610E-1	2.364895E-1	2.701792E-1	2.575316E-1	2.591740E-1	2.522633E-1	2.464493E-1	2.587123E-1	2.661955E-1	2.511847E-1	2.669282E-1	2.930333E-1	3.915803E-1	3.371742E-1	3.487791E-1	3.427995E-1	3.241300E-1	3.046813E-1	3.003574E-1	2.950717E-1	2.927610E-1	2.761684E-1	2.744975E-1	2.695341E-1	2.871648E-1	3.237123E-1	2.887690E-1	2.870549E-1	2.979733E-1	3.036836E-1	2.986099E-1	2.987439E-1	2.728492E-1	3.003349E-1	2.836732E-1	2.805272E-1	2.970592E-1	2.928034E-1	2.981256E-1	2.759792E-1	2.611837E-1	2.708844E-1	2.865112E-1	2.813630E-1	3.193429E-1	2.893334E-1	3.098910E-1	2.879489E-1	2.973577E-1	3.030965E-1	3.053708E-1	2.486288E-1	2.791790E-1	2.818433E-1	2.836640E-1	2.879030E-1	2.626549E-1	2.993402E-1	2.771911E-1	2.687071E-1	2.900216E-1	2.686548E-1	3.066694E-1	2.763916E-1	2.980550E-1	2.689865E-1	2.970457E-1	2.735482E-1	2.676484E-1	2.636073E-1	3.101656E-1	2.932772E-1	2.920504E-1	2.781113E-1	2.915136E-1	2.754049E-1	2.845174E-1	2.800257E-1	3.133913E-1	2.785517E-1	2.909010E-1	2.852554E-1	2.881689E-1	3.139591E-1	2.573086E-1	2.811870E-1	3.213329E-1	2.856924E-1	2.696756E-1	2.832669E-1	2.875050E-1	2.779098E-1	2.634138E-1	2.881018E-1	2.581944E-1	2.655289E-1	2.744172E-1	2.776057E-1	2.670756E-1	2.681741E-1	2.698596E-1	2.777646E-1	2.646215E-1	2.747945E-1	2.837462E-1	2.943014E-1	2.771971E-1	2.837166E-1	3.039945E-1	2.739308E-1	3.186289E-1	2.921203E-1	3.081821E-1	2.703362E-1	2.896744E-1	2.811162E-1	2.903022E-1	2.889735E-1	2.714857E-1	2.873821E-1	2.610611E-1	3.073535E-1	2.690033E-1	3.030921E-1	2.705445E-1	2.595440E-1	2.901937E-1	2.730677E-1	3.084311E-1	2.718562E-1	2.951246E-1	2.730303E-1	3.121698E-1	2.671562E-1	2.931994E-1	2.717569E-1	2.765684E-1	2.944784E-1	2.855524E-1	2.889598E-1	2.601789E-1	3.027294E-1	2.445828E-1	2.886991E-1	2.717223E-1	2.844642E-1	2.749593E-1	2.655774E-1	2.937945E-1	2.774134E-1	3.093310E-1	2.795869E-1	2.750370E-1	2.960245E-1	2.824925E-1	2.995723E-1	2.779994E-1	2.839287E-1	3.198213E-1
5.343600E+2	4.689691E-1	4.559754E-1	4.564679E-1	4.603702E-1	5.196139E-1	4.624924E-1	4.914919E-1	4.681519E-1	5.037251E-1	4.699651E-1	4.449722E-1	5.106382E-1	4.965612E-1	4.797944E-1	5.106834E-1	4.854695E-1	4.743846E-1	4.910395E-1	4.545886E-1	4.650487E-1	4.478329E-1	5.108968E-1	6.119597E-1	6.281428E-1	5.298416E-1	5.586748E-1	5.636662E-1	5.441148E-1	5.473155E-1	5.366717E-1	5.350534E-1	5.384800E-1	5.297977E-1	4.994838E-1	5.313700E-1	5.299476E-1	5.095731E-1	5.026427E-1	5.117320E-1	4.589244E-1	4.924811E-1	4.994445E-1	5.019917E-1	5.340343E-1	5.165689E-1	5.017881E-1	5.205858E-1	5.004333E-1	5.182487E-1	4.988352E-1	4.869586E-1	5.367745E-1	4.908789E-1	5.139942E-1	4.939464E-1	5.121630E-1	5.432104E-1	5.046008E-1	5.304478E-1	5.311021E-1	5.134799E-1	4.942497E-1	5.443292E-1	5.023886E-1	5.028969E-1	5.149323E-1	5.201370E-1	4.899738E-1	4.879227E-1	4.743087E-1	5.113566E-1	5.036666E-1	4.861176E-1	5.151193E-1	5.246264E-1	5.056965E-1	4.877109E-1	5.292869E-1	5.268692E-1	4.984802E-1	4.986287E-1	5.296513E-1	5.308269E-1	4.708900E-1	4.851925E-1	5.060761E-1	5.001889E-1	5.017557E-1	4.939778E-1	4.816071E-1	5.115615E-1	5.129468E-1	5.263482E-1	4.980362E-1	5.211243E-1	4.803885E-1	5.471872E-1	5.003471E-1	5.174917E-1	4.551027E-1	4.953609E-1	4.777026E-1	5.001684E-1	5.146864E-1	5.180447E-1	5.017989E-1	5.192116E-1	5.245375E-1	5.189966E-1	4.719088E-1	5.191786E-1	5.132111E-1	4.858906E-1	5.031518E-1	4.763655E-1	4.604577E-1	5.261157E-1	4.719318E-1	5.219155E-1	4.775549E-1	5.271961E-1	4.756254E-1	5.389378E-1	5.083097E-1	4.706633E-1	4.956081E-1	4.959260E-1	5.086308E-1	4.946338E-1	4.938684E-1	5.140903E-1	5.494193E-1	5.043711E-1	5.011207E-1	5.005195E-1	5.093437E-1	4.871750E-1	4.874289E-1	5.034194E-1	4.987247E-1	4.819354E-1	4.730907E-1	4.927594E-1	5.047705E-1	4.913689E-1	4.872637E-1	4.943681E-1	5.022507E-1	5.030316E-1	4.919775E-1	5.087804E-1	4.913880E-1	4.952888E-1	5.305159E-1	5.206985E-1	4.601111E-1	4.990776E-1	4.781735E-1	5.119700E-1	5.413516E-1	5.495428E-1	4.490201E-1	4.987582E-1	4.995751E-1	5.247579E-1	4.916751E-1	5.156915E-1	5.070399E-1	5.336053E-1
5.345110E+2	7.927658E-1	7.616287E-1	7.960487E-1	8.012235E-1	7.887181E-1	7.918413E-1	8.211374E-1	7.791907E-1	7.818356E-1	7.673190E-1	8.580178E-1	7.800977E-1	8.011853E-1	8.115229E-1	8.105853E-1	7.857356E-1	8.190700E-1	8.437783E-1	8.013634E-1	7.918867E-1	7.970071E-1	7.954172E-1	9.663676E-1	9.084063E-1	8.632175E-1	9.561995E-1	8.345536E-1	8.701479E-1	8.555609E-1	8.723193E-1	8.065140E-1	8.223044E-1	8.445984E-1	8.826433E-1	8.025850E-1	9.239320E-1	8.708080E-1	8.509360E-1	8.796904E-1	9.036164E-1	8.276300E-1	8.264233E-1	8.361174E-1	8.339294E-1	8.785258E-1	8.630847E-1	8.206337E-1	8.475350E-1	8.999413E-1	8.262150E-1	8.105268E-1	8.046936E-1	8.592025E-1	7.873963E-1	8.316738E-1	8.788207E-1	8.489235E-1	8.869015E-1	8.081032E-1	8.383576E-1	8.601961E-1	8.143293E-1	8.786470E-1	8.495702E-1	8.514320E-1	8.476332E-1	8.456657E-1	8.152513E-1	8.113347E-1	8.254406E-1	8.156175E-1	8.525649E-1	8.362186E-1	8.426976E-1	8.349040E-1	8.201127E-1	8.564233E-1	8.349689E-1	8.604389E-1	8.484157E-1	7.930435E-1	7.983665E-1	8.381665E-1	8.196259E-1	8.313326E-1	8.308563E-1	8.647250E-1	8.386078E-1	8.543380E-1	8.214003E-1	8.188856E-1	8.516926E-1	8.398758E-1	7.992364E-1	8.604692E-1	8.167491E-1	8.309492E-1	8.274974E-1	8.085762E-1	8.131730E-1	8.373773E-1	8.588102E-1	8.314758E-1	8.067747E-1	8.430367E-1	8.656105E-1	8.425576E-1	8.092771E-1	8.575675E-1	7.887706E-1	8.456321E-1	7.778455E-1	8.315016E-1	8.085803E-1	8.027707E-1	8.283940E-1	8.587009E-1	8.038735E-1	8.331993E-1	8.451801E-1	8.904504E-1	7.761750E-1	8.055222E-1	7.978891E-1	8.126098E-1	8.541574E-1	8.266848E-1	8.243540E-1	8.262203E-1	8.387792E-1	8.428950E-1	8.142018E-1	8.222725E-1	8.732462E-1	7.893058E-1	8.335573E-1	8.470180E-1	8.387810E-1	7.613861E-1	7.903470E-1	8.256664E-1	8.076177E-1	8.190919E-1	8.363839E-1	8.423582E-1	7.871959E-1	8.509734E-1	8.518299E-1	8.037231E-1	8.154135E-1	8.339432E-1	8.792541E-1	7.881711E-1	8.309666E-1	8.028751E-1	8.735537E-1	8.385190E-1	8.383080E-1	8.581892E-1	7.967628E-1	8.328396E-1	7.715967E-1	8.202824E-1	8.337326E-1	8.209069E-1	8.469301E-1	8.302611E-1	8.105517E-1	8.213966E-1
5.346620E+2	1.225951E+0	1.242703E+0	1.234740E+0	1.102300E+0	1.157979E+0	1.209350E+0	1.196642E+0	1.185394E+0	1.197948E+0	1.157611E+0	1.185650E+0	1.202628E+0	1.239947E+0	1.134990E+0	1.154951E+0	1.156935E+0	1.186873E+0	1.250814E+0	1.203550E+0	1.161375E+0	1.227701E+0	1.212155E+0	1.316835E+0	1.264677E+0	1.303775E+0	1.259617E+0	1.256993E+0	1.275178E+0	1.235691E+0	1.269052E+0	1.233906E+0	1.225907E+0	1.284742E+0	1.219219E+0	1.299051E+0	1.270377E+0	1.215564E+0	1.229821E+0	1.249554E+0	1.188616E+0	1.240352E+0	1.210284E+0	1.238502E+0	1.193556E+0	1.199004E+0	1.204259E+0	1.218600E+0	1.214685E+0	1.211225E+0	1.245978E+0	1.310563E+0	1.243068E+0	1.256032E+0	1.259858E+0	1.192566E+0	1.192485E+0	1.215162E+0	1.252611E+0	1.259028E+0	1.241040E+0	1.193282E+0	1.161204E+0	1.216708E+0	1.246970E+0	1.247145E+0	1.189973E+0	1.176294E+0	1.184042E+0	1.146269E+0	1.221525E+0	1.228487E+0	1.239113E+0	1.207327E+0	1.148222E+0	1.182200E+0	1.219301E+0	1.251133E+0	1.183834E+0	1.185531E+0	1.244856E+0	1.224482E+0	1.246313E+0	1.180238E+0	1.170187E+0	1.188521E+0	1.189852E+0	1.228937E+0	1.202189E+0	1.221391E+0	1.171665E+0	1.184629E+0	1.181201E+0	1.304073E+0	1.198081E+0	1.202412E+0	1.204555E+0	1.241728E+0	1.199263E+0	1.217188E+0	1.225398E+0	1.214752E+0	1.227044E+0	1.217149E+0	1.209067E+0	1.228152E+0	1.130728E+0	1.258521E+0	1.231364E+0	1.261431E+0	1.150990E+0	1.197683E+0	1.201895E+0	1.146449E+0	1.159602E+0	1.184687E+0	1.169032E+0	1.173909E+0	1.119173E+0	1.166859E+0	1.185678E+0	1.230829E+0	1.235242E+0	1.251592E+0	1.190344E+0	1.270431E+0	1.199032E+0	1.169747E+0	1.220181E+0	1.280735E+0	1.217269E+0	1.233534E+0	1.198834E+0	1.192100E+0	1.186103E+0	1.189150E+0	1.160720E+0	1.174751E+0	1.162692E+0	1.205711E+0	1.171721E+0	1.225575E+0	1.180723E+0	1.197197E+0	1.190500E+0	1.205159E+0	1.180139E+0	1.217083E+0	1.237082E+0	1.249018E+0	1.209534E+0	1.217685E+0	1.230861E+0	1.225192E+0	1.215846E+0	1.270406E+0	1.144283E+0	1.190163E+0	1.163604E+0	1.207900E+0	1.179863E+0	1.162837E+0	1.122442E+0	1.187742E+0	1.191019E+0	1.233214E+0	1.175113E+0	1.213209E+0	1.154131E+0	1.202101E+0
5.348120E+2	1.536436E+0	1.459550E+0	1.637451E+0	1.519866E+0	1.537010E+0	1.487065E+0	1.563798E+0	1.485526E+0	1.518681E+0	1.536059E+0	1.610779E+0	1.536098E+0	1.579787E+0	1.539778E+0	1.539974E+0	1.534838E+0	1.527040E+0	1.573560E+0	1.521750E+0	1.576258E+0	1.563970E+0	1.542666E+0	1.610635E+0	1.604073E+0	1.614206E+0	1.588932E+0	1.541756E+0	1.569655E+0	1.614728E+0	1.533558E+0	1.486131E+0	1.602876E+0	1.567802E+0	1.612394E+0	1.554820E+0	1.612456E+0	1.545543E+0	1.537595E+0	1.584853E+0	1.495696E+0	1.619351E+0	1.521271E+0	1.547094E+0	1.556141E+0	1.614068E+0	1.553949E+0	1.515416E+0	1.526746E+0	1.564010E+0	1.546403E+0	1.576960E+0	1.617935E+0	1.567625E+0	1.607480E+0	1.661458E+0	1.576539E+0	1.559065E+0	1.558457E+0	1.514451E+0	1.525448E+0	1.578125E+0	1.542443E+0	1.605232E+0	1.559679E+0	1.573458E+0	1.548509E+0	1.630947E+0	1.454922E+0	1.527248E+0	1.576950E+0	1.517894E+0	1.602958E+0	1.556211E+0	1.554603E+0	1.550460E+0	1.515583E+0	1.562908E+0	1.537433E+0	1.540616E+0	1.513856E+0	1.591083E+0	1.470264E+0	1.524404E+0	1.507471E+0	1.509906E+0	1.501505E+0	1.619350E+0	1.478889E+0	1.578008E+0	1.568082E+0	1.534961E+0	1.566171E+0	1.570603E+0	1.479917E+0	1.477634E+0	1.513716E+0	1.558699E+0	1.495994E+0	1.542816E+0	1.555400E+0	1.528291E+0	1.573056E+0	1.483609E+0	1.535689E+0	1.519247E+0	1.458537E+0	1.512462E+0	1.597369E+0	1.546157E+0	1.493476E+0	1.493434E+0	1.542351E+0	1.507528E+0	1.491233E+0	1.500421E+0	1.473741E+0	1.577772E+0	1.508610E+0	1.535374E+0	1.500331E+0	1.577294E+0	1.478466E+0	1.533367E+0	1.524719E+0	1.593669E+0	1.433132E+0	1.454833E+0	1.561465E+0	1.578939E+0	1.522519E+0	1.460596E+0	1.560796E+0	1.505545E+0	1.492261E+0	1.473040E+0	1.555492E+0	1.608684E+0	1.450155E+0	1.411111E+0	1.458946E+0	1.539605E+0	1.465521E+0	1.522216E+0	1.541569E+0	1.492609E+0	1.483679E+0	1.492314E+0	1.584817E+0	1.566684E+0	1.481361E+0	1.500729E+0	1.480889E+0	1.559087E+0	1.539251E+0	1.483751E+0	1.487257E+0	1.542722E+0	1.512928E+0	1.476138E+0	1.538472E+0	1.513671E+0	1.432325E+0	1.546380E+0	1.551932E+0	1.515137E+0	1.477785E+0	1.584373E+0	1.450160E+0	1.569999E+0
5.349580E+2	1.920154E+0	1.845973E+0	1.852968E+0	1.807801E+0	1.818259E+0	1.817986E+0	1.817775E+0	1.804237E+0	1.790579E+0	1.786292E+0	1.873891E+0	1.765193E+0	1.825710E+0	1.867307E+0	1.858816E+0	1.812307E+0	1.856846E+0	1.857326E+0	1.808418E+0	1.846467E+0	1.814174E+0	1.840340E+0	1.897727E+0	1.765876E+0	1.792796E+0	1.842780E+0	1.813975E+0	1.864656E+0	1.854010E+0	1.871879E+0	1.806281E+0	1.778401E+0	1.787652E+0	1.823866E+0	1.820946E+0	1.852264E+0	1.792213E+0	1.782998E+0	1.854165E+0	1.849626E+0	1.829191E+0	1.853750E+0	1.753279E+0	1.824267E+0	1.866493E+0	1.783914E+0	1.817797E+0	1.853706E+0	1.832251E+0	1.830544E+0	1.894354E+0	1.832913E+0	1.821587E+0	1.898473E+0	1.918108E+0	1.824440E+0	1.926095E+0	1.770518E+0	1.895681E+0	1.781592E+0	1.803407E+0	1.804977E+0	1.944091E+0	1.808744E+0	1.802133E+0	1.900257E+0	1.891782E+0	1.798852E+0	1.814695E+0	1.817278E+0	1.801785E+0	1.847326E+0	1.778724E+0	1.837004E+0	1.833456E+0	1.759348E+0	1.867679E+0	1.746380E+0	1.822001E+0	1.858458E+0	1.800782E+0	1.832241E+0	1.825536E+0	1.877930E+0	1.838346E+0	1.860725E+0	1.805284E+0	1.841401E+0	1.804962E+0	1.766604E+0	1.847388E+0	1.804061E+0	1.844995E+0	1.776644E+0	1.767588E+0	1.806133E+0	1.879596E+0	1.831928E+0	1.799724E+0	1.830765E+0	1.804349E+0	1.891935E+0	1.825403E+0	1.798219E+0	1.788259E+0	1.770079E+0	1.805578E+0	1.857095E+0	1.763033E+0	1.743132E+0	1.806266E+0	1.754314E+0	1.847853E+0	1.769442E+0	1.799350E+0	1.796153E+0	1.875075E+0	1.817515E+0	1.773574E+0	1.892911E+0	1.808823E+0	1.769090E+0	1.797637E+0	1.773650E+0	1.847062E+0	1.765138E+0	1.745881E+0	1.815488E+0	1.808539E+0	1.842796E+0	1.797153E+0	1.784055E+0	1.793290E+0	1.793156E+0	1.750935E+0	1.820893E+0	1.788372E+0	1.687752E+0	1.743835E+0	1.729133E+0	1.839984E+0	1.740289E+0	1.827115E+0	1.802653E+0	1.768825E+0	1.714284E+0	1.804587E+0	1.837006E+0	1.803804E+0	1.817801E+0	1.752079E+0	1.788655E+0	1.769902E+0	1.806163E+0	1.769365E+0	1.772629E+0	1.787463E+0	1.796406E+0	1.797690E+0	1.860951E+0	1.804048E+0	1.731661E+0	1.858427E+0	1.746990E+0	1.821220E+0	1.771767E+0	1.859899E+0	1.778362E+0	1.793658E+0
5.351040E+2	2.021456E+0	1.981632E+0	2.085213E+0	1.960647E+0	2.028238E+0	1.950111E+0	1.954056E+0	2.037357E+0	2.010957E+0	1.970039E+0	2.103549E+0	2.029990E+0	2.039312E+0	1.934826E+0	2.059991E+0	2.007924E+0	1.973451E+0	2.064302E+0	1.942424E+0	2.026093E+0	2.046943E+0	2.047091E+0	1.957193E+0	1.996789E+0	1.993813E+0	2.021389E+0	1.974875E+0	1.992115E+0	2.002432E+0	1.995735E+0	1.883594E+0	1.964124E+0	2.010438E+0	2.029316E+0	1.947568E+0	1.998790E+0	1.966133E+0	1.956476E+0	1.952993E+0	2.056783E+0	1.996784E+0	1.967981E+0	1.991339E+0	1.999024E+0	1.953677E+0	1.954828E+0	1.974082E+0	2.001737E+0	1.997105E+0	1.983242E+0	2.076563E+0	1.972374E+0	1.935534E+0	2.011488E+0	1.985049E+0	2.065775E+0	2.019401E+0	1.965732E+0	2.015085E+0	1.968196E+0	1.984408E+0	1.966466E+0	2.014468E+0	2.009303E+0	1.963473E+0	2.014105E+0	2.044715E+0	1.926555E+0	1.938642E+0	1.933553E+0	1.954128E+0	2.038782E+0	1.976844E+0	1.951384E+0	1.928912E+0	1.984620E+0	1.970981E+0	1.891767E+0	1.975671E+0	1.898554E+0	1.998080E+0	1.978116E+0	1.984989E+0	1.906533E+0	1.953012E+0	1.885112E+0	1.965931E+0	1.880396E+0	1.952378E+0	1.893329E+0	1.968622E+0	1.909505E+0	2.043490E+0	1.948479E+0	1.889038E+0	1.947539E+0	2.049741E+0	1.924789E+0	1.914949E+0	1.943357E+0	1.959497E+0	1.974746E+0	1.927373E+0	1.937320E+0	1.917618E+0	1.900982E+0	2.012464E+0	1.977252E+0	2.004358E+0	1.823616E+0	1.955361E+0	1.912549E+0	1.978426E+0	1.804135E+0	1.953969E+0	1.857857E+0	2.003708E+0	1.902568E+0	1.986612E+0	1.933830E+0	1.981978E+0	1.924212E+0	1.977643E+0	1.839492E+0	1.921717E+0	1.942899E+0	1.945489E+0	2.011078E+0	1.936605E+0	1.967151E+0	1.936141E+0	1.969924E+0	1.904382E+0	1.981265E+0	1.894443E+0	1.914930E+0	1.942795E+0	1.963530E+0	1.959524E+0	1.904158E+0	2.005893E+0	1.867375E+0	1.981945E+0	1.970394E+0	1.971745E+0	1.944609E+0	1.993136E+0	1.980979E+0	1.897346E+0	1.914062E+0	1.814993E+0	2.008272E+0	1.925753E+0	1.974085E+0	1.875105E+0	1.949650E+0	1.977786E+0	1.859337E+0	1.899647E+0	1.896603E+0	1.909120E+0	1.860367E+0	1.871518E+0	1.888652E+0	1.914925E+0	1.929112E+0	1.964390E+0	1.863570E+0	2.071979E+0
5.352600E+2	1.994503E+0	1.989916E+0	2.101103E+0	2.010892E+0	1.949844E+0	2.017178E+0	2.031376E+0	1.951546E+0	2.010175E+0	2.061285E+0	2.035188E+0	2.008198E+0	2.020467E+0	2.005588E+0	2.066513E+0	1.999223E+0	2.023518E+0	2.061491E+0	1.954746E+0	1.961262E+0	2.023857E+0	1.992482E+0	1.936597E+0	1.869348E+0	1.977721E+0	2.066505E+0	1.952618E+0	1.946069E+0	1.931881E+0	1.965496E+0	1.883802E+0	1.965630E+0	1.985077E+0	1.983838E+0	1.958373E+0	2.003478E+0	1.973743E+0	1.943997E+0	2.038571E+0	1.985774E+0	2.011067E+0	1.987656E+0	1.990007E+0	1.934264E+0	2.035589E+0	1.870031E+0	1.877907E+0	1.899140E+0	1.974476E+0	1.896897E+0	1.971726E+0	2.010800E+0	2.001528E+0	2.007403E+0	2.030686E+0	2.003627E+0	2.005936E+0	1.920811E+0	1.967915E+0	1.976284E+0	2.023393E+0	1.926722E+0	1.956572E+0	2.037988E+0	1.955718E+0	1.996396E+0	1.905074E+0	1.946516E+0	1.930629E+0	1.964400E+0	1.899315E+0	2.050591E+0	1.953565E+0	1.949428E+0	1.932468E+0	1.996281E+0	1.959782E+0	1.966004E+0	1.985512E+0	1.848734E+0	1.931032E+0	1.937088E+0	1.945606E+0	2.028162E+0	1.885054E+0	1.983985E+0	2.042365E+0	1.912246E+0	1.893346E+0	1.937771E+0	1.921496E+0	1.892789E+0	1.942033E+0	2.003110E+0	1.937087E+0	1.920680E+0	1.946309E+0	1.961919E+0	1.938597E+0	1.828554E+0	1.964541E+0	2.068142E+0	1.902571E+0	1.980999E+0	1.861356E+0	1.918865E+0	2.024226E+0	2.002529E+0	1.926668E+0	1.869185E+0	1.961989E+0	1.881041E+0	1.929024E+0	1.921784E+0	1.975661E+0	1.949508E+0	1.978976E+0	1.864795E+0	1.982806E+0	1.936182E+0	2.015180E+0	1.920119E+0	1.954633E+0	1.942920E+0	2.006914E+0	1.952416E+0	1.914139E+0	1.936686E+0	2.002398E+0	2.003386E+0	1.975761E+0	1.962028E+0	1.838473E+0	1.918751E+0	1.906163E+0	1.974754E+0	1.980479E+0	1.905253E+0	1.927123E+0	1.933906E+0	2.000234E+0	1.856928E+0	1.948650E+0	1.915905E+0	1.906932E+0	1.888992E+0	1.932403E+0	1.960982E+0	1.951632E+0	1.898776E+0	1.944030E+0	1.972366E+0	1.909181E+0	1.899287E+0	1.907235E+0	2.009442E+0	1.888785E+0	1.938932E+0	1.903666E+0	1.916793E+0	1.967270E+0	1.828282E+0	1.935685E+0	1.956043E+0	1.955707E+0	1.877838E+0	1.926091E+0	1.821909E+0	1.940610E+0
5.354110E+2	1.819607E+0	1.830061E+0	1.784697E+0	1.735574E+0	1.783975E+0	1.822857E+0	1.801824E+0	1.792843E+0	1.764401E+0	1.787027E+0	1.848815E+0	1.761240E+0	1.815247E+0	1.768621E+0	1.809789E+0	1.799353E+0	1.753756E+0	1.850440E+0	1.787939E+0	1.874668E+0	1.806914E+0	1.741056E+0	1.739128E+0	1.766034E+0	1.760970E+0	1.796801E+0	1.788481E+0	1.708487E+0	1.766715E+0	1.738818E+0	1.722904E+0	1.731579E+0	1.720795E+0	1.738071E+0	1.783855E+0	1.751729E+0	1.744383E+0	1.769214E+0	1.760330E+0	1.789122E+0	1.749718E+0	1.756967E+0	1.777844E+0	1.766937E+0	1.790426E+0	1.759709E+0	1.709885E+0	1.701403E+0	1.747086E+0	1.786198E+0	1.735879E+0	1.773066E+0	1.752959E+0	1.768044E+0	1.822562E+0	1.823446E+0	1.787996E+0	1.803566E+0	1.822145E+0	1.748973E+0	1.732872E+0	1.772005E+0	1.770445E+0	1.734061E+0	1.807333E+0	1.781277E+0	1.820641E+0	1.688661E+0	1.685143E+0	1.762200E+0	1.777979E+0	1.771247E+0	1.763490E+0	1.688992E+0	1.756862E+0	1.759162E+0	1.726976E+0	1.717786E+0	1.743467E+0	1.735530E+0	1.734861E+0	1.793953E+0	1.760790E+0	1.801906E+0	1.689672E+0	1.726732E+0	1.757969E+0	1.691773E+0	1.766350E+0	1.750889E+0	1.839295E+0	1.733943E+0	1.696561E+0	1.763510E+0	1.761233E+0	1.620922E+0	1.677807E+0	1.773515E+0	1.756798E+0	1.771063E+0	1.784873E+0	1.805290E+0	1.781934E+0	1.765939E+0	1.763810E+0	1.715923E+0	1.785053E+0	1.781528E+0	1.756446E+0	1.708760E+0	1.721545E+0	1.661050E+0	1.745624E+0	1.706466E+0	1.772873E+0	1.741180E+0	1.803575E+0	1.704307E+0	1.772012E+0	1.778986E+0	1.827024E+0	1.700574E+0	1.735055E+0	1.721870E+0	1.770857E+0	1.696227E+0	1.744493E+0	1.716352E+0	1.745676E+0	1.772901E+0	1.728563E+0	1.784585E+0	1.705000E+0	1.716101E+0	1.767654E+0	1.721365E+0	1.760890E+0	1.737324E+0	1.770769E+0	1.648293E+0	1.730420E+0	1.643691E+0	1.790964E+0	1.751071E+0	1.708910E+0	1.685412E+0	1.723699E+0	1.749153E+0	1.741212E+0	1.766270E+0	1.747457E+0	1.720460E+0	1.746123E+0	1.759115E+0	1.627923E+0	1.714937E+0	1.733424E+0	1.713850E+0	1.778290E+0	1.765572E+0	1.711493E+0	1.705318E+0	1.752833E+0	1.794813E+0	1.710619E+0	1.685904E+0	1.753721E+0	1.704098E+0	1.732429E+0
5.355630E+2	1.593560E+0	1.499380E+0	1.637718E+0	1.516047E+0	1.583087E+0	1.585453E+0	1.499465E+0	1.612631E+0	1.538864E+0	1.587050E+0	1.606405E+0	1.518289E+0	1.589908E+0	1.515948E+0	1.594251E+0	1.564564E+0	1.586937E+0	1.606570E+0	1.544759E+0	1.569858E+0	1.643289E+0	1.565240E+0	1.518833E+0	1.495509E+0	1.520789E+0	1.590115E+0	1.512844E+0	1.512951E+0	1.547506E+0	1.535816E+0	1.507104E+0	1.506047E+0	1.573280E+0	1.556721E+0	1.506215E+0	1.630069E+0	1.532478E+0	1.482345E+0	1.562347E+0	1.508262E+0	1.471075E+0	1.506104E+0	1.549826E+0	1.564570E+0	1.574549E+0	1.512340E+0	1.470777E+0	1.591592E+0	1.550395E+0	1.527902E+0	1.517513E+0	1.586734E+0	1.520485E+0	1.554786E+0	1.542944E+0	1.531689E+0	1.582527E+0	1.631433E+0	1.490499E+0	1.579931E+0	1.561066E+0	1.548665E+0	1.521694E+0	1.509451E+0	1.579211E+0	1.558646E+0	1.527521E+0	1.503628E+0	1.465851E+0	1.504887E+0	1.552699E+0	1.557389E+0	1.532547E+0	1.541762E+0	1.504426E+0	1.551687E+0	1.516358E+0	1.464244E+0	1.573583E+0	1.518432E+0	1.556779E+0	1.543638E+0	1.522927E+0	1.536580E+0	1.526829E+0	1.454201E+0	1.507937E+0	1.518458E+0	1.553512E+0	1.545252E+0	1.544684E+0	1.571972E+0	1.552668E+0	1.565390E+0	1.565437E+0	1.518930E+0	1.508749E+0	1.534611E+0	1.606359E+0	1.520016E+0	1.572147E+0	1.561649E+0	1.511925E+0	1.512446E+0	1.489325E+0	1.496194E+0	1.555121E+0	1.555504E+0	1.496850E+0	1.507519E+0	1.489378E+0	1.497407E+0	1.510682E+0	1.483492E+0	1.612242E+0	1.466983E+0	1.606515E+0	1.478376E+0	1.580452E+0	1.530554E+0	1.523585E+0	1.486285E+0	1.559335E+0	1.546926E+0	1.634589E+0	1.513585E+0	1.623147E+0	1.595876E+0	1.556886E+0	1.506702E+0	1.510534E+0	1.550271E+0	1.515238E+0	1.540844E+0	1.518928E+0	1.532112E+0	1.544256E+0	1.469846E+0	1.531355E+0	1.495726E+0	1.570576E+0	1.485046E+0	1.576742E+0	1.473312E+0	1.612040E+0	1.515153E+0	1.536562E+0	1.611557E+0	1.490598E+0	1.487874E+0	1.540251E+0	1.532952E+0	1.521501E+0	1.576899E+0	1.478441E+0	1.525446E+0	1.557460E+0	1.537529E+0	1.599343E+0	1.580476E+0	1.526282E+0	1.464637E+0	1.560828E+0	1.533982E+0	1.487400E+0	1.483710E+0	1.510915E+0	1.524734E+0	1.545630E+0
5.357140E+2	1.298950E+0	1.293420E+0	1.331319E+0	1.224980E+0	1.292148E+0	1.284148E+0	1.320979E+0	1.352034E+0	1.234054E+0	1.291435E+0	1.306936E+0	1.336733E+0	1.313820E+0	1.296263E+0	1.319287E+0	1.290850E+0	1.270221E+0	1.324177E+0	1.263166E+0	1.289963E+0	1.263016E+0	1.265473E+0	1.279715E+0	1.236259E+0	1.295400E+0	1.312835E+0	1.237195E+0	1.244271E+0	1.264225E+0	1.299301E+0	1.215620E+0	1.260861E+0	1.268207E+0	1.310322E+0	1.285872E+0	1.247698E+0	1.194309E+0	1.252357E+0	1.266467E+0	1.299058E+0	1.293863E+0	1.290731E+0	1.250199E+0	1.301697E+0	1.257299E+0	1.249730E+0	1.267431E+0	1.312628E+0	1.291844E+0	1.310835E+0	1.291480E+0	1.269740E+0	1.259462E+0	1.257605E+0	1.277907E+0	1.226922E+0	1.305992E+0	1.279711E+0	1.303977E+0	1.203967E+0	1.253930E+0	1.304826E+0	1.256557E+0	1.273055E+0	1.220451E+0	1.278826E+0	1.199522E+0	1.242514E+0	1.242298E+0	1.268612E+0	1.302672E+0	1.272568E+0	1.282679E+0	1.344120E+0	1.205401E+0	1.247078E+0	1.289304E+0	1.278438E+0	1.269519E+0	1.300850E+0	1.246372E+0	1.252052E+0	1.285909E+0	1.322722E+0	1.251024E+0	1.260097E+0	1.345103E+0	1.229383E+0	1.242877E+0	1.227973E+0	1.326571E+0	1.263920E+0	1.213559E+0	1.295778E+0	1.243611E+0	1.272499E+0	1.345658E+0	1.292029E+0	1.274520E+0	1.277118E+0	1.303991E+0	1.271356E+0	1.336306E+0	1.306515E+0	1.218457E+0	1.206417E+0	1.327355E+0	1.311841E+0	1.244655E+0	1.216474E+0	1.335289E+0	1.234283E+0	1.255998E+0	1.213592E+0	1.260693E+0	1.223585E+0	1.265502E+0	1.227801E+0	1.294536E+0	1.209246E+0	1.340221E+0	1.293779E+0	1.208089E+0	1.226079E+0	1.307603E+0	1.240630E+0	1.271085E+0	1.346364E+0	1.315285E+0	1.335892E+0	1.239702E+0	1.297110E+0	1.246920E+0	1.316585E+0	1.259316E+0	1.213876E+0	1.282815E+0	1.265756E+0	1.282247E+0	1.210103E+0	1.331519E+0	1.200517E+0	1.288768E+0	1.330861E+0	1.257604E+0	1.225237E+0	1.313230E+0	1.299552E+0	1.222200E+0	1.292967E+0	1.249709E+0	1.238847E+0	1.303567E+0	1.278449E+0	1.211420E+0	1.303543E+0	1.235556E+0	1.288329E+0	1.292698E+0	1.302424E+0	1.226690E+0	1.231592E+0	1.285281E+0	1.231254E+0	1.260080E+0	1.273860E+0	1.249707E+0	1.199022E+0	1.269102E+0
5.358600E+2	1.137957E+0	1.124653E+0	1.186142E+0	1.127582E+0	1.125040E+0	1.097625E+0	1.136131E+0	1.122126E+0	1.143760E+0	1.115758E+0	1.182035E+0	1.119998E+0	1.186084E+0	1.113922E+0	1.154061E+0	1.086825E+0	1.148681E+0	1.095257E+0	1.113385E+0	1.086032E+0	1.168736E+0	1.131837E+0	1.136749E+0	1.096067E+0	1.091886E+0	1.097611E+0	1.097007E+0	1.085339E+0	1.127660E+0	1.088712E+0	1.050675E+0	1.087210E+0	1.143733E+0	1.136678E+0	1.099253E+0	1.088014E+0	1.091434E+0	1.137703E+0	1.118986E+0	1.120010E+0	1.133513E+0	1.103991E+0	1.134244E+0	1.122123E+0	1.122408E+0	1.143219E+0	1.038508E+0	1.127410E+0	1.188215E+0	1.131617E+0	1.153923E+0	1.142658E+0	1.126207E+0	1.129933E+0	1.158157E+0	1.150616E+0	1.138996E+0	1.156275E+0	1.111500E+0	1.136523E+0	1.138721E+0	1.110890E+0	1.180211E+0	1.162066E+0	1.062172E+0	1.135703E+0	1.112970E+0	1.026889E+0	1.088379E+0	1.137625E+0	1.106351E+0	1.141635E+0	1.075981E+0	1.092958E+0	1.141090E+0	1.117469E+0	1.122096E+0	1.079888E+0	1.142406E+0	1.123046E+0	1.071063E+0	1.092815E+0	1.120458E+0	1.089592E+0	1.115185E+0	1.115761E+0	1.141212E+0	1.063931E+0	1.111134E+0	1.101241E+0	1.153444E+0	1.061994E+0	1.117026E+0	1.171730E+0	1.131914E+0	1.131591E+0	1.150398E+0	1.165035E+0	1.128765E+0	1.152030E+0	1.125909E+0	1.136947E+0	1.102866E+0	1.125491E+0	1.140483E+0	1.101176E+0	1.112036E+0	1.075149E+0	1.105497E+0	1.106335E+0	1.063754E+0	1.109704E+0	1.092125E+0	1.046668E+0	1.094696E+0	1.117416E+0	1.118452E+0	1.152673E+0	1.133069E+0	1.101379E+0	1.177537E+0	1.105717E+0	1.080954E+0	1.098252E+0	1.132467E+0	1.121431E+0	1.095887E+0	1.115971E+0	1.127284E+0	1.152160E+0	1.116222E+0	1.109579E+0	1.096192E+0	1.089955E+0	1.100630E+0	1.084227E+0	1.089865E+0	1.068384E+0	1.096010E+0	1.123776E+0	1.107462E+0	1.070805E+0	1.099528E+0	1.165037E+0	1.159913E+0	1.131699E+0	1.114625E+0	1.086657E+0	1.136339E+0	1.114415E+0	1.137414E+0	1.119675E+0	1.133121E+0	1.145169E+0	1.113112E+0	1.125748E+0	1.131547E+0	1.120314E+0	1.125069E+0	1.113532E+0	1.110673E+0	1.063320E+0	1.147090E+0	1.085679E+0	1.083307E+0	1.116587E+0	1.137744E+0	1.155938E+0	1.111152E+0
5.360070E+2	9.447398E-1	9.735202E-1	1.014311E+0	9.948231E-1	9.420128E-1	9.496996E-1	9.583230E-1	9.969250E-1	9.525911E-1	9.680247E-1	9.384937E-1	1.005370E+0	1.005400E+0	9.850292E-1	9.977532E-1	9.628351E-1	9.791165E-1	1.004390E+0	9.941008E-1	9.936781E-1	9.946517E-1	9.545800E-1	1.006535E+0	9.135991E-1	9.816672E-1	9.641119E-1	9.417598E-1	9.767186E-1	9.222238E-1	9.656273E-1	9.699579E-1	9.365079E-1	9.661854E-1	9.598366E-1	1.008243E+0	9.685905E-1	9.549993E-1	9.274901E-1	9.914155E-1	9.496711E-1	9.970455E-1	9.876222E-1	9.523427E-1	9.609795E-1	1.016063E+0	9.775665E-1	9.286926E-1	9.914700E-1	9.975830E-1	9.711129E-1	9.717047E-1	1.002265E+0	9.636076E-1	9.941568E-1	9.857186E-1	9.935115E-1	1.021301E+0	9.908624E-1	9.632020E-1	9.435236E-1	9.899174E-1	9.875447E-1	1.026312E+0	9.349809E-1	9.666817E-1	9.770399E-1	9.650982E-1	9.120728E-1	9.179348E-1	9.780040E-1	1.012373E+0	9.968231E-1	9.799720E-1	9.726043E-1	9.301370E-1	9.744061E-1	9.762010E-1	9.677490E-1	1.002264E+0	9.603554E-1	9.674191E-1	9.810368E-1	9.564663E-1	9.596728E-1	9.271758E-1	9.808310E-1	1.001014E+0	9.361385E-1	9.814918E-1	9.515516E-1	1.042916E+0	1.029152E+0	1.011652E+0	9.649264E-1	9.532942E-1	9.390742E-1	1.032682E+0	9.376865E-1	9.912528E-1	9.572637E-1	9.720675E-1	1.006073E+0	1.011673E+0	9.755187E-1	9.447904E-1	9.334143E-1	9.997766E-1	1.006538E+0	9.723840E-1	9.574804E-1	9.677590E-1	9.597211E-1	8.940403E-1	9.245532E-1	9.573825E-1	9.893869E-1	9.463326E-1	9.800180E-1	1.031480E+0	9.469071E-1	9.395580E-1	1.011117E+0	9.929835E-1	9.262087E-1	9.989525E-1	9.895600E-1	9.415573E-1	9.524113E-1	9.852164E-1	1.018592E+0	9.171771E-1	9.743760E-1	9.476602E-1	1.005605E+0	9.677198E-1	9.739913E-1	9.818880E-1	9.716576E-1	9.482694E-1	9.079044E-1	9.643051E-1	9.403054E-1	1.031587E+0	1.010977E+0	9.824605E-1	9.580966E-1	9.874781E-1	1.000254E+0	9.340648E-1	1.000518E+0	9.480359E-1	9.747545E-1	9.157390E-1	9.581404E-1	9.513131E-1	9.516432E-1	9.757546E-1	9.744587E-1	9.878399E-1	9.916449E-1	9.289517E-1	9.862418E-1	9.897202E-1	1.004369E+0	9.992416E-1	9.675411E-1	9.725745E-1	1.003234E+0	9.709157E-1
5.362630E+2	7.043196E-1	7.428555E-1	7.741149E-1	7.114404E-1	7.371135E-1	7.714804E-1	6.943447E-1	7.470248E-1	7.268582E-1	7.236648E-1	7.538975E-1	7.018093E-1	7.188577E-1	7.292035E-1	7.354689E-1	7.582669E-1	7.091142E-1	7.682186E-1	7.391763E-1	7.052743E-1	7.125152E-1	7.139307E-1	7.484241E-1	6.995957E-1	7.416598E-1	7.043080E-1	7.196883E-1	7.152885E-1	7.453268E-1	7.380123E-1	7.151173E-1	7.066259E-1	7.443125E-1	6.877208E-1	7.343201E-1	7.505784E-1	7.244745E-1	7.475111E-1	7.110836E-1	7.256990E-1	7.585744E-1	7.269315E-1	7.461591E-1	6.863768E-1	7.647552E-1	7.155814E-1	7.066658E-1	7.381718E-1	7.799159E-1	7.373085E-1	7.254289E-1	7.782947E-1	7.618098E-1	7.336152E-1	7.826583E-1	7.244555E-1	7.549219E-1	7.683954E-1	7.435335E-1	7.651761E-1	7.124493E-1	7.308167E-1	7.286409E-1	7.065044E-1	7.349955E-1	8.020642E-1	7.196495E-1	7.305548E-1	7.576399E-1	7.670648E-1	7.016440E-1	7.712566E-1	7.433050E-1	7.505547E-1	8.004851E-1	7.696930E-1	7.052076E-1	7.192155E-1	7.012277E-1	7.180552E-1	7.613324E-1	7.452494E-1	7.785502E-1	7.459615E-1	7.488697E-1	7.414869E-1	7.698726E-1	7.145434E-1	7.362912E-1	6.879474E-1	7.354583E-1	7.835545E-1	7.694002E-1	7.301520E-1	7.438425E-1	7.419269E-1	7.701384E-1	7.199143E-1	7.169324E-1	7.684314E-1	7.618323E-1	8.039968E-1	7.761796E-1	6.910692E-1	7.442162E-1	7.160978E-1	7.770893E-1	7.443627E-1	7.375905E-1	7.078887E-1	7.445058E-1	7.139791E-1	7.249839E-1	7.515607E-1	7.328447E-1	7.349317E-1	7.508246E-1	6.748476E-1	7.434788E-1	7.399567E-1	7.663144E-1	7.532573E-1	7.805282E-1	7.258022E-1	7.488745E-1	7.213663E-1	7.633100E-1	7.503213E-1	7.511360E-1	7.988026E-1	7.687097E-1	7.329727E-1	7.516258E-1	7.118350E-1	6.985279E-1	7.275722E-1	7.693467E-1	7.471541E-1	7.070873E-1	7.278680E-1	7.536558E-1	7.138744E-1	8.045995E-1	7.450275E-1	7.267005E-1	7.262989E-1	7.280286E-1	7.950958E-1	7.078800E-1	7.332754E-1	7.441604E-1	7.465364E-1	7.341970E-1	7.662994E-1	7.553466E-1	7.484576E-1	7.562562E-1	7.667037E-1	7.819571E-1	7.437593E-1	7.528288E-1	7.352253E-1	7.759596E-1	7.718332E-1	7.177358E-1	7.419796E-1	6.793883E-1	7.349903E-1	7.347457E-1
5.365140E+2	5.871124E-1	5.828530E-1	6.427566E-1	5.969529E-1	5.850770E-1	5.491137E-1	5.974824E-1	6.219544E-1	5.918825E-1	5.902205E-1	5.797361E-1	6.043816E-1	6.082638E-1	5.931725E-1	6.238370E-1	6.069223E-1	6.083359E-1	6.166385E-1	5.733955E-1	5.784485E-1	5.869927E-1	5.718770E-1	6.286049E-1	5.897651E-1	5.658401E-1	5.965130E-1	6.004237E-1	6.382566E-1	5.939782E-1	6.045081E-1	6.023253E-1	5.874477E-1	5.776830E-1	5.920908E-1	5.839365E-1	6.131511E-1	6.167085E-1	5.731932E-1	5.902015E-1	5.651985E-1	6.204069E-1	5.844728E-1	5.830917E-1	5.449466E-1	5.550562E-1	6.325823E-1	6.059267E-1	5.520288E-1	6.378653E-1	5.899085E-1	5.330962E-1	6.196454E-1	5.643216E-1	5.805136E-1	6.141699E-1	6.053422E-1	5.942169E-1	5.912953E-1	5.816886E-1	6.025425E-1	5.443433E-1	5.979673E-1	6.128629E-1	5.992969E-1	6.041326E-1	6.202105E-1	6.179526E-1	5.915898E-1	5.441165E-1	6.062216E-1	6.190112E-1	5.957919E-1	5.678319E-1	5.589510E-1	5.781707E-1	6.184886E-1	5.894554E-1	5.913422E-1	5.709923E-1	5.935432E-1	6.292058E-1	5.936656E-1	5.918584E-1	5.911074E-1	5.469400E-1	6.028838E-1	5.577437E-1	5.884673E-1	6.078333E-1	5.927242E-1	6.065734E-1	5.883144E-1	6.434815E-1	5.792219E-1	6.035857E-1	6.120009E-1	6.084226E-1	5.873681E-1	6.010653E-1	6.176170E-1	5.920993E-1	5.772782E-1	5.865795E-1	5.940650E-1	5.610717E-1	5.924830E-1	6.207889E-1	6.026002E-1	5.865053E-1	5.932742E-1	5.788114E-1	5.739709E-1	5.771033E-1	5.620868E-1	5.887512E-1	5.975100E-1	5.855588E-1	5.976867E-1	6.014488E-1	5.685550E-1	6.297021E-1	5.566501E-1	5.561199E-1	5.944930E-1	5.477080E-1	5.974442E-1	5.618213E-1	6.071048E-1	5.981301E-1	6.606670E-1	6.329574E-1	5.555165E-1	5.749353E-1	6.130581E-1	6.061005E-1	5.829830E-1	6.707086E-1	5.698685E-1	5.990385E-1	6.183569E-1	6.219819E-1	5.628886E-1	5.830789E-1	6.319516E-1	5.961005E-1	5.752988E-1	6.050701E-1	5.870565E-1	6.197343E-1	5.747387E-1	5.854784E-1	6.349366E-1	6.129588E-1	6.042209E-1	6.250955E-1	5.976136E-1	6.047352E-1	5.902761E-1	6.390564E-1	6.252596E-1	5.787615E-1	5.076378E-1	5.915768E-1	6.216553E-1	5.864465E-1	5.740987E-1	6.038858E-1	5.596960E-1	6.209613E-1
5.367870E+2	5.113250E-1	4.796749E-1	5.551546E-1	5.089119E-1	5.085423E-1	5.086448E-1	5.148408E-1	5.178914E-1	5.473321E-1	5.262384E-1	4.990558E-1	5.296597E-1	5.029217E-1	5.212109E-1	5.267880E-1	5.063370E-1	5.050417E-1	5.504892E-1	4.746302E-1	5.284457E-1	5.178981E-1	5.183703E-1	5.764715E-1	5.396801E-1	5.557276E-1	5.810969E-1	5.481613E-1	5.252733E-1	5.103781E-1	5.057436E-1	4.970856E-1	5.328645E-1	4.998988E-1	5.589776E-1	4.992322E-1	4.994346E-1	5.277315E-1	5.178250E-1	5.348560E-1	5.090393E-1	5.446994E-1	5.055070E-1	5.373045E-1	5.425875E-1	5.380266E-1	5.313853E-1	5.194742E-1	5.683817E-1	5.335894E-1	5.690300E-1	5.760597E-1	5.737286E-1	5.031555E-1	5.265703E-1	5.674083E-1	5.365682E-1	5.571484E-1	5.248392E-1	5.405881E-1	5.048861E-1	5.284809E-1	5.587780E-1	5.254192E-1	5.360699E-1	5.298981E-1	5.244152E-1	5.140802E-1	5.117667E-1	5.282121E-1	5.088698E-1	5.052487E-1	5.513726E-1	5.446659E-1	5.496237E-1	5.435659E-1	4.928336E-1	5.306827E-1	5.437813E-1	5.462172E-1	5.592113E-1	5.626502E-1	5.366284E-1	5.274163E-1	4.978001E-1	5.613730E-1	5.279872E-1	5.349214E-1	4.830329E-1	4.980371E-1	5.434566E-1	5.255198E-1	5.193459E-1	5.595878E-1	5.215511E-1	5.327064E-1	5.248071E-1	5.257986E-1	5.025734E-1	5.347014E-1	5.354402E-1	5.250570E-1	5.679663E-1	5.569584E-1	5.330615E-1	5.110753E-1	5.469000E-1	5.347280E-1	5.276237E-1	5.445522E-1	5.303190E-1	5.483916E-1	5.201453E-1	5.218484E-1	4.876098E-1	5.473745E-1	5.008073E-1	5.453364E-1	5.280716E-1	5.180552E-1	5.333014E-1	5.262796E-1	5.303224E-1	5.252393E-1	5.384632E-1	5.357451E-1	4.929376E-1	5.191520E-1	5.066669E-1	5.146860E-1	5.280797E-1	5.249511E-1	5.457301E-1	5.009070E-1	5.238390E-1	5.043845E-1	5.527217E-1	5.089146E-1	5.078028E-1	5.217352E-1	5.107758E-1	5.916412E-1	5.242993E-1	5.324387E-1	5.342108E-1	5.354705E-1	5.328917E-1	5.489309E-1	5.100747E-1	5.414015E-1	5.582741E-1	5.103690E-1	4.941637E-1	5.478050E-1	5.411697E-1	5.454202E-1	5.365446E-1	5.458204E-1	5.297313E-1	5.462437E-1	5.434447E-1	5.094263E-1	5.029837E-1	5.557503E-1	5.505706E-1	5.330876E-1	5.279062E-1	5.520979E-1	5.190215E-1	5.228554E-1
5.370120E+2	5.463426E-1	4.994837E-1	5.299712E-1	4.575607E-1	5.292305E-1	5.191777E-1	5.247610E-1	4.807326E-1	4.971720E-1	5.234184E-1	5.165286E-1	5.230284E-1	5.254161E-1	5.187716E-1	4.883329E-1	4.825776E-1	5.233258E-1	5.122527E-1	4.920260E-1	5.207644E-1	4.674814E-1	4.997891E-1	5.244662E-1	4.891342E-1	5.200733E-1	5.282958E-1	5.160001E-1	5.221805E-1	4.994358E-1	4.906244E-1	5.323197E-1	5.301811E-1	4.969732E-1	5.252272E-1	5.194282E-1	5.073580E-1	5.032953E-1	4.980801E-1	5.056096E-1	5.135775E-1	4.967606E-1	4.564170E-1	4.891602E-1	4.927033E-1	5.313260E-1	5.199911E-1	5.129523E-1	5.089445E-1	4.950042E-1	4.817957E-1	5.170400E-1	5.414503E-1	5.392768E-1	5.028811E-1	5.125946E-1	5.668460E-1	5.088842E-1	5.015802E-1	5.636842E-1	4.891819E-1	5.030371E-1	5.454729E-1	4.942703E-1	4.852980E-1	4.925601E-1	4.954365E-1	5.090883E-1	4.830674E-1	4.962859E-1	5.129774E-1	5.032786E-1	5.471592E-1	5.349042E-1	5.135537E-1	4.978797E-1	5.561276E-1	5.325145E-1	5.034940E-1	5.130567E-1	5.126977E-1	5.274002E-1	5.209558E-1	5.345545E-1	5.248835E-1	4.887365E-1	5.078510E-1	5.432768E-1	5.083533E-1	5.159249E-1	5.117233E-1	5.113669E-1	5.143845E-1	4.958561E-1	5.240234E-1	5.004679E-1	5.130370E-1	5.061532E-1	5.127095E-1	5.035372E-1	5.034359E-1	5.195854E-1	5.208155E-1	5.023156E-1	5.322689E-1	4.818053E-1	5.013450E-1	5.319972E-1	5.616826E-1	4.738317E-1	5.200790E-1	5.036235E-1	4.847440E-1	5.143665E-1	5.025621E-1	5.173876E-1	5.123469E-1	5.167458E-1	5.218117E-1	5.056104E-1	5.186152E-1	5.592504E-1	5.276186E-1	5.179692E-1	4.955698E-1	5.105217E-1	5.036851E-1	5.101505E-1	5.345464E-1	5.357630E-1	5.060982E-1	4.895585E-1	5.047565E-1	4.777196E-1	5.143648E-1	5.194869E-1	5.069844E-1	5.232615E-1	5.038602E-1	5.025256E-1	4.845645E-1	5.230908E-1	5.071097E-1	5.295882E-1	5.431676E-1	5.258114E-1	4.760772E-1	5.562225E-1	4.994849E-1	5.097266E-1	5.229287E-1	5.153459E-1	5.173793E-1	4.920934E-1	5.371240E-1	5.365682E-1	5.329425E-1	5.416094E-1	5.219768E-1	5.527226E-1	5.199879E-1	5.411979E-1	4.945382E-1	5.437067E-1	5.042180E-1	5.367842E-1	5.213023E-1	5.126301E-1	4.909765E-1	5.288484E-1
5.372900E+2	5.103007E-1	5.096784E-1	5.656691E-1	5.321367E-1	5.065395E-1	5.137567E-1	5.271008E-1	5.041978E-1	5.531053E-1	5.250447E-1	5.606562E-1	5.188418E-1	5.450417E-1	5.126896E-1	5.053821E-1	5.335930E-1	5.335365E-1	5.435282E-1	5.536544E-1	5.282966E-1	5.405412E-1	5.491319E-1	5.698122E-1	5.639881E-1	5.842208E-1	5.702234E-1	5.153147E-1	5.540849E-1	5.798765E-1	5.214479E-1	5.518053E-1	5.414057E-1	5.391342E-1	5.542458E-1	5.385037E-1	5.801449E-1	5.540119E-1	5.633656E-1	5.374056E-1	5.355274E-1	5.462777E-1	5.357095E-1	5.330456E-1	5.469271E-1	5.801990E-1	5.148140E-1	5.515625E-1	5.393119E-1	5.610778E-1	5.455677E-1	5.794437E-1	5.814988E-1	5.276459E-1	5.240318E-1	5.346395E-1	5.675552E-1	5.622998E-1	5.384459E-1	5.560067E-1	5.187155E-1	5.564197E-1	5.355894E-1	5.824212E-1	5.417737E-1	5.763253E-1	5.343097E-1	5.254356E-1	4.966188E-1	5.564599E-1	5.609228E-1	5.324478E-1	5.980814E-1	5.331495E-1	5.536904E-1	5.222740E-1	5.252328E-1	5.127285E-1	5.102783E-1	5.251909E-1	5.523497E-1	5.495793E-1	5.330787E-1	5.578328E-1	5.644425E-1	5.380530E-1	5.423497E-1	5.634317E-1	5.550281E-1	5.429104E-1	4.977755E-1	5.497896E-1	5.657408E-1	5.378875E-1	5.061370E-1	5.278660E-1	5.316451E-1	5.746051E-1	5.624818E-1	5.450601E-1	5.708524E-1	5.247481E-1	5.539736E-1	5.371982E-1	5.406590E-1	5.599035E-1	5.279077E-1	5.461048E-1	5.460228E-1	5.334417E-1	5.173661E-1	5.348935E-1	5.218095E-1	5.409757E-1	5.319951E-1	5.542351E-1	5.421364E-1	5.359402E-1	5.426583E-1	5.690911E-1	5.720388E-1	6.023367E-1	5.295276E-1	5.345260E-1	5.444311E-1	5.409698E-1	5.226955E-1	5.513044E-1	5.835365E-1	5.607101E-1	5.309805E-1	5.138513E-1	5.630405E-1	5.488514E-1	5.617262E-1	5.589895E-1	5.093927E-1	5.571982E-1	5.927308E-1	5.498429E-1	5.302292E-1	5.573594E-1	5.095589E-1	5.802760E-1	5.884118E-1	5.613237E-1	5.278518E-1	5.356964E-1	5.432174E-1	5.569653E-1	5.820999E-1	5.262522E-1	5.583214E-1	5.645768E-1	5.561110E-1	5.421723E-1	5.293960E-1	5.561509E-1	5.273689E-1	5.669254E-1	5.633643E-1	5.210894E-1	5.379777E-1	5.551944E-1	5.727341E-1	5.504595E-1	5.453956E-1	5.723751E-1	5.358140E-1	5.637029E-1
5.375160E+2	6.211056E-1	6.319838E-1	6.383299E-1	5.966983E-1	6.430809E-1	5.966636E-1	6.113051E-1	6.443674E-1	6.175335E-1	6.353753E-1	6.290870E-1	6.039100E-1	6.273095E-1	6.281490E-1	6.385743E-1	6.216946E-1	5.948370E-1	6.166758E-1	6.118239E-1	6.371338E-1	6.457329E-1	6.455984E-1	6.278480E-1	6.276866E-1	6.455932E-1	6.448911E-1	6.291122E-1	6.433236E-1	6.154497E-1	6.510443E-1	6.532611E-1	6.266563E-1	6.570010E-1	6.147629E-1	6.176651E-1	6.031525E-1	6.501769E-1	6.340444E-1	6.192914E-1	6.293680E-1	6.298560E-1	6.289194E-1	6.544461E-1	6.088153E-1	6.217931E-1	6.203059E-1	6.014675E-1	6.133667E-1	6.598506E-1	6.454631E-1	6.151644E-1	6.294525E-1	6.383094E-1	6.418997E-1	6.264779E-1	6.486727E-1	6.391975E-1	6.263322E-1	6.369737E-1	6.538788E-1	6.366140E-1	6.295160E-1	6.619775E-1	6.235971E-1	6.112495E-1	6.332149E-1	6.280956E-1	6.214647E-1	6.201969E-1	6.691127E-1	6.325254E-1	6.392684E-1	6.399206E-1	6.068518E-1	6.032152E-1	6.237636E-1	6.208881E-1	6.251606E-1	6.093706E-1	6.193094E-1	6.625413E-1	6.567738E-1	6.608068E-1	6.025234E-1	6.225468E-1	6.256557E-1	6.012076E-1	6.254553E-1	6.551348E-1	6.077795E-1	6.644133E-1	6.376261E-1	6.153866E-1	5.980729E-1	5.780250E-1	5.941933E-1	6.605680E-1	6.310056E-1	6.388681E-1	6.421151E-1	6.573771E-1	6.575585E-1	6.549680E-1	6.307167E-1	6.346851E-1	6.309817E-1	6.599960E-1	6.494899E-1	6.291314E-1	6.034428E-1	6.540654E-1	6.196788E-1	6.158670E-1	5.928814E-1	6.065883E-1	6.241980E-1	6.059638E-1	6.009952E-1	6.185237E-1	6.663965E-1	6.646985E-1	5.827931E-1	6.335780E-1	6.359981E-1	6.270964E-1	6.094866E-1	6.117193E-1	6.121457E-1	6.727132E-1	6.532550E-1	6.404331E-1	6.702061E-1	6.581689E-1	6.461061E-1	6.458703E-1	6.173100E-1	6.870020E-1	6.097221E-1	6.383667E-1	6.057954E-1	6.749397E-1	6.079664E-1	6.544784E-1	6.080029E-1	6.411336E-1	6.524488E-1	6.369455E-1	6.296021E-1	6.257378E-1	6.285290E-1	6.582026E-1	6.703670E-1	6.373128E-1	6.323449E-1	6.014578E-1	6.289305E-1	6.262169E-1	6.622691E-1	6.540979E-1	6.743126E-1	6.552852E-1	6.254330E-1	6.187614E-1	6.179384E-1	6.066931E-1	6.249411E-1	6.654832E-1	6.555614E-1	6.095048E-1
5.377790E+2	6.806781E-1	6.748960E-1	6.977945E-1	6.625778E-1	6.715699E-1	6.801954E-1	6.690970E-1	6.994268E-1	7.272053E-1	6.442973E-1	7.152078E-1	7.017351E-1	6.966516E-1	6.831253E-1	6.803151E-1	6.581391E-1	6.865166E-1	6.922161E-1	6.790477E-1	7.063340E-1	6.642678E-1	6.647967E-1	7.029373E-1	6.938062E-1	7.120513E-1	6.999896E-1	7.028870E-1	6.871671E-1	7.097393E-1	7.122790E-1	7.012742E-1	6.793977E-1	7.083970E-1	6.573707E-1	6.569980E-1	7.309328E-1	6.345831E-1	6.904013E-1	6.838164E-1	7.156272E-1	6.918034E-1	7.017863E-1	6.968560E-1	6.741885E-1	7.203635E-1	7.091094E-1	6.901633E-1	7.099270E-1	7.488145E-1	6.980962E-1	7.257427E-1	6.974269E-1	7.251927E-1	7.356069E-1	6.752142E-1	7.127244E-1	7.158613E-1	7.124789E-1	6.911787E-1	6.957671E-1	7.062189E-1	6.559970E-1	7.525053E-1	6.744121E-1	7.249826E-1	6.666434E-1	7.047539E-1	6.907673E-1	6.764402E-1	6.768165E-1	6.468669E-1	6.877978E-1	7.093671E-1	6.673133E-1	7.195080E-1	6.757343E-1	6.685447E-1	6.891537E-1	6.767964E-1	6.850616E-1	6.616813E-1	7.224575E-1	7.043990E-1	6.674790E-1	6.766417E-1	7.437956E-1	6.803409E-1	6.827730E-1	7.061197E-1	6.604382E-1	7.196643E-1	6.748214E-1	7.358294E-1	6.888196E-1	6.824940E-1	7.047634E-1	7.174467E-1	6.953382E-1	7.254606E-1	6.978318E-1	6.931744E-1	7.010888E-1	7.321352E-1	6.678826E-1	7.102320E-1	6.704081E-1	6.884246E-1	6.690516E-1	7.003933E-1	6.571002E-1	7.235546E-1	6.982588E-1	6.860482E-1	7.184933E-1	6.834251E-1	6.418556E-1	7.253697E-1	6.629690E-1	7.244732E-1	7.276665E-1	7.226609E-1	7.113049E-1	6.843799E-1	7.103567E-1	6.788763E-1	7.182130E-1	7.142430E-1	7.090581E-1	7.223012E-1	6.581710E-1	7.050485E-1	6.838908E-1	6.745917E-1	6.784244E-1	6.792292E-1	6.793637E-1	7.140679E-1	6.807613E-1	7.536724E-1	6.697997E-1	6.492881E-1	6.550333E-1	7.413707E-1	7.536411E-1	7.222971E-1	6.467714E-1	6.878025E-1	6.890877E-1	6.704943E-1	6.760527E-1	7.171727E-1	7.242337E-1	7.187781E-1	7.165160E-1	7.140191E-1	6.941004E-1	7.050464E-1	6.482317E-1	7.287067E-1	7.307308E-1	6.795640E-1	6.828039E-1	6.911214E-1	6.571915E-1	7.209141E-1	7.069849E-1	6.944825E-1	6.814788E-1	7.347468E-1
5.380160E+2	8.113416E-1	7.734486E-1	8.033620E-1	7.611069E-1	7.986132E-1	7.963444E-1	7.700218E-1	7.770595E-1	7.942635E-1	7.585308E-1	7.809451E-1	7.922694E-1	7.853562E-1	7.872067E-1	7.958483E-1	8.457777E-1	8.012558E-1	7.949763E-1	7.624949E-1	8.102114E-1	8.127456E-1	7.915157E-1	8.078342E-1	8.205608E-1	8.564348E-1	8.297552E-1	8.138702E-1	8.431864E-1	8.212810E-1	8.310852E-1	7.854740E-1	7.815684E-1	8.350100E-1	8.112760E-1	8.031196E-1	8.499518E-1	8.127661E-1	8.472576E-1	8.170364E-1	8.434226E-1	8.369973E-1	8.437910E-1	8.155911E-1	8.027171E-1	8.004223E-1	7.752774E-1	8.184271E-1	8.263621E-1	8.455647E-1	8.083330E-1	8.557426E-1	8.481171E-1	8.097018E-1	8.165155E-1	8.217024E-1	8.318432E-1	8.170031E-1	8.413904E-1	8.172707E-1	8.058815E-1	8.234480E-1	8.242539E-1	8.173387E-1	8.140224E-1	8.137011E-1	7.719069E-1	8.148689E-1	7.737715E-1	7.910499E-1	7.920055E-1	8.231142E-1	8.396356E-1	8.405603E-1	7.677096E-1	7.911032E-1	8.131304E-1	8.627767E-1	7.874599E-1	8.441560E-1	8.127223E-1	7.684803E-1	7.910981E-1	8.441612E-1	7.759279E-1	8.282194E-1	8.110100E-1	8.134396E-1	8.034161E-1	8.218623E-1	7.638949E-1	8.770898E-1	7.827196E-1	8.185101E-1	8.014769E-1	7.830725E-1	7.784676E-1	8.242795E-1	7.887163E-1	8.017170E-1	8.303757E-1	8.135036E-1	7.617795E-1	7.896647E-1	8.360082E-1	8.323928E-1	7.889127E-1	8.043749E-1	7.871112E-1	7.790075E-1	7.668196E-1	7.896460E-1	8.082948E-1	7.716199E-1	7.765044E-1	8.220004E-1	8.063056E-1	7.994262E-1	7.905755E-1	8.410823E-1	8.245673E-1	8.064938E-1	7.669480E-1	8.116260E-1	7.531889E-1	7.713081E-1	7.812429E-1	8.649500E-1	7.895002E-1	8.300786E-1	8.131350E-1	7.758143E-1	8.214609E-1	7.941582E-1	7.958324E-1	8.051683E-1	7.887706E-1	8.104233E-1	8.222919E-1	7.691426E-1	8.001810E-1	8.388374E-1	7.832060E-1	8.339562E-1	7.756389E-1	7.925135E-1	7.648014E-1	8.206124E-1	8.232803E-1	7.588148E-1	8.467005E-1	7.715076E-1	8.368256E-1	7.987651E-1	7.886205E-1	7.889527E-1	7.698210E-1	8.125798E-1	7.703939E-1	7.980936E-1	8.520830E-1	7.720014E-1	7.673126E-1	7.862935E-1	7.946464E-1	7.783316E-1	8.230482E-1	8.010579E-1	7.636498E-1	7.972653E-1
5.382900E+2	1.042138E+0	1.020301E+0	1.039045E+0	9.544298E-1	9.685541E-1	1.017214E+0	9.805201E-1	1.028471E+0	9.891649E-1	9.834260E-1	1.023189E+0	9.542947E-1	1.078618E+0	1.004593E+0	1.033697E+0	9.970209E-1	1.001345E+0	9.788256E-1	9.629059E-1	9.827935E-1	1.038600E+0	1.021654E+0	1.011844E+0	1.000448E+0	9.579630E-1	1.103846E+0	9.880181E-1	1.021881E+0	1.067961E+0	1.017007E+0	9.821638E-1	1.035592E+0	1.067303E+0	1.033923E+0	1.059082E+0	1.023650E+0	1.005842E+0	9.977239E-1	1.045803E+0	1.022115E+0	9.970180E-1	9.728269E-1	1.001453E+0	1.018550E+0	1.009940E+0	9.942705E-1	1.025071E+0	1.010019E+0	1.030131E+0	1.000762E+0	1.021891E+0	1.018430E+0	1.033384E+0	9.831999E-1	1.033542E+0	1.035611E+0	1.067812E+0	1.032917E+0	1.045536E+0	1.031865E+0	9.982451E-1	9.692667E-1	1.028622E+0	1.029482E+0	1.031321E+0	1.011313E+0	9.971574E-1	9.574010E-1	9.654837E-1	1.029989E+0	9.929018E-1	1.107055E+0	9.797646E-1	1.005589E+0	1.015525E+0	9.995114E-1	1.071649E+0	9.820972E-1	1.021831E+0	9.829555E-1	9.880606E-1	9.801328E-1	1.009288E+0	1.045569E+0	9.332879E-1	1.010809E+0	1.013799E+0	9.382580E-1	9.842374E-1	9.662541E-1	9.924741E-1	1.024703E+0	1.023826E+0	1.028191E+0	1.005530E+0	9.999703E-1	1.056941E+0	9.888640E-1	1.034866E+0	1.015084E+0	1.047321E+0	1.023572E+0	9.956228E-1	1.025509E+0	1.044919E+0	9.894365E-1	1.037605E+0	1.011255E+0	1.011322E+0	9.691517E-1	9.959442E-1	1.032307E+0	1.008592E+0	1.004241E+0	1.058443E+0	1.042519E+0	1.024211E+0	9.766112E-1	1.002649E+0	9.650931E-1	1.042020E+0	9.660299E-1	9.549776E-1	1.002304E+0	1.070299E+0	9.974402E-1	1.010285E+0	1.014768E+0	9.671805E-1	9.937266E-1	9.795585E-1	9.819403E-1	1.006489E+0	1.000548E+0	1.011502E+0	1.019793E+0	1.002868E+0	9.711018E-1	1.032231E+0	9.175440E-1	1.010149E+0	1.000717E+0	1.022356E+0	1.071188E+0	1.009659E+0	9.672207E-1	9.935066E-1	9.673086E-1	9.542089E-1	9.584590E-1	1.015159E+0	9.936632E-1	1.022367E+0	9.980093E-1	1.096039E+0	1.071311E+0	1.025057E+0	1.045452E+0	1.080940E+0	9.867792E-1	1.019532E+0	9.574313E-1	1.008866E+0	1.011970E+0	1.050273E+0	9.862645E-1	1.023416E+0	1.014708E+0	1.084822E+0
5.385110E+2	1.134190E+0	1.178691E+0	1.218432E+0	1.108657E+0	1.201281E+0	1.161635E+0	1.188515E+0	1.224413E+0	1.205637E+0	1.169479E+0	1.178751E+0	1.174551E+0	1.165560E+0	1.142323E+0	1.183960E+0	1.175462E+0	1.187856E+0	1.188360E+0	1.175532E+0	1.211898E+0	1.207242E+0	1.153170E+0	1.232281E+0	1.206921E+0	1.249935E+0	1.284749E+0	1.113275E+0	1.167137E+0	1.217421E+0	1.193104E+0	1.157089E+0	1.175598E+0	1.178162E+0	1.212830E+0	1.240590E+0	1.215343E+0	1.178033E+0	1.188174E+0	1.229327E+0	1.214263E+0	1.210733E+0	1.163714E+0	1.143246E+0	1.220842E+0	1.282030E+0	1.178744E+0	1.185376E+0	1.229679E+0	1.187356E+0	1.137115E+0	1.219835E+0	1.180258E+0	1.152345E+0	1.210888E+0	1.217894E+0	1.242166E+0	1.174473E+0	1.198832E+0	1.195304E+0	1.197816E+0	1.237217E+0	1.160532E+0	1.153058E+0	1.173444E+0	1.202313E+0	1.175380E+0	1.147456E+0	1.130500E+0	1.174466E+0	1.178245E+0	1.155725E+0	1.195140E+0	1.209262E+0	1.158610E+0	1.229322E+0	1.171376E+0	1.204685E+0	1.142906E+0	1.146538E+0	1.183797E+0	1.135667E+0	1.138050E+0	1.222153E+0	1.172060E+0	1.149348E+0	1.180787E+0	1.229484E+0	1.168633E+0	1.190656E+0	1.124547E+0	1.215543E+0	1.174854E+0	1.205228E+0	1.151300E+0	1.175529E+0	1.139259E+0	1.167584E+0	1.194285E+0	1.267639E+0	1.192285E+0	1.233086E+0	1.192390E+0	1.162468E+0	1.151386E+0	1.106360E+0	1.172436E+0	1.187776E+0	1.169242E+0	1.190954E+0	1.164455E+0	1.157098E+0	1.192154E+0	1.113054E+0	1.154431E+0	1.186481E+0	1.189659E+0	1.174257E+0	1.140682E+0	1.214474E+0	1.180518E+0	1.176464E+0	1.176941E+0	1.146964E+0	1.115060E+0	1.247799E+0	1.112484E+0	1.122108E+0	1.228686E+0	1.195464E+0	1.246252E+0	1.199000E+0	1.225555E+0	1.167141E+0	1.210120E+0	1.177636E+0	1.119606E+0	1.181914E+0	1.131310E+0	1.110103E+0	1.200477E+0	1.232674E+0	1.107154E+0	1.164602E+0	1.216025E+0	1.162124E+0	1.169727E+0	1.187131E+0	1.149295E+0	1.147090E+0	1.201164E+0	1.190394E+0	1.222896E+0	1.148643E+0	1.208110E+0	1.205753E+0	1.193427E+0	1.184706E+0	1.166548E+0	1.212314E+0	1.242812E+0	1.151613E+0	1.138766E+0	1.190705E+0	1.190251E+0	1.205987E+0	1.194525E+0	1.174139E+0	1.206164E+0	1.276271E+0
5.387700E+2	1.431306E+0	1.462884E+0	1.424918E+0	1.407146E+0	1.411531E+0	1.425740E+0	1.368777E+0	1.405324E+0	1.415867E+0	1.445208E+0	1.386059E+0	1.397862E+0	1.419189E+0	1.432277E+0	1.440719E+0	1.389565E+0	1.391991E+0	1.427218E+0	1.398674E+0	1.431920E+0	1.417711E+0	1.429989E+0	1.411240E+0	1.494817E+0	1.454552E+0	1.525737E+0	1.406983E+0	1.493700E+0	1.442340E+0	1.499240E+0	1.411858E+0	1.418042E+0	1.444124E+0	1.450947E+0	1.447413E+0	1.369641E+0	1.439840E+0	1.417622E+0	1.445201E+0	1.379253E+0	1.469238E+0	1.408463E+0	1.433032E+0	1.460747E+0	1.468516E+0	1.384389E+0	1.380753E+0	1.459311E+0	1.467217E+0	1.361839E+0	1.406635E+0	1.437054E+0	1.418156E+0	1.396652E+0	1.457883E+0	1.448893E+0	1.488229E+0	1.449140E+0	1.375809E+0	1.423983E+0	1.441225E+0	1.427765E+0	1.485409E+0	1.453222E+0	1.377087E+0	1.445990E+0	1.416737E+0	1.345400E+0	1.383599E+0	1.446803E+0	1.415413E+0	1.405648E+0	1.442318E+0	1.394544E+0	1.394117E+0	1.426868E+0	1.419881E+0	1.376708E+0	1.436354E+0	1.417687E+0	1.422448E+0	1.394055E+0	1.369597E+0	1.405549E+0	1.389896E+0	1.426382E+0	1.397916E+0	1.364337E+0	1.440716E+0	1.361840E+0	1.455827E+0	1.345599E+0	1.482098E+0	1.404553E+0	1.370217E+0	1.351302E+0	1.407419E+0	1.429590E+0	1.409216E+0	1.362795E+0	1.443244E+0	1.464812E+0	1.396899E+0	1.418072E+0	1.426167E+0	1.432487E+0	1.430264E+0	1.415843E+0	1.419621E+0	1.380814E+0	1.440182E+0	1.376422E+0	1.454271E+0	1.348138E+0	1.355506E+0	1.404184E+0	1.414254E+0	1.415761E+0	1.448146E+0	1.385781E+0	1.509796E+0	1.387044E+0	1.404254E+0	1.452872E+0	1.433630E+0	1.336428E+0	1.400783E+0	1.417289E+0	1.552415E+0	1.479946E+0	1.418350E+0	1.408660E+0	1.419591E+0	1.405859E+0	1.347889E+0	1.430138E+0	1.450256E+0	1.390831E+0	1.398041E+0	1.452470E+0	1.446119E+0	1.367944E+0	1.432302E+0	1.406017E+0	1.396854E+0	1.343168E+0	1.382048E+0	1.437637E+0	1.402608E+0	1.401170E+0	1.400379E+0	1.472340E+0	1.416340E+0	1.465913E+0	1.465642E+0	1.429082E+0	1.378529E+0	1.354279E+0	1.458644E+0	1.427775E+0	1.389308E+0	1.396272E+0	1.454218E+0	1.395938E+0	1.426347E+0	1.417337E+0	1.403420E+0	1.381568E+0	1.444694E+0
5.390240E+2	1.574148E+0	1.648109E+0	1.683791E+0	1.595256E+0	1.601437E+0	1.587247E+0	1.604697E+0	1.623648E+0	1.635494E+0	1.588347E+0	1.646354E+0	1.627984E+0	1.694163E+0	1.629701E+0	1.616998E+0	1.647503E+0	1.625450E+0	1.597591E+0	1.604651E+0	1.658709E+0	1.630534E+0	1.598641E+0	1.632442E+0	1.717942E+0	1.674359E+0	1.690160E+0	1.656911E+0	1.657497E+0	1.619071E+0	1.589869E+0	1.589800E+0	1.644748E+0	1.649218E+0	1.582957E+0	1.640261E+0	1.658876E+0	1.601420E+0	1.665531E+0	1.630419E+0	1.723605E+0	1.633081E+0	1.623511E+0	1.663691E+0	1.609827E+0	1.634058E+0	1.643394E+0	1.598310E+0	1.661950E+0	1.663121E+0	1.597459E+0	1.641328E+0	1.679035E+0	1.640572E+0	1.649423E+0	1.686429E+0	1.628211E+0	1.683802E+0	1.666481E+0	1.619972E+0	1.645716E+0	1.629051E+0	1.576244E+0	1.640524E+0	1.713962E+0	1.661290E+0	1.707720E+0	1.656014E+0	1.644070E+0	1.542689E+0	1.665528E+0	1.623586E+0	1.608183E+0	1.622782E+0	1.580624E+0	1.577402E+0	1.570337E+0	1.570542E+0	1.559094E+0	1.609600E+0	1.602071E+0	1.620800E+0	1.679531E+0	1.600350E+0	1.616439E+0	1.640651E+0	1.579927E+0	1.664229E+0	1.580313E+0	1.622885E+0	1.585091E+0	1.654624E+0	1.607644E+0	1.628242E+0	1.566327E+0	1.557792E+0	1.571158E+0	1.624029E+0	1.580013E+0	1.616309E+0	1.633063E+0	1.625616E+0	1.600058E+0	1.625093E+0	1.591067E+0	1.587006E+0	1.552076E+0	1.654166E+0	1.615118E+0	1.578074E+0	1.584539E+0	1.608903E+0	1.624434E+0	1.655450E+0	1.552004E+0	1.662381E+0	1.624307E+0	1.653561E+0	1.573850E+0	1.620996E+0	1.625823E+0	1.624034E+0	1.586647E+0	1.648628E+0	1.566355E+0	1.589248E+0	1.580244E+0	1.583214E+0	1.609840E+0	1.619835E+0	1.643738E+0	1.522958E+0	1.661392E+0	1.639043E+0	1.597176E+0	1.616232E+0	1.603696E+0	1.711218E+0	1.536339E+0	1.547964E+0	1.589454E+0	1.681040E+0	1.540535E+0	1.575219E+0	1.618059E+0	1.593196E+0	1.525539E+0	1.639986E+0	1.634418E+0	1.569871E+0	1.597362E+0	1.579653E+0	1.643858E+0	1.617144E+0	1.575048E+0	1.590073E+0	1.591959E+0	1.664257E+0	1.602976E+0	1.628866E+0	1.552803E+0	1.616628E+0	1.544150E+0	1.631422E+0	1.557381E+0	1.625454E+0	1.584277E+0	1.596822E+0	1.640335E+0	1.582973E+0
5.392880E+2	1.843813E+0	1.830242E+0	1.892170E+0	1.779624E+0	1.859461E+0	1.764791E+0	1.849203E+0	1.818138E+0	1.842558E+0	1.816229E+0	1.868132E+0	1.842103E+0	1.863160E+0	1.835644E+0	1.905084E+0	1.875122E+0	1.824205E+0	1.941947E+0	1.851220E+0	1.844526E+0	1.878549E+0	1.793702E+0	1.844574E+0	1.781380E+0	1.798890E+0	1.826581E+0	1.816091E+0	1.843001E+0	1.819036E+0	1.874636E+0	1.746747E+0	1.809817E+0	1.826048E+0	1.782928E+0	1.771083E+0	1.803172E+0	1.782883E+0	1.769148E+0	1.861847E+0	1.853321E+0	1.800735E+0	1.788698E+0	1.812543E+0	1.837773E+0	1.900356E+0	1.767630E+0	1.829897E+0	1.780213E+0	1.834763E+0	1.797271E+0	1.870986E+0	1.810197E+0	1.823732E+0	1.791430E+0	1.901426E+0	1.900264E+0	1.833254E+0	1.873969E+0	1.821946E+0	1.868851E+0	1.837008E+0	1.822337E+0	1.864193E+0	1.784538E+0	1.808183E+0	1.753629E+0	1.798022E+0	1.800773E+0	1.764812E+0	1.832489E+0	1.846594E+0	1.917319E+0	1.826078E+0	1.817742E+0	1.838940E+0	1.844060E+0	1.841991E+0	1.743840E+0	1.808334E+0	1.806865E+0	1.791590E+0	1.774543E+0	1.829166E+0	1.768250E+0	1.778502E+0	1.822072E+0	1.842960E+0	1.795971E+0	1.822472E+0	1.817780E+0	1.784222E+0	1.768691E+0	1.813689E+0	1.804231E+0	1.768852E+0	1.804311E+0	1.836461E+0	1.802152E+0	1.803457E+0	1.807498E+0	1.874783E+0	1.872800E+0	1.811404E+0	1.794462E+0	1.792843E+0	1.706902E+0	1.837888E+0	1.812733E+0	1.829769E+0	1.778786E+0	1.781355E+0	1.841832E+0	1.780877E+0	1.709458E+0	1.792383E+0	1.838189E+0	1.853297E+0	1.800506E+0	1.853431E+0	1.772070E+0	1.908870E+0	1.730697E+0	1.760449E+0	1.796886E+0	1.900165E+0	1.760383E+0	1.748115E+0	1.818878E+0	1.788316E+0	1.854643E+0	1.832476E+0	1.812236E+0	1.769846E+0	1.765190E+0	1.840053E+0	1.764101E+0	1.806867E+0	1.754732E+0	1.774624E+0	1.783981E+0	1.827034E+0	1.724525E+0	1.778228E+0	1.804415E+0	1.835659E+0	1.738929E+0	1.773863E+0	1.844527E+0	1.806089E+0	1.761275E+0	1.753427E+0	1.820827E+0	1.758774E+0	1.772491E+0	1.809280E+0	1.822353E+0	1.754897E+0	1.845505E+0	1.852390E+0	1.854771E+0	1.746143E+0	1.728079E+0	1.815419E+0	1.799229E+0	1.779356E+0	1.745332E+0	1.796005E+0	1.878055E+0	1.839260E+0
5.395210E+2	1.946543E+0	1.892808E+0	2.019128E+0	1.919511E+0	1.877743E+0	1.868359E+0	1.892993E+0	1.897491E+0	1.876298E+0	1.905109E+0	1.988096E+0	1.918483E+0	1.965932E+0	1.908323E+0	1.876367E+0	1.942200E+0	1.891744E+0	1.927603E+0	1.893797E+0	1.948985E+0	1.977008E+0	1.898226E+0	1.912975E+0	1.892002E+0	1.937924E+0	1.980432E+0	1.866923E+0	1.880856E+0	1.856101E+0	1.915782E+0	1.871183E+0	1.858169E+0	1.910306E+0	1.874693E+0	1.888999E+0	1.913047E+0	1.865208E+0	1.904668E+0	1.875293E+0	1.848654E+0	2.013551E+0	1.836172E+0	1.901642E+0	1.886221E+0	1.918468E+0	1.907525E+0	1.884798E+0	1.865165E+0	1.947304E+0	1.808683E+0	1.920274E+0	1.934470E+0	1.914541E+0	1.933820E+0	1.948983E+0	1.937868E+0	1.901532E+0	1.886935E+0	1.967820E+0	1.893033E+0	1.925111E+0	1.850193E+0	1.899210E+0	1.920402E+0	1.968399E+0	1.888302E+0	1.822106E+0	1.867177E+0	1.819511E+0	1.945637E+0	1.902573E+0	1.890255E+0	1.948221E+0	1.945599E+0	1.872493E+0	1.898238E+0	1.901351E+0	1.811971E+0	1.897176E+0	1.864232E+0	1.954437E+0	1.839317E+0	1.885679E+0	1.955441E+0	1.951032E+0	1.789247E+0	1.882318E+0	1.832171E+0	1.886888E+0	1.843388E+0	1.929901E+0	1.841386E+0	1.853917E+0	1.859784E+0	1.882314E+0	1.858294E+0	1.888784E+0	1.845255E+0	1.819609E+0	1.944425E+0	1.858969E+0	1.900979E+0	1.905243E+0	1.871594E+0	1.801812E+0	1.822550E+0	1.963243E+0	1.871744E+0	1.861363E+0	1.793483E+0	1.877449E+0	1.892073E+0	1.867258E+0	1.816290E+0	1.837968E+0	1.921248E+0	1.873564E+0	1.884361E+0	1.848592E+0	1.853680E+0	1.975029E+0	1.867314E+0	1.902321E+0	1.831886E+0	1.855120E+0	1.910126E+0	1.839810E+0	1.885058E+0	1.840729E+0	1.871194E+0	1.814778E+0	1.875374E+0	1.836080E+0	1.861870E+0	1.815032E+0	1.839926E+0	1.938859E+0	1.827031E+0	1.814747E+0	1.800919E+0	1.923048E+0	1.770180E+0	1.834944E+0	1.870244E+0	1.832927E+0	1.805498E+0	1.854350E+0	1.956374E+0	1.840596E+0	1.798424E+0	1.830821E+0	2.027029E+0	1.898425E+0	1.891425E+0	1.797850E+0	1.902408E+0	1.874802E+0	1.835224E+0	1.918648E+0	1.904580E+0	1.889699E+0	1.765451E+0	1.835744E+0	1.827445E+0	1.888038E+0	1.846408E+0	1.890208E+0	1.836754E+0	1.811241E+0
5.397750E+2	1.993667E+0	1.979989E+0	1.992810E+0	1.893002E+0	2.006339E+0	1.885791E+0	1.963284E+0	1.984743E+0	1.905460E+0	1.981250E+0	1.995655E+0	1.964369E+0	1.995958E+0	1.890943E+0	1.995201E+0	1.937029E+0	1.938631E+0	1.963926E+0	1.854154E+0	1.940811E+0	1.998747E+0	1.972817E+0	1.963602E+0	1.944064E+0	1.957420E+0	1.999323E+0	1.965532E+0	1.933132E+0	1.967004E+0	1.954906E+0	1.936569E+0	1.864676E+0	1.940382E+0	1.887021E+0	1.909103E+0	1.873578E+0	1.922267E+0	1.944502E+0	1.916542E+0	1.926435E+0	1.905934E+0	1.912282E+0	1.941051E+0	1.952989E+0	1.939584E+0	1.990272E+0	1.841660E+0	1.964516E+0	1.927536E+0	1.930031E+0	1.916058E+0	1.902090E+0	1.973367E+0	1.897657E+0	2.021505E+0	1.948093E+0	1.895025E+0	1.963771E+0	1.959949E+0	2.000795E+0	1.943801E+0	1.886582E+0	1.876094E+0	1.929595E+0	1.968601E+0	1.962388E+0	1.902193E+0	1.881632E+0	1.904618E+0	1.894354E+0	1.919119E+0	1.906280E+0	1.954686E+0	1.945642E+0	1.897830E+0	1.890671E+0	1.936113E+0	1.839155E+0	1.947380E+0	1.949678E+0	1.909859E+0	1.903343E+0	1.949324E+0	2.019864E+0	1.895416E+0	1.888832E+0	1.941176E+0	1.876651E+0	1.917937E+0	1.892331E+0	1.975183E+0	1.877804E+0	1.949809E+0	1.936038E+0	1.888134E+0	1.896253E+0	1.916061E+0	1.912860E+0	1.929631E+0	1.891285E+0	1.949517E+0	1.978709E+0	1.915458E+0	1.924822E+0	1.845152E+0	1.851103E+0	1.899551E+0	2.002002E+0	1.940611E+0	1.889134E+0	1.939431E+0	1.909924E+0	1.937890E+0	1.853143E+0	1.979748E+0	1.893656E+0	1.872321E+0	1.800000E+0	1.936258E+0	1.891042E+0	1.977710E+0	1.900834E+0	1.919794E+0	1.889816E+0	1.856779E+0	1.857031E+0	1.892430E+0	1.952328E+0	1.982238E+0	1.880708E+0	1.877804E+0	1.952525E+0	1.864416E+0	1.905175E+0	1.871085E+0	1.949457E+0	1.884870E+0	1.829444E+0	1.905939E+0	1.925352E+0	1.953093E+0	1.830231E+0	1.915795E+0	1.902527E+0	1.901212E+0	1.879822E+0	1.869785E+0	2.023011E+0	1.907152E+0	1.822244E+0	1.910753E+0	1.908901E+0	1.870656E+0	1.937986E+0	1.804013E+0	1.988775E+0	1.867847E+0	1.908699E+0	1.901831E+0	1.891156E+0	1.813164E+0	1.837952E+0	1.928055E+0	1.923067E+0	1.904546E+0	1.819540E+0	1.901620E+0	1.905700E+0	1.909095E+0
5.400190E+2	1.960014E+0	1.924488E+0	1.939669E+0	1.922185E+0	1.962559E+0	1.924708E+0	1.906731E+0	1.883901E+0	1.897275E+0	1.964217E+0	1.937942E+0	1.902484E+0	2.024431E+0	1.950442E+0	1.956652E+0	1.867076E+0	1.930502E+0	2.030661E+0	1.873644E+0	1.967532E+0	1.996461E+0	1.975032E+0	1.909090E+0	1.857949E+0	1.998724E+0	1.914259E+0	1.926061E+0	1.969882E+0	1.898397E+0	1.938930E+0	1.869272E+0	1.908182E+0	1.962492E+0	1.931827E+0	1.891890E+0	1.908365E+0	1.977269E+0	1.890999E+0	1.901131E+0	1.908349E+0	1.976844E+0	1.919335E+0	1.996070E+0	1.942017E+0	1.928577E+0	1.887191E+0	1.864630E+0	1.915146E+0	1.992327E+0	1.898464E+0	1.883297E+0	1.938521E+0	1.935779E+0	1.930448E+0	1.909852E+0	1.994582E+0	1.945659E+0	1.921901E+0	1.884300E+0	1.928253E+0	1.846943E+0	1.888269E+0	1.924225E+0	1.942738E+0	1.932329E+0	1.875957E+0	1.905559E+0	1.868197E+0	1.918541E+0	1.915878E+0	1.911708E+0	1.912189E+0	1.953006E+0	1.923272E+0	1.854851E+0	1.920610E+0	1.829324E+0	1.945607E+0	1.982470E+0	1.933845E+0	1.919982E+0	1.879619E+0	1.940118E+0	1.988642E+0	1.934628E+0	1.902423E+0	1.926481E+0	1.889847E+0	1.976364E+0	1.853138E+0	1.879871E+0	1.872729E+0	1.946279E+0	1.882597E+0	1.863464E+0	1.891794E+0	1.887502E+0	1.891206E+0	1.884608E+0	1.929362E+0	1.913355E+0	1.928209E+0	1.877069E+0	1.847352E+0	1.866326E+0	1.924397E+0	1.898658E+0	1.960143E+0	1.880806E+0	1.838444E+0	1.856489E+0	1.870320E+0	1.940196E+0	1.859819E+0	1.882026E+0	1.872947E+0	1.928796E+0	1.854365E+0	1.931254E+0	1.834788E+0	1.959863E+0	1.794521E+0	1.832486E+0	1.933979E+0	1.869593E+0	1.870953E+0	1.901743E+0	1.911565E+0	1.958036E+0	1.892611E+0	1.911041E+0	1.901703E+0	1.895101E+0	1.837524E+0	1.854686E+0	1.875088E+0	1.912853E+0	1.903485E+0	1.824027E+0	1.848254E+0	1.905882E+0	1.840135E+0	1.825924E+0	1.833581E+0	1.845590E+0	1.859875E+0	1.850076E+0	1.971801E+0	1.912639E+0	1.903483E+0	1.867228E+0	1.868780E+0	1.913311E+0	1.899296E+0	1.894001E+0	1.867675E+0	1.917751E+0	1.933708E+0	1.881176E+0	1.928597E+0	1.930579E+0	1.761237E+0	1.814347E+0	1.900771E+0	1.847594E+0	1.896715E+0	1.964184E+0	1.908789E+0	1.788779E+0
5.402630E+2	1.862253E+0	1.805350E+0	1.911869E+0	1.855937E+0	1.884261E+0	1.769256E+0	1.822626E+0	1.859431E+0	1.816818E+0	1.820652E+0	1.847875E+0	1.855511E+0	1.832069E+0	1.831104E+0	1.907326E+0	1.830501E+0	1.859555E+0	1.866133E+0	1.796417E+0	1.865050E+0	1.887022E+0	1.826154E+0	1.764056E+0	1.821488E+0	1.818040E+0	1.886374E+0	1.865531E+0	1.843150E+0	1.844688E+0	1.819586E+0	1.769333E+0	1.790262E+0	1.790133E+0	1.812428E+0	1.792574E+0	1.804958E+0	1.866201E+0	1.790997E+0	1.820816E+0	1.823439E+0	1.844929E+0	1.806523E+0	1.865746E+0	1.845888E+0	1.889952E+0	1.806201E+0	1.838166E+0	1.813782E+0	1.836696E+0	1.728982E+0	1.820640E+0	1.843430E+0	1.843081E+0	1.832822E+0	1.818639E+0	1.901704E+0	1.868191E+0	1.820557E+0	1.845329E+0	1.853711E+0	1.810550E+0	1.841434E+0	1.862955E+0	1.855093E+0	1.846359E+0	1.790605E+0	1.745872E+0	1.803456E+0	1.794967E+0	1.790100E+0	1.812705E+0	1.853969E+0	1.776461E+0	1.863055E+0	1.797757E+0	1.751123E+0	1.866823E+0	1.778486E+0	1.745258E+0	1.771693E+0	1.790325E+0	1.751426E+0	1.818076E+0	1.814791E+0	1.715485E+0	1.854124E+0	1.830227E+0	1.782018E+0	1.796094E+0	1.795767E+0	1.873038E+0	1.803389E+0	1.883701E+0	1.854607E+0	1.813264E+0	1.820427E+0	1.812707E+0	1.808202E+0	1.803484E+0	1.736879E+0	1.719205E+0	1.878453E+0	1.790223E+0	1.830509E+0	1.782956E+0	1.772736E+0	1.842203E+0	1.754351E+0	1.828462E+0	1.758171E+0	1.823009E+0	1.811777E+0	1.865066E+0	1.805076E+0	1.797340E+0	1.735554E+0	1.849934E+0	1.737354E+0	1.853735E+0	1.792338E+0	1.850538E+0	1.743575E+0	1.826977E+0	1.768624E+0	1.794049E+0	1.790497E+0	1.804297E+0	1.804598E+0	1.839809E+0	1.858153E+0	1.881338E+0	1.771457E+0	1.721707E+0	1.871123E+0	1.781629E+0	1.779233E+0	1.757028E+0	1.735143E+0	1.825987E+0	1.813468E+0	1.878546E+0	1.709658E+0	1.796640E+0	1.865334E+0	1.863099E+0	1.705314E+0	1.868455E+0	1.882024E+0	1.806666E+0	1.735308E+0	1.791139E+0	1.842002E+0	1.787596E+0	1.821556E+0	1.797627E+0	1.796906E+0	1.741986E+0	1.780926E+0	1.785141E+0	1.831756E+0	1.770774E+0	1.739808E+0	1.815961E+0	1.820336E+0	1.774950E+0	1.826758E+0	1.825818E+0	1.738533E+0	1.733689E+0
5.405240E+2	1.782211E+0	1.677285E+0	1.725163E+0	1.760579E+0	1.794408E+0	1.758588E+0	1.632373E+0	1.729818E+0	1.705666E+0	1.762648E+0	1.727030E+0	1.748522E+0	1.749424E+0	1.736420E+0	1.761197E+0	1.738473E+0	1.715668E+0	1.738857E+0	1.724966E+0	1.779959E+0	1.782761E+0	1.699666E+0	1.684988E+0	1.616305E+0	1.701049E+0	1.685641E+0	1.682616E+0	1.704018E+0	1.760313E+0	1.709575E+0	1.684313E+0	1.727824E+0	1.693397E+0	1.668908E+0	1.662221E+0	1.731068E+0	1.762761E+0	1.677430E+0	1.701821E+0	1.734270E+0	1.751972E+0	1.703773E+0	1.736615E+0	1.747475E+0	1.700464E+0	1.677550E+0	1.688073E+0	1.736502E+0	1.783671E+0	1.694464E+0	1.740260E+0	1.749089E+0	1.733027E+0	1.753732E+0	1.744816E+0	1.720802E+0	1.740101E+0	1.733080E+0	1.714674E+0	1.728963E+0	1.757182E+0	1.696578E+0	1.773813E+0	1.697139E+0	1.757557E+0	1.662816E+0	1.683614E+0	1.728264E+0	1.678492E+0	1.755522E+0	1.703137E+0	1.776828E+0	1.661759E+0	1.688730E+0	1.719815E+0	1.745317E+0	1.712944E+0	1.689766E+0	1.662911E+0	1.721505E+0	1.762572E+0	1.723203E+0	1.676082E+0	1.640999E+0	1.697353E+0	1.661738E+0	1.754175E+0	1.644751E+0	1.727164E+0	1.641045E+0	1.731894E+0	1.718746E+0	1.671130E+0	1.726325E+0	1.687309E+0	1.670027E+0	1.747059E+0	1.669026E+0	1.708439E+0	1.747660E+0	1.746157E+0	1.739294E+0	1.681082E+0	1.684521E+0	1.678076E+0	1.668420E+0	1.704066E+0	1.698588E+0	1.601281E+0	1.669432E+0	1.713233E+0	1.623837E+0	1.744149E+0	1.663088E+0	1.698931E+0	1.626908E+0	1.723620E+0	1.638132E+0	1.673090E+0	1.754209E+0	1.717800E+0	1.627804E+0	1.726369E+0	1.697118E+0	1.685013E+0	1.698683E+0	1.626077E+0	1.750723E+0	1.748879E+0	1.741256E+0	1.673293E+0	1.704506E+0	1.670495E+0	1.640336E+0	1.683924E+0	1.733719E+0	1.726740E+0	1.631701E+0	1.624135E+0	1.686430E+0	1.744767E+0	1.575091E+0	1.681116E+0	1.696903E+0	1.634854E+0	1.640873E+0	1.673762E+0	1.704832E+0	1.676851E+0	1.682704E+0	1.670465E+0	1.675285E+0	1.598474E+0	1.671233E+0	1.661473E+0	1.626826E+0	1.690286E+0	1.673947E+0	1.738684E+0	1.687442E+0	1.672884E+0	1.582649E+0	1.639219E+0	1.595043E+0	1.680615E+0	1.671792E+0	1.711836E+0	1.620465E+0	1.712528E+0
5.407630E+2	1.717999E+0	1.690142E+0	1.688995E+0	1.718544E+0	1.745429E+0	1.735655E+0	1.709349E+0	1.662912E+0	1.702119E+0	1.748314E+0	1.730695E+0	1.714061E+0	1.707355E+0	1.745268E+0	1.678333E+0	1.694658E+0	1.709382E+0	1.838586E+0	1.713619E+0	1.691930E+0	1.725257E+0	1.679832E+0	1.705353E+0	1.735112E+0	1.693581E+0	1.725322E+0	1.699186E+0	1.766220E+0	1.728156E+0	1.669311E+0	1.649724E+0	1.682668E+0	1.704066E+0	1.729985E+0	1.676175E+0	1.733790E+0	1.722580E+0	1.690582E+0	1.685044E+0	1.758550E+0	1.752477E+0	1.723903E+0	1.667801E+0	1.627309E+0	1.810014E+0	1.663149E+0	1.680914E+0	1.684703E+0	1.725959E+0	1.689833E+0	1.754812E+0	1.698908E+0	1.679805E+0	1.757808E+0	1.765350E+0	1.684602E+0	1.763726E+0	1.699190E+0	1.708126E+0	1.722963E+0	1.751777E+0	1.704656E+0	1.738635E+0	1.693101E+0	1.739380E+0	1.709690E+0	1.685384E+0	1.631047E+0	1.657010E+0	1.675250E+0	1.683881E+0	1.764225E+0	1.728656E+0	1.641202E+0	1.712754E+0	1.711998E+0	1.687118E+0	1.633594E+0	1.721194E+0	1.709711E+0	1.708390E+0	1.691151E+0	1.701862E+0	1.687076E+0	1.720434E+0	1.720145E+0	1.758440E+0	1.673157E+0	1.677399E+0	1.678303E+0	1.770101E+0	1.657033E+0	1.693640E+0	1.724767E+0	1.665379E+0	1.613202E+0	1.717414E+0	1.726521E+0	1.671945E+0	1.671611E+0	1.732470E+0	1.773966E+0	1.673441E+0	1.652439E+0	1.699550E+0	1.655482E+0	1.661297E+0	1.726019E+0	1.685253E+0	1.653775E+0	1.754897E+0	1.658201E+0	1.647884E+0	1.627848E+0	1.666294E+0	1.609528E+0	1.714760E+0	1.688383E+0	1.719039E+0	1.711290E+0	1.772240E+0	1.622627E+0	1.696982E+0	1.680503E+0	1.777129E+0	1.694999E+0	1.702089E+0	1.748805E+0	1.768424E+0	1.743281E+0	1.689570E+0	1.665768E+0	1.636496E+0	1.650941E+0	1.671990E+0	1.693164E+0	1.705843E+0	1.593870E+0	1.644448E+0	1.656668E+0	1.733078E+0	1.649538E+0	1.643876E+0	1.694923E+0	1.624738E+0	1.635523E+0	1.638027E+0	1.752371E+0	1.659403E+0	1.655186E+0	1.621640E+0	1.646654E+0	1.693431E+0	1.667809E+0	1.654007E+0	1.567867E+0	1.614143E+0	1.577742E+0	1.683317E+0	1.645706E+0	1.709681E+0	1.593358E+0	1.601944E+0	1.615070E+0	1.696328E+0	1.658839E+0	1.670321E+0	1.654640E+0	1.654979E+0
5.410240E+2	1.672325E+0	1.680044E+0	1.621967E+0	1.618136E+0	1.691166E+0	1.618477E+0	1.654291E+0	1.613828E+0	1.690774E+0	1.656837E+0	1.726510E+0	1.712372E+0	1.700584E+0	1.682820E+0	1.651983E+0	1.658675E+0	1.719048E+0	1.676042E+0	1.666709E+0	1.678891E+0	1.767904E+0	1.666261E+0	1.652470E+0	1.679177E+0	1.738988E+0	1.665115E+0	1.669523E+0	1.661430E+0	1.690697E+0	1.699383E+0	1.674585E+0	1.619865E+0	1.644883E+0	1.671205E+0	1.677020E+0	1.674956E+0	1.740144E+0	1.623205E+0	1.721452E+0	1.674313E+0	1.714852E+0	1.628083E+0	1.678499E+0	1.638678E+0	1.749008E+0	1.600897E+0	1.622901E+0	1.639265E+0	1.751532E+0	1.656806E+0	1.680933E+0	1.678102E+0	1.725439E+0	1.700676E+0	1.671797E+0	1.662529E+0	1.736341E+0	1.706044E+0	1.671792E+0	1.679189E+0	1.687833E+0	1.656478E+0	1.686490E+0	1.712876E+0	1.638272E+0	1.730898E+0	1.589536E+0	1.665659E+0	1.618236E+0	1.665413E+0	1.634199E+0	1.753865E+0	1.662644E+0	1.648311E+0	1.678178E+0	1.686449E+0	1.725405E+0	1.665904E+0	1.684931E+0	1.651315E+0	1.662856E+0	1.655976E+0	1.690800E+0	1.675061E+0	1.665695E+0	1.679396E+0	1.660999E+0	1.601407E+0	1.634191E+0	1.585007E+0	1.663883E+0	1.673939E+0	1.683545E+0	1.611405E+0	1.626047E+0	1.608501E+0	1.679560E+0	1.678174E+0	1.629843E+0	1.652169E+0	1.646717E+0	1.635561E+0	1.604157E+0	1.687511E+0	1.671005E+0	1.526827E+0	1.660657E+0	1.687292E+0	1.640106E+0	1.605184E+0	1.613638E+0	1.689755E+0	1.719561E+0	1.559570E+0	1.632380E+0	1.575354E+0	1.659462E+0	1.590138E+0	1.675063E+0	1.676135E+0	1.663727E+0	1.645508E+0	1.633647E+0	1.606695E+0	1.635718E+0	1.629290E+0	1.650222E+0	1.650702E+0	1.648380E+0	1.674201E+0	1.585392E+0	1.656131E+0	1.693456E+0	1.673772E+0	1.569648E+0	1.680380E+0	1.636182E+0	1.575077E+0	1.637310E+0	1.649076E+0	1.678690E+0	1.569179E+0	1.646326E+0	1.700031E+0	1.621424E+0	1.617666E+0	1.685071E+0	1.680115E+0	1.673586E+0	1.627684E+0	1.668856E+0	1.630433E+0	1.640683E+0	1.646086E+0	1.635229E+0	1.599401E+0	1.620422E+0	1.641786E+0	1.658866E+0	1.627331E+0	1.658125E+0	1.545750E+0	1.652912E+0	1.664087E+0	1.688588E+0	1.578411E+0	1.684681E+0	1.628048E+0	1.700375E+0
5.412530E+2	1.630266E+0	1.613711E+0	1.583024E+0	1.560230E+0	1.597332E+0	1.617105E+0	1.548161E+0	1.655016E+0	1.588929E+0	1.593767E+0	1.591943E+0	1.574598E+0	1.641568E+0	1.605089E+0	1.657036E+0	1.600435E+0	1.560106E+0	1.653319E+0	1.542665E+0	1.642360E+0	1.574008E+0	1.605076E+0	1.600144E+0	1.539755E+0	1.634559E+0	1.556382E+0	1.561826E+0	1.616132E+0	1.566835E+0	1.573628E+0	1.517150E+0	1.595141E+0	1.625350E+0	1.516638E+0	1.532124E+0	1.630146E+0	1.618398E+0	1.587526E+0	1.565486E+0	1.646411E+0	1.604208E+0	1.632311E+0	1.594785E+0	1.601034E+0	1.597233E+0	1.565328E+0	1.586077E+0	1.571448E+0	1.593461E+0	1.579015E+0	1.552753E+0	1.611475E+0	1.584034E+0	1.621370E+0	1.567750E+0	1.623353E+0	1.644405E+0	1.629183E+0	1.571389E+0	1.616948E+0	1.635467E+0	1.563819E+0	1.616559E+0	1.596377E+0	1.596896E+0	1.590870E+0	1.587133E+0	1.515318E+0	1.638673E+0	1.562521E+0	1.537666E+0	1.605582E+0	1.658674E+0	1.560455E+0	1.607316E+0	1.609190E+0	1.639445E+0	1.568157E+0	1.554919E+0	1.615897E+0	1.573292E+0	1.579501E+0	1.547593E+0	1.550193E+0	1.584754E+0	1.518672E+0	1.599700E+0	1.534873E+0	1.602416E+0	1.532515E+0	1.661284E+0	1.609153E+0	1.607571E+0	1.538820E+0	1.565665E+0	1.540293E+0	1.647768E+0	1.543355E+0	1.537072E+0	1.557461E+0	1.639121E+0	1.589097E+0	1.538088E+0	1.537869E+0	1.521798E+0	1.561971E+0	1.617315E+0	1.615679E+0	1.520004E+0	1.501044E+0	1.529185E+0	1.640723E+0	1.533521E+0	1.565854E+0	1.555591E+0	1.579081E+0	1.563710E+0	1.554652E+0	1.550712E+0	1.557846E+0	1.650760E+0	1.599176E+0	1.574566E+0	1.508524E+0	1.562179E+0	1.610201E+0	1.601488E+0	1.618300E+0	1.575631E+0	1.549565E+0	1.626275E+0	1.584518E+0	1.554933E+0	1.615308E+0	1.474835E+0	1.516079E+0	1.548802E+0	1.574091E+0	1.505076E+0	1.575456E+0	1.662401E+0	1.510556E+0	1.592156E+0	1.548580E+0	1.620088E+0	1.532062E+0	1.537299E+0	1.576220E+0	1.571253E+0	1.552367E+0	1.563777E+0	1.575405E+0	1.508401E+0	1.601263E+0	1.572999E+0	1.562571E+0	1.605502E+0	1.507636E+0	1.532831E+0	1.532478E+0	1.569332E+0	1.565948E+0	1.594051E+0	1.557351E+0	1.582711E+0	1.506194E+0	1.581604E+0	1.573217E+0	1.621250E+0
5.415190E+2	1.503296E+0	1.462185E+0	1.508441E+0	1.498277E+0	1.462856E+0	1.458914E+0	1.433498E+0	1.468154E+0	1.425914E+0	1.454241E+0	1.538831E+0	1.457620E+0	1.483574E+0	1.435004E+0	1.469718E+0	1.395983E+0	1.504044E+0	1.587366E+0	1.439380E+0	1.473970E+0	1.449095E+0	1.535234E+0	1.470354E+0	1.374346E+0	1.445686E+0	1.521758E+0	1.499738E+0	1.528228E+0	1.554400E+0	1.515695E+0	1.440017E+0	1.453958E+0	1.451629E+0	1.502683E+0	1.473952E+0	1.410124E+0	1.476505E+0	1.500176E+0	1.531516E+0	1.508742E+0	1.511642E+0	1.454415E+0	1.482559E+0	1.398483E+0	1.454905E+0	1.421583E+0	1.479478E+0	1.479115E+0	1.492052E+0	1.421727E+0	1.480238E+0	1.509286E+0	1.482462E+0	1.462899E+0	1.481519E+0	1.465309E+0	1.513360E+0	1.460206E+0	1.515146E+0	1.440078E+0	1.483851E+0	1.414006E+0	1.526482E+0	1.493109E+0	1.507072E+0	1.446875E+0	1.496529E+0	1.408653E+0	1.474063E+0	1.506734E+0	1.491067E+0	1.464700E+0	1.473458E+0	1.414208E+0	1.437839E+0	1.477181E+0	1.493460E+0	1.460998E+0	1.482150E+0	1.464062E+0	1.465127E+0	1.526556E+0	1.437231E+0	1.485116E+0	1.507540E+0	1.420544E+0	1.434079E+0	1.421311E+0	1.429653E+0	1.389258E+0	1.514679E+0	1.478262E+0	1.466897E+0	1.487261E+0	1.423780E+0	1.395742E+0	1.450092E+0	1.500995E+0	1.508652E+0	1.484962E+0	1.458183E+0	1.474146E+0	1.461477E+0	1.441118E+0	1.446653E+0	1.437591E+0	1.464768E+0	1.482936E+0	1.473431E+0	1.380353E+0	1.438847E+0	1.475802E+0	1.435182E+0	1.389305E+0	1.436610E+0	1.472195E+0	1.438036E+0	1.410847E+0	1.517895E+0	1.525439E+0	1.469710E+0	1.476721E+0	1.467200E+0	1.397245E+0	1.487553E+0	1.427938E+0	1.427287E+0	1.459325E+0	1.504619E+0	1.469363E+0	1.461457E+0	1.438654E+0	1.452807E+0	1.445359E+0	1.427766E+0	1.462106E+0	1.508221E+0	1.415383E+0	1.455244E+0	1.429055E+0	1.530445E+0	1.421192E+0	1.472574E+0	1.490360E+0	1.419404E+0	1.419723E+0	1.432385E+0	1.537071E+0	1.395351E+0	1.404068E+0	1.432861E+0	1.487533E+0	1.449514E+0	1.462412E+0	1.451001E+0	1.438102E+0	1.519355E+0	1.440664E+0	1.504821E+0	1.444683E+0	1.443873E+0	1.409390E+0	1.469186E+0	1.411304E+0	1.463393E+0	1.409249E+0	1.516046E+0	1.429759E+0	1.408015E+0
5.417650E+2	1.330998E+0	1.372050E+0	1.345663E+0	1.383796E+0	1.303688E+0	1.343165E+0	1.336975E+0	1.373563E+0	1.275301E+0	1.343400E+0	1.369331E+0	1.323269E+0	1.314760E+0	1.296360E+0	1.300590E+0	1.280062E+0	1.262727E+0	1.402871E+0	1.266537E+0	1.336364E+0	1.343378E+0	1.321355E+0	1.332793E+0	1.257993E+0	1.347103E+0	1.362622E+0	1.295637E+0	1.253470E+0	1.327066E+0	1.272798E+0	1.324850E+0	1.286488E+0	1.345597E+0	1.357612E+0	1.271313E+0	1.303427E+0	1.282133E+0	1.265077E+0	1.333463E+0	1.341200E+0	1.369788E+0	1.331306E+0	1.308618E+0	1.326384E+0	1.330452E+0	1.289653E+0	1.304541E+0	1.315007E+0	1.309558E+0	1.277903E+0	1.327131E+0	1.312310E+0	1.303857E+0	1.320163E+0	1.310152E+0	1.395940E+0	1.325331E+0	1.375082E+0	1.359094E+0	1.314822E+0	1.387964E+0	1.315398E+0	1.329643E+0	1.331027E+0	1.306782E+0	1.341282E+0	1.294628E+0	1.294176E+0	1.283680E+0	1.288749E+0	1.332159E+0	1.328877E+0	1.335471E+0	1.323653E+0	1.270006E+0	1.362435E+0	1.333412E+0	1.315691E+0	1.312398E+0	1.297126E+0	1.330433E+0	1.288242E+0	1.375441E+0	1.247114E+0	1.305718E+0	1.300224E+0	1.373580E+0	1.303970E+0	1.336214E+0	1.336723E+0	1.398421E+0	1.310577E+0	1.308760E+0	1.314641E+0	1.297193E+0	1.315658E+0	1.359022E+0	1.333607E+0	1.341335E+0	1.355993E+0	1.351170E+0	1.300259E+0	1.266565E+0	1.275162E+0	1.328973E+0	1.264927E+0	1.346765E+0	1.295385E+0	1.323296E+0	1.305134E+0	1.390029E+0	1.321847E+0	1.353396E+0	1.255746E+0	1.308763E+0	1.287927E+0	1.290973E+0	1.246756E+0	1.386903E+0	1.278254E+0	1.339799E+0	1.353815E+0	1.358269E+0	1.306044E+0	1.344164E+0	1.277969E+0	1.258674E+0	1.342601E+0	1.329452E+0	1.341284E+0	1.296743E+0	1.356636E+0	1.325304E+0	1.273589E+0	1.309743E+0	1.237203E+0	1.328090E+0	1.250127E+0	1.277928E+0	1.311711E+0	1.323505E+0	1.234634E+0	1.340417E+0	1.314865E+0	1.348965E+0	1.273020E+0	1.299967E+0	1.363222E+0	1.329172E+0	1.347292E+0	1.258281E+0	1.338532E+0	1.275296E+0	1.352444E+0	1.290625E+0	1.342083E+0	1.308801E+0	1.254029E+0	1.362841E+0	1.318846E+0	1.322170E+0	1.295099E+0	1.319548E+0	1.340569E+0	1.344427E+0	1.300200E+0	1.341408E+0	1.311084E+0	1.288055E+0
5.420320E+2	1.089217E+0	1.065190E+0	1.114201E+0	1.111575E+0	1.099706E+0	1.107844E+0	1.091691E+0	1.145694E+0	1.066196E+0	1.059841E+0	1.145055E+0	1.113168E+0	1.125272E+0	1.076590E+0	1.156781E+0	1.115440E+0	1.135012E+0	1.110599E+0	1.027466E+0	1.062792E+0	1.138389E+0	1.113521E+0	1.139360E+0	1.101504E+0	1.136632E+0	1.125491E+0	1.108503E+0	1.086357E+0	1.094116E+0	1.120380E+0	1.093604E+0	1.112654E+0	1.096652E+0	1.127626E+0	1.108568E+0	1.060030E+0	1.112133E+0	1.104848E+0	1.139881E+0	1.121841E+0	1.116702E+0	1.158702E+0	1.119393E+0	1.129064E+0	1.118153E+0	1.119982E+0	1.107366E+0	1.136589E+0	1.091275E+0	1.135537E+0	1.107000E+0	1.157223E+0	1.100094E+0	1.140933E+0	1.081024E+0	1.121498E+0	1.103118E+0	1.155888E+0	1.138242E+0	1.136084E+0	1.103970E+0	1.083745E+0	1.069050E+0	1.120319E+0	1.144569E+0	1.080581E+0	1.096685E+0	1.040863E+0	1.111399E+0	1.100854E+0	1.126075E+0	1.108019E+0	1.091431E+0	1.152535E+0	1.070609E+0	1.134948E+0	1.118078E+0	1.083370E+0	1.072036E+0	1.090940E+0	1.061536E+0	1.047157E+0	1.192611E+0	1.120561E+0	1.115562E+0	1.092462E+0	1.102770E+0	1.088530E+0	1.108211E+0	1.154566E+0	1.139100E+0	1.090764E+0	1.132312E+0	1.093040E+0	1.052618E+0	1.068178E+0	1.154121E+0	1.101840E+0	1.146907E+0	1.107398E+0	1.142144E+0	1.194066E+0	1.075279E+0	1.111846E+0	1.120057E+0	1.083793E+0	1.141338E+0	1.124576E+0	1.101509E+0	1.102795E+0	1.073755E+0	1.104735E+0	1.168454E+0	1.096703E+0	1.167143E+0	1.124005E+0	1.127178E+0	1.085208E+0	1.137973E+0	1.131818E+0	1.140169E+0	1.063536E+0	1.142271E+0	1.063301E+0	1.110805E+0	1.120062E+0	1.076190E+0	1.063222E+0	1.158242E+0	1.158629E+0	1.078669E+0	1.129274E+0	1.106492E+0	1.112608E+0	1.104067E+0	1.128005E+0	1.090234E+0	1.132306E+0	1.100283E+0	1.117037E+0	1.148117E+0	1.029251E+0	1.089321E+0	1.111471E+0	1.115553E+0	1.058643E+0	1.184474E+0	1.116970E+0	1.095248E+0	1.073752E+0	1.101191E+0	1.061469E+0	1.080240E+0	1.108250E+0	1.120390E+0	1.074527E+0	1.094645E+0	1.120692E+0	1.135159E+0	1.120807E+0	1.077469E+0	1.023225E+0	1.168479E+0	1.114280E+0	1.152478E+0	1.055572E+0	1.124388E+0	1.059766E+0	1.123688E+0
5.422670E+2	1.011629E+0	1.011581E+0	9.890019E-1	1.022065E+0	1.018672E+0	1.056387E+0	1.023206E+0	9.872060E-1	1.018692E+0	9.892162E-1	1.075458E+0	1.059347E+0	1.072571E+0	1.010928E+0	9.918916E-1	9.954177E-1	1.001062E+0	1.030197E+0	9.835915E-1	1.027399E+0	9.822062E-1	9.960144E-1	1.027137E+0	1.026136E+0	9.814144E-1	1.060088E+0	9.583650E-1	1.002057E+0	1.046263E+0	1.010490E+0	1.000722E+0	9.870036E-1	1.011630E+0	1.069346E+0	1.024436E+0	1.032341E+0	1.032133E+0	1.013537E+0	1.014974E+0	1.049460E+0	9.898519E-1	1.070947E+0	1.003692E+0	9.745304E-1	1.083871E+0	9.518671E-1	1.013271E+0	1.055828E+0	9.901678E-1	9.668905E-1	1.006390E+0	1.027836E+0	1.030074E+0	1.012320E+0	1.093579E+0	1.057647E+0	1.036018E+0	1.040797E+0	1.085573E+0	1.007547E+0	1.030800E+0	9.989156E-1	1.046942E+0	1.003136E+0	1.050640E+0	1.035613E+0	9.748038E-1	9.644049E-1	1.032853E+0	1.020951E+0	1.005389E+0	1.049333E+0	1.009380E+0	9.960919E-1	1.023706E+0	1.036755E+0	1.007559E+0	1.037515E+0	1.060906E+0	9.967688E-1	1.029838E+0	1.035426E+0	9.918143E-1	1.012390E+0	1.001286E+0	9.961116E-1	1.035350E+0	1.020683E+0	1.018431E+0	1.028408E+0	1.049350E+0	1.054964E+0	1.011159E+0	1.075240E+0	1.015544E+0	1.000365E+0	1.065148E+0	9.970159E-1	1.004585E+0	1.035956E+0	1.052697E+0	9.857591E-1	1.029294E+0	1.030946E+0	9.882584E-1	9.920390E-1	1.032736E+0	1.041396E+0	1.007370E+0	9.702744E-1	1.025703E+0	9.743097E-1	9.820410E-1	1.027465E+0	1.045242E+0	9.782938E-1	1.050677E+0	1.012481E+0	1.001583E+0	1.052634E+0	1.042763E+0	1.014177E+0	1.029813E+0	1.000013E+0	1.019920E+0	1.014750E+0	1.035783E+0	9.790213E-1	1.047767E+0	9.904773E-1	9.476190E-1	1.025754E+0	1.003881E+0	1.024757E+0	9.989582E-1	1.022990E+0	1.024559E+0	1.035304E+0	9.975625E-1	9.936279E-1	1.067593E+0	9.986238E-1	1.043877E+0	1.007232E+0	1.060287E+0	9.638975E-1	1.012628E+0	1.048071E+0	1.044667E+0	9.649477E-1	9.968215E-1	1.077310E+0	1.002126E+0	1.048178E+0	1.020292E+0	9.900231E-1	1.041772E+0	9.870620E-1	1.059789E+0	1.016105E+0	1.025877E+0	9.724145E-1	1.024771E+0	9.834312E-1	9.915779E-1	1.035389E+0	1.065617E+0	9.796069E-1	1.078067E+0
5.425460E+2	9.635731E-1	9.529079E-1	9.436084E-1	8.932834E-1	9.099515E-1	9.295121E-1	9.750175E-1	9.354026E-1	9.578689E-1	8.927152E-1	9.176553E-1	9.586284E-1	1.000383E+0	9.388598E-1	9.470037E-1	9.928175E-1	9.545865E-1	9.506642E-1	9.543301E-1	9.966046E-1	9.561571E-1	9.910976E-1	9.847022E-1	9.141074E-1	8.836822E-1	9.823825E-1	9.709648E-1	9.513301E-1	1.003164E+0	9.663252E-1	9.054004E-1	9.284889E-1	9.868010E-1	9.592772E-1	9.259199E-1	8.983392E-1	9.617519E-1	9.425631E-1	9.664215E-1	9.325511E-1	9.668030E-1	9.278776E-1	9.473039E-1	9.537060E-1	1.029878E+0	9.198852E-1	9.366168E-1	9.159219E-1	9.530997E-1	9.660983E-1	9.733042E-1	9.450037E-1	9.478988E-1	9.448556E-1	9.969932E-1	9.434379E-1	9.749880E-1	9.880258E-1	9.796465E-1	9.576029E-1	9.884521E-1	9.548699E-1	9.695111E-1	9.125748E-1	9.618158E-1	9.814785E-1	9.291392E-1	9.613689E-1	9.107126E-1	9.099574E-1	9.588107E-1	9.699686E-1	9.555683E-1	9.778165E-1	8.853402E-1	9.548643E-1	9.742028E-1	9.466805E-1	8.954230E-1	9.320335E-1	9.156124E-1	1.012284E+0	9.487772E-1	9.737813E-1	9.304865E-1	9.216126E-1	9.636791E-1	9.780423E-1	9.221759E-1	9.604243E-1	9.876416E-1	9.182348E-1	9.587950E-1	9.223622E-1	9.264322E-1	9.169151E-1	9.715784E-1	9.469652E-1	9.582315E-1	9.850532E-1	9.324562E-1	1.004066E+0	9.429347E-1	9.855127E-1	9.174451E-1	9.299242E-1	8.999111E-1	9.711251E-1	9.190053E-1	9.037325E-1	9.539258E-1	9.157048E-1	9.346289E-1	9.222457E-1	9.440752E-1	9.766446E-1	9.846805E-1	9.652200E-1	9.411221E-1	9.346989E-1	1.001879E+0	9.242787E-1	9.601913E-1	9.364434E-1	1.012883E+0	9.279269E-1	9.244449E-1	9.030217E-1	1.006344E+0	9.335305E-1	9.280301E-1	9.465260E-1	9.448407E-1	9.803456E-1	9.510610E-1	9.061753E-1	9.541058E-1	9.025092E-1	8.937539E-1	9.346567E-1	1.006295E+0	9.189143E-1	9.394785E-1	9.631402E-1	9.057749E-1	9.546749E-1	9.927768E-1	9.456250E-1	9.768248E-1	9.785373E-1	9.570215E-1	9.547062E-1	9.307995E-1	9.471967E-1	9.563337E-1	9.228079E-1	9.531494E-1	9.485879E-1	9.847833E-1	9.979555E-1	9.569626E-1	9.413086E-1	9.587504E-1	9.246890E-1	9.496992E-1	9.194369E-1	9.855505E-1	9.365223E-1	9.216896E-1
5.427550E+2	9.220421E-1	9.395644E-1	9.301851E-1	9.225893E-1	9.364349E-1	9.037546E-1	9.096488E-1	9.136626E-1	8.978420E-1	9.166777E-1	9.395158E-1	9.294113E-1	9.510933E-1	9.210644E-1	9.200369E-1	8.971069E-1	8.964244E-1	9.447350E-1	9.189308E-1	9.043645E-1	9.054410E-1	9.311640E-1	1.001537E+0	8.880496E-1	9.221158E-1	9.981983E-1	9.273303E-1	9.248332E-1	9.489119E-1	9.573750E-1	9.770702E-1	9.501885E-1	9.385889E-1	9.494551E-1	9.419995E-1	9.932717E-1	9.374324E-1	9.332409E-1	9.585828E-1	9.499590E-1	9.303311E-1	9.406741E-1	9.615791E-1	9.407648E-1	9.438985E-1	9.563144E-1	9.384230E-1	9.380427E-1	9.400598E-1	9.098457E-1	9.139324E-1	8.893636E-1	9.267876E-1	9.245347E-1	9.819328E-1	9.567270E-1	9.470248E-1	9.610120E-1	9.264687E-1	9.171791E-1	8.867666E-1	9.640859E-1	9.559601E-1	9.460765E-1	9.507089E-1	9.562690E-1	9.106467E-1	8.765811E-1	8.829858E-1	9.916541E-1	9.064148E-1	9.336932E-1	9.559684E-1	9.706799E-1	9.430693E-1	9.450354E-1	9.357897E-1	9.637066E-1	9.211879E-1	9.386084E-1	9.476113E-1	9.524640E-1	9.670897E-1	9.464893E-1	9.196871E-1	9.502122E-1	9.256903E-1	9.813758E-1	9.390740E-1	9.019473E-1	9.663259E-1	9.252112E-1	9.401423E-1	9.142927E-1	9.726200E-1	8.911762E-1	9.757184E-1	9.623272E-1	9.198199E-1	9.281970E-1	9.294842E-1	9.664151E-1	9.375412E-1	9.302291E-1	9.483059E-1	9.090311E-1	9.662936E-1	9.209674E-1	9.358212E-1	9.064118E-1	9.353897E-1	8.991308E-1	9.517731E-1	8.944509E-1	9.204327E-1	8.827223E-1	9.684770E-1	9.006681E-1	9.532919E-1	9.695144E-1	9.665924E-1	9.701853E-1	9.460689E-1	9.178054E-1	9.514625E-1	9.700048E-1	9.466492E-1	9.261566E-1	9.855130E-1	9.420282E-1	9.271754E-1	9.558626E-1	9.321177E-1	9.173171E-1	9.175800E-1	8.811423E-1	9.593885E-1	9.056968E-1	9.169296E-1	9.101392E-1	9.275533E-1	9.063940E-1	9.491634E-1	9.503341E-1	9.455574E-1	8.675736E-1	9.451627E-1	9.447736E-1	9.177439E-1	9.500998E-1	8.888770E-1	8.944031E-1	9.665616E-1	9.345197E-1	9.431181E-1	9.598016E-1	9.674895E-1	8.961271E-1	9.426842E-1	9.537759E-1	9.734735E-1	8.852012E-1	9.434059E-1	1.014768E+0	9.073247E-1	9.346512E-1	9.807853E-1	9.536500E-1	9.129145E-1
5.430120E+2	1.033782E+0	1.062244E+0	1.050961E+0	1.020327E+0	1.010528E+0	1.066496E+0	9.747461E-1	1.033087E+0	1.016195E+0	9.999844E-1	1.067646E+0	1.011986E+0	1.048423E+0	1.042926E+0	1.071609E+0	1.002128E+0	1.070387E+0	1.067192E+0	1.023940E+0	1.008644E+0	1.014378E+0	1.031811E+0	1.118140E+0	1.046394E+0	1.046332E+0	1.073288E+0	1.041580E+0	1.065796E+0	1.040344E+0	1.045280E+0	1.029314E+0	1.038896E+0	1.064989E+0	1.010136E+0	1.055872E+0	1.109143E+0	1.039253E+0	1.015590E+0	1.068989E+0	1.042514E+0	1.069757E+0	1.060850E+0	1.081416E+0	1.034794E+0	1.105887E+0	1.039796E+0	1.043413E+0	1.098478E+0	1.026709E+0	1.024959E+0	1.054891E+0	1.037745E+0	1.034061E+0	1.055311E+0	1.052598E+0	1.037238E+0	1.024270E+0	1.053195E+0	1.091024E+0	1.040154E+0	1.027218E+0	1.066606E+0	1.057545E+0	1.121726E+0	1.104165E+0	1.079645E+0	1.057201E+0	1.015458E+0	1.045020E+0	1.081073E+0	1.004756E+0	1.117954E+0	1.071938E+0	1.017383E+0	1.068603E+0	1.032739E+0	1.039096E+0	1.003814E+0	9.978338E-1	1.058436E+0	1.007718E+0	1.023658E+0	1.080149E+0	1.007831E+0	1.014222E+0	1.050042E+0	1.074712E+0	1.041514E+0	1.003049E+0	1.035182E+0	1.025250E+0	1.021289E+0	1.009732E+0	9.979059E-1	9.951432E-1	1.046426E+0	1.041209E+0	1.109415E+0	1.077585E+0	1.048655E+0	1.036374E+0	1.066998E+0	1.055034E+0	1.044240E+0	1.017589E+0	1.006981E+0	1.057838E+0	1.091930E+0	1.020228E+0	9.924860E-1	1.048138E+0	1.034081E+0	1.079484E+0	1.050874E+0	1.038709E+0	9.718537E-1	1.074913E+0	1.002703E+0	1.080905E+0	1.070467E+0	1.094568E+0	1.005577E+0	1.069373E+0	1.040251E+0	1.027049E+0	1.032104E+0	1.045755E+0	1.024828E+0	1.037610E+0	1.011515E+0	1.050599E+0	1.046623E+0	1.056302E+0	1.012498E+0	9.733562E-1	9.950624E-1	1.034889E+0	1.085363E+0	1.035706E+0	1.011138E+0	1.049311E+0	1.010587E+0	1.073691E+0	1.043552E+0	1.065655E+0	1.027946E+0	1.078247E+0	1.059661E+0	1.013686E+0	1.069709E+0	9.967895E-1	1.114617E+0	1.057502E+0	1.051414E+0	1.013989E+0	1.069282E+0	1.051813E+0	1.056934E+0	1.100587E+0	1.036689E+0	9.992116E-1	9.750346E-1	1.028748E+0	1.051273E+0	1.068648E+0	1.023909E+0	1.067218E+0	9.933827E-1	9.934614E-1
5.432960E+2	1.224855E+0	1.225427E+0	1.241832E+0	1.247938E+0	1.190699E+0	1.208190E+0	1.262844E+0	1.243873E+0	1.140765E+0	1.242903E+0	1.215913E+0	1.229757E+0	1.250372E+0	1.255825E+0	1.250589E+0	1.273327E+0	1.273042E+0	1.242148E+0	1.207584E+0	1.196565E+0	1.265305E+0	1.207602E+0	1.286404E+0	1.227588E+0	1.270295E+0	1.226259E+0	1.268290E+0	1.186850E+0	1.266546E+0	1.263877E+0	1.230896E+0	1.200258E+0	1.248926E+0	1.277179E+0	1.218268E+0	1.207578E+0	1.282562E+0	1.243852E+0	1.242490E+0	1.224455E+0	1.285332E+0	1.207207E+0	1.232843E+0	1.235023E+0	1.290546E+0	1.213765E+0	1.245940E+0	1.279948E+0	1.270306E+0	1.186964E+0	1.259672E+0	1.287996E+0	1.221763E+0	1.261698E+0	1.247395E+0	1.233748E+0	1.261730E+0	1.287725E+0	1.252718E+0	1.255063E+0	1.293714E+0	1.209507E+0	1.288545E+0	1.291620E+0	1.268482E+0	1.260304E+0	1.255734E+0	1.165078E+0	1.196602E+0	1.252713E+0	1.204347E+0	1.283595E+0	1.220094E+0	1.253417E+0	1.194294E+0	1.298544E+0	1.295725E+0	1.218739E+0	1.233389E+0	1.243379E+0	1.208775E+0	1.241366E+0	1.265332E+0	1.259672E+0	1.236491E+0	1.259993E+0	1.289989E+0	1.266450E+0	1.208941E+0	1.185275E+0	1.317209E+0	1.205395E+0	1.249447E+0	1.247623E+0	1.235435E+0	1.216370E+0	1.216650E+0	1.262269E+0	1.283146E+0	1.247661E+0	1.213849E+0	1.257481E+0	1.225341E+0	1.294546E+0	1.204918E+0	1.268502E+0	1.283283E+0	1.246485E+0	1.260438E+0	1.263283E+0	1.220897E+0	1.275399E+0	1.264279E+0	1.239432E+0	1.227323E+0	1.180307E+0	1.249778E+0	1.250563E+0	1.286428E+0	1.277692E+0	1.322306E+0	1.241138E+0	1.277399E+0	1.245971E+0	1.242925E+0	1.239957E+0	1.253222E+0	1.230380E+0	1.249759E+0	1.282351E+0	1.167936E+0	1.293200E+0	1.214971E+0	1.223690E+0	1.246960E+0	1.229115E+0	1.190417E+0	1.185664E+0	1.215973E+0	1.198665E+0	1.269366E+0	1.225628E+0	1.193325E+0	1.199142E+0	1.226433E+0	1.186829E+0	1.226329E+0	1.225791E+0	1.213172E+0	1.161902E+0	1.237573E+0	1.242247E+0	1.228714E+0	1.226397E+0	1.271744E+0	1.220164E+0	1.217514E+0	1.217460E+0	1.282450E+0	1.310382E+0	1.206353E+0	1.249564E+0	1.224678E+0	1.196980E+0	1.201070E+0	1.236919E+0	1.222030E+0	1.238648E+0	1.251955E+0
5.435270E+2	1.319825E+0	1.344772E+0	1.375215E+0	1.395083E+0	1.316173E+0	1.363859E+0	1.391404E+0	1.397199E+0	1.318805E+0	1.329867E+0	1.410126E+0	1.405255E+0	1.372645E+0	1.378294E+0	1.364499E+0	1.418840E+0	1.377507E+0	1.418804E+0	1.349962E+0	1.369928E+0	1.412150E+0	1.335565E+0	1.412192E+0	1.394356E+0	1.416056E+0	1.398120E+0	1.381504E+0	1.405541E+0	1.410272E+0	1.367099E+0	1.412159E+0	1.327495E+0	1.364116E+0	1.454868E+0	1.369690E+0	1.371205E+0	1.358830E+0	1.381182E+0	1.365211E+0	1.389305E+0	1.375114E+0	1.395352E+0	1.323258E+0	1.390514E+0	1.379972E+0	1.348285E+0	1.354625E+0	1.422853E+0	1.310650E+0	1.349537E+0	1.341111E+0	1.354271E+0	1.391740E+0	1.355949E+0	1.400429E+0	1.411499E+0	1.393112E+0	1.402187E+0	1.311514E+0	1.377715E+0	1.364621E+0	1.363957E+0	1.326623E+0	1.349183E+0	1.374356E+0	1.391748E+0	1.352557E+0	1.395423E+0	1.312661E+0	1.370583E+0	1.380520E+0	1.421500E+0	1.330133E+0	1.312168E+0	1.340047E+0	1.411385E+0	1.363241E+0	1.322878E+0	1.363934E+0	1.337425E+0	1.328532E+0	1.330586E+0	1.396380E+0	1.364151E+0	1.340637E+0	1.357772E+0	1.424964E+0	1.376514E+0	1.370813E+0	1.336370E+0	1.356122E+0	1.340134E+0	1.381575E+0	1.318526E+0	1.373459E+0	1.390938E+0	1.324810E+0	1.360316E+0	1.406678E+0	1.371361E+0	1.306530E+0	1.388307E+0	1.366783E+0	1.337798E+0	1.306401E+0	1.356800E+0	1.339960E+0	1.353605E+0	1.343540E+0	1.297494E+0	1.293005E+0	1.336230E+0	1.351926E+0	1.356876E+0	1.391453E+0	1.414875E+0	1.390163E+0	1.346395E+0	1.426337E+0	1.356962E+0	1.374403E+0	1.269088E+0	1.362928E+0	1.328865E+0	1.401730E+0	1.376785E+0	1.338561E+0	1.345904E+0	1.381150E+0	1.379082E+0	1.336794E+0	1.378838E+0	1.308145E+0	1.345379E+0	1.335892E+0	1.367500E+0	1.393967E+0	1.336508E+0	1.367427E+0	1.341349E+0	1.361376E+0	1.353632E+0	1.409723E+0	1.354117E+0	1.341972E+0	1.355647E+0	1.358523E+0	1.449910E+0	1.313209E+0	1.339529E+0	1.413164E+0	1.373999E+0	1.371077E+0	1.339885E+0	1.352350E+0	1.354956E+0	1.365394E+0	1.305245E+0	1.326684E+0	1.320370E+0	1.398011E+0	1.301251E+0	1.354381E+0	1.389497E+0	1.343712E+0	1.353118E+0	1.375177E+0	1.271110E+0	1.419965E+0
5.437640E+2	1.496001E+0	1.558747E+0	1.530972E+0	1.521903E+0	1.547455E+0	1.522185E+0	1.586909E+0	1.466974E+0	1.532442E+0	1.509010E+0	1.568400E+0	1.546156E+0	1.571340E+0	1.546018E+0	1.556623E+0	1.552763E+0	1.524867E+0	1.535735E+0	1.459187E+0	1.549974E+0	1.611939E+0	1.538453E+0	1.561083E+0	1.521390E+0	1.561458E+0	1.527085E+0	1.571819E+0	1.521818E+0	1.542901E+0	1.518413E+0	1.537970E+0	1.505862E+0	1.544258E+0	1.602239E+0	1.477837E+0	1.530689E+0	1.437985E+0	1.443926E+0	1.504145E+0	1.519522E+0	1.569796E+0	1.478242E+0	1.532324E+0	1.524260E+0	1.528628E+0	1.519791E+0	1.550387E+0	1.532040E+0	1.540576E+0	1.483263E+0	1.543543E+0	1.572177E+0	1.531046E+0	1.559397E+0	1.528242E+0	1.567520E+0	1.574560E+0	1.522682E+0	1.578017E+0	1.511848E+0	1.575222E+0	1.564586E+0	1.521981E+0	1.544023E+0	1.551801E+0	1.568697E+0	1.495841E+0	1.530865E+0	1.414518E+0	1.530560E+0	1.491455E+0	1.527827E+0	1.534340E+0	1.553159E+0	1.526543E+0	1.594950E+0	1.479441E+0	1.513451E+0	1.549274E+0	1.560294E+0	1.523635E+0	1.576075E+0	1.494471E+0	1.520246E+0	1.504538E+0	1.582639E+0	1.595150E+0	1.538074E+0	1.476256E+0	1.488858E+0	1.542439E+0	1.546920E+0	1.579264E+0	1.532991E+0	1.485254E+0	1.499844E+0	1.457788E+0	1.556255E+0	1.510210E+0	1.526892E+0	1.487844E+0	1.565829E+0	1.564071E+0	1.517339E+0	1.474681E+0	1.474141E+0	1.563567E+0	1.495474E+0	1.613169E+0	1.458819E+0	1.549935E+0	1.464693E+0	1.517358E+0	1.527584E+0	1.488280E+0	1.465217E+0	1.537107E+0	1.513608E+0	1.573273E+0	1.489816E+0	1.581518E+0	1.488424E+0	1.493342E+0	1.474014E+0	1.545874E+0	1.523343E+0	1.515287E+0	1.514554E+0	1.559995E+0	1.534225E+0	1.478801E+0	1.537630E+0	1.480465E+0	1.511796E+0	1.455892E+0	1.570449E+0	1.537080E+0	1.573001E+0	1.443450E+0	1.532973E+0	1.548519E+0	1.478591E+0	1.499810E+0	1.597173E+0	1.479500E+0	1.474662E+0	1.537135E+0	1.559528E+0	1.508817E+0	1.540571E+0	1.510148E+0	1.543252E+0	1.467234E+0	1.553951E+0	1.522897E+0	1.514493E+0	1.535650E+0	1.480790E+0	1.488300E+0	1.502208E+0	1.490054E+0	1.529483E+0	1.529108E+0	1.459697E+0	1.482527E+0	1.585758E+0	1.468617E+0	1.502142E+0	1.524911E+0
5.440170E+2	1.539485E+0	1.606049E+0	1.639271E+0	1.598471E+0	1.562734E+0	1.514209E+0	1.587483E+0	1.608029E+0	1.526452E+0	1.588769E+0	1.640065E+0	1.590297E+0	1.628280E+0	1.566305E+0	1.572868E+0	1.623218E+0	1.578479E+0	1.624775E+0	1.644068E+0	1.623572E+0	1.573917E+0	1.575221E+0	1.598213E+0	1.540079E+0	1.554034E+0	1.604452E+0	1.532538E+0	1.597944E+0	1.605473E+0	1.595763E+0	1.557647E+0	1.580174E+0	1.623239E+0	1.591409E+0	1.531634E+0	1.586822E+0	1.631292E+0	1.581038E+0	1.552045E+0	1.630702E+0	1.497274E+0	1.622356E+0	1.562398E+0	1.615635E+0	1.624386E+0	1.563619E+0	1.568410E+0	1.597207E+0	1.578963E+0	1.625685E+0	1.548677E+0	1.579378E+0	1.619676E+0	1.618212E+0	1.608992E+0	1.639797E+0	1.594446E+0	1.608263E+0	1.570565E+0	1.630440E+0	1.539831E+0	1.513230E+0	1.602065E+0	1.574104E+0	1.598615E+0	1.545518E+0	1.513944E+0	1.527854E+0	1.592636E+0	1.633764E+0	1.594503E+0	1.608102E+0	1.568377E+0	1.555668E+0	1.592837E+0	1.580581E+0	1.601531E+0	1.535915E+0	1.569733E+0	1.511857E+0	1.578364E+0	1.598020E+0	1.621081E+0	1.622602E+0	1.550436E+0	1.542694E+0	1.585332E+0	1.520413E+0	1.564327E+0	1.511949E+0	1.533088E+0	1.562856E+0	1.552935E+0	1.593741E+0	1.586940E+0	1.565956E+0	1.622505E+0	1.587779E+0	1.577798E+0	1.559820E+0	1.601587E+0	1.611712E+0	1.537385E+0	1.520408E+0	1.581493E+0	1.570694E+0	1.610899E+0	1.571245E+0	1.609811E+0	1.511269E+0	1.529340E+0	1.509048E+0	1.608047E+0	1.535067E+0	1.612910E+0	1.577105E+0	1.566540E+0	1.559827E+0	1.581337E+0	1.543405E+0	1.578253E+0	1.517182E+0	1.553090E+0	1.560195E+0	1.596590E+0	1.546999E+0	1.594864E+0	1.627564E+0	1.524431E+0	1.558755E+0	1.481240E+0	1.533361E+0	1.546477E+0	1.583713E+0	1.498967E+0	1.500739E+0	1.542394E+0	1.526013E+0	1.502948E+0	1.616669E+0	1.635931E+0	1.440918E+0	1.570826E+0	1.592074E+0	1.512868E+0	1.520998E+0	1.577636E+0	1.648013E+0	1.559691E+0	1.529908E+0	1.587156E+0	1.544244E+0	1.611701E+0	1.531952E+0	1.562312E+0	1.530908E+0	1.633828E+0	1.473263E+0	1.583106E+0	1.550167E+0	1.553050E+0	1.527703E+0	1.478294E+0	1.578531E+0	1.528440E+0	1.537386E+0	1.488078E+0	1.522393E+0	1.453626E+0
5.442700E+2	1.586457E+0	1.558595E+0	1.564710E+0	1.569362E+0	1.513847E+0	1.517815E+0	1.541687E+0	1.504590E+0	1.448091E+0	1.538787E+0	1.584049E+0	1.511246E+0	1.568343E+0	1.488255E+0	1.532635E+0	1.451712E+0	1.623872E+0	1.548395E+0	1.509427E+0	1.564254E+0	1.558252E+0	1.532905E+0	1.527170E+0	1.504782E+0	1.549192E+0	1.575507E+0	1.495189E+0	1.545795E+0	1.596509E+0	1.513594E+0	1.561825E+0	1.520064E+0	1.483452E+0	1.602528E+0	1.530644E+0	1.513282E+0	1.535335E+0	1.540161E+0	1.545719E+0	1.588554E+0	1.531253E+0	1.523456E+0	1.501561E+0	1.496100E+0	1.572060E+0	1.528224E+0	1.498542E+0	1.525267E+0	1.522842E+0	1.528694E+0	1.541796E+0	1.497211E+0	1.487164E+0	1.543442E+0	1.534629E+0	1.443455E+0	1.580518E+0	1.572100E+0	1.586933E+0	1.535705E+0	1.506982E+0	1.521972E+0	1.557200E+0	1.543960E+0	1.564260E+0	1.572443E+0	1.557475E+0	1.479976E+0	1.474106E+0	1.536661E+0	1.507082E+0	1.535692E+0	1.513837E+0	1.512782E+0	1.547694E+0	1.526509E+0	1.567302E+0	1.490702E+0	1.473981E+0	1.514602E+0	1.508150E+0	1.504472E+0	1.567765E+0	1.515189E+0	1.541227E+0	1.561207E+0	1.534772E+0	1.431905E+0	1.552414E+0	1.477923E+0	1.543671E+0	1.506453E+0	1.552481E+0	1.503119E+0	1.506301E+0	1.477504E+0	1.505527E+0	1.496903E+0	1.549068E+0	1.519626E+0	1.538551E+0	1.548363E+0	1.547825E+0	1.489306E+0	1.505286E+0	1.483643E+0	1.531556E+0	1.511253E+0	1.518703E+0	1.445790E+0	1.491322E+0	1.462835E+0	1.500959E+0	1.506590E+0	1.553526E+0	1.507034E+0	1.507025E+0	1.483954E+0	1.571016E+0	1.490561E+0	1.538150E+0	1.507715E+0	1.540024E+0	1.477095E+0	1.467704E+0	1.460108E+0	1.492558E+0	1.549990E+0	1.567417E+0	1.536540E+0	1.513536E+0	1.468919E+0	1.494249E+0	1.493500E+0	1.496267E+0	1.513833E+0	1.520713E+0	1.502749E+0	1.487899E+0	1.506745E+0	1.556096E+0	1.489872E+0	1.524899E+0	1.565502E+0	1.550568E+0	1.481651E+0	1.564098E+0	1.550882E+0	1.561293E+0	1.506366E+0	1.536973E+0	1.534004E+0	1.547985E+0	1.560195E+0	1.519892E+0	1.587834E+0	1.543846E+0	1.510597E+0	1.534787E+0	1.538771E+0	1.464320E+0	1.407205E+0	1.527348E+0	1.504996E+0	1.494187E+0	1.481095E+0	1.488966E+0	1.498047E+0	1.496271E+0
5.445340E+2	1.583644E+0	1.566388E+0	1.615350E+0	1.498219E+0	1.536001E+0	1.548285E+0	1.576301E+0	1.527902E+0	1.547040E+0	1.602678E+0	1.645226E+0	1.555129E+0	1.617418E+0	1.571221E+0	1.619784E+0	1.598223E+0	1.573221E+0	1.559385E+0	1.572950E+0	1.596052E+0	1.584362E+0	1.540546E+0	1.571909E+0	1.549213E+0	1.558083E+0	1.527502E+0	1.549051E+0	1.616904E+0	1.557687E+0	1.479039E+0	1.494135E+0	1.594131E+0	1.566240E+0	1.583609E+0	1.510069E+0	1.573430E+0	1.585441E+0	1.489543E+0	1.572463E+0	1.603269E+0	1.549750E+0	1.555373E+0	1.572600E+0	1.546493E+0	1.532839E+0	1.547723E+0	1.551508E+0	1.549778E+0	1.534238E+0	1.546707E+0	1.580539E+0	1.574327E+0	1.524208E+0	1.598860E+0	1.634304E+0	1.541599E+0	1.604012E+0	1.624677E+0	1.544263E+0	1.503381E+0	1.549612E+0	1.555114E+0	1.597223E+0	1.569307E+0	1.532391E+0	1.531638E+0	1.566119E+0	1.493046E+0	1.488319E+0	1.581416E+0	1.576593E+0	1.621039E+0	1.567012E+0	1.505255E+0	1.581509E+0	1.627227E+0	1.543985E+0	1.475944E+0	1.562643E+0	1.519777E+0	1.498361E+0	1.527064E+0	1.554589E+0	1.558874E+0	1.535183E+0	1.525151E+0	1.624166E+0	1.530884E+0	1.591019E+0	1.507154E+0	1.548964E+0	1.568348E+0	1.579500E+0	1.570087E+0	1.515586E+0	1.541494E+0	1.560188E+0	1.540503E+0	1.561122E+0	1.575811E+0	1.555241E+0	1.594507E+0	1.520839E+0	1.532344E+0	1.556811E+0	1.494092E+0	1.591803E+0	1.569060E+0	1.542840E+0	1.504020E+0	1.493653E+0	1.557679E+0	1.492097E+0	1.465324E+0	1.522337E+0	1.555143E+0	1.568180E+0	1.598529E+0	1.536838E+0	1.555717E+0	1.612670E+0	1.530038E+0	1.549018E+0	1.505548E+0	1.545185E+0	1.512682E+0	1.535091E+0	1.541702E+0	1.564157E+0	1.516060E+0	1.560089E+0	1.531828E+0	1.560708E+0	1.559078E+0	1.490859E+0	1.463574E+0	1.523024E+0	1.490751E+0	1.525478E+0	1.541136E+0	1.565263E+0	1.459031E+0	1.569389E+0	1.549968E+0	1.547825E+0	1.464894E+0	1.514104E+0	1.570859E+0	1.540223E+0	1.521888E+0	1.548334E+0	1.571456E+0	1.584007E+0	1.527792E+0	1.530934E+0	1.543991E+0	1.578666E+0	1.509617E+0	1.585842E+0	1.529401E+0	1.485335E+0	1.481075E+0	1.549816E+0	1.504119E+0	1.542420E+0	1.488649E+0	1.526167E+0	1.509027E+0	1.593801E+0
5.447560E+2	1.513391E+0	1.497448E+0	1.543871E+0	1.585281E+0	1.492157E+0	1.544007E+0	1.507297E+0	1.556107E+0	1.526304E+0	1.509312E+0	1.585149E+0	1.542040E+0	1.620023E+0	1.535605E+0	1.543741E+0	1.494793E+0	1.511071E+0	1.517113E+0	1.457002E+0	1.483842E+0	1.573512E+0	1.550755E+0	1.514671E+0	1.527482E+0	1.515284E+0	1.574514E+0	1.510024E+0	1.533228E+0	1.525158E+0	1.471426E+0	1.428720E+0	1.504519E+0	1.565236E+0	1.547643E+0	1.482466E+0	1.492561E+0	1.522091E+0	1.497860E+0	1.490675E+0	1.523629E+0	1.478589E+0	1.516060E+0	1.535174E+0	1.502671E+0	1.441427E+0	1.480711E+0	1.512772E+0	1.538827E+0	1.615114E+0	1.541942E+0	1.547563E+0	1.596014E+0	1.493305E+0	1.519203E+0	1.626516E+0	1.550293E+0	1.556830E+0	1.519206E+0	1.488668E+0	1.546757E+0	1.565326E+0	1.519822E+0	1.603851E+0	1.565160E+0	1.556264E+0	1.482739E+0	1.550291E+0	1.463541E+0	1.517532E+0	1.505701E+0	1.473249E+0	1.554262E+0	1.519007E+0	1.493871E+0	1.519115E+0	1.517693E+0	1.572701E+0	1.506906E+0	1.523103E+0	1.495352E+0	1.526776E+0	1.534427E+0	1.517402E+0	1.474195E+0	1.476102E+0	1.537994E+0	1.533765E+0	1.536438E+0	1.517955E+0	1.493615E+0	1.534444E+0	1.513213E+0	1.573009E+0	1.526630E+0	1.499738E+0	1.466670E+0	1.560681E+0	1.452931E+0	1.553515E+0	1.528684E+0	1.522741E+0	1.508200E+0	1.497625E+0	1.487049E+0	1.529465E+0	1.491143E+0	1.488434E+0	1.538934E+0	1.556882E+0	1.530124E+0	1.464428E+0	1.464687E+0	1.532905E+0	1.531947E+0	1.529390E+0	1.491682E+0	1.474986E+0	1.419930E+0	1.546658E+0	1.483300E+0	1.572709E+0	1.504009E+0	1.501138E+0	1.449191E+0	1.523861E+0	1.475338E+0	1.481687E+0	1.491999E+0	1.543039E+0	1.516079E+0	1.512663E+0	1.476032E+0	1.448341E+0	1.551436E+0	1.499688E+0	1.485841E+0	1.461090E+0	1.478190E+0	1.505121E+0	1.490089E+0	1.500895E+0	1.430585E+0	1.513572E+0	1.510880E+0	1.496973E+0	1.461811E+0	1.495011E+0	1.508816E+0	1.471420E+0	1.501816E+0	1.517371E+0	1.551159E+0	1.496093E+0	1.486105E+0	1.456081E+0	1.462873E+0	1.464898E+0	1.487193E+0	1.546564E+0	1.436070E+0	1.504921E+0	1.429645E+0	1.550856E+0	1.522816E+0	1.492578E+0	1.438444E+0	1.530082E+0	1.500760E+0	1.436816E+0
5.450150E+2	1.417463E+0	1.433308E+0	1.382719E+0	1.403815E+0	1.437722E+0	1.373309E+0	1.419616E+0	1.427112E+0	1.399027E+0	1.439115E+0	1.399516E+0	1.412497E+0	1.437074E+0	1.360838E+0	1.480315E+0	1.427081E+0	1.475170E+0	1.412728E+0	1.420395E+0	1.392009E+0	1.412626E+0	1.416972E+0	1.388120E+0	1.346258E+0	1.422476E+0	1.454394E+0	1.351814E+0	1.440090E+0	1.447713E+0	1.403276E+0	1.356932E+0	1.402765E+0	1.414397E+0	1.410066E+0	1.376272E+0	1.420606E+0	1.424175E+0	1.370433E+0	1.373530E+0	1.418475E+0	1.404997E+0	1.390703E+0	1.397329E+0	1.399752E+0	1.407525E+0	1.384283E+0	1.408132E+0	1.435380E+0	1.372928E+0	1.372382E+0	1.442448E+0	1.475503E+0	1.428394E+0	1.456916E+0	1.494589E+0	1.412707E+0	1.489084E+0	1.436869E+0	1.403362E+0	1.423052E+0	1.446025E+0	1.389937E+0	1.409547E+0	1.442988E+0	1.460000E+0	1.379762E+0	1.434994E+0	1.352683E+0	1.388504E+0	1.374123E+0	1.417723E+0	1.459736E+0	1.420048E+0	1.353456E+0	1.355277E+0	1.415045E+0	1.372028E+0	1.319262E+0	1.438530E+0	1.416167E+0	1.456910E+0	1.381824E+0	1.397951E+0	1.395426E+0	1.389799E+0	1.346207E+0	1.399248E+0	1.392414E+0	1.483165E+0	1.378459E+0	1.435026E+0	1.398407E+0	1.399668E+0	1.350632E+0	1.368503E+0	1.419487E+0	1.424433E+0	1.395847E+0	1.431662E+0	1.412991E+0	1.406534E+0	1.417802E+0	1.407479E+0	1.487888E+0	1.398541E+0	1.382374E+0	1.431394E+0	1.432007E+0	1.400201E+0	1.331415E+0	1.394424E+0	1.377209E+0	1.374422E+0	1.330695E+0	1.411644E+0	1.419341E+0	1.387082E+0	1.386483E+0	1.424215E+0	1.433605E+0	1.451089E+0	1.422817E+0	1.451846E+0	1.439615E+0	1.442368E+0	1.376058E+0	1.410642E+0	1.422560E+0	1.425338E+0	1.430643E+0	1.418241E+0	1.424712E+0	1.338668E+0	1.404596E+0	1.416588E+0	1.378388E+0	1.432038E+0	1.341687E+0	1.353566E+0	1.325564E+0	1.450221E+0	1.330614E+0	1.461597E+0	1.385591E+0	1.390644E+0	1.356185E+0	1.427173E+0	1.419478E+0	1.406318E+0	1.400076E+0	1.361071E+0	1.476840E+0	1.338611E+0	1.390337E+0	1.418650E+0	1.352780E+0	1.430856E+0	1.373706E+0	1.449497E+0	1.453756E+0	1.434520E+0	1.288382E+0	1.397012E+0	1.372136E+0	1.354512E+0	1.374494E+0	1.359339E+0	1.431661E+0	1.401005E+0
5.452580E+2	1.327162E+0	1.317865E+0	1.374171E+0	1.264308E+0	1.300654E+0	1.315070E+0	1.332878E+0	1.273404E+0	1.324341E+0	1.303652E+0	1.404609E+0	1.365284E+0	1.389699E+0	1.361273E+0	1.349386E+0	1.349630E+0	1.327985E+0	1.342357E+0	1.311477E+0	1.352050E+0	1.421608E+0	1.297416E+0	1.345857E+0	1.255098E+0	1.365466E+0	1.383563E+0	1.357008E+0	1.324503E+0	1.348076E+0	1.342997E+0	1.327498E+0	1.293238E+0	1.358453E+0	1.314430E+0	1.337548E+0	1.321664E+0	1.347161E+0	1.320821E+0	1.356707E+0	1.334804E+0	1.299367E+0	1.311899E+0	1.298555E+0	1.308247E+0	1.311450E+0	1.272075E+0	1.330631E+0	1.369585E+0	1.285429E+0	1.274234E+0	1.284443E+0	1.337578E+0	1.399893E+0	1.396380E+0	1.346890E+0	1.342436E+0	1.359507E+0	1.410848E+0	1.373634E+0	1.394735E+0	1.359588E+0	1.368099E+0	1.343900E+0	1.316890E+0	1.353670E+0	1.426435E+0	1.275664E+0	1.311981E+0	1.297301E+0	1.338345E+0	1.329752E+0	1.347751E+0	1.353155E+0	1.301890E+0	1.327018E+0	1.304025E+0	1.359893E+0	1.262698E+0	1.340179E+0	1.308914E+0	1.292711E+0	1.310010E+0	1.306993E+0	1.385576E+0	1.312039E+0	1.291553E+0	1.364014E+0	1.340003E+0	1.366565E+0	1.337382E+0	1.349783E+0	1.368460E+0	1.328658E+0	1.368408E+0	1.313102E+0	1.326974E+0	1.338504E+0	1.309560E+0	1.345879E+0	1.346177E+0	1.351211E+0	1.327216E+0	1.351383E+0	1.344365E+0	1.266541E+0	1.298837E+0	1.357222E+0	1.410590E+0	1.303830E+0	1.331857E+0	1.329316E+0	1.298242E+0	1.384722E+0	1.300205E+0	1.308533E+0	1.366290E+0	1.363516E+0	1.330191E+0	1.354548E+0	1.391854E+0	1.358310E+0	1.463941E+0	1.341903E+0	1.277366E+0	1.384520E+0	1.308627E+0	1.288129E+0	1.330912E+0	1.297076E+0	1.341857E+0	1.296947E+0	1.362622E+0	1.303176E+0	1.358657E+0	1.267188E+0	1.315727E+0	1.308226E+0	1.300185E+0	1.257916E+0	1.355505E+0	1.359124E+0	1.327187E+0	1.354535E+0	1.312696E+0	1.382773E+0	1.290958E+0	1.303551E+0	1.404332E+0	1.363893E+0	1.310760E+0	1.367984E+0	1.361186E+0	1.342140E+0	1.277928E+0	1.330495E+0	1.313718E+0	1.338448E+0	1.340081E+0	1.372422E+0	1.388673E+0	1.350064E+0	1.254082E+0	1.348548E+0	1.320031E+0	1.332383E+0	1.325912E+0	1.415636E+0	1.342712E+0	1.336582E+0
5.455290E+2	1.319147E+0	1.291305E+0	1.336544E+0	1.245966E+0	1.321264E+0	1.320108E+0	1.319970E+0	1.284109E+0	1.284153E+0	1.260214E+0	1.317271E+0	1.265280E+0	1.320661E+0	1.265369E+0	1.357793E+0	1.336009E+0	1.278755E+0	1.318897E+0	1.309984E+0	1.268489E+0	1.376719E+0	1.278465E+0	1.305374E+0	1.269581E+0	1.289113E+0	1.269832E+0	1.285449E+0	1.328202E+0	1.282348E+0	1.291616E+0	1.268211E+0	1.286444E+0	1.267429E+0	1.279052E+0	1.325479E+0	1.284450E+0	1.269292E+0	1.281025E+0	1.245747E+0	1.289891E+0	1.332973E+0	1.266704E+0	1.308469E+0	1.295693E+0	1.291641E+0	1.289674E+0	1.281690E+0	1.330581E+0	1.290747E+0	1.267436E+0	1.288917E+0	1.296777E+0	1.302482E+0	1.301460E+0	1.282778E+0	1.304695E+0	1.346003E+0	1.377669E+0	1.252179E+0	1.332249E+0	1.243094E+0	1.318396E+0	1.293447E+0	1.308458E+0	1.310606E+0	1.334054E+0	1.301483E+0	1.214900E+0	1.233406E+0	1.258927E+0	1.239017E+0	1.301921E+0	1.288172E+0	1.297166E+0	1.286359E+0	1.260709E+0	1.310464E+0	1.230275E+0	1.308891E+0	1.345135E+0	1.281056E+0	1.299228E+0	1.317183E+0	1.286627E+0	1.262309E+0	1.253985E+0	1.261901E+0	1.277604E+0	1.281780E+0	1.269071E+0	1.274127E+0	1.333874E+0	1.323993E+0	1.347526E+0	1.326059E+0	1.239328E+0	1.295588E+0	1.277819E+0	1.328254E+0	1.271070E+0	1.312593E+0	1.315843E+0	1.293803E+0	1.305697E+0	1.227204E+0	1.263445E+0	1.325136E+0	1.371667E+0	1.284433E+0	1.267575E+0	1.280027E+0	1.272017E+0	1.263101E+0	1.224095E+0	1.312647E+0	1.343015E+0	1.282443E+0	1.287479E+0	1.294706E+0	1.341026E+0	1.385024E+0	1.287559E+0	1.286782E+0	1.250848E+0	1.313457E+0	1.230641E+0	1.287105E+0	1.274605E+0	1.276920E+0	1.299362E+0	1.302631E+0	1.242261E+0	1.248499E+0	1.298041E+0	1.235124E+0	1.289489E+0	1.349507E+0	1.232651E+0	1.288356E+0	1.241471E+0	1.361702E+0	1.193026E+0	1.278971E+0	1.255807E+0	1.311035E+0	1.252897E+0	1.305373E+0	1.389792E+0	1.280343E+0	1.268645E+0	1.329849E+0	1.281049E+0	1.218334E+0	1.302474E+0	1.294867E+0	1.301928E+0	1.308765E+0	1.214512E+0	1.285872E+0	1.248059E+0	1.295654E+0	1.210311E+0	1.310965E+0	1.211504E+0	1.298256E+0	1.298665E+0	1.310237E+0	1.294079E+0	1.244581E+0
5.457720E+2	1.204396E+0	1.189544E+0	1.202536E+0	1.205810E+0	1.185391E+0	1.150032E+0	1.175705E+0	1.193432E+0	1.201489E+0	1.188583E+0	1.203522E+0	1.184860E+0	1.195182E+0	1.185370E+0	1.192407E+0	1.230708E+0	1.221769E+0	1.203976E+0	1.191110E+0	1.215474E+0	1.271301E+0	1.194696E+0	1.192442E+0	1.174347E+0	1.231518E+0	1.168719E+0	1.192851E+0	1.215789E+0	1.220494E+0	1.164530E+0	1.185088E+0	1.182582E+0	1.143188E+0	1.160681E+0	1.201535E+0	1.187206E+0	1.161107E+0	1.161267E+0	1.185077E+0	1.211449E+0	1.165764E+0	1.217179E+0	1.216213E+0	1.151576E+0	1.225047E+0	1.170886E+0	1.171679E+0	1.183485E+0	1.205803E+0	1.157875E+0	1.224979E+0	1.189115E+0	1.202454E+0	1.201064E+0	1.204955E+0	1.206466E+0	1.286459E+0	1.204473E+0	1.218624E+0	1.177001E+0	1.102307E+0	1.178021E+0	1.139596E+0	1.191137E+0	1.217274E+0	1.176248E+0	1.119030E+0	1.135095E+0	1.143500E+0	1.221620E+0	1.132550E+0	1.197685E+0	1.201543E+0	1.153266E+0	1.189815E+0	1.170946E+0	1.170318E+0	1.131429E+0	1.180163E+0	1.111309E+0	1.151288E+0	1.144408E+0	1.206876E+0	1.159192E+0	1.186896E+0	1.184666E+0	1.194789E+0	1.126441E+0	1.156506E+0	1.160966E+0	1.201774E+0	1.154387E+0	1.208568E+0	1.142071E+0	1.202684E+0	1.166066E+0	1.185930E+0	1.167948E+0	1.168723E+0	1.216051E+0	1.172313E+0	1.205446E+0	1.148057E+0	1.159923E+0	1.162559E+0	1.125655E+0	1.187574E+0	1.261968E+0	1.181022E+0	1.099342E+0	1.152427E+0	1.191631E+0	1.192532E+0	1.166897E+0	1.197860E+0	1.189555E+0	1.172449E+0	1.168364E+0	1.177591E+0	1.181053E+0	1.213935E+0	1.190440E+0	1.204984E+0	1.139658E+0	1.210557E+0	1.232856E+0	1.171511E+0	1.155328E+0	1.211828E+0	1.205776E+0	1.153645E+0	1.177037E+0	1.118922E+0	1.153465E+0	1.143654E+0	1.173679E+0	1.150528E+0	1.167054E+0	1.213030E+0	1.183891E+0	1.189171E+0	1.164708E+0	1.129279E+0	1.238455E+0	1.201735E+0	1.161399E+0	1.214735E+0	1.197683E+0	1.166827E+0	1.160044E+0	1.199422E+0	1.184946E+0	1.183224E+0	1.154871E+0	1.211045E+0	1.232485E+0	1.159783E+0	1.143634E+0	1.154596E+0	1.188763E+0	1.172088E+0	1.174362E+0	1.207360E+0	1.211230E+0	1.175885E+0	1.177783E+0	1.260824E+0	1.175277E+0	1.161030E+0
5.460000E+2	1.154772E+0	1.152422E+0	1.247916E+0	1.225953E+0	1.212369E+0	1.209202E+0	1.191916E+0	1.153475E+0	1.172075E+0	1.120576E+0	1.190445E+0	1.208950E+0	1.235810E+0	1.153842E+0	1.201153E+0	1.128645E+0	1.232857E+0	1.200958E+0	1.132095E+0	1.198861E+0	1.199509E+0	1.180646E+0	1.175068E+0	1.186589E+0	1.192554E+0	1.167103E+0	1.182952E+0	1.206762E+0	1.192484E+0	1.169296E+0	1.195619E+0	1.149888E+0	1.156507E+0	1.172114E+0	1.161270E+0	1.138028E+0	1.201275E+0	1.259852E+0	1.134489E+0	1.218110E+0	1.188441E+0	1.224338E+0	1.213646E+0	1.235799E+0	1.216743E+0	1.205438E+0	1.201033E+0	1.144426E+0	1.181622E+0	1.160448E+0	1.196580E+0	1.219696E+0	1.160708E+0	1.198689E+0	1.162838E+0	1.282023E+0	1.242248E+0	1.199354E+0	1.202268E+0	1.177295E+0	1.238660E+0	1.162070E+0	1.193108E+0	1.187391E+0	1.228706E+0	1.194426E+0	1.164752E+0	1.132447E+0	1.152443E+0	1.198766E+0	1.168037E+0	1.200570E+0	1.172407E+0	1.172890E+0	1.169849E+0	1.261472E+0	1.223710E+0	1.228867E+0	1.191565E+0	1.160855E+0	1.145819E+0	1.189110E+0	1.205064E+0	1.189981E+0	1.182821E+0	1.181246E+0	1.249546E+0	1.163559E+0	1.171501E+0	1.177023E+0	1.163478E+0	1.226736E+0	1.175799E+0	1.204500E+0	1.158273E+0	1.186228E+0	1.273976E+0	1.179319E+0	1.181351E+0	1.212128E+0	1.147763E+0	1.201878E+0	1.185166E+0	1.205904E+0	1.148186E+0	1.153318E+0	1.214502E+0	1.185760E+0	1.206851E+0	1.142543E+0	1.198680E+0	1.195999E+0	1.188816E+0	1.148184E+0	1.145748E+0	1.199244E+0	1.210873E+0	1.145951E+0	1.217037E+0	1.180437E+0	1.221952E+0	1.175870E+0	1.158642E+0	1.156053E+0	1.172099E+0	1.159601E+0	1.133100E+0	1.249145E+0	1.213584E+0	1.167231E+0	1.206578E+0	1.197398E+0	1.143489E+0	1.168223E+0	1.208803E+0	1.192498E+0	1.197740E+0	1.161529E+0	1.194188E+0	1.168547E+0	1.223040E+0	1.137949E+0	1.215439E+0	1.209300E+0	1.194853E+0	1.111371E+0	1.145219E+0	1.216681E+0	1.184859E+0	1.161039E+0	1.141959E+0	1.197029E+0	1.162278E+0	1.153829E+0	1.198733E+0	1.179613E+0	1.187652E+0	1.175551E+0	1.262783E+0	1.166530E+0	1.224840E+0	1.105103E+0	1.220280E+0	1.252942E+0	1.143435E+0	1.186876E+0	1.183585E+0	1.194100E+0	1.182160E+0
5.467600E+2	1.164390E+0	1.262134E+0	1.264726E+0	1.211790E+0	1.235241E+0	1.190243E+0	1.182182E+0	1.242828E+0	1.169641E+0	1.197119E+0	1.211424E+0	1.206750E+0	1.192688E+0	1.202697E+0	1.225273E+0	1.192511E+0	1.179936E+0	1.197792E+0	1.211798E+0	1.158438E+0	1.172433E+0	1.178362E+0	1.214843E+0	1.213265E+0	1.299497E+0	1.229937E+0	1.202565E+0	1.226909E+0	1.272325E+0	1.212028E+0	1.216663E+0	1.189748E+0	1.233089E+0	1.230219E+0	1.199347E+0	1.171864E+0	1.226871E+0	1.216591E+0	1.219894E+0	1.223095E+0	1.219082E+0	1.208701E+0	1.223827E+0	1.218207E+0	1.210518E+0	1.237635E+0	1.194131E+0	1.175900E+0	1.214840E+0	1.200117E+0	1.251965E+0	1.166867E+0	1.197863E+0	1.202307E+0	1.265049E+0	1.222951E+0	1.238549E+0	1.243921E+0	1.223368E+0	1.235835E+0	1.251628E+0	1.228195E+0	1.215413E+0	1.211591E+0	1.219311E+0	1.232028E+0	1.223855E+0	1.202149E+0	1.165486E+0	1.224277E+0	1.229267E+0	1.231807E+0	1.166695E+0	1.211769E+0	1.188361E+0	1.263021E+0	1.253160E+0	1.213763E+0	1.207461E+0	1.173851E+0	1.189271E+0	1.175815E+0	1.186227E+0	1.195891E+0	1.216915E+0	1.215509E+0	1.205315E+0	1.202912E+0	1.254939E+0	1.198838E+0	1.200478E+0	1.209180E+0	1.186620E+0	1.207442E+0	1.200654E+0	1.193897E+0	1.159654E+0	1.180614E+0	1.263769E+0	1.236103E+0	1.196626E+0	1.206329E+0	1.174316E+0	1.199005E+0	1.225354E+0	1.134683E+0	1.183041E+0	1.241107E+0	1.185242E+0	1.204221E+0	1.192892E+0	1.189766E+0	1.182972E+0	1.143292E+0	1.199704E+0	1.154567E+0	1.195705E+0	1.172141E+0	1.218440E+0	1.221132E+0	1.204352E+0	1.201358E+0	1.172950E+0	1.193302E+0	1.306288E+0	1.173296E+0	1.202983E+0	1.194186E+0	1.213966E+0	1.189002E+0	1.173108E+0	1.256113E+0	1.174074E+0	1.168750E+0	1.238553E+0	1.196910E+0	1.211997E+0	1.216725E+0	1.203800E+0	1.189030E+0	1.221751E+0	1.136139E+0	1.227613E+0	1.182372E+0	1.222410E+0	1.204848E+0	1.152394E+0	1.246203E+0	1.183255E+0	1.203146E+0	1.192025E+0	1.198689E+0	1.188222E+0	1.204642E+0	1.187625E+0	1.168647E+0	1.187953E+0	1.229625E+0	1.227753E+0	1.143013E+0	1.215760E+0	1.157084E+0	1.177592E+0	1.175409E+0	1.234118E+0	1.158684E+0	1.221668E+0	1.160713E+0	1.206907E+0
5.475180E+2	1.224872E+0	1.255153E+0	1.295725E+0	1.310251E+0	1.199825E+0	1.295512E+0	1.265128E+0	1.220028E+0	1.277593E+0	1.251924E+0	1.251655E+0	1.290956E+0	1.277696E+0	1.317494E+0	1.275462E+0	1.257031E+0	1.248742E+0	1.296863E+0	1.277491E+0	1.278386E+0	1.233515E+0	1.253928E+0	1.278203E+0	1.335740E+0	1.222440E+0	1.262634E+0	1.299408E+0	1.278191E+0	1.286129E+0	1.278986E+0	1.280889E+0	1.268393E+0	1.275666E+0	1.269570E+0	1.304569E+0	1.259403E+0	1.269450E+0	1.250186E+0	1.234026E+0	1.297479E+0	1.230692E+0	1.237388E+0	1.286149E+0	1.260195E+0	1.285097E+0	1.304186E+0	1.243783E+0	1.291277E+0	1.291053E+0	1.229638E+0	1.269966E+0	1.293143E+0	1.306248E+0	1.255324E+0	1.323324E+0	1.250990E+0	1.263812E+0	1.351574E+0	1.248530E+0	1.243548E+0	1.268495E+0	1.257749E+0	1.265367E+0	1.290085E+0	1.326263E+0	1.272305E+0	1.212224E+0	1.223574E+0	1.265084E+0	1.304471E+0	1.244528E+0	1.224193E+0	1.296128E+0	1.230890E+0	1.218431E+0	1.268715E+0	1.221202E+0	1.255086E+0	1.224732E+0	1.283738E+0	1.295638E+0	1.259655E+0	1.249981E+0	1.273055E+0	1.185771E+0	1.296272E+0	1.305035E+0	1.243282E+0	1.236452E+0	1.241954E+0	1.286195E+0	1.240894E+0	1.381056E+0	1.254095E+0	1.193628E+0	1.283712E+0	1.277521E+0	1.206090E+0	1.257993E+0	1.247552E+0	1.251034E+0	1.267095E+0	1.290464E+0	1.306270E+0	1.259742E+0	1.228894E+0	1.274202E+0	1.296559E+0	1.274050E+0	1.240891E+0	1.256123E+0	1.311547E+0	1.257531E+0	1.191098E+0	1.300861E+0	1.258058E+0	1.283508E+0	1.279975E+0	1.221562E+0	1.302832E+0	1.334043E+0	1.275901E+0	1.270637E+0	1.301539E+0	1.324406E+0	1.267396E+0	1.164740E+0	1.304212E+0	1.333426E+0	1.279086E+0	1.274778E+0	1.238793E+0	1.259601E+0	1.286277E+0	1.228273E+0	1.265607E+0	1.284311E+0	1.260326E+0	1.304524E+0	1.290981E+0	1.247269E+0	1.208334E+0	1.317416E+0	1.316320E+0	1.256733E+0	1.210189E+0	1.267006E+0	1.327033E+0	1.272911E+0	1.233039E+0	1.220898E+0	1.287454E+0	1.232154E+0	1.317578E+0	1.252094E+0	1.298815E+0	1.319319E+0	1.276670E+0	1.273017E+0	1.287122E+0	1.270908E+0	1.155502E+0	1.290520E+0	1.220215E+0	1.272924E+0	1.218695E+0	1.239286E+0	1.249032E+0	1.276124E+0
5.482550E+2	1.308406E+0	1.341298E+0	1.395121E+0	1.317551E+0	1.275800E+0	1.335953E+0	1.365312E+0	1.304784E+0	1.351228E+0	1.313372E+0	1.309215E+0	1.400675E+0	1.333415E+0	1.280881E+0	1.364620E+0	1.306185E+0	1.375397E+0	1.353043E+0	1.338022E+0	1.366719E+0	1.364066E+0	1.304804E+0	1.359522E+0	1.272063E+0	1.335945E+0	1.304788E+0	1.330325E+0	1.356463E+0	1.398959E+0	1.323821E+0	1.306017E+0	1.377039E+0	1.385506E+0	1.330778E+0	1.348249E+0	1.327259E+0	1.335077E+0	1.317964E+0	1.334177E+0	1.346596E+0	1.371744E+0	1.431550E+0	1.369827E+0	1.314848E+0	1.370654E+0	1.284612E+0	1.321599E+0	1.308882E+0	1.279242E+0	1.358024E+0	1.335915E+0	1.333948E+0	1.372649E+0	1.329726E+0	1.345473E+0	1.391831E+0	1.295356E+0	1.316426E+0	1.318415E+0	1.363502E+0	1.374171E+0	1.298084E+0	1.358524E+0	1.354103E+0	1.381927E+0	1.300722E+0	1.279501E+0	1.236584E+0	1.364936E+0	1.363288E+0	1.317949E+0	1.338519E+0	1.372347E+0	1.340008E+0	1.302816E+0	1.374669E+0	1.370375E+0	1.375344E+0	1.345324E+0	1.334762E+0	1.293805E+0	1.324398E+0	1.283654E+0	1.354374E+0	1.323873E+0	1.297104E+0	1.341885E+0	1.306561E+0	1.314414E+0	1.264587E+0	1.308966E+0	1.311420E+0	1.383020E+0	1.329541E+0	1.313859E+0	1.395700E+0	1.378410E+0	1.252574E+0	1.372122E+0	1.344630E+0	1.300722E+0	1.366101E+0	1.311486E+0	1.417976E+0	1.338045E+0	1.306572E+0	1.335757E+0	1.356084E+0	1.407131E+0	1.268664E+0	1.354627E+0	1.344163E+0	1.343888E+0	1.312582E+0	1.325535E+0	1.339476E+0	1.312502E+0	1.221393E+0	1.373610E+0	1.387274E+0	1.377859E+0	1.313165E+0	1.348348E+0	1.319797E+0	1.342141E+0	1.333962E+0	1.305959E+0	1.316098E+0	1.354965E+0	1.343886E+0	1.332728E+0	1.357779E+0	1.330111E+0	1.341208E+0	1.296281E+0	1.349294E+0	1.309190E+0	1.316709E+0	1.312470E+0	1.340179E+0	1.357582E+0	1.275502E+0	1.325963E+0	1.368571E+0	1.322475E+0	1.311103E+0	1.388534E+0	1.378986E+0	1.374779E+0	1.323888E+0	1.314781E+0	1.358385E+0	1.304225E+0	1.324405E+0	1.276172E+0	1.330901E+0	1.309723E+0	1.281197E+0	1.371592E+0	1.352250E+0	1.315018E+0	1.296684E+0	1.347517E+0	1.290943E+0	1.295847E+0	1.313973E+0	1.279852E+0	1.401437E+0	1.405065E+0
5.490160E+2	1.306047E+0	1.353253E+0	1.307627E+0	1.341813E+0	1.337380E+0	1.354421E+0	1.366322E+0	1.333478E+0	1.348801E+0	1.331266E+0	1.355029E+0	1.375492E+0	1.390986E+0	1.347650E+0	1.328774E+0	1.339735E+0	1.343024E+0	1.368178E+0	1.348752E+0	1.350171E+0	1.355445E+0	1.348692E+0	1.330649E+0	1.364584E+0	1.330565E+0	1.366541E+0	1.413840E+0	1.419822E+0	1.368067E+0	1.310596E+0	1.287422E+0	1.354397E+0	1.287174E+0	1.364636E+0	1.284749E+0	1.313574E+0	1.349277E+0	1.354015E+0	1.382730E+0	1.372059E+0	1.346371E+0	1.279180E+0	1.370603E+0	1.321208E+0	1.387995E+0	1.342718E+0	1.275793E+0	1.340007E+0	1.328144E+0	1.346859E+0	1.357018E+0	1.372956E+0	1.342516E+0	1.357444E+0	1.383650E+0	1.409789E+0	1.356664E+0	1.410445E+0	1.330961E+0	1.319411E+0	1.360547E+0	1.343271E+0	1.397836E+0	1.358802E+0	1.415548E+0	1.366865E+0	1.407749E+0	1.382792E+0	1.356561E+0	1.315448E+0	1.357396E+0	1.310335E+0	1.291148E+0	1.349125E+0	1.315444E+0	1.323679E+0	1.321077E+0	1.318038E+0	1.347258E+0	1.343501E+0	1.343048E+0	1.383590E+0	1.340809E+0	1.314444E+0	1.319481E+0	1.336491E+0	1.326763E+0	1.361859E+0	1.375488E+0	1.327419E+0	1.367219E+0	1.337352E+0	1.389028E+0	1.373316E+0	1.360998E+0	1.304072E+0	1.331802E+0	1.294479E+0	1.386668E+0	1.332288E+0	1.332112E+0	1.355473E+0	1.313586E+0	1.317651E+0	1.311345E+0	1.285867E+0	1.345490E+0	1.357135E+0	1.335490E+0	1.277856E+0	1.272086E+0	1.299854E+0	1.380780E+0	1.368526E+0	1.379895E+0	1.379958E+0	1.337380E+0	1.314613E+0	1.358774E+0	1.367423E+0	1.381205E+0	1.329768E+0	1.311605E+0	1.317377E+0	1.356295E+0	1.292592E+0	1.317848E+0	1.342531E+0	1.430452E+0	1.328421E+0	1.303914E+0	1.305161E+0	1.295769E+0	1.351155E+0	1.336540E+0	1.365637E+0	1.324252E+0	1.277599E+0	1.320865E+0	1.284764E+0	1.408464E+0	1.289512E+0	1.321312E+0	1.323423E+0	1.337885E+0	1.335555E+0	1.343007E+0	1.392591E+0	1.374151E+0	1.315094E+0	1.351171E+0	1.354922E+0	1.337142E+0	1.373034E+0	1.334743E+0	1.372709E+0	1.366989E+0	1.350323E+0	1.306244E+0	1.324448E+0	1.329470E+0	1.265747E+0	1.381145E+0	1.393699E+0	1.363730E+0	1.338528E+0	1.368386E+0	1.319330E+0	1.364998E+0
5.497680E+2	1.347090E+0	1.281406E+0	1.252754E+0	1.271230E+0	1.271479E+0	1.352892E+0	1.311295E+0	1.320740E+0	1.306289E+0	1.314459E+0	1.289222E+0	1.326661E+0	1.375959E+0	1.262673E+0	1.294482E+0	1.353371E+0	1.345910E+0	1.328637E+0	1.334459E+0	1.300046E+0	1.339012E+0	1.254198E+0	1.298670E+0	1.306268E+0	1.322150E+0	1.318086E+0	1.265635E+0	1.297001E+0	1.310955E+0	1.283125E+0	1.268750E+0	1.268676E+0	1.287715E+0	1.281741E+0	1.261052E+0	1.277992E+0	1.285253E+0	1.286000E+0	1.272227E+0	1.304168E+0	1.326907E+0	1.294890E+0	1.252733E+0	1.321569E+0	1.341656E+0	1.235627E+0	1.263783E+0	1.331315E+0	1.303195E+0	1.279038E+0	1.300415E+0	1.301194E+0	1.341332E+0	1.345027E+0	1.254252E+0	1.318164E+0	1.301912E+0	1.277800E+0	1.299141E+0	1.314740E+0	1.292482E+0	1.264207E+0	1.299284E+0	1.338067E+0	1.327502E+0	1.311558E+0	1.236682E+0	1.258113E+0	1.305302E+0	1.315387E+0	1.270970E+0	1.290339E+0	1.285257E+0	1.273526E+0	1.278635E+0	1.332936E+0	1.336477E+0	1.285757E+0	1.328761E+0	1.343501E+0	1.302261E+0	1.279541E+0	1.314170E+0	1.311888E+0	1.233265E+0	1.328552E+0	1.348827E+0	1.310915E+0	1.286519E+0	1.275686E+0	1.287428E+0	1.272963E+0	1.329817E+0	1.334502E+0	1.290095E+0	1.204175E+0	1.290472E+0	1.292462E+0	1.314623E+0	1.293305E+0	1.303245E+0	1.285059E+0	1.247175E+0	1.338944E+0	1.210700E+0	1.201483E+0	1.325426E+0	1.346058E+0	1.315601E+0	1.219067E+0	1.259876E+0	1.280623E+0	1.309104E+0	1.211261E+0	1.331725E+0	1.306192E+0	1.288156E+0	1.236567E+0	1.327253E+0	1.322539E+0	1.270145E+0	1.281886E+0	1.291601E+0	1.206933E+0	1.317442E+0	1.313859E+0	1.237371E+0	1.266271E+0	1.360748E+0	1.275693E+0	1.269249E+0	1.240449E+0	1.253185E+0	1.265746E+0	1.239423E+0	1.303961E+0	1.300001E+0	1.238189E+0	1.257957E+0	1.262209E+0	1.308575E+0	1.268351E+0	1.290408E+0	1.300821E+0	1.331759E+0	1.229291E+0	1.288687E+0	1.287676E+0	1.275647E+0	1.290377E+0	1.290783E+0	1.294058E+0	1.275157E+0	1.223653E+0	1.289546E+0	1.291868E+0	1.312747E+0	1.328743E+0	1.287174E+0	1.294864E+0	1.336525E+0	1.222545E+0	1.358814E+0	1.292815E+0	1.263152E+0	1.262779E+0	1.292618E+0	1.296544E+0	1.300735E+0
5.505060E+2	1.278299E+0	1.240944E+0	1.251484E+0	1.277266E+0	1.248566E+0	1.235245E+0	1.241380E+0	1.272781E+0	1.249702E+0	1.239053E+0	1.256287E+0	1.213312E+0	1.304004E+0	1.247724E+0	1.258628E+0	1.233720E+0	1.323232E+0	1.322816E+0	1.245279E+0	1.259857E+0	1.356894E+0	1.247153E+0	1.253370E+0	1.213675E+0	1.252584E+0	1.295762E+0	1.248602E+0	1.252991E+0	1.269927E+0	1.217112E+0	1.259369E+0	1.199248E+0	1.268176E+0	1.225365E+0	1.291322E+0	1.280012E+0	1.229894E+0	1.230422E+0	1.301090E+0	1.254366E+0	1.260683E+0	1.267306E+0	1.252447E+0	1.248717E+0	1.327896E+0	1.282882E+0	1.311600E+0	1.213949E+0	1.276588E+0	1.239333E+0	1.269121E+0	1.286873E+0	1.259885E+0	1.260004E+0	1.327263E+0	1.296927E+0	1.309763E+0	1.298981E+0	1.271269E+0	1.257789E+0	1.278820E+0	1.236220E+0	1.281321E+0	1.294493E+0	1.276644E+0	1.266381E+0	1.211897E+0	1.145748E+0	1.248805E+0	1.226751E+0	1.220601E+0	1.312070E+0	1.280736E+0	1.282831E+0	1.298287E+0	1.266051E+0	1.250827E+0	1.208876E+0	1.271858E+0	1.267574E+0	1.308378E+0	1.251078E+0	1.301734E+0	1.266632E+0	1.196265E+0	1.253192E+0	1.246633E+0	1.219960E+0	1.274603E+0	1.221557E+0	1.219793E+0	1.316742E+0	1.282657E+0	1.303552E+0	1.230858E+0	1.237552E+0	1.256454E+0	1.238887E+0	1.263241E+0	1.320165E+0	1.246731E+0	1.300331E+0	1.246220E+0	1.297357E+0	1.258148E+0	1.227206E+0	1.290066E+0	1.281005E+0	1.212145E+0	1.190824E+0	1.208076E+0	1.285921E+0	1.259501E+0	1.239057E+0	1.268766E+0	1.256165E+0	1.270437E+0	1.249207E+0	1.216344E+0	1.208199E+0	1.284158E+0	1.226611E+0	1.237217E+0	1.215442E+0	1.231149E+0	1.242345E+0	1.224586E+0	1.282678E+0	1.308011E+0	1.292714E+0	1.286431E+0	1.282723E+0	1.245719E+0	1.254501E+0	1.274661E+0	1.270429E+0	1.255607E+0	1.228358E+0	1.238030E+0	1.231438E+0	1.306142E+0	1.204840E+0	1.301758E+0	1.314357E+0	1.244155E+0	1.253153E+0	1.211028E+0	1.267902E+0	1.249685E+0	1.289480E+0	1.214237E+0	1.250693E+0	1.260221E+0	1.294320E+0	1.175965E+0	1.235275E+0	1.271706E+0	1.238717E+0	1.258811E+0	1.255689E+0	1.247173E+0	1.229083E+0	1.236903E+0	1.212400E+0	1.211754E+0	1.202216E+0	1.272803E+0	1.258785E+0	1.263740E+0
5.512570E+2	1.299377E+0	1.192017E+0	1.304652E+0	1.205939E+0	1.199713E+0	1.253913E+0	1.241503E+0	1.291939E+0	1.256314E+0	1.256733E+0	1.298385E+0	1.258375E+0	1.302285E+0	1.216873E+0	1.240125E+0	1.287105E+0	1.261183E+0	1.265395E+0	1.219097E+0	1.271812E+0	1.302371E+0	1.282071E+0	1.260936E+0	1.205410E+0	1.265010E+0	1.258684E+0	1.251792E+0	1.219789E+0	1.330146E+0	1.186523E+0	1.205725E+0	1.224762E+0	1.231472E+0	1.212139E+0	1.248699E+0	1.263657E+0	1.254465E+0	1.254452E+0	1.287080E+0	1.290137E+0	1.250545E+0	1.254015E+0	1.260419E+0	1.247954E+0	1.285950E+0	1.232299E+0	1.255172E+0	1.216854E+0	1.225159E+0	1.231807E+0	1.283767E+0	1.258413E+0	1.224355E+0	1.231984E+0	1.312528E+0	1.291472E+0	1.309623E+0	1.267464E+0	1.283665E+0	1.238509E+0	1.282729E+0	1.268234E+0	1.253675E+0	1.276346E+0	1.231508E+0	1.259727E+0	1.252729E+0	1.227173E+0	1.263947E+0	1.257001E+0	1.257178E+0	1.267587E+0	1.195252E+0	1.213446E+0	1.261411E+0	1.212963E+0	1.263501E+0	1.136514E+0	1.339169E+0	1.190358E+0	1.246297E+0	1.213605E+0	1.285920E+0	1.250594E+0	1.270842E+0	1.200219E+0	1.226872E+0	1.222793E+0	1.240028E+0	1.272037E+0	1.271477E+0	1.262365E+0	1.301943E+0	1.224348E+0	1.167798E+0	1.200955E+0	1.304759E+0	1.273577E+0	1.245341E+0	1.302900E+0	1.250687E+0	1.263662E+0	1.217534E+0	1.292763E+0	1.215327E+0	1.236249E+0	1.252858E+0	1.275758E+0	1.228940E+0	1.216120E+0	1.262885E+0	1.283486E+0	1.219953E+0	1.286151E+0	1.282453E+0	1.185680E+0	1.293215E+0	1.247493E+0	1.185430E+0	1.239175E+0	1.253102E+0	1.291469E+0	1.237163E+0	1.236387E+0	1.243416E+0	1.293552E+0	1.247535E+0	1.234104E+0	1.289646E+0	1.199517E+0	1.273650E+0	1.224196E+0	1.238845E+0	1.296541E+0	1.216935E+0	1.229536E+0	1.254263E+0	1.223147E+0	1.238625E+0	1.216748E+0	1.279222E+0	1.160494E+0	1.257280E+0	1.300869E+0	1.241208E+0	1.206263E+0	1.208578E+0	1.283833E+0	1.258360E+0	1.248271E+0	1.250660E+0	1.283445E+0	1.227498E+0	1.234838E+0	1.223693E+0	1.261930E+0	1.326640E+0	1.206363E+0	1.320937E+0	1.264295E+0	1.283190E+0	1.198584E+0	1.287401E+0	1.272287E+0	1.210623E+0	1.208884E+0	1.230223E+0	1.183675E+0	1.237767E+0
5.520100E+2	1.212725E+0	1.230257E+0	1.278210E+0	1.249525E+0	1.239515E+0	1.247960E+0	1.248403E+0	1.272184E+0	1.263408E+0	1.234152E+0	1.307436E+0	1.196626E+0	1.259718E+0	1.255878E+0	1.268869E+0	1.260640E+0	1.283546E+0	1.281582E+0	1.257462E+0	1.266621E+0	1.294348E+0	1.214887E+0	1.208042E+0	1.240642E+0	1.196829E+0	1.240196E+0	1.171606E+0	1.249982E+0	1.309404E+0	1.211858E+0	1.220169E+0	1.257176E+0	1.228363E+0	1.270469E+0	1.265868E+0	1.190095E+0	1.251373E+0	1.264253E+0	1.231125E+0	1.237149E+0	1.250657E+0	1.249938E+0	1.260707E+0	1.240435E+0	1.262799E+0	1.200602E+0	1.215105E+0	1.301108E+0	1.241832E+0	1.209286E+0	1.269085E+0	1.242576E+0	1.266663E+0	1.280357E+0	1.240843E+0	1.265788E+0	1.283396E+0	1.242524E+0	1.182203E+0	1.210801E+0	1.281819E+0	1.266849E+0	1.293692E+0	1.250640E+0	1.270794E+0	1.227347E+0	1.290217E+0	1.171261E+0	1.188886E+0	1.206571E+0	1.246707E+0	1.233873E+0	1.289201E+0	1.231045E+0	1.222442E+0	1.258577E+0	1.292075E+0	1.243226E+0	1.197128E+0	1.251681E+0	1.219516E+0	1.224020E+0	1.246609E+0	1.228609E+0	1.254184E+0	1.242258E+0	1.238367E+0	1.197221E+0	1.228323E+0	1.217794E+0	1.250286E+0	1.204459E+0	1.266074E+0	1.258124E+0	1.221157E+0	1.159653E+0	1.238304E+0	1.209674E+0	1.288796E+0	1.258501E+0	1.244564E+0	1.277677E+0	1.251230E+0	1.226246E+0	1.283824E+0	1.234739E+0	1.279539E+0	1.284611E+0	1.283240E+0	1.242616E+0	1.226004E+0	1.292723E+0	1.225762E+0	1.253042E+0	1.224813E+0	1.167794E+0	1.241539E+0	1.239236E+0	1.256420E+0	1.225739E+0	1.246720E+0	1.206331E+0	1.253076E+0	1.207861E+0	1.285023E+0	1.237271E+0	1.289970E+0	1.280642E+0	1.255550E+0	1.236971E+0	1.238839E+0	1.207353E+0	1.219891E+0	1.245293E+0	1.183119E+0	1.206755E+0	1.213081E+0	1.234900E+0	1.217751E+0	1.224224E+0	1.309884E+0	1.203433E+0	1.246632E+0	1.229226E+0	1.255086E+0	1.229077E+0	1.192406E+0	1.230642E+0	1.253433E+0	1.205820E+0	1.218764E+0	1.263975E+0	1.201817E+0	1.235315E+0	1.246023E+0	1.195300E+0	1.233429E+0	1.238032E+0	1.289574E+0	1.221878E+0	1.217593E+0	1.176759E+0	1.269613E+0	1.230879E+0	1.288394E+0	1.235001E+0	1.221161E+0	1.259194E+0	1.248424E+0
5.527590E+2	1.276064E+0	1.198188E+0	1.247397E+0	1.232105E+0	1.241532E+0	1.202787E+0	1.235203E+0	1.302877E+0	1.223920E+0	1.220197E+0	1.255733E+0	1.253671E+0	1.287833E+0	1.273938E+0	1.220073E+0	1.248227E+0	1.207030E+0	1.233544E+0	1.236867E+0	1.231102E+0	1.298034E+0	1.247655E+0	1.235223E+0	1.247355E+0	1.244439E+0	1.227733E+0	1.210603E+0	1.234241E+0	1.224163E+0	1.266598E+0	1.220216E+0	1.205682E+0	1.262934E+0	1.275725E+0	1.244564E+0	1.250889E+0	1.259983E+0	1.252054E+0	1.243404E+0	1.266771E+0	1.254939E+0	1.234940E+0	1.221972E+0	1.233309E+0	1.302656E+0	1.213214E+0	1.248453E+0	1.268515E+0	1.218425E+0	1.191282E+0	1.251759E+0	1.176420E+0	1.255180E+0	1.246695E+0	1.272739E+0	1.214176E+0	1.238692E+0	1.283246E+0	1.270749E+0	1.232037E+0	1.231642E+0	1.225327E+0	1.257527E+0	1.249741E+0	1.277041E+0	1.202689E+0	1.173326E+0	1.201913E+0	1.190228E+0	1.257903E+0	1.270052E+0	1.291956E+0	1.280538E+0	1.171509E+0	1.211799E+0	1.199142E+0	1.243166E+0	1.231455E+0	1.284455E+0	1.195943E+0	1.203816E+0	1.256550E+0	1.207235E+0	1.274398E+0	1.220628E+0	1.213658E+0	1.231245E+0	1.174415E+0	1.200282E+0	1.174583E+0	1.295233E+0	1.245873E+0	1.279279E+0	1.261898E+0	1.268723E+0	1.254800E+0	1.309178E+0	1.165823E+0	1.250352E+0	1.230228E+0	1.256539E+0	1.211992E+0	1.263249E+0	1.235389E+0	1.219101E+0	1.184393E+0	1.253756E+0	1.262498E+0	1.222554E+0	1.231572E+0	1.233544E+0	1.176185E+0	1.223386E+0	1.240814E+0	1.257430E+0	1.237192E+0	1.220688E+0	1.273395E+0	1.255794E+0	1.288552E+0	1.217588E+0	1.201308E+0	1.273407E+0	1.200424E+0	1.311113E+0	1.256242E+0	1.222131E+0	1.287808E+0	1.274856E+0	1.251866E+0	1.231330E+0	1.200039E+0	1.168610E+0	1.186903E+0	1.222829E+0	1.260864E+0	1.222827E+0	1.198053E+0	1.228160E+0	1.214195E+0	1.208715E+0	1.218787E+0	1.252496E+0	1.273246E+0	1.216811E+0	1.210491E+0	1.262001E+0	1.211973E+0	1.253124E+0	1.216527E+0	1.235057E+0	1.279840E+0	1.199157E+0	1.235782E+0	1.223948E+0	1.249190E+0	1.235554E+0	1.227937E+0	1.247296E+0	1.202606E+0	1.248982E+0	1.208493E+0	1.195959E+0	1.232087E+0	1.277396E+0	1.212886E+0	1.204314E+0	1.201427E+0	1.321655E+0
5.534940E+2	1.201985E+0	1.192163E+0	1.208116E+0	1.217580E+0	1.171302E+0	1.244301E+0	1.163459E+0	1.162582E+0	1.204483E+0	1.173674E+0	1.274860E+0	1.194380E+0	1.227650E+0	1.182796E+0	1.193588E+0	1.145836E+0	1.235677E+0	1.224868E+0	1.173676E+0	1.165980E+0	1.226632E+0	1.195213E+0	1.236493E+0	1.141509E+0	1.220185E+0	1.187551E+0	1.172555E+0	1.181437E+0	1.183374E+0	1.173386E+0	1.185509E+0	1.158160E+0	1.159383E+0	1.151292E+0	1.210339E+0	1.179522E+0	1.215555E+0	1.208677E+0	1.195538E+0	1.147766E+0	1.195765E+0	1.223534E+0	1.195207E+0	1.148130E+0	1.208687E+0	1.205399E+0	1.162094E+0	1.171212E+0	1.172921E+0	1.194260E+0	1.154736E+0	1.177425E+0	1.125513E+0	1.211249E+0	1.219763E+0	1.194008E+0	1.205245E+0	1.186174E+0	1.164594E+0	1.218280E+0	1.232923E+0	1.152716E+0	1.182982E+0	1.195227E+0	1.188937E+0	1.188129E+0	1.178347E+0	1.136650E+0	1.113931E+0	1.225201E+0	1.162507E+0	1.170062E+0	1.234583E+0	1.243332E+0	1.166065E+0	1.168854E+0	1.201552E+0	1.159100E+0	1.234504E+0	1.186415E+0	1.183854E+0	1.209768E+0	1.193066E+0	1.189486E+0	1.145994E+0	1.142943E+0	1.243293E+0	1.138932E+0	1.179336E+0	1.180430E+0	1.168722E+0	1.213534E+0	1.187437E+0	1.222451E+0	1.163179E+0	1.167841E+0	1.217782E+0	1.191709E+0	1.214733E+0	1.204818E+0	1.211824E+0	1.179768E+0	1.162953E+0	1.273707E+0	1.161289E+0	1.105602E+0	1.218052E+0	1.174966E+0	1.173447E+0	1.164108E+0	1.182599E+0	1.136605E+0	1.187702E+0	1.122765E+0	1.200625E+0	1.165674E+0	1.187979E+0	1.222335E+0	1.181653E+0	1.195268E+0	1.175141E+0	1.205979E+0	1.136981E+0	1.191998E+0	1.207408E+0	1.161961E+0	1.174351E+0	1.200085E+0	1.209590E+0	1.250205E+0	1.187011E+0	1.132888E+0	1.250141E+0	1.202890E+0	1.184356E+0	1.181094E+0	1.205811E+0	1.126904E+0	1.195639E+0	1.145395E+0	1.178478E+0	1.115469E+0	1.197956E+0	1.234982E+0	1.156964E+0	1.201820E+0	1.146166E+0	1.226128E+0	1.171128E+0	1.145995E+0	1.171792E+0	1.174316E+0	1.183353E+0	1.198742E+0	1.176643E+0	1.152551E+0	1.209192E+0	1.189028E+0	1.190286E+0	1.201472E+0	1.148687E+0	1.118957E+0	1.125995E+0	1.125179E+0	1.257069E+0	1.180114E+0	1.155273E+0	1.150759E+0	1.226252E+0
5.542530E+2	1.122631E+0	1.095621E+0	1.122055E+0	1.101623E+0	1.104950E+0	1.058054E+0	1.110393E+0	1.062260E+0	1.076570E+0	1.082998E+0	1.117066E+0	1.076475E+0	1.090441E+0	1.074626E+0	1.139656E+0	1.059152E+0	1.082244E+0	1.145479E+0	1.095392E+0	1.089808E+0	1.151708E+0	1.100253E+0	1.080318E+0	1.093764E+0	1.040535E+0	1.111892E+0	1.107252E+0	1.102785E+0	1.096263E+0	1.105989E+0	1.022519E+0	1.061189E+0	1.086432E+0	1.131153E+0	1.090201E+0	1.092207E+0	1.065621E+0	1.093640E+0	1.131075E+0	1.087538E+0	1.094476E+0	1.085477E+0	1.106759E+0	1.086670E+0	1.129285E+0	1.059944E+0	1.064498E+0	1.132213E+0	1.097238E+0	1.123878E+0	1.073524E+0	1.112312E+0	1.108898E+0	1.110337E+0	1.132589E+0	1.102388E+0	1.138634E+0	1.165523E+0	1.108636E+0	1.100036E+0	1.090259E+0	1.123193E+0	1.116933E+0	1.110584E+0	1.113002E+0	1.120453E+0	1.081454E+0	1.038995E+0	1.070879E+0	1.097756E+0	1.097516E+0	1.144996E+0	1.071714E+0	1.080455E+0	1.094755E+0	1.077228E+0	1.126855E+0	1.111545E+0	1.071968E+0	1.110885E+0	1.073211E+0	1.113325E+0	1.110277E+0	1.106410E+0	1.126903E+0	1.034105E+0	1.097861E+0	1.067021E+0	1.090150E+0	1.071834E+0	1.086542E+0	1.125136E+0	1.112430E+0	1.145756E+0	1.019091E+0	1.104017E+0	1.112661E+0	1.060312E+0	1.092785E+0	1.143111E+0	1.105160E+0	1.118505E+0	1.128013E+0	1.107614E+0	1.078179E+0	1.028808E+0	1.079158E+0	1.073466E+0	1.080533E+0	1.066151E+0	1.081541E+0	1.072387E+0	1.108971E+0	1.054441E+0	1.075030E+0	1.078599E+0	1.073293E+0	1.076050E+0	1.100501E+0	1.115858E+0	1.134540E+0	1.099611E+0	1.107001E+0	1.109579E+0	1.124729E+0	1.086109E+0	1.071554E+0	1.108373E+0	1.069077E+0	1.068052E+0	1.072544E+0	1.061873E+0	1.090165E+0	1.110394E+0	1.102782E+0	1.098273E+0	1.121230E+0	1.079330E+0	1.066273E+0	1.084920E+0	1.108893E+0	1.047088E+0	1.089340E+0	1.086305E+0	1.069416E+0	1.078753E+0	1.111369E+0	1.082632E+0	1.102100E+0	1.050510E+0	1.111724E+0	1.165808E+0	1.138216E+0	1.115843E+0	1.139369E+0	1.098993E+0	1.085842E+0	1.022364E+0	1.112430E+0	1.064546E+0	1.054107E+0	1.047695E+0	1.119521E+0	1.114041E+0	1.097216E+0	1.072641E+0	1.104850E+0	9.974210E-1	1.087241E+0
5.550190E+2	1.016857E+0	9.996457E-1	1.004405E+0	9.787965E-1	9.924394E-1	9.941642E-1	1.029615E+0	1.035089E+0	1.023774E+0	9.683097E-1	1.024355E+0	9.962872E-1	1.055645E+0	1.032230E+0	1.013705E+0	1.002580E+0	9.975803E-1	1.028509E+0	1.020829E+0	1.038286E+0	9.856729E-1	1.030445E+0	1.038982E+0	1.005719E+0	1.008715E+0	1.012472E+0	1.018320E+0	9.766659E-1	1.042815E+0	1.017604E+0	1.012053E+0	9.951782E-1	1.007547E+0	1.040166E+0	9.782258E-1	1.013618E+0	1.018652E+0	1.015514E+0	1.007534E+0	1.027188E+0	9.995581E-1	9.588514E-1	1.069918E+0	9.771368E-1	1.058563E+0	1.052058E+0	1.028651E+0	9.858547E-1	1.060498E+0	1.091173E+0	1.009981E+0	1.000435E+0	1.024333E+0	1.007166E+0	1.037162E+0	1.018381E+0	1.011366E+0	1.055129E+0	1.039785E+0	1.027499E+0	1.055430E+0	1.039414E+0	1.013885E+0	1.007278E+0	1.062093E+0	1.070075E+0	9.987720E-1	9.357939E-1	1.044384E+0	1.040204E+0	1.007207E+0	1.008136E+0	1.000352E+0	1.023230E+0	1.046411E+0	1.018697E+0	1.075503E+0	1.025458E+0	1.078230E+0	9.835763E-1	1.009837E+0	1.032350E+0	1.025666E+0	1.029244E+0	1.026207E+0	1.082203E+0	1.023889E+0	9.794878E-1	1.034465E+0	9.933941E-1	1.047465E+0	1.056405E+0	1.070952E+0	1.019826E+0	1.068373E+0	1.007326E+0	9.945948E-1	1.040050E+0	1.053410E+0	9.696873E-1	1.039884E+0	9.914655E-1	9.621764E-1	1.043972E+0	1.005939E+0	9.913341E-1	1.060508E+0	1.092265E+0	1.077166E+0	9.896964E-1	9.936556E-1	1.028246E+0	1.012732E+0	1.047240E+0	1.037113E+0	1.034210E+0	1.005056E+0	1.011496E+0	1.033752E+0	1.058524E+0	1.073075E+0	1.031548E+0	1.025372E+0	9.958893E-1	1.036189E+0	1.056461E+0	9.538750E-1	1.082533E+0	1.061922E+0	1.016807E+0	1.029564E+0	1.015220E+0	9.802806E-1	1.005513E+0	1.008435E+0	9.691641E-1	1.114024E+0	1.002390E+0	1.008547E+0	1.023414E+0	1.052411E+0	9.943964E-1	1.020577E+0	1.038361E+0	9.781298E-1	1.018251E+0	1.035669E+0	1.018487E+0	1.004793E+0	9.826002E-1	1.008297E+0	1.036497E+0	9.889907E-1	1.033847E+0	1.030829E+0	1.004526E+0	9.979828E-1	1.058976E+0	1.073201E+0	1.015707E+0	1.063239E+0	1.027531E+0	1.004075E+0	9.943683E-1	1.043696E+0	1.042438E+0	1.002494E+0	9.870709E-1	1.024194E+0
5.557710E+2	9.803972E-1	9.701202E-1	9.253547E-1	9.694772E-1	9.316036E-1	9.613228E-1	9.433283E-1	9.471964E-1	9.572516E-1	9.423384E-1	9.360348E-1	9.415046E-1	9.748335E-1	9.623348E-1	9.866137E-1	9.304073E-1	9.759575E-1	9.568885E-1	9.446758E-1	9.925904E-1	1.025598E+0	9.694130E-1	9.805005E-1	9.524724E-1	9.508841E-1	9.974780E-1	9.859291E-1	9.043380E-1	9.529791E-1	9.438840E-1	9.220122E-1	9.341047E-1	1.022313E+0	9.804062E-1	9.563317E-1	9.970597E-1	9.704295E-1	9.726998E-1	9.762888E-1	9.778713E-1	9.738371E-1	9.584677E-1	9.746426E-1	9.355863E-1	9.925295E-1	9.424952E-1	9.998504E-1	9.526764E-1	1.030436E+0	9.635046E-1	9.944183E-1	9.469562E-1	9.681651E-1	9.560373E-1	9.484168E-1	9.541575E-1	1.032313E+0	9.362137E-1	9.705799E-1	1.008968E+0	9.568043E-1	9.607222E-1	9.621871E-1	9.735442E-1	1.011586E+0	1.021876E+0	9.694925E-1	9.129358E-1	9.665746E-1	9.744048E-1	9.730831E-1	9.515395E-1	9.661771E-1	9.628722E-1	9.256366E-1	9.876432E-1	9.732243E-1	9.675854E-1	9.922628E-1	9.691624E-1	9.879944E-1	9.561697E-1	9.893504E-1	1.003133E+0	9.823077E-1	9.276846E-1	1.004391E+0	9.183793E-1	9.562644E-1	9.482043E-1	9.770522E-1	1.000526E+0	9.946113E-1	1.021152E+0	9.581919E-1	1.029757E+0	9.854983E-1	9.424760E-1	9.764855E-1	9.118775E-1	9.489662E-1	9.459377E-1	9.811763E-1	9.632251E-1	9.937096E-1	9.477383E-1	9.889406E-1	1.002355E+0	1.002011E+0	9.554742E-1	9.662227E-1	9.398980E-1	9.740998E-1	9.508794E-1	9.884471E-1	9.503321E-1	1.019842E+0	9.452214E-1	1.008335E+0	9.269730E-1	9.982614E-1	9.775611E-1	9.376564E-1	9.233222E-1	1.012275E+0	9.487615E-1	9.771446E-1	1.013026E+0	9.997323E-1	9.521867E-1	1.026517E+0	9.735212E-1	8.982213E-1	1.016778E+0	9.436125E-1	1.003931E+0	9.381513E-1	9.362656E-1	9.749109E-1	9.410571E-1	1.007654E+0	9.469868E-1	1.022546E+0	1.022673E+0	9.573938E-1	9.536399E-1	9.625301E-1	9.986147E-1	1.007246E+0	9.404423E-1	9.784985E-1	9.945613E-1	9.780013E-1	9.645700E-1	9.530808E-1	9.603707E-1	9.662421E-1	9.582027E-1	9.588801E-1	9.832217E-1	9.573664E-1	9.785459E-1	1.003288E+0	9.590636E-1	9.931153E-1	1.033572E+0	9.920776E-1	9.570676E-1	9.773617E-1
5.560130E+2	9.274904E-1	9.183402E-1	9.638027E-1	9.470363E-1	9.345499E-1	9.644284E-1	9.801953E-1	9.535638E-1	9.347220E-1	9.853502E-1	9.976778E-1	9.629601E-1	9.928664E-1	9.970867E-1	9.379423E-1	9.417904E-1	9.459350E-1	9.394373E-1	9.380247E-1	9.516928E-1	9.991076E-1	9.419625E-1	9.636489E-1	9.364348E-1	9.150537E-1	9.544580E-1	9.525644E-1	9.398047E-1	9.237356E-1	9.553729E-1	1.001056E+0	9.260169E-1	9.899929E-1	1.007573E+0	9.475193E-1	9.128007E-1	9.721044E-1	9.671593E-1	9.845287E-1	9.370399E-1	9.633524E-1	9.729268E-1	9.617058E-1	9.531345E-1	9.401325E-1	9.635937E-1	9.778645E-1	9.726569E-1	9.154115E-1	9.205150E-1	9.584429E-1	9.633082E-1	9.178878E-1	9.790072E-1	9.719741E-1	1.003487E+0	1.008487E+0	9.800650E-1	9.378416E-1	9.383837E-1	9.681589E-1	9.475180E-1	9.754964E-1	9.455130E-1	9.634605E-1	1.009835E+0	9.645142E-1	8.762991E-1	9.401225E-1	9.898621E-1	9.705904E-1	1.006950E+0	9.639048E-1	9.626380E-1	9.543484E-1	9.212026E-1	1.009006E+0	9.532547E-1	9.825486E-1	9.282463E-1	9.821947E-1	9.859393E-1	9.302115E-1	9.605764E-1	9.315593E-1	9.569570E-1	9.981368E-1	9.331612E-1	9.730340E-1	9.344688E-1	9.742996E-1	9.845558E-1	1.011683E+0	9.423914E-1	9.615520E-1	9.058099E-1	9.226108E-1	9.578184E-1	9.300105E-1	9.632798E-1	9.972263E-1	9.476989E-1	9.748127E-1	9.428312E-1	9.508283E-1	9.742522E-1	9.726018E-1	9.519521E-1	9.580716E-1	8.955666E-1	9.606231E-1	9.542256E-1	9.472895E-1	9.456234E-1	9.431554E-1	9.085162E-1	9.359313E-1	9.481204E-1	9.638446E-1	9.346450E-1	1.006422E+0	9.154205E-1	9.513775E-1	9.671390E-1	9.822184E-1	9.338497E-1	9.890136E-1	9.208237E-1	9.669453E-1	9.426754E-1	9.389664E-1	9.791467E-1	9.410371E-1	9.277967E-1	9.353278E-1	9.062639E-1	1.015827E+0	9.883875E-1	1.000301E+0	9.852681E-1	1.009849E+0	9.036073E-1	9.871657E-1	9.545333E-1	9.697278E-1	9.598546E-1	9.443684E-1	9.654400E-1	1.003405E+0	9.556247E-1	9.408598E-1	9.956215E-1	9.620801E-1	9.357308E-1	9.950618E-1	8.854121E-1	9.522852E-1	9.313718E-1	9.882290E-1	9.637159E-1	9.536438E-1	9.336547E-1	9.840833E-1	8.769346E-1	9.523118E-1	9.714581E-1	1.006519E+0	9.406801E-1	1.009267E+0
5.565090E+2	9.532787E-1	9.568474E-1	9.741569E-1	9.484872E-1	9.766903E-1	9.725583E-1	9.738596E-1	9.633137E-1	9.317247E-1	9.497972E-1	9.466758E-1	9.735244E-1	9.902536E-1	9.357886E-1	9.974327E-1	9.975695E-1	9.431903E-1	9.666803E-1	9.696901E-1	9.829559E-1	9.404129E-1	9.465025E-1	9.897496E-1	9.671303E-1	9.645796E-1	9.870140E-1	9.571280E-1	9.367329E-1	9.900673E-1	9.431771E-1	9.531842E-1	9.620297E-1	9.883366E-1	9.174196E-1	9.749186E-1	9.431674E-1	9.796503E-1	9.780463E-1	9.702711E-1	9.623345E-1	9.805005E-1	9.634697E-1	9.989133E-1	1.001842E+0	9.996596E-1	1.018261E+0	9.656272E-1	9.624466E-1	9.400191E-1	9.537239E-1	1.008644E+0	9.631919E-1	9.797004E-1	9.709908E-1	9.747702E-1	9.710564E-1	9.885013E-1	9.792246E-1	1.005404E+0	9.065009E-1	9.713053E-1	9.462066E-1	9.667593E-1	9.416549E-1	9.722436E-1	9.623515E-1	9.291480E-1	9.401594E-1	9.892028E-1	9.868802E-1	9.348443E-1	1.017356E+0	9.768333E-1	9.824947E-1	1.014322E+0	9.407471E-1	1.016793E+0	9.401029E-1	9.482814E-1	9.200186E-1	9.691586E-1	9.674235E-1	9.496280E-1	9.452564E-1	9.355199E-1	9.385109E-1	9.564875E-1	9.234344E-1	9.569266E-1	9.020527E-1	1.000780E+0	9.386847E-1	9.652749E-1	9.710399E-1	9.468637E-1	9.674106E-1	1.028421E+0	9.523917E-1	9.665953E-1	9.871661E-1	9.720996E-1	9.739789E-1	9.407231E-1	9.644719E-1	9.763634E-1	9.559070E-1	9.461675E-1	9.856883E-1	9.500167E-1	9.383728E-1	9.754994E-1	9.415836E-1	9.776724E-1	9.873194E-1	9.367379E-1	9.801006E-1	9.885241E-1	9.498698E-1	9.339188E-1	9.562271E-1	1.000819E+0	9.253890E-1	9.748027E-1	9.700135E-1	9.427259E-1	9.644062E-1	9.983136E-1	9.766541E-1	1.001849E+0	9.541374E-1	9.977442E-1	9.885911E-1	9.377871E-1	9.694933E-1	9.628813E-1	9.349366E-1	9.323743E-1	9.676676E-1	9.794640E-1	9.436239E-1	1.008144E+0	9.046132E-1	9.974414E-1	9.880311E-1	9.619590E-1	9.300936E-1	8.956479E-1	1.005256E+0	9.899083E-1	9.681273E-1	9.425052E-1	9.474231E-1	9.961289E-1	1.020529E+0	9.659501E-1	9.227796E-1	9.907968E-1	9.570354E-1	1.002437E+0	9.601076E-1	9.246971E-1	9.257964E-1	1.000623E+0	9.459497E-1	9.138648E-1	9.923039E-1	9.822229E-1	9.711838E-1	9.184629E-1
5.570100E+2	9.764454E-1	9.996079E-1	1.031119E+0	9.845853E-1	1.017113E+0	9.751022E-1	9.861951E-1	9.651114E-1	9.882670E-1	1.035127E+0	9.912917E-1	9.521178E-1	9.956479E-1	9.915916E-1	9.583708E-1	9.885524E-1	1.027467E+0	1.034952E+0	9.407729E-1	9.695621E-1	1.007538E+0	9.334662E-1	9.752106E-1	9.983679E-1	9.781612E-1	9.896376E-1	1.034931E+0	9.718590E-1	9.948840E-1	9.267827E-1	9.428508E-1	1.017235E+0	9.471036E-1	9.669010E-1	9.545270E-1	9.923102E-1	9.852726E-1	9.513067E-1	1.029218E+0	1.017087E+0	9.884344E-1	9.768765E-1	1.043632E+0	1.009321E+0	1.051102E+0	9.222984E-1	9.492033E-1	9.989333E-1	1.070957E+0	1.006227E+0	9.675285E-1	9.851947E-1	1.020578E+0	1.029491E+0	1.036394E+0	1.012278E+0	9.838947E-1	1.041254E+0	9.719858E-1	9.850237E-1	9.904617E-1	9.886502E-1	9.661101E-1	9.867765E-1	9.982824E-1	9.974905E-1	9.805744E-1	1.028890E+0	9.874586E-1	1.021928E+0	9.601251E-1	1.021975E+0	9.919645E-1	1.005553E+0	1.004468E+0	1.028465E+0	9.503263E-1	9.826574E-1	9.799033E-1	9.589123E-1	9.626334E-1	1.041867E+0	1.043003E+0	9.643468E-1	9.719394E-1	1.035162E+0	9.925189E-1	9.847365E-1	9.829868E-1	9.744428E-1	9.997163E-1	1.020317E+0	1.015867E+0	1.044236E+0	1.017544E+0	1.022784E+0	1.060310E+0	9.691581E-1	1.007434E+0	1.017554E+0	1.023311E+0	1.011725E+0	9.528275E-1	9.966346E-1	9.672723E-1	9.597035E-1	1.002213E+0	9.978573E-1	9.940809E-1	9.657363E-1	9.762160E-1	9.693287E-1	9.913534E-1	9.889421E-1	9.682331E-1	9.939795E-1	9.758636E-1	9.960213E-1	9.766439E-1	1.040910E+0	9.664871E-1	9.914317E-1	9.775998E-1	1.032740E+0	9.646523E-1	9.920103E-1	9.404622E-1	1.024595E+0	1.009452E+0	1.004524E+0	1.020094E+0	1.028166E+0	9.923018E-1	9.815530E-1	9.996550E-1	9.673433E-1	9.893623E-1	9.932879E-1	1.004070E+0	9.819865E-1	1.060287E+0	9.338714E-1	9.512804E-1	9.621354E-1	9.884087E-1	9.648942E-1	1.049903E+0	1.053001E+0	9.728251E-1	9.907057E-1	1.029746E+0	1.021457E+0	9.927734E-1	9.680554E-1	1.010425E+0	1.004657E+0	9.593772E-1	1.010133E+0	1.061079E+0	1.010799E+0	9.713906E-1	9.243726E-1	9.671184E-1	9.881393E-1	1.007418E+0	9.599718E-1	9.767581E-1	1.027885E+0	9.829958E-1
5.575250E+2	9.768320E-1	1.007893E+0	9.947269E-1	9.716994E-1	9.502846E-1	9.846707E-1	1.002707E+0	9.714692E-1	1.001255E+0	9.915198E-1	1.003925E+0	1.009180E+0	9.889088E-1	9.752668E-1	1.002765E+0	9.421433E-1	1.009839E+0	9.764230E-1	9.966922E-1	9.923488E-1	1.000412E+0	1.030208E+0	1.019660E+0	9.655547E-1	9.005513E-1	9.838681E-1	9.749712E-1	9.658306E-1	1.015975E+0	1.004663E+0	1.029975E+0	1.040422E+0	9.929677E-1	9.865686E-1	9.852398E-1	9.639441E-1	1.019837E+0	9.976717E-1	9.820697E-1	9.628471E-1	9.402702E-1	1.003110E+0	9.779512E-1	9.215767E-1	9.764141E-1	1.007580E+0	9.226335E-1	9.628282E-1	9.555292E-1	1.012809E+0	9.546372E-1	9.951964E-1	9.830487E-1	1.005728E+0	9.806384E-1	9.799894E-1	1.007448E+0	1.009737E+0	1.023571E+0	1.012453E+0	9.230497E-1	9.499793E-1	1.031557E+0	9.699132E-1	1.015217E+0	1.002021E+0	9.779216E-1	9.594054E-1	9.507830E-1	9.641088E-1	1.027260E+0	9.854767E-1	1.019465E+0	9.750276E-1	1.003823E+0	1.055939E+0	9.888227E-1	9.788520E-1	9.878597E-1	9.674631E-1	9.724288E-1	1.008542E+0	9.832095E-1	1.024566E+0	9.797389E-1	9.628862E-1	9.800191E-1	9.405402E-1	1.003546E+0	9.551922E-1	9.601024E-1	9.663330E-1	9.918108E-1	1.004090E+0	9.786960E-1	9.659868E-1	9.678823E-1	9.880008E-1	1.057411E+0	1.008989E+0	1.026237E+0	9.948152E-1	1.013550E+0	9.577038E-1	9.718781E-1	9.622643E-1	9.960538E-1	9.611297E-1	9.709440E-1	9.797833E-1	9.870114E-1	9.501568E-1	9.638771E-1	9.716894E-1	1.023512E+0	1.029169E+0	9.725388E-1	1.048332E+0	9.877829E-1	1.004089E+0	1.043589E+0	1.008932E+0	9.990655E-1	9.642376E-1	1.021872E+0	9.732153E-1	1.000957E+0	9.998199E-1	1.018384E+0	1.025026E+0	9.458616E-1	9.968157E-1	9.211007E-1	9.735131E-1	9.939047E-1	9.719751E-1	9.454689E-1	9.418265E-1	9.701214E-1	9.938374E-1	1.028349E+0	9.926152E-1	1.020759E+0	1.032696E+0	9.281507E-1	9.656867E-1	9.802254E-1	1.046302E+0	1.006712E+0	9.542913E-1	9.884865E-1	1.004946E+0	9.909008E-1	9.558555E-1	9.725451E-1	9.960408E-1	9.637846E-1	1.018156E+0	1.046759E+0	1.007989E+0	9.687129E-1	9.735726E-1	9.656039E-1	9.647953E-1	9.687771E-1	9.890012E-1	9.897363E-1	1.020119E+0	9.597963E-1
5.580110E+2	1.022352E+0	1.020860E+0	1.010755E+0	1.021821E+0	1.059658E+0	9.931978E-1	9.827183E-1	9.689201E-1	9.909131E-1	9.991422E-1	1.044287E+0	1.037101E+0	1.010517E+0	1.049010E+0	1.025227E+0	1.043843E+0	9.813265E-1	1.011499E+0	9.957036E-1	9.784495E-1	1.018821E+0	9.696189E-1	9.689657E-1	9.567047E-1	9.820567E-1	9.698027E-1	9.958498E-1	1.001605E+0	1.034212E+0	1.027653E+0	1.007161E+0	9.818467E-1	1.028418E+0	1.018226E+0	9.758285E-1	9.561742E-1	1.019833E+0	9.963040E-1	1.021780E+0	1.069524E+0	9.991875E-1	9.492969E-1	1.016515E+0	1.034196E+0	1.022133E+0	1.062003E+0	1.032451E+0	9.921073E-1	1.038924E+0	1.022873E+0	1.069574E+0	1.030210E+0	1.010422E+0	1.020877E+0	1.014482E+0	9.998236E-1	1.033374E+0	1.000555E+0	9.916265E-1	9.842791E-1	1.007288E+0	1.000604E+0	9.856648E-1	9.910213E-1	9.926455E-1	9.589146E-1	1.038309E+0	9.901686E-1	1.019459E+0	1.004414E+0	1.012464E+0	1.002610E+0	1.019392E+0	1.057042E+0	9.931678E-1	1.043857E+0	1.022415E+0	1.004522E+0	1.014768E+0	1.018880E+0	1.024938E+0	9.753251E-1	1.018404E+0	1.012299E+0	1.019899E+0	1.018404E+0	9.937318E-1	1.010553E+0	1.012938E+0	1.011732E+0	1.011241E+0	1.039572E+0	1.009756E+0	1.029158E+0	9.844542E-1	9.933864E-1	9.955398E-1	1.051611E+0	1.047436E+0	1.039471E+0	1.017662E+0	1.007854E+0	1.012688E+0	9.880449E-1	1.009074E+0	1.008837E+0	1.033207E+0	9.820879E-1	1.032867E+0	1.002904E+0	9.798868E-1	1.016975E+0	9.805714E-1	9.874201E-1	1.036384E+0	1.008443E+0	9.860392E-1	9.911510E-1	1.047654E+0	9.958347E-1	1.001702E+0	9.816893E-1	9.909457E-1	1.000992E+0	1.003693E+0	1.013637E+0	9.980582E-1	1.079220E+0	1.021325E+0	9.749537E-1	1.024162E+0	9.877321E-1	9.937144E-1	1.001790E+0	1.035299E+0	9.940598E-1	9.716626E-1	1.031175E+0	1.068838E+0	9.966442E-1	1.048677E+0	9.991020E-1	9.509995E-1	1.025215E+0	1.008723E+0	9.995834E-1	9.899684E-1	1.009002E+0	1.009488E+0	9.969565E-1	1.014927E+0	1.040393E+0	1.029427E+0	1.025842E+0	9.960729E-1	9.851756E-1	1.009505E+0	1.000086E+0	1.000849E+0	1.032947E+0	9.911823E-1	9.849846E-1	1.006988E+0	1.007048E+0	9.669969E-1	1.042816E+0	1.048184E+0	1.006618E+0	1.014618E+0
5.585100E+2	9.821713E-1	1.006017E+0	1.005425E+0	1.009138E+0	1.009276E+0	1.060787E+0	9.803933E-1	1.018999E+0	1.084823E+0	1.059015E+0	9.778409E-1	1.037588E+0	1.023587E+0	1.034401E+0	1.007701E+0	1.031068E+0	1.008673E+0	1.017802E+0	9.886483E-1	9.831839E-1	1.003111E+0	1.033168E+0	1.018609E+0	1.023369E+0	1.014198E+0	1.061112E+0	1.021567E+0	1.011227E+0	1.041158E+0	1.005246E+0	9.950381E-1	1.046626E+0	1.001835E+0	1.000118E+0	1.005605E+0	1.012661E+0	1.020727E+0	1.023566E+0	9.753870E-1	1.021604E+0	1.024470E+0	1.043522E+0	1.050979E+0	1.044559E+0	1.041010E+0	1.008246E+0	1.009618E+0	1.052731E+0	1.031131E+0	1.068963E+0	9.958907E-1	9.769288E-1	1.019898E+0	1.055993E+0	1.013475E+0	9.937044E-1	1.018355E+0	1.051930E+0	1.029937E+0	9.806371E-1	1.040544E+0	1.016334E+0	1.028363E+0	1.032265E+0	1.031470E+0	1.035718E+0	1.022981E+0	1.018874E+0	1.037064E+0	1.034206E+0	1.045478E+0	1.007204E+0	9.952862E-1	1.069402E+0	1.024529E+0	1.028953E+0	9.988186E-1	1.048997E+0	1.032579E+0	1.007393E+0	1.001522E+0	1.031153E+0	1.046593E+0	1.025858E+0	1.012823E+0	1.043533E+0	1.007299E+0	1.004430E+0	1.037698E+0	9.983342E-1	9.931647E-1	1.014235E+0	1.017006E+0	1.021900E+0	1.006392E+0	1.070241E+0	1.036083E+0	1.018717E+0	1.035088E+0	1.001808E+0	1.039873E+0	9.750482E-1	1.068796E+0	1.012336E+0	1.037509E+0	9.839103E-1	1.040607E+0	1.012067E+0	1.012207E+0	1.035134E+0	1.030750E+0	1.074474E+0	1.015192E+0	1.027250E+0	1.040627E+0	9.929276E-1	1.051378E+0	1.005602E+0	1.052601E+0	1.019215E+0	1.057257E+0	1.033682E+0	1.036496E+0	1.047381E+0	1.010432E+0	1.024345E+0	9.894208E-1	1.009483E+0	1.034843E+0	1.000515E+0	1.030588E+0	9.819664E-1	1.023068E+0	1.042411E+0	1.012605E+0	1.014524E+0	1.071611E+0	1.009257E+0	9.923081E-1	1.002094E+0	1.026529E+0	1.040295E+0	1.052595E+0	9.991982E-1	1.020640E+0	1.034326E+0	1.099448E+0	1.077679E+0	9.948848E-1	9.979252E-1	1.049930E+0	9.719350E-1	1.030741E+0	1.028648E+0	1.057336E+0	1.031046E+0	9.897765E-1	9.949566E-1	1.027028E+0	1.023820E+0	1.052796E+0	1.066802E+0	1.011140E+0	1.001011E+0	1.014682E+0	1.018837E+0	9.967780E-1	1.041366E+0	9.519136E-1
5.590100E+2	1.037607E+0	1.016600E+0	1.009500E+0	1.013377E+0	9.643375E-1	9.777498E-1	1.035410E+0	9.992453E-1	1.010134E+0	1.049056E+0	1.044327E+0	1.005233E+0	1.033440E+0	1.028694E+0	9.918967E-1	1.004602E+0	1.046688E+0	1.011633E+0	1.010957E+0	1.051147E+0	1.002258E+0	1.041847E+0	1.003970E+0	1.004040E+0	1.012632E+0	1.010709E+0	9.947620E-1	1.003529E+0	9.787780E-1	1.042548E+0	1.022667E+0	1.001786E+0	1.016728E+0	1.064387E+0	1.043928E+0	1.019045E+0	1.014311E+0	1.012236E+0	1.017649E+0	1.009452E+0	1.043053E+0	1.022863E+0	1.012813E+0	1.000753E+0	1.021129E+0	1.061207E+0	1.002655E+0	1.034252E+0	9.751347E-1	1.047844E+0	1.042120E+0	1.018569E+0	1.038924E+0	1.048085E+0	1.083416E+0	1.018177E+0	9.867441E-1	9.942200E-1	9.961882E-1	1.050372E+0	1.008915E+0	1.030818E+0	1.039313E+0	1.005093E+0	1.063538E+0	1.042125E+0	1.007353E+0	1.023353E+0	1.021234E+0	1.018106E+0	1.031965E+0	1.021042E+0	9.639999E-1	9.823480E-1	1.002103E+0	1.018474E+0	1.059842E+0	1.022560E+0	1.032932E+0	1.022782E+0	1.020450E+0	1.023261E+0	1.016814E+0	1.034207E+0	1.035071E+0	1.008023E+0	1.040314E+0	1.025419E+0	1.002802E+0	1.047563E+0	1.002277E+0	1.008533E+0	1.056644E+0	1.030651E+0	1.061851E+0	1.029526E+0	1.065732E+0	1.008162E+0	1.053591E+0	1.007298E+0	1.006076E+0	9.680598E-1	1.044250E+0	1.040610E+0	9.482041E-1	1.012366E+0	9.975551E-1	1.021515E+0	9.788168E-1	9.989007E-1	1.022274E+0	1.009473E+0	9.912588E-1	1.031941E+0	1.059556E+0	1.004658E+0	1.006350E+0	1.008918E+0	9.877188E-1	9.976549E-1	1.020880E+0	1.038532E+0	1.029598E+0	1.016706E+0	1.011425E+0	1.027107E+0	9.946716E-1	1.029461E+0	1.006548E+0	1.015370E+0	1.023218E+0	1.034417E+0	1.003055E+0	1.003948E+0	9.784639E-1	1.060394E+0	1.032427E+0	1.049539E+0	1.007131E+0	1.010813E+0	1.002894E+0	1.001413E+0	1.046603E+0	9.894717E-1	9.895520E-1	9.913396E-1	1.017482E+0	1.027038E+0	9.995987E-1	1.035040E+0	9.806677E-1	1.035640E+0	9.520134E-1	9.934891E-1	1.037916E+0	1.011814E+0	1.073171E+0	9.667282E-1	1.033338E+0	9.642061E-1	1.012637E+0	9.917120E-1	1.032657E+0	1.049568E+0	9.990694E-1	9.729067E-1	1.031505E+0	1.020709E+0	9.783095E-1
5.595170E+2	9.337205E-1	9.842862E-1	9.885638E-1	1.002356E+0	9.856697E-1	9.902756E-1	1.007226E+0	9.745862E-1	9.933386E-1	9.854544E-1	9.441120E-1	9.633769E-1	9.996041E-1	9.752869E-1	9.936226E-1	9.437755E-1	1.013600E+0	1.021026E+0	1.021636E+0	9.625656E-1	9.681873E-1	1.008874E+0	1.012683E+0	1.002174E+0	9.952967E-1	1.001354E+0	1.012959E+0	9.694529E-1	9.766441E-1	9.819546E-1	9.637610E-1	9.841966E-1	9.815162E-1	1.008184E+0	9.961090E-1	1.037228E+0	9.438725E-1	9.594390E-1	1.015380E+0	9.798048E-1	1.013971E+0	9.996392E-1	9.918941E-1	9.886177E-1	9.539285E-1	9.728553E-1	9.793268E-1	9.637025E-1	1.010135E+0	9.532946E-1	9.510654E-1	9.779532E-1	9.734495E-1	9.464416E-1	9.770410E-1	9.956482E-1	9.839820E-1	9.763443E-1	9.461428E-1	9.694643E-1	9.982675E-1	9.948953E-1	1.014742E+0	9.763458E-1	9.623446E-1	9.765604E-1	9.807275E-1	1.001757E+0	9.929310E-1	9.809079E-1	9.743788E-1	9.730486E-1	9.953964E-1	9.680656E-1	1.018128E+0	9.698745E-1	9.334483E-1	9.770824E-1	9.632144E-1	9.839214E-1	9.717695E-1	1.037524E+0	9.819387E-1	9.569333E-1	1.000224E+0	9.717206E-1	1.024615E+0	1.028097E+0	9.710425E-1	9.817376E-1	1.004355E+0	9.651809E-1	1.022449E+0	9.865808E-1	1.013146E+0	1.013277E+0	9.643737E-1	9.670190E-1	9.392310E-1	9.817071E-1	9.827661E-1	9.805652E-1	9.366987E-1	9.947114E-1	1.008277E+0	1.014683E+0	9.742162E-1	1.015369E+0	1.024774E+0	9.985895E-1	1.008445E+0	9.992296E-1	9.890779E-1	9.561444E-1	9.315277E-1	9.875649E-1	9.793881E-1	9.701250E-1	1.004426E+0	1.019739E+0	1.006051E+0	9.870882E-1	1.002329E+0	1.009707E+0	1.009306E+0	9.871062E-1	9.968679E-1	1.003208E+0	9.723381E-1	9.959519E-1	9.824264E-1	9.942012E-1	9.900050E-1	9.852714E-1	9.894171E-1	9.897486E-1	9.902245E-1	9.647305E-1	9.445682E-1	9.986959E-1	9.930607E-1	1.032008E+0	9.873890E-1	1.010840E+0	1.019352E+0	9.995180E-1	9.853688E-1	9.890614E-1	1.037624E+0	1.015230E+0	9.915739E-1	9.841643E-1	1.041763E+0	1.015361E+0	9.586522E-1	1.010073E+0	1.004090E+0	1.009766E+0	9.964297E-1	9.805486E-1	9.885164E-1	1.055952E+0	9.730949E-1	9.486598E-1	1.016833E+0	9.870197E-1	9.939350E-1	9.869096E-1	1.023758E+0
5.600130E+2	9.725574E-1	9.698816E-1	1.010700E+0	9.824109E-1	9.761076E-1	1.000664E+0	9.975333E-1	1.005195E+0	9.637332E-1	9.603094E-1	9.934794E-1	1.001084E+0	9.798789E-1	9.609392E-1	1.017580E+0	1.002422E+0	1.005311E+0	9.652617E-1	1.035006E+0	1.007406E+0	9.879425E-1	9.814515E-1	9.813153E-1	9.996429E-1	1.009414E+0	9.617229E-1	9.519006E-1	9.697345E-1	9.403795E-1	9.861043E-1	1.005276E+0	9.916925E-1	1.026797E+0	9.619575E-1	9.939151E-1	9.608791E-1	9.724308E-1	9.915350E-1	9.613670E-1	9.690120E-1	9.802361E-1	9.689666E-1	9.621002E-1	9.834811E-1	9.878109E-1	9.899065E-1	9.727660E-1	9.919466E-1	9.622778E-1	9.456487E-1	9.560903E-1	9.556276E-1	1.023972E+0	9.625771E-1	9.740851E-1	1.002138E+0	1.000109E+0	1.001420E+0	1.004282E+0	1.013316E+0	9.876174E-1	9.906792E-1	1.003168E+0	9.915359E-1	1.006362E+0	1.039687E+0	9.716155E-1	9.618878E-1	9.804535E-1	9.929405E-1	9.566458E-1	9.936005E-1	1.013194E+0	9.805005E-1	9.810517E-1	9.586948E-1	9.675124E-1	1.009187E+0	1.023776E+0	9.886322E-1	1.018510E+0	9.640789E-1	9.656025E-1	1.017106E+0	9.825719E-1	1.009331E+0	9.905820E-1	9.479125E-1	9.789771E-1	9.960651E-1	9.888626E-1	9.547146E-1	9.611392E-1	9.773196E-1	9.698498E-1	9.654499E-1	9.731442E-1	9.752819E-1	9.339020E-1	9.595864E-1	9.942183E-1	1.020818E+0	9.852443E-1	9.785141E-1	1.007627E+0	9.994442E-1	9.756830E-1	9.921178E-1	9.889936E-1	9.706327E-1	9.560109E-1	9.593724E-1	9.894409E-1	9.706041E-1	9.793142E-1	1.027093E+0	9.767818E-1	1.004098E+0	9.438319E-1	9.788860E-1	9.565029E-1	9.759773E-1	9.862736E-1	9.714628E-1	9.628412E-1	1.005599E+0	9.978323E-1	9.794330E-1	9.911348E-1	1.001484E+0	9.830569E-1	1.023617E+0	9.842038E-1	9.941980E-1	1.004173E+0	9.354219E-1	9.767989E-1	9.880935E-1	9.970572E-1	1.023349E+0	9.810835E-1	9.550966E-1	1.003065E+0	9.888990E-1	9.606507E-1	9.794012E-1	1.000297E+0	9.336542E-1	9.777868E-1	9.956682E-1	9.642513E-1	9.935860E-1	9.495124E-1	9.829354E-1	9.871310E-1	9.860440E-1	9.849167E-1	9.775801E-1	9.748173E-1	9.980610E-1	9.875697E-1	9.568086E-1	9.544448E-1	9.754208E-1	9.924116E-1	9.646881E-1	9.410307E-1	9.828500E-1	9.991830E-1
5.605090E+2	1.022683E+0	1.021259E+0	1.005364E+0	1.005333E+0	1.049447E+0	1.032828E+0	1.028437E+0	1.032931E+0	9.555327E-1	9.769914E-1	1.002946E+0	9.917673E-1	9.880745E-1	9.838146E-1	9.738246E-1	1.015828E+0	9.908626E-1	9.830764E-1	9.839378E-1	1.014744E+0	1.042526E+0	9.674676E-1	9.832869E-1	1.041971E+0	9.995975E-1	1.023961E+0	1.044367E+0	1.027877E+0	1.021935E+0	9.967950E-1	1.004144E+0	1.044761E+0	9.409982E-1	9.649342E-1	1.029923E+0	1.031429E+0	1.064077E+0	1.024945E+0	1.024906E+0	9.822706E-1	9.986381E-1	1.001651E+0	1.017213E+0	1.000595E+0	1.004227E+0	9.755073E-1	1.013754E+0	9.525487E-1	1.009055E+0	1.038677E+0	1.028572E+0	1.050083E+0	9.836535E-1	9.773989E-1	9.628242E-1	1.008536E+0	9.745872E-1	9.895286E-1	1.028759E+0	1.020371E+0	1.011622E+0	9.723018E-1	1.001766E+0	1.044349E+0	9.836517E-1	1.033597E+0	9.840266E-1	1.032549E+0	1.004053E+0	9.743289E-1	9.912297E-1	1.004364E+0	1.015149E+0	9.504646E-1	9.895464E-1	9.767031E-1	1.038449E+0	9.995903E-1	9.826113E-1	1.011877E+0	1.004842E+0	9.697069E-1	1.004032E+0	1.011832E+0	9.687885E-1	1.001460E+0	9.905944E-1	9.924101E-1	1.015791E+0	9.861894E-1	1.001875E+0	1.040985E+0	9.470497E-1	9.888939E-1	1.003701E+0	9.764732E-1	9.567724E-1	9.726028E-1	1.024058E+0	9.915532E-1	9.923445E-1	1.034940E+0	9.711919E-1	1.043910E+0	1.003840E+0	1.012930E+0	1.005819E+0	9.589415E-1	1.002923E+0	1.021223E+0	1.008923E+0	9.635751E-1	1.038059E+0	1.012947E+0	9.966348E-1	9.931943E-1	1.004288E+0	1.028234E+0	9.816780E-1	9.788463E-1	1.007654E+0	9.797184E-1	1.001850E+0	9.487499E-1	1.020733E+0	9.667826E-1	1.019806E+0	9.793195E-1	9.784939E-1	1.000083E+0	9.580697E-1	9.675712E-1	1.023011E+0	1.012453E+0	9.669633E-1	1.031415E+0	9.582847E-1	9.832746E-1	9.942336E-1	1.009507E+0	9.884488E-1	1.004716E+0	9.962776E-1	9.588377E-1	1.011135E+0	1.030110E+0	9.742539E-1	9.906934E-1	9.655381E-1	1.024753E+0	1.004644E+0	9.671399E-1	1.039024E+0	9.811105E-1	9.779573E-1	1.005859E+0	9.742326E-1	1.023321E+0	9.941323E-1	1.029191E+0	1.006438E+0	9.904637E-1	1.019118E+0	1.039394E+0	1.034177E+0	1.011840E+0	1.001562E+0	9.840180E-1	1.040131E+0
5.610010E+2	1.028909E+0	9.810957E-1	9.696919E-1	9.655631E-1	9.555044E-1	9.444974E-1	9.682819E-1	1.000123E+0	1.001525E+0	9.700319E-1	9.930068E-1	9.638493E-1	9.648984E-1	9.678538E-1	9.901480E-1	9.584622E-1	9.535385E-1	9.897014E-1	9.641109E-1	1.002504E+0	9.771541E-1	9.975732E-1	1.031170E+0	9.720985E-1	9.868052E-1	9.713387E-1	9.785945E-1	1.016574E+0	1.006893E+0	9.596994E-1	1.001953E+0	9.490914E-1	1.003708E+0	9.821932E-1	9.546913E-1	9.825832E-1	9.647481E-1	9.919758E-1	9.835317E-1	9.683324E-1	9.404445E-1	1.014061E+0	9.484868E-1	9.477993E-1	9.697617E-1	9.302760E-1	9.894303E-1	1.012712E+0	9.733424E-1	9.227003E-1	9.566876E-1	9.906283E-1	9.496803E-1	9.886278E-1	9.746764E-1	9.819730E-1	1.002849E+0	9.860020E-1	1.003064E+0	9.815610E-1	9.457462E-1	9.943683E-1	9.269833E-1	9.593896E-1	9.599885E-1	9.133976E-1	9.949875E-1	9.714108E-1	9.448056E-1	9.950970E-1	9.878390E-1	9.981303E-1	9.975829E-1	9.921774E-1	9.914740E-1	1.003443E+0	9.795149E-1	9.380604E-1	9.501186E-1	9.665138E-1	9.579681E-1	9.989509E-1	9.666163E-1	9.417642E-1	9.806222E-1	9.475269E-1	9.528641E-1	9.911778E-1	9.807515E-1	9.783786E-1	9.982251E-1	9.767802E-1	9.859554E-1	9.654969E-1	9.606058E-1	9.516464E-1	1.008355E+0	1.006606E+0	9.666932E-1	1.018577E+0	9.670601E-1	1.012715E+0	9.811313E-1	9.418746E-1	9.854679E-1	9.678298E-1	9.729118E-1	1.017901E+0	9.594188E-1	9.726157E-1	9.937107E-1	9.769011E-1	9.963996E-1	1.013693E+0	9.559565E-1	9.861191E-1	9.957745E-1	9.918717E-1	9.820904E-1	1.009824E+0	9.499550E-1	1.003313E+0	9.525080E-1	1.005001E+0	9.815682E-1	9.754228E-1	1.003343E+0	9.198754E-1	9.953165E-1	1.011642E+0	9.984791E-1	1.010495E+0	9.829424E-1	9.599272E-1	1.013078E+0	9.744373E-1	9.989921E-1	9.739303E-1	9.958636E-1	9.588968E-1	9.593064E-1	9.673701E-1	9.630709E-1	1.027539E+0	9.899471E-1	9.657222E-1	9.331818E-1	9.728710E-1	1.015080E+0	9.344265E-1	9.940058E-1	1.007142E+0	9.575188E-1	9.726142E-1	9.849347E-1	9.699889E-1	9.643080E-1	1.027563E+0	9.734056E-1	9.712262E-1	9.608605E-1	9.532769E-1	1.002557E+0	9.788999E-1	9.758299E-1	1.001892E+0	9.870056E-1	9.775288E-1	9.920867E-1
