Photon Energy (eV)	#1	#2	#3	#4	#5	#6	#7	#8	#9	#10	#11	#12	#13	#14	#15	#16	#17	#18	#19	#20	#21	#22	#23	#24	#25	#26	#27	#28	#29	#30	#31	#32	#33	#34	#35	#36	#37	#38	#39	#40	#41	#42	#43	#44	#45	#46	#47	#48	#49	#50	#51	#52	#53	#54	#55	#56	#57	#58	#59	#60	#61	#62	#63	#64	#65	#66	#67	#68	#69	#70	#71	#72	#73	#74	#75	#76	#77	#78	#79	#80	#81	#82	#83	#84	#85	#86	#87	#88	#89	#90	#91	#92	#93	#94	#95	#96	#97	#98	#99	#100	#101	#102	#103	#104	#105	#106	#107	#108	#109	#110	#111	#112	#113	#114	#115	#116	#117	#118	#119	#120	#121	#122	#123	#124	#125	#126	#127	#128	#129	#130	#131	#132	#133	#134	#135	#136	#137	#138	#139	#140	#141	#142	#143	#144	#145	#146	#147	#148	#149	#150	#151	#152	#153	#154	#155	#156	#157	#158	#159	#160	#161	#162	#163	#164	#165	#166	#167	#168	#169	
5.300270E+2	-1.007147E-2	-1.982996E-3	-1.702629E-2	-8.964657E-3	-1.039369E-2	-7.982742E-3	-3.342268E-3	-8.779239E-3	-1.208404E-2	-1.322466E-2	-1.237820E-2	3.179741E-3	-1.467349E-2	-5.851422E-3	-1.273743E-2	-1.160889E-2	-9.608039E-3	-9.692725E-3	-1.316562E-2	-1.142868E-2	-9.832555E-3	-8.472324E-3	-4.297433E-3	-1.212030E-2	-5.730995E-3	-8.642382E-4	-1.807036E-2	3.361182E-3	-1.499407E-2	-4.016093E-3	-6.670915E-3	-5.156508E-3	-1.008588E-2	-1.660244E-2	-4.430066E-3	-1.387049E-2	-1.134418E-2	-4.484637E-3	-8.238509E-3	-1.272361E-2	-3.740575E-3	-9.302380E-3	-1.375989E-2	-1.214292E-2	-8.944150E-3	-8.416289E-3	-8.715753E-3	-3.464415E-3	-1.425111E-2	-1.716765E-2	-1.576291E-3	-1.298788E-2	-5.244609E-3	-1.082768E-2	-8.119285E-3	-5.419288E-3	-5.912218E-3	-1.356383E-2	-1.344543E-2	-1.438393E-2	-9.934930E-3	-9.065782E-3	-4.232974E-3	-7.462673E-3	-1.315907E-2	-1.566564E-2	-1.030788E-2	-4.371867E-3	-4.958944E-3	-7.488225E-3	-1.290482E-2	5.908916E-4	-4.964133E-4	9.966263E-4	-5.715563E-3	-7.630907E-3	-1.135971E-2	-4.751989E-3	-9.011492E-3	-1.441215E-2	-1.376316E-2	-1.093494E-2	-2.370574E-3	-1.167059E-2	-9.525944E-3	-3.864019E-3	-8.585141E-3	-1.985922E-3	-1.287273E-2	-1.874424E-3	-3.874193E-3	-1.333462E-2	-6.244708E-3	-1.450747E-2	-1.114440E-2	-6.438942E-3	-1.708949E-3	-1.066789E-2	-4.985177E-3	-1.607734E-2	-6.969996E-3	-8.517508E-4	4.602173E-4	-1.361524E-3	-9.895030E-3	-4.388685E-3	2.611856E-3	-1.952247E-2	-1.507444E-2	-1.177501E-2	-9.512561E-3	-1.194623E-3	-1.518702E-2	-7.689136E-3	-1.578357E-2	-1.449270E-2	-3.170765E-3	-1.522298E-4	-1.598988E-2	-8.897692E-3	-6.386405E-3	-3.623574E-3	-9.028771E-3	-5.633775E-3	-3.575307E-3	-9.959507E-3	-8.902146E-3	-5.594671E-3	-7.699653E-3	-9.275178E-3	-8.340357E-3	-1.168238E-2	-1.557363E-2	-7.412444E-3	-1.027785E-2	-1.793527E-2	-6.597064E-3	-9.427163E-3	-6.228597E-3	-7.394588E-3	-1.212763E-2	-4.498154E-3	-3.714990E-3	-6.683175E-3	-1.621547E-4	-8.976165E-3	-3.082034E-3	-1.634986E-2	-2.021831E-2	-1.718138E-3	-6.932572E-4	-4.528277E-3	-1.391818E-2	-1.731177E-2	-6.662528E-3	-5.516362E-3	-1.274695E-2	-6.795654E-3	-4.443515E-3	-7.891805E-3	-1.224639E-2	-9.072397E-3	-1.279741E-2	-1.360138E-2	-5.612065E-3	-7.724815E-3	-7.111113E-3	-1.017848E-3	-9.390367E-3
5.305230E+2	-1.628260E-2	-6.116830E-3	-8.078204E-3	-6.913515E-3	-6.274139E-3	-1.022738E-2	-1.241833E-2	-1.435036E-2	-7.554200E-3	1.698988E-3	-1.030565E-2	-5.771810E-3	-2.638548E-3	-4.151090E-3	-6.919299E-3	-6.910650E-3	-8.302697E-3	-8.410678E-3	-8.630919E-3	-1.076120E-2	9.267016E-4	-7.326525E-3	-1.291830E-2	-1.849635E-3	-5.743125E-4	-4.607423E-3	-7.423243E-3	-2.002286E-2	-2.156917E-3	-6.862861E-3	-2.485281E-3	-8.536271E-3	-7.637865E-3	-2.719130E-3	-9.446471E-3	-2.236054E-3	1.445362E-3	-2.213811E-3	-7.572327E-3	-1.323198E-2	-1.305579E-2	-6.905149E-3	-1.433100E-2	-1.014600E-2	1.338291E-3	-1.491901E-2	-8.610904E-3	-1.189034E-2	-4.262218E-3	-3.173686E-3	-1.491586E-2	-9.901128E-3	-1.336328E-2	-3.396946E-3	-1.594544E-2	-9.607582E-3	-1.267087E-2	-4.045170E-3	-8.613964E-3	-1.039094E-2	-1.435231E-2	-1.306675E-2	1.439972E-3	-1.079474E-2	-7.386562E-3	-8.263981E-3	-1.167940E-2	-1.033558E-3	-9.792917E-3	-1.452534E-2	-3.798307E-3	-6.008965E-3	-1.015811E-2	-7.543295E-3	-9.861907E-3	-3.392830E-3	-3.823661E-3	-4.082478E-3	-1.001090E-2	-8.280672E-3	-2.061556E-3	-6.313375E-3	-9.172021E-3	-1.425605E-2	-1.245979E-2	-7.959182E-3	-1.109700E-2	-5.469711E-3	-2.510261E-3	6.360286E-4	-1.432754E-2	-8.741368E-3	-1.114609E-2	-5.095905E-3	-7.124558E-3	-7.518426E-3	-1.345184E-2	-6.514149E-3	-6.353462E-3	-2.186941E-4	-2.937132E-4	-4.999077E-3	-1.263962E-2	-8.786422E-3	-7.747591E-3	-7.182030E-3	-1.093465E-2	-7.132224E-3	-9.571244E-3	-1.160701E-3	-6.507116E-3	-6.474238E-3	-8.285080E-3	-3.115597E-3	-3.787174E-3	-8.836191E-3	-5.303837E-4	-1.271387E-2	-5.630428E-3	-1.018109E-2	-1.406271E-2	-1.679656E-3	-1.160429E-2	4.275721E-3	-8.359830E-3	-2.842430E-3	-7.039181E-3	-3.567144E-3	-2.864396E-3	-6.107902E-3	-8.827765E-3	-1.305855E-2	-3.375414E-3	2.224805E-3	-1.007431E-2	-1.535281E-3	-1.277935E-2	-2.695915E-3	-1.337174E-2	-7.307389E-3	-1.390690E-2	-2.833593E-3	-3.588106E-3	-5.387733E-3	-9.593614E-3	1.959728E-4	-9.396460E-3	-1.836681E-2	2.677604E-3	-4.395331E-3	-4.218806E-3	-7.544071E-3	-6.212614E-3	-8.992146E-3	-5.720740E-3	-4.703293E-3	-2.796619E-3	-1.037486E-2	-2.688015E-2	3.312366E-4	-7.726207E-4	-3.453343E-3	-8.957168E-3	-3.764672E-3	-7.800285E-3	-1.171068E-2	-1.676890E-2	-8.803492E-3	2.105030E-3
5.310100E+2	-6.912793E-3	-2.552675E-3	-5.954484E-3	-3.111350E-4	-2.754946E-3	7.184537E-3	-1.332342E-2	1.324642E-3	-8.286274E-3	-6.418355E-3	-1.572208E-2	-1.175521E-2	8.330420E-4	-4.678199E-3	-1.110313E-3	-1.052633E-2	-7.785643E-3	-2.965433E-3	1.540966E-3	-7.606586E-3	-4.682823E-3	-3.922926E-3	-4.183119E-3	-3.786177E-3	-8.354726E-3	-5.372628E-3	-9.374875E-3	-3.572320E-3	4.161198E-3	-6.927409E-3	-1.280029E-2	-5.119118E-3	-4.184265E-3	-9.076196E-3	-9.537285E-3	-1.642030E-3	-1.238828E-2	-1.444282E-2	-1.182413E-2	4.131154E-3	-6.925971E-3	-1.453021E-2	1.571980E-4	-3.725924E-3	-6.090484E-3	-3.364128E-3	-3.816594E-3	-6.216483E-3	-1.161182E-3	-9.330819E-3	1.069244E-3	-3.118113E-4	-6.729504E-3	-5.640998E-3	-7.500022E-3	-3.576446E-3	-7.223963E-3	-6.060064E-3	-7.387983E-3	3.259394E-3	-1.361663E-3	-4.315397E-3	-8.615799E-3	-5.067796E-3	-1.321410E-2	2.227376E-3	-2.432769E-3	-1.170291E-2	-7.015893E-3	-1.125999E-2	-5.663708E-3	-7.254220E-3	-5.335197E-3	-9.497899E-3	-1.055478E-2	5.795392E-5	-9.627158E-3	-5.906490E-3	-2.897112E-3	-1.081581E-2	-4.230203E-3	-5.750716E-3	-3.582559E-3	1.742343E-3	-4.687285E-3	-6.791649E-3	-4.653992E-3	-7.867628E-3	-1.161214E-2	-3.010803E-3	-7.695923E-3	-1.353306E-2	-6.198809E-3	-5.875332E-3	-4.581174E-3	-8.151490E-3	-3.782445E-3	-3.037556E-3	-1.012792E-2	-1.001942E-2	-1.357824E-2	-1.115881E-2	-7.680681E-3	-8.197573E-3	-8.697471E-4	3.284459E-3	-6.430122E-3	-9.329156E-3	-9.018947E-3	-5.856201E-3	-1.008242E-2	-9.529377E-3	6.173615E-3	-5.897546E-3	-6.497813E-3	-1.114789E-2	-8.903938E-3	-3.641430E-3	-2.397185E-3	-5.401060E-5	-3.805396E-3	-1.486281E-2	-4.369832E-3	-1.093432E-2	-1.026578E-2	-7.516302E-3	-1.736740E-2	-1.531511E-2	-9.105052E-3	-7.332483E-3	-3.527517E-3	-1.032278E-2	-3.908857E-3	-2.867616E-3	-3.210467E-3	-6.372441E-3	-1.087370E-2	8.798783E-3	-8.385356E-3	-1.143681E-2	-5.767131E-3	-1.122011E-2	-6.938899E-3	-6.045721E-3	-1.679341E-2	3.458160E-3	-6.274496E-4	-2.340635E-3	-8.444212E-3	-1.453529E-2	-1.261790E-2	-6.935691E-3	-7.479605E-3	-4.017443E-3	-1.405761E-2	-1.262756E-2	-1.082950E-2	-7.850420E-3	-1.656558E-3	-3.378568E-3	-7.093346E-3	-1.178466E-3	-1.278242E-2	-5.219938E-3	-8.910146E-3	-1.478735E-3	-1.076119E-2	-4.966904E-3	-9.854561E-3
5.315080E+2	-4.319633E-3	-6.891122E-4	-6.862420E-4	-3.407600E-4	-3.944636E-3	-5.052210E-3	2.840798E-4	-5.630441E-3	-1.141311E-3	-6.393151E-3	4.559756E-3	-8.466141E-3	1.487171E-3	-4.659745E-3	2.780311E-3	7.239965E-3	-7.123843E-3	-4.782747E-3	-1.487174E-2	-4.355878E-3	-7.620460E-5	-2.147123E-3	2.363265E-3	-8.997168E-3	-7.673615E-3	-7.224587E-3	8.403686E-3	-1.598976E-3	-2.616819E-3	9.763161E-4	-4.400850E-3	-3.888177E-3	-2.891562E-3	2.439199E-3	-4.318986E-3	-2.987693E-3	-5.824638E-3	-4.616278E-4	1.174664E-2	-1.028542E-2	-1.000828E-2	-1.660541E-3	-5.491549E-3	-2.371940E-3	-5.422249E-3	1.728354E-3	-1.124964E-2	-4.441207E-3	-4.263640E-3	-6.143209E-3	-1.049424E-2	-5.694209E-3	-8.895703E-3	-1.018613E-2	-7.454048E-3	6.962296E-3	6.759381E-3	1.114054E-3	7.312677E-3	-5.737914E-4	-1.098279E-2	-7.181467E-4	-7.942531E-3	8.247240E-3	-7.385709E-3	-2.685323E-3	4.194517E-3	-5.027346E-3	-7.518528E-3	-9.720753E-5	-6.233463E-3	-8.441551E-3	2.728900E-4	-5.633192E-3	-1.333240E-3	-1.305305E-3	-8.392512E-4	-8.280083E-3	4.414139E-4	3.170255E-4	2.759543E-3	5.857957E-3	-5.442013E-3	-1.705708E-2	-1.012447E-2	-7.353273E-3	-4.608104E-3	-1.188242E-3	-4.111366E-3	-4.813312E-3	7.604106E-3	8.882867E-3	-1.734976E-3	4.330871E-3	-3.203544E-3	1.830506E-3	-5.859496E-3	-1.807099E-3	-2.085681E-3	-1.616749E-3	4.543727E-4	-1.921094E-3	-3.181691E-3	-4.347500E-3	1.988758E-3	-1.241359E-2	-3.754433E-3	-8.602132E-3	-5.913437E-3	7.700380E-5	-4.687748E-3	1.393415E-3	-3.496231E-3	4.184924E-4	9.419397E-4	-1.171569E-3	1.508734E-3	-8.946646E-3	-1.705600E-3	-1.857050E-5	4.084551E-3	-3.492734E-3	1.029732E-3	5.730728E-3	-4.063837E-3	-2.118078E-3	-2.186697E-3	-5.433965E-3	-6.315559E-3	-2.315897E-3	-2.137243E-3	-6.887558E-4	-5.625516E-3	-1.153037E-2	3.803861E-3	-1.063242E-2	4.015651E-3	-1.168555E-2	-8.361164E-3	1.435881E-3	-2.880174E-5	-1.614386E-3	-8.873970E-3	-6.013631E-3	-2.589425E-3	-7.093412E-3	-5.029865E-3	5.271063E-4	-1.059842E-3	-4.641781E-3	-4.837349E-3	-1.824605E-3	-6.161895E-3	2.249642E-3	6.077689E-3	1.742818E-3	2.949517E-3	-1.024181E-3	-2.274951E-3	-3.346263E-3	-5.134269E-3	-6.787492E-3	-6.494503E-4	-9.444089E-3	3.211957E-3	-3.628345E-3	-3.794878E-3	-6.534746E-3	-5.193661E-3
5.320020E+2	8.593569E-3	4.304991E-3	-2.777772E-3	4.604067E-4	5.709896E-3	-2.356423E-4	-6.746769E-3	-2.328642E-3	1.129947E-2	3.164478E-3	3.357329E-3	-7.052914E-3	4.376927E-4	-1.220265E-3	4.545059E-3	-3.346700E-3	4.953074E-3	7.057150E-3	2.862070E-3	5.583771E-3	-1.098317E-3	-3.005092E-4	-3.976176E-3	-3.561089E-4	2.806456E-3	-1.437593E-6	1.600657E-3	-1.481595E-3	-4.730950E-3	-1.345414E-3	-4.697047E-3	-1.482929E-3	1.975569E-3	7.684901E-3	3.453520E-4	-4.268595E-3	2.245192E-4	5.803679E-3	-8.046816E-3	4.922612E-3	4.705343E-3	6.595056E-3	-1.500381E-3	-1.599516E-3	2.796105E-3	2.949209E-3	1.865001E-3	-1.444844E-3	-7.940936E-3	1.116193E-2	-8.464601E-3	2.935554E-3	1.801184E-3	3.744156E-3	4.418381E-3	-2.804844E-3	-8.306603E-3	-3.283360E-3	-1.065877E-2	-2.477382E-3	4.003966E-3	-1.189094E-3	-5.285699E-3	2.037183E-3	4.984510E-3	-3.811743E-3	-4.430658E-3	2.393560E-3	9.278996E-3	3.940482E-3	7.372146E-3	2.803365E-3	-3.941866E-3	-4.877335E-4	6.153976E-3	2.250704E-4	7.466113E-3	-3.060955E-4	-7.648790E-3	-1.755288E-4	2.183728E-3	3.101438E-3	1.662893E-3	1.273036E-2	6.454370E-3	7.939693E-3	-1.861748E-3	4.386729E-3	7.228517E-3	1.479064E-3	-7.550171E-3	1.751551E-3	-6.675104E-3	1.060431E-3	-4.438407E-3	1.959723E-3	-8.910637E-5	3.662501E-3	-1.969706E-3	3.389739E-3	2.422589E-3	-6.103672E-3	7.157190E-3	7.239853E-3	-7.082334E-3	-1.207583E-3	1.654921E-3	4.051959E-3	2.201758E-3	-5.689258E-3	3.789782E-3	-1.121139E-2	-6.851642E-3	4.559291E-3	3.776528E-3	5.358693E-3	1.000519E-3	4.061810E-3	3.662452E-3	1.110086E-4	-4.320683E-3	7.994933E-3	1.836567E-3	2.540204E-3	2.861002E-3	-3.173859E-3	6.449819E-3	-6.939225E-4	-4.816097E-3	-2.176500E-3	6.145532E-3	-3.523781E-3	-5.505867E-3	-1.532939E-3	-3.059043E-3	5.473874E-3	2.021274E-3	-1.303569E-3	9.007689E-3	-1.819743E-3	5.196871E-3	-3.746984E-3	4.996805E-3	5.245186E-3	1.148710E-4	-3.439823E-3	3.977989E-3	2.790953E-3	7.013319E-3	4.324067E-4	-1.945163E-4	-6.150658E-3	1.049127E-3	5.058111E-4	-5.602725E-3	1.162831E-3	5.952748E-4	2.515695E-3	7.704843E-3	-1.404245E-2	-2.433265E-3	3.374843E-3	3.312817E-3	1.303933E-3	-9.286885E-3	-7.387408E-3	-2.132495E-3	8.051701E-3	-5.072141E-3
5.325070E+2	7.959683E-3	1.885971E-3	1.009820E-2	5.161436E-3	4.536267E-3	2.145931E-3	4.731112E-3	7.247788E-3	7.434527E-3	5.699848E-3	3.383081E-3	6.729941E-3	1.646170E-3	8.757399E-3	6.149233E-3	7.336007E-3	1.568804E-2	-1.572061E-3	4.608522E-3	7.553724E-3	6.473103E-4	-8.600174E-4	9.637404E-3	1.857806E-2	1.126241E-2	3.964683E-3	6.693060E-3	5.653502E-3	9.434421E-3	5.920078E-3	2.100728E-2	1.458202E-3	1.578424E-2	6.683417E-4	-9.316174E-4	9.603599E-3	4.585743E-3	7.505805E-3	1.133938E-2	1.708803E-2	1.306990E-2	1.422401E-2	1.198972E-2	1.222622E-2	1.078966E-3	3.550622E-3	8.399439E-3	8.965317E-3	9.158430E-3	5.687182E-3	5.926164E-3	5.447414E-3	3.501060E-3	-2.688838E-4	1.003205E-2	7.112956E-3	7.517787E-3	3.789089E-3	1.101509E-2	-1.803210E-3	8.090870E-3	1.132126E-2	8.065150E-3	8.423916E-3	7.585677E-3	1.115593E-2	4.458798E-3	2.411431E-3	7.641283E-3	8.985312E-3	6.800462E-3	4.683831E-3	7.847716E-3	1.092031E-2	8.681599E-3	1.653783E-3	2.813393E-3	3.948531E-3	2.853058E-3	1.034851E-2	-2.685648E-3	3.705390E-3	9.969870E-3	5.995699E-3	7.084001E-3	-5.448754E-4	9.988174E-3	-3.461882E-3	2.771635E-3	-5.919597E-3	7.018139E-3	-4.178399E-3	3.066673E-4	4.472794E-3	5.674087E-3	-3.679917E-4	6.290523E-3	-3.459799E-3	1.702132E-2	9.694257E-3	9.159074E-3	6.836166E-3	4.619323E-3	-2.298520E-3	8.490717E-3	2.904938E-3	-3.127260E-4	1.452651E-2	1.391171E-2	6.146764E-3	1.216880E-2	1.003391E-2	1.055274E-2	-5.640795E-4	6.488985E-3	3.773906E-4	-2.851683E-4	3.017502E-3	3.021146E-3	9.053560E-3	1.736267E-2	2.966639E-3	5.883495E-3	-3.451941E-3	-8.335628E-4	1.595389E-2	9.510199E-3	3.271251E-3	1.456804E-2	4.080629E-3	-2.685900E-3	4.637017E-3	1.449372E-2	1.013535E-2	9.049883E-3	7.954317E-3	6.289669E-3	6.429428E-3	3.006729E-3	2.936281E-3	7.121663E-3	3.049461E-3	7.630448E-3	3.399224E-3	1.267741E-4	2.480004E-3	2.800925E-4	1.061251E-2	3.069365E-3	5.405378E-3	1.018753E-2	7.873108E-3	1.008660E-2	9.269895E-3	-3.497150E-5	2.604817E-3	4.368681E-3	5.373227E-3	7.714862E-3	8.257088E-3	5.952476E-3	-4.155810E-3	9.074813E-3	1.309081E-3	-1.792869E-3	9.942341E-3	1.936652E-2	-2.382339E-3	-7.389195E-3
5.330180E+2	2.103325E-2	5.150651E-3	2.442479E-2	1.090822E-2	1.312125E-2	1.416751E-2	3.081559E-2	2.251625E-2	1.033183E-2	1.547285E-2	2.710576E-2	2.313639E-2	1.290796E-2	1.180332E-2	7.292437E-3	1.781660E-2	1.217911E-2	2.036649E-2	2.765672E-2	2.101485E-2	1.411589E-2	2.302942E-2	1.337436E-2	8.531331E-3	8.264786E-3	1.410563E-2	1.817108E-2	1.766107E-2	1.090314E-2	1.225538E-2	1.004710E-2	2.272480E-2	7.039760E-3	1.760533E-2	2.831907E-2	1.540126E-2	2.330148E-2	8.293408E-3	1.259575E-2	1.009922E-2	1.595538E-2	1.157921E-2	2.293590E-2	1.776007E-2	1.524352E-2	1.847124E-2	2.212845E-2	1.849198E-2	2.272065E-2	1.896625E-2	2.845558E-2	2.051206E-2	2.893085E-2	2.657649E-2	2.456836E-2	7.332908E-3	1.983648E-2	2.204929E-2	2.177838E-2	2.636985E-2	2.453685E-2	1.703391E-2	1.657188E-2	4.616866E-3	2.857525E-2	1.704339E-2	2.019739E-2	1.733069E-2	1.236600E-2	2.044496E-2	1.442769E-2	1.362665E-2	1.181097E-2	1.124518E-2	1.262991E-2	1.039223E-2	1.537027E-2	1.937860E-2	2.627383E-2	2.301863E-2	1.779729E-2	1.033425E-2	8.934404E-3	2.251532E-2	2.325912E-2	1.857330E-2	2.081781E-2	1.558666E-2	2.110635E-2	1.350304E-2	1.882558E-2	2.915303E-2	3.169302E-2	1.561461E-2	2.481800E-2	1.868662E-2	1.860132E-2	2.182399E-2	8.500623E-3	1.484821E-2	8.805917E-3	1.819824E-2	1.126527E-2	1.775169E-2	1.511523E-2	1.900249E-2	1.716516E-2	2.600751E-2	2.346460E-2	1.825741E-2	1.483125E-2	1.698230E-2	1.709361E-2	1.228858E-2	1.486110E-2	2.991227E-2	1.038100E-2	1.837486E-2	1.903949E-2	9.986791E-3	7.127970E-3	1.269720E-2	1.625310E-2	7.473381E-3	2.423731E-2	9.656280E-3	1.953541E-2	2.733356E-2	1.623271E-2	2.312733E-2	1.937325E-2	3.463923E-2	1.949556E-2	1.098321E-2	1.376792E-2	2.304722E-2	1.792352E-2	9.883983E-3	2.433244E-2	2.358637E-2	1.951193E-2	2.086376E-2	1.048871E-2	1.548585E-2	2.889696E-2	1.337526E-2	1.387773E-2	2.312674E-2	1.696207E-2	1.945276E-2	1.237429E-2	1.911019E-2	2.263657E-2	1.829601E-2	2.600088E-2	1.733675E-2	1.845959E-2	1.815619E-2	1.983547E-2	2.007077E-2	2.172741E-2	2.127266E-2	2.279881E-2	2.941707E-2	3.019029E-2	2.198764E-2	2.120206E-2	1.565363E-2	3.479490E-2
5.331580E+2	1.555639E-2	1.773421E-2	2.476439E-2	2.391361E-2	3.126700E-2	1.557523E-2	1.245318E-2	2.024395E-2	1.718091E-2	1.389352E-2	8.111459E-3	1.683647E-2	1.961244E-2	9.386597E-3	1.878540E-2	2.524206E-2	2.262428E-2	2.065581E-2	2.348811E-2	2.925618E-2	2.128872E-2	2.387831E-2	3.045898E-2	2.937214E-2	1.256447E-2	1.451120E-2	2.552059E-2	2.584687E-2	1.796597E-2	1.807897E-2	1.816114E-2	2.770064E-2	2.060894E-2	2.560908E-2	2.180878E-2	2.717150E-2	2.570535E-2	1.647043E-2	2.184294E-2	2.160096E-2	2.644661E-2	3.702399E-2	3.044825E-2	2.042523E-2	1.787335E-2	2.096878E-2	1.997747E-2	2.405830E-2	2.362655E-2	2.607172E-2	2.195083E-2	3.310793E-2	9.623950E-3	2.797858E-2	1.903956E-2	2.396264E-2	1.633620E-2	1.791161E-2	1.016540E-2	1.879025E-2	2.647503E-2	1.074390E-2	2.063801E-2	2.755871E-2	2.690957E-2	1.176103E-2	2.423079E-2	2.568417E-2	1.875812E-2	2.124078E-2	2.703606E-2	1.952318E-2	1.587607E-2	1.285120E-2	3.445453E-2	1.858834E-2	2.911487E-2	1.785253E-2	1.878827E-2	1.960587E-2	1.331167E-2	2.514869E-2	2.585153E-2	8.673430E-3	2.720532E-2	1.461767E-2	2.113370E-2	1.105154E-2	2.966838E-2	2.309994E-2	1.771117E-2	3.013739E-2	6.619046E-3	3.434080E-2	3.120348E-2	2.660683E-2	2.535092E-2	1.974289E-2	4.543895E-2	2.224071E-2	1.463596E-2	3.082061E-2	1.864425E-2	2.890151E-2	2.401214E-2	1.869860E-2	1.684817E-2	2.286651E-2	3.728490E-2	3.514744E-2	2.767507E-2	1.911248E-2	2.094178E-2	2.059236E-2	1.994705E-2	5.328519E-3	2.114670E-2	2.291745E-2	3.573634E-2	2.206916E-2	2.462676E-2	1.304511E-2	2.871595E-2	3.389474E-2	2.204731E-2	1.415508E-2	2.165549E-2	2.629518E-2	2.421426E-2	7.811969E-3	1.157258E-2	1.867759E-2	2.153200E-2	2.935279E-2	2.303101E-2	2.271338E-2	3.747664E-2	2.185011E-2	1.947916E-2	1.239617E-2	2.807939E-2	2.790692E-2	2.662337E-2	1.582436E-2	3.694165E-2	2.608778E-2	2.318611E-2	2.918157E-2	2.120462E-2	2.134880E-2	2.766166E-2	2.644915E-2	1.391722E-2	2.426100E-2	2.703932E-2	9.097356E-3	2.314893E-2	2.977933E-2	1.949632E-2	1.403470E-2	1.236485E-2	9.014694E-3	3.205182E-2	1.986560E-2	1.430111E-2	2.334667E-2	2.007730E-2	2.504316E-2	3.207536E-2
5.333130E+2	3.045677E-2	4.057330E-2	2.129552E-2	1.271643E-2	2.789951E-2	3.275687E-2	3.065853E-2	3.711978E-2	2.322088E-2	3.996586E-2	2.646525E-2	4.147290E-2	2.912183E-2	2.456166E-2	2.310495E-2	3.733008E-2	2.027461E-2	4.004355E-2	2.692831E-2	2.490536E-2	1.918890E-2	3.043781E-2	3.553522E-2	2.829789E-2	3.032569E-2	3.636301E-2	3.091103E-2	2.738758E-2	3.802517E-2	2.494706E-2	2.887894E-2	4.023248E-2	2.204633E-2	2.134810E-2	2.564153E-2	3.017838E-2	2.431785E-2	2.564516E-2	3.295280E-2	1.449650E-2	2.670377E-2	2.969764E-2	3.011630E-2	2.795102E-2	3.496022E-2	3.473168E-2	3.432135E-2	4.110424E-2	4.858820E-2	2.507924E-2	2.694175E-2	2.843934E-2	3.890351E-2	2.650956E-2	3.015096E-2	3.371458E-2	3.621202E-2	4.519949E-2	3.524801E-2	2.509323E-2	3.479759E-2	3.238548E-2	3.852276E-2	2.496231E-2	2.197504E-2	3.195520E-2	2.822257E-2	3.076372E-2	1.509355E-2	1.422959E-2	3.455048E-2	3.746467E-2	3.600212E-2	2.512185E-2	4.708312E-2	2.548330E-2	3.876983E-2	2.235130E-2	3.160616E-2	2.417766E-2	2.955880E-2	4.226267E-2	3.383821E-2	2.725391E-2	3.481195E-2	2.337219E-2	3.603719E-2	2.115631E-2	3.367187E-2	3.948469E-2	3.376840E-2	3.319849E-2	2.777078E-2	2.780595E-2	3.865961E-2	2.279273E-2	2.984248E-2	2.653393E-2	3.910232E-2	3.228707E-2	2.403669E-2	3.972506E-2	2.718609E-2	2.277211E-2	3.557654E-2	2.360175E-2	3.096873E-2	3.219961E-2	3.447285E-2	3.649376E-2	4.288735E-2	3.819392E-2	3.441308E-2	3.459548E-2	3.505336E-2	3.193369E-2	2.594227E-2	2.207944E-2	4.060207E-2	2.987125E-2	3.869893E-2	3.287334E-2	2.962836E-2	2.746622E-2	5.082021E-2	2.095824E-2	3.346807E-2	3.184324E-2	1.681769E-2	3.304028E-2	3.086089E-2	2.706331E-2	2.706041E-2	3.720227E-2	3.410042E-2	2.727074E-2	2.492563E-2	3.238926E-2	2.871584E-2	2.823376E-2	3.981342E-2	1.682180E-2	3.211815E-2	3.157163E-2	3.266781E-2	2.217920E-2	3.306459E-2	3.655620E-2	3.280797E-2	3.427466E-2	2.853767E-2	3.501295E-2	2.770102E-2	4.393723E-2	4.122018E-2	1.507089E-2	3.282337E-2	4.201010E-2	2.170050E-2	2.703802E-2	2.290698E-2	2.998733E-2	3.294554E-2	2.720840E-2	2.778401E-2	3.141276E-2	3.724201E-2	3.417457E-2	4.399261E-2
5.334630E+2	3.095682E-2	4.864058E-2	4.718640E-2	2.457796E-2	3.619536E-2	3.398643E-2	2.922326E-2	3.509595E-2	3.151536E-2	2.908997E-2	2.263439E-2	3.408786E-2	3.486625E-2	3.113178E-2	4.130942E-2	4.148381E-2	1.868267E-2	4.758217E-2	3.565086E-2	3.259039E-2	4.057641E-2	4.554563E-2	3.511613E-2	3.661195E-2	3.733762E-2	5.143215E-2	4.598757E-2	3.700010E-2	3.186277E-2	2.776555E-2	4.423192E-2	3.723716E-2	3.694215E-2	2.756029E-2	3.891639E-2	4.605628E-2	4.297172E-2	4.826939E-2	4.681280E-2	4.446878E-2	4.649694E-2	4.199947E-2	3.179316E-2	4.441789E-2	4.429608E-2	5.235583E-2	4.020943E-2	4.765584E-2	5.312329E-2	4.930505E-2	3.296013E-2	5.251925E-2	4.132604E-2	3.696673E-2	4.084345E-2	3.798723E-2	3.217746E-2	3.337473E-2	3.509224E-2	4.633067E-2	3.298585E-2	3.833725E-2	5.028337E-2	3.664334E-2	4.204272E-2	3.184146E-2	4.957005E-2	3.726605E-2	2.735603E-2	2.422863E-2	3.227584E-2	3.048622E-2	4.663084E-2	3.768227E-2	3.518385E-2	3.665034E-2	4.773938E-2	3.998391E-2	3.500143E-2	3.526690E-2	4.339167E-2	5.180370E-2	2.596478E-2	5.186792E-2	3.349855E-2	3.244874E-2	4.743333E-2	4.211648E-2	4.701988E-2	4.012730E-2	3.840726E-2	4.656037E-2	4.886670E-2	4.757331E-2	4.557462E-2	3.519218E-2	3.962580E-2	3.845965E-2	5.071525E-2	3.661564E-2	5.063228E-2	2.975373E-2	3.803115E-2	3.787719E-2	3.824775E-2	3.481941E-2	3.113203E-2	4.725729E-2	4.196364E-2	3.885407E-2	4.097293E-2	4.069626E-2	2.432381E-2	3.931589E-2	3.825922E-2	4.339713E-2	5.090766E-2	3.300632E-2	4.828379E-2	3.268141E-2	3.998008E-2	2.830447E-2	4.204087E-2	5.199686E-2	3.527841E-2	3.482203E-2	3.859781E-2	4.392393E-2	3.257766E-2	3.874509E-2	3.491455E-2	4.557127E-2	3.954717E-2	5.269650E-2	1.903758E-2	3.409069E-2	4.043592E-2	3.484471E-2	3.580091E-2	4.666878E-2	4.504652E-2	5.398915E-2	4.568971E-2	3.905102E-2	4.239433E-2	4.304783E-2	4.485199E-2	5.449984E-2	3.517452E-2	3.608607E-2	5.930394E-2	4.082334E-2	4.723798E-2	4.525087E-2	2.909916E-2	3.437986E-2	2.323635E-2	5.029254E-2	3.147471E-2	3.405152E-2	3.188783E-2	4.072606E-2	3.804284E-2	4.643823E-2	3.128873E-2	5.461082E-2	3.390671E-2	3.463637E-2	4.064888E-2
5.336130E+2	5.538326E-2	4.969621E-2	4.564208E-2	4.812292E-2	5.050789E-2	4.695387E-2	4.795801E-2	4.150029E-2	3.738387E-2	4.940977E-2	4.076849E-2	6.128626E-2	4.289413E-2	4.160777E-2	4.007433E-2	4.255883E-2	4.547157E-2	5.550842E-2	5.714166E-2	5.891357E-2	4.678904E-2	4.480033E-2	6.080565E-2	7.228437E-2	6.021534E-2	4.925200E-2	5.326980E-2	5.452163E-2	5.179922E-2	4.475555E-2	4.504652E-2	5.704031E-2	4.411275E-2	5.593352E-2	4.242624E-2	5.439723E-2	4.713641E-2	3.848734E-2	6.247025E-2	4.308886E-2	7.020399E-2	5.125919E-2	5.765276E-2	5.692875E-2	6.053928E-2	5.384060E-2	5.743630E-2	4.513074E-2	6.951602E-2	4.976505E-2	6.139862E-2	5.858006E-2	5.127026E-2	3.860772E-2	6.081113E-2	5.111439E-2	6.021099E-2	5.993735E-2	3.938054E-2	4.087689E-2	4.974789E-2	4.724385E-2	6.487117E-2	6.341292E-2	5.429375E-2	3.997765E-2	5.640730E-2	5.475396E-2	4.583203E-2	5.856295E-2	4.355877E-2	5.742339E-2	7.714339E-2	5.483950E-2	4.767988E-2	4.737423E-2	6.173204E-2	5.334373E-2	5.084569E-2	4.706135E-2	7.004009E-2	6.213332E-2	8.584096E-2	4.827178E-2	4.147019E-2	6.245912E-2	5.559222E-2	5.732349E-2	5.756535E-2	4.565711E-2	6.129812E-2	6.120005E-2	5.892873E-2	3.787168E-2	6.884805E-2	5.944525E-2	5.458008E-2	6.004580E-2	5.190568E-2	4.512210E-2	4.673110E-2	6.332384E-2	5.009440E-2	4.166658E-2	3.753826E-2	6.193717E-2	3.542506E-2	5.775644E-2	5.737090E-2	5.662450E-2	4.801719E-2	5.774334E-2	3.281281E-2	4.959160E-2	4.640794E-2	4.130565E-2	5.206116E-2	5.247427E-2	6.797067E-2	5.446679E-2	5.787565E-2	5.641362E-2	4.745651E-2	5.136731E-2	4.649273E-2	4.803418E-2	4.646976E-2	4.848631E-2	6.331326E-2	5.440791E-2	3.942461E-2	6.007253E-2	6.795915E-2	4.900805E-2	5.047489E-2	6.065300E-2	5.553685E-2	5.441337E-2	5.644839E-2	5.248819E-2	5.649840E-2	4.298689E-2	5.168957E-2	4.972965E-2	5.145936E-2	6.500976E-2	4.434397E-2	5.114679E-2	6.206340E-2	5.604082E-2	6.233640E-2	5.288258E-2	4.390556E-2	5.156649E-2	6.197968E-2	3.633369E-2	3.659421E-2	3.695880E-2	6.028441E-2	6.835648E-2	3.252693E-2	4.703470E-2	5.335094E-2	6.876732E-2	4.746570E-2	4.641362E-2	4.873547E-2	5.283428E-2	3.761432E-2
5.337630E+2	6.843548E-2	7.516343E-2	7.038225E-2	8.394718E-2	8.308684E-2	6.598892E-2	7.406969E-2	6.885582E-2	5.718825E-2	4.699722E-2	6.099601E-2	6.817194E-2	6.118664E-2	6.419781E-2	7.130190E-2	6.798211E-2	6.853701E-2	8.190260E-2	5.679359E-2	7.496188E-2	7.538356E-2	7.116462E-2	1.015149E-1	8.861575E-2	7.487873E-2	6.934886E-2	5.984572E-2	7.057083E-2	7.302362E-2	6.276017E-2	5.327055E-2	5.927570E-2	7.150654E-2	8.070946E-2	7.598661E-2	7.923668E-2	6.326749E-2	7.604220E-2	8.578337E-2	6.670675E-2	7.497939E-2	7.986431E-2	7.294643E-2	5.397671E-2	7.014062E-2	8.192099E-2	5.719504E-2	5.590922E-2	6.913052E-2	6.683423E-2	6.736545E-2	8.373020E-2	7.181165E-2	5.573026E-2	7.452015E-2	7.018264E-2	7.205093E-2	7.707214E-2	7.304133E-2	7.056640E-2	7.619561E-2	8.351016E-2	6.943253E-2	8.125393E-2	8.060269E-2	7.607537E-2	6.570861E-2	8.396970E-2	5.507426E-2	6.221210E-2	8.071284E-2	7.650368E-2	6.801068E-2	6.727974E-2	7.543767E-2	7.480278E-2	7.321828E-2	6.703473E-2	7.150337E-2	8.165345E-2	7.449468E-2	6.414462E-2	9.409761E-2	6.557521E-2	6.822671E-2	7.193101E-2	5.285068E-2	7.416720E-2	7.264361E-2	7.666432E-2	8.117905E-2	7.295592E-2	6.406249E-2	8.005895E-2	6.125414E-2	6.504384E-2	7.193740E-2	6.389245E-2	5.682584E-2	6.160811E-2	7.538357E-2	7.603211E-2	6.254210E-2	6.842680E-2	5.701109E-2	8.529393E-2	7.592788E-2	6.858501E-2	8.062056E-2	6.447817E-2	8.413802E-2	6.592929E-2	8.779641E-2	5.098201E-2	6.906462E-2	6.966211E-2	8.188436E-2	7.180320E-2	7.956245E-2	8.467917E-2	8.336230E-2	7.453657E-2	7.573316E-2	5.631085E-2	7.172354E-2	7.305555E-2	6.756554E-2	7.803430E-2	7.193459E-2	7.169324E-2	8.261486E-2	7.229418E-2	7.595703E-2	6.456799E-2	5.931940E-2	7.027278E-2	6.936217E-2	6.829226E-2	8.641428E-2	6.576236E-2	6.701910E-2	5.863561E-2	8.994256E-2	7.253899E-2	8.892182E-2	6.287218E-2	7.063278E-2	7.877038E-2	7.437436E-2	7.911806E-2	6.724890E-2	8.032934E-2	7.213645E-2	7.645911E-2	7.166308E-2	6.796512E-2	7.356424E-2	7.397091E-2	8.278165E-2	5.697030E-2	6.071754E-2	7.264469E-2	8.455527E-2	6.912338E-2	7.571222E-2	6.528681E-2	5.650764E-2	7.616071E-2	6.484814E-2
5.339140E+2	9.552373E-2	1.048528E-1	1.080851E-1	9.227813E-2	1.090320E-1	1.141475E-1	1.007370E-1	1.042327E-1	9.276503E-2	9.287880E-2	1.121174E-1	1.027307E-1	8.635859E-2	8.653301E-2	1.065340E-1	9.581338E-2	1.068415E-1	1.181606E-1	8.993237E-2	1.020455E-1	1.125530E-1	1.020017E-1	1.452489E-1	1.297309E-1	1.319670E-1	1.340547E-1	1.089267E-1	1.248556E-1	1.315276E-1	1.109668E-1	1.180106E-1	9.645780E-2	1.205197E-1	1.156283E-1	1.245398E-1	9.610323E-2	1.027412E-1	1.106098E-1	1.110555E-1	1.031300E-1	1.071417E-1	1.277521E-1	1.000753E-1	1.035470E-1	1.046438E-1	1.034767E-1	1.173796E-1	9.931245E-2	1.189141E-1	1.030082E-1	1.238094E-1	1.094471E-1	9.723039E-2	1.181969E-1	1.261097E-1	1.167827E-1	1.007598E-1	8.939408E-2	1.102389E-1	1.336858E-1	1.028863E-1	1.057837E-1	1.126219E-1	8.658463E-2	1.191106E-1	1.038223E-1	1.053271E-1	1.109721E-1	8.271405E-2	1.096901E-1	1.080388E-1	8.604124E-2	1.156823E-1	1.049960E-1	1.087489E-1	1.079668E-1	1.123069E-1	1.118030E-1	1.008106E-1	1.011553E-1	1.061506E-1	8.412738E-2	1.033156E-1	9.431241E-2	1.078005E-1	9.777887E-2	1.060845E-1	9.086947E-2	1.055751E-1	8.738057E-2	1.097862E-1	8.716786E-2	1.045528E-1	9.725116E-2	1.146012E-1	1.014522E-1	1.033744E-1	1.097209E-1	8.978284E-2	9.499849E-2	1.118587E-1	1.072249E-1	9.572592E-2	1.001667E-1	1.099256E-1	9.184551E-2	9.457571E-2	9.690311E-2	1.111519E-1	1.058824E-1	9.375845E-2	1.052327E-1	9.974834E-2	9.618968E-2	9.731873E-2	9.277312E-2	1.016428E-1	1.056434E-1	1.200697E-1	1.167853E-1	1.039584E-1	9.950556E-2	8.737185E-2	9.497213E-2	1.262307E-1	9.849423E-2	9.685725E-2	8.271910E-2	9.501877E-2	9.509008E-2	1.185833E-1	1.196321E-1	9.741340E-2	9.411734E-2	1.151492E-1	1.059715E-1	9.950345E-2	1.047835E-1	9.656819E-2	9.812922E-2	9.469279E-2	9.129599E-2	1.305924E-1	1.158910E-1	1.033363E-1	1.059409E-1	1.001805E-1	9.536301E-2	1.060387E-1	1.075814E-1	1.117240E-1	1.257627E-1	9.827820E-2	8.850378E-2	1.164561E-1	1.001255E-1	9.324797E-2	1.137077E-1	9.997026E-2	1.099752E-1	1.069763E-1	1.038041E-1	1.043749E-1	1.022548E-1	9.962743E-2	1.151274E-1	1.174160E-1	1.203314E-1	1.436346E-1
5.340590E+2	1.488956E-1	1.550881E-1	1.467061E-1	1.202845E-1	1.492506E-1	1.566116E-1	1.464758E-1	1.402724E-1	1.609916E-1	1.612044E-1	1.514104E-1	1.765746E-1	1.465557E-1	1.580343E-1	1.498762E-1	1.317720E-1	1.346654E-1	1.635212E-1	1.600756E-1	1.601539E-1	1.363221E-1	1.469745E-1	2.240185E-1	1.955916E-1	1.873637E-1	1.873152E-1	1.864801E-1	1.873133E-1	1.666177E-1	1.736442E-1	1.594478E-1	1.635320E-1	1.905785E-1	1.803644E-1	1.611035E-1	1.641141E-1	1.912236E-1	1.684689E-1	1.611103E-1	1.668406E-1	1.737826E-1	1.763951E-1	1.648545E-1	1.760814E-1	1.847538E-1	1.541946E-1	1.758057E-1	1.717034E-1	1.733861E-1	1.884949E-1	1.713985E-1	1.719269E-1	1.808022E-1	1.644369E-1	1.688077E-1	1.678860E-1	1.803441E-1	1.527317E-1	1.527555E-1	1.820807E-1	1.573843E-1	1.591605E-1	1.682619E-1	1.734645E-1	1.818877E-1	1.676267E-1	1.631852E-1	1.651292E-1	1.471192E-1	1.533386E-1	1.678685E-1	1.917979E-1	1.766541E-1	1.742683E-1	1.714124E-1	1.634837E-1	1.734325E-1	1.634812E-1	1.589217E-1	1.601697E-1	1.669612E-1	1.647125E-1	1.427328E-1	1.724835E-1	1.580446E-1	1.539188E-1	1.582803E-1	1.618721E-1	1.658109E-1	1.800743E-1	1.651332E-1	1.895336E-1	1.597884E-1	1.697018E-1	1.694736E-1	1.701438E-1	1.786849E-1	1.557264E-1	1.532520E-1	1.520829E-1	1.775258E-1	1.784354E-1	1.476967E-1	1.567311E-1	1.774067E-1	1.702579E-1	1.419970E-1	1.623259E-1	1.611901E-1	1.648156E-1	1.825371E-1	1.668101E-1	1.738032E-1	1.814900E-1	1.629886E-1	1.660158E-1	1.532313E-1	1.907845E-1	1.565919E-1	1.519983E-1	1.634364E-1	1.611165E-1	1.626822E-1	1.712202E-1	1.859189E-1	1.749141E-1	1.556102E-1	1.842976E-1	1.764373E-1	1.729779E-1	1.509504E-1	1.612821E-1	1.708217E-1	1.557260E-1	1.734432E-1	1.594258E-1	1.694214E-1	1.519818E-1	1.476125E-1	1.384023E-1	1.612068E-1	1.499159E-1	1.669568E-1	1.713810E-1	1.580438E-1	1.617654E-1	1.574936E-1	1.663847E-1	1.559891E-1	1.562615E-1	1.546489E-1	1.629853E-1	1.647744E-1	1.647008E-1	1.684063E-1	1.582113E-1	1.379786E-1	1.570803E-1	1.765079E-1	1.567676E-1	1.834982E-1	1.612745E-1	1.565972E-1	1.630795E-1	1.554274E-1	1.494607E-1	1.550907E-1	1.828740E-1	1.705331E-1
5.342090E+2	2.334733E-1	2.554531E-1	2.454581E-1	2.358776E-1	2.482892E-1	2.579591E-1	2.577976E-1	2.406106E-1	2.536845E-1	2.522431E-1	2.569450E-1	2.244545E-1	2.564208E-1	2.444880E-1	2.459509E-1	2.394592E-1	2.338962E-1	2.455444E-1	2.526408E-1	2.383024E-1	2.533523E-1	2.782087E-1	3.717503E-1	3.201019E-1	3.312017E-1	3.254938E-1	3.076519E-1	2.891308E-1	2.850871E-1	2.801312E-1	2.779122E-1	2.621339E-1	2.606086E-1	2.557941E-1	2.725325E-1	3.073388E-1	2.740774E-1	2.725357E-1	2.828311E-1	2.883039E-1	2.835425E-1	2.835894E-1	2.589520E-1	2.851192E-1	2.693159E-1	2.663764E-1	2.820096E-1	2.779354E-1	2.830326E-1	2.619764E-1	2.479133E-1	2.571560E-1	2.719073E-1	2.670764E-1	3.032201E-1	2.746965E-1	2.942190E-1	2.733192E-1	2.822029E-1	2.876904E-1	2.899151E-1	2.359170E-1	2.650445E-1	2.674627E-1	2.692080E-1	2.732557E-1	2.492528E-1	2.842101E-1	2.630796E-1	2.549876E-1	2.753489E-1	2.549404E-1	2.911209E-1	2.623233E-1	2.829078E-1	2.552760E-1	2.820048E-1	2.596833E-1	2.540069E-1	2.501853E-1	2.944992E-1	2.784018E-1	2.772751E-1	2.638866E-1	2.767578E-1	2.614078E-1	2.700117E-1	2.657594E-1	2.975398E-1	2.644352E-1	2.759982E-1	2.708605E-1	2.735273E-1	2.981056E-1	2.442373E-1	2.669607E-1	3.050375E-1	2.712851E-1	2.559715E-1	2.688749E-1	2.728705E-1	2.637594E-1	2.500037E-1	2.734150E-1	2.450221E-1	2.520167E-1	2.604104E-1	2.634210E-1	2.534418E-1	2.545232E-1	2.560908E-1	2.636794E-1	2.510226E-1	2.607856E-1	2.693188E-1	2.793548E-1	2.630314E-1	2.692494E-1	2.885394E-1	2.599398E-1	3.025549E-1	2.772765E-1	2.925323E-1	2.565641E-1	2.749475E-1	2.667796E-1	2.755186E-1	2.742392E-1	2.576286E-1	2.726614E-1	2.477481E-1	2.916834E-1	2.552660E-1	2.877351E-1	2.567643E-1	2.462692E-1	2.754425E-1	2.592578E-1	2.927833E-1	2.579650E-1	2.800734E-1	2.591722E-1	2.964286E-1	2.535611E-1	2.783094E-1	2.579263E-1	2.624333E-1	2.794698E-1	2.710020E-1	2.742713E-1	2.469634E-1	2.873430E-1	2.319861E-1	2.740827E-1	2.578794E-1	2.698949E-1	2.609178E-1	2.519688E-1	2.787794E-1	2.632158E-1	2.935479E-1	2.653714E-1	2.610222E-1	2.809514E-1	2.680429E-1	2.843356E-1	2.637533E-1	2.694304E-1	3.035413E-1
5.343600E+2	4.500321E-1	4.376864E-1	4.380223E-1	4.417931E-1	4.987596E-1	4.438867E-1	4.716264E-1	4.492427E-1	4.834210E-1	4.510992E-1	4.269584E-1	4.901679E-1	4.765861E-1	4.605984E-1	4.901146E-1	4.660139E-1	4.553324E-1	4.712960E-1	4.362863E-1	4.462510E-1	4.298058E-1	4.903735E-1	5.871786E-1	6.027938E-1	5.085266E-1	5.361832E-1	5.408867E-1	5.220811E-1	5.252365E-1	5.151334E-1	5.135149E-1	5.168074E-1	5.085607E-1	4.793916E-1	5.099362E-1	5.085944E-1	4.890331E-1	4.824477E-1	4.911068E-1	4.404942E-1	4.727541E-1	4.793038E-1	4.817938E-1	5.125833E-1	4.958453E-1	4.817672E-1	4.996533E-1	4.802825E-1	4.974219E-1	4.788341E-1	4.674393E-1	5.152291E-1	4.710975E-1	4.933456E-1	4.741387E-1	4.915917E-1	5.213727E-1	4.842748E-1	5.089995E-1	5.096846E-1	4.928482E-1	4.743408E-1	5.225028E-1	4.821007E-1	4.826397E-1	4.941924E-1	4.991947E-1	4.702894E-1	4.682906E-1	4.551777E-1	4.908368E-1	4.833413E-1	4.665147E-1	4.943919E-1	5.034699E-1	4.853386E-1	4.681189E-1	5.080588E-1	5.056801E-1	4.784350E-1	4.786151E-1	5.083328E-1	5.095254E-1	4.518803E-1	4.657201E-1	4.857334E-1	4.800244E-1	4.815295E-1	4.741080E-1	4.622744E-1	4.908277E-1	4.924034E-1	5.051870E-1	4.780555E-1	5.002189E-1	4.611319E-1	5.251471E-1	4.803204E-1	4.967248E-1	4.367775E-1	4.753976E-1	4.584062E-1	4.800686E-1	4.939231E-1	4.971542E-1	4.816084E-1	4.982740E-1	5.033415E-1	4.980815E-1	4.529046E-1	4.982324E-1	4.926085E-1	4.661792E-1	4.828479E-1	4.572222E-1	4.419015E-1	5.048461E-1	4.528633E-1	5.008857E-1	4.582593E-1	5.060468E-1	4.564559E-1	5.172287E-1	4.878330E-1	4.516908E-1	4.756270E-1	4.758915E-1	4.881689E-1	4.746832E-1	4.738403E-1	4.934045E-1	5.272035E-1	4.840095E-1	4.809566E-1	4.803521E-1	4.888086E-1	4.675448E-1	4.679152E-1	4.831550E-1	4.785904E-1	4.624939E-1	4.540734E-1	4.729824E-1	4.844429E-1	4.715659E-1	4.676341E-1	4.744264E-1	4.819971E-1	4.827268E-1	4.721718E-1	4.883286E-1	4.715856E-1	4.752402E-1	5.092211E-1	4.997346E-1	4.414767E-1	4.789691E-1	4.587958E-1	4.912773E-1	5.194542E-1	5.273179E-1	4.309395E-1	4.786530E-1	4.794211E-1	5.035101E-1	4.718342E-1	4.948513E-1	4.865688E-1	5.120077E-1
5.345110E+2	7.613557E-1	7.316353E-1	7.644888E-1	7.694920E-1	7.576398E-1	7.605770E-1	7.885588E-1	7.483037E-1	7.509000E-1	7.370813E-1	8.239451E-1	7.493858E-1	7.695496E-1	7.796470E-1	7.785359E-1	7.548268E-1	7.867820E-1	8.104790E-1	7.697067E-1	7.604761E-1	7.655110E-1	7.640471E-1	9.279349E-1	8.723969E-1	8.291104E-1	9.183890E-1	8.014413E-1	8.355508E-1	8.216724E-1	8.379435E-1	7.746286E-1	7.898069E-1	8.113576E-1	8.477973E-1	7.707997E-1	8.873794E-1	8.363439E-1	8.173596E-1	8.448809E-1	8.680181E-1	7.950878E-1	7.937025E-1	8.031062E-1	8.010475E-1	8.439171E-1	8.292926E-1	7.882388E-1	8.140322E-1	8.644391E-1	7.937024E-1	7.786397E-1	7.729844E-1	8.252233E-1	7.563431E-1	7.989469E-1	8.441636E-1	8.154159E-1	8.518323E-1	7.760242E-1	8.051737E-1	8.262753E-1	7.821347E-1	8.440431E-1	8.158909E-1	8.177724E-1	8.141251E-1	8.122447E-1	7.830884E-1	7.792903E-1	7.927683E-1	7.834864E-1	8.187787E-1	8.031084E-1	8.094000E-1	8.018461E-1	7.876981E-1	8.226525E-1	8.020853E-1	8.264715E-1	8.149319E-1	7.617966E-1	7.668152E-1	8.051392E-1	7.871657E-1	7.985907E-1	7.980678E-1	8.305106E-1	8.054151E-1	8.206033E-1	7.890205E-1	7.863045E-1	8.182122E-1	8.067300E-1	7.677634E-1	8.265837E-1	7.846113E-1	7.980870E-1	7.949851E-1	7.767165E-1	7.810357E-1	8.042403E-1	8.247423E-1	7.986720E-1	7.748192E-1	8.096595E-1	8.314163E-1	8.091956E-1	7.771785E-1	8.236484E-1	7.575877E-1	8.121358E-1	7.471820E-1	7.983969E-1	7.765424E-1	7.711122E-1	7.956389E-1	8.246055E-1	7.719886E-1	8.002464E-1	8.116620E-1	8.553823E-1	7.454572E-1	7.736679E-1	7.663212E-1	7.804548E-1	8.203496E-1	7.938980E-1	7.917986E-1	7.935010E-1	8.053876E-1	8.096020E-1	7.818828E-1	7.896859E-1	8.387398E-1	7.580865E-1	8.005709E-1	8.135193E-1	8.058157E-1	7.313029E-1	7.590234E-1	7.929867E-1	7.757420E-1	7.868099E-1	8.033131E-1	8.090269E-1	7.560582E-1	8.172781E-1	8.181316E-1	7.718752E-1	7.831812E-1	8.010195E-1	8.444698E-1	7.568564E-1	7.982268E-1	7.711378E-1	8.388251E-1	8.053566E-1	8.049608E-1	8.241562E-1	7.651124E-1	7.997670E-1	7.411020E-1	7.878274E-1	8.007191E-1	7.882709E-1	8.133849E-1	7.973307E-1	7.784223E-1	7.887486E-1
5.346620E+2	1.175367E+0	1.191718E+0	1.183759E+0	1.056814E+0	1.110444E+0	1.159615E+0	1.147187E+0	1.136460E+0	1.148574E+0	1.110079E+0	1.136602E+0	1.153291E+0	1.188945E+0	1.088531E+0	1.107380E+0	1.109520E+0	1.138130E+0	1.199397E+0	1.154029E+0	1.113394E+0	1.177159E+0	1.162359E+0	1.262296E+0	1.212462E+0	1.250113E+0	1.207730E+0	1.205056E+0	1.222375E+0	1.184709E+0	1.216949E+0	1.183086E+0	1.175441E+0	1.232072E+0	1.169073E+0	1.245466E+0	1.218031E+0	1.165445E+0	1.179267E+0	1.198048E+0	1.139829E+0	1.189543E+0	1.160372E+0	1.187573E+0	1.144529E+0	1.149790E+0	1.155130E+0	1.168491E+0	1.164666E+0	1.161449E+0	1.194899E+0	1.256854E+0	1.192052E+0	1.204289E+0	1.208100E+0	1.143676E+0	1.143494E+0	1.165200E+0	1.201021E+0	1.206981E+0	1.189881E+0	1.144265E+0	1.113381E+0	1.166777E+0	1.195481E+0	1.195787E+0	1.140971E+0	1.127866E+0	1.135373E+0	1.099097E+0	1.171164E+0	1.178072E+0	1.187957E+0	1.157530E+0	1.100945E+0	1.133438E+0	1.169093E+0	1.199738E+0	1.135255E+0	1.136773E+0	1.193682E+0	1.174223E+0	1.195011E+0	1.131782E+0	1.121911E+0	1.139757E+0	1.140931E+0	1.178284E+0	1.152614E+0	1.171151E+0	1.123536E+0	1.135534E+0	1.132831E+0	1.250465E+0	1.148931E+0	1.153082E+0	1.155174E+0	1.190572E+0	1.150176E+0	1.167215E+0	1.174952E+0	1.164667E+0	1.176342E+0	1.167118E+0	1.159175E+0	1.177507E+0	1.084190E+0	1.206607E+0	1.180503E+0	1.209466E+0	1.103585E+0	1.148264E+0	1.152528E+0	1.098910E+0	1.111736E+0	1.136010E+0	1.120884E+0	1.125347E+0	1.072928E+0	1.118782E+0	1.136699E+0	1.180331E+0	1.184312E+0	1.200040E+0	1.141272E+0	1.218068E+0	1.149587E+0	1.121422E+0	1.169966E+0	1.227901E+0	1.166797E+0	1.182780E+0	1.149274E+0	1.142891E+0	1.137270E+0	1.140158E+0	1.112868E+0	1.126353E+0	1.115078E+0	1.156088E+0	1.123344E+0	1.175048E+0	1.132169E+0	1.148038E+0	1.141463E+0	1.155482E+0	1.131508E+0	1.166874E+0	1.186114E+0	1.197470E+0	1.159718E+0	1.167600E+0	1.180131E+0	1.174494E+0	1.165949E+0	1.218093E+0	1.096887E+0	1.141121E+0	1.115394E+0	1.158009E+0	1.131034E+0	1.114729E+0	1.076224E+0	1.138793E+0	1.141891E+0	1.182150E+0	1.126629E+0	1.163084E+0	1.106466E+0	1.152331E+0
5.348120E+2	1.479345E+0	1.405637E+0	1.576563E+0	1.463407E+0	1.480210E+0	1.431999E+0	1.505592E+0	1.430292E+0	1.462320E+0	1.479287E+0	1.550779E+0	1.479366E+0	1.521282E+0	1.483057E+0	1.482864E+0	1.478221E+0	1.470584E+0	1.515316E+0	1.465376E+0	1.517610E+0	1.505984E+0	1.485602E+0	1.550521E+0	1.544404E+0	1.554355E+0	1.529974E+0	1.484377E+0	1.511095E+0	1.554722E+0	1.476876E+0	1.431008E+0	1.543449E+0	1.509930E+0	1.552692E+0	1.497057E+0	1.552601E+0	1.488156E+0	1.480670E+0	1.526018E+0	1.440450E+0	1.559637E+0	1.464761E+0	1.489822E+0	1.498602E+0	1.554418E+0	1.496920E+0	1.459309E+0	1.470135E+0	1.506139E+0	1.489347E+0	1.518787E+0	1.558145E+0	1.509481E+0	1.548022E+0	1.600156E+0	1.518215E+0	1.501344E+0	1.500650E+0	1.458055E+0	1.468822E+0	1.519767E+0	1.485251E+0	1.545921E+0	1.501673E+0	1.515122E+0	1.491101E+0	1.570493E+0	1.401076E+0	1.470675E+0	1.518405E+0	1.461815E+0	1.543346E+0	1.498392E+0	1.496974E+0	1.492867E+0	1.459393E+0	1.505104E+0	1.480641E+0	1.483581E+0	1.457828E+0	1.532287E+0	1.415765E+0	1.468062E+0	1.451492E+0	1.454146E+0	1.445929E+0	1.559251E+0	1.423976E+0	1.519558E+0	1.510088E+0	1.477665E+0	1.508439E+0	1.512474E+0	1.425274E+0	1.423067E+0	1.457860E+0	1.500878E+0	1.440879E+0	1.485800E+0	1.497738E+0	1.471550E+0	1.514489E+0	1.428714E+0	1.478626E+0	1.462819E+0	1.404493E+0	1.456280E+0	1.537943E+0	1.488803E+0	1.438092E+0	1.437940E+0	1.485316E+0	1.451221E+0	1.435799E+0	1.444940E+0	1.419094E+0	1.518977E+0	1.452471E+0	1.478427E+0	1.444514E+0	1.519035E+0	1.423569E+0	1.476499E+0	1.468114E+0	1.534507E+0	1.379929E+0	1.400703E+0	1.503633E+0	1.520273E+0	1.465647E+0	1.406494E+0	1.502686E+0	1.449577E+0	1.436940E+0	1.418396E+0	1.497758E+0	1.549003E+0	1.396712E+0	1.358835E+0	1.404710E+0	1.482465E+0	1.411261E+0	1.465934E+0	1.484384E+0	1.437201E+0	1.428622E+0	1.436891E+0	1.526034E+0	1.508446E+0	1.426431E+0	1.445140E+0	1.425936E+0	1.500979E+0	1.482385E+0	1.428739E+0	1.431782E+0	1.485499E+0	1.456457E+0	1.421247E+0	1.481125E+0	1.457280E+0	1.379234E+0	1.488994E+0	1.494292E+0	1.458620E+0	1.422884E+0	1.525435E+0	1.396240E+0	1.511438E+0
5.349580E+2	1.850072E+0	1.778996E+0	1.785300E+0	1.741842E+0	1.752268E+0	1.751867E+0	1.751323E+0	1.738347E+0	1.725315E+0	1.721455E+0	1.805337E+0	1.701169E+0	1.759309E+0	1.799751E+0	1.791110E+0	1.746655E+0	1.789424E+0	1.789808E+0	1.742623E+0	1.778990E+0	1.748113E+0	1.773482E+0	1.828154E+0	1.701365E+0	1.727516E+0	1.775622E+0	1.747669E+0	1.796325E+0	1.786343E+0	1.803924E+0	1.740472E+0	1.713651E+0	1.722852E+0	1.757549E+0	1.754503E+0	1.784737E+0	1.726855E+0	1.718166E+0	1.786561E+0	1.782528E+0	1.762955E+0	1.786111E+0	1.689543E+0	1.758025E+0	1.798750E+0	1.719632E+0	1.751698E+0	1.786195E+0	1.765669E+0	1.764218E+0	1.825725E+0	1.766397E+0	1.755234E+0	1.829509E+0	1.848611E+0	1.758154E+0	1.856056E+0	1.706023E+0	1.826337E+0	1.716642E+0	1.737918E+0	1.739249E+0	1.873538E+0	1.742675E+0	1.736518E+0	1.831063E+0	1.822915E+0	1.733459E+0	1.748675E+0	1.751019E+0	1.736410E+0	1.779850E+0	1.713818E+0	1.770121E+0	1.766564E+0	1.695288E+0	1.799837E+0	1.683029E+0	1.755757E+0	1.790904E+0	1.735434E+0	1.765531E+0	1.759269E+0	1.809435E+0	1.771673E+0	1.793078E+0	1.739488E+0	1.774237E+0	1.739305E+0	1.702440E+0	1.779651E+0	1.738759E+0	1.777933E+0	1.712221E+0	1.703484E+0	1.740680E+0	1.811114E+0	1.765646E+0	1.734405E+0	1.764108E+0	1.738551E+0	1.822742E+0	1.759062E+0	1.732593E+0	1.723024E+0	1.705660E+0	1.739701E+0	1.789240E+0	1.698809E+0	1.679645E+0	1.740339E+0	1.690605E+0	1.780055E+0	1.704836E+0	1.734008E+0	1.730739E+0	1.806438E+0	1.751081E+0	1.708971E+0	1.823735E+0	1.743214E+0	1.704568E+0	1.732162E+0	1.708977E+0	1.779717E+0	1.700771E+0	1.682076E+0	1.749452E+0	1.742543E+0	1.775178E+0	1.731771E+0	1.718822E+0	1.727812E+0	1.727861E+0	1.687142E+0	1.754516E+0	1.723217E+0	1.626672E+0	1.680385E+0	1.665999E+0	1.772916E+0	1.677007E+0	1.760765E+0	1.736977E+0	1.704333E+0	1.651806E+0	1.738758E+0	1.770093E+0	1.737949E+0	1.751591E+0	1.688337E+0	1.723462E+0	1.705116E+0	1.740636E+0	1.704933E+0	1.707681E+0	1.722348E+0	1.730542E+0	1.732035E+0	1.792810E+0	1.738034E+0	1.668620E+0	1.790691E+0	1.683269E+0	1.754488E+0	1.707117E+0	1.791946E+0	1.713410E+0	1.727945E+0
5.351040E+2	1.950274E+0	1.912270E+0	2.011733E+0	1.891628E+0	1.957219E+0	1.881687E+0	1.885131E+0	1.965558E+0	1.940233E+0	1.901056E+0	2.029288E+0	1.958950E+0	1.967753E+0	1.867313E+0	1.987593E+0	1.937755E+0	1.904326E+0	1.991900E+0	1.874246E+0	1.954649E+0	1.975020E+0	1.975339E+0	1.887958E+0	1.926393E+0	1.923760E+0	1.950308E+0	1.905222E+0	1.921671E+0	1.931916E+0	1.925844E+0	1.817390E+0	1.895127E+0	1.940130E+0	1.958129E+0	1.879007E+0	1.928480E+0	1.896952E+0	1.887839E+0	1.884295E+0	1.984805E+0	1.927037E+0	1.898698E+0	1.921498E+0	1.928999E+0	1.885278E+0	1.886893E+0	1.904829E+0	1.931401E+0	1.927090E+0	1.913927E+0	2.003992E+0	1.903324E+0	1.867521E+0	1.941001E+0	1.915679E+0	1.993358E+0	1.948560E+0	1.896643E+0	1.943960E+0	1.898966E+0	1.914889E+0	1.897379E+0	1.943947E+0	1.938482E+0	1.894504E+0	1.943353E+0	1.972903E+0	1.858989E+0	1.870603E+0	1.865539E+0	1.885730E+0	1.966922E+0	1.907237E+0	1.882843E+0	1.861016E+0	1.914896E+0	1.901918E+0	1.825568E+0	1.906375E+0	1.831987E+0	1.928130E+0	1.908631E+0	1.915477E+0	1.839457E+0	1.884688E+0	1.819008E+0	1.896804E+0	1.814234E+0	1.883861E+0	1.826992E+0	1.898972E+0	1.842835E+0	1.971831E+0	1.880322E+0	1.822955E+0	1.879459E+0	1.977686E+0	1.857616E+0	1.847909E+0	1.875095E+0	1.890555E+0	1.905059E+0	1.859804E+0	1.869106E+0	1.850124E+0	1.834239E+0	1.941615E+0	1.907547E+0	1.933908E+0	1.759543E+0	1.886501E+0	1.845544E+0	1.908380E+0	1.740589E+0	1.885521E+0	1.792587E+0	1.932934E+0	1.835472E+0	1.916795E+0	1.865649E+0	1.912627E+0	1.856500E+0	1.908147E+0	1.774787E+0	1.854121E+0	1.874541E+0	1.876880E+0	1.940507E+0	1.868423E+0	1.897499E+0	1.868187E+0	1.900421E+0	1.837296E+0	1.911656E+0	1.827853E+0	1.847589E+0	1.874507E+0	1.894974E+0	1.890736E+0	1.837076E+0	1.935353E+0	1.801867E+0	1.912508E+0	1.901130E+0	1.902378E+0	1.876223E+0	1.922986E+0	1.911368E+0	1.830517E+0	1.846807E+0	1.751297E+0	1.937644E+0	1.857737E+0	1.904995E+0	1.809234E+0	1.880718E+0	1.908275E+0	1.793561E+0	1.832716E+0	1.829604E+0	1.841718E+0	1.795029E+0	1.805718E+0	1.822191E+0	1.847224E+0	1.861195E+0	1.895150E+0	1.797907E+0	1.998714E+0
5.352600E+2	1.922365E+0	1.918365E+0	2.025053E+0	1.938175E+0	1.879716E+0	1.944470E+0	1.957773E+0	1.880914E+0	1.937558E+0	1.987128E+0	1.961398E+0	1.936005E+0	1.947639E+0	1.933684E+0	1.991912E+0	1.927450E+0	1.950703E+0	1.987221E+0	1.884267E+0	1.890234E+0	1.950814E+0	1.920747E+0	1.866240E+0	1.801670E+0	1.906347E+0	1.991861E+0	1.881884E+0	1.875395E+0	1.862007E+0	1.894789E+0	1.815788E+0	1.894702E+0	1.913765E+0	1.912352E+0	1.887556E+0	1.931091E+0	1.902406E+0	1.873943E+0	1.964906E+0	1.914389E+0	1.938899E+0	1.915780E+0	1.918310E+0	1.864663E+0	1.962371E+0	1.803262E+0	1.810241E+0	1.830601E+0	1.903371E+0	1.828793E+0	1.900944E+0	1.938484E+0	1.929272E+0	1.935141E+0	1.957776E+0	1.931483E+0	1.933653E+0	1.851468E+0	1.896577E+0	1.904879E+0	1.950573E+0	1.857192E+0	1.886214E+0	1.964204E+0	1.885149E+0	1.924358E+0	1.836356E+0	1.876389E+0	1.861024E+0	1.893419E+0	1.831025E+0	1.976354E+0	1.882914E+0	1.879089E+0	1.862598E+0	1.924237E+0	1.889239E+0	1.895320E+0	1.913970E+0	1.782149E+0	1.861590E+0	1.867197E+0	1.875618E+0	1.954851E+0	1.817311E+0	1.912506E+0	1.968589E+0	1.843128E+0	1.825096E+0	1.868019E+0	1.851676E+0	1.824897E+0	1.872083E+0	1.931123E+0	1.867467E+0	1.851705E+0	1.876037E+0	1.891575E+0	1.868871E+0	1.762585E+0	1.893541E+0	1.993176E+0	1.834052E+0	1.909345E+0	1.794067E+0	1.849657E+0	1.951025E+0	1.930016E+0	1.857112E+0	1.801718E+0	1.891019E+0	1.813344E+0	1.858883E+0	1.852241E+0	1.904559E+0	1.879146E+0	1.907184E+0	1.797249E+0	1.911226E+0	1.866064E+0	1.942740E+0	1.850714E+0	1.884077E+0	1.872704E+0	1.934395E+0	1.881853E+0	1.844808E+0	1.866876E+0	1.929976E+0	1.930529E+0	1.904524E+0	1.890926E+0	1.771954E+0	1.849510E+0	1.837336E+0	1.903414E+0	1.908969E+0	1.836916E+0	1.857630E+0	1.863921E+0	1.927978E+0	1.790011E+0	1.878523E+0	1.846730E+0	1.838027E+0	1.820761E+0	1.862544E+0	1.890198E+0	1.881018E+0	1.830241E+0	1.873933E+0	1.901117E+0	1.839922E+0	1.831006E+0	1.838405E+0	1.936464E+0	1.820600E+0	1.868477E+0	1.834768E+0	1.847241E+0	1.895923E+0	1.762323E+0	1.865771E+0	1.885331E+0	1.884687E+0	1.809934E+0	1.856356E+0	1.755970E+0	1.870146E+0
5.354110E+2	1.765254E+0	1.775755E+0	1.731370E+0	1.683784E+0	1.731032E+0	1.768615E+0	1.747907E+0	1.739232E+0	1.711791E+0	1.734000E+0	1.793461E+0	1.709022E+0	1.761255E+0	1.716350E+0	1.755857E+0	1.746073E+0	1.701699E+0	1.795410E+0	1.734729E+0	1.818571E+0	1.753075E+0	1.689335E+0	1.686920E+0	1.713213E+0	1.708505E+0	1.743215E+0	1.734966E+0	1.657239E+0	1.713951E+0	1.687234E+0	1.671558E+0	1.680009E+0	1.669813E+0	1.686419E+0	1.730599E+0	1.699468E+0	1.692345E+0	1.716585E+0	1.707827E+0	1.736083E+0	1.697949E+0	1.704494E+0	1.724998E+0	1.714491E+0	1.737299E+0	1.707955E+0	1.659049E+0	1.650736E+0	1.695175E+0	1.733319E+0	1.684514E+0	1.720448E+0	1.700753E+0	1.715548E+0	1.768602E+0	1.769248E+0	1.734819E+0	1.749805E+0	1.767564E+0	1.696810E+0	1.681433E+0	1.719224E+0	1.717933E+0	1.682234E+0	1.753516E+0	1.728232E+0	1.766430E+0	1.638470E+0	1.635042E+0	1.709640E+0	1.725237E+0	1.718303E+0	1.710817E+0	1.638731E+0	1.704416E+0	1.706779E+0	1.675703E+0	1.666860E+0	1.691653E+0	1.683957E+0	1.683404E+0	1.740514E+0	1.708539E+0	1.748153E+0	1.639603E+0	1.675420E+0	1.705571E+0	1.641316E+0	1.713795E+0	1.698898E+0	1.784063E+0	1.682648E+0	1.646172E+0	1.711246E+0	1.709019E+0	1.572951E+0	1.627841E+0	1.721072E+0	1.704694E+0	1.718315E+0	1.731628E+0	1.751216E+0	1.728989E+0	1.713216E+0	1.711146E+0	1.664854E+0	1.731771E+0	1.728250E+0	1.704111E+0	1.657857E+0	1.670137E+0	1.611760E+0	1.693174E+0	1.655485E+0	1.720260E+0	1.689309E+0	1.749523E+0	1.653330E+0	1.719224E+0	1.725774E+0	1.772839E+0	1.649842E+0	1.683378E+0	1.670516E+0	1.718032E+0	1.645654E+0	1.692302E+0	1.665362E+0	1.693565E+0	1.719624E+0	1.677148E+0	1.731171E+0	1.654066E+0	1.665000E+0	1.714960E+0	1.670054E+0	1.708410E+0	1.685950E+0	1.718080E+0	1.599076E+0	1.678857E+0	1.594834E+0	1.737771E+0	1.698875E+0	1.657939E+0	1.635169E+0	1.672290E+0	1.697060E+0	1.689195E+0	1.713658E+0	1.695450E+0	1.669184E+0	1.693811E+0	1.706941E+0	1.579474E+0	1.663515E+0	1.681805E+0	1.662390E+0	1.725156E+0	1.712656E+0	1.660257E+0	1.654549E+0	1.700573E+0	1.741247E+0	1.659309E+0	1.635585E+0	1.701319E+0	1.653194E+0	1.680463E+0
5.355630E+2	1.536979E+0	1.446470E+0	1.579529E+0	1.462245E+0	1.527195E+0	1.529355E+0	1.446146E+0	1.555326E+0	1.484301E+0	1.531013E+0	1.549235E+0	1.464727E+0	1.533657E+0	1.462613E+0	1.537759E+0	1.509432E+0	1.530885E+0	1.549754E+0	1.490086E+0	1.514047E+0	1.585069E+0	1.509924E+0	1.464668E+0	1.442361E+0	1.466922E+0	1.533740E+0	1.459050E+0	1.459020E+0	1.492563E+0	1.481592E+0	1.453696E+0	1.452708E+0	1.517802E+0	1.501663E+0	1.452759E+0	1.572248E+0	1.478116E+0	1.429919E+0	1.506935E+0	1.455050E+0	1.419271E+0	1.452647E+0	1.495017E+0	1.509308E+0	1.518964E+0	1.459343E+0	1.418761E+0	1.535203E+0	1.495591E+0	1.474060E+0	1.464050E+0	1.530715E+0	1.466616E+0	1.499855E+0	1.488574E+0	1.477557E+0	1.526550E+0	1.573608E+0	1.437466E+0	1.523892E+0	1.505921E+0	1.493805E+0	1.467993E+0	1.455818E+0	1.523277E+0	1.503440E+0	1.473436E+0	1.450461E+0	1.413989E+0	1.451516E+0	1.497897E+0	1.502054E+0	1.478144E+0	1.487165E+0	1.451038E+0	1.496726E+0	1.462788E+0	1.412586E+0	1.517930E+0	1.464747E+0	1.501826E+0	1.488966E+0	1.469159E+0	1.482068E+0	1.472969E+0	1.402791E+0	1.454481E+0	1.464590E+0	1.498539E+0	1.490659E+0	1.489588E+0	1.516617E+0	1.497775E+0	1.510173E+0	1.510209E+0	1.465392E+0	1.455287E+0	1.480603E+0	1.549647E+0	1.466184E+0	1.516378E+0	1.506088E+0	1.458485E+0	1.458758E+0	1.436474E+0	1.443230E+0	1.499928E+0	1.500213E+0	1.443809E+0	1.454108E+0	1.436502E+0	1.444517E+0	1.456762E+0	1.430805E+0	1.555288E+0	1.415016E+0	1.549306E+0	1.425815E+0	1.524448E+0	1.476146E+0	1.469832E+0	1.433561E+0	1.504085E+0	1.492056E+0	1.576605E+0	1.459899E+0	1.565424E+0	1.539416E+0	1.501620E+0	1.452924E+0	1.457081E+0	1.495123E+0	1.461418E+0	1.486267E+0	1.465092E+0	1.477787E+0	1.489525E+0	1.418108E+0	1.477154E+0	1.442601E+0	1.514889E+0	1.432520E+0	1.521042E+0	1.421103E+0	1.554853E+0	1.461433E+0	1.482042E+0	1.554449E+0	1.437664E+0	1.435170E+0	1.485739E+0	1.478604E+0	1.467322E+0	1.521244E+0	1.426078E+0	1.471076E+0	1.502272E+0	1.482683E+0	1.542515E+0	1.524179E+0	1.471956E+0	1.412774E+0	1.505487E+0	1.479551E+0	1.434387E+0	1.431047E+0	1.457227E+0	1.470565E+0	1.490540E+0
5.357140E+2	1.251238E+0	1.246192E+0	1.282386E+0	1.180009E+0	1.244948E+0	1.237142E+0	1.272379E+0	1.302333E+0	1.188790E+0	1.244259E+0	1.258821E+0	1.287934E+0	1.265728E+0	1.249068E+0	1.270924E+0	1.243784E+0	1.223806E+0	1.275728E+0	1.216912E+0	1.242523E+0	1.216735E+0	1.219206E+0	1.232508E+0	1.190811E+0	1.247931E+0	1.264687E+0	1.191686E+0	1.198393E+0	1.217794E+0	1.251835E+0	1.171058E+0	1.214661E+0	1.221939E+0	1.262370E+0	1.238656E+0	1.201924E+0	1.150489E+0	1.206532E+0	1.220001E+0	1.251628E+0	1.246708E+0	1.243335E+0	1.204455E+0	1.254124E+0	1.211381E+0	1.204403E+0	1.221049E+0	1.264517E+0	1.244597E+0	1.263031E+0	1.244394E+0	1.223361E+0	1.213295E+0	1.211636E+0	1.231310E+0	1.182065E+0	1.258199E+0	1.232794E+0	1.255975E+0	1.159796E+0	1.208101E+0	1.257002E+0	1.210679E+0	1.226259E+0	1.175735E+0	1.231964E+0	1.155586E+0	1.197062E+0	1.196819E+0	1.222063E+0	1.255099E+0	1.225799E+0	1.235576E+0	1.294871E+0	1.161152E+0	1.201384E+0	1.242174E+0	1.231764E+0	1.223067E+0	1.253259E+0	1.200854E+0	1.206178E+0	1.238934E+0	1.274167E+0	1.205361E+0	1.214000E+0	1.295760E+0	1.184268E+0	1.197379E+0	1.183095E+0	1.277623E+0	1.217869E+0	1.169174E+0	1.248485E+0	1.198219E+0	1.226088E+0	1.296316E+0	1.244976E+0	1.227971E+0	1.230323E+0	1.256140E+0	1.224572E+0	1.287428E+0	1.258531E+0	1.173728E+0	1.162237E+0	1.278617E+0	1.263599E+0	1.199023E+0	1.171889E+0	1.286238E+0	1.189178E+0	1.209627E+0	1.169006E+0	1.214621E+0	1.178738E+0	1.218898E+0	1.182644E+0	1.247077E+0	1.164783E+0	1.291289E+0	1.246293E+0	1.163811E+0	1.181099E+0	1.259623E+0	1.195107E+0	1.224334E+0	1.297079E+0	1.266983E+0	1.286562E+0	1.194314E+0	1.249375E+0	1.201103E+0	1.268338E+0	1.213139E+0	1.169351E+0	1.235778E+0	1.219648E+0	1.235289E+0	1.165643E+0	1.282670E+0	1.156590E+0	1.241669E+0	1.282060E+0	1.211461E+0	1.180301E+0	1.265021E+0	1.251907E+0	1.177300E+0	1.245577E+0	1.203956E+0	1.193412E+0	1.255544E+0	1.231763E+0	1.167031E+0	1.255480E+0	1.190266E+0	1.240793E+0	1.245180E+0	1.254439E+0	1.181527E+0	1.186470E+0	1.238136E+0	1.186059E+0	1.213621E+0	1.227079E+0	1.203765E+0	1.154963E+0	1.222316E+0
5.358600E+2	1.094448E+0	1.081906E+0	1.140762E+0	1.084485E+0	1.082260E+0	1.055802E+0	1.092625E+0	1.079198E+0	1.100085E+0	1.073327E+0	1.136736E+0	1.077439E+0	1.140886E+0	1.071699E+0	1.110024E+0	1.045571E+0	1.104982E+0	1.053544E+0	1.070943E+0	1.044460E+0	1.124154E+0	1.088758E+0	1.093107E+0	1.054127E+0	1.050242E+0	1.055717E+0	1.055002E+0	1.043687E+0	1.084549E+0	1.047309E+0	1.010584E+0	1.045742E+0	1.100291E+0	1.093373E+0	1.057239E+0	1.046467E+0	1.049743E+0	1.094369E+0	1.076250E+0	1.077435E+0	1.090504E+0	1.061799E+0	1.091034E+0	1.079428E+0	1.079733E+0	1.100036E+0	9.989474E-1	1.084397E+0	1.142974E+0	1.088650E+0	1.110118E+0	1.099207E+0	1.083228E+0	1.086931E+0	1.114184E+0	1.106819E+0	1.095607E+0	1.112147E+0	1.068915E+0	1.093111E+0	1.095389E+0	1.068508E+0	1.135346E+0	1.117601E+0	1.021654E+0	1.092378E+0	1.070524E+0	9.877903E-1	1.046897E+0	1.094170E+0	1.064292E+0	1.097962E+0	1.034859E+0	1.051278E+0	1.097481E+0	1.074843E+0	1.079395E+0	1.038845E+0	1.098886E+0	1.080275E+0	1.030341E+0	1.051135E+0	1.077848E+0	1.047957E+0	1.072804E+0	1.073267E+0	1.097636E+0	1.023288E+0	1.068790E+0	1.059342E+0	1.109149E+0	1.021710E+0	1.074487E+0	1.127205E+0	1.088898E+0	1.088622E+0	1.106491E+0	1.120862E+0	1.085844E+0	1.108087E+0	1.082904E+0	1.093405E+0	1.060876E+0	1.082465E+0	1.096900E+0	1.059193E+0	1.069538E+0	1.033998E+0	1.063302E+0	1.064122E+0	1.023087E+0	1.067484E+0	1.050159E+0	1.006642E+0	1.053042E+0	1.074778E+0	1.075582E+0	1.108542E+0	1.089825E+0	1.059223E+0	1.132781E+0	1.063478E+0	1.039706E+0	1.056310E+0	1.089216E+0	1.078593E+0	1.053935E+0	1.073445E+0	1.084196E+0	1.107885E+0	1.073675E+0	1.067076E+0	1.054266E+0	1.048384E+0	1.058619E+0	1.042823E+0	1.048268E+0	1.027866E+0	1.054226E+0	1.080791E+0	1.065168E+0	1.030016E+0	1.057702E+0	1.120572E+0	1.115611E+0	1.088491E+0	1.072032E+0	1.045181E+0	1.092881E+0	1.071898E+0	1.094067E+0	1.076924E+0	1.089673E+0	1.101632E+0	1.070648E+0	1.082549E+0	1.088361E+0	1.077296E+0	1.082017E+0	1.070835E+0	1.068105E+0	1.022766E+0	1.103289E+0	1.044193E+0	1.041738E+0	1.073903E+0	1.094198E+0	1.111713E+0	1.068519E+0
5.360070E+2	9.088780E-1	9.367851E-1	9.757821E-1	9.570739E-1	9.064511E-1	9.137731E-1	9.218924E-1	9.590561E-1	9.164793E-1	9.314786E-1	9.027910E-1	9.674426E-1	9.673649E-1	9.479615E-1	9.599535E-1	9.265502E-1	9.421368E-1	9.664095E-1	9.564754E-1	9.559114E-1	9.569849E-1	9.185093E-1	9.681676E-1	8.788957E-1	9.444963E-1	9.275792E-1	9.059577E-1	9.395029E-1	8.872239E-1	9.291706E-1	9.332111E-1	9.010461E-1	9.297521E-1	9.235347E-1	9.699817E-1	9.318677E-1	9.187841E-1	8.924222E-1	9.538237E-1	9.138314E-1	9.594861E-1	9.501473E-1	9.163232E-1	9.246798E-1	9.777083E-1	9.409071E-1	8.935695E-1	9.539156E-1	9.598737E-1	9.345070E-1	9.350854E-1	9.644235E-1	9.270996E-1	9.565944E-1	9.485622E-1	9.559666E-1	9.826727E-1	9.533182E-1	9.265630E-1	9.077423E-1	9.525175E-1	9.501374E-1	9.875802E-1	8.994670E-1	9.300707E-1	9.400352E-1	9.285564E-1	8.775968E-1	8.832054E-1	9.409142E-1	9.741599E-1	9.589664E-1	9.427859E-1	9.357829E-1	8.948495E-1	9.375062E-1	9.393198E-1	9.312335E-1	9.643574E-1	9.240434E-1	9.309009E-1	9.438871E-1	9.203569E-1	9.232650E-1	8.921947E-1	9.437454E-1	9.630661E-1	9.006376E-1	9.443562E-1	9.156120E-1	1.003151E+0	9.903890E-1	9.734015E-1	9.285256E-1	9.173280E-1	9.036754E-1	9.935492E-1	9.023913E-1	9.538336E-1	9.210156E-1	9.352093E-1	9.678193E-1	9.734306E-1	9.384967E-1	9.089465E-1	8.980857E-1	9.618436E-1	9.682849E-1	9.355351E-1	9.212114E-1	9.310263E-1	9.234732E-1	8.599350E-1	8.894524E-1	9.212172E-1	9.519028E-1	9.103263E-1	9.427681E-1	9.923934E-1	9.109243E-1	9.041082E-1	9.727686E-1	9.553622E-1	8.910978E-1	9.610744E-1	9.520320E-1	9.057737E-1	9.163854E-1	9.478310E-1	9.797297E-1	8.824721E-1	9.373184E-1	9.116754E-1	9.675257E-1	9.310458E-1	9.370631E-1	9.446794E-1	9.350726E-1	9.123780E-1	8.734320E-1	9.277434E-1	9.047460E-1	9.926237E-1	9.726691E-1	9.452076E-1	9.217825E-1	9.500165E-1	9.623465E-1	8.986019E-1	9.626216E-1	9.121707E-1	9.378065E-1	8.808828E-1	9.219744E-1	9.152847E-1	9.153919E-1	9.387852E-1	9.373084E-1	9.503084E-1	9.538956E-1	8.936092E-1	9.488952E-1	9.521997E-1	9.662623E-1	9.611701E-1	9.308211E-1	9.356196E-1	9.651295E-1	9.339325E-1
5.362630E+2	6.793684E-1	7.166933E-1	7.466646E-1	6.862593E-1	7.111401E-1	7.442287E-1	6.697218E-1	7.205263E-1	7.011434E-1	6.981769E-1	7.271334E-1	6.771187E-1	6.934877E-1	7.036047E-1	7.094649E-1	7.315935E-1	6.841269E-1	7.410989E-1	7.130620E-1	6.802617E-1	6.873399E-1	6.887533E-1	7.217903E-1	6.747946E-1	7.154481E-1	6.794083E-1	6.941511E-1	6.898548E-1	7.189209E-1	7.120166E-1	6.898387E-1	6.816566E-1	7.181150E-1	6.634653E-1	7.083178E-1	7.240080E-1	6.988401E-1	7.211255E-1	6.859294E-1	7.001465E-1	7.319044E-1	7.011824E-1	7.198184E-1	6.621943E-1	7.378133E-1	6.905522E-1	6.817260E-1	7.120781E-1	7.523907E-1	7.113787E-1	6.999262E-1	7.508542E-1	7.348743E-1	7.077543E-1	7.551210E-1	6.989047E-1	7.282680E-1	7.412131E-1	7.171277E-1	7.380818E-1	6.873323E-1	7.049821E-1	7.029922E-1	6.814650E-1	7.090233E-1	7.736987E-1	6.942239E-1	7.047809E-1	7.308880E-1	7.399080E-1	6.769369E-1	7.439164E-1	7.169748E-1	7.240432E-1	7.721224E-1	7.424894E-1	6.803532E-1	6.938988E-1	6.764917E-1	6.927198E-1	7.345069E-1	7.189060E-1	7.511119E-1	7.195525E-1	7.224970E-1	7.153266E-1	7.426329E-1	6.892637E-1	7.102901E-1	6.637172E-1	7.092927E-1	7.559962E-1	7.422508E-1	7.044506E-1	7.176489E-1	7.158267E-1	7.429018E-1	6.946235E-1	6.916933E-1	7.412659E-1	7.348754E-1	7.754427E-1	7.487973E-1	6.666117E-1	7.178546E-1	6.908062E-1	7.495717E-1	7.179538E-1	7.115035E-1	6.828690E-1	7.181282E-1	6.888243E-1	6.991649E-1	7.249234E-1	7.070204E-1	7.089405E-1	7.241616E-1	6.509217E-1	7.171905E-1	7.137084E-1	7.393234E-1	7.265961E-1	7.529226E-1	7.001319E-1	7.223715E-1	6.958490E-1	7.362218E-1	7.238539E-1	7.245375E-1	7.703422E-1	7.415560E-1	7.069533E-1	7.249808E-1	6.866917E-1	6.738269E-1	7.018330E-1	7.421287E-1	7.209024E-1	6.821196E-1	7.020768E-1	7.269901E-1	6.886850E-1	7.762236E-1	7.186767E-1	7.009855E-1	7.006090E-1	7.022677E-1	7.669619E-1	6.828005E-1	7.073665E-1	7.178825E-1	7.201322E-1	7.081144E-1	7.392935E-1	7.286477E-1	7.218507E-1	7.295227E-1	7.394061E-1	7.542210E-1	7.173401E-1	7.260981E-1	7.092437E-1	7.484938E-1	7.444982E-1	6.922170E-1	7.156948E-1	6.553197E-1	7.089470E-1	7.086239E-1
5.365140E+2	5.673278E-1	5.633374E-1	6.210710E-1	5.768614E-1	5.654733E-1	5.306875E-1	5.773273E-1	6.009554E-1	5.719703E-1	5.704567E-1	5.601857E-1	5.841550E-1	5.878449E-1	5.733742E-1	6.028490E-1	5.866174E-1	5.879406E-1	5.959318E-1	5.541375E-1	5.589401E-1	5.672686E-1	5.526992E-1	6.073176E-1	5.698745E-1	5.468357E-1	5.764517E-1	5.801557E-1	6.166515E-1	5.739685E-1	5.842621E-1	5.820714E-1	5.677032E-1	5.583529E-1	5.722307E-1	5.642818E-1	5.924988E-1	5.959496E-1	5.539612E-1	5.703473E-1	5.462879E-1	5.996586E-1	5.647813E-1	5.635240E-1	5.267029E-1	5.364860E-1	6.115277E-1	5.855789E-1	5.334921E-1	6.164453E-1	5.701878E-1	5.153040E-1	5.988587E-1	5.453733E-1	5.610639E-1	5.936240E-1	5.850288E-1	5.742661E-1	5.714089E-1	5.620470E-1	5.822522E-1	5.261083E-1	5.778634E-1	5.923447E-1	5.790926E-1	5.838340E-1	5.993540E-1	5.971792E-1	5.717421E-1	5.258803E-1	5.858135E-1	5.982654E-1	5.757195E-1	5.487141E-1	5.402054E-1	5.587081E-1	5.977044E-1	5.696979E-1	5.715498E-1	5.518473E-1	5.736250E-1	6.081138E-1	5.737090E-1	5.720340E-1	5.712172E-1	5.286435E-1	5.826589E-1	5.390059E-1	5.686740E-1	5.874141E-1	5.728682E-1	5.860521E-1	5.686388E-1	6.218802E-1	5.598404E-1	5.833702E-1	5.915227E-1	5.879671E-1	5.677405E-1	5.809461E-1	5.968500E-1	5.721917E-1	5.577975E-1	5.669187E-1	5.740701E-1	5.421826E-1	5.725813E-1	5.998895E-1	5.822648E-1	5.667837E-1	5.733291E-1	5.593188E-1	5.547510E-1	5.575629E-1	5.431602E-1	5.690337E-1	5.774094E-1	5.657989E-1	5.775211E-1	5.812287E-1	5.493875E-1	6.086015E-1	5.379395E-1	5.374435E-1	5.745039E-1	5.292993E-1	5.773522E-1	5.428778E-1	5.867593E-1	5.779967E-1	6.382674E-1	6.116883E-1	5.367800E-1	5.555641E-1	5.924567E-1	5.857046E-1	5.633782E-1	6.481179E-1	5.508424E-1	5.789194E-1	5.975126E-1	6.010535E-1	5.440121E-1	5.635391E-1	6.106801E-1	5.760389E-1	5.559557E-1	5.847158E-1	5.673167E-1	5.988376E-1	5.554450E-1	5.658229E-1	6.135726E-1	5.922470E-1	5.839677E-1	6.040795E-1	5.774219E-1	5.844181E-1	5.702936E-1	6.174937E-1	6.041342E-1	5.592397E-1	4.906177E-1	5.716712E-1	6.007175E-1	5.666191E-1	5.547682E-1	5.835350E-1	5.408625E-1	5.999568E-1
5.367870E+2	4.928864E-1	4.624983E-1	5.351188E-1	4.905846E-1	4.903089E-1	4.903676E-1	4.962592E-1	4.991971E-1	5.276190E-1	5.073755E-1	4.810396E-1	5.106925E-1	4.848625E-1	5.025907E-1	5.078325E-1	4.882161E-1	4.869308E-1	5.307090E-1	4.575758E-1	5.093667E-1	4.992769E-1	4.997625E-1	5.555864E-1	5.202023E-1	5.357370E-1	5.601720E-1	5.283569E-1	5.062661E-1	4.919843E-1	4.876231E-1	4.792130E-1	5.136958E-1	4.819986E-1	5.388947E-1	4.812520E-1	4.814516E-1	5.087301E-1	4.992313E-1	5.155966E-1	4.907975E-1	5.252066E-1	4.872896E-1	5.179954E-1	5.231166E-1	5.187411E-1	5.124582E-1	5.008121E-1	5.479245E-1	5.144277E-1	5.486501E-1	5.554322E-1	5.531322E-1	4.850627E-1	5.076794E-1	5.470837E-1	5.173041E-1	5.371229E-1	5.059499E-1	5.210482E-1	4.866990E-1	5.095109E-1	5.386648E-1	5.066009E-1	5.167290E-1	5.108409E-1	5.055498E-1	4.955952E-1	4.933990E-1	5.092371E-1	4.905447E-1	4.871407E-1	5.314882E-1	5.250307E-1	5.298686E-1	5.239743E-1	4.751270E-1	5.116416E-1	5.242950E-1	5.265955E-1	5.391169E-1	5.424680E-1	5.173227E-1	5.085083E-1	4.798731E-1	5.412425E-1	5.090322E-1	5.156648E-1	4.656565E-1	4.801461E-1	5.239670E-1	5.064979E-1	5.007579E-1	5.394890E-1	5.028655E-1	5.136127E-1	5.060187E-1	5.068831E-1	4.846040E-1	5.155418E-1	5.161805E-1	5.061625E-1	5.474450E-1	5.369635E-1	5.138560E-1	4.926575E-1	5.272347E-1	5.154693E-1	5.085725E-1	5.249454E-1	5.112396E-1	5.286165E-1	5.014969E-1	5.029362E-1	4.700401E-1	5.277380E-1	4.827856E-1	5.256349E-1	5.090091E-1	4.994167E-1	5.140498E-1	5.074178E-1	5.112288E-1	5.063418E-1	5.190846E-1	5.164519E-1	4.752052E-1	5.004118E-1	4.884944E-1	4.961503E-1	5.089484E-1	5.060857E-1	5.260083E-1	4.828468E-1	5.050106E-1	4.862320E-1	5.328139E-1	4.906017E-1	4.896513E-1	5.029817E-1	4.923634E-1	5.703218E-1	5.054717E-1	5.133410E-1	5.149836E-1	5.161862E-1	5.137097E-1	5.291602E-1	4.917137E-1	5.218729E-1	5.381955E-1	4.920389E-1	4.763925E-1	5.279962E-1	5.217555E-1	5.258014E-1	5.171413E-1	5.261863E-1	5.105449E-1	5.265253E-1	5.238044E-1	4.910331E-1	4.849027E-1	5.357290E-1	5.307277E-1	5.137979E-1	5.088754E-1	5.321749E-1	5.003137E-1	5.039455E-1
5.370120E+2	5.261786E-1	4.811771E-1	5.104079E-1	4.407107E-1	5.098121E-1	5.000887E-1	5.053795E-1	4.629871E-1	4.788626E-1	5.042221E-1	4.974404E-1	5.038668E-1	5.061047E-1	4.998089E-1	4.703627E-1	4.649110E-1	5.041198E-1	4.934300E-1	4.739308E-1	5.015301E-1	4.502959E-1	4.814379E-1	5.050414E-1	4.710860E-1	5.009441E-1	5.088484E-1	4.969347E-1	5.028494E-1	4.810217E-1	4.726395E-1	5.127275E-1	5.106700E-1	4.787658E-1	5.059272E-1	5.002803E-1	4.886660E-1	4.847599E-1	4.797877E-1	4.869891E-1	4.947432E-1	4.785821E-1	4.395996E-1	4.711827E-1	4.746230E-1	5.118425E-1	5.010411E-1	4.940997E-1	4.902176E-1	4.768253E-1	4.641574E-1	4.981099E-1	5.215732E-1	5.194238E-1	4.844264E-1	4.938189E-1	5.460210E-1	4.901823E-1	4.831159E-1	5.428367E-1	4.711546E-1	4.845673E-1	5.253893E-1	4.761647E-1	4.673954E-1	4.744417E-1	4.772062E-1	4.903588E-1	4.653356E-1	4.780507E-1	4.940745E-1	4.848232E-1	5.269732E-1	5.151806E-1	4.946766E-1	4.795310E-1	5.356644E-1	5.129652E-1	4.850432E-1	4.942061E-1	4.938588E-1	5.080537E-1	5.017855E-1	5.149457E-1	5.055332E-1	4.708195E-1	4.892007E-1	5.232640E-1	4.896318E-1	4.969575E-1	4.929554E-1	4.924313E-1	4.955504E-1	4.776473E-1	5.048133E-1	4.821214E-1	4.942470E-1	4.875261E-1	4.939515E-1	4.850822E-1	4.849162E-1	5.004550E-1	5.015786E-1	4.838776E-1	5.126475E-1	4.640477E-1	4.829120E-1	5.123933E-1	5.409272E-1	4.563903E-1	5.009383E-1	4.850541E-1	4.669699E-1	4.952965E-1	4.840288E-1	4.984020E-1	4.934805E-1	4.976538E-1	5.025420E-1	4.869992E-1	4.994650E-1	5.387371E-1	5.081839E-1	4.989026E-1	4.773335E-1	4.917180E-1	4.851392E-1	4.913123E-1	5.149143E-1	5.160147E-1	4.873446E-1	4.715643E-1	4.861024E-1	4.601007E-1	4.954513E-1	5.003546E-1	4.883113E-1	5.039928E-1	4.854320E-1	4.840471E-1	4.666971E-1	5.038198E-1	4.884825E-1	5.101559E-1	5.231661E-1	5.064407E-1	4.585577E-1	5.357227E-1	4.810881E-1	4.909233E-1	5.036953E-1	4.964081E-1	4.983325E-1	4.739000E-1	5.174118E-1	5.168238E-1	5.132238E-1	5.216751E-1	5.026383E-1	5.323074E-1	5.007669E-1	5.211938E-1	4.763497E-1	5.236712E-1	4.856356E-1	5.169120E-1	5.020767E-1	4.937106E-1	4.728747E-1	5.092786E-1
5.372900E+2	4.908106E-1	4.903394E-1	5.440505E-1	5.118296E-1	4.873042E-1	4.942051E-1	5.069474E-1	4.849297E-1	5.320109E-1	5.051097E-1	5.391979E-1	4.991649E-1	5.243008E-1	4.932888E-1	4.861250E-1	5.133627E-1	5.132663E-1	5.228513E-1	5.325692E-1	5.080978E-1	5.199558E-1	5.282555E-1	5.479641E-1	5.424366E-1	5.619712E-1	5.484920E-1	4.956053E-1	5.328490E-1	5.577343E-1	5.016505E-1	5.307820E-1	5.207826E-1	5.186822E-1	5.331570E-1	5.179511E-1	5.580154E-1	5.328817E-1	5.419405E-1	5.169119E-1	5.151916E-1	5.255758E-1	5.152635E-1	5.127576E-1	5.261409E-1	5.581704E-1	4.953887E-1	5.305746E-1	5.187651E-1	5.397396E-1	5.248774E-1	5.574726E-1	5.594043E-1	5.075371E-1	5.041177E-1	5.143618E-1	5.459788E-1	5.409038E-1	5.179228E-1	5.347280E-1	4.989220E-1	5.352655E-1	5.151795E-1	5.603183E-1	5.210736E-1	5.543640E-1	5.139498E-1	5.054208E-1	4.777439E-1	5.352808E-1	5.395204E-1	5.122316E-1	5.752375E-1	5.128043E-1	5.326122E-1	5.023447E-1	5.052317E-1	4.932459E-1	4.909172E-1	5.052106E-1	5.313355E-1	5.287088E-1	5.127731E-1	5.366492E-1	5.428949E-1	5.176260E-1	5.217247E-1	5.419444E-1	5.338593E-1	5.222470E-1	4.788767E-1	5.287076E-1	5.442971E-1	5.174299E-1	4.869305E-1	5.078298E-1	5.114854E-1	5.527031E-1	5.411765E-1	5.243688E-1	5.491057E-1	5.047445E-1	5.327930E-1	5.167770E-1	5.200250E-1	5.385324E-1	5.078107E-1	5.252701E-1	5.251433E-1	5.131031E-1	4.976567E-1	5.144729E-1	5.019925E-1	5.202121E-1	5.116818E-1	5.331726E-1	5.214695E-1	5.154387E-1	5.219133E-1	5.473957E-1	5.501688E-1	5.794671E-1	5.093371E-1	5.141541E-1	5.236797E-1	5.203396E-1	5.027645E-1	5.302276E-1	5.613355E-1	5.393124E-1	5.106083E-1	4.942922E-1	5.414938E-1	5.278850E-1	5.403372E-1	5.376761E-1	4.899670E-1	5.359557E-1	5.702771E-1	5.289046E-1	5.099789E-1	5.360964E-1	4.901823E-1	5.582326E-1	5.659830E-1	5.399157E-1	5.077324E-1	5.152602E-1	5.224980E-1	5.356916E-1	5.599268E-1	5.062337E-1	5.370363E-1	5.429560E-1	5.349861E-1	5.215197E-1	5.091189E-1	5.349569E-1	5.071468E-1	5.452493E-1	5.417995E-1	5.011528E-1	5.174875E-1	5.340185E-1	5.508735E-1	5.293661E-1	5.245725E-1	5.504947E-1	5.153507E-1	5.421078E-1
5.375160E+2	6.041419E-1	6.148209E-1	6.208918E-1	5.804668E-1	6.255992E-1	5.804384E-1	5.946128E-1	6.267051E-1	6.007071E-1	6.181383E-1	6.119130E-1	5.875632E-1	6.102626E-1	6.111728E-1	6.211640E-1	6.048521E-1	5.787117E-1	5.999085E-1	5.951745E-1	6.197006E-1	6.281231E-1	6.280203E-1	6.106130E-1	6.105100E-1	6.279803E-1	6.272905E-1	6.118966E-1	6.256690E-1	5.986535E-1	6.333742E-1	6.354322E-1	6.095774E-1	6.391522E-1	5.980850E-1	6.008272E-1	5.866962E-1	6.324325E-1	6.167742E-1	6.024167E-1	6.123124E-1	6.128013E-1	6.117193E-1	6.366326E-1	5.923084E-1	6.049288E-1	6.036252E-1	5.851223E-1	5.966717E-1	6.418794E-1	6.279848E-1	5.985356E-1	6.123348E-1	6.209407E-1	6.244685E-1	6.095236E-1	6.310072E-1	6.217893E-1	6.092553E-1	6.195157E-1	6.360124E-1	6.193095E-1	6.123666E-1	6.440051E-1	6.065642E-1	5.946444E-1	6.159701E-1	6.110000E-1	6.045638E-1	6.033562E-1	6.508295E-1	6.153522E-1	6.218037E-1	6.224209E-1	5.903800E-1	5.867697E-1	6.068026E-1	6.040343E-1	6.082144E-1	5.928386E-1	6.024789E-1	6.445310E-1	6.388479E-1	6.428454E-1	5.861377E-1	6.056639E-1	6.086622E-1	5.848649E-1	6.084135E-1	6.372758E-1	5.913045E-1	6.461717E-1	6.203269E-1	5.986918E-1	5.818866E-1	5.623842E-1	5.781228E-1	6.425589E-1	6.139088E-1	6.215556E-1	6.246114E-1	6.394488E-1	6.395140E-1	6.371658E-1	6.135229E-1	6.173322E-1	6.137998E-1	6.419833E-1	6.317053E-1	6.119896E-1	5.870189E-1	6.361786E-1	6.028713E-1	5.989599E-1	5.767144E-1	5.901723E-1	6.071781E-1	5.894082E-1	5.845786E-1	6.016982E-1	6.481365E-1	6.466351E-1	5.669436E-1	6.163246E-1	6.186654E-1	6.099943E-1	5.929115E-1	5.949907E-1	5.955959E-1	6.543297E-1	6.352991E-1	6.230050E-1	6.518314E-1	6.401558E-1	6.285029E-1	6.282388E-1	6.005031E-1	6.682237E-1	5.932421E-1	6.209965E-1	5.892801E-1	6.565287E-1	5.914462E-1	6.366686E-1	5.914369E-1	6.236282E-1	6.346347E-1	6.196032E-1	6.124586E-1	6.086449E-1	6.114347E-1	6.402530E-1	6.520787E-1	6.198646E-1	6.151665E-1	5.851139E-1	6.117193E-1	6.092018E-1	6.440422E-1	6.362203E-1	6.558221E-1	6.373529E-1	6.084047E-1	6.018932E-1	6.010987E-1	5.900771E-1	6.078797E-1	6.473040E-1	6.376570E-1	5.928130E-1
5.377790E+2	6.592340E-1	6.537703E-1	6.758030E-1	6.417471E-1	6.505386E-1	6.588386E-1	6.480062E-1	6.773490E-1	7.043118E-1	6.241529E-1	6.926399E-1	6.797787E-1	6.747945E-1	6.618175E-1	6.589342E-1	6.375784E-1	6.650085E-1	6.704937E-1	6.577228E-1	6.840439E-1	6.434066E-1	6.439554E-1	6.806823E-1	6.719175E-1	6.896604E-1	6.779707E-1	6.806978E-1	6.654359E-1	6.873722E-1	6.899737E-1	6.792211E-1	6.580486E-1	6.862211E-1	6.367789E-1	6.363360E-1	7.078975E-1	6.146517E-1	6.687283E-1	6.623103E-1	6.932235E-1	6.701886E-1	6.796628E-1	6.749898E-1	6.530767E-1	6.977957E-1	6.870663E-1	6.685004E-1	6.876064E-1	7.252966E-1	6.762811E-1	7.030547E-1	6.755607E-1	7.023974E-1	7.125387E-1	6.541217E-1	6.903556E-1	6.933771E-1	6.900616E-1	6.693468E-1	6.738636E-1	6.840733E-1	6.353980E-1	7.289291E-1	6.531635E-1	7.022004E-1	6.457105E-1	6.826104E-1	6.690953E-1	6.552296E-1	6.555279E-1	6.266322E-1	6.661312E-1	6.870073E-1	6.463856E-1	6.968365E-1	6.545254E-1	6.476063E-1	6.675906E-1	6.555822E-1	6.635738E-1	6.409759E-1	6.997330E-1	6.823336E-1	6.464977E-1	6.554694E-1	7.204458E-1	6.589619E-1	6.613021E-1	6.839395E-1	6.397693E-1	6.968873E-1	6.537290E-1	7.127406E-1	6.672702E-1	6.611347E-1	6.827209E-1	6.948897E-1	6.736129E-1	7.027482E-1	6.759002E-1	6.713816E-1	6.789434E-1	7.091696E-1	6.468789E-1	6.878450E-1	6.493627E-1	6.667707E-1	6.479559E-1	6.783684E-1	6.364616E-1	7.007437E-1	6.763854E-1	6.643178E-1	6.958366E-1	6.620365E-1	6.216933E-1	7.024521E-1	6.420675E-1	7.016917E-1	7.046936E-1	7.000246E-1	6.889149E-1	6.628784E-1	6.880114E-1	6.575236E-1	6.956186E-1	6.916911E-1	6.868501E-1	6.995528E-1	6.373490E-1	6.829113E-1	6.623084E-1	6.533377E-1	6.571231E-1	6.578691E-1	6.580073E-1	6.916016E-1	6.595105E-1	7.299802E-1	6.487120E-1	6.289041E-1	6.344979E-1	7.181088E-1	7.299052E-1	6.995499E-1	6.264510E-1	6.661818E-1	6.674296E-1	6.493763E-1	6.548332E-1	6.946389E-1	7.014535E-1	6.960628E-1	6.940575E-1	6.915785E-1	6.721709E-1	6.829037E-1	6.277263E-1	7.057240E-1	7.076364E-1	6.581308E-1	6.613566E-1	6.693776E-1	6.365284E-1	6.980981E-1	6.847083E-1	6.726092E-1	6.600256E-1	7.114908E-1
5.380160E+2	7.893300E-1	7.526264E-1	7.815798E-1	7.405372E-1	7.770874E-1	7.748234E-1	7.491439E-1	7.559550E-1	7.727704E-1	7.381403E-1	7.597809E-1	7.709588E-1	7.641781E-1	7.661012E-1	7.743239E-1	8.230048E-1	7.796596E-1	7.735164E-1	7.419117E-1	7.882046E-1	7.907540E-1	7.701549E-1	7.858076E-1	7.982549E-1	8.332227E-1	8.072711E-1	7.917509E-1	8.201924E-1	7.989985E-1	8.086945E-1	7.642291E-1	7.604379E-1	8.125087E-1	7.893985E-1	7.813651E-1	8.268745E-1	7.907557E-1	8.243293E-1	7.949089E-1	8.207064E-1	8.144850E-1	8.208598E-1	7.935744E-1	7.810908E-1	7.788667E-1	7.546011E-1	7.963106E-1	8.039973E-1	8.227134E-1	7.866195E-1	8.327265E-1	8.252082E-1	7.878269E-1	7.945073E-1	7.996154E-1	8.093643E-1	7.949222E-1	8.185894E-1	7.950313E-1	7.840487E-1	8.012297E-1	8.019491E-1	7.953331E-1	7.919292E-1	7.917209E-1	7.510646E-1	7.928413E-1	7.528968E-1	7.697181E-1	7.705696E-1	8.009262E-1	8.168378E-1	8.177276E-1	7.470133E-1	7.696687E-1	7.911593E-1	8.394774E-1	7.662774E-1	8.213631E-1	7.907827E-1	7.478037E-1	7.697034E-1	8.213913E-1	7.549603E-1	8.059061E-1	7.891304E-1	7.914385E-1	7.816706E-1	7.996401E-1	7.433401E-1	8.531533E-1	7.616771E-1	7.964357E-1	7.799141E-1	7.620013E-1	7.575505E-1	8.019838E-1	7.675286E-1	7.801556E-1	8.079010E-1	7.914915E-1	7.410837E-1	7.683915E-1	8.133479E-1	8.097901E-1	7.675992E-1	7.826038E-1	7.657475E-1	7.579533E-1	7.460981E-1	7.682422E-1	7.865140E-1	7.505917E-1	7.554569E-1	7.998680E-1	7.844786E-1	7.777024E-1	7.691087E-1	8.183227E-1	8.021595E-1	7.847768E-1	7.462061E-1	7.896802E-1	7.328472E-1	7.504445E-1	7.601321E-1	8.414006E-1	7.682770E-1	8.075789E-1	7.909546E-1	7.548863E-1	7.991302E-1	7.726167E-1	7.743269E-1	7.833672E-1	7.674432E-1	7.884872E-1	8.001998E-1	7.483989E-1	7.784905E-1	8.161388E-1	7.620700E-1	8.114395E-1	7.546571E-1	7.710515E-1	7.441213E-1	7.984115E-1	8.010113E-1	7.382632E-1	8.237953E-1	7.506742E-1	8.141745E-1	7.770570E-1	7.673768E-1	7.676422E-1	7.489155E-1	7.906369E-1	7.493996E-1	7.764638E-1	8.288865E-1	7.510672E-1	7.465942E-1	7.650156E-1	7.731361E-1	7.571528E-1	8.007207E-1	7.793629E-1	7.429918E-1	7.755605E-1
5.382900E+2	1.005918E+0	9.850611E-1	1.002918E+0	9.213001E-1	9.350972E-1	9.819882E-1	9.464066E-1	9.926967E-1	9.548469E-1	9.494590E-1	9.875644E-1	9.213666E-1	1.041265E+0	9.700086E-1	9.978494E-1	9.626413E-1	9.667374E-1	9.449574E-1	9.295594E-1	9.486064E-1	1.002593E+0	9.863152E-1	9.765280E-1	9.656511E-1	9.247687E-1	1.065534E+0	9.536362E-1	9.862302E-1	1.030844E+0	9.818730E-1	9.481090E-1	9.996893E-1	1.030459E+0	9.981389E-1	1.022288E+0	9.881145E-1	9.709303E-1	9.631897E-1	1.009502E+0	9.868215E-1	9.626563E-1	9.390367E-1	9.667945E-1	9.833428E-1	9.750550E-1	9.601746E-1	9.895825E-1	9.750042E-1	9.944896E-1	9.662542E-1	9.866578E-1	9.832350E-1	9.975541E-1	9.492159E-1	9.978972E-1	9.997846E-1	1.030836E+0	9.970885E-1	1.009115E+0	9.960419E-1	9.637347E-1	9.356732E-1	9.931009E-1	9.936809E-1	9.955763E-1	9.762593E-1	9.626073E-1	9.242827E-1	9.320659E-1	9.942335E-1	9.586100E-1	1.068549E+0	9.457327E-1	9.707534E-1	9.802531E-1	9.648762E-1	1.034587E+0	9.481942E-1	9.864688E-1	9.489477E-1	9.539340E-1	9.461653E-1	9.744180E-1	1.009265E+0	9.010805E-1	9.758350E-1	9.786296E-1	9.057067E-1	9.501582E-1	9.328654E-1	9.578415E-1	9.893809E-1	9.884058E-1	9.926973E-1	9.708143E-1	9.654792E-1	1.020282E+0	9.548042E-1	9.991213E-1	9.799003E-1	1.010968E+0	9.879315E-1	9.611913E-1	9.898868E-1	1.008616E+0	9.551620E-1	1.001572E+0	9.760738E-1	9.762477E-1	9.355565E-1	9.613421E-1	9.966227E-1	9.733586E-1	9.693359E-1	1.021854E+0	1.006360E+0	9.885298E-1	9.426352E-1	9.678862E-1	9.315278E-1	1.006035E+0	9.325059E-1	9.218794E-1	9.675258E-1	1.033140E+0	9.628286E-1	9.751290E-1	9.796587E-1	9.336007E-1	9.590199E-1	9.456421E-1	9.477608E-1	9.715016E-1	9.658750E-1	9.764131E-1	9.844065E-1	9.680861E-1	9.376552E-1	9.964733E-1	8.856733E-1	9.751044E-1	9.660791E-1	9.870140E-1	1.034020E+0	9.746141E-1	9.336714E-1	9.590244E-1	9.337733E-1	9.210556E-1	9.252513E-1	9.799999E-1	9.591988E-1	9.867388E-1	9.635364E-1	1.058030E+0	1.033939E+0	9.895198E-1	1.008945E+0	1.043342E+0	9.524006E-1	9.840240E-1	9.242604E-1	9.738598E-1	9.768314E-1	1.013628E+0	9.520065E-1	9.878296E-1	9.794369E-1	1.046970E+0
5.385110E+2	1.100079E+0	1.143455E+0	1.181745E+0	1.075359E+0	1.165349E+0	1.126816E+0	1.152696E+0	1.187505E+0	1.169409E+0	1.134524E+0	1.143228E+0	1.139467E+0	1.130648E+0	1.108317E+0	1.148418E+0	1.140389E+0	1.152321E+0	1.152758E+0	1.140283E+0	1.175371E+0	1.170998E+0	1.118651E+0	1.194993E+0	1.170542E+0	1.212389E+0	1.246116E+0	1.079743E+0	1.131869E+0	1.180778E+0	1.157437E+0	1.122350E+0	1.140316E+0	1.142976E+0	1.176503E+0	1.203262E+0	1.178790E+0	1.142630E+0	1.152556E+0	1.192370E+0	1.177983E+0	1.174618E+0	1.128698E+0	1.109019E+0	1.184315E+0	1.243668E+0	1.143802E+0	1.149852E+0	1.192754E+0	1.151798E+0	1.103215E+0	1.183445E+0	1.144953E+0	1.117785E+0	1.174654E+0	1.181555E+0	1.204946E+0	1.139278E+0	1.162825E+0	1.159237E+0	1.161810E+0	1.200179E+0	1.125712E+0	1.118615E+0	1.138112E+0	1.166248E+0	1.140119E+0	1.113054E+0	1.096648E+0	1.139279E+0	1.142840E+0	1.121187E+0	1.159155E+0	1.172861E+0	1.123878E+0	1.192330E+0	1.136243E+0	1.168631E+0	1.108773E+0	1.112219E+0	1.148343E+0	1.101734E+0	1.103910E+0	1.185595E+0	1.136851E+0	1.115024E+0	1.145429E+0	1.192550E+0	1.133517E+0	1.154955E+0	1.090926E+0	1.178784E+0	1.139813E+0	1.169143E+0	1.116928E+0	1.140409E+0	1.105272E+0	1.132546E+0	1.158683E+0	1.229731E+0	1.156503E+0	1.196021E+0	1.156411E+0	1.127683E+0	1.116777E+0	1.073101E+0	1.137274E+0	1.152069E+0	1.134019E+0	1.155196E+0	1.129502E+0	1.122289E+0	1.156490E+0	1.079390E+0	1.119687E+0	1.151011E+0	1.153937E+0	1.138828E+0	1.106316E+0	1.178016E+0	1.144948E+0	1.141314E+0	1.141564E+0	1.112557E+0	1.081584E+0	1.210275E+0	1.079093E+0	1.088305E+0	1.191902E+0	1.159511E+0	1.208509E+0	1.163055E+0	1.188588E+0	1.132009E+0	1.173800E+0	1.142265E+0	1.086002E+0	1.146422E+0	1.097610E+0	1.076853E+0	1.164339E+0	1.195647E+0	1.074003E+0	1.129757E+0	1.179487E+0	1.127200E+0	1.134587E+0	1.151464E+0	1.114818E+0	1.112576E+0	1.165119E+0	1.154691E+0	1.186160E+0	1.113993E+0	1.171985E+0	1.169567E+0	1.157379E+0	1.149167E+0	1.131259E+0	1.175815E+0	1.205277E+0	1.116898E+0	1.104614E+0	1.154929E+0	1.154468E+0	1.169531E+0	1.158585E+0	1.138808E+0	1.169856E+0	1.237668E+0
5.387700E+2	1.381599E+0	1.412382E+0	1.375406E+0	1.358302E+0	1.362792E+0	1.376400E+0	1.321173E+0	1.356481E+0	1.366764E+0	1.395301E+0	1.337825E+0	1.349632E+0	1.370085E+0	1.382990E+0	1.390787E+0	1.341680E+0	1.343911E+0	1.377854E+0	1.350257E+0	1.382125E+0	1.368592E+0	1.380559E+0	1.362007E+0	1.442834E+0	1.404149E+0	1.472816E+0	1.358044E+0	1.441601E+0	1.392247E+0	1.447457E+0	1.362916E+0	1.368914E+0	1.394316E+0	1.400755E+0	1.397159E+0	1.322133E+0	1.389878E+0	1.368575E+0	1.395064E+0	1.331664E+0	1.418621E+0	1.359560E+0	1.383464E+0	1.410280E+0	1.417807E+0	1.336948E+0	1.332988E+0	1.408740E+0	1.416483E+0	1.314913E+0	1.358168E+0	1.387430E+0	1.369014E+0	1.348395E+0	1.407635E+0	1.398802E+0	1.436733E+0	1.398904E+0	1.327925E+0	1.374582E+0	1.391427E+0	1.378294E+0	1.434128E+0	1.402707E+0	1.329393E+0	1.395894E+0	1.367672E+0	1.298877E+0	1.335720E+0	1.396606E+0	1.366553E+0	1.356801E+0	1.392230E+0	1.346250E+0	1.345724E+0	1.377437E+0	1.370818E+0	1.329203E+0	1.386671E+0	1.368660E+0	1.373339E+0	1.345765E+0	1.322309E+0	1.356781E+0	1.341944E+0	1.377051E+0	1.349447E+0	1.317004E+0	1.390848E+0	1.314794E+0	1.405028E+0	1.299265E+0	1.430842E+0	1.356102E+0	1.322945E+0	1.304727E+0	1.358639E+0	1.380380E+0	1.360568E+0	1.315593E+0	1.393171E+0	1.413826E+0	1.348609E+0	1.368834E+0	1.376655E+0	1.382881E+0	1.380615E+0	1.366616E+0	1.370414E+0	1.332965E+0	1.390161E+0	1.328875E+0	1.403486E+0	1.301309E+0	1.308693E+0	1.355524E+0	1.365002E+0	1.366518E+0	1.397954E+0	1.337599E+0	1.457684E+0	1.338916E+0	1.355594E+0	1.402463E+0	1.383894E+0	1.290078E+0	1.352066E+0	1.368263E+0	1.498494E+0	1.428259E+0	1.369257E+0	1.359646E+0	1.370266E+0	1.357157E+0	1.301168E+0	1.380537E+0	1.399977E+0	1.342947E+0	1.349645E+0	1.402000E+0	1.395969E+0	1.320622E+0	1.382815E+0	1.357276E+0	1.348395E+0	1.296598E+0	1.334095E+0	1.387812E+0	1.353884E+0	1.352623E+0	1.351905E+0	1.421276E+0	1.367006E+0	1.415305E+0	1.414855E+0	1.379257E+0	1.330765E+0	1.307030E+0	1.407949E+0	1.378034E+0	1.340943E+0	1.347907E+0	1.403781E+0	1.347494E+0	1.376611E+0	1.368124E+0	1.354644E+0	1.333566E+0	1.394321E+0
5.390240E+2	1.518328E+0	1.590005E+0	1.624035E+0	1.538704E+0	1.544965E+0	1.531156E+0	1.547694E+0	1.566022E+0	1.577565E+0	1.532334E+0	1.587830E+0	1.570609E+0	1.634286E+0	1.572422E+0	1.559769E+0	1.589513E+0	1.568105E+0	1.541164E+0	1.547923E+0	1.599802E+0	1.572839E+0	1.542212E+0	1.574284E+0	1.656937E+0	1.615107E+0	1.630300E+0	1.598051E+0	1.598468E+0	1.561651E+0	1.533800E+0	1.533520E+0	1.586553E+0	1.591126E+0	1.527039E+0	1.582103E+0	1.600104E+0	1.544674E+0	1.606677E+0	1.572656E+0	1.662847E+0	1.575626E+0	1.565946E+0	1.604917E+0	1.553032E+0	1.576437E+0	1.585863E+0	1.541839E+0	1.603134E+0	1.604393E+0	1.541228E+0	1.583560E+0	1.619822E+0	1.582506E+0	1.591209E+0	1.627063E+0	1.570729E+0	1.624306E+0	1.607484E+0	1.562388E+0	1.587410E+0	1.571569E+0	1.520473E+0	1.582686E+0	1.653113E+0	1.602513E+0	1.647294E+0	1.597438E+0	1.585992E+0	1.488166E+0	1.606514E+0	1.566346E+0	1.551108E+0	1.565236E+0	1.524715E+0	1.521484E+0	1.514783E+0	1.515121E+0	1.504146E+0	1.552740E+0	1.545491E+0	1.563651E+0	1.620105E+0	1.543909E+0	1.559157E+0	1.582836E+0	1.524126E+0	1.605288E+0	1.524312E+0	1.565521E+0	1.529156E+0	1.595666E+0	1.551101E+0	1.570740E+0	1.511147E+0	1.502903E+0	1.515843E+0	1.566538E+0	1.524472E+0	1.559316E+0	1.575285E+0	1.568015E+0	1.543196E+0	1.567710E+0	1.534648E+0	1.530748E+0	1.497195E+0	1.595518E+0	1.557773E+0	1.522215E+0	1.528460E+0	1.551840E+0	1.567112E+0	1.596419E+0	1.496943E+0	1.603724E+0	1.566821E+0	1.594743E+0	1.517952E+0	1.563622E+0	1.568089E+0	1.566798E+0	1.530418E+0	1.590277E+0	1.510863E+0	1.532947E+0	1.524255E+0	1.526986E+0	1.552956E+0	1.562398E+0	1.585123E+0	1.469131E+0	1.602352E+0	1.580883E+0	1.540667E+0	1.559008E+0	1.546894E+0	1.650626E+0	1.482321E+0	1.493241E+0	1.533058E+0	1.621498E+0	1.486108E+0	1.519643E+0	1.560774E+0	1.536750E+0	1.471518E+0	1.581856E+0	1.576570E+0	1.514181E+0	1.540835E+0	1.523812E+0	1.585636E+0	1.559619E+0	1.519528E+0	1.533811E+0	1.535279E+0	1.605345E+0	1.545858E+0	1.571057E+0	1.497565E+0	1.559145E+0	1.489529E+0	1.573642E+0	1.502186E+0	1.567574E+0	1.528103E+0	1.540140E+0	1.582117E+0	1.526617E+0
5.392880E+2	1.769714E+0	1.757092E+0	1.816077E+0	1.708108E+0	1.785120E+0	1.694096E+0	1.774764E+0	1.745033E+0	1.768592E+0	1.743596E+0	1.792871E+0	1.768488E+0	1.788515E+0	1.762466E+0	1.828663E+0	1.800281E+0	1.751239E+0	1.864194E+0	1.777036E+0	1.770307E+0	1.803212E+0	1.721927E+0	1.770139E+0	1.709723E+0	1.726751E+0	1.753275E+0	1.742996E+0	1.768653E+0	1.745929E+0	1.799663E+0	1.676658E+0	1.737243E+0	1.753123E+0	1.711507E+0	1.699912E+0	1.730787E+0	1.711275E+0	1.698297E+0	1.787088E+0	1.779245E+0	1.728888E+0	1.716838E+0	1.739952E+0	1.764255E+0	1.824377E+0	1.697409E+0	1.756605E+0	1.708806E+0	1.761322E+0	1.725511E+0	1.796300E+0	1.737835E+0	1.750554E+0	1.719742E+0	1.825521E+0	1.824222E+0	1.759836E+0	1.798787E+0	1.748575E+0	1.793816E+0	1.763519E+0	1.749245E+0	1.789670E+0	1.712756E+0	1.735658E+0	1.683299E+0	1.725930E+0	1.728668E+0	1.694080E+0	1.758904E+0	1.772781E+0	1.840205E+0	1.752704E+0	1.744841E+0	1.765058E+0	1.770094E+0	1.768287E+0	1.674139E+0	1.735902E+0	1.734518E+0	1.719964E+0	1.703386E+0	1.756019E+0	1.697212E+0	1.707437E+0	1.749104E+0	1.768974E+0	1.723828E+0	1.749453E+0	1.745044E+0	1.712197E+0	1.698153E+0	1.741064E+0	1.732144E+0	1.698172E+0	1.732267E+0	1.762766E+0	1.730309E+0	1.731336E+0	1.735016E+0	1.799484E+0	1.797404E+0	1.738880E+0	1.722333E+0	1.720824E+0	1.638476E+0	1.764033E+0	1.739803E+0	1.756349E+0	1.707428E+0	1.709756E+0	1.768140E+0	1.708952E+0	1.640722E+0	1.720662E+0	1.764459E+0	1.778610E+0	1.728042E+0	1.779064E+0	1.700767E+0	1.832592E+0	1.661178E+0	1.689817E+0	1.724721E+0	1.823870E+0	1.689672E+0	1.677767E+0	1.745974E+0	1.716444E+0	1.779732E+0	1.759037E+0	1.739269E+0	1.698683E+0	1.694392E+0	1.766216E+0	1.693271E+0	1.734364E+0	1.684744E+0	1.703489E+0	1.712240E+0	1.753677E+0	1.655445E+0	1.707098E+0	1.732016E+0	1.761951E+0	1.669124E+0	1.702585E+0	1.770520E+0	1.733478E+0	1.690612E+0	1.683164E+0	1.747725E+0	1.687882E+0	1.701646E+0	1.736704E+0	1.748831E+0	1.684468E+0	1.771024E+0	1.777880E+0	1.779998E+0	1.675779E+0	1.658777E+0	1.742549E+0	1.726944E+0	1.707579E+0	1.675194E+0	1.723736E+0	1.802510E+0	1.765076E+0
5.395210E+2	1.881230E+0	1.829695E+0	1.951329E+0	1.855131E+0	1.815115E+0	1.805905E+0	1.829370E+0	1.833774E+0	1.813435E+0	1.841562E+0	1.921225E+0	1.854532E+0	1.900211E+0	1.844896E+0	1.813550E+0	1.877545E+0	1.828622E+0	1.863198E+0	1.830468E+0	1.883497E+0	1.910819E+0	1.834845E+0	1.848481E+0	1.828445E+0	1.873047E+0	1.914071E+0	1.804185E+0	1.817480E+0	1.793830E+0	1.851875E+0	1.808516E+0	1.795982E+0	1.846669E+0	1.812057E+0	1.825640E+0	1.848927E+0	1.802684E+0	1.841004E+0	1.812446E+0	1.787045E+0	1.946544E+0	1.774583E+0	1.838108E+0	1.823285E+0	1.854480E+0	1.844397E+0	1.821807E+0	1.802733E+0	1.882262E+0	1.748488E+0	1.856362E+0	1.869947E+0	1.850445E+0	1.869267E+0	1.884105E+0	1.873150E+0	1.837984E+0	1.823749E+0	1.901627E+0	1.829591E+0	1.860862E+0	1.788271E+0	1.835882E+0	1.855908E+0	1.902520E+0	1.825112E+0	1.761157E+0	1.804791E+0	1.758687E+0	1.880421E+0	1.839134E+0	1.826781E+0	1.882849E+0	1.880487E+0	1.809693E+0	1.834707E+0	1.837884E+0	1.751578E+0	1.833788E+0	1.801962E+0	1.889253E+0	1.777768E+0	1.822778E+0	1.889883E+0	1.886006E+0	1.729485E+0	1.819264E+0	1.770753E+0	1.823800E+0	1.781862E+0	1.864829E+0	1.780145E+0	1.792001E+0	1.797820E+0	1.819583E+0	1.796420E+0	1.825537E+0	1.783917E+0	1.758938E+0	1.879344E+0	1.796662E+0	1.837049E+0	1.841611E+0	1.808809E+0	1.741393E+0	1.761591E+0	1.897387E+0	1.808873E+0	1.799040E+0	1.733448E+0	1.814454E+0	1.828923E+0	1.804259E+0	1.755327E+0	1.776648E+0	1.856926E+0	1.810512E+0	1.821033E+0	1.786709E+0	1.791407E+0	1.909188E+0	1.804707E+0	1.838634E+0	1.770489E+0	1.792950E+0	1.846096E+0	1.777990E+0	1.822061E+0	1.778989E+0	1.808057E+0	1.754109E+0	1.812329E+0	1.774452E+0	1.799555E+0	1.754251E+0	1.778286E+0	1.873921E+0	1.766282E+0	1.754069E+0	1.740477E+0	1.858623E+0	1.711029E+0	1.773710E+0	1.807608E+0	1.771496E+0	1.745014E+0	1.792183E+0	1.890874E+0	1.778825E+0	1.738232E+0	1.769600E+0	1.959098E+0	1.834529E+0	1.828366E+0	1.737687E+0	1.838312E+0	1.812037E+0	1.773347E+0	1.854231E+0	1.840459E+0	1.826125E+0	1.706388E+0	1.774250E+0	1.766179E+0	1.824422E+0	1.784475E+0	1.826733E+0	1.775092E+0	1.750231E+0
5.397750E+2	1.924342E+0	1.911554E+0	1.923472E+0	1.827207E+0	1.936970E+0	1.820459E+0	1.894897E+0	1.915674E+0	1.839296E+0	1.912743E+0	1.926095E+0	1.896496E+0	1.926802E+0	1.825797E+0	1.925963E+0	1.870194E+0	1.871581E+0	1.895916E+0	1.789899E+0	1.873236E+0	1.929399E+0	1.904541E+0	1.895004E+0	1.876387E+0	1.889509E+0	1.929899E+0	1.897075E+0	1.865632E+0	1.898603E+0	1.887310E+0	1.869348E+0	1.800002E+0	1.873383E+0	1.821671E+0	1.842741E+0	1.808509E+0	1.855480E+0	1.877139E+0	1.849974E+0	1.859879E+0	1.840206E+0	1.845805E+0	1.873832E+0	1.885440E+0	1.872532E+0	1.921977E+0	1.777876E+0	1.896355E+0	1.860814E+0	1.863431E+0	1.849955E+0	1.836341E+0	1.904889E+0	1.832006E+0	1.951746E+0	1.880667E+0	1.829391E+0	1.895614E+0	1.891637E+0	1.931294E+0	1.876563E+0	1.821140E+0	1.811258E+0	1.862441E+0	1.900318E+0	1.894320E+0	1.836238E+0	1.816473E+0	1.838616E+0	1.828557E+0	1.852792E+0	1.839944E+0	1.886721E+0	1.878160E+0	1.831867E+0	1.825091E+0	1.869126E+0	1.775612E+0	1.879936E+0	1.882171E+0	1.843846E+0	1.837329E+0	1.881921E+0	1.949678E+0	1.829946E+0	1.823429E+0	1.873777E+0	1.811448E+0	1.851476E+0	1.826862E+0	1.906170E+0	1.813068E+0	1.882302E+0	1.869168E+0	1.822912E+0	1.830804E+0	1.849563E+0	1.846944E+0	1.862924E+0	1.825689E+0	1.881786E+0	1.909750E+0	1.849151E+0	1.857897E+0	1.781028E+0	1.786930E+0	1.833526E+0	1.932302E+0	1.873261E+0	1.823584E+0	1.871987E+0	1.843853E+0	1.870136E+0	1.788681E+0	1.911266E+0	1.827958E+0	1.807028E+0	1.737326E+0	1.869069E+0	1.825206E+0	1.909377E+0	1.834784E+0	1.853182E+0	1.824167E+0	1.792292E+0	1.792523E+0	1.826531E+0	1.884688E+0	1.913316E+0	1.814955E+0	1.812731E+0	1.884498E+0	1.799562E+0	1.839086E+0	1.806142E+0	1.881758E+0	1.819453E+0	1.766388E+0	1.839877E+0	1.858369E+0	1.885277E+0	1.766836E+0	1.849525E+0	1.836492E+0	1.835170E+0	1.814548E+0	1.804815E+0	1.952809E+0	1.840816E+0	1.759029E+0	1.844525E+0	1.842619E+0	1.805417E+0	1.871014E+0	1.741442E+0	1.919331E+0	1.803036E+0	1.842011E+0	1.835662E+0	1.825184E+0	1.749963E+0	1.774213E+0	1.861110E+0	1.856238E+0	1.838052E+0	1.756294E+0	1.835439E+0	1.839388E+0	1.842448E+0
5.400190E+2	1.903443E+0	1.869328E+0	1.883662E+0	1.866748E+0	1.906283E+0	1.869383E+0	1.851605E+0	1.829477E+0	1.842615E+0	1.907900E+0	1.881888E+0	1.847991E+0	1.966239E+0	1.894749E+0	1.900313E+0	1.813688E+0	1.875133E+0	1.972308E+0	1.819784E+0	1.910651E+0	1.938972E+0	1.918324E+0	1.853693E+0	1.804261E+0	1.941160E+0	1.859102E+0	1.870370E+0	1.912741E+0	1.843613E+0	1.883344E+0	1.815442E+0	1.853263E+0	1.906298E+0	1.876348E+0	1.837323E+0	1.853348E+0	1.920247E+0	1.836653E+0	1.846341E+0	1.853703E+0	1.920323E+0	1.863939E+0	1.938729E+0	1.886323E+0	1.873292E+0	1.833592E+0	1.811066E+0	1.860021E+0	1.935108E+0	1.844182E+0	1.829464E+0	1.882940E+0	1.880067E+0	1.875068E+0	1.855246E+0	1.937299E+0	1.889748E+0	1.866554E+0	1.829776E+0	1.872675E+0	1.793985E+0	1.833933E+0	1.869084E+0	1.886610E+0	1.876742E+0	1.821994E+0	1.850754E+0	1.814537E+0	1.863404E+0	1.860660E+0	1.856925E+0	1.856955E+0	1.896624E+0	1.867946E+0	1.801358E+0	1.865346E+0	1.776864E+0	1.889861E+0	1.925523E+0	1.878311E+0	1.864954E+0	1.825534E+0	1.884488E+0	1.931311E+0	1.879221E+0	1.847794E+0	1.870994E+0	1.835366E+0	1.919532E+0	1.799986E+0	1.825343E+0	1.819214E+0	1.890402E+0	1.828705E+0	1.810106E+0	1.837672E+0	1.833169E+0	1.837191E+0	1.830614E+0	1.873837E+0	1.858206E+0	1.872398E+0	1.823200E+0	1.794075E+0	1.812490E+0	1.869042E+0	1.843904E+0	1.903488E+0	1.826665E+0	1.785530E+0	1.802920E+0	1.816680E+0	1.883839E+0	1.806124E+0	1.828079E+0	1.819039E+0	1.872937E+0	1.800763E+0	1.875664E+0	1.781778E+0	1.903714E+0	1.742804E+0	1.779765E+0	1.878222E+0	1.815715E+0	1.817042E+0	1.846757E+0	1.856683E+0	1.901535E+0	1.837648E+0	1.856111E+0	1.846707E+0	1.840381E+0	1.784659E+0	1.801279E+0	1.821080E+0	1.857767E+0	1.849106E+0	1.771614E+0	1.794908E+0	1.851001E+0	1.787272E+0	1.773557E+0	1.780786E+0	1.792400E+0	1.806292E+0	1.796765E+0	1.915043E+0	1.857418E+0	1.848700E+0	1.813539E+0	1.814962E+0	1.857909E+0	1.844877E+0	1.839500E+0	1.813548E+0	1.862562E+0	1.877571E+0	1.826875E+0	1.872730E+0	1.874703E+0	1.710599E+0	1.762100E+0	1.845967E+0	1.794035E+0	1.841993E+0	1.907452E+0	1.853672E+0	1.736947E+0
5.402630E+2	1.803430E+0	1.748699E+0	1.851436E+0	1.797341E+0	1.825101E+0	1.713595E+0	1.764958E+0	1.800637E+0	1.759521E+0	1.763504E+0	1.789377E+0	1.797302E+0	1.774437E+0	1.773841E+0	1.847203E+0	1.773163E+0	1.801153E+0	1.807444E+0	1.739879E+0	1.806052E+0	1.827552E+0	1.768764E+0	1.708069E+0	1.763880E+0	1.760754E+0	1.826872E+0	1.806498E+0	1.784667E+0	1.786419E+0	1.762470E+0	1.713563E+0	1.733867E+0	1.734020E+0	1.755440E+0	1.735984E+0	1.748011E+0	1.807302E+0	1.734655E+0	1.763375E+0	1.766252E+0	1.787168E+0	1.749471E+0	1.807074E+0	1.787921E+0	1.830619E+0	1.749980E+0	1.780342E+0	1.756634E+0	1.778961E+0	1.674848E+0	1.763628E+0	1.785562E+0	1.785007E+0	1.775249E+0	1.761684E+0	1.841918E+0	1.809419E+0	1.763172E+0	1.786891E+0	1.795227E+0	1.753689E+0	1.783417E+0	1.804491E+0	1.796440E+0	1.788207E+0	1.734213E+0	1.690914E+0	1.746740E+0	1.738493E+0	1.733633E+0	1.755825E+0	1.795356E+0	1.720359E+0	1.804374E+0	1.741001E+0	1.695979E+0	1.808170E+0	1.722701E+0	1.690398E+0	1.716003E+0	1.734146E+0	1.696267E+0	1.761002E+0	1.757537E+0	1.661708E+0	1.795820E+0	1.772520E+0	1.725789E+0	1.739576E+0	1.739359E+0	1.813572E+0	1.746945E+0	1.824479E+0	1.796450E+0	1.756396E+0	1.763385E+0	1.755579E+0	1.751638E+0	1.746894E+0	1.682183E+0	1.664986E+0	1.818961E+0	1.733963E+0	1.772703E+0	1.726666E+0	1.716927E+0	1.784043E+0	1.698886E+0	1.770833E+0	1.702772E+0	1.765423E+0	1.754871E+0	1.805800E+0	1.748032E+0	1.740913E+0	1.680880E+0	1.791311E+0	1.682401E+0	1.795317E+0	1.735653E+0	1.792488E+0	1.688560E+0	1.769410E+0	1.712831E+0	1.737455E+0	1.734015E+0	1.747214E+0	1.747858E+0	1.781711E+0	1.799106E+0	1.822120E+0	1.715402E+0	1.667318E+0	1.812163E+0	1.725466E+0	1.723131E+0	1.701654E+0	1.680865E+0	1.768514E+0	1.756164E+0	1.819307E+0	1.655894E+0	1.740208E+0	1.806516E+0	1.804302E+0	1.651550E+0	1.809482E+0	1.822717E+0	1.749583E+0	1.680650E+0	1.734759E+0	1.783914E+0	1.730962E+0	1.764402E+0	1.740999E+0	1.739917E+0	1.687117E+0	1.724384E+0	1.728737E+0	1.773698E+0	1.714705E+0	1.685022E+0	1.758694E+0	1.762883E+0	1.718650E+0	1.769069E+0	1.768107E+0	1.683606E+0	1.678711E+0
5.405240E+2	1.739860E+0	1.637778E+0	1.684181E+0	1.718798E+0	1.752081E+0	1.716991E+0	1.593572E+0	1.688655E+0	1.665244E+0	1.721106E+0	1.685940E+0	1.707346E+0	1.708091E+0	1.695697E+0	1.719472E+0	1.697605E+0	1.675220E+0	1.697778E+0	1.684172E+0	1.737586E+0	1.740515E+0	1.659548E+0	1.644724E+0	1.577882E+0	1.660761E+0	1.645690E+0	1.642584E+0	1.663328E+0	1.718486E+0	1.669310E+0	1.644412E+0	1.686907E+0	1.653558E+0	1.629544E+0	1.622800E+0	1.689982E+0	1.720934E+0	1.637781E+0	1.661479E+0	1.693464E+0	1.710815E+0	1.663293E+0	1.695611E+0	1.706280E+0	1.660407E+0	1.638475E+0	1.648196E+0	1.695380E+0	1.741535E+0	1.654680E+0	1.699389E+0	1.707840E+0	1.692021E+0	1.712372E+0	1.703829E+0	1.680167E+0	1.698971E+0	1.692013E+0	1.673814E+0	1.687961E+0	1.715733E+0	1.656429E+0	1.732016E+0	1.656803E+0	1.715979E+0	1.623499E+0	1.643810E+0	1.687421E+0	1.638859E+0	1.713884E+0	1.663024E+0	1.734563E+0	1.622297E+0	1.648806E+0	1.678987E+0	1.704013E+0	1.672549E+0	1.649995E+0	1.623688E+0	1.680862E+0	1.721032E+0	1.682401E+0	1.636600E+0	1.602151E+0	1.657415E+0	1.622534E+0	1.712615E+0	1.605777E+0	1.686321E+0	1.602375E+0	1.690519E+0	1.678369E+0	1.631727E+0	1.685708E+0	1.647602E+0	1.630784E+0	1.705686E+0	1.629869E+0	1.668225E+0	1.706279E+0	1.704750E+0	1.697819E+0	1.641438E+0	1.644562E+0	1.638237E+0	1.628970E+0	1.663650E+0	1.658195E+0	1.563416E+0	1.629909E+0	1.672540E+0	1.585590E+0	1.702406E+0	1.623582E+0	1.658928E+0	1.588414E+0	1.682526E+0	1.599173E+0	1.633515E+0	1.712455E+0	1.677359E+0	1.589223E+0	1.685505E+0	1.656884E+0	1.645067E+0	1.658432E+0	1.587405E+0	1.709430E+0	1.707359E+0	1.699588E+0	1.633767E+0	1.663936E+0	1.630813E+0	1.601541E+0	1.644031E+0	1.692634E+0	1.685830E+0	1.593442E+0	1.585789E+0	1.646381E+0	1.703448E+0	1.537925E+0	1.641465E+0	1.656692E+0	1.596105E+0	1.601999E+0	1.634114E+0	1.664501E+0	1.637025E+0	1.642898E+0	1.630962E+0	1.635621E+0	1.560432E+0	1.631886E+0	1.622178E+0	1.588053E+0	1.650318E+0	1.633929E+0	1.697383E+0	1.647223E+0	1.633067E+0	1.545252E+0	1.600400E+0	1.557267E+0	1.640495E+0	1.632119E+0	1.671189E+0	1.582020E+0	1.671634E+0
5.407630E+2	1.653784E+0	1.627334E+0	1.625826E+0	1.654322E+0	1.680542E+0	1.670999E+0	1.645350E+0	1.600718E+0	1.638575E+0	1.683309E+0	1.665851E+0	1.650377E+0	1.643753E+0	1.680591E+0	1.615724E+0	1.631776E+0	1.645810E+0	1.770124E+0	1.649761E+0	1.628610E+0	1.660912E+0	1.617328E+0	1.641333E+0	1.670190E+0	1.630421E+0	1.660926E+0	1.635576E+0	1.699937E+0	1.663558E+0	1.607244E+0	1.588168E+0	1.619919E+0	1.640793E+0	1.665553E+0	1.613537E+0	1.669055E+0	1.658239E+0	1.627622E+0	1.622123E+0	1.693204E+0	1.687473E+0	1.659485E+0	1.605697E+0	1.566787E+0	1.742724E+0	1.601752E+0	1.618312E+0	1.621864E+0	1.661718E+0	1.627116E+0	1.689693E+0	1.635760E+0	1.617134E+0	1.692406E+0	1.699833E+0	1.621915E+0	1.698040E+0	1.635792E+0	1.644140E+0	1.658626E+0	1.686615E+0	1.641076E+0	1.674014E+0	1.629763E+0	1.674509E+0	1.645931E+0	1.622548E+0	1.570322E+0	1.595266E+0	1.612691E+0	1.621300E+0	1.698227E+0	1.664051E+0	1.580005E+0	1.648756E+0	1.648146E+0	1.624352E+0	1.572894E+0	1.657095E+0	1.646057E+0	1.644889E+0	1.628090E+0	1.638586E+0	1.624055E+0	1.656521E+0	1.656094E+0	1.692795E+0	1.610658E+0	1.614904E+0	1.615866E+0	1.703632E+0	1.595595E+0	1.630588E+0	1.660700E+0	1.603513E+0	1.553323E+0	1.653328E+0	1.662533E+0	1.609789E+0	1.609276E+0	1.667762E+0	1.707526E+0	1.611150E+0	1.590676E+0	1.636051E+0	1.593773E+0	1.599219E+0	1.661431E+0	1.622371E+0	1.592082E+0	1.689294E+0	1.596519E+0	1.585972E+0	1.566977E+0	1.604312E+0	1.549494E+0	1.650483E+0	1.625181E+0	1.654901E+0	1.647246E+0	1.706392E+0	1.562019E+0	1.633673E+0	1.617743E+0	1.710764E+0	1.631689E+0	1.638378E+0	1.683644E+0	1.702326E+0	1.677775E+0	1.626610E+0	1.603388E+0	1.575301E+0	1.589372E+0	1.609596E+0	1.629950E+0	1.642188E+0	1.534781E+0	1.583160E+0	1.594713E+0	1.668375E+0	1.588099E+0	1.582737E+0	1.631677E+0	1.564069E+0	1.574471E+0	1.576830E+0	1.686990E+0	1.597358E+0	1.593442E+0	1.561217E+0	1.585184E+0	1.629945E+0	1.605831E+0	1.592316E+0	1.509041E+0	1.553919E+0	1.518509E+0	1.620350E+0	1.584001E+0	1.645607E+0	1.533946E+0	1.542150E+0	1.554735E+0	1.632676E+0	1.596845E+0	1.607822E+0	1.592746E+0	1.592888E+0
5.410240E+2	1.613441E+0	1.621240E+0	1.564828E+0	1.561185E+0	1.631953E+0	1.561694E+0	1.595945E+0	1.556965E+0	1.631314E+0	1.598826E+0	1.665570E+0	1.652452E+0	1.640916E+0	1.624099E+0	1.593935E+0	1.600715E+0	1.658831E+0	1.617265E+0	1.608207E+0	1.619696E+0	1.705784E+0	1.607863E+0	1.594020E+0	1.619983E+0	1.677886E+0	1.606571E+0	1.610642E+0	1.602687E+0	1.631162E+0	1.639874E+0	1.615723E+0	1.562968E+0	1.587366E+0	1.612588E+0	1.617984E+0	1.616040E+0	1.678910E+0	1.566267E+0	1.660895E+0	1.615727E+0	1.654950E+0	1.570771E+0	1.619631E+0	1.581283E+0	1.687767E+0	1.545268E+0	1.565975E+0	1.581674E+0	1.690121E+0	1.598905E+0	1.622198E+0	1.619351E+0	1.664802E+0	1.641083E+0	1.613376E+0	1.604257E+0	1.675427E+0	1.646079E+0	1.612789E+0	1.620124E+0	1.628703E+0	1.598285E+0	1.627459E+0	1.652505E+0	1.580732E+0	1.670093E+0	1.533727E+0	1.607243E+0	1.561450E+0	1.606830E+0	1.577002E+0	1.692049E+0	1.604105E+0	1.590422E+0	1.619106E+0	1.627204E+0	1.664943E+0	1.607605E+0	1.625834E+0	1.593414E+0	1.604646E+0	1.597810E+0	1.631591E+0	1.616125E+0	1.607421E+0	1.620500E+0	1.602598E+0	1.545067E+0	1.576844E+0	1.529481E+0	1.605021E+0	1.615486E+0	1.624515E+0	1.555044E+0	1.569163E+0	1.552279E+0	1.620528E+0	1.619602E+0	1.572789E+0	1.594138E+0	1.588788E+0	1.577852E+0	1.547928E+0	1.628093E+0	1.612188E+0	1.473234E+0	1.602205E+0	1.627809E+0	1.582466E+0	1.548784E+0	1.556821E+0	1.630553E+0	1.658677E+0	1.504640E+0	1.575204E+0	1.520010E+0	1.600860E+0	1.534067E+0	1.616199E+0	1.617038E+0	1.605514E+0	1.587608E+0	1.576246E+0	1.550181E+0	1.578186E+0	1.571976E+0	1.592029E+0	1.592793E+0	1.590350E+0	1.614926E+0	1.529758E+0	1.597704E+0	1.633793E+0	1.614972E+0	1.514481E+0	1.621285E+0	1.578675E+0	1.520095E+0	1.579838E+0	1.590981E+0	1.619662E+0	1.514138E+0	1.588654E+0	1.640269E+0	1.564390E+0	1.560786E+0	1.625770E+0	1.621076E+0	1.614634E+0	1.570498E+0	1.610277E+0	1.573107E+0	1.582740E+0	1.588476E+0	1.577783E+0	1.542867E+0	1.563484E+0	1.583702E+0	1.600416E+0	1.569850E+0	1.599587E+0	1.491470E+0	1.594792E+0	1.605525E+0	1.628886E+0	1.522851E+0	1.625302E+0	1.570685E+0	1.640260E+0
5.412530E+2	1.583615E+0	1.567852E+0	1.537722E+0	1.515641E+0	1.551929E+0	1.571013E+0	1.503807E+0	1.607585E+0	1.543547E+0	1.548480E+0	1.546312E+0	1.529892E+0	1.594800E+0	1.559658E+0	1.609725E+0	1.555051E+0	1.515759E+0	1.606222E+0	1.498708E+0	1.595287E+0	1.529098E+0	1.559392E+0	1.554111E+0	1.495650E+0	1.587894E+0	1.511937E+0	1.517070E+0	1.569665E+0	1.522016E+0	1.528921E+0	1.473854E+0	1.549625E+0	1.579208E+0	1.473493E+0	1.488335E+0	1.583538E+0	1.572139E+0	1.542290E+0	1.520769E+0	1.599657E+0	1.558745E+0	1.585590E+0	1.549384E+0	1.555519E+0	1.551845E+0	1.521257E+0	1.540898E+0	1.526615E+0	1.548106E+0	1.534261E+0	1.508761E+0	1.565661E+0	1.538853E+0	1.575256E+0	1.523320E+0	1.577136E+0	1.597547E+0	1.582660E+0	1.526312E+0	1.570740E+0	1.588947E+0	1.519212E+0	1.570633E+0	1.550663E+0	1.551364E+0	1.545497E+0	1.541881E+0	1.472183E+0	1.591977E+0	1.517888E+0	1.493997E+0	1.559606E+0	1.611189E+0	1.515975E+0	1.561344E+0	1.563289E+0	1.592803E+0	1.523630E+0	1.510670E+0	1.569890E+0	1.528597E+0	1.534439E+0	1.503621E+0	1.505926E+0	1.539764E+0	1.475464E+0	1.554029E+0	1.491027E+0	1.556743E+0	1.488949E+0	1.613487E+0	1.563545E+0	1.561823E+0	1.495160E+0	1.521217E+0	1.496619E+0	1.600726E+0	1.499660E+0	1.493434E+0	1.513041E+0	1.592276E+0	1.543501E+0	1.494343E+0	1.493912E+0	1.478288E+0	1.517441E+0	1.571073E+0	1.569386E+0	1.476645E+0	1.458229E+0	1.485451E+0	1.594052E+0	1.489389E+0	1.521035E+0	1.511399E+0	1.534016E+0	1.518837E+0	1.510101E+0	1.506483E+0	1.513220E+0	1.603866E+0	1.553460E+0	1.529647E+0	1.465449E+0	1.517551E+0	1.564196E+0	1.555577E+0	1.572247E+0	1.530580E+0	1.504968E+0	1.579925E+0	1.539093E+0	1.510432E+0	1.569216E+0	1.432757E+0	1.472810E+0	1.504599E+0	1.529514E+0	1.462213E+0	1.530371E+0	1.614925E+0	1.467547E+0	1.546866E+0	1.504372E+0	1.573775E+0	1.488314E+0	1.493399E+0	1.531260E+0	1.526289E+0	1.508094E+0	1.519200E+0	1.530430E+0	1.465137E+0	1.555770E+0	1.528133E+0	1.517688E+0	1.559704E+0	1.464277E+0	1.488985E+0	1.488503E+0	1.524326E+0	1.521287E+0	1.548521E+0	1.512850E+0	1.537218E+0	1.463140E+0	1.536343E+0	1.528198E+0	1.574640E+0
5.415190E+2	1.444105E+0	1.404938E+0	1.449008E+0	1.439293E+0	1.405561E+0	1.401660E+0	1.376963E+0	1.410315E+0	1.369834E+0	1.397272E+0	1.478094E+0	1.400562E+0	1.425346E+0	1.378968E+0	1.411958E+0	1.341401E+0	1.445110E+0	1.525101E+0	1.382870E+0	1.415862E+0	1.392163E+0	1.475052E+0	1.412220E+0	1.320184E+0	1.388892E+0	1.461929E+0	1.440598E+0	1.467826E+0	1.493197E+0	1.456314E+0	1.383414E+0	1.396839E+0	1.394839E+0	1.443715E+0	1.415927E+0	1.354665E+0	1.418410E+0	1.441321E+0	1.471270E+0	1.449667E+0	1.452561E+0	1.397170E+0	1.424390E+0	1.343676E+0	1.397924E+0	1.366266E+0	1.421427E+0	1.420993E+0	1.433543E+0	1.366121E+0	1.422356E+0	1.450180E+0	1.424188E+0	1.405552E+0	1.423580E+0	1.407864E+0	1.453985E+0	1.402812E+0	1.455365E+0	1.383428E+0	1.425697E+0	1.358443E+0	1.466707E+0	1.434270E+0	1.447855E+0	1.390027E+0	1.437746E+0	1.353399E+0	1.416189E+0	1.447458E+0	1.432680E+0	1.406988E+0	1.415456E+0	1.358650E+0	1.381245E+0	1.419138E+0	1.434920E+0	1.403796E+0	1.423993E+0	1.406632E+0	1.407747E+0	1.466588E+0	1.380930E+0	1.426666E+0	1.448530E+0	1.364815E+0	1.377678E+0	1.365381E+0	1.373537E+0	1.334805E+0	1.454774E+0	1.420507E+0	1.409355E+0	1.429050E+0	1.368049E+0	1.341149E+0	1.393085E+0	1.442378E+0	1.449554E+0	1.426625E+0	1.400810E+0	1.416003E+0	1.404158E+0	1.384372E+0	1.389719E+0	1.381136E+0	1.407106E+0	1.424482E+0	1.415509E+0	1.326105E+0	1.382190E+0	1.417961E+0	1.378389E+0	1.334580E+0	1.380299E+0	1.414342E+0	1.381262E+0	1.355218E+0	1.458229E+0	1.465305E+0	1.412175E+0	1.418613E+0	1.409532E+0	1.342276E+0	1.429038E+0	1.371750E+0	1.371015E+0	1.402031E+0	1.445380E+0	1.411214E+0	1.404078E+0	1.381900E+0	1.395578E+0	1.388572E+0	1.371636E+0	1.404595E+0	1.448931E+0	1.360085E+0	1.398099E+0	1.372755E+0	1.470246E+0	1.365424E+0	1.414873E+0	1.431778E+0	1.363568E+0	1.363893E+0	1.376002E+0	1.476651E+0	1.340391E+0	1.348886E+0	1.376616E+0	1.429029E+0	1.392272E+0	1.405150E+0	1.393982E+0	1.381262E+0	1.459623E+0	1.383696E+0	1.445517E+0	1.387625E+0	1.386874E+0	1.354021E+0	1.411410E+0	1.355757E+0	1.405558E+0	1.353766E+0	1.456282E+0	1.373417E+0	1.352376E+0
5.417650E+2	1.281340E+0	1.321157E+0	1.295427E+0	1.332180E+0	1.255316E+0	1.293223E+0	1.287014E+0	1.322280E+0	1.227784E+0	1.293548E+0	1.318123E+0	1.274202E+0	1.265877E+0	1.248415E+0	1.252165E+0	1.232654E+0	1.215859E+0	1.350731E+0	1.219429E+0	1.286443E+0	1.293372E+0	1.272280E+0	1.282854E+0	1.211019E+0	1.296960E+0	1.311861E+0	1.247225E+0	1.206527E+0	1.277556E+0	1.225569E+0	1.275510E+0	1.238606E+0	1.295726E+0	1.307144E+0	1.223899E+0	1.254854E+0	1.234341E+0	1.218059E+0	1.283765E+0	1.291455E+0	1.319073E+0	1.281652E+0	1.259978E+0	1.277143E+0	1.281091E+0	1.242132E+0	1.256047E+0	1.266051E+0	1.260908E+0	1.230566E+0	1.277978E+0	1.263620E+0	1.255306E+0	1.271140E+0	1.261622E+0	1.344087E+0	1.276067E+0	1.323869E+0	1.308275E+0	1.265817E+0	1.336428E+0	1.266429E+0	1.280323E+0	1.281328E+0	1.258140E+0	1.291354E+0	1.246452E+0	1.246085E+0	1.235941E+0	1.240715E+0	1.282741E+0	1.279267E+0	1.285656E+0	1.274392E+0	1.222647E+0	1.311718E+0	1.283898E+0	1.266895E+0	1.263617E+0	1.248925E+0	1.281073E+0	1.240297E+0	1.324396E+0	1.200619E+0	1.257303E+0	1.251905E+0	1.322398E+0	1.255358E+0	1.286523E+0	1.287090E+0	1.346008E+0	1.262071E+0	1.260129E+0	1.265901E+0	1.249094E+0	1.266913E+0	1.308405E+0	1.284271E+0	1.291566E+0	1.305521E+0	1.300804E+0	1.251661E+0	1.219514E+0	1.227596E+0	1.279412E+0	1.217869E+0	1.296536E+0	1.247003E+0	1.274011E+0	1.256539E+0	1.338163E+0	1.272771E+0	1.302639E+0	1.208883E+0	1.260174E+0	1.239975E+0	1.242683E+0	1.200180E+0	1.335250E+0	1.230510E+0	1.290113E+0	1.303340E+0	1.307689E+0	1.257367E+0	1.294066E+0	1.230334E+0	1.211655E+0	1.292678E+0	1.279862E+0	1.290981E+0	1.248514E+0	1.305923E+0	1.275836E+0	1.226188E+0	1.260958E+0	1.191105E+0	1.278624E+0	1.203870E+0	1.230391E+0	1.262750E+0	1.274187E+0	1.188744E+0	1.290656E+0	1.265895E+0	1.298685E+0	1.225593E+0	1.251494E+0	1.312451E+0	1.279566E+0	1.297129E+0	1.211490E+0	1.288659E+0	1.227581E+0	1.302274E+0	1.242581E+0	1.291820E+0	1.260062E+0	1.207038E+0	1.311952E+0	1.269492E+0	1.272717E+0	1.246898E+0	1.270383E+0	1.290579E+0	1.294075E+0	1.251701E+0	1.291309E+0	1.262137E+0	1.239826E+0
5.420320E+2	1.052641E+0	1.029647E+0	1.076764E+0	1.074269E+0	1.062988E+0	1.070768E+0	1.054977E+0	1.107168E+0	1.030451E+0	1.024472E+0	1.106517E+0	1.076033E+0	1.087624E+0	1.040782E+0	1.118004E+0	1.078267E+0	1.097095E+0	1.073454E+0	9.930871E-1	1.027064E+0	1.100243E+0	1.076298E+0	1.100911E+0	1.064470E+0	1.098544E+0	1.087751E+0	1.071214E+0	1.049729E+0	1.057378E+0	1.082975E+0	1.056951E+0	1.075376E+0	1.060082E+0	1.089912E+0	1.071356E+0	1.024476E+0	1.074822E+0	1.067883E+0	1.101639E+0	1.084409E+0	1.079507E+0	1.119779E+0	1.081951E+0	1.091348E+0	1.080826E+0	1.082871E+0	1.070318E+0	1.098500E+0	1.054794E+0	1.097694E+0	1.070123E+0	1.118566E+0	1.063241E+0	1.102808E+0	1.045011E+0	1.084003E+0	1.066215E+0	1.117131E+0	1.099916E+0	1.097963E+0	1.067087E+0	1.047441E+0	1.033387E+0	1.082664E+0	1.106229E+0	1.044392E+0	1.059963E+0	1.006068E+0	1.074211E+0	1.063926E+0	1.088483E+0	1.070789E+0	1.054784E+0	1.113935E+0	1.034679E+0	1.096929E+0	1.080720E+0	1.047228E+0	1.036196E+0	1.054463E+0	1.026111E+0	1.012091E+0	1.152771E+0	1.082966E+0	1.078342E+0	1.055937E+0	1.065801E+0	1.052016E+0	1.071120E+0	1.115986E+0	1.100665E+0	1.054437E+0	1.094453E+0	1.056585E+0	1.017511E+0	1.032582E+0	1.115433E+0	1.065164E+0	1.108621E+0	1.070302E+0	1.103828E+0	1.153855E+0	1.039347E+0	1.074522E+0	1.082449E+0	1.047510E+0	1.103028E+0	1.086759E+0	1.064591E+0	1.065839E+0	1.037703E+0	1.067835E+0	1.128982E+0	1.059859E+0	1.128153E+0	1.086330E+0	1.089219E+0	1.048713E+0	1.099835E+0	1.093753E+0	1.102118E+0	1.027863E+0	1.103988E+0	1.027650E+0	1.073543E+0	1.082492E+0	1.040000E+0	1.027691E+0	1.119350E+0	1.119494E+0	1.042576E+0	1.091270E+0	1.069315E+0	1.075340E+0	1.067051E+0	1.090174E+0	1.053692E+0	1.094606E+0	1.063455E+0	1.079508E+0	1.109615E+0	9.948368E-1	1.052934E+0	1.074209E+0	1.078126E+0	1.023154E+0	1.144717E+0	1.079537E+0	1.058457E+0	1.037793E+0	1.064332E+0	1.025896E+0	1.043864E+0	1.071255E+0	1.082856E+0	1.038319E+0	1.057978E+0	1.082866E+0	1.097009E+0	1.083052E+0	1.041210E+0	9.889723E-1	1.129279E+0	1.076885E+0	1.113606E+0	1.020142E+0	1.086602E+0	1.024177E+0	1.085801E+0
5.422670E+2	9.710819E-1	9.712735E-1	9.493345E-1	9.811114E-1	9.780618E-1	1.014192E+0	9.821344E-1	9.476191E-1	9.779130E-1	9.497731E-1	1.032252E+0	1.017146E+0	1.029723E+0	9.707485E-1	9.522131E-1	9.558003E-1	9.611354E-1	9.890644E-1	9.442817E-1	9.861725E-1	9.429325E-1	9.562723E-1	9.858067E-1	9.849813E-1	9.421778E-1	1.017675E+0	9.198939E-1	9.617465E-1	1.004335E+0	9.701972E-1	9.606898E-1	9.475379E-1	9.713461E-1	1.026633E+0	9.833886E-1	9.910191E-1	9.908015E-1	9.730720E-1	9.743373E-1	1.007630E+0	9.504715E-1	1.028050E+0	9.636007E-1	9.356514E-1	1.040668E+0	9.141554E-1	9.728022E-1	1.013602E+0	9.506448E-1	9.283920E-1	9.663308E-1	9.868627E-1	9.888575E-1	9.719263E-1	1.050045E+0	1.015447E+0	9.946457E-1	9.991598E-1	1.041981E+0	9.672009E-1	9.896759E-1	9.589606E-1	1.005220E+0	9.629012E-1	1.008619E+0	9.941953E-1	9.358253E-1	9.259062E-1	9.915792E-1	9.800669E-1	9.653158E-1	1.007257E+0	9.689429E-1	9.562651E-1	9.826960E-1	9.952938E-1	9.673594E-1	9.961708E-1	1.018534E+0	9.569677E-1	9.887851E-1	9.940275E-1	9.522696E-1	9.718277E-1	9.613874E-1	9.563366E-1	9.939025E-1	9.798058E-1	9.777434E-1	9.873859E-1	1.007112E+0	1.013009E+0	9.707839E-1	1.032404E+0	9.750809E-1	9.605373E-1	1.022530E+0	9.573824E-1	9.645316E-1	9.945336E-1	1.010546E+0	9.461937E-1	9.882056E-1	9.896300E-1	9.486720E-1	9.523874E-1	9.913600E-1	9.996119E-1	9.670583E-1	9.314635E-1	9.845966E-1	9.354448E-1	9.424857E-1	9.862757E-1	1.003537E+0	9.391584E-1	1.008466E+0	9.718505E-1	9.615047E-1	1.010401E+0	1.001213E+0	9.735648E-1	9.886124E-1	9.599773E-1	9.790870E-1	9.741103E-1	9.942224E-1	9.398961E-1	1.005785E+0	9.505834E-1	9.097465E-1	9.845650E-1	9.636309E-1	9.837832E-1	9.589843E-1	9.820318E-1	9.835634E-1	9.941343E-1	9.576868E-1	9.537846E-1	1.024846E+0	9.587428E-1	1.002249E+0	9.669366E-1	1.017839E+0	9.253194E-1	9.720569E-1	1.006129E+0	1.002789E+0	9.263506E-1	9.570009E-1	1.034188E+0	9.618449E-1	1.006399E+0	9.794852E-1	9.501983E-1	1.000085E+0	9.473374E-1	1.017273E+0	9.752639E-1	9.846585E-1	9.335304E-1	9.837518E-1	9.440315E-1	9.516935E-1	9.938996E-1	1.022858E+0	9.403164E-1	1.034714E+0
5.425460E+2	9.247117E-1	9.147021E-1	9.055252E-1	8.572629E-1	8.734470E-1	8.921503E-1	9.356367E-1	8.976595E-1	9.192855E-1	8.568956E-1	8.805523E-1	9.202012E-1	9.601701E-1	9.013111E-1	9.088849E-1	9.530594E-1	9.162761E-1	9.124690E-1	9.159528E-1	9.563666E-1	9.176884E-1	9.513078E-1	9.448348E-1	8.772160E-1	8.481322E-1	9.428345E-1	9.317487E-1	9.128229E-1	9.627145E-1	9.275532E-1	8.689555E-1	8.911314E-1	9.472625E-1	9.207186E-1	8.885864E-1	8.621544E-1	9.229991E-1	9.046978E-1	9.274884E-1	8.951440E-1	9.281006E-1	8.904772E-1	9.092278E-1	9.154211E-1	9.885736E-1	8.832117E-1	8.989753E-1	8.790592E-1	9.148196E-1	9.273927E-1	9.343200E-1	9.070957E-1	9.097320E-1	9.069178E-1	9.570536E-1	9.055591E-1	9.358106E-1	9.482537E-1	9.400612E-1	9.190172E-1	9.487718E-1	9.164386E-1	9.306345E-1	8.757423E-1	9.231044E-1	9.419805E-1	8.917543E-1	9.227545E-1	8.740890E-1	8.732876E-1	9.203560E-1	9.308339E-1	9.170496E-1	9.384782E-1	8.496490E-1	9.164393E-1	9.350926E-1	9.087202E-1	8.594303E-1	8.945837E-1	8.788823E-1	9.715610E-1	9.107131E-1	9.345219E-1	8.931760E-1	8.845817E-1	9.248594E-1	9.386298E-1	8.851027E-1	9.218757E-1	9.476395E-1	8.814850E-1	9.202709E-1	8.853823E-1	8.892871E-1	8.801805E-1	9.324599E-1	9.090864E-1	9.197883E-1	9.454218E-1	8.948857E-1	9.635197E-1	9.050579E-1	9.457720E-1	8.804657E-1	8.925234E-1	8.636294E-1	9.319171E-1	8.819973E-1	8.673573E-1	9.154576E-1	8.789497E-1	8.967490E-1	8.850428E-1	9.061688E-1	9.373343E-1	9.448757E-1	9.262459E-1	9.032274E-1	8.969613E-1	9.617096E-1	8.870354E-1	9.215358E-1	8.987196E-1	9.720823E-1	8.905315E-1	8.871189E-1	8.667059E-1	9.657719E-1	8.956962E-1	8.907098E-1	9.082793E-1	9.067216E-1	9.409052E-1	9.127668E-1	8.696643E-1	9.156905E-1	8.663930E-1	8.578010E-1	8.969441E-1	9.657501E-1	8.819874E-1	9.017805E-1	9.243700E-1	8.692844E-1	9.162299E-1	9.527547E-1	9.075410E-1	9.374219E-1	9.391550E-1	9.185544E-1	9.162516E-1	8.931511E-1	9.092044E-1	9.178461E-1	8.854553E-1	9.147690E-1	9.101756E-1	9.450280E-1	9.575970E-1	9.182733E-1	9.034346E-1	9.201339E-1	8.874107E-1	9.112626E-1	8.823609E-1	9.457560E-1	8.987260E-1	8.843928E-1
5.427550E+2	8.845574E-1	9.015938E-1	8.923442E-1	8.850925E-1	8.985708E-1	8.671378E-1	8.726126E-1	8.765033E-1	8.613850E-1	8.796044E-1	9.012280E-1	8.918575E-1	9.125548E-1	8.839325E-1	8.827075E-1	8.608899E-1	8.601582E-1	9.064762E-1	8.816808E-1	8.675548E-1	8.687210E-1	8.934805E-1	9.606690E-1	8.519241E-1	8.847266E-1	9.576962E-1	8.895764E-1	8.871003E-1	9.103434E-1	9.186557E-1	9.374317E-1	9.116559E-1	9.006807E-1	9.109865E-1	9.037167E-1	9.529523E-1	8.993584E-1	8.954524E-1	9.196586E-1	9.115509E-1	8.927899E-1	9.024586E-1	9.226229E-1	9.026978E-1	9.057378E-1	9.178859E-1	9.004094E-1	8.999909E-1	9.020026E-1	8.730988E-1	8.770303E-1	8.534000E-1	8.891720E-1	8.871157E-1	9.422823E-1	9.180107E-1	9.086675E-1	9.220192E-1	8.887323E-1	8.799255E-1	8.508777E-1	9.249763E-1	9.173214E-1	9.075908E-1	9.121390E-1	9.174782E-1	8.737128E-1	8.410889E-1	8.471918E-1	9.513808E-1	8.697691E-1	8.957217E-1	9.171287E-1	9.313179E-1	9.047524E-1	9.067028E-1	8.979206E-1	9.247568E-1	8.838658E-1	9.005948E-1	9.092969E-1	9.138405E-1	9.279834E-1	9.080243E-1	8.825149E-1	9.117297E-1	8.881015E-1	9.415154E-1	9.010225E-1	8.654552E-1	9.268759E-1	8.878880E-1	9.020654E-1	8.773433E-1	9.333159E-1	8.551863E-1	9.361214E-1	9.235289E-1	8.826212E-1	8.905535E-1	8.917352E-1	9.270795E-1	8.995807E-1	8.924167E-1	9.097817E-1	8.721787E-1	9.270291E-1	8.834858E-1	8.978376E-1	8.696388E-1	8.973688E-1	8.627523E-1	9.128945E-1	8.580811E-1	8.831787E-1	8.469034E-1	9.290167E-1	8.640085E-1	9.146026E-1	9.300634E-1	9.275280E-1	9.307839E-1	9.076782E-1	8.805377E-1	9.128288E-1	9.306050E-1	9.081253E-1	8.886129E-1	9.454645E-1	9.035477E-1	8.895925E-1	9.169330E-1	8.942127E-1	8.801167E-1	8.803384E-1	8.453549E-1	9.204544E-1	8.691638E-1	8.797520E-1	8.731223E-1	8.898777E-1	8.696799E-1	9.107748E-1	9.117755E-1	9.071640E-1	8.323542E-1	9.067541E-1	9.064210E-1	8.804268E-1	9.115568E-1	8.528626E-1	8.580871E-1	9.271591E-1	8.967369E-1	9.048598E-1	9.206452E-1	9.282221E-1	8.595488E-1	9.043223E-1	9.148963E-1	9.338053E-1	8.492979E-1	9.051049E-1	9.735398E-1	8.703095E-1	8.966634E-1	9.408681E-1	9.148574E-1	8.756794E-1
5.430120E+2	9.829087E-1	1.010269E+0	9.992026E-1	9.700977E-1	9.610357E-1	1.014200E+0	9.266727E-1	9.822528E-1	9.662286E-1	9.509752E-1	1.014965E+0	9.624417E-1	9.969691E-1	9.919813E-1	1.018983E+0	9.531103E-1	1.017958E+0	1.014872E+0	9.736806E-1	9.589418E-1	9.645657E-1	9.812528E-1	1.062970E+0	9.948923E-1	9.949796E-1	1.020580E+0	9.902584E-1	1.013189E+0	9.891572E-1	9.940640E-1	9.787535E-1	9.878924E-1	1.012908E+0	9.605363E-1	1.003923E+0	1.054683E+0	9.881445E-1	9.657999E-1	1.016444E+0	9.914424E-1	1.017475E+0	1.008709E+0	1.028370E+0	9.840692E-1	1.051761E+0	9.891336E-1	9.922374E-1	1.044551E+0	9.763723E-1	9.747892E-1	1.003284E+0	9.869439E-1	9.832186E-1	1.003578E+0	1.001095E+0	9.864174E-1	9.740339E-1	1.001466E+0	1.037275E+0	9.890102E-1	9.768691E-1	1.014224E+0	1.005769E+0	1.066525E+0	1.049932E+0	1.026626E+0	1.005287E+0	9.656717E-1	9.937101E-1	1.027928E+0	9.555458E-1	1.062949E+0	1.019245E+0	9.673957E-1	1.016058E+0	9.819983E-1	9.881656E-1	9.546497E-1	9.488411E-1	1.006530E+0	9.583532E-1	9.733968E-1	1.027261E+0	9.582026E-1	9.645579E-1	9.985367E-1	1.021875E+0	9.902859E-1	9.538234E-1	9.844504E-1	9.745762E-1	9.713904E-1	9.601742E-1	9.490340E-1	9.464126E-1	9.952397E-1	9.900299E-1	1.055268E+0	1.024796E+0	9.971674E-1	9.853984E-1	1.014466E+0	1.003292E+0	9.928388E-1	9.675509E-1	9.575390E-1	1.005787E+0	1.038170E+0	9.700758E-1	9.437192E-1	9.965713E-1	9.834020E-1	1.026152E+0	9.991613E-1	9.877636E-1	9.240888E-1	1.021913E+0	9.532947E-1	1.027791E+0	1.017757E+0	1.041009E+0	9.561157E-1	1.016833E+0	9.891039E-1	9.765538E-1	9.813217E-1	9.942579E-1	9.744534E-1	9.865476E-1	9.615023E-1	9.990284E-1	9.950278E-1	1.004317E+0	9.627668E-1	9.255035E-1	9.461044E-1	9.840361E-1	1.032343E+0	9.848449E-1	9.613360E-1	9.976869E-1	9.610098E-1	1.021124E+0	9.922996E-1	1.013287E+0	9.774286E-1	1.025186E+0	1.007570E+0	9.637820E-1	1.017161E+0	9.478820E-1	1.059843E+0	1.005322E+0	9.999409E-1	9.641622E-1	1.016483E+0	1.000094E+0	1.004759E+0	1.046383E+0	9.855279E-1	9.498868E-1	9.271241E-1	9.781779E-1	9.995528E-1	1.015910E+0	9.735239E-1	1.014616E+0	9.444229E-1	9.444086E-1
5.432960E+2	1.180303E+0	1.181119E+0	1.196635E+0	1.202562E+0	1.147633E+0	1.164396E+0	1.216834E+0	1.198594E+0	1.099336E+0	1.197943E+0	1.171590E+0	1.185307E+0	1.205050E+0	1.210548E+0	1.205191E+0	1.227349E+0	1.226971E+0	1.197145E+0	1.163795E+0	1.152990E+0	1.219385E+0	1.163880E+0	1.239402E+0	1.182893E+0	1.224194E+0	1.181728E+0	1.222081E+0	1.143515E+0	1.220475E+0	1.218154E+0	1.186206E+0	1.156707E+0	1.203801E+0	1.230894E+0	1.173971E+0	1.163705E+0	1.235946E+0	1.198776E+0	1.197345E+0	1.180187E+0	1.238941E+0	1.163311E+0	1.188170E+0	1.190328E+0	1.243864E+0	1.170173E+0	1.200784E+0	1.233488E+0	1.224295E+0	1.144108E+0	1.214192E+0	1.241401E+0	1.177414E+0	1.216023E+0	1.202352E+0	1.189074E+0	1.216004E+0	1.240965E+0	1.207049E+0	1.209454E+0	1.246881E+0	1.165612E+0	1.241948E+0	1.244596E+0	1.222449E+0	1.214567E+0	1.210175E+0	1.122878E+0	1.153224E+0	1.207190E+0	1.160798E+0	1.236872E+0	1.175724E+0	1.207943E+0	1.150875E+0	1.251416E+0	1.248814E+0	1.174679E+0	1.188698E+0	1.198334E+0	1.165060E+0	1.196321E+0	1.219555E+0	1.213883E+0	1.191795E+0	1.214343E+0	1.243127E+0	1.220417E+0	1.165115E+0	1.142381E+0	1.269072E+0	1.161905E+0	1.204187E+0	1.202531E+0	1.190776E+0	1.172440E+0	1.172480E+0	1.216745E+0	1.236733E+0	1.202388E+0	1.169745E+0	1.211651E+0	1.180965E+0	1.247459E+0	1.161112E+0	1.222488E+0	1.236621E+0	1.201092E+0	1.214670E+0	1.217423E+0	1.176489E+0	1.229235E+0	1.218047E+0	1.194331E+0	1.182906E+0	1.137467E+0	1.204196E+0	1.205007E+0	1.239720E+0	1.231156E+0	1.274495E+0	1.196028E+0	1.231024E+0	1.200697E+0	1.197763E+0	1.194898E+0	1.207572E+0	1.185790E+0	1.204311E+0	1.235456E+0	1.125596E+0	1.246064E+0	1.170760E+0	1.179288E+0	1.201676E+0	1.184464E+0	1.147196E+0	1.142899E+0	1.171877E+0	1.155050E+0	1.223252E+0	1.181211E+0	1.150144E+0	1.155605E+0	1.181869E+0	1.143725E+0	1.181753E+0	1.181289E+0	1.169033E+0	1.119741E+0	1.192702E+0	1.197126E+0	1.183890E+0	1.182048E+0	1.225586E+0	1.175617E+0	1.173318E+0	1.172975E+0	1.235762E+0	1.262565E+0	1.162369E+0	1.204222E+0	1.180192E+0	1.153470E+0	1.157218E+0	1.191934E+0	1.177541E+0	1.193566E+0	1.206245E+0
5.435270E+2	1.263192E+0	1.287388E+0	1.316169E+0	1.335232E+0	1.259982E+0	1.305531E+0	1.331615E+0	1.337237E+0	1.262276E+0	1.273076E+0	1.349475E+0	1.345300E+0	1.313925E+0	1.319620E+0	1.306060E+0	1.358375E+0	1.318677E+0	1.358156E+0	1.292200E+0	1.311083E+0	1.351698E+0	1.278504E+0	1.351377E+0	1.334494E+0	1.355446E+0	1.338229E+0	1.322148E+0	1.345025E+0	1.349772E+0	1.308716E+0	1.351679E+0	1.270661E+0	1.305948E+0	1.392647E+0	1.310930E+0	1.312449E+0	1.300566E+0	1.322138E+0	1.306688E+0	1.330004E+0	1.316527E+0	1.335522E+0	1.266660E+0	1.331116E+0	1.321065E+0	1.291065E+0	1.296696E+0	1.361929E+0	1.254629E+0	1.291988E+0	1.283934E+0	1.296468E+0	1.332113E+0	1.298007E+0	1.340724E+0	1.351201E+0	1.333550E+0	1.342134E+0	1.255130E+0	1.318657E+0	1.306327E+0	1.305547E+0	1.269995E+0	1.291248E+0	1.315495E+0	1.332155E+0	1.294651E+0	1.335778E+0	1.256480E+0	1.311823E+0	1.321599E+0	1.360478E+0	1.273082E+0	1.255976E+0	1.282571E+0	1.350948E+0	1.304997E+0	1.266415E+0	1.305597E+0	1.280241E+0	1.271815E+0	1.273623E+0	1.336762E+0	1.305632E+0	1.283430E+0	1.299714E+0	1.363891E+0	1.317486E+0	1.312176E+0	1.279276E+0	1.297685E+0	1.283060E+0	1.322502E+0	1.262264E+0	1.314859E+0	1.331636E+0	1.268042E+0	1.302408E+0	1.346614E+0	1.312652E+0	1.250500E+0	1.328662E+0	1.308353E+0	1.280387E+0	1.250376E+0	1.298733E+0	1.282471E+0	1.295466E+0	1.285975E+0	1.241919E+0	1.237519E+0	1.279144E+0	1.293646E+0	1.298639E+0	1.331996E+0	1.354291E+0	1.330370E+0	1.288552E+0	1.365236E+0	1.298678E+0	1.315757E+0	1.214660E+0	1.304543E+0	1.271890E+0	1.341650E+0	1.317743E+0	1.281062E+0	1.288287E+0	1.321896E+0	1.319630E+0	1.279587E+0	1.319572E+0	1.251989E+0	1.287773E+0	1.278659E+0	1.308878E+0	1.334253E+0	1.279581E+0	1.308901E+0	1.283761E+0	1.303006E+0	1.295744E+0	1.349528E+0	1.296117E+0	1.284448E+0	1.297556E+0	1.300238E+0	1.387799E+0	1.256842E+0	1.282149E+0	1.352722E+0	1.315106E+0	1.312083E+0	1.282697E+0	1.294431E+0	1.296603E+0	1.306883E+0	1.249017E+0	1.269697E+0	1.263546E+0	1.337877E+0	1.245531E+0	1.296339E+0	1.329901E+0	1.285856E+0	1.295067E+0	1.316094E+0	1.216510E+0	1.358845E+0
5.437640E+2	1.423505E+0	1.483612E+0	1.456731E+0	1.448146E+0	1.472832E+0	1.448653E+0	1.509914E+0	1.395868E+0	1.458260E+0	1.436196E+0	1.492213E+0	1.471618E+0	1.495408E+0	1.471639E+0	1.481329E+0	1.477990E+0	1.451288E+0	1.461572E+0	1.388644E+0	1.474796E+0	1.534014E+0	1.464211E+0	1.485190E+0	1.447632E+0	1.485974E+0	1.453198E+0	1.495571E+0	1.447832E+0	1.468147E+0	1.445139E+0	1.463570E+0	1.433043E+0	1.469862E+0	1.524823E+0	1.406214E+0	1.456619E+0	1.368317E+0	1.374182E+0	1.431309E+0	1.446223E+0	1.494227E+0	1.406651E+0	1.458288E+0	1.450687E+0	1.454899E+0	1.446870E+0	1.475501E+0	1.457935E+0	1.466201E+0	1.411770E+0	1.469179E+0	1.496387E+0	1.456937E+0	1.484118E+0	1.454605E+0	1.491882E+0	1.498524E+0	1.449018E+0	1.501443E+0	1.438645E+0	1.499214E+0	1.488914E+0	1.448575E+0	1.469154E+0	1.476722E+0	1.492829E+0	1.423491E+0	1.456947E+0	1.346092E+0	1.456444E+0	1.419523E+0	1.453747E+0	1.460031E+0	1.478032E+0	1.452601E+0	1.517807E+0	1.408014E+0	1.440464E+0	1.474412E+0	1.484942E+0	1.450147E+0	1.499885E+0	1.422366E+0	1.446573E+0	1.431996E+0	1.506199E+0	1.517931E+0	1.463575E+0	1.404911E+0	1.416983E+0	1.467397E+0	1.472493E+0	1.502981E+0	1.459086E+0	1.413642E+0	1.427575E+0	1.387208E+0	1.481405E+0	1.437327E+0	1.453054E+0	1.415767E+0	1.489885E+0	1.488534E+0	1.443789E+0	1.403259E+0	1.402863E+0	1.487808E+0	1.422933E+0	1.535128E+0	1.388234E+0	1.474840E+0	1.393980E+0	1.443514E+0	1.453545E+0	1.416398E+0	1.394329E+0	1.462450E+0	1.440178E+0	1.497142E+0	1.417545E+0	1.505283E+0	1.416330E+0	1.421067E+0	1.402619E+0	1.471038E+0	1.449544E+0	1.441791E+0	1.441275E+0	1.484407E+0	1.459556E+0	1.407299E+0	1.462997E+0	1.408690E+0	1.438674E+0	1.385428E+0	1.494416E+0	1.462707E+0	1.497301E+0	1.373629E+0	1.458646E+0	1.473520E+0	1.407150E+0	1.427449E+0	1.519929E+0	1.407863E+0	1.403277E+0	1.462637E+0	1.484054E+0	1.435682E+0	1.466028E+0	1.437181E+0	1.468531E+0	1.395923E+0	1.479030E+0	1.449219E+0	1.440838E+0	1.461302E+0	1.408777E+0	1.416089E+0	1.429202E+0	1.417653E+0	1.455516E+0	1.455097E+0	1.388957E+0	1.410447E+0	1.508946E+0	1.397322E+0	1.429271E+0	1.450795E+0
5.440170E+2	1.458327E+0	1.521821E+0	1.552824E+0	1.514205E+0	1.480728E+0	1.434609E+0	1.503685E+0	1.523290E+0	1.446043E+0	1.505362E+0	1.553411E+0	1.506874E+0	1.542677E+0	1.484288E+0	1.490090E+0	1.538171E+0	1.495607E+0	1.539426E+0	1.557651E+0	1.537928E+0	1.491119E+0	1.492515E+0	1.513712E+0	1.458858E+0	1.472291E+0	1.520015E+0	1.451642E+0	1.513464E+0	1.520866E+0	1.511979E+0	1.475664E+0	1.497056E+0	1.538163E+0	1.507723E+0	1.450880E+0	1.503302E+0	1.545370E+0	1.497988E+0	1.470283E+0	1.545127E+0	1.418796E+0	1.536931E+0	1.480256E+0	1.530799E+0	1.539156E+0	1.481949E+0	1.485980E+0	1.513166E+0	1.496024E+0	1.540447E+0	1.467463E+0	1.496529E+0	1.534393E+0	1.533218E+0	1.524635E+0	1.553724E+0	1.510672E+0	1.523637E+0	1.487654E+0	1.544590E+0	1.458958E+0	1.433569E+0	1.517999E+0	1.491070E+0	1.514464E+0	1.464169E+0	1.434260E+0	1.447575E+0	1.508859E+0	1.547723E+0	1.510847E+0	1.523299E+0	1.485752E+0	1.473779E+0	1.508917E+0	1.497386E+0	1.517426E+0	1.455305E+0	1.487191E+0	1.432381E+0	1.495532E+0	1.513975E+0	1.536007E+0	1.537075E+0	1.469090E+0	1.461592E+0	1.501818E+0	1.440271E+0	1.482090E+0	1.432518E+0	1.451938E+0	1.481024E+0	1.471289E+0	1.510139E+0	1.503701E+0	1.483854E+0	1.537086E+0	1.504676E+0	1.494944E+0	1.477753E+0	1.517203E+0	1.526699E+0	1.456569E+0	1.440211E+0	1.498198E+0	1.488085E+0	1.525988E+0	1.488351E+0	1.525070E+0	1.431716E+0	1.448711E+0	1.429769E+0	1.522959E+0	1.454119E+0	1.528168E+0	1.494122E+0	1.483774E+0	1.477517E+0	1.498070E+0	1.461965E+0	1.495457E+0	1.437228E+0	1.471314E+0	1.477995E+0	1.512512E+0	1.465451E+0	1.510738E+0	1.541895E+0	1.444043E+0	1.476239E+0	1.403293E+0	1.452384E+0	1.464926E+0	1.500385E+0	1.420036E+0	1.421645E+0	1.461188E+0	1.446063E+0	1.423849E+0	1.531416E+0	1.549745E+0	1.365136E+0	1.488377E+0	1.508299E+0	1.433172E+0	1.440897E+0	1.494444E+0	1.561259E+0	1.477454E+0	1.449344E+0	1.503737E+0	1.462880E+0	1.526536E+0	1.451561E+0	1.480075E+0	1.449909E+0	1.547785E+0	1.395320E+0	1.499564E+0	1.468220E+0	1.470966E+0	1.447304E+0	1.400414E+0	1.495335E+0	1.447615E+0	1.456343E+0	1.409466E+0	1.442035E+0	1.376735E+0
5.442700E+2	1.521113E+0	1.494750E+0	1.500215E+0	1.504726E+0	1.451809E+0	1.455497E+0	1.478081E+0	1.442586E+0	1.388503E+0	1.475712E+0	1.518642E+0	1.449345E+0	1.503940E+0	1.427438E+0	1.469619E+0	1.392315E+0	1.557301E+0	1.484849E+0	1.447426E+0	1.499745E+0	1.494205E+0	1.470036E+0	1.464013E+0	1.442747E+0	1.485522E+0	1.510707E+0	1.433508E+0	1.481887E+0	1.530751E+0	1.451545E+0	1.497600E+0	1.457589E+0	1.422725E+0	1.536732E+0	1.467603E+0	1.451021E+0	1.472134E+0	1.476947E+0	1.482107E+0	1.523471E+0	1.468629E+0	1.460731E+0	1.439916E+0	1.434748E+0	1.507639E+0	1.465985E+0	1.437021E+0	1.462561E+0	1.460363E+0	1.466127E+0	1.478707E+0	1.435862E+0	1.425996E+0	1.480134E+0	1.471826E+0	1.384245E+0	1.515644E+0	1.507456E+0	1.521440E+0	1.472505E+0	1.445184E+0	1.459402E+0	1.493396E+0	1.480310E+0	1.499951E+0	1.507808E+0	1.493469E+0	1.419238E+0	1.413547E+0	1.473415E+0	1.445333E+0	1.472391E+0	1.451497E+0	1.450598E+0	1.483966E+0	1.463752E+0	1.503024E+0	1.429628E+0	1.413461E+0	1.452439E+0	1.446347E+0	1.442640E+0	1.503507E+0	1.452794E+0	1.478102E+0	1.497125E+0	1.471619E+0	1.372948E+0	1.488664E+0	1.417308E+0	1.479807E+0	1.444869E+0	1.488761E+0	1.441558E+0	1.444606E+0	1.417030E+0	1.443602E+0	1.435734E+0	1.485572E+0	1.457168E+0	1.475217E+0	1.484484E+0	1.484306E+0	1.427949E+0	1.443312E+0	1.422684E+0	1.468477E+0	1.448935E+0	1.456240E+0	1.386340E+0	1.429887E+0	1.402842E+0	1.438831E+0	1.444506E+0	1.489806E+0	1.445074E+0	1.444784E+0	1.422742E+0	1.506406E+0	1.429091E+0	1.475147E+0	1.445646E+0	1.476694E+0	1.416295E+0	1.407300E+0	1.399992E+0	1.431001E+0	1.486308E+0	1.502857E+0	1.472936E+0	1.451362E+0	1.408295E+0	1.432670E+0	1.432107E+0	1.434725E+0	1.451533E+0	1.458169E+0	1.441311E+0	1.426764E+0	1.444642E+0	1.492055E+0	1.428704E+0	1.462382E+0	1.501127E+0	1.486758E+0	1.420692E+0	1.499682E+0	1.487098E+0	1.496963E+0	1.444423E+0	1.473853E+0	1.470882E+0	1.484038E+0	1.496277E+0	1.457403E+0	1.522184E+0	1.480340E+0	1.448119E+0	1.471508E+0	1.475196E+0	1.403841E+0	1.349359E+0	1.464511E+0	1.443022E+0	1.432415E+0	1.420091E+0	1.427551E+0	1.436284E+0	1.434421E+0
5.445340E+2	1.512209E+0	1.496098E+0	1.542435E+0	1.430615E+0	1.467044E+0	1.478656E+0	1.505081E+0	1.458954E+0	1.477318E+0	1.530711E+0	1.570832E+0	1.485342E+0	1.544665E+0	1.500868E+0	1.546848E+0	1.526590E+0	1.502563E+0	1.489281E+0	1.502184E+0	1.523977E+0	1.513040E+0	1.471334E+0	1.500739E+0	1.479279E+0	1.487950E+0	1.458688E+0	1.479073E+0	1.543720E+0	1.487418E+0	1.412595E+0	1.426829E+0	1.522377E+0	1.496002E+0	1.512375E+0	1.441941E+0	1.502541E+0	1.513964E+0	1.422571E+0	1.501585E+0	1.531301E+0	1.480303E+0	1.485248E+0	1.501877E+0	1.477013E+0	1.464018E+0	1.478628E+0	1.481739E+0	1.479989E+0	1.465281E+0	1.477337E+0	1.509672E+0	1.503669E+0	1.455525E+0	1.527017E+0	1.561031E+0	1.472337E+0	1.531901E+0	1.551517E+0	1.474470E+0	1.435607E+0	1.479998E+0	1.485085E+0	1.525528E+0	1.498458E+0	1.463368E+0	1.462665E+0	1.495617E+0	1.425922E+0	1.421325E+0	1.510129E+0	1.505829E+0	1.547871E+0	1.496350E+0	1.437464E+0	1.510193E+0	1.553958E+0	1.474609E+0	1.409683E+0	1.492356E+0	1.451441E+0	1.431083E+0	1.458321E+0	1.484781E+0	1.488555E+0	1.466290E+0	1.456562E+0	1.550970E+0	1.461846E+0	1.519459E+0	1.439430E+0	1.478789E+0	1.498108E+0	1.508477E+0	1.499637E+0	1.447572E+0	1.472367E+0	1.489893E+0	1.471531E+0	1.491007E+0	1.504873E+0	1.485114E+0	1.522487E+0	1.452457E+0	1.463194E+0	1.486622E+0	1.426842E+0	1.519999E+0	1.498208E+0	1.473331E+0	1.436280E+0	1.426257E+0	1.487697E+0	1.424467E+0	1.399182E+0	1.453912E+0	1.485116E+0	1.497260E+0	1.526334E+0	1.467595E+0	1.485461E+0	1.540310E+0	1.461047E+0	1.479239E+0	1.437665E+0	1.475537E+0	1.444456E+0	1.465762E+0	1.472286E+0	1.493591E+0	1.447341E+0	1.489887E+0	1.462595E+0	1.490275E+0	1.488881E+0	1.423690E+0	1.397581E+0	1.454410E+0	1.423959E+0	1.456812E+0	1.471565E+0	1.494693E+0	1.393401E+0	1.498912E+0	1.480159E+0	1.478061E+0	1.398872E+0	1.445785E+0	1.500087E+0	1.470716E+0	1.453329E+0	1.478687E+0	1.500626E+0	1.512352E+0	1.459216E+0	1.461982E+0	1.474078E+0	1.507526E+0	1.441253E+0	1.514232E+0	1.460198E+0	1.418139E+0	1.414381E+0	1.479979E+0	1.436269E+0	1.472600E+0	1.421486E+0	1.457211E+0	1.440875E+0	1.521675E+0
5.447560E+2	1.437046E+0	1.422280E+0	1.465934E+0	1.505317E+0	1.417222E+0	1.466362E+0	1.431137E+0	1.477620E+0	1.449381E+0	1.433482E+0	1.504993E+0	1.464638E+0	1.538536E+0	1.458675E+0	1.465998E+0	1.419827E+0	1.435151E+0	1.440829E+0	1.383665E+0	1.408896E+0	1.494312E+0	1.472847E+0	1.438006E+0	1.450396E+0	1.439011E+0	1.495220E+0	1.433750E+0	1.455638E+0	1.448225E+0	1.397476E+0	1.356730E+0	1.428775E+0	1.486733E+0	1.469768E+0	1.407666E+0	1.417361E+0	1.445345E+0	1.422553E+0	1.415520E+0	1.447101E+0	1.404448E+0	1.439639E+0	1.457949E+0	1.427144E+0	1.369012E+0	1.406710E+0	1.436687E+0	1.461337E+0	1.533959E+0	1.464573E+0	1.469930E+0	1.515920E+0	1.418032E+0	1.442830E+0	1.544945E+0	1.472407E+0	1.478557E+0	1.442690E+0	1.413441E+0	1.468800E+0	1.486684E+0	1.443279E+0	1.523337E+0	1.486160E+0	1.477872E+0	1.408050E+0	1.472241E+0	1.389948E+0	1.441135E+0	1.429784E+0	1.399261E+0	1.475817E+0	1.442419E+0	1.418618E+0	1.442510E+0	1.441243E+0	1.493676E+0	1.431238E+0	1.446466E+0	1.420143E+0	1.450104E+0	1.457192E+0	1.441182E+0	1.399795E+0	1.401987E+0	1.460640E+0	1.456444E+0	1.458961E+0	1.441591E+0	1.418542E+0	1.456728E+0	1.437399E+0	1.493900E+0	1.449996E+0	1.424451E+0	1.393074E+0	1.482048E+0	1.380140E+0	1.475465E+0	1.451722E+0	1.445951E+0	1.432039E+0	1.422296E+0	1.411993E+0	1.452368E+0	1.416082E+0	1.413326E+0	1.461237E+0	1.478451E+0	1.453069E+0	1.390534E+0	1.391059E+0	1.455258E+0	1.454651E+0	1.452490E+0	1.416555E+0	1.400386E+0	1.348186E+0	1.468728E+0	1.408389E+0	1.493776E+0	1.428171E+0	1.425500E+0	1.376103E+0	1.447054E+0	1.400907E+0	1.406863E+0	1.416822E+0	1.465197E+0	1.439265E+0	1.436525E+0	1.401427E+0	1.375228E+0	1.473325E+0	1.424135E+0	1.410918E+0	1.387462E+0	1.404091E+0	1.429341E+0	1.414860E+0	1.425193E+0	1.358603E+0	1.437548E+0	1.434784E+0	1.421518E+0	1.388135E+0	1.419557E+0	1.432772E+0	1.397156E+0	1.426146E+0	1.441044E+0	1.472971E+0	1.420405E+0	1.411483E+0	1.382714E+0	1.388790E+0	1.391028E+0	1.411910E+0	1.468464E+0	1.363390E+0	1.428799E+0	1.357628E+0	1.472716E+0	1.446005E+0	1.417040E+0	1.365857E+0	1.452770E+0	1.424963E+0	1.364089E+0
5.450150E+2	1.349137E+0	1.364580E+0	1.316001E+0	1.336132E+0	1.368756E+0	1.307304E+0	1.351079E+0	1.358319E+0	1.331649E+0	1.370049E+0	1.331864E+0	1.344755E+0	1.367987E+0	1.295692E+0	1.409096E+0	1.358718E+0	1.404380E+0	1.344858E+0	1.352106E+0	1.324829E+0	1.344672E+0	1.348948E+0	1.320967E+0	1.281312E+0	1.354065E+0	1.384403E+0	1.286546E+0	1.370450E+0	1.377941E+0	1.335911E+0	1.291614E+0	1.335288E+0	1.346611E+0	1.342267E+0	1.309919E+0	1.352223E+0	1.355564E+0	1.304595E+0	1.307359E+0	1.350409E+0	1.337703E+0	1.323709E+0	1.330159E+0	1.332537E+0	1.339991E+0	1.318205E+0	1.340464E+0	1.366317E+0	1.306977E+0	1.306578E+0	1.373321E+0	1.404751E+0	1.359615E+0	1.386955E+0	1.422973E+0	1.344886E+0	1.417562E+0	1.367726E+0	1.335599E+0	1.354513E+0	1.376611E+0	1.323044E+0	1.341921E+0	1.373385E+0	1.389736E+0	1.313355E+0	1.365963E+0	1.287693E+0	1.321711E+0	1.307914E+0	1.349716E+0	1.389340E+0	1.351634E+0	1.288305E+0	1.289954E+0	1.346942E+0	1.306133E+0	1.255949E+0	1.369382E+0	1.348123E+0	1.387021E+0	1.315352E+0	1.330860E+0	1.328146E+0	1.323138E+0	1.281491E+0	1.331840E+0	1.325312E+0	1.411895E+0	1.312263E+0	1.365571E+0	1.331469E+0	1.332394E+0	1.285838E+0	1.302862E+0	1.351458E+0	1.355850E+0	1.329054E+0	1.362941E+0	1.345017E+0	1.338759E+0	1.349387E+0	1.339847E+0	1.416166E+0	1.331169E+0	1.315886E+0	1.362395E+0	1.362918E+0	1.332785E+0	1.267323E+0	1.327202E+0	1.311073E+0	1.307869E+0	1.266509E+0	1.343829E+0	1.351049E+0	1.320049E+0	1.319566E+0	1.355644E+0	1.364438E+0	1.381504E+0	1.354273E+0	1.381967E+0	1.370273E+0	1.372910E+0	1.309729E+0	1.342579E+0	1.354095E+0	1.356628E+0	1.361377E+0	1.350039E+0	1.355917E+0	1.274093E+0	1.337015E+0	1.348404E+0	1.311976E+0	1.363111E+0	1.277428E+0	1.288438E+0	1.261597E+0	1.380351E+0	1.266648E+0	1.391471E+0	1.318904E+0	1.323667E+0	1.290875E+0	1.358364E+0	1.351127E+0	1.338508E+0	1.332676E+0	1.295641E+0	1.405722E+0	1.273878E+0	1.323641E+0	1.350376E+0	1.287312E+0	1.361943E+0	1.307246E+0	1.379555E+0	1.383491E+0	1.365195E+0	1.226360E+0	1.329740E+0	1.305990E+0	1.288990E+0	1.308233E+0	1.293686E+0	1.362582E+0	1.333260E+0
5.452580E+2	1.267731E+0	1.259167E+0	1.312598E+0	1.207676E+0	1.242695E+0	1.256367E+0	1.273097E+0	1.216357E+0	1.265097E+0	1.245538E+0	1.341561E+0	1.304483E+0	1.327655E+0	1.300782E+0	1.289070E+0	1.289589E+0	1.268783E+0	1.282460E+0	1.252904E+0	1.291441E+0	1.358103E+0	1.239557E+0	1.285371E+0	1.198848E+0	1.304468E+0	1.321713E+0	1.296163E+0	1.264984E+0	1.287716E+0	1.283130E+0	1.268154E+0	1.235448E+0	1.297993E+0	1.255733E+0	1.277659E+0	1.262557E+0	1.286876E+0	1.261887E+0	1.296010E+0	1.275324E+0	1.241570E+0	1.253187E+0	1.240577E+0	1.249904E+0	1.253009E+0	1.215699E+0	1.271240E+0	1.308377E+0	1.228079E+0	1.217499E+0	1.227268E+0	1.277992E+0	1.337299E+0	1.334108E+0	1.286942E+0	1.282577E+0	1.298841E+0	1.347793E+0	1.312021E+0	1.332346E+0	1.298970E+0	1.306956E+0	1.284025E+0	1.257871E+0	1.293156E+0	1.362699E+0	1.218648E+0	1.253445E+0	1.239342E+0	1.278458E+0	1.270509E+0	1.287364E+0	1.292593E+0	1.243697E+0	1.267617E+0	1.245729E+0	1.299252E+0	1.206433E+0	1.280345E+0	1.250497E+0	1.235101E+0	1.251477E+0	1.248738E+0	1.323545E+0	1.253597E+0	1.233899E+0	1.302991E+0	1.280027E+0	1.305559E+0	1.277745E+0	1.289086E+0	1.307635E+0	1.269353E+0	1.307469E+0	1.254617E+0	1.267913E+0	1.278645E+0	1.251365E+0	1.285885E+0	1.286027E+0	1.290741E+0	1.267710E+0	1.291081E+0	1.284154E+0	1.209850E+0	1.240814E+0	1.296453E+0	1.347377E+0	1.245519E+0	1.272326E+0	1.269790E+0	1.240346E+0	1.322442E+0	1.241959E+0	1.250154E+0	1.305229E+0	1.302313E+0	1.270553E+0	1.293976E+0	1.329475E+0	1.297814E+0	1.398452E+0	1.281905E+0	1.220199E+0	1.322590E+0	1.250044E+0	1.230378E+0	1.271432E+0	1.238986E+0	1.281490E+0	1.239011E+0	1.301499E+0	1.244793E+0	1.297945E+0	1.210516E+0	1.256852E+0	1.249726E+0	1.242372E+0	1.201702E+0	1.294774E+0	1.298302E+0	1.267948E+0	1.294166E+0	1.254011E+0	1.320923E+0	1.233215E+0	1.245167E+0	1.341540E+0	1.302808E+0	1.252153E+0	1.306919E+0	1.300292E+0	1.281869E+0	1.220986E+0	1.271020E+0	1.254669E+0	1.278577E+0	1.279851E+0	1.310906E+0	1.326318E+0	1.289453E+0	1.198025E+0	1.288234E+0	1.260932E+0	1.272518E+0	1.266544E+0	1.352168E+0	1.282529E+0	1.276538E+0
5.455290E+2	1.251971E+0	1.225873E+0	1.268429E+0	1.182467E+0	1.254296E+0	1.253091E+0	1.252646E+0	1.218706E+0	1.218803E+0	1.196279E+0	1.249996E+0	1.201146E+0	1.253571E+0	1.201355E+0	1.288776E+0	1.268389E+0	1.213887E+0	1.251955E+0	1.243439E+0	1.203800E+0	1.306780E+0	1.213608E+0	1.238673E+0	1.204885E+0	1.223607E+0	1.205247E+0	1.219890E+0	1.260350E+0	1.217033E+0	1.226092E+0	1.203715E+0	1.221060E+0	1.203231E+0	1.214051E+0	1.257981E+0	1.219121E+0	1.204666E+0	1.216010E+0	1.182323E+0	1.224472E+0	1.265522E+0	1.202233E+0	1.242011E+0	1.229946E+0	1.226153E+0	1.224608E+0	1.216605E+0	1.262944E+0	1.225241E+0	1.203206E+0	1.223623E+0	1.231058E+0	1.236202E+0	1.235405E+0	1.217786E+0	1.238519E+0	1.277692E+0	1.307651E+0	1.188283E+0	1.264463E+0	1.180004E+0	1.251368E+0	1.227871E+0	1.241769E+0	1.243943E+0	1.266234E+0	1.235320E+0	1.153211E+0	1.170685E+0	1.194827E+0	1.176187E+0	1.235574E+0	1.222602E+0	1.231201E+0	1.220865E+0	1.196576E+0	1.243974E+0	1.167882E+0	1.242400E+0	1.276859E+0	1.216099E+0	1.233203E+0	1.250397E+0	1.221070E+0	1.198318E+0	1.190285E+0	1.197648E+0	1.212546E+0	1.216674E+0	1.204671E+0	1.208953E+0	1.266424E+0	1.256758E+0	1.279252E+0	1.258872E+0	1.176536E+0	1.229668E+0	1.213203E+0	1.260882E+0	1.206451E+0	1.245770E+0	1.248776E+0	1.228105E+0	1.239172E+0	1.164721E+0	1.199232E+0	1.257646E+0	1.301774E+0	1.219085E+0	1.203115E+0	1.214828E+0	1.207469E+0	1.198481E+0	1.161705E+0	1.246009E+0	1.274755E+0	1.216966E+0	1.221832E+0	1.228828E+0	1.272681E+0	1.314866E+0	1.222016E+0	1.221319E+0	1.187161E+0	1.246626E+0	1.167938E+0	1.221492E+0	1.209751E+0	1.211866E+0	1.232895E+0	1.236436E+0	1.178852E+0	1.184869E+0	1.232055E+0	1.172282E+0	1.223846E+0	1.280890E+0	1.170255E+0	1.222864E+0	1.178173E+0	1.292389E+0	1.132407E+0	1.214115E+0	1.191940E+0	1.244334E+0	1.189146E+0	1.238862E+0	1.319113E+0	1.215109E+0	1.204101E+0	1.262334E+0	1.215836E+0	1.156070E+0	1.236458E+0	1.229015E+0	1.235378E+0	1.242151E+0	1.152416E+0	1.220287E+0	1.184290E+0	1.229485E+0	1.148747E+0	1.244273E+0	1.149765E+0	1.231929E+0	1.232529E+0	1.243389E+0	1.228092E+0	1.180983E+0
5.457720E+2	1.148167E+0	1.134305E+0	1.146347E+0	1.149510E+0	1.130317E+0	1.096499E+0	1.120720E+0	1.137707E+0	1.145452E+0	1.133337E+0	1.147177E+0	1.129834E+0	1.139531E+0	1.130435E+0	1.136831E+0	1.173625E+0	1.164985E+0	1.147963E+0	1.135647E+0	1.158668E+0	1.212098E+0	1.139153E+0	1.136571E+0	1.119488E+0	1.174169E+0	1.114235E+0	1.137082E+0	1.158839E+0	1.163523E+0	1.110388E+0	1.129853E+0	1.127490E+0	1.090118E+0	1.106624E+0	1.145442E+0	1.131855E+0	1.106920E+0	1.107243E+0	1.129791E+0	1.155158E+0	1.111691E+0	1.160402E+0	1.159604E+0	1.098014E+0	1.168139E+0	1.116769E+0	1.117146E+0	1.128329E+0	1.149722E+0	1.104111E+0	1.168133E+0	1.133881E+0	1.146376E+0	1.145202E+0	1.149026E+0	1.150380E+0	1.226627E+0	1.148337E+0	1.161638E+0	1.122087E+0	1.051026E+0	1.123114E+0	1.086639E+0	1.135481E+0	1.160532E+0	1.121423E+0	1.066866E+0	1.082281E+0	1.090219E+0	1.164631E+0	1.079921E+0	1.141735E+0	1.145480E+0	1.099508E+0	1.134287E+0	1.116362E+0	1.115889E+0	1.078854E+0	1.125213E+0	1.059571E+0	1.097784E+0	1.091085E+0	1.150794E+0	1.105052E+0	1.131769E+0	1.129529E+0	1.139046E+0	1.073852E+0	1.102660E+0	1.106977E+0	1.145428E+0	1.100871E+0	1.152320E+0	1.089014E+0	1.146834E+0	1.111942E+0	1.130625E+0	1.113827E+0	1.114386E+0	1.159403E+0	1.117600E+0	1.149111E+0	1.094621E+0	1.105742E+0	1.108312E+0	1.073210E+0	1.132124E+0	1.203011E+0	1.125949E+0	1.048082E+0	1.098612E+0	1.136225E+0	1.136604E+0	1.112396E+0	1.142134E+0	1.134118E+0	1.117572E+0	1.113745E+0	1.122672E+0	1.125852E+0	1.157560E+0	1.134896E+0	1.148807E+0	1.086474E+0	1.154096E+0	1.175325E+0	1.116757E+0	1.101465E+0	1.155253E+0	1.149225E+0	1.099903E+0	1.121976E+0	1.066640E+0	1.099710E+0	1.090324E+0	1.118914E+0	1.096877E+0	1.112940E+0	1.156526E+0	1.128579E+0	1.133668E+0	1.110498E+0	1.076784E+0	1.180749E+0	1.145688E+0	1.107237E+0	1.158015E+0	1.141825E+0	1.112328E+0	1.105955E+0	1.143599E+0	1.129665E+0	1.127819E+0	1.101214E+0	1.154603E+0	1.174741E+0	1.105671E+0	1.090035E+0	1.100608E+0	1.133099E+0	1.117211E+0	1.119639E+0	1.151059E+0	1.154695E+0	1.120799E+0	1.122795E+0	1.201882E+0	1.120342E+0	1.106644E+0
5.460000E+2	1.102743E+0	1.100784E+0	1.191669E+0	1.170733E+0	1.158033E+0	1.154911E+0	1.138138E+0	1.101495E+0	1.119327E+0	1.070314E+0	1.136672E+0	1.154791E+0	1.180307E+0	1.102251E+0	1.147142E+0	1.078119E+0	1.177579E+0	1.147052E+0	1.081221E+0	1.144795E+0	1.145596E+0	1.127686E+0	1.121937E+0	1.133107E+0	1.138962E+0	1.114608E+0	1.129587E+0	1.152215E+0	1.138769E+0	1.116854E+0	1.141856E+0	1.098196E+0	1.104718E+0	1.119456E+0	1.108954E+0	1.086822E+0	1.147198E+0	1.203324E+0	1.083414E+0	1.163509E+0	1.135268E+0	1.169232E+0	1.159146E+0	1.180371E+0	1.162210E+0	1.151710E+0	1.147109E+0	1.092959E+0	1.128595E+0	1.108472E+0	1.143007E+0	1.165043E+0	1.108475E+0	1.144904E+0	1.110761E+0	1.224537E+0	1.186491E+0	1.145420E+0	1.148015E+0	1.124301E+0	1.183108E+0	1.109810E+0	1.139636E+0	1.133859E+0	1.173453E+0	1.140720E+0	1.112386E+0	1.081613E+0	1.100645E+0	1.144804E+0	1.115684E+0	1.146458E+0	1.119617E+0	1.120151E+0	1.117167E+0	1.204763E+0	1.168819E+0	1.173805E+0	1.138045E+0	1.108733E+0	1.094447E+0	1.135666E+0	1.151040E+0	1.136374E+0	1.129821E+0	1.128206E+0	1.193317E+0	1.111163E+0	1.118882E+0	1.124223E+0	1.110835E+0	1.171888E+0	1.122998E+0	1.150536E+0	1.106372E+0	1.133117E+0	1.216680E+0	1.126602E+0	1.128372E+0	1.157648E+0	1.096079E+0	1.147677E+0	1.131961E+0	1.151572E+0	1.096489E+0	1.101487E+0	1.159800E+0	1.132287E+0	1.152562E+0	1.091159E+0	1.144686E+0	1.142352E+0	1.135016E+0	1.096439E+0	1.094317E+0	1.145324E+0	1.156198E+0	1.094258E+0	1.162290E+0	1.127204E+0	1.167207E+0	1.122932E+0	1.106517E+0	1.104010E+0	1.119345E+0	1.107376E+0	1.081992E+0	1.192998E+0	1.158921E+0	1.114398E+0	1.152367E+0	1.143360E+0	1.091948E+0	1.115703E+0	1.154436E+0	1.138820E+0	1.143867E+0	1.109573E+0	1.140517E+0	1.115869E+0	1.167980E+0	1.086845E+0	1.160950E+0	1.154924E+0	1.141084E+0	1.061355E+0	1.093613E+0	1.161942E+0	1.131469E+0	1.108814E+0	1.090667E+0	1.143155E+0	1.109762E+0	1.102111E+0	1.144829E+0	1.126274E+0	1.134205E+0	1.122397E+0	1.205849E+0	1.113822E+0	1.169526E+0	1.055406E+0	1.165380E+0	1.196528E+0	1.091742E+0	1.133415E+0	1.130181E+0	1.140257E+0	1.128735E+0
5.467600E+2	1.112310E+0	1.206014E+0	1.208139E+0	1.157601E+0	1.180288E+0	1.137187E+0	1.129229E+0	1.187249E+0	1.117384E+0	1.143833E+0	1.157106E+0	1.153083E+0	1.139501E+0	1.149324E+0	1.170582E+0	1.139529E+0	1.127404E+0	1.144418E+0	1.157757E+0	1.106565E+0	1.120113E+0	1.125888E+0	1.160320E+0	1.158982E+0	1.241544E+0	1.175030E+0	1.148713E+0	1.171858E+0	1.215448E+0	1.158076E+0	1.162355E+0	1.136661E+0	1.178289E+0	1.175367E+0	1.145718E+0	1.119526E+0	1.172048E+0	1.162392E+0	1.165394E+0	1.168672E+0	1.164943E+0	1.154689E+0	1.169272E+0	1.163963E+0	1.156658E+0	1.182882E+0	1.140905E+0	1.123409E+0	1.160727E+0	1.146766E+0	1.196334E+0	1.114950E+0	1.144361E+0	1.148754E+0	1.208833E+0	1.168500E+0	1.183360E+0	1.188400E+0	1.168567E+0	1.180624E+0	1.195906E+0	1.173379E+0	1.161342E+0	1.157370E+0	1.164877E+0	1.177043E+0	1.169246E+0	1.148594E+0	1.113486E+0	1.169573E+0	1.174584E+0	1.176696E+0	1.114542E+0	1.157687E+0	1.135239E+0	1.206656E+0	1.197363E+0	1.159770E+0	1.153626E+0	1.121532E+0	1.136350E+0	1.123350E+0	1.133431E+0	1.142411E+0	1.162792E+0	1.161337E+0	1.151460E+0	1.149147E+0	1.199000E+0	1.145455E+0	1.146563E+0	1.155507E+0	1.133725E+0	1.153741E+0	1.147256E+0	1.140834E+0	1.107854E+0	1.128223E+0	1.207525E+0	1.180954E+0	1.143145E+0	1.152321E+0	1.121980E+0	1.145376E+0	1.170600E+0	1.084056E+0	1.130136E+0	1.185558E+0	1.132308E+0	1.150471E+0	1.139547E+0	1.136786E+0	1.129823E+0	1.092141E+0	1.146257E+0	1.103022E+0	1.142103E+0	1.119657E+0	1.164028E+0	1.166473E+0	1.150785E+0	1.147671E+0	1.120569E+0	1.139981E+0	1.247952E+0	1.120842E+0	1.149133E+0	1.140888E+0	1.159682E+0	1.135578E+0	1.120776E+0	1.199850E+0	1.121546E+0	1.116589E+0	1.183259E+0	1.143427E+0	1.157881E+0	1.162708E+0	1.150093E+0	1.135823E+0	1.167149E+0	1.085487E+0	1.172981E+0	1.129587E+0	1.167806E+0	1.151041E+0	1.100845E+0	1.190552E+0	1.130324E+0	1.149430E+0	1.138884E+0	1.145133E+0	1.134930E+0	1.151052E+0	1.134607E+0	1.116186E+0	1.134882E+0	1.174440E+0	1.172792E+0	1.091738E+0	1.161253E+0	1.105440E+0	1.124988E+0	1.122852E+0	1.178751E+0	1.106866E+0	1.166957E+0	1.108748E+0	1.152764E+0
5.475180E+2	1.188497E+0	1.218111E+0	1.257209E+0	1.271345E+0	1.164424E+0	1.257156E+0	1.227484E+0	1.183748E+0	1.239695E+0	1.214982E+0	1.214415E+0	1.252873E+0	1.239901E+0	1.278741E+0	1.237656E+0	1.220005E+0	1.211871E+0	1.258497E+0	1.239665E+0	1.240349E+0	1.196974E+0	1.216864E+0	1.240028E+0	1.295973E+0	1.186224E+0	1.225185E+0	1.260723E+0	1.240042E+0	1.247914E+0	1.241237E+0	1.242904E+0	1.230805E+0	1.238050E+0	1.232038E+0	1.265821E+0	1.222020E+0	1.231779E+0	1.213192E+0	1.197428E+0	1.259209E+0	1.194474E+0	1.200629E+0	1.248112E+0	1.222988E+0	1.247162E+0	1.266010E+0	1.206992E+0	1.253004E+0	1.252876E+0	1.193444E+0	1.232578E+0	1.254948E+0	1.267541E+0	1.218254E+0	1.284338E+0	1.214010E+0	1.226421E+0	1.311471E+0	1.211343E+0	1.206655E+0	1.231025E+0	1.220485E+0	1.228038E+0	1.251719E+0	1.286971E+0	1.234617E+0	1.176347E+0	1.187396E+0	1.227660E+0	1.265754E+0	1.207808E+0	1.187819E+0	1.257605E+0	1.194463E+0	1.182266E+0	1.231140E+0	1.185144E+0	1.218068E+0	1.188541E+0	1.245775E+0	1.257390E+0	1.222332E+0	1.213087E+0	1.235290E+0	1.150827E+0	1.257937E+0	1.266333E+0	1.206398E+0	1.199864E+0	1.205279E+0	1.247794E+0	1.204363E+0	1.340200E+0	1.217124E+0	1.158446E+0	1.245881E+0	1.239659E+0	1.170620E+0	1.220888E+0	1.210598E+0	1.213931E+0	1.229348E+0	1.252322E+0	1.267471E+0	1.222323E+0	1.192516E+0	1.236380E+0	1.257979E+0	1.236283E+0	1.204118E+0	1.218807E+0	1.272797E+0	1.219949E+0	1.155720E+0	1.262454E+0	1.220768E+0	1.245258E+0	1.241877E+0	1.185386E+0	1.264058E+0	1.294668E+0	1.238028E+0	1.232987E+0	1.262912E+0	1.285087E+0	1.229803E+0	1.130110E+0	1.265666E+0	1.293810E+0	1.240856E+0	1.237051E+0	1.201926E+0	1.222162E+0	1.248164E+0	1.191861E+0	1.228076E+0	1.246227E+0	1.223245E+0	1.265900E+0	1.252608E+0	1.210306E+0	1.172604E+0	1.278476E+0	1.277265E+0	1.219438E+0	1.174310E+0	1.229421E+0	1.287693E+0	1.235078E+0	1.196526E+0	1.184764E+0	1.249277E+0	1.195452E+0	1.278676E+0	1.215008E+0	1.260067E+0	1.280224E+0	1.238525E+0	1.235185E+0	1.248754E+0	1.233063E+0	1.121312E+0	1.252232E+0	1.184017E+0	1.234936E+0	1.182515E+0	1.202472E+0	1.211925E+0	1.238044E+0
5.482550E+2	1.256619E+0	1.288512E+0	1.339867E+0	1.265412E+0	1.225570E+0	1.283253E+0	1.311188E+0	1.253114E+0	1.297811E+0	1.261655E+0	1.257271E+0	1.345562E+0	1.280808E+0	1.230603E+0	1.310712E+0	1.254847E+0	1.321224E+0	1.299692E+0	1.285217E+0	1.312560E+0	1.310198E+0	1.253388E+0	1.305493E+0	1.221673E+0	1.283191E+0	1.253225E+0	1.277592E+0	1.302572E+0	1.343592E+0	1.271689E+0	1.254416E+0	1.322661E+0	1.331021E+0	1.278284E+0	1.294897E+0	1.274789E+0	1.282275E+0	1.265991E+0	1.281422E+0	1.293594E+0	1.317851E+0	1.374915E+0	1.315800E+0	1.263050E+0	1.316694E+0	1.234361E+0	1.269473E+0	1.257182E+0	1.228816E+0	1.304632E+0	1.283403E+0	1.281435E+0	1.318411E+0	1.277328E+0	1.292579E+0	1.336984E+0	1.244269E+0	1.264414E+0	1.266126E+0	1.309586E+0	1.320035E+0	1.246810E+0	1.305051E+0	1.300465E+0	1.327344E+0	1.249349E+0	1.228979E+0	1.187829E+0	1.311068E+0	1.309376E+0	1.266072E+0	1.285507E+0	1.318046E+0	1.287092E+0	1.251271E+0	1.320374E+0	1.316380E+0	1.321216E+0	1.292261E+0	1.282132E+0	1.242870E+0	1.272102E+0	1.233108E+0	1.300790E+0	1.271781E+0	1.245954E+0	1.288835E+0	1.254880E+0	1.262553E+0	1.214765E+0	1.256928E+0	1.259915E+0	1.328486E+0	1.277232E+0	1.262162E+0	1.340825E+0	1.323941E+0	1.203402E+0	1.318094E+0	1.291532E+0	1.249281E+0	1.311942E+0	1.259782E+0	1.361852E+0	1.285113E+0	1.254996E+0	1.282902E+0	1.302352E+0	1.351528E+0	1.218547E+0	1.301010E+0	1.291209E+0	1.290433E+0	1.260611E+0	1.273306E+0	1.286564E+0	1.260418E+0	1.172984E+0	1.319334E+0	1.332303E+0	1.323639E+0	1.261226E+0	1.295076E+0	1.267607E+0	1.289073E+0	1.281200E+0	1.254204E+0	1.264158E+0	1.301343E+0	1.290428E+0	1.280131E+0	1.303937E+0	1.277443E+0	1.288242E+0	1.245055E+0	1.295945E+0	1.257456E+0	1.264998E+0	1.260662E+0	1.287106E+0	1.303903E+0	1.225192E+0	1.273738E+0	1.314498E+0	1.270183E+0	1.259278E+0	1.333594E+0	1.324495E+0	1.320350E+0	1.271589E+0	1.262904E+0	1.304684E+0	1.252453E+0	1.272275E+0	1.225763E+0	1.278025E+0	1.257965E+0	1.230272E+0	1.317256E+0	1.298567E+0	1.262837E+0	1.245478E+0	1.294251E+0	1.239868E+0	1.244369E+0	1.261973E+0	1.229134E+0	1.345925E+0	1.349257E+0
5.490160E+2	1.264871E+0	1.310847E+0	1.266384E+0	1.299530E+0	1.295461E+0	1.311861E+0	1.323159E+0	1.291381E+0	1.306329E+0	1.289550E+0	1.312213E+0	1.332407E+0	1.347288E+0	1.305571E+0	1.286969E+0	1.297832E+0	1.300914E+0	1.325213E+0	1.306359E+0	1.307533E+0	1.312802E+0	1.306366E+0	1.288483E+0	1.321488E+0	1.288708E+0	1.323509E+0	1.369158E+0	1.374830E+0	1.324919E+0	1.269534E+0	1.246915E+0	1.311789E+0	1.246894E+0	1.321791E+0	1.244271E+0	1.272196E+0	1.306770E+0	1.311476E+0	1.339170E+0	1.329087E+0	1.304282E+0	1.238856E+0	1.327565E+0	1.279791E+0	1.344487E+0	1.300980E+0	1.235739E+0	1.297854E+0	1.286462E+0	1.304739E+0	1.314587E+0	1.329908E+0	1.300291E+0	1.314869E+0	1.340371E+0	1.365525E+0	1.314050E+0	1.366035E+0	1.288884E+0	1.277857E+0	1.317874E+0	1.301017E+0	1.354032E+0	1.315913E+0	1.371023E+0	1.323874E+0	1.363473E+0	1.339359E+0	1.313945E+0	1.274023E+0	1.314861E+0	1.268997E+0	1.250444E+0	1.306712E+0	1.273986E+0	1.282061E+0	1.279648E+0	1.276762E+0	1.304964E+0	1.301326E+0	1.300963E+0	1.340058E+0	1.298784E+0	1.273053E+0	1.278167E+0	1.294539E+0	1.285007E+0	1.318950E+0	1.332257E+0	1.285793E+0	1.323892E+0	1.295546E+0	1.345426E+0	1.330312E+0	1.318370E+0	1.263281E+0	1.289902E+0	1.254048E+0	1.343215E+0	1.290388E+0	1.290163E+0	1.312618E+0	1.272377E+0	1.276124E+0	1.270009E+0	1.245458E+0	1.303091E+0	1.314280E+0	1.293467E+0	1.237664E+0	1.231988E+0	1.259105E+0	1.336972E+0	1.325339E+0	1.336632E+0	1.336526E+0	1.295084E+0	1.273095E+0	1.316025E+0	1.324235E+0	1.337936E+0	1.287874E+0	1.270353E+0	1.275893E+0	1.313570E+0	1.251900E+0	1.276225E+0	1.300401E+0	1.385337E+0	1.286292E+0	1.262957E+0	1.263931E+0	1.254898E+0	1.308657E+0	1.294467E+0	1.322635E+0	1.282578E+0	1.237698E+0	1.279364E+0	1.244252E+0	1.364115E+0	1.249022E+0	1.279874E+0	1.281768E+0	1.295739E+0	1.293500E+0	1.300705E+0	1.348770E+0	1.330792E+0	1.273739E+0	1.308700E+0	1.312268E+0	1.294849E+0	1.330005E+0	1.292765E+0	1.329242E+0	1.323989E+0	1.307512E+0	1.265044E+0	1.282555E+0	1.287448E+0	1.225962E+0	1.337646E+0	1.349770E+0	1.320533E+0	1.296327E+0	1.325206E+0	1.277716E+0	1.321765E+0
5.497680E+2	1.305697E+0	1.242304E+0	1.214275E+0	1.232224E+0	1.232670E+0	1.311471E+0	1.270949E+0	1.280114E+0	1.266224E+0	1.274336E+0	1.249554E+0	1.286191E+0	1.333848E+0	1.224291E+0	1.254813E+0	1.312128E+0	1.304794E+0	1.287996E+0	1.293597E+0	1.260057E+0	1.297972E+0	1.215875E+0	1.258577E+0	1.266085E+0	1.281626E+0	1.277657E+0	1.226702E+0	1.256986E+0	1.270684E+0	1.243971E+0	1.229863E+0	1.229813E+0	1.248457E+0	1.242562E+0	1.222351E+0	1.238776E+0	1.245823E+0	1.246653E+0	1.233209E+0	1.264396E+0	1.286502E+0	1.255112E+0	1.214442E+0	1.281209E+0	1.300695E+0	1.198245E+0	1.225131E+0	1.290513E+0	1.263355E+0	1.240093E+0	1.260821E+0	1.261462E+0	1.300231E+0	1.303932E+0	1.216070E+0	1.277862E+0	1.262082E+0	1.238635E+0	1.259131E+0	1.274397E+0	1.253005E+0	1.225486E+0	1.259645E+0	1.296921E+0	1.286845E+0	1.271383E+0	1.198834E+0	1.219646E+0	1.265368E+0	1.275028E+0	1.232192E+0	1.250683E+0	1.245778E+0	1.234545E+0	1.239382E+0	1.292103E+0	1.295640E+0	1.246540E+0	1.288128E+0	1.302410E+0	1.262516E+0	1.240345E+0	1.274047E+0	1.271642E+0	1.195672E+0	1.287925E+0	1.307462E+0	1.270688E+0	1.247148E+0	1.236729E+0	1.247700E+0	1.234211E+0	1.289166E+0	1.293801E+0	1.250748E+0	1.167511E+0	1.250930E+0	1.253137E+0	1.274513E+0	1.253687E+0	1.263269E+0	1.245487E+0	1.209080E+0	1.297823E+0	1.173545E+0	1.164724E+0	1.284738E+0	1.304644E+0	1.275273E+0	1.181730E+0	1.221187E+0	1.241519E+0	1.268651E+0	1.174064E+0	1.291065E+0	1.266156E+0	1.248477E+0	1.198538E+0	1.286579E+0	1.281851E+0	1.231410E+0	1.242551E+0	1.252030E+0	1.169941E+0	1.277018E+0	1.273556E+0	1.199315E+0	1.227590E+0	1.318951E+0	1.236288E+0	1.230419E+0	1.202289E+0	1.214685E+0	1.226983E+0	1.201437E+0	1.263974E+0	1.260147E+0	1.200531E+0	1.219470E+0	1.223439E+0	1.268461E+0	1.229557E+0	1.250989E+0	1.260935E+0	1.290882E+0	1.191608E+0	1.249159E+0	1.248228E+0	1.236457E+0	1.250853E+0	1.251268E+0	1.254388E+0	1.235879E+0	1.186332E+0	1.250047E+0	1.252035E+0	1.272534E+0	1.287697E+0	1.247626E+0	1.254967E+0	1.295361E+0	1.185121E+0	1.317121E+0	1.253141E+0	1.224194E+0	1.224010E+0	1.252901E+0	1.256708E+0	1.260610E+0
5.505060E+2	1.227545E+0	1.191954E+0	1.201760E+0	1.226562E+0	1.199254E+0	1.186363E+0	1.192013E+0	1.222220E+0	1.200141E+0	1.190108E+0	1.206285E+0	1.165422E+0	1.252395E+0	1.198594E+0	1.208749E+0	1.185077E+0	1.270950E+0	1.270493E+0	1.195978E+0	1.209774E+0	1.303142E+0	1.197854E+0	1.203403E+0	1.165447E+0	1.202968E+0	1.244396E+0	1.198952E+0	1.203055E+0	1.219508E+0	1.169030E+0	1.209456E+0	1.151741E+0	1.218147E+0	1.176875E+0	1.240062E+0	1.229251E+0	1.181098E+0	1.181749E+0	1.249483E+0	1.204837E+0	1.210997E+0	1.217010E+0	1.202892E+0	1.199369E+0	1.275455E+0	1.232540E+0	1.259706E+0	1.165847E+0	1.226110E+0	1.190452E+0	1.219077E+0	1.236053E+0	1.209945E+0	1.210196E+0	1.274920E+0	1.245659E+0	1.257947E+0	1.247498E+0	1.220691E+0	1.207895E+0	1.228280E+0	1.187235E+0	1.230729E+0	1.243056E+0	1.226060E+0	1.216207E+0	1.163893E+0	1.100433E+0	1.199365E+0	1.178084E+0	1.172403E+0	1.259943E+0	1.229901E+0	1.232014E+0	1.246760E+0	1.215889E+0	1.201387E+0	1.161150E+0	1.221533E+0	1.217435E+0	1.256708E+0	1.201522E+0	1.250316E+0	1.216361E+0	1.149044E+0	1.203618E+0	1.197193E+0	1.171553E+0	1.224155E+0	1.173279E+0	1.171148E+0	1.264866E+0	1.231921E+0	1.252104E+0	1.182274E+0	1.188741E+0	1.206647E+0	1.190100E+0	1.213343E+0	1.267870E+0	1.197270E+0	1.248620E+0	1.196934E+0	1.245846E+0	1.208220E+0	1.178611E+0	1.238859E+0	1.230087E+0	1.164092E+0	1.143634E+0	1.160109E+0	1.235102E+0	1.209245E+0	1.189844E+0	1.218616E+0	1.206386E+0	1.219864E+0	1.199541E+0	1.168128E+0	1.160172E+0	1.233465E+0	1.177943E+0	1.188181E+0	1.167228E+0	1.182316E+0	1.193052E+0	1.175904E+0	1.231898E+0	1.256085E+0	1.241131E+0	1.235501E+0	1.231697E+0	1.196237E+0	1.204804E+0	1.224131E+0	1.220039E+0	1.205834E+0	1.179965E+0	1.189006E+0	1.182518E+0	1.254333E+0	1.157168E+0	1.250325E+0	1.262263E+0	1.194805E+0	1.203463E+0	1.162959E+0	1.217640E+0	1.200051E+0	1.238380E+0	1.166178E+0	1.201093E+0	1.210039E+0	1.243214E+0	1.129368E+0	1.186045E+0	1.221292E+0	1.189327E+0	1.208784E+0	1.205684E+0	1.197528E+0	1.180394E+0	1.187854E+0	1.164281E+0	1.163465E+0	1.154487E+0	1.222207E+0	1.208767E+0	1.213388E+0
5.512570E+2	1.258717E+0	1.154984E+0	1.263809E+0	1.168261E+0	1.162425E+0	1.214830E+0	1.202610E+0	1.251465E+0	1.217074E+0	1.217667E+0	1.257681E+0	1.219285E+0	1.261703E+0	1.179197E+0	1.201424E+0	1.247161E+0	1.221955E+0	1.225980E+0	1.181099E+0	1.231968E+0	1.261716E+0	1.242152E+0	1.221294E+0	1.167667E+0	1.225529E+0	1.219372E+0	1.212566E+0	1.181477E+0	1.288515E+0	1.149663E+0	1.168095E+0	1.186553E+0	1.193238E+0	1.174410E+0	1.209661E+0	1.224159E+0	1.215266E+0	1.215360E+0	1.246861E+0	1.250054E+0	1.211769E+0	1.214784E+0	1.221165E+0	1.209146E+0	1.245968E+0	1.194310E+0	1.216064E+0	1.178894E+0	1.187023E+0	1.193605E+0	1.243946E+0	1.219277E+0	1.186168E+0	1.193668E+0	1.271799E+0	1.251253E+0	1.268803E+0	1.227890E+0	1.243397E+0	1.199815E+0	1.242815E+0	1.228658E+0	1.214721E+0	1.236382E+0	1.193110E+0	1.220430E+0	1.213662E+0	1.188956E+0	1.224563E+0	1.217728E+0	1.218102E+0	1.227907E+0	1.157877E+0	1.175624E+0	1.221966E+0	1.175144E+0	1.224189E+0	1.101241E+0	1.297443E+0	1.153310E+0	1.207560E+0	1.175750E+0	1.245930E+0	1.211526E+0	1.231361E+0	1.162865E+0	1.188577E+0	1.184594E+0	1.201380E+0	1.232461E+0	1.231512E+0	1.223215E+0	1.261403E+0	1.186335E+0	1.131544E+0	1.163699E+0	1.264024E+0	1.234101E+0	1.206649E+0	1.262237E+0	1.211620E+0	1.224030E+0	1.179652E+0	1.252331E+0	1.177328E+0	1.197703E+0	1.213699E+0	1.235793E+0	1.190587E+0	1.178173E+0	1.223376E+0	1.243555E+0	1.181579E+0	1.245887E+0	1.242574E+0	1.148690E+0	1.252632E+0	1.208406E+0	1.148461E+0	1.200363E+0	1.214171E+0	1.251094E+0	1.198564E+0	1.197768E+0	1.204570E+0	1.253133E+0	1.208444E+0	1.195703E+0	1.249313E+0	1.161797E+0	1.233950E+0	1.185834E+0	1.200076E+0	1.256079E+0	1.178945E+0	1.191145E+0	1.215104E+0	1.185247E+0	1.200022E+0	1.178686E+0	1.239278E+0	1.124364E+0	1.218161E+0	1.260233E+0	1.202425E+0	1.168599E+0	1.170837E+0	1.243764E+0	1.218982E+0	1.209331E+0	1.211667E+0	1.243363E+0	1.188995E+0	1.196461E+0	1.185527E+0	1.222301E+0	1.285232E+0	1.168440E+0	1.279579E+0	1.224620E+0	1.242946E+0	1.161211E+0	1.247180E+0	1.232517E+0	1.172604E+0	1.171090E+0	1.191733E+0	1.146661E+0	1.198892E+0
5.520100E+2	1.175094E+0	1.192320E+0	1.238511E+0	1.210772E+0	1.201276E+0	1.209364E+0	1.209593E+0	1.232640E+0	1.224248E+0	1.196093E+0	1.266761E+0	1.159762E+0	1.220778E+0	1.217284E+0	1.229568E+0	1.221828E+0	1.243924E+0	1.241965E+0	1.218559E+0	1.227246E+0	1.254257E+0	1.177371E+0	1.170371E+0	1.202082E+0	1.159784E+0	1.201765E+0	1.135201E+0	1.211013E+0	1.268742E+0	1.174495E+0	1.182378E+0	1.218249E+0	1.190521E+0	1.231211E+0	1.226592E+0	1.153205E+0	1.212573E+0	1.225156E+0	1.192968E+0	1.199025E+0	1.212177E+0	1.211136E+0	1.221747E+0	1.202161E+0	1.223847E+0	1.163889E+0	1.177550E+0	1.260806E+0	1.203471E+0	1.172082E+0	1.230029E+0	1.204236E+0	1.227449E+0	1.240829E+0	1.202657E+0	1.226680E+0	1.243709E+0	1.204035E+0	1.145433E+0	1.173273E+0	1.242242E+0	1.227622E+0	1.253792E+0	1.211789E+0	1.231465E+0	1.189365E+0	1.250281E+0	1.135084E+0	1.152152E+0	1.169180E+0	1.208259E+0	1.195557E+0	1.249169E+0	1.192965E+0	1.184522E+0	1.219623E+0	1.252175E+0	1.204903E+0	1.160160E+0	1.213006E+0	1.181913E+0	1.186131E+0	1.208153E+0	1.190532E+0	1.215527E+0	1.203881E+0	1.200009E+0	1.160118E+0	1.190339E+0	1.180215E+0	1.211296E+0	1.167409E+0	1.226967E+0	1.219354E+0	1.183524E+0	1.123970E+0	1.199962E+0	1.172487E+0	1.249050E+0	1.219539E+0	1.205991E+0	1.237908E+0	1.212590E+0	1.188212E+0	1.243970E+0	1.196537E+0	1.239846E+0	1.244676E+0	1.243484E+0	1.204132E+0	1.187955E+0	1.252812E+0	1.187500E+0	1.214127E+0	1.187039E+0	1.131649E+0	1.202894E+0	1.200709E+0	1.217518E+0	1.187648E+0	1.208289E+0	1.168935E+0	1.214278E+0	1.170433E+0	1.245173E+0	1.198927E+0	1.249846E+0	1.241085E+0	1.216597E+0	1.198360E+0	1.200532E+0	1.169816E+0	1.182016E+0	1.206746E+0	1.146479E+0	1.169375E+0	1.175512E+0	1.196929E+0	1.180098E+0	1.186221E+0	1.269289E+0	1.166243E+0	1.208147E+0	1.191145E+0	1.216166E+0	1.190989E+0	1.155464E+0	1.192545E+0	1.214511E+0	1.168509E+0	1.181069E+0	1.224812E+0	1.164419E+0	1.197220E+0	1.207453E+0	1.158076E+0	1.195258E+0	1.199400E+0	1.249518E+0	1.183844E+0	1.179723E+0	1.140358E+0	1.230259E+0	1.192712E+0	1.248217E+0	1.196680E+0	1.183254E+0	1.220096E+0	1.209511E+0
5.527590E+2	1.225167E+0	1.150668E+0	1.197608E+0	1.182969E+0	1.192273E+0	1.154970E+0	1.185856E+0	1.250885E+0	1.175159E+0	1.171774E+0	1.205524E+0	1.203960E+0	1.236630E+0	1.223544E+0	1.171499E+0	1.198786E+0	1.159117E+0	1.184526E+0	1.187674E+0	1.181937E+0	1.246378E+0	1.198110E+0	1.185754E+0	1.197562E+0	1.194920E+0	1.178840E+0	1.162242E+0	1.184826E+0	1.175337E+0	1.216331E+0	1.171633E+0	1.157701E+0	1.212883E+0	1.225011E+0	1.194933E+0	1.201056E+0	1.209765E+0	1.202299E+0	1.193857E+0	1.216522E+0	1.205252E+0	1.185705E+0	1.173399E+0	1.184344E+0	1.250976E+0	1.165384E+0	1.198829E+0	1.218022E+0	1.170023E+0	1.144078E+0	1.202172E+0	1.129745E+0	1.205198E+0	1.197187E+0	1.222314E+0	1.165958E+0	1.189461E+0	1.232153E+0	1.219961E+0	1.182939E+0	1.182741E+0	1.176551E+0	1.207646E+0	1.199853E+0	1.226208E+0	1.154818E+0	1.126635E+0	1.154158E+0	1.142889E+0	1.207772E+0	1.219672E+0	1.240393E+0	1.229478E+0	1.124887E+0	1.163483E+0	1.151411E+0	1.193802E+0	1.182613E+0	1.233398E+0	1.148417E+0	1.156054E+0	1.206548E+0	1.159328E+0	1.223586E+0	1.172224E+0	1.165426E+0	1.182190E+0	1.127601E+0	1.152556E+0	1.127947E+0	1.243344E+0	1.196562E+0	1.228443E+0	1.211864E+0	1.218415E+0	1.205081E+0	1.257043E+0	1.119699E+0	1.200736E+0	1.181270E+0	1.206461E+0	1.163573E+0	1.213061E+0	1.186112E+0	1.170500E+0	1.137276E+0	1.203761E+0	1.212086E+0	1.173867E+0	1.182543E+0	1.184342E+0	1.129488E+0	1.174347E+0	1.191305E+0	1.207498E+0	1.187940E+0	1.171873E+0	1.222537E+0	1.205787E+0	1.237099E+0	1.169301E+0	1.153426E+0	1.222706E+0	1.152587E+0	1.258872E+0	1.206169E+0	1.173324E+0	1.236589E+0	1.224014E+0	1.201684E+0	1.182357E+0	1.152081E+0	1.121976E+0	1.139667E+0	1.174130E+0	1.210624E+0	1.174130E+0	1.150636E+0	1.179302E+0	1.165738E+0	1.160547E+0	1.170341E+0	1.202782E+0	1.222550E+0	1.168325E+0	1.162272E+0	1.211679E+0	1.163705E+0	1.203127E+0	1.168096E+0	1.185949E+0	1.228852E+0	1.151186E+0	1.186761E+0	1.175227E+0	1.199177E+0	1.186347E+0	1.178753E+0	1.197498E+0	1.154495E+0	1.199037E+0	1.160399E+0	1.148315E+0	1.182962E+0	1.226260E+0	1.164514E+0	1.156218E+0	1.153467E+0	1.268756E+0
5.534940E+2	1.169506E+0	1.160174E+0	1.175465E+0	1.184714E+0	1.139873E+0	1.210786E+0	1.131995E+0	1.131130E+0	1.171994E+0	1.142203E+0	1.240330E+0	1.162363E+0	1.194627E+0	1.151202E+0	1.161423E+0	1.115178E+0	1.202485E+0	1.191917E+0	1.142091E+0	1.134446E+0	1.193562E+0	1.163086E+0	1.202877E+0	1.110639E+0	1.187283E+0	1.155522E+0	1.140827E+0	1.149372E+0	1.151409E+0	1.141926E+0	1.153548E+0	1.126968E+0	1.128323E+0	1.120383E+0	1.177657E+0	1.147680E+0	1.182749E+0	1.176140E+0	1.163288E+0	1.117034E+0	1.163772E+0	1.190446E+0	1.163082E+0	1.117341E+0	1.176254E+0	1.173358E+0	1.130849E+0	1.139668E+0	1.141405E+0	1.162308E+0	1.123867E+0	1.145817E+0	1.095248E+0	1.178727E+0	1.187114E+0	1.161908E+0	1.172816E+0	1.154197E+0	1.133050E+0	1.185395E+0	1.199799E+0	1.121683E+0	1.151269E+0	1.162911E+0	1.156943E+0	1.156138E+0	1.146633E+0	1.106106E+0	1.084023E+0	1.192134E+0	1.131335E+0	1.138446E+0	1.201196E+0	1.209849E+0	1.134589E+0	1.137400E+0	1.169285E+0	1.128042E+0	1.201313E+0	1.154529E+0	1.152100E+0	1.177162E+0	1.161052E+0	1.157418E+0	1.115296E+0	1.112254E+0	1.209764E+0	1.108235E+0	1.147603E+0	1.148744E+0	1.137009E+0	1.181041E+0	1.155547E+0	1.189680E+0	1.132007E+0	1.136578E+0	1.184965E+0	1.159834E+0	1.182163E+0	1.172357E+0	1.179137E+0	1.147798E+0	1.131735E+0	1.239285E+0	1.129926E+0	1.075877E+0	1.185174E+0	1.143187E+0	1.141835E+0	1.132746E+0	1.150652E+0	1.106123E+0	1.155410E+0	1.092448E+0	1.168425E+0	1.134265E+0	1.155791E+0	1.189233E+0	1.149834E+0	1.162925E+0	1.143642E+0	1.173425E+0	1.106385E+0	1.159848E+0	1.174825E+0	1.130650E+0	1.142566E+0	1.167880E+0	1.176930E+0	1.216188E+0	1.155083E+0	1.102249E+0	1.216317E+0	1.170486E+0	1.152421E+0	1.149260E+0	1.173299E+0	1.096804E+0	1.163472E+0	1.114471E+0	1.146738E+0	1.085501E+0	1.165774E+0	1.201655E+0	1.125756E+0	1.169395E+0	1.115291E+0	1.193090E+0	1.139487E+0	1.115163E+0	1.140251E+0	1.142678E+0	1.151293E+0	1.166577E+0	1.144965E+0	1.121318E+0	1.176638E+0	1.156708E+0	1.158132E+0	1.168907E+0	1.117613E+0	1.088857E+0	1.095658E+0	1.094852E+0	1.222913E+0	1.148245E+0	1.124092E+0	1.119697E+0	1.192952E+0
5.542530E+2	1.089578E+0	1.063585E+0	1.089013E+0	1.069235E+0	1.072626E+0	1.027041E+0	1.077660E+0	1.030962E+0	1.044947E+0	1.051343E+0	1.084134E+0	1.045034E+0	1.058495E+0	1.043337E+0	1.106176E+0	1.028256E+0	1.050588E+0	1.111896E+0	1.063263E+0	1.057692E+0	1.117874E+0	1.068027E+0	1.048366E+0	1.061526E+0	1.010006E+0	1.079215E+0	1.074601E+0	1.070182E+0	1.064000E+0	1.073655E+0	9.925167E-1	1.030049E+0	1.054699E+0	1.098016E+0	1.058141E+0	1.060087E+0	1.034313E+0	1.061575E+0	1.097820E+0	1.055775E+0	1.062557E+0	1.053524E+0	1.074335E+0	1.054889E+0	1.096254E+0	1.029232E+0	1.033309E+0	1.098961E+0	1.065100E+0	1.091084E+0	1.042227E+0	1.079760E+0	1.076358E+0	1.077847E+0	1.099536E+0	1.070094E+0	1.105241E+0	1.131260E+0	1.075913E+0	1.067697E+0	1.058356E+0	1.090213E+0	1.084284E+0	1.077869E+0	1.080352E+0	1.087566E+0	1.049737E+0	1.008573E+0	1.039512E+0	1.065492E+0	1.065428E+0	1.111260E+0	1.040176E+0	1.048781E+0	1.062550E+0	1.045636E+0	1.093867E+0	1.079058E+0	1.040587E+0	1.078340E+0	1.041843E+0	1.080635E+0	1.077803E+0	1.073898E+0	1.093964E+0	1.003848E+0	1.065623E+0	1.035673E+0	1.058185E+0	1.040485E+0	1.054423E+0	1.092298E+0	1.079858E+0	1.112270E+0	9.893423E-1	1.071788E+0	1.079994E+0	1.029412E+0	1.060859E+0	1.109541E+0	1.072687E+0	1.085485E+0	1.094982E+0	1.075037E+0	1.046455E+0	9.986556E-1	1.047443E+0	1.041841E+0	1.048812E+0	1.034857E+0	1.049716E+0	1.041026E+0	1.076131E+0	1.023410E+0	1.043613E+0	1.046929E+0	1.041630E+0	1.044335E+0	1.068201E+0	1.082963E+0	1.101370E+0	1.067281E+0	1.074505E+0	1.076968E+0	1.091657E+0	1.054207E+0	1.039969E+0	1.075944E+0	1.037649E+0	1.036449E+0	1.041114E+0	1.030574E+0	1.058066E+0	1.077803E+0	1.070380E+0	1.066011E+0	1.088288E+0	1.047877E+0	1.035025E+0	1.052991E+0	1.076331E+0	1.016419E+0	1.057458E+0	1.054394E+0	1.037986E+0	1.047060E+0	1.078711E+0	1.050863E+0	1.069650E+0	1.019709E+0	1.079107E+0	1.131542E+0	1.104602E+0	1.083208E+0	1.105916E+0	1.066531E+0	1.053996E+0	9.921370E-1	1.079678E+0	1.033139E+0	1.023040E+0	1.016971E+0	1.086614E+0	1.081281E+0	1.064782E+0	1.041089E+0	1.072331E+0	9.681143E-1	1.055111E+0
5.550190E+2	9.896982E-1	9.731355E-1	9.775882E-1	9.527201E-1	9.661153E-1	9.677206E-1	1.002073E+0	1.007378E+0	9.964782E-1	9.426656E-1	9.969716E-1	9.699007E-1	1.027570E+0	1.004960E+0	9.867022E-1	9.760479E-1	9.711165E-1	1.001161E+0	9.936585E-1	1.010504E+0	9.594347E-1	1.003052E+0	1.011067E+0	9.788163E-1	9.818409E-1	9.854782E-1	9.910714E-1	9.504866E-1	1.014951E+0	9.906284E-1	9.850812E-1	9.686789E-1	9.808511E-1	1.012533E+0	9.521491E-1	9.865598E-1	9.914872E-1	9.884922E-1	9.806766E-1	9.999760E-1	9.731289E-1	9.332574E-1	1.041460E+0	9.512384E-1	1.030466E+0	1.024397E+0	1.001288E+0	9.596169E-1	1.032292E+0	1.062274E+0	9.832814E-1	9.738801E-1	9.970746E-1	9.804500E-1	1.009719E+0	9.913109E-1	9.844699E-1	1.026985E+0	1.011918E+0	1.000085E+0	1.027390E+0	1.011722E+0	9.870173E-1	9.803649E-1	1.033816E+0	1.041560E+0	9.722054E-1	9.109579E-1	1.016615E+0	1.012453E+0	9.804993E-1	9.812075E-1	9.736327E-1	9.960153E-1	1.018460E+0	9.915922E-1	1.046921E+0	9.982767E-1	1.049559E+0	9.574603E-1	9.830593E-1	1.004840E+0	9.984546E-1	1.001812E+0	9.990055E-1	1.053418E+0	9.966164E-1	9.533952E-1	1.006931E+0	9.670465E-1	1.019345E+0	1.028420E+0	1.042490E+0	9.928100E-1	1.040025E+0	9.806628E-1	9.681285E-1	1.012530E+0	1.025482E+0	9.438923E-1	1.012158E+0	9.649139E-1	9.366690E-1	1.016108E+0	9.790726E-1	9.649631E-1	1.032202E+0	1.063008E+0	1.048437E+0	9.633425E-1	9.671306E-1	1.000957E+0	9.855161E-1	1.019237E+0	1.009615E+0	1.006639E+0	9.781492E-1	9.844343E-1	1.006224E+0	1.030186E+0	1.044599E+0	1.004023E+0	9.980687E-1	9.693557E-1	1.008542E+0	1.028288E+0	9.283827E-1	1.053793E+0	1.033564E+0	9.894884E-1	1.002180E+0	9.880544E-1	9.541065E-1	9.787508E-1	9.815548E-1	9.433696E-1	1.084279E+0	9.759010E-1	9.817327E-1	9.960792E-1	1.024370E+0	9.679662E-1	9.934707E-1	1.010663E+0	9.520565E-1	9.910979E-1	1.008067E+0	9.913737E-1	9.779558E-1	9.564740E-1	9.814622E-1	1.008879E+0	9.625236E-1	1.006413E+0	1.003382E+0	9.776159E-1	9.714529E-1	1.030493E+0	1.044511E+0	9.885064E-1	1.034764E+0	1.000168E+0	9.773106E-1	9.678620E-1	1.015676E+0	1.014590E+0	9.757492E-1	9.607415E-1	9.967140E-1
5.557710E+2	9.500752E-1	9.403108E-1	8.967525E-1	9.395309E-1	9.029806E-1	9.317029E-1	9.141305E-1	9.178733E-1	9.277037E-1	9.133978E-1	9.070661E-1	9.126106E-1	9.448169E-1	9.328777E-1	9.561684E-1	9.018834E-1	9.459485E-1	9.274301E-1	9.155684E-1	9.618472E-1	9.939409E-1	9.395771E-1	9.500289E-1	9.229866E-1	9.215581E-1	9.666741E-1	9.553829E-1	8.762852E-1	9.235207E-1	9.148980E-1	8.935785E-1	9.053050E-1	9.909074E-1	9.502316E-1	9.267866E-1	9.662408E-1	9.404603E-1	9.427327E-1	9.461409E-1	9.478454E-1	9.439836E-1	9.288276E-1	9.446362E-1	9.068392E-1	9.620250E-1	9.137784E-1	9.690423E-1	9.232987E-1	9.986961E-1	9.339669E-1	9.639269E-1	9.178455E-1	9.383166E-1	9.266491E-1	9.193456E-1	9.247945E-1	1.000491E+0	9.073334E-1	9.404892E-1	9.777858E-1	9.273823E-1	9.310939E-1	9.326424E-1	9.434191E-1	9.803909E-1	9.903453E-1	9.396076E-1	8.848484E-1	9.368135E-1	9.443111E-1	9.431826E-1	9.221140E-1	9.362998E-1	9.332079E-1	8.970458E-1	9.571920E-1	9.432937E-1	9.378730E-1	9.617164E-1	9.393295E-1	9.576291E-1	9.266815E-1	9.589376E-1	9.721471E-1	9.521370E-1	8.991529E-1	9.733851E-1	8.900416E-1	9.268036E-1	9.190610E-1	9.467052E-1	9.698330E-1	9.640024E-1	9.897843E-1	9.287687E-1	9.981414E-1	9.550954E-1	9.136048E-1	9.464984E-1	8.837793E-1	9.196829E-1	9.166235E-1	9.509910E-1	9.334675E-1	9.629750E-1	9.185331E-1	9.583874E-1	9.713073E-1	9.710808E-1	9.260004E-1	9.363470E-1	9.110164E-1	9.438038E-1	9.214722E-1	9.580696E-1	9.210129E-1	9.882039E-1	9.159571E-1	9.772216E-1	8.982892E-1	9.675909E-1	9.473630E-1	9.087511E-1	8.948385E-1	9.809955E-1	9.194855E-1	9.468741E-1	9.818602E-1	9.688298E-1	9.225890E-1	9.948717E-1	9.433585E-1	8.704625E-1	9.854072E-1	9.144936E-1	9.729292E-1	9.092116E-1	9.075946E-1	9.448726E-1	9.119669E-1	9.765494E-1	9.178309E-1	9.910751E-1	9.910835E-1	9.278259E-1	9.242029E-1	9.328210E-1	9.678017E-1	9.760754E-1	9.114627E-1	9.483379E-1	9.638633E-1	9.476733E-1	9.349293E-1	9.237014E-1	9.305779E-1	9.364603E-1	9.284199E-1	9.292269E-1	9.527297E-1	9.277110E-1	9.483688E-1	9.722973E-1	9.294421E-1	9.622687E-1	1.001593E+0	9.613905E-1	9.274812E-1	9.470162E-1
5.560130E+2	9.047557E-1	8.959903E-1	9.401594E-1	9.238573E-1	9.117867E-1	9.408469E-1	9.561026E-1	9.301124E-1	9.118535E-1	9.613451E-1	9.731654E-1	9.395288E-1	9.686160E-1	9.728863E-1	9.150073E-1	9.189084E-1	9.228899E-1	9.165120E-1	9.151085E-1	9.283145E-1	9.746304E-1	9.189765E-1	9.398631E-1	9.134263E-1	8.926834E-1	9.310815E-1	9.291523E-1	9.166520E-1	9.011001E-1	9.321257E-1	9.765148E-1	9.033778E-1	9.658754E-1	9.829762E-1	9.243095E-1	8.904398E-1	9.482867E-1	9.435084E-1	9.604003E-1	9.142733E-1	9.399529E-1	9.490198E-1	9.382410E-1	9.299233E-1	9.172513E-1	9.403603E-1	9.539646E-1	9.488540E-1	8.930992E-1	8.981996E-1	9.351833E-1	9.398071E-1	8.955005E-1	9.551449E-1	9.483673E-1	9.789522E-1	9.838131E-1	9.560536E-1	9.147719E-1	9.154052E-1	9.445492E-1	9.243520E-1	9.517479E-1	9.223127E-1	9.399315E-1	9.851126E-1	9.409405E-1	8.549537E-1	9.172026E-1	9.655967E-1	9.469415E-1	9.822026E-1	9.402352E-1	9.391331E-1	9.309480E-1	8.987270E-1	9.843769E-1	9.300630E-1	9.585756E-1	9.056170E-1	9.582579E-1	9.617919E-1	9.075736E-1	9.370776E-1	9.089081E-1	9.336189E-1	9.736992E-1	9.103322E-1	9.492424E-1	9.117168E-1	9.502802E-1	9.605993E-1	9.869879E-1	9.194829E-1	9.381439E-1	8.838278E-1	9.000841E-1	9.345518E-1	9.074200E-1	9.397146E-1	9.727953E-1	9.243673E-1	9.510442E-1	9.197509E-1	9.274937E-1	9.504232E-1	9.487782E-1	9.285674E-1	9.346344E-1	8.736938E-1	9.370523E-1	9.309821E-1	9.239028E-1	9.224186E-1	9.202271E-1	8.863091E-1	9.129267E-1	9.248208E-1	9.402834E-1	9.116961E-1	9.818912E-1	8.930251E-1	9.281247E-1	9.434570E-1	9.581390E-1	9.110257E-1	9.646688E-1	8.984678E-1	9.432491E-1	9.194182E-1	9.160543E-1	9.550625E-1	9.179481E-1	9.051350E-1	9.124375E-1	8.841297E-1	9.909204E-1	9.643795E-1	9.758459E-1	9.610821E-1	9.851283E-1	8.815768E-1	9.630636E-1	9.311555E-1	9.459522E-1	9.363416E-1	9.212865E-1	9.418380E-1	9.787453E-1	9.322785E-1	9.178650E-1	9.712447E-1	9.384137E-1	9.129481E-1	9.707129E-1	8.636829E-1	9.290440E-1	9.083878E-1	9.639769E-1	9.400073E-1	9.302207E-1	9.108431E-1	9.599632E-1	8.555186E-1	9.288404E-1	9.476224E-1	9.818217E-1	9.176382E-1	9.843507E-1
5.565090E+2	9.316126E-1	9.352514E-1	9.520115E-1	9.269879E-1	9.546251E-1	9.505202E-1	9.516865E-1	9.413482E-1	9.106151E-1	9.283961E-1	9.251766E-1	9.515790E-1	9.678530E-1	9.148029E-1	9.747931E-1	9.750833E-1	9.219132E-1	9.448098E-1	9.477228E-1	9.605585E-1	9.191090E-1	9.251046E-1	9.670840E-1	9.450857E-1	9.426957E-1	9.645906E-1	9.353284E-1	9.153535E-1	9.675382E-1	9.219379E-1	9.315675E-1	9.402149E-1	9.660336E-1	8.967510E-1	9.527758E-1	9.217378E-1	9.574083E-1	9.558766E-1	9.482522E-1	9.406704E-1	9.584341E-1	9.415335E-1	9.763124E-1	9.792119E-1	9.770814E-1	9.954999E-1	9.437724E-1	9.406355E-1	9.187823E-1	9.322988E-1	9.859440E-1	9.414227E-1	9.575255E-1	9.490800E-1	9.528494E-1	9.490798E-1	9.661052E-1	9.569965E-1	9.824306E-1	8.859663E-1	9.493646E-1	9.247812E-1	9.449701E-1	9.202543E-1	9.502500E-1	9.405610E-1	9.081436E-1	9.189008E-1	9.668320E-1	9.644689E-1	9.137747E-1	9.941765E-1	9.545934E-1	9.602621E-1	9.912308E-1	9.194796E-1	9.937941E-1	9.189350E-1	9.268830E-1	8.992572E-1	9.472919E-1	9.454829E-1	9.282134E-1	9.238575E-1	9.144555E-1	9.173307E-1	9.348300E-1	9.025222E-1	9.352626E-1	8.817443E-1	9.778956E-1	9.175582E-1	9.434878E-1	9.491620E-1	9.255277E-1	9.456275E-1	1.005077E+0	9.309696E-1	9.448314E-1	9.647753E-1	9.500586E-1	9.517324E-1	9.195100E-1	9.425880E-1	9.541396E-1	9.342617E-1	9.247240E-1	9.632266E-1	9.284981E-1	9.171134E-1	9.533103E-1	9.203553E-1	9.552778E-1	9.648376E-1	9.156660E-1	9.578539E-1	9.659678E-1	9.282403E-1	9.128019E-1	9.344575E-1	9.782250E-1	9.044139E-1	9.527185E-1	9.480087E-1	9.213445E-1	9.425543E-1	9.755291E-1	9.546648E-1	9.790765E-1	9.323149E-1	9.751499E-1	9.660515E-1	9.164739E-1	9.475272E-1	9.410307E-1	9.137705E-1	9.112549E-1	9.459163E-1	9.572991E-1	9.221980E-1	9.852867E-1	8.841903E-1	9.748702E-1	9.655847E-1	9.401122E-1	9.090098E-1	8.754257E-1	9.824646E-1	9.673731E-1	9.462136E-1	9.211648E-1	9.259759E-1	9.733975E-1	9.974525E-1	9.440776E-1	9.017758E-1	9.683756E-1	9.351250E-1	9.796362E-1	9.382282E-1	9.036874E-1	9.048545E-1	9.778858E-1	9.245010E-1	8.930263E-1	9.697286E-1	9.599196E-1	9.491262E-1	8.975182E-1
5.570100E+2	9.559550E-1	9.787665E-1	1.009448E+0	9.639749E-1	9.958872E-1	9.547184E-1	9.654718E-1	9.448012E-1	9.675693E-1	1.013550E+0	9.704938E-1	9.323485E-1	9.748750E-1	9.710510E-1	9.383383E-1	9.680117E-1	1.006024E+0	1.013299E+0	9.211421E-1	9.491919E-1	9.864282E-1	9.140159E-1	9.546108E-1	9.773412E-1	9.576773E-1	9.688926E-1	1.013115E+0	9.513635E-1	9.739933E-1	9.075639E-1	9.231390E-1	9.959106E-1	9.274265E-1	9.467815E-1	9.345512E-1	9.714674E-1	9.646352E-1	9.314351E-1	1.007622E+0	9.959357E-1	9.679195E-1	9.563412E-1	1.021818E+0	9.882916E-1	1.029164E+0	9.033784E-1	9.294050E-1	9.780232E-1	1.048533E+0	9.853504E-1	9.474908E-1	9.646401E-1	9.992432E-1	1.008023E+0	1.014859E+0	9.911115E-1	9.633356E-1	1.019396E+0	9.515163E-1	9.643780E-1	9.698151E-1	9.679696E-1	9.460370E-1	9.660515E-1	9.774393E-1	9.766325E-1	9.600921E-1	1.007357E+0	9.668709E-1	1.000490E+0	9.401545E-1	1.000486E+0	9.711114E-1	9.845519E-1	9.833761E-1	1.006947E+0	9.305572E-1	9.622247E-1	9.594933E-1	9.389306E-1	9.426133E-1	1.020006E+0	1.021236E+0	9.442062E-1	9.517358E-1	1.013537E+0	9.717663E-1	9.641178E-1	9.624405E-1	9.541563E-1	9.786251E-1	9.990781E-1	9.946840E-1	1.022483E+0	9.963447E-1	1.001506E+0	1.038081E+0	9.490463E-1	9.864905E-1	9.962382E-1	1.001867E+0	9.903628E-1	9.330132E-1	9.757519E-1	9.469645E-1	9.396598E-1	9.812172E-1	9.768667E-1	9.732790E-1	9.455351E-1	9.557305E-1	9.491588E-1	9.703839E-1	9.681636E-1	9.481360E-1	9.731550E-1	9.553308E-1	9.750559E-1	9.562482E-1	1.018971E+0	9.463947E-1	9.706476E-1	9.571749E-1	1.011075E+0	9.444557E-1	9.712603E-1	9.207035E-1	1.003295E+0	9.882796E-1	9.832778E-1	9.987705E-1	1.006503E+0	9.714510E-1	9.610321E-1	9.786982E-1	9.471239E-1	9.686459E-1	9.726852E-1	9.830968E-1	9.613891E-1	1.038072E+0	9.144090E-1	9.314606E-1	9.419910E-1	9.676788E-1	9.446918E-1	1.027899E+0	1.030942E+0	9.524080E-1	9.700086E-1	1.008165E+0	1.000068E+0	9.718759E-1	9.479052E-1	9.892873E-1	9.834871E-1	9.393937E-1	9.887401E-1	1.038765E+0	9.895023E-1	9.509959E-1	9.050967E-1	9.468739E-1	9.674408E-1	9.861375E-1	9.398518E-1	9.563148E-1	1.006302E+0	9.622553E-1
5.575250E+2	9.599209E-1	9.905526E-1	9.775104E-1	9.549497E-1	9.339901E-1	9.676831E-1	9.853070E-1	9.545790E-1	9.839468E-1	9.745244E-1	9.865530E-1	9.918660E-1	9.719139E-1	9.586504E-1	9.854400E-1	9.260594E-1	9.924734E-1	9.596204E-1	9.794955E-1	9.751236E-1	9.831205E-1	1.012419E+0	1.001820E+0	9.487899E-1	8.850704E-1	9.668542E-1	9.580544E-1	9.490243E-1	9.983461E-1	9.874382E-1	1.012129E+0	1.022394E+0	9.759280E-1	9.696490E-1	9.682135E-1	9.472523E-1	1.002183E+0	9.804363E-1	9.651111E-1	9.464094E-1	9.242443E-1	9.856692E-1	9.611570E-1	9.058433E-1	9.596737E-1	9.905215E-1	9.068039E-1	9.462416E-1	9.391164E-1	9.955021E-1	9.383863E-1	9.780603E-1	9.661515E-1	9.884635E-1	9.639071E-1	9.631086E-1	9.900616E-1	9.922641E-1	1.005719E+0	9.949193E-1	9.072590E-1	9.336346E-1	1.013838E+0	9.531251E-1	9.977345E-1	9.847415E-1	9.610893E-1	9.428980E-1	9.344955E-1	9.474803E-1	1.009589E+0	9.684082E-1	1.001738E+0	9.582783E-1	9.864247E-1	1.037690E+0	9.718428E-1	9.620899E-1	9.709067E-1	9.508467E-1	9.557610E-1	9.910987E-1	9.663416E-1	1.006877E+0	9.629567E-1	9.463711E-1	9.631462E-1	9.243533E-1	9.862253E-1	9.388306E-1	9.434302E-1	9.497894E-1	9.747943E-1	9.868834E-1	9.619225E-1	9.494764E-1	9.512326E-1	9.710902E-1	1.039255E+0	9.915553E-1	1.008495E+0	9.774661E-1	9.961324E-1	9.412030E-1	9.550318E-1	9.456963E-1	9.788558E-1	9.444792E-1	9.542160E-1	9.628688E-1	9.699119E-1	9.338934E-1	9.470647E-1	9.548572E-1	1.005973E+0	1.011342E+0	9.556590E-1	1.030056E+0	9.707766E-1	9.866419E-1	1.025639E+0	9.914647E-1	9.818414E-1	9.476163E-1	1.004169E+0	9.564608E-1	9.835399E-1	9.827504E-1	1.000754E+0	1.007093E+0	9.296337E-1	9.795049E-1	9.052024E-1	9.567409E-1	9.767159E-1	9.552311E-1	9.291864E-1	9.257888E-1	9.534542E-1	9.766333E-1	1.010612E+0	9.755095E-1	1.003158E+0	1.014787E+0	9.121509E-1	9.490113E-1	9.633602E-1	1.028227E+0	9.892449E-1	9.379023E-1	9.714198E-1	9.876107E-1	9.736935E-1	9.394730E-1	9.558079E-1	9.787313E-1	9.472606E-1	1.000318E+0	1.028604E+0	9.904629E-1	9.519517E-1	9.567980E-1	9.489391E-1	9.481586E-1	9.519130E-1	9.718766E-1	9.726604E-1	1.002457E+0	9.430999E-1
5.580110E+2	1.007766E+0	1.006430E+0	9.963781E-1	1.007318E+0	1.044637E+0	9.791217E-1	9.687387E-1	9.550732E-1	9.768644E-1	9.850988E-1	1.029415E+0	1.022479E+0	9.962557E-1	1.034294E+0	1.010659E+0	1.029132E+0	9.675152E-1	9.971805E-1	9.816037E-1	9.645157E-1	1.004338E+0	9.559285E-1	9.550747E-1	9.430668E-1	9.681171E-1	9.560483E-1	9.816343E-1	9.872421E-1	1.019445E+0	1.013186E+0	9.928447E-1	9.679273E-1	1.013903E+0	1.003883E+0	9.620040E-1	9.425827E-1	1.005336E+0	9.821658E-1	1.007253E+0	1.054451E+0	9.851800E-1	9.357825E-1	1.002163E+0	1.019608E+0	1.007716E+0	1.047241E+0	1.017802E+0	9.780553E-1	1.024195E+0	1.008547E+0	1.054541E+0	1.015610E+0	9.961586E-1	1.006493E+0	1.000275E+0	9.856651E-1	1.018701E+0	9.863442E-1	9.774364E-1	9.703120E-1	9.930765E-1	9.864292E-1	9.718292E-1	9.769170E-1	9.786578E-1	9.454000E-1	1.023581E+0	9.761570E-1	1.005074E+0	9.901572E-1	9.981860E-1	9.883321E-1	1.004813E+0	1.042059E+0	9.790403E-1	1.029059E+0	1.007982E+0	9.903973E-1	1.000467E+0	1.004475E+0	1.010478E+0	9.615065E-1	1.004040E+0	9.979800E-1	1.005537E+0	1.004026E+0	9.796920E-1	9.962102E-1	9.985735E-1	9.974661E-1	9.967611E-1	1.024900E+0	9.955403E-1	1.014674E+0	9.706184E-1	9.794482E-1	9.814705E-1	1.036784E+0	1.032700E+0	1.024688E+0	1.003232E+0	9.933763E-1	9.984210E-1	9.740540E-1	9.946604E-1	9.945350E-1	1.018527E+0	9.680966E-1	1.018199E+0	9.886667E-1	9.659546E-1	1.002636E+0	9.664946E-1	9.733563E-1	1.021821E+0	9.941118E-1	9.719705E-1	9.770009E-1	1.032793E+0	9.816246E-1	9.876064E-1	9.677646E-1	9.769432E-1	9.867964E-1	9.894293E-1	9.992842E-1	9.837830E-1	1.064048E+0	1.006805E+0	9.609834E-1	1.009671E+0	9.736549E-1	9.795569E-1	9.875992E-1	1.020548E+0	9.799941E-1	9.579111E-1	1.016700E+0	1.053667E+0	9.824798E-1	1.033818E+0	9.849648E-1	9.376088E-1	1.010607E+0	9.943621E-1	9.853772E-1	9.760033E-1	9.947401E-1	9.950944E-1	9.828763E-1	1.000507E+0	1.025628E+0	1.014700E+0	1.011352E+0	9.819910E-1	9.711338E-1	9.952785E-1	9.856801E-1	9.866492E-1	1.018161E+0	9.770885E-1	9.710508E-1	9.926794E-1	9.927562E-1	9.531697E-1	1.027925E+0	1.033285E+0	9.923301E-1	1.000048E+0
5.585100E+2	9.802471E-1	1.004081E+0	1.003470E+0	1.007217E+0	1.007338E+0	1.058597E+0	9.784956E-1	1.016816E+0	1.082567E+0	1.056984E+0	9.760648E-1	1.035617E+0	1.021654E+0	1.032522E+0	1.005732E+0	1.029121E+0	1.006770E+0	1.015817E+0	9.867536E-1	9.812394E-1	1.001131E+0	1.031098E+0	1.016420E+0	1.021201E+0	1.012143E+0	1.058889E+0	1.019463E+0	1.009117E+0	1.039011E+0	1.003427E+0	9.930794E-1	1.044479E+0	9.999458E-1	9.983235E-1	1.003650E+0	1.010559E+0	1.018714E+0	1.021482E+0	9.735410E-1	1.019763E+0	1.022578E+0	1.041272E+0	1.048944E+0	1.042576E+0	1.039003E+0	1.006606E+0	1.007654E+0	1.050603E+0	1.029105E+0	1.066989E+0	9.941702E-1	9.750639E-1	1.018004E+0	1.053974E+0	1.011682E+0	9.917676E-1	1.016343E+0	1.049767E+0	1.027749E+0	9.787471E-1	1.038526E+0	1.014354E+0	1.026436E+0	1.030160E+0	1.029529E+0	1.033694E+0	1.021008E+0	1.016852E+0	1.035106E+0	1.032145E+0	1.043444E+0	1.005198E+0	9.932464E-1	1.067304E+0	1.022446E+0	1.026983E+0	9.969648E-1	1.046994E+0	1.030647E+0	1.005486E+0	9.996601E-1	1.029064E+0	1.044566E+0	1.023926E+0	1.010941E+0	1.041523E+0	1.005411E+0	1.002496E+0	1.035617E+0	9.964850E-1	9.911892E-1	1.012295E+0	1.015138E+0	1.020012E+0	1.004514E+0	1.068173E+0	1.034077E+0	1.016789E+0	1.033206E+0	9.998582E-1	1.037835E+0	9.730099E-1	1.066724E+0	1.010391E+0	1.035316E+0	9.820345E-1	1.038562E+0	1.010009E+0	1.010255E+0	1.033044E+0	1.028636E+0	1.072360E+0	1.013026E+0	1.025132E+0	1.038747E+0	9.909831E-1	1.049163E+0	1.003543E+0	1.050547E+0	1.017120E+0	1.055203E+0	1.031595E+0	1.034481E+0	1.045278E+0	1.008429E+0	1.022391E+0	9.873961E-1	1.007819E+0	1.032787E+0	9.984348E-1	1.028605E+0	9.800406E-1	1.020974E+0	1.040329E+0	1.010584E+0	1.012580E+0	1.069399E+0	1.007435E+0	9.904786E-1	1.000139E+0	1.024615E+0	1.038219E+0	1.050468E+0	9.972045E-1	1.018570E+0	1.032219E+0	1.097250E+0	1.075544E+0	9.929080E-1	9.960697E-1	1.047764E+0	9.701681E-1	1.028641E+0	1.026661E+0	1.055236E+0	1.028952E+0	9.880292E-1	9.928209E-1	1.025032E+0	1.021741E+0	1.050659E+0	1.064630E+0	1.009141E+0	9.990922E-1	1.012550E+0	1.016786E+0	9.949514E-1	1.039311E+0	9.500263E-1
5.590100E+2	1.025257E+0	1.004648E+0	9.975554E-1	1.001427E+0	9.530653E-1	9.662387E-1	1.023085E+0	9.873075E-1	9.981990E-1	1.036747E+0	1.031955E+0	9.934884E-1	1.021291E+0	1.016729E+0	9.802068E-1	9.928745E-1	1.034367E+0	9.997195E-1	9.990307E-1	1.038591E+0	9.904155E-1	1.029526E+0	9.919290E-1	9.920601E-1	1.000630E+0	9.987308E-1	9.829393E-1	9.915342E-1	9.672047E-1	1.030336E+0	1.010546E+0	9.899455E-1	1.004806E+0	1.051873E+0	1.031540E+0	1.006907E+0	1.002319E+0	1.000257E+0	1.005613E+0	9.977005E-1	1.030857E+0	1.010644E+0	1.000932E+0	9.890617E-1	1.009155E+0	1.048977E+0	9.908495E-1	1.022014E+0	9.637045E-1	1.035633E+0	1.029984E+0	1.006563E+0	1.026703E+0	1.035781E+0	1.070738E+0	1.006156E+0	9.751345E-1	9.824761E-1	9.843046E-1	1.037887E+0	9.970811E-1	1.018635E+0	1.027131E+0	9.931707E-1	1.050997E+0	1.029816E+0	9.955040E-1	1.011264E+0	1.009259E+0	1.006066E+0	1.019842E+0	1.008914E+0	9.525756E-1	9.708625E-1	9.902276E-1	1.006496E+0	1.047356E+0	1.010594E+0	1.020816E+0	1.010752E+0	1.008486E+0	1.011140E+0	1.004894E+0	1.022022E+0	1.022938E+0	9.962068E-1	1.028040E+0	1.013293E+0	9.909800E-1	1.035240E+0	9.903394E-1	9.967234E-1	1.044228E+0	1.018596E+0	1.049359E+0	1.017486E+0	1.053121E+0	9.963836E-1	1.041270E+0	9.954083E-1	9.942280E-1	9.565079E-1	1.031987E+0	1.028290E+0	9.369926E-1	1.000420E+0	9.858112E-1	1.009349E+0	9.673193E-1	9.871051E-1	1.010123E+0	9.976542E-1	9.793861E-1	1.019646E+0	1.047165E+0	9.927785E-1	9.943702E-1	9.968986E-1	9.761415E-1	9.857981E-1	1.008920E+0	1.026203E+0	1.017456E+0	1.004693E+0	9.994527E-1	1.015000E+0	9.828210E-1	1.017520E+0	9.946611E-1	1.003194E+0	1.011180E+0	1.022084E+0	9.911461E-1	9.921172E-1	9.669211E-1	1.047833E+0	1.020199E+0	1.037278E+0	9.953104E-1	9.988442E-1	9.911420E-1	9.896243E-1	1.034236E+0	9.777707E-1	9.778459E-1	9.796239E-1	1.005528E+0	1.014952E+0	9.877436E-1	1.022842E+0	9.691077E-1	1.023419E+0	9.407761E-1	9.818551E-1	1.025664E+0	9.997793E-1	1.060525E+0	9.551537E-1	1.021106E+0	9.528037E-1	1.000634E+0	9.800403E-1	1.020413E+0	1.037122E+0	9.871294E-1	9.614195E-1	1.019334E+0	1.008644E+0	9.666459E-1
5.595170E+2	9.347864E-1	9.853660E-1	9.896429E-1	1.003470E+0	9.867613E-1	9.913033E-1	1.008247E+0	9.754875E-1	9.944022E-1	9.866394E-1	9.453212E-1	9.645553E-1	1.000755E+0	9.765297E-1	9.946819E-1	9.449600E-1	1.014708E+0	1.022079E+0	1.022673E+0	9.635915E-1	9.692363E-1	1.009902E+0	1.013551E+0	1.003083E+0	9.962850E-1	1.002349E+0	1.013922E+0	9.704222E-1	9.776702E-1	9.831621E-1	9.648065E-1	9.852250E-1	9.826299E-1	1.009384E+0	9.971781E-1	1.038127E+0	9.449864E-1	9.604568E-1	1.016423E+0	9.810514E-1	1.015142E+0	1.000540E+0	9.930477E-1	9.897977E-1	9.550921E-1	9.742445E-1	9.804048E-1	9.647946E-1	1.011202E+0	9.545896E-1	9.523570E-1	9.790041E-1	9.746561E-1	9.476612E-1	9.783049E-1	9.966761E-1	9.850376E-1	9.773862E-1	9.471221E-1	9.705242E-1	9.993878E-1	9.959751E-1	1.015897E+0	9.773855E-1	9.635549E-1	9.776853E-1	9.818520E-1	1.002789E+0	9.941157E-1	9.819903E-1	9.755128E-1	9.740945E-1	9.963321E-1	9.692534E-1	1.019116E+0	9.710372E-1	9.346328E-1	9.782607E-1	9.644295E-1	9.850460E-1	9.729226E-1	1.038508E+0	9.830820E-1	9.581449E-1	1.001378E+0	9.728866E-1	1.025734E+0	1.029153E+0	9.721125E-1	9.828878E-1	1.005355E+0	9.662909E-1	1.023623E+0	9.877710E-1	1.014270E+0	1.014435E+0	9.655332E-1	9.681562E-1	9.405174E-1	9.827717E-1	9.838951E-1	9.814389E-1	9.379238E-1	9.958216E-1	1.009206E+0	1.015727E+0	9.753518E-1	1.016340E+0	1.025843E+0	9.996225E-1	1.009435E+0	1.000378E+0	9.899877E-1	9.571675E-1	9.328479E-1	9.885960E-1	9.803983E-1	9.711138E-1	1.005565E+0	1.020694E+0	1.007186E+0	9.881361E-1	1.003446E+0	1.010771E+0	1.010329E+0	9.882595E-1	9.977990E-1	1.004592E+0	9.734414E-1	9.968829E-1	9.835662E-1	9.952130E-1	9.910045E-1	9.863535E-1	9.904435E-1	9.908695E-1	9.912824E-1	9.659498E-1	9.457540E-1	9.997503E-1	9.942584E-1	1.033043E+0	9.884455E-1	1.011823E+0	1.020334E+0	1.000532E+0	9.865692E-1	9.902259E-1	1.038587E+0	1.016353E+0	9.925852E-1	9.853075E-1	1.042745E+0	1.016452E+0	9.597984E-1	1.011100E+0	1.005308E+0	1.010595E+0	9.975467E-1	9.815896E-1	9.896061E-1	1.056974E+0	9.741556E-1	9.497929E-1	1.017741E+0	9.880478E-1	9.951136E-1	9.880308E-1	1.024655E+0
5.600130E+2	9.756565E-1	9.730269E-1	1.013909E+0	9.856380E-1	9.792754E-1	1.003804E+0	1.000689E+0	1.008196E+0	9.668750E-1	9.635555E-1	9.967617E-1	1.004357E+0	9.831312E-1	9.642307E-1	1.020778E+0	1.005691E+0	1.008556E+0	9.684084E-1	1.038224E+0	1.010529E+0	9.910708E-1	9.845804E-1	9.843077E-1	1.002676E+0	1.012528E+0	9.647968E-1	9.549544E-1	9.727711E-1	9.434439E-1	9.894047E-1	1.008417E+0	9.948180E-1	1.030050E+0	9.652455E-1	9.971014E-1	9.638853E-1	9.755887E-1	9.946256E-1	9.645072E-1	9.723288E-1	9.835073E-1	9.719519E-1	9.653258E-1	9.867552E-1	9.910449E-1	9.933876E-1	9.759146E-1	9.951213E-1	9.654260E-1	9.489634E-1	9.594135E-1	9.587200E-1	1.027314E+0	9.658332E-1	9.774221E-1	1.005282E+0	1.003272E+0	1.004565E+0	1.007336E+0	1.016488E+0	9.908418E-1	9.938681E-1	1.006459E+0	9.946705E-1	1.009677E+0	1.042964E+0	9.748155E-1	9.649924E-1	9.837368E-1	9.961239E-1	9.598241E-1	9.967398E-1	1.016260E+0	9.837659E-1	9.841592E-1	9.619107E-1	9.707273E-1	1.012482E+0	1.027118E+0	9.918528E-1	1.021787E+0	9.671723E-1	9.688088E-1	1.020430E+0	9.858226E-1	1.012610E+0	9.938428E-1	9.510647E-1	9.821184E-1	9.993181E-1	9.919923E-1	9.578527E-1	9.644097E-1	9.805920E-1	9.730617E-1	9.686899E-1	9.763694E-1	9.784778E-1	9.371849E-1	9.627104E-1	9.974535E-1	1.023812E+0	9.885266E-1	9.817260E-1	1.010692E+0	1.002621E+0	9.788976E-1	9.952213E-1	9.921978E-1	9.737526E-1	9.590862E-1	9.625916E-1	9.924583E-1	9.736779E-1	9.826856E-1	1.030267E+0	9.798768E-1	1.007186E+0	9.470390E-1	9.819649E-1	9.597043E-1	9.791116E-1	9.895036E-1	9.746304E-1	9.659545E-1	1.008877E+0	1.000881E+0	9.829330E-1	9.943303E-1	1.004543E+0	9.862870E-1	1.026776E+0	9.873017E-1	9.973838E-1	1.007317E+0	9.385892E-1	9.799454E-1	9.913925E-1	1.000320E+0	1.026555E+0	9.843863E-1	9.582237E-1	1.006232E+0	9.919994E-1	9.637290E-1	9.825143E-1	1.003618E+0	9.368616E-1	9.808879E-1	9.989267E-1	9.673310E-1	9.968363E-1	9.526220E-1	9.861336E-1	9.903524E-1	9.892029E-1	9.882536E-1	9.805245E-1	9.780367E-1	1.001211E+0	9.907690E-1	9.599507E-1	9.575537E-1	9.786075E-1	9.954591E-1	9.677907E-1	9.442784E-1	9.860721E-1	1.002232E+0
5.605090E+2	1.031182E+0	1.029787E+0	1.013838E+0	1.013857E+0	1.058171E+0	1.041387E+0	1.037008E+0	1.041345E+0	9.636764E-1	9.853717E-1	1.011516E+0	1.000208E+0	9.965116E-1	9.922757E-1	9.820696E-1	1.024409E+0	9.992656E-1	9.913818E-1	9.922382E-1	1.023185E+0	1.051152E+0	9.756301E-1	9.914348E-1	1.050481E+0	1.007915E+0	1.032446E+0	1.052973E+0	1.036348E+0	1.030428E+0	1.005323E+0	1.012528E+0	1.053393E+0	9.490542E-1	9.732920E-1	1.038536E+0	1.039887E+0	1.072890E+0	1.033410E+0	1.033474E+0	9.907498E-1	1.007145E+0	1.009896E+0	1.025825E+0	1.009123E+0	1.012723E+0	9.840643E-1	1.022242E+0	9.606700E-1	1.017527E+0	1.047542E+0	1.037366E+0	1.058757E+0	9.921138E-1	9.857927E-1	9.711900E-1	1.016942E+0	9.828101E-1	9.978326E-1	1.037212E+0	1.028883E+0	1.020159E+0	9.805621E-1	1.010288E+0	1.052997E+0	9.921028E-1	1.042268E+0	9.923949E-1	1.041118E+0	1.012624E+0	9.825992E-1	9.996274E-1	1.012773E+0	1.023512E+0	9.586882E-1	9.978408E-1	9.850616E-1	1.047170E+0	1.008093E+0	9.910539E-1	1.020413E+0	1.013346E+0	9.778773E-1	1.012529E+0	1.020460E+0	9.770868E-1	1.009968E+0	9.990520E-1	1.000811E+0	1.024276E+0	9.945859E-1	1.010280E+0	1.049652E+0	9.552761E-1	9.973506E-1	1.012194E+0	9.848297E-1	9.650032E-1	9.808631E-1	1.032811E+0	9.998984E-1	1.000781E+0	1.043343E+0	9.795469E-1	1.052655E+0	1.012141E+0	1.021412E+0	1.014339E+0	9.670413E-1	1.011393E+0	1.029732E+0	1.017331E+0	9.718442E-1	1.046553E+0	1.021360E+0	1.005254E+0	1.001519E+0	1.012673E+0	1.036720E+0	9.900790E-1	9.870537E-1	1.016180E+0	9.879874E-1	1.010345E+0	9.568726E-1	1.029244E+0	9.750981E-1	1.028204E+0	9.879822E-1	9.868088E-1	1.008388E+0	9.662937E-1	9.757538E-1	1.031497E+0	1.020950E+0	9.751258E-1	1.040087E+0	9.664315E-1	9.917004E-1	1.002700E+0	1.017986E+0	9.969537E-1	1.013147E+0	1.004630E+0	9.669199E-1	1.019550E+0	1.038655E+0	9.826713E-1	9.991648E-1	9.736874E-1	1.033407E+0	1.013011E+0	9.754386E-1	1.047663E+0	9.894289E-1	9.862932E-1	1.014320E+0	9.826807E-1	1.031655E+0	1.002594E+0	1.037764E+0	1.014942E+0	9.988260E-1	1.027625E+0	1.048087E+0	1.042674E+0	1.020286E+0	1.010140E+0	9.924105E-1	1.048657E+0
5.610010E+2	1.045105E+0	9.966615E-1	9.852063E-1	9.810742E-1	9.707526E-1	9.595479E-1	9.837376E-1	1.015774E+0	1.017416E+0	9.856037E-1	1.008967E+0	9.792953E-1	9.804006E-1	9.834191E-1	1.005873E+0	9.738134E-1	9.688180E-1	1.005414E+0	9.794767E-1	1.018349E+0	9.926565E-1	1.013334E+0	1.047283E+0	9.874326E-1	1.002383E+0	9.867400E-1	9.941138E-1	1.032565E+0	1.022797E+0	9.751614E-1	1.017779E+0	9.642129E-1	1.019611E+0	9.979984E-1	9.699902E-1	9.980517E-1	9.801657E-1	1.007603E+0	9.991877E-1	9.839554E-1	9.555909E-1	1.029913E+0	9.637621E-1	9.630782E-1	9.852651E-1	9.454798E-1	1.005132E+0	1.028742E+0	9.888401E-1	9.377355E-1	9.721691E-1	1.006283E+0	9.650505E-1	1.004465E+0	9.903880E-1	9.975114E-1	1.018703E+0	1.001629E+0	1.018840E+0	9.971589E-1	9.609274E-1	1.010177E+0	9.419606E-1	9.746998E-1	9.754815E-1	9.281725E-1	1.010844E+0	9.868276E-1	9.600842E-1	1.010918E+0	1.003564E+0	1.013949E+0	1.013261E+0	1.008067E+0	1.007171E+0	1.019452E+0	9.951679E-1	9.531788E-1	9.654682E-1	9.819761E-1	9.733187E-1	1.014733E+0	9.820815E-1	9.570360E-1	9.962969E-1	9.627799E-1	9.682279E-1	1.006972E+0	9.963224E-1	9.940169E-1	1.014083E+0	9.922862E-1	1.001785E+0	9.810044E-1	9.759833E-1	9.669383E-1	1.024425E+0	1.022546E+0	9.823110E-1	1.034665E+0	9.825764E-1	1.028512E+0	9.968705E-1	9.570625E-1	1.000992E+0	9.832498E-1	9.885114E-1	1.033942E+0	9.747928E-1	9.880773E-1	1.009434E+0	9.925353E-1	1.012094E+0	1.029660E+0	9.714795E-1	1.001745E+0	1.011548E+0	1.007537E+0	9.978347E-1	1.025745E+0	9.652000E-1	1.019203E+0	9.678256E-1	1.020959E+0	9.971610E-1	9.910901E-1	1.019116E+0	9.351056E-1	1.011166E+0	1.027573E+0	1.014397E+0	1.026477E+0	9.985196E-1	9.752667E-1	1.029061E+0	9.900466E-1	1.014832E+0	9.895442E-1	1.011770E+0	9.742461E-1	9.748265E-1	9.827777E-1	9.783795E-1	1.043676E+0	1.005608E+0	9.810778E-1	9.483611E-1	9.885117E-1	1.031091E+0	9.495254E-1	1.009694E+0	1.023203E+0	9.728522E-1	9.881172E-1	1.000665E+0	9.855128E-1	9.799246E-1	1.043572E+0	9.890353E-1	9.867299E-1	9.763014E-1	9.685283E-1	1.018433E+0	9.945420E-1	9.912770E-1	1.017746E+0	1.002898E+0	9.932013E-1	1.007737E+0
