Photon Energy (eV)	#1	#2	#3	#4	#5	#6	#7	#8	#9	#10	#11	#12	#13	#14	#15	#16	#17	#18	#19	#20	#21	#22	#23	#24	#25	#26	#27	#28	#29	#30	#31	#32	#33	#34	#35	#36	#37	#38	#39	#40	#41	#42	#43	#44	#45	#46	#47	#48	#49	#50	#51	#52	#53	#54	#55	#56	#57	#58	#59	#60	#61	#62	#63	#64	#65	#66	#67	#68	#69	#70	#71	#72	#73	#74	#75	#76	#77	#78	#79	#80	#81	#82	#83	#84	#85	#86	#87	#88	#89	#90	#91	#92	#93	#94	#95	#96	#97	#98	#99	#100	#101	#102	#103	#104	#105	#106	#107	#108	#109	#110	#111	#112	#113	#114	#115	#116	#117	#118	#119	#120	#121	#122	#123	#124	#125	#126	#127	#128	#129	#130	#131	#132	#133	#134	#135	#136	#137	#138	#139	#140	#141	#142	#143	#144	#145	#146	#147	#148	#149	#150	#151	#152	#153	#154	#155	#156	#157	#158	#159	#160	#161	#162	#163	#164	#165	#166	#167	#168	#169	#170	#171	#172	
5.300270E+2	-5.006542E-3	-1.310868E-2	3.224981E-4	-1.857236E-3	-1.588106E-2	-1.531911E-2	5.998463E-3	-4.892236E-3	-6.782848E-3	-1.072484E-2	-6.563844E-3	-5.286548E-3	-1.588374E-2	-9.299650E-3	-9.579358E-3	-5.908085E-3	-7.526239E-3	-1.607942E-2	-1.073202E-2	-3.409234E-3	-1.030395E-2	-8.546139E-3	-1.181370E-2	-1.005143E-2	-4.603710E-3	-1.777611E-3	-9.474215E-3	-1.014786E-2	-1.228829E-2	-1.033977E-2	-8.766707E-3	-1.527969E-2	-2.055886E-2	-1.228926E-2	-2.734425E-3	-1.705308E-2	-9.426973E-3	-9.064969E-3	-6.198342E-3	-1.442371E-2	-1.153891E-2	-1.163239E-2	-1.624063E-2	-4.538147E-3	-7.903695E-3	-1.352854E-2	-9.854689E-3	-8.035972E-3	-8.267529E-3	-8.979001E-3	-6.934897E-3	-6.993407E-3	-5.684904E-3	-9.666600E-3	-3.121625E-3	-8.158609E-3	-1.064755E-2	-9.410060E-3	-1.292084E-2	-7.586289E-3	-1.560630E-2	3.738733E-4	-1.410861E-2	-2.727490E-3	-7.210330E-3	-1.434117E-2	-1.128899E-2	-5.339259E-3	-1.902998E-3	-1.320054E-2	-1.094754E-2	-7.091637E-3	-2.083598E-2	-3.425083E-3	-3.767819E-3	-1.884403E-2	-5.315166E-3	-1.122858E-2	-1.003391E-2	-5.665435E-3	-5.467200E-3	-1.253375E-2	-9.674217E-3	-9.941684E-3	-1.393989E-2	2.637964E-3	-8.957558E-3	-7.899067E-3	-7.965223E-3	-1.336644E-2	-4.329999E-3	-7.848297E-3	-1.056680E-2	-1.578545E-2	-8.796654E-3	-7.050552E-3	-9.525130E-3	-1.176474E-2	-7.642753E-3	8.786205E-4	-1.148820E-2	2.927671E-3	-1.350829E-2	-5.665759E-3	-1.740850E-2	-9.383210E-3	-1.970495E-2	-4.279611E-3	-1.289950E-2	-1.513383E-2	-1.411111E-2	-5.199878E-3	-1.437557E-2	-1.003126E-2	-5.783398E-3	-7.316610E-3	-7.993099E-3	-6.935611E-3	-1.164812E-2	-1.744989E-2	-7.720380E-3	7.455643E-4	-6.040693E-3	-2.171075E-2	-8.249412E-3	-8.167931E-3	-5.877676E-3	-8.609070E-3	-9.810786E-3	-1.464628E-2	-4.709565E-3	-1.041586E-2	-5.621772E-3	-8.541819E-3	-1.027489E-2	-1.010195E-2	-1.239432E-2	-9.815725E-3	-3.135001E-3	-8.273228E-3	-3.457797E-3	-3.304790E-3	-1.314228E-2	-1.401615E-2	-7.284572E-3	-1.371421E-2	-1.726714E-2	3.039857E-3	-7.026716E-3	-3.958416E-3	-1.367801E-2	-9.517612E-3	-1.723321E-2	-1.303327E-2	-6.074489E-3	-2.987653E-3	-7.479585E-3	-9.267614E-3	-1.077771E-2	-1.318625E-2	-1.030370E-3	-1.109174E-2	-1.087690E-2	-1.352312E-2	-9.287462E-3	-1.036827E-2	-1.098957E-2	-9.581966E-3	-1.787402E-2	-5.526644E-3	1.080490E-2	-1.647320E-2
5.305230E+2	-1.749477E-3	-1.243759E-2	-8.521541E-3	-7.144266E-3	-6.171297E-3	-7.041348E-3	-6.619666E-3	-8.682579E-3	-9.998888E-3	-8.099396E-3	-1.885278E-3	-1.111866E-2	-2.401571E-3	-1.033692E-2	-1.158328E-2	-1.177789E-2	-6.824027E-3	-3.299385E-3	-1.075687E-3	-9.275665E-3	-1.187103E-3	-1.835686E-2	-1.291749E-2	-2.672965E-3	5.797709E-5	-1.655237E-2	-7.510523E-3	-8.229780E-3	-3.887538E-3	-8.420607E-3	-7.116691E-3	-1.707679E-3	-8.443986E-3	-3.517878E-3	-7.837146E-3	2.111012E-3	-4.559295E-3	-1.068114E-2	-7.914184E-3	-4.789238E-3	-1.525402E-2	-1.566631E-3	-4.611463E-3	-8.399768E-3	-5.568644E-3	-5.597175E-3	-1.412171E-2	-1.368625E-2	-6.939953E-3	-5.192842E-3	-6.848095E-3	-6.301203E-3	-5.603000E-3	-4.517902E-3	-7.308461E-3	-1.300320E-2	1.326311E-3	-8.691217E-3	-1.426641E-2	-9.448951E-3	-4.237071E-3	-8.977528E-3	-6.698590E-3	-3.780871E-3	-1.224879E-2	-1.244929E-2	-8.302121E-3	-1.006761E-2	-5.173729E-3	-6.378111E-3	-6.620371E-3	-1.002971E-2	-5.275389E-4	-1.342163E-2	-9.170584E-3	-7.570650E-3	-6.381801E-3	-5.599179E-3	-4.584440E-3	-7.467298E-3	-1.255544E-3	-8.455200E-3	-5.769075E-3	-5.896911E-4	-7.127947E-3	-6.940108E-3	-9.538632E-3	-1.143577E-3	-7.154132E-3	-2.556284E-3	-4.826915E-4	-2.428097E-3	-2.455112E-3	-4.132976E-3	-8.046980E-3	-2.167929E-2	-8.052564E-3	-8.683904E-3	-9.746679E-3	-7.349893E-3	-1.823873E-3	-1.166510E-2	-4.511175E-3	-1.061185E-2	-1.744549E-3	3.885495E-3	-7.879011E-5	-9.060904E-3	-7.889323E-3	-2.374198E-3	-1.586629E-2	2.725794E-3	-5.881932E-3	-1.950771E-3	-1.789172E-2	-9.397105E-3	-5.967343E-3	-1.526060E-3	-1.419768E-2	-5.797206E-3	-2.236048E-2	-7.239932E-3	-7.950518E-3	-1.566418E-2	-2.052329E-3	-1.224227E-2	-5.796452E-3	-3.993835E-3	-7.029223E-3	-8.689706E-3	1.552263E-3	-6.637141E-3	-4.337313E-3	-3.914340E-3	-1.071224E-2	-1.001243E-2	2.657765E-3	-5.043675E-3	-5.906539E-3	-1.024692E-2	-3.353917E-3	-9.099176E-3	-1.238215E-3	-4.725231E-3	-5.605486E-6	-3.529377E-3	-3.091874E-3	-7.732024E-3	-2.403349E-3	-9.323377E-3	-7.628699E-3	-8.789615E-3	7.073291E-4	-1.110596E-3	4.648277E-3	-1.215513E-2	6.229708E-4	-6.015605E-3	-6.806608E-3	-6.841952E-3	-1.567746E-2	-5.222219E-3	-8.231190E-3	-1.275355E-2	-6.373788E-3	-8.351660E-3	-9.486011E-3	-1.263686E-2	-1.053623E-2	8.958187E-4	-3.551835E-3	-7.171900E-3
5.310100E+2	-1.786031E-3	-7.816489E-4	-4.160703E-3	-9.287586E-3	-1.909586E-3	-6.473671E-3	-1.103631E-2	-1.337924E-2	-6.736187E-3	-1.469933E-2	-5.294640E-3	-1.330124E-2	-1.035136E-2	-5.920697E-3	-6.086228E-4	-7.711708E-3	-1.516436E-2	4.678585E-3	-1.704955E-2	-8.039476E-3	-5.693139E-3	-6.800136E-3	-8.246700E-3	-1.221102E-2	-5.944563E-3	-3.016983E-3	-1.083549E-2	-1.282745E-2	-3.828189E-3	-5.455151E-3	-9.187416E-3	-6.986720E-3	-4.228404E-3	4.630646E-3	-4.068508E-3	6.718101E-4	-3.963133E-3	-4.469884E-3	-6.701725E-3	-4.239562E-3	-6.475014E-3	-1.282697E-2	-2.048400E-3	-1.448013E-2	-8.453792E-3	-8.469497E-3	-5.371596E-3	-1.202040E-2	-6.366002E-3	-2.781159E-3	-9.619483E-3	-3.972772E-3	-1.562771E-2	-1.036296E-3	2.567666E-5	-6.929638E-3	-1.135501E-2	1.466958E-4	-3.275794E-3	6.906496E-3	-7.144104E-3	-9.030963E-3	-4.264107E-3	-1.238192E-2	-8.492168E-3	-1.253738E-2	-8.493210E-3	-4.634998E-3	-1.365365E-2	5.094666E-4	-2.361202E-3	-6.434762E-3	-1.660693E-3	-6.527818E-3	-4.921698E-3	-8.420633E-3	-8.116238E-3	-2.473569E-3	-7.232206E-3	-1.575755E-2	-4.142775E-3	-9.615863E-3	3.283692E-3	-3.315946E-3	1.520989E-3	-9.482911E-3	-1.030995E-2	-5.397976E-3	-1.264828E-3	-6.378515E-3	-2.888111E-3	-9.254660E-3	-1.126410E-2	-2.144044E-3	-1.944143E-3	-8.780097E-3	-9.655803E-3	-5.041373E-3	-1.284625E-2	-1.097453E-2	-5.432567E-3	-9.257220E-3	-6.436534E-3	6.682049E-4	-3.251018E-3	-6.886044E-3	-9.894060E-3	-3.566100E-3	-4.175647E-3	-5.113977E-3	1.230773E-3	-1.671393E-2	-3.831424E-3	-4.203188E-3	-7.138689E-3	5.692455E-4	-9.916961E-3	-5.210826E-3	-3.769523E-3	-4.519701E-3	1.393376E-3	-2.907871E-3	-2.061554E-3	-9.776697E-3	-1.070089E-2	-5.737266E-3	-1.321052E-2	-6.617283E-3	-1.636265E-3	-8.730894E-3	-3.225756E-3	-6.818865E-3	-4.333734E-3	8.654794E-4	-1.155464E-3	-6.935541E-3	4.853588E-4	-7.682051E-3	-5.989641E-3	-6.913726E-3	-9.028428E-3	-8.535431E-3	-4.493794E-3	-2.197427E-3	-4.668250E-3	-1.448619E-2	2.849515E-3	-1.195667E-2	-1.174010E-3	-7.873646E-3	9.155198E-4	1.297699E-3	-1.149605E-2	-1.347700E-3	-8.655413E-3	-5.120955E-3	-3.670013E-3	-7.442092E-3	-9.455842E-3	-8.155831E-3	-7.378967E-3	-8.054958E-3	-1.034757E-3	4.075253E-3	4.637272E-3	-7.108075E-3	-1.018107E-2	-1.074280E-2	2.362886E-3	-1.191528E-2	-1.747820E-2	1.835172E-2
5.315080E+2	-1.269856E-2	2.363411E-3	-5.673489E-3	-5.901208E-3	-4.983566E-3	-4.078153E-3	-8.126110E-3	-4.185415E-3	6.005421E-3	-4.958616E-3	-1.106375E-3	4.099672E-6	4.993927E-3	-4.220228E-3	3.790296E-3	-1.639090E-3	-5.575525E-3	-6.344493E-3	5.322902E-3	6.083863E-4	2.383401E-3	1.380900E-2	4.889434E-3	2.734304E-3	-7.242881E-3	3.014300E-3	-3.694478E-3	1.951962E-3	-5.532125E-3	-9.066154E-3	7.948680E-3	-5.714802E-3	-5.944015E-3	-6.059897E-3	-5.331076E-3	8.613980E-3	1.038781E-3	-2.133503E-3	1.252817E-3	-5.988395E-3	-3.139739E-3	-9.168614E-3	-1.941112E-3	-4.813897E-4	-8.111731E-4	-4.421314E-3	2.755323E-4	1.390446E-3	-5.042926E-3	1.726534E-3	-1.017465E-2	6.412664E-3	-1.034095E-3	-6.127912E-3	-4.866553E-3	5.948908E-4	-6.150395E-3	2.241266E-3	-9.494272E-3	-3.599197E-3	2.129478E-3	1.800524E-3	1.379049E-3	-1.291667E-2	-7.803395E-3	-3.838404E-3	6.383244E-3	-4.589316E-3	-3.955668E-3	2.283223E-3	-2.932694E-3	-3.941300E-3	5.247725E-3	-7.072485E-3	-5.493438E-3	1.154581E-2	-1.656367E-3	-5.557990E-3	5.365575E-3	4.629086E-3	-4.105286E-3	-3.755645E-3	4.636610E-3	-7.987087E-3	-1.213202E-2	-5.154790E-3	1.576126E-3	2.657450E-3	-7.272990E-3	-3.126204E-3	-5.915307E-3	-4.468348E-3	-1.178747E-3	2.049120E-3	-3.287655E-3	3.201104E-3	-3.190018E-3	-1.597549E-2	-6.945679E-3	-7.424232E-3	-1.737703E-3	-4.244668E-3	8.107386E-5	7.094603E-4	1.824896E-3	-5.018561E-3	-5.221518E-3	-7.048986E-3	4.645667E-3	-3.947088E-3	4.362385E-3	-5.661340E-3	-2.368570E-3	-1.286332E-2	-9.197729E-4	5.684210E-3	-7.246181E-3	-4.623756E-3	7.541528E-3	5.897659E-3	-2.459357E-3	2.178700E-3	-8.719481E-3	4.458266E-3	-1.128865E-2	5.126740E-3	-1.755757E-4	-6.574690E-4	-9.173517E-3	-8.076819E-3	2.271544E-4	-1.054710E-2	-6.101928E-3	-6.784876E-3	8.177733E-4	2.489871E-3	-9.293087E-4	3.349939E-3	1.815686E-3	-3.404974E-3	-2.695044E-3	-3.843976E-3	-3.130081E-3	-5.899254E-3	2.003047E-3	2.221400E-3	-9.107986E-3	5.339733E-3	-5.142750E-3	-6.222333E-4	-4.291809E-3	-7.512907E-3	-3.703906E-3	-1.931485E-3	-3.674112E-3	-2.028939E-2	-6.759477E-3	3.588969E-3	-9.368944E-4	-6.855434E-3	4.365340E-3	-1.129747E-2	6.136697E-3	-1.146707E-2	-4.542232E-3	5.928803E-3	-7.957349E-3	1.624037E-4	-9.089596E-3	-5.550398E-3	4.721149E-3	-3.503746E-3
5.320020E+2	-3.562476E-3	9.335278E-3	1.261519E-3	-3.177365E-4	3.788592E-3	9.225587E-3	-5.152940E-3	5.347353E-4	-7.259133E-3	1.335419E-2	-5.013433E-3	-3.204118E-3	1.123889E-3	7.727494E-3	-3.996092E-3	4.421929E-3	4.755385E-3	5.369353E-4	3.735009E-3	6.128320E-3	-7.273844E-3	1.026238E-3	-2.095149E-3	-1.162502E-3	2.194106E-4	-2.845084E-3	3.545490E-3	-4.356876E-3	6.487063E-3	-1.598228E-3	-8.382187E-3	-7.422322E-3	1.484056E-3	-1.528648E-3	-5.879543E-3	-2.759804E-3	1.158889E-3	-8.709799E-4	-8.959395E-3	5.625533E-3	-1.153700E-3	9.393469E-3	1.846840E-4	4.975028E-3	1.646436E-3	1.373074E-3	5.494554E-3	-4.304197E-3	-5.566725E-3	-4.463850E-3	3.116656E-3	-4.396839E-3	1.900358E-3	2.982889E-4	2.222944E-4	9.349744E-5	9.338947E-4	-7.938689E-3	4.932021E-4	-2.866066E-3	8.525329E-3	7.937947E-3	-2.205964E-3	5.819446E-3	1.310631E-2	1.386966E-6	2.086327E-3	-9.361450E-3	8.688471E-3	-7.880744E-3	1.143791E-2	4.146281E-3	1.031473E-3	2.681812E-3	-2.281498E-3	1.704888E-3	-9.477373E-4	-1.040626E-3	-7.065877E-3	-4.151547E-3	-4.704769E-3	7.448089E-3	-4.965751E-3	-3.839655E-3	-1.746610E-4	4.786006E-3	3.684408E-3	-2.949448E-4	-5.649027E-3	7.290637E-3	-7.351415E-3	-5.718523E-3	-1.690168E-3	-1.988326E-3	1.142033E-2	6.334045E-3	6.953194E-3	8.599277E-3	7.135503E-3	4.308668E-4	8.153140E-3	4.605264E-3	-6.922519E-3	2.105382E-3	1.232751E-3	-7.331127E-3	-1.109702E-3	9.996925E-3	1.650255E-3	1.103803E-4	8.041250E-4	1.211385E-3	2.045116E-3	1.788452E-3	4.032330E-3	-4.361832E-3	1.070063E-2	-7.025474E-4	-5.607471E-3	-2.084879E-4	5.474141E-3	-5.904881E-3	-2.581169E-3	-2.856937E-3	1.280168E-3	-8.596758E-3	-3.604017E-5	-2.501146E-3	5.919877E-4	1.491172E-2	-1.130497E-2	6.108946E-3	-2.966696E-3	-4.883335E-3	1.596658E-3	-3.014258E-3	6.442977E-3	-3.001511E-3	-8.172045E-3	-4.943286E-4	-2.572226E-3	2.117879E-3	-6.990480E-3	-4.523628E-3	7.995014E-4	1.163322E-3	2.262042E-3	-6.286518E-3	-3.291557E-3	-4.925860E-3	-7.454972E-3	3.380418E-3	4.203817E-3	7.047231E-4	-5.685276E-3	7.347721E-3	-2.260798E-3	-3.181420E-4	7.707229E-3	9.144160E-4	-7.095514E-4	3.893759E-3	-7.361793E-3	9.210112E-3	-1.511450E-3	4.269975E-4	5.103967E-3	-1.613440E-3	-3.218925E-3	6.213936E-3	-7.281917E-4	2.866838E-3
5.325070E+2	7.428258E-3	1.892160E-3	-7.011879E-3	7.929116E-3	5.035019E-3	2.687749E-3	3.486751E-3	8.426450E-3	1.221784E-2	8.173088E-3	-2.319139E-3	1.012958E-2	6.029731E-4	8.342191E-3	4.492337E-3	5.068188E-3	6.048127E-3	6.101614E-3	4.921637E-3	2.137943E-3	1.118921E-2	3.988539E-3	9.855843E-3	7.017877E-3	-1.106782E-3	-4.772903E-3	7.436754E-3	9.837231E-3	1.982042E-3	1.510624E-3	9.853976E-3	1.477783E-2	1.070365E-2	7.351109E-3	8.613370E-3	1.570282E-3	6.495943E-4	6.019954E-3	1.426567E-3	3.846777E-3	1.633199E-2	1.095257E-3	2.050016E-2	4.320347E-3	3.999232E-3	5.981515E-3	1.082374E-3	7.955587E-3	9.854216E-3	9.389860E-3	1.442090E-2	2.924062E-3	7.542312E-3	-2.550954E-3	1.503017E-3	1.984443E-3	1.608373E-3	1.007561E-2	1.464051E-2	-1.914264E-4	1.118705E-3	1.785671E-4	1.094446E-2	8.176445E-3	3.374332E-3	1.800964E-2	-4.472880E-5	4.612535E-3	2.451155E-3	1.104759E-2	9.376137E-4	6.010119E-3	2.922167E-3	4.021391E-3	6.466183E-3	-1.134657E-3	6.679405E-3	9.662710E-3	5.597319E-3	2.878567E-3	5.846759E-3	9.809181E-3	5.468478E-3	1.372580E-2	6.714368E-3	1.729193E-3	5.024516E-3	3.429284E-4	1.562618E-2	2.349403E-4	1.266038E-2	1.131053E-2	1.155484E-2	4.964263E-3	5.900497E-3	9.349996E-3	1.700046E-2	1.291121E-2	7.146163E-3	2.556516E-3	3.292475E-3	5.874876E-3	9.973200E-3	-2.345873E-3	7.741611E-3	1.160799E-2	5.542006E-3	-3.400235E-3	1.487603E-2	1.821969E-3	5.151130E-3	4.300243E-3	4.199053E-3	-2.264746E-3	1.290190E-3	2.192162E-3	1.475611E-3	8.009842E-3	7.706301E-3	8.828430E-3	6.146027E-3	1.068145E-3	6.151546E-3	1.139934E-2	-1.195458E-3	3.483128E-3	1.054172E-2	6.091795E-3	6.013728E-4	4.422672E-3	1.049606E-3	1.289373E-2	1.518441E-2	4.644022E-3	-3.387305E-4	1.081391E-2	-8.044789E-3	8.043697E-3	4.305413E-3	9.286072E-3	6.035837E-4	5.640263E-3	1.008254E-3	1.174677E-2	6.804549E-3	9.546187E-3	1.516228E-3	6.881944E-3	5.357536E-3	1.219188E-3	-4.159897E-3	3.393651E-3	1.070584E-2	3.844283E-3	2.128873E-3	8.076858E-3	1.153251E-2	-2.040472E-3	1.033661E-2	1.050198E-2	4.525638E-3	6.248799E-4	4.355710E-3	1.063542E-2	-3.296859E-4	7.884116E-3	1.661875E-2	1.058666E-2	2.548056E-3	-1.197537E-3	-8.165551E-3	9.139523E-3
5.330180E+2	1.737483E-2	1.273707E-2	2.378359E-2	1.657892E-2	2.012190E-2	2.099895E-2	2.144982E-2	2.217828E-2	1.255380E-2	1.695490E-2	2.218271E-2	2.277688E-2	2.191589E-2	1.370781E-2	1.748472E-2	1.754666E-2	2.428664E-2	1.440617E-2	1.487771E-2	1.184973E-2	1.088542E-2	1.487936E-2	2.032776E-2	1.634573E-2	1.862055E-2	2.595065E-2	2.053247E-2	2.377278E-2	1.706704E-2	3.336929E-2	1.565034E-2	2.233337E-2	2.698756E-2	1.141393E-2	1.723733E-2	6.845797E-3	1.510214E-2	2.120052E-2	2.709426E-2	1.996859E-2	2.122939E-2	2.470588E-2	4.156763E-3	1.860406E-2	1.709164E-2	2.466194E-2	2.249553E-2	2.870079E-2	2.232892E-2	1.030046E-2	1.603957E-2	1.232749E-2	1.850703E-2	2.360138E-2	1.354565E-2	2.541862E-2	2.428438E-2	1.357639E-2	2.482361E-2	1.678543E-2	1.521396E-2	7.717580E-3	1.495377E-2	1.781107E-2	1.927404E-2	2.515522E-2	1.965948E-2	2.938009E-2	1.354641E-2	1.361911E-2	1.048628E-2	1.734101E-2	1.382285E-2	2.374381E-2	1.916885E-2	2.271927E-2	1.573790E-2	1.623724E-2	1.795354E-2	2.553418E-2	1.382882E-2	1.710319E-2	7.020264E-3	1.194827E-2	2.513916E-2	1.242465E-2	1.852110E-2	1.173519E-2	1.368002E-2	1.790186E-2	8.307145E-3	1.840740E-2	1.560008E-2	1.703742E-2	4.754607E-3	1.862479E-2	6.469864E-3	1.995501E-2	2.289969E-2	2.188265E-2	9.036727E-3	1.175918E-2	2.132425E-2	1.514044E-2	1.160481E-2	1.312545E-2	3.046701E-2	1.735891E-2	3.792520E-3	2.463674E-2	1.842899E-2	1.933773E-2	2.021333E-2	2.952483E-2	2.641106E-2	1.262993E-2	1.894735E-2	1.098896E-2	1.997496E-2	1.324920E-2	1.952668E-2	1.206027E-2	2.120187E-2	3.415095E-2	3.220657E-2	2.613436E-2	1.455454E-2	1.628701E-2	2.645643E-2	2.080931E-2	1.641126E-2	1.541628E-2	8.177037E-3	1.861487E-2	2.006690E-2	1.676040E-2	1.178231E-2	1.414933E-2	1.708213E-2	2.004711E-2	2.050383E-2	1.702523E-2	2.798660E-2	1.961491E-2	2.351329E-3	1.879887E-2	2.283922E-2	1.071368E-2	1.368085E-2	2.548434E-2	3.629786E-2	1.774837E-2	1.681618E-2	1.287404E-2	1.731214E-2	2.512855E-2	8.014388E-3	2.149496E-2	9.933208E-3	2.362307E-2	1.590537E-2	3.114775E-2	1.701223E-2	1.382295E-2	1.740735E-2	1.158809E-2	1.689129E-2	2.382601E-2	3.580783E-2	1.708010E-2	1.439773E-2	-3.209235E-3
5.331580E+2	3.963410E-2	1.928495E-2	2.031166E-3	1.554427E-2	2.781760E-2	1.940448E-2	1.918102E-2	1.390707E-2	1.759895E-2	1.988221E-2	2.070397E-2	3.378575E-2	3.416702E-2	2.420797E-2	1.666736E-2	3.114389E-2	1.563326E-2	1.779656E-2	1.592767E-2	2.635232E-2	2.444430E-2	3.228178E-2	2.704441E-2	3.193159E-2	2.434468E-2	1.904459E-2	2.809315E-2	1.710088E-2	2.468402E-2	1.948980E-2	1.869522E-2	2.085563E-2	2.910933E-2	3.332214E-2	3.151087E-2	2.341203E-2	2.464607E-2	1.290202E-2	2.369516E-2	2.051557E-2	2.145924E-2	2.977715E-2	8.522127E-3	2.934368E-2	3.602387E-2	1.689980E-2	1.061728E-2	1.152521E-2	2.260375E-2	2.636858E-2	1.572811E-2	3.085315E-2	2.606485E-2	2.213472E-2	1.226366E-2	2.400388E-2	3.027443E-2	2.101919E-2	2.416814E-2	1.587523E-2	3.042861E-2	1.944191E-2	1.649531E-2	9.378545E-3	1.439826E-2	3.349120E-2	1.259549E-2	3.178486E-2	3.320433E-2	2.134784E-2	2.447819E-2	1.887397E-2	1.600561E-2	1.694767E-2	2.443263E-2	2.594467E-2	3.742328E-3	1.529092E-2	2.039109E-2	1.370604E-2	9.329055E-3	1.154520E-2	2.689063E-2	2.855136E-2	1.917855E-2	2.814186E-2	2.875833E-2	2.381809E-2	2.843088E-2	2.207973E-2	2.340096E-2	1.945698E-2	1.908963E-2	1.048262E-2	2.466225E-2	1.532780E-2	1.553026E-2	2.269172E-2	1.666877E-2	2.013403E-2	2.891529E-2	2.580341E-2	8.646001E-3	2.379496E-2	3.295829E-2	2.869801E-2	1.812690E-2	3.115348E-2	2.367226E-2	2.600529E-2	1.997306E-2	3.006577E-2	1.416022E-2	2.218593E-2	1.847281E-2	2.978383E-2	1.992956E-2	2.539643E-2	2.696269E-2	2.267712E-2	2.637138E-2	3.074616E-2	2.155261E-2	1.816382E-2	4.117931E-2	2.459137E-2	1.735831E-2	1.465339E-2	8.851516E-3	1.553970E-2	3.118961E-2	2.941000E-2	2.665318E-2	1.474537E-2	2.364869E-2	2.586707E-2	2.163768E-2	2.100249E-2	1.673193E-2	2.599641E-2	2.651261E-2	8.558185E-3	3.558990E-2	2.179393E-2	2.941656E-2	2.387869E-2	3.000256E-2	2.221609E-2	1.858114E-2	2.069984E-2	1.290171E-2	2.250970E-2	3.142493E-2	3.322441E-2	1.699641E-2	2.986286E-2	3.656575E-2	5.502177E-3	2.274612E-2	2.395821E-2	2.798749E-2	2.092832E-2	2.579196E-2	1.356796E-2	2.642431E-2	2.947524E-2	3.382237E-2	1.323978E-2	4.033744E-2	4.117586E-2	2.151973E-2	3.737692E-2
5.333130E+2	3.014846E-2	3.008877E-2	1.353617E-2	2.873181E-2	3.789939E-2	4.057596E-2	2.195791E-2	2.399724E-2	3.394393E-2	2.528977E-2	3.057255E-2	1.858825E-2	3.384829E-2	3.181771E-2	2.708287E-2	3.438918E-2	1.964616E-2	2.230346E-2	3.726118E-2	3.261880E-2	2.812517E-2	2.720847E-2	2.298169E-2	2.668317E-2	2.120074E-2	1.198674E-2	1.492521E-2	2.895516E-2	3.397842E-2	2.898675E-2	9.695791E-3	3.195225E-2	3.124578E-2	2.530134E-2	4.213286E-2	3.304985E-2	2.269478E-2	3.032435E-2	2.229824E-2	3.418746E-2	2.883384E-2	2.226387E-2	2.566528E-2	2.087400E-2	3.106183E-2	3.149730E-2	4.049006E-2	2.518902E-2	4.341991E-2	3.983448E-2	2.350341E-2	2.624567E-2	3.533323E-2	2.756879E-2	3.216398E-2	2.189416E-2	2.544543E-2	2.645738E-2	3.425967E-2	3.491419E-2	2.722504E-2	2.812449E-2	2.931768E-2	2.425736E-2	3.220111E-2	2.879381E-2	3.561764E-2	2.312594E-2	3.349239E-2	3.138976E-2	2.487326E-2	2.491324E-2	2.252696E-2	2.172172E-2	1.901271E-2	2.792124E-2	3.385510E-2	3.320227E-2	2.989480E-2	2.352630E-2	4.331121E-2	3.223390E-2	2.543695E-2	3.092569E-2	3.319517E-2	4.011785E-2	3.720510E-2	3.171679E-2	1.804633E-2	3.138734E-2	2.428221E-2	2.941279E-2	3.510392E-2	3.087235E-2	3.251642E-2	4.386070E-2	3.512799E-2	2.233753E-2	3.306048E-2	3.237889E-2	2.304843E-2	2.293613E-2	2.316067E-2	4.833335E-2	1.439573E-2	3.936149E-2	1.967907E-2	2.717666E-2	2.768979E-2	2.398426E-2	3.755574E-2	1.924633E-2	3.370074E-2	2.943171E-2	4.493328E-2	3.952113E-2	2.214917E-2	2.781686E-2	2.986765E-2	1.663424E-2	2.662529E-2	3.796107E-2	2.848693E-2	2.858419E-2	3.646620E-2	3.329915E-2	2.754557E-2	2.943245E-2	3.394501E-2	3.560048E-2	2.662310E-2	3.719394E-2	3.598175E-2	2.449371E-2	3.167406E-2	2.548559E-2	2.621094E-2	3.098462E-2	2.398370E-2	3.043820E-2	3.055711E-2	1.988103E-2	3.521111E-2	2.579771E-2	2.831748E-2	1.991136E-2	3.551228E-2	3.774187E-2	2.860993E-2	2.094309E-2	2.957515E-2	2.402148E-2	3.754065E-2	3.978027E-2	2.645857E-2	1.992659E-2	2.993012E-2	2.491472E-2	2.954456E-2	1.907028E-2	3.413014E-2	2.378543E-2	4.625971E-2	2.802172E-2	4.359459E-2	2.575294E-2	3.625508E-2	2.119259E-2	2.825757E-2	3.720545E-2	5.715589E-2	2.505222E-2
5.334630E+2	3.716223E-2	4.389091E-2	2.466909E-2	4.109939E-2	3.221637E-2	4.621937E-2	4.592551E-2	3.513142E-2	3.860745E-2	4.025894E-2	4.009943E-2	4.136922E-2	4.124011E-2	4.204584E-2	4.317501E-2	4.164540E-2	3.950243E-2	4.463259E-2	4.398708E-2	3.443940E-2	2.865434E-2	4.564266E-2	3.223527E-2	4.783772E-2	2.693722E-2	3.694966E-2	4.298904E-2	3.262304E-2	4.040870E-2	3.252038E-2	4.848904E-2	3.366450E-2	3.919893E-2	4.047350E-2	6.008098E-2	4.005520E-2	3.479372E-2	3.841730E-2	3.280957E-2	3.718383E-2	3.053427E-2	3.597790E-2	4.452347E-2	3.134681E-2	2.917698E-2	4.127098E-2	4.061376E-2	2.506724E-2	3.557372E-2	2.315537E-2	3.079994E-2	3.586890E-2	3.309917E-2	3.509398E-2	3.950575E-2	4.331407E-2	4.915180E-2	3.336950E-2	3.473299E-2	4.686775E-2	4.574850E-2	5.061243E-2	3.958218E-2	3.070399E-2	3.270471E-2	4.506770E-2	4.246558E-2	3.555016E-2	3.350301E-2	4.306113E-2	4.437296E-2	5.039325E-2	2.551476E-2	4.235134E-2	3.105388E-2	4.576850E-2	3.980726E-2	3.247843E-2	3.933499E-2	3.951889E-2	3.600384E-2	4.410350E-2	3.000354E-2	4.036854E-2	3.372253E-2	5.573227E-2	3.238641E-2	3.683485E-2	3.523585E-2	2.669418E-2	5.116793E-2	4.247921E-2	4.012544E-2	3.626208E-2	5.052694E-2	3.915254E-2	3.777027E-2	3.338308E-2	3.833199E-2	4.253744E-2	3.903767E-2	4.817175E-2	2.663175E-2	5.404565E-2	2.122515E-2	4.573407E-2	3.029423E-2	2.573924E-2	3.778623E-2	3.535562E-2	3.490997E-2	4.215867E-2	2.547728E-2	3.591258E-2	3.654865E-2	4.318943E-2	4.140545E-2	4.331908E-2	5.416651E-2	4.187531E-2	2.847018E-2	6.753266E-2	2.770003E-2	4.037557E-2	4.090898E-2	4.619449E-2	4.025089E-2	4.480995E-2	4.778967E-2	3.183136E-2	4.314090E-2	4.765816E-2	3.906218E-2	5.039212E-2	4.112878E-2	3.112491E-2	3.837422E-2	5.723606E-2	4.153363E-2	4.656212E-2	3.942930E-2	4.109898E-2	2.951773E-2	2.823248E-2	4.228471E-2	3.732921E-2	4.209816E-2	3.482263E-2	3.853857E-2	3.447746E-2	3.611208E-2	4.130160E-2	3.948863E-2	3.729304E-2	3.407499E-2	4.162683E-2	4.192234E-2	3.727048E-2	4.470476E-2	3.439363E-2	5.330791E-2	4.023867E-2	4.043573E-2	3.715185E-2	3.902874E-2	4.119989E-2	6.024112E-2	3.997557E-2	2.942012E-2	2.546649E-2	2.110837E-2	5.160245E-2
5.336130E+2	5.140162E-2	5.942738E-2	4.271609E-2	5.965306E-2	4.709928E-2	4.849737E-2	6.003397E-2	6.499769E-2	4.663052E-2	6.772844E-2	4.177387E-2	5.544211E-2	5.712252E-2	4.810062E-2	6.043185E-2	4.760894E-2	5.743209E-2	4.074126E-2	4.215223E-2	3.306215E-2	4.429589E-2	5.022936E-2	4.786533E-2	6.431715E-2	6.345129E-2	4.748486E-2	4.870655E-2	6.644998E-2	5.401816E-2	6.853456E-2	4.516642E-2	4.864635E-2	4.213663E-2	4.550429E-2	5.861652E-2	4.657792E-2	4.016498E-2	5.101245E-2	4.261146E-2	5.742509E-2	4.093491E-2	4.970232E-2	3.492394E-2	4.751644E-2	5.794284E-2	6.193572E-2	6.599379E-2	6.626859E-2	4.393458E-2	5.045736E-2	4.963855E-2	5.908328E-2	5.228540E-2	5.701846E-2	4.890639E-2	5.968067E-2	5.348928E-2	4.504205E-2	4.413296E-2	7.036724E-2	5.140615E-2	4.740473E-2	5.764487E-2	4.827250E-2	4.055061E-2	3.677516E-2	5.793831E-2	4.752620E-2	5.585270E-2	5.447507E-2	5.109055E-2	5.393484E-2	4.314541E-2	4.357836E-2	6.220724E-2	6.374853E-2	5.325842E-2	5.528526E-2	4.138019E-2	5.550628E-2	5.727891E-2	4.511021E-2	4.618621E-2	4.783553E-2	3.557761E-2	5.368523E-2	4.730713E-2	4.239866E-2	5.133227E-2	4.230563E-2	4.406215E-2	5.482266E-2	6.421414E-2	5.376977E-2	4.702329E-2	4.570678E-2	6.381005E-2	5.372382E-2	3.759840E-2	4.890390E-2	6.052450E-2	6.247975E-2	4.367912E-2	5.970029E-2	5.851122E-2	4.124956E-2	5.321984E-2	4.512535E-2	5.485014E-2	4.153167E-2	4.659796E-2	5.256490E-2	4.933377E-2	4.229978E-2	5.738162E-2	5.798820E-2	3.464854E-2	5.140477E-2	5.713959E-2	3.990707E-2	4.691228E-2	4.302918E-2	3.573343E-2	6.527154E-2	4.271497E-2	3.937270E-2	4.885288E-2	5.340576E-2	4.351563E-2	4.242333E-2	5.108692E-2	5.325620E-2	4.939114E-2	6.346386E-2	4.941181E-2	5.440847E-2	3.918164E-2	5.451171E-2	5.216044E-2	3.912153E-2	5.217263E-2	5.283925E-2	5.549512E-2	3.905666E-2	4.426240E-2	4.573029E-2	3.315374E-2	5.060281E-2	5.708765E-2	6.144459E-2	4.667411E-2	3.976273E-2	4.145377E-2	4.931858E-2	4.467845E-2	4.432585E-2	5.073464E-2	5.189495E-2	6.278757E-2	5.069422E-2	3.470852E-2	4.021046E-2	4.750413E-2	5.593779E-2	4.125904E-2	6.501695E-2	5.181283E-2	5.174361E-2	4.127292E-2	3.993999E-2	5.453605E-2	6.368674E-2
5.337630E+2	5.870986E-2	9.168937E-2	6.586366E-2	7.016724E-2	8.272879E-2	5.766910E-2	6.412375E-2	7.988767E-2	6.373407E-2	7.774006E-2	6.795172E-2	5.971259E-2	6.191095E-2	7.743287E-2	5.809078E-2	6.191309E-2	6.339898E-2	7.825101E-2	7.073889E-2	7.986383E-2	8.352049E-2	7.308224E-2	7.748755E-2	5.361320E-2	6.707030E-2	7.175034E-2	7.242000E-2	6.748906E-2	5.865581E-2	4.580665E-2	6.751608E-2	5.577919E-2	6.209766E-2	6.617563E-2	7.854794E-2	6.506264E-2	7.679242E-2	7.151554E-2	6.495048E-2	7.065361E-2	6.982858E-2	8.076591E-2	7.405960E-2	6.278372E-2	7.583913E-2	6.803862E-2	5.215411E-2	6.599349E-2	7.004883E-2	7.289977E-2	7.014183E-2	7.228221E-2	6.729722E-2	6.656353E-2	6.711409E-2	7.133846E-2	6.413786E-2	6.283984E-2	8.260737E-2	7.737145E-2	7.902183E-2	6.042108E-2	6.273398E-2	7.683131E-2	5.651186E-2	6.581930E-2	6.173366E-2	9.226171E-2	6.936580E-2	6.748973E-2	5.993231E-2	8.030567E-2	6.546366E-2	6.537419E-2	6.304512E-2	8.277597E-2	5.348817E-2	6.949842E-2	6.415630E-2	8.411919E-2	6.316266E-2	7.365771E-2	4.890821E-2	7.812209E-2	6.988137E-2	8.563717E-2	7.454007E-2	7.715058E-2	5.985769E-2	7.520378E-2	6.956864E-2	7.660985E-2	7.683797E-2	7.089462E-2	5.460355E-2	6.898834E-2	6.764236E-2	7.688426E-2	5.878644E-2	6.481449E-2	6.634486E-2	6.273521E-2	5.926995E-2	7.809515E-2	7.696405E-2	6.062727E-2	7.899390E-2	6.895538E-2	7.542276E-2	7.305770E-2	7.779439E-2	6.395080E-2	5.457579E-2	6.373619E-2	8.052767E-2	6.705836E-2	6.622275E-2	7.641962E-2	8.397473E-2	6.829167E-2	6.359844E-2	6.817065E-2	8.277739E-2	5.101845E-2	7.065204E-2	7.439477E-2	6.004087E-2	8.502979E-2	5.974766E-2	6.766072E-2	6.877028E-2	7.709997E-2	7.959012E-2	9.200999E-2	7.365699E-2	7.505664E-2	8.185917E-2	7.574069E-2	5.517862E-2	7.189326E-2	7.158077E-2	6.607113E-2	7.928468E-2	7.284497E-2	6.532114E-2	5.682817E-2	6.675495E-2	5.924259E-2	7.131095E-2	4.929438E-2	7.533312E-2	8.513046E-2	6.854899E-2	7.739467E-2	9.122225E-2	7.106897E-2	6.741874E-2	7.154130E-2	7.952341E-2	7.939998E-2	7.251956E-2	6.958453E-2	6.926016E-2	7.138941E-2	7.687559E-2	6.937177E-2	7.265966E-2	6.197019E-2	7.559924E-2	7.126030E-2	1.044319E-1	8.315768E-2
5.339140E+2	1.056235E-1	1.043359E-1	9.901736E-2	8.711942E-2	1.114890E-1	1.068802E-1	9.021229E-2	1.043584E-1	1.039187E-1	1.080271E-1	1.037196E-1	9.434585E-2	1.009933E-1	9.736864E-2	8.851716E-2	1.085340E-1	1.015666E-1	9.510930E-2	8.776792E-2	7.920286E-2	1.109729E-1	1.034854E-1	1.003846E-1	1.124964E-1	1.259377E-1	1.036835E-1	9.594455E-2	9.296645E-2	1.103283E-1	9.821035E-2	1.053105E-1	9.957370E-2	9.858154E-2	8.539610E-2	1.155309E-1	1.008319E-1	1.071825E-1	1.184674E-1	9.648859E-2	9.915952E-2	9.972366E-2	1.182674E-1	8.110926E-2	1.001528E-1	9.344685E-2	9.929827E-2	1.055294E-1	9.564556E-2	1.062901E-1	1.084425E-1	1.154400E-1	1.099626E-1	1.116658E-1	1.014624E-1	9.693228E-2	1.133155E-1	1.021473E-1	9.665169E-2	1.030199E-1	7.677349E-2	1.057164E-1	8.481307E-2	9.433037E-2	9.105422E-2	8.281979E-2	1.116400E-1	8.784938E-2	9.298710E-2	1.011297E-1	1.023458E-1	1.007305E-1	1.090760E-1	1.027622E-1	1.084439E-1	1.019004E-1	1.068369E-1	9.967790E-2	1.076916E-1	1.120914E-1	1.094049E-1	1.142506E-1	8.962692E-2	9.020857E-2	9.796975E-2	9.708882E-2	1.161584E-1	1.045931E-1	1.187229E-1	1.075502E-1	9.225477E-2	1.095133E-1	1.064947E-1	1.076786E-1	1.256581E-1	8.758149E-2	1.195197E-1	1.110752E-1	1.277400E-1	8.589351E-2	1.006136E-1	1.096258E-1	8.485646E-2	8.885387E-2	1.098777E-1	1.192817E-1	9.837126E-2	9.772076E-2	8.973354E-2	1.008993E-1	9.134731E-2	9.209260E-2	9.441626E-2	1.007807E-1	9.974001E-2	6.680586E-2	1.223668E-1	1.036446E-1	9.188750E-2	1.027523E-1	1.240179E-1	1.110491E-1	1.027553E-1	9.438935E-2	9.307299E-2	1.110571E-1	1.062031E-1	9.239917E-2	1.104483E-1	9.184212E-2	1.033660E-1	1.024391E-1	1.015218E-1	8.819247E-2	9.929100E-2	9.011706E-2	1.044451E-1	9.797818E-2	1.092656E-1	9.943777E-2	9.032275E-2	9.911109E-2	8.503000E-2	8.846196E-2	1.020250E-1	9.430868E-2	9.436547E-2	9.881136E-2	9.795680E-2	9.702333E-2	8.825597E-2	9.434277E-2	1.225934E-1	1.125960E-1	9.261275E-2	1.041175E-1	1.027666E-1	9.913968E-2	1.133462E-1	9.984560E-2	9.949255E-2	1.075168E-1	1.087496E-1	8.628217E-2	9.874856E-2	1.205184E-1	1.069179E-1	1.185048E-1	1.089715E-1	1.172209E-1	1.088395E-1	8.509084E-2	1.086011E-1
5.340590E+2	1.497647E-1	1.555269E-1	1.244982E-1	1.635039E-1	1.600305E-1	1.605799E-1	1.555961E-1	1.569860E-1	1.778929E-1	1.647536E-1	1.591903E-1	1.596745E-1	1.641482E-1	1.549450E-1	1.635810E-1	1.705957E-1	1.446030E-1	1.521960E-1	1.629023E-1	1.913984E-1	1.383600E-1	1.721589E-1	1.348667E-1	1.499755E-1	1.492953E-1	1.555105E-1	1.573274E-1	1.532343E-1	1.494518E-1	1.629654E-1	1.554477E-1	1.289360E-1	1.437266E-1	1.566224E-1	1.656097E-1	1.554691E-1	1.567148E-1	1.487473E-1	1.623916E-1	1.551829E-1	1.794317E-1	1.704640E-1	1.531401E-1	1.290553E-1	1.522855E-1	1.758720E-1	1.587954E-1	1.634520E-1	1.576827E-1	1.479458E-1	1.543560E-1	1.520805E-1	1.618304E-1	1.504412E-1	1.594370E-1	1.611237E-1	1.670479E-1	1.678560E-1	1.605692E-1	1.593440E-1	1.619578E-1	1.723598E-1	1.449078E-1	1.543813E-1	1.664876E-1	1.563746E-1	1.607659E-1	1.617683E-1	1.515031E-1	1.402651E-1	1.634650E-1	1.441770E-1	1.478260E-1	1.479849E-1	1.328202E-1	1.787807E-1	1.478311E-1	1.537188E-1	1.612246E-1	1.535258E-1	1.642230E-1	1.465061E-1	1.704383E-1	1.474827E-1	1.535558E-1	1.605384E-1	1.576209E-1	1.604471E-1	1.671999E-1	1.481963E-1	1.567292E-1	1.691200E-1	1.469231E-1	1.491106E-1	1.464183E-1	1.580714E-1	1.483345E-1	1.502706E-1	1.586354E-1	1.488515E-1	1.740829E-1	1.488293E-1	1.416759E-1	1.542169E-1	1.538945E-1	1.659863E-1	1.490574E-1	1.595343E-1	1.546069E-1	1.656158E-1	1.506163E-1	1.363030E-1	1.559507E-1	1.589174E-1	1.554676E-1	1.742712E-1	1.653413E-1	1.564892E-1	1.682204E-1	1.567803E-1	1.601197E-1	1.465295E-1	1.737652E-1	1.458070E-1	1.731101E-1	1.754685E-1	1.798224E-1	1.755216E-1	1.730575E-1	1.605508E-1	1.415604E-1	1.438761E-1	1.692134E-1	1.651496E-1	1.665587E-1	1.608848E-1	1.591430E-1	1.758857E-1	1.594456E-1	1.692996E-1	1.812503E-1	1.503317E-1	1.587573E-1	1.548943E-1	1.708658E-1	1.684047E-1	1.562519E-1	1.468375E-1	1.651923E-1	1.595402E-1	1.479424E-1	1.409458E-1	1.545791E-1	1.827296E-1	1.546102E-1	1.709247E-1	1.615721E-1	1.553465E-1	1.584796E-1	1.781033E-1	1.646376E-1	1.482042E-1	1.595794E-1	1.689075E-1	2.040510E-1	1.665509E-1	1.557745E-1	1.419013E-1	1.620297E-1	1.706638E-1	1.632598E-1	1.527584E-1
5.342090E+2	2.521057E-1	2.596870E-1	2.463415E-1	2.495747E-1	2.546019E-1	2.526861E-1	2.510028E-1	2.526445E-1	2.635158E-1	2.698999E-1	2.437228E-1	2.622440E-1	2.502459E-1	2.573611E-1	2.617737E-1	2.366539E-1	2.819137E-1	2.632276E-1	2.808508E-1	2.522837E-1	2.385042E-1	2.632028E-1	2.512912E-1	2.733342E-1	2.637619E-1	2.643223E-1	2.677611E-1	2.695395E-1	2.823769E-1	2.195814E-1	2.621185E-1	2.354630E-1	2.572258E-1	2.504984E-1	2.510968E-1	2.440977E-1	2.621473E-1	2.436495E-1	2.403139E-1	2.557656E-1	2.649606E-1	2.439897E-1	2.479779E-1	2.664229E-1	2.654536E-1	2.546140E-1	2.531088E-1	2.372888E-1	2.695296E-1	2.607120E-1	2.388714E-1	2.479786E-1	2.473567E-1	2.398851E-1	2.611157E-1	2.676931E-1	2.529399E-1	2.589259E-1	2.660028E-1	2.591132E-1	2.346627E-1	2.665467E-1	2.650475E-1	2.755023E-1	2.590579E-1	2.628108E-1	2.503065E-1	2.615533E-1	2.713808E-1	2.533851E-1	2.496475E-1	2.727362E-1	2.681147E-1	2.710008E-1	2.598516E-1	2.317901E-1	2.497609E-1	2.541884E-1	2.725386E-1	2.742510E-1	2.438894E-1	2.461192E-1	2.429412E-1	2.749604E-1	2.686643E-1	2.562931E-1	2.452512E-1	2.538097E-1	2.920281E-1	2.713177E-1	2.421962E-1	2.554471E-1	2.832941E-1	2.626606E-1	2.499537E-1	2.654081E-1	2.763217E-1	2.486992E-1	2.682135E-1	2.673007E-1	2.410350E-1	2.642172E-1	2.468153E-1	2.719863E-1	2.607816E-1	2.654934E-1	2.499259E-1	2.731458E-1	2.603273E-1	2.555720E-1	2.694758E-1	2.566953E-1	2.309311E-1	2.390510E-1	2.378537E-1	2.504517E-1	2.834719E-1	2.489237E-1	2.660078E-1	2.693095E-1	2.670814E-1	2.640570E-1	2.540632E-1	2.289849E-1	2.533417E-1	2.603379E-1	2.505403E-1	2.433326E-1	2.596114E-1	2.449661E-1	2.559361E-1	2.702461E-1	2.591128E-1	2.619691E-1	2.473888E-1	2.411769E-1	2.388806E-1	2.355613E-1	2.435830E-1	2.591148E-1	2.669189E-1	2.750208E-1	2.398333E-1	2.454433E-1	2.577383E-1	2.500211E-1	2.612839E-1	2.936689E-1	2.515698E-1	2.238173E-1	2.498139E-1	2.511574E-1	2.485044E-1	2.599094E-1	2.665223E-1	2.916609E-1	2.508973E-1	2.335639E-1	2.636839E-1	2.886801E-1	2.543977E-1	2.078449E-1	2.740393E-1	2.623065E-1	2.749778E-1	2.832965E-1	2.701762E-1	2.552861E-1	2.512260E-1	2.606621E-1	2.604935E-1	2.194334E-1
5.343600E+2	4.519491E-1	4.416104E-1	4.652556E-1	4.684004E-1	4.689376E-1	4.682558E-1	4.292263E-1	4.645609E-1	5.038362E-1	4.686236E-1	4.562046E-1	4.549130E-1	4.984877E-1	4.928947E-1	4.732244E-1	4.678688E-1	4.866264E-1	4.465147E-1	4.426401E-1	4.639916E-1	4.657776E-1	4.725183E-1	4.441206E-1	4.505335E-1	4.785151E-1	4.732322E-1	4.660620E-1	4.594550E-1	4.506618E-1	4.481762E-1	4.651927E-1	4.739204E-1	4.793255E-1	4.415119E-1	4.438662E-1	4.838374E-1	4.589724E-1	4.685471E-1	4.412390E-1	4.388895E-1	4.552772E-1	4.545000E-1	4.644374E-1	4.583378E-1	4.473095E-1	4.449228E-1	4.953146E-1	4.238612E-1	4.475001E-1	4.242236E-1	4.888058E-1	4.552472E-1	4.839473E-1	4.196789E-1	4.342316E-1	4.569226E-1	4.725998E-1	4.978227E-1	4.299418E-1	4.631961E-1	4.534032E-1	4.802493E-1	4.640158E-1	4.218208E-1	4.507038E-1	4.472406E-1	4.662544E-1	4.507178E-1	4.248241E-1	4.812481E-1	4.692589E-1	4.593998E-1	4.779976E-1	4.631451E-1	4.482942E-1	5.040905E-1	4.571519E-1	4.648696E-1	4.574660E-1	4.896381E-1	4.497155E-1	4.525485E-1	5.050079E-1	4.528982E-1	4.585753E-1	4.920011E-1	4.746338E-1	4.583991E-1	4.852237E-1	4.653007E-1	4.766177E-1	4.560619E-1	4.730232E-1	4.969148E-1	4.630593E-1	4.348511E-1	4.783839E-1	4.596383E-1	4.712203E-1	4.696375E-1	4.719432E-1	4.537044E-1	4.584386E-1	4.307028E-1	4.531223E-1	4.638608E-1	4.483714E-1	4.654175E-1	4.646495E-1	4.568093E-1	4.732638E-1	4.421128E-1	4.668857E-1	4.874376E-1	4.649170E-1	4.558023E-1	4.683574E-1	4.474277E-1	4.537816E-1	5.126295E-1	4.630312E-1	4.593508E-1	4.573807E-1	5.045827E-1	4.867575E-1	4.625006E-1	4.455897E-1	4.496994E-1	4.740045E-1	4.490778E-1	4.382450E-1	4.504230E-1	4.490675E-1	4.380374E-1	5.047345E-1	4.326960E-1	4.864169E-1	4.443979E-1	4.874230E-1	4.843956E-1	4.877511E-1	4.591442E-1	4.520886E-1	4.430505E-1	4.802704E-1	4.621170E-1	4.437969E-1	4.604978E-1	4.376895E-1	4.708552E-1	4.639939E-1	4.541735E-1	4.635473E-1	4.489230E-1	4.633387E-1	4.757000E-1	4.737694E-1	4.816296E-1	5.223188E-1	4.906948E-1	4.940663E-1	4.884782E-1	4.855118E-1	4.715134E-1	4.887099E-1	4.666222E-1	5.017858E-1	4.570316E-1	4.619047E-1	4.433398E-1	4.614542E-1	4.930231E-1
5.345110E+2	7.591652E-1	7.742465E-1	7.897993E-1	8.083782E-1	7.920155E-1	7.742350E-1	7.858425E-1	7.790969E-1	7.686747E-1	7.818066E-1	7.828394E-1	7.885942E-1	7.717450E-1	8.005698E-1	8.223860E-1	7.558879E-1	7.631203E-1	7.633534E-1	7.989258E-1	8.383946E-1	7.678254E-1	8.064924E-1	7.971083E-1	8.035404E-1	8.006733E-1	7.862814E-1	7.282416E-1	7.823769E-1	8.025483E-1	7.715268E-1	7.702586E-1	8.124491E-1	8.150319E-1	7.525392E-1	7.416249E-1	8.286527E-1	7.902725E-1	8.123157E-1	7.890980E-1	7.831387E-1	7.888659E-1	7.796167E-1	7.976093E-1	7.786184E-1	8.047396E-1	7.578154E-1	7.918597E-1	7.404351E-1	7.786848E-1	7.701839E-1	7.362213E-1	8.100535E-1	7.883413E-1	7.803430E-1	7.860277E-1	7.771040E-1	7.705676E-1	7.654575E-1	8.425857E-1	7.681965E-1	7.548302E-1	7.773644E-1	7.361821E-1	7.887142E-1	7.862831E-1	7.739690E-1	7.762319E-1	8.075341E-1	8.344583E-1	8.404972E-1	7.897855E-1	7.601546E-1	7.985604E-1	7.951444E-1	7.776889E-1	8.331042E-1	7.604615E-1	7.672773E-1	7.453735E-1	7.623077E-1	7.776289E-1	7.841468E-1	7.860151E-1	7.571543E-1	7.727376E-1	7.923720E-1	7.645294E-1	7.813939E-1	8.060420E-1	7.867847E-1	8.202205E-1	7.696390E-1	7.696591E-1	7.748910E-1	8.128110E-1	7.833142E-1	8.119220E-1	7.869478E-1	7.463791E-1	7.786501E-1	8.071189E-1	7.978409E-1	7.893120E-1	7.567016E-1	8.022878E-1	8.062035E-1	7.920305E-1	7.542135E-1	7.617655E-1	8.197074E-1	7.931597E-1	7.341273E-1	8.182896E-1	7.649191E-1	7.872939E-1	8.212749E-1	7.826735E-1	7.708587E-1	8.016982E-1	7.896829E-1	8.005555E-1	7.544143E-1	8.068688E-1	7.732802E-1	7.744191E-1	7.840498E-1	7.876372E-1	7.958374E-1	7.579848E-1	7.934562E-1	7.981564E-1	7.978713E-1	7.893890E-1	7.925773E-1	7.444894E-1	7.973961E-1	8.196079E-1	7.858429E-1	8.098581E-1	7.646312E-1	7.853380E-1	7.782628E-1	7.964091E-1	7.781581E-1	8.026016E-1	7.172150E-1	8.069220E-1	7.809760E-1	7.984879E-1	7.531206E-1	7.719069E-1	7.818263E-1	7.690751E-1	7.732104E-1	7.886062E-1	7.743382E-1	7.818854E-1	7.312179E-1	7.754044E-1	7.979932E-1	8.256523E-1	8.063096E-1	8.021147E-1	8.094056E-1	7.712728E-1	7.497500E-1	7.780034E-1	8.118348E-1	8.150393E-1	7.353263E-1	7.529426E-1	8.457464E-1
5.346620E+2	1.143726E+0	1.130387E+0	1.132402E+0	1.079102E+0	1.147652E+0	1.136113E+0	1.099384E+0	1.171592E+0	1.193628E+0	1.251443E+0	1.223819E+0	1.155683E+0	1.129306E+0	1.144063E+0	1.136156E+0	1.137653E+0	1.149835E+0	1.120970E+0	1.138409E+0	1.126778E+0	1.158498E+0	1.136725E+0	1.186102E+0	1.188555E+0	1.151239E+0	1.175787E+0	1.176438E+0	1.109207E+0	1.144324E+0	1.155061E+0	1.140176E+0	1.107465E+0	1.189713E+0	1.125181E+0	1.208631E+0	1.176481E+0	1.134599E+0	1.174353E+0	1.085394E+0	1.187261E+0	1.197375E+0	1.179086E+0	1.150353E+0	1.084354E+0	1.121085E+0	1.168972E+0	1.170297E+0	1.105173E+0	1.171954E+0	1.192577E+0	1.182977E+0	1.130826E+0	1.139111E+0	1.176602E+0	1.197850E+0	1.123439E+0	1.168781E+0	1.133831E+0	1.141251E+0	1.167588E+0	1.165060E+0	1.153258E+0	1.156730E+0	1.122170E+0	1.135799E+0	1.152829E+0	1.147039E+0	1.150184E+0	1.149036E+0	1.119188E+0	1.139365E+0	1.114631E+0	1.143474E+0	1.149679E+0	1.151388E+0	1.140810E+0	1.141746E+0	1.189764E+0	1.110600E+0	1.163190E+0	1.123681E+0	1.151966E+0	1.139932E+0	1.125648E+0	1.120397E+0	1.158336E+0	1.152106E+0	1.075591E+0	1.168109E+0	1.154902E+0	1.169605E+0	1.127716E+0	1.147657E+0	1.096377E+0	1.151219E+0	1.170127E+0	1.156674E+0	1.162283E+0	1.181671E+0	1.118225E+0	1.131212E+0	1.139179E+0	1.177489E+0	1.100232E+0	1.156104E+0	1.179067E+0	1.113950E+0	1.115927E+0	1.174123E+0	1.107478E+0	1.197758E+0	1.108046E+0	1.149604E+0	1.139043E+0	1.234103E+0	1.138245E+0	1.141475E+0	1.156419E+0	1.142909E+0	1.182243E+0	1.167007E+0	1.128730E+0	1.140793E+0	1.089239E+0	1.159408E+0	1.165579E+0	1.160552E+0	1.185687E+0	1.132373E+0	1.155433E+0	1.131024E+0	1.167343E+0	1.146405E+0	1.156350E+0	1.078576E+0	1.149354E+0	1.147276E+0	1.152419E+0	1.138425E+0	1.133797E+0	1.153685E+0	1.108066E+0	1.119178E+0	1.123923E+0	1.105458E+0	1.149925E+0	1.164264E+0	1.141905E+0	1.145450E+0	1.173248E+0	1.135073E+0	1.139716E+0	1.122441E+0	1.126918E+0	1.135114E+0	1.131328E+0	1.184691E+0	1.105251E+0	1.123268E+0	1.181489E+0	1.177711E+0	1.135327E+0	1.199573E+0	1.124580E+0	1.114456E+0	1.178913E+0	1.163824E+0	1.107396E+0	1.150054E+0	1.150769E+0	1.162490E+0	1.264735E+0
5.348120E+2	1.526827E+0	1.486949E+0	1.496893E+0	1.504715E+0	1.499774E+0	1.520996E+0	1.509559E+0	1.552598E+0	1.478456E+0	1.505879E+0	1.482639E+0	1.512486E+0	1.507388E+0	1.500811E+0	1.503789E+0	1.449610E+0	1.449169E+0	1.572023E+0	1.481321E+0	1.452339E+0	1.516226E+0	1.531398E+0	1.498676E+0	1.557482E+0	1.534163E+0	1.550797E+0	1.462875E+0	1.478473E+0	1.509099E+0	1.540652E+0	1.452879E+0	1.461045E+0	1.520712E+0	1.499083E+0	1.462483E+0	1.533127E+0	1.480813E+0	1.458907E+0	1.522887E+0	1.451015E+0	1.523930E+0	1.465704E+0	1.471725E+0	1.522890E+0	1.521586E+0	1.471081E+0	1.465650E+0	1.500182E+0	1.481725E+0	1.514730E+0	1.441753E+0	1.486702E+0	1.506610E+0	1.464545E+0	1.482070E+0	1.499263E+0	1.496156E+0	1.528650E+0	1.435971E+0	1.492942E+0	1.503793E+0	1.472432E+0	1.476838E+0	1.519839E+0	1.458429E+0	1.522067E+0	1.543221E+0	1.490509E+0	1.475328E+0	1.534089E+0	1.449664E+0	1.486819E+0	1.515359E+0	1.423597E+0	1.490167E+0	1.490568E+0	1.469812E+0	1.543752E+0	1.425335E+0	1.539805E+0	1.453860E+0	1.474911E+0	1.462292E+0	1.576123E+0	1.512055E+0	1.418172E+0	1.501415E+0	1.480082E+0	1.479187E+0	1.435523E+0	1.470527E+0	1.450471E+0	1.555020E+0	1.418811E+0	1.468716E+0	1.441436E+0	1.484711E+0	1.476978E+0	1.447428E+0	1.495356E+0	1.400039E+0	1.509040E+0	1.448108E+0	1.464328E+0	1.476101E+0	1.494023E+0	1.505917E+0	1.508574E+0	1.508659E+0	1.473159E+0	1.507882E+0	1.503254E+0	1.582216E+0	1.485253E+0	1.487769E+0	1.460752E+0	1.541050E+0	1.458689E+0	1.466795E+0	1.470714E+0	1.512958E+0	1.433754E+0	1.413726E+0	1.440560E+0	1.467470E+0	1.433833E+0	1.519437E+0	1.437677E+0	1.521880E+0	1.438822E+0	1.377296E+0	1.478527E+0	1.564822E+0	1.511257E+0	1.459843E+0	1.506578E+0	1.549579E+0	1.425289E+0	1.499874E+0	1.466821E+0	1.469882E+0	1.489651E+0	1.458273E+0	1.416886E+0	1.512057E+0	1.437069E+0	1.444357E+0	1.493148E+0	1.472478E+0	1.432330E+0	1.463388E+0	1.404678E+0	1.544483E+0	1.433573E+0	1.479696E+0	1.450663E+0	1.430299E+0	1.526463E+0	1.481579E+0	1.452565E+0	1.450967E+0	1.442925E+0	1.485601E+0	1.470615E+0	1.437715E+0	1.413297E+0	1.437628E+0	1.424176E+0	1.440625E+0	1.439686E+0	1.525418E+0	1.428320E+0
5.349580E+2	1.774963E+0	1.753175E+0	1.713044E+0	1.742063E+0	1.853123E+0	1.781843E+0	1.769307E+0	1.776236E+0	1.815474E+0	1.921716E+0	1.796088E+0	1.836115E+0	1.761628E+0	1.832020E+0	1.745208E+0	1.811026E+0	1.772085E+0	1.790040E+0	1.762133E+0	1.823572E+0	1.777739E+0	1.755003E+0	1.798144E+0	1.848734E+0	1.816617E+0	1.807407E+0	1.839691E+0	1.776348E+0	1.760399E+0	1.794537E+0	1.749694E+0	1.820812E+0	1.809349E+0	1.717528E+0	1.760257E+0	1.834163E+0	1.757311E+0	1.752124E+0	1.727557E+0	1.825557E+0	1.790141E+0	1.755263E+0	1.827849E+0	1.841187E+0	1.778341E+0	1.838713E+0	1.829100E+0	1.706812E+0	1.759874E+0	1.795083E+0	1.835463E+0	1.694079E+0	1.739059E+0	1.745178E+0	1.789499E+0	1.776355E+0	1.842218E+0	1.769885E+0	1.804654E+0	1.735486E+0	1.769142E+0	1.734726E+0	1.774405E+0	1.727745E+0	1.712275E+0	1.766375E+0	1.766869E+0	1.696379E+0	1.734378E+0	1.789640E+0	1.741607E+0	1.829829E+0	1.748744E+0	1.821688E+0	1.756433E+0	1.718965E+0	1.685180E+0	1.762949E+0	1.765391E+0	1.728542E+0	1.746419E+0	1.754953E+0	1.749376E+0	1.710978E+0	1.778626E+0	1.759821E+0	1.736312E+0	1.747082E+0	1.804050E+0	1.762068E+0	1.811084E+0	1.772296E+0	1.817316E+0	1.746072E+0	1.788403E+0	1.743578E+0	1.775091E+0	1.746274E+0	1.737940E+0	1.755392E+0	1.770818E+0	1.770761E+0	1.768060E+0	1.711193E+0	1.797740E+0	1.725403E+0	1.784934E+0	1.773939E+0	1.748691E+0	1.735337E+0	1.759490E+0	1.735759E+0	1.859689E+0	1.705484E+0	1.786887E+0	1.744140E+0	1.716504E+0	1.724159E+0	1.790511E+0	1.799075E+0	1.760354E+0	1.768703E+0	1.764638E+0	1.792732E+0	1.729181E+0	1.746178E+0	1.719648E+0	1.708854E+0	1.751464E+0	1.751299E+0	1.739518E+0	1.750329E+0	1.753306E+0	1.705240E+0	1.725409E+0	1.751798E+0	1.814762E+0	1.717841E+0	1.753520E+0	1.725397E+0	1.783142E+0	1.707361E+0	1.822435E+0	1.717787E+0	1.785938E+0	1.690790E+0	1.724078E+0	1.675077E+0	1.712936E+0	1.734283E+0	1.750645E+0	1.708365E+0	1.729775E+0	1.711844E+0	1.754474E+0	1.737568E+0	1.745134E+0	1.660785E+0	1.760005E+0	1.703312E+0	1.709033E+0	1.694119E+0	1.742314E+0	1.692506E+0	1.741749E+0	1.686154E+0	1.694207E+0	1.713996E+0	1.697087E+0	1.681941E+0	1.711405E+0	1.785252E+0
5.351040E+2	1.977999E+0	1.924284E+0	1.968849E+0	1.941279E+0	2.033064E+0	1.960396E+0	1.927545E+0	2.007726E+0	1.947979E+0	2.025659E+0	2.032764E+0	1.974396E+0	1.924058E+0	1.906222E+0	1.944878E+0	1.963873E+0	1.938241E+0	2.028188E+0	1.980319E+0	2.023507E+0	1.936358E+0	1.938262E+0	1.985397E+0	1.997482E+0	2.000977E+0	2.029486E+0	1.936868E+0	1.923045E+0	1.961605E+0	1.969665E+0	1.936108E+0	1.981489E+0	1.965156E+0	1.929246E+0	1.959971E+0	2.014719E+0	1.940523E+0	1.979295E+0	1.969585E+0	1.942081E+0	1.954519E+0	1.991840E+0	1.949508E+0	1.896404E+0	1.964512E+0	1.940666E+0	2.035921E+0	1.915313E+0	1.955608E+0	1.941544E+0	1.913231E+0	1.953672E+0	1.928043E+0	1.930616E+0	1.937423E+0	1.994552E+0	1.999521E+0	1.991288E+0	1.968446E+0	1.980149E+0	1.919155E+0	1.941916E+0	1.924594E+0	1.871130E+0	1.934041E+0	1.930173E+0	1.947270E+0	1.903813E+0	1.863992E+0	2.010519E+0	1.856364E+0	1.965111E+0	1.903995E+0	1.937498E+0	1.901213E+0	1.968700E+0	1.961607E+0	1.916902E+0	1.903735E+0	1.957098E+0	1.911697E+0	1.850736E+0	1.974323E+0	1.832263E+0	1.854582E+0	2.011583E+0	1.986214E+0	1.983728E+0	1.919340E+0	1.877540E+0	1.935319E+0	1.890726E+0	1.984061E+0	1.971736E+0	1.929362E+0	1.896304E+0	1.920339E+0	1.963555E+0	1.950314E+0	1.887499E+0	1.896229E+0	1.980328E+0	1.923829E+0	1.900724E+0	1.942594E+0	1.910869E+0	1.918029E+0	1.929352E+0	1.970038E+0	1.911479E+0	1.915152E+0	1.950489E+0	1.950851E+0	1.865999E+0	1.939575E+0	1.909838E+0	1.909076E+0	1.870401E+0	1.902361E+0	1.944901E+0	1.916185E+0	1.782933E+0	1.899629E+0	1.895984E+0	1.876814E+0	1.934365E+0	1.913631E+0	1.937535E+0	1.952430E+0	1.941289E+0	1.785961E+0	1.912258E+0	1.974748E+0	1.932802E+0	1.902003E+0	1.941732E+0	1.915789E+0	1.829483E+0	1.881098E+0	1.932930E+0	1.942803E+0	1.880660E+0	1.894535E+0	1.876309E+0	1.906286E+0	1.916742E+0	1.892181E+0	1.885500E+0	1.944367E+0	1.868316E+0	1.881661E+0	1.802549E+0	1.900413E+0	1.899671E+0	1.954954E+0	1.971453E+0	1.868212E+0	1.885388E+0	1.905527E+0	1.917366E+0	1.887903E+0	1.970999E+0	1.917743E+0	1.821762E+0	1.901116E+0	1.834615E+0	1.862406E+0	1.916101E+0	1.872244E+0	1.888878E+0	1.877992E+0	1.805835E+0
5.352600E+2	1.983231E+0	2.061532E+0	1.983486E+0	1.944204E+0	1.982190E+0	1.914682E+0	1.904955E+0	1.966764E+0	1.974672E+0	1.954605E+0	1.943947E+0	1.967733E+0	1.918969E+0	1.923329E+0	1.927345E+0	1.949056E+0	1.902060E+0	1.967052E+0	1.960752E+0	2.013806E+0	1.979811E+0	1.942346E+0	1.980970E+0	2.031470E+0	1.974056E+0	1.966597E+0	1.938498E+0	1.979033E+0	1.886558E+0	1.964884E+0	1.933557E+0	1.981725E+0	1.962115E+0	1.940522E+0	1.914871E+0	2.005511E+0	1.865227E+0	1.910301E+0	1.877273E+0	1.923342E+0	1.961885E+0	2.007529E+0	1.990636E+0	1.876106E+0	1.959807E+0	1.941164E+0	1.977734E+0	1.903645E+0	1.963326E+0	1.917682E+0	1.994113E+0	1.927693E+0	1.924856E+0	1.939135E+0	1.933357E+0	1.967730E+0	1.962182E+0	1.920040E+0	1.882620E+0	1.948219E+0	1.902160E+0	1.940123E+0	1.948391E+0	1.912649E+0	1.910226E+0	1.934506E+0	1.952625E+0	1.901330E+0	1.985084E+0	1.968178E+0	1.937633E+0	1.970474E+0	1.899845E+0	1.863701E+0	1.938110E+0	1.984748E+0	1.856710E+0	1.945274E+0	1.872706E+0	1.925252E+0	1.910223E+0	1.883289E+0	1.964552E+0	1.905151E+0	1.940726E+0	1.872034E+0	1.902652E+0	1.839899E+0	1.949764E+0	1.937727E+0	1.927522E+0	1.996495E+0	1.908494E+0	1.960066E+0	2.028844E+0	1.925806E+0	1.945688E+0	1.921305E+0	1.924230E+0	1.917367E+0	1.904812E+0	1.958535E+0	1.939117E+0	1.901588E+0	1.872771E+0	1.920568E+0	1.915210E+0	1.995013E+0	1.983547E+0	1.940195E+0	1.896096E+0	1.851254E+0	1.944222E+0	1.831420E+0	1.965106E+0	1.905743E+0	1.947755E+0	1.942642E+0	1.925858E+0	1.873153E+0	1.912056E+0	1.806619E+0	1.872466E+0	1.905402E+0	1.935843E+0	1.859959E+0	1.832476E+0	1.912100E+0	1.843152E+0	1.894231E+0	1.819066E+0	1.914608E+0	1.892527E+0	1.915265E+0	1.824168E+0	1.921927E+0	1.926001E+0	1.868809E+0	1.960050E+0	1.872111E+0	1.943423E+0	1.862971E+0	1.920608E+0	1.926403E+0	1.844052E+0	1.805211E+0	1.920308E+0	1.815360E+0	1.885524E+0	1.855611E+0	1.902396E+0	1.818701E+0	1.930823E+0	1.894292E+0	1.888159E+0	1.835414E+0	1.933292E+0	1.898960E+0	1.940397E+0	1.868753E+0	1.885756E+0	1.940478E+0	1.859145E+0	1.916703E+0	1.843991E+0	1.823736E+0	1.844636E+0	1.879041E+0	1.869338E+0	1.841026E+0	1.924784E+0	1.754651E+0
5.354110E+2	1.778353E+0	1.799277E+0	1.821981E+0	1.721626E+0	1.832172E+0	1.721215E+0	1.710826E+0	1.791699E+0	1.814229E+0	1.774540E+0	1.779727E+0	1.673702E+0	1.716840E+0	1.751022E+0	1.704778E+0	1.782900E+0	1.763565E+0	1.734828E+0	1.730939E+0	1.806816E+0	1.780037E+0	1.765042E+0	1.778760E+0	1.825333E+0	1.783372E+0	1.833039E+0	1.747611E+0	1.760094E+0	1.697248E+0	1.754898E+0	1.751829E+0	1.755680E+0	1.783385E+0	1.705789E+0	1.774574E+0	1.772450E+0	1.709060E+0	1.744449E+0	1.754074E+0	1.755103E+0	1.768532E+0	1.720383E+0	1.739697E+0	1.797174E+0	1.727050E+0	1.800921E+0	1.776836E+0	1.701777E+0	1.771041E+0	1.747119E+0	1.758681E+0	1.759536E+0	1.788127E+0	1.752542E+0	1.784255E+0	1.751606E+0	1.810615E+0	1.726229E+0	1.757291E+0	1.732418E+0	1.759617E+0	1.758374E+0	1.746283E+0	1.746346E+0	1.810070E+0	1.718530E+0	1.761217E+0	1.777863E+0	1.773516E+0	1.730710E+0	1.738510E+0	1.729323E+0	1.687713E+0	1.774710E+0	1.592633E+0	1.782755E+0	1.717798E+0	1.763798E+0	1.699960E+0	1.771170E+0	1.788659E+0	1.704230E+0	1.814453E+0	1.745660E+0	1.724869E+0	1.747772E+0	1.793715E+0	1.703685E+0	1.757907E+0	1.704987E+0	1.785971E+0	1.695575E+0	1.693964E+0	1.802901E+0	1.778455E+0	1.754563E+0	1.748799E+0	1.811692E+0	1.720535E+0	1.675687E+0	1.720827E+0	1.711054E+0	1.628636E+0	1.681421E+0	1.745118E+0	1.747008E+0	1.738083E+0	1.735118E+0	1.759762E+0	1.686989E+0	1.771822E+0	1.682034E+0	1.718619E+0	1.713105E+0	1.760850E+0	1.732425E+0	1.684482E+0	1.681990E+0	1.737032E+0	1.704079E+0	1.701390E+0	1.650358E+0	1.792968E+0	1.708883E+0	1.709810E+0	1.701725E+0	1.768170E+0	1.684414E+0	1.746858E+0	1.647175E+0	1.787104E+0	1.786409E+0	1.777263E+0	1.697206E+0	1.692312E+0	1.706580E+0	1.762204E+0	1.695533E+0	1.744754E+0	1.675141E+0	1.712436E+0	1.678646E+0	1.792219E+0	1.758855E+0	1.733624E+0	1.693672E+0	1.709534E+0	1.684338E+0	1.719248E+0	1.758744E+0	1.643308E+0	1.717077E+0	1.696424E+0	1.686339E+0	1.719526E+0	1.695875E+0	1.696624E+0	1.704095E+0	1.690301E+0	1.714922E+0	1.671136E+0	1.691732E+0	1.669765E+0	1.668983E+0	1.690796E+0	1.673496E+0	1.718080E+0	1.711543E+0	1.678762E+0	1.579274E+0	1.675615E+0	1.714435E+0
5.355630E+2	1.497498E+0	1.539030E+0	1.522900E+0	1.527710E+0	1.560983E+0	1.530613E+0	1.511603E+0	1.556516E+0	1.531112E+0	1.539869E+0	1.484640E+0	1.523140E+0	1.538628E+0	1.531708E+0	1.503328E+0	1.511004E+0	1.539605E+0	1.511302E+0	1.572421E+0	1.538836E+0	1.546513E+0	1.481371E+0	1.544012E+0	1.549985E+0	1.541821E+0	1.551295E+0	1.456495E+0	1.531605E+0	1.547090E+0	1.557533E+0	1.473286E+0	1.538023E+0	1.515599E+0	1.440641E+0	1.524214E+0	1.587063E+0	1.461444E+0	1.479943E+0	1.516655E+0	1.504874E+0	1.492057E+0	1.555979E+0	1.536255E+0	1.525153E+0	1.565894E+0	1.530786E+0	1.558739E+0	1.543615E+0	1.479698E+0	1.520808E+0	1.517243E+0	1.512024E+0	1.454980E+0	1.519550E+0	1.535987E+0	1.485128E+0	1.491917E+0	1.523481E+0	1.533050E+0	1.512318E+0	1.546401E+0	1.476807E+0	1.490557E+0	1.498146E+0	1.565414E+0	1.473924E+0	1.592409E+0	1.492791E+0	1.506405E+0	1.522065E+0	1.466724E+0	1.520144E+0	1.514861E+0	1.507955E+0	1.546744E+0	1.487755E+0	1.487950E+0	1.588450E+0	1.463356E+0	1.532527E+0	1.489316E+0	1.464264E+0	1.526986E+0	1.564939E+0	1.525376E+0	1.514782E+0	1.558042E+0	1.525518E+0	1.506544E+0	1.502733E+0	1.552507E+0	1.496016E+0	1.491622E+0	1.507699E+0	1.545612E+0	1.512268E+0	1.511665E+0	1.548119E+0	1.511819E+0	1.547334E+0	1.478521E+0	1.487172E+0	1.523596E+0	1.478207E+0	1.536710E+0	1.499018E+0	1.545899E+0	1.489540E+0	1.484991E+0	1.550921E+0	1.462379E+0	1.463269E+0	1.498687E+0	1.445025E+0	1.553861E+0	1.473609E+0	1.517674E+0	1.489835E+0	1.512409E+0	1.471771E+0	1.525552E+0	1.513394E+0	1.501535E+0	1.478884E+0	1.474373E+0	1.513949E+0	1.518430E+0	1.531548E+0	1.497011E+0	1.505852E+0	1.472567E+0	1.500424E+0	1.517373E+0	1.551666E+0	1.430543E+0	1.467348E+0	1.538608E+0	1.478346E+0	1.563665E+0	1.466545E+0	1.536551E+0	1.510227E+0	1.451656E+0	1.449139E+0	1.522168E+0	1.467016E+0	1.519437E+0	1.469114E+0	1.524559E+0	1.432229E+0	1.502141E+0	1.524247E+0	1.497569E+0	1.481524E+0	1.489247E+0	1.509803E+0	1.477251E+0	1.559568E+0	1.451064E+0	1.486056E+0	1.531600E+0	1.475943E+0	1.560653E+0	1.448632E+0	1.461373E+0	1.506305E+0	1.480624E+0	1.440150E+0	1.415067E+0	1.456962E+0	1.568618E+0	1.489369E+0
5.357140E+2	1.298056E+0	1.268086E+0	1.240118E+0	1.271422E+0	1.273518E+0	1.216299E+0	1.248821E+0	1.237916E+0	1.282378E+0	1.271754E+0	1.241157E+0	1.205888E+0	1.276507E+0	1.253596E+0	1.257463E+0	1.238637E+0	1.246317E+0	1.237941E+0	1.294636E+0	1.245999E+0	1.309094E+0	1.253668E+0	1.267556E+0	1.278318E+0	1.276413E+0	1.239351E+0	1.235305E+0	1.203831E+0	1.260068E+0	1.254127E+0	1.245267E+0	1.315650E+0	1.219373E+0	1.255879E+0	1.219566E+0	1.298923E+0	1.305856E+0	1.236416E+0	1.201230E+0	1.231462E+0	1.220505E+0	1.226309E+0	1.264227E+0	1.222597E+0	1.235755E+0	1.211202E+0	1.282492E+0	1.225147E+0	1.260256E+0	1.252794E+0	1.224548E+0	1.215225E+0	1.216140E+0	1.220514E+0	1.241359E+0	1.265199E+0	1.259986E+0	1.256543E+0	1.253685E+0	1.263462E+0	1.162712E+0	1.284190E+0	1.242258E+0	1.213438E+0	1.302939E+0	1.252271E+0	1.294434E+0	1.203725E+0	1.252433E+0	1.267699E+0	1.248834E+0	1.261983E+0	1.230591E+0	1.237045E+0	1.249822E+0	1.250795E+0	1.246769E+0	1.247902E+0	1.214981E+0	1.280516E+0	1.216910E+0	1.265757E+0	1.339739E+0	1.188351E+0	1.224054E+0	1.249664E+0	1.224644E+0	1.210268E+0	1.215993E+0	1.207052E+0	1.313536E+0	1.247186E+0	1.246418E+0	1.288731E+0	1.284117E+0	1.244861E+0	1.243916E+0	1.224650E+0	1.194706E+0	1.282140E+0	1.207497E+0	1.258239E+0	1.285546E+0	1.248571E+0	1.235086E+0	1.243090E+0	1.313379E+0	1.231670E+0	1.262563E+0	1.286276E+0	1.321533E+0	1.227860E+0	1.226618E+0	1.170502E+0	1.230494E+0	1.266130E+0	1.241778E+0	1.197955E+0	1.266398E+0	1.204663E+0	1.169948E+0	1.219985E+0	1.240910E+0	1.213303E+0	1.285742E+0	1.196967E+0	1.239478E+0	1.291880E+0	1.268934E+0	1.255869E+0	1.246508E+0	1.219777E+0	1.281667E+0	1.285627E+0	1.268413E+0	1.257605E+0	1.290894E+0	1.198675E+0	1.290017E+0	1.235514E+0	1.320174E+0	1.185349E+0	1.250704E+0	1.220014E+0	1.279899E+0	1.243838E+0	1.318067E+0	1.238312E+0	1.190161E+0	1.222096E+0	1.248409E+0	1.213071E+0	1.218787E+0	1.220895E+0	1.224805E+0	1.242660E+0	1.217966E+0	1.234989E+0	1.221362E+0	1.214351E+0	1.237292E+0	1.209364E+0	1.240975E+0	1.244946E+0	1.255768E+0	1.231178E+0	1.295219E+0	1.217331E+0	1.219760E+0	1.286129E+0	1.241367E+0	1.297361E+0
5.358600E+2	1.080647E+0	1.103268E+0	1.126677E+0	1.053500E+0	1.086901E+0	1.075308E+0	1.105424E+0	1.087003E+0	1.119692E+0	1.093258E+0	1.116486E+0	1.108080E+0	1.093755E+0	1.132361E+0	1.102116E+0	1.086923E+0	1.084154E+0	1.077689E+0	1.080060E+0	1.095511E+0	1.080258E+0	1.103389E+0	1.096467E+0	1.092077E+0	1.112879E+0	1.104386E+0	1.075493E+0	1.103071E+0	1.090686E+0	1.105231E+0	1.067820E+0	1.070711E+0	1.096278E+0	1.068607E+0	1.071635E+0	1.123168E+0	1.105716E+0	1.107238E+0	1.130336E+0	1.022202E+0	1.104620E+0	1.073154E+0	1.058516E+0	1.094737E+0	1.079519E+0	1.093241E+0	1.118403E+0	1.066436E+0	1.070930E+0	1.058707E+0	1.081774E+0	1.109288E+0	1.080942E+0	1.077671E+0	1.114589E+0	1.093704E+0	1.133533E+0	1.088483E+0	1.146971E+0	1.085603E+0	1.018818E+0	1.108355E+0	1.071291E+0	1.082075E+0	1.096286E+0	1.096426E+0	1.125398E+0	1.116780E+0	1.060129E+0	1.155573E+0	1.044809E+0	1.147451E+0	1.063522E+0	1.148515E+0	1.046672E+0	1.108622E+0	1.082902E+0	1.095374E+0	1.078584E+0	1.120271E+0	1.124719E+0	1.049660E+0	1.057393E+0	1.078514E+0	1.090385E+0	1.067264E+0	1.103370E+0	1.022291E+0	1.087097E+0	1.133371E+0	1.161715E+0	1.079566E+0	1.108574E+0	1.053962E+0	1.110456E+0	1.084506E+0	1.072949E+0	1.116960E+0	1.119438E+0	1.127898E+0	1.103487E+0	1.155488E+0	1.087772E+0	1.082808E+0	1.126554E+0	1.084147E+0	1.065351E+0	1.116741E+0	1.107669E+0	1.092668E+0	1.141533E+0	1.081622E+0	1.130647E+0	1.080704E+0	1.106897E+0	1.050717E+0	1.126416E+0	1.044765E+0	1.091072E+0	1.149545E+0	1.091750E+0	1.067527E+0	1.084960E+0	1.088385E+0	1.097626E+0	1.118625E+0	1.098924E+0	1.074214E+0	1.093236E+0	1.039769E+0	1.116864E+0	1.074697E+0	1.071564E+0	1.101805E+0	1.054417E+0	1.032649E+0	1.138185E+0	1.026289E+0	1.171004E+0	1.082899E+0	1.102474E+0	1.025768E+0	1.105317E+0	1.095227E+0	1.105880E+0	1.046338E+0	1.074121E+0	1.044297E+0	1.074812E+0	1.077874E+0	1.091567E+0	1.088214E+0	1.094911E+0	1.100594E+0	1.076404E+0	1.093108E+0	1.117304E+0	1.095426E+0	1.124926E+0	1.112916E+0	1.086163E+0	1.050879E+0	1.061996E+0	1.002936E+0	1.117948E+0	1.100243E+0	1.126770E+0	1.090388E+0	1.102061E+0	1.106785E+0	1.142214E+0	9.964929E-1
5.360070E+2	9.590201E-1	9.156788E-1	9.612005E-1	9.231354E-1	9.940795E-1	9.664619E-1	9.537089E-1	9.742638E-1	9.608627E-1	9.306156E-1	9.394001E-1	9.491011E-1	9.607549E-1	9.499399E-1	9.709725E-1	9.422275E-1	9.321809E-1	9.417346E-1	9.458095E-1	9.759611E-1	9.406344E-1	9.652995E-1	9.714863E-1	9.769484E-1	9.279733E-1	9.420981E-1	9.700539E-1	9.295957E-1	9.166649E-1	9.083247E-1	9.115012E-1	9.851037E-1	9.040235E-1	9.308028E-1	9.229655E-1	9.660137E-1	9.287167E-1	9.468984E-1	9.255247E-1	9.086247E-1	9.662308E-1	9.533029E-1	9.052868E-1	9.365470E-1	9.173280E-1	8.904356E-1	9.407442E-1	8.833689E-1	9.855777E-1	9.473871E-1	9.577313E-1	8.956990E-1	9.560042E-1	9.575271E-1	9.928659E-1	9.285137E-1	9.335379E-1	9.798745E-1	9.511973E-1	9.527717E-1	9.202535E-1	9.434142E-1	9.502687E-1	9.166135E-1	9.730806E-1	8.957560E-1	9.629187E-1	9.521394E-1	9.415787E-1	9.456811E-1	9.578842E-1	9.249287E-1	9.367045E-1	1.022612E+0	9.232320E-1	9.087562E-1	8.923206E-1	9.565124E-1	9.535617E-1	9.512764E-1	9.492606E-1	9.270030E-1	9.249893E-1	9.179724E-1	9.101325E-1	9.018364E-1	9.813078E-1	9.205974E-1	9.096372E-1	9.326539E-1	9.717949E-1	9.800598E-1	9.562297E-1	9.043488E-1	9.531780E-1	9.333170E-1	9.697948E-1	9.490614E-1	9.829855E-1	9.966912E-1	9.419091E-1	9.792640E-1	9.658004E-1	9.274363E-1	9.498905E-1	9.720615E-1	9.423177E-1	9.128381E-1	9.081226E-1	1.015585E+0	1.012274E+0	9.018270E-1	9.177495E-1	9.362949E-1	9.194395E-1	9.530999E-1	9.439925E-1	9.229860E-1	9.249593E-1	9.336046E-1	9.454652E-1	9.681016E-1	9.193504E-1	9.397269E-1	9.642563E-1	9.583715E-1	9.178567E-1	9.382487E-1	9.851116E-1	9.849634E-1	9.389543E-1	9.747112E-1	9.582050E-1	9.461254E-1	9.949611E-1	9.445357E-1	9.662605E-1	9.026902E-1	1.025355E+0	9.143340E-1	9.485274E-1	9.533892E-1	9.266723E-1	9.575510E-1	1.023165E+0	9.383776E-1	9.792016E-1	9.351431E-1	9.225587E-1	9.660435E-1	9.453226E-1	9.581994E-1	9.511406E-1	1.010685E+0	9.204112E-1	9.224976E-1	9.607493E-1	9.879533E-1	9.626716E-1	9.044581E-1	9.382127E-1	9.550706E-1	9.191746E-1	9.151833E-1	9.009335E-1	9.653033E-1	9.461046E-1	9.402005E-1	9.744447E-1	9.283570E-1	9.823512E-1	9.812569E-1
5.362630E+2	6.719774E-1	7.709898E-1	7.327072E-1	7.530243E-1	7.038975E-1	7.385894E-1	7.008984E-1	7.039844E-1	6.947974E-1	7.293835E-1	7.178966E-1	7.490494E-1	7.315578E-1	6.975076E-1	7.271423E-1	7.113242E-1	7.193344E-1	7.053973E-1	7.167321E-1	7.274542E-1	7.334711E-1	6.945420E-1	7.483769E-1	7.382820E-1	7.587603E-1	7.025207E-1	7.197569E-1	6.899762E-1	7.218252E-1	7.115783E-1	7.072041E-1	7.955844E-1	7.191929E-1	6.869042E-1	7.333157E-1	7.809389E-1	7.336263E-1	6.945333E-1	7.305448E-1	6.923876E-1	7.516796E-1	7.349923E-1	7.187932E-1	7.046501E-1	7.146530E-1	7.514211E-1	6.830015E-1	7.124334E-1	7.327459E-1	6.944415E-1	6.955009E-1	7.218231E-1	7.629710E-1	7.102791E-1	7.462814E-1	7.263615E-1	7.416520E-1	6.806676E-1	7.264282E-1	7.403597E-1	7.308743E-1	7.547459E-1	7.155251E-1	7.565206E-1	7.332468E-1	6.899902E-1	7.440967E-1	7.517069E-1	7.040428E-1	7.323944E-1	7.222725E-1	7.337821E-1	6.961357E-1	7.397526E-1	7.243037E-1	7.448606E-1	7.078804E-1	7.428404E-1	7.165344E-1	7.532420E-1	6.984084E-1	7.018730E-1	6.992611E-1	7.232139E-1	7.320145E-1	7.307466E-1	7.599804E-1	7.211519E-1	7.237168E-1	7.231370E-1	7.698392E-1	7.677457E-1	7.303095E-1	7.555409E-1	7.312174E-1	7.227189E-1	7.613939E-1	7.452487E-1	7.147492E-1	6.872382E-1	7.288666E-1	7.218617E-1	7.485344E-1	6.888319E-1	7.115487E-1	7.287601E-1	7.193274E-1	7.524851E-1	6.981483E-1	7.357056E-1	7.260827E-1	6.944791E-1	7.422781E-1	7.034013E-1	7.546000E-1	7.440908E-1	7.369241E-1	6.798668E-1	7.491322E-1	7.103954E-1	7.452968E-1	7.063283E-1	6.969102E-1	6.942444E-1	7.507190E-1	7.315037E-1	6.879941E-1	7.335801E-1	7.125910E-1	7.133472E-1	6.959857E-1	7.461278E-1	7.594615E-1	7.311053E-1	7.439892E-1	7.323319E-1	7.709001E-1	7.309663E-1	7.083783E-1	7.400055E-1	7.602858E-1	7.388954E-1	7.455979E-1	7.056391E-1	7.409181E-1	7.202269E-1	7.345269E-1	7.257674E-1	7.042546E-1	7.282161E-1	7.305327E-1	7.134851E-1	7.658424E-1	7.082889E-1	7.567004E-1	7.638098E-1	7.099884E-1	7.573293E-1	7.034745E-1	7.403567E-1	7.018824E-1	7.581929E-1	7.536547E-1	7.261738E-1	7.118235E-1	7.210406E-1	7.349126E-1	7.172116E-1	7.627504E-1	7.283087E-1	7.217051E-1	7.620572E-1
5.365140E+2	5.736396E-1	5.650192E-1	5.719520E-1	5.544460E-1	5.702615E-1	5.991916E-1	5.792326E-1	5.794930E-1	5.826328E-1	5.592286E-1	6.023378E-1	5.864785E-1	5.565011E-1	5.656160E-1	5.539546E-1	5.554071E-1	5.887735E-1	5.563708E-1	5.925913E-1	6.292099E-1	5.325696E-1	5.855692E-1	5.662154E-1	5.680598E-1	5.933780E-1	6.121161E-1	5.624274E-1	5.966989E-1	5.940904E-1	5.803234E-1	5.666094E-1	5.565218E-1	6.107293E-1	5.727513E-1	5.786633E-1	5.723132E-1	5.787372E-1	5.786625E-1	5.591784E-1	5.839752E-1	5.999361E-1	5.854911E-1	5.827610E-1	5.923026E-1	5.829342E-1	5.566888E-1	5.934623E-1	5.855984E-1	5.967065E-1	5.446113E-1	5.734796E-1	5.791243E-1	5.607758E-1	5.468741E-1	5.642701E-1	6.077525E-1	6.022173E-1	5.585581E-1	5.804221E-1	5.598847E-1	5.988553E-1	5.507655E-1	5.825371E-1	5.719609E-1	5.731886E-1	5.802908E-1	5.769081E-1	5.899866E-1	5.518534E-1	5.950856E-1	5.677316E-1	6.055553E-1	5.834222E-1	5.938870E-1	5.778275E-1	6.040256E-1	5.584425E-1	5.918360E-1	5.710573E-1	5.844900E-1	5.734189E-1	5.707539E-1	5.887455E-1	5.651255E-1	5.771689E-1	6.010113E-1	6.120873E-1	5.779041E-1	5.718423E-1	5.389719E-1	5.539606E-1	6.061671E-1	6.163599E-1	5.581030E-1	5.929715E-1	5.882235E-1	5.808665E-1	5.546317E-1	5.897974E-1	5.963920E-1	5.718445E-1	5.836445E-1	5.611960E-1	5.698919E-1	5.751423E-1	5.599692E-1	5.493404E-1	6.395497E-1	5.729297E-1	6.228628E-1	5.992194E-1	5.781806E-1	5.791375E-1	5.355899E-1	6.145613E-1	6.076547E-1	5.870016E-1	6.127365E-1	5.750794E-1	5.796820E-1	5.975074E-1	5.770783E-1	5.193485E-1	5.645434E-1	5.821345E-1	6.304994E-1	5.733209E-1	5.738796E-1	5.811030E-1	5.769947E-1	5.804295E-1	5.810107E-1	5.908700E-1	6.211880E-1	5.751499E-1	5.923906E-1	6.004407E-1	6.102766E-1	5.894895E-1	6.311022E-1	5.867596E-1	5.851987E-1	5.912289E-1	6.096663E-1	5.854993E-1	5.732321E-1	5.739166E-1	5.882829E-1	5.492600E-1	5.637893E-1	5.987916E-1	6.195069E-1	5.954308E-1	5.594589E-1	5.762321E-1	5.680187E-1	6.061128E-1	5.862908E-1	5.794859E-1	5.832332E-1	6.045608E-1	5.774321E-1	5.637688E-1	5.795516E-1	5.925702E-1	5.909033E-1	5.613387E-1	5.746449E-1	5.588296E-1	6.098212E-1	5.770881E-1	5.910519E-1
5.367870E+2	4.882979E-1	5.311160E-1	5.231706E-1	4.760654E-1	5.131386E-1	4.986095E-1	4.870968E-1	4.821479E-1	5.608950E-1	5.617961E-1	4.937214E-1	4.767774E-1	4.793452E-1	5.004066E-1	4.902353E-1	4.815195E-1	5.202224E-1	5.083810E-1	4.986068E-1	5.315182E-1	5.170102E-1	5.181718E-1	5.009194E-1	5.271960E-1	5.215971E-1	5.142809E-1	5.325144E-1	4.804049E-1	5.143003E-1	4.966169E-1	5.053877E-1	5.329262E-1	5.189759E-1	4.848138E-1	5.014563E-1	5.283885E-1	5.254900E-1	4.932590E-1	5.132915E-1	4.966655E-1	4.944449E-1	4.915190E-1	5.220791E-1	4.891940E-1	5.167588E-1	5.058484E-1	5.432048E-1	5.103921E-1	5.171386E-1	5.250300E-1	4.854836E-1	5.233477E-1	5.047513E-1	5.086076E-1	5.164312E-1	5.049505E-1	5.254044E-1	5.107512E-1	5.156839E-1	5.218365E-1	4.867910E-1	4.984178E-1	4.694149E-1	4.772464E-1	5.063097E-1	4.815720E-1	5.247738E-1	4.827402E-1	5.342076E-1	5.202063E-1	5.073109E-1	4.813510E-1	5.156858E-1	5.176508E-1	5.020201E-1	5.048807E-1	4.834048E-1	5.322569E-1	5.239095E-1	5.048414E-1	4.862700E-1	5.053765E-1	5.022326E-1	5.099393E-1	5.037714E-1	5.303538E-1	5.075721E-1	5.099251E-1	5.246204E-1	5.078672E-1	5.385349E-1	5.194093E-1	5.099928E-1	5.344103E-1	4.890079E-1	5.022104E-1	5.101892E-1	4.969214E-1	4.976302E-1	5.029702E-1	5.089821E-1	5.310463E-1	4.997168E-1	5.146132E-1	5.128376E-1	5.131347E-1	5.245994E-1	4.920976E-1	5.173044E-1	5.438502E-1	5.784958E-1	5.003261E-1	5.111727E-1	5.179541E-1	4.956903E-1	5.251068E-1	5.076986E-1	4.818148E-1	5.362937E-1	5.132516E-1	4.958422E-1	4.988201E-1	5.349095E-1	5.237310E-1	5.162712E-1	5.325240E-1	5.434435E-1	4.852287E-1	4.947846E-1	4.774346E-1	5.356138E-1	5.242110E-1	5.104802E-1	4.929943E-1	4.915679E-1	5.278852E-1	5.348086E-1	5.059503E-1	4.922974E-1	5.208653E-1	5.326964E-1	5.274115E-1	5.252186E-1	5.294380E-1	5.238506E-1	4.766869E-1	5.321306E-1	4.858802E-1	5.042668E-1	4.823790E-1	4.823427E-1	5.179659E-1	4.969577E-1	5.125405E-1	5.179330E-1	5.194508E-1	5.216030E-1	5.468970E-1	5.585686E-1	5.073658E-1	5.087643E-1	5.108290E-1	5.133510E-1	5.018641E-1	5.259863E-1	5.429466E-1	5.208207E-1	5.361533E-1	4.703864E-1	4.686692E-1	4.816952E-1	5.552304E-1
5.370120E+2	4.602967E-1	4.806424E-1	4.680529E-1	4.784925E-1	4.853427E-1	4.712992E-1	4.658088E-1	4.769614E-1	4.661915E-1	4.991604E-1	4.726549E-1	4.917545E-1	4.628816E-1	4.696158E-1	4.691859E-1	5.196807E-1	4.875477E-1	4.682416E-1	5.134100E-1	5.119583E-1	4.701967E-1	4.737393E-1	4.932321E-1	4.797600E-1	4.920085E-1	4.835092E-1	4.801814E-1	4.696546E-1	4.750061E-1	4.604110E-1	4.799368E-1	5.172346E-1	5.032278E-1	4.712498E-1	4.955526E-1	4.946356E-1	5.129078E-1	5.004329E-1	4.647387E-1	4.775913E-1	4.695067E-1	4.698949E-1	5.003420E-1	5.227327E-1	4.927088E-1	4.871347E-1	4.910299E-1	4.613002E-1	5.139073E-1	4.913508E-1	4.946125E-1	4.815367E-1	5.268965E-1	4.771051E-1	4.676867E-1	4.693386E-1	4.740012E-1	4.802299E-1	5.063190E-1	5.029472E-1	5.020421E-1	4.825909E-1	4.738873E-1	4.631519E-1	5.109749E-1	4.615954E-1	4.802328E-1	4.973810E-1	4.914313E-1	5.048507E-1	5.333345E-1	5.327998E-1	4.695488E-1	4.564148E-1	4.850993E-1	5.068359E-1	4.720786E-1	5.404054E-1	5.124778E-1	4.692815E-1	4.869012E-1	4.920743E-1	5.068233E-1	4.931639E-1	5.011723E-1	5.025075E-1	4.843628E-1	4.831213E-1	5.228918E-1	5.071916E-1	4.987396E-1	5.127068E-1	4.717315E-1	4.942627E-1	5.143492E-1	4.920802E-1	5.040754E-1	4.952889E-1	5.010660E-1	4.850055E-1	4.701361E-1	5.274266E-1	4.773935E-1	4.732351E-1	5.259313E-1	4.931911E-1	5.064971E-1	5.069465E-1	5.291842E-1	4.975520E-1	4.930823E-1	4.964673E-1	4.967193E-1	5.012094E-1	5.226343E-1	5.071522E-1	5.259615E-1	4.655090E-1	4.907821E-1	4.904850E-1	4.930494E-1	4.918303E-1	4.852796E-1	4.832283E-1	4.975109E-1	4.687984E-1	4.892558E-1	4.900174E-1	5.367141E-1	4.909505E-1	4.648114E-1	4.928395E-1	5.020652E-1	4.977183E-1	4.702761E-1	4.721631E-1	5.469838E-1	4.783474E-1	4.769497E-1	4.978026E-1	4.859748E-1	4.722956E-1	5.199996E-1	4.872099E-1	5.166111E-1	5.082903E-1	5.226370E-1	5.007159E-1	5.341707E-1	4.905222E-1	5.035652E-1	4.499061E-1	4.762940E-1	4.910529E-1	4.958902E-1	4.964620E-1	5.063058E-1	4.858225E-1	5.190882E-1	5.180622E-1	4.915482E-1	5.108654E-1	4.779265E-1	4.708223E-1	4.986367E-1	5.034439E-1	4.993785E-1	5.059455E-1	5.241575E-1	4.963379E-1	5.372263E-1	5.264392E-1
5.372900E+2	5.017658E-1	4.853855E-1	5.215938E-1	5.427273E-1	5.658278E-1	5.126354E-1	5.181226E-1	5.193355E-1	5.120086E-1	5.307470E-1	5.173547E-1	5.057959E-1	5.100840E-1	5.140216E-1	4.962697E-1	5.383807E-1	5.324262E-1	5.116953E-1	5.248598E-1	5.390402E-1	5.276165E-1	5.228939E-1	5.257113E-1	4.818784E-1	5.148670E-1	5.222179E-1	5.269051E-1	5.331867E-1	5.130091E-1	5.260402E-1	4.885723E-1	5.220058E-1	4.972456E-1	5.095619E-1	5.316120E-1	5.418763E-1	5.567796E-1	5.363321E-1	5.099617E-1	5.392112E-1	5.203549E-1	5.490740E-1	5.396939E-1	5.083422E-1	5.368986E-1	5.279391E-1	5.320745E-1	5.313852E-1	5.182195E-1	5.799515E-1	5.263534E-1	5.045039E-1	5.119396E-1	5.331331E-1	5.024195E-1	5.203265E-1	5.051427E-1	4.979055E-1	5.261448E-1	5.361692E-1	5.574336E-1	5.176512E-1	5.395029E-1	5.098235E-1	5.194382E-1	5.052726E-1	4.851412E-1	5.215965E-1	5.016802E-1	5.451999E-1	4.892224E-1	5.076688E-1	5.176082E-1	5.390034E-1	5.398253E-1	5.246695E-1	5.132559E-1	5.118443E-1	4.932987E-1	5.033037E-1	5.352690E-1	5.130717E-1	5.368622E-1	5.479307E-1	5.230660E-1	5.204969E-1	5.049747E-1	5.343893E-1	5.271820E-1	5.288279E-1	5.542769E-1	5.387366E-1	5.212005E-1	5.402917E-1	5.423708E-1	5.204412E-1	5.309132E-1	5.284374E-1	5.370986E-1	5.318399E-1	5.164942E-1	5.397881E-1	5.120577E-1	5.295696E-1	5.381701E-1	5.261831E-1	5.272735E-1	5.217070E-1	5.069128E-1	5.701738E-1	5.131101E-1	5.196216E-1	5.176749E-1	5.732478E-1	5.670644E-1	5.119951E-1	5.345513E-1	5.345864E-1	5.571760E-1	5.477331E-1	5.252761E-1	5.296848E-1	5.396226E-1	5.445930E-1	5.207980E-1	5.260575E-1	5.470403E-1	5.029851E-1	4.935611E-1	5.140119E-1	5.395460E-1	5.284282E-1	5.680575E-1	5.366801E-1	5.347574E-1	5.345419E-1	5.650336E-1	4.832609E-1	5.375195E-1	4.909408E-1	5.954847E-1	5.289420E-1	5.129209E-1	5.317110E-1	5.426102E-1	5.278588E-1	5.480305E-1	5.173256E-1	5.378642E-1	5.084121E-1	5.652941E-1	5.427617E-1	5.028088E-1	5.380499E-1	5.195837E-1	5.344766E-1	5.267506E-1	4.879351E-1	5.479967E-1	5.731460E-1	5.196653E-1	5.158147E-1	5.419400E-1	5.212473E-1	5.297674E-1	5.245664E-1	5.144207E-1	5.052820E-1	5.279317E-1	5.281913E-1	5.900796E-1	5.655663E-1
5.375160E+2	5.957061E-1	6.413345E-1	6.203981E-1	5.934356E-1	6.192585E-1	6.207027E-1	6.233158E-1	6.004822E-1	6.135922E-1	6.034963E-1	6.421173E-1	6.209784E-1	5.635807E-1	6.142726E-1	5.950951E-1	5.924794E-1	6.374824E-1	6.385195E-1	6.548498E-1	5.972081E-1	6.029709E-1	6.109903E-1	6.273078E-1	6.278224E-1	6.518551E-1	6.251760E-1	6.093109E-1	5.961665E-1	6.043653E-1	6.467360E-1	6.317882E-1	6.471420E-1	6.566784E-1	5.784044E-1	6.413342E-1	6.597391E-1	6.303786E-1	5.971898E-1	5.936482E-1	6.210984E-1	6.015886E-1	6.043433E-1	5.978043E-1	6.446149E-1	6.691445E-1	6.051993E-1	6.201366E-1	5.976881E-1	6.103322E-1	6.257342E-1	6.278210E-1	6.479731E-1	5.688958E-1	6.545921E-1	6.096106E-1	6.114442E-1	6.235260E-1	5.879457E-1	6.265138E-1	6.182231E-1	6.417460E-1	5.939561E-1	6.288949E-1	6.063534E-1	6.162834E-1	6.127951E-1	6.212912E-1	6.186299E-1	5.744895E-1	6.611927E-1	6.168617E-1	6.050383E-1	5.890678E-1	5.932087E-1	6.409152E-1	6.347663E-1	6.143228E-1	6.537043E-1	6.422186E-1	6.361899E-1	5.956060E-1	5.681397E-1	6.232990E-1	5.855254E-1	6.696294E-1	6.267486E-1	6.074852E-1	6.184278E-1	6.328323E-1	6.335554E-1	6.501825E-1	5.882696E-1	6.244908E-1	6.038540E-1	6.054767E-1	6.211870E-1	6.112741E-1	6.371882E-1	6.524343E-1	5.867311E-1	6.151881E-1	6.378472E-1	6.279693E-1	6.346705E-1	6.184580E-1	6.341756E-1	6.239879E-1	6.011886E-1	6.297119E-1	6.208839E-1	6.514152E-1	6.179752E-1	6.096962E-1	6.419244E-1	6.283006E-1	5.954985E-1	6.255703E-1	6.020277E-1	6.315649E-1	5.897357E-1	6.482410E-1	5.881734E-1	5.970143E-1	6.347342E-1	6.198387E-1	6.325077E-1	6.080634E-1	6.443902E-1	6.212910E-1	6.470326E-1	6.152531E-1	6.386424E-1	6.080040E-1	6.509757E-1	6.019452E-1	6.409600E-1	6.419380E-1	5.922452E-1	6.577195E-1	5.910499E-1	5.878736E-1	6.283249E-1	6.660101E-1	5.868882E-1	6.186291E-1	5.904188E-1	6.132936E-1	6.023444E-1	5.775918E-1	5.796433E-1	6.500994E-1	6.016902E-1	6.396760E-1	6.261076E-1	6.358147E-1	6.319657E-1	6.651429E-1	6.298690E-1	6.177867E-1	6.239259E-1	6.408138E-1	5.805739E-1	6.726853E-1	5.896403E-1	6.389734E-1	6.147625E-1	6.332744E-1	6.326148E-1	6.121878E-1	6.545416E-1	6.240691E-1	6.870689E-1
5.377790E+2	6.459345E-1	6.849675E-1	6.915837E-1	6.447324E-1	7.174008E-1	6.503665E-1	6.302332E-1	6.595999E-1	6.831241E-1	7.015048E-1	6.781373E-1	6.524378E-1	6.778045E-1	6.648535E-1	6.683954E-1	7.023872E-1	6.582589E-1	6.802817E-1	6.817767E-1	7.462240E-1	7.124077E-1	7.028369E-1	7.188424E-1	6.972015E-1	7.282166E-1	6.814401E-1	6.862474E-1	6.494733E-1	6.516414E-1	6.893119E-1	6.292188E-1	6.862605E-1	6.726091E-1	6.602650E-1	6.838942E-1	7.083452E-1	6.702782E-1	6.528017E-1	6.469514E-1	6.261042E-1	6.589240E-1	6.941691E-1	7.135727E-1	7.142554E-1	6.835979E-1	6.257238E-1	7.322493E-1	6.807958E-1	6.969854E-1	6.418237E-1	6.815994E-1	6.711842E-1	6.745849E-1	6.698492E-1	6.585124E-1	7.068757E-1	7.079369E-1	6.638288E-1	6.957396E-1	6.417715E-1	6.604807E-1	6.871651E-1	6.957434E-1	6.501724E-1	6.976552E-1	6.286614E-1	7.255321E-1	6.756675E-1	6.881032E-1	7.207797E-1	6.471684E-1	7.073644E-1	6.644234E-1	6.887361E-1	6.756499E-1	7.265646E-1	6.617557E-1	6.996250E-1	6.771253E-1	6.845464E-1	6.610826E-1	6.644365E-1	6.955513E-1	6.599737E-1	6.968234E-1	6.847997E-1	6.856826E-1	6.650379E-1	6.731065E-1	7.079548E-1	6.625598E-1	7.125073E-1	6.736908E-1	6.585157E-1	6.882847E-1	6.785826E-1	6.964624E-1	6.937708E-1	7.219492E-1	6.861257E-1	6.710254E-1	7.154823E-1	6.440328E-1	6.991281E-1	6.540077E-1	6.848275E-1	7.004581E-1	6.914300E-1	6.951788E-1	7.032954E-1	6.518064E-1	6.707538E-1	6.668324E-1	6.391942E-1	6.981253E-1	7.010050E-1	6.786811E-1	6.664848E-1	6.773422E-1	7.091974E-1	6.854065E-1	6.761394E-1	6.934172E-1	7.228841E-1	7.113508E-1	6.693237E-1	6.567060E-1	6.852738E-1	7.023876E-1	6.741413E-1	6.488110E-1	6.679078E-1	7.244133E-1	6.732544E-1	7.180825E-1	7.363575E-1	6.674617E-1	6.405985E-1	6.933293E-1	6.988159E-1	6.686796E-1	6.583915E-1	7.060789E-1	7.233606E-1	6.719329E-1	6.526939E-1	6.790887E-1	6.580655E-1	6.928585E-1	7.266241E-1	7.285323E-1	7.144148E-1	6.702854E-1	6.818246E-1	7.060768E-1	6.537375E-1	6.732908E-1	6.885192E-1	6.777206E-1	6.699145E-1	7.008289E-1	6.799823E-1	7.078061E-1	6.265070E-1	7.088372E-1	6.705035E-1	7.025334E-1	6.907661E-1	6.932376E-1	7.141059E-1	6.279567E-1	7.211782E-1
5.380160E+2	7.469042E-1	7.477991E-1	7.740527E-1	7.523204E-1	7.523446E-1	7.835361E-1	7.756719E-1	7.604168E-1	7.609299E-1	8.201845E-1	7.402847E-1	7.734827E-1	7.357495E-1	8.292568E-1	7.846880E-1	7.740338E-1	7.995867E-1	7.627668E-1	7.846388E-1	8.089285E-1	8.377788E-1	7.545863E-1	7.446232E-1	8.284519E-1	8.263679E-1	8.079311E-1	8.169319E-1	7.688858E-1	7.866622E-1	7.749576E-1	7.669418E-1	7.694015E-1	7.786320E-1	7.440461E-1	7.617745E-1	7.833533E-1	7.998167E-1	7.913826E-1	8.010898E-1	7.464699E-1	8.231346E-1	7.856618E-1	7.948177E-1	8.081433E-1	7.956355E-1	7.950991E-1	7.920721E-1	7.598703E-1	7.908914E-1	7.798057E-1	7.800988E-1	7.585411E-1	8.052548E-1	7.785307E-1	8.325349E-1	7.914328E-1	8.139161E-1	7.892313E-1	8.038334E-1	7.811291E-1	7.929158E-1	7.999879E-1	7.753289E-1	8.099395E-1	8.040675E-1	7.617736E-1	8.152315E-1	8.075243E-1	7.943475E-1	7.695052E-1	7.988025E-1	8.368560E-1	8.231974E-1	7.957329E-1	7.496257E-1	8.297441E-1	7.917178E-1	7.876110E-1	7.445633E-1	8.238431E-1	7.482092E-1	7.262075E-1	7.928073E-1	7.869200E-1	7.596494E-1	7.434119E-1	8.079961E-1	7.598777E-1	7.869001E-1	7.892209E-1	7.490034E-1	7.706948E-1	7.477594E-1	8.176323E-1	8.092148E-1	8.012774E-1	7.801245E-1	7.674863E-1	7.761480E-1	7.625524E-1	7.567491E-1	7.767473E-1	7.985547E-1	7.619853E-1	7.668340E-1	7.985326E-1	7.311665E-1	7.548600E-1	7.944298E-1	8.166087E-1	8.378475E-1	7.682992E-1	7.848796E-1	8.229552E-1	7.677073E-1	8.080843E-1	7.679253E-1	7.908150E-1	7.645393E-1	8.029019E-1	8.604240E-1	7.131535E-1	7.417800E-1	8.075296E-1	8.072091E-1	7.319451E-1	7.797805E-1	8.270496E-1	8.040163E-1	8.037340E-1	8.147397E-1	7.974826E-1	8.195134E-1	7.707451E-1	7.774170E-1	8.255912E-1	8.505821E-1	7.450835E-1	7.908468E-1	8.264916E-1	7.997468E-1	7.818669E-1	7.606793E-1	7.736704E-1	8.343114E-1	7.822242E-1	7.841067E-1	7.891250E-1	7.657824E-1	7.364394E-1	7.944376E-1	7.762537E-1	8.099033E-1	8.043827E-1	7.575353E-1	8.251912E-1	7.528213E-1	8.026950E-1	7.787133E-1	7.572708E-1	7.768911E-1	7.777599E-1	8.215149E-1	7.952385E-1	7.746683E-1	7.774217E-1	7.903686E-1	7.684017E-1	7.915893E-1	7.260173E-1	8.410767E-1	8.063077E-1
5.382900E+2	1.003649E+0	9.734899E-1	9.472895E-1	9.999501E-1	1.004473E+0	9.768026E-1	9.582844E-1	9.967755E-1	1.011392E+0	9.662517E-1	1.001346E+0	1.007222E+0	9.610271E-1	9.683731E-1	9.441073E-1	1.055315E+0	9.848024E-1	9.922327E-1	1.003514E+0	1.001498E+0	9.933352E-1	1.010122E+0	9.672096E-1	9.876218E-1	1.063727E+0	1.019992E+0	9.741427E-1	9.821525E-1	9.778019E-1	9.676202E-1	9.721085E-1	1.037849E+0	9.927787E-1	9.655754E-1	1.024049E+0	9.323360E-1	9.590649E-1	9.695195E-1	9.678128E-1	9.885489E-1	9.769361E-1	9.277342E-1	9.742566E-1	9.666588E-1	9.497041E-1	9.712596E-1	9.919382E-1	1.029790E+0	1.016407E+0	9.796128E-1	9.985167E-1	9.643460E-1	9.454316E-1	1.000358E+0	9.878002E-1	1.013137E+0	1.005992E+0	9.902295E-1	1.011827E+0	9.321881E-1	1.024080E+0	9.916100E-1	9.471910E-1	1.008714E+0	9.803953E-1	9.505941E-1	9.936945E-1	9.735689E-1	9.825917E-1	9.783611E-1	9.775464E-1	9.599717E-1	9.515532E-1	9.551782E-1	9.998965E-1	9.955016E-1	9.887403E-1	1.018452E+0	9.853311E-1	1.008353E+0	9.574272E-1	9.673604E-1	1.039725E+0	9.705332E-1	9.724384E-1	9.852599E-1	1.034762E+0	9.226640E-1	9.755186E-1	9.844098E-1	9.758663E-1	9.727656E-1	9.967634E-1	9.601590E-1	1.022854E+0	9.665250E-1	1.009652E+0	9.943876E-1	1.012611E+0	9.730088E-1	9.661442E-1	9.504397E-1	1.009455E+0	9.752986E-1	9.524945E-1	9.897221E-1	9.367519E-1	9.504480E-1	9.865747E-1	1.008468E+0	1.034278E+0	9.857084E-1	9.962302E-1	9.314908E-1	1.030694E+0	9.768079E-1	9.779313E-1	1.003960E+0	9.539841E-1	9.939133E-1	9.983814E-1	9.674143E-1	1.016131E+0	9.519424E-1	9.724685E-1	9.560711E-1	1.001576E+0	9.700995E-1	9.670603E-1	9.936132E-1	1.021938E+0	9.872725E-1	9.544768E-1	9.637693E-1	9.649653E-1	9.937923E-1	1.004190E+0	9.792825E-1	1.011768E+0	9.339897E-1	9.436750E-1	9.377981E-1	9.838427E-1	9.658836E-1	1.021651E+0	9.101367E-1	1.023535E+0	9.610708E-1	9.524108E-1	9.789838E-1	1.014093E+0	9.911601E-1	9.569053E-1	9.462396E-1	9.663773E-1	9.957290E-1	9.894445E-1	9.667110E-1	9.773120E-1	9.951605E-1	9.588133E-1	9.903564E-1	1.017765E+0	1.014424E+0	1.008027E+0	9.780431E-1	9.952568E-1	9.987296E-1	9.699397E-1	9.857647E-1	9.954645E-1	9.876785E-1
5.385110E+2	1.166828E+0	1.170099E+0	1.126983E+0	1.134333E+0	1.168064E+0	1.169665E+0	1.152139E+0	1.134374E+0	1.150496E+0	1.202737E+0	1.194354E+0	1.179187E+0	1.158384E+0	1.153799E+0	1.135578E+0	1.106843E+0	1.191977E+0	1.120042E+0	1.150640E+0	1.219305E+0	1.128270E+0	1.140842E+0	1.173662E+0	1.132169E+0	1.187979E+0	1.124014E+0	1.156922E+0	1.134407E+0	1.190647E+0	1.126109E+0	1.080408E+0	1.139736E+0	1.187565E+0	1.160368E+0	1.133254E+0	1.194366E+0	1.151321E+0	1.157147E+0	1.131066E+0	1.178356E+0	1.142334E+0	1.117248E+0	1.196354E+0	1.190093E+0	1.144780E+0	1.137510E+0	1.177348E+0	1.177465E+0	1.156222E+0	1.193146E+0	1.215062E+0	1.133010E+0	1.171196E+0	1.209454E+0	1.192213E+0	1.197125E+0	1.171112E+0	1.182350E+0	1.189491E+0	1.144059E+0	1.144190E+0	1.119228E+0	1.147424E+0	1.159923E+0	1.152182E+0	1.132334E+0	1.164955E+0	1.170110E+0	1.159154E+0	1.177825E+0	1.130288E+0	1.138557E+0	1.169559E+0	1.160847E+0	1.184578E+0	1.143495E+0	1.161684E+0	1.152526E+0	1.166679E+0	1.142247E+0	1.154615E+0	1.073565E+0	1.181004E+0	1.166849E+0	1.180400E+0	1.109188E+0	1.196186E+0	1.140306E+0	1.179720E+0	1.153761E+0	1.163679E+0	1.165227E+0	1.183747E+0	1.130281E+0	1.161109E+0	1.139495E+0	1.158308E+0	1.166701E+0	1.217730E+0	1.119521E+0	1.141120E+0	1.139098E+0	1.137721E+0	1.133580E+0	1.119503E+0	1.156289E+0	1.112759E+0	1.147945E+0	1.173561E+0	1.137006E+0	1.185032E+0	1.159230E+0	1.169760E+0	1.115379E+0	1.165054E+0	1.182302E+0	1.113047E+0	1.123813E+0	1.164326E+0	1.145892E+0	1.177461E+0	1.115484E+0	1.117255E+0	1.111938E+0	1.115159E+0	1.147187E+0	1.168271E+0	1.171226E+0	1.119455E+0	1.158594E+0	1.181298E+0	1.167947E+0	1.140189E+0	1.162443E+0	1.141446E+0	1.142564E+0	1.220094E+0	1.135099E+0	1.189617E+0	1.197137E+0	1.172446E+0	1.086247E+0	1.174447E+0	1.154244E+0	1.173188E+0	1.148788E+0	1.139767E+0	1.151061E+0	1.139342E+0	1.154021E+0	1.157176E+0	1.132724E+0	1.144483E+0	1.113745E+0	1.199582E+0	1.149719E+0	1.139206E+0	1.161989E+0	1.154669E+0	1.143869E+0	1.128662E+0	1.108475E+0	1.135511E+0	1.111943E+0	1.138712E+0	1.135653E+0	1.106827E+0	1.187954E+0	1.162601E+0	1.204049E+0	1.193273E+0	1.197867E+0
5.387700E+2	1.385832E+0	1.358352E+0	1.365024E+0	1.393195E+0	1.462436E+0	1.375976E+0	1.421390E+0	1.400134E+0	1.454531E+0	1.399819E+0	1.390393E+0	1.391329E+0	1.366874E+0	1.326563E+0	1.388297E+0	1.375754E+0	1.346176E+0	1.415187E+0	1.369930E+0	1.394998E+0	1.391032E+0	1.322986E+0	1.418447E+0	1.421340E+0	1.472194E+0	1.344556E+0	1.354940E+0	1.399485E+0	1.394077E+0	1.400271E+0	1.383661E+0	1.399860E+0	1.372689E+0	1.325460E+0	1.433587E+0	1.414268E+0	1.410958E+0	1.397408E+0	1.405150E+0	1.430170E+0	1.445292E+0	1.387105E+0	1.433605E+0	1.330022E+0	1.439096E+0	1.390582E+0	1.351890E+0	1.320116E+0	1.380607E+0	1.376232E+0	1.439805E+0	1.380159E+0	1.375791E+0	1.316752E+0	1.437418E+0	1.410463E+0	1.323539E+0	1.403991E+0	1.365566E+0	1.373090E+0	1.342138E+0	1.382906E+0	1.361124E+0	1.418802E+0	1.461230E+0	1.385832E+0	1.332162E+0	1.457483E+0	1.327038E+0	1.503768E+0	1.377530E+0	1.436276E+0	1.355575E+0	1.313925E+0	1.385072E+0	1.343576E+0	1.340414E+0	1.398934E+0	1.363544E+0	1.407970E+0	1.371639E+0	1.395608E+0	1.337966E+0	1.392412E+0	1.385967E+0	1.376807E+0	1.404248E+0	1.417421E+0	1.416506E+0	1.375327E+0	1.381392E+0	1.407606E+0	1.331901E+0	1.394885E+0	1.362378E+0	1.334656E+0	1.407936E+0	1.400186E+0	1.364091E+0	1.369438E+0	1.372200E+0	1.431510E+0	1.367916E+0	1.396812E+0	1.356599E+0	1.311415E+0	1.394511E+0	1.390641E+0	1.322477E+0	1.435856E+0	1.401346E+0	1.353642E+0	1.399670E+0	1.343814E+0	1.486352E+0	1.363850E+0	1.385443E+0	1.354364E+0	1.390927E+0	1.415432E+0	1.438599E+0	1.340011E+0	1.395925E+0	1.359487E+0	1.402714E+0	1.348298E+0	1.340595E+0	1.378263E+0	1.394199E+0	1.364111E+0	1.390350E+0	1.415972E+0	1.363082E+0	1.340764E+0	1.355164E+0	1.381709E+0	1.378147E+0	1.326618E+0	1.361288E+0	1.370078E+0	1.397123E+0	1.267471E+0	1.366889E+0	1.332335E+0	1.387375E+0	1.327655E+0	1.312853E+0	1.373677E+0	1.389160E+0	1.372061E+0	1.361559E+0	1.380942E+0	1.329569E+0	1.339785E+0	1.377496E+0	1.365179E+0	1.359783E+0	1.381096E+0	1.425772E+0	1.407175E+0	1.389259E+0	1.430703E+0	1.389437E+0	1.355150E+0	1.328186E+0	1.354050E+0	1.401980E+0	1.367400E+0	1.345942E+0	1.353145E+0	1.444786E+0	1.330862E+0
5.390240E+2	1.554891E+0	1.561785E+0	1.628820E+0	1.588886E+0	1.537861E+0	1.606049E+0	1.568937E+0	1.646079E+0	1.600364E+0	1.599083E+0	1.598502E+0	1.551078E+0	1.563323E+0	1.620686E+0	1.564489E+0	1.637083E+0	1.610219E+0	1.605200E+0	1.613246E+0	1.657417E+0	1.601858E+0	1.583929E+0	1.551255E+0	1.629528E+0	1.673326E+0	1.613878E+0	1.623771E+0	1.580998E+0	1.533585E+0	1.619327E+0	1.604187E+0	1.597827E+0	1.571181E+0	1.559897E+0	1.543429E+0	1.670021E+0	1.575149E+0	1.627802E+0	1.605202E+0	1.538925E+0	1.623904E+0	1.590350E+0	1.612113E+0	1.561100E+0	1.572083E+0	1.611414E+0	1.594036E+0	1.567906E+0	1.573718E+0	1.619969E+0	1.584070E+0	1.602705E+0	1.576355E+0	1.576166E+0	1.634771E+0	1.639924E+0	1.634095E+0	1.618275E+0	1.596137E+0	1.615526E+0	1.528779E+0	1.546395E+0	1.570266E+0	1.609899E+0	1.544172E+0	1.520286E+0	1.559531E+0	1.555260E+0	1.603438E+0	1.611249E+0	1.563745E+0	1.580051E+0	1.578882E+0	1.609435E+0	1.554835E+0	1.579197E+0	1.600093E+0	1.564117E+0	1.601530E+0	1.593096E+0	1.600965E+0	1.549147E+0	1.519855E+0	1.604812E+0	1.552933E+0	1.544827E+0	1.562616E+0	1.573743E+0	1.592667E+0	1.496299E+0	1.562449E+0	1.585732E+0	1.601594E+0	1.536792E+0	1.536114E+0	1.554688E+0	1.576592E+0	1.579803E+0	1.613398E+0	1.559115E+0	1.615286E+0	1.572048E+0	1.586142E+0	1.560966E+0	1.520811E+0	1.572174E+0	1.564207E+0	1.622880E+0	1.569027E+0	1.539629E+0	1.578665E+0	1.525723E+0	1.663711E+0	1.590873E+0	1.573176E+0	1.588653E+0	1.618657E+0	1.541957E+0	1.570566E+0	1.602150E+0	1.588185E+0	1.484976E+0	1.551197E+0	1.522470E+0	1.597571E+0	1.572467E+0	1.536549E+0	1.595688E+0	1.618413E+0	1.524177E+0	1.550900E+0	1.580427E+0	1.561147E+0	1.591236E+0	1.561289E+0	1.567430E+0	1.566746E+0	1.461362E+0	1.597998E+0	1.524671E+0	1.572770E+0	1.579641E+0	1.551729E+0	1.584845E+0	1.590031E+0	1.568476E+0	1.520345E+0	1.543472E+0	1.612593E+0	1.590244E+0	1.522933E+0	1.519723E+0	1.520048E+0	1.576404E+0	1.533055E+0	1.555181E+0	1.516313E+0	1.595923E+0	1.635382E+0	1.548813E+0	1.545170E+0	1.500044E+0	1.545721E+0	1.532155E+0	1.541986E+0	1.540853E+0	1.594426E+0	1.575283E+0	1.508643E+0	1.546623E+0	1.541722E+0	1.545909E+0
5.392880E+2	1.798480E+0	1.770136E+0	1.812843E+0	1.802238E+0	1.828449E+0	1.755176E+0	1.721157E+0	1.803985E+0	1.749033E+0	1.823604E+0	1.783440E+0	1.800778E+0	1.811567E+0	1.793741E+0	1.753863E+0	1.733603E+0	1.755266E+0	1.810025E+0	1.781763E+0	1.815374E+0	1.738884E+0	1.812932E+0	1.744961E+0	1.907598E+0	1.796255E+0	1.808384E+0	1.738118E+0	1.783341E+0	1.782231E+0	1.759130E+0	1.779743E+0	1.844312E+0	1.814196E+0	1.788638E+0	1.813372E+0	1.852749E+0	1.704733E+0	1.783893E+0	1.762657E+0	1.815067E+0	1.844397E+0	1.721262E+0	1.778769E+0	1.767701E+0	1.806327E+0	1.725831E+0	1.721691E+0	1.755883E+0	1.757338E+0	1.792849E+0	1.807480E+0	1.758189E+0	1.819621E+0	1.692649E+0	1.772323E+0	1.805619E+0	1.842244E+0	1.736007E+0	1.794320E+0	1.773211E+0	1.827299E+0	1.684315E+0	1.734858E+0	1.756843E+0	1.818957E+0	1.760518E+0	1.765024E+0	1.750983E+0	1.698943E+0	1.766158E+0	1.739511E+0	1.786013E+0	1.791930E+0	1.739180E+0	1.752903E+0	1.738508E+0	1.770894E+0	1.744932E+0	1.714516E+0	1.813643E+0	1.645150E+0	1.735010E+0	1.821612E+0	1.781166E+0	1.738026E+0	1.734293E+0	1.834269E+0	1.752567E+0	1.852108E+0	1.756142E+0	1.796339E+0	1.846721E+0	1.745421E+0	1.756273E+0	1.800073E+0	1.725243E+0	1.733528E+0	1.711218E+0	1.754195E+0	1.720170E+0	1.748811E+0	1.766876E+0	1.734878E+0	1.732257E+0	1.772605E+0	1.781154E+0	1.770925E+0	1.734035E+0	1.742638E+0	1.779633E+0	1.818494E+0	1.763169E+0	1.791307E+0	1.756046E+0	1.752174E+0	1.766999E+0	1.808736E+0	1.734806E+0	1.784291E+0	1.730753E+0	1.724268E+0	1.698087E+0	1.744316E+0	1.816425E+0	1.739342E+0	1.780857E+0	1.774239E+0	1.736052E+0	1.733031E+0	1.703639E+0	1.690863E+0	1.773229E+0	1.726808E+0	1.803639E+0	1.685440E+0	1.736453E+0	1.789107E+0	1.661789E+0	1.800280E+0	1.761102E+0	1.781714E+0	1.697054E+0	1.815626E+0	1.734830E+0	1.806932E+0	1.685203E+0	1.711292E+0	1.741204E+0	1.734939E+0	1.785180E+0	1.711468E+0	1.661456E+0	1.750575E+0	1.684587E+0	1.683917E+0	1.749725E+0	1.712090E+0	1.719708E+0	1.683580E+0	1.805334E+0	1.703936E+0	1.738860E+0	1.760803E+0	1.722290E+0	1.718474E+0	1.719508E+0	1.801870E+0	1.765800E+0	1.714411E+0	1.835668E+0	1.787747E+0	1.695033E+0
5.395210E+2	1.893200E+0	1.904416E+0	1.882435E+0	1.853387E+0	1.901887E+0	1.862576E+0	1.850883E+0	1.913843E+0	1.872042E+0	1.867972E+0	1.871138E+0	1.888781E+0	1.832346E+0	1.860660E+0	1.825216E+0	1.833248E+0	1.918703E+0	1.869540E+0	1.826872E+0	1.900589E+0	1.916452E+0	1.883180E+0	1.922010E+0	1.856972E+0	1.889718E+0	1.864476E+0	1.923224E+0	1.892426E+0	1.910188E+0	1.823034E+0	1.825491E+0	1.895979E+0	1.915912E+0	1.738861E+0	1.875478E+0	1.912688E+0	1.865476E+0	1.839635E+0	1.889915E+0	1.891582E+0	1.845636E+0	1.898234E+0	1.883207E+0	1.773562E+0	1.838173E+0	1.874671E+0	1.828033E+0	1.946210E+0	1.885046E+0	1.843430E+0	1.867047E+0	1.881102E+0	1.832776E+0	1.834030E+0	1.843772E+0	1.883786E+0	1.919601E+0	1.865812E+0	1.920446E+0	1.905244E+0	1.873016E+0	1.845651E+0	1.841762E+0	1.899404E+0	1.850788E+0	1.791349E+0	1.847282E+0	1.812066E+0	1.868315E+0	1.849117E+0	1.813017E+0	1.818659E+0	1.840461E+0	1.847193E+0	1.795283E+0	1.909926E+0	1.884555E+0	1.777077E+0	1.812512E+0	1.874659E+0	1.843958E+0	1.811260E+0	1.826721E+0	1.830377E+0	1.891937E+0	1.811931E+0	1.851348E+0	1.835618E+0	1.850276E+0	1.801356E+0	1.905579E+0	1.880413E+0	1.773445E+0	1.868543E+0	1.788621E+0	1.776653E+0	1.866589E+0	1.888167E+0	1.847496E+0	1.814007E+0	1.819424E+0	1.883146E+0	1.846626E+0	1.826601E+0	1.777423E+0	1.890023E+0	1.850998E+0	1.797799E+0	1.889416E+0	1.868528E+0	1.826108E+0	1.867943E+0	1.799384E+0	1.765432E+0	1.861105E+0	1.822887E+0	1.886322E+0	1.832749E+0	1.870817E+0	1.849889E+0	1.832034E+0	1.822841E+0	1.880689E+0	1.808926E+0	1.876363E+0	1.776524E+0	1.771075E+0	1.860918E+0	1.856180E+0	1.732286E+0	1.799135E+0	1.849651E+0	1.809008E+0	1.867010E+0	1.787727E+0	1.805299E+0	1.947550E+0	1.802646E+0	1.746807E+0	1.812173E+0	1.795236E+0	1.785328E+0	1.822514E+0	1.810371E+0	1.907940E+0	1.744023E+0	1.788840E+0	1.893396E+0	1.798368E+0	1.792099E+0	1.742930E+0	1.821283E+0	1.784391E+0	1.857015E+0	1.750241E+0	1.790051E+0	1.773303E+0	1.806674E+0	1.768228E+0	1.812018E+0	1.793676E+0	1.851894E+0	1.760085E+0	1.778162E+0	1.888851E+0	1.785137E+0	1.816965E+0	1.839463E+0	1.806093E+0	1.772784E+0	1.876642E+0	1.824163E+0
5.397750E+2	1.934669E+0	1.915926E+0	1.857834E+0	1.929196E+0	1.961020E+0	1.887813E+0	1.929759E+0	1.903715E+0	1.951523E+0	1.944713E+0	1.969342E+0	1.918115E+0	1.895277E+0	1.851121E+0	1.916470E+0	1.903100E+0	1.926727E+0	1.883436E+0	1.868072E+0	1.960479E+0	1.936984E+0	1.962560E+0	1.946860E+0	1.987868E+0	1.970746E+0	1.914445E+0	1.857957E+0	1.941387E+0	1.872950E+0	1.858536E+0	1.890203E+0	1.938262E+0	2.014012E+0	1.858932E+0	1.907491E+0	1.937952E+0	1.911072E+0	1.945578E+0	1.887671E+0	1.886187E+0	1.971593E+0	1.836456E+0	1.940268E+0	1.919874E+0	1.891500E+0	1.862907E+0	1.944197E+0	1.845027E+0	1.932445E+0	1.883344E+0	1.847300E+0	1.863188E+0	1.883183E+0	1.847797E+0	1.958566E+0	1.931481E+0	1.988467E+0	1.872454E+0	1.906517E+0	1.857428E+0	1.867127E+0	1.920478E+0	1.810576E+0	1.839977E+0	1.917018E+0	1.838346E+0	1.871834E+0	1.920889E+0	1.844645E+0	1.925105E+0	1.936565E+0	1.832711E+0	1.915736E+0	1.913157E+0	1.869054E+0	1.918006E+0	1.792132E+0	1.856069E+0	1.865153E+0	1.878675E+0	1.870201E+0	1.877203E+0	1.885862E+0	1.905219E+0	1.874587E+0	1.855759E+0	1.887240E+0	1.902989E+0	1.899555E+0	1.913164E+0	1.932206E+0	1.926134E+0	1.842282E+0	1.905657E+0	1.854524E+0	1.841697E+0	1.881230E+0	1.868934E+0	1.883400E+0	1.886887E+0	1.816186E+0	1.885888E+0	1.890560E+0	1.894475E+0	1.751034E+0	1.942059E+0	1.880404E+0	1.896176E+0	1.796424E+0	1.951771E+0	1.940161E+0	1.819490E+0	1.863618E+0	1.827811E+0	1.953630E+0	1.853657E+0	1.884909E+0	1.824045E+0	1.890215E+0	1.857986E+0	1.873884E+0	1.828212E+0	1.945096E+0	1.859493E+0	1.808563E+0	1.867177E+0	1.885204E+0	1.914900E+0	1.814585E+0	1.844348E+0	1.829071E+0	1.848714E+0	1.884951E+0	1.879272E+0	1.847536E+0	1.816656E+0	1.856656E+0	1.839352E+0	1.865278E+0	1.884578E+0	1.920112E+0	1.838498E+0	1.848802E+0	1.785225E+0	1.877899E+0	1.795271E+0	1.831850E+0	1.856293E+0	1.855576E+0	1.852879E+0	1.913535E+0	1.827300E+0	1.808545E+0	1.831640E+0	1.849418E+0	1.856300E+0	1.833977E+0	1.797271E+0	1.875486E+0	1.935071E+0	1.838663E+0	1.838806E+0	1.860262E+0	1.821767E+0	1.820158E+0	1.813998E+0	1.849102E+0	1.855948E+0	1.820783E+0	1.864886E+0	1.905208E+0	1.867743E+0
5.400190E+2	1.880663E+0	1.921438E+0	1.940165E+0	1.937893E+0	1.906756E+0	1.894343E+0	1.906089E+0	1.961958E+0	1.964084E+0	1.914344E+0	1.890208E+0	1.904487E+0	1.956142E+0	1.901295E+0	1.913279E+0	1.859380E+0	1.947491E+0	1.879125E+0	1.858945E+0	1.949635E+0	1.999007E+0	1.916813E+0	1.904889E+0	1.993745E+0	1.879757E+0	1.866540E+0	1.840288E+0	1.868205E+0	1.847675E+0	1.937111E+0	1.892584E+0	1.930947E+0	1.878666E+0	1.856523E+0	1.869661E+0	1.948175E+0	1.897919E+0	1.959957E+0	1.901586E+0	1.949579E+0	1.951101E+0	1.847847E+0	1.852753E+0	1.915393E+0	1.947488E+0	1.860730E+0	1.922958E+0	1.852770E+0	1.951117E+0	1.871031E+0	1.849718E+0	1.787484E+0	1.942646E+0	1.858723E+0	1.921405E+0	1.900595E+0	1.912363E+0	1.899235E+0	1.942050E+0	1.942802E+0	1.912315E+0	1.840234E+0	1.904191E+0	1.927751E+0	1.927299E+0	1.923640E+0	1.859596E+0	1.898438E+0	1.819895E+0	1.930366E+0	1.899715E+0	1.893704E+0	1.890774E+0	1.898551E+0	1.882947E+0	1.908422E+0	1.931838E+0	1.923431E+0	1.823999E+0	1.906523E+0	1.884795E+0	1.840127E+0	1.913293E+0	1.920825E+0	1.852859E+0	1.943646E+0	1.937795E+0	1.926972E+0	1.853011E+0	1.920809E+0	1.919571E+0	1.907484E+0	1.882679E+0	1.826196E+0	1.841720E+0	1.926003E+0	1.890612E+0	1.917723E+0	1.928872E+0	1.841751E+0	1.870624E+0	1.893422E+0	1.877801E+0	1.861756E+0	1.862183E+0	1.902899E+0	1.893709E+0	1.925942E+0	1.880424E+0	1.906932E+0	1.938025E+0	1.802565E+0	1.932582E+0	1.836887E+0	1.898104E+0	1.916112E+0	1.908111E+0	1.842674E+0	1.913685E+0	1.899972E+0	1.866752E+0	1.790348E+0	1.869481E+0	1.802929E+0	1.935978E+0	1.862962E+0	1.877434E+0	1.900126E+0	1.834392E+0	1.873844E+0	1.836148E+0	1.876112E+0	1.852501E+0	1.872084E+0	1.902908E+0	1.810290E+0	1.884784E+0	1.789849E+0	1.870409E+0	1.890628E+0	1.834001E+0	1.881360E+0	1.832504E+0	1.905739E+0	1.868803E+0	1.763169E+0	1.798485E+0	1.910872E+0	1.883136E+0	1.845694E+0	1.850707E+0	1.834281E+0	1.809330E+0	1.815095E+0	1.865312E+0	1.860618E+0	1.733156E+0	1.813095E+0	1.888556E+0	1.859940E+0	1.884933E+0	1.837518E+0	1.811224E+0	1.869029E+0	1.826815E+0	1.869630E+0	1.850218E+0	1.822123E+0	1.745682E+0	1.819799E+0	1.819994E+0	1.884078E+0
5.402630E+2	1.820812E+0	1.824858E+0	1.854646E+0	1.768444E+0	1.843362E+0	1.796439E+0	1.817235E+0	1.815410E+0	1.812940E+0	1.810882E+0	1.806027E+0	1.788633E+0	1.787057E+0	1.808600E+0	1.797944E+0	1.812708E+0	1.829903E+0	1.798187E+0	1.750031E+0	1.789941E+0	1.820273E+0	1.835271E+0	1.810765E+0	1.711583E+0	1.848294E+0	1.808402E+0	1.798483E+0	1.805563E+0	1.798818E+0	1.859921E+0	1.756977E+0	1.718445E+0	1.814139E+0	1.681695E+0	1.832479E+0	1.840610E+0	1.810016E+0	1.849420E+0	1.755400E+0	1.762154E+0	1.801214E+0	1.752219E+0	1.810095E+0	1.767938E+0	1.841512E+0	1.723042E+0	1.761303E+0	1.760827E+0	1.813582E+0	1.813497E+0	1.810875E+0	1.715426E+0	1.820832E+0	1.708032E+0	1.800186E+0	1.860450E+0	1.787737E+0	1.814727E+0	1.778744E+0	1.848510E+0	1.841029E+0	1.759747E+0	1.754845E+0	1.730809E+0	1.752715E+0	1.817739E+0	1.757886E+0	1.834475E+0	1.778780E+0	1.875235E+0	1.784699E+0	1.788996E+0	1.835772E+0	1.757154E+0	1.750608E+0	1.767789E+0	1.770972E+0	1.771141E+0	1.763083E+0	1.793771E+0	1.735181E+0	1.739853E+0	1.849884E+0	1.738237E+0	1.819114E+0	1.774134E+0	1.751947E+0	1.748762E+0	1.762520E+0	1.766237E+0	1.796464E+0	1.794443E+0	1.744023E+0	1.781537E+0	1.760271E+0	1.785816E+0	1.739822E+0	1.749820E+0	1.719541E+0	1.731972E+0	1.767323E+0	1.801951E+0	1.754369E+0	1.694687E+0	1.803262E+0	1.773917E+0	1.784213E+0	1.708909E+0	1.785597E+0	1.785224E+0	1.775439E+0	1.730527E+0	1.796835E+0	1.721019E+0	1.782961E+0	1.695489E+0	1.837914E+0	1.745214E+0	1.756263E+0	1.753758E+0	1.802056E+0	1.765957E+0	1.739485E+0	1.768991E+0	1.770027E+0	1.713813E+0	1.806198E+0	1.763002E+0	1.737796E+0	1.769624E+0	1.861447E+0	1.756828E+0	1.719406E+0	1.789383E+0	1.732361E+0	1.797117E+0	1.771491E+0	1.722071E+0	1.778683E+0	1.770622E+0	1.701216E+0	1.650617E+0	1.730290E+0	1.761640E+0	1.790883E+0	1.768375E+0	1.727833E+0	1.757242E+0	1.703422E+0	1.782499E+0	1.840143E+0	1.641904E+0	1.711911E+0	1.747137E+0	1.743396E+0	1.736314E+0	1.698437E+0	1.737389E+0	1.691488E+0	1.767032E+0	1.769902E+0	1.682492E+0	1.740735E+0	1.713251E+0	1.726951E+0	1.648660E+0	1.711322E+0	1.712230E+0	1.746574E+0	1.688714E+0	1.842711E+0	1.717053E+0
5.405240E+2	1.747432E+0	1.676743E+0	1.673433E+0	1.708125E+0	1.725817E+0	1.695538E+0	1.642789E+0	1.744224E+0	1.716793E+0	1.735736E+0	1.722929E+0	1.712369E+0	1.711702E+0	1.697850E+0	1.676578E+0	1.659984E+0	1.722598E+0	1.721946E+0	1.689929E+0	1.676809E+0	1.706876E+0	1.739218E+0	1.765558E+0	1.808726E+0	1.660670E+0	1.692453E+0	1.712709E+0	1.719401E+0	1.717574E+0	1.743341E+0	1.644166E+0	1.645008E+0	1.727131E+0	1.625107E+0	1.712634E+0	1.714286E+0	1.697978E+0	1.718460E+0	1.670007E+0	1.686458E+0	1.753665E+0	1.740351E+0	1.706489E+0	1.654410E+0	1.666747E+0	1.697913E+0	1.699448E+0	1.727584E+0	1.691583E+0	1.720530E+0	1.717008E+0	1.648239E+0	1.744837E+0	1.617911E+0	1.682918E+0	1.692041E+0	1.647790E+0	1.711308E+0	1.695505E+0	1.704703E+0	1.636226E+0	1.697023E+0	1.642317E+0	1.659514E+0	1.706750E+0	1.694238E+0	1.654631E+0	1.718422E+0	1.753565E+0	1.707148E+0	1.681036E+0	1.658847E+0	1.681476E+0	1.681713E+0	1.616991E+0	1.717217E+0	1.689695E+0	1.669593E+0	1.617899E+0	1.730160E+0	1.669506E+0	1.615848E+0	1.687911E+0	1.678554E+0	1.685909E+0	1.699347E+0	1.679272E+0	1.737666E+0	1.672580E+0	1.671456E+0	1.690767E+0	1.715394E+0	1.615010E+0	1.638544E+0	1.727103E+0	1.656011E+0	1.633596E+0	1.757042E+0	1.678162E+0	1.716659E+0	1.684475E+0	1.671701E+0	1.663533E+0	1.716556E+0	1.732314E+0	1.617933E+0	1.672126E+0	1.753250E+0	1.711218E+0	1.698105E+0	1.724601E+0	1.649482E+0	1.684476E+0	1.604390E+0	1.645151E+0	1.595936E+0	1.702832E+0	1.637446E+0	1.718309E+0	1.650621E+0	1.732851E+0	1.667497E+0	1.677335E+0	1.640103E+0	1.748419E+0	1.690123E+0	1.677046E+0	1.681918E+0	1.707028E+0	1.639291E+0	1.615606E+0	1.684896E+0	1.689787E+0	1.640221E+0	1.706107E+0	1.652473E+0	1.720903E+0	1.602307E+0	1.684627E+0	1.735452E+0	1.656445E+0	1.674733E+0	1.680819E+0	1.672522E+0	1.741010E+0	1.648989E+0	1.684827E+0	1.693638E+0	1.693066E+0	1.618343E+0	1.696085E+0	1.617543E+0	1.624424E+0	1.583113E+0	1.627812E+0	1.687094E+0	1.668715E+0	1.658560E+0	1.672574E+0	1.662944E+0	1.654836E+0	1.659857E+0	1.722902E+0	1.579460E+0	1.632528E+0	1.625519E+0	1.701826E+0	1.643524E+0	1.702640E+0	1.680688E+0	1.739140E+0	1.648358E+0
5.407630E+2	1.674526E+0	1.657886E+0	1.660743E+0	1.665277E+0	1.741083E+0	1.702015E+0	1.705853E+0	1.717926E+0	1.720784E+0	1.678782E+0	1.655564E+0	1.635099E+0	1.644856E+0	1.647194E+0	1.661890E+0	1.683723E+0	1.625569E+0	1.662593E+0	1.617873E+0	1.648944E+0	1.664635E+0	1.716463E+0	1.695206E+0	1.672236E+0	1.761549E+0	1.707393E+0	1.677284E+0	1.678114E+0	1.696781E+0	1.664462E+0	1.729601E+0	1.714457E+0	1.714907E+0	1.602724E+0	1.689669E+0	1.669851E+0	1.676086E+0	1.684987E+0	1.624413E+0	1.604414E+0	1.689319E+0	1.562485E+0	1.684586E+0	1.680664E+0	1.682832E+0	1.590352E+0	1.676788E+0	1.621201E+0	1.704057E+0	1.648913E+0	1.736489E+0	1.585092E+0	1.631867E+0	1.619412E+0	1.661007E+0	1.687439E+0	1.727860E+0	1.647466E+0	1.648724E+0	1.737047E+0	1.603219E+0	1.632841E+0	1.594702E+0	1.616883E+0	1.665938E+0	1.628649E+0	1.680016E+0	1.651544E+0	1.689883E+0	1.706664E+0	1.665219E+0	1.614810E+0	1.698917E+0	1.625969E+0	1.644040E+0	1.653465E+0	1.594564E+0	1.670132E+0	1.613876E+0	1.705704E+0	1.639754E+0	1.637283E+0	1.605729E+0	1.629170E+0	1.625865E+0	1.667635E+0	1.671905E+0	1.686051E+0	1.643477E+0	1.614557E+0	1.744599E+0	1.619886E+0	1.651423E+0	1.705983E+0	1.665129E+0	1.651265E+0	1.663584E+0	1.700587E+0	1.681681E+0	1.688972E+0	1.641136E+0	1.660163E+0	1.627011E+0	1.682553E+0	1.678535E+0	1.646749E+0	1.591135E+0	1.646832E+0	1.683773E+0	1.620675E+0	1.648260E+0	1.562287E+0	1.690420E+0	1.658812E+0	1.660100E+0	1.670808E+0	1.684398E+0	1.639019E+0	1.699218E+0	1.645250E+0	1.667664E+0	1.572615E+0	1.626985E+0	1.642474E+0	1.699570E+0	1.654912E+0	1.610449E+0	1.590869E+0	1.659366E+0	1.611612E+0	1.670864E+0	1.624131E+0	1.646904E+0	1.650240E+0	1.613646E+0	1.634206E+0	1.652281E+0	1.572709E+0	1.631480E+0	1.701623E+0	1.704591E+0	1.589146E+0	1.659098E+0	1.613264E+0	1.631442E+0	1.591641E+0	1.654269E+0	1.651202E+0	1.671608E+0	1.621306E+0	1.658506E+0	1.630510E+0	1.614984E+0	1.687338E+0	1.633655E+0	1.587785E+0	1.605860E+0	1.631685E+0	1.660985E+0	1.610155E+0	1.598166E+0	1.663437E+0	1.673771E+0	1.567065E+0	1.636810E+0	1.563827E+0	1.616090E+0	1.656848E+0	1.703298E+0	1.582220E+0	1.644196E+0	1.619908E+0
5.410240E+2	1.640067E+0	1.642203E+0	1.651857E+0	1.636971E+0	1.655729E+0	1.632802E+0	1.579489E+0	1.684152E+0	1.708010E+0	1.691137E+0	1.611128E+0	1.633139E+0	1.671166E+0	1.638474E+0	1.655817E+0	1.654625E+0	1.686962E+0	1.616427E+0	1.554428E+0	1.632198E+0	1.608448E+0	1.583785E+0	1.660028E+0	1.697928E+0	1.672762E+0	1.663953E+0	1.629910E+0	1.593610E+0	1.630797E+0	1.667700E+0	1.614061E+0	1.612898E+0	1.675477E+0	1.621300E+0	1.622275E+0	1.671625E+0	1.592571E+0	1.604550E+0	1.610823E+0	1.645974E+0	1.641696E+0	1.624553E+0	1.656707E+0	1.688858E+0	1.594193E+0	1.676068E+0	1.674701E+0	1.623325E+0	1.676369E+0	1.612709E+0	1.654708E+0	1.584107E+0	1.687352E+0	1.644912E+0	1.702165E+0	1.650825E+0	1.693297E+0	1.604145E+0	1.628641E+0	1.680865E+0	1.699429E+0	1.609148E+0	1.609323E+0	1.617824E+0	1.699385E+0	1.596669E+0	1.619433E+0	1.639295E+0	1.691480E+0	1.668410E+0	1.555933E+0	1.611342E+0	1.560118E+0	1.670598E+0	1.640935E+0	1.699294E+0	1.589286E+0	1.669010E+0	1.591506E+0	1.641861E+0	1.635963E+0	1.600142E+0	1.691444E+0	1.579070E+0	1.598357E+0	1.614050E+0	1.632107E+0	1.629973E+0	1.612821E+0	1.588701E+0	1.687103E+0	1.653405E+0	1.612161E+0	1.623179E+0	1.755996E+0	1.598482E+0	1.653484E+0	1.571343E+0	1.692480E+0	1.593203E+0	1.592541E+0	1.661647E+0	1.640624E+0	1.617142E+0	1.683681E+0	1.638744E+0	1.566510E+0	1.636239E+0	1.663250E+0	1.603712E+0	1.644415E+0	1.568149E+0	1.608413E+0	1.614987E+0	1.672079E+0	1.613062E+0	1.672851E+0	1.586523E+0	1.639837E+0	1.617384E+0	1.654054E+0	1.539965E+0	1.577329E+0	1.556940E+0	1.645627E+0	1.565043E+0	1.594003E+0	1.612309E+0	1.617644E+0	1.605108E+0	1.552345E+0	1.655664E+0	1.654215E+0	1.591892E+0	1.625365E+0	1.648358E+0	1.605960E+0	1.609394E+0	1.587360E+0	1.593316E+0	1.690822E+0	1.522227E+0	1.603580E+0	1.614389E+0	1.620801E+0	1.548480E+0	1.644269E+0	1.604038E+0	1.550906E+0	1.538783E+0	1.615270E+0	1.585195E+0	1.594406E+0	1.642540E+0	1.597429E+0	1.591746E+0	1.684491E+0	1.624123E+0	1.646972E+0	1.602608E+0	1.627443E+0	1.617953E+0	1.576876E+0	1.564616E+0	1.604112E+0	1.625379E+0	1.580428E+0	1.576299E+0	1.628683E+0	1.588435E+0	1.552351E+0	1.581536E+0
5.412530E+2	1.591674E+0	1.595261E+0	1.560906E+0	1.636304E+0	1.636950E+0	1.546291E+0	1.554941E+0	1.601936E+0	1.610023E+0	1.589441E+0	1.557393E+0	1.564902E+0	1.525305E+0	1.564659E+0	1.630993E+0	1.521377E+0	1.571258E+0	1.536429E+0	1.508314E+0	1.622145E+0	1.566806E+0	1.526088E+0	1.567888E+0	1.669824E+0	1.566254E+0	1.570278E+0	1.664297E+0	1.552585E+0	1.653753E+0	1.597487E+0	1.577088E+0	1.555730E+0	1.641426E+0	1.583787E+0	1.563685E+0	1.577106E+0	1.622274E+0	1.594246E+0	1.582514E+0	1.584014E+0	1.576720E+0	1.535368E+0	1.529421E+0	1.548431E+0	1.600958E+0	1.544108E+0	1.615183E+0	1.568564E+0	1.608103E+0	1.536156E+0	1.605922E+0	1.528589E+0	1.606831E+0	1.519450E+0	1.585514E+0	1.492325E+0	1.591605E+0	1.599035E+0	1.568660E+0	1.585343E+0	1.574287E+0	1.570084E+0	1.579572E+0	1.579901E+0	1.630013E+0	1.544038E+0	1.531028E+0	1.602837E+0	1.542587E+0	1.572935E+0	1.528105E+0	1.595564E+0	1.550587E+0	1.571220E+0	1.465852E+0	1.608656E+0	1.566117E+0	1.511179E+0	1.509722E+0	1.568716E+0	1.580094E+0	1.517329E+0	1.585719E+0	1.519254E+0	1.591467E+0	1.505682E+0	1.551419E+0	1.552874E+0	1.547309E+0	1.531312E+0	1.603506E+0	1.585150E+0	1.587653E+0	1.564455E+0	1.638148E+0	1.548116E+0	1.598062E+0	1.505066E+0	1.551721E+0	1.486802E+0	1.567920E+0	1.585086E+0	1.554305E+0	1.516651E+0	1.589442E+0	1.547572E+0	1.545038E+0	1.560462E+0	1.606025E+0	1.572375E+0	1.580472E+0	1.516196E+0	1.574620E+0	1.549766E+0	1.587487E+0	1.526977E+0	1.585027E+0	1.516665E+0	1.548726E+0	1.563603E+0	1.573574E+0	1.550244E+0	1.553378E+0	1.479469E+0	1.631072E+0	1.541746E+0	1.587926E+0	1.545550E+0	1.597178E+0	1.485836E+0	1.523573E+0	1.499986E+0	1.536989E+0	1.599433E+0	1.520287E+0	1.544109E+0	1.570638E+0	1.537819E+0	1.487347E+0	1.561275E+0	1.589244E+0	1.535343E+0	1.551202E+0	1.560646E+0	1.623114E+0	1.515637E+0	1.551531E+0	1.532564E+0	1.579440E+0	1.539838E+0	1.512104E+0	1.561072E+0	1.488969E+0	1.556297E+0	1.514904E+0	1.500077E+0	1.602784E+0	1.539052E+0	1.591793E+0	1.559171E+0	1.523607E+0	1.573123E+0	1.543997E+0	1.499469E+0	1.571569E+0	1.542455E+0	1.598517E+0	1.431934E+0	1.528884E+0	1.557006E+0	1.530226E+0	1.447889E+0
5.415190E+2	1.428494E+0	1.495177E+0	1.434841E+0	1.497535E+0	1.450028E+0	1.486466E+0	1.441160E+0	1.464643E+0	1.372354E+0	1.439382E+0	1.428037E+0	1.455825E+0	1.401122E+0	1.393398E+0	1.411980E+0	1.457020E+0	1.438008E+0	1.427935E+0	1.422651E+0	1.479346E+0	1.424925E+0	1.453791E+0	1.412893E+0	1.500808E+0	1.435700E+0	1.434954E+0	1.487182E+0	1.427988E+0	1.437482E+0	1.452816E+0	1.432321E+0	1.447569E+0	1.450602E+0	1.367752E+0	1.437414E+0	1.410151E+0	1.416551E+0	1.458982E+0	1.440150E+0	1.454051E+0	1.488044E+0	1.418803E+0	1.380856E+0	1.434289E+0	1.453761E+0	1.421033E+0	1.419120E+0	1.442663E+0	1.442424E+0	1.490440E+0	1.398402E+0	1.438819E+0	1.408247E+0	1.436367E+0	1.449640E+0	1.460698E+0	1.454492E+0	1.451751E+0	1.463782E+0	1.473250E+0	1.395312E+0	1.374482E+0	1.388630E+0	1.406113E+0	1.406166E+0	1.403919E+0	1.392445E+0	1.444273E+0	1.466451E+0	1.483055E+0	1.427228E+0	1.385522E+0	1.391030E+0	1.505844E+0	1.379889E+0	1.424297E+0	1.426168E+0	1.379059E+0	1.374020E+0	1.462547E+0	1.462681E+0	1.340305E+0	1.464321E+0	1.433124E+0	1.415516E+0	1.349879E+0	1.443744E+0	1.411645E+0	1.404465E+0	1.427085E+0	1.464614E+0	1.413021E+0	1.445427E+0	1.473721E+0	1.392806E+0	1.386095E+0	1.434329E+0	1.449502E+0	1.395989E+0	1.353395E+0	1.502951E+0	1.470588E+0	1.455247E+0	1.408134E+0	1.445192E+0	1.450630E+0	1.373122E+0	1.415486E+0	1.417465E+0	1.469365E+0	1.506759E+0	1.391221E+0	1.469164E+0	1.420565E+0	1.360497E+0	1.419129E+0	1.462592E+0	1.423835E+0	1.440446E+0	1.448936E+0	1.490476E+0	1.422236E+0	1.444814E+0	1.408648E+0	1.419498E+0	1.468830E+0	1.411611E+0	1.404637E+0	1.504569E+0	1.414052E+0	1.409248E+0	1.442151E+0	1.443205E+0	1.411904E+0	1.431398E+0	1.432212E+0	1.438969E+0	1.405805E+0	1.437252E+0	1.483959E+0	1.446202E+0	1.367982E+0	1.371641E+0	1.399597E+0	1.408055E+0	1.355036E+0	1.476027E+0	1.349448E+0	1.464216E+0	1.406741E+0	1.382156E+0	1.448641E+0	1.383754E+0	1.380432E+0	1.343573E+0	1.450726E+0	1.401624E+0	1.425633E+0	1.453764E+0	1.380621E+0	1.399495E+0	1.402108E+0	1.403440E+0	1.368188E+0	1.453274E+0	1.475102E+0	1.464066E+0	1.418136E+0	1.409288E+0	1.391137E+0	1.391704E+0	1.333364E+0
5.417650E+2	1.260789E+0	1.286530E+0	1.237721E+0	1.297683E+0	1.322982E+0	1.261076E+0	1.303417E+0	1.301949E+0	1.284882E+0	1.327612E+0	1.275391E+0	1.301942E+0	1.278983E+0	1.214012E+0	1.285215E+0	1.256348E+0	1.325319E+0	1.278767E+0	1.265011E+0	1.321683E+0	1.301877E+0	1.279427E+0	1.271638E+0	1.316457E+0	1.295161E+0	1.343904E+0	1.319068E+0	1.325262E+0	1.250396E+0	1.256275E+0	1.329839E+0	1.315313E+0	1.267751E+0	1.264568E+0	1.312883E+0	1.324756E+0	1.285756E+0	1.346933E+0	1.288275E+0	1.280064E+0	1.255405E+0	1.257344E+0	1.333380E+0	1.334964E+0	1.257484E+0	1.265516E+0	1.249956E+0	1.264192E+0	1.312564E+0	1.249012E+0	1.273479E+0	1.257542E+0	1.297626E+0	1.283444E+0	1.298343E+0	1.294892E+0	1.306451E+0	1.255037E+0	1.258049E+0	1.293403E+0	1.323168E+0	1.314373E+0	1.308337E+0	1.226501E+0	1.290225E+0	1.276113E+0	1.252871E+0	1.315111E+0	1.267353E+0	1.341728E+0	1.269225E+0	1.293514E+0	1.247711E+0	1.319626E+0	1.265769E+0	1.264156E+0	1.272810E+0	1.319296E+0	1.260556E+0	1.287736E+0	1.241889E+0	1.253388E+0	1.300107E+0	1.243913E+0	1.258340E+0	1.294225E+0	1.330980E+0	1.291097E+0	1.290305E+0	1.284194E+0	1.306231E+0	1.266187E+0	1.271009E+0	1.254274E+0	1.273189E+0	1.340574E+0	1.331698E+0	1.315257E+0	1.281737E+0	1.300889E+0	1.298490E+0	1.315980E+0	1.292299E+0	1.236881E+0	1.331307E+0	1.223135E+0	1.276418E+0	1.293788E+0	1.253704E+0	1.256929E+0	1.285657E+0	1.232319E+0	1.295590E+0	1.287816E+0	1.294861E+0	1.269795E+0	1.314387E+0	1.272264E+0	1.294519E+0	1.260494E+0	1.325392E+0	1.261578E+0	1.219773E+0	1.289943E+0	1.278918E+0	1.256463E+0	1.263595E+0	1.271985E+0	1.281325E+0	1.253240E+0	1.282027E+0	1.313646E+0	1.297777E+0	1.272128E+0	1.282320E+0	1.320704E+0	1.273890E+0	1.277474E+0	1.249471E+0	1.270593E+0	1.309970E+0	1.235749E+0	1.290610E+0	1.311608E+0	1.332366E+0	1.193148E+0	1.349406E+0	1.256911E+0	1.262071E+0	1.251492E+0	1.296410E+0	1.293502E+0	1.249095E+0	1.231597E+0	1.269276E+0	1.254922E+0	1.245277E+0	1.290355E+0	1.321808E+0	1.248994E+0	1.282459E+0	1.259473E+0	1.312793E+0	1.288272E+0	1.296020E+0	1.325036E+0	1.302908E+0	1.328208E+0	1.278576E+0	1.249331E+0	1.255985E+0	1.304977E+0
5.420320E+2	1.067909E+0	1.115392E+0	1.032956E+0	1.132004E+0	1.050051E+0	1.071832E+0	1.103412E+0	1.084660E+0	1.088349E+0	1.121613E+0	1.053296E+0	1.047143E+0	1.080559E+0	1.061243E+0	1.090087E+0	1.066280E+0	1.077567E+0	1.092596E+0	1.040188E+0	1.113149E+0	1.079643E+0	1.142498E+0	1.128999E+0	1.134395E+0	1.121322E+0	1.098011E+0	1.054098E+0	1.020498E+0	1.057610E+0	1.117242E+0	1.129503E+0	1.072785E+0	1.067357E+0	1.079337E+0	1.046347E+0	1.128082E+0	1.070809E+0	1.092219E+0	1.143440E+0	1.097267E+0	1.076658E+0	1.137487E+0	1.082084E+0	1.082715E+0	1.063343E+0	1.070386E+0	1.110467E+0	1.064310E+0	1.066571E+0	1.064755E+0	1.093354E+0	1.043386E+0	1.068307E+0	1.054275E+0	1.139263E+0	1.058049E+0	1.107002E+0	1.129123E+0	1.070653E+0	1.086114E+0	1.068922E+0	1.072614E+0	1.077417E+0	1.074307E+0	1.110864E+0	1.061878E+0	1.058467E+0	1.068927E+0	1.121857E+0	1.063981E+0	1.099582E+0	1.116050E+0	1.078588E+0	1.050233E+0	1.061878E+0	1.106523E+0	1.096016E+0	1.125163E+0	1.043406E+0	1.049105E+0	1.075655E+0	1.089968E+0	1.122555E+0	1.058494E+0	1.067322E+0	1.126216E+0	1.076500E+0	1.066204E+0	1.065111E+0	1.106901E+0	1.117271E+0	1.122572E+0	1.072345E+0	1.102115E+0	1.060448E+0	1.089680E+0	1.125077E+0	1.129837E+0	1.102982E+0	1.079921E+0	1.034614E+0	1.069560E+0	1.090734E+0	1.111812E+0	1.049019E+0	1.120121E+0	1.074366E+0	1.083520E+0	1.140552E+0	1.112787E+0	1.095707E+0	1.074392E+0	1.115097E+0	1.097306E+0	1.085789E+0	1.098120E+0	1.099182E+0	1.115425E+0	1.103660E+0	1.053654E+0	1.083252E+0	1.029923E+0	1.046929E+0	1.072292E+0	1.048822E+0	1.025138E+0	1.068691E+0	1.069809E+0	1.121960E+0	1.061804E+0	1.075894E+0	1.083353E+0	1.078665E+0	1.058988E+0	1.085922E+0	1.089381E+0	1.144393E+0	1.053191E+0	1.050655E+0	1.092483E+0	1.126272E+0	1.085141E+0	1.099839E+0	1.068268E+0	1.106595E+0	1.041918E+0	1.078442E+0	1.072117E+0	1.082801E+0	1.077667E+0	1.031961E+0	1.047800E+0	1.108618E+0	1.058894E+0	1.052810E+0	1.079941E+0	1.058347E+0	1.040987E+0	1.053647E+0	1.124591E+0	1.134610E+0	1.087743E+0	1.058793E+0	1.064253E+0	1.098799E+0	1.040751E+0	1.083779E+0	1.082205E+0	1.117334E+0	1.125253E+0	1.110893E+0	9.786634E-1
5.422670E+2	1.012440E+0	1.021388E+0	9.875731E-1	9.612278E-1	9.854900E-1	9.705365E-1	1.033568E+0	1.013986E+0	9.941304E-1	9.994388E-1	9.537774E-1	1.028656E+0	9.613615E-1	9.835945E-1	9.549434E-1	1.002293E+0	9.705608E-1	9.788119E-1	9.984053E-1	1.014187E+0	9.508184E-1	9.868539E-1	9.979280E-1	1.032716E+0	9.835817E-1	1.012046E+0	9.475569E-1	1.022534E+0	1.029798E+0	1.015867E+0	9.746999E-1	1.002868E+0	9.960522E-1	9.505497E-1	9.838744E-1	9.750041E-1	9.590736E-1	9.581558E-1	9.855534E-1	1.025329E+0	9.743011E-1	9.836479E-1	9.940753E-1	1.019104E+0	9.871288E-1	9.740132E-1	1.002692E+0	9.757596E-1	1.007691E+0	9.933849E-1	9.867340E-1	9.456055E-1	9.598878E-1	9.611145E-1	1.028580E+0	9.870589E-1	9.564183E-1	9.934658E-1	9.745851E-1	9.993133E-1	1.004125E+0	9.756465E-1	1.016828E+0	9.937411E-1	1.001226E+0	9.355341E-1	9.609494E-1	1.001082E+0	9.815239E-1	1.020362E+0	9.870127E-1	9.588188E-1	9.845037E-1	9.900652E-1	1.000065E+0	9.753067E-1	9.911419E-1	1.008579E+0	9.587082E-1	9.704906E-1	9.708654E-1	9.400056E-1	9.933058E-1	9.591138E-1	9.949220E-1	9.884096E-1	9.895475E-1	9.778473E-1	9.802773E-1	9.739655E-1	1.016453E+0	9.731965E-1	9.812076E-1	1.010935E+0	9.932262E-1	9.554975E-1	1.079733E+0	9.927439E-1	1.001728E+0	1.007745E+0	9.528307E-1	9.978080E-1	9.835412E-1	9.600650E-1	9.854063E-1	9.900091E-1	1.009658E+0	1.000411E+0	1.005831E+0	9.942883E-1	1.000193E+0	9.745382E-1	9.506051E-1	9.901904E-1	9.865542E-1	9.556473E-1	9.704100E-1	9.298628E-1	1.003817E+0	1.021492E+0	9.766471E-1	9.857129E-1	9.866288E-1	9.474790E-1	9.937472E-1	9.643783E-1	9.414004E-1	1.031981E+0	9.796113E-1	9.704041E-1	9.940433E-1	9.986512E-1	1.001622E+0	9.929813E-1	9.629798E-1	9.803909E-1	9.914903E-1	9.592264E-1	9.539766E-1	9.891554E-1	9.800878E-1	9.762813E-1	9.755195E-1	1.019894E+0	9.957747E-1	9.422895E-1	9.899581E-1	9.283312E-1	1.017906E+0	9.393533E-1	9.611168E-1	9.691293E-1	1.020361E+0	9.947116E-1	1.047782E+0	9.519071E-1	1.026315E+0	1.028600E+0	9.430505E-1	9.438170E-1	9.806748E-1	1.014915E+0	1.014780E+0	9.521432E-1	1.036483E+0	9.503152E-1	1.014020E+0	9.784277E-1	9.692759E-1	1.081593E+0	1.088682E+0	1.013651E+0
5.425460E+2	9.248521E-1	9.412884E-1	8.781295E-1	8.875395E-1	9.400688E-1	9.078555E-1	8.921744E-1	9.549074E-1	8.702983E-1	9.210092E-1	9.253069E-1	9.546200E-1	9.094631E-1	9.189532E-1	9.638110E-1	8.478526E-1	9.508778E-1	8.925483E-1	9.452038E-1	9.027054E-1	9.237041E-1	9.542452E-1	8.847492E-1	9.214905E-1	9.376267E-1	9.765046E-1	9.212325E-1	9.621674E-1	9.314939E-1	9.358115E-1	9.147656E-1	9.566869E-1	8.945806E-1	9.374087E-1	8.981092E-1	9.277559E-1	8.962240E-1	9.388715E-1	8.876967E-1	9.349058E-1	9.223985E-1	9.520187E-1	9.528376E-1	9.016908E-1	9.498942E-1	9.277096E-1	9.839195E-1	9.087249E-1	9.221784E-1	9.392012E-1	9.948123E-1	9.048535E-1	9.246295E-1	8.800186E-1	9.328076E-1	9.315224E-1	9.348520E-1	9.022956E-1	8.955510E-1	9.277472E-1	9.156136E-1	9.167872E-1	9.363328E-1	8.938451E-1	9.183581E-1	8.976982E-1	8.791226E-1	8.579448E-1	9.186938E-1	9.361955E-1	9.108023E-1	9.159932E-1	9.264754E-1	9.167192E-1	9.095825E-1	9.141045E-1	8.759087E-1	9.320335E-1	9.360514E-1	8.784444E-1	9.373658E-1	8.858567E-1	9.414028E-1	8.744535E-1	9.016418E-1	9.321954E-1	9.240322E-1	9.376500E-1	9.218770E-1	9.548181E-1	9.430552E-1	9.470101E-1	9.808918E-1	9.399116E-1	9.207085E-1	8.683618E-1	9.595311E-1	9.480966E-1	8.772993E-1	9.315960E-1	9.080978E-1	9.291117E-1	9.639439E-1	9.055807E-1	9.204611E-1	9.315664E-1	9.623685E-1	9.138218E-1	9.243409E-1	9.458414E-1	9.188680E-1	9.379675E-1	9.055138E-1	9.250366E-1	9.128992E-1	9.043944E-1	9.248718E-1	9.006890E-1	9.079773E-1	8.908946E-1	9.349285E-1	8.934285E-1	9.602493E-1	9.304982E-1	8.844002E-1	9.196836E-1	9.463937E-1	8.846536E-1	9.257934E-1	9.106322E-1	9.346811E-1	9.383988E-1	9.067905E-1	9.255678E-1	9.389328E-1	9.535485E-1	8.529899E-1	9.083282E-1	9.581107E-1	9.420286E-1	9.035579E-1	9.096394E-1	9.332833E-1	9.501673E-1	9.690462E-1	8.643908E-1	9.469278E-1	8.691790E-1	9.433409E-1	8.953670E-1	8.962433E-1	9.298744E-1	8.758964E-1	9.348453E-1	8.993044E-1	8.748453E-1	9.587124E-1	9.270337E-1	8.982549E-1	9.013532E-1	9.473845E-1	9.147133E-1	9.462730E-1	9.111085E-1	8.951331E-1	9.562675E-1	9.655784E-1	9.102824E-1	8.659286E-1	9.325421E-1	8.714607E-1	8.494129E-1
5.427550E+2	9.053711E-1	9.176797E-1	8.900924E-1	8.853284E-1	9.103384E-1	9.412733E-1	9.100356E-1	8.808617E-1	9.184473E-1	8.646854E-1	9.101148E-1	8.511128E-1	8.893330E-1	9.267211E-1	9.089596E-1	9.343444E-1	8.891316E-1	9.408032E-1	8.737688E-1	9.256644E-1	9.054994E-1	9.250599E-1	9.267809E-1	9.123755E-1	8.914763E-1	9.035023E-1	8.644245E-1	8.985635E-1	9.146533E-1	9.175563E-1	9.007549E-1	8.760776E-1	8.956932E-1	9.190262E-1	9.470507E-1	8.894507E-1	8.985108E-1	9.046304E-1	9.329145E-1	9.104289E-1	9.244131E-1	9.482012E-1	9.448838E-1	9.025434E-1	8.849074E-1	8.601512E-1	9.125330E-1	8.830571E-1	9.140491E-1	9.216293E-1	9.387027E-1	8.548309E-1	8.542787E-1	8.930031E-1	8.963799E-1	9.249511E-1	9.467059E-1	8.685460E-1	8.638454E-1	8.870574E-1	8.659599E-1	8.968162E-1	9.262397E-1	9.166295E-1	8.899197E-1	8.775893E-1	8.978989E-1	9.645133E-1	8.770685E-1	9.623429E-1	8.602716E-1	8.935868E-1	8.982278E-1	9.331440E-1	9.133305E-1	9.083657E-1	8.845236E-1	9.480119E-1	9.175508E-1	8.813517E-1	8.498954E-1	8.726856E-1	9.279187E-1	9.364397E-1	8.907138E-1	9.467379E-1	9.321142E-1	8.913012E-1	9.170222E-1	9.134216E-1	8.947988E-1	9.494921E-1	8.846112E-1	9.058051E-1	8.911573E-1	9.237894E-1	9.558123E-1	9.167938E-1	8.880744E-1	8.776726E-1	8.733026E-1	8.921317E-1	9.064183E-1	8.973254E-1	8.746802E-1	9.170626E-1	8.963725E-1	8.979986E-1	9.165017E-1	9.163579E-1	9.352431E-1	8.823834E-1	9.207775E-1	9.077638E-1	9.599120E-1	9.003153E-1	8.641684E-1	8.785741E-1	9.457870E-1	9.139022E-1	9.238276E-1	9.327649E-1	9.110357E-1	9.057367E-1	9.186994E-1	9.015569E-1	9.049794E-1	8.804684E-1	8.944784E-1	8.518939E-1	9.176989E-1	8.985661E-1	9.212103E-1	9.265379E-1	8.891706E-1	9.288717E-1	9.105198E-1	9.192095E-1	9.228520E-1	8.673156E-1	9.551607E-1	9.027063E-1	8.644447E-1	9.249668E-1	8.964892E-1	8.357603E-1	8.827854E-1	8.992832E-1	9.515571E-1	8.691471E-1	9.320600E-1	8.902192E-1	9.195775E-1	8.876512E-1	9.170627E-1	9.050742E-1	9.160336E-1	9.093157E-1	8.857232E-1	9.024259E-1	9.318158E-1	9.103658E-1	8.928662E-1	8.571255E-1	8.773907E-1	9.213645E-1	9.179232E-1	9.103960E-1	8.790740E-1	8.752896E-1	9.571030E-1	1.012983E+0
5.430120E+2	9.738718E-1	9.937352E-1	1.008436E+0	1.002730E+0	1.020329E+0	9.970738E-1	9.998300E-1	9.975852E-1	9.839194E-1	1.027306E+0	9.349611E-1	9.532641E-1	9.845498E-1	1.032291E+0	1.004999E+0	9.958533E-1	1.033642E+0	1.031517E+0	9.847371E-1	1.102683E+0	1.028900E+0	9.906321E-1	9.972068E-1	1.039099E+0	9.786152E-1	1.048793E+0	9.791621E-1	9.568125E-1	9.695440E-1	9.990316E-1	9.879986E-1	9.899634E-1	1.001838E+0	9.991234E-1	1.021468E+0	1.068943E+0	9.791528E-1	9.741947E-1	1.011750E+0	1.022420E+0	9.892504E-1	9.657969E-1	1.004183E+0	1.024139E+0	9.941701E-1	9.987523E-1	1.018353E+0	1.045887E+0	9.822025E-1	1.026153E+0	1.001805E+0	9.498534E-1	9.833200E-1	9.720016E-1	1.019952E+0	1.016256E+0	1.007436E+0	9.864390E-1	1.012189E+0	9.818295E-1	1.018882E+0	1.044344E+0	9.546505E-1	9.879763E-1	9.898154E-1	9.994814E-1	9.673484E-1	9.940946E-1	9.632130E-1	1.020536E+0	1.001906E+0	9.929771E-1	1.011595E+0	1.033413E+0	1.008518E+0	1.002778E+0	1.035296E+0	1.070778E+0	9.269982E-1	1.000547E+0	1.003136E+0	9.702560E-1	9.643820E-1	9.837404E-1	1.057607E+0	9.842336E-1	9.978640E-1	9.911529E-1	9.656273E-1	1.015149E+0	1.047317E+0	1.007534E+0	9.796017E-1	1.007492E+0	9.488305E-1	9.727423E-1	1.029899E+0	9.823786E-1	9.995683E-1	9.510254E-1	9.828507E-1	9.861294E-1	9.814735E-1	9.894312E-1	9.791135E-1	1.014077E+0	9.964190E-1	1.032267E+0	1.002899E+0	1.001703E+0	1.010221E+0	9.635557E-1	1.037217E+0	9.869845E-1	9.949626E-1	9.592219E-1	9.903180E-1	9.360607E-1	9.881789E-1	1.002021E+0	9.840327E-1	9.467418E-1	9.648430E-1	9.940763E-1	9.943561E-1	9.915190E-1	1.047661E+0	9.884578E-1	1.021872E+0	9.915173E-1	1.011424E+0	9.806769E-1	1.032755E+0	9.897967E-1	9.972283E-1	1.004909E+0	9.951659E-1	9.632051E-1	9.781796E-1	1.018201E+0	1.029045E+0	9.683026E-1	1.003436E+0	9.906357E-1	9.943344E-1	9.466793E-1	1.005164E+0	9.892486E-1	9.871743E-1	9.673756E-1	1.038583E+0	9.717427E-1	9.788752E-1	9.736551E-1	9.816769E-1	1.070696E+0	9.829600E-1	1.015901E+0	1.033313E+0	9.781261E-1	1.003171E+0	9.823256E-1	1.027385E+0	9.876547E-1	1.020197E+0	9.920071E-1	1.015174E+0	1.024420E+0	9.773660E-1	1.034145E+0	9.227520E-1	1.017595E+0
5.432960E+2	1.203527E+0	1.159334E+0	1.182046E+0	1.253863E+0	1.238892E+0	1.210547E+0	1.198754E+0	1.263830E+0	1.193292E+0	1.242690E+0	1.202466E+0	1.235795E+0	1.199224E+0	1.217964E+0	1.156952E+0	1.219681E+0	1.197735E+0	1.214716E+0	1.153687E+0	1.227880E+0	1.208042E+0	1.201788E+0	1.181206E+0	1.232073E+0	1.260984E+0	1.196571E+0	1.244377E+0	1.170083E+0	1.152629E+0	1.267039E+0	1.206270E+0	1.192429E+0	1.237541E+0	1.194286E+0	1.182788E+0	1.252781E+0	1.205494E+0	1.248684E+0	1.276659E+0	1.209500E+0	1.168251E+0	1.187606E+0	1.204674E+0	1.269737E+0	1.239406E+0	1.221466E+0	1.167211E+0	1.237782E+0	1.207116E+0	1.190696E+0	1.186962E+0	1.171453E+0	1.179414E+0	1.210476E+0	1.246208E+0	1.222516E+0	1.174898E+0	1.195907E+0	1.210177E+0	1.173567E+0	1.212842E+0	1.236024E+0	1.137516E+0	1.207330E+0	1.234661E+0	1.217093E+0	1.209664E+0	1.255208E+0	1.169695E+0	1.233018E+0	1.185199E+0	1.210242E+0	1.160404E+0	1.217496E+0	1.159412E+0	1.206560E+0	1.204107E+0	1.225000E+0	1.128776E+0	1.120635E+0	1.169120E+0	1.175105E+0	1.210229E+0	1.195425E+0	1.181368E+0	1.160172E+0	1.259158E+0	1.210383E+0	1.214655E+0	1.187809E+0	1.234384E+0	1.158282E+0	1.223838E+0	1.170590E+0	1.221188E+0	1.241031E+0	1.235543E+0	1.233238E+0	1.187574E+0	1.217321E+0	1.162254E+0	1.236141E+0	1.271663E+0	1.197946E+0	1.163910E+0	1.231182E+0	1.205080E+0	1.175036E+0	1.200257E+0	1.265387E+0	1.191296E+0	1.188706E+0	1.219749E+0	1.160939E+0	1.218717E+0	1.159501E+0	1.180901E+0	1.200928E+0	1.238279E+0	1.172443E+0	1.196350E+0	1.166791E+0	1.226474E+0	1.181618E+0	1.257444E+0	1.141566E+0	1.210674E+0	1.144026E+0	1.181586E+0	1.164438E+0	1.168483E+0	1.178997E+0	1.240094E+0	1.255204E+0	1.171898E+0	1.178509E+0	1.247121E+0	1.191643E+0	1.203542E+0	1.183561E+0	1.182995E+0	1.177948E+0	1.275092E+0	1.199596E+0	1.227599E+0	1.164591E+0	1.211444E+0	1.179562E+0	1.225649E+0	1.231284E+0	1.132967E+0	1.160251E+0	1.169014E+0	1.196638E+0	1.234225E+0	1.221936E+0	1.179980E+0	1.196323E+0	1.230447E+0	1.196685E+0	1.181082E+0	1.212754E+0	1.225220E+0	1.136795E+0	1.152067E+0	1.173996E+0	1.128101E+0	1.186387E+0	1.148158E+0	1.220203E+0	1.190408E+0	1.253749E+0
5.435270E+2	1.343494E+0	1.330134E+0	1.341024E+0	1.326780E+0	1.386056E+0	1.354199E+0	1.311826E+0	1.333705E+0	1.351682E+0	1.347760E+0	1.363938E+0	1.291335E+0	1.349639E+0	1.312397E+0	1.345955E+0	1.359337E+0	1.343990E+0	1.313810E+0	1.352317E+0	1.355236E+0	1.325180E+0	1.322598E+0	1.367495E+0	1.332976E+0	1.399033E+0	1.331156E+0	1.300055E+0	1.296846E+0	1.296229E+0	1.350187E+0	1.319347E+0	1.381757E+0	1.290355E+0	1.284330E+0	1.345675E+0	1.342229E+0	1.376848E+0	1.365531E+0	1.313166E+0	1.373719E+0	1.256019E+0	1.364330E+0	1.332532E+0	1.315332E+0	1.337911E+0	1.237499E+0	1.341254E+0	1.337418E+0	1.352322E+0	1.310206E+0	1.352919E+0	1.281745E+0	1.289408E+0	1.297156E+0	1.345838E+0	1.362398E+0	1.321739E+0	1.318428E+0	1.392445E+0	1.357314E+0	1.320294E+0	1.300115E+0	1.301647E+0	1.342718E+0	1.302270E+0	1.314777E+0	1.275396E+0	1.322237E+0	1.320943E+0	1.363160E+0	1.357080E+0	1.320948E+0	1.325349E+0	1.312292E+0	1.264531E+0	1.363587E+0	1.269705E+0	1.342357E+0	1.342184E+0	1.330400E+0	1.307264E+0	1.299407E+0	1.294367E+0	1.367202E+0	1.333529E+0	1.329919E+0	1.315866E+0	1.334086E+0	1.255386E+0	1.266241E+0	1.306801E+0	1.333064E+0	1.272503E+0	1.331886E+0	1.347464E+0	1.318239E+0	1.374937E+0	1.317631E+0	1.267912E+0	1.271288E+0	1.296865E+0	1.353931E+0	1.279352E+0	1.299631E+0	1.304004E+0	1.275864E+0	1.286867E+0	1.273634E+0	1.327696E+0	1.341313E+0	1.342269E+0	1.324574E+0	1.305294E+0	1.331611E+0	1.324751E+0	1.317766E+0	1.299210E+0	1.257261E+0	1.342749E+0	1.332334E+0	1.316393E+0	1.303537E+0	1.314721E+0	1.288365E+0	1.292219E+0	1.337220E+0	1.322398E+0	1.294150E+0	1.336615E+0	1.314348E+0	1.326906E+0	1.309328E+0	1.294309E+0	1.311597E+0	1.277071E+0	1.288233E+0	1.305204E+0	1.340762E+0	1.406325E+0	1.274392E+0	1.291026E+0	1.311553E+0	1.334534E+0	1.262674E+0	1.359951E+0	1.270803E+0	1.322113E+0	1.326181E+0	1.322233E+0	1.359949E+0	1.264952E+0	1.269593E+0	1.353191E+0	1.354296E+0	1.296446E+0	1.261830E+0	1.324240E+0	1.303994E+0	1.344165E+0	1.287511E+0	1.280222E+0	1.300000E+0	1.316503E+0	1.298918E+0	1.276020E+0	1.288159E+0	1.363742E+0	1.296288E+0	1.231582E+0	1.319771E+0	1.317325E+0	1.340466E+0
5.437640E+2	1.434619E+0	1.506853E+0	1.489173E+0	1.515352E+0	1.522193E+0	1.466530E+0	1.431976E+0	1.501684E+0	1.469133E+0	1.478768E+0	1.510364E+0	1.547012E+0	1.482243E+0	1.468723E+0	1.470783E+0	1.489114E+0	1.523839E+0	1.473108E+0	1.480002E+0	1.474623E+0	1.463314E+0	1.506252E+0	1.498333E+0	1.495308E+0	1.530248E+0	1.500323E+0	1.504639E+0	1.516016E+0	1.502059E+0	1.449158E+0	1.436546E+0	1.473663E+0	1.557000E+0	1.480183E+0	1.446151E+0	1.484413E+0	1.398746E+0	1.489510E+0	1.493090E+0	1.473579E+0	1.489354E+0	1.499769E+0	1.506990E+0	1.453182E+0	1.461389E+0	1.506422E+0	1.483174E+0	1.474666E+0	1.490523E+0	1.440269E+0	1.502110E+0	1.438627E+0	1.483265E+0	1.432570E+0	1.529799E+0	1.514050E+0	1.516759E+0	1.521191E+0	1.559315E+0	1.456290E+0	1.491466E+0	1.447289E+0	1.425544E+0	1.491477E+0	1.500204E+0	1.410424E+0	1.533959E+0	1.461776E+0	1.402612E+0	1.489202E+0	1.458982E+0	1.453614E+0	1.466711E+0	1.471050E+0	1.471599E+0	1.433447E+0	1.460696E+0	1.458055E+0	1.487178E+0	1.486781E+0	1.426906E+0	1.478285E+0	1.462794E+0	1.444112E+0	1.482417E+0	1.473996E+0	1.499000E+0	1.540926E+0	1.460069E+0	1.457984E+0	1.487159E+0	1.450011E+0	1.436465E+0	1.428112E+0	1.447558E+0	1.447931E+0	1.467625E+0	1.444866E+0	1.479016E+0	1.474814E+0	1.442555E+0	1.502390E+0	1.399621E+0	1.433019E+0	1.463240E+0	1.453947E+0	1.503894E+0	1.531392E+0	1.456946E+0	1.517979E+0	1.536241E+0	1.433854E+0	1.461860E+0	1.473483E+0	1.486757E+0	1.451453E+0	1.442102E+0	1.455120E+0	1.486670E+0	1.505225E+0	1.483308E+0	1.454779E+0	1.451583E+0	1.504623E+0	1.500330E+0	1.516700E+0	1.452541E+0	1.460599E+0	1.447516E+0	1.434088E+0	1.554433E+0	1.507659E+0	1.489128E+0	1.509366E+0	1.446491E+0	1.470225E+0	1.502970E+0	1.419994E+0	1.460375E+0	1.458584E+0	1.518221E+0	1.421528E+0	1.451237E+0	1.455505E+0	1.516563E+0	1.456943E+0	1.464592E+0	1.426122E+0	1.475574E+0	1.437152E+0	1.485292E+0	1.446853E+0	1.384000E+0	1.439396E+0	1.460631E+0	1.529070E+0	1.467805E+0	1.455690E+0	1.448915E+0	1.477019E+0	1.378955E+0	1.440822E+0	1.383712E+0	1.423615E+0	1.440909E+0	1.443663E+0	1.486257E+0	1.407243E+0	1.448288E+0	1.507819E+0	1.452090E+0	1.491330E+0
5.440170E+2	1.485591E+0	1.509622E+0	1.536133E+0	1.523841E+0	1.534675E+0	1.522712E+0	1.458134E+0	1.532681E+0	1.527803E+0	1.555057E+0	1.477270E+0	1.514495E+0	1.497151E+0	1.541822E+0	1.531478E+0	1.487947E+0	1.557557E+0	1.511685E+0	1.501333E+0	1.560255E+0	1.521711E+0	1.449129E+0	1.488977E+0	1.530993E+0	1.502036E+0	1.495698E+0	1.471484E+0	1.495294E+0	1.548724E+0	1.546646E+0	1.454784E+0	1.514084E+0	1.489077E+0	1.492696E+0	1.512624E+0	1.550676E+0	1.470842E+0	1.477063E+0	1.477984E+0	1.477659E+0	1.537385E+0	1.472302E+0	1.510199E+0	1.528918E+0	1.530202E+0	1.453161E+0	1.515002E+0	1.546618E+0	1.545713E+0	1.507055E+0	1.496490E+0	1.450749E+0	1.538697E+0	1.514827E+0	1.546899E+0	1.553509E+0	1.522702E+0	1.564037E+0	1.499610E+0	1.482515E+0	1.512715E+0	1.516016E+0	1.461210E+0	1.552543E+0	1.502875E+0	1.434270E+0	1.461822E+0	1.455346E+0	1.520424E+0	1.540820E+0	1.501151E+0	1.472375E+0	1.450419E+0	1.505131E+0	1.441838E+0	1.622800E+0	1.520712E+0	1.456105E+0	1.444463E+0	1.545170E+0	1.490816E+0	1.517638E+0	1.529948E+0	1.465417E+0	1.536633E+0	1.503214E+0	1.554265E+0	1.469761E+0	1.492485E+0	1.451783E+0	1.487090E+0	1.505619E+0	1.558533E+0	1.457186E+0	1.528993E+0	1.470630E+0	1.503772E+0	1.466003E+0	1.433817E+0	1.510210E+0	1.473958E+0	1.494426E+0	1.463896E+0	1.504184E+0	1.539647E+0	1.572503E+0	1.536492E+0	1.493547E+0	1.507645E+0	1.526314E+0	1.560673E+0	1.423341E+0	1.484331E+0	1.529038E+0	1.554882E+0	1.494724E+0	1.513290E+0	1.457257E+0	1.549426E+0	1.420963E+0	1.522958E+0	1.501006E+0	1.472026E+0	1.495363E+0	1.518405E+0	1.489348E+0	1.455815E+0	1.451484E+0	1.490008E+0	1.462277E+0	1.513133E+0	1.500039E+0	1.538351E+0	1.500917E+0	1.467616E+0	1.495097E+0	1.457199E+0	1.425204E+0	1.536475E+0	1.512181E+0	1.514919E+0	1.506893E+0	1.493686E+0	1.473953E+0	1.580862E+0	1.434133E+0	1.383969E+0	1.471619E+0	1.463370E+0	1.505172E+0	1.445031E+0	1.440630E+0	1.477011E+0	1.482694E+0	1.521201E+0	1.474776E+0	1.512624E+0	1.466407E+0	1.504588E+0	1.525676E+0	1.459225E+0	1.489812E+0	1.538310E+0	1.476126E+0	1.500123E+0	1.499784E+0	1.536580E+0	1.507829E+0	1.440516E+0	1.508834E+0	1.446224E+0	1.502373E+0
5.442700E+2	1.488435E+0	1.514377E+0	1.524828E+0	1.488927E+0	1.518359E+0	1.500565E+0	1.469140E+0	1.516513E+0	1.479445E+0	1.518251E+0	1.470857E+0	1.494314E+0	1.417537E+0	1.485918E+0	1.442874E+0	1.495994E+0	1.490590E+0	1.466253E+0	1.503163E+0	1.553021E+0	1.496656E+0	1.488520E+0	1.496964E+0	1.514911E+0	1.520897E+0	1.428875E+0	1.508660E+0	1.468417E+0	1.532652E+0	1.484255E+0	1.489648E+0	1.518298E+0	1.492430E+0	1.489090E+0	1.453766E+0	1.523851E+0	1.474792E+0	1.488074E+0	1.477659E+0	1.497635E+0	1.394161E+0	1.501957E+0	1.474690E+0	1.535881E+0	1.494603E+0	1.502007E+0	1.521843E+0	1.423500E+0	1.490216E+0	1.499389E+0	1.502756E+0	1.481094E+0	1.526038E+0	1.474085E+0	1.516677E+0	1.524549E+0	1.461219E+0	1.523391E+0	1.474795E+0	1.519187E+0	1.460517E+0	1.425845E+0	1.498021E+0	1.488741E+0	1.510215E+0	1.425018E+0	1.471938E+0	1.476332E+0	1.483868E+0	1.462597E+0	1.458185E+0	1.487204E+0	1.515618E+0	1.451166E+0	1.519648E+0	1.517566E+0	1.432511E+0	1.524278E+0	1.439229E+0	1.411632E+0	1.431143E+0	1.408567E+0	1.476916E+0	1.505147E+0	1.494253E+0	1.463526E+0	1.488031E+0	1.488439E+0	1.491170E+0	1.427829E+0	1.484693E+0	1.488696E+0	1.477699E+0	1.492534E+0	1.476753E+0	1.448617E+0	1.518601E+0	1.468622E+0	1.533098E+0	1.428564E+0	1.479475E+0	1.462609E+0	1.463372E+0	1.513323E+0	1.489164E+0	1.513715E+0	1.486617E+0	1.499570E+0	1.478043E+0	1.483973E+0	1.456598E+0	1.428615E+0	1.467876E+0	1.446536E+0	1.457279E+0	1.422023E+0	1.490778E+0	1.472526E+0	1.478917E+0	1.446705E+0	1.469447E+0	1.439144E+0	1.473488E+0	1.488819E+0	1.497353E+0	1.406086E+0	1.435658E+0	1.461866E+0	1.466803E+0	1.444539E+0	1.471526E+0	1.478931E+0	1.478439E+0	1.464596E+0	1.474369E+0	1.525001E+0	1.443002E+0	1.427678E+0	1.486927E+0	1.472104E+0	1.437194E+0	1.477400E+0	1.467812E+0	1.502240E+0	1.536462E+0	1.462586E+0	1.465699E+0	1.457108E+0	1.449791E+0	1.416115E+0	1.460546E+0	1.375295E+0	1.493655E+0	1.467923E+0	1.454283E+0	1.459732E+0	1.417105E+0	1.477056E+0	1.427899E+0	1.449129E+0	1.415330E+0	1.454718E+0	1.534264E+0	1.430796E+0	1.455186E+0	1.447445E+0	1.397514E+0	1.454792E+0	1.423744E+0	1.480739E+0	1.372946E+0	1.487945E+0
5.445340E+2	1.496853E+0	1.606151E+0	1.538145E+0	1.526491E+0	1.557073E+0	1.524792E+0	1.543520E+0	1.503874E+0	1.500914E+0	1.522576E+0	1.556206E+0	1.511291E+0	1.518822E+0	1.491949E+0	1.528096E+0	1.519448E+0	1.518576E+0	1.481140E+0	1.563890E+0	1.490645E+0	1.497797E+0	1.499271E+0	1.538790E+0	1.570541E+0	1.560175E+0	1.505639E+0	1.522494E+0	1.483246E+0	1.546079E+0	1.523674E+0	1.507882E+0	1.493512E+0	1.507714E+0	1.521963E+0	1.536062E+0	1.551715E+0	1.495551E+0	1.513791E+0	1.484411E+0	1.511366E+0	1.500898E+0	1.504300E+0	1.524129E+0	1.491537E+0	1.545993E+0	1.526466E+0	1.583139E+0	1.482426E+0	1.508126E+0	1.520873E+0	1.587599E+0	1.468356E+0	1.518250E+0	1.518321E+0	1.518715E+0	1.504097E+0	1.528791E+0	1.528127E+0	1.486256E+0	1.517352E+0	1.488613E+0	1.498488E+0	1.471223E+0	1.499359E+0	1.582024E+0	1.480575E+0	1.501980E+0	1.533446E+0	1.512014E+0	1.531742E+0	1.424645E+0	1.521931E+0	1.468793E+0	1.492385E+0	1.511644E+0	1.505551E+0	1.424539E+0	1.516556E+0	1.425061E+0	1.525987E+0	1.479139E+0	1.422553E+0	1.524764E+0	1.499191E+0	1.483426E+0	1.479748E+0	1.486319E+0	1.523445E+0	1.513242E+0	1.461262E+0	1.521699E+0	1.508848E+0	1.529630E+0	1.522708E+0	1.486927E+0	1.571649E+0	1.551710E+0	1.510681E+0	1.506074E+0	1.483115E+0	1.461013E+0	1.506982E+0	1.554825E+0	1.528549E+0	1.521318E+0	1.517992E+0	1.496410E+0	1.535490E+0	1.464432E+0	1.513356E+0	1.497682E+0	1.503767E+0	1.531311E+0	1.474332E+0	1.501269E+0	1.476587E+0	1.478245E+0	1.478263E+0	1.601981E+0	1.502266E+0	1.473769E+0	1.505312E+0	1.515163E+0	1.468957E+0	1.529020E+0	1.504302E+0	1.558626E+0	1.466531E+0	1.545921E+0	1.488223E+0	1.471416E+0	1.475065E+0	1.511132E+0	1.492552E+0	1.497661E+0	1.478592E+0	1.513874E+0	1.456535E+0	1.510470E+0	1.539130E+0	1.526785E+0	1.415214E+0	1.532721E+0	1.448795E+0	1.488654E+0	1.468787E+0	1.505797E+0	1.496624E+0	1.463137E+0	1.442063E+0	1.471286E+0	1.486269E+0	1.457842E+0	1.460707E+0	1.528892E+0	1.484723E+0	1.494242E+0	1.512409E+0	1.450509E+0	1.484760E+0	1.508555E+0	1.515000E+0	1.491798E+0	1.454243E+0	1.486604E+0	1.403571E+0	1.505992E+0	1.497765E+0	1.482192E+0	1.421087E+0	1.430429E+0	1.507601E+0
5.447560E+2	1.499374E+0	1.424143E+0	1.442903E+0	1.539618E+0	1.533174E+0	1.492179E+0	1.498626E+0	1.529609E+0	1.490687E+0	1.499318E+0	1.459594E+0	1.533792E+0	1.425879E+0	1.483625E+0	1.453408E+0	1.484380E+0	1.459565E+0	1.474488E+0	1.463291E+0	1.488032E+0	1.496781E+0	1.510199E+0	1.454941E+0	1.488071E+0	1.527993E+0	1.498326E+0	1.431768E+0	1.482982E+0	1.469548E+0	1.474539E+0	1.481505E+0	1.462056E+0	1.450299E+0	1.445167E+0	1.501084E+0	1.492623E+0	1.480424E+0	1.491113E+0	1.405136E+0	1.490693E+0	1.440932E+0	1.452326E+0	1.434298E+0	1.431981E+0	1.465687E+0	1.450706E+0	1.528690E+0	1.499293E+0	1.499046E+0	1.444969E+0	1.513339E+0	1.472680E+0	1.490366E+0	1.465024E+0	1.426736E+0	1.475133E+0	1.481371E+0	1.496351E+0	1.442412E+0	1.492007E+0	1.506235E+0	1.461640E+0	1.426478E+0	1.437116E+0	1.465100E+0	1.373975E+0	1.396397E+0	1.475259E+0	1.451406E+0	1.447536E+0	1.482057E+0	1.498809E+0	1.488683E+0	1.477669E+0	1.458951E+0	1.482911E+0	1.425208E+0	1.418911E+0	1.476620E+0	1.507891E+0	1.464368E+0	1.434524E+0	1.482119E+0	1.492040E+0	1.458568E+0	1.471943E+0	1.437025E+0	1.467544E+0	1.435093E+0	1.448538E+0	1.496219E+0	1.456961E+0	1.435409E+0	1.479127E+0	1.516674E+0	1.474564E+0	1.431115E+0	1.459631E+0	1.503336E+0	1.448766E+0	1.421297E+0	1.536728E+0	1.531870E+0	1.459257E+0	1.455770E+0	1.434598E+0	1.508321E+0	1.500933E+0	1.476462E+0	1.405517E+0	1.475331E+0	1.443659E+0	1.509484E+0	1.462655E+0	1.455388E+0	1.445150E+0	1.478696E+0	1.362825E+0	1.476088E+0	1.502800E+0	1.464204E+0	1.403965E+0	1.415276E+0	1.408271E+0	1.457578E+0	1.448396E+0	1.469653E+0	1.453594E+0	1.467227E+0	1.441179E+0	1.404987E+0	1.487246E+0	1.446411E+0	1.471761E+0	1.421909E+0	1.471563E+0	1.485134E+0	1.470433E+0	1.528959E+0	1.421276E+0	1.480727E+0	1.428278E+0	1.426889E+0	1.449838E+0	1.493080E+0	1.397138E+0	1.453976E+0	1.454984E+0	1.444305E+0	1.366548E+0	1.485066E+0	1.489127E+0	1.409145E+0	1.466697E+0	1.495660E+0	1.425076E+0	1.386760E+0	1.465398E+0	1.458734E+0	1.403482E+0	1.465206E+0	1.446828E+0	1.435512E+0	1.505137E+0	1.365955E+0	1.504862E+0	1.431431E+0	1.427053E+0	1.467033E+0	1.474084E+0	1.463431E+0	1.436501E+0
5.450150E+2	1.402750E+0	1.374129E+0	1.332619E+0	1.383876E+0	1.335360E+0	1.396374E+0	1.346575E+0	1.387135E+0	1.335318E+0	1.388770E+0	1.410835E+0	1.440426E+0	1.301338E+0	1.336692E+0	1.371318E+0	1.382893E+0	1.396681E+0	1.343140E+0	1.346708E+0	1.397737E+0	1.367760E+0	1.378288E+0	1.373317E+0	1.399640E+0	1.362154E+0	1.358397E+0	1.374587E+0	1.386280E+0	1.379688E+0	1.335938E+0	1.314046E+0	1.351168E+0	1.365162E+0	1.373998E+0	1.337152E+0	1.409028E+0	1.321272E+0	1.344436E+0	1.403786E+0	1.329872E+0	1.384560E+0	1.380372E+0	1.361928E+0	1.322054E+0	1.413390E+0	1.362752E+0	1.345059E+0	1.374310E+0	1.363040E+0	1.353437E+0	1.350713E+0	1.316851E+0	1.369118E+0	1.335902E+0	1.379900E+0	1.330771E+0	1.371166E+0	1.341914E+0	1.355736E+0	1.343520E+0	1.373608E+0	1.323200E+0	1.312153E+0	1.366908E+0	1.387001E+0	1.316886E+0	1.380145E+0	1.372834E+0	1.290262E+0	1.364454E+0	1.311466E+0	1.388160E+0	1.366304E+0	1.373053E+0	1.338878E+0	1.436870E+0	1.355406E+0	1.387829E+0	1.282736E+0	1.362722E+0	1.363492E+0	1.344556E+0	1.430030E+0	1.363098E+0	1.351059E+0	1.343136E+0	1.358754E+0	1.365919E+0	1.401304E+0	1.358448E+0	1.332465E+0	1.425018E+0	1.311180E+0	1.365500E+0	1.357056E+0	1.321438E+0	1.352969E+0	1.403800E+0	1.366229E+0	1.361098E+0	1.351008E+0	1.350264E+0	1.371603E+0	1.331395E+0	1.318641E+0	1.367594E+0	1.410441E+0	1.342321E+0	1.387892E+0	1.378614E+0	1.369332E+0	1.343916E+0	1.374472E+0	1.348184E+0	1.338458E+0	1.396143E+0	1.361016E+0	1.274033E+0	1.376517E+0	1.384183E+0	1.345143E+0	1.329265E+0	1.333272E+0	1.351259E+0	1.372505E+0	1.322021E+0	1.370994E+0	1.349856E+0	1.357655E+0	1.339391E+0	1.380808E+0	1.397169E+0	1.407877E+0	1.328175E+0	1.356333E+0	1.344589E+0	1.346569E+0	1.353204E+0	1.372439E+0	1.327784E+0	1.378162E+0	1.335730E+0	1.340128E+0	1.341140E+0	1.387153E+0	1.307539E+0	1.359250E+0	1.364877E+0	1.341170E+0	1.325667E+0	1.346788E+0	1.288210E+0	1.283473E+0	1.306035E+0	1.349854E+0	1.365821E+0	1.280279E+0	1.326358E+0	1.379737E+0	1.386531E+0	1.272692E+0	1.392989E+0	1.353089E+0	1.344455E+0	1.336103E+0	1.309953E+0	1.328752E+0	1.388445E+0	1.256095E+0	1.356183E+0	1.403168E+0	1.279800E+0
5.452580E+2	1.243007E+0	1.288914E+0	1.337368E+0	1.326239E+0	1.292286E+0	1.305418E+0	1.256898E+0	1.361569E+0	1.364000E+0	1.245793E+0	1.294529E+0	1.267795E+0	1.301254E+0	1.322484E+0	1.292947E+0	1.279698E+0	1.315459E+0	1.315221E+0	1.253097E+0	1.365065E+0	1.319219E+0	1.322941E+0	1.279267E+0	1.329477E+0	1.292311E+0	1.322696E+0	1.303646E+0	1.283553E+0	1.309045E+0	1.274562E+0	1.307513E+0	1.307610E+0	1.310349E+0	1.259816E+0	1.345938E+0	1.287546E+0	1.228000E+0	1.327705E+0	1.283892E+0	1.306435E+0	1.285676E+0	1.312628E+0	1.309823E+0	1.256368E+0	1.284007E+0	1.296600E+0	1.318400E+0	1.290138E+0	1.294407E+0	1.299743E+0	1.288143E+0	1.285489E+0	1.229583E+0	1.271909E+0	1.290218E+0	1.350612E+0	1.306970E+0	1.300602E+0	1.232279E+0	1.297450E+0	1.310042E+0	1.306188E+0	1.283175E+0	1.312241E+0	1.337180E+0	1.337021E+0	1.276659E+0	1.276645E+0	1.284700E+0	1.321110E+0	1.287453E+0	1.237168E+0	1.303923E+0	1.329151E+0	1.274387E+0	1.233034E+0	1.292093E+0	1.294831E+0	1.293915E+0	1.301192E+0	1.279788E+0	1.347922E+0	1.290595E+0	1.279611E+0	1.276833E+0	1.286506E+0	1.309006E+0	1.272093E+0	1.250683E+0	1.350176E+0	1.316011E+0	1.300791E+0	1.288918E+0	1.245108E+0	1.370201E+0	1.263556E+0	1.284956E+0	1.308902E+0	1.269709E+0	1.290243E+0	1.233499E+0	1.319052E+0	1.266149E+0	1.333628E+0	1.287947E+0	1.272114E+0	1.310066E+0	1.294064E+0	1.296999E+0	1.309589E+0	1.335195E+0	1.259738E+0	1.306300E+0	1.249738E+0	1.354032E+0	1.267507E+0	1.282590E+0	1.279623E+0	1.297137E+0	1.357350E+0	1.325988E+0	1.279454E+0	1.290979E+0	1.259538E+0	1.314581E+0	1.271832E+0	1.296005E+0	1.254809E+0	1.283793E+0	1.275871E+0	1.275739E+0	1.264361E+0	1.214864E+0	1.282449E+0	1.298412E+0	1.267074E+0	1.295671E+0	1.278702E+0	1.306326E+0	1.300713E+0	1.322703E+0	1.261873E+0	1.261394E+0	1.291667E+0	1.325793E+0	1.240853E+0	1.341652E+0	1.229908E+0	1.322312E+0	1.278520E+0	1.234261E+0	1.297108E+0	1.299776E+0	1.285663E+0	1.332805E+0	1.263397E+0	1.239564E+0	1.270249E+0	1.294251E+0	1.256062E+0	1.268996E+0	1.329124E+0	1.285511E+0	1.256627E+0	1.278332E+0	1.257878E+0	1.305703E+0	1.294987E+0	1.245379E+0	1.257406E+0	1.302728E+0	1.307834E+0
5.455290E+2	1.228684E+0	1.265678E+0	1.242439E+0	1.246306E+0	1.273842E+0	1.239868E+0	1.230505E+0	1.225052E+0	1.221126E+0	1.285397E+0	1.239360E+0	1.285985E+0	1.217136E+0	1.192545E+0	1.231229E+0	1.279847E+0	1.227911E+0	1.200416E+0	1.208211E+0	1.239041E+0	1.235822E+0	1.247374E+0	1.275548E+0	1.296221E+0	1.293770E+0	1.165755E+0	1.236226E+0	1.173245E+0	1.247998E+0	1.229718E+0	1.188809E+0	1.212919E+0	1.259196E+0	1.241985E+0	1.250555E+0	1.252794E+0	1.273157E+0	1.219288E+0	1.147955E+0	1.213210E+0	1.264487E+0	1.252589E+0	1.225315E+0	1.279556E+0	1.280466E+0	1.256835E+0	1.256985E+0	1.216330E+0	1.215305E+0	1.278035E+0	1.243904E+0	1.199600E+0	1.273877E+0	1.274000E+0	1.247870E+0	1.234938E+0	1.276649E+0	1.238134E+0	1.261057E+0	1.227268E+0	1.282244E+0	1.217288E+0	1.223762E+0	1.185805E+0	1.244817E+0	1.260334E+0	1.281778E+0	1.231336E+0	1.225104E+0	1.265461E+0	1.226123E+0	1.213015E+0	1.206925E+0	1.178327E+0	1.235592E+0	1.259067E+0	1.235664E+0	1.248739E+0	1.187327E+0	1.293726E+0	1.250011E+0	1.231478E+0	1.235485E+0	1.223346E+0	1.181012E+0	1.253577E+0	1.252982E+0	1.214311E+0	1.192698E+0	1.229194E+0	1.225746E+0	1.286945E+0	1.261002E+0	1.222337E+0	1.256032E+0	1.189013E+0	1.238827E+0	1.259612E+0	1.220577E+0	1.227203E+0	1.236987E+0	1.216793E+0	1.237803E+0	1.220418E+0	1.253741E+0	1.230010E+0	1.220941E+0	1.283144E+0	1.254595E+0	1.242637E+0	1.283794E+0	1.263810E+0	1.243877E+0	1.194703E+0	1.287502E+0	1.235893E+0	1.253903E+0	1.211434E+0	1.275488E+0	1.196982E+0	1.241094E+0	1.259837E+0	1.249063E+0	1.259876E+0	1.184855E+0	1.235794E+0	1.278617E+0	1.214215E+0	1.182447E+0	1.238533E+0	1.224587E+0	1.280998E+0	1.254868E+0	1.262987E+0	1.273546E+0	1.202237E+0	1.242574E+0	1.236149E+0	1.250172E+0	1.269104E+0	1.245411E+0	1.231080E+0	1.271016E+0	1.247309E+0	1.262781E+0	1.216421E+0	1.227797E+0	1.238015E+0	1.233333E+0	1.178563E+0	1.228713E+0	1.179946E+0	1.204656E+0	1.168559E+0	1.261618E+0	1.258546E+0	1.208454E+0	1.259086E+0	1.285240E+0	1.224198E+0	1.223815E+0	1.250060E+0	1.244747E+0	1.206782E+0	1.202598E+0	1.199187E+0	1.278880E+0	1.204384E+0	1.176180E+0	1.269816E+0	1.184174E+0	1.342744E+0
5.457720E+2	1.124225E+0	1.177584E+0	1.170946E+0	1.176159E+0	1.122645E+0	1.164068E+0	1.147724E+0	1.194215E+0	1.172017E+0	1.166637E+0	1.158511E+0	1.169942E+0	1.175357E+0	1.123424E+0	1.156638E+0	1.191951E+0	1.190880E+0	1.191616E+0	1.165117E+0	1.148141E+0	1.147934E+0	1.149388E+0	1.124175E+0	1.195008E+0	1.111933E+0	1.136376E+0	1.114512E+0	1.116988E+0	1.144708E+0	1.164571E+0	1.100816E+0	1.147771E+0	1.139375E+0	1.122719E+0	1.155619E+0	1.161429E+0	1.162558E+0	1.164774E+0	1.140343E+0	1.159877E+0	1.155810E+0	1.162912E+0	1.168565E+0	1.122097E+0	1.211229E+0	1.176574E+0	1.165633E+0	1.154172E+0	1.127363E+0	1.162212E+0	1.135854E+0	1.148689E+0	1.159830E+0	1.134988E+0	1.084553E+0	1.172701E+0	1.150875E+0	1.131743E+0	1.118374E+0	1.141640E+0	1.118765E+0	1.209582E+0	1.124280E+0	1.170642E+0	1.121899E+0	1.131308E+0	1.119257E+0	1.164502E+0	1.126634E+0	1.138000E+0	1.147396E+0	1.133263E+0	1.184668E+0	1.136327E+0	1.115280E+0	1.109374E+0	1.138597E+0	1.167796E+0	1.130033E+0	1.120005E+0	1.176952E+0	1.116680E+0	1.102129E+0	1.146667E+0	1.186187E+0	1.127255E+0	1.111916E+0	1.117790E+0	1.084460E+0	1.155121E+0	1.149995E+0	1.193057E+0	1.190426E+0	1.192201E+0	1.150441E+0	1.138520E+0	1.123256E+0	1.158119E+0	1.135578E+0	1.148218E+0	1.161010E+0	1.099694E+0	1.103343E+0	1.145876E+0	1.115156E+0	1.162227E+0	1.128061E+0	1.117809E+0	1.076942E+0	1.184678E+0	1.174169E+0	1.097643E+0	1.171856E+0	1.060416E+0	1.199123E+0	1.138007E+0	1.144918E+0	1.089532E+0	1.149190E+0	1.126022E+0	1.146280E+0	1.083301E+0	1.174338E+0	1.185882E+0	1.178122E+0	1.154493E+0	1.116449E+0	1.135519E+0	1.164082E+0	1.107219E+0	1.163612E+0	1.125004E+0	1.134663E+0	1.116651E+0	1.122804E+0	1.112451E+0	1.130837E+0	1.138471E+0	1.112563E+0	1.184313E+0	1.147943E+0	1.117374E+0	1.178116E+0	1.151886E+0	1.142196E+0	1.119892E+0	1.132688E+0	1.128568E+0	1.148490E+0	1.104140E+0	1.104169E+0	1.134402E+0	1.052209E+0	1.076372E+0	1.160923E+0	1.127977E+0	1.158172E+0	1.121917E+0	1.107933E+0	1.141690E+0	1.137800E+0	1.171300E+0	1.115499E+0	1.133824E+0	1.153369E+0	1.142882E+0	1.193646E+0	1.174693E+0	1.141728E+0	1.154400E+0	1.114405E+0	1.179182E+0
5.460000E+2	1.145443E+0	1.148013E+0	1.144313E+0	1.154762E+0	1.181324E+0	1.128370E+0	1.128874E+0	1.155053E+0	1.157555E+0	1.177757E+0	1.162531E+0	1.174901E+0	1.136739E+0	1.135455E+0	1.159622E+0	1.169956E+0	1.130784E+0	1.133635E+0	1.184049E+0	1.168904E+0	1.177455E+0	1.144291E+0	1.167857E+0	1.162255E+0	1.199963E+0	1.188240E+0	1.129420E+0	1.140306E+0	1.168688E+0	1.156708E+0	1.148062E+0	1.102902E+0	1.167856E+0	1.133030E+0	1.105861E+0	1.180124E+0	1.147382E+0	1.144780E+0	1.120692E+0	1.130981E+0	1.181050E+0	1.148868E+0	1.160232E+0	1.144891E+0	1.164718E+0	1.174882E+0	1.155984E+0	1.138786E+0	1.169452E+0	1.131009E+0	1.149136E+0	1.099983E+0	1.123336E+0	1.125990E+0	1.161812E+0	1.181924E+0	1.165740E+0	1.179316E+0	1.118236E+0	1.157430E+0	1.121338E+0	1.131731E+0	1.110249E+0	1.170310E+0	1.147736E+0	1.165804E+0	1.190371E+0	1.145202E+0	1.112007E+0	1.149757E+0	1.183720E+0	1.130668E+0	1.158738E+0	1.173431E+0	1.123683E+0	1.120874E+0	1.132800E+0	1.093173E+0	1.124943E+0	1.175438E+0	1.095176E+0	1.137096E+0	1.157983E+0	1.111103E+0	1.101834E+0	1.148065E+0	1.137718E+0	1.119745E+0	1.135890E+0	1.184926E+0	1.136272E+0	1.129558E+0	1.158314E+0	1.150458E+0	1.145281E+0	1.127096E+0	1.222111E+0	1.134170E+0	1.141691E+0	1.178870E+0	1.098398E+0	1.154668E+0	1.178486E+0	1.185124E+0	1.123304E+0	1.103186E+0	1.192046E+0	1.163291E+0	1.124889E+0	1.112989E+0	1.168695E+0	1.136292E+0	1.157043E+0	1.130922E+0	1.112220E+0	1.117487E+0	1.123249E+0	1.093105E+0	1.150102E+0	1.184505E+0	1.125959E+0	1.101949E+0	1.164177E+0	1.130602E+0	1.220603E+0	1.133745E+0	1.135231E+0	1.123404E+0	1.137307E+0	1.151677E+0	1.169346E+0	1.151254E+0	1.146194E+0	1.198107E+0	1.134537E+0	1.158574E+0	1.148601E+0	1.123410E+0	1.136666E+0	1.121038E+0	1.142652E+0	1.114161E+0	1.127551E+0	1.184791E+0	1.175108E+0	1.185935E+0	1.081439E+0	1.184408E+0	1.080796E+0	1.164081E+0	1.130872E+0	1.110448E+0	1.143202E+0	1.192921E+0	1.190861E+0	1.174853E+0	1.164883E+0	1.145834E+0	1.107628E+0	1.138470E+0	1.143474E+0	1.113210E+0	1.111489E+0	1.113335E+0	1.144525E+0	1.143547E+0	1.148262E+0	1.169334E+0	1.138441E+0	1.168869E+0	1.172941E+0	1.139886E+0
5.467600E+2	1.148436E+0	1.162349E+0	1.138265E+0	1.183689E+0	1.167865E+0	1.170598E+0	1.169276E+0	1.166986E+0	1.150509E+0	1.195598E+0	1.198043E+0	1.139379E+0	1.164173E+0	1.155797E+0	1.139748E+0	1.126007E+0	1.170505E+0	1.160556E+0	1.106599E+0	1.170841E+0	1.151918E+0	1.151953E+0	1.142490E+0	1.211785E+0	1.164208E+0	1.123159E+0	1.158509E+0	1.106364E+0	1.113502E+0	1.156184E+0	1.229348E+0	1.213404E+0	1.165472E+0	1.133847E+0	1.183087E+0	1.154406E+0	1.162675E+0	1.219581E+0	1.171419E+0	1.222570E+0	1.187576E+0	1.150881E+0	1.184989E+0	1.205973E+0	1.180461E+0	1.174993E+0	1.139900E+0	1.198572E+0	1.160202E+0	1.162296E+0	1.151170E+0	1.116050E+0	1.169147E+0	1.117358E+0	1.173727E+0	1.226624E+0	1.205329E+0	1.171823E+0	1.178048E+0	1.143643E+0	1.151279E+0	1.131418E+0	1.144445E+0	1.143169E+0	1.173933E+0	1.126982E+0	1.130865E+0	1.178575E+0	1.180122E+0	1.215082E+0	1.139459E+0	1.131438E+0	1.166786E+0	1.165093E+0	1.134700E+0	1.180778E+0	1.149460E+0	1.179122E+0	1.120181E+0	1.185415E+0	1.170527E+0	1.127222E+0	1.158429E+0	1.187048E+0	1.140410E+0	1.176880E+0	1.166852E+0	1.227790E+0	1.162042E+0	1.165884E+0	1.154118E+0	1.145011E+0	1.156687E+0	1.144328E+0	1.203896E+0	1.144003E+0	1.151386E+0	1.152939E+0	1.204021E+0	1.135848E+0	1.150483E+0	1.188935E+0	1.156572E+0	1.170852E+0	1.155621E+0	1.158372E+0	1.165262E+0	1.182248E+0	1.167242E+0	1.171354E+0	1.160961E+0	1.142161E+0	1.136481E+0	1.124013E+0	1.144505E+0	1.133023E+0	1.210602E+0	1.148195E+0	1.156647E+0	1.205662E+0	1.199550E+0	1.128568E+0	1.142768E+0	1.139837E+0	1.155712E+0	1.114273E+0	1.159567E+0	1.129230E+0	1.122087E+0	1.184971E+0	1.136846E+0	1.165155E+0	1.197218E+0	1.170620E+0	1.140389E+0	1.142971E+0	1.193203E+0	1.137830E+0	1.142051E+0	1.140132E+0	1.203558E+0	1.139474E+0	1.216871E+0	1.143814E+0	1.185963E+0	1.154618E+0	1.080737E+0	1.204909E+0	1.149906E+0	1.135076E+0	1.190608E+0	1.151185E+0	1.088716E+0	1.152520E+0	1.162793E+0	1.141850E+0	1.235671E+0	1.142461E+0	1.162365E+0	1.133123E+0	1.169333E+0	1.139934E+0	1.118511E+0	1.122571E+0	1.137605E+0	1.170912E+0	1.161045E+0	1.209177E+0	1.119677E+0	1.201727E+0	1.178737E+0	1.091982E+0
5.475180E+2	1.251796E+0	1.247948E+0	1.291950E+0	1.257890E+0	1.293735E+0	1.229454E+0	1.290350E+0	1.255734E+0	1.263471E+0	1.236776E+0	1.295724E+0	1.295419E+0	1.254509E+0	1.224132E+0	1.247380E+0	1.263877E+0	1.259803E+0	1.231009E+0	1.253595E+0	1.246108E+0	1.285948E+0	1.241169E+0	1.289397E+0	1.311640E+0	1.294109E+0	1.234431E+0	1.210923E+0	1.249485E+0	1.275940E+0	1.227108E+0	1.212374E+0	1.289437E+0	1.233196E+0	1.189472E+0	1.209812E+0	1.276014E+0	1.263812E+0	1.288663E+0	1.260168E+0	1.288931E+0	1.262885E+0	1.244280E+0	1.269007E+0	1.246123E+0	1.222659E+0	1.274782E+0	1.249994E+0	1.196964E+0	1.299183E+0	1.249470E+0	1.250490E+0	1.253426E+0	1.240990E+0	1.167792E+0	1.234270E+0	1.220506E+0	1.330329E+0	1.206039E+0	1.281868E+0	1.242875E+0	1.260619E+0	1.250367E+0	1.246989E+0	1.248786E+0	1.269728E+0	1.228885E+0	1.236815E+0	1.234538E+0	1.236141E+0	1.252289E+0	1.252197E+0	1.206179E+0	1.223515E+0	1.226775E+0	1.256163E+0	1.301898E+0	1.224711E+0	1.223053E+0	1.212205E+0	1.226086E+0	1.247181E+0	1.216539E+0	1.269559E+0	1.274124E+0	1.247415E+0	1.205978E+0	1.271061E+0	1.226086E+0	1.246878E+0	1.218501E+0	1.272312E+0	1.276905E+0	1.268023E+0	1.213589E+0	1.228772E+0	1.245626E+0	1.247239E+0	1.268098E+0	1.225472E+0	1.222948E+0	1.208631E+0	1.242109E+0	1.283928E+0	1.277571E+0	1.222221E+0	1.304711E+0	1.240980E+0	1.262821E+0	1.259810E+0	1.253644E+0	1.249942E+0	1.187157E+0	1.259546E+0	1.227406E+0	1.205177E+0	1.230463E+0	1.230820E+0	1.227853E+0	1.280298E+0	1.249368E+0	1.233930E+0	1.235642E+0	1.202839E+0	1.265799E+0	1.270343E+0	1.258245E+0	1.216062E+0	1.249009E+0	1.226910E+0	1.192919E+0	1.271065E+0	1.272734E+0	1.227410E+0	1.311854E+0	1.297239E+0	1.192150E+0	1.259180E+0	1.239514E+0	1.245954E+0	1.259817E+0	1.294425E+0	1.176031E+0	1.240263E+0	1.247843E+0	1.261926E+0	1.175536E+0	1.228018E+0	1.239257E+0	1.322537E+0	1.238694E+0	1.162300E+0	1.246494E+0	1.211546E+0	1.218055E+0	1.199995E+0	1.222771E+0	1.251335E+0	1.249548E+0	1.233054E+0	1.246970E+0	1.271145E+0	1.236971E+0	1.212022E+0	1.256621E+0	1.229254E+0	1.172638E+0	1.180216E+0	1.264135E+0	1.142537E+0	1.223697E+0	1.163859E+0	1.252706E+0
5.482550E+2	1.288952E+0	1.328675E+0	1.328716E+0	1.298061E+0	1.319697E+0	1.330848E+0	1.312499E+0	1.338269E+0	1.332573E+0	1.311017E+0	1.310345E+0	1.349958E+0	1.318912E+0	1.292185E+0	1.280065E+0	1.299828E+0	1.305508E+0	1.265504E+0	1.320099E+0	1.284021E+0	1.267262E+0	1.303523E+0	1.289841E+0	1.371198E+0	1.289056E+0	1.254123E+0	1.292456E+0	1.336043E+0	1.270256E+0	1.320064E+0	1.293671E+0	1.282111E+0	1.291490E+0	1.279816E+0	1.364763E+0	1.318251E+0	1.278727E+0	1.292442E+0	1.254848E+0	1.314610E+0	1.294060E+0	1.302412E+0	1.309509E+0	1.265962E+0	1.385185E+0	1.317840E+0	1.301862E+0	1.321979E+0	1.263816E+0	1.306706E+0	1.244553E+0	1.282548E+0	1.266812E+0	1.277164E+0	1.310777E+0	1.332082E+0	1.317951E+0	1.339307E+0	1.279629E+0	1.334022E+0	1.350020E+0	1.292012E+0	1.291275E+0	1.318556E+0	1.331408E+0	1.259554E+0	1.288112E+0	1.302664E+0	1.273566E+0	1.315024E+0	1.271977E+0	1.318706E+0	1.338116E+0	1.302431E+0	1.301603E+0	1.316393E+0	1.251403E+0	1.257522E+0	1.314244E+0	1.322715E+0	1.315565E+0	1.255876E+0	1.314375E+0	1.358625E+0	1.247061E+0	1.289046E+0	1.289555E+0	1.244370E+0	1.296950E+0	1.296245E+0	1.322130E+0	1.327286E+0	1.255665E+0	1.329603E+0	1.313621E+0	1.297509E+0	1.269722E+0	1.312586E+0	1.282850E+0	1.315417E+0	1.242785E+0	1.332921E+0	1.293791E+0	1.326988E+0	1.268723E+0	1.315202E+0	1.272891E+0	1.267257E+0	1.279505E+0	1.319429E+0	1.293210E+0	1.313947E+0	1.283201E+0	1.275570E+0	1.263806E+0	1.294834E+0	1.316422E+0	1.286551E+0	1.293888E+0	1.309905E+0	1.309684E+0	1.286863E+0	1.330219E+0	1.331800E+0	1.294448E+0	1.287604E+0	1.273423E+0	1.252006E+0	1.275119E+0	1.298344E+0	1.289500E+0	1.241142E+0	1.266750E+0	1.305095E+0	1.262490E+0	1.261843E+0	1.269479E+0	1.255213E+0	1.290514E+0	1.337364E+0	1.301423E+0	1.294175E+0	1.301702E+0	1.270774E+0	1.395155E+0	1.261643E+0	1.234061E+0	1.242864E+0	1.322335E+0	1.309718E+0	1.299789E+0	1.272208E+0	1.266779E+0	1.273199E+0	1.278835E+0	1.293624E+0	1.252242E+0	1.290255E+0	1.278155E+0	1.295083E+0	1.308733E+0	1.310372E+0	1.246103E+0	1.270652E+0	1.261471E+0	1.338924E+0	1.321537E+0	1.263706E+0	1.295286E+0	1.194202E+0	1.255672E+0	1.436857E+0
5.490160E+2	1.331885E+0	1.296033E+0	1.301919E+0	1.345761E+0	1.303357E+0	1.291221E+0	1.314793E+0	1.387543E+0	1.352264E+0	1.332855E+0	1.327346E+0	1.332407E+0	1.366822E+0	1.383743E+0	1.299699E+0	1.295430E+0	1.328334E+0	1.343015E+0	1.297392E+0	1.362741E+0	1.306813E+0	1.325971E+0	1.322777E+0	1.354989E+0	1.354207E+0	1.315041E+0	1.357659E+0	1.361622E+0	1.309472E+0	1.296296E+0	1.266508E+0	1.346804E+0	1.348023E+0	1.331323E+0	1.289219E+0	1.307589E+0	1.338788E+0	1.383150E+0	1.257617E+0	1.332972E+0	1.280078E+0	1.323545E+0	1.296155E+0	1.330386E+0	1.293610E+0	1.287205E+0	1.364740E+0	1.233420E+0	1.312261E+0	1.355502E+0	1.351965E+0	1.303084E+0	1.333459E+0	1.319044E+0	1.313578E+0	1.319811E+0	1.381024E+0	1.317717E+0	1.292224E+0	1.367253E+0	1.325413E+0	1.343379E+0	1.279500E+0	1.332984E+0	1.328625E+0	1.269888E+0	1.246913E+0	1.345948E+0	1.307231E+0	1.314977E+0	1.285514E+0	1.344956E+0	1.293188E+0	1.327791E+0	1.299118E+0	1.358492E+0	1.343838E+0	1.317000E+0	1.331883E+0	1.344563E+0	1.333591E+0	1.257941E+0	1.337736E+0	1.233453E+0	1.273317E+0	1.259409E+0	1.302327E+0	1.344377E+0	1.331862E+0	1.293017E+0	1.373966E+0	1.357756E+0	1.308431E+0	1.292448E+0	1.325605E+0	1.358731E+0	1.349001E+0	1.317284E+0	1.288599E+0	1.304111E+0	1.265726E+0	1.307134E+0	1.397315E+0	1.360049E+0	1.317049E+0	1.322329E+0	1.295437E+0	1.305371E+0	1.276578E+0	1.337372E+0	1.320479E+0	1.293966E+0	1.348752E+0	1.294314E+0	1.267233E+0	1.299027E+0	1.300128E+0	1.260540E+0	1.283219E+0	1.378719E+0	1.324554E+0	1.292078E+0	1.287181E+0	1.292222E+0	1.283566E+0	1.322319E+0	1.291579E+0	1.329393E+0	1.334961E+0	1.314954E+0	1.256578E+0	1.322416E+0	1.316635E+0	1.326478E+0	1.244871E+0	1.312366E+0	1.324622E+0	1.259441E+0	1.276010E+0	1.355290E+0	1.320995E+0	1.224003E+0	1.240278E+0	1.291686E+0	1.426206E+0	1.268002E+0	1.292137E+0	1.298793E+0	1.267588E+0	1.260975E+0	1.329987E+0	1.277528E+0	1.328606E+0	1.308024E+0	1.307602E+0	1.293098E+0	1.278467E+0	1.351398E+0	1.314631E+0	1.282728E+0	1.301478E+0	1.302072E+0	1.312951E+0	1.285946E+0	1.330144E+0	1.288454E+0	1.355992E+0	1.326776E+0	1.320147E+0	1.290768E+0	1.341597E+0	1.262078E+0
5.497680E+2	1.282876E+0	1.298925E+0	1.306864E+0	1.259120E+0	1.295587E+0	1.302307E+0	1.252006E+0	1.242835E+0	1.271271E+0	1.310089E+0	1.222992E+0	1.308318E+0	1.212426E+0	1.262588E+0	1.269927E+0	1.294432E+0	1.281288E+0	1.243108E+0	1.285548E+0	1.355559E+0	1.306052E+0	1.259658E+0	1.278628E+0	1.294622E+0	1.285606E+0	1.289827E+0	1.203813E+0	1.276133E+0	1.263995E+0	1.250265E+0	1.276372E+0	1.275940E+0	1.259468E+0	1.273416E+0	1.264420E+0	1.324309E+0	1.290254E+0	1.260342E+0	1.209625E+0	1.233376E+0	1.243393E+0	1.269112E+0	1.301597E+0	1.228955E+0	1.283390E+0	1.299475E+0	1.272172E+0	1.228546E+0	1.237847E+0	1.278033E+0	1.258940E+0	1.232954E+0	1.247076E+0	1.285953E+0	1.238289E+0	1.283624E+0	1.290340E+0	1.303347E+0	1.229018E+0	1.253603E+0	1.224571E+0	1.265614E+0	1.283655E+0	1.313876E+0	1.345749E+0	1.241806E+0	1.243143E+0	1.226527E+0	1.296286E+0	1.321347E+0	1.205417E+0	1.328294E+0	1.269763E+0	1.267021E+0	1.237785E+0	1.250382E+0	1.261807E+0	1.270718E+0	1.237051E+0	1.227414E+0	1.296233E+0	1.250054E+0	1.290603E+0	1.223970E+0	1.296795E+0	1.187097E+0	1.348810E+0	1.203309E+0	1.246321E+0	1.322373E+0	1.281533E+0	1.281314E+0	1.249206E+0	1.253529E+0	1.276567E+0	1.236594E+0	1.278448E+0	1.294692E+0	1.300036E+0	1.232409E+0	1.311690E+0	1.291164E+0	1.250355E+0	1.295522E+0	1.247044E+0	1.233745E+0	1.260211E+0	1.285665E+0	1.269240E+0	1.252652E+0	1.280275E+0	1.230352E+0	1.258232E+0	1.295496E+0	1.239055E+0	1.281181E+0	1.324976E+0	1.266946E+0	1.321418E+0	1.289884E+0	1.310201E+0	1.234244E+0	1.250767E+0	1.272381E+0	1.282932E+0	1.209573E+0	1.266288E+0	1.307263E+0	1.301861E+0	1.233082E+0	1.278768E+0	1.296258E+0	1.244134E+0	1.304080E+0	1.260173E+0	1.280310E+0	1.277196E+0	1.254046E+0	1.220837E+0	1.302320E+0	1.270421E+0	1.280249E+0	1.261514E+0	1.244988E+0	1.275115E+0	1.219950E+0	1.225520E+0	1.221645E+0	1.269661E+0	1.215384E+0	1.263832E+0	1.301889E+0	1.246592E+0	1.234072E+0	1.296247E+0	1.279128E+0	1.276629E+0	1.250671E+0	1.280754E+0	1.286131E+0	1.237271E+0	1.259507E+0	1.241263E+0	1.233679E+0	1.248857E+0	1.250195E+0	1.261703E+0	1.230512E+0	1.218228E+0	1.297834E+0	1.276859E+0	1.329550E+0
5.505060E+2	1.215204E+0	1.245362E+0	1.164285E+0	1.210666E+0	1.260180E+0	1.242360E+0	1.197079E+0	1.222181E+0	1.265674E+0	1.256324E+0	1.247587E+0	1.232752E+0	1.227703E+0	1.271448E+0	1.237844E+0	1.195429E+0	1.258171E+0	1.242971E+0	1.216590E+0	1.171027E+0	1.240137E+0	1.263358E+0	1.225676E+0	1.247042E+0	1.260127E+0	1.202774E+0	1.186281E+0	1.170226E+0	1.221665E+0	1.238040E+0	1.218994E+0	1.219784E+0	1.180437E+0	1.226546E+0	1.215398E+0	1.267877E+0	1.189498E+0	1.274692E+0	1.203019E+0	1.225572E+0	1.248912E+0	1.245599E+0	1.222265E+0	1.201670E+0	1.240882E+0	1.211609E+0	1.227061E+0	1.246221E+0	1.154116E+0	1.211201E+0	1.194796E+0	1.212019E+0	1.280475E+0	1.227383E+0	1.228400E+0	1.235020E+0	1.283466E+0	1.230200E+0	1.209337E+0	1.209126E+0	1.172301E+0	1.238037E+0	1.283963E+0	1.222618E+0	1.260590E+0	1.267519E+0	1.191514E+0	1.256473E+0	1.202320E+0	1.272808E+0	1.178502E+0	1.233269E+0	1.245798E+0	1.189461E+0	1.221519E+0	1.270525E+0	1.220470E+0	1.238745E+0	1.199186E+0	1.251304E+0	1.227713E+0	1.165603E+0	1.263381E+0	1.203495E+0	1.244822E+0	1.173776E+0	1.177293E+0	1.190511E+0	1.124727E+0	1.296418E+0	1.208148E+0	1.323085E+0	1.203204E+0	1.213630E+0	1.247580E+0	1.191285E+0	1.256059E+0	1.247183E+0	1.228086E+0	1.160327E+0	1.237743E+0	1.211707E+0	1.201155E+0	1.227749E+0	1.212688E+0	1.202941E+0	1.228591E+0	1.311648E+0	1.211193E+0	1.293395E+0	1.219338E+0	1.179763E+0	1.211627E+0	1.269861E+0	1.211573E+0	1.218763E+0	1.234157E+0	1.210174E+0	1.229405E+0	1.193128E+0	1.210383E+0	1.170316E+0	1.187681E+0	1.237314E+0	1.200894E+0	1.271831E+0	1.217740E+0	1.260022E+0	1.170495E+0	1.203147E+0	1.172969E+0	1.175227E+0	1.256813E+0	1.219906E+0	1.251754E+0	1.223325E+0	1.247477E+0	1.156050E+0	1.207604E+0	1.199637E+0	1.199961E+0	1.210815E+0	1.223868E+0	1.223600E+0	1.269624E+0	1.173996E+0	1.215238E+0	1.247957E+0	1.258492E+0	1.304420E+0	1.217108E+0	1.298403E+0	1.219873E+0	1.130330E+0	1.179321E+0	1.189921E+0	1.189834E+0	1.271103E+0	1.196793E+0	1.244116E+0	1.173552E+0	1.269816E+0	1.229368E+0	1.177609E+0	1.234554E+0	1.210349E+0	1.177051E+0	1.259924E+0	1.232771E+0	1.144271E+0	1.153971E+0	1.281248E+0
5.512570E+2	1.227727E+0	1.217876E+0	1.222469E+0	1.290488E+0	1.272690E+0	1.193549E+0	1.212575E+0	1.269164E+0	1.294565E+0	1.243836E+0	1.220410E+0	1.247156E+0	1.275167E+0	1.255103E+0	1.262856E+0	1.251563E+0	1.200465E+0	1.244738E+0	1.197823E+0	1.253784E+0	1.248556E+0	1.260679E+0	1.246670E+0	1.239026E+0	1.255245E+0	1.171448E+0	1.200327E+0	1.176319E+0	1.198888E+0	1.259216E+0	1.220999E+0	1.197334E+0	1.270000E+0	1.197662E+0	1.227543E+0	1.254162E+0	1.243812E+0	1.214701E+0	1.199221E+0	1.167503E+0	1.235906E+0	1.229678E+0	1.219296E+0	1.184534E+0	1.275968E+0	1.265716E+0	1.197477E+0	1.200609E+0	1.222339E+0	1.231421E+0	1.260744E+0	1.160609E+0	1.205802E+0	1.216902E+0	1.228241E+0	1.235230E+0	1.258658E+0	1.237626E+0	1.220947E+0	1.225837E+0	1.251028E+0	1.233250E+0	1.269565E+0	1.240708E+0	1.220609E+0	1.214766E+0	1.180106E+0	1.240367E+0	1.256973E+0	1.273207E+0	1.189855E+0	1.240968E+0	1.240266E+0	1.196659E+0	1.237413E+0	1.199316E+0	1.221074E+0	1.272787E+0	1.250889E+0	1.216842E+0	1.210334E+0	1.224479E+0	1.211143E+0	1.207593E+0	1.257082E+0	1.249575E+0	1.225947E+0	1.246905E+0	1.224698E+0	1.245089E+0	1.219581E+0	1.218452E+0	1.248115E+0	1.277780E+0	1.287019E+0	1.255784E+0	1.213505E+0	1.176285E+0	1.185665E+0	1.187288E+0	1.228100E+0	1.252539E+0	1.233303E+0	1.226716E+0	1.251146E+0	1.231476E+0	1.191188E+0	1.206000E+0	1.206707E+0	1.218226E+0	1.227127E+0	1.179243E+0	1.236463E+0	1.199271E+0	1.206043E+0	1.216263E+0	1.276531E+0	1.223403E+0	1.241012E+0	1.278476E+0	1.213917E+0	1.257917E+0	1.167611E+0	1.227439E+0	1.273357E+0	1.262771E+0	1.252402E+0	1.191256E+0	1.260963E+0	1.210603E+0	1.161101E+0	1.225749E+0	1.239327E+0	1.267572E+0	1.251908E+0	1.207951E+0	1.265544E+0	1.197230E+0	1.217502E+0	1.189827E+0	1.241406E+0	1.166729E+0	1.280373E+0	1.217112E+0	1.299608E+0	1.202246E+0	1.254202E+0	1.236933E+0	1.269401E+0	1.243434E+0	1.187409E+0	1.210120E+0	1.185131E+0	1.268184E+0	1.234991E+0	1.192520E+0	1.260701E+0	1.211202E+0	1.247253E+0	1.225254E+0	1.248630E+0	1.197822E+0	1.237925E+0	1.199950E+0	1.219631E+0	1.231300E+0	1.210465E+0	1.219575E+0	1.188981E+0	1.153123E+0	1.240625E+0	1.252026E+0
5.520100E+2	1.168857E+0	1.173714E+0	1.255340E+0	1.244252E+0	1.246252E+0	1.232313E+0	1.219589E+0	1.220799E+0	1.246570E+0	1.214492E+0	1.180268E+0	1.230619E+0	1.210707E+0	1.251944E+0	1.183692E+0	1.183822E+0	1.240834E+0	1.190177E+0	1.227910E+0	1.260465E+0	1.237951E+0	1.186201E+0	1.244469E+0	1.179247E+0	1.267793E+0	1.216455E+0	1.156635E+0	1.139717E+0	1.255569E+0	1.224804E+0	1.207599E+0	1.195261E+0	1.218647E+0	1.214663E+0	1.220623E+0	1.239085E+0	1.176480E+0	1.211038E+0	1.231351E+0	1.212571E+0	1.254495E+0	1.243996E+0	1.247643E+0	1.258263E+0	1.288038E+0	1.275132E+0	1.202813E+0	1.197773E+0	1.132444E+0	1.255534E+0	1.240883E+0	1.210748E+0	1.218186E+0	1.280547E+0	1.203873E+0	1.224699E+0	1.223933E+0	1.213771E+0	1.189301E+0	1.178446E+0	1.224990E+0	1.212987E+0	1.210339E+0	1.214147E+0	1.289558E+0	1.242778E+0	1.207227E+0	1.216217E+0	1.233274E+0	1.245409E+0	1.170372E+0	1.210076E+0	1.182442E+0	1.211610E+0	1.268268E+0	1.188556E+0	1.230776E+0	1.273028E+0	1.185399E+0	1.241462E+0	1.237577E+0	1.202675E+0	1.246526E+0	1.247019E+0	1.181992E+0	1.228170E+0	1.200809E+0	1.210752E+0	1.204003E+0	1.217154E+0	1.212245E+0	1.223877E+0	1.227258E+0	1.207459E+0	1.248483E+0	1.176135E+0	1.261072E+0	1.203304E+0	1.170455E+0	1.196114E+0	1.227670E+0	1.253837E+0	1.241275E+0	1.190401E+0	1.188806E+0	1.202263E+0	1.235460E+0	1.192290E+0	1.236484E+0	1.245373E+0	1.261229E+0	1.212985E+0	1.238512E+0	1.180635E+0	1.240914E+0	1.229483E+0	1.229328E+0	1.270061E+0	1.247624E+0	1.156928E+0	1.241706E+0	1.177682E+0	1.267376E+0	1.185809E+0	1.248120E+0	1.235230E+0	1.255301E+0	1.189140E+0	1.245430E+0	1.230647E+0	1.233126E+0	1.168246E+0	1.207446E+0	1.200248E+0	1.275387E+0	1.243638E+0	1.195893E+0	1.261413E+0	1.188224E+0	1.222432E+0	1.238321E+0	1.215510E+0	1.226432E+0	1.260618E+0	1.235975E+0	1.228056E+0	1.227834E+0	1.187921E+0	1.236052E+0	1.207614E+0	1.216081E+0	1.218809E+0	1.224056E+0	1.243942E+0	1.251583E+0	1.204303E+0	1.224770E+0	1.191021E+0	1.298231E+0	1.216184E+0	1.298946E+0	1.210767E+0	1.237420E+0	1.242687E+0	1.227253E+0	1.205760E+0	1.170542E+0	1.208585E+0	1.220147E+0	1.168654E+0	1.184814E+0	1.150739E+0
5.527590E+2	1.228508E+0	1.200155E+0	1.235351E+0	1.259202E+0	1.308937E+0	1.162077E+0	1.199192E+0	1.260106E+0	1.198532E+0	1.256010E+0	1.216809E+0	1.203916E+0	1.184613E+0	1.229394E+0	1.207403E+0	1.230767E+0	1.248343E+0	1.165676E+0	1.236747E+0	1.252156E+0	1.297271E+0	1.234532E+0	1.185490E+0	1.193688E+0	1.241381E+0	1.194537E+0	1.129952E+0	1.197107E+0	1.226968E+0	1.187746E+0	1.221715E+0	1.171396E+0	1.263715E+0	1.174648E+0	1.184809E+0	1.253276E+0	1.191475E+0	1.176857E+0	1.233276E+0	1.208656E+0	1.183208E+0	1.207410E+0	1.189058E+0	1.221176E+0	1.253287E+0	1.230694E+0	1.231198E+0	1.210073E+0	1.200583E+0	1.222100E+0	1.237970E+0	1.131716E+0	1.191846E+0	1.231702E+0	1.163108E+0	1.179491E+0	1.225734E+0	1.179997E+0	1.278531E+0	1.187619E+0	1.202980E+0	1.181739E+0	1.136410E+0	1.231874E+0	1.216825E+0	1.200497E+0	1.161135E+0	1.181455E+0	1.159741E+0	1.245737E+0	1.120657E+0	1.208448E+0	1.222297E+0	1.241610E+0	1.126716E+0	1.173446E+0	1.154978E+0	1.200337E+0	1.223910E+0	1.245811E+0	1.190226E+0	1.156304E+0	1.202626E+0	1.195315E+0	1.266539E+0	1.156169E+0	1.182958E+0	1.158481E+0	1.183470E+0	1.214086E+0	1.246345E+0	1.201345E+0	1.270590E+0	1.169264E+0	1.183776E+0	1.225131E+0	1.223050E+0	1.210579E+0	1.173686E+0	1.187533E+0	1.227373E+0	1.222715E+0	1.173278E+0	1.211775E+0	1.174716E+0	1.197521E+0	1.220214E+0	1.161939E+0	1.177610E+0	1.161698E+0	1.222690E+0	1.130137E+0	1.197206E+0	1.230431E+0	1.194270E+0	1.178036E+0	1.176976E+0	1.187921E+0	1.201550E+0	1.182041E+0	1.210711E+0	1.185740E+0	1.170634E+0	1.144680E+0	1.263306E+0	1.193237E+0	1.238469E+0	1.246042E+0	1.257362E+0	1.177602E+0	1.178022E+0	1.176425E+0	1.210703E+0	1.241482E+0	1.161116E+0	1.173641E+0	1.271724E+0	1.215666E+0	1.179800E+0	1.172960E+0	1.255646E+0	1.132240E+0	1.226701E+0	1.182378E+0	1.251141E+0	1.155184E+0	1.176003E+0	1.147026E+0	1.261379E+0	1.175063E+0	1.242897E+0	1.223355E+0	1.191964E+0	1.196279E+0	1.168859E+0	1.194596E+0	1.205091E+0	1.259363E+0	1.208748E+0	1.211086E+0	1.184409E+0	1.188594E+0	1.262079E+0	1.165878E+0	1.172711E+0	1.191432E+0	1.212558E+0	1.196794E+0	1.159277E+0	1.159050E+0	1.154074E+0	1.264604E+0
5.534940E+2	1.144911E+0	1.173825E+0	1.172314E+0	1.150162E+0	1.161026E+0	1.163003E+0	1.182428E+0	1.217715E+0	1.178602E+0	1.246897E+0	1.173933E+0	1.158872E+0	1.181663E+0	1.103893E+0	1.131910E+0	1.165625E+0	1.177777E+0	1.172253E+0	1.137971E+0	1.215142E+0	1.199893E+0	1.124251E+0	1.149645E+0	1.121597E+0	1.194215E+0	1.138454E+0	1.193117E+0	1.157746E+0	1.203156E+0	1.204315E+0	1.206938E+0	1.208105E+0	1.226961E+0	1.124312E+0	1.135246E+0	1.144670E+0	1.133609E+0	1.152459E+0	1.187371E+0	1.175060E+0	1.140160E+0	1.160055E+0	1.136030E+0	1.165127E+0	1.176202E+0	1.147172E+0	1.198469E+0	1.175735E+0	1.217122E+0	1.144768E+0	1.144646E+0	1.159224E+0	1.197943E+0	1.139857E+0	1.170548E+0	1.154367E+0	1.182423E+0	1.157695E+0	1.139605E+0	1.148823E+0	1.170171E+0	1.163959E+0	1.175195E+0	1.116657E+0	1.192138E+0	1.157077E+0	1.187960E+0	1.140515E+0	1.189665E+0	1.196708E+0	1.205352E+0	1.122645E+0	1.136631E+0	1.183934E+0	1.140466E+0	1.177755E+0	1.150180E+0	1.197571E+0	1.147371E+0	1.153743E+0	1.170115E+0	1.160503E+0	1.180025E+0	1.185979E+0	1.153176E+0	1.194840E+0	1.165673E+0	1.128885E+0	1.156924E+0	1.172756E+0	1.151306E+0	1.184931E+0	1.163338E+0	1.161251E+0	1.187307E+0	1.115050E+0	1.190899E+0	1.164589E+0	1.207226E+0	1.147602E+0	1.122343E+0	1.166294E+0	1.140775E+0	1.215777E+0	1.157678E+0	1.168237E+0	1.134334E+0	1.151361E+0	1.237156E+0	1.162852E+0	1.134149E+0	1.128773E+0	1.180347E+0	1.173866E+0	1.193500E+0	1.134616E+0	1.167083E+0	1.113623E+0	1.154428E+0	1.186244E+0	1.228739E+0	1.194874E+0	1.166328E+0	1.163985E+0	1.202451E+0	1.126486E+0	1.123189E+0	1.139934E+0	1.218497E+0	1.159505E+0	1.151681E+0	1.145702E+0	1.179762E+0	1.177469E+0	1.153135E+0	1.146537E+0	1.175806E+0	1.208262E+0	1.174663E+0	1.211999E+0	1.223844E+0	1.188268E+0	1.171776E+0	1.136783E+0	1.160358E+0	1.165811E+0	1.172415E+0	1.144579E+0	1.208111E+0	1.161174E+0	1.146942E+0	1.177435E+0	1.193256E+0	1.104177E+0	1.144700E+0	1.140170E+0	1.190898E+0	1.197474E+0	1.208131E+0	1.187932E+0	1.168777E+0	1.140022E+0	1.154198E+0	1.157034E+0	1.182906E+0	1.167482E+0	1.101362E+0	1.153773E+0	1.131475E+0	1.097976E+0	1.152946E+0	1.128131E+0
5.542530E+2	1.056530E+0	1.079377E+0	1.137173E+0	1.035866E+0	1.056679E+0	1.071379E+0	1.066303E+0	1.078554E+0	1.107102E+0	1.094726E+0	1.087906E+0	1.081442E+0	1.068520E+0	1.135521E+0	1.035980E+0	1.087345E+0	1.071586E+0	1.057781E+0	1.031820E+0	1.097169E+0	1.113828E+0	1.079839E+0	1.099069E+0	1.083565E+0	1.128424E+0	1.097941E+0	1.065340E+0	1.065705E+0	1.078884E+0	1.111775E+0	1.091095E+0	1.106306E+0	1.052645E+0	1.046955E+0	1.054580E+0	1.096571E+0	1.060590E+0	1.070808E+0	1.094620E+0	1.077619E+0	1.094772E+0	1.091028E+0	1.064219E+0	1.120810E+0	1.069072E+0	1.078926E+0	1.083188E+0	1.069320E+0	1.115779E+0	1.105395E+0	9.977118E-1	1.052747E+0	1.087552E+0	1.029758E+0	1.103386E+0	1.083349E+0	1.076528E+0	1.098167E+0	1.038868E+0	1.065939E+0	1.055045E+0	1.095388E+0	1.082595E+0	1.088285E+0	1.079495E+0	1.115322E+0	1.036877E+0	1.123589E+0	1.094491E+0	1.067201E+0	1.078082E+0	1.069650E+0	1.092728E+0	1.052657E+0	1.015346E+0	1.092688E+0	1.102395E+0	1.083587E+0	1.068185E+0	1.115794E+0	1.100774E+0	1.047789E+0	1.026482E+0	1.114870E+0	1.070076E+0	1.125550E+0	1.096107E+0	1.060348E+0	1.086339E+0	1.074521E+0	1.082731E+0	1.055789E+0	1.095132E+0	1.100869E+0	1.050724E+0	1.058961E+0	1.103236E+0	1.093563E+0	1.089163E+0	1.057710E+0	1.067855E+0	1.099496E+0	1.060441E+0	1.041041E+0	1.040851E+0	1.008897E+0	1.044646E+0	1.144756E+0	1.053970E+0	1.064789E+0	1.132491E+0	1.066832E+0	1.099611E+0	1.092930E+0	1.077816E+0	1.098205E+0	1.082192E+0	1.080116E+0	1.096081E+0	1.113233E+0	1.061699E+0	1.053363E+0	1.063820E+0	1.047962E+0	1.072267E+0	1.086691E+0	1.050700E+0	1.041483E+0	1.109127E+0	1.043960E+0	1.061567E+0	1.058164E+0	1.101846E+0	1.126285E+0	1.043953E+0	1.096286E+0	1.077812E+0	1.064786E+0	1.086900E+0	1.044955E+0	1.111142E+0	1.062043E+0	1.087884E+0	1.060860E+0	1.123486E+0	1.073288E+0	1.023135E+0	1.030359E+0	1.059634E+0	1.077986E+0	1.088683E+0	1.047632E+0	1.073980E+0	1.087554E+0	1.045252E+0	1.105988E+0	1.130959E+0	1.069364E+0	1.131851E+0	1.082522E+0	1.088460E+0	1.077117E+0	1.082986E+0	1.031523E+0	1.093217E+0	1.061450E+0	1.081369E+0	1.107180E+0	1.044521E+0	1.045987E+0	1.028896E+0	1.127578E+0
5.550190E+2	9.834339E-1	1.043743E+0	9.569685E-1	9.486224E-1	9.762706E-1	9.815556E-1	1.000981E+0	1.044375E+0	1.024101E+0	1.026824E+0	9.822375E-1	9.989467E-1	1.017572E+0	1.007822E+0	9.649897E-1	1.014459E+0	1.011389E+0	1.027178E+0	9.664355E-1	1.054700E+0	9.959137E-1	1.006810E+0	1.003277E+0	1.009068E+0	1.081737E+0	1.016127E+0	9.908708E-1	1.014280E+0	1.003272E+0	9.933765E-1	1.003616E+0	1.015649E+0	9.790974E-1	1.031194E+0	1.019954E+0	1.016908E+0	1.019918E+0	1.022921E+0	9.953658E-1	1.005529E+0	1.034634E+0	1.018579E+0	9.789808E-1	1.001649E+0	1.007387E+0	1.008245E+0	1.049073E+0	1.027301E+0	1.021496E+0	9.940435E-1	9.878192E-1	9.835711E-1	1.029559E+0	9.927044E-1	1.022212E+0	9.941304E-1	1.047296E+0	9.781718E-1	9.821068E-1	1.026201E+0	9.792762E-1	1.066945E+0	9.644047E-1	1.043531E+0	1.059714E+0	9.883905E-1	9.705551E-1	9.895861E-1	1.032059E+0	9.975070E-1	9.636352E-1	1.053716E+0	9.705214E-1	9.403093E-1	9.628566E-1	1.012989E+0	1.051808E+0	1.012694E+0	9.619416E-1	9.931125E-1	9.693587E-1	9.759820E-1	1.010834E+0	9.999402E-1	9.973447E-1	9.967041E-1	9.982882E-1	9.837779E-1	1.010683E+0	9.697645E-1	1.016183E+0	1.033595E+0	1.038644E+0	9.982046E-1	1.076734E+0	1.002706E+0	9.913834E-1	9.508702E-1	1.023646E+0	9.526148E-1	9.909480E-1	1.000222E+0	9.894015E-1	9.915331E-1	9.818735E-1	1.045617E+0	9.762467E-1	1.037101E+0	9.986262E-1	9.840829E-1	9.958390E-1	9.753207E-1	1.018894E+0	9.782325E-1	1.017030E+0	1.041526E+0	9.893916E-1	9.902856E-1	1.036344E+0	9.823389E-1	1.048778E+0	1.023454E+0	9.720922E-1	9.618395E-1	1.050059E+0	9.854327E-1	9.902987E-1	9.861466E-1	1.032838E+0	1.031739E+0	1.038938E+0	1.027860E+0	9.925241E-1	1.004874E+0	9.917224E-1	1.014872E+0	1.053098E+0	1.013957E+0	9.851840E-1	1.033786E+0	1.027687E+0	9.755444E-1	1.024994E+0	1.025346E+0	9.721289E-1	1.018582E+0	1.011994E+0	1.068651E+0	1.003425E+0	9.729585E-1	1.014008E+0	1.012619E+0	1.005501E+0	9.832927E-1	9.882463E-1	9.952568E-1	9.689412E-1	1.033283E+0	1.029214E+0	9.705840E-1	1.021852E+0	9.542852E-1	1.002461E+0	1.038771E+0	9.614117E-1	1.013296E+0	9.774630E-1	9.615774E-1	9.376727E-1	9.983171E-1	9.695172E-1	1.019210E+0
5.557710E+2	9.539146E-1	9.710103E-1	9.659459E-1	9.655752E-1	9.703269E-1	9.168367E-1	9.526702E-1	9.726962E-1	9.633377E-1	9.894089E-1	9.448453E-1	9.794208E-1	9.693248E-1	9.750519E-1	9.275085E-1	9.536188E-1	9.866313E-1	9.773587E-1	9.417011E-1	1.009975E+0	9.351254E-1	9.360002E-1	9.537017E-1	9.217172E-1	9.488813E-1	9.769479E-1	9.445604E-1	1.003766E+0	8.704802E-1	9.729000E-1	9.612129E-1	9.458885E-1	9.388322E-1	9.362817E-1	8.711573E-1	9.265956E-1	1.001778E+0	9.178497E-1	9.686926E-1	9.563582E-1	9.703210E-1	9.950243E-1	9.279481E-1	9.245869E-1	9.353768E-1	9.679291E-1	9.705464E-1	9.274293E-1	9.316147E-1	9.581103E-1	9.417446E-1	9.504161E-1	9.655800E-1	9.926592E-1	9.854375E-1	9.710666E-1	1.014600E+0	9.525560E-1	1.005736E+0	9.221758E-1	9.997781E-1	9.780352E-1	9.211929E-1	9.826060E-1	9.393796E-1	9.602637E-1	9.582402E-1	9.425792E-1	9.465743E-1	9.967754E-1	9.301692E-1	9.744415E-1	9.652208E-1	9.408089E-1	9.393760E-1	9.617867E-1	9.327201E-1	8.936497E-1	9.245075E-1	9.042742E-1	9.169012E-1	9.294410E-1	9.191203E-1	9.204608E-1	9.682018E-1	9.078723E-1	9.488321E-1	9.413729E-1	9.850099E-1	9.394291E-1	9.595379E-1	9.388570E-1	9.961283E-1	9.466945E-1	9.461895E-1	9.435407E-1	9.875730E-1	9.334188E-1	9.204453E-1	9.417324E-1	9.121630E-1	9.635708E-1	9.293943E-1	9.436309E-1	9.112207E-1	9.431918E-1	9.138126E-1	9.994212E-1	9.648188E-1	9.361508E-1	9.584233E-1	9.332743E-1	9.794709E-1	9.546532E-1	9.442428E-1	9.875488E-1	9.969603E-1	9.117655E-1	9.841760E-1	9.408348E-1	1.019157E+0	9.499936E-1	9.199961E-1	9.634841E-1	9.709795E-1	9.325052E-1	9.251066E-1	9.648312E-1	1.002020E+0	9.849467E-1	9.315842E-1	9.497074E-1	9.920556E-1	9.517513E-1	9.496354E-1	9.266329E-1	9.515962E-1	9.463352E-1	9.833834E-1	9.696373E-1	9.692563E-1	8.577814E-1	9.860053E-1	9.023125E-1	9.677178E-1	8.982148E-1	9.095331E-1	9.139338E-1	9.726926E-1	9.470069E-1	9.411857E-1	9.491273E-1	9.535779E-1	9.332148E-1	9.509237E-1	9.214250E-1	9.562361E-1	9.487548E-1	9.953098E-1	9.559002E-1	9.380764E-1	9.325951E-1	9.258524E-1	9.435071E-1	9.705659E-1	9.572611E-1	9.352749E-1	9.435693E-1	9.425434E-1	9.877760E-1	8.882204E-1	9.315677E-1
5.560130E+2	9.432205E-1	9.299802E-1	9.423647E-1	9.771737E-1	9.692130E-1	9.271315E-1	9.562668E-1	9.429458E-1	9.587873E-1	1.001923E+0	9.552567E-1	9.675523E-1	9.582125E-1	9.337138E-1	9.643039E-1	9.674057E-1	9.453415E-1	9.571619E-1	8.936937E-1	9.445968E-1	9.731883E-1	9.228643E-1	9.624042E-1	9.196023E-1	9.468597E-1	9.525762E-1	9.115807E-1	9.803143E-1	9.561870E-1	1.015445E+0	9.403605E-1	9.358789E-1	9.494054E-1	9.936301E-1	9.349454E-1	9.559253E-1	9.961178E-1	1.003541E+0	9.851238E-1	9.233413E-1	9.855504E-1	9.080365E-1	9.659788E-1	9.061557E-1	9.328853E-1	9.227535E-1	9.653866E-1	9.435488E-1	9.357967E-1	9.782027E-1	9.194193E-1	9.204045E-1	9.564657E-1	9.956332E-1	9.470111E-1	9.237024E-1	9.782680E-1	9.263030E-1	9.442896E-1	9.491612E-1	9.627953E-1	9.748178E-1	9.394348E-1	9.298725E-1	9.933747E-1	8.927645E-1	9.805536E-1	9.173528E-1	9.220350E-1	9.599677E-1	9.132956E-1	9.374566E-1	9.199086E-1	9.474472E-1	8.955016E-1	1.006923E+0	9.195222E-1	9.584069E-1	9.369092E-1	9.518034E-1	9.087632E-1	9.225764E-1	9.548103E-1	9.470189E-1	9.441584E-1	9.525799E-1	9.537675E-1	9.317298E-1	9.678697E-1	1.003206E+0	9.144600E-1	9.465190E-1	9.384269E-1	1.002225E+0	9.387024E-1	9.464491E-1	9.937774E-1	9.146890E-1	9.523502E-1	9.302560E-1	9.566282E-1	9.711539E-1	9.782060E-1	9.409702E-1	9.618463E-1	9.426788E-1	9.719629E-1	9.822341E-1	9.442119E-1	9.412558E-1	9.360016E-1	9.289314E-1	1.007570E+0	9.248843E-1	9.842306E-1	9.615506E-1	9.544983E-1	9.520808E-1	9.255867E-1	9.761656E-1	9.388525E-1	9.664592E-1	9.537129E-1	9.314184E-1	9.319454E-1	9.327818E-1	9.535828E-1	9.423410E-1	9.872448E-1	9.594473E-1	9.370018E-1	9.375392E-1	9.603315E-1	9.650194E-1	9.929000E-1	9.779923E-1	9.640489E-1	9.621987E-1	9.381267E-1	9.123739E-1	9.463596E-1	9.421750E-1	9.120804E-1	9.805531E-1	9.604181E-1	9.607338E-1	9.350195E-1	9.062220E-1	9.610374E-1	9.776270E-1	9.484447E-1	9.212227E-1	9.756064E-1	9.288339E-1	9.262066E-1	9.342881E-1	9.625789E-1	9.779721E-1	9.664873E-1	9.321520E-1	9.732962E-1	9.448519E-1	1.000699E+0	9.085275E-1	9.657101E-1	9.273644E-1	9.429478E-1	9.031374E-1	9.355053E-1	9.517288E-1	9.879038E-1	9.404817E-1
5.565090E+2	9.400987E-1	9.472418E-1	9.749933E-1	9.086866E-1	9.509124E-1	9.450496E-1	9.461625E-1	8.822303E-1	9.227228E-1	9.791660E-1	9.397855E-1	9.760424E-1	9.202158E-1	9.228767E-1	1.005696E+0	9.461613E-1	9.767916E-1	9.690512E-1	9.253522E-1	9.474985E-1	9.662162E-1	9.355673E-1	9.367135E-1	9.248719E-1	9.246300E-1	9.468036E-1	9.404904E-1	9.655008E-1	9.178836E-1	9.543758E-1	9.353197E-1	9.409864E-1	9.928750E-1	9.578622E-1	9.678069E-1	9.998315E-1	1.000248E+0	9.802016E-1	9.767782E-1	9.384503E-1	9.718298E-1	9.492874E-1	9.559899E-1	9.994100E-1	9.247811E-1	9.335193E-1	9.243926E-1	9.927438E-1	9.457150E-1	9.740838E-1	9.786074E-1	9.640153E-1	9.433215E-1	9.786747E-1	9.436818E-1	9.214199E-1	9.723775E-1	9.270661E-1	9.213622E-1	9.572299E-1	9.236374E-1	9.452688E-1	9.309365E-1	9.530157E-1	9.673656E-1	9.419186E-1	9.658195E-1	9.553652E-1	9.153780E-1	1.023979E+0	9.388649E-1	9.559090E-1	9.550695E-1	9.970745E-1	9.707992E-1	9.763354E-1	9.784833E-1	9.664067E-1	9.418947E-1	9.473711E-1	9.630825E-1	9.729455E-1	9.559693E-1	1.012400E+0	9.582201E-1	9.616482E-1	9.743806E-1	9.356972E-1	9.464955E-1	9.466128E-1	9.610488E-1	9.354784E-1	9.537776E-1	1.015579E+0	9.232698E-1	9.921049E-1	9.497412E-1	9.750119E-1	9.521617E-1	9.605560E-1	9.595159E-1	9.259975E-1	9.655761E-1	9.325551E-1	9.482850E-1	9.437823E-1	9.306325E-1	9.245244E-1	9.753695E-1	9.327196E-1	9.557964E-1	9.342076E-1	9.414113E-1	9.524451E-1	9.090740E-1	9.360760E-1	9.310267E-1	9.442085E-1	1.018311E+0	9.511655E-1	9.687631E-1	9.415659E-1	9.465213E-1	9.530479E-1	9.418218E-1	9.051138E-1	9.203854E-1	9.167273E-1	9.659326E-1	9.493376E-1	9.358619E-1	9.946942E-1	9.514425E-1	9.844402E-1	9.671695E-1	8.922117E-1	9.687058E-1	9.277339E-1	9.628345E-1	9.240003E-1	9.705325E-1	9.969632E-1	9.541978E-1	9.584831E-1	9.469419E-1	9.356698E-1	9.604458E-1	9.513209E-1	9.826168E-1	9.252731E-1	9.411790E-1	9.441318E-1	9.215354E-1	9.978512E-1	9.545518E-1	9.535947E-1	9.781025E-1	9.523775E-1	9.478799E-1	9.342003E-1	9.642875E-1	9.407512E-1	9.688429E-1	9.321795E-1	9.637064E-1	9.326719E-1	9.719012E-1	9.541778E-1	9.391886E-1	9.687258E-1	9.586974E-1	9.951961E-1
5.570100E+2	1.013519E+0	1.006394E+0	9.799621E-1	9.663699E-1	1.030038E+0	9.669138E-1	9.961872E-1	9.882434E-1	1.022068E+0	9.551207E-1	9.823936E-1	9.495687E-1	9.908835E-1	9.643501E-1	9.249357E-1	9.902801E-1	9.510785E-1	9.683272E-1	1.010354E+0	9.705115E-1	9.965154E-1	9.455307E-1	9.356019E-1	9.873505E-1	9.670880E-1	9.516999E-1	1.016020E+0	9.896090E-1	9.969623E-1	9.610670E-1	9.900429E-1	9.627624E-1	9.424151E-1	9.924451E-1	9.633234E-1	9.679171E-1	9.743674E-1	1.011251E+0	9.876203E-1	1.009094E+0	9.533583E-1	9.740114E-1	9.946414E-1	1.023175E+0	9.757220E-1	9.822890E-1	9.817491E-1	9.145033E-1	9.860926E-1	9.698034E-1	9.388551E-1	9.803527E-1	9.816782E-1	1.009924E+0	1.013646E+0	9.526703E-1	9.695837E-1	9.845560E-1	9.427399E-1	9.886134E-1	9.514725E-1	9.659671E-1	9.474392E-1	9.776533E-1	9.858016E-1	1.007644E+0	9.688627E-1	9.749733E-1	1.013096E+0	9.329939E-1	9.643530E-1	9.660109E-1	9.717145E-1	1.026868E+0	9.965465E-1	9.693484E-1	9.941173E-1	9.847101E-1	9.548509E-1	9.958566E-1	9.975705E-1	1.007315E+0	9.609682E-1	9.900930E-1	1.018609E+0	9.658630E-1	9.639763E-1	9.450317E-1	9.574608E-1	1.072241E+0	1.005703E+0	9.728032E-1	9.542956E-1	1.000795E+0	9.769519E-1	9.422464E-1	9.455773E-1	9.843094E-1	9.481464E-1	9.709689E-1	1.013271E+0	9.975919E-1	9.975919E-1	1.001095E+0	9.833885E-1	1.026519E+0	9.743640E-1	9.672566E-1	9.301901E-1	9.694080E-1	9.990181E-1	9.802146E-1	9.934218E-1	9.692207E-1	1.019070E+0	1.026489E+0	9.794908E-1	9.889692E-1	9.703987E-1	9.896220E-1	9.560878E-1	9.671535E-1	1.034347E+0	9.681340E-1	9.831920E-1	1.019960E+0	9.888675E-1	9.794410E-1	1.019196E+0	1.005839E+0	9.566737E-1	9.855478E-1	9.229988E-1	9.989679E-1	9.801855E-1	1.022548E+0	9.904884E-1	9.601096E-1	9.686159E-1	9.812005E-1	9.910432E-1	9.859253E-1	1.012230E+0	9.689867E-1	1.005896E+0	9.686777E-1	9.596526E-1	9.583584E-1	1.014539E+0	9.767394E-1	9.756043E-1	9.602933E-1	9.322929E-1	9.530795E-1	1.046049E+0	1.014684E+0	9.999387E-1	9.948167E-1	9.613762E-1	1.018129E+0	1.028909E+0	1.016700E+0	1.002936E+0	9.797845E-1	9.354310E-1	9.678422E-1	9.906350E-1	9.829267E-1	9.998314E-1	9.592263E-1	9.887274E-1	9.938044E-1
5.575250E+2	9.522871E-1	9.371317E-1	9.362846E-1	1.043416E+0	9.892052E-1	9.947107E-1	9.662220E-1	9.863573E-1	9.459202E-1	9.869734E-1	9.823872E-1	9.876993E-1	9.949246E-1	9.718290E-1	9.639129E-1	9.534908E-1	9.613478E-1	9.490442E-1	9.485331E-1	9.462519E-1	9.889595E-1	1.024924E+0	9.620748E-1	1.016869E+0	1.027089E+0	9.469077E-1	9.725642E-1	9.076799E-1	1.013837E+0	9.589957E-1	9.725853E-1	9.916609E-1	9.814804E-1	9.833216E-1	1.004271E+0	1.002692E+0	9.687433E-1	9.688775E-1	1.020895E+0	9.785754E-1	9.991870E-1	9.775571E-1	9.862984E-1	9.459812E-1	9.458736E-1	9.715307E-1	9.802058E-1	1.043053E+0	9.794102E-1	9.874854E-1	9.749625E-1	1.021426E+0	9.933420E-1	9.838864E-1	9.649438E-1	9.618403E-1	9.889974E-1	9.522216E-1	9.711475E-1	9.593940E-1	9.849386E-1	9.178126E-1	9.993905E-1	9.814217E-1	9.262427E-1	9.937873E-1	1.012272E+0	1.037901E+0	1.059614E+0	9.834025E-1	9.710957E-1	9.642612E-1	9.797974E-1	9.739081E-1	1.012468E+0	9.619663E-1	1.011076E+0	9.894461E-1	1.042622E+0	9.837104E-1	1.000104E+0	9.667600E-1	9.722274E-1	1.000599E+0	9.621396E-1	9.812722E-1	1.022404E+0	9.847476E-1	1.008301E+0	9.907518E-1	9.428654E-1	9.976278E-1	1.036444E+0	9.963795E-1	1.001250E+0	9.640917E-1	1.021088E+0	9.957105E-1	9.925357E-1	9.948299E-1	9.755012E-1	9.883028E-1	9.637495E-1	9.712093E-1	9.600951E-1	9.771237E-1	1.017468E+0	9.981873E-1	9.918841E-1	9.789406E-1	9.853117E-1	9.466109E-1	1.010821E+0	1.005463E+0	9.836533E-1	9.583234E-1	9.765516E-1	9.825164E-1	1.010937E+0	9.610831E-1	9.924145E-1	1.004424E+0	9.704581E-1	1.016428E+0	1.015624E+0	9.904238E-1	1.037404E+0	1.010544E+0	1.001993E+0	9.925445E-1	9.621495E-1	9.881020E-1	9.794098E-1	9.663838E-1	9.800240E-1	9.913622E-1	9.892071E-1	9.754040E-1	9.863693E-1	9.935407E-1	9.512366E-1	9.826643E-1	9.993177E-1	9.856451E-1	9.998307E-1	1.001531E+0	1.017158E+0	9.875254E-1	9.655921E-1	1.020374E+0	1.014537E+0	9.585406E-1	9.695063E-1	9.700826E-1	9.429440E-1	9.634122E-1	9.713508E-1	9.403001E-1	9.618426E-1	9.681202E-1	9.570145E-1	9.611955E-1	9.943735E-1	9.499190E-1	9.693338E-1	1.016431E+0	9.526495E-1	9.994725E-1	9.928243E-1	1.028160E+0	1.015224E+0	9.662959E-1
5.580110E+2	9.983776E-1	1.039469E+0	1.014218E+0	1.038831E+0	9.833689E-1	9.681558E-1	1.059972E+0	1.022545E+0	9.996770E-1	1.052029E+0	1.026315E+0	9.911669E-1	1.001163E+0	9.853369E-1	9.945551E-1	1.028211E+0	1.015277E+0	1.010362E+0	9.979176E-1	9.563407E-1	1.021307E+0	9.861813E-1	1.033132E+0	1.036367E+0	1.001729E+0	9.644375E-1	1.005054E+0	9.662854E-1	9.967617E-1	1.012552E+0	9.531273E-1	9.794771E-1	1.004160E+0	9.610286E-1	9.791131E-1	1.033539E+0	1.039585E+0	9.865660E-1	1.020468E+0	9.979332E-1	1.013136E+0	1.035923E+0	9.766706E-1	1.020882E+0	1.036441E+0	9.926839E-1	9.668078E-1	9.937786E-1	9.952678E-1	9.944030E-1	1.012086E+0	1.010019E+0	1.012772E+0	9.328520E-1	1.000788E+0	1.049809E+0	1.010898E+0	1.006748E+0	9.919098E-1	1.013805E+0	1.026334E+0	1.021862E+0	1.063552E+0	9.880536E-1	1.015592E+0	9.991747E-1	1.025525E+0	1.007248E+0	9.975329E-1	9.864035E-1	1.029263E+0	9.966205E-1	9.604944E-1	1.002372E+0	1.028941E+0	9.800483E-1	9.883359E-1	9.592157E-1	1.081303E+0	9.958047E-1	1.008722E+0	1.012328E+0	1.005585E+0	1.010139E+0	1.026008E+0	1.014547E+0	1.008667E+0	9.831059E-1	1.004813E+0	1.007168E+0	9.873572E-1	9.933108E-1	9.755151E-1	9.585348E-1	9.686974E-1	9.981114E-1	9.936661E-1	9.872064E-1	1.070021E+0	1.023766E+0	1.001580E+0	1.047525E+0	1.006996E+0	9.850084E-1	1.043080E+0	9.982699E-1	9.873131E-1	9.732567E-1	1.031224E+0	9.874202E-1	1.049720E+0	1.002613E+0	1.024567E+0	9.949264E-1	1.023075E+0	1.010743E+0	9.649935E-1	1.005085E+0	9.962307E-1	1.068998E+0	9.803222E-1	1.008347E+0	1.021296E+0	9.662320E-1	9.724857E-1	1.022794E+0	9.692986E-1	1.025683E+0	9.970576E-1	9.788404E-1	9.685471E-1	9.774860E-1	1.024416E+0	9.808870E-1	9.772220E-1	1.019129E+0	1.009076E+0	1.035079E+0	9.895769E-1	9.790134E-1	1.020742E+0	9.891149E-1	1.069620E+0	1.028287E+0	9.679558E-1	1.037240E+0	1.019524E+0	9.926551E-1	9.659868E-1	9.852816E-1	9.699608E-1	1.049428E+0	9.837236E-1	1.002188E+0	1.024149E+0	9.773231E-1	1.024977E+0	9.934692E-1	1.032936E+0	9.878386E-1	9.826196E-1	9.817667E-1	1.008080E+0	1.013961E+0	1.033422E+0	9.648527E-1	9.729334E-1	1.014155E+0	9.878583E-1	1.039583E+0	9.846713E-1	1.061921E+0
5.585100E+2	1.018092E+0	1.024206E+0	1.039655E+0	1.006364E+0	1.007190E+0	1.037299E+0	1.065210E+0	1.058275E+0	1.043442E+0	1.069657E+0	1.026020E+0	1.040194E+0	1.053545E+0	1.059595E+0	1.000908E+0	1.026584E+0	1.022874E+0	1.038904E+0	1.082013E+0	1.011989E+0	1.037512E+0	1.046880E+0	1.008045E+0	1.023730E+0	1.035339E+0	1.049118E+0	9.979509E-1	1.038306E+0	1.044632E+0	1.016779E+0	1.113130E+0	1.052330E+0	1.040468E+0	1.020887E+0	1.049430E+0	1.035499E+0	9.989609E-1	1.035037E+0	1.038168E+0	1.002624E+0	9.977921E-1	1.064108E+0	1.036191E+0	1.023445E+0	1.029046E+0	1.095506E+0	1.001756E+0	1.049198E+0	9.927614E-1	1.029725E+0	1.039362E+0	1.042781E+0	1.073533E+0	1.044425E+0	1.021433E+0	1.005732E+0	1.041740E+0	1.080031E+0	1.015402E+0	9.724791E-1	1.065742E+0	1.084963E+0	1.040338E+0	1.038609E+0	1.053395E+0	1.024910E+0	1.024016E+0	1.000051E+0	1.042534E+0	1.015283E+0	1.034218E+0	1.031568E+0	1.034180E+0	1.032334E+0	1.026281E+0	1.068352E+0	1.020218E+0	1.068801E+0	9.999809E-1	1.013720E+0	1.018063E+0	1.039276E+0	1.015132E+0	1.057088E+0	1.026153E+0	1.072104E+0	1.072843E+0	1.025229E+0	1.056603E+0	1.002720E+0	1.042301E+0	1.009746E+0	1.015831E+0	1.051050E+0	1.062312E+0	1.024438E+0	1.040783E+0	1.021568E+0	1.031818E+0	1.042951E+0	1.030138E+0	1.009532E+0	1.062208E+0	1.036216E+0	1.065090E+0	1.001484E+0	1.050841E+0	1.052306E+0	1.012121E+0	1.069765E+0	9.877739E-1	1.026167E+0	1.046189E+0	1.016343E+0	9.686808E-1	1.050925E+0	1.024719E+0	1.039276E+0	1.022043E+0	1.030405E+0	1.069589E+0	1.058070E+0	1.045881E+0	1.048896E+0	1.003781E+0	1.056097E+0	1.039404E+0	1.005701E+0	1.027442E+0	1.033531E+0	1.019986E+0	1.047331E+0	1.078557E+0	9.965481E-1	1.046930E+0	1.032980E+0	1.027732E+0	9.981757E-1	1.045570E+0	1.077075E+0	1.006935E+0	1.069035E+0	1.011074E+0	1.016320E+0	1.019550E+0	1.018808E+0	9.703411E-1	1.050472E+0	9.909155E-1	1.015829E+0	1.017323E+0	1.023251E+0	1.042425E+0	1.013951E+0	9.939042E-1	1.029360E+0	1.051887E+0	1.042051E+0	1.047908E+0	1.041016E+0	1.036631E+0	1.037889E+0	1.007839E+0	1.016534E+0	1.042833E+0	1.032807E+0	9.871992E-1	1.076948E+0	1.076783E+0	9.913513E-1	9.977739E-1	1.065883E+0
5.590100E+2	1.023824E+0	9.828974E-1	9.962976E-1	1.035021E+0	1.042278E+0	1.015786E+0	1.081235E+0	1.016897E+0	1.012935E+0	1.043541E+0	1.029429E+0	1.065891E+0	1.043900E+0	1.008571E+0	1.035021E+0	1.054179E+0	1.030362E+0	1.014853E+0	1.001153E+0	1.060008E+0	9.691987E-1	1.017551E+0	1.028878E+0	9.982270E-1	1.081698E+0	1.017304E+0	1.005170E+0	1.022994E+0	1.029009E+0	1.061459E+0	1.020938E+0	1.020796E+0	1.020269E+0	1.087947E+0	1.009594E+0	9.838392E-1	1.008790E+0	1.023115E+0	1.026635E+0	1.045781E+0	9.656467E-1	1.031471E+0	1.004294E+0	9.835194E-1	1.009638E+0	1.032524E+0	1.038226E+0	9.677367E-1	1.033316E+0	1.039667E+0	1.010892E+0	9.800058E-1	9.972900E-1	1.049751E+0	1.008955E+0	1.014588E+0	1.011469E+0	1.047514E+0	1.011832E+0	1.025154E+0	1.027603E+0	1.025110E+0	1.010001E+0	1.022027E+0	9.920505E-1	9.999848E-1	9.943145E-1	1.047337E+0	9.724960E-1	1.013133E+0	1.021639E+0	1.025190E+0	1.102489E+0	9.888514E-1	1.007409E+0	1.014652E+0	1.016302E+0	1.023293E+0	1.004738E+0	1.003433E+0	9.792159E-1	1.027975E+0	1.023012E+0	1.007743E+0	9.940602E-1	9.754705E-1	1.000749E+0	1.045236E+0	9.951769E-1	1.050060E+0	1.024909E+0	1.029511E+0	1.026289E+0	1.046432E+0	1.031700E+0	1.009918E+0	9.994411E-1	1.023681E+0	9.867859E-1	1.006139E+0	9.879235E-1	1.055116E+0	9.951943E-1	1.021341E+0	1.023886E+0	1.011503E+0	9.984121E-1	1.017247E+0	1.035961E+0	1.053466E+0	1.030557E+0	1.020096E+0	1.056037E+0	1.006140E+0	1.045438E+0	9.993556E-1	1.081376E+0	1.016874E+0	1.017959E+0	1.053109E+0	1.015720E+0	1.002519E+0	9.854329E-1	1.039379E+0	9.880043E-1	9.541484E-1	1.041579E+0	1.009583E+0	1.001799E+0	9.958351E-1	1.017529E+0	9.880585E-1	1.035177E+0	9.832859E-1	9.963463E-1	1.013442E+0	1.023598E+0	1.060841E+0	9.893841E-1	1.008931E+0	1.034128E+0	9.686621E-1	1.017909E+0	1.013739E+0	1.029385E+0	1.042750E+0	1.058899E+0	1.010400E+0	1.053700E+0	9.925744E-1	1.023545E+0	1.014548E+0	1.041491E+0	1.037164E+0	1.027465E+0	9.973009E-1	9.811984E-1	1.039834E+0	1.055010E+0	1.023508E+0	1.043746E+0	1.013975E+0	1.014233E+0	1.019336E+0	1.013210E+0	1.006716E+0	1.129282E+0	9.844719E-1	1.013181E+0	1.014881E+0	9.842195E-1	9.270247E-1
5.595170E+2	1.002258E+0	9.968143E-1	9.905386E-1	1.012901E+0	9.738492E-1	1.007947E+0	9.555521E-1	9.656321E-1	1.014458E+0	9.763334E-1	1.000316E+0	9.869070E-1	9.957925E-1	1.027783E+0	1.015177E+0	1.009321E+0	9.942938E-1	1.009327E+0	1.002665E+0	1.018384E+0	9.669222E-1	1.027550E+0	9.990159E-1	9.732577E-1	9.929410E-1	1.059597E+0	1.002491E+0	1.024716E+0	9.778340E-1	1.030001E+0	1.045137E+0	1.019275E+0	9.823884E-1	1.015624E+0	1.023010E+0	1.001053E+0	1.019684E+0	1.012640E+0	9.629332E-1	1.026383E+0	1.026604E+0	1.014524E+0	9.940612E-1	9.961324E-1	1.031072E+0	9.602029E-1	9.956016E-1	9.992078E-1	9.673316E-1	9.877876E-1	1.018654E+0	9.847424E-1	9.578492E-1	9.771584E-1	1.002908E+0	9.860036E-1	9.882768E-1	1.031705E+0	1.046788E+0	1.028189E+0	1.002989E+0	1.017020E+0	9.925786E-1	1.000109E+0	1.010173E+0	1.015906E+0	9.742608E-1	9.965587E-1	9.876301E-1	1.010881E+0	9.892736E-1	1.010924E+0	1.012289E+0	9.988073E-1	9.781719E-1	9.755221E-1	9.966632E-1	9.864870E-1	1.002049E+0	1.011410E+0	1.016332E+0	9.379595E-1	1.008538E+0	9.515614E-1	9.578084E-1	9.770112E-1	9.985851E-1	1.032933E+0	1.003558E+0	9.815084E-1	1.023903E+0	1.010265E+0	9.974612E-1	9.640080E-1	1.032275E+0	1.004964E+0	1.018567E+0	1.042321E+0	1.004086E+0	1.012357E+0	1.027042E+0	9.878469E-1	9.744958E-1	1.035944E+0	9.812260E-1	9.892040E-1	1.020084E+0	1.025807E+0	9.896638E-1	9.757100E-1	9.504653E-1	1.005684E+0	9.774783E-1	9.813048E-1	9.468839E-1	9.964473E-1	1.008030E+0	1.016515E+0	9.641185E-1	9.803631E-1	9.506748E-1	9.858728E-1	9.444260E-1	9.911867E-1	9.955579E-1	9.986451E-1	9.639386E-1	1.000416E+0	9.787775E-1	1.008930E+0	1.014967E+0	9.781756E-1	9.552453E-1	1.032317E+0	9.881924E-1	1.013931E+0	9.826829E-1	1.019901E+0	1.025039E+0	9.704339E-1	9.585586E-1	1.012757E+0	9.539723E-1	1.010304E+0	9.688283E-1	9.997867E-1	1.004007E+0	9.601195E-1	1.005763E+0	1.017035E+0	1.019927E+0	9.955654E-1	1.061878E+0	9.853882E-1	9.737085E-1	9.814824E-1	9.988579E-1	1.003852E+0	9.709774E-1	9.820400E-1	9.648972E-1	1.005310E+0	9.826613E-1	9.906572E-1	9.975202E-1	1.004164E+0	9.734225E-1	9.981106E-1	1.025539E+0	9.961234E-1	9.891744E-1	1.024740E+0
5.600130E+2	1.013727E+0	1.038764E+0	1.039099E+0	1.011226E+0	9.693196E-1	1.029213E+0	9.425867E-1	9.952334E-1	1.006359E+0	9.570493E-1	9.790665E-1	1.018152E+0	9.790557E-1	1.002593E+0	9.973991E-1	9.782230E-1	9.749994E-1	9.750906E-1	9.789221E-1	1.022300E+0	1.010197E+0	1.055723E+0	1.029542E+0	1.017874E+0	9.982821E-1	9.984849E-1	9.923235E-1	1.035969E+0	1.029405E+0	1.009208E+0	9.909597E-1	9.652642E-1	9.862135E-1	9.740658E-1	9.737279E-1	9.965298E-1	1.002400E+0	9.911820E-1	9.973281E-1	9.981145E-1	9.635539E-1	9.919003E-1	1.021719E+0	9.428924E-1	9.825938E-1	9.957521E-1	1.031138E+0	9.730034E-1	1.064659E+0	1.036895E+0	9.867257E-1	9.799268E-1	1.021970E+0	9.783781E-1	1.044513E+0	1.039814E+0	1.048167E+0	1.003618E+0	1.014329E+0	1.021381E+0	1.039739E+0	1.027213E+0	9.896583E-1	1.018215E+0	9.385451E-1	9.710408E-1	9.789371E-1	9.354366E-1	1.005241E+0	9.967994E-1	9.684169E-1	9.930607E-1	9.893060E-1	9.713122E-1	1.025792E+0	1.002264E+0	9.457901E-1	1.008807E+0	9.796691E-1	1.031785E+0	1.038477E+0	9.812660E-1	1.036398E+0	9.780999E-1	1.008478E+0	9.810233E-1	1.023439E+0	1.011902E+0	9.828464E-1	9.931151E-1	1.009197E+0	1.028641E+0	1.054375E+0	1.005656E+0	9.637369E-1	1.038004E+0	9.911455E-1	1.004637E+0	9.994924E-1	9.747939E-1	1.038077E+0	9.553037E-1	1.001357E+0	1.026032E+0	9.770109E-1	9.881338E-1	9.904195E-1	1.002106E+0	1.008654E+0	1.020286E+0	1.043201E+0	1.035728E+0	9.352302E-1	1.017840E+0	9.832957E-1	9.660651E-1	9.766400E-1	9.951259E-1	1.002833E+0	1.022570E+0	1.012126E+0	9.782360E-1	1.008938E+0	1.009849E+0	1.053027E+0	1.039344E+0	1.000352E+0	1.013400E+0	9.930152E-1	1.018611E+0	1.028694E+0	9.593445E-1	1.013625E+0	9.943709E-1	1.032973E+0	9.979154E-1	9.976488E-1	9.925880E-1	9.693854E-1	1.049921E+0	1.004284E+0	1.011265E+0	9.615393E-1	1.013320E+0	1.017681E+0	9.941207E-1	9.849697E-1	1.073336E+0	1.003863E+0	1.015565E+0	1.010821E+0	1.021559E+0	1.000424E+0	1.029849E+0	1.012483E+0	1.025301E+0	9.837797E-1	9.966573E-1	9.912989E-1	9.544283E-1	1.006528E+0	1.016288E+0	1.013397E+0	1.018949E+0	9.935122E-1	1.026833E+0	1.025313E+0	1.021639E+0	9.663122E-1	1.027531E+0	1.043427E+0	1.052227E+0
5.605090E+2	1.013145E+0	1.012445E+0	1.046101E+0	9.940217E-1	1.055607E+0	1.008860E+0	9.956183E-1	1.032340E+0	1.035907E+0	9.863511E-1	1.052180E+0	1.023858E+0	1.028104E+0	1.047755E+0	1.045502E+0	1.045211E+0	1.024046E+0	1.036935E+0	1.026610E+0	1.023487E+0	1.067546E+0	1.003525E+0	1.053364E+0	1.003751E+0	9.826131E-1	1.012186E+0	1.039925E+0	1.042792E+0	9.885618E-1	1.018035E+0	1.024394E+0	1.072358E+0	1.046056E+0	1.025270E+0	1.032819E+0	1.007739E+0	9.780481E-1	9.906718E-1	1.013334E+0	9.962747E-1	1.051939E+0	9.894474E-1	1.010718E+0	1.025750E+0	1.062001E+0	1.027238E+0	1.037304E+0	1.026969E+0	1.018449E+0	9.979380E-1	1.039282E+0	1.059922E+0	1.013251E+0	1.017794E+0	1.028708E+0	1.040246E+0	1.012102E+0	9.893674E-1	1.044488E+0	1.021380E+0	1.012381E+0	1.021584E+0	1.003797E+0	1.022499E+0	1.067544E+0	1.020819E+0	1.055610E+0	1.016017E+0	1.039975E+0	9.996589E-1	1.053011E+0	1.046254E+0	9.733773E-1	1.018657E+0	1.005312E+0	1.024525E+0	1.042205E+0	1.026901E+0	9.868523E-1	1.025895E+0	9.650214E-1	1.038105E+0	1.009781E+0	9.931830E-1	1.045131E+0	1.031486E+0	9.694359E-1	1.014289E+0	1.014179E+0	1.017825E+0	1.020969E+0	1.011908E+0	9.973944E-1	9.556505E-1	1.030736E+0	1.024252E+0	1.025394E+0	9.807166E-1	9.965466E-1	9.970462E-1	9.807146E-1	1.024941E+0	1.019045E+0	9.803633E-1	1.017187E+0	1.052430E+0	1.012501E+0	1.039758E+0	9.895216E-1	1.005666E+0	1.001470E+0	9.957181E-1	1.052933E+0	1.043179E+0	1.040807E+0	1.030027E+0	1.039581E+0	9.842565E-1	9.684488E-1	9.849530E-1	1.024162E+0	1.022609E+0	1.025294E+0	1.049318E+0	1.058901E+0	1.009358E+0	1.020814E+0	1.063103E+0	9.941951E-1	1.040834E+0	1.049804E+0	1.045953E+0	1.014694E+0	1.052535E+0	1.045790E+0	1.009647E+0	1.037609E+0	1.001544E+0	1.036854E+0	1.009623E+0	1.049608E+0	1.021275E+0	1.011494E+0	1.062790E+0	1.028630E+0	1.002688E+0	1.019831E+0	1.026020E+0	1.038735E+0	1.028925E+0	1.042199E+0	1.016416E+0	1.039752E+0	1.000773E+0	1.041153E+0	1.018571E+0	9.923280E-1	1.014130E+0	1.012315E+0	1.029439E+0	9.913570E-1	9.975448E-1	1.008319E+0	1.038171E+0	1.048281E+0	1.062760E+0	1.019874E+0	9.525288E-1	9.847558E-1	9.705303E-1	1.045022E+0	9.504266E-1
5.610010E+2	1.024672E+0	1.014636E+0	9.828503E-1	9.831618E-1	9.982322E-1	1.026065E+0	9.912543E-1	1.052247E+0	9.965118E-1	9.937786E-1	9.821087E-1	9.605212E-1	9.924148E-1	1.009311E+0	1.016892E+0	9.683398E-1	1.048929E+0	1.028106E+0	1.026481E+0	1.043229E+0	9.756259E-1	9.565678E-1	1.013634E+0	1.017703E+0	9.885903E-1	1.053462E+0	1.028011E+0	1.006149E+0	1.005113E+0	9.775286E-1	9.543657E-1	9.950895E-1	1.003674E+0	9.815489E-1	9.969045E-1	9.713596E-1	1.009174E+0	1.000458E+0	9.558413E-1	1.006771E+0	1.056953E+0	9.717698E-1	1.019417E+0	1.038813E+0	1.002831E+0	1.008753E+0	1.042819E+0	1.039807E+0	1.016997E+0	9.822117E-1	1.000572E+0	9.768083E-1	1.004994E+0	1.027156E+0	9.704242E-1	1.027877E+0	9.563885E-1	9.771725E-1	1.040001E+0	1.012376E+0	9.651633E-1	9.731994E-1	1.022309E+0	9.983969E-1	1.043291E+0	1.024815E+0	1.000381E+0	1.029112E+0	9.665028E-1	1.037467E+0	1.029864E+0	1.010202E+0	1.021282E+0	9.898144E-1	9.482803E-1	1.026986E+0	1.006810E+0	9.859312E-1	1.006041E+0	9.910137E-1	1.013411E+0	1.016070E+0	1.012389E+0	9.990934E-1	1.003393E+0	1.039575E+0	9.655193E-1	1.021828E+0	1.030567E+0	9.379976E-1	9.817472E-1	1.010709E+0	9.886164E-1	1.005915E+0	1.009071E+0	1.001869E+0	1.014597E+0	9.848383E-1	1.018405E+0	1.016592E+0	9.862358E-1	1.007843E+0	1.013786E+0	1.010235E+0	1.000752E+0	1.011549E+0	1.017965E+0	9.995507E-1	1.035411E+0	1.006618E+0	9.966867E-1	1.052959E+0	9.619109E-1	1.013137E+0	1.080021E+0	1.025548E+0	1.017591E+0	1.027174E+0	1.028720E+0	9.577312E-1	1.030139E+0	1.031202E+0	1.017406E+0	9.575297E-1	9.876052E-1	1.004117E+0	1.017957E+0	9.754011E-1	1.020592E+0	9.756972E-1	1.045787E+0	1.035307E+0	1.024434E+0	1.010264E+0	9.851673E-1	1.006834E+0	9.732515E-1	1.028625E+0	1.026371E+0	1.006262E+0	1.012932E+0	9.623371E-1	1.008646E+0	9.421249E-1	1.015301E+0	9.987283E-1	1.005172E+0	9.897928E-1	9.782889E-1	1.022404E+0	9.849040E-1	1.016267E+0	1.006972E+0	1.009673E+0	9.835919E-1	1.038970E+0	1.017580E+0	1.022512E+0	1.018456E+0	1.061281E+0	1.024010E+0	1.028580E+0	9.993196E-1	1.040509E+0	1.002751E+0	9.849224E-1	9.767903E-1	1.015570E+0	1.013727E+0	1.003889E+0	9.930631E-1	9.624818E-1
