Photon Energy (eV)	#1	#2	#3	#4	#5	#6	#7	#8	#9	#10	#11	#12	#13	#14	#15	#16	#17	#18	#19	#20	#21	#22	#23	#24	#25	#26	#27	#28	#29	#30	#31	#32	#33	#34	#35	#36	#37	#38	#39	#40	#41	#42	#43	#44	#45	#46	#47	#48	#49	#50	#51	#52	#53	#54	#55	#56	#57	#58	#59	#60	#61	#62	#63	#64	#65	#66	#67	#68	#69	#70	#71	#72	#73	#74	#75	#76	#77	#78	#79	#80	#81	#82	#83	#84	#85	#86	#87	#88	#89	#90	#91	#92	#93	#94	#95	#96	#97	#98	#99	#100	#101	#102	#103	#104	#105	#106	#107	#108	#109	#110	#111	#112	#113	#114	#115	#116	#117	#118	#119	#120	#121	#122	#123	#124	#125	#126	#127	#128	#129	#130	#131	#132	#133	#134	#135	#136	#137	#138	#139	#140	#141	#142	#143	#144	#145	#146	#147	#148	#149	#150	#151	#152	#153	#154	#155	#156	#157	#158	#159	#160	#161	#162	#163	#164	#165	#166	#167	#168	#169	#170	#171	
5.300270E+2	-1.086650E-2	-1.568021E-3	-1.526613E-2	-9.388511E-3	-1.112072E-2	-8.163864E-3	-4.084265E-3	-8.181220E-3	-1.096648E-2	-1.336686E-2	-1.287198E-2	3.873709E-3	-1.336037E-2	-5.889631E-3	-1.368895E-2	-1.255686E-2	-8.657622E-3	-8.963369E-3	-1.340324E-2	-1.108461E-2	-1.018676E-2	-8.342935E-3	-4.232677E-3	-1.137365E-2	-5.524468E-3	-1.841075E-4	-1.759212E-2	4.021285E-3	-1.543211E-2	-3.561782E-3	-6.912034E-3	-4.989153E-3	-9.970729E-3	-1.717763E-2	-4.011606E-3	-1.286002E-2	-1.199832E-2	-4.519046E-3	-8.299756E-3	-1.320102E-2	-3.338822E-3	-9.660587E-3	-1.325642E-2	-1.254832E-2	-9.054913E-3	-8.675711E-3	-9.131266E-3	-3.248189E-3	-1.360253E-2	-1.831187E-2	-8.595042E-4	-1.307536E-2	-5.007713E-3	-1.216887E-2	-7.499022E-3	-4.935870E-3	-5.390240E-3	-1.453915E-2	-1.199451E-2	-1.357469E-2	-9.760634E-3	-9.467551E-3	-3.703876E-3	-7.569956E-3	-1.283939E-2	-1.606012E-2	-8.650590E-3	-3.745387E-3	-4.893345E-3	-7.545513E-3	-1.263506E-2	1.252891E-3	1.787804E-4	2.034622E-3	-5.376796E-3	-6.518886E-3	-1.122597E-2	-4.785357E-3	-9.819227E-3	-1.558554E-2	-1.261593E-2	-1.220834E-2	-1.724702E-3	-1.200592E-2	-9.784183E-3	-3.873151E-3	-7.727592E-3	-1.384871E-3	-1.069518E-2	-1.489110E-3	-2.694625E-3	-1.351405E-2	-5.558511E-3	-1.428487E-2	-1.196910E-2	-6.949257E-3	-9.570081E-4	-1.073739E-2	-4.315034E-3	-1.678818E-2	-6.988864E-3	-1.825147E-4	1.187389E-3	-6.802685E-4	-9.053203E-3	-4.203689E-3	3.276861E-3	-2.100403E-2	-1.421303E-2	-1.359489E-2	-9.442886E-3	-5.976274E-4	-1.351539E-2	-8.614972E-3	-1.527743E-2	-1.506535E-2	-2.614604E-3	7.472057E-4	-1.555358E-2	-8.953232E-3	-5.886942E-3	-3.343755E-3	-8.149871E-3	-5.085158E-3	-2.992856E-3	-1.034458E-2	-8.822395E-3	-4.910227E-3	-6.810771E-3	-1.165420E-2	-8.117979E-3	-9.845712E-3	-1.610982E-2	-1.116371E-2	-1.000878E-2	-1.738462E-2	-5.199085E-3	-1.268125E-2	-4.859035E-3	-6.567714E-3	-1.191840E-2	-5.603710E-3	-3.183440E-3	-6.815225E-3	5.243957E-4	-1.212651E-2	-2.144106E-3	-1.614422E-2	-2.384847E-2	-6.916546E-3	1.842224E-4	-3.945042E-3	-1.551647E-2	-2.225391E-2	-5.685861E-3	-4.618176E-3	-1.325844E-2	-8.321433E-3	-3.920717E-3	-7.674985E-3	-1.175622E-2	-1.177508E-2	-1.243801E-2	-1.267205E-2	-5.506766E-3	-1.155543E-2	-5.917935E-3	-2.249608E-4	-9.033777E-3	7.323802E-3	2.291495E-3
5.305230E+2	-1.818049E-2	-6.370030E-3	-7.201011E-3	-7.148029E-3	-6.463328E-3	-1.073229E-2	-1.361412E-2	-1.390810E-2	-6.667614E-3	2.447416E-3	-1.088440E-2	-5.164966E-3	-1.941910E-3	-4.043642E-3	-7.300783E-3	-7.229679E-3	-7.457577E-3	-7.756760E-3	-8.741253E-3	-1.042138E-2	1.697801E-3	-7.138812E-3	-1.312125E-2	-1.182893E-3	-1.724427E-8	-4.050612E-3	-7.228453E-3	-1.912354E-2	-1.628931E-3	-6.758238E-3	-2.304015E-3	-8.799072E-3	-7.478052E-3	-2.232092E-3	-9.490912E-3	-1.607481E-3	2.399679E-3	-1.936726E-3	-7.646987E-3	-1.385639E-2	-1.364994E-2	-7.084418E-3	-1.389638E-2	-1.042318E-2	2.130564E-3	-1.611203E-2	-9.131269E-3	-1.327931E-2	-3.645148E-3	-2.794964E-3	-1.489771E-2	-9.875097E-3	-1.423250E-2	-3.309945E-3	-1.552742E-2	-9.333315E-3	-1.242498E-2	-3.863524E-3	-7.473511E-3	-9.696186E-3	-1.455530E-2	-1.410664E-2	2.129708E-3	-1.140055E-2	-6.935134E-3	-8.170961E-3	-9.952844E-3	-4.681707E-4	-1.060225E-2	-1.552973E-2	-3.292215E-3	-5.178585E-3	-9.831976E-3	-7.935046E-3	-9.919249E-3	-2.607540E-3	-3.367763E-3	-4.087506E-3	-1.110396E-2	-8.680559E-3	-1.412243E-3	-6.782410E-3	-8.714179E-3	-1.492910E-2	-1.310890E-2	-9.002380E-3	-1.027321E-2	-5.262441E-3	-1.659621E-3	1.489085E-3	-1.180056E-2	-8.680563E-3	-1.057905E-2	-4.630277E-3	-7.440233E-3	-8.339103E-3	-1.234519E-2	-6.352920E-3	-5.753297E-3	4.277349E-4	3.829452E-4	-4.654451E-3	-1.223925E-2	-8.843538E-3	-7.008911E-3	-7.473239E-3	-1.010366E-2	-7.220129E-3	-8.818974E-3	-6.473517E-4	-6.295238E-3	-6.872683E-3	-7.122952E-3	-3.069674E-3	-3.170801E-3	-8.951891E-3	9.685981E-5	-1.494377E-2	-5.059585E-3	-1.042787E-2	-1.386277E-2	-1.215890E-3	-1.074306E-2	4.989194E-3	-8.071621E-3	-2.445066E-3	-6.892505E-3	-2.927233E-3	-2.175658E-3	-5.586339E-3	-8.837249E-3	-1.115852E-2	-2.953455E-3	3.917088E-3	-1.000877E-2	-8.735806E-4	-1.075060E-2	-1.943099E-3	-1.152829E-2	-6.567714E-3	-1.388920E-2	-2.388490E-3	-3.183434E-3	-5.432460E-3	-8.652405E-3	4.736596E-4	-8.576311E-3	-1.831750E-2	4.088330E-3	-4.979905E-3	-3.684045E-3	-7.232564E-3	-6.527645E-3	-1.021659E-2	-5.011261E-3	-3.930362E-3	-2.339740E-3	-1.163109E-2	-2.855075E-2	1.055313E-3	-9.259017E-5	-5.151626E-3	-8.539566E-3	-3.045206E-3	-8.076557E-3	-1.543808E-2	-1.536596E-2	-8.098903E-3	2.897633E-3	9.222594E-3	-2.337310E-2
5.310100E+2	-7.940931E-3	-2.940033E-3	-5.856802E-3	-4.267480E-4	-3.136627E-3	7.888667E-3	-1.508023E-2	1.363571E-3	-7.895841E-3	-6.777565E-3	-1.684713E-2	-1.162115E-2	7.767739E-4	-5.274290E-3	-1.493343E-3	-1.189095E-2	-7.457571E-3	-2.930304E-3	1.165497E-3	-7.768710E-3	-5.182736E-3	-4.128472E-3	-4.825274E-3	-3.730564E-3	-8.977260E-3	-5.339365E-3	-9.666956E-3	-3.485119E-3	4.372449E-3	-7.397521E-3	-1.440009E-2	-5.624130E-3	-4.362195E-3	-9.704869E-3	-1.017584E-2	-1.607466E-3	-1.379806E-2	-1.678502E-2	-1.286928E-2	4.493976E-3	-7.463237E-3	-1.610099E-2	1.828384E-4	-4.047840E-3	-6.569257E-3	-3.718175E-3	-4.261275E-3	-7.260629E-3	-1.155741E-3	-1.021608E-2	1.145971E-3	-2.742675E-4	-7.467693E-3	-6.717216E-3	-7.499042E-3	-3.679495E-3	-7.308813E-3	-6.710399E-3	-6.827663E-3	3.232059E-3	-1.369895E-3	-4.828444E-3	-8.889277E-3	-5.654652E-3	-1.349541E-2	2.347981E-3	-2.139375E-3	-1.161072E-2	-8.064938E-3	-1.245887E-2	-5.783619E-3	-6.932648E-3	-5.452290E-3	-1.078354E-2	-1.121712E-2	-1.713541E-8	-1.001701E-2	-6.878938E-3	-3.395400E-3	-1.213306E-2	-4.048354E-3	-6.782429E-3	-3.630940E-3	1.879165E-3	-5.129552E-3	-8.269670E-3	-4.545692E-3	-8.493761E-3	-1.004979E-2	-3.722708E-3	-6.597155E-3	-1.420456E-2	-6.186068E-3	-6.009450E-3	-5.175824E-3	-9.728994E-3	-3.636590E-3	-3.221228E-3	-1.006832E-2	-1.080004E-2	-1.503084E-2	-1.168183E-2	-7.763690E-3	-8.843507E-3	-8.761256E-4	3.643195E-3	-6.280669E-3	-1.028320E-2	-8.818947E-3	-7.121108E-3	-1.070190E-2	-1.105612E-2	5.661865E-3	-7.228657E-3	-6.533796E-3	-1.200860E-2	-9.393135E-3	-4.483144E-3	-2.436106E-3	-1.053303E-4	-3.892963E-3	-1.682001E-2	-4.260182E-3	-1.112975E-2	-1.061099E-2	-8.369686E-3	-1.847191E-2	-1.548620E-2	-8.797241E-3	-7.608936E-3	-3.802084E-3	-9.189354E-3	-4.206469E-3	-2.937808E-3	-3.399203E-3	-6.377290E-3	-9.516961E-3	1.022683E-2	-7.526774E-3	-1.116508E-2	-6.006098E-3	-1.267730E-2	-7.235015E-3	-6.815215E-3	-1.599385E-2	4.452694E-3	-7.146899E-4	-2.380236E-3	-1.022077E-2	-1.595410E-2	-1.270999E-2	-7.232573E-3	-8.774853E-3	-3.843823E-3	-1.378099E-2	-1.218412E-2	-1.189362E-2	-8.983380E-3	-1.809557E-3	-3.645618E-3	-7.220338E-3	-7.359178E-4	-1.308779E-2	-5.108101E-3	-1.000398E-2	-5.546692E-4	-1.027858E-2	-4.949336E-3	-1.022688E-2	-2.712260E-4	-1.054081E-2
5.315080E+2	-5.015333E-3	-8.820130E-4	-1.152189E-3	-4.267343E-4	-4.467307E-3	-5.595449E-3	-1.152001E-3	-5.635960E-3	-1.140510E-3	-6.777531E-3	3.028723E-3	-8.393050E-3	1.320514E-3	-5.274315E-3	2.571855E-3	8.085849E-3	-6.857527E-3	-4.740257E-3	-1.573426E-2	-4.452768E-3	-1.787329E-4	-2.322277E-3	1.693063E-3	-8.825968E-3	-8.286739E-3	-7.272571E-3	7.402636E-3	-1.608507E-3	-2.829212E-3	9.132855E-4	-5.184031E-3	-4.354167E-3	-3.115832E-3	2.523265E-3	-4.696548E-3	-2.931358E-3	-6.599096E-3	-6.455867E-4	1.258952E-2	-1.123491E-2	-1.090031E-2	-1.932131E-3	-5.576829E-3	-2.631132E-3	-5.947839E-3	1.859097E-3	-1.278384E-2	-5.254391E-3	-4.267486E-3	-6.842833E-3	-1.088677E-2	-6.034766E-3	-9.927605E-3	-1.216889E-2	-7.499031E-3	6.999980E-3	6.760641E-3	1.118380E-3	6.735392E-3	-6.464072E-4	-1.155862E-2	-8.520501E-4	-8.241129E-3	9.029238E-3	-7.591181E-3	-2.911481E-3	3.720691E-3	-5.056252E-3	-8.699288E-3	-1.754558E-4	-6.406524E-3	-8.101957E-3	1.787746E-4	-6.510801E-3	-1.483240E-3	-1.303805E-3	-9.499143E-4	-9.670393E-3	4.588341E-4	2.959408E-4	2.542034E-3	6.782439E-3	-5.537157E-3	-1.858312E-2	-1.111406E-2	-9.002427E-3	-4.545657E-3	-1.384803E-3	-3.595780E-3	-5.956371E-3	6.411321E-3	9.272430E-3	-1.793086E-3	4.334691E-3	-3.666230E-3	2.084789E-3	-5.646266E-3	-1.968497E-3	-2.157483E-3	-1.817864E-3	3.829483E-4	-2.099078E-3	-3.288118E-3	-4.761911E-3	1.849562E-3	-1.401228E-2	-3.732018E-3	-9.517435E-3	-5.822217E-3	-2.552506E-8	-5.036228E-3	1.494081E-3	-3.287519E-3	3.960808E-4	8.647823E-4	-1.310014E-3	1.452539E-3	-1.102102E-2	-1.780222E-3	-1.053337E-4	4.082876E-3	-4.053022E-3	9.261330E-4	5.660805E-3	-4.262514E-3	-2.445090E-3	-2.389396E-3	-5.571233E-3	-6.148617E-3	-2.215293E-3	-2.363479E-3	-6.563927E-4	-6.085938E-3	-1.322011E-2	3.871307E-3	-1.065793E-2	3.436659E-3	-1.268125E-2	-7.526746E-3	1.313521E-3	-9.384288E-5	-1.745410E-3	-9.260886E-3	-6.815199E-3	-2.534541E-3	-7.484314E-3	-5.002875E-3	5.174414E-4	-1.362817E-3	-4.334367E-3	-4.973475E-3	-1.972504E-3	-7.276716E-3	3.236930E-3	5.782233E-3	1.572149E-3	3.119624E-3	-1.040189E-3	-2.513271E-3	-3.645603E-3	-5.276379E-3	-7.359444E-3	-7.425682E-4	-9.233901E-3	3.487638E-3	-3.143088E-3	-3.737628E-3	-6.524108E-3	-5.454340E-3	1.627505E-3	-1.054084E-2
5.320020E+2	9.612708E-3	4.606014E-3	-3.168436E-3	3.200748E-4	6.178161E-3	-4.586282E-4	-8.482630E-3	-2.454380E-3	1.052781E-2	3.106405E-3	1.703633E-3	-7.101818E-3	2.330166E-4	-1.582302E-3	4.314093E-3	-3.900238E-3	4.543103E-3	6.722522E-3	2.331002E-3	5.494926E-3	-1.429708E-3	-5.160483E-4	-4.825217E-3	-5.459214E-4	2.762267E-3	-1.841046E-4	6.967022E-4	-1.608513E-3	-5.229763E-3	-1.643891E-3	-5.760039E-3	-1.814243E-3	1.869500E-3	7.958021E-3	9.783084E-5	-4.255147E-3	-3.942305E-9	6.455754E-3	-8.952539E-3	5.149333E-3	4.910040E-3	7.084441E-3	-1.737062E-3	-1.922724E-3	2.752004E-3	3.098463E-3	1.826252E-3	-1.910681E-3	-8.001462E-3	1.204730E-2	-8.881355E-3	2.925950E-3	1.757100E-3	4.186084E-3	4.234772E-3	-3.051276E-3	-8.587835E-3	-3.863540E-3	-1.005692E-2	-2.585642E-3	4.024129E-3	-1.514814E-3	-5.648435E-3	2.006468E-3	4.873341E-3	-4.226321E-3	-4.092739E-3	2.153624E-3	1.033035E-2	4.123718E-3	7.296310E-3	2.422248E-3	-4.200929E-3	-8.138624E-4	6.303784E-3	-2.313280E-8	7.512782E-3	-5.981853E-4	-9.176885E-3	-3.945602E-4	1.882967E-3	3.391199E-3	1.452364E-3	1.357192E-2	6.839429E-3	9.316453E-3	-2.000082E-3	4.431525E-3	6.085170E-3	1.489115E-3	-6.597143E-3	1.676901E-3	-6.813642E-3	8.866368E-4	-5.175786E-3	2.084799E-3	-2.870864E-4	3.668602E-3	-2.157500E-3	3.421787E-3	2.393478E-3	-6.571037E-3	6.941640E-3	7.482973E-3	-7.008933E-3	-1.588041E-3	1.365354E-3	4.266401E-3	1.969285E-3	-7.121105E-3	3.777135E-3	-1.314782E-2	-6.483722E-3	5.248234E-3	3.555146E-3	5.567637E-3	7.747039E-4	4.669926E-3	3.466769E-3	-1.053371E-4	-4.557603E-3	8.713998E-3	1.574445E-3	2.302724E-3	2.720750E-3	-3.761640E-3	6.616806E-3	-9.442703E-4	-4.824279E-3	-2.215252E-3	6.268311E-3	-3.281919E-3	-6.085938E-3	-1.566795E-3	-3.399219E-3	5.241605E-3	1.586162E-3	-1.227226E-3	7.812553E-3	-1.970319E-3	5.161546E-3	-4.317656E-3	4.919827E-3	5.629978E-3	-8.737302E-5	-3.505301E-3	3.573486E-3	2.690722E-3	8.176603E-3	1.475506E-3	-4.604893E-4	-6.575069E-3	9.630440E-4	1.112692E-3	-5.685870E-3	8.843501E-4	3.899609E-4	2.931430E-3	8.042490E-3	-1.506210E-2	-2.684495E-3	4.415679E-3	3.155926E-3	1.080562E-3	-1.064640E-2	-7.672829E-3	-2.284127E-3	7.648992E-3	-5.454291E-3	-1.736017E-2	-4.124641E-3
5.325070E+2	8.881280E-3	1.862040E-3	8.257154E-3	5.547752E-3	4.847506E-3	2.109766E-3	3.246432E-3	7.090405E-3	6.843067E-3	5.742114E-3	1.703654E-3	6.456204E-3	1.320524E-3	9.493747E-3	6.056336E-3	8.085855E-3	1.474372E-2	-1.723684E-3	4.079233E-3	7.484474E-3	4.467718E-4	-1.118104E-3	8.803947E-3	1.792491E-2	1.173949E-2	3.682302E-3	5.573710E-3	5.272384E-3	9.773638E-3	6.027606E-3	2.246415E-2	1.360673E-3	1.620243E-2	4.852350E-4	-1.271955E-3	8.983098E-3	4.799304E-3	8.392520E-3	1.193673E-2	1.825672E-2	1.384632E-2	1.545693E-2	1.170224E-2	1.295310E-2	8.877345E-4	3.718147E-3	9.131279E-3	1.012665E-2	8.801610E-3	5.975439E-3	5.825376E-3	5.486145E-3	3.602060E-3	-5.841093E-4	9.792835E-3	6.999980E-3	7.400167E-3	3.965219E-3	9.964661E-3	-1.939221E-3	8.219447E-3	1.240250E-2	7.963345E-3	9.029229E-3	7.497450E-3	1.155202E-2	3.720670E-3	2.153558E-3	8.427440E-3	9.651229E-3	6.673437E-3	4.176288E-3	7.686805E-3	1.200434E-2	8.899554E-3	1.303801E-3	2.676955E-3	4.286898E-3	3.028369E-3	1.134391E-2	-2.730314E-3	4.069450E-3	9.712689E-3	6.263976E-3	7.504351E-3	-9.420881E-4	9.454977E-3	-3.969896E-3	2.212801E-3	-7.445472E-3	5.760918E-3	-4.537545E-3	8.967939E-5	4.334707E-3	6.146309E-3	-6.949504E-4	5.741950E-3	-3.847572E-3	1.654081E-2	1.015846E-2	9.765247E-3	6.844794E-3	4.384186E-3	-2.721104E-3	7.982410E-3	2.989272E-3	-5.461054E-4	1.575300E-2	1.335684E-2	7.121096E-3	1.259048E-2	1.125531E-2	9.497278E-3	-9.902276E-4	6.245519E-3	2.183615E-4	-5.810310E-4	3.362350E-3	2.810885E-3	9.479880E-3	1.737590E-2	3.039774E-3	5.464139E-3	-3.741913E-3	-1.088302E-3	1.730362E-2	9.833318E-3	3.021695E-3	1.371613E-2	4.526855E-3	-3.082775E-3	3.938272E-3	1.521484E-2	1.214292E-2	9.158979E-3	7.687673E-3	5.287221E-3	7.363294E-3	2.477165E-3	2.627095E-3	7.132276E-3	3.398987E-3	7.620925E-3	3.555784E-3	-8.739834E-5	3.126369E-3	-3.287593E-8	1.065932E-2	3.406943E-3	7.285451E-3	9.854822E-3	7.890071E-3	1.145014E-2	1.102581E-2	-2.891200E-4	2.259934E-3	4.484501E-3	6.241080E-3	8.042484E-3	8.442476E-3	5.739220E-3	-4.415664E-3	9.003648E-3	1.080572E-3	-2.294486E-3	1.238745E-2	1.806534E-2	-2.587157E-3	-7.840568E-3	3.526297E-3	3.437219E-2
5.330180E+2	2.350927E-2	5.292043E-3	2.438742E-2	1.152220E-2	1.416232E-2	1.495180E-2	3.916682E-2	2.172568E-2	9.299569E-3	1.562602E-2	3.416750E-2	2.195107E-2	1.165146E-2	1.257043E-2	9.540796E-3	1.940602E-2	1.114348E-2	1.939185E-2	3.030302E-2	2.074807E-2	1.483336E-2	2.356665E-2	1.650741E-2	7.734081E-3	8.286730E-3	1.334846E-2	2.081449E-2	1.653201E-2	1.097392E-2	1.242054E-2	1.209606E-2	2.422009E-2	6.854874E-3	1.814807E-2	2.954903E-2	1.427838E-2	2.519649E-2	9.038100E-3	1.324232E-2	1.039229E-2	1.659594E-2	1.223676E-2	2.258161E-2	1.862009E-2	1.580171E-2	1.983020E-2	2.435012E-2	2.082655E-2	2.187076E-2	2.014301E-2	2.855399E-2	2.084740E-2	3.127635E-2	3.076295E-2	2.399691E-2	6.999995E-3	1.955106E-2	2.389301E-2	1.965255E-2	2.521009E-2	2.500088E-2	1.836700E-2	1.638967E-2	4.560221E-3	2.849032E-2	1.746888E-2	1.739419E-2	1.657335E-2	1.350203E-2	2.193462E-2	1.414767E-2	1.236176E-2	1.144084E-2	1.200429E-2	1.279306E-2	9.126470E-3	1.537092E-2	2.173348E-2	3.000827E-2	2.515386E-2	1.638184E-2	1.153009E-2	8.441925E-3	2.380308E-2	2.479291E-2	2.177326E-2	1.963725E-2	1.606425E-2	1.770240E-2	1.563546E-2	1.551725E-2	2.998739E-2	3.084068E-2	1.536857E-2	2.728086E-2	2.154272E-2	1.713019E-2	2.245900E-2	7.910817E-3	1.539811E-2	9.095084E-3	1.834411E-2	1.077784E-2	1.836736E-2	1.411520E-2	2.064478E-2	1.602023E-2	2.800540E-2	2.234703E-2	2.136338E-2	1.510864E-2	1.892486E-2	1.525044E-2	1.425922E-2	1.431658E-2	3.154986E-2	1.026467E-2	2.166845E-2	1.855184E-2	1.021722E-2	6.741500E-3	1.367890E-2	1.518839E-2	7.004103E-3	2.430553E-2	1.006243E-2	2.012608E-2	2.681746E-2	1.504044E-2	2.475317E-2	1.993526E-2	3.019363E-2	2.022679E-2	1.282841E-2	1.378569E-2	2.236414E-2	1.515660E-2	1.094271E-2	2.115113E-2	2.233021E-2	1.961372E-2	2.333358E-2	1.032202E-2	1.669234E-2	2.683117E-2	1.506340E-2	1.286453E-2	2.297447E-2	1.976018E-2	2.342396E-2	1.178895E-2	1.906768E-2	2.568251E-2	2.093888E-2	2.467087E-2	1.601622E-2	1.949771E-2	2.080358E-2	2.070932E-2	2.053052E-2	2.129080E-2	2.502206E-2	2.264835E-2	2.789812E-2	3.304054E-2	2.597664E-2	1.951889E-2	1.473547E-2	3.511222E-2	-4.068801E-3	1.191569E-2
5.331580E+2	1.765806E-2	1.969817E-2	2.505953E-2	2.645837E-2	3.478792E-2	1.687807E-2	1.864085E-2	1.981674E-2	1.605487E-2	1.430818E-2	1.362913E-2	1.614055E-2	1.817631E-2	1.010906E-2	2.289792E-2	2.806269E-2	2.134412E-2	1.999519E-2	2.797204E-2	2.936944E-2	2.296488E-2	2.477082E-2	3.843255E-2	2.811573E-2	1.312063E-2	1.399287E-2	3.178778E-2	2.466398E-2	1.877570E-2	1.881350E-2	2.304014E-2	2.993493E-2	2.118776E-2	2.697956E-2	2.886410E-2	2.553094E-2	2.819608E-2	1.872176E-2	3.217324E-2	2.284429E-2	2.828186E-2	4.057452E-2	3.986068E-2	2.145358E-2	1.890877E-2	2.292871E-2	2.495892E-2	2.751400E-2	2.311545E-2	2.823880E-2	2.454305E-2	3.428852E-2	1.036691E-2	3.280742E-2	2.276176E-2	2.396142E-2	1.635344E-2	1.962280E-2	1.254809E-2	1.809951E-2	2.739819E-2	1.173977E-2	2.222328E-2	3.009739E-2	2.717819E-2	1.220948E-2	2.130096E-2	2.509412E-2	2.111383E-2	2.316297E-2	2.722757E-2	1.820851E-2	1.582053E-2	1.414068E-2	3.615430E-2	1.694920E-2	2.987830E-2	2.033773E-2	2.165735E-2	2.170140E-2	1.242764E-2	2.916442E-2	2.559798E-2	9.187182E-3	2.944753E-2	1.737676E-2	2.027364E-2	1.154040E-2	2.544719E-2	2.754822E-2	1.486683E-2	3.136839E-2	6.365352E-3	3.467776E-2	3.482891E-2	3.127173E-2	2.382911E-2	2.058000E-2	4.458828E-2	2.363180E-2	1.579670E-2	3.175992E-2	1.845016E-2	3.061223E-2	2.297374E-2	2.064475E-2	1.602022E-2	2.494231E-2	3.613196E-2	4.207934E-2	2.895811E-2	2.171381E-2	1.908586E-2	2.465664E-2	1.969735E-2	5.567648E-3	2.178813E-2	2.755254E-2	3.560455E-2	2.348904E-2	2.468712E-2	1.438818E-2	2.750586E-2	3.386903E-2	2.240101E-2	1.532879E-2	2.269927E-2	2.615654E-2	2.298630E-2	8.572106E-3	1.202282E-2	1.640958E-2	2.273278E-2	3.476403E-2	2.370005E-2	2.236415E-2	3.242805E-2	2.454443E-2	1.714955E-2	1.182190E-2	2.881063E-2	3.169324E-2	2.720384E-2	1.738374E-2	3.478442E-2	2.965304E-2	2.215548E-2	2.949425E-2	2.521121E-2	2.600612E-2	2.726200E-2	2.695771E-2	1.594450E-2	2.801970E-2	2.602005E-2	8.450274E-3	2.495712E-2	3.470415E-2	2.070937E-2	1.448649E-2	1.221905E-2	1.103918E-2	3.239458E-2	1.895894E-2	1.569426E-2	2.791794E-2	1.879211E-2	2.418415E-2	3.272593E-2	2.821035E-2	-7.332761E-3
5.333130E+2	3.448024E-2	4.508042E-2	2.169907E-2	1.376264E-2	3.079587E-2	3.549909E-2	3.916681E-2	3.636099E-2	2.158196E-2	4.132428E-2	3.350498E-2	4.002844E-2	2.687606E-2	2.672316E-2	2.754385E-2	4.138049E-2	1.894396E-2	3.869755E-2	3.146850E-2	2.472714E-2	2.046286E-2	3.139356E-2	4.376572E-2	2.684188E-2	3.176576E-2	3.525827E-2	3.727444E-2	2.591507E-2	3.978052E-2	2.584569E-2	3.513624E-2	4.326964E-2	2.243411E-2	2.222415E-2	3.297362E-2	2.817860E-2	2.639635E-2	2.905103E-2	4.522901E-2	1.497992E-2	2.828188E-2	3.220193E-2	3.922066E-2	2.924568E-2	3.692982E-2	3.780130E-2	4.139527E-2	4.690756E-2	4.738667E-2	2.688947E-2	3.189641E-2	2.916811E-2	4.234606E-2	3.076293E-2	3.881850E-2	3.338445E-2	3.617860E-2	4.951445E-2	4.161166E-2	2.391723E-2	3.578891E-2	3.559794E-2	4.231672E-2	2.690527E-2	2.193002E-2	3.324724E-2	2.911437E-2	2.968219E-2	1.667361E-2	1.517878E-2	4.217604E-2	3.457948E-2	3.584199E-2	2.767097E-2	5.756866E-2	2.281615E-2	3.954990E-2	2.522281E-2	3.707442E-2	2.653485E-2	2.758556E-2	4.883337E-2	3.576454E-2	2.891863E-2	3.742687E-2	2.763527E-2	4.000183E-2	2.188065E-2	2.867415E-2	4.690639E-2	3.307871E-2	3.413033E-2	2.707523E-2	2.778161E-2	4.539618E-2	2.640724E-2	2.784851E-2	2.746982E-2	3.811575E-2	3.411106E-2	2.584919E-2	4.070380E-2	2.676188E-2	2.380953E-2	3.387656E-2	2.587601E-2	2.940080E-2	3.489735E-2	3.313526E-2	4.337413E-2	4.469626E-2	4.332800E-2	3.123143E-2	4.129242E-2	3.449434E-2	3.384244E-2	2.653317E-2	2.624499E-2	4.019561E-2	3.159957E-2	3.864488E-2	3.637575E-2	2.815415E-2	2.715275E-2	5.160391E-2	2.257001E-2	3.492193E-2	3.144447E-2	1.570262E-2	3.554056E-2	3.216364E-2	2.362979E-2	2.837120E-2	4.367539E-2	3.493633E-2	2.664475E-2	2.132495E-2	3.599845E-2	2.515269E-2	2.692761E-2	4.063515E-2	1.883223E-2	3.260598E-2	3.466871E-2	3.050186E-2	2.501088E-2	3.144651E-2	3.673847E-2	3.883891E-2	4.085360E-2	2.790676E-2	3.550530E-2	3.167506E-2	4.997014E-2	3.951196E-2	1.395275E-2	3.519341E-2	4.860479E-2	2.282045E-2	2.791769E-2	2.258674E-2	3.532530E-2	3.304435E-2	2.583520E-2	3.047074E-2	3.697745E-2	3.478100E-2	3.284552E-2	4.465729E-2	3.390657E-2	8.707617E-3
5.334630E+2	3.374884E-2	5.262641E-2	4.455026E-2	2.571163E-2	3.877994E-2	3.549907E-2	3.623456E-2	3.317942E-2	2.833728E-2	2.880463E-2	2.820474E-2	3.163533E-2	3.122594E-2	3.287651E-2	4.670846E-2	4.470993E-2	1.654379E-2	4.473058E-2	3.962706E-2	3.135895E-2	4.235550E-2	4.584318E-2	4.198802E-2	3.384805E-2	3.798076E-2	4.879081E-2	5.190548E-2	3.404705E-2	3.197874E-2	2.776358E-2	5.126433E-2	3.882469E-2	3.676699E-2	2.765890E-2	4.667182E-2	4.207877E-2	4.559361E-2	5.358310E-2	6.024335E-2	4.578220E-2	4.821668E-2	4.443872E-2	3.986067E-2	4.553828E-2	4.562966E-2	5.577244E-2	4.687408E-2	5.292631E-2	5.049834E-2	5.185143E-2	3.724427E-2	5.285011E-2	4.357604E-2	4.166629E-2	4.931718E-2	3.652549E-2	3.106244E-2	3.528034E-2	4.031998E-2	4.330965E-2	3.279220E-2	4.089981E-2	5.333585E-2	3.839702E-2	4.095478E-2	3.193239E-2	4.799685E-2	3.492573E-2	2.936009E-2	2.500544E-2	3.843892E-2	2.697873E-2	4.522705E-2	4.048915E-2	4.264353E-2	3.194265E-2	4.740811E-2	4.406515E-2	3.964394E-2	3.758284E-2	3.944828E-2	5.832881E-2	2.813961E-2	5.376569E-2	3.476709E-2	3.716110E-2	5.463883E-2	4.256105E-2	3.900055E-2	4.616185E-2	3.958301E-2	4.655933E-2	4.652999E-2	4.640116E-2	5.369909E-2	3.961087E-2	3.588725E-2	3.874408E-2	5.753325E-2	3.710515E-2	5.332589E-2	2.920451E-2	4.594278E-2	3.809528E-2	3.523936E-2	3.699237E-2	3.449813E-2	4.944694E-2	3.912873E-2	4.466887E-2	4.217816E-2	4.472245E-2	2.100362E-2	4.545138E-2	3.987510E-2	4.454100E-2	5.093588E-2	3.801323E-2	5.331310E-2	3.307419E-2	3.864483E-2	2.999229E-2	4.500960E-2	4.998801E-2	3.446303E-2	3.639408E-2	4.071164E-2	4.202035E-2	2.960787E-2	4.026004E-2	3.576014E-2	3.872662E-2	4.027461E-2	6.012718E-2	1.907329E-2	3.214845E-2	3.366172E-2	3.743020E-2	3.115501E-2	4.334689E-2	4.457670E-2	5.934445E-2	4.543612E-2	4.158270E-2	3.845512E-2	4.689544E-2	4.145225E-2	5.340014E-2	4.020173E-2	4.149911E-2	5.691869E-2	4.010784E-2	5.264904E-2	4.997017E-2	2.669464E-2	3.114805E-2	2.359222E-2	5.654797E-2	3.196878E-2	3.396171E-2	3.036252E-2	4.636445E-2	3.694284E-2	4.302597E-2	3.304055E-2	6.221462E-2	3.042041E-2	3.205812E-2	3.988475E-2	4.909677E-2	6.324465E-2
5.336130E+2	6.227336E-2	5.468439E-2	4.387819E-2	5.259675E-2	5.541355E-2	5.026737E-2	5.822662E-2	4.017893E-2	3.447849E-2	5.054929E-2	4.874304E-2	5.875135E-2	3.938197E-2	4.518321E-2	4.612768E-2	4.670762E-2	4.234526E-2	5.317684E-2	6.351983E-2	5.854937E-2	4.986144E-2	4.584319E-2	7.102395E-2	6.887891E-2	6.284097E-2	4.750196E-2	6.044039E-2	5.156205E-2	5.358377E-2	4.630303E-2	5.299248E-2	6.104914E-2	4.486822E-2	5.822929E-2	5.146620E-2	5.068364E-2	5.099284E-2	4.325374E-2	7.982683E-2	4.512686E-2	7.433816E-2	5.538738E-2	6.929894E-2	5.970575E-2	6.365081E-2	5.825124E-2	6.757175E-2	5.092001E-2	6.730157E-2	5.320073E-2	6.866321E-2	5.989064E-2	5.526092E-2	4.439206E-2	7.216715E-2	5.034599E-2	5.984083E-2	6.517215E-2	4.548684E-2	3.878475E-2	5.077233E-2	5.150346E-2	6.954034E-2	6.840315E-2	5.407533E-2	4.113643E-2	5.515923E-2	5.262268E-2	5.092701E-2	6.308402E-2	5.151888E-2	5.270453E-2	7.651051E-2	6.042850E-2	5.756876E-2	4.237286E-2	6.252008E-2	6.011626E-2	5.891544E-2	5.139282E-2	6.515090E-2	7.121545E-2	9.104540E-2	5.084251E-2	4.407630E-2	7.379878E-2	6.418465E-2	5.936380E-2	4.868151E-2	5.360732E-2	6.169742E-2	6.244081E-2	5.719869E-2	3.743621E-2	8.162689E-2	6.879787E-2	5.062490E-2	6.191889E-2	5.969077E-2	4.683587E-2	4.997510E-2	6.434130E-2	6.000877E-2	4.285718E-2	3.523935E-2	6.772604E-2	3.959547E-2	6.169939E-2	5.471168E-2	6.667968E-2	5.036198E-2	6.494219E-2	2.931372E-2	5.862141E-2	5.130914E-2	4.301266E-2	5.296946E-2	6.220361E-2	8.020403E-2	5.666851E-2	5.725504E-2	6.190979E-2	5.538215E-2	4.998797E-2	4.652513E-2	5.153478E-2	5.100446E-2	4.730837E-2	5.940513E-2	5.778954E-2	4.726918E-2	5.185429E-2	7.097287E-2	5.669965E-2	6.335764E-2	5.844378E-2	4.723215E-2	5.962241E-2	6.049982E-2	4.925785E-2	5.705817E-2	4.776954E-2	5.488994E-2	5.402789E-2	4.763190E-2	7.209595E-2	5.002855E-2	5.050243E-2	7.290819E-2	6.538414E-2	7.368104E-2	5.260044E-2	4.965274E-2	5.775903E-2	7.121793E-2	3.321153E-2	3.860550E-2	4.198540E-2	6.856204E-2	7.022598E-2	3.165845E-2	5.445979E-2	5.513579E-2	6.503004E-2	5.167172E-2	5.380223E-2	4.931628E-2	5.016813E-2	3.749851E-2	6.618568E-2	4.720430E-2
5.337630E+2	7.690143E-2	8.281070E-2	6.672957E-2	9.217772E-2	9.134189E-2	7.081460E-2	8.754922E-2	6.690426E-2	5.290212E-2	4.791353E-2	7.060663E-2	6.520760E-2	5.623780E-2	6.979667E-2	8.097206E-2	7.467511E-2	6.394649E-2	7.851557E-2	6.293700E-2	7.446566E-2	8.051112E-2	7.293624E-2	1.154670E-1	8.416520E-2	7.803331E-2	6.683421E-2	6.714622E-2	6.657498E-2	7.578873E-2	6.484270E-2	6.220832E-2	6.295427E-2	7.291086E-2	8.404430E-2	8.913615E-2	7.385061E-2	6.839045E-2	8.586193E-2	1.072440E-1	7.003105E-2	7.914985E-2	8.630140E-2	8.593825E-2	5.616385E-2	7.359330E-2	8.861636E-2	6.696286E-2	6.295736E-2	6.667922E-2	7.141617E-2	7.467958E-2	8.549277E-2	7.740033E-2	6.415448E-2	8.698860E-2	6.919201E-2	7.135219E-2	8.367649E-2	7.971720E-2	6.722692E-2	7.774230E-2	9.126720E-2	7.407745E-2	8.755641E-2	8.031631E-2	7.861002E-2	6.362377E-2	8.080663E-2	6.107615E-2	6.676904E-2	9.200415E-2	7.024484E-2	6.712547E-2	7.395886E-2	8.871710E-2	6.714475E-2	7.400514E-2	7.546907E-2	8.268311E-2	8.937030E-2	6.910512E-2	7.325001E-2	9.930572E-2	6.911258E-2	7.266881E-2	8.479025E-2	6.100273E-2	7.681295E-2	7.901527E-2	8.934549E-2	7.990928E-2	7.417930E-2	6.347453E-2	7.950270E-2	7.256922E-2	7.505219E-2	6.670241E-2	6.567704E-2	6.472489E-2	6.405189E-2	8.080280E-2	7.711833E-2	7.343538E-2	7.074834E-2	5.363785E-2	9.322845E-2	8.101154E-2	7.318599E-2	7.688732E-2	7.574297E-2	8.813344E-2	7.400625E-2	7.917460E-2	6.000771E-2	7.484977E-2	7.281582E-2	8.347296E-2	8.508615E-2	9.266542E-2	8.837346E-2	8.251206E-2	8.176957E-2	8.520343E-2	5.468932E-2	7.191900E-2	7.852461E-2	7.351996E-2	7.639232E-2	6.735098E-2	7.599325E-2	9.546304E-2	6.235655E-2	7.911716E-2	7.452244E-2	7.327173E-2	6.761658E-2	5.895212E-2	7.465591E-2	8.984465E-2	6.173660E-2	6.756872E-2	6.513183E-2	9.473103E-2	7.891833E-2	8.250380E-2	6.944325E-2	7.718698E-2	7.803046E-2	8.721727E-2	9.185133E-2	7.883890E-2	8.021572E-2	8.186284E-2	8.537413E-2	8.133685E-2	6.278742E-2	7.818584E-2	8.434910E-2	9.319206E-2	5.813788E-2	5.952162E-2	8.389776E-2	9.022242E-2	6.503008E-2	8.250975E-2	7.515680E-2	6.239810E-2	7.221514E-2	6.494063E-2	1.117561E-1	6.645271E-2
5.339140E+2	1.076199E-1	1.157391E-1	1.016783E-1	1.026330E-1	1.199520E-1	1.228247E-1	1.176055E-1	1.044469E-1	8.606465E-2	9.535638E-2	1.262587E-1	1.013623E-1	7.961854E-2	9.440994E-2	1.204629E-1	1.059720E-1	9.994863E-2	1.135071E-1	9.848484E-2	1.016562E-1	1.205432E-1	1.048458E-1	1.634654E-1	1.236544E-1	1.381119E-1	1.299865E-1	1.189649E-1	1.184945E-1	1.370028E-1	1.153468E-1	1.359367E-1	1.029583E-1	1.233876E-1	1.207287E-1	1.439292E-1	8.973645E-2	1.115845E-1	1.252424E-1	1.372726E-1	1.086978E-1	1.135205E-1	1.384686E-1	1.160165E-1	1.085835E-1	1.102568E-1	1.121647E-1	1.363610E-1	1.124444E-1	1.152215E-1	1.105457E-1	1.355119E-1	1.117350E-1	1.050746E-1	1.370704E-1	1.438046E-1	1.156790E-1	1.001307E-1	9.719897E-2	1.178229E-1	1.279895E-1	1.053117E-1	1.157880E-1	1.194501E-1	9.330202E-2	1.190220E-1	1.075368E-1	1.007379E-1	1.070244E-1	9.215789E-2	1.183594E-1	1.219013E-1	7.901514E-2	1.146764E-1	1.159741E-1	1.263546E-1	9.713164E-2	1.139001E-1	1.264130E-1	1.167293E-1	1.107757E-1	9.876182E-2	9.631026E-2	1.088368E-1	9.980593E-2	1.152254E-1	1.155658E-1	1.176416E-1	9.426204E-2	1.119307E-1	1.020030E-1	1.065768E-1	8.867971E-2	1.036388E-1	9.674304E-2	1.344635E-1	1.174427E-1	9.617765E-2	1.132795E-1	9.996409E-2	9.923231E-2	1.203424E-1	1.090608E-1	1.098791E-1	1.040818E-1	1.040632E-1	1.004213E-1	1.001267E-1	1.038166E-1	1.062554E-1	1.249432E-1	9.820585E-2	1.186291E-1	9.004167E-2	1.140739E-1	1.044440E-1	9.726970E-2	1.038085E-1	1.256212E-1	1.372652E-1	1.222904E-1	1.031164E-1	1.094315E-1	9.752094E-2	9.297217E-2	1.271506E-1	1.061730E-1	1.050416E-1	8.101922E-2	8.920215E-2	1.009390E-1	1.357446E-1	1.037084E-1	1.016710E-1	1.087969E-1	1.373846E-1	1.024731E-1	8.485925E-2	1.147450E-1	9.984840E-2	9.260493E-2	9.581638E-2	1.017860E-1	1.372730E-1	1.266247E-1	9.596307E-2	1.171911E-1	1.079187E-1	9.469208E-2	1.246933E-1	1.247737E-1	1.278367E-1	1.262409E-1	1.118257E-1	9.882751E-2	1.292330E-1	9.305126E-2	9.934097E-2	1.300224E-1	1.121925E-1	1.132054E-1	1.055283E-1	1.199586E-1	1.110143E-1	9.666091E-2	1.088503E-1	1.321022E-1	1.249003E-1	1.147344E-1	1.448805E-1	1.250474E-1	7.928503E-2
5.340590E+2	1.683266E-1	1.719912E-1	1.379715E-1	1.437077E-1	1.645296E-1	1.690563E-1	1.696531E-1	1.610792E-1	1.493193E-1	1.658617E-1	1.693233E-1	1.982052E-1	1.356232E-1	1.737882E-1	1.692454E-1	1.499212E-1	1.263501E-1	1.575481E-1	1.742421E-1	1.659848E-1	1.461889E-1	1.518072E-1	2.505736E-1	2.064546E-1	1.968099E-1	1.828274E-1	2.012646E-1	1.973118E-1	1.736113E-1	1.818334E-1	1.837451E-1	1.772513E-1	1.962984E-1	1.893422E-1	1.857087E-1	1.546040E-1	2.093707E-1	1.917366E-1	1.973294E-1	1.788222E-1	1.850107E-1	1.925681E-1	1.883325E-1	1.893378E-1	1.960126E-1	1.685568E-1	2.045413E-1	1.960371E-1	1.687426E-1	2.036471E-1	1.876540E-1	1.770204E-1	1.967074E-1	1.915873E-1	1.913574E-1	1.671915E-1	1.807102E-1	1.676578E-1	1.623872E-1	1.751776E-1	1.622486E-1	1.754338E-1	1.784338E-1	1.884280E-1	1.826567E-1	1.745951E-1	1.554318E-1	1.601154E-1	1.651052E-1	1.662645E-1	1.879238E-1	1.778257E-1	1.759922E-1	1.943073E-1	1.977361E-1	1.479791E-1	1.767661E-1	1.857320E-1	1.848212E-1	1.763730E-1	1.560986E-1	1.899078E-1	1.501385E-1	1.838472E-1	1.697507E-1	1.829787E-1	1.736442E-1	1.692287E-1	1.725981E-1	2.121952E-1	1.586107E-1	1.943260E-1	1.588651E-1	1.698420E-1	1.986221E-1	1.980543E-1	1.671867E-1	1.615081E-1	1.682852E-1	1.598625E-1	1.920499E-1	1.825284E-1	1.674218E-1	1.639457E-1	1.687986E-1	1.873906E-1	1.491886E-1	1.750332E-1	1.548025E-1	1.955072E-1	1.920047E-1	1.890494E-1	1.578012E-1	2.166615E-1	1.737208E-1	1.752162E-1	1.573590E-1	2.282661E-1	1.779291E-1	1.598938E-1	1.629350E-1	1.782314E-1	1.779086E-1	1.688655E-1	1.880956E-1	1.897761E-1	1.687284E-1	1.821511E-1	1.666749E-1	1.845412E-1	1.724298E-1	1.404658E-1	1.793560E-1	1.807734E-1	2.048023E-1	1.550643E-1	1.453093E-1	1.670043E-1	1.505348E-1	1.313544E-1	1.641357E-1	1.680199E-1	1.757636E-1	1.881591E-1	1.473529E-1	1.795292E-1	1.679531E-1	1.664100E-1	1.839738E-1	1.815821E-1	1.755451E-1	1.643764E-1	1.882310E-1	1.845053E-1	1.852243E-1	1.480759E-1	1.477927E-1	1.803294E-1	1.973419E-1	1.622294E-1	1.819895E-1	1.869295E-1	1.662427E-1	1.551095E-1	1.705260E-1	1.722224E-1	1.641457E-1	1.753634E-1	1.723227E-1	1.763142E-1	1.370302E-1
5.342090E+2	2.648714E-1	2.838102E-1	2.300481E-1	2.803736E-1	2.743113E-1	2.794976E-1	2.957411E-1	2.724346E-1	2.359102E-1	2.607473E-1	2.846029E-1	2.505004E-1	2.373016E-1	2.691657E-1	2.772637E-1	2.717794E-1	2.199555E-1	2.371841E-1	2.738929E-1	2.502086E-1	2.725405E-1	2.878745E-1	4.129388E-1	3.497628E-1	3.480425E-1	3.181530E-1	3.292865E-1	3.149128E-1	2.972394E-1	2.937093E-1	3.185300E-1	2.851986E-1	2.685859E-1	2.688252E-1	3.117326E-1	2.909583E-1	2.999580E-1	3.105226E-1	3.422486E-1	3.171054E-1	3.018695E-1	3.097830E-1	2.926469E-1	3.203869E-1	2.854963E-1	2.912561E-1	3.269005E-1	3.190860E-1	2.757849E-1	2.832556E-1	2.698779E-1	2.743085E-1	2.957196E-1	3.115234E-1	3.395737E-1	2.997423E-1	2.939052E-1	3.000356E-1	2.954340E-1	3.038139E-1	2.982976E-1	2.602630E-1	2.801983E-1	2.931305E-1	2.705642E-1	2.850439E-1	2.361706E-1	2.938254E-1	2.951414E-1	2.768150E-1	3.056427E-1	2.707894E-1	2.886128E-1	2.925796E-1	3.236272E-1	2.705348E-1	2.861756E-1	2.952962E-1	2.953104E-1	2.847814E-1	2.753846E-1	3.214865E-1	2.899288E-1	2.883507E-1	2.974200E-1	3.112113E-1	2.926498E-1	2.971887E-1	3.036142E-1	3.119648E-1	2.620281E-1	2.965200E-1	2.712006E-1	2.988002E-1	2.854249E-1	3.127173E-1	2.857577E-1	2.817667E-1	2.783174E-1	2.901047E-1	2.952549E-1	2.700508E-1	2.799497E-1	2.986393E-1	2.328526E-1	2.776297E-1	2.708880E-1	2.914311E-1	2.435059E-1	3.023241E-1	2.694368E-1	2.999097E-1	2.281172E-1	3.116238E-1	2.853714E-1	2.974859E-1	2.705610E-1	3.224123E-1	3.235329E-1	2.793399E-1	3.018478E-1	3.073195E-1	3.159931E-1	2.588628E-1	2.782438E-1	2.898359E-1	2.980312E-1	2.746906E-1	2.434849E-1	2.910670E-1	2.810460E-1	2.546764E-1	2.683182E-1	3.343225E-1	3.006414E-1	2.400652E-1	2.366011E-1	2.851240E-1	2.939244E-1	2.456325E-1	2.856657E-1	2.908428E-1	3.114930E-1	2.787323E-1	2.599219E-1	2.862989E-1	2.773015E-1	2.801438E-1	3.202508E-1	3.184365E-1	2.774093E-1	2.906175E-1	2.653852E-1	3.070031E-1	2.810166E-1	2.533114E-1	2.801823E-1	2.895480E-1	3.106404E-1	2.730369E-1	2.914982E-1	3.076243E-1	2.760501E-1	2.678807E-1	2.945196E-1	3.275279E-1	2.760672E-1	2.588270E-1	3.071471E-1	3.016327E-1	3.006416E-1
5.343600E+2	5.047697E-1	4.806942E-1	4.054653E-1	5.163660E-1	5.457711E-1	4.759806E-1	5.310558E-1	4.970547E-1	4.447116E-1	4.610622E-1	4.634852E-1	5.345730E-1	4.357652E-1	5.011471E-1	5.444062E-1	5.221553E-1	4.233670E-1	4.501500E-1	4.656176E-1	4.624261E-1	4.570640E-1	5.016084E-1	6.416712E-1	6.465700E-1	5.275876E-1	5.166306E-1	5.688704E-1	5.576208E-1	5.414954E-1	5.328049E-1	5.800355E-1	5.557018E-1	5.166072E-1	4.977628E-1	5.726837E-1	4.756323E-1	5.285261E-1	5.429306E-1	5.824756E-1	4.776707E-1	4.970936E-1	5.158755E-1	5.319940E-1	5.669006E-1	5.191482E-1	5.193036E-1	5.704023E-1	5.444521E-1	4.786672E-1	5.112861E-1	4.991690E-1	5.405703E-1	5.060446E-1	5.684330E-1	5.211384E-1	5.271522E-1	5.145396E-1	5.242235E-1	5.208385E-1	5.274727E-1	5.008736E-1	5.160759E-1	5.440068E-1	5.216883E-1	4.791805E-1	5.092275E-1	4.634116E-1	4.786608E-1	5.190570E-1	4.880893E-1	5.348533E-1	5.023221E-1	4.569181E-1	5.439586E-1	5.656756E-1	5.026079E-1	4.693317E-1	5.709529E-1	5.805266E-1	5.368135E-1	4.421221E-1	5.798969E-1	5.243955E-1	4.907812E-1	4.942437E-1	5.713391E-1	5.096597E-1	5.414764E-1	4.733545E-1	5.390518E-1	4.565053E-1	5.423373E-1	4.939888E-1	4.732724E-1	5.752705E-1	5.343991E-1	4.860564E-1	4.928460E-1	5.293056E-1	4.787313E-1	5.076973E-1	4.636219E-1	5.261044E-1	5.585030E-1	4.658998E-1	5.241528E-1	5.085512E-1	5.655771E-1	4.724558E-1	5.314943E-1	5.174692E-1	5.550966E-1	4.186109E-1	5.701725E-1	4.763872E-1	4.816545E-1	5.125547E-1	5.355476E-1	5.504646E-1	5.329795E-1	4.965910E-1	4.995336E-1	5.474316E-1	5.375869E-1	4.496518E-1	5.103632E-1	5.071040E-1	5.126488E-1	4.421322E-1	4.993984E-1	5.493502E-1	4.758780E-1	5.020004E-1	5.516219E-1	5.504830E-1	5.250331E-1	3.945116E-1	5.077623E-1	4.753286E-1	5.063706E-1	4.636909E-1	5.030500E-1	4.897649E-1	5.331678E-1	4.348928E-1	5.124394E-1	4.917094E-1	4.974697E-1	5.628237E-1	5.405030E-1	5.365826E-1	5.174565E-1	5.350511E-1	5.626193E-1	5.326408E-1	4.548401E-1	5.060639E-1	5.205624E-1	5.386441E-1	5.423325E-1	5.169957E-1	4.930824E-1	4.982643E-1	4.583543E-1	5.463625E-1	5.358958E-1	5.071794E-1	4.737851E-1	5.111728E-1	5.541701E-1	4.289639E-1
5.345110E+2	8.521846E-1	8.024304E-1	7.052195E-1	8.957452E-1	8.285413E-1	8.143687E-1	8.851281E-1	8.228489E-1	6.903601E-1	7.523091E-1	8.894903E-1	8.128345E-1	7.032825E-1	8.475813E-1	8.620731E-1	8.451134E-1	7.317846E-1	7.729172E-1	8.181821E-1	7.860579E-1	8.129742E-1	7.809683E-1	1.010251E+0	9.306390E-1	8.576757E-1	8.832978E-1	8.401556E-1	8.879040E-1	8.457647E-1	8.639590E-1	8.720696E-1	8.484294E-1	8.219606E-1	8.788737E-1	8.617166E-1	8.284317E-1	9.022734E-1	9.180114E-1	9.956919E-1	9.377397E-1	8.339226E-1	8.527083E-1	8.801343E-1	8.828352E-1	8.801905E-1	8.923594E-1	8.966944E-1	9.209546E-1	8.284213E-1	8.459107E-1	8.280649E-1	8.081121E-1	8.848746E-1	8.696374E-1	8.725343E-1	9.009325E-1	8.029636E-1	9.206446E-1	7.895153E-1	8.293469E-1	8.371004E-1	8.487658E-1	8.758741E-1	8.811245E-1	8.104743E-1	8.372859E-1	7.505557E-1	7.939286E-1	8.622251E-1	8.486071E-1	8.493941E-1	8.455278E-1	7.853949E-1	8.879128E-1	8.966266E-1	8.103001E-1	8.235536E-1	8.996472E-1	9.466825E-1	9.117545E-1	7.024432E-1	8.728978E-1	8.255800E-1	8.525252E-1	8.459994E-1	9.369835E-1	8.762214E-1	9.014447E-1	8.128342E-1	9.187706E-1	7.270817E-1	8.972539E-1	7.870653E-1	7.587726E-1	9.473902E-1	9.075749E-1	7.372670E-1	8.141625E-1	8.234446E-1	8.529910E-1	8.575230E-1	8.328769E-1	8.700814E-1	8.721088E-1	7.575490E-1	9.034179E-1	8.220383E-1	8.703546E-1	7.799200E-1	8.875511E-1	8.416748E-1	8.402640E-1	7.158577E-1	9.153651E-1	7.999037E-1	8.645099E-1	8.358911E-1	9.114763E-1	8.744659E-1	9.385067E-1	8.382231E-1	8.144530E-1	8.145254E-1	8.398179E-1	7.759629E-1	8.790060E-1	8.435498E-1	8.279433E-1	7.381163E-1	8.472908E-1	8.974975E-1	7.036429E-1	8.177531E-1	9.601736E-1	8.637766E-1	8.552535E-1	6.856591E-1	8.728600E-1	7.154224E-1	7.986338E-1	7.941213E-1	8.580139E-1	8.125448E-1	8.823236E-1	7.450685E-1	8.267803E-1	8.426246E-1	8.538847E-1	8.980649E-1	8.942603E-1	8.750550E-1	9.514105E-1	8.496613E-1	8.798394E-1	8.173199E-1	8.895371E-1	8.486390E-1	9.117648E-1	9.003539E-1	8.022256E-1	7.826674E-1	8.463347E-1	8.172907E-1	8.097327E-1	8.521710E-1	9.196296E-1	8.124215E-1	8.375606E-1	7.820138E-1	8.560733E-1	6.374897E-1
5.346620E+2	1.315160E+0	1.306646E+0	1.087641E+0	1.228076E+0	1.210448E+0	1.240081E+0	1.283184E+0	1.245998E+0	1.054534E+0	1.132511E+0	1.222078E+0	1.247337E+0	1.082266E+0	1.179863E+0	1.224460E+0	1.238656E+0	1.055803E+0	1.143345E+0	1.224942E+0	1.146827E+0	1.249575E+0	1.185559E+0	1.369353E+0	1.287955E+0	1.289965E+0	1.159747E+0	1.257751E+0	1.292628E+0	1.217851E+0	1.253928E+0	1.329415E+0	1.259899E+0	1.247585E+0	1.211752E+0	1.389783E+0	1.136883E+0	1.256826E+0	1.324079E+0	1.408908E+0	1.228725E+0	1.242929E+0	1.246216E+0	1.298031E+0	1.260398E+0	1.196492E+0	1.242486E+0	1.327691E+0	1.317520E+0	1.110962E+0	1.272964E+0	1.334109E+0	1.244628E+0	1.290765E+0	1.388906E+0	1.246161E+0	1.218802E+0	1.144468E+0	1.297137E+0	1.224822E+0	1.223012E+0	1.156546E+0	1.207300E+0	1.209686E+0	1.290359E+0	1.184408E+0	1.173233E+0	1.040304E+0	1.149833E+0	1.215542E+0	1.253346E+0	1.274803E+0	1.223814E+0	1.132015E+0	1.206942E+0	1.265214E+0	1.199479E+0	1.200745E+0	1.273005E+0	1.301275E+0	1.334340E+0	1.082709E+0	1.359875E+0	1.159169E+0	1.214269E+0	1.207062E+0	1.339266E+0	1.240239E+0	1.287911E+0	1.156831E+0	1.308168E+0	1.047741E+0	1.240433E+0	1.219464E+0	1.135303E+0	1.320264E+0	1.335652E+0	1.099680E+0	1.177443E+0	1.234808E+0	1.281892E+0	1.241526E+0	1.187438E+0	1.268405E+0	1.302039E+0	1.101668E+0	1.177405E+0	1.223454E+0	1.320628E+0	1.144921E+0	1.292162E+0	1.189170E+0	1.295557E+0	9.849781E-1	1.309771E+0	1.176554E+0	1.216799E+0	1.140248E+0	1.265830E+0	1.219455E+0	1.311592E+0	1.155263E+0	1.293925E+0	1.259899E+0	1.247494E+0	1.210832E+0	1.231191E+0	1.190287E+0	1.221235E+0	1.142032E+0	1.226873E+0	1.308945E+0	1.033147E+0	1.182997E+0	1.300860E+0	1.295383E+0	1.186085E+0	9.490493E-1	1.207175E+0	1.127583E+0	1.178905E+0	1.176447E+0	1.251562E+0	1.184621E+0	1.252913E+0	1.063809E+0	1.236618E+0	1.200686E+0	1.236378E+0	1.392749E+0	1.322899E+0	1.272196E+0	1.326188E+0	1.318580E+0	1.284153E+0	1.287514E+0	1.160535E+0	1.202132E+0	1.262588E+0	1.263470E+0	1.185016E+0	1.090458E+0	1.228290E+0	1.179851E+0	1.152860E+0	1.277476E+0	1.271654E+0	1.182346E+0	1.187163E+0	1.142341E+0	1.256714E+0	9.165896E-1
5.348120E+2	1.645019E+0	1.531652E+0	1.438475E+0	1.686618E+0	1.603666E+0	1.520039E+0	1.672446E+0	1.557159E+0	1.334573E+0	1.498216E+0	1.656035E+0	1.588224E+0	1.378059E+0	1.599521E+0	1.628653E+0	1.640190E+0	1.355822E+0	1.435945E+0	1.544874E+0	1.552696E+0	1.588596E+0	1.506459E+0	1.670967E+0	1.628074E+0	1.594505E+0	1.460687E+0	1.538788E+0	1.586630E+0	1.586332E+0	1.513478E+0	1.595529E+0	1.644697E+0	1.519909E+0	1.600333E+0	1.659637E+0	1.440704E+0	1.595178E+0	1.652678E+0	1.782303E+0	1.545269E+0	1.620316E+0	1.563727E+0	1.618653E+0	1.640083E+0	1.607871E+0	1.601291E+0	1.647896E+0	1.653227E+0	1.432089E+0	1.577902E+0	1.602174E+0	1.617140E+0	1.608095E+0	1.769163E+0	1.730954E+0	1.607663E+0	1.464870E+0	1.611711E+0	1.469603E+0	1.500324E+0	1.525734E+0	1.601625E+0	1.592759E+0	1.611489E+0	1.490773E+0	1.524300E+0	1.439442E+0	1.410044E+0	1.616433E+0	1.615093E+0	1.571281E+0	1.578715E+0	1.456114E+0	1.632077E+0	1.655220E+0	1.486963E+0	1.495728E+0	1.650552E+0	1.687990E+0	1.619515E+0	1.403003E+0	1.601329E+0	1.494032E+0	1.561397E+0	1.530227E+0	1.687322E+0	1.629710E+0	1.580668E+0	1.489856E+0	1.748196E+0	1.354092E+0	1.640922E+0	1.465469E+0	1.400115E+0	1.619166E+0	1.675469E+0	1.377688E+0	1.466190E+0	1.561306E+0	1.623966E+0	1.559184E+0	1.519640E+0	1.542052E+0	1.649657E+0	1.360609E+0	1.516127E+0	1.466853E+0	1.709643E+0	1.400842E+0	1.673467E+0	1.480013E+0	1.659511E+0	1.293092E+0	1.681306E+0	1.486621E+0	1.530877E+0	1.530016E+0	1.703217E+0	1.599859E+0	1.655184E+0	1.478286E+0	1.545714E+0	1.539312E+0	1.593378E+0	1.516190E+0	1.468834E+0	1.477198E+0	1.559003E+0	1.405572E+0	1.531616E+0	1.546318E+0	1.342304E+0	1.491232E+0	1.633325E+0	1.600081E+0	1.584797E+0	1.297561E+0	1.502832E+0	1.316323E+0	1.463943E+0	1.475347E+0	1.550580E+0	1.503347E+0	1.619355E+0	1.315253E+0	1.551623E+0	1.468698E+0	1.580478E+0	1.743661E+0	1.616624E+0	1.563607E+0	1.591165E+0	1.675139E+0	1.622613E+0	1.500010E+0	1.503753E+0	1.555627E+0	1.638568E+0	1.540735E+0	1.542283E+0	1.417039E+0	1.564617E+0	1.532665E+0	1.498738E+0	1.566582E+0	1.595852E+0	1.539913E+0	1.487161E+0	1.489544E+0	1.647860E+0	1.237396E+0
5.349580E+2	2.052410E+0	1.932968E+0	1.625989E+0	2.004760E+0	1.893088E+0	1.857785E+0	1.938547E+0	1.885499E+0	1.714714E+0	1.733454E+0	1.919059E+0	1.819354E+0	1.803260E+0	1.926879E+0	1.960260E+0	1.929852E+0	1.842449E+0	1.682094E+0	1.829834E+0	1.812663E+0	1.870077E+0	1.791237E+0	1.962518E+0	1.787943E+0	1.777501E+0	1.689450E+0	1.804589E+0	1.879376E+0	1.862397E+0	1.842075E+0	1.935372E+0	1.819319E+0	1.767309E+0	1.803454E+0	1.937713E+0	1.650527E+0	1.849539E+0	1.910911E+0	2.078016E+0	1.902441E+0	1.834784E+0	1.899919E+0	1.826644E+0	1.917060E+0	1.881915E+0	1.831194E+0	1.969930E+0	2.001644E+0	1.699695E+0	1.860578E+0	1.918369E+0	1.827075E+0	1.864546E+0	2.083313E+0	1.991566E+0	1.854544E+0	1.805092E+0	1.825936E+0	1.833219E+0	1.747253E+0	1.741497E+0	1.868705E+0	1.923331E+0	1.863029E+0	1.704637E+0	1.865508E+0	1.665380E+0	1.738421E+0	1.915201E+0	1.855846E+0	1.859039E+0	1.813168E+0	1.659456E+0	1.923333E+0	1.951128E+0	1.720338E+0	1.782251E+0	1.869677E+0	1.990548E+0	1.982719E+0	1.583579E+0	1.989963E+0	1.783780E+0	1.939950E+0	1.858046E+0	2.085208E+0	1.811083E+0	1.961962E+0	1.697676E+0	1.964113E+0	1.624669E+0	1.884667E+0	1.715245E+0	1.676650E+0	1.931658E+0	1.993748E+0	1.655691E+0	1.790635E+0	1.815894E+0	1.906158E+0	1.835293E+0	1.823092E+0	1.891143E+0	1.925850E+0	1.597747E+0	1.835236E+0	1.745931E+0	1.982256E+0	1.593234E+0	1.947950E+0	1.785331E+0	1.882625E+0	1.581389E+0	1.989760E+0	1.777853E+0	1.861005E+0	1.814035E+0	2.046454E+0	1.842535E+0	2.082097E+0	1.690975E+0	1.845035E+0	1.799273E+0	1.847925E+0	1.752991E+0	1.804560E+0	1.767972E+0	1.807538E+0	1.606204E+0	1.849169E+0	1.897343E+0	1.530682E+0	1.771905E+0	1.957559E+0	1.896192E+0	1.849584E+0	1.439435E+0	1.744800E+0	1.621777E+0	1.729934E+0	1.759133E+0	1.836736E+0	1.799792E+0	1.889002E+0	1.555076E+0	1.788375E+0	1.771010E+0	1.827506E+0	2.002587E+0	1.976191E+0	1.820201E+0	1.915972E+0	1.897614E+0	1.895224E+0	1.784012E+0	1.787132E+0	1.798569E+0	1.937759E+0	1.872184E+0	1.861274E+0	1.685305E+0	1.886961E+0	1.837396E+0	1.683022E+0	1.878814E+0	1.908406E+0	1.803005E+0	1.817864E+0	1.698341E+0	1.729507E+0	1.394593E+0
5.351040E+2	2.157729E+0	2.071539E+0	1.828292E+0	2.170552E+0	2.109993E+0	1.989415E+0	2.080765E+0	2.124753E+0	1.922904E+0	1.908728E+0	2.150940E+0	2.087938E+0	2.010423E+0	1.993952E+0	2.167586E+0	2.134283E+0	1.955854E+0	1.866707E+0	1.961535E+0	1.986414E+0	2.106514E+0	1.986309E+0	2.019405E+0	2.019146E+0	1.981908E+0	1.849266E+0	1.960650E+0	2.003236E+0	2.044836E+0	1.958427E+0	2.014859E+0	2.005370E+0	2.017824E+0	2.001145E+0	2.067849E+0	1.777614E+0	2.028915E+0	2.092316E+0	2.183770E+0	2.110850E+0	2.022449E+0	2.011979E+0	2.069191E+0	2.096279E+0	2.034783E+0	1.999755E+0	2.133681E+0	2.156124E+0	1.917510E+0	2.009677E+0	2.098191E+0	1.960846E+0	1.980161E+0	2.202568E+0	2.056413E+0	2.095145E+0	1.915730E+0	2.021656E+0	1.944307E+0	1.925013E+0	2.007002E+0	2.027758E+0	1.988149E+0	2.063497E+0	1.911944E+0	1.970698E+0	1.795603E+0	1.857713E+0	2.050311E+0	1.970080E+0	2.011640E+0	1.996174E+0	1.962283E+0	2.035851E+0	2.047167E+0	1.934812E+0	2.018601E+0	2.014139E+0	2.153070E+0	2.020007E+0	1.881466E+0	2.138497E+0	1.935007E+0	1.964799E+0	1.991032E+0	2.107189E+0	1.967633E+0	1.998796E+0	1.853861E+0	2.099620E+0	1.727435E+0	1.990313E+0	1.927364E+0	1.833881E+0	2.059975E+0	2.145240E+0	1.829195E+0	1.876449E+0	1.928085E+0	2.019186E+0	1.993450E+0	1.898478E+0	1.992164E+0	2.070067E+0	1.710180E+0	1.966670E+0	1.941546E+0	2.106310E+0	1.807797E+0	2.033404E+0	1.928865E+0	2.048567E+0	1.690061E+0	2.024419E+0	1.926495E+0	1.921377E+0	1.934694E+0	2.137335E+0	2.058972E+0	2.122649E+0	1.849161E+0	2.002490E+0	1.974958E+0	1.912399E+0	1.820284E+0	1.982298E+0	1.966105E+0	1.997905E+0	1.716786E+0	1.969856E+0	2.039771E+0	1.686903E+0	1.877781E+0	2.158405E+0	2.046890E+0	1.940703E+0	1.560951E+0	2.026138E+0	1.818519E+0	1.900697E+0	1.914167E+0	1.966634E+0	1.948352E+0	2.060471E+0	1.730045E+0	2.024462E+0	1.951830E+0	1.966597E+0	2.102071E+0	2.076246E+0	1.881446E+0	2.146096E+0	2.060909E+0	2.067286E+0	1.886552E+0	1.961148E+0	1.986236E+0	2.001306E+0	1.974226E+0	1.892840E+0	1.779909E+0	2.023112E+0	1.846493E+0	1.815735E+0	1.971327E+0	2.073418E+0	1.900390E+0	1.900542E+0	1.958445E+0	2.042804E+0	1.558203E+0
5.352600E+2	2.123355E+0	2.074969E+0	1.835683E+0	2.220586E+0	2.022165E+0	2.052342E+0	2.157735E+0	2.029945E+0	1.916761E+0	1.991097E+0	2.075412E+0	2.059527E+0	1.986499E+0	2.060408E+0	2.168168E+0	2.119636E+0	1.999058E+0	1.858862E+0	1.968529E+0	1.917442E+0	2.076491E+0	1.928510E+0	1.993330E+0	1.885389E+0	1.961191E+0	1.885995E+0	1.933221E+0	1.951940E+0	1.966821E+0	1.926462E+0	2.009100E+0	2.001561E+0	1.987285E+0	1.951554E+0	2.074012E+0	1.777617E+0	2.031317E+0	2.073596E+0	2.273202E+0	2.033518E+0	2.032760E+0	2.026792E+0	2.063430E+0	2.023315E+0	2.114322E+0	1.910520E+0	2.024716E+0	2.040432E+0	1.890754E+0	1.917250E+0	1.987222E+0	1.994131E+0	2.042273E+0	2.192350E+0	2.097787E+0	2.026673E+0	1.899103E+0	1.970413E+0	1.893933E+0	1.928248E+0	2.041765E+0	1.984020E+0	1.925923E+0	2.088394E+0	1.899477E+0	1.948343E+0	1.669288E+0	1.872130E+0	2.036989E+0	1.995879E+0	1.949974E+0	2.002020E+0	2.039866E+0	2.026592E+0	2.044573E+0	1.940024E+0	2.126198E+0	2.081130E+0	2.156923E+0	1.960619E+0	1.922985E+0	2.083559E+0	1.891163E+0	2.083917E+0	1.934514E+0	2.211244E+0	2.038274E+0	2.026587E+0	1.944867E+0	2.135359E+0	1.680605E+0	1.966144E+0	2.049740E+0	1.869051E+0	2.105262E+0	2.107716E+0	1.922311E+0	1.899623E+0	1.946064E+0	1.893433E+0	2.024947E+0	1.981530E+0	1.960836E+0	2.110204E+0	1.828068E+0	1.971898E+0	1.946006E+0	2.125456E+0	1.976216E+0	2.066420E+0	1.928233E+0	2.006732E+0	1.879914E+0	2.138790E+0	1.941293E+0	2.008492E+0	1.969265E+0	2.085687E+0	2.048479E+0	2.118221E+0	1.891035E+0	1.991855E+0	1.945783E+0	2.013147E+0	1.944081E+0	1.983616E+0	1.928152E+0	1.917925E+0	1.824718E+0	1.997498E+0	2.075012E+0	1.675089E+0	1.825778E+0	2.082317E+0	2.052841E+0	1.994515E+0	1.586861E+0	1.959559E+0	1.783171E+0	1.924340E+0	1.903002E+0	1.949271E+0	1.909865E+0	1.997551E+0	1.668255E+0	1.960132E+0	1.886793E+0	1.941237E+0	2.155221E+0	2.052365E+0	2.008454E+0	2.100728E+0	2.036939E+0	1.982317E+0	1.912862E+0	2.014799E+0	1.890695E+0	2.080073E+0	1.972111E+0	1.906943E+0	1.828504E+0	1.981895E+0	1.903668E+0	1.874872E+0	2.006663E+0	2.011299E+0	1.857510E+0	1.851723E+0	1.828394E+0	1.989637E+0	1.532538E+0
5.354110E+2	1.934654E+0	1.904844E+0	1.558778E+0	1.913646E+0	1.848510E+0	1.851364E+0	1.910688E+0	1.861955E+0	1.679710E+0	1.723569E+0	1.882621E+0	1.803863E+0	1.781510E+0	1.814272E+0	1.895218E+0	1.904549E+0	1.730242E+0	1.665806E+0	1.797205E+0	1.831893E+0	1.850684E+0	1.682867E+0	1.787116E+0	1.780298E+0	1.742973E+0	1.636611E+0	1.768012E+0	1.712983E+0	1.795781E+0	1.698877E+0	1.833997E+0	1.760268E+0	1.719323E+0	1.706311E+0	1.885658E+0	1.551244E+0	1.791349E+0	1.883150E+0	1.959210E+0	1.827732E+0	1.764670E+0	1.787854E+0	1.839441E+0	1.844808E+0	1.855815E+0	1.791535E+0	1.839654E+0	1.823087E+0	1.669823E+0	1.801885E+0	1.746567E+0	1.754748E+0	1.784595E+0	1.926577E+0	1.879167E+0	1.840722E+0	1.688700E+0	1.846579E+0	1.750550E+0	1.703297E+0	1.744494E+0	1.818338E+0	1.739249E+0	1.772371E+0	1.751872E+0	1.734680E+0	1.592453E+0	1.621095E+0	1.773111E+0	1.786444E+0	1.821670E+0	1.726054E+0	1.837774E+0	1.751003E+0	1.855087E+0	1.706652E+0	1.869899E+0	1.814548E+0	1.889696E+0	1.837021E+0	1.724616E+0	1.925528E+0	1.708165E+0	1.847867E+0	1.730375E+0	1.920341E+0	1.751261E+0	1.789409E+0	1.811268E+0	1.925397E+0	1.605806E+0	1.797666E+0	1.787414E+0	1.642171E+0	1.910522E+0	1.774845E+0	1.654352E+0	1.713599E+0	1.760517E+0	1.830557E+0	1.835963E+0	1.725987E+0	1.832961E+0	1.877552E+0	1.734030E+0	1.759380E+0	1.712800E+0	1.887297E+0	1.804799E+0	1.884507E+0	1.688384E+0	1.768280E+0	1.704763E+0	1.894801E+0	1.738841E+0	1.790702E+0	1.793022E+0	1.901970E+0	1.827450E+0	1.942744E+0	1.738828E+0	1.759212E+0	1.724072E+0	1.780762E+0	1.801873E+0	1.715694E+0	1.753176E+0	1.695828E+0	1.686986E+0	1.759499E+0	1.811747E+0	1.520183E+0	1.725542E+0	1.856794E+0	1.900156E+0	1.735233E+0	1.408594E+0	1.783455E+0	1.635781E+0	1.637332E+0	1.642861E+0	1.721633E+0	1.751846E+0	1.821938E+0	1.492061E+0	1.745268E+0	1.680247E+0	1.728261E+0	1.918780E+0	1.905180E+0	1.802147E+0	1.829182E+0	1.947800E+0	1.828666E+0	1.629533E+0	1.716288E+0	1.883869E+0	1.827879E+0	1.837701E+0	1.751811E+0	1.726127E+0	1.837649E+0	1.719792E+0	1.716025E+0	1.801077E+0	1.799691E+0	1.688175E+0	1.728102E+0	1.684024E+0	1.748495E+0	1.429882E+0
5.355630E+2	1.691098E+0	1.555665E+0	1.429065E+0	1.668696E+0	1.638263E+0	1.605437E+0	1.588138E+0	1.671697E+0	1.462924E+0	1.527209E+0	1.634172E+0	1.552716E+0	1.558581E+0	1.552756E+0	1.665820E+0	1.653507E+0	1.564634E+0	1.443185E+0	1.549535E+0	1.532798E+0	1.679921E+0	1.511275E+0	1.558974E+0	1.504509E+0	1.501967E+0	1.445219E+0	1.494289E+0	1.514692E+0	1.569530E+0	1.495579E+0	1.600714E+0	1.529133E+0	1.568519E+0	1.524926E+0	1.589091E+0	1.440704E+0	1.569980E+0	1.573918E+0	1.735305E+0	1.537404E+0	1.480083E+0	1.528950E+0	1.600096E+0	1.630171E+0	1.628375E+0	1.536222E+0	1.576672E+0	1.700042E+0	1.478764E+0	1.537424E+0	1.522623E+0	1.566577E+0	1.544137E+0	1.690113E+0	1.587678E+0	1.542956E+0	1.491087E+0	1.666514E+0	1.429559E+0	1.535228E+0	1.567689E+0	1.585720E+0	1.491645E+0	1.536793E+0	1.527510E+0	1.514438E+0	1.333309E+0	1.440194E+0	1.536509E+0	1.521739E+0	1.587476E+0	1.514399E+0	1.593762E+0	1.592913E+0	1.585138E+0	1.502608E+0	1.638386E+0	1.543078E+0	1.701478E+0	1.603633E+0	1.544696E+0	1.652876E+0	1.474333E+0	1.572357E+0	1.560151E+0	1.613316E+0	1.499252E+0	1.602641E+0	1.590540E+0	1.695333E+0	1.346287E+0	1.626420E+0	1.632404E+0	1.454594E+0	1.694647E+0	1.659489E+0	1.484869E+0	1.479344E+0	1.606618E+0	1.567826E+0	1.613469E+0	1.489615E+0	1.552284E+0	1.604762E+0	1.461461E+0	1.530512E+0	1.489155E+0	1.644551E+0	1.535096E+0	1.658573E+0	1.457348E+0	1.590488E+0	1.472719E+0	1.643178E+0	1.578091E+0	1.505661E+0	1.593732E+0	1.645683E+0	1.626751E+0	1.668458E+0	1.447047E+0	1.533662E+0	1.546439E+0	1.596738E+0	1.659668E+0	1.527420E+0	1.627729E+0	1.573546E+0	1.501584E+0	1.491839E+0	1.580126E+0	1.318018E+0	1.530077E+0	1.663484E+0	1.629827E+0	1.541380E+0	1.232794E+0	1.505697E+0	1.412361E+0	1.482991E+0	1.487830E+0	1.551864E+0	1.539137E+0	1.529473E+0	1.404576E+0	1.565549E+0	1.495139E+0	1.589167E+0	1.638731E+0	1.601127E+0	1.585528E+0	1.626667E+0	1.721583E+0	1.634650E+0	1.477074E+0	1.523700E+0	1.738517E+0	1.633935E+0	1.649107E+0	1.564445E+0	1.580978E+0	1.572712E+0	1.528116E+0	1.463668E+0	1.578146E+0	1.579675E+0	1.451978E+0	1.543066E+0	1.561131E+0	1.552921E+0	1.234189E+0
5.357140E+2	1.375866E+0	1.338886E+0	1.160228E+0	1.346072E+0	1.333537E+0	1.297229E+0	1.396811E+0	1.399354E+0	1.171215E+0	1.239916E+0	1.326760E+0	1.364839E+0	1.285624E+0	1.323852E+0	1.375451E+0	1.361180E+0	1.250213E+0	1.186178E+0	1.264569E+0	1.256917E+0	1.288357E+0	1.218672E+0	1.310684E+0	1.242094E+0	1.276844E+0	1.190680E+0	1.219345E+0	1.243834E+0	1.279664E+0	1.261599E+0	1.288521E+0	1.277680E+0	1.261917E+0	1.279684E+0	1.354168E+0	1.216974E+0	1.216029E+0	1.324728E+0	1.403685E+0	1.334893E+0	1.298611E+0	1.307402E+0	1.289070E+0	1.353902E+0	1.297782E+0	1.266035E+0	1.356304E+0	1.397098E+0	1.229828E+0	1.315463E+0	1.293331E+0	1.251028E+0	1.276006E+0	1.363695E+0	1.312861E+0	1.233879E+0	1.228244E+0	1.304255E+0	1.248722E+0	1.167420E+0	1.256637E+0	1.332557E+0	1.229130E+0	1.292910E+0	1.177851E+0	1.239634E+0	1.045513E+0	1.187851E+0	1.299907E+0	1.279755E+0	1.329612E+0	1.235510E+0	1.331605E+0	1.384972E+0	1.267812E+0	1.205996E+0	1.390554E+0	1.344187E+0	1.369367E+0	1.370937E+0	1.234948E+0	1.337493E+0	1.242410E+0	1.350928E+0	1.275553E+0	1.394955E+0	1.335059E+0	1.295017E+0	1.271712E+0	1.343907E+0	1.154410E+0	1.305339E+0	1.274062E+0	1.201505E+0	1.343662E+0	1.387073E+0	1.322087E+0	1.242584E+0	1.272923E+0	1.314828E+0	1.335349E+0	1.209799E+0	1.369423E+0	1.383673E+0	1.193661E+0	1.231025E+0	1.268693E+0	1.384187E+0	1.274381E+0	1.334885E+0	1.303746E+0	1.308106E+0	1.222775E+0	1.340963E+0	1.231708E+0	1.253480E+0	1.252772E+0	1.363246E+0	1.330298E+0	1.316017E+0	1.270249E+0	1.331517E+0	1.196366E+0	1.263612E+0	1.325104E+0	1.248964E+0	1.271989E+0	1.325010E+0	1.266518E+0	1.319912E+0	1.294558E+0	1.100755E+0	1.256298E+0	1.418078E+0	1.348920E+0	1.219109E+0	1.021836E+0	1.293796E+0	1.180937E+0	1.197951E+0	1.258563E+0	1.251560E+0	1.255523E+0	1.378749E+0	1.093175E+0	1.263146E+0	1.275730E+0	1.279119E+0	1.340284E+0	1.388099E+0	1.284445E+0	1.312380E+0	1.472142E+0	1.322387E+0	1.208584E+0	1.300161E+0	1.376834E+0	1.365851E+0	1.330324E+0	1.286419E+0	1.268650E+0	1.319546E+0	1.255871E+0	1.172800E+0	1.334013E+0	1.353191E+0	1.199061E+0	1.211572E+0	1.279552E+0	1.279499E+0	1.038496E+0
5.358600E+2	1.203256E+0	1.162583E+0	1.031857E+0	1.237038E+0	1.159882E+0	1.106525E+0	1.201081E+0	1.160097E+0	1.085240E+0	1.069253E+0	1.199553E+0	1.142101E+0	1.158933E+0	1.134943E+0	1.200648E+0	1.144765E+0	1.129609E+0	9.792462E-1	1.113055E+0	1.056636E+0	1.190154E+0	1.088022E+0	1.163134E+0	1.099425E+0	1.073821E+0	9.941360E-1	1.080349E+0	1.083071E+0	1.139232E+0	1.055107E+0	1.111111E+0	1.099882E+0	1.136038E+0	1.107812E+0	1.155543E+0	1.059440E+0	1.108644E+0	1.200130E+0	1.237877E+0	1.148113E+0	1.135007E+0	1.115477E+0	1.166838E+0	1.164768E+0	1.156101E+0	1.154489E+0	1.108541E+0	1.197145E+0	1.129012E+0	1.129263E+0	1.153618E+0	1.123019E+0	1.138250E+0	1.221268E+0	1.187495E+0	1.154727E+0	1.068364E+0	1.174724E+0	1.062713E+0	1.099548E+0	1.138566E+0	1.131088E+0	1.151999E+0	1.177357E+0	1.023027E+0	1.094998E+0	9.680302E-1	9.787634E-1	1.134984E+0	1.144024E+0	1.127187E+0	1.106294E+0	1.115122E+0	1.122200E+0	1.197728E+0	1.078879E+0	1.208000E+0	1.132734E+0	1.229328E+0	1.181049E+0	1.059643E+0	1.164541E+0	1.080379E+0	1.110496E+0	1.134586E+0	1.232284E+0	1.130779E+0	1.118590E+0	1.135534E+0	1.202442E+0	1.002211E+0	1.094737E+0	1.170511E+0	1.084271E+0	1.220630E+0	1.230716E+0	1.128486E+0	1.117940E+0	1.125495E+0	1.183837E+0	1.150385E+0	1.079473E+0	1.128384E+0	1.189797E+0	1.115297E+0	1.121169E+0	1.060977E+0	1.132249E+0	1.129937E+0	1.211237E+0	1.036197E+0	1.173541E+0	1.061686E+0	1.153812E+0	1.067595E+0	1.142673E+0	1.104999E+0	1.276945E+0	1.162394E+0	1.196572E+0	1.114056E+0	1.133627E+0	1.068654E+0	1.129959E+0	1.145444E+0	1.126522E+0	1.094436E+0	1.096307E+0	1.083763E+0	1.135854E+0	1.163644E+0	9.399412E-1	1.102182E+0	1.171304E+0	1.177070E+0	1.087019E+0	8.663932E-1	1.089772E+0	1.008203E+0	1.110600E+0	1.044408E+0	1.113948E+0	1.069148E+0	1.204517E+0	1.006301E+0	1.164333E+0	1.081332E+0	1.067589E+0	1.243527E+0	1.193791E+0	1.167108E+0	1.184169E+0	1.277381E+0	1.182188E+0	1.108745E+0	1.121330E+0	1.258773E+0	1.185142E+0	1.155803E+0	1.097712E+0	1.146832E+0	1.137033E+0	1.118773E+0	1.032525E+0	1.144487E+0	1.183648E+0	1.090046E+0	1.165903E+0	1.118478E+0	1.176964E+0	9.005504E-1
5.360070E+2	9.962697E-1	1.003430E+0	8.799640E-1	1.089169E+0	9.682634E-1	9.549888E-1	1.010483E+0	1.028380E+0	9.010039E-1	9.717321E-1	9.491174E-1	1.022661E+0	9.800434E-1	1.074024E+0	1.032813E+0	1.010921E+0	9.597977E-1	9.593375E-1	9.883451E-1	9.637908E-1	1.009383E+0	9.411180E-1	1.026252E+0	9.153527E-1	9.633317E-1	8.762096E-1	9.248937E-1	9.729772E-1	9.291837E-1	9.406738E-1	1.023558E+0	9.443121E-1	9.578114E-1	9.400139E-1	1.057601E+0	9.416187E-1	9.676645E-1	9.780505E-1	1.094916E+0	9.718190E-1	9.968376E-1	9.956851E-1	9.786894E-1	9.954664E-1	1.044245E+0	9.853131E-1	9.898340E-1	1.052028E+0	9.460433E-1	9.673473E-1	9.704528E-1	9.834869E-1	9.715877E-1	1.072030E+0	1.009017E+0	9.951626E-1	9.564487E-1	1.004626E+0	9.193323E-1	9.114416E-1	9.881328E-1	1.003181E+0	9.996761E-1	9.456059E-1	9.292148E-1	9.391879E-1	8.384571E-1	8.686492E-1	9.554708E-1	9.806535E-1	1.029399E+0	9.642176E-1	1.013765E+0	9.961549E-1	9.744974E-1	9.393743E-1	1.049023E+0	1.012701E+0	1.075801E+0	1.007734E+0	9.555149E-1	1.042458E+0	9.202560E-1	9.760301E-1	9.410859E-1	1.079870E+0	9.901357E-1	9.822278E-1	1.001936E+0	1.036409E+0	9.046477E-1	1.058830E+0	1.058176E+0	8.904893E-1	1.025890E+0	1.018763E+0	1.011254E+0	8.968409E-1	9.866956E-1	9.817361E-1	9.908858E-1	9.523419E-1	1.033119E+0	1.029252E+0	9.224535E-1	9.478839E-1	9.520211E-1	1.057969E+0	9.920885E-1	1.045510E+0	9.405096E-1	1.012480E+0	8.679972E-1	1.016566E+0	9.317321E-1	1.009704E+0	9.328244E-1	1.082770E+0	1.056142E+0	1.026986E+0	8.867432E-1	1.035038E+0	9.798385E-1	9.513071E-1	1.008316E+0	9.915740E-1	9.381149E-1	9.337022E-1	9.453719E-1	1.001686E+0	9.543239E-1	8.237610E-1	9.505692E-1	1.078077E+0	1.032982E+0	9.745001E-1	7.788017E-1	9.888322E-1	8.708163E-1	8.958359E-1	9.071119E-1	9.756927E-1	1.000946E+0	1.042728E+0	8.502956E-1	9.832884E-1	9.562612E-1	9.806579E-1	1.019351E+0	1.069202E+0	9.704722E-1	1.028996E+0	1.030188E+0	9.867585E-1	9.448182E-1	9.466258E-1	1.083391E+0	1.028264E+0	1.011541E+0	9.754878E-1	9.576222E-1	1.052399E+0	9.628347E-1	9.534476E-1	1.053259E+0	1.023166E+0	9.301580E-1	1.010000E+0	9.753020E-1	1.006077E+0	7.850600E-1
5.362630E+2	7.410120E-1	7.640142E-1	6.709427E-1	7.777497E-1	7.560194E-1	7.739155E-1	7.319172E-1	7.700349E-1	6.872892E-1	7.470374E-1	7.609599E-1	7.134095E-1	7.005643E-1	8.278906E-1	7.581197E-1	7.945056E-1	6.945823E-1	7.632641E-1	7.319347E-1	6.826020E-1	7.210256E-1	7.141383E-1	7.619638E-1	7.000717E-1	7.257783E-1	6.983531E-1	7.035985E-1	7.115024E-1	7.485428E-1	8.089793E-1	7.505325E-1	7.100028E-1	7.353401E-1	7.538748E-1	7.651439E-1	7.284829E-1	7.312977E-1	8.108458E-1	7.835347E-1	7.411292E-1	7.562458E-1	7.606107E-1	7.649410E-1	7.092840E-1	7.838716E-1	7.690399E-1	7.499848E-1	7.811874E-1	7.375601E-1	7.824941E-1	7.217752E-1	7.620283E-1	7.655679E-1	7.980844E-1	7.996610E-1	7.244078E-1	7.051173E-1	7.775914E-1	7.087823E-1	7.382028E-1	7.094421E-1	7.400777E-1	7.079962E-1	7.125792E-1	7.048535E-1	7.695705E-1	6.242384E-1	6.943011E-1	7.867414E-1	7.669220E-1	7.123667E-1	7.449634E-1	7.678759E-1	7.668520E-1	8.369254E-1	7.411994E-1	7.570616E-1	7.503042E-1	7.501146E-1	7.515587E-1	7.512119E-1	7.894738E-1	7.474244E-1	7.567914E-1	7.582266E-1	8.138806E-1	7.603984E-1	7.482802E-1	7.521664E-1	7.467797E-1	6.373231E-1	8.047269E-1	8.040093E-1	6.718812E-1	7.986928E-1	8.026408E-1	7.533450E-1	6.863876E-1	7.126932E-1	7.863727E-1	7.744227E-1	7.587702E-1	7.914399E-1	7.278912E-1	7.255219E-1	7.249020E-1	7.385698E-1	7.807594E-1	7.517508E-1	7.703758E-1	7.214352E-1	7.510179E-1	7.030732E-1	8.238682E-1	7.117944E-1	7.483541E-1	7.382802E-1	7.427987E-1	7.603441E-1	8.013652E-1	7.212443E-1	7.683501E-1	7.691452E-1	7.444471E-1	7.543778E-1	7.203583E-1	7.586339E-1	7.340820E-1	7.195766E-1	7.832413E-1	7.982329E-1	6.183131E-1	7.519710E-1	7.606961E-1	7.448040E-1	7.268344E-1	6.085545E-1	7.583193E-1	6.487297E-1	7.171938E-1	7.067513E-1	7.384069E-1	7.787814E-1	7.661690E-1	6.269937E-1	7.432216E-1	7.039740E-1	7.778202E-1	7.699645E-1	7.812903E-1	7.602969E-1	7.870339E-1	8.241929E-1	7.870801E-1	7.485111E-1	7.437212E-1	8.384026E-1	8.065173E-1	7.983156E-1	7.296973E-1	7.748915E-1	7.823080E-1	7.529659E-1	7.313429E-1	7.545177E-1	7.824430E-1	6.481723E-1	7.391367E-1	7.366758E-1	7.041719E-1	5.957842E-1
5.365140E+2	6.159424E-1	5.973148E-1	5.546696E-1	6.507911E-1	5.970021E-1	5.485384E-1	6.278213E-1	6.402265E-1	5.577101E-1	6.080033E-1	5.840652E-1	6.133382E-1	5.912735E-1	6.715954E-1	6.419714E-1	6.333595E-1	5.937762E-1	6.118353E-1	5.664333E-1	5.572607E-1	5.921725E-1	5.696418E-1	6.381161E-1	5.886099E-1	5.524479E-1	5.907370E-1	5.853307E-1	6.326850E-1	5.943073E-1	6.613030E-1	6.301481E-1	5.880857E-1	5.695771E-1	6.478974E-1	6.076140E-1	5.954382E-1	6.209128E-1	6.204005E-1	6.497127E-1	5.772866E-1	6.173892E-1	6.324471E-1	5.979103E-1	5.619424E-1	5.676191E-1	7.182253E-1	6.416269E-1	5.825709E-1	6.018897E-1	6.624067E-1	5.292512E-1	6.058556E-1	5.650827E-1	6.365787E-1	6.267423E-1	6.044207E-1	5.541898E-1	6.416554E-1	5.531309E-1	5.804779E-1	5.410287E-1	6.784444E-1	5.913241E-1	6.034070E-1	5.775847E-1	6.670109E-1	5.337328E-1	5.612462E-1	5.634594E-1	6.422458E-1	6.257898E-1	5.748217E-1	5.858064E-1	5.795643E-1	6.033134E-1	5.951762E-1	6.319353E-1	6.393436E-1	6.081489E-1	6.196734E-1	6.200629E-1	6.456862E-1	5.663325E-1	5.982080E-1	5.520934E-1	6.614676E-1	5.503889E-1	6.151499E-1	6.211504E-1	6.462662E-1	5.247999E-1	6.031011E-1	6.715913E-1	5.401650E-1	6.462224E-1	6.601810E-1	5.945798E-1	5.673816E-1	5.961884E-1	6.306805E-1	6.001801E-1	5.485887E-1	5.970733E-1	6.244892E-1	5.463075E-1	5.980442E-1	5.888346E-1	6.306682E-1	5.971196E-1	6.434904E-1	5.590176E-1	6.018105E-1	5.592440E-1	6.138411E-1	5.705502E-1	6.069800E-1	5.742396E-1	6.558453E-1	6.140843E-1	6.148221E-1	5.909721E-1	5.669152E-1	5.474314E-1	6.087793E-1	5.505926E-1	5.946247E-1	5.566377E-1	5.926292E-1	5.719149E-1	6.457020E-1	6.558088E-1	4.673448E-1	5.734203E-1	6.530741E-1	6.449995E-1	5.812927E-1	5.289826E-1	5.764865E-1	5.486906E-1	6.081701E-1	5.812799E-1	5.802161E-1	5.626937E-1	6.479398E-1	5.125897E-1	5.867140E-1	5.839047E-1	5.728094E-1	6.718453E-1	6.102215E-1	5.971854E-1	6.680256E-1	6.863640E-1	6.185574E-1	6.183145E-1	5.930905E-1	6.691621E-1	6.185284E-1	6.505351E-1	6.115028E-1	5.947533E-1	5.379745E-1	5.723356E-1	5.876284E-1	6.144625E-1	6.031951E-1	5.747686E-1	5.619734E-1	6.209407E-1	6.111319E-1	4.963340E-1
5.367870E+2	5.354887E-1	4.902977E-1	4.793957E-1	5.544531E-1	5.184916E-1	5.074437E-1	5.405862E-1	5.326885E-1	5.153356E-1	5.414513E-1	5.019120E-1	5.371554E-1	4.885076E-1	5.897553E-1	5.403404E-1	5.274824E-1	4.929711E-1	5.454717E-1	4.679488E-1	5.088488E-1	5.214908E-1	5.160583E-1	5.841923E-1	5.382929E-1	5.413992E-1	5.733383E-1	5.335121E-1	5.207142E-1	5.102881E-1	5.526230E-1	5.195550E-1	5.322074E-1	4.916805E-1	6.105337E-1	5.185760E-1	4.835747E-1	5.297259E-1	5.590708E-1	5.876978E-1	5.176482E-1	5.403999E-1	5.448571E-1	5.492725E-1	5.584005E-1	5.489763E-1	6.023425E-1	5.478785E-1	5.986205E-1	5.023158E-1	6.367703E-1	5.706972E-1	5.591319E-1	5.023546E-1	5.759290E-1	5.779542E-1	5.346903E-1	5.177373E-1	5.676375E-1	5.124418E-1	4.854556E-1	5.236478E-1	6.327159E-1	5.057642E-1	5.382875E-1	5.054215E-1	5.631370E-1	4.432269E-1	4.845593E-1	5.456983E-1	5.378368E-1	5.099390E-1	5.309710E-1	5.607794E-1	5.788524E-1	5.656757E-1	4.739248E-1	5.678608E-1	6.149185E-1	5.792422E-1	5.823866E-1	5.534997E-1	6.036355E-1	5.027912E-1	5.024745E-1	5.653926E-1	5.793991E-1	5.268420E-1	5.039930E-1	5.094963E-1	6.149950E-1	4.532530E-1	5.312899E-1	5.831042E-1	5.312003E-1	5.669675E-1	5.642812E-1	5.128523E-1	5.291741E-1	5.271483E-1	5.453497E-1	5.304828E-1	5.709486E-1	5.644661E-1	5.591836E-1	4.965637E-1	5.588093E-1	5.060030E-1	5.510279E-1	5.533673E-1	5.955846E-1	5.275416E-1	5.439405E-1	5.049083E-1	5.445252E-1	5.288494E-1	5.076361E-1	5.335685E-1	5.800053E-1	5.281651E-1	5.757445E-1	4.926033E-1	5.669151E-1	5.150170E-1	5.503475E-1	5.372613E-1	5.241881E-1	5.116070E-1	4.934796E-1	4.911321E-1	5.472666E-1	5.414371E-1	4.581553E-1	4.982412E-1	5.612192E-1	5.359421E-1	5.501053E-1	4.000634E-1	5.127735E-1	4.773291E-1	5.017730E-1	5.517178E-1	5.390607E-1	5.127238E-1	5.463037E-1	4.593641E-1	5.422818E-1	5.288736E-1	4.967455E-1	5.853096E-1	5.915012E-1	5.198206E-1	5.194294E-1	6.122060E-1	5.527059E-1	5.387120E-1	5.318753E-1	6.029673E-1	5.536592E-1	5.548291E-1	5.302440E-1	5.228277E-1	5.320871E-1	5.365996E-1	5.195531E-1	5.572843E-1	5.533677E-1	5.246220E-1	5.202417E-1	5.219105E-1	5.503720E-1	4.032997E-1
5.370120E+2	5.713269E-1	5.101919E-1	4.572165E-1	4.976953E-1	5.391175E-1	5.170753E-1	5.508489E-1	4.938730E-1	4.680482E-1	5.374983E-1	5.191375E-1	5.294081E-1	5.097133E-1	5.860634E-1	4.996884E-1	5.021787E-1	5.103718E-1	5.068604E-1	4.842655E-1	5.008905E-1	4.695739E-1	4.967920E-1	5.308603E-1	4.873387E-1	5.054901E-1	5.204964E-1	5.018118E-1	5.169609E-1	4.982850E-1	5.353621E-1	5.546916E-1	5.290322E-1	4.879419E-1	5.731700E-1	5.384385E-1	4.901944E-1	5.039290E-1	5.364754E-1	5.544054E-1	5.209249E-1	4.915941E-1	4.907577E-1	4.987154E-1	5.059804E-1	5.408981E-1	5.880892E-1	5.393557E-1	5.344213E-1	4.649755E-1	5.382715E-1	5.105334E-1	5.264891E-1	5.374089E-1	5.486707E-1	5.211388E-1	5.635875E-1	4.716920E-1	5.413048E-1	5.331095E-1	4.692954E-1	4.972773E-1	6.161478E-1	4.746519E-1	4.859359E-1	4.686843E-1	5.309230E-1	4.380180E-1	4.563758E-1	5.108110E-1	5.409079E-1	5.068247E-1	5.257091E-1	5.495171E-1	5.389729E-1	5.170064E-1	5.332466E-1	5.684651E-1	5.681618E-1	5.426262E-1	5.326705E-1	5.179115E-1	5.846443E-1	5.085100E-1	5.287828E-1	4.909189E-1	5.559510E-1	5.338425E-1	5.291972E-1	5.262768E-1	5.777675E-1	4.402443E-1	5.250748E-1	5.159537E-1	5.325794E-1	5.314912E-1	5.503822E-1	4.927557E-1	5.385697E-1	4.955050E-1	5.116664E-1	5.237814E-1	5.223959E-1	5.082021E-1	5.571431E-1	4.672627E-1	5.143439E-1	5.021800E-1	5.854873E-1	4.808469E-1	5.929953E-1	4.828452E-1	5.055926E-1	4.965986E-1	5.667061E-1	4.985827E-1	5.183349E-1	5.044205E-1	5.728136E-1	5.143923E-1	5.587857E-1	5.225129E-1	6.023792E-1	5.052926E-1	5.053492E-1	5.105971E-1	5.854085E-1	4.993842E-1	5.192587E-1	5.096722E-1	5.681676E-1	5.018755E-1	4.227107E-1	4.738078E-1	5.564210E-1	5.504827E-1	5.036295E-1	4.105499E-1	5.471353E-1	4.573217E-1	4.748457E-1	4.860264E-1	5.815023E-1	5.059715E-1	5.539095E-1	4.495757E-1	5.376391E-1	5.317324E-1	4.851545E-1	5.491959E-1	5.676156E-1	5.230437E-1	5.424418E-1	5.485347E-1	5.527066E-1	5.285930E-1	5.270603E-1	5.968259E-1	5.523352E-1	5.597553E-1	5.060680E-1	5.539306E-1	5.261992E-1	5.236042E-1	4.748573E-1	5.598539E-1	5.456023E-1	4.861032E-1	4.911079E-1	5.266838E-1	5.598649E-1	3.936755E-1
5.372900E+2	5.325627E-1	5.197963E-1	4.867883E-1	5.776042E-1	5.151651E-1	5.106542E-1	5.523147E-1	5.167806E-1	5.196343E-1	5.381566E-1	5.615389E-1	5.242434E-1	5.276564E-1	5.780641E-1	5.159498E-1	5.547840E-1	5.193728E-1	5.364221E-1	5.437064E-1	5.075224E-1	5.421318E-1	5.449572E-1	5.758961E-1	5.605854E-1	5.669502E-1	5.610943E-1	5.005918E-1	5.476121E-1	5.775034E-1	5.679660E-1	5.736994E-1	5.398269E-1	5.284475E-1	6.037402E-1	5.569310E-1	5.590335E-1	5.537224E-1	6.055524E-1	5.876980E-1	5.418968E-1	5.397129E-1	5.744832E-1	5.415933E-1	5.605255E-1	5.893686E-1	5.806534E-1	5.783159E-1	5.651830E-1	5.259648E-1	6.077604E-1	5.706973E-1	5.642521E-1	5.244938E-1	5.704775E-1	5.421357E-1	5.629595E-1	5.202957E-1	5.797364E-1	5.247132E-1	4.964447E-1	5.488199E-1	6.035562E-1	5.582670E-1	5.414799E-1	5.474076E-1	5.710264E-1	4.510402E-1	4.681734E-1	5.717057E-1	5.900417E-1	5.348533E-1	5.730680E-1	5.463892E-1	5.795643E-1	5.410165E-1	5.026076E-1	5.460999E-1	5.744421E-1	5.541894E-1	5.727195E-1	5.383421E-1	5.968530E-1	5.294787E-1	5.675150E-1	5.394594E-1	5.925891E-1	5.522979E-1	5.763741E-1	5.520930E-1	5.606432E-1	4.721152E-1	5.761720E-1	5.580012E-1	5.132701E-1	5.594197E-1	5.691456E-1	5.577353E-1	5.893036E-1	5.350592E-1	5.790331E-1	5.278026E-1	5.543387E-1	5.420884E-1	5.646261E-1	5.415379E-1	5.405001E-1	5.142857E-1	5.678749E-1	5.395824E-1	5.884637E-1	5.118034E-1	5.432434E-1	5.208895E-1	5.985917E-1	5.328853E-1	5.473742E-1	5.220440E-1	5.943888E-1	5.773557E-1	6.148223E-1	5.617272E-1	6.030883E-1	5.202035E-1	5.537057E-1	5.398004E-1	6.058151E-1	5.386257E-1	5.655285E-1	5.321853E-1	5.944622E-1	5.256125E-1	4.706265E-1	5.433488E-1	6.064611E-1	5.908012E-1	5.048531E-1	4.364572E-1	6.538014E-1	4.986711E-1	5.181927E-1	5.169016E-1	5.988645E-1	5.525650E-1	5.988504E-1	4.789417E-1	6.099250E-1	5.102917E-1	5.264464E-1	5.989367E-1	6.347526E-1	5.327143E-1	5.838650E-1	6.279363E-1	5.944835E-1	5.319665E-1	5.222459E-1	6.111567E-1	5.946993E-1	5.710150E-1	5.470328E-1	5.318988E-1	5.924346E-1	5.327007E-1	5.381192E-1	5.727028E-1	5.714866E-1	5.413371E-1	5.344148E-1	5.600912E-1	5.978398E-1	4.193399E-1
5.375160E+2	6.473924E-1	6.432771E-1	5.479490E-1	6.463111E-1	6.528911E-1	5.922009E-1	6.380835E-1	6.580434E-1	5.779760E-1	6.495162E-1	6.284545E-1	6.081735E-1	6.048671E-1	7.060540E-1	6.506825E-1	6.446794E-1	5.769756E-1	6.070086E-1	5.990677E-1	6.109788E-1	6.465910E-1	6.394825E-1	6.321901E-1	6.223669E-1	6.256476E-1	6.326236E-1	6.084967E-1	6.339362E-1	6.117109E-1	7.060532E-1	6.773803E-1	6.230103E-1	6.424877E-1	6.669189E-1	6.370657E-1	5.802148E-1	6.491090E-1	6.804389E-1	6.751718E-1	6.362703E-1	6.215135E-1	6.730214E-1	6.631862E-1	6.228624E-1	6.303815E-1	6.977752E-1	6.294515E-1	6.420892E-1	6.174486E-1	7.170538E-1	6.054584E-1	6.096962E-1	6.339611E-1	6.979101E-1	6.335359E-1	6.421132E-1	5.906430E-1	6.729707E-1	5.996329E-1	6.244346E-1	6.267339E-1	7.076044E-1	6.334554E-1	6.225604E-1	5.795525E-1	6.748999E-1	5.382906E-1	5.848419E-1	6.370409E-1	7.024343E-1	6.338866E-1	6.110717E-1	6.540043E-1	6.351094E-1	6.234302E-1	5.951757E-1	6.591362E-1	7.021516E-1	6.421953E-1	6.410790E-1	6.470841E-1	7.338581E-1	6.260606E-1	6.047857E-1	6.232431E-1	6.827171E-1	5.879356E-1	6.481094E-1	6.631014E-1	6.834935E-1	5.690285E-1	6.479840E-1	6.364477E-1	6.049892E-1	6.115010E-1	6.351636E-1	6.394624E-1	6.594545E-1	6.256739E-1	6.501421E-1	6.604949E-1	6.565544E-1	6.590920E-1	6.571431E-1	6.124061E-1	6.451255E-1	6.200562E-1	6.743173E-1	6.342792E-1	6.849227E-1	6.251181E-1	6.443423E-1	5.912059E-1	6.658283E-1	5.819842E-1	6.291418E-1	5.891524E-1	6.571527E-1	6.258901E-1	7.143607E-1	6.188875E-1	6.619587E-1	6.148533E-1	6.450467E-1	6.242351E-1	7.039007E-1	5.965221E-1	5.919676E-1	6.368069E-1	7.286299E-1	6.536503E-1	5.592385E-1	6.504794E-1	6.962605E-1	6.806915E-1	6.100345E-1	5.376185E-1	6.709818E-1	5.773682E-1	5.904373E-1	6.252934E-1	7.120416E-1	6.221178E-1	6.175180E-1	5.462378E-1	7.511790E-1	6.053459E-1	6.090300E-1	6.718451E-1	6.838135E-1	6.642354E-1	6.989281E-1	7.073376E-1	6.744960E-1	5.886318E-1	6.185396E-1	6.862226E-1	7.449579E-1	6.575718E-1	6.538111E-1	6.666790E-1	6.873713E-1	5.924779E-1	5.793769E-1	6.298816E-1	6.536691E-1	6.278226E-1	6.517359E-1	6.042367E-1	6.794883E-1	5.284141E-1
5.377790E+2	7.088300E-1	6.858093E-1	5.970117E-1	7.165111E-1	6.795047E-1	6.743906E-1	6.959965E-1	7.127664E-1	6.786921E-1	6.574230E-1	7.112706E-1	7.050164E-1	6.690274E-1	7.645109E-1	6.919153E-1	6.806378E-1	6.633805E-1	6.800080E-1	6.637529E-1	6.746440E-1	6.641052E-1	6.563399E-1	7.044848E-1	6.854226E-1	6.891788E-1	6.841761E-1	6.779939E-1	6.739704E-1	7.041324E-1	7.693436E-1	7.246126E-1	6.738086E-1	6.917179E-1	7.117557E-1	6.761058E-1	7.013446E-1	6.323112E-1	7.398325E-1	7.430620E-1	7.221230E-1	6.813186E-1	7.496618E-1	7.047842E-1	6.887411E-1	7.291871E-1	7.950675E-1	7.207646E-1	7.417315E-1	6.995972E-1	7.737229E-1	7.104111E-1	6.743413E-1	7.194443E-1	7.987659E-1	6.810885E-1	7.043050E-1	6.603509E-1	7.640685E-1	6.493638E-1	6.619264E-1	6.938593E-1	7.347765E-1	7.190144E-1	6.710810E-1	6.864849E-1	7.090873E-1	6.014492E-1	6.490759E-1	6.922270E-1	7.091902E-1	6.469670E-1	6.560921E-1	7.234533E-1	6.956398E-1	7.421830E-1	6.434162E-1	7.080989E-1	7.726358E-1	7.122143E-1	7.080570E-1	6.451067E-1	8.057513E-1	6.660916E-1	6.690955E-1	6.764385E-1	8.109496E-1	6.636660E-1	7.062734E-1	7.127974E-1	7.415680E-1	6.152087E-1	6.845804E-1	7.588243E-1	6.953280E-1	7.209477E-1	7.526063E-1	6.930543E-1	7.252214E-1	7.090976E-1	7.055327E-1	6.953433E-1	6.987186E-1	7.351759E-1	6.945578E-1	6.839555E-1	6.843597E-1	6.455431E-1	6.934614E-1	7.044027E-1	7.444813E-1	6.905886E-1	7.252205E-1	6.570477E-1	8.058463E-1	6.546240E-1	6.459539E-1	7.043872E-1	7.238388E-1	7.314858E-1	7.785082E-1	6.713949E-1	8.059418E-1	6.628264E-1	7.189256E-1	6.743875E-1	8.270011E-1	6.955907E-1	6.845070E-1	6.824953E-1	7.326750E-1	7.183886E-1	5.697403E-1	6.655148E-1	7.298491E-1	7.144002E-1	6.699636E-1	5.579743E-1	7.475810E-1	6.800749E-1	6.515169E-1	6.003306E-1	7.654147E-1	7.038258E-1	7.647859E-1	6.147580E-1	7.432218E-1	6.525155E-1	6.655351E-1	7.188606E-1	7.341655E-1	7.222591E-1	7.535011E-1	7.964768E-1	7.630059E-1	6.972418E-1	6.811304E-1	7.708426E-1	7.277469E-1	7.314622E-1	7.075355E-1	6.900063E-1	7.491904E-1	6.607012E-1	6.151336E-1	7.474506E-1	7.384399E-1	6.539862E-1	6.761452E-1	7.271300E-1	6.661966E-1	5.957842E-1
5.380160E+2	8.434078E-1	7.845943E-1	6.870728E-1	8.210642E-1	8.072500E-1	7.880425E-1	7.993592E-1	7.897606E-1	7.394895E-1	7.720765E-1	8.371506E-1	7.908840E-1	7.516756E-1	8.789637E-1	9.004023E-1	8.684197E-1	7.713872E-1	7.777430E-1	8.175994E-1	7.681523E-1	8.104726E-1	7.791618E-1	8.147030E-1	8.077123E-1	8.272913E-1	8.085468E-1	8.444227E-1	8.222226E-1	8.121568E-1	8.933661E-1	8.945336E-1	7.690567E-1	8.126135E-1	8.741178E-1	9.048658E-1	8.118841E-1	8.080871E-1	9.051001E-1	8.964675E-1	8.486096E-1	8.222367E-1	8.984352E-1	8.526162E-1	8.162483E-1	8.074852E-1	8.657126E-1	9.113042E-1	8.594302E-1	7.873469E-1	8.924615E-1	8.835497E-1	8.164334E-1	8.012372E-1	8.839476E-1	8.293043E-1	8.192663E-1	7.518020E-1	8.992934E-1	7.688473E-1	7.640596E-1	8.065342E-1	9.196773E-1	7.851293E-1	8.083425E-1	7.684883E-1	8.182201E-1	7.407885E-1	7.231411E-1	8.076735E-1	8.271109E-1	8.263481E-1	7.975846E-1	8.542183E-1	7.981854E-1	8.135644E-1	7.711867E-1	9.099939E-1	8.801069E-1	8.862989E-1	8.378710E-1	7.465990E-1	8.796801E-1	7.957156E-1	7.757915E-1	8.260506E-1	8.820267E-1	7.903088E-1	8.284171E-1	8.257418E-1	8.554837E-1	7.472452E-1	7.916075E-1	8.410359E-1	8.063563E-1	8.251106E-1	8.290477E-1	7.935382E-1	8.197998E-1	7.810140E-1	8.372721E-1	8.139623E-1	7.568537E-1	7.901613E-1	8.666666E-1	7.991160E-1	8.033703E-1	7.519499E-1	8.136882E-1	7.805193E-1	8.661878E-1	7.516523E-1	8.374750E-1	7.363139E-1	8.682307E-1	7.851071E-1	8.094891E-1	7.742063E-1	8.611348E-1	8.462634E-1	8.795219E-1	7.471657E-1	8.662304E-1	7.834075E-1	7.598945E-1	7.639007E-1	8.961218E-1	8.403327E-1	7.598608E-1	7.818189E-1	9.012278E-1	7.881624E-1	6.826386E-1	7.814161E-1	8.539227E-1	8.439480E-1	7.751448E-1	6.319942E-1	9.000631E-1	6.920798E-1	7.756470E-1	7.744140E-1	9.113879E-1	7.895855E-1	7.848366E-1	6.728774E-1	8.751916E-1	7.761577E-1	7.930334E-1	8.115292E-1	9.168540E-1	7.744803E-1	8.665922E-1	8.826204E-1	8.373545E-1	7.680743E-1	7.512875E-1	8.854900E-1	8.621194E-1	7.990186E-1	8.217008E-1	7.813714E-1	8.397111E-1	7.497170E-1	7.416573E-1	8.046293E-1	8.575072E-1	7.520999E-1	7.540976E-1	7.867871E-1	8.788581E-1	6.054080E-1
5.382900E+2	1.082575E+0	1.034986E+0	8.873571E-1	1.027930E+0	9.789092E-1	1.005715E+0	1.017081E+0	1.042379E+0	9.200412E-1	9.987482E-1	1.094211E+0	9.503517E-1	1.030612E+0	1.118945E+0	1.165803E+0	1.022907E+0	9.627980E-1	9.551143E-1	1.030302E+0	9.312948E-1	1.034402E+0	1.004335E+0	1.017955E+0	9.828664E-1	9.239695E-1	1.074042E+0	1.022434E+0	9.948709E-1	1.054612E+0	1.090908E+0	1.115145E+0	1.018605E+0	1.036953E+0	1.111207E+0	1.189103E+0	9.747147E-1	9.988604E-1	1.063912E+0	1.143222E+0	1.026215E+0	9.775907E-1	1.033682E+0	1.061885E+0	1.033010E+0	1.016902E+0	1.106154E+0	1.174288E+0	1.047347E+0	9.572453E-1	1.101602E+0	1.080085E+0	9.777260E-1	1.021402E+0	1.062490E+0	1.042365E+0	1.017778E+0	9.813900E-1	1.101418E+0	1.049149E+0	9.754362E-1	9.755474E-1	1.078069E+0	1.109219E+0	1.017110E+0	9.718566E-1	1.068044E+0	1.097603E+0	8.850351E-1	9.846495E-1	1.072164E+0	1.057428E+0	1.046071E+0	9.931174E-1	1.043155E+0	1.061453E+0	9.445896E-1	1.127001E+0	1.095049E+0	1.115628E+0	1.009805E+0	9.568328E-1	1.087222E+0	9.920571E-1	1.041802E+0	9.291174E-1	1.097456E+0	9.971364E-1	9.647783E-1	9.851556E-1	1.080337E+0	8.448088E-1	1.033973E+0	1.048762E+0	1.031860E+0	1.063630E+0	1.063238E+0	1.014604E+0	1.025242E+0	1.011866E+0	1.021408E+0	1.046509E+0	1.014949E+0	9.941176E-1	1.060544E+0	1.000818E+0	1.006082E+0	9.679507E-1	1.043419E+0	1.010069E+0	1.092769E+0	9.468050E-1	1.068259E+0	9.594081E-1	1.121234E+0	1.009080E+0	1.044858E+0	9.904422E-1	1.062502E+0	1.006297E+0	1.026986E+0	9.638432E-1	1.088234E+0	9.195475E-1	1.008395E+0	1.057834E+0	1.140348E+0	9.799291E-1	9.746838E-1	9.089536E-1	1.098098E+0	9.931663E-1	8.145712E-1	9.887855E-1	1.071908E+0	1.057437E+0	9.995721E-1	7.812690E-1	1.060420E+0	9.261712E-1	8.872980E-1	9.314172E-1	1.160891E+0	9.665064E-1	1.082830E+0	8.564133E-1	1.103322E+0	9.376787E-1	9.299485E-1	1.019351E+0	1.035634E+0	1.016247E+0	1.026366E+0	1.127567E+0	1.057567E+0	1.064221E+0	1.042232E+0	1.114101E+0	1.167269E+0	1.080505E+0	9.499684E-1	1.028900E+0	1.045776E+0	9.602355E-1	9.424451E-1	1.084097E+0	1.025754E+0	9.585014E-1	9.989765E-1	1.068367E+0	1.004177E+0	6.727771E-1
5.385110E+2	1.176926E+0	1.194824E+0	1.038578E+0	1.191482E+0	1.213110E+0	1.146335E+0	1.231137E+0	1.239638E+0	1.120245E+0	1.185885E+0	1.256531E+0	1.167280E+0	1.110542E+0	1.267854E+0	1.331313E+0	1.205361E+0	1.140409E+0	1.157824E+0	1.255243E+0	1.147492E+0	1.200785E+0	1.131974E+0	1.236022E+0	1.181589E+0	1.203646E+0	1.249320E+0	1.149847E+0	1.133115E+0	1.199846E+0	1.277581E+0	1.307528E+0	1.155763E+0	1.142269E+0	1.302105E+0	1.387728E+0	1.152108E+0	1.166835E+0	1.263398E+0	1.337100E+0	1.215618E+0	1.182438E+0	1.232691E+0	1.207158E+0	1.234897E+0	1.287219E+0	1.305695E+0	1.351432E+0	1.272044E+0	1.100382E+0	1.246651E+0	1.283305E+0	1.129419E+0	1.135788E+0	1.305090E+0	1.223930E+0	1.216917E+0	1.074760E+0	1.272941E+0	1.195113E+0	1.127990E+0	1.204494E+0	1.284840E+0	1.238853E+0	1.156288E+0	1.129959E+0	1.237004E+0	1.257126E+0	1.042341E+0	1.193344E+0	1.222638E+0	1.226218E+0	1.125590E+0	1.221487E+0	1.198397E+0	1.302853E+0	1.102347E+0	1.262401E+0	1.270213E+0	1.297420E+0	1.210740E+0	1.095890E+0	1.258138E+0	1.248130E+0	1.162383E+0	1.141234E+0	1.278446E+0	1.222418E+0	1.197432E+0	1.186519E+0	1.253815E+0	1.039936E+0	1.181739E+0	1.230131E+0	1.151853E+0	1.290072E+0	1.206394E+0	1.117098E+0	1.233816E+0	1.290903E+0	1.194316E+0	1.228793E+0	1.178494E+0	1.159714E+0	1.187074E+0	1.056695E+0	1.189176E+0	1.201788E+0	1.198105E+0	1.184480E+0	1.308344E+0	1.246459E+0	1.223043E+0	1.054656E+0	1.284125E+0	1.263321E+0	1.182411E+0	1.132114E+0	1.237064E+0	1.231261E+0	1.251870E+0	1.085474E+0	1.320876E+0	1.143856E+0	1.116525E+0	1.229243E+0	1.266739E+0	1.179351E+0	1.172321E+0	1.119520E+0	1.371153E+0	1.298155E+0	1.010830E+0	1.143529E+0	1.292636E+0	1.233914E+0	1.093746E+0	9.188238E-1	1.231515E+0	1.057555E+0	1.153947E+0	1.133749E+0	1.279213E+0	1.184619E+0	1.221801E+0	9.830536E-1	1.328797E+0	1.197113E+0	1.098738E+0	1.222406E+0	1.293851E+0	1.208369E+0	1.257808E+0	1.263149E+0	1.276363E+0	1.168110E+0	1.157096E+0	1.283342E+0	1.298334E+0	1.208581E+0	1.193745E+0	1.158494E+0	1.240801E+0	1.130468E+0	1.105413E+0	1.241499E+0	1.239300E+0	1.096587E+0	1.183226E+0	1.253303E+0	1.281397E+0	8.588439E-1
5.387700E+2	1.482652E+0	1.481575E+0	1.212651E+0	1.509623E+0	1.423359E+0	1.405102E+0	1.415137E+0	1.420349E+0	1.313079E+0	1.461975E+0	1.473839E+0	1.385500E+0	1.348154E+0	1.585371E+0	1.615297E+0	1.423108E+0	1.333620E+0	1.388286E+0	1.490092E+0	1.353740E+0	1.407205E+0	1.401095E+0	1.412610E+0	1.458651E+0	1.398383E+0	1.480664E+0	1.449174E+0	1.447758E+0	1.418898E+0	1.601700E+0	1.590923E+0	1.393246E+0	1.398393E+0	1.554818E+0	1.615120E+0	1.295080E+0	1.424202E+0	1.504841E+0	1.568190E+0	1.378146E+0	1.431968E+0	1.489019E+0	1.509221E+0	1.475033E+0	1.471779E+0	1.530024E+0	1.570587E+0	1.507443E+0	1.357406E+0	1.490199E+0	1.476499E+0	1.373277E+0	1.395925E+0	1.502711E+0	1.461693E+0	1.416689E+0	1.358708E+0	1.534136E+0	1.372080E+0	1.337429E+0	1.399878E+0	1.577105E+0	1.591462E+0	1.430173E+0	1.291998E+0	1.518386E+0	1.546223E+0	1.238320E+0	1.403301E+0	1.498399E+0	1.497785E+0	1.320871E+0	1.453611E+0	1.440518E+0	1.474166E+0	1.339634E+0	1.484242E+0	1.527026E+0	1.621823E+0	1.447582E+0	1.369392E+0	1.538253E+0	1.395544E+0	1.391852E+0	1.377956E+0	1.542240E+0	1.386609E+0	1.395189E+0	1.431126E+0	1.515899E+0	1.242868E+0	1.350909E+0	1.508772E+0	1.402184E+0	1.500661E+0	1.428771E+0	1.343522E+0	1.473707E+0	1.431859E+0	1.362733E+0	1.435874E+0	1.444893E+0	1.390521E+0	1.459181E+0	1.359246E+0	1.450737E+0	1.443277E+0	1.448512E+0	1.408036E+0	1.548520E+0	1.547371E+0	1.409905E+0	1.374273E+0	1.496926E+0	1.439537E+0	1.393325E+0	1.361231E+0	1.533231E+0	1.464749E+0	1.466429E+0	1.391215E+0	1.552813E+0	1.405765E+0	1.450995E+0	1.409540E+0	1.517548E+0	1.488781E+0	1.348810E+0	1.450598E+0	1.623983E+0	1.549195E+0	1.159174E+0	1.388487E+0	1.498968E+0	1.410387E+0	1.394001E+0	1.126082E+0	1.510709E+0	1.417694E+0	1.389069E+0	1.327541E+0	1.575658E+0	1.572226E+0	1.405021E+0	1.179437E+0	1.521117E+0	1.493710E+0	1.367499E+0	1.492232E+0	1.505588E+0	1.444979E+0	1.509634E+0	1.554538E+0	1.545435E+0	1.472352E+0	1.379948E+0	1.489432E+0	1.503530E+0	1.563254E+0	1.364322E+0	1.393713E+0	1.517513E+0	1.480684E+0	1.289010E+0	1.465072E+0	1.467081E+0	1.353137E+0	1.350154E+0	1.415569E+0	1.486464E+0	1.211731E+0
5.390240E+2	1.626734E+0	1.662679E+0	1.429737E+0	1.705289E+0	1.610984E+0	1.560491E+0	1.654848E+0	1.634154E+0	1.512667E+0	1.602325E+0	1.744812E+0	1.608238E+0	1.606428E+0	1.800120E+0	1.806944E+0	1.682140E+0	1.552629E+0	1.547558E+0	1.702795E+0	1.563305E+0	1.614242E+0	1.562455E+0	1.629489E+0	1.670109E+0	1.606244E+0	1.635967E+0	1.700949E+0	1.602267E+0	1.588733E+0	1.693120E+0	1.785612E+0	1.611679E+0	1.592198E+0	1.691366E+0	1.824703E+0	1.563816E+0	1.580179E+0	1.763719E+0	1.764026E+0	1.718286E+0	1.588695E+0	1.711855E+0	1.746649E+0	1.621669E+0	1.633349E+0	1.810746E+0	1.812259E+0	1.712748E+0	1.534777E+0	1.743192E+0	1.717822E+0	1.600499E+0	1.611170E+0	1.770523E+0	1.685869E+0	1.587560E+0	1.535213E+0	1.759750E+0	1.610399E+0	1.541047E+0	1.578479E+0	1.736157E+0	1.752210E+0	1.682995E+0	1.555065E+0	1.787929E+0	1.800161E+0	1.509671E+0	1.560614E+0	1.720111E+0	1.712670E+0	1.506801E+0	1.630677E+0	1.628517E+0	1.663004E+0	1.470014E+0	1.636569E+0	1.724523E+0	1.811966E+0	1.631943E+0	1.555901E+0	1.848208E+0	1.625561E+0	1.597207E+0	1.622655E+0	1.704177E+0	1.645623E+0	1.611688E+0	1.606676E+0	1.760106E+0	1.408727E+0	1.609847E+0	1.652486E+0	1.559417E+0	1.701442E+0	1.657402E+0	1.545829E+0	1.624029E+0	1.637540E+0	1.629204E+0	1.613467E+0	1.573942E+0	1.613018E+0	1.632651E+0	1.508481E+0	1.567786E+0	1.663741E+0	1.648380E+0	1.560270E+0	1.771863E+0	1.723009E+0	1.660207E+0	1.559652E+0	1.718734E+0	1.759022E+0	1.608060E+0	1.587632E+0	1.699948E+0	1.634624E+0	1.715645E+0	1.492906E+0	1.769848E+0	1.644981E+0	1.559796E+0	1.558091E+0	1.788106E+0	1.677266E+0	1.527936E+0	1.509530E+0	1.797929E+0	1.658532E+0	1.363964E+0	1.598991E+0	1.698442E+0	1.686005E+0	1.558500E+0	1.325937E+0	1.663904E+0	1.564420E+0	1.515826E+0	1.539724E+0	1.768576E+0	1.723485E+0	1.613132E+0	1.342171E+0	1.722058E+0	1.766010E+0	1.550777E+0	1.665988E+0	1.711517E+0	1.624853E+0	1.680584E+0	1.770273E+0	1.655892E+0	1.610644E+0	1.531954E+0	1.792424E+0	1.774260E+0	1.778591E+0	1.478489E+0	1.616618E+0	1.673535E+0	1.691204E+0	1.432727E+0	1.664880E+0	1.635330E+0	1.550817E+0	1.597393E+0	1.546814E+0	1.729506E+0	1.250229E+0
5.392880E+2	1.902477E+0	1.844471E+0	1.603809E+0	1.898710E+0	1.867142E+0	1.731932E+0	1.902625E+0	1.825685E+0	1.699973E+0	1.829001E+0	1.975371E+0	1.816773E+0	1.761394E+0	2.022872E+0	2.124032E+0	1.909874E+0	1.738041E+0	1.878165E+0	1.959791E+0	1.735066E+0	1.857567E+0	1.749693E+0	1.836890E+0	1.728069E+0	1.723639E+0	1.763559E+0	1.859452E+0	1.776166E+0	1.781381E+0	1.991033E+0	1.957836E+0	1.769158E+0	1.761075E+0	1.899924E+0	1.965793E+0	1.696861E+0	1.755953E+0	1.869593E+0	2.010779E+0	1.842149E+0	1.750236E+0	1.881881E+0	1.898320E+0	1.847637E+0	1.895584E+0	1.943360E+0	2.069761E+0	1.829105E+0	1.689738E+0	1.955705E+0	1.953797E+0	1.719549E+0	1.787671E+0	1.919083E+0	1.896460E+0	1.847635E+0	1.668874E+0	1.976821E+0	1.806737E+0	1.746604E+0	1.776260E+0	2.002572E+0	1.986201E+0	1.746196E+0	1.688241E+0	1.831980E+0	1.949270E+0	1.648626E+0	1.783895E+0	1.888396E+0	1.943124E+0	1.790953E+0	1.830888E+0	1.869928E+0	1.934257E+0	1.720340E+0	1.914631E+0	1.924811E+0	2.031016E+0	1.836332E+0	1.716046E+0	1.948591E+0	1.853674E+0	1.742632E+0	1.755640E+0	1.962104E+0	1.818083E+0	1.826894E+0	1.799649E+0	2.014743E+0	1.516045E+0	1.767283E+0	1.836365E+0	1.792506E+0	1.927883E+0	1.899930E+0	1.744120E+0	1.848263E+0	1.823086E+0	1.799866E+0	1.857409E+0	1.838425E+0	1.793963E+0	1.837412E+0	1.700641E+0	1.720801E+0	1.844058E+0	1.846711E+0	1.804801E+0	1.984852E+0	1.903052E+0	1.879139E+0	1.674078E+0	1.889253E+0	1.892194E+0	1.816683E+0	1.776077E+0	1.941198E+0	1.864835E+0	1.866061E+0	1.752119E+0	1.924473E+0	1.752596E+0	1.785462E+0	1.859009E+0	1.986911E+0	1.847740E+0	1.722930E+0	1.663150E+0	2.023791E+0	1.990851E+0	1.611421E+0	1.718026E+0	1.872556E+0	1.914035E+0	1.723610E+0	1.396874E+0	1.896564E+0	1.788509E+0	1.697753E+0	1.670453E+0	1.974992E+0	1.940923E+0	1.795660E+0	1.544062E+0	1.958144E+0	1.905372E+0	1.747094E+0	1.913327E+0	1.883232E+0	1.799571E+0	1.857453E+0	1.921584E+0	1.859821E+0	1.828538E+0	1.749990E+0	1.885917E+0	2.038371E+0	2.017852E+0	1.763227E+0	1.742326E+0	1.869297E+0	1.877679E+0	1.652078E+0	1.819066E+0	1.798398E+0	1.740502E+0	1.824950E+0	1.793793E+0	1.881409E+0	1.423464E+0
5.395210E+2	2.003408E+0	1.899354E+0	1.705297E+0	2.042099E+0	1.877120E+0	1.828247E+0	1.937815E+0	1.896316E+0	1.722698E+0	1.912024E+0	2.095288E+0	1.922654E+0	1.848934E+0	2.096713E+0	2.085119E+0	2.123627E+0	1.787244E+0	1.855844E+0	1.994172E+0	2.049416E+0	1.938882E+0	1.844218E+0	1.899109E+0	1.868831E+0	1.850011E+0	1.902748E+0	1.902127E+0	1.858109E+0	1.810186E+0	2.028111E+0	2.093773E+0	1.925362E+0	1.832742E+0	1.987558E+0	2.089765E+0	1.945078E+0	1.829745E+0	2.007749E+0	2.023833E+0	1.858533E+0	1.955769E+0	1.926967E+0	1.987277E+0	1.895099E+0	1.908637E+0	2.095807E+0	2.129420E+0	1.922732E+0	1.788688E+0	1.964475E+0	2.005272E+0	1.846914E+0	1.871928E+0	2.066960E+0	1.939073E+0	1.880929E+0	1.729628E+0	1.988918E+0	1.945598E+0	1.767937E+0	1.858969E+0	2.029747E+0	2.017968E+0	1.875799E+0	1.834531E+0	1.967412E+0	1.970106E+0	1.704991E+0	1.837812E+0	1.999562E+0	1.996691E+0	1.760550E+0	1.947889E+0	1.996683E+0	1.964105E+0	1.768579E+0	1.970244E+0	1.994597E+0	2.124806E+0	1.888813E+0	1.866967E+0	2.014380E+0	1.905777E+0	1.920950E+0	1.921216E+0	1.921808E+0	1.851809E+0	1.857266E+0	1.857739E+0	2.037823E+0	1.635726E+0	1.834954E+0	1.871510E+0	1.842844E+0	2.046390E+0	1.951356E+0	1.789001E+0	1.887096E+0	1.834591E+0	1.930112E+0	1.836633E+0	1.860786E+0	1.881553E+0	1.909524E+0	1.704730E+0	1.832620E+0	1.963845E+0	1.901847E+0	1.830574E+0	1.995207E+0	1.999370E+0	1.925159E+0	1.750149E+0	2.001545E+0	1.933894E+0	1.893866E+0	1.790311E+0	2.025533E+0	1.854339E+0	1.946427E+0	1.807952E+0	2.073421E+0	1.888086E+0	1.815014E+0	1.809492E+0	2.148849E+0	1.938443E+0	1.780436E+0	1.706852E+0	2.035251E+0	1.965678E+0	1.662619E+0	1.776913E+0	1.969214E+0	1.882312E+0	1.792103E+0	1.494950E+0	1.968869E+0	1.823188E+0	1.708920E+0	1.753224E+0	2.020652E+0	1.996294E+0	1.855816E+0	1.537332E+0	2.026450E+0	1.985421E+0	1.847791E+0	1.943991E+0	1.916800E+0	1.873064E+0	2.061279E+0	2.067648E+0	1.978776E+0	1.811672E+0	1.821521E+0	2.006024E+0	2.020502E+0	2.083300E+0	1.805539E+0	1.876456E+0	1.904621E+0	1.892624E+0	1.673394E+0	1.923785E+0	1.896759E+0	1.826262E+0	1.779280E+0	1.760385E+0	1.854825E+0	1.474793E+0
5.397750E+2	2.049485E+0	1.984417E+0	1.681771E+0	2.010732E+0	2.004868E+0	1.842373E+0	2.009654E+0	1.981580E+0	1.749107E+0	1.985164E+0	2.099266E+0	1.967849E+0	1.875576E+0	2.074558E+0	2.212882E+0	2.126291E+0	1.830451E+0	1.887820E+0	1.949884E+0	2.050744E+0	1.956392E+0	1.913458E+0	1.945330E+0	1.915964E+0	1.865202E+0	1.919503E+0	2.000279E+0	1.948187E+0	1.912808E+0	2.063273E+0	2.160014E+0	2.020610E+0	1.853932E+0	1.996393E+0	2.106882E+0	2.011935E+0	1.877138E+0	2.045192E+0	2.063007E+0	1.952907E+0	1.846472E+0	2.002963E+0	2.023755E+0	2.000644E+0	1.924170E+0	2.180085E+0	2.074635E+0	2.179527E+0	1.762551E+0	2.091310E+0	1.995244E+0	1.997331E+0	1.918050E+0	2.023348E+0	2.005771E+0	1.906058E+0	1.719393E+0	2.065779E+0	1.933974E+0	1.906917E+0	1.871554E+0	2.064873E+0	1.988797E+0	1.993269E+0	1.826002E+0	2.039728E+0	2.050845E+0	1.836737E+0	1.915202E+0	1.942446E+0	2.009145E+0	1.810831E+0	1.948515E+0	1.993126E+0	1.986168E+0	1.758800E+0	2.001677E+0	2.020417E+0	2.176191E+0	1.971670E+0	1.820836E+0	2.080168E+0	1.966142E+0	1.980876E+0	1.862700E+0	2.025122E+0	1.905906E+0	1.898631E+0	1.884197E+0	2.087708E+0	1.670848E+0	1.867406E+0	1.963763E+0	1.914566E+0	2.048654E+0	1.987493E+0	1.811107E+0	1.952235E+0	1.941746E+0	1.873970E+0	1.922413E+0	1.932977E+0	1.887948E+0	1.959868E+0	1.742208E+0	1.857467E+0	1.896304E+0	2.030499E+0	1.904293E+0	2.097495E+0	2.061062E+0	1.939800E+0	1.812795E+0	2.038283E+0	2.078503E+0	1.863299E+0	1.785565E+0	1.930735E+0	1.938291E+0	1.981819E+0	1.806627E+0	2.106753E+0	1.901699E+0	1.868745E+0	1.807590E+0	2.084995E+0	1.989910E+0	1.840586E+0	1.834647E+0	2.041320E+0	2.029696E+0	1.727604E+0	1.800720E+0	2.011029E+0	1.936513E+0	1.894838E+0	1.641758E+0	1.958132E+0	1.909225E+0	1.821883E+0	1.798549E+0	2.083667E+0	2.080027E+0	1.884161E+0	1.591783E+0	2.105366E+0	1.997573E+0	1.907192E+0	2.010088E+0	1.938100E+0	1.950432E+0	1.937008E+0	2.033194E+0	2.023388E+0	1.814368E+0	1.900621E+0	1.994421E+0	2.097287E+0	2.060780E+0	1.789417E+0	1.796753E+0	1.978952E+0	1.983590E+0	1.757286E+0	1.936636E+0	1.865051E+0	1.833528E+0	1.842276E+0	1.851063E+0	1.854827E+0	1.445921E+0
5.400190E+2	2.010719E+0	1.925420E+0	1.634052E+0	2.037619E+0	1.958293E+0	1.876401E+0	1.949545E+0	1.878503E+0	1.739281E+0	1.963421E+0	2.034339E+0	1.901995E+0	1.898955E+0	2.134250E+0	2.163523E+0	2.045721E+0	1.820246E+0	1.947549E+0	1.966787E+0	2.074618E+0	1.949512E+0	1.911650E+0	1.886074E+0	1.824883E+0	1.900423E+0	1.835728E+0	1.956995E+0	1.980091E+0	1.841990E+0	2.042814E+0	2.077068E+0	2.061885E+0	1.868262E+0	2.040545E+0	2.082227E+0	2.042382E+0	1.923931E+0	1.983215E+0	2.036895E+0	1.928658E+0	1.909029E+0	2.004897E+0	2.074950E+0	1.984353E+0	1.908011E+0	2.058621E+0	2.092287E+0	2.118676E+0	1.814829E+0	2.050829E+0	1.951790E+0	2.026133E+0	1.876233E+0	2.052648E+0	1.889669E+0	1.946261E+0	1.760968E+0	2.014539E+0	1.854536E+0	1.872654E+0	1.771466E+0	2.058909E+0	2.033520E+0	2.113932E+0	1.782705E+0	1.943743E+0	2.047590E+0	1.938986E+0	1.919004E+0	1.958411E+0	1.994821E+0	1.850005E+0	1.939757E+0	1.964637E+0	1.935553E+0	1.821381E+0	1.884407E+0	2.131379E+0	2.208317E+0	2.102864E+0	1.819514E+0	2.047614E+0	1.950255E+0	2.078798E+0	1.891291E+0	2.033913E+0	1.885541E+0	1.916723E+0	1.935828E+0	2.039311E+0	1.586293E+0	1.879835E+0	1.953722E+0	1.856642E+0	2.016195E+0	2.083391E+0	1.774934E+0	1.924050E+0	1.890688E+0	2.034152E+0	1.876844E+0	1.878032E+0	1.844470E+0	1.885715E+0	1.757200E+0	1.926124E+0	1.889933E+0	2.058833E+0	1.837765E+0	2.034696E+0	1.966636E+0	2.060422E+0	1.803203E+0	2.038973E+0	1.969543E+0	2.010783E+0	1.828271E+0	1.983038E+0	1.927141E+0	1.933158E+0	1.784689E+0	1.983343E+0	1.810296E+0	1.995010E+0	1.811398E+0	2.093553E+0	1.993127E+0	1.968822E+0	1.799556E+0	2.047390E+0	2.058472E+0	1.835249E+0	1.818890E+0	1.933565E+0	1.913375E+0	1.848975E+0	1.701593E+0	2.029721E+0	1.821855E+0	1.745041E+0	1.754535E+0	2.088173E+0	1.976712E+0	1.810874E+0	1.541001E+0	2.076854E+0	1.971124E+0	1.854306E+0	2.010082E+0	2.018796E+0	1.900789E+0	1.890984E+0	2.073642E+0	1.977361E+0	1.899372E+0	1.780256E+0	2.041510E+0	2.118469E+0	2.032633E+0	1.820309E+0	1.907562E+0	1.891373E+0	1.861438E+0	1.732533E+0	1.873032E+0	1.938821E+0	1.888762E+0	1.839911E+0	1.729362E+0	1.913688E+0	1.474794E+0
5.402630E+2	1.906862E+0	1.803313E+0	1.905582E+0	1.948748E+0	1.874459E+0	1.719090E+0	1.881371E+0	1.848593E+0	1.663130E+0	1.816478E+0	1.936286E+0	1.852281E+0	1.715176E+0	1.999491E+0	2.104287E+0	2.001104E+0	1.750043E+0	1.785862E+0	1.881700E+0	1.962538E+0	1.838796E+0	1.764145E+0	1.739116E+0	1.787939E+0	1.725020E+0	1.805445E+0	1.892373E+0	1.849353E+0	1.786180E+0	1.913041E+0	1.961869E+0	1.929808E+0	1.701252E+0	1.910112E+0	1.969216E+0	1.928532E+0	1.811748E+0	1.874759E+0	1.947460E+0	1.838872E+0	1.779104E+0	1.883173E+0	1.935436E+0	1.882350E+0	1.865755E+0	1.966288E+0	2.057590E+0	2.002314E+0	1.669823E+0	1.863954E+0	1.885610E+0	1.922445E+0	1.782753E+0	1.944978E+0	1.795797E+0	1.852035E+0	1.686144E+0	1.904225E+0	1.812555E+0	1.796379E+0	1.733108E+0	2.003239E+0	1.964811E+0	2.014337E+0	1.700048E+0	1.851704E+0	1.873091E+0	1.868201E+0	1.791505E+0	1.825750E+0	1.887690E+0	1.789783E+0	1.760816E+0	1.899124E+0	1.871959E+0	1.657760E+0	1.918861E+0	1.944349E+0	1.939803E+0	1.922647E+0	1.693640E+0	1.903823E+0	1.823808E+0	1.893178E+0	1.673190E+0	1.978225E+0	1.787537E+0	1.803629E+0	1.756408E+0	1.972302E+0	1.577836E+0	1.806641E+0	1.887198E+0	1.825606E+0	1.958077E+0	2.000697E+0	1.701245E+0	1.835735E+0	1.805826E+0	1.827562E+0	1.682496E+0	1.825647E+0	1.755600E+0	1.864625E+0	1.675430E+0	1.770495E+0	1.830039E+0	1.848246E+0	1.782625E+0	1.941477E+0	1.926973E+0	2.013006E+0	1.729055E+0	1.974510E+0	1.876722E+0	1.880873E+0	1.748959E+0	1.853589E+0	1.845815E+0	1.886705E+0	1.681668E+0	1.923054E+0	1.801217E+0	1.883521E+0	1.732040E+0	1.998756E+0	1.886339E+0	1.982702E+0	1.681693E+0	2.004912E+0	2.021065E+0	1.821462E+0	1.644098E+0	1.964412E+0	1.833399E+0	1.774368E+0	1.559104E+0	1.846456E+0	1.819857E+0	1.793643E+0	1.721691E+0	1.935125E+0	1.940252E+0	2.030740E+0	1.545285E+0	1.899122E+0	1.984708E+0	1.954278E+0	1.886753E+0	1.835463E+0	1.818265E+0	1.885070E+0	1.932067E+0	1.892393E+0	1.798855E+0	1.720413E+0	1.849754E+0	1.946365E+0	1.924259E+0	1.742408E+0	1.744919E+0	1.864145E+0	1.858837E+0	1.670643E+0	1.794653E+0	1.863107E+0	1.752134E+0	1.674560E+0	1.672093E+0	1.877611E+0	1.378551E+0
5.405240E+2	1.824943E+0	1.674344E+0	1.850469E+0	1.837474E+0	1.779315E+0	1.703679E+0	1.690770E+0	1.718148E+0	1.557500E+0	1.757835E+0	1.805765E+0	1.745756E+0	1.632525E+0	1.888112E+0	1.940516E+0	1.895890E+0	1.610834E+0	1.663392E+0	1.804196E+0	1.868369E+0	1.735590E+0	1.637712E+0	1.656747E+0	1.581579E+0	1.613842E+0	1.610188E+0	1.702779E+0	1.704854E+0	1.700359E+0	1.794130E+0	1.861642E+0	1.858055E+0	1.606530E+0	1.757943E+0	1.820593E+0	1.845131E+0	1.705562E+0	1.750161E+0	1.812985E+0	1.742533E+0	1.680120E+0	1.770464E+0	1.795282E+0	1.776802E+0	1.673117E+0	1.819420E+0	1.882877E+0	1.910698E+0	1.616924E+0	1.820776E+0	1.794031E+0	1.817478E+0	1.670825E+0	1.855024E+0	1.717367E+0	1.670483E+0	1.562075E+0	1.803874E+0	1.679508E+0	1.667096E+0	1.676170E+0	1.839547E+0	1.864994E+0	1.836855E+0	1.613451E+0	1.714298E+0	1.800814E+0	1.784960E+0	1.669718E+0	1.784602E+0	1.768101E+0	1.709684E+0	1.641936E+0	1.715399E+0	1.785003E+0	1.647327E+0	1.755051E+0	1.841764E+0	1.842160E+0	1.862569E+0	1.662665E+0	1.867200E+0	1.676393E+0	1.706823E+0	1.650579E+0	1.767191E+0	1.707985E+0	1.659513E+0	1.684125E+0	1.796588E+0	1.454905E+0	1.716875E+0	1.669431E+0	1.694579E+0	1.816930E+0	1.829746E+0	1.634927E+0	1.689169E+0	1.705862E+0	1.833551E+0	1.703940E+0	1.685101E+0	1.643712E+0	1.710883E+0	1.572532E+0	1.661295E+0	1.687953E+0	1.784689E+0	1.556673E+0	1.837900E+0	1.805476E+0	1.798959E+0	1.612712E+0	1.813697E+0	1.769111E+0	1.758606E+0	1.624916E+0	1.742444E+0	1.661512E+0	1.841728E+0	1.556714E+0	1.786163E+0	1.697492E+0	1.802255E+0	1.622211E+0	1.890801E+0	1.695281E+0	1.917925E+0	1.594286E+0	1.873441E+0	1.793040E+0	1.747950E+0	1.590845E+0	1.716953E+0	1.728311E+0	1.724224E+0	1.528260E+0	1.731912E+0	1.615107E+0	1.668854E+0	1.594251E+0	1.777578E+0	1.810598E+0	1.851665E+0	1.351961E+0	1.822196E+0	1.773871E+0	1.776791E+0	1.745706E+0	1.774779E+0	1.691258E+0	1.711486E+0	1.723079E+0	1.731660E+0	1.658539E+0	1.695653E+0	1.783555E+0	1.823247E+0	1.867962E+0	1.849858E+0	1.633467E+0	1.689726E+0	1.671711E+0	1.659644E+0	1.686076E+0	1.699390E+0	1.637302E+0	1.590308E+0	1.645844E+0	1.727608E+0	1.259853E+0
5.407630E+2	1.754729E+0	1.683947E+0	1.808129E+0	1.790425E+0	1.726087E+0	1.677994E+0	1.767011E+0	1.648154E+0	1.550129E+0	1.739385E+0	1.805766E+0	1.707664E+0	1.589028E+0	1.894882E+0	1.844694E+0	1.844620E+0	1.600633E+0	1.754492E+0	1.788460E+0	1.772871E+0	1.674918E+0	1.615435E+0	1.673341E+0	1.694314E+0	1.601409E+0	1.644988E+0	1.716194E+0	1.763654E+0	1.665552E+0	1.748100E+0	1.819595E+0	1.805983E+0	1.612140E+0	1.818403E+0	1.832234E+0	1.843146E+0	1.662969E+0	1.760492E+0	1.792096E+0	1.763507E+0	1.678057E+0	1.787852E+0	1.721049E+0	1.651421E+0	1.777515E+0	1.800209E+0	1.870701E+0	1.849838E+0	1.561534E+0	1.812005E+0	1.806732E+0	1.761788E+0	1.616092E+0	1.855707E+0	1.734039E+0	1.632163E+0	1.580620E+0	1.765441E+0	1.669819E+0	1.658046E+0	1.667777E+0	1.844185E+0	1.824161E+0	1.828551E+0	1.593768E+0	1.759006E+0	1.798862E+0	1.681397E+0	1.644980E+0	1.699233E+0	1.744437E+0	1.693897E+0	1.704505E+0	1.664123E+0	1.773972E+0	1.612774E+0	1.724827E+0	1.776863E+0	1.902542E+0	1.846000E+0	1.608623E+0	1.828541E+0	1.698637E+0	1.751401E+0	1.669864E+0	1.825811E+0	1.708622E+0	1.684717E+0	1.632490E+0	1.833815E+0	1.484177E+0	1.651971E+0	1.688260E+0	1.689755E+0	1.789752E+0	1.763724E+0	1.604110E+0	1.743662E+0	1.666309E+0	1.750466E+0	1.687185E+0	1.715129E+0	1.632838E+0	1.674832E+0	1.589568E+0	1.644948E+0	1.642074E+0	1.809960E+0	1.634588E+0	1.816532E+0	1.845136E+0	1.833122E+0	1.520661E+0	1.771418E+0	1.731444E+0	1.736443E+0	1.613388E+0	1.792132E+0	1.703489E+0	1.793062E+0	1.603238E+0	1.777652E+0	1.665077E+0	1.780763E+0	1.707283E+0	1.882242E+0	1.770544E+0	1.911311E+0	1.608856E+0	1.871418E+0	1.806710E+0	1.704624E+0	1.555135E+0	1.724491E+0	1.712448E+0	1.680193E+0	1.506672E+0	1.688246E+0	1.631778E+0	1.636017E+0	1.580454E+0	1.857313E+0	1.766700E+0	1.845443E+0	1.340949E+0	1.812250E+0	1.732420E+0	1.822434E+0	1.723903E+0	1.741858E+0	1.638392E+0	1.678613E+0	1.821956E+0	1.724580E+0	1.647744E+0	1.630997E+0	1.699616E+0	1.714689E+0	1.804632E+0	1.800164E+0	1.665866E+0	1.697822E+0	1.630126E+0	1.676834E+0	1.698284E+0	1.682566E+0	1.594423E+0	1.620231E+0	1.587380E+0	1.733304E+0	1.266271E+0
5.410240E+2	1.701337E+0	1.668169E+0	1.733526E+0	1.682884E+0	1.668868E+0	1.561775E+0	1.706165E+0	1.594065E+0	1.536618E+0	1.642525E+0	1.797155E+0	1.699916E+0	1.575978E+0	1.822274E+0	1.808686E+0	1.800006E+0	1.606033E+0	1.594614E+0	1.734265E+0	1.755628E+0	1.711196E+0	1.599180E+0	1.617047E+0	1.636350E+0	1.638698E+0	1.583767E+0	1.682051E+0	1.653561E+0	1.626544E+0	1.773671E+0	1.843213E+0	1.734233E+0	1.551693E+0	1.750468E+0	1.830179E+0	1.777616E+0	1.676164E+0	1.687543E+0	1.827346E+0	1.673065E+0	1.638188E+0	1.685451E+0	1.727450E+0	1.660627E+0	1.714750E+0	1.729569E+0	1.801910E+0	1.797007E+0	1.581450E+0	1.770176E+0	1.726510E+0	1.736828E+0	1.655450E+0	1.792331E+0	1.639550E+0	1.608289E+0	1.551844E+0	1.770424E+0	1.631715E+0	1.612799E+0	1.600653E+0	1.787190E+0	1.766468E+0	1.846430E+0	1.497991E+0	1.776752E+0	1.694032E+0	1.714170E+0	1.601842E+0	1.686336E+0	1.690248E+0	1.681033E+0	1.636309E+0	1.665549E+0	1.732439E+0	1.583445E+0	1.760488E+0	1.808965E+0	1.858859E+0	1.779714E+0	1.563151E+0	1.787169E+0	1.684653E+0	1.736056E+0	1.614012E+0	1.779651E+0	1.611258E+0	1.609749E+0	1.587959E+0	1.728835E+0	1.392468E+0	1.662325E+0	1.675081E+0	1.575965E+0	1.744467E+0	1.755384E+0	1.565929E+0	1.691675E+0	1.621720E+0	1.727259E+0	1.600737E+0	1.578414E+0	1.562511E+0	1.707482E+0	1.560268E+0	1.514168E+0	1.638254E+0	1.766308E+0	1.587840E+0	1.759565E+0	1.693422E+0	1.864497E+0	1.583944E+0	1.693780E+0	1.693107E+0	1.696703E+0	1.558482E+0	1.684256E+0	1.656923E+0	1.753252E+0	1.500882E+0	1.798224E+0	1.600247E+0	1.699497E+0	1.568250E+0	1.805878E+0	1.713291E+0	1.800928E+0	1.496950E+0	1.793882E+0	1.692342E+0	1.691497E+0	1.606508E+0	1.745056E+0	1.604710E+0	1.664294E+0	1.442519E+0	1.665337E+0	1.621777E+0	1.625509E+0	1.527900E+0	1.763430E+0	1.766030E+0	1.847514E+0	1.336057E+0	1.789036E+0	1.778872E+0	1.744199E+0	1.735486E+0	1.709581E+0	1.682879E+0	1.658885E+0	1.762029E+0	1.699085E+0	1.626158E+0	1.660574E+0	1.703028E+0	1.780880E+0	1.775071E+0	1.776657E+0	1.612730E+0	1.644098E+0	1.678856E+0	1.724279E+0	1.687361E+0	1.597795E+0	1.605326E+0	1.591095E+0	1.627947E+0	1.697227E+0	1.372134E+0
5.412530E+2	1.655259E+0	1.596825E+0	1.688496E+0	1.619405E+0	1.570401E+0	1.557280E+0	1.591807E+0	1.629698E+0	1.438974E+0	1.576631E+0	1.652059E+0	1.558526E+0	1.517799E+0	1.734282E+0	1.809849E+0	1.732745E+0	1.452424E+0	1.568071E+0	1.600233E+0	1.713183E+0	1.518543E+0	1.537166E+0	1.561937E+0	1.497503E+0	1.536496E+0	1.476796E+0	1.569883E+0	1.604144E+0	1.503515E+0	1.638780E+0	1.666378E+0	1.703755E+0	1.529880E+0	1.585390E+0	1.669225E+0	1.727311E+0	1.555585E+0	1.647515E+0	1.658927E+0	1.641606E+0	1.529579E+0	1.686739E+0	1.639135E+0	1.619544E+0	1.562507E+0	1.688045E+0	1.758081E+0	1.719434E+0	1.435823E+0	1.684498E+0	1.592147E+0	1.665144E+0	1.516463E+0	1.705103E+0	1.534565E+0	1.567457E+0	1.466785E+0	1.686443E+0	1.530958E+0	1.549452E+0	1.547313E+0	1.685131E+0	1.689986E+0	1.717466E+0	1.456660E+0	1.630807E+0	1.688171E+0	1.556866E+0	1.614528E+0	1.578856E+0	1.587476E+0	1.536032E+0	1.628173E+0	1.575820E+0	1.655869E+0	1.507171E+0	1.669213E+0	1.699401E+0	1.711755E+0	1.738284E+0	1.475499E+0	1.701032E+0	1.539144E+0	1.603783E+0	1.530893E+0	1.605988E+0	1.548887E+0	1.539953E+0	1.552461E+0	1.668528E+0	1.387914E+0	1.593966E+0	1.596005E+0	1.502178E+0	1.676533E+0	1.677556E+0	1.533104E+0	1.552627E+0	1.526788E+0	1.625460E+0	1.588672E+0	1.530501E+0	1.495380E+0	1.553058E+0	1.417849E+0	1.546207E+0	1.592377E+0	1.688200E+0	1.468569E+0	1.641741E+0	1.601511E+0	1.806626E+0	1.410073E+0	1.697244E+0	1.610377E+0	1.697468E+0	1.465616E+0	1.643066E+0	1.530996E+0	1.626432E+0	1.486261E+0	1.744316E+0	1.539308E+0	1.592710E+0	1.494606E+0	1.780863E+0	1.659253E+0	1.761930E+0	1.428086E+0	1.657018E+0	1.732620E+0	1.615357E+0	1.471811E+0	1.680622E+0	1.504906E+0	1.498570E+0	1.362948E+0	1.661041E+0	1.488391E+0	1.549980E+0	1.510164E+0	1.693982E+0	1.704577E+0	1.679507E+0	1.332385E+0	1.690889E+0	1.620212E+0	1.633361E+0	1.625782E+0	1.626949E+0	1.573918E+0	1.599710E+0	1.616709E+0	1.649519E+0	1.561397E+0	1.619307E+0	1.683923E+0	1.631949E+0	1.637144E+0	1.669879E+0	1.523310E+0	1.662496E+0	1.615833E+0	1.610822E+0	1.578146E+0	1.521437E+0	1.504303E+0	1.534402E+0	1.549200E+0	1.568112E+0	1.227773E+0
5.415190E+2	1.621614E+0	1.440414E+0	1.605824E+0	1.551444E+0	1.585035E+0	1.395469E+0	1.469384E+0	1.441988E+0	1.423620E+0	1.429028E+0	1.592434E+0	1.439085E+0	1.436238E+0	1.544757E+0	1.602523E+0	1.506345E+0	1.416425E+0	1.501707E+0	1.489510E+0	1.533460E+0	1.440978E+0	1.463712E+0	1.430980E+0	1.333811E+0	1.408053E+0	1.436845E+0	1.502821E+0	1.513438E+0	1.491512E+0	1.573575E+0	1.578249E+0	1.548181E+0	1.369726E+0	1.565687E+0	1.602792E+0	1.492333E+0	1.428400E+0	1.553261E+0	1.620414E+0	1.501356E+0	1.452587E+0	1.499324E+0	1.520740E+0	1.411992E+0	1.422066E+0	1.530023E+0	1.636331E+0	1.615109E+0	1.341851E+0	1.514487E+0	1.515271E+0	1.556334E+0	1.416221E+0	1.535424E+0	1.447493E+0	1.412287E+0	1.347196E+0	1.508515E+0	1.473479E+0	1.377506E+0	1.400478E+0	1.519444E+0	1.592761E+0	1.603188E+0	1.372032E+0	1.480253E+0	1.589200E+0	1.444784E+0	1.448975E+0	1.519283E+0	1.536401E+0	1.398635E+0	1.443602E+0	1.424140E+0	1.479361E+0	1.381356E+0	1.517491E+0	1.580065E+0	1.628243E+0	1.571869E+0	1.371370E+0	1.640669E+0	1.426679E+0	1.533628E+0	1.453092E+0	1.499005E+0	1.385971E+0	1.422981E+0	1.383367E+0	1.509193E+0	1.263682E+0	1.461391E+0	1.453544E+0	1.449078E+0	1.521799E+0	1.517026E+0	1.346200E+0	1.506903E+0	1.495866E+0	1.546871E+0	1.407059E+0	1.416783E+0	1.418014E+0	1.452381E+0	1.344256E+0	1.420003E+0	1.439456E+0	1.546531E+0	1.420621E+0	1.506441E+0	1.503933E+0	1.621859E+0	1.317384E+0	1.502470E+0	1.484603E+0	1.579786E+0	1.344960E+0	1.487467E+0	1.495578E+0	1.589564E+0	1.320097E+0	1.607426E+0	1.431694E+0	1.472487E+0	1.420333E+0	1.576133E+0	1.475914E+0	1.586106E+0	1.361207E+0	1.568024E+0	1.554228E+0	1.464390E+0	1.372197E+0	1.500337E+0	1.454012E+0	1.442312E+0	1.324703E+0	1.490662E+0	1.436370E+0	1.403521E+0	1.387319E+0	1.589164E+0	1.573575E+0	1.613133E+0	1.164752E+0	1.561571E+0	1.507290E+0	1.589894E+0	1.440447E+0	1.466212E+0	1.439820E+0	1.507659E+0	1.550791E+0	1.502239E+0	1.437946E+0	1.487935E+0	1.590431E+0	1.555828E+0	1.604069E+0	1.571162E+0	1.398898E+0	1.492492E+0	1.486532E+0	1.457481E+0	1.456078E+0	1.419842E+0	1.439622E+0	1.391884E+0	1.342788E+0	1.429500E+0	1.041704E+0
5.417650E+2	1.438768E+0	1.348489E+0	1.431082E+0	1.430461E+0	1.418701E+0	1.281818E+0	1.369687E+0	1.346537E+0	1.279915E+0	1.317011E+0	1.416862E+0	1.304151E+0	1.276379E+0	1.392767E+0	1.414943E+0	1.380492E+0	1.210612E+0	1.323731E+0	1.308276E+0	1.388891E+0	1.394066E+0	1.255396E+0	1.294687E+0	1.218529E+0	1.378359E+0	1.282186E+0	1.297377E+0	1.240081E+0	1.274261E+0	1.319138E+0	1.449226E+0	1.368480E+0	1.323613E+0	1.409437E+0	1.379509E+0	1.376496E+0	1.348013E+0	1.301486E+0	1.406948E+0	1.330304E+0	1.445717E+0	1.364075E+0	1.340909E+0	1.335485E+0	1.313939E+0	1.384396E+0	1.439701E+0	1.432543E+0	1.246011E+0	1.356618E+0	1.355500E+0	1.350236E+0	1.331967E+0	1.378002E+0	1.277040E+0	1.341929E+0	1.243594E+0	1.416704E+0	1.319118E+0	1.254687E+0	1.320164E+0	1.410759E+0	1.384694E+0	1.425706E+0	1.187034E+0	1.369147E+0	1.373027E+0	1.324839E+0	1.258678E+0	1.296337E+0	1.370099E+0	1.266496E+0	1.305953E+0	1.330851E+0	1.302854E+0	1.271185E+0	1.351866E+0	1.419556E+0	1.438100E+0	1.389580E+0	1.242856E+0	1.380899E+0	1.362499E+0	1.285157E+0	1.255605E+0	1.368577E+0	1.324878E+0	1.302771E+0	1.290431E+0	1.448889E+0	1.164166E+0	1.292910E+0	1.294143E+0	1.278051E+0	1.383669E+0	1.426684E+0	1.259113E+0	1.335908E+0	1.327580E+0	1.409889E+0	1.299832E+0	1.246851E+0	1.226208E+0	1.282312E+0	1.232501E+0	1.244758E+0	1.320943E+0	1.348197E+0	1.273181E+0	1.420987E+0	1.449796E+0	1.449642E+0	1.240036E+0	1.354828E+0	1.350086E+0	1.379569E+0	1.204644E+0	1.310942E+0	1.363749E+0	1.329289E+0	1.200460E+0	1.470537E+0	1.322784E+0	1.373758E+0	1.280667E+0	1.407614E+0	1.299008E+0	1.456547E+0	1.200303E+0	1.428462E+0	1.376562E+0	1.378406E+0	1.248780E+0	1.318684E+0	1.331073E+0	1.217885E+0	1.164326E+0	1.313840E+0	1.259634E+0	1.285959E+0	1.196813E+0	1.377599E+0	1.429743E+0	1.420232E+0	1.104799E+0	1.397104E+0	1.365779E+0	1.407342E+0	1.368901E+0	1.403591E+0	1.261881E+0	1.353805E+0	1.361277E+0	1.386114E+0	1.276720E+0	1.386137E+0	1.367276E+0	1.350624E+0	1.449956E+0	1.431478E+0	1.278372E+0	1.367383E+0	1.332539E+0	1.381839E+0	1.334653E+0	1.305950E+0	1.271738E+0	1.273776E+0	1.225861E+0	1.385828E+0	9.230061E-1
5.420320E+2	1.175463E+0	1.044590E+0	1.183751E+0	1.145927E+0	1.193814E+0	1.053872E+0	1.116777E+0	1.121282E+0	1.068044E+0	1.036307E+0	1.182990E+0	1.094971E+0	1.089879E+0	1.153403E+0	1.254656E+0	1.200034E+0	1.085806E+0	1.045609E+0	1.059441E+0	1.102395E+0	1.178895E+0	1.054909E+0	1.104472E+0	1.064393E+0	1.160831E+0	1.056643E+0	1.107172E+0	1.071812E+0	1.047411E+0	1.158672E+0	1.192905E+0	1.180527E+0	1.075591E+0	1.168273E+0	1.200062E+0	1.117026E+0	1.165635E+0	1.132988E+0	1.199364E+0	1.109447E+0	1.174876E+0	1.183746E+0	1.143801E+0	1.133599E+0	1.100793E+0	1.198488E+0	1.217509E+0	1.233926E+0	1.094158E+0	1.199425E+0	1.126879E+0	1.186384E+0	1.196056E+0	1.183106E+0	1.050394E+0	1.074316E+0	1.086911E+0	1.186112E+0	1.102110E+0	1.080801E+0	1.057056E+0	1.158260E+0	1.110514E+0	1.195870E+0	1.092566E+0	1.097628E+0	1.160761E+0	1.062660E+0	1.183828E+0	1.099802E+0	1.154593E+0	1.052503E+0	1.153288E+0	1.151397E+0	1.095847E+0	1.055411E+0	1.139694E+0	1.164835E+0	1.170870E+0	1.165168E+0	1.057007E+0	1.115708E+0	1.177597E+0	1.150690E+0	1.210390E+0	1.139224E+0	1.060139E+0	1.083045E+0	1.172322E+0	1.241903E+0	9.456244E-1	1.071950E+0	1.135994E+0	1.058755E+0	1.119485E+0	1.154275E+0	1.093651E+0	1.099152E+0	1.131967E+0	1.147908E+0	1.155746E+0	1.138887E+0	1.037594E+0	1.114285E+0	1.091447E+0	1.060356E+0	1.116411E+0	1.166708E+0	1.071202E+0	1.195701E+0	1.116777E+0	1.207705E+0	1.073193E+0	1.178766E+0	1.200768E+0	1.200751E+0	1.058228E+0	1.136381E+0	1.115827E+0	1.173714E+0	1.025655E+0	1.151360E+0	1.109496E+0	1.115855E+0	1.055930E+0	1.229875E+0	1.107302E+0	1.151170E+0	1.042709E+0	1.230242E+0	1.142065E+0	1.145389E+0	1.038905E+0	1.147997E+0	1.118906E+0	1.107200E+0	9.533672E-1	1.186415E+0	1.082232E+0	1.092211E+0	1.034554E+0	1.144816E+0	1.158958E+0	1.196910E+0	9.102507E-1	1.158364E+0	1.241424E+0	1.150172E+0	1.123604E+0	1.114390E+0	1.101348E+0	1.070419E+0	1.149290E+0	1.131915E+0	1.105372E+0	1.107574E+0	1.140033E+0	1.203014E+0	1.204359E+0	1.213220E+0	1.038620E+0	1.076686E+0	1.176602E+0	1.145983E+0	1.139992E+0	1.056168E+0	1.063156E+0	1.026535E+0	1.065981E+0	1.116206E+0	8.588447E-1
5.422670E+2	1.091352E+0	9.917680E-1	1.050004E+0	1.051828E+0	1.103993E+0	1.003146E+0	1.045670E+0	9.660207E-1	1.018915E+0	9.658018E-1	1.109449E+0	1.041385E+0	1.036049E+0	1.080179E+0	1.072883E+0	1.070185E+0	9.561979E-1	9.689903E-1	1.013985E+0	1.063931E+0	1.016263E+0	9.417205E-1	9.948449E-1	9.898732E-1	1.002003E+0	9.947801E-1	9.565945E-1	9.861130E-1	9.993998E-1	1.044879E+0	1.089223E+0	1.045910E+0	9.908392E-1	1.107811E+0	1.106914E+0	1.085256E+0	1.079250E+0	1.036798E+0	1.065540E+0	1.035390E+0	1.038082E+0	1.091647E+0	1.023487E+0	9.763407E-1	1.064751E+0	1.016298E+0	1.110368E+0	1.142977E+0	9.908513E-1	1.019295E+0	1.022595E+0	1.051332E+0	1.117338E+0	1.046816E+0	1.060276E+0	1.010868E+0	1.018482E+0	1.065833E+0	1.049150E+0	9.566903E-1	9.839375E-1	1.064152E+0	1.085236E+0	1.068184E+0	1.000722E+0	1.049636E+0	1.030537E+0	9.826964E-1	1.097560E+0	1.017504E+0	1.028776E+0	9.946213E-1	1.064444E+0	9.925939E-1	1.045230E+0	9.621905E-1	1.024843E+0	1.113194E+0	1.156098E+0	1.062283E+0	1.025373E+0	1.100787E+0	9.774427E-1	1.037417E+0	1.088039E+0	1.035905E+0	9.933175E-1	1.013248E+0	1.078739E+0	1.103418E+0	8.695248E-1	1.034664E+0	1.012991E+0	1.039446E+0	1.077971E+0	1.078527E+0	1.032021E+0	9.914190E-1	9.895720E-1	1.071559E+0	1.117547E+0	9.357316E-1	9.909210E-1	1.030612E+0	1.010358E+0	9.661933E-1	1.008092E+0	1.077113E+0	9.908900E-1	1.048747E+0	1.064526E+0	1.062681E+0	9.702755E-1	1.098359E+0	1.072976E+0	1.042565E+0	1.130080E+0	1.051388E+0	9.794058E-1	1.088184E+0	1.046924E+0	1.091071E+0	9.979900E-1	1.046678E+0	9.803833E-1	1.111384E+0	1.063558E+0	1.057970E+0	9.910612E-1	1.047532E+0	1.001079E+0	1.038398E+0	1.023869E+0	1.050658E+0	1.009848E+0	1.001407E+0	9.613860E-1	1.079033E+0	9.795256E-1	9.693940E-1	9.760882E-1	1.107518E+0	1.108314E+0	1.082138E+0	8.637552E-1	1.052257E+0	1.059891E+0	1.077005E+0	1.069092E+0	9.988380E-1	9.949712E-1	1.084226E+0	1.063896E+0	1.068188E+0	1.004857E+0	1.018846E+0	1.082709E+0	1.056728E+0	1.122024E+0	1.097712E+0	9.867808E-1	1.020754E+0	1.029758E+0	1.009833E+0	9.780921E-1	1.033520E+0	1.005742E+0	9.470086E-1	1.020642E+0	9.529100E-1	7.305227E-1
5.425460E+2	1.036497E+0	9.307134E-1	9.995973E-1	9.166559E-1	9.835659E-1	8.798627E-1	9.936221E-1	9.125702E-1	9.556608E-1	8.689391E-1	9.444798E-1	9.393760E-1	9.642772E-1	1.000185E+0	1.021777E+0	1.064192E+0	9.093951E-1	8.917676E-1	9.807693E-1	1.029445E+0	9.862391E-1	9.344953E-1	9.509945E-1	8.796853E-1	8.997998E-1	9.193847E-1	9.663483E-1	9.341936E-1	9.555895E-1	9.962918E-1	9.826627E-1	9.811413E-1	9.640432E-1	9.909649E-1	9.980139E-1	9.416190E-1	1.002460E+0	9.612657E-1	1.011359E+0	9.174236E-1	1.011274E+0	9.428736E-1	9.633302E-1	9.529638E-1	1.008824E+0	9.791163E-1	1.023315E+0	9.884976E-1	9.510218E-1	1.015247E+0	9.858280E-1	9.636450E-1	1.025091E+0	9.739003E-1	9.639343E-1	8.990481E-1	9.558094E-1	1.008896E+0	9.445207E-1	9.069166E-1	9.407860E-1	1.013785E+0	1.002269E+0	9.679506E-1	9.134705E-1	9.917823E-1	9.797503E-1	9.767970E-1	9.643512E-1	9.038821E-1	9.783248E-1	9.168586E-1	1.005005E+0	9.712305E-1	9.011691E-1	8.839638E-1	9.879708E-1	1.012701E+0	9.723777E-1	9.904711E-1	9.093820E-1	1.072979E+0	9.323287E-1	9.950306E-1	1.008245E+0	9.553021E-1	9.220417E-1	9.680102E-1	9.748292E-1	1.027474E+0	8.161900E-1	8.979441E-1	9.577643E-1	8.891098E-1	9.806017E-1	9.854066E-1	9.389056E-1	9.388059E-1	9.413881E-1	1.016168E+0	9.868648E-1	9.504252E-1	9.052462E-1	9.823126E-1	9.354010E-1	9.027643E-1	8.761982E-1	9.997705E-1	9.015871E-1	9.736514E-1	9.870949E-1	9.957465E-1	9.210539E-1	9.826015E-1	9.667067E-1	1.037980E+0	1.056193E+0	9.990848E-1	9.177538E-1	9.635766E-1	1.003057E+0	9.910633E-1	9.279752E-1	9.775001E-1	9.708601E-1	1.013297E+0	9.464774E-1	9.733620E-1	9.910607E-1	9.828078E-1	9.773416E-1	9.556942E-1	1.030761E+0	9.985604E-1	9.582932E-1	8.839950E-1	9.484321E-1	9.351413E-1	8.754847E-1	9.089713E-1	9.307611E-1	1.015562E+0	9.948680E-1	1.031666E+0	7.371152E-1	1.038995E+0	1.036306E+0	9.690676E-1	1.015263E+0	1.009167E+0	9.524204E-1	9.579854E-1	9.934828E-1	9.619760E-1	9.394213E-1	9.473131E-1	9.892178E-1	1.012378E+0	1.039690E+0	1.074879E+0	9.718778E-1	9.824847E-1	9.602352E-1	9.465711E-1	1.007645E+0	9.112169E-1	9.272509E-1	9.021273E-1	9.383144E-1	1.013670E+0	6.952328E-1
5.427550E+2	9.896875E-1	9.156214E-1	9.834667E-1	9.450349E-1	1.010180E+0	8.535365E-1	9.254474E-1	8.902990E-1	8.942483E-1	8.900250E-1	9.650189E-1	9.090322E-1	9.142523E-1	9.786479E-1	9.915790E-1	9.596472E-1	8.523917E-1	8.845278E-1	9.428905E-1	9.326208E-1	9.324457E-1	8.760947E-1	9.652163E-1	8.529339E-1	9.377804E-1	9.322725E-1	9.212356E-1	9.060448E-1	9.021773E-1	9.854243E-1	1.058119E+0	1.002095E+0	9.148126E-1	9.794156E-1	1.013082E+0	1.037597E+0	9.748633E-1	9.489995E-1	1.000914E+0	9.324967E-1	9.700290E-1	9.531784E-1	9.754892E-1	9.380883E-1	9.224468E-1	1.013819E+0	1.023315E+0	1.009898E+0	9.360860E-1	9.538539E-1	9.236586E-1	9.041205E-1	9.998775E-1	9.507309E-1	9.472595E-1	9.097277E-1	9.263909E-1	9.790048E-1	8.915602E-1	8.668390E-1	8.418956E-1	1.020412E+0	9.860640E-1	9.998720E-1	9.010057E-1	9.641702E-1	9.582634E-1	8.889679E-1	9.326351E-1	9.831104E-1	9.228909E-1	8.806086E-1	1.003128E+0	9.619729E-1	9.569764E-1	8.728810E-1	9.468669E-1	1.028752E+0	9.980725E-1	9.953043E-1	9.390386E-1	1.007189E+0	9.482141E-1	9.650673E-1	9.942820E-1	9.831469E-1	8.838584E-1	9.693030E-1	9.903190E-1	9.626980E-1	7.966768E-1	9.027775E-1	9.370542E-1	8.794555E-1	1.027399E+0	9.555246E-1	9.409157E-1	9.519593E-1	9.018341E-1	9.555381E-1	9.815034E-1	9.127332E-1	8.982131E-1	9.251706E-1	9.647022E-1	8.805314E-1	9.386406E-1	9.461667E-1	9.159712E-1	9.742992E-1	9.656909E-1	9.755274E-1	9.357567E-1	9.507166E-1	9.404757E-1	9.363432E-1	1.036536E+0	9.297836E-1	9.275914E-1	9.974930E-1	9.658364E-1	1.037876E+0	9.124165E-1	9.560083E-1	9.099153E-1	1.056745E+0	9.670630E-1	9.958360E-1	9.685472E-1	9.895502E-1	9.744650E-1	9.629143E-1	1.014472E+0	9.320679E-1	9.226018E-1	8.576999E-1	9.515164E-1	9.365736E-1	8.961598E-1	8.833575E-1	8.558721E-1	9.994855E-1	1.002971E+0	1.015764E+0	7.683162E-1	9.421715E-1	9.848485E-1	9.661696E-1	9.525759E-1	9.775351E-1	8.827921E-1	8.955224E-1	1.030187E+0	9.471067E-1	9.245806E-1	9.830798E-1	1.002183E+0	9.541280E-1	9.932442E-1	1.025184E+0	1.012700E+0	9.206649E-1	9.426922E-1	1.035963E+0	9.941538E-1	9.228649E-1	9.207092E-1	9.162997E-1	9.597917E-1	9.035429E-1	8.010984E-1
5.430120E+2	1.107443E+0	1.034300E+0	1.107804E+0	1.043614E+0	1.088025E+0	1.006356E+0	9.899570E-1	1.004836E+0	1.009703E+0	9.690964E-1	1.094211E+0	9.877980E-1	1.005599E+0	1.106023E+0	1.151867E+0	1.070185E+0	1.015601E+0	9.973456E-1	1.048369E+0	1.038066E+0	1.043160E+0	9.694153E-1	1.075435E+0	1.003248E+0	1.062082E+0	1.000580E+0	1.032188E+0	1.041786E+0	9.873974E-1	1.073646E+0	1.112261E+0	1.093533E+0	1.037577E+0	1.039877E+0	1.132941E+0	1.156079E+0	1.078649E+0	1.030342E+0	1.113846E+0	1.021628E+0	1.113010E+0	1.072326E+0	1.095163E+0	1.030177E+0	1.079045E+0	1.098098E+0	1.135327E+0	1.179758E+0	1.020102E+0	1.072592E+0	1.064041E+0	1.051972E+0	1.113035E+0	1.083615E+0	1.013340E+0	9.844833E-1	9.999354E-1	1.068680E+0	1.047212E+0	9.812539E-1	9.737493E-1	1.126449E+0	1.088476E+0	1.183100E+0	1.044676E+0	1.085795E+0	1.108672E+0	1.027267E+0	1.100096E+0	1.069707E+0	1.020679E+0	1.051918E+0	1.122007E+0	1.006125E+0	1.082218E+0	9.517600E-1	1.048419E+0	1.069228E+0	1.079014E+0	1.120285E+0	9.963750E-1	1.080440E+0	1.056869E+0	1.025724E+0	1.094023E+0	1.085000E+0	1.023865E+0	1.026820E+0	1.054859E+0	1.103417E+0	8.422069E-1	9.946140E-1	1.004205E+0	9.580718E-1	1.049289E+0	1.120222E+0	1.001876E+0	1.095393E+0	1.054297E+0	1.077547E+0	1.092081E+0	1.006005E+0	1.008823E+0	1.036735E+0	1.032845E+0	9.740404E-1	1.025296E+0	1.119997E+0	9.962845E-1	1.064931E+0	1.079636E+0	1.119854E+0	1.058491E+0	1.115688E+0	1.058852E+0	1.028809E+0	1.147705E+0	1.033736E+0	1.049584E+0	1.099243E+0	1.091456E+0	1.073339E+0	1.029108E+0	1.080931E+0	9.803834E-1	1.121915E+0	1.066131E+0	1.098951E+0	1.017547E+0	1.060342E+0	1.101783E+0	1.051526E+0	1.146663E+0	1.027351E+0	9.768006E-1	9.665503E-1	1.023687E+0	1.120554E+0	1.009537E+0	9.792459E-1	9.668912E-1	1.112019E+0	1.131947E+0	1.113251E+0	8.649787E-1	1.113932E+0	1.120641E+0	1.081353E+0	1.050695E+0	1.098897E+0	9.878794E-1	1.113816E+0	1.125319E+0	1.063939E+0	9.920399E-1	1.092442E+0	1.087486E+0	1.123583E+0	1.157210E+0	1.111814E+0	1.037323E+0	1.012658E+0	1.025860E+0	1.071032E+0	1.168259E+0	1.009577E+0	9.999272E-1	9.525199E-1	1.042118E+0	1.093418E+0	9.775431E-1
5.432960E+2	1.309309E+0	1.282635E+0	1.300024E+0	1.273631E+0	1.278313E+0	1.265766E+0	1.269989E+0	1.204003E+0	1.128843E+0	1.300540E+0	1.239967E+0	1.196333E+0	1.195908E+0	1.336774E+0	1.341767E+0	1.355188E+0	1.203410E+0	1.200661E+0	1.228439E+0	1.227074E+0	1.295239E+0	1.178331E+0	1.232465E+0	1.173307E+0	1.283060E+0	1.180371E+0	1.250434E+0	1.160012E+0	1.199847E+0	1.303153E+0	1.327111E+0	1.259261E+0	1.212064E+0	1.309576E+0	1.304170E+0	1.258013E+0	1.328814E+0	1.260813E+0	1.293365E+0	1.199888E+0	1.338478E+0	1.218520E+0	1.246833E+0	1.227813E+0	1.257391E+0	1.280906E+0	1.355084E+0	1.375032E+0	1.259080E+0	1.239903E+0	1.268597E+0	1.305432E+0	1.312289E+0	1.294186E+0	1.198609E+0	1.169176E+0	1.230803E+0	1.307103E+0	1.199634E+0	1.181641E+0	1.225471E+0	1.275563E+0	1.323117E+0	1.362499E+0	1.198185E+0	1.265930E+0	1.312473E+0	1.176053E+0	1.259945E+0	1.237376E+0	1.220616E+0	1.205104E+0	1.274042E+0	1.237565E+0	1.210057E+0	1.194914E+0	1.305320E+0	1.295337E+0	1.331468E+0	1.313624E+0	1.192110E+0	1.308329E+0	1.235421E+0	1.280041E+0	1.330744E+0	1.300429E+0	1.226236E+0	1.246549E+0	1.266553E+0	1.260517E+0	1.082213E+0	1.172763E+0	1.239543E+0	1.194609E+0	1.300640E+0	1.300210E+0	1.168009E+0	1.243838E+0	1.252785E+0	1.279646E+0	1.276376E+0	1.183606E+0	1.169303E+0	1.282993E+0	1.219556E+0	1.225793E+0	1.240657E+0	1.276214E+0	1.227631E+0	1.353661E+0	1.254642E+0	1.378526E+0	1.236199E+0	1.313930E+0	1.247851E+0	1.246602E+0	1.330724E+0	1.288060E+0	1.246348E+0	1.309381E+0	1.315446E+0	1.323006E+0	1.226186E+0	1.291148E+0	1.184168E+0	1.344417E+0	1.274560E+0	1.315097E+0	1.222152E+0	1.340812E+0	1.221908E+0	1.294389E+0	1.315187E+0	1.239854E+0	1.248454E+0	1.190979E+0	1.173576E+0	1.221493E+0	1.181604E+0	1.157888E+0	1.167908E+0	1.345448E+0	1.253497E+0	1.276421E+0	9.940660E-1	1.283040E+0	1.268582E+0	1.247969E+0	1.255793E+0	1.191208E+0	1.221909E+0	1.238741E+0	1.305096E+0	1.238835E+0	1.240964E+0	1.243073E+0	1.256044E+0	1.291714E+0	1.344399E+0	1.401254E+0	1.248565E+0	1.295996E+0	1.217534E+0	1.216122E+0	1.309599E+0	1.217945E+0	1.141646E+0	1.184801E+0	1.309380E+0	1.159877E+0	1.166819E+0
5.435270E+2	1.408048E+0	1.431497E+0	1.432424E+0	1.420754E+0	1.408055E+0	1.462251E+0	1.393878E+0	1.349084E+0	1.299568E+0	1.415193E+0	1.433424E+0	1.363547E+0	1.309007E+0	1.465994E+0	1.460822E+0	1.507010E+0	1.298218E+0	1.503519E+0	1.364221E+0	1.398835E+0	1.440978E+0	1.440833E+0	1.345646E+0	1.329353E+0	1.426007E+0	1.470996E+0	1.352244E+0	1.368940E+0	1.331275E+0	1.435489E+0	1.517770E+0	1.388166E+0	1.322990E+0	1.511339E+0	1.462382E+0	1.425478E+0	1.406801E+0	1.449323E+0	1.420003E+0	1.361763E+0	1.429903E+0	1.453596E+0	1.337068E+0	1.380115E+0	1.341902E+0	1.424674E+0	1.470749E+0	1.526166E+0	1.298287E+0	1.409916E+0	1.349484E+0	1.370717E+0	1.491867E+0	1.392316E+0	1.343120E+0	1.335648E+0	1.358706E+0	1.424534E+0	1.253240E+0	1.296703E+0	1.291998E+0	1.437933E+0	1.359417E+0	1.421237E+0	1.295935E+0	1.395444E+0	1.410140E+0	1.405458E+0	1.379833E+0	1.351612E+0	1.396261E+0	1.331978E+0	1.386037E+0	1.294534E+0	1.355416E+0	1.298566E+0	1.370601E+0	1.403504E+0	1.469577E+0	1.410292E+0	1.307442E+0	1.399890E+0	1.360596E+0	1.383813E+0	1.439795E+0	1.399353E+0	1.351606E+0	1.352535E+0	1.431774E+0	1.419106E+0	1.112133E+0	1.303268E+0	1.367569E+0	1.260123E+0	1.443297E+0	1.484364E+0	1.269163E+0	1.337791E+0	1.370730E+0	1.403900E+0	1.370871E+0	1.304349E+0	1.301652E+0	1.323130E+0	1.319042E+0	1.308840E+0	1.291631E+0	1.383422E+0	1.305547E+0	1.387323E+0	1.325778E+0	1.441277E+0	1.318662E+0	1.435927E+0	1.411292E+0	1.491140E+0	1.476465E+0	1.384168E+0	1.378830E+0	1.387538E+0	1.363963E+0	1.352085E+0	1.305278E+0	1.373758E+0	1.332722E+0	1.489242E+0	1.358189E+0	1.434737E+0	1.347302E+0	1.438575E+0	1.395264E+0	1.376436E+0	1.412298E+0	1.360498E+0	1.334379E+0	1.321843E+0	1.369732E+0	1.373972E+0	1.324995E+0	1.292529E+0	1.250023E+0	1.482418E+0	1.476336E+0	1.438211E+0	1.085834E+0	1.462094E+0	1.400799E+0	1.472538E+0	1.356635E+0	1.370670E+0	1.391466E+0	1.366954E+0	1.453413E+0	1.350711E+0	1.316519E+0	1.376510E+0	1.405496E+0	1.381737E+0	1.385215E+0	1.408644E+0	1.442957E+0	1.346777E+0	1.340986E+0	1.407969E+0	1.462503E+0	1.329895E+0	1.279732E+0	1.213148E+0	1.481192E+0	1.435198E+0	1.314391E+0
5.437640E+2	1.593088E+0	1.655823E+0	1.592386E+0	1.547709E+0	1.654230E+0	1.628554E+0	1.586675E+0	1.413353E+0	1.508369E+0	1.601667E+0	1.590445E+0	1.497193E+0	1.493873E+0	1.640135E+0	1.661758E+0	1.644183E+0	1.436224E+0	1.622971E+0	1.470863E+0	1.581211E+0	1.641142E+0	1.656975E+0	1.483125E+0	1.447185E+0	1.568263E+0	1.603101E+0	1.533911E+0	1.479659E+0	1.454904E+0	1.588918E+0	1.647947E+0	1.572312E+0	1.491869E+0	1.675061E+0	1.572655E+0	1.585001E+0	1.482394E+0	1.543575E+0	1.558395E+0	1.484974E+0	1.626501E+0	1.566303E+0	1.539937E+0	1.509034E+0	1.482343E+0	1.602528E+0	1.677722E+0	1.638516E+0	1.519217E+0	1.552941E+0	1.546021E+0	1.585775E+0	1.635772E+0	1.658083E+0	1.459223E+0	1.478878E+0	1.530738E+0	1.588940E+0	1.501252E+0	1.416934E+0	1.486781E+0	1.649342E+0	1.554515E+0	1.621704E+0	1.459286E+0	1.645271E+0	1.550784E+0	1.536547E+0	1.481959E+0	1.631674E+0	1.498408E+0	1.426698E+0	1.592509E+0	1.649169E+0	1.535168E+0	1.460886E+0	1.482433E+0	1.611468E+0	1.664218E+0	1.640923E+0	1.494612E+0	1.663049E+0	1.451459E+0	1.538012E+0	1.610683E+0	1.691719E+0	1.506251E+0	1.506994E+0	1.536328E+0	1.608965E+0	1.260431E+0	1.497989E+0	1.558351E+0	1.464251E+0	1.556518E+0	1.596250E+0	1.392426E+0	1.620898E+0	1.462783E+0	1.558096E+0	1.555831E+0	1.616747E+0	1.478753E+0	1.495920E+0	1.483267E+0	1.542285E+0	1.495528E+0	1.524322E+0	1.562065E+0	1.571178E+0	1.583883E+0	1.575844E+0	1.475278E+0	1.621694E+0	1.504782E+0	1.540048E+0	1.627625E+0	1.576380E+0	1.515910E+0	1.519519E+0	1.564688E+0	1.587565E+0	1.425859E+0	1.519503E+0	1.466038E+0	1.644599E+0	1.533169E+0	1.609237E+0	1.517477E+0	1.600386E+0	1.539124E+0	1.530030E+0	1.593351E+0	1.534612E+0	1.450049E+0	1.513859E+0	1.505438E+0	1.620954E+0	1.394354E+0	1.473137E+0	1.418852E+0	1.614884E+0	1.566145E+0	1.691950E+0	1.194730E+0	1.586106E+0	1.580186E+0	1.579754E+0	1.555600E+0	1.572728E+0	1.483014E+0	1.531330E+0	1.551541E+0	1.563138E+0	1.478424E+0	1.534017E+0	1.576780E+0	1.563770E+0	1.549883E+0	1.598026E+0	1.533676E+0	1.580071E+0	1.509924E+0	1.475358E+0	1.607698E+0	1.555733E+0	1.363310E+0	1.429679E+0	1.586187E+0	1.518743E+0	1.401008E+0
5.440170E+2	1.638438E+0	1.705212E+0	1.701261E+0	1.623138E+0	1.667537E+0	1.616996E+0	1.587408E+0	1.548250E+0	1.499773E+0	1.684037E+0	1.660009E+0	1.537862E+0	1.546071E+0	1.658594E+0	1.675113E+0	1.718100E+0	1.484228E+0	1.715273E+0	1.655594E+0	1.653497E+0	1.600480E+0	1.693102E+0	1.518087E+0	1.462472E+0	1.559975E+0	1.681074E+0	1.496723E+0	1.550971E+0	1.511318E+0	1.669467E+0	1.665224E+0	1.648510E+0	1.565400E+0	1.663511E+0	1.626078E+0	1.638615E+0	1.677967E+0	1.686249E+0	1.602787E+0	1.588520E+0	1.547452E+0	1.715075E+0	1.564258E+0	1.596166E+0	1.571828E+0	1.641569E+0	1.692335E+0	1.702717E+0	1.553448E+0	1.697989E+0	1.547358E+0	1.588977E+0	1.726175E+0	1.716690E+0	1.532712E+0	1.543584E+0	1.543526E+0	1.674345E+0	1.490917E+0	1.524885E+0	1.447824E+0	1.589033E+0	1.632296E+0	1.646604E+0	1.499958E+0	1.616998E+0	1.565758E+0	1.529988E+0	1.664644E+0	1.737310E+0	1.598065E+0	1.498029E+0	1.623793E+0	1.647743E+0	1.598116E+0	1.443284E+0	1.600301E+0	1.631707E+0	1.682208E+0	1.586370E+0	1.544694E+0	1.682720E+0	1.570916E+0	1.638134E+0	1.655899E+0	1.647023E+0	1.493524E+0	1.486312E+0	1.623456E+0	1.631302E+0	1.440597E+0	1.504892E+0	1.527600E+0	1.517349E+0	1.677288E+0	1.662268E+0	1.546500E+0	1.689797E+0	1.523194E+0	1.588037E+0	1.670432E+0	1.724071E+0	1.447428E+0	1.495239E+0	1.586159E+0	1.693990E+0	1.535031E+0	1.597839E+0	1.554872E+0	1.630738E+0	1.559332E+0	1.620467E+0	1.559657E+0	1.641104E+0	1.626519E+0	1.653911E+0	1.654737E+0	1.665295E+0	1.518533E+0	1.570392E+0	1.557379E+0	1.628702E+0	1.479016E+0	1.604797E+0	1.511114E+0	1.668953E+0	1.610362E+0	1.724914E+0	1.479732E+0	1.667134E+0	1.536249E+0	1.522154E+0	1.659761E+0	1.700501E+0	1.485738E+0	1.442923E+0	1.506671E+0	1.645294E+0	1.445709E+0	1.549980E+0	1.495713E+0	1.572446E+0	1.636378E+0	1.682963E+0	1.219204E+0	1.649110E+0	1.617352E+0	1.665235E+0	1.604660E+0	1.613395E+0	1.552646E+0	1.528701E+0	1.700606E+0	1.599246E+0	1.510802E+0	1.547085E+0	1.673683E+0	1.567737E+0	1.644179E+0	1.645034E+0	1.594585E+0	1.600678E+0	1.455345E+0	1.591568E+0	1.653313E+0	1.552495E+0	1.376393E+0	1.445428E+0	1.508633E+0	1.577605E+0	1.484418E+0
5.442700E+2	1.682323E+0	1.646904E+0	1.618594E+0	1.588785E+0	1.610319E+0	1.615711E+0	1.534628E+0	1.442623E+0	1.418095E+0	1.625389E+0	1.594420E+0	1.456518E+0	1.483543E+0	1.571831E+0	1.626332E+0	1.530319E+0	1.521430E+0	1.627795E+0	1.513403E+0	1.587180E+0	1.578588E+0	1.641923E+0	1.442831E+0	1.426804E+0	1.548927E+0	1.643698E+0	1.452220E+0	1.494675E+0	1.498115E+0	1.576131E+0	1.663498E+0	1.578660E+0	1.426434E+0	1.667586E+0	1.620598E+0	1.559848E+0	1.574780E+0	1.638478E+0	1.593646E+0	1.545266E+0	1.579073E+0	1.606235E+0	1.502822E+0	1.474325E+0	1.517143E+0	1.603767E+0	1.613199E+0	1.623134E+0	1.494324E+0	1.592745E+0	1.537328E+0	1.502571E+0	1.580423E+0	1.632871E+0	1.457990E+0	1.355120E+0	1.529459E+0	1.633065E+0	1.502544E+0	1.432452E+0	1.415458E+0	1.596986E+0	1.582390E+0	1.612766E+0	1.463878E+0	1.640668E+0	1.606130E+0	1.478210E+0	1.536511E+0	1.629215E+0	1.506506E+0	1.426697E+0	1.563102E+0	1.599318E+0	1.548793E+0	1.393090E+0	1.562223E+0	1.579366E+0	1.574930E+0	1.584989E+0	1.472201E+0	1.579627E+0	1.515000E+0	1.525587E+0	1.641273E+0	1.662412E+0	1.441977E+0	1.395835E+0	1.606674E+0	1.590352E+0	1.479622E+0	1.446200E+0	1.522577E+0	1.427008E+0	1.590484E+0	1.563585E+0	1.431280E+0	1.588330E+0	1.491549E+0	1.543124E+0	1.600066E+0	1.651241E+0	1.453180E+0	1.460542E+0	1.505754E+0	1.595250E+0	1.455383E+0	1.532749E+0	1.462573E+0	1.554995E+0	1.515896E+0	1.566082E+0	1.451623E+0	1.605751E+0	1.561949E+0	1.575964E+0	1.586953E+0	1.578995E+0	1.504105E+0	1.512147E+0	1.513513E+0	1.616645E+0	1.462162E+0	1.514798E+0	1.384781E+0	1.570210E+0	1.502290E+0	1.637662E+0	1.516816E+0	1.638140E+0	1.565022E+0	1.453891E+0	1.598362E+0	1.598362E+0	1.478467E+0	1.450874E+0	1.480765E+0	1.615223E+0	1.427030E+0	1.440300E+0	1.418196E+0	1.620674E+0	1.583704E+0	1.649778E+0	1.246122E+0	1.612635E+0	1.598059E+0	1.562369E+0	1.601251E+0	1.621139E+0	1.497197E+0	1.513579E+0	1.627947E+0	1.667224E+0	1.463579E+0	1.599359E+0	1.576102E+0	1.613414E+0	1.588587E+0	1.627571E+0	1.498686E+0	1.518988E+0	1.496927E+0	1.512490E+0	1.610267E+0	1.586147E+0	1.368399E+0	1.417081E+0	1.546814E+0	1.613681E+0	1.356095E+0
5.445340E+2	1.675741E+0	1.653762E+0	1.667658E+0	1.514107E+0	1.630946E+0	1.645250E+0	1.568350E+0	1.462349E+0	1.512670E+0	1.689306E+0	1.653383E+0	1.495900E+0	1.528673E+0	1.655519E+0	1.711703E+0	1.684803E+0	1.472229E+0	1.636242E+0	1.575176E+0	1.617025E+0	1.601733E+0	1.647344E+0	1.484310E+0	1.464381E+0	1.555833E+0	1.592790E+0	1.503432E+0	1.562233E+0	1.459105E+0	1.539053E+0	1.587464E+0	1.654858E+0	1.503087E+0	1.647887E+0	1.595257E+0	1.618092E+0	1.622772E+0	1.581022E+0	1.612579E+0	1.556408E+0	1.594880E+0	1.636503E+0	1.565536E+0	1.521079E+0	1.476129E+0	1.617401E+0	1.661290E+0	1.645873E+0	1.502413E+0	1.608262E+0	1.572091E+0	1.576816E+0	1.616090E+0	1.688068E+0	1.548771E+0	1.444328E+0	1.545448E+0	1.684306E+0	1.458624E+0	1.399483E+0	1.450221E+0	1.625484E+0	1.618685E+0	1.634471E+0	1.431077E+0	1.594646E+0	1.611337E+0	1.488042E+0	1.547927E+0	1.672822E+0	1.572527E+0	1.502708E+0	1.614406E+0	1.587925E+0	1.579292E+0	1.479791E+0	1.535624E+0	1.560527E+0	1.666147E+0	1.587063E+0	1.459682E+0	1.599972E+0	1.499115E+0	1.566513E+0	1.631298E+0	1.620643E+0	1.522796E+0	1.489546E+0	1.642817E+0	1.618646E+0	1.481575E+0	1.502820E+0	1.545801E+0	1.487693E+0	1.597279E+0	1.628215E+0	1.480180E+0	1.630918E+0	1.500179E+0	1.597017E+0	1.614139E+0	1.696601E+0	1.425050E+0	1.499999E+0	1.554135E+0	1.603096E+0	1.509542E+0	1.588650E+0	1.481755E+0	1.614552E+0	1.515267E+0	1.664394E+0	1.440117E+0	1.558617E+0	1.527647E+0	1.623344E+0	1.647965E+0	1.697986E+0	1.468687E+0	1.575556E+0	1.583963E+0	1.634378E+0	1.467999E+0	1.540991E+0	1.455248E+0	1.623535E+0	1.542174E+0	1.625766E+0	1.510854E+0	1.613195E+0	1.610335E+0	1.512963E+0	1.666024E+0	1.665539E+0	1.470534E+0	1.400117E+0	1.480148E+0	1.599477E+0	1.460382E+0	1.470509E+0	1.424107E+0	1.584017E+0	1.626922E+0	1.630418E+0	1.241838E+0	1.591414E+0	1.544452E+0	1.579752E+0	1.576725E+0	1.634698E+0	1.505583E+0	1.547767E+0	1.663155E+0	1.629693E+0	1.471674E+0	1.552587E+0	1.608855E+0	1.609438E+0	1.638550E+0	1.614814E+0	1.517477E+0	1.596261E+0	1.516420E+0	1.509052E+0	1.659092E+0	1.591324E+0	1.400378E+0	1.424957E+0	1.644651E+0	1.649759E+0	1.420257E+0
5.447560E+2	1.597482E+0	1.574873E+0	1.591713E+0	1.597746E+0	1.579711E+0	1.635618E+0	1.500170E+0	1.484620E+0	1.486875E+0	1.586511E+0	1.595081E+0	1.479116E+0	1.524323E+0	1.614906E+0	1.630397E+0	1.568272E+0	1.409223E+0	1.586773E+0	1.453381E+0	1.498975E+0	1.586096E+0	1.652763E+0	1.423868E+0	1.442727E+0	1.508180E+0	1.635964E+0	1.459538E+0	1.476534E+0	1.424297E+0	1.524988E+0	1.513161E+0	1.556437E+0	1.498099E+0	1.603052E+0	1.561693E+0	1.531387E+0	1.553183E+0	1.585541E+0	1.527716E+0	1.475143E+0	1.517891E+0	1.590775E+0	1.524579E+0	1.474324E+0	1.384162E+0	1.544280E+0	1.615634E+0	1.629822E+0	1.577095E+0	1.598816E+0	1.535324E+0	1.594096E+0	1.578578E+0	1.599478E+0	1.536420E+0	1.448723E+0	1.497482E+0	1.571147E+0	1.401785E+0	1.436326E+0	1.461608E+0	1.584394E+0	1.619980E+0	1.627449E+0	1.449443E+0	1.539421E+0	1.590501E+0	1.454614E+0	1.573936E+0	1.588071E+0	1.464152E+0	1.436639E+0	1.560600E+0	1.571548E+0	1.506613E+0	1.380703E+0	1.559805E+0	1.589137E+0	1.617326E+0	1.557370E+0	1.483404E+0	1.603365E+0	1.459084E+0	1.477354E+0	1.564139E+0	1.630170E+0	1.433063E+0	1.490838E+0	1.563434E+0	1.600031E+0	1.462061E+0	1.446198E+0	1.535130E+0	1.442870E+0	1.574633E+0	1.544822E+0	1.476832E+0	1.533839E+0	1.488674E+0	1.545374E+0	1.575940E+0	1.600136E+0	1.399473E+0	1.451699E+0	1.522789E+0	1.595251E+0	1.407597E+0	1.554186E+0	1.490743E+0	1.637857E+0	1.481272E+0	1.560503E+0	1.475276E+0	1.625157E+0	1.530339E+0	1.553041E+0	1.545604E+0	1.503159E+0	1.473937E+0	1.498136E+0	1.540761E+0	1.601754E+0	1.418726E+0	1.479203E+0	1.431125E+0	1.578768E+0	1.484276E+0	1.568918E+0	1.486356E+0	1.608475E+0	1.557109E+0	1.453890E+0	1.541354E+0	1.652517E+0	1.475160E+0	1.417240E+0	1.415996E+0	1.581577E+0	1.437035E+0	1.417969E+0	1.361701E+0	1.548651E+0	1.564796E+0	1.584785E+0	1.197790E+0	1.583458E+0	1.520871E+0	1.513107E+0	1.501772E+0	1.608230E+0	1.471412E+0	1.523440E+0	1.566522E+0	1.580839E+0	1.396124E+0	1.467300E+0	1.488748E+0	1.580977E+0	1.593514E+0	1.512066E+0	1.533030E+0	1.536650E+0	1.513171E+0	1.523492E+0	1.600631E+0	1.533085E+0	1.400374E+0	1.413145E+0	1.478805E+0	1.551022E+0	1.436298E+0
5.450150E+2	1.493621E+0	1.504900E+0	1.444522E+0	1.411044E+0	1.519165E+0	1.451974E+0	1.489910E+0	1.356084E+0	1.360978E+0	1.509417E+0	1.480463E+0	1.349344E+0	1.349785E+0	1.426612E+0	1.568259E+0	1.494360E+0	1.373220E+0	1.475159E+0	1.492426E+0	1.399500E+0	1.420337E+0	1.506460E+0	1.439274E+0	1.263113E+0	1.412193E+0	1.506441E+0	1.407717E+0	1.382077E+0	1.348681E+0	1.450832E+0	1.442889E+0	1.447218E+0	1.351030E+0	1.457670E+0	1.452110E+0	1.454603E+0	1.449996E+0	1.447385E+0	1.424574E+0	1.369628E+0	1.439529E+0	1.456175E+0	1.420904E+0	1.368781E+0	1.348737E+0	1.440790E+0	1.504838E+0	1.516807E+0	1.338118E+0	1.420037E+0	1.446415E+0	1.469925E+0	1.506623E+0	1.530651E+0	1.438227E+0	1.316174E+0	1.430334E+0	1.482894E+0	1.346892E+0	1.318036E+0	1.347134E+0	1.445882E+0	1.433308E+0	1.496571E+0	1.356944E+0	1.429630E+0	1.470042E+0	1.341876E+0	1.436920E+0	1.446197E+0	1.406225E+0	1.346595E+0	1.456112E+0	1.421290E+0	1.341787E+0	1.284877E+0	1.357912E+0	1.388153E+0	1.524179E+0	1.471749E+0	1.412886E+0	1.440586E+0	1.341531E+0	1.395506E+0	1.469720E+0	1.423530E+0	1.304513E+0	1.348015E+0	1.524708E+0	1.473457E+0	1.364497E+0	1.333652E+0	1.363177E+0	1.273915E+0	1.433485E+0	1.492010E+0	1.345529E+0	1.470575E+0	1.369292E+0	1.425608E+0	1.452630E+0	1.501113E+0	1.312518E+0	1.449660E+0	1.389913E+0	1.475588E+0	1.350888E+0	1.443154E+0	1.337911E+0	1.421636E+0	1.407618E+0	1.464286E+0	1.320580E+0	1.408204E+0	1.409945E+0	1.475094E+0	1.450706E+0	1.464583E+0	1.354564E+0	1.445047E+0	1.418467E+0	1.512383E+0	1.369457E+0	1.466442E+0	1.351768E+0	1.469492E+0	1.410297E+0	1.492904E+0	1.370477E+0	1.514758E+0	1.457122E+0	1.400724E+0	1.421693E+0	1.492796E+0	1.390561E+0	1.312058E+0	1.385152E+0	1.432679E+0	1.290312E+0	1.259029E+0	1.313089E+0	1.437403E+0	1.508076E+0	1.449962E+0	1.110305E+0	1.466072E+0	1.449398E+0	1.419656E+0	1.432271E+0	1.495904E+0	1.317327E+0	1.446512E+0	1.398733E+0	1.476042E+0	1.357669E+0	1.354500E+0	1.451217E+0	1.457196E+0	1.490769E+0	1.526167E+0	1.458512E+0	1.382101E+0	1.360481E+0	1.368090E+0	1.449652E+0	1.461904E+0	1.241941E+0	1.343854E+0	1.439431E+0	1.573809E+0	1.307973E+0
5.452580E+2	1.396345E+0	1.382792E+0	1.433101E+0	1.268403E+0	1.371461E+0	1.387764E+0	1.396077E+0	1.208457E+0	1.285445E+0	1.365112E+0	1.481790E+0	1.302216E+0	1.303025E+0	1.424765E+0	1.425976E+0	1.411124E+0	1.233412E+0	1.399749E+0	1.389863E+0	1.356391E+0	1.427218E+0	1.377016E+0	1.416165E+0	1.174582E+0	1.352806E+0	1.430398E+0	1.428448E+0	1.267605E+0	1.253257E+0	1.386261E+0	1.410056E+0	1.331651E+0	1.294947E+0	1.357128E+0	1.413757E+0	1.350683E+0	1.368409E+0	1.391866E+0	1.427185E+0	1.285084E+0	1.328169E+0	1.370515E+0	1.359468E+0	1.274565E+0	1.253662E+0	1.321188E+0	1.424481E+0	1.443912E+0	1.250367E+0	1.315463E+0	1.358844E+0	1.326553E+0	1.472800E+0	1.463188E+0	1.415990E+0	1.242674E+0	1.303068E+0	1.451578E+0	1.442476E+0	1.287009E+0	1.265627E+0	1.420698E+0	1.418398E+0	1.360585E+0	1.255259E+0	1.474337E+0	1.341775E+0	1.297310E+0	1.339236E+0	1.405043E+0	1.386293E+0	1.237847E+0	1.384160E+0	1.364321E+0	1.375534E+0	1.179269E+0	1.342798E+0	1.325346E+0	1.422686E+0	1.357125E+0	1.251423E+0	1.362590E+0	1.314208E+0	1.379428E+0	1.383941E+0	1.361981E+0	1.356060E+0	1.290495E+0	1.402081E+0	1.425807E+0	1.351489E+0	1.299125E+0	1.291006E+0	1.287706E+0	1.381404E+0	1.391244E+0	1.261794E+0	1.376625E+0	1.285149E+0	1.355248E+0	1.392315E+0	1.402091E+0	1.257536E+0	1.306803E+0	1.256351E+0	1.383383E+0	1.278250E+0	1.418647E+0	1.243215E+0	1.419046E+0	1.339000E+0	1.377132E+0	1.327610E+0	1.372851E+0	1.304348E+0	1.417016E+0	1.422911E+0	1.401819E+0	1.285699E+0	1.400071E+0	1.324750E+0	1.553521E+0	1.263139E+0	1.298536E+0	1.294631E+0	1.394449E+0	1.284853E+0	1.393756E+0	1.244668E+0	1.417674E+0	1.329805E+0	1.337053E+0	1.380969E+0	1.440700E+0	1.241182E+0	1.249683E+0	1.263021E+0	1.385431E+0	1.196945E+0	1.284646E+0	1.227689E+0	1.430332E+0	1.394628E+0	1.370452E+0	1.101738E+0	1.392463E+0	1.321470E+0	1.401547E+0	1.385936E+0	1.397139E+0	1.321195E+0	1.330133E+0	1.399482E+0	1.353543E+0	1.270646E+0	1.312544E+0	1.354309E+0	1.418143E+0	1.408437E+0	1.454310E+0	1.369740E+0	1.342360E+0	1.310449E+0	1.313078E+0	1.422671E+0	1.406900E+0	1.290635E+0	1.257241E+0	1.370229E+0	1.340259E+0	1.340055E+0
5.455290E+2	1.388299E+0	1.354666E+0	1.392101E+0	1.248240E+0	1.391420E+0	1.390974E+0	1.382147E+0	1.218638E+0	1.245525E+0	1.319645E+0	1.386384E+0	1.206663E+0	1.237231E+0	1.321391E+0	1.432365E+0	1.396472E+0	1.187210E+0	1.375013E+0	1.386945E+0	1.271505E+0	1.381557E+0	1.354739E+0	1.372314E+0	1.186682E+0	1.277535E+0	1.311829E+0	1.352244E+0	1.268856E+0	1.190244E+0	1.332560E+0	1.343815E+0	1.324031E+0	1.207079E+0	1.320446E+0	1.398003E+0	1.309642E+0	1.286221E+0	1.346674E+0	1.305765E+0	1.238555E+0	1.359099E+0	1.320281E+0	1.365228E+0	1.259689E+0	1.231911E+0	1.334201E+0	1.367262E+0	1.397767E+0	1.252857E+0	1.304672E+0	1.358846E+0	1.283033E+0	1.367023E+0	1.360286E+0	1.345589E+0	1.204983E+0	1.285802E+0	1.413859E+0	1.311367E+0	1.226244E+0	1.152351E+0	1.364369E+0	1.362008E+0	1.348456E+0	1.212619E+0	1.375722E+0	1.376935E+0	1.198337E+0	1.270094E+0	1.318446E+0	1.309059E+0	1.192241E+0	1.314712E+0	1.355062E+0	1.347628E+0	1.136898E+0	1.290815E+0	1.288359E+0	1.387998E+0	1.391652E+0	1.237583E+0	1.348346E+0	1.384106E+0	1.274924E+0	1.328083E+0	1.318748E+0	1.332516E+0	1.223929E+0	1.312372E+0	1.349117E+0	1.339781E+0	1.260455E+0	1.283475E+0	1.264950E+0	1.401029E+0	1.296039E+0	1.218920E+0	1.340294E+0	1.377203E+0	1.272161E+0	1.348752E+0	1.386120E+0	1.359194E+0	1.259183E+0	1.214103E+0	1.341536E+0	1.389757E+0	1.368871E+0	1.221638E+0	1.346536E+0	1.349071E+0	1.343666E+0	1.208712E+0	1.288978E+0	1.331925E+0	1.388741E+0	1.335469E+0	1.353439E+0	1.273236E+0	1.344037E+0	1.347349E+0	1.363433E+0	1.256655E+0	1.266971E+0	1.225433E+0	1.308211E+0	1.306728E+0	1.330959E+0	1.222816E+0	1.369805E+0	1.333401E+0	1.216934E+0	1.320201E+0	1.373522E+0	1.207474E+0	1.222167E+0	1.300030E+0	1.310978E+0	1.223620E+0	1.174307E+0	1.227688E+0	1.283072E+0	1.314271E+0	1.308226E+0	1.042397E+0	1.348694E+0	1.320755E+0	1.384159E+0	1.298039E+0	1.349367E+0	1.281867E+0	1.249261E+0	1.267643E+0	1.376911E+0	1.234220E+0	1.298098E+0	1.321558E+0	1.282446E+0	1.316955E+0	1.304551E+0	1.312068E+0	1.293052E+0	1.271462E+0	1.203057E+0	1.383482E+0	1.375190E+0	1.192520E+0	1.209210E+0	1.273586E+0	1.478870E+0	1.160403E+0
5.457720E+2	1.263962E+0	1.244904E+0	1.250960E+0	1.205671E+0	1.245711E+0	1.209260E+0	1.228937E+0	1.130191E+0	1.163235E+0	1.241234E+0	1.265143E+0	1.126606E+0	1.117609E+0	1.235242E+0	1.254075E+0	1.283936E+0	1.132008E+0	1.252543E+0	1.258159E+0	1.215799E+0	1.272720E+0	1.263225E+0	1.250836E+0	1.095603E+0	1.216768E+0	1.205501E+0	1.252873E+0	1.160011E+0	1.130229E+0	1.198947E+0	1.253384E+0	1.214180E+0	1.085561E+0	1.195447E+0	1.265129E+0	1.208370E+0	1.174034E+0	1.218207E+0	1.241141E+0	1.161221E+0	1.186562E+0	1.266181E+0	1.267314E+0	1.117307E+0	1.166041E+0	1.209024E+0	1.247337E+0	1.241951E+0	1.168218E+0	1.189980E+0	1.289321E+0	1.174222E+0	1.259400E+0	1.252615E+0	1.261604E+0	1.112009E+0	1.226966E+0	1.233797E+0	1.273907E+0	1.081448E+0	1.019299E+0	1.216581E+0	1.198017E+0	1.225236E+0	1.124055E+0	1.210708E+0	1.182900E+0	1.117717E+0	1.174945E+0	1.276683E+0	1.194458E+0	1.094602E+0	1.223992E+0	1.201957E+0	1.245100E+0	1.054107E+0	1.150574E+0	1.182282E+0	1.248602E+0	1.147214E+0	1.110389E+0	1.184888E+0	1.265920E+0	1.146305E+0	1.246295E+0	1.243274E+0	1.259330E+0	1.076582E+0	1.182647E+0	1.231479E+0	1.261731E+0	1.088522E+0	1.169255E+0	1.069789E+0	1.268183E+0	1.216817E+0	1.113748E+0	1.222542E+0	1.216109E+0	1.214526E+0	1.201988E+0	1.267295E+0	1.212781E+0	1.115646E+0	1.148005E+0	1.192444E+0	1.251491E+0	1.256304E+0	1.120950E+0	1.164626E+0	1.215613E+0	1.255814E+0	1.139034E+0	1.225900E+0	1.261302E+0	1.225204E+0	1.218203E+0	1.224642E+0	1.245034E+0	1.176663E+0	1.177861E+0	1.258460E+0	1.267676E+0	1.148093E+0	1.126399E+0	1.306895E+0	1.234676E+0	1.202066E+0	1.157924E+0	1.267999E+0	1.202487E+0	1.149985E+0	1.180492E+0	1.217232E+0	1.183681E+0	1.107199E+0	1.106343E+0	1.237958E+0	1.248963E+0	1.113227E+0	1.068713E+0	1.248990E+0	1.179893E+0	1.286100E+0	9.530758E-1	1.247229E+0	1.249999E+0	1.189291E+0	1.179477E+0	1.230587E+0	1.200633E+0	1.150634E+0	1.227943E+0	1.217592E+0	1.205211E+0	1.223812E+0	1.168013E+0	1.204338E+0	1.186062E+0	1.239412E+0	1.184415E+0	1.251839E+0	1.174653E+0	1.199619E+0	1.249851E+0	1.243831E+0	1.155455E+0	1.095038E+0	1.185294E+0	1.195953E+0	1.064162E+0
5.460000E+2	1.209107E+0	1.202371E+0	1.295319E+0	1.223595E+0	1.271659E+0	1.268976E+0	1.242866E+0	1.088830E+0	1.132528E+0	1.167434E+0	1.249243E+0	1.147266E+0	1.151864E+0	1.200169E+0	1.261044E+0	1.173398E+0	1.139808E+0	1.245302E+0	1.192308E+0	1.196566E+0	1.197032E+0	1.245763E+0	1.230097E+0	1.105158E+0	1.175332E+0	1.200990E+0	1.239463E+0	1.148752E+0	1.102024E+0	1.200226E+0	1.262024E+0	1.177985E+0	1.096156E+0	1.203598E+0	1.220610E+0	1.156741E+0	1.212432E+0	1.319561E+0	1.185653E+0	1.165808E+0	1.207872E+0	1.271333E+0	1.262193E+0	1.197352E+0	1.156097E+0	1.243106E+0	1.276557E+0	1.198483E+0	1.142702E+0	1.190655E+0	1.257233E+0	1.202386E+0	1.213278E+0	1.247846E+0	1.215283E+0	1.179854E+0	1.182838E+0	1.226679E+0	1.254534E+0	1.080155E+0	1.144562E+0	1.198024E+0	1.251817E+0	1.218853E+0	1.132583E+0	1.227143E+0	1.228478E+0	1.113129E+0	1.181924E+0	1.250272E+0	1.229336E+0	1.095187E+0	1.192081E+0	1.220473E+0	1.221737E+0	1.133638E+0	1.200746E+0	1.282078E+0	1.258236E+0	1.196239E+0	1.103140E+0	1.228975E+0	1.261471E+0	1.174806E+0	1.239645E+0	1.237414E+0	1.314061E+0	1.110188E+0	1.195556E+0	1.246371E+0	1.219454E+0	1.154810E+0	1.135368E+0	1.126338E+0	1.219120E+0	1.235580E+0	1.194134E+0	1.231936E+0	1.226897E+0	1.208537E+0	1.174511E+0	1.260904E+0	1.249225E+0	1.157823E+0	1.131651E+0	1.219255E+0	1.276977E+0	1.178195E+0	1.143122E+0	1.208001E+0	1.261570E+0	1.257904E+0	1.133282E+0	1.203720E+0	1.204132E+0	1.232847E+0	1.255483E+0	1.198490E+0	1.283732E+0	1.173713E+0	1.183177E+0	1.240730E+0	1.216463E+0	1.162197E+0	1.088307E+0	1.226583E+0	1.191575E+0	1.296588E+0	1.157264E+0	1.224850E+0	1.261469E+0	1.167049E+0	1.203672E+0	1.230257E+0	1.266962E+0	1.121876E+0	1.148905E+0	1.229367E+0	1.252300E+0	1.095494E+0	1.096961E+0	1.217481E+0	1.273081E+0	1.252914E+0	9.457340E-1	1.190859E+0	1.203545E+0	1.204503E+0	1.195148E+0	1.228651E+0	1.197411E+0	1.157210E+0	1.203223E+0	1.213344E+0	1.257155E+0	1.166038E+0	1.193261E+0	1.234788E+0	1.302879E+0	1.213219E+0	1.234959E+0	1.175301E+0	1.283161E+0	1.233312E+0	1.211946E+0	1.249652E+0	1.241214E+0	1.103699E+0	1.203191E+0	1.232029E+0	1.202106E+0
5.467600E+2	1.216422E+0	1.312818E+0	1.310104E+0	1.207166E+0	1.292950E+0	1.246502E+0	1.228938E+0	1.169643E+0	1.127615E+0	1.243870E+0	1.267793E+0	1.141455E+0	1.108909E+0	1.248165E+0	1.281950E+0	1.235993E+0	1.088806E+0	1.238668E+0	1.272145E+0	1.152797E+0	1.167010E+0	1.240347E+0	1.267428E+0	1.126175E+0	1.278226E+0	1.262210E+0	1.256530E+0	1.163765E+0	1.173440E+0	1.241141E+0	1.281033E+0	1.215450E+0	1.166573E+0	1.259983E+0	1.258281E+0	1.187851E+0	1.235826E+0	1.271788E+0	1.271169E+0	1.168430E+0	1.236743E+0	1.252657E+0	1.270514E+0	1.178227E+0	1.148020E+0	1.272850E+0	1.266205E+0	1.228577E+0	1.172574E+0	1.227761E+0	1.312717E+0	1.147981E+0	1.249562E+0	1.249210E+0	1.319035E+0	1.123316E+0	1.175804E+0	1.270093E+0	1.273908E+0	1.131869E+0	1.152951E+0	1.263634E+0	1.272560E+0	1.241198E+0	1.121432E+0	1.263301E+0	1.287730E+0	1.179330E+0	1.192707E+0	1.274225E+0	1.290997E+0	1.121496E+0	1.183948E+0	1.258928E+0	1.237961E+0	1.132986E+0	1.226739E+0	1.263932E+0	1.272368E+0	1.207287E+0	1.142682E+0	1.212697E+0	1.239233E+0	1.178461E+0	1.272895E+0	1.271118E+0	1.265058E+0	1.145731E+0	1.277524E+0	1.267218E+0	1.255225E+0	1.136168E+0	1.143526E+0	1.127027E+0	1.261390E+0	1.241140E+0	1.084943E+0	1.230683E+0	1.309602E+0	1.230245E+0	1.222092E+0	1.262823E+0	1.235157E+0	1.148979E+0	1.205245E+0	1.197023E+0	1.241297E+0	1.231033E+0	1.120349E+0	1.270796E+0	1.252753E+0	1.248841E+0	1.125611E+0	1.196094E+0	1.257938E+0	1.184704E+0	1.237182E+0	1.223334E+0	1.282418E+0	1.212054E+0	1.163239E+0	1.264135E+0	1.228779E+0	1.197121E+0	1.210832E+0	1.238434E+0	1.262337E+0	1.237099E+0	1.155276E+0	1.245076E+0	1.224067E+0	1.221529E+0	1.233118E+0	1.228198E+0	1.295379E+0	1.123711E+0	1.160008E+0	1.285206E+0	1.259634E+0	1.112570E+0	1.093677E+0	1.212977E+0	1.283209E+0	1.222492E+0	9.659232E-1	1.288345E+0	1.208548E+0	1.231307E+0	1.191060E+0	1.270613E+0	1.247052E+0	1.156552E+0	1.227943E+0	1.264327E+0	1.242989E+0	1.152969E+0	1.191214E+0	1.289066E+0	1.264174E+0	1.186356E+0	1.223296E+0	1.228290E+0	1.235728E+0	1.154922E+0	1.305101E+0	1.217298E+0	1.278279E+0	1.070629E+0	1.225861E+0	1.190257E+0	1.234188E+0
5.475180E+2	1.277859E+0	1.303901E+0	1.339676E+0	1.303504E+0	1.253696E+0	1.354376E+0	1.314706E+0	1.146098E+0	1.229558E+0	1.298563E+0	1.306219E+0	1.218929E+0	1.187206E+0	1.365081E+0	1.331895E+0	1.299918E+0	1.150608E+0	1.338812E+0	1.340326E+0	1.270841E+0	1.225807E+0	1.317408E+0	1.332611E+0	1.235726E+0	1.200883E+0	1.294431E+0	1.355902E+0	1.209430E+0	1.184240E+0	1.308906E+0	1.344391E+0	1.294188E+0	1.205210E+0	1.300744E+0	1.365812E+0	1.270588E+0	1.276020E+0	1.304066E+0	1.282267E+0	1.233968E+0	1.245679E+0	1.279707E+0	1.331950E+0	1.215769E+0	1.216377E+0	1.338539E+0	1.316125E+0	1.342930E+0	1.243523E+0	1.253397E+0	1.328760E+0	1.267030E+0	1.359645E+0	1.301680E+0	1.376470E+0	1.146561E+0	1.196268E+0	1.376137E+0	1.297161E+0	1.134453E+0	1.166135E+0	1.291467E+0	1.321821E+0	1.315896E+0	1.215899E+0	1.301433E+0	1.272755E+0	1.197680E+0	1.291028E+0	1.354684E+0	1.304076E+0	1.112141E+0	1.312209E+0	1.276018E+0	1.263918E+0	1.134289E+0	1.190471E+0	1.304409E+0	1.287785E+0	1.317768E+0	1.242197E+0	1.296800E+0	1.302774E+0	1.252271E+0	1.237652E+0	1.353187E+0	1.366243E+0	1.181922E+0	1.256225E+0	1.310402E+0	1.341082E+0	1.163786E+0	1.328030E+0	1.168403E+0	1.251577E+0	1.332173E+0	1.192796E+0	1.254485E+0	1.300972E+0	1.239227E+0	1.275035E+0	1.323515E+0	1.354079E+0	1.249661E+0	1.236591E+0	1.293800E+0	1.333685E+0	1.283872E+0	1.201859E+0	1.307050E+0	1.316336E+0	1.374344E+0	1.194008E+0	1.243922E+0	1.360846E+0	1.288632E+0	1.325301E+0	1.333825E+0	1.283076E+0	1.290948E+0	1.286201E+0	1.338609E+0	1.327969E+0	1.303237E+0	1.225433E+0	1.335202E+0	1.219879E+0	1.348147E+0	1.266517E+0	1.336769E+0	1.327646E+0	1.202493E+0	1.320200E+0	1.349530E+0	1.282166E+0	1.186087E+0	1.226626E+0	1.328874E+0	1.361675E+0	1.205832E+0	1.114698E+0	1.287573E+0	1.374371E+0	1.358697E+0	9.916184E-1	1.291661E+0	1.325759E+0	1.308821E+0	1.279639E+0	1.299659E+0	1.274776E+0	1.240056E+0	1.271388E+0	1.380451E+0	1.307750E+0	1.278839E+0	1.320873E+0	1.336062E+0	1.308507E+0	1.333430E+0	1.276428E+0	1.224610E+0	1.351384E+0	1.196868E+0	1.343648E+0	1.278124E+0	1.294267E+0	1.150156E+0	1.293869E+0	1.245321E+0	1.336848E+0
5.482550E+2	1.362701E+0	1.390335E+0	1.438475E+0	1.307985E+0	1.328879E+0	1.393542E+0	1.412205E+0	1.223093E+0	1.295884E+0	1.359183E+0	1.363196E+0	1.319647E+0	1.233968E+0	1.323236E+0	1.423072E+0	1.347195E+0	1.262816E+0	1.393114E+0	1.398602E+0	1.354403E+0	1.352783E+0	1.367983E+0	1.412016E+0	1.175855E+0	1.309301E+0	1.333094E+0	1.383333E+0	1.279491E+0	1.286265E+0	1.350459E+0	1.369736E+0	1.400867E+0	1.306162E+0	1.357810E+0	1.408959E+0	1.337445E+0	1.339612E+0	1.372498E+0	1.384755E+0	1.279187E+0	1.386598E+0	1.478070E+0	1.415783E+0	1.266064E+0	1.295294E+0	1.316229E+0	1.395872E+0	1.358310E+0	1.229831E+0	1.382930E+0	1.394943E+0	1.305433E+0	1.426062E+0	1.376642E+0	1.396846E+0	1.272829E+0	1.226329E+0	1.339129E+0	1.366913E+0	1.238526E+0	1.262629E+0	1.330570E+0	1.416455E+0	1.376546E+0	1.267069E+0	1.328389E+0	1.340470E+0	1.207513E+0	1.391885E+0	1.413028E+0	1.378195E+0	1.213290E+0	1.386663E+0	1.387108E+0	1.350224E+0	1.224902E+0	1.336149E+0	1.427232E+0	1.412407E+0	1.366794E+0	1.238244E+0	1.361231E+0	1.335181E+0	1.329735E+0	1.379284E+0	1.351721E+0	1.401882E+0	1.240087E+0	1.332381E+0	1.331992E+0	1.361894E+0	1.228003E+0	1.327405E+0	1.236676E+0	1.375364E+0	1.446144E+0	1.284571E+0	1.300209E+0	1.416040E+0	1.333540E+0	1.323289E+0	1.423813E+0	1.373260E+0	1.354422E+0	1.310867E+0	1.372921E+0	1.394854E+0	1.340539E+0	1.324726E+0	1.333593E+0	1.416430E+0	1.405719E+0	1.273275E+0	1.368690E+0	1.383711E+0	1.369637E+0	1.352414E+0	1.269756E+0	1.439171E+0	1.372054E+0	1.326078E+0	1.374783E+0	1.405761E+0	1.318687E+0	1.239400E+0	1.402348E+0	1.364624E+0	1.357398E+0	1.284398E+0	1.401493E+0	1.385191E+0	1.314737E+0	1.390993E+0	1.404369E+0	1.350240E+0	1.261915E+0	1.247598E+0	1.385428E+0	1.367011E+0	1.249179E+0	1.211265E+0	1.356379E+0	1.380448E+0	1.409860E+0	1.041785E+0	1.396440E+0	1.449400E+0	1.357358E+0	1.379805E+0	1.392617E+0	1.369546E+0	1.305806E+0	1.343300E+0	1.384701E+0	1.330011E+0	1.307726E+0	1.308591E+0	1.338049E+0	1.407030E+0	1.397897E+0	1.317899E+0	1.371799E+0	1.407912E+0	1.263569E+0	1.364848E+0	1.375193E+0	1.333513E+0	1.287949E+0	1.421535E+0	1.401020E+0	1.352887E+0
5.490160E+2	1.354656E+0	1.397884E+0	1.342366E+0	1.327402E+0	1.386762E+0	1.406386E+0	1.408540E+0	1.249817E+0	1.287901E+0	1.372363E+0	1.407588E+0	1.295757E+0	1.285626E+0	1.389694E+0	1.383581E+0	1.379161E+0	1.228014E+0	1.403973E+0	1.407926E+0	1.333183E+0	1.339649E+0	1.407721E+0	1.378833E+0	1.258654E+0	1.302395E+0	1.394313E+0	1.466853E+0	1.337039E+0	1.252657E+0	1.335757E+0	1.346122E+0	1.372927E+0	1.212689E+0	1.389737E+0	1.340469E+0	1.324869E+0	1.352809E+0	1.408007E+0	1.436326E+0	1.304090E+0	1.361163E+0	1.318995E+0	1.417706E+0	1.270314E+0	1.309589E+0	1.376342E+0	1.347783E+0	1.390412E+0	1.275885E+0	1.372813E+0	1.417673E+0	1.343196E+0	1.392237E+0	1.403218E+0	1.433902E+0	1.287277E+0	1.283886E+0	1.433787E+0	1.379828E+0	1.199094E+0	1.250643E+0	1.376960E+0	1.454695E+0	1.381014E+0	1.295933E+0	1.393473E+0	1.471346E+0	1.347779E+0	1.381099E+0	1.360822E+0	1.416811E+0	1.185224E+0	1.302199E+0	1.396365E+0	1.363204E+0	1.177314E+0	1.285979E+0	1.365122E+0	1.411763E+0	1.372316E+0	1.283057E+0	1.419561E+0	1.391731E+0	1.288079E+0	1.371970E+0	1.390560E+0	1.383425E+0	1.289203E+0	1.391112E+0	1.396023E+0	1.419134E+0	1.248026E+0	1.330542E+0	1.275294E+0	1.422162E+0	1.346770E+0	1.239018E+0	1.340923E+0	1.428264E+0	1.318568E+0	1.352775E+0	1.408480E+0	1.372622E+0	1.255783E+0	1.282245E+0	1.348072E+0	1.401861E+0	1.339007E+0	1.254601E+0	1.340066E+0	1.327037E+0	1.356217E+0	1.305236E+0	1.424144E+0	1.436850E+0	1.407844E+0	1.374783E+0	1.363899E+0	1.420153E+0	1.349196E+0	1.326743E+0	1.392515E+0	1.364272E+0	1.313313E+0	1.249558E+0	1.355608E+0	1.373629E+0	1.381195E+0	1.352597E+0	1.381941E+0	1.352106E+0	1.260913E+0	1.351524E+0	1.411225E+0	1.388578E+0	1.274144E+0	1.258702E+0	1.341043E+0	1.372345E+0	1.194666E+0	1.253965E+0	1.367953E+0	1.372344E+0	1.360081E+0	1.051573E+0	1.418989E+0	1.398656E+0	1.367497E+0	1.375715E+0	1.379708E+0	1.403717E+0	1.299229E+0	1.374012E+0	1.432140E+0	1.387351E+0	1.345558E+0	1.362500E+0	1.406890E+0	1.336659E+0	1.365662E+0	1.328914E+0	1.335738E+0	1.439098E+0	1.360524E+0	1.433593E+0	1.397194E+0	1.421452E+0	1.209210E+0	1.377388E+0	1.374437E+0	1.484417E+0
5.497680E+2	1.394152E+0	1.320365E+0	1.283221E+0	1.314706E+0	1.313577E+0	1.400608E+0	1.349161E+0	1.369447E+0	1.241226E+0	1.350615E+0	1.338020E+0	1.372588E+0	1.264416E+0	1.299240E+0	1.342930E+0	1.407126E+0	1.228014E+0	1.359327E+0	1.389860E+0	1.323896E+0	1.317755E+0	1.305970E+0	1.342685E+0	1.306426E+0	1.290656E+0	1.344050E+0	1.312009E+0	1.310767E+0	1.196245E+0	1.306986E+0	1.324234E+0	1.297999E+0	1.212065E+0	1.302782E+0	1.313074E+0	1.297068E+0	1.287419E+0	1.334409E+0	1.318822E+0	1.263457E+0	1.339853E+0	1.333805E+0	1.294191E+0	1.290149E+0	1.262360E+0	1.264795E+0	1.333171E+0	1.383058E+0	1.250989E+0	1.300624E+0	1.356839E+0	1.271512E+0	1.387933E+0	1.387545E+0	1.297421E+0	1.201214E+0	1.230802E+0	1.298561E+0	1.345595E+0	1.193925E+0	1.185314E+0	1.294117E+0	1.349693E+0	1.358669E+0	1.212617E+0	1.334304E+0	1.290987E+0	1.223900E+0	1.325915E+0	1.357754E+0	1.324009E+0	1.164762E+0	1.293440E+0	1.317320E+0	1.322320E+0	1.185138E+0	1.298065E+0	1.328835E+0	1.389281E+0	1.369554E+0	1.241539E+0	1.309684E+0	1.361229E+0	1.282964E+0	1.279544E+0	1.379568E+0	1.403155E+0	1.238148E+0	1.298819E+0	1.338694E+0	1.333927E+0	1.185192E+0	1.270924E+0	1.236676E+0	1.345171E+0	1.240446E+0	1.198155E+0	1.335909E+0	1.351312E+0	1.277401E+0	1.320608E+0	1.331820E+0	1.300372E+0	1.273470E+0	1.181395E+0	1.256526E+0	1.377649E+0	1.325222E+0	1.233026E+0	1.275327E+0	1.311299E+0	1.333206E+0	1.234919E+0	1.257093E+0	1.383713E+0	1.329898E+0	1.321235E+0	1.279562E+0	1.384079E+0	1.302006E+0	1.217076E+0	1.340026E+0	1.340286E+0	1.200479E+0	1.210833E+0	1.374701E+0	1.286783E+0	1.299894E+0	1.283734E+0	1.323960E+0	1.313260E+0	1.195931E+0	1.303911E+0	1.318683E+0	1.284805E+0	1.213604E+0	1.232795E+0	1.296660E+0	1.304318E+0	1.171023E+0	1.161997E+0	1.342232E+0	1.337230E+0	1.333806E+0	1.043620E+0	1.302935E+0	1.339337E+0	1.261733E+0	1.271462E+0	1.350659E+0	1.337954E+0	1.238083E+0	1.305097E+0	1.273533E+0	1.337434E+0	1.263706E+0	1.305177E+0	1.381076E+0	1.314139E+0	1.332086E+0	1.332154E+0	1.287165E+0	1.412459E+0	1.259442E+0	1.323090E+0	1.315011E+0	1.340055E+0	1.185588E+0	1.308186E+0	1.395324E+0	1.394592E+0
5.505060E+2	1.321742E+0	1.277832E+0	1.279860E+0	1.319187E+0	1.287627E+0	1.276040E+0	1.275854E+0	1.318540E+0	1.184115E+0	1.271545E+0	1.300258E+0	1.253149E+0	1.197539E+0	1.281395E+0	1.304019E+0	1.279276E+0	1.205212E+0	1.351484E+0	1.295453E+0	1.300686E+0	1.333392E+0	1.295733E+0	1.292911E+0	1.258656E+0	1.218148E+0	1.318271E+0	1.290671E+0	1.307015E+0	1.154836E+0	1.236665E+0	1.309830E+0	1.231325E+0	1.190254E+0	1.243002E+0	1.341840E+0	1.334133E+0	1.228030E+0	1.273726E+0	1.345587E+0	1.305401E+0	1.266301E+0	1.301603E+0	1.290353E+0	1.293691E+0	1.243720E+0	1.310034E+0	1.380043E+0	1.266024E+0	1.222362E+0	1.258121E+0	1.321409E+0	1.334875E+0	1.297529E+0	1.296230E+0	1.369057E+0	1.331877E+0	1.230804E+0	1.317066E+0	1.312660E+0	1.303813E+0	1.166736E+0	1.262308E+0	1.327006E+0	1.351008E+0	1.162104E+0	1.285655E+0	1.262337E+0	1.140003E+0	1.264385E+0	1.263171E+0	1.268572E+0	1.241355E+0	1.283428E+0	1.323730E+0	1.339194E+0	1.186439E+0	1.209813E+0	1.246485E+0	1.326330E+0	1.302579E+0	1.244175E+0	1.277808E+0	1.345345E+0	1.236924E+0	1.238316E+0	1.298230E+0	1.294332E+0	1.149610E+0	1.283975E+0	1.279130E+0	1.261731E+0	1.223861E+0	1.223228E+0	1.205643E+0	1.281013E+0	1.272413E+0	1.163990E+0	1.277659E+0	1.295935E+0	1.301354E+0	1.260292E+0	1.344596E+0	1.296536E+0	1.231292E+0	1.225007E+0	1.280721E+0	1.338147E+0	1.258601E+0	1.133533E+0	1.242959E+0	1.254644E+0	1.335996E+0	1.185700E+0	1.283434E+0	1.315782E+0	1.276405E+0	1.300220E+0	1.290022E+0	1.266021E+0	1.186986E+0	1.227710E+0	1.279739E+0	1.281293E+0	1.206523E+0	1.128937E+0	1.297023E+0	1.270702E+0	1.313774E+0	1.231423E+0	1.338792E+0	1.328367E+0	1.234002E+0	1.293262E+0	1.304286E+0	1.318516E+0	1.179969E+0	1.188383E+0	1.283774E+0	1.280977E+0	1.140155E+0	1.157398E+0	1.272139E+0	1.346009E+0	1.344871E+0	9.726524E-1	1.325481E+0	1.256432E+0	1.240001E+0	1.242846E+0	1.346786E+0	1.256079E+0	1.194030E+0	1.287119E+0	1.344340E+0	1.217355E+0	1.205931E+0	1.261503E+0	1.284433E+0	1.282471E+0	1.289105E+0	1.240140E+0	1.291581E+0	1.283160E+0	1.178990E+0	1.264628E+0	1.249654E+0	1.316798E+0	1.148581E+0	1.267621E+0	1.237725E+0	1.247021E+0
5.512570E+2	1.340757E+0	1.225696E+0	1.331611E+0	1.243012E+0	1.235065E+0	1.292733E+0	1.273654E+0	1.336357E+0	1.187183E+0	1.286702E+0	1.340672E+0	1.298340E+0	1.193734E+0	1.247550E+0	1.281372E+0	1.331880E+0	1.146409E+0	1.291757E+0	1.266315E+0	1.310635E+0	1.276471E+0	1.329450E+0	1.298243E+0	1.247828E+0	1.228506E+0	1.278318E+0	1.291281E+0	1.270108E+0	1.207648E+0	1.203424E+0	1.251081E+0	1.254820E+0	1.153486E+0	1.227376E+0	1.295264E+0	1.314275E+0	1.250224E+0	1.296321E+0	1.328614E+0	1.340135E+0	1.253929E+0	1.284858E+0	1.296112E+0	1.290149E+0	1.202086E+0	1.256121E+0	1.317953E+0	1.266694E+0	1.170710E+0	1.248001E+0	1.334111E+0	1.307995E+0	1.258170E+0	1.264881E+0	1.351148E+0	1.333135E+0	1.228245E+0	1.282904E+0	1.322992E+0	1.291532E+0	1.167935E+0	1.292795E+0	1.295893E+0	1.331857E+0	1.118805E+0	1.276449E+0	1.302054E+0	1.270436E+0	1.275169E+0	1.291425E+0	1.303453E+0	1.302161E+0	1.190829E+0	1.248958E+0	1.297661E+0	1.245112E+0	1.215253E+0	1.169023E+0	1.393136E+0	1.243195E+0	1.182224E+0	1.237113E+0	1.326282E+0	1.276389E+0	1.310795E+0	1.240344E+0	1.270784E+0	1.247194E+0	1.242670E+0	1.329014E+0	1.311162E+0	1.274958E+0	1.235152E+0	1.129785E+0	1.212327E+0	1.239750E+0	1.206194E+0	1.310858E+0	1.275081E+0	1.301355E+0	1.260962E+0	1.303709E+0	1.263929E+0	1.265308E+0	1.179351E+0	1.287261E+0	1.296727E+0	1.274682E+0	1.146120E+0	1.266911E+0	1.308782E+0	1.333905E+0	1.146067E+0	1.329874E+0	1.327216E+0	1.203807E+0	1.320558E+0	1.285447E+0	1.231260E+0	1.220165E+0	1.195141E+0	1.344991E+0	1.278697E+0	1.229360E+0	1.137825E+0	1.347709E+0	1.291929E+0	1.262218E+0	1.211558E+0	1.239681E+0	1.312541E+0	1.175584E+0	1.283237E+0	1.345418E+0	1.256386E+0	1.139609E+0	1.184682E+0	1.275899E+0	1.278976E+0	1.124392E+0	1.131121E+0	1.222624E+0	1.297390E+0	1.328274E+0	9.683706E-1	1.273094E+0	1.251428E+0	1.253040E+0	1.248977E+0	1.300951E+0	1.290893E+0	1.222960E+0	1.251164E+0	1.279905E+0	1.263900E+0	1.229316E+0	1.313367E+0	1.248027E+0	1.342992E+0	1.295151E+0	1.273190E+0	1.256991E+0	1.332541E+0	1.234688E+0	1.260772E+0	1.253538E+0	1.270284E+0	1.077716E+0	1.238985E+0	1.239625E+0	1.272684E+0
5.520100E+2	1.252259E+0	1.263426E+0	1.305399E+0	1.290061E+0	1.274321E+0	1.287596E+0	1.278786E+0	1.314087E+0	1.192097E+0	1.264296E+0	1.347297E+0	1.233133E+0	1.152409E+0	1.285086E+0	1.310989E+0	1.301917E+0	1.165008E+0	1.306235E+0	1.300701E+0	1.302674E+0	1.268342E+0	1.257806E+0	1.240763E+0	1.281583E+0	1.158070E+0	1.253834E+0	1.204103E+0	1.298255E+0	1.184240E+0	1.223882E+0	1.264904E+0	1.285301E+0	1.146008E+0	1.283761E+0	1.310334E+0	1.234846E+0	1.241224E+0	1.303423E+0	1.267904E+0	1.279188E+0	1.251177E+0	1.277130E+0	1.292272E+0	1.279524E+0	1.177850E+0	1.220178E+0	1.269860E+0	1.348284E+0	1.181909E+0	1.222364E+0	1.312719E+0	1.285591E+0	1.298758E+0	1.311901E+0	1.274572E+0	1.303609E+0	1.200748E+0	1.251589E+0	1.213197E+0	1.257272E+0	1.163739E+0	1.286828E+0	1.334135E+0	1.301848E+0	1.152264E+0	1.240948E+0	1.337865E+0	1.210135E+0	1.196512E+0	1.236763E+0	1.289752E+0	1.264743E+0	1.281550E+0	1.263200E+0	1.254834E+0	1.288786E+0	1.240037E+0	1.276495E+0	1.242175E+0	1.304649E+0	1.154545E+0	1.245251E+0	1.283075E+0	1.268347E+0	1.290180E+0	1.281378E+0	1.279693E+0	1.247842E+0	1.227181E+0	1.269451E+0	1.286446E+0	1.244575E+0	1.197495E+0	1.158749E+0	1.265163E+0	1.196664E+0	1.142553E+0	1.242587E+0	1.316792E+0	1.287880E+0	1.250911E+0	1.315209E+0	1.295897E+0	1.268708E+0	1.239998E+0	1.282685E+0	1.320942E+0	1.324456E+0	1.192869E+0	1.292159E+0	1.267862E+0	1.346455E+0	1.149262E+0	1.293137E+0	1.265336E+0	1.196166E+0	1.264973E+0	1.274331E+0	1.302096E+0	1.255555E+0	1.184509E+0	1.253497E+0	1.292312E+0	1.243464E+0	1.172108E+0	1.286489E+0	1.333100E+0	1.314437E+0	1.177127E+0	1.276089E+0	1.274418E+0	1.226780E+0	1.258179E+0	1.289209E+0	1.218710E+0	1.239289E+0	1.138416E+0	1.285207E+0	1.254299E+0	1.250491E+0	1.150829E+0	1.265065E+0	1.283208E+0	1.263287E+0	1.016702E+0	1.292990E+0	1.232133E+0	1.223339E+0	1.244207E+0	1.253828E+0	1.255434E+0	1.248604E+0	1.220452E+0	1.277778E+0	1.284139E+0	1.196302E+0	1.217145E+0	1.278473E+0	1.308510E+0	1.252843E+0	1.205800E+0	1.231969E+0	1.311749E+0	1.192744E+0	1.339153E+0	1.278127E+0	1.258657E+0	1.144644E+0	1.247337E+0	1.315575E+0	1.176443E+0
5.527590E+2	1.315160E+0	1.228441E+0	1.273139E+0	1.270644E+0	1.276318E+0	1.239439E+0	1.263392E+0	1.343355E+0	1.153408E+0	1.247825E+0	1.291645E+0	1.289302E+0	1.174702E+0	1.301084E+0	1.256979E+0	1.286601E+0	1.094804E+0	1.254954E+0	1.276808E+0	1.266202E+0	1.269592E+0	1.290921E+0	1.265651E+0	1.285406E+0	1.200194E+0	1.237720E+0	1.241290E+0	1.280742E+0	1.106224E+0	1.276302E+0	1.263177E+0	1.230688E+0	1.175922E+0	1.286477E+0	1.285677E+0	1.294421E+0	1.246628E+0	1.287928E+0	1.277044E+0	1.306057E+0	1.252553E+0	1.259098E+0	1.247475E+0	1.269608E+0	1.212646E+0	1.228855E+0	1.301515E+0	1.310832E+0	1.157016E+0	1.200775E+0	1.291328E+0	1.213905E+0	1.283998E+0	1.274422E+0	1.304214E+0	1.247701E+0	1.155339E+0	1.289309E+0	1.300388E+0	1.275370E+0	1.113394E+0	1.240437E+0	1.293948E+0	1.296103E+0	1.155546E+0	1.213337E+0	1.214803E+0	1.238974E+0	1.195246E+0	1.286508E+0	1.310929E+0	1.320870E+0	1.270291E+0	1.196972E+0	1.241205E+0	1.225555E+0	1.190471E+0	1.261837E+0	1.330183E+0	1.243885E+0	1.137410E+0	1.275774E+0	1.239866E+0	1.312928E+0	1.252945E+0	1.249136E+0	1.269511E+0	1.221345E+0	1.196847E+0	1.221801E+0	1.329377E+0	1.284623E+0	1.207538E+0	1.160128E+0	1.311961E+0	1.292565E+0	1.205525E+0	1.194981E+0	1.275081E+0	1.256443E+0	1.260291E+0	1.244935E+0	1.305487E+0	1.275511E+0	1.175263E+0	1.227754E+0	1.291632E+0	1.299187E+0	1.134134E+0	1.277919E+0	1.272898E+0	1.222345E+0	1.144787E+0	1.277885E+0	1.296275E+0	1.264942E+0	1.241248E+0	1.307019E+0	1.298816E+0	1.317491E+0	1.154598E+0	1.245692E+0	1.310464E+0	1.233389E+0	1.193691E+0	1.303602E+0	1.260408E+0	1.319063E+0	1.193018E+0	1.288899E+0	1.264347E+0	1.226125E+0	1.202421E+0	1.226144E+0	1.257047E+0	1.309002E+0	1.144587E+0	1.244401E+0	1.262302E+0	1.253776E+0	1.058860E+0	1.278570E+0	1.286586E+0	1.307536E+0	1.131106E+0	1.263806E+0	1.300030E+0	1.227686E+0	1.253748E+0	1.261572E+0	1.269617E+0	1.314353E+0	1.212961E+0	1.275655E+0	1.258506E+0	1.287092E+0	1.215099E+0	1.265238E+0	1.262767E+0	1.234038E+0	1.234308E+0	1.262879E+0	1.233129E+0	1.268382E+0	1.321806E+0	1.252241E+0	1.238307E+0	1.221021E+0	1.310573E+0	1.254815E+0	1.304765E+0
5.534940E+2	1.235437E+0	1.219522E+0	1.229453E+0	1.252720E+0	1.199137E+0	1.278608E+0	1.187886E+0	1.196366E+0	1.131913E+0	1.197745E+0	1.308869E+0	1.226031E+0	1.115435E+0	1.205705E+0	1.227941E+0	1.178725E+0	1.117008E+0	1.243493E+0	1.209208E+0	1.195240E+0	1.197034E+0	1.232518E+0	1.264466E+0	1.174580E+0	1.176024E+0	1.196479E+0	1.199836E+0	1.222565E+0	1.065414E+0	1.180409E+0	1.223432E+0	1.179256E+0	1.076837E+0	1.158761E+0	1.248007E+0	1.218962E+0	1.200432E+0	1.240801E+0	1.226126E+0	1.182193E+0	1.191375E+0	1.244929E+0	1.219957E+0	1.179643E+0	1.122542E+0	1.220177E+0	1.209595E+0	1.208514E+0	1.111584E+0	1.202124E+0	1.189717E+0	1.212624E+0	1.148703E+0	1.235580E+0	1.247397E+0	1.224457E+0	1.122725E+0	1.189670E+0	1.190593E+0	1.259855E+0	1.113994E+0	1.166876E+0	1.214872E+0	1.238007E+0	1.073541E+0	1.196244E+0	1.217408E+0	1.169497E+0	1.115954E+0	1.250276E+0	1.197569E+0	1.193996E+0	1.222114E+0	1.270321E+0	1.191887E+0	1.192307E+0	1.148157E+0	1.185074E+0	1.275580E+0	1.231454E+0	1.116320E+0	1.225584E+0	1.222711E+0	1.223039E+0	1.173816E+0	1.173663E+0	1.279058E+0	1.181922E+0	1.173612E+0	1.225523E+0	1.197991E+0	1.248718E+0	1.118422E+0	1.121510E+0	1.200250E+0	1.200139E+0	1.119108E+0	1.218785E+0	1.236246E+0	1.227999E+0	1.212710E+0	1.209160E+0	1.199354E+0	1.312245E+0	1.117342E+0	1.143401E+0	1.252127E+0	1.206528E+0	1.086184E+0	1.204765E+0	1.217500E+0	1.178422E+0	1.108991E+0	1.153119E+0	1.235072E+0	1.189288E+0	1.205321E+0	1.251447E+0	1.219456E+0	1.219427E+0	1.112061E+0	1.247823E+0	1.167842E+0	1.221972E+0	1.096560E+0	1.202885E+0	1.208301E+0	1.226523E+0	1.129452E+0	1.284180E+0	1.216152E+0	1.155235E+0	1.283239E+0	1.239852E+0	1.214745E+0	1.223388E+0	1.126081E+0	1.167802E+0	1.226289E+0	1.180219E+0	1.029956E+0	1.167322E+0	1.227837E+0	1.265358E+0	1.072986E+0	1.251872E+0	1.178530E+0	1.239276E+0	1.168574E+0	1.185400E+0	1.201922E+0	1.203234E+0	1.194235E+0	1.234587E+0	1.207236E+0	1.185296E+0	1.186437E+0	1.222211E+0	1.202248E+0	1.230009E+0	1.132577E+0	1.166471E+0	1.158408E+0	1.160424E+0	1.297392E+0	1.215357E+0	1.185253E+0	1.174565E+0	1.212736E+0	1.163674E+0	1.250230E+0
5.542530E+2	1.151327E+0	1.118679E+0	1.138721E+0	1.130244E+0	1.128611E+0	1.084051E+0	1.131439E+0	1.091375E+0	1.009704E+0	1.102859E+0	1.144564E+0	1.103364E+0	9.881992E-1	1.092485E+0	1.169288E+0	1.086833E+0	9.759985E-1	1.160839E+0	1.127040E+0	1.114332E+0	1.121349E+0	1.131371E+0	1.102692E+0	1.123627E+0	9.978591E-1	1.119796E+0	1.130948E+0	1.138744E+0	9.831965E-1	1.111364E+0	1.051783E+0	1.078293E+0	1.006418E+0	1.136344E+0	1.121983E+0	1.126293E+0	1.049254E+0	1.120078E+0	1.157583E+0	1.117966E+0	1.086888E+0	1.101951E+0	1.128440E+0	1.114473E+0	1.045488E+0	1.070212E+0	1.106105E+0	1.165713E+0	1.036904E+0	1.128588E+0	1.104150E+0	1.143500E+0	1.129023E+0	1.129955E+0	1.155999E+0	1.128340E+0	1.057493E+0	1.166895E+0	1.131820E+0	1.135746E+0	9.815407E-1	1.134402E+0	1.144867E+0	1.148625E+0	1.002034E+0	1.125898E+0	1.115834E+0	1.067249E+0	1.070283E+0	1.117613E+0	1.128433E+0	1.165931E+0	1.058813E+0	1.102260E+0	1.116611E+0	1.097131E+0	1.074411E+0	1.134129E+0	1.104707E+0	1.150666E+0	1.010215E+0	1.125203E+0	1.135661E+0	1.135341E+0	1.151875E+0	1.059354E+0	1.127597E+0	1.105017E+0	1.083256E+0	1.110119E+0	1.112134E+0	1.155500E+0	1.045625E+0	1.049100E+0	1.049288E+0	1.132036E+0	1.020633E+0	1.082240E+0	1.110392E+0	1.162878E+0	1.103472E+0	1.143996E+0	1.160992E+0	1.138775E+0	1.035570E+0	1.061664E+0	1.107492E+0	1.100086E+0	9.980815E-1	1.100537E+0	1.111111E+0	1.109396E+0	1.033561E+0	1.080337E+0	1.103917E+0	1.098351E+0	1.086698E+0	1.098461E+0	1.133534E+0	1.136110E+0	1.071517E+0	1.135046E+0	1.134778E+0	1.135332E+0	1.019109E+0	1.121915E+0	1.100226E+0	1.130678E+0	9.963578E-1	1.094727E+0	1.096747E+0	1.081063E+0	1.116591E+0	1.141828E+0	1.128821E+0	1.135330E+0	1.045276E+0	1.116259E+0	1.092236E+0	1.115854E+0	9.668910E-1	1.093371E+0	1.114392E+0	1.110486E+0	9.897832E-1	1.121227E+0	1.140652E+0	1.092219E+0	1.097029E+0	1.084049E+0	1.138095E+0	1.192057E+0	1.146294E+0	1.146785E+0	1.166760E+0	1.128208E+0	1.062919E+0	1.048123E+0	1.121321E+0	1.087639E+0	1.037324E+0	1.089932E+0	1.149313E+0	1.146672E+0	1.129712E+0	1.102114E+0	1.131472E+0	1.016299E+0	1.073139E+0	1.254815E+0	1.038496E+0
5.550190E+2	1.041617E+0	1.019208E+0	1.020432E+0	1.003286E+0	1.013507E+0	1.017915E+0	1.048603E+0	1.062105E+0	9.599595E-1	9.849101E-1	1.047172E+0	1.020079E+0	9.544888E-1	1.047565E+0	1.036296E+0	1.026236E+0	8.997944E-1	1.041386E+0	1.048367E+0	1.061941E+0	9.580914E-1	1.059726E+0	1.058250E+0	1.029999E+0	9.654030E-1	1.016046E+0	1.039504E+0	1.006130E+0	9.351851E-1	1.019946E+0	1.039111E+0	1.010985E+0	9.316382E-1	1.043954E+0	1.004863E+0	1.040906E+0	1.000661E+0	1.036798E+0	1.025720E+0	1.051119E+0	9.872138E-1	9.712113E-1	1.085563E+0	1.000425E+0	9.777534E-1	1.057817E+0	1.065320E+0	1.009897E+0	1.000186E+0	1.090808E+0	1.033959E+0	1.023810E+0	1.040466E+0	1.022284E+0	1.056569E+0	1.040393E+0	9.334254E-1	1.051599E+0	1.058837E+0	1.056238E+0	9.437828E-1	1.044933E+0	1.037270E+0	1.036263E+0	9.495517E-1	1.071989E+0	1.027933E+0	9.597556E-1	1.039200E+0	1.056811E+0	1.033758E+0	1.025024E+0	9.862347E-1	1.038170E+0	1.062102E+0	1.034550E+0	1.021216E+0	1.044105E+0	1.107278E+0	1.016710E+0	9.482650E-1	1.041101E+0	1.047338E+0	1.054225E+0	1.046812E+0	1.106982E+0	1.049957E+0	1.012602E+0	1.026461E+0	1.026730E+0	1.070506E+0	1.082998E+0	1.004832E+0	9.318658E-1	1.098352E+0	1.030577E+0	9.107701E-1	1.059691E+0	1.068680E+0	9.847303E-1	1.035117E+0	1.012394E+0	9.890030E-1	1.071428E+0	9.647027E-1	1.021121E+0	1.086464E+0	1.117699E+0	9.932868E-1	1.019615E+0	1.019201E+0	1.061984E+0	9.427878E-1	1.071326E+0	1.063560E+0	1.051735E+0	1.016200E+0	1.030467E+0	1.063358E+0	1.076387E+0	1.011033E+0	1.059863E+0	1.049853E+0	1.017798E+0	9.372137E-1	1.089659E+0	9.779992E-1	1.102917E+0	9.884120E-1	1.040790E+0	1.051431E+0	1.032491E+0	1.002568E+0	1.032150E+0	1.030999E+0	1.000795E+0	1.037257E+0	1.035364E+0	1.032212E+0	1.051491E+0	9.163083E-1	1.036782E+0	1.042813E+0	1.060013E+0	9.041331E-1	1.056900E+0	1.062036E+0	1.026297E+0	9.982286E-1	1.012394E+0	1.031075E+0	1.058584E+0	9.942318E-1	1.061107E+0	1.054777E+0	1.030538E+0	9.755695E-1	1.084529E+0	1.080505E+0	1.036600E+0	1.045099E+0	1.067854E+0	1.029758E+0	1.022898E+0	1.073175E+0	1.069758E+0	1.026091E+0	1.004488E+0	1.009904E+0	1.078229E+0	9.486698E-1
5.557710E+2	1.002121E+0	9.869660E-1	9.397806E-1	9.928311E-1	9.509643E-1	9.832412E-1	9.606346E-1	9.704747E-1	9.218839E-1	9.552591E-1	9.557431E-1	9.619731E-1	9.131652E-1	9.743404E-1	1.006098E+0	9.509905E-1	9.135953E-1	9.659737E-1	9.691135E-1	1.014192E+0	1.010008E+0	9.953043E-1	9.960298E-1	9.745868E-1	9.087771E-1	9.999352E-1	1.005974E+0	9.310655E-1	8.529663E-1	9.445097E-1	9.440697E-1	9.481217E-1	9.441020E-1	9.828129E-1	9.802059E-1	1.021710E+0	9.508668E-1	9.896708E-1	9.917749E-1	9.973785E-1	9.597181E-1	9.686355E-1	9.870085E-1	9.557973E-1	9.143683E-1	9.450332E-1	1.033055E+0	9.724475E-1	9.696918E-1	9.606006E-1	1.014573E+0	9.662046E-1	9.808127E-1	9.677669E-1	9.639344E-1	9.725478E-1	9.494138E-1	9.298966E-1	9.865013E-1	1.033613E+0	8.526837E-1	9.634173E-1	9.815270E-1	9.985956E-1	9.016616E-1	1.019394E+0	9.940745E-1	9.341933E-1	9.580077E-1	9.874094E-1	9.963873E-1	9.653867E-1	9.499464E-1	9.747911E-1	9.375088E-1	9.993482E-1	9.196654E-1	9.826928E-1	1.014775E+0	9.994479E-1	9.251991E-1	9.610689E-1	1.007943E+0	1.024993E+0	9.996013E-1	9.457765E-1	1.027683E+0	9.473298E-1	9.464320E-1	9.775890E-1	9.970077E-1	1.023615E+0	9.295233E-1	9.311763E-1	9.828658E-1	1.051425E+0	8.973721E-1	9.582223E-1	9.888531E-1	9.241001E-1	9.399534E-1	9.638410E-1	1.006266E+0	9.863948E-1	9.510739E-1	9.740396E-1	1.011278E+0	1.023509E+0	9.219645E-1	9.820673E-1	9.889833E-1	9.685546E-1	9.050730E-1	9.701246E-1	1.011770E+0	9.646177E-1	1.029079E+0	9.605106E-1	1.035155E+0	9.407191E-1	9.385860E-1	1.002411E+0	9.584448E-1	9.419046E-1	9.137244E-1	9.764332E-1	9.998709E-1	1.030207E+0	9.288182E-1	9.726948E-1	1.046396E+0	9.885133E-1	9.167385E-1	1.041746E+0	9.629198E-1	1.034429E+0	8.725612E-1	9.652088E-1	9.961986E-1	9.654537E-1	8.755795E-1	9.853387E-1	1.042813E+0	1.042037E+0	8.833322E-1	9.879303E-1	9.855632E-1	1.004563E+0	9.989096E-1	9.665606E-1	9.988395E-1	1.013874E+0	9.814984E-1	9.874671E-1	9.738256E-1	9.837673E-1	9.428129E-1	9.786191E-1	9.636877E-1	1.001679E+0	9.394786E-1	1.014866E+0	1.027159E+0	9.850785E-1	1.019209E+0	1.058757E+0	1.013736E+0	9.722053E-1	9.621770E-1	9.681007E-1	1.016041E+0
5.560130E+2	9.458034E-1	9.327714E-1	9.760735E-1	9.674393E-1	9.516296E-1	9.838829E-1	9.965548E-1	9.755657E-1	9.550464E-1	9.934768E-1	1.016033E+0	9.813417E-1	1.008861E+0	1.003877E+0	9.532500E-1	9.596469E-1	9.609976E-1	9.424452E-1	9.592077E-1	9.690959E-1	1.016889E+0	9.627923E-1	9.770686E-1	9.548421E-1	9.398524E-1	9.516048E-1	9.687869E-1	9.635939E-1	9.357852E-1	9.470666E-1	1.021253E+0	9.360569E-1	1.009534E+0	1.001155E+0	9.678780E-1	9.323525E-1	9.856617E-1	9.812786E-1	9.969973E-1	9.528132E-1	9.672799E-1	9.795840E-1	9.710097E-1	9.706729E-1	9.112616E-1	9.617651E-1	1.006879E+0	9.898346E-1	8.987458E-1	9.140500E-1	9.758005E-1	9.796463E-1	9.291535E-1	9.882108E-1	9.849319E-1	1.019663E+0	9.481348E-1	9.711760E-1	9.503336E-1	9.586298E-1	8.910410E-1	9.461865E-1	9.925461E-1	9.673124E-1	8.852613E-1	1.005589E+0	9.882144E-1	8.942117E-1	9.358068E-1	9.996927E-1	9.907816E-1	1.018008E+0	9.449407E-1	9.719425E-1	9.634656E-1	9.302476E-1	9.517022E-1	9.652464E-1	1.002569E+0	9.545650E-1	9.172901E-1	9.888769E-1	9.450372E-1	9.789529E-1	9.450755E-1	9.728885E-1	1.018137E+0	9.596084E-1	9.599849E-1	9.604648E-1	9.911543E-1	1.004281E+0	9.427025E-1	8.566980E-1	9.836205E-1	9.214733E-1	8.390912E-1	9.707496E-1	9.392303E-1	9.735028E-1	9.848544E-1	9.625630E-1	9.966750E-1	9.625849E-1	9.074628E-1	9.982344E-1	9.915256E-1	9.691395E-1	8.788123E-1	9.173299E-1	9.801700E-1	9.804071E-1	8.775852E-1	9.618067E-1	9.626711E-1	9.195313E-1	9.416366E-1	9.605110E-1	9.866203E-1	9.458803E-1	9.432386E-1	9.357394E-1	9.694661E-1	9.835453E-1	8.838864E-1	9.580013E-1	1.008878E+0	9.337024E-1	8.957100E-1	9.598843E-1	9.543234E-1	9.911390E-1	9.574612E-1	9.471490E-1	9.516840E-1	9.310820E-1	9.416469E-1	1.016036E+0	1.018874E+0	1.007487E+0	8.749225E-1	9.371095E-1	1.003646E+0	9.694402E-1	8.918974E-1	9.912460E-1	9.641226E-1	9.683429E-1	9.920957E-1	9.781808E-1	9.575786E-1	1.011901E+0	9.627712E-1	9.534790E-1	1.013627E+0	9.046694E-1	9.264346E-1	9.468466E-1	9.904297E-1	9.788455E-1	9.329986E-1	9.648218E-1	1.004418E+0	8.984370E-1	9.742375E-1	9.908111E-1	1.025364E+0	9.525202E-1	9.908124E-1	1.057343E+0	9.839585E-1
5.565090E+2	9.706705E-1	9.711875E-1	9.841386E-1	9.666925E-1	9.922156E-1	9.896618E-1	9.877579E-1	9.838377E-1	9.495191E-1	9.552589E-1	9.617058E-1	9.903806E-1	1.003426E+0	9.380360E-1	1.011324E+0	1.014250E+0	9.555976E-1	9.683870E-1	9.895106E-1	9.982757E-1	9.555894E-1	9.645986E-1	1.000179E+0	9.822302E-1	9.895721E-1	9.818922E-1	9.706159E-1	9.579639E-1	9.999999E-1	9.330024E-1	9.694147E-1	9.697116E-1	1.005796E+0	9.101232E-1	9.932195E-1	9.608147E-1	9.904616E-1	9.896710E-1	9.800247E-1	9.750961E-1	9.975252E-1	9.667031E-1	1.005568E+0	1.017426E+0	1.006339E+0	1.011340E+0	9.910511E-1	9.764604E-1	9.522666E-1	9.423851E-1	1.023263E+0	9.764460E-1	9.906526E-1	9.773076E-1	9.849316E-1	9.838546E-1	9.992963E-1	9.654821E-1	1.014919E+0	9.230772E-1	9.917288E-1	9.395593E-1	9.802304E-1	9.596510E-1	9.823527E-1	9.523362E-1	9.497986E-1	9.558234E-1	1.004947E+0	9.929372E-1	9.515420E-1	1.025025E+0	9.874866E-1	9.876089E-1	1.021220E+0	9.465447E-1	1.031493E+0	9.457058E-1	9.653117E-1	9.428268E-1	9.878077E-1	9.637820E-1	9.615575E-1	9.599524E-1	9.550495E-1	9.509054E-1	9.729536E-1	9.466832E-1	9.645030E-1	9.232376E-1	1.014570E+0	9.545650E-1	9.577647E-1	8.773866E-1	9.655053E-1	9.812371E-1	1.008575E+0	9.594752E-1	9.730317E-1	9.944608E-1	9.727912E-1	9.855624E-1	9.589529E-1	9.816327E-1	9.537993E-1	9.753477E-1	9.615784E-1	1.000536E+0	9.063821E-1	9.568197E-1	9.921309E-1	9.643718E-1	9.376741E-1	9.999306E-1	9.532549E-1	9.890724E-1	9.965430E-1	9.592036E-1	9.531709E-1	9.650511E-1	9.352627E-1	9.435418E-1	9.902106E-1	9.835454E-1	8.457957E-1	9.863076E-1	1.015310E+0	9.872429E-1	9.255073E-1	9.686492E-1	1.011149E+0	9.977027E-1	9.511957E-1	9.869072E-1	9.768003E-1	9.573771E-1	8.620752E-1	9.916955E-1	9.948647E-1	9.621700E-1	8.709810E-1	9.351804E-1	1.011075E+0	1.000553E+0	8.821088E-1	9.574249E-1	9.119496E-1	1.005288E+0	9.757427E-1	9.878638E-1	9.562883E-1	9.599577E-1	9.942323E-1	1.037033E+0	9.812460E-1	9.397476E-1	9.612386E-1	9.700147E-1	1.001688E+0	9.721300E-1	9.018962E-1	9.537830E-1	1.018063E+0	9.658248E-1	9.318355E-1	1.008930E+0	9.977472E-1	9.800790E-1	8.989410E-1	9.946842E-1	9.197993E-1
5.570100E+2	9.926129E-1	1.011662E+0	1.039250E+0	1.001792E+0	1.031471E+0	9.903041E-1	9.980207E-1	9.832013E-1	1.004790E+0	1.038943E+0	1.004770E+0	9.658466E-1	1.006145E+0	9.934160E-1	9.695109E-1	1.002930E+0	1.038401E+0	1.032939E+0	9.580422E-1	9.830224E-1	1.020642E+0	9.495460E-1	9.835857E-1	1.012802E+0	9.999314E-1	9.825362E-1	1.047429E+0	9.917428E-1	1.003001E+0	9.144625E-1	9.573179E-1	1.023685E+0	9.615502E-1	9.563183E-1	9.706173E-1	1.008473E+0	9.940608E-1	9.606199E-1	1.037470E+0	1.028836E+0	1.003712E+0	9.782955E-1	1.048446E+0	1.023093E+0	1.056051E+0	9.140485E-1	9.721801E-1	1.011904E+0	1.082335E+0	9.929834E-1	9.798114E-1	9.969276E-1	1.030010E+0	1.034550E+0	1.044835E+0	1.023432E+0	9.922619E-1	1.024554E+0	9.793969E-1	1.000646E+0	1.009110E+0	9.799856E-1	9.776379E-1	1.003703E+0	1.007282E+0	9.852081E-1	9.999351E-1	1.043652E+0	1.001142E+0	1.026102E+0	9.752104E-1	1.027363E+0	1.000626E+0	1.008972E+0	1.008890E+0	1.031943E+0	9.619787E-1	9.868801E-1	9.961459E-1	9.808040E-1	9.792402E-1	1.036354E+0	1.053692E+0	9.774917E-1	9.902921E-1	1.047629E+0	1.007319E+0	1.007432E+0	9.967730E-1	9.954581E-1	1.011317E+0	1.035354E+0	1.028680E+0	9.408312E-1	1.035702E+0	1.035441E+0	1.065516E+0	9.732553E-1	1.011866E+0	1.022905E+0	1.028415E+0	1.021338E+0	9.691824E-1	1.012245E+0	9.871893E-1	9.753479E-1	1.015738E+0	1.010492E+0	1.017860E+0	9.794782E-1	9.902421E-1	9.901687E-1	1.012465E+0	9.964648E-1	9.828490E-1	1.000535E+0	9.904423E-1	1.003661E+0	9.944907E-1	1.048368E+0	9.744769E-1	1.005249E+0	9.902108E-1	1.043991E+0	9.816526E-1	1.006715E+0	9.535542E-1	1.032190E+0	1.016223E+0	1.013821E+0	1.031290E+0	1.034460E+0	1.015725E+0	9.965039E-1	1.011831E+0	9.879532E-1	9.607693E-1	1.013173E+0	1.016873E+0	9.982927E-1	9.852847E-1	9.602597E-1	9.617798E-1	9.715148E-1	9.555229E-1	9.885934E-1	1.065609E+0	1.050202E+0	9.696103E-1	1.007876E+0	1.042035E+0	1.032283E+0	9.889890E-1	9.810941E-1	1.023746E+0	1.020222E+0	9.284823E-1	1.021645E+0	1.057986E+0	1.021154E+0	9.453103E-1	9.501032E-1	9.816773E-1	1.006395E+0	1.024991E+0	9.733392E-1	9.897525E-1	1.034409E+0	9.597916E-1	9.415176E-1	9.679189E-1
5.575250E+2	9.911502E-1	1.017150E+0	1.000941E+0	9.868561E-1	9.616100E-1	9.980094E-1	1.012682E+0	9.863830E-1	1.015845E+0	9.934764E-1	1.015371E+0	1.021370E+0	9.974442E-1	9.755709E-1	1.012486E+0	9.536541E-1	1.018601E+0	9.726104E-1	1.011655E+0	1.004245E+0	1.011259E+0	1.045878E+0	1.026250E+0	9.777713E-1	9.184449E-1	9.735151E-1	9.846372E-1	9.836109E-1	1.022204E+0	9.892600E-1	1.043718E+0	1.045274E+0	1.004550E+0	9.733017E-1	1.000068E+0	9.780248E-1	1.027056E+0	1.005810E+0	9.878580E-1	9.731300E-1	9.528440E-1	1.002770E+0	9.806095E-1	9.324214E-1	9.789961E-1	9.983268E-1	9.429593E-1	9.744545E-1	9.640913E-1	9.990551E-1	9.664418E-1	1.005248E+0	9.900378E-1	1.008654E+0	9.867842E-1	9.888808E-1	1.014005E+0	9.918157E-1	1.029128E+0	1.027149E+0	9.383885E-1	9.395591E-1	1.041807E+0	9.845496E-1	1.022371E+0	9.878375E-1	9.953770E-1	9.715540E-1	9.630826E-1	9.659136E-1	1.041233E+0	9.887739E-1	1.026278E+0	9.762148E-1	1.006294E+0	1.058670E+0	9.988529E-1	9.812975E-1	1.002570E+0	9.877094E-1	9.871489E-1	1.001085E+0	9.914222E-1	1.036686E+0	9.962762E-1	9.721559E-1	9.926810E-1	9.602548E-1	1.015489E+0	9.738664E-1	9.696903E-1	9.787325E-1	1.002323E+0	9.029023E-1	9.941881E-1	9.756774E-1	9.710608E-1	9.901663E-1	1.060050E+0	1.012425E+0	1.030425E+0	1.002172E+0	1.028643E+0	9.707484E-1	9.899148E-1	9.760018E-1	1.007455E+0	9.714366E-1	9.920881E-1	9.917783E-1	9.990556E-1	9.685548E-1	9.824207E-1	9.770565E-1	1.036657E+0	1.034159E+0	9.850198E-1	1.054657E+0	1.003673E+0	1.009290E+0	1.057559E+0	1.020853E+0	1.009660E+0	9.727993E-1	1.049581E+0	9.849911E-1	1.012737E+0	1.005089E+0	1.031452E+0	1.032025E+0	9.543238E-1	1.000984E+0	9.417987E-1	9.862215E-1	1.003900E+0	9.903993E-1	9.817414E-1	9.551863E-1	9.801921E-1	1.007487E+0	1.051634E+0	1.014276E+0	1.029307E+0	1.039963E+0	9.640885E-1	9.839510E-1	9.927102E-1	1.040785E+0	1.020714E+0	9.678522E-1	9.981950E-1	1.013216E+0	9.972278E-1	9.662244E-1	9.832704E-1	1.009217E+0	9.735221E-1	1.025617E+0	1.041097E+0	1.015782E+0	9.835413E-1	9.964676E-1	9.777789E-1	9.802655E-1	9.851594E-1	1.000517E+0	1.000654E+0	1.024173E+0	9.609840E-1	9.927844E-1	1.121907E+0
5.580110E+2	1.035765E+0	1.029498E+0	1.015055E+0	1.036146E+0	1.070726E+0	1.003788E+0	9.914234E-1	9.838375E-1	1.003562E+0	9.987478E-1	1.054460E+0	1.048486E+0	1.017019E+0	1.046334E+0	1.032813E+0	1.055535E+0	9.879995E-1	1.006395E+0	1.009907E+0	9.883283E-1	1.028772E+0	9.820583E-1	9.741048E-1	9.669431E-1	1.002693E+0	9.593380E-1	1.004146E+0	1.018015E+0	1.038409E+0	1.011635E+0	1.018374E+0	9.843162E-1	1.041316E+0	1.005911E+0	9.884253E-1	9.680961E-1	1.024656E+0	1.001937E+0	1.025720E+0	1.077334E+0	1.010586E+0	9.467377E-1	1.017087E+0	1.044344E+0	1.022496E+0	1.048522E+0	1.053145E+0	1.000535E+0	1.045617E+0	1.005127E+0	1.078748E+0	1.037892E+0	1.015252E+0	1.021602E+0	1.018280E+0	1.006470E+0	1.037669E+0	9.804285E-1	9.948975E-1	9.954755E-1	1.021696E+0	9.879382E-1	9.931944E-1	1.003703E+0	9.961297E-1	9.431324E-1	1.053978E+0	1.000393E+0	1.028418E+0	1.003992E+0	1.023793E+0	1.003392E+0	1.023776E+0	1.056685E+0	9.933162E-1	1.042373E+0	1.030284E+0	1.005025E+0	1.025695E+0	1.038116E+0	1.037895E+0	9.658171E-1	1.024463E+0	1.022070E+0	1.034843E+0	1.026379E+0	1.004137E+0	1.029405E+0	1.022589E+0	1.029707E+0	1.018472E+0	1.050545E+0	1.018011E+0	9.235908E-1	9.979621E-1	1.001390E+0	9.965168E-1	1.051548E+0	1.047824E+0	1.040869E+0	1.017692E+0	1.013032E+0	1.025446E+0	9.993196E-1	1.025349E+0	1.021121E+0	1.042500E+0	9.905806E-1	1.052623E+0	1.013143E+0	9.896129E-1	1.034792E+0	9.971229E-1	9.909195E-1	1.047417E+0	1.011234E+0	9.965427E-1	9.945079E-1	1.062046E+0	9.989674E-1	1.013027E+0	9.910632E-1	9.992867E-1	1.007724E+0	1.028631E+0	1.023830E+0	1.007591E+0	1.082426E+0	1.032115E+0	9.794365E-1	1.031290E+0	9.898265E-1	1.013846E+0	1.012956E+0	1.043557E+0	1.010580E+0	1.006416E+0	1.043955E+0	1.076897E+0	1.008144E+0	1.070027E+0	1.018778E+0	9.570527E-1	1.030283E+0	1.044844E+0	1.016446E+0	1.000571E+0	1.001666E+0	1.021396E+0	1.009167E+0	1.022693E+0	1.046749E+0	1.039176E+0	1.034908E+0	1.004857E+0	9.961483E-1	1.036305E+0	1.004435E+0	9.932442E-1	1.038615E+0	1.022420E+0	1.005299E+0	1.017413E+0	1.020835E+0	9.819473E-1	1.052933E+0	1.057342E+0	1.008425E+0	1.048083E+0	1.070633E+0	9.550880E-1
5.585100E+2	9.933442E-1	1.011662E+0	1.007662E+0	1.021209E+0	1.017498E+0	1.069924E+0	9.862915E-1	1.031562E+0	1.095680E+0	1.056734E+0	9.848942E-1	1.045903E+0	1.027351E+0	1.027875E+0	1.013066E+0	1.039554E+0	1.013201E+0	1.009412E+0	1.000000E+0	9.909806E-1	1.010008E+0	1.043469E+0	1.022695E+0	1.031910E+0	1.031696E+0	1.046333E+0	1.027311E+0	1.025522E+0	1.043210E+0	9.867028E-1	1.004550E+0	1.047179E+0	1.010781E+0	9.841712E-1	1.016506E+0	1.023034E+0	1.023457E+0	1.025177E+0	9.774134E-1	1.027525E+0	1.033958E+0	1.038836E+0	1.049085E+0	1.052845E+0	1.039273E+0	9.927495E-1	1.027577E+0	1.060722E+0	1.035660E+0	1.047631E+0	1.003209E+0	9.822066E-1	1.022631E+0	1.053631E+0	1.015192E+0	9.983039E-1	1.020401E+0	1.028824E+0	1.031066E+0	9.903039E-1	1.052862E+0	1.001193E+0	1.034029E+0	1.043285E+0	1.034179E+0	1.016765E+0	1.036398E+0	1.027266E+0	1.044910E+0	1.031629E+0	1.054936E+0	1.005730E+0	9.974973E-1	1.066654E+0	1.022518E+0	1.026076E+0	1.004292E+0	1.047595E+0	1.043039E+0	1.024305E+0	1.012193E+0	1.019398E+0	1.050515E+0	1.033763E+0	1.025534E+0	1.049828E+0	1.015591E+0	1.021003E+0	1.045178E+0	1.014072E+0	9.983088E-1	1.022924E+0	1.023032E+0	9.153153E-1	1.018342E+0	1.077137E+0	1.034701E+0	1.016473E+0	1.033441E+0	1.001198E+0	1.038468E+0	9.778959E-1	1.079793E+0	1.021768E+0	1.051924E+0	9.936569E-1	1.047597E+0	1.018915E+0	1.029248E+0	1.043568E+0	1.038716E+0	1.091268E+0	1.029725E+0	1.029044E+0	1.049436E+0	9.936571E-1	1.060261E+0	1.006931E+0	1.064669E+0	1.020350E+0	1.066864E+0	1.041422E+0	1.042722E+0	1.052051E+0	1.033077E+0	1.032388E+0	9.966548E-1	1.010378E+0	1.043371E+0	1.003034E+0	1.035606E+0	9.819498E-1	1.041411E+0	1.052029E+0	1.018440E+0	1.028925E+0	1.106343E+0	1.019615E+0	9.981990E-1	1.011428E+0	1.045065E+0	1.058646E+0	1.056992E+0	1.001936E+0	1.054633E+0	1.049605E+0	1.108491E+0	1.067588E+0	1.004361E+0	1.007876E+0	1.055574E+0	9.757378E-1	1.038427E+0	1.035617E+0	1.064221E+0	1.040168E+0	1.013785E+0	9.971538E-1	1.017171E+0	1.027198E+0	1.083330E+0	1.086988E+0	1.019362E+0	1.012583E+0	1.028203E+0	1.026402E+0	1.003562E+0	1.040708E+0	9.812683E-1	1.002278E+0	1.025663E+0
5.590100E+2	1.047468E+0	1.018523E+0	1.009678E+0	1.023450E+0	9.695940E-1	9.838834E-1	1.037606E+0	1.008017E+0	1.017687E+0	1.044214E+0	1.047835E+0	1.011040E+0	1.033874E+0	1.019876E+0	9.956443E-1	1.009589E+0	1.048603E+0	9.997582E-1	1.018647E+0	1.057299E+0	1.006881E+0	1.050091E+0	1.004919E+0	1.010891E+0	1.026863E+0	9.934915E-1	9.974392E-1	1.015514E+0	9.783951E-1	1.019947E+0	1.031048E+0	1.000190E+0	1.022621E+0	1.043953E+0	1.053491E+0	1.027668E+0	1.015058E+0	1.011620E+0	1.017886E+0	1.014418E+0	1.051143E+0	1.016294E+0	1.009408E+0	1.006801E+0	1.017524E+0	1.042325E+0	1.018445E+0	1.041328E+0	9.777824E-1	1.024018E+0	1.049334E+0	1.022530E+0	1.039851E+0	1.042046E+0	1.083124E+0	1.020919E+0	9.871457E-1	9.704642E-1	9.955433E-1	1.059470E+0	1.019299E+0	1.013122E+0	1.043104E+0	1.013918E+0	1.064356E+0	1.020052E+0	1.018817E+0	1.029889E+0	1.027783E+0	1.012591E+0	1.039364E+0	1.017423E+0	9.643373E-1	9.776398E-1	9.985073E-1	1.014994E+0	1.063529E+0	1.018981E+0	1.041755E+0	1.038115E+0	1.029327E+0	1.009224E+0	1.018745E+0	1.040340E+0	1.046147E+0	1.011723E+0	1.046775E+0	1.040391E+0	1.008391E+0	1.062467E+0	1.005463E+0	1.015329E+0	1.060686E+0	9.215221E-1	1.072688E+0	1.034051E+0	1.062166E+0	1.003946E+0	1.049982E+0	1.004940E+0	1.002948E+0	9.689520E-1	1.052939E+0	1.048300E+0	9.599323E-1	1.020467E+0	1.002357E+0	1.026573E+0	9.932872E-1	1.004726E+0	1.028014E+0	1.022939E+0	1.003516E+0	1.031816E+0	1.066250E+0	1.003591E+0	1.012812E+0	1.008238E+0	9.971140E-1	9.967556E-1	1.028314E+0	1.044258E+0	1.033646E+0	1.019141E+0	1.031806E+0	1.033046E+0	9.998711E-1	1.028224E+0	1.012912E+0	1.015844E+0	1.026255E+0	1.031835E+0	1.018858E+0	1.010899E+0	9.820880E-1	1.072953E+0	1.063781E+0	1.058272E+0	1.010871E+0	1.017995E+0	1.018788E+0	1.016848E+0	1.048890E+0	9.901821E-1	1.020372E+0	1.003846E+0	1.024157E+0	1.015430E+0	1.007086E+0	1.043380E+0	9.840111E-1	1.037543E+0	9.567788E-1	9.980885E-1	1.042634E+0	1.018846E+0	1.097041E+0	9.667049E-1	1.021393E+0	9.654146E-1	1.039916E+0	1.008242E+0	1.038855E+0	1.059342E+0	1.010215E+0	9.778690E-1	1.036266E+0	1.017874E+0	1.006324E+0	1.011772E+0	9.839606E-1
5.595170E+2	9.399523E-1	9.835361E-1	9.854827E-1	1.010007E+0	9.868927E-1	9.941571E-1	1.006817E+0	9.806560E-1	9.968068E-1	9.783213E-1	9.471304E-1	9.664922E-1	9.985318E-1	9.644952E-1	9.962249E-1	9.476611E-1	1.011401E+0	1.006395E+0	1.026806E+0	9.637903E-1	9.699761E-1	1.013366E+0	1.010843E+0	1.005796E+0	1.007527E+0	9.818922E-1	1.012071E+0	9.779815E-1	9.735948E-1	9.592134E-1	9.699900E-1	9.779658E-1	9.852309E-1	9.862096E-1	1.003493E+0	1.044215E+0	9.424678E-1	9.586830E-1	1.014623E+0	9.836158E-1	1.020210E+0	9.911769E-1	9.870088E-1	9.926324E-1	9.485465E-1	9.537087E-1	9.928776E-1	9.691039E-1	1.010766E+0	9.295671E-1	9.564149E-1	9.815660E-1	9.722027E-1	9.398268E-1	9.750502E-1	9.964196E-1	9.826688E-1	9.512479E-1	9.438752E-1	9.773755E-1	1.006712E+0	9.760090E-1	1.016528E+0	9.832733E-1	9.613601E-1	9.536509E-1	9.901681E-1	1.006292E+0	9.986046E-1	9.732835E-1	9.795705E-1	9.677254E-1	9.937435E-1	9.619728E-1	1.012784E+0	9.661016E-1	9.347772E-1	9.708293E-1	9.691655E-1	9.966855E-1	9.785815E-1	1.020076E+0	9.818909E-1	9.606832E-1	1.008910E+0	9.721556E-1	1.028956E+0	1.041039E+0	9.748298E-1	9.932247E-1	1.005464E+0	9.697564E-1	1.024287E+0	1.127716E+0	1.009284E+0	1.013899E+0	9.576623E-1	9.788920E-1	9.334769E-1	9.779935E-1	9.794933E-1	9.791733E-1	9.429688E-1	9.999995E-1	1.018535E+0	1.020467E+0	9.768707E-1	1.018148E+0	1.037039E+0	1.002136E+0	1.011646E+0	1.010389E+0	9.990413E-1	9.534889E-1	9.357675E-1	9.844871E-1	9.836636E-1	9.670489E-1	1.011543E+0	1.016664E+0	1.011034E+0	9.910632E-1	1.003825E+0	1.009738E+0	1.027362E+0	9.902573E-1	9.998712E-1	9.998016E-1	9.764936E-1	9.942692E-1	9.830963E-1	9.898262E-1	1.003195E+0	9.896490E-1	9.906805E-1	9.989604E-1	1.018135E+0	9.702197E-1	9.461790E-1	1.003546E+0	1.006306E+0	1.045785E+0	9.874397E-1	1.009541E+0	1.048515E+0	1.009815E+0	9.898511E-1	9.755870E-1	1.043200E+0	1.020787E+0	9.923924E-1	9.836286E-1	1.045169E+0	1.017914E+0	9.610081E-1	1.014719E+0	1.024021E+0	1.007744E+0	9.826889E-1	9.795174E-1	1.012700E+0	1.071534E+0	9.764792E-1	9.555103E-1	1.025634E+0	9.895169E-1	9.962931E-1	9.816534E-1	1.050470E+0	1.023165E+0	9.197979E-1
5.600130E+2	9.772536E-1	9.670716E-1	1.003629E+0	9.861094E-1	9.749165E-1	1.001862E+0	9.950890E-1	1.009290E+0	9.648719E-1	9.664603E-1	9.941697E-1	1.002002E+0	9.767816E-1	9.872627E-1	1.017132E+0	1.004928E+0	1.000000E+0	9.780395E-1	1.038461E+0	1.006234E+0	9.874897E-1	9.850689E-1	9.776603E-1	1.001337E+0	1.019957E+0	9.696483E-1	9.486694E-1	9.767298E-1	9.339848E-1	1.010996E+0	1.007430E+0	9.830460E-1	1.028229E+0	9.848507E-1	9.973290E-1	9.674341E-1	9.688644E-1	9.967724E-1	9.597880E-1	9.711638E-1	9.851519E-1	9.589749E-1	9.562903E-1	9.855491E-1	9.802385E-1	9.704409E-1	9.849637E-1	9.958538E-1	9.609795E-1	9.214710E-1	9.604255E-1	9.578848E-1	1.020787E+0	9.541380E-1	9.701096E-1	1.000817E+0	9.980172E-1	9.747341E-1	9.994189E-1	1.019393E+0	9.947260E-1	9.700444E-1	1.002917E+0	9.973188E-1	1.003345E+0	1.013477E+0	9.790988E-1	9.643441E-1	9.840152E-1	9.831103E-1	9.596392E-1	9.858504E-1	1.009385E+0	9.726545E-1	9.751463E-1	9.530637E-1	9.668145E-1	1.000837E+0	1.028264E+0	9.994476E-1	1.023396E+0	9.454689E-1	9.634638E-1	1.019147E+0	9.889622E-1	1.008060E+0	9.926813E-1	9.576694E-1	9.806380E-1	1.005882E+0	9.879020E-1	9.573274E-1	9.609020E-1	1.113924E+0	9.639958E-1	9.638638E-1	9.643612E-1	9.839029E-1	9.262856E-1	9.540410E-1	9.888754E-1	1.016227E+0	9.896426E-1	9.816329E-1	1.015809E+0	1.002812E+0	9.762334E-1	9.928783E-1	9.986814E-1	9.717094E-1	9.568776E-1	9.678575E-1	9.971236E-1	9.659655E-1	9.815039E-1	1.021932E+0	9.789190E-1	9.990846E-1	9.485796E-1	9.738985E-1	9.591904E-1	9.782963E-1	9.856730E-1	9.694414E-1	9.778439E-1	1.006715E+0	9.985848E-1	9.740229E-1	9.930471E-1	9.976405E-1	9.816574E-1	1.016738E+0	9.950507E-1	9.965041E-1	1.003239E+0	9.420894E-1	1.002097E+0	9.916957E-1	9.961985E-1	1.025877E+0	9.918545E-1	9.654040E-1	1.000945E+0	9.853423E-1	9.861126E-1	9.872669E-1	1.002716E+0	9.190827E-1	9.805121E-1	9.988381E-1	9.627360E-1	9.908607E-1	9.500371E-1	9.832182E-1	9.866431E-1	9.885822E-1	1.002184E+0	9.733242E-1	9.587620E-1	9.949634E-1	1.009460E+0	9.685016E-1	9.556871E-1	9.802649E-1	9.986507E-1	9.649271E-1	9.410591E-1	9.753548E-1	1.023027E+0	9.965821E-1	1.006415E+0
5.605090E+2	1.024063E+0	1.015778E+0	9.955649E-1	1.004779E+0	1.045443E+0	1.029473E+0	1.022945E+0	1.034106E+0	9.538181E-1	9.888643E-1	1.000795E+0	9.890887E-1	9.822202E-1	1.032797E+0	9.689305E-1	1.015582E+0	9.825989E-1	1.010619E+0	9.842666E-1	1.010876E+0	1.038156E+0	9.688133E-1	9.770675E-1	1.040827E+0	1.008908E+0	1.084353E+0	1.037065E+0	1.033028E+0	1.012002E+0	1.108807E+0	1.001095E+0	1.032575E+0	9.397392E-1	1.069089E+0	1.026780E+0	1.036273E+0	1.057652E+0	1.042608E+0	1.021150E+0	9.823048E-1	1.002337E+0	1.044632E+0	1.008128E+0	9.997169E-1	9.932889E-1	1.059677E+0	1.021489E+0	9.550606E-1	1.003921E+0	1.132635E+0	1.027943E+0	1.050052E+0	9.771227E-1	9.793521E-1	9.559062E-1	1.004586E+0	9.711576E-1	1.048040E+0	1.019440E+0	1.023917E+0	1.016901E+0	1.069455E+0	9.938415E-1	1.049033E+0	9.771048E-1	1.116694E+0	9.843078E-1	1.031854E+0	1.004313E+0	9.917094E-1	9.901590E-1	9.934516E-1	1.008134E+0	9.491551E-1	9.816356E-1	9.680577E-1	1.034515E+0	1.002931E+0	9.832985E-1	1.020163E+0	1.006920E+0	9.603908E-1	9.984117E-1	1.011108E+0	9.723383E-1	9.999998E-1	9.894997E-1	9.996767E-1	1.014199E+0	9.932246E-1	9.976585E-1	1.040877E+0	9.439581E-1	1.123579E+0	9.949423E-1	9.722029E-1	9.456048E-1	9.782656E-1	1.012586E+0	9.832331E-1	9.841840E-1	1.027087E+0	9.723797E-1	1.044218E+0	1.008995E+0	1.013274E+0	1.002995E+0	9.568868E-1	1.009470E+0	1.019615E+0	1.006610E+0	9.692520E-1	1.042510E+0	1.005476E+0	9.956278E-1	9.852512E-1	1.003322E+0	1.020006E+0	9.833405E-1	9.709497E-1	1.007045E+0	9.811331E-1	9.979902E-1	9.439192E-1	1.033076E+0	9.645837E-1	1.017241E+0	9.707182E-1	9.771559E-1	9.929203E-1	9.536046E-1	9.583197E-1	1.030761E+0	1.011585E+0	9.629204E-1	1.035040E+0	9.798911E-1	9.838211E-1	9.901961E-1	1.008801E+0	9.957958E-1	1.012346E+0	9.908163E-1	9.521552E-1	1.033832E+0	1.035015E+0	9.734130E-1	9.719651E-1	9.648407E-1	1.024660E+0	9.994844E-1	9.612731E-1	1.036929E+0	9.782621E-1	9.738259E-1	1.005090E+0	9.878531E-1	1.015687E+0	9.742444E-1	1.022497E+0	1.025012E+0	9.994112E-1	1.016763E+0	1.040776E+0	1.037198E+0	1.008930E+0	9.970202E-1	9.729922E-1	1.061207E+0	9.737979E-1	1.093034E+0
5.610010E+2	1.027720E+0	9.739319E-1	9.585990E-1	9.629581E-1	9.496335E-1	9.389367E-1	9.613673E-1	9.991088E-1	9.974206E-1	9.789801E-1	9.888695E-1	9.593904E-1	9.572076E-1	1.014337E+0	9.828680E-1	9.563173E-1	9.435964E-1	1.015445E+0	9.627043E-1	9.969496E-1	9.712274E-1	9.971102E-1	1.022696E+0	9.694915E-1	9.944065E-1	1.027001E+0	9.706161E-1	1.019892E+0	9.951991E-1	1.065975E+0	9.970623E-1	9.360572E-1	1.000188E+0	1.086072E+0	9.500701E-1	9.859678E-1	9.562661E-1	1.007102E+0	9.780663E-1	9.665766E-1	9.425329E-1	1.055581E+0	9.383708E-1	9.451719E-1	9.572468E-1	1.008862E+0	9.953128E-1	1.014578E+0	9.665806E-1	1.005127E+0	9.544093E-1	9.892473E-1	9.414536E-1	9.888924E-1	9.657871E-1	9.763168E-1	9.973776E-1	1.064410E+0	9.923144E-1	9.831935E-1	9.485770E-1	1.123135E+0	9.167091E-1	9.615665E-1	9.515195E-1	1.010847E+0	9.921220E-1	9.689317E-1	9.427841E-1	1.018732E+0	9.845535E-1	9.852658E-1	9.887378E-1	1.042443E+0	9.796888E-1	9.921772E-1	9.734631E-1	1.039918E+0	9.447558E-1	9.718279E-1	9.574921E-1	1.078404E+0	9.558386E-1	9.387593E-1	9.816475E-1	9.611643E-1	9.494066E-1	9.964457E-1	9.774111E-1	1.008860E+0	9.911543E-1	9.745894E-1	9.803570E-1	1.153232E+0	9.473897E-1	9.451011E-1	9.938369E-1	1.064075E+0	9.514560E-1	1.007934E+0	9.567076E-1	1.008560E+0	9.800519E-1	9.401360E-1	9.885522E-1	1.001504E+0	9.666758E-1	1.013554E+0	9.633197E-1	1.017026E+0	9.870949E-1	9.804077E-1	9.984017E-1	1.049838E+0	9.512371E-1	9.760813E-1	9.924754E-1	9.866629E-1	9.813732E-1	9.997052E-1	9.472266E-1	1.003121E+0	9.467759E-1	9.976498E-1	9.911755E-1	9.711670E-1	9.985846E-1	9.099062E-1	9.917229E-1	1.002360E+0	9.917278E-1	9.983592E-1	9.881595E-1	9.567459E-1	1.006543E+0	9.757226E-1	1.018752E+0	9.723674E-1	9.895294E-1	9.562590E-1	9.642639E-1	9.724770E-1	9.557025E-1	1.018530E+0	1.009972E+0	9.680355E-1	9.305316E-1	9.524059E-1	1.012538E+0	9.317020E-1	9.865900E-1	9.987509E-1	9.530332E-1	9.676409E-1	9.785479E-1	9.672600E-1	9.755691E-1	1.017673E+0	9.517252E-1	9.627283E-1	9.764136E-1	9.596700E-1	9.979208E-1	9.782020E-1	9.761651E-1	9.966351E-1	9.803046E-1	9.643310E-1	1.009903E+0	9.927856E-1	1.006416E+0
