Photon Energy (eV)	#1	#2	#3	#4	#5	#6	#7	#8	#9	#10	#11	#12	#13	#14	#15	#16	#17	#18	#19	#20	#21	#22	#23	#24	#25	#26	#27	#28	#29	#30	#31	#32	#33	#34	#35	#36	#37	#38	#39	#40	#41	#42	#43	#44	#45	#46	#47	#48	#49	#50	#51	#52	#53	#54	#55	#56	#57	#58	#59	#60	#61	#62	#63	#64	#65	#66	#67	#68	#69	#70	#71	#72	#73	#74	#75	#76	#77	#78	#79	#80	#81	#82	#83	#84	#85	#86	#87	#88	#89	#90	#91	#92	#93	#94	#95	#96	#97	#98	#99	#100	#101	#102	#103	#104	#105	#106	#107	#108	#109	#110	#111	#112	#113	#114	#115	#116	#117	#118	#119	#120	#121	#122	#123	#124	#125	#126	#127	#128	#129	#130	#131	#132	#133	#134	#135	#136	#137	#138	#139	#140	#141	#142	#143	#144	#145	#146	#147	#148	#149	#150	#151	#152	#153	#154	#155	#156	#157	#158	#159	#160	#161	#162	#163	#164	#165	#166	#167	#168	#169	#170	#171	
5.300270E+2	-1.022745E-2	-2.002102E-3	-1.713084E-2	-9.104953E-3	-1.051514E-2	-8.085491E-3	-3.375188E-3	-8.921331E-3	-1.225297E-2	-1.333605E-2	-1.252572E-2	3.219732E-3	-1.479982E-2	-5.943846E-3	-1.286795E-2	-1.176280E-2	-9.685122E-3	-9.773129E-3	-1.336834E-2	-1.156178E-2	-9.943266E-3	-8.600000E-3	-4.330556E-3	-1.227843E-2	-5.856653E-3	-8.729381E-4	-1.824092E-2	3.424277E-3	-1.508476E-2	-4.090982E-3	-6.760947E-3	-5.177987E-3	-1.021935E-2	-1.691851E-2	-4.495001E-3	-1.409537E-2	-1.143079E-2	-4.544743E-3	-8.304124E-3	-1.287422E-2	-3.797308E-3	-9.411988E-3	-1.381614E-2	-1.229869E-2	-8.974736E-3	-8.510414E-3	-8.911830E-3	-3.511860E-3	-1.438571E-2	-1.731805E-2	-1.596758E-3	-1.314015E-2	-5.285349E-3	-1.088695E-2	-8.175190E-3	-5.472204E-3	-5.960197E-3	-1.360648E-2	-1.352705E-2	-1.461000E-2	-1.011041E-2	-9.225958E-3	-4.273639E-3	-7.584456E-3	-1.325795E-2	-1.582079E-2	-1.048686E-2	-4.429828E-3	-5.025177E-3	-7.554372E-3	-1.308339E-2	5.930819E-4	-5.000414E-4	1.006379E-3	-5.737923E-3	-7.658387E-3	-1.147886E-2	-4.827662E-3	-9.141964E-3	-1.472275E-2	-1.397890E-2	-1.098262E-2	-2.390706E-3	-1.181839E-2	-9.691526E-3	-3.912044E-3	-8.698444E-3	-2.028315E-3	-1.302391E-2	-1.917622E-3	-3.913345E-3	-1.351515E-2	-6.299535E-3	-1.456788E-2	-1.127543E-2	-6.506210E-3	-1.709908E-3	-1.082913E-2	-4.999889E-3	-1.615396E-2	-6.997692E-3	-8.586578E-4	4.672895E-4	-1.380920E-3	-1.003946E-2	-4.469304E-3	2.642296E-3	-1.975044E-2	-1.529469E-2	-1.198412E-2	-9.629118E-3	-1.218579E-3	-1.538280E-2	-7.776341E-3	-1.599182E-2	-1.457674E-2	-3.210265E-3	-1.532512E-4	-1.625016E-2	-8.951337E-3	-6.418331E-3	-3.672594E-3	-9.127591E-3	-5.686834E-3	-3.622409E-3	-1.009040E-2	-9.010477E-3	-5.628039E-3	-7.724286E-3	-9.347448E-3	-8.421580E-3	-1.173866E-2	-1.590261E-2	-7.513652E-3	-1.038540E-2	-1.827123E-2	-6.725462E-3	-9.576178E-3	-6.295423E-3	-7.499414E-3	-1.208657E-2	-4.602112E-3	-3.748921E-3	-6.735467E-3	-1.651279E-4	-9.156818E-3	-3.123678E-3	-1.628207E-2	-2.040393E-2	-1.743572E-3	-7.002068E-4	-4.567717E-3	-1.403189E-2	-1.751348E-2	-6.737195E-3	-5.592423E-3	-1.293446E-2	-6.847570E-3	-4.422726E-3	-7.956898E-3	-1.248786E-2	-9.289065E-3	-1.296111E-2	-1.382240E-2	-5.708495E-3	-7.817486E-3	-7.191009E-3	-1.022153E-3	-9.579198E-3	1.009290E-2	1.759473E-3
5.305230E+2	-1.653478E-2	-6.175765E-3	-8.127809E-3	-7.021710E-3	-6.347450E-3	-1.035902E-2	-1.254064E-2	-1.458261E-2	-7.659805E-3	1.713299E-3	-1.042847E-2	-5.844401E-3	-2.661264E-3	-4.216657E-3	-6.990200E-3	-7.002271E-3	-8.369308E-3	-8.480447E-3	-8.763813E-3	-1.088654E-2	9.371359E-4	-7.436934E-3	-1.301787E-2	-1.873766E-3	-5.869049E-4	-4.653804E-3	-7.493307E-3	-2.039872E-2	-2.169964E-3	-6.990835E-3	-2.518823E-3	-8.571827E-3	-7.738945E-3	-2.770895E-3	-9.584935E-3	-2.272307E-3	1.456398E-3	-2.243482E-3	-7.632636E-3	-1.338861E-2	-1.325381E-2	-6.986511E-3	-1.438958E-2	-1.027615E-2	1.342868E-3	-1.508586E-2	-8.804622E-3	-1.205318E-2	-4.302475E-3	-3.201491E-3	-1.510953E-2	-1.001720E-2	-1.346708E-2	-3.415538E-3	-1.605523E-2	-9.701395E-3	-1.277369E-2	-4.057889E-3	-8.666251E-3	-1.055425E-2	-1.460581E-2	-1.329762E-2	1.453806E-3	-1.097090E-2	-7.442062E-3	-8.345825E-3	-1.188220E-2	-1.047261E-3	-9.923713E-3	-1.465364E-2	-3.850864E-3	-6.031239E-3	-1.023235E-2	-7.617111E-3	-9.900488E-3	-3.405048E-3	-3.863769E-3	-4.147490E-3	-1.015584E-2	-8.459130E-3	-2.093871E-3	-6.340903E-3	-9.249914E-3	-1.443659E-2	-1.267637E-2	-8.058103E-3	-1.124345E-2	-5.586472E-3	-2.539740E-3	6.506865E-4	-1.447233E-2	-8.859711E-3	-1.124395E-2	-5.117126E-3	-7.208322E-3	-7.596971E-3	-1.345939E-2	-6.612607E-3	-6.372211E-3	-2.197364E-4	-2.948803E-4	-5.039615E-3	-1.283386E-2	-8.911591E-3	-7.860678E-3	-7.313961E-3	-1.106209E-2	-7.215511E-3	-9.711090E-3	-1.181313E-3	-6.586848E-3	-6.604069E-3	-8.391887E-3	-3.150932E-3	-3.837143E-3	-8.887427E-3	-5.369910E-4	-1.279917E-2	-5.722081E-3	-1.024247E-2	-1.413301E-2	-1.702378E-3	-1.173130E-2	4.315989E-3	-8.469965E-3	-2.879788E-3	-7.124841E-3	-3.588420E-3	-2.873560E-3	-6.155493E-3	-8.913734E-3	-1.312146E-2	-3.446718E-3	2.255183E-3	-1.017972E-2	-1.564039E-3	-1.302807E-2	-2.738529E-3	-1.351520E-2	-7.410979E-3	-1.385982E-2	-2.899080E-3	-3.620879E-3	-5.429890E-3	-9.769522E-3	1.999169E-4	-9.523422E-3	-1.829066E-2	2.702187E-3	-4.460397E-3	-4.261097E-3	-7.609778E-3	-6.263368E-3	-9.096914E-3	-5.784852E-3	-4.768142E-3	-2.837758E-3	-1.045412E-2	-2.675439E-2	3.339687E-4	-7.878551E-4	-3.535816E-3	-9.071746E-3	-3.825847E-3	-7.934314E-3	-1.185117E-2	-1.695730E-2	-8.840724E-3	2.147360E-3	1.131104E-2	-3.025817E-2
5.310100E+2	-7.019854E-3	-2.577269E-3	-5.991047E-3	-3.160042E-4	-2.787137E-3	7.277012E-3	-1.345465E-2	1.346081E-3	-8.402112E-3	-6.472419E-3	-1.590945E-2	-1.190305E-2	8.402139E-4	-4.752092E-3	-1.121691E-3	-1.066589E-2	-7.848106E-3	-2.990033E-3	1.564692E-3	-7.695177E-3	-4.735550E-3	-3.982044E-3	-4.215360E-3	-3.835573E-3	-8.537913E-3	-5.426712E-3	-9.463360E-3	-3.639379E-3	4.186367E-3	-7.056587E-3	-1.297305E-2	-5.140441E-3	-4.239639E-3	-9.248984E-3	-9.677079E-3	-1.668652E-3	-1.248287E-2	-1.463638E-2	-1.191830E-2	4.180054E-3	-7.031016E-3	-1.470142E-2	1.578406E-4	-3.773719E-3	-6.111312E-3	-3.401751E-3	-3.902455E-3	-6.301617E-3	-1.172149E-3	-9.412566E-3	1.083128E-3	-3.154668E-4	-6.781777E-3	-5.671872E-3	-7.551664E-3	-3.611368E-3	-7.282586E-3	-6.079118E-3	-7.432829E-3	3.310622E-3	-1.385714E-3	-4.391642E-3	-8.698570E-3	-5.150497E-3	-1.331338E-2	2.249435E-3	-2.475012E-3	-1.185806E-2	-7.109598E-3	-1.135945E-2	-5.742077E-3	-7.281109E-3	-5.374190E-3	-9.590842E-3	-1.059607E-2	5.816262E-5	-9.728141E-3	-6.000549E-3	-2.939057E-3	-1.104891E-2	-4.296513E-3	-5.775790E-3	-3.612984E-3	1.764408E-3	-4.768760E-3	-6.876060E-3	-4.715414E-3	-8.035577E-3	-1.174850E-2	-3.080190E-3	-7.773699E-3	-1.371628E-2	-6.253233E-3	-5.899800E-3	-4.635036E-3	-8.236649E-3	-3.784568E-3	-3.083467E-3	-1.015780E-2	-1.006717E-2	-1.363220E-2	-1.124930E-2	-7.798710E-3	-8.314354E-3	-8.824423E-4	3.344793E-3	-6.505062E-3	-9.438097E-3	-9.150723E-3	-5.960196E-3	-1.020596E-2	-9.720474E-3	6.253202E-3	-5.964432E-3	-6.583547E-3	-1.121253E-2	-9.014859E-3	-3.665862E-3	-2.436206E-3	-5.433624E-5	-3.824419E-3	-1.506387E-2	-4.417660E-3	-1.103730E-2	-1.040102E-2	-7.615088E-3	-1.757875E-2	-1.540646E-2	-9.134181E-3	-7.389615E-3	-3.561870E-3	-1.037251E-2	-3.991428E-3	-2.906770E-3	-3.244061E-3	-6.491808E-3	-1.108533E-2	8.937865E-3	-8.475322E-3	-1.159894E-2	-5.747606E-3	-1.147942E-2	-7.002277E-3	-6.093025E-3	-1.710133E-2	3.527758E-3	-6.359275E-4	-2.330931E-3	-8.521738E-3	-1.475047E-2	-1.274439E-2	-6.996099E-3	-7.540710E-3	-4.064251E-3	-1.421515E-2	-1.280167E-2	-1.098880E-2	-7.910394E-3	-1.648807E-3	-3.406435E-3	-7.233211E-3	-1.206610E-3	-1.294592E-2	-5.304761E-3	-9.063245E-3	-1.496475E-3	-1.088209E-2	-4.987910E-3	-1.005273E-2	-1.672102E-3	-1.326819E-2
5.315080E+2	-4.386533E-3	-6.957517E-4	-6.904558E-4	-3.460929E-4	-3.990727E-3	-5.117239E-3	2.868778E-4	-5.721569E-3	-1.157266E-3	-6.447002E-3	4.614099E-3	-8.572619E-3	1.499974E-3	-4.733346E-3	2.808801E-3	7.335952E-3	-7.180996E-3	-4.822422E-3	-1.510072E-2	-4.406610E-3	-7.706263E-5	-2.179479E-3	2.381479E-3	-9.114549E-3	-7.841867E-3	-7.297314E-3	8.483004E-3	-1.628992E-3	-2.632647E-3	9.945219E-4	-4.460245E-3	-3.904372E-3	-2.929829E-3	2.485635E-3	-4.382293E-3	-3.036133E-3	-5.869110E-3	-4.678148E-4	1.184020E-2	-1.040716E-2	-1.016008E-2	-1.680107E-3	-5.513998E-3	-2.402367E-3	-5.440791E-3	1.747684E-3	-1.150272E-2	-4.502029E-3	-4.303911E-3	-6.197030E-3	-1.063050E-2	-5.760965E-3	-8.964804E-3	-1.024188E-2	-7.505373E-3	7.030279E-3	6.814234E-3	1.117557E-3	7.357066E-3	-5.828096E-4	-1.117677E-2	-7.308351E-4	-8.018834E-3	8.381826E-3	-7.441202E-3	-2.711917E-3	4.267350E-3	-5.093998E-3	-7.618947E-3	-9.806620E-5	-6.319715E-3	-8.472841E-3	2.748845E-4	-5.688316E-3	-1.338455E-3	-1.310005E-3	-8.480545E-4	-8.411940E-3	4.478049E-4	3.238578E-4	2.802800E-3	5.883499E-3	-5.488229E-3	-1.727310E-2	-1.030046E-2	-7.444665E-3	-4.668920E-3	-1.213607E-3	-4.159648E-3	-4.924240E-3	7.680954E-3	9.003126E-3	-1.750209E-3	4.348907E-3	-3.241208E-3	1.849629E-3	-5.862784E-3	-1.834412E-3	-2.091835E-3	-1.624454E-3	4.561782E-4	-1.936673E-3	-3.230584E-3	-4.409433E-3	2.017787E-3	-1.264163E-2	-3.798189E-3	-8.702583E-3	-5.999839E-3	7.837124E-5	-4.745187E-3	1.421358E-3	-3.541302E-3	4.232387E-4	9.543679E-4	-1.178362E-3	1.527529E-3	-9.006673E-3	-1.733364E-3	-1.868247E-5	4.104969E-3	-3.539984E-3	1.041003E-3	5.784699E-3	-4.117375E-3	-2.145916E-3	-2.213307E-3	-5.466376E-3	-6.335764E-3	-2.333942E-3	-2.158057E-3	-6.920737E-4	-5.744351E-3	-1.168780E-2	3.843664E-3	-1.083158E-2	4.093807E-3	-1.187026E-2	-8.450870E-3	1.456236E-3	-2.870423E-5	-1.651696E-3	-8.955022E-3	-6.060685E-3	-2.636904E-3	-7.236172E-3	-5.097827E-3	5.249208E-4	-1.069573E-3	-4.710496E-3	-4.885841E-3	-1.840497E-3	-6.212235E-3	2.275853E-3	6.145802E-3	1.766848E-3	2.992905E-3	-1.032005E-3	-2.264308E-3	-3.373864E-3	-5.235505E-3	-6.949592E-3	-6.577579E-4	-9.597554E-3	3.267147E-3	-3.671872E-3	-3.837515E-3	-6.562383E-3	-5.298101E-3	7.358523E-5	-1.334387E-2
5.320020E+2	8.726660E-3	4.346469E-3	-2.794829E-3	4.676120E-4	5.776614E-3	-2.386754E-4	-6.813222E-3	-2.366331E-3	1.145743E-2	3.191134E-3	3.397342E-3	-7.141617E-3	4.414610E-4	-1.239540E-3	4.591632E-3	-3.391070E-3	4.992812E-3	7.115692E-3	2.906139E-3	5.648803E-3	-1.110684E-3	-3.050378E-4	-4.006823E-3	-3.607548E-4	2.867991E-3	-1.452065E-6	1.615765E-3	-1.509407E-3	-4.759566E-3	-1.370503E-3	-4.760439E-3	-1.489105E-3	2.001714E-3	7.831202E-3	3.504140E-4	-4.337802E-3	2.262334E-4	5.881463E-3	-8.110904E-3	4.980881E-3	4.776708E-3	6.672764E-3	-1.506515E-3	-1.620035E-3	2.805666E-3	2.982192E-3	1.906957E-3	-1.464631E-3	-8.015940E-3	1.125972E-2	-8.574508E-3	2.969969E-3	1.815175E-3	3.764648E-3	4.448804E-3	-2.832231E-3	-8.374011E-3	-3.293684E-3	-1.072347E-2	-2.516318E-3	4.074687E-3	-1.210103E-3	-5.336478E-3	2.070427E-3	5.021962E-3	-3.849494E-3	-4.507592E-3	2.425293E-3	9.402928E-3	3.975290E-3	7.474154E-3	2.813756E-3	-3.970675E-3	-4.925063E-4	6.178051E-3	2.258809E-4	7.544429E-3	-3.109699E-4	-7.759532E-3	-1.793116E-4	2.217959E-3	3.114961E-3	1.677015E-3	1.289158E-2	6.566561E-3	8.038373E-3	-1.886319E-3	4.480371E-3	7.313405E-3	1.513151E-3	-7.626473E-3	1.775264E-3	-6.733711E-3	1.064847E-3	-4.490590E-3	1.980196E-3	-8.915637E-5	3.717858E-3	-1.975519E-3	3.405894E-3	2.432216E-3	-6.153167E-3	7.267175E-3	7.342991E-3	-7.185711E-3	-1.229765E-3	1.674209E-3	4.099276E-3	2.233928E-3	-5.790288E-3	3.836218E-3	-1.143622E-2	-6.939970E-3	4.611000E-3	3.826356E-3	5.389765E-3	1.012983E-3	4.089063E-3	3.722070E-3	1.116778E-4	-4.342282E-3	8.103088E-3	1.856668E-3	2.564128E-3	2.898694E-3	-3.215573E-3	6.528307E-3	-6.980613E-4	-4.831504E-3	-2.193459E-3	6.205380E-3	-3.540755E-3	-5.622174E-3	-1.553870E-3	-3.091052E-3	5.576410E-3	2.060614E-3	-1.324175E-3	9.104331E-3	-1.845540E-3	5.179276E-3	-3.833581E-3	5.042444E-3	5.286227E-3	1.169773E-4	-3.509052E-3	4.031739E-3	2.779382E-3	7.077708E-3	4.388078E-4	-1.964662E-4	-6.204228E-3	1.057698E-3	5.117043E-4	-5.665514E-3	1.178864E-3	6.040314E-4	2.534913E-3	7.668795E-3	-1.415828E-2	-2.481243E-3	3.455442E-3	3.355194E-3	1.325121E-3	-9.446458E-3	-7.476031E-3	-2.156454E-3	8.085754E-3	-5.174137E-3	-1.698259E-2	-5.019119E-3
5.325070E+2	8.082957E-3	1.904142E-3	1.016021E-2	5.242212E-3	4.589272E-3	2.173552E-3	4.777711E-3	7.365093E-3	7.538459E-3	5.747860E-3	3.423401E-3	6.814583E-3	1.660342E-3	8.895723E-3	6.212243E-3	7.433268E-3	1.581390E-2	-1.585101E-3	4.679482E-3	7.641700E-3	6.545988E-4	-8.729777E-4	9.711684E-3	1.882044E-2	1.150935E-2	4.004594E-3	6.756232E-3	5.759628E-3	9.491486E-3	6.030472E-3	2.129080E-2	1.464276E-3	1.599313E-2	6.810653E-4	-9.452727E-4	9.759301E-3	4.620756E-3	7.606401E-3	1.142969E-2	1.729030E-2	1.326813E-2	1.439161E-2	1.203874E-2	1.238306E-2	1.082656E-3	3.590331E-3	8.588400E-3	9.088097E-3	9.244933E-3	5.737008E-3	6.003112E-3	5.511277E-3	3.528256E-3	-2.703554E-4	1.010113E-2	7.182410E-3	7.578795E-3	3.801002E-3	1.108195E-2	-1.831550E-3	8.233777E-3	1.152129E-2	8.142631E-3	8.561385E-3	7.642673E-3	1.126641E-2	4.536220E-3	2.443401E-3	7.743341E-3	9.064683E-3	6.894560E-3	4.701193E-3	7.905073E-3	1.102718E-2	8.715562E-3	1.659738E-3	2.842904E-3	4.011410E-3	2.894366E-3	1.057153E-2	-2.727746E-3	3.721546E-3	1.005454E-2	6.071630E-3	7.207136E-3	-5.516474E-4	1.011999E-2	-3.535783E-3	2.804183E-3	-6.056020E-3	7.089065E-3	-4.234967E-3	3.093598E-4	4.491420E-3	5.740798E-3	-3.718361E-4	6.294053E-3	-3.512092E-3	1.707155E-2	9.740457E-3	9.195470E-3	6.891601E-3	4.690308E-3	-2.331264E-3	8.614651E-3	2.958300E-3	-3.163706E-4	1.469615E-2	1.411497E-2	6.255919E-3	1.231791E-2	1.023513E-2	1.068878E-2	-5.704770E-4	6.574603E-3	3.795788E-4	-2.887208E-4	3.037748E-3	3.070325E-3	9.108146E-3	1.744947E-2	3.006771E-3	5.947890E-3	-3.484451E-3	-8.445445E-4	1.616358E-2	9.625929E-3	3.290762E-3	1.461465E-2	4.112425E-3	-2.712057E-3	4.659354E-3	1.479989E-2	1.027373E-2	9.144580E-3	8.103316E-3	6.412083E-3	6.531057E-3	3.038988E-3	2.977906E-3	7.097552E-3	3.119937E-3	7.700142E-3	3.425821E-3	1.290987E-4	2.529916E-3	2.838771E-4	1.056851E-2	3.097545E-3	5.485396E-3	1.028966E-2	7.941681E-3	1.016900E-2	9.377900E-3	-3.536343E-5	2.640733E-3	4.432946E-3	5.414276E-3	7.678767E-3	8.325194E-3	6.069845E-3	-4.255060E-3	9.190895E-3	1.330353E-3	-1.823675E-3	1.006161E-2	1.958411E-2	-2.392414E-3	-7.537785E-3	1.934897E-3	4.430523E-2
5.330180E+2	2.135900E-2	5.200277E-3	2.457477E-2	1.107894E-2	1.327457E-2	1.434986E-2	3.111911E-2	2.288067E-2	1.047626E-2	1.560318E-2	2.742881E-2	2.342737E-2	1.301909E-2	1.198976E-2	7.367161E-3	1.805281E-2	1.227682E-2	2.053544E-2	2.808256E-2	2.125960E-2	1.427483E-2	2.337647E-2	1.347744E-2	8.642633E-3	8.446000E-3	1.424763E-2	1.834258E-2	1.799260E-2	1.096908E-2	1.248391E-2	1.018270E-2	2.281946E-2	7.132925E-3	1.794049E-2	2.873417E-2	1.565096E-2	2.347939E-2	8.404560E-3	1.269607E-2	1.021876E-2	1.619737E-2	1.171565E-2	2.302966E-2	1.798790E-2	1.529565E-2	1.867782E-2	2.262627E-2	1.874522E-2	2.293526E-2	1.913241E-2	2.882506E-2	2.075254E-2	2.915558E-2	2.672195E-2	2.473752E-2	7.404510E-3	1.999746E-2	2.211861E-2	2.191058E-2	2.678430E-2	2.497024E-2	1.733487E-2	1.673108E-2	4.692209E-3	2.878996E-2	1.721218E-2	2.054810E-2	1.756046E-2	1.253117E-2	2.062556E-2	1.462733E-2	1.367716E-2	1.189730E-2	1.135522E-2	1.267932E-2	1.042966E-2	1.553150E-2	1.968720E-2	2.665423E-2	2.351471E-2	1.807627E-2	1.037931E-2	9.010279E-3	2.280046E-2	2.366342E-2	1.880415E-2	2.109255E-2	1.591938E-2	2.135421E-2	1.381423E-2	1.901583E-2	2.954772E-2	3.197128E-2	1.567963E-2	2.510978E-2	1.888184E-2	1.861176E-2	2.215385E-2	8.525708E-3	1.491897E-2	8.840909E-3	1.834581E-2	1.143838E-2	1.800457E-2	1.533585E-2	1.935156E-2	1.736521E-2	2.631121E-2	2.380744E-2	1.858162E-2	1.501298E-2	1.732286E-2	1.731397E-2	1.242794E-2	1.505719E-2	3.008571E-2	1.051032E-2	1.849815E-2	1.934942E-2	1.004700E-2	7.163603E-3	1.286897E-2	1.643099E-2	7.543764E-3	2.455662E-2	9.783192E-3	1.977314E-2	2.749659E-2	1.628465E-2	2.330753E-2	1.956192E-2	3.480609E-2	1.990739E-2	1.113318E-2	1.391199E-2	2.347893E-2	1.827236E-2	1.004022E-2	2.459350E-2	2.392073E-2	1.944587E-2	2.134595E-2	1.058451E-2	1.560702E-2	2.942681E-2	1.364445E-2	1.406524E-2	2.303085E-2	1.711780E-2	1.974073E-2	1.249834E-2	1.927664E-2	2.282150E-2	1.850918E-2	2.629227E-2	1.757579E-2	1.873114E-2	1.829490E-2	1.974267E-2	2.023631E-2	2.215583E-2	2.178070E-2	2.309045E-2	2.989509E-2	3.070904E-2	2.225142E-2	2.144027E-2	1.571983E-2	3.549459E-2	-4.757732E-3	1.582466E-2
5.331580E+2	1.579732E-2	1.790508E-2	2.491646E-2	2.428786E-2	3.163235E-2	1.577571E-2	1.257584E-2	2.057160E-2	1.742109E-2	1.401055E-2	8.208132E-3	1.704822E-2	1.978129E-2	9.534860E-3	1.897789E-2	2.557672E-2	2.280579E-2	2.082716E-2	2.384977E-2	2.959692E-2	2.152842E-2	2.423815E-2	3.069374E-2	2.975534E-2	1.283996E-2	1.465728E-2	2.576146E-2	2.633206E-2	1.807464E-2	1.841609E-2	1.840625E-2	2.781603E-2	2.088168E-2	2.609662E-2	2.212844E-2	2.761203E-2	2.590161E-2	1.669118E-2	2.201690E-2	2.185665E-2	2.684772E-2	3.746024E-2	3.057271E-2	2.068724E-2	1.793447E-2	2.120329E-2	2.042690E-2	2.438778E-2	2.384971E-2	2.630014E-2	2.223585E-2	3.349607E-2	9.698708E-3	2.813171E-2	1.917066E-2	2.419662E-2	1.646877E-2	1.796793E-2	1.022711E-2	1.908558E-2	2.694265E-2	1.093373E-2	2.083628E-2	2.800844E-2	2.711176E-2	1.187751E-2	2.465153E-2	2.602469E-2	1.900866E-2	2.142841E-2	2.741016E-2	1.959554E-2	1.599210E-2	1.297696E-2	3.458932E-2	1.865528E-2	2.942027E-2	1.813683E-2	1.906029E-2	2.002840E-2	1.352034E-2	2.525835E-2	2.607107E-2	8.783273E-3	2.767820E-2	1.479935E-2	2.141261E-2	1.128746E-2	3.001679E-2	2.363230E-2	1.789016E-2	3.054540E-2	6.677160E-3	3.448381E-2	3.157034E-2	2.688480E-2	2.536515E-2	2.004130E-2	4.557304E-2	2.234670E-2	1.469411E-2	3.107053E-2	1.893076E-2	2.931323E-2	2.436263E-2	1.904208E-2	1.704452E-2	2.313354E-2	3.782967E-2	3.577159E-2	2.801417E-2	1.949576E-2	2.121175E-2	2.082591E-2	2.021024E-2	5.359415E-3	2.141013E-2	2.307122E-2	3.631806E-2	2.220222E-2	2.474987E-2	1.322158E-2	2.903025E-2	3.421395E-2	2.233777E-2	1.434112E-2	2.191902E-2	2.645201E-2	2.429172E-2	7.872838E-3	1.168528E-2	1.876756E-2	2.198685E-2	2.975357E-2	2.327201E-2	2.313884E-2	3.820604E-2	2.219550E-2	1.968815E-2	1.257190E-2	2.798433E-2	2.855188E-2	2.686654E-2	1.594818E-2	3.761901E-2	2.661282E-2	2.349940E-2	2.906058E-2	2.139929E-2	2.166484E-2	2.793896E-2	2.667952E-2	1.403091E-2	2.454366E-2	2.734235E-2	9.222791E-3	2.348946E-2	3.000684E-2	1.940511E-2	1.415046E-2	1.260866E-2	9.229985E-3	3.246182E-2	2.018842E-2	1.454684E-2	2.362675E-2	2.030287E-2	2.514907E-2	3.272037E-2	2.425232E-2	-9.169696E-3
5.333130E+2	3.092846E-2	4.096422E-2	2.142629E-2	1.291544E-2	2.822551E-2	3.317849E-2	3.096051E-2	3.772056E-2	2.354550E-2	4.030251E-2	2.678066E-2	4.199450E-2	2.937255E-2	2.494962E-2	2.334170E-2	3.782500E-2	2.043727E-2	4.037572E-2	2.734294E-2	2.519542E-2	1.940496E-2	3.089650E-2	3.580911E-2	2.866707E-2	3.099061E-2	3.672907E-2	3.120279E-2	2.790169E-2	3.825517E-2	2.541225E-2	2.926869E-2	4.040006E-2	2.233809E-2	2.175452E-2	2.601737E-2	3.066766E-2	2.450352E-2	2.598887E-2	3.321525E-2	1.466809E-2	2.710879E-2	3.004756E-2	3.023941E-2	2.830957E-2	3.507978E-2	3.512011E-2	3.509347E-2	4.166716E-2	4.904712E-2	2.529895E-2	2.729157E-2	2.877275E-2	3.920571E-2	2.665465E-2	3.035856E-2	3.404378E-2	3.650589E-2	4.534161E-2	3.546197E-2	2.548761E-2	3.541221E-2	3.295767E-2	3.889284E-2	2.536967E-2	2.214015E-2	3.227167E-2	2.871262E-2	3.117158E-2	1.529514E-2	1.435528E-2	3.502855E-2	3.760353E-2	3.626524E-2	2.536768E-2	4.726731E-2	2.557507E-2	3.917650E-2	2.270724E-2	3.206377E-2	2.469872E-2	3.002214E-2	4.244694E-2	3.412557E-2	2.759906E-2	3.541706E-2	2.366267E-2	3.651280E-2	2.160793E-2	3.406730E-2	4.039465E-2	3.410966E-2	3.364794E-2	2.801461E-2	2.792174E-2	3.911413E-2	2.303085E-2	2.985923E-2	2.693498E-2	3.921771E-2	3.244094E-2	2.413220E-2	4.004719E-2	2.760386E-2	2.309651E-2	3.609582E-2	2.403530E-2	3.132966E-2	3.257562E-2	3.497654E-2	3.714182E-2	4.341285E-2	3.895984E-2	3.485671E-2	3.498784E-2	3.551586E-2	3.211886E-2	2.626545E-2	2.222758E-2	4.126300E-2	3.005135E-2	3.889238E-2	3.331805E-2	2.995264E-2	2.772489E-2	5.148973E-2	2.123369E-2	3.387535E-2	3.203317E-2	1.687149E-2	3.329772E-2	3.116143E-2	2.719368E-2	2.763204E-2	3.771022E-2	3.445725E-2	2.778157E-2	2.541075E-2	3.290123E-2	2.902393E-2	2.863401E-2	3.967863E-2	1.721057E-2	3.241151E-2	3.181866E-2	3.326680E-2	2.262557E-2	3.351135E-2	3.640464E-2	3.310918E-2	3.478205E-2	2.882375E-2	3.531791E-2	2.792733E-2	4.444914E-2	4.168213E-2	1.527869E-2	3.330622E-2	4.233104E-2	2.159898E-2	2.726104E-2	2.335865E-2	3.070349E-2	3.336697E-2	2.765053E-2	2.826141E-2	3.178960E-2	3.766044E-2	3.431911E-2	4.487726E-2	2.966796E-2	1.159217E-2
5.334630E+2	3.143626E-2	4.910922E-2	4.747615E-2	2.496260E-2	3.661830E-2	3.442388E-2	2.951110E-2	3.566398E-2	3.195594E-2	2.933501E-2	2.290415E-2	3.451658E-2	3.516642E-2	3.162351E-2	4.173271E-2	4.203380E-2	1.883256E-2	4.797688E-2	3.619979E-2	3.296996E-2	4.103329E-2	4.623199E-2	3.538678E-2	3.708960E-2	3.815629E-2	5.194989E-2	4.642162E-2	3.769466E-2	3.205550E-2	2.828331E-2	4.482888E-2	3.739226E-2	3.743104E-2	2.808497E-2	3.948681E-2	4.680298E-2	4.329982E-2	4.891631E-2	4.718563E-2	4.499515E-2	4.720215E-2	4.249435E-2	3.192312E-2	4.498767E-2	4.444756E-2	5.294136E-2	4.111401E-2	4.830849E-2	5.362505E-2	4.973701E-2	3.338810E-2	5.313496E-2	4.164706E-2	3.716906E-2	4.112468E-2	3.835815E-2	3.243859E-2	3.347966E-2	3.530526E-2	4.705884E-2	3.356847E-2	3.901460E-2	5.076643E-2	3.724132E-2	4.235862E-2	3.215681E-2	5.043077E-2	3.776012E-2	2.772140E-2	2.444265E-2	3.272244E-2	3.059923E-2	4.697165E-2	3.805101E-2	3.532149E-2	3.678232E-2	4.824015E-2	4.062064E-2	3.550820E-2	3.602695E-2	4.407185E-2	5.202957E-2	2.618528E-2	5.252479E-2	3.408083E-2	3.285204E-2	4.805934E-2	4.301553E-2	4.757206E-2	4.105207E-2	3.879540E-2	4.719072E-2	4.929574E-2	4.777142E-2	4.611045E-2	3.555984E-2	3.964804E-2	3.904095E-2	5.086491E-2	3.679014E-2	5.083348E-2	2.999500E-2	3.861558E-2	3.841678E-2	3.880603E-2	3.545903E-2	3.149486E-2	4.780914E-2	4.257677E-2	3.954404E-2	4.147498E-2	4.151236E-2	2.463738E-2	3.976178E-2	3.876403E-2	4.364876E-2	5.154184E-2	3.322778E-2	4.906975E-2	3.287845E-2	4.017994E-2	2.868737E-2	4.250101E-2	5.248656E-2	3.574318E-2	3.527969E-2	3.906751E-2	4.418591E-2	3.268188E-2	3.904698E-2	3.525457E-2	4.579080E-2	4.038258E-2	5.341602E-2	1.923678E-2	3.472927E-2	4.122292E-2	3.539550E-2	3.618501E-2	4.733036E-2	4.489401E-2	5.523691E-2	4.610703E-2	3.935657E-2	4.317167E-2	4.391420E-2	4.545801E-2	5.427387E-2	3.549746E-2	3.662027E-2	5.989843E-2	4.117890E-2	4.762389E-2	4.577810E-2	2.942528E-2	3.485389E-2	2.357816E-2	5.067676E-2	3.132745E-2	3.433238E-2	3.251659E-2	4.169869E-2	3.852947E-2	4.719284E-2	3.182635E-2	5.526596E-2	3.428766E-2	3.478285E-2	4.146629E-2	4.483540E-2	8.405530E-2
5.336130E+2	5.624100E-2	5.017503E-2	4.592235E-2	4.887604E-2	5.109806E-2	4.755823E-2	4.843038E-2	4.217197E-2	3.790648E-2	4.982596E-2	4.125436E-2	6.205705E-2	4.326342E-2	4.226498E-2	4.048496E-2	4.312307E-2	4.583638E-2	5.596888E-2	5.802149E-2	5.959972E-2	4.731586E-2	4.547546E-2	6.127431E-2	7.322742E-2	6.153563E-2	4.974780E-2	5.377259E-2	5.554510E-2	5.211253E-2	4.559012E-2	4.565448E-2	5.727790E-2	4.469654E-2	5.699836E-2	4.304811E-2	5.527917E-2	4.749630E-2	3.900316E-2	6.296779E-2	4.359890E-2	7.126876E-2	5.186317E-2	5.788844E-2	5.765902E-2	6.074631E-2	5.444274E-2	5.872844E-2	4.574881E-2	7.017261E-2	5.020104E-2	6.219584E-2	5.926682E-2	5.166852E-2	3.881902E-2	6.122984E-2	5.161349E-2	6.069961E-2	6.012580E-2	3.961958E-2	4.151935E-2	5.062658E-2	4.807857E-2	6.549438E-2	6.444775E-2	5.470169E-2	4.037357E-2	5.738675E-2	5.547988E-2	4.644417E-2	5.908026E-2	4.416150E-2	5.763624E-2	7.770720E-2	5.537614E-2	4.786641E-2	4.754484E-2	6.237957E-2	5.419321E-2	5.158185E-2	4.807558E-2	7.113799E-2	6.240423E-2	8.656996E-2	4.888311E-2	4.219103E-2	6.323540E-2	5.632591E-2	5.854717E-2	5.824136E-2	4.670933E-2	6.191760E-2	6.202859E-2	5.944611E-2	3.802939E-2	6.965750E-2	6.006628E-2	5.461071E-2	6.095336E-2	5.205886E-2	4.533714E-2	4.691680E-2	6.383733E-2	5.086420E-2	4.226016E-2	3.808619E-2	6.307493E-2	3.583793E-2	5.843089E-2	5.820915E-2	5.763004E-2	4.860555E-2	5.890130E-2	3.323582E-2	5.015404E-2	4.702026E-2	4.154515E-2	5.270971E-2	5.282634E-2	6.907710E-2	5.479518E-2	5.816497E-2	5.717678E-2	4.797593E-2	5.185108E-2	4.710524E-2	4.866549E-2	4.703526E-2	4.877550E-2	6.351581E-2	5.483184E-2	3.980854E-2	6.036191E-2	6.939474E-2	4.967720E-2	5.100305E-2	6.178915E-2	5.661775E-2	5.527348E-2	5.705402E-2	5.323227E-2	5.630712E-2	4.398037E-2	5.216169E-2	5.011876E-2	5.240292E-2	6.631814E-2	4.494314E-2	5.093473E-2	6.263320E-2	5.687042E-2	6.296130E-2	5.334317E-2	4.426425E-2	5.216730E-2	6.267429E-2	3.683467E-2	3.713253E-2	3.724115E-2	6.000237E-2	6.892029E-2	3.316829E-2	4.815799E-2	5.403339E-2	6.988477E-2	4.828128E-2	4.697042E-2	4.928303E-2	5.305773E-2	3.837071E-2	5.976360E-2	5.814301E-2
5.337630E+2	6.949537E-2	7.588762E-2	7.081443E-2	8.526094E-2	8.405769E-2	6.683829E-2	7.479924E-2	6.997025E-2	5.798772E-2	4.739309E-2	6.172296E-2	6.902933E-2	6.171341E-2	6.521182E-2	7.203251E-2	6.888342E-2	6.908687E-2	8.258201E-2	5.766807E-2	7.583494E-2	7.623235E-2	7.223705E-2	1.022973E-1	8.977186E-2	7.652053E-2	7.004696E-2	6.041058E-2	7.189557E-2	7.346531E-2	6.393048E-2	5.398950E-2	5.952260E-2	7.245286E-2	8.224597E-2	7.710040E-2	8.052134E-2	6.375055E-2	7.706135E-2	8.646658E-2	6.749635E-2	7.611659E-2	8.080533E-2	7.324463E-2	5.466911E-2	7.038048E-2	8.283717E-2	5.848175E-2	5.667490E-2	6.978348E-2	6.741977E-2	6.824014E-2	8.471182E-2	7.236947E-2	5.603528E-2	7.503326E-2	7.086793E-2	7.263563E-2	7.731447E-2	7.348470E-2	7.167548E-2	7.754143E-2	8.498563E-2	7.009956E-2	8.257991E-2	8.120831E-2	7.682879E-2	6.684957E-2	8.508296E-2	5.580984E-2	6.276165E-2	8.182967E-2	7.678725E-2	6.850775E-2	6.793811E-2	7.573279E-2	7.507216E-2	7.398630E-2	6.810224E-2	7.253862E-2	8.341318E-2	7.566241E-2	6.442430E-2	9.489672E-2	6.640567E-2	6.941264E-2	7.282502E-2	5.354818E-2	7.575044E-2	7.349670E-2	7.843113E-2	8.199944E-2	7.394362E-2	6.462495E-2	8.039235E-2	6.197431E-2	6.572336E-2	7.197777E-2	6.485815E-2	5.699354E-2	6.190172E-2	7.568312E-2	7.664866E-2	6.350318E-2	6.940159E-2	5.784325E-2	8.686074E-2	7.681279E-2	6.938591E-2	8.179851E-2	6.562318E-2	8.516896E-2	6.725140E-2	8.892823E-2	5.156021E-2	6.997588E-2	7.006604E-2	8.290444E-2	7.228496E-2	8.085758E-2	8.518971E-2	8.377902E-2	7.554490E-2	7.656206E-2	5.684118E-2	7.266845E-2	7.401572E-2	6.838775E-2	7.849973E-2	7.216473E-2	7.225185E-2	8.341941E-2	7.264243E-2	7.756156E-2	6.544960E-2	5.994011E-2	7.158912E-2	7.071215E-2	6.937175E-2	8.734141E-2	6.669461E-2	6.679220E-2	5.999075E-2	9.076408E-2	7.310657E-2	9.055228E-2	6.413753E-2	7.158714E-2	7.844378E-2	7.505718E-2	8.028928E-2	6.792305E-2	8.102898E-2	7.272577E-2	7.734995E-2	7.246620E-2	6.890223E-2	7.464639E-2	7.453602E-2	8.239435E-2	5.744020E-2	6.191475E-2	7.437960E-2	8.563688E-2	7.024662E-2	7.701315E-2	6.607002E-2	5.714252E-2	7.648281E-2	6.615218E-2	1.017829E-1	7.664335E-2
5.339140E+2	9.700314E-2	1.058630E-1	1.087488E-1	9.372228E-2	1.103060E-1	1.156167E-1	1.017292E-1	1.059197E-1	9.406185E-2	9.366114E-2	1.134537E-1	1.040227E-1	8.710207E-2	8.789981E-2	1.076257E-1	9.708368E-2	1.076987E-1	1.191408E-1	9.131709E-2	1.032340E-1	1.138203E-1	1.035389E-1	1.463684E-1	1.314234E-1	1.348605E-1	1.354042E-1	1.099548E-1	1.271993E-1	1.323232E-1	1.130360E-1	1.196033E-1	9.685958E-2	1.221146E-1	1.178296E-1	1.263653E-1	9.766134E-2	1.035257E-1	1.120923E-1	1.119400E-1	1.043507E-1	1.087667E-1	1.292574E-1	1.004844E-1	1.048753E-1	1.050016E-1	1.046340E-1	1.200203E-1	1.006725E-1	1.200372E-1	1.039107E-1	1.254170E-1	1.107302E-1	9.798566E-2	1.188438E-1	1.269780E-1	1.179231E-1	1.015774E-1	8.967515E-2	1.109081E-1	1.357869E-1	1.047035E-1	1.076527E-1	1.137038E-1	8.799760E-2	1.200056E-1	1.048505E-1	1.071560E-1	1.124434E-1	8.381879E-2	1.106591E-1	1.095337E-1	8.636017E-2	1.165277E-1	1.060235E-1	1.091744E-1	1.083556E-1	1.134850E-1	1.135834E-1	1.022702E-1	1.033354E-1	1.078145E-1	8.449419E-2	1.041930E-1	9.550681E-2	1.096744E-1	9.899413E-2	1.074846E-1	9.280925E-2	1.068149E-1	8.939434E-2	1.108957E-1	8.834796E-2	1.054708E-1	9.765615E-2	1.159486E-1	1.025121E-1	1.034324E-1	1.113793E-1	9.004779E-2	9.545122E-2	1.123032E-1	1.080944E-1	9.719694E-2	1.015937E-1	1.115301E-1	9.353268E-2	9.567794E-2	9.803470E-2	1.127760E-1	1.077627E-1	9.490728E-2	1.073430E-1	1.010342E-1	9.728060E-2	9.860278E-2	9.331105E-2	1.029090E-1	1.063522E-1	1.220242E-1	1.174894E-1	1.044781E-1	1.008517E-1	8.832814E-2	9.586657E-2	1.278937E-1	9.978874E-2	9.803591E-2	8.321247E-2	9.532275E-2	9.583100E-2	1.197382E-1	1.202084E-1	9.947119E-2	9.540241E-2	1.163541E-1	1.079565E-1	1.014401E-1	1.064398E-1	9.760426E-2	9.952031E-2	9.437220E-2	9.340595E-2	1.317852E-1	1.167978E-1	1.052311E-1	1.080731E-1	1.015341E-1	9.496762E-2	1.070123E-1	1.091739E-1	1.128440E-1	1.268581E-1	9.908109E-2	8.953495E-2	1.177612E-1	1.015060E-1	9.461967E-2	1.145764E-1	9.950254E-2	1.108823E-1	1.090856E-1	1.062831E-1	1.057101E-1	1.039164E-1	1.013393E-1	1.165086E-1	1.187352E-1	1.208403E-1	1.465230E-1	1.139767E-1	9.192822E-2
5.340590E+2	1.512016E-1	1.565824E-1	1.476070E-1	1.221670E-1	1.509945E-1	1.586274E-1	1.479185E-1	1.425427E-1	1.632422E-1	1.625622E-1	1.532149E-1	1.787953E-1	1.478174E-1	1.605304E-1	1.514119E-1	1.335190E-1	1.357458E-1	1.648777E-1	1.625404E-1	1.620192E-1	1.378570E-1	1.491894E-1	2.257452E-1	1.981434E-1	1.914719E-1	1.892008E-1	1.882402E-1	1.908295E-1	1.676255E-1	1.768822E-1	1.615997E-1	1.642131E-1	1.931007E-1	1.837981E-1	1.634649E-1	1.667748E-1	1.926836E-1	1.707268E-1	1.623934E-1	1.688155E-1	1.764183E-1	1.784735E-1	1.655284E-1	1.783401E-1	1.853856E-1	1.559191E-1	1.797608E-1	1.740549E-1	1.750237E-1	1.901463E-1	1.736240E-1	1.739425E-1	1.822066E-1	1.653369E-1	1.699700E-1	1.695253E-1	1.818076E-1	1.532120E-1	1.536827E-1	1.849424E-1	1.601642E-1	1.619726E-1	1.698783E-1	1.762952E-1	1.832544E-1	1.692869E-1	1.660187E-1	1.673184E-1	1.490841E-1	1.546931E-1	1.701913E-1	1.925089E-1	1.779452E-1	1.759736E-1	1.720829E-1	1.640724E-1	1.752517E-1	1.660846E-1	1.612226E-1	1.636216E-1	1.695783E-1	1.654307E-1	1.439449E-1	1.746679E-1	1.607918E-1	1.558318E-1	1.603692E-1	1.653275E-1	1.677581E-1	1.842243E-1	1.668021E-1	1.920996E-1	1.611913E-1	1.704086E-1	1.714662E-1	1.719213E-1	1.787852E-1	1.580801E-1	1.537042E-1	1.528077E-1	1.782312E-1	1.798824E-1	1.499663E-1	1.589639E-1	1.799962E-1	1.733855E-1	1.436519E-1	1.642215E-1	1.635452E-1	1.677425E-1	1.847738E-1	1.701552E-1	1.760438E-1	1.835483E-1	1.651391E-1	1.669784E-1	1.551402E-1	1.920646E-1	1.591409E-1	1.529148E-1	1.642534E-1	1.632961E-1	1.644628E-1	1.728327E-1	1.883683E-1	1.772130E-1	1.575038E-1	1.853968E-1	1.770017E-1	1.743257E-1	1.524204E-1	1.620591E-1	1.744302E-1	1.578523E-1	1.752581E-1	1.624121E-1	1.727188E-1	1.543842E-1	1.491963E-1	1.403643E-1	1.606610E-1	1.533807E-1	1.684817E-1	1.727220E-1	1.609417E-1	1.650210E-1	1.596216E-1	1.656948E-1	1.574212E-1	1.585747E-1	1.561992E-1	1.644049E-1	1.661205E-1	1.666198E-1	1.702936E-1	1.603928E-1	1.400083E-1	1.582803E-1	1.756821E-1	1.580606E-1	1.871163E-1	1.651261E-1	1.586003E-1	1.657295E-1	1.580981E-1	1.512537E-1	1.568332E-1	1.836474E-1	1.739623E-1	1.605462E-1	1.610332E-1
5.342090E+2	2.370892E-1	2.579144E-1	2.469654E-1	2.395690E-1	2.511903E-1	2.612794E-1	2.603368E-1	2.445048E-1	2.572309E-1	2.543678E-1	2.600073E-1	2.272774E-1	2.586284E-1	2.483497E-1	2.484711E-1	2.426339E-1	2.357727E-1	2.475812E-1	2.565308E-1	2.410778E-1	2.562049E-1	2.824012E-1	3.746156E-1	3.242781E-1	3.384637E-1	3.287704E-1	3.105557E-1	2.945583E-1	2.868114E-1	2.853549E-1	2.816630E-1	2.632257E-1	2.640575E-1	2.606638E-1	2.765272E-1	3.123216E-1	2.761700E-1	2.761883E-1	2.850837E-1	2.917165E-1	2.878429E-1	2.869309E-1	2.600106E-1	2.887767E-1	2.702368E-1	2.693554E-1	2.883539E-1	2.817417E-1	2.857059E-1	2.642716E-1	2.511323E-1	2.601708E-1	2.740194E-1	2.685382E-1	3.053080E-1	2.773787E-1	2.966066E-1	2.741786E-1	2.839159E-1	2.922120E-1	2.950358E-1	2.400852E-1	2.675908E-1	2.718274E-1	2.712307E-1	2.759620E-1	2.535808E-1	2.879781E-1	2.665933E-1	2.572400E-1	2.791589E-1	2.558853E-1	2.932487E-1	2.648903E-1	2.840146E-1	2.561953E-1	2.849629E-1	2.638187E-1	2.576845E-1	2.555771E-1	2.991156E-1	2.796157E-1	2.796298E-1	2.672285E-1	2.815685E-1	2.646567E-1	2.735752E-1	2.714325E-1	3.010339E-1	2.705294E-1	2.787874E-1	2.745275E-1	2.759288E-1	2.993470E-1	2.471088E-1	2.697496E-1	3.052086E-1	2.753854E-1	2.567269E-1	2.701562E-1	2.739548E-1	2.658983E-1	2.538455E-1	2.773100E-1	2.485985E-1	2.566462E-1	2.634454E-1	2.664971E-1	2.571448E-1	2.590430E-1	2.592287E-1	2.689671E-1	2.542586E-1	2.637432E-1	2.728723E-1	2.809746E-1	2.663081E-1	2.710559E-1	2.932363E-1	2.615070E-1	3.040673E-1	2.810275E-1	2.957341E-1	2.589804E-1	2.785698E-1	2.702858E-1	2.788714E-1	2.758749E-1	2.584528E-1	2.747859E-1	2.501608E-1	2.930885E-1	2.606583E-1	2.916638E-1	2.594511E-1	2.508823E-1	2.808034E-1	2.633559E-1	2.959246E-1	2.616220E-1	2.791252E-1	2.651620E-1	2.991361E-1	2.555451E-1	2.834124E-1	2.631173E-1	2.659792E-1	2.783110E-1	2.734901E-1	2.783315E-1	2.494391E-1	2.898456E-1	2.338813E-1	2.772761E-1	2.607695E-1	2.736162E-1	2.647560E-1	2.538938E-1	2.774751E-1	2.653869E-1	2.993360E-1	2.717091E-1	2.643612E-1	2.855168E-1	2.726486E-1	2.877467E-1	2.667166E-1	2.705699E-1	3.096453E-1	2.752016E-1	3.570496E-1
5.343600E+2	4.570019E-1	4.419035E-1	4.407120E-1	4.487071E-1	5.045875E-1	4.496001E-1	4.762717E-1	4.565136E-1	4.901790E-1	4.548989E-1	4.320469E-1	4.963326E-1	4.806891E-1	4.678737E-1	4.951367E-1	4.721924E-1	4.589854E-1	4.752056E-1	4.430040E-1	4.514484E-1	4.346453E-1	4.977633E-1	5.917043E-1	6.106581E-1	5.196766E-1	5.415808E-1	5.459919E-1	5.318814E-1	5.284135E-1	5.247393E-1	5.204453E-1	5.189601E-1	5.152910E-1	4.885181E-1	5.174107E-1	5.168402E-1	4.927670E-1	4.889137E-1	4.950181E-1	4.457083E-1	4.799243E-1	4.849514E-1	4.837633E-1	5.191586E-1	4.975410E-1	4.871551E-1	5.108939E-1	4.868600E-1	5.021201E-1	4.830292E-1	4.735086E-1	5.212694E-1	4.747570E-1	4.960458E-1	4.774034E-1	4.963918E-1	5.256037E-1	4.857975E-1	5.120892E-1	5.176952E-1	5.015532E-1	4.827216E-1	5.275224E-1	4.899681E-1	4.862661E-1	4.990867E-1	5.078627E-1	4.765245E-1	4.745452E-1	4.591985E-1	4.976285E-1	4.851328E-1	4.699243E-1	4.992298E-1	5.054395E-1	4.870864E-1	4.730292E-1	5.161494E-1	5.130015E-1	4.887459E-1	4.861176E-1	5.105492E-1	5.138525E-1	4.576031E-1	4.738154E-1	4.917704E-1	4.863596E-1	4.918087E-1	4.796757E-1	4.729280E-1	4.957881E-1	4.990697E-1	5.096225E-1	4.800463E-1	5.061000E-1	4.659494E-1	5.254418E-1	4.875802E-1	4.981907E-1	4.388590E-1	4.772867E-1	4.621234E-1	4.874458E-1	5.009594E-1	5.044108E-1	4.904554E-1	5.040811E-1	5.092193E-1	5.053590E-1	4.609473E-1	5.043373E-1	5.024871E-1	4.721889E-1	4.883240E-1	4.632550E-1	4.444638E-1	5.111352E-1	4.559018E-1	5.090392E-1	4.610222E-1	5.085765E-1	4.626308E-1	5.228898E-1	4.924274E-1	4.576416E-1	4.818782E-1	4.816826E-1	4.910805E-1	4.762018E-1	4.775324E-1	4.982095E-1	5.297431E-1	4.942339E-1	4.875235E-1	4.853785E-1	4.979649E-1	4.766446E-1	4.753115E-1	4.883387E-1	4.853749E-1	4.609281E-1	4.645676E-1	4.773025E-1	4.882334E-1	4.802125E-1	4.770456E-1	4.808367E-1	4.799987E-1	4.871587E-1	4.791616E-1	4.932239E-1	4.756930E-1	4.791227E-1	5.151541E-1	5.053351E-1	4.475639E-1	4.860148E-1	4.623008E-1	4.889788E-1	5.237387E-1	5.377154E-1	4.412313E-1	4.847758E-1	4.872116E-1	5.121617E-1	4.774946E-1	5.004111E-1	4.886266E-1	5.223037E-1	5.130524E-1	5.178156E-1
5.345110E+2	7.731471E-1	7.386845E-1	7.691832E-1	7.815344E-1	7.664926E-1	7.703667E-1	7.963257E-1	7.604150E-1	7.613973E-1	7.432900E-1	8.337649E-1	7.588107E-1	7.761749E-1	7.919617E-1	7.865133E-1	7.648343E-1	7.930942E-1	8.172022E-1	7.815582E-1	7.693331E-1	7.741303E-1	7.755612E-1	9.350869E-1	8.837785E-1	8.472896E-1	9.276341E-1	8.090057E-1	8.512355E-1	8.266424E-1	8.535689E-1	7.850831E-1	7.930967E-1	8.220952E-1	8.639373E-1	7.820979E-1	9.017664E-1	8.427295E-1	8.283142E-1	8.516099E-1	8.782927E-1	8.071468E-1	8.030545E-1	8.063892E-1	8.113232E-1	8.468031E-1	8.385671E-1	8.059717E-1	8.251804E-1	8.726039E-1	8.006560E-1	7.887498E-1	7.820465E-1	8.316335E-1	7.604827E-1	8.044481E-1	8.524064E-1	8.220330E-1	8.545106E-1	7.807347E-1	8.178285E-1	8.408696E-1	7.959536E-1	8.521517E-1	8.292054E-1	8.239169E-1	8.221879E-1	8.263484E-1	7.934705E-1	7.896986E-1	7.997711E-1	7.943275E-1	8.218136E-1	8.089780E-1	8.173205E-1	8.049830E-1	7.905347E-1	8.312817E-1	8.148582E-1	8.384375E-1	8.324947E-1	7.737380E-1	7.701586E-1	8.119768E-1	7.971346E-1	8.124720E-1	8.079867E-1	8.414714E-1	8.226082E-1	8.302400E-1	8.072043E-1	7.942509E-1	8.292894E-1	8.138129E-1	7.709607E-1	8.363019E-1	7.928082E-1	7.985349E-1	8.070008E-1	7.790086E-1	7.847579E-1	8.074361E-1	8.314303E-1	8.109452E-1	7.858571E-1	8.214776E-1	8.466891E-1	8.186264E-1	7.862540E-1	8.356828E-1	7.710411E-1	8.220869E-1	7.621656E-1	8.086893E-1	7.853495E-1	7.812865E-1	8.002523E-1	8.348780E-1	7.771683E-1	8.132729E-1	8.165556E-1	8.596583E-1	7.555417E-1	7.821357E-1	7.735383E-1	7.907368E-1	8.311314E-1	8.035589E-1	7.965211E-1	7.960396E-1	8.116630E-1	8.174864E-1	7.856493E-1	8.063674E-1	8.501918E-1	7.660190E-1	8.155671E-1	8.293527E-1	8.185532E-1	7.391489E-1	7.697834E-1	7.903020E-1	7.936703E-1	7.939964E-1	8.095986E-1	8.238612E-1	7.712745E-1	8.283209E-1	8.147395E-1	7.789618E-1	7.947751E-1	8.090494E-1	8.518249E-1	7.630396E-1	8.075271E-1	7.797799E-1	8.503910E-1	8.172036E-1	8.111104E-1	8.203003E-1	7.714231E-1	8.155366E-1	7.588011E-1	7.979051E-1	8.137306E-1	8.018154E-1	8.231427E-1	8.062890E-1	7.817145E-1	8.046096E-1	7.952772E-1	7.737369E-1
5.346620E+2	1.193570E+0	1.203200E+0	1.191028E+0	1.073353E+0	1.123419E+0	1.174541E+0	1.158486E+0	1.154854E+0	1.164631E+0	1.119430E+0	1.150148E+0	1.167796E+0	1.199181E+0	1.105725E+0	1.118727E+0	1.124230E+0	1.147261E+0	1.209347E+0	1.171798E+0	1.126361E+0	1.190414E+0	1.179875E+0	1.272025E+0	1.228280E+0	1.277523E+0	1.219888E+0	1.216429E+0	1.245321E+0	1.191875E+0	1.239641E+0	1.199053E+0	1.180338E+0	1.248377E+0	1.191329E+0	1.263722E+0	1.237778E+0	1.174344E+0	1.195072E+0	1.207590E+0	1.153321E+0	1.207585E+0	1.174045E+0	1.192427E+0	1.159210E+0	1.153722E+0	1.168049E+0	1.194779E+0	1.180616E+0	1.172419E+0	1.205367E+0	1.273173E+0	1.206027E+0	1.213644E+0	1.214712E+0	1.151551E+0	1.154660E+0	1.174656E+0	1.204797E+0	1.214308E+0	1.208582E+0	1.164475E+0	1.133053E+0	1.177986E+0	1.214990E+0	1.204772E+0	1.152271E+0	1.147450E+0	1.150426E+0	1.113776E+0	1.181510E+0	1.194373E+0	1.192361E+0	1.165990E+0	1.111718E+0	1.137872E+0	1.173303E+0	1.212323E+0	1.153333E+0	1.153231E+0	1.219407E+0	1.192629E+0	1.200222E+0	1.141394E+0	1.136119E+0	1.159569E+0	1.155111E+0	1.193835E+0	1.177219E+0	1.184905E+0	1.149429E+0	1.147010E+0	1.148167E+0	1.261444E+0	1.153715E+0	1.166639E+0	1.167242E+0	1.191240E+0	1.167560E+0	1.170659E+0	1.180551E+0	1.169295E+0	1.185881E+0	1.185054E+0	1.175689E+0	1.194694E+0	1.104106E+0	1.220669E+0	1.194288E+0	1.227137E+0	1.123183E+0	1.162334E+0	1.175640E+0	1.113076E+0	1.124345E+0	1.150999E+0	1.127384E+0	1.139366E+0	1.080126E+0	1.136994E+0	1.143552E+0	1.186231E+0	1.200333E+0	1.213174E+0	1.152020E+0	1.234115E+0	1.164696E+0	1.135069E+0	1.176944E+0	1.231829E+0	1.175888E+0	1.194299E+0	1.154811E+0	1.167034E+0	1.152798E+0	1.152089E+0	1.133714E+0	1.148275E+0	1.132704E+0	1.168492E+0	1.139269E+0	1.171070E+0	1.158335E+0	1.158523E+0	1.150394E+0	1.176669E+0	1.154280E+0	1.182640E+0	1.181196E+0	1.208464E+0	1.176886E+0	1.179305E+0	1.190409E+0	1.184089E+0	1.179534E+0	1.231745E+0	1.112011E+0	1.157908E+0	1.123916E+0	1.152591E+0	1.140363E+0	1.136708E+0	1.101927E+0	1.153360E+0	1.160447E+0	1.202462E+0	1.140145E+0	1.176152E+0	1.111145E+0	1.175504E+0	1.168451E+0	1.115032E+0
5.348120E+2	1.502256E+0	1.419180E+0	1.586244E+0	1.486309E+0	1.497506E+0	1.450431E+0	1.520422E+0	1.453441E+0	1.482763E+0	1.491747E+0	1.569262E+0	1.497972E+0	1.534379E+0	1.506482E+0	1.498058E+0	1.497820E+0	1.482383E+0	1.527886E+0	1.487939E+0	1.535285E+0	1.522940E+0	1.507990E+0	1.562471E+0	1.564552E+0	1.588436E+0	1.545376E+0	1.498387E+0	1.539461E+0	1.564126E+0	1.504415E+0	1.450321E+0	1.549878E+0	1.529913E+0	1.582252E+0	1.519000E+0	1.577773E+0	1.499518E+0	1.500514E+0	1.538172E+0	1.457501E+0	1.583291E+0	1.482020E+0	1.495912E+0	1.517826E+0	1.559733E+0	1.513661E+0	1.492139E+0	1.490268E+0	1.520365E+0	1.502395E+0	1.538508E+0	1.576412E+0	1.521207E+0	1.556495E+0	1.611174E+0	1.533040E+0	1.513528E+0	1.505369E+0	1.466905E+0	1.491907E+0	1.546611E+0	1.511493E+0	1.560772E+0	1.526178E+0	1.526506E+0	1.505868E+0	1.597763E+0	1.419651E+0	1.490317E+0	1.531818E+0	1.482042E+0	1.549067E+0	1.509344E+0	1.511623E+0	1.498707E+0	1.464649E+0	1.520892E+0	1.504220E+0	1.505061E+0	1.489246E+0	1.556306E+0	1.421938E+0	1.480530E+0	1.469874E+0	1.479423E+0	1.463900E+0	1.579829E+0	1.454374E+0	1.537403E+0	1.544889E+0	1.492598E+0	1.528861E+0	1.525753E+0	1.431209E+0	1.439799E+0	1.473090E+0	1.501720E+0	1.462657E+0	1.490184E+0	1.504876E+0	1.477398E+0	1.526770E+0	1.450669E+0	1.499690E+0	1.484171E+0	1.430293E+0	1.473252E+0	1.555902E+0	1.510556E+0	1.463630E+0	1.455559E+0	1.515101E+0	1.469929E+0	1.452083E+0	1.464005E+0	1.427322E+0	1.537899E+0	1.462217E+0	1.502493E+0	1.453223E+0	1.526629E+0	1.442827E+0	1.492659E+0	1.481940E+0	1.554723E+0	1.398065E+0	1.417748E+0	1.512601E+0	1.525137E+0	1.477067E+0	1.420191E+0	1.509925E+0	1.480198E+0	1.456560E+0	1.433238E+0	1.525813E+0	1.579152E+0	1.418790E+0	1.373414E+0	1.424623E+0	1.477446E+0	1.443877E+0	1.479324E+0	1.495998E+0	1.463554E+0	1.457374E+0	1.456305E+0	1.519707E+0	1.522295E+0	1.447547E+0	1.459627E+0	1.438355E+0	1.513241E+0	1.499657E+0	1.444751E+0	1.451524E+0	1.507351E+0	1.467584E+0	1.414598E+0	1.493342E+0	1.486015E+0	1.412173E+0	1.508041E+0	1.518574E+0	1.483683E+0	1.439953E+0	1.542574E+0	1.402145E+0	1.541832E+0	1.541882E+0	1.515347E+0
5.349580E+2	1.878725E+0	1.796136E+0	1.796263E+0	1.769102E+0	1.772743E+0	1.774416E+0	1.768572E+0	1.766482E+0	1.749434E+0	1.735956E+0	1.826853E+0	1.722564E+0	1.774456E+0	1.828179E+0	1.809463E+0	1.769812E+0	1.803780E+0	1.804655E+0	1.769455E+0	1.799709E+0	1.767796E+0	1.800208E+0	1.842245E+0	1.723562E+0	1.765393E+0	1.793497E+0	1.764165E+0	1.830045E+0	1.797147E+0	1.837562E+0	1.763961E+0	1.720789E+0	1.745652E+0	1.791008E+0	1.780220E+0	1.813672E+0	1.740040E+0	1.741194E+0	1.800790E+0	1.803628E+0	1.789693E+0	1.807156E+0	1.696450E+0	1.780577E+0	1.804901E+0	1.738864E+0	1.791106E+0	1.810656E+0	1.782346E+0	1.779674E+0	1.849431E+0	1.787105E+0	1.768868E+0	1.839523E+0	1.861340E+0	1.775322E+0	1.871118E+0	1.711387E+0	1.837423E+0	1.743622E+0	1.768615E+0	1.769978E+0	1.891537E+0	1.771114E+0	1.749565E+0	1.849197E+0	1.854568E+0	1.756441E+0	1.772030E+0	1.766486E+0	1.760437E+0	1.786448E+0	1.726344E+0	1.787442E+0	1.773475E+0	1.701393E+0	1.818717E+0	1.709831E+0	1.781177E+0	1.829500E+0	1.762638E+0	1.773229E+0	1.774210E+0	1.832351E+0	1.802469E+0	1.815364E+0	1.762445E+0	1.812112E+0	1.759730E+0	1.741675E+0	1.797636E+0	1.762299E+0	1.793543E+0	1.719351E+0	1.723512E+0	1.758865E+0	1.812130E+0	1.792333E+0	1.739524E+0	1.772515E+0	1.745459E+0	1.837522E+0	1.786094E+0	1.757275E+0	1.748174E+0	1.736993E+0	1.759976E+0	1.810134E+0	1.723630E+0	1.709472E+0	1.761664E+0	1.724508E+0	1.803003E+0	1.724171E+0	1.756887E+0	1.740775E+0	1.828941E+0	1.762830E+0	1.736790E+0	1.834731E+0	1.751929E+0	1.727627E+0	1.751120E+0	1.725072E+0	1.803163E+0	1.723124E+0	1.702545E+0	1.759886E+0	1.748118E+0	1.789010E+0	1.748635E+0	1.727101E+0	1.764311E+0	1.751453E+0	1.704796E+0	1.787381E+0	1.756756E+0	1.652385E+0	1.698414E+0	1.689616E+0	1.766913E+0	1.715764E+0	1.776847E+0	1.750568E+0	1.735584E+0	1.685050E+0	1.762252E+0	1.762754E+0	1.753905E+0	1.777521E+0	1.705262E+0	1.738473E+0	1.719046E+0	1.760916E+0	1.724040E+0	1.731226E+0	1.747685E+0	1.743763E+0	1.723932E+0	1.807598E+0	1.772304E+0	1.708470E+0	1.813597E+0	1.710622E+0	1.784635E+0	1.727596E+0	1.812079E+0	1.720656E+0	1.762693E+0	1.623721E+0	1.712675E+0
5.351040E+2	1.980478E+0	1.930695E+0	2.024086E+0	1.921232E+0	1.980089E+0	1.905907E+0	1.903699E+0	1.997371E+0	1.967357E+0	1.917069E+0	2.053474E+0	1.983588E+0	1.984693E+0	1.896808E+0	2.007960E+0	1.963446E+0	1.919604E+0	2.008424E+0	1.903105E+0	1.977415E+0	1.997258E+0	2.005107E+0	1.902510E+0	1.951526E+0	1.965941E+0	1.969941E+0	1.923204E+0	1.957745E+0	1.943601E+0	1.961756E+0	1.841918E+0	1.903020E+0	1.965806E+0	1.995407E+0	1.906549E+0	1.959746E+0	1.911436E+0	1.913140E+0	1.899302E+0	2.008299E+0	1.956264E+0	1.921070E+0	1.929353E+0	1.953743E+0	1.891725E+0	1.907996E+0	1.947682E+0	1.957851E+0	1.945292E+0	1.930695E+0	2.030012E+0	1.925637E+0	1.882027E+0	1.951624E+0	1.928869E+0	2.012822E+0	1.964373E+0	1.902606E+0	1.955760E+0	1.928811E+0	1.948711E+0	1.930902E+0	1.962623E+0	1.970116E+0	1.908739E+0	1.962599E+0	2.007161E+0	1.883636E+0	1.895587E+0	1.882018E+0	1.911823E+0	1.974213E+0	1.921176E+0	1.901267E+0	1.868296E+0	1.921792E+0	1.921868E+0	1.854640E+0	1.933977E+0	1.871469E+0	1.958354E+0	1.916953E+0	1.931744E+0	1.862752E+0	1.917448E+0	1.841616E+0	1.921837E+0	1.852962E+0	1.905984E+0	1.869097E+0	1.918163E+0	1.867784E+0	1.989143E+0	1.888152E+0	1.844388E+0	1.899094E+0	1.978796E+0	1.885693E+0	1.853362E+0	1.884031E+0	1.898067E+0	1.920507E+0	1.888384E+0	1.895733E+0	1.877130E+0	1.867933E+0	1.964244E+0	1.929823E+0	1.962164E+0	1.790790E+0	1.909616E+0	1.882554E+0	1.932981E+0	1.760329E+0	1.910399E+0	1.802981E+0	1.957013E+0	1.847787E+0	1.947997E+0	1.876897E+0	1.922188E+0	1.881614E+0	1.929032E+0	1.791501E+0	1.878548E+0	1.899178E+0	1.899720E+0	1.952081E+0	1.874400E+0	1.912284E+0	1.886381E+0	1.909576E+0	1.876107E+0	1.937757E+0	1.846979E+0	1.882198E+0	1.910990E+0	1.924928E+0	1.911021E+0	1.863119E+0	1.928801E+0	1.843510E+0	1.929977E+0	1.916005E+0	1.937260E+0	1.913983E+0	1.948968E+0	1.903444E+0	1.847323E+0	1.874146E+0	1.768853E+0	1.954521E+0	1.872914E+0	1.927190E+0	1.829510E+0	1.906650E+0	1.936346E+0	1.807263E+0	1.824141E+0	1.844695E+0	1.878033E+0	1.837898E+0	1.828816E+0	1.851801E+0	1.878964E+0	1.883523E+0	1.916442E+0	1.805511E+0	2.038906E+0	1.924819E+0	1.920056E+0
5.352600E+2	1.952138E+0	1.936848E+0	2.037488E+0	1.968507E+0	1.901680E+0	1.969498E+0	1.977056E+0	1.911357E+0	1.964644E+0	2.003867E+0	1.984774E+0	1.960354E+0	1.964407E+0	1.964227E+0	2.012323E+0	1.953005E+0	1.966353E+0	2.003706E+0	1.913280E+0	1.912249E+0	1.972780E+0	1.949693E+0	1.880624E+0	1.825175E+0	1.948146E+0	2.011912E+0	1.899646E+0	1.910599E+0	1.873270E+0	1.930121E+0	1.840295E+0	1.902594E+0	1.939091E+0	1.948758E+0	1.915223E+0	1.962400E+0	1.916931E+0	1.899059E+0	1.980555E+0	1.937049E+0	1.968306E+0	1.938353E+0	1.926151E+0	1.888583E+0	1.969081E+0	1.823429E+0	1.850966E+0	1.855671E+0	1.921349E+0	1.844815E+0	1.925626E+0	1.961210E+0	1.944259E+0	1.945732E+0	1.971257E+0	1.950342E+0	1.949345E+0	1.857289E+0	1.908090E+0	1.934818E+0	1.985025E+0	1.890005E+0	1.904335E+0	1.996258E+0	1.899313E+0	1.943416E+0	1.868242E+0	1.901266E+0	1.885880E+0	1.910144E+0	1.856361E+0	1.983680E+0	1.896675E+0	1.897477E+0	1.869884E+0	1.931166E+0	1.909057E+0	1.925503E+0	1.941681E+0	1.820556E+0	1.890771E+0	1.875338E+0	1.891546E+0	1.979608E+0	1.848900E+0	1.936276E+0	1.994570E+0	1.882473E+0	1.846529E+0	1.911069E+0	1.870389E+0	1.849603E+0	1.888520E+0	1.939165E+0	1.889423E+0	1.871050E+0	1.877090E+0	1.920166E+0	1.874386E+0	1.770985E+0	1.901065E+0	2.009339E+0	1.862236E+0	1.936545E+0	1.820254E+0	1.883635E+0	1.973763E+0	1.952554E+0	1.884246E+0	1.833713E+0	1.914190E+0	1.849708E+0	1.882847E+0	1.873248E+0	1.929688E+0	1.890042E+0	1.930943E+0	1.809308E+0	1.942337E+0	1.877315E+0	1.952452E+0	1.875751E+0	1.904698E+0	1.890341E+0	1.959879E+0	1.906586E+0	1.867258E+0	1.878011E+0	1.936150E+0	1.945571E+0	1.923071E+0	1.900035E+0	1.809385E+0	1.874763E+0	1.856562E+0	1.939069E+0	1.946123E+0	1.865953E+0	1.877561E+0	1.890344E+0	1.921451E+0	1.831380E+0	1.895681E+0	1.861180E+0	1.871729E+0	1.857405E+0	1.887710E+0	1.882361E+0	1.898288E+0	1.857335E+0	1.892719E+0	1.917675E+0	1.854953E+0	1.852339E+0	1.859008E+0	1.963164E+0	1.847381E+0	1.882751E+0	1.826184E+0	1.862477E+0	1.933307E+0	1.804411E+0	1.889637E+0	1.915967E+0	1.917071E+0	1.831647E+0	1.877213E+0	1.763397E+0	1.907753E+0	1.878819E+0	1.892199E+0
5.354110E+2	1.792593E+0	1.792864E+0	1.742001E+0	1.710135E+0	1.751259E+0	1.791379E+0	1.765123E+0	1.767382E+0	1.735721E+0	1.748606E+0	1.814835E+0	1.730516E+0	1.776418E+0	1.743460E+0	1.773848E+0	1.769222E+0	1.715352E+0	1.810304E+0	1.761439E+0	1.839751E+0	1.772814E+0	1.714793E+0	1.699922E+0	1.735564E+0	1.745966E+0	1.760764E+0	1.751341E+0	1.688349E+0	1.724318E+0	1.718697E+0	1.694118E+0	1.687007E+0	1.691911E+0	1.718524E+0	1.755965E+0	1.727021E+0	1.705266E+0	1.739591E+0	1.721428E+0	1.756633E+0	1.723702E+0	1.724578E+0	1.732049E+0	1.736485E+0	1.743240E+0	1.727056E+0	1.696372E+0	1.673343E+0	1.711186E+0	1.748505E+0	1.706386E+0	1.740618E+0	1.713964E+0	1.724937E+0	1.780780E+0	1.786524E+0	1.748897E+0	1.755306E+0	1.778293E+0	1.723479E+0	1.711131E+0	1.749600E+0	1.734437E+0	1.709687E+0	1.766692E+0	1.745348E+0	1.797102E+0	1.660192E+0	1.656880E+0	1.724742E+0	1.749109E+0	1.724672E+0	1.723321E+0	1.654767E+0	1.711083E+0	1.712926E+0	1.693280E+0	1.693405E+0	1.716146E+0	1.720249E+0	1.709792E+0	1.748102E+0	1.723049E+0	1.770292E+0	1.668103E+0	1.696243E+0	1.728081E+0	1.676353E+0	1.733921E+0	1.738051E+0	1.802093E+0	1.705428E+0	1.660625E+0	1.718372E+0	1.729113E+0	1.589383E+0	1.628754E+0	1.747085E+0	1.709724E+0	1.726504E+0	1.738509E+0	1.765417E+0	1.755559E+0	1.737622E+0	1.736123E+0	1.695437E+0	1.751954E+0	1.748432E+0	1.729010E+0	1.687297E+0	1.690601E+0	1.644081E+0	1.715001E+0	1.674261E+0	1.742958E+0	1.699104E+0	1.771317E+0	1.664423E+0	1.747210E+0	1.736179E+0	1.781702E+0	1.672161E+0	1.701803E+0	1.686248E+0	1.740666E+0	1.667283E+0	1.712896E+0	1.675295E+0	1.698983E+0	1.733022E+0	1.693481E+0	1.739511E+0	1.689007E+0	1.687733E+0	1.732905E+0	1.701337E+0	1.741660E+0	1.712600E+0	1.736513E+0	1.621745E+0	1.673173E+0	1.631692E+0	1.753644E+0	1.712168E+0	1.688339E+0	1.668079E+0	1.694886E+0	1.690024E+0	1.704704E+0	1.739026E+0	1.712446E+0	1.683722E+0	1.707648E+0	1.726829E+0	1.597175E+0	1.686452E+0	1.706545E+0	1.675090E+0	1.717085E+0	1.726783E+0	1.692994E+0	1.694063E+0	1.722326E+0	1.769542E+0	1.687820E+0	1.655206E+0	1.720434E+0	1.660186E+0	1.714256E+0	1.667793E+0	1.780645E+0
5.355630E+2	1.560782E+0	1.460406E+0	1.589228E+0	1.485129E+0	1.545039E+0	1.549040E+0	1.460390E+0	1.580498E+0	1.505050E+0	1.543910E+0	1.567699E+0	1.483149E+0	1.546861E+0	1.485715E+0	1.553516E+0	1.529444E+0	1.543167E+0	1.562610E+0	1.513030E+0	1.531681E+0	1.602916E+0	1.532678E+0	1.475957E+0	1.461178E+0	1.499086E+0	1.549180E+0	1.472821E+0	1.486408E+0	1.501591E+0	1.509219E+0	1.473315E+0	1.458759E+0	1.537889E+0	1.530251E+0	1.474053E+0	1.597739E+0	1.489401E+0	1.449084E+0	1.518936E+0	1.472273E+0	1.440797E+0	1.469764E+0	1.501129E+0	1.528669E+0	1.524158E+0	1.475664E+0	1.450679E+0	1.556228E+0	1.509717E+0	1.486974E+0	1.483060E+0	1.548660E+0	1.478009E+0	1.508064E+0	1.498824E+0	1.491984E+0	1.538938E+0	1.578556E+0	1.446192E+0	1.547843E+0	1.532519E+0	1.520198E+0	1.482096E+0	1.479576E+0	1.534722E+0	1.518330E+0	1.499021E+0	1.469691E+0	1.432874E+0	1.464338E+0	1.518624E+0	1.507622E+0	1.488947E+0	1.501718E+0	1.456714E+0	1.502116E+0	1.478132E+0	1.435081E+0	1.539907E+0	1.496314E+0	1.525368E+0	1.495458E+0	1.481635E+0	1.500838E+0	1.498572E+0	1.420226E+0	1.473677E+0	1.495854E+0	1.516137E+0	1.525013E+0	1.504642E+0	1.537150E+0	1.510925E+0	1.516462E+0	1.527965E+0	1.480701E+0	1.456103E+0	1.502982E+0	1.554220E+0	1.473172E+0	1.522403E+0	1.518301E+0	1.480897E+0	1.479539E+0	1.457442E+0	1.469741E+0	1.517409E+0	1.517731E+0	1.464905E+0	1.479930E+0	1.454104E+0	1.473484E+0	1.475542E+0	1.447032E+0	1.575809E+0	1.423221E+0	1.568606E+0	1.435381E+0	1.549263E+0	1.485046E+0	1.477180E+0	1.452954E+0	1.520548E+0	1.506108E+0	1.597376E+0	1.479086E+0	1.584474E+0	1.548598E+0	1.506424E+0	1.464244E+0	1.471271E+0	1.502325E+0	1.492289E+0	1.506561E+0	1.480423E+0	1.505469E+0	1.518515E+0	1.440524E+0	1.493002E+0	1.463051E+0	1.509760E+0	1.465627E+0	1.534935E+0	1.432222E+0	1.583363E+0	1.490846E+0	1.502067E+0	1.548004E+0	1.450863E+0	1.456415E+0	1.500633E+0	1.491482E+0	1.479310E+0	1.538969E+0	1.442060E+0	1.491360E+0	1.524371E+0	1.494010E+0	1.535298E+0	1.536751E+0	1.500979E+0	1.446514E+0	1.524745E+0	1.503594E+0	1.459033E+0	1.448215E+0	1.473599E+0	1.476784E+0	1.520514E+0	1.478452E+0	1.531113E+0
5.357140E+2	1.270616E+0	1.258199E+0	1.290261E+0	1.198476E+0	1.259495E+0	1.253066E+0	1.284911E+0	1.323411E+0	1.205409E+0	1.254739E+0	1.273824E+0	1.304132E+0	1.276626E+0	1.268798E+0	1.283947E+0	1.260274E+0	1.233624E+0	1.286311E+0	1.235650E+0	1.256994E+0	1.230435E+0	1.237579E+0	1.242007E+0	1.206347E+0	1.275293E+0	1.277419E+0	1.202933E+0	1.220889E+0	1.225159E+0	1.275178E+0	1.186863E+0	1.219720E+0	1.238110E+0	1.286403E+0	1.256811E+0	1.221411E+0	1.159273E+0	1.222703E+0	1.229718E+0	1.266443E+0	1.265617E+0	1.257985E+0	1.209379E+0	1.270211E+0	1.215524E+0	1.217873E+0	1.248518E+0	1.281834E+0	1.256353E+0	1.274096E+0	1.260551E+0	1.237703E+0	1.222720E+0	1.218267E+0	1.239788E+0	1.193607E+0	1.268409E+0	1.236670E+0	1.263599E+0	1.178024E+0	1.229439E+0	1.279211E+0	1.222309E+0	1.246271E+0	1.184569E+0	1.244165E+0	1.175651E+0	1.212933E+0	1.212804E+0	1.232858E+0	1.272466E+0	1.230343E+0	1.244606E+0	1.307542E+0	1.165695E+0	1.205711E+0	1.255204E+0	1.251379E+0	1.240775E+0	1.280268E+0	1.219678E+0	1.211437E+0	1.249456E+0	1.290303E+0	1.226313E+0	1.229088E+0	1.312861E+0	1.209549E+0	1.211440E+0	1.210361E+0	1.290535E+0	1.234357E+0	1.179439E+0	1.253684E+0	1.212307E+0	1.238897E+0	1.297043E+0	1.263793E+0	1.231595E+0	1.236186E+0	1.261132E+0	1.234503E+0	1.307212E+0	1.276459E+0	1.190860E+0	1.183587E+0	1.293519E+0	1.278355E+0	1.216542E+0	1.192700E+0	1.301998E+0	1.213025E+0	1.225221E+0	1.182264E+0	1.230647E+0	1.185573E+0	1.234082E+0	1.190579E+0	1.267377E+0	1.171806E+0	1.297744E+0	1.263153E+0	1.176549E+0	1.192222E+0	1.276218E+0	1.210814E+0	1.239233E+0	1.304815E+0	1.271036E+0	1.296587E+0	1.205945E+0	1.255393E+0	1.226475E+0	1.285656E+0	1.225833E+0	1.191255E+0	1.259830E+0	1.238927E+0	1.248542E+0	1.182167E+0	1.278328E+0	1.183320E+0	1.253011E+0	1.292091E+0	1.233674E+0	1.204055E+0	1.282114E+0	1.246716E+0	1.188109E+0	1.264016E+0	1.216026E+0	1.203807E+0	1.265802E+0	1.246115E+0	1.180110E+0	1.272791E+0	1.207775E+0	1.250272E+0	1.239355E+0	1.264786E+0	1.204825E+0	1.214806E+0	1.253974E+0	1.205332E+0	1.234474E+0	1.241800E+0	1.217289E+0	1.159848E+0	1.246896E+0	1.219037E+0	1.288739E+0
5.358600E+2	1.111398E+0	1.092330E+0	1.147767E+0	1.101457E+0	1.094906E+0	1.069392E+0	1.103387E+0	1.096664E+0	1.115464E+0	1.082368E+0	1.150283E+0	1.090990E+0	1.150708E+0	1.088626E+0	1.121398E+0	1.059433E+0	1.113847E+0	1.062284E+0	1.087433E+0	1.056624E+0	1.136811E+0	1.105165E+0	1.101532E+0	1.067879E+0	1.073270E+0	1.066345E+0	1.064959E+0	1.063279E+0	1.091109E+0	1.066838E+0	1.024223E+0	1.050098E+0	1.114852E+0	1.114188E+0	1.072736E+0	1.063433E+0	1.057758E+0	1.109036E+0	1.084822E+0	1.090188E+0	1.107043E+0	1.074310E+0	1.095494E+0	1.093275E+0	1.083425E+0	1.112339E+0	1.021421E+0	1.099248E+0	1.153770E+0	1.098188E+0	1.124533E+0	1.112094E+0	1.091642E+0	1.092880E+0	1.121856E+0	1.117627E+0	1.104498E+0	1.115644E+0	1.075403E+0	1.110291E+0	1.114737E+0	1.087386E+0	1.146253E+0	1.135839E+0	1.029331E+0	1.103197E+0	1.089113E+0	1.000886E+0	1.060880E+0	1.103835E+0	1.079018E+0	1.102032E+0	1.042422E+0	1.061565E+0	1.101774E+0	1.078714E+0	1.090717E+0	1.055389E+0	1.114796E+0	1.103556E+0	1.046492E+0	1.055718E+0	1.087001E+0	1.061228E+0	1.091452E+0	1.086606E+0	1.112122E+0	1.045132E+0	1.081342E+0	1.083756E+0	1.120358E+0	1.035542E+0	1.083921E+0	1.131899E+0	1.101700E+0	1.099995E+0	1.107112E+0	1.137803E+0	1.089048E+0	1.113368E+0	1.087207E+0	1.102272E+0	1.077179E+0	1.097886E+0	1.112911E+0	1.078650E+0	1.082003E+0	1.046073E+0	1.078838E+0	1.083019E+0	1.035623E+0	1.088891E+0	1.063697E+0	1.018059E+0	1.066937E+0	1.081010E+0	1.088981E+0	1.115979E+0	1.107566E+0	1.065609E+0	1.138444E+0	1.077865E+0	1.051085E+0	1.066258E+0	1.103566E+0	1.092768E+0	1.066761E+0	1.079847E+0	1.087664E+0	1.116517E+0	1.084131E+0	1.072216E+0	1.076536E+0	1.062699E+0	1.069696E+0	1.062357E+0	1.068670E+0	1.044114E+0	1.065536E+0	1.096113E+0	1.061562E+0	1.053821E+0	1.067362E+0	1.129340E+0	1.136067E+0	1.110398E+0	1.086517E+0	1.040848E+0	1.102914E+0	1.087766E+0	1.105034E+0	1.086303E+0	1.098575E+0	1.114467E+0	1.082646E+0	1.097475E+0	1.104371E+0	1.085526E+0	1.076954E+0	1.079667E+0	1.089165E+0	1.047191E+0	1.117402E+0	1.061160E+0	1.059637E+0	1.086787E+0	1.106492E+0	1.116414E+0	1.090006E+0	1.121549E+0	1.117329E+0
5.360070E+2	9.229541E-1	9.458109E-1	9.817739E-1	9.720520E-1	9.170427E-1	9.255346E-1	9.309726E-1	9.745784E-1	9.292913E-1	9.393247E-1	9.135505E-1	9.796100E-1	9.756933E-1	9.629347E-1	9.697899E-1	9.388345E-1	9.496953E-1	9.744262E-1	9.712027E-1	9.670446E-1	9.677602E-1	9.323511E-1	9.756297E-1	8.903620E-1	9.652054E-1	9.369168E-1	9.145086E-1	9.571390E-1	8.925904E-1	9.464972E-1	9.458059E-1	9.047992E-1	9.420565E-1	9.411165E-1	9.841994E-1	9.469760E-1	9.257992E-1	9.043828E-1	9.614203E-1	9.246483E-1	9.740384E-1	9.613427E-1	9.200691E-1	9.365414E-1	9.810518E-1	9.514299E-1	9.136720E-1	9.669795E-1	9.689399E-1	9.426942E-1	9.472268E-1	9.757300E-1	9.343012E-1	9.618301E-1	9.550936E-1	9.653011E-1	9.906471E-1	9.563157E-1	9.321873E-1	9.220091E-1	9.693415E-1	9.669246E-1	9.970678E-1	9.141454E-1	9.370589E-1	9.493450E-1	9.446797E-1	8.892319E-1	8.950016E-1	9.492257E-1	9.876393E-1	9.625209E-1	9.496765E-1	9.449401E-1	8.983502E-1	9.408823E-1	9.491728E-1	9.460631E-1	9.783197E-1	9.439576E-1	9.454931E-1	9.480026E-1	9.281730E-1	9.349576E-1	9.077029E-1	9.554749E-1	9.757763E-1	9.198634E-1	9.554462E-1	9.367132E-1	1.013289E+0	1.003797E+0	9.819477E-1	9.323924E-1	9.281131E-1	9.131162E-1	9.941068E-1	9.160304E-1	9.566484E-1	9.254049E-1	9.389256E-1	9.756675E-1	9.883893E-1	9.518664E-1	9.222138E-1	9.145832E-1	9.730535E-1	9.795921E-1	9.492043E-1	9.375703E-1	9.424342E-1	9.419921E-1	8.710208E-1	8.995400E-1	9.333720E-1	9.574223E-1	9.216667E-1	9.490936E-1	1.008548E+0	9.164164E-1	9.086278E-1	9.859281E-1	9.658186E-1	8.994901E-1	9.737360E-1	9.645446E-1	9.167961E-1	9.218510E-1	9.508632E-1	9.873635E-1	8.910661E-1	9.418336E-1	9.309338E-1	9.807362E-1	9.407882E-1	9.546160E-1	9.630656E-1	9.498532E-1	9.221668E-1	8.858139E-1	9.246024E-1	9.256558E-1	1.001690E+0	9.802797E-1	9.625388E-1	9.403341E-1	9.628528E-1	9.583564E-1	9.068519E-1	9.768718E-1	9.213148E-1	9.459745E-1	8.880792E-1	9.327164E-1	9.255422E-1	9.280135E-1	9.525949E-1	9.444691E-1	9.458624E-1	9.617635E-1	9.112292E-1	9.715568E-1	9.643800E-1	9.819639E-1	9.776855E-1	9.419877E-1	9.461316E-1	9.692113E-1	9.527130E-1	9.611166E-1	9.761913E-1
5.362630E+2	6.898900E-1	7.235986E-1	7.512496E-1	6.969992E-1	7.194496E-1	7.538079E-1	6.763182E-1	7.321880E-1	7.109451E-1	7.040579E-1	7.357994E-1	6.856348E-1	6.994582E-1	7.147182E-1	7.167346E-1	7.412930E-1	6.896155E-1	7.472466E-1	7.240413E-1	6.881845E-1	6.950790E-1	6.991326E-1	7.273535E-1	6.835982E-1	7.311351E-1	6.862476E-1	7.007028E-1	7.028046E-1	7.232694E-1	7.252938E-1	6.991489E-1	6.844959E-1	7.276186E-1	6.760960E-1	7.187001E-1	7.357463E-1	7.041759E-1	7.307904E-1	6.913924E-1	7.084341E-1	7.430051E-1	7.094443E-1	7.227609E-1	6.706888E-1	7.403364E-1	6.982751E-1	6.970627E-1	7.218300E-1	7.594972E-1	7.176110E-1	7.090143E-1	7.596568E-1	7.405827E-1	7.116280E-1	7.603204E-1	7.057291E-1	7.341779E-1	7.435436E-1	7.214807E-1	7.496821E-1	6.994725E-1	7.174379E-1	7.097458E-1	6.925857E-1	7.143506E-1	7.813612E-1	7.062783E-1	7.141248E-1	7.406499E-1	7.464439E-1	6.863037E-1	7.466738E-1	7.222150E-1	7.311284E-1	7.751430E-1	7.451632E-1	6.874898E-1	7.049489E-1	6.862862E-1	7.076488E-1	7.460206E-1	7.220405E-1	7.574906E-1	7.286651E-1	7.350556E-1	7.242171E-1	7.524339E-1	7.039773E-1	7.186313E-1	6.790132E-1	7.164609E-1	7.662311E-1	7.487676E-1	7.073842E-1	7.260864E-1	7.233050E-1	7.433187E-1	7.051223E-1	6.937345E-1	7.447985E-1	7.377956E-1	7.817308E-1	7.603041E-1	6.761081E-1	7.283327E-1	7.034960E-1	7.583077E-1	7.263377E-1	7.218994E-1	6.949955E-1	7.269275E-1	7.026377E-1	7.081782E-1	7.331450E-1	7.163490E-1	7.130512E-1	7.331829E-1	6.552891E-1	7.288650E-1	7.180115E-1	7.430193E-1	7.364255E-1	7.611634E-1	7.067257E-1	7.318883E-1	7.049945E-1	7.451809E-1	7.281712E-1	7.268555E-1	7.763445E-1	7.487776E-1	7.103588E-1	7.402955E-1	6.960677E-1	6.808777E-1	7.149796E-1	7.565726E-1	7.322977E-1	6.894380E-1	7.120295E-1	7.245288E-1	7.046013E-1	7.833134E-1	7.243000E-1	7.138388E-1	7.147093E-1	7.117565E-1	7.637820E-1	6.890692E-1	7.178380E-1	7.250790E-1	7.264043E-1	7.138994E-1	7.479071E-1	7.368136E-1	7.318036E-1	7.402542E-1	7.450549E-1	7.506923E-1	7.232568E-1	7.404151E-1	7.261820E-1	7.580683E-1	7.565962E-1	7.041111E-1	7.242806E-1	6.626825E-1	7.119453E-1	7.228737E-1	6.761758E-1	7.455958E-1
5.365140E+2	5.761142E-1	5.687651E-1	6.248847E-1	5.858892E-1	5.720807E-1	5.375182E-1	5.830137E-1	6.106818E-1	5.799662E-1	5.752618E-1	5.668620E-1	5.915019E-1	5.929058E-1	5.824308E-1	6.090262E-1	5.943948E-1	5.926575E-1	6.008753E-1	5.626698E-1	5.654499E-1	5.736558E-1	5.610282E-1	6.119984E-1	5.773093E-1	5.588257E-1	5.822546E-1	5.856315E-1	6.282271E-1	5.774402E-1	5.951571E-1	5.899272E-1	5.700678E-1	5.657422E-1	5.831245E-1	5.725529E-1	6.021049E-1	6.004997E-1	5.613857E-1	5.748898E-1	5.527542E-1	6.087535E-1	5.714360E-1	5.658276E-1	5.334593E-1	5.383206E-1	6.183669E-1	5.987526E-1	5.407982E-1	6.222678E-1	5.751832E-1	5.219949E-1	6.058794E-1	5.496097E-1	5.641347E-1	5.977114E-1	5.907413E-1	5.789263E-1	5.732055E-1	5.654587E-1	5.914034E-1	5.354008E-1	5.880733E-1	5.980353E-1	5.885428E-1	5.882207E-1	6.052898E-1	6.075485E-1	5.793222E-1	5.329041E-1	5.909882E-1	6.065436E-1	5.778535E-1	5.527245E-1	5.454917E-1	5.608938E-1	5.998568E-1	5.756738E-1	5.806515E-1	5.598371E-1	5.859873E-1	6.176462E-1	5.762105E-1	5.768919E-1	5.784513E-1	5.378325E-1	5.899005E-1	5.461195E-1	5.808134E-1	5.943123E-1	5.860705E-1	5.919748E-1	5.763372E-1	6.273402E-1	5.621718E-1	5.902289E-1	5.977023E-1	5.882970E-1	5.763216E-1	5.826605E-1	5.996944E-1	5.744654E-1	5.623207E-1	5.756306E-1	5.822482E-1	5.500965E-1	5.830994E-1	6.068809E-1	5.890642E-1	5.750651E-1	5.835103E-1	5.661721E-1	5.658757E-1	5.647507E-1	5.493204E-1	5.765417E-1	5.807574E-1	5.728473E-1	5.813960E-1	5.906900E-1	5.526998E-1	6.116439E-1	5.452168E-1	5.433258E-1	5.799145E-1	5.362725E-1	5.849403E-1	5.494841E-1	5.902590E-1	5.798458E-1	6.432406E-1	6.176452E-1	5.393657E-1	5.673000E-1	6.005461E-1	5.918333E-1	5.739314E-1	6.607321E-1	5.595496E-1	5.851306E-1	6.059830E-1	5.990186E-1	5.565848E-1	5.686863E-1	6.154584E-1	5.866011E-1	5.671447E-1	5.926163E-1	5.649645E-1	6.043355E-1	5.636675E-1	5.714950E-1	6.189167E-1	5.970853E-1	5.907716E-1	6.108494E-1	5.853835E-1	5.930151E-1	5.746505E-1	6.146047E-1	6.091172E-1	5.702666E-1	5.023347E-1	5.789838E-1	6.104790E-1	5.763551E-1	5.614234E-1	5.900912E-1	5.431499E-1	6.120213E-1	5.896539E-1	6.238302E-1
5.367870E+2	5.005199E-1	4.669544E-1	5.384047E-1	4.982622E-1	4.960381E-1	4.966793E-1	5.011471E-1	5.072766E-1	5.349949E-1	5.116492E-1	4.867727E-1	5.171154E-1	4.890369E-1	5.105292E-1	5.130362E-1	4.946889E-1	4.908373E-1	5.351115E-1	4.646213E-1	5.152991E-1	5.048986E-1	5.072938E-1	5.598686E-1	5.269890E-1	5.474837E-1	5.658110E-1	5.333438E-1	5.157696E-1	4.949601E-1	4.967160E-1	4.856805E-1	5.158355E-1	4.883774E-1	5.491539E-1	4.883060E-1	4.892574E-1	5.126144E-1	5.059222E-1	5.197030E-1	4.966071E-1	5.331723E-1	4.930313E-1	5.201129E-1	5.298271E-1	5.205151E-1	5.181894E-1	5.120788E-1	5.554284E-1	5.192866E-1	5.534568E-1	5.626442E-1	5.596169E-1	4.888306E-1	5.104580E-1	5.508507E-1	5.223553E-1	5.414817E-1	5.075407E-1	5.242110E-1	4.943484E-1	5.185102E-1	5.481820E-1	5.114677E-1	5.251615E-1	5.146792E-1	5.105566E-1	5.042006E-1	4.999405E-1	5.160386E-1	4.948778E-1	4.938813E-1	5.334583E-1	5.288680E-1	5.350537E-1	5.260241E-1	4.768380E-1	5.170084E-1	5.326443E-1	5.342198E-1	5.507355E-1	5.509713E-1	5.195783E-1	5.128268E-1	4.859504E-1	5.506504E-1	5.153588E-1	5.224703E-1	4.755968E-1	4.857846E-1	5.360423E-1	5.116166E-1	5.075373E-1	5.442256E-1	5.049596E-1	5.196513E-1	5.113051E-1	5.071675E-1	4.919285E-1	5.170631E-1	5.186405E-1	5.081738E-1	5.518843E-1	5.452150E-1	5.211763E-1	4.998486E-1	5.369198E-1	5.214769E-1	5.145114E-1	5.326154E-1	5.203182E-1	5.350936E-1	5.115537E-1	5.094198E-1	4.753709E-1	5.347011E-1	4.855850E-1	5.321830E-1	5.124243E-1	5.075462E-1	5.171491E-1	5.099544E-1	5.181447E-1	5.118837E-1	5.239733E-1	5.232558E-1	4.814508E-1	5.065013E-1	4.914080E-1	4.977375E-1	5.129140E-1	5.110142E-1	5.285421E-1	4.930466E-1	5.119059E-1	4.913199E-1	5.427945E-1	5.001503E-1	4.973912E-1	5.083781E-1	4.993432E-1	5.683909E-1	5.171538E-1	5.180297E-1	5.190131E-1	5.256509E-1	5.240485E-1	5.363100E-1	4.896750E-1	5.266642E-1	5.461627E-1	4.969713E-1	4.805417E-1	5.323097E-1	5.278346E-1	5.316940E-1	5.242717E-1	5.339266E-1	5.144453E-1	5.240620E-1	5.281248E-1	5.007151E-1	4.964832E-1	5.425819E-1	5.393519E-1	5.226263E-1	5.149801E-1	5.381541E-1	5.024297E-1	5.140794E-1	5.308184E-1	5.062612E-1
5.370120E+2	5.343277E-1	4.858132E-1	5.135420E-1	4.476078E-1	5.157691E-1	5.065255E-1	5.103573E-1	4.704806E-1	4.855569E-1	5.084693E-1	5.033689E-1	5.102038E-1	5.104619E-1	5.077035E-1	4.751824E-1	4.710748E-1	5.081642E-1	4.975231E-1	4.812281E-1	5.073713E-1	4.553660E-1	4.886931E-1	5.089340E-1	4.772319E-1	5.119279E-1	5.139708E-1	5.016250E-1	5.122888E-1	4.839312E-1	4.814529E-1	5.196474E-1	5.127971E-1	4.851018E-1	5.155588E-1	5.076132E-1	4.965887E-1	4.884611E-1	4.862181E-1	4.908676E-1	5.005994E-1	4.858406E-1	4.447793E-1	4.731089E-1	4.807113E-1	5.135928E-1	5.066446E-1	5.052154E-1	4.969311E-1	4.813291E-1	4.682239E-1	5.045775E-1	5.276879E-1	5.234586E-1	4.870777E-1	4.972191E-1	5.513526E-1	4.941602E-1	4.846349E-1	5.461317E-1	4.785597E-1	4.931261E-1	5.346720E-1	4.807391E-1	4.750228E-1	4.780065E-1	4.819322E-1	4.988733E-1	4.715050E-1	4.844357E-1	4.984388E-1	4.915317E-1	5.289265E-1	5.189459E-1	4.995173E-1	4.814069E-1	5.375934E-1	5.183459E-1	4.927674E-1	5.013614E-1	5.045021E-1	5.160176E-1	5.039733E-1	5.193188E-1	5.119354E-1	4.790034E-1	4.952808E-1	5.301699E-1	5.000839E-1	5.027935E-1	5.043160E-1	4.974078E-1	5.022593E-1	4.818409E-1	5.069156E-1	4.877897E-1	4.994104E-1	4.877997E-1	5.014173E-1	4.865137E-1	4.872272E-1	5.024436E-1	5.056460E-1	4.913133E-1	5.199506E-1	4.708211E-1	4.917829E-1	5.183650E-1	5.472439E-1	4.630586E-1	5.098340E-1	4.909975E-1	4.763343E-1	5.016815E-1	4.895183E-1	5.049781E-1	4.963419E-1	5.038534E-1	5.059138E-1	4.949266E-1	5.024764E-1	5.414302E-1	5.150586E-1	5.043631E-1	4.818290E-1	4.981961E-1	4.915153E-1	4.972911E-1	5.179854E-1	5.176656E-1	4.911418E-1	4.761566E-1	4.884441E-1	4.698200E-1	5.022161E-1	5.055902E-1	4.974583E-1	5.138019E-1	4.931052E-1	4.892404E-1	4.733130E-1	5.021141E-1	4.997720E-1	5.148155E-1	5.272596E-1	5.157268E-1	4.677865E-1	5.429612E-1	4.790934E-1	4.954304E-1	5.111518E-1	5.013843E-1	5.026729E-1	4.777715E-1	5.234402E-1	5.226158E-1	5.203002E-1	5.293491E-1	5.064783E-1	5.298170E-1	5.048973E-1	5.314706E-1	4.877259E-1	5.303698E-1	4.935270E-1	5.257939E-1	5.080999E-1	4.992576E-1	4.748746E-1	5.195197E-1	5.406550E-1	4.949224E-1
5.372900E+2	4.984119E-1	4.950637E-1	5.473912E-1	5.198397E-1	4.929982E-1	5.005662E-1	5.119406E-1	4.927782E-1	5.394482E-1	5.093644E-1	5.456241E-1	5.054428E-1	5.288147E-1	5.010804E-1	4.911062E-1	5.201689E-1	5.173841E-1	5.271885E-1	5.407694E-1	5.140155E-1	5.258103E-1	5.362162E-1	5.521875E-1	5.495134E-1	5.742930E-1	5.540135E-1	5.002830E-1	5.428515E-1	5.611078E-1	5.110050E-1	5.379455E-1	5.229519E-1	5.255465E-1	5.433070E-1	5.255431E-1	5.670624E-1	5.369504E-1	5.492038E-1	5.210288E-1	5.212898E-1	5.335471E-1	5.213347E-1	5.148537E-1	5.328901E-1	5.600792E-1	5.009290E-1	5.425108E-1	5.258696E-1	5.448375E-1	5.294758E-1	5.647110E-1	5.659625E-1	5.114796E-1	5.068769E-1	5.179035E-1	5.513100E-1	5.452933E-1	5.195512E-1	5.379739E-1	5.067635E-1	5.447197E-1	5.242818E-1	5.657012E-1	5.295770E-1	5.585293E-1	5.190398E-1	5.141969E-1	4.840778E-1	5.424301E-1	5.442862E-1	5.193194E-1	5.773697E-1	5.165522E-1	5.378241E-1	5.043100E-1	5.070511E-1	4.984198E-1	4.987349E-1	5.125252E-1	5.427864E-1	5.369965E-1	5.150089E-1	5.412066E-1	5.497703E-1	5.266235E-1	5.282090E-1	5.490968E-1	5.452555E-1	5.283800E-1	4.899129E-1	5.340507E-1	5.516659E-1	5.219728E-1	4.889582E-1	5.138004E-1	5.168289E-1	5.530133E-1	5.493561E-1	5.259162E-1	5.517226E-1	5.067502E-1	5.371134E-1	5.247183E-1	5.274332E-1	5.463931E-1	5.171389E-1	5.313919E-1	5.312757E-1	5.206001E-1	5.064941E-1	5.207767E-1	5.120592E-1	5.269184E-1	5.174849E-1	5.402075E-1	5.244931E-1	5.218598E-1	5.254151E-1	5.563063E-1	5.534859E-1	5.823638E-1	5.162274E-1	5.197815E-1	5.286117E-1	5.271948E-1	5.093724E-1	5.366800E-1	5.646835E-1	5.410378E-1	5.145868E-1	4.991058E-1	5.441022E-1	5.390362E-1	5.477149E-1	5.433023E-1	4.991450E-1	5.463870E-1	5.792915E-1	5.345791E-1	5.172084E-1	5.342814E-1	5.015110E-1	5.633313E-1	5.704115E-1	5.498156E-1	5.179509E-1	5.222223E-1	5.203317E-1	5.406097E-1	5.682156E-1	5.113085E-1	5.417137E-1	5.473917E-1	5.412193E-1	5.273643E-1	5.161387E-1	5.428263E-1	5.110212E-1	5.426983E-1	5.462684E-1	5.110345E-1	5.298462E-1	5.408495E-1	5.598251E-1	5.384620E-1	5.308655E-1	5.566797E-1	5.175302E-1	5.530091E-1	5.537722E-1	5.288040E-1
5.375160E+2	6.134984E-1	6.207446E-1	6.247044E-1	5.895510E-1	6.329092E-1	5.879094E-1	6.004695E-1	6.368483E-1	6.091047E-1	6.233450E-1	6.192058E-1	5.949529E-1	6.155165E-1	6.208264E-1	6.275289E-1	6.128713E-1	5.833546E-1	6.048850E-1	6.043387E-1	6.269181E-1	6.351955E-1	6.374845E-1	6.153192E-1	6.184749E-1	6.417495E-1	6.336052E-1	6.176719E-1	6.374139E-1	6.022745E-1	6.451850E-1	6.440082E-1	6.121165E-1	6.476108E-1	6.094710E-1	6.096339E-1	5.962082E-1	6.372613E-1	6.250405E-1	6.072145E-1	6.195603E-1	6.220955E-1	6.189271E-1	6.392351E-1	5.999064E-1	6.069974E-1	6.103759E-1	5.982857E-1	6.048431E-1	6.479421E-1	6.334865E-1	6.063072E-1	6.195135E-1	6.257640E-1	6.278864E-1	6.137205E-1	6.371686E-1	6.268352E-1	6.111710E-1	6.232762E-1	6.460085E-1	6.302481E-1	6.231860E-1	6.501920E-1	6.164627E-1	5.991124E-1	6.220704E-1	6.216093E-1	6.125790E-1	6.114148E-1	6.565785E-1	6.238668E-1	6.241085E-1	6.269700E-1	5.961572E-1	5.890652E-1	6.089878E-1	6.103703E-1	6.179000E-1	6.014219E-1	6.154631E-1	6.546342E-1	6.416333E-1	6.483047E-1	5.935607E-1	6.161916E-1	6.162271E-1	5.925838E-1	6.214012E-1	6.447596E-1	6.049317E-1	6.527020E-1	6.287250E-1	6.039482E-1	5.843098E-1	5.689962E-1	5.841625E-1	6.429195E-1	6.231877E-1	6.233898E-1	6.275881E-1	6.419898E-1	6.446999E-1	6.469571E-1	6.222630E-1	6.263431E-1	6.250750E-1	6.494654E-1	6.390820E-1	6.209314E-1	5.974432E-1	6.439737E-1	6.149609E-1	6.066813E-1	5.832551E-1	5.979592E-1	6.106988E-1	5.967508E-1	5.885009E-1	6.114927E-1	6.520442E-1	6.498676E-1	5.746132E-1	6.230703E-1	6.244919E-1	6.180306E-1	6.007041E-1	6.022312E-1	5.991483E-1	6.564230E-1	6.402492E-1	6.290722E-1	6.549713E-1	6.536787E-1	6.370845E-1	6.348126E-1	6.117516E-1	6.812292E-1	6.026194E-1	6.276591E-1	5.976338E-1	6.543059E-1	6.051153E-1	6.424838E-1	5.960647E-1	6.350630E-1	6.474072E-1	6.279751E-1	6.099192E-1	6.142328E-1	6.204861E-1	6.466712E-1	6.577581E-1	6.249286E-1	6.223339E-1	5.916712E-1	6.201537E-1	6.181634E-1	6.489624E-1	6.332437E-1	6.612314E-1	6.499201E-1	6.229347E-1	6.095924E-1	6.108665E-1	6.002161E-1	6.151722E-1	6.545767E-1	6.403538E-1	6.047340E-1	6.362915E-1	6.755861E-1
5.377790E+2	6.694438E-1	6.600694E-1	6.799527E-1	6.517904E-1	6.581400E-1	6.673188E-1	6.543887E-1	6.883118E-1	7.141578E-1	6.294103E-1	7.008948E-1	6.883281E-1	6.806040E-1	6.722710E-1	6.656862E-1	6.460314E-1	6.703437E-1	6.760557E-1	6.678500E-1	6.920107E-1	6.506511E-1	6.536597E-1	6.859286E-1	6.806835E-1	7.047819E-1	6.847955E-1	6.871226E-1	6.779273E-1	6.915299E-1	7.028399E-1	6.883880E-1	6.607896E-1	6.953026E-1	6.489015E-1	6.456632E-1	7.193746E-1	6.193447E-1	6.776909E-1	6.675852E-1	7.014291E-1	6.803532E-1	6.876712E-1	6.777491E-1	6.614542E-1	7.001820E-1	6.947503E-1	6.835395E-1	6.970232E-1	7.321472E-1	6.822060E-1	7.121834E-1	6.834806E-1	7.078535E-1	7.164386E-1	6.586256E-1	6.970965E-1	6.990039E-1	6.922313E-1	6.734097E-1	6.844546E-1	6.961558E-1	6.466243E-1	7.359318E-1	6.638224E-1	7.074765E-1	6.521053E-1	6.944631E-1	6.779661E-1	6.639810E-1	6.613184E-1	6.353029E-1	6.686003E-1	6.920284E-1	6.527109E-1	6.995626E-1	6.568825E-1	6.543993E-1	6.782218E-1	6.650740E-1	6.778746E-1	6.510234E-1	7.027839E-1	6.881283E-1	6.546852E-1	6.668629E-1	7.293999E-1	6.676586E-1	6.754188E-1	6.919713E-1	6.545135E-1	7.039301E-1	6.625793E-1	7.189983E-1	6.700490E-1	6.689077E-1	6.898533E-1	6.952797E-1	6.837941E-1	7.048220E-1	6.791213E-1	6.740494E-1	6.844490E-1	7.200675E-1	6.560942E-1	6.978851E-1	6.612912E-1	6.745416E-1	6.555224E-1	6.882801E-1	6.477639E-1	7.093299E-1	6.899493E-1	6.728818E-1	7.037283E-1	6.707716E-1	6.252981E-1	7.112029E-1	6.463754E-1	7.131139E-1	7.089423E-1	7.035240E-1	6.982345E-1	6.701337E-1	6.944910E-1	6.661861E-1	7.047610E-1	7.001083E-1	6.909467E-1	7.017908E-1	6.423150E-1	6.895619E-1	6.654989E-1	6.671390E-1	6.660954E-1	6.647530E-1	6.703330E-1	7.050622E-1	6.699353E-1	7.378121E-1	6.579082E-1	6.267748E-1	6.491618E-1	7.246678E-1	7.356163E-1	7.123768E-1	6.390588E-1	6.751830E-1	6.646623E-1	6.553381E-1	6.645270E-1	7.016024E-1	7.075630E-1	7.017493E-1	7.021440E-1	6.993290E-1	6.814388E-1	6.929494E-1	6.325219E-1	7.024222E-1	7.134731E-1	6.711077E-1	6.771512E-1	6.779400E-1	6.468719E-1	7.100932E-1	6.929225E-1	6.801662E-1	6.628170E-1	7.257982E-1	6.222504E-1	7.596845E-1
5.380160E+2	8.015546E-1	7.598779E-1	7.863791E-1	7.521265E-1	7.861674E-1	7.847965E-1	7.565226E-1	7.681901E-1	7.835734E-1	7.443578E-1	7.688360E-1	7.806550E-1	7.707571E-1	7.782019E-1	7.822583E-1	8.339162E-1	7.859146E-1	7.799330E-1	7.533352E-1	7.973846E-1	7.996575E-1	7.817609E-1	7.918642E-1	8.086692E-1	8.514920E-1	8.153976E-1	7.992238E-1	8.355888E-1	8.038314E-1	8.237745E-1	7.745433E-1	7.636054E-1	8.232615E-1	8.044267E-1	7.928181E-1	8.402805E-1	7.967933E-1	8.353773E-1	8.012398E-1	8.304211E-1	8.268382E-1	8.305319E-1	7.968185E-1	7.911105E-1	7.815301E-1	7.630403E-1	8.142250E-1	8.150080E-1	8.304841E-1	7.935110E-1	8.435389E-1	8.348826E-1	7.939466E-1	7.988558E-1	8.051211E-1	8.172673E-1	8.013731E-1	8.211633E-1	7.998571E-1	7.963715E-1	8.153816E-1	8.161181E-1	8.029737E-1	8.048526E-1	7.976696E-1	7.585028E-1	8.066081E-1	7.628787E-1	7.799987E-1	7.773764E-1	8.120086E-1	8.198656E-1	8.237041E-1	7.543233E-1	7.726797E-1	7.940084E-1	8.482831E-1	7.784801E-1	8.332550E-1	8.078250E-1	7.595257E-1	7.730594E-1	8.283669E-1	7.645214E-1	8.199145E-1	7.989382E-1	8.018837E-1	7.983568E-1	8.090307E-1	7.604712E-1	8.617753E-1	7.719889E-1	8.034283E-1	7.831620E-1	7.709603E-1	7.654647E-1	8.024339E-1	7.791294E-1	7.824578E-1	8.117512E-1	7.946367E-1	7.470932E-1	7.801994E-1	8.249347E-1	8.216101E-1	7.816997E-1	7.917247E-1	7.746895E-1	7.690278E-1	7.593474E-1	7.776555E-1	8.022863E-1	7.602679E-1	7.640248E-1	8.104217E-1	7.890273E-1	7.873907E-1	7.742691E-1	8.316435E-1	8.069958E-1	7.886999E-1	7.563007E-1	7.983233E-1	7.397491E-1	7.603311E-1	7.701225E-1	8.516397E-1	7.728593E-1	8.101625E-1	7.971175E-1	7.622378E-1	8.029797E-1	7.889377E-1	7.848995E-1	7.915642E-1	7.818188E-1	8.038334E-1	8.128485E-1	7.564283E-1	7.895264E-1	8.133756E-1	7.796823E-1	8.188510E-1	7.605619E-1	7.851894E-1	7.590973E-1	8.091994E-1	7.976902E-1	7.450412E-1	8.359904E-1	7.581994E-1	8.212657E-1	7.834052E-1	7.763176E-1	7.762452E-1	7.592416E-1	8.022674E-1	7.551247E-1	7.728311E-1	8.357233E-1	7.658766E-1	7.644245E-1	7.748015E-1	7.856994E-1	7.701626E-1	8.103266E-1	7.881193E-1	7.461340E-1	7.911563E-1	8.268895E-1	7.775277E-1
5.382900E+2	1.021497E+0	9.945521E-1	1.009076E+0	9.357183E-1	9.460236E-1	9.946278E-1	9.557282E-1	1.008763E+0	9.681953E-1	9.574566E-1	9.993342E-1	9.329545E-1	1.050230E+0	9.853300E-1	1.008074E+0	9.754040E-1	9.744933E-1	9.527962E-1	9.438723E-1	9.596545E-1	1.013882E+0	1.001179E+0	9.840545E-1	9.782493E-1	9.450453E-1	1.076261E+0	9.626371E-1	1.004743E+0	1.037079E+0	1.000182E+0	9.609049E-1	1.003853E+0	1.044096E+0	1.017141E+0	1.037272E+0	1.004135E+0	9.783435E-1	9.760988E-1	1.017542E+0	9.985024E-1	9.772567E-1	9.501012E-1	9.707467E-1	9.959569E-1	9.783894E-1	9.709129E-1	1.011845E+0	9.883569E-1	1.003883E+0	9.747195E-1	9.994688E-1	9.947620E-1	1.005303E+0	9.544112E-1	1.004768E+0	1.009547E+0	1.039202E+0	1.000224E+0	1.015240E+0	1.011696E+0	9.807569E-1	9.522049E-1	1.002641E+0	1.009897E+0	1.003057E+0	9.859278E-1	9.793219E-1	9.365368E-1	9.445148E-1	1.003016E+0	9.718743E-1	1.072509E+0	9.526448E-1	9.802528E-1	9.840879E-1	9.683509E-1	1.045439E+0	9.632939E-1	1.000751E+0	9.693986E-1	9.688872E-1	9.502907E-1	9.826931E-1	1.022046E+0	9.167432E-1	9.879634E-1	9.915452E-1	9.250406E-1	9.613163E-1	9.543643E-1	9.675215E-1	1.002775E+0	9.970838E-1	9.968313E-1	9.822283E-1	9.755656E-1	1.020854E+0	9.692355E-1	1.002070E+0	9.845702E-1	1.014986E+0	9.959427E-1	9.759619E-1	1.003989E+0	1.023338E+0	9.727079E-1	1.013244E+0	9.874720E-1	9.905117E-1	9.521703E-1	9.731214E-1	1.016608E+0	9.859065E-1	9.803294E-1	1.035337E+0	1.012195E+0	1.000844E+0	9.489598E-1	9.836415E-1	9.371441E-1	1.011064E+0	9.451208E-1	9.319694E-1	9.766379E-1	1.046751E+0	9.754830E-1	9.869954E-1	9.855018E-1	9.365875E-1	9.664923E-1	9.548513E-1	9.523263E-1	9.920239E-1	9.790630E-1	9.866302E-1	1.002846E+0	9.869278E-1	9.524766E-1	1.007164E+0	8.982287E-1	9.718030E-1	9.884063E-1	9.960291E-1	1.042111E+0	9.924845E-1	9.524622E-1	9.719824E-1	9.299017E-1	9.295117E-1	9.389483E-1	9.898240E-1	9.675531E-1	9.948000E-1	9.747627E-1	1.069887E+0	1.048195E+0	1.004076E+0	1.016653E+0	1.038461E+0	9.602562E-1	1.003427E+0	9.463337E-1	9.863171E-1	9.927047E-1	1.031045E+0	9.634272E-1	9.989282E-1	9.835791E-1	1.068024E+0	9.393490E-1	8.589564E-1
5.385110E+2	1.117117E+0	1.154472E+0	1.189001E+0	1.092188E+0	1.178966E+0	1.141319E+0	1.164049E+0	1.206725E+0	1.185757E+0	1.144080E+0	1.156853E+0	1.153798E+0	1.140382E+0	1.125823E+0	1.160185E+0	1.155509E+0	1.161566E+0	1.162320E+0	1.157840E+0	1.189060E+0	1.184183E+0	1.135509E+0	1.204203E+0	1.185814E+0	1.238972E+0	1.258660E+0	1.089934E+0	1.153116E+0	1.187920E+0	1.179020E+0	1.137497E+0	1.145065E+0	1.158102E+0	1.198900E+0	1.220899E+0	1.197902E+0	1.151354E+0	1.168003E+0	1.201867E+0	1.191927E+0	1.192434E+0	1.141997E+0	1.113553E+0	1.199507E+0	1.247921E+0	1.156594E+0	1.175720E+0	1.209089E+0	1.162677E+0	1.112881E+0	1.198812E+0	1.158376E+0	1.126468E+0	1.181084E+0	1.189690E+0	1.216712E+0	1.148524E+0	1.166481E+0	1.166273E+0	1.180070E+0	1.221378E+0	1.145601E+0	1.129361E+0	1.156685E+0	1.175011E+0	1.151411E+0	1.132381E+0	1.111188E+0	1.154496E+0	1.152935E+0	1.136701E+0	1.163451E+0	1.181433E+0	1.134876E+0	1.196994E+0	1.140335E+0	1.180890E+0	1.126430E+0	1.128322E+0	1.173092E+0	1.119004E+0	1.108723E+0	1.195663E+0	1.151249E+0	1.134405E+0	1.159665E+0	1.208289E+0	1.157714E+0	1.168518E+0	1.116068E+0	1.190697E+0	1.155244E+0	1.179408E+0	1.121579E+0	1.153817E+0	1.116819E+0	1.133182E+0	1.176196E+0	1.233360E+0	1.162015E+0	1.200773E+0	1.165788E+0	1.145012E+0	1.132686E+0	1.088764E+0	1.158165E+0	1.165496E+0	1.147261E+0	1.172075E+0	1.149560E+0	1.136040E+0	1.179681E+0	1.093304E+0	1.132386E+0	1.166197E+0	1.160628E+0	1.153015E+0	1.113739E+0	1.197192E+0	1.151851E+0	1.147019E+0	1.157007E+0	1.124733E+0	1.091770E+0	1.226220E+0	1.093276E+0	1.101549E+0	1.199011E+0	1.163221E+0	1.217925E+0	1.174381E+0	1.194313E+0	1.155921E+0	1.189826E+0	1.154218E+0	1.106345E+0	1.168734E+0	1.114960E+0	1.088406E+0	1.180845E+0	1.191599E+0	1.098825E+0	1.140076E+0	1.188716E+0	1.147868E+0	1.157421E+0	1.167022E+0	1.110195E+0	1.122791E+0	1.182366E+0	1.166266E+0	1.196491E+0	1.123094E+0	1.185640E+0	1.182674E+0	1.173337E+0	1.166072E+0	1.139901E+0	1.170314E+0	1.215218E+0	1.138921E+0	1.130995E+0	1.169703E+0	1.173228E+0	1.189626E+0	1.172484E+0	1.151603E+0	1.174804E+0	1.262556E+0	1.207777E+0	1.104825E+0
5.387700E+2	1.402996E+0	1.425990E+0	1.383851E+0	1.379560E+0	1.378716E+0	1.394116E+0	1.334186E+0	1.378435E+0	1.385871E+0	1.407054E+0	1.353769E+0	1.366607E+0	1.381881E+0	1.404835E+0	1.405038E+0	1.359468E+0	1.354693E+0	1.389284E+0	1.371047E+0	1.398222E+0	1.384002E+0	1.401364E+0	1.372505E+0	1.461658E+0	1.434937E+0	1.487642E+0	1.370862E+0	1.468662E+0	1.400668E+0	1.474448E+0	1.381310E+0	1.374616E+0	1.412768E+0	1.427421E+0	1.417638E+0	1.343569E+0	1.400490E+0	1.386918E+0	1.406175E+0	1.347427E+0	1.440137E+0	1.375579E+0	1.389119E+0	1.428371E+0	1.422656E+0	1.351900E+0	1.362976E+0	1.428033E+0	1.429862E+0	1.326433E+0	1.375803E+0	1.403695E+0	1.379648E+0	1.355775E+0	1.417327E+0	1.412461E+0	1.448392E+0	1.403302E+0	1.335985E+0	1.396186E+0	1.416003E+0	1.402646E+0	1.447905E+0	1.425597E+0	1.339381E+0	1.409719E+0	1.391420E+0	1.316098E+0	1.353560E+0	1.408943E+0	1.385462E+0	1.361830E+0	1.402405E+0	1.359424E+0	1.350989E+0	1.382397E+0	1.385197E+0	1.350370E+0	1.406748E+0	1.398157E+0	1.394867E+0	1.351633E+0	1.333539E+0	1.373963E+0	1.365270E+0	1.394166E+0	1.367257E+0	1.345117E+0	1.407181E+0	1.345095E+0	1.419228E+0	1.316855E+0	1.443404E+0	1.361750E+0	1.338499E+0	1.318357E+0	1.359401E+0	1.401243E+0	1.364583E+0	1.321863E+0	1.398707E+0	1.425291E+0	1.369333E+0	1.388334E+0	1.396749E+0	1.408284E+0	1.396706E+0	1.382575E+0	1.390437E+0	1.356636E+0	1.407195E+0	1.355524E+0	1.421579E+0	1.316067E+0	1.325960E+0	1.363383E+0	1.382006E+0	1.375687E+0	1.420710E+0	1.345663E+0	1.464971E+0	1.357029E+0	1.370431E+0	1.415671E+0	1.402126E+0	1.307033E+0	1.368519E+0	1.376424E+0	1.503288E+0	1.439388E+0	1.382591E+0	1.366195E+0	1.399212E+0	1.375687E+0	1.314783E+0	1.406397E+0	1.427224E+0	1.364175E+0	1.364125E+0	1.421874E+0	1.391243E+0	1.351143E+0	1.395445E+0	1.367896E+0	1.373119E+0	1.322693E+0	1.352121E+0	1.382058E+0	1.366313E+0	1.372647E+0	1.365457E+0	1.433655E+0	1.378174E+0	1.431795E+0	1.430711E+0	1.398275E+0	1.350340E+0	1.317016E+0	1.401362E+0	1.389400E+0	1.367384E+0	1.380098E+0	1.421738E+0	1.369390E+0	1.400264E+0	1.384536E+0	1.369864E+0	1.339206E+0	1.422360E+0	1.397705E+0	1.542287E+0
5.390240E+2	1.541842E+0	1.605325E+0	1.634007E+0	1.562784E+0	1.563017E+0	1.550864E+0	1.562938E+0	1.591368E+0	1.599619E+0	1.545241E+0	1.606754E+0	1.590363E+0	1.648357E+0	1.597259E+0	1.575752E+0	1.610587E+0	1.580686E+0	1.553949E+0	1.571757E+0	1.618434E+0	1.590548E+0	1.565453E+0	1.586418E+0	1.678554E+0	1.650520E+0	1.646712E+0	1.613134E+0	1.628474E+0	1.571096E+0	1.562401E+0	1.554217E+0	1.593162E+0	1.612183E+0	1.556110E+0	1.605293E+0	1.626046E+0	1.556468E+0	1.628210E+0	1.585182E+0	1.682530E+0	1.599523E+0	1.584397E+0	1.611478E+0	1.572954E+0	1.581827E+0	1.603599E+0	1.576526E+0	1.625089E+0	1.619547E+0	1.554731E+0	1.604122E+0	1.638812E+0	1.594799E+0	1.599918E+0	1.638266E+0	1.586066E+0	1.637487E+0	1.612539E+0	1.571872E+0	1.612359E+0	1.599327E+0	1.547337E+0	1.597891E+0	1.680090E+0	1.614553E+0	1.663608E+0	1.625176E+0	1.607019E+0	1.508043E+0	1.620705E+0	1.588020E+0	1.556857E+0	1.576676E+0	1.539636E+0	1.527437E+0	1.520238E+0	1.531014E+0	1.528099E+0	1.575221E+0	1.578798E+0	1.588162E+0	1.627169E+0	1.557021E+0	1.578902E+0	1.610349E+0	1.543069E+0	1.626474E+0	1.556851E+0	1.583906E+0	1.564397E+0	1.611792E+0	1.572100E+0	1.584531E+0	1.517440E+0	1.520573E+0	1.531679E+0	1.567417E+0	1.547514E+0	1.563918E+0	1.582793E+0	1.574246E+0	1.555710E+0	1.591801E+0	1.556510E+0	1.553091E+0	1.524698E+0	1.614113E+0	1.575964E+0	1.544456E+0	1.555603E+0	1.570855E+0	1.598538E+0	1.616999E+0	1.513920E+0	1.624884E+0	1.575906E+0	1.614609E+0	1.528136E+0	1.589075E+0	1.577543E+0	1.574630E+0	1.551122E+0	1.607682E+0	1.525092E+0	1.553143E+0	1.544288E+0	1.545568E+0	1.562219E+0	1.567396E+0	1.597474E+0	1.483438E+0	1.610070E+0	1.614278E+0	1.561703E+0	1.575321E+0	1.575871E+0	1.682751E+0	1.505752E+0	1.509261E+0	1.554791E+0	1.616008E+0	1.520453E+0	1.533523E+0	1.572986E+0	1.564928E+0	1.501133E+0	1.603229E+0	1.570033E+0	1.528083E+0	1.563645E+0	1.539087E+0	1.599447E+0	1.572361E+0	1.537232E+0	1.551000E+0	1.556448E+0	1.628960E+0	1.557668E+0	1.563707E+0	1.509917E+0	1.589888E+0	1.525102E+0	1.593772E+0	1.526596E+0	1.594509E+0	1.546435E+0	1.557444E+0	1.588808E+0	1.557316E+0	1.629376E+0	1.569576E+0
5.392880E+2	1.797122E+0	1.774021E+0	1.827229E+0	1.734840E+0	1.805978E+0	1.715902E+0	1.792245E+0	1.773277E+0	1.793316E+0	1.758283E+0	1.814239E+0	1.790730E+0	1.803913E+0	1.790305E+0	1.847401E+0	1.824149E+0	1.765288E+0	1.879658E+0	1.804398E+0	1.790925E+0	1.823515E+0	1.747876E+0	1.783783E+0	1.732029E+0	1.764612E+0	1.770925E+0	1.759448E+0	1.801853E+0	1.756489E+0	1.833222E+0	1.699287E+0	1.744479E+0	1.776324E+0	1.744090E+0	1.724829E+0	1.758848E+0	1.724341E+0	1.721059E+0	1.801321E+0	1.800306E+0	1.755110E+0	1.737067E+0	1.747065E+0	1.786886E+0	1.830616E+0	1.716392E+0	1.796123E+0	1.732208E+0	1.777958E+0	1.740628E+0	1.819624E+0	1.758209E+0	1.764152E+0	1.729154E+0	1.838090E+0	1.842034E+0	1.774117E+0	1.804442E+0	1.759189E+0	1.822009E+0	1.794668E+0	1.780151E+0	1.806863E+0	1.740707E+0	1.748699E+0	1.699969E+0	1.755898E+0	1.751587E+0	1.716707E+0	1.774441E+0	1.797311E+0	1.847026E+0	1.765514E+0	1.761916E+0	1.771964E+0	1.776468E+0	1.786835E+0	1.700799E+0	1.761035E+0	1.771899E+0	1.746925E+0	1.710813E+0	1.770932E+0	1.718706E+0	1.737116E+0	1.770843E+0	1.792321E+0	1.760626E+0	1.769997E+0	1.785260E+0	1.729500E+0	1.721143E+0	1.756350E+0	1.739357E+0	1.718138E+0	1.750364E+0	1.763755E+0	1.756462E+0	1.736445E+0	1.743284E+0	1.806635E+0	1.811979E+0	1.765601E+0	1.746869E+0	1.745942E+0	1.668574E+0	1.784592E+0	1.760119E+0	1.782011E+0	1.737748E+0	1.730706E+0	1.803597E+0	1.730983E+0	1.659330E+0	1.743365E+0	1.774690E+0	1.800767E+0	1.739636E+0	1.808024E+0	1.711021E+0	1.841753E+0	1.683650E+0	1.708313E+0	1.740964E+0	1.847899E+0	1.711879E+0	1.698183E+0	1.756388E+0	1.721936E+0	1.793600E+0	1.776167E+0	1.747647E+0	1.734567E+0	1.717528E+0	1.784698E+0	1.724989E+0	1.768120E+0	1.711375E+0	1.721766E+0	1.736513E+0	1.747740E+0	1.693704E+0	1.722691E+0	1.745568E+0	1.794258E+0	1.702717E+0	1.725590E+0	1.763179E+0	1.749393E+0	1.715639E+0	1.700037E+0	1.762948E+0	1.701671E+0	1.721472E+0	1.756168E+0	1.772944E+0	1.709247E+0	1.784554E+0	1.769562E+0	1.794679E+0	1.708822E+0	1.698393E+0	1.764839E+0	1.755007E+0	1.736920E+0	1.695290E+0	1.743102E+0	1.810133E+0	1.800570E+0	1.767213E+0	1.781735E+0
5.395210E+2	1.910365E+0	1.847324E+0	1.963311E+0	1.884163E+0	1.836324E+0	1.829149E+0	1.847389E+0	1.863454E+0	1.838786E+0	1.857074E+0	1.944122E+0	1.877857E+0	1.916571E+0	1.874037E+0	1.832133E+0	1.902438E+0	1.843292E+0	1.878654E+0	1.858652E+0	1.905434E+0	1.932335E+0	1.862496E+0	1.862728E+0	1.852299E+0	1.914115E+0	1.933339E+0	1.821213E+0	1.851597E+0	1.804680E+0	1.886407E+0	1.832924E+0	1.803463E+0	1.871108E+0	1.846554E+0	1.852400E+0	1.878904E+0	1.816448E+0	1.865678E+0	1.826881E+0	1.808198E+0	1.976067E+0	1.795492E+0	1.845622E+0	1.846673E+0	1.860822E+0	1.865024E+0	1.862792E+0	1.827421E+0	1.900040E+0	1.763806E+0	1.880465E+0	1.891870E+0	1.864819E+0	1.879497E+0	1.897078E+0	1.891440E+0	1.852899E+0	1.829484E+0	1.913170E+0	1.858347E+0	1.893730E+0	1.819866E+0	1.853519E+0	1.886194E+0	1.916815E+0	1.843187E+0	1.791737E+0	1.828719E+0	1.782177E+0	1.897032E+0	1.864582E+0	1.833552E+0	1.896610E+0	1.898889E+0	1.816772E+0	1.841314E+0	1.857162E+0	1.779471E+0	1.860338E+0	1.840796E+0	1.918868E+0	1.785520E+0	1.838257E+0	1.913818E+0	1.918789E+0	1.750980E+0	1.843274E+0	1.808553E+0	1.845218E+0	1.822927E+0	1.883675E+0	1.804246E+0	1.807735E+0	1.805307E+0	1.840976E+0	1.815187E+0	1.826562E+0	1.810880E+0	1.764129E+0	1.888301E+0	1.803801E+0	1.851946E+0	1.869911E+0	1.834577E+0	1.766811E+0	1.793950E+0	1.919501E+0	1.829996E+0	1.825326E+0	1.764231E+0	1.836686E+0	1.865599E+0	1.827518E+0	1.775235E+0	1.800090E+0	1.867693E+0	1.833066E+0	1.833251E+0	1.815793E+0	1.802208E+0	1.918732E+0	1.829121E+0	1.858758E+0	1.787164E+0	1.816571E+0	1.870359E+0	1.799626E+0	1.832928E+0	1.784680E+0	1.822145E+0	1.771191E+0	1.821060E+0	1.811936E+0	1.824126E+0	1.772607E+0	1.811596E+0	1.910392E+0	1.794201E+0	1.772888E+0	1.765151E+0	1.852330E+0	1.750573E+0	1.789911E+0	1.821752E+0	1.803979E+0	1.780134E+0	1.816398E+0	1.883034E+0	1.795156E+0	1.763964E+0	1.787339E+0	1.976161E+0	1.849517E+0	1.849668E+0	1.757161E+0	1.863659E+0	1.838693E+0	1.786895E+0	1.845556E+0	1.855639E+0	1.862132E+0	1.747140E+0	1.796946E+0	1.794879E+0	1.855770E+0	1.805882E+0	1.847257E+0	1.782600E+0	1.785426E+0	1.759560E+0	1.864011E+0
5.397750E+2	1.954145E+0	1.929971E+0	1.935283E+0	1.855803E+0	1.959603E+0	1.843891E+0	1.913561E+0	1.946679E+0	1.865009E+0	1.928855E+0	1.949050E+0	1.920347E+0	1.943391E+0	1.854636E+0	1.945698E+0	1.894989E+0	1.886596E+0	1.911644E+0	1.817459E+0	1.895053E+0	1.951124E+0	1.933242E+0	1.909609E+0	1.900867E+0	1.930939E+0	1.949326E+0	1.914980E+0	1.900653E+0	1.910087E+0	1.922503E+0	1.894577E+0	1.807500E+0	1.898175E+0	1.856351E+0	1.869752E+0	1.837830E+0	1.869647E+0	1.902298E+0	1.864708E+0	1.881894E+0	1.868116E+0	1.867554E+0	1.881492E+0	1.909626E+0	1.878936E+0	1.943472E+0	1.817873E+0	1.922326E+0	1.878390E+0	1.879756E+0	1.873975E+0	1.857870E+0	1.919686E+0	1.842033E+0	1.965184E+0	1.899031E+0	1.844237E+0	1.901575E+0	1.903119E+0	1.961648E+0	1.909708E+0	1.853316E+0	1.828659E+0	1.892834E+0	1.914596E+0	1.913081E+0	1.868122E+0	1.840556E+0	1.863172E+0	1.844709E+0	1.878429E+0	1.846764E+0	1.900510E+0	1.896539E+0	1.839033E+0	1.831663E+0	1.888732E+0	1.803888E+0	1.907155E+0	1.922734E+0	1.872749E+0	1.845340E+0	1.897903E+0	1.974369E+0	1.861754E+0	1.846092E+0	1.898507E+0	1.850117E+0	1.873218E+0	1.868964E+0	1.925434E+0	1.837614E+0	1.898829E+0	1.876952E+0	1.844344E+0	1.849930E+0	1.850601E+0	1.874860E+0	1.868422E+0	1.834390E+0	1.889264E+0	1.925236E+0	1.877567E+0	1.884364E+0	1.807024E+0	1.819756E+0	1.854895E+0	1.954867E+0	1.900632E+0	1.855967E+0	1.894925E+0	1.880828E+0	1.894245E+0	1.808967E+0	1.936483E+0	1.838557E+0	1.829539E+0	1.748983E+0	1.899493E+0	1.836211E+0	1.918922E+0	1.859605E+0	1.873465E+0	1.841347E+0	1.815904E+0	1.816082E+0	1.848758E+0	1.895929E+0	1.919437E+0	1.829096E+0	1.830384E+0	1.893576E+0	1.837577E+0	1.864196E+0	1.825041E+0	1.917006E+0	1.854865E+0	1.794309E+0	1.859616E+0	1.884713E+0	1.878894E+0	1.807669E+0	1.866418E+0	1.850862E+0	1.868819E+0	1.851067E+0	1.829201E+0	1.944712E+0	1.857716E+0	1.785069E+0	1.863015E+0	1.858668E+0	1.820166E+0	1.892813E+0	1.760959E+0	1.945795E+0	1.829559E+0	1.856083E+0	1.827074E+0	1.840238E+0	1.784468E+0	1.816585E+0	1.884917E+0	1.886402E+0	1.869634E+0	1.777364E+0	1.856060E+0	1.847167E+0	1.879498E+0	1.760568E+0	1.828526E+0
5.400190E+2	1.932922E+0	1.887339E+0	1.895229E+0	1.895963E+0	1.928558E+0	1.893444E+0	1.869843E+0	1.859087E+0	1.868374E+0	1.923971E+0	1.904317E+0	1.871233E+0	1.983167E+0	1.924677E+0	1.919785E+0	1.837734E+0	1.890176E+0	1.988669E+0	1.847804E+0	1.932904E+0	1.960804E+0	1.947233E+0	1.867980E+0	1.827800E+0	1.983722E+0	1.877817E+0	1.888024E+0	1.948646E+0	1.854765E+0	1.918464E+0	1.839943E+0	1.860983E+0	1.931526E+0	1.912069E+0	1.864254E+0	1.883396E+0	1.934908E+0	1.861269E+0	1.861046E+0	1.875645E+0	1.949448E+0	1.885901E+0	1.946655E+0	1.910520E+0	1.879698E+0	1.854098E+0	1.851809E+0	1.885494E+0	1.953386E+0	1.860338E+0	1.853218E+0	1.905014E+0	1.894671E+0	1.885330E+0	1.868020E+0	1.956215E+0	1.905083E+0	1.872422E+0	1.840883E+0	1.902107E+0	1.825671E+0	1.866335E+0	1.887040E+0	1.917398E+0	1.890844E+0	1.840039E+0	1.882890E+0	1.838594E+0	1.888292E+0	1.877096E+0	1.882619E+0	1.863838E+0	1.910486E+0	1.886225E+0	1.808405E+0	1.872064E+0	1.795502E+0	1.919956E+0	1.953401E+0	1.918791E+0	1.894188E+0	1.833494E+0	1.900492E+0	1.955770E+0	1.911886E+0	1.870760E+0	1.895687E+0	1.874545E+0	1.942074E+0	1.841468E+0	1.843790E+0	1.843843E+0	1.906999E+0	1.836320E+0	1.831388E+0	1.856870E+0	1.834198E+0	1.864959E+0	1.836016E+0	1.882767E+0	1.865590E+0	1.887581E+0	1.851217E+0	1.819633E+0	1.838946E+0	1.903375E+0	1.865394E+0	1.925716E+0	1.853355E+0	1.817238E+0	1.825011E+0	1.853110E+0	1.908124E+0	1.826608E+0	1.852199E+0	1.829587E+0	1.896269E+0	1.812845E+0	1.906196E+0	1.792520E+0	1.913231E+0	1.766381E+0	1.799244E+0	1.895911E+0	1.839636E+0	1.840924E+0	1.869230E+0	1.867757E+0	1.907619E+0	1.851966E+0	1.874187E+0	1.855603E+0	1.879258E+0	1.809027E+0	1.820127E+0	1.855192E+0	1.893924E+0	1.878335E+0	1.790621E+0	1.820353E+0	1.844734E+0	1.828578E+0	1.789756E+0	1.794720E+0	1.825265E+0	1.842645E+0	1.821042E+0	1.907103E+0	1.874471E+0	1.876068E+0	1.831719E+0	1.830770E+0	1.873087E+0	1.866372E+0	1.860115E+0	1.838554E+0	1.889960E+0	1.891915E+0	1.818328E+0	1.888177E+0	1.911668E+0	1.751452E+0	1.784640E+0	1.875964E+0	1.824861E+0	1.864090E+0	1.928883E+0	1.861512E+0	1.771875E+0	1.832568E+0	1.881340E+0
5.402630E+2	1.831360E+0	1.765548E+0	1.862804E+0	1.825470E+0	1.846427E+0	1.735652E+0	1.782342E+0	1.829780E+0	1.784118E+0	1.778359E+0	1.810703E+0	1.819907E+0	1.789713E+0	1.801859E+0	1.866131E+0	1.796672E+0	1.815604E+0	1.822438E+0	1.766669E+0	1.827087E+0	1.848130E+0	1.795419E+0	1.721234E+0	1.786892E+0	1.799360E+0	1.845262E+0	1.823549E+0	1.818169E+0	1.797224E+0	1.795336E+0	1.736689E+0	1.741089E+0	1.756968E+0	1.788859E+0	1.761429E+0	1.776351E+0	1.821101E+0	1.757903E+0	1.777419E+0	1.787159E+0	1.814273E+0	1.770085E+0	1.814461E+0	1.810856E+0	1.836879E+0	1.769551E+0	1.820394E+0	1.780691E+0	1.795764E+0	1.689521E+0	1.786528E+0	1.806495E+0	1.798873E+0	1.784965E+0	1.773814E+0	1.859903E+0	1.824103E+0	1.768715E+0	1.797737E+0	1.823442E+0	1.784664E+0	1.814927E+0	1.821826E+0	1.825756E+0	1.801643E+0	1.751388E+0	1.720275E+0	1.769898E+0	1.761712E+0	1.748947E+0	1.780120E+0	1.802011E+0	1.732932E+0	1.822031E+0	1.747812E+0	1.702086E+0	1.827137E+0	1.750134E+0	1.714872E+0	1.752985E+0	1.761329E+0	1.703663E+0	1.775957E+0	1.779795E+0	1.690592E+0	1.818140E+0	1.795913E+0	1.762629E+0	1.760004E+0	1.779444E+0	1.831900E+0	1.770595E+0	1.840497E+0	1.803931E+0	1.777046E+0	1.781808E+0	1.756564E+0	1.778113E+0	1.752049E+0	1.690200E+0	1.671602E+0	1.833711E+0	1.760609E+0	1.797957E+0	1.751869E+0	1.748466E+0	1.804835E+0	1.718725E+0	1.796706E+0	1.733010E+0	1.787055E+0	1.790063E+0	1.829080E+0	1.767857E+0	1.763883E+0	1.690626E+0	1.813626E+0	1.693689E+0	1.824541E+0	1.746118E+0	1.801448E+0	1.711403E+0	1.788776E+0	1.728963E+0	1.760344E+0	1.756805E+0	1.768476E+0	1.758283E+0	1.787411E+0	1.813124E+0	1.839865E+0	1.723666E+0	1.702538E+0	1.836906E+0	1.743521E+0	1.755408E+0	1.734773E+0	1.707434E+0	1.787488E+0	1.781059E+0	1.813148E+0	1.694163E+0	1.756103E+0	1.820651E+0	1.837386E+0	1.684789E+0	1.833931E+0	1.815159E+0	1.765646E+0	1.705530E+0	1.752149E+0	1.799451E+0	1.745103E+0	1.784959E+0	1.760510E+0	1.763907E+0	1.711935E+0	1.737558E+0	1.720649E+0	1.788327E+0	1.748515E+0	1.725264E+0	1.781191E+0	1.791530E+0	1.748180E+0	1.790292E+0	1.787972E+0	1.690726E+0	1.712469E+0	1.796866E+0	1.757283E+0
5.405240E+2	1.766806E+0	1.653558E+0	1.694523E+0	1.745697E+0	1.772554E+0	1.739091E+0	1.609268E+0	1.715986E+0	1.688523E+0	1.735603E+0	1.706034E+0	1.728819E+0	1.722796E+0	1.722481E+0	1.737091E+0	1.720112E+0	1.688660E+0	1.711862E+0	1.710104E+0	1.757824E+0	1.760113E+0	1.684557E+0	1.657401E+0	1.598468E+0	1.697175E+0	1.662256E+0	1.658088E+0	1.694552E+0	1.728881E+0	1.700438E+0	1.666605E+0	1.693933E+0	1.675441E+0	1.660567E+0	1.646586E+0	1.717382E+0	1.734073E+0	1.659731E+0	1.674712E+0	1.713509E+0	1.736763E+0	1.682891E+0	1.702543E+0	1.728168E+0	1.666085E+0	1.656799E+0	1.685275E+0	1.718599E+0	1.757984E+0	1.669176E+0	1.721454E+0	1.727862E+0	1.705165E+0	1.721744E+0	1.715560E+0	1.696573E+0	1.712758E+0	1.697333E+0	1.683974E+0	1.714490E+0	1.746037E+0	1.685695E+0	1.748655E+0	1.683840E+0	1.728873E+0	1.639577E+0	1.672353E+0	1.709792E+0	1.660748E+0	1.729024E+0	1.686035E+0	1.740992E+0	1.634154E+0	1.664941E+0	1.685555E+0	1.710149E+0	1.690093E+0	1.676270E+0	1.647197E+0	1.717086E+0	1.748010E+0	1.689737E+0	1.650499E+0	1.622441E+0	1.686225E+0	1.642700E+0	1.735217E+0	1.640055E+0	1.706124E+0	1.639304E+0	1.707604E+0	1.701092E+0	1.646053E+0	1.692728E+0	1.666973E+0	1.647821E+0	1.706643E+0	1.654504E+0	1.673148E+0	1.714410E+0	1.711524E+0	1.711587E+0	1.666662E+0	1.667990E+0	1.662149E+0	1.658893E+0	1.683039E+0	1.677558E+0	1.586259E+0	1.658854E+0	1.693033E+0	1.617387E+0	1.724353E+0	1.641995E+0	1.680816E+0	1.597625E+0	1.703486E+0	1.609903E+0	1.660106E+0	1.722780E+0	1.685744E+0	1.610722E+0	1.703952E+0	1.672488E+0	1.666740E+0	1.680229E+0	1.606722E+0	1.719626E+0	1.712821E+0	1.712831E+0	1.649677E+0	1.671952E+0	1.665263E+0	1.623408E+0	1.661234E+0	1.724341E+0	1.718641E+0	1.618629E+0	1.602803E+0	1.669720E+0	1.697681E+0	1.573469E+0	1.656458E+0	1.669655E+0	1.625371E+0	1.634241E+0	1.656194E+0	1.657600E+0	1.652055E+0	1.667218E+0	1.647312E+0	1.649866E+0	1.573180E+0	1.650899E+0	1.640358E+0	1.609949E+0	1.674595E+0	1.646411E+0	1.689442E+0	1.660810E+0	1.665268E+0	1.582156E+0	1.620871E+0	1.582572E+0	1.668683E+0	1.651699E+0	1.689965E+0	1.588711E+0	1.705249E+0	1.671110E+0	1.623331E+0
5.407630E+2	1.679397E+0	1.643013E+0	1.635810E+0	1.680212E+0	1.700179E+0	1.692507E+0	1.661556E+0	1.626626E+0	1.661482E+0	1.697488E+0	1.685704E+0	1.671134E+0	1.657905E+0	1.707136E+0	1.632280E+0	1.653410E+0	1.659014E+0	1.784808E+0	1.675163E+0	1.647578E+0	1.679613E+0	1.641701E+0	1.653984E+0	1.691980E+0	1.666170E+0	1.677646E+0	1.651014E+0	1.731848E+0	1.673621E+0	1.637215E+0	1.609602E+0	1.626667E+0	1.662508E+0	1.697261E+0	1.637188E+0	1.696115E+0	1.670900E+0	1.649436E+0	1.635042E+0	1.713246E+0	1.713067E+0	1.679038E+0	1.612261E+0	1.586885E+0	1.748683E+0	1.619665E+0	1.654718E+0	1.644075E+0	1.677413E+0	1.641371E+0	1.711632E+0	1.654936E+0	1.629696E+0	1.701669E+0	1.711538E+0	1.637752E+0	1.711820E+0	1.640935E+0	1.654120E+0	1.684694E+0	1.716405E+0	1.670071E+0	1.690096E+0	1.656359E+0	1.687091E+0	1.662232E+0	1.650722E+0	1.591141E+0	1.616573E+0	1.626937E+0	1.643734E+0	1.704522E+0	1.676213E+0	1.595467E+0	1.655206E+0	1.654081E+0	1.641391E+0	1.597942E+0	1.681087E+0	1.681532E+0	1.670673E+0	1.635188E+0	1.652501E+0	1.644622E+0	1.685315E+0	1.676677E+0	1.715136E+0	1.645040E+0	1.633869E+0	1.653105E+0	1.720849E+0	1.617196E+0	1.644904E+0	1.667616E+0	1.622365E+0	1.569551E+0	1.654256E+0	1.687661E+0	1.614540E+0	1.616946E+0	1.674389E+0	1.721372E+0	1.635908E+0	1.613336E+0	1.659931E+0	1.623050E+0	1.617857E+0	1.680832E+0	1.646076E+0	1.620354E+0	1.709993E+0	1.628535E+0	1.606418E+0	1.584749E+0	1.625480E+0	1.558478E+0	1.671044E+0	1.636085E+0	1.681839E+0	1.657177E+0	1.714922E+0	1.583150E+0	1.651554E+0	1.632978E+0	1.733302E+0	1.653135E+0	1.658316E+0	1.693686E+0	1.707772E+0	1.690847E+0	1.642451E+0	1.611112E+0	1.608578E+0	1.611073E+0	1.626439E+0	1.660482E+0	1.674150E+0	1.559041E+0	1.600146E+0	1.617320E+0	1.662726E+0	1.624802E+0	1.597194E+0	1.644444E+0	1.592748E+0	1.606158E+0	1.598136E+0	1.679996E+0	1.612023E+0	1.617030E+0	1.576867E+0	1.598991E+0	1.643261E+0	1.624541E+0	1.610161E+0	1.529848E+0	1.576777E+0	1.530110E+0	1.612769E+0	1.597066E+0	1.678055E+0	1.570580E+0	1.561877E+0	1.579999E+0	1.660730E+0	1.616002E+0	1.625886E+0	1.599482E+0	1.624920E+0	1.656405E+0	1.611694E+0
5.410240E+2	1.638429E+0	1.636861E+0	1.574437E+0	1.585618E+0	1.651022E+0	1.581795E+0	1.611664E+0	1.582165E+0	1.654119E+0	1.612293E+0	1.685421E+0	1.673234E+0	1.655043E+0	1.649751E+0	1.610268E+0	1.621937E+0	1.672139E+0	1.630681E+0	1.632970E+0	1.638560E+0	1.724990E+0	1.632093E+0	1.606306E+0	1.641118E+0	1.714675E+0	1.622744E+0	1.625844E+0	1.632772E+0	1.641028E+0	1.670453E+0	1.637529E+0	1.569479E+0	1.608373E+0	1.643287E+0	1.641700E+0	1.642241E+0	1.691729E+0	1.587259E+0	1.674123E+0	1.634852E+0	1.680050E+0	1.589279E+0	1.626252E+0	1.601567E+0	1.693538E+0	1.562550E+0	1.601204E+0	1.603335E+0	1.706084E+0	1.612913E+0	1.643261E+0	1.638336E+0	1.677734E+0	1.650065E+0	1.624484E+0	1.619922E+0	1.689024E+0	1.651255E+0	1.622579E+0	1.645587E+0	1.657471E+0	1.626524E+0	1.643093E+0	1.679472E+0	1.592609E+0	1.686632E+0	1.560358E+0	1.628552E+0	1.582305E+0	1.621024E+0	1.598823E+0	1.698321E+0	1.615829E+0	1.605986E+0	1.625440E+0	1.633064E+0	1.682407E+0	1.633206E+0	1.649373E+0	1.627754E+0	1.629799E+0	1.604777E+0	1.645447E+0	1.636592E+0	1.635361E+0	1.640641E+0	1.623749E+0	1.578050E+0	1.595362E+0	1.564730E+0	1.621241E+0	1.637357E+0	1.638778E+0	1.561520E+0	1.587611E+0	1.568495E+0	1.621438E+0	1.644082E+0	1.577431E+0	1.601735E+0	1.595102E+0	1.590647E+0	1.571715E+0	1.651287E+0	1.635720E+0	1.500297E+0	1.620878E+0	1.646818E+0	1.605587E+0	1.576287E+0	1.575897E+0	1.663251E+0	1.680060E+0	1.521704E+0	1.595987E+0	1.528823E+0	1.620802E+0	1.544360E+0	1.642507E+0	1.626787E+0	1.613540E+0	1.609085E+0	1.593498E+0	1.564780E+0	1.598977E+0	1.592636E+0	1.611402E+0	1.602293E+0	1.595438E+0	1.627509E+0	1.544656E+0	1.605400E+0	1.668306E+0	1.637023E+0	1.530329E+0	1.651655E+0	1.609400E+0	1.544123E+0	1.596788E+0	1.613535E+0	1.614178E+0	1.549132E+0	1.603164E+0	1.653104E+0	1.593075E+0	1.592198E+0	1.647737E+0	1.614355E+0	1.629458E+0	1.593747E+0	1.626420E+0	1.586808E+0	1.595670E+0	1.606984E+0	1.595465E+0	1.564141E+0	1.586483E+0	1.595801E+0	1.592928E+0	1.582798E+0	1.631127E+0	1.527090E+0	1.615193E+0	1.631615E+0	1.656874E+0	1.541120E+0	1.643563E+0	1.577328E+0	1.673244E+0	1.628344E+0	1.753248E+0
5.412530E+2	1.608141E+0	1.582958E+0	1.547164E+0	1.539360E+0	1.570063E+0	1.591234E+0	1.518619E+0	1.633603E+0	1.565125E+0	1.561523E+0	1.564741E+0	1.549133E+0	1.608530E+0	1.584294E+0	1.626219E+0	1.575668E+0	1.527920E+0	1.619546E+0	1.521784E+0	1.613866E+0	1.546315E+0	1.582892E+0	1.566089E+0	1.515163E+0	1.622711E+0	1.527157E+0	1.531389E+0	1.599130E+0	1.531222E+0	1.557432E+0	1.493745E+0	1.556079E+0	1.600107E+0	1.501544E+0	1.510150E+0	1.609212E+0	1.584142E+0	1.562960E+0	1.532881E+0	1.618592E+0	1.582386E+0	1.604273E+0	1.555718E+0	1.575473E+0	1.557152E+0	1.538271E+0	1.575563E+0	1.547522E+0	1.562728E+0	1.547702E+0	1.528351E+0	1.584016E+0	1.550807E+0	1.583877E+0	1.533809E+0	1.592536E+0	1.610511E+0	1.587636E+0	1.535576E+0	1.595427E+0	1.617013E+0	1.546054E+0	1.585722E+0	1.575969E+0	1.563021E+0	1.560803E+0	1.568654E+0	1.491702E+0	1.613240E+0	1.531296E+0	1.514669E+0	1.565387E+0	1.622964E+0	1.530810E+0	1.567453E+0	1.568919E+0	1.609511E+0	1.547893E+0	1.532542E+0	1.603723E+0	1.552558E+0	1.541130E+0	1.516391E+0	1.524997E+0	1.566529E+0	1.493802E+0	1.574538E+0	1.522856E+0	1.575025E+0	1.523263E+0	1.629793E+0	1.584713E+0	1.575535E+0	1.501386E+0	1.539102E+0	1.512254E+0	1.601624E+0	1.522326E+0	1.497841E+0	1.520252E+0	1.598603E+0	1.556018E+0	1.517306E+0	1.515194E+0	1.499866E+0	1.545316E+0	1.589383E+0	1.587712E+0	1.498220E+0	1.484124E+0	1.503653E+0	1.626018E+0	1.508589E+0	1.538286E+0	1.531341E+0	1.542911E+0	1.537758E+0	1.520233E+0	1.531006E+0	1.522343E+0	1.611883E+0	1.574475E+0	1.546389E+0	1.479251E+0	1.537544E+0	1.584755E+0	1.574507E+0	1.581624E+0	1.535477E+0	1.516695E+0	1.595311E+0	1.546507E+0	1.542339E+0	1.590642E+0	1.447749E+0	1.500398E+0	1.533882E+0	1.553691E+0	1.477901E+0	1.552066E+0	1.609457E+0	1.501464E+0	1.560995E+0	1.516143E+0	1.602632E+0	1.518267E+0	1.513577E+0	1.524911E+0	1.540301E+0	1.530419E+0	1.534429E+0	1.543760E+0	1.477106E+0	1.573896E+0	1.545259E+0	1.538614E+0	1.582647E+0	1.475463E+0	1.482019E+0	1.500780E+0	1.554382E+0	1.557619E+0	1.568329E+0	1.537434E+0	1.563631E+0	1.480692E+0	1.553605E+0	1.534661E+0	1.606305E+0	1.517767E+0	1.582388E+0
5.415190E+2	1.466470E+0	1.418474E+0	1.457905E+0	1.461818E+0	1.421985E+0	1.419701E+0	1.390525E+0	1.433141E+0	1.388984E+0	1.409042E+0	1.495710E+0	1.418177E+0	1.437617E+0	1.400750E+0	1.426426E+0	1.359185E+0	1.456704E+0	1.537752E+0	1.404162E+0	1.432352E+0	1.407838E+0	1.497281E+0	1.423105E+0	1.337408E+0	1.419345E+0	1.476646E+0	1.454195E+0	1.495379E+0	1.502228E+0	1.483471E+0	1.402084E+0	1.402657E+0	1.413298E+0	1.471200E+0	1.436681E+0	1.376628E+0	1.429239E+0	1.460638E+0	1.482988E+0	1.466827E+0	1.474592E+0	1.413633E+0	1.430212E+0	1.360913E+0	1.402704E+0	1.381546E+0	1.453404E+0	1.440453E+0	1.447084E+0	1.378089E+0	1.440824E+0	1.467181E+0	1.435251E+0	1.413245E+0	1.433382E+0	1.421611E+0	1.465785E+0	1.407223E+0	1.464199E+0	1.405171E+0	1.450878E+0	1.382444E+0	1.480797E+0	1.457676E+0	1.458733E+0	1.403793E+0	1.462710E+0	1.371343E+0	1.435104E+0	1.460244E+0	1.452504E+0	1.412203E+0	1.425801E+0	1.371945E+0	1.386649E+0	1.424249E+0	1.449971E+0	1.426151E+0	1.444610E+0	1.436947E+0	1.429814E+0	1.472983E+0	1.392657E+0	1.444734E+0	1.473708E+0	1.381778E+0	1.395860E+0	1.394527E+0	1.389667E+0	1.365567E+0	1.469476E+0	1.439738E+0	1.421729E+0	1.435001E+0	1.384133E+0	1.355160E+0	1.393867E+0	1.464179E+0	1.453832E+0	1.433424E+0	1.406377E+0	1.427485E+0	1.425735E+0	1.404093E+0	1.410004E+0	1.406507E+0	1.423505E+0	1.441116E+0	1.436191E+0	1.349654E+0	1.399126E+0	1.446396E+0	1.396158E+0	1.349716E+0	1.398511E+0	1.422543E+0	1.398469E+0	1.364310E+0	1.481966E+0	1.474139E+0	1.419235E+0	1.437804E+0	1.424959E+0	1.354917E+0	1.447864E+0	1.389779E+0	1.387699E+0	1.410393E+0	1.450004E+0	1.422210E+0	1.417752E+0	1.388557E+0	1.425058E+0	1.407532E+0	1.385988E+0	1.430906E+0	1.477132E+0	1.381584E+0	1.413099E+0	1.392215E+0	1.465268E+0	1.396981E+0	1.427796E+0	1.442980E+0	1.388570E+0	1.391342E+0	1.394594E+0	1.470528E+0	1.352697E+0	1.368855E+0	1.390416E+0	1.441475E+0	1.403646E+0	1.421521E+0	1.409605E+0	1.400307E+0	1.481095E+0	1.394267E+0	1.438754E+0	1.399071E+0	1.414220E+0	1.386358E+0	1.429464E+0	1.377787E+0	1.429709E+0	1.370007E+0	1.472644E+0	1.379225E+0	1.379571E+0	1.370865E+0	1.329865E+0
5.417650E+2	1.301185E+0	1.333886E+0	1.303381E+0	1.353029E+0	1.269984E+0	1.309868E+0	1.299691E+0	1.343681E+0	1.244948E+0	1.304444E+0	1.333832E+0	1.290228E+0	1.276775E+0	1.268134E+0	1.264996E+0	1.248997E+0	1.225613E+0	1.361936E+0	1.238205E+0	1.301426E+0	1.307935E+0	1.291453E+0	1.292742E+0	1.226819E+0	1.325398E+0	1.325066E+0	1.258997E+0	1.229176E+0	1.285283E+0	1.248423E+0	1.292724E+0	1.243765E+0	1.312874E+0	1.332029E+0	1.241838E+0	1.275199E+0	1.243765E+0	1.234384E+0	1.293989E+0	1.306742E+0	1.339079E+0	1.296754E+0	1.265129E+0	1.293526E+0	1.285472E+0	1.256024E+0	1.284305E+0	1.283389E+0	1.272818E+0	1.241347E+0	1.294571E+0	1.278434E+0	1.265057E+0	1.278097E+0	1.270309E+0	1.357212E+0	1.286422E+0	1.328032E+0	1.316217E+0	1.285711E+0	1.360032E+0	1.288804E+0	1.292623E+0	1.302238E+0	1.267593E+0	1.304143E+0	1.268095E+0	1.262605E+0	1.252448E+0	1.251675E+0	1.300491E+0	1.284009E+0	1.295053E+0	1.286863E+0	1.227430E+0	1.316441E+0	1.297366E+0	1.287070E+0	1.281912E+0	1.275841E+0	1.301154E+0	1.245704E+0	1.335643E+0	1.215824E+0	1.279157E+0	1.267464E+0	1.339851E+0	1.282156E+0	1.301631E+0	1.316752E+0	1.359610E+0	1.279157E+0	1.271193E+0	1.271172E+0	1.263780E+0	1.280149E+0	1.309139E+0	1.303682E+0	1.295377E+0	1.311743E+0	1.305973E+0	1.261811E+0	1.238254E+0	1.245084E+0	1.298087E+0	1.240241E+0	1.311647E+0	1.261565E+0	1.292626E+0	1.278853E+0	1.354560E+0	1.298295E+0	1.319432E+0	1.222593E+0	1.276801E+0	1.247165E+0	1.258163E+0	1.208233E+0	1.356986E+0	1.237929E+0	1.296562E+0	1.320972E+0	1.322002E+0	1.269208E+0	1.311114E+0	1.246504E+0	1.226399E+0	1.300388E+0	1.283957E+0	1.301040E+0	1.260672E+0	1.312213E+0	1.302787E+0	1.242930E+0	1.274153E+0	1.213417E+0	1.303510E+0	1.222900E+0	1.243592E+0	1.280651E+0	1.269873E+0	1.216217E+0	1.302445E+0	1.275800E+0	1.322498E+0	1.250259E+0	1.268404E+0	1.307010E+0	1.291314E+0	1.316331E+0	1.223634E+0	1.299883E+0	1.237609E+0	1.317447E+0	1.256506E+0	1.309632E+0	1.278597E+0	1.216259E+0	1.305814E+0	1.279963E+0	1.297813E+0	1.276676E+0	1.286633E+0	1.311550E+0	1.316311E+0	1.266717E+0	1.305818E+0	1.267474E+0	1.264757E+0	1.334528E+0	1.183110E+0
5.420320E+2	1.068943E+0	1.039567E+0	1.083376E+0	1.091081E+0	1.075408E+0	1.084550E+0	1.065368E+0	1.125088E+0	1.044856E+0	1.033101E+0	1.119704E+0	1.089566E+0	1.096987E+0	1.057221E+0	1.129460E+0	1.092563E+0	1.105897E+0	1.082358E+0	1.008378E+0	1.039026E+0	1.112631E+0	1.092517E+0	1.109397E+0	1.078357E+0	1.122630E+0	1.098701E+0	1.081324E+0	1.069435E+0	1.063773E+0	1.103170E+0	1.071216E+0	1.079856E+0	1.074111E+0	1.110661E+0	1.087060E+0	1.041085E+0	1.083029E+0	1.082196E+0	1.110413E+0	1.097245E+0	1.095879E+0	1.132973E+0	1.086374E+0	1.105347E+0	1.084522E+0	1.094982E+0	1.094397E+0	1.113544E+0	1.064757E+0	1.107311E+0	1.084018E+0	1.131680E+0	1.071500E+0	1.108844E+0	1.052206E+0	1.094588E+0	1.074867E+0	1.120643E+0	1.106593E+0	1.115220E+0	1.085935E+0	1.065947E+0	1.043314E+0	1.100331E+0	1.114540E+0	1.054735E+0	1.078368E+0	1.019406E+0	1.088559E+0	1.073324E+0	1.103545E+0	1.074758E+0	1.062493E+0	1.124835E+0	1.038727E+0	1.100879E+0	1.092056E+0	1.063905E+0	1.051198E+0	1.077188E+0	1.042195E+0	1.016504E+0	1.162561E+0	1.096681E+0	1.097086E+0	1.069061E+0	1.079867E+0	1.074474E+0	1.083699E+0	1.141705E+0	1.111788E+0	1.068712E+0	1.104062E+0	1.060985E+0	1.029474E+0	1.043369E+0	1.116059E+0	1.081263E+0	1.111893E+0	1.075403E+0	1.108214E+0	1.163212E+0	1.055319E+0	1.089829E+0	1.098249E+0	1.066752E+0	1.115883E+0	1.099449E+0	1.080145E+0	1.084767E+0	1.050418E+0	1.089249E+0	1.143536E+0	1.071879E+0	1.143038E+0	1.092629E+0	1.102788E+0	1.055749E+0	1.117738E+0	1.100348E+0	1.107627E+0	1.041768E+0	1.116071E+0	1.037329E+0	1.087686E+0	1.096719E+0	1.052655E+0	1.033820E+0	1.122931E+0	1.128217E+0	1.052729E+0	1.096526E+0	1.091904E+0	1.090022E+0	1.078216E+0	1.110595E+0	1.074199E+0	1.111908E+0	1.074865E+0	1.094812E+0	1.105859E+0	1.017829E+0	1.062551E+0	1.082614E+0	1.097894E+0	1.043746E+0	1.160184E+0	1.075061E+0	1.068175E+0	1.053156E+0	1.075001E+0	1.034831E+0	1.052392E+0	1.083736E+0	1.094991E+0	1.052635E+0	1.073541E+0	1.091139E+0	1.091877E+0	1.091985E+0	1.061740E+0	1.012591E+0	1.143724E+0	1.094385E+0	1.132741E+0	1.032380E+0	1.098810E+0	1.028508E+0	1.107635E+0	1.082667E+0	1.108268E+0
5.422670E+2	9.861214E-1	9.806317E-1	9.551639E-1	9.964657E-1	9.894902E-1	1.027246E+0	9.918080E-1	9.629562E-1	9.915839E-1	9.577734E-1	1.044554E+0	1.029938E+0	1.038589E+0	9.860816E-1	9.619702E-1	9.684723E-1	9.688463E-1	9.972690E-1	9.588212E-1	9.976581E-1	9.535495E-1	9.706832E-1	9.934048E-1	9.978317E-1	9.628360E-1	1.027919E+0	9.285763E-1	9.798001E-1	1.010409E+0	9.882888E-1	9.736554E-1	9.514847E-1	9.842010E-1	1.046177E+0	9.978028E-1	1.007086E+0	9.983665E-1	9.861136E-1	9.820973E-1	1.019557E+0	9.648871E-1	1.040163E+0	9.675398E-1	9.476538E-1	1.044227E+0	9.243791E-1	9.946872E-1	1.027483E+0	9.596238E-1	9.365256E-1	9.788780E-1	9.984322E-1	9.965388E-1	9.772458E-1	1.057275E+0	1.025363E+0	1.002717E+0	1.002301E+0	1.048306E+0	9.824022E-1	1.007156E+0	9.759038E-1	1.014877E+0	9.786147E-1	1.016197E+0	1.004041E+0	9.520748E-1	9.381818E-1	1.004823E+0	9.887242E-1	9.786729E-1	1.010991E+0	9.760246E-1	9.656228E-1	9.865404E-1	9.988781E-1	9.775065E-1	1.012034E+0	1.033280E+0	9.775915E-1	1.004285E+0	9.983616E-1	9.603567E-1	9.841352E-1	9.780984E-1	9.682226E-1	1.007020E+0	1.000722E+0	9.892255E-1	1.010141E+0	1.017289E+0	1.026724E+0	9.793071E-1	1.036703E+0	9.865450E-1	9.705721E-1	1.023103E+0	9.718527E-1	9.673780E-1	9.992733E-1	1.014562E+0	9.538665E-1	1.003391E+0	1.003728E+0	9.625192E-1	9.698824E-1	1.002914E+0	1.011285E+0	9.811881E-1	9.480045E-1	9.966609E-1	9.542037E-1	9.546357E-1	9.974614E-1	1.016778E+0	9.446040E-1	1.021029E+0	9.783712E-1	9.771562E-1	1.016493E+0	1.006218E+0	9.867351E-1	9.994328E-1	9.690182E-1	9.919859E-1	9.869130E-1	1.006321E+0	9.455020E-1	1.009003E+0	9.579900E-1	9.186060E-1	9.893078E-1	9.839869E-1	9.972157E-1	9.690190E-1	1.000427E+0	1.002706E+0	1.009849E+0	9.679617E-1	9.673055E-1	1.021376E+0	9.809004E-1	1.011404E+0	9.745024E-1	1.036502E+0	9.439421E-1	9.851910E-1	1.001957E+0	1.011995E+0	9.400638E-1	9.665944E-1	1.043196E+0	9.697027E-1	1.018125E+0	9.904623E-1	9.632998E-1	1.014796E+0	9.545747E-1	1.012514E+0	9.833080E-1	1.004074E+0	9.558252E-1	9.963356E-1	9.593718E-1	9.680461E-1	1.005823E+0	1.034350E+0	9.442932E-1	1.055521E+0	9.201789E-1	9.380757E-1
5.425460E+2	9.390331E-1	9.235152E-1	9.110856E-1	8.706790E-1	8.836530E-1	9.036335E-1	9.448523E-1	9.121880E-1	9.321368E-1	8.641135E-1	8.910467E-1	9.317744E-1	9.684364E-1	9.155475E-1	9.181980E-1	9.656951E-1	9.236271E-1	9.200382E-1	9.300561E-1	9.675051E-1	9.280212E-1	9.656438E-1	9.521170E-1	8.886605E-1	8.667284E-1	9.523256E-1	9.405430E-1	9.299582E-1	9.685376E-1	9.448496E-1	8.806831E-1	8.948433E-1	9.597986E-1	9.382468E-1	9.016110E-1	8.761325E-1	9.300464E-1	9.168230E-1	9.348752E-1	9.057397E-1	9.421769E-1	9.009695E-1	9.129446E-1	9.271639E-1	9.919542E-1	8.930892E-1	9.191994E-1	8.910979E-1	9.234603E-1	9.355176E-1	9.464515E-1	9.177301E-1	9.167987E-1	9.118816E-1	9.636434E-1	9.144014E-1	9.434048E-1	9.512353E-1	9.457674E-1	9.334612E-1	9.655297E-1	9.326305E-1	9.395750E-1	8.900335E-1	9.300402E-1	9.513095E-1	9.072386E-1	9.349883E-1	8.857635E-1	8.810017E-1	9.330910E-1	9.342842E-1	9.237521E-1	9.476618E-1	8.529728E-1	9.197396E-1	9.449013E-1	9.231912E-1	8.718734E-1	9.138630E-1	8.926591E-1	9.757972E-1	9.184473E-1	9.463570E-1	9.087013E-1	8.955758E-1	9.370654E-1	9.586666E-1	8.954969E-1	9.431212E-1	9.572164E-1	8.934188E-1	9.283506E-1	8.890694E-1	8.997425E-1	8.893758E-1	9.329832E-1	9.228268E-1	9.225025E-1	9.499274E-1	8.984417E-1	9.713330E-1	9.189659E-1	9.592453E-1	8.933173E-1	9.089187E-1	8.736946E-1	9.427996E-1	8.948843E-1	8.827599E-1	9.266747E-1	8.965757E-1	9.083093E-1	8.950804E-1	9.181250E-1	9.427693E-1	9.566465E-1	9.324606E-1	9.179302E-1	9.023692E-1	9.665171E-1	8.990351E-1	9.316220E-1	9.071837E-1	9.848889E-1	9.022358E-1	8.979144E-1	8.718752E-1	9.688616E-1	9.026752E-1	8.993840E-1	9.126546E-1	9.258754E-1	9.537522E-1	9.223179E-1	8.859547E-1	9.335125E-1	8.800881E-1	8.670043E-1	9.096593E-1	9.624805E-1	9.023712E-1	9.100171E-1	9.316028E-1	8.852235E-1	9.346697E-1	9.656280E-1	9.037782E-1	9.460283E-1	9.530578E-1	9.277625E-1	9.242319E-1	9.004477E-1	9.197977E-1	9.281323E-1	8.976641E-1	9.282255E-1	9.171289E-1	9.406066E-1	9.654954E-1	9.363796E-1	9.250105E-1	9.319039E-1	9.018309E-1	9.269204E-1	8.929462E-1	9.563819E-1	9.025270E-1	9.021771E-1	9.846132E-1	8.953678E-1
5.427550E+2	8.982569E-1	9.102806E-1	8.978237E-1	8.989442E-1	9.090704E-1	8.782991E-1	8.812074E-1	8.906895E-1	8.734269E-1	8.870136E-1	9.119688E-1	9.030743E-1	9.204113E-1	8.978944E-1	8.917524E-1	8.723037E-1	8.670591E-1	9.139957E-1	8.952565E-1	8.776589E-1	8.785024E-1	9.069450E-1	9.680734E-1	8.630386E-1	9.041252E-1	9.673370E-1	8.979727E-1	9.037527E-1	9.158497E-1	9.357862E-1	9.500835E-1	9.154533E-1	9.126003E-1	9.283294E-1	9.169631E-1	9.684024E-1	9.062252E-1	9.074537E-1	9.269831E-1	9.223409E-1	9.063307E-1	9.130921E-1	9.263945E-1	9.142774E-1	9.088352E-1	9.281513E-1	9.206657E-1	9.123162E-1	9.105222E-1	8.807480E-1	8.884179E-1	8.634049E-1	8.960789E-1	8.919711E-1	9.487703E-1	9.269745E-1	9.160415E-1	9.249182E-1	8.941269E-1	8.937551E-1	8.659064E-1	9.413190E-1	9.261340E-1	9.224017E-1	9.189925E-1	9.265645E-1	8.888838E-1	8.522400E-1	8.585071E-1	9.597847E-1	8.818041E-1	8.990418E-1	9.238317E-1	9.404314E-1	9.082918E-1	9.099680E-1	9.073394E-1	9.394833E-1	8.966627E-1	9.200037E-1	9.235504E-1	9.178249E-1	9.358642E-1	9.195238E-1	8.978549E-1	9.230613E-1	8.998224E-1	9.616138E-1	9.116037E-1	8.854006E-1	9.362429E-1	8.999085E-1	9.099854E-1	8.809969E-1	9.442890E-1	8.641205E-1	9.366467E-1	9.374875E-1	8.852258E-1	8.947976E-1	8.952786E-1	9.345973E-1	9.134046E-1	9.051298E-1	9.230612E-1	8.882002E-1	9.378332E-1	8.938027E-1	9.109560E-1	8.850819E-1	9.083643E-1	8.800535E-1	9.246630E-1	8.678129E-1	8.948316E-1	8.518140E-1	9.405899E-1	8.698056E-1	9.294906E-1	9.356708E-1	9.321647E-1	9.433755E-1	9.176127E-1	8.888305E-1	9.248548E-1	9.428359E-1	9.191763E-1	8.939129E-1	9.484893E-1	9.105879E-1	8.982558E-1	9.213500E-1	9.131023E-1	8.921337E-1	8.895501E-1	8.611899E-1	9.383691E-1	8.829026E-1	8.891908E-1	8.854998E-1	8.868650E-1	8.897793E-1	9.190936E-1	9.189097E-1	9.237977E-1	8.491059E-1	9.190059E-1	9.026628E-1	8.885100E-1	9.250511E-1	8.614122E-1	8.655608E-1	9.347336E-1	9.071849E-1	9.150005E-1	9.333392E-1	9.418765E-1	8.661154E-1	9.000914E-1	9.224425E-1	9.522179E-1	8.695809E-1	9.166827E-1	9.893596E-1	8.852637E-1	9.074203E-1	9.514390E-1	9.187265E-1	8.932885E-1	8.808109E-1	9.650255E-1
5.430120E+2	9.981313E-1	1.020003E+0	1.005338E+0	9.852797E-1	9.722651E-1	1.027254E+0	9.358000E-1	9.981505E-1	9.797361E-1	9.589855E-1	1.027061E+0	9.745462E-1	1.005552E+0	1.007650E+0	1.029424E+0	9.657467E-1	1.026125E+0	1.023291E+0	9.886728E-1	9.701103E-1	9.754263E-1	9.960400E-1	1.071163E+0	1.007872E+0	1.016796E+0	1.030854E+0	9.996050E-1	1.032208E+0	9.951402E-1	1.012601E+0	9.919630E-1	9.920073E-1	1.026313E+0	9.788225E-1	1.018638E+0	1.071782E+0	9.956892E-1	9.787439E-1	1.024539E+0	1.003178E+0	1.032907E+0	1.020595E+0	1.032573E+0	9.966926E-1	1.055357E+0	1.000196E+0	1.014560E+0	1.058856E+0	9.855944E-1	9.833293E-1	1.016311E+0	9.985143E-1	9.908561E-1	1.009070E+0	1.007988E+0	9.960492E-1	9.819383E-1	1.004615E+0	1.043572E+0	1.004554E+0	9.941232E-1	1.032144E+0	1.015431E+0	1.083929E+0	1.057821E+0	1.036793E+0	1.022742E+0	9.784745E-1	1.006982E+0	1.037008E+0	9.687677E-1	1.066889E+0	1.026695E+0	9.768623E-1	1.020033E+0	9.855347E-1	9.985309E-1	9.698521E-1	9.625787E-1	1.028222E+0	9.733757E-1	9.776410E-1	1.035985E+0	9.703376E-1	9.813240E-1	1.010947E+0	1.035361E+0	1.011425E+0	9.650246E-1	1.007138E+0	9.844253E-1	9.845413E-1	9.686044E-1	9.529862E-1	9.575397E-1	1.005637E+0	9.905854E-1	1.071217E+0	1.027820E+0	1.001920E+0	9.893141E-1	1.022692E+0	1.018710E+0	1.006983E+0	9.816737E-1	9.751286E-1	1.017509E+0	1.050293E+0	9.842497E-1	9.604779E-1	1.008782E+0	1.003123E+0	1.039381E+0	1.010493E+0	1.000796E+0	9.294470E-1	1.034643E+0	9.596908E-1	1.044522E+0	1.023893E+0	1.046213E+0	9.690500E-1	1.027963E+0	9.984192E-1	9.894193E-1	9.942192E-1	1.006357E+0	9.802654E-1	9.897037E-1	9.689941E-1	1.008757E+0	9.998210E-1	1.025532E+0	9.759124E-1	9.351879E-1	9.638267E-1	1.003188E+0	1.048661E+0	9.954112E-1	9.749640E-1	9.943091E-1	9.832199E-1	1.030451E+0	1.000064E+0	1.031867E+0	9.971001E-1	1.039038E+0	1.003393E+0	9.726304E-1	1.032218E+0	9.573841E-1	1.069074E+0	1.013535E+0	1.011591E+0	9.749675E-1	1.030499E+0	1.014806E+0	1.012435E+0	1.041487E+0	9.936566E-1	9.686164E-1	9.492658E-1	9.906904E-1	1.015795E+0	1.033366E+0	9.852028E-1	1.026016E+0	9.484171E-1	9.633998E-1	1.057851E+0	9.621591E-1
5.432960E+2	1.198583E+0	1.192499E+0	1.203983E+0	1.221382E+0	1.161043E+0	1.179384E+0	1.228819E+0	1.217993E+0	1.114704E+0	1.208033E+0	1.185553E+0	1.200214E+0	1.215425E+0	1.229668E+0	1.217540E+0	1.243622E+0	1.236815E+0	1.207075E+0	1.181715E+0	1.166418E+0	1.233114E+0	1.181420E+0	1.248955E+0	1.198325E+0	1.251036E+0	1.193624E+0	1.233616E+0	1.164981E+0	1.227857E+0	1.240869E+0	1.202215E+0	1.161525E+0	1.219732E+0	1.254327E+0	1.191178E+0	1.182572E+0	1.245383E+0	1.214843E+0	1.206881E+0	1.194156E+0	1.257731E+0	1.177018E+0	1.193027E+0	1.205597E+0	1.248117E+0	1.183260E+0	1.227798E+0	1.250381E+0	1.235859E+0	1.154131E+0	1.229958E+0	1.255954E+0	1.186560E+0	1.222678E+0	1.210631E+0	1.200684E+0	1.225872E+0	1.244867E+0	1.214375E+0	1.228463E+0	1.268905E+0	1.186206E+0	1.253879E+0	1.264906E+0	1.231634E+0	1.226596E+0	1.231189E+0	1.137765E+0	1.168627E+0	1.217853E+0	1.176860E+0	1.241456E+0	1.184317E+0	1.219764E+0	1.155377E+0	1.255922E+0	1.261914E+0	1.193385E+0	1.205909E+0	1.224159E+0	1.183322E+0	1.201537E+0	1.229912E+0	1.229256E+0	1.212511E+0	1.229436E+0	1.259534E+0	1.246469E+0	1.178797E+0	1.168708E+0	1.281897E+0	1.177635E+0	1.214759E+0	1.207539E+0	1.204776E+0	1.184689E+0	1.173138E+0	1.235135E+0	1.240382E+0	1.208118E+0	1.174393E+0	1.221477E+0	1.199113E+0	1.265230E+0	1.178060E+0	1.244945E+0	1.251033E+0	1.215118E+0	1.232418E+0	1.239042E+0	1.190905E+0	1.253886E+0	1.233749E+0	1.207876E+0	1.198514E+0	1.144062E+0	1.219197E+0	1.213092E+0	1.259901E+0	1.238579E+0	1.280866E+0	1.212208E+0	1.244497E+0	1.212005E+0	1.213543E+0	1.210602E+0	1.222267E+0	1.192862E+0	1.208164E+0	1.245083E+0	1.136557E+0	1.252067E+0	1.195491E+0	1.195390E+0	1.214250E+0	1.206651E+0	1.169524E+0	1.160965E+0	1.184450E+0	1.171424E+0	1.219110E+0	1.208510E+0	1.160649E+0	1.164647E+0	1.203540E+0	1.166743E+0	1.197721E+0	1.176391E+0	1.179765E+0	1.136318E+0	1.204658E+0	1.207552E+0	1.193562E+0	1.195820E+0	1.239321E+0	1.191827E+0	1.190578E+0	1.181937E+0	1.229980E+0	1.272979E+0	1.185288E+0	1.232981E+0	1.195289E+0	1.172214E+0	1.177101E+0	1.206233E+0	1.190771E+0	1.198614E+0	1.230501E+0	1.139606E+0	1.169537E+0
5.435270E+2	1.282755E+0	1.299792E+0	1.324251E+0	1.356129E+0	1.274705E+0	1.322335E+0	1.344730E+0	1.358881E+0	1.279922E+0	1.283799E+0	1.365559E+0	1.362220E+0	1.325237E+0	1.340463E+0	1.319443E+0	1.376385E+0	1.329256E+0	1.369422E+0	1.312096E+0	1.326353E+0	1.366918E+0	1.297770E+0	1.361792E+0	1.351904E+0	1.385165E+0	1.351701E+0	1.334627E+0	1.370274E+0	1.357936E+0	1.333121E+0	1.369921E+0	1.275954E+0	1.323231E+0	1.419159E+0	1.330146E+0	1.333728E+0	1.310496E+0	1.339858E+0	1.317095E+0	1.345747E+0	1.336494E+0	1.351258E+0	1.271838E+0	1.348191E+0	1.325582E+0	1.305504E+0	1.325868E+0	1.380581E+0	1.266479E+0	1.303307E+0	1.300605E+0	1.311667E+0	1.342461E+0	1.305112E+0	1.349955E+0	1.364395E+0	1.344371E+0	1.346354E+0	1.262749E+0	1.339382E+0	1.329401E+0	1.328613E+0	1.282195E+0	1.312320E+0	1.325379E+0	1.345349E+0	1.317131E+0	1.353488E+0	1.273261E+0	1.323411E+0	1.339886E+0	1.365521E+0	1.282387E+0	1.268267E+0	1.287589E+0	1.355813E+0	1.318685E+0	1.286583E+0	1.324499E+0	1.307832E+0	1.291751E+0	1.279176E+0	1.348114E+0	1.322166E+0	1.305739E+0	1.315867E+0	1.381891E+0	1.345610E+0	1.327586E+0	1.308758E+0	1.310799E+0	1.300430E+0	1.334113E+0	1.267521E+0	1.330318E+0	1.345547E+0	1.268754E+0	1.322094E+0	1.350588E+0	1.318907E+0	1.255469E+0	1.339436E+0	1.328458E+0	1.298627E+0	1.268627E+0	1.322590E+0	1.297417E+0	1.310594E+0	1.304765E+0	1.263973E+0	1.252682E+0	1.304796E+0	1.310323E+0	1.313368E+0	1.349571E+0	1.362144E+0	1.346943E+0	1.297198E+0	1.387459E+0	1.306507E+0	1.322334E+0	1.231092E+0	1.318822E+0	1.283869E+0	1.359325E+0	1.335062E+0	1.296652E+0	1.295971E+0	1.326125E+0	1.329912E+0	1.292048E+0	1.325929E+0	1.278437E+0	1.305356E+0	1.292039E+0	1.333396E+0	1.360222E+0	1.299807E+0	1.322944E+0	1.301960E+0	1.298595E+0	1.325691E+0	1.361855E+0	1.306258E+0	1.307999E+0	1.323670E+0	1.317806E+0	1.382045E+0	1.268381E+0	1.301130E+0	1.366282E+0	1.326560E+0	1.322802E+0	1.297642E+0	1.308938E+0	1.314481E+0	1.326107E+0	1.258559E+0	1.263757E+0	1.273968E+0	1.364257E+0	1.275277E+0	1.312921E+0	1.351512E+0	1.307951E+0	1.310603E+0	1.330881E+0	1.221655E+0	1.386170E+0	1.403047E+0	1.313667E+0
5.437640E+2	1.445551E+0	1.497906E+0	1.465676E+0	1.470809E+0	1.490041E+0	1.467299E+0	1.524786E+0	1.418460E+0	1.478646E+0	1.448293E+0	1.509997E+0	1.490126E+0	1.508283E+0	1.494884E+0	1.496508E+0	1.497585E+0	1.462931E+0	1.473696E+0	1.410026E+0	1.491973E+0	1.551286E+0	1.486276E+0	1.496637E+0	1.466518E+0	1.518556E+0	1.467827E+0	1.509687E+0	1.475011E+0	1.477027E+0	1.472087E+0	1.483322E+0	1.439012E+0	1.489315E+0	1.553851E+0	1.426826E+0	1.480235E+0	1.378764E+0	1.392599E+0	1.442709E+0	1.463342E+0	1.516890E+0	1.423226E+0	1.464250E+0	1.469296E+0	1.459874E+0	1.463051E+0	1.508695E+0	1.477901E+0	1.480050E+0	1.424138E+0	1.488255E+0	1.513930E+0	1.468254E+0	1.492241E+0	1.464620E+0	1.506450E+0	1.510685E+0	1.453574E+0	1.510557E+0	1.461256E+0	1.525694E+0	1.515220E+0	1.462491E+0	1.493129E+0	1.487817E+0	1.507613E+0	1.448209E+0	1.476263E+0	1.364071E+0	1.469309E+0	1.439165E+0	1.459136E+0	1.470702E+0	1.492495E+0	1.458283E+0	1.523273E+0	1.422783E+0	1.463403E+0	1.495759E+0	1.516944E+0	1.472878E+0	1.506424E+0	1.434446E+0	1.464893E+0	1.456887E+0	1.524919E+0	1.537964E+0	1.494818E+0	1.421409E+0	1.449639E+0	1.482226E+0	1.492428E+0	1.516177E+0	1.465163E+0	1.430262E+0	1.442489E+0	1.387987E+0	1.503796E+0	1.441569E+0	1.459979E+0	1.421393E+0	1.501966E+0	1.511408E+0	1.464356E+0	1.423742E+0	1.428633E+0	1.505148E+0	1.439549E+0	1.557557E+0	1.412886E+0	1.492911E+0	1.421934E+0	1.462123E+0	1.470030E+0	1.435087E+0	1.402414E+0	1.480668E+0	1.449841E+0	1.521512E+0	1.426092E+0	1.512808E+0	1.435490E+0	1.436621E+0	1.415829E+0	1.490418E+0	1.468595E+0	1.459336E+0	1.449872E+0	1.489156E+0	1.470928E+0	1.421004E+0	1.470045E+0	1.438447E+0	1.458317E+0	1.399925E+0	1.522409E+0	1.491175E+0	1.520969E+0	1.388367E+0	1.479324E+0	1.468532E+0	1.439671E+0	1.440487E+0	1.531821E+0	1.433677E+0	1.431519E+0	1.482400E+0	1.477900E+0	1.448863E+0	1.487731E+0	1.451588E+0	1.481322E+0	1.407327E+0	1.496262E+0	1.465460E+0	1.460704E+0	1.482798E+0	1.419540E+0	1.409464E+0	1.440990E+0	1.445606E+0	1.490276E+0	1.473710E+0	1.411527E+0	1.434683E+0	1.527048E+0	1.413021E+0	1.435316E+0	1.479969E+0	1.479575E+0	1.396923E+0
5.440170E+2	1.480913E+0	1.536484E+0	1.562359E+0	1.537902E+0	1.498030E+0	1.453074E+0	1.518496E+0	1.547944E+0	1.466258E+0	1.518042E+0	1.571925E+0	1.525826E+0	1.555959E+0	1.507732E+0	1.505358E+0	1.558564E+0	1.507606E+0	1.552196E+0	1.581634E+0	1.555840E+0	1.507908E+0	1.515007E+0	1.525379E+0	1.477891E+0	1.504573E+0	1.535316E+0	1.465343E+0	1.541874E+0	1.530065E+0	1.540174E+0	1.495580E+0	1.503292E+0	1.558519E+0	1.536426E+0	1.472146E+0	1.527675E+0	1.557169E+0	1.518065E+0	1.481993E+0	1.563417E+0	1.440314E+0	1.555040E+0	1.486307E+0	1.550435E+0	1.544419E+0	1.498522E+0	1.519410E+0	1.533889E+0	1.510155E+0	1.553943E+0	1.486517E+0	1.514074E+0	1.546312E+0	1.541609E+0	1.535133E+0	1.568896E+0	1.522931E+0	1.528428E+0	1.496684E+0	1.568866E+0	1.484727E+0	1.458897E+0	1.532582E+0	1.515403E+0	1.525843E+0	1.478670E+0	1.459164E+0	1.466767E+0	1.529011E+0	1.561394E+0	1.531753E+0	1.528946E+0	1.496611E+0	1.488201E+0	1.514820E+0	1.502779E+0	1.533343E+0	1.478481E+0	1.508723E+0	1.463251E+0	1.518975E+0	1.520576E+0	1.549052E+0	1.556541E+0	1.494626E+0	1.479758E+0	1.521638E+0	1.471016E+0	1.499495E+0	1.465531E+0	1.466611E+0	1.501075E+0	1.484207E+0	1.516428E+0	1.521380E+0	1.499355E+0	1.537949E+0	1.527419E+0	1.499355E+0	1.484795E+0	1.523232E+0	1.539079E+0	1.478952E+0	1.460728E+0	1.520066E+0	1.515421E+0	1.543773E+0	1.505731E+0	1.547353E+0	1.457140E+0	1.466462E+0	1.458441E+0	1.542592E+0	1.470611E+0	1.548332E+0	1.502785E+0	1.502258E+0	1.487431E+0	1.522455E+0	1.470780E+0	1.502933E+0	1.456670E+0	1.487417E+0	1.491915E+0	1.532438E+0	1.484712E+0	1.529123E+0	1.551091E+0	1.448663E+0	1.487742E+0	1.416959E+0	1.459380E+0	1.495871E+0	1.520872E+0	1.434895E+0	1.448275E+0	1.489626E+0	1.468921E+0	1.439125E+0	1.553126E+0	1.544498E+0	1.396686E+0	1.501972E+0	1.520101E+0	1.459451E+0	1.469896E+0	1.514637E+0	1.554785E+0	1.491019E+0	1.470800E+0	1.518811E+0	1.475622E+0	1.539007E+0	1.468473E+0	1.496662E+0	1.469901E+0	1.570553E+0	1.405980E+0	1.492548E+0	1.480331E+0	1.499970E+0	1.481869E+0	1.418328E+0	1.519634E+0	1.472488E+0	1.473814E+0	1.425301E+0	1.448133E+0	1.404420E+0	1.490411E+0	1.479296E+0
5.442700E+2	1.544671E+0	1.509152E+0	1.509427E+0	1.528275E+0	1.468773E+0	1.474231E+0	1.492639E+0	1.465934E+0	1.407914E+0	1.488143E+0	1.536741E+0	1.467573E+0	1.516888E+0	1.449985E+0	1.484678E+0	1.410774E+0	1.569795E+0	1.497167E+0	1.469713E+0	1.517213E+0	1.511029E+0	1.492189E+0	1.475297E+0	1.461570E+0	1.518094E+0	1.525915E+0	1.447038E+0	1.509705E+0	1.540010E+0	1.478612E+0	1.517812E+0	1.463660E+0	1.441553E+0	1.565987E+0	1.489115E+0	1.474547E+0	1.483374E+0	1.496742E+0	1.493911E+0	1.541505E+0	1.490903E+0	1.477942E+0	1.445802E+0	1.453153E+0	1.512794E+0	1.482380E+0	1.469350E+0	1.482591E+0	1.474157E+0	1.478972E+0	1.497907E+0	1.452696E+0	1.437072E+0	1.488235E+0	1.481960E+0	1.397762E+0	1.527943E+0	1.512196E+0	1.530675E+0	1.495648E+0	1.470710E+0	1.485187E+0	1.507743E+0	1.504467E+0	1.511221E+0	1.522741E+0	1.519402E+0	1.438054E+0	1.432426E+0	1.486430E+0	1.465332E+0	1.477848E+0	1.462106E+0	1.464793E+0	1.489772E+0	1.469023E+0	1.518789E+0	1.452395E+0	1.433925E+0	1.483741E+0	1.469019E+0	1.448930E+0	1.516276E+0	1.471193E+0	1.503795E+0	1.515732E+0	1.491041E+0	1.402256E+0	1.506146E+0	1.449971E+0	1.494762E+0	1.464430E+0	1.501832E+0	1.447561E+0	1.461590E+0	1.431833E+0	1.444412E+0	1.457434E+0	1.489956E+0	1.464112E+0	1.481079E+0	1.496521E+0	1.507116E+0	1.448291E+0	1.464379E+0	1.448818E+0	1.485591E+0	1.465855E+0	1.477517E+0	1.410959E+0	1.447407E+0	1.430974E+0	1.457380E+0	1.460888E+0	1.509463E+0	1.453454E+0	1.462782E+0	1.432288E+0	1.530928E+0	1.437707E+0	1.482521E+0	1.465202E+0	1.492857E+0	1.429634E+0	1.425840E+0	1.418392E+0	1.448415E+0	1.495173E+0	1.507665E+0	1.484412E+0	1.465496E+0	1.415079E+0	1.462934E+0	1.451661E+0	1.449738E+0	1.478723E+0	1.486550E+0	1.464094E+0	1.442072E+0	1.465121E+0	1.487003E+0	1.461723E+0	1.475739E+0	1.512872E+0	1.514019E+0	1.449285E+0	1.519946E+0	1.480932E+0	1.510706E+0	1.465805E+0	1.488628E+0	1.483693E+0	1.496162E+0	1.513711E+0	1.473736E+0	1.543172E+0	1.502116E+0	1.459182E+0	1.464623E+0	1.487363E+0	1.431522E+0	1.381585E+0	1.483245E+0	1.466471E+0	1.457028E+0	1.437127E+0	1.443590E+0	1.442358E+0	1.463266E+0	1.462639E+0	1.374899E+0
5.445340E+2	1.535629E+0	1.510513E+0	1.551907E+0	1.453004E+0	1.484186E+0	1.497688E+0	1.519905E+0	1.482567E+0	1.497970E+0	1.543604E+0	1.589553E+0	1.504023E+0	1.557963E+0	1.524575E+0	1.562698E+0	1.546830E+0	1.514618E+0	1.501635E+0	1.525313E+0	1.541726E+0	1.530076E+0	1.493507E+0	1.512306E+0	1.498578E+0	1.520575E+0	1.473372E+0	1.493033E+0	1.572699E+0	1.496414E+0	1.438936E+0	1.446086E+0	1.528718E+0	1.515801E+0	1.541166E+0	1.463076E+0	1.526902E+0	1.525523E+0	1.441636E+0	1.513544E+0	1.549427E+0	1.502754E+0	1.502748E+0	1.508017E+0	1.495960E+0	1.469024E+0	1.495165E+0	1.515073E+0	1.500258E+0	1.479121E+0	1.490280E+0	1.529274E+0	1.521298E+0	1.466832E+0	1.535375E+0	1.571779E+0	1.486713E+0	1.544332E+0	1.556396E+0	1.483420E+0	1.458170E+0	1.506138E+0	1.511324E+0	1.540183E+0	1.522911E+0	1.474364E+0	1.477151E+0	1.521587E+0	1.444827E+0	1.440309E+0	1.523468E+0	1.526665E+0	1.553608E+0	1.507287E+0	1.451531E+0	1.516101E+0	1.559554E+0	1.490077E+0	1.432132E+0	1.513963E+0	1.482722E+0	1.453516E+0	1.464679E+0	1.497390E+0	1.507407E+0	1.491777E+0	1.474666E+0	1.571439E+0	1.493051E+0	1.537303E+0	1.472604E+0	1.493734E+0	1.518390E+0	1.521721E+0	1.505882E+0	1.464592E+0	1.487749E+0	1.490729E+0	1.493772E+0	1.495407E+0	1.512045E+0	1.491015E+0	1.534833E+0	1.474776E+0	1.484039E+0	1.508321E+0	1.453052E+0	1.537713E+0	1.515703E+0	1.494858E+0	1.461785E+0	1.443733E+0	1.517530E+0	1.442831E+0	1.415050E+0	1.473095E+0	1.493728E+0	1.515912E+0	1.536575E+0	1.491484E+0	1.494417E+0	1.548010E+0	1.480812E+0	1.495429E+0	1.451205E+0	1.494976E+0	1.463441E+0	1.483599E+0	1.481067E+0	1.498370E+0	1.458618E+0	1.504396E+0	1.469640E+0	1.521755E+0	1.509210E+0	1.438587E+0	1.423760E+0	1.482717E+0	1.446468E+0	1.472442E+0	1.492426E+0	1.489632E+0	1.425604E+0	1.512603E+0	1.491740E+0	1.505163E+0	1.427026E+0	1.465320E+0	1.493867E+0	1.484219E+0	1.474843E+0	1.493511E+0	1.513696E+0	1.524708E+0	1.476217E+0	1.478366E+0	1.494402E+0	1.529703E+0	1.452263E+0	1.507147E+0	1.472242E+0	1.446101E+0	1.448160E+0	1.498910E+0	1.459608E+0	1.497903E+0	1.438539E+0	1.473583E+0	1.446969E+0	1.552274E+0	1.491841E+0	1.437140E+0
5.447560E+2	1.459302E+0	1.435984E+0	1.474936E+0	1.528875E+0	1.433782E+0	1.485236E+0	1.445234E+0	1.501535E+0	1.469643E+0	1.445557E+0	1.522929E+0	1.483058E+0	1.551781E+0	1.481715E+0	1.481020E+0	1.438651E+0	1.446665E+0	1.452781E+0	1.404970E+0	1.425305E+0	1.511138E+0	1.495042E+0	1.449089E+0	1.469319E+0	1.470563E+0	1.510272E+0	1.447282E+0	1.482963E+0	1.456985E+0	1.423535E+0	1.375041E+0	1.434726E+0	1.506408E+0	1.497749E+0	1.428299E+0	1.440341E+0	1.456381E+0	1.441619E+0	1.426793E+0	1.464231E+0	1.425749E+0	1.456602E+0	1.463909E+0	1.445451E+0	1.373694E+0	1.422442E+0	1.469008E+0	1.481350E+0	1.548448E+0	1.477404E+0	1.489016E+0	1.533692E+0	1.429047E+0	1.450727E+0	1.555582E+0	1.486784E+0	1.490555E+0	1.447226E+0	1.422020E+0	1.491885E+0	1.512943E+0	1.468780E+0	1.537972E+0	1.510413E+0	1.488977E+0	1.421995E+0	1.497805E+0	1.408376E+0	1.460383E+0	1.442414E+0	1.418623E+0	1.481288E+0	1.452962E+0	1.432500E+0	1.448153E+0	1.446433E+0	1.509344E+0	1.454030E+0	1.467409E+0	1.450749E+0	1.472835E+0	1.463545E+0	1.453422E+0	1.417523E+0	1.426357E+0	1.478794E+0	1.475666E+0	1.490105E+0	1.458520E+0	1.451234E+0	1.471450E+0	1.456859E+0	1.507016E+0	1.456034E+0	1.441199E+0	1.407627E+0	1.482879E+0	1.401000E+0	1.479819E+0	1.458641E+0	1.451697E+0	1.443651E+0	1.444153E+0	1.432108E+0	1.473568E+0	1.442095E+0	1.429797E+0	1.478300E+0	1.500053E+0	1.478872E+0	1.407572E+0	1.418954E+0	1.474018E+0	1.471149E+0	1.471655E+0	1.424769E+0	1.417832E+0	1.357232E+0	1.492636E+0	1.416881E+0	1.501244E+0	1.447492E+0	1.441102E+0	1.389063E+0	1.466119E+0	1.419319E+0	1.423983E+0	1.425272E+0	1.469884E+0	1.450480E+0	1.450514E+0	1.408178E+0	1.404279E+0	1.493442E+0	1.439037E+0	1.437347E+0	1.414465E+0	1.426285E+0	1.444676E+0	1.434917E+0	1.420368E+0	1.390001E+0	1.450678E+0	1.446011E+0	1.447583E+0	1.416072E+0	1.438738E+0	1.426832E+0	1.409983E+0	1.447258E+0	1.455490E+0	1.485800E+0	1.432009E+0	1.427928E+0	1.398210E+0	1.407939E+0	1.411490E+0	1.422697E+0	1.461593E+0	1.374635E+0	1.456971E+0	1.390051E+0	1.491555E+0	1.469502E+0	1.441388E+0	1.382243E+0	1.469093E+0	1.430989E+0	1.391520E+0	1.398441E+0	1.449526E+0
5.450150E+2	1.370032E+0	1.377728E+0	1.324082E+0	1.357042E+0	1.384749E+0	1.324131E+0	1.364387E+0	1.380303E+0	1.350265E+0	1.381590E+0	1.347737E+0	1.361668E+0	1.379764E+0	1.316158E+0	1.423535E+0	1.376732E+0	1.415647E+0	1.356014E+0	1.372925E+0	1.340259E+0	1.359813E+0	1.369277E+0	1.331148E+0	1.298028E+0	1.383754E+0	1.398340E+0	1.298689E+0	1.396175E+0	1.386276E+0	1.360822E+0	1.309045E+0	1.340850E+0	1.364432E+0	1.367821E+0	1.329119E+0	1.374146E+0	1.365914E+0	1.322080E+0	1.317771E+0	1.366394E+0	1.357991E+0	1.339306E+0	1.335597E+0	1.349631E+0	1.344573E+0	1.332948E+0	1.370621E+0	1.385029E+0	1.319322E+0	1.318025E+0	1.391153E+0	1.421220E+0	1.370176E+0	1.394546E+0	1.432771E+0	1.358018E+0	1.429065E+0	1.372027E+0	1.343706E+0	1.375801E+0	1.400926E+0	1.346420E+0	1.354812E+0	1.395797E+0	1.400178E+0	1.326362E+0	1.389681E+0	1.304765E+0	1.339364E+0	1.319467E+0	1.368392E+0	1.394489E+0	1.361513E+0	1.300912E+0	1.295001E+0	1.351793E+0	1.319833E+0	1.275950E+0	1.389209E+0	1.377177E+0	1.408763E+0	1.321087E+0	1.342162E+0	1.344966E+0	1.346137E+0	1.297419E+0	1.349417E+0	1.353603E+0	1.428476E+0	1.342505E+0	1.379372E+0	1.349495E+0	1.344092E+0	1.291193E+0	1.318180E+0	1.365577E+0	1.356611E+0	1.349142E+0	1.366963E+0	1.351427E+0	1.344079E+0	1.360329E+0	1.360437E+0	1.436341E+0	1.350600E+0	1.340059E+0	1.378273E+0	1.378834E+0	1.352259E+0	1.289828E+0	1.343465E+0	1.337365E+0	1.324729E+0	1.280873E+0	1.361560E+0	1.358883E+0	1.336494E+0	1.328419E+0	1.377711E+0	1.372665E+0	1.388411E+0	1.372594E+0	1.397093E+0	1.383178E+0	1.390997E+0	1.326943E+0	1.358917E+0	1.362172E+0	1.360969E+0	1.371984E+0	1.363186E+0	1.362449E+0	1.301008E+0	1.355271E+0	1.362513E+0	1.336552E+0	1.389641E+0	1.297620E+0	1.302261E+0	1.279482E+0	1.375678E+0	1.295922E+0	1.404180E+0	1.329224E+0	1.347937E+0	1.316854E+0	1.376718E+0	1.345525E+0	1.350796E+0	1.352404E+0	1.308629E+0	1.417966E+0	1.284285E+0	1.339063E+0	1.365509E+0	1.305062E+0	1.381978E+0	1.317233E+0	1.373101E+0	1.394902E+0	1.392114E+0	1.255649E+0	1.346750E+0	1.327212E+0	1.311139E+0	1.323927E+0	1.308221E+0	1.368344E+0	1.360071E+0	1.425065E+0	1.324819E+0
5.452580E+2	1.287365E+0	1.271299E+0	1.320658E+0	1.226576E+0	1.257215E+0	1.272538E+0	1.285637E+0	1.236044E+0	1.282783E+0	1.256029E+0	1.357550E+0	1.320889E+0	1.339085E+0	1.321328E+0	1.302278E+0	1.306686E+0	1.278962E+0	1.293098E+0	1.272195E+0	1.306482E+0	1.373395E+0	1.258237E+0	1.295278E+0	1.214489E+0	1.333070E+0	1.335018E+0	1.308397E+0	1.288730E+0	1.295505E+0	1.307057E+0	1.285269E+0	1.240594E+0	1.315171E+0	1.279639E+0	1.296386E+0	1.283027E+0	1.296701E+0	1.278800E+0	1.306332E+0	1.290420E+0	1.260401E+0	1.267953E+0	1.245649E+0	1.265937E+0	1.257294E+0	1.229295E+0	1.299839E+0	1.326295E+0	1.239678E+0	1.228166E+0	1.243203E+0	1.292974E+0	1.347687E+0	1.341410E+0	1.295803E+0	1.295100E+0	1.309381E+0	1.352031E+0	1.319985E+0	1.353286E+0	1.321913E+0	1.330047E+0	1.296361E+0	1.278398E+0	1.302873E+0	1.376195E+0	1.239809E+0	1.270063E+0	1.255895E+0	1.289751E+0	1.288089E+0	1.292136E+0	1.302040E+0	1.255867E+0	1.272576E+0	1.250215E+0	1.312880E+0	1.225645E+0	1.298883E+0	1.277446E+0	1.254461E+0	1.256933E+0	1.259342E+0	1.340307E+0	1.275387E+0	1.249235E+0	1.320188E+0	1.307352E+0	1.320891E+0	1.307192E+0	1.302114E+0	1.325339E+0	1.280498E+0	1.312914E+0	1.269368E+0	1.281159E+0	1.279363E+0	1.270279E+0	1.289680E+0	1.292156E+0	1.295870E+0	1.277990E+0	1.310921E+0	1.302448E+0	1.227510E+0	1.263607E+0	1.311563E+0	1.363111E+0	1.263717E+0	1.294920E+0	1.285348E+0	1.265219E+0	1.339490E+0	1.256045E+0	1.266649E+0	1.312797E+0	1.318536E+0	1.279078E+0	1.315040E+0	1.337490E+0	1.304302E+0	1.417370E+0	1.295935E+0	1.231690E+0	1.340014E+0	1.266474E+0	1.245351E+0	1.279016E+0	1.242949E+0	1.291475E+0	1.251077E+0	1.307769E+0	1.271088E+0	1.315667E+0	1.223183E+0	1.280395E+0	1.274050E+0	1.262010E+0	1.214595E+0	1.313129E+0	1.293906E+0	1.297252E+0	1.305986E+0	1.263823E+0	1.345144E+0	1.258034E+0	1.261992E+0	1.335978E+0	1.314769E+0	1.270690E+0	1.320020E+0	1.311617E+0	1.292341E+0	1.235212E+0	1.285264E+0	1.271968E+0	1.297385E+0	1.289628E+0	1.304773E+0	1.337258E+0	1.314878E+0	1.226637E+0	1.304713E+0	1.281421E+0	1.294383E+0	1.281738E+0	1.367360E+0	1.287953E+0	1.302208E+0	1.220577E+0	1.365768E+0
5.455290E+2	1.271361E+0	1.237685E+0	1.276218E+0	1.200972E+0	1.268952E+0	1.269220E+0	1.264984E+0	1.238431E+0	1.235841E+0	1.206356E+0	1.264893E+0	1.216252E+0	1.264364E+0	1.220330E+0	1.301982E+0	1.285206E+0	1.223626E+0	1.262340E+0	1.262585E+0	1.217821E+0	1.321494E+0	1.231897E+0	1.248220E+0	1.220604E+0	1.250436E+0	1.217379E+0	1.231404E+0	1.284009E+0	1.224395E+0	1.248956E+0	1.219961E+0	1.226146E+0	1.219155E+0	1.237164E+0	1.276420E+0	1.238887E+0	1.213863E+0	1.232308E+0	1.191739E+0	1.238966E+0	1.284716E+0	1.216399E+0	1.247089E+0	1.245723E+0	1.230346E+0	1.238303E+0	1.243975E+0	1.280240E+0	1.236813E+0	1.213747E+0	1.239511E+0	1.245490E+0	1.245805E+0	1.242167E+0	1.226171E+0	1.250612E+0	1.288060E+0	1.311762E+0	1.195496E+0	1.284336E+0	1.200846E+0	1.273477E+0	1.239667E+0	1.262033E+0	1.253289E+0	1.278774E+0	1.256770E+0	1.168501E+0	1.186321E+0	1.205381E+0	1.192462E+0	1.240154E+0	1.231538E+0	1.243250E+0	1.225641E+0	1.200886E+0	1.257023E+0	1.186480E+0	1.260387E+0	1.304377E+0	1.235161E+0	1.238580E+0	1.261016E+0	1.236535E+0	1.219147E+0	1.205079E+0	1.213454E+0	1.238430E+0	1.230962E+0	1.232434E+0	1.221171E+0	1.283569E+0	1.267792E+0	1.284579E+0	1.273673E+0	1.188827E+0	1.230358E+0	1.231540E+0	1.264603E+0	1.212200E+0	1.250721E+0	1.258903E+0	1.246977E+0	1.256825E+0	1.181722E+0	1.221262E+0	1.272303E+0	1.316975E+0	1.236897E+0	1.224480E+0	1.229714E+0	1.231682E+0	1.213932E+0	1.174881E+0	1.262449E+0	1.282147E+0	1.232127E+0	1.230030E+0	1.248831E+0	1.280354E+0	1.321439E+0	1.238547E+0	1.234686E+0	1.198341E+0	1.263049E+0	1.183288E+0	1.236357E+0	1.216966E+0	1.215743E+0	1.242501E+0	1.248477E+0	1.184531E+0	1.209898E+0	1.248877E+0	1.184549E+0	1.246771E+0	1.305820E+0	1.188753E+0	1.235984E+0	1.194875E+0	1.288013E+0	1.158579E+0	1.225205E+0	1.201266E+0	1.267150E+0	1.213078E+0	1.255602E+0	1.313644E+0	1.226265E+0	1.221926E+0	1.274988E+0	1.226426E+0	1.165514E+0	1.250865E+0	1.242788E+0	1.252412E+0	1.260423E+0	1.161220E+0	1.214578E+0	1.194058E+0	1.253728E+0	1.176182E+0	1.260189E+0	1.168448E+0	1.253096E+0	1.247315E+0	1.257359E+0	1.233286E+0	1.204731E+0	1.340843E+0	1.175895E+0
5.457720E+2	1.165949E+0	1.145234E+0	1.153386E+0	1.167499E+0	1.143525E+0	1.110612E+0	1.131758E+0	1.156121E+0	1.161465E+0	1.142883E+0	1.160849E+0	1.144043E+0	1.149342E+0	1.148290E+0	1.148479E+0	1.189185E+0	1.174332E+0	1.157485E+0	1.153133E+0	1.172163E+0	1.225746E+0	1.156320E+0	1.145331E+0	1.134093E+0	1.199914E+0	1.125451E+0	1.147814E+0	1.180593E+0	1.170561E+0	1.131094E+0	1.145101E+0	1.132186E+0	1.104545E+0	1.127691E+0	1.162231E+0	1.150205E+0	1.115372E+0	1.122082E+0	1.138789E+0	1.168831E+0	1.128551E+0	1.174075E+0	1.164344E+0	1.112099E+0	1.172133E+0	1.129259E+0	1.142278E+0	1.143781E+0	1.160581E+0	1.113784E+0	1.183301E+0	1.147174E+0	1.155281E+0	1.151470E+0	1.156938E+0	1.161613E+0	1.236581E+0	1.151947E+0	1.168689E+0	1.139723E+0	1.069590E+0	1.142957E+0	1.097078E+0	1.154010E+0	1.169252E+0	1.132529E+0	1.085391E+0	1.096630E+0	1.104780E+0	1.174919E+0	1.094864E+0	1.145967E+0	1.153852E+0	1.110267E+0	1.138724E+0	1.120382E+0	1.127594E+0	1.096035E+0	1.141504E+0	1.082406E+0	1.114992E+0	1.095842E+0	1.160567E+0	1.119047E+0	1.151442E+0	1.143567E+0	1.154079E+0	1.096775E+0	1.115609E+0	1.132488E+0	1.157004E+0	1.115774E+0	1.162437E+0	1.093549E+0	1.160318E+0	1.123558E+0	1.131260E+0	1.130662E+0	1.117675E+0	1.164928E+0	1.122041E+0	1.158429E+0	1.111442E+0	1.121494E+0	1.124489E+0	1.092925E+0	1.145319E+0	1.217059E+0	1.142400E+0	1.066694E+0	1.112073E+0	1.159010E+0	1.151257E+0	1.125012E+0	1.157203E+0	1.140694E+0	1.131494E+0	1.121218E+0	1.140946E+0	1.132640E+0	1.163347E+0	1.150249E+0	1.161381E+0	1.096706E+0	1.169301E+0	1.190772E+0	1.130347E+0	1.108034E+0	1.158949E+0	1.158179E+0	1.110614E+0	1.127381E+0	1.089172E+0	1.114726E+0	1.101733E+0	1.139873E+0	1.118225E+0	1.130532E+0	1.168934E+0	1.144578E+0	1.129830E+0	1.136163E+0	1.086619E+0	1.189988E+0	1.166695E+0	1.129521E+0	1.173662E+0	1.137091E+0	1.122540E+0	1.122327E+0	1.155063E+0	1.139504E+0	1.137033E+0	1.114044E+0	1.167542E+0	1.190939E+0	1.121936E+0	1.098362E+0	1.095459E+0	1.142445E+0	1.139240E+0	1.146379E+0	1.165783E+0	1.173458E+0	1.140057E+0	1.136265E+0	1.215386E+0	1.125080E+0	1.128898E+0	1.091583E+0	1.077413E+0
5.460000E+2	1.119821E+0	1.111390E+0	1.198987E+0	1.189054E+0	1.171565E+0	1.169777E+0	1.149348E+0	1.119323E+0	1.134975E+0	1.079330E+0	1.150219E+0	1.169315E+0	1.190468E+0	1.119661E+0	1.158896E+0	1.092413E+0	1.187026E+0	1.156567E+0	1.097869E+0	1.158128E+0	1.158494E+0	1.144680E+0	1.130584E+0	1.147890E+0	1.163935E+0	1.125828E+0	1.140248E+0	1.173844E+0	1.145657E+0	1.137681E+0	1.157266E+0	1.102770E+0	1.119338E+0	1.140768E+0	1.125209E+0	1.104443E+0	1.155957E+0	1.219451E+0	1.092043E+0	1.177281E+0	1.152487E+0	1.183009E+0	1.163884E+0	1.195513E+0	1.166184E+0	1.164590E+0	1.172916E+0	1.107927E+0	1.139255E+0	1.118183E+0	1.157849E+0	1.178702E+0	1.117086E+0	1.151171E+0	1.118409E+0	1.236494E+0	1.196119E+0	1.149022E+0	1.154983E+0	1.141972E+0	1.204005E+0	1.129418E+0	1.150584E+0	1.152363E+0	1.182270E+0	1.152018E+0	1.131702E+0	1.095953E+0	1.115346E+0	1.154917E+0	1.131122E+0	1.150707E+0	1.127800E+0	1.131113E+0	1.121538E+0	1.209102E+0	1.181079E+0	1.192498E+0	1.154522E+0	1.132627E+0	1.111603E+0	1.140617E+0	1.160815E+0	1.150765E+0	1.149460E+0	1.142228E+0	1.209066E+0	1.134883E+0	1.132022E+0	1.150131E+0	1.122061E+0	1.187754E+0	1.132858E+0	1.155328E+0	1.119380E+0	1.144955E+0	1.217363E+0	1.143630E+0	1.131702E+0	1.163165E+0	1.100435E+0	1.156984E+0	1.149356E+0	1.167977E+0	1.112494E+0	1.121720E+0	1.173317E+0	1.145510E+0	1.169403E+0	1.110536E+0	1.158712E+0	1.165260E+0	1.149648E+0	1.108874E+0	1.108756E+0	1.151965E+0	1.170601E+0	1.101600E+0	1.181210E+0	1.134000E+0	1.173042E+0	1.138123E+0	1.118628E+0	1.114407E+0	1.134091E+0	1.121930E+0	1.095159E+0	1.200113E+0	1.162628E+0	1.123081E+0	1.163589E+0	1.148868E+0	1.115014E+0	1.130937E+0	1.166516E+0	1.160152E+0	1.166130E+0	1.127112E+0	1.152753E+0	1.131688E+0	1.164025E+0	1.111964E+0	1.171554E+0	1.163961E+0	1.162007E+0	1.082716E+0	1.108389E+0	1.157125E+0	1.141857E+0	1.125229E+0	1.101601E+0	1.153111E+0	1.118828E+0	1.114952E+0	1.157659E+0	1.141803E+0	1.150889E+0	1.130971E+0	1.200208E+0	1.123009E+0	1.192586E+0	1.080611E+0	1.180287E+0	1.215971E+0	1.110501E+0	1.147012E+0	1.142879E+0	1.145079E+0	1.151433E+0	1.130284E+0	1.102319E+0
5.467600E+2	1.129537E+0	1.217634E+0	1.215558E+0	1.175717E+0	1.194079E+0	1.151825E+0	1.140351E+0	1.206464E+0	1.133005E+0	1.153468E+0	1.170897E+0	1.167585E+0	1.149311E+0	1.167478E+0	1.182577E+0	1.154637E+0	1.136449E+0	1.153911E+0	1.175584E+0	1.119453E+0	1.132725E+0	1.142854E+0	1.169263E+0	1.174103E+0	1.268766E+0	1.186859E+0	1.159555E+0	1.193856E+0	1.222799E+0	1.179671E+0	1.178042E+0	1.141396E+0	1.193883E+0	1.197743E+0	1.162512E+0	1.137676E+0	1.180997E+0	1.177971E+0	1.174675E+0	1.182505E+0	1.182611E+0	1.168295E+0	1.174052E+0	1.178894E+0	1.160613E+0	1.196111E+0	1.166572E+0	1.138795E+0	1.171690E+0	1.156813E+0	1.211868E+0	1.128021E+0	1.153250E+0	1.155041E+0	1.217156E+0	1.179910E+0	1.192963E+0	1.192136E+0	1.175661E+0	1.199180E+0	1.217029E+0	1.194110E+0	1.172499E+0	1.176257E+0	1.173629E+0	1.188700E+0	1.189549E+0	1.163822E+0	1.128358E+0	1.179904E+0	1.190837E+0	1.181058E+0	1.122687E+0	1.169016E+0	1.139680E+0	1.211001E+0	1.209923E+0	1.178239E+0	1.170329E+0	1.145702E+0	1.154162E+0	1.128248E+0	1.143057E+0	1.156878E+0	1.183004E+0	1.175770E+0	1.166657E+0	1.173677E+0	1.213080E+0	1.171853E+0	1.158150E+0	1.171151E+0	1.143679E+0	1.158546E+0	1.160744E+0	1.152752E+0	1.108476E+0	1.145276E+0	1.211088E+0	1.186582E+0	1.147687E+0	1.161665E+0	1.139221E+0	1.161692E+0	1.187687E+0	1.103969E+0	1.143307E+0	1.199403E+0	1.148853E+0	1.170901E+0	1.153510E+0	1.159583E+0	1.144388E+0	1.104527E+0	1.161382E+0	1.109418E+0	1.156331E+0	1.127169E+0	1.182976E+0	1.173505E+0	1.156537E+0	1.163197E+0	1.132834E+0	1.150717E+0	1.264393E+0	1.135573E+0	1.163117E+0	1.147693E+0	1.163393E+0	1.144426E+0	1.131691E+0	1.205630E+0	1.145238E+0	1.131834E+0	1.195641E+0	1.164845E+0	1.180417E+0	1.181087E+0	1.162433E+0	1.151925E+0	1.163197E+0	1.110574E+0	1.183695E+0	1.138425E+0	1.189218E+0	1.174206E+0	1.115719E+0	1.185615E+0	1.140701E+0	1.166446E+0	1.150301E+0	1.155107E+0	1.144202E+0	1.164463E+0	1.147323E+0	1.131576E+0	1.151576E+0	1.183412E+0	1.167305E+0	1.100742E+0	1.184150E+0	1.131840E+0	1.139378E+0	1.141098E+0	1.199005E+0	1.120144E+0	1.180068E+0	1.113437E+0	1.175945E+0	1.094475E+0	1.135168E+0
5.475180E+2	1.206904E+0	1.229848E+0	1.264928E+0	1.291241E+0	1.178030E+0	1.273337E+0	1.239574E+0	1.202907E+0	1.257025E+0	1.225216E+0	1.228888E+0	1.268630E+0	1.250575E+0	1.298939E+0	1.250338E+0	1.236180E+0	1.221593E+0	1.268936E+0	1.258753E+0	1.254795E+0	1.210451E+0	1.235202E+0	1.249585E+0	1.312880E+0	1.212234E+0	1.237519E+0	1.272623E+0	1.263320E+0	1.255462E+0	1.264383E+0	1.259678E+0	1.235932E+0	1.254434E+0	1.255493E+0	1.284375E+0	1.241833E+0	1.241184E+0	1.229452E+0	1.206964E+0	1.274114E+0	1.212590E+0	1.214776E+0	1.253214E+0	1.238676E+0	1.251427E+0	1.280169E+0	1.234145E+0	1.270163E+0	1.264710E+0	1.203900E+0	1.248582E+0	1.269660E+0	1.277387E+0	1.224922E+0	1.293181E+0	1.225864E+0	1.236373E+0	1.315594E+0	1.218696E+0	1.225620E+0	1.252768E+0	1.242049E+0	1.239836E+0	1.272146E+0	1.296641E+0	1.246844E+0	1.196773E+0	1.203139E+0	1.244057E+0	1.276935E+0	1.224520E+0	1.192222E+0	1.266796E+0	1.206151E+0	1.186891E+0	1.235573E+0	1.197575E+0	1.237465E+0	1.205749E+0	1.272623E+0	1.277100E+0	1.227661E+0	1.223389E+0	1.250934E+0	1.170831E+0	1.273572E+0	1.283045E+0	1.232151E+0	1.213955E+0	1.233056E+0	1.260404E+0	1.220668E+0	1.351967E+0	1.222192E+0	1.172066E+0	1.258897E+0	1.240355E+0	1.188313E+0	1.224491E+0	1.216367E+0	1.218755E+0	1.239317E+0	1.271567E+0	1.285527E+0	1.240164E+0	1.214422E+0	1.250790E+0	1.272669E+0	1.254347E+0	1.225500E+0	1.233741E+0	1.298321E+0	1.235676E+0	1.168828E+0	1.279112E+0	1.227847E+0	1.260770E+0	1.250209E+0	1.204682E+0	1.271679E+0	1.301140E+0	1.254776E+0	1.246482E+0	1.274806E+0	1.302017E+0	1.245967E+0	1.143862E+0	1.273215E+0	1.297949E+0	1.250525E+0	1.249098E+0	1.207716E+0	1.247979E+0	1.265206E+0	1.204333E+0	1.251080E+0	1.270482E+0	1.242581E+0	1.279482E+0	1.270366E+0	1.206208E+0	1.199704E+0	1.290153E+0	1.287259E+0	1.241798E+0	1.197944E+0	1.246033E+0	1.282355E+0	1.246417E+0	1.214239E+0	1.196641E+0	1.260157E+0	1.205218E+0	1.293574E+0	1.228625E+0	1.277441E+0	1.299056E+0	1.247987E+0	1.229406E+0	1.259054E+0	1.257376E+0	1.148092E+0	1.268250E+0	1.203257E+0	1.256155E+0	1.196701E+0	1.215983E+0	1.217051E+0	1.262940E+0	1.165142E+0	1.252804E+0
5.482550E+2	1.276081E+0	1.300927E+0	1.348095E+0	1.285216E+0	1.239891E+0	1.299770E+0	1.324102E+0	1.273396E+0	1.315954E+0	1.272282E+0	1.272255E+0	1.362485E+0	1.291835E+0	1.250041E+0	1.324143E+0	1.271484E+0	1.331823E+0	1.310474E+0	1.305006E+0	1.327847E+0	1.324950E+0	1.272277E+0	1.315555E+0	1.237611E+0	1.311327E+0	1.265841E+0	1.289651E+0	1.327024E+0	1.351719E+0	1.295402E+0	1.271345E+0	1.328171E+0	1.348635E+0	1.302619E+0	1.313877E+0	1.295457E+0	1.292065E+0	1.282959E+0	1.291628E+0	1.308906E+0	1.337839E+0	1.391115E+0	1.321179E+0	1.279252E+0	1.321197E+0	1.248166E+0	1.298032E+0	1.274400E+0	1.240423E+0	1.316062E+0	1.300067E+0	1.296458E+0	1.328652E+0	1.284319E+0	1.301479E+0	1.350039E+0	1.254367E+0	1.268390E+0	1.273811E+0	1.330168E+0	1.343350E+0	1.268839E+0	1.317589E+0	1.321687E+0	1.337318E+0	1.261723E+0	1.250319E+0	1.203577E+0	1.328579E+0	1.320943E+0	1.283590E+0	1.290272E+0	1.327679E+0	1.299687E+0	1.256166E+0	1.325129E+0	1.330188E+0	1.342256E+0	1.310970E+0	1.309763E+0	1.262353E+0	1.277648E+0	1.243580E+0	1.317264E+0	1.293887E+0	1.261439E+0	1.305845E+0	1.281668E+0	1.277380E+0	1.242760E+0	1.269631E+0	1.276972E+0	1.340150E+0	1.282550E+0	1.277001E+0	1.354833E+0	1.324684E+0	1.221591E+0	1.321983E+0	1.297687E+0	1.254245E+0	1.322581E+0	1.279141E+0	1.381252E+0	1.303871E+0	1.278050E+0	1.297853E+0	1.317561E+0	1.371276E+0	1.240186E+0	1.316952E+0	1.317102E+0	1.307069E+0	1.274908E+0	1.290106E+0	1.294024E+0	1.276119E+0	1.180854E+0	1.340810E+0	1.340336E+0	1.330256E+0	1.278288E+0	1.309251E+0	1.279545E+0	1.306055E+0	1.298038E+0	1.269467E+0	1.271698E+0	1.305506E+0	1.300483E+0	1.292598E+0	1.310219E+0	1.304428E+0	1.305831E+0	1.258083E+0	1.320220E+0	1.281930E+0	1.284994E+0	1.274187E+0	1.305353E+0	1.299488E+0	1.253508E+0	1.285372E+0	1.324783E+0	1.293473E+0	1.284622E+0	1.351613E+0	1.319004E+0	1.332472E+0	1.290413E+0	1.275564E+0	1.316047E+0	1.262685E+0	1.287098E+0	1.239500E+0	1.295647E+0	1.276470E+0	1.239671E+0	1.311093E+0	1.309278E+0	1.287737E+0	1.275223E+0	1.310806E+0	1.260016E+0	1.265751E+0	1.277113E+0	1.242944E+0	1.351617E+0	1.376389E+0	1.300118E+0	1.257947E+0
5.490160E+2	1.284461E+0	1.323477E+0	1.274161E+0	1.319867E+0	1.310598E+0	1.328747E+0	1.336192E+0	1.312282E+0	1.324591E+0	1.300412E+0	1.327852E+0	1.349165E+0	1.358888E+0	1.326192E+0	1.300157E+0	1.315039E+0	1.311350E+0	1.336206E+0	1.326474E+0	1.322761E+0	1.327584E+0	1.326053E+0	1.298414E+0	1.338729E+0	1.316964E+0	1.336832E+0	1.382081E+0	1.400638E+0	1.332933E+0	1.293208E+0	1.263744E+0	1.317253E+0	1.263396E+0	1.346955E+0	1.262509E+0	1.292822E+0	1.316747E+0	1.329053E+0	1.349835E+0	1.344819E+0	1.324064E+0	1.253453E+0	1.332992E+0	1.296207E+0	1.349084E+0	1.315530E+0	1.263539E+0	1.315628E+0	1.298613E+0	1.316170E+0	1.331656E+0	1.345499E+0	1.310392E+0	1.322066E+0	1.349600E+0	1.378859E+0	1.324713E+0	1.370330E+0	1.296708E+0	1.297941E+0	1.341151E+0	1.324004E+0	1.367040E+0	1.337387E+0	1.381324E+0	1.336985E+0	1.387148E+0	1.357116E+0	1.331495E+0	1.285277E+0	1.333055E+0	1.273701E+0	1.259583E+0	1.319499E+0	1.278970E+0	1.286678E+0	1.293070E+0	1.297094E+0	1.323858E+0	1.329371E+0	1.321356E+0	1.345901E+0	1.309814E+0	1.289175E+0	1.300384E+0	1.310629E+0	1.301966E+0	1.347105E+0	1.347903E+0	1.315426E+0	1.337272E+0	1.313085E+0	1.357239E+0	1.335852E+0	1.333870E+0	1.276479E+0	1.290626E+0	1.273002E+0	1.347179E+0	1.296538E+0	1.295289E+0	1.323262E+0	1.291930E+0	1.294304E+0	1.288547E+0	1.268336E+0	1.318278E+0	1.329627E+0	1.312366E+0	1.259643E+0	1.247084E+0	1.284355E+0	1.354208E+0	1.340371E+0	1.354268E+0	1.344275E+0	1.311218E+0	1.281637E+0	1.337447E+0	1.332219E+0	1.344624E+0	1.305296E+0	1.284257E+0	1.287909E+0	1.330876E+0	1.268353E+0	1.291755E+0	1.308157E+0	1.389769E+0	1.296314E+0	1.275256E+0	1.270020E+0	1.281407E+0	1.326525E+0	1.308012E+0	1.347410E+0	1.307540E+0	1.257262E+0	1.293091E+0	1.261890E+0	1.359497E+0	1.277888E+0	1.291564E+0	1.291798E+0	1.319498E+0	1.319532E+0	1.318280E+0	1.343177E+0	1.343010E+0	1.292595E+0	1.321819E+0	1.323698E+0	1.305427E+0	1.345501E+0	1.307253E+0	1.347569E+0	1.343465E+0	1.317501E+0	1.259125E+0	1.293134E+0	1.312834E+0	1.255240E+0	1.354757E+0	1.371703E+0	1.343223E+0	1.311878E+0	1.340095E+0	1.283120E+0	1.348345E+0	1.289461E+0	1.397346E+0
5.497680E+2	1.325919E+0	1.254274E+0	1.221732E+0	1.251508E+0	1.247073E+0	1.328351E+0	1.283467E+0	1.300832E+0	1.283926E+0	1.285071E+0	1.264447E+0	1.302367E+0	1.345332E+0	1.243629E+0	1.267671E+0	1.329524E+0	1.315262E+0	1.298680E+0	1.313515E+0	1.274732E+0	1.312586E+0	1.234198E+0	1.268278E+0	1.282602E+0	1.309727E+0	1.290519E+0	1.238280E+0	1.280582E+0	1.278370E+0	1.267167E+0	1.246461E+0	1.234936E+0	1.264979E+0	1.266217E+0	1.240267E+0	1.258861E+0	1.255335E+0	1.263361E+0	1.243031E+0	1.279362E+0	1.306014E+0	1.269901E+0	1.219407E+0	1.297644E+0	1.305143E+0	1.211646E+0	1.252693E+0	1.308187E+0	1.275288E+0	1.250958E+0	1.277192E+0	1.276251E+0	1.310331E+0	1.311069E+0	1.224443E+0	1.290340E+0	1.272324E+0	1.242530E+0	1.266774E+0	1.294427E+0	1.275137E+0	1.247138E+0	1.271747E+0	1.318085E+0	1.296514E+0	1.283974E+0	1.219651E+0	1.235816E+0	1.282269E+0	1.286291E+0	1.249242E+0	1.255318E+0	1.254883E+0	1.246626E+0	1.244231E+0	1.296756E+0	1.309231E+0	1.266391E+0	1.306778E+0	1.330479E+0	1.282306E+0	1.245753E+0	1.284867E+0	1.287746E+0	1.216455E+0	1.303933E+0	1.324718E+0	1.297813E+0	1.261794E+0	1.265231E+0	1.260309E+0	1.250920E+0	1.300484E+0	1.299189E+0	1.265453E+0	1.179708E+0	1.251632E+0	1.272077E+0	1.278274E+0	1.259662E+0	1.268289E+0	1.255587E+0	1.227660E+0	1.316312E+0	1.190674E+0	1.186119E+0	1.299711E+0	1.319879E+0	1.293907E+0	1.202715E+0	1.236151E+0	1.266415E+0	1.285006E+0	1.187380E+0	1.308099E+0	1.273497E+0	1.264030E+0	1.206580E+0	1.307522E+0	1.289579E+0	1.237566E+0	1.259361E+0	1.265734E+0	1.180959E+0	1.293842E+0	1.290294E+0	1.213910E+0	1.234912E+0	1.323170E+0	1.245920E+0	1.242401E+0	1.208080E+0	1.240344E+0	1.243736E+0	1.214009E+0	1.287651E+0	1.284674E+0	1.219507E+0	1.232553E+0	1.240782E+0	1.264166E+0	1.257973E+0	1.262415E+0	1.270801E+0	1.314552E+0	1.215590E+0	1.266037E+0	1.243053E+0	1.247809E+0	1.269370E+0	1.263812E+0	1.265313E+0	1.245975E+0	1.200154E+0	1.264056E+0	1.269298E+0	1.291253E+0	1.297534E+0	1.241789E+0	1.265318E+0	1.320902E+0	1.213425E+0	1.333969E+0	1.273504E+0	1.245229E+0	1.238694E+0	1.266978E+0	1.262023E+0	1.285960E+0	1.312878E+0	1.316307E+0
5.505060E+2	1.246556E+0	1.203439E+0	1.209140E+0	1.245758E+0	1.213267E+0	1.201633E+0	1.203754E+0	1.242002E+0	1.216919E+0	1.200133E+0	1.220661E+0	1.180079E+0	1.263178E+0	1.217526E+0	1.221135E+0	1.200789E+0	1.281146E+0	1.281032E+0	1.214393E+0	1.223864E+0	1.317815E+0	1.215906E+0	1.212678E+0	1.180652E+0	1.229344E+0	1.256923E+0	1.210268E+0	1.225638E+0	1.226884E+0	1.190829E+0	1.225779E+0	1.156539E+0	1.234268E+0	1.199280E+0	1.258238E+0	1.249181E+0	1.190116E+0	1.197588E+0	1.259434E+0	1.219098E+0	1.229364E+0	1.231350E+0	1.207809E+0	1.214754E+0	1.279817E+0	1.246325E+0	1.288046E+0	1.181814E+0	1.237691E+0	1.200881E+0	1.234906E+0	1.250544E+0	1.219343E+0	1.216820E+0	1.283699E+0	1.257822E+0	1.268155E+0	1.251421E+0	1.228101E+0	1.226879E+0	1.249974E+0	1.208212E+0	1.242553E+0	1.263341E+0	1.235272E+0	1.228252E+0	1.184103E+0	1.115022E+0	1.215384E+0	1.188490E+0	1.188626E+0	1.264613E+0	1.238890E+0	1.244070E+0	1.251637E+0	1.220268E+0	1.213988E+0	1.179640E+0	1.239219E+0	1.243672E+0	1.276407E+0	1.206760E+0	1.260934E+0	1.231766E+0	1.169017E+0	1.218577E+0	1.212993E+0	1.196562E+0	1.238531E+0	1.200318E+0	1.182983E+0	1.281990E+0	1.242737E+0	1.257319E+0	1.196174E+0	1.201160E+0	1.207324E+0	1.208087E+0	1.216924E+0	1.273912E+0	1.202028E+0	1.258745E+0	1.215327E+0	1.263594E+0	1.225855E+0	1.200261E+0	1.253297E+0	1.244452E+0	1.181101E+0	1.163943E+0	1.174324E+0	1.259870E+0	1.224834E+0	1.203338E+0	1.234694E+0	1.213381E+0	1.235061E+0	1.207590E+0	1.187143E+0	1.167167E+0	1.239632E+0	1.193879E+0	1.201185E+0	1.178221E+0	1.197892E+0	1.208732E+0	1.190213E+0	1.239245E+0	1.260104E+0	1.250802E+0	1.247533E+0	1.237631E+0	1.221507E+0	1.221254E+0	1.236940E+0	1.242893E+0	1.229303E+0	1.198617E+0	1.201763E+0	1.199282E+0	1.250086E+0	1.183912E+0	1.261745E+0	1.272139E+0	1.216713E+0	1.227683E+0	1.178673E+0	1.212591E+0	1.211069E+0	1.256712E+0	1.177868E+0	1.211554E+0	1.219925E+0	1.257698E+0	1.142024E+0	1.202399E+0	1.239257E+0	1.198413E+0	1.203128E+0	1.215629E+0	1.221140E+0	1.208584E+0	1.203049E+0	1.183200E+0	1.183456E+0	1.168337E+0	1.235938E+0	1.213879E+0	1.237788E+0	1.156354E+0	1.167354E+0
5.512570E+2	1.278211E+0	1.166113E+0	1.271569E+0	1.186544E+0	1.176007E+0	1.230467E+0	1.214456E+0	1.271720E+0	1.234088E+0	1.227924E+0	1.272670E+0	1.234620E+0	1.272565E+0	1.197823E+0	1.213735E+0	1.263696E+0	1.231758E+0	1.236150E+0	1.199285E+0	1.246316E+0	1.275922E+0	1.260871E+0	1.230707E+0	1.182901E+0	1.252400E+0	1.231647E+0	1.224011E+0	1.203655E+0	1.296309E+0	1.171102E+0	1.183860E+0	1.191495E+0	1.209029E+0	1.196768E+0	1.227391E+0	1.244007E+0	1.224545E+0	1.231649E+0	1.256792E+0	1.264851E+0	1.230148E+0	1.229097E+0	1.226157E+0	1.224656E+0	1.250229E+0	1.207667E+0	1.243422E+0	1.195039E+0	1.198235E+0	1.204062E+0	1.260098E+0	1.233572E+0	1.195382E+0	1.200202E+0	1.280556E+0	1.263471E+0	1.279100E+0	1.231751E+0	1.250944E+0	1.218672E+0	1.264767E+0	1.250366E+0	1.226391E+0	1.256558E+0	1.202075E+0	1.232516E+0	1.234736E+0	1.204719E+0	1.240918E+0	1.228484E+0	1.234957E+0	1.232458E+0	1.166340E+0	1.187128E+0	1.226746E+0	1.179376E+0	1.237030E+0	1.118777E+0	1.316228E+0	1.178165E+0	1.226489E+0	1.180876E+0	1.256511E+0	1.226869E+0	1.252764E+0	1.177317E+0	1.204263E+0	1.209881E+0	1.215489E+0	1.260864E+0	1.243957E+0	1.239775E+0	1.272478E+0	1.191275E+0	1.144848E+0	1.175856E+0	1.264733E+0	1.252754E+0	1.210209E+0	1.268252E+0	1.216434E+0	1.233956E+0	1.197780E+0	1.270172E+0	1.194513E+0	1.219704E+0	1.227845E+0	1.250224E+0	1.207983E+0	1.199095E+0	1.238366E+0	1.268493E+0	1.196811E+0	1.260017E+0	1.258968E+0	1.155350E+0	1.268237E+0	1.216514E+0	1.167156E+0	1.207600E+0	1.220240E+0	1.268019E+0	1.211682E+0	1.209048E+0	1.220439E+0	1.269603E+0	1.223150E+0	1.202834E+0	1.253310E+0	1.170850E+0	1.245967E+0	1.191546E+0	1.225427E+0	1.273229E+0	1.191281E+0	1.213458E+0	1.238754E+0	1.203983E+0	1.212896E+0	1.195396E+0	1.235083E+0	1.150350E+0	1.229288E+0	1.270094E+0	1.224472E+0	1.192118E+0	1.186656E+0	1.238607E+0	1.230173E+0	1.227233E+0	1.223814E+0	1.254193E+0	1.198708E+0	1.210402E+0	1.198813E+0	1.239154E+0	1.304138E+0	1.177366E+0	1.273592E+0	1.234720E+0	1.267454E+0	1.188943E+0	1.263133E+0	1.252545E+0	1.192752E+0	1.185139E+0	1.205123E+0	1.151510E+0	1.223000E+0	1.170488E+0	1.205145E+0
5.520100E+2	1.193293E+0	1.203808E+0	1.246116E+0	1.229720E+0	1.215312E+0	1.224931E+0	1.221507E+0	1.252590E+0	1.241363E+0	1.206168E+0	1.281858E+0	1.174348E+0	1.231288E+0	1.236511E+0	1.242167E+0	1.238027E+0	1.253904E+0	1.252268E+0	1.237322E+0	1.241539E+0	1.268379E+0	1.195114E+0	1.179391E+0	1.217765E+0	1.185213E+0	1.213863E+0	1.145916E+0	1.233746E+0	1.276416E+0	1.196396E+0	1.198335E+0	1.223323E+0	1.206277E+0	1.254650E+0	1.244571E+0	1.171902E+0	1.221831E+0	1.241576E+0	1.202469E+0	1.213218E+0	1.230562E+0	1.225406E+0	1.226741E+0	1.217582E+0	1.228032E+0	1.176905E+0	1.204041E+0	1.278072E+0	1.214838E+0	1.182350E+0	1.246000E+0	1.218354E+0	1.236983E+0	1.247620E+0	1.210938E+0	1.238658E+0	1.253802E+0	1.207821E+0	1.152386E+0	1.191713E+0	1.264184E+0	1.249312E+0	1.265838E+0	1.231565E+0	1.240718E+0	1.201144E+0	1.271990E+0	1.150133E+0	1.167541E+0	1.179507E+0	1.224978E+0	1.199989E+0	1.258299E+0	1.204639E+0	1.189156E+0	1.224015E+0	1.265310E+0	1.224091E+0	1.176957E+0	1.239148E+0	1.200440E+0	1.191303E+0	1.218413E+0	1.205609E+0	1.236655E+0	1.218844E+0	1.215846E+0	1.184883E+0	1.204318E+0	1.207415E+0	1.223537E+0	1.183214E+0	1.237739E+0	1.224432E+0	1.197439E+0	1.135713E+0	1.200635E+0	1.190208E+0	1.252736E+0	1.225351E+0	1.210783E+0	1.247947E+0	1.231224E+0	1.205139E+0	1.262128E+0	1.218517E+0	1.254296E+0	1.259210E+0	1.261653E+0	1.225515E+0	1.202511E+0	1.277936E+0	1.202808E+0	1.227897E+0	1.202701E+0	1.138211E+0	1.217879E+0	1.208765E+0	1.237336E+0	1.194808E+0	1.214329E+0	1.184749E+0	1.227568E+0	1.181456E+0	1.261577E+0	1.214684E+0	1.265056E+0	1.248487E+0	1.220489E+0	1.207697E+0	1.212224E+0	1.175451E+0	1.206985E+0	1.223223E+0	1.158476E+0	1.191280E+0	1.198391E+0	1.215849E+0	1.192760E+0	1.203037E+0	1.264992E+0	1.193196E+0	1.219182E+0	1.200465E+0	1.238466E+0	1.214958E+0	1.171076E+0	1.187601E+0	1.225662E+0	1.185807E+0	1.192909E+0	1.235480E+0	1.173931E+0	1.211169E+0	1.220985E+0	1.174044E+0	1.212840E+0	1.208563E+0	1.243672E+0	1.193608E+0	1.202984E+0	1.167592E+0	1.245996E+0	1.212094E+0	1.269664E+0	1.211036E+0	1.196548E+0	1.225256E+0	1.233833E+0	1.244576E+0	1.115360E+0
5.527590E+2	1.244141E+0	1.161755E+0	1.204962E+0	1.201483E+0	1.206204E+0	1.169836E+0	1.197536E+0	1.271131E+0	1.191587E+0	1.181644E+0	1.219891E+0	1.219102E+0	1.247276E+0	1.242870E+0	1.183503E+0	1.214680E+0	1.168417E+0	1.194352E+0	1.205961E+0	1.195703E+0	1.260411E+0	1.216165E+0	1.194893E+0	1.213186E+0	1.221120E+0	1.190707E+0	1.173212E+0	1.207068E+0	1.182446E+0	1.239012E+0	1.187445E+0	1.162523E+0	1.228934E+0	1.248332E+0	1.212447E+0	1.220528E+0	1.219002E+0	1.218413E+0	1.203366E+0	1.230921E+0	1.223532E+0	1.199676E+0	1.178196E+0	1.199537E+0	1.255254E+0	1.178417E+0	1.225799E+0	1.234702E+0	1.181074E+0	1.154101E+0	1.217781E+0	1.142990E+0	1.214559E+0	1.203739E+0	1.230730E+0	1.177342E+0	1.199113E+0	1.236027E+0	1.227366E+0	1.201531E+0	1.203631E+0	1.197339E+0	1.219248E+0	1.219433E+0	1.235422E+0	1.166254E+0	1.146197E+0	1.169460E+0	1.158154E+0	1.218441E+0	1.236549E+0	1.244991E+0	1.238464E+0	1.135895E+0	1.168035E+0	1.155558E+0	1.206324E+0	1.201446E+0	1.251256E+0	1.173167E+0	1.174176E+0	1.211809E+0	1.169174E+0	1.239082E+0	1.192600E+0	1.179911E+0	1.197792E+0	1.151671E+0	1.166091E+0	1.153942E+0	1.255910E+0	1.212762E+0	1.239228E+0	1.216911E+0	1.232740E+0	1.217671E+0	1.257749E+0	1.136623E+0	1.204279E+0	1.186900E+0	1.211255E+0	1.173009E+0	1.231702E+0	1.203009E+0	1.187585E+0	1.158167E+0	1.217790E+0	1.226240E+0	1.191018E+0	1.203543E+0	1.198853E+0	1.152138E+0	1.189486E+0	1.204816E+0	1.223430E+0	1.194828E+0	1.186471E+0	1.230739E+0	1.225415E+0	1.244557E+0	1.175146E+0	1.169029E+0	1.236088E+0	1.163442E+0	1.275456E+0	1.222021E+0	1.187602E+0	1.243965E+0	1.227930E+0	1.211048E+0	1.193871E+0	1.157630E+0	1.145677E+0	1.155228E+0	1.186416E+0	1.233301E+0	1.196982E+0	1.168824E+0	1.191955E+0	1.182264E+0	1.156618E+0	1.197389E+0	1.213768E+0	1.232116E+0	1.189747E+0	1.185664E+0	1.228051E+0	1.158880E+0	1.214172E+0	1.185388E+0	1.197838E+0	1.239555E+0	1.160591E+0	1.200588E+0	1.188398E+0	1.215711E+0	1.203799E+0	1.187758E+0	1.191896E+0	1.164018E+0	1.222679E+0	1.188111E+0	1.163003E+0	1.202185E+0	1.247330E+0	1.178484E+0	1.169209E+0	1.158346E+0	1.294269E+0	1.179590E+0	1.231046E+0
5.534940E+2	1.187619E+0	1.171352E+0	1.182683E+0	1.203255E+0	1.153192E+0	1.226371E+0	1.143144E+0	1.149437E+0	1.188378E+0	1.151824E+0	1.255112E+0	1.176982E+0	1.204912E+0	1.169385E+0	1.173324E+0	1.129964E+0	1.212132E+0	1.201805E+0	1.159676E+0	1.147659E+0	1.207001E+0	1.180614E+0	1.212149E+0	1.125129E+0	1.213316E+0	1.167154E+0	1.151594E+0	1.170948E+0	1.158373E+0	1.163220E+0	1.169116E+0	1.131662E+0	1.143255E+0	1.141713E+0	1.194919E+0	1.166287E+0	1.191779E+0	1.191903E+0	1.172553E+0	1.130256E+0	1.181423E+0	1.204473E+0	1.167836E+0	1.131674E+0	1.180276E+0	1.186480E+0	1.156289E+0	1.155275E+0	1.152186E+0	1.172491E+0	1.138460E+0	1.159250E+0	1.103756E+0	1.185179E+0	1.195288E+0	1.173254E+0	1.182333E+0	1.157826E+0	1.139928E+0	1.204026E+0	1.220990E+0	1.141502E+0	1.162329E+0	1.181888E+0	1.165636E+0	1.167588E+0	1.166543E+0	1.120770E+0	1.098501E+0	1.202665E+0	1.146990E+0	1.142666E+0	1.209975E+0	1.221688E+0	1.139027E+0	1.141496E+0	1.181550E+0	1.146005E+0	1.218706E+0	1.179410E+0	1.170159E+0	1.182295E+0	1.170912E+0	1.172076E+0	1.134682E+0	1.126078E+0	1.225730E+0	1.131892E+0	1.161079E+0	1.175218E+0	1.148500E+0	1.197030E+0	1.165693E+0	1.194634E+0	1.145316E+0	1.148452E+0	1.185630E+0	1.177365E+0	1.185651E+0	1.177944E+0	1.183823E+0	1.157106E+0	1.149127E+0	1.256940E+0	1.146419E+0	1.095640E+0	1.198986E+0	1.156537E+0	1.158519E+0	1.152861E+0	1.164751E+0	1.128305E+0	1.170305E+0	1.104838E+0	1.183841E+0	1.140842E+0	1.170189E+0	1.197212E+0	1.168551E+0	1.169937E+0	1.149359E+0	1.189299E+0	1.118495E+0	1.170771E+0	1.190302E+0	1.145510E+0	1.156470E+0	1.174846E+0	1.180695E+0	1.225664E+0	1.166332E+0	1.107559E+0	1.242011E+0	1.186467E+0	1.164480E+0	1.170788E+0	1.196135E+0	1.114141E+0	1.175955E+0	1.130270E+0	1.142855E+0	1.110588E+0	1.176422E+0	1.211057E+0	1.146398E+0	1.192930E+0	1.130361E+0	1.188143E+0	1.149949E+0	1.131671E+0	1.151682E+0	1.152630E+0	1.160698E+0	1.180169E+0	1.157796E+0	1.136779E+0	1.193947E+0	1.165545E+0	1.152713E+0	1.178549E+0	1.139650E+0	1.114861E+0	1.109674E+0	1.112643E+0	1.243925E+0	1.162020E+0	1.136722E+0	1.124432E+0	1.216941E+0	1.111273E+0	1.198038E+0
5.542530E+2	1.106453E+0	1.073832E+0	1.095700E+0	1.085968E+0	1.085159E+0	1.040261E+0	1.088274E+0	1.047648E+0	1.059554E+0	1.060198E+0	1.097055E+0	1.058178E+0	1.067608E+0	1.059816E+0	1.117511E+0	1.041889E+0	1.059016E+0	1.121119E+0	1.079634E+0	1.070010E+0	1.130461E+0	1.084122E+0	1.056446E+0	1.075375E+0	1.032152E+0	1.090079E+0	1.084744E+0	1.090271E+0	1.070436E+0	1.093675E+0	1.005912E+0	1.034340E+0	1.068657E+0	1.118919E+0	1.073651E+0	1.077274E+0	1.042211E+0	1.075803E+0	1.106563E+0	1.068272E+0	1.078672E+0	1.065937E+0	1.078727E+0	1.068421E+0	1.100003E+0	1.040742E+0	1.056556E+0	1.114012E+0	1.075160E+0	1.100643E+0	1.055760E+0	1.092418E+0	1.084719E+0	1.083747E+0	1.107107E+0	1.080543E+0	1.114210E+0	1.134817E+0	1.082444E+0	1.084478E+0	1.077050E+0	1.109475E+0	1.094701E+0	1.095458E+0	1.088469E+0	1.098337E+0	1.067964E+0	1.021944E+0	1.053396E+0	1.074904E+0	1.080170E+0	1.115379E+0	1.047778E+0	1.059044E+0	1.066707E+0	1.049402E+0	1.105341E+0	1.096242E+0	1.055653E+0	1.101579E+0	1.058174E+0	1.085346E+0	1.086956E+0	1.087499E+0	1.112979E+0	1.016324E+0	1.079686E+0	1.057781E+0	1.070612E+0	1.064464E+0	1.065079E+0	1.107086E+0	1.089339E+0	1.116902E+0	1.000974E+0	1.082985E+0	1.080600E+0	1.044971E+0	1.063989E+0	1.114828E+0	1.076950E+0	1.094287E+0	1.111809E+0	1.090352E+0	1.061730E+0	1.017001E+0	1.059650E+0	1.054007E+0	1.064137E+0	1.053234E+0	1.062578E+0	1.061902E+0	1.090004E+0	1.035017E+0	1.057383E+0	1.053000E+0	1.054606E+0	1.051342E+0	1.085589E+0	1.089492E+0	1.106875E+0	1.081720E+0	1.086266E+0	1.087111E+0	1.106039E+0	1.068063E+0	1.052624E+0	1.082361E+0	1.040969E+0	1.044525E+0	1.051253E+0	1.035539E+0	1.080417E+0	1.092519E+0	1.081580E+0	1.085979E+0	1.109469E+0	1.064440E+0	1.046130E+0	1.067918E+0	1.072687E+0	1.039910E+0	1.067116E+0	1.062644E+0	1.057018E+0	1.068133E+0	1.093287E+0	1.046506E+0	1.079471E+0	1.034804E+0	1.089924E+0	1.141397E+0	1.113626E+0	1.095829E+0	1.118310E+0	1.081237E+0	1.069501E+0	9.997165E-1	1.074626E+0	1.041661E+0	1.043212E+0	1.041258E+0	1.100514E+0	1.098851E+0	1.083077E+0	1.053579E+0	1.084379E+0	9.722087E-1	1.076328E+0	1.197509E+0	9.924872E-1
5.550190E+2	1.005026E+0	9.825115E-1	9.835911E-1	9.676301E-1	9.774040E-1	9.801766E-1	1.011943E+0	1.023682E+0	1.010409E+0	9.506060E-1	1.008854E+0	9.820990E-1	1.036417E+0	1.020834E+0	9.968127E-1	9.889883E-1	9.789076E-1	1.009466E+0	1.008958E+0	1.022273E+0	9.702375E-1	1.018168E+0	1.018859E+0	9.915862E-1	1.003369E+0	9.953986E-1	1.000426E+0	9.683289E-1	1.021090E+0	1.009101E+0	9.983760E-1	9.727138E-1	9.938317E-1	1.031809E+0	9.661054E-1	1.002555E+0	9.990574E-1	1.001740E+0	9.884871E-1	1.011813E+0	9.878882E-1	9.442538E-1	1.045717E+0	9.634407E-1	1.033989E+0	1.035854E+0	1.023814E+0	9.727589E-1	1.042042E+0	1.071580E+0	9.960486E-1	9.852974E-1	1.004820E+0	9.858162E-1	1.016671E+0	1.000991E+0	9.924590E-1	1.030214E+0	1.018060E+0	1.015803E+0	1.045537E+0	1.029597E+0	9.964995E-1	9.963634E-1	1.041584E+0	1.051875E+0	9.890866E-1	9.230353E-1	1.030193E+0	1.021396E+0	9.940665E-1	9.848444E-1	9.807487E-1	1.005762E+0	1.022444E+0	9.951631E-1	1.057903E+0	1.014174E+0	1.064754E+0	9.780947E-1	9.984691E-1	1.009221E+0	1.006934E+0	1.014499E+0	1.016370E+0	1.066511E+0	1.009769E+0	9.737472E-1	1.018756E+0	9.893331E-1	1.029647E+0	1.042343E+0	1.051643E+0	9.969444E-1	1.052253E+0	9.909078E-1	9.686718E-1	1.027834E+0	1.028508E+0	9.483906E-1	1.016180E+0	9.727385E-1	9.510628E-1	1.030583E+0	9.933635E-1	9.826891E-1	1.044232E+0	1.075421E+0	1.063756E+0	9.804496E-1	9.789809E-1	1.021029E+0	9.982208E-1	1.030796E+0	1.022936E+0	1.012476E+0	9.903346E-1	9.910393E-1	1.022604E+0	1.036397E+0	1.049821E+0	1.017605E+0	1.008993E+0	9.784849E-1	1.021829E+0	1.041802E+0	9.396802E-1	1.060079E+0	1.036870E+0	9.971982E-1	1.011940E+0	9.928141E-1	9.742613E-1	9.921146E-1	9.918257E-1	9.610407E-1	1.105383E+0	9.913270E-1	9.922656E-1	1.010200E+0	1.020902E+0	9.903370E-1	1.002545E+0	1.018571E+0	9.695133E-1	1.011044E+0	1.021688E+0	9.872633E-1	9.869343E-1	9.706332E-1	9.913009E-1	1.017666E+0	9.703870E-1	1.018138E+0	1.014627E+0	9.910954E-1	9.857432E-1	1.038366E+0	1.039624E+0	9.966598E-1	1.055168E+0	1.024054E+0	9.898121E-1	9.835895E-1	1.033128E+0	1.026762E+0	9.867121E-1	9.648047E-1	1.016757E+0	1.032992E+0	9.091157E-1
5.557710E+2	9.647893E-1	9.493706E-1	9.022590E-1	9.542344E-1	9.135317E-1	9.436952E-1	9.231343E-1	9.327291E-1	9.406727E-1	9.210917E-1	9.178765E-1	9.240884E-1	9.529511E-1	9.476127E-1	9.659660E-1	9.138406E-1	9.535376E-1	9.351234E-1	9.296658E-1	9.730495E-1	1.005132E+0	9.537363E-1	9.573512E-1	9.350282E-1	9.417643E-1	9.764052E-1	9.644003E-1	8.927346E-1	9.291067E-1	9.319584E-1	9.056384E-1	9.090759E-1	1.004021E+0	9.683216E-1	9.403711E-1	9.819064E-1	9.476408E-1	9.553676E-1	9.536763E-1	9.590650E-1	9.583009E-1	9.397718E-1	9.484977E-1	9.184720E-1	9.653148E-1	9.239978E-1	9.908427E-1	9.359433E-1	1.008129E+0	9.421494E-1	9.764429E-1	9.286059E-1	9.456053E-1	9.317208E-1	9.256758E-1	9.338246E-1	1.008611E+0	9.101862E-1	9.461980E-1	9.931535E-1	9.437624E-1	9.475447E-1	9.416022E-1	9.588147E-1	9.877572E-1	1.000153E+0	9.559228E-1	8.965797E-1	9.493258E-1	9.526526E-1	9.562334E-1	9.255319E-1	9.431429E-1	9.423399E-1	9.005551E-1	9.606390E-1	9.531883E-1	9.528083E-1	9.756404E-1	9.595732E-1	9.726402E-1	9.307220E-1	9.670813E-1	9.844587E-1	9.686872E-1	9.103281E-1	9.862315E-1	9.090412E-1	9.376875E-1	9.402418E-1	9.562726E-1	9.829629E-1	9.724661E-1	9.939061E-1	9.396883E-1	1.008569E+0	9.556314E-1	9.274134E-1	9.492915E-1	8.879911E-1	9.233375E-1	9.240565E-1	9.656049E-1	9.467655E-1	9.770310E-1	9.354061E-1	9.695570E-1	9.826498E-1	9.852694E-1	9.424444E-1	9.478201E-1	9.292854E-1	9.559708E-1	9.319229E-1	9.707106E-1	9.263533E-1	1.000514E+0	9.221027E-1	9.931289E-1	9.037051E-1	9.724279E-1	9.601789E-1	9.186974E-1	9.032660E-1	9.939195E-1	9.315703E-1	9.583967E-1	9.877164E-1	9.719293E-1	9.297775E-1	1.004560E+0	9.479028E-1	8.888504E-1	9.988619E-1	9.240628E-1	9.911540E-1	9.269075E-1	9.219409E-1	9.550101E-1	9.248951E-1	9.732431E-1	9.390430E-1	1.000127E+0	9.988383E-1	9.448384E-1	9.428032E-1	9.454249E-1	9.637891E-1	9.850366E-1	9.249555E-1	9.578446E-1	9.722583E-1	9.554153E-1	9.458222E-1	9.340532E-1	9.434089E-1	9.502359E-1	9.355126E-1	9.248795E-1	9.605880E-1	9.460034E-1	9.710178E-1	9.847346E-1	9.445454E-1	9.788030E-1	1.013609E+0	9.721921E-1	9.314037E-1	9.660598E-1	9.250876E-1	9.721842E-1
5.560130E+2	9.187680E-1	9.046231E-1	9.459324E-1	9.383156E-1	9.224407E-1	9.529569E-1	9.655198E-1	9.451662E-1	9.246009E-1	9.694428E-1	9.847636E-1	9.513451E-1	9.769551E-1	9.882533E-1	9.243831E-1	9.310913E-1	9.302941E-1	9.241148E-1	9.291989E-1	9.391263E-1	9.856043E-1	9.328253E-1	9.471071E-1	9.253431E-1	9.122565E-1	9.404543E-1	9.379221E-1	9.338592E-1	9.065505E-1	9.495074E-1	9.896940E-1	9.071406E-1	9.786578E-1	1.001690E+0	9.378578E-1	9.048764E-1	9.555270E-1	9.561537E-1	9.680493E-1	9.250955E-1	9.542090E-1	9.602019E-1	9.420765E-1	9.418522E-1	9.203880E-1	9.508770E-1	9.754258E-1	9.618486E-1	9.015348E-1	9.060687E-1	9.473260E-1	9.508250E-1	9.024566E-1	9.603726E-1	9.548973E-1	9.885112E-1	9.917969E-1	9.590597E-1	9.203246E-1	9.297925E-1	9.612324E-1	9.406837E-1	9.608912E-1	9.373639E-1	9.469938E-1	9.948688E-1	9.572788E-1	8.662886E-1	9.294530E-1	9.741262E-1	9.600443E-1	9.858432E-1	9.471071E-1	9.483231E-1	9.345899E-1	9.019635E-1	9.947025E-1	9.448740E-1	9.724542E-1	9.251342E-1	9.732789E-1	9.659855E-1	9.152811E-1	9.489451E-1	9.247069E-1	9.452226E-1	9.865497E-1	9.297649E-1	9.603898E-1	9.327282E-1	9.598838E-1	9.736042E-1	9.956535E-1	9.233120E-1	9.491738E-1	8.930612E-1	9.005892E-1	9.486770E-1	9.100978E-1	9.441930E-1	9.766609E-1	9.318631E-1	9.656589E-1	9.328535E-1	9.410318E-1	9.678820E-1	9.598358E-1	9.394108E-1	9.482905E-1	8.892090E-1	9.485340E-1	9.496515E-1	9.358133E-1	9.328801E-1	9.323688E-1	8.914482E-1	9.242995E-1	9.310259E-1	9.555894E-1	9.171928E-1	9.867996E-1	9.051059E-1	9.382831E-1	9.523424E-1	9.707619E-1	9.229992E-1	9.764079E-1	9.038266E-1	9.462667E-1	9.265820E-1	9.249754E-1	9.596632E-1	9.373391E-1	9.174936E-1	9.219851E-1	9.006911E-1	1.010207E+0	9.796234E-1	9.863157E-1	9.747065E-1	9.817931E-1	9.019511E-1	9.718599E-1	9.384414E-1	9.632971E-1	9.551863E-1	9.337346E-1	9.379330E-1	9.877311E-1	9.460794E-1	9.270662E-1	9.797040E-1	9.460801E-1	9.235850E-1	9.815916E-1	8.755915E-1	9.427104E-1	9.153275E-1	9.594669E-1	9.477606E-1	9.485626E-1	9.325959E-1	9.722427E-1	8.694206E-1	9.448003E-1	9.589905E-1	9.928528E-1	9.215191E-1	1.004145E+0	1.021943E+0	9.503398E-1
5.565090E+2	9.460408E-1	9.442624E-1	9.578573E-1	9.414951E-1	9.657796E-1	9.627548E-1	9.610602E-1	9.565838E-1	9.233452E-1	9.362162E-1	9.362029E-1	9.635469E-1	9.761856E-1	9.292524E-1	9.847816E-1	9.880110E-1	9.293095E-1	9.526473E-1	9.623153E-1	9.717458E-1	9.294578E-1	9.390457E-1	9.745378E-1	9.574156E-1	9.633654E-1	9.743008E-1	9.441565E-1	9.325363E-1	9.733905E-1	9.391296E-1	9.441402E-1	9.441312E-1	9.788181E-1	9.138229E-1	9.667413E-1	9.366818E-1	9.647183E-1	9.686877E-1	9.558044E-1	9.518050E-1	9.729705E-1	9.526275E-1	9.803034E-1	9.917731E-1	9.804227E-1	1.006633E+0	9.650043E-1	9.535175E-1	9.274604E-1	9.404666E-1	9.987458E-1	9.524595E-1	9.649634E-1	9.542745E-1	9.594103E-1	9.583470E-1	9.739452E-1	9.600055E-1	9.883940E-1	8.998909E-1	9.661329E-1	9.411204E-1	9.540483E-1	9.352719E-1	9.573899E-1	9.498759E-1	9.239125E-1	9.310835E-1	9.797452E-1	9.729884E-1	9.264186E-1	9.978616E-1	9.615702E-1	9.696589E-1	9.951086E-1	9.227909E-1	1.004219E+0	9.335687E-1	9.403027E-1	9.186373E-1	9.621410E-1	9.496054E-1	9.360961E-1	9.355575E-1	9.303507E-1	9.287319E-1	9.471676E-1	9.217882E-1	9.462458E-1	9.020650E-1	9.877782E-1	9.299804E-1	9.517714E-1	9.531147E-1	9.364093E-1	9.555065E-1	1.005642E+0	9.450407E-1	9.476196E-1	9.693732E-1	9.538339E-1	9.594501E-1	9.336402E-1	9.560159E-1	9.680666E-1	9.514237E-1	9.355013E-1	9.744747E-1	9.420645E-1	9.333996E-1	9.649912E-1	9.388117E-1	9.675927E-1	9.757802E-1	9.277476E-1	9.634078E-1	9.780013E-1	9.344684E-1	9.276606E-1	9.400914E-1	9.831152E-1	9.166488E-1	9.631460E-1	9.569369E-1	9.334826E-1	9.549422E-1	9.874004E-1	9.603588E-1	9.822087E-1	9.395793E-1	9.846464E-1	9.707052E-1	9.358337E-1	9.604647E-1	9.508775E-1	9.308872E-1	9.289905E-1	9.608684E-1	9.675698E-1	9.352711E-1	9.819510E-1	9.046250E-1	9.837744E-1	9.731399E-1	9.573501E-1	9.273043E-1	8.872542E-1	9.783911E-1	9.762545E-1	9.602208E-1	9.303990E-1	9.340409E-1	9.813496E-1	1.009074E+0	9.546578E-1	9.142096E-1	9.826207E-1	9.422690E-1	9.750529E-1	9.459668E-1	9.215061E-1	9.264643E-1	9.903946E-1	9.395239E-1	9.083708E-1	9.813620E-1	9.707046E-1	9.531403E-1	9.155664E-1	9.660760E-1	8.921010E-1
5.570100E+2	9.707602E-1	9.881968E-1	1.015646E+0	9.790610E-1	1.007524E+0	9.670070E-1	9.749812E-1	9.600927E-1	9.810955E-1	1.022088E+0	9.820602E-1	9.440745E-1	9.832680E-1	9.863889E-1	9.479532E-1	9.808456E-1	1.014095E+0	1.021705E+0	9.353253E-1	9.602468E-1	9.975350E-1	9.277900E-1	9.619684E-1	9.900919E-1	9.786754E-1	9.786460E-1	1.022677E+0	9.692223E-1	9.798846E-1	9.244876E-1	9.355978E-1	1.000059E+0	9.397001E-1	9.648058E-1	9.482496E-1	9.872177E-1	9.720003E-1	9.439186E-1	1.015647E+0	1.007724E+0	9.825998E-1	9.676096E-1	1.025995E+0	1.000969E+0	1.032684E+0	9.134815E-1	9.503137E-1	9.914172E-1	1.058436E+0	9.939830E-1	9.597933E-1	9.759491E-1	1.007005E+0	1.013540E+0	1.021847E+0	1.000789E+0	9.711532E-1	1.022601E+0	9.572920E-1	9.795350E-1	9.869447E-1	9.850719E-1	9.551255E-1	9.818165E-1	9.847834E-1	9.863047E-1	9.767630E-1	1.020712E+0	9.797846E-1	1.009328E+0	9.531635E-1	1.004194E+0	9.782089E-1	9.941863E-1	9.872231E-1	1.010574E+0	9.403183E-1	9.775478E-1	9.733852E-1	9.591657E-1	9.573891E-1	1.024454E+0	1.029909E+0	9.561640E-1	9.682791E-1	1.026134E+0	9.845913E-1	9.846987E-1	9.737429E-1	9.761458E-1	9.885151E-1	1.012604E+0	1.003417E+0	1.026741E+0	1.008059E+0	1.011968E+0	1.038664E+0	9.633906E-1	9.894016E-1	1.000986E+0	1.005848E+0	9.983938E-1	9.473508E-1	9.896523E-1	9.607868E-1	9.569209E-1	9.926529E-1	9.882741E-1	9.874997E-1	9.623260E-1	9.674411E-1	9.681928E-1	9.828936E-1	9.791438E-1	9.606459E-1	9.787977E-1	9.672318E-1	9.815980E-1	9.718140E-1	1.025114E+0	9.511257E-1	9.837784E-1	9.676512E-1	1.020597E+0	9.568984E-1	9.840256E-1	9.319076E-1	1.009279E+0	9.914413E-1	9.909393E-1	1.008497E+0	1.011351E+0	9.919722E-1	9.741539E-1	9.889392E-1	9.648653E-1	9.874985E-1	9.880604E-1	9.936444E-1	9.750179E-1	1.034557E+0	9.355421E-1	9.399683E-1	9.493617E-1	9.854221E-1	9.637044E-1	1.041787E+0	1.026667E+0	9.611519E-1	9.843682E-1	1.018271E+0	1.008779E+0	9.798156E-1	9.589493E-1	1.000374E+0	9.970475E-1	9.532124E-1	9.962936E-1	1.033905E+0	9.976638E-1	9.697474E-1	9.267124E-1	9.589860E-1	9.831615E-1	1.003082E+0	9.511267E-1	9.670594E-1	1.010558E+0	9.816053E-1	9.185249E-1	9.436390E-1
5.575250E+2	9.747875E-1	1.000096E+0	9.835129E-1	9.698946E-1	9.449035E-1	9.801385E-1	9.950118E-1	9.700288E-1	9.977020E-1	9.827331E-1	9.983108E-1	1.004341E+0	9.802814E-1	9.737924E-1	9.955376E-1	9.383372E-1	1.000436E+0	9.675808E-1	9.945773E-1	9.864805E-1	9.941900E-1	1.027676E+0	1.009542E+0	9.611681E-1	9.044765E-1	9.765871E-1	9.670970E-1	9.668391E-1	1.004385E+0	1.005851E+0	1.025789E+0	1.026653E+0	9.888435E-1	9.881087E-1	9.824052E-1	9.626100E-1	1.009835E+0	9.935766E-1	9.727976E-1	9.576120E-1	9.382621E-1	9.972832E-1	9.650862E-1	9.174633E-1	9.629555E-1	1.001599E+0	9.272041E-1	9.592003E-1	9.479866E-1	1.004224E+0	9.505706E-1	9.895267E-1	9.736565E-1	9.938735E-1	9.705441E-1	9.725128E-1	9.980960E-1	9.953840E-1	1.011824E+0	1.010556E+0	9.232836E-1	9.501302E-1	1.023578E+0	9.686791E-1	1.005231E+0	9.944940E-1	9.777775E-1	9.553988E-1	9.469768E-1	9.558497E-1	1.023559E+0	9.719978E-1	1.009060E+0	9.676556E-1	9.902837E-1	1.041427E+0	9.820369E-1	9.774109E-1	9.849638E-1	9.713386E-1	9.707428E-1	9.954200E-1	9.745482E-1	1.019628E+0	9.796950E-1	9.581332E-1	9.758575E-1	9.440853E-1	9.978070E-1	9.604669E-1	9.529645E-1	9.626479E-1	9.833528E-1	9.909931E-1	9.732319E-1	9.593957E-1	9.517664E-1	9.857677E-1	1.042322E+0	9.962808E-1	1.012503E+0	9.853924E-1	1.011440E+0	9.546112E-1	9.689718E-1	9.630683E-1	9.902639E-1	9.555084E-1	9.681581E-1	9.799676E-1	9.817963E-1	9.526212E-1	9.592737E-1	9.656866E-1	1.019246E+0	1.017206E+0	9.675642E-1	1.036967E+0	9.865789E-1	9.925905E-1	1.030766E+0	1.004877E+0	9.925877E-1	9.565408E-1	1.017398E+0	9.690315E-1	9.955086E-1	9.886119E-1	1.003956E+0	1.014940E+0	9.386870E-1	9.842233E-1	9.243242E-1	9.698041E-1	9.869362E-1	9.731243E-1	9.472710E-1	9.404227E-1	9.636836E-1	9.904782E-1	1.007191E+0	9.980547E-1	1.012321E+0	1.022727E+0	9.288761E-1	9.681108E-1	9.763768E-1	1.023964E+0	9.983271E-1	9.517865E-1	9.811579E-1	9.962125E-1	9.816481E-1	9.504189E-1	9.665196E-1	9.922262E-1	9.611951E-1	1.007960E+0	1.023792E+0	9.986324E-1	9.707221E-1	9.796483E-1	9.610777E-1	9.635660E-1	9.682693E-1	9.835357E-1	9.835886E-1	1.006697E+0	9.620648E-1	9.754828E-1	1.102850E+0
5.580110E+2	1.023373E+0	1.016126E+0	1.002496E+0	1.023082E+0	1.056843E+0	9.917243E-1	9.782804E-1	9.705310E-1	9.905206E-1	9.933966E-1	1.041683E+0	1.035338E+0	1.004833E+0	1.050630E+0	1.021015E+0	1.042776E+0	9.752774E-1	1.005452E+0	9.967178E-1	9.757491E-1	1.015647E+0	9.703342E-1	9.624359E-1	9.553704E-1	9.893442E-1	9.656724E-1	9.908994E-1	1.005774E+0	1.025611E+0	1.032080E+0	1.006244E+0	9.719590E-1	1.027321E+0	1.022995E+0	9.761048E-1	9.578647E-1	1.013012E+0	9.953292E-1	1.015276E+0	1.066932E+0	1.000122E+0	9.468086E-1	1.006259E+0	1.032687E+0	1.011162E+0	1.058953E+0	1.040699E+0	9.914497E-1	1.033869E+0	1.017383E+0	1.068233E+0	1.027516E+0	1.003897E+0	1.012002E+0	1.007163E+0	9.952895E-1	1.026968E+0	9.894454E-1	9.833695E-1	9.855622E-1	1.010617E+0	1.003858E+0	9.811654E-1	9.928592E-1	9.860111E-1	9.547629E-1	1.041355E+0	9.890988E-1	1.018498E+0	9.989037E-1	1.011998E+0	9.919954E-1	1.012157E+0	1.052256E+0	9.828703E-1	1.032765E+0	1.018555E+0	1.006169E+0	1.014952E+0	1.026123E+0	1.026318E+0	9.656988E-1	1.012566E+0	1.010619E+0	1.023015E+0	1.016504E+0	9.926216E-1	1.017476E+0	1.010300E+0	1.020454E+0	1.006834E+0	1.038776E+0	1.004281E+0	1.018900E+0	9.820301E-1	9.896805E-1	9.820212E-1	1.052454E+0	1.035747E+0	1.029571E+0	1.007218E+0	1.001432E+0	1.013764E+0	9.879302E-1	1.009179E+0	1.012804E+0	1.030397E+0	9.794016E-1	1.033076E+0	1.006224E+0	9.777905E-1	1.022743E+0	9.789540E-1	9.843955E-1	1.035303E+0	9.998761E-1	9.840788E-1	9.835561E-1	1.049605E+0	9.875429E-1	9.925435E-1	9.808565E-1	9.876358E-1	9.960899E-1	1.002464E+0	1.012418E+0	9.957547E-1	1.070394E+0	1.010026E+0	9.684711E-1	1.019504E+0	9.783452E-1	1.000249E+0	1.001084E+0	1.031227E+0	9.983513E-1	9.765548E-1	1.032771E+0	1.064972E+0	9.964076E-1	1.030318E+0	1.007729E+0	9.461727E-1	1.018514E+0	1.012595E+0	1.005209E+0	9.891908E-1	9.906158E-1	1.004230E+0	9.974263E-1	1.010537E+0	1.034560E+0	1.022990E+0	1.023135E+0	9.929961E-1	9.845239E-1	1.009919E+0	9.932103E-1	9.820331E-1	1.026559E+0	9.963545E-1	9.942416E-1	1.005377E+0	1.008888E+0	9.695476E-1	1.040256E+0	1.044894E+0	9.965269E-1	1.020158E+0	1.058748E+0	9.422785E-1
5.585100E+2	9.954286E-1	1.013755E+0	1.009632E+0	1.022979E+0	1.019108E+0	1.072223E+0	9.881333E-1	1.033273E+0	1.097701E+0	1.065887E+0	9.876975E-1	1.048642E+0	1.030450E+0	1.048831E+0	1.016038E+0	1.042765E+0	1.014848E+0	1.024244E+0	1.001947E+0	9.926676E-1	1.012403E+0	1.046637E+0	1.024254E+0	1.034524E+0	1.034335E+0	1.069548E+0	1.029085E+0	1.028060E+0	1.045295E+0	1.022138E+0	1.006482E+0	1.048829E+0	1.013179E+0	1.017329E+0	1.018361E+0	1.026943E+0	1.026492E+0	1.035172E+0	9.812946E-1	1.031834E+0	1.038087E+0	1.053541E+0	1.053232E+0	1.055950E+0	1.042557E+0	1.017864E+0	1.030323E+0	1.064991E+0	1.038825E+0	1.076337E+0	1.007079E+0	9.864951E-1	1.025912E+0	1.059743E+0	1.018648E+0	1.001452E+0	1.024590E+0	1.053068E+0	1.033988E+0	9.941299E-1	1.056870E+0	1.032276E+0	1.036297E+0	1.046971E+0	1.037264E+0	1.043931E+0	1.038737E+0	1.030333E+0	1.048931E+0	1.041262E+0	1.057882E+0	1.008924E+0	1.000506E+0	1.077748E+0	1.026446E+0	1.030682E+0	1.007422E+0	1.063667E+0	1.045569E+0	1.027155E+0	1.015330E+0	1.033551E+0	1.053436E+0	1.036893E+0	1.028513E+0	1.054468E+0	1.018680E+0	1.023896E+0	1.047779E+0	1.019450E+0	1.001206E+0	1.026000E+0	1.024051E+0	1.024259E+0	1.016324E+0	1.079332E+0	1.034657E+0	1.032158E+0	1.036255E+0	1.004623E+0	1.041959E+0	9.809001E-1	1.083116E+0	1.024785E+0	1.050428E+0	1.000074E+0	1.050666E+0	1.021804E+0	1.025016E+0	1.051388E+0	1.041240E+0	1.093865E+0	1.026086E+0	1.036758E+0	1.052452E+0	9.967292E-1	1.062233E+0	1.010276E+0	1.067648E+0	1.023252E+0	1.060478E+0	1.045550E+0	1.045803E+0	1.055122E+0	1.021715E+0	1.035828E+0	9.994118E-1	1.013830E+0	1.036092E+0	1.006214E+0	1.038622E+0	9.847616E-1	1.042542E+0	1.054534E+0	1.021158E+0	1.031548E+0	1.090213E+0	1.023360E+0	1.001105E+0	1.014317E+0	1.021146E+0	1.062214E+0	1.060063E+0	1.005007E+0	1.037247E+0	1.052993E+0	1.112075E+0	1.071085E+0	1.002024E+0	1.010815E+0	1.058267E+0	9.786180E-1	1.037045E+0	1.038623E+0	1.067062E+0	1.043139E+0	1.002563E+0	1.000406E+0	1.020236E+0	1.030168E+0	1.071376E+0	1.090056E+0	1.022049E+0	1.015327E+0	1.029948E+0	1.028984E+0	1.006130E+0	1.043706E+0	9.691304E-1	1.005731E+0	1.027918E+0
5.590100E+2	1.041135E+0	1.014327E+0	1.003681E+0	1.017099E+0	9.642016E-1	9.786756E-1	1.033162E+0	1.003287E+0	1.012153E+0	1.045480E+0	1.044254E+0	1.005983E+0	1.030084E+0	1.032789E+0	9.902508E-1	1.006038E+0	1.042665E+0	1.008012E+0	1.014413E+0	1.050687E+0	1.001567E+0	1.045041E+0	9.995742E-1	1.005003E+0	1.022570E+0	1.008785E+0	9.922168E-1	1.010147E+0	9.730549E-1	1.049549E+0	1.024184E+0	9.940689E-1	1.018103E+0	1.071898E+0	1.046660E+0	1.023232E+0	1.009972E+0	1.013663E+0	1.013622E+0	1.009510E+0	1.046492E+0	1.022552E+0	1.005024E+0	1.001749E+0	1.012606E+0	1.060708E+0	1.013140E+0	1.036011E+0	9.728069E-1	1.044706E+0	1.043357E+0	1.018363E+0	1.034678E+0	1.041450E+0	1.078110E+0	1.015981E+0	9.830478E-1	9.855652E-1	9.902794E-1	1.054199E+0	1.014692E+0	1.036632E+0	1.036998E+0	1.009378E+0	1.058894E+0	1.040015E+0	1.012790E+0	1.024672E+0	1.022739E+0	1.014953E+0	1.033954E+0	1.012654E+0	9.595377E-1	9.803630E-1	9.941014E-1	1.010120E+0	1.058342E+0	1.026687E+0	1.035596E+0	1.032535E+0	1.024295E+0	1.015549E+0	1.013428E+0	1.034966E+0	1.040719E+0	1.008588E+0	1.041608E+0	1.034924E+0	1.002618E+0	1.059098E+0	1.000348E+0	1.010217E+0	1.053396E+0	1.022838E+0	1.061696E+0	1.028116E+0	1.053712E+0	1.011443E+0	1.044343E+0	1.000152E+0	9.981787E-1	9.642643E-1	1.047846E+0	1.042939E+0	9.506693E-1	1.018797E+0	9.973004E-1	1.021136E+0	9.814529E-1	1.004634E+0	1.022500E+0	1.017661E+0	9.920118E-1	1.031210E+0	1.060982E+0	9.985350E-1	1.006758E+0	1.003587E+0	9.920312E-1	9.917416E-1	1.013964E+0	1.040085E+0	1.028593E+0	1.014155E+0	1.012620E+0	1.028340E+0	9.947810E-1	1.023589E+0	9.978432E-1	1.011011E+0	1.021027E+0	1.027008E+0	1.012083E+0	1.005663E+0	9.770388E-1	1.067461E+0	1.040055E+0	1.053674E+0	1.005989E+0	1.013004E+0	9.877864E-1	1.012496E+0	1.043682E+0	9.854212E-1	9.957757E-1	9.993396E-1	1.019114E+0	1.010744E+0	9.968120E-1	1.037984E+0	9.788225E-1	1.032332E+0	9.484618E-1	9.932948E-1	1.037159E+0	1.013564E+0	1.076126E+0	9.624507E-1	1.016329E+0	9.606625E-1	1.020364E+0	1.003446E+0	1.033466E+0	1.053975E+0	1.004091E+0	9.729532E-1	1.030787E+0	1.012910E+0	9.860842E-1	1.007166E+0	9.779551E-1
5.595170E+2	9.492637E-1	9.948599E-1	9.957198E-1	1.019174E+0	9.982913E-1	1.004063E+0	1.018178E+0	9.912757E-1	1.008304E+0	9.949502E-1	9.565876E-1	9.766864E-1	1.009371E+0	9.919542E-1	1.004874E+0	9.574883E-1	1.022849E+0	1.030557E+0	1.038420E+0	9.748142E-1	9.801495E-1	1.025121E+0	1.021363E+0	1.016170E+0	1.018130E+0	1.012439E+0	1.023492E+0	9.886387E-1	9.835838E-1	1.001496E+0	9.778277E-1	9.893287E-1	9.956341E-1	1.028600E+0	1.011794E+0	1.054958E+0	9.522016E-1	9.733293E-1	1.024519E+0	9.926640E-1	1.030538E+0	1.012330E+0	9.971072E-1	1.002495E+0	9.583582E-1	9.851402E-1	1.002461E+0	9.780075E-1	1.020753E+0	9.629527E-1	9.647227E-1	9.904815E-1	9.822271E-1	9.528479E-1	9.850410E-1	1.006408E+0	9.930312E-1	9.804593E-1	9.528712E-1	9.857777E-1	1.017040E+0	1.013572E+0	1.025656E+0	9.933354E-1	9.707947E-1	9.873679E-1	9.989007E-1	1.016084E+0	1.007393E+0	9.906646E-1	9.890110E-1	9.777051E-1	1.003614E+0	9.787381E-1	1.023102E+0	9.745341E-1	9.444366E-1	9.938391E-1	9.783928E-1	1.006275E+0	9.881735E-1	1.043036E+0	9.914308E-1	9.702791E-1	1.018784E+0	9.849783E-1	1.039272E+0	1.051122E+0	9.835284E-1	1.005540E+0	1.015516E+0	9.793728E-1	1.032610E+0	9.918845E-1	1.026195E+0	1.025033E+0	9.660751E-1	9.827893E-1	9.432929E-1	9.874554E-1	9.878048E-1	9.893975E-1	9.523369E-1	1.010008E+0	1.023937E+0	1.034385E+0	9.867191E-1	1.028208E+0	1.040832E+0	1.017374E+0	1.021804E+0	1.020439E+0	1.002750E+0	9.680231E-1	9.451561E-1	9.943282E-1	9.926116E-1	9.776295E-1	1.021934E+0	1.026848E+0	1.012220E+0	1.001504E+0	1.014429E+0	1.020290E+0	1.023639E+0	1.001248E+0	1.009941E+0	1.010583E+0	9.765556E-1	1.004650E+0	9.931447E-1	1.000007E+0	1.011939E+0	9.998211E-1	1.000807E+0	1.009430E+0	1.010576E+0	9.812185E-1	9.559009E-1	1.013923E+0	9.908923E-1	1.056918E+0	9.974737E-1	1.019740E+0	1.039043E+0	1.020669E+0	9.998994E-1	9.861203E-1	1.048123E+0	1.031399E+0	1.002535E+0	9.938892E-1	1.051264E+0	1.028295E+0	9.705548E-1	1.025041E+0	1.020096E+0	1.018315E+0	9.928796E-1	9.896859E-1	1.009119E+0	1.082216E+0	9.866167E-1	9.652268E-1	1.035228E+0	9.999009E-1	1.006294E+0	9.922094E-1	1.045259E+0	1.034018E+0	9.277682E-1
5.600130E+2	9.907668E-1	9.824019E-1	1.020135E+0	1.001063E+0	9.907180E-1	1.016724E+0	1.010545E+0	1.024514E+0	9.803915E-1	9.716719E-1	1.008641E+0	1.016989E+0	9.915952E-1	9.794609E-1	1.031238E+0	1.019024E+0	1.016647E+0	9.764417E-1	1.054210E+0	1.022298E+0	1.002230E+0	9.994178E-1	9.918942E-1	1.015757E+0	1.034729E+0	9.745090E-1	9.639677E-1	9.910317E-1	9.491504E-1	1.007854E+0	1.022027E+0	9.989617E-1	1.043682E+0	9.836214E-1	1.011717E+0	9.795127E-1	9.830375E-1	1.007956E+0	9.721889E-1	9.838382E-1	9.984240E-1	9.834042E-1	9.692719E-1	9.994131E-1	9.944340E-1	1.004497E+0	9.978696E-1	1.008750E+0	9.745447E-1	9.572773E-1	9.718708E-1	9.699596E-1	1.035294E+0	9.711194E-1	9.841521E-1	1.015098E+0	1.011413E+0	1.007723E+0	1.013450E+0	1.032464E+0	1.008343E+0	1.011428E+0	1.016128E+0	1.010903E+0	1.017263E+0	1.053293E+0	9.917420E-1	9.777862E-1	9.968758E-1	1.004923E+0	9.731052E-1	1.000434E+0	1.023687E+0	9.933927E-1	9.880093E-1	9.653747E-1	9.809097E-1	1.028606E+0	1.041989E+0	1.013228E+0	1.037804E+0	9.713893E-1	9.770364E-1	1.033353E+0	1.002958E+0	1.025196E+0	1.006959E+0	9.713669E-1	9.936519E-1	1.022348E+0	1.002017E+0	9.708203E-1	9.728771E-1	9.846755E-1	9.845022E-1	9.788099E-1	9.769174E-1	9.932670E-1	9.399505E-1	9.672984E-1	1.001417E+0	1.032114E+0	1.003717E+0	9.957115E-1	1.025444E+0	1.021039E+0	9.903062E-1	1.006843E+0	1.006695E+0	9.910447E-1	9.708380E-1	9.818949E-1	1.005253E+0	9.847207E-1	9.956514E-1	1.036241E+0	9.920836E-1	1.013944E+0	9.624550E-1	9.878853E-1	9.645018E-1	9.923570E-1	1.000334E+0	9.838093E-1	9.786803E-1	1.022137E+0	1.013061E+0	9.887956E-1	9.975114E-1	1.012370E+0	9.958920E-1	1.031722E+0	1.008158E+0	1.011002E+0	1.017858E+0	9.561708E-1	9.990179E-1	1.007063E+0	1.011052E+0	1.041107E+0	9.810535E-1	9.803694E-1	1.015423E+0	9.997613E-1	9.813999E-1	1.002288E+0	1.017178E+0	9.329772E-1	9.898934E-1	1.013714E+0	9.770281E-1	1.005518E+0	9.604045E-1	9.976231E-1	1.001451E+0	1.002842E+0	1.002791E+0	9.880154E-1	9.734609E-1	1.009469E+0	1.010305E+0	9.828764E-1	9.698024E-1	9.945097E-1	1.012564E+0	9.794008E-1	9.548877E-1	9.902425E-1	1.022386E+0	1.011513E+0	1.021524E+0
5.605090E+2	1.047152E+0	1.039709E+0	1.020064E+0	1.029724E+0	1.070535E+0	1.054791E+0	1.047222E+0	1.058199E+0	9.771483E-1	9.936718E-1	1.023571E+0	1.012787E+0	1.005091E+0	1.007949E+0	9.921326E-1	1.037990E+0	1.007282E+0	9.996057E-1	1.007516E+0	1.035102E+0	1.062987E+0	9.903327E-1	9.990763E-1	1.064185E+0	1.030014E+0	1.042839E+0	1.062911E+0	1.055803E+0	1.036661E+0	1.024070E+0	1.026193E+0	1.057780E+0	9.616140E-1	9.918211E-1	1.053759E+0	1.056747E+0	1.081082E+0	1.047260E+0	1.041705E+0	1.002477E+0	1.022420E+0	1.021796E+0	1.030018E+0	1.022068E+0	1.016187E+0	9.950698E-1	1.045240E+0	9.738264E-1	1.027138E+0	1.056719E+0	1.050835E+0	1.071169E+0	9.998204E-1	9.911882E-1	9.778771E-1	1.026872E+0	9.907857E-1	1.000970E+0	1.043508E+0	1.045054E+0	1.038178E+0	9.978869E-1	1.019994E+0	1.070181E+0	9.995571E-1	1.052591E+0	1.009627E+0	1.054921E+0	1.026148E+0	9.912788E-1	1.013459E+0	1.016527E+0	1.030993E+0	9.680696E-1	1.001744E+0	9.886090E-1	1.058154E+0	1.024147E+0	1.005403E+0	1.042404E+0	1.029231E+0	9.821410E-1	1.021128E+0	1.033384E+0	9.940707E-1	1.022520E+0	1.012237E+0	1.022175E+0	1.036305E+0	1.017507E+0	1.020490E+0	1.063862E+0	9.636632E-1	1.001504E+0	1.024095E+0	9.951182E-1	9.655448E-1	9.956883E-1	1.035859E+0	1.004664E+0	1.004757E+0	1.051803E+0	9.945996E-1	1.067651E+0	1.026915E+0	1.040175E+0	1.026161E+0	9.783340E-1	1.026171E+0	1.048018E+0	1.029796E+0	9.913330E-1	1.060044E+0	1.032944E+0	1.018518E+0	1.007326E+0	1.025289E+0	1.043676E+0	1.006196E+0	9.930048E-1	1.021260E+0	1.001353E+0	1.021403E+0	9.658842E-1	1.042804E+0	9.879138E-1	1.040716E+0	9.938749E-1	9.899658E-1	1.016245E+0	9.757039E-1	9.804542E-1	1.053286E+0	1.034890E+0	9.853294E-1	1.059570E+0	9.852410E-1	1.007376E+0	1.013458E+0	1.032417E+0	9.935784E-1	1.036562E+0	1.013806E+0	9.744856E-1	1.038245E+0	1.059559E+0	9.959489E-1	9.950221E-1	9.826268E-1	1.048705E+0	1.023165E+0	9.839344E-1	1.056222E+0	1.000957E+0	9.973465E-1	1.028305E+0	9.971362E-1	1.039536E+0	9.979034E-1	1.046324E+0	1.034954E+0	1.022680E+0	1.040770E+0	1.065118E+0	1.060590E+0	1.032525E+0	1.021489E+0	9.966077E-1	1.069744E+0	9.968266E-1	1.121763E+0
5.610010E+2	1.061291E+0	1.006264E+0	9.912560E-1	9.964279E-1	9.820955E-1	9.718986E-1	9.934269E-1	1.032214E+0	1.031639E+0	9.939057E-1	1.020991E+0	9.916117E-1	9.888412E-1	9.989524E-1	1.016180E+0	9.867243E-1	9.765906E-1	1.013754E+0	9.945582E-1	1.030209E+0	1.003833E+0	1.028605E+0	1.055354E+0	1.000315E+0	1.024361E+0	9.966731E-1	1.003497E+0	1.051948E+0	1.028984E+0	9.933456E-1	1.031515E+0	9.682292E-1	1.033105E+0	1.016998E+0	9.842081E-1	1.014233E+0	9.876495E-1	1.021107E+0	1.007146E+0	9.956025E-1	9.700842E-1	1.042049E+0	9.677018E-1	9.754324E-1	9.886344E-1	9.560538E-1	1.027745E+0	1.042831E+0	9.981799E-1	9.459509E-1	9.847920E-1	1.018080E+0	9.725469E-1	1.009962E+0	9.972074E-1	1.007252E+0	1.026970E+0	1.004779E+0	1.025024E+0	1.012831E+0	9.779000E-1	1.028025E+0	9.510099E-1	9.906058E-1	9.828110E-1	9.373648E-1	1.028396E+0	9.999108E-1	9.729072E-1	1.019848E+0	1.017450E+0	1.017707E+0	1.020666E+0	1.017931E+0	1.011111E+0	1.023124E+0	1.005607E+0	9.683578E-1	9.794466E-1	1.003139E+0	9.885757E-1	1.019157E+0	9.904218E-1	9.691562E-1	1.013615E+0	9.747460E-1	9.810062E-1	1.028467E+0	1.008023E+0	1.016925E+0	1.024331E+0	1.005720E+0	1.010581E+0	9.850897E-1	9.874580E-1	9.770399E-1	1.025000E+0	1.038002E+0	9.852098E-1	1.039596E+0	9.864808E-1	1.036852E+0	1.012189E+0	9.706967E-1	1.015603E+0	1.001312E+0	1.000032E+0	1.046016E+0	9.890356E-1	1.005624E+0	1.021803E+0	1.012439E+0	1.025142E+0	1.041338E+0	9.842975E-1	1.007553E+0	1.024149E+0	1.014297E+0	1.014078E+0	1.031929E+0	9.700250E-1	1.032990E+0	9.784185E-1	1.030575E+0	1.010298E+0	1.004116E+0	1.031517E+0	9.406830E-1	1.014401E+0	1.035580E+0	1.024276E+0	1.031422E+0	1.019613E+0	9.885829E-1	1.039829E+0	1.008592E+0	1.034583E+0	1.005186E+0	1.022625E+0	9.880572E-1	9.715261E-1	1.005491E+0	9.873157E-1	1.051843E+0	1.024047E+0	1.000823E+0	9.611751E-1	9.844132E-1	1.040558E+0	9.635817E-1	1.019816E+0	1.032115E+0	9.808000E-1	9.996299E-1	1.011879E+0	9.991012E-1	9.943395E-1	1.051544E+0	9.844081E-1	9.948685E-1	9.955519E-1	9.916589E-1	1.031460E+0	1.010703E+0	1.008310E+0	1.029955E+0	1.014165E+0	9.974018E-1	1.028001E+0	1.025914E+0	1.042203E+0
