Photon Energy (eV)	#1	#2	#3	#4	#5	#6	#7	#8	#9	#10	#11	#12	#13	#14	#15	#16	#17	#18	#19	#20	#21	#22	#23	#24	#25	#26	#27	#28	#29	#30	#31	#32	#33	#34	#35	#36	#37	#38	#39	#40	#41	#42	#43	#44	#45	#46	#47	#48	#49	#50	#51	#52	#53	#54	#55	#56	#57	#58	#59	#60	#61	#62	#63	#64	#65	#66	#67	#68	#69	#70	#71	#72	#73	#74	#75	#76	#77	#78	#79	#80	#81	#82	#83	#84	#85	#86	#87	#88	#89	#90	#91	#92	#93	#94	#95	#96	#97	#98	#99	#100	#101	#102	#103	#104	#105	#106	#107	#108	#109	#110	#111	#112	#113	#114	#115	#116	#117	#118	#119	#120	#121	#122	#123	#124	#125	#126	#127	#128	#129	#130	#131	#132	#133	#134	#135	#136	#137	#138	#139	#140	#141	#142	#143	#144	#145	#146	#147	#148	#149	#150	#151	#152	#153	#154	#155	#156	#157	#158	#159	#160	#161	#162	#163	#164	#165	#166	#167	#168	#169	#170	#171	#172	
2.790010E+2	3.004479E-4	-2.111317E-3	-5.487388E-3	1.303057E-3	-4.704019E-3	-3.491217E-3	-6.153052E-3	-4.334301E-3	-2.715023E-3	1.470553E-9	-2.266472E-3	2.180596E-3	-2.376248E-3	1.390945E-3	-3.251973E-3	-1.411142E-3	-3.188372E-3	-3.579630E-3	-7.111241E-3	-2.175101E-3	-4.001852E-3	-6.800246E-3	-1.062619E-3	-3.903427E-4	-6.528172E-3	-5.511497E-3	-4.766338E-3	-2.741404E-3	6.764180E-4	-2.622123E-3	-1.763564E-3	-5.252102E-3	-7.900545E-3	-4.313337E-3	-4.122290E-3	-6.679525E-4	-1.087923E-2	-1.362617E-3	-6.592490E-3	-9.285004E-4	1.222868E-3	-7.953030E-3	-1.941837E-3	-6.606761E-3	-4.680724E-4	-7.588908E-3	2.028092E-3	-4.519444E-3	-3.971126E-3	-3.285382E-3	5.683701E-4	-3.906413E-3	-4.882637E-3	-8.932995E-3	-5.557804E-3	-8.120266E-3	-1.879399E-3	-4.547109E-3	2.390054E-3	-4.980295E-3	-3.625435E-3	-7.180185E-3	-3.086904E-3	1.657814E-3	-6.736914E-3	-5.823051E-3	-4.855513E-3	3.203308E-3	2.528463E-3	-3.593187E-4	-3.800915E-4	-2.268910E-3	-3.260181E-3	-9.818112E-3	-7.913074E-3	-1.008943E-2	-4.314361E-3	-4.533602E-3	-1.501509E-3	-4.167937E-3	-3.447732E-3	-7.774290E-3	-2.901628E-3	-9.642456E-4	-2.160302E-3	-4.954188E-3	-1.509062E-3	-5.098074E-3	-3.890225E-3	-1.224668E-3	-8.739554E-4	-3.138231E-3	-2.803357E-4	-5.630831E-3	-2.383471E-3	-2.567833E-3	-4.515569E-3	-5.149341E-3	2.772653E-3	-2.466063E-3	-3.981993E-3	-5.880014E-3	-5.607873E-3	-2.473482E-3	2.659252E-3	-2.566765E-3	-2.545919E-3	-8.693417E-3	-5.420268E-5	-5.886941E-3	-2.833567E-3	-3.946776E-3	-2.923288E-3	-8.058451E-3	-2.090280E-3	-4.943844E-3	-9.201045E-3	-4.664798E-3	-1.470318E-3	-1.893239E-3	4.910954E-4	-1.381556E-2	-1.527836E-3	-1.998941E-3	-1.535352E-3	-5.879638E-3	-2.486823E-3	-2.579207E-3	-6.830672E-3	-1.168886E-3	-3.946674E-3	-9.748926E-3	-5.675936E-3	-1.693834E-3	5.821272E-3	1.705412E-3	1.007024E-3	-1.226307E-2	1.067362E-3	-9.144817E-3	-6.211173E-3	-6.906820E-3	-1.819709E-3	-1.374272E-3	-1.423972E-3	9.430665E-9	-9.284761E-3	-2.120002E-3	-1.680728E-3	-4.850142E-3	-2.767971E-3	-3.837021E-3	-9.705448E-3	-6.933263E-3	-3.710681E-3	-4.095682E-3	4.234004E-3	-4.638534E-3	-6.810833E-3	8.402527E-3	-2.868664E-3	3.606568E-3	-4.841490E-3	-1.549562E-3	-4.508852E-3	-8.270927E-3	-1.226243E-8	-1.451126E-3	5.750533E-4	-9.113874E-4	-1.013395E-2	-8.116883E-3
2.795040E+2	7.736674E-3	-6.042689E-3	-1.048145E-3	-4.252121E-3	-5.283970E-3	-1.163733E-3	1.374002E-3	-7.630782E-3	3.550413E-3	-4.339337E-3	-3.796337E-3	-5.178869E-3	-5.360400E-3	-5.100132E-3	-2.827786E-3	-5.644545E-3	-3.188267E-4	-1.467081E-3	5.306933E-4	-3.954773E-3	4.621854E-3	1.942922E-3	-6.096126E-3	-5.408821E-3	3.264101E-3	7.289414E-3	-1.354071E-3	1.848846E-3	6.764180E-4	-4.548562E-3	-7.205474E-3	1.641390E-4	-3.981377E-3	-2.270170E-3	3.398100E-3	-1.214562E-4	-9.890074E-4	-3.720954E-3	-5.121453E-3	-9.284764E-4	-5.380637E-3	5.435534E-3	-5.026046E-3	-9.940954E-3	-1.872303E-3	3.097630E-4	-2.535094E-3	-1.172769E-2	-3.971122E-3	-3.823015E-3	-4.547042E-4	4.111842E-4	-9.647642E-3	-9.925488E-4	-1.010480E-3	-9.171832E-3	-5.698750E-3	-8.366683E-3	-2.390066E-3	-3.785024E-3	3.107534E-3	-5.805238E-3	-4.097167E-3	1.648001E-8	5.995867E-3	-3.327469E-3	-7.186143E-3	-2.802905E-3	1.444837E-3	-9.598788E-3	2.063418E-3	-3.839719E-3	1.168724E-3	-4.968948E-3	-1.055062E-3	6.936792E-4	-3.305822E-3	-2.045616E-3	-5.229424E-3	-4.688980E-3	-5.140301E-3	-4.997801E-3	-5.319671E-3	-5.303321E-3	-9.721347E-3	-3.905087E-3	-3.018094E-3	-2.988533E-3	-4.526806E-3	-2.326840E-3	1.546228E-3	-4.315093E-3	-7.849935E-4	-4.665528E-3	-8.512395E-3	-9.554928E-4	-1.806214E-3	1.221536E-8	-6.512531E-3	4.315669E-3	-8.137151E-3	-1.037321E-2	-2.002824E-3	-2.979450E-3	-7.773198E-3	-3.103974E-3	-9.473257E-4	-5.918897E-3	3.360305E-3	-3.942619E-3	-1.906205E-3	-6.637717E-3	-4.501839E-3	-1.074453E-3	-4.940693E-3	-4.308227E-3	-2.748357E-3	-4.664958E-4	-1.470350E-3	-2.425706E-3	-4.560171E-3	-1.048513E-3	-1.527839E-3	-1.418591E-3	6.755380E-4	-1.702000E-3	-4.568873E-3	-2.579210E-3	5.088158E-3	-5.044659E-3	-2.043827E-3	7.665198E-3	-8.452178E-3	-1.421639E-2	3.725616E-3	-1.999448E-3	-3.222417E-3	-1.662783E-3	-6.276980E-5	-6.741778E-3	-3.822279E-3	-3.219266E-3	-7.600017E-3	-2.498602E-3	-6.229779E-3	-1.814901E-3	-6.517785E-3	-1.504492E-3	-6.896705E-3	-7.578331E-3	-1.143297E-3	-7.445023E-3	-6.040442E-3	-2.998183E-3	-1.281925E-3	-8.396115E-3	-6.653427E-3	-3.667639E-3	-4.895281E-3	-4.845239E-3	-2.238945E-3	1.512472E-3	-1.121793E-3	-6.779283E-3	-5.057237E-3	-3.028740E-3	-2.229532E-9	-1.451132E-3	-8.296891E-3	-8.088600E-3	7.049725E-3	1.959251E-3
2.800050E+2	4.356575E-3	1.164836E-3	-4.932451E-4	-5.486578E-3	-1.224354E-3	-1.163765E-3	1.911645E-3	3.906956E-3	-8.353801E-4	1.084819E-3	7.932348E-4	7.086905E-3	-2.873627E-3	-4.636500E-3	5.655391E-4	-1.411154E-3	-4.336185E-3	-1.467068E-3	1.008313E-3	3.757033E-3	-2.987290E-3	-1.142768E-4	-3.075984E-3	-3.903271E-3	-7.680198E-3	-7.111707E-4	-3.303915E-3	-5.610310E-3	-2.133329E-3	-6.956698E-4	-3.577548E-3	-1.805396E-3	4.416851E-3	-5.845700E-3	2.395366E-3	-6.679618E-3	9.890104E-4	1.939073E-3	7.627492E-4	-3.386356E-3	-2.629168E-3	-7.438341E-4	-3.483958E-3	4.507388E-3	9.361610E-4	-6.195021E-3	2.940724E-3	-1.430182E-3	-1.805030E-3	-3.822999E-3	-6.081566E-3	9.663236E-3	4.117894E-3	-9.925669E-4	-5.052699E-4	-3.388319E-3	-2.425000E-3	-1.818802E-4	1.792520E-3	3.984103E-4	-4.661298E-3	-4.888622E-3	9.541279E-4	-1.657838E-3	-3.098967E-3	4.658430E-3	2.136418E-3	-2.802901E-3	-2.889675E-3	-6.826941E-3	3.040854E-3	-2.268920E-3	-2.152948E-3	-4.430143E-3	1.582609E-3	-4.981639E-3	3.754056E-3	-6.523921E-3	8.284452E-4	-3.125967E-3	-1.191059E-3	-3.331866E-3	-9.672110E-4	8.953450E-4	5.940814E-3	-5.478760E-3	-6.539214E-3	-8.789788E-4	-7.073419E-5	-1.775746E-3	9.411868E-4	-4.315086E-3	2.242796E-3	6.435294E-4	-4.426423E-3	1.194169E-4	-1.806231E-4	-3.604548E-3	-1.289609E-3	-6.781749E-3	2.250659E-3	-4.382260E-3	-4.577866E-3	-7.026973E-3	2.659199E-3	-5.790062E-3	4.381370E-3	-3.699325E-4	-5.419804E-3	-3.456544E-3	-5.151937E-3	-7.175890E-4	3.391008E-3	3.760631E-3	1.900298E-3	1.412516E-3	5.317497E-3	-5.189616E-3	2.764216E-3	-1.360739E-3	4.279477E-3	-4.934016E-4	-3.321456E-4	3.224597E-4	-2.640800E-3	-4.951276E-3	4.279677E-3	1.199639E-3	-4.321474E-3	-6.152052E-4	5.567588E-3	-3.721239E-4	9.871176E-3	-6.593983E-3	2.677785E-3	-9.409102E-3	1.007027E-3	-4.156976E-3	-7.973764E-3	1.068001E-3	4.777728E-4	-2.165701E-3	2.033807E-3	-1.936430E-3	-5.695776E-3	-3.024797E-3	-2.644006E-3	3.419317E-3	-3.767094E-3	-1.030651E-3	-2.768021E-3	1.832603E-3	4.954533E-3	-8.057530E-3	-6.746727E-4	-1.638268E-3	-4.475954E-3	-1.725951E-3	3.245776E-3	-2.085309E-3	-5.387510E-3	-1.105220E-3	4.723559E-4	-1.549533E-3	-6.153955E-3	-8.270933E-3	-2.193013E-3	-2.495943E-3	-6.078946E-3	-9.113623E-4	-8.812146E-4	-3.078816E-3
2.805050E+2	-2.403624E-3	-6.042685E-3	6.162094E-5	6.858778E-4	-3.544135E-3	-5.236795E-3	2.986648E-4	-1.037788E-3	1.044220E-3	-1.084813E-3	-2.266472E-3	-3.339007E-3	-3.868502E-4	-6.027455E-3	4.807266E-3	3.880648E-3	7.141947E-3	1.173636E-4	6.739754E-3	1.384145E-3	-2.480030E-3	9.143146E-4	-5.089428E-3	-1.895871E-3	-1.920063E-3	-5.511523E-3	-3.791169E-4	-2.167624E-3	-4.943007E-3	-1.177285E-3	6.852759E-3	1.148911E-3	-1.741883E-3	2.837561E-4	-4.122305E-3	9.715730E-4	-4.945218E-4	2.882466E-3	-5.611766E-3	-1.911641E-3	-4.280029E-3	4.405651E-3	-1.427852E-3	6.174527E-3	4.680737E-4	3.562108E-3	-7.098293E-4	1.144399E-4	-1.805149E-4	-3.822989E-3	-1.477754E-3	-6.990425E-3	-7.529870E-3	-4.962510E-4	5.557796E-3	-1.811018E-3	-1.333764E-3	-2.910148E-3	-2.987539E-3	3.386617E-3	-5.179008E-4	1.986007E-3	-2.076674E-3	7.183919E-3	5.389439E-4	1.663719E-3	5.049764E-3	-4.004455E-4	3.612070E-3	3.336484E-3	1.085920E-4	6.632202E-3	-1.045671E-3	-2.274917E-3	-1.055072E-3	-4.414294E-4	1.736938E-3	3.925428E-3	-1.035684E-4	2.083984E-3	3.886582E-3	-5.553102E-4	4.352454E-3	2.135099E-3	-1.080145E-3	2.914241E-3	-5.030256E-4	3.867527E-3	3.748722E-3	-4.531207E-3	-8.134580E-3	-1.961398E-3	2.242787E-3	3.056748E-3	1.191772E-3	-9.554535E-4	-1.806227E-3	-2.059772E-3	2.772642E-3	-2.005754E-8	-2.943202E-3	-5.879990E-3	-3.547855E-3	5.621749E-4	-4.704790E-3	-3.103964E-3	-1.480216E-3	-1.479705E-3	-2.493130E-3	-1.026171E-3	3.194212E-3	-6.637704E-3	-1.870944E-3	-5.372315E-3	2.470326E-3	-2.401275E-3	2.091130E-3	-1.096234E-2	-1.999660E-3	-4.023102E-3	-9.611306E-3	-7.154497E-3	-6.908552E-3	-2.579270E-3	3.439174E-3	6.189205E-4	-4.048325E-4	-3.119030E-3	1.951656E-3	-9.474112E-3	7.470493E-3	-3.051203E-3	2.652886E-3	2.661789E-3	-7.276581E-3	1.705434E-3	1.006994E-3	-1.039255E-3	-2.888121E-3	-7.342529E-4	4.777961E-4	-8.487171E-3	-1.338008E-3	-2.498664E-3	7.119721E-3	-6.049615E-3	1.229788E-3	-3.350934E-3	-1.159098E-3	-1.576316E-3	-2.768031E-3	-3.321606E-3	1.289550E-3	-5.246776E-3	4.182996E-3	2.047441E-4	-6.653241E-4	3.613710E-3	-5.852850E-4	1.226645E-3	5.317515E-3	-4.770022E-3	1.535080E-3	-5.036047E-3	-5.605578E-3	1.164904E-4	-3.837719E-3	-3.018347E-3	2.053663E-3	8.316473E-3	-3.524869E-3	6.997318E-3
2.810050E+2	-3.079639E-3	-3.421781E-3	6.165608E-3	-1.783127E-3	5.155346E-4	-2.327475E-3	-3.464846E-3	3.357531E-3	-9.606932E-3	-4.339337E-3	-1.756499E-3	-8.858841E-4	6.079005E-4	9.273167E-4	-3.676164E-3	-9.348748E-3	-2.040541E-3	3.286230E-3	-1.379785E-3	-5.141187E-3	1.578206E-3	2.971545E-3	4.474206E-3	2.118929E-3	-4.224088E-3	1.422328E-3	-2.816506E-3	-8.479237E-3	-3.069883E-3	-2.140520E-3	-3.124069E-3	-7.221641E-3	-6.221547E-5	-2.270167E-3	-1.114023E-4	-2.307478E-3	-4.945218E-4	-7.022696E-3	1.743448E-3	1.529298E-3	6.725720E-4	-1.773705E-3	2.684352E-3	3.951697E-3	-9.361569E-4	4.491404E-3	-2.535094E-3	-1.430223E-3	-2.888099E-3	-3.285362E-3	2.102935E-3	-2.672839E-3	2.000135E-3	1.985111E-3	-1.010514E-3	-2.336852E-4	-3.516287E-3	4.728974E-3	-1.195044E-3	-1.991961E-4	2.071683E-3	-7.638636E-4	-2.581784E-3	-3.315670E-3	-3.705276E-3	6.654889E-3	-5.438157E-3	-7.007292E-3	-3.431480E-3	1.026742E-4	-5.755893E-3	2.967069E-3	-4.367380E-3	2.035469E-3	1.582625E-3	4.666346E-3	-2.801388E-4	-6.026360E-3	8.284309E-4	2.083968E-3	5.014654E-4	5.553279E-4	5.319660E-3	-2.823833E-3	-2.700368E-3	-3.380492E-3	-7.042255E-3	2.812738E-3	-5.163371E-3	-2.326817E-3	2.151288E-3	5.099657E-3	-2.803514E-3	-8.044250E-4	1.702491E-3	-3.642752E-3	2.528748E-3	-3.490103E-9	-8.833781E-3	-6.165220E-3	-1.904429E-3	4.104911E-3	2.117266E-3	-9.556689E-4	-1.636472E-3	5.491630E-3	-4.144561E-3	-5.364028E-3	4.335831E-3	5.292838E-3	1.803167E-3	-2.332179E-3	-8.185159E-4	-5.372308E-4	-9.501362E-4	1.412536E-3	1.553417E-3	1.107906E-3	-9.410070E-4	-2.425680E-3	-7.716894E-4	-4.934287E-4	-4.517143E-3	-7.221909E-3	-1.535335E-3	1.547296E-4	5.320647E-3	-6.358034E-3	-3.694147E-3	-2.276283E-3	-6.483789E-3	1.637221E-3	-1.789148E-3	4.839592E-4	-2.561370E-3	4.880962E-3	2.215379E-3	-4.156953E-3	-1.758044E-3	-1.935785E-3	-4.777968E-4	-5.852638E-5	-1.819721E-3	3.123284E-3	-1.423926E-3	3.629757E-3	-7.071197E-3	-2.735297E-4	3.535306E-3	-4.850146E-3	-3.851168E-3	7.502289E-3	-2.986316E-3	-5.808961E-3	-3.103511E-3	2.662207E-3	-1.209864E-4	-2.211370E-3	3.724708E-4	-8.709217E-3	-9.795336E-4	3.083043E-3	-5.372860E-3	1.936953E-3	4.813481E-3	1.689134E-3	-2.192979E-3	-4.063018E-4	2.792999E-3	-7.063257E-3	-8.812227E-4	9.516343E-3
2.815020E+2	-9.839846E-3	7.061950E-3	-4.377565E-3	5.623744E-3	6.314994E-3	5.818548E-4	-7.765908E-4	-4.883452E-4	2.297340E-3	2.169704E-3	-2.776438E-3	-2.725758E-3	2.099941E-3	-5.100155E-3	-1.979485E-3	-2.469450E-3	7.141951E-3	-6.748516E-3	-3.767889E-3	-3.361543E-3	1.578215E-3	-5.771614E-3	5.480903E-3	1.617066E-3	-1.920077E-3	-7.644996E-3	-3.791410E-3	5.291536E-3	6.295837E-3	4.120464E-3	8.213239E-3	-3.282621E-4	-2.861604E-3	2.326935E-3	-4.122296E-3	-1.214472E-3	-6.428614E-3	9.957403E-4	-3.650401E-3	-4.369515E-3	1.773157E-3	-7.953036E-3	6.282204E-4	-3.272490E-3	-4.212660E-3	-1.548593E-4	-6.185681E-3	4.748258E-3	-1.804851E-4	2.090684E-3	4.660624E-3	-3.289613E-3	-4.353179E-3	-6.451603E-3	-2.526259E-3	3.446712E-3	-7.881221E-4	2.000726E-3	2.390076E-3	1.593711E-3	1.553777E-3	1.069419E-3	1.459272E-3	-3.315650E-3	-1.280043E-3	-2.329204E-3	-1.359533E-3	-7.007274E-3	-3.973249E-3	1.488554E-3	-2.823655E-3	3.490668E-4	-3.813818E-3	-2.813719E-3	-1.582624E-3	-1.576469E-3	-7.844158E-4	4.920605E-3	-5.695269E-4	5.210188E-4	-3.447756E-3	3.887164E-3	-8.221294E-3	-3.443719E-3	1.207964E-8	3.963331E-3	3.521124E-3	-4.570732E-3	3.748749E-3	2.632995E-3	-2.688884E-4	2.157533E-3	-3.308120E-3	-1.287021E-3	1.191712E-3	-5.255112E-3	-5.057469E-3	5.149409E-4	-4.771545E-3	-1.109742E-2	6.405821E-3	-2.385298E-3	9.842404E-3	-2.979438E-3	-4.091134E-3	1.193758E-4	-4.677461E-3	5.179063E-3	-5.419792E-4	-4.428689E-3	-2.369874E-3	3.587949E-3	-1.344714E-3	-5.372439E-4	1.900225E-3	-4.943844E-3	-5.437011E-3	1.632676E-3	3.293533E-3	-2.958177E-3	-1.403047E-4	6.164938E-5	-9.299888E-4	-8.382532E-3	-3.746204E-3	5.724918E-3	-4.048353E-3	-3.658878E-3	-8.712643E-3	4.921624E-3	4.933502E-4	-2.381379E-3	-4.565404E-3	1.028409E-3	-4.657013E-3	-4.116495E-3	-5.035053E-3	-2.909855E-3	-6.278600E-3	4.672539E-3	-4.777909E-4	-1.112117E-3	-3.746504E-3	-1.936434E-3	1.779932E-4	-1.209927E-3	6.763554E-4	-2.735436E-3	-4.810352E-3	-1.030641E-3	-2.768014E-3	-4.867885E-3	-5.429530E-4	-5.808947E-3	-1.281891E-3	2.047816E-4	2.600885E-3	7.011952E-4	-4.416407E-3	-8.709210E-3	-3.498260E-4	-4.246465E-3	-2.184569E-3	-8.522512E-3	4.813491E-3	-3.552986E-3	-2.192969E-3	1.160703E-4	1.314362E-3	1.139117E-4	4.405925E-4	-1.315493E-2
2.820060E+2	3.680556E-3	-2.766543E-3	-2.712848E-3	-2.400382E-3	5.155028E-4	-9.309895E-3	1.373976E-3	1.159908E-3	-3.968096E-3	-5.424439E-4	-7.365905E-4	-1.499174E-3	-8.842073E-4	1.854600E-3	5.655753E-4	-4.057014E-3	-1.466640E-3	-5.164062E-3	5.306788E-4	1.977372E-3	-6.030931E-3	-2.171510E-3	-2.572702E-3	-3.903152E-4	-1.920063E-3	-4.444757E-3	5.470452E-3	-4.462826E-4	-2.601580E-3	7.491923E-4	5.038785E-5	-2.790184E-3	4.976486E-4	5.391640E-3	-7.631801E-3	4.250501E-4	3.956081E-3	2.882454E-3	3.704889E-3	1.037754E-3	2.323479E-3	-2.803567E-3	-3.998094E-4	-3.828191E-3	4.212698E-3	7.743825E-4	-1.166176E-3	1.144148E-3	9.025314E-4	7.466796E-3	-4.546933E-3	-2.672794E-3	-1.706010E-3	-2.481394E-3	-4.109405E-9	3.446750E-3	-5.698757E-3	2.546384E-3	-1.792528E-3	-1.992070E-4	-2.589617E-3	2.444318E-3	-5.611375E-5	-4.973471E-3	-1.886322E-3	-5.823042E-3	6.215059E-3	3.803982E-3	-6.140498E-3	-2.669162E-3	1.574723E-3	2.443464E-3	2.275974E-3	2.035433E-3	-3.692781E-3	-1.008937E-3	-5.322921E-3	4.422786E-4	1.014816E-2	2.604947E-3	2.194031E-3	1.110615E-3	-6.770481E-3	3.994716E-3	1.080136E-3	-6.527857E-3	-5.030072E-4	2.285348E-3	-1.343872E-3	-1.224493E-4	3.361403E-3	-3.138249E-3	2.242975E-4	-1.287071E-3	2.723946E-3	-3.105263E-3	4.154320E-3	-3.089563E-3	3.352981E-3	-1.849595E-3	-5.540148E-3	8.598140E-3	-7.152911E-3	4.609689E-3	-4.091149E-3	-3.641183E-3	-1.480190E-3	-9.248256E-4	-3.956469E-3	3.834633E-3	-5.152891E-5	1.973405E-3	2.338642E-3	-5.461838E-9	-2.090325E-3	5.861995E-3	-6.512421E-3	8.979799E-3	-4.646223E-3	-2.958183E-3	-5.822944E-3	-4.934151E-4	2.656975E-4	4.965028E-3	2.333688E-3	-2.630353E-3	1.156936E-4	6.598101E-4	5.715484E-3	6.029004E-3	-9.020939E-3	-2.381383E-3	-1.233909E-3	4.295162E-3	-2.561351E-3	-9.409160E-4	-8.055725E-4	-1.662783E-3	4.457786E-3	1.067987E-3	-3.344491E-3	4.155778E-3	1.552103E-3	-3.623050E-3	-2.491898E-3	-1.814883E-3	5.103584E-3	-2.735410E-4	-1.159117E-3	-4.849923E-4	4.272347E-3	5.440551E-3	3.732875E-3	1.330438E-2	-1.889044E-3	-5.938742E-3	-5.020328E-3	-1.725972E-3	3.724796E-4	-1.533292E-3	3.428420E-3	-6.864141E-3	2.066482E-3	4.842314E-3	-6.702072E-4	2.213339E-3	6.030725E-3	-1.451107E-3	-5.339582E-3	-1.218986E-2	4.406006E-4	-8.116898E-3
2.825030E+2	-5.107746E-3	6.406744E-3	-1.603072E-3	3.154770E-3	3.995224E-3	1.163740E-2	-1.314256E-3	1.159878E-3	2.297290E-3	5.423972E-4	5.382854E-3	9.540308E-4	1.105239E-3	1.854591E-3	1.838073E-3	7.584835E-3	3.124578E-3	1.173655E-2	5.304457E-5	1.977401E-3	1.070881E-3	3.485812E-3	-1.565986E-3	3.624454E-3	1.017631E-2	4.622571E-3	2.058204E-3	2.422655E-3	-7.284383E-4	-2.140488E-3	-4.031039E-3	1.296611E-2	2.737197E-3	-2.269881E-4	2.896782E-3	-2.854031E-3	9.395697E-3	3.825793E-3	5.175929E-3	3.004011E-3	-9.783183E-4	2.345871E-3	4.226452E-3	6.174595E-4	1.872281E-3	-2.478014E-3	3.853365E-3	9.382155E-3	-1.805182E-4	6.391558E-3	-2.500812E-3	4.728853E-3	6.235680E-3	3.970193E-3	-5.052452E-4	2.920964E-3	6.305046E-3	3.638080E-4	-3.585085E-3	-3.187399E-3	-3.107532E-3	5.194158E-3	9.541310E-4	-2.763053E-3	4.176884E-3	2.162888E-3	3.884372E-3	6.807065E-3	5.237472E-3	5.646330E-3	-1.357482E-3	-4.886900E-3	3.936766E-3	6.345864E-3	1.582625E-3	4.098790E-3	5.266871E-3	-2.543229E-3	-1.967527E-3	-5.210026E-4	-2.319402E-3	-2.221218E-3	1.160653E-2	-9.642532E-4	2.196299E-8	4.487917E-3	7.545251E-3	-3.515917E-3	-2.617045E-3	5.388454E-3	9.411868E-4	-2.549802E-3	3.252044E-3	1.126169E-3	1.191744E-3	2.269243E-3	4.154343E-3	-5.149510E-4	1.031695E-3	7.398275E-3	5.886476E-3	-3.883058E-4	4.177309E-3	5.115635E-3	1.063701E-2	1.731069E-3	-9.473484E-4	4.624122E-3	2.384740E-3	5.292835E-3	-5.154588E-5	3.587953E-3	7.600568E-3	5.372284E-3	-1.520196E-3	-5.579515E-3	1.015707E-3	-1.516103E-3	6.469215E-4	7.158788E-3	-3.928724E-3	8.943152E-3	4.450713E-3	9.027532E-4	-2.088064E-3	-7.736322E-4	-4.048198E-4	1.307595E-2	3.206259E-3	-6.152727E-5	6.836171E-3	2.976742E-3	2.097603E-3	4.839615E-3	3.201691E-3	-9.408966E-4	-1.409828E-3	1.330229E-2	5.022790E-4	4.672792E-4	7.644539E-3	2.575434E-3	2.997182E-3	-8.120482E-4	2.847881E-3	3.629771E-3	1.008410E-2	2.188354E-3	1.396727E-2	1.315598E-2	8.604903E-3	-1.775339E-3	5.565356E-3	-1.311707E-3	4.182963E-3	3.890921E-3	8.044597E-3	1.672022E-3	8.513501E-4	2.882626E-3	-4.128072E-3	4.653663E-3	3.129248E-3	4.261278E-3	9.748861E-4	1.269758E-2	-3.837725E-3	-2.495924E-3	4.271716E-3	9.341741E-3	-8.811904E-4	6.997302E-3
2.830060E+2	4.356603E-3	5.751486E-3	9.495034E-3	3.154758E-3	3.415223E-3	1.047363E-2	6.750458E-3	3.906943E-3	7.936168E-3	6.509009E-3	7.422720E-3	3.407161E-3	8.068251E-3	1.483679E-2	3.958955E-3	1.287657E-2	-6.057910E-3	3.286218E-3	3.396432E-3	5.536654E-3	6.650948E-3	5.543054E-3	9.507737E-3	4.628172E-3	1.075226E-2	1.048963E-2	8.882701E-3	9.881822E-3	5.827563E-3	8.454991E-3	4.585308E-3	3.118423E-3	8.895927E-3	6.924031E-3	1.141985E-2	1.244839E-2	4.945106E-3	-4.192586E-4	9.589094E-3	5.953426E-3	7.276077E-3	9.040116E-3	4.740478E-3	8.397324E-3	-2.220766E-8	7.279144E-3	4.309692E-3	3.718541E-3	1.227436E-2	2.090710E-3	7.729841E-3	4.728812E-3	1.576563E-2	1.439206E-2	5.557780E-3	1.291069E-2	1.503503E-2	6.365928E-3	5.377611E-3	6.972383E-3	7.768790E-3	7.944007E-3	8.531112E-3	7.183932E-3	5.995826E-3	2.162839E-3	1.553734E-3	6.206464E-3	3.612060E-3	8.880168E-3	3.529534E-3	8.726462E-4	7.258536E-3	1.388907E-2	1.055075E-2	8.639093E-3	3.249794E-3	1.238442E-2	-2.433480E-3	5.209969E-3	8.964171E-3	1.332738E-2	2.901636E-3	6.474211E-3	8.641178E-3	1.288090E-2	8.048283E-3	8.086622E-3	1.011458E-2	4.286278E-3	3.361307E-4	1.216067E-2	-7.849628E-4	8.848428E-3	7.320624E-3	1.409325E-2	2.528692E-3	1.390323E-2	1.147749E-2	1.664612E-2	7.963966E-3	1.658603E-2	6.752351E-3	6.127514E-3	6.341286E-3	1.086387E-2	1.184165E-2	1.294762E-2	2.384710E-3	4.320658E-3	7.367279E-3	1.112266E-2	-1.870918E-3	6.446784E-3	5.320781E-3	1.348966E-2	1.392108E-2	1.107897E-2	3.822888E-3	1.088604E-2	2.006457E-2	1.449402E-2	1.102709E-2	1.541100E-2	5.097354E-3	9.438331E-3	2.197684E-3	3.358955E-3	7.597379E-3	7.690044E-3	1.127626E-3	5.655853E-3	7.094910E-3	9.195275E-3	1.629948E-3	9.115050E-3	5.236446E-3	1.454938E-2	1.293387E-2	1.128083E-2	5.733423E-3	1.521839E-2	9.740868E-3	1.155622E-2	7.119756E-3	6.654585E-3	8.423925E-3	4.650264E-3	1.970516E-3	8.245234E-3	3.189252E-3	6.471431E-3	3.732846E-3	2.286099E-2	3.575766E-3	1.310615E-2	2.056534E-3	7.982539E-3	1.186573E-2	1.337047E-2	7.206615E-3	4.130102E-3	6.317546E-3	1.239639E-2	1.139397E-2	6.407043E-3	8.223695E-3	1.265381E-2	8.707625E-3	1.139234E-2	8.371532E-3	6.997318E-3
2.835020E+2	8.412714E-3	1.754562E-2	8.940131E-3	2.290650E-2	2.081370E-2	2.327473E-2	1.535282E-2	1.764241E-2	1.545466E-2	1.735735E-2	9.972475E-3	1.996595E-2	1.254449E-2	1.437316E-2	1.795664E-2	2.187257E-2	2.378523E-2	2.388388E-2	1.676976E-2	2.273982E-2	1.476734E-2	1.274328E-2	1.001108E-2	1.065041E-2	6.720184E-3	1.635672E-2	1.180751E-2	1.332452E-2	1.285185E-2	1.905049E-2	7.306246E-3	1.198140E-2	1.617440E-2	2.173687E-2	1.743616E-2	1.190186E-2	9.890234E-3	2.127766E-2	1.204087E-2	1.971733E-2	1.938246E-2	1.830914E-2	4.226468E-3	1.451012E-2	1.029770E-2	1.564242E-2	1.389240E-2	1.144163E-2	2.418773E-2	2.359505E-2	1.591434E-2	2.323286E-2	1.364786E-2	1.488833E-2	1.212610E-2	1.501381E-2	1.667192E-2	2.055293E-2	1.314534E-2	2.012032E-2	8.286711E-3	1.848512E-2	2.216959E-2	1.381517E-2	1.266540E-2	1.563906E-2	1.262430E-2	2.242334E-2	2.040815E-2	2.782111E-2	1.037142E-2	1.082098E-2	1.999162E-2	1.927707E-2	1.740873E-2	6.368910E-3	1.434383E-2	1.138927E-2	1.946798E-2	1.875587E-2	1.347757E-2	9.440260E-3	8.221298E-3	2.259074E-2	1.998270E-2	1.445457E-2	2.313881E-2	1.968918E-2	1.902675E-2	4.837359E-3	1.304220E-2	1.157223E-2	8.803031E-3	9.331050E-3	2.008918E-2	1.355582E-2	5.238040E-3	1.544798E-2	9.736487E-3	6.781739E-3	1.056093E-2	1.758456E-2	1.499255E-2	1.371668E-2	1.922840E-2	9.789414E-3	1.823608E-2	1.405738E-2	1.067703E-2	2.036121E-2	1.432236E-2	1.973375E-2	2.128157E-2	2.686148E-2	2.014286E-2	2.365984E-2	1.015706E-2	2.839717E-2	9.116056E-3	1.834062E-2	1.501334E-2	7.832932E-3	1.162497E-2	2.527664E-2	1.725728E-2	1.268763E-2	1.416924E-2	1.901416E-2	1.073395E-2	1.876367E-2	1.127618E-2	1.570241E-2	5.984415E-3	8.106431E-3	1.577562E-2	2.128813E-2	1.611217E-2	3.263218E-2	7.283120E-3	7.075537E-3	1.624462E-2	1.732555E-2	1.503943E-2	2.279998E-2	1.139157E-2	1.209919E-2	1.672489E-2	1.634430E-2	1.396724E-2	1.697543E-2	1.293747E-2	1.832610E-2	1.289516E-3	1.386651E-2	1.025500E-2	1.187745E-2	1.131083E-2	1.186597E-2	2.192236E-2	1.944235E-2	1.161453E-2	1.512436E-2	7.911688E-3	1.588285E-2	1.797444E-2	2.737554E-2	1.480260E-2	1.474344E-2	1.684029E-2	2.164552E-2	1.101510E-2	1.959248E-2
2.840000E+2	2.666529E-2	2.278756E-2	2.281280E-2	2.228928E-2	2.835305E-2	2.909348E-2	2.986931E-2	2.203770E-2	2.923853E-2	2.983293E-2	2.119146E-2	3.161839E-2	2.647052E-2	3.431011E-2	2.347090E-2	2.822266E-2	3.755896E-2	2.177126E-2	2.632219E-2	3.934978E-2	3.810210E-2	3.537266E-2	2.058144E-2	2.921889E-2	2.976079E-2	3.342459E-2	2.496913E-2	3.168553E-2	2.409073E-2	2.723788E-2	2.227146E-2	2.379859E-2	3.297083E-2	3.450663E-2	2.646061E-2	2.064610E-2	3.115417E-2	3.872961E-2	2.675138E-2	3.397272E-2	2.598592E-2	2.551835E-2	2.735766E-2	2.784705E-2	2.668042E-2	2.865197E-2	3.214519E-2	4.078949E-2	2.960294E-2	3.165920E-2	2.409885E-2	4.482098E-2	2.847228E-2	4.119106E-2	3.486256E-2	2.920966E-2	2.103695E-2	3.255732E-2	2.330304E-2	2.908482E-2	2.537806E-2	1.802681E-2	2.823116E-2	3.868258E-2	3.994985E-2	3.760026E-2	4.117464E-2	3.143269E-2	2.636805E-2	2.597324E-2	3.334062E-2	3.700084E-2	3.383199E-2	2.574267E-2	3.692759E-2	2.169224E-2	2.896783E-2	3.179048E-2	3.158362E-2	3.490673E-2	2.871040E-2	2.554422E-2	2.901631E-2	2.321063E-2	3.996543E-2	3.019142E-2	3.018110E-2	3.076435E-2	3.621445E-2	2.963654E-2	3.179877E-2	2.510589E-2	3.302534E-2	3.684159E-2	2.315367E-2	2.430493E-2	2.745465E-2	3.038104E-2	3.178880E-2	1.911218E-2	3.185594E-2	3.505813E-2	1.550754E-2	2.788300E-2	3.150185E-2	2.859223E-2	2.889354E-2	2.238088E-2	3.506626E-2	2.619416E-2	3.101463E-2	3.426502E-2	2.864823E-2	3.169660E-2	2.641380E-2	3.192312E-2	3.220373E-2	4.676495E-2	2.605424E-2	3.165233E-2	2.890421E-2	3.669760E-2	3.494134E-2	2.701759E-2	3.052261E-2	2.893393E-2	3.446877E-2	3.790830E-2	2.641667E-2	3.149840E-2	3.347614E-2	4.115377E-2	4.096540E-2	3.914050E-2	3.201695E-2	4.034154E-2	2.275838E-2	3.762053E-2	2.197498E-2	3.471013E-2	3.296700E-2	3.839716E-2	1.937469E-2	3.348159E-2	3.008084E-2	3.448278E-2	2.502584E-2	2.803839E-2	3.274485E-2	2.352313E-2	2.701823E-2	2.760374E-2	2.999862E-2	2.848254E-2	2.482797E-2	3.952329E-2	3.145259E-2	3.516643E-2	3.676777E-2	3.269018E-2	2.861663E-2	2.768919E-2	1.641377E-2	3.215312E-2	3.661909E-2	3.052084E-2	4.221487E-2	2.519153E-2	3.384483E-2	4.112647E-2	1.630241E-2	3.470666E-2
2.841010E+2	2.463719E-2	3.916828E-2	2.836178E-2	2.969622E-2	2.951300E-2	4.247647E-2	2.879401E-2	3.742142E-2	2.798548E-2	3.146023E-2	2.578110E-2	3.652472E-2	2.945465E-2	3.616468E-2	3.153014E-2	2.981019E-2	3.296773E-2	3.391860E-2	2.727744E-2	2.333308E-2	2.998566E-2	2.868671E-2	2.662158E-2	2.871704E-2	3.724892E-2	2.702415E-2	2.643151E-2	1.963611E-2	2.924188E-2	3.542530E-2	3.043436E-2	3.660058E-2	2.793192E-2	2.990953E-2	3.648781E-2	2.829729E-2	3.263772E-2	3.354120E-2	3.606803E-2	3.397272E-2	3.589112E-2	3.890699E-2	2.941377E-2	4.007261E-2	2.387193E-2	2.818730E-2	1.982456E-2	2.946223E-2	3.285200E-2	3.434721E-2	3.535255E-2	3.741935E-2	4.223778E-2	3.573203E-2	3.031527E-2	2.920972E-2	3.904263E-2	4.347033E-2	3.525339E-2	2.490138E-2	3.418271E-2	2.948454E-2	3.075681E-2	2.652520E-2	3.509929E-2	2.961435E-2	2.486014E-2	2.542642E-2	2.961893E-2	2.366332E-2	3.236315E-2	3.281202E-2	3.327841E-2	3.220819E-2	3.217977E-2	2.339486E-2	2.392504E-2	3.577116E-2	3.950543E-2	4.115867E-2	3.773728E-2	2.998662E-2	3.627041E-2	3.312856E-2	3.888527E-2	3.858442E-2	3.370221E-2	3.181912E-2	4.258025E-2	3.569855E-2	4.329472E-2	2.628273E-2	2.394198E-2	2.477553E-2	3.081478E-2	3.774130E-2	3.883389E-2	4.016478E-2	3.120852E-2	3.575833E-2	3.704987E-2	3.405966E-2	3.198780E-2	2.484739E-2	3.825228E-2	5.545340E-2	3.422223E-2	2.238087E-2	2.043275E-2	3.105489E-2	2.591419E-2	4.287608E-2	2.601726E-2	2.954767E-2	3.781542E-2	4.145774E-2	4.295823E-2	3.941782E-2	2.393693E-2	1.834059E-2	4.342641E-2	4.058325E-2	3.793063E-2	3.166028E-2	3.162810E-2	2.614884E-2	2.041528E-2	4.114733E-2	3.206246E-2	3.814259E-2	3.411047E-2	3.780488E-2	3.097078E-2	3.206252E-2	2.782561E-2	3.134407E-2	3.786356E-2	3.450284E-2	2.875583E-2	4.191920E-2	3.057812E-2	3.049534E-2	2.708170E-2	4.416319E-2	2.580895E-2	2.540834E-2	2.281227E-2	4.342533E-2	2.231288E-2	4.807694E-2	3.243395E-2	2.193412E-2	3.122029E-2	4.084996E-2	3.332883E-2	2.170709E-2	2.873075E-2	3.516645E-2	2.766901E-2	4.152203E-2	3.554333E-2	2.768921E-2	3.341795E-2	2.924773E-2	4.045771E-2	5.201353E-2	3.234651E-2	2.832597E-2	3.458420E-2	3.497462E-2	3.612965E-2	1.959248E-2
2.842030E+2	6.249433E-2	5.489389E-2	4.556382E-2	2.907894E-2	5.561066E-2	4.538576E-2	4.814929E-2	3.961903E-2	5.179394E-2	5.098720E-2	3.088063E-2	3.836457E-2	4.885165E-2	3.848290E-2	4.255860E-2	5.203558E-2	4.100242E-2	3.180600E-2	4.160610E-2	4.172268E-2	4.216031E-2	4.308715E-2	4.423884E-2	3.875410E-2	4.185708E-2	3.822493E-2	4.544272E-2	4.201364E-2	4.282221E-2	4.602080E-2	3.905068E-2	4.349393E-2	5.592605E-2	4.727634E-2	3.849323E-2	4.414622E-2	4.401146E-2	5.193644E-2	5.028823E-2	3.692214E-2	4.964844E-2	4.251157E-2	3.661016E-2	4.451826E-2	4.212695E-2	4.816623E-2	4.309690E-2	4.439356E-2	4.476536E-2	4.509941E-2	2.921413E-2	5.345616E-2	4.541444E-2	5.012410E-2	4.294662E-2	4.025095E-2	5.104638E-2	3.746817E-2	3.405831E-2	3.386591E-2	4.920240E-2	4.002566E-2	3.782861E-2	4.973476E-2	5.207630E-2	3.959670E-2	3.884402E-2	4.284456E-2	3.720422E-2	4.075641E-2	4.115984E-2	2.652888E-2	5.265487E-2	4.783342E-2	4.853343E-2	4.325840E-2	4.359176E-2	3.925428E-2	3.391359E-2	5.157863E-2	4.112230E-2	4.886720E-2	4.594252E-2	5.296436E-2	4.914666E-2	5.327212E-2	4.124745E-2	4.869555E-2	5.531191E-2	4.231164E-2	6.447144E-2	3.628588E-2	2.949289E-2	3.732422E-2	3.541150E-2	5.279001E-2	4.912935E-2	4.222454E-2	5.674269E-2	4.623919E-2	4.016621E-2	4.304603E-2	4.074298E-2	4.913258E-2	3.763865E-2	3.987391E-2	4.061669E-2	5.123557E-2	2.579834E-2	4.660934E-2	3.565132E-2	4.449066E-2	3.864593E-2	4.405288E-2	3.439495E-2	4.463592E-2	4.941090E-2	6.093434E-2	3.187674E-2	3.431467E-2	6.552545E-2	4.890953E-2	4.271348E-2	4.384715E-2	3.991891E-2	4.657278E-2	4.539937E-2	6.382031E-2	4.711787E-2	5.696781E-2	3.791617E-2	5.588877E-2	4.762842E-2	5.275193E-2	4.878214E-2	4.087083E-2	5.236446E-2	5.196206E-2	4.118740E-2	4.732597E-2	3.440040E-2	4.577219E-2	4.056903E-2	5.765583E-2	4.716812E-2	6.352083E-2	4.052091E-2	5.758128E-2	4.682808E-2	5.189639E-2	4.705625E-2	4.152011E-2	5.443197E-2	5.209305E-2	5.518825E-2	4.628111E-2	3.852945E-2	4.972921E-2	3.437340E-2	4.869793E-2	4.750775E-2	4.287173E-2	3.926315E-2	4.668009E-2	5.800564E-2	6.459463E-2	4.879385E-2	3.668446E-2	4.641339E-2	5.855679E-2	3.084239E-2	5.989715E-2
2.843040E+2	7.128262E-2	6.799850E-2	4.556381E-2	5.808923E-2	6.778957E-2	7.738854E-2	7.180571E-2	5.939806E-2	7.246981E-2	5.858105E-2	7.473683E-2	6.534926E-2	6.377240E-2	6.073814E-2	5.655629E-2	6.156069E-2	7.141948E-2	6.877609E-2	6.118850E-2	5.833265E-2	6.143685E-2	5.851627E-2	6.084944E-2	5.481330E-2	4.934527E-2	5.955977E-2	6.981605E-2	4.603005E-2	5.218794E-2	5.757955E-2	6.217875E-2	5.875787E-2	6.320452E-2	6.055688E-2	6.556662E-2	5.671606E-2	5.934131E-2	7.646337E-2	7.088294E-2	7.084016E-2	6.230506E-2	7.443814E-2	6.128345E-2	5.507673E-2	6.412659E-2	5.885260E-2	6.408760E-2	6.550347E-2	6.101085E-2	6.499092E-2	6.348683E-2	5.468975E-2	7.294549E-2	6.600498E-2	5.860951E-2	5.444690E-2	5.759391E-2	5.929428E-2	7.707939E-2	7.151681E-2	4.920239E-2	5.377494E-2	5.197224E-2	6.631304E-2	5.207630E-2	5.656670E-2	4.700124E-2	7.467763E-2	6.321114E-2	7.863832E-2	5.533233E-2	5.689749E-2	7.313860E-2	6.345865E-2	4.958851E-2	5.971671E-2	5.266874E-2	5.169404E-2	6.233885E-2	6.147756E-2	5.184172E-2	6.608171E-2	5.368024E-2	6.102263E-2	7.290990E-2	7.005804E-2	6.237424E-2	7.559241E-2	7.122642E-2	7.096843E-2	6.084116E-2	5.570373E-2	6.279859E-2	5.083812E-2	6.145936E-2	5.332740E-2	6.646915E-2	6.230693E-2	5.093947E-2	6.720094E-2	8.223680E-2	6.201740E-2	5.413326E-2	5.925142E-2	7.077687E-2	7.533072E-2	6.139873E-2	7.620595E-2	4.384634E-2	5.438658E-2	5.466198E-2	5.094901E-2	4.338164E-2	7.413772E-2	5.263755E-2	6.688324E-2	7.199534E-2	7.038065E-2	5.410813E-2	6.573031E-2	6.805107E-2	7.000296E-2	5.945342E-2	6.996207E-2	5.981697E-2	5.260714E-2	6.361687E-2	6.921870E-2	6.656440E-2	6.748777E-2	6.455613E-2	7.397262E-2	6.761762E-2	6.255220E-2	6.345174E-2	6.521691E-2	6.928220E-2	7.253903E-2	6.322514E-2	6.114332E-2	4.634500E-2	5.999553E-2	6.176337E-2	7.114835E-2	5.357588E-2	6.110102E-2	6.819073E-2	6.927542E-2	7.030008E-2	6.444611E-2	6.763589E-2	5.955990E-2	6.298364E-2	6.614700E-2	4.972337E-2	5.672514E-2	6.357059E-2	6.477748E-2	4.921884E-2	5.918573E-2	5.380478E-2	6.852507E-2	6.158116E-2	6.643683E-2	6.458609E-2	7.455471E-2	6.469298E-2	5.287899E-2	5.454611E-2	7.496188E-2	6.520974E-2	7.753025E-2
2.844010E+2	9.494333E-2	7.258510E-2	6.776002E-2	6.240999E-2	9.794695E-2	8.960767E-2	9.546222E-2	6.763936E-2	6.683097E-2	8.082015E-2	1.017644E-1	7.761501E-2	8.416405E-2	7.140208E-2	7.606815E-2	7.055669E-2	9.035833E-2	7.722638E-2	7.790525E-2	8.858653E-2	9.238063E-2	9.914621E-2	9.658734E-2	6.936698E-2	8.736228E-2	8.356140E-2	6.640377E-2	7.070265E-2	8.356315E-2	7.684404E-2	8.213246E-2	8.830102E-2	8.895915E-2	8.354238E-2	7.308705E-2	8.021621E-2	9.494599E-2	7.976506E-2	8.706454E-2	7.280650E-2	7.826355E-2	8.422211E-2	9.006901E-2	7.841647E-2	7.723265E-2	8.301334E-2	5.769913E-2	9.382124E-2	7.346572E-2	9.187131E-2	8.548259E-2	8.861384E-2	8.406377E-2	1.012407E-1	8.892475E-2	7.495211E-2	8.160144E-2	9.585294E-2	7.409179E-2	7.330968E-2	7.872384E-2	7.439873E-2	7.571334E-2	8.952266E-2	8.481772E-2	8.301992E-2	7.030766E-2	9.690091E-2	9.463594E-2	9.480746E-2	8.465474E-2	6.213350E-2	8.753262E-2	8.716578E-2	7.069002E-2	7.220239E-2	7.334404E-2	6.861206E-2	8.796829E-2	8.023342E-2	7.892225E-2	9.107076E-2	7.350805E-2	7.837897E-2	7.885080E-2	9.471256E-2	6.539236E-2	7.717466E-2	8.141179E-2	9.356313E-2	8.322802E-2	5.746901E-2	7.289121E-2	8.462304E-2	7.371716E-2	9.148674E-2	8.597633E-2	8.856850E-2	8.982109E-2	9.494450E-2	9.885731E-2	8.897667E-2	7.679369E-2	6.987622E-2	8.243670E-2	8.231462E-2	7.525340E-2	9.396270E-2	7.945457E-2	8.646773E-2	8.062767E-2	8.593155E-2	6.390316E-2	8.004727E-2	6.631953E-2	9.421556E-2	7.414623E-2	9.189717E-2	6.945839E-2	9.022387E-2	9.330716E-2	8.832092E-2	7.499772E-2	7.518506E-2	8.137321E-2	7.163856E-2	7.298598E-2	9.189170E-2	1.104759E-1	8.465192E-2	9.563612E-2	9.607514E-2	9.093815E-2	8.868617E-2	6.869086E-2	8.744590E-2	9.465878E-2	8.438643E-2	5.361897E-2	7.255762E-2	7.166747E-2	7.948681E-2	7.669583E-2	8.407873E-2	8.027486E-2	7.441013E-2	6.431696E-2	9.389442E-2	8.334008E-2	9.991258E-2	7.413470E-2	7.296090E-2	8.375186E-2	8.132525E-2	8.554849E-2	8.252786E-2	8.970043E-2	8.079652E-2	6.693767E-2	1.000332E-1	8.843854E-2	7.061912E-2	8.336777E-2	9.781498E-2	9.968181E-2	9.604744E-2	7.510963E-2	8.161130E-2	7.672592E-2	9.341751E-2	7.710603E-2	1.052397E-1
2.845030E+2	1.253643E-1	1.269693E-1	9.051112E-2	1.080857E-1	1.031665E-1	1.320841E-1	1.271835E-1	9.675846E-2	1.125685E-1	1.063137E-1	1.094137E-1	9.540035E-2	9.610069E-2	8.113870E-2	9.685255E-2	1.128904E-1	1.150364E-1	9.782391E-2	9.366662E-2	1.247724E-1	1.212954E-1	1.248612E-1	1.036341E-1	9.445944E-2	1.029147E-1	1.096966E-1	1.073511E-1	1.051296E-1	9.152400E-2	1.062226E-1	1.143305E-1	1.070116E-1	8.783940E-2	1.049954E-1	1.016645E-1	1.146465E-1	1.008801E-1	1.189140E-1	1.086401E-1	9.689314E-2	1.151330E-1	1.058497E-1	9.520914E-2	9.453175E-2	1.071895E-1	9.741656E-2	9.466107E-2	1.005148E-1	1.092058E-1	1.096125E-1	1.131055E-1	1.077348E-1	1.153009E-1	1.136477E-1	1.015562E-1	1.028180E-1	1.099737E-1	1.302293E-1	1.087477E-1	1.008009E-1	9.322568E-2	9.502244E-2	1.115774E-1	1.038902E-1	9.330618E-2	9.350157E-2	1.256604E-1	1.125169E-1	1.184759E-1	1.105143E-1	1.257060E-1	1.071626E-1	1.168742E-1	1.065625E-1	1.113106E-1	8.014778E-2	1.066262E-1	1.009552E-1	1.126655E-1	1.036781E-1	9.754021E-2	1.016215E-1	1.049424E-1	1.031738E-1	1.139554E-1	1.209404E-1	1.056338E-1	1.056538E-1	1.266092E-1	1.150559E-1	1.080350E-1	8.218260E-2	9.206717E-2	9.234530E-2	1.120227E-1	1.199719E-1	1.043999E-1	9.165808E-2	9.272273E-2	1.146732E-1	1.237882E-1	1.309133E-1	1.112994E-1	9.719711E-2	1.180297E-1	1.097128E-1	1.141531E-1	1.000666E-1	9.164901E-2	1.068829E-1	9.500155E-2	1.079973E-1	1.033676E-1	1.090578E-1	9.083304E-2	9.866518E-2	1.203906E-1	1.160376E-1	8.480859E-2	1.008734E-1	1.103549E-1	1.099695E-1	9.711831E-2	1.117459E-1	9.574403E-2	9.716843E-2	8.391638E-2	1.183434E-1	1.286680E-1	1.045846E-1	1.032475E-1	1.208565E-1	1.014880E-1	1.224426E-1	1.058888E-1	1.001483E-1	1.272859E-1	1.211756E-1	8.639311E-2	1.007930E-1	1.022457E-1	9.529048E-2	9.740846E-2	1.048799E-1	9.095454E-2	1.209920E-1	9.973436E-2	1.240530E-1	1.271542E-1	1.113712E-1	1.017546E-1	8.584648E-2	1.234559E-1	1.279839E-1	8.433407E-2	1.021871E-1	1.152858E-1	1.060387E-1	9.662849E-2	1.237687E-1	9.599505E-2	1.219257E-1	1.067487E-1	1.111798E-1	1.111979E-1	1.201612E-1	1.008773E-1	9.885068E-2	9.742711E-2	1.087972E-1	9.032430E-2	1.253918E-1
2.846040E+2	1.442927E-1	1.564547E-1	1.349035E-1	1.482066E-1	1.426031E-1	1.472129E-1	1.535284E-1	1.341186E-1	1.695834E-1	1.475372E-1	1.379714E-1	1.383306E-1	1.428526E-1	1.404858E-1	1.307865E-1	1.345870E-1	1.425837E-1	1.369069E-1	1.333096E-1	1.407896E-1	1.527467E-1	1.495481E-1	1.610158E-1	1.315967E-1	1.466917E-1	1.384988E-1	1.453736E-1	1.349664E-1	1.275821E-1	1.360826E-1	1.388188E-1	1.400013E-1	1.186330E-1	1.361539E-1	1.422748E-1	1.348678E-1	1.443968E-1	1.410827E-1	1.463970E-1	1.317944E-1	1.453987E-1	1.594041E-1	1.568923E-1	1.339870E-1	1.380827E-1	1.313343E-1	1.380113E-1	1.432493E-1	1.227437E-1	1.241279E-1	1.530052E-1	1.607794E-1	1.513030E-1	1.354835E-1	1.505657E-1	1.185914E-1	1.558069E-1	1.444158E-1	1.529637E-1	1.539901E-1	1.413921E-1	1.216048E-1	1.524930E-1	1.580458E-1	1.418117E-1	1.239479E-1	1.629504E-1	1.431489E-1	1.423156E-1	1.359232E-1	1.560055E-1	1.291538E-1	1.340361E-1	1.388905E-1	1.714497E-1	1.068217E-1	1.424296E-1	1.392698E-1	1.471488E-1	1.672399E-1	1.533938E-1	1.288315E-1	1.445979E-1	1.403655E-1	1.587818E-1	1.476931E-1	1.670021E-1	1.430983E-1	1.317018E-1	1.729206E-1	1.745905E-1	1.098385E-1	1.364746E-1	1.275778E-1	1.467531E-1	1.522189E-1	1.260748E-1	1.549949E-1	1.588795E-1	1.430332E-1	1.663782E-1	1.448920E-1	1.870055E-1	1.412140E-1	1.554638E-1	1.537654E-1	1.434609E-1	1.328056E-1	1.170141E-1	1.302143E-1	1.353412E-1	1.607404E-1	1.096818E-1	1.606320E-1	1.313089E-1	1.457024E-1	1.332956E-1	1.790130E-1	1.578545E-1	1.179121E-1	1.659187E-1	1.521563E-1	1.604909E-1	1.506281E-1	1.421726E-1	1.435865E-1	1.474176E-1	1.642296E-1	1.619154E-1	1.322687E-1	1.508188E-1	1.463079E-1	1.542371E-1	1.616434E-1	1.142712E-1	1.393134E-1	1.502457E-1	1.511056E-1	1.299032E-1	1.494539E-1	1.419017E-1	1.537644E-1	1.248649E-1	1.712180E-1	1.459540E-1	1.621294E-1	1.362585E-1	1.560575E-1	1.579287E-1	1.768481E-1	1.364151E-1	1.471818E-1	1.393373E-1	1.313572E-1	1.219808E-1	1.329044E-1	1.386938E-1	1.162326E-1	1.224884E-1	1.607523E-1	1.413341E-1	1.622382E-1	1.290666E-1	1.408151E-1	1.578095E-1	1.710096E-1	1.315788E-1	1.254933E-1	1.565735E-1	1.713413E-1	1.299789E-1	1.556203E-1
2.847020E+2	3.322271E-1	3.431963E-1	2.536531E-1	3.111582E-1	3.270274E-1	3.450486E-1	3.105215E-1	2.874060E-1	3.161937E-1	2.977869E-1	3.047267E-1	2.757069E-1	3.044939E-1	2.846811E-1	2.728840E-1	3.023354E-1	3.159036E-1	2.890120E-1	2.942677E-1	2.748557E-1	3.642809E-1	3.377832E-1	3.296385E-1	2.791405E-1	3.148882E-1	3.043772E-1	3.038000E-1	2.881662E-1	2.718145E-1	2.757499E-1	2.898314E-1	3.300618E-1	2.630826E-1	3.108434E-1	2.866663E-1	2.862520E-1	3.169815E-1	3.269222E-1	3.366534E-1	3.126909E-1	3.165395E-1	2.932900E-1	2.869415E-1	2.740251E-1	2.916120E-1	2.828024E-1	2.876844E-1	3.311783E-1	2.965703E-1	3.235805E-1	3.115800E-1	3.131297E-1	3.164892E-1	3.354839E-1	3.460992E-1	2.684374E-1	2.752986E-1	3.359405E-1	3.154874E-1	2.938367E-1	2.853740E-1	2.769716E-1	3.166603E-1	3.459330E-1	2.909671E-1	2.846636E-1	3.138598E-1	3.251382E-1	3.492866E-1	3.248707E-1	3.803219E-1	2.982757E-1	3.255867E-1	2.854438E-1	3.091367E-1	2.685678E-1	2.952254E-1	2.850635E-1	2.883432E-1	3.021779E-1	3.040291E-1	2.937582E-1	3.027367E-1	3.300457E-1	3.359255E-1	3.118809E-1	3.495976E-1	2.818015E-1	3.207665E-1	3.051824E-1	3.494502E-1	2.687117E-1	2.732299E-1	2.743010E-1	3.076376E-1	3.166801E-1	3.227732E-1	2.878476E-1	3.097633E-1	3.162762E-1	3.372572E-1	3.306118E-1	3.317233E-1	2.995739E-1	3.076546E-1	3.100974E-1	3.299661E-1	2.693103E-1	2.638369E-1	2.755515E-1	2.753703E-1	3.410354E-1	2.485969E-1	2.836575E-1	2.903616E-1	3.300370E-1	3.021412E-1	3.395999E-1	3.240607E-1	3.032110E-1	3.464994E-1	3.214585E-1	3.697404E-1	3.189240E-1	3.024629E-1	2.963016E-1	3.077320E-1	3.342769E-1	3.199971E-1	2.623836E-1	3.252471E-1	3.258071E-1	3.435789E-1	3.396814E-1	3.301236E-1	2.996803E-1	3.182144E-1	3.525107E-1	3.389795E-1	3.092541E-1	2.981367E-1	2.970510E-1	3.069441E-1	3.218854E-1	2.853230E-1	3.230491E-1	3.221997E-1	3.191593E-1	2.992826E-1	3.601830E-1	2.978024E-1	2.579978E-1	3.445772E-1	3.528464E-1	2.992849E-1	3.184389E-1	2.791419E-1	2.798209E-1	2.680698E-1	3.169657E-1	3.063166E-1	3.161575E-1	2.560670E-1	2.994498E-1	3.349337E-1	3.607750E-1	2.763157E-1	2.717669E-1	3.110931E-1	3.425688E-1	2.806664E-1	2.916479E-1
2.848020E+2	7.919209E-1	7.612335E-1	6.259939E-1	7.426104E-1	7.619887E-1	7.203540E-1	7.433272E-1	6.857335E-1	7.466270E-1	6.926666E-1	7.030017E-1	6.645312E-1	6.705498E-1	6.560647E-1	6.453075E-1	6.886337E-1	7.572376E-1	6.803674E-1	6.672893E-1	6.551054E-1	7.513330E-1	7.569404E-1	7.418824E-1	6.505108E-1	6.869931E-1	6.974718E-1	6.674498E-1	6.616976E-1	6.239660E-1	6.441844E-1	6.285902E-1	7.229847E-1	6.583598E-1	6.908708E-1	6.581731E-1	6.524164E-1	7.046780E-1	7.401081E-1	7.460963E-1	6.302436E-1	7.099971E-1	6.975211E-1	6.863402E-1	6.118947E-1	6.450100E-1	6.665840E-1	6.536532E-1	7.332953E-1	6.415161E-1	7.251742E-1	6.768142E-1	6.949298E-1	7.331607E-1	7.121589E-1	7.508087E-1	6.380570E-1	7.145281E-1	6.938886E-1	7.713908E-1	6.571974E-1	6.427389E-1	6.330781E-1	7.040949E-1	7.399427E-1	6.632490E-1	6.290551E-1	7.129815E-1	7.125411E-1	7.583534E-1	6.916785E-1	7.683540E-1	6.265708E-1	7.164385E-1	7.202550E-1	7.058453E-1	6.215710E-1	6.487219E-1	6.313855E-1	6.457561E-1	7.023026E-1	6.380229E-1	6.908036E-1	6.693098E-1	7.162237E-1	7.323399E-1	7.362508E-1	7.505031E-1	6.493918E-1	7.619182E-1	7.041740E-1	8.250191E-1	5.829276E-1	6.522079E-1	6.430388E-1	7.090817E-1	7.315952E-1	6.603573E-1	6.719882E-1	7.206326E-1	7.157828E-1	7.397854E-1	7.115360E-1	7.952323E-1	6.031389E-1	7.243387E-1	7.382646E-1	6.960498E-1	6.488607E-1	6.447961E-1	6.299014E-1	6.119976E-1	7.113128E-1	5.753627E-1	6.795964E-1	6.734567E-1	7.266756E-1	7.102742E-1	7.730795E-1	7.125799E-1	6.258872E-1	7.411253E-1	7.449919E-1	7.804676E-1	6.909154E-1	6.799732E-1	6.583630E-1	6.465788E-1	7.661439E-1	7.578588E-1	6.322442E-1	7.102585E-1	7.303498E-1	7.783426E-1	7.311464E-1	8.026940E-1	6.791611E-1	7.381371E-1	7.515797E-1	7.040159E-1	7.165648E-1	6.373626E-1	6.363039E-1	6.879608E-1	7.615191E-1	6.484284E-1	7.543857E-1	7.317138E-1	7.013702E-1	7.452509E-1	7.841449E-1	7.651761E-1	6.955915E-1	7.287912E-1	7.469173E-1	7.668330E-1	7.140809E-1	6.667351E-1	6.550556E-1	6.018537E-1	7.740147E-1	6.797315E-1	6.862972E-1	6.461005E-1	6.794762E-1	7.401807E-1	7.492167E-1	6.853074E-1	6.578244E-1	7.524731E-1	7.444928E-1	6.600279E-1	6.846169E-1
2.848990E+2	1.048132E+0	1.008256E+0	8.179914E-1	9.493851E-1	9.910685E-1	1.015361E+0	1.043872E+0	8.890178E-1	1.023558E+0	9.584510E-1	9.447210E-1	8.840883E-1	9.371336E-1	9.138539E-1	8.696943E-1	8.971283E-1	9.988523E-1	9.132787E-1	8.545165E-1	9.066280E-1	1.031857E+0	1.007406E+0	9.920473E-1	8.452288E-1	9.623285E-1	9.524233E-1	8.848604E-1	8.694069E-1	8.257976E-1	8.271973E-1	8.385567E-1	9.228925E-1	8.515194E-1	8.885462E-1	8.963188E-1	9.114649E-1	9.494611E-1	9.665108E-1	9.898005E-1	8.617720E-1	9.334149E-1	9.508745E-1	9.346154E-1	8.425126E-1	8.509639E-1	8.947156E-1	8.206661E-1	9.593249E-1	8.862818E-1	9.434434E-1	8.962612E-1	9.866772E-1	9.978820E-1	1.004466E+0	1.020109E+0	8.620371E-1	8.989499E-1	9.743543E-1	1.021749E+0	9.064107E-1	8.763207E-1	8.457331E-1	9.319085E-1	9.654073E-1	8.845557E-1	9.350147E-1	1.008973E+0	9.912309E-1	1.011920E+0	9.582376E-1	1.042518E+0	8.213485E-1	9.528322E-1	8.905159E-1	9.806922E-1	8.355299E-1	9.023724E-1	8.682379E-1	8.712946E-1	9.414400E-1	9.229335E-1	9.240334E-1	8.835478E-1	9.499146E-1	9.413482E-1	9.555171E-1	9.854123E-1	8.318687E-1	1.019097E+0	9.422451E-1	1.056149E+0	8.789032E-1	8.646580E-1	8.684316E-1	8.893733E-1	9.745248E-1	8.819809E-1	9.088569E-1	9.875805E-1	9.926018E-1	1.019737E+0	9.536699E-1	9.857859E-1	8.146227E-1	9.520114E-1	9.950572E-1	9.267838E-1	8.885764E-1	8.755178E-1	8.500936E-1	8.354881E-1	1.005704E+0	7.474274E-1	9.374667E-1	8.952190E-1	1.017798E+0	9.366559E-1	1.047021E+0	9.830619E-1	8.756152E-1	9.583277E-1	9.648076E-1	1.004663E+0	9.509039E-1	9.121171E-1	8.950949E-1	8.672720E-1	9.923349E-1	9.849442E-1	8.825086E-1	9.335272E-1	1.035766E+0	1.022655E+0	9.788746E-1	1.041074E+0	9.236803E-1	9.767977E-1	1.000374E+0	9.797701E-1	8.859772E-1	8.122314E-1	8.622972E-1	8.840086E-1	9.830221E-1	9.239615E-1	9.721719E-1	9.464315E-1	9.629484E-1	9.575421E-1	1.044415E+0	1.077661E+0	8.661961E-1	9.224242E-1	9.824605E-1	9.319930E-1	8.842565E-1	8.948270E-1	8.676726E-1	8.384237E-1	1.006403E+0	9.775823E-1	9.150824E-1	8.963808E-1	9.909356E-1	1.026431E+0	1.024952E+0	1.014803E+0	8.589507E-1	9.557880E-1	1.029530E+0	9.891610E-1	8.659877E-1
2.850010E+2	1.044076E+0	1.066571E+0	8.313087E-1	9.820996E-1	1.025866E+0	1.041545E+0	1.056776E+0	9.164886E-1	1.035462E+0	9.334996E-1	9.421713E-1	9.245651E-1	9.794092E-1	8.883534E-1	9.019316E-1	9.188246E-1	1.014922E+0	9.592273E-1	8.592930E-1	8.959501E-1	1.039973E+0	1.057293E+0	1.002114E+0	8.708234E-1	9.513844E-1	9.284213E-1	8.970472E-1	8.923589E-1	8.613871E-1	8.821014E-1	8.444524E-1	1.007090E+0	9.416600E-1	9.411577E-1	9.705202E-1	9.294995E-1	9.845712E-1	9.650959E-1	1.026086E+0	8.951977E-1	9.922956E-1	9.848603E-1	9.330733E-1	8.747435E-1	9.544092E-1	9.318856E-1	8.439384E-1	9.958812E-1	8.808666E-1	9.525828E-1	9.356495E-1	9.731080E-1	1.023296E+0	1.043672E+0	1.053456E+0	9.014700E-1	9.398718E-1	9.907239E-1	9.918733E-1	8.920672E-1	8.825362E-1	8.553578E-1	9.708032E-1	9.941428E-1	9.470075E-1	8.955849E-1	1.025870E+0	9.780172E-1	1.011920E+0	9.744067E-1	1.081615E+0	8.496232E-1	9.827274E-1	8.959041E-1	9.833302E-1	8.077209E-1	8.927912E-1	8.557986E-1	8.768861E-1	9.726999E-1	9.139066E-1	8.990450E-1	8.709738E-1	9.306989E-1	9.867142E-1	9.707301E-1	1.026157E+0	8.608746E-1	9.987269E-1	9.697995E-1	1.051308E+0	9.630474E-1	8.328666E-1	8.843591E-1	9.169536E-1	1.042781E+0	8.928185E-1	8.939239E-1	1.016597E+0	9.827370E-1	9.823409E-1	1.001597E+0	1.068188E+0	8.626872E-1	1.010310E+0	9.542286E-1	9.161258E-1	8.869119E-1	8.628351E-1	8.714816E-1	7.946852E-1	9.513471E-1	7.447970E-1	8.955626E-1	8.855271E-1	1.015891E+0	9.624668E-1	1.009761E+0	9.772395E-1	9.347193E-1	1.013891E+0	9.908968E-1	1.079395E+0	9.305927E-1	9.430700E-1	8.830267E-1	9.037073E-1	1.006910E+0	1.012546E+0	9.018870E-1	9.804637E-1	1.010984E+0	1.032094E+0	1.028965E+0	1.067270E+0	8.924542E-1	9.586724E-1	1.047764E+0	1.044188E+0	9.382425E-1	8.590541E-1	9.176096E-1	8.902707E-1	1.046549E+0	9.373107E-1	9.503933E-1	9.597126E-1	9.906451E-1	9.726681E-1	1.021498E+0	1.058165E+0	9.120684E-1	9.645716E-1	9.521047E-1	1.024895E+0	8.947000E-1	8.665199E-1	8.759249E-1	8.719457E-1	9.997788E-1	9.064264E-1	9.234587E-1	9.171046E-1	9.427056E-1	1.007239E+0	1.037009E+0	9.994518E-1	8.751449E-1	9.313908E-1	1.030555E+0	1.027494E+0	8.911768E-1
2.851060E+2	9.602503E-1	9.643555E-1	7.480733E-1	9.160548E-1	9.214750E-1	9.199346E-1	9.073096E-1	8.016604E-1	9.245643E-1	8.412891E-1	8.141729E-1	8.288928E-1	8.998317E-1	8.201964E-1	7.874053E-1	8.791363E-1	9.202274E-1	8.546544E-1	8.139187E-1	8.467136E-1	9.253286E-1	9.081454E-1	9.069811E-1	7.930364E-1	8.741980E-1	8.809513E-1	8.434254E-1	8.051438E-1	7.859931E-1	8.190097E-1	8.195103E-1	9.189536E-1	7.938512E-1	8.885459E-1	8.186080E-1	8.382311E-1	9.138565E-1	9.094386E-1	9.221321E-1	8.076990E-1	9.003973E-1	8.962896E-1	8.544275E-1	8.169500E-1	8.247516E-1	8.338495E-1	7.773157E-1	8.527463E-1	8.088446E-1	8.692536E-1	8.394813E-1	9.034089E-1	9.200539E-1	9.409430E-1	9.241109E-1	8.115624E-1	8.340200E-1	9.116040E-1	9.578156E-1	8.603929E-1	7.975965E-1	7.948613E-1	8.520978E-1	9.455133E-1	8.354436E-1	8.396831E-1	8.953544E-1	8.663009E-1	9.523208E-1	8.593751E-1	9.521070E-1	7.344314E-1	9.102041E-1	8.420237E-1	8.783500E-1	7.475627E-1	8.211843E-1	7.632467E-1	7.944064E-1	8.898610E-1	8.287150E-1	8.196355E-1	8.419575E-1	8.947462E-1	9.359477E-1	9.266666E-1	9.094568E-1	7.896776E-1	9.115153E-1	8.816253E-1	9.678110E-1	7.918169E-1	8.025886E-1	8.303030E-1	8.515782E-1	9.772122E-1	8.126219E-1	8.135948E-1	9.260668E-1	8.748459E-1	9.459831E-1	9.257123E-1	9.785757E-1	8.085519E-1	8.906438E-1	8.935222E-1	8.447208E-1	8.358611E-1	7.604011E-1	7.932234E-1	7.561997E-1	9.061386E-1	6.732347E-1	8.493606E-1	8.353606E-1	9.389790E-1	8.785819E-1	9.431119E-1	9.179556E-1	7.744462E-1	9.065525E-1	8.970864E-1	9.747704E-1	8.412212E-1	8.358412E-1	7.804424E-1	8.199062E-1	9.739803E-1	9.146864E-1	8.022249E-1	9.062526E-1	9.185557E-1	9.515820E-1	8.814168E-1	9.588205E-1	8.495835E-1	9.145656E-1	9.236784E-1	8.690168E-1	8.565407E-1	7.902531E-1	7.964484E-1	8.546255E-1	9.560369E-1	8.262437E-1	8.741683E-1	8.401793E-1	9.094013E-1	8.787804E-1	9.341960E-1	9.568914E-1	7.966142E-1	9.071534E-1	9.313047E-1	8.967750E-1	8.369512E-1	8.284136E-1	8.657309E-1	7.809571E-1	9.843236E-1	8.365288E-1	8.826234E-1	8.554643E-1	8.537999E-1	9.354018E-1	9.526105E-1	9.353070E-1	7.596937E-1	8.811160E-1	9.782644E-1	9.323231E-1	8.836213E-1
2.851990E+2	7.804288E-1	8.300330E-1	6.287690E-1	7.870514E-1	7.962056E-1	7.977424E-1	7.669834E-1	6.582628E-1	7.698093E-1	7.376868E-1	6.953527E-1	6.872230E-1	7.222748E-1	6.857382E-1	7.000258E-1	7.209135E-1	7.727329E-1	6.935708E-1	6.481846E-1	6.462071E-1	7.437239E-1	7.435684E-1	7.584927E-1	6.565332E-1	7.163706E-1	7.476089E-1	6.840240E-1	7.133386E-1	6.380143E-1	6.441844E-1	6.907184E-1	7.205225E-1	6.633986E-1	7.256044E-1	6.937693E-1	6.961382E-1	7.531404E-1	7.287875E-1	7.529612E-1	6.459737E-1	7.204526E-1	7.397470E-1	7.007333E-1	6.369014E-1	6.440745E-1	7.497521E-1	6.709928E-1	7.049773E-1	7.151625E-1	6.956063E-1	7.064828E-1	7.282374E-1	7.553973E-1	7.741936E-1	8.215444E-1	6.974692E-1	6.697870E-1	7.053475E-1	7.672088E-1	6.822982E-1	6.691529E-1	6.404110E-1	7.131864E-1	7.742049E-1	7.081169E-1	6.679864E-1	7.380358E-1	7.750058E-1	7.989888E-1	7.360277E-1	7.742184E-1	6.459442E-1	7.391367E-1	7.121734E-1	7.401353E-1	6.124910E-1	6.512429E-1	6.677097E-1	6.765112E-1	7.538814E-1	7.254710E-1	6.363837E-1	6.862363E-1	7.236626E-1	7.690645E-1	7.719206E-1	7.736413E-1	6.414805E-1	7.848353E-1	7.410966E-1	8.147339E-1	6.735444E-1	6.658334E-1	6.502780E-1	7.044840E-1	7.380446E-1	7.177956E-1	6.529353E-1	7.728614E-1	7.490750E-1	8.145776E-1	7.394935E-1	7.638162E-1	6.587928E-1	7.402939E-1	7.377271E-1	6.896552E-1	6.993566E-1	6.565028E-1	6.736480E-1	6.055063E-1	7.409136E-1	5.795720E-1	7.021599E-1	6.677563E-1	7.673565E-1	7.237172E-1	7.799015E-1	7.956835E-1	6.599652E-1	7.809037E-1	7.472124E-1	8.468287E-1	7.245748E-1	7.147947E-1	6.472224E-1	6.882193E-1	7.623657E-1	7.321390E-1	6.782000E-1	7.476816E-1	7.772337E-1	8.444178E-1	7.572807E-1	8.105528E-1	7.013899E-1	7.447835E-1	8.076978E-1	7.520466E-1	7.141614E-1	6.430957E-1	6.916175E-1	6.937413E-1	7.800707E-1	6.916807E-1	7.640656E-1	7.195387E-1	7.352218E-1	7.530742E-1	7.890557E-1	7.770906E-1	6.883757E-1	7.068007E-1	7.266801E-1	7.601543E-1	6.974936E-1	6.977640E-1	6.599103E-1	6.574045E-1	7.795345E-1	7.269599E-1	7.234681E-1	7.088030E-1	7.201525E-1	7.769216E-1	8.053070E-1	7.889257E-1	6.573017E-1	7.583874E-1	7.998594E-1	7.327284E-1	6.720218E-1
2.853000E+2	6.810534E-1	7.088150E-1	4.872678E-1	6.339752E-1	6.332399E-1	6.371463E-1	6.368730E-1	5.698062E-1	6.470073E-1	5.787592E-1	5.841824E-1	5.774445E-1	5.666019E-1	5.498885E-1	5.647146E-1	6.108446E-1	6.487699E-1	5.689286E-1	5.641234E-1	5.744286E-1	6.645886E-1	6.638511E-1	6.110114E-1	5.606794E-1	5.994396E-1	6.030652E-1	5.709313E-1	6.060415E-1	5.584061E-1	5.358217E-1	5.628338E-1	6.082590E-1	5.766166E-1	5.907559E-1	5.909910E-1	5.698929E-1	5.939077E-1	6.476599E-1	6.499874E-1	5.422528E-1	5.762762E-1	6.120404E-1	5.665720E-1	5.363188E-1	5.710539E-1	6.089700E-1	5.532624E-1	6.205378E-1	5.824905E-1	6.069005E-1	5.913882E-1	6.344832E-1	6.198600E-1	6.158809E-1	6.694620E-1	5.686544E-1	5.748473E-1	5.918520E-1	6.489005E-1	5.771148E-1	5.717841E-1	5.588319E-1	5.949863E-1	6.211320E-1	6.104991E-1	5.766481E-1	6.267477E-1	6.386640E-1	6.418635E-1	6.163768E-1	6.535081E-1	5.260401E-1	6.007334E-1	5.742407E-1	5.808190E-1	5.250911E-1	5.392938E-1	5.507761E-1	5.534903E-1	6.090442E-1	5.618592E-1	5.925141E-1	5.880646E-1	5.885313E-1	6.210846E-1	6.255683E-1	6.725349E-1	5.665915E-1	6.441505E-1	6.248160E-1	6.598409E-1	5.782201E-1	5.507774E-1	5.445798E-1	6.008042E-1	6.660255E-1	5.530669E-1	5.411944E-1	6.347445E-1	5.961777E-1	6.369459E-1	6.291604E-1	6.469091E-1	5.520388E-1	6.267646E-1	6.082563E-1	5.516411E-1	5.944807E-1	5.404104E-1	5.482404E-1	5.062800E-1	6.456534E-1	4.916979E-1	5.323952E-1	5.754026E-1	6.535771E-1	5.898238E-1	6.686456E-1	6.337119E-1	5.689135E-1	6.571493E-1	6.178767E-1	6.680702E-1	5.800727E-1	5.954065E-1	5.534582E-1	5.508066E-1	6.641151E-1	5.784483E-1	5.475306E-1	6.614186E-1	6.894935E-1	6.861708E-1	6.511110E-1	6.633331E-1	5.854816E-1	5.955450E-1	6.736370E-1	6.395975E-1	6.090298E-1	5.284284E-1	5.730895E-1	5.954763E-1	6.603239E-1	5.971662E-1	6.122204E-1	5.966844E-1	6.152037E-1	6.002456E-1	6.280923E-1	6.893565E-1	5.595198E-1	6.451065E-1	6.153733E-1	6.423567E-1	5.826094E-1	5.464287E-1	5.434080E-1	5.443876E-1	6.459529E-1	6.041670E-1	6.061961E-1	5.876484E-1	5.911521E-1	6.162490E-1	6.538098E-1	6.491229E-1	5.486415E-1	6.334408E-1	6.737457E-1	6.190519E-1	5.712603E-1
2.854020E+2	5.147522E-1	5.345236E-1	4.190146E-1	5.000338E-1	5.456679E-1	5.318277E-1	4.960093E-1	4.983827E-1	5.003970E-1	4.708182E-1	4.419050E-1	4.670526E-1	4.576802E-1	4.339764E-1	4.137096E-1	4.759053E-1	5.161970E-1	4.601308E-1	4.709875E-1	4.783276E-1	5.240732E-1	5.054457E-1	4.781268E-1	4.432463E-1	4.571638E-1	4.638551E-1	4.568644E-1	4.350544E-1	4.010615E-1	4.486494E-1	4.068324E-1	4.807312E-1	4.506427E-1	4.477348E-1	4.706649E-1	4.622297E-1	4.673131E-1	4.783290E-1	5.004303E-1	4.532793E-1	4.827268E-1	4.740354E-1	4.529722E-1	4.051717E-1	4.470135E-1	4.486741E-1	4.195610E-1	4.717389E-1	4.297835E-1	5.047551E-1	4.727126E-1	4.895352E-1	4.896171E-1	4.794047E-1	5.012127E-1	4.088189E-1	4.706328E-1	5.045471E-1	4.935473E-1	4.749195E-1	4.112285E-1	4.286719E-1	4.429428E-1	5.050842E-1	4.498235E-1	4.468772E-1	4.962321E-1	4.494673E-1	5.091202E-1	4.971871E-1	5.547899E-1	4.391234E-1	4.612223E-1	4.627090E-1	5.037982E-1	4.910395E-1	4.323883E-1	4.383210E-1	4.449148E-1	5.053662E-1	4.732830E-1	4.536873E-1	4.657123E-1	4.639374E-1	5.071288E-1	5.185579E-1	4.954727E-1	4.125944E-1	5.053755E-1	4.953094E-1	5.297552E-1	4.699513E-1	4.458136E-1	4.036485E-1	4.460489E-1	5.064015E-1	4.067624E-1	4.536562E-1	5.210005E-1	4.697905E-1	5.029432E-1	4.988575E-1	5.439076E-1	4.422496E-1	5.236675E-1	4.621317E-1	4.791704E-1	4.457675E-1	4.218785E-1	4.383869E-1	4.269923E-1	4.922680E-1	3.854070E-1	4.389171E-1	4.425734E-1	5.436122E-1	4.709866E-1	5.122565E-1	4.902663E-1	4.405884E-1	5.157147E-1	4.635615E-1	5.227919E-1	4.721311E-1	4.787814E-1	4.072412E-1	4.482675E-1	5.205196E-1	5.257547E-1	4.329184E-1	4.812815E-1	4.919109E-1	5.068238E-1	4.948517E-1	5.543591E-1	4.865097E-1	4.831633E-1	5.233618E-1	4.994600E-1	4.918832E-1	4.175827E-1	4.550878E-1	4.519324E-1	5.411399E-1	4.556622E-1	5.015121E-1	4.760437E-1	4.662580E-1	4.964472E-1	5.042315E-1	5.366340E-1	4.595280E-1	4.814040E-1	4.770828E-1	4.820536E-1	4.621972E-1	4.424537E-1	4.540892E-1	4.347221E-1	5.068507E-1	4.631133E-1	5.051542E-1	4.362046E-1	5.016661E-1	5.071222E-1	4.960218E-1	5.290570E-1	4.232641E-1	5.291954E-1	4.840623E-1	5.146274E-1	5.007277E-1
2.855000E+2	3.978005E-1	4.034774E-1	3.152471E-1	4.111516E-1	3.716831E-1	3.892703E-1	3.825662E-1	3.994868E-1	4.151876E-1	3.683012E-1	3.434835E-1	4.265755E-1	3.527377E-1	3.454191E-1	3.063937E-1	3.362023E-1	3.951028E-1	3.407707E-1	3.229247E-1	3.857865E-1	3.815279E-1	3.449831E-1	3.689000E-1	3.830240E-1	3.471445E-1	3.390460E-1	3.286612E-1	3.943158E-1	3.345649E-1	3.239114E-1	3.306459E-1	3.669903E-1	3.649813E-1	3.603901E-1	3.287799E-1	3.775200E-1	3.901691E-1	3.797495E-1	3.758812E-1	3.647975E-1	3.550593E-1	3.617776E-1	3.676433E-1	3.395984E-1	3.463769E-1	3.520320E-1	3.232775E-1	3.831810E-1	3.231051E-1	3.714278E-1	3.299952E-1	3.889961E-1	3.921997E-1	3.672453E-1	3.986459E-1	3.157570E-1	3.549602E-1	3.495816E-1	4.021275E-1	3.577831E-1	3.278432E-1	3.099699E-1	3.550502E-1	3.978784E-1	3.497800E-1	3.181047E-1	3.814482E-1	3.533677E-1	3.969655E-1	3.428878E-1	4.067118E-1	3.014175E-1	3.798408E-1	3.350135E-1	3.592530E-1	3.332659E-1	3.305244E-1	3.119333E-1	3.144385E-1	3.574031E-1	3.373158E-1	3.415147E-1	3.472285E-1	3.467821E-1	3.575288E-1	3.643369E-1	3.883300E-1	3.329584E-1	3.812423E-1	3.746203E-1	4.014844E-1	3.581514E-1	3.241976E-1	3.288393E-1	3.387926E-1	4.166468E-1	3.552856E-1	3.341918E-1	3.753398E-1	3.600499E-1	3.985460E-1	3.346053E-1	3.718942E-1	3.451091E-1	3.696357E-1	3.906805E-1	3.763264E-1	3.203612E-1	3.116396E-1	3.222145E-1	2.929903E-1	4.115389E-1	2.927969E-1	3.282479E-1	3.405290E-1	3.859736E-1	3.661303E-1	3.789592E-1	4.055756E-1	3.303674E-1	3.919601E-1	3.547642E-1	4.091994E-1	3.566452E-1	3.770804E-1	3.190467E-1	3.436470E-1	3.796230E-1	3.463445E-1	3.149835E-1	3.468131E-1	3.720213E-1	3.935518E-1	3.652712E-1	4.202367E-1	3.340819E-1	3.683634E-1	3.437816E-1	3.717537E-1	3.380903E-1	3.392260E-1	3.402481E-1	3.469242E-1	3.668605E-1	3.424586E-1	3.901997E-1	4.124035E-1	3.560881E-1	3.926486E-1	3.852824E-1	3.920358E-1	3.590204E-1	3.598477E-1	3.820781E-1	4.049386E-1	3.430129E-1	3.314014E-1	3.235093E-1	3.145221E-1	3.600212E-1	3.415801E-1	3.428575E-1	3.325854E-1	3.813825E-1	3.958032E-1	4.095265E-1	3.881581E-1	3.172160E-1	3.517561E-1	3.948605E-1	3.956643E-1	3.470666E-1
2.856010E+2	2.646247E-1	2.776729E-1	2.109254E-1	2.667171E-1	2.835307E-1	2.926802E-1	2.691223E-1	2.725719E-1	2.598056E-1	2.603602E-1	2.353733E-1	2.671211E-1	2.592343E-1	2.485160E-1	2.308910E-1	2.949267E-1	2.877823E-1	2.282757E-1	2.445949E-1	2.309579E-1	2.542021E-1	2.776095E-1	2.777933E-1	2.605721E-1	2.428863E-1	2.537067E-1	2.453044E-1	2.543131E-1	2.188983E-1	2.319236E-1	2.077495E-1	2.586660E-1	2.479660E-1	2.413761E-1	2.450532E-1	2.988219E-1	2.690141E-1	2.764527E-1	2.567260E-1	2.704165E-1	2.741668E-1	2.423100E-1	2.509593E-1	2.718022E-1	2.326346E-1	2.470262E-1	2.238000E-1	2.632151E-1	2.418771E-1	2.875610E-1	2.696340E-1	2.779722E-1	2.672509E-1	2.843672E-1	2.773849E-1	2.899939E-1	2.403788E-1	2.611860E-1	2.563337E-1	2.747125E-1	2.195985E-1	2.270157E-1	2.570548E-1	2.978559E-1	2.491310E-1	2.547168E-1	2.637505E-1	2.584693E-1	2.934800E-1	2.389436E-1	2.840466E-1	2.380621E-1	2.829584E-1	2.773622E-1	2.600759E-1	2.271381E-1	2.236179E-1	2.163958E-1	2.436081E-1	2.631027E-1	2.301223E-1	2.282319E-1	2.447044E-1	2.476032E-1	2.765176E-1	2.625719E-1	2.902415E-1	2.121861E-1	2.698397E-1	2.583401E-1	2.883398E-1	2.598856E-1	2.444659E-1	2.245892E-1	2.274505E-1	2.645470E-1	2.371576E-1	2.559216E-1	2.511509E-1	3.008634E-1	2.780468E-1	2.657098E-1	2.900078E-1	2.338013E-1	2.843348E-1	2.843104E-1	2.676205E-1	2.460045E-1	2.233508E-1	2.274297E-1	2.137020E-1	2.786048E-1	2.075539E-1	2.342325E-1	2.447555E-1	2.772791E-1	2.580483E-1	2.577315E-1	2.668939E-1	2.483674E-1	2.574715E-1	2.598435E-1	3.099548E-1	2.545073E-1	2.554809E-1	2.266748E-1	2.197672E-1	2.851522E-1	2.811042E-1	2.396831E-1	2.599159E-1	2.936575E-1	2.713959E-1	2.476677E-1	2.813999E-1	2.382857E-1	2.789417E-1	2.882854E-1	2.694763E-1	2.389660E-1	2.264694E-1	2.317290E-1	2.226482E-1	2.842184E-1	2.340607E-1	2.692075E-1	2.425106E-1	2.693052E-1	2.622489E-1	3.001628E-1	2.793890E-1	2.378962E-1	2.786075E-1	2.657121E-1	2.853189E-1	2.398020E-1	2.541012E-1	2.278809E-1	2.359843E-1	2.744624E-1	2.590890E-1	2.496684E-1	2.507531E-1	2.988687E-1	2.817415E-1	3.052084E-1	2.845397E-1	2.404224E-1	2.615583E-1	2.841259E-1	2.938844E-1	2.362293E-1
2.858030E+2	2.747651E-1	2.724307E-1	2.120352E-1	2.580756E-1	2.551130E-1	2.653322E-1	2.578314E-1	3.016912E-1	2.598056E-1	2.294426E-1	2.430223E-1	2.524023E-1	2.547580E-1	2.299699E-1	2.347086E-1	2.494179E-1	2.435917E-1	2.393667E-1	2.359979E-1	2.588390E-1	2.394910E-1	2.560089E-1	2.727599E-1	2.620779E-1	2.284860E-1	2.265052E-1	2.477414E-1	2.359521E-1	2.081275E-1	2.222910E-1	1.936912E-1	2.675288E-1	2.210915E-1	2.423982E-1	2.244975E-1	2.370656E-1	2.477503E-1	2.429642E-1	2.317179E-1	2.772983E-1	2.378480E-1	2.562135E-1	2.154914E-1	2.606884E-1	2.251453E-1	2.484199E-1	2.356640E-1	2.848397E-1	2.451266E-1	2.499283E-1	2.338271E-1	2.545335E-1	2.402492E-1	2.481390E-1	2.713218E-1	2.710660E-1	2.338311E-1	2.502730E-1	2.718686E-1	2.753098E-1	2.133830E-1	1.912675E-1	2.393752E-1	2.746467E-1	2.345793E-1	2.432369E-1	2.451055E-1	2.596702E-1	2.761425E-1	2.809833E-1	2.835577E-1	2.720958E-1	2.170788E-1	2.331808E-1	2.373917E-1	2.765134E-1	2.200882E-1	2.223669E-1	2.282308E-1	2.677923E-1	2.504329E-1	2.121279E-1	2.156881E-1	2.494629E-1	2.333119E-1	2.368682E-1	2.525149E-1	2.638705E-1	2.774795E-1	2.754236E-1	2.677681E-1	2.840106E-1	2.374012E-1	2.183146E-1	2.545199E-1	2.758339E-1	2.225275E-1	2.363544E-1	2.749443E-1	2.398275E-1	2.261082E-1	2.427443E-1	2.936129E-1	2.479676E-1	2.646976E-1	2.300511E-1	2.500357E-1	2.360166E-1	2.170093E-1	2.211107E-1	2.169478E-1	2.312439E-1	1.807179E-1	2.256367E-1	2.128305E-1	2.747373E-1	2.585853E-1	2.645542E-1	2.404281E-1	2.302632E-1	2.656799E-1	2.576234E-1	3.015853E-1	2.307138E-1	2.322671E-1	2.257465E-1	2.421495E-1	2.878514E-1	2.491114E-1	2.452198E-1	2.624536E-1	2.789229E-1	2.452986E-1	2.460347E-1	2.819239E-1	2.308760E-1	2.668570E-1	2.726971E-1	2.598698E-1	2.407686E-1	2.240802E-1	2.343630E-1	2.212028E-1	2.690396E-1	2.415364E-1	2.486386E-1	2.275691E-1	2.533030E-1	2.408634E-1	2.712435E-1	2.723487E-1	2.368655E-1	2.682231E-1	2.510961E-1	2.494939E-1	2.305866E-1	2.426691E-1	2.196287E-1	2.297590E-1	2.396867E-1	2.401978E-1	2.564746E-1	2.369370E-1	2.349501E-1	2.444525E-1	2.632712E-1	2.817984E-1	2.153472E-1	2.512071E-1	2.841256E-1	2.291152E-1	2.311911E-1
2.860070E+2	5.735657E-1	5.790793E-1	4.661816E-1	5.636103E-1	5.874235E-1	6.033979E-1	5.535374E-1	5.670593E-1	5.467606E-1	4.892602E-1	5.000400E-1	5.584324E-1	5.327813E-1	4.826598E-1	4.943020E-1	5.081846E-1	5.598141E-1	5.155860E-1	4.590467E-1	5.619709E-1	5.529881E-1	5.867059E-1	5.445685E-1	5.772405E-1	5.389578E-1	5.145255E-1	4.900124E-1	5.704671E-1	4.506999E-1	4.438334E-1	4.979845E-1	5.408020E-1	4.959939E-1	5.161808E-1	5.072639E-1	5.611494E-1	5.409950E-1	5.335151E-1	5.352452E-1	5.673229E-1	5.267500E-1	5.368582E-1	4.884398E-1	5.863320E-1	4.882042E-1	5.030350E-1	4.711249E-1	5.814071E-1	4.996388E-1	5.509892E-1	5.049394E-1	5.956248E-1	5.377964E-1	5.379652E-1	5.598219E-1	5.833767E-1	5.104638E-1	5.312840E-1	5.897466E-1	5.801027E-1	5.065256E-1	4.887105E-1	5.192171E-1	6.128426E-1	5.528983E-1	4.977875E-1	5.504193E-1	5.677906E-1	6.234422E-1	5.341450E-1	5.792245E-1	5.658337E-1	5.536760E-1	5.112010E-1	5.333403E-1	6.357598E-1	4.732343E-1	5.104718E-1	5.138817E-1	5.845579E-1	4.885157E-1	4.958907E-1	4.942451E-1	5.315030E-1	5.497951E-1	5.432119E-1	5.457745E-1	5.839951E-1	5.410241E-1	5.294773E-1	5.648483E-1	5.799861E-1	4.771009E-1	5.054860E-1	5.098913E-1	5.735834E-1	5.297669E-1	4.804324E-1	5.749712E-1	5.585694E-1	5.870846E-1	5.507787E-1	6.149785E-1	6.142697E-1	5.641698E-1	5.158539E-1	5.255303E-1	6.216704E-1	4.857783E-1	4.626908E-1	4.863420E-1	5.729970E-1	4.269759E-1	5.350809E-1	4.699374E-1	6.008194E-1	5.516454E-1	5.736572E-1	5.442568E-1	5.832904E-1	5.876949E-1	5.490454E-1	5.724137E-1	5.771708E-1	5.141561E-1	4.406624E-1	4.904286E-1	5.793617E-1	5.508465E-1	4.749979E-1	5.504188E-1	5.655860E-1	5.679011E-1	5.536533E-1	5.742676E-1	5.616651E-1	5.556670E-1	5.844692E-1	5.390150E-1	5.327346E-1	4.672720E-1	4.956513E-1	4.923949E-1	5.703735E-1	5.015843E-1	5.462797E-1	5.463258E-1	5.031867E-1	5.559095E-1	5.795298E-1	5.875418E-1	4.956075E-1	5.369891E-1	5.473522E-1	5.500608E-1	5.052016E-1	4.816489E-1	5.089423E-1	4.893153E-1	5.896494E-1	5.147491E-1	5.213838E-1	5.291967E-1	5.620985E-1	5.416706E-1	5.694114E-1	5.614036E-1	5.026699E-1	5.151481E-1	5.517327E-1	5.344556E-1	5.259180E-1
2.862030E+2	9.278013E-1	9.558368E-1	7.525126E-1	8.907483E-1	9.023366E-1	9.321540E-1	8.922552E-1	9.373668E-1	9.157931E-1	7.897590E-1	8.075430E-1	8.626230E-1	8.197570E-1	7.594583E-1	7.505021E-1	8.627320E-1	8.961233E-1	8.345851E-1	7.866944E-1	8.935772E-1	9.060516E-1	8.860302E-1	8.737600E-1	9.260273E-1	8.546139E-1	8.126801E-1	8.366010E-1	8.917845E-1	7.607058E-1	7.559188E-1	7.533003E-1	8.918721E-1	7.720156E-1	8.052876E-1	8.120902E-1	9.038135E-1	9.005043E-1	8.674596E-1	8.637807E-1	9.448462E-1	7.952918E-1	8.149284E-1	7.937727E-1	9.186443E-1	7.578168E-1	7.915684E-1	7.517618E-1	9.392452E-1	7.877258E-1	8.283951E-1	8.343655E-1	8.775032E-1	8.512267E-1	8.893303E-1	9.039004E-1	9.508923E-1	7.947351E-1	8.799564E-1	8.938818E-1	8.992397E-1	7.851666E-1	7.572796E-1	8.041108E-1	8.930152E-1	7.996714E-1	8.042458E-1	8.679694E-1	9.281654E-1	8.970559E-1	8.376623E-1	9.061690E-1	9.161199E-1	8.354662E-1	8.490285E-1	8.931210E-1	9.734395E-1	7.672267E-1	7.851410E-1	7.794948E-1	9.091382E-1	7.830165E-1	7.896488E-1	7.728018E-1	9.282196E-1	8.700582E-1	8.374908E-1	8.797788E-1	8.962103E-1	8.612249E-1	8.469064E-1	8.988359E-1	9.253885E-1	7.566667E-1	7.694902E-1	8.505567E-1	9.358282E-1	7.681885E-1	7.904225E-1	9.260671E-1	9.506781E-1	8.597644E-1	8.513251E-1	9.126548E-1	9.426263E-1	8.433904E-1	8.543050E-1	7.956967E-1	9.368521E-1	7.799118E-1	7.436430E-1	7.177153E-1	9.642639E-1	6.716557E-1	8.015469E-1	7.908940E-1	9.809305E-1	8.237341E-1	9.048027E-1	8.592010E-1	9.373818E-1	9.595903E-1	8.249249E-1	9.102020E-1	9.381364E-1	8.303144E-1	7.447003E-1	8.027301E-1	9.140587E-1	8.557196E-1	7.667888E-1	8.580468E-1	9.265933E-1	9.327033E-1	8.814172E-1	9.394353E-1	9.448511E-1	9.157734E-1	9.093364E-1	8.238104E-1	8.943875E-1	7.534640E-1	7.816982E-1	8.021217E-1	9.700914E-1	7.771172E-1	8.505749E-1	8.224704E-1	8.737041E-1	8.464408E-1	8.774490E-1	9.552664E-1	9.048530E-1	8.271345E-1	8.486676E-1	9.210635E-1	9.143595E-1	7.560121E-1	7.560245E-1	7.445620E-1	9.335403E-1	7.968574E-1	7.674453E-1	7.778828E-1	8.508951E-1	8.887900E-1	8.907536E-1	8.689694E-1	7.690970E-1	8.678076E-1	9.751881E-1	7.750257E-1	7.601886E-1
2.864220E+2	9.501093E-1	9.827015E-1	7.403050E-1	9.253137E-1	9.667112E-1	9.583384E-1	9.481708E-1	9.917585E-1	9.446143E-1	8.477981E-1	8.860760E-1	9.080073E-1	8.809322E-1	8.155600E-1	8.064929E-1	8.770201E-1	9.357222E-1	8.984908E-1	8.062771E-1	8.912046E-1	9.309088E-1	9.508326E-1	9.205718E-1	9.817326E-1	8.494298E-1	8.388149E-1	8.385513E-1	9.049814E-1	7.948906E-1	7.785547E-1	7.705330E-1	9.494809E-1	8.475999E-1	8.757761E-1	8.582153E-1	9.032669E-1	8.980318E-1	9.174568E-1	9.186995E-1	9.330491E-1	9.196570E-1	8.875359E-1	9.017180E-1	9.253128E-1	7.788802E-1	8.292032E-1	7.631700E-1	9.737417E-1	8.305056E-1	8.869945E-1	8.522695E-1	9.687899E-1	9.549972E-1	9.498758E-1	9.534155E-1	9.945319E-1	8.427503E-1	8.870500E-1	9.297324E-1	9.643815E-1	7.872384E-1	7.889031E-1	8.455315E-1	1.038351E+0	8.736426E-1	8.072405E-1	9.408019E-1	9.972371E-1	9.821203E-1	8.935611E-1	9.521069E-1	9.574840E-1	9.157400E-1	8.711192E-1	9.379619E-1	9.944380E-1	7.924407E-1	7.876289E-1	8.079198E-1	9.544647E-1	8.490257E-1	7.979777E-1	8.637197E-1	9.536338E-1	9.229851E-1	8.878487E-1	9.693153E-1	1.011708E+0	9.172444E-1	8.816255E-1	9.805173E-1	9.377450E-1	8.157087E-1	7.979663E-1	8.883518E-1	9.944106E-1	8.407988E-1	8.362517E-1	9.162009E-1	9.864358E-1	9.231303E-1	9.242142E-1	9.394352E-1	9.497096E-1	9.342141E-1	8.886874E-1	8.303338E-1	9.962266E-1	7.613765E-1	8.014864E-1	7.436813E-1	9.594201E-1	7.374296E-1	8.386159E-1	8.233884E-1	1.038138E+0	8.742798E-1	9.320918E-1	8.999591E-1	9.922260E-1	9.501192E-1	8.859850E-1	9.915100E-1	9.398772E-1	8.640302E-1	7.883336E-1	8.641488E-1	9.626439E-1	9.234679E-1	8.193891E-1	9.506528E-1	9.781660E-1	9.593557E-1	8.748835E-1	1.010164E+0	9.781945E-1	9.036897E-1	9.380198E-1	9.210028E-1	9.953140E-1	7.783084E-1	8.428060E-1	8.228342E-1	1.006071E+0	8.144960E-1	8.523898E-1	8.944115E-1	9.912600E-1	9.319837E-1	9.478370E-1	9.866776E-1	1.027008E+0	8.931042E-1	9.121909E-1	9.083119E-1	9.794807E-1	7.930297E-1	8.400036E-1	7.675488E-1	9.390605E-1	8.774592E-1	8.527819E-1	8.666232E-1	9.613005E-1	9.101764E-1	1.010275E+0	9.566889E-1	9.900740E-1	8.848130E-1	9.669859E-1	9.270364E-1	1.009573E+0
2.866160E+2	8.730429E-1	8.962113E-1	7.075653E-1	8.401341E-1	8.431818E-1	8.640748E-1	8.309635E-1	8.807767E-1	8.700549E-1	7.555871E-1	7.728662E-1	8.779557E-1	7.914077E-1	6.931562E-1	7.343839E-1	8.389190E-1	8.536539E-1	7.786022E-1	7.599479E-1	8.212052E-1	8.761229E-1	8.376859E-1	8.455725E-1	8.949125E-1	8.050764E-1	8.153473E-1	7.381331E-1	8.567839E-1	7.321400E-1	7.217244E-1	7.052304E-1	8.574053E-1	7.093092E-1	7.485900E-1	7.484176E-1	8.218360E-1	8.322622E-1	8.023688E-1	8.221003E-1	8.657041E-1	7.985939E-1	8.257424E-1	7.927446E-1	8.702982E-1	7.582848E-1	7.748421E-1	6.951780E-1	8.568650E-1	7.492781E-1	7.762471E-1	8.067434E-1	8.411114E-1	8.289901E-1	8.669975E-1	8.639852E-1	9.030473E-1	8.236534E-1	8.161149E-1	8.383128E-1	8.711505E-1	7.318211E-1	7.054906E-1	7.657209E-1	8.670430E-1	7.923952E-1	7.668122E-1	8.062071E-1	8.879234E-1	8.309551E-1	7.956224E-1	8.558325E-1	8.758026E-1	8.260546E-1	7.590492E-1	7.965815E-1	9.212274E-1	7.369700E-1	7.299082E-1	7.478075E-1	8.653745E-1	7.548081E-1	7.890934E-1	7.524906E-1	8.829683E-1	8.084904E-1	8.254263E-1	8.148891E-1	8.482175E-1	8.682273E-1	7.736112E-1	8.697936E-1	8.747843E-1	7.339584E-1	7.202612E-1	8.117404E-1	9.283031E-1	7.188788E-1	7.276006E-1	8.152250E-1	9.124539E-1	8.602844E-1	8.298570E-1	8.590934E-1	8.955737E-1	8.212989E-1	7.586789E-1	7.754478E-1	8.652706E-1	7.208903E-1	7.237139E-1	6.834033E-1	8.706179E-1	6.342964E-1	7.403030E-1	7.869034E-1	8.938488E-1	8.097532E-1	8.413027E-1	8.046816E-1	9.075632E-1	8.396240E-1	7.805180E-1	8.838962E-1	8.522476E-1	7.805690E-1	7.173135E-1	7.340237E-1	9.027219E-1	8.525824E-1	7.302460E-1	7.889101E-1	9.091786E-1	8.322021E-1	8.035598E-1	8.791850E-1	8.998640E-1	8.027873E-1	8.469819E-1	8.232451E-1	8.505327E-1	6.946967E-1	7.500906E-1	7.568423E-1	9.071261E-1	7.472148E-1	7.991528E-1	7.970140E-1	8.558551E-1	8.151447E-1	8.518039E-1	9.086917E-1	8.692889E-1	8.454599E-1	8.222463E-1	8.481985E-1	9.155880E-1	7.652662E-1	7.487432E-1	7.124772E-1	8.993168E-1	7.231820E-1	7.936221E-1	7.725691E-1	8.549626E-1	8.663071E-1	8.682130E-1	8.651314E-1	8.725331E-1	7.561687E-1	8.890610E-1	8.292203E-1	9.415583E-1
2.868020E+2	1.028528E+0	9.820464E-1	7.880266E-1	9.339556E-1	1.020646E+0	9.821950E-1	1.022904E+0	1.012636E+0	9.671696E-1	8.830552E-1	9.095341E-1	9.846675E-1	8.988374E-1	8.095327E-1	8.137036E-1	9.077115E-1	9.116184E-1	8.477889E-1	8.420985E-1	9.303565E-1	1.001420E+0	9.791194E-1	9.321484E-1	1.017364E+0	9.392883E-1	8.996195E-1	8.716984E-1	9.899014E-1	8.005101E-1	8.137120E-1	7.823239E-1	9.430805E-1	8.677560E-1	8.916106E-1	8.837845E-1	9.327784E-1	9.281972E-1	9.316069E-1	9.589083E-1	9.718826E-1	8.668298E-1	9.071035E-1	8.611099E-1	1.003112E+0	8.364540E-1	8.640501E-1	8.366371E-1	9.907322E-1	8.792419E-1	8.859192E-1	8.962614E-1	1.018134E+0	9.666447E-1	9.821340E-1	9.817100E-1	9.887486E-1	8.727598E-1	9.416152E-1	9.357079E-1	1.026535E+0	7.893103E-1	8.186932E-1	8.642213E-1	9.836437E-1	9.003206E-1	8.875987E-1	9.699347E-1	9.702091E-1	9.826621E-1	9.443782E-1	1.004887E+0	9.831402E-1	9.262586E-1	9.179949E-1	9.374340E-1	9.961410E-1	8.040389E-1	8.100202E-1	8.382091E-1	1.023757E+0	8.552318E-1	8.679472E-1	8.530808E-1	1.005703E+0	9.402680E-1	9.098808E-1	9.622738E-1	1.006434E+0	9.185174E-1	9.240591E-1	9.859633E-1	1.042484E+0	8.298382E-1	7.878313E-1	9.046956E-1	1.027733E+0	8.603066E-1	8.300725E-1	9.695908E-1	1.017879E+0	9.683171E-1	8.967561E-1	9.708507E-1	1.023577E+0	9.452607E-1	8.806288E-1	8.974755E-1	9.895686E-1	7.779605E-1	8.044025E-1	7.886576E-1	1.013777E+0	6.795485E-1	8.794459E-1	8.000155E-1	1.031782E+0	8.694407E-1	9.662034E-1	9.290720E-1	1.046005E+0	9.141294E-1	9.265065E-1	9.939015E-1	1.035052E+0	8.911134E-1	8.101499E-1	8.865306E-1	9.388910E-1	9.585977E-1	8.620222E-1	8.713669E-1	9.667797E-1	9.654630E-1	8.874060E-1	1.005449E+0	1.055467E+0	9.018772E-1	1.004116E+0	9.509517E-1	9.814967E-1	7.902532E-1	8.644046E-1	8.228343E-1	9.695293E-1	8.449321E-1	9.334540E-1	8.573344E-1	1.022034E+0	9.121623E-1	1.004038E+0	1.001300E+0	9.837124E-1	9.083753E-1	9.239964E-1	9.653890E-1	1.035386E+0	8.131711E-1	8.676725E-1	8.350713E-1	1.003644E+0	9.070559E-1	9.009468E-1	8.214561E-1	9.996516E-1	9.277247E-1	9.499900E-1	9.819081E-1	1.063734E+0	9.232578E-1	9.885168E-1	8.992772E-1	9.768248E-1
2.870060E+2	1.039344E+0	1.014808E+0	8.174360E-1	9.574107E-1	9.748301E-1	1.031072E+0	9.417192E-1	1.072523E+0	9.941100E-1	8.819702E-1	8.911757E-1	9.374443E-1	9.058002E-1	8.239060E-1	8.539999E-1	9.346998E-1	9.793391E-1	8.673303E-1	8.440091E-1	9.683223E-1	9.831582E-1	9.971194E-1	9.120147E-1	9.852458E-1	9.352560E-1	9.022858E-1	8.809603E-1	1.014000E+0	8.253292E-1	8.228629E-1	8.122540E-1	9.381565E-1	8.392018E-1	9.115316E-1	8.847874E-1	9.366040E-1	9.430324E-1	9.707561E-1	1.011376E+0	1.003835E+0	9.108531E-1	9.189475E-1	8.893811E-1	1.049236E+0	8.603258E-1	9.249161E-1	8.421132E-1	9.886730E-1	8.602887E-1	9.348417E-1	9.003536E-1	1.005182E+0	9.338193E-1	1.005459E+0	9.382579E-1	9.924288E-1	8.951307E-1	9.454345E-1	9.542300E-1	9.882866E-1	8.152062E-1	8.219013E-1	8.495722E-1	1.019010E+0	9.215422E-1	8.716269E-1	9.617773E-1	1.014055E+0	1.021131E+0	9.346768E-1	9.579715E-1	1.022410E+0	9.024535E-1	9.120681E-1	9.131672E-1	1.052894E+0	8.600132E-1	8.179819E-1	8.568491E-1	1.039387E+0	8.721570E-1	8.662817E-1	8.695231E-1	9.604522E-1	8.900406E-1	9.612875E-1	9.788731E-1	1.020146E+0	9.917243E-1	9.709025E-1	1.034367E+0	9.706968E-1	8.374077E-1	7.974838E-1	8.459601E-1	9.610882E-1	8.944443E-1	8.105045E-1	9.220044E-1	9.839703E-1	9.454642E-1	9.651525E-1	1.008446E+0	9.906908E-1	9.280777E-1	9.424092E-1	9.337108E-1	1.012319E+0	7.921064E-1	7.980837E-1	7.928304E-1	1.022389E+0	7.479537E-1	8.418391E-1	8.615843E-1	1.064200E+0	8.995532E-1	9.940176E-1	9.502441E-1	1.066771E+0	9.930544E-1	9.104086E-1	1.063851E+0	1.017062E+0	8.502117E-1	8.315024E-1	8.485334E-1	1.006370E+0	9.052767E-1	8.564853E-1	9.677788E-1	1.051840E+0	9.932261E-1	9.462072E-1	1.021166E+0	1.045940E+0	9.151696E-1	9.835387E-1	9.758148E-1	9.941128E-1	8.055424E-1	8.327969E-1	8.854542E-1	1.015067E+0	8.363887E-1	8.838475E-1	9.226355E-1	1.032497E+0	9.554551E-1	9.745729E-1	9.969673E-1	1.018761E+0	9.792316E-1	9.088184E-1	9.544595E-1	1.035387E+0	8.616203E-1	8.404886E-1	8.398604E-1	1.031243E+0	9.001291E-1	9.161296E-1	8.363350E-1	1.011854E+0	9.694006E-1	9.898302E-1	9.780697E-1	9.791036E-1	9.668783E-1	1.007998E+0	9.415756E-1	1.047357E+0
2.872190E+2	8.615509E-1	8.804859E-1	6.631727E-1	8.333448E-1	8.153441E-1	8.442915E-1	8.433298E-1	8.417677E-1	8.449937E-1	7.485357E-1	7.371691E-1	8.417722E-1	7.481374E-1	6.709013E-1	6.996016E-1	8.262190E-1	7.962632E-1	7.527229E-1	7.212606E-1	7.968835E-1	8.253955E-1	8.330571E-1	8.007743E-1	8.828677E-1	7.474752E-1	7.252069E-1	7.415451E-1	8.068648E-1	6.567460E-1	6.610407E-1	6.843693E-1	7.796087E-1	7.361832E-1	7.174317E-1	7.133226E-1	7.808478E-1	8.090201E-1	7.910487E-1	8.328880E-1	8.612803E-1	7.512689E-1	7.974207E-1	7.511078E-1	8.441798E-1	7.011792E-1	7.125822E-1	6.869645E-1	8.383296E-1	7.308668E-1	7.767845E-1	7.494515E-1	8.022535E-1	7.935173E-1	8.272953E-1	8.564066E-1	8.352219E-1	7.450835E-1	7.839215E-1	8.168019E-1	8.161679E-1	7.447690E-1	6.912833E-1	7.743079E-1	8.576486E-1	7.499527E-1	7.403584E-1	7.881444E-1	8.813163E-1	8.374570E-1	8.094818E-1	8.357952E-1	8.559063E-1	8.016950E-1	7.601267E-1	7.812829E-1	8.849048E-1	6.951157E-1	6.836329E-1	7.221782E-1	8.700633E-1	7.299842E-1	7.480008E-1	7.273426E-1	7.974267E-1	7.852667E-1	8.228032E-1	8.360154E-1	8.772243E-1	7.905639E-1	7.868375E-1	8.770541E-1	8.288873E-1	7.137728E-1	7.038512E-1	7.887573E-1	8.251122E-1	7.194206E-1	7.322348E-1	7.966546E-1	8.532675E-1	7.948403E-1	8.043956E-1	8.271626E-1	8.788774E-1	8.710061E-1	7.785561E-1	7.248247E-1	8.686004E-1	6.774773E-1	6.872585E-1	6.477005E-1	8.517806E-1	6.242985E-1	7.719998E-1	7.737916E-1	8.620663E-1	7.823294E-1	8.224098E-1	8.004469E-1	8.926543E-1	8.194193E-1	7.572042E-1	8.623735E-1	8.592117E-1	7.114786E-1	6.945689E-1	7.111213E-1	8.768099E-1	8.356451E-1	7.307995E-1	8.085723E-1	8.643039E-1	8.421970E-1	7.823259E-1	9.064288E-1	9.109782E-1	7.768065E-1	8.638176E-1	8.074234E-1	8.547378E-1	6.765409E-1	7.032062E-1	7.428737E-1	8.419116E-1	7.130398E-1	7.574108E-1	7.505290E-1	9.038626E-1	7.989746E-1	8.348891E-1	8.464110E-1	8.409406E-1	7.947607E-1	8.166250E-1	8.263391E-1	8.504670E-1	6.988535E-1	7.176759E-1	6.904478E-1	8.949011E-1	7.559261E-1	7.307977E-1	7.242136E-1	8.427601E-1	8.668558E-1	8.053074E-1	8.311406E-1	8.474576E-1	8.057046E-1	8.808595E-1	7.961754E-1	7.778204E-1
2.874030E+2	6.438722E-1	6.793295E-1	5.560764E-1	7.061930E-1	6.773167E-1	7.122075E-1	6.788097E-1	7.186985E-1	7.265780E-1	5.809283E-1	5.989712E-1	6.455197E-1	6.998937E-1	5.624071E-1	5.748947E-1	6.462995E-1	7.440378E-1	5.889983E-1	5.999445E-1	6.426476E-1	6.980686E-1	6.911097E-1	6.145347E-1	7.117365E-1	6.806571E-1	6.190662E-1	5.836056E-1	6.674360E-1	6.234977E-1	5.396740E-1	5.460543E-1	6.269695E-1	6.673177E-1	6.234468E-1	5.829695E-1	6.360212E-1	6.809414E-1	6.363398E-1	6.926479E-1	6.744844E-1	6.522164E-1	6.547804E-1	6.169465E-1	7.035861E-1	6.113088E-1	6.196568E-1	5.664959E-1	6.684211E-1	5.819494E-1	6.515220E-1	6.184994E-1	6.462026E-1	6.939816E-1	6.595533E-1	6.735043E-1	6.937892E-1	6.021289E-1	6.491452E-1	6.853491E-1	6.876770E-1	5.785168E-1	5.675395E-1	6.106458E-1	7.134179E-1	5.977656E-1	6.180747E-1	6.407318E-1	7.029309E-1	6.749140E-1	6.330072E-1	6.735448E-1	6.857374E-1	6.217705E-1	6.124954E-1	6.435956E-1	7.373470E-1	5.877047E-1	5.622208E-1	5.590820E-1	6.710432E-1	6.081217E-1	5.875166E-1	6.228841E-1	6.994877E-1	6.680708E-1	6.397312E-1	6.730381E-1	7.031854E-1	6.708869E-1	6.633923E-1	7.130856E-1	6.594224E-1	5.719715E-1	5.754685E-1	6.171474E-1	7.251457E-1	5.915396E-1	5.926876E-1	6.399674E-1	6.948208E-1	7.003116E-1	6.481316E-1	6.613296E-1	7.058455E-1	6.470153E-1	6.200749E-1	6.166517E-1	6.932525E-1	5.604093E-1	5.458098E-1	5.280726E-1	7.010871E-1	5.232692E-1	5.861178E-1	5.902247E-1	7.006143E-1	6.161723E-1	6.833395E-1	6.480031E-1	7.158744E-1	6.603060E-1	6.461858E-1	7.230731E-1	6.833714E-1	6.302280E-1	5.664550E-1	6.049388E-1	6.948860E-1	6.656444E-1	5.957009E-1	6.049673E-1	7.082470E-1	7.178202E-1	6.979347E-1	6.842898E-1	7.066833E-1	6.233384E-1	7.004485E-1	6.605054E-1	6.793181E-1	5.633062E-1	6.136522E-1	5.988478E-1	7.159810E-1	5.587196E-1	6.261344E-1	6.287818E-1	7.118340E-1	6.696184E-1	6.570107E-1	6.963966E-1	7.553805E-1	6.475501E-1	6.378595E-1	6.702875E-1	7.232961E-1	5.992330E-1	5.570001E-1	5.549228E-1	6.961838E-1	6.041675E-1	6.276611E-1	5.727702E-1	7.015573E-1	6.617635E-1	6.637697E-1	6.458334E-1	7.064080E-1	6.415730E-1	6.788720E-1	6.706023E-1	8.055304E-1
2.876170E+2	5.248927E-1	5.410758E-1	4.567481E-1	5.333653E-1	5.131903E-1	5.516120E-1	5.271929E-1	5.264022E-1	5.505196E-1	5.185509E-1	4.714822E-1	5.124357E-1	5.770459E-1	4.260944E-1	4.565508E-1	5.071263E-1	5.517788E-1	4.648843E-1	4.585690E-1	5.026495E-1	5.423353E-1	5.183036E-1	5.204077E-1	5.385981E-1	5.418379E-1	5.102588E-1	4.461402E-1	5.343180E-1	5.570011E-1	4.375723E-1	4.372165E-1	5.324318E-1	5.463832E-1	4.589720E-1	4.917218E-1	5.349164E-1	5.345667E-1	5.240815E-1	4.916039E-1	5.624072E-1	5.372059E-1	5.157458E-1	5.259638E-1	5.207588E-1	5.139489E-1	4.779455E-1	4.515031E-1	5.247713E-1	5.023467E-1	4.854010E-1	4.686205E-1	5.518320E-1	5.526208E-1	5.399502E-1	5.143495E-1	5.339535E-1	5.071902E-1	4.958168E-1	5.174474E-1	5.281093E-1	4.868446E-1	4.364632E-1	4.762814E-1	5.769236E-1	4.898406E-1	4.558612E-1	5.119637E-1	5.575799E-1	5.226661E-1	5.128942E-1	5.288881E-1	5.831123E-1	4.850281E-1	4.734853E-1	5.122390E-1	5.761685E-1	4.439866E-1	4.383211E-1	4.453813E-1	5.439194E-1	4.727188E-1	4.770101E-1	4.526550E-1	5.327433E-1	5.060486E-1	5.327209E-1	5.206240E-1	5.560437E-1	4.990096E-1	5.201088E-1	5.279403E-1	5.629213E-1	4.417769E-1	4.557741E-1	5.088695E-1	5.526228E-1	4.967121E-1	4.969107E-1	5.157786E-1	5.345254E-1	5.408586E-1	5.118377E-1	5.336076E-1	5.636758E-1	5.101667E-1	5.147795E-1	4.759738E-1	5.789434E-1	4.452921E-1	4.612328E-1	4.455387E-1	5.460869E-1	4.138216E-1	4.609434E-1	4.864700E-1	5.677662E-1	5.054012E-1	5.327239E-1	5.199083E-1	5.412250E-1	5.422340E-1	4.757738E-1	5.628479E-1	5.249411E-1	4.445131E-1	4.267366E-1	5.174949E-1	5.453523E-1	5.251270E-1	4.495289E-1	5.041156E-1	5.736232E-1	5.745643E-1	5.237081E-1	5.417851E-1	5.516091E-1	5.169982E-1	5.788577E-1	5.034156E-1	5.333352E-1	4.577166E-1	4.819544E-1	4.760168E-1	5.799310E-1	4.674099E-1	4.912283E-1	4.815783E-1	5.628883E-1	5.214841E-1	5.233292E-1	5.869997E-1	5.595200E-1	5.009502E-1	5.327367E-1	5.306302E-1	5.592642E-1	4.674949E-1	4.506913E-1	4.529204E-1	5.730897E-1	5.040442E-1	4.910185E-1	4.781843E-1	5.446656E-1	5.285098E-1	5.327166E-1	5.268641E-1	5.643138E-1	5.018408E-1	5.589101E-1	5.754312E-1	5.183608E-1
2.878020E+2	4.714869E-1	4.290307E-1	3.679634E-1	4.352240E-1	4.493965E-1	4.416385E-1	4.347179E-1	4.851963E-1	4.728284E-1	4.084401E-1	4.102876E-1	4.296418E-1	4.656375E-1	3.931750E-1	3.734128E-1	4.393918E-1	4.748757E-1	4.184076E-1	4.065082E-1	4.136674E-1	4.642142E-1	4.272717E-1	4.474221E-1	4.362203E-1	4.658038E-1	4.131851E-1	4.188424E-1	4.534150E-1	4.371192E-1	3.783339E-1	3.732744E-1	4.438022E-1	4.847960E-1	3.930804E-1	4.069923E-1	4.201479E-1	4.420929E-1	4.278599E-1	4.499240E-1	4.228024E-1	4.590645E-1	4.055480E-1	3.876906E-1	4.540743E-1	4.339073E-1	3.943129E-1	3.561323E-1	4.475398E-1	4.844767E-1	3.945450E-1	3.872865E-1	4.358733E-1	4.340256E-1	4.511166E-1	4.577609E-1	4.519323E-1	4.902756E-1	4.341581E-1	4.326007E-1	4.336826E-1	4.754507E-1	3.668001E-1	3.924301E-1	4.431920E-1	4.758954E-1	3.755038E-1	4.140772E-1	4.422603E-1	4.755283E-1	4.343586E-1	4.291921E-1	4.736802E-1	4.545793E-1	4.061351E-1	4.209749E-1	4.774190E-1	4.485245E-1	3.706489E-1	3.955204E-1	4.563927E-1	4.727185E-1	3.898267E-1	4.091306E-1	4.521602E-1	4.428603E-1	4.283338E-1	4.376257E-1	4.711344E-1	4.601781E-1	4.142991E-1	4.275016E-1	4.652441E-1	3.751655E-1	3.573150E-1	3.913989E-1	4.768419E-1	3.872553E-1	3.815656E-1	4.310511E-1	4.636249E-1	4.577563E-1	4.384489E-1	4.651115E-1	4.569217E-1	4.389807E-1	4.180791E-1	4.066999E-1	4.762874E-1	3.765148E-1	3.810301E-1	3.662505E-1	4.492125E-1	3.317353E-1	4.104436E-1	4.055188E-1	4.864042E-1	4.279689E-1	4.608272E-1	4.394518E-1	4.533676E-1	4.620453E-1	4.119386E-1	4.450703E-1	4.547210E-1	4.074799E-1	3.636086E-1	3.915329E-1	4.525005E-1	4.310308E-1	3.637076E-1	4.267327E-1	4.811945E-1	4.651795E-1	4.093719E-1	4.742006E-1	4.621638E-1	4.040118E-1	4.522783E-1	4.237407E-1	4.792673E-1	3.440037E-1	3.813377E-1	3.984651E-1	4.911047E-1	3.846427E-1	4.422263E-1	3.980152E-1	4.613342E-1	4.202937E-1	4.332988E-1	4.445672E-1	4.863296E-1	4.343694E-1	4.405426E-1	4.365135E-1	4.812420E-1	3.695078E-1	3.880715E-1	3.648047E-1	4.737312E-1	4.297390E-1	3.863112E-1	4.011335E-1	4.377471E-1	4.588662E-1	4.540845E-1	4.374999E-1	4.760273E-1	4.648739E-1	4.461257E-1	4.247442E-1	4.704996E-1
2.880020E+2	5.505814E-1	5.377999E-1	4.123559E-1	5.234897E-1	5.160906E-1	5.248458E-1	5.089127E-1	5.099202E-1	5.448808E-1	4.540029E-1	4.658728E-1	5.179553E-1	5.556598E-1	4.413943E-1	4.455220E-1	5.013049E-1	5.236577E-1	4.506244E-1	4.389868E-1	4.878194E-1	5.504514E-1	5.008171E-1	4.766167E-1	5.350851E-1	5.285895E-1	4.750562E-1	4.519900E-1	5.503846E-1	5.649619E-1	4.308299E-1	4.571700E-1	5.102746E-1	5.603802E-1	4.768500E-1	4.897166E-1	4.644161E-1	5.207200E-1	4.759704E-1	4.979787E-1	5.673231E-1	5.184956E-1	4.941181E-1	4.642806E-1	5.179803E-1	5.537353E-1	4.709764E-1	4.378135E-1	5.227117E-1	5.402530E-1	4.923898E-1	4.895935E-1	5.623174E-1	5.197954E-1	5.126552E-1	5.143497E-1	5.355309E-1	5.110093E-1	4.565296E-1	5.371652E-1	5.143632E-1	5.262066E-1	4.492957E-1	4.616325E-1	5.200044E-1	5.474411E-1	4.488733E-1	5.329397E-1	5.263473E-1	5.595086E-1	4.773221E-1	5.142265E-1	5.595504E-1	5.342992E-1	4.707911E-1	4.985232E-1	5.534673E-1	5.357644E-1	4.064754E-1	4.337311E-1	5.486089E-1	5.240593E-1	4.475787E-1	4.584583E-1	5.439003E-1	5.373732E-1	5.022964E-1	5.231386E-1	5.665916E-1	5.352949E-1	4.661019E-1	5.097885E-1	5.187901E-1	5.270593E-1	4.548089E-1	4.863970E-1	5.321995E-1	5.156782E-1	4.428425E-1	5.407318E-1	5.314425E-1	5.507271E-1	5.058464E-1	5.217621E-1	5.277537E-1	5.310313E-1	4.701897E-1	4.466650E-1	5.206794E-1	4.906562E-1	4.432477E-1	4.191093E-1	5.353238E-1	4.832786E-1	4.485865E-1	4.363031E-1	5.359841E-1	5.107782E-1	5.447940E-1	4.727985E-1	5.678484E-1	5.220287E-1	4.718878E-1	5.443145E-1	5.272621E-1	4.428544E-1	4.341636E-1	4.670063E-1	5.545295E-1	5.125809E-1	4.412232E-1	5.148986E-1	5.401340E-1	5.312545E-1	5.133634E-1	5.595981E-1	5.404948E-1	4.753084E-1	5.426923E-1	5.147169E-1	5.423466E-1	4.390829E-1	4.608830E-1	4.548231E-1	5.563189E-1	4.433805E-1	4.960677E-1	4.882189E-1	5.536561E-1	5.152250E-1	5.446088E-1	5.344679E-1	5.363255E-1	4.789601E-1	4.973201E-1	5.482392E-1	5.611077E-1	4.560630E-1	4.701086E-1	4.275390E-1	5.421780E-1	4.750776E-1	4.737419E-1	4.526773E-1	5.690712E-1	5.444120E-1	5.390075E-1	5.142539E-1	5.298354E-1	5.314131E-1	5.527584E-1	5.688217E-1	5.435513E-1
2.882150E+2	5.641014E-1	6.249451E-1	5.061350E-1	6.419993E-1	6.593381E-1	6.447104E-1	5.734309E-1	6.258472E-1	6.213187E-1	5.375352E-1	5.530751E-1	6.068821E-1	5.939562E-1	5.331973E-1	5.189040E-1	5.748608E-1	6.424562E-1	5.446343E-1	5.326000E-1	5.744286E-1	6.245138E-1	5.975064E-1	6.029576E-1	6.023331E-1	6.028952E-1	5.614617E-1	5.514329E-1	6.106311E-1	6.263073E-1	5.001819E-1	5.179382E-1	5.772385E-1	6.219675E-1	5.882017E-1	5.298255E-1	6.245449E-1	6.270397E-1	5.764367E-1	6.087980E-1	6.287688E-1	6.180987E-1	5.641505E-1	5.208240E-1	6.041145E-1	6.276913E-1	5.137220E-1	5.135628E-1	6.292908E-1	6.025275E-1	5.870091E-1	5.622307E-1	6.042604E-1	5.886231E-1	5.841188E-1	5.921586E-1	6.012525E-1	6.086765E-1	5.918518E-1	6.046849E-1	6.093871E-1	6.385954E-1	4.905435E-1	5.197225E-1	6.504198E-1	6.044354E-1	5.402124E-1	5.847967E-1	6.260507E-1	6.174822E-1	5.854243E-1	6.070810E-1	6.129577E-1	6.544337E-1	5.473006E-1	6.151084E-1	6.561909E-1	6.381321E-1	5.268923E-1	5.213372E-1	6.403044E-1	6.233541E-1	5.086627E-1	5.450236E-1	6.554766E-1	6.135234E-1	5.815054E-1	5.819918E-1	6.736518E-1	6.473330E-1	5.586850E-1	6.350338E-1	6.129374E-1	6.617963E-1	4.939028E-1	5.604546E-1	6.149677E-1	6.245938E-1	5.489188E-1	5.923803E-1	6.775584E-1	6.540856E-1	6.046975E-1	5.902588E-1	6.304597E-1	6.236960E-1	5.856929E-1	5.638974E-1	6.538549E-1	6.569904E-1	5.287973E-1	5.433743E-1	6.117471E-1	6.595535E-1	5.683893E-1	5.218152E-1	6.643831E-1	6.409074E-1	5.631616E-1	5.987765E-1	6.493164E-1	6.426265E-1	5.795754E-1	6.268184E-1	5.992235E-1	6.175153E-1	5.130748E-1	5.221795E-1	6.511594E-1	6.317696E-1	5.602656E-1	5.935500E-1	5.957253E-1	6.284243E-1	5.944875E-1	6.476156E-1	6.405254E-1	6.136715E-1	6.331058E-1	6.068234E-1	6.270527E-1	5.967509E-1	5.161958E-1	5.540508E-1	6.237821E-1	6.030401E-1	5.444642E-1	5.634810E-1	6.293600E-1	6.153724E-1	6.079032E-1	6.124537E-1	6.997147E-1	5.950184E-1	6.103137E-1	5.901360E-1	6.594037E-1	5.284643E-1	5.424371E-1	5.161330E-1	6.437452E-1	5.651256E-1	5.674547E-1	5.217573E-1	6.196251E-1	5.707340E-1	6.181639E-1	6.112943E-1	6.484210E-1	5.779911E-1	6.204286E-1	5.265252E-1	6.619449E-1
2.884200E+2	6.878139E-1	7.225750E-1	5.433132E-1	6.771826E-1	6.813757E-1	6.988245E-1	7.094557E-1	7.181489E-1	7.579049E-1	6.270342E-1	6.275285E-1	6.810905E-1	7.187932E-1	5.981083E-1	5.753190E-1	6.394198E-1	7.176382E-1	6.301937E-1	6.200045E-1	7.256980E-1	7.082145E-1	7.188821E-1	6.769500E-1	7.152497E-1	7.324984E-1	6.628028E-1	6.382022E-1	7.041583E-1	7.429110E-1	5.791666E-1	5.732641E-1	6.885174E-1	7.193870E-1	6.229354E-1	6.150560E-1	6.770099E-1	7.096231E-1	6.740733E-1	6.691108E-1	6.794002E-1	7.033936E-1	6.470569E-1	6.220870E-1	7.052534E-1	7.437746E-1	6.284846E-1	5.747099E-1	6.854123E-1	6.832132E-1	6.316301E-1	6.425412E-1	7.239198E-1	7.252198E-1	6.903226E-1	6.825992E-1	7.258612E-1	7.483571E-1	6.546014E-1	6.620460E-1	7.247302E-1	6.940126E-1	5.730394E-1	6.404483E-1	6.763929E-1	7.244875E-1	6.001065E-1	6.733608E-1	7.353649E-1	7.426401E-1	6.644220E-1	6.740332E-1	7.428095E-1	7.352618E-1	6.270433E-1	7.074281E-1	7.691290E-1	7.394912E-1	5.716753E-1	5.907694E-1	7.179326E-1	7.344973E-1	6.236113E-1	6.204658E-1	7.156043E-1	7.236980E-1	6.607139E-1	6.664991E-1	7.485413E-1	7.861080E-1	6.595350E-1	7.300266E-1	6.859015E-1	7.268941E-1	5.527846E-1	6.651574E-1	7.584676E-1	6.896180E-1	5.947482E-1	6.771083E-1	7.392108E-1	7.003120E-1	6.641074E-1	7.174657E-1	7.346840E-1	7.427480E-1	6.458621E-1	6.342364E-1	7.187777E-1	7.355236E-1	5.846965E-1	6.119978E-1	7.145418E-1	7.447964E-1	6.360802E-1	6.267101E-1	7.559149E-1	7.118873E-1	6.565747E-1	6.585893E-1	7.659270E-1	7.505965E-1	6.850422E-1	7.338350E-1	7.170302E-1	7.352455E-1	5.720254E-1	6.377307E-1	7.283558E-1	7.202205E-1	5.940401E-1	6.931329E-1	7.537914E-1	7.455827E-1	6.919454E-1	7.152006E-1	7.500824E-1	7.689520E-1	7.035669E-1	6.780224E-1	7.243744E-1	7.419972E-1	5.978484E-1	6.316031E-1	7.497127E-1	7.060982E-1	6.569872E-1	6.520243E-1	7.536860E-1	7.144758E-1	6.990249E-1	7.467625E-1	7.528032E-1	7.330664E-1	7.261176E-1	6.945761E-1	7.300540E-1	7.320597E-1	6.278721E-1	5.616273E-1	7.204714E-1	7.634823E-1	6.658796E-1	5.733013E-1	7.248006E-1	7.429229E-1	7.140939E-1	6.869520E-1	7.440208E-1	6.874119E-1	6.716947E-1	6.230166E-1	7.047687E-1
2.886040E+2	7.892168E-1	8.319988E-1	6.087915E-1	7.814963E-1	7.666285E-1	8.221803E-1	7.863386E-1	7.939688E-1	8.023891E-1	6.753095E-1	6.928028E-1	7.565245E-1	8.182652E-1	6.532824E-1	6.363997E-1	7.389048E-1	7.658458E-1	6.539603E-1	6.668117E-1	7.690024E-1	8.243809E-1	7.939697E-1	7.136947E-1	7.699515E-1	7.710918E-1	6.884045E-1	6.908483E-1	7.856350E-1	8.023831E-1	6.167322E-1	6.104509E-1	7.672989E-1	7.473808E-1	6.969997E-1	6.832409E-1	7.458706E-1	7.481949E-1	7.269010E-1	7.299145E-1	7.698486E-1	7.738303E-1	6.970062E-1	6.734900E-1	7.863865E-1	8.107096E-1	7.135113E-1	6.559346E-1	7.894163E-1	7.590254E-1	7.450662E-1	7.018789E-1	7.874500E-1	7.686332E-1	7.573202E-1	7.578820E-1	8.173459E-1	8.001914E-1	7.277188E-1	7.863292E-1	7.570025E-1	8.038120E-1	6.514105E-1	6.919716E-1	7.952040E-1	7.808750E-1	6.305529E-1	7.677520E-1	8.188523E-1	7.962792E-1	7.309465E-1	7.937666E-1	7.653237E-1	7.873017E-1	6.938538E-1	7.480480E-1	8.043160E-1	7.974831E-1	6.527817E-1	6.541439E-1	7.669059E-1	8.038914E-1	6.746996E-1	6.664087E-1	8.036257E-1	7.604231E-1	7.283824E-1	7.640844E-1	8.202663E-1	8.274861E-1	7.179511E-1	7.911369E-1	7.765183E-1	8.232780E-1	6.821327E-1	6.912047E-1	8.277995E-1	8.072037E-1	6.853757E-1	7.670584E-1	7.558567E-1	8.504155E-1	7.110368E-1	7.761771E-1	8.287891E-1	8.292764E-1	7.457858E-1	6.901882E-1	8.336412E-1	8.106419E-1	6.410812E-1	6.268354E-1	8.167985E-1	8.316185E-1	6.661657E-1	7.031011E-1	8.086730E-1	7.726502E-1	7.562860E-1	7.067572E-1	8.484595E-1	7.872177E-1	7.255637E-1	7.906308E-1	7.965361E-1	8.352887E-1	6.351537E-1	6.736453E-1	7.369936E-1	7.898514E-1	6.460859E-1	7.565615E-1	7.718749E-1	8.066606E-1	7.812369E-1	8.383205E-1	7.908358E-1	7.961408E-1	7.752744E-1	7.232282E-1	8.006699E-1	7.849975E-1	7.137421E-1	6.446086E-1	7.896280E-1	7.904666E-1	7.453113E-1	6.935285E-1	8.244662E-1	7.989754E-1	7.808711E-1	7.386396E-1	8.538262E-1	8.198040E-1	7.407343E-1	7.680478E-1	8.258927E-1	8.251475E-1	6.502015E-1	6.583620E-1	8.187258E-1	8.119705E-1	7.276569E-1	7.013642E-1	7.695434E-1	7.961152E-1	7.942987E-1	7.368419E-1	8.098442E-1	8.175335E-1	7.834540E-1	7.353724E-1	9.340012E-1
2.888230E+2	9.169845E-1	9.466641E-1	7.314260E-1	9.197587E-1	9.046562E-1	8.989874E-1	8.702117E-1	9.505525E-1	9.182992E-1	7.892167E-1	8.126425E-1	8.736628E-1	9.440964E-1	7.780046E-1	7.755278E-1	8.817821E-1	9.035834E-1	7.944466E-1	7.456192E-1	8.378156E-1	9.238066E-1	8.644299E-1	8.214116E-1	8.944104E-1	8.983914E-1	8.505491E-1	7.620186E-1	8.659644E-1	9.133671E-1	7.438780E-1	7.111254E-1	8.475578E-1	9.237444E-1	7.899634E-1	8.080798E-1	8.453364E-1	8.916033E-1	8.202923E-1	8.642707E-1	9.069955E-1	9.152551E-1	8.324365E-1	7.809218E-1	9.286475E-1	8.991757E-1	7.767000E-1	7.622573E-1	8.856979E-1	8.927803E-1	8.429101E-1	7.985587E-1	9.145110E-1	9.009935E-1	8.739456E-1	8.801535E-1	9.146141E-1	9.235027E-1	8.597671E-1	8.968690E-1	8.729433E-1	9.229336E-1	7.499464E-1	8.106773E-1	9.145670E-1	9.015330E-1	8.082390E-1	8.603945E-1	9.209578E-1	9.691168E-1	8.473638E-1	9.051913E-1	9.004119E-1	9.174012E-1	8.431015E-1	8.910107E-1	9.234971E-1	9.376717E-1	7.294109E-1	7.743685E-1	9.414401E-1	9.387300E-1	7.790983E-1	7.858589E-1	8.513556E-1	9.316265E-1	8.112631E-1	8.888329E-1	9.030655E-1	9.433438E-1	7.984099E-1	8.855243E-1	8.971440E-1	9.236994E-1	7.545284E-1	8.321699E-1	9.207790E-1	9.025724E-1	7.600416E-1	8.593300E-1	9.408132E-1	9.459834E-1	8.633066E-1	9.054445E-1	9.264361E-1	9.280772E-1	8.172365E-1	8.164788E-1	9.263092E-1	9.306373E-1	7.635724E-1	7.167877E-1	9.045242E-1	9.189662E-1	8.074566E-1	7.897537E-1	9.065613E-1	9.060058E-1	8.696412E-1	8.697874E-1	9.437717E-1	9.362288E-1	8.465736E-1	9.060169E-1	9.027361E-1	9.353317E-1	7.335602E-1	8.001271E-1	8.724918E-1	9.121769E-1	7.374438E-1	8.580470E-1	9.292721E-1	9.210433E-1	8.972065E-1	9.614398E-1	9.051566E-1	9.357127E-1	8.625702E-1	8.678864E-1	8.973913E-1	9.221211E-1	7.658945E-1	7.852620E-1	8.941957E-1	9.383792E-1	8.070174E-1	8.302176E-1	9.186343E-1	9.371991E-1	8.692648E-1	8.761974E-1	9.187691E-1	9.059314E-1	8.514786E-1	8.330186E-1	8.842562E-1	9.062591E-1	7.924316E-1	7.129555E-1	8.932450E-1	9.070556E-1	8.035693E-1	7.619413E-1	8.712328E-1	8.953697E-1	8.713581E-1	8.689696E-1	9.085787E-1	9.269544E-1	8.890613E-1	8.173246E-1	8.710255E-1
2.890230E+2	9.102246E-1	9.139021E-1	6.592882E-1	8.580344E-1	8.686997E-1	8.140347E-1	8.024683E-1	8.505584E-1	8.637896E-1	7.713165E-1	7.687863E-1	8.092671E-1	9.117688E-1	6.945470E-1	6.953599E-1	8.024058E-1	8.375843E-1	7.923337E-1	6.992898E-1	8.123071E-1	8.355408E-1	8.104276E-1	7.801369E-1	8.166238E-1	8.753503E-1	7.609431E-1	7.503190E-1	8.671121E-1	8.515534E-1	6.961984E-1	6.866374E-1	8.170300E-1	8.621567E-1	7.501224E-1	7.524286E-1	7.961497E-1	8.604492E-1	8.056705E-1	8.338691E-1	8.588225E-1	8.184042E-1	7.737333E-1	7.146121E-1	8.736327E-1	8.406666E-1	7.488231E-1	6.887894E-1	8.702516E-1	8.370040E-1	7.289375E-1	7.489400E-1	8.207577E-1	8.771693E-1	8.143918E-1	8.367018E-1	8.725520E-1	8.629386E-1	8.128414E-1	8.377148E-1	8.436588E-1	8.561219E-1	7.027405E-1	7.586491E-1	8.493589E-1	8.214990E-1	7.308756E-1	8.120337E-1	8.825177E-1	8.748422E-1	7.780676E-1	8.817334E-1	8.689961E-1	8.836304E-1	7.067855E-1	8.245410E-1	8.724188E-1	8.786715E-1	6.786565E-1	6.844329E-1	8.695428E-1	8.777992E-1	7.263432E-1	7.355640E-1	8.296600E-1	8.597971E-1	8.322454E-1	8.561364E-1	8.782788E-1	8.274862E-1	7.686517E-1	8.304654E-1	8.412444E-1	8.389218E-1	6.966114E-1	7.443225E-1	8.664965E-1	8.754787E-1	7.384138E-1	8.239295E-1	8.877924E-1	8.566486E-1	7.834270E-1	8.297377E-1	9.011390E-1	8.912569E-1	8.043433E-1	7.525340E-1	8.669354E-1	8.638112E-1	7.018403E-1	6.458456E-1	8.437081E-1	8.847641E-1	7.408397E-1	7.521278E-1	8.843135E-1	8.715920E-1	8.166372E-1	7.798041E-1	8.628360E-1	8.806652E-1	8.332512E-1	8.390568E-1	8.156868E-1	8.546336E-1	6.848213E-1	7.491185E-1	8.330835E-1	9.102950E-1	7.280317E-1	8.047674E-1	8.361737E-1	8.394209E-1	7.894039E-1	8.618960E-1	8.977466E-1	8.698546E-1	8.476059E-1	8.000778E-1	8.487309E-1	8.394649E-1	7.421888E-1	7.525074E-1	8.818273E-1	8.449325E-1	7.852386E-1	8.003346E-1	8.958610E-1	8.354874E-1	8.299786E-1	8.301640E-1	8.754736E-1	8.204152E-1	8.036954E-1	8.141953E-1	8.682835E-1	8.382123E-1	7.074820E-1	7.129554E-1	9.153246E-1	9.190197E-1	7.590691E-1	7.566278E-1	8.247461E-1	8.251788E-1	8.231306E-1	8.399122E-1	8.751454E-1	8.840734E-1	9.003398E-1	7.750264E-1	9.163679E-1
2.892010E+2	7.452753E-1	7.088146E-1	5.621794E-1	7.098967E-1	7.370507E-1	7.558474E-1	7.476281E-1	7.088093E-1	7.366026E-1	6.639187E-1	6.081499E-1	7.111410E-1	7.471432E-1	6.143360E-1	5.854990E-1	6.896914E-1	7.497765E-1	6.397002E-1	5.856162E-1	7.084947E-1	7.523471E-1	7.322537E-1	7.066477E-1	7.177587E-1	7.768520E-1	7.065392E-1	6.294278E-1	7.328471E-1	7.209014E-1	6.210670E-1	6.099969E-1	6.781772E-1	7.339435E-1	6.351946E-1	6.220751E-1	6.764633E-1	7.368215E-1	6.934121E-1	7.053972E-1	7.236410E-1	7.617244E-1	6.527212E-1	6.426484E-1	7.219244E-1	7.428385E-1	6.633318E-1	5.915939E-1	7.018876E-1	7.276176E-1	6.848536E-1	6.394723E-1	7.307046E-1	7.119824E-1	6.982632E-1	6.709785E-1	7.547790E-1	7.248950E-1	7.075299E-1	6.984940E-1	7.235351E-1	7.375185E-1	6.078708E-1	6.429742E-1	7.443639E-1	7.748122E-1	6.105878E-1	6.745260E-1	7.287578E-1	7.383061E-1	6.967600E-1	7.214382E-1	7.176762E-1	7.385832E-1	6.599100E-1	6.916017E-1	7.691296E-1	7.757991E-1	6.129750E-1	6.140686E-1	7.278313E-1	7.548083E-1	6.408262E-1	6.132116E-1	7.100254E-1	7.436811E-1	7.168419E-1	6.896379E-1	7.474865E-1	7.377278E-1	7.047246E-1	7.294216E-1	7.418017E-1	7.506114E-1	5.725725E-1	6.340022E-1	7.418070E-1	7.551838E-1	6.292482E-1	7.246946E-1	7.398275E-1	7.470568E-1	7.065436E-1	7.076807E-1	7.645346E-1	7.218836E-1	6.764838E-1	6.523537E-1	7.332051E-1	7.384507E-1	5.851823E-1	5.813953E-1	7.290732E-1	7.426915E-1	6.280222E-1	6.198691E-1	7.476519E-1	7.387736E-1	6.885879E-1	7.072872E-1	7.824332E-1	7.739579E-1	6.806014E-1	7.254643E-1	7.205120E-1	8.087576E-1	6.082315E-1	6.372100E-1	7.688432E-1	7.233565E-1	6.001306E-1	6.702982E-1	7.129354E-1	7.683484E-1	7.218909E-1	7.518745E-1	7.574921E-1	7.544510E-1	7.079314E-1	6.802833E-1	7.153634E-1	7.563307E-1	6.083842E-1	6.402735E-1	7.277872E-1	7.370688E-1	6.999395E-1	6.420628E-1	7.247583E-1	7.019578E-1	7.115749E-1	7.186011E-1	7.373408E-1	7.721597E-1	6.800210E-1	7.273646E-1	7.865746E-1	7.304266E-1	5.997175E-1	5.692893E-1	7.370315E-1	7.672610E-1	6.622148E-1	6.397239E-1	7.445573E-1	7.730833E-1	7.465956E-1	7.313593E-1	7.220802E-1	7.761311E-1	7.773024E-1	6.798559E-1	7.324771E-1
2.894050E+2	6.100710E-1	6.138069E-1	5.200071E-1	5.784237E-1	5.984431E-1	6.051437E-1	5.976250E-1	6.192542E-1	6.000166E-1	5.868953E-1	5.454256E-1	6.050425E-1	5.924642E-1	6.347368E-1	5.066032E-1	5.542226E-1	6.091696E-1	5.837170E-1	5.187490E-1	5.690897E-1	5.981357E-1	6.381363E-1	5.621860E-1	5.777424E-1	5.902230E-1	5.577284E-1	5.485086E-1	6.014508E-1	6.089808E-1	5.473804E-1	5.025195E-1	5.851170E-1	6.314851E-1	6.009714E-1	5.017491E-1	5.688002E-1	5.929182E-1	5.674752E-1	5.538785E-1	5.943592E-1	6.015900E-1	5.553965E-1	5.372727E-1	6.163401E-1	5.991384E-1	5.239435E-1	4.752322E-1	5.778031E-1	6.014442E-1	5.278717E-1	5.381887E-1	5.943914E-1	6.087417E-1	5.771709E-1	5.739695E-1	6.049332E-1	6.179524E-1	5.460163E-1	5.807838E-1	5.956413E-1	5.904291E-1	4.804607E-1	5.480098E-1	5.830018E-1	5.844273E-1	4.843107E-1	5.515847E-1	6.086330E-1	6.483656E-1	5.692551E-1	6.149006E-1	6.386131E-1	6.361644E-1	5.149726E-1	5.512769E-1	6.272462E-1	6.023285E-1	4.990271E-1	5.124829E-1	6.267585E-1	6.165842E-1	5.008887E-1	5.169746E-1	5.965897E-1	5.989418E-1	5.626209E-1	6.106639E-1	5.940159E-1	6.263261E-1	5.399481E-1	6.029658E-1	5.582140E-1	6.214257E-1	5.025904E-1	5.287887E-1	6.203418E-1	6.446424E-1	4.922761E-1	5.906397E-1	5.795311E-1	6.275969E-1	5.932146E-1	6.201289E-1	6.203412E-1	6.261504E-1	5.072586E-1	5.441807E-1	6.077978E-1	6.286991E-1	5.190755E-1	4.900518E-1	6.149759E-1	6.000936E-1	5.039218E-1	5.149740E-1	6.154390E-1	6.161726E-1	5.521415E-1	5.352588E-1	6.445240E-1	6.015858E-1	5.457152E-1	6.064909E-1	5.626626E-1	5.865632E-1	5.265354E-1	5.471634E-1	5.604675E-1	6.047956E-1	4.722299E-1	5.542247E-1	6.539958E-1	6.145430E-1	5.656314E-1	6.135610E-1	6.135330E-1	6.354220E-1	5.813519E-1	5.938268E-1	5.856008E-1	6.086957E-1	5.104015E-1	5.198512E-1	6.091648E-1	6.265354E-1	5.843914E-1	5.479853E-1	6.275136E-1	6.148508E-1	5.762561E-1	6.097459E-1	6.105468E-1	6.151757E-1	5.917625E-1	5.840644E-1	6.157848E-1	6.193745E-1	4.934089E-1	5.261897E-1	6.155932E-1	6.217991E-1	5.397073E-1	4.951883E-1	6.132337E-1	6.211843E-1	5.977191E-1	5.487938E-1	5.841653E-1	6.083036E-1	5.958220E-1	6.071550E-1	6.342356E-1
2.896110E+2	5.472013E-1	5.436967E-1	4.539736E-1	5.500308E-1	5.276890E-1	5.277554E-1	5.336448E-1	5.423357E-1	5.693163E-1	5.559776E-1	4.709722E-1	5.210222E-1	5.342734E-1	5.461794E-1	4.595198E-1	4.743168E-1	5.672746E-1	5.456906E-1	4.523602E-1	5.281579E-1	5.666844E-1	5.795057E-1	5.254418E-1	5.125018E-1	5.510534E-1	5.369269E-1	4.792880E-1	5.509582E-1	5.612159E-1	5.685708E-1	4.603444E-1	5.127362E-1	5.922935E-1	5.958637E-1	4.656513E-1	4.939276E-1	5.256654E-1	5.490800E-1	5.435812E-1	5.083352E-1	5.107919E-1	5.301642E-1	4.863839E-1	5.524342E-1	5.443740E-1	5.639016E-1	4.442023E-1	5.216820E-1	5.353793E-1	5.440006E-1	4.824318E-1	5.308611E-1	5.420315E-1	5.543424E-1	5.633590E-1	5.586651E-1	5.797585E-1	5.285558E-1	5.419457E-1	5.179489E-1	5.251711E-1	5.294999E-1	4.732506E-1	5.503978E-1	5.795764E-1	5.287325E-1	4.997283E-1	5.503726E-1	5.730539E-1	5.350693E-1	5.557670E-1	5.611213E-1	5.636410E-1	5.273648E-1	5.280651E-1	5.682237E-1	5.710635E-1	4.219004E-1	4.849899E-1	5.444408E-1	5.533967E-1	4.692360E-1	4.802206E-1	5.439006E-1	5.541153E-1	5.411143E-1	5.171022E-1	5.734476E-1	5.626678E-1	5.041270E-1	5.218894E-1	5.523299E-1	5.421986E-1	4.379160E-1	4.955901E-1	5.354244E-1	5.275996E-1	4.644698E-1	5.552399E-1	5.413073E-1	5.808516E-1	5.223218E-1	5.701732E-1	5.393904E-1	5.365545E-1	4.669670E-1	4.876963E-1	5.733948E-1	5.882130E-1	4.539412E-1	4.358016E-1	5.649235E-1	5.853604E-1	5.001611E-1	4.648069E-1	5.703085E-1	5.624002E-1	4.980878E-1	5.019114E-1	5.561340E-1	5.296059E-1	5.029732E-1	5.712174E-1	5.440918E-1	5.655592E-1	4.545877E-1	4.925104E-1	5.415736E-1	5.219907E-1	4.666931E-1	5.168014E-1	5.756322E-1	5.590174E-1	5.253415E-1	5.585501E-1	5.484331E-1	5.260614E-1	5.339626E-1	5.096313E-1	5.351373E-1	5.532728E-1	4.434989E-1	4.909494E-1	5.512594E-1	5.993023E-1	5.257106E-1	5.015006E-1	5.690429E-1	5.866844E-1	5.506115E-1	5.593803E-1	5.955989E-1	5.956287E-1	5.243037E-1	5.360951E-1	5.819948E-1	5.829020E-1	4.715643E-1	4.203561E-1	5.465939E-1	5.556803E-1	4.737417E-1	4.670251E-1	5.702336E-1	5.455086E-1	5.515884E-1	5.350875E-1	5.449847E-1	5.173663E-1	5.681379E-1	5.291680E-1	5.838563E-1
2.898020E+2	5.837062E-1	6.282218E-1	4.800540E-1	5.901517E-1	6.071423E-1	6.132897E-1	5.508498E-1	6.104632E-1	5.843532E-1	5.961162E-1	5.571545E-1	5.854173E-1	6.168350E-1	6.240729E-1	5.010888E-1	6.007905E-1	5.959698E-1	5.921671E-1	5.173165E-1	5.595980E-1	6.148755E-1	6.319645E-1	5.511123E-1	5.822589E-1	6.345760E-1	6.131991E-1	5.129232E-1	5.739094E-1	6.291175E-1	5.907252E-1	4.771237E-1	5.486804E-1	6.118895E-1	6.122090E-1	5.243100E-1	5.688003E-1	5.909405E-1	6.287925E-1	5.734926E-1	5.820698E-1	6.070927E-1	5.986518E-1	5.352165E-1	5.724396E-1	6.197341E-1	6.312724E-1	4.738631E-1	5.978833E-1	5.954873E-1	5.945354E-1	5.330736E-1	5.925406E-1	5.965641E-1	6.615383E-1	6.002430E-1	5.902113E-1	6.474161E-1	6.218626E-1	5.831744E-1	6.093869E-1	6.013052E-1	6.060374E-1	5.091147E-1	6.040013E-1	5.844271E-1	5.811404E-1	5.410967E-1	6.182432E-1	6.033951E-1	5.734130E-1	6.095249E-1	5.799706E-1	6.073766E-1	6.227325E-1	5.444187E-1	6.590283E-1	5.791323E-1	6.164582E-1	4.868538E-1	6.262376E-1	6.002228E-1	6.286091E-1	5.034330E-1	6.071272E-1	6.032620E-1	6.229454E-1	5.870221E-1	6.124745E-1	6.460602E-1	5.592359E-1	5.757385E-1	5.729249E-1	6.284908E-1	5.474761E-1	4.843544E-1	6.402279E-1	5.817861E-1	5.731205E-1	5.738106E-1	5.819972E-1	6.099374E-1	5.912181E-1	5.670825E-1	6.102223E-1	6.187869E-1	5.674273E-1	5.447139E-1	6.344333E-1	5.862623E-1	4.728983E-1	4.812419E-1	6.042117E-1	6.206147E-1	5.560328E-1	4.978714E-1	6.478565E-1	6.113327E-1	5.678845E-1	5.797211E-1	6.125757E-1	5.864321E-1	5.740247E-1	6.064908E-1	6.044464E-1	6.114354E-1	5.005416E-1	5.279050E-1	6.004149E-1	6.236146E-1	5.176317E-1	5.802298E-1	5.963949E-1	6.306451E-1	5.705312E-1	6.072742E-1	6.156496E-1	6.154836E-1	5.981873E-1	5.717892E-1	6.372657E-1	6.206402E-1	5.383211E-1	5.082905E-1	5.709362E-1	6.201277E-1	5.281309E-1	5.369176E-1	6.422847E-1	6.070265E-1	6.002644E-1	6.075799E-1	6.394101E-1	6.163975E-1	5.400440E-1	5.907436E-1	5.733943E-1	5.839906E-1	4.822436E-1	4.792588E-1	6.117293E-1	6.438387E-1	5.391835E-1	5.398248E-1	6.021929E-1	5.608631E-1	5.783231E-1	5.696270E-1	5.841651E-1	6.120006E-1	6.224792E-1	5.582475E-1	6.569074E-1
2.900050E+2	5.992548E-1	6.026677E-1	6.365374E-1	5.913857E-1	6.135221E-1	6.167808E-1	6.261199E-1	6.527688E-1	6.275846E-1	6.519854E-1	5.581745E-1	6.154682E-1	6.451850E-1	6.217540E-1	5.290842E-1	5.700981E-1	6.327000E-1	6.212149E-1	5.177938E-1	6.165469E-1	6.042224E-1	6.283643E-1	6.009438E-1	6.168870E-1	6.167199E-1	5.870641E-1	5.212099E-1	6.301402E-1	6.305218E-1	6.292544E-1	5.079611E-1	6.053045E-1	6.023714E-1	6.760577E-1	5.448658E-1	5.879282E-1	6.062701E-1	6.330378E-1	6.166436E-1	6.056649E-1	6.048916E-1	6.486015E-1	5.429268E-1	5.968903E-1	5.986705E-1	6.373126E-1	4.793389E-1	6.092108E-1	6.263537E-1	5.934604E-1	5.484194E-1	6.474362E-1	6.050355E-1	6.074439E-1	5.946848E-1	6.233351E-1	6.354125E-1	6.316843E-1	5.963192E-1	5.914579E-1	6.111455E-1	6.312446E-1	5.757918E-1	6.139484E-1	6.499098E-1	5.916214E-1	5.789700E-1	6.356612E-1	6.212754E-1	6.186865E-1	5.860668E-1	6.281415E-1	6.749178E-1	6.060299E-1	5.961176E-1	6.437054E-1	6.018245E-1	6.124773E-1	5.273950E-1	6.220695E-1	6.431006E-1	6.008434E-1	5.387367E-1	6.213845E-1	6.075826E-1	6.549438E-1	5.850103E-1	6.203857E-1	6.358747E-1	6.093855E-1	6.059918E-1	6.252941E-1	6.032590E-1	6.246985E-1	5.456433E-1	5.956193E-1	6.105048E-1	6.266737E-1	6.051478E-1	6.122073E-1	6.462948E-1	6.111874E-1	6.041636E-1	6.405789E-1	6.322876E-1	6.071823E-1	5.436480E-1	5.972551E-1	6.394304E-1	5.866406E-1	5.211178E-1	6.020600E-1	6.106175E-1	6.033090E-1	5.423381E-1	6.713749E-1	6.328418E-1	6.308604E-1	5.786626E-1	6.407969E-1	6.299985E-1	5.484904E-1	5.921427E-1	6.323018E-1	6.197260E-1	5.088967E-1	5.414380E-1	6.214684E-1	6.317690E-1	5.231688E-1	6.011617E-1	6.218464E-1	6.628498E-1	5.471195E-1	6.465679E-1	6.347032E-1	6.136715E-1	6.013048E-1	6.124742E-1	6.847247E-1	6.469185E-1	5.325266E-1	5.184060E-1	6.361502E-1	6.922148E-1	6.218995E-1	5.811892E-1	6.262820E-1	6.445819E-1	6.188162E-1	5.864583E-1	6.749742E-1	6.231163E-1	5.878273E-1	5.804210E-1	6.637041E-1	6.433271E-1	5.370970E-1	5.113442E-1	6.592009E-1	6.167612E-1	5.517485E-1	5.435437E-1	6.184630E-1	6.261198E-1	5.846134E-1	5.794956E-1	6.181215E-1	6.334406E-1	6.081254E-1	5.820412E-1	7.224014E-1
2.905110E+2	6.269713E-1	5.993914E-1	6.099023E-1	5.895339E-1	5.961235E-1	5.888515E-1	5.954740E-1	5.928823E-1	5.774614E-1	6.362550E-1	5.168679E-1	6.050426E-1	5.735647E-1	6.096997E-1	4.603681E-1	5.335849E-1	6.195000E-1	5.953358E-1	4.676436E-1	5.690891E-1	6.103100E-1	6.134501E-1	5.662130E-1	5.963110E-1	5.879191E-1	5.801306E-1	5.070735E-1	5.842378E-1	6.281803E-1	5.883169E-1	5.061475E-1	5.742843E-1	6.012520E-1	6.316186E-1	5.358415E-1	5.491257E-1	6.216003E-1	6.019076E-1	5.940877E-1	5.830529E-1	5.955367E-1	5.862928E-1	5.336746E-1	5.752179E-1	5.921179E-1	6.033951E-1	4.829898E-1	5.623570E-1	5.824912E-1	6.160396E-1	5.289813E-1	6.178296E-1	6.050355E-1	5.861040E-1	5.648749E-1	6.012523E-1	6.223174E-1	5.793012E-1	5.736138E-1	5.597834E-1	5.733377E-1	6.193287E-1	5.379067E-1	5.653187E-1	5.935218E-1	5.946168E-1	5.626557E-1	5.822056E-1	6.337364E-1	5.845004E-1	6.031715E-1	5.862541E-1	6.178952E-1	6.001031E-1	5.407261E-1	6.227067E-1	6.114057E-1	6.020279E-1	4.826601E-1	6.048764E-1	6.036082E-1	6.086183E-1	5.106872E-1	6.151854E-1	5.805787E-1	6.150772E-1	5.739435E-1	5.787216E-1	6.186875E-1	5.807288E-1	5.981256E-1	5.917546E-1	5.982125E-1	6.140802E-1	5.098915E-1	5.843322E-1	6.180911E-1	6.132856E-1	5.546602E-1	5.690505E-1	5.979917E-1	6.341527E-1	6.190991E-1	6.152816E-1	5.727607E-1	6.190009E-1	5.297937E-1	5.983651E-1	6.126022E-1	6.367065E-1	4.446116E-1	5.842987E-1	6.106176E-1	6.011604E-1	5.030022E-1	6.421354E-1	6.118707E-1	6.324345E-1	5.453156E-1	6.269523E-1	6.047422E-1	5.829060E-1	6.082845E-1	5.887773E-1	6.169628E-1	6.012688E-1	4.961542E-1	5.901586E-1	5.922498E-1	5.818589E-1	5.745217E-1	5.702742E-1	5.967747E-1	6.271555E-1	6.067500E-1	6.177667E-1	6.058163E-1	6.181409E-1	5.367546E-1	6.186420E-1	5.790732E-1	5.161960E-1	5.299664E-1	6.243441E-1	5.891570E-1	5.789474E-1	5.324907E-1	6.201272E-1	5.861625E-1	6.111775E-1	6.211185E-1	6.198241E-1	6.273922E-1	5.636548E-1	6.016735E-1	6.311437E-1	6.024994E-1	5.103990E-1	4.883577E-1	6.034492E-1	6.148721E-1	5.067245E-1	5.068783E-1	5.684903E-1	5.778628E-1	5.966700E-1	5.723684E-1	5.940909E-1	5.713371E-1	6.327321E-1	5.331341E-1	6.367545E-1
2.910060E+2	6.465763E-1	6.498444E-1	6.493003E-1	5.932378E-1	6.343998E-1	6.493654E-1	6.562281E-1	6.220012E-1	6.175600E-1	6.405945E-1	5.591944E-1	6.185353E-1	6.431952E-1	6.407643E-1	5.146624E-1	6.013194E-1	6.246654E-1	6.196306E-1	5.292573E-1	6.082416E-1	6.098027E-1	6.525365E-1	5.838304E-1	6.143775E-1	6.322722E-1	6.462680E-1	5.441215E-1	5.980083E-1	6.459754E-1	6.668202E-1	5.229265E-1	6.062894E-1	6.275659E-1	6.883166E-1	5.363428E-1	5.972187E-1	6.146774E-1	6.089830E-1	6.210567E-1	6.150050E-1	6.247018E-1	6.280040E-1	5.300762E-1	6.530167E-1	6.529672E-1	6.266260E-1	4.779701E-1	6.272310E-1	6.415164E-1	6.499089E-1	5.898536E-1	6.258479E-1	6.415674E-1	6.312655E-1	6.184318E-1	6.075617E-1	6.392319E-1	6.202256E-1	5.646509E-1	6.822982E-1	6.349700E-1	6.009965E-1	5.934715E-1	6.183691E-1	6.311136E-1	6.450271E-1	5.813002E-1	6.188431E-1	6.662452E-1	6.196103E-1	5.968182E-1	6.433258E-1	6.394862E-1	6.599097E-1	6.203840E-1	6.244088E-1	6.073710E-1	6.254148E-1	5.278613E-1	6.470770E-1	6.763873E-1	6.202797E-1	5.658189E-1	6.344014E-1	6.669907E-1	6.234701E-1	5.970824E-1	6.462276E-1	6.377844E-1	6.033238E-1	6.259578E-1	6.270592E-1	6.315185E-1	6.526916E-1	5.461541E-1	6.735497E-1	6.511448E-1	6.426366E-1	5.993444E-1	6.128235E-1	6.821326E-1	6.466338E-1	6.216739E-1	6.658761E-1	6.329010E-1	6.200757E-1	5.761533E-1	6.383177E-1	6.667464E-1	6.279569E-1	5.136988E-1	6.687952E-1	6.711297E-1	6.478993E-1	5.252354E-1	6.370507E-1	6.602663E-1	6.660212E-1	5.776041E-1	6.674196E-1	6.148451E-1	6.633939E-1	6.375795E-1	6.032861E-1	6.346496E-1	6.254064E-1	5.336302E-1	6.516988E-1	6.518443E-1	6.643579E-1	5.554929E-1	6.164884E-1	6.328662E-1	6.620006E-1	5.962718E-1	6.331152E-1	6.293801E-1	6.761310E-1	6.062583E-1	6.324592E-1	6.813184E-1	6.589557E-1	5.843975E-1	6.378365E-1	6.457586E-1	6.297636E-1	5.712283E-1	6.133577E-1	6.550134E-1	6.581021E-1	6.774417E-1	6.780672E-1	6.640424E-1	6.462919E-1	5.980300E-1	6.802917E-1	6.645579E-1	6.487454E-1	5.300208E-1	6.498167E-1	6.306146E-1	6.397026E-1	5.578912E-1	6.225304E-1	6.606671E-1	6.684878E-1	5.937502E-1	6.651377E-1	6.792794E-1	6.552896E-1	6.203734E-1	6.040070E-1
2.915140E+2	7.540633E-1	7.337133E-1	7.169989E-1	7.481657E-1	7.434307E-1	7.395550E-1	7.723600E-1	7.604544E-1	7.666764E-1	7.328055E-1	6.999424E-1	7.460983E-1	7.352063E-1	7.279305E-1	6.062835E-1	6.833418E-1	7.440372E-1	7.405759E-1	6.534384E-1	6.960371E-1	7.518400E-1	7.661976E-1	7.298016E-1	7.363271E-1	7.319224E-1	7.518757E-1	6.577009E-1	7.575200E-1	7.728810E-1	7.544741E-1	6.440087E-1	7.421874E-1	7.333839E-1	7.393955E-1	6.491486E-1	6.824749E-1	7.170412E-1	7.344478E-1	7.215787E-1	7.388798E-1	7.066953E-1	7.624046E-1	6.359658E-1	7.680481E-1	7.517321E-1	7.641558E-1	6.039144E-1	7.425624E-1	7.070397E-1	7.687207E-1	6.527720E-1	7.331715E-1	7.331608E-1	7.826301E-1	7.427246E-1	7.326959E-1	7.396270E-1	7.206252E-1	6.990923E-1	7.324988E-1	7.370002E-1	7.545295E-1	6.404484E-1	7.476792E-1	7.451021E-1	7.488437E-1	7.304617E-1	7.185473E-1	7.691893E-1	7.254025E-1	7.444076E-1	7.543284E-1	7.906231E-1	7.509669E-1	7.005699E-1	7.685618E-1	7.515941E-1	7.667298E-1	6.140688E-1	7.533603E-1	7.395747E-1	7.840959E-1	6.320727E-1	7.335804E-1	7.107367E-1	7.420208E-1	7.102615E-1	7.859855E-1	7.937471E-1	7.306260E-1	7.384973E-1	7.812252E-1	7.541435E-1	7.989317E-1	6.763933E-1	7.487932E-1	7.546418E-1	7.960865E-1	6.863934E-1	7.373609E-1	7.397853E-1	7.260140E-1	7.555765E-1	7.685823E-1	7.593178E-1	7.436370E-1	6.832606E-1	7.404189E-1	7.857652E-1	7.314914E-1	5.438377E-1	7.651322E-1	7.616348E-1	7.548084E-1	6.837179E-1	7.463804E-1	7.629712E-1	8.045667E-1	6.972297E-1	7.829654E-1	7.190263E-1	7.605344E-1	7.762822E-1	7.367612E-1	7.435364E-1	7.818354E-1	6.814527E-1	7.661440E-1	7.402944E-1	7.883830E-1	7.064526E-1	8.107224E-1	7.400301E-1	6.870458E-1	7.623526E-1	7.564339E-1	7.447837E-1	7.677920E-1	7.317037E-1	7.706328E-1	7.276638E-1	7.574658E-1	6.508705E-1	7.345338E-1	7.263894E-1	7.562013E-1	6.819075E-1	8.281590E-1	7.113466E-1	7.344918E-1	7.500119E-1	7.960985E-1	7.367316E-1	7.452309E-1	6.945756E-1	7.226817E-1	7.543793E-1	7.453450E-1	5.688104E-1	7.535908E-1	7.861522E-1	7.381274E-1	6.498199E-1	7.625713E-1	7.083754E-1	7.890569E-1	7.308114E-1	7.419319E-1	7.679989E-1	8.008848E-1	6.573843E-1	7.778204E-1
2.920010E+2	6.641527E-1	6.760534E-1	6.481906E-1	6.432343E-1	6.807957E-1	6.610029E-1	6.718203E-1	6.703495E-1	6.269580E-1	6.481887E-1	5.581747E-1	6.191478E-1	6.357345E-1	6.569916E-1	5.053301E-1	6.542366E-1	6.355693E-1	6.280810E-1	5.746310E-1	5.791741E-1	6.615449E-1	6.581943E-1	6.336618E-1	6.811238E-1	6.818089E-1	6.708036E-1	5.860431E-1	6.209600E-1	6.834386E-1	7.034227E-1	5.397058E-1	5.905335E-1	6.074104E-1	6.837196E-1	5.604084E-1	6.059629E-1	6.433588E-1	6.585083E-1	6.230179E-1	6.676027E-1	6.736777E-1	6.511761E-1	5.496091E-1	6.396801E-1	6.445422E-1	6.349896E-1	5.236016E-1	6.509154E-1	6.718412E-1	6.676502E-1	5.647887E-1	6.714918E-1	6.484501E-1	6.580643E-1	6.371260E-1	6.354281E-1	6.676047E-1	6.333207E-1	6.148422E-1	6.404635E-1	6.707067E-1	6.880751E-1	5.869048E-1	6.316316E-1	6.602170E-1	6.480221E-1	6.110164E-1	6.843113E-1	6.461981E-1	6.718133E-1	6.324937E-1	6.344249E-1	6.937406E-1	6.529054E-1	6.071957E-1	6.981877E-1	6.572945E-1	7.015456E-1	5.362489E-1	6.543713E-1	6.639757E-1	6.652595E-1	5.542120E-1	6.436996E-1	6.610496E-1	6.554681E-1	6.096574E-1	6.752338E-1	6.454236E-1	6.452070E-1	6.326136E-1	6.547157E-1	6.340415E-1	6.782714E-1	5.926319E-1	6.821493E-1	6.354307E-1	6.596297E-1	5.796139E-1	6.424163E-1	6.904433E-1	6.700987E-1	6.340345E-1	6.567689E-1	6.948821E-1	6.856171E-1	5.548382E-1	6.677270E-1	6.462591E-1	6.673288E-1	5.419827E-1	6.881705E-1	6.553442E-1	6.683141E-1	5.548795E-1	7.082418E-1	6.441338E-1	6.885873E-1	6.294772E-1	6.738096E-1	6.306300E-1	6.794914E-1	6.495369E-1	6.491320E-1	6.893695E-1	6.996748E-1	5.757910E-1	6.603368E-1	6.411793E-1	6.643576E-1	6.068702E-1	6.794474E-1	6.317552E-1	6.543784E-1	6.732872E-1	6.616957E-1	6.904050E-1	6.443300E-1	6.130393E-1	6.955383E-1	6.607739E-1	6.726528E-1	5.559776E-1	6.839360E-1	6.580398E-1	6.969144E-1	5.745487E-1	6.607487E-1	6.550132E-1	6.581020E-1	6.617365E-1	6.832212E-1	6.622098E-1	6.738373E-1	6.253546E-1	6.532599E-1	6.248183E-1	6.477745E-1	5.223588E-1	6.774161E-1	6.444685E-1	6.789674E-1	5.733013E-1	6.748280E-1	6.902790E-1	6.868350E-1	6.474778E-1	6.541672E-1	6.681887E-1	6.788712E-1	6.071552E-1	7.274399E-1
2.925020E+2	7.141782E-1	7.350242E-1	7.108949E-1	7.247102E-1	7.300920E-1	7.383918E-1	7.255846E-1	7.615531E-1	7.428675E-1	7.159904E-1	6.168194E-1	7.209542E-1	7.187935E-1	7.487943E-1	6.096771E-1	6.928667E-1	7.480543E-1	7.590611E-1	6.266914E-1	6.681563E-1	7.244476E-1	7.548827E-1	6.719168E-1	7.438548E-1	7.186739E-1	6.958720E-1	5.918925E-1	7.219451E-1	7.152817E-1	7.482130E-1	5.932181E-1	6.771925E-1	7.053902E-1	7.118130E-1	6.180645E-1	6.611613E-1	7.051730E-1	7.193542E-1	7.039259E-1	7.492031E-1	7.424636E-1	7.392320E-1	6.231150E-1	7.152560E-1	7.306686E-1	7.776296E-1	5.934188E-1	7.188788E-1	6.972924E-1	7.402276E-1	6.149183E-1	7.109669E-1	7.400436E-1	7.602975E-1	7.209985E-1	7.148201E-1	6.850650E-1	7.233543E-1	7.271747E-1	7.145701E-1	7.178373E-1	7.196981E-1	6.318614E-1	7.421535E-1	7.572285E-1	6.894488E-1	6.885102E-1	7.023309E-1	7.263863E-1	7.346421E-1	7.263248E-1	6.993509E-1	7.214209E-1	7.353418E-1	7.132306E-1	7.696966E-1	7.556282E-1	7.269224E-1	6.243205E-1	7.387723E-1	7.091092E-1	7.491112E-1	6.185316E-1	7.236620E-1	7.328798E-1	7.220877E-1	7.288730E-1	7.633080E-1	7.370913E-1	7.047246E-1	7.421278E-1	7.265026E-1	7.450602E-1	7.719036E-1	6.605603E-1	7.283702E-1	7.248389E-1	7.796090E-1	7.009015E-1	6.892725E-1	7.361495E-1	6.725945E-1	7.148905E-1	7.716175E-1	7.691364E-1	7.747955E-1	6.251775E-1	7.104542E-1	7.428404E-1	7.382967E-1	5.628483E-1	7.360695E-1	7.032272E-1	7.360051E-1	6.227194E-1	7.362098E-1	7.645845E-1	7.646823E-1	6.702348E-1	7.643290E-1	7.146064E-1	7.405513E-1	7.451935E-1	7.158696E-1	7.446416E-1	7.191707E-1	6.137876E-1	7.218778E-1	7.365302E-1	7.955805E-1	6.709329E-1	7.223122E-1	7.428061E-1	7.398578E-1	7.654956E-1	7.299706E-1	7.683477E-1	7.403559E-1	6.921487E-1	7.171657E-1	7.281417E-1	7.648406E-1	6.407554E-1	7.193543E-1	7.605635E-1	7.392621E-1	6.630920E-1	7.118338E-1	7.671579E-1	7.290352E-1	7.554279E-1	7.218777E-1	7.336773E-1	7.592852E-1	7.589390E-1	7.220676E-1	7.119181E-1	7.361221E-1	5.817404E-1	7.281996E-1	7.628533E-1	7.255629E-1	6.466320E-1	6.905166E-1	7.006983E-1	7.544589E-1	6.995612E-1	7.523798E-1	7.236387E-1	7.588466E-1	6.758905E-1	6.745408E-1
2.930040E+2	7.581193E-1	7.225753E-1	7.491828E-1	6.864415E-1	7.115333E-1	7.669037E-1	7.599941E-1	7.555097E-1	7.184328E-1	6.970056E-1	6.168194E-1	7.099149E-1	7.416717E-1	7.409122E-1	5.931342E-1	6.896919E-1	7.285421E-1	7.136405E-1	6.018550E-1	6.818001E-1	7.021270E-1	7.178534E-1	6.895336E-1	7.282978E-1	7.428672E-1	7.369411E-1	6.328396E-1	7.076008E-1	7.466570E-1	7.530290E-1	5.827873E-1	7.269235E-1	7.322642E-1	7.603379E-1	6.260860E-1	6.655328E-1	7.259423E-1	7.528427E-1	7.063773E-1	7.285564E-1	6.956890E-1	7.016409E-1	6.339098E-1	6.791353E-1	7.400297E-1	7.474289E-1	5.842923E-1	7.111551E-1	7.173284E-1	7.085082E-1	6.323107E-1	7.356388E-1	7.490436E-1	7.513646E-1	6.810836E-1	7.300676E-1	7.205301E-1	7.129867E-1	7.056645E-1	7.265231E-1	7.354463E-1	7.306976E-1	6.404489E-1	7.134177E-1	6.796197E-1	7.518384E-1	6.966669E-1	7.113397E-1	7.420986E-1	7.438812E-1	7.312122E-1	7.166291E-1	7.446727E-1	7.105569E-1	6.678624E-1	7.674260E-1	7.520984E-1	7.015457E-1	5.930994E-1	7.340834E-1	7.423960E-1	6.991337E-1	6.083761E-1	7.106457E-1	7.404405E-1	7.157931E-1	6.956736E-1	7.369384E-1	7.370913E-1	7.399944E-1	7.239764E-1	7.541580E-1	7.410235E-1	7.154345E-1	6.590284E-1	7.036471E-1	7.362185E-1	7.507728E-1	7.009011E-1	7.336617E-1	7.319945E-1	7.340023E-1	7.020155E-1	7.225416E-1	7.157467E-1	7.398759E-1	6.475580E-1	7.404189E-1	7.418646E-1	7.042710E-1	5.790770E-1	7.376839E-1	7.626870E-1	7.553454E-1	6.164486E-1	7.476518E-1	7.586689E-1	7.237486E-1	6.607069E-1	7.467580E-1	7.057668E-1	7.399963E-1	7.625317E-1	6.920765E-1	7.153471E-1	7.535202E-1	6.512638E-1	7.127005E-1	7.315118E-1	7.042226E-1	7.185043E-1	7.370472E-1	7.006071E-1	7.316910E-1	7.015789E-1	7.611968E-1	7.846618E-1	7.235203E-1	6.763269E-1	7.592182E-1	7.099855E-1	7.290189E-1	5.964395E-1	7.210407E-1	7.594960E-1	7.217178E-1	6.531313E-1	7.327596E-1	7.395127E-1	7.295811E-1	7.288912E-1	7.311551E-1	6.872539E-1	7.306151E-1	7.206858E-1	7.497132E-1	7.293384E-1	7.259280E-1	6.186150E-1	7.155042E-1	7.074391E-1	7.480745E-1	6.306898E-1	7.277060E-1	7.500517E-1	7.371593E-1	6.968204E-1	7.069304E-1	7.029376E-1	7.690999E-1	6.745685E-1	7.198829E-1
2.935110E+2	7.804284E-1	7.238856E-1	7.525124E-1	6.938485E-1	7.237124E-1	7.203536E-1	7.266603E-1	7.730909E-1	7.541453E-1	7.159905E-1	6.555758E-1	7.289268E-1	7.675348E-1	7.724406E-1	6.173119E-1	7.346715E-1	7.474814E-1	7.242029E-1	6.152287E-1	7.191723E-1	6.985761E-1	7.497396E-1	6.819834E-1	7.503791E-1	7.175222E-1	7.230736E-1	6.469764E-1	7.070268E-1	7.396327E-1	7.539922E-1	5.873223E-1	6.850711E-1	7.501805E-1	7.480794E-1	6.326041E-1	7.201844E-1	7.185247E-1	7.287875E-1	7.456061E-1	7.079110E-1	7.435645E-1	7.263582E-1	6.344239E-1	7.297045E-1	7.189662E-1	7.437118E-1	5.692340E-1	7.090965E-1	7.297834E-1	7.687209E-1	6.502140E-1	7.442744E-1	7.411025E-1	7.200993E-1	7.305984E-1	7.295416E-1	7.292599E-1	7.577303E-1	6.996892E-1	7.366825E-1	7.468407E-1	7.320726E-1	6.702512E-1	7.189436E-1	7.469215E-1	7.173997E-1	7.345404E-1	7.365660E-1	7.475167E-1	7.341799E-1	7.273023E-1	7.271015E-1	7.424585E-1	7.213330E-1	7.163959E-1	7.855872E-1	7.278935E-1	7.294107E-1	6.336404E-1	7.205378E-1	7.220859E-1	7.718790E-1	6.417442E-1	7.211828E-1	7.209977E-1	7.551349E-1	7.374241E-1	7.728007E-1	7.619184E-1	7.493629E-1	7.324470E-1	7.247369E-1	7.385001E-1	7.583898E-1	6.105076E-1	7.547054E-1	7.302575E-1	7.255408E-1	6.684030E-1	7.540071E-1	7.886079E-1	7.399928E-1	7.097405E-1	7.498623E-1	7.427483E-1	7.328923E-1	6.614128E-1	8.047869E-1	7.399139E-1	7.674608E-1	5.966967E-1	7.215383E-1	7.437442E-1	7.601805E-1	6.478033E-1	7.533728E-1	7.441509E-1	7.604840E-1	6.649417E-1	7.350431E-1	7.436510E-1	7.266740E-1	7.541617E-1	7.768047E-1	7.440889E-1	7.660530E-1	6.549074E-1	7.359129E-1	7.522132E-1	7.379973E-1	7.007446E-1	7.343684E-1	6.994965E-1	7.360467E-1	7.801658E-1	7.484944E-1	7.713688E-1	7.540736E-1	6.729366E-1	7.243745E-1	7.520305E-1	7.600995E-1	6.176339E-1	7.013638E-1	7.904664E-1	7.338170E-1	6.841212E-1	7.284510E-1	7.405565E-1	7.410392E-1	7.305155E-1	7.244551E-1	7.367312E-1	7.227450E-1	7.419376E-1	7.226825E-1	7.233496E-1	7.472866E-1	6.205305E-1	7.530391E-1	7.489993E-1	7.543568E-1	6.439743E-1	7.358413E-1	7.379876E-1	7.827664E-1	7.176531E-1	7.544693E-1	8.249270E-1	7.362897E-1	6.692802E-1	7.274409E-1
2.940070E+2	7.270226E-1	7.265063E-1	7.347554E-1	6.790341E-1	7.277723E-1	7.005702E-1	7.341873E-1	7.324339E-1	7.597851E-1	7.637232E-1	7.499176E-1	7.129816E-1	7.307298E-1	7.223661E-1	7.449873E-1	6.537075E-1	7.377248E-1	6.919863E-1	7.012002E-1	7.245112E-1	7.269833E-1	7.348249E-1	7.479226E-1	6.951753E-1	7.106097E-1	7.577426E-1	6.523384E-1	7.007157E-1	7.190280E-1	7.708487E-1	6.272295E-1	6.880256E-1	7.412226E-1	7.725969E-1	6.561679E-1	6.917657E-1	7.120956E-1	7.618046E-1	6.970610E-1	7.182338E-1	7.540200E-1	7.505609E-1	6.889104E-1	7.463756E-1	7.339450E-1	6.977139E-1	6.061957E-1	6.890159E-1	7.276170E-1	7.439908E-1	6.456106E-1	7.282371E-1	7.246894E-1	7.374685E-1	6.886619E-1	7.600366E-1	6.976139E-1	7.440891E-1	7.032744E-1	7.564048E-1	7.401079E-1	7.082404E-1	6.353972E-1	7.167335E-1	7.420711E-1	7.313747E-1	7.100683E-1	7.485783E-1	7.290952E-1	7.207826E-1	7.356107E-1	7.391443E-1	7.407976E-1	7.213333E-1	7.016247E-1	7.617510E-1	7.838675E-1	7.806625E-1	5.935653E-1	7.351252E-1	7.801961E-1	7.285648E-1	6.311056E-1	7.360598E-1	7.355800E-1	7.346768E-1	6.629778E-1	7.865126E-1	7.453668E-1	7.102357E-1	6.834376E-1	7.494506E-1	7.768523E-1	7.217094E-1	6.329805E-1	7.240711E-1	7.112925E-1	7.404738E-1	6.660816E-1	7.472258E-1	7.247228E-1	7.325038E-1	7.380663E-1	7.281068E-1	7.427481E-1	7.108665E-1	6.475584E-1	7.820360E-1	7.491816E-1	7.339214E-1	5.619211E-1	7.204616E-1	7.369034E-1	7.155902E-1	5.839539E-1	7.419309E-1	7.226420E-1	7.468398E-1	7.295184E-1	7.148101E-1	7.266029E-1	7.433264E-1	7.015501E-1	7.141288E-1	7.485112E-1	7.748725E-1	6.356481E-1	7.780205E-1	7.384126E-1	7.496254E-1	6.810815E-1	7.725449E-1	7.339225E-1	7.512912E-1	7.513500E-1	7.315584E-1	7.326997E-1	7.453438E-1	6.831085E-1	7.460019E-1	7.295750E-1	7.047868E-1	6.200427E-1	7.418421E-1	7.450789E-1	7.822144E-1	6.747133E-1	7.475316E-1	7.541176E-1	6.804739E-1	7.326816E-1	7.399173E-1	7.739920E-1	7.120643E-1	6.963971E-1	7.361982E-1	7.483905E-1	7.448597E-1	5.774307E-1	7.640788E-1	7.156250E-1	7.517393E-1	6.370667E-1	7.480435E-1	7.226335E-1	7.303448E-1	6.853071E-1	7.356628E-1	7.206818E-1	7.465426E-1	6.811776E-1	7.803400E-1
2.945030E+2	7.986809E-1	8.215156E-1	7.908007E-1	7.710031E-1	7.921463E-1	8.274181E-1	7.927905E-1	8.022099E-1	7.403618E-1	7.615539E-1	8.014234E-1	7.675637E-1	8.361699E-1	8.002593E-1	7.963127E-1	7.225005E-1	8.261066E-1	7.680389E-1	7.594705E-1	7.464601E-1	7.589417E-1	7.934557E-1	8.405387E-1	7.975534E-1	7.860679E-1	7.865451E-1	8.307514E-1	7.667002E-1	7.986370E-1	8.368293E-1	7.986498E-1	7.431723E-1	8.050493E-1	8.012015E-1	8.040683E-1	7.387658E-1	8.213825E-1	7.915204E-1	8.152354E-1	7.904943E-1	7.754814E-1	8.344965E-1	7.305469E-1	7.763836E-1	8.050928E-1	7.664788E-1	7.280334E-1	7.729406E-1	7.904332E-1	8.219440E-1	7.484283E-1	8.053378E-1	7.792224E-1	8.004962E-1	7.705137E-1	7.610883E-1	8.051017E-1	8.073846E-1	7.654162E-1	7.779196E-1	7.862029E-1	7.838617E-1	6.879305E-1	7.797309E-1	8.293808E-1	7.648154E-1	7.741610E-1	7.792101E-1	7.778581E-1	7.748336E-1	8.025634E-1	7.904568E-1	7.956053E-1	7.719802E-1	7.158685E-1	8.434755E-1	8.161419E-1	7.921071E-1	6.560078E-1	7.966029E-1	7.880948E-1	8.163039E-1	6.828512E-1	7.788305E-1	7.890470E-1	7.766419E-1	7.595573E-1	7.791294E-1	8.319417E-1	7.951036E-1	8.238093E-1	7.906399E-1	8.157085E-1	8.143762E-1	6.615821E-1	7.912525E-1	8.196664E-1	7.857880E-1	7.722809E-1	8.150427E-1	7.906860E-1	7.764377E-1	7.566066E-1	7.862906E-1	8.084114E-1	8.021942E-1	7.088384E-1	7.892493E-1	8.335682E-1	7.626000E-1	6.407455E-1	8.539340E-1	7.900490E-1	8.020841E-1	6.820078E-1	8.061305E-1	8.033004E-1	8.003685E-1	7.406342E-1	8.127836E-1	8.370980E-1	8.110481E-1	7.523683E-1	7.959551E-1	8.043363E-1	7.962248E-1	6.606325E-1	7.817990E-1	8.067889E-1	7.573764E-1	7.527555E-1	7.879501E-1	7.783429E-1	7.463914E-1	8.126483E-1	8.045965E-1	8.027875E-1	8.251578E-1	7.373549E-1	7.910582E-1	7.873864E-1	7.975014E-1	6.595414E-1	8.188618E-1	7.872625E-1	8.209316E-1	6.830143E-1	8.189265E-1	7.989754E-1	7.912381E-1	7.960451E-1	8.146540E-1	8.362969E-1	8.115654E-1	7.595465E-1	7.939465E-1	7.336928E-1	8.278676E-1	6.636301E-1	8.220379E-1	8.384177E-1	7.894337E-1	6.987070E-1	8.061517E-1	8.015987E-1	7.958720E-1	7.763155E-1	8.061874E-1	8.160553E-1	8.429222E-1	7.287627E-1	7.904166E-1
2.950050E+2	8.852120E-1	8.700021E-1	8.546146E-1	8.030997E-1	8.721796E-1	8.559295E-1	8.175224E-1	8.538552E-1	8.944904E-1	8.624435E-1	8.580284E-1	8.025212E-1	8.481065E-1	8.104597E-1	8.603626E-1	7.934096E-1	8.456187E-1	8.388104E-1	7.967245E-1	7.832394E-1	8.700357E-1	8.968307E-1	8.490954E-1	8.632958E-1	8.482774E-1	8.361488E-1	8.385512E-1	7.942415E-1	8.440605E-1	9.013655E-1	8.508014E-1	8.244156E-1	8.436805E-1	8.635174E-1	8.722539E-1	8.273010E-1	8.639110E-1	8.438758E-1	8.838848E-1	8.784850E-1	8.321615E-1	8.695130E-1	8.359223E-1	9.108649E-1	8.462835E-1	8.542931E-1	8.923085E-1	8.089816E-1	8.527076E-1	8.515125E-1	8.931924E-1	8.571490E-1	8.316372E-1	8.789081E-1	9.049110E-1	8.331191E-1	8.072844E-1	8.041101E-1	8.908938E-1	8.454519E-1	8.804642E-1	8.526082E-1	8.627059E-1	8.338860E-1	8.875876E-1	8.326956E-1	8.901102E-1	8.596939E-1	8.071157E-1	8.136396E-1	8.309079E-1	8.145422E-1	8.786473E-1	8.382524E-1	8.482805E-1	8.644736E-1	8.398425E-1	8.757017E-1	8.274914E-1	8.367198E-1	8.964164E-1	8.590623E-1	8.293836E-1	8.383384E-1	8.500760E-1	8.768330E-1	8.611669E-1	8.534914E-1	8.516765E-1	8.794210E-1	8.540619E-1	8.565431E-1	8.898897E-1	8.848418E-1	7.790530E-1	8.444604E-1	8.250852E-1	8.491249E-1	8.146446E-1	8.853272E-1	8.436639E-1	8.712944E-1	8.338579E-1	8.798892E-1	8.581189E-1	8.645126E-1	7.264236E-1	8.380811E-1	8.535672E-1	8.967576E-1	6.602197E-1	8.469375E-1	8.263565E-1	8.294829E-1	7.361660E-1	8.639739E-1	8.210451E-1	8.979803E-1	7.909194E-1	9.357846E-1	8.661426E-1	8.326961E-1	8.324803E-1	8.435427E-1	8.800596E-1	8.746711E-1	7.459950E-1	8.589956E-1	8.619916E-1	8.216034E-1	7.603670E-1	8.977929E-1	8.721807E-1	8.405825E-1	8.320331E-1	8.395273E-1	8.668329E-1	8.713001E-1	7.932964E-1	8.373163E-1	8.232203E-1	8.417520E-1	7.356478E-1	8.531554E-1	9.116793E-1	8.898968E-1	8.036546E-1	8.484697E-1	8.349654E-1	8.430741E-1	8.664488E-1	8.862979E-1	9.144835E-1	8.542894E-1	7.959791E-1	8.449375E-1	8.164375E-1	8.516536E-1	7.019408E-1	8.540533E-1	8.636055E-1	8.480695E-1	7.460001E-1	8.206790E-1	8.564360E-1	8.498656E-1	8.070179E-1	8.558163E-1	8.197517E-1	8.767584E-1	8.477261E-1	8.307207E-1
2.955100E+2	9.805303E-1	9.165238E-1	8.723717E-1	8.919825E-1	8.669595E-1	8.896778E-1	9.288156E-1	8.967095E-1	9.026356E-1	9.307874E-1	9.080046E-1	9.343781E-1	8.913766E-1	9.467732E-1	9.167775E-1	8.569112E-1	8.944009E-1	8.963785E-1	8.998910E-1	8.562048E-1	8.969214E-1	9.369464E-1	9.054713E-1	8.637977E-1	8.793822E-1	9.358886E-1	9.082583E-1	8.883419E-1	9.068113E-1	9.297807E-1	8.680337E-1	8.746388E-1	8.789538E-1	9.360496E-1	9.369286E-1	8.529870E-1	8.515483E-1	8.957599E-1	9.015373E-1	9.158439E-1	8.976459E-1	9.132830E-1	9.109704E-1	8.919708E-1	8.926230E-1	9.230578E-1	9.269892E-1	8.527464E-1	9.090251E-1	9.235517E-1	9.428104E-1	8.855221E-1	9.163478E-1	9.007443E-1	9.018792E-1	9.035732E-1	9.136815E-1	9.132412E-1	9.643886E-1	9.201558E-1	9.358815E-1	8.993558E-1	8.717979E-1	8.990941E-1	9.136597E-1	8.870997E-1	9.000155E-1	8.771118E-1	9.349830E-1	8.898655E-1	8.880868E-1	9.098369E-1	9.113109E-1	8.942876E-1	8.920657E-1	8.803647E-1	9.275863E-1	8.931180E-1	8.903996E-1	8.820462E-1	9.184194E-1	8.979341E-1	8.724248E-1	9.350381E-1	9.397277E-1	9.507967E-1	9.044267E-1	8.835527E-1	9.178803E-1	8.882387E-1	9.230382E-1	9.018515E-1	9.312691E-1	9.109042E-1	8.919270E-1	8.992808E-1	8.928183E-1	9.114315E-1	8.958896E-1	8.760783E-1	9.267658E-1	9.042445E-1	8.874192E-1	9.183407E-1	9.065989E-1	8.886870E-1	9.097310E-1	8.980097E-1	9.106379E-1	9.089095E-1	8.544989E-1	8.905311E-1	9.757953E-1	9.621791E-1	8.923684E-1	9.567766E-1	8.742800E-1	9.394386E-1	8.385580E-1	9.192782E-1	8.718258E-1	8.970868E-1	9.245510E-1	8.743003E-1	9.508077E-1	9.605447E-1	7.688972E-1	9.097398E-1	8.852025E-1	9.295722E-1	8.301389E-1	9.152065E-1	9.149356E-1	9.521965E-1	8.859961E-1	9.236806E-1	9.302745E-1	9.748088E-1	8.102486E-1	9.514595E-1	9.006213E-1	9.086542E-1	7.659943E-1	9.116236E-1	8.769712E-1	9.655168E-1	8.213637E-1	9.137104E-1	9.064246E-1	8.818147E-1	9.124829E-1	9.831967E-1	9.340300E-1	8.992616E-1	8.676296E-1	9.358618E-1	8.801294E-1	8.822354E-1	7.187021E-1	9.120128E-1	8.932022E-1	9.370705E-1	7.996698E-1	8.619356E-1	9.024991E-1	9.174889E-1	9.018638E-1	8.840259E-1	8.951632E-1	9.198207E-1	8.318656E-1	9.642287E-1
2.960030E+2	9.426731E-1	9.466641E-1	9.306370E-1	8.858100E-1	9.301743E-1	9.106248E-1	9.266646E-1	9.302243E-1	9.546385E-1	9.074636E-1	9.335018E-1	9.386709E-1	9.699594E-1	9.477007E-1	9.010832E-1	8.870743E-1	9.839305E-1	9.074692E-1	9.309362E-1	8.805267E-1	9.101102E-1	9.662616E-1	9.195651E-1	9.330531E-1	9.289195E-1	9.396224E-1	9.043586E-1	9.158831E-1	9.508298E-1	9.639756E-1	8.879872E-1	8.908873E-1	9.371815E-1	9.411572E-1	9.203841E-1	9.038135E-1	8.891308E-1	9.933968E-1	9.417462E-1	8.829089E-1	9.152551E-1	9.457251E-1	9.536348E-1	9.342041E-1	9.679837E-1	9.332798E-1	9.767286E-1	8.800344E-1	8.998197E-1	9.321539E-1	9.586681E-1	9.015580E-1	8.761105E-1	9.325060E-1	8.882379E-1	8.851710E-1	9.185924E-1	9.541656E-1	9.183792E-1	8.950562E-1	8.923761E-1	9.048554E-1	9.500930E-1	9.051726E-1	9.439758E-1	9.320199E-1	9.769269E-1	9.335707E-1	9.837456E-1	9.369867E-1	8.890641E-1	9.166435E-1	9.074360E-1	9.012923E-1	9.189700E-1	9.393880E-1	9.674239E-1	9.423795E-1	9.584345E-1	9.242468E-1	9.703240E-1	9.556859E-1	8.845150E-1	9.176814E-1	9.186647E-1	9.355838E-1	9.743462E-1	9.157232E-1	9.312492E-1	9.334275E-1	9.623655E-1	9.306837E-1	9.040194E-1	9.485502E-1	9.358511E-1	8.982062E-1	9.004045E-1	8.959837E-1	9.428959E-1	9.377312E-1	9.033934E-1	9.072400E-1	8.693936E-1	9.370606E-1	9.139635E-1	9.542287E-1	9.347764E-1	9.401823E-1	9.496609E-1	9.225194E-1	9.143130E-1	9.174409E-1	9.642189E-1	9.240358E-1	9.374057E-1	9.713966E-1	9.151469E-1	9.362902E-1	9.740634E-1	9.379141E-1	9.305461E-1	9.420490E-1	9.813465E-1	9.253687E-1	9.590989E-1	9.642581E-1	8.839279E-1	9.199964E-1	9.604796E-1	9.345548E-1	9.576297E-1	9.192254E-1	9.116034E-1	9.472967E-1	9.499138E-1	9.787239E-1	9.471919E-1	9.199365E-1	9.628183E-1	9.088059E-1	9.063547E-1	9.523785E-1	9.066482E-1	9.509769E-1	9.608060E-1	9.364793E-1	8.628681E-1	1.009725E+0	9.205084E-1	9.200091E-1	9.568914E-1	9.522718E-1	9.389165E-1	9.459206E-1	8.985968E-1	9.198887E-1	9.187793E-1	9.671851E-1	7.881405E-1	9.512042E-1	9.580614E-1	9.548712E-1	8.182677E-1	8.793684E-1	9.205958E-1	9.499899E-1	8.952849E-1	9.289530E-1	8.870307E-1	9.157191E-1	8.728402E-1	1.014610E+0
2.964990E+2	8.831836E-1	9.034186E-1	9.078856E-1	9.407448E-1	8.739191E-1	8.873503E-1	8.847285E-1	9.093457E-1	9.070217E-1	9.345848E-1	9.197331E-1	9.448043E-1	8.943609E-1	8.832531E-1	9.222918E-1	8.463275E-1	9.385919E-1	8.826466E-1	9.151747E-1	8.923908E-1	8.857609E-1	9.040314E-1	9.311420E-1	8.903955E-1	9.029994E-1	9.268213E-1	9.184953E-1	8.980959E-1	9.035330E-1	9.384499E-1	8.952433E-1	8.899032E-1	9.377409E-1	9.401359E-1	9.003298E-1	8.513480E-1	8.886360E-1	9.141551E-1	9.427270E-1	9.423884E-1	8.915931E-1	9.034989E-1	8.955494E-1	9.386505E-1	9.286646E-1	8.937862E-1	9.201444E-1	9.212245E-1	9.030688E-1	9.606466E-1	9.300223E-1	9.138945E-1	9.412317E-1	8.967742E-1	9.114795E-1	9.566759E-1	9.562410E-1	9.034195E-1	9.524380E-1	8.693573E-1	8.866791E-1	8.943142E-1	8.834161E-1	9.178825E-1	9.294239E-1	8.766183E-1	9.343926E-1	9.563951E-1	9.658657E-1	9.152739E-1	8.983497E-1	8.988414E-1	9.168469E-1	9.082966E-1	8.947039E-1	9.388198E-1	9.064067E-1	9.120258E-1	9.188253E-1	9.414400E-1	9.460647E-1	9.256996E-1	8.966049E-1	9.145819E-1	8.749192E-1	9.151258E-1	9.376260E-1	9.278531E-1	9.535293E-1	9.146912E-1	9.073062E-1	9.024398E-1	8.954406E-1	8.915988E-1	9.169534E-1	8.901444E-1	8.928183E-1	9.382082E-1	9.399945E-1	9.124534E-1	9.392315E-1	9.092371E-1	9.054444E-1	9.102459E-1	9.311466E-1	9.585264E-1	9.550258E-1	9.540545E-1	9.423442E-1	9.234918E-1	8.985482E-1	9.179788E-1	9.347523E-1	9.079184E-1	8.935084E-1	9.148243E-1	9.221375E-1	9.163479E-1	8.830207E-1	9.112910E-1	8.939249E-1	9.031926E-1	9.335181E-1	9.044773E-1	9.242770E-1	9.210894E-1	8.802849E-1	8.967836E-1	9.215867E-1	9.018873E-1	9.303559E-1	9.011412E-1	8.966119E-1	8.547386E-1	9.231940E-1	9.210343E-1	9.447756E-1	9.517374E-1	8.927491E-1	8.793686E-1	8.858100E-1	9.386816E-1	9.056847E-1	9.290514E-1	9.447865E-1	9.183300E-1	9.348095E-1	8.933989E-1	9.225947E-1	8.998205E-1	9.379365E-1	9.471174E-1	9.401385E-1	9.189371E-1	9.034543E-1	9.426200E-1	9.198682E-1	9.429138E-1	9.188766E-1	9.202928E-1	9.580616E-1	9.088003E-1	9.250753E-1	9.281788E-1	9.167572E-1	8.797455E-1	9.073467E-1	9.153700E-1	8.818555E-1	9.475041E-1	9.270350E-1	8.332397E-1
2.970040E+2	9.906709E-1	9.597685E-1	9.361858E-1	9.154376E-1	1.004988E+0	9.426277E-1	9.911823E-1	9.664855E-1	9.640372E-1	9.090912E-1	9.640994E-1	9.257919E-1	9.724461E-1	9.764464E-1	9.608903E-1	9.003036E-1	9.764703E-1	9.148633E-1	9.438319E-1	9.149329E-1	9.522143E-1	9.595754E-1	9.719135E-1	9.792235E-1	9.634809E-1	9.769586E-1	9.384818E-1	8.980966E-1	9.695614E-1	9.394129E-1	9.428602E-1	9.352019E-1	9.411006E-1	9.600562E-1	9.419429E-1	9.038132E-1	9.479773E-1	9.306636E-1	9.745998E-1	9.581182E-1	9.482728E-1	8.988650E-1	9.402700E-1	9.503201E-1	9.436437E-1	9.597637E-1	9.557369E-1	9.021740E-1	9.393503E-1	9.127996E-1	9.688993E-1	9.108109E-1	9.227014E-1	9.568240E-1	9.579631E-1	9.498414E-1	9.813395E-1	1.003274E+0	9.255498E-1	9.655764E-1	9.053243E-1	9.616839E-1	9.404954E-1	9.449603E-1	9.457943E-1	9.574752E-1	9.967371E-1	9.756145E-1	9.387756E-1	9.513080E-1	9.423329E-1	9.124547E-1	9.794059E-1	9.578662E-1	9.015619E-1	9.933034E-1	9.618771E-1	9.423792E-1	9.742777E-1	9.732206E-1	9.082648E-1	9.767875E-1	9.294897E-1	9.616920E-1	9.786127E-1	9.917121E-1	9.662976E-1	9.283806E-1	9.910877E-1	9.394899E-1	9.339284E-1	9.295072E-1	9.373252E-1	9.543418E-1	9.705811E-1	9.836618E-1	9.383355E-1	9.361483E-1	9.202635E-1	9.932184E-1	9.168975E-1	8.962568E-1	9.420100E-1	9.694411E-1	9.998774E-1	9.832390E-1	9.726105E-1	9.629329E-1	9.452710E-1	9.930004E-1	9.713448E-1	9.185172E-1	9.352783E-1	9.439130E-1	9.476666E-1	9.408858E-1	9.302031E-1	9.966415E-1	1.005823E+0	9.570832E-1	9.614844E-1	9.836805E-1	9.544438E-1	9.305923E-1	9.906042E-1	9.224821E-1	9.240071E-1	9.383514E-1	1.004391E+0	9.821714E-1	9.417730E-1	9.480254E-1	9.465848E-1	1.005554E+0	9.876354E-1	9.607290E-1	9.157736E-1	9.398903E-1	9.204380E-1	9.418476E-1	9.507884E-1	9.518513E-1	9.413300E-1	9.773998E-1	9.880386E-1	9.836659E-1	9.884890E-1	9.469461E-1	9.533690E-1	9.511107E-1	9.558081E-1	9.734042E-1	9.572417E-1	9.948278E-1	9.617461E-1	9.506063E-1	9.922695E-1	9.453409E-1	9.653284E-1	9.815631E-1	9.731748E-1	9.449243E-1	9.569585E-1	8.567053E-1	9.606266E-1	9.636197E-1	9.895835E-1	9.874623E-1	9.476554E-1	9.762123E-1	9.138175E-1	9.642291E-1
2.975020E+2	9.643065E-1	1.063295E+0	9.988900E-1	9.555584E-1	9.707707E-1	1.026417E+0	9.605367E-1	9.670347E-1	1.006015E+0	9.481450E-1	9.579800E-1	9.595230E-1	1.001293E+0	1.009829E+0	1.021123E+0	8.796663E-1	9.781918E-1	1.031583E+0	9.471750E-1	9.345086E-1	9.765620E-1	1.038778E+0	1.004631E+0	1.017364E+0	9.611765E-1	9.897592E-1	9.901531E-1	9.967862E-1	9.911025E-1	1.000578E+0	9.600927E-1	9.667147E-1	9.881307E-1	1.036164E+0	9.775389E-1	9.387905E-1	9.969344E-1	9.759445E-1	9.971559E-1	9.664754E-1	9.405684E-1	9.699271E-1	9.808781E-1	9.775492E-1	1.015259E+0	9.755608E-1	9.680577E-1	9.577808E-1	9.880870E-1	9.891397E-1	1.023633E+0	1.004565E+0	9.809405E-1	9.856078E-1	1.006973E+0	9.903262E-1	1.007530E+0	9.923604E-1	9.751430E-1	9.428668E-1	9.674749E-1	9.846012E-1	1.035460E+0	1.037246E+0	9.676224E-1	9.619672E-1	1.019461E+0	9.762155E-1	1.021672E+0	9.402205E-1	1.014662E+0	9.621962E-1	1.008747E+0	1.005280E+0	9.775267E-1	9.637912E-1	9.749881E-1	1.015027E+0	9.784724E-1	9.638428E-1	9.471934E-1	9.984445E-1	9.899407E-1	9.827676E-1	9.867142E-1	9.686308E-1	9.909457E-1	1.007489E+0	9.917244E-1	9.488587E-1	1.009560E+0	9.754034E-1	1.021094E+0	1.013707E+0	9.869250E-1	9.691505E-1	9.659705E-1	1.014418E+0	9.620464E-1	9.395801E-1	1.014543E+0	1.000599E+0	9.826960E-1	9.977742E-1	9.931268E-1	1.008488E+0	1.003517E+0	1.008989E+0	9.955122E-1	9.910563E-1	9.546527E-1	9.831003E-1	9.900023E-1	1.027721E+0	9.841516E-1	1.029239E+0	9.850511E-1	9.808972E-1	9.984120E-1	1.013525E+0	9.469629E-1	9.575913E-1	1.023795E+0	9.555465E-1	1.041454E+0	9.791121E-1	9.307732E-1	9.944938E-1	1.026974E+0	9.749737E-1	1.009641E+0	9.995985E-1	1.023765E+0	9.696192E-1	9.829204E-1	9.893091E-1	1.037219E+0	9.835384E-1	9.656436E-1	9.971168E-1	9.550882E-1	1.018754E+0	9.548168E-1	9.852709E-1	9.714859E-1	9.715669E-1	1.007305E+0	1.001108E+0	9.690167E-1	1.012222E+0	9.617658E-1	9.919593E-1	1.019547E+0	1.007758E+0	9.878560E-1	9.886965E-1	9.868259E-1	9.730104E-1	9.758652E-1	9.898431E-1	1.014106E+0	9.904716E-1	9.888410E-1	9.729213E-1	9.650139E-1	9.945480E-1	9.808116E-1	9.926862E-1	9.365655E-1	1.023377E+0	1.024850E+0	9.692688E-1
2.980040E+2	1.035288E+0	9.925303E-1	9.950057E-1	1.013579E+0	1.003248E+0	9.990690E-1	1.024516E+0	9.818693E-1	1.029823E+0	9.790625E-1	1.051811E+0	9.938668E-1	9.868696E-1	1.014002E+0	1.014337E+0	9.098284E-1	1.018365E+0	1.010457E+0	1.003534E+0	9.493398E-1	9.780856E-1	1.008434E+0	1.022248E+0	9.742047E-1	1.007258E+0	9.913595E-1	9.667548E-1	9.468679E-1	1.006088E+0	9.832402E-1	9.791403E-1	9.499739E-1	9.556569E-1	1.041272E+0	9.790429E-1	9.180230E-1	1.000891E+0	9.811326E-1	1.004512E+0	1.032345E+0	9.746864E-1	1.003399E+0	9.531209E-1	1.008113E+0	1.001685E+0	1.002509E+0	1.037417E+0	1.000515E+0	1.017329E+0	9.993546E-1	9.924294E-1	9.885274E-1	9.878227E-1	1.039205E+0	1.011520E+0	9.792843E-1	1.022807E+0	9.967259E-1	9.882886E-1	9.894812E-1	1.011498E+0	1.011183E+0	1.011719E+0	9.676173E-1	1.001576E+0	1.025355E+0	9.786752E-1	1.003844E+0	9.859128E-1	1.036311E+0	1.002444E+0	9.915176E-1	9.683331E-1	9.977371E-1	9.991560E-1	1.018274E+0	1.028946E+0	1.032940E+0	9.905883E-1	1.059706E+0	9.765302E-1	1.009551E+0	1.024760E+0	1.042275E+0	1.010478E+0	9.943346E-1	1.005533E+0	1.041242E+0	9.745367E-1	1.015541E+0	9.944333E-1	1.008944E+0	1.011505E+0	9.615816E-1	1.030849E+0	1.008922E+0	1.010404E+0	9.994851E-1	1.018918E+0	1.009864E+0	1.033761E+0	1.002596E+0	9.811504E-1	9.755127E-1	9.869904E-1	9.939832E-1	1.046147E+0	1.024526E+0	1.025267E+0	9.759880E-1	1.041360E+0	1.007319E+0	9.915809E-1	9.917265E-1	1.020067E+0	1.027968E+0	9.995700E-1	1.001365E+0	1.002117E+0	9.863690E-1	1.060615E+0	9.870112E-1	9.927064E-1	1.029248E+0	1.002211E+0	1.020424E+0	1.031230E+0	1.016087E+0	1.011291E+0	9.904765E-1	9.950525E-1	9.875423E-1	1.001555E+0	1.008276E+0	1.047886E+0	1.035355E+0	1.016072E+0	9.947624E-1	1.019890E+0	1.028956E+0	9.765885E-1	1.036664E+0	1.000578E+0	1.037554E+0	1.014738E+0	9.588628E-1	1.042168E+0	9.924911E-1	1.046736E+0	1.032411E+0	1.017547E+0	9.883513E-1	9.615176E-1	9.897686E-1	1.037647E+0	1.005284E+0	1.048341E+0	1.022038E+0	1.008907E+0	1.016339E+0	9.498755E-1	9.894246E-1	9.851214E-1	9.979081E-1	9.979161E-1	1.045397E+0	9.391444E-1	1.003134E+0	1.040072E+0	1.038757E+0	9.838745E-1	1.037282E+0
2.985020E+2	9.555182E-1	9.440432E-1	9.528333E-1	9.975309E-1	9.609116E-1	9.525196E-1	9.492464E-1	9.796716E-1	9.696759E-1	9.909957E-1	9.595095E-1	9.356047E-1	9.754301E-1	9.421363E-1	9.859175E-1	9.188249E-1	9.494957E-1	9.629244E-1	9.653251E-1	9.178996E-1	9.765638E-1	9.621474E-1	9.598327E-1	9.631641E-1	9.899780E-1	9.678907E-1	9.667545E-1	9.503098E-1	9.395909E-1	9.919088E-1	9.591854E-1	9.130447E-1	9.853312E-1	9.789555E-1	9.800462E-1	9.147439E-1	9.534170E-1	9.801895E-1	9.898004E-1	9.404220E-1	9.515743E-1	9.704426E-1	1.025085E+0	9.958879E-1	9.661114E-1	9.741670E-1	9.735335E-1	9.217393E-1	9.583034E-1	9.203265E-1	9.658295E-1	9.558373E-1	9.565854E-1	9.523570E-1	9.817099E-1	9.456349E-1	9.420546E-1	9.879956E-1	9.578157E-1	9.835052E-1	9.767974E-1	9.694766E-1	9.536290E-1	9.576703E-1	9.561024E-1	9.749441E-1	9.740134E-1	9.599985E-1	9.821199E-1	9.374488E-1	9.799633E-1	9.480592E-1	1.010962E+0	1.002047E+0	1.001266E+0	9.286049E-1	9.704493E-1	9.796986E-1	9.528422E-1	9.492548E-1	9.787870E-1	9.895601E-1	9.343262E-1	9.455757E-1	9.667315E-1	1.008498E+0	9.597583E-1	9.500038E-1	9.700806E-1	9.747601E-1	9.805176E-1	9.859958E-1	9.332877E-1	9.635120E-1	9.322757E-1	9.503390E-1	9.903547E-1	9.850669E-1	9.893222E-1	9.870532E-1	9.885733E-1	9.586629E-1	9.775457E-1	9.775358E-1	9.961955E-1	9.499305E-1	9.283822E-1	9.701465E-1	9.550262E-1	9.648080E-1	9.667084E-1	9.588820E-1	9.679021E-1	9.976358E-1	9.795916E-1	9.847448E-1	1.001721E+0	9.756491E-1	9.962949E-1	9.522909E-1	9.305459E-1	9.936718E-1	9.927061E-1	9.752781E-1	9.463860E-1	9.596164E-1	9.432655E-1	9.707412E-1	9.297411E-1	9.694366E-1	9.690468E-1	9.607516E-1	9.532478E-1	9.794196E-1	9.708704E-1	9.549068E-1	1.005800E+0	9.978802E-1	1.000678E+0	9.832989E-1	1.001433E+0	1.007691E+0	9.721583E-1	9.678425E-1	9.618739E-1	9.606775E-1	9.785284E-1	9.186340E-1	9.585850E-1	9.691165E-1	9.222309E-1	9.610344E-1	9.932804E-1	9.818984E-1	9.441368E-1	9.936106E-1	9.541636E-1	9.336909E-1	9.658075E-1	9.396121E-1	1.004030E+0	1.009843E+0	1.015410E+0	9.740837E-1	9.902392E-1	9.777736E-1	9.813602E-1	9.895519E-1	9.897968E-1	9.987696E-1	9.521498E-1	9.390393E-1
2.990010E+2	9.676859E-1	9.315937E-1	9.095503E-1	8.926002E-1	9.545319E-1	9.589200E-1	9.298907E-1	8.912157E-1	9.082742E-1	9.362116E-1	9.008644E-1	9.018742E-1	9.401180E-1	9.194178E-1	9.104157E-1	8.860154E-1	9.144883E-1	8.873998E-1	9.295034E-1	8.627301E-1	9.359813E-1	9.564901E-1	9.200679E-1	8.693176E-1	8.949350E-1	9.134871E-1	9.365316E-1	9.296548E-1	9.508304E-1	9.490453E-1	9.342434E-1	8.638065E-1	9.774927E-1	9.043806E-1	9.108582E-1	9.120111E-1	9.430322E-1	9.339653E-1	9.348815E-1	8.637378E-1	9.675332E-1	9.688968E-1	9.289612E-1	9.141991E-1	9.445795E-1	9.351380E-1	9.210568E-1	8.949655E-1	9.182308E-1	9.031232E-1	9.075150E-1	9.435012E-1	9.401729E-1	9.245656E-1	9.114796E-1	9.593051E-1	9.360525E-1	9.045109E-1	9.141970E-1	9.327064E-1	9.244876E-1	8.988970E-1	9.202905E-1	9.134619E-1	9.403383E-1	9.285263E-1	9.582812E-1	9.209577E-1	9.268557E-1	9.351389E-1	9.081232E-1	9.611489E-1	9.212759E-1	9.233824E-1	9.047267E-1	9.410904E-1	9.210307E-1	9.090405E-1	9.267465E-1	9.080958E-1	9.291393E-1	9.212574E-1	9.415803E-1	8.829687E-1	9.121838E-1	9.256173E-1	9.698191E-1	9.109767E-1	9.630781E-1	9.196506E-1	9.145669E-1	9.100895E-1	9.247089E-1	9.393806E-1	9.542376E-1	9.428148E-1	8.939024E-1	9.237901E-1	8.912477E-1	9.605427E-1	8.872924E-1	9.511734E-1	9.445850E-1	9.218824E-1	9.121220E-1	9.107134E-1	9.150604E-1	9.035585E-1	9.164913E-1	9.191166E-1	9.282234E-1	9.039864E-1	8.916045E-1	9.283339E-1	9.442458E-1	8.728724E-1	9.076191E-1	9.509846E-1	8.951953E-1	9.459010E-1	9.545390E-1	9.131838E-1	9.072128E-1	8.998350E-1	9.148805E-1	9.456914E-1	9.328552E-1	9.151380E-1	9.629890E-1	9.301252E-1	9.138642E-1	9.024811E-1	9.321481E-1	9.271513E-1	9.121921E-1	9.316194E-1	9.024814E-1	9.068421E-1	9.097017E-1	9.214215E-1	9.383663E-1	9.155026E-1	9.153190E-1	9.127483E-1	9.346408E-1	9.703567E-1	9.381303E-1	8.983229E-1	9.340697E-1	9.211006E-1	9.503920E-1	9.125841E-1	9.114293E-1	9.200616E-1	9.010256E-1	9.198881E-1	9.345665E-1	9.715541E-1	9.193555E-1	9.285720E-1	8.969802E-1	9.213650E-1	9.096648E-1	8.834353E-1	9.249826E-1	9.248277E-1	9.572367E-1	9.362666E-1	8.981203E-1	8.695797E-1	9.336447E-1	8.886585E-1
2.995040E+2	9.791782E-1	1.032500E+0	1.044947E+0	9.944452E-1	1.006147E+0	1.000233E+0	1.018065E+0	1.035712E+0	9.978699E-1	1.018659E+0	9.946969E-1	1.007973E+0	1.006267E+0	1.071032E+0	1.041059E+0	1.057997E+0	1.028121E+0	1.029470E+0	1.006400E+0	1.075694E+0	1.016639E+0	9.883766E-1	9.925507E-1	1.049483E+0	1.037786E+0	1.063365E+0	1.047187E+0	1.035230E+0	1.026693E+0	1.006839E+0	1.035826E+0	9.873947E-1	1.015565E+0	1.015732E+0	1.035196E+0	9.846974E-1	1.027099E+0	1.021225E+0	1.021673E+0	9.920367E-1	1.042372E+0	9.920700E-1	1.027141E+0	9.642127E-1	9.974722E-1	1.014124E+0	9.831165E-1	1.050972E+0	1.015162E+0	1.069244E+0	1.054837E+0	9.959288E-1	1.003706E+0	9.885855E-1	1.034762E+0	1.005047E+0	1.012986E+0	1.016370E+0	1.015177E+0	1.028926E+0	1.029107E+0	1.022183E+0	1.017275E+0	1.007958E+0	1.047050E+0	1.003394E+0	1.023540E+0	1.018259E+0	1.009753E+0	1.013675E+0	9.965788E-1	1.026075E+0	1.022034E+0	1.023600E+0	9.996836E-1	1.040408E+0	9.931418E-1	1.022491E+0	1.035787E+0	1.000834E+0	1.027306E+0	9.795642E-1	1.008317E+0	1.032977E+0	1.040182E+0	1.035250E+0	9.989942E-1	1.006434E+0	1.017825E+0	1.022154E+0	1.036182E+0	1.004825E+0	1.025131E+0	1.040252E+0	1.027274E+0	1.026121E+0	1.012571E+0	1.015963E+0	1.002089E+0	9.956840E-1	9.963642E-1	1.010085E+0	1.040377E+0	1.022565E+0	1.029947E+0	1.053078E+0	1.024299E+0	1.007325E+0	9.994149E-1	1.034803E+0	1.001484E+0	1.034229E+0	1.047357E+0	1.000860E+0	9.716098E-1	1.031146E+0	1.008173E+0	1.002414E+0	1.021702E+0	1.028434E+0	9.911604E-1	9.908967E-1	1.054883E+0	1.009517E+0	1.037585E+0	1.036206E+0	1.017177E+0	1.010688E+0	1.031365E+0	1.036433E+0	1.040721E+0	1.038445E+0	1.029317E+0	1.030054E+0	1.000209E+0	1.012067E+0	1.040240E+0	1.012845E+0	1.025541E+0	1.010333E+0	1.028667E+0	9.897802E-1	1.035741E+0	9.813355E-1	1.020612E+0	1.002420E+0	9.940236E-1	1.049115E+0	9.810135E-1	1.010040E+0	1.019172E+0	1.001237E+0	1.044591E+0	1.016190E+0	1.058899E+0	1.010198E+0	1.012956E+0	1.003107E+0	9.907099E-1	1.024067E+0	1.061963E+0	1.018742E+0	1.081302E+0	1.050205E+0	1.026432E+0	9.945480E-1	1.011513E+0	9.989552E-1	1.005324E+0	1.030554E+0	1.075079E+0	9.793452E-1
3.000060E+2	1.062329E+0	1.099333E+0	1.097664E+0	1.101845E+0	1.075161E+0	1.089258E+0	1.078281E+0	1.111531E+0	1.094357E+0	1.075071E+0	1.093118E+0	1.160681E+0	1.091316E+0	1.053412E+0	1.048271E+0	1.227334E+0	1.089529E+0	1.109748E+0	1.095237E+0	1.194337E+0	1.092731E+0	1.084552E+0	1.105301E+0	1.143831E+0	1.070043E+0	1.063898E+0	1.082773E+0	1.137937E+0	1.076798E+0	1.068967E+0	1.091605E+0	1.285780E+0	1.065955E+0	1.059660E+0	1.094857E+0	1.270525E+0	1.075561E+0	1.083488E+0	1.049133E+0	1.171458E+0	1.063834E+0	1.065192E+0	1.065692E+0	1.117587E+0	1.090152E+0	1.074062E+0	1.084876E+0	1.131808E+0	1.090975E+0	1.107952E+0	1.079390E+0	1.116205E+0	1.111713E+0	1.095287E+0	1.060529E+0	1.110728E+0	1.086099E+0	1.094398E+0	1.124522E+0	1.065381E+0	1.058110E+0	1.098261E+0	1.097086E+0	1.153293E+0	1.054933E+0	1.067780E+0	1.065491E+0	1.096941E+0	1.095358E+0	1.077426E+0	1.112891E+0	1.073199E+0	1.077395E+0	1.053234E+0	1.095168E+0	1.071622E+0	1.086432E+0	1.055830E+0	1.094036E+0	1.082109E+0	1.088238E+0	1.100067E+0	1.091016E+0	1.096204E+0	1.070426E+0	1.036300E+0	1.065895E+0	1.091344E+0	1.074480E+0	1.067895E+0	1.074300E+0	1.090146E+0	1.105367E+0	1.095273E+0	1.055364E+0	1.071804E+0	1.092768E+0	1.075695E+0	1.098423E+0	1.046856E+0	1.094010E+0	1.077483E+0	1.056342E+0	1.102504E+0	1.074745E+0	1.092295E+0	1.086112E+0	1.094444E+0	1.103800E+0	1.105284E+0	1.062225E+0	1.095583E+0	1.101555E+0	1.081444E+0	1.084486E+0	1.083269E+0	1.082917E+0	1.069588E+0	1.084691E+0	1.087005E+0	1.063140E+0	1.115236E+0	1.052492E+0	1.086121E+0	1.098937E+0	1.038062E+0	1.075472E+0	1.087345E+0	1.064613E+0	1.073529E+0	1.081315E+0	1.110780E+0	1.083732E+0	1.055099E+0	1.068842E+0	1.066052E+0	1.035407E+0	1.087671E+0	1.044189E+0	1.055990E+0	1.054945E+0	1.050362E+0	1.076203E+0	1.100520E+0	1.068136E+0	1.107683E+0	1.047149E+0	1.141437E+0	1.079596E+0	1.067332E+0	1.090658E+0	1.136793E+0	1.089182E+0	1.092081E+0	1.058292E+0	1.071019E+0	1.049973E+0	1.069610E+0	1.115220E+0	1.091410E+0	1.087151E+0	1.060625E+0	1.008502E+0	1.094368E+0	1.060430E+0	1.057454E+0	1.110746E+0	1.072092E+0	1.066688E+0	1.062339E+0	1.055252E+0	1.155675E+0
