Photon Energy (eV)	#1	#2	#3	#4	#5	#6	#7	#8	#9	#10	#11	#12	#13	#14	#15	#16	#17	#18	#19	#20	#21	#22	#23	#24	#25	#26	#27	#28	#29	#30	#31	#32	#33	#34	#35	#36	#37	#38	#39	#40	#41	#42	#43	#44	#45	#46	#47	#48	#49	#50	#51	#52	#53	#54	#55	#56	#57	#58	#59	#60	#61	#62	#63	#64	#65	#66	#67	#68	#69	#70	#71	#72	#73	#74	#75	#76	#77	#78	#79	#80	#81	#82	#83	#84	#85	#86	#87	#88	#89	#90	#91	#92	#93	#94	#95	#96	#97	#98	#99	#100	#101	#102	#103	#104	#105	#106	#107	#108	#109	#110	#111	#112	#113	#114	#115	#116	#117	#118	#119	#120	#121	#122	#123	#124	#125	#126	#127	#128	#129	#130	#131	#132	#133	#134	#135	#136	#137	#138	#139	#140	#141	#142	#143	#144	#145	#146	#147	#148	#149	#150	#151	#152	#153	#154	#155	#156	#157	#158	#159	#160	#161	#162	#163	#164	#165	#166	#167	#168	#169	#170	#171	
2.790010E+2	-5.409867E-3	1.307092E-3	-2.889164E-3	-6.515145E-3	9.541722E-4	-7.084508E-4	-4.357543E-3	-7.136242E-3	-4.517868E-4	-3.237176E-3	-6.375055E-3	-3.667613E-3	-4.965769E-3	-7.292418E-3	-9.680967E-3	-1.640898E-3	-1.340953E-3	-3.159096E-3	-4.187282E-3	-6.554767E-3	-4.540423E-3	-1.287010E-3	-7.545350E-3	-7.598132E-3	-8.415743E-3	-6.743034E-3	-8.110703E-4	-5.315779E-3	-6.029479E-4	8.538120E-4	-2.413583E-3	-6.145288E-3	-2.743559E-3	-8.607790E-3	-3.655517E-3	-2.612894E-3	-1.342569E-3	-5.883261E-3	-4.201028E-3	-5.067072E-3	-8.232443E-3	-2.490678E-3	-5.042506E-3	-2.762751E-3	-2.218040E-3	-1.585973E-3	-1.114161E-3	-5.172698E-3	-7.786176E-3	-2.873901E-3	-1.621203E-3	2.649386E-3	1.728441E-3	-1.198350E-3	-3.944110E-4	4.259609E-4	-2.204615E-3	-4.581863E-3	-1.793543E-3	-9.425882E-3	-2.662744E-3	1.165241E-3	7.131940E-3	-6.231375E-3	-1.059136E-2	-6.100389E-4	-3.873153E-3	-6.774962E-3	1.044485E-3	-4.317634E-3	-2.711924E-4	-2.034696E-3	-4.249417E-3	1.126972E-3	-9.236232E-3	-5.897209E-3	-1.953277E-4	7.652835E-4	-3.022112E-3	-2.728392E-3	1.929392E-3	-3.310512E-3	3.112921E-3	-6.459213E-3	-2.742591E-5	-5.147748E-3	-2.756662E-3	-1.842780E-3	-9.032101E-3	8.599749E-3	2.031117E-3	-5.177894E-3	2.043722E-3	-6.533961E-3	-2.044550E-3	-8.453703E-4	-6.401193E-3	-3.263826E-3	-4.450419E-3	-4.933049E-4	-4.339299E-3	-1.058623E-2	-5.007092E-3	-5.782221E-3	-6.441592E-3	-4.486860E-3	-7.768255E-4	5.798695E-4	-2.139005E-3	-9.031218E-4	-3.922195E-3	-1.587624E-3	-2.982712E-3	-3.016089E-3	-7.348974E-3	-4.759598E-3	-4.524507E-3	-2.188348E-3	-4.322457E-3	-7.498790E-3	5.430490E-4	-1.385847E-5	-1.594501E-3	3.080270E-4	-4.218907E-3	-3.612078E-4	5.573346E-4	-7.490190E-3	-4.782670E-3	-6.868632E-3	-1.105071E-2	-2.520327E-3	4.504255E-3	-7.393730E-3	-9.642794E-3	2.420198E-3	-7.737081E-3	-8.211210E-4	-3.100942E-4	-1.822532E-4	-2.560523E-3	9.604114E-4	-6.031244E-3	-5.379501E-3	1.091451E-4	-1.052430E-2	1.543854E-3	6.069459E-4	7.245927E-4	1.072372E-3	-4.289765E-3	-4.986522E-3	-9.438946E-3	5.717759E-3	-3.418041E-3	-2.842479E-3	-5.818577E-3	-3.662263E-3	-3.795039E-3	-4.667254E-3	-8.834358E-3	-3.193543E-3	-6.672371E-3	-7.659484E-4	-3.319220E-3	-7.174153E-3	7.478922E-4	-5.466479E-3	-7.793056E-3	4.589614E-3	-1.574528E-2
2.795040E+2	-6.496460E-3	-7.694498E-3	-3.470214E-3	4.220983E-4	-9.318093E-4	3.263789E-4	7.180896E-4	-8.808152E-3	-3.677032E-3	1.014320E-3	-3.634603E-3	1.944108E-3	-3.059713E-3	-5.579597E-4	-2.079311E-3	-4.052288E-3	-5.726571E-3	-5.844719E-3	4.747958E-3	1.479050E-3	-1.403270E-3	-3.297403E-3	-2.957606E-3	6.839603E-4	2.196922E-3	1.577951E-3	1.533400E-3	-2.455704E-3	-5.808293E-3	1.051605E-3	-7.327303E-3	7.416259E-4	-4.374487E-3	-3.508997E-3	2.863811E-4	5.972188E-4	-1.251551E-3	-1.484502E-3	-4.921019E-3	-1.567912E-3	-6.188160E-5	-9.228704E-3	-6.547501E-5	1.794644E-3	1.605053E-3	-4.337117E-3	-4.503696E-4	-7.982325E-3	-4.382463E-3	-3.818330E-3	-3.699810E-3	-2.774518E-3	-3.726344E-3	-7.261975E-3	-4.032923E-3	3.708330E-3	-2.630045E-3	-5.411162E-3	-2.320686E-3	-1.774593E-3	-7.346792E-3	-3.503773E-3	2.780308E-4	2.642754E-3	3.047678E-3	2.820562E-3	-2.654788E-3	-2.037066E-3	-4.488928E-3	-3.254448E-3	2.858676E-3	-2.699913E-4	-3.682085E-3	-3.753907E-3	3.165022E-4	-3.967128E-3	1.889879E-3	-7.835557E-3	-4.202427E-4	1.171588E-3	-8.459667E-4	2.689408E-3	2.162634E-3	-4.675176E-3	1.037892E-3	-2.043307E-3	-1.186544E-3	-6.168840E-3	-2.226799E-3	-4.756814E-3	-1.267151E-3	3.916342E-3	-6.607869E-3	-5.933681E-3	-9.430285E-3	-1.733687E-3	-1.547776E-3	6.189999E-3	-4.382024E-3	6.861695E-4	-2.919073E-4	-5.925902E-3	-9.745802E-3	-7.771600E-3	-4.455460E-4	-2.060097E-3	-5.305871E-3	-9.211359E-3	-5.612272E-3	-5.675551E-3	2.473514E-3	-5.892944E-4	-3.572016E-3	-3.549323E-3	-1.105672E-2	3.629725E-3	-2.952362E-3	-1.527808E-3	2.724926E-3	1.045230E-3	-3.651762E-3	-1.744674E-3	-5.129734E-3	-7.846159E-3	-3.091329E-3	3.869406E-3	-1.088252E-3	-5.085694E-3	-3.082890E-3	-2.357041E-4	-2.722213E-3	-5.895701E-3	-2.939345E-3	-3.846247E-3	1.009617E-3	-4.149320E-3	-9.331699E-3	-7.273787E-3	-1.495431E-3	-5.184125E-3	9.589149E-4	5.437547E-3	-1.927718E-3	-1.082159E-3	-4.594811E-3	2.187912E-3	3.883054E-3	-4.950146E-3	1.253240E-3	-3.469890E-5	-3.703985E-3	4.681360E-3	3.846616E-3	-9.929846E-3	-4.671867E-3	-5.224938E-3	-5.788325E-3	-5.144118E-4	5.452762E-3	-4.106430E-4	-3.741897E-4	-9.838742E-4	-8.488177E-3	-3.316505E-3	1.487092E-3	-6.031848E-3	-6.186698E-3	-3.285097E-3	-6.794821E-3	1.352117E-3	-1.249670E-2
2.800050E+2	-3.019292E-3	-3.893909E-3	2.971212E-3	-3.898007E-3	1.599024E-3	-2.039525E-3	-5.370330E-3	1.306743E-2	-8.720712E-4	3.327006E-5	2.904168E-3	-4.807378E-3	-1.605183E-3	-9.649143E-4	-1.565595E-3	-3.995884E-3	-2.147517E-4	-1.629082E-3	-3.511647E-3	-1.863330E-3	-1.774264E-3	1.101234E-3	2.153618E-3	1.274339E-3	1.734283E-3	-3.461944E-4	-6.236430E-3	9.751216E-4	-1.429797E-3	-1.845031E-3	2.233684E-3	-3.276086E-3	-3.749404E-3	-5.186627E-4	-8.835064E-3	5.371154E-3	-1.182600E-3	2.985992E-4	-3.290134E-3	-5.428550E-3	5.126200E-4	2.717846E-3	-1.182733E-3	-9.455120E-4	3.553319E-3	-1.111963E-3	-2.377903E-3	2.480746E-4	-4.254423E-4	-1.658785E-3	-5.774075E-3	-4.917459E-3	-4.121368E-3	8.591245E-4	1.109819E-3	-2.079291E-3	-4.067305E-3	2.605437E-3	-2.129735E-3	2.399944E-3	-1.455853E-3	-4.600885E-5	-4.615816E-3	-6.109509E-3	-3.978646E-3	5.834726E-4	-1.550508E-4	1.309397E-4	-1.646370E-4	-5.267541E-3	-3.967291E-3	-4.123098E-3	1.454299E-3	-6.409619E-3	-1.156414E-3	3.626358E-3	-2.561724E-3	2.682045E-4	-2.307386E-3	7.851460E-4	2.090482E-3	1.370006E-3	-9.026445E-4	-5.192705E-3	2.601010E-3	-1.445066E-4	5.396899E-3	-6.021762E-4	-2.721925E-3	-5.314690E-3	-1.757849E-3	-3.114306E-3	-1.908020E-3	1.740702E-3	4.100158E-3	1.290028E-3	4.934288E-3	-4.890047E-3	5.207535E-3	1.871888E-3	-5.966496E-3	3.963767E-3	-3.260009E-3	6.728213E-3	2.325351E-3	3.741878E-4	-4.081082E-3	-3.108216E-3	6.168533E-5	3.547512E-4	-2.727436E-3	-6.715753E-3	-3.513302E-3	1.878224E-3	4.197155E-3	-1.863136E-4	-1.873098E-3	-6.169550E-3	8.984597E-4	-9.948436E-4	-1.436174E-3	2.047327E-3	6.375931E-3	2.099468E-3	-7.247364E-3	2.395004E-3	-4.338421E-3	3.395929E-3	2.529289E-3	3.423823E-3	-1.068893E-4	-5.279980E-3	-5.227307E-3	-7.277340E-3	3.881173E-3	8.175387E-6	-2.101766E-3	-7.092794E-4	2.944471E-3	1.060016E-3	4.642011E-5	-5.662841E-4	-1.859401E-3	8.771709E-4	-4.002451E-3	-1.359756E-3	-4.111884E-5	-1.505486E-3	5.394851E-3	-1.732576E-3	-5.837539E-3	-4.858696E-3	-3.258065E-3	-5.223028E-3	1.096155E-3	-8.695022E-4	6.584141E-4	-2.505648E-3	-2.580739E-3	-4.073185E-3	-3.919421E-3	-5.796755E-3	-1.452443E-3	-4.302046E-3	6.212062E-4	-1.054735E-3	-5.484190E-3	-3.203656E-3	-4.840081E-3	-5.215053E-3	-5.997771E-3
2.805050E+2	-2.955897E-3	-2.748195E-3	-1.537504E-4	-3.214808E-3	-5.209763E-3	-1.975844E-3	-3.636056E-3	2.223602E-3	3.049003E-3	2.211517E-3	-2.757210E-4	-1.652596E-3	3.108521E-3	-1.854531E-3	6.990110E-3	3.511929E-3	-6.432007E-4	-3.642642E-3	5.443381E-3	-7.534729E-3	5.020071E-4	4.654946E-3	-1.706943E-3	-7.160442E-4	-3.502772E-3	1.727299E-3	3.920997E-3	4.827323E-4	2.490223E-3	-3.762140E-3	5.824615E-3	-9.169677E-4	-2.794016E-4	5.291832E-4	-3.919566E-3	-3.017078E-4	-1.549250E-3	-9.020986E-4	-6.375128E-3	1.499535E-3	-2.459845E-3	5.189074E-3	-5.268019E-3	-1.446917E-3	-7.086021E-3	3.254126E-4	-8.049860E-4	-4.017122E-3	2.437570E-3	-1.085311E-3	-2.438486E-3	1.219628E-3	1.523752E-3	5.136902E-4	-4.296339E-3	1.198174E-3	-4.520139E-3	3.664919E-3	-6.650324E-3	-1.647373E-3	-5.111548E-3	-1.839267E-3	-2.554346E-3	1.330689E-3	-2.730188E-3	8.443335E-4	5.163626E-3	-1.362385E-3	8.660880E-4	4.126594E-4	-2.278511E-4	-1.086093E-2	-3.500254E-3	-6.214464E-3	8.461242E-5	6.846674E-3	5.499999E-4	1.345150E-3	2.870318E-3	-2.008400E-3	-1.282267E-4	5.549807E-3	-7.560190E-3	-1.052052E-3	-2.198507E-3	1.201417E-4	-1.270156E-3	5.593083E-3	-3.290970E-4	1.225632E-3	8.496156E-4	8.014041E-3	-2.419562E-4	-3.883388E-3	1.787577E-3	3.850995E-3	-3.140713E-4	1.240716E-4	2.645670E-4	-1.384594E-3	-1.448922E-3	-2.757777E-3	-4.238045E-3	6.368956E-4	-4.093532E-3	-4.614085E-3	4.187241E-3	8.256472E-4	-3.935762E-3	3.513958E-3	-3.711927E-3	5.390836E-4	4.726357E-3	-2.211887E-3	3.030256E-3	-1.772127E-3	7.362010E-4	-1.828774E-4	-4.754798E-3	-9.159268E-4	6.717308E-3	-3.472446E-3	-2.044447E-4	-1.113426E-3	1.306671E-3	-4.323309E-3	-3.942764E-4	1.616129E-3	-8.529755E-3	-6.771504E-3	6.071882E-4	1.246987E-2	2.889380E-3	2.134947E-3	-5.333601E-4	-1.462589E-3	2.944364E-3	6.423722E-3	-1.154016E-4	-3.962873E-3	-2.860719E-3	-5.018037E-4	3.803471E-3	4.809166E-4	2.453837E-3	2.919984E-3	-5.431273E-4	-2.598810E-3	-4.459123E-3	3.630349E-3	1.360509E-3	-1.746044E-3	-8.740969E-3	2.434857E-3	-7.125528E-3	-8.792690E-3	-3.371288E-4	1.180988E-3	3.450794E-3	-2.603370E-3	-1.444698E-3	-6.305933E-3	-2.675574E-3	-3.607994E-5	2.245232E-4	-1.533008E-3	-5.422910E-3	-6.666256E-3	6.630494E-3	4.827069E-3	1.338332E-2
2.810050E+2	-2.319245E-3	-5.754004E-4	-3.295243E-3	-2.547310E-3	-3.185206E-3	-3.382048E-3	-1.895452E-3	-6.361275E-3	-1.901497E-4	7.014507E-4	-2.132422E-4	8.980055E-3	-5.321125E-4	-4.191191E-3	-3.660882E-3	5.081495E-3	-7.553274E-3	3.732155E-3	-3.412013E-3	1.696649E-3	4.118414E-3	-1.785987E-3	6.159409E-4	7.641969E-3	2.778403E-4	-3.216247E-3	2.310922E-3	3.375069E-3	-8.188417E-4	3.771347E-3	-1.129143E-3	-5.419895E-3	-4.768482E-3	1.089395E-3	3.192967E-3	2.921938E-3	-1.916174E-3	-2.107321E-3	-2.630367E-3	3.541251E-3	-5.446798E-3	-3.808597E-3	-1.646598E-3	-1.951211E-3	1.402332E-3	-8.645676E-3	-5.757066E-3	2.336505E-3	-8.336169E-4	-4.056043E-3	4.199403E-3	-6.474784E-3	3.936788E-3	-3.756807E-3	-3.913776E-4	-2.499500E-3	-2.410019E-3	-5.620414E-3	4.533903E-3	4.306992E-3	-2.392414E-3	1.053909E-3	-9.847020E-4	1.410063E-3	2.692922E-3	-8.547902E-3	-1.118245E-3	-7.697411E-4	-1.413080E-3	-3.275832E-4	-1.501411E-4	-1.146323E-3	-9.020996E-4	2.771639E-3	-2.120406E-3	-4.407657E-3	-6.494567E-3	-7.220603E-3	-5.715084E-3	-2.410859E-3	-1.270675E-2	-1.180495E-3	-6.970091E-3	-9.872694E-4	3.312700E-3	-2.212610E-3	-3.233494E-3	-2.642633E-3	2.018449E-3	-2.238963E-3	3.506341E-4	-6.854123E-3	3.568263E-4	-2.805258E-4	2.374723E-3	7.790610E-6	-1.313420E-3	-1.660973E-3	-6.289210E-3	-8.559955E-3	-4.916297E-3	-6.499526E-5	2.101748E-3	2.845949E-3	2.561630E-3	1.685138E-3	2.844726E-3	4.256869E-3	-1.764846E-3	1.804750E-3	1.164206E-3	3.994464E-3	5.474609E-3	-2.527635E-3	3.143634E-3	-3.331577E-3	8.211837E-4	6.186844E-3	-8.065028E-4	-3.527798E-3	2.527065E-3	4.129322E-3	-3.173961E-3	-4.392383E-3	1.921222E-3	-2.032286E-4	-4.190144E-3	-2.522364E-3	-1.777194E-3	-4.939783E-3	5.132913E-3	1.103967E-3	-1.174432E-2	3.969494E-3	3.470988E-3	-4.488597E-3	-3.052481E-4	-6.622932E-4	-7.588218E-3	-3.940599E-3	-3.794508E-3	-9.949745E-4	-1.250710E-3	8.424329E-5	-1.210223E-3	4.152691E-3	-5.077469E-3	-1.444051E-3	-4.395944E-3	-5.752390E-3	3.031194E-3	-1.676867E-3	1.995545E-4	-1.022126E-3	-7.232582E-4	-7.245461E-4	5.079868E-3	2.195495E-4	-5.715529E-3	-4.413926E-3	4.321631E-4	-1.922013E-3	5.405758E-4	-2.602815E-3	-5.436206E-3	6.768856E-3	1.074926E-3	-9.439459E-3	-8.524305E-3	4.903461E-3	7.000460E-3
2.815020E+2	2.341559E-3	2.184061E-3	-2.393813E-5	3.203139E-3	2.805071E-3	-3.324083E-3	4.182454E-4	2.945446E-3	-2.338278E-3	-3.464849E-3	-6.687434E-3	-9.184065E-4	5.064979E-6	2.621523E-3	2.241007E-3	1.681399E-4	-6.738999E-6	-3.513392E-3	-2.243248E-3	5.224385E-3	-3.343629E-3	-4.051093E-4	1.253601E-3	-4.723477E-3	-6.056202E-3	-4.159615E-3	-2.690961E-3	-2.209851E-3	-6.567581E-3	-2.633642E-3	-5.568119E-4	1.541296E-3	3.855814E-3	6.675971E-4	5.440277E-3	-3.315067E-3	-5.808167E-3	1.411754E-3	3.242032E-3	-1.815708E-3	-1.817243E-3	-1.822915E-3	-3.964040E-3	2.068303E-3	-1.324843E-3	-8.621573E-4	-1.507682E-4	-8.566044E-6	-8.604461E-3	5.767443E-4	3.183080E-3	6.357134E-3	-6.267416E-3	-5.868693E-3	-2.525641E-3	2.542744E-4	7.393564E-4	3.670038E-4	-4.584454E-3	-3.297359E-3	-3.933658E-3	-3.101084E-3	-4.161591E-4	-3.955595E-3	-2.604208E-3	1.992626E-3	-3.369290E-3	1.926804E-3	4.834988E-3	5.749072E-4	-3.179421E-3	4.054567E-3	6.940710E-4	-1.879168E-3	5.336945E-3	-5.654854E-4	-6.442055E-3	4.578410E-3	-1.049709E-3	-3.300350E-3	-3.455174E-3	-2.816210E-3	4.291157E-3	8.272652E-4	-1.550572E-3	3.685395E-3	1.421736E-3	-2.579927E-3	-3.029385E-3	-2.676274E-3	-1.512948E-4	-3.538754E-3	1.997446E-3	-4.771468E-3	-3.099323E-3	-4.354483E-3	-8.789685E-3	-5.213244E-3	-2.823509E-3	-6.271391E-3	9.682210E-4	4.621807E-3	9.290361E-3	-2.798661E-3	-9.411672E-5	-2.215199E-3	-6.074931E-4	-9.503117E-5	-4.260770E-3	-3.161553E-3	-4.615183E-3	1.199990E-3	-5.813438E-3	-2.624077E-3	3.310597E-3	5.191095E-3	-3.165027E-3	-1.272679E-3	-5.567795E-4	3.490258E-3	-7.115232E-3	-3.619262E-3	3.657570E-3	5.083554E-3	-1.176359E-3	-2.157494E-4	-7.130180E-4	-9.108689E-5	-3.936654E-3	2.813237E-3	-5.710492E-3	-1.111786E-3	-1.684333E-3	-3.680474E-3	-8.784607E-4	-1.838831E-3	1.460982E-3	1.204459E-3	-1.837334E-3	-2.747205E-3	-4.221186E-3	-9.199227E-4	3.513729E-4	-3.174288E-3	1.545635E-3	-2.581416E-3	-9.947322E-4	1.458513E-3	-1.601225E-3	1.096253E-3	-2.962203E-3	-1.604298E-3	3.616951E-3	-2.353412E-3	6.121561E-4	-6.214731E-3	8.669328E-4	-2.997283E-4	-6.748158E-3	-5.818619E-4	-1.039886E-4	-7.714850E-4	-1.292500E-3	4.333713E-3	-3.938729E-3	3.553295E-3	-7.828901E-4	7.708233E-3	1.075374E-3	1.637188E-3	3.879040E-3
2.820060E+2	7.598343E-3	1.408261E-4	-5.750295E-3	4.562371E-3	-3.050413E-3	1.812424E-4	1.613528E-3	7.005647E-4	-3.940845E-3	1.902848E-3	-1.183212E-3	-7.109391E-3	-3.197720E-3	-2.132525E-3	-2.176440E-3	-3.768437E-3	1.067032E-3	4.951347E-3	-5.058723E-4	-2.180282E-3	-2.833701E-3	-2.519033E-3	1.940192E-4	-3.101967E-3	2.546158E-3	-6.483572E-5	-4.324725E-3	-4.984240E-3	7.083642E-3	-3.567211E-3	-7.562278E-3	-2.143675E-4	1.072695E-3	2.712979E-3	1.152556E-3	-7.473218E-3	-4.546164E-4	-1.094527E-3	3.320386E-3	-3.241846E-3	6.942156E-3	-1.272326E-3	2.060352E-3	-4.665608E-3	-2.187537E-3	-3.057800E-3	-3.110121E-3	-1.880336E-3	-1.245286E-4	-1.389814E-3	-4.490944E-5	-7.493311E-3	2.694734E-3	3.400323E-4	-3.017820E-3	-4.008683E-3	-5.377992E-3	-1.547857E-3	-1.245449E-3	9.009609E-4	4.685517E-3	-2.022398E-4	1.509564E-4	-9.194448E-4	4.450011E-4	-3.445620E-3	1.923992E-3	-3.801794E-3	-1.737852E-3	6.495386E-4	-3.116207E-3	-2.153898E-3	-2.519043E-4	3.464225E-3	-6.570006E-3	7.565989E-4	2.462425E-4	2.103719E-3	-2.520812E-3	-3.307981E-4	-1.674226E-3	-6.755986E-3	1.159990E-3	-2.619136E-3	-6.942620E-3	1.338475E-3	-1.578892E-3	4.722356E-3	6.164788E-3	-6.417589E-5	-1.240577E-3	-8.722595E-4	5.058062E-4	2.393185E-3	1.512275E-3	-9.741340E-3	4.217529E-3	4.149709E-5	-5.042487E-3	-2.857088E-3	-1.649741E-3	-3.658468E-4	-4.319692E-3	1.439873E-3	-6.605511E-3	1.845347E-3	-5.317749E-3	3.848382E-3	3.017330E-3	-4.620051E-3	-7.772621E-4	-3.065457E-3	4.360800E-3	-3.062159E-3	-4.274381E-3	-4.351492E-3	6.639732E-3	-3.066926E-3	-2.363130E-3	-2.294808E-3	-3.262939E-3	-9.396237E-4	-2.301380E-3	2.424005E-3	2.131187E-3	8.389596E-4	-1.192349E-3	-2.843249E-3	1.749352E-3	2.760933E-3	-4.419517E-4	-5.622976E-3	1.754452E-3	2.304728E-4	-2.987601E-3	-7.163454E-4	2.132938E-3	-7.216058E-3	1.820526E-4	-2.101067E-3	-3.641478E-3	-5.130895E-3	-5.680880E-3	-1.665306E-3	3.786981E-3	-8.469484E-3	3.788391E-3	4.413359E-4	-7.896765E-3	-6.960743E-3	2.371887E-3	-2.003168E-3	7.120960E-3	-3.027050E-3	-4.359380E-3	6.261337E-3	-2.796084E-3	-5.130289E-3	1.032580E-3	6.588751E-3	5.946983E-4	-2.772058E-5	3.321858E-3	-4.053542E-3	-1.285428E-5	-4.270811E-3	-1.865216E-3	4.271876E-3	1.181529E-3	-7.652463E-4	-5.632184E-3
2.825030E+2	1.908808E-3	1.803061E-3	2.706255E-3	2.052937E-3	-5.058622E-4	7.643340E-3	7.335154E-3	-2.137664E-3	6.121209E-3	-3.343411E-3	-3.021293E-5	3.580937E-3	5.784299E-3	8.112283E-3	4.212487E-3	-2.207515E-3	3.647221E-3	2.931136E-3	5.167014E-3	8.891362E-3	2.583961E-3	-4.207407E-3	4.238908E-3	-1.472945E-3	2.618165E-3	4.050757E-3	2.648613E-4	1.894416E-3	-2.573807E-3	-9.944905E-4	1.104792E-3	6.332675E-3	-1.724669E-3	-6.797729E-4	2.311440E-3	-1.602831E-3	2.717096E-3	2.880987E-3	5.523675E-3	4.259208E-3	1.901572E-3	4.104319E-3	8.709865E-3	-5.181663E-3	-2.241424E-4	4.781014E-3	3.034917E-3	6.260359E-4	3.891186E-3	4.296281E-3	1.127122E-3	5.398568E-3	-9.840208E-4	4.387162E-3	3.684363E-3	-2.329764E-3	3.462249E-3	6.962793E-3	3.428311E-3	2.152721E-3	1.006166E-3	-5.978895E-4	-1.808550E-3	6.442470E-4	1.714540E-3	4.148938E-3	1.420012E-3	4.185277E-3	-7.058657E-4	3.223615E-3	-4.607946E-3	7.076735E-3	5.942867E-3	9.036797E-4	3.379721E-4	-2.986246E-3	5.950483E-3	2.186545E-3	1.196713E-4	1.206676E-3	8.226876E-3	-9.671685E-4	-9.070443E-4	7.983017E-3	-5.885010E-3	-1.014690E-3	2.834813E-5	3.294869E-4	5.282000E-4	-2.542866E-3	-1.174432E-3	2.468077E-3	2.151137E-3	3.999816E-3	-6.021234E-3	3.229580E-3	5.381398E-3	1.194224E-4	3.002841E-3	6.773874E-3	6.971644E-3	-2.875591E-4	1.002102E-2	-5.285026E-3	-5.133501E-4	-1.575734E-3	1.833444E-3	1.139969E-3	5.706567E-3	4.075069E-3	4.125835E-3	-1.546597E-3	-6.367045E-3	6.455095E-3	1.564757E-3	3.604862E-3	5.966367E-5	2.991303E-4	1.610379E-3	6.395161E-3	-3.747287E-3	7.202727E-4	-6.534770E-3	-5.277530E-3	8.110578E-3	9.238400E-4	1.690370E-3	5.290063E-3	7.454079E-3	2.835863E-3	1.064622E-2	-2.684851E-3	-7.459658E-5	5.351062E-3	-5.212090E-3	6.626061E-3	6.135183E-3	5.542387E-3	-4.185806E-3	5.917019E-3	4.965443E-3	1.358555E-3	3.181727E-5	1.282493E-3	-4.753328E-3	4.527403E-3	-3.082642E-3	-5.567499E-5	2.687526E-3	1.191747E-3	3.005217E-3	3.727885E-3	1.034100E-3	-2.447871E-3	8.511824E-4	6.975865E-3	-3.255819E-5	3.642184E-4	2.756677E-3	9.995651E-4	-2.993839E-3	6.412588E-3	1.056345E-2	3.993605E-3	5.863654E-3	2.364718E-3	1.681853E-3	7.265725E-3	5.143233E-3	-7.768816E-3	-5.384518E-3
2.830060E+2	8.352052E-3	9.476963E-3	9.905137E-3	5.934725E-3	7.524787E-3	3.278989E-3	5.174363E-3	5.506292E-3	2.299950E-3	4.182032E-3	1.549531E-2	3.650286E-3	4.462612E-3	6.259733E-3	5.719591E-3	6.903459E-3	1.077124E-2	6.174293E-3	-1.498292E-3	8.416620E-4	6.690903E-3	7.745769E-3	3.753814E-3	8.012297E-3	8.601350E-3	7.173920E-3	6.033007E-3	8.238236E-3	8.227403E-3	7.125750E-3	9.826028E-3	7.357008E-3	1.271149E-2	8.316068E-3	4.026526E-3	6.415407E-3	1.078783E-2	6.880370E-3	9.331583E-3	7.821094E-3	8.661862E-3	6.611981E-3	6.399154E-3	1.309071E-2	6.479880E-3	1.449426E-2	1.073046E-2	1.585043E-2	1.582793E-2	1.000916E-2	5.068879E-3	6.035356E-3	5.215434E-3	1.198582E-2	9.864330E-3	5.330498E-3	1.700851E-2	3.561144E-3	1.076198E-2	6.384590E-3	1.721133E-2	7.071112E-3	2.818647E-3	1.118817E-2	1.200426E-2	2.213628E-3	2.662899E-3	8.502927E-3	1.764802E-3	8.306486E-3	1.266137E-2	9.457632E-3	4.494523E-3	9.990642E-3	1.300703E-2	6.594096E-3	7.057069E-3	3.808848E-3	1.204536E-2	7.615389E-3	6.563597E-3	5.421151E-3	5.613268E-3	1.217527E-2	9.652533E-3	5.418850E-3	3.178764E-3	3.191430E-3	8.627871E-3	7.768404E-3	2.359937E-3	5.158877E-3	1.702909E-3	1.326932E-2	1.082066E-2	8.296487E-3	3.832931E-3	8.553099E-3	1.451271E-2	1.023440E-2	1.067280E-2	1.140274E-2	5.157511E-3	9.986576E-3	1.330667E-2	1.104730E-2	7.223609E-3	1.763870E-3	8.927072E-3	4.611748E-3	7.990447E-3	7.771187E-3	7.686747E-3	8.657851E-3	7.433677E-3	1.975425E-3	4.258213E-3	7.922214E-3	7.569903E-3	4.301518E-3	9.425971E-3	2.892944E-3	8.905291E-3	8.714444E-3	2.264300E-3	-2.923715E-3	9.668755E-3	7.730462E-3	1.037644E-2	6.981766E-3	3.645932E-3	9.541786E-3	1.252181E-2	1.051182E-2	1.089253E-2	3.601249E-3	6.802328E-3	3.511969E-3	1.240576E-2	1.114109E-2	1.110764E-2	3.573670E-4	1.256329E-2	8.576431E-3	6.665216E-3	9.146969E-3	5.237907E-4	8.047374E-3	8.292848E-3	7.489688E-3	7.024686E-3	8.466352E-3	5.619799E-3	1.585072E-2	1.773858E-2	1.143168E-2	8.167458E-3	1.034758E-2	6.146653E-3	9.161924E-3	1.664363E-2	1.258874E-2	6.155178E-3	6.749619E-3	4.510535E-3	7.377686E-3	1.623723E-2	8.815114E-3	1.392163E-2	-3.560333E-3	2.099364E-2
2.835020E+2	9.607155E-3	1.287518E-2	1.389752E-2	6.019086E-3	9.618345E-3	1.773181E-2	1.606590E-2	1.901657E-2	2.080691E-2	1.655669E-2	2.607075E-2	2.511081E-2	1.445885E-2	1.609664E-2	1.763423E-2	1.001631E-2	2.298758E-2	2.583544E-2	2.003805E-2	1.429685E-2	1.890225E-2	3.427449E-3	1.754077E-2	1.230493E-2	1.838418E-2	1.742816E-2	7.883233E-3	1.346951E-2	2.202331E-2	1.629706E-2	1.301123E-2	2.092799E-2	2.549342E-2	2.382962E-2	1.675058E-2	1.719687E-3	2.201729E-2	2.004165E-2	1.317750E-2	1.988572E-2	1.339438E-2	2.124974E-2	1.738959E-2	1.946419E-2	1.511578E-2	1.966724E-2	1.901400E-2	1.792476E-2	1.028066E-2	1.472434E-2	1.347895E-2	1.621398E-2	1.995546E-2	1.254717E-2	2.220263E-2	1.630169E-2	1.036921E-2	1.612645E-2	1.818208E-2	9.445917E-3	6.532854E-3	1.620815E-2	1.002942E-2	2.228348E-2	9.083195E-3	5.314582E-3	2.747317E-3	1.177598E-2	1.528342E-2	5.065720E-3	1.276612E-2	2.221161E-2	1.739569E-2	2.444249E-2	2.458825E-2	1.685550E-2	1.640765E-2	7.500540E-3	1.214916E-2	1.015230E-2	2.234418E-2	1.183898E-2	1.539886E-2	1.756393E-2	1.325753E-2	2.169634E-2	1.098117E-2	1.561208E-2	4.691627E-3	1.351159E-2	1.171539E-2	2.692998E-2	1.386371E-2	1.593200E-2	1.601608E-2	1.588541E-2	2.295388E-2	8.648004E-3	1.404123E-2	7.496273E-3	1.077773E-2	1.989744E-2	1.461708E-2	1.218524E-2	1.891679E-2	1.668389E-2	1.324670E-2	5.754152E-3	1.890885E-2	1.283723E-2	1.503676E-2	2.199964E-2	2.701745E-2	1.560256E-2	2.174360E-2	1.451884E-2	1.415964E-2	2.502471E-2	1.487226E-2	1.573875E-2	1.827247E-2	7.219103E-3	1.516020E-2	1.435471E-2	1.804559E-2	1.520855E-2	1.373453E-2	1.682749E-2	1.619840E-2	1.294841E-2	1.416414E-2	9.649945E-3	2.181590E-2	1.216099E-2	2.363854E-2	1.309396E-2	2.492041E-2	1.744575E-2	2.089517E-2	1.016735E-2	2.082330E-2	2.092134E-2	2.047493E-2	1.639554E-2	1.435378E-2	7.567967E-3	1.697094E-2	1.901491E-3	2.037947E-2	1.094889E-2	1.953316E-2	2.099275E-2	1.023078E-2	2.258272E-2	2.117120E-2	1.653373E-2	9.352548E-3	1.244661E-2	2.613880E-2	1.832679E-2	1.921427E-2	3.048303E-2	2.176703E-2	2.021689E-2	1.236939E-2	1.331864E-2	9.102101E-3	4.605960E-3	1.597558E-2	1.177029E-2	1.126019E-2
2.840000E+2	3.818131E-2	3.412997E-2	2.764436E-2	3.285821E-2	3.371266E-2	2.081698E-2	3.725830E-2	2.263078E-2	3.602564E-2	2.469388E-2	2.618447E-2	3.340564E-2	3.490246E-2	2.401747E-2	3.142825E-2	3.082248E-2	2.311443E-2	2.596867E-2	3.430417E-2	3.418032E-2	3.207273E-2	2.874244E-2	3.996315E-2	3.394784E-2	3.090676E-2	3.333296E-2	2.912427E-2	2.959581E-2	3.097142E-2	3.005781E-2	2.946973E-2	3.223845E-2	3.775839E-2	3.942562E-2	1.355169E-2	2.843482E-2	2.661499E-2	3.022385E-2	4.055327E-2	3.700492E-2	2.848339E-2	2.866795E-2	3.139790E-2	2.986744E-2	2.712611E-2	2.762846E-2	2.578184E-2	1.902891E-2	3.307459E-2	2.152766E-2	2.692951E-2	2.363755E-2	3.430760E-2	4.417250E-2	3.574632E-2	3.661092E-2	2.556593E-2	3.926697E-2	4.034715E-2	3.343957E-2	3.905090E-2	2.157489E-2	2.905379E-2	3.093371E-2	2.970769E-2	2.209937E-2	3.457529E-2	3.317285E-2	3.465152E-2	2.694675E-2	3.125222E-2	2.696351E-2	3.293308E-2	3.790086E-2	3.342639E-2	2.397663E-2	3.406062E-2	3.136002E-2	3.199715E-2	2.444713E-2	4.227833E-2	2.348230E-2	3.606576E-2	3.241769E-2	2.541521E-2	3.413280E-2	2.347867E-2	2.078613E-2	3.360221E-2	3.937833E-2	4.206566E-2	2.574307E-2	2.977899E-2	3.093422E-2	3.300602E-2	3.302618E-2	3.453851E-2	2.660041E-2	4.402574E-2	2.912739E-2	3.628892E-2	3.125436E-2	2.911173E-2	2.600469E-2	2.401646E-2	3.245871E-2	2.049977E-2	3.447900E-2	2.999658E-2	3.032931E-2	3.737201E-2	3.832902E-2	3.413385E-2	4.378050E-2	3.353928E-2	3.282512E-2	3.239875E-2	4.036084E-2	2.609188E-2	2.508492E-2	4.528030E-2	3.652675E-2	3.995022E-2	2.455227E-2	3.444010E-2	3.641799E-2	3.367014E-2	3.269374E-2	3.388484E-2	4.102606E-2	2.733045E-2	2.951064E-2	3.791747E-2	3.053621E-2	3.066859E-2	3.519528E-2	2.336047E-2	3.090343E-2	3.059260E-2	2.570442E-2	2.702566E-2	3.130679E-2	3.411699E-2	3.777377E-2	4.000397E-2	3.432857E-2	1.648745E-2	3.995112E-2	2.836222E-2	3.267579E-2	3.717462E-2	2.475007E-2	4.654528E-2	3.034945E-2	4.270306E-2	3.980838E-2	3.829525E-2	2.997918E-2	2.460770E-2	3.039872E-2	3.592198E-2	3.216240E-2	3.484941E-2	3.427801E-2	2.804861E-2	3.142393E-2	3.827730E-2	1.409084E-2	3.354627E-2	4.385995E-2	2.128413E-2
2.841010E+2	3.658424E-2	2.943799E-2	2.634324E-2	3.563852E-2	3.337099E-2	3.637520E-2	3.407136E-2	3.920369E-2	4.011637E-2	2.916900E-2	3.543359E-2	3.924702E-2	3.506602E-2	3.148868E-2	3.376746E-2	3.703650E-2	4.454000E-2	2.769062E-2	4.011722E-2	3.498283E-2	2.997962E-2	3.245507E-2	3.096213E-2	3.621870E-2	3.754864E-2	3.501955E-2	4.474537E-2	3.775892E-2	3.603027E-2	3.932003E-2	3.319614E-2	1.839456E-2	3.617839E-2	2.559258E-2	3.630085E-2	3.391871E-2	3.303330E-2	3.389498E-2	2.894409E-2	3.966935E-2	3.276584E-2	3.271998E-2	3.939921E-2	3.572540E-2	2.870743E-2	2.916822E-2	2.899484E-2	3.195590E-2	3.608093E-2	3.301278E-2	2.930019E-2	4.181298E-2	2.829733E-2	4.171700E-2	4.261639E-2	2.745391E-2	3.874958E-2	3.641820E-2	3.315835E-2	2.878518E-2	4.300913E-2	2.936956E-2	2.407375E-2	4.566690E-2	3.650854E-2	2.425965E-2	3.120372E-2	3.812630E-2	3.531085E-2	3.129667E-2	4.088564E-2	3.519758E-2	2.896035E-2	3.539543E-2	3.882122E-2	2.921315E-2	4.250129E-2	2.840598E-2	3.322959E-2	3.048039E-2	4.185957E-2	3.461095E-2	2.756593E-2	3.374665E-2	3.410968E-2	2.739317E-2	2.104484E-2	3.839621E-2	2.969884E-2	2.560208E-2	4.004789E-2	3.115344E-2	3.467270E-2	3.467774E-2	4.145309E-2	2.716320E-2	3.030733E-2	3.094325E-2	2.464153E-2	3.436380E-2	3.555264E-2	3.656455E-2	3.478795E-2	2.613597E-2	3.133898E-2	2.906981E-2	4.210228E-2	3.574681E-2	2.125054E-2	3.046067E-2	2.617833E-2	2.769788E-2	3.564456E-2	2.856246E-2	2.654885E-2	2.613942E-2	3.106798E-2	3.541795E-2	1.513389E-2	3.838933E-2	3.294026E-2	2.977561E-2	4.507969E-2	3.483557E-2	3.242556E-2	3.378258E-2	2.483135E-2	3.343463E-2	3.074548E-2	4.313332E-2	3.598280E-2	3.794622E-2	3.187376E-2	3.123416E-2	2.101505E-2	3.335637E-2	2.694922E-2	3.436448E-2	3.723710E-2	3.802951E-2	2.828114E-2	3.416369E-2	3.331663E-2	3.215835E-2	3.208079E-2	3.976696E-2	3.432033E-2	3.330360E-2	3.965101E-2	3.188784E-2	3.223430E-2	3.166584E-2	2.632922E-2	3.369020E-2	2.668953E-2	2.805238E-2	3.366875E-2	4.365126E-2	3.252635E-2	3.296031E-2	3.244453E-2	3.600447E-2	2.537981E-2	3.767417E-2	2.869494E-2	3.656786E-2	2.452717E-2	4.319746E-2	1.815011E-2	4.684243E-2	3.136602E-2
2.842030E+2	4.780297E-2	3.512610E-2	3.878138E-2	3.985310E-2	3.707995E-2	3.803927E-2	3.738870E-2	4.408209E-2	4.372439E-2	4.875559E-2	3.456670E-2	4.990802E-2	4.378046E-2	4.050589E-2	4.203161E-2	3.219073E-2	4.369728E-2	3.635479E-2	5.893512E-2	3.299699E-2	3.875617E-2	4.023253E-2	4.280004E-2	4.048393E-2	4.208315E-2	4.907021E-2	4.322249E-2	4.513698E-2	4.704456E-2	4.562064E-2	5.249545E-2	4.624316E-2	4.213525E-2	5.283685E-2	4.521124E-2	5.388688E-2	5.249318E-2	4.899644E-2	4.626955E-2	4.484737E-2	5.368236E-2	5.143168E-2	4.922972E-2	4.506718E-2	4.605732E-2	3.996361E-2	5.172002E-2	4.100737E-2	4.879254E-2	5.282372E-2	4.563815E-2	4.651913E-2	5.513173E-2	4.057502E-2	4.950165E-2	5.446397E-2	4.989530E-2	4.712897E-2	3.930310E-2	4.272259E-2	5.893621E-2	4.294893E-2	4.473149E-2	5.343116E-2	4.333072E-2	4.677477E-2	4.374481E-2	4.042519E-2	4.612061E-2	5.040953E-2	5.001379E-2	3.883196E-2	4.200938E-2	4.787571E-2	4.593148E-2	4.601859E-2	5.357340E-2	4.049608E-2	4.747415E-2	4.244577E-2	5.900799E-2	4.751979E-2	4.019981E-2	4.573769E-2	4.435384E-2	5.028569E-2	3.674565E-2	4.647548E-2	4.200704E-2	4.749311E-2	3.787980E-2	4.718917E-2	4.119070E-2	4.413195E-2	4.060206E-2	4.895107E-2	4.140401E-2	4.006007E-2	5.191106E-2	4.020051E-2	3.709569E-2	5.178277E-2	4.550584E-2	4.217974E-2	4.871009E-2	4.191778E-2	4.048399E-2	3.985961E-2	4.078350E-2	4.654331E-2	4.387477E-2	4.368579E-2	6.156025E-2	3.560499E-2	4.620438E-2	3.939239E-2	4.327959E-2	4.759802E-2	4.502304E-2	3.863287E-2	4.097764E-2	4.487123E-2	4.655918E-2	3.680333E-2	4.078020E-2	4.830276E-2	4.615244E-2	3.894901E-2	4.808729E-2	5.684763E-2	4.925065E-2	4.520568E-2	4.331436E-2	3.496899E-2	4.890249E-2	4.093900E-2	4.407033E-2	5.447007E-2	4.642822E-2	4.747477E-2	3.971378E-2	4.517249E-2	4.664161E-2	3.922264E-2	4.149859E-2	4.567419E-2	5.048719E-2	4.016237E-2	5.652139E-2	5.571864E-2	5.339044E-2	5.594763E-2	4.746676E-2	4.775895E-2	3.993231E-2	3.766015E-2	4.813805E-2	4.283380E-2	6.496506E-2	3.513426E-2	5.975670E-2	4.547952E-2	5.039202E-2	4.993003E-2	4.545460E-2	4.940417E-2	4.986703E-2	3.477313E-2	3.773937E-2	6.799097E-2	8.461282E-2
2.843040E+2	5.733028E-2	5.232511E-2	7.070603E-2	6.843638E-2	7.455575E-2	5.622752E-2	6.187081E-2	6.504763E-2	6.364505E-2	6.028945E-2	6.545099E-2	6.538310E-2	5.444035E-2	6.973112E-2	4.975485E-2	6.393913E-2	7.038004E-2	5.894319E-2	6.646232E-2	5.745869E-2	6.619800E-2	5.653522E-2	7.125774E-2	7.458462E-2	7.112967E-2	5.702299E-2	6.176146E-2	5.074251E-2	6.900763E-2	6.826140E-2	6.513944E-2	5.827365E-2	6.268532E-2	6.362728E-2	6.847168E-2	5.505354E-2	7.077843E-2	5.501111E-2	5.776673E-2	7.509241E-2	5.658680E-2	7.482578E-2	7.034342E-2	6.605700E-2	6.116600E-2	6.670699E-2	6.664718E-2	7.261968E-2	6.902407E-2	7.124129E-2	6.858017E-2	4.965223E-2	6.351152E-2	7.797712E-2	7.488605E-2	5.873914E-2	6.063444E-2	5.140495E-2	7.092456E-2	5.814154E-2	6.681289E-2	5.857649E-2	5.187139E-2	5.626069E-2	5.995192E-2	6.230903E-2	5.690203E-2	5.994893E-2	6.964220E-2	6.544892E-2	7.137155E-2	5.937612E-2	6.241811E-2	6.419657E-2	7.053081E-2	5.715108E-2	6.680899E-2	6.307919E-2	6.651618E-2	6.339559E-2	6.981615E-2	6.285476E-2	6.327053E-2	5.843407E-2	5.974940E-2	6.739054E-2	4.890677E-2	7.561924E-2	6.543933E-2	6.380492E-2	5.157818E-2	6.267167E-2	5.997805E-2	5.675792E-2	6.299854E-2	5.222468E-2	6.578364E-2	5.772438E-2	7.588556E-2	7.009507E-2	7.527528E-2	6.994609E-2	6.912637E-2	6.099309E-2	6.788047E-2	7.421368E-2	5.808603E-2	6.949400E-2	5.466925E-2	6.850930E-2	6.206518E-2	6.264953E-2	7.540819E-2	5.393404E-2	7.202604E-2	5.621397E-2	6.861701E-2	5.733519E-2	7.229325E-2	5.585448E-2	6.228823E-2	5.578704E-2	6.907204E-2	6.141539E-2	6.175723E-2	6.293742E-2	5.832828E-2	7.720030E-2	6.139432E-2	5.467237E-2	6.324235E-2	6.653996E-2	7.078752E-2	7.043826E-2	7.809302E-2	6.581178E-2	6.583525E-2	5.567267E-2	6.851762E-2	7.021882E-2	7.263602E-2	8.294528E-2	6.090238E-2	7.153331E-2	7.013328E-2	5.618965E-2	7.255351E-2	6.485095E-2	5.163042E-2	7.242622E-2	5.815063E-2	5.668045E-2	6.818283E-2	6.439455E-2	6.961422E-2	4.414167E-2	5.821816E-2	6.056469E-2	7.301091E-2	6.145891E-2	6.112835E-2	6.469538E-2	6.365558E-2	6.705271E-2	6.771553E-2	5.643663E-2	7.334886E-2	6.129750E-2	7.013861E-2	6.404111E-2	5.164296E-2
2.844010E+2	7.276951E-2	8.614007E-2	8.841034E-2	6.990350E-2	8.190464E-2	7.652145E-2	8.696290E-2	7.956467E-2	7.631697E-2	7.625271E-2	8.438163E-2	8.029220E-2	6.947165E-2	7.986128E-2	7.308967E-2	8.614048E-2	9.260620E-2	7.147411E-2	8.192296E-2	7.780982E-2	9.422660E-2	7.693703E-2	7.667436E-2	8.448821E-2	7.136348E-2	7.941174E-2	7.735760E-2	9.109233E-2	8.115766E-2	7.873208E-2	7.075977E-2	8.870523E-2	8.215768E-2	8.354501E-2	8.031231E-2	8.451781E-2	9.182474E-2	8.885259E-2	9.975485E-2	9.375841E-2	8.554791E-2	7.954243E-2	8.152789E-2	8.262156E-2	7.440076E-2	8.375941E-2	8.260598E-2	8.634511E-2	8.590970E-2	8.295835E-2	8.586627E-2	9.186385E-2	8.107123E-2	8.464493E-2	8.917311E-2	8.465325E-2	8.676207E-2	9.681829E-2	9.258362E-2	8.327207E-2	7.968153E-2	8.788287E-2	9.495228E-2	9.375928E-2	7.666629E-2	7.897552E-2	7.805457E-2	8.738798E-2	9.235777E-2	9.250180E-2	8.708882E-2	7.608791E-2	6.535320E-2	9.208550E-2	8.978350E-2	8.509735E-2	9.006838E-2	8.012864E-2	6.881681E-2	9.109757E-2	8.953365E-2	9.873672E-2	7.809205E-2	9.147626E-2	7.676845E-2	8.959515E-2	8.360125E-2	7.762802E-2	9.016355E-2	7.761211E-2	8.359131E-2	7.356860E-2	9.111362E-2	8.502091E-2	7.929151E-2	7.729658E-2	8.203504E-2	7.655884E-2	7.966114E-2	6.294849E-2	7.974002E-2	9.059293E-2	8.674135E-2	9.059391E-2	9.497405E-2	9.952798E-2	7.882891E-2	7.772727E-2	7.337914E-2	8.538082E-2	8.087927E-2	7.879977E-2	8.664880E-2	9.105911E-2	8.813397E-2	8.402753E-2	8.228171E-2	8.054369E-2	9.473384E-2	9.121696E-2	8.194194E-2	7.004268E-2	7.422727E-2	7.981863E-2	8.896530E-2	8.461064E-2	9.458998E-2	8.572927E-2	8.232289E-2	8.380197E-2	8.257700E-2	9.741136E-2	6.655528E-2	6.866374E-2	7.951183E-2	8.827867E-2	7.690793E-2	8.389208E-2	5.775047E-2	7.278346E-2	6.866390E-2	7.068141E-2	8.158935E-2	8.401436E-2	9.288338E-2	9.434048E-2	9.330707E-2	7.795788E-2	8.547022E-2	7.368746E-2	9.491481E-2	8.211133E-2	8.729630E-2	6.925874E-2	9.748410E-2	7.470225E-2	8.765904E-2	7.692547E-2	7.102914E-2	8.108924E-2	8.864097E-2	8.764081E-2	7.374475E-2	8.958480E-2	8.815063E-2	9.081173E-2	7.293835E-2	8.058914E-2	6.550577E-2	9.381660E-2	7.854669E-2
2.845030E+2	1.053113E-1	1.018423E-1	9.367637E-2	1.076905E-1	9.927706E-2	1.155981E-1	1.079404E-1	1.009341E-1	1.090578E-1	1.177518E-1	9.835020E-2	1.247198E-1	1.190560E-1	9.992347E-2	1.036702E-1	1.043514E-1	9.596913E-2	1.071369E-1	1.097719E-1	9.705584E-2	1.032345E-1	1.046349E-1	1.167837E-1	1.169845E-1	1.235514E-1	1.065530E-1	1.004645E-1	1.205289E-1	1.202070E-1	1.164038E-1	9.744391E-2	1.046264E-1	1.128395E-1	1.126701E-1	1.146846E-1	1.184359E-1	1.152475E-1	1.157876E-1	1.153135E-1	1.114201E-1	1.204049E-1	1.113864E-1	1.031385E-1	1.044546E-1	1.069864E-1	1.008944E-1	1.048774E-1	9.912807E-2	1.252788E-1	1.009817E-1	1.168858E-1	1.110523E-1	1.140715E-1	1.115628E-1	1.084543E-1	1.223372E-1	1.087015E-1	1.261160E-1	1.045022E-1	1.232076E-1	1.095541E-1	1.095104E-1	1.132467E-1	1.175216E-1	1.087190E-1	1.162252E-1	8.698157E-2	1.090200E-1	1.005462E-1	1.048129E-1	8.998298E-2	1.082139E-1	1.110440E-1	1.087524E-1	1.261800E-1	1.008463E-1	1.129201E-1	1.051341E-1	1.030852E-1	1.030282E-1	1.294242E-1	1.020149E-1	1.228004E-1	1.073136E-1	1.020907E-1	1.075149E-1	1.086319E-1	1.326862E-1	1.116633E-1	9.687580E-2	1.063749E-1	1.139116E-1	9.416016E-2	1.046808E-1	9.982351E-2	1.077589E-1	9.728705E-2	9.926105E-2	1.007759E-1	9.722373E-2	1.095814E-1	1.066693E-1	1.165544E-1	1.014184E-1	9.818378E-2	1.071382E-1	1.240945E-1	1.033924E-1	1.012232E-1	9.042779E-2	1.192430E-1	1.147532E-1	9.678729E-2	1.140344E-1	9.228664E-2	1.116955E-1	1.104885E-1	1.078088E-1	1.134312E-1	1.074670E-1	1.010821E-1	1.108578E-1	9.251996E-2	1.230706E-1	1.025218E-1	1.121981E-1	9.813770E-2	1.097934E-1	1.250184E-1	1.165930E-1	1.218234E-1	1.022366E-1	1.020954E-1	1.054090E-1	1.129654E-1	1.219567E-1	1.062843E-1	1.014182E-1	1.246441E-1	1.102326E-1	1.099210E-1	1.032501E-1	9.815362E-2	1.151891E-1	1.104255E-1	1.041350E-1	1.106982E-1	1.210316E-1	1.097037E-1	1.153632E-1	1.215430E-1	1.013405E-1	1.127817E-1	1.028985E-1	9.905627E-2	1.085737E-1	1.031478E-1	1.064736E-1	1.256990E-1	1.124658E-1	1.056824E-1	1.026912E-1	1.229162E-1	9.910351E-2	1.052202E-1	1.107696E-1	1.039424E-1	1.028975E-1	1.089590E-1	1.082409E-1	1.089080E-1
2.846040E+2	1.362535E-1	1.442839E-1	1.429001E-1	1.434370E-1	1.343675E-1	1.533592E-1	1.294953E-1	1.697191E-1	1.373709E-1	1.382629E-1	1.616493E-1	1.321168E-1	1.357709E-1	1.578125E-1	1.380038E-1	1.380718E-1	1.271001E-1	1.257818E-1	1.471587E-1	1.515287E-1	1.402211E-1	1.261826E-1	1.693198E-1	1.631050E-1	1.754528E-1	1.778754E-1	1.834537E-1	1.612223E-1	1.719305E-1	1.424536E-1	1.546914E-1	1.585777E-1	1.536352E-1	1.536082E-1	1.601428E-1	1.579678E-1	1.605860E-1	1.677752E-1	1.471003E-1	1.629913E-1	1.706734E-1	1.696230E-1	1.577251E-1	1.474419E-1	1.561832E-1	1.504468E-1	1.512445E-1	1.600167E-1	1.723340E-1	1.530895E-1	1.253577E-1	1.389486E-1	1.583362E-1	1.512846E-1	1.472997E-1	1.613284E-1	1.757593E-1	1.418075E-1	1.530336E-1	1.510895E-1	1.582487E-1	1.472758E-1	1.593720E-1	1.521233E-1	1.544003E-1	1.536559E-1	1.599390E-1	1.658500E-1	1.410437E-1	1.427559E-1	1.443390E-1	1.405498E-1	1.663233E-1	1.487115E-1	1.600620E-1	1.501763E-1	1.452887E-1	1.433125E-1	1.589328E-1	1.442829E-1	1.398528E-1	1.381184E-1	1.586471E-1	1.576380E-1	1.545121E-1	1.534657E-1	1.722999E-1	1.487539E-1	1.565588E-1	1.475437E-1	1.495087E-1	1.358167E-1	1.630199E-1	1.598635E-1	1.339209E-1	1.468777E-1	1.441442E-1	1.428282E-1	1.301410E-1	1.400435E-1	1.446555E-1	1.609026E-1	1.617272E-1	1.492282E-1	1.419576E-1	1.539548E-1	1.502286E-1	1.359363E-1	1.615583E-1	1.272648E-1	1.383752E-1	1.443263E-1	1.627810E-1	1.402334E-1	1.496920E-1	1.321721E-1	1.588013E-1	1.377553E-1	1.544889E-1	1.353563E-1	1.592107E-1	1.563412E-1	1.476444E-1	1.525773E-1	1.341824E-1	1.347528E-1	1.288662E-1	1.455287E-1	1.265945E-1	1.633517E-1	1.349991E-1	1.327805E-1	1.393593E-1	1.491227E-1	1.536376E-1	1.398998E-1	1.461576E-1	1.445379E-1	1.560779E-1	1.531510E-1	1.323615E-1	1.464373E-1	1.671783E-1	1.406875E-1	1.418558E-1	1.465172E-1	1.466602E-1	1.566504E-1	1.364388E-1	1.499753E-1	1.431386E-1	1.391756E-1	1.430151E-1	1.451889E-1	1.561970E-1	1.502679E-1	1.499998E-1	1.549157E-1	1.525504E-1	1.465060E-1	1.365609E-1	1.454400E-1	1.357412E-1	1.497582E-1	1.599880E-1	1.308475E-1	1.350968E-1	1.253409E-1	1.270394E-1	1.170822E-1	1.461391E-1
2.847020E+2	2.906956E-1	2.752284E-1	3.084455E-1	2.839121E-1	2.937924E-1	3.153256E-1	2.832466E-1	2.898730E-1	2.901926E-1	2.824457E-1	3.250892E-1	2.740270E-1	3.110179E-1	3.090838E-1	2.958181E-1	2.780376E-1	3.041346E-1	2.993190E-1	3.050318E-1	2.952047E-1	2.963368E-1	3.023961E-1	3.592113E-1	3.443877E-1	3.276413E-1	3.415314E-1	3.382580E-1	3.316560E-1	3.748464E-1	3.251874E-1	3.455286E-1	3.312109E-1	3.750054E-1	3.559304E-1	3.513696E-1	3.519775E-1	3.441278E-1	3.533694E-1	3.426559E-1	3.596390E-1	3.412112E-1	3.243525E-1	3.271080E-1	3.025425E-1	3.500611E-1	2.956104E-1	3.151478E-1	3.441244E-1	3.547297E-1	3.255358E-1	3.302623E-1	3.413458E-1	3.295054E-1	3.425890E-1	3.494689E-1	3.474753E-1	3.514133E-1	3.302058E-1	3.067817E-1	3.446352E-1	3.195334E-1	3.536956E-1	3.204363E-1	3.139190E-1	3.366354E-1	3.377958E-1	3.087771E-1	3.318611E-1	3.137921E-1	3.067391E-1	3.055605E-1	3.464877E-1	3.230286E-1	3.356875E-1	3.090703E-1	3.301214E-1	3.161395E-1	3.102010E-1	2.958384E-1	3.172888E-1	3.413813E-1	3.330747E-1	3.595983E-1	3.287633E-1	3.284805E-1	3.356806E-1	3.131399E-1	3.571090E-1	3.178987E-1	3.308505E-1	3.164212E-1	3.564676E-1	3.303735E-1	3.267563E-1	3.100718E-1	3.445714E-1	3.155959E-1	3.091019E-1	3.226219E-1	3.095547E-1	3.155638E-1	3.213229E-1	3.148729E-1	3.334778E-1	3.272985E-1	3.209081E-1	3.237058E-1	3.363828E-1	3.167543E-1	3.214984E-1	3.172191E-1	3.155484E-1	3.303263E-1	3.170767E-1	3.150377E-1	3.070586E-1	2.889860E-1	3.029461E-1	3.307475E-1	3.130139E-1	2.910771E-1	2.770020E-1	3.162097E-1	3.010228E-1	3.084953E-1	3.184117E-1	3.173240E-1	2.958752E-1	3.142379E-1	3.409444E-1	3.530770E-1	3.173279E-1	3.171413E-1	3.221496E-1	3.256778E-1	2.974500E-1	3.252437E-1	3.121122E-1	3.248074E-1	2.920642E-1	2.800563E-1	3.170024E-1	3.361964E-1	3.211933E-1	3.049170E-1	3.249433E-1	2.827375E-1	3.130604E-1	3.094888E-1	3.246397E-1	2.932547E-1	3.169371E-1	2.990730E-1	3.288406E-1	3.198769E-1	3.046187E-1	3.128044E-1	3.300906E-1	3.328305E-1	3.035640E-1	3.013747E-1	3.043311E-1	3.040655E-1	3.022259E-1	3.078745E-1	2.814212E-1	3.135696E-1	3.095496E-1	3.130678E-1	3.356190E-1	2.943499E-1
2.848020E+2	6.912073E-1	6.374847E-1	7.086028E-1	6.901014E-1	7.132695E-1	7.124069E-1	7.155775E-1	7.552889E-1	6.632993E-1	6.347895E-1	6.882349E-1	6.750447E-1	6.593638E-1	6.963650E-1	7.028373E-1	6.910877E-1	6.697735E-1	6.719688E-1	7.131676E-1	6.756991E-1	6.980196E-1	6.783465E-1	6.968945E-1	7.341822E-1	7.289062E-1	7.010825E-1	7.319396E-1	6.725227E-1	7.013582E-1	6.986689E-1	7.088650E-1	7.315412E-1	7.109603E-1	7.259261E-1	7.058533E-1	7.359040E-1	7.193944E-1	7.362015E-1	7.019033E-1	7.316702E-1	7.003975E-1	7.203351E-1	7.043036E-1	6.960923E-1	7.042306E-1	7.212087E-1	7.017228E-1	7.046549E-1	7.168242E-1	7.358704E-1	6.965156E-1	7.056052E-1	7.269129E-1	7.053508E-1	7.167328E-1	6.840582E-1	7.401883E-1	6.839085E-1	7.195384E-1	6.957395E-1	7.255708E-1	6.910001E-1	6.907638E-1	7.024351E-1	6.674866E-1	7.359676E-1	6.935982E-1	7.273852E-1	7.601411E-1	7.004496E-1	7.065196E-1	7.981554E-1	6.655272E-1	6.893284E-1	6.869580E-1	7.322134E-1	7.388746E-1	6.902316E-1	7.104423E-1	7.018399E-1	7.318632E-1	7.128367E-1	7.314026E-1	7.062641E-1	6.793392E-1	7.102019E-1	7.257051E-1	6.898600E-1	7.102651E-1	6.905693E-1	6.834280E-1	6.665935E-1	7.343132E-1	6.477728E-1	7.058063E-1	6.796394E-1	7.351745E-1	6.800870E-1	6.999363E-1	7.057979E-1	7.270626E-1	7.229908E-1	7.144143E-1	7.253008E-1	6.735592E-1	6.464224E-1	7.256492E-1	7.572175E-1	7.164670E-1	7.125247E-1	7.053641E-1	6.972886E-1	7.137236E-1	6.739122E-1	7.116705E-1	7.324887E-1	7.266014E-1	7.108503E-1	7.271138E-1	6.966765E-1	6.895256E-1	6.853902E-1	6.500081E-1	7.161462E-1	7.283257E-1	7.261634E-1	6.773236E-1	7.148265E-1	6.761488E-1	7.288173E-1	7.122549E-1	6.667256E-1	6.886648E-1	7.205441E-1	7.045102E-1	6.755169E-1	6.951592E-1	6.767220E-1	7.101290E-1	6.570608E-1	6.944117E-1	7.120520E-1	6.964966E-1	7.164206E-1	6.950093E-1	6.800553E-1	7.020711E-1	7.192592E-1	6.973411E-1	6.869205E-1	6.714936E-1	7.105069E-1	7.014475E-1	6.836586E-1	6.729768E-1	6.680002E-1	6.655656E-1	7.148239E-1	6.867387E-1	6.936926E-1	6.893916E-1	7.037324E-1	7.291192E-1	6.659576E-1	6.954455E-1	6.973782E-1	6.983881E-1	7.220585E-1	7.239980E-1	6.452569E-1	7.062760E-1
2.848990E+2	8.783966E-1	9.152072E-1	9.314995E-1	9.252936E-1	9.000462E-1	8.908170E-1	8.997420E-1	8.944556E-1	9.488470E-1	9.210075E-1	9.212938E-1	9.143946E-1	8.929463E-1	9.572543E-1	9.179594E-1	9.153342E-1	9.048610E-1	9.300478E-1	9.046264E-1	9.123770E-1	9.127567E-1	9.301045E-1	9.005835E-1	9.394398E-1	9.096932E-1	9.055592E-1	8.719176E-1	8.819679E-1	8.976350E-1	8.981897E-1	9.372303E-1	9.319011E-1	9.180556E-1	9.226023E-1	9.229574E-1	8.818748E-1	8.917508E-1	9.195381E-1	9.095948E-1	9.074744E-1	8.841906E-1	9.421203E-1	9.384758E-1	8.866875E-1	9.180966E-1	9.560426E-1	9.152550E-1	9.541366E-1	9.669628E-1	9.644083E-1	9.498012E-1	8.964529E-1	9.359638E-1	9.385054E-1	9.393914E-1	9.648294E-1	9.335451E-1	9.726571E-1	8.943529E-1	9.006341E-1	9.687626E-1	9.082736E-1	8.790720E-1	9.128214E-1	9.634553E-1	8.971547E-1	9.090923E-1	9.043385E-1	9.335233E-1	9.505070E-1	9.243764E-1	9.408935E-1	8.975138E-1	9.408522E-1	9.294317E-1	9.516669E-1	8.945862E-1	9.164561E-1	8.955775E-1	8.957877E-1	9.441123E-1	9.379487E-1	9.006330E-1	8.994169E-1	9.013580E-1	9.282128E-1	9.034670E-1	9.405788E-1	9.904904E-1	8.904283E-1	9.560842E-1	9.670820E-1	9.508662E-1	9.287375E-1	9.318896E-1	8.979628E-1	9.329182E-1	9.002398E-1	9.054190E-1	9.461161E-1	8.757899E-1	9.449132E-1	9.636178E-1	9.478517E-1	9.454779E-1	8.689551E-1	9.139650E-1	9.278714E-1	9.396333E-1	9.116124E-1	9.505361E-1	9.092878E-1	9.788149E-1	8.980277E-1	9.431315E-1	9.042235E-1	9.318634E-1	9.214920E-1	9.491497E-1	9.224943E-1	9.123249E-1	9.135175E-1	9.024779E-1	9.381010E-1	9.458957E-1	9.988183E-1	9.434156E-1	9.483909E-1	9.173165E-1	9.266753E-1	8.883419E-1	9.163795E-1	9.048091E-1	9.481355E-1	9.284290E-1	9.449444E-1	8.718018E-1	8.944651E-1	9.513370E-1	9.051591E-1	9.518602E-1	9.352238E-1	8.898244E-1	9.146013E-1	9.340262E-1	9.111929E-1	9.274331E-1	9.184300E-1	9.186657E-1	9.490754E-1	8.789984E-1	9.171351E-1	9.265192E-1	9.309970E-1	9.030673E-1	9.397323E-1	9.199329E-1	9.090791E-1	8.949572E-1	9.180132E-1	9.205674E-1	9.447032E-1	9.605297E-1	8.842181E-1	9.220704E-1	8.252878E-1	9.168981E-1	9.534483E-1	8.764381E-1	8.331849E-1	1.026619E+0
2.850010E+2	9.131305E-1	9.268193E-1	9.791403E-1	9.198272E-1	9.645610E-1	9.098645E-1	9.685360E-1	9.855187E-1	9.045910E-1	9.606694E-1	9.368414E-1	9.872178E-1	8.961928E-1	9.270365E-1	8.900812E-1	9.395078E-1	9.391953E-1	9.137614E-1	8.989348E-1	9.485966E-1	9.573241E-1	9.243713E-1	9.590069E-1	9.505053E-1	9.202387E-1	8.899847E-1	9.093555E-1	9.048332E-1	9.325802E-1	9.014259E-1	9.598825E-1	8.981424E-1	9.301680E-1	9.581098E-1	8.612166E-1	9.063033E-1	9.207289E-1	9.338363E-1	9.601878E-1	9.537717E-1	9.070667E-1	9.125780E-1	9.187759E-1	9.087809E-1	9.307386E-1	9.329913E-1	9.205285E-1	9.667114E-1	9.540869E-1	9.488160E-1	8.920502E-1	9.507138E-1	9.457405E-1	9.196840E-1	9.856696E-1	9.886380E-1	9.091462E-1	9.385656E-1	9.441666E-1	9.569804E-1	9.405972E-1	9.268592E-1	8.916497E-1	9.471385E-1	9.582762E-1	9.160964E-1	8.885332E-1	9.158756E-1	9.291238E-1	9.415885E-1	9.131933E-1	9.389047E-1	9.367233E-1	9.141482E-1	9.219464E-1	9.596564E-1	9.434711E-1	8.874575E-1	9.361546E-1	9.434932E-1	9.116471E-1	9.260437E-1	9.501652E-1	9.100291E-1	9.655965E-1	9.641167E-1	9.311300E-1	9.334337E-1	9.555088E-1	9.217949E-1	9.757763E-1	9.298566E-1	9.721427E-1	9.366873E-1	9.580994E-1	9.525089E-1	9.394495E-1	9.376030E-1	9.243458E-1	9.156765E-1	9.393549E-1	9.273281E-1	9.461371E-1	9.535088E-1	9.278470E-1	8.977540E-1	9.319167E-1	9.457810E-1	9.436868E-1	9.670619E-1	9.173148E-1	9.080642E-1	9.272433E-1	9.275762E-1	9.746894E-1	9.247412E-1	9.550912E-1	9.335074E-1	9.651719E-1	9.327877E-1	8.904360E-1	1.012788E+0	8.859581E-1	8.957526E-1	9.514774E-1	9.450871E-1	9.152420E-1	9.153919E-1	9.418138E-1	9.715014E-1	9.172164E-1	9.023144E-1	9.412765E-1	9.675779E-1	9.308091E-1	9.110667E-1	9.291718E-1	8.869658E-1	9.485813E-1	9.335307E-1	9.070970E-1	9.498534E-1	9.308913E-1	9.330946E-1	9.488876E-1	9.687259E-1	9.325251E-1	9.910704E-1	9.385277E-1	9.102875E-1	9.157443E-1	9.605007E-1	9.289724E-1	9.437689E-1	9.442080E-1	9.377459E-1	9.317999E-1	9.428447E-1	9.504435E-1	9.091801E-1	9.643794E-1	9.011191E-1	9.626348E-1	9.121385E-1	9.536567E-1	9.069723E-1	9.377736E-1	9.311468E-1	9.673069E-1	9.784258E-1	1.029477E+0
2.851060E+2	8.526181E-1	8.488453E-1	8.598498E-1	8.449215E-1	8.407797E-1	8.440625E-1	8.529968E-1	8.715861E-1	8.777285E-1	8.367459E-1	8.722615E-1	8.489137E-1	8.658726E-1	8.921784E-1	8.883810E-1	8.480675E-1	8.421949E-1	8.616052E-1	8.727189E-1	8.620388E-1	8.601103E-1	8.364106E-1	8.629910E-1	8.475997E-1	8.786349E-1	8.497262E-1	8.561901E-1	8.327950E-1	8.425470E-1	8.564273E-1	8.659238E-1	8.813281E-1	8.587794E-1	8.614085E-1	8.508528E-1	8.503957E-1	8.294259E-1	8.909276E-1	8.428688E-1	8.626651E-1	8.483039E-1	8.182417E-1	8.528788E-1	8.377430E-1	8.557538E-1	8.291160E-1	8.480382E-1	8.662046E-1	8.898974E-1	8.516156E-1	8.211762E-1	8.516586E-1	8.476244E-1	8.622198E-1	8.747854E-1	8.927147E-1	8.332352E-1	8.310829E-1	8.601075E-1	8.604989E-1	8.889548E-1	8.402549E-1	8.520523E-1	8.902275E-1	8.383985E-1	8.392117E-1	8.662950E-1	8.594209E-1	9.177609E-1	8.426557E-1	8.311896E-1	8.878905E-1	8.205484E-1	9.016116E-1	8.860432E-1	8.566932E-1	8.225895E-1	8.588436E-1	8.317013E-1	8.394064E-1	8.864066E-1	8.577914E-1	8.522657E-1	8.549990E-1	8.493010E-1	8.338889E-1	8.427776E-1	8.711274E-1	8.411101E-1	8.302377E-1	8.188456E-1	8.880275E-1	8.732925E-1	8.560330E-1	8.134999E-1	8.433488E-1	8.738962E-1	8.600816E-1	8.943597E-1	8.373039E-1	8.001388E-1	8.653751E-1	8.519778E-1	8.622951E-1	8.442317E-1	8.418564E-1	8.361824E-1	8.580798E-1	8.634222E-1	8.339530E-1	8.791986E-1	8.280014E-1	8.636942E-1	8.537755E-1	8.418927E-1	9.052847E-1	9.004944E-1	8.673707E-1	8.428200E-1	8.301622E-1	8.315447E-1	8.446485E-1	8.226166E-1	8.611764E-1	8.818692E-1	8.699954E-1	8.749719E-1	8.902150E-1	8.658222E-1	8.945222E-1	8.167849E-1	8.279919E-1	8.905987E-1	8.785779E-1	8.597280E-1	8.713866E-1	8.623341E-1	8.715678E-1	8.969940E-1	8.265646E-1	8.807520E-1	9.043297E-1	8.605444E-1	8.330777E-1	8.680985E-1	8.893493E-1	8.670171E-1	8.627845E-1	8.237596E-1	8.482802E-1	8.396442E-1	8.808987E-1	8.683776E-1	8.316003E-1	8.722124E-1	9.062301E-1	8.551379E-1	8.503681E-1	8.918150E-1	8.180298E-1	8.991802E-1	8.719565E-1	8.937279E-1	8.330108E-1	8.488093E-1	8.449774E-1	8.493581E-1	8.989142E-1	8.510063E-1	8.045455E-1	9.917341E-1
2.851990E+2	7.250063E-1	6.701394E-1	7.439765E-1	6.596217E-1	6.974862E-1	6.995937E-1	7.102166E-1	7.139982E-1	7.290437E-1	7.281524E-1	6.955790E-1	7.326519E-1	7.168356E-1	7.231920E-1	6.877475E-1	6.940925E-1	7.113778E-1	7.284220E-1	7.166721E-1	6.962057E-1	7.270404E-1	7.214730E-1	7.149638E-1	7.239266E-1	6.815983E-1	6.820278E-1	7.335752E-1	7.123072E-1	6.994382E-1	7.292899E-1	7.048289E-1	6.830487E-1	6.658963E-1	6.937660E-1	6.896041E-1	7.106499E-1	7.246378E-1	7.202921E-1	7.226116E-1	6.959191E-1	7.001374E-1	7.204772E-1	7.189670E-1	6.833014E-1	6.861825E-1	7.019254E-1	7.140608E-1	6.758594E-1	7.454312E-1	7.746865E-1	7.197376E-1	6.859651E-1	7.117897E-1	6.909333E-1	7.117669E-1	6.914188E-1	6.913356E-1	7.177812E-1	7.126063E-1	7.072941E-1	7.427764E-1	7.092145E-1	6.860715E-1	7.185332E-1	6.979421E-1	7.111534E-1	7.268771E-1	6.496181E-1	7.420839E-1	7.095042E-1	7.075215E-1	7.622120E-1	6.808671E-1	7.011892E-1	7.037949E-1	6.948912E-1	7.111245E-1	6.918093E-1	7.085711E-1	7.435257E-1	7.118193E-1	7.222912E-1	7.602016E-1	6.691296E-1	6.885473E-1	6.996415E-1	7.275657E-1	7.497215E-1	7.448941E-1	7.045297E-1	7.044289E-1	6.847351E-1	7.268340E-1	7.207046E-1	7.434810E-1	7.328988E-1	7.051500E-1	7.239735E-1	7.151267E-1	7.066644E-1	7.031534E-1	7.141867E-1	7.504053E-1	7.187622E-1	6.885949E-1	7.179723E-1	7.219505E-1	7.231362E-1	7.415373E-1	7.036327E-1	7.365738E-1	6.723869E-1	7.406979E-1	6.650226E-1	7.118450E-1	6.747110E-1	6.904346E-1	7.476829E-1	6.792119E-1	7.300572E-1	6.634341E-1	7.549581E-1	7.033883E-1	7.162857E-1	7.012423E-1	7.375188E-1	7.148101E-1	7.161799E-1	7.052969E-1	7.125272E-1	7.159538E-1	6.952559E-1	7.384521E-1	7.489384E-1	6.823976E-1	7.322081E-1	7.009234E-1	6.694392E-1	7.139541E-1	7.192153E-1	6.997490E-1	7.117585E-1	6.779632E-1	7.171739E-1	6.879473E-1	7.201030E-1	7.537250E-1	7.199472E-1	6.697993E-1	6.930190E-1	7.008063E-1	6.928291E-1	7.299126E-1	6.896619E-1	6.747354E-1	7.041903E-1	7.409439E-1	7.230267E-1	7.371009E-1	6.902243E-1	7.153979E-1	7.040508E-1	7.177781E-1	7.127053E-1	7.284254E-1	6.890090E-1	6.941491E-1	7.066167E-1	6.911096E-1	7.046590E-1	8.117528E-1
2.853000E+2	6.082301E-1	5.848526E-1	6.060844E-1	6.063841E-1	5.496889E-1	5.868267E-1	5.545132E-1	5.866593E-1	5.479319E-1	5.916031E-1	5.986728E-1	6.078529E-1	5.877285E-1	6.033801E-1	6.117793E-1	5.885695E-1	5.741652E-1	5.967726E-1	5.928802E-1	5.941785E-1	5.802957E-1	6.013901E-1	6.212779E-1	5.761640E-1	5.863063E-1	5.973336E-1	5.991856E-1	5.764121E-1	6.053408E-1	6.031390E-1	5.608892E-1	5.945108E-1	6.162199E-1	5.640138E-1	6.007161E-1	5.963217E-1	6.026701E-1	5.964156E-1	5.826588E-1	5.797995E-1	6.004154E-1	6.040838E-1	6.088866E-1	6.015371E-1	5.920560E-1	6.008081E-1	6.193476E-1	6.323319E-1	6.266450E-1	5.937085E-1	5.896492E-1	6.025452E-1	5.851210E-1	6.105293E-1	6.444278E-1	6.123316E-1	5.864797E-1	5.885512E-1	6.130057E-1	5.912651E-1	6.122619E-1	6.044116E-1	5.526927E-1	6.121863E-1	5.931895E-1	6.052233E-1	5.766311E-1	6.065539E-1	6.180679E-1	5.980235E-1	5.767130E-1	5.687822E-1	5.912370E-1	6.009455E-1	5.954335E-1	6.167277E-1	5.993009E-1	5.434182E-1	5.904645E-1	5.774901E-1	6.220851E-1	6.531332E-1	6.224754E-1	6.104928E-1	5.776728E-1	6.419166E-1	5.962414E-1	5.989111E-1	5.651921E-1	5.986523E-1	6.026671E-1	6.159069E-1	5.788113E-1	5.609272E-1	5.908613E-1	5.975744E-1	6.329014E-1	5.878639E-1	6.031400E-1	5.987827E-1	5.954431E-1	5.943892E-1	5.761044E-1	6.155190E-1	5.873862E-1	5.994979E-1	5.917367E-1	6.076123E-1	5.917869E-1	6.082125E-1	6.171066E-1	6.068666E-1	5.968019E-1	6.102398E-1	5.999741E-1	5.826064E-1	5.921626E-1	6.302027E-1	6.212288E-1	5.857293E-1	5.914983E-1	6.027930E-1	5.809704E-1	5.644386E-1	5.937605E-1	5.834665E-1	5.927525E-1	5.965710E-1	6.018461E-1	6.250462E-1	6.237978E-1	6.136894E-1	6.198219E-1	5.927003E-1	6.260887E-1	6.114040E-1	5.772143E-1	5.662552E-1	6.114821E-1	5.886538E-1	6.129674E-1	6.397177E-1	5.937077E-1	6.201751E-1	6.177720E-1	6.014034E-1	6.232838E-1	6.223411E-1	5.897608E-1	5.842998E-1	5.800045E-1	5.997737E-1	5.906890E-1	5.798306E-1	5.978660E-1	5.787333E-1	5.939683E-1	6.011727E-1	6.008426E-1	5.796457E-1	6.056074E-1	5.965621E-1	5.997896E-1	6.316264E-1	5.574325E-1	5.873092E-1	5.819324E-1	5.995479E-1	6.006351E-1	6.056893E-1	6.046242E-1
2.854020E+2	4.766013E-1	4.520887E-1	4.696543E-1	4.532938E-1	4.862650E-1	4.695337E-1	4.447318E-1	4.642251E-1	4.797958E-1	4.891247E-1	4.919241E-1	4.467268E-1	4.823911E-1	5.023537E-1	4.808543E-1	4.589898E-1	4.599526E-1	4.601502E-1	4.505052E-1	4.273734E-1	4.684842E-1	4.825323E-1	4.595545E-1	5.117004E-1	4.679774E-1	4.885352E-1	4.759536E-1	4.461427E-1	4.744352E-1	4.522964E-1	4.688516E-1	4.752269E-1	4.943207E-1	4.770528E-1	4.491925E-1	4.585503E-1	4.689930E-1	5.141071E-1	4.726373E-1	4.704619E-1	4.622327E-1	5.088906E-1	5.067634E-1	4.663040E-1	5.078807E-1	4.547000E-1	4.966481E-1	4.883310E-1	4.803501E-1	4.827370E-1	4.856669E-1	4.794165E-1	4.666642E-1	4.594148E-1	4.662890E-1	5.098864E-1	4.649239E-1	4.706012E-1	4.576125E-1	4.697039E-1	4.441201E-1	4.529234E-1	4.657867E-1	4.911921E-1	4.804823E-1	4.556309E-1	4.623408E-1	4.735029E-1	4.833165E-1	4.649160E-1	4.688724E-1	4.868367E-1	4.562557E-1	4.576257E-1	4.609636E-1	4.969576E-1	4.456855E-1	4.648861E-1	4.707026E-1	4.562237E-1	5.156975E-1	5.036587E-1	5.046246E-1	4.678365E-1	4.745723E-1	4.795114E-1	4.835345E-1	5.248693E-1	4.699733E-1	4.709000E-1	4.650636E-1	5.002259E-1	4.838822E-1	4.941974E-1	4.503942E-1	4.753865E-1	4.726125E-1	4.892214E-1	4.755838E-1	4.190183E-1	4.848720E-1	4.768854E-1	4.620865E-1	4.654037E-1	4.576889E-1	4.930737E-1	4.554898E-1	4.828519E-1	4.786937E-1	4.624855E-1	4.789397E-1	4.946591E-1	4.696209E-1	4.787814E-1	4.714161E-1	4.308757E-1	4.918665E-1	4.795126E-1	5.067040E-1	5.168848E-1	4.610999E-1	4.526567E-1	4.777141E-1	4.654784E-1	4.633019E-1	4.914971E-1	4.818761E-1	4.663275E-1	4.868272E-1	4.773490E-1	4.522448E-1	4.858698E-1	4.888334E-1	5.248684E-1	4.912243E-1	4.966121E-1	4.693149E-1	4.865577E-1	4.866898E-1	4.874279E-1	4.759667E-1	4.579245E-1	4.841804E-1	4.768564E-1	5.077230E-1	4.662655E-1	4.598989E-1	4.793145E-1	4.851760E-1	4.883965E-1	4.622707E-1	4.887953E-1	5.037255E-1	4.538321E-1	4.557180E-1	4.539964E-1	4.855917E-1	5.025856E-1	4.868950E-1	4.505465E-1	4.699507E-1	4.496742E-1	4.497029E-1	4.686019E-1	4.994959E-1	4.686039E-1	4.772527E-1	4.973089E-1	4.916896E-1	4.440717E-1	4.401551E-1
2.855000E+2	3.298855E-1	3.626924E-1	3.606707E-1	3.300696E-1	3.394284E-1	3.515113E-1	3.539842E-1	3.751630E-1	3.843787E-1	3.435674E-1	3.697664E-1	3.723114E-1	3.465382E-1	3.631336E-1	3.554971E-1	3.503492E-1	3.490186E-1	3.453014E-1	3.330638E-1	3.504022E-1	3.566491E-1	3.409936E-1	3.427627E-1	3.646231E-1	3.763994E-1	3.492715E-1	3.657618E-1	3.414445E-1	3.507604E-1	3.533285E-1	3.695812E-1	3.593842E-1	3.534383E-1	3.554496E-1	3.649019E-1	3.751230E-1	3.532133E-1	3.584070E-1	3.423441E-1	3.555697E-1	3.777004E-1	3.505700E-1	3.735093E-1	3.858652E-1	3.712907E-1	3.577915E-1	3.460329E-1	3.607794E-1	3.883955E-1	3.760775E-1	3.368161E-1	3.575129E-1	3.278331E-1	3.741674E-1	3.622444E-1	3.576909E-1	3.357419E-1	3.317271E-1	3.563428E-1	3.562619E-1	3.673208E-1	3.727171E-1	3.450380E-1	3.460068E-1	3.604228E-1	3.758367E-1	3.370663E-1	3.630778E-1	3.669820E-1	3.608367E-1	3.512007E-1	3.808298E-1	3.655828E-1	3.729370E-1	3.418682E-1	3.633778E-1	3.575133E-1	3.559990E-1	3.482580E-1	3.581361E-1	3.698833E-1	3.623634E-1	3.669953E-1	3.657949E-1	3.553134E-1	3.547642E-1	3.490159E-1	3.489211E-1	3.629434E-1	3.618069E-1	3.612362E-1	3.668499E-1	3.714109E-1	3.663024E-1	3.714491E-1	3.677418E-1	3.576395E-1	3.727074E-1	3.419977E-1	3.280322E-1	3.538491E-1	3.451137E-1	3.583950E-1	3.589110E-1	3.549430E-1	3.534932E-1	3.489927E-1	3.704888E-1	3.428732E-1	3.691811E-1	3.860781E-1	3.595176E-1	4.032281E-1	3.932975E-1	4.011200E-1	3.283449E-1	3.777066E-1	3.436576E-1	3.800500E-1	3.675744E-1	3.479807E-1	3.681470E-1	3.770235E-1	3.869723E-1	3.638051E-1	3.663619E-1	3.611089E-1	3.729398E-1	3.792133E-1	3.760055E-1	3.405007E-1	3.830379E-1	3.694575E-1	3.765660E-1	3.652873E-1	3.331719E-1	3.607198E-1	3.522875E-1	3.539685E-1	3.356919E-1	3.693480E-1	3.876656E-1	3.631354E-1	3.491751E-1	3.774840E-1	3.315071E-1	3.483405E-1	3.546145E-1	3.205672E-1	3.402356E-1	3.485181E-1	3.717158E-1	3.492651E-1	3.605305E-1	3.290000E-1	3.562110E-1	3.518009E-1	3.610886E-1	3.496012E-1	3.706759E-1	3.605834E-1	3.769132E-1	3.528022E-1	3.339256E-1	3.589974E-1	3.372624E-1	3.566243E-1	3.655056E-1	3.718489E-1	3.668787E-1	3.653498E-1
2.856010E+2	2.409950E-1	2.350336E-1	2.521629E-1	2.325826E-1	2.462784E-1	2.603372E-1	2.573249E-1	2.372592E-1	2.466567E-1	2.680103E-1	2.686510E-1	2.592744E-1	2.683277E-1	2.404624E-1	2.504458E-1	2.577774E-1	2.534935E-1	2.459117E-1	2.458538E-1	2.403354E-1	2.524561E-1	2.586518E-1	2.655396E-1	2.579032E-1	2.639458E-1	2.731008E-1	2.573188E-1	2.699926E-1	2.417572E-1	2.542156E-1	2.739322E-1	2.633795E-1	2.491061E-1	2.866991E-1	2.265825E-1	2.588087E-1	2.439449E-1	2.388042E-1	2.420649E-1	2.533441E-1	2.616829E-1	2.766070E-1	2.549030E-1	2.533235E-1	2.430240E-1	2.718721E-1	2.296250E-1	2.743166E-1	2.759436E-1	2.489267E-1	2.554636E-1	2.555599E-1	2.559231E-1	2.759009E-1	2.691042E-1	2.500507E-1	2.519502E-1	2.509346E-1	2.669511E-1	2.706714E-1	2.668638E-1	2.722184E-1	2.473761E-1	2.812095E-1	2.635707E-1	2.496816E-1	2.481716E-1	2.613158E-1	2.601126E-1	2.302447E-1	2.562569E-1	2.610938E-1	2.590936E-1	2.462358E-1	2.561350E-1	2.561198E-1	2.391771E-1	2.454686E-1	2.459219E-1	2.447650E-1	2.666859E-1	2.834626E-1	2.677758E-1	2.419606E-1	2.584642E-1	2.489123E-1	2.550010E-1	2.453253E-1	2.541422E-1	2.655354E-1	2.556807E-1	2.775504E-1	2.792451E-1	2.638920E-1	2.414489E-1	2.710229E-1	2.596887E-1	2.725479E-1	2.578101E-1	2.294526E-1	2.596135E-1	2.458732E-1	2.597771E-1	2.517905E-1	2.769961E-1	2.632112E-1	2.613548E-1	2.997434E-1	2.649786E-1	2.599087E-1	2.418901E-1	2.644717E-1	2.510494E-1	2.569628E-1	2.568940E-1	2.709034E-1	2.540053E-1	2.358522E-1	2.446072E-1	2.587910E-1	2.455945E-1	2.792907E-1	2.857189E-1	2.469567E-1	2.682274E-1	2.929776E-1	2.792418E-1	2.520878E-1	2.565098E-1	2.738228E-1	2.479148E-1	2.668266E-1	2.500234E-1	2.455605E-1	2.695358E-1	2.744409E-1	2.404884E-1	2.489553E-1	2.793433E-1	2.548878E-1	2.469526E-1	2.691258E-1	2.653638E-1	2.746789E-1	2.473855E-1	2.636302E-1	2.619880E-1	2.581556E-1	2.461953E-1	2.502273E-1	2.465321E-1	2.595792E-1	2.651169E-1	2.361271E-1	2.692333E-1	2.573406E-1	2.610941E-1	2.565045E-1	2.660761E-1	2.612985E-1	2.687542E-1	2.483286E-1	2.678915E-1	2.692983E-1	2.794445E-1	2.610391E-1	2.616477E-1	2.613785E-1	2.837089E-1	2.256662E-1	2.638510E-1
2.858030E+2	2.405010E-1	2.270873E-1	2.522903E-1	2.439340E-1	2.513467E-1	2.248859E-1	2.386966E-1	2.475059E-1	2.380346E-1	2.341355E-1	2.596245E-1	2.446271E-1	2.489094E-1	2.459061E-1	2.250960E-1	2.576519E-1	2.268718E-1	2.339489E-1	2.345185E-1	2.422245E-1	2.453312E-1	2.531016E-1	2.626370E-1	2.561709E-1	2.374908E-1	2.628033E-1	2.346427E-1	2.434396E-1	2.621601E-1	2.603393E-1	2.248531E-1	2.527190E-1	2.552983E-1	2.611168E-1	2.447141E-1	2.762351E-1	2.434341E-1	2.690679E-1	2.633494E-1	2.429059E-1	2.440022E-1	2.495322E-1	2.504067E-1	2.271527E-1	2.493858E-1	2.578804E-1	2.455813E-1	2.634960E-1	2.483124E-1	2.465412E-1	2.282626E-1	2.549373E-1	2.529148E-1	2.634173E-1	2.347102E-1	2.591848E-1	2.361951E-1	2.150937E-1	2.331519E-1	2.515978E-1	2.720402E-1	2.346653E-1	2.447665E-1	2.314282E-1	2.531521E-1	2.568845E-1	2.457193E-1	2.439309E-1	2.761703E-1	2.413031E-1	2.568865E-1	2.548760E-1	2.529402E-1	2.373272E-1	2.370876E-1	2.347331E-1	2.587008E-1	2.372940E-1	2.435502E-1	2.306574E-1	2.628021E-1	2.615361E-1	2.383450E-1	2.499770E-1	2.646570E-1	2.293165E-1	2.562056E-1	2.306120E-1	2.434264E-1	2.409553E-1	2.504720E-1	2.589591E-1	2.639140E-1	2.444714E-1	2.559575E-1	2.291373E-1	2.491383E-1	2.351106E-1	2.426371E-1	2.554595E-1	2.326657E-1	2.552395E-1	2.297377E-1	2.674535E-1	2.592713E-1	2.499433E-1	2.476073E-1	2.478662E-1	2.459896E-1	2.528150E-1	2.748012E-1	2.557153E-1	2.540693E-1	2.496167E-1	2.288138E-1	2.366290E-1	2.566915E-1	2.503395E-1	2.363205E-1	2.329779E-1	2.444926E-1	2.651083E-1	2.337951E-1	2.456899E-1	2.520031E-1	2.897127E-1	2.557231E-1	2.662309E-1	2.436392E-1	2.446564E-1	2.376380E-1	2.316624E-1	2.546182E-1	2.430252E-1	2.405218E-1	2.576351E-1	2.517024E-1	2.333920E-1	2.444028E-1	2.472498E-1	2.542467E-1	2.474494E-1	2.354935E-1	2.405857E-1	2.515918E-1	2.568099E-1	2.497624E-1	2.487497E-1	2.616068E-1	2.380476E-1	2.508558E-1	2.626985E-1	2.511853E-1	2.682832E-1	2.436612E-1	2.621797E-1	2.373939E-1	2.187217E-1	2.568140E-1	2.457107E-1	2.281678E-1	2.527065E-1	2.391358E-1	2.436897E-1	2.640858E-1	2.445352E-1	2.298079E-1	2.455250E-1	2.521839E-1	2.556556E-1	2.384333E-1
2.860070E+2	5.073873E-1	5.354837E-1	5.271889E-1	5.285313E-1	5.471067E-1	5.067637E-1	5.123145E-1	5.504236E-1	5.402269E-1	5.312592E-1	5.220083E-1	5.150141E-1	5.225487E-1	5.821422E-1	4.897599E-1	5.043065E-1	5.182307E-1	4.990832E-1	5.308991E-1	5.145052E-1	5.506516E-1	5.131602E-1	5.390604E-1	5.632058E-1	5.621811E-1	5.081217E-1	5.505651E-1	5.412922E-1	5.613159E-1	5.308523E-1	5.637003E-1	5.206333E-1	5.148600E-1	5.022139E-1	5.239203E-1	5.694774E-1	5.589681E-1	5.362731E-1	5.716682E-1	5.273279E-1	5.557865E-1	5.413241E-1	5.902903E-1	5.188757E-1	5.657004E-1	5.620909E-1	5.172898E-1	5.561844E-1	5.812406E-1	5.470593E-1	5.421430E-1	5.738862E-1	5.155699E-1	5.546833E-1	5.269835E-1	5.379716E-1	5.727364E-1	5.302071E-1	5.601841E-1	5.422101E-1	5.364198E-1	5.041313E-1	5.320687E-1	5.388706E-1	5.616629E-1	4.980322E-1	5.633137E-1	5.558556E-1	5.523660E-1	5.365490E-1	5.362192E-1	5.671048E-1	5.282985E-1	5.879702E-1	5.371789E-1	5.426856E-1	5.253144E-1	5.401290E-1	5.156690E-1	5.297536E-1	5.644944E-1	5.878592E-1	5.483330E-1	5.155043E-1	5.556176E-1	5.245818E-1	5.558034E-1	5.490171E-1	5.375535E-1	5.476876E-1	5.086032E-1	4.920615E-1	5.415426E-1	5.692415E-1	5.059788E-1	5.177227E-1	5.641113E-1	5.302972E-1	5.453166E-1	5.365626E-1	5.238445E-1	5.687371E-1	5.389964E-1	5.394406E-1	5.338486E-1	5.499868E-1	5.585777E-1	5.274446E-1	5.746202E-1	5.493218E-1	5.354409E-1	5.027115E-1	5.442986E-1	5.247660E-1	5.715686E-1	5.284630E-1	5.132993E-1	5.737941E-1	5.481903E-1	5.732060E-1	5.472852E-1	5.510063E-1	5.366995E-1	4.967435E-1	5.053793E-1	5.488832E-1	5.341354E-1	5.351630E-1	5.215028E-1	5.464443E-1	5.745460E-1	5.536729E-1	5.419332E-1	5.735051E-1	5.489590E-1	5.416516E-1	5.758848E-1	5.076240E-1	5.159378E-1	4.942086E-1	5.333060E-1	5.430365E-1	5.626868E-1	5.477501E-1	5.672878E-1	5.254628E-1	5.232962E-1	5.282505E-1	5.071182E-1	5.041814E-1	5.349553E-1	5.485350E-1	5.575377E-1	4.923736E-1	5.296312E-1	5.232283E-1	5.415602E-1	5.499151E-1	5.172594E-1	5.073246E-1	5.616314E-1	5.094562E-1	5.518966E-1	5.036139E-1	5.127690E-1	5.121027E-1	5.483459E-1	5.661595E-1	5.447673E-1	5.312093E-1	6.288691E-1
2.862030E+2	8.179346E-1	8.160751E-1	8.914587E-1	8.100449E-1	8.308839E-1	8.276541E-1	8.227535E-1	8.206015E-1	8.526714E-1	8.781157E-1	8.519215E-1	8.327904E-1	8.539500E-1	8.615906E-1	8.517503E-1	8.074954E-1	8.418989E-1	8.321946E-1	7.956067E-1	7.814110E-1	8.466822E-1	7.904926E-1	8.110779E-1	8.269046E-1	8.558110E-1	8.082679E-1	8.721954E-1	8.416731E-1	8.090925E-1	8.542136E-1	8.311162E-1	8.279434E-1	8.059307E-1	7.865473E-1	8.255523E-1	8.190013E-1	8.563684E-1	8.575696E-1	8.304156E-1	8.137638E-1	8.065877E-1	8.519858E-1	7.735084E-1	8.041400E-1	7.993919E-1	8.139356E-1	8.081186E-1	8.299509E-1	9.157326E-1	8.328092E-1	8.183662E-1	8.253842E-1	8.101008E-1	8.287171E-1	8.511612E-1	8.611009E-1	8.600568E-1	8.463958E-1	8.222035E-1	7.647501E-1	8.180051E-1	8.187570E-1	8.258052E-1	8.559203E-1	8.226461E-1	8.260966E-1	8.334206E-1	8.262692E-1	8.264003E-1	8.005698E-1	8.202060E-1	8.640144E-1	8.536608E-1	8.341842E-1	8.076486E-1	7.795162E-1	8.492837E-1	7.741301E-1	8.671730E-1	8.411337E-1	9.056281E-1	8.428773E-1	8.307454E-1	8.521913E-1	8.568605E-1	8.342771E-1	8.466174E-1	8.754351E-1	8.669101E-1	8.580095E-1	8.595182E-1	8.227718E-1	8.566525E-1	8.381735E-1	8.295600E-1	8.470325E-1	8.039094E-1	8.141320E-1	8.572248E-1	8.512257E-1	7.825179E-1	8.535040E-1	8.660803E-1	8.487706E-1	8.558071E-1	8.211262E-1	8.704964E-1	8.120680E-1	8.809717E-1	8.269881E-1	8.610235E-1	8.079860E-1	8.514050E-1	8.271401E-1	8.454758E-1	8.483613E-1	8.667660E-1	8.551736E-1	8.196576E-1	8.167512E-1	8.641702E-1	8.359386E-1	8.415057E-1	8.376378E-1	8.759736E-1	8.433191E-1	8.319995E-1	8.561987E-1	8.943904E-1	8.585494E-1	8.089676E-1	8.114252E-1	8.645138E-1	8.174351E-1	8.599988E-1	8.203906E-1	8.523486E-1	8.130400E-1	8.535416E-1	8.008536E-1	8.651032E-1	8.821070E-1	8.269117E-1	7.779166E-1	8.392171E-1	8.536088E-1	8.461281E-1	8.516027E-1	8.576861E-1	8.306780E-1	8.467717E-1	8.256894E-1	7.998639E-1	7.948221E-1	8.163451E-1	8.494290E-1	8.294569E-1	8.313568E-1	9.033914E-1	8.315689E-1	8.206028E-1	8.021671E-1	8.511910E-1	8.284212E-1	8.912601E-1	7.960890E-1	8.496435E-1	8.434280E-1	8.371103E-1	8.054137E-1	9.062084E-1
2.864220E+2	9.037627E-1	8.673815E-1	8.876577E-1	8.647166E-1	9.092922E-1	8.521562E-1	9.029377E-1	8.661552E-1	8.701141E-1	8.850281E-1	8.529909E-1	8.932865E-1	8.636138E-1	8.890444E-1	8.990972E-1	8.268490E-1	8.402971E-1	8.450033E-1	8.580527E-1	8.474154E-1	8.781000E-1	8.577286E-1	8.782559E-1	8.458714E-1	8.607687E-1	8.602903E-1	8.796425E-1	8.636989E-1	8.724553E-1	8.728476E-1	8.454903E-1	8.819038E-1	8.819467E-1	8.580040E-1	8.683200E-1	8.607242E-1	8.871127E-1	8.891665E-1	9.139816E-1	8.882225E-1	8.788954E-1	8.526313E-1	8.768080E-1	8.504464E-1	8.424184E-1	8.993722E-1	8.625668E-1	8.966895E-1	9.442731E-1	8.690948E-1	8.771169E-1	8.719111E-1	8.719586E-1	8.927619E-1	8.950604E-1	8.811581E-1	8.793101E-1	8.342084E-1	9.059209E-1	8.738903E-1	8.847303E-1	8.511076E-1	8.911393E-1	9.088750E-1	8.658884E-1	8.821071E-1	9.097152E-1	8.736236E-1	9.158849E-1	8.584997E-1	8.645746E-1	8.911976E-1	8.810016E-1	9.088551E-1	8.804082E-1	8.859767E-1	8.618070E-1	8.693516E-1	8.944560E-1	8.546481E-1	8.706551E-1	9.390308E-1	8.907708E-1	8.090698E-1	9.042572E-1	9.244896E-1	8.804519E-1	8.984521E-1	8.829500E-1	8.769930E-1	8.582513E-1	8.886041E-1	9.041502E-1	8.923006E-1	8.650658E-1	8.595474E-1	8.681168E-1	8.930758E-1	9.178816E-1	8.713783E-1	8.825278E-1	8.958895E-1	8.843823E-1	8.703529E-1	9.486802E-1	9.011696E-1	8.885829E-1	8.588030E-1	9.253118E-1	8.851602E-1	8.985754E-1	8.354068E-1	8.929835E-1	8.615013E-1	8.674309E-1	8.131667E-1	8.891354E-1	8.850729E-1	8.683358E-1	8.780441E-1	8.113680E-1	8.848876E-1	8.398906E-1	8.849805E-1	8.913475E-1	9.208889E-1	8.593489E-1	8.540999E-1	8.837499E-1	8.975299E-1	8.807826E-1	8.589182E-1	8.711551E-1	9.026894E-1	8.817375E-1	8.786056E-1	8.924997E-1	8.712854E-1	8.571519E-1	8.324072E-1	8.912539E-1	8.656718E-1	9.001587E-1	8.576361E-1	8.673386E-1	9.050475E-1	8.717269E-1	9.110020E-1	8.556709E-1	9.061424E-1	8.364842E-1	9.068941E-1	9.054309E-1	8.880175E-1	8.378694E-1	8.729100E-1	9.025696E-1	8.874942E-1	8.875814E-1	8.929320E-1	8.636178E-1	8.953699E-1	8.845835E-1	8.353210E-1	8.940599E-1	8.551501E-1	8.819440E-1	9.218969E-1	9.039318E-1	9.087822E-1	9.253204E-1
2.866160E+2	7.852952E-1	7.893711E-1	8.120060E-1	7.918536E-1	7.594348E-1	7.965130E-1	8.132130E-1	8.333461E-1	7.612917E-1	8.256228E-1	7.880336E-1	8.106988E-1	7.997066E-1	7.844405E-1	7.705626E-1	8.202345E-1	7.652426E-1	7.886177E-1	8.349923E-1	7.576077E-1	8.077861E-1	8.168804E-1	8.389498E-1	8.186074E-1	7.876836E-1	7.863627E-1	7.879600E-1	7.825799E-1	8.405559E-1	8.008293E-1	8.108780E-1	8.083712E-1	8.267464E-1	8.095146E-1	8.009158E-1	8.164494E-1	7.859840E-1	8.215693E-1	8.013650E-1	7.953734E-1	7.792677E-1	7.816719E-1	8.062816E-1	7.934526E-1	7.879045E-1	7.928688E-1	8.091741E-1	7.885346E-1	8.954460E-1	8.070771E-1	7.773757E-1	7.668998E-1	7.746272E-1	8.023270E-1	8.322641E-1	8.223814E-1	7.898691E-1	8.087801E-1	8.181574E-1	8.002767E-1	8.098905E-1	8.300818E-1	7.854177E-1	7.746738E-1	8.768302E-1	7.960867E-1	7.911244E-1	8.278825E-1	8.324144E-1	7.967631E-1	8.209298E-1	8.103172E-1	8.700344E-1	8.185158E-1	7.795097E-1	7.852406E-1	7.882037E-1	8.250550E-1	7.994111E-1	7.771678E-1	7.750980E-1	8.292602E-1	8.179235E-1	7.814780E-1	7.945215E-1	8.601522E-1	7.975335E-1	8.147795E-1	8.049847E-1	7.983625E-1	8.084988E-1	8.584946E-1	8.192484E-1	8.000172E-1	7.835558E-1	7.930756E-1	8.014991E-1	7.887898E-1	7.874694E-1	7.885154E-1	7.669029E-1	7.864837E-1	7.888790E-1	8.112652E-1	7.840251E-1	8.021567E-1	7.792231E-1	8.254933E-1	8.102014E-1	8.133709E-1	8.180154E-1	8.012423E-1	8.077832E-1	7.816373E-1	8.164747E-1	8.141990E-1	8.259157E-1	7.762103E-1	8.085294E-1	8.205603E-1	8.391283E-1	7.881014E-1	8.292753E-1	7.799179E-1	8.267897E-1	8.333078E-1	8.685315E-1	8.108243E-1	8.540859E-1	8.193948E-1	7.719987E-1	8.157017E-1	7.848525E-1	7.818726E-1	8.149377E-1	8.416012E-1	8.009427E-1	7.615163E-1	8.117332E-1	7.446845E-1	8.052307E-1	7.510877E-1	8.172684E-1	7.745194E-1	8.104459E-1	7.714929E-1	7.769328E-1	7.602431E-1	8.184751E-1	8.193073E-1	7.824551E-1	7.944058E-1	8.592484E-1	7.630873E-1	7.595986E-1	7.629502E-1	8.010392E-1	7.974450E-1	8.457411E-1	7.489993E-1	8.000469E-1	7.884031E-1	7.969050E-1	7.738039E-1	8.196155E-1	7.819690E-1	8.228945E-1	8.187308E-1	8.064174E-1	7.710205E-1	7.191056E-1
2.868020E+2	9.270275E-1	8.667452E-1	9.378415E-1	8.880589E-1	8.949477E-1	9.319475E-1	9.276426E-1	9.060086E-1	9.271536E-1	9.191765E-1	9.037138E-1	9.083738E-1	8.752628E-1	9.342385E-1	9.098812E-1	8.819904E-1	9.027667E-1	8.953254E-1	8.951425E-1	8.636728E-1	9.390878E-1	8.590960E-1	8.996194E-1	8.897697E-1	9.067494E-1	9.186708E-1	9.558297E-1	8.658304E-1	9.160306E-1	8.808304E-1	9.110807E-1	9.096482E-1	9.370291E-1	9.181892E-1	8.896556E-1	8.995586E-1	9.175168E-1	9.393451E-1	9.626375E-1	8.711174E-1	8.752905E-1	9.046544E-1	9.128471E-1	8.798161E-1	9.023484E-1	9.025977E-1	8.823216E-1	9.217266E-1	9.172101E-1	9.236302E-1	9.000911E-1	8.909406E-1	9.485009E-1	9.267360E-1	9.604197E-1	9.322902E-1	9.077308E-1	8.858248E-1	9.039960E-1	8.915121E-1	9.235408E-1	9.231069E-1	9.171336E-1	9.116468E-1	9.045816E-1	8.663125E-1	9.352117E-1	9.253652E-1	9.184242E-1	9.464977E-1	8.796324E-1	9.326571E-1	8.817377E-1	9.394936E-1	8.733723E-1	8.998116E-1	9.244469E-1	9.177161E-1	8.684767E-1	8.850058E-1	9.468240E-1	9.261345E-1	9.067929E-1	8.706186E-1	9.231172E-1	9.076780E-1	9.319711E-1	8.994681E-1	9.416272E-1	9.434893E-1	8.985288E-1	9.347402E-1	9.377088E-1	8.992743E-1	9.018807E-1	9.057871E-1	8.953152E-1	8.678384E-1	9.154592E-1	8.645317E-1	9.244987E-1	9.376122E-1	9.037922E-1	8.919465E-1	9.019264E-1	8.797682E-1	9.355754E-1	9.266349E-1	9.219411E-1	9.014331E-1	9.314730E-1	8.959680E-1	8.763729E-1	8.987359E-1	9.323417E-1	9.378235E-1	9.023298E-1	9.328796E-1	9.126511E-1	9.051339E-1	9.049258E-1	9.127416E-1	9.322339E-1	9.561828E-1	9.438880E-1	9.639909E-1	9.176261E-1	9.149919E-1	9.156441E-1	9.620712E-1	8.788484E-1	8.416528E-1	8.928309E-1	9.262649E-1	9.026363E-1	8.501429E-1	9.132423E-1	8.806436E-1	9.673998E-1	8.656660E-1	9.482668E-1	8.872477E-1	9.057289E-1	8.955503E-1	9.366374E-1	9.028435E-1	9.140652E-1	9.188709E-1	8.985364E-1	8.839391E-1	8.790441E-1	8.764154E-1	9.791865E-1	8.829700E-1	8.929807E-1	9.136946E-1	9.378757E-1	8.816109E-1	9.422102E-1	9.269165E-1	9.023464E-1	9.305712E-1	9.738071E-1	9.091633E-1	9.666764E-1	9.152583E-1	9.302353E-1	9.152212E-1	9.250836E-1	8.557373E-1	9.690398E-1
2.870060E+2	9.219826E-1	8.786907E-1	9.535076E-1	8.833378E-1	9.184114E-1	9.307018E-1	9.015594E-1	9.591736E-1	9.480137E-1	9.138825E-1	8.816486E-1	8.931012E-1	9.180338E-1	1.014409E+0	8.950611E-1	9.325456E-1	9.217313E-1	8.908715E-1	9.420052E-1	9.158508E-1	9.620511E-1	9.081936E-1	8.898251E-1	9.461814E-1	9.120285E-1	9.086169E-1	9.109625E-1	8.839250E-1	9.469627E-1	9.153421E-1	8.900130E-1	8.971089E-1	8.837254E-1	9.381524E-1	8.781653E-1	9.450884E-1	8.814438E-1	9.244343E-1	9.193192E-1	9.012476E-1	8.911011E-1	8.999269E-1	9.054462E-1	8.976430E-1	9.130337E-1	9.497099E-1	8.913429E-1	9.204623E-1	9.544438E-1	9.259671E-1	8.924801E-1	9.210369E-1	8.932639E-1	9.246900E-1	9.514602E-1	9.166178E-1	9.155428E-1	9.069383E-1	9.044839E-1	9.031218E-1	9.214079E-1	9.169480E-1	8.654564E-1	9.343756E-1	9.052148E-1	8.895936E-1	8.992544E-1	8.831832E-1	9.505576E-1	9.047512E-1	8.745614E-1	9.304112E-1	9.558108E-1	9.429917E-1	8.751778E-1	8.651280E-1	9.134447E-1	9.194565E-1	9.145961E-1	8.987711E-1	9.497256E-1	9.479471E-1	9.491472E-1	8.559687E-1	9.604262E-1	9.237862E-1	9.013661E-1	9.551395E-1	9.172556E-1	8.920990E-1	9.653102E-1	8.871454E-1	9.411341E-1	9.283366E-1	8.657345E-1	9.269476E-1	9.247918E-1	9.152181E-1	9.012974E-1	9.142095E-1	8.754426E-1	9.241976E-1	9.610333E-1	8.797393E-1	9.040612E-1	9.191876E-1	9.079283E-1	9.122016E-1	9.785109E-1	9.082511E-1	9.238919E-1	8.862863E-1	9.242003E-1	8.948578E-1	9.278296E-1	9.217268E-1	9.485118E-1	9.185941E-1	9.350079E-1	9.425686E-1	9.092779E-1	9.360669E-1	9.441382E-1	8.770563E-1	9.011510E-1	9.276918E-1	9.490539E-1	9.484716E-1	9.057521E-1	9.715944E-1	9.419805E-1	9.136632E-1	8.965063E-1	9.123700E-1	9.347219E-1	9.036804E-1	9.405812E-1	8.730304E-1	9.539371E-1	9.189510E-1	8.951946E-1	9.506623E-1	9.059583E-1	9.115187E-1	9.154354E-1	9.668608E-1	9.334503E-1	9.215088E-1	8.507547E-1	9.169082E-1	9.210894E-1	8.905936E-1	9.306135E-1	9.380404E-1	8.943224E-1	9.033659E-1	9.054612E-1	9.479611E-1	9.064252E-1	8.939007E-1	9.225690E-1	9.026632E-1	9.271002E-1	9.497668E-1	9.015448E-1	8.876671E-1	9.006132E-1	8.976966E-1	9.359431E-1	9.945085E-1	1.040761E+0
2.872190E+2	7.766355E-1	7.390403E-1	8.143868E-1	7.455245E-1	7.893399E-1	7.682844E-1	7.694779E-1	7.925571E-1	7.691407E-1	7.999910E-1	7.520012E-1	8.024224E-1	7.502035E-1	8.158189E-1	7.528714E-1	7.700597E-1	7.566306E-1	7.856648E-1	8.016867E-1	7.552535E-1	7.876114E-1	7.577289E-1	7.910651E-1	7.789609E-1	7.351122E-1	8.099081E-1	7.847213E-1	7.552509E-1	8.051451E-1	7.551788E-1	7.657605E-1	7.850787E-1	7.544391E-1	7.849362E-1	7.574403E-1	7.945438E-1	7.474594E-1	7.771742E-1	7.916968E-1	7.735460E-1	7.651807E-1	7.620374E-1	8.081439E-1	7.435689E-1	7.925642E-1	7.928105E-1	7.764885E-1	7.796151E-1	8.060801E-1	7.650022E-1	7.826007E-1	7.755101E-1	7.885354E-1	7.821117E-1	8.145102E-1	7.979204E-1	7.418264E-1	7.916384E-1	7.871045E-1	7.750617E-1	8.081289E-1	7.704641E-1	7.797729E-1	7.956311E-1	7.653278E-1	8.044036E-1	7.830395E-1	7.627431E-1	8.381602E-1	7.573508E-1	7.453888E-1	8.295128E-1	7.956233E-1	7.996700E-1	7.474648E-1	7.972337E-1	8.028832E-1	7.640267E-1	7.867345E-1	7.370992E-1	7.785859E-1	7.881385E-1	8.325013E-1	7.446685E-1	8.046302E-1	7.655539E-1	7.809887E-1	7.792975E-1	8.288279E-1	8.002028E-1	7.465251E-1	7.713891E-1	8.035623E-1	7.672243E-1	8.128697E-1	7.849447E-1	7.909654E-1	7.925530E-1	8.236040E-1	7.818383E-1	7.850368E-1	7.890142E-1	8.232530E-1	8.022831E-1	8.063925E-1	8.223754E-1	7.668524E-1	7.958080E-1	7.697327E-1	7.898787E-1	8.065023E-1	7.642507E-1	8.166011E-1	7.849087E-1	7.646850E-1	7.948808E-1	7.660964E-1	7.909744E-1	7.992363E-1	7.936707E-1	7.842405E-1	8.398727E-1	7.815050E-1	7.337565E-1	7.834902E-1	7.702871E-1	8.186318E-1	7.759127E-1	8.218862E-1	8.099191E-1	7.855466E-1	7.643481E-1	7.879979E-1	7.738884E-1	8.193797E-1	7.731918E-1	8.140369E-1	7.529610E-1	8.410695E-1	7.428603E-1	7.582881E-1	7.847557E-1	7.289866E-1	8.211649E-1	8.194624E-1	7.665787E-1	8.068743E-1	7.627655E-1	7.334213E-1	7.744302E-1	7.909641E-1	7.717376E-1	8.354723E-1	7.610945E-1	7.850838E-1	7.680012E-1	7.996801E-1	7.984252E-1	7.844758E-1	7.858898E-1	7.659644E-1	8.128290E-1	7.850224E-1	7.643186E-1	7.888835E-1	7.749186E-1	8.260692E-1	7.711915E-1	8.232391E-1	7.460501E-1	7.852900E-1
2.874030E+2	6.102463E-1	6.088694E-1	6.271845E-1	6.369962E-1	6.578466E-1	6.494444E-1	6.280112E-1	6.380709E-1	6.272839E-1	6.606575E-1	6.532078E-1	6.218066E-1	6.453309E-1	6.475887E-1	6.247732E-1	6.020655E-1	6.152818E-1	6.426115E-1	6.476563E-1	6.085683E-1	6.473680E-1	6.204106E-1	6.209829E-1	6.354823E-1	6.152457E-1	6.525601E-1	6.449512E-1	6.309131E-1	6.221619E-1	6.489205E-1	6.423387E-1	6.434968E-1	6.509108E-1	6.394650E-1	6.184366E-1	6.319165E-1	6.378425E-1	6.735655E-1	6.208410E-1	6.084856E-1	6.099986E-1	6.303303E-1	6.177512E-1	6.400614E-1	6.566110E-1	6.514703E-1	6.271237E-1	6.515647E-1	6.490110E-1	6.472477E-1	6.232821E-1	6.511023E-1	6.339064E-1	6.699276E-1	6.690726E-1	6.574443E-1	6.303712E-1	6.019353E-1	6.559634E-1	6.448351E-1	6.655454E-1	5.998895E-1	5.969911E-1	6.746666E-1	6.583017E-1	6.324961E-1	6.262958E-1	6.390433E-1	6.563976E-1	6.219630E-1	6.189371E-1	6.538202E-1	6.134467E-1	6.428294E-1	6.452248E-1	6.264685E-1	6.861813E-1	6.313421E-1	6.289323E-1	6.235138E-1	6.296795E-1	6.703402E-1	6.416534E-1	6.370428E-1	6.342847E-1	6.490664E-1	6.483094E-1	6.798722E-1	6.421461E-1	6.546346E-1	6.673531E-1	6.537300E-1	6.756770E-1	6.672240E-1	6.600487E-1	6.563926E-1	6.165211E-1	6.332552E-1	6.313209E-1	6.570950E-1	6.128151E-1	6.791866E-1	6.807055E-1	6.338758E-1	6.555583E-1	6.789383E-1	6.596485E-1	6.461320E-1	6.549214E-1	6.457491E-1	6.676647E-1	6.292765E-1	6.681991E-1	6.661480E-1	6.349843E-1	6.557778E-1	6.383426E-1	6.598606E-1	6.435474E-1	6.356299E-1	6.157386E-1	6.625862E-1	6.334286E-1	6.244199E-1	6.336395E-1	6.538492E-1	6.383913E-1	6.407848E-1	6.437134E-1	6.988886E-1	6.715685E-1	6.574707E-1	6.435163E-1	6.434396E-1	6.471023E-1	6.473591E-1	6.932280E-1	6.395090E-1	6.557157E-1	6.412295E-1	6.007022E-1	6.594505E-1	6.451405E-1	6.609971E-1	6.768986E-1	6.228085E-1	6.563604E-1	6.669460E-1	6.267938E-1	6.436556E-1	6.066099E-1	6.236671E-1	6.893543E-1	6.408286E-1	6.354071E-1	6.280132E-1	6.403305E-1	6.522386E-1	6.537643E-1	6.189234E-1	6.563079E-1	6.724856E-1	6.918340E-1	6.362149E-1	6.616867E-1	6.268790E-1	6.067681E-1	6.562121E-1	6.277802E-1	6.495263E-1	6.938053E-1
2.876170E+2	4.894893E-1	5.104530E-1	4.894946E-1	5.036749E-1	4.990855E-1	4.885849E-1	5.060535E-1	5.253351E-1	4.882072E-1	5.226624E-1	4.992821E-1	5.182645E-1	5.151720E-1	5.489096E-1	4.967220E-1	5.031033E-1	4.796297E-1	5.058796E-1	4.777422E-1	4.840728E-1	5.097522E-1	4.935641E-1	4.787345E-1	5.281547E-1	5.048565E-1	5.220327E-1	5.264408E-1	4.607751E-1	5.225807E-1	5.091931E-1	5.254610E-1	5.072463E-1	4.896337E-1	5.003274E-1	4.833381E-1	5.095636E-1	5.071218E-1	5.234515E-1	5.087226E-1	4.500786E-1	4.896734E-1	5.050174E-1	5.068721E-1	5.115402E-1	4.909548E-1	5.197018E-1	5.259775E-1	4.714658E-1	5.108256E-1	4.746193E-1	4.818510E-1	4.726471E-1	4.925543E-1	5.315542E-1	5.184162E-1	5.008189E-1	4.826941E-1	4.883548E-1	5.101070E-1	4.704364E-1	4.797952E-1	5.056331E-1	5.041516E-1	5.228904E-1	5.303509E-1	4.825499E-1	5.140227E-1	4.920605E-1	5.390407E-1	4.985658E-1	5.048522E-1	5.237261E-1	5.052561E-1	4.885788E-1	5.226886E-1	5.072522E-1	5.539811E-1	4.973657E-1	4.883090E-1	4.678430E-1	5.542043E-1	5.222778E-1	4.829272E-1	4.913408E-1	5.294631E-1	5.181167E-1	4.957099E-1	5.122209E-1	5.478656E-1	4.954871E-1	4.916783E-1	5.266140E-1	5.153309E-1	4.884048E-1	5.042871E-1	5.081506E-1	5.108821E-1	5.000833E-1	5.306194E-1	5.064445E-1	5.312253E-1	5.037378E-1	5.358213E-1	5.029721E-1	5.056824E-1	5.031866E-1	5.124373E-1	5.121510E-1	5.033416E-1	5.087388E-1	5.228435E-1	4.982606E-1	5.121598E-1	4.945790E-1	5.153567E-1	5.194956E-1	5.037004E-1	5.277766E-1	5.098480E-1	5.067669E-1	4.869659E-1	5.114496E-1	5.022029E-1	5.073133E-1	5.048612E-1	5.145806E-1	4.941136E-1	5.563500E-1	4.866537E-1	5.237210E-1	5.147723E-1	4.732722E-1	5.449375E-1	5.284712E-1	5.275757E-1	5.049394E-1	5.181769E-1	5.050037E-1	5.612557E-1	4.863373E-1	4.926319E-1	5.017550E-1	5.230280E-1	5.119462E-1	4.937628E-1	5.271156E-1	5.153543E-1	4.993949E-1	5.169609E-1	5.092984E-1	4.677061E-1	5.057702E-1	5.615896E-1	4.935354E-1	4.857878E-1	5.153650E-1	5.170564E-1	4.937419E-1	5.158418E-1	5.068526E-1	5.145393E-1	5.308049E-1	5.066586E-1	5.257959E-1	5.286061E-1	5.154947E-1	5.213285E-1	5.255413E-1	5.261826E-1	5.060799E-1	6.381415E-1
2.878020E+2	4.092844E-1	3.893259E-1	4.284293E-1	4.056481E-1	4.367562E-1	4.055536E-1	4.285383E-1	4.108958E-1	4.252445E-1	4.444173E-1	4.221111E-1	3.886277E-1	4.264537E-1	4.733478E-1	4.264699E-1	3.949855E-1	4.114410E-1	4.371607E-1	4.225409E-1	4.214767E-1	4.264847E-1	4.002530E-1	4.246643E-1	4.234364E-1	4.356754E-1	4.221281E-1	4.618360E-1	4.170859E-1	4.489051E-1	4.418270E-1	4.108764E-1	4.471705E-1	4.281247E-1	3.951640E-1	4.084463E-1	4.194018E-1	4.199033E-1	4.315725E-1	4.329646E-1	3.979666E-1	4.505650E-1	4.253190E-1	4.220291E-1	4.689276E-1	4.177945E-1	4.042350E-1	4.226391E-1	4.124287E-1	4.301736E-1	3.976164E-1	4.354839E-1	4.520108E-1	4.443760E-1	4.510325E-1	4.356205E-1	4.125464E-1	4.251370E-1	4.231199E-1	4.237659E-1	4.353930E-1	4.100763E-1	4.089969E-1	4.022223E-1	4.126749E-1	4.114072E-1	4.275897E-1	3.970893E-1	4.111372E-1	4.651655E-1	4.434580E-1	4.096393E-1	4.161135E-1	4.364357E-1	4.609019E-1	4.204219E-1	4.156769E-1	4.443800E-1	4.163786E-1	4.207467E-1	4.222472E-1	4.255685E-1	4.492500E-1	4.201371E-1	3.958173E-1	4.453353E-1	4.358371E-1	4.300842E-1	4.481719E-1	4.158084E-1	4.259003E-1	4.498645E-1	4.169147E-1	4.409684E-1	4.581939E-1	4.370346E-1	4.590103E-1	4.323899E-1	4.239140E-1	4.447636E-1	4.341165E-1	4.488314E-1	4.538384E-1	4.182902E-1	3.931207E-1	4.201701E-1	4.065640E-1	4.014179E-1	4.343578E-1	4.344604E-1	4.204652E-1	4.258495E-1	4.421317E-1	4.697297E-1	4.178355E-1	4.376936E-1	4.198688E-1	4.359859E-1	4.207462E-1	4.368552E-1	4.242383E-1	4.188629E-1	4.342158E-1	4.230083E-1	4.176980E-1	4.329503E-1	4.549357E-1	4.351008E-1	3.987578E-1	4.227680E-1	4.310895E-1	4.271729E-1	4.177019E-1	4.284282E-1	4.415319E-1	4.458357E-1	4.284298E-1	4.495794E-1	4.201971E-1	4.255065E-1	4.202417E-1	4.317243E-1	4.482654E-1	4.550853E-1	4.268765E-1	4.351387E-1	4.361829E-1	4.503116E-1	4.493646E-1	4.248910E-1	4.107509E-1	4.158570E-1	4.355498E-1	4.120076E-1	4.265623E-1	4.159176E-1	4.435516E-1	4.170788E-1	4.411469E-1	4.487179E-1	4.357471E-1	3.877011E-1	4.286898E-1	4.310196E-1	4.265311E-1	4.072698E-1	4.310671E-1	4.238779E-1	4.064271E-1	4.181608E-1	4.340817E-1	3.890029E-1
2.880020E+2	4.808879E-1	4.867252E-1	4.566340E-1	4.767722E-1	4.790338E-1	4.936441E-1	4.920425E-1	5.413437E-1	4.933185E-1	5.060636E-1	4.839815E-1	4.834478E-1	4.858706E-1	5.269211E-1	4.889350E-1	4.666619E-1	4.722432E-1	4.570620E-1	4.885211E-1	4.536680E-1	5.236509E-1	4.828203E-1	5.076850E-1	5.076175E-1	5.212269E-1	4.948106E-1	4.900341E-1	4.635779E-1	4.731311E-1	4.693556E-1	5.172502E-1	4.874343E-1	4.788369E-1	4.947069E-1	4.547208E-1	4.823230E-1	4.781140E-1	5.125900E-1	4.895933E-1	4.825146E-1	4.872604E-1	5.139121E-1	5.083539E-1	4.991455E-1	4.648757E-1	4.841580E-1	5.246959E-1	4.689020E-1	4.843376E-1	5.001350E-1	5.068450E-1	4.997091E-1	4.834532E-1	4.938411E-1	4.955992E-1	5.012199E-1	4.932276E-1	5.057723E-1	4.988733E-1	5.021947E-1	5.009367E-1	5.521283E-1	5.047097E-1	4.966578E-1	4.857736E-1	4.890230E-1	4.830582E-1	5.194384E-1	5.119169E-1	4.949695E-1	5.010887E-1	5.004959E-1	4.973631E-1	5.041051E-1	5.060048E-1	4.935421E-1	5.110462E-1	5.054620E-1	4.894778E-1	5.000298E-1	5.270003E-1	5.424056E-1	5.146562E-1	5.122192E-1	4.871953E-1	4.917655E-1	4.679413E-1	4.921489E-1	5.039661E-1	5.006492E-1	4.955600E-1	5.050067E-1	5.410047E-1	4.819802E-1	4.944168E-1	5.280727E-1	4.961880E-1	4.952277E-1	5.077971E-1	4.990876E-1	4.843296E-1	5.122207E-1	4.985545E-1	4.822571E-1	4.916272E-1	4.770113E-1	4.989777E-1	4.834818E-1	5.074714E-1	4.912238E-1	5.488355E-1	4.804849E-1	5.010432E-1	4.846912E-1	5.467353E-1	4.804104E-1	4.975497E-1	5.046902E-1	5.109836E-1	5.168668E-1	4.789279E-1	5.067685E-1	4.917290E-1	5.122558E-1	5.342787E-1	5.340126E-1	5.250322E-1	4.840600E-1	4.888402E-1	5.218881E-1	4.891745E-1	4.930052E-1	4.800550E-1	4.914817E-1	4.933707E-1	4.880348E-1	5.076812E-1	4.560782E-1	5.120387E-1	4.745488E-1	5.157089E-1	5.417802E-1	5.022933E-1	4.941734E-1	5.070825E-1	4.942745E-1	4.966472E-1	5.014990E-1	5.144885E-1	4.903152E-1	4.688255E-1	4.612300E-1	5.106025E-1	4.610779E-1	4.862946E-1	4.847364E-1	5.155640E-1	5.108251E-1	5.001126E-1	4.709815E-1	5.087559E-1	5.265722E-1	5.146529E-1	4.944326E-1	4.805896E-1	4.832725E-1	5.094625E-1	5.072956E-1	5.198449E-1	5.107901E-1	5.175592E-1
2.882150E+2	5.941562E-1	5.808036E-1	6.072713E-1	5.526175E-1	5.876930E-1	5.809721E-1	5.685166E-1	5.785169E-1	5.864971E-1	5.835734E-1	6.015661E-1	5.761932E-1	5.788859E-1	5.949463E-1	5.792819E-1	5.672548E-1	5.910584E-1	5.979957E-1	5.747895E-1	5.856012E-1	6.005319E-1	5.739824E-1	5.786444E-1	6.154669E-1	5.809153E-1	6.031209E-1	6.137672E-1	5.648398E-1	5.682794E-1	6.005252E-1	6.021452E-1	6.080498E-1	5.613289E-1	6.212736E-1	5.891615E-1	5.748592E-1	6.034806E-1	6.017467E-1	5.882378E-1	6.016818E-1	5.901349E-1	6.050679E-1	5.728213E-1	5.315184E-1	5.672718E-1	5.962183E-1	5.672871E-1	6.027081E-1	5.981777E-1	5.891224E-1	5.403407E-1	5.994124E-1	6.025634E-1	5.969595E-1	5.936077E-1	5.722709E-1	5.657263E-1	5.833001E-1	6.154949E-1	6.055126E-1	5.885090E-1	5.843955E-1	5.630997E-1	5.852573E-1	5.991698E-1	5.766115E-1	6.077281E-1	5.884653E-1	5.940353E-1	5.843949E-1	5.549628E-1	5.893994E-1	5.785536E-1	6.015789E-1	5.945722E-1	6.011393E-1	5.928723E-1	5.654033E-1	5.857709E-1	5.777160E-1	5.786059E-1	6.101352E-1	6.021386E-1	6.256368E-1	6.126856E-1	6.169272E-1	5.668854E-1	6.046772E-1	6.053700E-1	5.573265E-1	5.914440E-1	5.950003E-1	5.859172E-1	6.078714E-1	6.093869E-1	5.852558E-1	6.305455E-1	6.055904E-1	6.049300E-1	5.559355E-1	5.844506E-1	6.423519E-1	6.165413E-1	5.676779E-1	5.938261E-1	5.457943E-1	6.089857E-1	5.369280E-1	6.125205E-1	6.196611E-1	5.701903E-1	5.993551E-1	6.130073E-1	5.878374E-1	5.909269E-1	5.660809E-1	6.057500E-1	6.182867E-1	5.499329E-1	6.037734E-1	5.435931E-1	6.513124E-1	5.999596E-1	5.964206E-1	6.238618E-1	5.870076E-1	6.054137E-1	6.215349E-1	5.984992E-1	6.200519E-1	6.080619E-1	5.700464E-1	5.796881E-1	5.908021E-1	5.928911E-1	5.931925E-1	5.806098E-1	5.453171E-1	5.950837E-1	5.920480E-1	5.842518E-1	5.898227E-1	5.991731E-1	5.687688E-1	6.129656E-1	6.169049E-1	5.945740E-1	6.225057E-1	5.611511E-1	5.959568E-1	5.572556E-1	5.669063E-1	6.132057E-1	6.094121E-1	5.532801E-1	6.070380E-1	5.984671E-1	6.236511E-1	6.142544E-1	5.476702E-1	5.704395E-1	5.920008E-1	6.088921E-1	5.902950E-1	6.179072E-1	5.692123E-1	5.868633E-1	6.017261E-1	5.746738E-1	6.081699E-1	6.382491E-1
2.884200E+2	6.551336E-1	6.531476E-1	6.669151E-1	6.277988E-1	6.516915E-1	6.274833E-1	6.607046E-1	6.589092E-1	6.587131E-1	6.804537E-1	6.874279E-1	6.772471E-1	6.839952E-1	6.884530E-1	6.783843E-1	6.742507E-1	6.339879E-1	6.636423E-1	6.887933E-1	6.626495E-1	6.604400E-1	6.869502E-1	6.545418E-1	7.102639E-1	6.791102E-1	6.638594E-1	6.760403E-1	6.640292E-1	6.658443E-1	6.943172E-1	7.028709E-1	6.713115E-1	6.515735E-1	6.969103E-1	6.482319E-1	6.851012E-1	6.736199E-1	7.110519E-1	6.523948E-1	6.874313E-1	6.744860E-1	6.824605E-1	7.083790E-1	6.622217E-1	6.560237E-1	6.478038E-1	6.734402E-1	6.698494E-1	6.767875E-1	7.054870E-1	6.904980E-1	6.603582E-1	6.984690E-1	7.080421E-1	6.916726E-1	6.899748E-1	6.872510E-1	7.001431E-1	6.635763E-1	6.836637E-1	7.041337E-1	6.638333E-1	6.477934E-1	6.732496E-1	6.474772E-1	6.817159E-1	6.481370E-1	6.687293E-1	6.932100E-1	6.647036E-1	6.815424E-1	6.807883E-1	7.032705E-1	6.949431E-1	7.463846E-1	6.691894E-1	6.968788E-1	6.674705E-1	6.994063E-1	6.351108E-1	6.980015E-1	6.743191E-1	6.964715E-1	6.407895E-1	6.991876E-1	7.131343E-1	6.454938E-1	6.734137E-1	6.693556E-1	6.663833E-1	6.751571E-1	6.497525E-1	6.444811E-1	7.286729E-1	6.624620E-1	6.999677E-1	6.841086E-1	6.946176E-1	7.186676E-1	6.676281E-1	6.667442E-1	6.921410E-1	6.936243E-1	6.990528E-1	6.811159E-1	6.904645E-1	7.056149E-1	6.903832E-1	7.127219E-1	6.615472E-1	7.133740E-1	6.609972E-1	6.726483E-1	6.406822E-1	6.906166E-1	6.754787E-1	6.944966E-1	7.234837E-1	6.639136E-1	6.577521E-1	6.625694E-1	6.928840E-1	6.489244E-1	6.959035E-1	7.031235E-1	7.242330E-1	6.469784E-1	6.738551E-1	6.679584E-1	6.774777E-1	7.117637E-1	6.707872E-1	6.429929E-1	6.874314E-1	6.894112E-1	6.890069E-1	6.587492E-1	6.684470E-1	6.680168E-1	6.614080E-1	6.593654E-1	7.305167E-1	6.660327E-1	6.895890E-1	6.630154E-1	6.897292E-1	6.852704E-1	7.326262E-1	6.842366E-1	7.030253E-1	6.792500E-1	7.068103E-1	6.922124E-1	6.926061E-1	6.600031E-1	6.496169E-1	6.815563E-1	6.532696E-1	7.048482E-1	6.875009E-1	6.541176E-1	6.805724E-1	6.861698E-1	6.838149E-1	6.617025E-1	6.692786E-1	6.945665E-1	6.685619E-1	6.464849E-1	6.315618E-1	6.652646E-1
2.886040E+2	7.319220E-1	7.236612E-1	7.197770E-1	6.917725E-1	7.417490E-1	7.791337E-1	7.438424E-1	7.336216E-1	7.136755E-1	7.495813E-1	7.010430E-1	7.453701E-1	7.378612E-1	7.592359E-1	7.623696E-1	7.294656E-1	7.721964E-1	7.682479E-1	7.376294E-1	7.122817E-1	7.259972E-1	7.435449E-1	7.323418E-1	7.427159E-1	7.422016E-1	7.651832E-1	7.381621E-1	7.454380E-1	7.511443E-1	7.592678E-1	7.271676E-1	7.188626E-1	7.272487E-1	7.660251E-1	7.314589E-1	7.050200E-1	7.270644E-1	7.221555E-1	7.462847E-1	7.374772E-1	7.494413E-1	7.788944E-1	7.336225E-1	7.229052E-1	7.720012E-1	7.894012E-1	7.444988E-1	7.893126E-1	7.240518E-1	7.504435E-1	7.565433E-1	7.116949E-1	7.414991E-1	7.592493E-1	7.394845E-1	8.039776E-1	7.205875E-1	7.616544E-1	7.949324E-1	7.257660E-1	7.560790E-1	7.732019E-1	7.528057E-1	7.429993E-1	7.882814E-1	7.519612E-1	7.266675E-1	7.466902E-1	7.757757E-1	7.704321E-1	7.344145E-1	7.637001E-1	7.281041E-1	7.578263E-1	7.726748E-1	7.330999E-1	7.551303E-1	7.325671E-1	7.486867E-1	7.405921E-1	7.612761E-1	7.621714E-1	7.547179E-1	7.187771E-1	7.510779E-1	7.899743E-1	7.416672E-1	7.317502E-1	7.793958E-1	7.755598E-1	7.438262E-1	7.265579E-1	7.796270E-1	7.692850E-1	7.670881E-1	7.805226E-1	7.670907E-1	7.323969E-1	7.597773E-1	7.014122E-1	7.378609E-1	7.690228E-1	7.315576E-1	7.213668E-1	7.064728E-1	7.523288E-1	7.651985E-1	7.837582E-1	7.775382E-1	7.283707E-1	7.358711E-1	7.040000E-1	7.513088E-1	7.309677E-1	7.550186E-1	7.167614E-1	7.476993E-1	8.003448E-1	7.783312E-1	7.148421E-1	7.302342E-1	7.624331E-1	7.209267E-1	7.251580E-1	7.724239E-1	7.540790E-1	7.488541E-1	7.305685E-1	7.896731E-1	7.496818E-1	7.211279E-1	7.025924E-1	7.675346E-1	7.744159E-1	7.490165E-1	7.516318E-1	7.233280E-1	7.482355E-1	7.811149E-1	7.592715E-1	7.199142E-1	7.389672E-1	7.873782E-1	7.263915E-1	6.978262E-1	7.938508E-1	7.473944E-1	7.087606E-1	7.861426E-1	7.389547E-1	7.187329E-1	7.259313E-1	7.452938E-1	7.365889E-1	7.415136E-1	7.372577E-1	7.311497E-1	7.545193E-1	7.022783E-1	7.219802E-1	7.274867E-1	7.658794E-1	7.925569E-1	8.036834E-1	7.031182E-1	6.951026E-1	7.388597E-1	7.541903E-1	7.430688E-1	6.991066E-1	8.028692E-1
2.888230E+2	8.248902E-1	8.544541E-1	8.719528E-1	8.496731E-1	8.340817E-1	8.645170E-1	8.424179E-1	8.708888E-1	8.492956E-1	9.014215E-1	8.406251E-1	8.421381E-1	8.548229E-1	8.895568E-1	8.517523E-1	8.286938E-1	9.025468E-1	8.916367E-1	8.273517E-1	8.686376E-1	8.521990E-1	8.400505E-1	8.426409E-1	8.352866E-1	8.675181E-1	8.299331E-1	8.356271E-1	8.436787E-1	8.263927E-1	8.568783E-1	8.405831E-1	8.511749E-1	8.681962E-1	8.658873E-1	8.137197E-1	8.012234E-1	8.346181E-1	8.525174E-1	8.543811E-1	8.132468E-1	8.217711E-1	8.352715E-1	8.644329E-1	8.354601E-1	8.227494E-1	8.417603E-1	8.968525E-1	8.550393E-1	9.097866E-1	7.816704E-1	8.795786E-1	8.821155E-1	7.923085E-1	8.547585E-1	9.062536E-1	8.503676E-1	8.382865E-1	8.244739E-1	8.586150E-1	8.120901E-1	8.755096E-1	8.179819E-1	8.245399E-1	8.617743E-1	8.530915E-1	8.544225E-1	8.629229E-1	8.036772E-1	9.267974E-1	8.431585E-1	8.592596E-1	8.461587E-1	8.429153E-1	8.387050E-1	8.682322E-1	8.347608E-1	8.371975E-1	8.175570E-1	8.328549E-1	8.372414E-1	8.446111E-1	8.600679E-1	8.858272E-1	8.464215E-1	8.678017E-1	8.348209E-1	8.287380E-1	8.510696E-1	8.681157E-1	8.402412E-1	8.642633E-1	8.398053E-1	8.416742E-1	8.482567E-1	8.394521E-1	8.490771E-1	8.502056E-1	8.033561E-1	8.717812E-1	8.000559E-1	8.496597E-1	8.557212E-1	8.664421E-1	8.310818E-1	8.601965E-1	8.774488E-1	8.446833E-1	7.947235E-1	8.406826E-1	8.466094E-1	8.850694E-1	8.640044E-1	8.511560E-1	8.912923E-1	8.649507E-1	8.268873E-1	8.627694E-1	8.776090E-1	8.695683E-1	8.838068E-1	8.444846E-1	8.826334E-1	8.881293E-1	8.103134E-1	8.869787E-1	8.498973E-1	8.674482E-1	8.445251E-1	8.070476E-1	8.723696E-1	8.297789E-1	8.464320E-1	8.172224E-1	8.503837E-1	8.718190E-1	8.596812E-1	8.792080E-1	8.876438E-1	8.747400E-1	8.422989E-1	8.244084E-1	8.507414E-1	8.325749E-1	8.105777E-1	8.327550E-1	9.009802E-1	8.153390E-1	8.616985E-1	8.485144E-1	8.459230E-1	8.752065E-1	8.469253E-1	8.582031E-1	8.120005E-1	8.020070E-1	8.422487E-1	8.517445E-1	8.609920E-1	8.474727E-1	8.112530E-1	8.414108E-1	9.006735E-1	8.461258E-1	8.517810E-1	8.226677E-1	8.152864E-1	8.638838E-1	8.782946E-1	8.741288E-1	8.291007E-1	8.766180E-1
2.890230E+2	7.844083E-1	7.572437E-1	8.153153E-1	7.867514E-1	8.147028E-1	7.768976E-1	8.035004E-1	8.193705E-1	8.089484E-1	8.014502E-1	8.219035E-1	7.781334E-1	7.454558E-1	8.542047E-1	8.196811E-1	7.868345E-1	8.056823E-1	8.491504E-1	8.174502E-1	7.649702E-1	8.029494E-1	8.286373E-1	8.023866E-1	7.754395E-1	8.324363E-1	8.035910E-1	7.868038E-1	7.791994E-1	7.632040E-1	7.918707E-1	8.109741E-1	8.515262E-1	7.918425E-1	7.698775E-1	7.601845E-1	7.805923E-1	7.717528E-1	7.879454E-1	7.957606E-1	7.937597E-1	7.682651E-1	7.824702E-1	8.138900E-1	7.629734E-1	7.621410E-1	7.867703E-1	7.898699E-1	7.690283E-1	8.110864E-1	8.436249E-1	8.161493E-1	7.957134E-1	7.715902E-1	7.995466E-1	8.172574E-1	7.635594E-1	8.193744E-1	7.960909E-1	7.804024E-1	7.939698E-1	7.908924E-1	8.161353E-1	7.833857E-1	8.214503E-1	8.023612E-1	7.577700E-1	7.646065E-1	7.528250E-1	8.444368E-1	8.049753E-1	7.833235E-1	8.341798E-1	7.584405E-1	7.825448E-1	8.123027E-1	8.008974E-1	7.544873E-1	8.119868E-1	8.072758E-1	8.035938E-1	7.408594E-1	8.443148E-1	8.213422E-1	7.774609E-1	7.765967E-1	8.600493E-1	8.260227E-1	8.210116E-1	7.947132E-1	8.010985E-1	8.008569E-1	8.311223E-1	8.245150E-1	7.985209E-1	8.057033E-1	7.695563E-1	8.068238E-1	7.878350E-1	8.071162E-1	8.245940E-1	8.127620E-1	7.996035E-1	8.335331E-1	8.015264E-1	7.749115E-1	8.206180E-1	7.951887E-1	7.737431E-1	7.912861E-1	7.897450E-1	7.829053E-1	8.037278E-1	8.013737E-1	8.152601E-1	8.210289E-1	8.015636E-1	8.218124E-1	8.172479E-1	7.969112E-1	8.224065E-1	8.044908E-1	8.032319E-1	7.833319E-1	8.103721E-1	8.026219E-1	8.141575E-1	8.329425E-1	7.695157E-1	7.949277E-1	8.395769E-1	8.024387E-1	8.006281E-1	8.114908E-1	8.578231E-1	7.914590E-1	7.927496E-1	7.858802E-1	7.729462E-1	8.638301E-1	8.047487E-1	7.870048E-1	8.284342E-1	8.253627E-1	7.494749E-1	7.964648E-1	8.278633E-1	8.116390E-1	8.152718E-1	7.892356E-1	8.102540E-1	7.455242E-1	7.460900E-1	7.847478E-1	8.046990E-1	8.010728E-1	7.616717E-1	7.963425E-1	7.968037E-1	8.274027E-1	7.728178E-1	7.806373E-1	8.118129E-1	7.622016E-1	8.119997E-1	8.207934E-1	7.995730E-1	8.137985E-1	8.140670E-1	8.314334E-1	7.853688E-1	8.763526E-1
2.892010E+2	6.796947E-1	6.533310E-1	6.987002E-1	6.486996E-1	6.919968E-1	6.882512E-1	7.124412E-1	6.831961E-1	6.573019E-1	6.894235E-1	6.876530E-1	6.970097E-1	6.741299E-1	6.901326E-1	6.763217E-1	6.865577E-1	6.787756E-1	6.916087E-1	6.730954E-1	6.899778E-1	6.893745E-1	6.804414E-1	6.761948E-1	7.115300E-1	6.630158E-1	6.847225E-1	6.874129E-1	6.559027E-1	7.040331E-1	6.612447E-1	6.880878E-1	6.725201E-1	7.116576E-1	6.876856E-1	6.838051E-1	6.809899E-1	6.956326E-1	7.079628E-1	7.038355E-1	6.890831E-1	6.648446E-1	7.334289E-1	6.918389E-1	6.732529E-1	7.008230E-1	7.078179E-1	6.873454E-1	7.075541E-1	7.174680E-1	6.754446E-1	7.082763E-1	6.898665E-1	6.746335E-1	7.163304E-1	6.521554E-1	6.913236E-1	6.850777E-1	6.822685E-1	7.272528E-1	7.029873E-1	7.162161E-1	6.797324E-1	7.024531E-1	6.793220E-1	6.671576E-1	6.577909E-1	6.805112E-1	6.787504E-1	6.898349E-1	6.564935E-1	6.821904E-1	7.323073E-1	6.998314E-1	6.973069E-1	6.829462E-1	6.652351E-1	7.040630E-1	6.972138E-1	7.123389E-1	6.673257E-1	7.252705E-1	7.551006E-1	7.560818E-1	7.393124E-1	6.983110E-1	7.016495E-1	6.783960E-1	7.052586E-1	6.823415E-1	6.734168E-1	6.789446E-1	6.598228E-1	6.907377E-1	7.327491E-1	6.607769E-1	6.885043E-1	7.021335E-1	7.048087E-1	6.982513E-1	7.015271E-1	6.532165E-1	6.987130E-1	6.994681E-1	6.679702E-1	7.097006E-1	7.302973E-1	7.264502E-1	6.940001E-1	6.769724E-1	7.156438E-1	7.163885E-1	6.877135E-1	6.688745E-1	7.108490E-1	6.756675E-1	6.630978E-1	7.033981E-1	6.991775E-1	6.859130E-1	7.113069E-1	6.642779E-1	7.500996E-1	6.496839E-1	7.095300E-1	6.865148E-1	7.020795E-1	6.914538E-1	6.959306E-1	7.106423E-1	7.087650E-1	7.014699E-1	6.845904E-1	7.305158E-1	7.081415E-1	7.175373E-1	7.199580E-1	6.923677E-1	6.744330E-1	7.337372E-1	6.949486E-1	6.962519E-1	7.116626E-1	6.884858E-1	7.061504E-1	7.114494E-1	6.992255E-1	7.018767E-1	7.081099E-1	6.867584E-1	7.337714E-1	6.755289E-1	7.082866E-1	7.327147E-1	6.822524E-1	7.195749E-1	6.724340E-1	6.850968E-1	7.144492E-1	7.187670E-1	6.813596E-1	7.011202E-1	7.009173E-1	6.632806E-1	7.057215E-1	6.815741E-1	6.820200E-1	6.877109E-1	6.868322E-1	6.964501E-1	7.425971E-1	7.453329E-1
2.894050E+2	5.895940E-1	5.553076E-1	5.796266E-1	5.576851E-1	5.746071E-1	5.584988E-1	5.889483E-1	5.689305E-1	5.534401E-1	5.740169E-1	5.654717E-1	5.480355E-1	5.722974E-1	5.573002E-1	5.443688E-1	6.119912E-1	5.610796E-1	5.472235E-1	5.587971E-1	5.788848E-1	5.743686E-1	5.433486E-1	5.712925E-1	5.819488E-1	5.617540E-1	6.063189E-1	5.592326E-1	5.596047E-1	5.792217E-1	5.903049E-1	5.450158E-1	5.842047E-1	5.697650E-1	6.143411E-1	5.617494E-1	5.686753E-1	5.314200E-1	5.896754E-1	5.891922E-1	5.398654E-1	5.601671E-1	5.685180E-1	5.846481E-1	5.318478E-1	5.552774E-1	5.844370E-1	5.807937E-1	5.939307E-1	5.849140E-1	6.103451E-1	5.826765E-1	5.906860E-1	5.687982E-1	6.084767E-1	5.782897E-1	5.897631E-1	5.824986E-1	5.623618E-1	5.877829E-1	5.366299E-1	5.538836E-1	5.767824E-1	5.653328E-1	5.828037E-1	5.759693E-1	5.837023E-1	5.583481E-1	5.587587E-1	6.110377E-1	5.737102E-1	5.689418E-1	5.794524E-1	5.539599E-1	6.087107E-1	5.605842E-1	5.830427E-1	5.908515E-1	5.550599E-1	5.506431E-1	6.051469E-1	5.691801E-1	5.944505E-1	5.657978E-1	5.804553E-1	5.634187E-1	6.089704E-1	5.478175E-1	5.719157E-1	5.983245E-1	5.759646E-1	5.721736E-1	5.882236E-1	5.957113E-1	5.715480E-1	5.915416E-1	5.688281E-1	5.743523E-1	5.685286E-1	5.819727E-1	5.821073E-1	5.769716E-1	6.100161E-1	5.948515E-1	5.693756E-1	5.834818E-1	5.787175E-1	5.712321E-1	5.756272E-1	5.689783E-1	5.971391E-1	5.728920E-1	5.927420E-1	6.017515E-1	5.820528E-1	5.906883E-1	5.718143E-1	5.780083E-1	5.836354E-1	5.371729E-1	5.631315E-1	5.736413E-1	5.931559E-1	5.405843E-1	5.479874E-1	6.047710E-1	6.015296E-1	5.887743E-1	5.815336E-1	6.003524E-1	5.931681E-1	5.885486E-1	5.593674E-1	5.872658E-1	5.519145E-1	5.762094E-1	5.618658E-1	5.967662E-1	5.488065E-1	6.093275E-1	5.312198E-1	5.577354E-1	6.083940E-1	6.104779E-1	5.642185E-1	5.848900E-1	6.086802E-1	5.643433E-1	5.965227E-1	5.403228E-1	5.787366E-1	5.858072E-1	5.606857E-1	5.643008E-1	5.581581E-1	5.906330E-1	5.822426E-1	5.652831E-1	6.040268E-1	6.164932E-1	5.609939E-1	5.934526E-1	6.044024E-1	5.613685E-1	5.530170E-1	5.573111E-1	5.749188E-1	5.528766E-1	5.751371E-1	5.757566E-1	5.861949E-1	5.934628E-1
2.896110E+2	5.172222E-1	5.281587E-1	5.090265E-1	5.146709E-1	5.243133E-1	5.472104E-1	5.315127E-1	5.103243E-1	5.534361E-1	5.430823E-1	5.296742E-1	5.086496E-1	5.417045E-1	5.227033E-1	5.241315E-1	5.245740E-1	5.206478E-1	5.520060E-1	4.885229E-1	5.117616E-1	5.309077E-1	5.221760E-1	5.506775E-1	5.337598E-1	5.499172E-1	5.115877E-1	5.255607E-1	5.113479E-1	5.021949E-1	5.514350E-1	5.318652E-1	5.372462E-1	5.257759E-1	5.258444E-1	4.965807E-1	5.298461E-1	5.210254E-1	5.460930E-1	5.495870E-1	5.353764E-1	5.406882E-1	5.063359E-1	4.966612E-1	5.127478E-1	5.348545E-1	5.192615E-1	5.227218E-1	4.992306E-1	5.416663E-1	5.131584E-1	5.266541E-1	5.299025E-1	5.130085E-1	5.061606E-1	5.377535E-1	5.021878E-1	5.172324E-1	5.205852E-1	5.145350E-1	5.307527E-1	5.326619E-1	4.890462E-1	5.252738E-1	5.199108E-1	5.232592E-1	5.382016E-1	5.195346E-1	5.201623E-1	5.331305E-1	5.172477E-1	5.227858E-1	5.209129E-1	4.973565E-1	5.257815E-1	5.294461E-1	5.299396E-1	5.153227E-1	5.361941E-1	5.607653E-1	5.318715E-1	5.316823E-1	5.706545E-1	5.279607E-1	5.111344E-1	5.214071E-1	5.644921E-1	5.208448E-1	5.655858E-1	5.432302E-1	5.110127E-1	5.294713E-1	5.133035E-1	5.481373E-1	5.453839E-1	5.416040E-1	5.222141E-1	5.120960E-1	5.383380E-1	5.298453E-1	5.285181E-1	5.624752E-1	5.270945E-1	5.172260E-1	5.026216E-1	5.318901E-1	5.183738E-1	5.270873E-1	5.105956E-1	5.070807E-1	5.309364E-1	5.115477E-1	5.454762E-1	5.287275E-1	4.966301E-1	5.121539E-1	5.194586E-1	5.266532E-1	5.400974E-1	5.236238E-1	5.249016E-1	5.461463E-1	5.343505E-1	5.227879E-1	5.065344E-1	5.413796E-1	5.990358E-1	5.264667E-1	5.620233E-1	5.490381E-1	5.322104E-1	5.580716E-1	4.807529E-1	5.146436E-1	5.420558E-1	5.434141E-1	5.173222E-1	5.562348E-1	5.108855E-1	5.565460E-1	5.360554E-1	5.148029E-1	5.492807E-1	5.321846E-1	5.100528E-1	5.230861E-1	5.594744E-1	5.449985E-1	5.459750E-1	5.312024E-1	5.324331E-1	5.100320E-1	5.275019E-1	5.189903E-1	5.082318E-1	5.145774E-1	5.463086E-1	5.229127E-1	5.142249E-1	5.374306E-1	5.424015E-1	5.228880E-1	5.525654E-1	5.322684E-1	5.095787E-1	5.156336E-1	4.914400E-1	5.328598E-1	5.443851E-1	5.089115E-1	4.687963E-1	5.380216E-1
2.898020E+2	5.554964E-1	5.812978E-1	5.958899E-1	6.030588E-1	5.826240E-1	5.450968E-1	5.705764E-1	5.915078E-1	5.877281E-1	5.894035E-1	5.574002E-1	5.707628E-1	5.777961E-1	6.124129E-1	5.771065E-1	5.332325E-1	5.606732E-1	5.956897E-1	5.733029E-1	5.570034E-1	5.729219E-1	5.708308E-1	5.843745E-1	6.263412E-1	6.119957E-1	5.609514E-1	5.616930E-1	5.623622E-1	5.498825E-1	5.841948E-1	5.769359E-1	5.896883E-1	5.753535E-1	5.678292E-1	5.460402E-1	6.125856E-1	5.727072E-1	6.047975E-1	5.869791E-1	5.746424E-1	6.043780E-1	5.739439E-1	5.565301E-1	5.756022E-1	5.828254E-1	5.608646E-1	5.784020E-1	5.805866E-1	5.710748E-1	5.848062E-1	5.494043E-1	5.675914E-1	5.667573E-1	5.768244E-1	6.109438E-1	5.598221E-1	5.500756E-1	5.795219E-1	5.741499E-1	5.549410E-1	5.634222E-1	5.939618E-1	5.536562E-1	5.687299E-1	6.045056E-1	5.695338E-1	6.169420E-1	5.612840E-1	5.966557E-1	5.803469E-1	5.687797E-1	5.911633E-1	5.869984E-1	5.940583E-1	5.679032E-1	5.816456E-1	5.377629E-1	5.628569E-1	5.975607E-1	5.750430E-1	5.825137E-1	5.758723E-1	6.067581E-1	5.931804E-1	6.146244E-1	5.713289E-1	5.948988E-1	6.189539E-1	5.854669E-1	6.005706E-1	6.159894E-1	5.699071E-1	5.787773E-1	5.871734E-1	5.850815E-1	6.146815E-1	5.779771E-1	5.988859E-1	6.024569E-1	5.507274E-1	5.687892E-1	6.050950E-1	5.839066E-1	5.457858E-1	5.727455E-1	5.958380E-1	5.744414E-1	6.139797E-1	5.493823E-1	5.934663E-1	6.020688E-1	5.619701E-1	5.660808E-1	6.142945E-1	5.882912E-1	5.697009E-1	5.920811E-1	6.126306E-1	5.440073E-1	5.768071E-1	5.826290E-1	5.876860E-1	5.997200E-1	5.599572E-1	6.158962E-1	5.829713E-1	6.142711E-1	5.802205E-1	5.864097E-1	6.112422E-1	5.846415E-1	5.691996E-1	5.837157E-1	5.896398E-1	6.056019E-1	5.902595E-1	6.161072E-1	5.551340E-1	6.060306E-1	5.953910E-1	5.748180E-1	6.178464E-1	5.982104E-1	5.769829E-1	5.554368E-1	5.875590E-1	5.596625E-1	6.123885E-1	5.742556E-1	5.806435E-1	6.002602E-1	5.758483E-1	5.594705E-1	5.709002E-1	5.736375E-1	5.858312E-1	5.690640E-1	5.988019E-1	6.187537E-1	5.691678E-1	5.599941E-1	5.933840E-1	5.967328E-1	6.043378E-1	5.509505E-1	5.553298E-1	5.632981E-1	5.795780E-1	5.687276E-1	5.560404E-1	6.149277E-1
2.900050E+2	6.130564E-1	5.794212E-1	5.796274E-1	5.895525E-1	5.859788E-1	5.815367E-1	6.235050E-1	6.117029E-1	5.959074E-1	5.989148E-1	5.986357E-1	5.779419E-1	6.033268E-1	5.840994E-1	6.117868E-1	5.601583E-1	5.932160E-1	5.706453E-1	5.595460E-1	5.900862E-1	5.838797E-1	5.624424E-1	5.723678E-1	6.304311E-1	5.902992E-1	6.019518E-1	5.898347E-1	5.890585E-1	6.167746E-1	6.084431E-1	6.109342E-1	5.973758E-1	5.886574E-1	5.884123E-1	5.784318E-1	6.327135E-1	5.469648E-1	5.792550E-1	6.107535E-1	6.066978E-1	5.931108E-1	6.001622E-1	6.374499E-1	5.938513E-1	6.017595E-1	6.036750E-1	5.901929E-1	6.069737E-1	5.909510E-1	5.930363E-1	5.894654E-1	5.765167E-1	6.057480E-1	5.970988E-1	6.197116E-1	5.885576E-1	6.118320E-1	5.789785E-1	6.167577E-1	5.695214E-1	6.205092E-1	5.715532E-1	6.223339E-1	5.998845E-1	6.445825E-1	5.835050E-1	6.366674E-1	6.141708E-1	6.111340E-1	6.049003E-1	5.756047E-1	6.118982E-1	6.026069E-1	5.656528E-1	6.194065E-1	6.180481E-1	6.088029E-1	5.764380E-1	5.973636E-1	5.779830E-1	6.205029E-1	6.206727E-1	6.214948E-1	5.915787E-1	6.079429E-1	5.810769E-1	5.550841E-1	6.414423E-1	6.128569E-1	5.934175E-1	5.925873E-1	5.806420E-1	5.840392E-1	5.825057E-1	5.918311E-1	6.148157E-1	5.965232E-1	5.753783E-1	5.850662E-1	5.806812E-1	5.830315E-1	6.117854E-1	6.237207E-1	5.796557E-1	6.120178E-1	5.976423E-1	6.150884E-1	6.070009E-1	6.222038E-1	5.702461E-1	6.219511E-1	5.804485E-1	6.174717E-1	5.908179E-1	5.940597E-1	6.153070E-1	6.094192E-1	6.626040E-1	6.334749E-1	6.209002E-1	5.801602E-1	5.986284E-1	6.002593E-1	5.544156E-1	5.842357E-1	6.397931E-1	5.797876E-1	5.901331E-1	6.214404E-1	6.363968E-1	5.918194E-1	6.042628E-1	6.150018E-1	6.025335E-1	5.752097E-1	5.835133E-1	6.017148E-1	5.744476E-1	5.933955E-1	6.316485E-1	5.713877E-1	6.113739E-1	6.430541E-1	5.759320E-1	5.812694E-1	6.242546E-1	5.639338E-1	6.313134E-1	5.602437E-1	6.086946E-1	6.031589E-1	5.918993E-1	6.304749E-1	5.836534E-1	5.831443E-1	6.361883E-1	5.635277E-1	5.873960E-1	6.260081E-1	5.870322E-1	6.197568E-1	5.558241E-1	6.183141E-1	5.818193E-1	6.027900E-1	5.726538E-1	5.788702E-1	6.425871E-1	6.260324E-1	5.702315E-1	6.107770E-1
2.905110E+2	5.762087E-1	5.831912E-1	5.784586E-1	5.726000E-1	5.275093E-1	5.846017E-1	5.644788E-1	5.701211E-1	5.979507E-1	6.084181E-1	5.560597E-1	5.416235E-1	5.988951E-1	5.771069E-1	5.485430E-1	5.572819E-1	5.533886E-1	5.717825E-1	5.674732E-1	5.793468E-1	5.974421E-1	5.287774E-1	5.899638E-1	5.492229E-1	5.686313E-1	5.929026E-1	6.139292E-1	5.387015E-1	5.506048E-1	5.574966E-1	5.983686E-1	5.925330E-1	5.827434E-1	5.811070E-1	5.498575E-1	5.787552E-1	5.769170E-1	5.777922E-1	5.787385E-1	5.699023E-1	6.127929E-1	5.766636E-1	5.673006E-1	5.429149E-1	5.632211E-1	5.927059E-1	5.771355E-1	5.589943E-1	5.980239E-1	5.619112E-1	5.687782E-1	5.869022E-1	5.787866E-1	5.459805E-1	5.927904E-1	5.603609E-1	5.624693E-1	5.624069E-1	5.884661E-1	5.675251E-1	5.924563E-1	5.703568E-1	5.861640E-1	6.042157E-1	5.515969E-1	5.699796E-1	5.919949E-1	5.719124E-1	6.263609E-1	5.453932E-1	5.601331E-1	5.780406E-1	5.823956E-1	6.026577E-1	5.867278E-1	5.607320E-1	5.657718E-1	5.538736E-1	5.743413E-1	5.598347E-1	5.795865E-1	5.999584E-1	5.964981E-1	5.624469E-1	5.489690E-1	5.644433E-1	5.607170E-1	5.828632E-1	5.482300E-1	5.977824E-1	5.410219E-1	5.685242E-1	6.055700E-1	5.469656E-1	6.225856E-1	5.828962E-1	5.783091E-1	5.488557E-1	5.878275E-1	5.666021E-1	5.814119E-1	5.939269E-1	5.770266E-1	5.468069E-1	5.601771E-1	5.459004E-1	5.455453E-1	5.932234E-1	5.367145E-1	5.730132E-1	5.636179E-1	5.549363E-1	5.890383E-1	5.784910E-1	5.778191E-1	5.778766E-1	5.884230E-1	5.868050E-1	5.787828E-1	6.033622E-1	5.640019E-1	5.766416E-1	5.816748E-1	5.671903E-1	5.656608E-1	5.994445E-1	5.809392E-1	5.597381E-1	5.914540E-1	5.859836E-1	5.787848E-1	6.012857E-1	6.028838E-1	5.669219E-1	5.687449E-1	5.717101E-1	5.732408E-1	5.432181E-1	6.021013E-1	5.533555E-1	5.687036E-1	5.723151E-1	5.823463E-1	5.668294E-1	5.764577E-1	5.996779E-1	5.582108E-1	5.833838E-1	5.651857E-1	5.957052E-1	5.731173E-1	5.926733E-1	5.897162E-1	5.658494E-1	5.429318E-1	5.863620E-1	5.528463E-1	5.765246E-1	6.089232E-1	5.677117E-1	5.715147E-1	5.755988E-1	6.093590E-1	5.788532E-1	5.786095E-1	5.869383E-1	5.687771E-1	5.888250E-1	5.490012E-1	5.496880E-1	6.567459E-1
2.910060E+2	6.177167E-1	6.322737E-1	6.091962E-1	5.878434E-1	6.224620E-1	6.182095E-1	6.086644E-1	6.059247E-1	6.501599E-1	6.250282E-1	6.095234E-1	5.906456E-1	6.142959E-1	6.274642E-1	5.877941E-1	5.823970E-1	6.076532E-1	6.204538E-1	6.326621E-1	6.000595E-1	6.326031E-1	5.727313E-1	5.982561E-1	6.094770E-1	6.376176E-1	5.970872E-1	6.248919E-1	6.241949E-1	6.323532E-1	6.251275E-1	6.293728E-1	6.226851E-1	6.255147E-1	6.450115E-1	6.246963E-1	6.034063E-1	6.216599E-1	6.644920E-1	6.529090E-1	6.134125E-1	6.394735E-1	6.263285E-1	6.286200E-1	6.091648E-1	5.909609E-1	6.166320E-1	6.302676E-1	6.077440E-1	6.464400E-1	6.302381E-1	6.198278E-1	6.424411E-1	6.216548E-1	6.197921E-1	6.246826E-1	6.293956E-1	5.968393E-1	6.143520E-1	6.368853E-1	6.346648E-1	6.194607E-1	6.249482E-1	6.266002E-1	6.089428E-1	6.572189E-1	6.165813E-1	6.219834E-1	6.257711E-1	6.549926E-1	6.089544E-1	6.013109E-1	6.012791E-1	6.340727E-1	6.406871E-1	6.286241E-1	5.763064E-1	5.797492E-1	5.844436E-1	6.125409E-1	6.074729E-1	6.411221E-1	6.133202E-1	6.375231E-1	5.637339E-1	6.327843E-1	6.165075E-1	6.469981E-1	6.316814E-1	6.115492E-1	6.013514E-1	6.375371E-1	6.151335E-1	6.249944E-1	6.501218E-1	6.105019E-1	6.082447E-1	6.060418E-1	5.987496E-1	6.137896E-1	6.509327E-1	6.047455E-1	6.236270E-1	6.213565E-1	5.867616E-1	6.505500E-1	6.041581E-1	6.013646E-1	6.183472E-1	6.144488E-1	6.038532E-1	6.219078E-1	6.062110E-1	5.907575E-1	5.969075E-1	6.325878E-1	5.708958E-1	5.913827E-1	6.426912E-1	6.039747E-1	6.444041E-1	5.922361E-1	6.214146E-1	6.375178E-1	6.216460E-1	6.119160E-1	6.294496E-1	6.055518E-1	6.165625E-1	6.226609E-1	6.601125E-1	6.076946E-1	6.237693E-1	5.856771E-1	6.282402E-1	6.169301E-1	6.192974E-1	6.078313E-1	6.452798E-1	6.566138E-1	6.050157E-1	5.938890E-1	6.141622E-1	5.940652E-1	5.807996E-1	6.091365E-1	6.482525E-1	5.898185E-1	6.136292E-1	6.092297E-1	6.019887E-1	6.201662E-1	6.036705E-1	6.201535E-1	6.196409E-1	5.690904E-1	6.224464E-1	6.058191E-1	6.382083E-1	6.573738E-1	6.094261E-1	6.032399E-1	6.237625E-1	6.511334E-1	6.049378E-1	6.345362E-1	5.587181E-1	6.239414E-1	6.321103E-1	6.175424E-1	5.497664E-1	6.113695E-1
2.915140E+2	6.939996E-1	7.136741E-1	7.314850E-1	6.573414E-1	7.386428E-1	7.245121E-1	6.640045E-1	7.154726E-1	6.905186E-1	7.250080E-1	7.577622E-1	7.118944E-1	7.305928E-1	7.558383E-1	7.128258E-1	7.332878E-1	7.140937E-1	7.477538E-1	7.717947E-1	7.187379E-1	7.787680E-1	6.872021E-1	7.001526E-1	7.176701E-1	7.468203E-1	7.365288E-1	7.104779E-1	7.451302E-1	7.176340E-1	7.278334E-1	7.262022E-1	7.196861E-1	7.287246E-1	6.988346E-1	7.120248E-1	6.939998E-1	6.633498E-1	7.123326E-1	7.425030E-1	6.864798E-1	7.187565E-1	6.926871E-1	7.058647E-1	6.768453E-1	7.173175E-1	7.066545E-1	7.098522E-1	7.006729E-1	7.295519E-1	7.314557E-1	7.366951E-1	7.180430E-1	7.122846E-1	7.699800E-1	7.537055E-1	7.528447E-1	6.671354E-1	7.104932E-1	7.487156E-1	6.900816E-1	7.142129E-1	6.958282E-1	7.282171E-1	7.070446E-1	7.162708E-1	6.942622E-1	7.471520E-1	7.111236E-1	7.692774E-1	7.312750E-1	7.128311E-1	7.255433E-1	7.276134E-1	7.412175E-1	7.185978E-1	7.008018E-1	6.933326E-1	7.342451E-1	7.429747E-1	7.193706E-1	7.720786E-1	7.491700E-1	7.180699E-1	6.855712E-1	7.398664E-1	7.203426E-1	7.183712E-1	7.581524E-1	7.395269E-1	6.736457E-1	7.323089E-1	7.133078E-1	7.230916E-1	7.109347E-1	7.094152E-1	7.163053E-1	7.164681E-1	7.001517E-1	7.168560E-1	7.009348E-1	7.145518E-1	7.376748E-1	7.299791E-1	7.192471E-1	6.797520E-1	6.777518E-1	7.177481E-1	7.154165E-1	7.325479E-1	7.123867E-1	7.853062E-1	7.327218E-1	7.003872E-1	6.994917E-1	7.492558E-1	7.369166E-1	7.544485E-1	7.410623E-1	6.897649E-1	7.458895E-1	7.155241E-1	7.550272E-1	7.268816E-1	7.151962E-1	7.353787E-1	7.242015E-1	7.253786E-1	6.830583E-1	7.059796E-1	7.225826E-1	7.582841E-1	7.266602E-1	6.970159E-1	7.431887E-1	7.251557E-1	7.173904E-1	7.312796E-1	6.981783E-1	6.897675E-1	7.405250E-1	7.276275E-1	7.117552E-1	7.456412E-1	7.065114E-1	7.241270E-1	7.306948E-1	7.176473E-1	7.726998E-1	7.218504E-1	7.321152E-1	7.091799E-1	7.149601E-1	7.419003E-1	6.884969E-1	7.257589E-1	7.534771E-1	6.860423E-1	7.272573E-1	7.564950E-1	7.182551E-1	6.950914E-1	7.130100E-1	7.490890E-1	7.208464E-1	7.391594E-1	6.844859E-1	7.431906E-1	7.533567E-1	7.257919E-1	6.936406E-1	7.761771E-1
2.920010E+2	6.026294E-1	6.290081E-1	6.318115E-1	6.460440E-1	6.400992E-1	6.096648E-1	6.181532E-1	6.138847E-1	6.479524E-1	6.286976E-1	6.655679E-1	6.662405E-1	6.201076E-1	6.750192E-1	6.522343E-1	6.335791E-1	6.173339E-1	6.351033E-1	6.530549E-1	6.386940E-1	6.421104E-1	6.378486E-1	6.422733E-1	6.390303E-1	6.303301E-1	6.373416E-1	6.373945E-1	6.424334E-1	6.356826E-1	6.171627E-1	6.162593E-1	6.452674E-1	6.282939E-1	6.525660E-1	6.348876E-1	6.281634E-1	6.199627E-1	6.476895E-1	6.252674E-1	6.192206E-1	6.203840E-1	6.587505E-1	6.469504E-1	6.305123E-1	6.374768E-1	6.266236E-1	6.230975E-1	6.249028E-1	6.631099E-1	6.569232E-1	6.528374E-1	6.492523E-1	6.230431E-1	6.611960E-1	6.394831E-1	6.211343E-1	6.384454E-1	6.400953E-1	6.591396E-1	6.199114E-1	6.319131E-1	6.380697E-1	6.673656E-1	6.396570E-1	6.262082E-1	6.288487E-1	6.071680E-1	6.176596E-1	6.554936E-1	6.285073E-1	6.335473E-1	6.008985E-1	6.316436E-1	6.591101E-1	6.214613E-1	6.363326E-1	6.784211E-1	6.269112E-1	6.604608E-1	6.472861E-1	6.200304E-1	6.155941E-1	6.531331E-1	6.634303E-1	6.203328E-1	6.389637E-1	6.560339E-1	6.571944E-1	6.341219E-1	6.407710E-1	6.216306E-1	6.528633E-1	6.407363E-1	6.452681E-1	6.654518E-1	6.381694E-1	6.172065E-1	6.400615E-1	6.095459E-1	6.161134E-1	6.085855E-1	6.281391E-1	6.454700E-1	6.603714E-1	6.374057E-1	6.329770E-1	6.679738E-1	6.256758E-1	6.488274E-1	6.078972E-1	6.465330E-1	6.632602E-1	6.585542E-1	6.192626E-1	6.897379E-1	6.258498E-1	6.297972E-1	6.300182E-1	6.629169E-1	6.246604E-1	6.165601E-1	6.564020E-1	6.428855E-1	6.463965E-1	6.383138E-1	6.430247E-1	6.459262E-1	6.500302E-1	6.306520E-1	6.682426E-1	6.302658E-1	6.345893E-1	6.381782E-1	6.317066E-1	6.403106E-1	6.184325E-1	6.492238E-1	6.407159E-1	6.670673E-1	6.467342E-1	6.023131E-1	6.467605E-1	6.276554E-1	6.504044E-1	6.587438E-1	6.579350E-1	6.474135E-1	6.981064E-1	6.302285E-1	6.599760E-1	6.269669E-1	6.359844E-1	6.583739E-1	6.452152E-1	6.525331E-1	6.483849E-1	6.318956E-1	6.564306E-1	6.424993E-1	6.586493E-1	6.495671E-1	6.423807E-1	6.412684E-1	6.442015E-1	6.458941E-1	6.235958E-1	6.070747E-1	6.096667E-1	6.465623E-1	6.487989E-1	6.031888E-1
2.925020E+2	6.862031E-1	7.058955E-1	7.166649E-1	7.009282E-1	7.382733E-1	7.186070E-1	7.158964E-1	7.117783E-1	6.723934E-1	7.195598E-1	6.999553E-1	6.861986E-1	6.951580E-1	7.384096E-1	6.981684E-1	6.904282E-1	6.856815E-1	7.077117E-1	7.113762E-1	6.291357E-1	7.265135E-1	6.958569E-1	7.064265E-1	7.349881E-1	7.317292E-1	6.972189E-1	7.007655E-1	6.775654E-1	6.805328E-1	6.967583E-1	7.206076E-1	6.723195E-1	6.990219E-1	6.946119E-1	7.220305E-1	6.964456E-1	6.842897E-1	6.910692E-1	6.738815E-1	7.049668E-1	6.924319E-1	7.144699E-1	7.068329E-1	6.809778E-1	7.051227E-1	7.305037E-1	7.424526E-1	7.239852E-1	7.488328E-1	6.877087E-1	6.890537E-1	7.221399E-1	6.968574E-1	7.306252E-1	7.270229E-1	6.836944E-1	7.243849E-1	7.220581E-1	7.297256E-1	6.737053E-1	7.150792E-1	7.053486E-1	6.876902E-1	6.839350E-1	7.364841E-1	7.364431E-1	7.000078E-1	6.777893E-1	7.222090E-1	6.996439E-1	7.173418E-1	7.184196E-1	7.002733E-1	7.361215E-1	7.195789E-1	6.712926E-1	7.248038E-1	6.971665E-1	7.396536E-1	6.941805E-1	7.198908E-1	7.163436E-1	7.076685E-1	6.817084E-1	7.151375E-1	7.407600E-1	6.983330E-1	7.443097E-1	7.142389E-1	7.097479E-1	7.269675E-1	7.059883E-1	7.102093E-1	6.980965E-1	7.106759E-1	7.410116E-1	6.788374E-1	7.001052E-1	7.172240E-1	7.012994E-1	6.665489E-1	7.187546E-1	7.077583E-1	7.246687E-1	6.631496E-1	7.341748E-1	7.436434E-1	6.949342E-1	6.911607E-1	6.922274E-1	7.034787E-1	6.992982E-1	6.992370E-1	6.638268E-1	7.561944E-1	6.990885E-1	7.074406E-1	7.097570E-1	7.159379E-1	7.085028E-1	7.024572E-1	7.390292E-1	7.302779E-1	6.989789E-1	6.975967E-1	6.920591E-1	7.289983E-1	7.158638E-1	7.106219E-1	6.984313E-1	6.725722E-1	7.303107E-1	7.175283E-1	6.721283E-1	6.879042E-1	6.879267E-1	7.153059E-1	6.844425E-1	7.102534E-1	6.949427E-1	7.056680E-1	7.554436E-1	7.014569E-1	7.074675E-1	7.221763E-1	7.283281E-1	7.059510E-1	7.381339E-1	6.994540E-1	7.076964E-1	7.273939E-1	6.919438E-1	7.319141E-1	6.870205E-1	6.912834E-1	6.928414E-1	6.751839E-1	6.849220E-1	7.518665E-1	6.962026E-1	7.313045E-1	7.230187E-1	7.495594E-1	7.364214E-1	7.062507E-1	6.877332E-1	7.117223E-1	6.758119E-1	7.451146E-1	6.540315E-1	5.984170E-1
2.930040E+2	6.960741E-1	7.074910E-1	7.159623E-1	6.627967E-1	7.111477E-1	6.933618E-1	7.171601E-1	7.129090E-1	6.961719E-1	7.137963E-1	7.112881E-1	7.185903E-1	7.099179E-1	7.236913E-1	6.813936E-1	6.947906E-1	6.877246E-1	7.126717E-1	7.049427E-1	6.693568E-1	7.242435E-1	7.024005E-1	6.940977E-1	7.600996E-1	7.229899E-1	6.856333E-1	7.186864E-1	6.837158E-1	6.984884E-1	6.674400E-1	6.965416E-1	7.280931E-1	6.823937E-1	7.151628E-1	7.010604E-1	6.869723E-1	7.028956E-1	7.383406E-1	7.038633E-1	6.978424E-1	7.174277E-1	7.169219E-1	7.087188E-1	7.184410E-1	6.944391E-1	7.007016E-1	6.842963E-1	6.950885E-1	7.303895E-1	7.102933E-1	7.202221E-1	7.190728E-1	6.839996E-1	6.917652E-1	7.157321E-1	6.958046E-1	7.416291E-1	7.282175E-1	7.253951E-1	7.470768E-1	6.973714E-1	7.043377E-1	7.034350E-1	7.264002E-1	7.020037E-1	7.272748E-1	7.716269E-1	6.971389E-1	7.335381E-1	6.878446E-1	7.474679E-1	7.181904E-1	7.200691E-1	7.219191E-1	7.133843E-1	7.005072E-1	7.064596E-1	6.744693E-1	7.111858E-1	6.875877E-1	6.916831E-1	7.709246E-1	7.297587E-1	6.857760E-1	7.043042E-1	7.101750E-1	6.837507E-1	7.143796E-1	7.183733E-1	6.982395E-1	7.001963E-1	7.002469E-1	7.370791E-1	7.163795E-1	7.085469E-1	6.967559E-1	7.120275E-1	7.109982E-1	7.134875E-1	6.918635E-1	7.223493E-1	7.122741E-1	7.148846E-1	7.146537E-1	7.042109E-1	6.909620E-1	7.170287E-1	7.314437E-1	7.059096E-1	7.112474E-1	7.343593E-1	7.185730E-1	7.040152E-1	6.958418E-1	7.541742E-1	7.148709E-1	6.983401E-1	7.529423E-1	7.300172E-1	6.922712E-1	7.253758E-1	7.111629E-1	7.038026E-1	6.785911E-1	7.204843E-1	7.242754E-1	7.284038E-1	7.050550E-1	7.152856E-1	7.533063E-1	7.056519E-1	6.920411E-1	6.707193E-1	7.331660E-1	7.222489E-1	6.860041E-1	6.973970E-1	6.798573E-1	7.021192E-1	7.191093E-1	6.970844E-1	7.412878E-1	7.411110E-1	7.076754E-1	7.449424E-1	6.831249E-1	7.042848E-1	6.998970E-1	6.967581E-1	7.176465E-1	7.120225E-1	7.070421E-1	7.244074E-1	7.204795E-1	7.354272E-1	7.213680E-1	7.046211E-1	7.088013E-1	7.377811E-1	6.861746E-1	7.161679E-1	7.069987E-1	7.075563E-1	7.199858E-1	7.284367E-1	7.162369E-1	7.201924E-1	7.143163E-1	7.378534E-1	6.770780E-1	7.573427E-1
2.935110E+2	7.221159E-1	7.060005E-1	6.985711E-1	6.921933E-1	7.229967E-1	7.207267E-1	7.112361E-1	7.220486E-1	7.073663E-1	7.079980E-1	7.072305E-1	7.426761E-1	6.944612E-1	7.334786E-1	7.418967E-1	7.034507E-1	7.045609E-1	7.242794E-1	7.042994E-1	6.968763E-1	7.538891E-1	7.238916E-1	7.052491E-1	6.807006E-1	7.174162E-1	7.157915E-1	7.154934E-1	6.886756E-1	6.963668E-1	7.169945E-1	7.440988E-1	7.334533E-1	7.393436E-1	7.276057E-1	7.416338E-1	7.443492E-1	7.301497E-1	7.078338E-1	7.203095E-1	7.268379E-1	7.186718E-1	6.936992E-1	6.946871E-1	6.705367E-1	6.959071E-1	7.242475E-1	7.163166E-1	7.040054E-1	7.151132E-1	7.089700E-1	7.112346E-1	7.339187E-1	6.974749E-1	7.170624E-1	7.134217E-1	6.898694E-1	7.022582E-1	7.280054E-1	7.778483E-1	6.852122E-1	7.194784E-1	6.983588E-1	7.002855E-1	7.298627E-1	7.377133E-1	6.826350E-1	7.317990E-1	7.159429E-1	7.433907E-1	7.089485E-1	7.358507E-1	7.389525E-1	7.113201E-1	7.259606E-1	7.273636E-1	7.203563E-1	7.351158E-1	7.020052E-1	7.282062E-1	6.975254E-1	7.307530E-1	7.407248E-1	7.761639E-1	7.197009E-1	7.384817E-1	7.197295E-1	7.150647E-1	6.852250E-1	7.390939E-1	7.331638E-1	7.069350E-1	7.112716E-1	6.975081E-1	7.415793E-1	7.493460E-1	7.175432E-1	7.388115E-1	7.133555E-1	7.435526E-1	7.022733E-1	7.182618E-1	7.115755E-1	7.141024E-1	7.232250E-1	7.617935E-1	7.323033E-1	6.892406E-1	6.915220E-1	7.280565E-1	6.915816E-1	7.224086E-1	7.072860E-1	7.578641E-1	7.193140E-1	7.209983E-1	7.323077E-1	7.284248E-1	7.444699E-1	6.986574E-1	7.094654E-1	7.040054E-1	7.368610E-1	7.431147E-1	7.144873E-1	7.424840E-1	7.442265E-1	7.053020E-1	6.908234E-1	7.371768E-1	7.583082E-1	7.482557E-1	7.722605E-1	7.906848E-1	7.605409E-1	7.245689E-1	7.125447E-1	7.202328E-1	7.223460E-1	6.772840E-1	7.323336E-1	6.711577E-1	7.504166E-1	7.400107E-1	7.370836E-1	7.149655E-1	7.547189E-1	7.300395E-1	7.370147E-1	7.225232E-1	6.810539E-1	7.292319E-1	7.076266E-1	7.515215E-1	6.978409E-1	7.076644E-1	7.675430E-1	7.173381E-1	7.351423E-1	7.593695E-1	7.330632E-1	7.169732E-1	7.007671E-1	7.382754E-1	7.080406E-1	7.325620E-1	7.039635E-1	7.047431E-1	7.197033E-1	7.387643E-1	6.660375E-1	7.312446E-1
2.940070E+2	7.260684E-1	7.129235E-1	7.224956E-1	7.046059E-1	7.148817E-1	7.258158E-1	6.905034E-1	7.407808E-1	7.270601E-1	7.700615E-1	7.090700E-1	7.600224E-1	6.971975E-1	7.206468E-1	7.235162E-1	6.900926E-1	7.166427E-1	7.057147E-1	7.304420E-1	7.022495E-1	7.195299E-1	6.717045E-1	7.203158E-1	7.182559E-1	7.125203E-1	7.034037E-1	7.347887E-1	6.939780E-1	7.009738E-1	7.049960E-1	6.939456E-1	6.809176E-1	7.292644E-1	7.229439E-1	7.008763E-1	6.942556E-1	7.031186E-1	7.009958E-1	7.084313E-1	7.041152E-1	6.830402E-1	6.996113E-1	7.036222E-1	7.080995E-1	7.193485E-1	7.293929E-1	7.279867E-1	7.486063E-1	7.566427E-1	7.294534E-1	7.110916E-1	6.958513E-1	7.186651E-1	7.242628E-1	7.580003E-1	7.417507E-1	6.743034E-1	7.287214E-1	7.319869E-1	7.279318E-1	7.269140E-1	6.936245E-1	6.953085E-1	6.974971E-1	7.423770E-1	7.057379E-1	7.322805E-1	7.307870E-1	7.015191E-1	7.117501E-1	7.251137E-1	7.240877E-1	7.083028E-1	7.234616E-1	7.246995E-1	7.445215E-1	7.307125E-1	6.888823E-1	7.127323E-1	6.816794E-1	7.023005E-1	7.274150E-1	7.548074E-1	7.436416E-1	7.216930E-1	7.112319E-1	7.051860E-1	6.932144E-1	6.586770E-1	7.161937E-1	7.175918E-1	7.170794E-1	7.390246E-1	7.599579E-1	7.057868E-1	7.119856E-1	6.963286E-1	6.765286E-1	7.359272E-1	7.039198E-1	7.255865E-1	7.446102E-1	7.366726E-1	7.217584E-1	6.995801E-1	6.969950E-1	7.308206E-1	7.558510E-1	6.978443E-1	6.882624E-1	7.292675E-1	7.290341E-1	7.132496E-1	6.832071E-1	7.250515E-1	7.108355E-1	7.517629E-1	7.035171E-1	7.369312E-1	6.837119E-1	6.835953E-1	7.607181E-1	7.181832E-1	6.915344E-1	7.471829E-1	7.327371E-1	7.365017E-1	7.174072E-1	7.101404E-1	7.493030E-1	7.129222E-1	7.123378E-1	7.286070E-1	7.287395E-1	7.371083E-1	7.050169E-1	7.264074E-1	7.229375E-1	7.170613E-1	7.031774E-1	7.260762E-1	7.128357E-1	7.119304E-1	7.021294E-1	7.476934E-1	7.160651E-1	7.150929E-1	7.416707E-1	7.419322E-1	7.402518E-1	7.282600E-1	6.991001E-1	7.081885E-1	6.905480E-1	7.080871E-1	7.362058E-1	7.264078E-1	7.391154E-1	7.467882E-1	7.326823E-1	6.799791E-1	7.355531E-1	7.424695E-1	7.166978E-1	7.427270E-1	6.969257E-1	7.028483E-1	7.293884E-1	7.466951E-1	7.035389E-1	7.212035E-1
2.945030E+2	7.399150E-1	7.727847E-1	7.778216E-1	8.118389E-1	7.592982E-1	8.145336E-1	7.654968E-1	7.340301E-1	7.426923E-1	7.709497E-1	7.624398E-1	7.862101E-1	7.283818E-1	8.068509E-1	7.759567E-1	7.599934E-1	7.838360E-1	7.735522E-1	7.839794E-1	7.494372E-1	8.090188E-1	7.391247E-1	7.799030E-1	7.821241E-1	7.936256E-1	7.707754E-1	8.010251E-1	7.595177E-1	8.053727E-1	8.198354E-1	7.725595E-1	7.649128E-1	7.705072E-1	7.835740E-1	7.325418E-1	7.833926E-1	7.858802E-1	7.566460E-1	7.557230E-1	7.523362E-1	7.901973E-1	7.997171E-1	7.335924E-1	7.503244E-1	7.846459E-1	7.642132E-1	7.977492E-1	7.783990E-1	8.446169E-1	7.966243E-1	8.190066E-1	7.460623E-1	7.284610E-1	8.161189E-1	7.828201E-1	7.891990E-1	7.762052E-1	7.743803E-1	7.591071E-1	7.710193E-1	7.722247E-1	7.587544E-1	7.986113E-1	8.039019E-1	7.796689E-1	7.833194E-1	8.147439E-1	7.768657E-1	8.129540E-1	7.564244E-1	7.700898E-1	7.996170E-1	7.795730E-1	7.955926E-1	7.762483E-1	7.899884E-1	7.538453E-1	7.680476E-1	7.509647E-1	7.196575E-1	7.532580E-1	7.774860E-1	7.858269E-1	7.607153E-1	7.974505E-1	7.892678E-1	7.579287E-1	8.328615E-1	7.706298E-1	7.645095E-1	7.948035E-1	8.095187E-1	8.030901E-1	7.851642E-1	7.721405E-1	7.447468E-1	7.716697E-1	7.548326E-1	8.183213E-1	7.342643E-1	7.653606E-1	7.685206E-1	7.462028E-1	7.724524E-1	7.672309E-1	7.880310E-1	8.289484E-1	7.977725E-1	7.511996E-1	7.552227E-1	7.602546E-1	7.741636E-1	7.492699E-1	7.545883E-1	8.243349E-1	7.214106E-1	7.549840E-1	8.194829E-1	7.866323E-1	7.867300E-1	7.636847E-1	7.954299E-1	7.614919E-1	7.809692E-1	7.734563E-1	7.999942E-1	8.208470E-1	7.705557E-1	7.534707E-1	8.212240E-1	7.975887E-1	7.924843E-1	7.767610E-1	7.900815E-1	8.179913E-1	7.974685E-1	7.872665E-1	7.774030E-1	7.430466E-1	7.635918E-1	7.797073E-1	7.731327E-1	7.736028E-1	7.621928E-1	8.018225E-1	7.851886E-1	7.330362E-1	7.920249E-1	7.525942E-1	7.840227E-1	8.017033E-1	7.648074E-1	8.257386E-1	7.695634E-1	7.565845E-1	7.863475E-1	7.606890E-1	8.059279E-1	8.309236E-1	8.322275E-1	7.944013E-1	7.742219E-1	7.775005E-1	7.714420E-1	7.857426E-1	7.598207E-1	7.617359E-1	7.754513E-1	8.133137E-1	8.162402E-1	7.358637E-1
2.950050E+2	8.731235E-1	7.768556E-1	8.586625E-1	8.235035E-1	8.604639E-1	8.035800E-1	8.136545E-1	8.763219E-1	8.390552E-1	8.761745E-1	8.200782E-1	8.046949E-1	8.485600E-1	8.307910E-1	8.153683E-1	8.222405E-1	8.369162E-1	8.478994E-1	8.206944E-1	8.432839E-1	8.770625E-1	8.122521E-1	8.322501E-1	8.393889E-1	8.660334E-1	8.291364E-1	8.202859E-1	8.118737E-1	8.226515E-1	8.480861E-1	8.615095E-1	8.576584E-1	8.359483E-1	8.306499E-1	8.194411E-1	8.255167E-1	8.269438E-1	8.839224E-1	8.321096E-1	8.388918E-1	8.406678E-1	8.405259E-1	8.280910E-1	7.876976E-1	8.592932E-1	8.425501E-1	8.199195E-1	8.111784E-1	8.636263E-1	8.759234E-1	8.595069E-1	8.580639E-1	8.341827E-1	8.772004E-1	8.851438E-1	8.509535E-1	8.505296E-1	8.346817E-1	8.489841E-1	7.636959E-1	8.584228E-1	8.176599E-1	8.074782E-1	8.587494E-1	9.059372E-1	8.591396E-1	8.423794E-1	8.370805E-1	8.750264E-1	8.147306E-1	7.960135E-1	8.763709E-1	8.327402E-1	8.755184E-1	8.514207E-1	8.157177E-1	8.650645E-1	8.137295E-1	8.447085E-1	8.423008E-1	8.617115E-1	8.663969E-1	8.409753E-1	8.330552E-1	8.486675E-1	8.564131E-1	8.347353E-1	8.337825E-1	8.681489E-1	8.117040E-1	8.176270E-1	8.382241E-1	8.574302E-1	8.365923E-1	8.352806E-1	8.179983E-1	8.583684E-1	8.307889E-1	8.698167E-1	7.880162E-1	8.519576E-1	8.254273E-1	8.450406E-1	8.481715E-1	8.614035E-1	8.454981E-1	8.488668E-1	8.741764E-1	8.585235E-1	8.445443E-1	8.669550E-1	8.618090E-1	8.687294E-1	8.252763E-1	8.703752E-1	8.233873E-1	8.752084E-1	8.804890E-1	8.529311E-1	8.681890E-1	8.209006E-1	8.403890E-1	8.468524E-1	8.520849E-1	8.034188E-1	8.395978E-1	8.705202E-1	8.105640E-1	8.687750E-1	8.567334E-1	8.492436E-1	8.221253E-1	8.597311E-1	8.378247E-1	8.625758E-1	8.555229E-1	8.640336E-1	8.355569E-1	8.683337E-1	7.799687E-1	7.967730E-1	8.426255E-1	8.253954E-1	8.381596E-1	8.430507E-1	8.114131E-1	8.060325E-1	8.266452E-1	8.071057E-1	8.520244E-1	8.164583E-1	8.441797E-1	8.457239E-1	8.277158E-1	8.204480E-1	8.351797E-1	8.224250E-1	8.234388E-1	8.903049E-1	8.655064E-1	8.464196E-1	8.526127E-1	8.956573E-1	8.741068E-1	8.248494E-1	8.210580E-1	8.538782E-1	8.536635E-1	8.353285E-1	7.813142E-1	9.292268E-1
2.955100E+2	8.820828E-1	8.981442E-1	9.281659E-1	8.460181E-1	8.372418E-1	8.942875E-1	9.129243E-1	8.952465E-1	8.890777E-1	8.842463E-1	8.664300E-1	9.100040E-1	8.827023E-1	9.017428E-1	8.700155E-1	8.886329E-1	8.870002E-1	8.714896E-1	9.114503E-1	9.011247E-1	9.187818E-1	9.102880E-1	8.547013E-1	9.078773E-1	9.026216E-1	8.992245E-1	8.758528E-1	8.724493E-1	8.976309E-1	8.730448E-1	9.304648E-1	9.167047E-1	9.043686E-1	8.924470E-1	8.724603E-1	9.404912E-1	9.015540E-1	8.840087E-1	9.218493E-1	9.034750E-1	9.065856E-1	9.235114E-1	9.000593E-1	8.412275E-1	9.296226E-1	8.964999E-1	8.787584E-1	9.284708E-1	9.344624E-1	9.077306E-1	8.884513E-1	9.188732E-1	9.266106E-1	9.359048E-1	9.226312E-1	9.031271E-1	9.431114E-1	8.842390E-1	8.871007E-1	8.730554E-1	8.499679E-1	9.063838E-1	8.644272E-1	8.884462E-1	9.044799E-1	9.415691E-1	9.028728E-1	8.633240E-1	8.995980E-1	9.222509E-1	8.685804E-1	9.508792E-1	8.771703E-1	9.098019E-1	8.878444E-1	8.602503E-1	8.827770E-1	9.122126E-1	9.310300E-1	9.096150E-1	8.701717E-1	8.937005E-1	9.373101E-1	8.867008E-1	8.804908E-1	9.202456E-1	9.112648E-1	9.074695E-1	8.882997E-1	8.437007E-1	9.199718E-1	8.684976E-1	8.965136E-1	8.829298E-1	9.105444E-1	9.348263E-1	9.120474E-1	9.117256E-1	8.628718E-1	8.353388E-1	8.797415E-1	9.077262E-1	8.936530E-1	8.856845E-1	9.482633E-1	8.900843E-1	8.891922E-1	9.026167E-1	9.084914E-1	8.658469E-1	8.945849E-1	8.585750E-1	8.735383E-1	8.591927E-1	9.281592E-1	8.558374E-1	8.974915E-1	8.819122E-1	9.057075E-1	9.149900E-1	8.154996E-1	9.246078E-1	9.309420E-1	9.080211E-1	8.913880E-1	9.069936E-1	9.286849E-1	8.950347E-1	9.049665E-1	9.070152E-1	9.099793E-1	8.660756E-1	8.913250E-1	8.771450E-1	9.414014E-1	8.589744E-1	9.131437E-1	8.468197E-1	9.061576E-1	9.197266E-1	8.928706E-1	8.980296E-1	9.295353E-1	8.853067E-1	9.102556E-1	8.679445E-1	9.116752E-1	8.943199E-1	8.879966E-1	8.964487E-1	8.741261E-1	9.086724E-1	9.410682E-1	8.849344E-1	8.906694E-1	9.044779E-1	8.624371E-1	8.993067E-1	9.050710E-1	8.866375E-1	8.944009E-1	9.378328E-1	9.133176E-1	9.038403E-1	9.075648E-1	8.597225E-1	9.007921E-1	9.277968E-1	8.787801E-1	8.910091E-1	9.669816E-1
2.960030E+2	9.433815E-1	9.193627E-1	9.414903E-1	8.978492E-1	8.943905E-1	9.136088E-1	8.677922E-1	9.728191E-1	9.474833E-1	9.039645E-1	9.263393E-1	9.348913E-1	9.147587E-1	9.354884E-1	8.982685E-1	9.521835E-1	9.042728E-1	9.284721E-1	9.187564E-1	9.015139E-1	8.976139E-1	9.288852E-1	8.936947E-1	9.522315E-1	9.123229E-1	9.279296E-1	9.124401E-1	8.786979E-1	8.807891E-1	9.107243E-1	9.401198E-1	8.818667E-1	8.896705E-1	9.149879E-1	9.101114E-1	9.502418E-1	9.351815E-1	9.500511E-1	9.117339E-1	9.214291E-1	9.187417E-1	9.392812E-1	9.253972E-1	8.646622E-1	9.087076E-1	9.137530E-1	9.036681E-1	8.939440E-1	9.990479E-1	9.370836E-1	9.017996E-1	9.235476E-1	9.026761E-1	9.439517E-1	9.528537E-1	9.660989E-1	9.256931E-1	9.293180E-1	9.043666E-1	9.203542E-1	9.537796E-1	8.978321E-1	9.114903E-1	9.464861E-1	9.388282E-1	9.096936E-1	8.955402E-1	9.304634E-1	9.489363E-1	9.076765E-1	8.879273E-1	9.501821E-1	8.718935E-1	8.986126E-1	8.870447E-1	9.035248E-1	9.521940E-1	8.953395E-1	8.974985E-1	8.898262E-1	9.214212E-1	9.596933E-1	8.803262E-1	8.772164E-1	9.173307E-1	9.458592E-1	9.166790E-1	9.271760E-1	9.359826E-1	9.405051E-1	8.616126E-1	9.377675E-1	9.198164E-1	9.062279E-1	8.995138E-1	9.716647E-1	9.566137E-1	9.071443E-1	8.942337E-1	9.514540E-1	9.325087E-1	9.585396E-1	9.148616E-1	8.895707E-1	9.421730E-1	9.018458E-1	9.346441E-1	9.429174E-1	9.458444E-1	9.322936E-1	8.859032E-1	8.797275E-1	9.417494E-1	8.999817E-1	9.906316E-1	9.458283E-1	9.245684E-1	9.184387E-1	9.527462E-1	9.038886E-1	9.524712E-1	9.166126E-1	9.181688E-1	8.878897E-1	8.862137E-1	8.869741E-1	9.116599E-1	9.151376E-1	9.297769E-1	9.232203E-1	9.143655E-1	9.391776E-1	8.904852E-1	9.096886E-1	9.350065E-1	9.310546E-1	9.289372E-1	9.463951E-1	8.908714E-1	8.469362E-1	9.165734E-1	9.265181E-1	9.277439E-1	9.274791E-1	8.922388E-1	9.434172E-1	9.225847E-1	9.251840E-1	8.793566E-1	9.547772E-1	8.672637E-1	9.085812E-1	9.059631E-1	8.899173E-1	9.274618E-1	9.615499E-1	8.724317E-1	9.296926E-1	9.247362E-1	8.637488E-1	8.731408E-1	9.046627E-1	9.387553E-1	9.154807E-1	9.187778E-1	9.058670E-1	9.262660E-1	9.575676E-1	8.719705E-1	8.605858E-1	8.872254E-1
2.964990E+2	9.095049E-1	8.904464E-1	9.563927E-1	9.006471E-1	8.832113E-1	8.949452E-1	8.793940E-1	8.868945E-1	9.103320E-1	9.265165E-1	9.071443E-1	8.923545E-1	8.939620E-1	8.927865E-1	8.833195E-1	8.719293E-1	9.050076E-1	8.949255E-1	8.638279E-1	8.891569E-1	9.211223E-1	9.280022E-1	9.254056E-1	9.239634E-1	8.957965E-1	8.819953E-1	8.975078E-1	8.917922E-1	9.028641E-1	8.735193E-1	9.392139E-1	8.816192E-1	8.952550E-1	9.037884E-1	9.012753E-1	9.308954E-1	9.181546E-1	9.073748E-1	9.142401E-1	8.582818E-1	9.002657E-1	8.923333E-1	8.715019E-1	8.767235E-1	8.862318E-1	9.127293E-1	9.058929E-1	9.253328E-1	9.527677E-1	8.790255E-1	8.630141E-1	8.918170E-1	8.800300E-1	9.171581E-1	9.018513E-1	9.193680E-1	9.076099E-1	9.027325E-1	9.150004E-1	9.023826E-1	8.842764E-1	8.687564E-1	8.685745E-1	9.332867E-1	9.263904E-1	8.923534E-1	8.976970E-1	8.668878E-1	9.192258E-1	9.160789E-1	9.149713E-1	9.669250E-1	9.321532E-1	9.684658E-1	8.971148E-1	8.569952E-1	8.874497E-1	8.767117E-1	9.023289E-1	9.136302E-1	9.559448E-1	9.060510E-1	8.950805E-1	8.618909E-1	9.178950E-1	9.376695E-1	9.342574E-1	9.235850E-1	8.647341E-1	8.876626E-1	9.010111E-1	9.421963E-1	9.091560E-1	9.166515E-1	8.986997E-1	9.533901E-1	9.202758E-1	8.851272E-1	9.283454E-1	9.294745E-1	9.207234E-1	9.169953E-1	8.703602E-1	8.754958E-1	9.140977E-1	8.709493E-1	9.190778E-1	9.045414E-1	8.866771E-1	8.709475E-1	9.233349E-1	8.978547E-1	9.515013E-1	8.643863E-1	9.208658E-1	9.032188E-1	9.292216E-1	9.001291E-1	8.968159E-1	9.124103E-1	8.694498E-1	9.092772E-1	9.397988E-1	9.284308E-1	9.330188E-1	8.872807E-1	8.770147E-1	9.062923E-1	9.367082E-1	9.151538E-1	9.110410E-1	8.873262E-1	8.471188E-1	8.992316E-1	9.208174E-1	8.739352E-1	9.193236E-1	8.920207E-1	9.055890E-1	8.748807E-1	8.998553E-1	9.206550E-1	8.963908E-1	9.155409E-1	9.266545E-1	9.164994E-1	8.864126E-1	9.159280E-1	8.598874E-1	8.778054E-1	8.778356E-1	8.816109E-1	9.104545E-1	8.902494E-1	8.768672E-1	9.022595E-1	8.722185E-1	9.099247E-1	9.482116E-1	9.356606E-1	9.245657E-1	9.002773E-1	9.371927E-1	9.200569E-1	9.108628E-1	8.572663E-1	9.377005E-1	9.077645E-1	9.400742E-1	8.939356E-1	8.873325E-1
2.970040E+2	9.031560E-1	9.332409E-1	9.521099E-1	9.526279E-1	9.730507E-1	1.012797E+0	9.290475E-1	9.305985E-1	9.572949E-1	9.779021E-1	9.503615E-1	9.565572E-1	9.337281E-1	9.714693E-1	9.414008E-1	9.203931E-1	9.121362E-1	9.351421E-1	9.347006E-1	8.931074E-1	9.584420E-1	9.624161E-1	9.292184E-1	9.566753E-1	9.736888E-1	9.057410E-1	9.702367E-1	9.942882E-1	9.626868E-1	9.474640E-1	9.570597E-1	9.353001E-1	9.813755E-1	9.217864E-1	9.041697E-1	9.312729E-1	9.204946E-1	9.293034E-1	9.386859E-1	9.034002E-1	9.117611E-1	9.560911E-1	9.482216E-1	8.892395E-1	9.394744E-1	9.386844E-1	9.313445E-1	9.483014E-1	9.438410E-1	9.556296E-1	9.777086E-1	9.253281E-1	9.743660E-1	9.903860E-1	1.005540E+0	9.463564E-1	9.352418E-1	9.071693E-1	9.080471E-1	9.355349E-1	9.406870E-1	9.319885E-1	9.409381E-1	9.888277E-1	9.553612E-1	9.680084E-1	9.530180E-1	9.488517E-1	9.821821E-1	9.237142E-1	9.359230E-1	9.892633E-1	9.086735E-1	9.255521E-1	9.083980E-1	9.128617E-1	9.150939E-1	9.655715E-1	9.386680E-1	9.310737E-1	9.583628E-1	1.000031E+0	9.415064E-1	9.376625E-1	9.734083E-1	9.803392E-1	9.417602E-1	9.391809E-1	9.659234E-1	9.188648E-1	9.264116E-1	9.261896E-1	9.510822E-1	9.136057E-1	9.584698E-1	9.089662E-1	9.189035E-1	9.417351E-1	9.658926E-1	9.191929E-1	9.297254E-1	9.686617E-1	9.782946E-1	9.625612E-1	9.379637E-1	9.499428E-1	9.231639E-1	9.391907E-1	9.300807E-1	9.446754E-1	9.821880E-1	9.668160E-1	9.722579E-1	9.614236E-1	9.638369E-1	9.787417E-1	9.495502E-1	9.731951E-1	9.788338E-1	9.714627E-1	9.203207E-1	9.673657E-1	9.250797E-1	9.033540E-1	9.847413E-1	9.564209E-1	9.105794E-1	9.533777E-1	9.907574E-1	9.684167E-1	9.262955E-1	9.220587E-1	9.499810E-1	9.612695E-1	9.731056E-1	9.594903E-1	9.266809E-1	9.517236E-1	9.664639E-1	9.345119E-1	9.081580E-1	9.734794E-1	9.385093E-1	9.919098E-1	9.554500E-1	9.560493E-1	9.345256E-1	9.377790E-1	9.242536E-1	9.722346E-1	8.957953E-1	9.636249E-1	9.552703E-1	9.577335E-1	9.564818E-1	9.380460E-1	9.611028E-1	9.220751E-1	9.813590E-1	9.344117E-1	9.228013E-1	9.644826E-1	9.285362E-1	9.581495E-1	9.710503E-1	9.764298E-1	9.196053E-1	9.478637E-1	9.727348E-1	8.992465E-1	1.048168E+0
2.975020E+2	9.872419E-1	9.397322E-1	9.722146E-1	9.943380E-1	9.545262E-1	1.001326E+0	9.732737E-1	9.952845E-1	9.956199E-1	9.844894E-1	9.472428E-1	9.718152E-1	9.970292E-1	1.041610E+0	9.677525E-1	9.753812E-1	1.019733E+0	1.027402E+0	9.346106E-1	9.875396E-1	1.002656E+0	9.830601E-1	9.839025E-1	1.011319E+0	1.030678E+0	9.914750E-1	9.517096E-1	9.616805E-1	9.812334E-1	9.635219E-1	9.754588E-1	1.012966E+0	9.439340E-1	1.002983E+0	9.894837E-1	9.886082E-1	9.528225E-1	9.944579E-1	1.016290E+0	9.422114E-1	9.927782E-1	9.908349E-1	1.005378E+0	9.293577E-1	9.597717E-1	1.005302E+0	9.757645E-1	1.011215E+0	1.066195E+0	1.003858E+0	9.598446E-1	9.892815E-1	9.762396E-1	9.804934E-1	1.011750E+0	1.019805E+0	9.543150E-1	9.955725E-1	9.931849E-1	9.776828E-1	9.864430E-1	9.768677E-1	1.022030E+0	9.829050E-1	1.005691E+0	1.006783E+0	9.748473E-1	9.896681E-1	9.959454E-1	9.614419E-1	9.807749E-1	9.799910E-1	9.877521E-1	9.700103E-1	9.800995E-1	9.977835E-1	9.557590E-1	8.973820E-1	9.727587E-1	9.739676E-1	1.047576E+0	9.953048E-1	1.046304E+0	9.386016E-1	1.008486E+0	1.005595E+0	9.788381E-1	1.028248E+0	1.026600E+0	9.474681E-1	9.883820E-1	9.959079E-1	9.776305E-1	1.012673E+0	9.549725E-1	9.674949E-1	9.881850E-1	9.594212E-1	9.670246E-1	1.003027E+0	9.552016E-1	9.947763E-1	9.986604E-1	9.414058E-1	9.587528E-1	9.365973E-1	9.985468E-1	9.678503E-1	9.397523E-1	9.979476E-1	1.026123E+0	9.416250E-1	9.892158E-1	9.943135E-1	9.673660E-1	9.944776E-1	9.770221E-1	9.846511E-1	9.701147E-1	1.034116E+0	9.980804E-1	9.830670E-1	1.003995E+0	9.995850E-1	9.319395E-1	9.428389E-1	9.575692E-1	9.891900E-1	9.717030E-1	9.918358E-1	9.786106E-1	9.488794E-1	1.003094E+0	9.821921E-1	1.003258E+0	9.894477E-1	9.693972E-1	9.433527E-1	1.002430E+0	9.429545E-1	9.693340E-1	9.527824E-1	9.618610E-1	1.041911E+0	9.703862E-1	1.005560E+0	9.542367E-1	1.019576E+0	9.667465E-1	9.934230E-1	9.469369E-1	9.560903E-1	9.625879E-1	9.872133E-1	9.766821E-1	9.973092E-1	9.813355E-1	9.291673E-1	1.002167E+0	1.034290E+0	9.855931E-1	9.580590E-1	9.708892E-1	1.020089E+0	9.737086E-1	9.474337E-1	1.004354E+0	1.008881E+0	1.009784E+0	9.755517E-1	9.286440E-1
2.980040E+2	1.011090E+0	1.018548E+0	9.918129E-1	9.593954E-1	9.856967E-1	9.627813E-1	9.884899E-1	9.945781E-1	9.634334E-1	1.000649E+0	1.005295E+0	1.008132E+0	9.844765E-1	1.008236E+0	1.000192E+0	9.919528E-1	1.000662E+0	9.901342E-1	9.980124E-1	9.542202E-1	1.003727E+0	9.920151E-1	9.995856E-1	9.523531E-1	9.799975E-1	1.025952E+0	9.990656E-1	9.762349E-1	1.004197E+0	9.708824E-1	1.012141E+0	1.014825E+0	1.007504E+0	1.011157E+0	1.004986E+0	1.014206E+0	1.015374E+0	9.952921E-1	1.024390E+0	9.922304E-1	9.892068E-1	9.873039E-1	1.014224E+0	1.029352E+0	1.011717E+0	9.966174E-1	9.875642E-1	9.763518E-1	9.837442E-1	9.909794E-1	9.804461E-1	1.048789E+0	1.018039E+0	9.996841E-1	1.035301E+0	1.036726E+0	9.659706E-1	1.004553E+0	1.034978E+0	9.871596E-1	1.042324E+0	9.760309E-1	9.867066E-1	9.988208E-1	9.715257E-1	9.538123E-1	1.011213E+0	9.611150E-1	1.010433E+0	1.007702E+0	9.883424E-1	9.901426E-1	9.870454E-1	9.653554E-1	1.002196E+0	9.616803E-1	9.643569E-1	1.018446E+0	1.017910E+0	9.718412E-1	1.036210E+0	9.996125E-1	1.013608E+0	9.667428E-1	9.805743E-1	9.843872E-1	9.928856E-1	1.019824E+0	1.016478E+0	1.003232E+0	9.926248E-1	9.960348E-1	1.007895E+0	9.879618E-1	1.006585E+0	1.003672E+0	1.002198E+0	1.020563E+0	9.800323E-1	9.891334E-1	1.032341E+0	9.995143E-1	9.875808E-1	9.880723E-1	9.852280E-1	9.866002E-1	1.007580E+0	9.952075E-1	1.006496E+0	9.737978E-1	1.008853E+0	1.038976E+0	1.037020E+0	9.826960E-1	9.752694E-1	9.830569E-1	9.882344E-1	1.016135E+0	9.454895E-1	9.861838E-1	1.017382E+0	1.009734E+0	1.011490E+0	9.969819E-1	1.028407E+0	9.926132E-1	9.965534E-1	9.879005E-1	1.001679E+0	1.007969E+0	1.040803E+0	9.738831E-1	1.014620E+0	1.009235E+0	1.002827E+0	1.004752E+0	1.006279E+0	9.773797E-1	1.028899E+0	1.019043E+0	1.005164E+0	1.020205E+0	1.004609E+0	1.008003E+0	9.803780E-1	9.901172E-1	1.002917E+0	9.923154E-1	1.008211E+0	9.807542E-1	9.540917E-1	9.948996E-1	1.017640E+0	9.850035E-1	9.582343E-1	9.888346E-1	1.004887E+0	9.708126E-1	1.021733E+0	1.017781E+0	9.630413E-1	9.943395E-1	9.549430E-1	9.879971E-1	9.934363E-1	9.572608E-1	9.922215E-1	9.651193E-1	9.851303E-1	9.763613E-1	9.676265E-1
2.985020E+2	9.204476E-1	9.584683E-1	9.599131E-1	9.981794E-1	9.479259E-1	9.311969E-1	9.823784E-1	1.016371E+0	9.595954E-1	9.565441E-1	9.764181E-1	9.206615E-1	9.503217E-1	9.828888E-1	9.542718E-1	9.877025E-1	9.781592E-1	9.381716E-1	9.541216E-1	9.652129E-1	9.542900E-1	1.005495E+0	9.552437E-1	9.917900E-1	9.377494E-1	9.862353E-1	9.319874E-1	9.875781E-1	1.010274E+0	9.517006E-1	9.520592E-1	9.561346E-1	9.499179E-1	9.871877E-1	9.655322E-1	9.561657E-1	9.944021E-1	9.671328E-1	9.250483E-1	9.694072E-1	9.491551E-1	9.771744E-1	9.343130E-1	9.489129E-1	9.677001E-1	9.540132E-1	9.832053E-1	9.976430E-1	9.846710E-1	9.561629E-1	9.710295E-1	9.572507E-1	9.547074E-1	9.436682E-1	9.687124E-1	9.483962E-1	9.663163E-1	9.649991E-1	9.808950E-1	9.968610E-1	9.683842E-1	9.829019E-1	9.773393E-1	9.719012E-1	9.801386E-1	9.872180E-1	9.417046E-1	9.850391E-1	9.390169E-1	9.411083E-1	9.678143E-1	9.502803E-1	9.322771E-1	9.748840E-1	9.486860E-1	9.771889E-1	9.883093E-1	9.388866E-1	9.258549E-1	9.613308E-1	9.306011E-1	9.847581E-1	9.754689E-1	9.740389E-1	9.453693E-1	9.521893E-1	9.720743E-1	9.852223E-1	9.315772E-1	9.467262E-1	9.498627E-1	9.781486E-1	9.647846E-1	9.643006E-1	9.778340E-1	9.631683E-1	9.668020E-1	9.404954E-1	9.734593E-1	9.762236E-1	9.363369E-1	9.829136E-1	9.513185E-1	9.622788E-1	9.565029E-1	9.666931E-1	9.714795E-1	9.693363E-1	9.400174E-1	9.885761E-1	9.554818E-1	9.511958E-1	9.690362E-1	9.595699E-1	9.831155E-1	9.421862E-1	9.899454E-1	9.777085E-1	9.866452E-1	9.942000E-1	9.767629E-1	9.652037E-1	9.464379E-1	9.733379E-1	9.750905E-1	9.471473E-1	9.588674E-1	9.839359E-1	9.400083E-1	9.673259E-1	9.317687E-1	9.781950E-1	9.448321E-1	9.843682E-1	9.764101E-1	9.612259E-1	9.647858E-1	9.478188E-1	9.843712E-1	9.671102E-1	9.224570E-1	9.808176E-1	9.824189E-1	9.299615E-1	9.828289E-1	9.440756E-1	9.766811E-1	9.969636E-1	9.834629E-1	9.452105E-1	9.778971E-1	9.946735E-1	9.495615E-1	9.848233E-1	9.853581E-1	9.426075E-1	9.908644E-1	9.652704E-1	9.446714E-1	9.639873E-1	9.707360E-1	1.014748E+0	9.851188E-1	9.728948E-1	9.164078E-1	9.866831E-1	9.582831E-1	9.516018E-1	9.543215E-1	9.109245E-1	1.019608E+0
2.990010E+2	9.647297E-1	9.061732E-1	9.245433E-1	9.141998E-1	9.471706E-1	9.389092E-1	9.317599E-1	8.741995E-1	9.637994E-1	8.990973E-1	9.312270E-1	9.496517E-1	9.277023E-1	9.567580E-1	9.272416E-1	9.073726E-1	9.469901E-1	9.473779E-1	9.277065E-1	9.451238E-1	9.405192E-1	9.136090E-1	9.114898E-1	9.656964E-1	9.307705E-1	9.030693E-1	8.935399E-1	9.616567E-1	9.127215E-1	9.613805E-1	9.336607E-1	8.918487E-1	9.366235E-1	9.143502E-1	8.924621E-1	8.896634E-1	8.910578E-1	9.296155E-1	8.849483E-1	9.439327E-1	9.265196E-1	9.399556E-1	9.193543E-1	9.060920E-1	9.388323E-1	9.376803E-1	9.534155E-1	9.284082E-1	9.126717E-1	9.161951E-1	9.535671E-1	8.860096E-1	9.565768E-1	9.114728E-1	9.569962E-1	9.195551E-1	9.312125E-1	9.170801E-1	9.028533E-1	9.007695E-1	9.058624E-1	9.147091E-1	9.046077E-1	9.079211E-1	9.358510E-1	9.063284E-1	9.411338E-1	9.323964E-1	9.755479E-1	9.111076E-1	9.782205E-1	9.415808E-1	9.504706E-1	9.266742E-1	9.337040E-1	9.511870E-1	9.224875E-1	8.970190E-1	9.601612E-1	9.186386E-1	8.979433E-1	9.490439E-1	9.204671E-1	9.441507E-1	9.329585E-1	9.460086E-1	9.734730E-1	9.098431E-1	9.247354E-1	9.683174E-1	9.321741E-1	9.539769E-1	9.058133E-1	9.496157E-1	9.371995E-1	8.947999E-1	9.198328E-1	9.418756E-1	9.307359E-1	9.306998E-1	9.351577E-1	8.989905E-1	9.514841E-1	9.511425E-1	9.416070E-1	9.377594E-1	9.120216E-1	9.352204E-1	9.073400E-1	9.532497E-1	9.509007E-1	9.202563E-1	9.349823E-1	9.256810E-1	9.002110E-1	9.185681E-1	9.326693E-1	8.969193E-1	9.449404E-1	9.329632E-1	9.137858E-1	9.338683E-1	9.378514E-1	9.223274E-1	9.102656E-1	9.246914E-1	9.515655E-1	9.578109E-1	9.535593E-1	9.154701E-1	9.654545E-1	9.185681E-1	9.357813E-1	9.448945E-1	9.480171E-1	9.231897E-1	9.034240E-1	9.468794E-1	9.110432E-1	9.430118E-1	9.346574E-1	9.407214E-1	9.271363E-1	9.493914E-1	9.586937E-1	9.390281E-1	9.376908E-1	9.307014E-1	8.807646E-1	9.368733E-1	9.522167E-1	9.297457E-1	9.457896E-1	9.160573E-1	9.410961E-1	9.742336E-1	9.133532E-1	9.405186E-1	9.028542E-1	9.273478E-1	9.265333E-1	9.313956E-1	9.626010E-1	9.346124E-1	9.301319E-1	9.356544E-1	9.361926E-1	9.746353E-1	9.307309E-1	1.080915E+0	8.900809E-1
2.995040E+2	1.001494E+0	1.046002E+0	1.047444E+0	1.002731E+0	1.007389E+0	1.055849E+0	9.997245E-1	1.007146E+0	1.005873E+0	1.052408E+0	1.030247E+0	1.030982E+0	1.019977E+0	9.818716E-1	1.023741E+0	1.023881E+0	1.013927E+0	1.067036E+0	1.038685E+0	1.059333E+0	1.011168E+0	1.017417E+0	1.037857E+0	1.015091E+0	1.007766E+0	1.016256E+0	1.055498E+0	1.005958E+0	9.803621E-1	1.019696E+0	1.040236E+0	1.048070E+0	1.004735E+0	1.009171E+0	1.051443E+0	1.035188E+0	1.008547E+0	1.028812E+0	1.040025E+0	1.019483E+0	1.050321E+0	1.028770E+0	1.011978E+0	1.049414E+0	1.021110E+0	1.038922E+0	1.016016E+0	1.007927E+0	1.021395E+0	1.042742E+0	9.831943E-1	1.003470E+0	9.799753E-1	1.021315E+0	9.848962E-1	1.013920E+0	1.029578E+0	1.015021E+0	9.759092E-1	1.035413E+0	9.839344E-1	1.034877E+0	1.010407E+0	1.043971E+0	1.053024E+0	1.035128E+0	1.003378E+0	1.034500E+0	9.986675E-1	1.024849E+0	1.011207E+0	1.028578E+0	1.039707E+0	1.021890E+0	1.022484E+0	1.029419E+0	1.023349E+0	1.033478E+0	1.018115E+0	1.040310E+0	1.029328E+0	9.936646E-1	1.004014E+0	1.023601E+0	1.024891E+0	1.028843E+0	1.009099E+0	1.023411E+0	1.050738E+0	1.033336E+0	1.034082E+0	1.012048E+0	1.039686E+0	1.025365E+0	1.020640E+0	1.048313E+0	1.043391E+0	1.014698E+0	1.022062E+0	1.005588E+0	1.019554E+0	1.024757E+0	1.016281E+0	9.987006E-1	1.021633E+0	1.023675E+0	1.008884E+0	1.028917E+0	1.062415E+0	1.013373E+0	1.019560E+0	1.009518E+0	9.787899E-1	1.031499E+0	1.035115E+0	1.054829E+0	9.965472E-1	1.031946E+0	1.022676E+0	1.004014E+0	1.042601E+0	1.021265E+0	1.013794E+0	1.012571E+0	1.007375E+0	1.000322E+0	1.013221E+0	1.016115E+0	9.892984E-1	1.031796E+0	9.815934E-1	1.024545E+0	1.032390E+0	9.987793E-1	1.006752E+0	1.003878E+0	1.046109E+0	1.027380E+0	9.916577E-1	9.755366E-1	1.034316E+0	9.945732E-1	9.889952E-1	1.075390E+0	1.010293E+0	1.018513E+0	1.010229E+0	1.011718E+0	9.999005E-1	1.018597E+0	1.028599E+0	1.003025E+0	9.844543E-1	1.051576E+0	1.029585E+0	1.012278E+0	9.956150E-1	1.031031E+0	1.025690E+0	1.028595E+0	1.047149E+0	9.731734E-1	1.006641E+0	9.997274E-1	1.060788E+0	1.039297E+0	1.004838E+0	9.910651E-1	1.053472E+0	9.931983E-1	9.731081E-1
3.000060E+2	1.102239E+0	1.070808E+0	1.076287E+0	1.125494E+0	1.111818E+0	1.111264E+0	1.097647E+0	1.107705E+0	1.107298E+0	1.091302E+0	1.056813E+0	1.090573E+0	1.117523E+0	1.070245E+0	1.094554E+0	1.089091E+0	1.060262E+0	1.057280E+0	1.081475E+0	1.076111E+0	1.090296E+0	1.071464E+0	1.095824E+0	1.075070E+0	1.143717E+0	1.068487E+0	1.119909E+0	1.068572E+0	1.092446E+0	1.096340E+0	1.061903E+0	1.089122E+0	1.101219E+0	1.078134E+0	1.085577E+0	1.104777E+0	1.090619E+0	1.079148E+0	1.125589E+0	1.074947E+0	1.084798E+0	1.066796E+0	1.120130E+0	1.066229E+0	1.060640E+0	1.072767E+0	1.059799E+0	1.089670E+0	1.097518E+0	1.093921E+0	1.111763E+0	1.104480E+0	1.090702E+0	1.123859E+0	1.054095E+0	1.081402E+0	1.106923E+0	1.098347E+0	1.105364E+0	1.079797E+0	1.099495E+0	1.091481E+0	1.120940E+0	1.077386E+0	1.059460E+0	1.117513E+0	1.102570E+0	1.086949E+0	1.076335E+0	1.115234E+0	1.054416E+0	1.089419E+0	1.090500E+0	1.111196E+0	1.092931E+0	1.080525E+0	1.101498E+0	1.112171E+0	1.077959E+0	1.107879E+0	1.105918E+0	1.072921E+0	1.086443E+0	1.091467E+0	1.116207E+0	1.088572E+0	1.052468E+0	1.061699E+0	1.076472E+0	1.048388E+0	1.091257E+0	1.059792E+0	1.081822E+0	1.072757E+0	1.057741E+0	1.090047E+0	1.067777E+0	1.082368E+0	1.093710E+0	1.098355E+0	1.076611E+0	1.093825E+0	1.093336E+0	1.099806E+0	1.095029E+0	1.085272E+0	1.100035E+0	1.071319E+0	1.083731E+0	1.071003E+0	1.065204E+0	1.080054E+0	1.080171E+0	1.100555E+0	1.106289E+0	1.101360E+0	1.092604E+0	1.077291E+0	1.100249E+0	1.082639E+0	1.049468E+0	1.069929E+0	1.090426E+0	1.094782E+0	1.078862E+0	1.135226E+0	1.079792E+0	1.054237E+0	1.115454E+0	1.077439E+0	1.080380E+0	1.104809E+0	1.072377E+0	1.062723E+0	1.065994E+0	1.106954E+0	1.079403E+0	1.100542E+0	1.084029E+0	1.095298E+0	1.103406E+0	1.063683E+0	1.096841E+0	1.037254E+0	1.067807E+0	1.108266E+0	1.072482E+0	1.068301E+0	1.127660E+0	1.118565E+0	1.087195E+0	1.077656E+0	1.102555E+0	1.062540E+0	1.085726E+0	1.082046E+0	1.095281E+0	1.092367E+0	1.105052E+0	1.062289E+0	1.092540E+0	1.086343E+0	1.090696E+0	1.104768E+0	1.099236E+0	1.081105E+0	1.108464E+0	1.117578E+0	1.076345E+0	1.038601E+0	1.149576E+0
