Photon Energy (eV)	#1	#2	#3	#4	#5	#6	#7	#8	#9	#10	#11	#12	#13	#14	#15	#16	#17	#18	#19	#20	#21	#22	#23	#24	#25	#26	#27	#28	#29	#30	#31	#32	#33	#34	#35	#36	#37	#38	#39	#40	#41	#42	#43	#44	#45	#46	#47	#48	#49	#50	#51	#52	#53	#54	#55	#56	#57	#58	#59	#60	#61	#62	#63	#64	#65	#66	#67	#68	#69	#70	#71	#72	#73	#74	#75	#76	#77	#78	#79	#80	#81	#82	#83	#84	#85	#86	#87	#88	#89	#90	#91	#92	#93	#94	#95	#96	#97	#98	#99	#100	#101	#102	#103	#104	#105	#106	#107	#108	#109	#110	#111	#112	#113	#114	#115	#116	#117	#118	#119	#120	#121	#122	#123	#124	#125	#126	#127	#128	#129	#130	#131	#132	#133	#134	#135	#136	#137	#138	#139	#140	#141	#142	#143	#144	#145	#146	#147	#148	#149	#150	#151	#152	#153	#154	#155	#156	#157	#158	#159	#160	#161	#162	#163	#164	#165	#166	#167	#168	#169	#170	#171	#172	
2.790010E+2	5.267777E-4	-2.778819E-3	-9.776474E-3	2.245070E-3	-6.191140E-3	-4.623810E-3	-1.014916E-2	-7.094570E-3	-3.737999E-3	6.561092E-5	-3.752276E-3	3.584551E-3	-3.497504E-3	2.198712E-3	-5.454237E-3	-2.070932E-3	-4.343526E-3	-4.507293E-3	-1.301612E-2	-3.407689E-3	-5.312030E-3	-7.659115E-3	-1.903039E-3	-5.757759E-4	-9.472260E-3	-6.961412E-3	-8.601877E-3	-4.229549E-3	1.165593E-3	-3.926890E-3	-2.951290E-3	-7.594214E-3	-1.264244E-2	-3.321355E-3	-7.232984E-3	-9.913951E-4	-1.517528E-2	6.366893E-3	-1.136160E-2	-1.491172E-3	1.731042E-3	-6.595677E-3	-3.745904E-3	-1.064583E-2	-7.406595E-4	-9.890888E-3	3.472821E-3	-6.484084E-3	-6.151669E-3	-2.952445E-3	9.377783E-4	-5.473476E-3	-6.864741E-3	-7.382717E-3	-9.683234E-3	-1.304890E-2	-2.837192E-3	-2.137794E-3	3.875068E-3	-7.629353E-3	-5.845442E-3	-1.020457E-2	-4.951650E-3	2.326960E-3	-1.026581E-2	-5.792199E-3	-7.817317E-3	4.484750E-3	3.433377E-3	7.218774E-3	-9.316846E-4	-3.732429E-3	-4.807281E-3	-1.108970E-2	-1.355498E-2	-1.835270E-2	-6.902916E-3	-5.373360E-3	-2.640623E-3	-6.022568E-3	-5.520239E-3	-9.042700E-3	-4.944498E-3	-1.404079E-3	-3.103062E-3	-3.816722E-4	-2.727014E-3	-8.379762E-3	-5.497487E-3	4.070049E-3	-1.503813E-3	-5.374838E-3	-4.514654E-4	-7.656477E-3	-3.829179E-3	-3.687856E-3	-6.954531E-3	-5.719598E-3	4.007398E-3	-3.609276E-3	-5.561016E-3	-3.067102E-3	-9.265068E-3	-4.114972E-3	3.721685E-3	5.326349E-4	-4.704270E-3	-1.374753E-2	-1.161535E-4	-8.141177E-3	-5.087323E-3	-5.481688E-3	-5.455299E-3	-1.096989E-2	-3.858586E-3	-6.999854E-3	-1.363526E-2	-2.340469E-3	-2.913524E-3	-3.031919E-3	5.882522E-4	-1.933646E-2	-2.556184E-3	-2.944938E-3	-2.330900E-3	-8.323665E-3	-4.042206E-3	-3.529723E-3	-9.683628E-3	-7.891481E-4	-6.167516E-3	-1.327945E-2	-7.591559E-3	8.182341E-4	9.805755E-3	2.656799E-3	1.495760E-3	-1.603794E-2	1.842017E-3	-1.337345E-2	-1.022098E-2	-1.056700E-2	-3.019108E-3	-1.833124E-3	-2.207531E-3	1.567550E-3	-1.523243E-2	-2.941171E-3	-2.370186E-3	-4.136132E-3	-4.674100E-3	-6.137493E-3	-1.390355E-2	-8.102687E-3	-6.119593E-3	-6.427701E-3	6.744015E-3	-6.873864E-3	-1.213363E-2	1.141333E-2	-4.336065E-3	7.201907E-3	-9.037534E-3	-2.154270E-3	-6.159524E-3	-1.058387E-2	-1.353304E-4	-2.357108E-3	8.265456E-4	1.499469E-3	-1.709619E-2	-1.257031E-2
2.795040E+2	1.062531E-2	-8.135722E-3	-1.831238E-3	-6.762042E-3	-7.000005E-3	-1.551707E-3	2.326017E-3	-1.263426E-2	5.006399E-3	-6.520301E-3	-6.363567E-3	-8.145733E-3	-7.969470E-3	-8.096173E-3	-4.769086E-3	-8.453429E-3	-3.800110E-4	-2.313242E-3	1.030425E-3	-6.294473E-3	6.130580E-3	2.448771E-3	-1.078534E-2	-8.867898E-3	4.768987E-3	1.068174E-2	-2.421554E-3	2.932185E-3	1.134948E-3	-7.661782E-3	-1.220483E-2	2.371335E-4	-6.367066E-3	-3.957998E-3	5.899758E-3	-1.772003E-4	-1.395615E-3	-6.308165E-3	-8.563500E-3	-1.474386E-3	-7.732765E-3	7.283609E-3	-9.093280E-3	-1.606460E-2	-2.921865E-3	2.482379E-4	-4.423606E-3	-1.688119E-2	-6.154791E-3	-4.604850E-3	-8.206609E-4	5.995381E-4	-1.352380E-2	2.877033E-3	-1.922683E-3	-1.474475E-2	-8.499894E-3	-9.870028E-3	-4.146631E-3	-5.810012E-3	5.016378E-3	-8.469645E-3	-6.552400E-3	3.172891E-6	9.191126E-3	-1.376337E-3	-1.150909E-2	-3.958808E-3	1.929675E-3	-8.814467E-3	3.069077E-3	-6.371082E-3	1.627962E-3	-2.467197E-3	-2.024214E-3	1.286145E-3	-5.313104E-3	-9.374196E-4	-9.077783E-3	-6.791329E-3	-8.260277E-3	-3.869746E-3	-8.950037E-3	-7.837658E-3	-1.383008E-2	1.484156E-3	-5.154346E-3	-4.938377E-3	-6.420933E-3	2.091139E-3	2.073055E-3	-7.440139E-3	-1.298903E-3	-5.932337E-3	-1.340560E-2	-1.413680E-3	-2.798549E-3	3.659160E-3	-9.943975E-3	6.200852E-3	-1.130841E-2	-1.107363E-2	-3.507029E-3	-4.973220E-3	-1.102521E-2	-4.485580E-4	-1.937626E-3	-9.382376E-3	5.547778E-3	-4.692875E-3	-3.461450E-3	-9.283825E-3	-8.524821E-3	1.446881E-3	-8.935245E-3	-6.128800E-3	-4.116804E-3	5.092316E-3	-2.946701E-3	-3.900241E-3	-6.264381E-3	2.728278E-3	-2.595116E-3	-2.137745E-3	1.012548E-3	-9.653391E-4	-7.601096E-3	-3.516520E-3	7.239848E-3	-7.457424E-3	-3.196867E-3	1.055729E-2	-1.132392E-2	-2.015673E-2	6.192134E-3	-3.107575E-3	-4.686404E-3	1.335991E-4	-1.574095E-4	-9.880718E-3	-6.315001E-3	-4.455497E-3	-1.268744E-2	-3.366031E-3	-9.841749E-3	-1.418216E-3	-1.073464E-2	-2.110883E-3	-9.692803E-3	-8.764747E-3	-2.038461E-3	-1.195453E-2	-8.680197E-3	-1.596778E-3	-2.151810E-3	-1.326222E-2	-1.043640E-2	-5.251582E-3	-8.743992E-3	-6.644306E-3	-3.409579E-3	3.669884E-3	-2.093137E-3	-9.498328E-3	-6.923492E-3	-1.683523E-3	-1.496308E-4	-2.397730E-3	-1.182114E-2	-1.051884E-2	1.184871E-2	3.070049E-3
2.800050E+2	5.780769E-3	1.428002E-3	-1.017680E-3	-8.862610E-3	-1.749904E-3	-1.709413E-3	3.028108E-3	6.345481E-3	-1.305859E-3	1.485839E-3	1.160729E-3	1.107581E-2	-4.417812E-3	-7.482855E-3	7.873947E-4	-2.270280E-3	-6.119831E-3	-2.472106E-3	1.713006E-3	5.797599E-3	-4.109310E-3	-5.507378E-4	-5.568112E-3	-6.543150E-3	-1.131130E-2	-1.389708E-3	-6.095000E-3	-8.919566E-3	-3.694154E-3	-1.366105E-3	-6.173670E-3	-2.774519E-3	6.938782E-3	-9.641312E-3	3.979316E-3	-1.016769E-2	1.192352E-3	1.524197E-3	1.147822E-3	-5.544911E-3	-3.910259E-3	-1.870972E-3	-6.424968E-3	7.163029E-3	1.311051E-3	-9.840568E-3	5.002633E-3	-2.196201E-3	-2.949368E-3	-6.245888E-3	-1.059038E-2	1.346745E-2	5.520129E-3	-2.841567E-3	-9.291536E-4	-5.581714E-3	-3.749604E-3	-1.329503E-3	2.981087E-3	4.961689E-4	-7.652470E-3	-8.427607E-3	1.371493E-3	-2.454093E-3	-4.857274E-3	7.413561E-3	3.231554E-3	-4.088470E-3	-4.125561E-3	-1.019296E-2	4.879324E-3	-3.873993E-3	-3.296189E-3	-6.817799E-3	2.508969E-3	-9.191549E-3	5.852096E-3	-1.117090E-2	1.296947E-3	-4.658315E-3	-2.048492E-3	-1.037979E-3	-1.887242E-3	1.153197E-3	8.186391E-3	-1.544676E-3	-1.089122E-2	-1.626822E-3	-2.974480E-4	2.870396E-3	1.012643E-3	-7.605567E-3	3.446042E-3	3.472225E-3	-7.161831E-3	-4.434438E-5	-4.455325E-4	-3.081683E-3	-2.253718E-3	-1.003210E-2	2.883989E-3	-6.108044E-4	-7.754609E-3	-1.177647E-2	3.520939E-3	-5.356921E-3	7.150877E-3	-7.948123E-4	-9.204003E-3	-3.980542E-3	-9.336487E-3	-1.199013E-3	6.247982E-3	9.877595E-3	3.129379E-3	1.766204E-3	7.628491E-3	-3.447025E-3	4.842515E-3	-2.340502E-3	5.522083E-3	3.495198E-3	-8.011466E-4	2.913619E-4	-4.173002E-3	-6.856191E-3	6.824151E-3	1.437812E-3	-6.345374E-3	-1.459352E-4	8.650905E-3	-6.625807E-4	1.296277E-2	-7.583988E-3	4.229691E-3	-1.465875E-2	1.292289E-3	-3.831707E-3	-1.383718E-2	1.472343E-3	6.088799E-4	-2.856844E-3	3.193906E-3	-2.766796E-3	-9.140002E-3	-3.525076E-3	-4.544748E-3	4.809392E-3	-5.464368E-3	2.081434E-3	-4.898154E-3	2.733277E-3	6.891548E-3	-1.022036E-2	-1.313184E-3	-2.749620E-3	-7.169425E-3	-2.112272E-3	5.503469E-3	-3.044885E-3	-8.393667E-3	-8.118129E-4	7.062749E-4	-2.351998E-3	-8.531508E-3	-1.075187E-2	-4.168779E-3	-4.251431E-3	-8.793705E-3	1.261668E-3	-1.702566E-3	-4.931470E-3
2.805050E+2	-3.573985E-3	-8.376069E-3	-1.859223E-4	8.479500E-4	-4.956152E-3	-7.241532E-3	2.040344E-4	-2.022016E-3	1.173398E-3	-1.904003E-3	-4.081770E-3	-5.519545E-3	-8.678676E-4	-9.768416E-3	7.752836E-3	5.464872E-3	9.634636E-3	-2.096984E-4	1.199942E-2	1.920434E-3	-3.547267E-3	7.115040E-4	-9.242288E-3	-3.394427E-3	-3.098992E-3	-8.621618E-3	-9.797217E-4	-3.680154E-3	-8.464010E-3	-2.299347E-3	1.130473E-2	1.349634E-3	-3.059046E-3	-2.572018E-4	-7.349140E-3	1.118120E-3	-9.965365E-4	2.720901E-3	-9.648292E-3	-3.311162E-3	-6.387948E-3	5.450799E-3	-2.824245E-3	9.667783E-3	4.414254E-4	4.941181E-3	-1.527337E-3	-1.099450E-4	-5.770321E-4	-6.360618E-3	-2.814179E-3	-1.006305E-2	-1.080368E-2	-2.281188E-3	9.157994E-3	-3.201239E-3	-2.271343E-3	-5.342493E-3	-5.248737E-3	4.933374E-3	-1.121740E-3	2.521824E-3	-3.557492E-3	9.610781E-3	5.473931E-4	1.109612E-3	7.736012E-3	-8.660755E-4	4.631777E-3	2.338263E-3	8.001868E-6	1.070115E-2	-1.791717E-3	-5.120670E-3	-2.001954E-3	-1.093888E-3	2.494597E-3	5.428866E-3	-4.078406E-4	2.717690E-3	5.927542E-3	-3.196032E-3	7.008078E-3	2.878578E-3	-1.801886E-3	4.359729E-4	-9.790847E-4	6.053469E-3	5.013774E-3	-9.617389E-3	-1.226291E-2	-3.659295E-3	3.367445E-3	3.750146E-3	1.593915E-3	-1.679360E-3	-3.036649E-3	-9.296751E-4	3.698035E-3	-3.596761E-4	-4.359428E-3	-4.121328E-3	-6.185377E-3	5.652309E-4	-6.933110E-3	-1.320856E-3	-3.040765E-3	-2.676502E-3	-4.471744E-3	-8.687556E-5	5.306373E-3	-9.486551E-3	-3.818510E-3	-6.443510E-3	4.009756E-3	-3.696562E-3	2.737676E-3	-1.375896E-2	-4.281936E-3	-6.669543E-3	-1.331891E-2	-8.097719E-3	-1.163470E-2	-4.126646E-3	4.896114E-3	2.735465E-3	-1.017677E-3	-4.459322E-3	2.389463E-3	-1.521200E-2	1.147882E-2	-4.473044E-3	3.207510E-3	7.625236E-3	-1.266594E-2	2.296955E-3	1.141255E-3	7.003191E-4	-5.316185E-3	-1.364225E-3	4.671627E-4	-1.345151E-2	-2.538277E-3	-3.638234E-3	1.084485E-2	-8.539781E-3	1.627599E-3	-5.079629E-3	-1.967633E-3	1.017085E-3	-5.073700E-3	-5.631724E-3	1.502499E-3	-5.663007E-3	6.624080E-3	2.984958E-6	-1.360211E-3	6.784591E-3	-1.404830E-3	1.300662E-3	7.790390E-3	-6.999906E-3	2.465139E-3	-7.327555E-3	-7.891375E-3	3.324951E-3	-7.181560E-3	-5.230791E-3	2.587058E-3	1.637526E-2	-6.315895E-3	1.048782E-2
2.810050E+2	-4.508450E-3	-4.930669E-3	1.068678E-2	-3.142476E-3	3.869465E-4	-3.390610E-3	-6.022655E-3	5.220454E-3	-1.366210E-2	-6.785088E-3	-3.242271E-3	-1.682193E-3	6.022549E-4	1.148396E-3	-6.459435E-3	-1.421916E-2	-3.077550E-3	4.571604E-3	-2.825284E-3	-8.436335E-3	1.813106E-3	3.530486E-3	7.608792E-3	3.156807E-3	-6.438857E-3	1.611586E-3	-5.359568E-3	-1.351998E-2	-5.380388E-3	-3.906734E-3	-5.520701E-3	-1.070847E-2	-3.934511E-4	-4.210652E-3	-4.851768E-4	-3.774786E-3	-9.887859E-4	-1.115524E-2	2.625957E-3	2.158253E-3	6.937667E-4	-3.487986E-3	4.618399E-3	6.068734E-3	-1.743084E-3	6.363385E-3	-4.715139E-3	-2.318824E-3	-4.757672E-3	-5.567267E-3	3.314518E-3	-4.018079E-3	2.430226E-3	1.086993E-3	-1.940677E-3	-6.936170E-4	-5.491141E-3	5.518622E-3	-2.246324E-3	-5.786544E-4	3.031054E-3	-1.903504E-3	-4.358516E-3	-4.873106E-3	-5.906059E-3	8.900730E-3	-8.793758E-3	-1.007268E-2	-4.969910E-3	-2.164049E-3	-9.675664E-3	4.636560E-3	-6.611407E-3	1.298238E-3	2.433917E-3	8.139951E-3	-7.193173E-4	-1.107374E-2	1.192376E-3	2.723839E-3	5.253984E-4	-1.428621E-3	8.606585E-3	-4.405187E-3	-4.079091E-3	-8.489363E-3	-1.144891E-2	4.326742E-3	-7.482220E-3	-6.439302E-3	3.067812E-3	8.428592E-3	-4.787961E-3	-2.639268E-3	2.393814E-3	-5.468187E-3	3.612980E-3	-2.636736E-3	-1.343532E-2	-9.214347E-3	-2.885584E-3	1.613520E-3	3.324256E-3	-1.849928E-3	-2.542500E-3	4.710278E-3	-7.301420E-3	-8.729937E-3	6.910445E-3	6.948049E-3	2.887027E-3	-3.525596E-3	-1.798397E-3	1.858595E-4	-2.023022E-3	1.731013E-3	1.960443E-3	4.110939E-3	-2.227831E-3	-4.159213E-3	-1.375555E-3	9.575120E-4	-7.803928E-3	-1.104419E-2	-2.640002E-3	7.890583E-4	8.414032E-3	-8.783274E-3	-5.597611E-3	-3.176455E-3	-1.051301E-2	1.873746E-3	-2.686405E-3	3.988663E-3	-4.750123E-3	7.154517E-3	2.866955E-3	-4.103793E-3	-3.440192E-3	-3.199381E-3	-1.106195E-3	4.879195E-4	-3.386297E-3	3.826629E-3	-2.569230E-3	6.793641E-3	-1.193400E-2	-7.551647E-4	4.563898E-3	-4.467720E-3	-6.954328E-3	1.158763E-2	-4.603049E-3	-6.640957E-3	-5.568613E-3	3.844875E-3	-5.253658E-4	-3.078981E-3	2.807702E-4	-1.212715E-2	-1.825753E-3	5.793418E-3	-1.038754E-2	2.337702E-3	6.179818E-3	5.971008E-3	-4.319478E-3	-1.027345E-3	3.625321E-3	-9.095376E-3	-1.951075E-3	1.436147E-2
2.815020E+2	-1.364955E-2	9.166485E-3	-8.117390E-3	8.678684E-3	8.089710E-3	5.063487E-4	-1.557545E-3	-1.099500E-3	2.937458E-3	2.993821E-3	-4.911615E-3	-4.553312E-3	2.850129E-3	-8.283897E-3	-3.576955E-3	-3.954212E-3	9.671172E-3	-1.057285E-2	-7.148677E-3	-5.603000E-3	1.860692E-3	-8.373446E-3	9.423605E-3	2.380060E-3	-3.071487E-3	-1.173982E-2	-7.077450E-3	7.955756E-3	1.011693E-2	6.551634E-3	1.364037E-2	-7.299374E-4	-4.829142E-3	2.942557E-3	-7.328052E-3	-2.104579E-3	-9.156484E-3	1.479865E-4	-6.343429E-3	-7.189763E-3	2.309619E-3	-1.239297E-2	9.240509E-4	-5.526586E-3	-6.802505E-3	-6.734429E-4	-1.104694E-2	6.570414E-3	-5.455840E-4	2.424577E-3	7.749071E-3	-4.852896E-3	-6.340500E-3	-1.027804E-2	-4.462584E-3	5.223361E-3	-1.427638E-3	1.689041E-3	3.834616E-3	2.207641E-3	2.244177E-3	1.107608E-3	2.072104E-3	-4.830339E-3	-2.191144E-3	-5.078235E-3	-2.335205E-3	-1.003796E-2	-5.658796E-3	-1.627782E-4	-4.798570E-3	3.526778E-4	-5.768538E-3	-5.887031E-3	-2.862147E-3	-3.132327E-3	-1.477327E-3	7.135889E-3	-1.164855E-3	5.285763E-4	-5.738709E-3	3.931040E-3	-1.373216E-2	-5.282259E-3	-2.236068E-4	2.001818E-3	5.516071E-3	-7.691584E-3	5.050989E-3	7.498305E-4	-5.026984E-4	3.426180E-3	-5.561110E-3	-3.393156E-3	1.649542E-3	-7.700135E-3	-7.982504E-3	-1.769911E-3	-7.309557E-3	-1.630135E-2	8.611551E-3	-7.366308E-3	1.581791E-2	-5.127862E-3	-5.956836E-3	-3.134830E-3	-8.191482E-3	7.893006E-3	-1.114152E-3	-8.833797E-3	-4.416508E-3	4.715984E-3	-2.728126E-3	-4.197623E-3	3.220756E-3	-7.131508E-3	-8.248400E-3	-2.614970E-3	6.097638E-3	-4.981152E-3	-4.069541E-4	-3.596755E-3	-1.801428E-3	-1.271276E-2	-5.917665E-3	7.172203E-3	-6.845905E-3	-5.124109E-3	-1.264763E-2	7.596692E-3	4.890754E-4	-3.545239E-3	-6.316114E-3	7.368999E-4	-8.112403E-3	-6.590766E-3	-7.528153E-3	-4.703277E-3	-1.103023E-2	6.514247E-3	-1.044515E-3	-2.161336E-3	-6.532363E-3	-2.843145E-3	2.109970E-6	-1.092563E-3	7.213721E-4	-4.226026E-3	-6.983652E-3	1.453434E-3	-5.102716E-3	-8.059731E-3	-1.078125E-3	-6.947178E-3	-2.507779E-3	2.919560E-5	3.757440E-3	1.769409E-3	-8.111779E-3	-1.208719E-2	-8.287724E-4	-6.160519E-3	-4.446172E-3	-1.213671E-2	6.237824E-3	-2.858785E-3	-4.283110E-3	-1.362854E-4	1.573707E-3	2.814527E-3	2.998214E-4	-2.061229E-2
2.820060E+2	5.087744E-3	-3.613112E-3	-4.836432E-3	-3.760711E-3	7.881948E-4	-1.237335E-2	2.343705E-3	2.019247E-3	-5.505574E-3	-7.462821E-4	-1.192066E-3	-2.318492E-3	-1.229582E-3	2.982144E-3	1.043018E-3	-6.029150E-3	-1.921326E-3	-7.898696E-3	1.066861E-3	3.257701E-3	-7.934945E-3	-3.083497E-3	-4.501238E-3	-5.547129E-4	-2.737704E-3	-6.695760E-3	9.936030E-3	-6.484951E-4	-4.232204E-3	1.278728E-3	1.808524E-4	-3.950754E-3	8.631153E-4	8.068711E-3	-1.311435E-2	7.151679E-4	5.632336E-3	3.169466E-3	6.342390E-3	1.738149E-3	3.432489E-3	-4.630480E-3	-6.250028E-4	-6.130512E-3	6.736543E-3	1.068145E-3	-1.949923E-3	1.750958E-3	1.466441E-3	1.079719E-2	-7.750900E-3	-3.710555E-3	-2.302992E-3	-4.603188E-3	1.651971E-4	5.620567E-3	-8.398551E-3	2.829254E-3	-2.925095E-3	-2.330126E-4	-4.100443E-3	3.735898E-3	4.748734E-7	-6.822673E-3	-2.820629E-3	-1.028667E-2	1.001503E-2	5.430928E-3	-8.327690E-3	-5.672304E-3	2.824655E-3	4.187378E-3	3.428029E-3	1.684201E-3	-6.130011E-3	-1.762497E-3	-8.439219E-3	6.116076E-5	1.770277E-2	3.878554E-3	3.603781E-3	-1.502773E-4	-1.111410E-2	5.988907E-3	1.645922E-3	-1.263705E-2	-6.036276E-4	3.862505E-3	-1.805229E-3	-2.901669E-3	5.273276E-3	-5.342770E-3	4.975332E-4	-3.089698E-3	4.415001E-3	-4.339027E-3	6.525197E-3	-7.215731E-3	5.245421E-3	-2.623245E-3	-7.554622E-3	8.387819E-3	-1.133761E-2	7.752269E-3	-5.677639E-3	-8.393169E-3	-2.354179E-3	-1.372702E-3	-6.472715E-3	5.022165E-3	6.029127E-5	2.842010E-3	4.556613E-3	-2.985584E-3	-3.488127E-3	8.378673E-3	-9.556731E-3	7.999516E-3	-8.529606E-3	-4.620294E-3	-7.805492E-3	-4.107279E-3	6.230247E-4	7.446771E-3	3.706721E-3	-6.021747E-3	3.654123E-4	1.004469E-3	8.269784E-3	8.543584E-3	-1.419771E-2	-3.172395E-3	-1.529452E-3	2.022812E-3	-4.093293E-3	-1.354440E-3	-1.048549E-3	-5.042502E-3	7.775253E-3	1.630061E-3	-5.411022E-3	5.664155E-3	2.687971E-3	-4.757309E-3	-3.834188E-3	-5.012848E-3	8.529654E-3	-3.238351E-4	-1.469608E-3	-5.984587E-3	7.543796E-3	8.890009E-3	5.532158E-3	1.513278E-2	-2.994352E-3	-9.317303E-3	-7.764511E-3	-4.380417E-3	8.104788E-4	-2.007117E-3	5.368785E-3	-1.143988E-2	3.948001E-3	6.848410E-3	-8.084054E-4	2.413417E-3	1.080601E-2	-2.272741E-3	-7.513960E-3	-1.971997E-2	8.217700E-4	-1.254487E-2
2.825030E+2	-7.001596E-3	8.651299E-3	-2.902000E-3	5.007848E-3	5.340652E-3	1.554005E-2	-2.209231E-3	1.924121E-3	3.202969E-3	8.203771E-4	8.997033E-3	1.483090E-3	1.666905E-3	2.914008E-3	3.125346E-3	1.134136E-2	4.401773E-3	1.777751E-2	1.004753E-4	3.149880E-3	1.464999E-3	4.646817E-3	-2.780981E-3	5.972668E-3	1.479837E-2	6.725662E-3	3.687173E-3	3.765984E-3	-1.191650E-3	-3.630476E-3	-6.814709E-3	1.885577E-2	4.384071E-3	-7.606850E-4	4.994656E-3	-4.286426E-3	1.315420E-2	4.450463E-3	8.731475E-3	4.822578E-3	-1.393752E-3	2.817262E-3	7.736972E-3	1.001213E-3	2.990343E-3	-3.985514E-3	6.800224E-3	1.356048E-2	-2.890578E-4	9.116126E-3	-4.284619E-3	6.677224E-3	8.745680E-3	4.147647E-3	-7.687257E-4	4.690310E-3	9.363108E-3	-3.680576E-4	-6.045070E-3	-4.918059E-3	-5.003875E-3	8.124176E-3	1.539908E-3	-3.805850E-3	6.384129E-3	2.219956E-3	6.229488E-3	9.566275E-3	7.276755E-3	6.019345E-3	-2.122207E-3	-8.082927E-3	5.789220E-3	8.080665E-3	2.750437E-3	7.452428E-3	8.497860E-3	-4.999444E-3	-3.329513E-3	-7.096559E-4	-3.715664E-3	-5.565256E-3	1.941071E-2	-1.414805E-3	5.192208E-5	3.083151E-3	1.231152E-2	-5.750464E-3	-3.664795E-3	5.030700E-3	1.557823E-3	-4.407858E-3	5.357930E-3	8.787531E-4	1.941488E-3	3.252455E-3	6.447399E-3	-3.155188E-3	1.661779E-3	1.073677E-2	8.234860E-3	-4.288361E-3	6.974799E-3	8.502580E-3	1.510335E-2	-4.851181E-4	-1.505059E-3	7.320996E-3	4.061066E-3	7.336560E-3	-1.060799E-5	5.017861E-3	1.444673E-2	5.299125E-3	-2.571573E-3	-7.875039E-3	1.562420E-3	-6.738069E-3	1.508508E-3	1.144643E-2	-5.295924E-3	9.507981E-3	7.358682E-3	1.328237E-3	-3.137449E-3	-3.041836E-3	-5.619659E-4	1.771012E-2	4.598814E-3	-1.333834E-3	1.089137E-2	4.105776E-3	2.880364E-3	2.733620E-3	5.669851E-3	-1.416040E-3	-1.991489E-3	1.512892E-2	8.883787E-4	6.639467E-4	1.267667E-2	3.068452E-3	5.015852E-3	-1.044759E-3	4.550049E-3	2.965539E-3	1.664197E-2	3.147197E-3	1.969767E-2	1.232709E-2	1.473817E-2	-2.779024E-3	8.084806E-3	-5.877047E-3	7.138357E-3	6.164316E-3	1.269473E-2	1.039473E-3	1.596451E-3	3.955277E-3	-6.315483E-3	4.386072E-3	5.976566E-3	5.976743E-3	1.395402E-3	1.101350E-2	-6.474595E-3	-4.003540E-3	6.172595E-3	6.862132E-3	-1.258365E-3	1.092749E-2
2.830060E+2	6.712981E-3	8.588605E-3	1.798035E-2	5.748287E-3	5.291696E-3	1.484402E-2	1.203672E-2	7.341044E-3	1.189131E-2	1.059003E-2	1.338580E-2	6.075825E-3	1.286295E-2	2.438808E-2	7.551118E-3	2.019093E-2	-7.865339E-3	5.624764E-3	7.079893E-3	9.615883E-3	9.634175E-3	8.329218E-3	1.774860E-2	8.426428E-3	1.656324E-2	1.638934E-2	1.691197E-2	1.634382E-2	1.054493E-2	1.496097E-2	8.539246E-3	5.315355E-3	1.510518E-2	1.113794E-2	2.063597E-2	1.966878E-2	7.733812E-3	-9.164994E-4	1.706918E-2	1.029241E-2	1.125781E-2	1.342641E-2	9.433978E-3	1.446678E-2	7.287513E-4	1.176946E-2	8.387267E-3	6.108391E-3	1.995873E-2	3.393174E-3	1.425938E-2	7.373847E-3	2.313968E-2	1.927503E-2	1.038387E-2	2.173598E-2	2.331226E-2	9.010959E-3	9.921084E-3	1.153191E-2	1.343236E-2	1.351582E-2	1.443608E-2	1.084515E-2	9.918271E-3	2.889581E-3	3.243290E-3	9.542045E-3	5.810373E-3	1.143017E-2	6.747069E-3	2.182663E-3	1.142992E-2	2.031929E-2	1.887998E-2	1.665444E-2	6.007329E-3	2.092895E-2	-3.571478E-3	8.333209E-3	1.522666E-2	2.035957E-2	5.602661E-3	1.032331E-2	1.315349E-2	1.604766E-2	1.397660E-2	1.414429E-2	1.510335E-2	4.146245E-3	1.284815E-3	2.197569E-2	-5.695111E-4	1.460981E-2	1.240285E-2	2.108013E-2	4.632189E-3	2.084936E-2	1.832994E-2	2.520238E-2	1.193866E-2	2.052619E-2	1.193273E-2	1.102237E-2	9.789324E-3	1.389654E-2	2.188393E-2	2.148986E-2	4.859478E-3	6.428493E-3	1.405868E-2	1.640082E-2	-2.926170E-3	7.787144E-3	1.051666E-2	1.995587E-2	2.166816E-2	1.169672E-2	8.450938E-3	1.825644E-2	2.835688E-2	1.844924E-2	1.921080E-2	2.389991E-2	8.583636E-3	1.451205E-2	4.465255E-3	5.260547E-3	1.177634E-2	1.197452E-2	2.564938E-3	8.595893E-3	1.039680E-2	9.815258E-3	3.724327E-3	1.501930E-2	8.458336E-3	1.775638E-2	2.327555E-2	1.753717E-2	1.034500E-2	2.427166E-2	1.726575E-2	1.642277E-2	1.219569E-2	8.261754E-3	1.492522E-2	7.480120E-3	3.686686E-3	6.474145E-3	6.459491E-3	1.135158E-2	6.253912E-3	2.991523E-2	6.892894E-3	2.171547E-2	4.059724E-3	1.210364E-2	2.220306E-2	1.924137E-2	1.195014E-2	4.360840E-3	1.286841E-2	1.830600E-2	1.650126E-2	3.155169E-3	1.590648E-2	2.167697E-2	1.334357E-2	1.052114E-2	1.535379E-2	1.181211E-2
2.835020E+2	1.319825E-2	2.585463E-2	1.786978E-2	3.905459E-2	2.982526E-2	3.328418E-2	2.754984E-2	3.166222E-2	2.350584E-2	2.818345E-2	1.860890E-2	3.373124E-2	2.054221E-2	2.456361E-2	3.267099E-2	3.497871E-2	3.544819E-2	3.863065E-2	3.315640E-2	3.846856E-2	2.149310E-2	1.937689E-2	1.953852E-2	1.941523E-2	1.142715E-2	2.628882E-2	2.331693E-2	2.276768E-2	2.339061E-2	3.406236E-2	1.403635E-2	1.930144E-2	2.795816E-2	3.564497E-2	3.225733E-2	1.979499E-2	1.560704E-2	3.131387E-2	2.224255E-2	3.372752E-2	2.995888E-2	2.816950E-2	9.315024E-3	2.550355E-2	1.802957E-2	2.575091E-2	2.654656E-2	1.826865E-2	3.988838E-2	3.703331E-2	2.969201E-2	3.493756E-2	2.112701E-2	2.087335E-2	2.272249E-2	2.620543E-2	2.678591E-2	3.070247E-2	2.430321E-2	3.317193E-2	1.513501E-2	3.204273E-2	3.763902E-2	2.114064E-2	2.114319E-2	2.535347E-2	2.201414E-2	3.376175E-2	3.036001E-2	3.979814E-2	1.918441E-2	1.988350E-2	3.136706E-2	2.955080E-2	3.175364E-2	1.331364E-2	2.506555E-2	2.019697E-2	3.595885E-2	2.925471E-2	2.349678E-2	1.489659E-2	1.536981E-2	3.555185E-2	3.055136E-2	1.930218E-2	3.986301E-2	3.458111E-2	2.883552E-2	5.671617E-3	2.153206E-2	2.192673E-2	1.613182E-2	1.627630E-2	3.383864E-2	2.126840E-2	9.615063E-3	2.432736E-2	1.650990E-2	1.148388E-2	1.645672E-2	2.294055E-2	2.644577E-2	2.476343E-2	2.930473E-2	1.309421E-2	3.436329E-2	2.429133E-2	1.986202E-2	3.420079E-2	2.752213E-2	2.960388E-2	4.303601E-2	4.119766E-2	3.868442E-2	3.563033E-2	1.686712E-2	3.742809E-2	1.972505E-2	3.133314E-2	2.233710E-2	9.437259E-3	2.120199E-2	3.990441E-2	2.852185E-2	2.083998E-2	2.561594E-2	2.760527E-2	1.735985E-2	3.124452E-2	1.980022E-2	2.359734E-2	9.665808E-3	9.089403E-3	2.929083E-2	3.527368E-2	2.551859E-2	4.386543E-2	1.444015E-2	1.216696E-2	2.903065E-2	2.874459E-2	2.730342E-2	3.282689E-2	2.002816E-2	1.736476E-2	2.994427E-2	2.567944E-2	2.184121E-2	1.931991E-2	2.415126E-2	3.183562E-2	3.422815E-3	1.779574E-2	1.933271E-2	2.067872E-2	1.978373E-2	1.943309E-2	4.162154E-2	2.874373E-2	1.976855E-2	2.229289E-2	1.684051E-2	2.426061E-2	2.663033E-2	3.356875E-2	2.885535E-2	2.619965E-2	2.611513E-2	2.580454E-2	2.086292E-2	3.285464E-2
2.840000E+2	4.090065E-2	3.489189E-2	4.565891E-2	3.986908E-2	4.215503E-2	4.331194E-2	5.466058E-2	4.130374E-2	4.541222E-2	4.968663E-2	3.995359E-2	5.495482E-2	4.393192E-2	5.934778E-2	4.434524E-2	4.687361E-2	5.757690E-2	3.720513E-2	5.357610E-2	6.810814E-2	5.574654E-2	5.390443E-2	4.079162E-2	5.317960E-2	4.816468E-2	5.481317E-2	4.998252E-2	5.468574E-2	4.475881E-2	5.035787E-2	4.214987E-2	3.895884E-2	5.807596E-2	5.846835E-2	5.049567E-2	3.525406E-2	4.837129E-2	5.918126E-2	4.996954E-2	5.958176E-2	4.168200E-2	4.098719E-2	5.515252E-2	4.995034E-2	4.666639E-2	4.841986E-2	6.212351E-2	6.434397E-2	5.074834E-2	5.163721E-2	4.642752E-2	6.887781E-2	4.469545E-2	6.024735E-2	6.523364E-2	5.201147E-2	3.533025E-2	5.063583E-2	4.425863E-2	4.953934E-2	4.570673E-2	3.322358E-2	4.983949E-2	5.918963E-2	6.661519E-2	6.339928E-2	7.140206E-2	4.901538E-2	4.086202E-2	3.912738E-2	6.102371E-2	6.734215E-2	5.447455E-2	4.152257E-2	6.862087E-2	4.419662E-2	5.148763E-2	5.774153E-2	6.002294E-2	5.564120E-2	5.083047E-2	4.360554E-2	5.321614E-2	3.836677E-2	6.226406E-2	4.470460E-2	5.387856E-2	5.563868E-2	5.606481E-2	4.481759E-2	5.274500E-2	4.820628E-2	5.917946E-2	6.611101E-2	4.083871E-2	3.904324E-2	4.704040E-2	5.115540E-2	5.304299E-2	3.175296E-2	4.906152E-2	5.051261E-2	2.898528E-2	5.118790E-2	4.936326E-2	4.385725E-2	5.596378E-2	3.991895E-2	6.442666E-2	4.624160E-2	6.060975E-2	5.279394E-2	5.978226E-2	5.125833E-2	5.258805E-2	4.983936E-2	5.281392E-2	6.652987E-2	5.545171E-2	5.549526E-2	4.383074E-2	5.486411E-2	6.312419E-2	4.468356E-2	5.168012E-2	5.048892E-2	6.277430E-2	5.613361E-2	4.253588E-2	5.460492E-2	5.842059E-2	6.206790E-2	6.042337E-2	5.705540E-2	6.028756E-2	6.825589E-2	3.737022E-2	5.311515E-2	4.252638E-2	5.647237E-2	5.992361E-2	6.597111E-2	3.664554E-2	4.977701E-2	5.283004E-2	5.377966E-2	4.620317E-2	4.511073E-2	5.140650E-2	3.013451E-2	5.086219E-2	4.946852E-2	4.815435E-2	4.146669E-2	4.667709E-2	6.831489E-2	5.476134E-2	6.066812E-2	7.157469E-2	4.962657E-2	4.887722E-2	4.407160E-2	3.520323E-2	4.993645E-2	5.514583E-2	4.010458E-2	8.207947E-2	4.590990E-2	5.335207E-2	5.565329E-2	3.192681E-2	5.958013E-2
2.841010E+2	3.900874E-2	5.958379E-2	5.714912E-2	5.364863E-2	4.485262E-2	6.342714E-2	5.318130E-2	6.972266E-2	4.460995E-2	5.350075E-2	4.874730E-2	6.442484E-2	4.974110E-2	6.367212E-2	5.979937E-2	5.049016E-2	5.197297E-2	5.790091E-2	5.665029E-2	4.248430E-2	4.540732E-2	4.534701E-2	5.323678E-2	5.350969E-2	6.094830E-2	4.589785E-2	5.393675E-2	3.573382E-2	5.499722E-2	6.610446E-2	5.794249E-2	5.982873E-2	5.064842E-2	5.203872E-2	7.009839E-2	4.851522E-2	5.174699E-2	5.261807E-2	6.786275E-2	6.079239E-2	5.790125E-2	6.286481E-2	6.032614E-2	7.218794E-2	4.308045E-2	4.874007E-2	4.031475E-2	4.821352E-2	5.727321E-2	5.707590E-2	6.829158E-2	5.905923E-2	6.641482E-2	5.357666E-2	5.834081E-2	5.319575E-2	6.481924E-2	6.846474E-2	6.697218E-2	4.374556E-2	6.199538E-2	5.410051E-2	5.526301E-2	4.244315E-2	6.001523E-2	5.130343E-2	4.521557E-2	4.117495E-2	4.671347E-2	3.668882E-2	6.059513E-2	6.127374E-2	5.477547E-2	5.289152E-2	6.146810E-2	4.861027E-2	4.403898E-2	6.610717E-2	7.596473E-2	6.650883E-2	6.740681E-2	5.230799E-2	6.724374E-2	5.495276E-2	6.191046E-2	5.866613E-2	6.119041E-2	5.868650E-2	6.679094E-2	5.527495E-2	7.253792E-2	5.152695E-2	4.465102E-2	4.595434E-2	5.484051E-2	6.049522E-2	6.685575E-2	6.898697E-2	5.331583E-2	5.845780E-2	5.789383E-2	5.019888E-2	5.831850E-2	4.701976E-2	6.065041E-2	8.738831E-2	6.712264E-2	4.097438E-2	3.971781E-2	5.582695E-2	5.223196E-2	6.673961E-2	5.583194E-2	4.887917E-2	7.562499E-2	6.532789E-2	7.115548E-2	5.705774E-2	5.253872E-2	3.418122E-2	6.619180E-2	6.208458E-2	6.971875E-2	5.319675E-2	5.464480E-2	4.707526E-2	3.931590E-2	6.215839E-2	5.246402E-2	6.750943E-2	6.071097E-2	5.867223E-2	4.751157E-2	4.763175E-2	5.397483E-2	5.491856E-2	6.192429E-2	4.996531E-2	5.618333E-2	6.926687E-2	5.716068E-2	5.386638E-2	5.150631E-2	6.624843E-2	4.695085E-2	4.087270E-2	4.359966E-2	7.005228E-2	3.703970E-2	6.638051E-2	6.180276E-2	4.095208E-2	5.123326E-2	6.169011E-2	6.332817E-2	3.964262E-2	5.163273E-2	6.206020E-2	5.572892E-2	6.368984E-2	6.148783E-2	4.534795E-2	7.043136E-2	4.677683E-2	6.196948E-2	7.275090E-2	6.487025E-2	5.251628E-2	5.566663E-2	4.792548E-2	6.878658E-2	3.583265E-2
2.842030E+2	9.481761E-2	8.312843E-2	8.452743E-2	5.347533E-2	8.268178E-2	6.823899E-2	6.633305E-2	7.536195E-2	8.100278E-2	8.574197E-2	4.925710E-2	6.869823E-2	8.127498E-2	6.826554E-2	7.631851E-2	8.691229E-2	6.453401E-2	5.504132E-2	7.302736E-2	7.473476E-2	6.337753E-2	6.731496E-2	7.068442E-2	7.249750E-2	6.883425E-2	6.442164E-2	7.866850E-2	7.430256E-2	7.982024E-2	8.584563E-2	7.022241E-2	7.135966E-2	9.940264E-2	8.169020E-2	7.430267E-2	7.461043E-2	6.938529E-2	8.117546E-2	9.417357E-2	6.643807E-2	7.974206E-2	6.912244E-2	7.497682E-2	8.057890E-2	7.435055E-2	8.222820E-2	8.472615E-2	7.187473E-2	7.770619E-2	7.485670E-2	5.757495E-2	8.395654E-2	7.187542E-2	7.525699E-2	8.199640E-2	7.280909E-2	8.457062E-2	5.987802E-2	6.539477E-2	5.906114E-2	8.867423E-2	7.308688E-2	6.793317E-2	7.762878E-2	8.842946E-2	6.870891E-2	6.952808E-2	6.791120E-2	5.847813E-2	6.311407E-2	7.690025E-2	5.068301E-2	8.573756E-2	7.861372E-2	9.188596E-2	8.797167E-2	7.844539E-2	7.301824E-2	6.627923E-2	8.336249E-2	7.386287E-2	8.537373E-2	8.515041E-2	8.690779E-2	7.817049E-2	8.189480E-2	7.487397E-2	8.903977E-2	8.668443E-2	6.618165E-2	1.073860E-1	7.060055E-2	5.488259E-2	6.896960E-2	6.318289E-2	8.413922E-2	8.453401E-2	7.317806E-2	9.522894E-2	7.537673E-2	6.315746E-2	6.435280E-2	7.412694E-2	9.064886E-2	6.032374E-2	6.342021E-2	7.981505E-2	9.042915E-2	4.985173E-2	8.379669E-2	7.164120E-2	6.998177E-2	8.216584E-2	7.360408E-2	6.969688E-2	7.074161E-2	8.225444E-2	9.017936E-2	6.963268E-2	6.211978E-2	9.940518E-2	7.566729E-2	7.891936E-2	7.343267E-2	6.887242E-2	8.355981E-2	8.451152E-2	9.578082E-2	7.625392E-2	1.008046E-1	6.775769E-2	8.609645E-2	7.220673E-2	7.983442E-2	9.289957E-2	7.143050E-2	8.513037E-2	7.601647E-2	7.977647E-2	7.858925E-2	6.466007E-2	8.060575E-2	7.644766E-2	8.652900E-2	8.378098E-2	1.020411E-1	7.566782E-2	9.332468E-2	7.452225E-2	7.256254E-2	8.880091E-2	7.547614E-2	8.755124E-2	7.978960E-2	1.035518E-1	8.186516E-2	6.887056E-2	8.793644E-2	6.911029E-2	7.504469E-2	8.178669E-2	7.081668E-2	8.301539E-2	7.386513E-2	8.826302E-2	9.204985E-2	9.687143E-2	6.787955E-2	7.430687E-2	8.311045E-2	5.979418E-2	1.039058E-1
2.843040E+2	1.094275E-1	1.038519E-1	8.600645E-2	1.051199E-1	1.017465E-1	1.159415E-1	1.030184E-1	1.127654E-1	1.138666E-1	9.966057E-2	1.227672E-1	1.164761E-1	1.068322E-1	1.077664E-1	1.025534E-1	1.039250E-1	1.117892E-1	1.172987E-1	1.014928E-1	1.050172E-1	9.255205E-2	9.187802E-2	8.961945E-2	1.032627E-1	8.205601E-2	1.002983E-1	1.144279E-1	8.287813E-2	9.822695E-2	1.084235E-1	1.095380E-1	9.696823E-2	1.137448E-1	1.056488E-1	1.082204E-1	9.725463E-2	9.409322E-2	1.205461E-1	1.038654E-1	1.280836E-1	1.011015E-1	1.212683E-1	1.017458E-1	1.016082E-1	1.133485E-1	1.016628E-1	1.172652E-1	1.066259E-1	1.065258E-1	1.085052E-1	1.178936E-1	8.748888E-2	1.152276E-1	1.002912E-1	1.040199E-1	9.934638E-2	9.671003E-2	9.513186E-2	1.361317E-1	1.236394E-1	9.028758E-2	9.885797E-2	9.151178E-2	1.042732E-1	8.997280E-2	9.906173E-2	8.483538E-2	1.178168E-1	9.866360E-2	1.226292E-1	1.039387E-1	1.066522E-1	1.198114E-1	1.055134E-1	9.543095E-2	1.221276E-1	9.574974E-2	9.701267E-2	1.210445E-1	1.004803E-1	9.392140E-2	1.169339E-1	1.006323E-1	1.013752E-1	1.163157E-1	1.096085E-1	1.133283E-1	1.386359E-1	1.125754E-1	1.126691E-1	1.032527E-1	1.083521E-1	1.149813E-1	9.481532E-2	1.089119E-1	8.656827E-2	1.151248E-1	1.094604E-1	8.738281E-2	1.098813E-1	1.278983E-1	9.468531E-2	9.908032E-2	1.104785E-1	1.124805E-1	1.218333E-1	1.209072E-1	1.349742E-1	8.376343E-2	9.937619E-2	1.097815E-1	8.112507E-2	9.349686E-2	1.258335E-1	1.068076E-1	1.062474E-1	1.202819E-1	1.060750E-1	1.171690E-1	1.179445E-1	1.048764E-1	1.103109E-1	1.100631E-1	1.172884E-1	1.032951E-1	9.594148E-2	1.188489E-1	1.053138E-1	1.078197E-1	1.208816E-1	1.148790E-1	1.146413E-1	1.026372E-1	9.651226E-2	1.216631E-1	1.135086E-1	1.133222E-1	1.075810E-1	1.223717E-1	1.021800E-1	8.740645E-2	1.067352E-1	1.162299E-1	1.076284E-1	9.626919E-2	9.988748E-2	1.267412E-1	1.133657E-1	1.118416E-1	9.232314E-2	1.279801E-1	1.084472E-1	1.024735E-1	1.031948E-1	9.520317E-2	1.012744E-1	1.130534E-1	1.158531E-1	9.913674E-2	9.220564E-2	9.364556E-2	1.145836E-1	1.299709E-1	1.055692E-1	9.956230E-2	1.086153E-1	1.292190E-1	9.805161E-2	8.825396E-2	1.090183E-1	1.243326E-1	1.355149E-1
2.844010E+2	1.456933E-1	1.116440E-1	1.283401E-1	1.136322E-1	1.466391E-1	1.348998E-1	1.396970E-1	1.289567E-1	1.063044E-1	1.373782E-1	1.688922E-1	1.388202E-1	1.410824E-1	1.272585E-1	1.384510E-1	1.196883E-1	1.417167E-1	1.324740E-1	1.313494E-1	1.587571E-1	1.386284E-1	1.542600E-1	1.466260E-1	1.307157E-1	1.434735E-1	1.404274E-1	1.097733E-1	1.262538E-1	1.562482E-1	1.447871E-1	1.456477E-1	1.450245E-1	1.600041E-1	1.458983E-1	1.206793E-1	1.370940E-1	1.495356E-1	1.268720E-1	1.277176E-1	1.328310E-1	1.272683E-1	1.380894E-1	1.502296E-1	1.442924E-1	1.370023E-1	1.433736E-1	1.062062E-1	1.524859E-1	1.287197E-1	1.534119E-1	1.432240E-1	1.415299E-1	1.335259E-1	1.541263E-1	1.303780E-1	1.378441E-1	1.368686E-1	1.536771E-1	1.084358E-1	1.289342E-1	1.435385E-1	1.367583E-1	1.250493E-1	1.410578E-1	1.456328E-1	1.456836E-1	1.157663E-1	1.536179E-1	1.471556E-1	1.490064E-1	1.328138E-1	1.183882E-1	1.441717E-1	1.457435E-1	1.173355E-1	1.493259E-1	1.331337E-1	1.290892E-1	1.619174E-1	1.315661E-1	1.424534E-1	1.620386E-1	1.374438E-1	1.304529E-1	1.267476E-1	1.494868E-1	1.198100E-1	1.428191E-1	1.293870E-1	1.496902E-1	1.410808E-1	1.127929E-1	1.341183E-1	1.574953E-1	1.310692E-1	1.470665E-1	1.492105E-1	1.565296E-1	1.525171E-1	1.551189E-1	1.544631E-1	1.372503E-1	1.402792E-1	1.308762E-1	1.316482E-1	1.343746E-1	1.487591E-1	1.670233E-1	1.497736E-1	1.580782E-1	1.614478E-1	1.355706E-1	1.370649E-1	1.370924E-1	1.349109E-1	1.495478E-1	1.245826E-1	1.400482E-1	1.498781E-1	1.617668E-1	1.434415E-1	1.405838E-1	1.388594E-1	1.269443E-1	1.405784E-1	1.311340E-1	1.368605E-1	1.399209E-1	1.776489E-1	1.522586E-1	1.698071E-1	1.490045E-1	1.377738E-1	1.382587E-1	1.325787E-1	1.522350E-1	1.548018E-1	1.260783E-1	1.054460E-1	1.216464E-1	1.339720E-1	1.418517E-1	1.445901E-1	1.276686E-1	1.434682E-1	1.224797E-1	1.205986E-1	1.535430E-1	1.330610E-1	1.456449E-1	1.411409E-1	1.331542E-1	1.361702E-1	1.280788E-1	1.621772E-1	1.469011E-1	1.591874E-1	1.453154E-1	1.346371E-1	1.543650E-1	1.526870E-1	1.192015E-1	1.759231E-1	1.548185E-1	1.529777E-1	1.421274E-1	1.506843E-1	1.503696E-1	1.237653E-1	1.377722E-1	1.475842E-1	1.838905E-1
2.845030E+2	1.910564E-1	1.920251E-1	1.709174E-1	1.725838E-1	1.549452E-1	1.971945E-1	1.877875E-1	1.755091E-1	1.767403E-1	1.795044E-1	1.818028E-1	1.697385E-1	1.606474E-1	1.442253E-1	1.757517E-1	1.892150E-1	1.794244E-1	1.668936E-1	1.586791E-1	2.219343E-1	1.809981E-1	1.933213E-1	1.578673E-1	1.763924E-1	1.683432E-1	1.831475E-1	1.792753E-1	1.856669E-1	1.708688E-1	1.988054E-1	2.024019E-1	1.749921E-1	1.581652E-1	1.826801E-1	1.685813E-1	1.940702E-1	1.588002E-1	1.878523E-1	1.606662E-1	1.755290E-1	1.855718E-1	1.728024E-1	1.591218E-1	1.731307E-1	1.886815E-1	1.678197E-1	1.734586E-1	1.632453E-1	1.895349E-1	1.825050E-1	1.900373E-1	1.713251E-1	1.816229E-1	1.729134E-1	1.497987E-1	1.874285E-1	1.831519E-1	2.078467E-1	1.613825E-1	1.758095E-1	1.693605E-1	1.736501E-1	1.839148E-1	1.631514E-1	1.599350E-1	1.639165E-1	1.962392E-1	1.782180E-1	1.833919E-1	1.736513E-1	1.789138E-1	2.021883E-1	1.914920E-1	1.779991E-1	1.702774E-1	1.662442E-1	1.918586E-1	1.885683E-1	2.000434E-1	1.692562E-1	1.753271E-1	1.807681E-1	1.762424E-1	1.715783E-1	1.817114E-1	1.910760E-1	1.605079E-1	1.959550E-1	1.995764E-1	1.843397E-1	1.623967E-1	1.605335E-1	1.685530E-1	1.719497E-1	1.894032E-1	1.920572E-1	1.805713E-1	1.622186E-1	1.537182E-1	1.869096E-1	1.927090E-1	2.022192E-1	1.897488E-1	1.810723E-1	1.870680E-1	1.791652E-1	2.150643E-1	1.783544E-1	1.723466E-1	1.950737E-1	1.865442E-1	1.693627E-1	2.195002E-1	1.868108E-1	1.830730E-1	1.570117E-1	2.000441E-1	1.773136E-1	1.817842E-1	1.804640E-1	1.687956E-1	1.753703E-1	1.784538E-1	1.863336E-1	1.648799E-1	1.768399E-1	1.565311E-1	1.792366E-1	2.059354E-1	1.874829E-1	1.830988E-1	1.860725E-1	1.533889E-1	1.909999E-1	2.020363E-1	1.738220E-1	2.068412E-1	1.805858E-1	1.671103E-1	1.673764E-1	1.893075E-1	1.696179E-1	1.825626E-1	1.583539E-1	1.623615E-1	1.975864E-1	1.844468E-1	2.015874E-1	2.007538E-1	1.627079E-1	1.920467E-1	1.559887E-1	1.987159E-1	2.012199E-1	1.599889E-1	1.810240E-1	2.029075E-1	1.900571E-1	1.925780E-1	1.900968E-1	1.654331E-1	2.043399E-1	2.232932E-1	1.754265E-1	1.703360E-1	1.786569E-1	2.009309E-1	1.813020E-1	1.561834E-1	1.609793E-1	1.722260E-1	2.182609E-1
2.846040E+2	2.210524E-1	2.375920E-1	2.559229E-1	2.288148E-1	2.144836E-1	2.212116E-1	2.295269E-1	2.404303E-1	2.664878E-1	2.495535E-1	2.312677E-1	2.461587E-1	2.387650E-1	2.489985E-1	2.384210E-1	2.266714E-1	2.232549E-1	2.339242E-1	2.290116E-1	2.518529E-1	2.288331E-1	2.326606E-1	2.500448E-1	2.458430E-1	2.400386E-1	2.320188E-1	2.457593E-1	2.390029E-1	2.384256E-1	2.556377E-1	2.474883E-1	2.295083E-1	2.139857E-1	2.378269E-1	2.384546E-1	2.293793E-1	2.273316E-1	2.242211E-1	2.199492E-1	2.391785E-1	2.352499E-1	2.605732E-1	2.662468E-1	2.454698E-1	2.438591E-1	2.268876E-1	2.542852E-1	2.328198E-1	2.143007E-1	2.079227E-1	2.595941E-1	2.557066E-1	2.389000E-1	2.074166E-1	2.264008E-1	2.172433E-1	2.598228E-1	2.320788E-1	2.306784E-1	2.684033E-1	2.567186E-1	2.229133E-1	2.529699E-1	2.478873E-1	2.429580E-1	2.182065E-1	2.567036E-1	2.273552E-1	2.212705E-1	2.149435E-1	2.252587E-1	2.446270E-1	2.208497E-1	2.331363E-1	2.663771E-1	2.216790E-1	2.569139E-1	2.608435E-1	2.631037E-1	2.725997E-1	2.755996E-1	2.304803E-1	2.425582E-1	2.338869E-1	2.536150E-1	2.351454E-1	2.532701E-1	2.661566E-1	2.091662E-1	2.787015E-1	2.618780E-1	2.148019E-1	2.498056E-1	2.383627E-1	2.483620E-1	2.445084E-1	2.189985E-1	2.753727E-1	2.470652E-1	2.346745E-1	2.597812E-1	2.258306E-1	2.723644E-1	2.653064E-1	2.473807E-1	2.531862E-1	2.419558E-1	2.384339E-1	2.206858E-1	2.391977E-1	2.543117E-1	2.526699E-1	2.344093E-1	2.768644E-1	2.409678E-1	2.325490E-1	2.229260E-1	2.765432E-1	2.651839E-1	2.136141E-1	2.539666E-1	2.448531E-1	2.500474E-1	2.527976E-1	2.445097E-1	2.625699E-1	2.574159E-1	2.498250E-1	2.601346E-1	2.384408E-1	2.668749E-1	2.263231E-1	2.329068E-1	2.543312E-1	2.195049E-1	2.421667E-1	2.454170E-1	2.267282E-1	2.508045E-1	2.481011E-1	2.631053E-1	2.740507E-1	2.348007E-1	2.579993E-1	2.601293E-1	2.662774E-1	2.523194E-1	2.544387E-1	2.503866E-1	2.615963E-1	2.578867E-1	2.663247E-1	2.255925E-1	2.083782E-1	2.312259E-1	2.361210E-1	2.453173E-1	2.098944E-1	2.449940E-1	2.476890E-1	2.434985E-1	2.735413E-1	2.710790E-1	2.229119E-1	2.420050E-1	2.574944E-1	2.627635E-1	2.308561E-1	2.505059E-1	2.568272E-1	2.478597E-1	2.720291E-1
2.847020E+2	5.047056E-1	5.175832E-1	4.818842E-1	4.839339E-1	4.878020E-1	5.146497E-1	4.701057E-1	5.136364E-1	4.950458E-1	5.016415E-1	5.129973E-1	4.880149E-1	5.060210E-1	5.025931E-1	4.964699E-1	5.057638E-1	4.912939E-1	4.910997E-1	5.108187E-1	4.891138E-1	5.421837E-1	5.215937E-1	5.189580E-1	5.177848E-1	5.119028E-1	5.063824E-1	5.183486E-1	5.068733E-1	5.046212E-1	5.157406E-1	5.169967E-1	5.368012E-1	4.712155E-1	5.403713E-1	4.835747E-1	4.830546E-1	4.954839E-1	5.172493E-1	5.133568E-1	5.635717E-1	5.092821E-1	4.781720E-1	4.911577E-1	4.989028E-1	5.119360E-1	4.860652E-1	5.302285E-1	5.345700E-1	5.135916E-1	5.377887E-1	5.315498E-1	4.957814E-1	4.962835E-1	5.113266E-1	5.286550E-1	4.869795E-1	4.574361E-1	5.372419E-1	4.821281E-1	5.099111E-1	5.154604E-1	5.036975E-1	5.258213E-1	5.390226E-1	4.958923E-1	4.991321E-1	4.965932E-1	5.121501E-1	5.382007E-1	5.123111E-1	5.585791E-1	5.601519E-1	5.322570E-1	4.780006E-1	4.849110E-1	5.512204E-1	5.295679E-1	5.317502E-1	5.164788E-1	4.908383E-1	5.440664E-1	5.242675E-1	5.094998E-1	5.459135E-1	5.336494E-1	4.970875E-1	5.348315E-1	5.214245E-1	5.052616E-1	4.926136E-1	5.261237E-1	5.198187E-1	4.973359E-1	5.105587E-1	5.192845E-1	5.053567E-1	5.558459E-1	5.116952E-1	4.824299E-1	5.148666E-1	5.239365E-1	5.165318E-1	4.879572E-1	5.588149E-1	4.869312E-1	5.112758E-1	5.600807E-1	4.793118E-1	4.930930E-1	5.040130E-1	5.174639E-1	5.336817E-1	5.275383E-1	4.897252E-1	5.140378E-1	5.229772E-1	5.021279E-1	5.275489E-1	5.047662E-1	5.458942E-1	5.274180E-1	5.178939E-1	5.455712E-1	5.343979E-1	5.176803E-1	5.419163E-1	5.240334E-1	5.067264E-1	5.119492E-1	4.721328E-1	5.198717E-1	5.016808E-1	5.158505E-1	5.368808E-1	4.861850E-1	5.240472E-1	5.178848E-1	5.306014E-1	5.326077E-1	5.133223E-1	5.504150E-1	5.292829E-1	5.295724E-1	4.846526E-1	5.061360E-1	5.316907E-1	5.789239E-1	5.180614E-1	4.720245E-1	5.369737E-1	5.370154E-1	4.658516E-1	5.531417E-1	5.612345E-1	5.435493E-1	5.620412E-1	4.905187E-1	5.032735E-1	5.262952E-1	4.860113E-1	5.244502E-1	5.346847E-1	5.346296E-1	4.707859E-1	5.108380E-1	5.481110E-1	5.485340E-1	4.961531E-1	4.953755E-1	5.173506E-1	5.315525E-1	5.076736E-1
2.848020E+2	1.195718E+0	1.141328E+0	1.184571E+0	1.156322E+0	1.130013E+0	1.069212E+0	1.130274E+0	1.220429E+0	1.162362E+0	1.159869E+0	1.183090E+0	1.169232E+0	1.108638E+0	1.152603E+0	1.169765E+0	1.145892E+0	1.170933E+0	1.149806E+0	1.161284E+0	1.158578E+0	1.113545E+0	1.162555E+0	1.173663E+0	1.199315E+0	1.110772E+0	1.153744E+0	1.141416E+0	1.157095E+0	1.151686E+0	1.198707E+0	1.119076E+0	1.169868E+0	1.172243E+0	1.196273E+0	1.111473E+0	1.093941E+0	1.095579E+0	1.166617E+0	1.142710E+0	1.131047E+0	1.136831E+0	1.131509E+0	1.178152E+0	1.107490E+0	1.126441E+0	1.140198E+0	1.202133E+0	1.178017E+0	1.105514E+0	1.200039E+0	1.155225E+0	1.094601E+0	1.142777E+0	1.082131E+0	1.152265E+0	1.149815E+0	1.179620E+0	1.105669E+0	1.184460E+0	1.134320E+0	1.154751E+0	1.144966E+0	1.167173E+0	1.147267E+0	1.124555E+0	1.099071E+0	1.128059E+0	1.116210E+0	1.162802E+0	1.087991E+0	1.133813E+0	1.170548E+0	1.165745E+0	1.201485E+0	1.111335E+0	1.268113E+0	1.157850E+0	1.172628E+0	1.155051E+0	1.134649E+0	1.136818E+0	1.229121E+0	1.126023E+0	1.179055E+0	1.157928E+0	1.171628E+0	1.150810E+0	1.195069E+0	1.194097E+0	1.134473E+0	1.241905E+0	1.121111E+0	1.180541E+0	1.192202E+0	1.192801E+0	1.160973E+0	1.132456E+0	1.191782E+0	1.120534E+0	1.158723E+0	1.143715E+0	1.111012E+0	1.175041E+0	1.119427E+0	1.140035E+0	1.215376E+0	1.183030E+0	1.147091E+0	1.197591E+0	1.148015E+0	1.147713E+0	1.108260E+0	1.214264E+0	1.171126E+0	1.193445E+0	1.145916E+0	1.173324E+0	1.201715E+0	1.121065E+0	1.121286E+0	1.122122E+0	1.199884E+0	1.158153E+0	1.151257E+0	1.157280E+0	1.199687E+0	1.099786E+0	1.155244E+0	1.205053E+0	1.132629E+0	1.127529E+0	1.118127E+0	1.162666E+0	1.154982E+0	1.172199E+0	1.181996E+0	1.195013E+0	1.129400E+0	1.096548E+0	1.182891E+0	1.171215E+0	1.129584E+0	1.178564E+0	1.140123E+0	1.143619E+0	1.238051E+0	1.185747E+0	1.134732E+0	1.167872E+0	1.171601E+0	1.139422E+0	1.257277E+0	1.165436E+0	1.188511E+0	1.180494E+0	1.260175E+0	1.164752E+0	1.174815E+0	1.106165E+0	1.182009E+0	1.157793E+0	1.156916E+0	1.223899E+0	1.065423E+0	1.123744E+0	1.141360E+0	1.200826E+0	1.198778E+0	1.192106E+0	1.127174E+0	1.146566E+0	1.188588E+0
2.848990E+2	1.586024E+0	1.515182E+0	1.554371E+0	1.483502E+0	1.473246E+0	1.510434E+0	1.594403E+0	1.587041E+0	1.597138E+0	1.610375E+0	1.595321E+0	1.561080E+0	1.552967E+0	1.609497E+0	1.581195E+0	1.497367E+0	1.548357E+0	1.547177E+0	1.493076E+0	1.608896E+0	1.533233E+0	1.551182E+0	1.576667E+0	1.562030E+0	1.559284E+0	1.579332E+0	1.519353E+0	1.523677E+0	1.528038E+0	1.543334E+0	1.497559E+0	1.497314E+0	1.519748E+0	1.542871E+0	1.519355E+0	1.531411E+0	1.479919E+0	1.528171E+0	1.522968E+0	1.550145E+0	1.498295E+0	1.546582E+0	1.610864E+0	1.527925E+0	1.489894E+0	1.534575E+0	1.514124E+0	1.545105E+0	1.530662E+0	1.565393E+0	1.535473E+0	1.557414E+0	1.559089E+0	1.530734E+0	1.573041E+0	1.556754E+0	1.487880E+0	1.556374E+0	1.575439E+0	1.567645E+0	1.578048E+0	1.533401E+0	1.549739E+0	1.500594E+0	1.503153E+0	1.637776E+0	1.601953E+0	1.556023E+0	1.555536E+0	1.511950E+0	1.546003E+0	1.537645E+0	1.554186E+0	1.489800E+0	1.550793E+0	1.707861E+0	1.614093E+0	1.616346E+0	1.563543E+0	1.524701E+0	1.647867E+0	1.648746E+0	1.491641E+0	1.567214E+0	1.492287E+0	1.525580E+0	1.517266E+0	1.534526E+0	1.600791E+0	1.522620E+0	1.595052E+0	1.565539E+0	1.573246E+0	1.615120E+0	1.501213E+0	1.515148E+0	1.517829E+0	1.616721E+0	1.540721E+0	1.610069E+0	1.580373E+0	1.494273E+0	1.462895E+0	1.515029E+0	1.501779E+0	1.643410E+0	1.581172E+0	1.573950E+0	1.629815E+0	1.551874E+0	1.570226E+0	1.570212E+0	1.580799E+0	1.620442E+0	1.591327E+0	1.608035E+0	1.553716E+0	1.635660E+0	1.555024E+0	1.571645E+0	1.454386E+0	1.558100E+0	1.495529E+0	1.588826E+0	1.555173E+0	1.634815E+0	1.480352E+0	1.499629E+0	1.570278E+0	1.585318E+0	1.487224E+0	1.590053E+0	1.532250E+0	1.552155E+0	1.528573E+0	1.611729E+0	1.585722E+0	1.508274E+0	1.533659E+0	1.466469E+0	1.496863E+0	1.535006E+0	1.521032E+0	1.476044E+0	1.633417E+0	1.602812E+0	1.540797E+0	1.561510E+0	1.504945E+0	1.566983E+0	1.613369E+0	1.569934E+0	1.478944E+0	1.569669E+0	1.440913E+0	1.568071E+0	1.567174E+0	1.561091E+0	1.546279E+0	1.541258E+0	1.668887E+0	1.550659E+0	1.554823E+0	1.563124E+0	1.563287E+0	1.569328E+0	1.582739E+0	1.577676E+0	1.519274E+0	1.566545E+0	1.584828E+0	1.513305E+0
2.850010E+2	1.583919E+0	1.606545E+0	1.581288E+0	1.538376E+0	1.528836E+0	1.553441E+0	1.618507E+0	1.641621E+0	1.619910E+0	1.570903E+0	1.595169E+0	1.639693E+0	1.627264E+0	1.568878E+0	1.644271E+0	1.539464E+0	1.577299E+0	1.628915E+0	1.505561E+0	1.596741E+0	1.549733E+0	1.632388E+0	1.597272E+0	1.614465E+0	1.545735E+0	1.543754E+0	1.544555E+0	1.570036E+0	1.597949E+0	1.649809E+0	1.512131E+0	1.639298E+0	1.684235E+0	1.638229E+0	1.649666E+0	1.566275E+0	1.538835E+0	1.530578E+0	1.583696E+0	1.614531E+0	1.596787E+0	1.606165E+0	1.612679E+0	1.590146E+0	1.675054E+0	1.602651E+0	1.561236E+0	1.608264E+0	1.525176E+0	1.584721E+0	1.607412E+0	1.539966E+0	1.603211E+0	1.595159E+0	1.629607E+0	1.632000E+0	1.559598E+0	1.586767E+0	1.533439E+0	1.546702E+0	1.593392E+0	1.555203E+0	1.618796E+0	1.549352E+0	1.613028E+0	1.573205E+0	1.633164E+0	1.539430E+0	1.560069E+0	1.542170E+0	1.609131E+0	1.594424E+0	1.607111E+0	1.502812E+0	1.559420E+0	1.655116E+0	1.601355E+0	1.597592E+0	1.578018E+0	1.579581E+0	1.635923E+0	1.608507E+0	1.474685E+0	1.539518E+0	1.568350E+0	1.554345E+0	1.584881E+0	1.591831E+0	1.572808E+0	1.571355E+0	1.592014E+0	1.626580E+0	1.522968E+0	1.649737E+0	1.552705E+0	1.598251E+0	1.541950E+0	1.594607E+0	1.590588E+0	1.598210E+0	1.527077E+0	1.574017E+0	1.590208E+0	1.608431E+0	1.597559E+0	1.580530E+0	1.567435E+0	1.575175E+0	1.610792E+0	1.595375E+0	1.497212E+0	1.488854E+0	1.579280E+0	1.552492E+0	1.578507E+0	1.609525E+0	1.601773E+0	1.581598E+0	1.550833E+0	1.681073E+0	1.542809E+0	1.604978E+0	1.611323E+0	1.559088E+0	1.610968E+0	1.617083E+0	1.546889E+0	1.525029E+0	1.618552E+0	1.624245E+0	1.566174E+0	1.558101E+0	1.551130E+0	1.636573E+0	1.572307E+0	1.561970E+0	1.560789E+0	1.584168E+0	1.639633E+0	1.556950E+0	1.587513E+0	1.637760E+0	1.536453E+0	1.575767E+0	1.661820E+0	1.571824E+0	1.566824E+0	1.610724E+0	1.533517E+0	1.537382E+0	1.589213E+0	1.657493E+0	1.550695E+0	1.525277E+0	1.589398E+0	1.591139E+0	1.521998E+0	1.580605E+0	1.612825E+0	1.535691E+0	1.551897E+0	1.569446E+0	1.595587E+0	1.491527E+0	1.538715E+0	1.592787E+0	1.563476E+0	1.611796E+0	1.484701E+0	1.572588E+0	1.651221E+0	1.561359E+0
2.851060E+2	1.448325E+0	1.444453E+0	1.414199E+0	1.426303E+0	1.365506E+0	1.364595E+0	1.380928E+0	1.427925E+0	1.438110E+0	1.407866E+0	1.370442E+0	1.461975E+0	1.486900E+0	1.440554E+0	1.427896E+0	1.464642E+0	1.422277E+0	1.443510E+0	1.417792E+0	1.498311E+0	1.371697E+0	1.394999E+0	1.437092E+0	1.463143E+0	1.412461E+0	1.456657E+0	1.443792E+0	1.410512E+0	1.450141E+0	1.523465E+0	1.459149E+0	1.488778E+0	1.412123E+0	1.538054E+0	1.383388E+0	1.405198E+0	1.420892E+0	1.434699E+0	1.415024E+0	1.450358E+0	1.441190E+0	1.453780E+0	1.467966E+0	1.480047E+0	1.439930E+0	1.426432E+0	1.429987E+0	1.371421E+0	1.392621E+0	1.438140E+0	1.433893E+0	1.422208E+0	1.433958E+0	1.430640E+0	1.421318E+0	1.461631E+0	1.376656E+0	1.452074E+0	1.472058E+0	1.483631E+0	1.432167E+0	1.437431E+0	1.413070E+0	1.465703E+0	1.415160E+0	1.466839E+0	1.417296E+0	1.356479E+0	1.460375E+0	1.353313E+0	1.408533E+0	1.371088E+0	1.480470E+0	1.404512E+0	1.384910E+0	1.523043E+0	1.464879E+0	1.417118E+0	1.421835E+0	1.437472E+0	1.475419E+0	1.458360E+0	1.417808E+0	1.471621E+0	1.479724E+0	1.475821E+0	1.396949E+0	1.452385E+0	1.427643E+0	1.420592E+0	1.457336E+0	1.329495E+0	1.459401E+0	1.540387E+0	1.434247E+0	1.489727E+0	1.395982E+0	1.443382E+0	1.440987E+0	1.415201E+0	1.462778E+0	1.447135E+0	1.448819E+0	1.499280E+0	1.400878E+0	1.471913E+0	1.437116E+0	1.476253E+0	1.412193E+0	1.445449E+0	1.417882E+0	1.411045E+0	1.419791E+0	1.464352E+0	1.480422E+0	1.479450E+0	1.452029E+0	1.468914E+0	1.448825E+0	1.386670E+0	1.372232E+0	1.445189E+0	1.448366E+0	1.401399E+0	1.421901E+0	1.423303E+0	1.395598E+0	1.468755E+0	1.454308E+0	1.436901E+0	1.439254E+0	1.406620E+0	1.422876E+0	1.394156E+0	1.404428E+0	1.478709E+0	1.480640E+0	1.388755E+0	1.356269E+0	1.413540E+0	1.452524E+0	1.413887E+0	1.466767E+0	1.431910E+0	1.457717E+0	1.436949E+0	1.364000E+0	1.470544E+0	1.378376E+0	1.398165E+0	1.428805E+0	1.440176E+0	1.450313E+0	1.484146E+0	1.382343E+0	1.477906E+0	1.446902E+0	1.553554E+0	1.436565E+0	1.503653E+0	1.424265E+0	1.490867E+0	1.479676E+0	1.343697E+0	1.421381E+0	1.455155E+0	1.454751E+0	1.391981E+0	1.396876E+0	1.484190E+0	1.489700E+0	1.539085E+0
2.851990E+2	1.181509E+0	1.248044E+0	1.192296E+0	1.229425E+0	1.184342E+0	1.187751E+0	1.170663E+0	1.176794E+0	1.201775E+0	1.238701E+0	1.174178E+0	1.216519E+0	1.198193E+0	1.209043E+0	1.274066E+0	1.205782E+0	1.198875E+0	1.176127E+0	1.132526E+0	1.149613E+0	1.107132E+0	1.147111E+0	1.205149E+0	1.216155E+0	1.161938E+0	1.240985E+0	1.174449E+0	1.254113E+0	1.181880E+0	1.203104E+0	1.234267E+0	1.172381E+0	1.184428E+0	1.260943E+0	1.176239E+0	1.171740E+0	1.175969E+0	1.154567E+0	1.158732E+0	1.165039E+0	1.157786E+0	1.204656E+0	1.207379E+0	1.159215E+0	1.129329E+0	1.287380E+0	1.238794E+0	1.138655E+0	1.235795E+0	1.155483E+0	1.210659E+0	1.150969E+0	1.182387E+0	1.181841E+0	1.267427E+0	1.262705E+0	1.110142E+0	1.127987E+0	1.181957E+0	1.184011E+0	1.206045E+0	1.162907E+0	1.186749E+0	1.206465E+0	1.203627E+0	1.171279E+0	1.171896E+0	1.218535E+0	1.230192E+0	1.163530E+0	1.148563E+0	1.210700E+0	1.206970E+0	1.192103E+0	1.170298E+0	1.253608E+0	1.166382E+0	1.244067E+0	1.214971E+0	1.222992E+0	1.295900E+0	1.136316E+0	1.159411E+0	1.194920E+0	1.220494E+0	1.233653E+0	1.192117E+0	1.184252E+0	1.233400E+0	1.198188E+0	1.230662E+0	1.134057E+0	1.215326E+0	1.210978E+0	1.190856E+0	1.129574E+0	1.237275E+0	1.162416E+0	1.206564E+0	1.216005E+0	1.264451E+0	1.160076E+0	1.133928E+0	1.226276E+0	1.168596E+0	1.219254E+0	1.176716E+0	1.239693E+0	1.223639E+0	1.230481E+0	1.138330E+0	1.157316E+0	1.226273E+0	1.214513E+0	1.186786E+0	1.213360E+0	1.203079E+0	1.220144E+0	1.260786E+0	1.184897E+0	1.187065E+0	1.207717E+0	1.261914E+0	1.212138E+0	1.219096E+0	1.183566E+0	1.177048E+0	1.153751E+0	1.169509E+0	1.219837E+0	1.191376E+0	1.197110E+0	1.268552E+0	1.202360E+0	1.190905E+0	1.226008E+0	1.210787E+0	1.219295E+0	1.177410E+0	1.183396E+0	1.187472E+0	1.232411E+0	1.195652E+0	1.173604E+0	1.226788E+0	1.261010E+0	1.172706E+0	1.195432E+0	1.186449E+0	1.185087E+0	1.163767E+0	1.249699E+0	1.135016E+0	1.164193E+0	1.175273E+0	1.239156E+0	1.224259E+0	1.189325E+0	1.213805E+0	1.196238E+0	1.242367E+0	1.228475E+0	1.229729E+0	1.138096E+0	1.185648E+0	1.234481E+0	1.230715E+0	1.209281E+0	1.207062E+0	1.217455E+0	1.174408E+0	1.175706E+0
2.853000E+2	1.031616E+0	1.066243E+0	9.243478E-1	9.899610E-1	9.427980E-1	9.498000E-1	9.717611E-1	1.019234E+0	1.010865E+0	9.730396E-1	9.866798E-1	1.022567E+0	9.412417E-1	9.706492E-1	1.028847E+0	1.022624E+0	1.007398E+0	9.658024E-1	9.855921E-1	1.022654E+0	9.902842E-1	1.025202E+0	9.704358E-1	1.039730E+0	9.732789E-1	1.002287E+0	9.802192E-1	1.066343E+0	1.035235E+0	1.001732E+0	1.006437E+0	9.909441E-1	1.030050E+0	1.027739E+0	1.002295E+0	9.605939E-1	9.288707E-1	1.027171E+0	1.000365E+0	9.790409E-1	9.271961E-1	9.977488E-1	9.760749E-1	9.770159E-1	1.002194E+0	1.046892E+0	1.022244E+0	1.003290E+0	1.007581E+0	1.009085E+0	1.013842E+0	1.003760E+0	9.717234E-1	9.415111E-1	1.032701E+0	1.030952E+0	9.537437E-1	9.474908E-1	9.993191E-1	1.002414E+0	1.031541E+0	1.015946E+0	9.908305E-1	9.693587E-1	1.038480E+0	1.012058E+0	9.955963E-1	1.005420E+0	9.899199E-1	9.755843E-1	9.694004E-1	9.880921E-1	9.823211E-1	9.621277E-1	9.181091E-1	1.077775E+0	9.670632E-1	1.027258E+0	9.947164E-1	9.904633E-1	1.004778E+0	1.058357E+0	9.941176E-1	9.732464E-1	9.870061E-1	1.000564E+0	1.036683E+0	1.047194E+0	1.013425E+0	1.010819E+0	9.969638E-1	9.748775E-1	1.006567E+0	1.015014E+0	1.016402E+0	1.020912E+0	9.545406E-1	9.640741E-1	9.914545E-1	9.693666E-1	9.902758E-1	9.876329E-1	9.604371E-1	1.028757E+0	9.903196E-1	1.005914E+0	9.413232E-1	1.054761E+0	1.008485E+0	1.002414E+0	9.526020E-1	1.009789E+0	1.040863E+0	9.214267E-1	1.022793E+0	1.034370E+0	9.816018E-1	1.046985E+0	1.003263E+0	1.023427E+0	1.000744E+0	9.992018E-1	9.959071E-1	9.704529E-1	1.016576E+0	1.012956E+0	9.423402E-1	1.006998E+0	9.254291E-1	9.861138E-1	1.054252E+0	1.063028E+0	1.033652E+0	1.034459E+0	9.743712E-1	1.024688E+0	9.694925E-1	1.018939E+0	1.001248E+0	1.010268E+0	9.778556E-1	1.022194E+0	1.027077E+0	9.948049E-1	1.061603E+0	1.011235E+0	9.728745E-1	1.001831E+0	9.474848E-1	9.437345E-1	1.032572E+0	1.017337E+0	1.036686E+0	9.870935E-1	9.929883E-1	1.036031E+0	9.616518E-1	9.805425E-1	1.005996E+0	9.927464E-1	1.033628E+0	1.030394E+0	1.019470E+0	9.356053E-1	9.420343E-1	1.002652E+0	1.012314E+0	1.010685E+0	1.009356E+0	1.025706E+0	9.923316E-1	1.000477E+0
2.854020E+2	7.755478E-1	7.999700E-1	7.897967E-1	7.510252E-1	8.079196E-1	7.885584E-1	7.512602E-1	7.949876E-1	7.815341E-1	7.877108E-1	7.421562E-1	7.560143E-1	7.583996E-1	7.621637E-1	7.500785E-1	7.706184E-1	7.981337E-1	7.769033E-1	8.173392E-1	8.387983E-1	7.772272E-1	7.769066E-1	7.537771E-1	8.055687E-1	7.390111E-1	7.671255E-1	7.790756E-1	7.531981E-1	7.403671E-1	8.340281E-1	7.234079E-1	7.765041E-1	8.008049E-1	7.748727E-1	7.929994E-1	7.749082E-1	7.274134E-1	7.549573E-1	7.645691E-1	8.139327E-1	7.723611E-1	7.688249E-1	7.748130E-1	7.343733E-1	7.805877E-1	7.675658E-1	7.707227E-1	7.589676E-1	7.397798E-1	8.345618E-1	8.051539E-1	7.704356E-1	7.638692E-1	7.291061E-1	7.672766E-1	7.378353E-1	7.766290E-1	8.030924E-1	7.541821E-1	8.203289E-1	7.383459E-1	7.755451E-1	7.333708E-1	7.841503E-1	7.612786E-1	7.800275E-1	7.831323E-1	7.045140E-1	7.813388E-1	7.826784E-1	8.172492E-1	8.203457E-1	7.504148E-1	7.708481E-1	7.909513E-1	8.843594E-1	7.749818E-1	8.137398E-1	7.955378E-1	7.853837E-1	8.434735E-1	8.058067E-1	7.826623E-1	7.630363E-1	8.016739E-1	8.243438E-1	7.584447E-1	7.592151E-1	7.908897E-1	7.965677E-1	7.954442E-1	7.880001E-1	8.105734E-1	7.483934E-1	7.506762E-1	7.726920E-1	6.985628E-1	8.031736E-1	8.085892E-1	7.601083E-1	7.781229E-1	7.783578E-1	8.020551E-1	8.198028E-1	8.228938E-1	7.597765E-1	8.122630E-1	7.870891E-1	7.833733E-1	7.970587E-1	7.987065E-1	7.655199E-1	8.112722E-1	7.546320E-1	7.814239E-1	8.553659E-1	7.797109E-1	7.967796E-1	7.695643E-1	7.887764E-1	7.814704E-1	7.451115E-1	7.731924E-1	7.848241E-1	8.131031E-1	7.414053E-1	7.615715E-1	7.854266E-1	8.363304E-1	7.761666E-1	7.622068E-1	7.554741E-1	7.597458E-1	7.815775E-1	8.084674E-1	8.469826E-1	7.824377E-1	7.867683E-1	7.760991E-1	8.117655E-1	7.693248E-1	8.073475E-1	7.752381E-1	8.112451E-1	8.067692E-1	8.235728E-1	7.714201E-1	7.564218E-1	7.812576E-1	7.526184E-1	7.977884E-1	8.312052E-1	7.709534E-1	7.600959E-1	7.395268E-1	8.174495E-1	7.759917E-1	8.150005E-1	7.986860E-1	7.753529E-1	7.884233E-1	8.536548E-1	7.510934E-1	7.897177E-1	7.714733E-1	7.555954E-1	8.190089E-1	7.760698E-1	8.387641E-1	7.317998E-1	8.193618E-1	8.719955E-1
2.855000E+2	6.034787E-1	6.082584E-1	5.978224E-1	6.056969E-1	5.547244E-1	5.816475E-1	5.819346E-1	5.905276E-1	6.553311E-1	6.207937E-1	5.804094E-1	6.515585E-1	5.901593E-1	6.109579E-1	5.597075E-1	5.362384E-1	6.159032E-1	5.796697E-1	5.629225E-1	6.104884E-1	5.723697E-1	5.352935E-1	5.843328E-1	5.775571E-1	5.710253E-1	5.658258E-1	5.639269E-1	5.923293E-1	6.255080E-1	6.069531E-1	5.921517E-1	5.692047E-1	6.545639E-1	6.280888E-1	5.570743E-1	6.109359E-1	6.126908E-1	6.038235E-1	5.769889E-1	5.977786E-1	5.750770E-1	5.914156E-1	6.324713E-1	5.558572E-1	6.118599E-1	6.067915E-1	5.981934E-1	5.937140E-1	5.617612E-1	6.188309E-1	5.654272E-1	6.156774E-1	6.166907E-1	5.626701E-1	6.130763E-1	5.743694E-1	5.902902E-1	5.608213E-1	6.171816E-1	6.224901E-1	5.930273E-1	5.655239E-1	5.915758E-1	6.223455E-1	5.963453E-1	5.594304E-1	6.054672E-1	5.581221E-1	6.141251E-1	5.440055E-1	6.015674E-1	5.679670E-1	6.224628E-1	5.621679E-1	5.664577E-1	6.034635E-1	5.971118E-1	5.837356E-1	5.659541E-1	5.596393E-1	6.059460E-1	6.106632E-1	5.871115E-1	5.747368E-1	5.699752E-1	5.830824E-1	5.976562E-1	6.171149E-1	6.011245E-1	6.064421E-1	6.064500E-1	6.037366E-1	5.943424E-1	6.139629E-1	5.743549E-1	6.401702E-1	6.142897E-1	5.956602E-1	5.862762E-1	5.870882E-1	6.213778E-1	5.255444E-1	5.507176E-1	6.447014E-1	5.856061E-1	6.463457E-1	6.415062E-1	5.705888E-1	5.835806E-1	5.901303E-1	5.514304E-1	6.446477E-1	6.210793E-1	5.682037E-1	6.045001E-1	6.121844E-1	6.108577E-1	5.929983E-1	6.387646E-1	5.958514E-1	5.980068E-1	5.737798E-1	6.074099E-1	5.981041E-1	6.451649E-1	5.850663E-1	5.874489E-1	5.769539E-1	5.557300E-1	5.683618E-1	5.522925E-1	5.756963E-1	5.945188E-1	5.803921E-1	6.151337E-1	5.864918E-1	6.009106E-1	5.200144E-1	5.798733E-1	5.625285E-1	6.291614E-1	6.079549E-1	5.986702E-1	5.546812E-1	6.115010E-1	6.449130E-1	6.717906E-1	5.818152E-1	6.241205E-1	5.780498E-1	5.849121E-1	6.542953E-1	5.814486E-1	6.116107E-1	6.240884E-1	6.112951E-1	5.859589E-1	5.848365E-1	5.815259E-1	5.555007E-1	5.876353E-1	5.833917E-1	5.750725E-1	6.049466E-1	6.087502E-1	6.269644E-1	6.029087E-1	5.862859E-1	5.636428E-1	5.997900E-1	6.329473E-1	6.093327E-1
2.856010E+2	3.996746E-1	4.168446E-1	3.978040E-1	3.886017E-1	4.216950E-1	4.350179E-1	4.051023E-1	3.980687E-1	4.085851E-1	4.366936E-1	3.946402E-1	4.041370E-1	4.315864E-1	4.373299E-1	4.192875E-1	4.669897E-1	4.463392E-1	3.866682E-1	4.224424E-1	3.624376E-1	3.799739E-1	4.284202E-1	4.355182E-1	3.887305E-1	3.978526E-1	4.212479E-1	4.170698E-1	3.783021E-1	4.078415E-1	4.324024E-1	3.698988E-1	3.989077E-1	4.425374E-1	4.186549E-1	4.117234E-1	4.597297E-1	4.214889E-1	4.373659E-1	3.899861E-1	3.975299E-1	4.438789E-1	3.946391E-1	4.279967E-1	3.951971E-1	4.112413E-1	4.239538E-1	4.118872E-1	3.863654E-1	4.193316E-1	4.763589E-1	4.584861E-1	4.166871E-1	4.193885E-1	4.332332E-1	4.222167E-1	4.370307E-1	4.015253E-1	4.172145E-1	3.895502E-1	4.130781E-1	3.980468E-1	4.124747E-1	4.259024E-1	4.409772E-1	4.237360E-1	4.451927E-1	4.155302E-1	3.991012E-1	4.522533E-1	3.771948E-1	4.157705E-1	4.137980E-1	4.627770E-1	4.626327E-1	4.063609E-1	3.819742E-1	4.035611E-1	4.031764E-1	4.356040E-1	4.010524E-1	4.120644E-1	4.057922E-1	4.108885E-1	4.079475E-1	4.386697E-1	4.175151E-1	4.429301E-1	3.919966E-1	4.234822E-1	4.155353E-1	4.322402E-1	4.342597E-1	4.459883E-1	4.171926E-1	3.836576E-1	4.045648E-1	4.084488E-1	4.531708E-1	3.897159E-1	4.875890E-1	4.318980E-1	4.143895E-1	4.255482E-1	4.351378E-1	4.480917E-1	4.671585E-1	4.523141E-1	4.359262E-1	4.165021E-1	4.142709E-1	3.998091E-1	4.347131E-1	4.380419E-1	4.027010E-1	4.308041E-1	4.375099E-1	4.284299E-1	4.002922E-1	4.142768E-1	4.456336E-1	3.914445E-1	4.172563E-1	4.556954E-1	4.248045E-1	4.352716E-1	4.135456E-1	3.734247E-1	4.315379E-1	4.486614E-1	4.296907E-1	4.106353E-1	4.516358E-1	4.085472E-1	3.906676E-1	4.069133E-1	4.165384E-1	4.526468E-1	4.330011E-1	4.160017E-1	3.959678E-1	4.182434E-1	4.120294E-1	3.819362E-1	4.275911E-1	4.163233E-1	4.421528E-1	3.918674E-1	4.380009E-1	4.154817E-1	4.467003E-1	4.122793E-1	4.321529E-1	4.478768E-1	4.226339E-1	4.353131E-1	4.255123E-1	4.469823E-1	4.098486E-1	4.333660E-1	4.215182E-1	4.435554E-1	4.221167E-1	4.293154E-1	4.715318E-1	4.315627E-1	4.633578E-1	4.372487E-1	4.423305E-1	4.171209E-1	4.278754E-1	4.659512E-1	4.132124E-1
2.858030E+2	4.111059E-1	4.062268E-1	3.973733E-1	3.734818E-1	3.775264E-1	3.914821E-1	3.851381E-1	4.375293E-1	4.051164E-1	3.829061E-1	4.040556E-1	3.785344E-1	4.207046E-1	4.016712E-1	4.227024E-1	3.919723E-1	3.753130E-1	4.026324E-1	4.041120E-1	4.037025E-1	3.553235E-1	3.922305E-1	4.240913E-1	3.878778E-1	3.713031E-1	3.733552E-1	4.178028E-1	3.478654E-1	3.847255E-1	4.111183E-1	3.420943E-1	4.091573E-1	3.915873E-1	4.170313E-1	3.739412E-1	3.618344E-1	3.853936E-1	3.817049E-1	3.487447E-1	4.045072E-1	3.823876E-1	4.135878E-1	3.640529E-1	3.757211E-1	3.948236E-1	4.228665E-1	4.300402E-1	4.146951E-1	4.212995E-1	4.110682E-1	3.941755E-1	3.746914E-1	3.744799E-1	3.754063E-1	4.095413E-1	3.906064E-1	3.880851E-1	3.966482E-1	4.100976E-1	3.990549E-1	3.840822E-1	3.453443E-1	3.934927E-1	3.992202E-1	3.959590E-1	4.217269E-1	3.828994E-1	3.800601E-1	4.230722E-1	4.396240E-1	4.118770E-1	3.898905E-1	3.561083E-1	3.865991E-1	3.680827E-1	3.931055E-1	3.968065E-1	4.109913E-1	4.053253E-1	3.827464E-1	4.455488E-1	3.741540E-1	3.593671E-1	3.654789E-1	3.692589E-1	3.738760E-1	3.823446E-1	3.862909E-1	4.367726E-1	4.399508E-1	3.988844E-1	4.150096E-1	4.319568E-1	4.024227E-1	4.257209E-1	3.993623E-1	3.811472E-1	4.152854E-1	4.232089E-1	3.813625E-1	3.495347E-1	3.757090E-1	4.276594E-1	4.431977E-1	4.146465E-1	3.752539E-1	4.191165E-1	4.045940E-1	4.018843E-1	3.995122E-1	4.031103E-1	3.558028E-1	3.790003E-1	3.848243E-1	3.714246E-1	4.298822E-1	4.260519E-1	4.077797E-1	3.693851E-1	4.104867E-1	4.019049E-1	4.100595E-1	4.398458E-1	3.826613E-1	3.934730E-1	4.089415E-1	4.082648E-1	4.323265E-1	3.956686E-1	4.367325E-1	4.111505E-1	4.256237E-1	3.668588E-1	3.853207E-1	4.044922E-1	4.003570E-1	4.302104E-1	4.069055E-1	3.983260E-1	3.964145E-1	4.114031E-1	4.132835E-1	3.770640E-1	4.025766E-1	4.266984E-1	4.051148E-1	3.652812E-1	4.089055E-1	3.794770E-1	4.003106E-1	3.985904E-1	4.267508E-1	4.287625E-1	3.965635E-1	3.779125E-1	4.059155E-1	4.244893E-1	3.926919E-1	4.186029E-1	3.658566E-1	4.086068E-1	4.304871E-1	4.026525E-1	3.688406E-1	3.720586E-1	3.962165E-1	4.295915E-1	3.935257E-1	3.975276E-1	4.244134E-1	3.597821E-1	4.015600E-1
2.860070E+2	8.446851E-1	8.504893E-1	8.624092E-1	8.113759E-1	8.542937E-1	8.760743E-1	8.224616E-1	8.192268E-1	8.391267E-1	8.043362E-1	8.232754E-1	8.313636E-1	8.663853E-1	8.305050E-1	8.784950E-1	7.885471E-1	8.484610E-1	8.538577E-1	7.807677E-1	8.689626E-1	8.069642E-1	8.841541E-1	8.431901E-1	8.510666E-1	8.606159E-1	8.340590E-1	8.207249E-1	8.359599E-1	8.192721E-1	8.087209E-1	8.685370E-1	8.167450E-1	8.647159E-1	8.752759E-1	8.382520E-1	8.469732E-1	8.279393E-1	8.262278E-1	8.033180E-1	8.231319E-1	8.334028E-1	8.541999E-1	8.205442E-1	8.423288E-1	8.422776E-1	8.442234E-1	8.496956E-1	8.379065E-1	8.458375E-1	8.930387E-1	8.439153E-1	8.660216E-1	8.241297E-1	8.028777E-1	8.419375E-1	8.376207E-1	8.333726E-1	8.300230E-1	8.858608E-1	8.351068E-1	8.965287E-1	8.669088E-1	8.437731E-1	8.799769E-1	9.188264E-1	8.518045E-1	8.520803E-1	8.207989E-1	9.401916E-1	8.257094E-1	8.386441E-1	8.092754E-1	8.924028E-1	8.360903E-1	8.232796E-1	9.078581E-1	8.392371E-1	9.294870E-1	9.026148E-1	8.282316E-1	8.567670E-1	8.632414E-1	8.154711E-1	7.622868E-1	8.563327E-1	8.479193E-1	8.214199E-1	8.321487E-1	8.404484E-1	8.365439E-1	8.336835E-1	8.346201E-1	8.554928E-1	9.189073E-1	8.420112E-1	8.175573E-1	8.931394E-1	8.343503E-1	8.756888E-1	8.054006E-1	8.947797E-1	8.444310E-1	8.922452E-1	8.752030E-1	8.808928E-1	8.335589E-1	8.762761E-1	8.855706E-1	8.924354E-1	8.271997E-1	8.962371E-1	8.124379E-1	8.848484E-1	9.028543E-1	8.147728E-1	8.791875E-1	8.977001E-1	8.776824E-1	8.409033E-1	8.732424E-1	8.809800E-1	8.668515E-1	8.334853E-1	8.569202E-1	8.604925E-1	7.886208E-1	8.195067E-1	8.340909E-1	8.598466E-1	8.345465E-1	8.542005E-1	8.430923E-1	8.358948E-1	8.571708E-1	8.225617E-1	9.213226E-1	8.825778E-1	8.611184E-1	8.215118E-1	8.393196E-1	8.448064E-1	8.617571E-1	8.291182E-1	8.322167E-1	8.710454E-1	8.788687E-1	8.685377E-1	7.994959E-1	8.600958E-1	8.485991E-1	8.577168E-1	8.780965E-1	8.435107E-1	8.551561E-1	8.284307E-1	8.746794E-1	8.279189E-1	8.965050E-1	8.812289E-1	8.838312E-1	8.620868E-1	8.637767E-1	8.939054E-1	8.663272E-1	8.107772E-1	8.510437E-1	8.529547E-1	9.021745E-1	8.024203E-1	8.175872E-1	8.346201E-1	8.969775E-1
2.862030E+2	1.358995E+0	1.396474E+0	1.386039E+0	1.280053E+0	1.304947E+0	1.346699E+0	1.323720E+0	1.353706E+0	1.397700E+0	1.291435E+0	1.325370E+0	1.280755E+0	1.326381E+0	1.300440E+0	1.328241E+0	1.333053E+0	1.351233E+0	1.374839E+0	1.335822E+0	1.377649E+0	1.315500E+0	1.328768E+0	1.351562E+0	1.363753E+0	1.357255E+0	1.310544E+0	1.398531E+0	1.303849E+0	1.375100E+0	1.370148E+0	1.308821E+0	1.341395E+0	1.339134E+0	1.359185E+0	1.338428E+0	1.359389E+0	1.370914E+0	1.337355E+0	1.295061E+0	1.369027E+0	1.251903E+0	1.290576E+0	1.330850E+0	1.318001E+0	1.300686E+0	1.322164E+0	1.350563E+0	1.349272E+0	1.326624E+0	1.336441E+0	1.390637E+0	1.270942E+0	1.297550E+0	1.321484E+0	1.358236E+0	1.363963E+0	1.290588E+0	1.368195E+0	1.340375E+0	1.291563E+0	1.382549E+0	1.336650E+0	1.301816E+0	1.277382E+0	1.322506E+0	1.370047E+0	1.339560E+0	1.336301E+0	1.346557E+0	1.289749E+0	1.311021E+0	1.309889E+0	1.339841E+0	1.382491E+0	1.376710E+0	1.390836E+0	1.353071E+0	1.422838E+0	1.364248E+0	1.284511E+0	1.366076E+0	1.368677E+0	1.270954E+0	1.327438E+0	1.348263E+0	1.302553E+0	1.321577E+0	1.275992E+0	1.330707E+0	1.332920E+0	1.322350E+0	1.331798E+0	1.349538E+0	1.392636E+0	1.398205E+0	1.329576E+0	1.288840E+0	1.367139E+0	1.405214E+0	1.366278E+0	1.304210E+0	1.300989E+0	1.321881E+0	1.342306E+0	1.310017E+0	1.375342E+0	1.323330E+0	1.332665E+0	1.424954E+0	1.323294E+0	1.318677E+0	1.362550E+0	1.384499E+0	1.347317E+0	1.366415E+0	1.405144E+0	1.335396E+0	1.380166E+0	1.327686E+0	1.327968E+0	1.433324E+0	1.297880E+0	1.323926E+0	1.345250E+0	1.384391E+0	1.326589E+0	1.337060E+0	1.296901E+0	1.328835E+0	1.342158E+0	1.327609E+0	1.338690E+0	1.366803E+0	1.360639E+0	1.346312E+0	1.343549E+0	1.457330E+0	1.334209E+0	1.255665E+0	1.273907E+0	1.357692E+0	1.353477E+0	1.345954E+0	1.366009E+0	1.344042E+0	1.363126E+0	1.303638E+0	1.272040E+0	1.305355E+0	1.282457E+0	1.394933E+0	1.332469E+0	1.303574E+0	1.320057E+0	1.386513E+0	1.347106E+0	1.297370E+0	1.325091E+0	1.337416E+0	1.328583E+0	1.328239E+0	1.266416E+0	1.312398E+0	1.288906E+0	1.324327E+0	1.328838E+0	1.319725E+0	1.326523E+0	1.346567E+0	1.442241E+0	1.208010E+0	1.257213E+0
2.864220E+2	1.373948E+0	1.415515E+0	1.345286E+0	1.312774E+0	1.381925E+0	1.366082E+0	1.388888E+0	1.413885E+0	1.422399E+0	1.368132E+0	1.435216E+0	1.330417E+0	1.406363E+0	1.378049E+0	1.408635E+0	1.337320E+0	1.392245E+0	1.461561E+0	1.351082E+0	1.356342E+0	1.333979E+0	1.407039E+0	1.405820E+0	1.427531E+0	1.331152E+0	1.334691E+0	1.383473E+0	1.305787E+0	1.417804E+0	1.392493E+0	1.321230E+0	1.409395E+0	1.450391E+0	1.458578E+0	1.396050E+0	1.340726E+0	1.349422E+0	1.396107E+0	1.359936E+0	1.334539E+0	1.428086E+0	1.386870E+0	1.492519E+0	1.310243E+0	1.319167E+0	1.366860E+0	1.352970E+0	1.380707E+0	1.379894E+0	1.411964E+0	1.401866E+0	1.384607E+0	1.436152E+0	1.393220E+0	1.414447E+0	1.408354E+0	1.350169E+0	1.361001E+0	1.375936E+0	1.367089E+0	1.367783E+0	1.373925E+0	1.350853E+0	1.465577E+0	1.425279E+0	1.357025E+0	1.432818E+0	1.416758E+0	1.454684E+0	1.358043E+0	1.360055E+0	1.351546E+0	1.448869E+0	1.399576E+0	1.427043E+0	1.402539E+0	1.378843E+0	1.408398E+0	1.395460E+0	1.331170E+0	1.461122E+0	1.364592E+0	1.401994E+0	1.345808E+0	1.411206E+0	1.362729E+0	1.437516E+0	1.422637E+0	1.397987E+0	1.369151E+0	1.423476E+0	1.331857E+0	1.435181E+0	1.425009E+0	1.440976E+0	1.394419E+0	1.391583E+0	1.427161E+0	1.371763E+0	1.398896E+0	1.381729E+0	1.393878E+0	1.343114E+0	1.335014E+0	1.431229E+0	1.411623E+0	1.362696E+0	1.398935E+0	1.372690E+0	1.406174E+0	1.346757E+0	1.336742E+0	1.498952E+0	1.390828E+0	1.403364E+0	1.467154E+0	1.398188E+0	1.403934E+0	1.373136E+0	1.387697E+0	1.399995E+0	1.374945E+0	1.423666E+0	1.330559E+0	1.421395E+0	1.384633E+0	1.420895E+0	1.348000E+0	1.416269E+0	1.415773E+0	1.451837E+0	1.394651E+0	1.388631E+0	1.333470E+0	1.430107E+0	1.373730E+0	1.419543E+0	1.360381E+0	1.386443E+0	1.399720E+0	1.384377E+0	1.440223E+0	1.364694E+0	1.398907E+0	1.390867E+0	1.348193E+0	1.401483E+0	1.399064E+0	1.419076E+0	1.368102E+0	1.422980E+0	1.434895E+0	1.392025E+0	1.402073E+0	1.350306E+0	1.375234E+0	1.344320E+0	1.453104E+0	1.361237E+0	1.304550E+0	1.444085E+0	1.389362E+0	1.443914E+0	1.346782E+0	1.342198E+0	1.488966E+0	1.435837E+0	1.380273E+0	1.368830E+0	1.413491E+0	1.429604E+0	1.416420E+0
2.866160E+2	1.249913E+0	1.274037E+0	1.271235E+0	1.176846E+0	1.195004E+0	1.218495E+0	1.203442E+0	1.241212E+0	1.296722E+0	1.205891E+0	1.238046E+0	1.272179E+0	1.251826E+0	1.158892E+0	1.269055E+0	1.265349E+0	1.258004E+0	1.251841E+0	1.259309E+0	1.235745E+0	1.242456E+0	1.226817E+0	1.277011E+0	1.286975E+0	1.249955E+0	1.283177E+0	1.204158E+0	1.222705E+0	1.292414E+0	1.277032E+0	1.196247E+0	1.259193E+0	1.200762E+0	1.233579E+0	1.203960E+0	1.206584E+0	1.237495E+0	1.208403E+0	1.203469E+0	1.225044E+0	1.227097E+0	1.276569E+0	1.297544E+0	1.218778E+0	1.270662E+0	1.263780E+0	1.219125E+0	1.202054E+0	1.231508E+0	1.222556E+0	1.312559E+0	1.189181E+0	1.233776E+0	1.258497E+0	1.267737E+0	1.264862E+0	1.305331E+0	1.238846E+0	1.226521E+0	1.221284E+0	1.257793E+0	1.215742E+0	1.210201E+0	1.210741E+0	1.278761E+0	1.275375E+0	1.214295E+0	1.247993E+0	1.218204E+0	1.196733E+0	1.209160E+0	1.222708E+0	1.293179E+0	1.206471E+0	1.198317E+0	1.284674E+0	1.268659E+0	1.291213E+0	1.277840E+0	1.194140E+0	1.285134E+0	1.334708E+0	1.208357E+0	1.232503E+0	1.223289E+0	1.253399E+0	1.195203E+0	1.179307E+0	1.308933E+0	1.188375E+0	1.248919E+0	1.228547E+0	1.277747E+0	1.272641E+0	1.302756E+0	1.287967E+0	1.177321E+0	1.228413E+0	1.207373E+0	1.279956E+0	1.274277E+0	1.238268E+0	1.214983E+0	1.245407E+0	1.244855E+0	1.192131E+0	1.258754E+0	1.201497E+0	1.285831E+0	1.254703E+0	1.224246E+0	1.199900E+0	1.275760E+0	1.214864E+0	1.326647E+0	1.249721E+0	1.281516E+0	1.253609E+0	1.213559E+0	1.255854E+0	1.223879E+0	1.198295E+0	1.255026E+0	1.193385E+0	1.270614E+0	1.246227E+0	1.194274E+0	1.250784E+0	1.293682E+0	1.248535E+0	1.191544E+0	1.282460E+0	1.192296E+0	1.212480E+0	1.230932E+0	1.250399E+0	1.247873E+0	1.215489E+0	1.225730E+0	1.183115E+0	1.222812E+0	1.268206E+0	1.241929E+0	1.248741E+0	1.262445E+0	1.250331E+0	1.237082E+0	1.195349E+0	1.229217E+0	1.216330E+0	1.296353E+0	1.201180E+0	1.303726E+0	1.250775E+0	1.247296E+0	1.271462E+0	1.283405E+0	1.281683E+0	1.250200E+0	1.236268E+0	1.178830E+0	1.279199E+0	1.272912E+0	1.185102E+0	1.264216E+0	1.265731E+0	1.284170E+0	1.203126E+0	1.157673E+0	1.285357E+0	1.264654E+0	1.306768E+0
2.868020E+2	1.468166E+0	1.391636E+0	1.411222E+0	1.304757E+0	1.441004E+0	1.381332E+0	1.478490E+0	1.424644E+0	1.438365E+0	1.402082E+0	1.453709E+0	1.423377E+0	1.419749E+0	1.349762E+0	1.402866E+0	1.365752E+0	1.340011E+0	1.356933E+0	1.392467E+0	1.393384E+0	1.416657E+0	1.430318E+0	1.405298E+0	1.460555E+0	1.455379E+0	1.412446E+0	1.419424E+0	1.409694E+0	1.413129E+0	1.435926E+0	1.323702E+0	1.381724E+0	1.467244E+0	1.465220E+0	1.418731E+0	1.366232E+0	1.377405E+0	1.399854E+0	1.401659E+0	1.373125E+0	1.328962E+0	1.399130E+0	1.406518E+0	1.402439E+0	1.399047E+0	1.405801E+0	1.463827E+0	1.386943E+0	1.441698E+0	1.391752E+0	1.455158E+0	1.435978E+0	1.435283E+0	1.422555E+0	1.438524E+0	1.382679E+0	1.379865E+0	1.425783E+0	1.366452E+0	1.436515E+0	1.353077E+0	1.407315E+0	1.362842E+0	1.370488E+0	1.449209E+0	1.472708E+0	1.458092E+0	1.360617E+0	1.437154E+0	1.417785E+0	1.418242E+0	1.370841E+0	1.446546E+0	1.455520E+0	1.408138E+0	1.387194E+0	1.380748E+0	1.429485E+0	1.429388E+0	1.410382E+0	1.452390E+0	1.464821E+0	1.367386E+0	1.401197E+0	1.419330E+0	1.378962E+0	1.409462E+0	1.397912E+0	1.381457E+0	1.416520E+0	1.412834E+0	1.462699E+0	1.441198E+0	1.388957E+0	1.448890E+0	1.423413E+0	1.405483E+0	1.398529E+0	1.433181E+0	1.425102E+0	1.431239E+0	1.335853E+0	1.371260E+0	1.422178E+0	1.429304E+0	1.381091E+0	1.454418E+0	1.372461E+0	1.384553E+0	1.395058E+0	1.411900E+0	1.397093E+0	1.363332E+0	1.439953E+0	1.346192E+0	1.439376E+0	1.372873E+0	1.437450E+0	1.400224E+0	1.446084E+0	1.328959E+0	1.420199E+0	1.410216E+0	1.446954E+0	1.446736E+0	1.406856E+0	1.439240E+0	1.299000E+0	1.449184E+0	1.469477E+0	1.312979E+0	1.360298E+0	1.379453E+0	1.334919E+0	1.405834E+0	1.464375E+0	1.398048E+0	1.435044E+0	1.413385E+0	1.362514E+0	1.387293E+0	1.457723E+0	1.346045E+0	1.330841E+0	1.423567E+0	1.456747E+0	1.326055E+0	1.422639E+0	1.371288E+0	1.431013E+0	1.426136E+0	1.357498E+0	1.397045E+0	1.400197E+0	1.416462E+0	1.435456E+0	1.360145E+0	1.481623E+0	1.461989E+0	1.376644E+0	1.471642E+0	1.449024E+0	1.350636E+0	1.382600E+0	1.350575E+0	1.382424E+0	1.455261E+0	1.465595E+0	1.409305E+0	1.426124E+0	1.368685E+0	1.352873E+0
2.870060E+2	1.472405E+0	1.427133E+0	1.452284E+0	1.327366E+0	1.365056E+0	1.439266E+0	1.350834E+0	1.498252E+0	1.467261E+0	1.389548E+0	1.413779E+0	1.344670E+0	1.420233E+0	1.363490E+0	1.461618E+0	1.396119E+0	1.428649E+0	1.377790E+0	1.385515E+0	1.440157E+0	1.381032E+0	1.445917E+0	1.364884E+0	1.404109E+0	1.438447E+0	1.406132E+0	1.424072E+0	1.433470E+0	1.446365E+0	1.441372E+0	1.364444E+0	1.364682E+0	1.408558E+0	1.487010E+0	1.410127E+0	1.361862E+0	1.389348E+0	1.448432E+0	1.468171E+0	1.408243E+0	1.387251E+0	1.407136E+0	1.442164E+0	1.456383E+0	1.430891E+0	1.493744E+0	1.462588E+0	1.374093E+0	1.401750E+0	1.457545E+0	1.451116E+0	1.407228E+0	1.377111E+0	1.445991E+0	1.364685E+0	1.377844E+0	1.405337E+0	1.421190E+0	1.383098E+0	1.372565E+0	1.388894E+0	1.402442E+0	1.329767E+0	1.409375E+0	1.473725E+0	1.435591E+0	1.434880E+0	1.411493E+0	1.482898E+0	1.393180E+0	1.342153E+0	1.415661E+0	1.398930E+0	1.435303E+0	1.361464E+0	1.456292E+0	1.465620E+0	1.432644E+0	1.450453E+0	1.421627E+0	1.469875E+0	1.450877E+0	1.383548E+0	1.328073E+0	1.333717E+0	1.446241E+0	1.423503E+0	1.407014E+0	1.479998E+0	1.477272E+0	1.471186E+0	1.351313E+0	1.443321E+0	1.395454E+0	1.344745E+0	1.321308E+0	1.450081E+0	1.355292E+0	1.352584E+0	1.367264E+0	1.387352E+0	1.427409E+0	1.414342E+0	1.366486E+0	1.392656E+0	1.466962E+0	1.501960E+0	1.393904E+0	1.399016E+0	1.371523E+0	1.407000E+0	1.397268E+0	1.489070E+0	1.368082E+0	1.438976E+0	1.473896E+0	1.409838E+0	1.468068E+0	1.421747E+0	1.464413E+0	1.432148E+0	1.385110E+0	1.497413E+0	1.411722E+0	1.370223E+0	1.431716E+0	1.367245E+0	1.381290E+0	1.359192E+0	1.449506E+0	1.447760E+0	1.469092E+0	1.409019E+0	1.413612E+0	1.418173E+0	1.441195E+0	1.408350E+0	1.396656E+0	1.440140E+0	1.370322E+0	1.404019E+0	1.394219E+0	1.439340E+0	1.383985E+0	1.399097E+0	1.369170E+0	1.418051E+0	1.427829E+0	1.426499E+0	1.379196E+0	1.410042E+0	1.396608E+0	1.494688E+0	1.368664E+0	1.390241E+0	1.424940E+0	1.430525E+0	1.425039E+0	1.459903E+0	1.404662E+0	1.450960E+0	1.462769E+0	1.365492E+0	1.389509E+0	1.401133E+0	1.430445E+0	1.439278E+0	1.339202E+0	1.464977E+0	1.443757E+0	1.422999E+0	1.440610E+0
2.872190E+2	1.218196E+0	1.235675E+0	1.176733E+0	1.152534E+0	1.141277E+0	1.176813E+0	1.207101E+0	1.172256E+0	1.245146E+0	1.177445E+0	1.166971E+0	1.204728E+0	1.171357E+0	1.108555E+0	1.195431E+0	1.231750E+0	1.160013E+0	1.193656E+0	1.181253E+0	1.184589E+0	1.158035E+0	1.206422E+0	1.195640E+0	1.255782E+0	1.147972E+0	1.128440E+0	1.195840E+0	1.137689E+0	1.149319E+0	1.155947E+0	1.147548E+0	1.132200E+0	1.233459E+0	1.168645E+0	1.134385E+0	1.133292E+0	1.190436E+0	1.178688E+0	1.206160E+0	1.205732E+0	1.142614E+0	1.219005E+0	1.214953E+0	1.168548E+0	1.164673E+0	1.149240E+0	1.190912E+0	1.163045E+0	1.189039E+0	1.209120E+0	1.205431E+0	1.120891E+0	1.168595E+0	1.188071E+0	1.243050E+0	1.156652E+0	1.168476E+0	1.176457E+0	1.180762E+0	1.130629E+0	1.268065E+0	1.177799E+0	1.209693E+0	1.184091E+0	1.198232E+0	1.217202E+0	1.173087E+0	1.224385E+0	1.214731E+0	1.204668E+0	1.168212E+0	1.181809E+0	1.241091E+0	1.193983E+0	1.161944E+0	1.219951E+0	1.184093E+0	1.195157E+0	1.220152E+0	1.187594E+0	1.228591E+0	1.250113E+0	1.154923E+0	1.099980E+0	1.174749E+0	1.235432E+0	1.212990E+0	1.206876E+0	1.177782E+0	1.194789E+0	1.244517E+0	1.150231E+0	1.229295E+0	1.229184E+0	1.251291E+0	1.132069E+0	1.164805E+0	1.221751E+0	1.165991E+0	1.182869E+0	1.164658E+0	1.187022E+0	1.157323E+0	1.209292E+0	1.304151E+0	1.209158E+0	1.162693E+0	1.192792E+0	1.194252E+0	1.178014E+0	1.145707E+0	1.160635E+0	1.239886E+0	1.251417E+0	1.289085E+0	1.191236E+0	1.223821E+0	1.211351E+0	1.194176E+0	1.222641E+0	1.179359E+0	1.149281E+0	1.210210E+0	1.189276E+0	1.143642E+0	1.193517E+0	1.141274E+0	1.201379E+0	1.256213E+0	1.234742E+0	1.207203E+0	1.205384E+0	1.193675E+0	1.170026E+0	1.256208E+0	1.253288E+0	1.193918E+0	1.226903E+0	1.191322E+0	1.176130E+0	1.179761E+0	1.175504E+0	1.207735E+0	1.149316E+0	1.193180E+0	1.171274E+0	1.151985E+0	1.250635E+0	1.194711E+0	1.179543E+0	1.194523E+0	1.150494E+0	1.211722E+0	1.229986E+0	1.204532E+0	1.168161E+0	1.160459E+0	1.217771E+0	1.198351E+0	1.217464E+0	1.219551E+0	1.166324E+0	1.183155E+0	1.155545E+0	1.251446E+0	1.161445E+0	1.220197E+0	1.156837E+0	1.219198E+0	1.259165E+0	1.200689E+0	1.067030E+0
2.874030E+2	9.060936E-1	9.492243E-1	9.807759E-1	9.710065E-1	9.429246E-1	9.882957E-1	9.659671E-1	9.950075E-1	1.027561E+0	9.110658E-1	9.434259E-1	9.186613E-1	9.943585E-1	9.290513E-1	9.783478E-1	9.596089E-1	1.039670E+0	9.313466E-1	9.772081E-1	9.486115E-1	9.658281E-1	9.970497E-1	9.119012E-1	1.006788E+0	9.967962E-1	9.607373E-1	9.361039E-1	9.362630E-1	9.711870E-1	9.444918E-1	9.119473E-1	9.072539E-1	1.019519E+0	1.014496E+0	9.224718E-1	9.191596E-1	9.703039E-1	9.453375E-1	9.977834E-1	9.393093E-1	9.864867E-1	9.966877E-1	9.925345E-1	9.685854E-1	1.011137E+0	9.951793E-1	9.775538E-1	9.228948E-1	9.426835E-1	1.009703E+0	9.898654E-1	8.986905E-1	1.017712E+0	9.433952E-1	9.719180E-1	9.555880E-1	9.403772E-1	9.700541E-1	9.853247E-1	9.475901E-1	9.810654E-1	9.631129E-1	9.496410E-1	9.806250E-1	9.509278E-1	1.011849E+0	9.488423E-1	9.719000E-1	9.752561E-1	9.381583E-1	9.362695E-1	9.412850E-1	9.588781E-1	9.580097E-1	9.519999E-1	1.010294E+0	9.973191E-1	9.787543E-1	9.403483E-1	9.115596E-1	1.019332E+0	9.774133E-1	9.846687E-1	9.602187E-1	9.953752E-1	9.562128E-1	9.715421E-1	9.620674E-1	9.953768E-1	1.002871E+0	1.006853E+0	9.090932E-1	9.822163E-1	1.000734E+0	9.747605E-1	9.905559E-1	9.544228E-1	9.844118E-1	9.322734E-1	9.587013E-1	1.022233E+0	9.519738E-1	9.213662E-1	9.656893E-1	9.649584E-1	9.585408E-1	9.843952E-1	9.467068E-1	9.839248E-1	9.317403E-1	9.302194E-1	9.513370E-1	1.034654E+0	9.456989E-1	9.777263E-1	9.635090E-1	9.600615E-1	1.002530E+0	9.603150E-1	9.749091E-1	9.464079E-1	9.758555E-1	1.009806E+0	9.415695E-1	1.009425E+0	9.693980E-1	9.669834E-1	9.487599E-1	9.959073E-1	1.002205E+0	8.982951E-1	9.831053E-1	1.013084E+0	1.038129E+0	9.425348E-1	9.670319E-1	9.539299E-1	9.899022E-1	9.686847E-1	9.298672E-1	9.777879E-1	1.021076E+0	9.691091E-1	9.725608E-1	9.305101E-1	9.636125E-1	9.600360E-1	9.799457E-1	9.967085E-1	9.239366E-1	9.772449E-1	1.028357E+0	9.830688E-1	9.581132E-1	9.697111E-1	9.881198E-1	9.907686E-1	9.417396E-1	9.584116E-1	9.428599E-1	9.703293E-1	9.969636E-1	9.295182E-1	9.573845E-1	9.516152E-1	9.529575E-1	9.422202E-1	9.589979E-1	9.666560E-1	9.670804E-1	1.005648E+0	1.100207E+0
2.876170E+2	7.396991E-1	7.572039E-1	8.067741E-1	7.330709E-1	7.166211E-1	7.668107E-1	7.499108E-1	7.276677E-1	7.690773E-1	8.148315E-1	7.431111E-1	7.293607E-1	7.940934E-1	7.063933E-1	7.783333E-1	7.542029E-1	7.616938E-1	7.368117E-1	7.468358E-1	7.427463E-1	7.491458E-1	7.495011E-1	7.723362E-1	7.616326E-1	7.524405E-1	7.950850E-1	7.157477E-1	7.500240E-1	7.608156E-1	7.725899E-1	7.317903E-1	7.725706E-1	7.511847E-1	7.516794E-1	7.789133E-1	7.744803E-1	7.359856E-1	7.811329E-1	7.075706E-1	7.839597E-1	7.608032E-1	7.886616E-1	8.470523E-1	7.168123E-1	7.373898E-1	7.742642E-1	7.808911E-1	7.263005E-1	7.215895E-1	7.576084E-1	7.506534E-1	7.690702E-1	7.769974E-1	7.751191E-1	7.419974E-1	7.355758E-1	7.832603E-1	7.428228E-1	7.436040E-1	7.280080E-1	8.097701E-1	7.429730E-1	7.417375E-1	7.943161E-1	7.697319E-1	7.479318E-1	7.586945E-1	7.719696E-1	7.535914E-1	7.618135E-1	7.351229E-1	8.008526E-1	7.494608E-1	7.420285E-1	7.579209E-1	7.883829E-1	7.551659E-1	7.645608E-1	7.500973E-1	7.395573E-1	7.937407E-1	7.946935E-1	7.162208E-1	7.316772E-1	7.556597E-1	7.975140E-1	7.519044E-1	7.607310E-1	7.419758E-1	7.874241E-1	7.459894E-1	7.759277E-1	7.602893E-1	7.940139E-1	8.050862E-1	7.557976E-1	8.028655E-1	8.265717E-1	7.522602E-1	7.381480E-1	7.914414E-1	7.528225E-1	7.436713E-1	7.711111E-1	7.623981E-1	7.968495E-1	7.600727E-1	7.909908E-1	7.835104E-1	7.885337E-1	7.860800E-1	7.422126E-1	8.196456E-1	7.448367E-1	8.064788E-1	7.819311E-1	7.890283E-1	7.821950E-1	7.696275E-1	7.370296E-1	7.788290E-1	7.192464E-1	7.852474E-1	7.232600E-1	7.132279E-1	7.312084E-1	8.279383E-1	7.456790E-1	7.875275E-1	7.575550E-1	7.491357E-1	7.974753E-1	8.127266E-1	7.793286E-1	7.456507E-1	7.550870E-1	7.925439E-1	8.191843E-1	7.378355E-1	7.305503E-1	7.965136E-1	8.033834E-1	7.715348E-1	7.889732E-1	7.801542E-1	7.570493E-1	7.357607E-1	7.757362E-1	7.780684E-1	7.367093E-1	8.239224E-1	7.614212E-1	7.621463E-1	8.021369E-1	7.666419E-1	7.639375E-1	7.743129E-1	7.638843E-1	7.832623E-1	7.774974E-1	8.109288E-1	7.815770E-1	7.762058E-1	7.442119E-1	7.617273E-1	7.660686E-1	7.685558E-1	7.660621E-1	7.576484E-1	7.991165E-1	8.633074E-1	7.071749E-1
2.878020E+2	6.613603E-1	5.980598E-1	6.469173E-1	5.949703E-1	6.254871E-1	6.115966E-1	6.146656E-1	6.672446E-1	6.575819E-1	6.393136E-1	6.435202E-1	6.081056E-1	6.376028E-1	6.491991E-1	6.339908E-1	6.506340E-1	6.527240E-1	6.604158E-1	6.586775E-1	6.089024E-1	6.388204E-1	6.156767E-1	6.602970E-1	6.132165E-1	6.437339E-1	6.413608E-1	6.688437E-1	6.330495E-1	5.931407E-1	6.653702E-1	6.220570E-1	6.413503E-1	6.631222E-1	6.412576E-1	6.413297E-1	6.053566E-1	6.061292E-1	6.353363E-1	6.444221E-1	5.857638E-1	6.319553E-1	6.184512E-1	6.205270E-1	6.217531E-1	5.892917E-1	6.380903E-1	6.133930E-1	6.169464E-1	6.640536E-1	6.146258E-1	6.172710E-1	6.049017E-1	5.978655E-1	6.455309E-1	6.569650E-1	6.191559E-1	6.740912E-1	6.511138E-1	6.184801E-1	5.951795E-1	6.493001E-1	6.274650E-1	6.090937E-1	6.085475E-1	6.547150E-1	6.167149E-1	6.106653E-1	6.101167E-1	6.541892E-1	6.437342E-1	5.930624E-1	6.468446E-1	6.350220E-1	6.368578E-1	6.198374E-1	6.493669E-1	6.296593E-1	6.501714E-1	6.641133E-1	6.186909E-1	6.654425E-1	6.520602E-1	6.450013E-1	6.188182E-1	6.155399E-1	6.403971E-1	6.291405E-1	6.415395E-1	6.752396E-1	6.248374E-1	6.012492E-1	6.372400E-1	6.253337E-1	6.209675E-1	6.169718E-1	6.495652E-1	6.115595E-1	6.326088E-1	6.259753E-1	6.374255E-1	6.629051E-1	6.425534E-1	6.451871E-1	6.214393E-1	6.533568E-1	6.446291E-1	6.463273E-1	6.471600E-1	6.601478E-1	6.489427E-1	6.437571E-1	6.080832E-1	6.543595E-1	6.603912E-1	6.689277E-1	6.668159E-1	6.657219E-1	6.737890E-1	6.462515E-1	6.140348E-1	6.613905E-1	6.198972E-1	6.169331E-1	6.234751E-1	6.513076E-1	6.206423E-1	6.237672E-1	6.163591E-1	6.431823E-1	6.104623E-1	6.309701E-1	6.660484E-1	6.559419E-1	6.054616E-1	6.492390E-1	6.293886E-1	6.170584E-1	6.370759E-1	6.169276E-1	6.534580E-1	5.965858E-1	6.332124E-1	6.429631E-1	6.656346E-1	6.393753E-1	6.786663E-1	6.050088E-1	6.326930E-1	6.248044E-1	6.069398E-1	6.196730E-1	6.584881E-1	6.583138E-1	6.599309E-1	6.267599E-1	6.538987E-1	6.103905E-1	6.552879E-1	6.280557E-1	6.402354E-1	6.887326E-1	6.117413E-1	6.469996E-1	5.954702E-1	6.589440E-1	6.498416E-1	6.342802E-1	6.426947E-1	6.990244E-1	6.344432E-1	6.333208E-1	6.388707E-1
2.880020E+2	7.736279E-1	7.511950E-1	7.266733E-1	7.195121E-1	7.195734E-1	7.282064E-1	7.226374E-1	7.033722E-1	7.594635E-1	7.120051E-1	7.327544E-1	7.355740E-1	7.634894E-1	7.303453E-1	7.582390E-1	7.440731E-1	7.215573E-1	7.127380E-1	7.133945E-1	7.202220E-1	7.591719E-1	7.230930E-1	7.055221E-1	7.555638E-1	7.325022E-1	7.387932E-1	7.238530E-1	7.711862E-1	7.711820E-1	7.591411E-1	7.638282E-1	7.392739E-1	7.693114E-1	7.794071E-1	7.741907E-1	6.709125E-1	7.159162E-1	7.084458E-1	7.157329E-1	7.897498E-1	7.156920E-1	7.550079E-1	7.457867E-1	7.119019E-1	7.557334E-1	7.636175E-1	7.560168E-1	7.226957E-1	7.428923E-1	7.684177E-1	7.829961E-1	7.822444E-1	7.179299E-1	7.353457E-1	7.408537E-1	7.367778E-1	7.044428E-1	6.862184E-1	7.712263E-1	7.083500E-1	7.212288E-1	7.699126E-1	7.183718E-1	7.158330E-1	7.554844E-1	7.387628E-1	7.885311E-1	7.279316E-1	7.716332E-1	7.092500E-1	7.138456E-1	7.674078E-1	7.362229E-1	7.404261E-1	7.368963E-1	7.566668E-1	7.320145E-1	7.157077E-1	7.302299E-1	7.462857E-1	7.189615E-1	7.514002E-1	7.247915E-1	7.467757E-1	7.400501E-1	7.533850E-1	7.548853E-1	7.750342E-1	7.423963E-1	7.064459E-1	7.193247E-1	7.137754E-1	7.202022E-1	8.000358E-1	7.695270E-1	7.282832E-1	7.075592E-1	7.410807E-1	7.878535E-1	7.335762E-1	7.568010E-1	7.453022E-1	7.265390E-1	7.213381E-1	7.744670E-1	7.275542E-1	7.121071E-1	7.102771E-1	7.988069E-1	7.594158E-1	7.381067E-1	7.267680E-1	7.637618E-1	7.298496E-1	7.227080E-1	7.379360E-1	7.513299E-1	8.008962E-1	6.977736E-1	7.731770E-1	7.480991E-1	7.122949E-1	7.579861E-1	7.253908E-1	7.098922E-1	7.429546E-1	7.466426E-1	7.573019E-1	7.650795E-1	7.421979E-1	7.634968E-1	7.491838E-1	7.504869E-1	7.614257E-1	7.697144E-1	7.387701E-1	7.271576E-1	7.665447E-1	7.526970E-1	7.417766E-1	7.614722E-1	7.671516E-1	7.358722E-1	7.552736E-1	7.382635E-1	7.631338E-1	7.446924E-1	7.609497E-1	7.664344E-1	7.658879E-1	7.484535E-1	7.289443E-1	7.273013E-1	7.472127E-1	7.905786E-1	7.651035E-1	7.541278E-1	7.952515E-1	7.380234E-1	7.347200E-1	7.625546E-1	7.522229E-1	7.316619E-1	7.763420E-1	7.833931E-1	7.742410E-1	7.488638E-1	7.182112E-1	8.005940E-1	7.889362E-1	8.517287E-1	7.408558E-1
2.882150E+2	7.861895E-1	8.659730E-1	8.850768E-1	8.769410E-1	9.117025E-1	8.873751E-1	8.091135E-1	8.587165E-1	8.594341E-1	8.364155E-1	8.638191E-1	8.559881E-1	8.104600E-1	8.752950E-1	8.765389E-1	8.468936E-1	8.788150E-1	8.546737E-1	8.602839E-1	8.420721E-1	8.548885E-1	8.559617E-1	8.878189E-1	8.451822E-1	8.295344E-1	8.662408E-1	8.776048E-1	8.496989E-1	8.498637E-1	8.744225E-1	8.590028E-1	8.301668E-1	8.482906E-1	9.539285E-1	8.316382E-1	8.960822E-1	8.561110E-1	8.516254E-1	8.701152E-1	8.696204E-1	8.472871E-1	8.554834E-1	8.309252E-1	8.252812E-1	8.515211E-1	8.266851E-1	8.804310E-1	8.641225E-1	8.230561E-1	9.089661E-1	8.929550E-1	8.342574E-1	8.071676E-1	8.317452E-1	8.478197E-1	8.220518E-1	8.335648E-1	8.826403E-1	8.624285E-1	8.337359E-1	8.704819E-1	8.342111E-1	8.029477E-1	8.890123E-1	8.283564E-1	8.824434E-1	8.590856E-1	8.595801E-1	8.454830E-1	8.636965E-1	8.380143E-1	8.353709E-1	8.958350E-1	8.542273E-1	9.038154E-1	8.928060E-1	8.670894E-1	9.203193E-1	8.715158E-1	8.652538E-1	8.501771E-1	8.474556E-1	8.557212E-1	8.938373E-1	8.390778E-1	8.660170E-1	8.343151E-1	9.163263E-1	8.912337E-1	8.406977E-1	8.899567E-1	8.388518E-1	8.998592E-1	8.622925E-1	8.801514E-1	8.358118E-1	8.518897E-1	9.118834E-1	8.568605E-1	9.289683E-1	8.926480E-1	8.849106E-1	8.168268E-1	8.572569E-1	8.586812E-1	9.018688E-1	8.937395E-1	8.875625E-1	8.897589E-1	9.083355E-1	9.508895E-1	8.269047E-1	8.911546E-1	9.234411E-1	8.591138E-1	9.096359E-1	8.743081E-1	8.235188E-1	8.795173E-1	8.791888E-1	8.821981E-1	8.700573E-1	8.677789E-1	8.188659E-1	8.509448E-1	8.759592E-1	8.289312E-1	8.836384E-1	8.725790E-1	9.354183E-1	8.739604E-1	8.203659E-1	8.608042E-1	8.764477E-1	8.857953E-1	8.704250E-1	8.755650E-1	8.878421E-1	8.814278E-1	8.523472E-1	8.880344E-1	8.594983E-1	8.889201E-1	8.407059E-1	8.868386E-1	8.345963E-1	8.520366E-1	8.578722E-1	8.659486E-1	8.508202E-1	8.527055E-1	9.468584E-1	8.942159E-1	9.105588E-1	8.449180E-1	8.935560E-1	8.657774E-1	9.088482E-1	8.844899E-1	8.659245E-1	8.967127E-1	8.942386E-1	8.375419E-1	8.390944E-1	8.149947E-1	8.823462E-1	8.851386E-1	8.745511E-1	8.639631E-1	8.795962E-1	7.821702E-1	8.967848E-1
2.884200E+2	9.607144E-1	1.004658E+0	9.524132E-1	9.277924E-1	9.445258E-1	9.643853E-1	1.006891E+0	9.894198E-1	1.051235E+0	9.786629E-1	9.831886E-1	9.637895E-1	9.846063E-1	9.844995E-1	9.747044E-1	9.447345E-1	9.847942E-1	9.924204E-1	1.005046E+0	1.067590E+0	9.722220E-1	1.032535E+0	1.000533E+0	1.007938E+0	1.011203E+0	1.025116E+0	1.019427E+0	9.833143E-1	1.013076E+0	1.014992E+0	9.536515E-1	9.932580E-1	9.849728E-1	1.013036E+0	9.686772E-1	9.742422E-1	9.719647E-1	9.987596E-1	9.598753E-1	9.430169E-1	9.672759E-1	9.838731E-1	9.961937E-1	9.674485E-1	1.013441E+0	1.013898E+0	9.881697E-1	9.441350E-1	9.366438E-1	9.805510E-1	1.023809E+0	1.002278E+0	9.976512E-1	9.858939E-1	9.812917E-1	9.968014E-1	1.028585E+0	9.788718E-1	9.473591E-1	9.951114E-1	9.495689E-1	9.768575E-1	9.924928E-1	9.271723E-1	9.964532E-1	9.828797E-1	9.922982E-1	1.012572E+0	1.019942E+0	9.833060E-1	9.341218E-1	1.017008E+0	1.009754E+0	9.813060E-1	1.043207E+0	1.051514E+0	1.009049E+0	1.000979E+0	9.904679E-1	9.733668E-1	1.005707E+0	1.041585E+0	9.771258E-1	9.785945E-1	9.928702E-1	9.869035E-1	9.589278E-1	1.022020E+0	1.085209E+0	9.951997E-1	1.026095E+0	9.423859E-1	9.921918E-1	9.674285E-1	1.047322E+0	1.034256E+0	9.437475E-1	9.905594E-1	9.821502E-1	1.016334E+0	9.586042E-1	9.747444E-1	9.969467E-1	1.003353E+0	1.025370E+0	9.972414E-1	1.008276E+0	9.791203E-1	1.000322E+0	1.005185E+0	1.073834E+0	9.677389E-1	1.011219E+0	1.037737E+0	1.035029E+0	1.037486E+0	9.740366E-1	9.643864E-1	9.722094E-1	1.041437E+0	1.029503E+0	1.031611E+0	1.019962E+0	9.836831E-1	1.003973E+0	9.801169E-1	1.015810E+0	9.915786E-1	9.914855E-1	9.955898E-1	1.023995E+0	1.041101E+0	1.023445E+0	1.024241E+0	9.826113E-1	1.023818E+0	1.054071E+0	9.916219E-1	9.900815E-1	9.887010E-1	1.005910E+0	1.004183E+0	1.017609E+0	1.014678E+0	9.626370E-1	1.013132E+0	9.897571E-1	1.032831E+0	9.749831E-1	9.835537E-1	1.045075E+0	1.023159E+0	1.005544E+0	1.090740E+0	9.992388E-1	9.939232E-1	9.963326E-1	1.063479E+0	9.666294E-1	9.737691E-1	1.042763E+0	1.055688E+0	9.241791E-1	9.858135E-1	1.015738E+0	1.025166E+0	9.989070E-1	1.008500E+0	9.792875E-1	9.576994E-1	9.296226E-1	9.587271E-1
2.886040E+2	1.102815E+0	1.160680E+0	1.068435E+0	1.072670E+0	1.063424E+0	1.136839E+0	1.115664E+0	1.096046E+0	1.113772E+0	1.057424E+0	1.086892E+0	1.071878E+0	1.122877E+0	1.076717E+0	1.079673E+0	1.093073E+0	1.053379E+0	1.035632E+0	1.082682E+0	1.132858E+0	1.132867E+0	1.142426E+0	1.056425E+0	1.086894E+0	1.065664E+0	1.066075E+0	1.105293E+0	1.098793E+0	1.096507E+0	1.084245E+0	1.016533E+0	1.108333E+0	1.024772E+0	1.134827E+0	1.077543E+0	1.074593E+0	1.026138E+0	1.078351E+0	1.048967E+0	1.070685E+0	1.065563E+0	1.060943E+0	1.080137E+0	1.080781E+0	1.106974E+0	1.152180E+0	1.129233E+0	1.089076E+0	1.042310E+0	1.157476E+0	1.119786E+0	1.091250E+0	1.058702E+0	1.082866E+0	1.091712E+0	1.124736E+0	1.101393E+0	1.089237E+0	1.127505E+0	1.040741E+0	1.102421E+0	1.111430E+0	1.073562E+0	1.091305E+0	1.075354E+0	1.033729E+0	1.132820E+0	1.128766E+0	1.094942E+0	1.083282E+0	1.102811E+0	1.049437E+0	1.082812E+0	1.086838E+0	1.104703E+0	1.101531E+0	1.090283E+0	1.143741E+0	1.097977E+0	1.041212E+0	1.102496E+0	1.127779E+0	1.050716E+0	1.100280E+0	1.044654E+0	1.089346E+0	1.101432E+0	1.122182E+0	1.143397E+0	1.084497E+0	1.113186E+0	1.069222E+0	1.126328E+0	1.194536E+0	1.089385E+0	1.130250E+0	1.106740E+0	1.142584E+0	1.113765E+0	1.040309E+0	1.165776E+0	1.045027E+0	1.080269E+0	1.134397E+0	1.145948E+0	1.152695E+0	1.098482E+0	1.137809E+0	1.105005E+0	1.103091E+0	1.101907E+0	1.108180E+0	1.132485E+0	1.088782E+0	1.162579E+0	1.110483E+0	1.059441E+0	1.111104E+0	1.045729E+0	1.156504E+0	1.080343E+0	1.093788E+0	1.100713E+0	1.094739E+0	1.144773E+0	1.090067E+0	1.073667E+0	1.004927E+0	1.086695E+0	1.086453E+0	1.119147E+0	1.067377E+0	1.107375E+0	1.160913E+0	1.154221E+0	1.081445E+0	1.093059E+0	1.095403E+0	1.059977E+0	1.095286E+0	1.066901E+0	1.200085E+0	1.040438E+0	1.071655E+0	1.080295E+0	1.151290E+0	1.056840E+0	1.133411E+0	1.092432E+0	1.100783E+0	1.035327E+0	1.163577E+0	1.126318E+0	1.115079E+0	1.107609E+0	1.127235E+0	1.125808E+0	1.102862E+0	1.134923E+0	1.108412E+0	1.110817E+0	1.157971E+0	1.133527E+0	1.048260E+0	1.090111E+0	1.142599E+0	1.073591E+0	1.100436E+0	1.125456E+0	1.120942E+0	1.099953E+0	1.274641E+0
2.888230E+2	1.282145E+0	1.321625E+0	1.284182E+0	1.264676E+0	1.255891E+0	1.244385E+0	1.236994E+0	1.315714E+0	1.276123E+0	1.237069E+0	1.276956E+0	1.239850E+0	1.298023E+0	1.284100E+0	1.317574E+0	1.306100E+0	1.244239E+0	1.262953E+0	1.212492E+0	1.235879E+0	1.271138E+0	1.246263E+0	1.218564E+0	1.265565E+0	1.243523E+0	1.318808E+0	1.221403E+0	1.213113E+0	1.251357E+0	1.310198E+0	1.185952E+0	1.225937E+0	1.269554E+0	1.290418E+0	1.276621E+0	1.219571E+0	1.224787E+0	1.220169E+0	1.244873E+0	1.264273E+0	1.262192E+0	1.269006E+0	1.254770E+0	1.279119E+0	1.230548E+0	1.256159E+0	1.314269E+0	1.223786E+0	1.228392E+0	1.312662E+0	1.276036E+0	1.268701E+0	1.242903E+0	1.252465E+0	1.270682E+0	1.261081E+0	1.273241E+0	1.288705E+0	1.288126E+0	1.202183E+0	1.268702E+0	1.280855E+0	1.259509E+0	1.256768E+0	1.243725E+0	1.326442E+0	1.271252E+0	1.271038E+0	1.334430E+0	1.257730E+0	1.260541E+0	1.237714E+0	1.263850E+0	1.321921E+0	1.318595E+0	1.268183E+0	1.285190E+0	1.279186E+0	1.301596E+0	1.280627E+0	1.290121E+0	1.303439E+0	1.240925E+0	1.167012E+0	1.281862E+0	1.214898E+0	1.283764E+0	1.237935E+0	1.304904E+0	1.207483E+0	1.247638E+0	1.238358E+0	1.266614E+0	1.322586E+0	1.313033E+0	1.259121E+0	1.239714E+0	1.268428E+0	1.249223E+0	1.296779E+0	1.298757E+0	1.270856E+0	1.262870E+0	1.270973E+0	1.283997E+0	1.264636E+0	1.301584E+0	1.266761E+0	1.271996E+0	1.315311E+0	1.261438E+0	1.230537E+0	1.255032E+0	1.318850E+0	1.306037E+0	1.243798E+0	1.244873E+0	1.278861E+0	1.290321E+0	1.289958E+0	1.285693E+0	1.277995E+0	1.264191E+0	1.242890E+0	1.284677E+0	1.260313E+0	1.277315E+0	1.191443E+0	1.258192E+0	1.239060E+0	1.270388E+0	1.285865E+0	1.265368E+0	1.334615E+0	1.325087E+0	1.238993E+0	1.286829E+0	1.221950E+0	1.275271E+0	1.231423E+0	1.256775E+0	1.288754E+0	1.269646E+0	1.215512E+0	1.284992E+0	1.250148E+0	1.267772E+0	1.264915E+0	1.284003E+0	1.227900E+0	1.231791E+0	1.255164E+0	1.246817E+0	1.283992E+0	1.205315E+0	1.209670E+0	1.239388E+0	1.346126E+0	1.231038E+0	1.211462E+0	1.243333E+0	1.281270E+0	1.234273E+0	1.188794E+0	1.228149E+0	1.256096E+0	1.269506E+0	1.237937E+0	1.278150E+0	1.274290E+0	1.224895E+0	1.190277E+0
2.890230E+2	1.275139E+0	1.278904E+0	1.155843E+0	1.178246E+0	1.207264E+0	1.129292E+0	1.141952E+0	1.179351E+0	1.202875E+0	1.208317E+0	1.210656E+0	1.150648E+0	1.256839E+0	1.149215E+0	1.184208E+0	1.191079E+0	1.153884E+0	1.258516E+0	1.139136E+0	1.199891E+0	1.152568E+0	1.171426E+0	1.160025E+0	1.158149E+0	1.214706E+0	1.183081E+0	1.205623E+0	1.217808E+0	1.169519E+0	1.229313E+0	1.147843E+0	1.184723E+0	1.187421E+0	1.228180E+0	1.191196E+0	1.151391E+0	1.185292E+0	1.201949E+0	1.204222E+0	1.200496E+0	1.131605E+0	1.182797E+0	1.150715E+0	1.206154E+0	1.153580E+0	1.214800E+0	1.190597E+0	1.205765E+0	1.154360E+0	1.139519E+0	1.199721E+0	1.141468E+0	1.213608E+0	1.171472E+0	1.211281E+0	1.206390E+0	1.192996E+0	1.222082E+0	1.205914E+0	1.164790E+0	1.179786E+0	1.204483E+0	1.182017E+0	1.170419E+0	1.135987E+0	1.204749E+0	1.202915E+0	1.221231E+0	1.208236E+0	1.159697E+0	1.231444E+0	1.197875E+0	1.220754E+0	1.111613E+0	1.223400E+0	1.200848E+0	1.207835E+0	1.194562E+0	1.153745E+0	1.186367E+0	1.209643E+0	1.220740E+0	1.164774E+0	1.140233E+0	1.186497E+0	1.251363E+0	1.240123E+0	1.207554E+0	1.147624E+0	1.166260E+0	1.173111E+0	1.163993E+0	1.153713E+0	1.224776E+0	1.178025E+0	1.188507E+0	1.206272E+0	1.235936E+0	1.201155E+0	1.227049E+0	1.179884E+0	1.156836E+0	1.160506E+0	1.240247E+0	1.236766E+0	1.248436E+0	1.202933E+0	1.189097E+0	1.184401E+0	1.212707E+0	1.139274E+0	1.149655E+0	1.211530E+0	1.214467E+0	1.248769E+0	1.219754E+0	1.200961E+0	1.206761E+0	1.159804E+0	1.181594E+0	1.212460E+0	1.262062E+0	1.173152E+0	1.125722E+0	1.174704E+0	1.179751E+0	1.198886E+0	1.140785E+0	1.259190E+0	1.225835E+0	1.194655E+0	1.160407E+0	1.158356E+0	1.176392E+0	1.193405E+0	1.234053E+0	1.199302E+0	1.200762E+0	1.176658E+0	1.165371E+0	1.147333E+0	1.252234E+0	1.219095E+0	1.200596E+0	1.160571E+0	1.216454E+0	1.223229E+0	1.235803E+0	1.147761E+0	1.175073E+0	1.169608E+0	1.199040E+0	1.131605E+0	1.214329E+0	1.178242E+0	1.189765E+0	1.148866E+0	1.204778E+0	1.233900E+0	1.244532E+0	1.262684E+0	1.211975E+0	1.228004E+0	1.128050E+0	1.134824E+0	1.189429E+0	1.229938E+0	1.195565E+0	1.222014E+0	1.293382E+0	1.164041E+0	1.255724E+0
2.892010E+2	1.050532E+0	9.971675E-1	9.925622E-1	9.796907E-1	1.030733E+0	1.054909E+0	1.069845E+0	9.874063E-1	1.031811E+0	1.038699E+0	9.632710E-1	1.016742E+0	1.035917E+0	1.009209E+0	1.003930E+0	1.029957E+0	1.039374E+0	1.012584E+0	9.593008E-1	1.051321E+0	1.044343E+0	1.062073E+0	1.056740E+0	1.023651E+0	1.084469E+0	1.105264E+0	1.016944E+0	1.034851E+0	9.953695E-1	1.103593E+0	1.025835E+0	9.895459E-1	1.016110E+0	1.046602E+0	9.902510E-1	9.841389E-1	1.021455E+0	1.041231E+0	1.024273E+0	1.017384E+0	1.059736E+0	1.004393E+0	1.040763E+0	1.001849E+0	1.025498E+0	1.083049E+0	1.028896E+0	9.782855E-1	1.009219E+0	1.077306E+0	1.030162E+0	1.022387E+0	9.913228E-1	1.011066E+0	9.763279E-1	1.049529E+0	1.008201E+0	1.070618E+0	1.010717E+0	1.004625E+0	1.022095E+0	1.048843E+0	1.007850E+0	1.032277E+0	1.077849E+0	1.012922E+0	1.004961E+0	1.014754E+0	1.026387E+0	1.045348E+0	1.012980E+0	9.945438E-1	1.026565E+0	1.044496E+0	1.031840E+0	1.064171E+0	1.072775E+0	1.086350E+0	1.041754E+0	9.991615E-1	1.046034E+0	1.084655E+0	9.769780E-1	9.815992E-1	1.032735E+0	1.085029E+0	1.004664E+0	1.033427E+0	1.029464E+0	1.075998E+0	1.036674E+0	1.031800E+0	1.038378E+0	1.014250E+0	1.010074E+0	1.023820E+0	1.046566E+0	1.062045E+0	1.062950E+0	1.028442E+0	1.035546E+0	1.051154E+0	9.952934E-1	1.057995E+0	1.007758E+0	1.056983E+0	1.048737E+0	1.011145E+0	1.018184E+0	1.017837E+0	1.032015E+0	1.001127E+0	1.022048E+0	1.036424E+0	1.035069E+0	1.038054E+0	1.025577E+0	1.024352E+0	1.058460E+0	1.079459E+0	1.073239E+0	1.037066E+0	1.021228E+0	1.001085E+0	1.120265E+0	1.054523E+0	1.028037E+0	1.059705E+0	1.008762E+0	1.017512E+0	1.000650E+0	9.955196E-1	1.068433E+0	1.082841E+0	1.046745E+0	1.047301E+0	1.046488E+0	1.010759E+0	1.006085E+0	9.895842E-1	1.039973E+0	1.032999E+0	1.045222E+0	9.985569E-1	1.019582E+0	1.092834E+0	9.871752E-1	1.005908E+0	9.716782E-1	1.013380E+0	1.018043E+0	1.015491E+0	1.071625E+0	1.034936E+0	1.060671E+0	1.085627E+0	1.006866E+0	1.027783E+0	9.916608E-1	1.008614E+0	1.060254E+0	1.064253E+0	1.045664E+0	1.025834E+0	1.069964E+0	1.085431E+0	1.076830E+0	9.917209E-1	1.079437E+0	1.123292E+0	1.026903E+0	1.008989E+0
2.894050E+2	8.665596E-1	8.714376E-1	9.255108E-1	8.037344E-1	8.448781E-1	8.514628E-1	8.606398E-1	8.684042E-1	8.469515E-1	8.204136E-1	8.749283E-1	8.717920E-1	8.281135E-1	8.844943E-1	8.823536E-1	8.349289E-1	8.522787E-1	8.146637E-1	8.606993E-1	8.515014E-1	8.378412E-1	8.951677E-1	8.474405E-1	8.295498E-1	8.302302E-1	8.289149E-1	8.947165E-1	8.554942E-1	8.470231E-1	8.592878E-1	8.564568E-1	8.612443E-1	8.813183E-1	9.126424E-1	8.076461E-1	8.340774E-1	8.291015E-1	8.249836E-1	8.110148E-1	8.416422E-1	8.436426E-1	8.602010E-1	8.763241E-1	8.612364E-1	8.330383E-1	8.626863E-1	8.331398E-1	8.115744E-1	8.400862E-1	8.372659E-1	8.735420E-1	8.381050E-1	8.543680E-1	8.426625E-1	8.411701E-1	8.468343E-1	8.659758E-1	8.330824E-1	8.462530E-1	8.328726E-1	8.236835E-1	8.362744E-1	8.658093E-1	8.150053E-1	8.183891E-1	8.099499E-1	8.279197E-1	8.541331E-1	9.087088E-1	8.612017E-1	8.696411E-1	8.914273E-1	8.910014E-1	8.217058E-1	8.281660E-1	8.728106E-1	8.384556E-1	8.916510E-1	8.763551E-1	8.671032E-1	8.603768E-1	8.546184E-1	8.300941E-1	8.309393E-1	8.383134E-1	8.583957E-1	8.964738E-1	8.266124E-1	8.808638E-1	8.308958E-1	8.634765E-1	7.804474E-1	8.657713E-1	8.975698E-1	8.493705E-1	8.629620E-1	9.001039E-1	8.375405E-1	8.731175E-1	8.116516E-1	8.772238E-1	8.895745E-1	8.786288E-1	8.642130E-1	8.809528E-1	7.987589E-1	8.811973E-1	8.440182E-1	8.730538E-1	9.108417E-1	8.782555E-1	8.517630E-1	8.304605E-1	8.391891E-1	8.660514E-1	8.610168E-1	8.632053E-1	8.273907E-1	8.047327E-1	8.960799E-1	8.413273E-1	8.376278E-1	8.591987E-1	7.873286E-1	8.191694E-1	9.210758E-1	8.903341E-1	7.790585E-1	8.506980E-1	8.082495E-1	8.334580E-1	9.202948E-1	8.618922E-1	8.558590E-1	8.598368E-1	8.543363E-1	8.880996E-1	8.375506E-1	8.853419E-1	8.168869E-1	8.426576E-1	8.737106E-1	8.564590E-1	8.437249E-1	8.737277E-1	9.210236E-1	8.496407E-1	8.779874E-1	8.581165E-1	8.265861E-1	8.717096E-1	8.466418E-1	8.602142E-1	9.073231E-1	8.640370E-1	8.536876E-1	8.598888E-1	8.525286E-1	9.276912E-1	8.489086E-1	8.649141E-1	8.747443E-1	8.161918E-1	8.505045E-1	8.667766E-1	8.752002E-1	8.134314E-1	8.076307E-1	8.524819E-1	8.665958E-1	9.260277E-1	8.796468E-1
2.896110E+2	7.764333E-1	7.712522E-1	8.078502E-1	7.647230E-1	7.446344E-1	7.423058E-1	7.681486E-1	7.590492E-1	8.029558E-1	7.765769E-1	7.546405E-1	7.494945E-1	7.462209E-1	7.602557E-1	7.999378E-1	7.140392E-1	7.935033E-1	7.613747E-1	7.494977E-1	7.900853E-1	7.935166E-1	8.125829E-1	7.911270E-1	7.349338E-1	7.744548E-1	7.527679E-1	7.828181E-1	7.831053E-1	7.801916E-1	7.893367E-1	7.888810E-1	7.549179E-1	8.267440E-1	8.297942E-1	7.519969E-1	7.239099E-1	7.352260E-1	7.659143E-1	7.968947E-1	7.189907E-1	7.160118E-1	7.408994E-1	7.962762E-1	7.714766E-1	7.570191E-1	7.833129E-1	7.849674E-1	7.330801E-1	7.482164E-1	7.606247E-1	7.866992E-1	7.483140E-1	7.610161E-1	7.745615E-1	8.266520E-1	7.814495E-1	8.123578E-1	7.707864E-1	7.905781E-1	7.236668E-1	7.322467E-1	8.163425E-1	7.516431E-1	7.697647E-1	8.119830E-1	8.016471E-1	7.530112E-1	7.721907E-1	8.034415E-1	7.753907E-1	7.868353E-1	7.824155E-1	7.893431E-1	8.395626E-1	7.930123E-1	7.895119E-1	7.946641E-1	7.537501E-1	8.290846E-1	7.527858E-1	7.713127E-1	7.999663E-1	7.707218E-1	7.568947E-1	7.751809E-1	8.251907E-1	7.585522E-1	7.976615E-1	7.909025E-1	7.753210E-1	7.469624E-1	7.717426E-1	7.545596E-1	7.818660E-1	7.957788E-1	7.444285E-1	7.356916E-1	7.898056E-1	8.204746E-1	7.576672E-1	8.118217E-1	7.829982E-1	8.074174E-1	7.504761E-1	7.543887E-1	7.349274E-1	7.890440E-1	7.955945E-1	8.163644E-1	7.960155E-1	7.805280E-1	7.819892E-1	8.096588E-1	8.322937E-1	7.808187E-1	7.973033E-1	7.872677E-1	7.461010E-1	7.533664E-1	7.716348E-1	7.405222E-1	7.712945E-1	8.084656E-1	7.605577E-1	7.894471E-1	7.954653E-1	8.004220E-1	7.525072E-1	7.336206E-1	7.981810E-1	7.765807E-1	8.095449E-1	7.834940E-1	7.944764E-1	7.818985E-1	7.629860E-1	7.345860E-1	7.689289E-1	7.586524E-1	7.460659E-1	7.654531E-1	7.589732E-1	8.085349E-1	7.636322E-1	8.354125E-1	8.280570E-1	7.770291E-1	7.956724E-1	8.184160E-1	7.893130E-1	7.992436E-1	8.257094E-1	8.324662E-1	8.033956E-1	7.925764E-1	8.064440E-1	8.088882E-1	8.145490E-1	7.412288E-1	7.536519E-1	7.721310E-1	7.676384E-1	7.693596E-1	7.908526E-1	7.610586E-1	8.071470E-1	7.935672E-1	7.529918E-1	7.246477E-1	8.260288E-1	8.087238E-1	8.088810E-1
2.898020E+2	8.349242E-1	8.980810E-1	8.614568E-1	8.281881E-1	8.635261E-1	8.695473E-1	8.008973E-1	8.627226E-1	8.310736E-1	8.400062E-1	9.005666E-1	8.495991E-1	8.695321E-1	8.771485E-1	8.797658E-1	9.121127E-1	8.414126E-1	8.348147E-1	8.651326E-1	8.444932E-1	8.683205E-1	8.939056E-1	8.372240E-1	8.430691E-1	8.995769E-1	8.675794E-1	8.452285E-1	8.228001E-1	8.834712E-1	8.278315E-1	8.246439E-1	8.148985E-1	8.616387E-1	8.603080E-1	8.542712E-1	8.409405E-1	8.338668E-1	8.852536E-1	8.484059E-1	8.312137E-1	8.584967E-1	8.442967E-1	8.840848E-1	8.065832E-1	8.703683E-1	8.853746E-1	8.446129E-1	8.476608E-1	8.399582E-1	8.388955E-1	8.769746E-1	8.423071E-1	8.449560E-1	9.326212E-1	8.889290E-1	8.332070E-1	9.153100E-1	8.793700E-1	8.600621E-1	8.595980E-1	8.470159E-1	8.505070E-1	8.202105E-1	8.527118E-1	8.267335E-1	8.165774E-1	8.262211E-1	8.752612E-1	8.540200E-1	8.063040E-1	8.728543E-1	8.162902E-1	8.585771E-1	8.787521E-1	8.295947E-1	9.263893E-1	8.142194E-1	8.655709E-1	8.492981E-1	8.751756E-1	8.462592E-1	8.854510E-1	8.220026E-1	8.532935E-1	8.527205E-1	8.783537E-1	8.725313E-1	8.604517E-1	9.168116E-1	8.385501E-1	8.328792E-1	8.083311E-1	8.841954E-1	9.006707E-1	7.881160E-1	8.990521E-1	8.196002E-1	9.157407E-1	8.583755E-1	8.222635E-1	8.607238E-1	8.729466E-1	8.114194E-1	8.581037E-1	8.781018E-1	9.002154E-1	8.898932E-1	8.891394E-1	8.215534E-1	8.379273E-1	8.712503E-1	8.441853E-1	8.677338E-1	9.329446E-1	8.439714E-1	9.135303E-1	8.630859E-1	8.585248E-1	8.801324E-1	8.580115E-1	8.272911E-1	8.881491E-1	8.671318E-1	8.534963E-1	8.612529E-1	8.843851E-1	8.657257E-1	8.425533E-1	8.828205E-1	8.925740E-1	8.795502E-1	8.457835E-1	8.913427E-1	8.701468E-1	8.584206E-1	8.645063E-1	8.669489E-1	8.681497E-1	8.594351E-1	8.954918E-1	8.673178E-1	9.286128E-1	8.445684E-1	7.973076E-1	8.716811E-1	8.384318E-1	8.394256E-1	9.060111E-1	8.539146E-1	8.682815E-1	8.760758E-1	8.948230E-1	8.689243E-1	8.343372E-1	8.803606E-1	8.012682E-1	8.176992E-1	8.402914E-1	8.514984E-1	8.508645E-1	9.031637E-1	8.814144E-1	8.976756E-1	8.420608E-1	7.894736E-1	8.539171E-1	8.526264E-1	8.148980E-1	8.646904E-1	9.130445E-1	8.603465E-1	9.186222E-1
2.900050E+2	8.642323E-1	8.689095E-1	9.029841E-1	8.429675E-1	8.814721E-1	8.837297E-1	8.874748E-1	9.324839E-1	8.998072E-1	9.272648E-1	9.098630E-1	9.018223E-1	9.177013E-1	8.817819E-1	9.371607E-1	8.730552E-1	9.028427E-1	8.847670E-1	8.736106E-1	9.383975E-1	8.608824E-1	8.968452E-1	9.213312E-1	9.014107E-1	8.818055E-1	8.377858E-1	8.663984E-1	9.117160E-1	8.937099E-1	8.906077E-1	8.855712E-1	9.071071E-1	8.558333E-1	9.591222E-1	8.956203E-1	8.768127E-1	8.632322E-1	8.992787E-1	9.206677E-1	8.728308E-1	8.628116E-1	9.231129E-1	9.046562E-1	8.487580E-1	8.486139E-1	9.021676E-1	8.620180E-1	8.715294E-1	8.915261E-1	8.449001E-1	9.100064E-1	9.281834E-1	8.644837E-1	8.640261E-1	8.884891E-1	8.881416E-1	9.063677E-1	9.012565E-1	8.871929E-1	8.416390E-1	8.687264E-1	8.945303E-1	9.355258E-1	8.743330E-1	9.275916E-1	8.389151E-1	8.917229E-1	9.076495E-1	8.871114E-1	8.782082E-1	8.466282E-1	8.926893E-1	9.626690E-1	8.627548E-1	9.168589E-1	9.126267E-1	8.540706E-1	8.678256E-1	9.279714E-1	8.769587E-1	9.148934E-1	8.536342E-1	8.872662E-1	8.809187E-1	8.665342E-1	9.320824E-1	8.774023E-1	8.794744E-1	9.101505E-1	8.683014E-1	8.867176E-1	8.911635E-1	8.565562E-1	8.838518E-1	9.027311E-1	8.446251E-1	8.691060E-1	8.885868E-1	9.191802E-1	8.731598E-1	9.211443E-1	8.691583E-1	8.742681E-1	9.095595E-1	9.054300E-1	9.037795E-1	8.989514E-1	8.446614E-1	9.056546E-1	9.054170E-1	9.560864E-1	8.488301E-1	8.618083E-1	9.151311E-1	9.325607E-1	9.554914E-1	9.018849E-1	9.199509E-1	8.879559E-1	9.055955E-1	8.969349E-1	8.544556E-1	8.542745E-1	9.013484E-1	8.811459E-1	9.070452E-1	8.953438E-1	8.799329E-1	9.023689E-1	9.094519E-1	9.192593E-1	8.893880E-1	9.450414E-1	8.418934E-1	9.228984E-1	8.995675E-1	8.721304E-1	8.804517E-1	9.291311E-1	9.706069E-1	9.130292E-1	9.266710E-1	8.683788E-1	9.003055E-1	9.805605E-1	9.942835E-1	9.168780E-1	8.916812E-1	9.147245E-1	9.032256E-1	8.533973E-1	9.537137E-1	8.861261E-1	9.160562E-1	8.720479E-1	9.364098E-1	9.095114E-1	9.439306E-1	9.164245E-1	9.251286E-1	8.727135E-1	9.098373E-1	9.121225E-1	8.725648E-1	8.891510E-1	8.712009E-1	8.754223E-1	8.706739E-1	9.029575E-1	8.994458E-1	9.051260E-1	1.019580E+0
2.905110E+2	9.242206E-1	8.835422E-1	8.843863E-1	8.584530E-1	8.757579E-1	8.627552E-1	8.628095E-1	8.656060E-1	8.465677E-1	9.252445E-1	8.613776E-1	9.064144E-1	8.342502E-1	8.843019E-1	8.341961E-1	8.356193E-1	9.031943E-1	8.663966E-1	8.065369E-1	8.855724E-1	8.891729E-1	8.955710E-1	8.874222E-1	8.910577E-1	8.596094E-1	8.467889E-1	8.619118E-1	8.641737E-1	9.108615E-1	8.514109E-1	9.022258E-1	8.802777E-1	8.735409E-1	9.162124E-1	9.006155E-1	8.375540E-1	9.052597E-1	8.746378E-1	9.070312E-1	8.592445E-1	8.686408E-1	8.533431E-1	9.091981E-1	8.363892E-1	8.586587E-1	8.735939E-1	8.882797E-1	8.228395E-1	8.477203E-1	8.971258E-1	8.976228E-1	9.056280E-1	8.842562E-1	8.527904E-1	8.630523E-1	8.761379E-1	9.078571E-1	8.452728E-1	8.724286E-1	8.143655E-1	8.333831E-1	8.980033E-1	8.938318E-1	8.235758E-1	8.660020E-1	8.625662E-1	8.861708E-1	8.503069E-1	9.255409E-1	8.488670E-1	8.914544E-1	8.518820E-1	9.012936E-1	8.737917E-1	8.502361E-1	9.027063E-1	8.877500E-1	8.726818E-1	8.685628E-1	8.721830E-1	8.779740E-1	8.845889E-1	8.601059E-1	8.917727E-1	8.470170E-1	8.952954E-1	8.804696E-1	8.388871E-1	9.055057E-1	8.462912E-1	8.949820E-1	8.622174E-1	8.689791E-1	8.888921E-1	8.630161E-1	8.476636E-1	9.000498E-1	8.895237E-1	8.616108E-1	8.300710E-1	8.720132E-1	9.227436E-1	9.164370E-1	8.936076E-1	8.389100E-1	9.014464E-1	8.979832E-1	8.660686E-1	8.879148E-1	9.222676E-1	8.372888E-1	8.434725E-1	8.828313E-1	8.720332E-1	8.878960E-1	9.348757E-1	8.919216E-1	9.168891E-1	8.569917E-1	9.058334E-1	8.809307E-1	8.574702E-1	9.007783E-1	8.592123E-1	8.976453E-1	8.850044E-1	8.461804E-1	8.557751E-1	8.664286E-1	8.572996E-1	9.051594E-1	8.349589E-1	8.712860E-1	9.160275E-1	8.877525E-1	8.955069E-1	8.809010E-1	9.178705E-1	8.322170E-1	8.962716E-1	8.356489E-1	8.830129E-1	9.075715E-1	9.035351E-1	8.532135E-1	9.248232E-1	8.577507E-1	9.028581E-1	8.509540E-1	9.072729E-1	9.249404E-1	8.954468E-1	9.125604E-1	8.977208E-1	9.238096E-1	9.102043E-1	8.710179E-1	9.173828E-1	8.939317E-1	8.663061E-1	8.894534E-1	8.536840E-1	8.683826E-1	8.203124E-1	8.393383E-1	9.094609E-1	8.843420E-1	8.559156E-1	8.328073E-1	9.568789E-1	8.477527E-1	9.186021E-1
2.910060E+2	9.624674E-1	9.671026E-1	9.518353E-1	8.737413E-1	9.410889E-1	9.607295E-1	9.632764E-1	9.178059E-1	9.144254E-1	9.414887E-1	9.415406E-1	9.380620E-1	9.454905E-1	9.393940E-1	9.419592E-1	9.511114E-1	9.208796E-1	9.119365E-1	9.226030E-1	9.561370E-1	8.976906E-1	9.625015E-1	9.246120E-1	9.278052E-1	9.339982E-1	9.533147E-1	9.345928E-1	8.936782E-1	9.468881E-1	9.760385E-1	9.415840E-1	9.389194E-1	9.213071E-1	1.009125E+0	9.106407E-1	9.202013E-1	9.045881E-1	8.942479E-1	9.582284E-1	9.159538E-1	9.205331E-1	9.236692E-1	9.122699E-1	9.599243E-1	9.572545E-1	9.169114E-1	8.880960E-1	9.271531E-1	9.435177E-1	9.562808E-1	1.011111E+0	9.265572E-1	9.472835E-1	9.279620E-1	9.551161E-1	8.946087E-1	9.421296E-1	9.143159E-1	8.673952E-1	1.003104E+0	9.330055E-1	8.805810E-1	9.958870E-1	9.098852E-1	9.301870E-1	9.458456E-1	9.247692E-1	9.128788E-1	9.828906E-1	9.093680E-1	8.911811E-1	9.449402E-1	9.422690E-1	9.709061E-1	9.858112E-1	9.145194E-1	8.910669E-1	9.163322E-1	9.593590E-1	9.425210E-1	9.942622E-1	9.109407E-1	9.624681E-1	9.288054E-1	9.828025E-1	9.168815E-1	9.253564E-1	9.468141E-1	9.425646E-1	8.882367E-1	9.459209E-1	9.232987E-1	9.270859E-1	9.550526E-1	9.333171E-1	9.868707E-1	9.578985E-1	9.419959E-1	9.400703E-1	9.028052E-1	1.004561E+0	9.505569E-1	9.295287E-1	9.774788E-1	9.359091E-1	9.121691E-1	9.862748E-1	9.334960E-1	9.769056E-1	9.190520E-1	9.747568E-1	9.732054E-1	9.807844E-1	9.494151E-1	9.364721E-1	9.368119E-1	9.738949E-1	9.765478E-1	9.173360E-1	9.769398E-1	9.045389E-1	9.788579E-1	9.532180E-1	8.881777E-1	9.336493E-1	9.127751E-1	9.202026E-1	9.536770E-1	9.643284E-1	9.745496E-1	8.864907E-1	9.118467E-1	9.340119E-1	9.715765E-1	8.821078E-1	9.278956E-1	9.250546E-1	9.962007E-1	9.515127E-1	9.278262E-1	9.951216E-1	9.661120E-1	1.018161E+0	9.338109E-1	9.469330E-1	9.251610E-1	9.330543E-1	9.026512E-1	9.617913E-1	9.643173E-1	1.021082E+0	9.907139E-1	9.762552E-1	9.658293E-1	9.313581E-1	9.924161E-1	9.721927E-1	9.874328E-1	9.886004E-1	9.436114E-1	9.235465E-1	9.616530E-1	9.706774E-1	9.079706E-1	9.700945E-1	9.896848E-1	9.289207E-1	9.693507E-1	1.000787E+0	9.931532E-1	9.976826E-1	8.805636E-1
2.915140E+2	1.184642E+0	1.152437E+0	1.115182E+0	1.162262E+0	1.163663E+0	1.154636E+0	1.199930E+0	1.186665E+0	1.197916E+0	1.137341E+0	1.245074E+0	1.193380E+0	1.141771E+0	1.127776E+0	1.171446E+0	1.141174E+0	1.157861E+0	1.151346E+0	1.203641E+0	1.155490E+0	1.167846E+0	1.193458E+0	1.221794E+0	1.175547E+0	1.141959E+0	1.171837E+0	1.193654E+0	1.196278E+0	1.198225E+0	1.167541E+0	1.223850E+0	1.213418E+0	1.137850E+0	1.145319E+0	1.164173E+0	1.110698E+0	1.114517E+0	1.139397E+0	1.176797E+0	1.162913E+0	1.099817E+0	1.184628E+0	1.156447E+0	1.193331E+0	1.164970E+0	1.181725E+0	1.184481E+0	1.159251E+0	1.098782E+0	1.194890E+0	1.181996E+0	1.145894E+0	1.143434E+0	1.214800E+0	1.212760E+0	1.140757E+0	1.151661E+0	1.122235E+0	1.135258E+0	1.137510E+0	1.144811E+0	1.169926E+0	1.134917E+0	1.161597E+0	1.160132E+0	1.160766E+0	1.227231E+0	1.119381E+0	1.198262E+0	1.125168E+0	1.175497E+0	1.171497E+0	1.230303E+0	1.167522E+0	1.176306E+0	1.191498E+0	1.166015E+0	1.188715E+0	1.178359E+0	1.159142E+0	1.148677E+0	1.218094E+0	1.135443E+0	1.134359E+0	1.106321E+0	1.153545E+0	1.163283E+0	1.217506E+0	1.238140E+0	1.136900E+0	1.178479E+0	1.216961E+0	1.170682E+0	1.236638E+0	1.219902E+0	1.159053E+0	1.173051E+0	1.234241E+0	1.136926E+0	1.147332E+0	1.150813E+0	1.128073E+0	1.194011E+0	1.193038E+0	1.185549E+0	1.156419E+0	1.235347E+0	1.145113E+0	1.217707E+0	1.132562E+0	1.089663E+0	1.175757E+0	1.177304E+0	1.168983E+0	1.287609E+0	1.158805E+0	1.188340E+0	1.246183E+0	1.171904E+0	1.210863E+0	1.116562E+0	1.186024E+0	1.226864E+0	1.146341E+0	1.155852E+0	1.207935E+0	1.240062E+0	1.183490E+0	1.157167E+0	1.222552E+0	1.190452E+0	1.265362E+0	1.152463E+0	1.065819E+0	1.193226E+0	1.171828E+0	1.156333E+0	1.194750E+0	1.213814E+0	1.194022E+0	1.123692E+0	1.174511E+0	1.197259E+0	1.135423E+0	1.126187E+0	1.173996E+0	1.176560E+0	1.286777E+0	1.103963E+0	1.137336E+0	1.195106E+0	1.229992E+0	1.144236E+0	1.155922E+0	1.143739E+0	1.114159E+0	1.166859E+0	1.151805E+0	1.123206E+0	1.156128E+0	1.217297E+0	1.138901E+0	1.196140E+0	1.174681E+0	1.099042E+0	1.222712E+0	1.209621E+0	1.143437E+0	1.195145E+0	1.240941E+0	1.118682E+0	1.199236E+0
2.920010E+2	1.121527E+0	1.140774E+0	1.084839E+0	1.073589E+0	1.144871E+0	1.109376E+0	1.124933E+0	1.123603E+0	1.053113E+0	1.081635E+0	1.067499E+0	1.065432E+0	1.060970E+0	1.093286E+0	1.050558E+0	1.173558E+0	1.063287E+0	1.049032E+0	1.140251E+0	1.032977E+0	1.104503E+0	1.102662E+0	1.140094E+0	1.168095E+0	1.142849E+0	1.123444E+0	1.142849E+0	1.053385E+0	1.138209E+0	1.169030E+0	1.102219E+0	1.038689E+0	1.012067E+0	1.137456E+0	1.080335E+0	1.060103E+0	1.075012E+0	1.097795E+0	1.091821E+0	1.128322E+0	1.125931E+0	1.087287E+0	1.073432E+0	1.067497E+0	1.073178E+0	1.054912E+0	1.103709E+0	1.091893E+0	1.121418E+0	1.114821E+0	1.099014E+0	1.127111E+0	1.087354E+0	1.097971E+0	1.117352E+0	1.062819E+0	1.116744E+0	1.059724E+0	1.072095E+0	1.068074E+0	1.118981E+0	1.146357E+0	1.117196E+0	1.055194E+0	1.103837E+0	1.078890E+0	1.102973E+0	1.145174E+0	1.082544E+0	1.119699E+0	1.072629E+0	1.057964E+0	1.159429E+0	1.090216E+0	1.094932E+0	1.162109E+0	1.095350E+0	1.168194E+0	1.105646E+0	1.081698E+0	1.107250E+0	1.109635E+0	1.069356E+0	1.069031E+0	1.105272E+0	1.094858E+0	1.072584E+0	1.122954E+0	1.081630E+0	1.078397E+0	1.084382E+0	1.094852E+0	1.057148E+0	1.127154E+0	1.148656E+0	1.134435E+0	1.060862E+0	1.097933E+0	1.031708E+0	1.073910E+0	1.153807E+0	1.118450E+0	1.075826E+0	1.094817E+0	1.165126E+0	1.144881E+0	1.077313E+0	1.110475E+0	1.075417E+0	1.109677E+0	1.165858E+0	1.137792E+0	1.089130E+0	1.111494E+0	1.122046E+0	1.177249E+0	1.075943E+0	1.143909E+0	1.136750E+0	1.119474E+0	1.055439E+0	1.137399E+0	1.103137E+0	1.087601E+0	1.150474E+0	1.161479E+0	1.125579E+0	1.096780E+0	1.077129E+0	1.104645E+0	1.098823E+0	1.139902E+0	1.058034E+0	1.091579E+0	1.129738E+0	1.100359E+0	1.152165E+0	1.078090E+0	1.093132E+0	1.158360E+0	1.096392E+0	1.120990E+0	1.099662E+0	1.135411E+0	1.095011E+0	1.163006E+0	1.067957E+0	1.103654E+0	1.095977E+0	1.095157E+0	1.135831E+0	1.134469E+0	1.105730E+0	1.123714E+0	1.106739E+0	1.082985E+0	1.038929E+0	1.075955E+0	1.108711E+0	1.117568E+0	1.072905E+0	1.125940E+0	1.134069E+0	1.117496E+0	1.150775E+0	1.143794E+0	1.151090E+0	1.083514E+0	1.117624E+0	1.130487E+0	1.110545E+0	1.204956E+0
2.925020E+2	1.122463E+0	1.154556E+0	1.108981E+0	1.125569E+0	1.143450E+0	1.153469E+0	1.131894E+0	1.189395E+0	1.161657E+0	1.112736E+0	1.098829E+0	1.154385E+0	1.117655E+0	1.161656E+0	1.179993E+0	1.157881E+0	1.164932E+0	1.180913E+0	1.159450E+0	1.109784E+0	1.126727E+0	1.177329E+0	1.127285E+0	1.188961E+0	1.122239E+0	1.085763E+0	1.075814E+0	1.140920E+0	1.110296E+0	1.159442E+0	1.129425E+0	1.109018E+0	1.095211E+0	1.103930E+0	1.112326E+0	1.076914E+0	1.097497E+0	1.117558E+0	1.150929E+0	1.180458E+0	1.156316E+0	1.149932E+0	1.134296E+0	1.112209E+0	1.133849E+0	1.204303E+0	1.165567E+0	1.123601E+0	1.084675E+0	1.151779E+0	1.115818E+0	1.111859E+0	1.155332E+0	1.181790E+0	1.178952E+0	1.113996E+0	1.067826E+0	1.127401E+0	1.181705E+0	1.110230E+0	1.116176E+0	1.117668E+0	1.120565E+0	1.154222E+0	1.179724E+0	1.070083E+0	1.157772E+0	1.094985E+0	1.133162E+0	1.141203E+0	1.148314E+0	1.086873E+0	1.123718E+0	1.144324E+0	1.198551E+0	1.194410E+0	1.173823E+0	1.128443E+0	1.198926E+0	1.137854E+0	1.102213E+0	1.164672E+0	1.111934E+0	1.119492E+0	1.141572E+0	1.123749E+0	1.194745E+0	1.183575E+0	1.150516E+0	1.097563E+0	1.184875E+0	1.132202E+0	1.158076E+0	1.196566E+0	1.192183E+0	1.128484E+0	1.127670E+0	1.210020E+0	1.161271E+0	1.073040E+0	1.146331E+0	1.046263E+0	1.130657E+0	1.199113E+0	1.201481E+0	1.206098E+0	1.130853E+0	1.100840E+0	1.152426E+0	1.144826E+0	1.128694E+0	1.134826E+0	1.090086E+0	1.141678E+0	1.172502E+0	1.140801E+0	1.189895E+0	1.184161E+0	1.128412E+0	1.183816E+0	1.112712E+0	1.154827E+0	1.179877E+0	1.117222E+0	1.158308E+0	1.113271E+0	1.118006E+0	1.116893E+0	1.151870E+0	1.233502E+0	1.131568E+0	1.128752E+0	1.158825E+0	1.150156E+0	1.198103E+0	1.131283E+0	1.194630E+0	1.153741E+0	1.150289E+0	1.113015E+0	1.125959E+0	1.188297E+0	1.179402E+0	1.113772E+0	1.180073E+0	1.149778E+0	1.148786E+0	1.107720E+0	1.195070E+0	1.130712E+0	1.208207E+0	1.117268E+0	1.140881E+0	1.180017E+0	1.251781E+0	1.116645E+0	1.103003E+0	1.140134E+0	1.150041E+0	1.119163E+0	1.183585E+0	1.121634E+0	1.191652E+0	1.065651E+0	1.088810E+0	1.171119E+0	1.159288E+0	1.161620E+0	1.127646E+0	1.178337E+0	1.151829E+0	1.041254E+0
2.930040E+2	1.145747E+0	1.091975E+0	1.124475E+0	1.024502E+0	1.072407E+0	1.152359E+0	1.138593E+0	1.135118E+0	1.080993E+0	1.042297E+0	1.057365E+0	1.092669E+0	1.109966E+0	1.106488E+0	1.104984E+0	1.109081E+0	1.091584E+0	1.068512E+0	1.069824E+0	1.089156E+0	1.051072E+0	1.077455E+0	1.113484E+0	1.120213E+0	1.116227E+0	1.106445E+0	1.106945E+0	1.076032E+0	1.115754E+0	1.123446E+0	1.068029E+0	1.145220E+0	1.094233E+0	1.135092E+0	1.084269E+0	1.042840E+0	1.087261E+0	1.125827E+0	1.111554E+0	1.105071E+0	1.043030E+0	1.050621E+0	1.110707E+0	1.016156E+0	1.105542E+0	1.114453E+0	1.105133E+0	1.069878E+0	1.073844E+0	1.061063E+0	1.105018E+0	1.107008E+0	1.125415E+0	1.124442E+0	1.072079E+0	1.095038E+0	1.080845E+0	1.069591E+0	1.103538E+0	1.086409E+0	1.100722E+0	1.092330E+0	1.093510E+0	1.068202E+0	1.018937E+0	1.123383E+0	1.130108E+0	1.067053E+0	1.114013E+0	1.112373E+0	1.114406E+0	1.071832E+0	1.116368E+0	1.064078E+0	1.081249E+0	1.145930E+0	1.124592E+0	1.048092E+0	1.096617E+0	1.088421E+0	1.110756E+0	1.045842E+0	1.053474E+0	1.057953E+0	1.110073E+0	1.071978E+0	1.098050E+0	1.099795E+0	1.107132E+0	1.109186E+0	1.112614E+0	1.131069E+0	1.108738E+0	1.067450E+0	1.144706E+0	1.049213E+0	1.102447E+0	1.121629E+0	1.117456E+0	1.098747E+0	1.097236E+0	1.098996E+0	1.068654E+0	1.080512E+0	1.076187E+0	1.108539E+0	1.127192E+0	1.104088E+0	1.107903E+0	1.051184E+0	1.118002E+0	1.094231E+0	1.138347E+0	1.127737E+0	1.116972E+0	1.115198E+0	1.136542E+0	1.078954E+0	1.070855E+0	1.113688E+0	1.057434E+0	1.110664E+0	1.161841E+0	1.039350E+0	1.071298E+0	1.122906E+0	1.142338E+0	1.061331E+0	1.100597E+0	1.050739E+0	1.165933E+0	1.108311E+0	1.052270E+0	1.095045E+0	1.056049E+0	1.135994E+0	1.174223E+0	1.085417E+0	1.081875E+0	1.134232E+0	1.057432E+0	1.090250E+0	1.057276E+0	1.075167E+0	1.133680E+0	1.080605E+0	1.089000E+0	1.097291E+0	1.109369E+0	1.089203E+0	1.122482E+0	1.089332E+0	1.028595E+0	1.092894E+0	1.144549E+0	1.116786E+0	1.087634E+0	1.082344E+0	1.176702E+0	1.058396E+0	1.056800E+0	1.113271E+0	1.118254E+0	1.080361E+0	1.121479E+0	1.101372E+0	1.111377E+0	1.050338E+0	1.054288E+0	1.149297E+0	1.106588E+0	1.069398E+0
2.935110E+2	1.108585E+0	1.028260E+0	1.061411E+0	9.736136E-1	1.025432E+0	1.017997E+0	1.024426E+0	1.091999E+0	1.066812E+0	1.007536E+0	1.056623E+0	1.055239E+0	1.080330E+0	1.085389E+0	1.081372E+0	1.110789E+0	1.052942E+0	1.019501E+0	1.028784E+0	1.080142E+0	9.834956E-1	1.057764E+0	1.035657E+0	1.085470E+0	1.013609E+0	1.020681E+0	1.064380E+0	1.010805E+0	1.039404E+0	1.058171E+0	1.012234E+0	1.015013E+0	1.054262E+0	1.050524E+0	1.030104E+0	1.060615E+0	1.011998E+0	1.025117E+0	1.103650E+0	1.009935E+0	1.048499E+0	1.022897E+0	1.045355E+0	1.026793E+0	1.010162E+0	1.043355E+0	1.012421E+0	1.003192E+0	1.027416E+0	1.082854E+0	1.068448E+0	1.053194E+0	1.046977E+0	1.013758E+0	1.081738E+0	1.028919E+0	1.028799E+0	1.069094E+0	1.028902E+0	1.035950E+0	1.051406E+0	1.029217E+0	1.076290E+0	1.012197E+0	1.053265E+0	1.008122E+0	1.120496E+0	1.038727E+0	1.055378E+0	1.032693E+0	1.042495E+0	1.022735E+0	1.046927E+0	1.016001E+0	1.090933E+0	1.103330E+0	1.023656E+0	1.024948E+0	1.102189E+0	1.004933E+0	1.016079E+0	1.086256E+0	1.046645E+0	1.009561E+0	1.016547E+0	1.063410E+0	1.095643E+0	1.084975E+0	1.076171E+0	1.056230E+0	1.058938E+0	1.021589E+0	1.039242E+0	1.064790E+0	9.979113E-1	1.058174E+0	1.028315E+0	1.019234E+0	1.003320E+0	1.061590E+0	1.111613E+0	1.041906E+0	1.016911E+0	1.054579E+0	1.049905E+0	1.032541E+0	1.083047E+0	1.128621E+0	1.039032E+0	1.077977E+0	1.084877E+0	1.007273E+0	1.044409E+0	1.068270E+0	1.103611E+0	1.055946E+0	1.048362E+0	1.067556E+0	1.013986E+0	1.031768E+0	1.049157E+0	1.024877E+0	1.081977E+0	1.097232E+0	1.049297E+0	1.074827E+0	1.080017E+0	1.031949E+0	1.063551E+0	1.036985E+0	1.069338E+0	1.037414E+0	9.880017E-1	1.035317E+0	1.106549E+0	1.050368E+0	1.086737E+0	1.065188E+0	1.013574E+0	1.018869E+0	1.053575E+0	1.068608E+0	1.029284E+0	9.829998E-1	1.110823E+0	1.035260E+0	1.072832E+0	1.025828E+0	1.044100E+0	1.041641E+0	1.058104E+0	1.015133E+0	1.038073E+0	1.018235E+0	1.110363E+0	1.012574E+0	1.015677E+0	1.048293E+0	1.110303E+0	1.047946E+0	1.053351E+0	1.057280E+0	1.075150E+0	1.028824E+0	1.038780E+0	1.100301E+0	1.076659E+0	1.054595E+0	1.163637E+0	1.036089E+0	1.033640E+0	1.016074E+0
2.940070E+2	9.868741E-1	9.862062E-1	9.916911E-1	9.121249E-1	9.857097E-1	9.481205E-1	9.911894E-1	9.884021E-1	1.027595E+0	1.029677E+0	1.013592E+0	9.918559E-1	9.841830E-1	9.714853E-1	1.004344E+0	9.560193E-1	9.951973E-1	9.335942E-1	9.462647E-1	1.046078E+0	9.792206E-1	9.923089E-1	1.008196E+0	9.638943E-1	9.598381E-1	1.023385E+0	9.939176E-1	9.589096E-1	9.661540E-1	1.035310E+0	9.936181E-1	9.761291E-1	9.961802E-1	1.038278E+0	9.937461E-1	9.749318E-1	9.590477E-1	1.025175E+0	9.771119E-1	9.805417E-1	1.016857E+0	1.011079E+0	1.085413E+0	1.004501E+0	9.864275E-1	9.361067E-1	1.030893E+0	9.321044E-1	9.794835E-1	1.002057E+0	1.014087E+0	9.854806E-1	9.788271E-1	9.929184E-1	9.745393E-1	1.025415E+0	9.409268E-1	1.003866E+0	9.888648E-1	1.017462E+0	9.963647E-1	9.519308E-1	9.755720E-1	9.648644E-1	1.000519E+0	9.829425E-1	1.035563E+0	1.009289E+0	9.843500E-1	9.695894E-1	1.008457E+0	9.944090E-1	9.989718E-1	9.715510E-1	1.021609E+0	1.022665E+0	1.054760E+0	1.049654E+0	9.873972E-1	9.806313E-1	1.050356E+0	9.800883E-1	9.843581E-1	9.853798E-1	9.918252E-1	9.892021E-1	9.416329E-1	1.056298E+0	1.006740E+0	9.570281E-1	9.445735E-1	1.010260E+0	1.045879E+0	9.689156E-1	9.894173E-1	9.706946E-1	9.577235E-1	9.950923E-1	9.564412E-1	1.005783E+0	9.770822E-1	9.862603E-1	1.011914E+0	9.789827E-1	1.003680E+0	9.575201E-1	1.013878E+0	1.048390E+0	1.006153E+0	9.855715E-1	9.775127E-1	9.619106E-1	9.895676E-1	9.614522E-1	9.504222E-1	9.948252E-1	9.733660E-1	1.004085E+0	1.064290E+0	9.596746E-1	9.825412E-1	1.002312E+0	9.618181E-1	9.640448E-1	1.010343E+0	1.040701E+0	1.003174E+0	1.044858E+0	9.981676E-1	1.008968E+0	9.936691E-1	1.042958E+0	9.913459E-1	1.011533E+0	1.020119E+0	9.836021E-1	9.882446E-1	1.008451E+0	9.847684E-1	1.005205E+0	9.785374E-1	9.469780E-1	9.897096E-1	9.940221E-1	1.002034E+0	1.055827E+0	1.011597E+0	1.006490E+0	1.017562E+0	9.155521E-1	1.015924E+0	9.947904E-1	1.043654E+0	9.599153E-1	9.961353E-1	9.906806E-1	1.004141E+0	9.994080E-1	9.885225E-1	1.022420E+0	9.619360E-1	1.009057E+0	1.018377E+0	1.003353E+0	9.730814E-1	9.813657E-1	9.827084E-1	9.836989E-1	9.719773E-1	1.005253E+0	1.007416E+0	1.043867E+0
2.945030E+2	1.009118E+0	1.038221E+0	9.946195E-1	9.652371E-1	9.990549E-1	1.042451E+0	9.974598E-1	1.008694E+0	9.323312E-1	9.563215E-1	1.006756E+0	9.948578E-1	1.049764E+0	1.003541E+0	9.964736E-1	9.843950E-1	1.038298E+0	9.655585E-1	9.520258E-1	1.003934E+0	9.523042E-1	9.979099E-1	1.055155E+0	1.031058E+0	9.890070E-1	9.893939E-1	1.042045E+0	9.836396E-1	1.001267E+0	1.049027E+0	1.000439E+0	9.895018E-1	1.009338E+0	1.004821E+0	1.008841E+0	9.749504E-1	1.031086E+0	9.932621E-1	1.022898E+0	1.007780E+0	9.744801E-1	1.048187E+0	9.800695E-1	9.771761E-1	1.009202E+0	9.595369E-1	1.007618E+0	9.801068E-1	9.924034E-1	1.032974E+0	1.004349E+0	1.019749E+0	9.804606E-1	1.004971E+0	9.886783E-1	9.574861E-1	1.012293E+0	1.015359E+0	1.001974E+0	9.750829E-1	9.865347E-1	9.823763E-1	9.839987E-1	9.778418E-1	1.042406E+0	9.579093E-1	1.051782E+0	9.784740E-1	9.783118E-1	9.713042E-1	1.025779E+0	9.914328E-1	9.999977E-1	9.691445E-1	9.710339E-1	1.056366E+0	1.023579E+0	9.923395E-1	1.016893E+0	9.905114E-1	9.886001E-1	1.023850E+0	9.925863E-1	9.716111E-1	9.913801E-1	9.742393E-1	1.005845E+0	9.750616E-1	1.047276E+0	9.987110E-1	1.061526E+0	9.931755E-1	1.023634E+0	1.020052E+0	9.630162E-1	9.883906E-1	1.029120E+0	9.844102E-1	1.033499E+0	1.022311E+0	9.934998E-1	9.742835E-1	9.667169E-1	9.855887E-1	1.017902E+0	1.007582E+0	1.034350E+0	9.855374E-1	1.044031E+0	9.543839E-1	1.038705E+0	1.062835E+0	9.893854E-1	1.005054E+0	1.034675E+0	1.007450E+0	1.008631E+0	1.002530E+0	1.006552E+0	1.017623E+0	1.053475E+0	1.019773E+0	9.609801E-1	1.001503E+0	1.012484E+0	9.973765E-1	9.707688E-1	9.783600E-1	1.015614E+0	9.489011E-1	1.023225E+0	9.916748E-1	9.791825E-1	9.349186E-1	1.028797E+0	1.008209E+0	1.009250E+0	1.040075E+0	9.902964E-1	9.926414E-1	9.851238E-1	9.995453E-1	9.810452E-1	1.022577E+0	9.865151E-1	1.032627E+0	9.534833E-1	1.027723E+0	1.004326E+0	9.914377E-1	1.027836E+0	1.020452E+0	1.049158E+0	1.019852E+0	1.012363E+0	9.957612E-1	9.156629E-1	1.035894E+0	1.057439E+0	1.024524E+0	1.050499E+0	9.874462E-1	1.040774E+0	1.007069E+0	1.004414E+0	9.966502E-1	1.037893E+0	1.007121E+0	1.025359E+0	1.057853E+0	1.003904E+0	9.905292E-1
2.950050E+2	1.091386E+0	1.072925E+0	1.049666E+0	9.800779E-1	1.073661E+0	1.051146E+0	1.003600E+0	1.048402E+0	1.100002E+0	1.056717E+0	1.052810E+0	1.015175E+0	1.039422E+0	9.924177E-1	1.052289E+0	1.055327E+0	1.036613E+0	1.029645E+0	9.756375E-1	1.028157E+0	1.066020E+0	1.101447E+0	1.040708E+0	1.090244E+0	1.041958E+0	1.026999E+0	1.027062E+0	9.946300E-1	1.033774E+0	1.104202E+0	1.041534E+0	1.071908E+0	1.032917E+0	1.058104E+0	1.069506E+0	1.066164E+0	1.059055E+0	1.034429E+0	1.083750E+0	1.094434E+0	1.021094E+0	1.066629E+0	1.023809E+0	1.124351E+0	1.036757E+0	1.045921E+0	1.092664E+0	1.006681E+0	1.046455E+0	1.046063E+0	1.096266E+0	1.063446E+0	1.022073E+0	1.078454E+0	1.110674E+0	1.025121E+0	9.910785E-1	9.874257E-1	1.095845E+0	1.036918E+0	1.080336E+0	1.044984E+0	1.058306E+0	1.027374E+0	1.090777E+0	1.020406E+0	1.093962E+0	1.057997E+0	9.915100E-1	9.969919E-1	1.019210E+0	9.987517E-1	1.079162E+0	1.028550E+0	1.053400E+0	1.060760E+0	1.029661E+0	1.073612E+0	1.044780E+0	1.024994E+0	1.100856E+0	1.054578E+0	1.038783E+0	1.028691E+0	1.044021E+0	1.076364E+0	1.065069E+0	1.046543E+0	1.047398E+0	1.080298E+0	1.067716E+0	1.052324E+0	1.092154E+0	1.084231E+0	1.073153E+0	1.032208E+0	1.012249E+0	1.040381E+0	1.051158E+0	1.085801E+0	1.035931E+0	1.069123E+0	1.037711E+0	1.079340E+0	1.055853E+0	1.061732E+0	1.035374E+0	1.023211E+0	1.045088E+0	1.098580E+0	1.045117E+0	1.029299E+0	1.010163E+0	1.015771E+0	1.090908E+0	1.057372E+0	1.009559E+0	1.099909E+0	1.048695E+0	1.144704E+0	1.062560E+0	1.024077E+0	1.037891E+0	1.037462E+0	1.080387E+0	1.069818E+0	1.071789E+0	1.048372E+0	1.062091E+0	1.005904E+0	1.008502E+0	1.103452E+0	1.073475E+0	1.030307E+0	1.028199E+0	1.027128E+0	1.061228E+0	1.068822E+0	1.037988E+0	1.023181E+0	1.005255E+0	1.032811E+0	1.068049E+0	1.042319E+0	1.117919E+0	1.091281E+0	1.095924E+0	1.039527E+0	1.024086E+0	1.030265E+0	1.092159E+0	1.084244E+0	1.118727E+0	1.046076E+0	1.035303E+0	1.034711E+0	9.953779E-1	1.040840E+0	1.091753E+0	1.038444E+0	1.053550E+0	1.034132E+0	1.083432E+0	1.000195E+0	1.047558E+0	1.039477E+0	1.053295E+0	1.044324E+0	1.005072E+0	1.073677E+0	1.140288E+0	1.015123E+0
2.955100E+2	1.195562E+0	1.117647E+0	1.060113E+0	1.077415E+0	1.055264E+0	1.080593E+0	1.129808E+0	1.089483E+0	1.097615E+0	1.129159E+0	1.102612E+0	1.170094E+0	1.080926E+0	1.148330E+0	1.110260E+0	1.127414E+0	1.085301E+0	1.089052E+0	1.092064E+0	1.112140E+0	1.087119E+0	1.138514E+0	1.098645E+0	1.078951E+0	1.068408E+0	1.137808E+0	1.101602E+0	1.101071E+0	1.099558E+0	1.127216E+0	1.051501E+0	1.125083E+0	1.064622E+0	1.135414E+0	1.137316E+0	1.087255E+0	1.032504E+0	1.086632E+0	1.093666E+0	1.129001E+0	1.089768E+0	1.108554E+0	1.104834E+0	1.088684E+0	1.082335E+0	1.118799E+0	1.123658E+0	1.049892E+0	1.103928E+0	1.122861E+0	1.145350E+0	1.086579E+0	1.114340E+0	1.093410E+0	1.094874E+0	1.100475E+0	1.110368E+0	1.110063E+0	1.174142E+0	1.116745E+0	1.136561E+0	1.091253E+0	1.057972E+0	1.095936E+0	1.110618E+0	1.076017E+0	1.094074E+0	1.067439E+0	1.136741E+0	1.079396E+0	1.078314E+0	1.104763E+0	1.107274E+0	1.085960E+0	1.083330E+0	1.069255E+0	1.126219E+0	1.083551E+0	1.078911E+0	1.070772E+0	1.116014E+0	1.091111E+0	1.057681E+0	1.136870E+0	1.142199E+0	1.155514E+0	1.097747E+0	1.072386E+0	1.116732E+0	1.079382E+0	1.123094E+0	1.097215E+0	1.131301E+0	1.104907E+0	1.082784E+0	1.093316E+0	1.085019E+0	1.106578E+0	1.089698E+0	1.065041E+0	1.126300E+0	1.098346E+0	1.077408E+0	1.115532E+0	1.103588E+0	1.080022E+0	1.158988E+0	1.090024E+0	1.104727E+0	1.102757E+0	1.117284E+0	1.077179E+0	1.183293E+0	1.169465E+0	1.150148E+0	1.165169E+0	1.064740E+0	1.140151E+0	1.044048E+0	1.114604E+0	1.058471E+0	1.092772E+0	1.139697E+0	1.064735E+0	1.154990E+0	1.163367E+0	1.092769E+0	1.098485E+0	1.078793E+0	1.127725E+0	1.089090E+0	1.112512E+0	1.114325E+0	1.155873E+0	1.083780E+0	1.118922E+0	1.126662E+0	1.182835E+0	1.048507E+0	1.150569E+0	1.089019E+0	1.104075E+0	1.099692E+0	1.101491E+0	1.063246E+0	1.171065E+0	1.107378E+0	1.107803E+0	1.100400E+0	1.066189E+0	1.138289E+0	1.191283E+0	1.130215E+0	1.089442E+0	1.116053E+0	1.134691E+0	1.062050E+0	1.067172E+0	1.105585E+0	1.096989E+0	1.077550E+0	1.131190E+0	1.148230E+0	1.039551E+0	1.092159E+0	1.110934E+0	1.165574E+0	1.067623E+0	1.085970E+0	1.113605E+0	1.106030E+0	1.165889E+0
2.960030E+2	1.124032E+0	1.129395E+0	1.107297E+0	1.047096E+0	1.107979E+0	1.083065E+0	1.102943E+0	1.106343E+0	1.136205E+0	1.077120E+0	1.109825E+0	1.150216E+0	1.151926E+0	1.125236E+0	1.068152E+0	1.142184E+0	1.168948E+0	1.078794E+0	1.106217E+0	1.119237E+0	1.079641E+0	1.149144E+0	1.092247E+0	1.141515E+0	1.104733E+0	1.118004E+0	1.073615E+0	1.111100E+0	1.129136E+0	1.144466E+0	1.053275E+0	1.121556E+0	1.111496E+0	1.117464E+0	1.093200E+0	1.127571E+0	1.055267E+0	1.180314E+0	1.118652E+0	1.064906E+0	1.087440E+0	1.123759E+0	1.132683E+0	1.116293E+0	1.149735E+0	1.107462E+0	1.159744E+0	1.060401E+0	1.069267E+0	1.109149E+0	1.140027E+0	1.082484E+0	1.042225E+0	1.108116E+0	1.055048E+0	1.054647E+0	1.092407E+0	1.135304E+0	1.093476E+0	1.062773E+0	1.060057E+0	1.074753E+0	1.129395E+0	1.079650E+0	1.123119E+0	1.107009E+0	1.162939E+0	1.111992E+0	1.170726E+0	1.112869E+0	1.056502E+0	1.089231E+0	1.078863E+0	1.071096E+0	1.092438E+0	1.117433E+0	1.150013E+0	1.119718E+0	1.137799E+0	1.098306E+0	1.154447E+0	1.137275E+0	1.049775E+0	1.091525E+0	1.092566E+0	1.112506E+0	1.158216E+0	1.088027E+0	1.108594E+0	1.110396E+0	1.145969E+0	1.108190E+0	1.074453E+0	1.126735E+0	1.112303E+0	1.068516E+0	1.070829E+0	1.064372E+0	1.122655E+0	1.115800E+0	1.074300E+0	1.078430E+0	1.032727E+0	1.114177E+0	1.088535E+0	1.135608E+0	1.111502E+0	1.119574E+0	1.128398E+0	1.096067E+0	1.081313E+0	1.089102E+0	1.144219E+0	1.098962E+0	1.115130E+0	1.161206E+0	1.090484E+0	1.112010E+0	1.158966E+0	1.114413E+0	1.105593E+0	1.123759E+0	1.170895E+0	1.103228E+0	1.140295E+0	1.144224E+0	1.062011E+0	1.091743E+0	1.146583E+0	1.110157E+0	1.149831E+0	1.096883E+0	1.085268E+0	1.126141E+0	1.128408E+0	1.161566E+0	1.123222E+0	1.093157E+0	1.169048E+0	1.077197E+0	1.073414E+0	1.133786E+0	1.137898E+0	1.128575E+0	1.140328E+0	1.113098E+0	1.061028E+0	1.202655E+0	1.093610E+0	1.089582E+0	1.147161E+0	1.129923E+0	1.111982E+0	1.123193E+0	1.117614E+0	1.092113E+0	1.085743E+0	1.146813E+0	1.126109E+0	1.120733E+0	1.131883E+0	1.128366E+0	1.107757E+0	1.038535E+0	1.090482E+0	1.126465E+0	1.117560E+0	1.099386E+0	1.053232E+0	1.084559E+0	1.135091E+0	1.200230E+0
2.964990E+2	1.008202E+0	1.032132E+0	1.035569E+0	1.067627E+0	9.969528E-1	1.013222E+0	1.008351E+0	1.035863E+0	1.035915E+0	1.064129E+0	1.047923E+0	1.110219E+0	1.017425E+0	1.004824E+0	1.048632E+0	1.044068E+0	1.068461E+0	1.005669E+0	1.042087E+0	1.086929E+0	1.007016E+0	1.029891E+0	1.060318E+0	1.043421E+0	1.028661E+0	1.056636E+0	1.045466E+0	1.043818E+0	1.027791E+0	1.067853E+0	1.018217E+0	1.073674E+0	1.065873E+0	1.070099E+0	1.024646E+0	1.017076E+0	1.010732E+0	1.040541E+0	1.073304E+0	1.090246E+0	1.015093E+0	1.028622E+0	1.018665E+0	1.074923E+0	1.056933E+0	1.016456E+0	1.046558E+0	1.064177E+0	1.028367E+0	1.095727E+0	1.059452E+0	1.051488E+0	1.073300E+0	1.021156E+0	1.037774E+0	1.093229E+0	1.090137E+0	1.029625E+0	1.087111E+0	9.887942E-1	1.009189E+0	1.017836E+0	1.005623E+0	1.049042E+0	1.059330E+0	9.972376E-1	1.065261E+0	1.091540E+0	1.101368E+0	1.041722E+0	1.023120E+0	1.023087E+0	1.044604E+0	1.034477E+0	1.018788E+0	1.069864E+0	1.031800E+0	1.037902E+0	1.045122E+0	1.072090E+0	1.078314E+0	1.055001E+0	1.020044E+0	1.042018E+0	9.966151E-1	1.042337E+0	1.067678E+0	1.056463E+0	1.087599E+0	1.042286E+0	1.034544E+0	1.028709E+0	1.019589E+0	1.014218E+0	1.043962E+0	1.014230E+0	1.017140E+0	1.068531E+0	1.072153E+0	1.039598E+0	1.070426E+0	1.035557E+0	1.030936E+0	1.036460E+0	1.062319E+0	1.092996E+0	1.088352E+0	1.088380E+0	1.072720E+0	1.051512E+0	1.019981E+0	1.044768E+0	1.064369E+0	1.034269E+0	1.017364E+0	1.045676E+0	1.050807E+0	1.042862E+0	1.006636E+0	1.037284E+0	1.017990E+0	1.031228E+0	1.066080E+0	1.032532E+0	1.055134E+0	1.048698E+0	9.996012E-1	1.021150E+0	1.051999E+0	1.025139E+0	1.063658E+0	1.030708E+0	1.022299E+0	9.715668E-1	1.049965E+0	1.048351E+0	1.076996E+0	1.087031E+0	1.016545E+0	1.000074E+0	1.006813E+0	1.069622E+0	1.028607E+0	1.059043E+0	1.074929E+0	1.048585E+0	1.063259E+0	1.020980E+0	1.051292E+0	1.021856E+0	1.067469E+0	1.077897E+0	1.067347E+0	1.047403E+0	1.029247E+0	1.075155E+0	1.042454E+0	1.072263E+0	1.044436E+0	1.047412E+0	1.086457E+0	1.030797E+0	1.050342E+0	1.055407E+0	1.041332E+0	1.000078E+0	1.032204E+0	1.040250E+0	1.003703E+0	1.077655E+0	1.089195E+0	9.457363E-1
2.970040E+2	1.071688E+0	1.038319E+0	1.011157E+0	9.885818E-1	1.086740E+0	1.018843E+0	1.071256E+0	1.044754E+0	1.041121E+0	9.799786E-1	1.040933E+0	1.032955E+0	1.048593E+0	1.053507E+0	1.035654E+0	1.052180E+0	1.052979E+0	9.874981E-1	1.018223E+0	1.055586E+0	1.025787E+0	1.035678E+0	1.048953E+0	1.088070E+0	1.039866E+0	1.055232E+0	1.012132E+0	9.882991E-1	1.045653E+0	1.012704E+0	1.016715E+0	1.068937E+0	1.013065E+0	1.035378E+0	1.016097E+0	1.022717E+0	1.021687E+0	1.003735E+0	1.051440E+0	1.050330E+0	1.023063E+0	9.691602E-1	1.013850E+0	1.030742E+0	1.017562E+0	1.034940E+0	1.030418E+0	9.868781E-1	1.013456E+0	9.855778E-1	1.045997E+0	9.923904E-1	9.961478E-1	1.032669E+0	1.033830E+0	1.027781E+0	1.059908E+0	1.084079E+0	9.999390E-1	1.041327E+0	9.760996E-1	1.037771E+0	1.014915E+0	1.022963E+0	1.021142E+0	1.032899E+0	1.077004E+0	1.054597E+0	1.013622E+0	1.026163E+0	1.017225E+0	9.837895E-1	1.057702E+0	1.033863E+0	9.723839E-1	1.072938E+0	1.037927E+0	1.016293E+0	1.050970E+0	1.050210E+0	9.800660E-1	1.055106E+0	1.002324E+0	1.038273E+0	1.056910E+0	1.070829E+0	1.042756E+0	1.001254E+0	1.071116E+0	1.014167E+0	1.008724E+0	1.003626E+0	1.011610E+0	1.029536E+0	1.047489E+0	1.062514E+0	1.013139E+0	1.009927E+0	9.939228E-1	1.072528E+0	9.896574E-1	9.666672E-1	1.016512E+0	1.046443E+0	1.081071E+0	1.062422E+0	1.050324E+0	1.040340E+0	1.019724E+0	1.072264E+0	1.046037E+0	9.902398E-1	1.008708E+0	1.019046E+0	1.023203E+0	1.019003E+0	1.004331E+0	1.075351E+0	1.087649E+0	1.032590E+0	1.037140E+0	1.064554E+0	1.032209E+0	1.006190E+0	1.071469E+0	9.945868E-1	9.947875E-1	1.012189E+0	1.086903E+0	1.058782E+0	1.019528E+0	1.027137E+0	1.022719E+0	1.085201E+0	1.065461E+0	1.036375E+0	9.880670E-1	1.016320E+0	9.928075E-1	1.015250E+0	1.024856E+0	1.027832E+0	1.013786E+0	1.055043E+0	1.065834E+0	1.064485E+0	1.066121E+0	1.025361E+0	1.029044E+0	1.024019E+0	1.030526E+0	1.049788E+0	1.029684E+0	1.074993E+0	1.038328E+0	1.026868E+0	1.066072E+0	1.018402E+0	1.040501E+0	1.058645E+0	1.045527E+0	1.016701E+0	1.029647E+0	9.217253E-1	1.033948E+0	1.038776E+0	1.067774E+0	1.063990E+0	1.022218E+0	1.051791E+0	9.822443E-1	1.039012E+0
2.975020E+2	1.002151E+0	1.106614E+0	1.038064E+0	9.929071E-1	1.008766E+0	1.066432E+0	9.974944E-1	1.004861E+0	1.044618E+0	9.833990E-1	9.943800E-1	1.029894E+0	1.038739E+0	1.048231E+0	1.059397E+0	9.897634E-1	1.014034E+0	1.071827E+0	9.822152E-1	1.045315E+0	1.011594E+0	1.078559E+0	1.043040E+0	1.088990E+0	9.968887E-1	1.027794E+0	1.027663E+0	1.056563E+0	1.028021E+0	1.038187E+0	9.959105E-1	1.062802E+0	1.023308E+0	1.075474E+0	1.014476E+0	1.022142E+0	1.033525E+0	1.012670E+0	1.034648E+0	1.019257E+0	9.754717E-1	1.006274E+0	1.017641E+0	1.019760E+0	1.053733E+0	1.011885E+0	1.003851E+0	1.007867E+0	1.025489E+0	1.027783E+0	1.063449E+0	1.053131E+0	1.018562E+0	1.023134E+0	1.045648E+0	1.030745E+0	1.046484E+0	1.030755E+0	1.013424E+0	9.771295E-1	1.003737E+0	1.021950E+0	1.075823E+0	1.080391E+0	1.004504E+0	9.978615E-1	1.059308E+0	1.014282E+0	1.061350E+0	9.750736E-1	1.054262E+0	9.981269E-1	1.047716E+0	1.043791E+0	1.014933E+0	1.000093E+0	1.011744E+0	1.053778E+0	1.015150E+0	9.998915E-1	9.831000E-1	1.037130E+0	1.027557E+0	1.020170E+0	1.024671E+0	1.005047E+0	1.028526E+0	1.045872E+0	1.030357E+0	9.847790E-1	1.049146E+0	1.012944E+0	1.060936E+0	1.052613E+0	1.024303E+0	1.006091E+0	1.003005E+0	1.053495E+0	9.992982E-1	9.743896E-1	1.053801E+0	1.039055E+0	1.020096E+0	1.035906E+0	1.032057E+0	1.048065E+0	1.042485E+0	1.048474E+0	1.033790E+0	1.029000E+0	9.887802E-1	1.020030E+0	1.028523E+0	1.067916E+0	1.022124E+0	1.070879E+0	1.022969E+0	1.018006E+0	1.037621E+0	1.051899E+0	9.826939E-1	9.955301E-1	1.065578E+0	9.932961E-1	1.084343E+0	1.016035E+0	9.639319E-1	1.032226E+0	1.067799E+0	1.010629E+0	1.051436E+0	1.041279E+0	1.063861E+0	1.005138E+0	1.019379E+0	1.026313E+0	1.077843E+0	1.023128E+0	1.002705E+0	1.034089E+0	9.899883E-1	1.057920E+0	9.891826E-1	1.021899E+0	1.006962E+0	1.010756E+0	1.045687E+0	1.042850E+0	1.005699E+0	1.049303E+0	9.973499E-1	1.029202E+0	1.055778E+0	1.047215E+0	1.026181E+0	1.027251E+0	1.019362E+0	1.008582E+0	1.011917E+0	1.026548E+0	1.048145E+0	1.026233E+0	1.023673E+0	1.007728E+0	9.988218E-1	1.031450E+0	1.017533E+0	1.028659E+0	9.711780E-1	1.061167E+0	1.061891E+0	1.004307E+0
2.980040E+2	1.050694E+0	1.007410E+0	1.009031E+0	1.028808E+0	1.017814E+0	1.012091E+0	1.039700E+0	9.962075E-1	1.044025E+0	9.917069E-1	1.067590E+0	1.041363E+0	9.993943E-1	1.027965E+0	1.027674E+0	9.997392E-1	1.030628E+0	1.024621E+0	1.017194E+0	1.036548E+0	9.892632E-1	1.021780E+0	1.036678E+0	1.017460E+0	1.020369E+0	1.005121E+0	9.793389E-1	9.790627E-1	1.019316E+0	9.959683E-1	9.921511E-1	1.020250E+0	9.657759E-1	1.055498E+0	9.920465E-1	9.771796E-1	1.013104E+0	9.941532E-1	1.017714E+0	1.065067E+0	9.872778E-1	1.016838E+0	9.649747E-1	1.027488E+0	1.015084E+0	1.015896E+0	1.051826E+0	1.029329E+0	1.031352E+0	1.013950E+0	1.006107E+0	1.013435E+0	1.001442E+0	1.053977E+0	1.025570E+0	9.959121E-1	1.037355E+0	1.010726E+0	1.002686E+0	1.002193E+0	1.025218E+0	1.025311E+0	1.026173E+0	9.831950E-1	1.015456E+0	1.039615E+0	9.921615E-1	1.018470E+0	9.995602E-1	1.050855E+0	1.016826E+0	1.004698E+0	9.814447E-1	1.011287E+0	1.013227E+0	1.032641E+0	1.043435E+0	1.047445E+0	1.004002E+0	1.074546E+0	9.899699E-1	1.024004E+0	1.039367E+0	1.056892E+0	1.024751E+0	1.007656E+0	1.019264E+0	1.055912E+0	9.882020E-1	1.030027E+0	1.008644E+0	1.023388E+0	1.026083E+0	9.742911E-1	1.045355E+0	1.023015E+0	1.024903E+0	1.013257E+0	1.033967E+0	1.023124E+0	1.048622E+0	1.016555E+0	9.944107E-1	9.884979E-1	1.001171E+0	1.008376E+0	1.061921E+0	1.039606E+0	1.040208E+0	9.893747E-1	1.054946E+0	1.020589E+0	1.005887E+0	1.005530E+0	1.034714E+0	1.043901E+0	1.013705E+0	1.015062E+0	1.016866E+0	9.990304E-1	1.075666E+0	1.001892E+0	1.007744E+0	1.045602E+0	1.017267E+0	1.034231E+0	1.044996E+0	1.029869E+0	1.026074E+0	1.003279E+0	1.010536E+0	1.003078E+0	1.015977E+0	1.021770E+0	1.062241E+0	1.049517E+0	1.029666E+0	1.010242E+0	1.035049E+0	1.042744E+0	9.882421E-1	1.051219E+0	1.013134E+0	1.051155E+0	1.027539E+0	9.734203E-1	1.056764E+0	1.008996E+0	1.060849E+0	1.045959E+0	1.031120E+0	1.001367E+0	9.716920E-1	1.003962E+0	1.053215E+0	1.019933E+0	1.058370E+0	1.035634E+0	1.022539E+0	1.029519E+0	9.582504E-1	1.000858E+0	9.957984E-1	1.009421E+0	1.008968E+0	1.059572E+0	9.505875E-1	1.015287E+0	1.054215E+0	1.051629E+0	9.949662E-1	1.050659E+0
2.985020E+2	9.821929E-1	9.709145E-1	9.789267E-1	1.026083E+0	9.878637E-1	9.789972E-1	9.754701E-1	1.007974E+0	9.959847E-1	1.018095E+0	9.862820E-1	9.938340E-1	1.001679E+0	9.677315E-1	1.012844E+0	1.023848E+0	9.737491E-1	9.893747E-1	9.916140E-1	1.016413E+0	1.001490E+0	9.885380E-1	9.860976E-1	1.020063E+0	1.016699E+0	9.949192E-1	9.933722E-1	9.966184E-1	9.644345E-1	1.019295E+0	9.854860E-1	9.940102E-1	1.010115E+0	1.005538E+0	1.007145E+0	9.873059E-1	9.781347E-1	1.007380E+0	1.016857E+0	9.827359E-1	9.771116E-1	9.970082E-1	1.053962E+0	1.029208E+0	9.925597E-1	1.000820E+0	1.000077E+0	9.612427E-1	9.843608E-1	9.458968E-1	9.924911E-1	9.942938E-1	9.831076E-1	9.786448E-1	1.008895E+0	9.753053E-1	9.678158E-1	1.015868E+0	9.847568E-1	1.010564E+0	1.003589E+0	9.963682E-1	9.799549E-1	9.879120E-1	9.822813E-1	1.001575E+0	1.000981E+0	9.892502E-1	1.009621E+0	9.627938E-1	1.007523E+0	9.747072E-1	1.039273E+0	1.029800E+0	1.029506E+0	9.535872E-1	9.970108E-1	1.006545E+0	9.788761E-1	9.747729E-1	1.006061E+0	1.017373E+0	9.595819E-1	9.709298E-1	9.935401E-1	1.036472E+0	9.857660E-1	9.754419E-1	9.969798E-1	1.001725E+0	1.007971E+0	1.013527E+0	9.587829E-1	9.900684E-1	9.572106E-1	9.762853E-1	1.018141E+0	1.012356E+0	1.017325E+0	1.013378E+0	1.016192E+0	9.849131E-1	1.004391E+0	1.004448E+0	1.024298E+0	9.762743E-1	9.534000E-1	9.970999E-1	9.812949E-1	9.917189E-1	9.919082E-1	9.844779E-1	9.949688E-1	1.025582E+0	1.006513E+0	1.012370E+0	1.029818E+0	1.002347E+0	1.024048E+0	9.776980E-1	9.555105E-1	1.021790E+0	1.019788E+0	1.002186E+0	9.717511E-1	9.842890E-1	9.683912E-1	9.961396E-1	9.553277E-1	9.966386E-1	9.956429E-1	9.870693E-1	9.800015E-1	1.006767E+0	9.970416E-1	9.804062E-1	1.031722E+0	1.025335E+0	1.027976E+0	1.010009E+0	1.028318E+0	1.035741E+0	9.979847E-1	9.947676E-1	9.873132E-1	9.868096E-1	1.004946E+0	9.439463E-1	9.847076E-1	9.952940E-1	9.463778E-1	9.876435E-1	1.020131E+0	1.009892E+0	9.701692E-1	1.021838E+0	9.775046E-1	9.584559E-1	9.925248E-1	9.646789E-1	1.030287E+0	1.038000E+0	1.042347E+0	1.001426E+0	1.015843E+0	1.004462E+0	1.008619E+0	1.015948E+0	1.017012E+0	1.026202E+0	9.769587E-1	9.653593E-1
2.990010E+2	9.931788E-1	9.564787E-1	9.330043E-1	9.153522E-1	9.797170E-1	9.845552E-1	9.538593E-1	9.140066E-1	9.315449E-1	9.607180E-1	9.237729E-1	9.566900E-1	9.638128E-1	9.430058E-1	9.331371E-1	9.855143E-1	9.362796E-1	9.103773E-1	9.529251E-1	9.535509E-1	9.582415E-1	9.821059E-1	9.433447E-1	9.180050E-1	9.164820E-1	9.370605E-1	9.606942E-1	9.733787E-1	9.751689E-1	9.735311E-1	9.584744E-1	9.387143E-1	1.000587E+0	9.268980E-1	9.337523E-1	9.829693E-1	9.661028E-1	9.582772E-1	9.583736E-1	9.005086E-1	9.923514E-1	9.942487E-1	9.523765E-1	9.423641E-1	9.690850E-1	9.592733E-1	9.442941E-1	9.318372E-1	9.412788E-1	9.267843E-1	9.304329E-1	9.801025E-1	9.647557E-1	9.487136E-1	9.343601E-1	9.884757E-1	9.603443E-1	9.278466E-1	9.380018E-1	9.577825E-1	9.478540E-1	9.216877E-1	9.439964E-1	9.408745E-1	9.644656E-1	9.521272E-1	9.832065E-1	9.476351E-1	9.509922E-1	9.594695E-1	9.313453E-1	9.873921E-1	9.448107E-1	9.466898E-1	9.274821E-1	9.654583E-1	9.444527E-1	9.315586E-1	9.506184E-1	9.317542E-1	9.530606E-1	9.446454E-1	9.659932E-1	9.063415E-1	9.355930E-1	9.487378E-1	9.949111E-1	9.345276E-1	9.880609E-1	9.429308E-1	9.378456E-1	9.330209E-1	9.486396E-1	9.637453E-1	9.788740E-1	9.672790E-1	9.164301E-1	9.471238E-1	9.137112E-1	9.850101E-1	9.097866E-1	9.757501E-1	9.686423E-1	9.453953E-1	9.353259E-1	9.340282E-1	9.382226E-1	9.262822E-1	9.397909E-1	9.428112E-1	9.515545E-1	9.276951E-1	9.136537E-1	9.516902E-1	9.680686E-1	8.944890E-1	9.304494E-1	9.752091E-1	9.164903E-1	9.701030E-1	9.788013E-1	9.364198E-1	9.282393E-1	9.209668E-1	9.375876E-1	9.694292E-1	9.561192E-1	9.376714E-1	9.880901E-1	9.536235E-1	9.362508E-1	9.249203E-1	9.559847E-1	9.505617E-1	9.352079E-1	9.554549E-1	9.242799E-1	9.285574E-1	9.305966E-1	9.437534E-1	9.621376E-1	9.378748E-1	9.382478E-1	9.367049E-1	9.582818E-1	9.946740E-1	9.609227E-1	9.208674E-1	9.583386E-1	9.438592E-1	9.747518E-1	9.362228E-1	9.330979E-1	9.423753E-1	9.235516E-1	9.420920E-1	9.565327E-1	9.969994E-1	9.431873E-1	9.530736E-1	9.188438E-1	9.457286E-1	9.323259E-1	9.074002E-1	9.485309E-1	9.489365E-1	9.831278E-1	9.603320E-1	9.208791E-1	8.918003E-1	9.576606E-1	9.128440E-1
2.995040E+2	9.672619E-1	1.021701E+0	1.035167E+0	9.834652E-1	9.947875E-1	9.899474E-1	1.007161E+0	1.025457E+0	9.881187E-1	1.008117E+0	9.838902E-1	9.637967E-1	9.966488E-1	1.060730E+0	1.030647E+0	9.648549E-1	1.020347E+0	1.020201E+0	9.962961E-1	9.868811E-1	1.008620E+0	9.779292E-1	9.823485E-1	1.008345E+0	1.028462E+0	1.052868E+0	1.037220E+0	1.033681E+0	1.015889E+0	9.957844E-1	1.025597E+0	1.007301E+0	1.002912E+0	1.004946E+0	1.024694E+0	9.998685E-1	1.015321E+0	1.010517E+0	1.010404E+0	9.906211E-1	1.031044E+0	9.808291E-1	1.016262E+0	9.574588E-1	9.866817E-1	1.003446E+0	9.722742E-1	1.055987E+0	1.003922E+0	1.059419E+0	1.044662E+0	9.966872E-1	9.927320E-1	9.779436E-1	1.023960E+0	9.981716E-1	1.002152E+0	1.005779E+0	1.004975E+0	1.020613E+0	1.018281E+0	1.012059E+0	1.006884E+0	1.001133E+0	1.035955E+0	9.924602E-1	1.012392E+0	1.010262E+0	9.989746E-1	1.003150E+0	9.860658E-1	1.016454E+0	1.011039E+0	1.012454E+0	9.888588E-1	1.030187E+0	9.823700E-1	1.011701E+0	1.025816E+0	9.905494E-1	1.016748E+0	9.685732E-1	9.978997E-1	1.023474E+0	1.029516E+0	1.024020E+0	9.878804E-1	9.962770E-1	1.006644E+0	1.011224E+0	1.025341E+0	9.940813E-1	1.015027E+0	1.030199E+0	1.016431E+0	1.015503E+0	1.002001E+0	1.005220E+0	9.913356E-1	9.848277E-1	9.857146E-1	9.991639E-1	1.029475E+0	1.012701E+0	1.018827E+0	1.042891E+0	1.013930E+0	9.967713E-1	9.889294E-1	1.024813E+0	9.916006E-1	1.024939E+0	1.037531E+0	9.898437E-1	9.601990E-1	1.020150E+0	9.972226E-1	9.914149E-1	1.011031E+0	1.018687E+0	9.803434E-1	9.799256E-1	1.044346E+0	9.987705E-1	1.027769E+0	1.025853E+0	1.007507E+0	1.001366E+0	1.020122E+0	1.025813E+0	1.029401E+0	1.027899E+0	1.018293E+0	1.019283E+0	9.898236E-1	1.002002E+0	1.030123E+0	1.001961E+0	1.014478E+0	9.998838E-1	1.018724E+0	9.782336E-1	1.026225E+0	9.712783E-1	1.010918E+0	9.914366E-1	9.825985E-1	1.039288E+0	9.702881E-1	1.000066E+0	1.009482E+0	9.917722E-1	1.036772E+0	1.005645E+0	1.048211E+0	9.990724E-1	1.005600E+0	9.928424E-1	9.806287E-1	1.015075E+0	1.055453E+0	1.008485E+0	1.072367E+0	1.041392E+0	1.017731E+0	9.837225E-1	1.001733E+0	9.894813E-1	9.942714E-1	1.020821E+0	1.066731E+0	9.707180E-1
3.000060E+2	1.006672E+0	1.043495E+0	1.043871E+0	1.046292E+0	1.019818E+0	1.034410E+0	1.023810E+0	1.056355E+0	1.040326E+0	1.021364E+0	1.038465E+0	1.044316E+0	1.038465E+0	1.000568E+0	9.956986E-1	1.026044E+0	1.038997E+0	1.055426E+0	1.041971E+0	1.006608E+0	1.042385E+0	1.029647E+0	1.051531E+0	1.036126E+0	1.017988E+0	1.010031E+0	1.029375E+0	1.017259E+0	1.025192E+0	1.015422E+0	1.038292E+0	1.039724E+0	1.020610E+0	1.007121E+0	1.042362E+0	1.052677E+0	1.027337E+0	1.029672E+0	9.966520E-1	1.061067E+0	1.012216E+0	1.011076E+0	1.012425E+0	1.043481E+0	1.036590E+0	1.020565E+0	1.031529E+0	1.021605E+0	1.039087E+0	1.053949E+0	1.026306E+0	1.015482E+0	1.057962E+0	1.040721E+0	1.007215E+0	1.042135E+0	1.032333E+0	1.039781E+0	1.069581E+0	1.008846E+0	1.005058E+0	1.044574E+0	1.042992E+0	1.086886E+0	1.001842E+0	1.014222E+0	1.011259E+0	1.034382E+0	1.040852E+0	1.023732E+0	1.058240E+0	1.016750E+0	1.023433E+0	9.997691E-1	1.040926E+0	1.018126E+0	1.032732E+0	1.002750E+0	1.040687E+0	1.028378E+0	1.034161E+0	1.045404E+0	1.037158E+0	1.042363E+0	1.016600E+0	9.831145E-1	1.012178E+0	1.037842E+0	1.020114E+0	1.014093E+0	1.020198E+0	1.035982E+0	1.051468E+0	1.041696E+0	1.002129E+0	1.017918E+0	1.038525E+0	1.022043E+0	1.043661E+0	9.936604E-1	1.039685E+0	1.023617E+0	1.003082E+0	1.048958E+0	1.020379E+0	1.038430E+0	1.032527E+0	1.040241E+0	1.049777E+0	1.051282E+0	1.009991E+0	1.042300E+0	1.047960E+0	1.027354E+0	1.030506E+0	1.029090E+0	1.028805E+0	1.015967E+0	1.031565E+0	1.034481E+0	1.009679E+0	1.059973E+0	9.998832E-1	1.032475E+0	1.045625E+0	9.861982E-1	1.022987E+0	1.034954E+0	1.010387E+0	1.020646E+0	1.028169E+0	1.057033E+0	1.029744E+0	1.001618E+0	1.015686E+0	1.012620E+0	9.842095E-1	1.033905E+0	9.919001E-1	1.003609E+0	1.002578E+0	9.969315E-1	1.024408E+0	1.046094E+0	1.015949E+0	1.053660E+0	9.947680E-1	1.086902E+0	1.025817E+0	1.014821E+0	1.038269E+0	1.082995E+0	1.038307E+0	1.038125E+0	1.004853E+0	1.017064E+0	1.001993E+0	1.016068E+0	1.061120E+0	1.037654E+0	1.037165E+0	1.006929E+0	9.571616E-1	1.040362E+0	1.008927E+0	1.003307E+0	1.055933E+0	1.018952E+0	1.013623E+0	1.009549E+0	1.003684E+0	1.100420E+0
