Photon Energy (eV)	#1	#2	#3	#4	#5	#6	#7	#8	#9	#10	#11	#12	#13	#14	#15	#16	#17	#18	#19	#20	#21	#22	#23	#24	#25	#26	#27	#28	#29	#30	#31	#32	#33	#34	#35	#36	#37	#38	#39	#40	#41	#42	#43	#44	#45	#46	#47	#48	#49	#50	#51	#52	#53	#54	#55	#56	#57	#58	#59	#60	#61	#62	#63	#64	#65	#66	#67	#68	#69	#70	#71	#72	#73	#74	#75	#76	#77	#78	#79	#80	#81	#82	#83	#84	#85	#86	#87	#88	#89	#90	#91	#92	#93	#94	#95	#96	#97	#98	#99	#100	#101	#102	#103	#104	#105	#106	#107	#108	#109	#110	#111	#112	#113	#114	#115	#116	#117	#118	#119	#120	#121	#122	#123	#124	#125	#126	#127	#128	#129	#130	#131	#132	#133	#134	#135	#136	#137	#138	#139	#140	#141	#142	#143	#144	#145	#146	#147	#148	#149	#150	#151	#152	#153	#154	#155	#156	#157	#158	#159	#160	#161	#162	#163	#164	#165	#166	#167	#168	#169	#170	#171	
2.790010E+2	-5.973736E-3	1.886826E-3	-2.315222E-3	-6.226645E-3	1.495014E-3	-5.143415E-4	-3.916809E-3	-6.589783E-3	-2.072425E-4	-3.131564E-3	-5.793341E-3	-3.442845E-3	-4.996880E-3	-7.032546E-3	-8.840160E-3	-1.454940E-3	-1.192524E-3	-3.609983E-3	-3.417366E-3	-6.284266E-3	-5.075626E-3	-2.388376E-3	-6.455691E-3	-7.074403E-3	-8.915282E-3	-7.585277E-3	-4.375989E-4	-5.120027E-3	-3.067027E-4	7.813974E-4	-1.971750E-3	-6.379879E-3	-2.422962E-3	-1.010870E-2	-3.035679E-3	-2.457741E-3	-1.160140E-3	-1.044387E-2	-3.460546E-3	-4.745530E-3	-8.726322E-3	-6.216965E-3	-3.991434E-3	-2.442587E-3	-1.884503E-3	-3.048465E-3	-6.526390E-4	-5.355220E-3	-7.643412E-3	-4.001632E-3	-1.170392E-3	3.300077E-3	2.343791E-3	-5.841937E-3	1.134011E-4	7.055669E-4	-2.000180E-3	-7.248482E-3	-1.286423E-3	-9.432439E-3	-2.312222E-3	3.561999E-4	7.473871E-3	-6.799074E-3	-1.071029E-2	-2.723083E-3	-3.458248E-3	-7.348111E-3	1.631501E-3	-7.945366E-3	2.725302E-4	-1.620063E-3	-4.248695E-3	-2.514059E-3	-8.338231E-3	-4.915373E-3	1.111756E-4	-5.885448E-4	-2.431461E-3	-2.626609E-3	2.195518E-3	-5.350121E-3	3.417979E-3	-6.628000E-3	3.661486E-4	-8.908204E-3	-2.268448E-3	-1.479256E-3	-9.806259E-3	4.356375E-3	2.679564E-3	-4.501554E-3	2.349705E-3	-6.860452E-3	-1.691987E-3	-5.472318E-4	-6.287608E-3	-4.653056E-3	-4.277638E-3	-2.024598E-4	-4.576901E-3	-1.316757E-2	-4.419772E-3	-5.246699E-3	-6.887636E-3	-6.775013E-3	-2.345057E-4	9.228258E-4	-1.676970E-3	-1.726597E-3	-3.199141E-3	-1.453755E-3	-2.274155E-3	-4.184383E-3	-6.190224E-3	-5.008112E-3	-4.520992E-3	-5.203847E-3	-3.266414E-3	-7.180426E-3	1.048726E-3	-2.280002E-3	-1.239160E-3	6.510082E-4	-4.046074E-3	-1.039693E-3	8.255789E-4	-8.432941E-3	-5.020828E-3	-6.827451E-3	-1.081020E-2	-2.638919E-3	5.795011E-3	-9.060636E-3	-8.751968E-3	2.805343E-3	-8.100257E-3	-2.045398E-3	1.256162E-8	6.713629E-5	-2.171558E-3	7.605383E-4	-5.479622E-3	-6.044660E-3	4.156679E-4	-1.108556E-2	1.780003E-3	9.655389E-4	1.194189E-3	-8.618715E-4	-3.786472E-3	-4.636672E-3	-1.014528E-2	3.929872E-3	-3.009507E-3	-2.533516E-3	-5.631166E-3	-3.684953E-3	-3.122674E-3	-5.087775E-3	-8.867915E-3	-3.596367E-3	-5.393750E-3	-5.300700E-4	-3.512147E-3	-8.315208E-3	1.091239E-3	-4.993280E-3	-8.341762E-3	3.337669E-3	-1.445963E-2
2.795040E+2	-7.301208E-3	-8.805041E-3	-2.878383E-3	6.226937E-4	-8.450072E-4	6.429004E-4	8.901763E-4	-8.237225E-3	-3.937546E-3	1.289474E-3	-3.237472E-3	2.134554E-3	-3.020050E-3	-3.196811E-4	-1.721500E-3	-4.073817E-3	-6.276461E-3	-5.775981E-3	4.271721E-3	1.713887E-3	-1.400156E-3	-3.388169E-3	-2.448703E-3	8.843216E-4	2.629693E-3	2.014854E-3	1.531559E-3	-2.275608E-3	-5.367107E-3	1.250274E-3	-6.641628E-3	1.109571E-3	-4.100291E-3	-3.148593E-3	4.415283E-4	8.602259E-4	-1.160131E-3	-8.525397E-4	-4.449302E-3	-1.348184E-3	1.856691E-4	-9.325425E-3	1.140366E-4	1.954087E-3	1.884487E-3	-3.978492E-3	-2.008353E-4	-8.533012E-3	-4.232319E-3	-4.539126E-3	-3.176732E-3	-2.887538E-3	-3.984466E-3	-1.039186E-2	-3.459090E-3	3.880603E-3	-2.545763E-3	-7.248472E-3	-1.895758E-3	-1.605511E-3	-6.994476E-3	-3.765472E-3	4.982430E-4	3.305953E-3	3.410932E-3	2.778723E-4	-2.305481E-3	-2.033838E-3	-4.894491E-3	-7.022674E-3	3.215461E-3	2.745077E-8	-3.702447E-3	-6.928964E-3	6.459055E-4	-3.276911E-3	2.112558E-3	-8.292751E-3	-1.034687E-4	1.575986E-3	-6.272747E-4	-3.110255E-4	2.409391E-3	-4.763890E-3	1.464675E-3	-6.235744E-3	-7.745849E-4	-5.739496E-3	-2.187025E-3	-7.792390E-3	-9.378348E-4	3.839504E-3	-6.209913E-3	-6.381822E-3	-9.305929E-3	-1.641670E-3	-1.342982E-3	3.518121E-3	-4.277606E-3	1.012252E-3	-1.826801E-8	-9.027573E-3	-9.193128E-3	-7.234940E-3	-2.025647E-4	-4.654098E-3	-4.455316E-3	-9.043606E-3	-5.085042E-3	-6.097166E-3	2.464922E-3	-3.634531E-4	-2.798963E-3	-4.714805E-3	-9.566685E-3	4.382137E-3	-2.893418E-3	-4.677603E-3	2.613114E-3	1.294849E-3	-3.985094E-3	-3.989946E-3	-4.760902E-3	-8.137819E-3	-2.942551E-3	2.703218E-3	-7.666261E-4	-5.683080E-3	-3.163836E-3	-6.263472E-4	-2.489174E-3	-6.597182E-3	-3.177942E-3	-5.732246E-3	1.225279E-3	-4.032711E-3	-9.907718E-3	-8.795288E-3	-1.158355E-3	-5.371847E-3	1.165198E-3	4.972728E-3	-1.611644E-3	-9.970562E-4	-4.394141E-3	1.460383E-3	3.989671E-3	-5.241234E-3	1.705986E-3	-1.970011E-3	-3.262203E-3	4.915973E-3	4.561991E-3	-1.099132E-2	-4.213311E-3	-4.998572E-3	-5.631150E-3	-8.010733E-4	5.114740E-3	-1.817165E-4	-1.385423E-4	-1.508153E-3	-7.011869E-3	-3.511713E-3	2.033354E-3	-7.297038E-3	-5.263847E-3	-2.919176E-3	-7.284327E-3	1.756587E-4	-1.143317E-2
2.800050E+2	-3.318717E-3	-4.402553E-3	2.753247E-3	-3.735980E-3	2.080050E-3	-2.250104E-3	-4.985040E-3	1.263043E-2	-8.289546E-4	1.842293E-4	2.896682E-3	-4.682298E-3	-1.537490E-3	-7.991531E-4	-1.302782E-3	-4.073772E-3	-6.276041E-5	-1.443988E-3	-2.936777E-3	-1.713888E-3	-1.925185E-3	1.610779E-3	2.059152E-3	1.381748E-3	2.052418E-3	-1.185185E-4	-5.360518E-3	1.137778E-3	-1.226782E-3	-1.562844E-3	2.231203E-3	-3.384113E-3	-3.541205E-3	-1.657391E-4	-8.003186E-3	5.837084E-3	-1.160125E-3	1.065702E-3	-2.966207E-3	-5.230890E-3	7.426571E-4	3.626572E-3	-9.123364E-4	-7.938601E-4	3.768960E-3	-7.233779E-4	-2.008191E-3	4.707952E-4	-2.526503E-4	-1.313980E-3	-5.183080E-3	-5.362601E-3	-4.511813E-3	2.246880E-3	1.134111E-3	-1.940302E-3	-4.182284E-3	3.624252E-3	-1.895754E-3	2.608953E-3	-1.271710E-3	3.561636E-4	-4.484326E-3	-6.799067E-3	-3.956663E-3	7.780381E-4	3.086135E-8	3.280546E-4	-7.003360E-9	-5.638619E-3	-3.651428E-3	-3.780138E-3	1.760165E-3	-6.377052E-3	-9.395441E-4	3.276887E-3	-2.390538E-3	3.745301E-4	-1.965854E-3	1.050622E-3	2.195487E-3	-1.430826E-3	-6.163445E-4	-5.385249E-3	3.112429E-3	-4.632258E-3	5.698733E-3	-4.141954E-4	-2.821923E-3	-8.344560E-3	-1.540743E-3	-2.714153E-3	-1.678400E-3	3.190852E-4	4.399172E-3	1.641718E-3	5.249837E-3	-6.185177E-3	5.791235E-3	2.226990E-3	-6.611055E-3	-2.300110E-4	-2.828667E-3	6.682643E-3	2.836112E-3	-2.533279E-3	-3.400130E-3	-2.952996E-3	2.704811E-4	-7.554022E-4	-2.255150E-3	-7.450513E-3	-2.798972E-3	5.891775E-5	3.939214E-3	-2.545803E-9	-1.808364E-3	-8.887454E-3	1.009609E-3	-8.239578E-4	-1.468151E-3	-5.699719E-4	6.391348E-3	2.408770E-3	-7.356460E-3	1.299596E-3	-3.951075E-3	4.216490E-3	3.026253E-3	2.756026E-3	7.115207E-5	-5.937454E-3	-5.981960E-3	-9.060636E-3	3.850866E-3	1.753589E-4	-2.075307E-3	-2.045420E-3	2.895870E-3	1.275814E-3	2.118555E-4	-8.190427E-4	-1.611662E-3	1.246354E-3	-3.859736E-3	-2.124192E-3	1.227724E-4	-1.517179E-3	6.312064E-3	-3.632179E-3	-5.359327E-3	-4.636660E-3	-3.404491E-3	-6.570216E-3	1.203815E-3	-6.847226E-4	8.387182E-4	-2.723643E-3	-2.153543E-3	-4.542675E-3	-3.879721E-3	-6.206652E-3	-1.078730E-3	-4.704422E-3	9.242455E-4	-2.715181E-3	-4.686068E-3	-2.919155E-3	-5.169515E-3	-6.148323E-3	-5.380341E-3
2.805050E+2	-3.318753E-3	-3.144629E-3	-6.256764E-5	-3.113305E-3	-6.110186E-3	-2.250104E-3	-3.382682E-3	2.196595E-3	3.523019E-3	2.394725E-3	-1.704108E-4	-1.583670E-3	3.404469E-3	-1.758161E-3	6.653383E-3	3.782794E-3	-6.276489E-4	-3.609976E-3	4.752240E-3	-7.426842E-3	7.000431E-4	5.609915E-3	-1.446970E-3	-6.079525E-4	-3.720057E-3	2.014821E-3	3.500767E-3	5.689041E-4	2.453529E-3	-3.438267E-3	5.500109E-3	-8.876182E-4	-1.863982E-4	8.285760E-4	-3.532445E-3	-2.457687E-4	-1.657347E-3	-3.729757E-4	-5.932369E-3	1.563879E-3	-2.599318E-3	6.216940E-3	-4.504606E-3	-1.343423E-3	-7.066799E-3	6.716936E-4	-6.526886E-4	-4.295919E-3	2.589928E-3	-7.764757E-4	-2.173533E-3	1.443800E-3	1.816450E-3	1.741341E-3	-3.969428E-3	1.234721E-3	-4.727790E-3	4.711508E-3	-6.161219E-3	-1.605518E-3	-4.913484E-3	-1.475660E-3	-2.491271E-3	1.621804E-3	-2.728716E-3	1.778342E-3	5.187327E-3	-1.443391E-3	1.087683E-3	1.742839E-3	-2.180086E-4	-1.026029E-2	-3.702464E-3	-5.273390E-3	1.174793E-4	6.007635E-3	6.115190E-4	1.819051E-3	2.690098E-3	-2.101277E-3	-6.271886E-5	6.967582E-3	-7.172178E-3	-1.035606E-3	-2.380098E-3	2.316138E-3	-1.272522E-3	5.443668E-3	-2.822062E-4	3.251918E-3	8.708443E-4	7.414259E-3	-1.678400E-4	-3.031379E-3	1.861184E-3	4.377785E-3	-2.441679E-4	-1.588840E-3	4.606441E-4	-1.417157E-3	-1.525592E-3	-5.922553E-3	-3.889374E-3	7.179647E-4	-4.456703E-3	-6.775010E-3	3.986394E-3	9.228359E-4	-3.624462E-3	2.158301E-3	-3.199149E-3	7.268985E-4	4.023505E-3	-3.653968E-3	2.813710E-3	-1.878049E-3	9.041910E-4	-3.625137E-3	-3.800931E-3	-8.240095E-4	7.970113E-3	-5.699948E-3	-6.522573E-5	-1.106707E-3	1.471308E-3	-4.782573E-3	-2.358954E-4	2.016611E-3	-9.353894E-3	-6.827427E-3	7.111732E-4	1.451380E-2	3.551809E-3	-1.849239E-4	-3.500743E-4	-1.402646E-3	3.347249E-3	5.318061E-3	5.495708E-9	-4.163202E-3	-2.648222E-3	-8.190427E-4	3.706826E-3	6.854248E-4	2.553324E-3	2.057775E-3	-4.296613E-4	-2.758566E-3	-4.947281E-3	1.354350E-3	1.456331E-3	-1.619997E-3	-9.532511E-3	6.140540E-4	-6.620924E-3	-8.696117E-3	-2.396211E-4	6.408404E-4	3.176499E-3	-2.907284E-3	-1.385621E-3	-6.728698E-3	-2.157486E-3	6.623375E-5	3.696808E-4	-3.224273E-3	-4.686103E-3	-6.376062E-3	7.519314E-3	3.337669E-3	1.277827E-2
2.810050E+2	-2.654984E-3	-6.289244E-4	-2.878390E-3	-2.490691E-3	-3.770100E-3	-3.985866E-3	-1.780403E-3	-6.040649E-3	-2.072311E-4	7.368396E-4	-1.703734E-4	8.951425E-3	-5.491039E-4	-4.155603E-3	-3.396496E-3	5.354139E-3	-8.535949E-3	3.970959E-3	-2.936789E-3	1.713873E-3	4.900578E-3	-1.888492E-3	5.564950E-4	7.350711E-3	3.207046E-4	-3.318571E-3	2.023868E-3	3.413364E-3	-7.667283E-4	3.594551E-3	-1.037777E-3	-5.880600E-3	-4.659516E-3	1.325709E-3	2.925303E-3	3.072165E-3	-2.154518E-3	-1.811709E-3	-2.471805E-3	3.505212E-3	-5.941335E-3	-3.626582E-3	-1.425496E-3	-1.893030E-3	1.413356E-3	-8.628689E-3	-5.171111E-3	2.589356E-3	-8.211992E-4	-4.001618E-3	3.845528E-3	-7.218863E-3	4.453273E-3	-3.314145E-3	-3.969490E-4	-2.469463E-3	-2.545753E-3	-5.617553E-3	4.197769E-3	4.415198E-3	-2.312238E-3	1.272120E-3	-9.965367E-4	1.621824E-3	2.796927E-3	-7.724717E-3	-1.152760E-3	-8.529117E-4	-1.631525E-3	8.201779E-4	-2.180027E-4	-1.080020E-3	-9.711194E-4	4.108319E-3	-1.996477E-3	-3.823030E-3	-6.393304E-3	-6.366701E-3	-5.225031E-3	-2.626615E-3	-1.248307E-2	2.488559E-4	-6.667838E-3	-1.035652E-3	3.661650E-3	-3.563054E-4	-3.264300E-3	-2.544349E-3	2.257545E-3	-6.135703E-4	2.679770E-4	-6.288900E-3	3.356973E-4	3.190940E-4	2.368804E-3	-2.781729E-8	-1.343006E-3	-5.676252E-5	-6.646742E-3	-9.312851E-3	-5.593995E-3	2.357507E-3	1.944673E-3	2.706215E-3	2.836060E-3	3.829321E-3	2.403550E-3	4.244970E-3	-1.676961E-3	2.643921E-3	1.048902E-3	4.542953E-3	4.548320E-3	-3.123553E-3	2.813751E-3	-3.756115E-3	9.041744E-4	4.268282E-3	-5.938937E-4	-3.472506E-3	2.936312E-3	2.849974E-3	-2.999997E-3	-4.622288E-3	2.023021E-3	-5.718314E-4	-3.951049E-3	-2.933236E-3	-1.925793E-3	-5.136222E-3	5.191762E-3	1.319404E-3	-1.383334E-2	1.479310E-3	3.325756E-3	-4.558689E-3	-2.677874E-4	-2.045386E-3	-6.950045E-3	-4.163191E-3	-3.601591E-3	-1.345554E-3	-1.128155E-3	1.246457E-4	-1.187599E-3	3.252670E-3	-4.849014E-3	-1.517216E-3	-4.947300E-3	-7.510670E-3	3.029195E-3	-1.620049E-3	2.723693E-4	-2.701771E-3	-6.019159E-4	-6.847377E-4	5.151901E-3	-3.204461E-4	-5.060901E-3	-5.087765E-3	4.849381E-4	-2.552236E-3	5.393627E-4	-2.915423E-3	-6.284892E-3	4.412176E-3	1.091261E-3	-9.141609E-3	-9.399178E-3	3.337669E-3	6.725403E-3
2.815020E+2	2.655020E-3	2.515713E-3	-6.257794E-5	3.113305E-3	3.250132E-3	-3.985912E-3	3.560592E-4	2.745753E-3	-2.694061E-3	-3.684218E-3	-6.304530E-3	-9.640021E-4	-5.494837E-5	2.557317E-3	2.047189E-3	1.164048E-4	-6.275696E-5	-3.609990E-3	-1.975655E-3	5.141662E-3	-4.025486E-3	-3.888126E-4	1.057398E-3	-4.587297E-3	-6.606315E-3	-4.385231E-3	-2.406790E-3	-2.275577E-3	-6.287184E-3	-2.500555E-3	-5.707749E-4	1.608828E-3	3.727573E-3	8.285730E-4	4.912291E-3	-3.563699E-3	-6.629331E-3	2.024815E-3	2.966194E-3	-1.833491E-3	-2.042358E-3	-1.554241E-3	-3.478252E-3	1.954060E-3	-1.413361E-3	-7.233807E-4	-2.008050E-4	-5.882316E-5	-8.780478E-3	8.361350E-4	2.842335E-3	7.012625E-3	-7.148639E-3	-5.841881E-3	-2.438353E-3	1.763834E-4	7.273603E-4	9.060503E-4	-4.333158E-3	-3.411745E-3	-3.872976E-3	-2.849543E-3	-4.982393E-4	-4.553552E-3	-2.728720E-3	2.778689E-3	-3.458177E-3	2.099432E-3	5.438335E-3	1.742844E-3	-3.160976E-3	3.780104E-3	6.676667E-4	-8.584376E-4	4.873735E-3	-5.461338E-4	-6.393316E-3	4.708171E-3	-1.034653E-3	-3.677199E-3	-3.450102E-3	-1.430874E-3	3.922282E-3	8.285114E-4	-1.830827E-3	6.057547E-3	1.217224E-3	-2.544340E-3	-3.456883E-3	-1.165784E-3	-3.349565E-4	-3.309934E-3	1.846183E-3	-3.988641E-3	-3.214783E-3	-4.925034E-3	-9.034639E-3	-3.631649E-3	-3.093018E-3	-6.883434E-3	1.017082E-3	7.532560E-3	8.839528E-3	-2.761424E-3	-2.025536E-4	-4.123899E-4	-7.621162E-4	-1.845397E-4	-4.111317E-3	-2.212250E-3	-4.143145E-3	1.272051E-3	-4.898184E-3	-1.001919E-3	2.813738E-3	5.634161E-3	-3.435942E-3	2.163398E-3	-5.939068E-4	3.413665E-3	-8.389630E-3	-1.140008E-3	3.456516E-3	5.338391E-3	-1.287400E-3	8.317425E-4	-7.666358E-4	-1.833306E-4	-4.401863E-3	2.756009E-3	-5.689592E-3	-1.319423E-3	-2.056283E-3	-3.513300E-3	-8.752167E-4	-1.928695E-3	1.539699E-3	1.636335E-3	-1.737541E-3	-2.954517E-3	-4.078252E-3	-8.190395E-4	3.223375E-4	-3.801277E-3	1.484543E-3	-3.319032E-3	-9.820951E-4	1.586172E-3	-1.876541E-3	-8.618748E-4	-2.737905E-3	-1.620058E-3	3.949170E-3	-3.807066E-3	6.018813E-4	-6.231053E-3	8.386754E-4	-8.010850E-4	-6.029999E-3	-7.268060E-4	-1.385537E-4	-1.508128E-3	-1.078759E-3	4.836904E-3	-4.621256E-3	1.357563E-3	-6.419238E-4	7.451577E-3	1.174871E-3	1.756779E-4	3.698981E-3
2.820060E+2	8.628738E-3	-1.832984E-8	-5.131048E-3	4.358662E-3	-3.770100E-3	6.428122E-5	1.424293E-3	5.491734E-4	-4.559186E-3	1.842101E-3	-1.192748E-3	-7.161175E-3	-3.514278E-3	-2.237654E-3	-2.140236E-3	-4.073791E-3	1.067013E-3	5.053963E-3	-5.339523E-4	-2.285188E-3	-3.500447E-3	-2.888303E-3	5.566233E-5	-3.095044E-3	2.629693E-3	-1.184990E-4	-3.883643E-3	-5.120034E-3	6.593872E-3	-3.438235E-3	-7.108607E-3	-3.883453E-4	9.319230E-4	2.817203E-3	9.383275E-4	-7.987633E-3	-6.629152E-4	-8.525718E-4	2.966194E-3	-3.289500E-3	7.426697E-3	-1.036158E-3	1.653579E-3	-4.640937E-3	-2.355582E-3	-3.048454E-3	-2.911886E-3	-2.177407E-3	-2.526884E-4	-1.313934E-3	-1.671845E-4	-8.456401E-3	2.871160E-3	1.235796E-3	-2.948706E-3	-4.057011E-3	-5.818799E-3	-1.268477E-3	-1.286419E-3	8.027376E-4	4.451043E-3	-1.017714E-4	3.377069E-10	-1.185135E-3	3.410779E-4	-2.723098E-3	1.729105E-3	-4.395746E-3	-2.175320E-3	1.742825E-3	-3.160967E-3	-2.160057E-3	-4.248952E-4	4.660173E-3	-6.224306E-3	5.461726E-4	1.112152E-4	2.300574E-3	-2.431427E-3	-5.253448E-4	-1.756421E-3	-5.350121E-3	8.965218E-4	-2.899750E-3	-7.872558E-3	3.385127E-3	-1.770504E-3	4.378627E-3	6.702157E-3	1.595277E-3	-1.540776E-3	-9.267333E-4	3.356820E-4	2.712287E-3	1.353585E-3	-1.094450E-2	4.151069E-3	1.475371E-3	-5.462157E-3	-3.239254E-3	-2.034144E-3	1.840037E-3	-4.419752E-3	1.215020E-3	-7.495320E-3	3.829383E-3	-4.982958E-3	3.691235E-3	2.704790E-3	-3.669082E-3	-8.390903E-4	-3.634392E-3	3.498685E-3	-1.532321E-3	-3.939224E-3	-5.008166E-3	6.871888E-3	5.847265E-5	-2.197396E-3	-2.413123E-3	-3.985037E-3	1.709959E-3	-2.413069E-3	2.408806E-3	2.023034E-3	1.767477E-3	-1.297392E-3	-3.483175E-3	1.788263E-3	3.319740E-3	-5.689666E-4	-6.597158E-3	1.869368E-3	3.143490E-3	-2.975674E-3	-8.767067E-4	2.142222E-3	-6.340763E-3	-1.570202E-8	-2.350220E-3	-3.601565E-3	-4.504716E-3	-5.479640E-3	-2.118744E-3	3.622190E-3	-7.501036E-3	3.437287E-3	3.447999E-4	-9.041620E-3	-4.186232E-3	1.980606E-3	-2.122797E-3	7.625982E-3	-4.912479E-4	-4.213297E-3	6.094146E-3	-2.935384E-3	-4.165589E-3	7.537259E-4	7.449926E-3	4.849533E-4	5.798850E-5	2.696891E-3	-4.704382E-3	-1.848601E-4	-3.733376E-3	-1.797397E-3	3.994632E-3	1.174877E-3	1.756587E-4	-5.380304E-3
2.825030E+2	1.991235E-3	1.886807E-3	2.190056E-3	1.867990E-3	-8.450394E-4	8.743269E-3	6.765402E-3	-2.196620E-3	6.631599E-3	-3.684161E-3	-1.703859E-4	3.374026E-3	5.875442E-3	7.831729E-3	3.722197E-3	-2.502465E-3	3.891383E-3	2.888011E-3	4.271671E-3	8.569475E-3	2.800357E-3	-4.887852E-3	3.561772E-3	-1.602824E-3	2.629700E-3	4.148174E-3	5.470775E-5	1.706687E-3	-2.606859E-3	-1.093970E-3	8.301914E-4	6.601776E-3	-1.863808E-3	-6.628754E-4	1.931811E-3	-1.904727E-3	2.817490E-3	3.463548E-3	4.943655E-3	3.990552E-3	1.856653E-3	4.662710E-3	7.298604E-3	-5.190520E-3	-4.711172E-4	4.856868E-3	2.510257E-3	4.707662E-4	3.726953E-3	4.598844E-3	8.359684E-4	5.775072E-3	-1.347688E-3	5.785724E-3	3.175567E-3	-2.469450E-3	3.454930E-3	7.973318E-3	2.979035E-3	2.006910E-3	8.092659E-4	-5.597176E-4	-1.993031E-3	4.990139E-4	1.569036E-3	4.779301E-3	1.152731E-3	4.461368E-3	-1.087677E-3	4.510922E-3	-4.632473E-3	6.480169E-3	6.130293E-3	1.900866E-3	1.174374E-4	-2.730733E-3	5.615002E-3	2.300560E-3	-1.034772E-4	1.050648E-3	7.841128E-3	2.488422E-4	-1.120663E-3	8.285004E-3	-6.774075E-3	7.126510E-4	-2.766357E-4	1.183480E-4	3.527384E-4	-1.165777E-3	-1.540750E-3	2.052164E-3	1.846196E-3	4.148205E-3	-6.260382E-3	3.283340E-3	5.249857E-3	1.475402E-3	2.829776E-3	7.085882E-3	7.628140E-3	1.839999E-3	9.369903E-3	-5.246717E-3	-8.103342E-4	1.178479E-4	1.348306E-3	9.227887E-4	5.139099E-3	4.586320E-3	3.408900E-3	-1.998904E-3	-5.422982E-3	8.015182E-3	1.125500E-3	3.756114E-3	-1.808133E-4	3.742105E-3	1.009625E-3	6.062159E-3	-4.614272E-3	3.419975E-3	-6.521785E-3	-5.794140E-3	8.092078E-3	1.767495E-3	1.356348E-3	5.866422E-3	7.978336E-3	3.319792E-3	1.031235E-2	-3.298555E-3	-3.738826E-4	8.690799E-3	-5.076138E-3	6.487406E-3	6.359711E-3	8.386165E-3	-4.054227E-3	6.110530E-3	4.501972E-3	1.813602E-3	-1.611786E-4	1.246289E-3	-4.928598E-3	6.239790E-3	-3.191736E-3	-2.758520E-4	2.729513E-3	5.232837E-3	2.504891E-3	3.407674E-3	8.851638E-4	6.141652E-5	6.019106E-4	6.710368E-3	-2.396540E-4	1.121512E-3	2.207430E-3	9.085557E-4	-3.256214E-3	7.888808E-3	8.629961E-3	4.240611E-3	6.469730E-3	6.957661E-3	1.091303E-3	6.760150E-3	5.404502E-3	-4.567337E-3	-5.380322E-3
2.830060E+2	9.292405E-3	1.069182E-2	8.384884E-3	5.603970E-3	8.515237E-3	3.535876E-3	4.629002E-3	4.942326E-3	2.279602E-3	4.052576E-3	1.414258E-2	3.373985E-3	4.392840E-3	5.913753E-3	4.978406E-3	6.925449E-3	1.179970E-2	6.136986E-3	-1.495092E-3	5.712871E-4	7.525922E-3	8.609312E-3	3.060885E-3	7.350739E-3	8.979444E-3	7.348246E-3	4.977648E-3	7.964513E-3	7.513962E-3	6.407649E-3	8.769033E-3	7.600380E-3	1.211468E-2	8.285848E-3	3.422048E-3	6.390094E-3	1.176702E-2	7.779603E-3	8.404186E-3	7.387954E-3	9.097657E-3	7.253150E-3	5.245905E-3	1.239621E-2	6.124559E-3	1.462230E-2	9.287899E-3	1.688946E-2	1.566587E-2	1.051179E-2	4.347091E-3	6.393828E-3	5.507932E-3	1.438008E-2	8.789446E-3	4.938951E-3	1.763828E-2	4.167857E-3	9.681926E-3	6.221414E-3	1.641680E-2	6.767681E-3	2.491290E-3	1.228823E-2	1.200642E-2	2.778656E-3	2.305472E-3	9.185143E-3	1.631501E-3	1.004705E-2	1.155386E-2	8.640270E-3	4.491497E-3	1.128254E-2	1.174400E-2	5.461487E-3	6.615689E-3	3.745110E-3	1.060527E-2	7.879787E-3	6.147450E-3	6.407687E-3	4.930849E-3	1.263463E-2	1.025266E-2	7.661050E-3	2.711038E-3	2.780994E-3	9.241854E-3	9.878511E-3	2.076674E-3	4.435347E-3	1.342689E-3	1.276362E-2	1.049034E-2	8.755617E-3	3.601640E-3	9.646591E-3	1.467551E-2	1.073003E-2	1.169648E-2	1.477760E-2	4.596589E-3	9.167937E-3	1.438294E-2	1.337324E-2	6.096775E-3	1.476487E-3	8.060381E-3	5.071955E-3	6.712952E-3	8.359114E-3	6.122746E-3	1.013685E-2	6.190220E-3	1.878033E-3	4.159276E-3	1.216178E-2	5.820194E-3	3.943349E-3	1.048703E-2	5.699968E-3	8.152274E-3	8.853980E-3	2.023044E-3	-1.975431E-3	8.786746E-3	8.616239E-3	1.107336E-2	7.265880E-3	3.271496E-3	1.055549E-2	1.420722E-2	1.423814E-2	9.627170E-3	3.331341E-3	6.962189E-3	5.931693E-3	1.100430E-2	1.154950E-2	1.022216E-2	7.605254E-4	1.144274E-2	9.659023E-3	6.294349E-3	1.101921E-2	1.227724E-4	8.413536E-3	8.870989E-3	1.243565E-2	6.174883E-3	7.932587E-3	5.787610E-3	1.995628E-2	1.625135E-2	1.102421E-2	7.847680E-3	1.073444E-2	5.114722E-3	1.017554E-2	1.669668E-2	1.415344E-2	4.854380E-3	7.222261E-3	4.806144E-3	1.255768E-2	1.380153E-2	8.142923E-3	1.492122E-2	1.756587E-4	1.883111E-2
2.835020E+2	1.061993E-2	1.446541E-2	1.176381E-2	5.603982E-3	1.085532E-2	2.031524E-2	1.477708E-2	1.757280E-2	2.279604E-2	1.676310E-2	2.385498E-2	2.444429E-2	1.477096E-2	1.550361E-2	1.586580E-2	1.006807E-2	2.535680E-2	2.617236E-2	1.676633E-2	1.371117E-2	2.170257E-2	3.610361E-3	1.508188E-2	1.133010E-2	1.936993E-2	1.801500E-2	6.454490E-3	1.308450E-2	2.039502E-2	1.484700E-2	1.157094E-2	2.208001E-2	2.441570E-2	2.369749E-2	1.484728E-2	1.413186E-3	2.419701E-2	2.216658E-2	1.186475E-2	1.903603E-2	1.411064E-2	2.279555E-2	1.448322E-2	1.844163E-2	1.460471E-2	1.973753E-2	1.651738E-2	1.900804E-2	9.980668E-3	1.534953E-2	1.187091E-2	1.753160E-2	2.185606E-2	1.488565E-2	2.001724E-2	1.552246E-2	1.054660E-2	1.775880E-2	1.638479E-2	9.231772E-3	6.011752E-3	1.546899E-2	9.466875E-3	2.463881E-2	8.936613E-3	5.779644E-3	2.305511E-3	1.272798E-2	1.685885E-2	6.356281E-3	1.155389E-2	2.052059E-2	1.814805E-2	2.618280E-2	2.231358E-2	1.419992E-2	1.562189E-2	7.115702E-3	1.060529E-2	1.050642E-2	2.139056E-2	1.256659E-2	1.400809E-2	1.822702E-2	1.409739E-2	2.529931E-2	1.018027E-2	1.449671E-2	4.797327E-3	1.595285E-2	1.172310E-2	2.409638E-2	1.292340E-2	1.515684E-2	1.556631E-2	1.696400E-2	2.283076E-2	9.646570E-3	1.408324E-2	7.693260E-3	1.169648E-2	2.409263E-2	1.361287E-2	1.115614E-2	2.046025E-2	1.920558E-2	1.137284E-2	5.352305E-3	1.731079E-2	1.284185E-2	1.284904E-2	2.416863E-2	2.186690E-2	1.703227E-2	1.857062E-2	1.565043E-2	1.446709E-2	3.110602E-2	1.169972E-2	1.506718E-2	2.055461E-2	1.025993E-2	1.402187E-2	1.471313E-2	1.802334E-2	1.533550E-2	1.250190E-2	1.906578E-2	1.726346E-2	1.290324E-2	1.351278E-2	1.055546E-2	2.486260E-2	1.590232E-2	2.117981E-2	1.279936E-2	2.624216E-2	2.188590E-2	1.853354E-2	1.034084E-2	1.927903E-2	2.076850E-2	1.869517E-2	1.863254E-2	1.377625E-2	9.226925E-3	1.559048E-2	1.586187E-3	2.217747E-2	1.631416E-2	1.770903E-2	1.999914E-2	1.069002E-2	2.714056E-2	1.926084E-2	1.595437E-2	8.925993E-3	1.265701E-2	2.255863E-2	2.053276E-2	1.919080E-2	3.242533E-2	1.779937E-2	2.213067E-2	1.367888E-2	1.917593E-2	7.446364E-3	3.994674E-3	1.703592E-2	1.756663E-2	9.751825E-3
2.840000E+2	4.314350E-2	3.899374E-2	2.359025E-2	3.175590E-2	3.893603E-2	2.378685E-2	3.453918E-2	2.086770E-2	3.958223E-2	2.505250E-2	2.385494E-2	3.250058E-2	3.602139E-2	2.317550E-2	2.842812E-2	3.154278E-2	2.535678E-2	2.617234E-2	2.878043E-2	3.313526E-2	3.692943E-2	3.210438E-2	3.461589E-2	3.172426E-2	3.264665E-2	3.454852E-2	2.466932E-2	2.901356E-2	2.867571E-2	2.750598E-2	2.651457E-2	3.406304E-2	3.615762E-2	3.910910E-2	1.186674E-2	2.906260E-2	2.916903E-2	3.319658E-2	3.707731E-2	3.553751E-2	3.026365E-2	3.056678E-2	2.628636E-2	2.833417E-2	2.638273E-2	2.764289E-2	2.239131E-2	2.006731E-2	3.272143E-2	2.233742E-2	2.390903E-2	2.557545E-2	3.767677E-2	5.077969E-2	3.226573E-2	3.510199E-2	2.636649E-2	4.276602E-2	3.649337E-2	3.331459E-2	3.722673E-2	2.050662E-2	2.790236E-2	3.418251E-2	2.981142E-2	2.228498E-2	3.342943E-2	3.634694E-2	3.861212E-2	3.034620E-2	2.872120E-2	2.484072E-2	3.453591E-2	3.997939E-2	3.024078E-2	2.020750E-2	3.263356E-2	2.926541E-2	2.829801E-2	2.574069E-2	4.058567E-2	2.376446E-2	3.317121E-2	3.376142E-2	2.727941E-2	3.866161E-2	2.213102E-2	1.928951E-2	3.654428E-2	4.356362E-2	4.307400E-2	2.290482E-2	2.802861E-2	2.903732E-2	3.231705E-2	3.556968E-2	3.436827E-2	2.701044E-2	4.488202E-2	3.077297E-2	4.017497E-2	3.651272E-2	2.740260E-2	2.407959E-2	2.592975E-2	3.564233E-2	1.770413E-2	3.359046E-2	2.753496E-2	2.935275E-2	3.220124E-2	4.215886E-2	2.763972E-2	4.514430E-2	2.870006E-2	3.568297E-2	3.345510E-2	4.794535E-2	2.078633E-2	2.407212E-2	5.138640E-2	4.160971E-2	3.750030E-2	2.525976E-2	3.457531E-2	3.545363E-2	3.107782E-2	3.721493E-2	3.645271E-2	3.996246E-2	2.631430E-2	3.298584E-2	4.336932E-2	3.587278E-2	2.748118E-2	3.489147E-2	2.443462E-2	3.722642E-2	2.722113E-2	2.665785E-2	2.499922E-2	3.077248E-2	3.126613E-2	4.330973E-2	3.889411E-2	3.730602E-2	1.503808E-2	4.255055E-2	3.087789E-2	4.124700E-2	3.396171E-2	2.351852E-2	4.990944E-2	3.543004E-2	3.912362E-2	3.875595E-2	3.750115E-2	2.947964E-2	2.110500E-2	3.416070E-2	3.602603E-2	3.399153E-2	2.858681E-2	3.763534E-2	3.142449E-2	3.953976E-2	3.286685E-2	1.298265E-2	3.606925E-2	5.392961E-2	1.883115E-2
2.841010E+2	4.115229E-2	3.333330E-2	2.246388E-2	3.424660E-2	3.835104E-2	4.172349E-2	3.186865E-2	3.624381E-2	4.393419E-2	2.947354E-2	3.254498E-2	3.807803E-2	3.602137E-2	3.036793E-2	3.052189E-2	3.782809E-2	4.908175E-2	2.779683E-2	3.358607E-2	3.370661E-2	3.430408E-2	3.610349E-2	2.660195E-2	3.371393E-2	3.957362E-2	3.614856E-2	3.796125E-2	3.697800E-2	3.327609E-2	3.594534E-2	2.978350E-2	1.908418E-2	3.448021E-2	2.518895E-2	3.223347E-2	3.459251E-2	3.612980E-2	3.703311E-2	2.620126E-2	3.796424E-2	3.471964E-2	3.471146E-2	3.295774E-2	3.382997E-2	2.779606E-2	2.903793E-2	2.510242E-2	3.383786E-2	3.556397E-2	3.416311E-2	2.591539E-2	4.537578E-2	3.082117E-2	4.774640E-2	3.838998E-2	2.610598E-2	4.000434E-2	3.950419E-2	2.979056E-2	2.849805E-2	4.086848E-2	2.783407E-2	2.291980E-2	5.046285E-2	3.656509E-2	2.428561E-2	2.997119E-2	4.166119E-2	3.915598E-2	3.495967E-2	3.755014E-2	3.240090E-2	3.016581E-2	3.722008E-2	3.499705E-2	2.457672E-2	4.063910E-2	2.637632E-2	2.922917E-2	3.204454E-2	4.002107E-2	3.440252E-2	2.510254E-2	3.500412E-2	3.661661E-2	3.117872E-2	1.964128E-2	3.579796E-2	3.209965E-2	2.865382E-2	4.066240E-2	2.767114E-2	3.256018E-2	3.238780E-2	4.043858E-2	2.900299E-2	2.997306E-2	3.109606E-2	2.474431E-2	3.623920E-2	3.915784E-2	4.220526E-2	3.270633E-2	2.407964E-2	3.383030E-2	3.193080E-2	3.669790E-2	3.469785E-2	1.925824E-2	2.935274E-2	2.228910E-2	3.016536E-2	2.868938E-2	2.976224E-2	2.250987E-2	2.817076E-2	3.182755E-2	4.215684E-2	1.169972E-2	3.678507E-2	3.691430E-2	3.419971E-2	4.219600E-2	3.580635E-2	3.236840E-2	3.264639E-2	2.258602E-2	3.776490E-2	3.273865E-2	4.165359E-2	3.463535E-2	4.222197E-2	3.607881E-2	3.642752E-2	1.855416E-2	3.278742E-2	2.804966E-2	4.090815E-2	3.301287E-2	3.934897E-2	2.595259E-2	3.340512E-2	3.029913E-2	3.657958E-2	3.087779E-2	4.268286E-2	3.161059E-2	3.510252E-2	4.316080E-2	4.013886E-2	2.924315E-2	3.005448E-2	2.784851E-2	3.874591E-2	2.407608E-2	2.704702E-2	3.264882E-2	4.245708E-2	2.788872E-2	3.688628E-2	3.228489E-2	3.764586E-2	2.049623E-2	4.121337E-2	3.197902E-2	4.513983E-2	2.073437E-2	4.063788E-2	1.915083E-2	5.709160E-2	2.791034E-2
2.842030E+2	5.376345E-2	3.962260E-2	3.597976E-2	3.798257E-2	4.244618E-2	4.345930E-2	4.682383E-2	4.008786E-2	4.766445E-2	4.936816E-2	3.714557E-2	4.799346E-2	4.491689E-2	3.899878E-2	4.015296E-2	3.259033E-2	4.795204E-2	3.646077E-2	5.665315E-2	3.142142E-2	4.428033E-2	4.460172E-2	4.613598E-2	3.719585E-2	4.419163E-2	5.054873E-2	4.288414E-2	4.380474E-2	4.339694E-2	4.157161E-2	4.986407E-2	4.854264E-2	4.007156E-2	5.203502E-2	4.018148E-2	5.505305E-2	5.750934E-2	5.333829E-2	4.202097E-2	4.281758E-2	5.699968E-2	5.439854E-2	4.116865E-2	4.262337E-2	4.475643E-2	3.973339E-2	4.498354E-2	4.337131E-2	4.807143E-2	5.458933E-2	4.046149E-2	5.032587E-2	6.035325E-2	4.622974E-2	4.451430E-2	5.203555E-2	5.146015E-2	5.092059E-2	3.527472E-2	4.234564E-2	5.595571E-2	4.065703E-2	4.285005E-2	5.888373E-2	4.331865E-2	4.629268E-2	4.207497E-2	4.402312E-2	5.112028E-2	5.572012E-2	4.588857E-2	3.564100E-2	4.382236E-2	4.991291E-2	4.133882E-2	3.877663E-2	5.114630E-2	3.745116E-2	4.180029E-2	4.465222E-2	5.639336E-2	4.672028E-2	3.670126E-2	4.743161E-2	4.760164E-2	5.576540E-2	3.457969E-2	4.325341E-2	4.543335E-2	5.184684E-2	3.825077E-2	4.197011E-2	3.860229E-2	4.100325E-2	3.942333E-2	5.253363E-2	4.096108E-2	3.977798E-2	5.258168E-2	4.231285E-2	4.068347E-2	5.876535E-2	4.278343E-2	3.899130E-2	5.266998E-2	4.518618E-2	3.511505E-2	3.857365E-2	3.727224E-2	4.440680E-2	3.739328E-2	4.761039E-2	4.968164E-2	3.665768E-2	3.939223E-2	4.256914E-2	4.430538E-2	5.531260E-2	3.575251E-2	3.678505E-2	4.572343E-2	5.015956E-2	4.336991E-2	3.756412E-2	4.064443E-2	4.621444E-2	4.222345E-2	4.381458E-2	5.130889E-2	5.461950E-2	4.743680E-2	5.013851E-2	4.897742E-2	4.031058E-2	4.375981E-2	4.015149E-2	4.612461E-2	6.361215E-2	4.112123E-2	4.901830E-2	3.643948E-2	4.393560E-2	4.238654E-2	4.443148E-2	3.996292E-2	4.865717E-2	4.652593E-2	4.192988E-2	6.158515E-2	6.728801E-2	4.864156E-2	5.318195E-2	5.052223E-2	5.366701E-2	3.611413E-2	3.629093E-2	4.666682E-2	4.149577E-2	5.599287E-2	3.906675E-2	5.972008E-2	4.704288E-2	4.099250E-2	5.433269E-2	5.083371E-2	5.939456E-2	4.268842E-2	3.234132E-2	4.029892E-2	8.080670E-2	7.633337E-2
2.843040E+2	6.438336E-2	5.911948E-2	6.470100E-2	6.537981E-2	8.573737E-2	6.428879E-2	7.406348E-2	5.930806E-2	6.942430E-2	6.097338E-2	6.832738E-2	6.286664E-2	5.578925E-2	6.728893E-2	4.727164E-2	6.506430E-2	7.732572E-2	5.920367E-2	6.818667E-2	5.484457E-2	7.578407E-2	6.259791E-2	8.219894E-2	6.853331E-2	7.478578E-2	5.854883E-2	6.503733E-2	4.892477E-2	6.363858E-2	6.220106E-2	6.340674E-2	6.102502E-2	5.964140E-2	6.247515E-2	7.097987E-2	5.560606E-2	7.739727E-2	5.957265E-2	6.822225E-2	7.096719E-2	5.978461E-2	7.874830E-2	7.247285E-2	6.185881E-2	5.936117E-2	6.623956E-2	6.260539E-2	7.673836E-2	6.796961E-2	7.340294E-2	6.353453E-2	5.341969E-2	6.931826E-2	8.819024E-2	7.258375E-2	5.573979E-2	6.237047E-2	5.526963E-2	6.878899E-2	5.739747E-2	6.323918E-2	5.531191E-2	5.082208E-2	6.169066E-2	5.989573E-2	6.129751E-2	5.475508E-2	6.528016E-2	7.722419E-2	7.186718E-2	6.550838E-2	5.454152E-2	6.512657E-2	6.646877E-2	6.353489E-2	4.806115E-2	6.365491E-2	5.815630E-2	5.856183E-2	6.671571E-2	6.655547E-2	6.127751E-2	5.788155E-2	6.048052E-2	6.407909E-2	7.393812E-2	4.603243E-2	7.041258E-2	7.083097E-2	6.896549E-2	5.211754E-2	5.567320E-2	5.622502E-2	5.249051E-2	6.125004E-2	5.581698E-2	6.513484E-2	5.663115E-2	7.686536E-2	7.389565E-2	8.289259E-2	7.843047E-2	6.505906E-2	5.638830E-2	7.333273E-2	7.858984E-2	5.041562E-2	6.736552E-2	4.993078E-2	6.480265E-2	5.296946E-2	6.832638E-2	6.070253E-2	5.469180E-2	6.133932E-2	6.072363E-2	7.034611E-2	6.583721E-2	5.766721E-2	5.320587E-2	6.963380E-2	6.155948E-2	6.450054E-2	6.275875E-2	6.161029E-2	5.978248E-2	5.336902E-2	8.726259E-2	6.554607E-2	5.236454E-2	6.087852E-2	7.388835E-2	8.038285E-2	7.858732E-2	7.001578E-2	6.487358E-2	6.901954E-2	6.483947E-2	6.081316E-2	7.258736E-2	6.694704E-2	8.026585E-2	5.544096E-2	8.144727E-2	6.775290E-2	5.941077E-2	6.696538E-2	6.799816E-2	5.595554E-2	8.612627E-2	5.283578E-2	5.368472E-2	7.258317E-2	7.135139E-2	6.319970E-2	4.245355E-2	5.637156E-2	5.831839E-2	6.277660E-2	6.850314E-2	6.096718E-2	6.635883E-2	5.177995E-2	7.281908E-2	7.578839E-2	6.703095E-2	6.290925E-2	5.723110E-2	7.519322E-2	7.606360E-2	4.606887E-2
2.844010E+2	8.164071E-2	9.748433E-2	8.046959E-2	6.662508E-2	9.392751E-2	8.743279E-2	1.018373E-1	7.248766E-2	8.310192E-2	7.699962E-2	8.724097E-2	7.712010E-2	7.110930E-2	7.687879E-2	6.904639E-2	8.758654E-2	1.016154E-1	7.165808E-2	8.308418E-2	7.426872E-2	1.078129E-1	8.509319E-2	8.770845E-2	7.748679E-2	7.478576E-2	8.148243E-2	8.029828E-2	8.817836E-2	7.467950E-2	7.157814E-2	6.854363E-2	9.297987E-2	7.809297E-2	8.186400E-2	8.339864E-2	8.546743E-2	1.002683E-1	9.601970E-2	1.156813E-1	8.843940E-2	9.041965E-2	8.341106E-2	8.427610E-2	7.724720E-2	7.208137E-2	8.298028E-2	7.751613E-2	9.103851E-2	8.445668E-2	8.522851E-2	8.811233E-2	9.858925E-2	8.830316E-2	9.526813E-2	1.037153E-1	7.955266E-2	8.910063E-2	1.036532E-1	1.071782E-1	8.148026E-2	7.520492E-2	8.278975E-2	9.865457E-2	1.026721E-1	7.647283E-2	7.730269E-2	8.184437E-2	9.480387E-2	1.022406E-1	1.009317E-1	9.542865E-2	6.912198E-2	6.785796E-2	9.461388E-2	9.260127E-2	7.099949E-2	8.567001E-2	7.356474E-2	6.414896E-2	9.560823E-2	8.518596E-2	9.543126E-2	7.149751E-2	9.465613E-2	8.220432E-2	9.745589E-2	7.889701E-2	7.201012E-2	9.749837E-2	8.332313E-2	8.467423E-2	6.520589E-2	8.542858E-2	7.833693E-2	7.698559E-2	8.263104E-2	8.106754E-2	7.450574E-2	8.041909E-2	6.599989E-2	8.746936E-2	1.006832E-1	8.150064E-2	8.372628E-2	1.025037E-1	1.045704E-1	6.835420E-2	7.511717E-2	6.697107E-2	8.034230E-2	6.901764E-2	8.577139E-2	6.962421E-2	9.129054E-2	7.484520E-2	9.077248E-2	8.445151E-2	9.109617E-2	7.584037E-2	8.710700E-2	9.165654E-2	7.637937E-2	6.919621E-2	8.150821E-2	8.864529E-2	7.990059E-2	8.680571E-2	9.661223E-2	8.783036E-2	7.998747E-2	7.944071E-2	1.081937E-1	7.533554E-2	7.636830E-2	7.106600E-2	8.696554E-2	8.046704E-2	9.674781E-2	5.096724E-2	7.500471E-2	6.313358E-2	6.815576E-2	7.429732E-2	9.546824E-2	8.966424E-2	9.884099E-2	8.630003E-2	8.165288E-2	9.280426E-2	8.723434E-2	8.638981E-2	7.781776E-2	9.280575E-2	7.632512E-2	8.847959E-2	7.203405E-2	8.494681E-2	7.369896E-2	6.083839E-2	9.030790E-2	8.840237E-2	8.932925E-2	5.987057E-2	9.726876E-2	9.852494E-2	1.052132E-1	6.233152E-2	7.520706E-2	6.990622E-2	1.092646E-1	7.028036E-2
2.845030E+2	1.181468E-1	1.150943E-1	8.497486E-2	1.151930E-1	1.132331E-1	1.319850E-1	1.248042E-1	9.555193E-2	1.185393E-1	1.189994E-1	1.010427E-1	1.198802E-1	1.220114E-1	9.605854E-2	9.752097E-2	1.059185E-1	1.050050E-1	1.073967E-1	1.099957E-1	9.255011E-2	1.177891E-1	1.155868E-1	1.302829E-1	1.073319E-1	1.296243E-1	1.092161E-1	1.029438E-1	1.166229E-1	1.105625E-1	1.058044E-1	9.376111E-2	1.094567E-1	1.071682E-1	1.102017E-1	1.176745E-1	1.197529E-1	1.256258E-1	1.247936E-1	1.324894E-1	1.049407E-1	1.271816E-1	1.165681E-1	1.053166E-1	9.758173E-2	1.036463E-1	9.972094E-2	9.784938E-2	1.042793E-1	1.231158E-1	1.035047E-1	1.187090E-1	1.190083E-1	1.241636E-1	1.250953E-1	1.246400E-1	1.150074E-1	1.114664E-1	1.346404E-1	1.199747E-1	1.206148E-1	1.032984E-1	1.029402E-1	1.170902E-1	1.284961E-1	1.083989E-1	1.133142E-1	9.567713E-2	1.178322E-1	1.109419E-1	1.138495E-1	1.091624E-1	9.774261E-2	1.153826E-1	1.111699E-1	1.396360E-1	8.356090E-2	1.071850E-1	9.619599E-2	9.906885E-2	1.076907E-1	1.230116E-1	9.823072E-2	1.244480E-1	1.101906E-1	1.091176E-1	1.161630E-1	1.217205E-1	1.220681E-1	1.203561E-1	1.032029E-1	1.208484E-1	1.003575E-1	8.794602E-2	9.604644E-2	1.008425E-1	1.149174E-1	9.590146E-2	9.595534E-2	1.041105E-1	1.018343E-1	1.200162E-1	1.177607E-1	1.165053E-1	9.317057E-2	1.055424E-1	1.119935E-1	1.121456E-1	9.947947E-2	9.228795E-2	8.471285E-2	1.034739E-1	1.250227E-1	7.749628E-2	1.135682E-1	7.822172E-2	1.201953E-1	1.132049E-1	1.205652E-1	9.080651E-2	1.024682E-1	1.130500E-1	1.191289E-1	8.621815E-2	1.260382E-1	1.018868E-1	1.056330E-1	8.999020E-2	1.235608E-1	1.336370E-1	1.109929E-1	1.172053E-1	1.134714E-1	1.157140E-1	1.157544E-1	1.009977E-1	1.201037E-1	1.111945E-1	1.163837E-1	1.106220E-1	1.136823E-1	1.012678E-1	9.922071E-2	8.928579E-2	1.308015E-1	1.062312E-1	1.089972E-1	1.023201E-1	1.269620E-1	1.189053E-1	1.343297E-1	1.105067E-1	9.591734E-2	1.197692E-1	1.122464E-1	8.968340E-2	1.046959E-1	1.000431E-1	1.015766E-1	1.078400E-1	1.251954E-1	1.052376E-1	1.044688E-1	1.003235E-1	1.074067E-1	1.173795E-1	1.271043E-1	8.890747E-2	9.594852E-2	1.164321E-1	1.250747E-1	9.751838E-2
2.846040E+2	1.526614E-1	1.628931E-1	1.289015E-1	1.587795E-1	1.530142E-1	1.748011E-1	1.483052E-1	1.625480E-1	1.490032E-1	1.394465E-1	1.644290E-1	1.266974E-1	1.388142E-1	1.516797E-1	1.293457E-1	1.399637E-1	1.388976E-1	1.258076E-1	1.460380E-1	1.445382E-1	1.597942E-1	1.390817E-1	1.858798E-1	1.496124E-1	1.838858E-1	1.822837E-1	1.846643E-1	1.558768E-1	1.579461E-1	1.292471E-1	1.479317E-1	1.658772E-1	1.457486E-1	1.499736E-1	1.628785E-1	1.595682E-1	1.748484E-1	1.804232E-1	1.670949E-1	1.534747E-1	1.800966E-1	1.771838E-1	1.586878E-1	1.377014E-1	1.512293E-1	1.485483E-1	1.403225E-1	1.683652E-1	1.691661E-1	1.567204E-1	1.267348E-1	1.487085E-1	1.721530E-1	1.690785E-1	1.669990E-1	1.515206E-1	1.802013E-1	1.509491E-1	1.729882E-1	1.477080E-1	1.490802E-1	1.382033E-1	1.639263E-1	1.661095E-1	1.538325E-1	1.493258E-1	1.734867E-1	1.792418E-1	1.555362E-1	1.544479E-1	1.709650E-1	1.269036E-1	1.727405E-1	1.514555E-1	1.755728E-1	1.245222E-1	1.377060E-1	1.308651E-1	1.516811E-1	1.507671E-1	1.326088E-1	1.323842E-1	1.612616E-1	1.617644E-1	1.651410E-1	1.648020E-1	1.934251E-1	1.364464E-1	1.686113E-1	1.562153E-1	1.702862E-1	1.194226E-1	1.523952E-1	1.463034E-1	1.353590E-1	1.565065E-1	1.420513E-1	1.373220E-1	1.432012E-1	1.461717E-1	1.581573E-1	1.762388E-1	1.896964E-1	1.359175E-1	1.523376E-1	1.597131E-1	1.522435E-1	1.299326E-1	1.473036E-1	1.187060E-1	1.256580E-1	1.566417E-1	1.305019E-1	1.390278E-1	1.395611E-1	1.414798E-1	1.625735E-1	1.526650E-1	1.576194E-1	1.278942E-1	1.778599E-1	1.664385E-1	1.619363E-1	1.553342E-1	1.333358E-1	1.262190E-1	1.260807E-1	1.631590E-1	1.348748E-1	1.549639E-1	1.300067E-1	1.471168E-1	1.577750E-1	1.623522E-1	1.372307E-1	1.374618E-1	1.527667E-1	1.648599E-1	1.384223E-1	1.577987E-1	1.217653E-1	1.402895E-1	1.521401E-1	1.594045E-1	1.361588E-1	1.526093E-1	1.354653E-1	1.642025E-1	1.475657E-1	1.731141E-1	1.299050E-1	1.316140E-1	1.516349E-1	1.570100E-1	1.414472E-1	1.447528E-1	1.453320E-1	1.472378E-1	1.306142E-1	1.628084E-1	1.357905E-1	1.472774E-1	1.105717E-1	1.622694E-1	1.783800E-1	1.489952E-1	1.154834E-1	1.166900E-1	1.354654E-1	1.345607E-1	1.308092E-1
2.847020E+2	3.258991E-1	3.106916E-1	2.764499E-1	3.107096E-1	3.349540E-1	3.593748E-1	3.181526E-1	2.767710E-1	3.149997E-1	2.847879E-1	3.280055E-1	2.630342E-1	3.182073E-1	2.969664E-1	2.763248E-1	2.819068E-1	3.326508E-1	2.996286E-1	2.988575E-1	2.816501E-1	3.377903E-1	3.335404E-1	3.872313E-1	3.162477E-1	3.432068E-1	3.497523E-1	3.367830E-1	3.208558E-1	3.442619E-1	2.952208E-1	3.286567E-1	3.466221E-1	3.559846E-1	3.473420E-1	3.536300E-1	3.558787E-1	3.747226E-1	3.794425E-1	3.816493E-1	3.388735E-1	3.600074E-1	3.383070E-1	3.244461E-1	2.827919E-1	3.392063E-1	2.917743E-1	2.907863E-1	3.622118E-1	3.482496E-1	3.330303E-1	3.293760E-1	3.658934E-1	3.583106E-1	3.819147E-1	3.884931E-1	3.266776E-1	3.602214E-1	3.510077E-1	3.411691E-1	3.373603E-1	3.009933E-1	3.319221E-1	3.278525E-1	3.429477E-1	3.355661E-1	3.273831E-1	3.319887E-1	3.587457E-1	3.464218E-1	3.306816E-1	3.544102E-1	3.137485E-1	3.355266E-1	3.407447E-1	3.346446E-1	2.741672E-1	2.998173E-1	2.830239E-1	2.806519E-1	3.320029E-1	3.239953E-1	3.177103E-1	3.624742E-1	3.376143E-1	3.513363E-1	3.582885E-1	3.477884E-1	3.281580E-1	3.425847E-1	3.483863E-1	3.571860E-1	3.142459E-1	3.089860E-1	2.985097E-1	3.125108E-1	3.677353E-1	3.112674E-1	2.956396E-1	3.522773E-1	3.235207E-1	3.453009E-1	3.496020E-1	3.636589E-1	3.044197E-1	3.516729E-1	3.309728E-1	3.242428E-1	3.226162E-1	2.889818E-1	2.993549E-1	2.866121E-1	3.425409E-1	2.648519E-1	3.124742E-1	3.027575E-1	3.292849E-1	2.954899E-1	3.315833E-1	3.612662E-1	2.952810E-1	3.250974E-1	2.929776E-1	3.644379E-1	3.053307E-1	3.065807E-1	2.965212E-1	3.166167E-1	3.314512E-1	3.348143E-1	3.223930E-1	3.751566E-1	3.509698E-1	3.591059E-1	3.470785E-1	3.751095E-1	2.889500E-1	3.395414E-1	3.526284E-1	3.515581E-1	2.992131E-1	2.576188E-1	3.024593E-1	3.310339E-1	3.629918E-1	2.927448E-1	3.360197E-1	2.674932E-1	3.280596E-1	3.348797E-1	3.698074E-1	2.772275E-1	2.995394E-1	3.170916E-1	3.520902E-1	2.997478E-1	2.932716E-1	3.033045E-1	3.125801E-1	2.885789E-1	3.372460E-1	2.997780E-1	3.059815E-1	2.481122E-1	3.274535E-1	3.430809E-1	3.154698E-1	2.685840E-1	2.888437E-1	3.342571E-1	3.780347E-1	2.639720E-1
2.848020E+2	7.745923E-1	7.194970E-1	6.334943E-1	7.496888E-1	8.129120E-1	8.112612E-1	7.951145E-1	7.193847E-1	7.197329E-1	6.401281E-1	6.909419E-1	6.478776E-1	6.740284E-1	6.685740E-1	6.548704E-1	7.004017E-1	7.320216E-1	6.721782E-1	6.934005E-1	6.444238E-1	7.951205E-1	7.474532E-1	7.443541E-1	6.738919E-1	7.628662E-1	7.172229E-1	7.232329E-1	6.502449E-1	6.432863E-1	6.337324E-1	6.718934E-1	7.650312E-1	6.741339E-1	7.072781E-1	7.063221E-1	7.435241E-1	7.824256E-1	7.889916E-1	7.746688E-1	6.888018E-1	7.382102E-1	7.501814E-1	6.929115E-1	6.504642E-1	6.817111E-1	7.112227E-1	6.450313E-1	7.409021E-1	7.030054E-1	7.517679E-1	6.905200E-1	7.557127E-1	7.896897E-1	7.843325E-1	7.896318E-1	6.425952E-1	7.579010E-1	7.255723E-1	7.920892E-1	6.805407E-1	6.828563E-1	6.474600E-1	7.040358E-1	7.667979E-1	6.646517E-1	7.115072E-1	7.412102E-1	7.856586E-1	8.385899E-1	7.528115E-1	8.095891E-1	7.225402E-1	6.905973E-1	6.978001E-1	7.373459E-1	6.078646E-1	7.000934E-1	6.287515E-1	6.708224E-1	7.338726E-1	6.937824E-1	6.777236E-1	7.336333E-1	7.247305E-1	7.259243E-1	7.548819E-1	7.994270E-1	6.332988E-1	7.648190E-1	7.244449E-1	7.671593E-1	5.871175E-1	6.861137E-1	5.904782E-1	7.094517E-1	7.245264E-1	7.244194E-1	6.480244E-1	7.609546E-1	7.371340E-1	7.948534E-1	7.827524E-1	8.165977E-1	6.618029E-1	7.229964E-1	6.639490E-1	7.215297E-1	7.257022E-1	6.531569E-1	6.616232E-1	6.349517E-1	7.563147E-1	5.718632E-1	6.614881E-1	6.792345E-1	7.850252E-1	7.430649E-1	7.725634E-1	7.824567E-1	6.570693E-1	7.699565E-1	7.199040E-1	7.412671E-1	7.266087E-1	7.236916E-1	6.745544E-1	6.727448E-1	8.005795E-1	7.198370E-1	6.876921E-1	7.579223E-1	7.369046E-1	7.791528E-1	7.720045E-1	8.151585E-1	6.555738E-1	7.251403E-1	7.613011E-1	7.708797E-1	6.726922E-1	6.384860E-1	6.778718E-1	6.868880E-1	8.088638E-1	6.668408E-1	7.010479E-1	7.326296E-1	7.519791E-1	7.535230E-1	7.764906E-1	7.632351E-1	6.655568E-1	7.423772E-1	7.273295E-1	7.391358E-1	6.396105E-1	6.445893E-1	6.745064E-1	6.321270E-1	7.684343E-1	6.851184E-1	7.058744E-1	6.515640E-1	7.186494E-1	7.739658E-1	7.741652E-1	6.741562E-1	6.704875E-1	7.720239E-1	7.211108E-1	6.876728E-1
2.848990E+2	9.823447E-1	1.030818E+0	8.294745E-1	1.001868E+0	1.023518E+0	1.012035E+0	9.959406E-1	8.495336E-1	1.027479E+0	9.258370E-1	9.219940E-1	8.746932E-1	9.107487E-1	9.169518E-1	8.529367E-1	9.251002E-1	9.867822E-1	9.283061E-1	8.764952E-1	8.672301E-1	1.037175E+0	1.022396E+0	9.577262E-1	8.604239E-1	9.498943E-1	9.241591E-1	8.586135E-1	8.510633E-1	8.213208E-1	8.128341E-1	8.857746E-1	9.722391E-1	8.687145E-1	8.966929E-1	9.204210E-1	8.889600E-1	9.673834E-1	9.827353E-1	9.996047E-1	8.523606E-1	9.298177E-1	9.786549E-1	9.197382E-1	8.268809E-1	8.866482E-1	9.404776E-1	8.388724E-1	1.000953E+0	9.463317E-1	9.829061E-1	9.383044E-1	9.580478E-1	1.014344E+0	1.040646E+0	1.030519E+0	9.045370E-1	9.537408E-1	1.029465E+0	9.809881E-1	8.792243E-1	9.096846E-1	8.489638E-1	8.933730E-1	9.941611E-1	9.575131E-1	8.650562E-1	9.682993E-1	9.746100E-1	1.027300E+0	1.018546E+0	1.054347E+0	8.499836E-1	9.293139E-1	9.500011E-1	9.936586E-1	7.886400E-1	8.456939E-1	8.329147E-1	8.430934E-1	9.345453E-1	8.930723E-1	8.893646E-1	9.005536E-1	9.210854E-1	9.610036E-1	9.836448E-1	9.916344E-1	8.617551E-1	1.064510E+0	9.315252E-1	1.069816E+0	9.195687E-1	8.839924E-1	8.441558E-1	9.338095E-1	9.773448E-1	9.161610E-1	8.553691E-1	9.812839E-1	9.861524E-1	9.550445E-1	1.019769E+0	1.096634E+0	8.631108E-1	1.012884E+0	8.898214E-1	9.056641E-1	8.873797E-1	8.547194E-1	8.451859E-1	8.539618E-1	9.841906E-1	7.828355E-1	8.789592E-1	8.975802E-1	9.671968E-1	9.492204E-1	9.967368E-1	1.016570E+0	8.684214E-1	1.016611E+0	9.570224E-1	1.025944E+0	9.492588E-1	9.383162E-1	9.257967E-1	9.338691E-1	1.060167E+0	9.742498E-1	8.720327E-1	9.422651E-1	1.010028E+0	1.020862E+0	1.012204E+0	1.068790E+0	9.148928E-1	9.070950E-1	1.003068E+0	1.028032E+0	9.246996E-1	8.730127E-1	8.879555E-1	8.740009E-1	1.029837E+0	8.939703E-1	9.352386E-1	9.635406E-1	9.580421E-1	9.899688E-1	1.068482E+0	9.944425E-1	8.571125E-1	9.783065E-1	9.865160E-1	9.877217E-1	8.959752E-1	8.888261E-1	8.552298E-1	8.211030E-1	1.014282E+0	9.127059E-1	9.428879E-1	9.374326E-1	9.482383E-1	1.022958E+0	9.121299E-1	9.948002E-1	8.785928E-1	9.316921E-1	9.266410E-1	1.084134E+0
2.850010E+2	1.018850E+0	1.041509E+0	8.711488E-1	9.937736E-1	1.094305E+0	1.031128E+0	1.069114E+0	9.330035E-1	9.771208E-1	9.645214E-1	9.352849E-1	9.403830E-1	9.117367E-1	8.857844E-1	8.248809E-1	9.460511E-1	1.021804E+0	9.098953E-1	8.688062E-1	8.980805E-1	1.084955E+0	1.013397E+0	1.016830E+0	8.678853E-1	9.585536E-1	9.060254E-1	8.930738E-1	8.698372E-1	8.512235E-1	8.137716E-1	9.049208E-1	9.337936E-1	8.782197E-1	9.290073E-1	8.568373E-1	9.110794E-1	9.962213E-1	9.952048E-1	1.052007E+0	8.936146E-1	9.515412E-1	9.454980E-1	8.981848E-1	8.455669E-1	8.965421E-1	9.153667E-1	8.415834E-1	1.011545E+0	9.315506E-1	9.646305E-1	8.791174E-1	1.013737E+0	1.022254E+0	1.016886E+0	1.077983E+0	9.246453E-1	9.264651E-1	9.908668E-1	1.032783E+0	9.322064E-1	8.810711E-1	8.640764E-1	9.038361E-1	1.028968E+0	9.501463E-1	8.810611E-1	9.440924E-1	9.846479E-1	1.019686E+0	1.006089E+0	1.038651E+0	8.462037E-1	9.675519E-1	9.207520E-1	9.830888E-1	7.935558E-1	8.897239E-1	8.045051E-1	8.789447E-1	9.818238E-1	8.603273E-1	8.759270E-1	9.474525E-1	9.297843E-1	1.026913E+0	1.018921E+0	1.019021E+0	8.532341E-1	1.024509E+0	9.618975E-1	1.089109E+0	9.326758E-1	8.996008E-1	8.489422E-1	9.571588E-1	1.051768E+0	9.194572E-1	8.885646E-1	9.990523E-1	9.521400E-1	1.021664E+0	9.980335E-1	1.073828E+0	8.660934E-1	9.916134E-1	9.168624E-1	9.209651E-1	9.023287E-1	8.561798E-1	8.942329E-1	8.223376E-1	9.809194E-1	7.398015E-1	9.054797E-1	9.251550E-1	9.866031E-1	9.698361E-1	1.007261E+0	1.030467E+0	8.763672E-1	9.895547E-1	1.057912E+0	1.004812E+0	9.041424E-1	9.421777E-1	8.738636E-1	9.036171E-1	1.021119E+0	9.977726E-1	9.120574E-1	9.704282E-1	9.908954E-1	1.058998E+0	1.029956E+0	1.068265E+0	8.796511E-1	9.643322E-1	9.920233E-1	1.022240E+0	9.512906E-1	8.296346E-1	8.995385E-1	9.117133E-1	1.047784E+0	9.057278E-1	9.913968E-1	9.663020E-1	1.031282E+0	1.008393E+0	1.021941E+0	1.032715E+0	8.953232E-1	9.783070E-1	9.975681E-1	1.029854E+0	8.916608E-1	8.979915E-1	8.845488E-1	8.695583E-1	1.001744E+0	9.538587E-1	8.969465E-1	9.368938E-1	9.756691E-1	1.055123E+0	9.991852E-1	1.014443E+0	8.557774E-1	1.025801E+0	1.084742E+0	1.084135E+0
2.851060E+2	9.491571E-1	9.515717E-1	7.635847E-1	9.109587E-1	9.515608E-1	9.541751E-1	9.398592E-1	8.231740E-1	9.460356E-1	8.379691E-1	8.688317E-1	8.065253E-1	8.786252E-1	8.503023E-1	8.211122E-1	8.517721E-1	9.139128E-1	8.557457E-1	8.414140E-1	8.152424E-1	9.720663E-1	9.144185E-1	9.131481E-1	7.713862E-1	9.129506E-1	8.628247E-1	8.389220E-1	7.975874E-1	7.670364E-1	7.711062E-1	8.143255E-1	9.133220E-1	8.088865E-1	8.330577E-1	8.444181E-1	8.524626E-1	8.947925E-1	9.467681E-1	9.214950E-1	8.052831E-1	8.874859E-1	8.455082E-1	8.319840E-1	7.757692E-1	8.221045E-1	8.112017E-1	7.733551E-1	9.029704E-1	8.667393E-1	8.635743E-1	8.073897E-1	9.054533E-1	9.136190E-1	9.506586E-1	9.544762E-1	8.325691E-1	8.468198E-1	8.750724E-1	9.389433E-1	8.358752E-1	8.306071E-1	7.811851E-1	8.614852E-1	9.644078E-1	8.291946E-1	8.050370E-1	9.181555E-1	9.214671E-1	1.004459E+0	8.976739E-1	9.430047E-1	7.981420E-1	8.451893E-1	9.058520E-1	9.423962E-1	7.067178E-1	7.736442E-1	7.765771E-1	7.788411E-1	8.709813E-1	8.343578E-1	8.092993E-1	8.476031E-1	8.713750E-1	9.005858E-1	8.788838E-1	9.199305E-1	7.941232E-1	8.994259E-1	8.641548E-1	9.118560E-1	8.885873E-1	8.059484E-1	7.737960E-1	8.104639E-1	9.286417E-1	8.529797E-1	8.129809E-1	9.641075E-1	8.683237E-1	8.675756E-1	9.286879E-1	9.645714E-1	7.810965E-1	8.998458E-1	8.574782E-1	8.244128E-1	8.165069E-1	7.812025E-1	7.684587E-1	7.855211E-1	8.915137E-1	6.873212E-1	8.312213E-1	7.974115E-1	9.634407E-1	9.134144E-1	9.335894E-1	8.979096E-1	7.773118E-1	9.215992E-1	8.800724E-1	9.296817E-1	8.672300E-1	8.699011E-1	8.013451E-1	8.616884E-1	9.892208E-1	9.148247E-1	8.376452E-1	8.622555E-1	9.077716E-1	9.989907E-1	9.328774E-1	9.842461E-1	8.391481E-1	8.926352E-1	9.723873E-1	9.643228E-1	8.400932E-1	8.034174E-1	8.542578E-1	8.406396E-1	9.328106E-1	8.260987E-1	9.083546E-1	8.961448E-1	8.953544E-1	8.824938E-1	9.499124E-1	9.446360E-1	8.189018E-1	9.121242E-1	8.765412E-1	9.491996E-1	8.608482E-1	8.219711E-1	7.956294E-1	8.138344E-1	8.987169E-1	8.871407E-1	8.661456E-1	8.678533E-1	8.886049E-1	9.364487E-1	9.284211E-1	9.168058E-1	8.239740E-1	8.999700E-1	8.902776E-1	1.041765E+0
2.851990E+2	8.051245E-1	7.490565E-1	6.593993E-1	7.098377E-1	7.871712E-1	7.886950E-1	7.812278E-1	6.727077E-1	7.837693E-1	7.274435E-1	6.914530E-1	6.943564E-1	7.254249E-1	6.872746E-1	6.339332E-1	6.951639E-1	7.698682E-1	7.214540E-1	6.895560E-1	6.558501E-1	8.192736E-1	7.864453E-1	7.553728E-1	6.569795E-1	7.062959E-1	6.905562E-1	7.173257E-1	6.803958E-1	6.350057E-1	6.548304E-1	6.611524E-1	7.056156E-1	6.254898E-1	6.689981E-1	6.829750E-1	7.103445E-1	7.794423E-1	7.630948E-1	7.885109E-1	6.475487E-1	7.304124E-1	7.424103E-1	7.000956E-1	6.306793E-1	6.572128E-1	6.847166E-1	6.495499E-1	7.022384E-1	7.240410E-1	7.834823E-1	7.060698E-1	7.272501E-1	7.649040E-1	7.595605E-1	7.753420E-1	6.420657E-1	7.006220E-1	7.538411E-1	7.768556E-1	6.835511E-1	6.922211E-1	6.575347E-1	6.920775E-1	7.752186E-1	6.885970E-1	6.804965E-1	7.688760E-1	6.941348E-1	8.097674E-1	7.537339E-1	8.012514E-1	6.831188E-1	6.993378E-1	7.027669E-1	7.473869E-1	5.712729E-1	6.670710E-1	6.239371E-1	6.619764E-1	7.690692E-1	6.683772E-1	6.799629E-1	7.543092E-1	6.799920E-1	7.281213E-1	7.356400E-1	7.924555E-1	6.817591E-1	7.946607E-1	7.316235E-1	7.828351E-1	6.842316E-1	6.689942E-1	6.498293E-1	7.388924E-1	8.049682E-1	6.865103E-1	6.827516E-1	7.692462E-1	7.310604E-1	7.602722E-1	7.646399E-1	8.478894E-1	6.493766E-1	7.321124E-1	7.296958E-1	7.104500E-1	6.863902E-1	6.692240E-1	6.475406E-1	6.571359E-1	7.225150E-1	5.881323E-1	6.461064E-1	6.730443E-1	7.161634E-1	6.969509E-1	8.020319E-1	7.220576E-1	6.824948E-1	7.328327E-1	7.848838E-1	7.935071E-1	7.189918E-1	6.905874E-1	6.782979E-1	7.014047E-1	7.939797E-1	7.427409E-1	6.651424E-1	7.540828E-1	7.586754E-1	8.251395E-1	7.930847E-1	7.799756E-1	7.029138E-1	7.233327E-1	7.447333E-1	7.662463E-1	7.288954E-1	6.361026E-1	6.705006E-1	6.602955E-1	8.004518E-1	6.518770E-1	7.333084E-1	7.768233E-1	7.439103E-1	7.151387E-1	7.742737E-1	7.868277E-1	6.419265E-1	7.644385E-1	7.240137E-1	7.331166E-1	6.654929E-1	7.098270E-1	6.745065E-1	6.708913E-1	7.558960E-1	7.038245E-1	6.964781E-1	6.957933E-1	7.580075E-1	8.011385E-1	7.553280E-1	7.481065E-1	6.455975E-1	7.286704E-1	7.780274E-1	8.511005E-1
2.853000E+2	6.737026E-1	6.522017E-1	5.360673E-1	6.513075E-1	6.186869E-1	6.596678E-1	6.092435E-1	5.513454E-1	5.873080E-1	5.892861E-1	5.938182E-1	5.747513E-1	5.929806E-1	5.717164E-1	5.623276E-1	5.877905E-1	6.196104E-1	5.893288E-1	5.694149E-1	5.581583E-1	6.517782E-1	6.534731E-1	6.551984E-1	5.211845E-1	6.058545E-1	6.030883E-1	5.848987E-1	5.489811E-1	5.480587E-1	5.399616E-1	5.247924E-1	6.122473E-1	5.774035E-1	5.422248E-1	5.935598E-1	5.942170E-1	6.461931E-1	6.297755E-1	6.347638E-1	5.378619E-1	6.245819E-1	6.206615E-1	5.918144E-1	5.537370E-1	5.653443E-1	5.842721E-1	5.618925E-1	6.551004E-1	6.069259E-1	5.985714E-1	5.771615E-1	6.369115E-1	6.267360E-1	6.690673E-1	7.003201E-1	5.669235E-1	5.926101E-1	6.163017E-1	6.671724E-1	5.697602E-1	5.689216E-1	5.586141E-1	5.560540E-1	6.584500E-1	5.836085E-1	5.774639E-1	6.086457E-1	6.463069E-1	6.721781E-1	6.333231E-1	6.521404E-1	5.076145E-1	6.053801E-1	6.006722E-1	6.311217E-1	5.046421E-1	5.604974E-1	4.886310E-1	5.502325E-1	5.946628E-1	5.825640E-1	6.133357E-1	6.161333E-1	6.184755E-1	6.089343E-1	6.731045E-1	6.480508E-1	5.427682E-1	6.010046E-1	6.200758E-1	6.682836E-1	6.133328E-1	5.310330E-1	5.043237E-1	5.855976E-1	6.539345E-1	6.145386E-1	5.530335E-1	6.472353E-1	6.174840E-1	6.417817E-1	6.347465E-1	6.500603E-1	5.544390E-1	6.227210E-1	6.077459E-1	5.811864E-1	5.750988E-1	5.324143E-1	5.581877E-1	5.490462E-1	6.500089E-1	4.726750E-1	5.914735E-1	5.661226E-1	6.166268E-1	5.960432E-1	6.741587E-1	6.589863E-1	5.453013E-1	6.510344E-1	6.252850E-1	6.538091E-1	5.654798E-1	5.829990E-1	5.351315E-1	5.803959E-1	6.586861E-1	6.319375E-1	5.817096E-1	6.555105E-1	6.676340E-1	6.894225E-1	6.261093E-1	7.138101E-1	5.850901E-1	5.937957E-1	6.275312E-1	6.550445E-1	5.947332E-1	5.550673E-1	6.009990E-1	5.766503E-1	6.899648E-1	5.829367E-1	6.108359E-1	6.409279E-1	6.408788E-1	6.276224E-1	6.512722E-1	6.499910E-1	5.539421E-1	6.167528E-1	6.068552E-1	6.482485E-1	5.453228E-1	5.664122E-1	5.591514E-1	5.453916E-1	6.327000E-1	5.940835E-1	5.884122E-1	5.803672E-1	6.697501E-1	6.109281E-1	6.423094E-1	6.262033E-1	5.460382E-1	6.313886E-1	6.673565E-1	6.331969E-1
2.854020E+2	5.263509E-1	5.025159E-1	4.144246E-1	5.018677E-1	5.455602E-1	5.260114E-1	4.880001E-1	4.848981E-1	5.102165E-1	4.853925E-1	4.864706E-1	4.582446E-1	4.837629E-1	4.743792E-1	4.404729E-1	4.699411E-1	4.942067E-1	4.528717E-1	4.319736E-1	4.039076E-1	5.241879E-1	5.225009E-1	4.844005E-1	4.684580E-1	4.817460E-1	4.916208E-1	4.637945E-1	4.283764E-1	4.279887E-1	4.035259E-1	4.374652E-1	4.894207E-1	4.616617E-1	4.572118E-1	4.430450E-1	4.554171E-1	5.010108E-1	5.410560E-1	5.141388E-1	4.349705E-1	4.792051E-1	5.211895E-1	4.917436E-1	4.278818E-1	4.833690E-1	4.405806E-1	4.493834E-1	5.041545E-1	4.636588E-1	4.851524E-1	4.743355E-1	5.051153E-1	4.980606E-1	5.017300E-1	5.063849E-1	4.706132E-1	4.682329E-1	4.912649E-1	4.977727E-1	4.511518E-1	4.112858E-1	4.171035E-1	4.673640E-1	5.265223E-1	4.712523E-1	4.334173E-1	4.870318E-1	5.028216E-1	5.237109E-1	4.907674E-1	5.295170E-1	4.330922E-1	4.655370E-1	4.560837E-1	4.879035E-1	4.593116E-1	4.133960E-1	4.164034E-1	4.370924E-1	4.874976E-1	4.803784E-1	4.716818E-1	4.981285E-1	4.724522E-1	4.985354E-1	5.015323E-1	5.245599E-1	4.740717E-1	4.981442E-1	4.864405E-1	5.145434E-1	4.965580E-1	4.424154E-1	4.430582E-1	4.449933E-1	5.182225E-1	4.574089E-1	4.590645E-1	5.092332E-1	4.304166E-1	5.207488E-1	5.079581E-1	5.206492E-1	4.177480E-1	4.835505E-1	4.985214E-1	4.466477E-1	4.555017E-1	4.291990E-1	4.231864E-1	4.249094E-1	5.284392E-1	3.708629E-1	4.631125E-1	4.440071E-1	4.544885E-1	4.935079E-1	5.120797E-1	5.371183E-1	4.796178E-1	5.056841E-1	4.685364E-1	5.370044E-1	4.652870E-1	4.533413E-1	4.495126E-1	4.710625E-1	5.129429E-1	5.093747E-1	4.424679E-1	4.743686E-1	5.264546E-1	5.419302E-1	5.528844E-1	5.594259E-1	4.735770E-1	4.811282E-1	5.379423E-1	5.206764E-1	4.907871E-1	4.292238E-1	4.288258E-1	4.688307E-1	5.284414E-1	4.771210E-1	4.722331E-1	4.718882E-1	4.912963E-1	5.134942E-1	5.432288E-1	5.173477E-1	4.498683E-1	5.236066E-1	4.742227E-1	4.935594E-1	4.263839E-1	4.607377E-1	4.659061E-1	4.407284E-1	4.898789E-1	4.594014E-1	4.422377E-1	4.347361E-1	4.950239E-1	5.454915E-1	5.114714E-1	5.129671E-1	4.513189E-1	5.150743E-1	4.887046E-1	4.606901E-1
2.855000E+2	3.630693E-1	4.018872E-1	3.175607E-1	3.742218E-1	3.794154E-1	3.923548E-1	3.881214E-1	4.239424E-1	4.057696E-1	3.394980E-1	3.648106E-1	4.061889E-1	3.453879E-1	3.415592E-1	3.244810E-1	3.657101E-1	3.733231E-1	3.386159E-1	3.190409E-1	3.684872E-1	3.960723E-1	3.675335E-1	3.611857E-1	4.037938E-1	3.824592E-1	3.497522E-1	3.554899E-1	3.794513E-1	3.134391E-1	3.139749E-1	3.436001E-1	3.870645E-1	3.280273E-1	3.393872E-1	3.590942E-1	3.873995E-1	3.752194E-1	3.756061E-1	3.722565E-1	3.616845E-1	3.884146E-1	3.574760E-1	3.619082E-1	3.932580E-1	3.505138E-1	3.452518E-1	3.120230E-1	3.881642E-1	3.726957E-1	3.765706E-1	3.283733E-1	3.757943E-1	3.482906E-1	4.071923E-1	3.930865E-1	3.287945E-1	3.367642E-1	3.450277E-1	3.874801E-1	3.409728E-1	3.389711E-1	3.419972E-1	3.452916E-1	3.693329E-1	3.521437E-1	3.563925E-1	3.544669E-1	3.841363E-1	3.959104E-1	3.795840E-1	3.965928E-1	3.375095E-1	3.715798E-1	3.705456E-1	3.615970E-1	3.353356E-1	3.303389E-1	3.176928E-1	3.225554E-1	3.813828E-1	3.431902E-1	3.384267E-1	3.614655E-1	3.680612E-1	3.716587E-1	3.700471E-1	3.781636E-1	3.137795E-1	3.832209E-1	3.726835E-1	3.987863E-1	3.636966E-1	3.381895E-1	3.272283E-1	3.658084E-1	3.994745E-1	3.447812E-1	3.487523E-1	3.653083E-1	3.356684E-1	3.783562E-1	3.666795E-1	4.034371E-1	3.208225E-1	3.735516E-1	3.564234E-1	3.416537E-1	3.480859E-1	3.060219E-1	3.367470E-1	3.418367E-1	3.823371E-1	3.173326E-1	3.793067E-1	3.770398E-1	3.449355E-1	3.774097E-1	3.663142E-1	4.034924E-1	3.397764E-1	3.804691E-1	3.801873E-1	4.237209E-1	3.850160E-1	3.545810E-1	3.339503E-1	3.521771E-1	4.089976E-1	3.954773E-1	3.477608E-1	3.565944E-1	4.136434E-1	4.078966E-1	3.958951E-1	4.160685E-1	3.163026E-1	3.684608E-1	3.888323E-1	3.787796E-1	3.366822E-1	3.319806E-1	3.619567E-1	3.508575E-1	3.854253E-1	3.531342E-1	3.348245E-1	3.569851E-1	3.621969E-1	3.369273E-1	3.781183E-1	3.899476E-1	3.407667E-1	3.612134E-1	3.764065E-1	3.563261E-1	3.333288E-1	3.324190E-1	3.337287E-1	3.157133E-1	4.015701E-1	3.502840E-1	3.696724E-1	3.408845E-1	3.513074E-1	3.891086E-1	3.679067E-1	3.835540E-1	3.303274E-1	3.871283E-1	4.033299E-1	3.820027E-1
2.856010E+2	2.641713E-1	2.591195E-1	2.212600E-1	2.640099E-1	2.735271E-1	2.893639E-1	2.823674E-1	2.690832E-1	2.590460E-1	2.637882E-1	2.646195E-1	2.828653E-1	2.663167E-1	2.250425E-1	2.277507E-1	2.682882E-1	2.699495E-1	2.400634E-1	2.354229E-1	2.525136E-1	2.789836E-1	2.775523E-1	2.800437E-1	2.859050E-1	2.670095E-1	2.724178E-1	2.501396E-1	2.998070E-1	2.149911E-1	2.248929E-1	2.539384E-1	2.827124E-1	2.301786E-1	2.727692E-1	2.229848E-1	2.784606E-1	2.573832E-1	2.490008E-1	2.634963E-1	2.845156E-1	2.664318E-1	2.808000E-1	2.469552E-1	2.877385E-1	2.270799E-1	2.610832E-1	2.062917E-1	3.087189E-1	2.629712E-1	2.481007E-1	2.486208E-1	2.811235E-1	2.702418E-1	2.990050E-1	2.920363E-1	2.742896E-1	2.494819E-1	2.596769E-1	2.899836E-1	2.970216E-1	2.437658E-1	2.485730E-1	2.466367E-1	3.143167E-1	2.557508E-1	2.358537E-1	2.605184E-1	2.802127E-1	2.789863E-1	2.411806E-1	2.896647E-1	2.484070E-1	2.612351E-1	2.436170E-1	2.706987E-1	2.517752E-1	2.192620E-1	2.180194E-1	2.271084E-1	2.652866E-1	2.460860E-1	2.639600E-1	2.631287E-1	2.425437E-1	2.689489E-1	2.588726E-1	2.760840E-1	2.195216E-1	2.670268E-1	2.727325E-1	2.818236E-1	2.749241E-1	2.530966E-1	2.348509E-1	2.368785E-1	2.933130E-1	2.491850E-1	2.542725E-1	2.746885E-1	2.336316E-1	2.761390E-1	2.605915E-1	2.925888E-1	2.238965E-1	2.902923E-1	2.646954E-1	2.556544E-1	2.805358E-1	2.354266E-1	2.362247E-1	2.134514E-1	2.798473E-1	1.966274E-1	2.472330E-1	2.414181E-1	2.835858E-1	2.526311E-1	2.510697E-1	2.613139E-1	2.380731E-1	2.672092E-1	2.878480E-1	3.210029E-1	2.443949E-1	2.602349E-1	2.661102E-1	2.715039E-1	2.748035E-1	2.661047E-1	2.524899E-1	2.593027E-1	2.869773E-1	2.744230E-1	2.577661E-1	3.073691E-1	2.594944E-1	2.443465E-1	2.740848E-1	2.988533E-1	2.544927E-1	2.209144E-1	2.503335E-1	2.556088E-1	3.018591E-1	2.302174E-1	2.655235E-1	2.680452E-1	2.622688E-1	2.576003E-1	2.778327E-1	2.761788E-1	2.366932E-1	2.729703E-1	2.459839E-1	2.913206E-1	2.396571E-1	2.456149E-1	2.361573E-1	2.396385E-1	2.816437E-1	2.598725E-1	2.428132E-1	2.588996E-1	2.821326E-1	3.014898E-1	2.844148E-1	2.818722E-1	2.349161E-1	2.940765E-1	2.483926E-1	2.760776E-1
2.858030E+2	2.628437E-1	2.490568E-1	2.201335E-1	2.752176E-1	2.776227E-1	2.488619E-1	2.610026E-1	2.795168E-1	2.490987E-1	2.289729E-1	2.549072E-1	2.661331E-1	2.460547E-1	2.293576E-1	2.038824E-1	2.672407E-1	2.405763E-1	2.270676E-1	2.238894E-1	2.530851E-1	2.700573E-1	2.705542E-1	2.760370E-1	2.829210E-1	2.393017E-1	2.612177E-1	2.274940E-1	2.696553E-1	2.324724E-1	2.295814E-1	2.077065E-1	2.702297E-1	2.352109E-1	2.474150E-1	2.398744E-1	2.961560E-1	2.558919E-1	2.796929E-1	2.852482E-1	2.718970E-1	2.474936E-1	2.523055E-1	2.418235E-1	2.575110E-1	2.322621E-1	2.466673E-1	2.198468E-1	2.954781E-1	2.356828E-1	2.448761E-1	2.215351E-1	2.823610E-1	2.660227E-1	2.843438E-1	2.542695E-1	2.933393E-1	2.325707E-1	2.216221E-1	2.528135E-1	2.831740E-1	2.474075E-1	2.133095E-1	2.431491E-1	2.604233E-1	2.446998E-1	2.418556E-1	2.570606E-1	2.725363E-1	2.947572E-1	2.517914E-1	2.891740E-1	2.905279E-1	2.519489E-1	2.336829E-1	2.495595E-1	2.697978E-1	2.347728E-1	2.098336E-1	2.238490E-1	2.637110E-1	2.410046E-1	2.426838E-1	2.333754E-1	2.785834E-1	2.733427E-1	2.374932E-1	2.760841E-1	2.573314E-1	2.517884E-1	2.462267E-1	2.745885E-1	2.898185E-1	2.369844E-1	2.166630E-1	2.500763E-1	2.588379E-1	2.376476E-1	2.185238E-1	2.575123E-1	2.627850E-1	2.461352E-1	2.693890E-1	2.581147E-1	2.447726E-1	2.702374E-1	2.503797E-1	2.414088E-1	2.367944E-1	2.174123E-1	2.289406E-1	2.412995E-1	2.716702E-1	1.982015E-1	2.392768E-1	2.144059E-1	2.466509E-1	2.542587E-1	2.652782E-1	2.516928E-1	2.131769E-1	2.640634E-1	2.724577E-1	2.623067E-1	2.420510E-1	2.431310E-1	2.618992E-1	2.476206E-1	2.891028E-1	2.512479E-1	2.243033E-1	2.477811E-1	2.480538E-1	2.783491E-1	2.538831E-1	2.737618E-1	2.426625E-1	2.545890E-1	2.556760E-1	2.606276E-1	2.454271E-1	2.261583E-1	2.292724E-1	2.256318E-1	2.626006E-1	2.328895E-1	2.577566E-1	2.542354E-1	2.517168E-1	2.724420E-1	2.634267E-1	2.798490E-1	2.387044E-1	2.570371E-1	2.780369E-1	2.624293E-1	2.433546E-1	2.218918E-1	2.001090E-1	2.304322E-1	2.636551E-1	2.193426E-1	2.459453E-1	2.303131E-1	2.541046E-1	2.837440E-1	2.655785E-1	2.472074E-1	2.197061E-1	2.602392E-1	2.800125E-1	2.488398E-1
2.860070E+2	5.548921E-1	5.874210E-1	4.589141E-1	5.909093E-1	6.052315E-1	5.613058E-1	5.547643E-1	6.139485E-1	5.661707E-1	5.196551E-1	5.099847E-1	5.561599E-1	5.168739E-1	5.434268E-1	4.429856E-1	5.217950E-1	5.501300E-1	4.848201E-1	5.026167E-1	5.341632E-1	6.066229E-1	5.484953E-1	5.600322E-1	6.151968E-1	5.671786E-1	5.049543E-1	5.287771E-1	5.944928E-1	4.979145E-1	4.682274E-1	5.191882E-1	5.553272E-1	4.745222E-1	4.756064E-1	5.101061E-1	6.080419E-1	5.880208E-1	5.568815E-1	6.125174E-1	5.844544E-1	5.644264E-1	5.470936E-1	5.646154E-1	5.812170E-1	5.276548E-1	5.377705E-1	4.615833E-1	6.206746E-1	5.523479E-1	5.432061E-1	5.224883E-1	6.338171E-1	5.423588E-1	5.977845E-1	5.640552E-1	6.029072E-1	5.647888E-1	5.461724E-1	6.001431E-1	6.052819E-1	4.877625E-1	4.583206E-1	5.266567E-1	6.045562E-1	5.430869E-1	4.679284E-1	5.855907E-1	6.191442E-1	5.895150E-1	5.585848E-1	5.962241E-1	6.377577E-1	5.267182E-1	5.780459E-1	5.597767E-1	6.122334E-1	4.769395E-1	4.775558E-1	4.720128E-1	6.014917E-1	5.176394E-1	5.439083E-1	5.339336E-1	5.780859E-1	5.737829E-1	5.410846E-1	5.937742E-1	6.194528E-1	5.559244E-1	5.576758E-1	5.543349E-1	5.513704E-1	4.862211E-1	5.038448E-1	4.932153E-1	5.849842E-1	5.381712E-1	4.912384E-1	5.761615E-1	5.986558E-1	5.527870E-1	5.969687E-1	5.975535E-1	6.101091E-1	5.497933E-1	5.478317E-1	5.389782E-1	5.966923E-1	5.041762E-1	4.950576E-1	4.669178E-1	5.704160E-1	4.228183E-1	5.007724E-1	5.306696E-1	5.809440E-1	5.070707E-1	6.031172E-1	5.718616E-1	6.157526E-1	5.874826E-1	5.620155E-1	5.933527E-1	5.385276E-1	4.858941E-1	4.944270E-1	5.140527E-1	5.976384E-1	5.384681E-1	5.005325E-1	5.953425E-1	5.983637E-1	5.924030E-1	5.967086E-1	6.161390E-1	5.309114E-1	5.829502E-1	5.545098E-1	5.450021E-1	5.046872E-1	4.745081E-1	5.025389E-1	5.374871E-1	6.041553E-1	5.262876E-1	5.260018E-1	5.298921E-1	5.353646E-1	5.283363E-1	5.537564E-1	5.902224E-1	4.991398E-1	5.720182E-1	5.079330E-1	5.657883E-1	4.861612E-1	5.076439E-1	5.029161E-1	4.625331E-1	5.449357E-1	5.404600E-1	4.949649E-1	5.264292E-1	5.260330E-1	5.510370E-1	5.516904E-1	5.811398E-1	5.080124E-1	5.626575E-1	5.772398E-1	6.483285E-1
2.862030E+2	8.934029E-1	8.937103E-1	7.742850E-1	9.016188E-1	9.182149E-1	9.154090E-1	8.864478E-1	9.104889E-1	8.925684E-1	8.578642E-1	8.294712E-1	8.957635E-1	8.435369E-1	8.028323E-1	7.687690E-1	8.334402E-1	8.924468E-1	8.075524E-1	7.501069E-1	8.083860E-1	9.311116E-1	8.434335E-1	8.380174E-1	8.987259E-1	8.621531E-1	8.020242E-1	8.339987E-1	9.204688E-1	7.164325E-1	7.523518E-1	7.634229E-1	8.808687E-1	7.417897E-1	7.435698E-1	8.007038E-1	8.718174E-1	8.992674E-1	8.887407E-1	8.854060E-1	8.974972E-1	8.178615E-1	8.594962E-1	7.370447E-1	8.961280E-1	7.443699E-1	7.772557E-1	7.191340E-1	9.230965E-1	8.690132E-1	8.254100E-1	7.858220E-1	9.091655E-1	8.508632E-1	8.910033E-1	9.059926E-1	9.601003E-1	8.468202E-1	8.701798E-1	8.767890E-1	8.503249E-1	7.426849E-1	7.431738E-1	8.151470E-1	9.576712E-1	7.941984E-1	7.745274E-1	8.634008E-1	9.179245E-1	8.804657E-1	8.312400E-1	9.067079E-1	9.660873E-1	8.501058E-1	8.181062E-1	8.377569E-1	8.738395E-1	7.701418E-1	6.831634E-1	7.914129E-1	9.513555E-1	8.292768E-1	7.779449E-1	8.062517E-1	9.521539E-1	8.835593E-1	8.580389E-1	9.005104E-1	9.821069E-1	8.956162E-1	8.713339E-1	9.335601E-1	9.153983E-1	7.681856E-1	7.402919E-1	8.069102E-1	9.538141E-1	7.656245E-1	7.522068E-1	9.031019E-1	9.466740E-1	8.243486E-1	8.929803E-1	9.550248E-1	9.540722E-1	8.803988E-1	8.155905E-1	8.365477E-1	9.139564E-1	7.719526E-1	7.436926E-1	7.482327E-1	9.138650E-1	6.605560E-1	7.871969E-1	7.827799E-1	9.465382E-1	8.542806E-1	8.957009E-1	8.498040E-1	9.213920E-1	9.247458E-1	8.498632E-1	9.255730E-1	9.340248E-1	8.401072E-1	7.578342E-1	7.979995E-1	9.639219E-1	9.222531E-1	7.840904E-1	8.353720E-1	8.985353E-1	9.429093E-1	8.474483E-1	9.590403E-1	9.217308E-1	8.552796E-1	8.858665E-1	8.954016E-1	8.987132E-1	7.671896E-1	8.142417E-1	7.874548E-1	8.828958E-1	7.763968E-1	8.521963E-1	8.536095E-1	9.356986E-1	8.906818E-1	9.078034E-1	9.283835E-1	8.978368E-1	8.122371E-1	8.179626E-1	8.673413E-1	9.218585E-1	7.734473E-1	7.591006E-1	8.046275E-1	9.346947E-1	7.880002E-1	7.773964E-1	8.074430E-1	8.748891E-1	9.558584E-1	8.535835E-1	8.948517E-1	7.824908E-1	8.619038E-1	8.713058E-1	9.297866E-1
2.864220E+2	9.843356E-1	9.484273E-1	7.692162E-1	9.595266E-1	1.000702E+0	9.402883E-1	9.697693E-1	9.582646E-1	9.087329E-1	8.622853E-1	8.284485E-1	9.583556E-1	8.509505E-1	8.263272E-1	8.093875E-1	8.512485E-1	8.884929E-1	8.172990E-1	8.068135E-1	8.740861E-1	9.631407E-1	9.129184E-1	9.046337E-1	9.166323E-1	8.650392E-1	8.516249E-1	8.389222E-1	9.420870E-1	7.707172E-1	7.668863E-1	7.746309E-1	9.357901E-1	8.100051E-1	8.091938E-1	8.399476E-1	9.138446E-1	9.290993E-1	9.189537E-1	9.714257E-1	9.766075E-1	8.891570E-1	8.579421E-1	8.330101E-1	9.450410E-1	7.825311E-1	8.567740E-1	7.656738E-1	9.945976E-1	8.940281E-1	8.592743E-1	8.399934E-1	9.580477E-1	9.136187E-1	9.572308E-1	9.498834E-1	9.796799E-1	8.637303E-1	8.555019E-1	9.633174E-1	9.689327E-1	8.014732E-1	7.706517E-1	8.774289E-1	1.014372E+0	8.341066E-1	8.250430E-1	9.400579E-1	9.681150E-1	9.734607E-1	8.889078E-1	9.528142E-1	9.936279E-1	8.752333E-1	8.892960E-1	9.106870E-1	9.896232E-1	7.796484E-1	7.655024E-1	8.142268E-1	9.639633E-1	7.954033E-1	8.647289E-1	8.622271E-1	9.018225E-1	9.302453E-1	9.483682E-1	9.338728E-1	1.005006E+0	9.102200E-1	8.884525E-1	9.299427E-1	9.857010E-1	8.089689E-1	7.862407E-1	8.393963E-1	9.653056E-1	8.249598E-1	8.231947E-1	9.647000E-1	9.667165E-1	9.275832E-1	9.348986E-1	9.725271E-1	9.754450E-1	9.739888E-1	8.930026E-1	8.518480E-1	9.637887E-1	8.089541E-1	7.946821E-1	7.798572E-1	9.433037E-1	6.915194E-1	8.179607E-1	8.013503E-1	9.052216E-1	8.743533E-1	9.241172E-1	8.973751E-1	9.876049E-1	8.662273E-1	8.977431E-1	9.214644E-1	9.838284E-1	8.527970E-1	8.261420E-1	8.218837E-1	9.589723E-1	9.080159E-1	8.173506E-1	9.070610E-1	9.486737E-1	9.468351E-1	9.328769E-1	9.800454E-1	9.837995E-1	8.932373E-1	9.453876E-1	8.965601E-1	9.313475E-1	7.881635E-1	7.968662E-1	8.536939E-1	9.703876E-1	7.999118E-1	9.011854E-1	8.757062E-1	1.016386E+0	8.855638E-1	9.870350E-1	9.142278E-1	1.023027E+0	9.151882E-1	9.102521E-1	8.872034E-1	9.785535E-1	8.386849E-1	8.081261E-1	7.881532E-1	1.012102E+0	8.266593E-1	8.651014E-1	8.365697E-1	9.386965E-1	9.536396E-1	9.136570E-1	9.254718E-1	1.041759E+0	9.190032E-1	9.788135E-1	9.449188E-1
2.866160E+2	8.522500E-1	8.628932E-1	7.022003E-1	8.779577E-1	8.316327E-1	8.766424E-1	8.714926E-1	9.198243E-1	7.924731E-1	8.026012E-1	7.635289E-1	8.678765E-1	7.847285E-1	7.270727E-1	6.917198E-1	8.423444E-1	8.060201E-1	7.615250E-1	7.832659E-1	7.798217E-1	8.833306E-1	8.669283E-1	8.620590E-1	8.847978E-1	7.882653E-1	7.764244E-1	7.498169E-1	8.516325E-1	7.403546E-1	7.017158E-1	7.410080E-1	8.554037E-1	7.574456E-1	7.614674E-1	7.728862E-1	8.646286E-1	8.207100E-1	8.465389E-1	8.498121E-1	8.722594E-1	7.861121E-1	7.843748E-1	7.642436E-1	8.796410E-1	7.297655E-1	7.530750E-1	7.164230E-1	8.722514E-1	8.457040E-1	7.958457E-1	7.426855E-1	8.404841E-1	8.092020E-1	8.576375E-1	8.809851E-1	9.119451E-1	7.737208E-1	8.272325E-1	8.682584E-1	8.852446E-1	7.317596E-1	7.495859E-1	7.713004E-1	8.622346E-1	8.427016E-1	7.425170E-1	8.155620E-1	9.149723E-1	8.820972E-1	8.224743E-1	9.022935E-1	9.012852E-1	8.621234E-1	7.987911E-1	8.044627E-1	8.754779E-1	7.111008E-1	7.245733E-1	7.257628E-1	8.741333E-1	7.062024E-1	7.617082E-1	7.896095E-1	8.688895E-1	8.149031E-1	8.799534E-1	8.437443E-1	9.091502E-1	8.276775E-1	8.067247E-1	8.738732E-1	9.499539E-1	7.309252E-1	7.029577E-1	7.581810E-1	8.881473E-1	7.595814E-1	7.251401E-1	8.255131E-1	8.725754E-1	8.034990E-1	8.184600E-1	8.653918E-1	9.068518E-1	8.026090E-1	7.927914E-1	7.452719E-1	9.239226E-1	7.062251E-1	7.291243E-1	7.081123E-1	9.024168E-1	6.238193E-1	7.399901E-1	7.523916E-1	9.039693E-1	8.097940E-1	8.083469E-1	8.337691E-1	9.203326E-1	8.939131E-1	7.974235E-1	9.073772E-1	8.648860E-1	7.887960E-1	7.456699E-1	8.282516E-1	9.078242E-1	8.752084E-1	7.440650E-1	7.931266E-1	8.985357E-1	8.503757E-1	8.052884E-1	9.033780E-1	9.396147E-1	7.992474E-1	8.238907E-1	8.467509E-1	8.310275E-1	7.099881E-1	6.894555E-1	7.729500E-1	8.733611E-1	7.454011E-1	7.661670E-1	7.773757E-1	8.457006E-1	8.441088E-1	8.900737E-1	8.528868E-1	8.938148E-1	8.661640E-1	7.798297E-1	8.023356E-1	8.534529E-1	7.421761E-1	7.240135E-1	7.489045E-1	8.463858E-1	7.630591E-1	7.596463E-1	7.518878E-1	8.671366E-1	8.715665E-1	8.332199E-1	8.613424E-1	9.228416E-1	8.174918E-1	8.286199E-1	7.330690E-1
2.868020E+2	1.004248E+0	9.459113E-1	8.097642E-1	9.825654E-1	9.790563E-1	1.023607E+0	9.916678E-1	9.972540E-1	9.628220E-1	8.937847E-1	8.734321E-1	9.701292E-1	8.558923E-1	8.642076E-1	8.148311E-1	9.036257E-1	9.489349E-1	8.644097E-1	8.375697E-1	8.889398E-1	1.024573E+0	9.094192E-1	9.216632E-1	9.589132E-1	9.048689E-1	9.049590E-1	9.068584E-1	9.398108E-1	8.029196E-1	7.701682E-1	8.306696E-1	9.602558E-1	8.552948E-1	8.618920E-1	8.563399E-1	9.503421E-1	9.554508E-1	9.654718E-1	1.017401E+0	9.523402E-1	8.808022E-1	9.056059E-1	8.627748E-1	9.725210E-1	8.334115E-1	8.553790E-1	7.792288E-1	1.016842E+0	8.638960E-1	9.087273E-1	8.575493E-1	9.741357E-1	9.885031E-1	9.880691E-1	1.013167E+0	1.030480E+0	8.871877E-1	9.038849E-1	9.566144E-1	9.833829E-1	8.326880E-1	8.315608E-1	8.983557E-1	1.012126E+0	8.672611E-1	8.060374E-1	9.613836E-1	1.020077E+0	9.707418E-1	9.742566E-1	9.636054E-1	1.033589E+0	8.714095E-1	9.146819E-1	8.985321E-1	9.994541E-1	8.321844E-1	8.040235E-1	7.862909E-1	9.923309E-1	8.608922E-1	8.484918E-1	8.728175E-1	9.652033E-1	9.445259E-1	9.259191E-1	9.826715E-1	1.000213E+0	9.660939E-1	9.508532E-1	9.685288E-1	1.030981E+0	8.346483E-1	7.881551E-1	8.703597E-1	1.011272E+0	8.463865E-1	7.956173E-1	9.570003E-1	9.539617E-1	9.662327E-1	9.726760E-1	9.879078E-1	9.933397E-1	9.211162E-1	8.670216E-1	8.919463E-1	1.033553E+0	8.016510E-1	8.039086E-1	8.029853E-1	1.004362E+0	6.752500E-1	8.487251E-1	8.564996E-1	1.038562E+0	8.824912E-1	9.683207E-1	9.374636E-1	1.011442E+0	9.618695E-1	9.205426E-1	1.015965E+0	1.057069E+0	8.985908E-1	8.588927E-1	8.728342E-1	1.021119E+0	9.371088E-1	8.720330E-1	9.006596E-1	9.249236E-1	9.653418E-1	9.522929E-1	9.973742E-1	9.464531E-1	9.095052E-1	9.521375E-1	1.006024E+0	9.633773E-1	8.344018E-1	8.126622E-1	8.551444E-1	1.007964E+0	8.597672E-1	8.946142E-1	9.132699E-1	1.020730E+0	9.249717E-1	9.576695E-1	9.551214E-1	9.828051E-1	9.850476E-1	9.014099E-1	9.407728E-1	1.018611E+0	8.672598E-1	7.985135E-1	8.322474E-1	1.044809E+0	8.603295E-1	8.943366E-1	9.158580E-1	1.016220E+0	1.025731E+0	9.722033E-1	9.705351E-1	1.027931E+0	9.359221E-1	9.171546E-1	9.842626E-1
2.870060E+2	9.962825E-1	9.566039E-1	8.215906E-1	9.750930E-1	1.003042E+0	1.019557E+0	9.612231E-1	1.052718E+0	9.820950E-1	8.866003E-1	8.499181E-1	9.515378E-1	8.954284E-1	9.361316E-1	7.993376E-1	9.528601E-1	9.664463E-1	8.579115E-1	8.788982E-1	9.397850E-1	1.046625E+0	9.589088E-1	9.091409E-1	1.016614E+0	9.077555E-1	8.926918E-1	8.620594E-1	9.568775E-1	8.277616E-1	7.982996E-1	8.091880E-1	9.442786E-1	8.044137E-1	8.782976E-1	8.429280E-1	9.956866E-1	9.151775E-1	9.472480E-1	9.689537E-1	9.824313E-1	8.936131E-1	8.983523E-1	8.535375E-1	9.895578E-1	8.395366E-1	8.976957E-1	7.851032E-1	1.012605E+0	8.957337E-1	9.087269E-1	8.480188E-1	1.004455E+0	9.278577E-1	9.830139E-1	1.000919E+0	1.010372E+0	8.920978E-1	9.229127E-1	9.547863E-1	9.936180E-1	8.274854E-1	8.237754E-1	8.455405E-1	1.034582E+0	8.648048E-1	8.255432E-1	9.221899E-1	9.710672E-1	1.001740E+0	9.285835E-1	9.552668E-1	1.028189E+0	9.424238E-1	9.157859E-1	8.980035E-1	9.584927E-1	8.201764E-1	8.035417E-1	8.258667E-1	1.004938E+0	8.614569E-1	8.664088E-1	9.111441E-1	9.465616E-1	9.802275E-1	9.398160E-1	9.478153E-1	1.058791E+0	9.387919E-1	8.967358E-1	1.037862E+0	9.761684E-1	8.356553E-1	8.116084E-1	8.333053E-1	1.032067E+0	8.722090E-1	8.369836E-1	9.398242E-1	1.006195E+0	9.123274E-1	9.561157E-1	1.047310E+0	9.769367E-1	9.211168E-1	9.036070E-1	8.634559E-1	1.014728E+0	8.488771E-1	8.092504E-1	7.954329E-1	9.918224E-1	7.104116E-1	8.428907E-1	8.503099E-1	1.017904E+0	9.253495E-1	9.509551E-1	9.577748E-1	1.050110E+0	9.643855E-1	9.416329E-1	1.027117E+0	9.668367E-1	8.555561E-1	8.252060E-1	9.004331E-1	1.056317E+0	9.241099E-1	8.782339E-1	9.627477E-1	1.001452E+0	9.664632E-1	9.350959E-1	1.029407E+0	1.002735E+0	9.342073E-1	9.404790E-1	9.892278E-1	1.019580E+0	7.853040E-1	8.684744E-1	8.522434E-1	1.022546E+0	8.378559E-1	9.555521E-1	9.292903E-1	1.020110E+0	8.727699E-1	9.903594E-1	9.975885E-1	9.953745E-1	9.335725E-1	9.539104E-1	9.395692E-1	1.004437E+0	8.349107E-1	8.561908E-1	7.983290E-1	1.004470E+0	8.765414E-1	8.651011E-1	8.694711E-1	1.058560E+0	9.536395E-1	9.401307E-1	9.370267E-1	1.005115E+0	9.443803E-1	1.062608E+0	1.053871E+0
2.872190E+2	8.369842E-1	8.025158E-1	6.993844E-1	8.212956E-1	8.585434E-1	8.390333E-1	8.186151E-1	8.682040E-1	7.943382E-1	7.738644E-1	7.231457E-1	8.530035E-1	7.293781E-1	7.505670E-1	6.703639E-1	7.847295E-1	7.907681E-1	7.544854E-1	7.462625E-1	7.718237E-1	8.539275E-1	7.974428E-1	8.064624E-1	8.350555E-1	7.293861E-1	7.934907E-1	7.409554E-1	8.157928E-1	7.017110E-1	6.567057E-1	6.943086E-1	8.239487E-1	6.847580E-1	7.326331E-1	7.251981E-1	8.347668E-1	7.734760E-1	7.937873E-1	8.325095E-1	8.411980E-1	7.649459E-1	7.584703E-1	7.601386E-1	8.180870E-1	7.264676E-1	7.470292E-1	6.820829E-1	8.553030E-1	7.541728E-1	7.485430E-1	7.416817E-1	8.435771E-1	8.165847E-1	8.288206E-1	8.549572E-1	8.775491E-1	7.202604E-1	8.033127E-1	8.292593E-1	8.509269E-1	7.229154E-1	6.900503E-1	7.598405E-1	8.785145E-1	7.285045E-1	7.445173E-1	8.011529E-1	8.364392E-1	8.804654E-1	7.749561E-1	8.125330E-1	9.147860E-1	7.818228E-1	7.745085E-1	7.653555E-1	8.814854E-1	7.181057E-1	6.658285E-1	7.085362E-1	8.221265E-1	7.039443E-1	7.185961E-1	7.971739E-1	8.216655E-1	8.187472E-1	7.767960E-1	8.193450E-1	8.622874E-1	8.460906E-1	8.023072E-1	8.009214E-1	8.474781E-1	7.107856E-1	6.689749E-1	7.805148E-1	8.717301E-1	7.436480E-1	7.230976E-1	8.569041E-1	8.586063E-1	8.157043E-1	8.143194E-1	8.950926E-1	8.889578E-1	8.196256E-1	8.065772E-1	7.278607E-1	8.835035E-1	6.658156E-1	7.024154E-1	6.934800E-1	8.538982E-1	6.264429E-1	7.378685E-1	6.994936E-1	8.757980E-1	7.452350E-1	8.172930E-1	8.171991E-1	8.821933E-1	8.297330E-1	8.430229E-1	8.486810E-1	8.074663E-1	7.424502E-1	6.834438E-1	7.762393E-1	8.616265E-1	8.337346E-1	7.299715E-1	8.008079E-1	8.352020E-1	8.464501E-1	7.886466E-1	9.002277E-1	8.554549E-1	8.058751E-1	8.073228E-1	8.681808E-1	8.219630E-1	6.618435E-1	7.147288E-1	6.825363E-1	9.159850E-1	7.464695E-1	7.554136E-1	8.005768E-1	8.401150E-1	7.478929E-1	8.341135E-1	8.544598E-1	8.601293E-1	8.355232E-1	7.704352E-1	8.203921E-1	8.516045E-1	7.340889E-1	7.172840E-1	6.888199E-1	8.801835E-1	7.237768E-1	7.758302E-1	7.324703E-1	8.492467E-1	8.316388E-1	8.184568E-1	8.572986E-1	8.613089E-1	8.280652E-1	7.954182E-1	7.935968E-1
2.874030E+2	6.557817E-1	6.591189E-1	5.377571E-1	7.004978E-1	7.140442E-1	7.071125E-1	6.669275E-1	6.979683E-1	6.699966E-1	6.362593E-1	6.265335E-1	6.596524E-1	6.863833E-1	5.913757E-1	5.543718E-1	6.113604E-1	6.653654E-1	6.142383E-1	6.016129E-1	6.215723E-1	7.063851E-1	6.504737E-1	6.321580E-1	6.798610E-1	6.352939E-1	6.361558E-1	6.075442E-1	6.798268E-1	6.041834E-1	5.596536E-1	5.803638E-1	6.726618E-1	6.433815E-1	5.929345E-1	5.905796E-1	6.616819E-1	6.765222E-1	6.849256E-1	6.515721E-1	6.601672E-1	6.084294E-1	6.253238E-1	5.800110E-1	7.026744E-1	5.997364E-1	6.117083E-1	5.492410E-1	7.128311E-1	6.052202E-1	6.313609E-1	5.891990E-1	7.062128E-1	6.541584E-1	7.074889E-1	7.008304E-1	7.214421E-1	6.100670E-1	6.086911E-1	6.897189E-1	7.064300E-1	5.933732E-1	5.352584E-1	5.799700E-1	7.426587E-1	6.247444E-1	5.834656E-1	6.391931E-1	6.988586E-1	6.868608E-1	6.342460E-1	6.732318E-1	7.198400E-1	6.004635E-1	6.205392E-1	6.591311E-1	6.919721E-1	6.115326E-1	5.483389E-1	5.646664E-1	6.934237E-1	5.673207E-1	6.094158E-1	6.126030E-1	7.011186E-1	6.429879E-1	6.565352E-1	6.784253E-1	7.504558E-1	6.530693E-1	6.543136E-1	7.141040E-1	7.169999E-1	5.949784E-1	5.799487E-1	6.317890E-1	7.267154E-1	5.771791E-1	5.760151E-1	6.549354E-1	7.195204E-1	6.341542E-1	6.989170E-1	7.375720E-1	7.010706E-1	6.640463E-1	6.639486E-1	6.244503E-1	7.157357E-1	5.645477E-1	5.722704E-1	5.721746E-1	7.007084E-1	5.109860E-1	6.243591E-1	5.796288E-1	7.205457E-1	6.188290E-1	6.794208E-1	6.573825E-1	7.052721E-1	6.491467E-1	6.634745E-1	6.860924E-1	6.850085E-1	5.978960E-1	5.781744E-1	6.032173E-1	7.087337E-1	6.511275E-1	6.279365E-1	6.830334E-1	7.164537E-1	6.888624E-1	6.544008E-1	7.096099E-1	7.144860E-1	6.841703E-1	6.839845E-1	6.758949E-1	7.077436E-1	5.226530E-1	5.988932E-1	6.022754E-1	7.353930E-1	6.150017E-1	6.120311E-1	6.497667E-1	7.327383E-1	6.373466E-1	6.911642E-1	6.541850E-1	6.937117E-1	6.872254E-1	6.455394E-1	6.638975E-1	6.950732E-1	5.858211E-1	5.836643E-1	5.725267E-1	6.910274E-1	6.184014E-1	6.400961E-1	6.445522E-1	7.049337E-1	6.952196E-1	6.601273E-1	6.290923E-1	7.313291E-1	6.292745E-1	6.894908E-1	6.997779E-1
2.876170E+2	5.243600E-1	5.509431E-1	4.183666E-1	5.529258E-1	5.391249E-1	5.300615E-1	5.366042E-1	5.738606E-1	5.270031E-1	5.014184E-1	4.777806E-1	5.487235E-1	5.648108E-1	4.988334E-1	4.392167E-1	5.092243E-1	5.241454E-1	4.815711E-1	4.430269E-1	4.930307E-1	5.562167E-1	5.155024E-1	4.869050E-1	5.639626E-1	5.487074E-1	5.060206E-1	4.948085E-1	4.955059E-1	5.770408E-1	4.344699E-1	4.729560E-1	5.278664E-1	5.371455E-1	4.601947E-1	4.604311E-1	5.317291E-1	5.557031E-1	5.295467E-1	5.329247E-1	4.873870E-1	5.209805E-1	4.978759E-1	4.748085E-1	5.603324E-1	5.163479E-1	4.828974E-1	4.588722E-1	5.136881E-1	5.364294E-1	4.588136E-1	4.542718E-1	5.106839E-1	5.291745E-1	5.583516E-1	5.421100E-1	5.484019E-1	4.715064E-1	4.918089E-1	5.355525E-1	5.143693E-1	4.352175E-1	4.491611E-1	4.882910E-1	5.736797E-1	5.087045E-1	4.434203E-1	5.233430E-1	5.364781E-1	5.644984E-1	5.064538E-1	5.481556E-1	5.756562E-1	4.928498E-1	4.698802E-1	5.328249E-1	5.598035E-1	4.919503E-1	4.303673E-1	4.370923E-1	5.190162E-1	4.978796E-1	4.733613E-1	4.598023E-1	5.395607E-1	5.347856E-1	5.223775E-1	5.175884E-1	5.646022E-1	5.552893E-1	4.936192E-1	5.247928E-1	5.769900E-1	4.519823E-1	4.229553E-1	4.810328E-1	5.609061E-1	4.766384E-1	4.534465E-1	5.489164E-1	5.531033E-1	5.477014E-1	5.167558E-1	5.795208E-1	5.554324E-1	5.102910E-1	4.905682E-1	4.841074E-1	5.662395E-1	4.321202E-1	4.494100E-1	4.466217E-1	5.529713E-1	3.902809E-1	4.620514E-1	4.693305E-1	5.690499E-1	4.864555E-1	5.420748E-1	5.205490E-1	5.611929E-1	5.113470E-1	5.107159E-1	5.434609E-1	5.555194E-1	4.748591E-1	4.537231E-1	4.657555E-1	6.135882E-1	4.901858E-1	4.689632E-1	5.223738E-1	5.139200E-1	5.811868E-1	5.362427E-1	5.778050E-1	5.561592E-1	5.094456E-1	5.385558E-1	5.774356E-1	5.355082E-1	4.268407E-1	4.540989E-1	4.867200E-1	5.677002E-1	4.466587E-1	5.164423E-1	5.089004E-1	5.471572E-1	5.237301E-1	5.454452E-1	5.037168E-1	5.614834E-1	5.579235E-1	4.952231E-1	5.074037E-1	5.693571E-1	4.715207E-1	4.399511E-1	4.504196E-1	5.640151E-1	4.830954E-1	5.033178E-1	4.714128E-1	5.808965E-1	5.532549E-1	5.409989E-1	5.395434E-1	5.847558E-1	5.256488E-1	5.345535E-1	6.422762E-1
2.878020E+2	4.367450E-1	4.182389E-1	3.648660E-1	4.439598E-1	4.695080E-1	4.380642E-1	4.532830E-1	4.481051E-1	4.573708E-1	4.246031E-1	4.026373E-1	4.105271E-1	4.659718E-1	4.283477E-1	3.755676E-1	3.981842E-1	4.478864E-1	4.144256E-1	3.906450E-1	4.273307E-1	4.632808E-1	4.160233E-1	4.308071E-1	4.510482E-1	4.719323E-1	4.073528E-1	4.327803E-1	4.471497E-1	4.942345E-1	3.753946E-1	3.683505E-1	4.634571E-1	4.683716E-1	3.617595E-1	3.879056E-1	4.360624E-1	4.582516E-1	4.345927E-1	4.523433E-1	4.296315E-1	4.892312E-1	4.170551E-1	3.942388E-1	5.119684E-1	4.602843E-1	3.726878E-1	3.671479E-1	4.474832E-1	4.699130E-1	3.819465E-1	4.091289E-1	4.865521E-1	4.832944E-1	4.713975E-1	4.543291E-1	4.505045E-1	4.627779E-1	4.222236E-1	4.435403E-1	4.740307E-1	4.492638E-1	3.584844E-1	3.876436E-1	4.501738E-1	4.473084E-1	3.894029E-1	4.028819E-1	4.461356E-1	5.063083E-1	4.478628E-1	4.436800E-1	4.563130E-1	4.671755E-1	4.395275E-1	4.271286E-1	4.576733E-1	4.734376E-1	3.552512E-1	3.747025E-1	4.659592E-1	4.521502E-1	4.022544E-1	3.982790E-1	4.326844E-1	4.793113E-1	4.363239E-1	4.473778E-1	4.921778E-1	4.232217E-1	4.223835E-1	4.783693E-1	4.560441E-1	3.960931E-1	3.947158E-1	4.150454E-1	5.045419E-1	4.096105E-1	3.824593E-1	4.582969E-1	4.723244E-1	4.637918E-1	4.634529E-1	4.511708E-1	4.331570E-1	4.221700E-1	3.945991E-1	3.780589E-1	4.787567E-1	3.712620E-1	3.697689E-1	3.621327E-1	4.886423E-1	3.566929E-1	3.888540E-1	3.972988E-1	4.582447E-1	4.191834E-1	4.305142E-1	4.451833E-1	4.684946E-1	4.377283E-1	4.320563E-1	4.565905E-1	4.559125E-1	4.053407E-1	3.994507E-1	4.084350E-1	4.375966E-1	4.245711E-1	3.844036E-1	4.321232E-1	4.519061E-1	4.544431E-1	4.469299E-1	4.869593E-1	4.704216E-1	4.401584E-1	4.465122E-1	4.372758E-1	4.611750E-1	3.724987E-1	4.040790E-1	4.219313E-1	4.712347E-1	3.921472E-1	4.256338E-1	4.431622E-1	4.906759E-1	4.285376E-1	4.385109E-1	4.465701E-1	4.820457E-1	4.071738E-1	4.266960E-1	4.333692E-1	4.886266E-1	3.782470E-1	3.914060E-1	3.903347E-1	4.827925E-1	3.621307E-1	4.051718E-1	4.002156E-1	4.693815E-1	4.240455E-1	4.508891E-1	4.378610E-1	4.513193E-1	4.156778E-1	4.570850E-1	3.910822E-1
2.880020E+2	5.124122E-1	5.220125E-1	3.879555E-1	5.193027E-1	5.139692E-1	5.323758E-1	5.184443E-1	5.875892E-1	5.294896E-1	4.826297E-1	4.604006E-1	5.090618E-1	5.292288E-1	4.758173E-1	4.295857E-1	4.694174E-1	5.128481E-1	4.322947E-1	4.502348E-1	4.587525E-1	5.677681E-1	5.010056E-1	5.129502E-1	5.385940E-1	5.631379E-1	4.766869E-1	4.578872E-1	4.955059E-1	5.190761E-1	3.978993E-1	4.626822E-1	5.039001E-1	5.220485E-1	4.522403E-1	4.306261E-1	5.002089E-1	5.204016E-1	5.151596E-1	5.096894E-1	5.189339E-1	5.276643E-1	5.030571E-1	4.732688E-1	5.432952E-1	5.102235E-1	4.456962E-1	4.548055E-1	5.073323E-1	5.273329E-1	4.797768E-1	4.748373E-1	5.366721E-1	5.244285E-1	5.148745E-1	5.150611E-1	5.452267E-1	5.353311E-1	5.037687E-1	5.203191E-1	5.450751E-1	5.465507E-1	4.835087E-1	4.853011E-1	5.405572E-1	5.265095E-1	4.444206E-1	4.887606E-1	5.624595E-1	5.557970E-1	4.986106E-1	5.403075E-1	5.464954E-1	5.398286E-1	4.792625E-1	5.122137E-1	5.406878E-1	5.594967E-1	4.298857E-1	4.347646E-1	5.500106E-1	5.740957E-1	4.839995E-1	4.865296E-1	5.582017E-1	5.292931E-1	4.908421E-1	4.852224E-1	5.385076E-1	5.432250E-1	4.941714E-1	5.253953E-1	5.495831E-1	5.924611E-1	4.100322E-1	4.678351E-1	5.778700E-1	5.409183E-1	4.427217E-1	5.216708E-1	5.409565E-1	5.273598E-1	5.203783E-1	5.355000E-1	5.285918E-1	5.042135E-1	4.614066E-1	4.682792E-1	5.308036E-1	4.671743E-1	4.294996E-1	4.659735E-1	5.295295E-1	4.747744E-1	4.461390E-1	4.940915E-1	5.220987E-1	5.059855E-1	5.136582E-1	5.184108E-1	5.680784E-1	5.000205E-1	5.027359E-1	5.287869E-1	5.572769E-1	4.991355E-1	4.677593E-1	4.912306E-1	5.299921E-1	4.908044E-1	4.644534E-1	4.935710E-1	5.323919E-1	5.082813E-1	4.963017E-1	5.368460E-1	5.340671E-1	4.961912E-1	4.833302E-1	5.241515E-1	5.191916E-1	4.449541E-1	4.872695E-1	4.644792E-1	5.447057E-1	4.562781E-1	4.811944E-1	4.873555E-1	5.465364E-1	5.186120E-1	5.216206E-1	5.016191E-1	5.086923E-1	5.039970E-1	4.598542E-1	5.049957E-1	5.323808E-1	4.672074E-1	4.524482E-1	4.339449E-1	5.204055E-1	4.749898E-1	4.965318E-1	4.768066E-1	5.427306E-1	4.994639E-1	5.038350E-1	5.239440E-1	5.605568E-1	5.161312E-1	5.361340E-1	5.181923E-1
2.882150E+2	6.318867E-1	6.213840E-1	5.146670E-1	5.996259E-1	6.292169E-1	6.249521E-1	5.964246E-1	6.254808E-1	6.277201E-1	5.550235E-1	5.703037E-1	6.044972E-1	6.280681E-1	5.357542E-1	5.074724E-1	5.689343E-1	6.399458E-1	5.644204E-1	5.276056E-1	5.901504E-1	6.491527E-1	5.939857E-1	5.820707E-1	6.500162E-1	6.254810E-1	5.796215E-1	5.711148E-1	6.013192E-1	6.202846E-1	5.080802E-1	5.369333E-1	6.267268E-1	6.092748E-1	5.665849E-1	5.558071E-1	5.942169E-1	6.546455E-1	6.029204E-1	6.095510E-1	6.441509E-1	6.368368E-1	5.906124E-1	5.312585E-1	5.762705E-1	6.195232E-1	5.475358E-1	4.900494E-1	6.498047E-1	6.484271E-1	5.636317E-1	5.044308E-1	6.418611E-1	6.515219E-1	6.205346E-1	6.140700E-1	6.198404E-1	6.117031E-1	5.793348E-1	6.391414E-1	6.546516E-1	6.391553E-1	5.100701E-1	5.396118E-1	6.348711E-1	6.468469E-1	5.224459E-1	6.126800E-1	6.350875E-1	6.428101E-1	5.867272E-1	5.957342E-1	6.404578E-1	6.255918E-1	5.703196E-1	5.994129E-1	6.548335E-1	6.460562E-1	4.794822E-1	5.185723E-1	6.330110E-1	6.277290E-1	5.427885E-1	5.672167E-1	6.793702E-1	6.633101E-1	6.137758E-1	5.853096E-1	6.583278E-1	6.505291E-1	5.482882E-1	6.248740E-1	6.443134E-1	6.387836E-1	5.158110E-1	5.749380E-1	6.380648E-1	6.843129E-1	5.397551E-1	6.193981E-1	6.004779E-1	6.341541E-1	6.502714E-1	6.590767E-1	6.190560E-1	6.385216E-1	5.250323E-1	5.690516E-1	5.867258E-1	6.706842E-1	5.348780E-1	4.820219E-1	6.565514E-1	6.721013E-1	5.363098E-1	5.317949E-1	6.122448E-1	6.573471E-1	6.257452E-1	5.558261E-1	6.602476E-1	5.862246E-1	6.429544E-1	6.420705E-1	6.463372E-1	6.707246E-1	5.098664E-1	5.644736E-1	6.779352E-1	6.424613E-1	5.501410E-1	6.113452E-1	6.135372E-1	6.266120E-1	5.939346E-1	6.418692E-1	6.461061E-1	6.022311E-1	5.759867E-1	6.069736E-1	6.448931E-1	5.812846E-1	5.246530E-1	5.529591E-1	6.249068E-1	6.176739E-1	5.964974E-1	5.823717E-1	6.768775E-1	5.912864E-1	6.302177E-1	5.933689E-1	6.218160E-1	6.051093E-1	6.057496E-1	5.724089E-1	6.636448E-1	5.416102E-1	5.519418E-1	5.313396E-1	6.032630E-1	5.329773E-1	5.565674E-1	5.620282E-1	6.458965E-1	6.408736E-1	5.908908E-1	6.007830E-1	6.614994E-1	5.690026E-1	6.357361E-1	6.362229E-1
2.884200E+2	6.949419E-1	6.962257E-1	5.636623E-1	6.787044E-1	6.959089E-1	6.729755E-1	6.893608E-1	7.095005E-1	7.029466E-1	6.451021E-1	6.495366E-1	7.079902E-1	7.392622E-1	6.182274E-1	5.924773E-1	6.742126E-1	6.840062E-1	6.239848E-1	6.299656E-1	6.655624E-1	7.116355E-1	7.089618E-1	6.556992E-1	7.470125E-1	7.288084E-1	6.361554E-1	6.267436E-1	7.042891E-1	7.233332E-1	5.859092E-1	6.247276E-1	6.896379E-1	7.043280E-1	6.337002E-1	6.094563E-1	7.059202E-1	7.282305E-1	7.103426E-1	6.733238E-1	7.329677E-1	7.253994E-1	6.641798E-1	6.544227E-1	7.147659E-1	7.132764E-1	5.931074E-1	5.799664E-1	7.197160E-1	7.308630E-1	6.732890E-1	6.423679E-1	7.049750E-1	7.527743E-1	7.337775E-1	7.125681E-1	7.441967E-1	7.404444E-1	6.934980E-1	6.866718E-1	7.365339E-1	7.614135E-1	5.778488E-1	6.188340E-1	7.280624E-1	6.965785E-1	6.159763E-1	6.512969E-1	7.195255E-1	7.477701E-1	6.651560E-1	7.281675E-1	7.365805E-1	7.577875E-1	6.569622E-1	7.495012E-1	7.258331E-1	7.561319E-1	5.647102E-1	6.172787E-1	6.934231E-1	7.541902E-1	5.982187E-1	6.539550E-1	6.936620E-1	7.544856E-1	7.073118E-1	6.639854E-1	7.302192E-1	7.171986E-1	6.537611E-1	7.110893E-1	7.009134E-1	6.997081E-1	6.168034E-1	6.231596E-1	7.606434E-1	7.398027E-1	6.173821E-1	7.337091E-1	7.189135E-1	7.211150E-1	6.983992E-1	7.386326E-1	7.587287E-1	7.302891E-1	6.623585E-1	6.571622E-1	7.511720E-1	7.768207E-1	5.703279E-1	6.014391E-1	7.225150E-1	7.340286E-1	5.819259E-1	6.195832E-1	7.286841E-1	7.512030E-1	7.288861E-1	6.670031E-1	7.163961E-1	7.152149E-1	6.817144E-1	6.919628E-1	7.512173E-1	7.628643E-1	6.268324E-1	6.010941E-1	7.323822E-1	7.192183E-1	5.986225E-1	7.131171E-1	7.197514E-1	6.933486E-1	6.882398E-1	7.426921E-1	7.470984E-1	7.112827E-1	7.023931E-1	6.776327E-1	7.174130E-1	7.199980E-1	6.441739E-1	6.119460E-1	7.544616E-1	7.202834E-1	6.628122E-1	6.685488E-1	7.923228E-1	7.432868E-1	7.393680E-1	7.197199E-1	7.711387E-1	7.478926E-1	6.836715E-1	6.795469E-1	7.067831E-1	7.416370E-1	5.716484E-1	6.069298E-1	7.537158E-1	7.100595E-1	6.359201E-1	6.305287E-1	7.448880E-1	7.162926E-1	6.906733E-1	7.076649E-1	7.313288E-1	6.715696E-1	6.562910E-1	6.604343E-1
2.886040E+2	7.745917E-1	7.672957E-1	6.064627E-1	7.453298E-1	7.900966E-1	8.326694E-1	7.748182E-1	7.869307E-1	7.595224E-1	7.069964E-1	6.602714E-1	7.767781E-1	7.946121E-1	6.796022E-1	6.636641E-1	7.271140E-1	8.297458E-1	7.171218E-1	6.722556E-1	7.129800E-1	7.798935E-1	7.644497E-1	7.308303E-1	7.783503E-1	7.940376E-1	7.310900E-1	6.818805E-1	7.879166E-1	8.125807E-1	6.374829E-1	6.443414E-1	7.360721E-1	7.831660E-1	6.943527E-1	6.854588E-1	7.241693E-1	7.834201E-1	7.189747E-1	7.672531E-1	7.834425E-1	8.033792E-1	7.558805E-1	6.754628E-1	7.774182E-1	8.357675E-1	7.209878E-1	6.391574E-1	8.452402E-1	7.791870E-1	7.141408E-1	7.015555E-1	7.575696E-1	7.965450E-1	7.843325E-1	7.590106E-1	8.637904E-1	7.737207E-1	7.522106E-1	8.195098E-1	7.792801E-1	8.144795E-1	6.712736E-1	7.169905E-1	8.010430E-1	8.451578E-1	6.774955E-1	7.279543E-1	8.010102E-1	8.342398E-1	7.684971E-1	7.816317E-1	8.229828E-1	7.818231E-1	7.143561E-1	7.732829E-1	7.919169E-1	8.161735E-1	6.181587E-1	6.587171E-1	8.058418E-1	8.196798E-1	6.743641E-1	7.064013E-1	7.756834E-1	8.077633E-1	7.810719E-1	7.600891E-1	7.903953E-1	8.327568E-1	7.586819E-1	7.810259E-1	7.807494E-1	8.427043E-1	6.493507E-1	7.196031E-1	8.454634E-1	8.266084E-1	6.490453E-1	7.733918E-1	7.529251E-1	7.953623E-1	7.734373E-1	7.762887E-1	7.801021E-1	7.552062E-1	7.196214E-1	7.104499E-1	8.497281E-1	8.440082E-1	6.261735E-1	6.179592E-1	7.666724E-1	8.158985E-1	6.614881E-1	6.752955E-1	7.712534E-1	8.054541E-1	8.046637E-1	7.781799E-1	7.751935E-1	7.863165E-1	7.478342E-1	7.659198E-1	7.799276E-1	8.334865E-1	6.502255E-1	6.939743E-1	7.912297E-1	8.492095E-1	6.589415E-1	7.201584E-1	7.514180E-1	8.262609E-1	7.708951E-1	8.041312E-1	8.117970E-1	7.781604E-1	7.827775E-1	7.876755E-1	8.201498E-1	7.824436E-1	6.494396E-1	7.207324E-1	7.909167E-1	7.550202E-1	7.601924E-1	7.248961E-1	7.625305E-1	8.507630E-1	7.742737E-1	7.585166E-1	7.887356E-1	8.024323E-1	7.240139E-1	7.602020E-1	7.986058E-1	7.923175E-1	6.581648E-1	6.025694E-1	7.886036E-1	7.867535E-1	7.116175E-1	7.254589E-1	8.725035E-1	7.584385E-1	7.146009E-1	7.498397E-1	8.212081E-1	7.974018E-1	7.226922E-1	7.935955E-1
2.888230E+2	8.708353E-1	9.037734E-1	7.331742E-1	9.122037E-1	8.860385E-1	9.211949E-1	8.741630E-1	9.302584E-1	9.012723E-1	8.479163E-1	7.890879E-1	8.746931E-1	9.171730E-1	7.937221E-1	7.390383E-1	8.234883E-1	9.670107E-1	8.275876E-1	7.515484E-1	8.666586E-1	9.127349E-1	8.604292E-1	8.375162E-1	8.718647E-1	9.250733E-1	7.902908E-1	7.690165E-1	8.886101E-1	8.903272E-1	7.167188E-1	7.424085E-1	8.688852E-1	9.313380E-1	7.808565E-1	7.599710E-1	8.203894E-1	8.962840E-1	8.451003E-1	8.750247E-1	8.606115E-1	8.780168E-1	8.076887E-1	7.929818E-1	8.950295E-1	8.871197E-1	7.660951E-1	7.674812E-1	9.125040E-1	9.753260E-1	7.404800E-1	8.129076E-1	9.363915E-1	8.482263E-1	8.793760E-1	9.264069E-1	9.103581E-1	8.970071E-1	8.114670E-1	8.822733E-1	8.689892E-1	9.393386E-1	7.079108E-1	7.827602E-1	9.262334E-1	9.114664E-1	7.675249E-1	8.616716E-1	8.594674E-1	9.935827E-1	8.381601E-1	9.106320E-1	9.083055E-1	9.020005E-1	7.883057E-1	8.657664E-1	8.978703E-1	9.012322E-1	6.879780E-1	7.304185E-1	9.077536E-1	9.060574E-1	7.589082E-1	8.264224E-1	9.105227E-1	9.302452E-1	8.227622E-1	8.462343E-1	9.155406E-1	9.248233E-1	8.194260E-1	9.046213E-1	8.987155E-1	9.061461E-1	7.139668E-1	7.850836E-1	9.166026E-1	9.128646E-1	7.098188E-1	8.847410E-1	8.561768E-1	9.128357E-1	8.577905E-1	9.157773E-1	8.949223E-1	9.168625E-1	8.367990E-1	7.816769E-1	8.585874E-1	9.087611E-1	7.257248E-1	7.411529E-1	9.367618E-1	9.198097E-1	8.057620E-1	7.720879E-1	8.889441E-1	9.258921E-1	8.799141E-1	8.663734E-1	9.537038E-1	9.071275E-1	8.629730E-1	9.396602E-1	8.684022E-1	9.532129E-1	7.306982E-1	8.011842E-1	9.116742E-1	8.640661E-1	7.660506E-1	8.264113E-1	9.031529E-1	8.772944E-1	8.441199E-1	9.333097E-1	9.259387E-1	9.426424E-1	9.245246E-1	8.786060E-1	9.053614E-1	8.920795E-1	7.457938E-1	7.594123E-1	8.795308E-1	8.977112E-1	8.587679E-1	7.878715E-1	9.239052E-1	9.147358E-1	8.828706E-1	9.194705E-1	9.159364E-1	9.207034E-1	7.953042E-1	8.179847E-1	9.083003E-1	9.190190E-1	7.485262E-1	7.246770E-1	8.829085E-1	9.064708E-1	8.337780E-1	7.713051E-1	9.214029E-1	8.843214E-1	8.347476E-1	8.728978E-1	9.518797E-1	9.348640E-1	8.539159E-1	8.632063E-1
2.890230E+2	8.256998E-1	7.981128E-1	6.858686E-1	8.449566E-1	8.638088E-1	8.251473E-1	8.319682E-1	8.725972E-1	8.558873E-1	7.534169E-1	7.691515E-1	8.059052E-1	7.970828E-1	7.596775E-1	7.088886E-1	7.794916E-1	8.619438E-1	7.880581E-1	7.404955E-1	7.615398E-1	8.570780E-1	8.459330E-1	7.949422E-1	8.067028E-1	8.846658E-1	7.625569E-1	7.217560E-1	8.180685E-1	8.194809E-1	6.599880E-1	7.139228E-1	8.663890E-1	8.469080E-1	6.918668E-1	7.078119E-1	7.966106E-1	8.256820E-1	7.779616E-1	8.122403E-1	8.368301E-1	8.178612E-1	7.538080E-1	7.442292E-1	8.147903E-1	8.188068E-1	7.130828E-1	6.734978E-1	8.176991E-1	8.667395E-1	7.958457E-1	7.517143E-1	8.417211E-1	8.229132E-1	8.187097E-1	8.325021E-1	8.145767E-1	8.735503E-1	7.804800E-1	7.994020E-1	8.467126E-1	8.456941E-1	7.033312E-1	7.409071E-1	8.796378E-1	8.543679E-1	6.769960E-1	7.608074E-1	8.021920E-1	9.016753E-1	7.961774E-1	8.272480E-1	8.921053E-1	8.085894E-1	7.325676E-1	8.071052E-1	8.585471E-1	8.091686E-1	6.802740E-1	7.052765E-1	8.678296E-1	7.920162E-1	7.409919E-1	7.633861E-1	8.334712E-1	8.291838E-1	8.436075E-1	8.402587E-1	8.798608E-1	8.435513E-1	7.780097E-1	8.352869E-1	8.862044E-1	8.839925E-1	6.694535E-1	7.505667E-1	8.274048E-1	8.628692E-1	6.934772E-1	8.160366E-1	8.792564E-1	8.696094E-1	7.982773E-1	8.775901E-1	8.596316E-1	8.226648E-1	7.795364E-1	7.331372E-1	8.325643E-1	8.517982E-1	6.742496E-1	6.533599E-1	8.691624E-1	8.631304E-1	7.336247E-1	7.293192E-1	8.563917E-1	8.786936E-1	8.146618E-1	7.910087E-1	8.848425E-1	8.611939E-1	7.820333E-1	8.263765E-1	8.654721E-1	8.610731E-1	6.974798E-1	7.666860E-1	8.275280E-1	8.479722E-1	7.350452E-1	7.963274E-1	8.510353E-1	8.666396E-1	8.491125E-1	8.424647E-1	8.496687E-1	8.396148E-1	8.042543E-1	8.658636E-1	8.636620E-1	8.482258E-1	7.236795E-1	7.507093E-1	8.111076E-1	8.549575E-1	7.882713E-1	7.828994E-1	8.717691E-1	8.476919E-1	8.429783E-1	7.810610E-1	8.043218E-1	8.392002E-1	7.859088E-1	8.161794E-1	8.195584E-1	8.564774E-1	6.903680E-1	7.052944E-1	8.382089E-1	8.385066E-1	7.497274E-1	6.930958E-1	8.754858E-1	8.793303E-1	8.159112E-1	8.197458E-1	8.792842E-1	8.862234E-1	8.064858E-1	8.601784E-1
2.892010E+2	7.135277E-1	6.874214E-1	5.856257E-1	6.955164E-1	7.315951E-1	7.290993E-1	7.363619E-1	7.265239E-1	6.936213E-1	6.511807E-1	6.418687E-1	7.203843E-1	7.190003E-1	6.201449E-1	5.828465E-1	6.784031E-1	7.241122E-1	6.461861E-1	6.083407E-1	6.861288E-1	7.336882E-1	6.944645E-1	6.687218E-1	7.385569E-1	7.028325E-1	6.478890E-1	6.292049E-1	6.872221E-1	7.541554E-1	5.493387E-1	6.041799E-1	6.821484E-1	7.596823E-1	6.163000E-1	6.352869E-1	6.932015E-1	7.421528E-1	6.969149E-1	7.168282E-1	7.247172E-1	7.059039E-1	7.045905E-1	6.313291E-1	7.175135E-1	7.509657E-1	6.396099E-1	5.844846E-1	7.504353E-1	7.649745E-1	6.351236E-1	6.508945E-1	7.278685E-1	7.174411E-1	7.312500E-1	6.630638E-1	7.357299E-1	7.284432E-1	6.668598E-1	7.433405E-1	7.479729E-1	7.640151E-1	5.838025E-1	6.626807E-1	7.252554E-1	7.088576E-1	5.859662E-1	6.755046E-1	7.212969E-1	7.341745E-1	6.471634E-1	7.188480E-1	7.814023E-1	7.441305E-1	6.508919E-1	6.770994E-1	7.121791E-1	7.531301E-1	5.820448E-1	6.205379E-1	7.186386E-1	7.733853E-1	6.603668E-1	7.008537E-1	7.905968E-1	7.435005E-1	6.859323E-1	6.883844E-1	7.541833E-1	7.222776E-1	6.521044E-1	7.062666E-1	7.027009E-1	7.389816E-1	6.120169E-1	6.135157E-1	7.382074E-1	7.491422E-1	6.173818E-1	7.040948E-1	7.462445E-1	6.967047E-1	6.947766E-1	7.349199E-1	7.149877E-1	7.515599E-1	6.915200E-1	6.682419E-1	7.450815E-1	7.271605E-1	6.091774E-1	5.962471E-1	7.405053E-1	7.193338E-1	6.376195E-1	5.987619E-1	7.061474E-1	7.490325E-1	6.946810E-1	6.792967E-1	7.624803E-1	7.082926E-1	7.284538E-1	6.831580E-1	7.553186E-1	7.336226E-1	5.996964E-1	6.334697E-1	7.461322E-1	7.545021E-1	6.183525E-1	6.945554E-1	7.256894E-1	7.769093E-1	6.987794E-1	7.621216E-1	7.697163E-1	7.377928E-1	6.987118E-1	7.338120E-1	7.427949E-1	7.485994E-1	6.199540E-1	6.235494E-1	7.611923E-1	7.608990E-1	6.628124E-1	6.751780E-1	7.550825E-1	7.345868E-1	7.615307E-1	7.060890E-1	7.615861E-1	7.815973E-1	6.637770E-1	7.301073E-1	7.209571E-1	7.351672E-1	6.173097E-1	6.108067E-1	7.368168E-1	7.512124E-1	6.453165E-1	6.008625E-1	7.580074E-1	7.279385E-1	6.942369E-1	6.914880E-1	7.403168E-1	7.403013E-1	7.606367E-1	7.300413E-1
2.894050E+2	6.172845E-1	5.817607E-1	4.842565E-1	5.965124E-1	6.046466E-1	5.896569E-1	6.076411E-1	6.040635E-1	5.823349E-1	6.097340E-1	5.237866E-1	5.648361E-1	6.083003E-1	5.937734E-1	4.639225E-1	6.024554E-1	5.958850E-1	5.828311E-1	5.011745E-1	5.735831E-1	6.087229E-1	5.759895E-1	5.630375E-1	6.027613E-1	5.937322E-1	6.068219E-1	5.095779E-1	5.848220E-1	6.189043E-1	5.582467E-1	4.743572E-1	5.902785E-1	6.064781E-1	6.003911E-1	5.185509E-1	5.770739E-1	5.646523E-1	6.024402E-1	5.976864E-1	5.664969E-1	5.928335E-1	5.450214E-1	5.322849E-1	5.658278E-1	5.936113E-1	5.261443E-1	4.923085E-1	6.280892E-1	6.222757E-1	5.722323E-1	5.340245E-1	6.214417E-1	6.030052E-1	6.190182E-1	5.865109E-1	6.261905E-1	6.177039E-1	5.478037E-1	5.995344E-1	5.697598E-1	5.897313E-1	4.935837E-1	5.316390E-1	6.202751E-1	6.106228E-1	5.184447E-1	5.527378E-1	5.919823E-1	6.482489E-1	5.636600E-1	5.981862E-1	6.172374E-1	5.873532E-1	5.664565E-1	5.544921E-1	6.231572E-1	6.305459E-1	4.616660E-1	4.780652E-1	6.498212E-1	6.057113E-1	5.181531E-1	5.228389E-1	6.190970E-1	5.979498E-1	5.934647E-1	5.544368E-1	6.103998E-1	6.314813E-1	5.560193E-1	5.935234E-1	6.252484E-1	6.357624E-1	4.756052E-1	5.475281E-1	6.079672E-1	6.112420E-1	4.963456E-1	5.850457E-1	6.174837E-1	6.133039E-1	6.047315E-1	6.235419E-1	6.081209E-1	6.160361E-1	5.462410E-1	5.242050E-1	6.166253E-1	6.098257E-1	5.062265E-1	4.744697E-1	6.358347E-1	6.458607E-1	5.198673E-1	5.222285E-1	6.072369E-1	6.128616E-1	5.783850E-1	5.317733E-1	6.019800E-1	6.095053E-1	5.745558E-1	5.675264E-1	5.818855E-1	6.436898E-1	5.117379E-1	5.374058E-1	6.212875E-1	6.350337E-1	5.151891E-1	5.812615E-1	5.911068E-1	6.221260E-1	5.423448E-1	6.108876E-1	5.992918E-1	6.341627E-1	5.661697E-1	6.075520E-1	5.657251E-1	5.984450E-1	5.283389E-1	5.505415E-1	6.052769E-1	6.235523E-1	5.743930E-1	5.409404E-1	6.340519E-1	5.759321E-1	5.991902E-1	6.096213E-1	6.017055E-1	6.002073E-1	5.416440E-1	5.934755E-1	6.242043E-1	6.052312E-1	5.202188E-1	5.201951E-1	6.048987E-1	6.346130E-1	5.544789E-1	5.064723E-1	5.928223E-1	5.931826E-1	5.837633E-1	5.545641E-1	6.186333E-1	6.102407E-1	5.993748E-1	5.787206E-1
2.896110E+2	5.396260E-1	5.515719E-1	4.234351E-1	5.479449E-1	5.496550E-1	5.757705E-1	5.462184E-1	5.403628E-1	5.804701E-1	5.749177E-1	4.890269E-1	5.226951E-1	5.737063E-1	5.549342E-1	4.450793E-1	5.144619E-1	5.506951E-1	5.855388E-1	4.367793E-1	5.050275E-1	5.604170E-1	5.514947E-1	5.409995E-1	5.510297E-1	5.793011E-1	5.401542E-1	4.761019E-1	5.324835E-1	5.347177E-1	5.873159E-1	4.584794E-1	5.403485E-1	5.572744E-1	5.581332E-1	4.549670E-1	5.356000E-1	5.512281E-1	5.789416E-1	5.546765E-1	5.597023E-1	5.699961E-1	5.356957E-1	4.486365E-1	5.432953E-1	5.691136E-1	5.526506E-1	4.376355E-1	5.253401E-1	5.733836E-1	5.432054E-1	4.783480E-1	5.552348E-1	5.413041E-1	5.356022E-1	5.426204E-1	5.314681E-1	5.462415E-1	5.282326E-1	5.221467E-1	5.613308E-1	5.647594E-1	4.702270E-1	4.892877E-1	5.506626E-1	5.522965E-1	5.249470E-1	5.100865E-1	5.488784E-1	5.628672E-1	5.281370E-1	5.466844E-1	5.529755E-1	5.250798E-1	4.880919E-1	5.217262E-1	5.647189E-1	5.479885E-1	4.443315E-1	4.850492E-1	5.689218E-1	5.639332E-1	4.957571E-1	4.860255E-1	5.432894E-1	5.512634E-1	5.480329E-1	5.250578E-1	6.013464E-1	5.711623E-1	4.914098E-1	5.470999E-1	5.442207E-1	5.828943E-1	4.521523E-1	4.993058E-1	5.559811E-1	5.431163E-1	4.682573E-1	5.305553E-1	5.585698E-1	5.955045E-1	5.203781E-1	5.402728E-1	5.350537E-1	5.595171E-1	4.873866E-1	4.819973E-1	5.451998E-1	5.416653E-1	4.484386E-1	4.220771E-1	5.829546E-1	5.660906E-1	4.418959E-1	4.513226E-1	5.496432E-1	5.564394E-1	5.331290E-1	5.168071E-1	5.596035E-1	5.780447E-1	5.158462E-1	5.469824E-1	5.361838E-1	5.741718E-1	5.075273E-1	4.790240E-1	5.981884E-1	5.787032E-1	4.605073E-1	5.492575E-1	5.060036E-1	5.430516E-1	5.306947E-1	5.741294E-1	5.498474E-1	5.889761E-1	5.250569E-1	5.531099E-1	5.687468E-1	5.503005E-1	4.751594E-1	4.780171E-1	5.447058E-1	5.556809E-1	5.260018E-1	5.205004E-1	5.781908E-1	5.641611E-1	5.493243E-1	5.288822E-1	5.639969E-1	5.499572E-1	4.913542E-1	5.152281E-1	5.835309E-1	5.577851E-1	4.409125E-1	4.513885E-1	5.825489E-1	5.572956E-1	5.048841E-1	4.784253E-1	5.439231E-1	5.466008E-1	4.972166E-1	5.320323E-1	5.833725E-1	5.372801E-1	4.776378E-1	5.212186E-1
2.898020E+2	5.781227E-1	6.056604E-1	4.943937E-1	6.394768E-1	6.093261E-1	5.717209E-1	5.836065E-1	6.238332E-1	6.146642E-1	6.218913E-1	5.130521E-1	5.846666E-1	6.097830E-1	6.474762E-1	4.886288E-1	5.212705E-1	5.908015E-1	6.288580E-1	5.107860E-1	5.478742E-1	6.029471E-1	6.009840E-1	5.720534E-1	6.440473E-1	6.427980E-1	5.902882E-1	5.071162E-1	5.836843E-1	5.830217E-1	6.196666E-1	4.958387E-1	5.912770E-1	6.075971E-1	6.003913E-1	4.986805E-1	6.174427E-1	6.039311E-1	6.388878E-1	5.902712E-1	5.985294E-1	6.351653E-1	6.051187E-1	5.009807E-1	6.075968E-1	6.176390E-1	5.945028E-1	4.828199E-1	6.090224E-1	6.023777E-1	6.168475E-1	4.974087E-1	5.929787E-1	5.961486E-1	6.084012E-1	6.140697E-1	5.902066E-1	5.789719E-1	6.097783E-1	5.794260E-1	5.848114E-1	5.949343E-1	6.305149E-1	5.112107E-1	6.000653E-1	6.351817E-1	6.024715E-1	6.011529E-1	5.902116E-1	6.275829E-1	6.139469E-1	5.913194E-1	6.247974E-1	6.173979E-1	6.260577E-1	5.544920E-1	6.166033E-1	5.690028E-1	5.969716E-1	5.092600E-1	6.119984E-1	6.141795E-1	6.088566E-1	5.520877E-1	6.277964E-1	6.468325E-1	6.030856E-1	5.952686E-1	6.551327E-1	6.130684E-1	5.957789E-1	6.333152E-1	6.014165E-1	6.126010E-1	5.311271E-1	5.353457E-1	6.517456E-1	6.101434E-1	5.576300E-1	5.992609E-1	5.798275E-1	5.995726E-1	6.099062E-1	6.065697E-1	5.782977E-1	6.002348E-1	5.589661E-1	5.231504E-1	6.526150E-1	5.840223E-1	4.989425E-1	4.942941E-1	5.982192E-1	6.028272E-1	5.453270E-1	5.166007E-1	6.009770E-1	6.237112E-1	6.025916E-1	5.344459E-1	6.125740E-1	6.145391E-1	5.654351E-1	6.244618E-1	5.900885E-1	6.508627E-1	4.916198E-1	5.570431E-1	6.146880E-1	6.170817E-1	5.275919E-1	5.735802E-1	5.977035E-1	6.142743E-1	5.756287E-1	6.371433E-1	6.250657E-1	6.504302E-1	5.692372E-1	6.000232E-1	6.303888E-1	6.117921E-1	5.330775E-1	5.355529E-1	6.148110E-1	5.882805E-1	5.510934E-1	5.326543E-1	6.464647E-1	6.081748E-1	5.969737E-1	6.201068E-1	6.132684E-1	5.910147E-1	5.504862E-1	5.730109E-1	6.235872E-1	6.046916E-1	5.120480E-1	5.187413E-1	6.092600E-1	5.947071E-1	5.403838E-1	5.345202E-1	6.435108E-1	5.820912E-1	5.598356E-1	5.603416E-1	6.186330E-1	5.986098E-1	5.645927E-1	5.938528E-1
2.900050E+2	6.365326E-1	6.018866E-1	6.120943E-1	6.189284E-1	6.099122E-1	6.070155E-1	6.578478E-1	6.419550E-1	6.215026E-1	6.296282E-1	5.493459E-1	5.896238E-1	6.344927E-1	6.153503E-1	5.162659E-1	5.458887E-1	6.218695E-1	5.996175E-1	4.968497E-1	5.787250E-1	6.123983E-1	5.899866E-1	5.585298E-1	6.460369E-1	6.179768E-1	6.313554E-1	5.307463E-1	6.092837E-1	6.511069E-1	6.426400E-1	5.233910E-1	5.967688E-1	6.193386E-1	6.197803E-1	5.264989E-1	6.356909E-1	5.745960E-1	6.096339E-1	6.120227E-1	6.295908E-1	6.212401E-1	6.305047E-1	5.718001E-1	6.246340E-1	6.350706E-1	6.372844E-1	4.909532E-1	6.344448E-1	6.211384E-1	6.232984E-1	5.320180E-1	6.004046E-1	6.351735E-1	6.276122E-1	6.207048E-1	6.182530E-1	6.417060E-1	6.070597E-1	6.202523E-1	5.980569E-1	6.526824E-1	6.044109E-1	5.729943E-1	6.309409E-1	6.750891E-1	6.149758E-1	6.184441E-1	6.439445E-1	6.406352E-1	6.374749E-1	5.962242E-1	6.442381E-1	6.316007E-1	5.940499E-1	6.025836E-1	6.526492E-1	6.415531E-1	6.090099E-1	5.073975E-1	6.130488E-1	6.520047E-1	6.536481E-1	5.636868E-1	6.240681E-1	6.374954E-1	6.111034E-1	5.534406E-1	6.764339E-1	6.397358E-1	6.228374E-1	6.055810E-1	6.103538E-1	6.156220E-1	6.158454E-1	5.353461E-1	6.490097E-1	6.266251E-1	6.071679E-1	5.761615E-1	6.089808E-1	6.117778E-1	6.435440E-1	6.442261E-1	6.116003E-1	6.391296E-1	6.008529E-1	5.563895E-1	6.426486E-1	6.580257E-1	5.533314E-1	5.065665E-1	6.156642E-1	6.542579E-1	5.829861E-1	5.171635E-1	6.466756E-1	6.394445E-1	6.794207E-1	6.183630E-1	6.570691E-1	6.095058E-1	5.751257E-1	6.227006E-1	5.818861E-1	6.149997E-1	5.379385E-1	5.241370E-1	6.229376E-1	6.517467E-1	5.478859E-1	5.787009E-1	6.326691E-1	6.451193E-1	5.861682E-1	6.030111E-1	6.155980E-1	6.329579E-1	5.870325E-1	5.855440E-1	6.666488E-1	6.055953E-1	5.257060E-1	5.742327E-1	6.086419E-1	6.144673E-1	5.845495E-1	5.348636E-1	6.638438E-1	5.912860E-1	6.235685E-1	6.206310E-1	6.278495E-1	6.639390E-1	5.609868E-1	5.808353E-1	6.747372E-1	5.966044E-1	5.005129E-1	5.231022E-1	6.261582E-1	6.558125E-1	5.043621E-1	5.517800E-1	6.172727E-1	6.347739E-1	5.751085E-1	5.736300E-1	6.829321E-1	6.567657E-1	5.772400E-1	5.877999E-1
2.905110E+2	5.967080E-1	6.044024E-1	6.092781E-1	6.002494E-1	5.473149E-1	6.087508E-1	5.942884E-1	5.969250E-1	6.221243E-1	6.379175E-1	5.089629E-1	5.512024E-1	6.280682E-1	6.062399E-1	4.614100E-1	5.416984E-1	5.789389E-1	5.996175E-1	5.026164E-1	5.667272E-1	6.249999E-1	5.529945E-1	5.740568E-1	5.614756E-1	5.937323E-1	6.201554E-1	5.509302E-1	5.558085E-1	5.798015E-1	5.873158E-1	5.112488E-1	5.902781E-1	6.115104E-1	6.103344E-1	4.991777E-1	5.798390E-1	6.044283E-1	6.062770E-1	5.784062E-1	5.897928E-1	6.401782E-1	6.040823E-1	5.076525E-1	5.696746E-1	5.926695E-1	6.237988E-1	4.787533E-1	5.825408E-1	6.268239E-1	5.888959E-1	5.119542E-1	6.096855E-1	6.051141E-1	5.720016E-1	5.921251E-1	5.870318E-1	5.882459E-1	5.880324E-1	5.903937E-1	5.944448E-1	6.214668E-1	6.012052E-1	5.381170E-1	6.337481E-1	5.762408E-1	5.989708E-1	5.734869E-1	5.978876E-1	6.547748E-1	5.728868E-1	5.785661E-1	6.069772E-1	6.086577E-1	6.310243E-1	5.692899E-1	5.909343E-1	5.945208E-1	5.834897E-1	4.864462E-1	5.920357E-1	6.074048E-1	6.301324E-1	5.394804E-1	5.917565E-1	5.737826E-1	5.918615E-1	5.574245E-1	6.130623E-1	5.705275E-1	6.255982E-1	5.513197E-1	5.960547E-1	6.362659E-1	5.765979E-1	5.617409E-1	6.134399E-1	6.057479E-1	5.775472E-1	5.773458E-1	5.925822E-1	6.082183E-1	6.228436E-1	5.943712E-1	5.753150E-1	5.832186E-1	5.722213E-1	4.909661E-1	6.260377E-1	5.660081E-1	6.043210E-1	4.560618E-1	5.862257E-1	6.217198E-1	6.084466E-1	4.997187E-1	6.053585E-1	6.155738E-1	6.173260E-1	5.627746E-1	6.369408E-1	5.906287E-1	5.984953E-1	5.998095E-1	5.930183E-1	5.934817E-1	6.216861E-1	5.193609E-1	5.882890E-1	6.177009E-1	6.065143E-1	5.601385E-1	6.273910E-1	6.299775E-1	5.928254E-1	5.930333E-1	6.013954E-1	6.010254E-1	5.581923E-1	5.924939E-1	5.826461E-1	6.008286E-1	5.104369E-1	5.186306E-1	5.974255E-1	6.075202E-1	5.731981E-1	5.287871E-1	6.117071E-1	5.948683E-1	6.119333E-1	5.881257E-1	6.268436E-1	6.192038E-1	5.427497E-1	5.399063E-1	6.205060E-1	5.836650E-1	4.899382E-1	5.080809E-1	6.038086E-1	6.034363E-1	5.215899E-1	5.431497E-1	6.125017E-1	6.076011E-1	5.878360E-1	5.620750E-1	6.241643E-1	5.742887E-1	5.551059E-1	6.301705E-1
2.910060E+2	6.385245E-1	6.540882E-1	6.396890E-1	6.139472E-1	6.450124E-1	6.423092E-1	6.375516E-1	6.326195E-1	6.749697E-1	6.533914E-1	5.565022E-1	5.983001E-1	6.424002E-1	6.570661E-1	4.932351E-1	5.647440E-1	6.337321E-1	6.483523E-1	5.588425E-1	5.855805E-1	6.601793E-1	5.974849E-1	5.805683E-1	6.211658E-1	6.641566E-1	6.228223E-1	5.592993E-1	6.422799E-1	6.635280E-1	6.562370E-1	5.364664E-1	6.187381E-1	6.545647E-1	6.754612E-1	5.657423E-1	6.030648E-1	6.496735E-1	6.954756E-1	6.505832E-1	6.329881E-1	6.663570E-1	6.543366E-1	5.610230E-1	6.372742E-1	6.199944E-1	6.470501E-1	5.216783E-1	6.317970E-1	6.757163E-1	6.587752E-1	5.565955E-1	6.659926E-1	6.483577E-1	6.478341E-1	6.222354E-1	6.574121E-1	6.226132E-1	6.407651E-1	6.373140E-1	6.630808E-1	6.479992E-1	6.566188E-1	5.739911E-1	6.371162E-1	6.849126E-1	6.459856E-1	6.011526E-1	6.528012E-1	6.830544E-1	6.379369E-1	6.192779E-1	6.296580E-1	6.610985E-1	6.691032E-1	6.083973E-1	6.056801E-1	6.075294E-1	6.138247E-1	5.176408E-1	6.408914E-1	6.700708E-1	6.424501E-1	5.752853E-1	5.917566E-1	6.600148E-1	6.447760E-1	6.415775E-1	6.625874E-1	6.352914E-1	6.278076E-1	6.483875E-1	6.431222E-1	6.548956E-1	6.828552E-1	5.495582E-1	6.386122E-1	6.332185E-1	6.281070E-1	6.016295E-1	6.794349E-1	6.311026E-1	6.523417E-1	6.383924E-1	6.155768E-1	6.762014E-1	6.316059E-1	5.400335E-1	6.509541E-1	6.458545E-1	6.349146E-1	5.032623E-1	6.401960E-1	6.222448E-1	6.264807E-1	5.458638E-1	5.965943E-1	6.161163E-1	6.736322E-1	5.857586E-1	6.766678E-1	6.189435E-1	6.480849E-1	6.561579E-1	6.492669E-1	6.398277E-1	6.633256E-1	5.395285E-1	6.471360E-1	6.480325E-1	6.916380E-1	5.851022E-1	6.491621E-1	6.097880E-1	6.588389E-1	6.408194E-1	6.492622E-1	6.353678E-1	6.735530E-1	6.434610E-1	6.340143E-1	6.251393E-1	6.436480E-1	5.239493E-1	6.097640E-1	6.390508E-1	6.789428E-1	5.553031E-1	6.414993E-1	6.388818E-1	6.313256E-1	6.337379E-1	6.363959E-1	6.492317E-1	6.383556E-1	5.621765E-1	6.562495E-1	6.370407E-1	6.451871E-1	5.424844E-1	6.457823E-1	6.339886E-1	6.380076E-1	5.760522E-1	6.381439E-1	6.641652E-1	5.807088E-1	6.134934E-1	6.677218E-1	6.440777E-1	5.582683E-1	5.847733E-1
2.915140E+2	7.161822E-1	7.371070E-1	7.624583E-1	6.861766E-1	7.643557E-1	7.516647E-1	6.925649E-1	7.446459E-1	7.153808E-1	7.561804E-1	6.899196E-1	7.203846E-1	7.619951E-1	7.889270E-1	5.970840E-1	7.098295E-1	7.433192E-1	7.793943E-1	6.799445E-1	6.998401E-1	8.113970E-1	7.154599E-1	6.772372E-1	7.291054E-1	7.761430E-1	7.662904E-1	6.341281E-1	7.645927E-1	7.504756E-1	7.612596E-1	6.177229E-1	7.136042E-1	7.602420E-1	7.296502E-1	6.432348E-1	6.920961E-1	6.914380E-1	7.434325E-1	7.375919E-1	7.062743E-1	7.471221E-1	7.216868E-1	6.282504E-1	7.059722E-1	7.500237E-1	7.391236E-1	5.862918E-1	7.266015E-1	7.604265E-1	7.625190E-1	6.599231E-1	7.427194E-1	7.411726E-1	8.030380E-1	7.482931E-1	7.838847E-1	6.940761E-1	7.391637E-1	7.469973E-1	7.190735E-1	7.447656E-1	7.285191E-1	6.656701E-1	7.381666E-1	7.444677E-1	7.250111E-1	7.204613E-1	7.401922E-1	8.005220E-1	7.638831E-1	7.316003E-1	7.571012E-1	7.566946E-1	7.717495E-1	6.934823E-1	7.334787E-1	7.241101E-1	7.679099E-1	6.265905E-1	7.569869E-1	8.044361E-1	7.818644E-1	6.463907E-1	7.178958E-1	7.698648E-1	7.511400E-1	7.102946E-1	7.925257E-1	7.667232E-1	7.012514E-1	7.430431E-1	7.432149E-1	7.550938E-1	7.441207E-1	6.373728E-1	7.502458E-1	7.463951E-1	7.317791E-1	7.011332E-1	7.298454E-1	7.439991E-1	7.692971E-1	7.476489E-1	7.517702E-1	7.047647E-1	7.063664E-1	6.429168E-1	7.506183E-1	7.670839E-1	7.461209E-1	6.344795E-1	7.721241E-1	7.345528E-1	7.320338E-1	6.449074E-1	7.687490E-1	7.842960E-1	7.746684E-1	6.664689E-1	7.810198E-1	7.466759E-1	7.848836E-1	7.459625E-1	7.447721E-1	7.667263E-1	7.601733E-1	6.451463E-1	7.153330E-1	7.328365E-1	7.547759E-1	7.284789E-1	7.547167E-1	7.247545E-1	7.769972E-1	7.505689E-1	7.497282E-1	7.624949E-1	7.269378E-1	6.741570E-1	7.742206E-1	7.628996E-1	7.431608E-1	6.564272E-1	7.404406E-1	7.571586E-1	7.631798E-1	6.740728E-1	8.059773E-1	7.550581E-1	7.654085E-1	7.223412E-1	7.510277E-1	7.748567E-1	7.201454E-1	7.144581E-1	7.918269E-1	7.189927E-1	7.629455E-1	6.214667E-1	7.591675E-1	7.281416E-1	7.486833E-1	6.601942E-1	7.586033E-1	7.717477E-1	7.161281E-1	7.278858E-1	7.928622E-1	7.551054E-1	7.258540E-1	7.391207E-1
2.920010E+2	6.199391E-1	6.477986E-1	6.560209E-1	6.724784E-1	6.602230E-1	6.301594E-1	6.407566E-1	6.375619E-1	6.693743E-1	6.533912E-1	6.040413E-1	6.714275E-1	6.448708E-1	7.026180E-1	5.443220E-1	6.113600E-1	6.405105E-1	6.602648E-1	5.722984E-1	6.204294E-1	6.664805E-1	6.619709E-1	6.191352E-1	6.475293E-1	6.531891E-1	6.612228E-1	5.671760E-1	6.576399E-1	6.630679E-1	6.440468E-1	5.224569E-1	6.377111E-1	6.540053E-1	6.794380E-1	5.717031E-1	6.246312E-1	6.442044E-1	6.738951E-1	6.194383E-1	6.354148E-1	6.429633E-1	6.843851E-1	5.743663E-1	6.559604E-1	6.647506E-1	6.535602E-1	5.130936E-1	6.460968E-1	6.893610E-1	6.829639E-1	5.831799E-1	6.697053E-1	6.462483E-1	6.872671E-1	6.334633E-1	6.452412E-1	6.624357E-1	6.641419E-1	6.562042E-1	6.444169E-1	6.573639E-1	6.662358E-1	6.083708E-1	6.657472E-1	6.493026E-1	6.549889E-1	5.838617E-1	6.409923E-1	6.797912E-1	6.545449E-1	6.487072E-1	6.258776E-1	6.550900E-1	6.845557E-1	5.983558E-1	6.646645E-1	7.065975E-1	6.542723E-1	5.553541E-1	6.792397E-1	6.446654E-1	6.413304E-1	5.863796E-1	6.930408E-1	6.435371E-1	6.645523E-1	6.470550E-1	6.854861E-1	6.556091E-1	6.653577E-1	6.290948E-1	6.788691E-1	6.674832E-1	6.737611E-1	5.962572E-1	6.665206E-1	6.414594E-1	6.674311E-1	5.945217E-1	6.399561E-1	6.316106E-1	6.533763E-1	6.596070E-1	6.886440E-1	6.591847E-1	6.581167E-1	5.970150E-1	6.542763E-1	6.779870E-1	6.354001E-1	5.207260E-1	6.958023E-1	6.878455E-1	6.466368E-1	5.925719E-1	6.529357E-1	6.540921E-1	6.578456E-1	6.386747E-1	6.523021E-1	6.397085E-1	6.811446E-1	6.579183E-1	6.697738E-1	6.641041E-1	6.731510E-1	5.729650E-1	6.784849E-1	6.529844E-1	6.972749E-1	6.036640E-1	6.570788E-1	6.613828E-1	6.582841E-1	6.623488E-1	6.450537E-1	6.745303E-1	6.649622E-1	6.498326E-1	6.739005E-1	6.299062E-1	6.731336E-1	5.505416E-1	6.798691E-1	6.876831E-1	6.849172E-1	6.050207E-1	7.259111E-1	6.552597E-1	6.878401E-1	6.353110E-1	6.660596E-1	6.853867E-1	6.726186E-1	6.404234E-1	6.790509E-1	6.602247E-1	6.865226E-1	5.260095E-1	6.937527E-1	6.782596E-1	6.724631E-1	5.636463E-1	6.757132E-1	6.719287E-1	6.504545E-1	5.932723E-1	6.400663E-1	6.705124E-1	6.768431E-1	5.726677E-1
2.925020E+2	7.048983E-1	7.257860E-1	7.416215E-1	7.285184E-1	7.602607E-1	7.418288E-1	7.401013E-1	7.369576E-1	6.929992E-1	7.462331E-1	6.336895E-1	6.906379E-1	7.209771E-1	7.663909E-1	5.811712E-1	6.647850E-1	7.099910E-1	7.339086E-1	6.213159E-1	6.095745E-1	7.525903E-1	7.204591E-1	6.787391E-1	7.425358E-1	7.565165E-1	7.214900E-1	6.218207E-1	6.917735E-1	7.076914E-1	7.246897E-1	6.093165E-1	6.626763E-1	7.255750E-1	7.211984E-1	6.472085E-1	6.909900E-1	7.093375E-1	7.170568E-1	6.649199E-1	7.213194E-1	7.159301E-1	7.403378E-1	6.256845E-1	7.065220E-1	7.330636E-1	7.595850E-1	6.097876E-1	7.467280E-1	7.763445E-1	7.130658E-1	6.132757E-1	7.433379E-1	7.211327E-1	7.575387E-1	7.176719E-1	7.082130E-1	7.497180E-1	7.473181E-1	7.244514E-1	6.986027E-1	7.416444E-1	7.340149E-1	6.253117E-1	7.100975E-1	7.616583E-1	7.645241E-1	6.714696E-1	7.018112E-1	7.472262E-1	7.265146E-1	7.320913E-1	7.457610E-1	7.244652E-1	7.623681E-1	6.908401E-1	6.990718E-1	7.526295E-1	7.250552E-1	6.205381E-1	7.265185E-1	7.462866E-1	7.437917E-1	6.337832E-1	7.104393E-1	7.402049E-1	7.682442E-1	6.868904E-1	7.738873E-1	7.368815E-1	7.349366E-1	7.339997E-1	7.318947E-1	7.374710E-1	7.264113E-1	6.353423E-1	7.721350E-1	7.035419E-1	7.276934E-1	6.981717E-1	7.268094E-1	6.900935E-1	7.454919E-1	7.211303E-1	7.532611E-1	6.841018E-1	7.609788E-1	6.629655E-1	7.245944E-1	7.198579E-1	7.208684E-1	5.650950E-1	7.312375E-1	7.277303E-1	6.906609E-1	6.482841E-1	7.274325E-1	7.327570E-1	7.388847E-1	6.873151E-1	7.375846E-1	7.277988E-1	7.649337E-1	7.447895E-1	7.225070E-1	7.236911E-1	7.218088E-1	6.451456E-1	7.455819E-1	7.340746E-1	7.265892E-1	6.427088E-1	7.547168E-1	7.415785E-1	6.982250E-1	7.090845E-1	7.155383E-1	7.414080E-1	7.085292E-1	6.897951E-1	7.222473E-1	7.357292E-1	7.837034E-1	6.143632E-1	7.370757E-1	7.512797E-1	7.560111E-1	6.575006E-1	7.656338E-1	7.253746E-1	7.354896E-1	7.349237E-1	7.223697E-1	7.601489E-1	7.140661E-1	6.765378E-1	7.228057E-1	7.033572E-1	7.139197E-1	6.141987E-1	7.313660E-1	7.611890E-1	7.544263E-1	6.569582E-1	7.705303E-1	7.329293E-1	7.151099E-1	6.932209E-1	7.071304E-1	7.709662E-1	6.800061E-1	5.666150E-1
2.930040E+2	7.135272E-1	7.257863E-1	7.393691E-1	6.880451E-1	7.304247E-1	7.140558E-1	7.411692E-1	7.364086E-1	7.160027E-1	7.384964E-1	6.423798E-1	7.222433E-1	7.343199E-1	7.491290E-1	5.656779E-1	6.674040E-1	7.105556E-1	7.371575E-1	6.150687E-1	6.472809E-1	7.483896E-1	7.254583E-1	6.652156E-1	7.659141E-1	7.455488E-1	7.076232E-1	6.360972E-1	6.963247E-1	7.242532E-1	6.923390E-1	5.873684E-1	7.161004E-1	7.065644E-1	7.405870E-1	6.268417E-1	6.799302E-1	7.267392E-1	7.640536E-1	6.926042E-1	7.120979E-1	7.398812E-1	7.408558E-1	6.256844E-1	7.433440E-1	7.198721E-1	7.265683E-1	5.600851E-1	7.149500E-1	7.553097E-1	7.345670E-1	6.388565E-1	7.383873E-1	7.058394E-1	7.150725E-1	7.044023E-1	7.187960E-1	7.655377E-1	7.516670E-1	7.183578E-1	7.726579E-1	7.213543E-1	7.308089E-1	6.377678E-1	7.522017E-1	7.242073E-1	7.530204E-1	7.365992E-1	7.201153E-1	7.570152E-1	7.122131E-1	7.595588E-1	7.436011E-1	7.430383E-1	7.458119E-1	6.823841E-1	7.274711E-1	7.316150E-1	6.995343E-1	5.949301E-1	7.175879E-1	7.152355E-1	7.981017E-1	6.514335E-1	7.129246E-1	7.270231E-1	7.345714E-1	6.704584E-1	7.408701E-1	7.394209E-1	7.211315E-1	7.050607E-1	7.241494E-1	7.631500E-1	7.431634E-1	6.317890E-1	7.239794E-1	7.359566E-1	7.368863E-1	6.928415E-1	7.152691E-1	7.460333E-1	7.366944E-1	7.264338E-1	7.408349E-1	7.248198E-1	7.143192E-1	6.376405E-1	7.605839E-1	7.330027E-1	7.383508E-1	5.882233E-1	7.497728E-1	7.308794E-1	7.219556E-1	6.449071E-1	7.418307E-1	7.213639E-1	7.815094E-1	6.985392E-1	7.185151E-1	7.498223E-1	7.341540E-1	7.160278E-1	6.996565E-1	7.452090E-1	7.531557E-1	6.424925E-1	7.323824E-1	7.371699E-1	7.812715E-1	6.727924E-1	7.131546E-1	6.911053E-1	7.592456E-1	7.426924E-1	7.113301E-1	7.209231E-1	7.017794E-1	6.799491E-1	7.452129E-1	7.242885E-1	7.668547E-1	6.472408E-1	7.348325E-1	7.731910E-1	7.070219E-1	6.541864E-1	7.240485E-1	7.202565E-1	7.438002E-1	7.170984E-1	7.359447E-1	7.503437E-1	7.466723E-1	7.174671E-1	7.499211E-1	7.319321E-1	7.365101E-1	6.011154E-1	7.188286E-1	7.431060E-1	7.356317E-1	6.186624E-1	7.514479E-1	7.540017E-1	7.426014E-1	6.995764E-1	7.451561E-1	7.614504E-1	7.021390E-1	7.149099E-1
2.935110E+2	7.387495E-1	7.226410E-1	7.202214E-1	7.166878E-1	7.409553E-1	7.406717E-1	7.326236E-1	7.440972E-1	7.259503E-1	7.302066E-1	6.372684E-1	7.445532E-1	7.165299E-1	7.572807E-1	6.146709E-1	6.742127E-1	7.263724E-1	7.474464E-1	6.126657E-1	6.724174E-1	7.772681E-1	7.459537E-1	6.742312E-1	6.843380E-1	7.380437E-1	7.369570E-1	6.316667E-1	6.997384E-1	7.201129E-1	7.415683E-1	6.261285E-1	7.195958E-1	7.635966E-1	7.515245E-1	6.616144E-1	7.352294E-1	7.530907E-1	7.304844E-1	7.069408E-1	7.397625E-1	7.393241E-1	7.149521E-1	6.118282E-1	6.922329E-1	7.194010E-1	7.488894E-1	5.849364E-1	7.223648E-1	7.376851E-1	7.313415E-1	6.293265E-1	7.520009E-1	7.179688E-1	7.393387E-1	7.003196E-1	7.108589E-1	7.229877E-1	7.494924E-1	7.683246E-1	7.070326E-1	7.421643E-1	7.225653E-1	6.332835E-1	7.538863E-1	7.592026E-1	7.050045E-1	6.968299E-1	7.378299E-1	7.651729E-1	7.320510E-1	7.458251E-1	7.630416E-1	7.321130E-1	7.480193E-1	6.940100E-1	7.460404E-1	7.591340E-1	7.260181E-1	6.075012E-1	7.259929E-1	7.536259E-1	7.650675E-1	6.902638E-1	7.464788E-1	7.605274E-1	7.425885E-1	6.988418E-1	7.089179E-1	7.591036E-1	7.553688E-1	7.098834E-1	7.336823E-1	7.203518E-1	7.670951E-1	6.663058E-1	7.436794E-1	7.617785E-1	7.373969E-1	7.194940E-1	7.243795E-1	7.399312E-1	7.341071E-1	7.232516E-1	7.477937E-1	7.825535E-1	7.551461E-1	6.112598E-1	7.173966E-1	7.539383E-1	7.160121E-1	5.764229E-1	7.355986E-1	7.838853E-1	7.437028E-1	6.150812E-1	7.587329E-1	7.506596E-1	7.699324E-1	6.664688E-1	7.338764E-1	7.246530E-1	7.592341E-1	7.530063E-1	7.348117E-1	7.650718E-1	7.709342E-1	6.207318E-1	7.147833E-1	7.582157E-1	7.835268E-1	7.118374E-1	7.949598E-1	8.133622E-1	7.858724E-1	7.421671E-1	7.371041E-1	7.420102E-1	7.428925E-1	6.533072E-1	7.560898E-1	6.956881E-1	7.747528E-1	6.448236E-1	7.639962E-1	7.395222E-1	7.775185E-1	6.762830E-1	7.606682E-1	7.453341E-1	7.033542E-1	7.323028E-1	7.344361E-1	7.754687E-1	7.201456E-1	6.873718E-1	7.955245E-1	7.421764E-1	7.615032E-1	6.171056E-1	7.657086E-1	7.412356E-1	7.262345E-1	6.429345E-1	7.359429E-1	7.556654E-1	7.278375E-1	6.828217E-1	7.486131E-1	7.603922E-1	6.879104E-1	6.876717E-1
2.940070E+2	7.414047E-1	7.283018E-1	7.421842E-1	7.266498E-1	7.310103E-1	7.429862E-1	7.085888E-1	7.616693E-1	7.446012E-1	7.909956E-1	7.267244E-1	7.563280E-1	7.170235E-1	7.414574E-1	7.432255E-1	6.522143E-1	7.359756E-1	7.247035E-1	7.496264E-1	6.724176E-1	7.394638E-1	6.894654E-1	7.403468E-1	7.181621E-1	7.311171E-1	7.220235E-1	6.680968E-1	7.025824E-1	7.228732E-1	7.270337E-1	6.060482E-1	6.651723E-1	7.512951E-1	7.445650E-1	6.412476E-1	6.832478E-1	7.232590E-1	7.213727E-1	7.000200E-1	7.145249E-1	7.008914E-1	7.190965E-1	6.184998E-1	7.290548E-1	7.415435E-1	7.521447E-1	5.930695E-1	7.663244E-1	7.786187E-1	7.506931E-1	6.278219E-1	7.111620E-1	7.380083E-1	7.448996E-1	7.421690E-1	7.621888E-1	6.924390E-1	7.484054E-1	7.214045E-1	7.491771E-1	7.478874E-1	7.156962E-1	6.273048E-1	7.185186E-1	7.622727E-1	7.270118E-1	6.956772E-1	7.514109E-1	7.200351E-1	7.329737E-1	7.330723E-1	7.457608E-1	7.271963E-1	7.436048E-1	6.897828E-1	7.689788E-1	7.526297E-1	7.106095E-1	5.930681E-1	7.076065E-1	7.225747E-1	7.493902E-1	6.695878E-1	7.694696E-1	7.413036E-1	7.318988E-1	6.873890E-1	7.153085E-1	6.746575E-1	7.360416E-1	7.189271E-1	7.378526E-1	7.611361E-1	7.838477E-1	6.256978E-1	7.360183E-1	7.161782E-1	6.975621E-1	7.100177E-1	7.243798E-1	7.455247E-1	7.661920E-1	7.439365E-1	7.443145E-1	7.169195E-1	7.169708E-1	6.466096E-1	7.821784E-1	7.208313E-1	7.106707E-1	5.801989E-1	7.563145E-1	7.361272E-1	7.044516E-1	6.173321E-1	7.343181E-1	7.729030E-1	7.246771E-1	7.012117E-1	7.052723E-1	7.001131E-1	7.820341E-1	7.260061E-1	7.096170E-1	7.672778E-1	7.564304E-1	6.462070E-1	7.395320E-1	7.285034E-1	7.711241E-1	6.766330E-1	7.316267E-1	7.471866E-1	7.503701E-1	7.521441E-1	7.260586E-1	7.456250E-1	7.404378E-1	6.892159E-1	7.228519E-1	7.495528E-1	7.342100E-1	6.177474E-1	7.258587E-1	7.705184E-1	7.356983E-1	6.608149E-1	7.637721E-1	7.627353E-1	7.615305E-1	7.286326E-1	7.213643E-1	7.282828E-1	7.101976E-1	6.861686E-1	7.579329E-1	7.502638E-1	7.634260E-1	6.049921E-1	7.591672E-1	7.013306E-1	7.591246E-1	6.440131E-1	7.407130E-1	7.639838E-1	7.186740E-1	6.793553E-1	7.562186E-1	7.667368E-1	7.242724E-1	6.755665E-1
2.945030E+2	7.540156E-1	7.880504E-1	7.968115E-1	8.349934E-1	7.748860E-1	8.326688E-1	7.833649E-1	7.528829E-1	7.589012E-1	7.898904E-1	7.814206E-1	7.804973E-1	7.471692E-1	8.277660E-1	7.980810E-1	7.166386E-1	8.031961E-1	7.923903E-1	8.048914E-1	7.158365E-1	8.297743E-1	7.569517E-1	8.004521E-1	7.798424E-1	8.125095E-1	7.892241E-1	8.226761E-1	7.623163E-1	8.273015E-1	8.419030E-1	7.937775E-1	7.400672E-1	7.909937E-1	8.037255E-1	7.520228E-1	7.650903E-1	8.062913E-1	7.760433E-1	7.756577E-1	7.601466E-1	8.089491E-1	8.196043E-1	7.036883E-1	7.675252E-1	8.060872E-1	7.851612E-1	7.421780E-1	7.901579E-1	8.661704E-1	8.168094E-1	7.863239E-1	7.575690E-1	7.459187E-1	8.369098E-1	7.855492E-1	8.076980E-1	7.949959E-1	7.929831E-1	7.469976E-1	7.913219E-1	7.921088E-1	7.802690E-1	7.189837E-1	8.263056E-1	7.984965E-1	8.045372E-1	7.723347E-1	7.968770E-1	8.326084E-1	7.768011E-1	7.762358E-1	8.208233E-1	7.982109E-1	8.153470E-1	7.368172E-1	8.132164E-1	7.741442E-1	7.895780E-1	6.233313E-1	7.449048E-1	7.728206E-1	7.986610E-1	6.953071E-1	7.850042E-1	8.171002E-1	8.099342E-1	7.366860E-1	8.564290E-1	7.876766E-1	7.835320E-1	7.942899E-1	8.302003E-1	8.245782E-1	8.073008E-1	6.830566E-1	7.677576E-1	7.914462E-1	7.756995E-1	7.876067E-1	7.535329E-1	7.841741E-1	7.884448E-1	7.513617E-1	7.940200E-1	7.843771E-1	8.081675E-1	7.315546E-1	8.231512E-1	7.734132E-1	7.771999E-1	6.033271E-1	8.010177E-1	7.707649E-1	7.755275E-1	7.000562E-1	7.430826E-1	7.739883E-1	8.420255E-1	7.461099E-1	8.090945E-1	7.812832E-1	8.150937E-1	7.676802E-1	7.992634E-1	7.915545E-1	8.223992E-1	7.189191E-1	7.923301E-1	7.712145E-1	8.432827E-1	7.553628E-1	8.114526E-1	7.948558E-1	8.119451E-1	8.319622E-1	8.191602E-1	8.058748E-1	7.944366E-1	7.123828E-1	7.832851E-1	8.019873E-1	7.937074E-1	6.694815E-1	7.858693E-1	8.239612E-1	8.044024E-1	6.757306E-1	8.134258E-1	7.714356E-1	8.053016E-1	8.004592E-1	7.872270E-1	8.483927E-1	7.892252E-1	7.313109E-1	8.072334E-1	7.842301E-1	8.297552E-1	6.723449E-1	8.605589E-1	8.173065E-1	7.967123E-1	6.726002E-1	7.955764E-1	8.072390E-1	7.812931E-1	7.342408E-1	7.997755E-1	8.333529E-1	8.381055E-1	6.876714E-1
2.950050E+2	8.880919E-1	7.899369E-1	8.767798E-1	8.455791E-1	8.760939E-1	8.199395E-1	8.303659E-1	8.956619E-1	8.552658E-1	8.959950E-1	8.376499E-1	7.966095E-1	8.677531E-1	8.493428E-1	8.353491E-1	7.732058E-1	8.557296E-1	8.660341E-1	8.394917E-1	8.032452E-1	8.969827E-1	8.294362E-1	8.510401E-1	8.340609E-1	8.840884E-1	8.462916E-1	8.394140E-1	8.123787E-1	8.420230E-1	8.676898E-1	8.815712E-1	8.274435E-1	8.552948E-1	8.489658E-1	8.379602E-1	8.037996E-1	8.455697E-1	9.036072E-1	8.508008E-1	8.445953E-1	8.579646E-1	8.584605E-1	8.468664E-1	8.005010E-1	8.791102E-1	8.618897E-1	8.397763E-1	8.166398E-1	8.820888E-1	8.942138E-1	8.786159E-1	8.658523E-1	8.513906E-1	8.960590E-1	9.044615E-1	8.669654E-1	8.680946E-1	8.516960E-1	8.658208E-1	7.798828E-1	8.769091E-1	8.370568E-1	8.251118E-1	8.745855E-1	9.237457E-1	8.780606E-1	8.593654E-1	8.529723E-1	8.929742E-1	8.330850E-1	8.135139E-1	8.953449E-1	8.495596E-1	8.937107E-1	8.594249E-1	8.339705E-1	8.842206E-1	8.324326E-1	8.384376E-1	8.615255E-1	8.795230E-1	8.848856E-1	8.410470E-1	8.508702E-1	8.659833E-1	8.746082E-1	8.457361E-1	8.521695E-1	8.841871E-1	8.282611E-1	8.196116E-1	8.558194E-1	8.764393E-1	8.561218E-1	7.602108E-1	8.388968E-1	8.766040E-1	8.497516E-1	8.450582E-1	8.051587E-1	8.696096E-1	8.433003E-1	8.505413E-1	8.675842E-1	8.773601E-1	8.633102E-1	7.463271E-1	8.978994E-1	8.795491E-1	8.650966E-1	6.859280E-1	8.887884E-1	8.904209E-1	8.444821E-1	7.366352E-1	8.432458E-1	8.917137E-1	9.009631E-1	8.070440E-1	8.901390E-1	8.385421E-1	8.567034E-1	8.516154E-1	8.684014E-1	8.207968E-1	8.607639E-1	7.592556E-1	8.319278E-1	8.844930E-1	8.765426E-1	8.020876E-1	8.391603E-1	8.756123E-1	8.568784E-1	8.744965E-1	8.759687E-1	8.841998E-1	8.539577E-1	8.316925E-1	7.996027E-1	8.172413E-1	8.600497E-1	7.125129E-1	8.599008E-1	8.624395E-1	8.300918E-1	7.409157E-1	8.463213E-1	8.251733E-1	8.734515E-1	8.130416E-1	8.661624E-1	8.673892E-1	8.478041E-1	7.908992E-1	8.546851E-1	8.451543E-1	8.446556E-1	7.183774E-1	8.927206E-1	8.703060E-1	8.760644E-1	7.734634E-1	8.993384E-1	8.449482E-1	8.413660E-1	8.203236E-1	8.772104E-1	8.534443E-1	8.001624E-1	8.662309E-1
2.955100E+2	8.953938E-1	9.119494E-1	9.449226E-1	8.667492E-1	8.503524E-1	9.107802E-1	9.286423E-1	9.126852E-1	9.043811E-1	9.015220E-1	8.826338E-1	8.988627E-1	9.003698E-1	9.193493E-1	8.885303E-1	8.339640E-1	9.043098E-1	8.876935E-1	9.293573E-1	8.563756E-1	9.374123E-1	9.274157E-1	8.715761E-1	8.997202E-1	9.193008E-1	9.156257E-1	8.935665E-1	8.709751E-1	9.160890E-1	8.906633E-1	9.492851E-1	8.823658E-1	9.229510E-1	9.096183E-1	8.896223E-1	9.138446E-1	9.196528E-1	9.012100E-1	9.397865E-1	9.072037E-1	9.231345E-1	9.408356E-1	9.176851E-1	8.527116E-1	9.483648E-1	9.144367E-1	8.971602E-1	9.326303E-1	9.520172E-1	9.243156E-1	9.057017E-1	9.252536E-1	9.436780E-1	9.536920E-1	9.401863E-1	9.177661E-1	9.602866E-1	9.000796E-1	9.023822E-1	8.894595E-1	8.659841E-1	9.249854E-1	8.809170E-1	9.026545E-1	9.200616E-1	9.595866E-1	9.187317E-1	8.777724E-1	9.158144E-1	9.405785E-1	8.851257E-1	9.687869E-1	8.927144E-1	9.262709E-1	9.043451E-1	8.765700E-1	8.997310E-1	9.301807E-1	9.501809E-1	9.266655E-1	8.857334E-1	9.100806E-1	9.555219E-1	9.024438E-1	8.961922E-1	9.371436E-1	9.283955E-1	9.245932E-1	9.025999E-1	8.586332E-1	9.353694E-1	8.838211E-1	9.136994E-1	9.006354E-1	9.277183E-1	9.516250E-1	9.282483E-1	9.289104E-1	8.776342E-1	8.494961E-1	8.955453E-1	9.245481E-1	9.099430E-1	9.028755E-1	9.636575E-1	9.062582E-1	8.639830E-1	9.206007E-1	9.272621E-1	8.835496E-1	8.459377E-1	8.778850E-1	8.925198E-1	8.752460E-1	8.913902E-1	8.695373E-1	9.112447E-1	8.988586E-1	9.000477E-1	9.335751E-1	8.303618E-1	9.393523E-1	9.349647E-1	9.223069E-1	9.085224E-1	9.272005E-1	8.080840E-1	9.166239E-1	9.191578E-1	9.250232E-1	8.577744E-1	8.820425E-1	9.053354E-1	8.946011E-1	9.516894E-1	8.770206E-1	9.323999E-1	8.637757E-1	8.658636E-1	9.410170E-1	9.130541E-1	9.137550E-1	8.009930E-1	9.064510E-1	9.287078E-1	8.862501E-1	8.364840E-1	9.133542E-1	9.055240E-1	9.166685E-1	8.680913E-1	9.295117E-1	9.629871E-1	9.041730E-1	8.571083E-1	9.230900E-1	8.839738E-1	9.196362E-1	7.285532E-1	9.123450E-1	9.176941E-1	9.611588E-1	7.874869E-1	9.273666E-1	9.275759E-1	8.785297E-1	8.630768E-1	9.504972E-1	8.957401E-1	9.108318E-1	8.995239E-1
2.960030E+2	9.557944E-1	9.314465E-1	9.561861E-1	9.171855E-1	9.065146E-1	9.275595E-1	8.805720E-1	9.890172E-1	9.615781E-1	9.192055E-1	9.409074E-1	9.211721E-1	9.305163E-1	9.509961E-1	9.144922E-1	8.915783E-1	9.195612E-1	9.434682E-1	9.341623E-1	8.546617E-1	9.132596E-1	9.439121E-1	9.086405E-1	9.410063E-1	9.268044E-1	9.422927E-1	9.280266E-1	8.749573E-1	8.963075E-1	9.262959E-1	9.562897E-1	8.464166E-1	9.056175E-1	9.300011E-1	9.253881E-1	9.210334E-1	9.514735E-1	9.659512E-1	9.269329E-1	9.227347E-1	9.331601E-1	9.543053E-1	9.407788E-1	8.741452E-1	9.243378E-1	9.293172E-1	9.197527E-1	8.955556E-1	1.015122E+0	9.517299E-1	9.167364E-1	9.277285E-1	9.167828E-1	9.592525E-1	9.682561E-1	9.791502E-1	9.401021E-1	9.435707E-1	9.176160E-1	9.352171E-1	9.689931E-1	9.135368E-1	9.262584E-1	9.593552E-1	9.526021E-1	9.245755E-1	9.089338E-1	9.439052E-1	9.636719E-1	9.230471E-1	9.022931E-1	9.655470E-1	8.850663E-1	9.124741E-1	9.011747E-1	9.180773E-1	9.677779E-1	9.104381E-1	9.133988E-1	9.040769E-1	9.354145E-1	9.744689E-1	8.950068E-1	8.906384E-1	9.313441E-1	9.606614E-1	9.313828E-1	9.421673E-1	9.489507E-1	9.547178E-1	8.738731E-1	9.517412E-1	9.348458E-1	9.216950E-1	9.140130E-1	9.866476E-1	9.711014E-1	9.217605E-1	9.072483E-1	9.655017E-1	9.469078E-1	9.737110E-1	9.290362E-1	9.043662E-1	9.551493E-1	9.158018E-1	9.494554E-1	9.571445E-1	9.623167E-1	9.481368E-1	9.039944E-1	8.947847E-1	9.591703E-1	9.139668E-1	1.005627E+0	9.559284E-1	9.367427E-1	9.335896E-1	9.684642E-1	9.187436E-1	9.681617E-1	9.285223E-1	9.302690E-1	8.994559E-1	9.007981E-1	9.033395E-1	9.158247E-1	9.309231E-1	9.414418E-1	9.385535E-1	9.198624E-1	9.513127E-1	9.030920E-1	9.245563E-1	9.506391E-1	9.475051E-1	9.456547E-1	9.619550E-1	8.867142E-1	8.624528E-1	9.340278E-1	9.395553E-1	8.928571E-1	9.440277E-1	9.083993E-1	9.591362E-1	9.055365E-1	9.394227E-1	8.942648E-1	9.731830E-1	8.749066E-1	9.259919E-1	9.243801E-1	9.058310E-1	9.010474E-1	9.779374E-1	8.915223E-1	9.475138E-1	7.823390E-1	8.856343E-1	8.933763E-1	9.246157E-1	8.376486E-1	9.363114E-1	9.364485E-1	9.228210E-1	8.965849E-1	9.774604E-1	8.862228E-1	8.776306E-1	8.238602E-1
2.964990E+2	9.192884E-1	9.000000E-1	9.680125E-1	9.165633E-1	8.930592E-1	9.044153E-1	8.901867E-1	8.995059E-1	9.199236E-1	9.391001E-1	9.189270E-1	8.765524E-1	9.067948E-1	9.049644E-1	8.964867E-1	8.140607E-1	9.178664E-1	9.066459E-1	8.760146E-1	8.409503E-1	9.347872E-1	9.404124E-1	9.381923E-1	9.106633E-1	9.077555E-1	8.932253E-1	9.103048E-1	8.857662E-1	9.160887E-1	8.859749E-1	9.525538E-1	8.439200E-1	9.089717E-1	9.160814E-1	9.139627E-1	9.000196E-1	9.315849E-1	9.199128E-1	9.269333E-1	8.572143E-1	9.119943E-1	9.040517E-1	8.838156E-1	8.840377E-1	8.988973E-1	9.255970E-1	9.193008E-1	9.246856E-1	9.656612E-1	8.904511E-1	8.751045E-1	8.936968E-1	8.914698E-1	9.294256E-1	9.141580E-1	9.294078E-1	9.193729E-1	9.142140E-1	9.261468E-1	9.147463E-1	8.961582E-1	8.814787E-1	8.804182E-1	9.436363E-1	9.378666E-1	9.045688E-1	9.089338E-1	8.771818E-1	9.310421E-1	9.290445E-1	9.273085E-1	9.801272E-1	9.440627E-1	9.809056E-1	9.091021E-1	8.689236E-1	8.997308E-1	8.892521E-1	9.157268E-1	9.261403E-1	9.681589E-1	9.179194E-1	9.076137E-1	8.732395E-1	9.296966E-1	9.499714E-1	9.468191E-1	9.363089E-1	8.746626E-1	8.989445E-1	9.118559E-1	9.541242E-1	9.217552E-1	9.298316E-1	9.109677E-1	9.658528E-1	9.320935E-1	8.972465E-1	9.398241E-1	9.412073E-1	9.326687E-1	9.292050E-1	8.818338E-1	8.879636E-1	9.247633E-1	8.823980E-1	9.315168E-1	9.161715E-1	8.999979E-1	8.835497E-1	9.379790E-1	9.105938E-1	9.649429E-1	8.757765E-1	9.330329E-1	9.121069E-1	9.410827E-1	9.125406E-1	9.080654E-1	9.250993E-1	8.806998E-1	9.194026E-1	9.502255E-1	9.387122E-1	9.438333E-1	8.995966E-1	8.908793E-1	9.182736E-1	9.476321E-1	9.289693E-1	9.198622E-1	8.958965E-1	8.571060E-1	9.123522E-1	9.343600E-1	8.859628E-1	9.305923E-1	9.018201E-1	9.174100E-1	8.872310E-1	9.130539E-1	9.321837E-1	9.107465E-1	9.272021E-1	9.404653E-1	9.268746E-1	8.994593E-1	9.257676E-1	8.712337E-1	8.917358E-1	8.911598E-1	8.953228E-1	9.262188E-1	9.019628E-1	8.884073E-1	9.132309E-1	8.882871E-1	9.239621E-1	9.630768E-1	9.494127E-1	9.420118E-1	9.157404E-1	9.525351E-1	9.345222E-1	9.253578E-1	8.698748E-1	9.514697E-1	9.221499E-1	9.528410E-1	9.076697E-1	8.722851E-1
2.970040E+2	9.106601E-1	9.415093E-1	9.618174E-1	9.620174E-1	9.819817E-1	1.022449E+0	9.382568E-1	9.401428E-1	9.671734E-1	9.888366E-1	9.603325E-1	9.348059E-1	9.448473E-1	9.821629E-1	9.525981E-1	8.575335E-1	9.229499E-1	9.450921E-1	9.452159E-1	8.426642E-1	9.704918E-1	9.729060E-1	9.396949E-1	9.405086E-1	9.845302E-1	9.150924E-1	9.811943E-1	9.853227E-1	9.740539E-1	9.581780E-1	9.679648E-1	8.933505E-1	9.939612E-1	9.319902E-1	9.144595E-1	8.983604E-1	9.315853E-1	9.395748E-1	9.491792E-1	8.999236E-1	9.214629E-1	9.662213E-1	9.587407E-1	8.944801E-1	9.502496E-1	9.493129E-1	9.423444E-1	9.453407E-1	9.542912E-1	9.657059E-1	9.884634E-1	9.252537E-1	9.848120E-1	1.001213E+0	1.016229E+0	9.542796E-1	9.450119E-1	9.163891E-1	9.170062E-1	9.460544E-1	9.507844E-1	9.428465E-1	9.511715E-1	9.975297E-1	9.648807E-1	9.785928E-1	9.625361E-1	9.580764E-1	9.924950E-1	9.341196E-1	9.459471E-1	1.000108E+0	9.178419E-1	9.351014E-1	9.180860E-1	9.229925E-1	9.252486E-1	9.764060E-1	9.497156E-1	9.413745E-1	9.681587E-1	1.010302E+0	9.519916E-1	9.478047E-1	9.835226E-1	9.905928E-1	9.517988E-1	9.496225E-1	9.749830E-1	9.282126E-1	9.353694E-1	9.356550E-1	9.615322E-1	9.240882E-1	9.688333E-1	9.182438E-1	9.282479E-1	9.518917E-1	9.753609E-1	9.284529E-1	9.392799E-1	9.788859E-1	9.884382E-1	9.734575E-1	9.466412E-1	9.598093E-1	9.330994E-1	9.488390E-1	9.408939E-1	9.554207E-1	9.946192E-1	9.781937E-1	9.833114E-1	9.712516E-1	9.735509E-1	9.859769E-1	9.589860E-1	9.841076E-1	9.887753E-1	9.823076E-1	9.304075E-1	9.758324E-1	9.332036E-1	9.111737E-1	9.940411E-1	9.669688E-1	9.221930E-1	9.639219E-1	9.996289E-1	9.802696E-1	9.333044E-1	9.288825E-1	9.591729E-1	9.722633E-1	9.842464E-1	9.701231E-1	9.360147E-1	9.601142E-1	9.764852E-1	9.452473E-1	9.187736E-1	9.827298E-1	9.503931E-1	1.002916E+0	9.666517E-1	9.645128E-1	9.453106E-1	9.456292E-1	9.341837E-1	9.848189E-1	9.068874E-1	9.757664E-1	9.691143E-1	9.677261E-1	9.666542E-1	9.471244E-1	9.761689E-1	9.335750E-1	9.936038E-1	9.455970E-1	9.376475E-1	9.773427E-1	9.412082E-1	9.708983E-1	9.841401E-1	9.879853E-1	9.306719E-1	9.601761E-1	9.835044E-1	9.108319E-1	1.062950E+0
2.975020E+2	9.936286E-1	9.459113E-1	9.798389E-1	1.001245E+0	9.609210E-1	1.009142E+0	9.804515E-1	1.002746E+0	1.003854E+0	9.927050E-1	9.547091E-1	9.472000E-1	1.006128E+0	1.050251E+0	9.764656E-1	9.051972E-1	1.029713E+0	1.036064E+0	9.428127E-1	9.220751E-1	1.013021E+0	9.914020E-1	9.922867E-1	9.902505E-1	1.039945E+0	9.993600E-1	9.600259E-1	9.500510E-1	9.901552E-1	9.717749E-1	9.838423E-1	9.652491E-1	9.537037E-1	1.011534E+0	9.979133E-1	9.508947E-1	9.619149E-1	1.002877E+0	1.024817E+0	9.358388E-1	1.001114E+0	9.988606E-1	1.013651E+0	9.324005E-1	9.681524E-1	1.013951E+0	9.843659E-1	1.005720E+0	1.075386E+0	1.011934E+0	9.678986E-1	9.871299E-1	9.842847E-1	9.885746E-1	1.019801E+0	1.025718E+0	9.619233E-1	1.003370E+0	1.000488E+0	9.863927E-1	9.944854E-1	9.854373E-1	1.030393E+0	9.891091E-1	1.013384E+0	1.015105E+0	9.821321E-1	9.970481E-1	1.003915E+0	9.696433E-1	9.886206E-1	9.882278E-1	9.954115E-1	9.775940E-1	9.878449E-1	1.006008E+0	9.637748E-1	9.051416E-1	9.813762E-1	9.823494E-1	1.055666E+0	1.003023E+0	1.054867E+0	9.465620E-1	1.016477E+0	1.013576E+0	9.866555E-1	1.036957E+0	1.034032E+0	9.547185E-1	9.956591E-1	1.003575E+0	9.857008E-1	1.021252E+0	9.627427E-1	9.751561E-1	9.958241E-1	9.672130E-1	9.741768E-1	1.011054E+0	9.626732E-1	1.002691E+0	1.006471E+0	9.495985E-1	9.654811E-1	9.439031E-1	1.006437E+0	9.754157E-1	9.477106E-1	1.006410E+0	1.035684E+0	9.498456E-1	9.969565E-1	1.002016E+0	9.746765E-1	1.001002E+0	9.844841E-1	9.925271E-1	9.775509E-1	1.043224E+0	1.005915E+0	9.895119E-1	1.010095E+0	1.006094E+0	9.377639E-1	9.505932E-1	9.667759E-1	9.974702E-1	9.785826E-1	1.001127E+0	9.838705E-1	9.539520E-1	1.010768E+0	9.911242E-1	1.012078E+0	9.980012E-1	9.763820E-1	9.490695E-1	1.009499E+0	9.512904E-1	9.778824E-1	9.600895E-1	9.711836E-1	1.051710E+0	9.794783E-1	1.011710E+0	9.618831E-1	1.025696E+0	9.746151E-1	1.003102E+0	9.556458E-1	9.652083E-1	9.734038E-1	9.948048E-1	9.841101E-1	1.004437E+0	9.939613E-1	9.379006E-1	1.011533E+0	1.044263E+0	9.987529E-1	9.674239E-1	9.811223E-1	1.031128E+0	9.841401E-1	9.559122E-1	1.013288E+0	1.018944E+0	1.018399E+0	9.851386E-1	9.388644E-1
2.980040E+2	1.015532E+0	1.023271E+0	9.972969E-1	9.638855E-1	9.901720E-1	9.686401E-1	9.932701E-1	9.994508E-1	9.690386E-1	1.006521E+0	1.010428E+0	9.806647E-1	9.908081E-1	1.013809E+0	1.006198E+0	9.182912E-1	1.008247E+0	9.959930E-1	1.003845E+0	8.889400E-1	1.011447E+0	9.979006E-1	1.005309E+0	9.300628E-1	9.862614E-1	1.031360E+0	1.004824E+0	9.619981E-1	1.010397E+0	9.764633E-1	1.017932E+0	9.637510E-1	1.015209E+0	1.017002E+0	1.010829E+0	9.713553E-1	1.022573E+0	1.000959E+0	1.030255E+0	9.819454E-1	9.949868E-1	9.926434E-1	1.019809E+0	1.029678E+0	1.017620E+0	1.002326E+0	9.934034E-1	9.675862E-1	9.895390E-1	9.963453E-1	9.859555E-1	1.042199E+0	1.023837E+0	1.005258E+0	1.040726E+0	1.038947E+0	9.711971E-1	1.009894E+0	1.040096E+0	9.930155E-1	1.048071E+0	9.817731E-1	9.920283E-1	1.002583E+0	9.765464E-1	9.590862E-1	1.016138E+0	9.657528E-1	1.015880E+0	1.013471E+0	9.935255E-1	9.957880E-1	9.921338E-1	9.704202E-1	1.007399E+0	9.672309E-1	9.697791E-1	1.024076E+0	1.023745E+0	9.776213E-1	1.041552E+0	1.004703E+0	1.019062E+0	9.726597E-1	9.857199E-1	9.895241E-1	9.981078E-1	1.025774E+0	1.021334E+0	1.008283E+0	9.974678E-1	1.001192E+0	1.013394E+0	9.934906E-1	1.011979E+0	1.009084E+0	1.007362E+0	1.025944E+0	9.848377E-1	9.946552E-1	1.037937E+0	1.004761E+0	9.926808E-1	9.938361E-1	9.897897E-1	9.916224E-1	1.012768E+0	1.000332E+0	1.011977E+0	9.792158E-1	1.015387E+0	1.045794E+0	1.042090E+0	9.876944E-1	9.803034E-1	9.872292E-1	9.931642E-1	1.021471E+0	9.502910E-1	9.923722E-1	1.022904E+0	1.014022E+0	1.015378E+0	1.000820E+0	1.033214E+0	9.983154E-1	1.002866E+0	9.936207E-1	1.006437E+0	1.014094E+0	1.044678E+0	9.777011E-1	1.019741E+0	1.014978E+0	1.008927E+0	1.010625E+0	1.011929E+0	9.809780E-1	1.033245E+0	1.025020E+0	1.011726E+0	1.025378E+0	1.011314E+0	1.014694E+0	9.869603E-1	9.937867E-1	1.008286E+0	9.959035E-1	1.014535E+0	9.870345E-1	9.603644E-1	1.001408E+0	1.026105E+0	9.898314E-1	9.630431E-1	9.933446E-1	1.014989E+0	9.768328E-1	1.028007E+0	1.024639E+0	9.725645E-1	1.001357E+0	9.622438E-1	9.959451E-1	1.001331E+0	9.630398E-1	9.982666E-1	9.719298E-1	9.909058E-1	9.835577E-1	9.751826E-1
2.985020E+2	9.219431E-1	9.603770E-1	9.629438E-1	1.000623E+0	9.498056E-1	9.333455E-1	9.847240E-1	1.018671E+0	9.628215E-1	9.595476E-1	9.787348E-1	8.926653E-1	9.537426E-1	9.855190E-1	9.572042E-1	9.120062E-1	9.828278E-1	9.413020E-1	9.572300E-1	8.963667E-1	9.589401E-1	1.008398E+0	9.582271E-1	9.658771E-1	9.412361E-1	9.886933E-1	9.349188E-1	9.705315E-1	1.013617E+0	9.544276E-1	9.548889E-1	9.053331E-1	9.548216E-1	9.901570E-1	9.686054E-1	9.132916E-1	9.987070E-1	9.697871E-1	9.279218E-1	9.567083E-1	9.520980E-1	9.796914E-1	9.371865E-1	9.466902E-1	9.705078E-1	9.567536E-1	9.861739E-1	9.855939E-1	9.878338E-1	9.587174E-1	9.739174E-1	9.475291E-1	9.573894E-1	9.461084E-1	9.713180E-1	9.473999E-1	9.690145E-1	9.674905E-1	9.834255E-1	9.996387E-1	9.710740E-1	9.858940E-1	9.800699E-1	9.717055E-1	9.826865E-1	9.900966E-1	9.440921E-1	9.852381E-1	9.413750E-1	9.438079E-1	9.704723E-1	9.520465E-1	9.347763E-1	9.775942E-1	9.513798E-1	9.797925E-1	9.912939E-1	9.417367E-1	9.287637E-1	9.644886E-1	9.331564E-1	9.873462E-1	9.782149E-1	9.776308E-1	9.478211E-1	9.547815E-1	9.747042E-1	9.884972E-1	9.337119E-1	9.491960E-1	9.522496E-1	9.809348E-1	9.675738E-1	9.671653E-1	9.805084E-1	9.658535E-1	9.694531E-1	9.432098E-1	9.759532E-1	9.794709E-1	9.387717E-1	9.856133E-1	9.539636E-1	9.655047E-1	9.587962E-1	9.693535E-1	9.742530E-1	9.720941E-1	9.428419E-1	9.913559E-1	9.592185E-1	9.547516E-1	9.717657E-1	9.622345E-1	9.859313E-1	9.446607E-1	9.926219E-1	9.804239E-1	9.898441E-1	9.976694E-1	9.794875E-1	9.678525E-1	9.496386E-1	9.762116E-1	9.785925E-1	9.510616E-1	9.619989E-1	9.881207E-1	9.420611E-1	9.695582E-1	9.345839E-1	9.816599E-1	9.468351E-1	9.866863E-1	9.795204E-1	9.643369E-1	9.691521E-1	9.509102E-1	9.874899E-1	9.700251E-1	9.259239E-1	9.832564E-1	9.861722E-1	9.322495E-1	9.864256E-1	9.471875E-1	9.795609E-1	1.000248E+0	9.863866E-1	9.482509E-1	9.813353E-1	9.978887E-1	9.531821E-1	9.870685E-1	9.877214E-1	9.446597E-1	9.961181E-1	9.681809E-1	9.475713E-1	9.674020E-1	9.756828E-1	1.017541E+0	9.892124E-1	9.756696E-1	9.203669E-1	9.895127E-1	9.612918E-1	9.553367E-1	9.570696E-1	9.139935E-1	1.023606E+0
2.990010E+2	9.644232E-1	9.056602E-1	9.246494E-1	9.140727E-1	9.468807E-1	9.385529E-1	9.318476E-1	8.742448E-1	9.640655E-1	8.987584E-1	9.311955E-1	9.180737E-1	9.285391E-1	9.567498E-1	9.274736E-1	8.355352E-1	9.489347E-1	9.472583E-1	9.283954E-1	8.752286E-1	9.426628E-1	9.129186E-1	9.121467E-1	9.380218E-1	9.319999E-1	9.028253E-1	8.940589E-1	9.426558E-1	9.133285E-1	9.614605E-1	9.338745E-1	8.419232E-1	9.391658E-1	9.145895E-1	8.930997E-1	8.474856E-1	8.923069E-1	9.295035E-1	8.854063E-1	9.290440E-1	9.270331E-1	9.397988E-1	9.197382E-1	9.016242E-1	9.389427E-1	9.376877E-1	9.536408E-1	9.146229E-1	9.133577E-1	9.162524E-1	9.538538E-1	8.745150E-1	9.568617E-1	9.112255E-1	9.570284E-1	9.161786E-1	9.313739E-1	9.169323E-1	9.029908E-1	8.996952E-1	9.060430E-1	9.149106E-1	9.048332E-1	9.049005E-1	9.360248E-1	9.065698E-1	9.412105E-1	9.297334E-1	9.756362E-1	9.110525E-1	9.783203E-1	9.407064E-1	9.506180E-1	9.268231E-1	9.339397E-1	9.513930E-1	9.227469E-1	8.974374E-1	9.604240E-1	9.182604E-1	8.981531E-1	9.492735E-1	9.207253E-1	9.434546E-1	9.329915E-1	9.462302E-1	9.737084E-1	9.096826E-1	9.248234E-1	9.685237E-1	9.323546E-1	9.541241E-1	9.061467E-1	9.499344E-1	9.373625E-1	8.947140E-1	9.200071E-1	9.421885E-1	9.309401E-1	9.308829E-1	9.352112E-1	8.991903E-1	9.518424E-1	9.515867E-1	9.417793E-1	9.380710E-1	9.125229E-1	9.355505E-1	9.077876E-1	9.534783E-1	9.511950E-1	9.198618E-1	9.355531E-1	9.261657E-1	9.009568E-1	9.189935E-1	9.329452E-1	8.972802E-1	9.460150E-1	9.335750E-1	9.140485E-1	9.342224E-1	9.396604E-1	9.240644E-1	9.112812E-1	9.253288E-1	9.524453E-1	9.589715E-1	9.538222E-1	9.160038E-1	9.665881E-1	9.196463E-1	9.361798E-1	9.450816E-1	9.480132E-1	9.233088E-1	9.040824E-1	9.484554E-1	9.127766E-1	9.440383E-1	9.349806E-1	9.411348E-1	9.276688E-1	9.490755E-1	9.591702E-1	9.406156E-1	9.386813E-1	9.319742E-1	8.804461E-1	9.377233E-1	9.530248E-1	9.300141E-1	9.476665E-1	9.174362E-1	9.413750E-1	9.754729E-1	9.152447E-1	9.407844E-1	9.029927E-1	9.270637E-1	9.276707E-1	9.303576E-1	9.622440E-1	9.333297E-1	9.303485E-1	9.350395E-1	9.358713E-1	9.746948E-1	9.306342E-1	1.079999E+0	8.904436E-1
2.995040E+2	9.996016E-1	1.044025E+0	1.044602E+0	1.000622E+0	1.005382E+0	1.053115E+0	9.975429E-1	1.004943E+0	1.002611E+0	1.049626E+0	1.027808E+0	1.063087E+0	1.016507E+0	9.792861E-1	1.020854E+0	1.105278E+0	1.008812E+0	1.063680E+0	1.035562E+0	1.136311E+0	1.006195E+0	1.014397E+0	1.034861E+0	1.043474E+0	1.004156E+0	1.013760E+0	1.052577E+0	9.949936E-1	9.781938E-1	1.017253E+0	1.037546E+0	1.014679E+0	1.004026E+0	1.006562E+0	1.049079E+0	1.006746E+0	1.007160E+0	1.026376E+0	1.037671E+0	1.008639E+0	1.048459E+0	1.026318E+0	1.009545E+0	1.042318E+0	1.018562E+0	1.036271E+0	1.013284E+0	9.908901E-1	1.019671E+0	1.040423E+0	9.809397E-1	9.889860E-1	9.779568E-1	1.018908E+0	9.825458E-1	1.007726E+0	1.027385E+0	1.012612E+0	9.736764E-1	1.030344E+0	9.814790E-1	1.032149E+0	1.007972E+0	1.038511E+0	1.050836E+0	1.032610E+0	1.001153E+0	1.029524E+0	9.963020E-1	1.022237E+0	1.008731E+0	1.024949E+0	1.037474E+0	1.019536E+0	1.020083E+0	1.026762E+0	1.020814E+0	1.030817E+0	1.015364E+0	1.037508E+0	1.026873E+0	9.912654E-1	1.001412E+0	1.020506E+0	1.022519E+0	1.026404E+0	1.006573E+0	1.020449E+0	1.048636E+0	1.030924E+0	1.031833E+0	1.009532E+0	1.037058E+0	1.022688E+0	1.018070E+0	1.045748E+0	1.040876E+0	1.012155E+0	1.019782E+0	1.002551E+0	1.017087E+0	1.022356E+0	1.013896E+0	9.958244E-1	1.019569E+0	1.021314E+0	1.006436E+0	1.026356E+0	1.059690E+0	1.010781E+0	1.015860E+0	1.005997E+0	9.764891E-1	1.029067E+0	1.032640E+0	1.052961E+0	9.942492E-1	1.029364E+0	1.020311E+0	1.000847E+0	1.039893E+0	1.019152E+0	1.011270E+0	1.010195E+0	1.004524E+0	9.973797E-1	1.009766E+0	1.012320E+0	9.872485E-1	1.029314E+0	9.800293E-1	1.022563E+0	1.030396E+0	9.961167E-1	1.003676E+0	1.000631E+0	1.042657E+0	1.025158E+0	9.892276E-1	9.724422E-1	1.030794E+0	9.922076E-1	9.856883E-1	1.072461E+0	1.006733E+0	1.016489E+0	1.007734E+0	1.009559E+0	9.971344E-1	1.015292E+0	1.025375E+0	9.998992E-1	9.795325E-1	1.048963E+0	1.027447E+0	1.009983E+0	9.896484E-1	1.027781E+0	1.022677E+0	1.024639E+0	1.041153E+0	9.700343E-1	1.002697E+0	9.959448E-1	1.056231E+0	1.036349E+0	1.001733E+0	9.871410E-1	1.051179E+0	9.898817E-1	9.691304E-1
3.000060E+2	1.098500E+0	1.066666E+0	1.070508E+0	1.120797E+0	1.107760E+0	1.106346E+0	1.092615E+0	1.102691E+0	1.101463E+0	1.085547E+0	1.051833E+0	1.145509E+0	1.110404E+0	1.064636E+0	1.088271E+0	1.228889E+0	1.051178E+0	1.051767E+0	1.074968E+0	1.203153E+0	1.080755E+0	1.066386E+0	1.089456E+0	1.122564E+0	1.136346E+0	1.063361E+0	1.113621E+0	1.129821E+0	1.084463E+0	1.090395E+0	1.055758E+0	1.274314E+0	1.086778E+0	1.071689E+0	1.078387E+0	1.261121E+0	1.079253E+0	1.073374E+0	1.118746E+0	1.123663E+0	1.077423E+0	1.061548E+0	1.113721E+0	1.079689E+0	1.054368E+0	1.066962E+0	1.053498E+0	1.141307E+0	1.089599E+0	1.088262E+0	1.105334E+0	1.146771E+0	1.083956E+0	1.118500E+0	1.048381E+0	1.089748E+0	1.101030E+0	1.093070E+0	1.099812E+0	1.077306E+0	1.093333E+0	1.085273E+0	1.115097E+0	1.082300E+0	1.053906E+0	1.111637E+0	1.097407E+0	1.089752E+0	1.070807E+0	1.109432E+0	1.048951E+0	1.086510E+0	1.084998E+0	1.105627E+0	1.087199E+0	1.074822E+0	1.095366E+0	1.105933E+0	1.071703E+0	1.102122E+0	1.100266E+0	1.067412E+0	1.080586E+0	1.085749E+0	1.110948E+0	1.083060E+0	1.046907E+0	1.055597E+0	1.071494E+0	1.043073E+0	1.086095E+0	1.054217E+0	1.075828E+0	1.066722E+0	1.052079E+0	1.084601E+0	1.062302E+0	1.076503E+0	1.088487E+0	1.092440E+0	1.070993E+0	1.088079E+0	1.087618E+0	1.093248E+0	1.090066E+0	1.079639E+0	1.094019E+0	1.065667E+0	1.077704E+0	1.065169E+0	1.058339E+0	1.073596E+0	1.074102E+0	1.094838E+0	1.100169E+0	1.096156E+0	1.087019E+0	1.071462E+0	1.093539E+0	1.075536E+0	1.043667E+0	1.064752E+0	1.084053E+0	1.088709E+0	1.072388E+0	1.127914E+0	1.072924E+0	1.046968E+0	1.110431E+0	1.071030E+0	1.074121E+0	1.098430E+0	1.066849E+0	1.057137E+0	1.059863E+0	1.101098E+0	1.072179E+0	1.094498E+0	1.077261E+0	1.088475E+0	1.096575E+0	1.058023E+0	1.089157E+0	1.031519E+0	1.060711E+0	1.101921E+0	1.065738E+0	1.062315E+0	1.121498E+0	1.111699E+0	1.079900E+0	1.070790E+0	1.093514E+0	1.056700E+0	1.080414E+0	1.076540E+0	1.084000E+0	1.086420E+0	1.098752E+0	1.056256E+0	1.082929E+0	1.080710E+0	1.083602E+0	1.099111E+0	1.091723E+0	1.076059E+0	1.102837E+0	1.110898E+0	1.070212E+0	1.032568E+0	1.141638E+0
