Photon Energy (eV)	#1	#2	#3	#4	#5	#6	#7	#8	#9	#10	#11	#12	#13	#14	#15	#16	#17	#18	#19	#20	#21	#22	#23	#24	#25	#26	#27	#28	#29	#30	#31	#32	#33	#34	#35	#36	#37	#38	#39	#40	#41	#42	#43	#44	#45	#46	#47	#48	#49	#50	#51	#52	#53	#54	#55	#56	#57	#58	#59	#60	#61	#62	#63	#64	#65	#66	#67	#68	#69	#70	#71	#72	#73	#74	#75	#76	#77	#78	#79	#80	#81	#82	#83	#84	#85	#86	#87	#88	#89	#90	#91	#92	#93	#94	#95	#96	#97	#98	#99	#100	#101	#102	#103	#104	#105	#106	#107	#108	#109	#110	#111	#112	#113	#114	#115	#116	#117	#118	#119	#120	#121	#122	#123	#124	#125	#126	#127	#128	#129	#130	#131	#132	#133	#134	#135	#136	#137	#138	#139	#140	#141	#142	#143	#144	#145	#146	#147	#148	#149	#150	#151	#152	#153	#154	#155	#156	#157	#158	#159	#160	#161	#162	#163	#164	#165	
5.300320E+2	-7.917577E-3	-6.084252E-3	3.374862E-4	2.916894E-3	-9.980140E-3	-3.292450E-3	-8.369527E-3	-8.713589E-3	7.976270E-4	-6.635960E-3	-2.095091E-3	-7.194913E-3	-1.011529E-2	-1.832351E-3	-8.161557E-3	-2.475471E-2	-1.901004E-3	-1.159768E-2	1.020570E-4	-6.259792E-3	-1.007470E-2	-1.762909E-2	4.678520E-3	-4.545130E-3	-7.217250E-3	5.858756E-4	-3.476769E-3	-1.068335E-2	1.561271E-3	-1.306930E-2	-8.848668E-3	-1.606559E-2	-5.718370E-3	-8.837864E-3	-3.172366E-3	-8.060959E-3	-8.133257E-3	-9.690529E-3	-1.006031E-2	-1.056152E-2	-7.464292E-3	-9.815712E-3	4.770246E-3	1.757708E-3	-4.399607E-3	-4.382977E-3	-1.344605E-2	-7.221340E-4	-1.152251E-2	-1.255377E-2	-1.998800E-3	-7.447278E-3	-8.875035E-3	-1.739469E-3	4.623356E-4	3.891266E-3	-1.757309E-3	-4.657491E-3	-9.452724E-3	8.145737E-4	-3.453723E-3	-8.787638E-3	-1.295003E-2	-5.448076E-3	-1.050132E-2	-8.694096E-3	-9.070373E-3	-1.894170E-3	-1.081567E-2	-1.454054E-3	-1.235709E-2	-1.872446E-3	-1.073101E-2	-9.351061E-3	-1.073951E-2	-9.655586E-3	-9.451903E-3	-1.566711E-3	-4.819582E-3	-4.716151E-3	-3.628264E-3	-1.117641E-3	-7.489370E-3	-3.025366E-3	1.822350E-4	-2.600744E-3	-5.202407E-3	-4.167563E-3	-7.153674E-3	-3.820785E-3	-9.869649E-3	-4.377487E-3	-3.507790E-3	-1.061994E-2	-4.520541E-3	-1.225698E-2	-2.788431E-3	-9.351903E-3	-1.596006E-2	-5.350773E-3	-8.192391E-3	-8.479975E-3	-5.539879E-3	-1.804917E-3	-6.691784E-3	-1.405240E-2	-4.989972E-3	-7.924560E-3	-1.240722E-2	-6.835066E-3	-7.824191E-3	-6.276760E-3	-7.476655E-3	-5.295105E-4	-2.000334E-3	-4.215328E-3	-3.235486E-3	-6.154312E-3	-1.576743E-2	-1.056161E-2	-6.165168E-3	-3.622352E-3	-3.219738E-3	-7.300855E-3	-1.778167E-2	-4.928710E-3	-5.520427E-3	-7.291259E-3	2.203749E-3	-4.656781E-3	-4.314086E-3	-1.444996E-2	-1.145225E-2	-6.314271E-3	-9.423180E-3	-1.119002E-2	-1.266224E-2	-1.530174E-2	-6.879774E-3	-1.010640E-2	-4.240393E-3	-1.578490E-2	-1.092547E-2	-8.854533E-3	-3.498314E-3	-9.610698E-3	-2.464754E-2	-6.684066E-3	-8.029516E-3	-2.097038E-2	-5.234543E-3	-7.474243E-3	-5.294502E-3	-8.542137E-3	7.339467E-4	3.794720E-3	-5.800847E-3	-9.511315E-3	-6.060254E-3	-9.265006E-3	-7.624808E-3	-3.914515E-3	-1.451808E-2	-1.089643E-2	5.460489E-3
5.305030E+2	-8.628105E-3	-7.661688E-3	-2.328592E-2	-2.175503E-2	2.790179E-3	-2.548962E-3	-7.703715E-3	-6.508921E-3	-4.785499E-3	-1.843317E-2	-9.427912E-3	-1.095346E-2	3.570085E-3	-7.908195E-3	-5.534827E-3	2.782513E-3	-8.871283E-3	-5.015235E-3	-1.346802E-2	-3.912370E-3	-7.663662E-3	-7.997603E-3	-1.421553E-2	-6.416691E-3	-1.837119E-2	-3.515021E-3	1.022326E-4	-1.544232E-2	-4.996145E-3	-4.634520E-3	3.966633E-3	-1.004101E-2	-3.176870E-3	-1.723930E-2	-4.518221E-3	-1.031797E-2	3.605454E-3	-5.035273E-3	-1.504595E-2	-2.597041E-4	-6.141481E-3	-9.084740E-3	-7.055992E-3	-8.495557E-3	-8.391773E-3	-1.171974E-2	-5.201750E-3	6.228417E-3	-4.744570E-3	-2.038654E-3	-7.329093E-3	-1.734312E-3	-9.441551E-4	-6.225449E-3	-1.442475E-2	-1.063611E-2	-4.490825E-3	-7.762478E-3	-1.093965E-2	-5.600158E-3	-8.760639E-3	-4.107260E-3	-8.979942E-3	-9.972768E-3	-9.164821E-3	-1.331628E-2	-9.817396E-3	-3.367375E-3	-9.013087E-3	-1.099624E-2	-7.770000E-3	-6.638644E-3	-4.852272E-3	-5.423597E-3	-6.317340E-3	2.886714E-3	-2.650070E-3	-7.415828E-3	1.506116E-3	-5.363467E-3	-1.031183E-2	-1.899960E-3	-1.323466E-2	-3.025403E-3	-1.066106E-2	-1.380400E-2	-1.040482E-2	-1.558307E-2	-9.974828E-3	-2.063234E-2	-4.171691E-3	1.067661E-4	-7.190936E-3	-7.840896E-3	-9.906678E-3	-1.294340E-2	-6.826866E-3	2.827316E-3	-1.995018E-3	-1.039281E-2	-5.006488E-3	-5.288613E-3	-6.220222E-3	-3.609846E-3	-1.280171E-2	-1.191403E-2	-5.749300E-3	-5.705690E-3	-1.360520E-2	-7.528465E-3	-3.767196E-3	-4.338332E-3	-4.033450E-3	-1.016693E-2	-1.600271E-2	-5.768340E-3	-1.488311E-2	-8.846785E-3	-6.569769E-3	-7.897448E-3	-1.088540E-2	-2.804375E-3	5.232107E-3	-8.720435E-3	-2.948267E-3	-7.041248E-4	-1.124531E-2	-5.353076E-3	-1.883203E-2	-7.041996E-3	-5.130310E-3	-1.075833E-2	-6.962990E-3	-1.379429E-2	-1.085714E-2	-8.200304E-3	-6.989539E-3	-1.608931E-2	-2.116818E-4	-6.638511E-3	-6.135026E-3	-5.868744E-3	-3.346535E-3	-5.557667E-3	-6.996683E-3	2.905545E-3	1.722080E-3	6.266415E-4	-4.426593E-3	-3.659908E-3	-7.233205E-3	-8.112296E-3	-1.661009E-3	1.822357E-3	-7.340073E-3	-7.589432E-3	-5.088484E-3	-7.292057E-3	-1.495509E-2	1.686032E-8	-4.530684E-3	5.051099E-4	-9.436753E-3	-1.501931E-2	-4.200293E-4
5.310100E+2	-5.785929E-3	-1.352035E-3	-8.324446E-3	-7.292158E-3	-1.899446E-2	-1.221390E-2	-1.036674E-2	-2.099660E-3	7.975500E-4	-5.161281E-3	-3.428309E-3	-2.684667E-3	-4.760124E-3	-5.882927E-3	-9.474865E-3	-9.978631E-3	-4.435613E-3	-4.283816E-3	4.387301E-3	-7.824659E-4	1.722335E-4	-6.793655E-3	-9.177094E-3	-2.049804E-3	-7.873375E-3	-1.034982E-2	-1.564558E-2	1.942294E-4	-7.181964E-3	-3.336846E-3	-1.525633E-2	-6.024626E-3	-1.143676E-2	3.273364E-4	-1.192053E-2	-9.565649E-3	-8.133236E-3	-6.365361E-3	-3.828266E-3	1.558236E-3	-9.448470E-3	2.610545E-3	-1.192559E-2	-2.929702E-4	-3.829288E-3	-5.049980E-3	-1.275903E-2	-9.568286E-3	-4.744542E-3	-1.105165E-2	2.665131E-3	-1.734283E-3	-1.217959E-2	-4.302899E-3	-7.304862E-3	-7.609591E-3	-7.907715E-3	-6.986200E-3	-4.248429E-3	-2.749181E-3	-5.222730E-3	-3.438633E-3	-8.318283E-3	4.247664E-3	-1.384267E-2	-6.383035E-3	4.375102E-3	-1.147020E-2	-1.802643E-3	-1.454039E-3	-1.872264E-3	6.468435E-3	-4.852251E-3	-8.041902E-3	-1.895184E-3	-3.384439E-3	-3.268399E-3	-5.222470E-3	-9.739592E-3	-1.054201E-2	-3.628227E-3	-4.247057E-3	1.128515E-3	-7.407015E-3	-1.257459E-2	-6.801955E-3	1.950895E-3	-7.338525E-3	-1.068010E-2	-6.877441E-3	-4.171674E-3	-8.114342E-3	-6.577087E-3	-8.535659E-3	-8.560165E-3	3.530061E-3	-1.153834E-2	-9.351878E-3	-1.103123E-2	-3.189850E-3	-9.466794E-3	-9.118246E-3	-6.220244E-3	-4.211471E-3	-1.008620E-2	-9.062784E-3	-6.508663E-3	-1.088307E-2	-4.278354E-4	-5.943691E-4	-1.255734E-2	-1.403039E-2	-5.410742E-3	-1.313229E-2	-7.159080E-3	-4.991793E-3	-5.823806E-3	-9.519934E-3	-1.248255E-2	-5.233265E-3	-7.513810E-3	-1.507362E-2	-1.811091E-3	-2.028163E-4	-1.133237E-2	-5.632798E-3	-8.382820E-3	-7.291292E-3	-9.716520E-3	1.703682E-3	-1.410832E-2	-8.543440E-3	-6.962993E-3	7.285719E-3	-5.838264E-3	-5.210610E-3	-5.571410E-3	-3.487882E-3	-1.132515E-2	-9.412823E-3	-6.766587E-3	-6.577036E-3	-4.035553E-3	-6.876423E-3	-5.597330E-3	-4.134826E-3	-5.058659E-3	-9.608363E-3	-1.029484E-4	-8.902751E-4	-5.710407E-4	-6.836204E-3	-1.401488E-2	-1.013672E-2	-8.074132E-3	-6.830457E-3	-2.951347E-3	8.454477E-4	-3.323336E-3	-1.425400E-3	2.431135E-3	-3.030586E-3	4.536955E-3	-4.711951E-3	-6.300507E-3
5.315130E+2	-5.785919E-3	-1.712604E-2	1.124924E-3	-1.324750E-2	-2.468198E-3	-1.805560E-3	1.027164E-2	-2.834531E-3	-6.879198E-3	2.949304E-3	-8.761303E-3	-1.932971E-3	-7.140207E-3	-2.507473E-3	2.345282E-3	-5.277170E-3	-1.267328E-2	-2.089683E-3	-6.325879E-3	2.347381E-3	-8.869180E-3	4.299870E-4	-8.547300E-3	-1.203125E-2	-6.561063E-4	-1.376720E-2	-7.055862E-3	-4.855955E-4	-7.181961E-3	-3.985659E-3	-1.017066E-3	-4.685797E-3	-6.353760E-4	-4.364625E-4	-5.864135E-3	-4.299144E-3	-1.048096E-2	-5.035264E-3	-4.451462E-3	-9.349519E-3	-8.787034E-3	-3.968029E-3	7.552927E-3	-9.179134E-3	-1.295433E-2	-2.382035E-3	2.944293E-4	-6.408975E-3	-4.066777E-3	6.974316E-3	-5.996533E-3	-7.447268E-3	3.021286E-3	-8.788924E-3	-4.068504E-3	-1.556522E-3	2.343031E-3	-3.881209E-3	-7.965797E-3	-6.312926E-3	-1.095038E-3	-7.450351E-3	-3.781196E-4	-6.740860E-3	-6.491715E-3	3.631766E-3	-3.094593E-3	-5.577236E-3	-1.802607E-3	-3.998631E-3	-1.872267E-3	-4.255534E-3	-2.892702E-3	7.013303E-3	5.475029E-3	-6.171579E-3	-2.650042E-3	4.282353E-3	2.208990E-3	-1.849674E-4	-5.633349E-3	-5.029419E-3	-1.025930E-3	-1.105839E-2	-6.196209E-3	1.600470E-3	5.852695E-3	1.422405E-2	3.425702E-3	-1.299072E-2	-4.883928E-3	3.843632E-3	-7.190916E-3	-1.985177E-4	1.538903E-3	-1.961111E-3	-1.442279E-3	-2.501070E-3	-5.280951E-3	6.894239E-3	1.365368E-3	-7.841715E-3	6.706169E-3	-5.414748E-3	-1.076508E-2	1.629280E-3	-1.193265E-3	-1.310193E-2	-6.417555E-3	-4.061455E-3	-1.062552E-3	-1.079974E-2	-1.278868E-3	3.918480E-3	-3.474289E-3	-4.991804E-3	-2.588377E-3	-4.134916E-3	-2.627932E-3	-6.565313E-3	-9.633085E-5	4.674134E-4	-4.628411E-3	-8.720458E-3	-6.172901E-3	-2.112303E-3	-1.226747E-3	-7.291265E-3	-6.010316E-4	-1.022217E-2	1.200955E-2	6.222972E-3	-2.473686E-3	-2.914278E-3	5.633433E-3	-1.025047E-3	-3.444121E-3	1.068868E-2	4.233691E-3	-2.477040E-3	1.804350E-4	-2.023662E-4	-1.279552E-3	-1.149207E-2	-2.798695E-3	-2.570323E-3	9.687294E-4	-8.354737E-4	-2.985335E-3	-4.352332E-3	-1.903462E-3	-8.750338E-3	-8.927982E-3	1.822287E-3	-7.339916E-4	4.987328E-9	-2.951278E-3	-1.247044E-2	9.774111E-5	-1.425390E-3	-4.530673E-3	-1.275376E-2	-1.070708E-2	-1.914231E-2	-1.806154E-2
5.320170E+2	6.090047E-4	1.363323E-2	4.274721E-3	-4.861040E-4	4.292527E-3	4.885551E-3	-7.037963E-3	-7.243796E-3	-1.316021E-2	8.847926E-3	-3.428315E-3	-2.684664E-3	1.785068E-3	-3.182546E-3	1.031911E-3	2.782504E-3	1.832192E-8	-5.015221E-3	-1.061117E-2	-1.564909E-3	-2.841575E-3	-7.739584E-4	1.529506E-3	-8.020778E-4	7.217234E-3	3.319736E-3	-5.624197E-3	4.273345E-3	-2.810330E-3	1.204956E-3	-3.152956E-3	8.032792E-3	9.530612E-3	-1.963962E-3	-4.806726E-4	-5.374185E-4	8.386385E-5	-1.045045E-3	8.012651E-3	-7.531548E-3	-1.511754E-3	-3.132510E-4	-8.447318E-3	-4.394276E-3	-1.548021E-3	2.286792E-3	-1.766601E-3	-4.513319E-3	-6.777665E-4	-1.480710E-2	-5.996509E-3	-1.020185E-3	4.343139E-3	-4.302881E-3	-3.421238E-3	-3.977718E-3	-3.904779E-4	-3.881216E-3	-5.310579E-4	-2.749214E-3	-1.684743E-3	-2.101428E-3	2.268626E-3	-2.216170E-3	9.546701E-3	-2.531186E-3	-3.094603E-3	1.504807E-2	3.605276E-3	-3.998634E-3	-4.493455E-3	-6.809062E-4	-9.331209E-4	-1.496194E-3	-4.106295E-3	9.953281E-5	9.098531E-3	6.475809E-3	2.208964E-3	-2.126900E-3	-8.975148E-3	4.470363E-4	2.564854E-3	-1.043514E-4	4.647125E-3	7.202072E-3	-1.170540E-2	2.808599E-3	-8.060303E-4	6.113265E-3	-2.747239E-3	-1.387935E-3	-4.735501E-3	-1.985081E-4	-3.847262E-3	6.961960E-3	1.923054E-3	-1.739891E-3	-1.995030E-3	-1.255368E-2	9.100302E-5	7.476988E-3	-2.818524E-3	3.609827E-3	9.601277E-3	-2.647539E-3	-1.952599E-3	1.500382E-2	-1.625767E-3	-6.835044E-3	1.642130E-3	2.123018E-3	1.475668E-3	-7.942873E-3	9.475373E-4	-1.109269E-3	1.229472E-2	-1.442400E-3	4.598855E-3	2.093307E-3	-1.444978E-3	6.193020E-3	-1.308030E-2	1.926639E-3	6.080802E-3	4.928704E-3	-3.373612E-3	1.144453E-2	1.001821E-4	1.135803E-4	-1.865549E-3	4.007998E-3	1.612480E-2	1.165713E-3	-7.272262E-3	1.366742E-3	6.483025E-3	-3.487893E-3	1.270087E-3	-4.557777E-3	3.969733E-3	5.059090E-4	9.055335E-3	4.992441E-3	4.197994E-3	-3.352533E-3	2.475485E-3	-1.566594E-3	4.220676E-3	4.945527E-4	-1.237257E-3	7.200772E-3	7.059350E-3	-5.694648E-4	1.468026E-3	-3.794717E-3	-9.362811E-3	5.284077E-3	7.819729E-4	-8.552365E-3	-6.630791E-4	-1.262769E-3	1.469952E-2	1.590288E-2	-3.360302E-3
5.325120E+2	1.410952E-2	8.901052E-3	1.136173E-2	1.993196E-2	1.180446E-2	4.142091E-3	2.282623E-3	1.333279E-2	1.266168E-2	3.686617E-3	7.237584E-3	1.159777E-2	1.011530E-2	1.543025E-3	1.088205E-2	1.084216E-2	1.013859E-2	4.492799E-3	-1.326406E-3	2.347388E-3	1.283017E-2	1.633905E-3	3.418952E-3	7.931714E-3	9.841726E-3	1.630582E-2	9.407779E-3	6.992723E-3	4.840045E-3	1.288392E-2	8.238406E-3	1.004100E-2	3.176883E-3	4.146197E-3	1.297798E-2	1.375733E-2	9.474793E-3	2.023611E-2	4.273430E-3	9.436117E-3	1.105468E-2	3.341490E-3	-2.186373E-3	-4.394220E-3	6.436424E-3	-3.716011E-3	1.884410E-2	1.173432E-3	1.016691E-2	8.476508E-3	4.663953E-3	7.549297E-3	1.038573E-3	7.232530E-3	9.524027E-3	9.944326E-3	5.076568E-3	4.657435E-3	8.390587E-3	5.091093E-3	5.980817E-3	5.922107E-3	1.606916E-3	1.071146E-2	1.021492E-2	5.172391E-3	1.035095E-2	5.472004E-3	1.802599E-3	1.254118E-2	1.516551E-2	4.681095E-3	9.517909E-3	7.013284E-3	1.789892E-3	4.977105E-3	-4.505115E-3	-6.684665E-3	-1.305305E-3	9.524799E-3	1.441749E-2	6.705882E-3	8.310134E-3	4.277297E-3	9.112018E-3	7.202095E-3	3.901822E-3	2.808569E-3	4.131007E-3	1.222656E-2	1.007314E-2	4.591029E-3	8.155590E-3	9.528199E-3	1.029142E-2	1.470820E-3	7.307617E-3	3.588532E-3	1.525599E-2	-6.071027E-3	7.100126E-3	4.923875E-3	3.984826E-3	-1.203248E-3	1.639005E-2	1.873656E-2	8.678228E-3	9.509574E-4	1.574438E-2	8.420025E-3	1.043223E-2	1.633803E-2	4.230221E-3	1.652125E-2	2.305651E-2	5.879261E-3	1.294185E-3	5.961994E-3	9.854670E-3	6.755656E-3	1.271568E-2	3.739201E-3	1.297967E-2	1.216810E-3	1.446489E-2	7.041114E-4	8.076157E-3	4.983903E-3	5.008536E-3	-3.066631E-3	9.560990E-3	1.793079E-3	9.711530E-3	4.565697E-3	9.218303E-3	1.631517E-2	8.610342E-3	1.620184E-2	-3.175251E-3	5.152307E-3	8.119764E-4	1.113038E-2	5.610383E-3	1.224566E-2	9.795354E-3	5.587573E-4	5.489174E-3	6.475176E-3	-8.235509E-4	1.157328E-2	2.760040E-3	7.838861E-3	7.059336E-3	2.619626E-3	1.468042E-3	5.312566E-3	4.884928E-3	1.342155E-2	6.939958E-3	9.265053E-3	9.392860E-3	1.288004E-2	7.259091E-4	2.208727E-2	-6.300602E-3
5.330230E+2	1.339900E-2	9.689732E-3	1.451150E-2	1.993194E-2	1.255564E-2	1.083323E-2	2.092369E-2	1.406771E-2	1.056805E-2	1.474656E-2	1.990335E-2	1.385290E-2	6.545171E-3	1.977047E-2	8.912005E-3	2.360334E-2	1.774257E-2	2.350884E-2	2.724211E-2	7.824768E-3	1.644671E-2	3.113041E-2	2.231295E-2	1.791324E-2	1.705896E-2	7.420604E-3	2.229240E-2	1.515096E-2	1.576908E-2	1.093745E-2	1.606998E-2	1.874323E-2	8.259880E-3	2.400405E-2	1.297795E-2	1.902381E-2	1.358334E-2	6.935361E-3	2.109990E-2	1.670793E-2	2.229836E-2	1.722970E-2	1.729210E-2	2.499845E-2	2.468660E-2	2.496395E-2	1.403489E-2	1.381086E-2	1.558926E-2	2.500035E-2	1.399185E-2	1.183403E-2	1.359578E-2	1.812709E-2	1.923299E-2	9.944349E-3	7.126728E-3	2.251116E-2	2.474707E-2	1.150581E-2	1.423606E-2	1.996320E-2	2.675083E-2	9.418753E-3	2.023891E-2	2.212044E-2	1.035092E-2	1.788907E-3	1.802613E-2	9.360421E-3	1.319957E-2	2.298001E-3	1.474345E-2	1.028617E-2	1.579341E-2	1.124825E-2	1.342700E-2	1.013151E-2	9.940409E-3	1.340869E-2	1.775933E-2	5.141158E-3	9.746456E-3	2.034322E-2	1.549048E-2	7.202063E-3	1.560722E-2	7.247945E-3	2.105792E-2	2.598147E-2	1.577104E-2	5.338337E-3	2.104664E-2	1.786532E-2	1.500432E-2	1.519865E-2	1.336524E-2	1.652889E-2	2.100630E-2	3.066390E-2	1.410918E-2	1.832769E-2	1.010787E-2	1.263440E-2	1.435344E-2	1.731092E-2	1.171557E-2	2.166047E-2	1.873920E-2	1.743438E-2	1.313692E-2	1.698418E-2	1.249383E-2	1.133187E-2	4.632363E-3	1.519727E-2	1.294187E-2	2.413635E-2	2.299416E-2	2.140867E-2	1.339001E-2	1.110071E-2	4.527769E-3	2.180112E-2	1.768952E-2	7.745121E-3	2.167275E-2	1.079846E-2	2.183711E-2	2.317032E-2	3.847730E-3	2.172768E-2	2.015583E-3	1.000571E-2	1.853911E-2	7.944063E-3	1.357394E-2	1.147631E-2	1.608808E-2	2.804025E-2	1.217986E-2	1.679676E-2	4.921393E-3	1.554259E-2	4.897674E-3	1.620408E-2	1.905073E-2	1.159268E-2	1.214727E-2	1.780507E-2	1.341947E-2	1.613345E-2	1.577969E-2	1.298405E-2	1.247818E-2	9.107316E-3	2.126984E-2	9.722733E-3	1.651901E-2	1.140309E-2	5.525249E-3	7.576481E-3	1.469952E-2	1.177984E-2	2.898250E-2
5.331580E+2	9.846271E-3	9.689717E-3	2.396078E-2	2.066130E-3	2.157000E-2	1.157666E-2	8.940159E-3	1.774210E-2	2.592154E-2	8.847949E-3	1.590366E-2	1.610799E-2	1.606544E-2	2.719644E-2	1.219537E-2	1.554368E-2	1.584159E-2	2.789715E-2	5.815745E-3	2.347421E-2	1.524119E-2	1.307132E-2	7.827529E-3	1.728940E-2	8.529487E-3	9.471064E-3	1.871331E-2	1.583080E-2	2.396588E-2	9.639746E-3	3.244508E-2	2.075137E-2	2.096739E-2	2.935038E-2	2.374488E-2	3.482329E-2	1.827882E-2	1.558084E-2	1.923030E-2	3.064568E-2	2.758948E-2	1.211297E-2	1.868346E-2	2.978334E-2	2.981941E-2	3.296767E-2	2.159220E-2	1.317896E-2	9.489101E-3	1.373410E-2	7.329062E-3	2.111756E-2	2.218762E-2	1.748626E-2	5.640459E-3	1.660272E-2	1.259381E-2	1.397251E-2	1.359497E-2	1.649509E-2	4.801534E-3	2.063183E-2	1.748727E-2	1.652892E-2	2.023891E-2	2.289083E-2	1.483281E-2	9.891749E-3	2.403482E-2	1.763038E-2	1.778674E-2	1.004303E-2	1.735624E-2	1.879558E-2	9.160207E-3	2.100338E-2	2.208385E-2	1.378717E-2	2.188890E-2	2.441309E-2	2.310616E-2	2.078821E-2	1.620991E-2	2.764592E-2	2.123108E-2	1.420407E-2	1.885871E-2	1.676083E-2	1.823680E-2	4.050052E-2	1.577106E-2	2.103323E-2	1.736347E-2	1.717060E-2	1.298450E-2	1.931705E-2	2.211511E-2	1.729018E-2	2.264922E-2	7.614542E-3	2.175547E-2	2.662534E-2	1.282922E-2	1.203279E-2	1.842670E-2	2.230056E-2	2.690241E-2	5.388704E-3	7.358759E-3	1.812778E-2	2.666028E-2	3.313753E-2	2.420067E-2	2.393467E-2	2.231966E-2	1.830334E-2	1.423600E-2	1.538573E-2	2.365119E-2	2.607106E-2	2.620204E-2	1.928017E-2	1.368397E-2	9.024668E-3	2.929829E-2	1.408201E-2	2.238836E-2	1.209061E-2	2.534305E-2	1.521965E-2	2.180377E-2	1.065291E-2	2.830999E-2	2.292572E-2	2.427500E-2	1.631520E-2	2.137385E-2	2.880327E-2	1.905166E-2	1.902380E-2	1.975844E-2	1.113038E-2	1.250031E-2	2.675204E-2	3.218470E-2	3.576069E-2	2.809168E-2	8.668398E-3	2.151505E-2	7.418765E-3	2.141402E-2	2.698023E-2	3.031365E-2	2.334852E-2	1.101020E-2	2.428608E-2	2.269459E-2	1.638068E-2	2.336125E-2	2.280625E-2	7.845869E-3	2.437101E-2	8.347861E-3	2.827166E-2	3.486285E-2
5.333130E+2	1.837284E-2	1.599932E-2	3.341016E-2	2.503642E-2	4.292513E-3	2.198502E-2	1.027168E-2	2.656061E-2	1.684899E-2	1.917050E-2	2.123658E-2	3.565247E-2	1.368536E-2	2.517119E-2	2.729894E-2	3.636451E-2	1.267327E-2	2.204603E-2	1.938580E-2	2.816901E-2	3.031019E-2	1.788706E-2	1.979373E-2	1.916091E-2	1.771509E-2	9.471057E-3	1.942909E-2	2.262934E-2	2.943040E-2	2.586053E-2	1.820583E-2	4.083341E-2	2.033198E-2	1.865765E-2	1.701557E-2	3.331854E-2	2.356121E-2	1.757595E-2	1.237508E-2	3.428166E-2	2.560530E-2	2.527019E-2	2.633574E-2	3.183398E-2	1.328023E-2	2.363002E-2	2.296625E-2	9.387774E-3	2.778950E-2	2.650248E-2	2.398602E-2	4.692831E-3	1.425671E-2	3.030340E-2	1.858571E-2	2.386643E-2	3.924585E-2	3.570741E-2	9.134126E-3	1.578231E-2	1.423610E-2	4.002195E-2	2.675077E-2	1.394337E-2	1.489274E-2	3.752772E-2	2.080858E-2	2.536072E-2	1.982878E-2	1.317733E-2	2.827155E-2	2.851212E-2	1.539665E-2	2.272296E-2	2.168964E-2	2.030656E-2	2.888563E-2	2.329196E-2	3.524315E-2	2.700236E-2	1.374918E-2	2.313534E-2	1.620995E-2	1.084973E-2	2.442026E-2	1.350387E-2	3.186474E-2	1.739507E-2	2.387912E-2	2.445314E-2	1.434660E-2	1.879116E-2	2.104667E-2	2.689726E-2	2.510340E-2	2.824015E-2	3.288423E-2	1.652895E-2	4.729354E-2	1.265658E-2	2.557856E-2	2.726362E-2	3.323937E-2	1.804916E-2	1.978441E-2	2.443896E-2	2.462441E-2	2.609820E-2	2.233300E-2	1.050022E-2	2.801253E-2	1.375350E-2	1.869160E-2	2.690005E-2	1.716082E-2	8.985284E-3	2.782495E-2	3.086758E-2	2.299417E-2	3.872597E-2	1.339001E-2	2.091607E-2	2.072717E-2	2.251093E-2	3.961722E-2	1.760250E-2	2.668200E-2	2.436575E-2	2.253833E-2	1.919503E-2	2.180377E-2	2.763420E-2	2.061408E-2	3.788565E-2	2.929387E-2	3.186165E-2	2.846470E-2	1.935223E-2	2.349708E-2	2.318526E-2	2.986315E-2	2.742117E-2	4.212710E-2	1.224567E-2	3.218473E-2	2.402669E-2	1.603701E-2	3.571797E-2	2.151501E-2	2.888371E-2	3.207343E-2	2.379001E-2	3.104038E-2	3.371299E-2	1.981835E-2	3.415238E-2	2.554412E-2	3.413517E-2	5.757232E-2	2.922052E-2	2.486356E-2	3.851368E-2	4.137657E-2	2.002583E-2	5.460462E-3
5.334580E+2	3.116279E-2	1.836546E-2	3.262274E-2	3.184245E-2	2.682832E-2	3.090643E-2	3.290734E-2	2.141648E-2	1.684902E-2	3.317969E-2	2.656952E-2	3.114219E-2	3.034584E-2	3.934805E-2	2.861232E-2	3.972281E-2	1.964360E-2	3.301681E-2	4.795425E-2	2.973392E-2	3.211845E-2	3.594613E-2	2.861092E-2	2.040860E-2	2.296401E-2	3.886052E-2	4.018767E-2	3.622637E-2	3.981302E-2	2.002108E-2	4.027669E-2	3.949460E-2	1.715509E-2	2.935042E-2	3.249295E-2	3.783270E-2	1.827882E-2	2.688642E-2	2.795519E-2	3.003969E-2	1.502304E-2	3.184876E-2	2.772707E-2	3.115046E-2	2.069437E-2	3.096681E-2	2.983649E-2	4.729988E-2	2.778955E-2	3.701768E-2	2.798363E-2	3.254354E-2	2.020489E-2	2.838079E-2	2.635291E-2	3.476193E-2	3.104518E-2	3.570738E-2	1.805587E-2	1.293134E-2	3.723280E-2	2.531219E-2	3.270593E-2	2.622466E-2	2.491677E-2	2.674262E-2	5.143460E-2	3.199029E-2	2.703917E-2	3.226173E-2	1.909733E-2	1.778816E-2	3.303274E-2	2.730502E-2	2.758585E-2	2.309374E-2	3.321408E-2	2.402308E-2	4.367741E-2	2.764968E-2	2.644801E-2	3.721766E-2	4.637270E-2	4.079078E-2	3.590143E-2	2.330671E-2	3.641682E-2	3.198151E-2	2.670024E-2	2.980227E-2	3.571383E-2	3.000172E-2	2.718524E-2	2.967633E-2	2.846977E-2	1.863064E-2	2.480738E-2	2.718574E-2	4.565058E-2	1.985954E-2	1.920667E-2	2.981672E-2	3.460008E-2	4.151313E-2	1.978445E-2	2.230058E-2	5.879482E-2	3.423414E-2	2.293197E-2	2.852896E-2	2.733639E-2	1.052278E-2	3.728478E-2	1.800397E-2	3.779598E-2	2.373890E-2	1.488309E-2	3.154076E-2	3.284884E-2	3.206547E-2	2.822498E-2	1.600839E-2	1.368394E-2	2.747959E-2	3.510266E-2	2.534763E-2	3.097567E-2	3.211854E-2	2.744661E-2	3.589123E-2	2.425233E-2	3.206410E-2	3.600593E-2	3.380568E-2	2.929391E-2	2.946986E-2	3.201013E-2	2.565291E-2	3.905589E-2	3.289531E-2	2.354769E-2	3.096263E-2	5.177294E-2	2.741143E-2	3.568308E-2	3.263160E-2	3.713274E-2	3.133158E-2	4.313302E-2	3.788512E-2	2.940860E-2	2.187586E-2	4.194081E-2	3.769936E-2	4.110468E-2	3.415237E-2	3.979186E-2	3.931360E-2	4.115097E-2	2.993318E-2	3.027829E-2	2.437102E-2	2.613253E-2	3.239468E-2	1.722142E-2
5.336080E+2	3.116278E-2	3.256202E-2	4.915908E-2	3.949929E-2	3.283788E-2	1.901119E-2	2.758130E-2	4.199310E-2	3.499414E-2	3.760370E-2	2.990261E-2	2.963879E-2	5.057641E-2	5.149965E-2	3.911911E-2	4.039431E-2	3.231684E-2	2.643434E-2	4.438322E-2	5.477316E-2	3.573506E-2	4.196585E-2	5.947122E-2	3.787624E-2	3.214959E-2	3.544314E-2	4.090349E-2	3.010767E-2	3.270911E-2	4.078369E-2	5.095607E-2	5.154380E-2	3.049796E-2	4.080686E-2	4.460577E-2	2.955683E-2	3.764763E-2	3.553189E-2	3.668009E-2	3.852358E-2	2.362113E-2	3.696546E-2	4.164027E-2	2.568204E-2	3.038974E-2	4.097155E-2	3.189754E-2	5.425044E-2	3.998982E-2	5.203933E-2	3.864413E-2	4.396949E-2	4.399755E-2	4.888822E-2	3.994545E-2	3.960442E-2	2.352796E-2	5.511354E-2	3.738612E-2	4.357951E-2	2.661891E-2	5.339443E-2	4.263112E-2	4.303063E-2	2.959461E-2	2.751300E-2	4.321788E-2	3.346354E-2	3.545140E-2	3.480631E-2	4.530937E-2	4.340652E-2	2.650087E-2	2.992332E-2	3.643015E-2	2.239697E-2	4.743613E-2	4.303267E-2	4.508313E-2	3.930137E-2	3.179494E-2	4.895289E-2	3.344574E-2	3.129727E-2	3.271219E-2	2.610749E-2	4.942285E-2	2.690792E-2	3.869020E-2	4.967043E-2	3.713834E-2	4.644394E-2	2.964069E-2	4.635059E-2	4.193520E-2	3.098571E-2	3.288425E-2	4.317089E-2	3.990023E-2	2.850306E-2	4.023389E-2	4.513540E-2	5.364967E-2	4.632622E-2	3.947191E-2	3.584383E-2	4.360799E-2	3.349446E-2	3.131754E-2	3.199604E-2	5.303069E-2	2.667620E-2	4.210528E-2	3.653741E-2	3.263715E-2	3.771599E-2	4.011968E-2	3.356012E-2	4.336044E-2	3.739381E-2	2.755067E-2	3.972883E-2	3.340502E-2	3.173834E-2	3.897228E-2	3.661328E-2	3.240688E-2	5.860703E-2	4.006813E-2	3.907150E-2	2.425230E-2	4.018565E-2	4.177784E-2	4.264565E-2	3.216187E-2	4.083074E-2	2.137382E-2	5.636895E-2	5.091023E-2	4.537967E-2	3.238936E-2	3.662899E-2	4.763897E-2	4.191789E-2	3.498341E-2	5.140597E-2	3.487248E-2	4.522192E-2	3.088284E-2	2.265195E-2	3.806936E-2	3.463679E-2	4.412087E-2	4.965828E-2	3.082851E-2	3.642914E-2	2.554412E-2	4.153297E-2	4.183516E-2	2.209355E-2	3.414601E-2	2.879060E-2	5.916117E-2	2.621018E-2	4.074351E-2
5.337630E+2	5.532157E-2	3.887158E-2	6.018334E-2	4.375303E-2	4.260347E-2	3.834102E-2	4.688819E-2	5.007675E-2	4.476459E-2	4.645160E-2	5.523415E-2	5.820368E-2	5.474158E-2	5.352490E-2	5.487932E-2	6.121524E-2	4.689109E-2	4.398761E-2	6.295277E-2	7.120500E-2	4.477647E-2	3.955799E-2	4.939440E-2	6.220615E-2	4.724021E-2	4.842921E-2	4.591411E-2	4.438455E-2	5.784611E-2	6.154633E-2	5.736372E-2	6.627074E-2	5.400683E-2	7.364877E-2	5.537265E-2	5.889865E-2	4.586478E-2	4.816758E-2	4.104253E-2	5.427937E-2	3.684894E-2	5.450846E-2	6.042312E-2	5.302408E-2	5.833534E-2	4.764119E-2	4.769909E-2	6.499227E-2	4.134542E-2	5.729690E-2	4.730574E-2	6.539315E-2	5.192850E-2	6.042364E-2	4.512357E-2	5.655299E-2	3.036182E-2	5.511355E-2	4.779482E-2	4.286680E-2	4.489845E-2	5.071997E-2	5.851146E-2	5.854379E-2	4.028689E-2	4.985355E-2	4.994062E-2	6.587482E-2	5.467933E-2	4.307620E-2	4.924119E-2	4.519387E-2	3.107325E-2	4.236021E-2	5.632988E-2	4.817834E-2	4.619940E-2	5.619313E-2	4.438031E-2	6.454690E-2	3.179489E-2	5.521171E-2	4.493634E-2	7.000168E-2	5.886368E-2	4.921410E-2	4.161928E-2	5.734928E-2	3.445843E-2	5.578374E-2	5.708107E-2	4.793879E-2	5.726440E-2	5.260347E-2	4.126194E-2	4.745908E-2	4.298022E-2	4.697694E-2	7.604517E-2	3.642630E-2	2.494140E-2	5.534795E-2	5.637103E-2	3.970817E-2	3.539868E-2	4.582311E-2	6.107288E-2	4.163039E-2	3.910416E-2	4.447743E-2	5.573535E-2	4.024504E-2	4.279392E-2	3.950280E-2	5.032444E-2	4.781051E-2	4.011972E-2	4.163766E-2	3.810464E-2	3.739386E-2	4.710585E-2	4.872630E-2	4.044824E-2	5.161293E-2	6.154479E-2	5.351172E-2	5.960003E-2	5.020824E-2	3.445859E-2	4.384181E-2	5.934825E-2	5.126041E-2	3.857121E-2	5.080564E-2	4.506755E-2	5.039774E-2	5.328270E-2	4.928064E-2	5.091024E-2	4.607328E-2	3.617868E-2	5.362812E-2	5.383992E-2	3.730217E-2	3.918140E-2	7.800300E-2	6.952963E-2	4.887726E-2	3.448583E-2	4.688661E-2	4.939502E-2	4.293132E-2	4.993446E-2	4.886104E-2	4.771080E-2	5.464379E-2	4.976523E-2	5.632824E-2	5.620384E-2	3.135855E-2	4.188136E-2	4.204942E-2	5.916114E-2	3.857911E-2	4.956416E-2
5.339090E+2	7.237475E-2	5.780039E-2	5.388376E-2	6.672337E-2	5.537373E-2	5.321012E-2	7.218695E-2	6.771394E-2	5.942026E-2	5.677418E-2	6.656678E-2	5.670028E-2	4.165114E-2	7.445268E-2	8.311626E-2	7.263304E-2	8.491092E-2	7.104892E-2	6.366714E-2	9.389691E-2	7.973634E-2	7.387032E-2	7.584597E-2	5.097692E-2	6.167475E-2	6.961702E-2	5.736711E-2	4.778378E-2	5.839255E-2	9.658333E-2	7.302701E-2	8.568335E-2	5.591296E-2	5.913735E-2	7.488766E-2	8.222167E-2	5.701664E-2	6.545853E-2	7.905805E-2	6.821692E-2	4.875403E-2	5.670129E-2	5.068387E-2	6.327740E-2	6.232758E-2	7.365343E-2	7.724125E-2	7.510217E-2	6.777937E-2	7.757625E-2	4.464064E-2	7.253440E-2	8.431293E-2	7.708603E-2	5.742164E-2	6.321149E-2	6.043079E-2	7.529597E-2	5.225562E-2	6.923847E-2	5.079503E-2	8.013942E-2	7.571519E-2	8.310647E-2	5.164749E-2	7.450511E-2	8.280756E-2	8.060720E-2	7.450814E-2	6.534139E-2	6.103638E-2	7.379110E-2	5.328170E-2	5.872451E-2	7.107039E-2	6.768864E-2	4.990944E-2	7.739608E-2	7.671168E-2	8.849764E-2	3.380001E-2	7.242345E-2	7.940821E-2	8.022537E-2	6.460432E-2	6.461855E-2	7.543488E-2	7.700946E-2	5.702771E-2	6.266116E-2	5.850553E-2	8.231783E-2	5.358133E-2	9.012092E-2	5.742042E-2	8.177895E-2	4.971096E-2	6.143975E-2	5.797274E-2	5.299317E-2	3.704796E-2	6.747506E-2	5.841201E-2	6.196892E-2	4.558184E-2	5.437672E-2	5.955416E-2	8.452852E-2	7.025063E-2	6.805345E-2	6.723017E-2	6.350593E-2	6.207573E-2	8.546613E-2	7.685539E-2	6.256413E-2	5.047324E-2	6.923580E-2	6.701162E-2	7.402652E-2	6.598673E-2	5.199811E-2	6.369091E-2	8.284427E-2	7.250853E-2	6.336921E-2	7.749015E-2	6.829814E-2	5.900031E-2	5.815290E-2	6.669391E-2	7.414834E-2	5.268040E-2	7.528569E-2	6.729415E-2	7.491336E-2	6.888259E-2	6.818275E-2	7.313729E-2	7.242925E-2	5.133584E-2	6.991896E-2	6.624198E-2	5.246797E-2	6.506912E-2	8.660788E-2	5.822840E-2	5.618798E-2	7.483948E-2	6.004253E-2	8.070725E-2	6.079667E-2	6.374168E-2	6.002280E-2	7.927336E-2	7.361721E-2	7.897314E-2	7.778191E-2	6.851992E-2	7.768373E-2	6.431382E-2	6.591533E-2	6.170178E-2	8.805443E-2	7.014598E-2
5.340640E+2	9.511250E-2	8.619368E-2	8.931903E-2	1.135147E-1	8.241666E-2	7.105304E-2	9.082795E-2	1.059275E-1	9.012740E-2	1.105991E-1	9.723139E-2	1.002991E-1	7.616200E-2	1.088821E-1	1.100402E-1	1.156179E-1	1.337029E-1	1.134692E-1	1.222322E-1	1.173712E-1	1.044496E-1	9.975490E-2	9.599957E-2	1.195998E-1	9.644882E-2	1.051577E-1	1.096211E-1	1.212075E-1	8.462223E-2	9.982748E-2	1.100488E-1	1.271856E-1	8.704640E-2	1.011444E-1	1.159365E-1	1.273628E-1	9.281930E-2	8.607459E-2	1.095951E-1	1.070004E-1	7.454838E-2	1.129849E-1	1.174675E-1	1.179614E-1	1.062417E-1	1.110041E-1	1.198364E-1	1.180695E-1	9.963572E-2	1.106237E-1	7.928719E-2	1.310925E-1	9.951367E-2	1.168190E-1	8.654868E-2	8.681849E-2	1.103179E-1	1.241997E-1	1.124773E-1	9.418464E-2	9.266088E-2	1.135707E-1	1.081373E-1	1.341705E-1	9.174354E-2	1.068605E-1	9.475935E-2	1.078620E-1	9.794220E-2	8.506172E-2	1.114948E-1	8.868549E-2	8.463489E-2	9.472628E-2	1.020254E-1	1.053156E-1	9.999575E-2	1.183396E-1	1.111517E-1	1.415773E-1	1.113301E-1	1.162354E-1	1.289609E-1	1.349957E-1	9.841007E-2	9.962858E-2	1.046985E-1	1.182319E-1	8.594452E-2	1.100391E-1	1.062260E-1	1.047390E-1	9.593771E-2	1.311118E-1	9.310395E-2	1.257080E-1	1.062489E-1	1.017835E-1	1.294409E-1	1.199804E-1	8.611160E-2	9.555944E-2	1.019536E-1	1.275477E-1	9.513995E-2	1.042730E-1	1.149863E-1	1.059779E-1	9.241263E-2	1.082712E-1	1.219994E-1	1.210121E-1	1.068370E-1	1.114126E-1	9.601636E-2	1.184726E-1	1.112999E-1	1.183737E-1	9.460444E-2	1.020006E-1	9.498238E-2	1.059826E-1	1.144020E-1	8.142467E-2	1.163640E-1	1.063194E-1	1.354544E-1	1.051235E-1	9.546216E-2	1.217575E-1	1.262754E-1	8.448482E-2	8.218150E-2	1.208458E-1	1.117470E-1	1.095939E-1	6.888259E-2	8.787240E-2	1.109228E-1	1.008658E-1	9.996500E-2	1.095833E-1	1.041367E-1	1.038998E-1	9.375563E-2	1.124226E-1	1.200086E-1	1.168668E-1	1.036632E-1	9.050873E-2	1.160166E-1	8.631859E-2	8.045574E-2	9.589962E-2	1.034959E-1	1.138413E-1	1.210039E-1	1.221679E-1	1.212047E-1	1.076169E-1	9.216117E-2	8.182591E-2	1.277589E-1	1.086693E-1	9.072763E-2
5.342090E+2	1.675887E-1	1.406138E-1	1.342036E-1	1.271269E-1	1.402587E-1	1.253252E-1	1.474172E-1	1.625131E-1	1.382817E-1	1.607370E-1	1.145636E-1	1.318709E-1	9.936754E-2	1.554634E-1	1.645441E-1	1.458418E-1	1.641188E-1	1.800255E-1	1.765127E-1	1.760564E-1	1.532732E-1	1.346692E-1	1.444941E-1	1.408107E-1	1.358157E-1	1.666710E-1	1.475590E-1	1.293658E-1	1.381747E-1	1.705500E-1	1.698536E-1	1.713663E-1	1.378762E-1	1.462060E-1	1.415080E-1	1.506855E-1	1.368396E-1	1.266417E-1	1.687996E-1	1.724469E-1	1.387033E-1	1.495323E-1	1.432067E-1	1.514554E-1	1.330467E-1	1.743668E-1	1.775467E-1	1.938934E-1	1.464037E-1	1.391650E-1	1.086032E-1	1.603713E-1	1.365245E-1	1.777005E-1	1.409188E-1	1.437174E-1	1.178353E-1	1.777606E-1	1.466768E-1	1.348113E-1	1.410130E-1	1.530197E-1	1.471762E-1	1.470981E-1	1.432001E-1	1.546229E-1	1.799141E-1	1.903635E-1	1.171699E-1	1.353173E-1	1.206686E-1	1.631575E-1	1.205602E-1	1.117451E-1	1.462471E-1	1.366714E-1	1.401880E-1	1.570899E-1	1.687858E-1	1.797692E-1	1.220239E-1	1.483117E-1	1.296789E-1	1.598247E-1	1.513511E-1	1.535442E-1	1.677774E-1	1.435999E-1	1.303777E-1	1.192090E-1	1.361400E-1	1.607925E-1	1.481157E-1	1.741874E-1	1.489850E-1	1.565955E-1	1.446140E-1	1.642022E-1	1.861227E-1	1.552749E-1	1.237056E-1	1.447070E-1	1.488967E-1	1.365720E-1	1.290841E-1	1.570206E-1	1.597875E-1	1.370420E-1	1.283504E-1	1.415553E-1	1.591888E-1	1.410420E-1	1.515986E-1	1.484795E-1	1.409715E-1	1.945700E-1	1.345954E-1	1.547227E-1	1.333664E-1	1.706036E-1	1.367900E-1	1.763261E-1	1.425748E-1	1.580836E-1	1.266830E-1	1.682801E-1	1.533450E-1	1.697296E-1	1.340279E-1	1.599208E-1	1.662685E-1	1.701299E-1	1.328464E-1	1.623257E-1	1.590678E-1	1.341093E-1	1.334094E-1	1.469416E-1	1.487089E-1	1.459482E-1	1.201748E-1	1.414569E-1	1.675238E-1	1.566505E-1	1.266398E-1	1.703100E-1	1.704879E-1	1.461096E-1	1.512231E-1	1.362083E-1	1.533246E-1	1.258772E-1	1.102504E-1	1.572895E-1	1.460687E-1	1.335736E-1	1.494992E-1	1.414022E-1	1.547314E-1	1.624946E-1	1.532702E-1	1.339776E-1	1.569766E-1	1.973127E-1	1.083691E-1
5.343600E+2	2.358017E-1	1.879353E-1	2.302717E-1	2.649487E-1	2.304021E-1	2.100790E-1	2.233128E-1	2.176290E-1	2.171432E-1	2.433178E-1	2.332211E-1	2.807093E-1	2.136110E-1	2.864309E-1	2.597622E-1	2.539760E-1	3.003564E-1	3.445869E-1	3.214979E-1	3.364630E-1	2.732225E-1	2.646945E-1	2.893485E-1	2.474877E-1	2.598213E-1	2.773943E-1	2.713946E-1	2.741740E-1	2.316183E-1	3.132932E-1	2.944464E-1	2.938670E-1	2.490672E-1	2.821565E-1	2.606169E-1	3.094327E-1	2.460096E-1	2.290571E-1	2.479466E-1	2.445593E-1	2.643676E-1	2.474807E-1	2.684255E-1	2.437353E-1	2.733446E-1	2.330607E-1	2.792263E-1	2.949924E-1	2.534948E-1	3.059054E-1	2.052134E-1	2.674897E-1	2.389654E-1	2.911326E-1	2.464225E-1	2.466195E-1	2.340106E-1	2.778962E-1	2.396109E-1	2.331709E-1	2.253345E-1	2.874129E-1	2.590006E-1	2.595688E-1	2.267331E-1	3.033029E-1	2.650696E-1	3.008560E-1	2.391467E-1	2.402820E-1	2.392781E-1	2.555027E-1	2.054751E-1	2.171312E-1	2.759639E-1	2.607009E-1	2.434518E-1	2.806520E-1	2.685911E-1	3.202369E-1	2.209414E-1	2.789643E-1	2.998835E-1	2.795890E-1	2.304436E-1	2.256648E-1	2.562187E-1	2.450707E-1	2.559197E-1	2.666924E-1	2.401271E-1	2.504771E-1	2.119573E-1	3.034130E-1	2.708472E-1	3.192702E-1	2.341320E-1	2.730533E-1	2.904503E-1	2.625990E-1	2.160978E-1	2.442785E-1	2.591119E-1	2.496807E-1	2.329523E-1	2.781971E-1	2.865979E-1	2.457668E-1	2.247847E-1	2.843980E-1	3.052400E-1	3.058071E-1	2.287262E-1	2.522674E-1	2.839430E-1	2.877509E-1	2.258353E-1	2.503064E-1	2.483372E-1	2.558578E-1	2.298456E-1	2.433981E-1	2.531536E-1	2.901068E-1	2.227775E-1	2.802320E-1	2.900261E-1	3.015262E-1	2.237803E-1	3.022361E-1	2.805341E-1	2.816161E-1	2.598289E-1	2.459653E-1	2.350684E-1	2.680479E-1	2.043177E-1	2.217627E-1	2.872563E-1	2.583076E-1	2.471158E-1	2.547844E-1	2.839640E-1	2.891859E-1	2.294911E-1	2.915617E-1	2.495964E-1	2.579631E-1	2.557099E-1	2.359164E-1	2.505920E-1	2.254122E-1	2.018138E-1	2.537586E-1	2.385541E-1	2.216109E-1	2.556449E-1	2.538474E-1	2.936282E-1	2.629844E-1	2.723944E-1	2.179500E-1	2.992535E-1	2.385423E-1	2.318597E-1
5.345160E+2	4.397300E-1	3.827449E-1	4.192588E-1	4.521149E-1	3.956646E-1	4.011468E-1	3.571300E-1	4.241303E-1	3.853345E-1	3.922583E-1	4.225412E-1	4.302993E-1	3.385648E-1	4.795062E-1	4.370647E-1	4.534529E-1	5.062967E-1	5.318218E-1	5.079069E-1	5.594680E-1	4.341595E-1	4.543150E-1	4.694715E-1	4.471179E-1	4.153205E-1	4.564652E-1	4.159878E-1	4.454967E-1	4.163194E-1	5.027517E-1	4.923722E-1	4.819680E-1	3.996504E-1	4.853180E-1	4.773005E-1	4.839789E-1	4.080032E-1	4.345536E-1	4.118496E-1	4.675630E-1	3.867249E-1	4.623816E-1	4.367754E-1	4.105220E-1	4.119317E-1	4.471603E-1	4.523558E-1	5.161462E-1	4.595444E-1	4.861654E-1	3.817773E-1	4.667297E-1	4.035310E-1	4.673679E-1	4.295984E-1	4.148950E-1	3.734215E-1	4.944693E-1	4.440671E-1	3.942520E-1	3.916183E-1	4.773028E-1	4.627982E-1	4.761071E-1	4.138477E-1	4.573760E-1	4.308984E-1	5.078465E-1	4.176054E-1	4.107689E-1	4.653567E-1	4.068300E-1	3.321942E-1	3.329906E-1	3.968363E-1	4.230539E-1	3.862904E-1	4.415028E-1	4.682019E-1	5.060166E-1	3.833531E-1	4.753350E-1	4.607513E-1	4.847948E-1	4.422069E-1	4.175199E-1	4.272477E-1	4.847960E-1	4.110828E-1	4.531469E-1	4.331444E-1	4.642259E-1	4.022540E-1	4.604295E-1	4.681157E-1	5.080286E-1	3.929761E-1	4.724879E-1	5.056774E-1	4.801276E-1	4.270079E-1	4.261875E-1	4.904266E-1	4.127244E-1	3.626180E-1	4.692281E-1	4.658026E-1	4.040466E-1	3.835114E-1	4.612186E-1	4.790148E-1	4.925410E-1	4.325625E-1	4.442740E-1	4.880840E-1	4.803237E-1	4.238454E-1	4.360896E-1	4.099536E-1	4.556720E-1	3.930303E-1	4.527927E-1	4.081048E-1	4.753661E-1	4.239960E-1	4.569618E-1	4.503225E-1	5.063280E-1	4.299307E-1	4.525026E-1	5.017200E-1	4.986816E-1	4.169539E-1	4.356852E-1	4.071441E-1	4.563980E-1	3.588985E-1	4.407128E-1	4.643310E-1	4.448793E-1	4.220548E-1	4.474406E-1	5.340683E-1	4.896378E-1	3.778206E-1	4.800867E-1	4.462384E-1	4.772844E-1	4.697283E-1	4.097136E-1	4.644469E-1	3.830097E-1	4.067426E-1	4.363326E-1	4.448110E-1	4.189359E-1	4.344545E-1	4.972324E-1	4.968419E-1	5.053005E-1	4.588162E-1	3.249044E-1	4.135833E-1	5.085949E-1	3.965136E-1
5.346620E+2	7.424250E-1	5.893835E-1	7.106137E-1	7.192513E-1	6.818692E-1	6.383091E-1	6.487313E-1	6.820726E-1	6.505323E-1	6.665434E-1	6.971880E-1	7.009142E-1	5.819266E-1	7.826211E-1	7.752526E-1	7.630787E-1	7.553267E-1	8.602142E-1	7.557393E-1	8.442882E-1	7.240869E-1	7.360366E-1	6.993488E-1	7.509299E-1	6.961370E-1	7.394243E-1	6.865646E-1	7.650269E-1	6.622232E-1	8.025118E-1	7.963791E-1	8.046185E-1	6.646017E-1	7.572183E-1	7.336872E-1	7.856733E-1	6.480595E-1	7.185236E-1	6.941621E-1	6.869310E-1	6.565727E-1	7.072519E-1	7.080836E-1	6.866765E-1	6.856840E-1	7.886520E-1	7.676997E-1	8.447186E-1	6.784714E-1	7.820922E-1	6.362955E-1	7.480937E-1	7.002785E-1	7.403729E-1	6.736168E-1	6.963630E-1	6.126064E-1	7.327773E-1	7.384825E-1	7.356592E-1	6.233550E-1	7.701601E-1	7.764347E-1	7.689184E-1	6.517497E-1	7.662906E-1	7.289412E-1	7.509311E-1	6.982121E-1	6.556858E-1	6.999546E-1	7.071011E-1	5.908576E-1	5.686365E-1	6.886987E-1	6.996812E-1	6.367212E-1	7.595475E-1	7.605899E-1	8.134919E-1	6.400041E-1	7.749759E-1	7.982871E-1	7.725213E-1	6.756572E-1	7.109043E-1	6.854170E-1	7.194482E-1	6.318387E-1	7.007352E-1	6.881275E-1	7.033859E-1	6.723526E-1	7.814101E-1	7.764739E-1	7.860172E-1	6.803767E-1	7.777293E-1	8.580904E-1	7.711265E-1	6.481126E-1	6.719247E-1	7.775289E-1	6.948934E-1	6.212710E-1	7.108687E-1	7.642242E-1	7.154293E-1	6.224998E-1	7.739472E-1	7.839655E-1	7.807176E-1	6.487950E-1	7.030016E-1	8.064535E-1	8.328572E-1	6.535631E-1	7.322645E-1	6.622320E-1	7.620541E-1	6.425276E-1	6.572800E-1	7.032161E-1	7.046330E-1	6.632655E-1	7.315612E-1	7.315574E-1	7.957639E-1	7.461689E-1	7.530348E-1	8.086052E-1	7.644765E-1	6.754087E-1	6.539654E-1	7.649189E-1	7.087289E-1	6.283507E-1	6.699014E-1	7.517993E-1	7.028891E-1	6.670951E-1	7.661738E-1	7.869287E-1	7.922946E-1	6.255026E-1	7.656139E-1	8.086318E-1	7.412010E-1	7.039234E-1	6.742172E-1	7.136112E-1	6.580079E-1	6.748942E-1	6.890664E-1	7.354806E-1	7.255481E-1	7.251080E-1	7.975803E-1	7.657400E-1	8.032073E-1	7.156291E-1	6.068759E-1	8.099266E-1	7.848336E-1	6.905386E-1
5.348070E+2	1.096990E+0	9.553403E-1	1.051578E+0	1.136121E+0	1.004883E+0	9.609685E-1	8.990546E-1	1.006154E+0	9.736548E-1	1.072074E+0	1.048496E+0	1.085789E+0	8.877649E-1	1.146494E+0	1.118695E+0	1.172778E+0	1.086099E+0	1.224444E+0	1.206407E+0	1.169796E+0	1.043550E+0	1.121898E+0	1.080377E+0	1.045383E+0	9.730175E-1	1.087315E+0	1.119630E+0	1.043085E+0	9.638654E-1	1.181431E+0	1.244201E+0	1.214291E+0	1.015328E+0	1.084110E+0	1.093706E+0	1.167869E+0	9.849600E-1	1.065007E+0	1.036300E+0	1.061433E+0	9.178222E-1	1.072730E+0	1.083045E+0	1.083821E+0	9.548735E-1	1.219519E+0	1.091288E+0	1.190352E+0	9.983900E-1	1.146367E+0	9.314567E-1	1.085159E+0	9.547274E-1	1.121042E+0	1.079451E+0	1.048653E+0	8.982607E-1	1.139531E+0	1.095351E+0	9.787065E-1	9.400021E-1	1.158632E+0	1.113230E+0	1.177431E+0	1.046027E+0	1.126051E+0	1.078526E+0	1.161964E+0	9.830254E-1	9.883906E-1	1.047919E+0	1.021075E+0	7.972657E-1	8.730130E-1	9.930904E-1	1.072467E+0	9.706273E-1	1.085634E+0	1.128886E+0	1.161748E+0	9.822048E-1	1.076181E+0	1.138695E+0	1.155182E+0	1.059638E+0	9.923851E-1	1.071695E+0	1.049863E+0	9.534508E-1	1.032381E+0	1.000801E+0	1.088284E+0	1.003837E+0	1.164223E+0	1.062614E+0	1.140196E+0	9.502773E-1	1.048717E+0	1.216253E+0	1.170170E+0	9.087228E-1	1.072762E+0	1.174846E+0	1.002331E+0	9.491688E-1	1.017374E+0	1.134024E+0	1.016457E+0	1.006439E+0	1.119960E+0	1.212655E+0	1.134800E+0	1.008953E+0	1.113703E+0	1.191888E+0	1.149672E+0	9.551078E-1	1.043921E+0	1.008458E+0	1.061110E+0	9.189973E-1	1.040080E+0	1.040586E+0	1.082959E+0	1.022492E+0	1.141348E+0	1.173089E+0	1.146576E+0	9.817691E-1	1.101271E+0	1.186499E+0	1.167598E+0	9.595162E-1	9.660849E-1	1.086845E+0	1.019657E+0	9.020573E-1	1.006203E+0	1.078535E+0	1.062855E+0	9.468712E-1	1.166360E+0	1.210661E+0	1.158911E+0	9.417528E-1	1.138754E+0	1.160478E+0	1.037284E+0	1.074312E+0	1.006578E+0	1.047385E+0	1.001276E+0	9.415918E-1	1.056606E+0	1.018809E+0	1.001803E+0	1.064204E+0	1.165247E+0	1.160535E+0	1.178085E+0	1.037420E+0	9.109448E-1	1.127510E+0	1.087870E+0	9.463415E-1
5.349630E+2	1.540375E+0	1.330760E+0	1.459473E+0	1.514704E+0	1.342170E+0	1.323775E+0	1.283862E+0	1.452227E+0	1.321900E+0	1.425255E+0	1.461800E+0	1.496222E+0	1.293567E+0	1.652136E+0	1.619082E+0	1.575766E+0	1.381386E+0	1.577703E+0	1.569226E+0	1.582942E+0	1.411232E+0	1.463818E+0	1.462666E+0	1.447764E+0	1.280736E+0	1.457076E+0	1.468947E+0	1.453038E+0	1.319061E+0	1.586948E+0	1.593064E+0	1.606562E+0	1.379398E+0	1.477448E+0	1.478623E+0	1.566618E+0	1.333011E+0	1.427451E+0	1.326716E+0	1.446840E+0	1.224045E+0	1.466716E+0	1.439224E+0	1.481651E+0	1.269689E+0	1.571013E+0	1.568771E+0	1.596011E+0	1.384733E+0	1.675129E+0	1.241276E+0	1.522917E+0	1.347966E+0	1.529267E+0	1.401142E+0	1.401547E+0	1.338359E+0	1.513681E+0	1.493109E+0	1.407068E+0	1.305002E+0	1.659428E+0	1.567806E+0	1.565908E+0	1.398204E+0	1.466550E+0	1.471435E+0	1.521435E+0	1.347151E+0	1.357357E+0	1.467311E+0	1.435736E+0	1.136272E+0	1.176736E+0	1.359392E+0	1.478698E+0	1.294022E+0	1.457052E+0	1.524594E+0	1.647882E+0	1.329086E+0	1.537770E+0	1.500647E+0	1.517398E+0	1.337737E+0	1.443313E+0	1.471629E+0	1.454478E+0	1.374511E+0	1.463367E+0	1.416749E+0	1.447770E+0	1.321202E+0	1.529670E+0	1.559488E+0	1.569189E+0	1.312386E+0	1.496303E+0	1.668885E+0	1.505108E+0	1.350293E+0	1.366373E+0	1.510256E+0	1.395200E+0	1.314407E+0	1.407276E+0	1.505343E+0	1.452837E+0	1.359232E+0	1.590094E+0	1.720455E+0	1.471438E+0	1.292670E+0	1.509578E+0	1.564792E+0	1.640424E+0	1.351130E+0	1.444432E+0	1.385562E+0	1.468066E+0	1.306056E+0	1.493224E+0	1.399790E+0	1.452058E+0	1.420414E+0	1.580705E+0	1.603170E+0	1.582668E+0	1.330962E+0	1.468588E+0	1.635398E+0	1.570722E+0	1.384718E+0	1.299287E+0	1.495524E+0	1.417883E+0	1.316874E+0	1.435440E+0	1.450465E+0	1.446403E+0	1.337799E+0	1.560884E+0	1.577205E+0	1.578940E+0	1.222319E+0	1.478258E+0	1.482187E+0	1.516134E+0	1.442540E+0	1.404721E+0	1.451111E+0	1.360495E+0	1.321654E+0	1.397039E+0	1.410773E+0	1.387345E+0	1.451030E+0	1.518857E+0	1.575858E+0	1.490959E+0	1.420318E+0	1.263630E+0	1.540368E+0	1.607363E+0	1.272708E+0
5.351090E+2	1.843780E+0	1.522416E+0	1.716183E+0	1.795454E+0	1.654667E+0	1.641230E+0	1.567470E+0	1.651379E+0	1.581515E+0	1.707649E+0	1.660454E+0	1.801415E+0	1.567870E+0	1.888418E+0	1.846292E+0	1.849120E+0	1.603805E+0	1.753238E+0	1.784919E+0	1.862282E+0	1.598090E+0	1.721460E+0	1.655387E+0	1.636789E+0	1.554989E+0	1.733198E+0	1.741669E+0	1.686904E+0	1.579173E+0	1.852324E+0	1.844389E+0	1.891057E+0	1.616392E+0	1.829545E+0	1.735681E+0	1.866809E+0	1.570133E+0	1.659550E+0	1.748003E+0	1.748018E+0	1.529609E+0	1.694773E+0	1.718183E+0	1.649118E+0	1.545150E+0	1.887164E+0	1.835333E+0	1.860132E+0	1.569772E+0	1.953783E+0	1.444493E+0	1.809993E+0	1.556155E+0	1.764463E+0	1.679467E+0	1.666066E+0	1.498956E+0	1.838154E+0	1.748865E+0	1.622320E+0	1.544405E+0	1.890775E+0	1.870192E+0	1.827692E+0	1.581975E+0	1.747732E+0	1.780684E+0	1.805031E+0	1.619345E+0	1.578097E+0	1.637690E+0	1.625788E+0	1.272790E+0	1.351505E+0	1.639464E+0	1.713517E+0	1.541363E+0	1.724651E+0	1.859154E+0	1.869265E+0	1.506867E+0	1.787339E+0	1.782883E+0	1.859893E+0	1.619027E+0	1.656874E+0	1.627051E+0	1.636492E+0	1.551535E+0	1.728532E+0	1.687403E+0	1.593512E+0	1.568590E+0	1.794378E+0	1.823410E+0	1.891792E+0	1.572865E+0	1.776423E+0	1.972013E+0	1.766572E+0	1.550371E+0	1.669556E+0	1.766060E+0	1.699031E+0	1.438640E+0	1.638225E+0	1.782504E+0	1.684338E+0	1.592828E+0	1.835563E+0	1.932095E+0	1.839737E+0	1.572258E+0	1.618555E+0	1.900114E+0	1.985964E+0	1.509019E+0	1.657813E+0	1.693687E+0	1.773115E+0	1.531278E+0	1.707525E+0	1.626586E+0	1.736689E+0	1.635177E+0	1.811652E+0	1.845760E+0	1.884380E+0	1.637382E+0	1.783433E+0	1.885967E+0	1.786311E+0	1.609180E+0	1.539326E+0	1.720657E+0	1.661842E+0	1.499109E+0	1.692983E+0	1.810542E+0	1.686380E+0	1.570840E+0	1.776204E+0	1.756342E+0	1.851260E+0	1.509180E+0	1.761439E+0	1.821226E+0	1.743499E+0	1.712044E+0	1.631830E+0	1.614999E+0	1.601677E+0	1.547660E+0	1.605923E+0	1.699240E+0	1.615787E+0	1.656911E+0	1.814768E+0	1.855704E+0	1.822360E+0	1.644645E+0	1.399754E+0	1.763945E+0	1.885661E+0	1.519689E+0
5.352550E+2	2.231741E+0	1.796883E+0	2.001234E+0	2.141710E+0	2.281915E+0	1.905898E+0	1.723261E+0	1.970314E+0	2.050496E+0	2.016591E+0	1.963765E+0	2.010392E+0	1.839791E+0	2.243514E+0	2.155582E+0	2.075463E+0	1.796436E+0	2.045790E+0	1.937046E+0	2.092330E+0	1.885605E+0	1.922516E+0	1.914863E+0	1.868236E+0	1.835152E+0	1.956697E+0	1.929210E+0	1.827632E+0	1.775351E+0	2.067085E+0	2.057262E+0	2.149443E+0	1.816535E+0	2.009030E+0	1.961116E+0	2.028565E+0	1.790233E+0	1.892311E+0	1.953659E+0	1.900727E+0	1.664533E+0	1.916254E+0	1.967231E+0	1.852132E+0	1.755598E+0	2.155956E+0	2.076478E+0	2.120459E+0	1.855799E+0	2.211403E+0	1.693016E+0	2.091359E+0	1.747157E+0	2.015678E+0	1.847755E+0	1.881556E+0	1.654085E+0	2.098198E+0	1.948863E+0	1.852536E+0	1.671179E+0	2.174274E+0	2.084576E+0	2.146357E+0	1.816537E+0	2.034311E+0	1.942031E+0	2.099683E+0	1.710680E+0	1.849099E+0	1.919469E+0	1.819416E+0	1.476583E+0	1.470639E+0	1.817086E+0	1.869599E+0	1.685438E+0	1.913281E+0	2.058064E+0	2.156672E+0	1.779562E+0	2.017355E+0	1.930824E+0	2.019090E+0	1.855665E+0	1.843831E+0	1.907335E+0	1.913004E+0	1.803324E+0	2.009742E+0	1.793526E+0	1.819214E+0	1.782213E+0	2.109798E+0	2.085988E+0	2.065453E+0	1.761996E+0	2.030668E+0	2.238994E+0	2.025882E+0	1.737707E+0	1.891673E+0	2.023908E+0	1.899978E+0	1.651127E+0	1.791481E+0	2.020180E+0	1.832265E+0	1.773119E+0	2.018623E+0	2.145762E+0	1.957979E+0	1.780226E+0	1.891367E+0	2.064456E+0	2.124189E+0	1.707027E+0	1.931103E+0	1.859245E+0	1.945621E+0	1.788192E+0	1.958637E+0	1.847740E+0	1.921945E+0	1.824142E+0	2.108081E+0	2.094791E+0	2.093054E+0	1.812682E+0	2.009231E+0	2.147147E+0	2.005591E+0	1.795806E+0	1.858926E+0	1.996697E+0	1.860956E+0	1.687728E+0	1.828447E+0	1.920197E+0	1.895144E+0	1.825984E+0	2.085015E+0	2.124951E+0	2.109738E+0	1.667310E+0	1.998462E+0	2.043480E+0	1.987677E+0	1.957047E+0	1.872793E+0	1.910133E+0	1.725458E+0	1.688635E+0	1.902509E+0	1.825490E+0	1.819940E+0	1.918356E+0	2.019683E+0	2.063021E+0	2.077503E+0	1.857365E+0	1.546486E+0	2.049773E+0	1.972244E+0	1.657880E+0
5.354110E+2	2.427145E+0	1.931751E+0	2.157937E+0	2.255711E+0	2.427646E+0	1.984707E+0	1.916329E+0	1.981335E+0	2.151690E+0	2.141201E+0	2.036426E+0	2.159980E+0	1.992118E+0	2.333303E+0	2.287580E+0	2.336730E+0	2.084119E+0	2.153302E+0	2.068460E+0	2.217528E+0	2.355759E+0	2.042311E+0	1.946355E+0	2.002361E+0	2.226195E+0	2.088606E+0	2.093133E+0	1.936410E+0	2.007046E+0	2.215019E+0	2.164768E+0	2.302067E+0	1.942976E+0	2.112901E+0	2.068785E+0	2.166244E+0	1.879445E+0	2.008028E+0	1.944934E+0	2.011018E+0	1.751175E+0	2.029551E+0	2.040972E+0	1.982692E+0	1.905592E+0	2.227322E+0	2.199457E+0	2.207028E+0	1.889007E+0	2.303787E+0	1.699677E+0	2.137774E+0	1.867441E+0	2.097711E+0	1.942253E+0	2.015327E+0	1.807848E+0	2.265086E+0	2.084172E+0	1.987245E+0	1.803265E+0	2.235117E+0	2.070019E+0	2.192254E+0	1.900738E+0	2.149862E+0	2.178819E+0	2.179968E+0	1.908967E+0	1.884086E+0	1.950268E+0	2.058918E+0	1.844983E+0	1.602863E+0	2.025665E+0	1.948337E+0	1.904949E+0	2.079253E+0	2.185976E+0	2.187096E+0	1.897857E+0	2.063510E+0	2.161352E+0	2.170990E+0	1.841631E+0	2.027985E+0	1.994470E+0	2.056330E+0	1.877381E+0	2.037251E+0	1.933838E+0	2.050152E+0	1.822114E+0	2.209843E+0	2.129076E+0	2.276172E+0	1.835360E+0	2.131907E+0	2.322781E+0	2.115196E+0	1.849214E+0	1.921676E+0	2.064732E+0	2.026320E+0	1.780793E+0	1.926911E+0	2.208493E+0	2.002376E+0	1.849191E+0	2.160077E+0	2.205263E+0	2.209972E+0	1.842201E+0	2.042605E+0	2.132259E+0	2.187084E+0	1.844212E+0	1.936484E+0	1.919686E+0	2.098149E+0	1.834719E+0	2.034704E+0	2.020301E+0	1.975184E+0	1.920880E+0	2.200317E+0	2.207858E+0	2.174460E+0	1.936090E+0	2.087939E+0	2.354456E+0	2.181312E+0	1.849678E+0	1.857561E+0	2.082017E+0	2.009247E+0	1.766429E+0	1.900116E+0	2.083932E+0	2.004036E+0	1.818407E+0	2.108392E+0	2.211767E+0	2.195456E+0	1.710686E+0	2.145525E+0	2.209984E+0	2.097337E+0	2.109817E+0	1.930263E+0	1.964763E+0	1.889437E+0	1.804906E+0	2.006150E+0	1.998715E+0	1.915568E+0	1.976059E+0	2.130650E+0	2.206022E+0	2.210780E+0	1.943228E+0	1.613662E+0	2.161559E+0	2.153654E+0	1.746089E+0
5.355630E+2	2.003654E+0	1.617057E+0	1.821700E+0	1.965604E+0	2.040030E+0	1.718551E+0	1.603425E+0	1.768959E+0	1.871840E+0	1.817512E+0	1.760446E+0	1.812690E+0	1.697582E+0	2.006556E+0	1.967122E+0	1.920317E+0	1.722298E+0	1.792731E+0	1.738496E+0	1.917059E+0	1.930208E+0	1.744938E+0	1.694434E+0	1.691689E+0	1.814811E+0	1.710644E+0	1.711607E+0	1.773926E+0	1.688464E+0	1.835450E+0	1.883543E+0	1.883020E+0	1.655785E+0	1.863913E+0	1.775386E+0	1.820912E+0	1.946945E+0	1.790561E+0	1.650782E+0	1.758924E+0	1.808055E+0	1.697701E+0	1.657658E+0	1.677145E+0	1.757308E+0	1.893166E+0	1.845639E+0	1.883511E+0	1.689740E+0	1.988333E+0	1.521115E+0	1.874980E+0	1.677759E+0	1.868278E+0	1.648397E+0	1.719333E+0	1.610347E+0	1.870757E+0	1.753323E+0	1.633012E+0	1.593347E+0	1.918190E+0	1.858285E+0	1.949861E+0	1.591333E+0	1.815524E+0	1.815790E+0	1.906685E+0	1.581494E+0	1.607362E+0	1.695357E+0	1.727666E+0	1.634659E+0	1.451000E+0	1.637252E+0	1.739998E+0	1.602580E+0	1.798489E+0	1.843690E+0	1.968305E+0	1.584398E+0	1.792817E+0	1.830283E+0	1.845285E+0	1.673244E+0	1.700989E+0	1.707689E+0	1.704353E+0	1.653099E+0	1.743816E+0	1.656777E+0	1.832672E+0	1.615242E+0	1.915959E+0	1.856403E+0	1.921307E+0	1.558731E+0	1.861680E+0	1.953939E+0	1.791781E+0	1.607719E+0	1.741678E+0	1.778305E+0	1.667142E+0	1.585278E+0	1.715924E+0	1.821227E+0	1.681381E+0	1.573663E+0	1.911144E+0	1.998358E+0	1.912103E+0	1.566060E+0	1.657846E+0	1.906748E+0	1.932386E+0	1.602199E+0	1.739259E+0	1.701568E+0	1.783771E+0	1.598710E+0	1.731247E+0	1.666727E+0	1.771471E+0	1.597124E+0	1.831370E+0	1.852915E+0	1.899238E+0	1.676649E+0	1.835112E+0	1.916982E+0	1.903704E+0	1.670106E+0	1.621605E+0	1.755791E+0	1.649887E+0	1.519673E+0	1.591384E+0	1.803877E+0	1.676669E+0	1.617576E+0	1.879614E+0	1.938235E+0	1.845986E+0	1.542768E+0	1.810718E+0	1.898076E+0	1.785902E+0	1.795634E+0	1.689304E+0	1.760903E+0	1.597210E+0	1.595619E+0	1.676879E+0	1.745484E+0	1.687887E+0	1.830019E+0	1.797012E+0	1.917284E+0	1.882229E+0	1.717357E+0	1.504057E+0	1.819840E+0	1.827940E+0	1.649060E+0
5.357250E+2	1.734356E+0	1.468783E+0	1.670512E+0	1.701021E+0	1.812414E+0	1.540864E+0	1.498232E+0	1.550701E+0	1.702250E+0	1.625806E+0	1.595792E+0	1.641303E+0	1.497658E+0	1.807403E+0	1.749104E+0	1.816210E+0	1.534100E+0	1.634020E+0	1.649220E+0	1.730832E+0	1.740942E+0	1.557121E+0	1.599962E+0	1.515762E+0	1.659968E+0	1.596503E+0	1.598507E+0	1.503344E+0	1.510317E+0	1.751103E+0	1.712673E+0	1.749141E+0	1.540781E+0	1.680609E+0	1.600423E+0	1.661414E+0	1.801969E+0	1.587726E+0	1.532997E+0	1.556525E+0	1.524978E+0	1.625335E+0	1.628443E+0	1.631346E+0	1.529754E+0	1.741094E+0	1.704113E+0	1.750185E+0	1.611794E+0	1.766761E+0	1.348549E+0	1.611467E+0	1.745172E+0	1.590791E+0	1.505998E+0	1.566795E+0	1.613082E+0	1.688337E+0	1.635111E+0	1.508994E+0	1.433546E+0	1.732309E+0	1.682278E+0	1.707466E+0	1.563264E+0	1.626787E+0	1.617838E+0	1.699696E+0	1.606729E+0	1.490312E+0	1.553807E+0	1.570383E+0	1.590238E+0	1.286048E+0	1.531856E+0	1.562313E+0	1.494985E+0	1.610590E+0	1.767080E+0	1.801297E+0	1.440031E+0	1.644169E+0	1.656488E+0	1.602108E+0	1.522075E+0	1.507735E+0	1.526907E+0	1.571174E+0	1.445743E+0	1.522973E+0	1.524297E+0	1.611445E+0	1.443977E+0	1.698497E+0	1.638260E+0	1.710589E+0	1.403254E+0	1.675184E+0	1.891505E+0	1.646288E+0	1.385979E+0	1.568705E+0	1.663329E+0	1.506505E+0	1.395191E+0	1.554831E+0	1.717959E+0	1.525321E+0	1.442489E+0	1.727390E+0	1.830671E+0	1.716973E+0	1.451055E+0	1.533300E+0	1.693763E+0	1.753015E+0	1.444954E+0	1.519147E+0	1.594481E+0	1.574631E+0	1.423386E+0	1.558658E+0	1.513891E+0	1.606084E+0	1.462334E+0	1.753913E+0	1.744863E+0	1.736431E+0	1.556044E+0	1.671328E+0	1.823119E+0	1.702139E+0	1.495667E+0	1.503964E+0	1.599488E+0	1.558999E+0	1.386362E+0	1.501596E+0	1.698666E+0	1.539341E+0	1.501370E+0	1.792495E+0	1.761856E+0	1.733893E+0	1.337064E+0	1.658178E+0	1.661500E+0	1.625796E+0	1.578733E+0	1.493348E+0	1.533055E+0	1.481084E+0	1.401590E+0	1.526994E+0	1.561244E+0	1.544444E+0	1.604193E+0	1.645359E+0	1.695598E+0	1.676970E+0	1.518559E+0	1.298103E+0	1.629290E+0	1.667145E+0	1.440301E+0
5.358550E+2	1.642694E+0	1.367040E+0	1.521683E+0	1.574258E+0	1.748565E+0	1.450162E+0	1.365082E+0	1.458839E+0	1.596870E+0	1.582302E+0	1.461134E+0	1.606720E+0	1.397697E+0	1.710869E+0	1.645351E+0	1.684568E+0	1.467564E+0	1.534554E+0	1.481380E+0	1.603287E+0	1.646310E+0	1.517392E+0	1.472746E+0	1.456499E+0	1.570081E+0	1.533625E+0	1.440313E+0	1.455755E+0	1.428899E+0	1.576571E+0	1.603030E+0	1.607901E+0	1.447382E+0	1.626383E+0	1.543224E+0	1.591443E+0	1.580110E+0	1.472677E+0	1.448241E+0	1.492290E+0	1.508445E+0	1.413354E+0	1.508789E+0	1.487117E+0	1.383181E+0	1.613035E+0	1.631975E+0	1.681313E+0	1.518255E+0	1.744230E+0	1.282586E+0	1.572903E+0	1.640750E+0	1.535035E+0	1.439332E+0	1.492948E+0	1.535859E+0	1.613040E+0	1.551844E+0	1.395666E+0	1.431190E+0	1.658761E+0	1.651839E+0	1.584004E+0	1.461022E+0	1.575942E+0	1.573022E+0	1.559002E+0	1.621148E+0	1.410154E+0	1.477142E+0	1.472078E+0	1.528841E+0	1.204883E+0	1.390347E+0	1.407624E+0	1.472726E+0	1.551371E+0	1.609637E+0	1.699023E+0	1.449392E+0	1.550287E+0	1.554509E+0	1.615982E+0	1.569274E+0	1.495831E+0	1.500894E+0	1.429746E+0	1.552947E+0	1.496992E+0	1.388974E+0	1.491119E+0	1.398550E+0	1.637359E+0	1.603252E+0	1.591843E+0	1.313735E+0	1.608959E+0	1.741174E+0	1.598746E+0	1.368138E+0	1.485732E+0	1.576246E+0	1.458976E+0	1.296757E+0	1.436503E+0	1.574440E+0	1.483160E+0	1.410742E+0	1.673996E+0	1.691377E+0	1.642663E+0	1.395276E+0	1.523664E+0	1.611960E+0	1.641200E+0	1.347245E+0	1.454531E+0	1.446006E+0	1.492043E+0	1.384951E+0	1.501401E+0	1.477972E+0	1.466963E+0	1.424926E+0	1.603241E+0	1.639665E+0	1.677638E+0	1.485927E+0	1.571947E+0	1.646826E+0	1.614280E+0	1.462956E+0	1.382926E+0	1.633903E+0	1.494418E+0	1.278582E+0	1.431500E+0	1.555674E+0	1.474148E+0	1.425587E+0	1.607629E+0	1.664017E+0	1.636303E+0	1.285289E+0	1.606548E+0	1.590679E+0	1.524177E+0	1.487936E+0	1.462880E+0	1.500410E+0	1.423661E+0	1.359442E+0	1.453644E+0	1.421783E+0	1.488286E+0	1.463853E+0	1.610592E+0	1.662072E+0	1.542270E+0	1.382414E+0	1.228273E+0	1.535285E+0	1.611486E+0	1.363856E+0
5.360120E+2	1.387606E+0	1.102038E+0	1.258676E+0	1.294361E+0	1.420290E+0	1.189953E+0	1.089461E+0	1.186200E+0	1.274443E+0	1.228387E+0	1.239815E+0	1.306039E+0	1.220975E+0	1.402354E+0	1.339993E+0	1.368224E+0	1.192553E+0	1.212742E+0	1.271401E+0	1.373237E+0	1.394357E+0	1.199554E+0	1.179887E+0	1.202593E+0	1.327974E+0	1.232894E+0	1.169736E+0	1.172258E+0	1.190097E+0	1.305355E+0	1.336044E+0	1.313361E+0	1.211658E+0	1.245264E+0	1.217525E+0	1.314578E+0	1.382901E+0	1.188703E+0	1.172781E+0	1.241410E+0	1.166506E+0	1.205763E+0	1.204090E+0	1.179518E+0	1.210944E+0	1.352915E+0	1.268539E+0	1.302823E+0	1.186817E+0	1.437785E+0	1.022071E+0	1.212988E+0	1.317565E+0	1.281257E+0	1.206962E+0	1.184241E+0	1.225603E+0	1.277703E+0	1.264863E+0	1.167585E+0	1.135768E+0	1.357880E+0	1.319012E+0	1.251121E+0	1.223787E+0	1.274731E+0	1.246595E+0	1.333597E+0	1.303892E+0	1.137885E+0	1.173738E+0	1.242705E+0	1.310019E+0	9.495980E-1	1.158921E+0	1.193012E+0	1.245174E+0	1.256720E+0	1.315846E+0	1.323578E+0	1.198087E+0	1.264729E+0	1.327572E+0	1.337019E+0	1.331361E+0	1.180741E+0	1.211509E+0	1.271831E+0	1.326550E+0	1.206610E+0	1.160343E+0	1.236264E+0	1.156689E+0	1.378213E+0	1.282774E+0	1.374943E+0	1.187872E+0	1.340255E+0	1.393692E+0	1.291178E+0	1.329905E+0	1.166588E+0	1.310916E+0	1.147326E+0	1.295395E+0	1.130710E+0	1.314749E+0	1.199884E+0	1.193916E+0	1.273899E+0	1.341126E+0	1.247873E+0	1.230006E+0	1.215267E+0	1.340755E+0	1.383401E+0	1.102645E+0	1.260666E+0	1.217375E+0	1.237612E+0	1.099040E+0	1.251928E+0	1.208920E+0	1.235565E+0	1.172115E+0	1.354691E+0	1.329089E+0	1.358485E+0	1.173195E+0	1.276979E+0	1.317087E+0	1.251766E+0	1.087782E+0	1.134045E+0	1.266807E+0	1.158379E+0	1.086420E+0	1.152694E+0	1.252646E+0	1.193941E+0	1.133808E+0	1.300228E+0	1.382910E+0	1.392991E+0	1.156551E+0	1.307724E+0	1.290066E+0	1.261723E+0	1.232844E+0	1.169989E+0	1.205944E+0	1.118677E+0	1.092018E+0	1.141914E+0	1.227268E+0	1.145242E+0	1.213805E+0	1.252538E+0	1.389062E+0	1.351271E+0	1.141073E+0	1.009945E+0	1.352358E+0	1.322877E+0	1.119817E+0
5.362680E+2	1.005329E+0	8.638503E-1	9.492098E-1	9.923438E-1	1.053710E+0	8.687801E-1	8.051832E-1	8.981270E-1	9.589993E-1	9.061749E-1	8.945079E-1	1.015128E+0	8.895499E-1	1.010801E+0	1.009029E+0	1.038451E+0	9.245146E-1	9.362781E-1	9.242932E-1	9.827857E-1	1.020644E+0	8.124867E-1	8.706545E-1	8.526167E-1	9.762976E-1	9.157618E-1	9.184873E-1	8.853605E-1	8.239733E-1	1.012733E+0	1.023494E+0	1.030207E+0	9.251053E-1	9.901668E-1	9.207625E-1	1.018903E+0	9.990462E-1	8.621714E-1	8.530790E-1	9.081169E-1	9.575058E-1	9.287318E-1	9.313903E-1	9.115655E-1	8.590605E-1	9.500603E-1	9.957918E-1	1.049444E+0	9.563671E-1	1.035207E+0	7.608896E-1	9.694713E-1	1.012888E+0	9.595457E-1	9.021016E-1	8.398210E-1	9.303800E-1	1.019212E+0	9.882906E-1	8.831979E-1	9.040332E-1	1.006854E+0	1.004714E+0	1.006787E+0	9.183881E-1	9.411640E-1	9.328654E-1	9.726532E-1	1.041911E+0	8.821540E-1	9.207905E-1	9.150271E-1	9.781995E-1	8.226107E-1	8.611629E-1	9.526181E-1	8.815868E-1	9.518364E-1	9.566865E-1	9.889151E-1	8.986596E-1	9.220585E-1	9.799814E-1	9.317200E-1	1.010525E+0	9.027596E-1	8.616487E-1	9.046328E-1	9.188917E-1	8.711431E-1	8.398345E-1	9.447879E-1	9.123720E-1	9.877545E-1	9.737423E-1	1.027627E+0	9.448923E-1	1.014463E+0	1.081532E+0	9.764109E-1	1.003027E+0	8.997901E-1	9.496547E-1	8.970442E-1	9.824335E-1	8.598450E-1	9.533004E-1	9.010753E-1	8.782600E-1	9.729569E-1	1.024004E+0	9.790815E-1	9.228728E-1	9.254030E-1	1.034177E+0	9.811694E-1	1.025641E+0	8.608312E-1	9.013714E-1	9.512120E-1	1.001264E+0	9.173877E-1	9.201473E-1	9.338994E-1	9.670276E-1	9.695473E-1	1.012076E+0	1.027054E+0	8.688773E-1	9.351038E-1	1.059173E+0	1.026579E+0	8.857639E-1	8.797256E-1	9.929199E-1	8.988734E-1	8.439125E-1	8.683740E-1	9.370240E-1	8.957034E-1	8.622433E-1	9.616633E-1	1.027388E+0	1.083082E+0	8.333038E-1	1.017503E+0	1.040684E+0	9.597912E-1	1.000090E+0	9.013305E-1	9.128092E-1	8.698389E-1	8.289536E-1	9.154898E-1	9.116433E-1	8.689882E-1	9.281384E-1	1.003977E+0	1.014112E+0	9.927843E-1	8.989573E-1	7.845440E-1	1.020802E+0	1.112608E+0	9.463405E-1
5.365250E+2	8.184540E-1	6.540570E-1	7.539228E-1	8.179390E-1	7.952995E-1	6.725081E-1	6.440704E-1	6.747236E-1	8.061613E-1	7.682942E-1	6.978549E-1	7.693196E-1	6.824840E-1	8.082744E-1	7.864165E-1	8.033775E-1	6.913269E-1	7.673285E-1	7.528823E-1	7.621285E-1	7.554307E-1	7.125599E-1	7.157238E-1	6.922884E-1	7.689658E-1	6.956821E-1	7.774727E-1	7.330734E-1	7.338087E-1	7.785054E-1	7.892596E-1	7.738263E-1	7.014533E-1	7.281955E-1	7.229203E-1	7.766446E-1	7.343384E-1	7.005680E-1	6.561461E-1	7.220783E-1	7.200659E-1	7.233327E-1	7.289531E-1	6.955630E-1	7.233248E-1	7.773135E-1	7.505242E-1	8.263943E-1	7.787846E-1	8.158910E-1	6.462897E-1	7.680891E-1	7.994145E-1	7.538304E-1	7.027440E-1	7.072588E-1	7.820856E-1	8.010872E-1	7.607868E-1	6.871920E-1	6.557861E-1	7.948995E-1	8.134888E-1	8.051155E-1	6.945193E-1	7.139064E-1	7.334227E-1	8.054398E-1	8.310049E-1	6.715891E-1	7.097841E-1	6.939943E-1	7.842021E-1	7.329346E-1	7.115463E-1	7.205855E-1	7.257631E-1	7.478494E-1	7.416128E-1	8.206123E-1	6.994880E-1	7.804527E-1	7.573515E-1	8.053830E-1	7.993984E-1	6.793952E-1	7.237846E-1	7.416450E-1	8.039293E-1	7.206034E-1	6.731702E-1	7.631758E-1	6.821742E-1	8.210116E-1	7.300182E-1	8.361240E-1	7.281644E-1	7.769682E-1	8.679481E-1	7.740075E-1	8.118699E-1	7.102217E-1	7.945375E-1	6.678200E-1	7.767338E-1	7.258379E-1	7.794112E-1	7.191274E-1	7.321115E-1	7.566121E-1	8.164215E-1	8.052708E-1	7.693065E-1	7.548947E-1	8.189822E-1	8.297518E-1	8.787509E-1	7.578432E-1	7.266161E-1	7.374105E-1	7.915515E-1	7.325309E-1	7.405452E-1	7.323151E-1	7.600051E-1	8.160534E-1	8.059808E-1	8.513251E-1	8.324151E-1	7.760919E-1	8.053403E-1	8.036071E-1	8.722960E-1	7.083652E-1	8.143909E-1	6.925843E-1	7.715861E-1	6.848654E-1	7.577264E-1	7.382616E-1	6.904622E-1	7.463415E-1	8.572062E-1	7.547102E-1	6.625853E-1	7.656139E-1	8.056185E-1	8.165014E-1	7.500417E-1	7.206094E-1	7.729041E-1	7.033085E-1	6.327456E-1	7.313207E-1	6.899715E-1	6.936720E-1	7.507539E-1	7.864835E-1	8.122672E-1	7.561690E-1	7.109882E-1	6.307415E-1	7.133821E-1	8.095697E-1	7.052399E-1
5.367810E+2	6.216315E-1	4.923733E-1	6.121830E-1	6.078028E-1	7.111665E-1	5.438906E-1	5.501989E-1	5.931522E-1	5.988881E-1	5.891241E-1	5.458660E-1	5.986821E-1	5.152846E-1	6.260009E-1	6.517980E-1	6.361387E-1	5.950100E-1	5.954528E-1	5.921842E-1	6.572774E-1	6.270427E-1	5.686889E-1	5.721292E-1	5.438134E-1	6.639875E-1	6.034124E-1	5.641607E-1	5.535930E-1	5.496541E-1	6.000764E-1	6.276440E-1	6.145091E-1	5.648475E-1	6.113389E-1	5.876611E-1	5.765185E-1	6.803407E-1	5.635702E-1	5.427228E-1	5.711875E-1	5.633163E-1	5.559440E-1	5.953862E-1	6.060177E-1	5.362609E-1	6.465860E-1	6.028144E-1	6.083995E-1	6.066258E-1	6.371328E-1	4.723911E-1	6.738249E-1	6.374923E-1	5.929757E-1	5.545205E-1	5.728803E-1	6.030390E-1	6.450612E-1	5.645092E-1	5.396532E-1	5.437505E-1	6.310859E-1	6.315267E-1	5.575512E-1	5.775728E-1	5.860262E-1	5.944860E-1	6.109731E-1	6.621598E-1	5.386348E-1	5.702048E-1	5.545827E-1	6.450725E-1	5.627455E-1	5.103382E-1	5.784396E-1	5.631375E-1	6.381789E-1	6.165045E-1	6.516629E-1	5.765096E-1	5.606113E-1	5.993565E-1	6.096709E-1	6.380243E-1	5.610610E-1	6.099820E-1	5.900726E-1	6.311332E-1	5.968097E-1	5.278727E-1	5.882902E-1	5.692239E-1	6.216148E-1	6.081564E-1	6.501110E-1	5.605704E-1	6.292954E-1	6.346485E-1	6.090604E-1	6.111550E-1	5.863957E-1	6.224121E-1	5.282396E-1	5.880057E-1	5.454985E-1	6.146334E-1	5.401377E-1	5.715878E-1	6.643882E-1	6.838927E-1	6.217679E-1	6.067880E-1	5.947654E-1	6.384250E-1	6.666850E-1	6.199144E-1	5.424431E-1	5.971916E-1	5.808890E-1	6.256696E-1	5.738493E-1	5.567170E-1	5.875150E-1	6.000617E-1	6.414360E-1	6.091878E-1	6.762423E-1	6.620255E-1	6.282103E-1	6.780158E-1	6.308405E-1	6.638642E-1	5.669254E-1	5.906917E-1	5.837596E-1	6.290597E-1	5.352232E-1	5.999155E-1	5.572387E-1	6.247815E-1	6.351391E-1	6.367286E-1	6.445929E-1	5.240512E-1	6.279351E-1	6.474008E-1	5.949873E-1	5.994363E-1	5.585835E-1	5.930262E-1	5.725092E-1	5.360946E-1	5.798404E-1	5.952845E-1	6.033587E-1	6.189624E-1	6.659006E-1	6.487381E-1	5.936750E-1	6.375025E-1	4.893137E-1	6.485950E-1	6.632068E-1	7.375844E-1
5.370120E+2	5.825511E-1	4.545163E-1	5.830476E-1	5.482501E-1	6.044964E-1	5.052306E-1	4.916131E-1	5.255434E-1	5.486404E-1	5.146544E-1	5.065352E-1	5.580896E-1	5.093342E-1	5.740185E-1	5.572365E-1	5.461387E-1	5.468517E-1	5.654656E-1	5.636162E-1	5.837247E-1	5.800275E-1	5.313672E-1	5.185962E-1	5.325847E-1	5.511354E-1	5.241297E-1	5.061805E-1	5.243596E-1	5.152273E-1	5.468725E-1	5.315294E-1	6.252193E-1	5.222775E-1	5.784978E-1	5.493044E-1	5.547001E-1	6.157779E-1	5.176831E-1	5.047076E-1	5.324040E-1	5.203262E-1	5.252439E-1	5.279074E-1	5.513333E-1	4.974793E-1	6.052334E-1	5.396085E-1	5.603774E-1	5.076675E-1	6.018319E-1	4.530690E-1	5.624220E-1	5.714017E-1	5.359392E-1	4.975611E-1	4.978220E-1	5.292329E-1	5.620030E-1	5.466661E-1	4.940368E-1	4.889125E-1	5.929743E-1	5.766076E-1	5.581973E-1	5.194333E-1	5.290193E-1	5.952325E-1	5.387842E-1	5.930595E-1	4.546631E-1	5.590651E-1	5.170488E-1	5.869387E-1	5.712549E-1	5.125492E-1	5.429029E-1	5.266552E-1	5.869983E-1	5.968244E-1	5.817532E-1	5.210354E-1	5.950348E-1	5.612936E-1	5.578216E-1	5.767916E-1	5.204496E-1	5.638107E-1	5.291901E-1	5.831737E-1	5.211576E-1	5.428299E-1	5.157954E-1	5.047684E-1	5.945191E-1	5.946904E-1	6.130462E-1	5.356671E-1	5.821007E-1	6.075398E-1	5.824092E-1	5.843934E-1	5.334185E-1	5.679854E-1	5.246296E-1	5.954737E-1	4.984535E-1	5.386993E-1	5.297830E-1	5.530200E-1	5.700840E-1	5.878770E-1	5.410011E-1	5.406789E-1	5.250798E-1	6.037880E-1	5.843760E-1	6.432096E-1	5.269608E-1	5.604006E-1	5.582432E-1	5.346372E-1	5.574899E-1	5.391086E-1	5.506054E-1	5.832937E-1	5.815873E-1	5.991692E-1	5.870855E-1	5.891018E-1	5.836869E-1	5.882351E-1	5.629156E-1	6.112762E-1	5.132055E-1	5.541258E-1	4.982542E-1	5.673692E-1	5.493994E-1	5.539795E-1	5.225593E-1	5.351019E-1	5.593518E-1	5.850537E-1	5.977769E-1	4.554833E-1	5.802171E-1	5.569903E-1	5.620883E-1	5.972743E-1	5.052674E-1	4.937604E-1	4.997722E-1	5.172005E-1	5.224376E-1	5.490415E-1	5.062141E-1	5.648208E-1	5.904441E-1	5.796322E-1	5.829842E-1	6.173909E-1	4.415824E-1	5.990515E-1	5.869315E-1	6.493752E-1
5.372740E+2	5.662083E-1	4.505731E-1	4.932786E-1	5.125181E-1	5.519124E-1	4.806966E-1	4.549962E-1	4.696927E-1	5.116522E-1	4.962211E-1	4.698710E-1	4.836706E-1	4.468576E-1	5.510659E-1	5.237460E-1	5.414375E-1	5.303764E-1	5.435239E-1	5.236199E-1	5.618152E-1	5.631502E-1	5.247452E-1	4.820678E-1	4.502370E-1	5.491672E-1	5.234459E-1	5.233597E-1	4.665718E-1	4.715116E-1	5.066449E-1	5.728231E-1	5.716676E-1	4.955919E-1	5.135768E-1	5.170035E-1	5.155779E-1	5.353677E-1	5.103679E-1	4.916200E-1	5.014986E-1	5.123895E-1	4.850413E-1	5.153853E-1	5.096370E-1	5.168705E-1	5.211943E-1	5.471657E-1	5.458443E-1	4.914004E-1	5.853084E-1	4.224202E-1	5.431403E-1	5.978380E-1	5.378623E-1	4.587252E-1	5.069021E-1	5.032645E-1	5.076656E-1	5.213879E-1	4.797822E-1	4.382015E-1	5.735846E-1	5.865324E-1	5.782356E-1	5.040632E-1	4.889610E-1	5.242701E-1	5.262615E-1	5.738319E-1	4.508463E-1	4.876371E-1	5.003665E-1	5.608110E-1	5.090703E-1	4.712758E-1	5.108502E-1	5.025395E-1	5.255830E-1	5.574645E-1	5.694537E-1	5.156886E-1	5.300996E-1	5.024047E-1	5.322623E-1	5.589323E-1	4.469282E-1	4.669161E-1	5.038219E-1	5.415615E-1	5.081669E-1	5.143406E-1	4.918790E-1	4.360161E-1	5.014203E-1	5.455416E-1	5.512715E-1	4.818214E-1	5.189209E-1	6.083616E-1	5.665627E-1	5.340553E-1	5.053345E-1	5.584606E-1	4.764986E-1	5.167233E-1	4.435678E-1	5.151595E-1	5.046361E-1	4.805443E-1	5.180785E-1	5.986958E-1	5.603849E-1	5.131332E-1	5.302689E-1	5.809416E-1	5.929168E-1	5.733238E-1	4.919588E-1	4.940460E-1	5.136180E-1	5.326136E-1	5.362233E-1	5.137533E-1	5.449267E-1	5.400837E-1	5.555362E-1	5.641045E-1	5.903159E-1	5.224882E-1	5.471144E-1	5.857868E-1	5.319062E-1	5.990906E-1	4.574455E-1	5.354842E-1	4.868932E-1	5.418427E-1	4.919065E-1	5.310119E-1	5.281085E-1	4.542632E-1	5.253534E-1	5.705850E-1	5.562363E-1	4.351934E-1	5.340637E-1	5.539773E-1	5.577023E-1	5.482740E-1	5.011129E-1	5.330670E-1	4.761645E-1	4.975799E-1	4.674259E-1	4.697676E-1	5.069725E-1	5.292013E-1	5.601132E-1	5.331052E-1	5.209799E-1	5.802612E-1	4.362783E-1	5.418870E-1	5.312718E-1	5.729285E-1
5.375110E+2	5.683399E-1	5.862289E-1	5.570615E-1	6.129078E-1	6.675964E-1	5.542984E-1	5.235687E-1	5.799246E-1	5.814412E-1	5.456223E-1	5.478655E-1	5.859027E-1	5.069544E-1	6.307263E-1	6.038602E-1	5.850943E-1	6.095845E-1	5.647344E-1	5.571880E-1	5.696394E-1	5.999186E-1	5.403965E-1	5.293027E-1	5.587856E-1	5.898469E-1	5.945272E-1	5.813401E-1	5.998227E-1	5.529331E-1	5.909925E-1	6.212363E-1	6.432930E-1	5.178304E-1	5.991187E-1	5.809322E-1	5.750134E-1	6.269300E-1	5.356392E-1	5.209107E-1	5.614914E-1	5.467818E-1	5.457106E-1	6.092997E-1	6.012329E-1	5.619249E-1	6.132371E-1	5.808294E-1	5.989218E-1	5.842584E-1	5.777973E-1	5.023736E-1	5.867024E-1	6.513714E-1	5.987433E-1	5.461060E-1	5.341407E-1	5.893711E-1	6.101305E-1	6.425745E-1	5.403658E-1	5.136780E-1	5.969864E-1	6.063832E-1	6.247749E-1	5.802457E-1	6.045147E-1	6.183890E-1	6.198122E-1	6.158930E-1	5.163698E-1	5.525121E-1	5.295599E-1	6.019619E-1	5.863103E-1	5.435045E-1	5.714709E-1	5.816882E-1	5.709139E-1	6.087731E-1	6.594306E-1	5.384124E-1	5.746938E-1	6.043834E-1	6.118619E-1	5.997538E-1	5.414555E-1	5.898225E-1	5.501185E-1	5.810579E-1	5.379693E-1	5.634847E-1	5.681110E-1	5.274815E-1	6.056353E-1	5.623736E-1	5.835317E-1	5.423972E-1	5.798174E-1	6.108255E-1	5.924931E-1	6.570326E-1	5.251209E-1	5.441732E-1	5.324507E-1	5.757858E-1	5.433600E-1	5.690730E-1	5.445757E-1	5.614053E-1	6.047546E-1	6.913306E-1	6.185374E-1	6.226267E-1	5.302692E-1	6.082088E-1	6.138828E-1	6.755641E-1	5.229221E-1	5.452906E-1	5.815553E-1	5.906052E-1	5.844825E-1	5.855943E-1	6.137778E-1	6.071559E-1	6.294662E-1	6.084723E-1	6.245570E-1	5.905041E-1	6.131046E-1	6.200662E-1	6.182886E-1	6.677128E-1	5.274858E-1	5.899747E-1	5.383161E-1	5.673693E-1	5.761786E-1	5.910249E-1	5.724972E-1	5.742580E-1	6.131821E-1	6.436183E-1	6.294276E-1	4.708765E-1	6.115080E-1	6.195244E-1	5.891384E-1	6.124075E-1	5.350413E-1	5.850315E-1	5.744234E-1	5.310080E-1	5.463551E-1	5.439033E-1	5.950097E-1	5.662455E-1	5.985812E-1	6.001590E-1	6.378619E-1	5.972793E-1	4.636799E-1	6.308102E-1	5.374563E-1	6.581954E-1
5.377840E+2	7.353193E-1	7.510666E-1	7.098264E-1	6.877737E-1	7.427161E-1	6.137749E-1	5.834867E-1	6.357755E-1	6.805414E-1	6.584332E-1	6.498583E-1	6.685904E-1	5.979921E-1	7.151123E-1	6.682147E-1	7.200939E-1	6.526733E-1	6.707849E-1	6.914597E-1	7.065728E-1	7.277036E-1	6.355081E-1	6.244025E-1	6.161796E-1	6.922003E-1	6.246006E-1	6.514901E-1	6.005023E-1	6.398187E-1	6.948059E-1	7.337265E-1	6.988536E-1	6.391869E-1	6.915345E-1	6.239998E-1	6.630395E-1	6.556900E-1	5.994817E-1	6.249858E-1	6.584497E-1	6.281328E-1	6.480451E-1	6.656479E-1	6.176383E-1	6.206679E-1	6.939410E-1	7.003717E-1	7.038115E-1	6.411927E-1	7.092368E-1	5.896557E-1	7.109598E-1	7.386113E-1	6.602655E-1	6.367229E-1	6.430958E-1	6.727443E-1	7.133708E-1	6.775180E-1	6.244703E-1	6.540170E-1	7.320485E-1	7.321026E-1	7.327208E-1	6.363800E-1	6.276259E-1	6.968218E-1	6.846348E-1	7.703170E-1	6.047943E-1	6.658789E-1	6.713548E-1	6.979810E-1	6.543860E-1	6.422661E-1	6.529960E-1	6.744403E-1	6.674238E-1	7.549669E-1	7.429345E-1	6.293100E-1	6.795288E-1	6.388550E-1	7.053361E-1	7.432686E-1	6.352823E-1	6.184362E-1	6.484186E-1	6.931989E-1	6.311973E-1	5.983851E-1	6.757332E-1	6.508673E-1	7.119338E-1	6.970280E-1	6.899222E-1	6.325886E-1	6.993257E-1	7.266542E-1	7.048594E-1	7.264865E-1	6.304368E-1	7.094955E-1	6.202903E-1	6.837277E-1	5.989588E-1	7.118291E-1	6.533009E-1	6.464589E-1	6.810301E-1	7.312240E-1	6.624747E-1	6.529265E-1	6.481421E-1	6.664297E-1	7.194873E-1	7.085658E-1	6.030243E-1	6.287262E-1	6.834608E-1	7.160283E-1	6.458288E-1	5.898199E-1	6.577859E-1	6.529463E-1	7.132547E-1	7.430075E-1	7.098379E-1	6.760496E-1	6.623983E-1	7.106632E-1	7.290368E-1	7.459546E-1	6.553252E-1	6.817488E-1	6.686668E-1	6.567139E-1	6.257966E-1	6.562237E-1	5.988530E-1	6.746740E-1	6.953439E-1	7.269865E-1	6.755846E-1	5.891204E-1	6.920812E-1	6.918519E-1	6.849087E-1	7.111294E-1	6.402889E-1	6.716393E-1	6.101541E-1	6.094914E-1	6.141229E-1	6.628129E-1	6.094299E-1	6.602807E-1	7.014097E-1	7.561613E-1	7.062807E-1	7.365152E-1	5.732869E-1	6.905153E-1	7.683418E-1	7.170010E-1
5.380160E+2	8.170330E-1	7.818263E-1	7.043141E-1	7.771028E-1	7.937969E-1	6.970422E-1	6.913390E-1	6.997097E-1	7.587045E-1	7.469123E-1	7.251863E-1	7.497747E-1	6.402379E-1	8.211013E-1	8.021762E-1	7.449448E-1	7.325145E-1	7.680595E-1	7.735942E-1	7.550861E-1	7.964179E-1	6.981130E-1	6.968295E-1	6.717019E-1	7.420647E-1	7.230213E-1	6.815540E-1	7.643468E-1	7.206940E-1	7.973216E-1	8.042110E-1	7.624465E-1	7.128900E-1	7.465258E-1	7.202287E-1	7.984630E-1	7.930321E-1	6.826117E-1	6.810745E-1	7.541961E-1	7.392467E-1	7.021354E-1	6.816480E-1	7.037655E-1	6.856838E-1	7.599719E-1	8.054864E-1	7.897455E-1	7.672628E-1	8.872437E-1	6.189724E-1	7.859423E-1	7.756219E-1	7.775425E-1	7.020968E-1	7.157328E-1	7.205806E-1	7.816808E-1	6.864397E-1	6.779268E-1	6.970625E-1	7.581248E-1	7.989317E-1	7.766746E-1	6.978605E-1	7.470320E-1	7.588199E-1	7.693462E-1	7.805316E-1	6.913097E-1	6.947121E-1	7.249746E-1	7.672193E-1	7.564987E-1	6.960688E-1	6.948043E-1	7.183427E-1	7.551603E-1	7.978412E-1	7.837157E-1	7.476097E-1	7.538528E-1	7.264711E-1	7.345470E-1	7.617660E-1	6.758943E-1	6.724108E-1	7.346693E-1	7.538539E-1	7.267171E-1	6.745944E-1	7.011434E-1	6.748079E-1	7.466718E-1	7.704145E-1	7.791530E-1	7.039338E-1	7.579381E-1	8.400177E-1	7.689657E-1	7.965775E-1	7.312847E-1	7.373892E-1	7.406182E-1	7.787705E-1	7.080180E-1	7.847261E-1	7.117312E-1	7.267209E-1	7.767214E-1	8.258872E-1	7.813635E-1	7.128386E-1	7.385854E-1	7.865558E-1	8.281986E-1	7.732751E-1	7.046666E-1	6.931102E-1	7.713785E-1	7.349088E-1	7.030847E-1	6.996946E-1	7.528996E-1	7.432367E-1	7.914099E-1	7.845121E-1	8.545553E-1	7.707100E-1	7.641656E-1	8.347233E-1	8.161592E-1	7.825103E-1	6.913654E-1	7.089945E-1	7.410175E-1	7.637858E-1	6.777772E-1	7.399453E-1	7.528272E-1	6.923572E-1	7.966310E-1	8.627181E-1	7.876791E-1	6.667836E-1	7.640492E-1	8.071252E-1	7.762920E-1	8.134546E-1	6.922200E-1	6.849638E-1	6.905477E-1	7.003285E-1	6.715265E-1	7.332784E-1	7.323784E-1	7.471917E-1	7.576323E-1	7.753194E-1	7.796883E-1	7.674565E-1	6.210183E-1	7.730867E-1	8.075096E-1	7.228823E-1
5.382850E+2	9.570114E-1	9.024973E-1	8.114068E-1	9.013127E-1	9.876050E-1	8.583717E-1	7.479282E-1	8.657923E-1	9.199171E-1	8.715206E-1	8.465109E-1	8.317116E-1	7.753070E-1	9.277655E-1	9.400788E-1	9.363619E-1	8.871288E-1	9.209190E-1	8.728698E-1	9.131456E-1	9.525333E-1	8.582363E-1	8.391647E-1	8.732028E-1	8.903468E-1	8.460472E-1	8.461903E-1	8.132962E-1	8.212413E-1	9.030808E-1	9.088688E-1	9.371601E-1	8.158211E-1	8.794203E-1	8.803867E-1	8.887456E-1	9.544390E-1	8.063089E-1	8.350063E-1	8.172185E-1	8.768160E-1	8.819503E-1	8.534767E-1	8.247542E-1	8.242709E-1	9.160447E-1	8.728145E-1	9.363393E-1	8.906212E-1	9.420732E-1	7.235784E-1	9.501902E-1	9.038378E-1	9.095589E-1	8.173099E-1	7.992658E-1	9.078284E-1	9.276150E-1	9.131996E-1	8.090724E-1	8.374015E-1	9.587121E-1	9.279599E-1	9.266355E-1	8.047833E-1	8.641271E-1	9.059743E-1	8.643702E-1	8.730660E-1	7.841872E-1	8.480523E-1	8.411507E-1	9.507655E-1	8.625398E-1	8.243115E-1	8.104716E-1	8.617996E-1	8.684868E-1	9.348977E-1	9.830889E-1	8.659103E-1	9.236232E-1	9.081656E-1	9.112726E-1	9.218642E-1	8.446425E-1	8.414893E-1	8.101378E-1	9.047860E-1	8.466896E-1	8.220283E-1	7.960606E-1	8.319562E-1	9.280051E-1	9.474848E-1	8.800533E-1	8.176827E-1	9.254021E-1	9.172361E-1	8.734083E-1	9.029878E-1	8.589408E-1	9.040724E-1	8.314656E-1	8.602362E-1	7.871389E-1	9.122961E-1	8.404258E-1	8.285457E-1	8.911346E-1	9.455688E-1	8.763459E-1	8.498774E-1	8.216153E-1	9.214206E-1	9.547687E-1	9.473427E-1	8.339064E-1	8.731213E-1	9.239039E-1	8.751673E-1	8.478619E-1	8.476016E-1	8.444646E-1	8.825415E-1	9.301178E-1	9.462403E-1	9.004258E-1	8.983276E-1	9.597499E-1	9.547022E-1	9.232149E-1	9.511789E-1	7.811250E-1	8.760515E-1	8.384819E-1	8.878766E-1	8.053666E-1	8.696020E-1	8.409111E-1	8.237189E-1	9.312070E-1	9.488419E-1	9.149396E-1	7.808293E-1	8.821711E-1	8.884944E-1	8.852223E-1	9.676637E-1	8.618629E-1	8.535161E-1	7.830648E-1	7.926188E-1	8.293854E-1	7.956689E-1	7.999245E-1	8.839702E-1	8.974488E-1	9.073740E-1	9.186640E-1	8.765247E-1	7.350446E-1	8.569293E-1	9.332592E-1	9.404587E-1
5.385170E+2	1.110491E+0	1.167500E+0	1.066540E+0	1.133569E+0	1.171647E+0	1.181774E+0	9.909287E-1	9.936614E-1	1.032277E+0	1.111152E+0	1.038498E+0	1.130891E+0	9.538123E-1	1.174848E+0	1.137738E+0	1.129794E+0	1.065822E+0	1.141066E+0	1.086420E+0	1.161190E+0	1.161690E+0	1.072537E+0	1.006062E+0	9.992199E-1	1.121955E+0	1.109186E+0	1.049480E+0	1.028129E+0	1.029988E+0	1.114601E+0	1.081875E+0	1.137310E+0	1.014057E+0	1.115424E+0	1.113894E+0	1.129499E+0	1.162213E+0	1.003824E+0	9.521688E-1	1.026284E+0	1.019676E+0	1.010599E+0	1.054523E+0	1.001110E+0	9.788268E-1	1.096795E+0	1.076861E+0	1.127795E+0	1.016691E+0	1.178664E+0	8.834851E-1	1.057309E+0	1.099467E+0	1.092203E+0	9.642385E-1	9.578560E-1	1.049973E+0	1.122453E+0	1.023234E+0	1.027886E+0	9.730221E-1	1.111159E+0	1.097350E+0	1.102450E+0	1.022638E+0	1.075977E+0	1.103923E+0	1.144285E+0	1.105002E+0	9.470408E-1	1.039400E+0	1.018096E+0	1.085323E+0	9.770899E-1	9.879314E-1	1.015329E+0	1.012676E+0	1.036648E+0	1.100069E+0	1.170809E+0	1.020301E+0	1.092611E+0	1.058979E+0	1.086536E+0	1.106839E+0	9.741798E-1	1.030727E+0	1.030203E+0	1.153048E+0	1.045372E+0	9.894052E-1	1.047925E+0	9.921742E-1	1.116981E+0	1.116475E+0	1.132646E+0	1.054603E+0	1.042627E+0	1.204753E+0	1.075811E+0	1.105614E+0	9.668095E-1	1.097969E+0	9.505905E-1	1.038781E+0	9.525092E-1	1.069480E+0	9.535883E-1	9.986523E-1	1.093610E+0	1.164647E+0	1.080525E+0	1.064732E+0	1.036603E+0	1.149881E+0	1.165978E+0	1.153765E+0	1.033824E+0	1.024226E+0	1.047123E+0	1.167146E+0	9.852773E-1	1.001144E+0	1.054566E+0	1.063766E+0	1.118113E+0	1.097949E+0	1.163373E+0	1.100270E+0	1.051978E+0	1.197108E+0	1.205253E+0	1.191676E+0	9.477250E-1	1.080391E+0	9.628525E-1	1.055219E+0	1.024317E+0	1.024449E+0	1.023322E+0	1.008131E+0	1.101198E+0	1.156229E+0	1.113413E+0	8.843803E-1	1.145795E+0	1.124314E+0	1.067989E+0	1.096650E+0	9.844205E-1	1.040723E+0	9.700123E-1	9.612126E-1	1.023121E+0	1.062116E+0	1.014704E+0	1.068478E+0	1.149711E+0	1.103061E+0	1.079733E+0	1.115547E+0	8.587937E-1	1.075425E+0	1.069318E+0	1.237424E+0
5.387600E+2	1.374816E+0	1.486135E+0	1.284662E+0	1.296913E+0	1.397757E+0	1.446445E+0	1.140724E+0	1.222209E+0	1.259790E+0	1.360367E+0	1.223819E+0	1.274467E+0	1.159687E+0	1.425982E+0	1.376110E+0	1.329271E+0	1.263526E+0	1.476040E+0	1.270686E+0	1.367762E+0	1.345533E+0	1.540268E+0	1.231530E+0	1.198226E+0	1.388992E+0	1.483731E+0	1.253487E+0	1.215087E+0	1.217421E+0	1.438365E+0	1.347437E+0	1.386994E+0	1.205940E+0	1.353717E+0	1.236367E+0	1.413137E+0	1.371162E+0	1.381565E+0	1.227625E+0	1.239590E+0	1.233966E+0	1.354148E+0	1.204784E+0	1.200024E+0	1.154484E+0	1.390932E+0	1.338616E+0	1.344526E+0	1.262052E+0	1.393474E+0	1.098692E+0	1.266545E+0	1.349288E+0	1.278692E+0	1.174600E+0	1.170320E+0	1.224237E+0	1.338249E+0	1.316908E+0	1.169011E+0	1.191787E+0	1.389976E+0	1.345480E+0	1.310586E+0	1.235147E+0	1.299382E+0	1.271245E+0	1.358642E+0	1.380198E+0	1.104805E+0	1.251063E+0	1.231978E+0	1.332230E+0	1.215355E+0	1.253998E+0	1.225760E+0	1.204361E+0	1.305707E+0	1.360827E+0	1.404494E+0	1.217469E+0	1.265511E+0	1.277300E+0	1.326065E+0	1.379838E+0	1.202445E+0	1.238172E+0	1.266759E+0	1.323726E+0	1.268507E+0	1.205214E+0	1.275127E+0	1.206410E+0	1.394887E+0	1.307009E+0	1.359156E+0	1.212100E+0	1.292301E+0	1.465983E+0	1.283254E+0	1.368137E+0	1.128933E+0	1.332686E+0	1.187638E+0	1.270280E+0	1.174191E+0	1.286652E+0	1.175476E+0	1.203501E+0	1.303715E+0	1.427675E+0	1.316363E+0	1.265123E+0	1.261972E+0	1.387185E+0	1.412906E+0	1.370542E+0	1.227686E+0	1.237085E+0	1.272914E+0	1.318867E+0	1.245384E+0	1.192720E+0	1.232018E+0	1.288847E+0	1.420172E+0	1.377751E+0	1.315197E+0	1.311329E+0	1.293676E+0	1.384831E+0	1.358822E+0	1.420629E+0	1.149685E+0	1.311976E+0	1.234915E+0	1.279292E+0	1.151118E+0	1.281541E+0	1.204345E+0	1.164757E+0	1.371059E+0	1.316075E+0	1.373212E+0	1.047403E+0	1.267046E+0	1.309655E+0	1.255143E+0	1.340936E+0	1.165142E+0	1.195950E+0	1.209917E+0	1.157421E+0	1.263895E+0	1.225067E+0	1.268950E+0	1.342746E+0	1.340572E+0	1.372644E+0	1.314208E+0	1.291914E+0	9.984531E-1	1.403171E+0	1.287833E+0	1.357976E+0
5.390340E+2	1.663300E+0	1.665956E+0	1.402778E+0	1.490885E+0	1.617858E+0	1.586213E+0	1.299177E+0	1.383884E+0	1.541037E+0	1.574930E+0	1.401804E+0	1.470665E+0	1.339978E+0	1.660237E+0	1.564577E+0	1.501883E+0	1.433348E+0	1.594526E+0	1.433527E+0	1.505477E+0	1.604719E+0	1.657050E+0	1.350562E+0	1.391616E+0	1.457231E+0	1.621112E+0	1.393786E+0	1.366014E+0	1.333817E+0	1.664159E+0	1.580247E+0	1.587147E+0	1.425144E+0	1.592778E+0	1.402579E+0	1.484611E+0	1.489724E+0	1.634943E+0	1.346660E+0	1.420783E+0	1.375505E+0	1.680157E+0	1.458008E+0	1.403038E+0	1.365501E+0	1.641048E+0	1.491136E+0	1.563786E+0	1.465387E+0	1.618798E+0	1.193303E+0	1.433650E+0	1.520466E+0	1.569645E+0	1.386254E+0	1.357359E+0	1.447703E+0	1.617698E+0	1.409840E+0	1.314410E+0	1.331536E+0	1.654083E+0	1.504947E+0	1.536171E+0	1.355432E+0	1.500447E+0	1.434833E+0	1.500070E+0	1.506981E+0	1.356718E+0	1.418163E+0	1.408329E+0	1.541250E+0	1.457547E+0	1.378556E+0	1.349792E+0	1.345966E+0	1.472405E+0	1.478205E+0	1.588332E+0	1.395251E+0	1.385212E+0	1.460433E+0	1.508634E+0	1.597976E+0	1.407604E+0	1.372787E+0	1.424038E+0	1.469726E+0	1.448086E+0	1.364046E+0	1.455243E+0	1.396094E+0	1.522722E+0	1.535924E+0	1.529379E+0	1.389789E+0	1.496303E+0	1.606454E+0	1.474855E+0	1.533806E+0	1.345309E+0	1.459230E+0	1.315785E+0	1.439997E+0	1.342413E+0	1.522809E+0	1.419553E+0	1.368814E+0	1.511046E+0	1.581164E+0	1.523776E+0	1.444862E+0	1.415428E+0	1.535317E+0	1.607810E+0	1.529726E+0	1.406737E+0	1.319866E+0	1.382809E+0	1.497562E+0	1.381982E+0	1.425145E+0	1.431473E+0	1.452017E+0	1.482839E+0	1.548784E+0	1.523229E+0	1.448061E+0	1.461435E+0	1.612546E+0	1.542665E+0	1.587375E+0	1.336683E+0	1.453223E+0	1.310256E+0	1.516126E+0	1.334627E+0	1.417866E+0	1.381901E+0	1.354850E+0	1.513428E+0	1.593052E+0	1.508384E+0	1.190135E+0	1.515804E+0	1.448282E+0	1.415249E+0	1.492983E+0	1.293933E+0	1.371167E+0	1.372618E+0	1.301308E+0	1.405808E+0	1.394622E+0	1.378238E+0	1.427522E+0	1.521077E+0	1.496487E+0	1.525168E+0	1.482976E+0	1.158443E+0	1.492094E+0	1.514595E+0	1.575553E+0
5.392670E+2	1.764198E+0	1.911242E+0	1.654760E+0	1.700173E+0	1.774854E+0	1.804791E+0	1.444972E+0	1.574214E+0	1.633858E+0	1.827832E+0	1.546463E+0	1.688659E+0	1.475046E+0	1.868837E+0	1.754358E+0	1.747031E+0	1.640553E+0	1.822718E+0	1.622795E+0	1.743350E+0	1.767463E+0	1.823796E+0	1.582329E+0	1.513268E+0	1.663904E+0	1.809750E+0	1.566298E+0	1.592405E+0	1.528352E+0	1.797820E+0	1.724774E+0	1.773908E+0	1.574458E+0	1.810449E+0	1.642143E+0	1.714829E+0	1.682239E+0	1.873692E+0	1.537983E+0	1.582581E+0	1.563339E+0	1.911867E+0	1.553312E+0	1.551371E+0	1.510364E+0	1.897167E+0	1.642279E+0	1.744499E+0	1.678898E+0	1.814079E+0	1.358540E+0	1.629318E+0	1.738565E+0	1.870200E+0	1.567490E+0	1.557109E+0	1.572762E+0	1.859888E+0	1.568201E+0	1.538214E+0	1.506667E+0	1.870715E+0	1.714697E+0	1.757885E+0	1.500450E+0	1.790107E+0	1.689552E+0	1.720318E+0	1.713086E+0	1.778485E+0	1.611477E+0	1.610896E+0	1.700630E+0	1.814941E+0	1.542173E+0	1.597151E+0	1.569807E+0	1.780214E+0	1.659542E+0	1.751457E+0	1.546302E+0	1.778733E+0	1.630636E+0	1.737206E+0	1.811654E+0	1.772411E+0	1.554221E+0	1.512191E+0	1.591736E+0	1.723946E+0	1.510767E+0	1.559878E+0	1.527461E+0	1.795762E+0	1.733867E+0	1.684505E+0	1.571519E+0	1.722380E+0	1.844683E+0	1.717593E+0	1.705847E+0	1.519559E+0	1.634754E+0	1.549222E+0	1.593425E+0	1.512771E+0	1.769595E+0	1.560082E+0	1.551500E+0	1.602574E+0	1.811058E+0	1.691772E+0	1.682438E+0	1.531077E+0	1.765247E+0	1.733603E+0	1.701850E+0	1.525207E+0	1.531410E+0	1.522015E+0	1.727504E+0	1.574201E+0	1.522343E+0	1.607504E+0	1.640337E+0	1.674353E+0	1.676164E+0	1.662777E+0	1.668237E+0	1.658607E+0	1.782315E+0	1.699927E+0	1.756687E+0	1.465885E+0	1.629602E+0	1.531491E+0	1.616107E+0	1.488994E+0	1.548265E+0	1.465130E+0	1.534211E+0	1.690503E+0	1.763922E+0	1.718725E+0	1.416828E+0	1.680081E+0	1.711224E+0	1.595823E+0	1.719970E+0	1.499579E+0	1.568363E+0	1.465134E+0	1.403770E+0	1.534170E+0	1.581798E+0	1.507257E+0	1.604906E+0	1.607631E+0	1.644278E+0	1.617103E+0	1.671717E+0	1.311362E+0	1.779190E+0	1.720743E+0	1.749028E+0
5.395320E+2	2.019288E+0	2.062674E+0	1.795711E+0	1.881381E+0	2.007727E+0	1.920027E+0	1.625393E+0	1.706494E+0	1.832059E+0	2.020278E+0	1.767113E+0	1.894625E+0	1.678542E+0	2.028837E+0	1.941511E+0	1.857852E+0	1.730535E+0	2.001175E+0	1.830627E+0	1.906101E+0	1.865711E+0	2.022444E+0	1.682466E+0	1.681704E+0	1.918475E+0	1.976517E+0	1.668656E+0	1.792279E+0	1.632726E+0	1.980144E+0	1.970404E+0	1.923187E+0	1.711698E+0	1.944873E+0	1.774713E+0	1.829941E+0	1.910555E+0	1.986745E+0	1.675087E+0	1.786800E+0	1.747867E+0	2.043439E+0	1.724444E+0	1.744816E+0	1.641533E+0	1.995875E+0	1.896481E+0	1.906888E+0	1.746674E+0	2.037151E+0	1.518444E+0	1.833559E+0	1.876697E+0	2.073998E+0	1.652278E+0	1.761704E+0	1.801694E+0	2.051621E+0	1.743662E+0	1.638713E+0	1.618701E+0	2.068630E+0	1.905924E+0	1.819937E+0	1.696919E+0	1.991166E+0	1.791141E+0	1.844072E+0	1.889138E+0	1.954698E+0	1.683557E+0	1.709793E+0	1.777053E+0	2.080044E+0	1.664523E+0	1.721879E+0	1.745420E+0	1.908162E+0	1.981450E+0	1.922343E+0	1.790251E+0	2.004053E+0	1.809459E+0	1.881071E+0	1.829514E+0	1.961463E+0	1.695986E+0	1.737331E+0	1.878083E+0	1.983763E+0	1.638968E+0	1.737004E+0	1.616469E+0	1.998635E+0	1.844281E+0	1.943961E+0	1.731711E+0	1.898215E+0	2.008977E+0	1.838602E+0	1.918031E+0	1.921674E+0	1.725920E+0	1.652702E+0	1.769255E+0	1.911231E+0	1.859198E+0	1.675461E+0	1.740774E+0	1.959682E+0	2.014586E+0	1.840382E+0	1.755434E+0	1.703070E+0	1.877269E+0	1.892009E+0	1.895980E+0	1.675985E+0	1.653609E+0	1.755134E+0	1.838092E+0	1.790956E+0	1.701243E+0	1.736688E+0	1.755780E+0	1.850379E+0	1.891559E+0	1.971599E+0	1.849847E+0	1.804105E+0	1.928408E+0	1.927328E+0	1.959986E+0	1.584884E+0	1.780168E+0	1.664235E+0	1.720344E+0	1.644150E+0	1.741641E+0	1.718284E+0	1.637151E+0	1.784703E+0	1.965797E+0	1.855218E+0	1.570754E+0	1.796638E+0	1.798620E+0	1.743498E+0	1.882106E+0	1.671993E+0	1.690283E+0	1.634217E+0	1.651573E+0	1.699200E+0	1.730803E+0	1.643867E+0	1.706064E+0	1.918337E+0	1.860492E+0	1.778176E+0	1.783880E+0	1.489914E+0	1.841435E+0	1.854739E+0	1.848997E+0
5.397750E+2	2.145765E+0	2.330042E+0	1.983126E+0	2.048978E+0	2.146697E+0	2.154214E+0	1.766535E+0	1.890214E+0	2.020486E+0	2.101384E+0	1.938433E+0	1.984830E+0	1.779694E+0	2.238113E+0	2.091886E+0	2.162104E+0	1.881980E+0	2.154767E+0	2.007039E+0	2.086853E+0	2.083314E+0	2.197621E+0	1.817878E+0	1.849518E+0	2.079883E+0	2.152853E+0	1.800367E+0	1.835112E+0	1.779175E+0	2.176739E+0	2.066517E+0	2.008200E+0	1.834325E+0	2.197678E+0	1.935543E+0	1.961606E+0	2.018548E+0	2.242784E+0	1.848963E+0	1.831035E+0	1.804086E+0	2.203520E+0	1.847576E+0	1.806336E+0	1.785823E+0	2.272006E+0	2.025639E+0	2.068648E+0	1.934422E+0	2.277497E+0	1.684353E+0	1.988523E+0	2.042582E+0	2.218187E+0	1.882707E+0	1.841605E+0	1.927438E+0	2.227053E+0	1.977856E+0	1.884611E+0	1.830977E+0	2.151539E+0	2.011129E+0	2.004800E+0	1.797826E+0	2.249240E+0	1.950994E+0	2.076845E+0	2.036952E+0	2.099103E+0	1.820519E+0	1.838479E+0	2.067724E+0	2.146160E+0	1.869416E+0	1.904439E+0	1.843115E+0	2.098993E+0	2.077743E+0	2.090004E+0	1.791593E+0	2.279442E+0	1.912157E+0	2.039537E+0	2.109528E+0	2.168021E+0	1.858560E+0	1.833727E+0	2.047357E+0	2.191615E+0	1.797087E+0	1.899185E+0	1.819043E+0	2.169546E+0	2.019333E+0	1.990635E+0	1.884496E+0	2.063396E+0	2.212703E+0	1.918553E+0	2.074779E+0	2.129115E+0	1.948390E+0	1.801307E+0	1.996680E+0	2.107963E+0	2.008026E+0	1.876641E+0	1.785103E+0	2.196831E+0	2.159959E+0	2.014840E+0	1.937234E+0	2.056688E+0	1.984128E+0	2.079149E+0	2.075225E+0	2.131691E+0	1.804712E+0	1.913651E+0	2.016110E+0	2.109138E+0	1.841404E+0	1.902073E+0	1.899596E+0	2.176378E+0	2.000335E+0	2.034262E+0	2.016026E+0	1.967091E+0	2.083481E+0	1.926590E+0	2.130580E+0	1.824246E+0	1.884843E+0	1.796379E+0	1.874213E+0	1.785916E+0	1.856475E+0	1.834808E+0	1.744516E+0	1.941943E+0	2.098770E+0	1.960719E+0	1.678503E+0	1.870171E+0	1.997521E+0	1.891174E+0	2.047121E+0	1.757850E+0	1.933449E+0	1.691006E+0	1.754038E+0	1.832347E+0	1.824021E+0	1.736456E+0	1.901258E+0	1.984172E+0	1.972021E+0	2.008374E+0	1.966435E+0	1.810777E+0	1.924008E+0	1.935137E+0	2.007770E+0
5.400190E+2	2.262293E+0	2.304012E+0	2.023281E+0	2.077904E+0	2.258625E+0	2.179490E+0	1.797821E+0	1.949740E+0	2.153785E+0	2.339539E+0	2.028429E+0	2.102100E+0	1.902267E+0	2.321824E+0	2.108962E+0	2.147999E+0	1.894653E+0	2.233756E+0	2.085603E+0	2.057119E+0	2.195424E+0	2.266242E+0	1.935649E+0	1.946840E+0	2.011644E+0	2.325773E+0	1.986474E+0	1.969722E+0	1.929448E+0	2.281200E+0	2.133442E+0	2.209022E+0	1.955049E+0	2.319883E+0	1.994089E+0	2.105304E+0	2.124786E+0	2.368479E+0	1.937457E+0	1.949812E+0	1.968774E+0	2.342404E+0	1.982533E+0	2.001147E+0	1.922700E+0	2.280008E+0	2.086099E+0	2.147000E+0	1.971025E+0	2.218915E+0	1.722327E+0	2.154198E+0	2.206485E+0	2.305343E+0	1.966201E+0	1.916664E+0	1.960925E+0	2.359790E+0	1.966705E+0	1.860374E+0	1.873434E+0	2.183634E+0	2.098471E+0	2.080430E+0	1.988280E+0	2.312410E+0	2.119806E+0	2.162291E+0	2.104250E+0	2.216154E+0	1.887359E+0	1.970742E+0	2.034410E+0	2.275107E+0	1.882680E+0	1.942065E+0	1.927831E+0	2.273731E+0	2.088285E+0	2.182567E+0	1.887165E+0	2.273178E+0	2.052913E+0	2.109642E+0	2.224974E+0	2.196032E+0	1.836451E+0	1.975154E+0	2.092496E+0	2.274909E+0	1.901073E+0	1.982892E+0	1.917261E+0	2.220266E+0	2.131094E+0	2.149192E+0	1.904016E+0	2.232382E+0	2.312104E+0	2.031640E+0	2.091345E+0	2.271449E+0	2.138885E+0	1.905996E+0	2.105980E+0	2.273334E+0	2.097628E+0	1.894390E+0	1.909685E+0	2.192668E+0	2.173483E+0	2.058129E+0	1.979930E+0	2.085600E+0	2.112364E+0	2.147480E+0	2.277119E+0	2.232661E+0	1.917056E+0	1.952283E+0	2.072079E+0	2.192569E+0	1.872393E+0	1.960986E+0	1.988599E+0	2.155257E+0	2.086922E+0	2.086597E+0	2.053892E+0	2.217536E+0	2.170816E+0	2.114862E+0	2.151101E+0	2.174447E+0	2.073414E+0	1.918959E+0	1.942288E+0	2.292335E+0	2.012807E+0	1.833414E+0	1.825986E+0	2.223136E+0	2.178695E+0	2.094573E+0	1.669410E+0	2.129103E+0	2.083413E+0	2.043239E+0	2.098285E+0	1.967655E+0	1.914131E+0	1.830098E+0	1.812175E+0	2.072323E+0	1.859250E+0	1.820703E+0	1.981758E+0	2.073684E+0	2.112287E+0	2.061826E+0	2.068541E+0	1.959277E+0	2.194588E+0	2.170146E+0	2.157723E+0
5.402530E+2	2.243821E+0	2.272465E+0	2.005962E+0	2.162128E+0	2.251115E+0	2.253834E+0	1.822459E+0	1.910057E+0	2.019093E+0	2.214928E+0	1.923100E+0	2.119390E+0	1.846339E+0	2.282667E+0	2.173316E+0	2.159420E+0	1.876914E+0	2.189141E+0	2.031324E+0	2.035211E+0	2.108624E+0	2.275270E+0	1.894081E+0	1.843279E+0	1.993930E+0	2.249224E+0	1.967151E+0	1.925533E+0	1.815786E+0	2.211124E+0	2.152665E+0	2.066439E+0	1.867999E+0	2.199970E+0	1.950348E+0	2.027057E+0	2.083700E+0	2.277365E+0	1.855814E+0	1.965567E+0	1.891393E+0	2.257609E+0	1.984620E+0	1.915703E+0	1.880498E+0	2.268672E+0	2.055871E+0	2.142577E+0	1.938488E+0	2.158077E+0	1.660364E+0	2.051367E+0	2.142376E+0	2.234851E+0	1.838693E+0	1.860367E+0	1.969809E+0	2.244130E+0	2.072273E+0	1.896725E+0	1.799136E+0	2.208374E+0	2.059435E+0	2.065562E+0	1.894727E+0	2.224591E+0	1.958464E+0	2.047379E+0	2.044762E+0	2.153175E+0	1.909637E+0	1.851588E+0	2.026572E+0	2.257432E+0	1.850254E+0	1.877263E+0	1.878980E+0	2.150901E+0	1.970904E+0	2.170914E+0	1.873130E+0	2.215290E+0	2.034240E+0	2.043923E+0	2.123561E+0	2.268854E+0	1.922289E+0	1.900953E+0	2.009975E+0	2.264207E+0	1.852641E+0	1.873772E+0	1.842370E+0	2.232075E+0	2.073870E+0	2.145074E+0	1.892573E+0	2.096126E+0	2.220098E+0	2.010033E+0	2.032087E+0	2.222303E+0	2.013024E+0	1.818153E+0	1.967486E+0	2.174255E+0	2.068776E+0	1.846320E+0	1.868355E+0	2.210004E+0	2.136294E+0	2.029698E+0	1.937235E+0	2.103389E+0	2.112361E+0	2.102443E+0	2.033811E+0	2.197658E+0	1.876983E+0	1.962276E+0	2.092310E+0	2.165579E+0	1.914648E+0	1.861613E+0	1.952482E+0	2.156665E+0	2.007491E+0	2.050416E+0	1.993589E+0	2.191300E+0	2.130824E+0	2.112646E+0	2.140840E+0	2.094203E+0	1.990245E+0	1.863947E+0	1.870667E+0	2.169476E+0	1.960942E+0	1.932599E+0	1.856300E+0	2.134600E+0	2.083615E+0	2.045120E+0	1.784156E+0	2.142402E+0	1.991499E+0	1.918958E+0	2.056489E+0	2.171224E+0	1.901473E+0	1.802023E+0	1.798364E+0	2.287583E+0	1.849710E+0	1.839674E+0	1.926902E+0	2.162456E+0	2.089706E+0	1.992695E+0	2.068538E+0	2.052969E+0	2.034525E+0	2.056764E+0	1.969547E+0
5.405080E+2	2.141500E+0	2.270888E+0	1.932730E+0	2.082160E+0	2.246605E+0	2.240456E+0	1.733246E+0	1.895357E+0	2.010717E+0	2.217882E+0	1.949762E+0	1.946491E+0	1.805875E+0	2.185455E+0	2.110276E+0	2.053302E+0	1.852198E+0	2.197919E+0	1.940621E+0	2.068855E+0	2.105011E+0	2.094081E+0	1.852515E+0	1.791502E+0	1.950628E+0	2.158323E+0	1.859061E+0	1.820836E+0	1.833819E+0	2.164409E+0	2.016683E+0	2.031629E+0	1.918831E+0	2.253431E+0	1.893818E+0	2.063923E+0	2.046138E+0	2.227489E+0	1.776670E+0	1.834067E+0	1.857661E+0	2.196210E+0	1.883751E+0	1.819325E+0	1.828598E+0	2.184634E+0	2.046938E+0	2.071175E+0	1.866647E+0	2.221919E+0	1.657034E+0	1.941392E+0	2.057782E+0	2.187426E+0	1.788201E+0	1.847054E+0	1.873450E+0	2.171939E+0	2.012795E+0	1.799793E+0	1.790291E+0	2.217733E+0	2.042231E+0	1.987350E+0	1.943507E+0	2.212264E+0	1.925594E+0	1.984767E+0	2.024337E+0	2.155084E+0	1.834277E+0	1.865887E+0	2.041595E+0	2.214890E+0	1.824455E+0	1.884931E+0	1.894438E+0	2.170643E+0	2.057357E+0	2.025918E+0	1.866450E+0	2.101843E+0	1.935852E+0	2.046840E+0	2.055950E+0	2.131612E+0	1.809789E+0	1.885730E+0	1.915464E+0	2.181678E+0	1.760766E+0	1.875268E+0	1.780371E+0	2.139670E+0	2.032126E+0	2.053097E+0	1.893246E+0	2.070248E+0	2.099335E+0	2.012914E+0	2.024439E+0	2.132946E+0	1.906890E+0	1.825974E+0	1.942369E+0	2.079455E+0	1.979172E+0	1.771612E+0	1.827629E+0	2.169094E+0	2.159284E+0	1.978656E+0	1.858043E+0	2.079671E+0	2.036451E+0	2.071383E+0	2.061635E+0	2.147175E+0	1.813912E+0	1.966935E+0	1.983742E+0	2.120587E+0	1.777308E+0	1.886457E+0	1.900887E+0	2.108077E+0	2.056151E+0	2.036853E+0	2.021637E+0	2.107021E+0	2.096545E+0	1.972366E+0	2.042074E+0	2.079246E+0	1.852580E+0	1.727620E+0	1.869249E+0	2.173409E+0	1.877220E+0	1.825094E+0	1.827246E+0	2.089980E+0	2.111175E+0	2.029954E+0	1.658910E+0	2.066521E+0	1.962112E+0	1.825381E+0	2.014696E+0	2.124138E+0	1.814196E+0	1.722266E+0	1.658115E+0	2.079497E+0	1.782915E+0	1.775162E+0	1.924054E+0	2.124728E+0	2.037019E+0	1.957059E+0	1.994282E+0	2.053852E+0	2.034526E+0	2.071194E+0	1.934266E+0
5.407630E+2	1.949653E+0	2.047689E+0	1.780753E+0	1.881383E+0	2.012986E+0	1.951252E+0	1.567470E+0	1.768223E+0	1.768552E+0	1.964238E+0	1.687119E+0	1.758569E+0	1.636295E+0	2.036934E+0	1.862710E+0	1.823599E+0	1.681742E+0	1.964609E+0	1.824915E+0	1.854457E+0	1.869934E+0	1.955626E+0	1.683729E+0	1.677337E+0	1.827934E+0	1.976519E+0	1.733077E+0	1.713416E+0	1.654584E+0	1.952891E+0	1.792414E+0	1.824784E+0	1.662137E+0	2.001392E+0	1.739047E+0	1.866053E+0	1.873579E+0	1.987408E+0	1.685682E+0	1.737712E+0	1.654610E+0	1.965227E+0	1.718878E+0	1.660738E+0	1.650092E+0	1.967869E+0	1.781745E+0	1.875299E+0	1.707362E+0	1.973307E+0	1.530443E+0	1.804280E+0	1.833738E+0	1.977226E+0	1.630272E+0	1.658802E+0	1.744975E+0	2.013582E+0	1.774143E+0	1.571714E+0	1.609856E+0	1.962320E+0	1.809978E+0	1.781152E+0	1.682217E+0	1.969601E+0	1.798610E+0	1.868379E+0	1.878923E+0	1.905076E+0	1.674383E+0	1.690132E+0	1.866539E+0	1.905275E+0	1.618092E+0	1.703065E+0	1.657612E+0	1.943260E+0	1.925222E+0	1.910047E+0	1.662596E+0	1.974323E+0	1.750567E+0	1.848939E+0	1.781038E+0	1.946062E+0	1.663470E+0	1.678349E+0	1.824483E+0	1.948611E+0	1.620452E+0	1.666751E+0	1.693816E+0	1.927077E+0	1.764162E+0	1.885618E+0	1.723633E+0	1.951498E+0	2.042658E+0	1.802591E+0	1.883622E+0	2.012949E+0	1.749732E+0	1.644882E+0	1.731914E+0	1.929763E+0	1.790857E+0	1.685079E+0	1.631763E+0	1.919463E+0	1.964548E+0	1.793214E+0	1.748551E+0	1.843180E+0	1.878007E+0	1.874925E+0	1.811857E+0	1.966102E+0	1.629959E+0	1.637908E+0	1.812470E+0	1.906288E+0	1.641375E+0	1.699779E+0	1.695155E+0	1.913750E+0	1.811412E+0	1.892775E+0	1.766404E+0	1.883611E+0	1.939018E+0	1.845375E+0	1.924711E+0	1.950043E+0	1.724959E+0	1.665432E+0	1.735233E+0	1.890667E+0	1.689036E+0	1.666267E+0	1.669360E+0	1.841367E+0	1.904476E+0	1.873022E+0	1.489596E+0	1.940573E+0	1.835539E+0	1.676238E+0	1.810766E+0	1.990502E+0	1.679621E+0	1.543614E+0	1.569455E+0	1.983031E+0	1.651527E+0	1.657528E+0	1.725298E+0	1.924253E+0	1.825595E+0	1.818085E+0	1.834160E+0	1.897402E+0	1.808407E+0	1.761973E+0	1.887221E+0
5.410190E+2	1.806831E+0	1.924652E+0	1.699646E+0	1.785246E+0	2.015990E+0	1.841221E+0	1.486252E+0	1.645497E+0	1.742029E+0	1.872071E+0	1.635787E+0	1.687906E+0	1.531575E+0	1.942425E+0	1.817395E+0	1.818225E+0	1.617743E+0	1.858558E+0	1.639934E+0	1.710488E+0	1.740341E+0	1.875562E+0	1.604374E+0	1.525119E+0	1.752481E+0	1.891082E+0	1.571305E+0	1.652235E+0	1.593381E+0	1.897091E+0	1.729047E+0	1.770566E+0	1.597964E+0	1.877660E+0	1.647528E+0	1.756208E+0	1.730364E+0	1.903616E+0	1.572257E+0	1.618941E+0	1.631465E+0	1.930872E+0	1.560267E+0	1.583499E+0	1.558270E+0	1.919178E+0	1.704114E+0	1.779884E+0	1.629414E+0	1.846374E+0	1.409843E+0	1.728585E+0	1.773591E+0	1.883020E+0	1.562311E+0	1.601298E+0	1.621967E+0	1.958471E+0	1.615784E+0	1.506139E+0	1.545582E+0	1.877400E+0	1.743151E+0	1.753358E+0	1.569948E+0	1.842488E+0	1.685070E+0	1.782934E+0	1.741928E+0	1.836373E+0	1.629825E+0	1.539996E+0	1.687567E+0	1.812325E+0	1.585661E+0	1.543499E+0	1.604434E+0	1.798491E+0	1.753022E+0	1.813598E+0	1.631852E+0	1.859314E+0	1.724716E+0	1.745973E+0	1.703862E+0	1.866936E+0	1.621851E+0	1.609226E+0	1.722214E+0	1.929504E+0	1.576292E+0	1.663762E+0	1.620765E+0	1.849258E+0	1.706933E+0	1.774423E+0	1.604501E+0	1.803066E+0	1.816750E+0	1.690946E+0	1.728786E+0	1.880184E+0	1.642241E+0	1.548622E+0	1.713586E+0	1.789339E+0	1.668599E+0	1.548248E+0	1.558689E+0	1.866767E+0	1.834050E+0	1.695002E+0	1.697589E+0	1.780907E+0	1.673867E+0	1.799606E+0	1.738738E+0	1.864461E+0	1.564917E+0	1.645235E+0	1.679628E+0	1.817132E+0	1.608976E+0	1.659317E+0	1.582289E+0	1.813060E+0	1.709796E+0	1.772610E+0	1.732749E+0	1.823979E+0	1.849238E+0	1.745703E+0	1.800295E+0	1.816765E+0	1.636774E+0	1.578134E+0	1.622486E+0	1.735509E+0	1.631242E+0	1.576101E+0	1.561368E+0	1.836409E+0	1.890005E+0	1.725980E+0	1.439215E+0	1.790382E+0	1.729307E+0	1.676240E+0	1.707718E+0	1.784855E+0	1.550374E+0	1.514264E+0	1.493883E+0	1.862642E+0	1.595743E+0	1.594536E+0	1.669733E+0	1.825864E+0	1.705173E+0	1.706904E+0	1.767635E+0	1.786911E+0	1.686455E+0	1.774342E+0	1.751968E+0
5.412690E+2	1.872201E+0	2.011408E+0	1.693347E+0	1.753767E+0	1.910072E+0	1.988423E+0	1.531524E+0	1.633742E+0	1.744125E+0	1.902306E+0	1.645789E+0	1.726993E+0	1.613685E+0	1.946475E+0	1.866650E+0	1.822930E+0	1.638021E+0	1.902439E+0	1.713502E+0	1.793428E+0	1.818699E+0	1.905061E+0	1.562806E+0	1.593120E+0	1.760355E+0	1.889718E+0	1.649329E+0	1.622321E+0	1.575345E+0	1.924341E+0	1.847234E+0	1.825452E+0	1.536337E+0	1.940291E+0	1.632049E+0	1.814140E+0	1.773215E+0	1.954826E+0	1.595317E+0	1.651059E+0	1.646677E+0	1.870205E+0	1.621484E+0	1.593066E+0	1.574239E+0	1.907172E+0	1.775566E+0	1.827906E+0	1.647037E+0	1.893694E+0	1.437160E+0	1.718583E+0	1.868760E+0	1.897117E+0	1.612797E+0	1.615220E+0	1.673907E+0	1.895595E+0	1.636600E+0	1.566010E+0	1.546173E+0	1.920195E+0	1.761014E+0	1.746249E+0	1.589328E+0	1.972679E+0	1.682083E+0	1.830077E+0	1.732312E+0	1.856731E+0	1.599682E+0	1.646043E+0	1.769216E+0	1.896109E+0	1.584923E+0	1.594365E+0	1.605053E+0	1.846749E+0	1.727716E+0	1.785113E+0	1.585069E+0	1.845234E+0	1.687372E+0	1.721143E+0	1.824410E+0	1.836126E+0	1.567874E+0	1.615563E+0	1.763124E+0	1.845452E+0	1.587687E+0	1.675721E+0	1.603579E+0	1.854125E+0	1.752044E+0	1.738043E+0	1.599789E+0	1.828952E+0	1.934227E+0	1.662851E+0	1.775302E+0	1.907635E+0	1.745649E+0	1.591338E+0	1.666064E+0	1.887710E+0	1.765038E+0	1.589665E+0	1.578455E+0	1.968002E+0	1.855008E+0	1.724722E+0	1.683128E+0	1.817232E+0	1.713664E+0	1.846198E+0	1.773030E+0	1.874555E+0	1.605652E+0	1.684534E+0	1.732224E+0	1.880115E+0	1.554039E+0	1.657898E+0	1.648075E+0	1.823620E+0	1.774917E+0	1.789411E+0	1.734149E+0	1.775483E+0	1.812513E+0	1.752349E+0	1.813764E+0	1.919443E+0	1.670468E+0	1.566773E+0	1.617526E+0	1.873337E+0	1.629763E+0	1.560845E+0	1.597997E+0	1.813034E+0	1.799749E+0	1.732574E+0	1.450411E+0	1.852182E+0	1.759442E+0	1.700365E+0	1.739427E+0	1.845098E+0	1.658967E+0	1.509799E+0	1.512776E+0	1.891345E+0	1.607489E+0	1.607439E+0	1.710337E+0	1.815504E+0	1.746228E+0	1.722583E+0	1.730505E+0	1.761278E+0	1.681374E+0	1.865047E+0	1.828415E+0
5.415090E+2	1.860120E+0	1.844994E+0	1.622477E+0	1.686557E+0	1.849975E+0	1.846426E+0	1.440979E+0	1.594790E+0	1.739935E+0	1.785805E+0	1.601789E+0	1.694670E+0	1.497061E+0	1.774327E+0	1.765521E+0	1.767850E+0	1.586695E+0	1.843196E+0	1.578514E+0	1.655713E+0	1.776504E+0	1.828615E+0	1.585477E+0	1.539468E+0	1.650781E+0	1.845975E+0	1.544106E+0	1.587648E+0	1.514691E+0	1.861405E+0	1.809498E+0	1.722365E+0	1.575092E+0	1.887592E+0	1.608497E+0	1.652388E+0	1.695148E+0	1.773935E+0	1.547330E+0	1.537736E+0	1.606990E+0	1.840963E+0	1.560267E+0	1.508988E+0	1.521768E+0	1.863815E+0	1.734342E+0	1.747660E+0	1.575871E+0	1.876419E+0	1.377198E+0	1.727155E+0	1.762358E+0	1.846491E+0	1.549366E+0	1.545609E+0	1.563877E+0	1.918104E+0	1.606860E+0	1.521108E+0	1.559736E+0	1.845976E+0	1.656471E+0	1.663512E+0	1.578635E+0	1.872533E+0	1.694030E+0	1.683490E+0	1.663814E+0	1.800749E+0	1.565607E+0	1.578125E+0	1.656213E+0	1.862728E+0	1.487636E+0	1.627115E+0	1.557440E+0	1.807267E+0	1.743183E+0	1.734624E+0	1.522909E+0	1.825675E+0	1.617711E+0	1.687549E+0	1.661123E+0	1.836128E+0	1.567225E+0	1.568634E+0	1.619245E+0	1.792720E+0	1.500082E+0	1.627139E+0	1.516411E+0	1.819385E+0	1.738579E+0	1.762068E+0	1.537195E+0	1.786320E+0	1.813465E+0	1.673654E+0	1.679085E+0	1.783169E+0	1.700067E+0	1.538392E+0	1.672853E+0	1.817855E+0	1.676192E+0	1.544551E+0	1.541918E+0	1.811989E+0	1.728568E+0	1.692417E+0	1.652139E+0	1.720860E+0	1.650284E+0	1.738263E+0	1.774973E+0	1.762820E+0	1.522869E+0	1.642572E+0	1.640516E+0	1.804042E+0	1.586437E+0	1.647254E+0	1.608736E+0	1.856715E+0	1.730548E+0	1.702835E+0	1.662628E+0	1.726984E+0	1.792105E+0	1.613542E+0	1.724621E+0	1.773245E+0	1.583716E+0	1.489637E+0	1.652981E+0	1.863102E+0	1.602353E+0	1.526164E+0	1.512107E+0	1.808783E+0	1.732916E+0	1.668614E+0	1.397934E+0	1.861566E+0	1.686361E+0	1.649922E+0	1.681779E+0	1.744001E+0	1.527724E+0	1.440891E+0	1.436472E+0	1.814009E+0	1.685293E+0	1.511052E+0	1.665459E+0	1.813288E+0	1.712017E+0	1.652026E+0	1.701886E+0	1.763047E+0	1.622938E+0	1.722805E+0	1.854877E+0
5.417650E+2	1.568796E+0	1.624946E+0	1.475223E+0	1.571707E+0	1.645652E+0	1.681379E+0	1.347107E+0	1.421363E+0	1.533361E+0	1.590413E+0	1.413804E+0	1.442097E+0	1.341168E+0	1.654835E+0	1.563264E+0	1.565688E+0	1.375682E+0	1.638409E+0	1.397101E+0	1.525037E+0	1.520331E+0	1.643804E+0	1.349932E+0	1.389122E+0	1.499221E+0	1.582151E+0	1.411683E+0	1.405447E+0	1.331629E+0	1.568132E+0	1.480574E+0	1.548991E+0	1.346358E+0	1.613398E+0	1.404600E+0	1.553074E+0	1.492072E+0	1.638931E+0	1.347905E+0	1.378362E+0	1.370877E+0	1.580012E+0	1.378702E+0	1.394838E+0	1.386033E+0	1.647049E+0	1.529608E+0	1.554939E+0	1.414558E+0	1.633066E+0	1.246607E+0	1.481498E+0	1.504601E+0	1.619628E+0	1.319585E+0	1.337989E+0	1.440184E+0	1.675919E+0	1.456678E+0	1.320113E+0	1.364558E+0	1.630014E+0	1.547292E+0	1.476707E+0	1.412904E+0	1.646045E+0	1.444543E+0	1.540587E+0	1.621749E+0	1.533568E+0	1.408334E+0	1.386882E+0	1.483114E+0	1.581913E+0	1.382978E+0	1.390205E+0	1.390487E+0	1.629601E+0	1.579415E+0	1.545605E+0	1.403939E+0	1.662947E+0	1.466893E+0	1.473579E+0	1.587134E+0	1.627470E+0	1.381888E+0	1.401842E+0	1.483124E+0	1.631486E+0	1.390399E+0	1.446276E+0	1.396092E+0	1.624159E+0	1.469944E+0	1.610371E+0	1.360850E+0	1.606675E+0	1.639312E+0	1.443162E+0	1.480918E+0	1.600622E+0	1.493248E+0	1.387981E+0	1.460364E+0	1.626822E+0	1.508378E+0	1.357424E+0	1.353841E+0	1.628233E+0	1.570345E+0	1.535405E+0	1.479979E+0	1.549612E+0	1.534579E+0	1.607032E+0	1.553021E+0	1.636269E+0	1.376367E+0	1.432100E+0	1.490816E+0	1.620004E+0	1.355418E+0	1.439280E+0	1.432664E+0	1.572963E+0	1.514433E+0	1.521938E+0	1.483120E+0	1.532195E+0	1.576634E+0	1.513869E+0	1.598921E+0	1.646086E+0	1.433865E+0	1.344339E+0	1.432452E+0	1.623674E+0	1.433423E+0	1.428371E+0	1.360537E+0	1.559467E+0	1.590295E+0	1.556519E+0	1.259401E+0	1.623758E+0	1.536435E+0	1.385276E+0	1.465598E+0	1.613826E+0	1.463102E+0	1.283293E+0	1.298399E+0	1.678476E+0	1.412974E+0	1.320556E+0	1.419687E+0	1.658676E+0	1.487593E+0	1.525168E+0	1.530935E+0	1.603940E+0	1.467958E+0	1.611485E+0	1.569672E+0
5.420160E+2	1.353498E+0	1.419096E+0	1.291749E+0	1.327541E+0	1.378976E+0	1.453879E+0	1.179338E+0	1.182526E+0	1.243040E+0	1.379539E+0	1.319812E+0	1.233875E+0	1.114465E+0	1.419905E+0	1.341307E+0	1.272855E+0	1.212200E+0	1.372184E+0	1.228548E+0	1.298124E+0	1.340109E+0	1.419272E+0	1.160994E+0	1.163914E+0	1.255147E+0	1.353186E+0	1.196223E+0	1.240924E+0	1.150206E+0	1.402031E+0	1.268409E+0	1.295287E+0	1.147484E+0	1.415585E+0	1.203393E+0	1.283732E+0	1.271384E+0	1.342992E+0	1.124173E+0	1.216565E+0	1.183040E+0	1.392158E+0	1.186698E+0	1.189771E+0	1.166463E+0	1.388929E+0	1.300829E+0	1.311038E+0	1.253917E+0	1.405491E+0	1.008745E+0	1.257262E+0	1.336734E+0	1.351111E+0	1.128645E+0	1.176978E+0	1.209201E+0	1.429846E+0	1.251482E+0	1.129097E+0	1.124564E+0	1.357882E+0	1.260786E+0	1.298953E+0	1.215097E+0	1.418786E+0	1.233897E+0	1.275404E+0	1.294278E+0	1.288651E+0	1.180946E+0	1.191467E+0	1.302183E+0	1.399289E+0	1.188403E+0	1.106609E+0	1.206840E+0	1.394907E+0	1.321469E+0	1.338466E+0	1.180040E+0	1.353916E+0	1.216256E+0	1.317301E+0	1.308395E+0	1.411105E+0	1.148432E+0	1.228707E+0	1.254609E+0	1.407586E+0	1.147523E+0	1.249716E+0	1.132745E+0	1.337219E+0	1.302971E+0	1.336506E+0	1.197293E+0	1.334929E+0	1.392870E+0	1.338000E+0	1.299956E+0	1.379137E+0	1.307514E+0	1.165978E+0	1.260775E+0	1.395875E+0	1.325378E+0	1.202103E+0	1.219072E+0	1.351561E+0	1.408066E+0	1.219442E+0	1.209346E+0	1.276058E+0	1.289904E+0	1.327491E+0	1.336892E+0	1.366349E+0	1.197012E+0	1.182998E+0	1.251436E+0	1.377892E+0	1.205398E+0	1.238406E+0	1.201136E+0	1.330750E+0	1.323367E+0	1.330054E+0	1.283281E+0	1.353305E+0	1.357081E+0	1.304927E+0	1.350725E+0	1.448883E+0	1.213035E+0	1.157182E+0	1.245255E+0	1.296824E+0	1.219306E+0	1.245958E+0	1.188122E+0	1.406473E+0	1.430449E+0	1.324415E+0	1.082386E+0	1.395338E+0	1.330748E+0	1.219321E+0	1.278963E+0	1.399871E+0	1.176631E+0	1.078480E+0	1.155968E+0	1.341230E+0	1.183962E+0	1.149796E+0	1.240162E+0	1.350929E+0	1.248114E+0	1.284990E+0	1.281083E+0	1.285728E+0	1.312978E+0	1.372354E+0	1.290351E+0
5.422780E+2	1.196468E+0	1.232962E+0	1.224029E+0	1.234808E+0	1.232494E+0	1.239021E+0	1.218619E+0	1.043633E+0	1.115326E+0	1.266728E+0	1.250483E+0	1.128636E+0	1.013314E+0	1.250457E+0	1.263163E+0	1.153302E+0	1.066455E+0	1.304898E+0	1.176410E+0	1.107981E+0	1.216542E+0	1.257944E+0	1.188703E+0	1.016064E+0	1.109489E+0	1.245880E+0	1.164726E+0	1.039686E+0	1.036544E+0	1.276158E+0	1.229250E+0	1.166096E+0	1.066158E+0	1.260539E+0	1.099762E+0	1.142289E+0	1.136388E+0	1.241905E+0	1.039418E+0	1.028708E+0	1.137404E+0	1.243775E+0	1.085827E+0	1.081770E+0	1.062665E+0	1.232189E+0	1.183350E+0	1.192878E+0	1.100059E+0	1.250017E+0	9.154663E-1	1.148002E+0	1.247511E+0	1.260107E+0	1.028318E+0	1.006886E+0	1.138129E+0	1.269166E+0	1.107246E+0	9.922491E-1	1.005454E+0	1.201425E+0	1.151609E+0	1.130246E+0	1.057388E+0	1.268568E+0	1.116621E+0	1.204688E+0	1.166892E+0	1.242213E+0	1.069544E+0	1.085419E+0	1.178728E+0	1.212081E+0	1.052052E+0	1.044595E+0	1.033700E+0	1.219432E+0	1.155594E+0	1.190879E+0	1.128575E+0	1.288981E+0	1.144440E+0	1.161024E+0	1.215910E+0	1.141528E+0	1.106163E+0	1.131675E+0	1.169976E+0	1.252461E+0	1.012197E+0	1.112946E+0	1.022253E+0	1.268437E+0	1.185824E+0	1.129900E+0	1.040468E+0	1.200956E+0	1.235148E+0	1.111825E+0	1.211387E+0	1.243824E+0	1.140830E+0	1.058284E+0	1.055074E+0	1.224800E+0	1.156804E+0	1.114087E+0	1.033993E+0	1.280139E+0	1.210624E+0	1.152246E+0	1.097787E+0	1.200440E+0	1.185992E+0	1.224992E+0	1.242418E+0	1.249897E+0	9.999178E-1	1.127048E+0	1.173215E+0	1.229025E+0	1.018048E+0	1.136903E+0	1.101820E+0	1.220910E+0	1.175950E+0	1.215058E+0	1.143044E+0	1.221324E+0	1.214249E+0	1.189010E+0	1.246190E+0	1.259164E+0	1.159260E+0	1.103966E+0	1.092092E+0	1.341717E+0	1.088167E+0	1.079501E+0	1.056129E+0	1.244275E+0	1.167944E+0	1.182649E+0	9.487494E-1	1.263134E+0	1.151437E+0	1.178381E+0	1.103856E+0	1.273852E+0	1.139322E+0	1.020417E+0	9.902806E-1	1.218451E+0	1.042298E+0	1.050375E+0	1.104810E+0	1.200015E+0	1.206377E+0	1.124632E+0	1.148809E+0	1.184961E+0	1.184674E+0	1.228052E+0	1.275650E+0
5.425080E+2	1.009593E+0	1.138317E+0	1.068114E+0	1.004253E+0	1.115308E+0	1.091817E+0	1.037532E+0	9.128254E-1	9.687695E-1	1.077234E+0	1.104492E+0	1.030162E+0	9.228707E-1	1.081685E+0	1.139707E+0	1.047183E+0	9.745741E-1	1.103765E+0	1.134986E+0	9.679191E-1	1.020043E+0	1.070130E+0	1.106831E+0	9.493123E-1	1.009104E+0	1.137891E+0	1.068808E+0	9.689818E-1	9.152315E-1	1.094485E+0	1.088995E+0	1.056983E+0	9.251052E-1	1.074181E+0	1.041217E+0	1.061787E+0	1.029567E+0	1.085624E+0	1.014489E+0	9.505363E-1	9.376642E-1	1.102699E+0	1.060088E+0	9.450593E-1	8.864357E-1	1.072784E+0	1.074799E+0	1.065240E+0	9.468783E-1	1.078019E+0	9.394523E-1	1.018032E+0	9.957038E-1	1.128732E+0	9.661804E-1	9.239584E-1	9.706995E-1	1.118572E+0	9.488864E-1	8.596770E-1	9.335167E-1	1.077728E+0	1.004053E+0	9.919198E-1	9.611569E-1	1.130672E+0	9.806721E-1	9.785461E-1	1.018476E+0	1.099715E+0	9.247218E-1	9.674551E-1	1.012819E+0	1.083131E+0	9.429727E-1	9.630704E-1	9.607349E-1	1.019101E+0	9.890178E-1	1.041996E+0	9.294039E-1	1.062882E+0	9.957810E-1	1.021543E+0	1.020093E+0	1.129625E+0	8.993662E-1	9.414165E-1	1.016221E+0	1.159996E+0	9.103465E-1	9.365668E-1	9.283323E-1	1.112118E+0	1.003366E+0	1.009094E+0	9.475845E-1	1.078403E+0	1.085639E+0	9.908166E-1	1.016408E+0	1.119998E+0	1.025172E+0	8.934344E-1	1.025882E+0	1.144967E+0	9.768399E-1	8.803656E-1	9.255790E-1	1.106786E+0	1.076068E+0	1.062433E+0	9.242500E-1	1.034380E+0	1.015015E+0	1.051832E+0	9.991103E-1	1.081616E+0	9.637839E-1	9.845146E-1	1.044421E+0	1.125964E+0	9.384595E-1	9.672605E-1	9.579985E-1	1.089948E+0	1.058591E+0	1.100059E+0	1.001402E+0	1.052773E+0	1.022445E+0	1.011075E+0	1.058281E+0	1.129285E+0	9.226553E-1	9.532857E-1	1.009130E+0	1.128279E+0	9.955549E-1	9.699162E-1	9.310824E-1	1.026118E+0	1.024632E+0	1.034947E+0	8.661884E-1	1.097294E+0	1.020342E+0	1.006579E+0	1.005134E+0	1.093823E+0	9.707697E-1	8.959987E-1	8.638352E-1	1.122779E+0	9.094418E-1	8.978277E-1	9.680313E-1	1.028389E+0	1.054481E+0	9.913581E-1	1.015761E+0	1.069167E+0	9.788800E-1	1.048702E+0	1.140396E+0
5.427710E+2	9.868545E-1	1.089419E+0	1.064964E+0	9.693729E-1	1.098031E+0	9.944239E-1	1.046186E+0	8.731412E-1	1.009247E+0	1.035945E+0	1.019166E+0	9.121444E-1	8.568239E-1	1.099238E+0	1.104904E+0	1.037108E+0	9.530298E-1	1.062076E+0	1.049995E+0	1.050861E+0	1.045961E+0	1.052672E+0	1.066523E+0	9.043956E-1	9.940127E-1	1.057925E+0	1.013690E+0	9.247916E-1	9.223354E-1	1.107464E+0	1.065500E+0	1.059661E+0	8.418710E-1	1.025299E+0	1.076882E+0	9.572103E-1	9.984591E-1	1.082298E+0	1.066840E+0	9.341743E-1	9.237744E-1	1.040568E+0	1.067044E+0	9.142993E-1	8.904279E-1	1.087457E+0	1.026708E+0	1.038070E+0	9.265443E-1	1.050228E+0	1.011410E+0	1.038741E+0	1.015531E+0	1.078744E+0	1.049678E+0	8.670598E-1	9.303802E-1	1.092956E+0	9.912643E-1	9.010171E-1	9.223120E-1	1.105810E+0	1.016625E+0	1.055912E+0	8.923258E-1	1.084451E+0	9.702143E-1	1.019796E+0	9.968462E-1	1.037374E+0	8.952337E-1	9.245595E-1	1.021964E+0	1.095569E+0	9.429730E-1	8.864223E-1	9.279625E-1	1.024219E+0	9.981550E-1	9.817945E-1	9.073482E-1	1.080876E+0	9.570004E-1	9.945227E-1	1.014352E+0	1.058204E+0	9.097707E-1	9.648814E-1	9.978842E-1	1.069061E+0	8.490938E-1	9.799145E-1	9.203517E-1	1.088496E+0	9.488316E-1	1.030373E+0	9.960459E-1	1.008373E+0	1.111926E+0	9.792914E-1	1.025966E+0	1.067658E+0	9.442122E-1	8.916297E-1	9.525632E-1	1.052302E+0	9.783589E-1	8.574370E-1	9.770899E-1	1.083903E+0	1.019947E+0	1.006219E+0	9.442208E-1	1.023260E+0	1.001751E+0	9.796166E-1	1.012699E+0	1.070846E+0	9.145110E-1	9.072527E-1	9.911496E-1	1.091611E+0	9.081742E-1	9.871351E-1	1.033456E+0	1.067418E+0	9.748641E-1	1.022531E+0	1.007713E+0	1.044026E+0	1.071416E+0	1.042823E+0	1.037758E+0	1.070125E+0	9.900521E-1	9.066466E-1	9.524028E-1	1.031405E+0	9.333193E-1	9.636737E-1	8.963469E-1	1.049492E+0	1.017052E+0	9.986811E-1	7.990205E-1	1.061310E+0	1.027123E+0	9.736816E-1	1.033238E+0	1.050893E+0	9.081457E-1	8.902557E-1	8.456677E-1	1.093280E+0	9.057713E-1	8.636753E-1	9.267136E-1	1.063158E+0	1.065429E+0	1.006325E+0	9.987429E-1	1.033810E+0	1.029693E+0	1.071378E+0	1.025729E+0
5.430170E+2	1.054357E+0	1.070490E+0	1.050003E+0	1.015314E+0	1.031926E+0	1.058361E+0	1.080806E+0	9.414848E-1	9.911020E-1	1.091981E+0	1.084494E+0	9.625094E-1	9.038302E-1	1.090462E+0	1.083234E+0	1.029049E+0	9.454258E-1	1.065002E+0	1.112131E+0	1.003912E+0	1.048975E+0	1.075546E+0	1.068412E+0	9.043956E-1	9.638317E-1	1.088681E+0	1.116051E+0	9.159535E-1	9.179636E-1	9.991084E-1	1.043430E+0	1.028868E+0	9.543327E-1	1.120006E+0	1.091687E+0	9.835425E-1	1.020176E+0	1.067668E+0	1.085535E+0	9.256905E-1	9.575063E-1	1.126821E+0	1.043392E+0	8.644004E-1	9.337719E-1	1.106133E+0	1.048006E+0	1.033015E+0	9.882235E-1	1.133599E+0	1.091364E+0	9.837538E-1	1.061134E+0	1.073618E+0	1.107284E+0	9.015625E-1	9.317470E-1	1.129440E+0	1.084942E+0	8.931768E-1	9.022642E-1	1.062349E+0	1.000083E+0	1.017130E+0	9.404409E-1	1.102169E+0	1.068815E+0	1.019060E+0	9.896348E-1	1.050095E+0	1.053816E+0	9.460076E-1	1.033721E+0	1.030110E+0	1.016676E+0	9.581925E-1	9.100308E-1	1.055658E+0	1.099366E+0	1.016102E+0	9.360879E-1	1.097305E+0	9.713638E-1	1.014240E+0	1.060914E+0	1.079910E+0	9.539916E-1	9.648819E-1	1.009169E+0	1.138600E+0	9.438214E-1	9.447877E-1	8.945697E-1	1.080158E+0	9.683560E-1	1.026254E+0	9.522965E-1	1.091344E+0	1.049494E+0	1.010985E+0	1.027877E+0	1.070211E+0	9.952376E-1	8.495148E-1	9.627466E-1	1.072261E+0	1.040625E+0	8.411657E-1	9.040157E-1	1.106092E+0	1.017919E+0	9.474203E-1	9.593705E-1	1.043275E+0	9.752195E-1	1.045620E+0	1.039230E+0	1.103831E+0	8.849467E-1	9.358935E-1	9.978924E-1	1.092428E+0	9.673372E-1	9.409971E-1	9.779916E-1	1.068826E+0	1.066463E+0	1.038037E+0	9.824706E-1	1.092525E+0	1.054276E+0	1.051682E+0	1.099326E+0	1.100045E+0	9.542025E-1	9.030591E-1	9.524027E-1	1.102288E+0	9.688824E-1	9.331567E-1	9.216091E-1	1.085615E+0	1.060459E+0	1.007913E+0	8.598919E-1	1.113721E+0	1.008287E+0	9.926891E-1	1.034679E+0	1.061972E+0	9.347941E-1	8.564400E-1	8.558416E-1	1.144305E+0	8.756771E-1	9.038993E-1	9.210140E-1	1.074255E+0	1.041481E+0	9.885078E-1	9.995166E-1	9.551405E-1	9.826924E-1	1.075502E+0	9.992640E-1
5.432860E+2	1.182967E+0	1.278706E+0	1.125598E+0	1.130165E+0	1.220475E+0	1.228612E+0	1.182000E+0	1.068619E+0	1.114629E+0	1.224699E+0	1.242484E+0	1.046699E+0	1.022239E+0	1.236282E+0	1.251343E+0	1.192928E+0	1.094971E+0	1.293926E+0	1.224977E+0	1.115023E+0	1.157473E+0	1.211592E+0	1.245385E+0	1.014816E+0	1.129828E+0	1.226745E+0	1.185484E+0	1.112430E+0	1.033267E+0	1.188566E+0	1.252745E+0	1.149360E+0	1.040108E+0	1.221587E+0	1.208776E+0	1.151317E+0	1.133453E+0	1.257204E+0	1.215161E+0	1.079005E+0	1.077879E+0	1.286902E+0	1.234003E+0	1.050327E+0	1.029584E+0	1.249530E+0	1.216327E+0	1.178978E+0	1.085826E+0	1.234995E+0	1.224620E+0	1.143003E+0	1.123259E+0	1.233190E+0	1.202430E+0	1.043810E+0	1.098493E+0	1.245100E+0	1.249250E+0	1.028599E+0	9.759722E-1	1.231512E+0	1.156239E+0	1.173553E+0	1.054046E+0	1.220035E+0	1.211487E+0	1.184063E+0	1.162086E+0	1.175417E+0	1.181599E+0	1.038353E+0	1.159787E+0	1.234339E+0	1.270214E+0	1.043201E+0	1.041120E+0	1.235518E+0	1.220257E+0	1.168220E+0	1.053719E+0	1.237346E+0	1.209075E+0	1.167597E+0	1.172537E+0	1.289971E+0	1.273940E+0	1.089184E+0	1.147405E+0	1.247875E+0	1.222308E+0	1.091273E+0	1.044352E+0	1.298314E+0	1.218813E+0	1.180006E+0	1.022968E+0	1.212375E+0	1.212146E+0	1.144239E+0	1.133012E+0	1.214463E+0	1.156477E+0	1.035421E+0	1.101916E+0	1.208406E+0	1.058849E+0	1.066751E+0	1.081311E+0	1.242001E+0	1.226853E+0	1.123170E+0	1.113626E+0	1.193026E+0	1.120402E+0	1.192379E+0	1.149882E+0	1.135465E+0	1.039337E+0	1.110398E+0	1.113201E+0	1.202034E+0	1.031431E+0	1.082959E+0	1.075377E+0	1.206125E+0	1.119417E+0	1.194383E+0	1.113593E+0	1.195088E+0	1.236285E+0	1.159476E+0	1.185262E+0	1.244204E+0	1.116241E+0	1.063905E+0	1.093510E+0	1.228302E+0	1.122989E+0	1.002514E+0	1.062444E+0	1.217357E+0	1.143139E+0	1.123305E+0	9.025715E-1	1.224021E+0	1.082876E+0	1.109660E+0	1.144931E+0	1.222613E+0	1.085359E+0	9.853252E-1	9.684794E-1	1.224032E+0	1.101752E+0	1.022294E+0	1.106235E+0	1.157109E+0	1.157798E+0	1.124632E+0	1.148035E+0	1.199987E+0	1.133861E+0	1.108485E+0	1.119815E+0
5.435330E+2	1.337867E+0	1.394645E+0	1.363406E+0	1.289256E+0	1.345174E+0	1.387712E+0	1.364416E+0	1.206041E+0	1.298869E+0	1.332351E+0	1.347811E+0	1.284241E+0	1.174562E+0	1.379399E+0	1.427330E+0	1.342031E+0	1.243880E+0	1.381692E+0	1.372820E+0	1.287950E+0	1.367232E+0	1.372920E+0	1.378905E+0	1.148318E+0	1.248583E+0	1.396246E+0	1.405238E+0	1.197413E+0	1.146926E+0	1.389706E+0	1.336047E+0	1.277214E+0	1.159558E+0	1.391143E+0	1.348745E+0	1.290503E+0	1.354727E+0	1.409498E+0	1.399631E+0	1.135363E+0	1.226030E+0	1.414086E+0	1.359919E+0	1.156276E+0	1.159049E+0	1.371588E+0	1.404571E+0	1.369171E+0	1.211218E+0	1.377700E+0	1.313899E+0	1.242267E+0	1.306332E+0	1.395330E+0	1.397903E+0	1.144895E+0	1.206468E+0	1.376286E+0	1.397200E+0	1.174713E+0	1.160534E+0	1.314420E+0	1.403046E+0	1.313173E+0	1.138916E+0	1.381040E+0	1.378063E+0	1.246675E+0	1.338742E+0	1.322367E+0	1.383432E+0	1.192062E+0	1.262338E+0	1.370488E+0	1.383714E+0	1.142843E+0	1.169737E+0	1.394906E+0	1.383320E+0	1.362417E+0	1.156647E+0	1.347657E+0	1.368509E+0	1.282979E+0	1.318602E+0	1.401305E+0	1.374735E+0	1.200168E+0	1.232746E+0	1.348745E+0	1.376867E+0	1.227295E+0	1.189221E+0	1.388634E+0	1.354142E+0	1.242467E+0	1.197968E+0	1.409527E+0	1.309080E+0	1.275332E+0	1.284028E+0	1.418713E+0	1.397998E+0	1.147928E+0	1.187456E+0	1.377339E+0	1.348917E+0	1.206540E+0	1.101075E+0	1.413274E+0	1.330981E+0	1.298918E+0	1.296113E+0	1.294590E+0	1.342966E+0	1.343023E+0	1.342716E+0	1.352886E+0	1.376367E+0	1.236947E+0	1.264921E+0	1.332905E+0	1.316680E+0	1.228468E+0	1.210167E+0	1.274423E+0	1.369166E+0	1.348792E+0	1.271362E+0	1.335017E+0	1.379934E+0	1.228879E+0	1.331484E+0	1.317645E+0	1.269675E+0	1.151800E+0	1.272909E+0	1.388973E+0	1.247460E+0	1.167585E+0	1.136968E+0	1.329979E+0	1.257513E+0	1.298040E+0	1.079587E+0	1.364829E+0	1.261435E+0	1.214203E+0	1.320759E+0	1.392946E+0	1.213940E+0	1.125696E+0	1.119633E+0	1.411390E+0	1.208184E+0	1.134617E+0	1.235888E+0	1.392356E+0	1.341854E+0	1.297817E+0	1.306610E+0	1.435111E+0	1.337114E+0	1.271341E+0	1.407960E+0
5.437640E+2	1.527585E+0	1.641509E+0	1.564993E+0	1.472169E+0	1.530719E+0	1.534915E+0	1.481591E+0	1.339054E+0	1.451711E+0	1.567556E+0	1.574460E+0	1.374445E+0	1.234660E+0	1.571124E+0	1.599382E+0	1.431361E+0	1.387091E+0	1.608420E+0	1.546375E+0	1.525824E+0	1.534798E+0	1.523412E+0	1.559657E+0	1.261858E+0	1.477571E+0	1.556180E+0	1.577032E+0	1.284433E+0	1.326166E+0	1.535691E+0	1.526141E+0	1.493431E+0	1.329837E+0	1.616453E+0	1.525056E+0	1.440222E+0	1.443944E+0	1.536517E+0	1.593447E+0	1.365637E+0	1.309367E+0	1.569049E+0	1.525483E+0	1.263595E+0	1.280525E+0	1.553004E+0	1.458159E+0	1.529031E+0	1.400323E+0	1.595515E+0	1.529774E+0	1.416512E+0	1.427277E+0	1.575409E+0	1.566194E+0	1.308935E+0	1.398500E+0	1.558704E+0	1.514671E+0	1.314412E+0	1.273748E+0	1.470879E+0	1.442748E+0	1.403020E+0	1.364121E+0	1.501218E+0	1.541650E+0	1.447770E+0	1.476943E+0	1.506212E+0	1.516459E+0	1.274878E+0	1.441312E+0	1.531514E+0	1.591555E+0	1.303804E+0	1.291551E+0	1.525047E+0	1.521779E+0	1.533306E+0	1.284973E+0	1.589404E+0	1.597599E+0	1.447291E+0	1.494648E+0	1.516138E+0	1.630303E+0	1.348570E+0	1.427406E+0	1.574933E+0	1.539968E+0	1.349866E+0	1.284988E+0	1.487986E+0	1.531213E+0	1.422989E+0	1.298255E+0	1.518378E+0	1.562915E+0	1.431636E+0	1.462441E+0	1.517005E+0	1.516376E+0	1.342858E+0	1.378219E+0	1.544137E+0	1.538752E+0	1.318225E+0	1.351446E+0	1.573452E+0	1.606184E+0	1.407469E+0	1.372553E+0	1.485114E+0	1.618590E+0	1.489005E+0	1.492841E+0	1.550783E+0	1.592510E+0	1.376153E+0	1.384276E+0	1.584835E+0	1.546993E+0	1.403789E+0	1.337218E+0	1.569444E+0	1.577405E+0	1.440532E+0	1.437546E+0	1.521061E+0	1.537456E+0	1.418626E+0	1.511699E+0	1.535923E+0	1.534243E+0	1.291720E+0	1.462235E+0	1.503170E+0	1.517146E+0	1.293124E+0	1.320114E+0	1.519801E+0	1.503483E+0	1.430576E+0	1.169845E+0	1.546312E+0	1.480681E+0	1.373575E+0	1.474966E+0	1.570898E+0	1.507741E+0	1.282656E+0	1.259158E+0	1.601140E+0	1.467289E+0	1.297790E+0	1.325650E+0	1.509237E+0	1.486225E+0	1.437506E+0	1.517784E+0	1.503172E+0	1.420956E+0	1.425951E+0	1.413839E+0
5.440220E+2	1.568085E+0	1.781109E+0	1.667362E+0	1.612543E+0	1.640392E+0	1.588445E+0	1.618071E+0	1.476477E+0	1.511029E+0	1.647926E+0	1.687785E+0	1.485695E+0	1.363778E+0	1.696692E+0	1.646004E+0	1.527404E+0	1.449188E+0	1.691799E+0	1.677073E+0	1.557903E+0	1.555293E+0	1.666080E+0	1.625156E+0	1.395986E+0	1.514311E+0	1.678523E+0	1.709459E+0	1.394569E+0	1.405402E+0	1.649888E+0	1.723350E+0	1.605892E+0	1.368595E+0	1.659988E+0	1.690595E+0	1.570377E+0	1.575417E+0	1.677506E+0	1.660754E+0	1.410479E+0	1.452888E+0	1.672846E+0	1.615920E+0	1.485751E+0	1.380900E+0	1.693741E+0	1.634724E+0	1.599802E+0	1.528425E+0	1.701416E+0	1.660365E+0	1.578616E+0	1.542936E+0	1.666414E+0	1.606971E+0	1.425154E+0	1.443602E+0	1.689111E+0	1.588275E+0	1.352187E+0	1.380480E+0	1.660097E+0	1.555896E+0	1.558799E+0	1.380161E+0	1.668389E+0	1.637263E+0	1.525117E+0	1.525614E+0	1.638532E+0	1.597062E+0	1.455397E+0	1.548436E+0	1.654573E+0	1.683683E+0	1.463367E+0	1.465308E+0	1.644222E+0	1.644079E+0	1.581209E+0	1.365844E+0	1.625393E+0	1.643561E+0	1.549525E+0	1.509318E+0	1.618364E+0	1.744108E+0	1.473504E+0	1.519798E+0	1.629955E+0	1.656777E+0	1.456740E+0	1.404076E+0	1.629021E+0	1.597191E+0	1.557521E+0	1.395850E+0	1.563289E+0	1.722282E+0	1.452526E+0	1.547186E+0	1.679129E+0	1.659247E+0	1.332030E+0	1.545222E+0	1.613992E+0	1.610133E+0	1.432867E+0	1.408948E+0	1.612283E+0	1.658922E+0	1.516668E+0	1.475849E+0	1.509579E+0	1.661335E+0	1.600822E+0	1.564024E+0	1.601944E+0	1.666093E+0	1.472729E+0	1.585898E+0	1.624915E+0	1.649824E+0	1.442121E+0	1.457176E+0	1.624361E+0	1.642525E+0	1.566514E+0	1.565860E+0	1.685642E+0	1.606014E+0	1.579580E+0	1.626496E+0	1.620246E+0	1.679074E+0	1.387989E+0	1.444509E+0	1.612647E+0	1.599387E+0	1.395079E+0	1.424322E+0	1.582130E+0	1.683997E+0	1.559818E+0	1.242609E+0	1.631581E+0	1.647186E+0	1.482506E+0	1.499466E+0	1.593059E+0	1.650977E+0	1.370705E+0	1.340546E+0	1.621068E+0	1.600148E+0	1.418461E+0	1.532243E+0	1.626866E+0	1.635380E+0	1.486681E+0	1.523199E+0	1.562396E+0	1.662319E+0	1.683637E+0	1.613777E+0
5.442750E+2	1.688170E+0	1.723534E+0	1.668147E+0	1.591275E+0	1.711008E+0	1.669479E+0	1.590109E+0	1.430913E+0	1.544528E+0	1.667833E+0	1.709117E+0	1.572144E+0	1.379248E+0	1.654158E+0	1.681466E+0	1.641585E+0	1.457426E+0	1.642065E+0	1.671361E+0	1.571206E+0	1.598088E+0	1.661865E+0	1.621376E+0	1.348572E+0	1.520218E+0	1.643664E+0	1.666510E+0	1.408166E+0	1.395564E+0	1.670649E+0	1.642900E+0	1.599195E+0	1.423875E+0	1.706578E+0	1.667040E+0	1.483105E+0	1.537266E+0	1.728048E+0	1.655142E+0	1.450474E+0	1.470746E+0	1.661149E+0	1.708443E+0	1.465243E+0	1.367213E+0	1.673729E+0	1.704801E+0	1.601065E+0	1.468102E+0	1.732213E+0	1.656370E+0	1.495064E+0	1.592502E+0	1.734343E+0	1.700178E+0	1.414258E+0	1.453852E+0	1.699204E+0	1.595709E+0	1.387113E+0	1.388145E+0	1.743679E+0	1.588316E+0	1.563968E+0	1.434957E+0	1.641422E+0	1.652948E+0	1.575945E+0	1.552651E+0	1.669067E+0	1.630482E+0	1.417265E+0	1.556274E+0	1.674213E+0	1.663048E+0	1.461974E+0	1.372552E+0	1.675660E+0	1.641268E+0	1.602573E+0	1.472782E+0	1.646516E+0	1.610526E+0	1.471389E+0	1.622217E+0	1.679986E+0	1.671923E+0	1.458921E+0	1.525441E+0	1.718597E+0	1.619740E+0	1.465707E+0	1.402846E+0	1.740186E+0	1.640282E+0	1.536244E+0	1.459115E+0	1.577752E+0	1.728856E+0	1.504387E+0	1.619188E+0	1.697000E+0	1.612985E+0	1.439725E+0	1.427777E+0	1.599735E+0	1.691381E+0	1.370739E+0	1.441892E+0	1.626152E+0	1.693407E+0	1.531527E+0	1.395278E+0	1.544420E+0	1.609747E+0	1.653623E+0	1.587964E+0	1.627522E+0	1.729819E+0	1.486716E+0	1.572411E+0	1.671533E+0	1.701242E+0	1.449218E+0	1.500384E+0	1.622954E+0	1.688328E+0	1.618203E+0	1.537114E+0	1.562405E+0	1.639482E+0	1.557430E+0	1.624572E+0	1.654926E+0	1.638203E+0	1.413701E+0	1.463651E+0	1.677229E+0	1.636433E+0	1.393691E+0	1.457163E+0	1.652254E+0	1.661261E+0	1.580255E+0	1.276195E+0	1.686340E+0	1.642662E+0	1.477388E+0	1.536216E+0	1.557743E+0	1.674290E+0	1.352839E+0	1.332556E+0	1.617879E+0	1.595008E+0	1.417702E+0	1.426097E+0	1.644618E+0	1.639490E+0	1.438932E+0	1.540990E+0	1.620734E+0	1.626750E+0	1.543457E+0	1.593195E+0
5.445130E+2	1.590824E+0	1.677000E+0	1.659488E+0	1.507901E+0	1.617106E+0	1.618183E+0	1.644033E+0	1.527182E+0	1.510329E+0	1.655299E+0	1.645123E+0	1.539069E+0	1.333431E+0	1.663613E+0	1.624993E+0	1.610688E+0	1.478334E+0	1.634753E+0	1.597795E+0	1.501565E+0	1.529373E+0	1.611900E+0	1.627046E+0	1.390368E+0	1.528746E+0	1.683307E+0	1.669372E+0	1.345619E+0	1.385181E+0	1.621334E+0	1.541803E+0	1.571753E+0	1.401638E+0	1.651588E+0	1.615228E+0	1.535017E+0	1.529634E+0	1.636939E+0	1.638939E+0	1.426237E+0	1.455533E+0	1.661148E+0	1.659746E+0	1.351088E+0	1.327860E+0	1.637043E+0	1.576326E+0	1.625707E+0	1.451155E+0	1.609786E+0	1.699673E+0	1.499350E+0	1.568048E+0	1.653592E+0	1.658753E+0	1.354333E+0	1.484607E+0	1.610714E+0	1.591989E+0	1.349335E+0	1.359839E+0	1.650737E+0	1.591626E+0	1.562030E+0	1.422929E+0	1.628328E+0	1.569290E+0	1.578892E+0	1.572479E+0	1.594000E+0	1.618031E+0	1.412500E+0	1.476584E+0	1.673555E+0	1.589344E+0	1.436891E+0	1.413364E+0	1.593775E+0	1.652514E+0	1.565673E+0	1.388567E+0	1.631653E+0	1.644283E+0	1.584584E+0	1.550140E+0	1.586857E+0	1.664771E+0	1.405644E+0	1.532493E+0	1.597859E+0	1.675294E+0	1.402929E+0	1.377064E+0	1.614431E+0	1.626815E+0	1.554777E+0	1.394502E+0	1.564810E+0	1.642601E+0	1.487817E+0	1.570127E+0	1.658066E+0	1.600739E+0	1.329023E+0	1.510603E+0	1.596884E+0	1.616965E+0	1.381093E+0	1.347852E+0	1.545022E+0	1.658246E+0	1.515373E+0	1.522677E+0	1.510317E+0	1.573638E+0	1.571312E+0	1.607379E+0	1.645024E+0	1.648351E+0	1.473394E+0	1.488795E+0	1.634728E+0	1.639964E+0	1.420827E+0	1.507479E+0	1.598309E+0	1.706931E+0	1.538735E+0	1.457878E+0	1.560021E+0	1.623160E+0	1.499841E+0	1.654070E+0	1.600524E+0	1.663302E+0	1.368855E+0	1.421818E+0	1.599254E+0	1.631245E+0	1.408255E+0	1.381376E+0	1.603381E+0	1.601320E+0	1.556516E+0	1.246108E+0	1.630017E+0	1.619312E+0	1.407205E+0	1.517482E+0	1.607597E+0	1.599013E+0	1.349012E+0	1.362351E+0	1.616286E+0	1.559775E+0	1.318282E+0	1.458152E+0	1.606152E+0	1.607331E+0	1.446772E+0	1.525521E+0	1.588031E+0	1.521312E+0	1.504289E+0	1.572614E+0
5.447660E+2	1.625641E+0	1.749560E+0	1.622476E+0	1.573406E+0	1.602081E+0	1.633053E+0	1.621397E+0	1.417686E+0	1.457989E+0	1.628756E+0	1.628457E+0	1.573648E+0	1.291781E+0	1.684542E+0	1.644035E+0	1.526063E+0	1.404834E+0	1.542594E+0	1.618509E+0	1.482003E+0	1.555895E+0	1.620931E+0	1.678060E+0	1.377892E+0	1.493974E+0	1.645031E+0	1.597791E+0	1.340859E+0	1.417970E+0	1.566187E+0	1.656426E+0	1.535606E+0	1.341911E+0	1.641659E+0	1.578216E+0	1.534265E+0	1.489724E+0	1.622308E+0	1.647042E+0	1.428660E+0	1.478020E+0	1.581478E+0	1.582527E+0	1.332633E+0	1.381470E+0	1.561677E+0	1.630603E+0	1.562523E+0	1.392867E+0	1.600022E+0	1.703676E+0	1.450075E+0	1.556813E+0	1.649748E+0	1.608266E+0	1.386414E+0	1.416267E+0	1.738016E+0	1.560022E+0	1.330805E+0	1.284364E+0	1.646728E+0	1.553249E+0	1.509672E+0	1.374147E+0	1.585956E+0	1.574515E+0	1.589939E+0	1.484754E+0	1.574917E+0	1.670455E+0	1.376753E+0	1.488994E+0	1.634935E+0	1.621773E+0	1.372087E+0	1.359570E+0	1.620096E+0	1.603313E+0	1.526837E+0	1.387901E+0	1.619916E+0	1.520759E+0	1.468468E+0	1.576292E+0	1.610663E+0	1.635509E+0	1.429110E+0	1.487356E+0	1.633011E+0	1.642531E+0	1.438800E+0	1.350669E+0	1.640833E+0	1.556122E+0	1.501238E+0	1.403251E+0	1.579273E+0	1.617954E+0	1.489980E+0	1.549734E+0	1.610834E+0	1.578286E+0	1.319997E+0	1.420310E+0	1.631812E+0	1.607095E+0	1.352247E+0	1.355040E+0	1.634471E+0	1.619704E+0	1.514083E+0	1.423511E+0	1.491785E+0	1.614908E+0	1.479685E+0	1.463721E+0	1.695508E+0	1.623387E+0	1.413453E+0	1.447663E+0	1.600375E+0	1.580800E+0	1.433603E+0	1.409453E+0	1.546909E+0	1.605319E+0	1.532274E+0	1.496447E+0	1.572740E+0	1.579901E+0	1.511656E+0	1.542482E+0	1.604603E+0	1.580845E+0	1.388587E+0	1.439544E+0	1.660690E+0	1.640876E+0	1.334042E+0	1.332115E+0	1.596294E+0	1.608896E+0	1.513002E+0	1.301383E+0	1.565871E+0	1.562051E+0	1.489087E+0	1.520361E+0	1.566744E+0	1.637647E+0	1.329231E+0	1.279508E+0	1.573234E+0	1.544361E+0	1.374442E+0	1.476675E+0	1.602452E+0	1.587486E+0	1.465300E+0	1.513143E+0	1.552674E+0	1.518772E+0	1.547581E+0	1.446183E+0
5.450090E+2	1.564536E+0	1.775586E+0	1.689408E+0	1.576810E+0	1.644150E+0	1.672455E+0	1.628059E+0	1.380942E+0	1.500562E+0	1.690688E+0	1.615123E+0	1.538317E+0	1.391742E+0	1.619734E+0	1.683437E+0	1.608675E+0	1.432712E+0	1.593063E+0	1.612796E+0	1.552427E+0	1.561321E+0	1.561338E+0	1.638382E+0	1.349821E+0	1.469038E+0	1.621109E+0	1.637160E+0	1.398650E+0	1.400481E+0	1.587601E+0	1.592350E+0	1.551669E+0	1.402907E+0	1.664574E+0	1.597059E+0	1.551570E+0	1.532569E+0	1.664870E+0	1.680074E+0	1.388060E+0	1.415848E+0	1.652377E+0	1.661141E+0	1.442002E+0	1.360371E+0	1.639049E+0	1.588693E+0	1.518920E+0	1.426757E+0	1.662362E+0	1.625054E+0	1.539337E+0	1.583253E+0	1.653593E+0	1.622508E+0	1.412442E+0	1.419685E+0	1.681352E+0	1.611322E+0	1.401367E+0	1.309720E+0	1.613294E+0	1.588977E+0	1.530357E+0	1.462357E+0	1.592891E+0	1.623818E+0	1.563419E+0	1.530419E+0	1.635351E+0	1.632448E+0	1.335047E+0	1.549085E+0	1.602207E+0	1.621038E+0	1.402746E+0	1.438717E+0	1.628139E+0	1.656733E+0	1.565026E+0	1.382554E+0	1.649646E+0	1.690962E+0	1.499139E+0	1.553967E+0	1.687683E+0	1.664120E+0	1.387888E+0	1.469017E+0	1.667399E+0	1.606918E+0	1.433568E+0	1.384431E+0	1.517164E+0	1.663845E+0	1.548598E+0	1.367581E+0	1.667573E+0	1.666422E+0	1.541841E+0	1.514053E+0	1.685511E+0	1.625911E+0	1.356697E+0	1.496348E+0	1.641077E+0	1.566848E+0	1.387008E+0	1.398165E+0	1.650424E+0	1.685969E+0	1.433314E+0	1.493066E+0	1.528111E+0	1.587638E+0	1.621013E+0	1.564668E+0	1.630888E+0	1.620106E+0	1.442090E+0	1.465194E+0	1.600376E+0	1.617424E+0	1.451348E+0	1.505545E+0	1.625771E+0	1.651831E+0	1.541318E+0	1.482421E+0	1.567175E+0	1.617443E+0	1.600992E+0	1.592508E+0	1.592364E+0	1.588732E+0	1.457347E+0	1.399836E+0	1.686680E+0	1.668290E+0	1.435305E+0	1.376957E+0	1.645169E+0	1.562733E+0	1.548606E+0	1.232116E+0	1.592467E+0	1.650952E+0	1.434254E+0	1.583056E+0	1.604136E+0	1.557038E+0	1.347735E+0	1.320929E+0	1.566857E+0	1.533350E+0	1.380513E+0	1.470978E+0	1.550665E+0	1.577910E+0	1.535857E+0	1.520104E+0	1.603057E+0	1.596261E+0	1.603238E+0	1.590254E+0
5.452580E+2	1.443029E+0	1.498754E+0	1.492550E+0	1.429631E+0	1.475131E+0	1.428600E+0	1.470940E+0	1.231027E+0	1.347024E+0	1.429677E+0	1.462468E+0	1.365423E+0	1.203122E+0	1.479988E+0	1.498255E+0	1.409198E+0	1.248316E+0	1.464340E+0	1.478523E+0	1.379500E+0	1.418467E+0	1.489702E+0	1.494788E+0	1.313636E+0	1.332569E+0	1.489198E+0	1.481115E+0	1.264718E+0	1.220697E+0	1.540882E+0	1.477726E+0	1.405740E+0	1.264395E+0	1.490434E+0	1.471894E+0	1.400347E+0	1.446878E+0	1.537186E+0	1.490616E+0	1.245653E+0	1.291510E+0	1.482794E+0	1.489311E+0	1.279317E+0	1.228056E+0	1.458964E+0	1.480831E+0	1.390653E+0	1.281708E+0	1.391220E+0	1.504456E+0	1.340816E+0	1.367795E+0	1.469028E+0	1.422502E+0	1.250220E+0	1.304192E+0	1.529983E+0	1.487161E+0	1.271645E+0	1.218911E+0	1.502304E+0	1.396428E+0	1.344197E+0	1.271901E+0	1.508922E+0	1.497579E+0	1.318126E+0	1.360372E+0	1.489040E+0	1.493520E+0	1.284410E+0	1.379911E+0	1.439216E+0	1.479527E+0	1.226458E+0	1.269909E+0	1.527241E+0	1.488747E+0	1.381189E+0	1.272941E+0	1.443105E+0	1.429551E+0	1.368421E+0	1.439155E+0	1.455217E+0	1.493741E+0	1.267391E+0	1.381559E+0	1.479417E+0	1.413903E+0	1.281104E+0	1.211322E+0	1.446992E+0	1.452438E+0	1.411321E+0	1.267293E+0	1.430840E+0	1.474197E+0	1.317108E+0	1.350932E+0	1.466583E+0	1.412284E+0	1.216514E+0	1.385011E+0	1.435078E+0	1.501545E+0	1.335235E+0	1.228060E+0	1.491631E+0	1.425646E+0	1.405531E+0	1.304377E+0	1.390964E+0	1.452776E+0	1.439308E+0	1.459192E+0	1.472703E+0	1.482138E+0	1.306216E+0	1.350562E+0	1.500586E+0	1.480086E+0	1.334230E+0	1.324319E+0	1.446223E+0	1.439295E+0	1.403707E+0	1.375839E+0	1.434400E+0	1.513789E+0	1.394999E+0	1.461031E+0	1.500564E+0	1.517035E+0	1.224153E+0	1.286381E+0	1.459853E+0	1.490472E+0	1.211974E+0	1.346008E+0	1.422056E+0	1.473857E+0	1.404203E+0	1.153752E+0	1.443055E+0	1.477669E+0	1.347258E+0	1.389934E+0	1.415798E+0	1.413803E+0	1.216935E+0	1.221370E+0	1.417768E+0	1.358657E+0	1.217341E+0	1.340611E+0	1.448579E+0	1.432170E+0	1.342005E+0	1.412583E+0	1.402406E+0	1.451444E+0	1.425951E+0	1.472644E+0
5.455130E+2	1.458661E+0	1.560272E+0	1.476009E+0	1.480676E+0	1.560768E+0	1.491795E+0	1.470940E+0	1.437527E+0	1.356794E+0	1.471705E+0	1.464469E+0	1.435335E+0	1.273930E+0	1.560998E+0	1.516640E+0	1.465616E+0	1.293940E+0	1.494325E+0	1.470667E+0	1.402190E+0	1.423890E+0	1.512574E+0	1.454480E+0	1.298664E+0	1.363407E+0	1.435205E+0	1.498294E+0	1.295991E+0	1.279167E+0	1.499359E+0	1.494814E+0	1.387666E+0	1.263124E+0	1.485848E+0	1.510922E+0	1.438714E+0	1.420465E+0	1.485975E+0	1.481893E+0	1.318370E+0	1.278280E+0	1.552968E+0	1.480960E+0	1.292987E+0	1.223495E+0	1.545003E+0	1.525488E+0	1.449417E+0	1.343388E+0	1.518152E+0	1.507789E+0	1.352240E+0	1.413397E+0	1.533753E+0	1.495645E+0	1.302276E+0	1.358180E+0	1.491947E+0	1.420992E+0	1.223893E+0	1.261956E+0	1.521696E+0	1.493034E+0	1.394615E+0	1.292616E+0	1.498135E+0	1.431096E+0	1.352747E+0	1.374192E+0	1.453412E+0	1.481726E+0	1.288577E+0	1.367501E+0	1.456238E+0	1.489845E+0	1.267569E+0	1.339784E+0	1.447548E+0	1.553414E+0	1.445274E+0	1.259574E+0	1.450928E+0	1.520036E+0	1.367691E+0	1.456378E+0	1.486726E+0	1.551621E+0	1.273733E+0	1.383678E+0	1.496993E+0	1.544956E+0	1.275127E+0	1.223598E+0	1.494237E+0	1.517074E+0	1.432598E+0	1.334601E+0	1.429317E+0	1.571132E+0	1.317830E+0	1.359853E+0	1.507432E+0	1.486443E+0	1.226143E+0	1.372109E+0	1.470718E+0	1.470411E+0	1.268668E+0	1.287953E+0	1.464587E+0	1.523691E+0	1.342855E+0	1.314017E+0	1.416908E+0	1.503626E+0	1.464932E+0	1.395779E+0	1.519822E+0	1.472939E+0	1.358836E+0	1.365397E+0	1.507130E+0	1.469520E+0	1.326420E+0	1.337220E+0	1.453267E+0	1.537333E+0	1.417275E+0	1.346389E+0	1.459049E+0	1.481957E+0	1.392047E+0	1.471296E+0	1.498524E+0	1.483338E+0	1.258834E+0	1.330345E+0	1.393698E+0	1.476399E+0	1.253591E+0	1.229803E+0	1.448970E+0	1.523464E+0	1.393654E+0	1.174742E+0	1.486081E+0	1.507803E+0	1.353838E+0	1.435335E+0	1.493348E+0	1.488416E+0	1.245009E+0	1.160327E+0	1.523802E+0	1.368199E+0	1.250735E+0	1.383356E+0	1.518118E+0	1.489644E+0	1.424676E+0	1.393245E+0	1.468700E+0	1.474310E+0	1.485734E+0	1.478525E+0
5.457670E+2	1.391160E+0	1.462474E+0	1.446876E+0	1.433884E+0	1.449588E+0	1.340131E+0	1.375072E+0	1.420624E+0	1.246529E+0	1.433365E+0	1.409136E+0	1.451871E+0	1.140053E+0	1.436108E+0	1.451631E+0	1.410542E+0	1.247051E+0	1.405827E+0	1.399958E+0	1.390453E+0	1.314188E+0	1.404225E+0	1.403469E+0	1.355436E+0	1.329288E+0	1.424951E+0	1.417409E+0	1.428561E+0	1.181900E+0	1.376730E+0	1.455654E+0	1.416452E+0	1.175441E+0	1.397255E+0	1.401235E+0	1.334892E+0	1.328906E+0	1.446736E+0	1.441386E+0	1.248077E+0	1.248518E+0	1.385578E+0	1.441310E+0	1.297086E+0	1.171593E+0	1.412943E+0	1.353730E+0	1.395709E+0	1.254597E+0	1.413002E+0	1.341219E+0	1.307251E+0	1.368457E+0	1.409426E+0	1.396610E+0	1.115840E+0	1.252254E+0	1.450030E+0	1.374898E+0	1.169011E+0	1.135180E+0	1.390643E+0	1.352758E+0	1.308647E+0	1.190371E+0	1.353308E+0	1.440063E+0	1.357168E+0	1.334532E+0	1.343362E+0	1.358532E+0	1.148571E+0	1.347907E+0	1.392743E+0	1.399928E+0	1.202069E+0	1.261250E+0	1.399294E+0	1.339041E+0	1.345585E+0	1.218135E+0	1.445450E+0	1.380714E+0	1.323146E+0	1.349855E+0	1.359990E+0	1.420258E+0	1.193825E+0	1.310328E+0	1.378545E+0	1.398945E+0	1.266159E+0	1.155461E+0	1.445604E+0	1.374338E+0	1.293948E+0	1.169699E+0	1.408002E+0	1.445446E+0	1.258767E+0	1.345835E+0	1.385521E+0	1.370105E+0	1.170188E+0	1.249912E+0	1.464303E+0	1.362585E+0	1.189529E+0	1.138214E+0	1.416741E+0	1.423617E+0	1.309906E+0	1.300934E+0	1.370208E+0	1.427719E+0	1.388836E+0	1.354366E+0	1.365002E+0	1.442064E+0	1.269583E+0	1.281105E+0	1.399159E+0	1.360350E+0	1.151809E+0	1.221130E+0	1.483542E+0	1.397072E+0	1.381745E+0	1.316938E+0	1.394648E+0	1.426456E+0	1.341104E+0	1.318658E+0	1.455684E+0	1.418091E+0	1.205018E+0	1.221855E+0	1.402359E+0	1.381564E+0	1.194634E+0	1.143282E+0	1.375309E+0	1.362237E+0	1.374530E+0	1.274794E+0	1.375781E+0	1.489718E+0	1.282925E+0	1.402185E+0	1.399179E+0	1.474427E+0	1.125695E+0	1.163234E+0	1.350798E+0	1.382147E+0	1.166493E+0	1.215230E+0	1.313202E+0	1.370590E+0	1.286413E+0	1.339871E+0	1.363513E+0	1.398090E+0	1.316694E+0	1.357977E+0
5.460060E+2	1.320814E+0	1.407264E+0	1.284662E+0	1.382839E+0	1.318131E+0	1.381764E+0	1.291850E+0	1.348607E+0	1.230477E+0	1.340460E+0	1.343143E+0	1.338363E+0	1.074601E+0	1.357121E+0	1.356410E+0	1.337332E+0	1.174177E+0	1.340003E+0	1.369964E+0	1.292644E+0	1.234023E+0	1.327771E+0	1.331669E+0	1.311767E+0	1.239399E+0	1.311494E+0	1.277825E+0	1.356495E+0	1.164961E+0	1.329364E+0	1.336045E+0	1.324074E+0	1.107457E+0	1.343026E+0	1.326541E+0	1.409372E+0	1.280187E+0	1.333683E+0	1.376573E+0	1.306858E+0	1.178411E+0	1.350494E+0	1.383571E+0	1.396202E+0	1.075210E+0	1.330904E+0	1.344114E+0	1.379278E+0	1.095315E+0	1.343901E+0	1.299242E+0	1.272258E+0	1.314923E+0	1.342779E+0	1.321529E+0	1.299250E+0	1.185968E+0	1.409664E+0	1.311701E+0	1.220330E+0	1.087417E+0	1.315759E+0	1.279974E+0	1.273097E+0	1.211088E+0	1.371797E+0	1.351173E+0	1.237834E+0	1.288870E+0	1.294377E+0	1.343457E+0	1.115803E+0	1.260377E+0	1.314194E+0	1.258419E+0	1.139359E+0	1.175300E+0	1.297664E+0	1.282810E+0	1.318399E+0	1.115209E+0	1.316363E+0	1.341217E+0	1.275678E+0	1.226114E+0	1.321481E+0	1.355224E+0	1.155773E+0	1.198891E+0	1.336519E+0	1.340542E+0	1.152558E+0	1.137658E+0	1.263575E+0	1.288832E+0	1.218444E+0	1.155565E+0	1.259569E+0	1.303330E+0	1.216268E+0	1.234328E+0	1.347224E+0	1.329965E+0	1.123864E+0	1.241086E+0	1.344552E+0	1.300320E+0	1.112608E+0	1.137016E+0	1.334918E+0	1.355323E+0	1.200706E+0	1.214167E+0	1.344260E+0	1.291379E+0	1.300315E+0	1.271537E+0	1.338752E+0	1.321178E+0	1.232285E+0	1.214349E+0	1.340266E+0	1.297663E+0	1.197947E+0	1.172760E+0	1.334978E+0	1.424984E+0	1.293878E+0	1.229290E+0	1.273798E+0	1.347286E+0	1.242907E+0	1.285309E+0	1.327164E+0	1.344242E+0	1.144029E+0	1.167255E+0	1.300761E+0	1.332664E+0	1.177295E+0	1.143282E+0	1.290312E+0	1.319522E+0	1.305295E+0	1.231416E+0	1.318675E+0	1.350339E+0	1.235405E+0	1.294817E+0	1.276620E+0	1.381825E+0	1.079756E+0	1.089111E+0	1.349203E+0	1.269107E+0	1.098947E+0	1.186022E+0	1.351669E+0	1.339800E+0	1.261468E+0	1.187485E+0	1.237112E+0	1.232947E+0	1.250728E+0	1.210963E+0
5.467600E+2	1.275339E+0	1.303156E+0	1.321671E+0	1.308824E+0	1.273810E+0	1.334182E+0	1.295180E+0	1.302311E+0	1.185115E+0	1.294748E+0	1.325811E+0	1.296267E+0	1.075194E+0	1.373324E+0	1.293369E+0	1.317854E+0	1.145663E+0	1.342928E+0	1.282113E+0	1.251956E+0	1.244870E+0	1.323558E+0	1.310255E+0	1.288061E+0	1.167882E+0	1.285525E+0	1.246328E+0	1.289191E+0	1.054030E+0	1.267076E+0	1.299737E+0	1.362899E+0	1.112539E+0	1.317821E+0	1.308370E+0	1.328874E+0	1.208583E+0	1.281143E+0	1.250060E+0	1.256559E+0	1.098382E+0	1.306638E+0	1.327221E+0	1.243086E+0	1.052399E+0	1.286217E+0	1.269914E+0	1.335679E+0	1.184106E+0	1.330383E+0	1.335888E+0	1.263690E+0	1.182080E+0	1.279332E+0	1.303405E+0	1.264745E+0	1.117627E+0	1.323501E+0	1.250737E+0	1.234584E+0	1.011941E+0	1.289013E+0	1.223070E+0	1.307353E+0	1.120873E+0	1.292449E+0	1.255560E+0	1.265091E+0	1.231184E+0	1.228219E+0	1.286448E+0	1.268322E+0	1.238822E+0	1.301757E+0	1.282742E+0	1.242486E+0	1.062762E+0	1.274999E+0	1.267349E+0	1.322930E+0	1.094489E+0	1.241258E+0	1.301718E+0	1.175630E+0	1.246526E+0	1.313777E+0	1.322061E+0	1.101232E+0	1.178437E+0	1.298308E+0	1.249373E+0	1.161526E+0	1.049263E+0	1.300395E+0	1.276042E+0	1.294634E+0	1.120564E+0	1.302196E+0	1.281150E+0	1.269569E+0	1.191634E+0	1.283396E+0	1.312278E+0	1.093179E+0	1.165052E+0	1.226939E+0	1.233498E+0	1.150329E+0	1.122041E+0	1.311341E+0	1.320163E+0	1.216212E+0	1.143237E+0	1.243436E+0	1.300961E+0	1.235087E+0	1.250183E+0	1.339424E+0	1.296872E+0	1.104403E+0	1.200862E+0	1.292008E+0	1.223005E+0	1.126256E+0	1.154704E+0	1.248373E+0	1.290448E+0	1.277726E+0	1.221576E+0	1.229275E+0	1.274646E+0	1.224449E+0	1.259658E+0	1.272086E+0	1.283299E+0	1.086031E+0	1.177892E+0	1.267682E+0	1.274131E+0	1.088517E+0	1.100969E+0	1.271896E+0	1.249934E+0	1.201111E+0	1.188736E+0	1.332756E+0	1.252395E+0	1.195195E+0	1.190328E+0	1.255848E+0	1.306543E+0	1.105915E+0	1.100012E+0	1.232802E+0	1.266905E+0	1.115644E+0	1.111934E+0	1.269554E+0	1.301484E+0	1.197328E+0	1.223842E+0	1.312246E+0	1.326951E+0	1.258972E+0	1.246246E+0
5.475280E+2	1.325076E+0	1.374928E+0	1.368131E+0	1.336899E+0	1.339165E+0	1.320055E+0	1.360426E+0	1.323623E+0	1.246528E+0	1.431889E+0	1.405806E+0	1.356404E+0	1.122798E+0	1.330796E+0	1.398437E+0	1.360839E+0	1.153267E+0	1.427767E+0	1.323537E+0	1.415493E+0	1.284049E+0	1.360280E+0	1.335446E+0	1.311141E+0	1.227589E+0	1.350453E+0	1.311465E+0	1.384369E+0	1.156219E+0	1.373482E+0	1.324656E+0	1.405742E+0	1.162733E+0	1.400309E+0	1.396523E+0	1.346178E+0	1.300732E+0	1.367601E+0	1.321107E+0	1.348670E+0	1.157908E+0	1.391426E+0	1.405831E+0	1.324430E+0	1.151065E+0	1.369588E+0	1.323504E+0	1.395708E+0	1.145472E+0	1.343150E+0	1.357876E+0	1.367235E+0	1.228345E+0	1.365851E+0	1.363599E+0	1.352517E+0	1.200316E+0	1.337473E+0	1.265605E+0	1.361453E+0	1.116311E+0	1.352532E+0	1.349450E+0	1.345491E+0	1.121541E+0	1.391826E+0	1.241366E+0	1.339490E+0	1.215562E+0	1.300103E+0	1.384743E+0	1.385095E+0	1.245356E+0	1.324013E+0	1.416882E+0	1.334461E+0	1.150566E+0	1.353963E+0	1.358017E+0	1.350119E+0	1.190733E+0	1.386775E+0	1.359887E+0	1.338480E+0	1.266939E+0	1.364193E+0	1.419608E+0	1.340960E+0	1.241915E+0	1.322762E+0	1.313474E+0	1.381254E+0	1.107579E+0	1.368485E+0	1.362222E+0	1.330327E+0	1.167678E+0	1.314374E+0	1.401907E+0	1.260927E+0	1.254718E+0	1.368289E+0	1.307512E+0	1.216515E+0	1.196281E+0	1.321028E+0	1.335248E+0	1.250918E+0	1.184932E+0	1.360573E+0	1.456074E+0	1.355132E+0	1.218987E+0	1.263453E+0	1.371707E+0	1.283230E+0	1.247594E+0	1.317211E+0	1.352715E+0	1.187659E+0	1.260878E+0	1.329634E+0	1.342741E+0	1.190850E+0	1.134711E+0	1.315262E+0	1.267549E+0	1.247361E+0	1.260843E+0	1.306396E+0	1.394624E+0	1.286468E+0	1.355215E+0	1.413523E+0	1.390129E+0	1.133265E+0	1.205547E+0	1.394484E+0	1.337107E+0	1.135681E+0	1.198860E+0	1.350517E+0	1.354659E+0	1.245291E+0	1.244009E+0	1.385169E+0	1.320957E+0	1.205431E+0	1.270317E+0	1.256539E+0	1.388486E+0	1.078480E+0	1.123266E+0	1.318109E+0	1.316085E+0	1.125510E+0	1.203832E+0	1.288048E+0	1.292589E+0	1.241513E+0	1.241633E+0	1.320200E+0	1.356169E+0	1.312571E+0	1.249186E+0
5.482600E+2	1.449423E+0	1.514529E+0	1.431915E+0	1.423675E+0	1.497667E+0	1.412246E+0	1.460287E+0	1.490441E+0	1.376337E+0	1.432626E+0	1.496467E+0	1.473671E+0	1.138265E+0	1.536694E+0	1.458195E+0	1.432035E+0	1.254655E+0	1.444593E+0	1.433526E+0	1.501567E+0	1.405207E+0	1.440342E+0	1.405987E+0	1.422810E+0	1.396868E+0	1.504235E+0	1.420987E+0	1.473433E+0	1.198296E+0	1.391000E+0	1.431448E+0	1.408416E+0	1.250420E+0	1.491195E+0	1.464488E+0	1.453009E+0	1.355901E+0	1.516566E+0	1.460705E+0	1.551675E+0	1.261744E+0	1.460138E+0	1.478878E+0	1.436531E+0	1.241742E+0	1.442955E+0	1.446478E+0	1.491752E+0	1.322374E+0	1.537679E+0	1.402514E+0	1.461501E+0	1.377045E+0	1.476718E+0	1.518299E+0	1.486289E+0	1.324009E+0	1.459343E+0	1.403892E+0	1.455537E+0	1.190607E+0	1.428086E+0	1.424219E+0	1.432109E+0	1.269898E+0	1.434967E+0	1.484134E+0	1.463978E+0	1.387411E+0	1.438146E+0	1.453550E+0	1.450036E+0	1.276707E+0	1.446417E+0	1.472896E+0	1.445948E+0	1.267435E+0	1.435850E+0	1.441657E+0	1.431682E+0	1.198754E+0	1.432935E+0	1.458277E+0	1.419540E+0	1.426397E+0	1.476224E+0	1.480734E+0	1.483019E+0	1.324433E+0	1.503104E+0	1.436693E+0	1.381253E+0	1.226668E+0	1.451163E+0	1.409348E+0	1.384550E+0	1.247774E+0	1.363094E+0	1.431480E+0	1.505824E+0	1.352207E+0	1.440413E+0	1.429972E+0	1.455365E+0	1.266884E+0	1.435790E+0	1.452189E+0	1.504611E+0	1.262799E+0	1.468055E+0	1.449987E+0	1.519250E+0	1.258929E+0	1.423581E+0	1.502152E+0	1.462602E+0	1.386070E+0	1.474049E+0	1.459802E+0	1.383479E+0	1.345840E+0	1.444965E+0	1.477265E+0	1.343455E+0	1.332057E+0	1.362438E+0	1.470781E+0	1.478652E+0	1.385656E+0	1.416909E+0	1.416661E+0	1.318216E+0	1.377662E+0	1.452965E+0	1.465413E+0	1.196649E+0	1.314745E+0	1.447253E+0	1.427501E+0	1.240411E+0	1.279064E+0	1.422055E+0	1.407023E+0	1.332329E+0	1.260100E+0	1.431322E+0	1.411367E+0	1.334100E+0	1.371920E+0	1.475346E+0	1.451778E+0	1.189500E+0	1.115999E+0	1.443281E+0	1.423251E+0	1.191538E+0	1.259397E+0	1.441918E+0	1.400698E+0	1.268598E+0	1.354570E+0	1.358210E+0	1.450174E+0	1.368231E+0	1.384438E+0
5.490100E+2	1.344973E+0	1.479035E+0	1.346871E+0	1.392197E+0	1.390247E+0	1.391429E+0	1.359089E+0	1.355955E+0	1.305850E+0	1.417879E+0	1.450468E+0	1.381210E+0	1.119225E+0	1.428007E+0	1.321607E+0	1.416584E+0	1.239445E+0	1.410215E+0	1.347108E+0	1.384193E+0	1.299722E+0	1.374724E+0	1.392759E+0	1.338589E+0	1.282047E+0	1.370957E+0	1.419551E+0	1.420401E+0	1.150752E+0	1.409819E+0	1.415785E+0	1.435194E+0	1.234533E+0	1.446136E+0	1.373646E+0	1.422919E+0	1.309535E+0	1.394866E+0	1.397761E+0	1.389878E+0	1.174442E+0	1.373153E+0	1.382179E+0	1.410558E+0	1.165322E+0	1.368920E+0	1.368845E+0	1.393814E+0	1.213928E+0	1.392724E+0	1.383860E+0	1.429365E+0	1.356560E+0	1.454286E+0	1.370720E+0	1.415469E+0	1.182550E+0	1.402678E+0	1.400176E+0	1.342923E+0	1.149331E+0	1.376604E+0	1.366654E+0	1.381689E+0	1.178344E+0	1.387973E+0	1.455749E+0	1.374110E+0	1.294277E+0	1.362446E+0	1.406366E+0	1.414288E+0	1.294997E+0	1.375070E+0	1.326226E+0	1.328887E+0	1.154278E+0	1.364930E+0	1.377698E+0	1.425208E+0	1.204769E+0	1.403988E+0	1.356297E+0	1.342132E+0	1.307759E+0	1.395703E+0	1.416355E+0	1.373939E+0	1.308212E+0	1.380837E+0	1.331281E+0	1.421614E+0	1.227896E+0	1.363621E+0	1.365584E+0	1.391417E+0	1.156235E+0	1.386689E+0	1.411764E+0	1.417232E+0	1.347106E+0	1.360629E+0	1.402758E+0	1.353690E+0	1.246517E+0	1.334573E+0	1.399794E+0	1.426949E+0	1.165165E+0	1.416742E+0	1.424969E+0	1.362887E+0	1.258239E+0	1.252333E+0	1.380551E+0	1.383400E+0	1.323952E+0	1.402026E+0	1.419724E+0	1.376815E+0	1.234578E+0	1.425333E+0	1.307525E+0	1.373269E+0	1.257246E+0	1.340608E+0	1.344833E+0	1.376573E+0	1.260142E+0	1.365230E+0	1.440331E+0	1.320431E+0	1.339182E+0	1.392445E+0	1.394432E+0	1.319821E+0	1.171510E+0	1.355104E+0	1.355631E+0	1.402708E+0	1.187492E+0	1.349810E+0	1.387731E+0	1.419365E+0	1.216023E+0	1.360917E+0	1.363899E+0	1.184230E+0	1.319314E+0	1.347247E+0	1.351843E+0	1.098897E+0	1.114546E+0	1.381890E+0	1.319020E+0	1.147519E+0	1.262960E+0	1.355368E+0	1.376065E+0	1.316348E+0	1.277215E+0	1.331692E+0	1.398090E+0	1.324941E+0	1.255066E+0
5.497520E+2	1.322236E+0	1.375717E+0	1.339783E+0	1.252674E+0	1.264796E+0	1.308906E+0	1.298507E+0	1.335380E+0	1.210938E+0	1.324978E+0	1.337141E+0	1.334605E+0	1.067459E+0	1.367924E+0	1.343936E+0	1.319867E+0	1.123484E+0	1.322449E+0	1.360676E+0	1.313771E+0	1.294300E+0	1.302490E+0	1.293881E+0	1.290553E+0	1.220372E+0	1.270484E+0	1.310035E+0	1.332023E+0	1.046380E+0	1.321578E+0	1.316822E+0	1.304659E+0	1.129060E+0	1.323168E+0	1.298278E+0	1.285236E+0	1.233232E+0	1.348978E+0	1.319858E+0	1.355941E+0	1.133435E+0	1.318330E+0	1.319571E+0	1.345618E+0	1.094599E+0	1.342243E+0	1.320066E+0	1.274391E+0	1.161060E+0	1.289074E+0	1.295910E+0	1.327248E+0	1.211821E+0	1.260107E+0	1.344184E+0	1.324674E+0	1.144963E+0	1.353776E+0	1.311703E+0	1.324390E+0	1.085057E+0	1.304392E+0	1.259462E+0	1.315755E+0	1.145599E+0	1.343294E+0	1.256305E+0	1.279822E+0	1.211957E+0	1.317279E+0	1.312659E+0	1.308834E+0	1.204203E+0	1.303065E+0	1.247365E+0	1.361637E+0	1.136965E+0	1.253795E+0	1.319360E+0	1.279561E+0	1.186724E+0	1.330446E+0	1.309615E+0	1.347243E+0	1.290538E+0	1.340387E+0	1.337018E+0	1.362520E+0	1.214407E+0	1.377781E+0	1.323448E+0	1.287084E+0	1.099599E+0	1.324716E+0	1.331249E+0	1.342682E+0	1.123928E+0	1.379076E+0	1.381370E+0	1.286137E+0	1.246433E+0	1.322331E+0	1.314997E+0	1.336842E+0	1.183383E+0	1.307485E+0	1.285892E+0	1.327099E+0	1.147795E+0	1.300247E+0	1.299201E+0	1.318949E+0	1.228628E+0	1.245662E+0	1.351072E+0	1.296431E+0	1.269596E+0	1.324613E+0	1.317893E+0	1.320204E+0	1.190073E+0	1.350900E+0	1.325837E+0	1.290222E+0	1.183725E+0	1.254004E+0	1.286156E+0	1.290647E+0	1.187920E+0	1.270618E+0	1.274646E+0	1.276868E+0	1.248756E+0	1.325124E+0	1.304807E+0	1.327597E+0	1.245255E+0	1.376370E+0	1.219306E+0	1.293123E+0	1.090232E+0	1.298812E+0	1.355349E+0	1.282873E+0	1.219521E+0	1.273304E+0	1.295340E+0	1.239060E+0	1.272477E+0	1.273851E+0	1.263239E+0	1.281377E+0	1.044056E+0	1.311731E+0	1.283788E+0	1.281852E+0	1.200270E+0	1.251061E+0	1.276854E+0	1.313497E+0	1.291140E+0	1.234460E+0	1.271058E+0	1.339370E+0	1.258008E+0
5.505110E+2	1.367711E+0	1.427771E+0	1.330334E+0	1.291809E+0	1.348930E+0	1.308907E+0	1.322475E+0	1.309660E+0	1.239551E+0	1.320553E+0	1.311144E+0	1.312805E+0	1.094830E+0	1.328094E+0	1.384646E+0	1.349418E+0	1.190655E+0	1.352434E+0	1.305682E+0	1.350548E+0	1.255118E+0	1.310916E+0	1.325371E+0	1.319877E+0	1.212498E+0	1.312861E+0	1.307174E+0	1.367376E+0	1.109770E+0	1.342340E+0	1.320383E+0	1.369592E+0	1.078865E+0	1.361356E+0	1.284817E+0	1.346176E+0	1.236756E+0	1.411490E+0	1.297425E+0	1.358366E+0	1.136081E+0	1.292015E+0	1.362007E+0	1.350405E+0	1.146498E+0	1.276209E+0	1.363350E+0	1.263648E+0	1.185461E+0	1.340148E+0	1.274589E+0	1.355097E+0	1.266016E+0	1.292149E+0	1.306640E+0	1.387017E+0	1.142913E+0	1.359985E+0	1.313187E+0	1.322253E+0	1.118670E+0	1.258925E+0	1.283282E+0	1.338380E+0	1.134905E+0	1.305546E+0	1.349678E+0	1.307813E+0	1.290069E+0	1.293106E+0	1.374914E+0	1.315389E+0	1.249926E+0	1.356090E+0	1.306326E+0	1.352579E+0	1.139439E+0	1.289622E+0	1.315142E+0	1.293803E+0	1.145285E+0	1.367216E+0	1.237802E+0	1.392519E+0	1.222286E+0	1.371197E+0	1.377988E+0	1.323201E+0	1.274357E+0	1.348743E+0	1.366894E+0	1.340149E+0	1.129680E+0	1.315684E+0	1.292201E+0	1.282279E+0	1.113833E+0	1.328078E+0	1.341118E+0	1.309908E+0	1.239424E+0	1.369563E+0	1.292547E+0	1.282093E+0	1.193565E+0	1.278974E+0	1.336767E+0	1.363343E+0	1.111260E+0	1.338386E+0	1.351946E+0	1.326056E+0	1.244466E+0	1.254558E+0	1.343703E+0	1.337586E+0	1.287714E+0	1.304420E+0	1.348771E+0	1.325531E+0	1.237950E+0	1.299369E+0	1.291324E+0	1.364750E+0	1.221130E+0	1.324413E+0	1.360580E+0	1.402414E+0	1.262247E+0	1.336609E+0	1.372588E+0	1.383186E+0	1.264146E+0	1.355725E+0	1.339938E+0	1.335367E+0	1.267945E+0	1.301548E+0	1.351927E+0	1.388144E+0	1.104757E+0	1.277563E+0	1.309874E+0	1.295403E+0	1.201330E+0	1.303812E+0	1.391778E+0	1.318747E+0	1.281123E+0	1.300163E+0	1.330527E+0	1.321574E+0	1.089111E+0	1.397836E+0	1.355720E+0	1.347879E+0	1.170350E+0	1.360547E+0	1.300799E+0	1.304944E+0	1.203729E+0	1.291032E+0	1.225324E+0	1.368232E+0	1.243307E+0
5.512570E+2	1.340000E+0	1.325240E+0	1.324822E+0	1.354764E+0	1.312871E+0	1.374330E+0	1.299175E+0	1.320683E+0	1.188604E+0	1.350044E+0	1.365805E+0	1.373692E+0	1.119822E+0	1.375348E+0	1.340650E+0	1.352106E+0	1.148833E+0	1.356825E+0	1.306398E+0	1.343505E+0	1.255718E+0	1.340414E+0	1.295141E+0	1.344828E+0	1.209218E+0	1.362072E+0	1.354415E+0	1.351736E+0	1.093922E+0	1.277457E+0	1.360251E+0	1.389005E+0	1.143039E+0	1.390378E+0	1.358842E+0	1.305553E+0	1.220906E+0	1.293117E+0	1.342296E+0	1.383818E+0	1.178411E+0	1.348300E+0	1.327917E+0	1.311444E+0	1.110000E+0	1.387598E+0	1.328999E+0	1.299031E+0	1.192916E+0	1.397981E+0	1.349213E+0	1.335817E+0	1.227683E+0	1.367771E+0	1.310525E+0	1.362809E+0	1.169566E+0	1.400349E+0	1.327316E+0	1.286614E+0	1.139307E+0	1.365905E+0	1.295192E+0	1.347432E+0	1.095478E+0	1.350996E+0	1.333243E+0	1.337279E+0	1.300287E+0	1.282927E+0	1.319868E+0	1.394032E+0	1.236864E+0	1.308303E+0	1.380766E+0	1.342127E+0	1.161079E+0	1.307901E+0	1.324982E+0	1.348823E+0	1.190064E+0	1.371129E+0	1.263655E+0	1.323873E+0	1.259920E+0	1.370495E+0	1.454072E+0	1.312419E+0	1.238387E+0	1.351800E+0	1.342678E+0	1.277369E+0	1.098373E+0	1.343474E+0	1.307685E+0	1.316600E+0	1.194600E+0	1.284689E+0	1.357547E+0	1.383378E+0	1.281479E+0	1.360626E+0	1.374185E+0	1.327819E+0	1.206464E+0	1.308198E+0	1.379293E+0	1.383309E+0	1.168162E+0	1.348092E+0	1.341804E+0	1.332519E+0	1.265811E+0	1.301262E+0	1.369498E+0	1.333704E+0	1.295478E+0	1.306440E+0	1.361253E+0	1.353504E+0	1.219069E+0	1.311639E+0	1.317383E+0	1.345586E+0	1.201136E+0	1.324414E+0	1.319788E+0	1.363652E+0	1.228589E+0	1.327067E+0	1.363610E+0	1.335935E+0	1.349444E+0	1.317645E+0	1.309111E+0	1.337164E+0	1.187110E+0	1.251930E+0	1.307471E+0	1.302138E+0	1.124338E+0	1.310854E+0	1.369819E+0	1.326393E+0	1.157250E+0	1.310853E+0	1.399309E+0	1.270495E+0	1.294817E+0	1.305704E+0	1.288553E+0	1.252028E+0	1.093472E+0	1.388269E+0	1.309478E+0	1.354712E+0	1.180323E+0	1.376083E+0	1.322697E+0	1.335592E+0	1.218427E+0	1.267165E+0	1.262165E+0	1.446568E+0	1.305052E+0
5.520150E+2	1.273207E+0	1.337070E+0	1.276000E+0	1.225450E+0	1.221978E+0	1.233073E+0	1.205967E+0	1.293493E+0	1.172553E+0	1.272625E+0	1.240484E+0	1.297018E+0	1.028784E+0	1.272059E+0	1.262507E+0	1.279571E+0	1.119048E+0	1.252236E+0	1.272829E+0	1.293427E+0	1.244268E+0	1.323559E+0	1.286954E+0	1.262482E+0	1.102928E+0	1.293724E+0	1.284982E+0	1.329303E+0	1.088456E+0	1.235282E+0	1.247051E+0	1.238390E+0	1.053451E+0	1.304837E+0	1.224926E+0	1.320597E+0	1.198015E+0	1.248558E+0	1.297425E+0	1.262013E+0	1.112272E+0	1.271550E+0	1.247219E+0	1.271113E+0	1.032438E+0	1.257538E+0	1.290525E+0	1.305982E+0	1.152928E+0	1.299588E+0	1.225952E+0	1.287257E+0	1.188029E+0	1.255622E+0	1.255506E+0	1.298037E+0	1.117628E+0	1.303317E+0	1.264862E+0	1.282338E+0	1.086237E+0	1.297704E+0	1.285929E+0	1.249828E+0	1.073426E+0	1.277812E+0	1.233896E+0	1.268037E+0	1.208952E+0	1.199591E+0	1.284482E+0	1.289174E+0	1.180689E+0	1.259866E+0	1.285691E+0	1.294047E+0	1.052250E+0	1.256719E+0	1.205496E+0	1.306101E+0	1.084464E+0	1.327317E+0	1.243547E+0	1.231861E+0	1.226753E+0	1.259861E+0	1.294100E+0	1.278173E+0	1.160101E+0	1.300602E+0	1.272163E+0	1.223559E+0	1.066452E+0	1.296923E+0	1.333942E+0	1.260313E+0	1.146140E+0	1.273272E+0	1.307437E+0	1.222751E+0	1.224133E+0	1.195314E+0	1.300709E+0	1.224937E+0	1.156227E+0	1.256878E+0	1.272983E+0	1.276065E+0	1.122639E+0	1.238534E+0	1.283652E+0	1.280826E+0	1.119134E+0	1.252334E+0	1.291379E+0	1.232757E+0	1.211358E+0	1.253263E+0	1.285046E+0	1.304882E+0	1.225138E+0	1.286282E+0	1.245544E+0	1.256149E+0	1.086983E+0	1.246259E+0	1.238209E+0	1.286125E+0	1.148653E+0	1.251537E+0	1.280359E+0	1.310094E+0	1.232720E+0	1.232644E+0	1.286885E+0	1.288134E+0	1.147401E+0	1.295247E+0	1.291173E+0	1.293814E+0	1.090233E+0	1.226566E+0	1.278182E+0	1.231443E+0	1.159349E+0	1.235755E+0	1.262189E+0	1.271227E+0	1.240049E+0	1.300856E+0	1.257241E+0	1.230972E+0	1.227911E+0	1.268679E+0	1.228737E+0	1.319041E+0	1.173200E+0	1.175604E+0	1.223484E+0	1.298529E+0	1.164279E+0	1.215014E+0	1.257084E+0	1.294019E+0	1.143337E+0
5.527700E+2	1.310157E+0	1.324451E+0	1.338208E+0	1.319883E+0	1.368459E+0	1.308905E+0	1.284526E+0	1.335380E+0	1.196979E+0	1.362582E+0	1.361806E+0	1.339866E+0	1.088285E+0	1.314594E+0	1.310444E+0	1.352778E+0	1.155803E+0	1.272716E+0	1.399959E+0	1.363851E+0	1.300930E+0	1.304897E+0	1.295772E+0	1.353562E+0	1.236776E+0	1.385993E+0	1.398082E+0	1.334741E+0	1.159495E+0	1.277457E+0	1.287631E+0	1.346163E+0	1.141766E+0	1.392669E+0	1.344034E+0	1.349187E+0	1.215039E+0	1.366269E+0	1.372207E+0	1.363821E+0	1.144679E+0	1.359263E+0	1.387049E+0	1.327849E+0	1.135094E+0	1.385596E+0	1.347551E+0	1.295242E+0	1.123103E+0	1.370191E+0	1.367870E+0	1.337243E+0	1.249492E+0	1.391485E+0	1.324763E+0	1.344646E+0	1.173665E+0	1.395690E+0	1.341442E+0	1.303008E+0	1.137539E+0	1.366575E+0	1.346139E+0	1.287965E+0	1.157628E+0	1.339441E+0	1.384788E+0	1.363799E+0	1.241399E+0	1.361173E+0	1.323801E+0	1.336240E+0	1.230331E+0	1.316812E+0	1.363077E+0	1.317738E+0	1.158607E+0	1.321794E+0	1.306707E+0	1.352705E+0	1.155310E+0	1.378953E+0	1.369225E+0	1.326066E+0	1.252267E+0	1.411104E+0	1.370185E+0	1.361889E+0	1.223577E+0	1.328112E+0	1.341963E+0	1.349866E+0	1.130906E+0	1.292061E+0	1.335287E+0	1.317972E+0	1.130660E+0	1.372989E+0	1.353440E+0	1.293339E+0	1.257903E+0	1.358073E+0	1.288462E+0	1.296534E+0	1.169125E+0	1.301785E+0	1.297282E+0	1.371476E+0	1.113055E+0	1.357801E+0	1.333687E+0	1.326056E+0	1.227251E+0	1.256040E+0	1.374655E+0	1.334479E+0	1.279947E+0	1.385871E+0	1.302126E+0	1.422773E+0	1.277735E+0	1.345992E+0	1.355420E+0	1.324293E+0	1.205653E+0	1.405387E+0	1.296888E+0	1.321659E+0	1.255234E+0	1.328657E+0	1.317088E+0	1.328551E+0	1.293007E+0	1.374766E+0	1.293334E+0	1.310854E+0	1.196328E+0	1.344078E+0	1.386748E+0	1.345833E+0	1.142652E+0	1.320062E+0	1.332612E+0	1.324417E+0	1.205528E+0	1.346837E+0	1.388763E+0	1.345065E+0	1.265271E+0	1.261389E+0	1.330525E+0	1.207366E+0	1.310752E+0	1.353190E+0	1.245619E+0	1.337254E+0	1.272221E+0	1.350931E+0	1.343906E+0	1.304945E+0	1.259424E+0	1.305174E+0	1.272327E+0	1.415645E+0	1.243305E+0
5.535330E+2	1.249759E+0	1.321296E+0	1.351594E+0	1.330943E+0	1.328648E+0	1.260581E+0	1.261891E+0	1.300106E+0	1.143939E+0	1.277789E+0	1.372471E+0	1.287999E+0	1.063295E+0	1.344296E+0	1.263163E+0	1.260092E+0	1.119050E+0	1.273448E+0	1.297113E+0	1.264476E+0	1.232215E+0	1.256137E+0	1.321591E+0	1.267475E+0	1.145574E+0	1.273902E+0	1.258496E+0	1.283753E+0	1.073157E+0	1.259288E+0	1.341742E+0	1.279223E+0	1.106187E+0	1.318586E+0	1.297604E+0	1.259656E+0	1.158691E+0	1.237253E+0	1.256294E+0	1.342610E+0	1.052084E+0	1.316869E+0	1.267396E+0	1.279318E+0	1.072358E+0	1.334906E+0	1.201898E+0	1.274391E+0	1.150895E+0	1.296583E+0	1.259933E+0	1.272973E+0	1.227682E+0	1.317144E+0	1.320882E+0	1.269588E+0	1.132663E+0	1.351447E+0	1.243302E+0	1.268083E+0	1.002506E+0	1.332472E+0	1.335555E+0	1.233020E+0	1.101493E+0	1.279353E+0	1.251824E+0	1.318128E+0	1.192731E+0	1.268932E+0	1.298244E+0	1.277858E+0	1.168932E+0	1.253320E+0	1.279057E+0	1.248059E+0	1.096152E+0	1.261107E+0	1.249076E+0	1.275031E+0	1.120554E+0	1.247517E+0	1.274428E+0	1.307077E+0	1.224202E+0	1.318679E+0	1.344170E+0	1.288321E+0	1.137531E+0	1.298310E+0	1.262195E+0	1.253453E+0	1.094688E+0	1.289976E+0	1.255844E+0	1.263746E+0	1.101718E+0	1.297629E+0	1.318938E+0	1.288298E+0	1.159138E+0	1.252758E+0	1.291185E+0	1.241182E+0	1.160299E+0	1.282536E+0	1.291207E+0	1.327838E+0	1.124437E+0	1.311341E+0	1.250519E+0	1.309903E+0	1.099164E+0	1.224162E+0	1.277377E+0	1.325938E+0	1.241121E+0	1.239800E+0	1.251541E+0	1.259593E+0	1.226485E+0	1.313275E+0	1.244841E+0	1.342037E+0	1.098594E+0	1.203310E+0	1.269695E+0	1.273852E+0	1.175999E+0	1.296855E+0	1.268117E+0	1.272440E+0	1.266713E+0	1.236044E+0	1.261790E+0	1.284543E+0	1.204837E+0	1.242479E+0	1.293397E+0	1.284799E+0	1.092759E+0	1.247107E+0	1.278180E+0	1.290788E+0	1.134861E+0	1.278779E+0	1.259929E+0	1.209817E+0	1.276080E+0	1.257234E+0	1.313868E+0	1.220764E+0	1.246077E+0	1.296583E+0	1.262501E+0	1.222655E+0	1.212381E+0	1.256978E+0	1.267958E+0	1.287839E+0	1.193674E+0	1.289263E+0	1.314248E+0	1.329063E+0	1.228606E+0
5.542700E+2	1.197889E+0	1.314986E+0	1.235053E+0	1.205032E+0	1.217471E+0	1.151293E+0	1.197978E+0	1.195753E+0	1.168366E+0	1.173087E+0	1.216485E+0	1.195538E+0	1.113278E+0	1.192402E+0	1.238211E+0	1.142555E+0	1.141861E+0	1.181292E+0	1.256402E+0	1.237089E+0	1.172540E+0	1.224834E+0	1.214524E+0	1.206959E+0	1.125892E+0	1.214441E+0	1.158283E+0	1.217807E+0	1.020697E+0	1.176240E+0	1.249185E+0	1.231696E+0	1.020411E+0	1.227697E+0	1.250499E+0	1.255142E+0	1.182170E+0	1.223949E+0	1.213916E+0	1.247470E+0	1.060683E+0	1.225500E+0	1.201306E+0	1.228735E+0	1.015897E+0	1.221519E+0	1.249990E+0	1.239634E+0	1.083792E+0	1.234995E+0	1.258600E+0	1.217986E+0	1.099467E+0	1.202430E+0	1.206964E+0	1.199977E+0	1.083459E+0	1.256744E+0	1.174159E+0	1.156893E+0	1.040834E+0	1.226831E+0	1.225717E+0	1.185187E+0	1.019964E+0	1.220805E+0	1.150982E+0	1.245938E+0	1.117619E+0	1.205315E+0	1.226160E+0	1.235554E+0	1.151296E+0	1.185243E+0	1.214935E+0	1.232032E+0	1.039884E+0	1.168253E+0	1.156297E+0	1.218713E+0	1.032332E+0	1.222481E+0	1.180348E+0	1.217254E+0	1.171897E+0	1.260562E+0	1.199154E+0	1.211583E+0	1.130478E+0	1.200498E+0	1.190258E+0	1.157789E+0	9.805100E-1	1.181594E+0	1.214101E+0	1.262374E+0	1.032391E+0	1.224554E+0	1.255684E+0	1.195380E+0	1.163597E+0	1.234887E+0	1.196617E+0	1.208093E+0	1.093091E+0	1.174192E+0	1.171231E+0	1.261272E+0	1.002248E+0	1.208024E+0	1.195749E+0	1.170985E+0	1.086079E+0	1.147063E+0	1.181570E+0	1.176849E+0	1.188062E+0	1.212877E+0	1.256797E+0	1.275578E+0	1.142197E+0	1.188946E+0	1.237797E+0	1.216402E+0	1.086338E+0	1.144869E+0	1.213878E+0	1.202138E+0	1.086948E+0	1.197474E+0	1.253426E+0	1.228879E+0	1.208350E+0	1.233325E+0	1.217336E+0	1.221762E+0	1.077911E+0	1.254293E+0	1.224492E+0	1.198796E+0	1.051708E+0	1.215942E+0	1.270603E+0	1.236718E+0	1.149554E+0	1.205247E+0	1.195888E+0	1.171801E+0	1.184564E+0	1.154063E+0	1.162638E+0	1.153770E+0	1.163961E+0	1.145900E+0	1.180292E+0	1.227208E+0	1.119058E+0	1.138614E+0	1.164641E+0	1.260756E+0	1.089246E+0	1.211478E+0	1.180863E+0	1.246604E+0	1.128637E+0
5.550310E+2	1.051515E+0	1.169866E+0	1.160245E+0	1.128464E+0	1.083007E+0	1.111146E+0	1.091459E+0	1.094340E+0	1.023903E+0	1.114838E+0	1.123824E+0	1.092554E+0	1.100185E+0	1.135018E+0	1.121321E+0	1.109645E+0	1.098773E+0	1.024044E+0	1.104989E+0	1.040688E+0	1.093579E+0	1.108654E+0	1.072191E+0	1.068466E+0	1.042565E+0	1.123538E+0	1.058070E+0	1.079118E+0	9.764341E-1	1.069182E+0	1.081164E+0	1.099155E+0	9.892775E-1	1.094802E+0	1.070153E+0	1.151317E+0	1.050695E+0	1.087619E+0	1.102360E+0	1.111730E+0	9.799929E-1	1.080039E+0	1.068435E+0	1.081086E+0	8.909978E-1	1.061445E+0	1.107090E+0	1.124636E+0	9.319666E-1	1.107311E+0	1.157326E+0	1.117295E+0	1.053864E+0	1.149239E+0	1.090455E+0	1.142475E+0	9.898354E-1	1.154279E+0	1.136242E+0	1.066375E+0	9.105193E-1	1.099794E+0	1.086763E+0	1.037813E+0	9.551428E-1	1.162258E+0	1.084502E+0	1.044104E+0	1.020279E+0	1.050097E+0	1.066922E+0	1.113421E+0	9.925700E-1	1.058256E+0	1.121333E+0	1.105913E+0	9.075570E-1	1.137545E+0	1.144349E+0	1.104783E+0	9.213842E-1	1.116081E+0	1.114995E+0	1.112097E+0	1.051984E+0	1.119122E+0	1.131522E+0	1.080939E+0	1.010579E+0	1.172223E+0	1.126156E+0	1.092768E+0	9.522727E-1	1.104475E+0	1.084832E+0	1.134704E+0	9.206623E-1	1.070031E+0	1.124248E+0	1.056363E+0	1.069294E+0	1.123187E+0	1.047623E+0	1.078741E+0	9.939750E-1	1.060143E+0	1.066442E+0	1.091898E+0	9.153958E-1	1.147697E+0	1.083506E+0	1.071479E+0	1.006198E+0	1.011398E+0	1.101241E+0	1.132588E+0	1.073526E+0	1.116619E+0	1.104375E+0	1.119722E+0	1.031609E+0	1.065436E+0	1.063125E+0	1.089347E+0	9.928249E-1	1.062489E+0	1.141601E+0	1.145284E+0	1.022438E+0	1.056747E+0	1.103248E+0	1.093767E+0	1.058282E+0	1.105485E+0	1.108354E+0	1.131472E+0	1.002038E+0	1.118040E+0	1.137807E+0	1.111406E+0	9.475027E-1	1.091281E+0	1.098354E+0	1.076489E+0	9.802343E-1	1.063657E+0	1.140136E+0	1.064334E+0	1.033958E+0	1.111133E+0	1.125331E+0	1.001276E+0	1.116726E+0	1.157859E+0	1.101753E+0	1.127787E+0	1.022885E+0	1.126039E+0	1.082534E+0	1.145301E+0	1.058305E+0	1.054141E+0	1.050020E+0	1.081687E+0	1.055130E+0
5.557600E+2	9.754855E-1	1.063391E+0	1.069689E+0	1.011060E+0	1.023662E+0	1.007062E+0	1.012898E+0	9.988056E-1	1.000175E+0	1.021198E+0	1.003167E+0	1.030915E+0	1.059130E+0	1.039830E+0	1.027416E+0	9.914364E-1	1.063921E+0	1.047449E+0	1.035711E+0	1.038341E+0	1.058015E+0	1.017759E+0	1.038812E+0	9.948530E-1	1.103584E+0	1.072277E+0	1.013690E+0	1.034927E+0	9.682362E-1	1.013382E+0	1.037022E+0	1.010794E+0	1.029942E+0	1.080291E+0	1.040544E+0	1.054263E+0	1.016654E+0	1.041066E+0	1.096129E+0	9.965911E-1	9.561825E-1	1.061766E+0	1.024609E+0	9.874396E-1	8.978418E-1	1.009421E+0	9.683107E-1	1.055763E+0	9.211218E-1	1.047224E+0	1.054718E+0	1.078018E+0	9.666243E-1	1.058238E+0	1.042558E+0	1.032308E+0	9.112452E-1	1.060353E+0	1.038103E+0	1.040716E+0	8.315050E-1	1.026912E+0	9.941272E-1	1.050741E+0	8.782925E-1	1.033607E+0	1.071803E+0	1.044105E+0	9.487753E-1	9.985682E-1	1.004013E+0	1.053843E+0	9.782000E-1	1.024874E+0	1.038786E+0	1.063408E+0	8.166601E-1	9.861996E-1	1.048058E+0	1.045881E+0	9.300725E-1	1.009681E+0	1.013016E+0	1.039800E+0	9.869244E-1	1.071508E+0	1.079499E+0	1.058742E+0	9.647352E-1	1.053778E+0	1.039263E+0	1.035220E+0	9.105306E-1	9.953974E-1	1.006059E+0	1.038610E+0	8.890278E-1	1.001522E+0	1.063459E+0	1.005222E+0	9.979294E-1	1.062551E+0	1.034697E+0	1.022184E+0	9.192985E-1	1.060856E+0	1.010251E+0	1.034208E+0	8.429209E-1	1.038138E+0	1.081478E+0	1.026895E+0	8.980819E-1	9.950889E-1	1.062919E+0	1.042514E+0	9.648148E-1	1.033824E+0	9.710109E-1	1.037798E+0	9.439472E-1	1.039262E+0	1.043404E+0	1.008429E+0	8.877015E-1	9.906710E-1	1.070040E+0	1.029638E+0	9.530202E-1	9.541847E-1	1.054276E+0	1.051682E+0	1.014029E+0	1.001445E+0	1.047411E+0	1.030420E+0	9.559480E-1	1.042431E+0	1.100021E+0	1.038580E+0	8.856108E-1	1.024702E+0	1.054947E+0	1.062642E+0	8.983729E-1	9.963821E-1	1.042191E+0	1.045327E+0	9.719864E-1	1.016272E+0	1.026732E+0	9.872389E-1	1.029522E+0	1.078132E+0	1.012937E+0	1.044303E+0	9.039169E-1	1.029868E+0	1.044902E+0	1.024142E+0	1.001064E+0	9.825426E-1	1.061452E+0	1.059010E+0	8.963566E-1
5.560130E+2	9.406690E-1	9.734795E-1	9.822821E-1	9.668202E-1	9.575578E-1	9.892199E-1	9.782792E-1	1.006155E+0	9.282916E-1	9.533636E-1	9.885014E-1	9.564951E-1	9.984378E-1	1.020927E+0	9.801359E-1	1.002854E+0	9.447920E-1	9.523681E-1	9.807164E-1	9.945221E-1	1.023056E+0	9.689985E-1	9.953550E-1	9.674037E-1	9.907321E-1	9.923110E-1	9.249294E-1	1.022010E+0	9.846307E-1	9.887269E-1	1.006408E+0	9.806714E-1	9.892779E-1	1.007734E+0	9.564280E-1	1.009875E+0	9.908290E-1	1.037076E+0	9.527921E-1	9.529599E-1	9.416322E-1	9.375029E-1	9.494777E-1	9.676165E-1	9.468889E-1	1.016758E+0	9.538836E-1	9.988943E-1	9.956792E-1	1.007417E+0	9.427836E-1	9.930370E-1	1.000991E+0	1.001202E+0	1.014078E+0	1.008701E+0	9.105626E-1	9.718613E-1	9.868035E-1	9.501968E-1	9.323366E-1	9.794399E-1	1.004053E+0	9.744677E-1	9.511328E-1	9.850742E-1	9.268893E-1	9.763357E-1	9.974459E-1	9.444963E-1	9.522450E-1	9.448158E-1	8.913250E-1	9.666167E-1	9.960387E-1	9.303202E-1	8.352104E-1	9.986292E-1	9.869089E-1	9.669063E-1	8.318233E-1	9.791697E-1	1.005835E+0	9.499768E-1	9.059186E-1	9.923854E-1	1.007966E+0	9.902492E-1	9.047864E-1	1.027032E+0	1.011485E+0	9.918719E-1	7.945106E-1	1.035693E+0	9.663367E-1	9.843844E-1	8.331629E-1	9.931493E-1	1.074139E+0	9.713681E-1	9.176436E-1	9.821280E-1	9.911556E-1	9.746559E-1	8.778868E-1	9.746062E-1	9.760808E-1	9.920495E-1	8.477126E-1	9.902922E-1	9.929005E-1	1.006219E+0	8.705368E-1	9.698831E-1	1.020912E+0	9.912642E-1	9.337540E-1	9.759360E-1	1.003860E+0	1.002498E+0	9.095572E-1	9.419257E-1	9.884668E-1	9.431273E-1	8.451355E-1	9.568734E-1	9.605521E-1	9.947509E-1	8.744865E-1	9.239722E-1	9.816359E-1	1.008121E+0	9.184715E-1	9.572454E-1	9.886181E-1	1.003513E+0	8.474578E-1	1.006990E+0	9.807363E-1	1.003208E+0	8.401398E-1	9.574134E-1	1.010163E+0	9.512058E-1	8.689877E-1	9.416237E-1	9.691098E-1	9.480941E-1	9.352361E-1	9.006382E-1	1.038723E+0	9.451281E-1	1.007721E+0	9.928244E-1	9.358660E-1	9.775167E-1	9.188766E-1	9.795632E-1	1.016849E+0	9.842315E-1	9.670280E-1	9.639800E-1	9.267965E-1	9.744892E-1	9.257596E-1
5.565030E+2	9.165104E-1	9.671705E-1	9.043255E-1	8.851480E-1	9.282607E-1	9.572513E-1	9.023838E-1	9.576527E-1	9.785402E-1	8.722577E-1	9.551698E-1	9.542398E-1	9.805881E-1	9.972998E-1	9.578086E-1	9.477800E-1	9.790099E-1	9.728473E-1	9.221503E-1	9.428798E-1	9.296281E-1	9.292688E-1	9.443411E-1	9.299731E-1	9.579263E-1	8.925238E-1	9.456879E-1	9.662623E-1	9.398223E-1	8.875091E-1	1.038446E+0	9.913818E-1	8.888885E-1	1.013079E+0	9.732507E-1	9.376485E-1	9.743942E-1	8.920982E-1	9.359655E-1	9.190244E-1	9.502308E-1	9.660107E-1	9.327817E-1	9.628316E-1	9.235059E-1	9.613984E-1	9.470131E-1	9.679328E-1	9.346780E-1	9.473302E-1	9.121343E-1	9.680430E-1	1.018836E+0	9.595457E-1	9.254031E-1	9.530131E-1	9.269632E-1	1.011450E+0	8.849473E-1	1.003653E+0	9.329261E-1	9.433339E-1	9.378850E-1	9.279281E-1	9.197251E-1	9.850741E-1	1.003081E+0	9.755991E-1	9.031092E-1	8.974213E-1	9.135819E-1	9.537523E-1	9.050424E-1	9.574532E-1	9.437096E-1	9.505275E-1	9.656816E-1	9.591476E-1	9.630123E-1	9.565489E-1	9.441079E-1	9.431818E-1	9.476639E-1	9.163839E-1	9.594969E-1	9.461718E-1	9.546417E-1	9.084382E-1	8.758695E-1	9.773616E-1	8.968141E-1	9.223666E-1	8.135403E-1	9.933129E-1	9.575839E-1	9.596743E-1	8.096060E-1	9.451937E-1	9.287367E-1	8.885346E-1	8.838722E-1	9.291509E-1	9.557777E-1	9.391593E-1	8.724560E-1	9.090280E-1	8.758476E-1	9.757777E-1	8.075815E-1	9.847447E-1	9.327217E-1	9.603435E-1	8.684704E-1	9.016801E-1	9.811148E-1	9.376856E-1	9.046346E-1	9.342019E-1	9.112260E-1	9.472158E-1	8.522406E-1	9.206596E-1	9.356426E-1	9.189933E-1	8.361068E-1	9.125152E-1	9.519648E-1	9.708466E-1	9.053394E-1	9.374885E-1	9.449076E-1	9.763742E-1	9.082102E-1	9.320849E-1	1.016580E+0	9.425227E-1	8.502944E-1	9.424072E-1	9.296147E-1	9.456410E-1	8.123512E-1	9.028745E-1	1.008785E+0	9.894501E-1	8.619908E-1	9.650919E-1	9.118502E-1	8.779108E-1	8.725439E-1	9.380287E-1	9.734345E-1	9.604413E-1	9.946403E-1	9.561502E-1	9.314619E-1	9.289440E-1	9.288505E-1	9.936192E-1	9.402164E-1	9.692653E-1	8.827129E-1	9.436497E-1	9.191759E-1	1.001289E+0	9.551622E-1
5.570100E+2	9.513271E-1	9.561289E-1	9.673213E-1	1.028075E+0	9.673232E-1	9.475859E-1	9.370030E-1	9.694101E-1	9.066575E-1	9.415666E-1	9.578365E-1	9.647639E-1	9.841569E-1	9.925742E-1	9.735689E-1	9.558397E-1	9.726734E-1	9.311584E-1	9.871442E-1	9.374022E-1	9.947262E-1	9.352884E-1	9.222984E-1	9.399545E-1	9.907323E-1	1.018966E+0	9.829101E-1	9.934565E-1	9.458326E-1	9.595294E-1	9.693851E-1	9.900426E-1	9.600504E-1	1.006969E+0	9.705596E-1	9.353913E-1	9.814381E-1	9.792176E-1	9.633858E-1	9.862892E-1	1.013063E+0	1.016447E+0	9.807822E-1	9.395908E-1	9.252171E-1	9.687354E-1	9.140360E-1	9.780427E-1	9.434889E-1	9.000123E-1	9.547765E-1	9.459046E-1	1.011566E+0	9.928705E-1	9.966014E-1	9.572504E-1	9.618158E-1	1.019213E+0	9.600379E-1	9.159848E-1	1.017249E+0	9.493516E-1	9.464867E-1	9.479661E-1	9.918977E-1	9.781408E-1	9.261427E-1	9.645499E-1	9.331527E-1	9.120529E-1	9.974601E-1	9.906907E-1	9.814658E-1	9.397794E-1	9.341285E-1	9.463468E-1	1.001546E+0	9.152797E-1	9.580918E-1	9.714375E-1	9.287361E-1	1.012811E+0	9.728000E-1	1.001096E+0	9.582212E-1	9.265663E-1	9.598439E-1	9.959569E-1	1.000705E+0	9.895888E-1	9.801462E-1	9.933668E-1	9.835796E-1	9.787230E-1	9.723956E-1	9.720300E-1	9.455656E-1	9.862983E-1	9.936335E-1	9.807325E-1	1.015133E+0	9.425550E-1	9.217609E-1	9.818760E-1	8.561628E-1	9.838728E-1	9.145742E-1	1.065272E+0	8.309416E-1	9.785037E-1	9.915477E-1	9.532360E-1	8.911953E-1	8.786989E-1	9.538471E-1	9.291439E-1	9.492841E-1	9.570878E-1	9.782377E-1	9.492132E-1	8.960708E-1	9.419259E-1	9.990315E-1	9.835864E-1	8.573895E-1	9.040665E-1	9.870300E-1	1.016717E+0	8.941197E-1	9.581603E-1	9.849012E-1	9.689907E-1	9.229605E-1	9.898848E-1	9.757122E-1	1.003512E+0	8.836216E-1	9.746988E-1	9.688820E-1	9.491087E-1	8.117196E-1	9.602470E-1	1.019120E+0	9.439520E-1	8.857791E-1	1.012028E+0	9.849321E-1	9.086159E-1	8.775885E-1	9.352594E-1	9.867587E-1	9.617174E-1	9.256045E-1	1.025513E+0	9.527478E-1	9.866238E-1	9.074786E-1	9.381364E-1	9.272161E-1	9.592872E-1	9.213895E-1	9.869624E-1	9.623666E-1	1.003350E+0	1.052191E+0
5.575080E+2	1.006040E+0	9.813670E-1	1.009843E+0	9.863877E-1	1.026667E+0	9.914504E-1	9.935921E-1	1.003950E+0	1.038559E+0	9.511520E-1	9.718349E-1	1.068500E+0	9.918925E-1	1.008777E+0	1.001806E+0	9.847202E-1	1.017030E+0	9.845496E-1	1.011427E+0	1.009389E+0	1.006781E+0	1.009330E+0	1.007951E+0	9.717708E-1	1.008447E+0	1.015549E+0	9.127603E-1	1.006373E+0	1.009769E+0	1.001703E+0	1.015663E+0	1.030876E+0	9.943612E-1	9.909305E-1	9.752698E-1	1.009122E+0	1.009024E+0	9.871982E-1	9.976631E-1	1.003864E+0	1.040179E+0	1.011330E+0	1.014174E+0	1.027769E+0	1.016467E+0	9.900786E-1	9.999138E-1	9.932073E-1	9.814457E-1	1.011172E+0	9.800950E-1	9.823255E-1	1.001652E+0	9.851804E-1	1.036732E+0	1.009911E+0	1.047239E+0	9.943720E-1	1.010595E+0	1.037153E+0	9.771504E-1	1.022232E+0	1.010670E+0	1.032642E+0	1.011277E+0	1.008186E+0	9.649854E-1	9.748629E-1	1.004056E+0	9.737587E-1	9.778020E-1	1.006777E+0	1.036987E+0	9.941088E-1	9.709796E-1	1.059924E+0	9.904156E-1	1.001554E+0	9.946403E-1	9.824418E-1	9.721795E-1	9.729109E-1	1.000808E+0	1.009128E+0	1.019454E+0	1.031597E+0	1.015119E+0	1.017519E+0	1.012695E+0	9.903525E-1	9.972397E-1	1.018030E+0	1.022867E+0	9.933131E-1	1.038377E+0	1.018018E+0	9.751808E-1	9.908661E-1	1.010063E+0	9.519201E-1	9.667066E-1	1.000639E+0	1.063952E+0	9.764609E-1	9.702139E-1	9.674783E-1	1.029994E+0	9.853927E-1	1.005839E+0	9.722634E-1	9.895195E-1	9.603434E-1	1.013084E+0	1.002502E+0	1.032703E+0	9.462272E-1	9.868156E-1	1.013631E+0	9.644409E-1	9.985018E-1	9.560849E-1	1.021267E+0	9.609980E-1	9.970716E-1	9.315564E-1	1.008977E+0	9.848828E-1	9.928126E-1	9.319848E-1	9.677009E-1	1.014284E+0	1.011813E+0	9.614400E-1	1.005525E+0	9.706936E-1	1.008297E+0	9.488575E-1	9.959634E-1	1.003704E+0	9.837877E-1	8.224559E-1	9.687465E-1	9.633111E-1	9.821967E-1	9.053701E-1	1.002640E+0	1.030137E+0	9.875720E-1	9.388391E-1	1.003808E+0	1.050049E+0	1.012123E+0	9.677530E-1	9.848516E-1	9.380675E-1	9.972485E-1	9.580578E-1	9.943594E-1	9.997434E-1	9.706904E-1	9.848192E-1	9.887301E-1	1.009369E+0	9.889200E-1	9.522220E-1
5.580400E+2	1.052936E+0	9.908310E-1	1.054728E+0	1.019568E+0	9.906098E-1	1.011523E+0	1.051513E+0	1.013503E+0	1.007851E+0	1.041843E+0	9.891673E-1	1.034672E+0	1.007363E+0	1.047257E+0	1.058280E+0	1.012929E+0	1.018931E+0	1.024044E+0	1.043567E+0	1.030516E+0	1.005575E+0	1.091198E+0	1.015509E+0	1.009825E+0	1.020914E+0	9.957284E-1	1.010827E+0	1.008413E+0	1.017417E+0	1.036740E+0	1.035598E+0	9.960672E-1	1.055992E+0	1.001623E+0	1.044582E+0	1.013636E+0	1.013720E+0	1.017124E+0	1.035055E+0	1.040223E+0	1.005787E+0	1.000365E+0	1.025305E+0	1.024352E+0	1.005634E+0	1.051440E+0	1.006784E+0	1.014059E+0	1.000424E+0	1.017181E+0	1.022071E+0	9.894664E-1	9.963650E-1	1.047343E+0	1.015373E+0	1.038361E+0	9.707004E-1	9.998064E-1	1.013568E+0	1.010780E+0	1.023734E+0	9.567065E-1	9.775856E-1	1.011312E+0	1.003258E+0	1.067503E+0	1.057611E+0	1.013904E+0	1.024487E+0	1.038646E+0	1.025639E+0	1.041332E+0	1.016084E+0	1.016364E+0	1.022571E+0	9.930320E-1	1.066472E+0	1.010328E+0	1.083201E+0	1.030991E+0	1.019633E+0	1.058970E+0	1.007271E+0	1.063899E+0	1.019454E+0	9.846828E-1	9.943098E-1	1.019422E+0	1.059244E+0	1.047664E+0	9.844198E-1	9.701983E-1	9.645501E-1	1.040557E+0	1.009426E+0	1.024195E+0	9.772000E-1	1.015224E+0	1.033065E+0	1.030432E+0	1.013859E+0	9.993619E-1	9.993199E-1	1.002331E+0	1.016378E+0	1.037333E+0	1.036828E+0	1.047521E+0	1.008836E+0	1.077662E+0	1.006423E+0	1.057910E+0	9.999999E-1	1.007692E+0	9.980657E-1	1.036302E+0	1.040524E+0	1.037863E+0	1.009116E+0	1.031804E+0	1.017448E+0	1.005725E+0	1.015231E+0	9.700997E-1	1.018622E+0	1.016723E+0	1.049287E+0	1.016717E+0	1.077131E+0	1.038461E+0	1.006937E+0	9.712057E-1	1.044171E+0	1.065365E+0	1.033071E+0	9.921518E-1	1.058766E+0	1.067634E+0	1.025191E+0	1.024015E+0	1.015709E+0	1.048784E+0	1.028076E+0	1.036925E+0	1.064194E+0	1.111375E+0	1.005274E+0	1.024125E+0	9.972075E-1	1.047431E+0	9.894238E-1	1.003190E+0	1.017169E+0	1.000797E+0	1.041563E+0	1.065554E+0	9.901156E-1	1.055760E+0	1.042165E+0	1.004900E+0	9.291249E-1	1.017899E+0	1.069074E+0	1.017781E+0	1.022787E+0
5.585390E+2	1.041567E+0	1.050772E+0	1.000394E+0	1.008507E+0	1.053710E+0	1.049440E+0	1.046187E+0	1.026731E+0	1.074150E+0	1.030783E+0	1.036498E+0	1.021142E+0	1.075196E+0	1.014852E+0	1.064847E+0	1.057929E+0	1.066455E+0	1.067927E+0	1.027855E+0	1.031299E+0	1.080317E+0	1.005117E+0	1.043220E+0	1.050376E+0	1.049783E+0	1.046989E+0	1.049480E+0	1.020650E+0	1.065507E+0	1.034145E+0	1.069772E+0	1.051627E+0	1.062346E+0	1.074181E+0	1.052657E+0	1.048997E+0	1.049522E+0	1.040401E+0	1.039417E+0	1.078401E+0	1.050762E+0	1.020101E+0	1.083045E+0	1.059213E+0	1.023311E+0	1.051440E+0	1.017777E+0	1.035543E+0	1.047869E+0	1.040464E+0	1.017407E+0	1.015889E+0	1.006939E+0	1.024913E+0	1.009547E+0	1.000227E+0	1.067740E+0	1.078983E+0	1.101299E+0	1.051407E+0	1.013120E+0	1.048308E+0	9.868486E-1	1.000969E+0	1.028652E+0	1.049014E+0	1.023249E+0	1.059574E+0	1.020280E+0	1.055822E+0	9.863209E-1	9.877120E-1	1.075525E+0	1.023565E+0	1.066793E+0	1.039021E+0	1.041120E+0	1.072474E+0	1.034000E+0	1.069828E+0	1.026985E+0	1.016723E+0	1.007272E+0	9.901414E-1	1.059001E+0	9.832824E-1	1.039180E+0	1.032106E+0	1.004937E+0	1.018626E+0	1.032140E+0	1.020272E+0	1.055401E+0	9.995658E-1	1.019525E+0	9.953668E-1	9.859497E-1	1.036537E+0	1.027314E+0	1.049881E+0	1.022780E+0	1.029361E+0	1.008844E+0	9.848843E-1	9.729302E-1	1.050877E+0	1.014048E+0	1.053438E+0	9.968549E-1	1.023576E+0	1.023328E+0	1.045633E+0	1.039253E+0	1.098876E+0	1.024596E+0	1.051055E+0	1.060584E+0	1.021035E+0	1.030139E+0	1.032470E+0	1.041723E+0	1.001636E+0	1.043404E+0	1.058115E+0	1.041195E+0	1.047703E+0	1.049288E+0	1.042559E+0	1.056797E+0	1.060722E+0	1.030607E+0	1.048729E+0	1.014671E+0	1.059245E+0	1.047410E+0	1.072277E+0	1.072947E+0	1.049520E+0	1.011113E+0	1.039274E+0	1.094653E+0	1.049492E+0	1.070794E+0	1.030991E+0	1.032710E+0	1.007333E+0	1.057259E+0	1.038747E+0	1.033238E+0	1.052970E+0	1.042055E+0	1.061890E+0	1.023708E+0	1.039066E+0	9.879803E-1	1.072384E+0	1.049244E+0	1.073515E+0	1.014796E+0	1.031982E+0	9.910072E-1	1.048837E+0	1.043668E+0	9.765506E-1	9.786824E-1
5.590160E+2	1.035883E+0	9.987187E-1	9.807075E-1	1.017866E+0	1.038687E+0	1.044979E+0	1.030209E+0	1.006155E+0	9.834254E-1	9.872811E-1	1.071162E+0	9.760392E-1	9.948681E-1	9.858227E-1	9.886721E-1	1.014272E+0	1.054416E+0	9.977143E-1	1.027140E+0	1.000000E+0	1.018836E+0	1.016554E+0	1.000393E+0	1.023550E+0	9.789224E-1	1.053824E+0	1.063081E+0	1.015212E+0	1.032719E+0	9.828871E-1	9.750819E-1	1.018157E+0	1.026130E+0	1.029883E+0	1.019684E+0	9.654861E-1	1.029567E+0	1.007150E+0	1.010128E+0	1.007498E+0	9.839614E-1	1.048608E+0	9.814779E-1	1.018200E+0	1.011336E+0	1.055442E+0	1.023960E+0	9.963666E-1	1.019402E+0	9.878885E-1	1.045390E+0	1.048025E+0	1.038663E+0	1.014660E+0	1.013431E+0	1.040783E+0	9.973517E-1	1.014554E+0	9.615245E-1	1.007217E+0	1.031401E+0	1.017552E+0	1.029197E+0	1.004202E+0	1.022637E+0	1.042852E+0	1.000841E+0	1.022743E+0	1.013668E+0	9.743948E-1	1.033502E+0	1.007374E+0	9.540317E-1	1.011128E+0	1.018150E+0	1.011149E+0	1.004019E+0	9.898550E-1	9.897209E-1	1.036169E+0	1.062408E+0	1.036282E+0	1.025943E+0	1.050023E+0	1.028384E+0	1.002888E+0	1.007966E+0	1.036545E+0	1.009874E+0	9.781261E-1	1.046385E+0	1.008315E+0	9.891041E-1	9.912282E-1	1.023564E+0	1.037237E+0	1.034409E+0	1.031970E+0	1.033064E+0	9.922571E-1	1.096056E+0	1.016595E+0	1.023132E+0	1.011959E+0	1.035387E+0	1.050877E+0	1.014807E+0	9.654223E-1	1.041778E+0	9.937592E-1	1.057136E+0	9.894194E-1	1.017216E+0	1.021777E+0	1.040810E+0	1.023101E+0	1.004287E+0	1.007573E+0	1.062331E+0	9.918406E-1	1.051838E+0	9.468333E-1	1.046221E+0	9.885547E-1	1.042486E+0	1.028692E+0	9.698549E-1	1.025761E+0	9.677451E-1	9.327184E-1	9.865328E-1	1.016982E+0	1.030062E+0	1.030005E+0	1.026618E+0	1.031018E+0	1.000620E+0	9.880879E-1	9.948134E-1	1.014999E+0	1.047919E+0	1.009828E+0	9.832916E-1	9.953843E-1	1.058597E+0	1.002640E+0	9.977394E-1	1.022663E+0	1.033238E+0	1.004501E+0	1.026066E+0	1.012761E+0	1.006268E+0	9.896358E-1	1.029820E+0	9.653737E-1	1.034284E+0	9.950991E-1	1.007954E+0	1.019866E+0	1.071455E+0	1.046185E+0	1.010639E+0	1.048702E+0	9.786825E-1
5.595000E+2	1.004619E+0	1.055505E+0	1.040554E+0	9.889405E-1	1.000375E+0	1.041262E+0	9.816087E-1	1.045103E+0	1.010643E+0	1.029309E+0	1.014499E+0	1.036176E+0	1.022834E+0	1.040505E+0	1.014283E+0	1.028377E+0	9.961188E-1	1.048180E+0	1.047138E+0	1.011737E+0	1.011001E+0	1.001505E+0	1.064003E+0	1.081570E+0	1.058312E+0	1.048356E+0	1.059502E+0	1.038327E+0	1.042007E+0	1.052961E+0	1.081163E+0	1.022843E+0	1.065523E+0	1.012315E+0	1.019683E+0	1.042226E+0	1.024870E+0	1.037741E+0	1.026331E+0	1.017195E+0	1.009094E+0	1.007675E+0	1.007913E+0	1.010681E+0	1.057529E+0	9.740714E-1	1.072739E+0	1.068400E+0	1.016013E+0	1.052482E+0	1.033397E+0	1.079446E+0	1.022140E+0	1.047984E+0	1.041910E+0	1.022623E+0	1.046556E+0	1.033960E+0	1.019516E+0	1.019333E+0	1.008991E+0	1.059675E+0	1.023241E+0	1.031996E+0	1.033998E+0	1.014348E+0	1.015033E+0	1.014640E+0	1.020279E+0	1.011928E+0	1.037434E+0	1.004990E+0	9.919169E-1	1.020292E+0	1.079323E+0	1.071770E+0	1.058434E+0	1.041035E+0	1.050869E+0	1.066593E+0	9.922301E-1	1.065228E+0	1.074779E+0	1.075583E+0	1.009247E+0	1.065906E+0	1.007966E+0	9.984939E-1	1.002821E+0	1.082816E+0	1.056356E+0	1.068104E+0	1.067063E+0	1.069042E+0	9.952870E-1	1.038609E+0	1.092295E+0	1.034254E+0	9.813112E-1	1.046279E+0	1.041895E+0	1.047233E+0	1.047623E+0	1.081146E+0	1.086981E+0	1.075825E+0	1.052016E+0	1.056396E+0	1.071127E+0	1.009015E+0	1.090268E+0	1.033357E+0	1.002066E+0	9.987957E-1	1.048179E+0	9.889345E-1	1.039230E+0	1.010938E+0	1.018313E+0	1.031137E+0	1.018796E+0	1.061346E+0	1.017344E+0	1.066633E+0	1.036035E+0	9.970077E-1	1.032829E+0	1.020593E+0	1.018932E+0	1.036076E+0	9.979595E-1	1.031010E+0	1.037117E+0	1.000765E+0	1.062467E+0	1.019657E+0	1.024020E+0	1.045582E+0	1.045936E+0	1.008063E+0	1.068760E+0	1.056575E+0	1.045301E+0	1.036266E+0	1.022914E+0	1.014375E+0	1.070068E+0	1.067258E+0	1.026752E+0	9.885753E-1	1.014740E+0	1.023608E+0	1.120359E+0	1.047039E+0	1.060648E+0	9.919363E-1	1.022886E+0	1.032827E+0	1.041481E+0	1.064054E+0	1.086153E+0	1.030274E+0	1.027154E+0	1.038395E+0	1.069831E+0
5.600470E+2	9.335634E-1	1.007394E+0	9.499972E-1	9.506566E-1	9.553044E-1	9.237958E-1	9.336738E-1	9.642666E-1	9.443433E-1	9.747469E-1	9.911672E-1	9.534880E-1	9.883228E-1	9.520685E-1	9.184083E-1	9.874067E-1	9.517623E-1	8.938576E-1	9.678602E-1	9.546168E-1	9.525326E-1	9.358902E-1	9.632358E-1	9.655319E-1	9.415244E-1	9.567700E-1	9.607196E-1	9.628631E-1	9.392750E-1	9.316293E-1	9.031733E-1	9.887041E-1	9.244701E-1	9.489233E-1	9.052846E-1	9.827897E-1	9.391791E-1	9.665816E-1	9.677492E-1	9.572020E-1	9.515536E-1	9.389652E-1	9.348687E-1	9.484773E-1	9.668510E-1	9.807415E-1	9.147231E-1	9.521357E-1	9.861895E-1	9.623521E-1	9.860915E-1	9.466194E-1	9.910780E-1	9.608277E-1	9.571191E-1	9.366702E-1	9.242294E-1	9.695322E-1	9.622687E-1	9.416434E-1	9.901239E-1	9.413278E-1	9.908193E-1	9.764070E-1	9.477918E-1	9.665852E-1	9.380945E-1	9.446611E-1	9.656000E-1	9.546749E-1	9.417602E-1	9.906907E-1	9.200656E-1	9.463253E-1	9.540279E-1	9.358943E-1	9.675370E-1	9.481808E-1	9.517666E-1	9.403658E-1	9.922303E-1	9.564819E-1	9.246829E-1	9.463253E-1	9.563079E-1	9.447714E-1	9.565927E-1	9.414161E-1	9.266498E-1	9.605502E-1	9.331384E-1	9.597355E-1	9.866490E-1	1.012766E+0	8.983362E-1	9.109408E-1	9.718155E-1	9.558500E-1	9.213438E-1	9.569621E-1	9.354849E-1	9.680858E-1	9.666633E-1	9.842818E-1	9.600311E-1	9.239974E-1	9.654494E-1	9.595055E-1	9.387557E-1	9.251112E-1	9.367786E-1	9.558204E-1	9.414657E-1	9.639528E-1	9.332119E-1	9.710753E-1	9.486370E-1	9.584341E-1	9.289646E-1	9.985014E-1	9.567598E-1	9.770972E-1	9.666326E-1	9.949427E-1	9.573536E-1	9.864457E-1	1.011360E+0	9.139934E-1	9.894819E-1	1.016199E+0	9.400106E-1	9.623456E-1	9.684948E-1	9.531652E-1	9.312592E-1	9.353477E-1	9.247481E-1	9.416199E-1	9.940727E-1	9.553507E-1	9.778167E-1	9.382901E-1	9.412636E-1	9.742842E-1	1.022914E+0	9.251961E-1	9.427401E-1	9.225065E-1	1.015223E+0	9.712645E-1	9.567792E-1	9.202442E-1	9.256042E-1	9.641232E-1	9.813744E-1	9.797931E-1	9.666073E-1	9.699467E-1	9.196894E-1	9.578617E-1	9.445959E-1	9.683998E-1	9.191752E-1	9.930420E-1	9.581015E-1
5.605040E+2	9.698014E-1	9.829446E-1	1.001181E+0	1.060403E+0	9.943663E-1	9.869899E-1	9.736197E-1	9.958666E-1	1.021809E+0	1.011613E+0	9.751684E-1	9.940805E-1	9.990329E-1	9.972995E-1	9.899854E-1	9.867350E-1	9.764753E-1	1.015999E+0	9.492909E-1	1.005477E+0	9.682044E-1	1.029798E+0	9.657546E-1	9.561741E-1	9.999178E-1	9.820585E-1	1.006532E+0	1.007733E+0	9.633199E-1	9.569339E-1	9.871845E-1	1.002092E+0	9.822888E-1	9.855838E-1	1.037180E+0	9.797805E-1	9.485696E-1	9.991686E-1	9.833287E-1	9.444762E-1	1.022322E+0	1.003290E+0	9.884346E-1	9.751358E-1	9.731239E-1	9.754052E-1	1.018464E+0	9.969985E-1	1.011946E+0	9.788759E-1	9.814272E-1	9.866101E-1	9.950430E-1	1.002483E+0	9.985434E-1	9.820679E-1	9.638656E-1	9.501266E-1	9.726777E-1	9.950995E-1	1.037295E+0	9.901378E-1	1.013978E+0	9.977375E-1	1.001921E+0	9.303783E-1	9.918764E-1	1.013904E+0	9.908367E-1	1.024015E+0	1.024983E+0	9.942666E-1	9.847319E-1	1.000654E+0	9.613978E-1	9.777026E-1	9.087937E-1	9.847372E-1	9.587950E-1	9.617274E-1	9.862147E-1	9.416171E-1	1.006553E+0	9.492463E-1	9.677892E-1	9.706791E-1	9.852055E-1	1.009275E+0	1.024686E+0	9.987584E-1	9.972400E-1	1.022515E+0	9.571825E-1	9.683014E-1	9.952872E-1	9.850710E-1	9.718157E-1	9.634625E-1	1.027314E+0	9.807322E-1	9.501398E-1	9.751072E-1	9.516958E-1	9.722493E-1	1.009589E+0	9.924261E-1	9.510225E-1	1.001664E+0	1.005241E+0	1.038831E+0	9.759963E-1	9.764966E-1	1.030300E+0	9.906406E-1	9.951178E-1	1.013783E+0	9.738735E-1	1.015650E+0	1.013714E+0	9.765216E-1	1.019471E+0	9.967281E-1	1.002553E+0	9.828763E-1	9.941149E-1	9.955991E-1	9.161844E-1	9.876443E-1	9.964939E-1	9.836017E-1	1.060805E+0	9.778505E-1	9.588752E-1	9.994051E-1	9.728443E-1	9.975341E-1	9.984932E-1	9.739111E-1	1.005927E+0	9.948854E-1	9.828694E-1	1.015494E+0	9.743351E-1	9.802186E-1	9.788350E-1	1.004987E+0	9.404799E-1	1.007311E+0	9.806339E-1	1.002423E+0	9.694371E-1	1.026798E+0	9.546719E-1	1.011959E+0	1.005597E+0	9.691676E-1	1.005788E+0	9.618092E-1	1.017533E+0	9.771048E-1	1.020402E+0	9.533736E-1	9.687183E-1	1.013657E+0	9.992652E-1
5.610180E+2	9.555905E-1	9.324678E-1	9.625959E-1	9.676714E-1	9.402801E-1	9.505600E-1	9.895974E-1	9.444246E-1	9.192196E-1	9.732720E-1	9.505037E-1	9.159027E-1	9.204905E-1	9.534187E-1	9.637187E-1	9.276308E-1	9.188117E-1	9.677273E-1	9.257219E-1	9.569641E-1	9.567522E-1	9.106077E-1	9.399326E-1	9.412024E-1	9.421795E-1	9.007253E-1	9.370982E-1	9.404279E-1	9.299857E-1	1.003001E+0	9.323637E-1	8.896329E-1	8.888885E-1	9.565609E-1	9.456606E-1	9.579620E-1	9.855467E-1	9.446355E-1	9.403277E-1	9.511419E-1	9.363406E-1	9.696651E-1	9.647822E-1	9.361733E-1	9.457487E-1	9.213802E-1	9.456394E-1	9.432900E-1	9.367113E-1	9.495834E-1	9.341218E-1	9.516186E-1	9.481192E-1	9.166085E-1	9.273445E-1	9.693566E-1	9.823176E-1	9.586647E-1	9.585510E-1	9.373665E-1	9.181848E-1	9.640617E-1	9.676605E-1	9.447344E-1	9.504648E-1	9.211341E-1	1.008310E+0	9.557109E-1	9.607925E-1	9.667614E-1	9.725589E-1	9.668588E-1	1.020657E+0	9.875633E-1	9.267581E-1	9.115074E-1	9.632082E-1	9.518364E-1	9.370069E-1	9.118842E-1	9.481187E-1	9.517873E-1	9.526910E-1	9.156542E-1	9.403619E-1	1.016193E+0	9.936599E-1	9.452217E-1	9.590931E-1	9.231062E-1	9.530813E-1	9.328299E-1	9.571836E-1	9.252260E-1	1.020198E+0	9.905624E-1	9.913342E-1	9.718358E-1	9.665250E-1	9.915367E-1	9.730788E-1	9.636177E-1	9.387698E-1	9.866882E-1	9.484900E-1	9.011874E-1	9.358355E-1	9.306600E-1	9.315682E-1	9.597821E-1	9.205504E-1	9.810199E-1	9.566159E-1	9.157650E-1	9.273165E-1	9.695219E-1	9.460486E-1	9.348754E-1	9.729820E-1	9.392236E-1	9.378785E-1	9.893669E-1	9.476160E-1	9.417071E-1	9.786364E-1	9.188527E-1	9.863142E-1	9.999188E-1	9.614342E-1	9.645208E-1	9.628638E-1	9.800651E-1	9.851691E-1	8.865250E-1	9.556365E-1	9.437187E-1	9.715476E-1	9.376817E-1	9.192426E-1	9.796263E-1	9.898167E-1	9.127907E-1	9.936272E-1	9.637339E-1	9.144653E-1	9.314540E-1	9.563020E-1	9.298170E-1	9.748692E-1	9.290273E-1	9.514495E-1	9.393859E-1	9.844665E-1	9.625283E-1	9.549501E-1	9.585428E-1	9.730185E-1	9.166835E-1	9.566379E-1	9.735410E-1	9.724429E-1	9.463018E-1	9.522033E-1	9.229531E-1	1.040429E+0
