Photon Energy (eV)	#1	#2	#3	#4	#5	#6	#7	#8	#9	#10	#11	#12	#13	#14	#15	#16	#17	#18	#19	#20	#21	#22	#23	#24	#25	#26	#27	#28	#29	#30	#31	#32	#33	#34	#35	#36	#37	#38	#39	#40	#41	#42	#43	#44	#45	#46	#47	#48	#49	#50	#51	#52	#53	#54	#55	#56	#57	#58	#59	#60	#61	#62	#63	#64	#65	#66	#67	#68	#69	#70	#71	#72	#73	#74	#75	#76	#77	#78	#79	#80	#81	#82	#83	#84	#85	#86	#87	#88	#89	#90	#91	#92	#93	#94	#95	#96	#97	#98	#99	#100	#101	#102	#103	#104	#105	#106	#107	#108	#109	#110	#111	#112	#113	#114	#115	#116	#117	#118	#119	#120	#121	#122	#123	#124	#125	#126	#127	#128	#129	#130	#131	#132	#133	#134	#135	#136	#137	#138	#139	#140	#141	#142	#143	#144	#145	#146	#147	#148	#149	#150	#151	#152	#153	#154	#155	#156	#157	#158	#159	#160	#161	#162	#163	#164	#165	#166	#167	#168	#169	#170	#171	
2.790040E+2	-1.186759E-2	-1.260181E-2	-4.890095E-3	3.498465E-3	2.064244E-3	-4.149090E-3	5.574735E-3	-2.186458E-3	-1.062197E-2	5.584842E-3	-1.581817E-4	-9.196404E-3	-2.979327E-3	-1.379287E-2	4.237452E-3	9.088271E-3	5.534113E-4	-8.161634E-4	-2.197368E-3	-1.061414E-2	-7.860793E-3	-1.476575E-2	-1.574170E-3	-4.265334E-3	-5.459875E-4	-1.059198E-2	-2.564974E-3	-1.121619E-2	-4.492358E-3	-3.784386E-3	-4.793281E-3	-7.581268E-3	-4.176551E-3	1.468329E-2	-6.974638E-3	2.426530E-3	-9.857775E-4	2.530693E-3	-1.236809E-2	-1.708681E-2	-1.359330E-2	7.538578E-3	-6.702006E-4	-3.175510E-3	-5.518359E-3	1.503237E-2	-9.803389E-4	6.776445E-3	-2.710742E-3	-5.905779E-3	-8.072979E-3	-1.297561E-4	-1.224093E-2	-1.191261E-2	-8.117975E-3	-5.812279E-3	-4.228279E-3	4.228076E-3	-1.393622E-2	7.858504E-3	-1.014640E-3	-5.201986E-3	1.319858E-2	-6.427152E-3	-1.182820E-2	-2.800856E-3	-1.197769E-2	-4.855275E-3	-6.784646E-3	-5.436071E-3	4.406745E-4	-7.050079E-3	-9.609754E-3	-6.067675E-3	-8.720118E-3	-2.110895E-2	2.320441E-3	6.638619E-3	4.588154E-3	-7.002391E-3	-1.087066E-2	-3.784732E-3	-1.651532E-2	-5.862567E-3	1.842317E-4	2.720095E-3	3.089947E-4	6.902520E-3	8.985063E-3	-7.056060E-4	2.127850E-3	1.405572E-3	1.724715E-2	1.015552E-2	-1.128419E-2	-2.626782E-4	-7.682933E-3	-6.788066E-3	5.418002E-3	1.422131E-3	-1.000701E-2	-5.843457E-3	-2.555663E-3	-7.359426E-3	-1.922580E-2	9.382659E-3	-6.158184E-3	-4.084781E-3	-3.039260E-3	-2.154244E-3	-2.363492E-3	-7.509636E-3	-4.522052E-3	-7.341399E-3	-1.034702E-2	-7.733795E-3	-6.918059E-3	-1.431071E-2	-8.395166E-3	-5.146231E-3	-7.261358E-3	-4.883036E-3	1.097521E-2	-5.836926E-3	-2.768161E-3	-5.155817E-3	3.296628E-3	-1.524156E-2	-3.802779E-4	-2.295368E-3	7.070700E-3	-1.353058E-2	4.981961E-3	5.925426E-3	-2.375774E-3	1.497003E-2	4.374066E-4	-1.143136E-2	1.684220E-3	-3.881926E-6	-3.183256E-3	5.274700E-3	1.280355E-2	-1.129925E-2	-5.686980E-3	2.387965E-3	2.839036E-3	-1.476084E-3	6.444353E-3	-1.857000E-3	4.062683E-3	-4.961531E-3	3.798980E-4	5.929097E-3	2.946928E-4	-1.151370E-2	-1.620310E-2	-9.056008E-3	-8.515832E-4	-1.832680E-2	-2.426491E-2	1.103449E-2	-8.352962E-3	3.499544E-3	5.585134E-4	-7.766768E-3	-1.512950E-2	4.108183E-3	4.519951E-3	-1.718169E-2	-3.776672E-2
2.794980E+2	3.773817E-3	-2.711320E-3	-2.539865E-4	-3.023675E-3	2.295122E-3	-3.956336E-3	7.233060E-3	-2.700511E-3	-4.410335E-4	-2.280052E-3	-2.368618E-3	-1.223454E-2	-7.107676E-5	-3.371580E-3	-4.662571E-3	-1.494422E-2	-1.117132E-2	2.262627E-3	3.130069E-3	-1.130074E-2	-2.400941E-3	-1.987706E-3	-6.900089E-3	-1.009483E-2	-8.974226E-3	2.682905E-3	1.232511E-3	4.323286E-3	-1.476796E-2	-1.233066E-2	1.750629E-2	-9.766283E-3	2.186203E-3	-4.835134E-3	3.419960E-3	-2.284871E-2	6.639636E-3	-1.067241E-2	-4.564243E-3	-9.715694E-3	-9.311265E-3	9.745912E-4	-1.124306E-2	-1.282335E-2	-5.152183E-3	-8.881012E-4	-7.568951E-3	-1.435155E-2	-9.584796E-4	7.460883E-3	7.351754E-3	3.597271E-3	1.020705E-2	3.753111E-4	-1.035554E-2	-4.563748E-3	-1.113460E-2	-1.168041E-3	-6.492987E-4	-5.418492E-3	-1.032009E-2	-8.752371E-3	-8.625424E-3	5.043156E-3	-3.055008E-3	-9.425900E-3	-9.139974E-3	-7.637700E-3	-1.036424E-2	-5.205307E-3	-1.576246E-3	-9.583091E-3	-8.010581E-3	8.907841E-4	-3.635097E-3	-3.319953E-4	8.293120E-3	3.719289E-4	-1.120708E-2	7.930737E-4	-4.526417E-3	-1.087474E-2	-4.638974E-3	-1.412521E-2	-1.288746E-2	-6.092958E-3	5.046684E-3	8.451860E-3	-1.113194E-2	-3.092448E-3	-3.242331E-3	-9.058219E-3	-2.064422E-3	-6.524819E-3	-1.646030E-4	3.904703E-3	-7.515364E-3	-9.491399E-3	-9.739789E-3	-1.327845E-2	-3.132471E-3	-7.523561E-4	-4.879578E-3	-7.198754E-3	4.848716E-3	-2.687795E-3	-1.997256E-3	2.274974E-3	1.519875E-4	8.534130E-3	-1.050159E-2	-3.200982E-3	-9.295626E-3	-7.177719E-3	-1.716884E-2	-1.633089E-2	-8.748831E-4	-2.699034E-3	-1.639129E-2	-9.098303E-3	-2.712716E-3	9.532029E-4	-5.461093E-3	-1.656359E-2	-5.783842E-3	-3.637434E-3	-1.790565E-4	4.674855E-3	-1.872398E-3	-6.172190E-4	-4.324438E-3	4.385513E-3	-3.277886E-3	-6.817234E-3	-2.155514E-3	-1.234598E-2	-5.354092E-3	-3.189328E-3	1.912282E-3	-3.037191E-3	2.691143E-3	-9.202270E-3	-7.563071E-3	3.752304E-3	-1.741000E-2	-1.034400E-2	-2.592234E-3	1.760771E-3	-5.703235E-3	-1.616018E-3	-6.738181E-3	5.809904E-3	3.631035E-3	-3.345866E-3	-2.128414E-3	-9.863474E-3	6.260908E-3	-1.724448E-4	-4.284233E-3	2.141332E-3	-1.070731E-2	-1.444584E-2	-8.862940E-4	5.885681E-4	-1.125918E-2	-1.622723E-2	-5.853664E-3	-2.136885E-2	-9.497450E-3	2.735121E-3	-2.003831E-4
2.800050E+2	2.449658E-3	-7.443353E-3	-9.067919E-3	-1.066676E-2	-5.424045E-3	-7.256611E-4	8.805839E-3	7.580732E-3	-3.193326E-3	-1.355270E-2	-5.897958E-3	-5.617328E-3	1.359165E-3	4.082702E-3	5.776517E-3	9.921150E-3	-5.042626E-3	2.536244E-2	-8.350344E-3	7.123955E-3	1.091652E-2	1.838048E-2	5.401182E-3	-1.577770E-2	-7.387600E-3	-1.684503E-2	-7.030139E-3	-2.236538E-3	-1.468152E-2	-7.212555E-3	-7.727765E-3	3.042275E-3	-5.232213E-3	-3.308352E-3	9.918942E-4	1.244914E-2	-3.039216E-3	-5.646077E-3	-1.092056E-3	4.765765E-3	-9.158866E-3	-4.437313E-3	5.760119E-3	8.346697E-3	3.559737E-3	-1.455834E-2	1.211254E-2	4.173692E-3	-6.636663E-3	-7.122826E-3	-9.139790E-3	-2.075272E-3	-1.064034E-2	-1.024126E-2	-5.344953E-3	-4.211936E-3	-1.094622E-2	-5.277471E-3	-1.890902E-2	7.434149E-3	-1.660706E-3	-9.700837E-4	-7.312213E-3	-9.243960E-3	-1.343780E-3	-3.831369E-3	3.491115E-4	2.180630E-3	-1.234685E-4	-1.589573E-4	-2.522820E-3	-4.084575E-3	-1.059018E-2	-8.455753E-3	1.162180E-2	-2.246578E-3	-9.962570E-3	-2.114977E-3	4.109105E-4	2.661992E-3	2.022533E-3	3.869595E-3	4.708489E-3	9.152595E-3	-8.284944E-3	-3.370939E-3	-8.336891E-3	-6.548493E-3	-8.036282E-3	-2.921503E-3	-1.133630E-2	-4.064142E-3	-7.447613E-3	-3.941773E-3	-1.786340E-2	-9.533547E-3	-7.307973E-3	2.064991E-3	7.361153E-3	-4.291122E-3	-1.606816E-3	-7.998857E-3	-2.203848E-3	-1.695122E-3	-5.513970E-3	2.945478E-3	-7.115044E-3	-1.311034E-2	-7.228478E-3	-5.732462E-3	-4.379251E-3	-7.160242E-3	7.440831E-3	-2.709247E-3	4.035759E-3	1.304394E-2	7.356736E-4	-7.648626E-3	-3.390853E-3	-8.973772E-3	-1.279628E-2	-3.195255E-3	-9.198527E-3	-5.583759E-3	-5.665767E-3	-1.418460E-2	-2.518484E-3	-1.786493E-3	-3.940965E-3	2.649689E-3	6.057641E-3	-1.383637E-3	-3.692044E-3	-1.057543E-2	-9.418193E-3	-6.710512E-3	-1.125624E-2	2.333895E-3	-6.137921E-3	1.936985E-3	-9.909844E-3	-1.031745E-2	-3.553229E-3	7.977821E-3	1.112631E-2	1.571861E-2	-1.039210E-3	-7.179242E-3	-8.340365E-3	-1.680057E-4	1.991265E-3	5.956322E-3	7.819769E-4	8.531600E-4	1.970052E-3	1.583070E-2	-1.452435E-2	1.225316E-3	-2.922029E-3	9.470165E-4	1.338692E-2	-1.002284E-2	-3.660362E-3	-3.992499E-3	-1.701644E-3	-9.926286E-3	-9.644748E-3	8.113184E-4	-2.190400E-3	1.610182E-2	-2.506323E-2
2.805030E+2	5.200476E-3	-5.976105E-3	-4.733017E-3	-9.236400E-3	-7.114052E-3	-8.654548E-3	-1.560654E-2	-1.575192E-2	-1.612350E-2	-6.869019E-4	-2.359591E-3	-5.718313E-3	-4.016733E-3	2.476983E-3	-6.224347E-5	-1.043406E-2	2.352557E-3	-4.915654E-3	1.848684E-3	6.989027E-3	2.360332E-4	-1.712950E-2	-2.354739E-4	1.184994E-2	-3.052621E-3	1.052217E-2	-1.308462E-2	3.153056E-4	1.197530E-2	2.120065E-4	-6.715283E-3	-3.980262E-3	5.180313E-3	-4.836693E-3	-1.666865E-3	-3.979366E-3	6.675747E-3	-8.829918E-4	3.110580E-3	-4.588762E-3	1.071604E-2	2.346792E-3	3.242873E-3	1.094535E-2	-2.651688E-3	-1.964941E-2	-9.840274E-3	-7.285561E-3	6.317943E-3	-4.264928E-3	-5.087881E-3	-2.195730E-3	1.158666E-2	1.385405E-2	-3.025648E-3	-6.831730E-3	-6.594980E-3	-2.524838E-3	3.348592E-3	-1.011313E-2	5.245312E-3	-4.845577E-3	-3.628748E-4	-1.624628E-2	-3.041650E-3	5.426991E-3	-9.108853E-3	-1.483944E-2	2.234088E-3	-1.520700E-3	-3.952798E-4	-5.857481E-3	5.078164E-3	7.733517E-3	2.672942E-3	-5.596876E-3	-9.704430E-5	-1.659449E-2	-1.229364E-2	-7.225127E-3	-5.891720E-3	-3.604983E-3	-1.978840E-3	-5.077685E-4	-5.538344E-3	5.556287E-3	-2.783668E-3	-1.125176E-2	-7.627122E-4	-9.556508E-3	-4.695191E-4	-1.389700E-2	2.513178E-3	-1.374237E-2	5.400323E-3	1.430090E-3	-7.241352E-3	-3.759788E-3	8.756416E-3	-1.070816E-2	-4.489827E-3	1.728818E-3	-2.317283E-3	3.855122E-3	4.674139E-4	2.828046E-3	-2.037986E-2	-3.714323E-3	-2.720561E-3	-9.766184E-3	-1.643875E-2	-9.618628E-4	-2.579071E-3	-8.622853E-3	6.711245E-3	-1.270541E-2	-2.277337E-3	1.515695E-2	8.224009E-3	2.882294E-3	1.903376E-3	-7.582678E-3	-1.540484E-3	5.438130E-3	8.869358E-4	8.381135E-3	-1.991026E-2	-4.742723E-3	1.291567E-2	7.054222E-3	-7.183249E-3	1.903138E-2	-9.579661E-3	-4.151166E-3	1.266111E-2	-5.831881E-3	-2.316353E-3	-5.860223E-3	4.670560E-3	-1.156176E-2	8.411729E-3	1.046882E-2	1.507181E-3	-7.331525E-3	3.521460E-3	-3.135382E-3	5.923282E-3	-1.485570E-2	6.800743E-3	-2.092004E-2	-4.242413E-3	-8.722385E-3	-3.810638E-3	2.106016E-3	-2.089883E-3	2.160048E-3	-1.042689E-2	-3.858560E-3	6.424242E-4	-1.001458E-2	-3.205461E-3	-1.156202E-2	-2.318514E-3	-5.674739E-3	-1.802568E-3	1.968771E-2	5.923134E-3	-1.144881E-3	9.749684E-5	-1.704765E-2	3.109162E-2
2.810050E+2	-8.502193E-3	1.691253E-2	-1.061324E-4	3.315614E-3	-8.532361E-3	5.562092E-3	2.712615E-4	3.275264E-3	-2.997397E-4	6.003319E-3	-9.761223E-4	6.202099E-3	-2.538965E-3	-6.176924E-3	-7.913159E-3	3.248393E-3	2.544043E-3	-6.189585E-3	-3.146880E-3	6.297415E-4	-1.018809E-2	-1.193875E-2	-1.116573E-2	3.969909E-3	1.594699E-3	2.875604E-3	1.102106E-2	1.851555E-3	-2.559904E-3	-8.617052E-4	8.965776E-3	-6.139116E-3	3.864180E-3	-1.835995E-3	1.257665E-2	1.116348E-2	-6.654029E-3	2.997554E-3	4.711405E-5	4.856344E-3	2.928925E-3	1.357402E-2	-1.397347E-3	-6.658829E-3	2.428722E-3	1.316929E-2	6.510811E-3	9.435571E-3	-2.220300E-3	1.765294E-3	-2.144494E-3	-3.489366E-3	-2.688325E-3	-2.086723E-3	3.285840E-3	1.779064E-2	2.150709E-2	1.614612E-2	2.233335E-3	-1.206236E-3	-1.689392E-4	1.753147E-3	-1.194696E-2	-3.400946E-3	4.775720E-5	4.291811E-3	8.422849E-3	1.169288E-2	8.734053E-3	-9.823407E-3	-1.317329E-3	9.839366E-3	-1.349362E-2	-1.250308E-2	-9.681345E-3	-1.056090E-2	-9.992677E-3	4.421066E-3	5.082959E-3	2.333106E-3	1.143809E-2	-1.955322E-3	-4.415170E-3	5.120152E-3	-5.336144E-3	-4.604862E-3	-1.455665E-3	5.435999E-4	1.257847E-2	8.964761E-3	3.834551E-3	9.174365E-3	1.286337E-3	2.239471E-3	1.662572E-2	-5.430895E-3	7.770389E-3	7.859418E-3	-9.590361E-3	1.726254E-2	5.193971E-3	1.920565E-3	1.819295E-2	-1.687330E-3	6.700638E-3	-1.209208E-2	6.198585E-3	2.836236E-3	5.038667E-3	-1.703728E-3	-6.592899E-4	5.317396E-3	-7.072334E-4	-1.204620E-3	1.315454E-3	3.803640E-3	-2.072631E-3	-1.178903E-3	-9.357393E-4	-5.029047E-3	7.810950E-4	6.811049E-3	-1.322412E-3	2.560293E-3	-8.531914E-3	-8.766087E-3	-3.644098E-3	4.233793E-3	-9.764622E-3	-1.066116E-2	-6.998017E-3	-1.177884E-2	-1.216703E-2	2.579180E-3	1.046462E-2	-4.589314E-3	-1.844539E-3	-1.106351E-2	-6.017788E-3	1.419122E-3	-2.401605E-3	-6.527956E-3	1.763338E-3	-2.031052E-3	-8.040445E-3	1.385285E-3	-9.460290E-3	7.977647E-3	-1.238365E-2	7.712256E-3	-1.591296E-3	-3.672698E-3	-6.414546E-3	-5.853234E-3	7.780707E-4	-2.939432E-3	1.243291E-2	6.349381E-3	-6.464904E-3	4.009957E-4	9.967131E-5	-7.057940E-3	1.106524E-2	2.233738E-3	-8.367620E-3	5.072431E-3	1.401589E-2	6.231078E-3	9.922224E-3	9.587716E-3	1.016404E-4
2.815020E+2	-9.967770E-4	-6.091867E-3	-1.866744E-3	3.013307E-3	1.308814E-2	5.772131E-4	-5.694675E-3	1.021974E-2	-3.381032E-3	5.679649E-3	2.425687E-3	-8.383014E-3	7.714166E-3	2.380934E-3	1.245703E-2	-9.349373E-3	3.750364E-3	-7.858057E-3	-5.924907E-3	-2.228517E-3	-6.416619E-3	2.821957E-2	-5.802921E-3	1.412884E-3	-1.647854E-2	-3.931816E-3	-1.182173E-3	-6.431202E-3	1.989062E-2	-4.860878E-3	-1.777900E-2	1.440316E-2	-1.442929E-2	2.147609E-3	-4.557115E-4	-1.349609E-3	-7.516321E-4	-3.357348E-3	-1.215806E-2	-1.135730E-7	-9.334530E-3	-1.558072E-2	-1.638656E-3	-2.796592E-3	4.597298E-3	-3.439353E-3	5.051302E-3	7.813722E-3	-9.707201E-3	1.176191E-2	1.743015E-3	6.791262E-4	4.957126E-3	5.737817E-3	9.139525E-3	-9.227503E-3	-9.617515E-3	-5.438978E-3	-3.275480E-3	-1.143203E-2	-8.820363E-3	1.172165E-2	-1.802108E-2	3.243494E-3	2.697144E-3	6.797236E-3	4.144603E-3	-7.935393E-3	-2.949193E-4	-8.834150E-3	-3.780872E-3	6.027064E-3	6.490307E-3	1.580769E-2	3.918404E-3	-6.869229E-3	2.787787E-3	-3.617157E-3	-6.579801E-3	-1.424484E-3	3.364919E-3	-2.172102E-3	-8.537604E-3	-3.195197E-3	9.200143E-3	1.637107E-3	5.868505E-4	-4.315533E-3	-1.247370E-2	1.257530E-2	9.116198E-3	3.862725E-3	-1.444336E-2	1.980469E-3	5.343653E-3	3.751696E-3	-5.832731E-3	-7.936048E-3	2.567576E-3	-3.475043E-3	6.703280E-3	6.635876E-3	-4.888551E-3	1.202574E-2	-1.456717E-2	-9.543323E-3	6.454074E-4	-2.588545E-4	-8.753204E-3	4.598631E-3	9.872370E-3	-2.064165E-4	-1.258965E-2	5.810237E-3	-5.972786E-3	1.620338E-2	1.971569E-2	1.114962E-3	8.203207E-3	-7.678082E-3	-6.798964E-3	2.343162E-3	-2.666039E-4	5.021149E-3	-8.767237E-3	1.688860E-3	-1.002415E-2	2.703296E-4	-1.149794E-2	-1.947038E-3	8.793288E-3	8.310069E-4	9.933613E-3	1.402180E-2	-1.567189E-2	-1.327278E-2	5.460478E-3	4.900474E-3	8.768480E-3	6.679067E-3	-1.261327E-2	-1.162560E-2	-6.238030E-3	-8.387064E-3	1.269004E-2	1.120162E-2	3.064061E-3	1.397363E-2	2.679395E-3	2.251253E-3	1.884724E-3	4.318707E-4	-4.995764E-3	-1.952136E-3	5.739582E-4	2.683612E-3	8.111347E-3	-7.591482E-3	6.748363E-4	1.409037E-2	1.347674E-2	1.989960E-2	-1.543690E-2	3.830064E-3	1.308812E-2	4.826868E-3	1.634608E-2	9.324052E-3	4.022581E-4	-5.373271E-4	3.113037E-2
2.820060E+2	4.092480E-3	5.592547E-3	7.366223E-3	2.353391E-4	5.650660E-3	1.183762E-2	-1.402246E-2	-1.123982E-2	1.261656E-2	-1.024924E-2	-3.359442E-3	2.457074E-2	9.435300E-3	2.679663E-3	3.639486E-3	1.009134E-2	-3.788088E-4	-3.284429E-3	3.345142E-3	1.976822E-3	3.114411E-3	-4.292568E-3	6.683409E-3	9.835888E-3	9.074978E-3	-2.330750E-3	-6.924525E-3	5.919980E-3	-2.505811E-3	1.177904E-2	7.937678E-3	4.336475E-3	8.906089E-4	-6.076316E-3	-1.755380E-4	4.386432E-3	8.055319E-4	1.891829E-3	1.999176E-2	7.295054E-3	8.366583E-3	5.311946E-3	1.197731E-2	-6.637049E-3	2.058074E-5	6.425920E-4	-1.200669E-2	2.994603E-3	3.479721E-3	-8.551109E-3	1.314928E-2	-7.951739E-3	3.934850E-3	7.501114E-3	-3.936817E-3	6.939729E-3	-5.058902E-3	-5.201687E-3	4.909594E-3	-1.194580E-3	-1.575528E-3	-3.407890E-3	1.757594E-2	9.335661E-3	7.419301E-3	-5.084805E-3	-3.521512E-3	1.058408E-2	7.638821E-3	1.351092E-2	1.070053E-3	6.465923E-3	1.567467E-2	-2.891546E-3	9.400476E-3	1.415312E-2	-2.587160E-3	-1.878126E-3	8.738468E-3	5.989487E-3	-4.120258E-3	-3.322275E-3	1.821088E-2	-6.973280E-3	1.717466E-2	4.584228E-3	5.487262E-3	-1.672333E-3	1.413172E-2	-4.042961E-3	6.828389E-3	-8.562086E-4	-5.337185E-5	-2.528738E-3	2.950310E-3	-4.141684E-3	1.088535E-2	9.653211E-3	-1.721848E-2	1.453797E-2	1.228095E-2	8.221994E-4	-2.043441E-3	3.493371E-3	2.185202E-2	1.138299E-2	7.636730E-3	3.808492E-5	-1.303450E-2	-4.251631E-3	1.029515E-2	1.333793E-2	1.603149E-2	9.060111E-3	4.227885E-3	-3.192742E-3	-3.493378E-3	2.748068E-3	3.873472E-3	1.089150E-2	2.589933E-2	-7.321993E-3	-2.533711E-3	-6.797953E-3	1.274381E-2	3.348727E-3	6.393273E-3	6.817532E-3	5.632511E-3	1.779814E-2	-4.004347E-3	3.998919E-3	8.904594E-3	-1.173277E-2	3.141795E-3	1.376554E-2	-4.833641E-3	-1.528958E-3	-4.655719E-4	-5.434571E-3	9.109636E-3	3.428793E-3	-5.962859E-3	1.041141E-2	-4.989327E-3	-1.447131E-2	4.819603E-3	2.723885E-3	-1.145687E-3	-1.266458E-3	-7.677820E-3	4.201230E-3	-3.209165E-3	-3.205671E-4	-4.441330E-3	6.776809E-3	4.239899E-3	6.447922E-3	1.080030E-2	-1.550228E-3	-2.802081E-3	4.523106E-3	8.218108E-3	5.669007E-3	6.684054E-3	1.442639E-3	-6.858533E-3	3.320602E-3	-6.563891E-3	-1.022371E-2	6.542891E-3
2.825040E+2	5.850128E-3	1.231938E-2	1.355167E-2	1.286411E-2	-2.027708E-3	-4.912860E-4	1.343878E-2	1.080297E-2	2.144404E-2	9.501076E-3	1.269423E-2	1.037675E-2	-8.902529E-3	1.172110E-2	-1.347251E-2	2.378509E-3	7.392384E-3	-4.561178E-3	1.129560E-2	7.423851E-3	1.259948E-2	3.514226E-3	1.359380E-2	3.069240E-3	2.576929E-2	1.761891E-2	1.853287E-2	7.473801E-3	7.141627E-3	1.705914E-2	2.605579E-3	5.685017E-3	1.171675E-2	4.061591E-3	-7.715750E-3	-2.247894E-3	-2.690260E-3	1.313875E-2	7.033001E-3	1.447422E-2	1.938642E-2	-9.727902E-3	-6.031038E-3	1.279928E-2	2.715892E-3	9.690961E-3	6.721594E-3	-9.556921E-3	1.243572E-2	4.856555E-3	2.201100E-3	1.156547E-2	-5.116087E-3	-3.227697E-3	1.835557E-2	5.916832E-3	2.607341E-2	-7.631774E-4	2.627849E-2	1.407182E-2	1.831495E-2	9.703115E-3	1.549402E-2	1.769603E-2	9.104438E-3	4.626893E-3	2.083147E-2	1.081022E-2	-1.039691E-3	1.746767E-2	8.081820E-3	4.242873E-3	1.446099E-2	5.486056E-3	-5.577064E-3	3.256142E-2	9.238102E-3	1.277314E-2	1.126003E-2	3.874343E-3	8.583519E-3	2.184456E-2	1.316655E-2	1.639128E-2	5.487856E-3	-4.289580E-4	1.146433E-3	7.890143E-3	-3.290625E-3	-1.221034E-3	-6.858836E-3	1.343291E-2	2.962102E-3	1.236224E-2	-1.007806E-3	1.028232E-2	1.692461E-2	8.397681E-3	1.244548E-2	-1.469872E-3	-4.942076E-3	3.487212E-3	6.954115E-4	-1.433605E-3	5.438154E-3	-2.215970E-3	2.116962E-2	1.601900E-2	2.958535E-2	1.047549E-2	1.417485E-2	3.838103E-4	6.221304E-3	1.218549E-2	1.719831E-2	6.911878E-3	-4.815076E-3	6.817291E-3	8.812361E-3	2.215164E-2	9.855145E-4	1.287555E-2	9.347617E-3	2.176266E-2	1.788617E-2	1.832522E-2	2.658615E-2	5.774266E-3	8.908015E-3	-1.198126E-2	5.884213E-4	-1.553764E-3	4.896450E-3	1.075019E-2	3.353843E-3	1.401489E-2	1.970698E-2	2.583901E-2	-4.414262E-3	1.000223E-2	7.895465E-3	1.850097E-2	7.243125E-3	6.907353E-3	8.788940E-3	-2.742778E-3	-3.554248E-3	-2.924905E-3	1.164845E-2	1.586401E-2	1.231104E-2	9.572876E-4	1.363720E-2	2.583530E-3	5.042854E-3	-3.134566E-3	1.010927E-2	6.655877E-3	2.405186E-3	1.231190E-2	1.401643E-2	7.631447E-3	1.137168E-2	-6.153683E-3	2.800322E-3	2.890637E-3	1.201335E-3	-1.281497E-3	3.309811E-3	1.656573E-2	-5.836190E-3
2.830040E+2	-5.814537E-3	1.184082E-2	2.369767E-2	4.394513E-3	1.968000E-3	8.309632E-3	5.698024E-3	1.418131E-3	1.814330E-2	-9.398966E-3	1.366103E-2	1.798257E-2	1.328517E-2	2.918834E-2	1.643368E-2	3.202864E-3	1.759725E-2	1.230741E-2	1.349761E-2	1.365694E-2	2.162143E-2	2.507079E-2	1.002136E-2	1.337245E-2	1.491636E-2	1.471852E-2	1.955367E-2	1.392446E-2	2.040687E-2	9.144223E-3	1.367288E-2	1.951296E-2	1.732180E-2	2.085000E-2	1.512901E-2	8.260407E-3	1.070642E-2	6.722700E-3	1.919440E-2	2.146695E-2	6.999016E-3	1.763676E-2	1.816511E-2	1.940515E-2	2.860192E-2	2.227487E-2	1.237611E-2	1.066611E-2	1.047192E-2	2.661705E-2	1.161943E-2	1.996661E-3	2.378163E-2	-9.727247E-4	2.079240E-2	8.053720E-3	1.072606E-2	8.717746E-3	1.672579E-2	3.038954E-2	5.179001E-3	4.224644E-2	1.551131E-2	2.726154E-2	1.466184E-2	1.525774E-2	8.342804E-3	6.144649E-3	1.410295E-2	1.372024E-2	1.248963E-2	3.940599E-2	2.143238E-2	7.726362E-3	2.467569E-2	2.069037E-2	2.212909E-2	5.840612E-3	1.227384E-2	1.322452E-2	-7.870077E-3	1.853478E-2	7.763831E-4	2.436296E-2	-4.053849E-3	8.303950E-3	1.241176E-2	1.833671E-2	1.996947E-2	-4.297624E-3	2.057419E-2	2.353454E-2	2.367541E-3	1.093633E-2	2.509320E-2	1.248350E-2	3.241328E-3	2.541718E-2	1.349785E-2	1.443332E-2	1.904470E-2	3.456602E-2	1.837768E-2	2.655585E-2	3.395496E-2	9.790329E-3	8.901045E-3	3.878507E-3	-1.542270E-3	7.461738E-3	9.126208E-3	1.340601E-2	1.226172E-2	2.501497E-2	1.261285E-2	2.942922E-2	1.847201E-2	-7.874158E-3	2.296774E-2	1.842898E-2	2.886188E-2	6.808281E-4	5.024002E-3	1.869652E-2	-4.278205E-3	8.467531E-3	1.254121E-2	2.444573E-2	1.454812E-2	2.064337E-2	2.943823E-3	1.086308E-2	2.291982E-2	-8.259413E-3	8.029767E-3	2.498705E-2	1.772095E-2	1.600317E-2	-7.884516E-3	6.697454E-3	2.492584E-2	1.073698E-2	1.345502E-2	2.795613E-2	1.131311E-2	2.155426E-2	1.315101E-2	3.950660E-2	8.445990E-3	3.805948E-3	2.334746E-2	1.466114E-2	3.930821E-2	2.005302E-2	1.264366E-2	1.299177E-2	9.651745E-3	2.031774E-2	3.325100E-2	5.822025E-3	1.647989E-2	-1.535521E-4	9.406243E-3	1.138012E-2	2.439156E-2	1.010197E-2	-6.518111E-4	1.746373E-2	1.402704E-2	2.094982E-2	2.711453E-2
2.835020E+2	1.639851E-2	4.681629E-5	2.857876E-2	2.998630E-2	6.513577E-3	3.239644E-3	1.601180E-2	3.303005E-2	2.228353E-2	1.900420E-2	1.639135E-2	1.545411E-2	3.423835E-2	1.299169E-2	2.525761E-2	1.747419E-2	2.567810E-2	2.321024E-2	1.624838E-2	2.750131E-2	2.715158E-2	-8.371977E-4	3.811062E-2	1.244726E-2	3.220140E-2	1.777362E-2	2.987238E-2	1.974706E-2	4.345733E-3	2.266617E-2	3.847337E-2	3.323553E-2	2.256507E-2	1.243318E-2	3.940053E-2	3.391563E-2	3.603425E-2	2.103190E-2	1.858172E-2	3.739974E-3	3.080896E-2	1.780815E-2	1.475656E-2	1.965284E-2	4.459605E-2	1.886931E-2	2.240042E-2	3.752680E-2	3.160454E-2	2.981954E-2	3.494907E-2	1.724740E-2	3.372850E-2	3.700444E-2	3.274888E-2	3.500775E-2	3.207213E-2	1.905356E-2	2.935035E-2	1.916281E-2	6.567655E-3	1.897357E-2	-3.949386E-5	7.460614E-3	1.317149E-2	3.389393E-2	3.212549E-2	2.355807E-2	2.090659E-2	2.313004E-2	1.401101E-2	4.400681E-2	3.222688E-2	2.614959E-2	4.746086E-2	2.643357E-2	1.638587E-2	1.137329E-2	3.784126E-2	2.101157E-2	3.897073E-2	9.496631E-3	3.093849E-2	4.452811E-2	9.606023E-3	3.275622E-2	2.341288E-2	2.118103E-2	2.622127E-2	1.200130E-2	2.794983E-2	4.386716E-2	1.250525E-2	3.795981E-2	3.408915E-2	3.253683E-2	3.489027E-2	3.009689E-2	3.280702E-2	2.521246E-2	3.190090E-2	1.069927E-2	4.392994E-2	2.030899E-2	1.856427E-2	1.985195E-2	2.565138E-2	2.302719E-2	2.167956E-2	3.504009E-2	1.063143E-2	1.373649E-2	2.426440E-2	-2.148148E-3	6.883186E-3	4.161850E-2	2.778258E-2	2.128633E-2	2.961556E-2	2.400133E-2	1.992124E-2	3.154850E-2	1.715978E-2	3.427741E-2	8.830123E-3	4.058508E-2	3.735986E-2	3.269581E-2	3.052271E-2	3.326965E-2	1.805314E-2	2.272945E-2	3.343208E-2	2.833104E-2	8.160423E-3	2.804654E-2	1.774562E-2	1.334476E-2	2.605180E-2	3.690593E-2	2.679275E-2	2.115978E-2	2.039966E-2	2.460610E-2	1.130380E-2	2.470966E-2	2.655238E-2	3.716013E-2	3.034637E-2	-4.181965E-3	2.375125E-2	3.779460E-2	2.568370E-2	2.890162E-2	4.037639E-2	1.969335E-2	1.995275E-2	5.615214E-2	2.621550E-2	3.052180E-2	4.313738E-2	-3.252479E-3	1.699040E-2	2.070929E-2	1.483228E-2	2.979514E-2	3.751336E-2	3.414710E-2	1.806748E-2	4.695097E-2	2.267239E-2
2.840050E+2	1.432920E-2	4.412437E-2	7.106123E-2	3.963364E-2	4.750138E-2	4.236465E-2	5.217740E-2	5.148381E-2	4.075271E-2	2.891485E-2	5.632401E-2	3.462209E-2	3.423822E-2	5.339607E-2	4.247157E-2	3.546252E-2	5.406144E-2	3.525082E-2	4.612306E-2	2.462536E-2	3.626640E-2	4.189128E-2	4.668226E-2	4.557759E-2	4.931013E-2	1.346822E-2	4.139472E-2	6.665018E-2	3.110031E-2	4.301945E-2	1.886322E-2	3.589934E-2	4.179875E-2	4.719145E-2	5.047827E-2	4.703086E-2	4.140895E-2	4.622621E-2	2.566250E-2	4.795671E-2	2.173954E-2	2.347824E-2	3.520931E-2	3.548204E-2	2.747936E-2	4.478190E-2	4.463837E-2	4.991431E-2	5.739619E-2	4.731015E-2	2.463640E-2	5.486025E-2	3.434623E-2	2.886576E-2	4.471004E-2	4.579240E-2	3.288721E-2	5.814673E-2	3.634860E-2	6.833703E-2	5.711679E-2	5.480982E-2	5.390681E-2	2.220690E-2	5.309710E-2	4.426056E-2	4.221992E-2	3.834361E-2	3.138019E-2	4.820188E-2	4.289414E-2	3.557526E-2	3.521886E-2	4.638131E-2	4.384394E-2	3.334588E-2	4.789112E-2	3.626108E-2	2.839035E-2	2.868109E-2	3.676618E-2	2.619750E-2	4.087646E-2	3.474796E-2	1.547462E-2	4.811235E-2	1.511326E-2	3.614938E-2	3.856602E-2	1.052516E-2	4.406669E-2	3.341096E-2	5.743148E-2	4.744004E-2	3.856302E-2	3.408188E-2	5.804079E-2	5.293061E-2	4.268774E-2	5.479494E-2	4.779020E-2	2.754690E-2	3.078046E-2	3.641528E-2	5.982922E-2	5.920437E-2	2.714358E-2	5.320199E-2	3.580785E-2	3.523319E-2	3.358278E-2	3.882830E-2	3.627219E-2	2.188268E-2	1.401737E-2	5.225498E-2	4.171218E-2	2.129118E-2	4.608794E-2	3.708957E-2	2.115755E-2	6.323150E-2	3.765147E-2	4.142344E-2	4.115860E-2	4.219099E-2	5.872826E-2	2.222754E-2	4.012081E-2	4.588704E-2	6.137471E-2	2.097638E-2	4.832797E-2	5.899955E-2	2.767947E-2	5.018440E-2	3.668245E-2	4.470835E-2	4.634359E-2	3.107480E-2	4.190663E-2	4.473292E-2	2.857162E-2	5.746472E-2	3.487447E-2	3.676309E-2	3.095430E-2	5.583443E-2	3.928962E-2	3.954185E-2	5.654689E-2	4.793266E-2	4.789367E-2	3.460052E-2	5.040138E-2	2.893744E-2	4.972923E-2	3.403486E-2	3.277585E-2	4.521826E-2	4.148846E-2	4.977096E-2	5.711164E-2	1.723771E-2	3.904383E-2	4.717164E-2	5.859542E-2	2.890450E-2	6.039567E-2	3.458609E-2	1.081830E-2
2.841030E+2	3.801948E-2	3.275848E-2	4.169295E-2	7.176905E-2	7.170812E-2	6.811019E-2	5.601066E-2	6.625157E-2	6.179118E-2	3.301464E-2	4.927964E-2	8.566718E-2	3.736574E-2	5.730551E-2	6.165713E-2	4.336493E-2	4.764457E-2	4.206129E-2	7.168023E-2	4.764576E-2	6.091085E-2	6.300444E-2	4.739701E-2	5.996505E-2	5.308619E-2	4.352369E-2	3.433004E-2	4.025346E-2	4.405463E-2	5.185432E-2	3.367783E-2	3.403804E-2	4.660356E-2	5.557238E-2	4.984869E-2	4.630465E-2	4.335358E-2	3.900001E-2	4.746212E-2	5.990158E-2	4.428078E-2	5.361417E-2	4.104571E-2	5.375390E-2	4.211225E-2	5.365446E-2	6.149407E-2	5.887886E-2	4.872109E-2	6.381030E-2	3.561637E-2	6.199865E-2	5.688103E-2	6.001031E-2	5.331206E-2	7.278910E-2	8.709558E-2	6.816322E-2	7.233102E-2	4.770333E-2	4.164132E-2	5.594563E-2	4.967588E-2	5.635280E-2	4.907342E-2	4.368501E-2	4.439127E-2	5.103382E-2	5.865599E-2	5.442588E-2	4.120826E-2	4.526831E-2	4.323120E-2	6.334046E-2	6.077657E-2	4.232505E-2	5.891187E-2	4.562138E-2	4.266120E-2	4.578060E-2	4.441275E-2	6.026445E-2	7.128176E-2	4.271521E-2	6.002747E-2	4.348812E-2	5.098051E-2	7.314212E-2	4.566905E-2	5.759375E-2	7.289404E-2	5.051455E-2	5.769208E-2	3.675950E-2	4.667583E-2	5.889601E-2	5.493364E-2	6.948418E-2	5.658481E-2	4.615427E-2	6.359585E-2	4.683375E-2	5.460657E-2	6.027443E-2	5.983973E-2	6.905995E-2	5.332048E-2	6.315941E-2	5.418744E-2	6.561767E-2	4.848061E-2	5.227646E-2	4.073643E-2	3.804956E-2	3.418648E-2	6.210162E-2	5.250142E-2	6.580117E-2	6.199228E-2	3.650685E-2	4.695186E-2	5.794993E-2	6.052824E-2	5.940633E-2	5.405808E-2	6.870807E-2	4.754687E-2	6.819901E-2	4.572165E-2	6.422713E-2	5.126143E-2	5.976558E-2	5.807866E-2	6.548128E-2	5.617536E-2	6.923991E-2	6.821027E-2	5.125014E-2	5.588739E-2	6.575989E-2	5.334549E-2	4.942573E-2	3.473655E-2	5.961235E-2	3.393120E-2	5.909172E-2	4.681105E-2	4.730973E-2	3.255266E-2	4.029837E-2	5.206593E-2	7.208370E-2	4.378936E-2	6.452281E-2	3.550908E-2	4.572036E-2	6.560433E-2	6.022205E-2	4.918552E-2	6.192091E-2	4.052767E-2	6.448260E-2	4.228541E-2	5.625621E-2	4.554038E-2	5.862628E-2	3.414863E-2	4.665189E-2	6.123042E-2	3.876443E-2	3.828808E-2
2.842070E+2	8.475206E-2	6.252615E-2	6.427358E-2	7.207732E-2	6.697580E-2	6.507439E-2	9.165826E-2	6.812802E-2	7.231446E-2	8.046409E-2	8.486442E-2	8.744618E-2	6.263967E-2	8.300627E-2	9.042253E-2	7.764323E-2	8.263818E-2	6.244543E-2	6.091384E-2	9.158369E-2	9.336521E-2	7.425155E-2	8.835329E-2	8.771967E-2	6.694048E-2	7.909056E-2	9.134905E-2	4.916524E-2	7.897833E-2	5.895634E-2	6.854246E-2	7.915108E-2	8.938969E-2	6.968199E-2	8.728056E-2	9.485880E-2	6.430253E-2	7.245110E-2	8.677133E-2	8.773465E-2	5.696790E-2	8.210715E-2	9.339682E-2	8.352185E-2	6.586510E-2	7.843305E-2	9.793666E-2	7.833880E-2	7.338604E-2	7.204582E-2	6.718873E-2	7.186304E-2	7.655000E-2	7.478860E-2	9.451721E-2	9.937726E-2	7.845967E-2	8.686883E-2	7.550863E-2	9.382353E-2	6.018552E-2	8.691581E-2	8.559129E-2	1.077829E-1	7.530550E-2	8.361248E-2	7.776588E-2	7.081993E-2	7.171516E-2	7.849112E-2	8.164126E-2	8.042549E-2	5.102112E-2	5.485338E-2	5.839990E-2	5.927931E-2	7.575003E-2	8.543216E-2	9.020148E-2	5.874106E-2	7.308113E-2	6.849215E-2	7.875787E-2	7.227570E-2	6.641816E-2	7.876256E-2	7.944598E-2	8.232758E-2	9.320802E-2	6.076097E-2	8.666179E-2	7.011116E-2	7.568166E-2	9.399906E-2	8.851167E-2	4.403725E-2	6.479076E-2	8.878405E-2	7.005290E-2	9.882104E-2	8.723210E-2	7.789765E-2	9.598320E-2	5.651608E-2	7.477186E-2	7.121628E-2	7.220537E-2	9.739434E-2	7.561740E-2	1.251565E-1	1.085456E-1	6.692414E-2	1.033300E-1	8.921637E-2	7.846800E-2	7.471312E-2	6.848108E-2	7.762143E-2	6.998905E-2	6.699270E-2	6.649443E-2	8.444446E-2	6.088694E-2	6.265166E-2	7.651198E-2	9.401647E-2	6.931065E-2	8.876084E-2	6.000300E-2	7.148338E-2	8.308186E-2	9.703835E-2	6.959701E-2	7.459230E-2	8.719569E-2	6.443495E-2	7.472150E-2	7.633143E-2	6.358045E-2	9.288562E-2	8.795617E-2	7.767878E-2	8.387166E-2	6.528253E-2	7.053748E-2	6.876580E-2	6.697776E-2	8.517483E-2	6.688800E-2	7.831056E-2	7.762465E-2	6.509205E-2	6.837458E-2	8.106699E-2	7.998037E-2	8.798981E-2	8.263466E-2	8.217695E-2	8.643467E-2	9.821031E-2	7.966701E-2	6.795778E-2	7.714594E-2	8.872351E-2	7.497659E-2	8.847203E-2	6.966594E-2	9.848310E-2	5.117456E-2	6.048789E-2	6.559514E-2
2.843010E+2	1.075577E-1	1.231207E-1	9.073454E-2	8.783698E-2	1.136274E-1	1.439233E-1	9.423607E-2	1.163456E-1	1.413971E-1	9.889776E-2	1.179072E-1	1.027711E-1	8.633840E-2	8.862334E-2	1.206945E-1	1.207856E-1	1.086668E-1	1.149784E-1	1.249352E-1	8.550441E-2	1.327110E-1	1.001671E-1	1.176282E-1	1.092639E-1	1.273885E-1	1.073641E-1	1.345791E-1	1.140995E-1	1.065726E-1	1.122264E-1	1.278830E-1	8.144665E-2	1.017354E-1	1.265768E-1	1.177694E-1	9.303669E-2	1.221058E-1	1.097596E-1	1.242325E-1	1.042252E-1	9.827954E-2	1.388872E-1	1.092928E-1	1.114686E-1	1.181922E-1	1.057862E-1	1.032055E-1	1.252955E-1	9.626237E-2	1.469212E-1	1.210590E-1	1.455948E-1	1.248364E-1	1.395601E-1	1.132864E-1	1.047873E-1	1.128281E-1	9.713445E-2	1.152412E-1	1.114936E-1	9.148973E-2	1.235135E-1	9.331848E-2	1.196588E-1	9.705840E-2	1.249704E-1	1.152890E-1	1.081622E-1	7.392504E-2	1.172729E-1	1.063927E-1	1.170017E-1	1.095042E-1	1.135488E-1	1.556093E-1	1.164869E-1	1.243329E-1	1.125078E-1	1.358054E-1	1.161956E-1	1.057980E-1	1.495408E-1	1.186893E-1	1.041961E-1	9.169380E-2	8.255835E-2	1.105193E-1	1.078058E-1	1.201485E-1	1.479449E-1	1.057728E-1	9.462913E-2	1.303507E-1	1.383832E-1	9.559176E-2	1.326690E-1	8.780307E-2	1.150253E-1	1.113177E-1	1.338295E-1	1.088467E-1	1.182253E-1	1.126176E-1	1.072098E-1	9.546965E-2	1.082404E-1	9.196730E-2	7.967209E-2	1.324810E-1	1.269957E-1	1.155215E-1	1.125320E-1	1.231790E-1	1.157647E-1	9.638362E-2	9.091084E-2	1.306295E-1	1.166123E-1	1.212558E-1	1.279769E-1	9.910338E-2	1.134815E-1	9.698255E-2	1.384197E-1	1.118551E-1	9.702576E-2	1.451409E-1	1.241641E-1	9.404723E-2	9.054555E-2	1.032722E-1	1.342273E-1	1.229462E-1	1.332479E-1	1.155672E-1	1.106528E-1	1.383340E-1	1.128481E-1	1.181803E-1	1.076324E-1	9.208192E-2	1.414354E-1	1.191383E-1	1.175681E-1	9.710246E-2	1.267405E-1	1.205307E-1	1.276657E-1	1.052299E-1	1.080263E-1	1.015961E-1	9.745508E-2	1.195490E-1	9.116656E-2	1.172313E-1	1.443612E-1	1.138327E-1	1.323498E-1	9.981749E-2	7.817233E-2	1.381274E-1	1.107079E-1	1.324685E-1	1.013030E-1	8.973599E-2	1.188721E-1	9.778786E-2	1.223823E-1	1.297659E-1	1.208387E-1	8.860206E-2
2.844010E+2	1.548114E-1	1.764688E-1	1.881947E-1	1.469843E-1	1.700838E-1	1.714226E-1	1.990855E-1	1.544585E-1	1.488344E-1	2.094254E-1	1.459128E-1	1.356837E-1	2.048778E-1	1.533337E-1	1.774417E-1	1.591940E-1	1.808352E-1	1.686949E-1	1.856857E-1	1.902061E-1	1.572840E-1	1.560547E-1	1.554560E-1	1.677064E-1	1.718357E-1	1.735814E-1	1.819316E-1	1.449123E-1	1.771761E-1	1.593633E-1	1.838592E-1	1.538380E-1	1.925199E-1	1.312503E-1	1.654265E-1	1.645289E-1	1.555710E-1	1.735982E-1	1.507896E-1	1.309890E-1	1.768261E-1	1.660790E-1	1.729663E-1	1.534474E-1	1.660551E-1	1.763621E-1	1.843819E-1	1.586958E-1	1.362741E-1	1.630693E-1	1.586614E-1	1.258216E-1	1.626953E-1	1.442515E-1	1.668237E-1	1.704988E-1	2.046820E-1	1.453253E-1	1.754027E-1	1.952270E-1	1.802541E-1	1.633077E-1	1.583647E-1	1.552939E-1	1.457978E-1	1.385982E-1	1.824958E-1	1.399687E-1	1.855456E-1	1.724443E-1	1.621034E-1	1.592564E-1	1.680954E-1	1.480103E-1	1.612774E-1	1.462531E-1	1.636757E-1	1.489292E-1	1.625796E-1	1.652877E-1	1.534971E-1	1.770225E-1	1.650349E-1	1.836706E-1	1.552040E-1	1.625308E-1	1.692895E-1	1.860429E-1	1.570486E-1	1.527842E-1	1.683208E-1	1.805613E-1	1.506824E-1	1.546676E-1	1.772611E-1	1.561898E-1	1.617626E-1	1.769946E-1	1.882304E-1	1.952779E-1	1.825676E-1	1.658929E-1	1.657073E-1	1.631183E-1	1.724801E-1	1.824992E-1	1.849317E-1	1.439859E-1	1.662103E-1	1.909958E-1	1.513335E-1	1.761781E-1	1.741558E-1	1.879923E-1	1.582318E-1	1.575853E-1	1.658541E-1	1.659550E-1	1.833922E-1	2.042131E-1	1.687741E-1	1.933155E-1	1.481302E-1	1.266972E-1	1.515707E-1	1.825886E-1	1.752707E-1	1.598160E-1	1.847580E-1	1.432630E-1	1.835045E-1	1.577826E-1	1.802514E-1	1.678682E-1	1.713408E-1	1.668499E-1	1.530115E-1	2.108247E-1	1.542575E-1	1.622082E-1	1.514074E-1	1.510485E-1	1.604798E-1	1.650840E-1	1.523742E-1	1.791212E-1	1.423781E-1	1.691957E-1	1.923603E-1	1.465281E-1	1.557952E-1	1.667763E-1	1.588502E-1	2.309098E-1	1.579828E-1	1.334096E-1	1.664534E-1	1.962221E-1	1.886996E-1	1.868123E-1	1.555732E-1	1.855156E-1	1.677722E-1	1.653080E-1	1.710322E-1	1.286061E-1	1.998611E-1	1.539769E-1	1.251571E-1	1.721278E-1	1.918065E-1
2.845030E+2	2.012078E-1	2.039251E-1	1.987195E-1	1.933855E-1	2.068052E-1	2.115760E-1	2.234281E-1	2.252417E-1	2.061923E-1	2.246102E-1	2.107556E-1	2.095162E-1	2.594781E-1	2.222432E-1	2.187092E-1	1.934496E-1	2.200014E-1	2.140082E-1	2.034543E-1	1.809198E-1	1.784935E-1	2.114421E-1	2.161179E-1	2.143525E-1	2.387004E-1	2.264138E-1	2.091213E-1	1.985626E-1	2.146519E-1	2.130104E-1	2.066848E-1	2.093193E-1	1.975407E-1	2.403530E-1	2.083296E-1	1.771806E-1	2.307873E-1	2.085225E-1	1.962502E-1	2.389560E-1	1.804205E-1	2.230311E-1	1.937126E-1	2.609553E-1	2.352042E-1	1.882839E-1	2.348463E-1	1.943194E-1	2.074839E-1	1.604371E-1	1.776154E-1	2.254898E-1	2.267023E-1	2.164501E-1	2.430183E-1	2.156359E-1	1.762656E-1	2.209245E-1	1.876683E-1	1.986981E-1	2.142226E-1	2.565247E-1	2.176747E-1	2.350770E-1	2.037744E-1	1.632145E-1	2.215422E-1	1.941549E-1	1.915934E-1	1.868120E-1	1.827969E-1	2.116167E-1	2.351076E-1	2.177441E-1	2.105207E-1	2.038472E-1	1.939466E-1	1.844061E-1	2.244354E-1	2.152086E-1	2.324470E-1	2.100975E-1	2.092941E-1	2.069205E-1	2.286788E-1	2.519887E-1	2.051575E-1	2.203025E-1	2.159016E-1	1.941288E-1	2.057735E-1	2.010715E-1	1.891781E-1	2.107406E-1	2.326118E-1	2.272772E-1	1.736984E-1	2.589320E-1	2.077527E-1	1.912033E-1	1.998111E-1	2.102741E-1	1.930417E-1	2.240445E-1	2.164474E-1	2.288714E-1	2.396457E-1	2.436928E-1	1.740075E-1	1.889366E-1	2.131153E-1	2.335326E-1	2.027885E-1	2.370342E-1	2.302555E-1	1.940326E-1	2.385827E-1	1.921678E-1	2.179645E-1	2.400099E-1	2.129287E-1	2.506443E-1	2.200287E-1	2.176576E-1	1.599332E-1	1.804323E-1	2.198877E-1	2.058396E-1	2.404611E-1	2.215151E-1	2.277514E-1	2.354726E-1	1.978818E-1	2.480563E-1	1.925977E-1	2.118879E-1	2.010451E-1	1.998192E-1	2.151876E-1	2.161329E-1	2.348134E-1	2.212595E-1	2.083185E-1	2.148114E-1	2.284709E-1	2.085158E-1	1.727159E-1	2.067391E-1	2.213417E-1	2.186710E-1	1.728360E-1	2.320092E-1	2.471336E-1	2.047335E-1	2.257876E-1	2.129823E-1	2.444028E-1	1.943032E-1	2.003556E-1	2.013005E-1	2.140085E-1	2.564155E-1	1.925905E-1	2.318072E-1	2.331316E-1	2.419622E-1	2.007388E-1	2.337558E-1	2.251659E-1	1.874912E-1	1.995611E-1
2.846010E+2	3.092112E-1	3.818426E-1	3.256628E-1	3.304303E-1	3.230595E-1	3.258879E-1	3.413715E-1	3.272281E-1	3.152432E-1	3.512778E-1	2.926485E-1	3.393634E-1	3.101950E-1	3.655210E-1	4.028109E-1	3.173962E-1	3.282853E-1	3.024838E-1	3.257321E-1	3.223366E-1	3.283580E-1	3.620882E-1	3.298738E-1	3.262807E-1	3.328709E-1	3.046656E-1	3.193856E-1	3.166738E-1	3.347684E-1	3.208391E-1	3.547650E-1	3.301448E-1	3.243005E-1	3.683085E-1	3.142251E-1	3.133589E-1	3.163210E-1	3.428508E-1	3.477622E-1	3.139963E-1	3.574187E-1	3.741959E-1	3.264040E-1	3.031665E-1	3.265278E-1	3.435393E-1	3.289347E-1	3.673453E-1	3.019406E-1	3.525786E-1	3.120237E-1	2.987725E-1	2.842268E-1	3.640222E-1	3.372164E-1	3.485658E-1	3.486577E-1	3.007061E-1	3.070825E-1	2.466716E-1	3.397682E-1	3.357218E-1	3.210208E-1	3.020909E-1	3.296804E-1	3.083987E-1	3.413410E-1	3.790014E-1	3.211990E-1	3.212848E-1	3.308860E-1	3.471280E-1	3.373972E-1	3.397710E-1	3.485410E-1	3.207031E-1	3.436825E-1	3.260070E-1	3.360002E-1	3.325091E-1	3.280273E-1	3.198676E-1	3.152313E-1	3.404852E-1	3.627768E-1	3.545277E-1	3.795602E-1	3.291315E-1	3.383835E-1	3.351122E-1	3.159611E-1	3.183430E-1	3.124179E-1	3.124944E-1	3.497327E-1	3.561473E-1	3.521468E-1	3.304444E-1	3.121108E-1	2.762475E-1	3.470063E-1	3.612825E-1	3.406299E-1	3.380377E-1	3.495293E-1	3.031313E-1	3.392397E-1	2.839781E-1	2.992180E-1	3.219502E-1	3.684337E-1	2.930518E-1	3.502142E-1	3.562881E-1	3.469016E-1	3.765374E-1	3.389509E-1	2.997379E-1	3.265114E-1	3.022300E-1	3.434546E-1	3.720825E-1	3.331286E-1	3.620682E-1	3.269144E-1	3.317094E-1	3.121200E-1	3.578941E-1	3.144024E-1	3.269817E-1	3.225623E-1	2.820562E-1	3.273425E-1	3.747851E-1	3.490165E-1	3.348368E-1	3.199803E-1	3.312023E-1	3.741813E-1	3.288527E-1	3.619770E-1	3.586518E-1	3.664139E-1	3.821684E-1	2.835120E-1	3.519740E-1	3.179529E-1	3.380914E-1	2.968923E-1	3.220685E-1	3.421853E-1	3.048261E-1	3.142943E-1	3.467906E-1	3.356641E-1	3.327868E-1	3.722796E-1	3.338893E-1	3.267049E-1	3.164072E-1	2.815457E-1	3.701250E-1	3.161542E-1	3.753614E-1	3.003177E-1	3.363008E-1	3.252274E-1	3.068919E-1	3.629760E-1	2.979837E-1	2.658200E-1
2.847020E+2	7.220949E-1	7.803544E-1	7.681189E-1	7.978962E-1	7.515494E-1	7.480531E-1	8.525654E-1	7.807310E-1	7.894086E-1	9.268575E-1	8.194117E-1	7.737814E-1	7.651460E-1	8.551027E-1	7.781977E-1	7.851010E-1	7.901981E-1	7.794093E-1	7.970360E-1	7.332024E-1	8.151738E-1	7.983973E-1	7.574175E-1	7.949618E-1	8.044832E-1	7.591851E-1	8.417865E-1	7.829416E-1	8.086186E-1	7.615251E-1	7.845981E-1	7.359463E-1	7.876464E-1	8.356034E-1	7.947742E-1	7.927155E-1	7.916533E-1	7.921666E-1	7.628877E-1	7.918633E-1	7.350639E-1	7.982312E-1	8.132507E-1	7.273215E-1	7.481853E-1	7.930111E-1	7.713378E-1	7.964240E-1	7.502516E-1	8.541464E-1	7.839825E-1	8.198028E-1	8.151234E-1	8.082275E-1	8.263152E-1	7.918113E-1	7.948610E-1	8.198111E-1	8.570740E-1	8.287198E-1	8.046327E-1	7.453017E-1	7.708114E-1	8.044171E-1	8.365116E-1	7.794044E-1	8.852418E-1	8.231559E-1	8.182237E-1	7.836475E-1	7.707107E-1	7.570345E-1	7.800912E-1	7.806084E-1	8.442244E-1	8.047798E-1	8.024935E-1	8.078387E-1	8.226170E-1	7.894163E-1	7.944321E-1	8.167356E-1	8.002191E-1	7.700013E-1	8.447499E-1	7.687829E-1	7.563398E-1	8.427431E-1	8.257373E-1	8.345301E-1	7.772678E-1	8.127964E-1	7.518208E-1	7.819384E-1	8.037472E-1	8.099264E-1	7.216958E-1	8.899103E-1	8.004782E-1	8.176795E-1	7.646158E-1	8.424846E-1	7.664786E-1	7.783191E-1	8.166661E-1	7.056181E-1	8.175704E-1	7.901206E-1	8.259582E-1	7.396276E-1	7.787006E-1	7.625639E-1	8.509313E-1	8.349923E-1	8.033235E-1	8.106932E-1	8.069088E-1	8.392247E-1	8.527332E-1	8.020356E-1	8.439599E-1	8.752922E-1	8.053618E-1	7.567033E-1	7.577560E-1	8.209492E-1	7.650368E-1	7.521672E-1	8.021427E-1	7.971045E-1	8.338580E-1	7.454959E-1	8.002595E-1	8.199737E-1	8.295711E-1	7.713998E-1	7.897842E-1	8.444329E-1	8.416386E-1	7.675605E-1	7.875675E-1	8.130831E-1	8.052518E-1	8.259247E-1	7.758194E-1	7.663675E-1	7.845928E-1	8.239587E-1	8.209649E-1	7.786254E-1	7.952105E-1	8.037803E-1	8.410445E-1	7.905314E-1	7.725962E-1	7.266982E-1	8.316771E-1	8.054462E-1	8.341643E-1	7.407426E-1	7.589242E-1	8.229775E-1	8.171346E-1	7.507027E-1	7.592602E-1	7.879638E-1	8.107511E-1	7.848432E-1	7.835398E-1	7.646024E-1	7.541069E-1
2.848000E+2	1.613505E+0	1.706360E+0	1.564826E+0	1.591205E+0	1.619987E+0	1.650511E+0	1.781719E+0	1.626380E+0	1.568617E+0	1.707953E+0	1.646788E+0	1.597023E+0	1.612281E+0	1.629886E+0	1.582229E+0	1.603619E+0	1.565532E+0	1.548036E+0	1.699952E+0	1.629996E+0	1.622793E+0	1.649905E+0	1.699882E+0	1.586886E+0	1.660397E+0	1.650885E+0	1.590794E+0	1.600023E+0	1.621522E+0	1.594711E+0	1.612901E+0	1.501620E+0	1.667812E+0	1.619269E+0	1.609078E+0	1.601478E+0	1.562739E+0	1.608707E+0	1.554212E+0	1.587195E+0	1.605049E+0	1.694512E+0	1.607515E+0	1.579126E+0	1.596966E+0	1.664803E+0	1.653432E+0	1.570950E+0	1.467365E+0	1.650637E+0	1.645359E+0	1.542382E+0	1.612984E+0	1.646667E+0	1.715153E+0	1.639337E+0	1.534670E+0	1.629321E+0	1.608524E+0	1.558666E+0	1.594322E+0	1.680335E+0	1.665824E+0	1.615455E+0	1.611617E+0	1.596351E+0	1.710826E+0	1.640601E+0	1.614165E+0	1.641951E+0	1.596131E+0	1.667607E+0	1.602212E+0	1.617924E+0	1.635471E+0	1.606398E+0	1.481745E+0	1.676163E+0	1.724112E+0	1.587197E+0	1.596930E+0	1.682610E+0	1.650783E+0	1.511262E+0	1.561149E+0	1.508808E+0	1.672536E+0	1.592418E+0	1.593421E+0	1.720849E+0	1.625325E+0	1.586650E+0	1.646887E+0	1.612478E+0	1.584682E+0	1.637917E+0	1.484751E+0	1.580203E+0	1.591351E+0	1.624004E+0	1.651258E+0	1.678963E+0	1.556966E+0	1.566492E+0	1.630623E+0	1.666984E+0	1.568127E+0	1.525981E+0	1.724210E+0	1.586241E+0	1.687794E+0	1.700363E+0	1.645460E+0	1.637446E+0	1.661255E+0	1.759062E+0	1.567132E+0	1.675147E+0	1.635767E+0	1.614722E+0	1.615452E+0	1.695346E+0	1.597290E+0	1.588869E+0	1.711273E+0	1.559637E+0	1.691736E+0	1.576662E+0	1.646167E+0	1.655381E+0	1.630348E+0	1.603462E+0	1.621999E+0	1.661191E+0	1.568035E+0	1.531285E+0	1.661554E+0	1.667747E+0	1.558922E+0	1.598097E+0	1.597319E+0	1.690349E+0	1.528767E+0	1.526876E+0	1.635316E+0	1.606603E+0	1.658505E+0	1.609547E+0	1.633833E+0	1.669847E+0	1.617257E+0	1.575653E+0	1.627733E+0	1.615324E+0	1.656733E+0	1.573425E+0	1.559301E+0	1.645354E+0	1.668891E+0	1.634497E+0	1.544743E+0	1.614208E+0	1.679918E+0	1.669696E+0	1.610971E+0	1.648810E+0	1.616420E+0	1.602273E+0	1.671976E+0	1.496299E+0	1.537151E+0
2.849020E+2	1.802700E+0	2.065320E+0	1.908932E+0	1.951007E+0	2.043480E+0	2.015702E+0	2.065155E+0	1.969836E+0	2.016298E+0	1.953282E+0	1.949180E+0	1.949650E+0	1.944240E+0	2.033241E+0	2.007652E+0	1.965380E+0	1.969123E+0	1.994289E+0	1.898531E+0	1.963195E+0	1.933440E+0	1.938199E+0	2.029137E+0	1.964459E+0	2.041284E+0	1.886456E+0	1.985506E+0	1.946971E+0	1.997059E+0	1.974494E+0	2.038217E+0	1.913534E+0	1.998601E+0	2.048968E+0	2.007939E+0	1.960033E+0	1.962370E+0	2.030909E+0	2.137491E+0	1.970020E+0	1.982172E+0	2.209589E+0	1.956499E+0	1.923740E+0	1.954310E+0	1.969546E+0	2.055067E+0	2.019302E+0	1.965678E+0	1.992443E+0	2.071994E+0	1.946290E+0	2.011459E+0	2.055769E+0	1.888445E+0	2.007896E+0	2.116961E+0	2.049674E+0	1.964370E+0	1.811188E+0	2.033945E+0	1.934303E+0	2.094973E+0	1.970913E+0	1.947122E+0	2.022686E+0	1.918845E+0	1.987272E+0	1.947770E+0	2.000831E+0	1.938376E+0	1.894820E+0	1.961078E+0	1.983196E+0	1.897321E+0	2.059959E+0	2.008715E+0	1.933524E+0	1.935811E+0	1.945305E+0	1.956078E+0	2.019125E+0	1.931406E+0	1.928138E+0	1.969982E+0	1.982918E+0	2.094117E+0	2.060884E+0	1.940398E+0	1.991297E+0	1.997508E+0	1.893338E+0	2.022124E+0	2.020517E+0	2.037235E+0	1.981921E+0	1.930676E+0	2.047287E+0	1.904813E+0	1.886961E+0	2.012514E+0	1.922792E+0	1.945508E+0	2.020405E+0	1.908029E+0	1.982072E+0	2.106550E+0	1.809960E+0	2.083495E+0	2.034746E+0	2.014130E+0	2.091025E+0	1.931505E+0	1.966946E+0	2.128801E+0	1.931638E+0	2.025218E+0	2.076257E+0	1.925858E+0	1.994166E+0	2.039639E+0	1.950418E+0	1.939148E+0	1.997935E+0	2.037753E+0	1.978657E+0	1.905717E+0	2.003881E+0	1.893401E+0	1.933251E+0	2.017488E+0	1.959033E+0	1.975862E+0	1.971380E+0	2.034148E+0	1.937931E+0	2.078878E+0	1.899495E+0	2.032889E+0	1.999295E+0	2.022122E+0	1.990638E+0	1.862678E+0	1.975243E+0	1.985615E+0	1.941005E+0	2.020478E+0	2.083723E+0	2.028388E+0	1.989848E+0	1.963765E+0	1.905679E+0	1.994446E+0	1.838871E+0	1.993107E+0	1.811827E+0	2.080793E+0	2.014394E+0	1.978221E+0	1.938710E+0	1.897155E+0	2.065110E+0	1.949734E+0	2.061770E+0	1.880471E+0	2.050716E+0	1.937629E+0	1.948203E+0	2.052014E+0	1.946264E+0	2.084846E+0
2.850030E+2	1.847958E+0	2.111837E+0	1.948295E+0	1.928944E+0	1.948366E+0	2.013943E+0	2.092556E+0	1.900392E+0	1.848136E+0	1.993997E+0	1.945917E+0	1.964250E+0	1.898326E+0	1.951181E+0	2.003822E+0	1.891312E+0	2.029202E+0	2.003345E+0	1.860151E+0	1.867467E+0	1.902965E+0	1.919500E+0	1.899887E+0	1.837501E+0	1.995159E+0	1.900113E+0	1.808700E+0	1.895355E+0	1.889860E+0	1.936525E+0	1.942312E+0	1.903919E+0	2.005424E+0	1.981989E+0	1.885028E+0	1.882213E+0	1.942576E+0	1.911808E+0	2.022756E+0	1.980563E+0	1.906561E+0	1.939863E+0	1.914151E+0	1.953388E+0	1.908148E+0	1.935761E+0	1.845245E+0	1.853478E+0	1.829855E+0	1.883734E+0	1.972362E+0	1.872792E+0	1.919514E+0	1.934683E+0	1.914413E+0	1.955927E+0	1.917047E+0	1.961031E+0	1.970457E+0	1.908562E+0	1.970502E+0	1.899989E+0	2.039001E+0	2.043204E+0	1.916978E+0	1.905471E+0	2.028458E+0	1.903011E+0	1.875756E+0	1.969707E+0	1.861566E+0	2.020842E+0	1.866533E+0	1.943254E+0	2.049597E+0	1.812724E+0	1.848550E+0	1.931976E+0	2.005595E+0	2.021084E+0	1.806546E+0	1.966624E+0	1.950332E+0	1.949230E+0	1.958942E+0	1.984614E+0	1.988243E+0	1.928372E+0	1.976862E+0	1.812786E+0	1.791045E+0	1.918192E+0	1.882453E+0	1.908832E+0	1.958077E+0	1.857460E+0	1.897098E+0	2.022035E+0	1.915197E+0	1.788618E+0	1.869464E+0	1.961843E+0	1.919672E+0	1.907747E+0	1.830893E+0	1.935619E+0	1.957399E+0	1.819145E+0	1.987283E+0	1.918979E+0	1.951229E+0	2.064519E+0	1.944083E+0	1.897426E+0	1.923232E+0	1.977252E+0	1.847767E+0	1.937948E+0	1.948418E+0	1.957532E+0	2.064213E+0	1.915503E+0	1.947457E+0	1.870441E+0	1.909117E+0	1.997402E+0	1.961838E+0	1.909805E+0	1.929362E+0	1.945482E+0	1.900978E+0	1.845065E+0	1.850427E+0	1.883314E+0	1.939298E+0	1.917890E+0	2.017628E+0	1.873942E+0	2.005058E+0	1.955808E+0	1.959629E+0	1.927458E+0	1.931694E+0	1.928758E+0	1.907801E+0	1.968663E+0	1.957299E+0	2.000994E+0	1.906731E+0	2.013555E+0	1.927209E+0	1.882671E+0	1.913941E+0	1.938176E+0	2.069126E+0	1.860536E+0	1.882838E+0	1.852030E+0	1.915711E+0	1.906190E+0	1.770530E+0	1.899496E+0	2.037973E+0	1.997319E+0	1.844309E+0	1.929986E+0	1.884830E+0	1.772980E+0	1.918282E+0	1.896905E+0	2.001838E+0
2.851020E+2	1.316843E+0	1.431746E+0	1.461140E+0	1.539615E+0	1.497170E+0	1.391225E+0	1.517639E+0	1.472391E+0	1.510747E+0	1.526029E+0	1.411025E+0	1.455781E+0	1.448450E+0	1.512973E+0	1.530101E+0	1.438150E+0	1.505407E+0	1.425883E+0	1.401205E+0	1.376140E+0	1.484406E+0	1.408750E+0	1.452474E+0	1.390120E+0	1.387732E+0	1.435254E+0	1.393832E+0	1.336324E+0	1.441009E+0	1.421044E+0	1.473773E+0	1.410091E+0	1.476257E+0	1.498315E+0	1.445450E+0	1.453417E+0	1.426388E+0	1.474042E+0	1.548112E+0	1.526009E+0	1.519164E+0	1.475452E+0	1.505408E+0	1.523308E+0	1.507164E+0	1.478975E+0	1.453056E+0	1.417580E+0	1.444920E+0	1.496894E+0	1.448115E+0	1.447372E+0	1.553839E+0	1.484164E+0	1.463150E+0	1.464772E+0	1.579101E+0	1.417260E+0	1.564676E+0	1.375730E+0	1.461295E+0	1.536847E+0	1.465366E+0	1.517146E+0	1.422486E+0	1.402663E+0	1.551850E+0	1.395590E+0	1.466888E+0	1.462046E+0	1.517904E+0	1.362116E+0	1.441070E+0	1.493088E+0	1.444265E+0	1.435086E+0	1.498072E+0	1.399344E+0	1.500426E+0	1.447234E+0	1.408647E+0	1.538431E+0	1.555320E+0	1.449682E+0	1.405354E+0	1.393542E+0	1.450550E+0	1.532020E+0	1.419323E+0	1.482367E+0	1.455623E+0	1.534841E+0	1.506087E+0	1.319040E+0	1.543348E+0	1.585601E+0	1.435470E+0	1.481928E+0	1.558946E+0	1.436927E+0	1.454952E+0	1.448899E+0	1.522010E+0	1.349621E+0	1.371010E+0	1.524386E+0	1.474069E+0	1.405305E+0	1.468905E+0	1.450002E+0	1.526200E+0	1.505303E+0	1.438946E+0	1.433710E+0	1.435684E+0	1.494393E+0	1.464660E+0	1.518922E+0	1.457102E+0	1.482177E+0	1.480571E+0	1.479230E+0	1.534320E+0	1.426051E+0	1.495297E+0	1.474586E+0	1.489552E+0	1.487998E+0	1.505796E+0	1.444437E+0	1.548008E+0	1.486304E+0	1.382455E+0	1.520146E+0	1.446279E+0	1.422877E+0	1.516692E+0	1.473418E+0	1.389873E+0	1.432655E+0	1.410626E+0	1.419787E+0	1.482336E+0	1.408788E+0	1.394929E+0	1.501098E+0	1.445961E+0	1.433703E+0	1.450870E+0	1.482612E+0	1.391447E+0	1.329498E+0	1.414886E+0	1.438906E+0	1.474864E+0	1.382746E+0	1.456357E+0	1.521814E+0	1.432700E+0	1.476565E+0	1.405241E+0	1.455371E+0	1.518108E+0	1.480782E+0	1.438886E+0	1.485208E+0	1.497836E+0	1.461592E+0	1.484545E+0	1.482063E+0	1.603592E+0
2.852010E+2	1.019711E+0	1.018239E+0	1.012352E+0	1.021409E+0	9.677974E-1	1.039046E+0	1.063619E+0	9.977914E-1	1.033679E+0	9.540858E-1	9.566059E-1	9.878801E-1	9.737595E-1	1.079222E+0	1.037193E+0	1.033072E+0	1.103609E+0	9.601847E-1	1.011599E+0	9.263345E-1	1.000064E+0	1.024198E+0	9.828013E-1	8.979647E-1	9.447302E-1	9.601832E-1	1.002151E+0	1.035161E+0	9.330173E-1	9.568725E-1	9.557437E-1	1.004875E+0	1.021274E+0	1.018864E+0	9.671798E-1	1.005611E+0	1.098422E+0	1.006825E+0	1.115919E+0	9.118859E-1	1.001294E+0	1.073764E+0	1.004823E+0	1.076341E+0	1.016834E+0	1.034328E+0	9.677419E-1	9.751211E-1	1.039084E+0	9.626303E-1	9.859725E-1	9.537236E-1	1.046175E+0	1.033321E+0	9.531582E-1	1.013108E+0	1.003432E+0	9.653878E-1	1.014571E+0	1.014981E+0	1.053130E+0	1.015721E+0	9.693819E-1	9.482262E-1	9.985946E-1	1.008716E+0	1.055162E+0	1.040199E+0	9.735579E-1	9.636295E-1	9.919930E-1	9.712000E-1	1.003985E+0	9.532252E-1	1.054768E+0	1.013223E+0	9.684581E-1	9.928850E-1	1.026438E+0	1.006360E+0	9.734658E-1	1.022497E+0	1.025292E+0	1.024492E+0	1.070881E+0	1.016754E+0	1.096450E+0	1.022164E+0	9.796625E-1	1.053832E+0	9.827433E-1	9.969595E-1	1.012049E+0	9.904012E-1	9.967203E-1	1.063064E+0	9.929630E-1	9.888130E-1	1.037155E+0	9.856533E-1	9.763898E-1	9.978867E-1	9.552896E-1	9.641205E-1	1.008761E+0	9.869785E-1	1.059400E+0	9.996747E-1	9.865564E-1	1.013723E+0	9.860298E-1	1.076291E+0	9.993996E-1	1.041820E+0	1.085889E+0	1.068213E+0	9.994448E-1	9.774110E-1	1.022552E+0	1.029410E+0	9.561203E-1	1.062305E+0	1.043944E+0	1.000491E+0	9.357877E-1	9.680991E-1	9.776261E-1	9.737639E-1	9.596570E-1	1.037249E+0	1.012779E+0	9.785250E-1	8.982253E-1	1.021761E+0	1.014069E+0	1.012124E+0	1.090905E+0	9.566798E-1	9.244462E-1	1.063831E+0	9.939860E-1	9.745920E-1	9.447255E-1	1.035609E+0	1.038301E+0	1.011163E+0	1.019310E+0	9.688911E-1	1.069281E+0	9.434474E-1	1.012118E+0	1.012610E+0	1.053378E+0	9.836530E-1	9.979631E-1	9.664622E-1	1.007317E+0	9.704158E-1	1.057174E+0	1.026974E+0	9.994880E-1	1.015489E+0	1.100273E+0	9.963871E-1	1.000145E+0	1.007996E+0	1.001288E+0	9.813648E-1	1.118283E+0	9.880177E-1	1.092478E+0
2.852990E+2	5.987065E-1	6.512816E-1	6.353467E-1	6.287184E-1	6.458759E-1	6.715980E-1	7.075644E-1	5.886873E-1	6.917815E-1	7.304914E-1	6.307834E-1	6.170866E-1	6.737913E-1	6.478819E-1	6.675480E-1	6.293681E-1	7.332761E-1	6.743399E-1	6.723510E-1	6.282963E-1	6.226734E-1	6.302685E-1	6.321061E-1	6.309534E-1	6.369741E-1	6.292349E-1	6.947538E-1	6.164697E-1	6.818698E-1	6.480916E-1	6.318933E-1	6.645294E-1	6.754284E-1	6.763370E-1	6.868476E-1	6.464174E-1	6.216363E-1	6.194271E-1	6.619075E-1	6.466505E-1	5.609858E-1	6.123039E-1	6.904288E-1	6.464712E-1	6.069298E-1	6.777840E-1	6.175656E-1	6.465822E-1	6.451564E-1	6.133974E-1	6.625000E-1	6.540440E-1	6.226703E-1	6.779341E-1	6.958848E-1	6.729677E-1	6.030696E-1	6.206641E-1	7.456359E-1	6.697144E-1	6.406159E-1	6.677565E-1	6.200262E-1	6.364680E-1	6.751455E-1	6.545434E-1	6.315463E-1	6.005468E-1	6.832185E-1	7.121153E-1	7.217469E-1	6.286464E-1	6.781936E-1	6.695694E-1	6.540658E-1	6.505028E-1	7.110834E-1	6.884670E-1	6.622170E-1	6.591081E-1	6.535006E-1	6.516949E-1	6.191995E-1	7.077076E-1	6.672967E-1	7.139722E-1	6.842917E-1	6.795290E-1	6.355523E-1	6.452696E-1	6.784587E-1	6.192218E-1	6.062548E-1	6.041027E-1	6.639300E-1	6.186455E-1	6.734249E-1	6.087508E-1	7.567407E-1	6.008027E-1	6.474531E-1	6.337318E-1	6.519981E-1	6.165703E-1	7.448895E-1	6.915359E-1	6.183501E-1	6.264860E-1	6.720270E-1	7.145403E-1	6.559809E-1	6.855261E-1	7.022844E-1	6.628618E-1	7.305003E-1	6.496291E-1	6.994648E-1	6.001453E-1	6.090708E-1	6.786007E-1	6.234727E-1	6.301998E-1	6.857095E-1	6.624795E-1	6.958550E-1	6.397438E-1	6.888389E-1	6.395662E-1	6.618548E-1	6.100560E-1	6.852240E-1	6.910972E-1	5.981250E-1	6.452626E-1	6.843505E-1	6.046549E-1	6.465053E-1	6.459888E-1	6.451376E-1	6.954794E-1	6.683598E-1	6.478426E-1	6.654607E-1	6.738514E-1	6.187406E-1	6.548846E-1	6.462330E-1	6.888601E-1	6.802647E-1	6.437630E-1	6.291652E-1	6.308014E-1	6.791246E-1	6.790009E-1	6.318327E-1	6.391309E-1	6.883467E-1	6.397354E-1	6.552157E-1	7.251833E-1	6.862444E-1	6.788889E-1	6.747808E-1	7.072347E-1	6.354004E-1	7.476829E-1	6.644244E-1	7.181049E-1	6.631822E-1	6.083524E-1	5.980452E-1
2.854050E+2	5.247784E-1	5.399893E-1	4.846294E-1	5.545987E-1	5.469027E-1	5.489081E-1	6.153828E-1	5.668174E-1	5.339753E-1	6.005098E-1	5.319551E-1	5.054142E-1	5.830681E-1	5.101547E-1	5.800869E-1	5.711693E-1	5.367222E-1	5.481156E-1	5.332789E-1	5.364313E-1	5.544032E-1	5.292677E-1	5.564180E-1	4.984015E-1	5.927116E-1	5.247299E-1	5.640039E-1	5.593947E-1	5.717741E-1	5.357901E-1	5.781104E-1	5.638421E-1	5.422328E-1	5.355325E-1	5.982822E-1	5.225905E-1	5.271957E-1	4.964781E-1	5.797652E-1	4.944240E-1	5.078295E-1	5.382407E-1	5.370709E-1	5.413312E-1	5.265433E-1	5.094881E-1	5.652893E-1	5.293310E-1	5.495689E-1	5.657573E-1	4.938132E-1	5.566904E-1	5.381984E-1	5.237256E-1	5.777886E-1	5.454303E-1	5.204169E-1	4.922881E-1	5.338647E-1	4.945843E-1	5.459192E-1	5.323564E-1	5.378356E-1	5.380940E-1	5.482421E-1	5.329737E-1	5.593560E-1	5.794810E-1	5.748962E-1	5.740071E-1	5.729846E-1	5.309972E-1	5.524992E-1	5.680740E-1	6.154288E-1	5.454646E-1	5.690367E-1	5.314101E-1	5.216261E-1	5.608790E-1	4.827332E-1	5.284187E-1	5.409644E-1	5.429357E-1	5.952756E-1	5.391883E-1	5.787026E-1	5.522188E-1	5.562686E-1	5.956600E-1	5.538209E-1	5.757772E-1	5.688151E-1	5.330696E-1	5.588045E-1	5.654388E-1	4.899722E-1	6.329294E-1	5.782306E-1	5.963385E-1	5.091389E-1	5.894903E-1	5.426897E-1	5.314078E-1	5.720246E-1	4.942859E-1	5.734832E-1	5.244698E-1	5.821416E-1	5.352450E-1	5.747638E-1	5.536634E-1	5.397719E-1	5.363860E-1	6.138352E-1	5.022127E-1	5.304940E-1	5.502185E-1	6.094626E-1	5.794543E-1	5.164750E-1	6.244733E-1	5.532661E-1	5.530743E-1	5.568190E-1	6.123671E-1	5.226183E-1	5.298166E-1	5.044389E-1	5.441606E-1	5.918897E-1	5.860761E-1	5.564361E-1	5.342215E-1	5.697098E-1	5.216698E-1	5.848237E-1	5.431816E-1	5.260755E-1	6.044667E-1	4.854898E-1	5.828230E-1	5.288878E-1	5.581248E-1	4.833947E-1	6.017845E-1	5.489655E-1	5.817593E-1	5.543834E-1	5.027954E-1	5.967245E-1	5.043090E-1	6.324399E-1	5.354841E-1	5.192413E-1	5.422964E-1	5.550984E-1	5.180123E-1	6.282285E-1	6.106006E-1	5.296874E-1	5.763673E-1	5.682022E-1	5.330638E-1	4.976518E-1	5.696166E-1	6.095445E-1	5.355025E-1	5.904309E-1	5.553174E-1	5.066152E-1
2.855030E+2	4.847429E-1	4.734585E-1	4.705110E-1	4.850623E-1	4.781890E-1	4.423775E-1	4.746576E-1	4.496659E-1	4.716834E-1	5.006362E-1	4.355673E-1	4.482428E-1	4.331541E-1	4.904444E-1	4.626089E-1	4.366240E-1	4.791032E-1	4.301865E-1	5.102236E-1	4.102979E-1	4.638958E-1	5.220842E-1	4.637363E-1	4.876801E-1	5.050149E-1	4.957809E-1	4.698028E-1	4.711931E-1	4.775853E-1	5.012148E-1	4.743459E-1	4.689884E-1	4.734581E-1	4.847033E-1	4.947578E-1	4.689636E-1	4.707353E-1	4.366963E-1	4.384881E-1	4.481280E-1	4.530232E-1	5.165089E-1	4.953141E-1	4.663442E-1	5.256917E-1	4.659988E-1	4.343353E-1	4.876278E-1	4.596510E-1	4.731259E-1	4.163811E-1	4.433781E-1	4.689855E-1	4.195638E-1	4.882060E-1	4.414128E-1	4.838529E-1	4.776090E-1	4.973370E-1	5.136656E-1	4.879683E-1	4.421211E-1	4.685437E-1	4.317220E-1	5.368078E-1	4.834276E-1	5.064266E-1	4.672939E-1	4.912995E-1	5.015119E-1	5.051561E-1	4.658198E-1	4.932250E-1	5.069371E-1	4.431444E-1	5.081395E-1	5.066742E-1	4.205104E-1	4.835156E-1	4.852191E-1	4.487064E-1	4.816308E-1	4.676075E-1	4.422158E-1	4.930678E-1	4.994196E-1	5.042174E-1	4.502073E-1	5.115977E-1	4.939190E-1	5.041457E-1	4.972490E-1	5.127957E-1	4.377949E-1	4.447048E-1	4.619444E-1	4.507672E-1	5.040037E-1	5.173198E-1	4.943469E-1	4.855843E-1	5.009939E-1	4.961156E-1	4.446358E-1	5.116998E-1	4.437070E-1	4.611910E-1	4.791380E-1	5.434720E-1	4.725266E-1	4.755531E-1	5.155470E-1	4.702459E-1	4.878744E-1	4.830981E-1	5.423944E-1	4.965719E-1	5.178148E-1	4.968319E-1	4.690580E-1	5.116542E-1	4.930688E-1	4.620267E-1	4.849363E-1	4.728638E-1	4.488767E-1	4.620776E-1	4.773936E-1	4.583366E-1	4.536189E-1	5.161065E-1	4.701327E-1	4.624080E-1	4.665256E-1	4.819357E-1	5.210636E-1	4.727119E-1	4.374392E-1	4.958478E-1	4.949874E-1	4.537062E-1	4.741456E-1	4.955431E-1	4.773933E-1	5.037463E-1	4.809879E-1	5.595861E-1	4.970615E-1	4.493213E-1	4.520386E-1	4.627020E-1	4.407667E-1	5.072314E-1	4.486273E-1	5.669640E-1	5.113468E-1	4.641480E-1	4.641219E-1	4.996755E-1	4.819038E-1	4.605768E-1	4.480355E-1	4.715614E-1	4.857399E-1	4.389566E-1	4.898306E-1	4.646914E-1	4.922808E-1	4.864379E-1	4.680297E-1	5.156841E-1
2.856030E+2	4.480471E-1	4.666175E-1	4.368885E-1	4.489599E-1	4.964069E-1	4.782868E-1	4.641319E-1	4.675983E-1	4.247262E-1	3.999549E-1	4.673763E-1	4.873207E-1	4.890833E-1	4.891252E-1	4.501754E-1	3.900443E-1	4.428140E-1	4.769199E-1	4.786616E-1	4.362155E-1	5.306162E-1	4.600522E-1	4.132545E-1	4.390695E-1	4.823071E-1	4.150907E-1	4.584589E-1	3.897457E-1	4.148142E-1	4.556598E-1	4.022690E-1	5.158807E-1	4.972436E-1	4.712441E-1	4.357639E-1	4.114970E-1	4.609194E-1	4.041142E-1	4.989062E-1	4.532275E-1	4.782587E-1	4.924247E-1	4.171924E-1	4.546068E-1	4.374066E-1	4.672685E-1	4.612084E-1	4.583621E-1	4.307385E-1	4.201176E-1	5.067593E-1	4.340476E-1	3.748330E-1	4.876477E-1	4.910354E-1	4.440880E-1	4.110175E-1	4.939609E-1	4.831305E-1	4.972321E-1	4.709429E-1	4.251968E-1	4.502682E-1	4.548120E-1	4.399879E-1	4.414562E-1	4.873644E-1	4.996220E-1	4.479806E-1	4.696646E-1	4.505018E-1	5.012312E-1	4.069273E-1	4.636304E-1	4.543689E-1	4.716083E-1	4.663163E-1	4.867069E-1	4.418413E-1	4.416398E-1	4.379571E-1	4.505950E-1	5.180542E-1	4.361557E-1	4.702675E-1	4.193040E-1	4.345496E-1	4.567357E-1	4.541101E-1	4.431824E-1	4.502107E-1	4.488916E-1	4.498504E-1	4.204884E-1	4.315980E-1	4.659758E-1	4.398111E-1	4.652944E-1	4.805925E-1	4.943165E-1	4.122033E-1	4.858316E-1	4.092713E-1	4.794332E-1	4.536398E-1	4.448055E-1	4.402063E-1	4.776446E-1	4.401589E-1	4.764420E-1	5.073560E-1	5.083424E-1	4.641738E-1	4.894104E-1	4.400700E-1	4.516118E-1	4.427869E-1	4.365589E-1	5.007113E-1	4.558329E-1	5.085761E-1	4.334505E-1	5.242574E-1	4.556559E-1	4.820967E-1	4.627477E-1	4.962324E-1	4.107421E-1	4.670875E-1	4.248483E-1	4.539045E-1	4.812091E-1	4.611353E-1	4.805877E-1	5.036661E-1	4.132929E-1	4.567327E-1	4.403978E-1	4.480513E-1	4.439315E-1	4.437686E-1	4.918863E-1	4.385578E-1	5.030540E-1	4.293331E-1	4.417010E-1	4.349662E-1	3.846680E-1	4.818541E-1	4.587112E-1	4.492374E-1	4.585993E-1	4.530720E-1	4.875321E-1	4.594227E-1	4.817454E-1	4.733890E-1	4.234796E-1	5.158072E-1	4.607957E-1	4.633783E-1	4.820380E-1	4.892685E-1	4.650430E-1	4.349654E-1	4.807816E-1	4.647763E-1	4.926079E-1	4.723403E-1	4.940191E-1	4.660389E-1
2.858010E+2	4.947382E-1	5.637386E-1	4.582637E-1	5.220136E-1	5.731984E-1	5.334765E-1	5.280823E-1	4.781580E-1	5.654322E-1	5.426231E-1	4.944698E-1	5.105193E-1	5.280363E-1	4.891522E-1	4.982097E-1	5.683720E-1	5.950900E-1	5.639145E-1	5.302516E-1	5.470430E-1	5.164980E-1	5.620345E-1	5.478414E-1	5.405290E-1	5.385852E-1	4.863310E-1	4.833311E-1	4.835227E-1	5.287795E-1	4.858660E-1	5.206209E-1	4.971678E-1	5.550631E-1	4.908664E-1	5.781159E-1	5.119860E-1	5.479458E-1	5.084813E-1	5.658206E-1	5.002001E-1	4.509114E-1	5.210308E-1	5.455827E-1	5.351009E-1	5.262516E-1	5.662960E-1	5.398657E-1	5.056554E-1	5.229373E-1	5.134364E-1	4.906816E-1	4.914093E-1	5.007029E-1	5.001562E-1	5.519285E-1	4.900670E-1	5.000307E-1	5.179572E-1	5.630360E-1	4.993757E-1	5.062498E-1	5.596732E-1	4.960287E-1	5.137619E-1	5.435719E-1	5.163995E-1	5.079223E-1	5.761515E-1	5.333614E-1	5.476585E-1	5.033344E-1	5.127792E-1	4.902692E-1	5.244764E-1	5.154686E-1	5.273507E-1	5.117555E-1	5.087546E-1	4.993557E-1	5.170172E-1	5.429921E-1	5.225349E-1	6.308991E-1	5.940566E-1	5.409460E-1	5.566653E-1	5.569434E-1	5.590279E-1	5.665417E-1	5.056045E-1	5.253142E-1	4.814397E-1	5.512836E-1	4.803589E-1	5.327693E-1	5.481116E-1	4.991453E-1	5.660554E-1	5.755188E-1	5.445407E-1	5.077131E-1	5.727001E-1	5.609637E-1	5.612253E-1	5.466554E-1	5.425716E-1	4.981836E-1	5.111530E-1	5.805276E-1	5.782051E-1	5.634774E-1	5.799886E-1	5.076734E-1	5.227940E-1	5.462735E-1	5.078007E-1	4.970274E-1	5.552331E-1	5.504548E-1	5.355456E-1	5.757418E-1	5.542038E-1	5.168230E-1	5.259820E-1	5.156812E-1	5.425298E-1	5.093592E-1	5.069557E-1	4.790924E-1	4.989186E-1	5.499895E-1	5.055157E-1	5.448053E-1	5.082277E-1	5.151201E-1	5.800988E-1	5.966629E-1	5.113658E-1	5.639352E-1	5.121720E-1	5.154689E-1	4.963466E-1	5.152876E-1	5.251643E-1	5.018202E-1	4.971147E-1	5.486896E-1	5.512628E-1	5.286424E-1	5.312401E-1	5.175688E-1	5.226237E-1	5.581371E-1	4.937228E-1	5.586485E-1	5.096179E-1	4.978536E-1	4.903402E-1	4.940145E-1	5.108198E-1	4.627746E-1	5.474203E-1	5.724183E-1	5.523230E-1	5.073910E-1	5.119435E-1	5.472190E-1	5.232545E-1	5.261334E-1	4.630224E-1	5.965823E-1
2.860070E+2	6.940463E-1	8.554276E-1	8.654296E-1	7.616558E-1	7.803410E-1	7.833774E-1	8.847334E-1	7.689208E-1	7.724306E-1	8.246296E-1	7.190411E-1	7.044423E-1	7.787305E-1	8.535916E-1	8.274607E-1	7.754672E-1	8.035925E-1	7.156429E-1	7.871067E-1	7.460284E-1	7.262538E-1	8.125558E-1	7.988943E-1	7.994144E-1	7.504189E-1	8.106459E-1	8.402444E-1	7.606808E-1	7.610577E-1	7.683154E-1	7.505539E-1	7.688813E-1	8.277308E-1	7.821935E-1	8.187358E-1	7.931356E-1	8.202681E-1	7.482650E-1	8.410958E-1	7.054172E-1	8.326305E-1	7.744576E-1	8.029898E-1	7.869533E-1	7.490970E-1	7.679487E-1	7.242801E-1	7.956325E-1	7.532970E-1	7.845916E-1	8.134546E-1	7.981999E-1	7.925694E-1	8.080224E-1	7.644934E-1	7.834626E-1	8.526582E-1	7.989283E-1	7.733108E-1	8.161723E-1	7.908279E-1	8.134196E-1	7.854844E-1	7.871623E-1	7.823093E-1	7.598577E-1	8.397128E-1	7.888913E-1	7.509715E-1	8.265652E-1	7.724105E-1	7.503630E-1	7.633102E-1	6.871676E-1	7.075825E-1	8.201168E-1	7.710730E-1	7.814785E-1	7.361202E-1	7.537909E-1	7.282888E-1	7.615086E-1	7.597413E-1	7.814505E-1	7.394082E-1	7.856494E-1	7.607553E-1	8.463297E-1	7.438842E-1	7.521932E-1	8.258078E-1	7.525823E-1	8.657798E-1	7.978394E-1	8.529304E-1	7.341013E-1	7.600631E-1	8.014641E-1	8.555611E-1	7.947658E-1	7.835325E-1	7.938264E-1	8.235148E-1	7.146701E-1	7.376876E-1	7.515292E-1	7.865862E-1	7.999721E-1	8.821948E-1	7.765702E-1	8.109212E-1	8.088704E-1	7.634080E-1	7.547077E-1	8.238025E-1	7.750771E-1	7.440335E-1	7.827157E-1	8.157464E-1	7.488430E-1	8.436397E-1	7.957677E-1	8.229772E-1	7.108091E-1	7.418291E-1	7.385326E-1	7.940909E-1	7.705619E-1	7.859239E-1	7.814189E-1	8.268735E-1	7.892126E-1	8.280810E-1	8.242497E-1	7.665685E-1	7.749356E-1	8.933563E-1	7.806377E-1	8.009740E-1	7.676458E-1	8.036276E-1	8.664917E-1	7.787246E-1	7.589282E-1	7.329007E-1	7.795027E-1	7.685950E-1	7.768925E-1	7.746160E-1	7.108234E-1	8.018192E-1	7.615652E-1	8.038403E-1	8.348888E-1	7.985239E-1	7.933598E-1	7.572770E-1	7.969478E-1	8.572874E-1	7.966244E-1	7.257839E-1	7.713653E-1	7.615424E-1	7.641851E-1	7.611299E-1	8.195863E-1	7.608418E-1	7.375562E-1	8.488123E-1	7.715991E-1	8.211168E-1
2.862050E+2	1.215329E+0	1.256860E+0	1.197972E+0	1.258395E+0	1.243382E+0	1.210686E+0	1.228816E+0	1.231831E+0	1.297288E+0	1.148487E+0	1.238958E+0	1.255653E+0	1.175152E+0	1.280569E+0	1.295701E+0	1.169812E+0	1.306581E+0	1.254104E+0	1.191004E+0	1.189359E+0	1.251429E+0	1.259887E+0	1.251258E+0	1.318884E+0	1.309352E+0	1.132536E+0	1.175787E+0	1.293759E+0	1.269047E+0	1.237083E+0	1.241192E+0	1.243662E+0	1.291124E+0	1.200336E+0	1.224493E+0	1.262796E+0	1.267190E+0	1.218035E+0	1.244503E+0	1.254379E+0	1.214167E+0	1.303961E+0	1.271237E+0	1.182727E+0	1.226122E+0	1.202624E+0	1.293652E+0	1.144603E+0	1.202862E+0	1.219310E+0	1.184593E+0	1.261438E+0	1.344102E+0	1.250882E+0	1.200814E+0	1.239298E+0	1.217640E+0	1.284864E+0	1.205994E+0	1.234628E+0	1.233495E+0	1.238864E+0	1.307336E+0	1.332174E+0	1.210326E+0	1.207593E+0	1.197059E+0	1.256609E+0	1.214337E+0	1.213786E+0	1.200705E+0	1.258644E+0	1.171793E+0	1.191469E+0	1.275863E+0	1.189490E+0	1.168717E+0	1.254576E+0	1.182159E+0	1.221631E+0	1.163991E+0	1.229557E+0	1.220150E+0	1.155688E+0	1.214548E+0	1.229694E+0	1.313008E+0	1.257667E+0	1.192563E+0	1.138497E+0	1.219425E+0	1.234890E+0	1.276316E+0	1.271030E+0	1.198125E+0	1.270226E+0	1.241830E+0	1.337418E+0	1.277277E+0	1.244393E+0	1.166331E+0	1.268070E+0	1.233160E+0	1.312500E+0	1.281842E+0	1.197897E+0	1.315010E+0	1.164415E+0	1.226149E+0	1.221145E+0	1.193103E+0	1.331481E+0	1.229529E+0	1.206505E+0	1.272970E+0	1.327571E+0	1.175096E+0	1.148920E+0	1.225254E+0	1.218004E+0	1.240747E+0	1.233307E+0	1.303106E+0	1.218469E+0	1.248036E+0	1.242559E+0	1.238582E+0	1.267859E+0	1.191639E+0	1.189514E+0	1.283098E+0	1.227946E+0	1.263226E+0	1.236291E+0	1.247118E+0	1.262220E+0	1.296016E+0	1.260704E+0	1.257193E+0	1.302484E+0	1.265170E+0	1.199991E+0	1.223827E+0	1.178687E+0	1.235945E+0	1.213458E+0	1.258954E+0	1.294341E+0	1.252102E+0	1.295124E+0	1.366392E+0	1.228530E+0	1.248043E+0	1.237851E+0	1.280909E+0	1.211589E+0	1.230751E+0	1.296077E+0	1.248275E+0	1.339294E+0	1.209816E+0	1.303522E+0	1.221615E+0	1.243842E+0	1.165507E+0	1.280270E+0	1.178096E+0	1.098819E+0	1.202658E+0	1.226700E+0	1.460540E+0
2.864180E+2	1.361082E+0	1.309966E+0	1.330864E+0	1.390754E+0	1.487970E+0	1.495629E+0	1.452358E+0	1.360628E+0	1.358341E+0	1.370001E+0	1.412278E+0	1.285062E+0	1.388467E+0	1.391362E+0	1.348108E+0	1.440987E+0	1.373791E+0	1.398187E+0	1.363274E+0	1.315579E+0	1.372143E+0	1.321438E+0	1.316200E+0	1.355447E+0	1.371021E+0	1.327309E+0	1.363581E+0	1.352431E+0	1.309452E+0	1.339889E+0	1.355601E+0	1.363126E+0	1.368725E+0	1.379123E+0	1.397609E+0	1.373815E+0	1.341560E+0	1.322432E+0	1.406084E+0	1.346048E+0	1.421960E+0	1.424498E+0	1.285173E+0	1.368655E+0	1.397058E+0	1.294809E+0	1.369373E+0	1.447828E+0	1.298461E+0	1.378746E+0	1.428473E+0	1.428696E+0	1.370923E+0	1.403189E+0	1.357720E+0	1.355814E+0	1.229535E+0	1.397862E+0	1.361564E+0	1.368762E+0	1.339830E+0	1.423906E+0	1.341897E+0	1.354098E+0	1.296787E+0	1.303509E+0	1.387994E+0	1.437742E+0	1.399971E+0	1.358612E+0	1.412538E+0	1.391264E+0	1.327217E+0	1.333856E+0	1.287336E+0	1.320546E+0	1.385856E+0	1.380768E+0	1.324729E+0	1.331114E+0	1.397018E+0	1.463179E+0	1.373251E+0	1.360437E+0	1.312025E+0	1.416454E+0	1.313602E+0	1.384881E+0	1.291290E+0	1.318076E+0	1.358316E+0	1.342515E+0	1.452944E+0	1.281971E+0	1.355572E+0	1.380031E+0	1.377288E+0	1.428310E+0	1.298081E+0	1.335348E+0	1.352210E+0	1.386074E+0	1.376022E+0	1.373711E+0	1.413082E+0	1.357181E+0	1.362401E+0	1.248974E+0	1.477067E+0	1.329070E+0	1.374702E+0	1.453996E+0	1.411169E+0	1.343564E+0	1.298694E+0	1.394319E+0	1.346110E+0	1.360257E+0	1.348493E+0	1.403250E+0	1.353349E+0	1.460692E+0	1.399355E+0	1.329556E+0	1.317127E+0	1.311527E+0	1.377077E+0	1.369610E+0	1.374717E+0	1.403127E+0	1.427756E+0	1.361336E+0	1.257083E+0	1.402045E+0	1.390509E+0	1.394557E+0	1.439783E+0	1.360185E+0	1.341859E+0	1.404483E+0	1.317332E+0	1.358200E+0	1.307958E+0	1.350483E+0	1.254622E+0	1.385309E+0	1.397438E+0	1.315051E+0	1.356239E+0	1.435613E+0	1.349187E+0	1.345996E+0	1.377426E+0	1.385843E+0	1.407522E+0	1.318941E+0	1.338001E+0	1.377268E+0	1.397216E+0	1.413480E+0	1.314538E+0	1.324675E+0	1.386941E+0	1.351951E+0	1.334071E+0	1.384556E+0	1.393482E+0	1.330630E+0	1.416133E+0	1.399977E+0	1.452949E+0
2.866200E+2	1.331437E+0	1.518351E+0	1.497262E+0	1.448383E+0	1.504621E+0	1.433635E+0	1.516749E+0	1.417188E+0	1.450217E+0	1.452970E+0	1.438990E+0	1.440571E+0	1.426321E+0	1.562113E+0	1.456767E+0	1.476767E+0	1.415445E+0	1.400596E+0	1.394496E+0	1.322926E+0	1.463752E+0	1.446411E+0	1.469483E+0	1.425459E+0	1.430217E+0	1.467568E+0	1.435653E+0	1.472950E+0	1.434291E+0	1.380086E+0	1.392986E+0	1.411940E+0	1.504599E+0	1.426151E+0	1.430411E+0	1.416665E+0	1.422443E+0	1.419149E+0	1.408148E+0	1.412117E+0	1.453159E+0	1.477610E+0	1.396383E+0	1.442040E+0	1.366246E+0	1.467050E+0	1.420498E+0	1.452269E+0	1.401099E+0	1.511227E+0	1.356497E+0	1.497811E+0	1.476893E+0	1.450081E+0	1.410206E+0	1.401865E+0	1.416534E+0	1.410565E+0	1.498144E+0	1.462562E+0	1.456794E+0	1.520791E+0	1.497735E+0	1.414519E+0	1.435939E+0	1.464542E+0	1.480886E+0	1.474341E+0	1.411922E+0	1.450825E+0	1.398135E+0	1.461105E+0	1.389040E+0	1.427606E+0	1.453042E+0	1.391383E+0	1.396736E+0	1.452522E+0	1.457726E+0	1.392130E+0	1.400215E+0	1.487805E+0	1.478092E+0	1.392420E+0	1.583064E+0	1.403251E+0	1.465163E+0	1.436632E+0	1.472622E+0	1.443492E+0	1.449455E+0	1.428140E+0	1.497089E+0	1.310705E+0	1.461120E+0	1.493898E+0	1.410435E+0	1.448182E+0	1.410745E+0	1.396714E+0	1.470817E+0	1.402707E+0	1.399176E+0	1.320759E+0	1.550090E+0	1.506351E+0	1.364351E+0	1.438365E+0	1.512601E+0	1.408381E+0	1.423492E+0	1.412265E+0	1.473913E+0	1.509952E+0	1.413138E+0	1.470854E+0	1.360668E+0	1.386544E+0	1.467240E+0	1.434791E+0	1.470228E+0	1.507233E+0	1.374653E+0	1.429960E+0	1.422429E+0	1.385687E+0	1.359529E+0	1.447258E+0	1.386074E+0	1.426810E+0	1.589174E+0	1.377149E+0	1.436813E+0	1.448275E+0	1.513153E+0	1.512574E+0	1.499798E+0	1.414576E+0	1.472787E+0	1.416549E+0	1.468088E+0	1.426946E+0	1.376369E+0	1.461763E+0	1.324820E+0	1.385569E+0	1.409497E+0	1.461341E+0	1.391442E+0	1.451659E+0	1.498660E+0	1.376862E+0	1.501703E+0	1.464559E+0	1.551536E+0	1.468452E+0	1.497206E+0	1.444440E+0	1.473656E+0	1.546760E+0	1.358470E+0	1.479417E+0	1.488344E+0	1.433481E+0	1.394141E+0	1.443968E+0	1.390201E+0	1.433375E+0	1.576143E+0	1.260552E+0	1.522404E+0
2.868020E+2	1.508938E+0	1.521328E+0	1.468190E+0	1.502943E+0	1.532536E+0	1.500366E+0	1.664385E+0	1.562035E+0	1.483930E+0	1.606840E+0	1.443100E+0	1.482833E+0	1.577609E+0	1.471204E+0	1.548666E+0	1.523950E+0	1.562792E+0	1.613951E+0	1.493393E+0	1.485103E+0	1.551863E+0	1.584651E+0	1.479615E+0	1.567530E+0	1.498207E+0	1.482210E+0	1.481691E+0	1.501541E+0	1.504441E+0	1.541525E+0	1.503691E+0	1.508555E+0	1.591505E+0	1.542477E+0	1.543008E+0	1.476613E+0	1.485617E+0	1.502528E+0	1.620478E+0	1.455696E+0	1.529698E+0	1.539527E+0	1.468458E+0	1.527666E+0	1.473334E+0	1.576607E+0	1.589460E+0	1.460932E+0	1.461078E+0	1.592420E+0	1.453209E+0	1.488924E+0	1.531711E+0	1.551709E+0	1.551573E+0	1.465148E+0	1.492419E+0	1.567775E+0	1.513902E+0	1.501605E+0	1.443894E+0	1.502986E+0	1.535932E+0	1.525001E+0	1.540108E+0	1.549170E+0	1.502148E+0	1.583442E+0	1.545466E+0	1.537827E+0	1.622308E+0	1.477411E+0	1.519185E+0	1.534872E+0	1.502644E+0	1.493714E+0	1.520975E+0	1.556204E+0	1.547556E+0	1.519240E+0	1.492845E+0	1.564399E+0	1.561225E+0	1.494740E+0	1.608373E+0	1.482082E+0	1.547541E+0	1.490926E+0	1.459574E+0	1.498429E+0	1.562994E+0	1.525129E+0	1.547242E+0	1.511121E+0	1.502759E+0	1.585283E+0	1.503055E+0	1.544427E+0	1.501083E+0	1.463501E+0	1.470355E+0	1.499844E+0	1.474153E+0	1.541338E+0	1.566015E+0	1.544529E+0	1.525052E+0	1.567474E+0	1.550698E+0	1.592540E+0	1.554875E+0	1.536159E+0	1.457500E+0	1.581593E+0	1.576961E+0	1.570093E+0	1.505939E+0	1.535802E+0	1.613523E+0	1.589155E+0	1.486307E+0	1.435002E+0	1.539372E+0	1.597103E+0	1.552304E+0	1.519968E+0	1.462355E+0	1.560864E+0	1.474077E+0	1.544826E+0	1.525850E+0	1.562789E+0	1.548000E+0	1.536446E+0	1.534483E+0	1.434111E+0	1.558106E+0	1.503038E+0	1.545153E+0	1.502134E+0	1.544136E+0	1.546751E+0	1.477013E+0	1.523185E+0	1.470172E+0	1.490545E+0	1.548191E+0	1.561903E+0	1.467872E+0	1.572143E+0	1.470546E+0	1.526042E+0	1.551630E+0	1.552464E+0	1.539067E+0	1.521840E+0	1.459271E+0	1.562945E+0	1.570931E+0	1.501164E+0	1.490089E+0	1.519721E+0	1.642213E+0	1.667579E+0	1.539122E+0	1.448264E+0	1.474867E+0	1.463211E+0	1.545004E+0	1.493404E+0	1.437479E+0
2.870040E+2	9.745739E-1	1.047206E+0	1.085299E+0	1.014181E+0	1.171724E+0	1.094501E+0	1.160737E+0	1.114238E+0	1.067617E+0	1.097830E+0	1.034446E+0	1.041902E+0	1.080816E+0	1.054874E+0	1.104289E+0	1.047837E+0	1.098198E+0	1.067362E+0	1.038829E+0	1.077089E+0	1.106965E+0	1.030555E+0	1.058616E+0	1.061933E+0	1.115280E+0	1.026715E+0	1.100239E+0	9.979008E-1	1.047479E+0	1.063558E+0	1.060065E+0	1.079899E+0	1.077746E+0	1.024115E+0	1.067811E+0	1.118602E+0	1.074155E+0	1.033888E+0	1.157585E+0	1.066079E+0	1.033054E+0	1.074776E+0	1.061682E+0	1.111658E+0	1.054639E+0	1.066444E+0	1.083049E+0	1.041284E+0	1.021174E+0	1.102907E+0	1.079627E+0	1.110844E+0	1.045695E+0	1.103048E+0	1.146660E+0	1.063853E+0	1.092411E+0	1.101117E+0	1.144224E+0	1.070918E+0	1.110690E+0	1.080678E+0	1.043075E+0	1.088653E+0	1.132259E+0	1.009016E+0	1.093729E+0	1.079953E+0	1.119676E+0	1.127932E+0	1.063415E+0	1.069404E+0	1.064626E+0	1.059488E+0	1.057739E+0	9.875171E-1	1.170587E+0	1.116268E+0	1.041639E+0	1.099721E+0	1.039571E+0	1.063950E+0	1.064960E+0	1.056790E+0	1.039352E+0	1.106875E+0	1.172198E+0	1.066450E+0	1.018040E+0	1.010765E+0	1.012947E+0	1.170548E+0	1.106276E+0	1.088326E+0	1.141282E+0	1.093954E+0	1.058035E+0	1.152028E+0	1.108392E+0	1.054312E+0	1.071531E+0	1.142012E+0	1.054156E+0	1.087506E+0	1.157605E+0	1.003134E+0	1.095349E+0	1.073604E+0	1.080963E+0	1.088116E+0	1.128156E+0	1.104734E+0	9.718939E-1	1.152548E+0	1.012219E+0	1.115722E+0	9.902264E-1	1.026453E+0	1.071014E+0	1.087969E+0	1.080772E+0	1.081608E+0	1.048125E+0	1.109090E+0	1.118589E+0	1.074685E+0	1.114066E+0	1.104259E+0	1.032054E+0	1.038455E+0	1.119425E+0	1.071130E+0	1.081393E+0	1.050604E+0	1.132966E+0	1.022986E+0	1.066425E+0	1.089571E+0	1.092903E+0	1.124480E+0	1.073451E+0	1.058014E+0	1.014401E+0	1.024218E+0	1.071923E+0	1.076870E+0	1.048767E+0	1.136320E+0	1.090037E+0	1.120991E+0	1.108723E+0	1.108389E+0	1.087347E+0	1.062099E+0	1.102259E+0	1.056033E+0	1.101105E+0	1.090162E+0	1.152485E+0	1.104498E+0	1.051276E+0	1.071168E+0	1.115274E+0	1.105279E+0	1.087532E+0	1.168019E+0	1.031271E+0	1.157514E+0	1.112568E+0	1.128753E+0	1.096555E+0
2.872040E+2	9.013121E-1	9.819984E-1	9.030111E-1	8.240984E-1	9.371957E-1	9.105901E-1	9.695739E-1	9.540509E-1	9.030973E-1	9.446724E-1	9.288390E-1	9.373368E-1	9.579188E-1	8.896021E-1	9.610036E-1	9.073239E-1	9.707027E-1	8.971309E-1	9.175915E-1	9.122509E-1	1.002821E+0	8.942130E-1	9.497510E-1	8.939831E-1	9.553358E-1	9.069354E-1	1.060632E+0	9.203090E-1	9.544880E-1	9.771443E-1	8.905495E-1	9.009431E-1	9.344524E-1	9.729225E-1	9.319450E-1	9.596113E-1	9.407115E-1	9.671712E-1	9.469177E-1	9.535325E-1	9.008150E-1	8.914242E-1	9.279259E-1	8.792840E-1	9.029016E-1	9.207798E-1	8.742284E-1	9.495532E-1	9.007952E-1	9.073448E-1	9.379682E-1	9.195084E-1	9.057055E-1	8.969876E-1	9.291635E-1	9.570010E-1	9.655681E-1	9.532723E-1	9.538539E-1	9.124241E-1	9.389559E-1	9.806631E-1	9.584568E-1	8.472551E-1	9.519722E-1	9.163531E-1	9.499667E-1	9.126009E-1	9.269433E-1	9.738221E-1	8.561999E-1	8.858865E-1	1.008051E+0	9.022558E-1	9.857874E-1	9.113319E-1	9.437505E-1	9.186077E-1	9.347852E-1	8.817228E-1	9.624130E-1	9.770563E-1	9.484652E-1	9.227097E-1	1.010419E+0	9.477335E-1	9.689486E-1	9.447832E-1	8.993753E-1	9.812279E-1	8.761989E-1	9.243414E-1	8.931422E-1	9.478246E-1	9.802093E-1	1.002146E+0	8.901176E-1	8.707240E-1	9.266223E-1	9.240302E-1	9.829650E-1	9.433856E-1	1.004272E+0	9.999426E-1	9.330907E-1	9.369095E-1	9.135305E-1	9.358781E-1	9.500354E-1	9.380218E-1	9.228232E-1	1.003942E+0	9.566912E-1	8.948160E-1	9.545781E-1	9.559461E-1	9.243001E-1	9.131438E-1	9.538601E-1	9.464282E-1	9.612797E-1	9.848311E-1	1.003868E+0	9.339940E-1	9.015437E-1	9.214934E-1	9.463671E-1	8.948603E-1	9.417034E-1	9.236988E-1	1.046460E+0	9.374824E-1	9.018518E-1	9.210082E-1	8.979832E-1	9.027471E-1	9.588059E-1	9.021286E-1	9.318198E-1	9.534282E-1	9.305690E-1	9.792898E-1	9.784548E-1	9.083516E-1	8.917473E-1	9.470987E-1	9.067896E-1	1.013741E+0	9.894438E-1	9.503771E-1	9.290289E-1	9.525806E-1	9.225562E-1	9.246537E-1	9.623787E-1	9.291520E-1	9.502245E-1	9.109003E-1	9.524263E-1	9.461789E-1	8.982113E-1	8.989027E-1	9.646080E-1	9.547222E-1	8.705607E-1	1.007363E+0	8.874352E-1	9.772586E-1	9.735638E-1	9.077832E-1	9.976339E-1
2.874050E+2	8.723987E-1	8.347517E-1	8.668696E-1	8.988078E-1	8.721534E-1	9.053924E-1	8.851362E-1	8.876453E-1	7.922652E-1	8.516741E-1	8.254747E-1	8.001049E-1	9.118600E-1	9.040995E-1	8.330385E-1	8.547063E-1	8.204331E-1	9.645489E-1	8.048344E-1	8.323166E-1	8.645687E-1	9.004108E-1	9.051294E-1	8.344336E-1	8.587845E-1	8.530571E-1	8.997246E-1	7.864291E-1	8.704234E-1	8.867912E-1	8.601575E-1	8.546717E-1	8.576811E-1	9.568244E-1	8.193452E-1	8.424406E-1	8.806340E-1	8.850384E-1	8.469078E-1	8.377216E-1	9.278994E-1	8.912072E-1	8.528590E-1	9.299862E-1	8.903445E-1	9.009948E-1	8.906218E-1	8.211092E-1	8.416049E-1	8.974484E-1	8.791553E-1	8.339764E-1	8.690421E-1	9.222966E-1	8.706016E-1	9.055755E-1	8.687843E-1	8.734561E-1	8.302469E-1	8.491935E-1	8.208070E-1	8.713290E-1	7.956081E-1	8.934092E-1	7.787400E-1	7.963168E-1	8.347904E-1	7.951239E-1	8.519355E-1	8.745890E-1	8.375484E-1	8.487956E-1	8.238114E-1	8.317973E-1	8.097901E-1	8.408854E-1	8.667067E-1	8.393936E-1	8.298317E-1	8.383517E-1	8.686786E-1	9.107712E-1	9.109750E-1	8.882062E-1	8.860659E-1	9.362667E-1	9.224208E-1	8.359541E-1	8.256025E-1	8.498923E-1	8.740300E-1	9.014725E-1	9.020456E-1	8.674956E-1	8.465760E-1	8.719899E-1	8.096407E-1	8.500483E-1	8.011615E-1	8.761743E-1	8.489520E-1	8.207721E-1	8.986396E-1	9.243417E-1	8.785658E-1	8.947162E-1	8.819925E-1	7.993233E-1	8.276405E-1	8.449394E-1	9.325879E-1	8.643986E-1	8.819473E-1	9.155013E-1	8.970645E-1	9.263893E-1	8.410057E-1	9.066493E-1	8.686505E-1	9.395263E-1	8.493413E-1	8.955167E-1	8.525119E-1	8.128031E-1	8.432306E-1	8.225699E-1	8.292497E-1	8.675515E-1	8.811949E-1	8.873803E-1	8.845202E-1	8.913980E-1	9.013526E-1	8.449194E-1	8.255772E-1	8.811024E-1	8.482738E-1	8.885183E-1	9.391730E-1	8.489353E-1	8.643982E-1	8.852986E-1	9.276516E-1	8.341699E-1	8.483587E-1	8.426960E-1	8.274220E-1	9.061842E-1	8.232203E-1	8.661186E-1	8.895857E-1	7.957634E-1	8.757808E-1	8.624283E-1	9.091128E-1	8.373759E-1	8.706920E-1	8.114488E-1	9.522849E-1	8.897098E-1	8.623886E-1	8.718971E-1	8.180602E-1	8.989871E-1	8.738940E-1	8.878631E-1	8.721318E-1	8.641629E-1	7.988391E-1	8.337219E-1	8.867325E-1
2.876020E+2	7.018971E-1	8.225801E-1	8.604436E-1	7.209959E-1	8.720292E-1	7.661202E-1	8.242598E-1	8.123420E-1	8.046135E-1	7.669018E-1	7.921477E-1	7.643013E-1	8.550075E-1	7.876115E-1	8.004696E-1	7.539993E-1	7.711513E-1	7.327175E-1	7.882176E-1	7.751965E-1	7.722008E-1	7.602097E-1	8.017143E-1	7.644897E-1	7.991467E-1	7.341766E-1	7.403925E-1	7.338925E-1	7.940437E-1	8.007362E-1	8.493319E-1	8.304008E-1	8.636766E-1	8.349061E-1	8.447179E-1	7.566605E-1	8.378679E-1	8.042587E-1	8.575821E-1	7.573061E-1	8.275710E-1	8.708699E-1	7.887995E-1	7.801482E-1	8.472767E-1	8.217076E-1	7.899736E-1	8.015942E-1	7.558948E-1	8.137404E-1	7.080702E-1	7.565661E-1	8.601173E-1	8.144762E-1	8.146551E-1	8.360324E-1	8.505816E-1	7.874080E-1	8.335358E-1	7.427613E-1	8.204108E-1	8.036284E-1	8.606923E-1	8.022193E-1	7.631622E-1	8.301099E-1	7.761797E-1	7.989886E-1	8.088157E-1	8.035769E-1	8.389766E-1	8.058413E-1	7.995656E-1	7.667194E-1	8.020221E-1	8.249005E-1	8.111246E-1	7.444306E-1	8.106751E-1	7.818002E-1	7.860223E-1	8.885357E-1	8.231285E-1	7.820486E-1	8.172910E-1	8.040726E-1	8.088757E-1	7.925759E-1	8.269030E-1	8.143962E-1	8.681596E-1	8.017305E-1	8.171756E-1	8.551698E-1	8.391604E-1	8.569553E-1	7.651810E-1	8.200331E-1	8.407297E-1	8.044249E-1	8.358197E-1	8.245318E-1	8.620360E-1	8.321038E-1	7.802937E-1	7.734646E-1	8.317944E-1	7.181208E-1	8.388506E-1	7.954374E-1	7.973718E-1	8.431351E-1	9.151249E-1	8.075984E-1	8.496422E-1	8.065268E-1	8.042632E-1	8.841178E-1	7.903941E-1	8.016833E-1	7.824857E-1	8.505332E-1	7.940681E-1	8.144643E-1	7.649103E-1	8.220597E-1	8.311108E-1	8.582622E-1	8.457142E-1	8.371597E-1	8.366441E-1	8.545551E-1	7.914316E-1	8.475076E-1	8.087853E-1	8.041970E-1	8.465304E-1	8.661093E-1	7.958759E-1	7.654943E-1	7.737487E-1	8.129104E-1	7.674092E-1	7.636710E-1	8.347802E-1	8.145394E-1	7.852635E-1	8.581016E-1	8.212185E-1	8.105146E-1	7.884284E-1	8.323552E-1	8.388091E-1	8.200924E-1	7.911461E-1	7.915722E-1	8.014507E-1	8.059322E-1	8.305035E-1	8.489085E-1	7.847381E-1	8.186057E-1	8.095341E-1	8.502201E-1	7.786840E-1	8.544238E-1	7.819680E-1	7.936827E-1	8.767655E-1	7.614944E-1	8.302220E-1
2.878030E+2	6.041225E-1	6.482716E-1	5.952899E-1	6.536423E-1	7.005859E-1	6.475652E-1	6.632975E-1	6.158663E-1	7.115292E-1	6.333670E-1	5.942782E-1	6.359215E-1	6.381295E-1	6.218522E-1	6.440169E-1	6.480356E-1	6.094782E-1	6.505990E-1	6.669604E-1	6.288422E-1	6.809640E-1	6.348077E-1	6.357739E-1	6.837993E-1	6.401467E-1	6.365310E-1	6.781511E-1	6.843850E-1	6.710103E-1	6.720781E-1	6.313490E-1	6.103930E-1	6.965221E-1	6.754023E-1	6.620023E-1	6.667666E-1	6.253960E-1	6.556169E-1	6.646976E-1	6.427608E-1	6.293888E-1	6.341176E-1	6.538210E-1	6.406268E-1	6.472135E-1	6.787778E-1	6.990320E-1	6.421468E-1	6.362944E-1	6.774010E-1	6.170652E-1	6.472744E-1	6.673936E-1	6.374496E-1	6.242441E-1	6.480745E-1	6.536740E-1	7.114294E-1	6.351177E-1	6.317029E-1	7.214692E-1	6.276464E-1	6.548961E-1	6.507540E-1	6.579999E-1	6.565072E-1	6.960862E-1	6.566050E-1	6.430100E-1	6.472730E-1	6.813760E-1	5.987877E-1	6.212447E-1	6.171537E-1	6.053501E-1	6.125046E-1	6.316633E-1	6.427203E-1	6.684801E-1	5.965663E-1	6.146249E-1	6.825871E-1	6.879456E-1	6.476724E-1	7.078466E-1	6.715883E-1	6.596461E-1	7.050912E-1	6.378492E-1	6.365989E-1	6.722410E-1	6.218113E-1	6.837347E-1	6.751513E-1	6.718497E-1	6.742939E-1	6.209956E-1	6.821221E-1	6.561920E-1	6.740743E-1	6.351586E-1	6.597727E-1	6.347726E-1	6.151060E-1	6.706818E-1	6.117459E-1	6.900410E-1	6.380506E-1	6.237651E-1	6.451946E-1	5.977204E-1	6.410494E-1	6.543335E-1	6.497533E-1	6.645273E-1	6.385992E-1	6.279500E-1	7.151113E-1	6.482198E-1	6.488694E-1	6.545644E-1	6.879972E-1	6.771547E-1	6.912486E-1	6.642198E-1	6.430474E-1	6.606199E-1	6.532387E-1	6.344142E-1	6.897106E-1	6.871220E-1	7.240161E-1	6.414828E-1	6.247725E-1	6.605784E-1	6.620352E-1	6.824286E-1	6.312034E-1	6.685157E-1	6.587790E-1	6.112166E-1	6.287569E-1	6.502831E-1	6.366819E-1	5.959995E-1	5.997259E-1	6.855075E-1	6.514538E-1	6.207712E-1	6.806869E-1	6.648638E-1	5.774031E-1	6.392913E-1	6.034416E-1	7.021515E-1	6.500239E-1	6.566020E-1	6.226524E-1	7.155269E-1	6.480189E-1	5.975438E-1	6.665722E-1	6.591568E-1	6.978517E-1	7.020991E-1	6.706430E-1	6.231958E-1	6.539394E-1	6.204448E-1	6.586654E-1	6.639023E-1
2.880040E+2	4.776309E-1	5.572160E-1	5.474115E-1	5.594688E-1	5.533816E-1	5.866221E-1	5.500066E-1	5.421894E-1	5.332199E-1	5.643277E-1	5.777150E-1	5.019376E-1	5.073136E-1	5.135075E-1	5.190756E-1	5.575853E-1	5.531415E-1	5.633585E-1	5.186999E-1	5.098556E-1	5.384972E-1	5.166212E-1	5.602435E-1	5.268678E-1	5.766778E-1	5.166382E-1	5.663585E-1	4.907034E-1	5.374736E-1	5.205510E-1	5.702601E-1	5.131317E-1	5.701053E-1	5.641296E-1	5.656534E-1	4.643255E-1	5.801058E-1	5.649681E-1	5.440553E-1	5.403620E-1	5.151321E-1	5.109597E-1	5.926897E-1	4.887902E-1	5.686167E-1	5.285615E-1	5.403279E-1	5.285858E-1	5.302926E-1	5.591584E-1	5.194215E-1	5.382891E-1	5.314433E-1	5.416614E-1	5.642531E-1	5.712820E-1	5.977377E-1	5.820870E-1	5.987877E-1	5.298018E-1	5.528436E-1	5.485303E-1	5.596755E-1	5.556157E-1	5.280270E-1	5.524867E-1	5.578712E-1	5.716759E-1	5.413814E-1	5.771788E-1	5.422637E-1	5.523623E-1	5.236937E-1	5.696193E-1	6.114433E-1	5.268375E-1	4.753715E-1	5.612739E-1	5.840864E-1	5.625122E-1	5.551106E-1	5.788445E-1	5.381518E-1	5.193339E-1	5.676326E-1	5.460250E-1	5.615402E-1	5.182639E-1	5.893905E-1	5.462699E-1	5.325609E-1	5.724866E-1	5.414521E-1	5.271179E-1	4.925955E-1	5.741016E-1	5.243408E-1	5.932353E-1	5.319525E-1	5.634309E-1	5.783765E-1	5.712339E-1	5.412380E-1	5.145131E-1	6.128968E-1	5.536116E-1	5.756332E-1	5.612774E-1	6.060617E-1	5.550635E-1	5.157227E-1	5.452732E-1	5.220074E-1	5.778951E-1	5.640190E-1	5.148372E-1	5.850417E-1	5.349666E-1	5.506759E-1	5.260244E-1	5.123041E-1	5.748267E-1	5.140666E-1	4.736863E-1	5.664636E-1	5.971882E-1	5.561511E-1	5.155351E-1	5.799331E-1	5.809397E-1	5.562138E-1	5.174522E-1	5.675956E-1	5.809823E-1	5.140972E-1	5.146708E-1	5.720618E-1	5.574855E-1	5.614849E-1	5.675101E-1	5.543661E-1	5.303449E-1	5.586241E-1	5.811328E-1	6.113465E-1	5.433794E-1	5.353594E-1	5.704403E-1	5.514508E-1	6.136993E-1	5.613559E-1	5.318554E-1	5.406398E-1	5.109625E-1	5.566723E-1	4.847539E-1	5.590823E-1	5.636833E-1	5.642963E-1	5.645317E-1	5.349409E-1	5.497293E-1	5.898049E-1	5.592922E-1	5.683342E-1	5.478116E-1	5.947972E-1	5.536555E-1	5.546168E-1	5.238809E-1	6.070529E-1
2.882180E+2	6.162589E-1	7.351377E-1	7.259406E-1	6.586069E-1	7.858268E-1	6.968179E-1	8.131039E-1	6.935221E-1	6.960835E-1	7.308260E-1	6.940527E-1	6.733336E-1	6.997427E-1	7.874460E-1	7.319640E-1	6.743075E-1	7.460612E-1	7.287017E-1	7.109897E-1	7.301890E-1	7.166441E-1	7.568620E-1	7.618793E-1	6.901299E-1	7.766347E-1	6.870405E-1	6.717599E-1	7.333761E-1	6.897686E-1	6.785689E-1	6.759508E-1	6.963683E-1	7.074722E-1	7.075584E-1	7.881783E-1	6.838971E-1	7.414138E-1	7.427343E-1	7.427717E-1	7.097579E-1	7.203266E-1	7.363553E-1	7.130177E-1	6.871445E-1	7.791318E-1	6.964645E-1	7.046246E-1	7.463499E-1	6.860688E-1	7.202036E-1	7.043027E-1	6.910130E-1	7.126043E-1	7.181497E-1	7.359137E-1	7.051385E-1	7.358054E-1	7.361187E-1	6.668079E-1	6.479898E-1	6.825191E-1	7.333666E-1	7.319433E-1	7.222427E-1	7.135672E-1	7.231801E-1	7.422044E-1	7.184299E-1	7.266777E-1	7.369830E-1	7.043698E-1	6.796179E-1	7.231645E-1	6.878929E-1	7.517191E-1	6.983115E-1	7.317454E-1	7.456031E-1	7.158584E-1	6.647245E-1	7.828902E-1	7.428561E-1	7.502643E-1	7.216412E-1	6.999251E-1	7.380176E-1	6.925403E-1	7.019213E-1	7.212388E-1	7.087029E-1	7.081962E-1	7.421355E-1	7.512693E-1	6.950684E-1	6.982382E-1	7.620314E-1	6.971139E-1	7.071561E-1	7.915127E-1	7.195396E-1	6.800745E-1	6.520413E-1	6.764173E-1	6.858820E-1	7.120424E-1	7.713012E-1	6.892880E-1	6.966500E-1	6.935244E-1	7.309166E-1	6.970225E-1	7.575070E-1	6.684378E-1	7.255435E-1	7.404405E-1	7.670198E-1	7.296202E-1	7.171508E-1	7.418964E-1	7.532837E-1	6.846530E-1	7.553106E-1	7.115895E-1	7.033974E-1	7.539789E-1	7.296574E-1	7.403498E-1	7.188224E-1	7.808161E-1	7.425009E-1	7.480467E-1	6.717385E-1	7.178992E-1	7.417305E-1	7.012955E-1	7.018247E-1	7.868120E-1	7.324681E-1	7.119270E-1	7.528776E-1	7.395740E-1	6.921263E-1	7.323834E-1	6.966384E-1	7.108204E-1	7.046826E-1	6.805037E-1	7.035344E-1	7.441128E-1	7.147684E-1	6.954501E-1	6.837851E-1	7.059239E-1	7.044069E-1	7.479374E-1	6.774888E-1	7.332220E-1	6.930728E-1	7.860176E-1	6.945885E-1	7.160048E-1	7.212948E-1	7.285299E-1	7.172959E-1	7.340101E-1	7.976583E-1	6.839748E-1	7.583275E-1	7.444169E-1	6.836638E-1	7.406979E-1
2.884090E+2	9.782563E-1	1.036606E+0	9.587989E-1	9.722087E-1	1.078499E+0	1.055934E+0	1.078228E+0	9.713802E-1	9.887620E-1	1.010105E+0	9.955400E-1	9.655192E-1	1.007103E+0	9.867303E-1	1.045202E+0	9.769164E-1	9.853929E-1	9.944308E-1	9.382446E-1	9.123339E-1	9.546536E-1	1.066877E+0	8.984118E-1	9.569106E-1	1.027662E+0	8.946488E-1	9.456276E-1	9.576232E-1	9.096582E-1	9.627143E-1	1.001217E+0	9.253723E-1	9.821044E-1	1.030568E+0	9.788652E-1	9.711336E-1	9.984846E-1	9.571304E-1	9.488586E-1	9.011096E-1	1.060853E+0	9.711406E-1	1.011580E+0	9.298875E-1	9.918433E-1	9.419086E-1	9.084053E-1	1.036126E+0	9.019370E-1	1.012018E+0	9.766716E-1	9.565893E-1	9.762214E-1	1.086703E+0	9.402039E-1	9.540293E-1	9.608189E-1	9.315669E-1	9.894465E-1	1.004721E+0	9.320692E-1	9.927340E-1	9.576021E-1	9.666172E-1	9.464340E-1	9.419235E-1	9.825395E-1	9.995961E-1	9.862528E-1	1.004737E+0	1.007405E+0	1.039725E+0	9.702056E-1	1.016460E+0	9.124800E-1	1.024199E+0	9.601661E-1	9.292472E-1	9.722339E-1	9.887656E-1	1.025641E+0	1.001280E+0	1.052449E+0	1.000327E+0	1.094337E+0	9.885089E-1	1.012784E+0	1.028978E+0	9.746112E-1	9.856158E-1	9.565976E-1	9.660059E-1	9.944012E-1	9.338302E-1	9.976774E-1	9.597943E-1	9.397238E-1	9.689574E-1	9.752901E-1	9.681553E-1	8.779233E-1	9.593500E-1	9.850002E-1	1.001795E+0	1.000399E+0	1.047210E+0	1.045228E+0	9.326061E-1	1.018605E+0	9.974063E-1	9.762631E-1	9.562452E-1	9.513917E-1	9.373928E-1	9.751786E-1	9.788507E-1	9.619120E-1	9.211352E-1	1.020994E+0	9.288875E-1	1.050104E+0	1.040840E+0	1.071085E+0	9.551062E-1	9.996354E-1	1.069630E+0	9.846893E-1	9.932637E-1	1.013884E+0	1.006987E+0	1.009022E+0	9.718022E-1	9.822194E-1	1.062655E+0	9.588490E-1	9.390373E-1	9.937645E-1	9.766709E-1	1.004784E+0	9.814046E-1	9.499817E-1	9.763108E-1	9.933547E-1	1.008138E+0	9.606677E-1	9.630362E-1	1.061447E+0	1.013793E+0	1.029960E+0	9.580197E-1	9.980608E-1	9.974367E-1	9.146957E-1	1.058296E+0	1.007829E+0	9.270203E-1	9.502493E-1	9.519155E-1	1.016287E+0	9.857781E-1	9.912718E-1	9.924356E-1	9.726120E-1	1.023757E+0	9.628822E-1	9.519609E-1	1.031663E+0	9.659674E-1	1.016970E+0	8.917590E-1	9.008433E-1
2.886030E+2	1.299843E+0	1.397546E+0	1.289199E+0	1.275837E+0	1.383010E+0	1.364821E+0	1.396452E+0	1.377778E+0	1.282844E+0	1.287713E+0	1.346179E+0	1.290465E+0	1.383979E+0	1.395595E+0	1.280361E+0	1.283181E+0	1.440972E+0	1.329095E+0	1.355807E+0	1.239324E+0	1.299630E+0	1.246851E+0	1.415732E+0	1.258411E+0	1.341256E+0	1.306144E+0	1.321292E+0	1.247796E+0	1.357998E+0	1.323356E+0	1.298190E+0	1.315638E+0	1.413292E+0	1.365093E+0	1.366763E+0	1.303431E+0	1.394389E+0	1.364773E+0	1.413837E+0	1.289507E+0	1.336749E+0	1.375201E+0	1.314980E+0	1.302042E+0	1.332401E+0	1.374969E+0	1.329635E+0	1.358111E+0	1.287547E+0	1.365443E+0	1.295370E+0	1.413697E+0	1.355042E+0	1.386402E+0	1.361743E+0	1.323231E+0	1.322741E+0	1.343963E+0	1.364594E+0	1.389263E+0	1.354023E+0	1.449477E+0	1.353767E+0	1.356076E+0	1.407125E+0	1.328993E+0	1.389091E+0	1.271250E+0	1.264008E+0	1.300079E+0	1.304456E+0	1.276387E+0	1.332237E+0	1.243542E+0	1.297952E+0	1.289360E+0	1.362615E+0	1.333284E+0	1.305685E+0	1.330609E+0	1.242740E+0	1.402108E+0	1.313022E+0	1.279239E+0	1.384467E+0	1.343668E+0	1.333785E+0	1.220042E+0	1.332469E+0	1.307901E+0	1.289798E+0	1.357389E+0	1.323208E+0	1.346759E+0	1.322533E+0	1.300152E+0	1.398900E+0	1.342208E+0	1.349984E+0	1.294457E+0	1.257023E+0	1.290347E+0	1.249404E+0	1.272484E+0	1.349279E+0	1.327695E+0	1.412393E+0	1.326246E+0	1.328141E+0	1.315892E+0	1.324598E+0	1.344996E+0	1.362380E+0	1.312496E+0	1.321752E+0	1.387790E+0	1.327675E+0	1.402125E+0	1.323607E+0	1.340140E+0	1.320663E+0	1.345977E+0	1.358147E+0	1.194453E+0	1.346246E+0	1.266779E+0	1.256935E+0	1.290236E+0	1.316541E+0	1.367609E+0	1.343463E+0	1.260908E+0	1.332962E+0	1.351937E+0	1.342305E+0	1.318366E+0	1.272631E+0	1.323130E+0	1.302378E+0	1.285922E+0	1.307913E+0	1.288302E+0	1.337014E+0	1.275260E+0	1.293113E+0	1.259362E+0	1.321856E+0	1.325501E+0	1.379108E+0	1.345812E+0	1.291939E+0	1.363606E+0	1.286671E+0	1.272527E+0	1.270489E+0	1.340975E+0	1.305242E+0	1.279087E+0	1.395927E+0	1.391500E+0	1.313513E+0	1.411577E+0	1.335898E+0	1.350601E+0	1.279511E+0	1.312339E+0	1.367701E+0	1.303873E+0	1.273276E+0	1.218905E+0	1.393170E+0
2.888240E+2	1.163027E+0	1.211640E+0	1.120659E+0	1.196882E+0	1.184503E+0	1.137695E+0	1.174819E+0	1.227149E+0	1.163972E+0	1.254816E+0	1.120772E+0	1.110105E+0	1.138384E+0	1.245037E+0	1.224842E+0	1.183457E+0	1.245876E+0	1.255740E+0	1.139295E+0	1.157692E+0	1.206859E+0	1.199871E+0	1.214795E+0	1.147669E+0	1.182934E+0	1.157411E+0	1.186631E+0	1.200154E+0	1.165549E+0	1.142870E+0	1.154953E+0	1.176245E+0	1.225586E+0	1.256545E+0	1.118355E+0	1.233199E+0	1.240951E+0	1.188182E+0	1.155704E+0	1.178803E+0	1.141625E+0	1.230995E+0	1.126005E+0	1.205491E+0	1.131246E+0	1.180689E+0	1.140958E+0	1.214248E+0	1.207252E+0	1.200740E+0	1.139042E+0	1.171967E+0	1.242300E+0	1.252389E+0	1.210392E+0	1.132163E+0	1.209512E+0	1.199872E+0	1.235370E+0	1.170790E+0	1.224358E+0	1.210899E+0	1.187617E+0	1.241926E+0	1.189150E+0	1.202823E+0	1.147591E+0	1.198146E+0	1.169562E+0	1.208790E+0	1.218336E+0	1.177935E+0	1.195997E+0	1.057762E+0	1.207744E+0	1.089205E+0	1.130479E+0	1.184435E+0	1.179693E+0	1.139856E+0	1.224568E+0	1.206616E+0	1.217357E+0	1.214886E+0	1.165504E+0	1.148129E+0	1.167154E+0	1.168548E+0	1.181080E+0	1.158590E+0	1.232947E+0	1.166173E+0	1.190118E+0	1.207667E+0	1.139411E+0	1.194897E+0	1.195421E+0	1.242849E+0	1.174395E+0	1.137621E+0	1.158382E+0	1.182694E+0	1.143395E+0	1.198930E+0	1.256922E+0	1.270233E+0	1.166718E+0	1.187478E+0	1.183228E+0	1.213039E+0	1.186787E+0	1.214077E+0	1.147077E+0	1.227410E+0	1.196993E+0	1.241565E+0	1.201031E+0	1.230274E+0	1.180557E+0	1.146869E+0	1.231483E+0	1.241267E+0	1.261389E+0	1.223904E+0	1.174126E+0	1.207389E+0	1.235739E+0	1.146947E+0	1.140566E+0	1.210202E+0	1.228445E+0	1.104233E+0	1.123662E+0	1.301244E+0	1.176886E+0	1.109489E+0	1.223613E+0	1.165313E+0	1.233156E+0	1.162333E+0	1.162181E+0	1.205814E+0	1.134615E+0	1.150355E+0	1.153575E+0	1.178378E+0	1.195869E+0	1.201765E+0	1.206827E+0	1.188029E+0	1.163082E+0	1.156417E+0	1.162286E+0	1.202715E+0	1.195072E+0	1.191145E+0	1.136626E+0	1.159849E+0	1.244545E+0	1.196566E+0	1.187581E+0	1.214634E+0	1.159115E+0	1.254841E+0	1.093951E+0	1.199206E+0	1.217280E+0	1.213492E+0	1.215016E+0	1.125589E+0	1.160112E+0
2.890080E+2	8.568683E-1	8.839574E-1	8.243224E-1	9.335875E-1	9.099895E-1	8.644569E-1	8.843790E-1	9.428071E-1	8.694578E-1	9.539452E-1	8.645167E-1	9.151634E-1	8.463391E-1	9.544314E-1	9.317811E-1	8.489832E-1	9.210755E-1	9.358601E-1	8.909862E-1	8.792236E-1	9.519864E-1	8.743871E-1	9.052933E-1	8.411142E-1	8.829342E-1	8.163856E-1	8.662720E-1	9.150040E-1	9.039818E-1	8.644363E-1	8.450661E-1	9.118179E-1	1.006590E+0	8.922957E-1	8.867701E-1	9.211592E-1	8.708936E-1	9.147244E-1	9.401864E-1	8.349060E-1	8.069869E-1	9.141224E-1	9.352469E-1	8.901691E-1	9.439257E-1	9.262372E-1	8.838473E-1	8.716017E-1	8.197811E-1	9.278296E-1	8.948168E-1	8.711047E-1	9.473357E-1	9.075573E-1	9.564546E-1	8.954604E-1	8.383156E-1	9.152594E-1	9.241161E-1	9.146584E-1	8.893863E-1	8.717903E-1	8.291876E-1	9.078151E-1	8.258562E-1	9.497766E-1	9.088539E-1	8.419141E-1	8.984068E-1	9.259974E-1	9.504029E-1	8.622182E-1	8.493879E-1	9.126540E-1	8.781393E-1	8.646093E-1	9.044864E-1	8.883414E-1	8.568724E-1	8.446987E-1	7.964214E-1	9.323819E-1	8.984152E-1	8.750820E-1	9.601780E-1	9.182699E-1	8.947644E-1	9.292767E-1	9.288891E-1	8.575571E-1	8.666436E-1	8.937074E-1	9.207370E-1	8.700521E-1	9.044896E-1	8.846693E-1	8.648415E-1	9.375250E-1	9.596074E-1	8.902095E-1	9.260203E-1	8.871658E-1	9.523395E-1	9.107502E-1	8.474311E-1	9.165755E-1	9.233123E-1	8.651983E-1	8.552424E-1	8.677290E-1	9.182049E-1	9.129877E-1	9.052285E-1	8.843612E-1	8.712658E-1	8.537876E-1	9.206680E-1	8.983740E-1	9.125768E-1	8.407700E-1	9.537107E-1	9.435632E-1	9.182698E-1	9.173995E-1	8.919065E-1	9.991097E-1	8.994154E-1	8.564700E-1	9.036641E-1	9.503520E-1	9.230352E-1	8.734368E-1	8.968470E-1	9.482649E-1	9.107853E-1	8.854781E-1	8.989657E-1	8.851059E-1	9.033416E-1	8.767757E-1	8.980045E-1	8.418888E-1	9.342523E-1	8.753006E-1	9.089370E-1	8.933776E-1	9.000516E-1	8.807705E-1	9.895481E-1	9.525155E-1	9.341960E-1	8.266732E-1	9.305594E-1	9.403633E-1	9.648769E-1	8.410101E-1	8.920110E-1	9.644353E-1	9.831327E-1	8.800316E-1	8.801539E-1	8.878700E-1	9.289236E-1	9.245477E-1	8.426393E-1	9.071754E-1	9.192474E-1	8.961070E-1	8.933865E-1	8.973643E-1	9.229903E-1
2.892050E+2	7.770734E-1	7.904313E-1	7.431189E-1	7.480325E-1	8.030152E-1	7.616129E-1	8.248018E-1	7.066951E-1	8.392733E-1	7.710707E-1	7.603798E-1	7.738052E-1	7.667668E-1	8.353286E-1	8.478995E-1	7.808895E-1	7.337586E-1	7.924859E-1	8.009182E-1	7.820109E-1	7.774676E-1	8.474137E-1	7.604359E-1	7.599847E-1	8.411059E-1	8.110948E-1	7.730157E-1	7.728214E-1	7.690320E-1	7.950491E-1	7.739742E-1	7.954569E-1	7.681271E-1	8.131014E-1	7.815176E-1	7.720579E-1	7.643307E-1	7.737291E-1	7.877938E-1	7.804000E-1	7.726853E-1	8.243001E-1	7.690884E-1	7.850512E-1	7.512710E-1	7.520072E-1	7.980483E-1	7.957233E-1	8.133575E-1	7.808381E-1	7.844207E-1	7.526130E-1	7.668076E-1	8.684046E-1	8.127491E-1	7.943553E-1	7.846407E-1	7.971806E-1	8.156499E-1	8.002898E-1	7.762007E-1	7.946035E-1	7.336689E-1	8.020645E-1	7.875490E-1	8.065862E-1	7.703780E-1	7.480956E-1	7.716327E-1	7.569617E-1	7.721629E-1	7.628446E-1	7.967320E-1	7.333328E-1	7.526164E-1	7.667137E-1	7.381719E-1	7.899177E-1	7.387923E-1	7.520037E-1	8.908621E-1	8.403798E-1	8.522425E-1	7.835561E-1	7.276603E-1	8.514827E-1	7.862093E-1	8.127505E-1	7.848938E-1	8.185447E-1	7.811478E-1	7.455594E-1	7.866804E-1	7.520702E-1	7.488936E-1	8.149811E-1	8.049205E-1	8.191364E-1	7.800749E-1	7.906271E-1	7.552180E-1	8.056454E-1	7.928896E-1	8.051962E-1	8.191018E-1	8.084082E-1	7.851992E-1	7.802718E-1	8.311466E-1	7.666005E-1	8.458404E-1	7.900035E-1	7.951602E-1	7.762879E-1	8.633662E-1	7.904041E-1	7.892454E-1	8.036539E-1	7.835176E-1	8.439808E-1	7.877254E-1	7.476710E-1	7.548609E-1	7.407716E-1	7.822001E-1	7.880828E-1	7.555036E-1	7.653700E-1	7.557073E-1	7.871358E-1	8.388041E-1	7.589973E-1	7.515501E-1	7.826242E-1	7.190346E-1	7.253040E-1	8.221944E-1	7.908939E-1	8.426672E-1	7.815198E-1	7.857420E-1	7.928658E-1	8.152602E-1	7.875508E-1	7.779770E-1	7.588302E-1	7.360230E-1	7.687985E-1	7.809198E-1	8.403925E-1	8.299613E-1	7.340361E-1	8.302664E-1	7.387117E-1	8.118802E-1	7.165197E-1	7.960692E-1	8.070461E-1	7.823518E-1	7.856897E-1	7.905120E-1	7.971489E-1	8.120618E-1	8.078834E-1	7.449882E-1	7.492222E-1	8.039041E-1	7.591324E-1	8.251649E-1	7.989588E-1	7.577686E-1
2.894050E+2	8.035154E-1	8.977729E-1	8.250558E-1	8.199274E-1	8.073639E-1	9.095452E-1	8.520351E-1	7.947176E-1	8.363532E-1	8.070187E-1	8.231244E-1	7.802320E-1	8.490627E-1	8.106447E-1	8.660599E-1	8.519988E-1	8.682296E-1	8.115782E-1	8.393965E-1	8.437390E-1	8.340448E-1	9.287909E-1	8.501323E-1	8.831250E-1	8.249113E-1	8.225344E-1	7.915901E-1	8.059437E-1	9.004522E-1	8.856713E-1	8.624332E-1	8.412938E-1	9.299714E-1	9.038547E-1	8.585740E-1	8.269183E-1	7.997866E-1	8.877093E-1	8.778147E-1	8.321099E-1	8.606603E-1	7.905415E-1	8.053085E-1	8.251997E-1	8.461199E-1	8.922645E-1	8.066791E-1	8.374914E-1	8.442257E-1	8.570917E-1	8.679688E-1	8.040497E-1	9.125860E-1	8.179587E-1	8.865067E-1	7.820705E-1	7.873977E-1	8.484910E-1	8.849498E-1	8.735769E-1	8.405651E-1	8.476783E-1	8.790147E-1	9.119533E-1	8.592520E-1	8.820256E-1	8.730217E-1	8.368745E-1	8.258879E-1	8.223357E-1	8.488909E-1	8.025498E-1	8.428301E-1	8.198028E-1	8.309963E-1	7.437353E-1	8.549226E-1	8.838917E-1	8.321643E-1	8.022804E-1	7.661013E-1	8.777263E-1	8.875478E-1	8.631148E-1	8.937628E-1	8.980806E-1	8.257650E-1	8.125437E-1	8.238951E-1	8.400465E-1	8.101723E-1	8.532364E-1	8.249012E-1	8.260977E-1	8.388677E-1	7.950807E-1	8.344052E-1	8.480750E-1	8.657188E-1	7.957136E-1	7.733428E-1	8.750606E-1	8.963023E-1	8.239104E-1	8.010905E-1	8.291777E-1	8.490280E-1	8.860790E-1	8.520501E-1	8.730570E-1	8.991917E-1	9.321329E-1	8.624061E-1	8.300217E-1	8.530666E-1	8.718687E-1	8.604478E-1	8.498107E-1	8.820271E-1	8.344566E-1	8.784073E-1	8.336775E-1	8.396601E-1	8.716873E-1	8.365249E-1	8.466028E-1	8.199212E-1	8.389990E-1	8.835308E-1	9.200912E-1	9.173883E-1	8.458702E-1	8.244609E-1	9.229722E-1	8.454946E-1	8.439453E-1	8.209960E-1	8.425745E-1	7.706618E-1	7.395924E-1	8.899730E-1	9.000868E-1	8.692645E-1	8.412879E-1	8.206467E-1	8.427776E-1	8.585815E-1	8.349799E-1	8.210341E-1	8.694070E-1	8.014453E-1	8.235701E-1	8.781926E-1	8.044910E-1	8.789108E-1	8.283816E-1	8.774609E-1	9.149325E-1	8.827695E-1	9.408076E-1	8.212309E-1	8.855682E-1	9.265637E-1	8.799213E-1	8.683796E-1	8.813541E-1	8.809666E-1	8.543367E-1	8.281570E-1	8.595519E-1	7.910686E-1
2.896030E+2	8.510229E-1	9.252341E-1	8.872901E-1	9.014919E-1	9.562424E-1	8.915810E-1	9.626368E-1	9.271109E-1	8.911057E-1	1.022770E+0	8.944852E-1	8.922690E-1	8.756123E-1	9.211583E-1	8.906205E-1	8.754646E-1	8.645991E-1	9.230560E-1	8.617587E-1	8.687854E-1	8.853113E-1	9.306286E-1	8.771767E-1	8.554449E-1	9.249069E-1	8.806472E-1	9.045683E-1	9.299361E-1	8.790772E-1	8.839513E-1	9.660412E-1	8.868381E-1	9.211785E-1	8.727472E-1	9.601001E-1	9.496957E-1	9.151532E-1	9.229809E-1	9.164377E-1	9.138782E-1	9.924420E-1	9.439999E-1	8.653500E-1	9.153234E-1	8.787372E-1	9.303439E-1	8.767513E-1	8.977426E-1	9.225439E-1	9.383874E-1	9.142385E-1	8.444547E-1	8.915407E-1	9.570212E-1	8.954982E-1	9.610948E-1	9.336777E-1	8.541045E-1	9.293256E-1	8.930379E-1	9.215809E-1	9.534529E-1	8.943844E-1	9.526631E-1	8.705983E-1	9.009528E-1	9.376906E-1	9.528398E-1	8.907698E-1	9.511688E-1	9.290620E-1	9.060459E-1	9.282107E-1	9.308709E-1	9.392317E-1	8.653229E-1	9.700431E-1	9.357145E-1	9.578918E-1	8.811187E-1	8.647828E-1	8.973355E-1	9.145939E-1	9.179806E-1	9.120631E-1	9.222477E-1	1.015141E+0	9.293295E-1	9.386103E-1	9.068801E-1	9.412622E-1	9.492103E-1	8.953642E-1	8.960476E-1	9.554143E-1	8.999900E-1	9.047553E-1	9.503849E-1	8.570603E-1	9.346149E-1	9.696960E-1	9.371798E-1	9.288021E-1	9.201859E-1	8.704160E-1	9.245260E-1	9.668780E-1	9.472210E-1	8.792808E-1	9.288207E-1	9.285118E-1	8.747841E-1	9.442035E-1	8.921406E-1	9.393124E-1	8.969250E-1	8.776826E-1	8.672590E-1	9.567377E-1	9.064340E-1	9.211134E-1	9.177495E-1	9.959665E-1	9.877006E-1	8.820945E-1	8.890093E-1	9.225498E-1	8.837579E-1	8.368204E-1	9.798101E-1	9.265989E-1	9.330525E-1	8.235186E-1	9.413493E-1	9.111421E-1	9.232044E-1	9.902497E-1	9.056913E-1	9.814132E-1	8.848457E-1	9.026061E-1	9.376494E-1	9.545065E-1	9.165503E-1	8.798374E-1	9.539749E-1	8.973802E-1	9.249683E-1	8.848186E-1	9.530390E-1	9.539936E-1	8.601213E-1	8.379431E-1	9.512292E-1	8.808821E-1	9.356731E-1	9.651981E-1	9.216410E-1	9.399885E-1	9.457540E-1	8.557525E-1	9.076036E-1	9.569621E-1	9.824485E-1	8.831571E-1	9.109876E-1	8.933692E-1	8.907509E-1	8.527548E-1	9.262570E-1	9.673056E-1
2.898050E+2	7.646686E-1	7.974723E-1	7.769127E-1	7.359741E-1	7.590752E-1	7.472524E-1	8.577157E-1	8.403860E-1	7.678533E-1	8.390064E-1	7.714197E-1	7.644652E-1	7.670989E-1	7.934923E-1	7.763794E-1	7.679485E-1	8.300194E-1	7.619446E-1	7.392761E-1	7.974919E-1	7.586353E-1	7.940955E-1	7.439876E-1	7.360710E-1	7.916717E-1	7.759874E-1	8.038907E-1	7.587553E-1	7.607675E-1	7.668277E-1	7.529345E-1	7.437352E-1	8.277297E-1	7.609221E-1	7.474664E-1	8.020066E-1	7.480529E-1	7.500584E-1	7.617986E-1	7.345511E-1	7.965645E-1	8.644900E-1	8.144756E-1	7.747283E-1	7.990973E-1	7.750880E-1	8.208743E-1	7.610564E-1	7.778191E-1	8.227312E-1	7.777044E-1	7.367347E-1	7.396044E-1	7.484624E-1	7.914282E-1	7.142948E-1	7.598184E-1	7.749824E-1	8.454469E-1	7.964212E-1	7.886843E-1	8.251476E-1	8.153716E-1	7.056078E-1	7.605736E-1	8.237327E-1	7.976732E-1	7.426838E-1	7.733943E-1	7.768735E-1	8.281951E-1	7.538694E-1	8.128759E-1	7.911820E-1	7.765983E-1	7.777995E-1	7.469877E-1	7.651429E-1	7.545912E-1	7.533262E-1	7.708688E-1	8.571291E-1	8.302629E-1	7.791253E-1	7.810478E-1	7.884925E-1	8.199947E-1	7.564574E-1	7.664624E-1	7.601741E-1	8.020373E-1	7.864549E-1	8.092212E-1	7.472518E-1	7.831147E-1	7.357976E-1	7.436458E-1	7.431052E-1	7.482104E-1	7.511954E-1	8.161720E-1	7.853419E-1	8.091706E-1	7.325204E-1	7.784734E-1	7.706802E-1	7.763945E-1	7.777207E-1	7.399357E-1	8.200175E-1	7.676105E-1	7.885115E-1	7.812215E-1	7.409006E-1	7.559522E-1	7.748825E-1	7.850847E-1	7.701147E-1	8.036194E-1	7.786605E-1	7.513127E-1	7.895850E-1	7.440502E-1	7.644405E-1	7.789958E-1	8.035283E-1	7.464476E-1	8.045537E-1	7.806675E-1	7.195188E-1	7.792105E-1	7.743864E-1	7.314704E-1	7.880384E-1	7.629275E-1	8.111425E-1	7.528413E-1	7.243406E-1	7.878054E-1	7.909792E-1	7.479995E-1	7.374817E-1	7.812272E-1	7.800693E-1	7.405476E-1	7.721434E-1	7.584957E-1	7.974129E-1	8.015028E-1	8.563596E-1	8.312537E-1	7.259800E-1	7.929916E-1	7.816625E-1	8.134571E-1	7.102765E-1	7.894905E-1	7.862513E-1	7.918456E-1	7.296071E-1	7.498242E-1	7.590794E-1	7.826521E-1	8.154915E-1	7.144691E-1	7.592016E-1	8.224747E-1	8.322199E-1	7.944414E-1	7.240463E-1	6.734281E-1
2.900030E+2	6.008643E-1	6.440598E-1	6.516608E-1	6.647110E-1	6.692050E-1	6.815259E-1	6.835605E-1	7.103011E-1	6.740056E-1	6.200239E-1	6.790271E-1	6.496764E-1	6.519844E-1	6.695242E-1	6.625750E-1	6.523784E-1	6.658333E-1	6.530761E-1	7.178326E-1	6.304578E-1	6.760873E-1	6.515178E-1	6.508240E-1	7.218113E-1	6.691700E-1	6.147069E-1	7.016368E-1	6.318093E-1	6.149533E-1	6.442699E-1	6.357859E-1	6.552915E-1	6.724887E-1	6.684921E-1	7.030938E-1	6.575112E-1	7.347419E-1	6.392252E-1	6.876110E-1	6.031259E-1	6.619585E-1	7.089172E-1	6.162163E-1	6.240652E-1	5.912746E-1	6.795639E-1	6.555725E-1	6.864587E-1	6.435343E-1	6.102779E-1	6.697336E-1	7.003372E-1	6.516006E-1	6.109666E-1	6.370225E-1	6.958253E-1	6.379243E-1	7.004700E-1	7.381685E-1	6.550914E-1	6.500505E-1	6.778560E-1	6.294710E-1	6.686317E-1	6.927640E-1	6.239101E-1	6.339661E-1	6.382320E-1	6.614342E-1	7.228769E-1	6.649525E-1	5.792392E-1	6.387354E-1	6.366274E-1	6.477694E-1	6.725689E-1	6.265164E-1	6.945999E-1	6.431440E-1	6.622385E-1	6.127960E-1	7.074359E-1	7.087018E-1	6.942469E-1	6.996361E-1	6.423859E-1	6.848163E-1	6.782137E-1	6.468909E-1	6.668698E-1	6.631667E-1	7.067303E-1	6.776547E-1	6.289682E-1	6.496149E-1	6.603045E-1	6.716396E-1	6.697712E-1	6.763287E-1	6.411788E-1	6.123476E-1	6.821775E-1	6.782342E-1	6.374733E-1	6.239585E-1	6.628644E-1	6.475222E-1	7.002013E-1	6.898142E-1	5.921772E-1	6.037510E-1	7.567760E-1	6.636562E-1	6.317483E-1	6.593647E-1	6.371920E-1	6.211063E-1	7.126917E-1	7.025274E-1	6.570405E-1	6.646596E-1	5.986050E-1	6.499312E-1	6.323646E-1	6.807123E-1	6.706040E-1	6.646665E-1	6.946489E-1	7.137700E-1	6.962741E-1	6.238164E-1	6.617423E-1	6.902008E-1	6.565968E-1	6.712711E-1	6.135393E-1	6.674553E-1	6.689479E-1	6.751000E-1	6.161461E-1	6.320194E-1	6.949069E-1	6.698316E-1	6.516562E-1	6.312405E-1	6.321070E-1	6.834003E-1	6.586899E-1	6.584166E-1	6.434826E-1	6.924912E-1	6.610289E-1	6.873153E-1	6.630537E-1	6.498446E-1	6.458840E-1	6.479464E-1	6.395738E-1	6.534118E-1	6.765131E-1	6.401567E-1	6.647099E-1	6.602394E-1	6.968979E-1	6.673293E-1	6.791293E-1	6.350456E-1	6.699063E-1	7.111654E-1	6.553972E-1	7.600167E-1
2.905220E+2	6.810049E-1	6.159860E-1	5.963617E-1	5.823760E-1	6.432995E-1	6.636694E-1	6.439500E-1	6.616754E-1	6.385675E-1	6.583674E-1	6.057598E-1	6.521391E-1	6.521428E-1	6.295535E-1	6.568620E-1	6.295874E-1	6.354220E-1	5.975623E-1	6.672485E-1	6.239147E-1	6.465497E-1	6.123373E-1	6.979275E-1	6.392376E-1	6.033555E-1	5.938803E-1	6.640194E-1	5.932210E-1	6.452234E-1	6.540126E-1	6.094295E-1	6.014141E-1	6.280149E-1	6.357688E-1	6.433248E-1	6.354830E-1	6.232889E-1	6.297573E-1	6.811839E-1	6.015891E-1	6.342877E-1	6.479037E-1	6.602500E-1	6.891594E-1	5.807013E-1	6.202379E-1	6.196266E-1	6.356008E-1	6.417742E-1	6.098541E-1	6.126004E-1	6.005676E-1	6.217618E-1	5.953775E-1	7.058058E-1	6.421270E-1	6.570651E-1	6.348905E-1	5.732113E-1	6.326034E-1	6.182016E-1	6.499579E-1	6.207899E-1	6.711728E-1	5.765618E-1	6.126470E-1	6.292788E-1	6.312957E-1	6.430598E-1	6.098496E-1	6.091103E-1	6.024595E-1	6.776668E-1	6.189927E-1	6.732572E-1	5.681385E-1	5.939170E-1	6.330974E-1	6.115729E-1	6.272300E-1	6.295776E-1	6.595200E-1	6.389238E-1	5.916982E-1	6.518946E-1	6.387490E-1	6.370868E-1	5.797341E-1	6.406959E-1	6.458493E-1	6.560089E-1	6.024584E-1	6.564650E-1	6.098333E-1	6.017941E-1	6.154808E-1	6.215258E-1	6.397537E-1	6.640072E-1	6.305684E-1	6.552901E-1	6.013610E-1	6.266707E-1	6.204226E-1	6.423021E-1	6.520252E-1	6.589242E-1	5.800930E-1	6.676214E-1	6.446615E-1	6.464395E-1	6.360502E-1	6.947090E-1	6.418150E-1	6.499863E-1	6.963294E-1	6.258443E-1	5.853333E-1	6.976098E-1	5.889929E-1	6.292452E-1	6.569923E-1	6.200803E-1	6.437756E-1	6.164216E-1	6.343642E-1	6.131937E-1	6.389770E-1	6.782995E-1	5.908776E-1	6.816898E-1	6.330275E-1	5.828572E-1	6.410792E-1	6.069447E-1	6.404049E-1	6.561241E-1	6.495738E-1	6.291142E-1	6.543361E-1	6.496535E-1	6.576921E-1	6.111421E-1	6.109090E-1	5.978591E-1	6.031377E-1	6.578408E-1	6.756214E-1	6.770152E-1	6.668081E-1	6.101280E-1	5.646861E-1	6.581518E-1	6.207313E-1	6.195574E-1	6.450532E-1	5.863399E-1	6.351482E-1	6.383424E-1	6.636226E-1	6.755778E-1	6.436218E-1	6.298729E-1	6.208274E-1	5.844266E-1	6.993817E-1	6.078282E-1	6.408222E-1	5.957479E-1	6.183023E-1	6.996664E-1
2.910040E+2	9.060556E-1	9.563117E-1	8.317531E-1	8.546315E-1	8.760713E-1	9.324223E-1	9.788698E-1	9.519125E-1	8.683971E-1	9.292954E-1	8.866824E-1	8.459967E-1	8.670771E-1	8.927749E-1	9.353253E-1	8.565841E-1	8.796350E-1	8.563825E-1	8.742458E-1	8.553514E-1	9.056593E-1	8.816393E-1	9.501986E-1	8.633149E-1	8.912791E-1	8.350810E-1	9.092305E-1	8.894031E-1	9.296020E-1	8.684099E-1	8.836508E-1	8.543464E-1	9.303017E-1	9.417902E-1	8.692498E-1	8.897513E-1	8.689628E-1	8.710396E-1	8.962817E-1	8.779841E-1	8.833839E-1	9.275035E-1	9.082099E-1	9.689903E-1	8.714766E-1	9.070110E-1	8.626457E-1	8.715697E-1	8.465160E-1	8.867704E-1	8.680901E-1	8.785221E-1	9.486424E-1	9.142736E-1	8.700500E-1	9.015782E-1	8.738935E-1	9.073007E-1	9.045084E-1	8.624650E-1	8.720060E-1	8.918453E-1	9.253138E-1	8.787980E-1	9.247561E-1	8.217197E-1	8.835657E-1	9.358455E-1	8.862485E-1	8.801217E-1	8.997829E-1	8.945841E-1	8.943532E-1	8.843299E-1	9.475446E-1	8.517509E-1	9.515867E-1	9.263980E-1	9.530681E-1	9.179150E-1	9.013592E-1	9.226450E-1	9.258973E-1	8.997541E-1	9.386587E-1	9.183214E-1	9.322829E-1	8.810086E-1	9.716262E-1	9.151363E-1	9.459688E-1	9.884786E-1	8.973034E-1	8.765347E-1	9.740606E-1	9.497733E-1	9.455605E-1	9.128658E-1	9.330763E-1	9.034310E-1	8.844446E-1	9.144918E-1	9.435630E-1	8.643636E-1	8.884908E-1	9.325758E-1	8.767493E-1	9.521643E-1	9.844671E-1	9.345783E-1	9.139268E-1	8.976422E-1	9.331506E-1	8.785548E-1	9.358925E-1	8.881598E-1	9.129900E-1	9.409471E-1	8.792205E-1	9.111338E-1	9.434838E-1	9.088277E-1	9.333867E-1	8.726645E-1	9.286478E-1	9.121597E-1	9.853982E-1	9.245391E-1	8.880070E-1	9.577679E-1	8.875025E-1	9.767082E-1	9.592531E-1	8.871500E-1	8.722833E-1	8.408039E-1	8.871483E-1	8.889006E-1	9.347357E-1	9.615926E-1	8.955679E-1	8.978572E-1	8.403803E-1	8.206224E-1	9.015061E-1	9.340119E-1	8.998370E-1	8.693608E-1	8.741010E-1	9.484797E-1	8.867579E-1	8.320347E-1	8.395493E-1	8.968803E-1	9.611335E-1	9.627700E-1	8.617553E-1	8.734177E-1	9.206006E-1	9.457115E-1	9.215034E-1	8.891838E-1	9.200741E-1	9.588860E-1	8.686768E-1	9.137455E-1	9.096349E-1	9.176395E-1	8.743179E-1	8.802753E-1	9.284580E-1
2.914980E+2	1.092674E+0	1.190319E+0	1.159171E+0	1.151138E+0	1.102938E+0	1.220951E+0	1.217307E+0	1.190281E+0	1.188364E+0	1.097073E+0	1.180675E+0	1.167594E+0	1.176553E+0	1.294258E+0	1.217908E+0	1.195128E+0	1.205088E+0	1.162708E+0	1.213570E+0	1.131206E+0	1.101690E+0	1.176949E+0	1.213905E+0	1.141869E+0	1.165016E+0	1.136742E+0	1.180358E+0	1.199686E+0	1.121614E+0	1.164091E+0	1.159039E+0	1.163471E+0	1.219259E+0	1.208274E+0	1.158739E+0	1.138291E+0	1.141171E+0	1.120155E+0	1.183191E+0	1.144676E+0	1.175600E+0	1.155210E+0	1.211355E+0	1.153617E+0	1.189321E+0	1.238092E+0	1.178488E+0	1.139012E+0	1.132860E+0	1.129884E+0	1.174574E+0	1.104494E+0	1.212314E+0	1.158080E+0	1.161257E+0	1.213146E+0	1.231386E+0	1.263147E+0	1.234013E+0	1.203837E+0	1.219980E+0	1.225134E+0	1.149806E+0	1.211573E+0	1.156365E+0	1.108727E+0	1.206546E+0	1.207969E+0	1.121859E+0	1.164588E+0	1.164432E+0	1.216035E+0	1.184217E+0	1.174826E+0	1.222694E+0	1.146997E+0	1.164091E+0	1.121865E+0	1.178838E+0	1.148825E+0	1.191698E+0	1.261293E+0	1.170770E+0	1.140395E+0	1.174527E+0	1.224528E+0	1.228402E+0	1.188136E+0	1.122574E+0	1.161292E+0	1.219138E+0	1.177275E+0	1.181997E+0	1.111468E+0	1.159389E+0	1.136500E+0	1.158006E+0	1.177187E+0	1.180664E+0	1.159224E+0	1.197032E+0	1.081856E+0	1.122770E+0	1.160272E+0	1.155064E+0	1.144224E+0	1.218253E+0	1.174102E+0	1.187208E+0	1.218586E+0	1.176971E+0	1.165440E+0	1.236923E+0	1.149124E+0	1.210336E+0	1.180487E+0	1.168843E+0	1.159072E+0	1.176132E+0	1.158014E+0	1.158939E+0	1.261161E+0	1.208890E+0	1.129048E+0	1.169827E+0	1.123231E+0	1.211915E+0	1.136462E+0	1.138963E+0	1.097620E+0	1.199836E+0	1.205606E+0	1.197304E+0	1.220429E+0	1.146412E+0	1.211609E+0	1.218519E+0	1.195642E+0	1.231392E+0	1.220617E+0	1.226527E+0	1.213389E+0	1.114043E+0	1.179346E+0	1.145745E+0	1.252552E+0	1.124822E+0	1.146590E+0	1.184874E+0	1.246219E+0	1.151832E+0	1.274133E+0	1.166329E+0	1.225460E+0	1.164392E+0	1.072422E+0	1.199952E+0	1.197386E+0	1.214785E+0	1.219284E+0	1.217206E+0	1.190638E+0	1.223075E+0	1.172424E+0	1.154126E+0	1.154255E+0	1.070386E+0	1.170559E+0	1.134885E+0	1.207471E+0	1.207291E+0
2.920030E+2	1.093322E+0	1.201966E+0	1.106498E+0	1.201400E+0	1.129622E+0	1.121222E+0	1.268160E+0	1.129578E+0	1.115144E+0	1.195076E+0	1.110749E+0	1.104849E+0	1.144666E+0	1.209525E+0	1.216982E+0	1.183909E+0	1.184632E+0	1.136516E+0	1.219430E+0	1.129019E+0	1.102196E+0	1.169012E+0	1.119506E+0	1.296861E+0	1.147922E+0	1.148828E+0	1.182950E+0	1.146910E+0	1.151558E+0	1.251001E+0	1.143125E+0	1.147640E+0	1.213297E+0	1.165518E+0	1.161648E+0	1.173132E+0	1.234711E+0	1.123478E+0	1.130794E+0	1.121997E+0	1.113035E+0	1.243598E+0	1.210445E+0	1.202427E+0	1.104256E+0	1.240604E+0	1.204020E+0	1.216191E+0	1.217465E+0	1.163963E+0	1.195889E+0	1.201781E+0	1.208590E+0	1.147542E+0	1.210451E+0	1.199117E+0	1.218949E+0	1.225390E+0	1.209564E+0	1.137692E+0	1.135481E+0	1.142828E+0	1.226595E+0	1.289405E+0	1.074082E+0	1.220047E+0	1.218288E+0	1.196005E+0	1.137815E+0	1.218777E+0	1.199053E+0	1.198953E+0	1.168912E+0	1.194903E+0	1.138188E+0	1.219376E+0	1.211656E+0	1.180715E+0	1.233743E+0	1.182355E+0	1.105768E+0	1.144961E+0	1.219396E+0	1.154781E+0	1.228635E+0	1.193280E+0	1.197857E+0	1.254970E+0	1.090161E+0	1.151017E+0	1.173207E+0	1.205887E+0	1.152389E+0	1.154766E+0	1.184612E+0	1.219985E+0	1.191863E+0	1.214989E+0	1.255358E+0	1.158438E+0	1.111332E+0	1.089927E+0	1.150375E+0	1.144132E+0	1.230952E+0	1.219364E+0	1.225643E+0	1.125333E+0	1.153101E+0	1.272076E+0	1.203210E+0	1.200202E+0	1.171230E+0	1.172322E+0	1.160510E+0	1.171707E+0	1.162508E+0	1.267710E+0	1.197605E+0	1.232793E+0	1.218781E+0	1.193095E+0	1.183685E+0	1.173480E+0	1.184960E+0	1.167552E+0	1.114346E+0	1.147350E+0	1.166290E+0	1.234492E+0	1.200503E+0	1.131185E+0	1.160922E+0	1.170576E+0	1.228444E+0	1.171757E+0	1.138382E+0	1.181931E+0	1.139252E+0	1.126796E+0	1.159144E+0	1.176304E+0	1.199295E+0	1.140989E+0	1.133143E+0	1.087213E+0	1.217180E+0	1.253805E+0	1.239003E+0	1.188075E+0	1.113911E+0	1.176029E+0	1.169231E+0	1.251076E+0	1.119419E+0	1.108122E+0	1.170528E+0	1.071036E+0	1.161901E+0	1.185355E+0	1.201673E+0	1.238845E+0	1.188726E+0	1.247071E+0	1.180594E+0	1.151292E+0	1.141122E+0	1.193134E+0	1.215703E+0	1.180718E+0	1.182912E+0
2.925000E+2	1.040783E+0	1.124546E+0	1.043801E+0	1.108704E+0	1.028464E+0	1.048372E+0	1.201040E+0	1.101202E+0	1.028296E+0	1.055777E+0	1.082279E+0	9.944090E-1	1.122394E+0	1.065802E+0	1.107317E+0	1.034552E+0	1.121952E+0	1.081692E+0	1.056820E+0	1.076089E+0	1.061011E+0	1.028719E+0	1.123314E+0	1.097261E+0	1.048669E+0	1.080864E+0	1.139010E+0	1.048157E+0	1.049848E+0	1.055124E+0	1.079831E+0	1.085357E+0	1.087509E+0	1.122777E+0	1.041029E+0	1.098618E+0	1.106723E+0	1.011031E+0	1.154671E+0	9.910041E-1	1.028394E+0	1.094810E+0	1.033733E+0	1.041113E+0	1.061875E+0	1.062749E+0	1.107301E+0	1.068759E+0	1.023056E+0	1.050755E+0	1.071467E+0	1.070448E+0	1.071203E+0	1.082813E+0	1.039799E+0	1.071246E+0	1.038435E+0	1.052018E+0	1.046605E+0	1.030320E+0	1.049351E+0	1.033673E+0	1.055269E+0	1.032513E+0	1.076846E+0	1.058264E+0	1.093388E+0	9.859840E-1	1.061595E+0	1.062785E+0	1.039516E+0	1.018540E+0	1.036288E+0	1.070667E+0	1.082070E+0	1.045698E+0	1.047530E+0	1.058337E+0	9.402774E-1	1.044949E+0	1.026220E+0	1.129394E+0	1.076736E+0	1.060482E+0	1.097954E+0	1.055836E+0	1.149172E+0	1.050371E+0	1.027841E+0	1.085063E+0	1.083544E+0	1.069206E+0	1.017644E+0	1.056088E+0	1.160061E+0	1.016254E+0	1.040536E+0	1.048997E+0	1.081366E+0	1.025222E+0	1.015059E+0	1.071814E+0	1.071687E+0	1.019505E+0	1.039404E+0	1.062247E+0	1.051689E+0	9.868282E-1	1.043412E+0	1.125708E+0	1.073951E+0	1.032792E+0	9.959052E-1	1.037420E+0	1.118108E+0	9.794937E-1	1.013881E+0	1.062376E+0	1.103762E+0	1.114618E+0	1.046164E+0	1.068616E+0	1.116739E+0	1.002368E+0	1.026245E+0	1.073055E+0	9.902213E-1	1.082980E+0	1.049581E+0	1.023771E+0	1.040504E+0	1.048553E+0	1.055659E+0	9.995921E-1	1.168355E+0	1.111101E+0	1.083483E+0	1.110510E+0	1.102610E+0	1.034304E+0	1.106534E+0	1.062198E+0	1.087656E+0	1.061212E+0	1.107097E+0	1.097564E+0	1.079434E+0	1.059553E+0	1.053747E+0	1.015641E+0	1.120322E+0	1.120458E+0	1.040349E+0	1.031069E+0	1.093796E+0	1.081089E+0	1.076071E+0	1.067458E+0	1.131245E+0	1.065989E+0	1.002841E+0	1.103106E+0	1.095280E+0	1.064558E+0	1.042771E+0	1.080709E+0	1.089851E+0	1.115937E+0	1.048283E+0	1.039374E+0	1.049222E+0
2.930050E+2	1.019491E+0	1.054925E+0	9.462398E-1	9.796812E-1	9.446877E-1	9.579417E-1	1.030285E+0	9.467444E-1	9.827032E-1	9.725107E-1	9.792595E-1	9.377093E-1	9.840760E-1	9.785540E-1	1.065124E+0	1.003376E+0	1.027943E+0	9.770452E-1	1.026670E+0	9.323671E-1	9.800262E-1	9.974414E-1	9.487601E-1	9.642519E-1	9.814075E-1	9.299267E-1	1.002509E+0	9.360784E-1	1.017271E+0	9.429131E-1	9.769037E-1	9.990500E-1	1.035215E+0	1.024289E+0	9.977287E-1	1.014701E+0	1.017317E+0	1.032581E+0	1.059664E+0	9.471516E-1	9.694396E-1	1.046391E+0	1.005551E+0	9.748857E-1	9.910097E-1	9.789322E-1	9.536698E-1	1.051330E+0	9.814182E-1	1.002369E+0	9.827448E-1	9.778840E-1	1.012922E+0	1.029200E+0	9.997814E-1	9.947165E-1	9.365319E-1	1.009262E+0	1.017347E+0	9.922519E-1	9.881815E-1	9.959422E-1	1.008712E+0	1.000365E+0	9.853351E-1	9.592480E-1	1.067479E+0	9.599998E-1	9.774179E-1	1.008582E+0	1.027105E+0	8.927436E-1	1.014771E+0	1.004332E+0	9.800589E-1	9.904969E-1	1.057506E+0	1.019540E+0	9.405288E-1	9.863226E-1	9.859847E-1	9.775794E-1	9.192649E-1	1.065783E+0	1.060609E+0	1.022439E+0	9.973393E-1	9.866843E-1	9.908356E-1	9.725001E-1	1.007224E+0	1.060628E+0	9.445745E-1	9.876412E-1	9.938839E-1	9.910129E-1	9.312295E-1	1.000176E+0	1.024185E+0	9.917943E-1	9.600449E-1	9.435179E-1	9.997250E-1	9.731692E-1	9.783194E-1	9.869753E-1	1.026204E+0	9.617190E-1	1.007516E+0	1.019152E+0	1.008246E+0	9.818858E-1	9.985325E-1	9.611631E-1	9.772295E-1	1.056419E+0	1.008904E+0	9.652583E-1	1.047003E+0	1.057050E+0	9.851997E-1	1.070433E+0	1.009939E+0	9.787244E-1	9.541178E-1	1.045906E+0	1.000396E+0	9.581520E-1	9.713169E-1	9.836762E-1	1.053729E+0	9.930308E-1	9.945612E-1	1.005608E+0	9.387166E-1	9.717251E-1	1.038159E+0	1.014580E+0	1.046456E+0	1.044095E+0	1.020027E+0	1.032660E+0	9.724345E-1	9.097979E-1	1.001622E+0	1.072931E+0	9.595798E-1	9.978085E-1	1.000666E+0	9.951079E-1	1.057062E+0	9.474617E-1	9.536987E-1	1.008350E+0	1.016551E+0	9.566318E-1	1.009571E+0	9.745309E-1	9.795733E-1	1.097236E+0	1.081575E+0	1.016394E+0	9.649794E-1	1.024051E+0	9.411782E-1	1.035684E+0	1.022833E+0	9.107440E-1	8.656258E-1	9.265650E-1	1.035975E+0
2.935090E+2	9.289185E-1	1.004616E+0	9.242549E-1	9.019342E-1	9.093373E-1	9.103231E-1	9.379612E-1	9.698733E-1	9.519824E-1	9.912193E-1	9.869698E-1	1.023937E+0	9.366905E-1	9.630328E-1	9.922465E-1	1.010265E+0	8.975635E-1	9.596387E-1	9.265404E-1	9.885895E-1	9.595759E-1	9.653393E-1	1.028281E+0	9.831547E-1	1.041193E+0	8.870528E-1	9.903079E-1	9.138944E-1	9.317329E-1	9.796882E-1	9.384257E-1	9.481959E-1	9.603172E-1	9.809978E-1	9.684665E-1	9.357519E-1	9.390607E-1	8.888633E-1	9.947863E-1	8.872221E-1	9.958818E-1	9.087286E-1	9.394215E-1	9.634208E-1	9.529781E-1	9.557389E-1	9.360752E-1	9.696620E-1	9.826725E-1	9.283941E-1	9.416882E-1	9.116421E-1	1.036538E+0	9.843465E-1	1.009730E+0	9.508649E-1	9.753713E-1	1.002610E+0	9.287033E-1	9.145474E-1	9.237409E-1	9.608056E-1	9.740616E-1	9.641154E-1	8.801168E-1	9.418099E-1	9.737917E-1	9.513251E-1	9.273210E-1	9.477539E-1	9.591277E-1	8.993611E-1	1.013401E+0	9.658288E-1	9.695349E-1	9.696122E-1	9.630649E-1	9.614866E-1	8.471205E-1	9.654043E-1	9.553324E-1	1.001046E+0	9.652765E-1	9.827355E-1	9.933574E-1	1.016578E+0	9.570170E-1	9.612169E-1	9.262143E-1	9.286178E-1	9.788128E-1	9.645472E-1	9.583450E-1	9.042723E-1	9.726832E-1	9.420493E-1	9.520841E-1	9.971939E-1	9.465297E-1	9.047397E-1	9.769433E-1	9.197792E-1	9.522861E-1	9.048098E-1	9.422916E-1	9.992662E-1	9.555008E-1	9.143840E-1	9.672950E-1	1.007045E+0	9.983050E-1	1.017330E+0	9.494879E-1	9.509513E-1	9.217290E-1	9.497532E-1	9.292114E-1	9.529974E-1	9.684346E-1	9.946195E-1	9.817870E-1	9.822465E-1	9.557322E-1	9.136859E-1	9.206339E-1	9.123217E-1	8.874570E-1	9.253993E-1	9.447349E-1	9.515197E-1	9.870799E-1	9.597887E-1	8.931238E-1	9.963200E-1	9.621627E-1	8.924770E-1	1.013686E+0	9.079882E-1	1.011967E+0	9.480325E-1	8.875614E-1	9.113704E-1	9.844595E-1	9.770632E-1	9.688826E-1	1.011074E+0	9.613821E-1	9.897331E-1	9.880377E-1	9.269213E-1	9.526844E-1	9.330474E-1	9.907838E-1	8.886938E-1	9.606372E-1	9.554363E-1	8.925143E-1	9.365419E-1	9.806134E-1	9.549391E-1	9.735936E-1	9.519533E-1	9.981189E-1	9.341645E-1	9.606121E-1	1.026805E+0	1.019317E+0	9.629189E-1	9.565057E-1	8.731497E-1	8.375839E-1
2.940070E+2	8.474838E-1	9.367303E-1	9.125975E-1	9.177337E-1	9.777551E-1	9.184813E-1	9.794949E-1	9.465464E-1	9.247158E-1	9.398544E-1	9.410171E-1	9.216998E-1	9.103561E-1	9.531889E-1	9.763536E-1	9.713368E-1	9.456994E-1	9.491159E-1	9.422156E-1	8.820732E-1	9.297980E-1	8.937696E-1	9.295868E-1	9.008204E-1	9.715142E-1	9.376476E-1	9.172071E-1	9.150059E-1	9.252523E-1	9.464768E-1	9.209700E-1	9.192245E-1	9.965689E-1	1.017257E+0	9.656761E-1	9.355903E-1	9.258804E-1	9.357031E-1	9.518042E-1	8.681261E-1	8.989079E-1	9.753684E-1	9.328936E-1	1.006527E+0	9.186439E-1	9.508852E-1	9.717812E-1	9.736871E-1	8.878748E-1	9.808997E-1	9.860662E-1	9.063211E-1	1.026922E+0	8.996156E-1	9.645259E-1	9.733877E-1	9.970259E-1	1.013393E+0	9.801105E-1	9.647098E-1	9.497615E-1	9.804963E-1	1.016057E+0	9.390818E-1	9.606262E-1	9.216610E-1	1.025085E+0	9.903213E-1	9.991427E-1	1.000083E+0	1.005294E+0	9.468713E-1	9.478189E-1	9.943499E-1	9.599135E-1	9.289675E-1	9.304721E-1	9.581356E-1	9.792857E-1	9.404193E-1	9.777811E-1	9.802926E-1	9.774414E-1	9.445332E-1	9.419514E-1	9.331026E-1	9.701251E-1	1.001230E+0	9.966652E-1	9.237549E-1	1.023502E+0	9.745227E-1	9.416257E-1	8.988582E-1	9.955729E-1	9.494556E-1	8.960921E-1	9.810857E-1	1.001616E+0	9.328593E-1	8.930905E-1	9.799414E-1	9.380482E-1	9.266725E-1	9.872366E-1	9.739141E-1	9.840345E-1	9.304574E-1	9.089674E-1	9.644338E-1	9.600592E-1	9.899452E-1	9.503664E-1	9.437451E-1	9.699677E-1	9.619546E-1	9.573495E-1	9.065590E-1	9.297459E-1	9.501815E-1	1.038937E+0	9.765794E-1	9.535692E-1	9.893794E-1	9.717720E-1	9.661844E-1	9.282880E-1	9.818350E-1	9.577904E-1	1.014824E+0	9.988619E-1	9.302593E-1	9.990226E-1	9.264323E-1	9.273037E-1	9.156685E-1	9.687298E-1	9.306117E-1	9.395908E-1	9.623879E-1	9.165181E-1	9.838425E-1	9.255864E-1	9.551459E-1	9.191816E-1	9.455780E-1	9.502216E-1	9.735396E-1	9.897434E-1	8.918203E-1	1.026823E+0	9.233897E-1	9.371487E-1	9.483570E-1	1.006047E+0	8.840561E-1	9.396744E-1	9.357980E-1	1.013839E+0	9.546010E-1	9.140975E-1	9.758647E-1	1.011438E+0	1.017538E+0	9.375308E-1	9.356679E-1	9.703714E-1	9.590076E-1	8.976773E-1	1.032486E+0	1.030063E+0
2.945040E+2	9.838110E-1	1.013846E+0	9.620668E-1	9.609940E-1	9.864134E-1	1.005482E+0	1.015272E+0	9.600448E-1	1.035331E+0	1.032091E+0	1.042852E+0	9.671123E-1	1.012641E+0	1.025278E+0	1.014196E+0	1.016433E+0	1.039105E+0	9.609408E-1	9.802620E-1	9.707505E-1	1.012090E+0	9.752830E-1	1.104459E+0	9.697712E-1	1.039562E+0	9.310252E-1	1.052849E+0	9.887937E-1	1.023351E+0	9.608828E-1	9.505089E-1	9.742433E-1	9.296681E-1	9.641308E-1	1.000570E+0	1.049874E+0	1.004293E+0	1.009298E+0	9.897295E-1	9.519000E-1	1.023341E+0	1.050266E+0	1.017363E+0	9.922880E-1	9.421513E-1	9.868420E-1	9.877223E-1	9.572382E-1	9.394902E-1	1.007738E+0	9.860603E-1	9.995201E-1	9.681860E-1	9.873302E-1	1.028365E+0	9.718402E-1	9.566062E-1	9.754330E-1	1.068555E+0	1.014841E+0	9.910813E-1	1.044996E+0	9.740810E-1	9.858421E-1	1.031993E+0	1.036655E+0	1.027882E+0	1.034410E+0	1.040924E+0	1.000849E+0	9.629190E-1	9.953127E-1	9.892868E-1	9.983783E-1	1.004857E+0	9.935703E-1	1.057033E+0	9.589278E-1	9.827942E-1	1.017328E+0	1.002191E+0	9.736543E-1	1.029135E+0	9.606009E-1	1.034469E+0	1.032122E+0	1.066091E+0	9.878934E-1	1.017154E+0	1.013234E+0	1.039545E+0	1.025139E+0	1.028745E+0	9.583685E-1	9.967361E-1	1.035834E+0	9.459467E-1	1.034849E+0	9.701858E-1	1.029047E+0	1.027408E+0	9.701120E-1	1.038924E+0	9.808676E-1	9.978404E-1	9.518322E-1	1.039440E+0	9.393470E-1	1.064133E+0	1.040172E+0	1.072413E+0	9.920249E-1	9.959548E-1	9.649185E-1	1.039964E+0	1.024640E+0	1.009446E+0	9.823929E-1	1.016926E+0	1.004477E+0	1.098542E+0	9.689043E-1	9.931787E-1	1.038420E+0	9.665369E-1	1.014358E+0	9.854807E-1	1.024919E+0	9.823655E-1	9.764830E-1	1.115997E+0	9.782349E-1	1.021828E+0	9.983773E-1	9.493648E-1	1.028647E+0	1.017358E+0	9.746974E-1	9.815583E-1	1.020995E+0	1.016910E+0	9.830157E-1	1.000757E+0	9.722826E-1	9.380925E-1	1.055502E+0	1.048880E+0	1.008583E+0	9.656882E-1	1.030310E+0	1.035788E+0	1.023183E+0	1.040596E+0	9.590659E-1	1.041509E+0	9.803861E-1	9.859778E-1	9.827076E-1	9.958226E-1	1.047529E+0	9.734986E-1	1.060851E+0	1.010829E+0	1.070830E+0	9.917768E-1	1.047768E+0	1.015798E+0	1.033913E+0	9.780384E-1	9.214494E-1	1.054476E+0
2.950070E+2	1.098049E+0	1.122609E+0	1.157047E+0	1.114930E+0	1.118900E+0	1.082929E+0	1.199713E+0	1.118309E+0	1.082528E+0	1.090449E+0	1.121704E+0	1.193364E+0	1.089938E+0	1.145755E+0	1.119223E+0	1.132409E+0	1.082403E+0	1.087190E+0	1.119373E+0	1.061831E+0	1.067545E+0	1.124426E+0	1.131598E+0	1.119396E+0	1.138758E+0	1.058495E+0	1.091544E+0	1.105587E+0	1.157279E+0	1.172217E+0	1.159424E+0	1.073170E+0	1.089350E+0	1.155131E+0	1.167127E+0	1.137695E+0	1.098071E+0	1.087855E+0	1.127135E+0	1.125637E+0	1.180584E+0	1.185344E+0	1.071410E+0	1.084437E+0	1.041216E+0	1.110486E+0	1.065370E+0	1.077718E+0	1.015613E+0	1.117873E+0	1.133415E+0	1.099996E+0	1.147525E+0	1.073342E+0	1.118735E+0	1.111740E+0	1.075662E+0	1.115201E+0	1.075527E+0	1.168195E+0	1.183615E+0	1.169323E+0	1.130816E+0	1.142693E+0	1.078341E+0	1.095211E+0	1.197726E+0	1.154050E+0	1.124921E+0	1.089348E+0	1.135926E+0	1.091812E+0	1.085565E+0	1.086151E+0	1.107973E+0	1.097121E+0	1.112081E+0	1.163803E+0	1.127632E+0	1.062692E+0	1.148045E+0	1.190702E+0	1.117631E+0	1.062820E+0	1.071284E+0	1.115786E+0	1.175496E+0	1.113616E+0	1.106692E+0	1.175682E+0	1.091690E+0	1.077379E+0	1.088806E+0	1.099326E+0	1.101651E+0	1.114580E+0	1.136742E+0	1.118803E+0	1.165474E+0	1.018190E+0	1.117104E+0	1.110491E+0	1.140199E+0	1.046478E+0	1.089901E+0	1.135344E+0	1.154131E+0	1.184573E+0	1.125213E+0	1.143762E+0	1.131869E+0	1.164559E+0	1.098754E+0	1.113330E+0	1.114640E+0	1.107062E+0	1.130667E+0	1.093242E+0	1.109779E+0	1.151185E+0	1.164355E+0	1.043062E+0	1.104019E+0	1.146751E+0	1.137242E+0	1.096743E+0	1.143129E+0	1.062909E+0	1.168408E+0	1.045160E+0	1.121628E+0	1.093904E+0	1.107174E+0	1.180530E+0	1.124979E+0	1.098235E+0	1.177697E+0	1.123031E+0	1.182175E+0	1.115985E+0	1.109680E+0	1.119150E+0	1.061003E+0	1.127996E+0	1.030195E+0	1.087594E+0	1.134577E+0	1.076067E+0	1.012078E+0	1.155487E+0	1.140475E+0	1.091813E+0	1.094299E+0	1.082622E+0	1.108633E+0	1.077176E+0	1.084655E+0	1.133074E+0	1.128590E+0	1.099221E+0	1.119942E+0	1.051189E+0	1.084679E+0	1.235750E+0	1.116329E+0	1.158344E+0	1.100058E+0	1.106463E+0	1.150284E+0	1.088375E+0	1.233743E+0
2.955050E+2	1.126271E+0	1.103465E+0	1.136350E+0	1.203187E+0	1.135831E+0	1.097148E+0	1.141271E+0	1.190908E+0	1.142302E+0	1.123633E+0	1.063486E+0	1.068086E+0	1.117633E+0	1.165103E+0	1.183854E+0	1.106835E+0	1.107646E+0	1.094390E+0	1.050219E+0	1.153014E+0	1.088340E+0	1.128895E+0	1.083367E+0	1.103857E+0	1.152192E+0	1.089287E+0	1.107804E+0	1.085552E+0	1.075677E+0	1.118949E+0	1.110127E+0	1.080877E+0	1.191553E+0	1.156156E+0	1.133876E+0	1.104237E+0	1.114164E+0	1.143339E+0	1.147488E+0	1.114395E+0	1.014906E+0	1.089697E+0	1.079237E+0	1.127040E+0	1.099473E+0	1.153805E+0	1.113402E+0	1.132798E+0	1.092031E+0	1.108684E+0	1.085475E+0	1.109861E+0	1.112713E+0	1.157096E+0	1.103026E+0	1.175378E+0	1.077027E+0	1.061093E+0	1.168055E+0	1.101494E+0	1.134892E+0	1.197216E+0	1.078313E+0	1.153266E+0	1.099844E+0	1.043572E+0	1.190403E+0	1.181080E+0	1.080991E+0	1.080430E+0	1.096469E+0	1.101266E+0	1.150007E+0	1.097882E+0	1.128948E+0	1.076741E+0	1.112469E+0	1.054545E+0	1.062387E+0	1.101027E+0	1.078596E+0	1.118855E+0	1.139443E+0	1.100236E+0	1.118404E+0	1.161190E+0	1.197826E+0	1.139501E+0	1.133730E+0	1.118700E+0	1.204229E+0	1.097921E+0	1.062095E+0	1.074643E+0	1.094875E+0	1.159036E+0	1.088439E+0	1.154894E+0	1.126832E+0	1.020980E+0	1.056778E+0	1.113443E+0	1.121354E+0	1.074041E+0	1.137492E+0	1.189237E+0	1.156158E+0	1.167609E+0	1.133961E+0	1.138742E+0	1.102166E+0	1.100642E+0	1.077926E+0	1.106448E+0	1.106588E+0	1.075305E+0	1.100089E+0	1.102123E+0	1.158468E+0	1.120741E+0	1.121118E+0	1.164177E+0	1.200780E+0	1.035868E+0	1.063631E+0	1.121896E+0	1.147272E+0	1.076664E+0	1.132118E+0	1.142812E+0	1.104268E+0	1.166259E+0	1.115689E+0	1.137728E+0	1.176648E+0	1.093060E+0	1.136787E+0	1.089810E+0	1.146169E+0	1.115248E+0	1.148272E+0	1.125913E+0	1.082573E+0	1.081766E+0	1.126633E+0	1.077800E+0	1.092665E+0	1.130777E+0	1.142056E+0	1.122300E+0	1.089322E+0	1.047200E+0	1.054473E+0	1.111646E+0	1.121891E+0	1.065293E+0	1.128811E+0	1.134497E+0	1.138731E+0	1.117983E+0	1.098900E+0	1.124102E+0	1.171577E+0	1.156205E+0	1.094154E+0	1.192267E+0	1.126684E+0	1.082597E+0	1.080771E+0	1.140894E+0	1.195983E+0
2.960060E+2	1.082017E+0	1.110263E+0	1.061807E+0	1.087087E+0	1.066241E+0	1.027964E+0	1.133038E+0	1.181955E+0	1.020183E+0	1.081087E+0	1.118217E+0	1.069533E+0	1.042001E+0	1.087138E+0	1.034790E+0	1.133943E+0	1.137229E+0	1.061312E+0	1.145968E+0	1.055192E+0	1.115564E+0	1.071334E+0	1.057766E+0	1.082941E+0	1.088106E+0	1.033943E+0	1.093861E+0	1.186266E+0	1.058333E+0	1.087175E+0	1.116022E+0	1.082729E+0	1.114712E+0	1.144146E+0	1.159115E+0	1.073302E+0	1.127056E+0	1.072393E+0	1.117629E+0	1.077001E+0	1.029755E+0	1.153548E+0	1.070337E+0	1.118555E+0	1.096141E+0	1.155173E+0	1.121084E+0	1.020685E+0	1.084950E+0	1.085148E+0	1.070084E+0	1.166656E+0	1.123460E+0	1.139872E+0	1.116094E+0	1.121521E+0	1.075285E+0	1.187008E+0	1.144039E+0	1.025906E+0	1.138451E+0	1.127529E+0	1.128909E+0	1.120020E+0	1.110564E+0	1.033864E+0	1.095567E+0	1.159992E+0	1.058935E+0	1.150458E+0	1.103292E+0	1.064206E+0	1.101528E+0	1.089314E+0	1.120423E+0	1.042726E+0	1.117917E+0	1.139302E+0	1.101974E+0	1.104293E+0	1.087158E+0	1.118949E+0	1.120758E+0	1.119571E+0	1.028311E+0	1.159969E+0	1.097343E+0	1.128601E+0	1.078521E+0	1.094288E+0	1.059979E+0	1.075606E+0	1.117507E+0	1.139471E+0	1.106412E+0	1.102677E+0	1.117373E+0	1.130299E+0	1.139440E+0	1.022615E+0	1.075331E+0	1.102554E+0	1.089455E+0	1.105835E+0	1.109088E+0	1.109043E+0	1.080242E+0	1.176110E+0	1.080146E+0	1.105107E+0	1.152507E+0	1.165105E+0	1.054287E+0	1.101448E+0	1.186474E+0	1.137887E+0	1.126681E+0	1.123802E+0	1.044140E+0	1.185999E+0	1.072551E+0	1.082839E+0	1.148803E+0	1.088111E+0	1.109719E+0	1.126641E+0	1.084146E+0	1.178497E+0	1.120927E+0	1.139935E+0	1.160312E+0	1.091551E+0	1.116841E+0	1.144774E+0	1.136138E+0	1.107036E+0	1.136030E+0	1.042901E+0	1.069316E+0	1.041580E+0	1.088246E+0	1.080611E+0	1.149644E+0	1.137067E+0	1.049991E+0	1.065012E+0	1.140783E+0	1.148322E+0	1.106307E+0	1.155844E+0	1.165547E+0	1.004199E+0	1.110952E+0	1.105963E+0	1.078899E+0	1.107831E+0	1.077870E+0	1.090936E+0	1.108222E+0	1.146598E+0	1.065727E+0	1.021636E+0	1.100515E+0	1.084386E+0	1.047452E+0	1.124676E+0	1.123776E+0	1.110550E+0	1.193657E+0	1.119399E+0	1.203734E+0
2.965090E+2	8.923340E-1	9.029037E-1	8.578318E-1	9.063621E-1	8.845456E-1	7.985367E-1	9.106562E-1	8.956873E-1	8.938376E-1	9.155714E-1	8.648116E-1	8.583257E-1	8.478322E-1	8.492561E-1	9.218570E-1	9.319688E-1	9.220823E-1	8.817105E-1	8.819180E-1	8.998100E-1	9.092966E-1	9.196796E-1	8.739757E-1	8.967765E-1	9.363284E-1	8.152004E-1	9.044361E-1	8.395325E-1	8.833342E-1	8.155248E-1	8.554142E-1	8.484154E-1	9.171563E-1	8.838057E-1	9.072884E-1	8.545516E-1	8.672870E-1	8.444303E-1	8.639548E-1	8.955800E-1	8.632232E-1	9.011409E-1	8.823219E-1	8.531392E-1	8.651680E-1	8.695719E-1	8.738230E-1	8.768110E-1	8.544753E-1	9.377736E-1	8.821266E-1	8.802848E-1	8.552974E-1	9.586338E-1	8.623210E-1	8.773679E-1	9.063480E-1	9.349002E-1	9.132134E-1	8.815914E-1	8.827994E-1	9.085596E-1	8.799404E-1	8.540870E-1	8.987029E-1	9.235731E-1	9.030639E-1	8.717631E-1	9.042135E-1	9.048946E-1	8.951899E-1	8.170591E-1	9.085358E-1	8.377794E-1	8.772885E-1	8.858480E-1	9.483925E-1	8.022521E-1	8.110051E-1	9.258822E-1	8.862612E-1	9.160932E-1	9.090245E-1	8.675677E-1	8.767303E-1	9.283509E-1	8.792692E-1	9.292849E-1	8.816551E-1	8.899946E-1	8.245355E-1	8.937572E-1	8.771375E-1	8.303712E-1	8.722075E-1	8.991271E-1	8.916632E-1	8.900562E-1	9.247619E-1	8.740779E-1	8.622059E-1	8.452485E-1	9.074912E-1	9.091331E-1	8.948653E-1	8.738839E-1	8.652675E-1	8.994971E-1	8.822251E-1	9.417416E-1	8.907253E-1	9.219525E-1	8.911675E-1	8.742396E-1	9.622248E-1	8.800653E-1	8.603024E-1	8.147090E-1	8.794956E-1	8.886484E-1	9.326935E-1	8.975991E-1	8.447244E-1	8.452437E-1	8.484604E-1	8.970179E-1	8.783094E-1	9.432876E-1	8.525383E-1	8.519496E-1	8.900216E-1	8.546889E-1	8.075903E-1	8.925168E-1	8.929797E-1	8.944221E-1	8.173325E-1	8.346266E-1	8.896574E-1	8.663565E-1	8.681792E-1	8.090005E-1	8.883976E-1	8.641836E-1	8.697400E-1	8.747999E-1	8.617125E-1	8.647830E-1	8.836050E-1	8.622342E-1	8.615093E-1	9.132465E-1	8.816729E-1	8.812081E-1	8.986367E-1	8.900846E-1	8.965801E-1	8.786673E-1	8.924416E-1	9.039728E-1	8.926609E-1	9.094405E-1	9.611077E-1	9.153770E-1	8.265681E-1	8.913037E-1	8.538007E-1	9.227613E-1	8.835835E-1	7.714834E-1	8.179822E-1
2.970020E+2	7.878368E-1	8.458523E-1	8.577449E-1	9.338954E-1	8.903928E-1	8.491016E-1	8.731925E-1	9.520568E-1	8.417821E-1	8.475506E-1	8.566233E-1	8.033206E-1	9.087356E-1	8.936718E-1	8.772866E-1	8.593442E-1	9.041532E-1	9.262340E-1	8.738364E-1	8.662693E-1	8.405381E-1	8.481520E-1	8.591252E-1	8.978906E-1	8.864934E-1	8.404067E-1	9.320503E-1	9.128460E-1	8.716508E-1	8.675108E-1	8.532256E-1	8.549011E-1	9.317517E-1	9.058847E-1	8.430329E-1	8.510486E-1	8.736579E-1	8.678600E-1	8.675265E-1	8.854300E-1	8.463941E-1	9.178046E-1	8.811134E-1	9.092511E-1	8.418378E-1	8.965129E-1	8.642276E-1	8.921859E-1	8.478624E-1	9.068222E-1	8.762750E-1	8.501114E-1	8.642194E-1	9.352176E-1	8.417155E-1	8.562873E-1	8.763512E-1	9.164110E-1	8.738396E-1	8.899418E-1	9.127277E-1	9.061482E-1	8.661038E-1	9.120489E-1	9.444140E-1	8.809881E-1	9.328546E-1	8.527744E-1	8.411035E-1	9.012256E-1	8.541475E-1	9.023198E-1	9.095395E-1	8.201970E-1	8.684393E-1	8.446621E-1	8.801995E-1	9.092638E-1	8.459835E-1	8.670163E-1	8.309314E-1	9.257071E-1	9.230811E-1	8.853561E-1	9.134542E-1	8.777046E-1	8.976168E-1	8.702131E-1	8.911820E-1	8.734743E-1	8.358724E-1	8.920872E-1	8.979296E-1	8.770903E-1	8.562270E-1	8.838739E-1	8.430522E-1	8.769935E-1	8.916414E-1	8.425780E-1	8.838493E-1	8.976599E-1	8.201520E-1	8.826874E-1	9.306146E-1	8.956466E-1	8.935983E-1	8.909007E-1	8.999040E-1	9.416794E-1	9.320928E-1	9.153324E-1	8.815039E-1	8.737833E-1	9.474833E-1	8.454251E-1	9.063210E-1	9.499611E-1	8.516747E-1	8.694949E-1	9.232468E-1	8.931595E-1	8.905648E-1	8.712217E-1	8.218732E-1	8.505908E-1	9.134552E-1	9.161629E-1	8.236914E-1	8.276530E-1	8.983719E-1	8.733372E-1	9.143173E-1	8.970146E-1	9.096695E-1	8.140052E-1	9.281629E-1	8.745669E-1	9.326499E-1	8.652049E-1	9.055421E-1	8.938354E-1	8.538631E-1	8.892829E-1	8.711120E-1	8.879161E-1	9.076208E-1	8.557278E-1	9.415657E-1	9.069678E-1	8.514054E-1	8.649171E-1	8.685557E-1	8.847704E-1	9.155991E-1	8.771142E-1	8.604757E-1	8.654200E-1	9.425649E-1	9.075643E-1	9.381174E-1	8.524925E-1	9.324237E-1	8.825416E-1	8.766752E-1	8.868331E-1	8.322855E-1	8.306735E-1	8.788997E-1	9.494742E-1	8.998360E-1
2.975040E+2	1.001693E+0	1.046119E+0	1.009337E+0	9.848281E-1	9.682666E-1	9.365849E-1	1.005737E+0	1.009028E+0	9.671578E-1	1.008614E+0	1.038468E+0	1.067216E+0	1.025467E+0	1.014341E+0	1.047050E+0	9.663341E-1	1.041182E+0	1.006250E+0	9.878470E-1	1.003904E+0	9.923158E-1	1.028019E+0	9.999473E-1	1.006668E+0	1.011649E+0	9.924105E-1	1.016388E+0	1.055140E+0	1.019705E+0	9.824066E-1	1.025469E+0	1.000836E+0	1.012220E+0	1.017893E+0	1.074883E+0	9.626522E-1	1.036592E+0	1.003542E+0	9.871606E-1	1.016199E+0	1.086070E+0	9.936938E-1	1.000404E+0	9.959043E-1	1.005787E+0	1.042886E+0	1.023051E+0	1.030922E+0	1.046035E+0	1.010688E+0	1.028927E+0	1.037202E+0	1.029513E+0	1.025295E+0	1.020104E+0	9.824407E-1	9.871403E-1	9.788740E-1	1.051672E+0	1.067921E+0	1.000958E+0	9.959995E-1	1.018202E+0	9.958018E-1	9.947683E-1	1.017684E+0	1.005753E+0	9.625912E-1	9.879850E-1	1.027893E+0	1.011378E+0	9.908566E-1	1.042908E+0	1.023486E+0	1.021144E+0	1.024948E+0	9.908500E-1	1.013140E+0	9.835884E-1	1.037438E+0	1.024625E+0	9.970880E-1	1.011836E+0	1.045984E+0	1.001720E+0	9.908674E-1	1.040515E+0	1.040442E+0	1.029885E+0	1.033340E+0	1.009961E+0	9.991174E-1	1.005218E+0	1.017417E+0	9.695150E-1	1.027472E+0	1.039065E+0	9.456389E-1	1.022840E+0	1.008530E+0	9.958117E-1	9.902656E-1	9.716631E-1	9.985484E-1	1.012063E+0	9.986529E-1	1.042633E+0	9.556147E-1	1.014986E+0	1.028079E+0	9.827710E-1	1.030358E+0	1.037952E+0	9.991440E-1	9.616787E-1	1.000523E+0	1.025636E+0	9.613411E-1	9.841998E-1	1.012466E+0	9.625927E-1	1.039779E+0	1.005889E+0	1.040766E+0	1.024545E+0	9.669277E-1	1.026783E+0	1.046348E+0	9.860759E-1	1.006279E+0	1.027968E+0	9.919410E-1	9.773190E-1	9.896357E-1	1.041368E+0	1.006585E+0	9.905176E-1	9.747593E-1	9.852976E-1	1.037402E+0	9.819212E-1	1.021040E+0	1.034178E+0	1.021197E+0	1.031378E+0	9.825202E-1	1.018008E+0	9.996829E-1	9.872701E-1	1.019022E+0	1.032605E+0	9.731458E-1	9.714806E-1	1.032728E+0	9.797378E-1	9.906065E-1	1.002949E+0	9.720127E-1	9.833411E-1	1.046343E+0	9.965079E-1	9.975643E-1	1.029153E+0	9.968120E-1	9.719134E-1	1.030535E+0	1.043002E+0	1.018948E+0	9.958834E-1	1.080772E+0	9.901144E-1
2.980020E+2	1.051626E+0	1.068312E+0	1.083971E+0	1.155396E+0	1.105020E+0	1.151269E+0	1.058204E+0	1.066279E+0	1.110758E+0	1.097708E+0	1.084373E+0	1.066231E+0	1.129030E+0	1.073130E+0	1.077127E+0	1.129490E+0	1.108611E+0	1.096708E+0	1.097695E+0	1.112270E+0	1.082260E+0	1.151790E+0	1.107198E+0	1.062002E+0	1.132072E+0	1.142512E+0	1.082587E+0	1.120967E+0	1.086315E+0	1.037046E+0	1.107066E+0	1.167118E+0	1.128764E+0	1.069087E+0	1.068522E+0	1.139669E+0	1.117701E+0	1.109403E+0	1.117832E+0	1.131377E+0	1.045656E+0	1.140062E+0	1.130156E+0	1.132760E+0	1.081653E+0	1.117320E+0	1.085448E+0	1.139863E+0	1.118292E+0	1.115336E+0	1.094438E+0	1.082457E+0	1.098771E+0	1.066759E+0	1.129515E+0	1.069718E+0	1.157633E+0	1.132165E+0	1.123829E+0	1.089603E+0	1.097562E+0	1.066032E+0	1.079060E+0	1.106691E+0	1.141076E+0	1.097166E+0	1.113347E+0	1.140712E+0	1.122457E+0	1.101589E+0	1.063325E+0	1.114836E+0	1.135797E+0	1.124196E+0	1.045352E+0	1.072081E+0	1.130778E+0	1.097945E+0	1.101582E+0	1.115054E+0	1.060970E+0	1.101120E+0	1.068548E+0	1.116305E+0	1.124967E+0	1.145071E+0	1.107775E+0	1.061480E+0	1.134314E+0	1.071587E+0	1.090044E+0	1.059113E+0	1.145273E+0	1.072009E+0	1.125045E+0	1.107865E+0	1.178129E+0	1.083160E+0	1.129002E+0	1.113163E+0	1.126059E+0	1.138296E+0	1.111540E+0	1.130848E+0	1.099239E+0	1.078561E+0	1.087949E+0	1.124927E+0	1.106412E+0	1.114925E+0	1.125315E+0	1.109071E+0	1.035334E+0	1.105333E+0	1.122017E+0	1.152998E+0	1.074278E+0	1.125128E+0	1.084674E+0	1.168803E+0	1.075062E+0	1.092856E+0	1.074845E+0	1.054151E+0	1.093244E+0	1.059401E+0	1.125982E+0	1.123849E+0	1.087277E+0	1.128934E+0	1.102410E+0	1.084853E+0	1.145705E+0	1.109950E+0	1.135996E+0	1.095577E+0	1.137656E+0	1.144123E+0	1.099027E+0	1.142984E+0	1.097200E+0	1.046841E+0	1.104449E+0	1.079080E+0	1.112869E+0	1.147064E+0	1.118586E+0	1.052028E+0	1.067235E+0	1.134418E+0	1.087757E+0	1.089939E+0	1.081630E+0	1.089321E+0	1.135996E+0	1.114077E+0	1.125560E+0	1.115778E+0	1.125283E+0	1.096938E+0	1.102910E+0	1.079800E+0	1.085089E+0	1.085935E+0	1.074041E+0	1.100457E+0	1.056797E+0	1.079638E+0	1.118286E+0	1.075933E+0	1.101022E+0
2.985020E+2	1.076615E+0	1.084998E+0	1.097981E+0	1.070525E+0	1.126068E+0	1.090741E+0	1.088135E+0	1.109089E+0	1.072059E+0	1.077315E+0	1.133363E+0	1.110054E+0	1.068673E+0	1.118582E+0	1.057231E+0	1.141144E+0	1.090824E+0	1.047422E+0	1.090940E+0	1.089910E+0	1.052860E+0	1.062037E+0	1.098648E+0	1.118645E+0	1.107358E+0	1.101783E+0	1.124884E+0	1.056024E+0	1.097720E+0	1.121682E+0	1.104596E+0	1.080059E+0	1.070892E+0	1.120131E+0	1.071545E+0	1.082158E+0	1.063411E+0	1.115274E+0	1.046464E+0	1.098504E+0	1.132070E+0	1.085132E+0	1.077906E+0	1.101183E+0	1.128603E+0	1.114219E+0	1.124990E+0	1.057598E+0	1.064315E+0	1.110341E+0	1.142315E+0	1.112848E+0	1.082937E+0	1.059307E+0	1.129630E+0	1.102461E+0	1.099982E+0	1.052675E+0	1.074306E+0	1.063492E+0	1.100510E+0	1.147027E+0	1.090119E+0	1.177595E+0	1.070375E+0	1.160572E+0	1.109260E+0	1.113783E+0	1.068487E+0	1.083233E+0	1.087392E+0	1.105855E+0	1.083825E+0	1.037232E+0	1.076801E+0	1.071202E+0	1.107629E+0	1.103054E+0	1.175583E+0	1.103886E+0	1.069452E+0	1.114767E+0	1.079957E+0	1.076339E+0	1.083344E+0	1.030209E+0	1.077993E+0	1.076955E+0	1.107017E+0	1.077848E+0	1.109403E+0	1.103917E+0	1.060405E+0	1.056781E+0	1.066190E+0	1.098979E+0	1.082674E+0	1.089603E+0	1.055877E+0	1.096626E+0	1.042097E+0	1.089913E+0	1.086740E+0	1.094681E+0	1.128915E+0	1.117324E+0	1.089831E+0	1.100230E+0	1.141871E+0	1.032368E+0	1.097996E+0	1.106981E+0	1.091911E+0	1.133193E+0	1.051692E+0	1.068716E+0	1.064262E+0	1.099063E+0	1.125971E+0	1.039478E+0	1.124093E+0	1.094787E+0	1.074264E+0	1.093614E+0	1.085285E+0	1.109984E+0	1.047289E+0	1.111179E+0	1.060582E+0	1.076938E+0	1.087494E+0	1.153861E+0	1.137551E+0	1.116068E+0	1.088445E+0	1.097136E+0	1.100560E+0	1.109693E+0	1.093090E+0	1.088467E+0	1.109807E+0	1.173200E+0	1.038329E+0	1.080869E+0	1.120575E+0	1.029741E+0	1.072528E+0	1.129332E+0	1.069608E+0	1.083378E+0	1.085863E+0	1.123913E+0	1.115596E+0	1.046017E+0	1.090910E+0	1.082157E+0	1.102921E+0	1.125030E+0	1.066346E+0	1.108479E+0	1.097657E+0	1.085509E+0	1.083865E+0	1.050805E+0	1.141209E+0	1.059327E+0	1.092492E+0	1.114917E+0	1.103000E+0	1.094632E+0	1.112726E+0
2.990020E+2	1.010948E+0	1.045789E+0	1.019366E+0	1.021638E+0	1.005962E+0	1.000426E+0	1.030572E+0	1.048366E+0	1.042458E+0	1.063909E+0	1.034985E+0	1.048142E+0	9.993706E-1	9.975893E-1	1.032626E+0	9.954218E-1	1.008965E+0	1.044615E+0	1.040991E+0	1.063375E+0	1.044590E+0	9.898670E-1	1.034236E+0	1.054312E+0	1.017683E+0	1.023730E+0	1.007245E+0	1.029596E+0	1.013369E+0	1.057689E+0	1.005295E+0	1.036569E+0	1.016004E+0	1.012416E+0	9.948679E-1	1.077741E+0	1.038799E+0	1.042125E+0	1.048016E+0	9.849030E-1	9.746335E-1	9.780880E-1	1.054200E+0	1.021180E+0	1.050629E+0	1.020201E+0	1.024139E+0	9.991860E-1	1.103130E+0	1.019122E+0	1.005071E+0	9.935767E-1	1.066050E+0	1.064834E+0	1.034149E+0	1.073017E+0	9.968112E-1	1.040043E+0	1.024957E+0	1.011813E+0	1.027909E+0	1.008327E+0	1.031195E+0	9.931044E-1	1.077324E+0	9.926741E-1	1.024114E+0	1.074505E+0	1.042562E+0	1.013607E+0	1.030605E+0	1.060600E+0	1.012345E+0	9.831920E-1	1.013191E+0	1.074663E+0	1.029789E+0	9.725008E-1	9.924731E-1	1.032907E+0	1.004645E+0	1.039384E+0	1.041991E+0	1.041511E+0	1.001495E+0	1.001109E+0	9.944042E-1	1.038415E+0	1.033951E+0	1.010734E+0	1.070724E+0	1.074512E+0	9.753493E-1	1.040408E+0	1.066628E+0	1.042389E+0	9.891447E-1	1.070055E+0	9.961727E-1	9.914438E-1	1.089723E+0	1.053674E+0	1.037028E+0	1.019208E+0	9.900058E-1	1.040011E+0	1.037638E+0	1.050123E+0	1.006538E+0	1.033050E+0	1.014004E+0	1.044262E+0	1.059123E+0	1.010499E+0	1.045061E+0	1.010844E+0	1.034967E+0	1.033960E+0	1.011318E+0	9.919256E-1	1.013703E+0	1.044855E+0	1.062984E+0	9.894710E-1	1.104809E+0	1.057494E+0	9.914438E-1	9.591987E-1	1.070054E+0	1.041122E+0	1.045624E+0	1.004265E+0	9.935641E-1	1.027049E+0	1.005236E+0	1.013160E+0	1.028673E+0	1.005942E+0	9.993244E-1	1.005602E+0	1.002590E+0	1.026036E+0	1.053720E+0	1.035284E+0	9.934166E-1	1.036117E+0	1.031321E+0	1.034404E+0	1.041107E+0	9.867746E-1	1.010419E+0	1.045398E+0	1.035691E+0	1.056680E+0	1.053206E+0	1.050793E+0	1.006211E+0	1.027242E+0	1.023961E+0	1.015820E+0	1.035012E+0	1.062644E+0	1.047799E+0	1.050440E+0	1.041596E+0	9.885668E-1	1.058141E+0	1.061229E+0	1.052009E+0	1.059308E+0	1.046269E+0
2.995040E+2	9.339348E-1	8.755495E-1	9.023037E-1	8.678359E-1	9.252522E-1	9.335183E-1	9.267416E-1	8.728042E-1	8.715438E-1	8.549535E-1	8.838712E-1	8.603632E-1	8.785275E-1	9.073006E-1	9.013563E-1	8.869601E-1	9.014659E-1	9.183908E-1	8.917817E-1	8.599465E-1	8.818691E-1	8.348305E-1	8.670223E-1	8.875030E-1	8.297508E-1	8.589852E-1	9.053467E-1	8.740454E-1	9.162322E-1	8.880565E-1	8.609966E-1	8.685682E-1	8.561720E-1	8.865699E-1	8.841359E-1	8.494937E-1	8.526247E-1	8.271728E-1	8.878501E-1	8.703278E-1	8.602552E-1	8.884371E-1	8.692040E-1	8.770073E-1	8.581465E-1	8.571063E-1	8.949922E-1	8.787012E-1	8.390210E-1	8.951425E-1	8.696897E-1	8.895653E-1	8.266589E-1	9.042230E-1	8.257639E-1	8.869088E-1	8.560921E-1	8.884967E-1	8.823607E-1	8.815911E-1	8.842610E-1	9.209850E-1	9.059211E-1	8.953508E-1	8.755461E-1	8.606548E-1	8.623558E-1	8.663190E-1	9.397835E-1	9.064837E-1	9.033839E-1	8.728840E-1	8.456573E-1	9.293625E-1	9.223428E-1	9.041371E-1	8.789539E-1	9.153105E-1	8.652889E-1	8.862193E-1	8.956290E-1	9.021870E-1	9.290084E-1	8.571765E-1	9.210042E-1	9.114500E-1	8.814657E-1	8.848799E-1	8.438044E-1	9.241225E-1	8.552300E-1	8.903081E-1	9.236107E-1	9.095905E-1	8.539730E-1	8.636938E-1	8.419047E-1	9.067557E-1	8.653624E-1	9.023443E-1	8.594842E-1	8.782213E-1	8.803008E-1	8.785517E-1	9.005217E-1	9.432913E-1	8.872584E-1	8.775055E-1	8.355051E-1	8.860791E-1	8.937136E-1	8.578555E-1	8.710558E-1	8.856680E-1	9.216594E-1	8.970341E-1	8.976109E-1	9.237867E-1	8.587106E-1	9.057833E-1	8.936865E-1	8.373362E-1	8.951133E-1	9.231881E-1	8.520395E-1	9.286846E-1	8.802800E-1	8.573359E-1	9.217699E-1	8.530332E-1	8.428959E-1	8.347527E-1	8.873491E-1	8.866449E-1	8.351501E-1	8.723584E-1	8.788336E-1	9.018600E-1	8.993757E-1	8.742654E-1	9.107381E-1	8.541954E-1	8.928243E-1	8.970623E-1	8.599561E-1	9.183340E-1	8.905479E-1	8.964976E-1	9.190557E-1	8.988319E-1	8.813236E-1	8.531482E-1	8.995335E-1	9.058967E-1	8.571472E-1	9.088304E-1	9.236443E-1	8.989412E-1	8.993031E-1	8.632260E-1	8.879564E-1	8.868736E-1	8.575285E-1	8.789567E-1	8.870313E-1	8.977223E-1	9.288249E-1	8.594096E-1	8.503461E-1	8.297309E-1	8.936167E-1
3.000060E+2	9.251836E-1	8.792326E-1	8.870407E-1	8.997761E-1	8.694309E-1	8.874605E-1	8.906107E-1	8.944336E-1	9.360231E-1	8.974997E-1	8.249392E-1	8.479940E-1	8.989324E-1	8.890569E-1	8.846100E-1	8.806492E-1	8.489517E-1	8.866138E-1	8.907453E-1	8.705948E-1	9.461047E-1	9.334563E-1	8.929486E-1	8.708692E-1	9.014872E-1	8.805800E-1	8.635501E-1	8.642289E-1	8.666589E-1	9.131202E-1	8.965770E-1	8.468495E-1	9.159472E-1	8.939041E-1	9.060467E-1	8.882869E-1	8.908717E-1	9.024832E-1	9.126768E-1	8.986888E-1	9.013152E-1	9.145878E-1	8.681301E-1	8.719655E-1	8.751811E-1	8.482667E-1	8.473799E-1	8.937292E-1	8.292067E-1	8.493714E-1	8.595600E-1	8.843522E-1	8.960698E-1	8.795821E-1	8.608380E-1	8.854546E-1	9.023411E-1	9.077461E-1	8.428755E-1	8.855796E-1	8.888007E-1	8.616292E-1	8.755021E-1	8.314569E-1	8.409106E-1	8.712501E-1	8.851700E-1	8.420894E-1	8.387247E-1	8.671940E-1	9.039165E-1	8.549687E-1	8.794684E-1	9.025322E-1	9.211691E-1	8.529681E-1	8.620005E-1	8.980502E-1	8.814847E-1	8.244955E-1	9.446785E-1	8.454541E-1	8.686595E-1	8.626860E-1	8.674694E-1	9.212939E-1	8.978469E-1	8.978278E-1	8.510294E-1	8.823681E-1	8.646371E-1	8.730331E-1	8.901450E-1	9.037948E-1	9.186490E-1	8.595995E-1	8.690829E-1	9.047876E-1	9.307454E-1	8.878922E-1	8.868247E-1	8.496308E-1	9.127281E-1	8.781634E-1	8.692552E-1	8.221600E-1	8.546899E-1	8.915996E-1	8.946879E-1	9.054996E-1	8.862012E-1	8.514735E-1	9.046251E-1	8.661629E-1	8.978918E-1	8.698848E-1	9.032469E-1	8.567215E-1	9.351267E-1	8.815438E-1	9.308630E-1	8.903876E-1	8.869060E-1	8.988101E-1	8.400773E-1	8.775089E-1	9.282222E-1	9.020890E-1	8.742415E-1	8.936930E-1	8.936080E-1	9.303278E-1	8.585118E-1	8.706526E-1	8.938047E-1	9.151840E-1	8.637603E-1	8.636227E-1	9.238856E-1	8.512798E-1	8.977436E-1	8.786873E-1	8.764994E-1	8.865072E-1	8.818054E-1	8.862244E-1	8.690087E-1	8.880549E-1	9.157241E-1	8.775757E-1	9.020317E-1	9.144563E-1	8.960686E-1	8.693576E-1	8.830027E-1	8.535363E-1	8.387143E-1	8.609958E-1	9.017661E-1	8.691939E-1	8.799566E-1	8.876092E-1	8.965651E-1	9.370510E-1	8.842096E-1	9.233920E-1	8.207427E-1	8.658593E-1	8.804760E-1	8.596253E-1	8.562516E-1
