Photon Energy (eV)	#1	#2	#3	#4	#5	#6	#7	#8	#9	#10	#11	#12	#13	#14	#15	#16	#17	#18	#19	#20	#21	#22	#23	#24	#25	#26	#27	#28	#29	#30	#31	#32	#33	#34	#35	#36	#37	#38	#39	#40	#41	#42	#43	#44	#45	#46	#47	#48	#49	#50	#51	#52	#53	#54	#55	#56	#57	#58	#59	#60	#61	#62	#63	#64	#65	#66	#67	#68	#69	#70	#71	#72	#73	#74	#75	#76	#77	#78	#79	#80	#81	#82	#83	#84	#85	#86	#87	#88	#89	#90	#91	#92	#93	#94	#95	#96	#97	#98	#99	#100	#101	#102	#103	#104	#105	#106	#107	#108	#109	#110	#111	#112	#113	#114	#115	#116	#117	#118	#119	#120	#121	#122	#123	#124	#125	#126	#127	#128	#129	#130	#131	#132	#133	#134	#135	#136	#137	#138	#139	#140	#141	#142	#143	#144	#145	#146	#147	#148	#149	#150	#151	#152	#153	#154	#155	#156	#157	#158	#159	#160	#161	#162	#163	#164	#165	
1.550000E+3	1.603110E+0	1.668370E+0	1.322750E+0	1.542650E+0	1.755670E+0	1.615360E+0	1.526340E+0	1.396890E+0	1.716550E+0	1.419770E+0	1.842930E+0	1.490020E+0	1.852060E+0	1.680590E+0	1.941130E+0	1.762190E+0	1.746090E+0	1.481060E+0	1.673020E+0	1.687970E+0	1.932810E+0	1.648080E+0	1.651070E+0	1.695240E+0	1.684170E+0	1.600550E+0	1.714220E+0	1.598220E+0	1.737860E+0	1.748720E+0	1.748860E+0	1.867700E+0	1.804110E+0	1.601970E+0	1.579170E+0	1.627620E+0	1.902940E+0	1.675510E+0	1.630190E+0	1.722280E+0	1.684610E+0	1.565830E+0	1.562850E+0	1.568090E+0	1.825920E+0	1.792930E+0	1.794420E+0	1.915060E+0	1.697080E+0	1.596290E+0	1.696830E+0	1.731890E+0	1.834490E+0	1.638020E+0	1.690280E+0	1.835180E+0	1.710290E+0	1.519800E+0	1.640300E+0	1.610860E+0	1.835050E+0	1.735160E+0	1.899940E+0	1.882330E+0	1.625940E+0	1.784330E+0	1.710440E+0	1.650750E+0	1.795470E+0	1.552150E+0	1.726050E+0	1.856800E+0	1.647810E+0	1.458770E+0	1.527380E+0	1.653160E+0	1.754180E+0	1.618880E+0	1.753360E+0	1.953080E+0	1.630440E+0	1.533750E+0	1.606780E+0	1.591550E+0	1.783850E+0	1.520400E+0	1.702540E+0	1.646270E+0	1.589700E+0	1.452280E+0	1.691760E+0	1.453240E+0	1.786190E+0	1.746300E+0	1.844580E+0	1.778880E+0	1.578190E+0	1.633090E+0	1.563600E+0	1.624940E+0	1.666160E+0	1.698280E+0	1.674510E+0	1.761520E+0	1.581650E+0	1.553910E+0	1.566830E+0	1.627120E+0	1.821780E+0	1.823070E+0	1.912320E+0	1.942100E+0	1.524310E+0	1.606500E+0	1.757360E+0	1.644800E+0	1.554140E+0	1.649280E+0	1.719710E+0	1.684120E+0	1.523090E+0	1.649400E+0	1.652210E+0	1.488490E+0	1.741960E+0	1.761360E+0	1.756000E+0	1.806250E+0	1.637080E+0	1.541130E+0	1.626590E+0	1.605040E+0	1.658900E+0	1.697980E+0	1.625000E+0	1.741000E+0	1.509480E+0	1.610200E+0	1.579340E+0	1.604790E+0	1.687280E+0	1.806450E+0	1.713760E+0	1.819830E+0	1.369720E+0	1.536550E+0	1.532170E+0	1.574870E+0	1.440630E+0	1.509150E+0	1.649920E+0	1.711880E+0	1.606690E+0	1.526720E+0	1.750980E+0	1.716350E+0	1.561910E+0	1.697260E+0	1.741770E+0	1.848610E+0	1.689460E+0	1.539790E+0	1.570990E+0	1.577080E+0	1.631890E+0
1.850000E+3	1.602510E+0	1.667590E+0	1.322870E+0	1.541280E+0	1.754090E+0	1.611050E+0	1.525470E+0	1.395360E+0	1.716600E+0	1.415790E+0	1.842340E+0	1.487430E+0	1.851490E+0	1.679550E+0	1.938790E+0	1.760070E+0	1.745680E+0	1.480230E+0	1.670810E+0	1.685790E+0	1.930850E+0	1.644260E+0	1.648770E+0	1.692860E+0	1.681840E+0	1.598400E+0	1.709380E+0	1.595350E+0	1.735510E+0	1.746200E+0	1.743500E+0	1.863030E+0	1.801520E+0	1.599570E+0	1.576780E+0	1.624650E+0	1.900200E+0	1.673300E+0	1.628010E+0	1.719950E+0	1.682230E+0	1.563410E+0	1.560440E+0	1.566130E+0	1.822940E+0	1.790450E+0	1.791970E+0	1.912350E+0	1.694880E+0	1.594340E+0	1.694550E+0	1.729730E+0	1.831950E+0	1.635930E+0	1.688120E+0	1.832620E+0	1.707970E+0	1.517900E+0	1.637900E+0	1.607900E+0	1.832550E+0	1.732910E+0	1.897420E+0	1.879760E+0	1.623950E+0	1.782060E+0	1.708420E+0	1.648790E+0	1.793080E+0	1.550250E+0	1.723830E+0	1.854260E+0	1.645690E+0	1.456230E+0	1.525600E+0	1.651110E+0	1.751920E+0	1.616950E+0	1.751120E+0	1.950430E+0	1.684490E+0	1.529590E+0	1.604380E+0	1.589080E+0	1.873670E+0	1.514770E+0	1.699910E+0	1.643530E+0	1.650280E+0	1.448020E+0	1.689520E+0	1.451220E+0	1.809670E+0	1.743140E+0	1.842140E+0	1.776500E+0	1.586620E+0	1.630840E+0	1.561660E+0	1.622810E+0	1.727610E+0	1.693660E+0	1.672120E+0	1.758960E+0	1.616620E+0	1.550610E+0	1.565010E+0	1.624970E+0	1.833000E+0	1.820410E+0	1.909980E+0	1.939630E+0	1.523160E+0	1.604920E+0	1.755360E+0	1.642990E+0	1.552630E+0	1.647500E+0	1.718030E+0	1.682430E+0	1.521520E+0	1.647650E+0	1.650580E+0	1.487140E+0	1.740110E+0	1.759420E+0	1.754090E+0	1.804180E+0	1.635430E+0	1.539490E+0	1.625010E+0	1.603470E+0	1.657330E+0	1.696260E+0	1.623430E+0	1.739300E+0	1.508180E+0	1.608700E+0	1.577920E+0	1.603260E+0	1.685710E+0	1.804420E+0	1.711960E+0	1.817870E+0	1.368600E+0	1.535090E+0	1.530830E+0	1.573410E+0	1.439390E+0	1.507840E+0	1.648290E+0	1.710090E+0	1.605180E+0	1.525270E+0	1.749130E+0	1.714610E+0	1.560530E+0	1.695620E+0	1.739560E+0	1.844550E+0	1.687050E+0	1.538440E+0	1.572440E+0	1.578070E+0	1.630430E+0
2.150000E+3	1.600040E+0	1.664720E+0	1.318830E+0	1.539080E+0	1.750300E+0	1.610680E+0	1.523250E+0	1.394220E+0	1.711780E+0	1.418200E+0	1.837070E+0	1.486180E+0	1.846080E+0	1.675750E+0	1.936040E+0	1.757620E+0	1.741850E+0	1.478120E+0	1.669090E+0	1.684030E+0	1.928260E+0	1.644210E+0	1.647210E+0	1.690870E+0	1.680140E+0	1.596950E+0	1.709860E+0	1.595940E+0	1.735720E+0	1.744140E+0	1.745240E+0	1.862130E+0	1.799670E+0	1.598280E+0	1.575820E+0	1.622810E+0	1.897800E+0	1.671520E+0	1.626410E+0	1.718130E+0	1.680530E+0	1.561880E+0	1.558800E+0	1.564410E+0	1.821260E+0	1.788590E+0	1.789540E+0	1.910070E+0	1.692970E+0	1.592580E+0	1.692680E+0	1.727530E+0	1.829640E+0	1.634040E+0	1.686220E+0	1.830500E+0	1.706080E+0	1.516380E+0	1.636380E+0	1.606690E+0	1.830290E+0	1.730760E+0	1.894940E+0	1.877190E+0	1.621970E+0	1.779780E+0	1.706230E+0	1.646790E+0	1.790780E+0	1.548540E+0	1.721840E+0	1.851800E+0	1.643720E+0	1.455040E+0	1.523810E+0	1.649070E+0	1.749640E+0	1.614990E+0	1.748760E+0	1.947570E+0	1.682080E+0	1.527860E+0	1.602480E+0	1.587160E+0	1.871070E+0	1.513030E+0	1.697780E+0	1.641550E+0	1.648060E+0	1.446220E+0	1.687180E+0	1.449480E+0	1.807170E+0	1.740550E+0	1.839460E+0	1.773870E+0	1.602150E+0	1.627920E+0	1.559680E+0	1.620540E+0	1.843940E+0	1.685970E+0	1.669090E+0	1.755400E+0	1.682980E+0	1.545410E+0	1.562630E+0	1.622160E+0	1.855170E+0	1.818970E+0	1.906800E+0	1.936130E+0	1.631860E+0	1.597420E+0	1.751710E+0	1.639310E+0	1.810770E+0	1.633340E+0	1.713450E+0	1.677550E+0	1.742580E+0	1.636070E+0	1.646960E+0	1.483200E+0	1.866160E+0	1.750940E+0	1.750400E+0	1.799810E+0	1.635320E+0	1.536690E+0	1.622050E+0	1.600400E+0	1.654320E+0	1.693270E+0	1.620400E+0	1.736150E+0	1.505780E+0	1.605890E+0	1.575200E+0	1.600430E+0	1.682880E+0	1.800840E+0	1.708800E+0	1.815490E+0	1.366250E+0	1.531980E+0	1.527860E+0	1.570540E+0	1.436910E+0	1.504880E+0	1.645330E+0	1.707240E+0	1.602340E+0	1.522420E+0	1.745890E+0	1.711510E+0	1.557560E+0	1.692200E+0	1.734220E+0	1.842540E+0	1.681400E+0	1.532620E+0	1.565750E+0	1.571770E+0	1.624220E+0
2.250000E+3	1.598580E+0	1.663130E+0	1.317470E+0	1.538520E+0	1.750290E+0	1.607880E+0	1.521730E+0	1.392960E+0	1.709430E+0	1.413030E+0	1.830280E+0	1.480910E+0	1.840170E+0	1.669040E+0	1.929680E+0	1.753880E+0	1.738450E+0	1.476940E+0	1.667570E+0	1.682240E+0	1.922520E+0	1.638680E+0	1.645470E+0	1.684230E+0	1.674740E+0	1.591050E+0	1.703340E+0	1.591480E+0	1.732010E+0	1.738130E+0	1.738820E+0	1.856430E+0	1.796860E+0	1.592820E+0	1.570410E+0	1.617520E+0	1.895470E+0	1.669890E+0	1.621220E+0	1.716350E+0	1.678270E+0	1.555770E+0	1.554910E+0	1.563110E+0	1.816440E+0	1.786660E+0	1.782900E+0	1.907850E+0	1.690980E+0	1.590930E+0	1.690410E+0	1.725570E+0	1.827720E+0	1.632480E+0	1.684720E+0	1.828580E+0	1.704340E+0	1.515150E+0	1.630650E+0	1.600630E+0	1.828200E+0	1.728910E+0	1.892820E+0	1.874990E+0	1.620410E+0	1.777910E+0	1.704550E+0	1.645280E+0	1.788860E+0	1.547360E+0	1.720300E+0	1.849990E+0	1.642270E+0	1.448870E+0	1.522490E+0	1.647420E+0	1.747840E+0	1.613520E+0	1.746930E+0	1.945560E+0	1.680530E+0	1.526380E+0	1.601110E+0	1.585700E+0	1.869230E+0	1.511770E+0	1.696240E+0	1.640170E+0	1.646430E+0	1.445180E+0	1.685580E+0	1.448210E+0	1.805440E+0	1.739000E+0	1.837820E+0	1.772240E+0	1.600840E+0	1.626650E+0	1.558320E+0	1.619270E+0	1.841990E+0	1.684660E+0	1.667580E+0	1.753740E+0	1.681560E+0	1.544050E+0	1.561360E+0	1.620830E+0	1.853520E+0	1.815170E+0	1.905170E+0	1.934590E+0	1.654050E+0	1.595340E+0	1.750330E+0	1.637900E+0	1.864190E+0	1.629480E+0	1.711970E+0	1.676000E+0	1.777840E+0	1.633500E+0	1.645710E+0	1.482090E+0	1.891990E+0	1.748570E+0	1.749220E+0	1.798390E+0	1.677310E+0	1.533850E+0	1.620710E+0	1.599020E+0	1.711300E+0	1.689620E+0	1.619110E+0	1.734440E+0	1.543830E+0	1.603200E+0	1.574110E+0	1.599200E+0	1.698400E+0	1.798760E+0	1.707540E+0	1.812790E+0	1.366060E+0	1.531030E+0	1.526980E+0	1.569480E+0	1.436260E+0	1.504020E+0	1.644330E+0	1.706080E+0	1.601400E+0	1.521560E+0	1.744650E+0	1.710310E+0	1.556730E+0	1.690890E+0	1.730820E+0	1.838650E+0	1.677580E+0	1.531920E+0	1.564570E+0	1.570190E+0	1.624000E+0
2.350000E+3	1.596790E+0	1.661350E+0	1.317580E+0	1.536500E+0	1.748060E+0	1.605850E+0	1.520170E+0	1.391630E+0	1.708400E+0	1.411610E+0	1.830370E+0	1.479380E+0	1.839790E+0	1.668130E+0	1.927830E+0	1.753320E+0	1.738370E+0	1.475430E+0	1.665760E+0	1.680400E+0	1.918100E+0	1.636590E+0	1.643710E+0	1.682830E+0	1.672460E+0	1.589800E+0	1.702340E+0	1.589220E+0	1.730110E+0	1.736530E+0	1.737780E+0	1.854250E+0	1.792520E+0	1.589390E+0	1.566700E+0	1.615690E+0	1.893170E+0	1.668000E+0	1.619060E+0	1.714370E+0	1.674230E+0	1.554520E+0	1.551510E+0	1.561470E+0	1.813360E+0	1.784150E+0	1.781190E+0	1.905440E+0	1.688950E+0	1.589210E+0	1.686260E+0	1.723580E+0	1.825440E+0	1.630600E+0	1.682790E+0	1.826430E+0	1.702400E+0	1.511370E+0	1.627560E+0	1.599200E+0	1.825620E+0	1.726910E+0	1.890600E+0	1.872710E+0	1.618510E+0	1.775770E+0	1.702530E+0	1.643460E+0	1.786670E+0	1.545650E+0	1.718380E+0	1.847730E+0	1.640390E+0	1.448250E+0	1.520890E+0	1.644300E+0	1.745820E+0	1.611730E+0	1.744900E+0	1.943110E+0	1.678570E+0	1.524780E+0	1.599330E+0	1.583910E+0	1.866870E+0	1.510190E+0	1.694350E+0	1.638240E+0	1.644660E+0	1.443610E+0	1.683760E+0	1.446740E+0	1.803300E+0	1.736990E+0	1.835580E+0	1.770320E+0	1.599060E+0	1.624800E+0	1.556610E+0	1.617440E+0	1.839760E+0	1.682700E+0	1.665650E+0	1.751670E+0	1.679570E+0	1.542300E+0	1.559630E+0	1.619000E+0	1.851270E+0	1.812950E+0	1.902840E+0	1.932140E+0	1.652140E+0	1.593530E+0	1.748230E+0	1.636070E+0	1.861840E+0	1.627610E+0	1.709970E+0	1.674010E+0	1.774350E+0	1.631570E+0	1.643750E+0	1.480330E+0	1.889530E+0	1.746520E+0	1.747070E+0	1.796080E+0	1.876560E+0	1.523070E+0	1.617390E+0	1.595450E+0	1.985110E+0	1.675220E+0	1.615640E+0	1.729910E+0	1.725970E+0	1.592940E+0	1.571460E+0	1.595860E+0	1.774950E+0	1.793130E+0	1.704820E+0	1.809580E+0	1.366290E+0	1.528920E+0	1.524900E+0	1.567260E+0	1.434460E+0	1.502200E+0	1.641990E+0	1.703890E+0	1.599560E+0	1.519510E+0	1.742270E+0	1.707970E+0	1.554910E+0	1.688360E+0	1.727040E+0	1.835430E+0	1.673290E+0	1.528780E+0	1.561730E+0	1.567870E+0	1.620690E+0
2.400000E+3	1.595660E+0	1.660140E+0	1.317840E+0	1.535070E+0	1.746560E+0	1.604770E+0	1.519430E+0	1.389760E+0	1.709080E+0	1.409790E+0	1.828720E+0	1.477370E+0	1.837620E+0	1.668220E+0	1.925140E+0	1.750550E+0	1.737730E+0	1.474810E+0	1.663720E+0	1.677900E+0	1.917320E+0	1.631580E+0	1.641160E+0	1.679860E+0	1.669080E+0	1.586600E+0	1.698950E+0	1.584770E+0	1.727610E+0	1.733100E+0	1.733780E+0	1.851400E+0	1.788480E+0	1.587310E+0	1.564530E+0	1.613430E+0	1.889120E+0	1.665650E+0	1.616310E+0	1.709990E+0	1.669930E+0	1.551890E+0	1.548530E+0	1.559270E+0	1.808890E+0	1.779100E+0	1.778110E+0	1.902350E+0	1.686030E+0	1.586910E+0	1.682160E+0	1.720890E+0	1.822510E+0	1.628370E+0	1.680230E+0	1.823580E+0	1.699840E+0	1.508030E+0	1.625320E+0	1.596020E+0	1.820250E+0	1.724240E+0	1.887580E+0	1.869800E+0	1.616250E+0	1.773200E+0	1.700140E+0	1.641050E+0	1.783920E+0	1.543520E+0	1.715900E+0	1.844890E+0	1.638010E+0	1.445120E+0	1.518830E+0	1.638900E+0	1.743240E+0	1.609500E+0	1.742320E+0	1.940070E+0	1.676150E+0	1.522720E+0	1.597070E+0	1.581780E+0	1.863940E+0	1.508250E+0	1.691950E+0	1.636010E+0	1.642220E+0	1.441790E+0	1.681340E+0	1.444870E+0	1.800770E+0	1.734490E+0	1.832990E+0	1.767630E+0	1.596910E+0	1.622630E+0	1.554580E+0	1.615230E+0	1.837070E+0	1.680590E+0	1.663500E+0	1.749340E+0	1.677440E+0	1.540490E+0	1.557690E+0	1.616930E+0	1.848750E+0	1.810720E+0	1.900200E+0	1.929420E+0	1.650110E+0	1.591720E+0	1.746090E+0	1.634090E+0	1.859300E+0	1.625730E+0	1.707890E+0	1.672100E+0	1.772130E+0	1.629630E+0	1.641890E+0	1.478760E+0	1.887070E+0	1.744390E+0	1.745050E+0	1.793820E+0	1.874120E+0	1.521560E+0	1.615600E+0	1.593630E+0	1.982500E+0	1.673390E+0	1.613900E+0	1.727950E+0	1.724070E+0	1.591370E+0	1.569870E+0	1.594140E+0	1.772930E+0	1.790990E+0	1.702940E+0	1.807370E+0	1.480510E+0	1.522200E+0	1.522530E+0	1.564510E+0	1.704840E+0	1.488230E+0	1.638410E+0	1.699490E+0	1.842520E+0	1.506690E+0	1.738990E+0	1.704030E+0	1.685930E+0	1.680520E+0	1.725760E+0	1.832440E+0	1.677130E+0	1.527970E+0	1.560650E+0	1.566250E+0	1.619560E+0
2.425000E+3	1.597360E+0	1.661660E+0	1.317530E+0	1.534460E+0	1.744590E+0	1.603190E+0	1.519870E+0	1.388540E+0	1.708450E+0	1.408060E+0	1.827380E+0	1.475480E+0	1.835840E+0	1.667340E+0	1.925580E+0	1.745910E+0	1.736680E+0	1.476110E+0	1.664180E+0	1.675540E+0	1.917260E+0	1.629380E+0	1.635330E+0	1.676950E+0	1.666340E+0	1.583910E+0	1.693820E+0	1.580850E+0	1.725020E+0	1.730510E+0	1.727770E+0	1.848630E+0	1.784810E+0	1.585190E+0	1.562380E+0	1.611140E+0	1.883600E+0	1.663230E+0	1.613190E+0	1.704860E+0	1.666640E+0	1.549800E+0	1.546510E+0	1.557200E+0	1.806310E+0	1.773940E+0	1.775040E+0	1.899370E+0	1.681390E+0	1.584760E+0	1.678890E+0	1.718390E+0	1.819750E+0	1.625960E+0	1.677830E+0	1.820800E+0	1.697360E+0	1.504320E+0	1.623270E+0	1.590940E+0	1.815510E+0	1.721850E+0	1.884820E+0	1.867120E+0	1.614130E+0	1.770600E+0	1.697790E+0	1.638750E+0	1.781270E+0	1.541450E+0	1.713440E+0	1.842280E+0	1.635770E+0	1.440420E+0	1.514620E+0	1.635930E+0	1.740870E+0	1.607350E+0	1.740050E+0	1.937350E+0	1.673950E+0	1.520920E+0	1.595010E+0	1.579690E+0	1.861310E+0	1.506390E+0	1.689690E+0	1.633900E+0	1.640000E+0	1.440220E+0	1.679240E+0	1.443160E+0	1.798290E+0	1.732280E+0	1.830570E+0	1.765420E+0	1.595040E+0	1.620620E+0	1.552680E+0	1.613110E+0	1.834730E+0	1.678580E+0	1.661480E+0	1.747100E+0	1.675430E+0	1.538780E+0	1.555890E+0	1.615070E+0	1.846370E+0	1.808520E+0	1.897870E+0	1.926970E+0	1.648390E+0	1.589940E+0	1.744080E+0	1.632310E+0	1.857050E+0	1.624110E+0	1.706120E+0	1.670330E+0	1.770130E+0	1.627700E+0	1.640240E+0	1.477320E+0	1.884830E+0	1.742540E+0	1.743110E+0	1.791830E+0	1.871890E+0	1.520150E+0	1.613950E+0	1.592080E+0	1.980040E+0	1.671770E+0	1.612320E+0	1.726170E+0	1.722180E+0	1.589890E+0	1.568410E+0	1.592660E+0	1.771070E+0	1.788990E+0	1.701210E+0	1.805460E+0	1.490130E+0	1.520270E+0	1.521010E+0	1.562970E+0	1.729000E+0	1.485820E+0	1.636890E+0	1.697660E+0	1.863970E+0	1.504450E+0	1.737250E+0	1.702220E+0	1.697060E+0	1.678430E+0	1.724110E+0	1.830470E+0	1.780220E+0	1.524520E+0	1.561700E+0	1.567980E+0	1.839460E+0
2.450000E+3	1.595160E+0	1.658350E+0	1.315280E+0	1.532950E+0	1.741750E+0	1.600680E+0	1.518510E+0	1.387000E+0	1.705370E+0	1.406440E+0	1.824480E+0	1.473800E+0	1.833330E+0	1.664160E+0	1.923390E+0	1.743890E+0	1.733340E+0	1.474290E+0	1.662450E+0	1.673330E+0	1.913720E+0	1.627260E+0	1.634090E+0	1.675570E+0	1.664870E+0	1.582790E+0	1.693300E+0	1.579180E+0	1.722700E+0	1.728690E+0	1.726680E+0	1.846050E+0	1.783190E+0	1.583150E+0	1.560270E+0	1.608990E+0	1.879960E+0	1.660940E+0	1.611930E+0	1.702580E+0	1.665320E+0	1.548280E+0	1.544470E+0	1.555240E+0	1.803750E+0	1.772430E+0	1.773420E+0	1.896600E+0	1.678680E+0	1.582680E+0	1.677470E+0	1.715920E+0	1.817100E+0	1.623810E+0	1.675530E+0	1.818300E+0	1.695030E+0	1.503280E+0	1.621020E+0	1.590090E+0	1.813860E+0	1.719410E+0	1.882080E+0	1.864380E+0	1.611840E+0	1.768040E+0	1.695390E+0	1.636550E+0	1.778710E+0	1.539440E+0	1.711050E+0	1.839560E+0	1.633490E+0	1.439860E+0	1.512660E+0	1.634480E+0	1.738300E+0	1.605190E+0	1.737520E+0	1.934410E+0	1.671470E+0	1.518820E+0	1.592820E+0	1.577510E+0	1.858440E+0	1.504370E+0	1.687330E+0	1.631610E+0	1.637680E+0	1.438250E+0	1.676830E+0	1.441330E+0	1.795660E+0	1.729800E+0	1.827780E+0	1.762770E+0	1.592820E+0	1.618360E+0	1.550540E+0	1.610870E+0	1.831840E+0	1.676170E+0	1.659100E+0	1.744590E+0	1.672980E+0	1.536560E+0	1.553720E+0	1.612710E+0	1.843530E+0	1.805710E+0	1.894860E+0	1.923830E+0	1.645900E+0	1.587690E+0	1.741450E+0	1.629980E+0	1.854080E+0	1.621660E+0	1.703530E+0	1.667850E+0	1.767440E+0	1.625390E+0	1.637750E+0	1.475260E+0	1.881830E+0	1.739850E+0	1.740400E+0	1.789030E+0	1.868910E+0	1.518000E+0	1.611620E+0	1.589850E+0	1.976830E+0	1.669300E+0	1.610090E+0	1.723550E+0	1.719580E+0	1.587610E+0	1.566160E+0	1.590250E+0	1.768320E+0	1.786280E+0	1.698610E+0	1.802650E+0	1.488030E+0	1.518080E+0	1.518850E+0	1.560710E+0	1.726290E+0	1.483740E+0	1.634350E+0	1.695110E+0	1.860840E+0	1.502390E+0	1.734650E+0	1.699680E+0	1.694490E+0	1.675900E+0	1.721280E+0	1.827460E+0	1.833740E+0	1.519810E+0	1.558940E+0	1.564760E+0	1.952760E+0
2.475000E+3	1.592170E+0	1.656380E+0	1.314880E+0	1.530440E+0	1.740140E+0	1.599240E+0	1.514980E+0	1.385100E+0	1.703980E+0	1.404980E+0	1.822630E+0	1.472260E+0	1.830990E+0	1.663060E+0	1.918560E+0	1.743500E+0	1.731950E+0	1.472100E+0	1.659010E+0	1.671320E+0	1.911400E+0	1.625290E+0	1.634800E+0	1.673190E+0	1.661920E+0	1.580030E+0	1.691660E+0	1.577380E+0	1.720550E+0	1.726050E+0	1.725430E+0	1.843690E+0	1.780070E+0	1.581180E+0	1.558510E+0	1.607120E+0	1.880910E+0	1.658990E+0	1.609160E+0	1.703470E+0	1.662370E+0	1.546030E+0	1.542650E+0	1.553430E+0	1.801390E+0	1.769620E+0	1.770720E+0	1.893970E+0	1.679550E+0	1.580750E+0	1.674500E+0	1.713690E+0	1.814780E+0	1.621870E+0	1.673500E+0	1.815800E+0	1.692950E+0	1.500660E+0	1.619090E+0	1.588130E+0	1.810560E+0	1.717170E+0	1.879490E+0	1.861770E+0	1.609780E+0	1.765710E+0	1.693160E+0	1.634490E+0	1.776430E+0	1.537680E+0	1.708870E+0	1.837130E+0	1.631410E+0	1.438690E+0	1.513020E+0	1.631560E+0	1.736090E+0	1.603170E+0	1.735180E+0	1.931600E+0	1.669380E+0	1.516980E+0	1.590830E+0	1.575570E+0	1.855870E+0	1.502590E+0	1.685240E+0	1.629550E+0	1.635560E+0	1.436570E+0	1.674750E+0	1.439640E+0	1.793360E+0	1.727540E+0	1.825350E+0	1.760380E+0	1.590850E+0	1.616370E+0	1.548600E+0	1.608770E+0	1.829240E+0	1.673920E+0	1.656960E+0	1.742300E+0	1.670850E+0	1.534690E+0	1.551910E+0	1.610720E+0	1.841100E+0	1.803400E+0	1.892290E+0	1.921100E+0	1.643820E+0	1.585670E+0	1.739130E+0	1.627810E+0	1.851470E+0	1.619580E+0	1.701360E+0	1.665660E+0	1.765080E+0	1.623360E+0	1.635750E+0	1.473430E+0	1.879210E+0	1.737510E+0	1.738150E+0	1.786610E+0	1.866290E+0	1.516190E+0	1.609570E+0	1.587650E+0	1.973860E+0	1.667180E+0	1.607990E+0	1.721290E+0	1.717300E+0	1.585670E+0	1.564150E+0	1.588430E+0	1.765950E+0	1.783850E+0	1.696380E+0	1.800150E+0	1.486240E+0	1.516190E+0	1.516990E+0	1.558740E+0	1.723990E+0	1.481890E+0	1.632260E+0	1.692890E+0	1.858260E+0	1.500480E+0	1.732300E+0	1.697350E+0	1.692260E+0	1.673660E+0	1.719060E+0	1.824920E+0	1.831240E+0	1.517970E+0	1.557050E+0	1.562770E+0	1.949900E+0
2.500000E+3	1.587970E+0	1.650800E+0	1.312560E+0	1.528360E+0	1.737670E+0	1.596040E+0	1.511510E+0	1.383590E+0	1.700490E+0	1.400430E+0	1.819940E+0	1.470560E+0	1.828400E+0	1.658470E+0	1.914800E+0	1.742340E+0	1.729160E+0	1.467510E+0	1.655270E+0	1.669290E+0	1.905990E+0	1.623240E+0	1.632720E+0	1.671100E+0	1.660190E+0	1.578600E+0	1.689910E+0	1.577200E+0	1.718410E+0	1.723940E+0	1.724070E+0	1.841130E+0	1.778210E+0	1.579160E+0	1.556450E+0	1.604980E+0	1.878540E+0	1.656840E+0	1.607550E+0	1.701680E+0	1.660610E+0	1.543660E+0	1.540800E+0	1.551400E+0	1.798960E+0	1.769940E+0	1.767920E+0	1.891240E+0	1.676820E+0	1.578670E+0	1.672770E+0	1.711280E+0	1.812130E+0	1.619730E+0	1.671310E+0	1.813360E+0	1.690630E+0	1.499280E+0	1.616990E+0	1.587790E+0	1.809300E+0	1.714890E+0	1.876810E+0	1.859040E+0	1.607670E+0	1.763230E+0	1.690930E+0	1.632360E+0	1.773910E+0	1.535670E+0	1.706680E+0	1.834560E+0	1.629280E+0	1.437750E+0	1.511100E+0	1.629820E+0	1.733600E+0	1.600890E+0	1.732740E+0	1.928660E+0	1.666950E+0	1.515020E+0	1.588750E+0	1.573550E+0	1.853120E+0	1.500720E+0	1.682930E+0	1.627500E+0	1.633370E+0	1.434690E+0	1.672400E+0	1.437670E+0	1.790580E+0	1.725020E+0	1.822600E+0	1.757780E+0	1.588700E+0	1.614220E+0	1.546560E+0	1.606710E+0	1.826670E+0	1.671620E+0	1.654590E+0	1.739740E+0	1.668430E+0	1.532550E+0	1.549650E+0	1.608510E+0	1.838190E+0	1.800590E+0	1.889240E+0	1.918020E+0	1.641380E+0	1.583420E+0	1.736430E+0	1.625270E+0	1.848440E+0	1.617210E+0	1.698820E+0	1.663080E+0	1.762500E+0	1.620920E+0	1.633340E+0	1.471290E+0	1.876230E+0	1.734820E+0	1.735420E+0	1.783800E+0	1.863150E+0	1.513960E+0	1.607190E+0	1.585180E+0	1.970460E+0	1.664500E+0	1.605520E+0	1.718500E+0	1.714540E+0	1.583290E+0	1.561900E+0	1.585920E+0	1.763160E+0	1.781000E+0	1.693790E+0	1.797180E+0	1.484020E+0	1.513910E+0	1.514740E+0	1.556380E+0	1.721120E+0	1.479780E+0	1.629790E+0	1.690210E+0	1.855180E+0	1.498270E+0	1.729600E+0	1.694770E+0	1.689550E+0	1.671120E+0	1.716320E+0	1.821890E+0	1.828600E+0	1.515610E+0	1.552680E+0	1.558710E+0	1.946490E+0
2.525000E+3	1.585790E+0	1.647880E+0	1.374870E+0	1.522580E+0	1.734550E+0	1.592920E+0	1.516170E+0	1.381720E+0	1.697190E+0	1.398760E+0	1.818520E+0	1.468920E+0	1.825530E+0	1.656320E+0	1.912240E+0	1.740530E+0	1.726560E+0	1.464650E+0	1.653270E+0	1.667290E+0	1.903620E+0	1.620690E+0	1.630780E+0	1.669720E+0	1.658650E+0	1.569100E+0	1.688460E+0	1.576780E+0	1.716590E+0	1.715020E+0	1.723490E+0	1.838940E+0	1.776230E+0	1.576490E+0	1.554740E+0	1.603340E+0	1.876180E+0	1.655030E+0	1.605840E+0	1.700190E+0	1.659130E+0	1.542800E+0	1.539050E+0	1.549670E+0	1.796660E+0	1.768380E+0	1.766560E+0	1.888770E+0	1.674920E+0	1.576890E+0	1.670780E+0	1.709260E+0	1.809840E+0	1.617860E+0	1.669400E+0	1.811140E+0	1.688590E+0	1.498480E+0	1.615090E+0	1.585480E+0	1.807530E+0	1.712750E+0	1.874420E+0	1.856600E+0	1.605700E+0	1.761080E+0	1.688790E+0	1.630350E+0	1.771600E+0	1.533850E+0	1.704580E+0	1.832130E+0	1.627380E+0	1.435690E+0	1.509010E+0	1.627840E+0	1.731470E+0	1.599060E+0	1.730570E+0	1.926040E+0	1.664820E+0	1.513240E+0	1.586830E+0	1.571620E+0	1.850530E+0	1.498980E+0	1.680870E+0	1.625500E+0	1.631410E+0	1.433150E+0	1.670400E+0	1.436130E+0	1.788340E+0	1.722850E+0	1.820270E+0	1.755550E+0	1.586670E+0	1.612200E+0	1.544700E+0	1.604650E+0	1.824170E+0	1.669460E+0	1.652540E+0	1.737430E+0	1.666320E+0	1.530760E+0	1.547870E+0	1.606410E+0	1.835820E+0	1.798060E+0	1.886610E+0	1.915250E+0	1.639230E+0	1.581370E+0	1.734060E+0	1.623230E+0	1.845810E+0	1.615250E+0	1.696570E+0	1.660910E+0	1.760160E+0	1.618870E+0	1.631160E+0	1.469360E+0	1.873590E+0	1.732650E+0	1.733140E+0	1.781410E+0	1.860530E+0	1.512080E+0	1.605140E+0	1.583230E+0	1.967640E+0	1.662410E+0	1.603480E+0	1.716280E+0	1.712220E+0	1.581200E+0	1.559910E+0	1.583870E+0	1.760690E+0	1.778610E+0	1.691710E+0	1.793680E+0	1.482390E+0	1.512110E+0	1.512940E+0	1.554310E+0	1.718800E+0	1.477890E+0	1.627750E+0	1.688000E+0	1.852430E+0	1.496430E+0	1.727330E+0	1.692500E+0	1.687230E+0	1.668930E+0	1.714020E+0	1.819340E+0	1.825910E+0	1.513400E+0	1.550670E+0	1.556630E+0	1.943670E+0
2.550000E+3	1.583370E+0	1.646070E+0	1.604940E+0	1.510930E+0	1.730980E+0	1.589330E+0	1.537900E+0	1.378970E+0	1.694410E+0	1.396950E+0	1.818260E+0	1.467270E+0	1.823050E+0	1.654220E+0	1.907950E+0	1.737640E+0	1.723870E+0	1.462020E+0	1.650440E+0	1.664930E+0	1.901580E+0	1.618440E+0	1.628670E+0	1.667130E+0	1.655940E+0	1.566460E+0	1.686240E+0	1.575510E+0	1.714120E+0	1.711770E+0	1.721020E+0	1.835970E+0	1.773620E+0	1.574250E+0	1.552640E+0	1.601170E+0	1.873780E+0	1.652770E+0	1.603290E+0	1.697640E+0	1.656410E+0	1.539050E+0	1.537350E+0	1.547460E+0	1.793880E+0	1.765380E+0	1.763050E+0	1.885960E+0	1.672980E+0	1.574600E+0	1.669930E+0	1.706830E+0	1.807340E+0	1.615630E+0	1.667020E+0	1.808470E+0	1.685850E+0	1.496050E+0	1.612720E+0	1.583650E+0	1.806230E+0	1.710270E+0	1.871750E+0	1.853770E+0	1.603510E+0	1.758550E+0	1.686400E+0	1.628110E+0	1.768930E+0	1.531700E+0	1.702130E+0	1.829170E+0	1.625040E+0	1.434200E+0	1.507400E+0	1.625620E+0	1.728910E+0	1.597120E+0	1.728080E+0	1.923060E+0	1.662510E+0	1.511120E+0	1.584590E+0	1.569260E+0	1.847590E+0	1.496890E+0	1.678300E+0	1.623280E+0	1.629020E+0	1.431330E+0	1.668140E+0	1.434270E+0	1.785830E+0	1.720360E+0	1.817600E+0	1.752930E+0	1.584520E+0	1.609870E+0	1.542510E+0	1.602230E+0	1.821350E+0	1.666980E+0	1.650350E+0	1.734850E+0	1.664130E+0	1.528820E+0	1.545840E+0	1.604380E+0	1.833050E+0	1.795550E+0	1.883770E+0	1.912280E+0	1.636980E+0	1.579210E+0	1.731620E+0	1.621060E+0	1.843060E+0	1.613180E+0	1.694230E+0	1.658660E+0	1.757650E+0	1.616700E+0	1.629070E+0	1.467320E+0	1.870740E+0	1.730040E+0	1.730660E+0	1.778840E+0	1.857700E+0	1.510310E+0	1.603040E+0	1.581250E+0	1.964630E+0	1.660080E+0	1.601510E+0	1.713990E+0	1.709850E+0	1.579240E+0	1.557870E+0	1.582070E+0	1.757920E+0	1.776250E+0	1.689600E+0	1.787520E+0	1.481150E+0	1.510290E+0	1.511120E+0	1.552020E+0	1.716440E+0	1.476210E+0	1.625570E+0	1.685830E+0	1.849860E+0	1.494560E+0	1.725020E+0	1.690300E+0	1.685100E+0	1.666850E+0	1.711830E+0	1.816850E+0	1.821230E+0	1.512000E+0	1.549660E+0	1.555570E+0	1.940880E+0
2.575000E+3	1.581880E+0	1.644430E+0	1.601990E+0	1.508420E+0	1.727840E+0	1.586390E+0	1.537000E+0	1.377680E+0	1.693120E+0	1.395590E+0	1.814630E+0	1.465810E+0	1.820990E+0	1.651480E+0	1.907600E+0	1.735560E+0	1.720670E+0	1.460930E+0	1.648770E+0	1.663060E+0	1.901030E+0	1.616500E+0	1.626950E+0	1.666130E+0	1.655370E+0	1.565870E+0	1.685040E+0	1.574050E+0	1.712120E+0	1.710090E+0	1.719860E+0	1.833630E+0	1.773150E+0	1.572530E+0	1.552830E+0	1.599320E+0	1.870730E+0	1.649530E+0	1.602900E+0	1.694520E+0	1.655470E+0	1.531130E+0	1.539860E+0	1.545930E+0	1.792410E+0	1.758090E+0	1.762900E+0	1.883800E+0	1.671360E+0	1.571680E+0	1.668580E+0	1.704840E+0	1.805240E+0	1.613800E+0	1.665130E+0	1.806370E+0	1.684020E+0	1.495760E+0	1.610940E+0	1.582360E+0	1.803340E+0	1.708360E+0	1.869510E+0	1.851530E+0	1.601640E+0	1.756480E+0	1.684430E+0	1.626180E+0	1.766600E+0	1.530060E+0	1.700160E+0	1.827000E+0	1.623220E+0	1.433140E+0	1.505800E+0	1.624650E+0	1.726780E+0	1.595210E+0	1.725920E+0	1.920620E+0	1.660480E+0	1.509380E+0	1.582870E+0	1.567440E+0	1.845190E+0	1.495140E+0	1.676370E+0	1.621380E+0	1.627150E+0	1.429820E+0	1.666200E+0	1.432660E+0	1.783660E+0	1.718200E+0	1.815260E+0	1.750680E+0	1.582650E+0	1.607990E+0	1.540680E+0	1.600380E+0	1.819120E+0	1.665070E+0	1.648330E+0	1.732730E+0	1.662020E+0	1.527140E+0	1.543980E+0	1.602500E+0	1.830710E+0	1.793200E+0	1.881280E+0	1.909680E+0	1.634910E+0	1.577310E+0	1.729470E+0	1.618990E+0	1.840550E+0	1.611190E+0	1.692110E+0	1.656600E+0	1.755530E+0	1.614700E+0	1.627040E+0	1.465690E+0	1.868320E+0	1.727890E+0	1.728350E+0	1.776490E+0	1.855120E+0	1.508420E+0	1.601030E+0	1.579280E+0	1.961810E+0	1.657920E+0	1.599440E+0	1.711870E+0	1.707620E+0	1.577310E+0	1.555960E+0	1.579960E+0	1.755670E+0	1.773910E+0	1.687490E+0	1.785160E+0	1.479350E+0	1.508540E+0	1.509320E+0	1.550160E+0	1.714110E+0	1.474600E+0	1.623590E+0	1.683770E+0	1.847250E+0	1.492810E+0	1.722860E+0	1.688200E+0	1.683020E+0	1.664770E+0	1.709590E+0	1.814450E+0	1.819630E+0	1.510240E+0	1.548160E+0	1.554490E+0	1.938100E+0
2.600000E+3	1.579980E+0	1.641210E+0	1.600700E+0	1.507030E+0	1.726350E+0	1.585250E+0	1.534610E+0	1.376070E+0	1.691290E+0	1.393950E+0	1.812160E+0	1.463930E+0	1.818370E+0	1.649700E+0	1.903550E+0	1.733060E+0	1.719070E+0	1.458560E+0	1.646460E+0	1.660690E+0	1.898240E+0	1.614290E+0	1.624770E+0	1.663500E+0	1.652240E+0	1.563800E+0	1.681990E+0	1.571940E+0	1.709760E+0	1.707290E+0	1.716570E+0	1.830880E+0	1.770540E+0	1.570280E+0	1.550740E+0	1.597010E+0	1.868190E+0	1.647150E+0	1.600790E+0	1.692100E+0	1.652270E+0	1.528980E+0	1.537630E+0	1.543760E+0	1.789340E+0	1.755080E+0	1.759470E+0	1.880900E+0	1.668940E+0	1.569550E+0	1.666190E+0	1.702360E+0	1.802460E+0	1.611490E+0	1.662630E+0	1.803640E+0	1.681560E+0	1.491030E+0	1.608740E+0	1.580170E+0	1.800710E+0	1.705520E+0	1.866690E+0	1.848700E+0	1.599380E+0	1.753920E+0	1.682010E+0	1.623830E+0	1.764060E+0	1.527710E+0	1.697600E+0	1.824270E+0	1.620840E+0	1.428700E+0	1.503780E+0	1.621570E+0	1.724410E+0	1.592050E+0	1.723520E+0	1.917740E+0	1.658170E+0	1.506930E+0	1.580740E+0	1.565260E+0	1.842350E+0	1.493160E+0	1.674030E+0	1.619170E+0	1.624850E+0	1.427990E+0	1.663850E+0	1.430920E+0	1.781060E+0	1.715830E+0	1.812690E+0	1.748150E+0	1.580530E+0	1.605830E+0	1.538630E+0	1.598120E+0	1.816450E+0	1.662710E+0	1.646200E+0	1.730310E+0	1.659760E+0	1.525170E+0	1.541940E+0	1.600330E+0	1.828190E+0	1.790650E+0	1.878500E+0	1.906790E+0	1.632710E+0	1.575260E+0	1.727070E+0	1.616850E+0	1.837900E+0	1.609150E+0	1.689880E+0	1.654340E+0	1.753180E+0	1.612570E+0	1.624980E+0	1.463710E+0	1.865600E+0	1.725510E+0	1.726090E+0	1.774040E+0	1.852420E+0	1.506570E+0	1.598990E+0	1.577310E+0	1.958960E+0	1.655880E+0	1.597500E+0	1.709630E+0	1.705380E+0	1.575370E+0	1.554080E+0	1.577970E+0	1.753400E+0	1.771540E+0	1.685290E+0	1.782690E+0	1.477650E+0	1.506680E+0	1.507510E+0	1.548270E+0	1.711880E+0	1.472710E+0	1.621590E+0	1.681630E+0	1.844710E+0	1.491130E+0	1.720620E+0	1.686090E+0	1.680910E+0	1.662730E+0	1.707420E+0	1.812070E+0	1.815930E+0	1.508450E+0	1.547620E+0	1.553060E+0	1.935270E+0
2.650000E+3	1.578080E+0	1.653430E+0	1.598150E+0	1.504840E+0	1.724170E+0	1.622880E+0	1.530790E+0	1.374110E+0	1.686470E+0	1.420540E+0	1.809300E+0	1.462050E+0	1.814420E+0	1.659520E+0	1.900880E+0	1.729720E+0	1.715230E+0	1.457090E+0	1.644310E+0	1.658430E+0	1.894540E+0	1.612200E+0	1.622620E+0	1.661730E+0	1.650480E+0	1.563570E+0	1.679820E+0	1.569260E+0	1.707480E+0	1.705020E+0	1.714250E+0	1.828200E+0	1.769290E+0	1.568240E+0	1.549530E+0	1.594850E+0	1.865470E+0	1.645070E+0	1.600880E+0	1.691130E+0	1.651780E+0	1.527130E+0	1.535310E+0	1.541780E+0	1.786910E+0	1.752770E+0	1.756570E+0	1.878040E+0	1.666470E+0	1.567370E+0	1.666410E+0	1.700050E+0	1.799930E+0	1.609260E+0	1.660460E+0	1.801120E+0	1.679260E+0	1.488550E+0	1.606600E+0	1.577070E+0	1.800190E+0	1.703080E+0	1.863930E+0	1.845940E+0	1.597250E+0	1.751410E+0	1.679760E+0	1.621870E+0	1.761530E+0	1.525520E+0	1.695130E+0	1.821620E+0	1.618710E+0	1.423690E+0	1.501740E+0	1.620190E+0	1.721990E+0	1.588780E+0	1.721180E+0	1.914990E+0	1.655990E+0	1.504580E+0	1.578720E+0	1.563240E+0	1.839680E+0	1.490990E+0	1.671610E+0	1.617090E+0	1.622710E+0	1.424790E+0	1.661620E+0	1.429160E+0	1.778660E+0	1.712590E+0	1.810150E+0	1.745760E+0	1.578520E+0	1.603340E+0	1.536680E+0	1.595970E+0	1.813830E+0	1.660400E+0	1.643910E+0	1.727870E+0	1.657380E+0	1.523190E+0	1.539980E+0	1.598320E+0	1.825560E+0	1.788290E+0	1.875840E+0	1.903950E+0	1.630560E+0	1.573210E+0	1.724660E+0	1.614660E+0	1.835130E+0	1.607020E+0	1.687570E+0	1.652150E+0	1.750800E+0	1.610510E+0	1.622900E+0	1.461980E+0	1.862910E+0	1.723190E+0	1.723640E+0	1.771660E+0	1.849670E+0	1.504690E+0	1.596910E+0	1.575230E+0	1.955970E+0	1.653730E+0	1.595440E+0	1.707350E+0	1.703040E+0	1.573420E+0	1.552170E+0	1.575930E+0	1.750960E+0	1.769180E+0	1.682820E+0	1.780270E+0	1.475700E+0	1.504890E+0	1.505030E+0	1.546320E+0	1.709580E+0	1.470960E+0	1.619070E+0	1.679480E+0	1.842140E+0	1.489350E+0	1.718160E+0	1.683890E+0	1.678590E+0	1.660600E+0	1.705180E+0	1.809560E+0	1.813380E+0	1.506630E+0	1.546180E+0	1.551140E+0	1.932590E+0
2.750000E+3	1.576230E+0	1.747390E+0	1.591410E+0	1.501980E+0	1.720760E+0	1.884540E+0	1.517000E+0	1.370810E+0	1.681690E+0	1.607240E+0	1.798190E+0	1.459530E+0	1.811900E+0	1.734990E+0	1.898100E+0	1.728040E+0	1.712070E+0	1.473340E+0	1.641550E+0	1.656180E+0	1.892000E+0	1.643370E+0	1.619540E+0	1.660890E+0	1.649940E+0	1.586610E+0	1.677690E+0	1.567680E+0	1.705120E+0	1.713980E+0	1.712070E+0	1.825650E+0	1.765920E+0	1.566560E+0	1.548660E+0	1.592660E+0	1.863390E+0	1.643030E+0	1.599430E+0	1.689560E+0	1.651080E+0	1.525370E+0	1.533350E+0	1.539930E+0	1.784490E+0	1.750740E+0	1.754390E+0	1.875320E+0	1.664320E+0	1.565410E+0	1.664550E+0	1.697780E+0	1.797540E+0	1.607360E+0	1.658250E+0	1.798780E+0	1.677290E+0	1.487040E+0	1.604380E+0	1.575410E+0	1.797370E+0	1.700760E+0	1.861170E+0	1.843360E+0	1.595270E+0	1.749080E+0	1.677430E+0	1.619610E+0	1.759230E+0	1.523740E+0	1.692890E+0	1.819120E+0	1.616410E+0	1.421840E+0	1.499740E+0	1.619670E+0	1.719540E+0	1.586650E+0	1.718740E+0	1.912150E+0	1.653780E+0	1.502660E+0	1.576700E+0	1.561300E+0	1.836920E+0	1.488950E+0	1.669350E+0	1.614840E+0	1.620410E+0	1.422460E+0	1.659330E+0	1.427520E+0	1.776080E+0	1.709960E+0	1.807640E+0	1.743410E+0	1.576520E+0	1.601100E+0	1.534690E+0	1.593810E+0	1.811100E+0	1.658110E+0	1.641550E+0	1.725330E+0	1.655000E+0	1.521230E+0	1.537900E+0	1.596050E+0	1.822870E+0	1.785830E+0	1.873160E+0	1.901250E+0	1.628300E+0	1.571220E+0	1.722160E+0	1.612510E+0	1.832370E+0	1.604780E+0	1.685330E+0	1.649960E+0	1.748040E+0	1.608490E+0	1.620630E+0	1.460230E+0	1.860160E+0	1.720810E+0	1.720980E+0	1.769050E+0	1.846830E+0	1.502730E+0	1.594580E+0	1.573040E+0	1.952850E+0	1.651610E+0	1.593340E+0	1.705110E+0	1.700740E+0	1.571370E+0	1.550140E+0	1.573870E+0	1.748610E+0	1.766590E+0	1.679070E+0	1.777470E+0	1.473940E+0	1.503140E+0	1.499150E+0	1.544840E+0	1.707540E+0	1.469370E+0	1.614100E+0	1.677690E+0	1.839500E+0	1.487620E+0	1.714670E+0	1.681830E+0	1.676390E+0	1.658450E+0	1.702590E+0	1.807010E+0	1.810420E+0	1.504880E+0	1.543920E+0	1.549320E+0	1.929790E+0
2.850000E+3	1.574490E+0	1.745850E+0	1.589570E+0	1.500780E+0	1.718780E+0	1.880670E+0	1.515200E+0	1.369320E+0	1.680850E+0	1.605120E+0	1.797170E+0	1.457890E+0	1.808560E+0	1.732800E+0	1.895750E+0	1.725750E+0	1.710300E+0	1.574430E+0	1.634670E+0	1.653470E+0	1.888850E+0	1.860680E+0	1.608370E+0	1.659230E+0	1.646860E+0	1.740880E+0	1.673100E+0	1.565220E+0	1.701620E+0	1.781910E+0	1.706760E+0	1.822920E+0	1.763780E+0	1.566790E+0	1.546510E+0	1.590730E+0	1.860590E+0	1.641040E+0	1.597880E+0	1.687390E+0	1.648280E+0	1.523620E+0	1.531550E+0	1.537850E+0	1.781990E+0	1.747820E+0	1.751670E+0	1.872740E+0	1.662010E+0	1.563570E+0	1.661520E+0	1.695410E+0	1.795080E+0	1.605320E+0	1.656000E+0	1.796150E+0	1.675150E+0	1.485080E+0	1.602180E+0	1.573090E+0	1.795370E+0	1.698550E+0	1.858480E+0	1.840700E+0	1.593240E+0	1.746710E+0	1.675190E+0	1.617260E+0	1.756830E+0	1.521960E+0	1.688630E+0	1.816850E+0	1.614370E+0	1.420190E+0	1.497690E+0	1.617620E+0	1.717380E+0	1.584650E+0	1.716380E+0	1.909500E+0	1.651630E+0	1.500840E+0	1.574630E+0	1.559330E+0	1.834390E+0	1.487190E+0	1.667030E+0	1.612800E+0	1.618240E+0	1.420730E+0	1.657070E+0	1.425720E+0	1.773660E+0	1.707670E+0	1.805180E+0	1.741050E+0	1.574620E+0	1.599040E+0	1.532700E+0	1.591740E+0	1.808530E+0	1.655900E+0	1.639440E+0	1.723060E+0	1.652880E+0	1.519340E+0	1.535990E+0	1.593990E+0	1.820370E+0	1.783560E+0	1.870590E+0	1.898770E+0	1.626330E+0	1.569350E+0	1.720120E+0	1.610500E+0	1.829910E+0	1.602880E+0	1.683170E+0	1.647930E+0	1.745570E+0	1.606530E+0	1.618540E+0	1.458620E+0	1.857680E+0	1.718670E+0	1.718930E+0	1.766820E+0	1.844440E+0	1.501020E+0	1.592690E+0	1.571250E+0	1.950240E+0	1.649520E+0	1.591460E+0	1.702990E+0	1.698690E+0	1.569510E+0	1.548280E+0	1.571990E+0	1.746400E+0	1.764320E+0	1.676750E+0	1.775250E+0	1.472200E+0	1.501400E+0	1.497310E+0	1.543020E+0	1.705280E+0	1.467710E+0	1.612250E+0	1.675710E+0	1.837060E+0	1.486000E+0	1.712530E+0	1.679660E+0	1.674340E+0	1.656550E+0	1.699010E+0	1.804720E+0	1.808290E+0	1.503450E+0	1.538820E+0	1.547940E+0	1.927310E+0
2.950000E+3	1.574620E+0	1.746440E+0	1.587780E+0	1.499020E+0	1.716670E+0	1.876830E+0	1.513880E+0	1.367820E+0	1.681410E+0	1.603140E+0	1.796700E+0	1.456040E+0	1.807820E+0	1.730170E+0	1.891570E+0	1.723750E+0	1.709830E+0	1.573670E+0	1.632530E+0	1.651290E+0	1.885590E+0	1.858780E+0	1.606340E+0	1.654550E+0	1.642200E+0	1.738690E+0	1.669970E+0	1.563490E+0	1.699250E+0	1.778770E+0	1.705050E+0	1.820310E+0	1.758870E+0	1.688910E+0	1.539680E+0	1.587710E+0	1.856900E+0	1.847940E+0	1.587020E+0	1.684010E+0	1.643180E+0	1.672210E+0	1.524600E+0	1.535180E+0	1.778420E+0	1.811030E+0	1.748650E+0	1.869890E+0	1.659270E+0	1.563390E+0	1.658920E+0	1.693280E+0	1.792480E+0	1.603320E+0	1.654080E+0	1.793750E+0	1.672800E+0	1.484010E+0	1.600150E+0	1.571310E+0	1.791570E+0	1.696420E+0	1.855760E+0	1.838090E+0	1.591010E+0	1.744450E+0	1.672760E+0	1.614950E+0	1.754400E+0	1.520110E+0	1.685730E+0	1.814400E+0	1.612350E+0	1.418470E+0	1.495590E+0	1.613390E+0	1.715030E+0	1.582510E+0	1.713850E+0	1.906620E+0	1.649410E+0	1.498880E+0	1.572480E+0	1.557270E+0	1.831840E+0	1.485230E+0	1.664810E+0	1.610610E+0	1.616180E+0	1.418940E+0	1.654870E+0	1.423950E+0	1.771260E+0	1.705360E+0	1.802600E+0	1.738650E+0	1.572580E+0	1.596870E+0	1.530710E+0	1.589700E+0	1.805950E+0	1.653900E+0	1.637140E+0	1.720730E+0	1.650500E+0	1.517400E+0	1.533910E+0	1.591970E+0	1.817940E+0	1.781180E+0	1.867970E+0	1.896220E+0	1.624200E+0	1.567380E+0	1.717720E+0	1.608440E+0	1.827220E+0	1.600750E+0	1.680970E+0	1.645750E+0	1.742850E+0	1.604480E+0	1.616460E+0	1.456800E+0	1.855100E+0	1.716420E+0	1.716630E+0	1.764540E+0	1.841870E+0	1.499150E+0	1.590750E+0	1.569230E+0	1.947370E+0	1.647390E+0	1.589380E+0	1.700710E+0	1.696320E+0	1.567580E+0	1.546280E+0	1.570010E+0	1.744120E+0	1.762050E+0	1.674590E+0	1.772850E+0	1.470310E+0	1.499510E+0	1.495420E+0	1.541070E+0	1.702820E+0	1.465820E+0	1.610100E+0	1.673500E+0	1.834450E+0	1.484160E+0	1.710270E+0	1.677470E+0	1.672130E+0	1.654390E+0	1.696570E+0	1.802230E+0	1.805810E+0	1.501570E+0	1.536810E+0	1.545980E+0	1.924650E+0
3.250000E+3	1.573770E+0	1.743870E+0	1.585940E+0	1.497320E+0	1.714560E+0	1.874730E+0	1.512620E+0	1.366340E+0	1.679330E+0	1.601260E+0	1.794290E+0	1.454440E+0	1.805090E+0	1.728520E+0	1.888610E+0	1.722000E+0	1.707630E+0	1.572680E+0	1.630490E+0	1.649130E+0	1.882510E+0	1.855740E+0	1.604330E+0	1.651930E+0	1.640150E+0	1.736440E+0	1.667810E+0	1.561580E+0	1.697130E+0	1.776390E+0	1.702380E+0	1.817820E+0	1.756470E+0	1.712920E+0	1.537190E+0	1.585530E+0	1.854050E+0	1.889290E+0	1.583210E+0	1.681540E+0	1.640680E+0	1.702210E+0	1.521000E+0	1.533150E+0	1.776640E+0	1.821630E+0	1.745690E+0	1.867240E+0	1.656900E+0	1.573380E+0	1.656650E+0	1.690900E+0	1.789830E+0	1.748600E+0	1.645360E+0	1.790360E+0	1.669480E+0	1.550220E+0	1.599150E+0	1.569560E+0	1.788580E+0	1.721940E+0	1.852030E+0	1.835390E+0	1.588720E+0	1.785430E+0	1.668630E+0	1.612470E+0	1.751460E+0	1.643640E+0	1.677970E+0	1.811250E+0	1.609180E+0	1.527760E+0	1.489010E+0	1.612550E+0	1.711910E+0	1.635080E+0	1.709130E+0	1.903540E+0	1.646580E+0	1.498720E+0	1.570170E+0	1.555170E+0	1.829060E+0	1.483330E+0	1.662560E+0	1.608440E+0	1.614020E+0	1.417420E+0	1.652520E+0	1.422160E+0	1.768760E+0	1.703060E+0	1.799850E+0	1.735960E+0	1.570400E+0	1.594670E+0	1.528510E+0	1.587440E+0	1.803320E+0	1.651590E+0	1.634840E+0	1.718310E+0	1.648300E+0	1.515390E+0	1.531730E+0	1.589630E+0	1.815340E+0	1.778590E+0	1.865060E+0	1.893260E+0	1.621960E+0	1.565300E+0	1.715170E+0	1.606500E+0	1.824510E+0	1.598620E+0	1.678610E+0	1.643600E+0	1.740000E+0	1.602350E+0	1.614050E+0	1.454900E+0	1.852250E+0	1.713950E+0	1.714200E+0	1.761950E+0	1.839160E+0	1.497220E+0	1.588380E+0	1.567230E+0	1.944210E+0	1.645160E+0	1.587050E+0	1.698260E+0	1.693700E+0	1.565360E+0	1.544060E+0	1.567910E+0	1.741460E+0	1.759420E+0	1.672040E+0	1.770280E+0	1.468370E+0	1.497640E+0	1.493450E+0	1.538930E+0	1.700280E+0	1.463890E+0	1.607710E+0	1.670980E+0	1.831400E+0	1.482090E+0	1.707550E+0	1.675080E+0	1.669690E+0	1.652030E+0	1.694120E+0	1.799450E+0	1.802960E+0	1.499510E+0	1.534650E+0	1.543850E+0	1.921400E+0
3.550000E+3	1.569130E+0	1.739560E+0	1.584850E+0	1.496000E+0	1.712370E+0	1.873910E+0	1.510170E+0	1.365060E+0	1.673410E+0	1.599430E+0	1.790680E+0	1.452970E+0	1.801730E+0	1.726150E+0	1.886290E+0	1.718860E+0	1.703700E+0	1.568320E+0	1.628640E+0	1.647240E+0	1.880640E+0	1.853050E+0	1.602610E+0	1.651880E+0	1.639570E+0	1.733980E+0	1.666820E+0	1.559510E+0	1.695150E+0	1.775070E+0	1.700420E+0	1.815610E+0	1.754730E+0	1.712540E+0	1.535000E+0	1.583630E+0	1.851730E+0	1.886840E+0	1.581470E+0	1.679730E+0	1.640860E+0	1.699860E+0	1.520620E+0	1.531440E+0	1.775390E+0	1.819780E+0	1.746220E+0	1.864770E+0	1.654980E+0	1.572620E+0	1.655110E+0	1.688750E+0	1.787470E+0	1.760290E+0	1.642830E+0	1.787980E+0	1.667370E+0	1.557740E+0	1.596960E+0	1.567310E+0	1.788460E+0	1.722410E+0	1.849540E+0	1.833010E+0	1.586740E+0	1.829730E+0	1.664540E+0	1.610120E+0	1.748760E+0	1.778360E+0	1.669970E+0	1.808020E+0	1.606020E+0	1.647010E+0	1.482220E+0	1.612550E+0	1.708830E+0	1.692600E+0	1.704420E+0	1.900740E+0	1.644040E+0	1.560180E+0	1.565540E+0	1.552830E+0	1.825900E+0	1.644120E+0	1.653230E+0	1.605320E+0	1.610580E+0	1.541210E+0	1.644780E+0	1.419910E+0	1.765360E+0	1.757980E+0	1.794890E+0	1.733380E+0	1.567840E+0	1.594550E+0	1.526350E+0	1.585370E+0	1.800620E+0	1.649340E+0	1.632540E+0	1.715830E+0	1.646020E+0	1.513590E+0	1.529540E+0	1.587480E+0	1.812670E+0	1.776000E+0	1.861960E+0	1.890330E+0	1.619460E+0	1.563100E+0	1.712480E+0	1.603870E+0	1.821830E+0	1.596330E+0	1.676050E+0	1.641160E+0	1.737430E+0	1.600280E+0	1.611600E+0	1.452800E+0	1.849440E+0	1.711250E+0	1.711250E+0	1.759100E+0	1.836250E+0	1.495000E+0	1.585980E+0	1.564890E+0	1.941030E+0	1.642770E+0	1.584690E+0	1.695790E+0	1.691140E+0	1.562970E+0	1.541650E+0	1.565340E+0	1.738680E+0	1.756520E+0	1.669320E+0	1.767290E+0	1.466120E+0	1.495330E+0	1.491150E+0	1.536640E+0	1.697560E+0	1.461650E+0	1.605420E+0	1.668470E+0	1.828350E+0	1.479850E+0	1.704830E+0	1.672400E+0	1.666980E+0	1.649370E+0	1.691390E+0	1.796520E+0	1.801290E+0	1.497120E+0	1.532210E+0	1.540990E+0	1.917920E+0
