Photon Energy (eV)	#1	#2	#3	#4	#5	#6	#7	#8	#9	#10	#11	#12	#13	#14	#15	#16	#17	#18	#19	#20	#21	#22	#23	#24	#25	#26	#27	#28	#29	#30	#31	#32	#33	#34	#35	#36	#37	#38	#39	#40	#41	#42	#43	#44	#45	#46	#47	#48	#49	#50	#51	#52	#53	#54	#55	#56	#57	#58	#59	#60	#61	#62	#63	#64	#65	#66	#67	#68	#69	#70	#71	#72	#73	#74	#75	#76	#77	#78	#79	#80	#81	#82	#83	#84	#85	#86	#87	#88	#89	#90	#91	#92	#93	#94	#95	#96	#97	#98	#99	#100	#101	#102	#103	#104	#105	#106	#107	#108	#109	#110	#111	#112	#113	#114	#115	#116	#117	#118	#119	#120	#121	#122	#123	#124	#125	#126	#127	#128	#129	#130	#131	#132	#133	#134	#135	#136	#137	#138	#139	#140	#141	#142	#143	#144	#145	#146	#147	#148	#149	#150	#151	#152	#153	#154	#155	#156	#157	#158	#159	#160	#161	#162	#163	#164	#165	#166	
5.300160E+2	-1.295540E-2	-5.488081E-3	-1.095493E-2	-1.009459E-2	5.383228E-3	5.454158E-3	-2.473708E-3	-8.024956E-3	3.893551E-3	-1.251667E-2	8.961620E-4	-5.059158E-4	-4.263233E-3	-1.059021E-2	6.261309E-3	-7.970596E-3	-1.445110E-2	-6.109557E-3	1.774659E-3	-4.135778E-3	-4.044989E-3	-4.055737E-3	-1.311618E-2	-1.355337E-2	-5.876851E-4	-8.132512E-3	-1.004641E-2	-1.705479E-2	-9.457821E-3	-4.703757E-3	-5.556312E-3	-9.487901E-3	-1.249307E-2	-1.433893E-2	-3.855109E-4	-7.114402E-3	-1.000706E-2	-1.531857E-2	-1.649245E-3	-9.398983E-3	-1.233405E-2	-6.230780E-3	-6.029933E-4	-1.274022E-2	1.437774E-3	-1.037863E-2	3.556084E-3	-1.145470E-2	-3.404895E-3	-1.645185E-2	-1.308000E-3	-3.151951E-3	-8.503777E-3	-3.370408E-3	-6.234104E-3	-1.146243E-2	-7.629304E-3	-9.570402E-3	-1.217489E-3	-1.799167E-2	-7.305089E-3	-1.079073E-2	-9.731355E-4	-6.467344E-3	-3.240861E-3	1.617277E-2	-8.461392E-3	1.277501E-3	-1.500122E-3	-1.893101E-2	-7.661956E-3	-1.147249E-2	-1.453067E-2	-8.145341E-3	-2.501876E-3	-1.253621E-2	-6.732604E-3	-1.015220E-2	-9.206543E-3	5.444431E-3	-6.808386E-3	-1.290739E-2	-9.928868E-3	-1.429293E-2	-1.202791E-2	-6.867341E-3	-1.564493E-2	-8.207115E-4	-6.239129E-3	-7.888322E-4	-4.225703E-3	-2.537743E-3	-5.470211E-4	3.709472E-3	-2.951106E-3	-6.275134E-3	-4.456006E-3	-1.305918E-2	-4.975425E-3	-2.550592E-3	-1.247099E-2	-1.953507E-3	-3.306260E-3	3.517818E-3	-1.012900E-2	-8.854144E-3	-2.675178E-3	-1.167673E-3	-6.503592E-3	-1.253592E-2	-5.311535E-3	-2.643898E-3	-2.012114E-2	-1.067444E-3	-1.141475E-2	3.733728E-3	-6.182009E-3	-7.944824E-3	-6.823296E-3	-7.920039E-3	9.979217E-3	-2.741219E-4	-1.305021E-2	-1.344884E-2	-1.081351E-2	-4.226643E-3	-5.873414E-3	-4.191162E-3	-1.856929E-3	-1.626146E-3	-1.684850E-2	-1.552750E-2	-7.348111E-3	-1.022637E-2	-1.108461E-2	-6.321223E-3	-8.995827E-3	-9.401819E-3	-1.239894E-2	-4.583009E-3	-2.799018E-3	-6.843573E-3	-6.723733E-3	-4.908899E-3	-1.032777E-2	-4.951249E-3	-8.470524E-3	-5.780518E-3	-2.313029E-3	-2.587591E-3	-9.039730E-3	-1.444728E-2	-6.487891E-3	-9.576296E-3	-8.866666E-3	-8.344842E-3	2.868355E-3	-6.315305E-3	-1.010638E-2	-1.381118E-2	-6.912043E-3	-1.037771E-2	-8.171574E-3	-3.238641E-3	-2.228295E-2	-1.283335E-2
5.305130E+2	-2.775479E-3	-1.072411E-3	-8.440983E-3	-1.692313E-3	-1.093811E-2	7.273382E-3	-1.164464E-2	-9.554199E-3	3.462972E-4	-4.862824E-3	-4.164316E-3	-1.124180E-4	-7.892045E-3	-1.257151E-2	-1.869934E-2	-3.697347E-4	-9.693992E-3	-1.361640E-3	-2.648205E-3	3.412294E-3	-1.084923E-2	6.498676E-4	-2.206956E-3	2.503520E-3	6.758737E-4	2.070759E-3	9.897018E-3	-8.622702E-4	-6.272843E-4	-1.006400E-3	-1.034755E-2	-7.468872E-3	-4.933030E-3	4.947684E-4	-2.782161E-3	-1.048736E-4	-3.768995E-3	-1.093669E-2	-5.116074E-3	-7.824265E-3	1.577924E-3	2.742843E-3	-6.185253E-3	-6.691907E-3	-3.947747E-3	-5.253995E-4	-2.628079E-3	-4.234295E-3	-5.012910E-3	2.206641E-3	-2.990463E-3	-6.110875E-3	-3.891910E-3	-7.160342E-4	-7.746689E-3	-1.200930E-2	-5.428309E-3	-1.622915E-2	-1.152924E-2	3.212350E-3	-1.375855E-2	3.342033E-3	-4.236517E-3	-2.936398E-3	-2.700473E-3	-8.266238E-3	4.630428E-4	-1.497430E-2	-5.341606E-3	-1.856309E-3	2.528431E-4	-1.537687E-3	3.764860E-3	-6.678152E-3	-5.002233E-3	8.405788E-4	-4.543949E-3	8.955630E-4	-2.604411E-3	-1.990372E-3	-5.030121E-3	-7.134480E-3	-1.575663E-3	-2.398395E-3	-5.467663E-3	-5.610571E-3	-3.902356E-3	-2.422069E-3	7.322909E-3	-8.101783E-3	7.185102E-3	3.551553E-3	4.687724E-4	-4.195209E-3	-1.604909E-3	-1.062599E-2	4.128917E-3	1.594058E-4	-8.688564E-3	-1.251091E-2	-4.296239E-3	1.980698E-3	-5.867935E-4	6.407172E-3	1.247584E-2	-3.724710E-3	-9.763555E-3	-5.793725E-3	-4.164839E-3	3.351595E-3	-7.318278E-3	8.988441E-3	-7.154134E-3	-1.018756E-2	-6.186170E-3	-4.372171E-3	-5.095719E-3	-9.475592E-3	-6.468595E-3	-1.365232E-3	-7.528989E-3	-2.816503E-3	-3.089398E-3	-2.713284E-3	-2.648084E-3	-7.012842E-3	-6.835799E-3	-7.104419E-3	-4.976276E-3	-4.133607E-3	5.153702E-4	-1.160190E-2	-3.748576E-3	-7.789874E-3	-2.849670E-3	-4.004396E-3	-4.104234E-3	-4.366316E-3	-1.795000E-3	-1.061716E-2	-1.166770E-3	-3.595160E-3	-5.916506E-3	-1.459972E-2	-1.876278E-3	-9.523985E-3	-3.124775E-3	-1.165348E-2	-7.264454E-3	-9.710915E-4	-9.235174E-3	-2.971882E-3	-2.519909E-3	-1.277000E-2	-3.436048E-3	-6.111785E-3	-5.424070E-3	-5.281183E-3	1.976326E-3	-4.662237E-3	-9.997884E-3	-1.440520E-3	-3.122500E-3	-1.194675E-2	6.482542E-3	-5.871973E-3
5.310150E+2	3.588032E-5	-4.834131E-3	-7.576203E-3	-1.583513E-2	3.530348E-3	-1.503722E-3	-1.209875E-3	-4.965698E-3	-5.935417E-3	-1.248318E-2	2.663671E-3	-6.309486E-3	-4.426463E-3	-5.125630E-3	-1.841826E-3	-2.928650E-4	3.201610E-3	-6.260905E-3	-4.623566E-3	-5.021829E-3	-1.740493E-3	-7.065601E-3	-3.310382E-3	-6.468323E-3	-9.225036E-3	5.613893E-3	-4.585520E-3	-4.175107E-3	-2.817488E-3	-6.029877E-3	-4.431435E-3	-2.332400E-3	1.045578E-2	-3.498315E-3	-5.454899E-3	-5.946720E-3	2.780038E-3	-7.038426E-3	-6.981164E-3	-8.360021E-3	6.557165E-5	-1.773684E-3	-4.241258E-3	-5.330381E-3	1.044216E-3	-4.614684E-3	-2.558781E-3	-7.592655E-4	-2.210058E-3	-1.317954E-2	-4.357349E-3	3.911147E-3	-5.843883E-3	-3.635972E-3	4.182668E-3	-3.189700E-3	-4.558771E-3	-3.388639E-3	-6.554148E-3	-9.101647E-4	-1.825081E-3	-6.854319E-3	4.796024E-4	-4.499101E-3	-4.586496E-3	-8.853576E-3	-8.266531E-4	8.929277E-4	-4.031167E-3	3.321206E-3	-5.217216E-3	-1.258530E-2	-1.191196E-2	1.610340E-3	-4.176604E-3	-6.827234E-3	1.849898E-3	3.494456E-4	-9.224783E-3	-4.083276E-3	9.940591E-4	3.973179E-3	2.534635E-3	-9.987834E-3	-2.227484E-3	-7.673636E-3	3.199335E-3	-6.967868E-3	3.486796E-3	-1.233805E-4	-9.817191E-3	-3.938507E-3	-4.083595E-3	-2.838771E-3	-8.341847E-3	-7.929169E-3	-1.115345E-2	-3.558316E-4	7.482034E-3	-7.598118E-3	7.024839E-3	1.508411E-3	-4.144545E-3	-6.554550E-3	-6.779908E-3	5.519182E-3	-6.935160E-3	-3.490490E-3	-5.315487E-3	-2.725672E-3	5.524710E-5	-5.298852E-3	1.071990E-3	1.482267E-3	5.288680E-3	-1.210426E-2	-8.789210E-3	-5.702236E-3	-7.005115E-3	-1.342080E-2	-2.373197E-3	4.048967E-3	-1.085159E-2	-8.442888E-3	-4.460261E-3	-2.086061E-3	-1.808758E-4	2.571983E-3	-7.685937E-3	-3.311210E-3	-6.911248E-3	4.761090E-3	-4.933038E-3	-3.710171E-3	-1.388903E-2	-1.965810E-3	-4.021666E-3	-5.023892E-3	1.167729E-3	-1.259075E-3	-3.659866E-3	-5.896765E-3	-4.637917E-3	-7.591702E-3	-8.946263E-3	-3.050685E-3	-3.727198E-3	-5.789313E-3	-1.107609E-2	-8.714322E-4	-6.629033E-4	2.130687E-3	-1.072415E-2	-8.776999E-3	-1.240779E-2	-4.480253E-3	1.130586E-3	-3.242138E-3	-6.736061E-3	-1.235805E-2	4.766454E-3	-1.117867E-2	4.555489E-3	5.007710E-3	-1.253728E-2	-5.788784E-3
5.315130E+2	-1.236574E-3	-1.013527E-2	-2.601844E-3	4.285175E-3	-6.264952E-3	-1.434088E-3	-1.131034E-3	1.162514E-3	4.965538E-4	-4.734835E-3	-3.352018E-3	-5.541704E-3	3.843359E-3	7.983725E-5	9.647351E-4	-5.790755E-3	5.702076E-3	-4.946350E-3	-1.822342E-3	-4.284917E-3	2.229219E-3	4.154602E-3	3.465522E-3	-6.378727E-3	-4.560195E-3	-4.722149E-3	-6.591319E-3	4.706493E-3	-2.167829E-3	-1.053324E-2	6.743991E-3	1.703778E-3	-1.248402E-2	3.359457E-3	-6.712197E-3	7.919153E-3	-2.463347E-3	5.228594E-3	-3.775977E-3	1.167263E-3	1.573504E-4	-9.311086E-3	3.731644E-3	-1.091872E-3	1.771683E-3	-6.899601E-3	-1.333391E-2	-7.776132E-5	-5.573049E-3	-3.042661E-3	-1.126945E-2	-6.767174E-4	-2.337678E-3	1.292611E-3	-5.713584E-3	4.555527E-3	-4.484441E-3	4.588999E-3	1.147643E-2	-1.135327E-2	-4.385381E-4	-2.701039E-3	-5.770356E-3	-6.722730E-3	4.828787E-3	3.895354E-3	3.469226E-3	4.404735E-3	5.675196E-3	-7.366073E-3	-1.134135E-2	4.570524E-3	7.299937E-3	-7.284826E-3	2.439725E-4	1.540068E-3	-5.172041E-4	3.083673E-3	2.619243E-3	-2.279017E-3	-3.470480E-3	5.729559E-3	-9.263675E-3	1.243756E-3	4.625010E-3	-3.533266E-4	1.393395E-3	-2.399989E-3	5.211179E-3	8.657148E-3	-9.062459E-3	-9.796289E-3	4.792217E-3	-8.735293E-4	-6.540813E-3	-4.860884E-3	1.201325E-3	3.790076E-3	-4.267531E-3	8.957423E-3	-1.816806E-3	-3.841958E-3	-4.674502E-3	-4.100694E-3	3.537965E-3	-1.233269E-3	4.005576E-3	-2.130993E-3	1.156479E-3	-3.865871E-3	-4.320137E-3	-4.532048E-3	5.112653E-3	-7.255900E-3	-3.267320E-3	-9.698670E-4	2.719436E-3	-6.835241E-4	6.403230E-3	3.838681E-3	-1.424599E-3	-6.405677E-3	3.558245E-3	1.637234E-3	2.691333E-3	1.649305E-3	4.533981E-3	2.566847E-3	-1.783614E-3	-3.187930E-3	-2.273850E-3	-5.077835E-3	-4.014990E-3	-4.925105E-3	-6.826696E-3	-7.848280E-3	-2.988394E-3	-9.385929E-3	5.716776E-4	1.581434E-3	-8.121081E-3	-5.795506E-3	6.031413E-3	8.294296E-3	6.945277E-3	-2.234042E-3	-2.945957E-3	5.908852E-3	6.631971E-3	-2.109998E-3	-1.218986E-3	6.572964E-5	-1.729599E-2	6.238061E-3	-4.657716E-3	1.820368E-3	-1.241991E-2	7.684990E-4	1.614957E-3	3.289787E-3	-3.953751E-3	-5.014520E-4	-3.792877E-3	-1.052342E-2	1.261603E-2	9.829626E-3
5.320070E+2	2.288597E-3	8.367546E-3	4.019519E-3	6.856855E-3	-1.154518E-4	-3.582282E-3	-1.800983E-3	1.110028E-2	-8.978845E-3	1.494187E-2	3.504948E-3	-3.377227E-3	-2.912510E-3	8.147069E-3	-2.745827E-3	2.662271E-3	4.180321E-3	2.596627E-3	-4.483264E-3	-5.521657E-3	-6.110384E-3	-5.246622E-3	5.988553E-3	4.617988E-3	-9.089184E-3	-1.091145E-2	5.309161E-3	1.405755E-3	-3.222135E-3	6.178819E-3	-1.666519E-3	-3.290752E-3	-1.525317E-3	8.196199E-3	4.160095E-3	-9.090745E-3	-1.775731E-3	-1.664064E-3	2.020132E-3	7.682199E-4	8.936710E-3	-2.356032E-3	-6.969623E-4	2.539610E-3	-2.466154E-3	4.015461E-3	3.365129E-3	-2.226613E-3	9.676664E-3	7.846005E-3	-5.606189E-3	-6.558561E-3	-1.462505E-3	-3.979430E-3	-3.680047E-3	4.661855E-3	7.254417E-3	-9.502253E-4	3.745919E-3	4.913935E-3	-3.029635E-4	-2.034568E-3	-6.275587E-3	2.094136E-3	2.310540E-4	-3.667617E-3	-3.473812E-3	-7.854157E-3	3.716321E-4	1.583113E-3	-6.986802E-4	-1.825750E-3	9.942378E-4	6.233910E-3	-8.364895E-3	-5.298952E-3	-3.558469E-3	1.169666E-3	1.015193E-2	8.360435E-5	-3.398326E-3	-1.096247E-2	8.065417E-4	-8.328097E-4	9.017010E-3	5.515476E-3	8.731988E-4	5.370495E-3	-4.486441E-3	-4.725759E-3	5.425309E-3	2.158924E-3	-8.674365E-3	4.552051E-4	-2.450902E-3	-4.777869E-3	1.269628E-3	-2.855335E-3	-7.665594E-3	-2.823060E-3	5.131604E-3	-7.461806E-4	6.611019E-3	-3.428159E-3	-2.696136E-3	6.466597E-3	-5.423016E-3	-3.486345E-3	1.205963E-2	1.813590E-3	-7.041932E-3	3.211264E-3	3.012487E-3	-3.773768E-3	3.514978E-3	-2.280327E-3	1.482070E-3	-3.045879E-3	-5.467844E-3	6.999827E-3	-3.461864E-3	-2.565604E-3	5.070983E-3	-8.444924E-6	-4.212947E-3	5.371849E-4	-8.524073E-3	-5.561460E-3	-1.218166E-2	4.221366E-3	6.138032E-3	6.436407E-3	1.387102E-3	9.879035E-3	6.539297E-3	6.988734E-3	-8.624521E-3	9.282617E-3	-2.921907E-3	-5.631032E-4	-7.949707E-4	2.788219E-3	8.673242E-4	-5.687141E-3	-6.056480E-4	3.597383E-3	4.798961E-3	2.916386E-3	-6.770860E-3	1.376256E-3	-4.305095E-4	8.313658E-3	1.044623E-2	2.402197E-3	9.429393E-3	-1.320703E-3	1.215007E-2	-1.744743E-3	7.040855E-3	1.260063E-2	2.768995E-3	9.450510E-3	-4.554684E-3	5.179144E-3	6.824028E-3	-4.328425E-4
5.325070E+2	-1.784629E-3	8.463094E-3	3.278297E-3	5.262656E-3	-7.971607E-4	-1.286433E-3	-9.765048E-4	5.865162E-3	1.455998E-3	4.518153E-3	4.269778E-3	6.480526E-3	8.811202E-3	5.976300E-3	1.705337E-3	2.191191E-3	1.857919E-3	-1.687244E-3	6.542972E-3	3.115007E-3	6.308916E-3	5.455351E-3	-6.502001E-4	5.330446E-3	6.350352E-3	-3.871382E-3	-7.838880E-3	1.236317E-2	3.117728E-3	1.547562E-2	6.272333E-3	6.985166E-3	3.695710E-3	1.300731E-4	4.907927E-3	2.180429E-3	7.266853E-3	1.128825E-2	7.094887E-3	-2.705985E-3	2.777302E-3	7.674500E-3	7.000953E-4	1.374440E-2	-3.023656E-3	5.911016E-3	1.922299E-5	7.594631E-3	1.506950E-3	7.958452E-3	1.484099E-2	1.572124E-3	-5.831418E-5	5.770318E-3	3.274861E-3	1.859754E-3	4.239973E-3	1.492713E-2	-7.650169E-3	5.728668E-3	2.958417E-3	3.304628E-3	2.483435E-3	8.016316E-3	9.985967E-4	-3.579633E-3	8.336244E-4	1.215848E-2	4.998764E-4	4.864382E-3	8.150445E-3	1.222299E-3	-7.723533E-3	1.074836E-3	1.200982E-2	4.484781E-3	5.398561E-3	-4.039432E-3	9.038709E-3	-3.792020E-3	2.574466E-3	8.468515E-3	2.955392E-3	7.473248E-3	3.592442E-3	1.215947E-2	-1.535022E-3	3.557111E-3	-1.009609E-2	3.283202E-3	-4.799857E-3	5.224335E-3	2.263364E-3	-1.957714E-3	1.144826E-2	9.669377E-3	-3.923173E-3	-2.752037E-3	1.593145E-3	1.242536E-3	-3.051118E-3	-4.905198E-3	-7.604829E-4	-3.926844E-3	5.547042E-4	-2.591191E-3	8.963836E-3	1.296470E-2	6.911742E-4	5.461084E-5	1.161313E-2	-2.169681E-4	1.931425E-4	9.312351E-3	9.275873E-4	5.488086E-3	8.870580E-3	7.505832E-3	4.614177E-3	7.109220E-3	3.071864E-3	-9.667230E-4	5.886415E-3	1.245707E-2	3.565615E-3	3.754733E-5	6.067894E-3	1.852178E-3	1.062168E-2	6.687347E-4	8.501871E-3	1.499342E-2	-1.752571E-3	2.629547E-3	4.540855E-3	-2.553993E-3	1.223181E-2	6.408886E-3	-4.995322E-3	2.632094E-3	5.915571E-3	2.308631E-3	-3.131279E-3	5.763811E-3	4.074197E-3	1.445757E-2	6.335344E-3	4.448646E-3	2.075742E-3	-7.941571E-3	1.673272E-3	-3.147727E-3	2.322942E-3	6.449356E-3	7.456419E-3	5.838284E-3	-6.450317E-3	3.211639E-4	-8.216696E-3	7.380997E-3	9.338041E-4	8.861041E-3	1.523003E-3	5.397443E-3	-1.507614E-2	1.269097E-2
5.330180E+2	1.642760E-2	4.699250E-3	2.227615E-2	1.121734E-2	9.202099E-3	-4.921016E-3	1.923675E-2	4.416900E-3	8.721862E-3	1.513748E-2	-3.818225E-3	9.366225E-3	6.839691E-3	1.408414E-2	1.435561E-2	9.570489E-3	9.203168E-3	1.776907E-2	5.259746E-3	1.243688E-2	1.420696E-2	6.108139E-3	9.829644E-3	1.394847E-2	1.643587E-2	1.995284E-2	1.385595E-2	3.616747E-3	1.517483E-2	6.188403E-4	8.985489E-3	1.389098E-2	1.728394E-2	5.656744E-3	6.266746E-3	1.215716E-2	7.968247E-3	1.844091E-2	8.407442E-3	2.635377E-2	-1.180803E-3	9.254241E-3	7.294726E-3	9.570373E-3	5.183883E-3	1.249184E-2	1.158033E-2	1.115800E-2	5.017297E-3	1.466296E-2	1.069047E-2	1.101483E-2	2.209807E-2	4.638916E-3	1.591689E-2	1.558429E-2	1.060644E-2	1.062229E-2	1.172870E-2	1.640015E-2	2.067181E-2	1.573400E-2	1.429256E-2	1.051512E-2	4.469392E-3	4.298938E-3	7.995964E-3	4.094805E-3	4.326191E-3	1.838469E-2	1.651592E-2	2.162841E-2	2.210714E-2	1.318923E-2	7.791816E-3	1.779696E-2	8.103767E-3	8.693287E-3	-7.741435E-4	6.616649E-3	1.513879E-2	1.283308E-2	1.447164E-2	1.879496E-2	2.488597E-3	2.829925E-3	1.561638E-2	3.683032E-3	4.800780E-3	1.799405E-3	1.529480E-2	5.337727E-3	5.780628E-3	5.700546E-3	1.044132E-2	2.479967E-2	1.293276E-2	1.507290E-2	1.652194E-2	1.528272E-2	9.478712E-3	7.957735E-3	6.861564E-3	8.085258E-3	3.036533E-3	4.417535E-3	1.182750E-2	3.104522E-3	2.076639E-3	1.390767E-2	1.232350E-2	4.920620E-4	1.788500E-2	1.149005E-2	1.113699E-2	1.050481E-2	6.994852E-3	1.934622E-2	1.474744E-2	4.758341E-3	1.737567E-3	8.979663E-3	1.247555E-2	1.051916E-2	1.587785E-2	1.110151E-2	1.081229E-2	9.866032E-3	1.786273E-2	7.368792E-3	1.087832E-2	6.016322E-3	2.041018E-2	1.414294E-2	2.356986E-2	1.570497E-2	1.650283E-2	1.248645E-2	2.037176E-2	1.280882E-2	1.062613E-2	1.703416E-2	1.351070E-2	1.872936E-2	1.073649E-2	1.705006E-3	7.134148E-3	9.949430E-3	1.871672E-2	1.310543E-2	1.891403E-2	1.005681E-2	2.425877E-2	1.603368E-2	1.248241E-2	1.259893E-2	8.145286E-3	1.549371E-2	1.442700E-2	7.560061E-3	1.239443E-2	5.186802E-3	1.356314E-2	1.012451E-2	2.397376E-2	2.406354E-3
5.331630E+2	8.273288E-3	1.636648E-2	1.330556E-2	1.717413E-2	2.239367E-2	1.595225E-2	1.485687E-2	8.295687E-3	2.509735E-3	1.030371E-2	1.056545E-2	1.435638E-2	2.073322E-2	1.075750E-2	1.501179E-2	1.078374E-2	-6.063697E-3	1.098543E-2	2.799558E-2	1.307496E-3	2.017924E-2	2.359508E-2	2.340664E-2	1.162324E-2	8.051768E-3	1.095906E-2	7.659174E-3	2.005098E-2	1.356829E-2	1.973137E-2	4.471859E-3	5.477614E-3	1.544866E-2	2.319488E-3	1.778161E-2	1.555417E-2	1.225453E-2	-1.090787E-4	1.479453E-2	1.515829E-2	1.959323E-3	2.298451E-2	1.462761E-2	1.033577E-2	1.599276E-2	1.258652E-2	1.101315E-2	4.358119E-3	3.629934E-3	3.297243E-3	1.428532E-2	1.649690E-2	7.659047E-3	9.676965E-3	9.814502E-3	9.213033E-3	5.888102E-3	1.359040E-2	1.540437E-2	7.902544E-3	1.379273E-2	1.933336E-2	1.841912E-2	6.517945E-3	1.070811E-2	1.218249E-2	9.534980E-3	8.428951E-3	-4.017271E-3	1.790280E-2	7.264060E-3	1.647407E-2	5.463364E-3	2.534615E-2	4.283627E-3	1.515989E-2	2.600009E-2	1.615143E-2	1.881892E-2	5.047854E-3	4.787666E-3	4.636264E-3	6.588787E-3	2.266599E-2	1.756969E-2	1.394021E-2	2.153104E-2	1.093758E-2	8.332326E-3	1.224298E-2	1.887666E-2	1.662159E-2	1.755058E-2	2.095773E-2	1.231582E-2	1.537028E-2	1.840412E-2	2.353109E-3	3.981692E-3	1.477255E-2	1.245048E-2	2.208979E-2	1.827779E-2	1.656683E-3	6.317254E-3	2.309399E-2	1.196063E-2	2.106996E-2	2.717505E-2	2.092848E-2	1.189769E-2	3.569364E-3	1.435333E-2	2.672507E-2	1.530633E-2	1.522184E-3	6.438670E-3	2.629002E-2	1.822636E-2	2.774996E-2	5.435777E-3	1.440207E-2	1.258979E-2	9.946331E-3	1.793048E-2	4.523885E-3	1.292163E-2	3.653990E-2	1.014945E-2	-5.971952E-4	1.477646E-2	1.330085E-2	2.184502E-2	-5.145889E-4	1.457337E-2	2.190679E-2	1.494305E-2	2.605817E-2	1.254634E-2	3.529695E-3	1.271330E-2	4.985005E-3	1.069182E-2	1.404568E-2	2.106271E-2	8.256652E-3	1.211602E-2	6.684893E-3	1.090007E-2	1.051772E-2	1.772470E-2	1.541825E-2	8.257950E-4	1.376704E-2	8.373092E-3	1.795679E-2	5.351387E-3	2.349018E-2	1.574857E-2	1.427242E-2	2.071321E-2	1.367789E-2	2.591494E-3	1.129576E-2	3.137312E-3	7.713958E-3
5.333130E+2	1.950852E-2	5.653679E-3	2.248319E-2	1.895961E-2	7.952122E-3	2.052924E-2	1.796390E-2	2.137270E-2	2.587111E-2	1.533877E-2	1.818855E-2	1.236116E-2	1.534597E-2	2.178580E-2	9.669480E-3	1.539980E-2	1.183578E-2	1.862477E-2	8.189234E-3	1.992757E-2	2.230360E-2	1.642552E-2	2.107487E-2	1.114014E-2	1.359195E-2	1.878184E-2	1.546499E-2	4.202767E-2	2.799884E-2	1.177501E-2	1.970521E-2	8.429039E-3	1.816189E-2	2.155477E-2	3.070458E-2	2.559758E-2	1.903755E-2	1.874246E-2	1.869851E-2	2.182144E-2	9.162918E-3	1.849498E-2	2.931567E-2	2.510031E-2	2.624749E-2	1.271526E-2	1.802341E-2	1.929458E-2	2.723481E-2	1.689610E-2	1.647162E-2	2.203907E-2	1.610998E-2	1.900439E-2	9.964594E-3	2.588021E-2	1.382172E-2	1.877149E-2	7.602856E-3	1.222897E-2	1.392692E-2	2.124936E-2	2.150594E-2	1.429500E-2	2.704027E-2	1.796718E-2	3.655797E-2	2.520105E-2	1.548889E-2	2.061525E-2	1.428953E-2	1.964405E-2	3.069135E-2	9.645832E-3	1.970252E-2	2.086675E-2	2.679785E-2	2.963505E-2	2.273422E-2	1.264295E-2	3.646781E-2	2.516705E-2	1.342660E-2	2.280246E-2	1.027568E-2	2.656580E-2	1.791554E-2	1.888612E-2	4.328689E-3	1.395512E-2	1.347031E-2	1.600960E-2	8.838908E-3	1.984299E-2	1.303491E-2	5.887595E-3	2.034085E-2	2.369758E-2	1.899877E-2	3.294354E-2	3.180340E-2	2.411805E-2	7.740562E-3	1.492441E-2	1.119086E-2	1.177539E-2	1.141870E-2	1.762199E-2	2.926191E-2	1.920451E-2	2.223814E-2	1.558288E-2	1.007686E-2	2.205759E-2	2.151244E-2	1.917634E-2	7.876300E-3	1.469648E-2	-1.730836E-3	1.984593E-2	3.220157E-2	2.061531E-2	2.282445E-2	2.113915E-2	3.742017E-2	5.264858E-3	9.079678E-3	2.231518E-3	2.170495E-2	1.641949E-2	5.367992E-2	1.734924E-2	9.606760E-3	1.844456E-2	1.188269E-2	1.720685E-2	2.341600E-2	6.735067E-3	8.328720E-3	1.038224E-2	2.207682E-2	1.489221E-2	9.046241E-3	2.225358E-2	1.022589E-2	1.556381E-2	1.223444E-2	2.573874E-2	7.049247E-3	1.607611E-2	2.779184E-2	8.963193E-3	2.199511E-2	2.340513E-2	2.399541E-2	3.386366E-2	1.127609E-2	2.363726E-2	6.356469E-3	1.380538E-2	1.710227E-2	1.991461E-2	1.977766E-2	2.212071E-2	1.974813E-2	3.136200E-2
5.334630E+2	1.405063E-2	4.984576E-3	1.102663E-2	3.003419E-2	2.265080E-2	1.841258E-2	1.209564E-2	1.306980E-2	1.716793E-2	1.474511E-2	1.626410E-2	1.318231E-2	3.273631E-2	1.676810E-2	2.134079E-2	2.230550E-2	2.899097E-2	2.189456E-2	2.208303E-2	1.476504E-2	3.488232E-2	1.711825E-2	1.628049E-2	1.127571E-2	1.370944E-2	2.734149E-2	1.559533E-2	2.579427E-2	2.759248E-2	2.233665E-2	2.314655E-2	2.794801E-2	2.283236E-2	1.279363E-2	1.197447E-2	1.712369E-2	1.078170E-2	1.166385E-2	3.022241E-2	1.959242E-2	1.557270E-2	9.397688E-3	2.350677E-2	2.873962E-2	1.183741E-2	2.971387E-2	2.683144E-2	1.257307E-2	1.910245E-2	2.584155E-2	1.312041E-2	1.269569E-2	1.840825E-2	1.961464E-2	2.465225E-2	1.777376E-2	1.471401E-2	1.313480E-2	2.505434E-2	9.532863E-3	1.981145E-2	1.728949E-2	2.336344E-2	2.376550E-2	1.710527E-2	1.671906E-2	1.969700E-2	1.146231E-2	3.708383E-2	2.009536E-2	2.702187E-2	1.259040E-2	2.606027E-2	2.333345E-2	2.566855E-2	3.356549E-2	1.169446E-2	2.174873E-2	2.286798E-2	9.334390E-3	2.015821E-2	1.339092E-2	8.844364E-3	1.841939E-2	2.041567E-2	3.473555E-2	1.546419E-2	1.831335E-2	3.605712E-3	2.923806E-2	2.260450E-2	1.911836E-2	1.173281E-2	2.757569E-2	2.070607E-2	1.626401E-2	2.039240E-2	1.639353E-2	9.185228E-3	1.178927E-2	3.583872E-2	1.815978E-2	2.169889E-2	2.465079E-2	2.084501E-2	2.810060E-2	2.937223E-2	1.487169E-2	2.298371E-2	1.495423E-2	2.750845E-2	1.751652E-2	2.567158E-2	2.357567E-2	3.316998E-2	1.087567E-2	1.600812E-2	2.165182E-2	2.253768E-2	2.371266E-2	1.501339E-2	3.980392E-2	3.309640E-2	1.435091E-2	2.207844E-2	1.702264E-2	2.316661E-2	1.313671E-2	2.471506E-2	8.447020E-3	1.957763E-2	1.683217E-2	2.669674E-2	1.589016E-2	2.891447E-2	2.710089E-2	2.522048E-2	2.559876E-2	4.819338E-3	1.186718E-2	2.222854E-2	2.606631E-2	2.284982E-2	2.403323E-2	2.059563E-2	2.001662E-2	3.332761E-2	1.368692E-2	2.047792E-2	2.616880E-3	2.994386E-2	2.094876E-2	2.803611E-2	2.672074E-2	1.283673E-2	3.025398E-2	1.285059E-2	3.630621E-2	2.081288E-2	3.623385E-2	2.322778E-2	3.307013E-2	1.734428E-2	1.261332E-2	7.866919E-3	3.938449E-2
5.336130E+2	2.246193E-2	2.533695E-2	4.268512E-2	3.022668E-2	3.055528E-2	2.607905E-2	2.730467E-2	3.624167E-2	2.138845E-2	2.482782E-2	2.948735E-2	1.264582E-2	1.842684E-2	1.063660E-2	1.220630E-2	2.194717E-2	1.702400E-2	3.092038E-2	3.126963E-2	1.761717E-2	1.808359E-2	2.805328E-2	1.646396E-2	3.171626E-2	2.398357E-2	2.404032E-2	3.548043E-2	2.464510E-2	3.070033E-2	2.430682E-2	2.402546E-2	3.276774E-2	2.046083E-2	3.495147E-2	2.911365E-2	2.531321E-2	2.184606E-2	2.937689E-2	3.744958E-2	2.826731E-2	1.743817E-2	1.663693E-2	3.446716E-2	2.970185E-2	2.731119E-2	3.187054E-2	1.618426E-2	1.800192E-2	1.386012E-2	3.565443E-2	2.252716E-2	2.312105E-2	2.140498E-2	3.390394E-2	3.174065E-2	2.868214E-2	2.446587E-2	2.349971E-2	7.243990E-3	1.195917E-2	2.455486E-2	2.576339E-2	3.176491E-2	1.986424E-2	1.927917E-2	2.898334E-2	1.560519E-2	2.609747E-2	2.269744E-2	3.633167E-2	1.703019E-2	3.004022E-2	2.060434E-2	2.802745E-2	1.707516E-2	2.817387E-2	1.634663E-2	2.594282E-2	3.426378E-2	1.525999E-2	2.764557E-2	1.423517E-2	2.447337E-2	2.685018E-2	2.765732E-2	1.280875E-2	3.148131E-2	2.301812E-2	3.039915E-2	1.821247E-2	3.389326E-2	3.051916E-2	2.779234E-2	2.712515E-2	1.739964E-2	3.276558E-2	2.662160E-2	1.861445E-2	3.489735E-2	3.134921E-2	2.596239E-2	2.078073E-2	2.819022E-2	3.385594E-2	3.461064E-2	2.816661E-2	1.168452E-2	2.291991E-2	1.478372E-2	3.214794E-2	2.886732E-2	3.741072E-2	1.626935E-2	2.791174E-2	3.066482E-2	2.655256E-2	1.417101E-2	2.496465E-2	2.542986E-2	2.889455E-2	3.686174E-2	1.635657E-2	2.531372E-2	3.327583E-2	3.068598E-2	2.213141E-2	2.536391E-2	2.926422E-2	3.639368E-2	2.855796E-2	3.654645E-2	2.227535E-2	3.607456E-2	2.283904E-2	3.264790E-2	1.267725E-2	2.625060E-2	3.482924E-2	2.099240E-2	2.557914E-2	3.700732E-2	2.752340E-2	2.009628E-2	2.912280E-2	3.694307E-2	2.454111E-2	3.354473E-2	1.521677E-2	2.601900E-2	1.912830E-2	2.751160E-2	2.642900E-2	1.131926E-2	2.850353E-2	3.424208E-2	2.593206E-2	3.054197E-2	2.003839E-2	3.300332E-2	3.165420E-2	2.040733E-2	1.409009E-2	2.009439E-2	4.395877E-2	2.460296E-2	2.124219E-2
5.337840E+2	3.813372E-2	3.049611E-2	5.876910E-2	4.152023E-2	2.983411E-2	3.530067E-2	2.009284E-2	3.122070E-2	3.083597E-2	2.846924E-2	3.116634E-2	3.558650E-2	2.678160E-2	3.018144E-2	3.006630E-2	4.662958E-2	4.580362E-2	3.497631E-2	3.845177E-2	3.719270E-2	3.274042E-2	3.459677E-2	3.883278E-2	2.647597E-2	4.434819E-2	3.069747E-2	3.575167E-2	4.140314E-2	3.433294E-2	3.214486E-2	2.758093E-2	3.476963E-2	3.960514E-2	5.042186E-2	3.431407E-2	2.498943E-2	2.950930E-2	4.130073E-2	4.939789E-2	3.087955E-2	3.128466E-2	2.699376E-2	3.218695E-2	4.280411E-2	4.943657E-2	2.192833E-2	4.151184E-2	2.446403E-2	3.020873E-2	3.670940E-2	3.851098E-2	3.098529E-2	2.731163E-2	3.170164E-2	3.203557E-2	4.307989E-2	1.682504E-2	4.067841E-2	3.373407E-2	1.361323E-2	2.745572E-2	3.362752E-2	4.073664E-2	3.116940E-2	3.492890E-2	3.397546E-2	4.496406E-2	4.976589E-2	3.806082E-2	3.587761E-2	3.851364E-2	2.710912E-2	4.841879E-2	3.654481E-2	3.191617E-2	2.697651E-2	3.637696E-2	3.619450E-2	3.748880E-2	2.987895E-2	3.908887E-2	3.381891E-2	2.921805E-2	3.754526E-2	2.841736E-2	3.722529E-2	3.989388E-2	3.751747E-2	5.638141E-2	3.684573E-2	3.898434E-2	3.223646E-2	2.296717E-2	3.050169E-2	3.040295E-2	2.329179E-2	2.985935E-2	2.016527E-2	2.708638E-2	3.088398E-2	3.230108E-2	2.772790E-2	2.270424E-2	3.227967E-2	4.615197E-2	3.825912E-2	3.804349E-2	2.884669E-2	3.115433E-2	2.163055E-2	3.080230E-2	1.731284E-2	3.347707E-2	5.445192E-2	4.108707E-2	2.534918E-2	4.389591E-2	3.079423E-2	2.902384E-2	3.223308E-2	5.450613E-2	4.105423E-2	3.568362E-2	4.115209E-2	3.674748E-2	2.912849E-2	3.493602E-2	3.008790E-2	4.311170E-2	3.619654E-2	3.830579E-2	4.816344E-2	3.304178E-2	1.695143E-2	4.278752E-2	3.185695E-2	4.578746E-2	2.524329E-2	3.214927E-2	4.275946E-2	4.190509E-2	3.831449E-2	2.091581E-2	3.477689E-2	3.127486E-2	2.790425E-2	4.709770E-2	2.970511E-2	1.286472E-2	4.556676E-2	5.370360E-2	3.260321E-2	2.334632E-2	2.962780E-2	4.225141E-2	3.596137E-2	3.149082E-2	3.482602E-2	3.085445E-2	3.614697E-2	3.040341E-2	2.353348E-2	3.147296E-2	4.637465E-2	5.202030E-2	6.624536E-2
5.339090E+2	3.676517E-2	4.158885E-2	4.892498E-2	3.935206E-2	4.524425E-2	4.763470E-2	5.654650E-2	5.237766E-2	3.131554E-2	4.365730E-2	3.200266E-2	2.933939E-2	3.760996E-2	3.441162E-2	3.298361E-2	4.453276E-2	3.577635E-2	5.050375E-2	3.030881E-2	4.072932E-2	2.808406E-2	4.445878E-2	3.713285E-2	2.859602E-2	3.461240E-2	4.009776E-2	3.467448E-2	4.169865E-2	4.412918E-2	4.707845E-2	4.174027E-2	4.307078E-2	4.344903E-2	3.981825E-2	2.426283E-2	2.729310E-2	3.722273E-2	4.084437E-2	4.450002E-2	3.037012E-2	2.854368E-2	3.880011E-2	5.984088E-2	6.138573E-2	3.725802E-2	4.566151E-2	2.476130E-2	2.291265E-2	3.608857E-2	3.208814E-2	4.162779E-2	3.522057E-2	3.457039E-2	3.115898E-2	3.078278E-2	3.024426E-2	5.489376E-2	3.575012E-2	3.167877E-2	4.303806E-2	3.208722E-2	4.260177E-2	4.383272E-2	3.414169E-2	4.185369E-2	3.762278E-2	3.656190E-2	3.808438E-2	3.025323E-2	3.085493E-2	4.814790E-2	2.963623E-2	5.494640E-2	3.819687E-2	3.205536E-2	4.186253E-2	4.340517E-2	4.037979E-2	3.068959E-2	2.713356E-2	4.056582E-2	3.978693E-2	4.416393E-2	3.294459E-2	3.225752E-2	4.695119E-2	4.257272E-2	4.681542E-2	3.491595E-2	4.021649E-2	3.146367E-2	3.313467E-2	3.825400E-2	4.147558E-2	3.054988E-2	4.529516E-2	3.226981E-2	4.298279E-2	3.427273E-2	3.506693E-2	5.011752E-2	4.574476E-2	3.108132E-2	4.390829E-2	5.273934E-2	2.215596E-2	5.132747E-2	4.052659E-2	3.713517E-2	5.214188E-2	3.381964E-2	4.503942E-2	4.029947E-2	3.309939E-2	4.806147E-2	3.398905E-2	3.799989E-2	4.594528E-2	3.863913E-2	4.928288E-2	3.799342E-2	4.581436E-2	5.331546E-2	5.666319E-2	3.690571E-2	4.656570E-2	3.442581E-2	2.397601E-2	2.741755E-2	5.120262E-2	5.915852E-2	3.978345E-2	3.780720E-2	5.445490E-2	3.372665E-2	3.202804E-2	5.016560E-2	3.520374E-2	4.034322E-2	2.459104E-2	2.876622E-2	3.111433E-2	3.364314E-2	2.898508E-2	3.300415E-2	3.388266E-2	3.391003E-2	3.941527E-2	4.451185E-2	2.928216E-2	3.387248E-2	4.604052E-2	4.386367E-2	3.857174E-2	4.029042E-2	2.853535E-2	4.557263E-2	4.434804E-2	3.644485E-2	4.543001E-2	4.110367E-2	4.943884E-2	4.279863E-2	5.194526E-2	4.008903E-2	2.707910E-2
5.340640E+2	4.206391E-2	6.680805E-2	6.573560E-2	5.449794E-2	4.812699E-2	6.528144E-2	6.281172E-2	5.978709E-2	5.042648E-2	6.964841E-2	6.532142E-2	6.500138E-2	7.109088E-2	4.622051E-2	5.144574E-2	5.952404E-2	5.373391E-2	4.367893E-2	6.314641E-2	4.758118E-2	4.616778E-2	6.527019E-2	4.596514E-2	4.977748E-2	5.982857E-2	6.096064E-2	4.755002E-2	6.121691E-2	5.440235E-2	5.424308E-2	4.456380E-2	4.266950E-2	6.085444E-2	5.056387E-2	5.042318E-2	5.567198E-2	5.490273E-2	4.430260E-2	6.529260E-2	7.219985E-2	4.124764E-2	6.410919E-2	4.867831E-2	5.109643E-2	5.104925E-2	4.307277E-2	5.015794E-2	5.385933E-2	6.581511E-2	5.622460E-2	5.252762E-2	5.390417E-2	5.349236E-2	4.375381E-2	6.594310E-2	5.202549E-2	5.490663E-2	4.486060E-2	5.158746E-2	4.970920E-2	8.769839E-2	6.760631E-2	5.520575E-2	6.268745E-2	4.606576E-2	7.782279E-2	4.888597E-2	5.496163E-2	6.165459E-2	5.495549E-2	6.355671E-2	5.504816E-2	5.508108E-2	5.358785E-2	4.472853E-2	4.766959E-2	6.413995E-2	6.753333E-2	5.170063E-2	4.760285E-2	4.407084E-2	5.776729E-2	4.503185E-2	6.938349E-2	6.005279E-2	6.264609E-2	5.805208E-2	5.616278E-2	6.761928E-2	6.294399E-2	6.380929E-2	6.558757E-2	5.637820E-2	7.487253E-2	6.116555E-2	5.705995E-2	5.827275E-2	6.385179E-2	6.651038E-2	5.813297E-2	6.598251E-2	7.437297E-2	5.537178E-2	5.318367E-2	6.658964E-2	5.877720E-2	5.014429E-2	7.034395E-2	6.783345E-2	6.630453E-2	6.724504E-2	5.366255E-2	5.830659E-2	7.082401E-2	6.054387E-2	4.693013E-2	6.918773E-2	5.428479E-2	5.033471E-2	4.760959E-2	5.712397E-2	5.137072E-2	4.912612E-2	6.386141E-2	5.338558E-2	6.098677E-2	6.141081E-2	6.654573E-2	5.790216E-2	7.668018E-2	6.165465E-2	5.979198E-2	5.906840E-2	5.126622E-2	7.156954E-2	5.681153E-2	4.865699E-2	6.413263E-2	5.517813E-2	5.267330E-2	5.560231E-2	6.163880E-2	4.523306E-2	5.093578E-2	5.319661E-2	4.715795E-2	5.099764E-2	6.148547E-2	6.084733E-2	7.072161E-2	6.482183E-2	6.354088E-2	4.660103E-2	6.523403E-2	5.186286E-2	5.829487E-2	6.045081E-2	5.787323E-2	6.015130E-2	5.597719E-2	6.928410E-2	7.678791E-2	6.196823E-2	5.431141E-2	4.936854E-2	1.927719E-2
5.342040E+2	8.490463E-2	5.993006E-2	8.009137E-2	5.162496E-2	8.322860E-2	7.915387E-2	8.120389E-2	8.696757E-2	5.873134E-2	7.702490E-2	6.481183E-2	8.297938E-2	7.001120E-2	7.791415E-2	7.835602E-2	8.371652E-2	7.949394E-2	7.758637E-2	7.030779E-2	6.585924E-2	8.115652E-2	7.524408E-2	7.845974E-2	6.421629E-2	6.581872E-2	8.691284E-2	6.606805E-2	8.494929E-2	6.045743E-2	8.848827E-2	7.942147E-2	6.480309E-2	7.081119E-2	7.722483E-2	8.556220E-2	8.485002E-2	7.723818E-2	8.275687E-2	7.255695E-2	8.211025E-2	6.679257E-2	8.145605E-2	8.052688E-2	8.679410E-2	7.914117E-2	7.690542E-2	7.020400E-2	8.299519E-2	6.805715E-2	9.018910E-2	7.280388E-2	9.533763E-2	8.896257E-2	9.955882E-2	8.347136E-2	7.153959E-2	7.972513E-2	7.508011E-2	7.968972E-2	7.874096E-2	7.975598E-2	8.760295E-2	6.309692E-2	7.005880E-2	8.295681E-2	7.684479E-2	7.274004E-2	7.414134E-2	7.009188E-2	7.057872E-2	6.893096E-2	7.464857E-2	8.924798E-2	1.002344E-1	5.234000E-2	5.993144E-2	7.641216E-2	7.333432E-2	9.113746E-2	7.050694E-2	7.871320E-2	6.474024E-2	6.688183E-2	7.184124E-2	6.081553E-2	7.025789E-2	8.381714E-2	8.126252E-2	6.448574E-2	8.736891E-2	8.505321E-2	8.225688E-2	1.160447E-1	8.536434E-2	8.721135E-2	7.802175E-2	6.228024E-2	6.755158E-2	5.816951E-2	6.576863E-2	7.985806E-2	7.524238E-2	8.166386E-2	7.519896E-2	8.048441E-2	7.609461E-2	7.876770E-2	6.547683E-2	8.368807E-2	6.337622E-2	7.439641E-2	7.255020E-2	8.755488E-2	7.664743E-2	9.704003E-2	6.986287E-2	8.764278E-2	7.645344E-2	6.139075E-2	8.046202E-2	7.849517E-2	6.387977E-2	7.636730E-2	6.968163E-2	9.150706E-2	7.796075E-2	7.777105E-2	8.747930E-2	9.934646E-2	7.244809E-2	8.262968E-2	7.259234E-2	9.427668E-2	7.398095E-2	6.893979E-2	8.725047E-2	8.095946E-2	7.422046E-2	6.933525E-2	6.107892E-2	7.854156E-2	7.367452E-2	6.588837E-2	6.588816E-2	8.083708E-2	7.435248E-2	8.227705E-2	7.952661E-2	8.934274E-2	6.476622E-2	6.439315E-2	8.111043E-2	6.213589E-2	7.671074E-2	7.204969E-2	6.307428E-2	8.054263E-2	1.001214E-1	8.275141E-2	7.450276E-2	8.011334E-2	6.925712E-2	8.034667E-2	6.753342E-2	8.300409E-2	6.457813E-2
5.343550E+2	9.939748E-2	8.057821E-2	1.029015E-1	1.246914E-1	1.197925E-1	8.396553E-2	1.133695E-1	1.105228E-1	1.098446E-1	1.132690E-1	1.281578E-1	1.174576E-1	1.011295E-1	1.167774E-1	1.129865E-1	1.137525E-1	9.450904E-2	9.824838E-2	1.187277E-1	1.010337E-1	1.151968E-1	1.330736E-1	1.272927E-1	1.048340E-1	1.151245E-1	1.237628E-1	1.120731E-1	1.102019E-1	9.163711E-2	1.194870E-1	9.105068E-2	1.090680E-1	1.182686E-1	1.187554E-1	1.098163E-1	9.931348E-2	1.002027E-1	1.253113E-1	1.255114E-1	1.120193E-1	1.004664E-1	9.846276E-2	1.179072E-1	1.019980E-1	1.204606E-1	1.053470E-1	1.112017E-1	1.113800E-1	1.329122E-1	1.096452E-1	1.096151E-1	1.004018E-1	8.859924E-2	1.135040E-1	1.406543E-1	1.235945E-1	8.591868E-2	9.968287E-2	1.122080E-1	9.767925E-2	1.147971E-1	1.104816E-1	1.105860E-1	1.023280E-1	1.146718E-1	9.075651E-2	1.238760E-1	1.176382E-1	1.047384E-1	1.110038E-1	1.322652E-1	1.154371E-1	1.234801E-1	1.101497E-1	1.087308E-1	1.040314E-1	1.141280E-1	1.041920E-1	1.165946E-1	9.814376E-2	1.150598E-1	1.148941E-1	1.011035E-1	1.190987E-1	1.242685E-1	1.229931E-1	1.058428E-1	1.139078E-1	9.957008E-2	9.621101E-2	1.055467E-1	9.536732E-2	1.340701E-1	1.131710E-1	1.233818E-1	1.083328E-1	1.160983E-1	1.113799E-1	9.914446E-2	1.038580E-1	1.163584E-1	1.294669E-1	1.118910E-1	1.027877E-1	1.089328E-1	1.121569E-1	9.082161E-2	8.527293E-2	1.021766E-1	1.164750E-1	1.166858E-1	9.696874E-2	9.824796E-2	1.195288E-1	1.124286E-1	1.035841E-1	1.339297E-1	8.554691E-2	1.167046E-1	1.027626E-1	1.167815E-1	1.009489E-1	8.833018E-2	1.105887E-1	1.140633E-1	1.093055E-1	1.265245E-1	9.815665E-2	1.134351E-1	9.586359E-2	1.098805E-1	1.073584E-1	1.263421E-1	9.819079E-2	1.048639E-1	1.116312E-1	9.815347E-2	1.101936E-1	9.385511E-2	1.030205E-1	1.156617E-1	1.206107E-1	1.023285E-1	1.077202E-1	1.086166E-1	8.706027E-2	9.954421E-2	1.237613E-1	1.172969E-1	1.251129E-1	1.103305E-1	1.141572E-1	1.247212E-1	1.237136E-1	1.137963E-1	9.839252E-2	1.206526E-1	1.051582E-1	1.175865E-1	1.383743E-1	1.199015E-1	1.029817E-1	1.066124E-1	1.112647E-1	1.122358E-1	1.180800E-1
5.345160E+2	1.813656E-1	1.555709E-1	1.633742E-1	1.887808E-1	1.589956E-1	1.734007E-1	1.866471E-1	1.724439E-1	1.698756E-1	1.596396E-1	1.867384E-1	1.447955E-1	1.703057E-1	1.726961E-1	1.647039E-1	1.679121E-1	1.826049E-1	1.744994E-1	1.490318E-1	1.725794E-1	1.588705E-1	1.454614E-1	1.894175E-1	1.647659E-1	1.451023E-1	2.080256E-1	1.518879E-1	1.354237E-1	1.730863E-1	1.880974E-1	1.461395E-1	1.644300E-1	1.735077E-1	1.598249E-1	1.691412E-1	1.626680E-1	1.825260E-1	1.706198E-1	1.857691E-1	1.814553E-1	1.530815E-1	1.811189E-1	1.782761E-1	1.606702E-1	1.636425E-1	1.529180E-1	1.854131E-1	1.592372E-1	1.803618E-1	1.864545E-1	1.736916E-1	1.779322E-1	1.593221E-1	1.705901E-1	2.003182E-1	1.744664E-1	1.721348E-1	1.732959E-1	1.684546E-1	1.650973E-1	1.789538E-1	1.777851E-1	1.767188E-1	1.718781E-1	1.741067E-1	1.617121E-1	1.731918E-1	1.609581E-1	1.834642E-1	1.860695E-1	1.735450E-1	1.739808E-1	1.492235E-1	1.914483E-1	1.579353E-1	1.560815E-1	1.780025E-1	1.792857E-1	1.839543E-1	1.638753E-1	1.632324E-1	1.435394E-1	1.660797E-1	1.537473E-1	1.713143E-1	1.878248E-1	1.550338E-1	1.874032E-1	1.705042E-1	1.846702E-1	1.708778E-1	1.957060E-1	1.853796E-1	1.696998E-1	1.662005E-1	1.810212E-1	2.006059E-1	2.241222E-1	1.812876E-1	1.584903E-1	1.623205E-1	1.723661E-1	1.603607E-1	1.654551E-1	1.557109E-1	1.764007E-1	1.719593E-1	1.722943E-1	1.574779E-1	1.921771E-1	1.857614E-1	1.730268E-1	1.758752E-1	1.690682E-1	1.443776E-1	1.724833E-1	1.806646E-1	1.788509E-1	1.682032E-1	1.801093E-1	1.723042E-1	1.773564E-1	1.884621E-1	1.967399E-1	1.918818E-1	1.764493E-1	1.457860E-1	1.781287E-1	1.977711E-1	1.694758E-1	1.719718E-1	1.641893E-1	1.717603E-1	1.717752E-1	1.737834E-1	1.862215E-1	1.814794E-1	1.660714E-1	1.795910E-1	1.793054E-1	1.924588E-1	1.827005E-1	1.854131E-1	1.656100E-1	1.558123E-1	1.811490E-1	1.622490E-1	1.791387E-1	1.669419E-1	1.600636E-1	1.712248E-1	1.686814E-1	1.977210E-1	1.724408E-1	1.742915E-1	1.742463E-1	1.852408E-1	1.738080E-1	1.707327E-1	1.675399E-1	2.069465E-1	1.656505E-1	1.529012E-1	1.801487E-1	1.872768E-1	1.637176E-1
5.346670E+2	2.681239E-1	2.954567E-1	2.936434E-1	2.325071E-1	2.737470E-1	2.562530E-1	2.769209E-1	2.925957E-1	2.552809E-1	2.769447E-1	2.649655E-1	2.716407E-1	2.796884E-1	2.686766E-1	2.678709E-1	2.819791E-1	2.694180E-1	2.580322E-1	2.704908E-1	2.490793E-1	2.585754E-1	2.965148E-1	2.598564E-1	2.890712E-1	2.658250E-1	2.760092E-1	2.505704E-1	2.922711E-1	2.564295E-1	2.711846E-1	2.792042E-1	2.531003E-1	2.990406E-1	2.711755E-1	2.746569E-1	2.681178E-1	2.905428E-1	2.398982E-1	2.821614E-1	2.901615E-1	2.585202E-1	2.642904E-1	2.700154E-1	2.565449E-1	2.847623E-1	2.521780E-1	2.395181E-1	2.549788E-1	2.622358E-1	2.531486E-1	2.772946E-1	2.715039E-1	2.569203E-1	2.883267E-1	2.492076E-1	2.791436E-1	2.757053E-1	2.774301E-1	2.624561E-1	2.471999E-1	2.640496E-1	2.574572E-1	2.644651E-1	2.592647E-1	2.652766E-1	2.892642E-1	2.852866E-1	2.880992E-1	2.678512E-1	2.929017E-1	2.783109E-1	2.551838E-1	2.867016E-1	2.567574E-1	2.829575E-1	2.494783E-1	2.690287E-1	2.601103E-1	2.782603E-1	2.485736E-1	2.801695E-1	2.487036E-1	2.608706E-1	2.414151E-1	2.501587E-1	2.962265E-1	2.781216E-1	2.808947E-1	2.350406E-1	2.766190E-1	2.870709E-1	2.597481E-1	2.749652E-1	3.059420E-1	2.634854E-1	2.595231E-1	2.573498E-1	2.866576E-1	2.830796E-1	2.464733E-1	2.720850E-1	2.831558E-1	2.453079E-1	2.898202E-1	2.629032E-1	2.901065E-1	2.868264E-1	2.937328E-1	2.879632E-1	2.746831E-1	2.730217E-1	2.614328E-1	2.701406E-1	2.861439E-1	2.750249E-1	2.574343E-1	2.819684E-1	2.720701E-1	2.808661E-1	2.668418E-1	2.856883E-1	3.084128E-1	2.935714E-1	2.630382E-1	2.780671E-1	2.720151E-1	2.577848E-1	2.718138E-1	2.656526E-1	2.778338E-1	2.675304E-1	2.745394E-1	2.916122E-1	2.656794E-1	2.737847E-1	2.890649E-1	2.853316E-1	2.711184E-1	2.568186E-1	2.826669E-1	2.520468E-1	2.956283E-1	2.597342E-1	2.758966E-1	2.582729E-1	2.498796E-1	2.834351E-1	2.671448E-1	2.729630E-1	2.776641E-1	3.194075E-1	2.743963E-1	2.932621E-1	2.965986E-1	2.953299E-1	2.931875E-1	2.382106E-1	2.769560E-1	2.520515E-1	2.734998E-1	2.524079E-1	3.019951E-1	2.750396E-1	2.634675E-1	2.717782E-1	2.603381E-1
5.348180E+2	4.644738E-1	4.483585E-1	4.897552E-1	4.067789E-1	4.422872E-1	4.617467E-1	4.201316E-1	4.470703E-1	4.098168E-1	4.719676E-1	4.458712E-1	4.217576E-1	4.334365E-1	4.349712E-1	4.340850E-1	4.637920E-1	4.578843E-1	4.585309E-1	4.568893E-1	4.500282E-1	4.033153E-1	4.619836E-1	4.449087E-1	4.449860E-1	4.751248E-1	4.522012E-1	4.380717E-1	4.523859E-1	4.108553E-1	4.549201E-1	4.428762E-1	4.265045E-1	4.441026E-1	4.465896E-1	4.381348E-1	4.856412E-1	4.340340E-1	4.634730E-1	4.568861E-1	4.609567E-1	4.017397E-1	5.132156E-1	4.476788E-1	4.596959E-1	4.562818E-1	4.766443E-1	4.535660E-1	4.380776E-1	4.579808E-1	4.400614E-1	4.538986E-1	4.296672E-1	4.677727E-1	4.602096E-1	4.408656E-1	4.389325E-1	4.565288E-1	4.360464E-1	4.337311E-1	4.787378E-1	4.702405E-1	4.099412E-1	4.449720E-1	4.444304E-1	4.548710E-1	4.720119E-1	4.360731E-1	4.386102E-1	4.421596E-1	4.239301E-1	4.896474E-1	4.457695E-1	4.632443E-1	4.593611E-1	3.824424E-1	4.606459E-1	4.361909E-1	4.511576E-1	4.689618E-1	4.210601E-1	4.778003E-1	4.587447E-1	4.641250E-1	4.598019E-1	4.327383E-1	4.765850E-1	4.736292E-1	4.509085E-1	4.501149E-1	4.519502E-1	4.432429E-1	5.172258E-1	4.278790E-1	4.479222E-1	4.535469E-1	4.220927E-1	4.369363E-1	4.492973E-1	4.367766E-1	4.477952E-1	4.497738E-1	4.761734E-1	4.660695E-1	4.361606E-1	4.552337E-1	4.302603E-1	4.245546E-1	4.266281E-1	4.692237E-1	4.545552E-1	4.099454E-1	4.760609E-1	4.408012E-1	4.439994E-1	4.709932E-1	4.172153E-1	4.528772E-1	4.102444E-1	4.869060E-1	4.849524E-1	4.596637E-1	4.854764E-1	4.704182E-1	4.409804E-1	4.610285E-1	4.369282E-1	4.412973E-1	4.591352E-1	4.890958E-1	4.696153E-1	4.412953E-1	4.917666E-1	4.625256E-1	4.626560E-1	4.522717E-1	4.876246E-1	4.712543E-1	4.608974E-1	4.663682E-1	4.393033E-1	4.510439E-1	4.498111E-1	4.224229E-1	4.463801E-1	4.255580E-1	4.396946E-1	4.620811E-1	4.578643E-1	4.504561E-1	4.478584E-1	4.825166E-1	4.365128E-1	4.516461E-1	4.423445E-1	4.766076E-1	4.258079E-1	4.283035E-1	4.731790E-1	4.471208E-1	4.304860E-1	4.603518E-1	4.655438E-1	4.490862E-1	4.783044E-1	4.576934E-1	4.323479E-1
5.349580E+2	7.428606E-1	7.433576E-1	7.966237E-1	7.190288E-1	7.725387E-1	8.005174E-1	7.350380E-1	7.593216E-1	7.089472E-1	7.148032E-1	7.424854E-1	7.236739E-1	7.955608E-1	7.472473E-1	7.332094E-1	7.327430E-1	7.454372E-1	7.226194E-1	7.914466E-1	6.983429E-1	7.145830E-1	7.468499E-1	7.198465E-1	7.258198E-1	7.325901E-1	7.501888E-1	7.585201E-1	7.658523E-1	7.243455E-1	7.770502E-1	7.645084E-1	7.591743E-1	7.436667E-1	7.585380E-1	7.362951E-1	7.188442E-1	7.376472E-1	7.161260E-1	7.593106E-1	7.770943E-1	7.101564E-1	7.537292E-1	7.660753E-1	7.174519E-1	7.762173E-1	7.632647E-1	7.341593E-1	7.425536E-1	7.171205E-1	7.778419E-1	7.559800E-1	7.113727E-1	7.713022E-1	7.673796E-1	7.545274E-1	7.312736E-1	7.539406E-1	7.302202E-1	7.393639E-1	7.923147E-1	7.436326E-1	7.903532E-1	7.059978E-1	7.490647E-1	7.369372E-1	7.598211E-1	7.197302E-1	7.387170E-1	7.275025E-1	7.716466E-1	7.553583E-1	7.390981E-1	7.489667E-1	7.247267E-1	7.570806E-1	7.288560E-1	7.329285E-1	7.044651E-1	7.441304E-1	7.422384E-1	7.520329E-1	7.397835E-1	7.295921E-1	7.786209E-1	7.251345E-1	7.707328E-1	7.458121E-1	7.481062E-1	7.306248E-1	7.941133E-1	7.678596E-1	7.678485E-1	7.459079E-1	7.832998E-1	7.332901E-1	7.499157E-1	7.686100E-1	7.279019E-1	7.843059E-1	7.507890E-1	6.945182E-1	7.442727E-1	7.320795E-1	7.363423E-1	7.975663E-1	7.983054E-1	7.518806E-1	7.392975E-1	7.560285E-1	7.863658E-1	7.541509E-1	7.603352E-1	7.574765E-1	7.104909E-1	7.389318E-1	7.276887E-1	7.443216E-1	7.352341E-1	7.567940E-1	7.439378E-1	7.288465E-1	7.161523E-1	7.431704E-1	7.689543E-1	7.717330E-1	7.508026E-1	7.537672E-1	7.488713E-1	7.301011E-1	7.929220E-1	7.389895E-1	7.363595E-1	7.043467E-1	7.548165E-1	7.576373E-1	7.905586E-1	7.172063E-1	7.119366E-1	7.319952E-1	7.243407E-1	7.322095E-1	7.111342E-1	7.200105E-1	7.729697E-1	7.545989E-1	8.116999E-1	7.720631E-1	7.587134E-1	7.733814E-1	7.765263E-1	7.503761E-1	7.137667E-1	7.479683E-1	7.644988E-1	7.080066E-1	7.732616E-1	7.353917E-1	7.961052E-1	6.859058E-1	7.375609E-1	7.519643E-1	7.395156E-1	7.469591E-1	7.697521E-1	6.752060E-1	7.386413E-1
5.351200E+2	1.109558E+0	1.155333E+0	1.150738E+0	1.069772E+0	1.054960E+0	1.115113E+0	1.133715E+0	1.099850E+0	1.068615E+0	1.129263E+0	1.100190E+0	1.062586E+0	1.101211E+0	1.093371E+0	1.104790E+0	1.087550E+0	1.147397E+0	1.062971E+0	1.149634E+0	1.032197E+0	1.115626E+0	1.073510E+0	1.128689E+0	1.117930E+0	1.087997E+0	1.132252E+0	1.120120E+0	1.094501E+0	1.063826E+0	1.089087E+0	1.145154E+0	1.035811E+0	1.114669E+0	1.089853E+0	1.083162E+0	1.066845E+0	1.094639E+0	1.148163E+0	1.072015E+0	1.085041E+0	1.077057E+0	1.133485E+0	1.121004E+0	1.097184E+0	1.092059E+0	1.113961E+0	1.116912E+0	1.066781E+0	1.078159E+0	1.123544E+0	1.138591E+0	1.036119E+0	1.061048E+0	1.141189E+0	1.121267E+0	1.077949E+0	1.048608E+0	1.095078E+0	1.082969E+0	1.037905E+0	1.098868E+0	1.158352E+0	1.055593E+0	1.117200E+0	1.152961E+0	1.096989E+0	1.101584E+0	1.100589E+0	1.118748E+0	1.077248E+0	1.109070E+0	1.112378E+0	1.078498E+0	1.102879E+0	1.084662E+0	1.088120E+0	1.130837E+0	1.105473E+0	1.075212E+0	1.066658E+0	1.104830E+0	1.055335E+0	1.165551E+0	1.106029E+0	1.108016E+0	1.174869E+0	1.090346E+0	1.120306E+0	1.040042E+0	1.098815E+0	1.102981E+0	1.069094E+0	1.081756E+0	1.122709E+0	1.133202E+0	1.042771E+0	1.062267E+0	1.107204E+0	1.068442E+0	1.146589E+0	1.086934E+0	1.072785E+0	1.053324E+0	1.102323E+0	1.092150E+0	1.110732E+0	1.042661E+0	1.095713E+0	1.089527E+0	1.124088E+0	1.067882E+0	1.078214E+0	1.129592E+0	1.082083E+0	1.087627E+0	1.107831E+0	1.070047E+0	1.091628E+0	1.130144E+0	1.132612E+0	1.056075E+0	1.182147E+0	1.093900E+0	1.106669E+0	1.094657E+0	1.107482E+0	1.076303E+0	1.083561E+0	1.125482E+0	1.090974E+0	1.060305E+0	1.081861E+0	1.074648E+0	1.151898E+0	1.057705E+0	1.131629E+0	1.037577E+0	1.105285E+0	1.087015E+0	1.044966E+0	1.109597E+0	1.080607E+0	1.060202E+0	1.060146E+0	1.138476E+0	1.085382E+0	1.065156E+0	1.106504E+0	1.091035E+0	1.071044E+0	1.115975E+0	1.077375E+0	1.082272E+0	1.121120E+0	1.059786E+0	1.075851E+0	1.064946E+0	1.096769E+0	1.132355E+0	1.131559E+0	1.109718E+0	1.070497E+0	1.073217E+0	1.041529E+0	1.059829E+0	1.059942E+0
5.352550E+2	1.680702E+0	1.614872E+0	1.474019E+0	1.552857E+0	1.540208E+0	1.547917E+0	1.527160E+0	1.571576E+0	1.492707E+0	1.519488E+0	1.487366E+0	1.503658E+0	1.565440E+0	1.515252E+0	1.550115E+0	1.553186E+0	1.650373E+0	1.548466E+0	1.558046E+0	1.550052E+0	1.590548E+0	1.525413E+0	1.543248E+0	1.528582E+0	1.575925E+0	1.560441E+0	1.578816E+0	1.492906E+0	1.509296E+0	1.556108E+0	1.480678E+0	1.547745E+0	1.576092E+0	1.501262E+0	1.520515E+0	1.552003E+0	1.503310E+0	1.543067E+0	1.623322E+0	1.523207E+0	1.538706E+0	1.585111E+0	1.625476E+0	1.605100E+0	1.581435E+0	1.514695E+0	1.460523E+0	1.489296E+0	1.506237E+0	1.547580E+0	1.522000E+0	1.453181E+0	1.484457E+0	1.528720E+0	1.545805E+0	1.571317E+0	1.572112E+0	1.517875E+0	1.605265E+0	1.491895E+0	1.525982E+0	1.493305E+0	1.460198E+0	1.521181E+0	1.599002E+0	1.569309E+0	1.613195E+0	1.428439E+0	1.508108E+0	1.604885E+0	1.506398E+0	1.489560E+0	1.577423E+0	1.552225E+0	1.499146E+0	1.520719E+0	1.546766E+0	1.581263E+0	1.525658E+0	1.487264E+0	1.505181E+0	1.588044E+0	1.549499E+0	1.482263E+0	1.528725E+0	1.553139E+0	1.549387E+0	1.549089E+0	1.516618E+0	1.597663E+0	1.502376E+0	1.503100E+0	1.596494E+0	1.514201E+0	1.577407E+0	1.510716E+0	1.517575E+0	1.533989E+0	1.456958E+0	1.510777E+0	1.500901E+0	1.551090E+0	1.446033E+0	1.560276E+0	1.503108E+0	1.551054E+0	1.451860E+0	1.531896E+0	1.497605E+0	1.618818E+0	1.473223E+0	1.564342E+0	1.539876E+0	1.504026E+0	1.445212E+0	1.522496E+0	1.559722E+0	1.544287E+0	1.531753E+0	1.513796E+0	1.492119E+0	1.565507E+0	1.581597E+0	1.512545E+0	1.531545E+0	1.584240E+0	1.496088E+0	1.478537E+0	1.506325E+0	1.576457E+0	1.539547E+0	1.512688E+0	1.479397E+0	1.530299E+0	1.512035E+0	1.527373E+0	1.548511E+0	1.516449E+0	1.552689E+0	1.503907E+0	1.475284E+0	1.522897E+0	1.512852E+0	1.400099E+0	1.490568E+0	1.540014E+0	1.527654E+0	1.476431E+0	1.566595E+0	1.557352E+0	1.533343E+0	1.490482E+0	1.520873E+0	1.496186E+0	1.534477E+0	1.517706E+0	1.498926E+0	1.531092E+0	1.480716E+0	1.501780E+0	1.535700E+0	1.531816E+0	1.465376E+0	1.437342E+0	1.451083E+0	1.482296E+0
5.354060E+2	1.960619E+0	1.906851E+0	1.964356E+0	1.925758E+0	1.946266E+0	1.980987E+0	1.876478E+0	1.884706E+0	1.888395E+0	1.916890E+0	1.960160E+0	1.909731E+0	1.941277E+0	1.946845E+0	1.884565E+0	1.897081E+0	1.909673E+0	1.844905E+0	1.955432E+0	1.866220E+0	1.928118E+0	1.923390E+0	1.893141E+0	1.912268E+0	1.928137E+0	1.954423E+0	1.919264E+0	1.901033E+0	1.912632E+0	1.908890E+0	1.890908E+0	1.921409E+0	1.882523E+0	1.843598E+0	1.872097E+0	1.887679E+0	1.871362E+0	1.916309E+0	1.894700E+0	1.879857E+0	1.905583E+0	2.008962E+0	1.913573E+0	1.880443E+0	1.930321E+0	1.955731E+0	1.875111E+0	1.833130E+0	1.935235E+0	1.933610E+0	1.913036E+0	1.872748E+0	1.954801E+0	1.945324E+0	1.901918E+0	1.922418E+0	1.900325E+0	1.968570E+0	1.921262E+0	1.898593E+0	1.950450E+0	1.940944E+0	1.819698E+0	1.862252E+0	1.910583E+0	1.977583E+0	1.847511E+0	1.853198E+0	1.869990E+0	1.907633E+0	1.900461E+0	1.833036E+0	1.842885E+0	1.903488E+0	1.797786E+0	1.894896E+0	1.950946E+0	1.870350E+0	1.846648E+0	1.825566E+0	1.866397E+0	1.864509E+0	1.871628E+0	1.891745E+0	1.872800E+0	1.919113E+0	1.908719E+0	1.959767E+0	1.889992E+0	1.938484E+0	1.865108E+0	1.919024E+0	1.811027E+0	1.936060E+0	1.820668E+0	1.918527E+0	1.890085E+0	1.882994E+0	1.946476E+0	1.871150E+0	1.845261E+0	1.835102E+0	1.861165E+0	1.894317E+0	1.988534E+0	1.908988E+0	1.879732E+0	1.869108E+0	1.864296E+0	1.913883E+0	1.849077E+0	1.892329E+0	1.895736E+0	1.898809E+0	1.857484E+0	1.874219E+0	1.859345E+0	1.858606E+0	1.785506E+0	1.882877E+0	1.870391E+0	1.961998E+0	1.803274E+0	1.854935E+0	1.920096E+0	1.876273E+0	1.846354E+0	1.866286E+0	1.883227E+0	1.924683E+0	1.836852E+0	1.815181E+0	1.853542E+0	1.860260E+0	1.886873E+0	1.932690E+0	1.857653E+0	1.949025E+0	1.834318E+0	1.865998E+0	1.796260E+0	1.854244E+0	1.857752E+0	1.792541E+0	1.847529E+0	1.853856E+0	1.827559E+0	1.778043E+0	1.885497E+0	1.854996E+0	1.869724E+0	1.860877E+0	1.875637E+0	1.831234E+0	1.880273E+0	1.855132E+0	1.817075E+0	1.965671E+0	1.807615E+0	1.883953E+0	1.799496E+0	1.875215E+0	1.819397E+0	1.785055E+0	1.793033E+0	1.667119E+0
5.355630E+2	2.073266E+0	2.023313E+0	2.097063E+0	1.997566E+0	1.982322E+0	2.035473E+0	2.003866E+0	1.959551E+0	1.982706E+0	2.040096E+0	1.991549E+0	1.963550E+0	2.037437E+0	1.989322E+0	1.983822E+0	2.026398E+0	2.075054E+0	2.001818E+0	2.034063E+0	1.985759E+0	1.973437E+0	1.960706E+0	2.032869E+0	1.986526E+0	2.044371E+0	1.989863E+0	2.022583E+0	2.002735E+0	1.940965E+0	2.005008E+0	1.957116E+0	1.997676E+0	2.021535E+0	1.968535E+0	1.948862E+0	1.913884E+0	2.003333E+0	1.999648E+0	2.012896E+0	2.037050E+0	1.973337E+0	2.057628E+0	2.023287E+0	1.971364E+0	1.942315E+0	2.046542E+0	1.953180E+0	2.024168E+0	1.984286E+0	2.056091E+0	1.946764E+0	1.929880E+0	2.031244E+0	2.037645E+0	2.030194E+0	1.967271E+0	1.999776E+0	2.016457E+0	2.037382E+0	2.058964E+0	1.981699E+0	1.987172E+0	1.901528E+0	1.934671E+0	2.058895E+0	1.976337E+0	2.039150E+0	1.971303E+0	1.927055E+0	2.047281E+0	2.051481E+0	1.965104E+0	1.951058E+0	1.970579E+0	1.886238E+0	1.985374E+0	1.963077E+0	2.043885E+0	1.940571E+0	2.010701E+0	1.974746E+0	2.033645E+0	1.962730E+0	1.993239E+0	1.996109E+0	2.045540E+0	1.963687E+0	2.012272E+0	1.976827E+0	1.965162E+0	2.060645E+0	2.002610E+0	1.934000E+0	2.002321E+0	1.948454E+0	1.958629E+0	1.934825E+0	1.890304E+0	1.937858E+0	1.934721E+0	1.895613E+0	1.934195E+0	1.916250E+0	2.034992E+0	2.023668E+0	2.031039E+0	1.967421E+0	1.942675E+0	2.036585E+0	1.984658E+0	1.922246E+0	1.918432E+0	1.991549E+0	2.000685E+0	1.909953E+0	1.992311E+0	1.939151E+0	1.942840E+0	1.939096E+0	1.940606E+0	1.880323E+0	1.880263E+0	1.889968E+0	1.965506E+0	1.950427E+0	1.928229E+0	1.946429E+0	1.971831E+0	2.055455E+0	1.961065E+0	1.960681E+0	1.936174E+0	1.933331E+0	1.949987E+0	1.907056E+0	2.004554E+0	1.921024E+0	1.919759E+0	1.919767E+0	1.941106E+0	1.941742E+0	1.903616E+0	1.918619E+0	1.912372E+0	1.985616E+0	1.955395E+0	1.935822E+0	1.854076E+0	1.910362E+0	1.902892E+0	2.022879E+0	1.894878E+0	1.982634E+0	2.043692E+0	1.923664E+0	1.879219E+0	1.854852E+0	1.958502E+0	1.885236E+0	1.966169E+0	1.934908E+0	1.926699E+0	1.789204E+0	1.805007E+0	1.968579E+0	1.748958E+0
5.357140E+2	2.114966E+0	2.033263E+0	2.033189E+0	1.943588E+0	1.990338E+0	2.059426E+0	1.999359E+0	1.988855E+0	2.013996E+0	1.971679E+0	2.127341E+0	2.045726E+0	2.069895E+0	2.026883E+0	1.953859E+0	1.987133E+0	2.150692E+0	2.016793E+0	1.984222E+0	1.997875E+0	1.905144E+0	2.025886E+0	2.034585E+0	2.038707E+0	1.969898E+0	2.068876E+0	2.052328E+0	2.019260E+0	1.933847E+0	1.957586E+0	1.977868E+0	1.980042E+0	2.008311E+0	2.059618E+0	1.946783E+0	1.962905E+0	2.020748E+0	1.963035E+0	2.001890E+0	2.078281E+0	2.019338E+0	2.039124E+0	1.993307E+0	1.981292E+0	2.035483E+0	2.064571E+0	1.982438E+0	1.945055E+0	2.053788E+0	2.105210E+0	1.993315E+0	1.988167E+0	2.019510E+0	2.040129E+0	1.959312E+0	1.998233E+0	1.958904E+0	1.986253E+0	2.041623E+0	2.035424E+0	2.029255E+0	2.022096E+0	1.920272E+0	2.007441E+0	2.062753E+0	2.011920E+0	2.044165E+0	1.988280E+0	1.976488E+0	2.016810E+0	1.991007E+0	2.007698E+0	2.031046E+0	1.982282E+0	1.922484E+0	2.023239E+0	2.011499E+0	2.065287E+0	1.968911E+0	1.992146E+0	1.947879E+0	2.040745E+0	1.991288E+0	2.018097E+0	1.900766E+0	2.020732E+0	1.996314E+0	1.901402E+0	2.096547E+0	2.063191E+0	1.977180E+0	2.044047E+0	1.948069E+0	2.022545E+0	1.910150E+0	1.947295E+0	1.985587E+0	1.938489E+0	2.002299E+0	1.984875E+0	1.943933E+0	1.963939E+0	1.950881E+0	1.962215E+0	2.000359E+0	2.090879E+0	1.955883E+0	1.961316E+0	1.933904E+0	1.969370E+0	1.917176E+0	1.962612E+0	1.994326E+0	2.008222E+0	1.928514E+0	2.001527E+0	1.977386E+0	1.952857E+0	1.940318E+0	1.886964E+0	1.908745E+0	2.008834E+0	1.953980E+0	1.959554E+0	1.951714E+0	1.943165E+0	2.008544E+0	1.895364E+0	1.948342E+0	2.008157E+0	1.940765E+0	1.951001E+0	1.960420E+0	1.977152E+0	1.947896E+0	1.960497E+0	1.948906E+0	1.976373E+0	1.901716E+0	1.970726E+0	1.957984E+0	1.921545E+0	1.958025E+0	1.899949E+0	1.969860E+0	1.995628E+0	1.900838E+0	1.910093E+0	1.994890E+0	1.912226E+0	2.039273E+0	1.911442E+0	1.914332E+0	1.976201E+0	1.959829E+0	1.915189E+0	1.999994E+0	2.014373E+0	1.928742E+0	1.917357E+0	1.928486E+0	1.904824E+0	1.864897E+0	1.913576E+0	1.901558E+0	1.918503E+0
5.358600E+2	1.772414E+0	1.725155E+0	1.743600E+0	1.698277E+0	1.712949E+0	1.710202E+0	1.689999E+0	1.732590E+0	1.799036E+0	1.667284E+0	1.719616E+0	1.700486E+0	1.733021E+0	1.746356E+0	1.639551E+0	1.758119E+0	1.758165E+0	1.658930E+0	1.757251E+0	1.684380E+0	1.690361E+0	1.683736E+0	1.704226E+0	1.727099E+0	1.686682E+0	1.675675E+0	1.715214E+0	1.751616E+0	1.641354E+0	1.686273E+0	1.667383E+0	1.684892E+0	1.684037E+0	1.684252E+0	1.716421E+0	1.705697E+0	1.665900E+0	1.681368E+0	1.730933E+0	1.737241E+0	1.616777E+0	1.724944E+0	1.692412E+0	1.714572E+0	1.678288E+0	1.690781E+0	1.645118E+0	1.704727E+0	1.725608E+0	1.724679E+0	1.634766E+0	1.637931E+0	1.698930E+0	1.741582E+0	1.671904E+0	1.693604E+0	1.652750E+0	1.691907E+0	1.694016E+0	1.680000E+0	1.729880E+0	1.691252E+0	1.699772E+0	1.649016E+0	1.696642E+0	1.750192E+0	1.774632E+0	1.695434E+0	1.627774E+0	1.724989E+0	1.672970E+0	1.611916E+0	1.736178E+0	1.740869E+0	1.653695E+0	1.707192E+0	1.673038E+0	1.699769E+0	1.699383E+0	1.675665E+0	1.733574E+0	1.724187E+0	1.773881E+0	1.720074E+0	1.634175E+0	1.677399E+0	1.692601E+0	1.703655E+0	1.704492E+0	1.769317E+0	1.641647E+0	1.729339E+0	1.680120E+0	1.700977E+0	1.713001E+0	1.620383E+0	1.691701E+0	1.702101E+0	1.712203E+0	1.733630E+0	1.649730E+0	1.699473E+0	1.703785E+0	1.689446E+0	1.717237E+0	1.733166E+0	1.684944E+0	1.619460E+0	1.700331E+0	1.704753E+0	1.650609E+0	1.626664E+0	1.708195E+0	1.745349E+0	1.666261E+0	1.597624E+0	1.655347E+0	1.632668E+0	1.679687E+0	1.705464E+0	1.628302E+0	1.750913E+0	1.679181E+0	1.658077E+0	1.712019E+0	1.702826E+0	1.722873E+0	1.678173E+0	1.655898E+0	1.664607E+0	1.647620E+0	1.679850E+0	1.701195E+0	1.689836E+0	1.623274E+0	1.684812E+0	1.579043E+0	1.735582E+0	1.643402E+0	1.674668E+0	1.661160E+0	1.670775E+0	1.651074E+0	1.609987E+0	1.617987E+0	1.681080E+0	1.644894E+0	1.668138E+0	1.645984E+0	1.687860E+0	1.729334E+0	1.546833E+0	1.673513E+0	1.741757E+0	1.651061E+0	1.719792E+0	1.737902E+0	1.755182E+0	1.647378E+0	1.632760E+0	1.702978E+0	1.667851E+0	1.588889E+0	1.602108E+0	1.586013E+0	1.727838E+0
5.360070E+2	1.721155E+0	1.672186E+0	1.677266E+0	1.600606E+0	1.700217E+0	1.662207E+0	1.656023E+0	1.607492E+0	1.645038E+0	1.657652E+0	1.664816E+0	1.657709E+0	1.698028E+0	1.639170E+0	1.664278E+0	1.642235E+0	1.715205E+0	1.604185E+0	1.619708E+0	1.614883E+0	1.704376E+0	1.578212E+0	1.647486E+0	1.666872E+0	1.662804E+0	1.664588E+0	1.594357E+0	1.683184E+0	1.592823E+0	1.627079E+0	1.638574E+0	1.574003E+0	1.672067E+0	1.620422E+0	1.623236E+0	1.647514E+0	1.613543E+0	1.657030E+0	1.707114E+0	1.652810E+0	1.594079E+0	1.705701E+0	1.706868E+0	1.600999E+0	1.631442E+0	1.649527E+0	1.570386E+0	1.650445E+0	1.636256E+0	1.714026E+0	1.628413E+0	1.689797E+0	1.640606E+0	1.631460E+0	1.721118E+0	1.622578E+0	1.670242E+0	1.628482E+0	1.699173E+0	1.664397E+0	1.632513E+0	1.579417E+0	1.530689E+0	1.718176E+0	1.696746E+0	1.691307E+0	1.685630E+0	1.618463E+0	1.605882E+0	1.655783E+0	1.637915E+0	1.686889E+0	1.608686E+0	1.665148E+0	1.668673E+0	1.638869E+0	1.605582E+0	1.643554E+0	1.639079E+0	1.612174E+0	1.680952E+0	1.686273E+0	1.612905E+0	1.712184E+0	1.657268E+0	1.655892E+0	1.675227E+0	1.616248E+0	1.663320E+0	1.633779E+0	1.644800E+0	1.703128E+0	1.607682E+0	1.643552E+0	1.625542E+0	1.638481E+0	1.591990E+0	1.690792E+0	1.611026E+0	1.596521E+0	1.597118E+0	1.665154E+0	1.547944E+0	1.643671E+0	1.685767E+0	1.626809E+0	1.612188E+0	1.594157E+0	1.670161E+0	1.625250E+0	1.632332E+0	1.573642E+0	1.680603E+0	1.648385E+0	1.616801E+0	1.607099E+0	1.571195E+0	1.620413E+0	1.634293E+0	1.608435E+0	1.601854E+0	1.719856E+0	1.629201E+0	1.610300E+0	1.662233E+0	1.556539E+0	1.605086E+0	1.585077E+0	1.632053E+0	1.634066E+0	1.645131E+0	1.660801E+0	1.551272E+0	1.636064E+0	1.598706E+0	1.660458E+0	1.601129E+0	1.648189E+0	1.611954E+0	1.605262E+0	1.570900E+0	1.630201E+0	1.593092E+0	1.557000E+0	1.566407E+0	1.606626E+0	1.644606E+0	1.616710E+0	1.597526E+0	1.589600E+0	1.606775E+0	1.592956E+0	1.631690E+0	1.659482E+0	1.639488E+0	1.660860E+0	1.625157E+0	1.670152E+0	1.592261E+0	1.639386E+0	1.655232E+0	1.570439E+0	1.587581E+0	1.578166E+0	1.498861E+0	1.706250E+0
5.362730E+2	1.200524E+0	1.179873E+0	1.194957E+0	1.142500E+0	1.147004E+0	1.159434E+0	1.176106E+0	1.149765E+0	1.120900E+0	1.109470E+0	1.179561E+0	1.121897E+0	1.151901E+0	1.154083E+0	1.124380E+0	1.124872E+0	1.166392E+0	1.107726E+0	1.176069E+0	1.154353E+0	1.189414E+0	1.110686E+0	1.148292E+0	1.171894E+0	1.153305E+0	1.170466E+0	1.216553E+0	1.182445E+0	1.146369E+0	1.168293E+0	1.136450E+0	1.117949E+0	1.089023E+0	1.211511E+0	1.138632E+0	1.145284E+0	1.121090E+0	1.126369E+0	1.190752E+0	1.130795E+0	1.177192E+0	1.124744E+0	1.156480E+0	1.173059E+0	1.199637E+0	1.198617E+0	1.173879E+0	1.135946E+0	1.144680E+0	1.144107E+0	1.125269E+0	1.119246E+0	1.159654E+0	1.182069E+0	1.183658E+0	1.140369E+0	1.151855E+0	1.121488E+0	1.173950E+0	1.144776E+0	1.130108E+0	1.187781E+0	1.095033E+0	1.136685E+0	1.149195E+0	1.167792E+0	1.140533E+0	1.202424E+0	1.151133E+0	1.161599E+0	1.157273E+0	1.158996E+0	1.140431E+0	1.161146E+0	1.112457E+0	1.120295E+0	1.110358E+0	1.175883E+0	1.105016E+0	1.154797E+0	1.093710E+0	1.156703E+0	1.176021E+0	1.182168E+0	1.163879E+0	1.182016E+0	1.186709E+0	1.151440E+0	1.144859E+0	1.212515E+0	1.143797E+0	1.210619E+0	1.147479E+0	1.145997E+0	1.138822E+0	1.117175E+0	1.134363E+0	1.162413E+0	1.150015E+0	1.156435E+0	1.183964E+0	1.166009E+0	1.155074E+0	1.186388E+0	1.128610E+0	1.178555E+0	1.114491E+0	1.166978E+0	1.200406E+0	1.193673E+0	1.149655E+0	1.154109E+0	1.261849E+0	1.115199E+0	1.143056E+0	1.084943E+0	1.078110E+0	1.180182E+0	1.181951E+0	1.090095E+0	1.175468E+0	1.232883E+0	1.073163E+0	1.172825E+0	1.202336E+0	1.158217E+0	1.181636E+0	1.116455E+0	1.209601E+0	1.149188E+0	1.144337E+0	1.169227E+0	1.125731E+0	1.223724E+0	1.157530E+0	1.173937E+0	1.160139E+0	1.154885E+0	1.142815E+0	1.177909E+0	1.172805E+0	1.135970E+0	1.127092E+0	1.110778E+0	1.174930E+0	1.112468E+0	1.166183E+0	1.105429E+0	1.186825E+0	1.143096E+0	1.208378E+0	1.134317E+0	1.162069E+0	1.121557E+0	1.196279E+0	1.159648E+0	1.176956E+0	1.118412E+0	1.148982E+0	1.125295E+0	1.148960E+0	1.157373E+0	1.087459E+0	1.171212E+0	1.093755E+0	1.074079E+0
5.365140E+2	9.891190E-1	9.209901E-1	8.948071E-1	8.857754E-1	8.967545E-1	9.218634E-1	9.411010E-1	9.230681E-1	9.629059E-1	9.181375E-1	8.946478E-1	9.025440E-1	9.310067E-1	9.149284E-1	9.183121E-1	8.986213E-1	9.559221E-1	9.244382E-1	9.161161E-1	9.429665E-1	9.377750E-1	9.134207E-1	9.406801E-1	9.332582E-1	9.109501E-1	9.479934E-1	9.104020E-1	9.641655E-1	8.753291E-1	9.141346E-1	9.207981E-1	9.300302E-1	9.254025E-1	9.446597E-1	9.385578E-1	8.697151E-1	9.045404E-1	9.540481E-1	9.126778E-1	9.216169E-1	8.500059E-1	9.024801E-1	9.463428E-1	9.186060E-1	9.429574E-1	9.007304E-1	9.213256E-1	9.040027E-1	9.160565E-1	9.022645E-1	9.280686E-1	9.093078E-1	9.286918E-1	8.723537E-1	9.506950E-1	9.455276E-1	8.862224E-1	9.173827E-1	9.849010E-1	9.388427E-1	9.597528E-1	9.126179E-1	8.847218E-1	9.396681E-1	9.333596E-1	9.287261E-1	9.209816E-1	9.343246E-1	9.228174E-1	9.433192E-1	9.334363E-1	9.069210E-1	9.557280E-1	8.801349E-1	8.839423E-1	9.211883E-1	8.889804E-1	9.279550E-1	8.990647E-1	9.136274E-1	9.235661E-1	9.022426E-1	9.655671E-1	9.797953E-1	9.303425E-1	9.497296E-1	9.391050E-1	8.910123E-1	9.290103E-1	9.547919E-1	8.752935E-1	9.167975E-1	9.466613E-1	9.462588E-1	9.172889E-1	9.208829E-1	9.322691E-1	9.242898E-1	9.677789E-1	9.378701E-1	9.375423E-1	9.025833E-1	9.044234E-1	9.182457E-1	9.148373E-1	9.255485E-1	9.550985E-1	9.602408E-1	8.977343E-1	9.433252E-1	9.584927E-1	9.340569E-1	9.580815E-1	9.083911E-1	9.387757E-1	9.337485E-1	9.192156E-1	9.632553E-1	9.458770E-1	8.841551E-1	9.067881E-1	9.922385E-1	9.213360E-1	9.065547E-1	9.457526E-1	9.087216E-1	9.162067E-1	9.303472E-1	9.617676E-1	9.878907E-1	9.040565E-1	8.345001E-1	9.150631E-1	9.368844E-1	9.525983E-1	9.434731E-1	9.330178E-1	9.506623E-1	9.339792E-1	9.396515E-1	9.432310E-1	9.138768E-1	9.053625E-1	9.063922E-1	9.424963E-1	8.790277E-1	9.391877E-1	9.181159E-1	9.171422E-1	9.164359E-1	9.196675E-1	8.979648E-1	8.691514E-1	1.042904E+0	8.990698E-1	9.931697E-1	9.257619E-1	9.403312E-1	9.691631E-1	9.312073E-1	9.021150E-1	9.452860E-1	8.825940E-1	9.379817E-1	9.016115E-1	8.901217E-1
5.367660E+2	7.625323E-1	7.162604E-1	7.641528E-1	7.311313E-1	6.796474E-1	7.136778E-1	7.103160E-1	7.451981E-1	6.916881E-1	6.608904E-1	7.357993E-1	6.498999E-1	7.458421E-1	7.368241E-1	7.081257E-1	6.986815E-1	7.045553E-1	6.874487E-1	7.410160E-1	7.034736E-1	6.654212E-1	6.722527E-1	7.227049E-1	7.379180E-1	7.242769E-1	7.404132E-1	7.476920E-1	7.397044E-1	7.229176E-1	7.446500E-1	7.266372E-1	7.027686E-1	7.066418E-1	7.115125E-1	7.441012E-1	6.628325E-1	7.038013E-1	6.811465E-1	6.821248E-1	7.106017E-1	7.102253E-1	7.539928E-1	7.370197E-1	7.130140E-1	7.147888E-1	7.411220E-1	6.748818E-1	6.924789E-1	7.065192E-1	7.399497E-1	6.859700E-1	6.913971E-1	6.826140E-1	7.010865E-1	6.828902E-1	7.305702E-1	7.070088E-1	7.065614E-1	7.118028E-1	7.594556E-1	7.509363E-1	6.859327E-1	7.265920E-1	7.150931E-1	7.466798E-1	7.648781E-1	7.530725E-1	7.319051E-1	7.105817E-1	7.182708E-1	7.542266E-1	7.152108E-1	7.520577E-1	6.913411E-1	6.809508E-1	7.311950E-1	7.277080E-1	7.035716E-1	7.151388E-1	7.038682E-1	7.557665E-1	6.962329E-1	7.459890E-1	7.411990E-1	7.185319E-1	7.306574E-1	6.858882E-1	7.270244E-1	7.601868E-1	7.259798E-1	6.749556E-1	7.556869E-1	6.866546E-1	6.892524E-1	7.201765E-1	7.164756E-1	7.328044E-1	6.793120E-1	7.291617E-1	6.987190E-1	7.309817E-1	7.405361E-1	7.065027E-1	7.392206E-1	7.117131E-1	7.555199E-1	7.341361E-1	6.985202E-1	7.129499E-1	7.278454E-1	7.139297E-1	7.061265E-1	7.387196E-1	7.373888E-1	6.876225E-1	6.991581E-1	7.075631E-1	7.139751E-1	7.408965E-1	7.551379E-1	7.320380E-1	7.412174E-1	7.320467E-1	7.301500E-1	7.520657E-1	7.214411E-1	7.153644E-1	7.348266E-1	7.564992E-1	7.413027E-1	7.398447E-1	6.971169E-1	7.056735E-1	7.227027E-1	7.469598E-1	7.188299E-1	7.099063E-1	7.299826E-1	7.069599E-1	7.187817E-1	7.245758E-1	7.118119E-1	7.483725E-1	6.935746E-1	7.803851E-1	7.681071E-1	7.252207E-1	6.730041E-1	7.492172E-1	7.539817E-1	7.066925E-1	7.217855E-1	7.417550E-1	7.048948E-1	7.205538E-1	7.688783E-1	7.161869E-1	7.118457E-1	6.934376E-1	6.927594E-1	7.468245E-1	7.479114E-1	7.030760E-1	6.763316E-1	7.282694E-1	7.323463E-1
5.370070E+2	5.985123E-1	5.937452E-1	5.797073E-1	5.552195E-1	5.840104E-1	5.631806E-1	5.818994E-1	5.818581E-1	5.400972E-1	5.321838E-1	6.065126E-1	5.844110E-1	5.732436E-1	5.607174E-1	5.887102E-1	5.392507E-1	5.568721E-1	5.565872E-1	5.840361E-1	5.660018E-1	5.630541E-1	5.491887E-1	5.656877E-1	5.661324E-1	5.516171E-1	5.790189E-1	6.005537E-1	5.850983E-1	5.253317E-1	5.465935E-1	5.504645E-1	5.576196E-1	5.513852E-1	5.565169E-1	5.722666E-1	5.819664E-1	5.630951E-1	5.536910E-1	5.664271E-1	5.671900E-1	5.581412E-1	5.587724E-1	6.098829E-1	5.467051E-1	5.777158E-1	5.529289E-1	5.634825E-1	5.676738E-1	5.573556E-1	5.661877E-1	5.012577E-1	5.397339E-1	5.533268E-1	5.716614E-1	6.224134E-1	5.445398E-1	5.538288E-1	5.692474E-1	6.056784E-1	6.133126E-1	5.467523E-1	5.572563E-1	5.559985E-1	5.395982E-1	5.947365E-1	5.392889E-1	5.585510E-1	5.908586E-1	5.671446E-1	5.319645E-1	5.886554E-1	5.649127E-1	5.600072E-1	5.734014E-1	5.360202E-1	5.905321E-1	5.809604E-1	5.512911E-1	5.852247E-1	5.916709E-1	5.741838E-1	5.300964E-1	5.833462E-1	5.608573E-1	5.596114E-1	5.827663E-1	5.471270E-1	5.447233E-1	5.698216E-1	6.008716E-1	6.033753E-1	5.843219E-1	5.492578E-1	5.751770E-1	5.401098E-1	5.582867E-1	5.728425E-1	5.262793E-1	5.840738E-1	5.713147E-1	5.726095E-1	5.582355E-1	5.767253E-1	5.483065E-1	5.794744E-1	5.454503E-1	5.614133E-1	5.490332E-1	5.853883E-1	5.250145E-1	5.792089E-1	6.123712E-1	5.853575E-1	5.609415E-1	5.910725E-1	5.647806E-1	5.764003E-1	5.914512E-1	5.816638E-1	5.881010E-1	5.687276E-1	5.693894E-1	5.534056E-1	5.690906E-1	5.540570E-1	5.286050E-1	5.580661E-1	5.895606E-1	6.051785E-1	5.534925E-1	5.272613E-1	5.077287E-1	5.606493E-1	5.697183E-1	5.671460E-1	5.685208E-1	5.894665E-1	5.690036E-1	5.699537E-1	5.462402E-1	5.359594E-1	5.470136E-1	5.401455E-1	5.709515E-1	5.851003E-1	5.465656E-1	6.106347E-1	5.677876E-1	5.643515E-1	5.736445E-1	6.025738E-1	5.683350E-1	5.652462E-1	5.885204E-1	5.729133E-1	5.625442E-1	5.622487E-1	5.749730E-1	5.541956E-1	5.769619E-1	6.041253E-1	5.802083E-1	5.855228E-1	5.569549E-1	6.046061E-1	5.352728E-1
5.372640E+2	5.172140E-1	5.212590E-1	5.087128E-1	4.990396E-1	4.892772E-1	4.980580E-1	5.371609E-1	5.384122E-1	4.991094E-1	5.067380E-1	5.162189E-1	5.479576E-1	5.358424E-1	5.265840E-1	4.987312E-1	5.001429E-1	5.059292E-1	5.250460E-1	5.331521E-1	4.612515E-1	5.299815E-1	5.073029E-1	5.040712E-1	5.441322E-1	5.373155E-1	4.966014E-1	5.492542E-1	5.290048E-1	5.071325E-1	5.248158E-1	5.300420E-1	5.008365E-1	5.221813E-1	4.976614E-1	5.445626E-1	5.469201E-1	4.940553E-1	5.057255E-1	5.393123E-1	5.033644E-1	4.644309E-1	5.127211E-1	5.330283E-1	5.207406E-1	5.438354E-1	5.009126E-1	5.220389E-1	4.973531E-1	5.303842E-1	4.976856E-1	4.954248E-1	5.348881E-1	5.076601E-1	4.979299E-1	5.243459E-1	5.055855E-1	5.204608E-1	4.962820E-1	5.215322E-1	5.308078E-1	5.288308E-1	5.009250E-1	4.825529E-1	5.355301E-1	5.054749E-1	5.012420E-1	5.116007E-1	4.704597E-1	5.070775E-1	4.837445E-1	5.073754E-1	4.990038E-1	5.275669E-1	4.945597E-1	5.272128E-1	5.305482E-1	5.269731E-1	5.136124E-1	5.293329E-1	5.063868E-1	5.275987E-1	5.492485E-1	5.418766E-1	5.643556E-1	4.787122E-1	5.201441E-1	5.163448E-1	5.120533E-1	5.178716E-1	5.251351E-1	5.064350E-1	5.123922E-1	5.389124E-1	5.438651E-1	5.194370E-1	4.749093E-1	5.097109E-1	5.193737E-1	5.275461E-1	5.468176E-1	5.209580E-1	5.114749E-1	5.268684E-1	5.477402E-1	4.988133E-1	5.319604E-1	5.113322E-1	4.797390E-1	4.973578E-1	5.098315E-1	5.333530E-1	5.357328E-1	4.930083E-1	5.225507E-1	5.279718E-1	5.329463E-1	4.985070E-1	5.316600E-1	5.087715E-1	5.165064E-1	5.161453E-1	5.264148E-1	5.413881E-1	4.964701E-1	5.020599E-1	4.959215E-1	5.386098E-1	5.140551E-1	5.188330E-1	5.180552E-1	5.022259E-1	5.035021E-1	4.982925E-1	5.010816E-1	4.856690E-1	5.489966E-1	4.902968E-1	4.884626E-1	5.383660E-1	5.298372E-1	5.386865E-1	5.070613E-1	5.236470E-1	5.298659E-1	5.252052E-1	5.167487E-1	5.253800E-1	5.331851E-1	5.473783E-1	5.255233E-1	5.365733E-1	5.320389E-1	5.112004E-1	5.289158E-1	5.436301E-1	4.806469E-1	5.085987E-1	5.154687E-1	5.395486E-1	4.948166E-1	5.134202E-1	5.462344E-1	5.027969E-1	5.055162E-1	4.790868E-1	4.973732E-1
5.375060E+2	5.067466E-1	4.834971E-1	4.897947E-1	5.030157E-1	4.754428E-1	4.873153E-1	5.220764E-1	4.974627E-1	4.818368E-1	4.996936E-1	5.423104E-1	4.806266E-1	4.897005E-1	4.663915E-1	4.991697E-1	5.041047E-1	5.307811E-1	4.526572E-1	5.514232E-1	5.334410E-1	5.240798E-1	4.948403E-1	4.891096E-1	4.944359E-1	5.069232E-1	4.937965E-1	5.184562E-1	5.006137E-1	4.446272E-1	5.166606E-1	4.881547E-1	4.790612E-1	5.326291E-1	5.178187E-1	5.040383E-1	4.602956E-1	4.820426E-1	4.947801E-1	5.191913E-1	5.097861E-1	4.519493E-1	5.115327E-1	5.449932E-1	4.981755E-1	5.256544E-1	4.947201E-1	4.790473E-1	5.190129E-1	5.263279E-1	5.299225E-1	5.024687E-1	4.858854E-1	5.169549E-1	4.846313E-1	5.151568E-1	5.002680E-1	4.953521E-1	4.881034E-1	5.095944E-1	4.812871E-1	4.719725E-1	5.064233E-1	5.051806E-1	4.913515E-1	5.292002E-1	5.212065E-1	5.000744E-1	4.947686E-1	4.845400E-1	5.110146E-1	5.429748E-1	5.048186E-1	4.837214E-1	4.976719E-1	4.706739E-1	4.658684E-1	5.263564E-1	5.180911E-1	4.979141E-1	5.426168E-1	4.612750E-1	4.974221E-1	5.167167E-1	5.261579E-1	4.754493E-1	4.923900E-1	4.880174E-1	5.356576E-1	5.054842E-1	4.830486E-1	5.290114E-1	5.206856E-1	5.226578E-1	5.014304E-1	4.876109E-1	5.191069E-1	4.983777E-1	5.375935E-1	5.139802E-1	4.787786E-1	5.004468E-1	5.301735E-1	4.854366E-1	4.985687E-1	5.006335E-1	5.029179E-1	5.146027E-1	5.212376E-1	5.325626E-1	4.627175E-1	4.920560E-1	5.169273E-1	5.331596E-1	5.022566E-1	5.240546E-1	4.802561E-1	5.281775E-1	4.923570E-1	5.395088E-1	4.902302E-1	4.854679E-1	5.268892E-1	4.930895E-1	5.171047E-1	5.094361E-1	4.714857E-1	4.999932E-1	4.991244E-1	5.144635E-1	4.745965E-1	5.406806E-1	5.121353E-1	5.057662E-1	5.002278E-1	4.814270E-1	4.969675E-1	5.006479E-1	4.998821E-1	4.746660E-1	5.153406E-1	4.953084E-1	5.088408E-1	5.322853E-1	5.060367E-1	4.953247E-1	5.238806E-1	5.238017E-1	4.653482E-1	5.198601E-1	5.010465E-1	5.256733E-1	4.840537E-1	5.058143E-1	5.306531E-1	5.229212E-1	4.942180E-1	5.056754E-1	5.182522E-1	5.239141E-1	4.959001E-1	5.034067E-1	4.796723E-1	4.816481E-1	4.831315E-1	4.721712E-1	4.496009E-1
5.377740E+2	5.712422E-1	5.544316E-1	5.717844E-1	5.576186E-1	5.562072E-1	5.246959E-1	5.662236E-1	5.675435E-1	5.220663E-1	5.379287E-1	5.591602E-1	5.102320E-1	5.797916E-1	5.360761E-1	5.308707E-1	5.169911E-1	5.573155E-1	5.405024E-1	5.441122E-1	5.240439E-1	5.654873E-1	5.443811E-1	5.477097E-1	5.314341E-1	5.286747E-1	5.439889E-1	5.918730E-1	5.488622E-1	5.463565E-1	6.117060E-1	5.423718E-1	5.574755E-1	5.546165E-1	5.388113E-1	5.505575E-1	5.724505E-1	5.454975E-1	5.519549E-1	5.698401E-1	5.830641E-1	5.460150E-1	5.781639E-1	5.792866E-1	5.714926E-1	5.431364E-1	5.563281E-1	5.455368E-1	5.388937E-1	5.470139E-1	5.856258E-1	5.174584E-1	5.471914E-1	5.459771E-1	5.430075E-1	5.731776E-1	5.538928E-1	5.552161E-1	5.681142E-1	5.438405E-1	5.329754E-1	5.712169E-1	5.539697E-1	5.629950E-1	5.610047E-1	5.357074E-1	5.587720E-1	5.568345E-1	5.919703E-1	5.197185E-1	5.444874E-1	6.159206E-1	5.565797E-1	5.672232E-1	5.431140E-1	5.485510E-1	5.744637E-1	5.620036E-1	5.259049E-1	5.585255E-1	5.433138E-1	5.554049E-1	5.676686E-1	5.414122E-1	5.586994E-1	5.453760E-1	5.722513E-1	5.428350E-1	5.763866E-1	5.754055E-1	5.827903E-1	5.635449E-1	6.003152E-1	5.069705E-1	5.592523E-1	5.751962E-1	5.558781E-1	5.853470E-1	6.126319E-1	5.532686E-1	5.436287E-1	5.634398E-1	5.489893E-1	5.652424E-1	6.065513E-1	5.486414E-1	5.445286E-1	5.483187E-1	5.629205E-1	5.540244E-1	5.429362E-1	6.019215E-1	6.053369E-1	5.777544E-1	5.589801E-1	5.280304E-1	5.646921E-1	5.835652E-1	5.044808E-1	5.534061E-1	5.809505E-1	5.649669E-1	5.740244E-1	5.435196E-1	5.349406E-1	5.461545E-1	5.644186E-1	5.479194E-1	5.907857E-1	5.506840E-1	5.937256E-1	5.361591E-1	5.731394E-1	5.265133E-1	5.326468E-1	5.797167E-1	5.996297E-1	6.130471E-1	5.510045E-1	5.283246E-1	5.441328E-1	5.559934E-1	5.652644E-1	5.874647E-1	5.403611E-1	5.657217E-1	5.923089E-1	5.330000E-1	5.503760E-1	5.686994E-1	5.617924E-1	5.507248E-1	5.814730E-1	5.419037E-1	5.317842E-1	5.740328E-1	5.733268E-1	5.122470E-1	5.518992E-1	5.693060E-1	5.649790E-1	5.858982E-1	5.400605E-1	5.892110E-1	5.438030E-1	5.556206E-1	5.455499E-1
5.380160E+2	6.166707E-1	5.822745E-1	6.058851E-1	6.027417E-1	5.949963E-1	5.876083E-1	6.149184E-1	5.528325E-1	6.038982E-1	5.925240E-1	6.103126E-1	6.363909E-1	5.936518E-1	6.334227E-1	6.287696E-1	6.102504E-1	6.216191E-1	5.934766E-1	5.966546E-1	6.057558E-1	5.890524E-1	5.858371E-1	6.158532E-1	6.318329E-1	5.920072E-1	6.234365E-1	6.017330E-1	6.095036E-1	5.649174E-1	5.952474E-1	6.065309E-1	5.724794E-1	5.976862E-1	6.165263E-1	6.126764E-1	5.902549E-1	5.452393E-1	5.947123E-1	6.050099E-1	5.883984E-1	5.898825E-1	6.125693E-1	6.245400E-1	6.258513E-1	5.946681E-1	6.302900E-1	5.762980E-1	5.766075E-1	5.731683E-1	6.409026E-1	5.929108E-1	6.232396E-1	5.675949E-1	6.085858E-1	6.073007E-1	5.914528E-1	5.974063E-1	5.983074E-1	6.309408E-1	6.261666E-1	6.176928E-1	5.827735E-1	6.410733E-1	6.108819E-1	6.331247E-1	6.121618E-1	6.224181E-1	5.781394E-1	5.778931E-1	6.229107E-1	5.750009E-1	5.786720E-1	5.791297E-1	6.425553E-1	6.178253E-1	6.046268E-1	5.907922E-1	6.144970E-1	6.147305E-1	5.558576E-1	6.176225E-1	6.191569E-1	6.383711E-1	5.736023E-1	5.843889E-1	5.857678E-1	6.399265E-1	6.237724E-1	6.071715E-1	6.631389E-1	6.413693E-1	5.937958E-1	6.054969E-1	6.233144E-1	5.947585E-1	5.982955E-1	6.128083E-1	6.034352E-1	6.062870E-1	6.105545E-1	6.246590E-1	6.103974E-1	5.889152E-1	6.216422E-1	6.073475E-1	5.982408E-1	6.029747E-1	6.194438E-1	6.203851E-1	6.197634E-1	6.225344E-1	5.902733E-1	5.980385E-1	6.171355E-1	6.251467E-1	6.396300E-1	6.409481E-1	6.113615E-1	6.231757E-1	6.142583E-1	6.394836E-1	5.824432E-1	5.992710E-1	5.897718E-1	6.085620E-1	6.063448E-1	6.028730E-1	5.981609E-1	6.241741E-1	6.200646E-1	6.033629E-1	6.176954E-1	5.904057E-1	5.970964E-1	5.888072E-1	6.376421E-1	5.954593E-1	6.021223E-1	5.926316E-1	6.104513E-1	6.194225E-1	6.059185E-1	5.735779E-1	6.120186E-1	6.102758E-1	6.097398E-1	5.789272E-1	5.955667E-1	5.887623E-1	6.246559E-1	6.032064E-1	6.235466E-1	6.276327E-1	6.526693E-1	5.711515E-1	5.970982E-1	6.054058E-1	6.194809E-1	6.211313E-1	5.896973E-1	6.314266E-1	5.937036E-1	6.180842E-1	5.974072E-1	5.905012E-1	6.092598E-1
5.382850E+2	7.415599E-1	7.389309E-1	7.580483E-1	6.870102E-1	7.187748E-1	7.082433E-1	7.824068E-1	7.136709E-1	7.395406E-1	7.457880E-1	7.448887E-1	6.899067E-1	7.264351E-1	6.959527E-1	7.023358E-1	7.484348E-1	7.362005E-1	7.082920E-1	7.244464E-1	7.031602E-1	7.111347E-1	6.606461E-1	6.877180E-1	7.202300E-1	7.101193E-1	7.253301E-1	7.566758E-1	6.559225E-1	7.207628E-1	7.128551E-1	7.141650E-1	6.984647E-1	7.350933E-1	7.161032E-1	7.211056E-1	6.912976E-1	6.943032E-1	6.802429E-1	7.771479E-1	7.376162E-1	7.006664E-1	7.135491E-1	7.634725E-1	6.838665E-1	7.624976E-1	7.022350E-1	6.967963E-1	7.006882E-1	7.366806E-1	7.290029E-1	6.586006E-1	6.681943E-1	6.952774E-1	7.292550E-1	7.482085E-1	7.442907E-1	7.340107E-1	7.389322E-1	7.664368E-1	7.217664E-1	7.048472E-1	7.440374E-1	6.858962E-1	7.170614E-1	7.045448E-1	7.297729E-1	7.232464E-1	7.631838E-1	7.121452E-1	7.666044E-1	6.843505E-1	7.084430E-1	7.159001E-1	7.336572E-1	7.306733E-1	7.521413E-1	7.585949E-1	7.430566E-1	7.235356E-1	7.206174E-1	7.385750E-1	7.766427E-1	7.333375E-1	7.011667E-1	7.148104E-1	7.066142E-1	6.938476E-1	7.271790E-1	7.505311E-1	7.006262E-1	7.086621E-1	7.628512E-1	6.974341E-1	7.171259E-1	7.383471E-1	7.016792E-1	7.010808E-1	6.960396E-1	7.204049E-1	7.216665E-1	7.410707E-1	7.126993E-1	7.121074E-1	7.157157E-1	7.441918E-1	7.329764E-1	7.527971E-1	6.840490E-1	7.208071E-1	7.154348E-1	7.325505E-1	7.460199E-1	7.230411E-1	7.244192E-1	7.085836E-1	7.476160E-1	7.081219E-1	6.968192E-1	7.275249E-1	7.436922E-1	6.785444E-1	7.272037E-1	7.379847E-1	7.721645E-1	7.282203E-1	7.250473E-1	7.073085E-1	7.066543E-1	6.938893E-1	7.086111E-1	7.160593E-1	7.351366E-1	6.891090E-1	7.299527E-1	7.436029E-1	7.326197E-1	7.279263E-1	7.039343E-1	7.332749E-1	6.914324E-1	7.539932E-1	7.654994E-1	7.027726E-1	7.074495E-1	7.537536E-1	6.885524E-1	7.252852E-1	6.926277E-1	7.208354E-1	7.249127E-1	7.238595E-1	7.006509E-1	7.349871E-1	7.587186E-1	7.573840E-1	7.004006E-1	7.562744E-1	7.599318E-1	7.251763E-1	7.102218E-1	7.322459E-1	7.224650E-1	7.570868E-1	6.708967E-1	6.717433E-1	6.963693E-1
5.385110E+2	8.566674E-1	8.428063E-1	8.957986E-1	8.291270E-1	8.799382E-1	8.285020E-1	8.408713E-1	8.759859E-1	8.237265E-1	8.284115E-1	8.860208E-1	8.095384E-1	8.676059E-1	8.789354E-1	8.422770E-1	8.049344E-1	8.722445E-1	8.644248E-1	8.288591E-1	8.758778E-1	8.458147E-1	8.445208E-1	8.596486E-1	8.461976E-1	8.451432E-1	8.660489E-1	8.217166E-1	8.648663E-1	8.157194E-1	8.684708E-1	8.257404E-1	8.119301E-1	8.249713E-1	7.991036E-1	7.951297E-1	8.593995E-1	8.388178E-1	8.586520E-1	8.310556E-1	8.762903E-1	7.793516E-1	8.317833E-1	8.811894E-1	9.038043E-1	8.083216E-1	8.775089E-1	8.313215E-1	7.910963E-1	8.433816E-1	8.537920E-1	8.466892E-1	7.922357E-1	8.572318E-1	8.520588E-1	8.489647E-1	8.420095E-1	9.379384E-1	8.199323E-1	8.466481E-1	8.509038E-1	8.781191E-1	8.196446E-1	8.036418E-1	8.282242E-1	8.728840E-1	9.164567E-1	8.080348E-1	8.345289E-1	7.873385E-1	8.438367E-1	8.569484E-1	8.469847E-1	8.417492E-1	8.323851E-1	8.100000E-1	8.831014E-1	8.986437E-1	8.677130E-1	8.325977E-1	8.218056E-1	8.321286E-1	8.432246E-1	8.180417E-1	8.565447E-1	8.524111E-1	8.713354E-1	8.431121E-1	8.470884E-1	8.265942E-1	8.659780E-1	7.990362E-1	8.397626E-1	8.254033E-1	8.614481E-1	9.193329E-1	8.308223E-1	8.172729E-1	8.388868E-1	9.023127E-1	8.031836E-1	8.425446E-1	8.242304E-1	8.563680E-1	8.864684E-1	8.209490E-1	8.443915E-1	8.445072E-1	8.347284E-1	8.425485E-1	8.547010E-1	8.338764E-1	8.232574E-1	8.116688E-1	8.476536E-1	8.142608E-1	8.082780E-1	8.451039E-1	7.918291E-1	8.598828E-1	8.624200E-1	8.519085E-1	8.474596E-1	8.340912E-1	8.474538E-1	8.596751E-1	8.007755E-1	8.528240E-1	8.924524E-1	8.898964E-1	8.369181E-1	8.610473E-1	8.488501E-1	8.109106E-1	8.509689E-1	8.442052E-1	8.779060E-1	9.042337E-1	8.812139E-1	8.389104E-1	7.896795E-1	8.697404E-1	8.297329E-1	8.817497E-1	8.536401E-1	8.137644E-1	8.781356E-1	8.592718E-1	8.409145E-1	8.729011E-1	8.198974E-1	8.575310E-1	8.429109E-1	8.681513E-1	8.018016E-1	8.478907E-1	8.449471E-1	8.081152E-1	8.456051E-1	7.953432E-1	8.281512E-1	8.199823E-1	8.523988E-1	8.517099E-1	8.417263E-1	9.199408E-1	7.749836E-1
5.387600E+2	1.018659E+0	1.042957E+0	1.013870E+0	1.001885E+0	1.033761E+0	1.018871E+0	1.030400E+0	1.060355E+0	1.013836E+0	9.932462E-1	9.960132E-1	1.059387E+0	9.994178E-1	1.040163E+0	9.884904E-1	1.012422E+0	1.069810E+0	9.941996E-1	1.023031E+0	1.035272E+0	9.886492E-1	9.587164E-1	1.022319E+0	1.073787E+0	1.042615E+0	1.019491E+0	1.008900E+0	1.065610E+0	9.864747E-1	1.045921E+0	1.014706E+0	9.976331E-1	1.027188E+0	9.922011E-1	9.910624E-1	1.029430E+0	1.032152E+0	1.042394E+0	1.067634E+0	1.032807E+0	9.955536E-1	1.041101E+0	1.039005E+0	1.017737E+0	1.052748E+0	1.048371E+0	9.505314E-1	1.031061E+0	1.013886E+0	9.934017E-1	1.018743E+0	9.880154E-1	1.017064E+0	1.051896E+0	1.014557E+0	1.033980E+0	1.034736E+0	1.006253E+0	1.013751E+0	1.022240E+0	9.987382E-1	1.041882E+0	9.969993E-1	9.780672E-1	9.967491E-1	1.067288E+0	1.048667E+0	1.018834E+0	9.680962E-1	9.871021E-1	9.841782E-1	9.920988E-1	1.005694E+0	1.020561E+0	9.815192E-1	1.008787E+0	1.022848E+0	1.007184E+0	1.026994E+0	9.945281E-1	9.997801E-1	1.039925E+0	1.037748E+0	1.085086E+0	1.006010E+0	1.011859E+0	9.713013E-1	9.919257E-1	9.535707E-1	1.001959E+0	1.023010E+0	1.041560E+0	9.285945E-1	1.036659E+0	1.014636E+0	1.016403E+0	1.029764E+0	9.963667E-1	1.027642E+0	1.023857E+0	1.021631E+0	1.002824E+0	1.018936E+0	1.010709E+0	1.041696E+0	1.053691E+0	1.030476E+0	1.011393E+0	1.038856E+0	1.089097E+0	1.055598E+0	1.026195E+0	1.019938E+0	1.010324E+0	1.004319E+0	1.039778E+0	1.023270E+0	1.010931E+0	9.935300E-1	9.835185E-1	1.002946E+0	1.015161E+0	1.031917E+0	1.004586E+0	1.018108E+0	1.043817E+0	9.945692E-1	1.051622E+0	1.046327E+0	1.032450E+0	1.034960E+0	9.900806E-1	1.037838E+0	9.999165E-1	9.872172E-1	1.006710E+0	1.005773E+0	1.041847E+0	1.002678E+0	1.019913E+0	1.013096E+0	9.948242E-1	1.037260E+0	9.868624E-1	1.037688E+0	9.597971E-1	1.030314E+0	9.862819E-1	1.028438E+0	9.613791E-1	1.059835E+0	1.043444E+0	1.064347E+0	9.841513E-1	1.000531E+0	9.755407E-1	1.017367E+0	1.065256E+0	1.045855E+0	1.006480E+0	1.013267E+0	1.079834E+0	1.054236E+0	1.020456E+0	1.022633E+0	9.776001E-1
5.390240E+2	1.281901E+0	1.207707E+0	1.209059E+0	1.209710E+0	1.225884E+0	1.252478E+0	1.209696E+0	1.240954E+0	1.243188E+0	1.228625E+0	1.144083E+0	1.248731E+0	1.239066E+0	1.242091E+0	1.204699E+0	1.207989E+0	1.293078E+0	1.199335E+0	1.235627E+0	1.226625E+0	1.206055E+0	1.190510E+0	1.218194E+0	1.251848E+0	1.260463E+0	1.276663E+0	1.239840E+0	1.249738E+0	1.211852E+0	1.235695E+0	1.191774E+0	1.213200E+0	1.269039E+0	1.204662E+0	1.202204E+0	1.213264E+0	1.237352E+0	1.209613E+0	1.194521E+0	1.258301E+0	1.241640E+0	1.217462E+0	1.249755E+0	1.265088E+0	1.245539E+0	1.245001E+0	1.151299E+0	1.238784E+0	1.249030E+0	1.242086E+0	1.206889E+0	1.270696E+0	1.258410E+0	1.219193E+0	1.256167E+0	1.250479E+0	1.237444E+0	1.248425E+0	1.266275E+0	1.215353E+0	1.242197E+0	1.185757E+0	1.150066E+0	1.275772E+0	1.313788E+0	1.206387E+0	1.277330E+0	1.226772E+0	1.167128E+0	1.261373E+0	1.222887E+0	1.241690E+0	1.208542E+0	1.250784E+0	1.208164E+0	1.229036E+0	1.238456E+0	1.220853E+0	1.222890E+0	1.249388E+0	1.234694E+0	1.249963E+0	1.207460E+0	1.286827E+0	1.179287E+0	1.261343E+0	1.264282E+0	1.247553E+0	1.237639E+0	1.245909E+0	1.258630E+0	1.277651E+0	1.241651E+0	1.189178E+0	1.243741E+0	1.269669E+0	1.243127E+0	1.195175E+0	1.240430E+0	1.231337E+0	1.202722E+0	1.251745E+0	1.245409E+0	1.260253E+0	1.293158E+0	1.257728E+0	1.195920E+0	1.172101E+0	1.248815E+0	1.219747E+0	1.242492E+0	1.240780E+0	1.231246E+0	1.249333E+0	1.236889E+0	1.257940E+0	1.177561E+0	1.207673E+0	1.228624E+0	1.232703E+0	1.205188E+0	1.268494E+0	1.202062E+0	1.189540E+0	1.254828E+0	1.197602E+0	1.240793E+0	1.219326E+0	1.194996E+0	1.189678E+0	1.232863E+0	1.205541E+0	1.193193E+0	1.176563E+0	1.232761E+0	1.201199E+0	1.223983E+0	1.194893E+0	1.209548E+0	1.237455E+0	1.239617E+0	1.210751E+0	1.220120E+0	1.210546E+0	1.225931E+0	1.218118E+0	1.259412E+0	1.169574E+0	1.211678E+0	1.189788E+0	1.268139E+0	1.230929E+0	1.268776E+0	1.205618E+0	1.184823E+0	1.194422E+0	1.269814E+0	1.239610E+0	1.196699E+0	1.260356E+0	1.186430E+0	1.314279E+0	1.258664E+0	1.236386E+0	1.139879E+0	1.277189E+0
5.392670E+2	1.496676E+0	1.408753E+0	1.439330E+0	1.413840E+0	1.428761E+0	1.342701E+0	1.400964E+0	1.467198E+0	1.475983E+0	1.413946E+0	1.400532E+0	1.438429E+0	1.430996E+0	1.444079E+0	1.376074E+0	1.385795E+0	1.489742E+0	1.363363E+0	1.450082E+0	1.393519E+0	1.395422E+0	1.389798E+0	1.373562E+0	1.389045E+0	1.439438E+0	1.447712E+0	1.437358E+0	1.425035E+0	1.396300E+0	1.405918E+0	1.389566E+0	1.407977E+0	1.474760E+0	1.391649E+0	1.360998E+0	1.429531E+0	1.429318E+0	1.419807E+0	1.388903E+0	1.435541E+0	1.369945E+0	1.406709E+0	1.425636E+0	1.404306E+0	1.423101E+0	1.436101E+0	1.375431E+0	1.409898E+0	1.400063E+0	1.444326E+0	1.380503E+0	1.404963E+0	1.406057E+0	1.454318E+0	1.413627E+0	1.423902E+0	1.368178E+0	1.370693E+0	1.465737E+0	1.421727E+0	1.429309E+0	1.357677E+0	1.330200E+0	1.425790E+0	1.429784E+0	1.389188E+0	1.441112E+0	1.450206E+0	1.393537E+0	1.445530E+0	1.402839E+0	1.469526E+0	1.449208E+0	1.340989E+0	1.386140E+0	1.430481E+0	1.463545E+0	1.441926E+0	1.403569E+0	1.421903E+0	1.375284E+0	1.391696E+0	1.376914E+0	1.403837E+0	1.342202E+0	1.382556E+0	1.386944E+0	1.396979E+0	1.373853E+0	1.429143E+0	1.452436E+0	1.423201E+0	1.383872E+0	1.377248E+0	1.450147E+0	1.397750E+0	1.413034E+0	1.402773E+0	1.392510E+0	1.302413E+0	1.376689E+0	1.364180E+0	1.425877E+0	1.408836E+0	1.410005E+0	1.459378E+0	1.452513E+0	1.369316E+0	1.347954E+0	1.401165E+0	1.411269E+0	1.434781E+0	1.438726E+0	1.420294E+0	1.360447E+0	1.416198E+0	1.372862E+0	1.440114E+0	1.384569E+0	1.429970E+0	1.385666E+0	1.359241E+0	1.421784E+0	1.417020E+0	1.430613E+0	1.365316E+0	1.459556E+0	1.380648E+0	1.483497E+0	1.411135E+0	1.422927E+0	1.353434E+0	1.410560E+0	1.414607E+0	1.361680E+0	1.386667E+0	1.383816E+0	1.394543E+0	1.392892E+0	1.401890E+0	1.452762E+0	1.388429E+0	1.394358E+0	1.325248E+0	1.473675E+0	1.502382E+0	1.431639E+0	1.392274E+0	1.419685E+0	1.406669E+0	1.443570E+0	1.407034E+0	1.422201E+0	1.405736E+0	1.396748E+0	1.422597E+0	1.432888E+0	1.410164E+0	1.410907E+0	1.410052E+0	1.353943E+0	1.425370E+0	1.351655E+0	1.301754E+0	1.296615E+0	1.372744E+0
5.395160E+2	1.734922E+0	1.662357E+0	1.650776E+0	1.599957E+0	1.600681E+0	1.633993E+0	1.600682E+0	1.576866E+0	1.609519E+0	1.581051E+0	1.557730E+0	1.584176E+0	1.715636E+0	1.614697E+0	1.580675E+0	1.620965E+0	1.668267E+0	1.583128E+0	1.639463E+0	1.588224E+0	1.625853E+0	1.610703E+0	1.606586E+0	1.616968E+0	1.619310E+0	1.683529E+0	1.619301E+0	1.596262E+0	1.594800E+0	1.709715E+0	1.671700E+0	1.630915E+0	1.592443E+0	1.545281E+0	1.629601E+0	1.637286E+0	1.667604E+0	1.626622E+0	1.605227E+0	1.659159E+0	1.618177E+0	1.705412E+0	1.660706E+0	1.548569E+0	1.650203E+0	1.714632E+0	1.594209E+0	1.569992E+0	1.646003E+0	1.669084E+0	1.642388E+0	1.571076E+0	1.637531E+0	1.701919E+0	1.631299E+0	1.645124E+0	1.654133E+0	1.624480E+0	1.659411E+0	1.647460E+0	1.729845E+0	1.609548E+0	1.588619E+0	1.627635E+0	1.574521E+0	1.659816E+0	1.621699E+0	1.578556E+0	1.595876E+0	1.651042E+0	1.659772E+0	1.580089E+0	1.638825E+0	1.623938E+0	1.565207E+0	1.648221E+0	1.559028E+0	1.619207E+0	1.577850E+0	1.651846E+0	1.553312E+0	1.639710E+0	1.598228E+0	1.587842E+0	1.544351E+0	1.619659E+0	1.601398E+0	1.568499E+0	1.619097E+0	1.611005E+0	1.588653E+0	1.622680E+0	1.568585E+0	1.560769E+0	1.606909E+0	1.643929E+0	1.600826E+0	1.595570E+0	1.640920E+0	1.568245E+0	1.549280E+0	1.583840E+0	1.561049E+0	1.591695E+0	1.597208E+0	1.609282E+0	1.568907E+0	1.573439E+0	1.576118E+0	1.573936E+0	1.595663E+0	1.602004E+0	1.642697E+0	1.547494E+0	1.539177E+0	1.575162E+0	1.584064E+0	1.547062E+0	1.537424E+0	1.578521E+0	1.630242E+0	1.639881E+0	1.568601E+0	1.600102E+0	1.552105E+0	1.567494E+0	1.606377E+0	1.621010E+0	1.622843E+0	1.615300E+0	1.582063E+0	1.565492E+0	1.616702E+0	1.628804E+0	1.618117E+0	1.585704E+0	1.571745E+0	1.658130E+0	1.558858E+0	1.531475E+0	1.574294E+0	1.597268E+0	1.539608E+0	1.541341E+0	1.565056E+0	1.604039E+0	1.594716E+0	1.567352E+0	1.642158E+0	1.604729E+0	1.586521E+0	1.581372E+0	1.589265E+0	1.618287E+0	1.610816E+0	1.561041E+0	1.558651E+0	1.627364E+0	1.606503E+0	1.585798E+0	1.570028E+0	1.568625E+0	1.539424E+0	1.548552E+0	1.503049E+0	1.520513E+0
5.397700E+2	2.001549E+0	1.947078E+0	1.888700E+0	1.962682E+0	1.833534E+0	1.893800E+0	1.844862E+0	1.904685E+0	1.817834E+0	1.898060E+0	1.901375E+0	1.855391E+0	1.930279E+0	1.882109E+0	1.915556E+0	1.861343E+0	1.905875E+0	1.893252E+0	1.915549E+0	1.972651E+0	1.919698E+0	1.816118E+0	1.941408E+0	1.905555E+0	1.876639E+0	1.907411E+0	1.909239E+0	1.933262E+0	1.884040E+0	1.928752E+0	1.890291E+0	1.899459E+0	1.845961E+0	1.863354E+0	1.874844E+0	1.916658E+0	1.865710E+0	1.890594E+0	1.909298E+0	1.917129E+0	1.820660E+0	1.925141E+0	1.993296E+0	1.893048E+0	1.917347E+0	1.929275E+0	1.854364E+0	1.880008E+0	1.943900E+0	1.941338E+0	1.854049E+0	1.824284E+0	1.933677E+0	1.878929E+0	1.888575E+0	1.917340E+0	1.942635E+0	1.916639E+0	1.910090E+0	1.871810E+0	1.917348E+0	1.922705E+0	1.833683E+0	1.899148E+0	1.988365E+0	1.889190E+0	1.870509E+0	1.875828E+0	1.815768E+0	1.892665E+0	1.875033E+0	1.895857E+0	1.891059E+0	1.915284E+0	1.808905E+0	1.939588E+0	1.897383E+0	1.936763E+0	1.826641E+0	1.826021E+0	1.918858E+0	1.796065E+0	1.978516E+0	1.866872E+0	1.799787E+0	1.915752E+0	1.876399E+0	1.869015E+0	1.909029E+0	1.839982E+0	1.776298E+0	1.935984E+0	1.832491E+0	1.888787E+0	1.854136E+0	1.833619E+0	1.884208E+0	1.837019E+0	1.905184E+0	1.903900E+0	1.846753E+0	1.767865E+0	1.804095E+0	1.920750E+0	1.894235E+0	1.884297E+0	1.893724E+0	1.855728E+0	1.860015E+0	1.914139E+0	1.796147E+0	1.910523E+0	1.926311E+0	1.793953E+0	1.808987E+0	1.835990E+0	1.857285E+0	1.809898E+0	1.851733E+0	1.906391E+0	1.863907E+0	1.967244E+0	1.828227E+0	1.862221E+0	1.797303E+0	1.843251E+0	1.880876E+0	1.857305E+0	1.848293E+0	1.906532E+0	1.864773E+0	1.799109E+0	1.896907E+0	1.837889E+0	1.842750E+0	1.851746E+0	1.784245E+0	1.828063E+0	1.782453E+0	1.873332E+0	1.850257E+0	1.924629E+0	1.826945E+0	1.784763E+0	1.836938E+0	1.751654E+0	1.845787E+0	1.810998E+0	1.861458E+0	1.760175E+0	1.904930E+0	1.836159E+0	1.877135E+0	1.818787E+0	1.893884E+0	1.769739E+0	1.934681E+0	1.878752E+0	1.842585E+0	1.814232E+0	1.881530E+0	1.846421E+0	1.747803E+0	1.844426E+0	1.749972E+0	1.808557E+0
5.400190E+2	2.082889E+0	1.964894E+0	1.897539E+0	1.974059E+0	1.923738E+0	1.976883E+0	1.915210E+0	2.020687E+0	1.948478E+0	1.861848E+0	1.951304E+0	1.919776E+0	1.967732E+0	1.923786E+0	1.960690E+0	1.918766E+0	2.027243E+0	1.919189E+0	1.907126E+0	1.913713E+0	1.894945E+0	1.920630E+0	1.901382E+0	2.060284E+0	2.005145E+0	1.960036E+0	1.940028E+0	1.917655E+0	1.837487E+0	1.939734E+0	1.944511E+0	1.927744E+0	1.974861E+0	1.926475E+0	1.900873E+0	1.954030E+0	1.910273E+0	1.958052E+0	1.951190E+0	1.957307E+0	1.933579E+0	1.947594E+0	1.976936E+0	2.037672E+0	1.970195E+0	1.948056E+0	1.886237E+0	1.887217E+0	1.930572E+0	1.924829E+0	1.900050E+0	1.899050E+0	2.004379E+0	1.927729E+0	1.903640E+0	1.901155E+0	1.953550E+0	1.951327E+0	1.945367E+0	1.981435E+0	1.935978E+0	1.904270E+0	1.865623E+0	1.932224E+0	1.869672E+0	1.967017E+0	1.920371E+0	1.924032E+0	1.918173E+0	1.886069E+0	1.948428E+0	1.915091E+0	1.866110E+0	1.830393E+0	1.874056E+0	1.969405E+0	1.880783E+0	1.956865E+0	1.871754E+0	1.909606E+0	1.896110E+0	1.937397E+0	1.947435E+0	1.873429E+0	1.865094E+0	1.853370E+0	1.898494E+0	1.976156E+0	1.912964E+0	1.911853E+0	1.890674E+0	1.953410E+0	1.871260E+0	1.903993E+0	1.870747E+0	1.819175E+0	1.897597E+0	1.899969E+0	1.893175E+0	1.908389E+0	1.870347E+0	1.881821E+0	1.887568E+0	1.951417E+0	1.951637E+0	1.950898E+0	1.816312E+0	1.873827E+0	1.918008E+0	1.877408E+0	1.861532E+0	1.902927E+0	1.904714E+0	1.846999E+0	1.863347E+0	1.872839E+0	1.882528E+0	1.916708E+0	1.895347E+0	1.841577E+0	1.893738E+0	1.946484E+0	1.830222E+0	1.826185E+0	1.889283E+0	1.950618E+0	1.911346E+0	1.867968E+0	1.959467E+0	1.901926E+0	1.909622E+0	1.871144E+0	1.911381E+0	1.865696E+0	1.840287E+0	1.949117E+0	1.876541E+0	1.915987E+0	1.906065E+0	1.816221E+0	1.892401E+0	1.927701E+0	1.832316E+0	1.899459E+0	1.932432E+0	1.873852E+0	1.871026E+0	1.843646E+0	1.907746E+0	1.835043E+0	2.006375E+0	1.808146E+0	1.885835E+0	1.859438E+0	1.883929E+0	1.894079E+0	1.903910E+0	1.917087E+0	1.842335E+0	1.850890E+0	1.906043E+0	1.806845E+0	1.960675E+0	1.808343E+0	1.857756E+0	1.776328E+0
5.402530E+2	2.109579E+0	2.082550E+0	1.977179E+0	2.080002E+0	2.007195E+0	2.104689E+0	2.063996E+0	2.081691E+0	2.008236E+0	2.052597E+0	2.075929E+0	2.071947E+0	2.148545E+0	2.062948E+0	2.020466E+0	2.068676E+0	2.144332E+0	1.986198E+0	2.083802E+0	2.056303E+0	2.054206E+0	1.979011E+0	2.056801E+0	2.057319E+0	2.044764E+0	2.055276E+0	1.965956E+0	2.090503E+0	2.009710E+0	2.052890E+0	1.995722E+0	1.997834E+0	2.100779E+0	2.031089E+0	2.036373E+0	2.034908E+0	2.055780E+0	2.043945E+0	1.981696E+0	2.105274E+0	2.043645E+0	2.093643E+0	2.053440E+0	2.108702E+0	2.006511E+0	2.039210E+0	1.956418E+0	1.992537E+0	2.044209E+0	2.090712E+0	2.004070E+0	1.972257E+0	2.030941E+0	2.114861E+0	2.012398E+0	2.081855E+0	2.077288E+0	2.037958E+0	2.070773E+0	2.066507E+0	2.094565E+0	2.003440E+0	2.017516E+0	1.985238E+0	2.090903E+0	1.953828E+0	1.977915E+0	2.099935E+0	2.020025E+0	2.033511E+0	2.052482E+0	2.128293E+0	2.014083E+0	1.987299E+0	1.915872E+0	2.114532E+0	2.050374E+0	2.038759E+0	2.007520E+0	1.991280E+0	2.009041E+0	2.023118E+0	2.048016E+0	2.099750E+0	1.916980E+0	2.047698E+0	1.936015E+0	2.075884E+0	2.021807E+0	1.975329E+0	2.007348E+0	2.078280E+0	2.006498E+0	2.004927E+0	2.047947E+0	2.021922E+0	2.017694E+0	1.969829E+0	2.030640E+0	2.029759E+0	1.947606E+0	1.931290E+0	1.937679E+0	2.029722E+0	2.027913E+0	2.049404E+0	2.030479E+0	2.069249E+0	1.959356E+0	1.966789E+0	1.937328E+0	2.013621E+0	2.087694E+0	1.954206E+0	1.948343E+0	2.018830E+0	1.976156E+0	2.007087E+0	1.965319E+0	2.067547E+0	2.032530E+0	1.964491E+0	1.930674E+0	2.008919E+0	1.913392E+0	1.997328E+0	1.887865E+0	2.024139E+0	2.015611E+0	1.972336E+0	1.926886E+0	1.938002E+0	1.941471E+0	1.995875E+0	1.933223E+0	1.973289E+0	2.016871E+0	1.935410E+0	2.003583E+0	2.026294E+0	2.023806E+0	1.993217E+0	1.976780E+0	1.924606E+0	2.009002E+0	1.931978E+0	2.002430E+0	1.973151E+0	1.956812E+0	1.944891E+0	1.925029E+0	1.979871E+0	2.055666E+0	1.936352E+0	1.934484E+0	2.003277E+0	1.905474E+0	2.048938E+0	1.906789E+0	2.029237E+0	2.065717E+0	1.975423E+0	1.998385E+0	1.966907E+0	2.028955E+0	1.841523E+0
5.405080E+2	2.032003E+0	1.980465E+0	1.930120E+0	1.941716E+0	1.946363E+0	1.899710E+0	1.998094E+0	1.929131E+0	1.926521E+0	1.905909E+0	1.883891E+0	1.923557E+0	1.951173E+0	1.991124E+0	1.936824E+0	1.977514E+0	2.031958E+0	1.942201E+0	1.990198E+0	1.933191E+0	1.963817E+0	1.912976E+0	1.987023E+0	1.995717E+0	1.948082E+0	1.923103E+0	1.921564E+0	1.935224E+0	1.888341E+0	2.007076E+0	1.963664E+0	1.938364E+0	1.957076E+0	1.986221E+0	1.928393E+0	1.912885E+0	1.977709E+0	1.892412E+0	1.947315E+0	2.019580E+0	1.919520E+0	1.959956E+0	1.987462E+0	1.953863E+0	1.973560E+0	1.904830E+0	1.946800E+0	1.916823E+0	1.963333E+0	1.997525E+0	1.855347E+0	2.003524E+0	1.900104E+0	1.986714E+0	1.959557E+0	1.922176E+0	1.946422E+0	1.955123E+0	1.842273E+0	2.005492E+0	1.990002E+0	1.926675E+0	1.854201E+0	1.933433E+0	1.975971E+0	1.964716E+0	1.941558E+0	1.937081E+0	1.914228E+0	2.012566E+0	1.965391E+0	1.916738E+0	1.887295E+0	1.927611E+0	1.882798E+0	1.974310E+0	1.969113E+0	1.943960E+0	1.880082E+0	1.903243E+0	1.902783E+0	1.930292E+0	1.974784E+0	1.947709E+0	1.958300E+0	2.001643E+0	1.919435E+0	1.958086E+0	1.941162E+0	1.929218E+0	1.933545E+0	1.968346E+0	1.859215E+0	1.913825E+0	1.815627E+0	1.935066E+0	1.971077E+0	1.874070E+0	1.911461E+0	1.964331E+0	1.938735E+0	1.858631E+0	1.913933E+0	1.896401E+0	1.999243E+0	1.880190E+0	1.920284E+0	1.953509E+0	1.934733E+0	1.898560E+0	1.868168E+0	1.885522E+0	1.981552E+0	1.821187E+0	1.902862E+0	1.895889E+0	1.886262E+0	1.886051E+0	1.841355E+0	1.907387E+0	1.913915E+0	1.971068E+0	1.901344E+0	1.939155E+0	1.904016E+0	1.923235E+0	1.855658E+0	1.971677E+0	1.973075E+0	1.899872E+0	1.886247E+0	1.858127E+0	1.877415E+0	1.949141E+0	1.899020E+0	1.914226E+0	1.925009E+0	1.790231E+0	1.885372E+0	1.923471E+0	1.924346E+0	1.962194E+0	1.894784E+0	1.920004E+0	1.848811E+0	1.878317E+0	1.889299E+0	1.911399E+0	1.940003E+0	1.896176E+0	1.947415E+0	1.881562E+0	1.881727E+0	1.913099E+0	1.874278E+0	1.899227E+0	1.908623E+0	1.886322E+0	1.921148E+0	1.864233E+0	1.949094E+0	1.863678E+0	1.809973E+0	1.849405E+0	1.835110E+0	1.799862E+0
5.407630E+2	1.994114E+0	1.925467E+0	1.980478E+0	1.912931E+0	1.908547E+0	1.902317E+0	1.901068E+0	1.911904E+0	1.929009E+0	1.939354E+0	1.971346E+0	1.939196E+0	2.011793E+0	1.904657E+0	1.895562E+0	1.945282E+0	1.991571E+0	1.900680E+0	1.935998E+0	1.941958E+0	1.960434E+0	1.967862E+0	1.938224E+0	1.993201E+0	1.928592E+0	1.955663E+0	1.898897E+0	1.963541E+0	1.868830E+0	1.912670E+0	1.876279E+0	1.864763E+0	1.935018E+0	1.875762E+0	1.937972E+0	1.921385E+0	1.923568E+0	1.977570E+0	1.909367E+0	2.064549E+0	1.924608E+0	2.002841E+0	1.913746E+0	1.939022E+0	1.956365E+0	1.909560E+0	1.877165E+0	1.928002E+0	1.900772E+0	1.895389E+0	1.890556E+0	1.887797E+0	1.861970E+0	1.973250E+0	1.909294E+0	1.910010E+0	1.924038E+0	1.926564E+0	1.939693E+0	1.946972E+0	1.871463E+0	1.896019E+0	1.880715E+0	1.939856E+0	1.939765E+0	1.878675E+0	1.926622E+0	1.955102E+0	1.881252E+0	1.929473E+0	1.912395E+0	1.891986E+0	1.966270E+0	1.879423E+0	1.844365E+0	1.987965E+0	1.818993E+0	1.953112E+0	1.875902E+0	1.843091E+0	1.878373E+0	1.858855E+0	1.918840E+0	1.908306E+0	1.932920E+0	1.915456E+0	1.913427E+0	1.914369E+0	1.913373E+0	1.971223E+0	1.919432E+0	1.965391E+0	1.901504E+0	1.884103E+0	1.817788E+0	1.840864E+0	1.987120E+0	1.887834E+0	1.900425E+0	1.951196E+0	1.838942E+0	1.825408E+0	1.820004E+0	1.907248E+0	1.897915E+0	1.950390E+0	1.888550E+0	1.908199E+0	1.839794E+0	1.916554E+0	1.891213E+0	1.826018E+0	1.889919E+0	1.879796E+0	1.854367E+0	1.869878E+0	1.822362E+0	1.827524E+0	1.828711E+0	1.940805E+0	1.927190E+0	1.929448E+0	1.820702E+0	1.860042E+0	1.903449E+0	1.923786E+0	1.873110E+0	1.868716E+0	1.899532E+0	1.833402E+0	1.893796E+0	1.858502E+0	1.880476E+0	1.901942E+0	1.778548E+0	1.931949E+0	1.900876E+0	1.886666E+0	1.800517E+0	1.867143E+0	1.864692E+0	1.879643E+0	1.769006E+0	1.793559E+0	1.918918E+0	1.849323E+0	1.925858E+0	1.794719E+0	1.965998E+0	1.850273E+0	1.896683E+0	1.887597E+0	1.855422E+0	1.843331E+0	1.855946E+0	1.902472E+0	1.855377E+0	1.965490E+0	1.858180E+0	1.881469E+0	1.918445E+0	1.815362E+0	1.851790E+0	1.815876E+0	1.765644E+0	1.795447E+0
5.410130E+2	1.715218E+0	1.759033E+0	1.656132E+0	1.695476E+0	1.586466E+0	1.620353E+0	1.645382E+0	1.656174E+0	1.666014E+0	1.688531E+0	1.646747E+0	1.744289E+0	1.744467E+0	1.717804E+0	1.628882E+0	1.681556E+0	1.684492E+0	1.657130E+0	1.711382E+0	1.545779E+0	1.690312E+0	1.621042E+0	1.674186E+0	1.664567E+0	1.617590E+0	1.738588E+0	1.679356E+0	1.714949E+0	1.563381E+0	1.667137E+0	1.634113E+0	1.683379E+0	1.711668E+0	1.641184E+0	1.612082E+0	1.588234E+0	1.661990E+0	1.645284E+0	1.661831E+0	1.676419E+0	1.608261E+0	1.633407E+0	1.663808E+0	1.675152E+0	1.647501E+0	1.662502E+0	1.634007E+0	1.621475E+0	1.644590E+0	1.652516E+0	1.636958E+0	1.673986E+0	1.695919E+0	1.627214E+0	1.642843E+0	1.626318E+0	1.622395E+0	1.646481E+0	1.726633E+0	1.596536E+0	1.733047E+0	1.676968E+0	1.587791E+0	1.617214E+0	1.698157E+0	1.699806E+0	1.662285E+0	1.592474E+0	1.606403E+0	1.635290E+0	1.608927E+0	1.652957E+0	1.616168E+0	1.583966E+0	1.613184E+0	1.702616E+0	1.669873E+0	1.625998E+0	1.581145E+0	1.613658E+0	1.627261E+0	1.635399E+0	1.655463E+0	1.628190E+0	1.610778E+0	1.657574E+0	1.675192E+0	1.688514E+0	1.653264E+0	1.659148E+0	1.613955E+0	1.740564E+0	1.632175E+0	1.676691E+0	1.626954E+0	1.620540E+0	1.642792E+0	1.659344E+0	1.678218E+0	1.664560E+0	1.578490E+0	1.586985E+0	1.600522E+0	1.671271E+0	1.661984E+0	1.658993E+0	1.561696E+0	1.597004E+0	1.643920E+0	1.692064E+0	1.661220E+0	1.641241E+0	1.722326E+0	1.581813E+0	1.576878E+0	1.560950E+0	1.672323E+0	1.628663E+0	1.623253E+0	1.666244E+0	1.640583E+0	1.678187E+0	1.571171E+0	1.680995E+0	1.686923E+0	1.613308E+0	1.617338E+0	1.620298E+0	1.703709E+0	1.616931E+0	1.616424E+0	1.626270E+0	1.617536E+0	1.626950E+0	1.579719E+0	1.649504E+0	1.656093E+0	1.661170E+0	1.569057E+0	1.574209E+0	1.646529E+0	1.543498E+0	1.661151E+0	1.609883E+0	1.712445E+0	1.574124E+0	1.656456E+0	1.622283E+0	1.569496E+0	1.619895E+0	1.613375E+0	1.644942E+0	1.601045E+0	1.597417E+0	1.635279E+0	1.662160E+0	1.676608E+0	1.628992E+0	1.571637E+0	1.618858E+0	1.666907E+0	1.629262E+0	1.658527E+0	1.702591E+0	1.612318E+0	1.515133E+0
5.412690E+2	1.775406E+0	1.753779E+0	1.707441E+0	1.702282E+0	1.671836E+0	1.703573E+0	1.791006E+0	1.760431E+0	1.666985E+0	1.672638E+0	1.697858E+0	1.721902E+0	1.743924E+0	1.716966E+0	1.704045E+0	1.695913E+0	1.695655E+0	1.703813E+0	1.767427E+0	1.779917E+0	1.730511E+0	1.692906E+0	1.710246E+0	1.713166E+0	1.736989E+0	1.692071E+0	1.722111E+0	1.755836E+0	1.630800E+0	1.762206E+0	1.685107E+0	1.704556E+0	1.712241E+0	1.719575E+0	1.690009E+0	1.705059E+0	1.656088E+0	1.702421E+0	1.677171E+0	1.698960E+0	1.728889E+0	1.667353E+0	1.727587E+0	1.749505E+0	1.751737E+0	1.711827E+0	1.698003E+0	1.673225E+0	1.642897E+0	1.726237E+0	1.682046E+0	1.747805E+0	1.702571E+0	1.720929E+0	1.657941E+0	1.757888E+0	1.716412E+0	1.626160E+0	1.701688E+0	1.731364E+0	1.738503E+0	1.678967E+0	1.631786E+0	1.708273E+0	1.673908E+0	1.711414E+0	1.785018E+0	1.722124E+0	1.659985E+0	1.727974E+0	1.667164E+0	1.632558E+0	1.691339E+0	1.680989E+0	1.701807E+0	1.707336E+0	1.724835E+0	1.674491E+0	1.741559E+0	1.662721E+0	1.709139E+0	1.708657E+0	1.686311E+0	1.736776E+0	1.646218E+0	1.722388E+0	1.691481E+0	1.704090E+0	1.711617E+0	1.695804E+0	1.651052E+0	1.691855E+0	1.689516E+0	1.677033E+0	1.709935E+0	1.705255E+0	1.706256E+0	1.637612E+0	1.677228E+0	1.711827E+0	1.632359E+0	1.648065E+0	1.601668E+0	1.693317E+0	1.775404E+0	1.727953E+0	1.699040E+0	1.705263E+0	1.737848E+0	1.706496E+0	1.565685E+0	1.711560E+0	1.760723E+0	1.771498E+0	1.607176E+0	1.662109E+0	1.614530E+0	1.706431E+0	1.615573E+0	1.705834E+0	1.686292E+0	1.731178E+0	1.612045E+0	1.690041E+0	1.710562E+0	1.658870E+0	1.681618E+0	1.712488E+0	1.659648E+0	1.776415E+0	1.638818E+0	1.641728E+0	1.660154E+0	1.640728E+0	1.719478E+0	1.730326E+0	1.672826E+0	1.688214E+0	1.666070E+0	1.659180E+0	1.642117E+0	1.685571E+0	1.627625E+0	1.645275E+0	1.683753E+0	1.644518E+0	1.660815E+0	1.644659E+0	1.713792E+0	1.672400E+0	1.687649E+0	1.657796E+0	1.730746E+0	1.664625E+0	1.654782E+0	1.706031E+0	1.651004E+0	1.691167E+0	1.668415E+0	1.689180E+0	1.716909E+0	1.658886E+0	1.558556E+0	1.623059E+0	1.657354E+0	1.537378E+0
5.415140E+2	1.707923E+0	1.674057E+0	1.631738E+0	1.647919E+0	1.639786E+0	1.633150E+0	1.642266E+0	1.659816E+0	1.660162E+0	1.610353E+0	1.628293E+0	1.623898E+0	1.643597E+0	1.622147E+0	1.656659E+0	1.652334E+0	1.628979E+0	1.566034E+0	1.629235E+0	1.650153E+0	1.635357E+0	1.625699E+0	1.634926E+0	1.695220E+0	1.673388E+0	1.681810E+0	1.677773E+0	1.681873E+0	1.642368E+0	1.641456E+0	1.638364E+0	1.657406E+0	1.660415E+0	1.701825E+0	1.638237E+0	1.681382E+0	1.633493E+0	1.617692E+0	1.652123E+0	1.713211E+0	1.604848E+0	1.679210E+0	1.679132E+0	1.694151E+0	1.671039E+0	1.676948E+0	1.602539E+0	1.654660E+0	1.662111E+0	1.684531E+0	1.564773E+0	1.619469E+0	1.647890E+0	1.597590E+0	1.593944E+0	1.647939E+0	1.637512E+0	1.595658E+0	1.643312E+0	1.678425E+0	1.670066E+0	1.665551E+0	1.582396E+0	1.658316E+0	1.626599E+0	1.615426E+0	1.667913E+0	1.639080E+0	1.610971E+0	1.658732E+0	1.665261E+0	1.613948E+0	1.639448E+0	1.613607E+0	1.652753E+0	1.639640E+0	1.629598E+0	1.567561E+0	1.596018E+0	1.621385E+0	1.602378E+0	1.670855E+0	1.609557E+0	1.601732E+0	1.608427E+0	1.619566E+0	1.632282E+0	1.630812E+0	1.673844E+0	1.657178E+0	1.601500E+0	1.656018E+0	1.613947E+0	1.641701E+0	1.651376E+0	1.625381E+0	1.655921E+0	1.662307E+0	1.595567E+0	1.628783E+0	1.569453E+0	1.607336E+0	1.533036E+0	1.687473E+0	1.628582E+0	1.658495E+0	1.628264E+0	1.614522E+0	1.627997E+0	1.649209E+0	1.584521E+0	1.554897E+0	1.609416E+0	1.587503E+0	1.533961E+0	1.584082E+0	1.658260E+0	1.564738E+0	1.583575E+0	1.662448E+0	1.625333E+0	1.589796E+0	1.577205E+0	1.572860E+0	1.602502E+0	1.620382E+0	1.625781E+0	1.630762E+0	1.651020E+0	1.717048E+0	1.553226E+0	1.567721E+0	1.630172E+0	1.633645E+0	1.569111E+0	1.605920E+0	1.637714E+0	1.572331E+0	1.569963E+0	1.557086E+0	1.657758E+0	1.600159E+0	1.556825E+0	1.591956E+0	1.644478E+0	1.611276E+0	1.631349E+0	1.569972E+0	1.552708E+0	1.603393E+0	1.617940E+0	1.667774E+0	1.546519E+0	1.609222E+0	1.531801E+0	1.694609E+0	1.547816E+0	1.743234E+0	1.664557E+0	1.614974E+0	1.647041E+0	1.621124E+0	1.510781E+0	1.571492E+0	1.527301E+0	1.592878E+0
5.417490E+2	1.619057E+0	1.548094E+0	1.558712E+0	1.501059E+0	1.500799E+0	1.509875E+0	1.552857E+0	1.577352E+0	1.580680E+0	1.558776E+0	1.560766E+0	1.446078E+0	1.509753E+0	1.513044E+0	1.574187E+0	1.500019E+0	1.619937E+0	1.562460E+0	1.532710E+0	1.581183E+0	1.560890E+0	1.543620E+0	1.555733E+0	1.570149E+0	1.582536E+0	1.583461E+0	1.566243E+0	1.560211E+0	1.499716E+0	1.548878E+0	1.545328E+0	1.511095E+0	1.494958E+0	1.487383E+0	1.507368E+0	1.589253E+0	1.536191E+0	1.515935E+0	1.538633E+0	1.536237E+0	1.516085E+0	1.570444E+0	1.564973E+0	1.536480E+0	1.540818E+0	1.525592E+0	1.501886E+0	1.551536E+0	1.555413E+0	1.455210E+0	1.498396E+0	1.486162E+0	1.492931E+0	1.531461E+0	1.502483E+0	1.506862E+0	1.503210E+0	1.546510E+0	1.549104E+0	1.547574E+0	1.549729E+0	1.509272E+0	1.478573E+0	1.534894E+0	1.548017E+0	1.601811E+0	1.459143E+0	1.499875E+0	1.529154E+0	1.529825E+0	1.523047E+0	1.500720E+0	1.630618E+0	1.477226E+0	1.497355E+0	1.564047E+0	1.573368E+0	1.517104E+0	1.469440E+0	1.512267E+0	1.524856E+0	1.624044E+0	1.549312E+0	1.529990E+0	1.508692E+0	1.534974E+0	1.543521E+0	1.503747E+0	1.491349E+0	1.534878E+0	1.409244E+0	1.610332E+0	1.461198E+0	1.461768E+0	1.490634E+0	1.529399E+0	1.552521E+0	1.539900E+0	1.527248E+0	1.565595E+0	1.495338E+0	1.540149E+0	1.443554E+0	1.510858E+0	1.515680E+0	1.485138E+0	1.453718E+0	1.518452E+0	1.509514E+0	1.613404E+0	1.522391E+0	1.546261E+0	1.536406E+0	1.514693E+0	1.451704E+0	1.569791E+0	1.501675E+0	1.498015E+0	1.468837E+0	1.524742E+0	1.549254E+0	1.501886E+0	1.452257E+0	1.507248E+0	1.464690E+0	1.474275E+0	1.551711E+0	1.520627E+0	1.541627E+0	1.522006E+0	1.458927E+0	1.501655E+0	1.514737E+0	1.536020E+0	1.519201E+0	1.491443E+0	1.507307E+0	1.474933E+0	1.526045E+0	1.535368E+0	1.572337E+0	1.533623E+0	1.559175E+0	1.529290E+0	1.533860E+0	1.582017E+0	1.554508E+0	1.459915E+0	1.487268E+0	1.518227E+0	1.566412E+0	1.567870E+0	1.474084E+0	1.511218E+0	1.484146E+0	1.530863E+0	1.536139E+0	1.514743E+0	1.465807E+0	1.585568E+0	1.559314E+0	1.516071E+0	1.419313E+0	1.436344E+0	1.460526E+0	1.399630E+0
5.420320E+2	1.447879E+0	1.460854E+0	1.455770E+0	1.428361E+0	1.434653E+0	1.406200E+0	1.488095E+0	1.433582E+0	1.447060E+0	1.423559E+0	1.468132E+0	1.410079E+0	1.447592E+0	1.465953E+0	1.442713E+0	1.407792E+0	1.486331E+0	1.468215E+0	1.457308E+0	1.457888E+0	1.445867E+0	1.417504E+0	1.371658E+0	1.396874E+0	1.477302E+0	1.451316E+0	1.436468E+0	1.440259E+0	1.427723E+0	1.435262E+0	1.476266E+0	1.437499E+0	1.451002E+0	1.407494E+0	1.360787E+0	1.432217E+0	1.438233E+0	1.451166E+0	1.397332E+0	1.440418E+0	1.374818E+0	1.419230E+0	1.452970E+0	1.471576E+0	1.465100E+0	1.434349E+0	1.413512E+0	1.393131E+0	1.468984E+0	1.433330E+0	1.430044E+0	1.381302E+0	1.403320E+0	1.442325E+0	1.440163E+0	1.408020E+0	1.466486E+0	1.395880E+0	1.466613E+0	1.473265E+0	1.470611E+0	1.467320E+0	1.402021E+0	1.422506E+0	1.386236E+0	1.521534E+0	1.444781E+0	1.397288E+0	1.445402E+0	1.467167E+0	1.461445E+0	1.510819E+0	1.432600E+0	1.343400E+0	1.303111E+0	1.483801E+0	1.436151E+0	1.454656E+0	1.387009E+0	1.412360E+0	1.423301E+0	1.427111E+0	1.437764E+0	1.501292E+0	1.482690E+0	1.436916E+0	1.385440E+0	1.472813E+0	1.434987E+0	1.456528E+0	1.422613E+0	1.462373E+0	1.375144E+0	1.424197E+0	1.393536E+0	1.403504E+0	1.440646E+0	1.408925E+0	1.456193E+0	1.424829E+0	1.403390E+0	1.360135E+0	1.320315E+0	1.410550E+0	1.460838E+0	1.468429E+0	1.398119E+0	1.409091E+0	1.449639E+0	1.392424E+0	1.417144E+0	1.436954E+0	1.484150E+0	1.465842E+0	1.402726E+0	1.367405E+0	1.493224E+0	1.442450E+0	1.448481E+0	1.503110E+0	1.418678E+0	1.429770E+0	1.388318E+0	1.389920E+0	1.460989E+0	1.400841E+0	1.424980E+0	1.455140E+0	1.516439E+0	1.423888E+0	1.424131E+0	1.413168E+0	1.432013E+0	1.473411E+0	1.446924E+0	1.512323E+0	1.456686E+0	1.472614E+0	1.403763E+0	1.474233E+0	1.417502E+0	1.452159E+0	1.395408E+0	1.352614E+0	1.439860E+0	1.414251E+0	1.423815E+0	1.408393E+0	1.423558E+0	1.418973E+0	1.462586E+0	1.402064E+0	1.431968E+0	1.398342E+0	1.407834E+0	1.408606E+0	1.420775E+0	1.524463E+0	1.314919E+0	1.454023E+0	1.511192E+0	1.418309E+0	1.324068E+0	1.478118E+0	1.388239E+0	1.412593E+0
5.422780E+2	1.208862E+0	1.249938E+0	1.193499E+0	1.117119E+0	1.194219E+0	1.231140E+0	1.183118E+0	1.181672E+0	1.224444E+0	1.235502E+0	1.201587E+0	1.247097E+0	1.215061E+0	1.188145E+0	1.185108E+0	1.188392E+0	1.190569E+0	1.202252E+0	1.195040E+0	1.151887E+0	1.174351E+0	1.169426E+0	1.183321E+0	1.225222E+0	1.155375E+0	1.219782E+0	1.210248E+0	1.210449E+0	1.154212E+0	1.261169E+0	1.194157E+0	1.126271E+0	1.182399E+0	1.174075E+0	1.240688E+0	1.149873E+0	1.217613E+0	1.172673E+0	1.145456E+0	1.222179E+0	1.170122E+0	1.176015E+0	1.233241E+0	1.138756E+0	1.310485E+0	1.241481E+0	1.162763E+0	1.153936E+0	1.216561E+0	1.218627E+0	1.188178E+0	1.178368E+0	1.215490E+0	1.186657E+0	1.172135E+0	1.185825E+0	1.216787E+0	1.158957E+0	1.209535E+0	1.166682E+0	1.225020E+0	1.180882E+0	1.123628E+0	1.243642E+0	1.241740E+0	1.245913E+0	1.239881E+0	1.259912E+0	1.165919E+0	1.209896E+0	1.208375E+0	1.193743E+0	1.145887E+0	1.136280E+0	1.191551E+0	1.234695E+0	1.213074E+0	1.194625E+0	1.200042E+0	1.210933E+0	1.181927E+0	1.206532E+0	1.211817E+0	1.176331E+0	1.194748E+0	1.212000E+0	1.172525E+0	1.199634E+0	1.221938E+0	1.146114E+0	1.162538E+0	1.255871E+0	1.231338E+0	1.272712E+0	1.178073E+0	1.181364E+0	1.162719E+0	1.166438E+0	1.175125E+0	1.224764E+0	1.214300E+0	1.142120E+0	1.168904E+0	1.236396E+0	1.186512E+0	1.246058E+0	1.168816E+0	1.210240E+0	1.168421E+0	1.196557E+0	1.167629E+0	1.250863E+0	1.188501E+0	1.116025E+0	1.164924E+0	1.191876E+0	1.154354E+0	1.168821E+0	1.159072E+0	1.194479E+0	1.172463E+0	1.255386E+0	1.167441E+0	1.210876E+0	1.165702E+0	1.165399E+0	1.193214E+0	1.156396E+0	1.203042E+0	1.212125E+0	1.185231E+0	1.192850E+0	1.158158E+0	1.213417E+0	1.209704E+0	1.208108E+0	1.147934E+0	1.176074E+0	1.150770E+0	1.200330E+0	1.187814E+0	1.218157E+0	1.135455E+0	1.152110E+0	1.162802E+0	1.265469E+0	1.107571E+0	1.194013E+0	1.228630E+0	1.157529E+0	1.235204E+0	1.158506E+0	1.182522E+0	1.207834E+0	1.154364E+0	1.170340E+0	1.159698E+0	1.193068E+0	1.145995E+0	1.152896E+0	1.197993E+0	1.206944E+0	1.196951E+0	1.209921E+0	1.103457E+0	1.191985E+0
5.425240E+2	1.064916E+0	1.088098E+0	1.119996E+0	1.087925E+0	1.082776E+0	1.114692E+0	1.115599E+0	1.085416E+0	1.205940E+0	1.025246E+0	1.115454E+0	1.097493E+0	1.094929E+0	1.109592E+0	1.035056E+0	1.111164E+0	1.118621E+0	1.057609E+0	1.083060E+0	1.073372E+0	1.128506E+0	1.088131E+0	1.056760E+0	1.073747E+0	1.113397E+0	1.120803E+0	1.092671E+0	1.063725E+0	1.100602E+0	1.113789E+0	1.131561E+0	1.086168E+0	1.113019E+0	1.110114E+0	1.069767E+0	1.078351E+0	1.076861E+0	1.086159E+0	1.081681E+0	1.112063E+0	1.056728E+0	1.086713E+0	1.113557E+0	1.101722E+0	1.105789E+0	1.144810E+0	1.084007E+0	1.128361E+0	1.094775E+0	1.068712E+0	1.061900E+0	1.064633E+0	1.020248E+0	1.065368E+0	1.077025E+0	1.058216E+0	1.088576E+0	1.065229E+0	1.083680E+0	1.114804E+0	1.096674E+0	1.067362E+0	1.051400E+0	1.061552E+0	1.095493E+0	1.071328E+0	1.140845E+0	1.091035E+0	1.090957E+0	1.081291E+0	1.088147E+0	1.107055E+0	1.084245E+0	1.077514E+0	1.061360E+0	1.112249E+0	1.130610E+0	1.089611E+0	1.065947E+0	1.083373E+0	1.132041E+0	1.117780E+0	1.070802E+0	1.075950E+0	1.091148E+0	1.041128E+0	1.092000E+0	1.126411E+0	1.130244E+0	1.077139E+0	1.102479E+0	1.092640E+0	1.074760E+0	1.050615E+0	1.119431E+0	1.056731E+0	1.153817E+0	1.116182E+0	1.118522E+0	1.107603E+0	1.098117E+0	1.053898E+0	1.076610E+0	1.080515E+0	1.101711E+0	1.108252E+0	1.098180E+0	1.103650E+0	1.036169E+0	1.082278E+0	1.076936E+0	1.059518E+0	1.071460E+0	1.204605E+0	1.072745E+0	1.090684E+0	1.088580E+0	1.067187E+0	1.085865E+0	1.086662E+0	1.060330E+0	1.095668E+0	1.066311E+0	1.156601E+0	1.134426E+0	1.053472E+0	1.101883E+0	1.188093E+0	1.126587E+0	1.120009E+0	1.092136E+0	1.102011E+0	1.117591E+0	1.082917E+0	1.078043E+0	1.058778E+0	1.155529E+0	1.137011E+0	1.070087E+0	1.099998E+0	1.105072E+0	1.095777E+0	1.072698E+0	1.050790E+0	1.087388E+0	1.091184E+0	1.093549E+0	1.112493E+0	1.083721E+0	1.067960E+0	1.117643E+0	1.088308E+0	1.094894E+0	1.084551E+0	1.057675E+0	1.078125E+0	1.108397E+0	1.135880E+0	1.078523E+0	1.117987E+0	1.062786E+0	1.119784E+0	1.118056E+0	1.116257E+0	1.090035E+0	1.015456E+0
5.427870E+2	9.307910E-1	9.650488E-1	9.873255E-1	9.366014E-1	1.011535E+0	9.839905E-1	1.006623E+0	9.620384E-1	9.816008E-1	9.366331E-1	1.007566E+0	9.757252E-1	1.027564E+0	1.008637E+0	9.521324E-1	9.662511E-1	1.012577E+0	1.024102E+0	1.013439E+0	1.020297E+0	1.017052E+0	9.703399E-1	9.690429E-1	9.407066E-1	1.014276E+0	9.860886E-1	9.611866E-1	1.037388E+0	9.985710E-1	1.025901E+0	9.563319E-1	9.450283E-1	9.463678E-1	9.889258E-1	9.532493E-1	9.293524E-1	9.532292E-1	9.543789E-1	8.950862E-1	9.866258E-1	9.888354E-1	1.004244E+0	9.770077E-1	9.660103E-1	9.864006E-1	9.935369E-1	9.344961E-1	9.725510E-1	9.989167E-1	9.656828E-1	9.509035E-1	9.938740E-1	9.924827E-1	1.027747E+0	9.864508E-1	9.736882E-1	9.870795E-1	9.853764E-1	9.595999E-1	9.884824E-1	9.869825E-1	9.994159E-1	9.630104E-1	9.977575E-1	1.000420E+0	9.753186E-1	1.020318E+0	9.899126E-1	9.701968E-1	9.589964E-1	9.769091E-1	9.869283E-1	9.633222E-1	9.794745E-1	9.712239E-1	9.444638E-1	1.001001E+0	9.589870E-1	9.407216E-1	9.432274E-1	9.947829E-1	9.585512E-1	9.458975E-1	9.639687E-1	9.806252E-1	9.870454E-1	9.734247E-1	9.681112E-1	1.031643E+0	9.806643E-1	1.019316E+0	9.752177E-1	1.008923E+0	9.812731E-1	9.749773E-1	9.772824E-1	9.782490E-1	9.672053E-1	9.694892E-1	1.037472E+0	1.003871E+0	9.880351E-1	9.264780E-1	1.041064E+0	9.870298E-1	9.941650E-1	9.787952E-1	1.069575E+0	9.666562E-1	9.165688E-1	1.023428E+0	1.006659E+0	9.611276E-1	9.997762E-1	9.815172E-1	9.635906E-1	9.524454E-1	1.009625E+0	9.601786E-1	9.879427E-1	9.542976E-1	1.057162E+0	9.342928E-1	9.801157E-1	9.863480E-1	1.005797E+0	9.543687E-1	9.865567E-1	1.019482E+0	9.265369E-1	9.387548E-1	9.607809E-1	9.663437E-1	9.908295E-1	9.907177E-1	9.732808E-1	9.803703E-1	9.754610E-1	9.571891E-1	1.008678E+0	1.026502E+0	9.553916E-1	9.731915E-1	1.001857E+0	9.923398E-1	1.013936E+0	9.533796E-1	1.017737E+0	9.972532E-1	9.713466E-1	1.013427E+0	9.883286E-1	9.370469E-1	9.796903E-1	1.012047E+0	1.004435E+0	1.031361E+0	9.939886E-1	9.678090E-1	9.549172E-1	1.023750E+0	9.881130E-1	9.594546E-1	9.769776E-1	8.855806E-1	9.775455E-1
5.430170E+2	9.662163E-1	9.433815E-1	9.350974E-1	9.754893E-1	9.662832E-1	9.579197E-1	9.349306E-1	9.598742E-1	9.011690E-1	9.040417E-1	9.586600E-1	9.126310E-1	1.006765E+0	9.326027E-1	9.183878E-1	9.213691E-1	9.266329E-1	9.247872E-1	8.987941E-1	9.417316E-1	9.351491E-1	8.995243E-1	9.171748E-1	9.351491E-1	9.924679E-1	9.857564E-1	9.596335E-1	9.262804E-1	9.324753E-1	9.702857E-1	9.821424E-1	8.924596E-1	9.016903E-1	9.684233E-1	9.517280E-1	9.043247E-1	9.473424E-1	9.043440E-1	9.535507E-1	9.004468E-1	9.081269E-1	9.850675E-1	9.327964E-1	9.448171E-1	9.830684E-1	9.704781E-1	9.732886E-1	9.236180E-1	9.254827E-1	9.559804E-1	9.137423E-1	8.887213E-1	9.469243E-1	9.453204E-1	8.746817E-1	9.071429E-1	9.524122E-1	9.336945E-1	9.424376E-1	9.348397E-1	9.721895E-1	9.183608E-1	9.090156E-1	9.776670E-1	9.271492E-1	9.632187E-1	9.204839E-1	9.562848E-1	9.191836E-1	9.475647E-1	9.160771E-1	9.529557E-1	9.529803E-1	8.600083E-1	9.269024E-1	9.682196E-1	9.630586E-1	9.428082E-1	8.902224E-1	9.305543E-1	9.475425E-1	9.676730E-1	9.156989E-1	8.939722E-1	9.007003E-1	9.363986E-1	9.345909E-1	9.357019E-1	9.927940E-1	9.275871E-1	9.184614E-1	9.190638E-1	9.809441E-1	9.162006E-1	9.032563E-1	9.089884E-1	9.558712E-1	9.440770E-1	9.226864E-1	9.229352E-1	9.193000E-1	9.290272E-1	9.203343E-1	9.365214E-1	1.000583E+0	9.389834E-1	9.271779E-1	8.905243E-1	9.453453E-1	9.822369E-1	9.202250E-1	9.725964E-1	1.006183E+0	9.616041E-1	9.367618E-1	9.066770E-1	9.416927E-1	9.187768E-1	9.509388E-1	9.226150E-1	9.432873E-1	9.767090E-1	9.072580E-1	9.909333E-1	9.432448E-1	9.082831E-1	9.628499E-1	9.426237E-1	9.563383E-1	8.941688E-1	9.359193E-1	9.256050E-1	9.723205E-1	9.423412E-1	9.599639E-1	9.814817E-1	9.410671E-1	9.336045E-1	9.295654E-1	9.439942E-1	9.872343E-1	9.594084E-1	8.683908E-1	9.346131E-1	9.519527E-1	9.752043E-1	8.991402E-1	9.355309E-1	9.799773E-1	9.200796E-1	9.684892E-1	8.911653E-1	9.229928E-1	9.693656E-1	9.543375E-1	9.539064E-1	9.499319E-1	9.374600E-1	9.104615E-1	8.926114E-1	9.801397E-1	9.223191E-1	9.648322E-1	8.813799E-1	9.528459E-1	8.872360E-1
5.432700E+2	1.058590E+0	1.052901E+0	1.054052E+0	1.010881E+0	1.028199E+0	9.973895E-1	9.757990E-1	1.026521E+0	1.006205E+0	1.032034E+0	1.080993E+0	9.572967E-1	1.057602E+0	9.830818E-1	1.055534E+0	1.020258E+0	1.060546E+0	1.017828E+0	1.001498E+0	9.796659E-1	1.042336E+0	1.033037E+0	9.923407E-1	9.917579E-1	1.035876E+0	1.042974E+0	1.054528E+0	1.036299E+0	9.908902E-1	1.028656E+0	9.993377E-1	1.029220E+0	1.045876E+0	1.015415E+0	1.026490E+0	9.555414E-1	1.019158E+0	1.021109E+0	1.011328E+0	9.928398E-1	1.077729E+0	1.062739E+0	1.059226E+0	1.048573E+0	1.061251E+0	1.084136E+0	9.754975E-1	1.013474E+0	1.036226E+0	1.006176E+0	9.647581E-1	1.001554E+0	1.004530E+0	1.037636E+0	1.038797E+0	9.938544E-1	1.075611E+0	1.011811E+0	1.012762E+0	1.043536E+0	1.075679E+0	1.003985E+0	1.023347E+0	9.958337E-1	1.022118E+0	1.027894E+0	1.032776E+0	9.784577E-1	1.035397E+0	1.070470E+0	1.028873E+0	9.955698E-1	9.914801E-1	1.035777E+0	1.042474E+0	1.071356E+0	1.070694E+0	1.034092E+0	1.022365E+0	1.012052E+0	1.029816E+0	1.029297E+0	1.032005E+0	9.921171E-1	1.027440E+0	9.769970E-1	1.088385E+0	9.802672E-1	1.032585E+0	1.032222E+0	9.855044E-1	1.012884E+0	9.853005E-1	9.832041E-1	1.047882E+0	1.019490E+0	1.059933E+0	9.762994E-1	9.893747E-1	1.047211E+0	1.048057E+0	1.000969E+0	9.958513E-1	1.052296E+0	1.040158E+0	1.112415E+0	1.012164E+0	9.842978E-1	1.048675E+0	1.080206E+0	1.018263E+0	1.023708E+0	1.071314E+0	1.048258E+0	9.949746E-1	1.004455E+0	1.034157E+0	9.551061E-1	1.010119E+0	1.035375E+0	9.994099E-1	1.069029E+0	1.034134E+0	1.004016E+0	1.031827E+0	1.008290E+0	1.014921E+0	9.857623E-1	1.025214E+0	1.088078E+0	1.024439E+0	9.656907E-1	1.087613E+0	1.019654E+0	1.025718E+0	1.079753E+0	1.066600E+0	1.040459E+0	9.910655E-1	1.026414E+0	1.075310E+0	1.092041E+0	1.036948E+0	9.939494E-1	9.897914E-1	1.083356E+0	1.061288E+0	1.013098E+0	1.027823E+0	9.290373E-1	1.037601E+0	1.020652E+0	1.058237E+0	1.020819E+0	1.050611E+0	1.062734E+0	1.020875E+0	1.033462E+0	9.686155E-1	1.029019E+0	1.027820E+0	9.664408E-1	1.006344E+0	9.722072E-1	9.953852E-1	1.036619E+0
5.435110E+2	1.177077E+0	1.110144E+0	1.138047E+0	1.091854E+0	1.127728E+0	1.107437E+0	1.114870E+0	1.111968E+0	1.164361E+0	1.125800E+0	1.127212E+0	1.084341E+0	1.147220E+0	1.134951E+0	1.116500E+0	1.142256E+0	1.132885E+0	1.086882E+0	1.072850E+0	1.121299E+0	1.120542E+0	1.110252E+0	1.100536E+0	1.130413E+0	1.166796E+0	1.087567E+0	1.075924E+0	1.075325E+0	1.037178E+0	1.120497E+0	1.105801E+0	1.074396E+0	1.140253E+0	1.056382E+0	1.105495E+0	1.096848E+0	1.094357E+0	1.127063E+0	1.102111E+0	1.098972E+0	1.070747E+0	1.145630E+0	1.110565E+0	1.093181E+0	1.176139E+0	1.129764E+0	1.082780E+0	1.045206E+0	1.101933E+0	1.132037E+0	1.123703E+0	1.098901E+0	1.095940E+0	1.134334E+0	1.125426E+0	1.079140E+0	1.095906E+0	1.123025E+0	1.186681E+0	1.138703E+0	1.152990E+0	1.137194E+0	1.051758E+0	1.118088E+0	1.109667E+0	1.170061E+0	1.104802E+0	1.105268E+0	1.101631E+0	1.194478E+0	1.138456E+0	1.061860E+0	1.105276E+0	1.096739E+0	1.075497E+0	1.102635E+0	1.150524E+0	1.089965E+0	1.126358E+0	1.108008E+0	1.099952E+0	1.086592E+0	1.113774E+0	1.099930E+0	1.097911E+0	1.117523E+0	1.117533E+0	1.140768E+0	1.128980E+0	1.122405E+0	1.158424E+0	1.088464E+0	1.147497E+0	1.110609E+0	1.141805E+0	1.097599E+0	1.136867E+0	1.126138E+0	1.107173E+0	1.125280E+0	1.139377E+0	1.155644E+0	1.096554E+0	1.132597E+0	1.120161E+0	1.114681E+0	1.077758E+0	1.085958E+0	1.139964E+0	1.134224E+0	1.145190E+0	1.109355E+0	1.122071E+0	1.077931E+0	1.068105E+0	1.117278E+0	1.140822E+0	1.078850E+0	1.131405E+0	1.075564E+0	1.138520E+0	1.126593E+0	1.104343E+0	1.135156E+0	1.132418E+0	1.118438E+0	1.085496E+0	1.133902E+0	1.122155E+0	1.101637E+0	1.145802E+0	1.085937E+0	1.070727E+0	1.124219E+0	1.127061E+0	1.105555E+0	1.117272E+0	1.102011E+0	1.088616E+0	1.059294E+0	1.112330E+0	1.101202E+0	1.070470E+0	1.092866E+0	1.081694E+0	1.118163E+0	1.115946E+0	1.088500E+0	1.075408E+0	1.145939E+0	1.113857E+0	1.096881E+0	1.091202E+0	1.079176E+0	1.057478E+0	1.178081E+0	1.143141E+0	1.155968E+0	1.113205E+0	1.105483E+0	1.071203E+0	1.169334E+0	1.098437E+0	1.070363E+0	1.110978E+0	1.101468E+0
5.437750E+2	1.410695E+0	1.339617E+0	1.382766E+0	1.336465E+0	1.317935E+0	1.346095E+0	1.357418E+0	1.326880E+0	1.293015E+0	1.252307E+0	1.358165E+0	1.326674E+0	1.404186E+0	1.383582E+0	1.374212E+0	1.409281E+0	1.382974E+0	1.355603E+0	1.401042E+0	1.364450E+0	1.365638E+0	1.356152E+0	1.314413E+0	1.360711E+0	1.388054E+0	1.395881E+0	1.376587E+0	1.328873E+0	1.338300E+0	1.394200E+0	1.325696E+0	1.302840E+0	1.371012E+0	1.320899E+0	1.349313E+0	1.339723E+0	1.348364E+0	1.285817E+0	1.301128E+0	1.311575E+0	1.362911E+0	1.324720E+0	1.384822E+0	1.329249E+0	1.391770E+0	1.350475E+0	1.373574E+0	1.320185E+0	1.334320E+0	1.376422E+0	1.329344E+0	1.314670E+0	1.345203E+0	1.351637E+0	1.389094E+0	1.365851E+0	1.436822E+0	1.289741E+0	1.368069E+0	1.314758E+0	1.411745E+0	1.323754E+0	1.284433E+0	1.288402E+0	1.373244E+0	1.360506E+0	1.307646E+0	1.385028E+0	1.349825E+0	1.414084E+0	1.321720E+0	1.327455E+0	1.382178E+0	1.291239E+0	1.338397E+0	1.341516E+0	1.406698E+0	1.325365E+0	1.317567E+0	1.368518E+0	1.331696E+0	1.327085E+0	1.366227E+0	1.301764E+0	1.340116E+0	1.337206E+0	1.306568E+0	1.384766E+0	1.407917E+0	1.337309E+0	1.360236E+0	1.305847E+0	1.310253E+0	1.373155E+0	1.314147E+0	1.320629E+0	1.300412E+0	1.329622E+0	1.340996E+0	1.384034E+0	1.324047E+0	1.298456E+0	1.288153E+0	1.304227E+0	1.340170E+0	1.327159E+0	1.273290E+0	1.357741E+0	1.356535E+0	1.332518E+0	1.328728E+0	1.305152E+0	1.365948E+0	1.337649E+0	1.339266E+0	1.331678E+0	1.367113E+0	1.292158E+0	1.283476E+0	1.309763E+0	1.358929E+0	1.380380E+0	1.282796E+0	1.364018E+0	1.338092E+0	1.351953E+0	1.302519E+0	1.345162E+0	1.349393E+0	1.393163E+0	1.307173E+0	1.362350E+0	1.382171E+0	1.368628E+0	1.324527E+0	1.351707E+0	1.381854E+0	1.313172E+0	1.277179E+0	1.294673E+0	1.314746E+0	1.380757E+0	1.327530E+0	1.257710E+0	1.394229E+0	1.351370E+0	1.340788E+0	1.373313E+0	1.329994E+0	1.375835E+0	1.334128E+0	1.254177E+0	1.372657E+0	1.345020E+0	1.334272E+0	1.326814E+0	1.345587E+0	1.292184E+0	1.368302E+0	1.339762E+0	1.356977E+0	1.362651E+0	1.234911E+0	1.283048E+0	1.285411E+0	1.311186E+0
5.440170E+2	1.535351E+0	1.479690E+0	1.471186E+0	1.472805E+0	1.465891E+0	1.414027E+0	1.473566E+0	1.483535E+0	1.478723E+0	1.486159E+0	1.502971E+0	1.401969E+0	1.484066E+0	1.507090E+0	1.442462E+0	1.447192E+0	1.485494E+0	1.492600E+0	1.492662E+0	1.420304E+0	1.452436E+0	1.451142E+0	1.418525E+0	1.475247E+0	1.527546E+0	1.503052E+0	1.484025E+0	1.427937E+0	1.468187E+0	1.455705E+0	1.465909E+0	1.394312E+0	1.479981E+0	1.487537E+0	1.431723E+0	1.485780E+0	1.435444E+0	1.431733E+0	1.501705E+0	1.499634E+0	1.405161E+0	1.497607E+0	1.459317E+0	1.488238E+0	1.547831E+0	1.491135E+0	1.478980E+0	1.448261E+0	1.438342E+0	1.464957E+0	1.462422E+0	1.400750E+0	1.496225E+0	1.460966E+0	1.468398E+0	1.401682E+0	1.464926E+0	1.462855E+0	1.494915E+0	1.455919E+0	1.532361E+0	1.472829E+0	1.446281E+0	1.440306E+0	1.472249E+0	1.515769E+0	1.493602E+0	1.461943E+0	1.441197E+0	1.490475E+0	1.475362E+0	1.388556E+0	1.485535E+0	1.426840E+0	1.405594E+0	1.425013E+0	1.468041E+0	1.451904E+0	1.439832E+0	1.417413E+0	1.472210E+0	1.463958E+0	1.420352E+0	1.446752E+0	1.391163E+0	1.469363E+0	1.469590E+0	1.513321E+0	1.432945E+0	1.501521E+0	1.456047E+0	1.437649E+0	1.482829E+0	1.474331E+0	1.420468E+0	1.419299E+0	1.450413E+0	1.454909E+0	1.431165E+0	1.467976E+0	1.424732E+0	1.462819E+0	1.419074E+0	1.466758E+0	1.471004E+0	1.463005E+0	1.429607E+0	1.375387E+0	1.439560E+0	1.462962E+0	1.434810E+0	1.454839E+0	1.473425E+0	1.432210E+0	1.419650E+0	1.411125E+0	1.453039E+0	1.418665E+0	1.411708E+0	1.436345E+0	1.420281E+0	1.491659E+0	1.429194E+0	1.448020E+0	1.477300E+0	1.529825E+0	1.486774E+0	1.470816E+0	1.456494E+0	1.490730E+0	1.389141E+0	1.423380E+0	1.480713E+0	1.449656E+0	1.427694E+0	1.443545E+0	1.522757E+0	1.551349E+0	1.390255E+0	1.395615E+0	1.517991E+0	1.437596E+0	1.414917E+0	1.404641E+0	1.480543E+0	1.474648E+0	1.457872E+0	1.417315E+0	1.543051E+0	1.433377E+0	1.482482E+0	1.409337E+0	1.474458E+0	1.457235E+0	1.487644E+0	1.425131E+0	1.405490E+0	1.507614E+0	1.415351E+0	1.452122E+0	1.494650E+0	1.460586E+0	1.462675E+0	1.527747E+0	1.437430E+0	1.374497E+0
5.442700E+2	1.625495E+0	1.547465E+0	1.584458E+0	1.504051E+0	1.582186E+0	1.555181E+0	1.477060E+0	1.572938E+0	1.598536E+0	1.523714E+0	1.544651E+0	1.504383E+0	1.595987E+0	1.577227E+0	1.498507E+0	1.535442E+0	1.578977E+0	1.488925E+0	1.590577E+0	1.552668E+0	1.541663E+0	1.467116E+0	1.505477E+0	1.548840E+0	1.665691E+0	1.561345E+0	1.582189E+0	1.598675E+0	1.558193E+0	1.621113E+0	1.540234E+0	1.506038E+0	1.524545E+0	1.515375E+0	1.568086E+0	1.537915E+0	1.515233E+0	1.552288E+0	1.536061E+0	1.510901E+0	1.555753E+0	1.642595E+0	1.529837E+0	1.508807E+0	1.627373E+0	1.561390E+0	1.492791E+0	1.524593E+0	1.618010E+0	1.543077E+0	1.534887E+0	1.547697E+0	1.545668E+0	1.584818E+0	1.531977E+0	1.509435E+0	1.559795E+0	1.501665E+0	1.601699E+0	1.554823E+0	1.553958E+0	1.571840E+0	1.506450E+0	1.530832E+0	1.607454E+0	1.544997E+0	1.480810E+0	1.507575E+0	1.543675E+0	1.600652E+0	1.518000E+0	1.512146E+0	1.583026E+0	1.496513E+0	1.493548E+0	1.535225E+0	1.566534E+0	1.545710E+0	1.496525E+0	1.504208E+0	1.560084E+0	1.562129E+0	1.559002E+0	1.554642E+0	1.505613E+0	1.531443E+0	1.544141E+0	1.580591E+0	1.560084E+0	1.515077E+0	1.562426E+0	1.508017E+0	1.513262E+0	1.494787E+0	1.493046E+0	1.515073E+0	1.558480E+0	1.547023E+0	1.524181E+0	1.542184E+0	1.528789E+0	1.492964E+0	1.447959E+0	1.530665E+0	1.561849E+0	1.595459E+0	1.532368E+0	1.489069E+0	1.568070E+0	1.514772E+0	1.531066E+0	1.514038E+0	1.575527E+0	1.617851E+0	1.516306E+0	1.543551E+0	1.570847E+0	1.518315E+0	1.461366E+0	1.535477E+0	1.563278E+0	1.527527E+0	1.529811E+0	1.490981E+0	1.573996E+0	1.548784E+0	1.490301E+0	1.514822E+0	1.556221E+0	1.574669E+0	1.455551E+0	1.484776E+0	1.515820E+0	1.558908E+0	1.532991E+0	1.515153E+0	1.554268E+0	1.570252E+0	1.497994E+0	1.511317E+0	1.536662E+0	1.535471E+0	1.511096E+0	1.454224E+0	1.529755E+0	1.534763E+0	1.481272E+0	1.416210E+0	1.532541E+0	1.452690E+0	1.552779E+0	1.489809E+0	1.552388E+0	1.419921E+0	1.526694E+0	1.496146E+0	1.601604E+0	1.587241E+0	1.487657E+0	1.557779E+0	1.573109E+0	1.534240E+0	1.553540E+0	1.515605E+0	1.618952E+0	1.540074E+0
5.445180E+2	1.614959E+0	1.778557E+0	1.606731E+0	1.611867E+0	1.569404E+0	1.646854E+0	1.617906E+0	1.676917E+0	1.621653E+0	1.550449E+0	1.636023E+0	1.552114E+0	1.730602E+0	1.632175E+0	1.645272E+0	1.662073E+0	1.677918E+0	1.641339E+0	1.646454E+0	1.589579E+0	1.627359E+0	1.594293E+0	1.554197E+0	1.625611E+0	1.692166E+0	1.583696E+0	1.634126E+0	1.569643E+0	1.604896E+0	1.657609E+0	1.633489E+0	1.607079E+0	1.605536E+0	1.600354E+0	1.603963E+0	1.571499E+0	1.634728E+0	1.705855E+0	1.641239E+0	1.671216E+0	1.618478E+0	1.701435E+0	1.627846E+0	1.618483E+0	1.661038E+0	1.663532E+0	1.647135E+0	1.572814E+0	1.743617E+0	1.680470E+0	1.598799E+0	1.578675E+0	1.615517E+0	1.636691E+0	1.597553E+0	1.604627E+0	1.672164E+0	1.637067E+0	1.639641E+0	1.618889E+0	1.647113E+0	1.596451E+0	1.603637E+0	1.609406E+0	1.657465E+0	1.665863E+0	1.712297E+0	1.610386E+0	1.631620E+0	1.612385E+0	1.573236E+0	1.628010E+0	1.630736E+0	1.621518E+0	1.518247E+0	1.615266E+0	1.657002E+0	1.623971E+0	1.575621E+0	1.545097E+0	1.606778E+0	1.606074E+0	1.637637E+0	1.605831E+0	1.601538E+0	1.590687E+0	1.625318E+0	1.603765E+0	1.663231E+0	1.585017E+0	1.583612E+0	1.574275E+0	1.631860E+0	1.644434E+0	1.590376E+0	1.550311E+0	1.647180E+0	1.594036E+0	1.638990E+0	1.644758E+0	1.531461E+0	1.575892E+0	1.518138E+0	1.597460E+0	1.593194E+0	1.654565E+0	1.603361E+0	1.590569E+0	1.554207E+0	1.587722E+0	1.591131E+0	1.576443E+0	1.671502E+0	1.633512E+0	1.523266E+0	1.632248E+0	1.635037E+0	1.575069E+0	1.542273E+0	1.564249E+0	1.621393E+0	1.616037E+0	1.531448E+0	1.581307E+0	1.649766E+0	1.605505E+0	1.584526E+0	1.631256E+0	1.574370E+0	1.567173E+0	1.613105E+0	1.555017E+0	1.617792E+0	1.632612E+0	1.614735E+0	1.619325E+0	1.644740E+0	1.663395E+0	1.554859E+0	1.606384E+0	1.640772E+0	1.648548E+0	1.553841E+0	1.565696E+0	1.613113E+0	1.580196E+0	1.623690E+0	1.550682E+0	1.675283E+0	1.546311E+0	1.643883E+0	1.566109E+0	1.602580E+0	1.543936E+0	1.568663E+0	1.584899E+0	1.611819E+0	1.645912E+0	1.570753E+0	1.616824E+0	1.634762E+0	1.613296E+0	1.530301E+0	1.530818E+0	1.605677E+0	1.520024E+0
5.447610E+2	1.541871E+0	1.515322E+0	1.557329E+0	1.497394E+0	1.546157E+0	1.487471E+0	1.485189E+0	1.520177E+0	1.508152E+0	1.556907E+0	1.570614E+0	1.447785E+0	1.521650E+0	1.474599E+0	1.471221E+0	1.496770E+0	1.501305E+0	1.549609E+0	1.558418E+0	1.538681E+0	1.548824E+0	1.553136E+0	1.514524E+0	1.457411E+0	1.525253E+0	1.576598E+0	1.588646E+0	1.470878E+0	1.542335E+0	1.519987E+0	1.480267E+0	1.517369E+0	1.530807E+0	1.595163E+0	1.461160E+0	1.532732E+0	1.506351E+0	1.501453E+0	1.553153E+0	1.546675E+0	1.509654E+0	1.584387E+0	1.537523E+0	1.494465E+0	1.582255E+0	1.514820E+0	1.377269E+0	1.559707E+0	1.553640E+0	1.558917E+0	1.448968E+0	1.489639E+0	1.524674E+0	1.517851E+0	1.465691E+0	1.552863E+0	1.511214E+0	1.495874E+0	1.540016E+0	1.545152E+0	1.565866E+0	1.545649E+0	1.441361E+0	1.522902E+0	1.560991E+0	1.531752E+0	1.517438E+0	1.490666E+0	1.474236E+0	1.572735E+0	1.481304E+0	1.462927E+0	1.506186E+0	1.519735E+0	1.452768E+0	1.481183E+0	1.518870E+0	1.537243E+0	1.458340E+0	1.493633E+0	1.510152E+0	1.524435E+0	1.475889E+0	1.416419E+0	1.444467E+0	1.515858E+0	1.484736E+0	1.511086E+0	1.526876E+0	1.567602E+0	1.531489E+0	1.523445E+0	1.500578E+0	1.507146E+0	1.500058E+0	1.524327E+0	1.519415E+0	1.502329E+0	1.486579E+0	1.494437E+0	1.498494E+0	1.488144E+0	1.459286E+0	1.532714E+0	1.548443E+0	1.574681E+0	1.498308E+0	1.448093E+0	1.574669E+0	1.478839E+0	1.506428E+0	1.522173E+0	1.543021E+0	1.521167E+0	1.450646E+0	1.551252E+0	1.472581E+0	1.499728E+0	1.454805E+0	1.456626E+0	1.530527E+0	1.534087E+0	1.406511E+0	1.534536E+0	1.512447E+0	1.481940E+0	1.497938E+0	1.496176E+0	1.483189E+0	1.490090E+0	1.363863E+0	1.456858E+0	1.506751E+0	1.530889E+0	1.437595E+0	1.557189E+0	1.513955E+0	1.550120E+0	1.481770E+0	1.486998E+0	1.599470E+0	1.579232E+0	1.455960E+0	1.539981E+0	1.492973E+0	1.493094E+0	1.514741E+0	1.509082E+0	1.467754E+0	1.460535E+0	1.575607E+0	1.434578E+0	1.534415E+0	1.505320E+0	1.456817E+0	1.496535E+0	1.553096E+0	1.539814E+0	1.475648E+0	1.503015E+0	1.520902E+0	1.583768E+0	1.499796E+0	1.489714E+0	1.489252E+0	1.390325E+0
5.450150E+2	1.580325E+0	1.512452E+0	1.564538E+0	1.545304E+0	1.551460E+0	1.550873E+0	1.524431E+0	1.545931E+0	1.537141E+0	1.481848E+0	1.560483E+0	1.464579E+0	1.583107E+0	1.595578E+0	1.556979E+0	1.512141E+0	1.546830E+0	1.505025E+0	1.596662E+0	1.595242E+0	1.497927E+0	1.554416E+0	1.546058E+0	1.517408E+0	1.516762E+0	1.575898E+0	1.547176E+0	1.563683E+0	1.491610E+0	1.587451E+0	1.581025E+0	1.507742E+0	1.515789E+0	1.595415E+0	1.547346E+0	1.569188E+0	1.503170E+0	1.513930E+0	1.551671E+0	1.622016E+0	1.440017E+0	1.559019E+0	1.530301E+0	1.484935E+0	1.611217E+0	1.572371E+0	1.475070E+0	1.454312E+0	1.534211E+0	1.545306E+0	1.501575E+0	1.509369E+0	1.506921E+0	1.512415E+0	1.514127E+0	1.522341E+0	1.570551E+0	1.526854E+0	1.613598E+0	1.473021E+0	1.591499E+0	1.475228E+0	1.523257E+0	1.533335E+0	1.565691E+0	1.516849E+0	1.551596E+0	1.528513E+0	1.476847E+0	1.556282E+0	1.491636E+0	1.509796E+0	1.558216E+0	1.559729E+0	1.462965E+0	1.527359E+0	1.546849E+0	1.596081E+0	1.563372E+0	1.476797E+0	1.512130E+0	1.544304E+0	1.535347E+0	1.491075E+0	1.489378E+0	1.465291E+0	1.493430E+0	1.523958E+0	1.566384E+0	1.527135E+0	1.508167E+0	1.566108E+0	1.479619E+0	1.576077E+0	1.485386E+0	1.550300E+0	1.542516E+0	1.523460E+0	1.585476E+0	1.433112E+0	1.507279E+0	1.484156E+0	1.506844E+0	1.499148E+0	1.607136E+0	1.521837E+0	1.467092E+0	1.491001E+0	1.515187E+0	1.496465E+0	1.481072E+0	1.477226E+0	1.578875E+0	1.552283E+0	1.449483E+0	1.509707E+0	1.465590E+0	1.536769E+0	1.518027E+0	1.486162E+0	1.512994E+0	1.539386E+0	1.421350E+0	1.480407E+0	1.510886E+0	1.520460E+0	1.479470E+0	1.590939E+0	1.540017E+0	1.559535E+0	1.510405E+0	1.510911E+0	1.510658E+0	1.490078E+0	1.508722E+0	1.515344E+0	1.480533E+0	1.542798E+0	1.564512E+0	1.516648E+0	1.554705E+0	1.513318E+0	1.551894E+0	1.460435E+0	1.492837E+0	1.553539E+0	1.483685E+0	1.421298E+0	1.551598E+0	1.506155E+0	1.491407E+0	1.431055E+0	1.508308E+0	1.572498E+0	1.483810E+0	1.542748E+0	1.544590E+0	1.538120E+0	1.447729E+0	1.526735E+0	1.563575E+0	1.472192E+0	1.487895E+0	1.433635E+0	1.578061E+0	1.516825E+0
5.452690E+2	1.460842E+0	1.415042E+0	1.435717E+0	1.388099E+0	1.403826E+0	1.403993E+0	1.354153E+0	1.409065E+0	1.366234E+0	1.386565E+0	1.415918E+0	1.370992E+0	1.481006E+0	1.471900E+0	1.402587E+0	1.408027E+0	1.423755E+0	1.431091E+0	1.485734E+0	1.444084E+0	1.433393E+0	1.428811E+0	1.353057E+0	1.438035E+0	1.443517E+0	1.455780E+0	1.471572E+0	1.408660E+0	1.379099E+0	1.427062E+0	1.399592E+0	1.404422E+0	1.401004E+0	1.447918E+0	1.392213E+0	1.354871E+0	1.381977E+0	1.481720E+0	1.392930E+0	1.428564E+0	1.348799E+0	1.491384E+0	1.355498E+0	1.408950E+0	1.429720E+0	1.430857E+0	1.369236E+0	1.369942E+0	1.380312E+0	1.410151E+0	1.373143E+0	1.415939E+0	1.431466E+0	1.404034E+0	1.402761E+0	1.423083E+0	1.444324E+0	1.371584E+0	1.486821E+0	1.386114E+0	1.445453E+0	1.443074E+0	1.416952E+0	1.374165E+0	1.446936E+0	1.411241E+0	1.382166E+0	1.393849E+0	1.367647E+0	1.419361E+0	1.380639E+0	1.418683E+0	1.408622E+0	1.368287E+0	1.357373E+0	1.374605E+0	1.404325E+0	1.413604E+0	1.387923E+0	1.401302E+0	1.413587E+0	1.431389E+0	1.449483E+0	1.397418E+0	1.376826E+0	1.493022E+0	1.409170E+0	1.416073E+0	1.430730E+0	1.423841E+0	1.420233E+0	1.347745E+0	1.404048E+0	1.402929E+0	1.369171E+0	1.388164E+0	1.447699E+0	1.367445E+0	1.475976E+0	1.396229E+0	1.404133E+0	1.375035E+0	1.374824E+0	1.411967E+0	1.400613E+0	1.415660E+0	1.334419E+0	1.364682E+0	1.436204E+0	1.376350E+0	1.420652E+0	1.389022E+0	1.415769E+0	1.415378E+0	1.369105E+0	1.429794E+0	1.371951E+0	1.378459E+0	1.402611E+0	1.440184E+0	1.400271E+0	1.427138E+0	1.426799E+0	1.398139E+0	1.427173E+0	1.352640E+0	1.434427E+0	1.442845E+0	1.393377E+0	1.498456E+0	1.332447E+0	1.417401E+0	1.332596E+0	1.361723E+0	1.453245E+0	1.395046E+0	1.377100E+0	1.412121E+0	1.412625E+0	1.365727E+0	1.418699E+0	1.463947E+0	1.376314E+0	1.338280E+0	1.363021E+0	1.389551E+0	1.350111E+0	1.455327E+0	1.412091E+0	1.428310E+0	1.405378E+0	1.368932E+0	1.399276E+0	1.431354E+0	1.386353E+0	1.338776E+0	1.417264E+0	1.409301E+0	1.335047E+0	1.398399E+0	1.407876E+0	1.388389E+0	1.374509E+0	1.406225E+0	1.365259E+0	1.318486E+0
5.455070E+2	1.450134E+0	1.440700E+0	1.385976E+0	1.406196E+0	1.442181E+0	1.406536E+0	1.416249E+0	1.371144E+0	1.365445E+0	1.412276E+0	1.390948E+0	1.375626E+0	1.389773E+0	1.422724E+0	1.406266E+0	1.396901E+0	1.429465E+0	1.384874E+0	1.473050E+0	1.389064E+0	1.431502E+0	1.427487E+0	1.374221E+0	1.407123E+0	1.420876E+0	1.424388E+0	1.402046E+0	1.406712E+0	1.348819E+0	1.393699E+0	1.417562E+0	1.356427E+0	1.354165E+0	1.427843E+0	1.307235E+0	1.414367E+0	1.363793E+0	1.389625E+0	1.390756E+0	1.345613E+0	1.351024E+0	1.466028E+0	1.380902E+0	1.384654E+0	1.385207E+0	1.381714E+0	1.315162E+0	1.350719E+0	1.321564E+0	1.325848E+0	1.437958E+0	1.360788E+0	1.431671E+0	1.419982E+0	1.452053E+0	1.368907E+0	1.402404E+0	1.320912E+0	1.408868E+0	1.362921E+0	1.337353E+0	1.384677E+0	1.330325E+0	1.406018E+0	1.388761E+0	1.387789E+0	1.413507E+0	1.358397E+0	1.402071E+0	1.421866E+0	1.434006E+0	1.330089E+0	1.360530E+0	1.436971E+0	1.366884E+0	1.367517E+0	1.420458E+0	1.452321E+0	1.338835E+0	1.411741E+0	1.428022E+0	1.382352E+0	1.377243E+0	1.380668E+0	1.338158E+0	1.359574E+0	1.367540E+0	1.450428E+0	1.409394E+0	1.331505E+0	1.416102E+0	1.363731E+0	1.377790E+0	1.363054E+0	1.454029E+0	1.384662E+0	1.366495E+0	1.444766E+0	1.411434E+0	1.395975E+0	1.387799E+0	1.329063E+0	1.358618E+0	1.393503E+0	1.409779E+0	1.381362E+0	1.393672E+0	1.323774E+0	1.386194E+0	1.362433E+0	1.405927E+0	1.441528E+0	1.394779E+0	1.339836E+0	1.358377E+0	1.423844E+0	1.373735E+0	1.406230E+0	1.338766E+0	1.378260E+0	1.378067E+0	1.399126E+0	1.307546E+0	1.343156E+0	1.412858E+0	1.439967E+0	1.398415E+0	1.362039E+0	1.436252E+0	1.365994E+0	1.325717E+0	1.393172E+0	1.372014E+0	1.352473E+0	1.314748E+0	1.390734E+0	1.421893E+0	1.400865E+0	1.316363E+0	1.398608E+0	1.447962E+0	1.390346E+0	1.369164E+0	1.405057E+0	1.372981E+0	1.346434E+0	1.362380E+0	1.368034E+0	1.387579E+0	1.400765E+0	1.396412E+0	1.369254E+0	1.425140E+0	1.405395E+0	1.361641E+0	1.352490E+0	1.410641E+0	1.374790E+0	1.324570E+0	1.306465E+0	1.430072E+0	1.396372E+0	1.326101E+0	1.385828E+0	1.436039E+0	1.501620E+0
5.457720E+2	1.347696E+0	1.312670E+0	1.325996E+0	1.267509E+0	1.334414E+0	1.291174E+0	1.277925E+0	1.306213E+0	1.301646E+0	1.288037E+0	1.314723E+0	1.306333E+0	1.317400E+0	1.354162E+0	1.319370E+0	1.310905E+0	1.323389E+0	1.322537E+0	1.318182E+0	1.281263E+0	1.309478E+0	1.299121E+0	1.282716E+0	1.299164E+0	1.317637E+0	1.331393E+0	1.370192E+0	1.311835E+0	1.270053E+0	1.310241E+0	1.253072E+0	1.273789E+0	1.310293E+0	1.346594E+0	1.258332E+0	1.280814E+0	1.301043E+0	1.324485E+0	1.289706E+0	1.304947E+0	1.264978E+0	1.339994E+0	1.346234E+0	1.316644E+0	1.297275E+0	1.317491E+0	1.287626E+0	1.297937E+0	1.294451E+0	1.310935E+0	1.308837E+0	1.307578E+0	1.275492E+0	1.254081E+0	1.313085E+0	1.309476E+0	1.294777E+0	1.317189E+0	1.294836E+0	1.326365E+0	1.305718E+0	1.265641E+0	1.272122E+0	1.309283E+0	1.300260E+0	1.289040E+0	1.351114E+0	1.300418E+0	1.308886E+0	1.320891E+0	1.317156E+0	1.249745E+0	1.231203E+0	1.254686E+0	1.276875E+0	1.332569E+0	1.303540E+0	1.297616E+0	1.319749E+0	1.259346E+0	1.293254E+0	1.296790E+0	1.253815E+0	1.286517E+0	1.294897E+0	1.360603E+0	1.293192E+0	1.340432E+0	1.287397E+0	1.231545E+0	1.255573E+0	1.298279E+0	1.271559E+0	1.373513E+0	1.268808E+0	1.241736E+0	1.273754E+0	1.249104E+0	1.284641E+0	1.281758E+0	1.302282E+0	1.310628E+0	1.280407E+0	1.219462E+0	1.339780E+0	1.301432E+0	1.242975E+0	1.236231E+0	1.337691E+0	1.352223E+0	1.254408E+0	1.291714E+0	1.291838E+0	1.307862E+0	1.291699E+0	1.280166E+0	1.258418E+0	1.263116E+0	1.254029E+0	1.360898E+0	1.289773E+0	1.337757E+0	1.277933E+0	1.257963E+0	1.337401E+0	1.291954E+0	1.308740E+0	1.300615E+0	1.330829E+0	1.328411E+0	1.253094E+0	1.322026E+0	1.320039E+0	1.299975E+0	1.218267E+0	1.329996E+0	1.389164E+0	1.281423E+0	1.269900E+0	1.247428E+0	1.315923E+0	1.298639E+0	1.283154E+0	1.247158E+0	1.273388E+0	1.315469E+0	1.282708E+0	1.268971E+0	1.308546E+0	1.252106E+0	1.286667E+0	1.281197E+0	1.316038E+0	1.224872E+0	1.272965E+0	1.303447E+0	1.367172E+0	1.302908E+0	1.310549E+0	1.304706E+0	1.298569E+0	1.414117E+0	1.277593E+0	1.231347E+0	1.266396E+0	1.329322E+0
5.460110E+2	1.290575E+0	1.245909E+0	1.269160E+0	1.235507E+0	1.187835E+0	1.201368E+0	1.286534E+0	1.244532E+0	1.286045E+0	1.255717E+0	1.302164E+0	1.252710E+0	1.319946E+0	1.274036E+0	1.223429E+0	1.211644E+0	1.253017E+0	1.257229E+0	1.263605E+0	1.269785E+0	1.252909E+0	1.241463E+0	1.226091E+0	1.269673E+0	1.212502E+0	1.255739E+0	1.247395E+0	1.243194E+0	1.216131E+0	1.265036E+0	1.257632E+0	1.177297E+0	1.222515E+0	1.190452E+0	1.219756E+0	1.215223E+0	1.194424E+0	1.226157E+0	1.232088E+0	1.195371E+0	1.258501E+0	1.293117E+0	1.298869E+0	1.234821E+0	1.244138E+0	1.309535E+0	1.224317E+0	1.239344E+0	1.269710E+0	1.256535E+0	1.240106E+0	1.152019E+0	1.201499E+0	1.287793E+0	1.216952E+0	1.247194E+0	1.224098E+0	1.210671E+0	1.286834E+0	1.268364E+0	1.256383E+0	1.283296E+0	1.193070E+0	1.291441E+0	1.239250E+0	1.250180E+0	1.255572E+0	1.248205E+0	1.179868E+0	1.214631E+0	1.212705E+0	1.266572E+0	1.268771E+0	1.184624E+0	1.193622E+0	1.217690E+0	1.256223E+0	1.227888E+0	1.183338E+0	1.236138E+0	1.227457E+0	1.307479E+0	1.262794E+0	1.218088E+0	1.221905E+0	1.174102E+0	1.249521E+0	1.195467E+0	1.239904E+0	1.214533E+0	1.188851E+0	1.260398E+0	1.182263E+0	1.272320E+0	1.230030E+0	1.176998E+0	1.231634E+0	1.258198E+0	1.194088E+0	1.225934E+0	1.208217E+0	1.200833E+0	1.229118E+0	1.255745E+0	1.232837E+0	1.282206E+0	1.258331E+0	1.159350E+0	1.203851E+0	1.297141E+0	1.266076E+0	1.276931E+0	1.251077E+0	1.248639E+0	1.230780E+0	1.279785E+0	1.204437E+0	1.233117E+0	1.293080E+0	1.289512E+0	1.230570E+0	1.341831E+0	1.251219E+0	1.255648E+0	1.240609E+0	1.259522E+0	1.182982E+0	1.248063E+0	1.248235E+0	1.252586E+0	1.237393E+0	1.262656E+0	1.237570E+0	1.239590E+0	1.239547E+0	1.208339E+0	1.234962E+0	1.208714E+0	1.191473E+0	1.149945E+0	1.229316E+0	1.267772E+0	1.196339E+0	1.197034E+0	1.219159E+0	1.277859E+0	1.245903E+0	1.209503E+0	1.304378E+0	1.207436E+0	1.253414E+0	1.217252E+0	1.226976E+0	1.206395E+0	1.312027E+0	1.267337E+0	1.290446E+0	1.283179E+0	1.229355E+0	1.203667E+0	1.262536E+0	1.249207E+0	1.175321E+0	1.268217E+0	1.187169E+0	1.270611E+0
5.467660E+2	1.172478E+0	1.104637E+0	1.121665E+0	1.105798E+0	1.105986E+0	1.102543E+0	1.147827E+0	1.097661E+0	1.060841E+0	1.132627E+0	1.113938E+0	1.139017E+0	1.163493E+0	1.148710E+0	1.105174E+0	1.111163E+0	1.164379E+0	1.129957E+0	1.171383E+0	1.091723E+0	1.144152E+0	1.106274E+0	1.116560E+0	1.127861E+0	1.114873E+0	1.173794E+0	1.153356E+0	1.124923E+0	1.133793E+0	1.134925E+0	1.119017E+0	1.081222E+0	1.103931E+0	1.103477E+0	1.114026E+0	1.056528E+0	1.150855E+0	1.105476E+0	1.101520E+0	1.156088E+0	1.114259E+0	1.163148E+0	1.185256E+0	1.137118E+0	1.126722E+0	1.143550E+0	1.096789E+0	1.121721E+0	1.135830E+0	1.157786E+0	1.093838E+0	1.145411E+0	1.164203E+0	1.125246E+0	1.177573E+0	1.151507E+0	1.135812E+0	1.102819E+0	1.103899E+0	1.088479E+0	1.120321E+0	1.103627E+0	1.094253E+0	1.076296E+0	1.109258E+0	1.160254E+0	1.156232E+0	1.147435E+0	1.118311E+0	1.117700E+0	1.131594E+0	1.124718E+0	1.110117E+0	1.095671E+0	1.094521E+0	1.138103E+0	1.098202E+0	1.189343E+0	1.096213E+0	1.109005E+0	1.124360E+0	1.116040E+0	1.115681E+0	1.165688E+0	1.132676E+0	1.151645E+0	1.147251E+0	1.112046E+0	1.125755E+0	1.092399E+0	1.144820E+0	1.061975E+0	1.081613E+0	1.157076E+0	1.060836E+0	1.102703E+0	1.120782E+0	1.104845E+0	1.086331E+0	1.153341E+0	1.078441E+0	1.111502E+0	1.089471E+0	1.139672E+0	1.134243E+0	1.107150E+0	1.137789E+0	1.031627E+0	1.128465E+0	1.121931E+0	1.100168E+0	1.187156E+0	1.120872E+0	1.129466E+0	1.087196E+0	1.120131E+0	1.116459E+0	1.123345E+0	1.102167E+0	1.153236E+0	1.143903E+0	1.162212E+0	1.123104E+0	1.070653E+0	1.127509E+0	1.121451E+0	1.087265E+0	1.141905E+0	1.117395E+0	1.163740E+0	1.190588E+0	1.105240E+0	1.097805E+0	1.142098E+0	1.096769E+0	1.128415E+0	1.180705E+0	1.170315E+0	1.150470E+0	1.100396E+0	1.189282E+0	1.120956E+0	1.055734E+0	1.102799E+0	1.098943E+0	1.156353E+0	1.141979E+0	1.084576E+0	1.135507E+0	1.152273E+0	1.124409E+0	1.109036E+0	1.145598E+0	1.079019E+0	1.160998E+0	1.087506E+0	1.126803E+0	1.107934E+0	1.045576E+0	1.127742E+0	1.081657E+0	1.122040E+0	1.114856E+0	1.109535E+0	1.116838E+0	1.065275E+0
5.475120E+2	1.229611E+0	1.344933E+0	1.255059E+0	1.266951E+0	1.258638E+0	1.281042E+0	1.217595E+0	1.322076E+0	1.266244E+0	1.276825E+0	1.284165E+0	1.234338E+0	1.295296E+0	1.274176E+0	1.254348E+0	1.246360E+0	1.276013E+0	1.212210E+0	1.269800E+0	1.263558E+0	1.200435E+0	1.227437E+0	1.236102E+0	1.283097E+0	1.301578E+0	1.267555E+0	1.302413E+0	1.253992E+0	1.226067E+0	1.272327E+0	1.276924E+0	1.207399E+0	1.264740E+0	1.292618E+0	1.235230E+0	1.195383E+0	1.308984E+0	1.304355E+0	1.249527E+0	1.272683E+0	1.216346E+0	1.286801E+0	1.279651E+0	1.196852E+0	1.250058E+0	1.309721E+0	1.239287E+0	1.199816E+0	1.249793E+0	1.318609E+0	1.211203E+0	1.242558E+0	1.299426E+0	1.246547E+0	1.295546E+0	1.241436E+0	1.197458E+0	1.260351E+0	1.243046E+0	1.236647E+0	1.243383E+0	1.237942E+0	1.211218E+0	1.224684E+0	1.275931E+0	1.289293E+0	1.259601E+0	1.276429E+0	1.221174E+0	1.268525E+0	1.253320E+0	1.260232E+0	1.254449E+0	1.271305E+0	1.258914E+0	1.215328E+0	1.263539E+0	1.229875E+0	1.298471E+0	1.226247E+0	1.273611E+0	1.259481E+0	1.290856E+0	1.221437E+0	1.287993E+0	1.259660E+0	1.270807E+0	1.250483E+0	1.245054E+0	1.287533E+0	1.237157E+0	1.240826E+0	1.222205E+0	1.244821E+0	1.272997E+0	1.260128E+0	1.235530E+0	1.263091E+0	1.255734E+0	1.212947E+0	1.197397E+0	1.281801E+0	1.187887E+0	1.254635E+0	1.270841E+0	1.248232E+0	1.232023E+0	1.261014E+0	1.234009E+0	1.275347E+0	1.267662E+0	1.322254E+0	1.292198E+0	1.259276E+0	1.227108E+0	1.249867E+0	1.240871E+0	1.215426E+0	1.251875E+0	1.243838E+0	1.273836E+0	1.331122E+0	1.213785E+0	1.263215E+0	1.209216E+0	1.317661E+0	1.239602E+0	1.326163E+0	1.283526E+0	1.297274E+0	1.238115E+0	1.168249E+0	1.230750E+0	1.259021E+0	1.266614E+0	1.242794E+0	1.244533E+0	1.264760E+0	1.215332E+0	1.179084E+0	1.257614E+0	1.280051E+0	1.234072E+0	1.207831E+0	1.237189E+0	1.263070E+0	1.270269E+0	1.228278E+0	1.320356E+0	1.276166E+0	1.288929E+0	1.250930E+0	1.256365E+0	1.274703E+0	1.185201E+0	1.244519E+0	1.196917E+0	1.327834E+0	1.202524E+0	1.236950E+0	1.228902E+0	1.252373E+0	1.264633E+0	1.207674E+0	1.226279E+0	1.139800E+0
5.482600E+2	1.343394E+0	1.323528E+0	1.324927E+0	1.258739E+0	1.326087E+0	1.298448E+0	1.309893E+0	1.289410E+0	1.316642E+0	1.271311E+0	1.287058E+0	1.339297E+0	1.317820E+0	1.341772E+0	1.280878E+0	1.341826E+0	1.302802E+0	1.271587E+0	1.306176E+0	1.287845E+0	1.315454E+0	1.270065E+0	1.285263E+0	1.292547E+0	1.334636E+0	1.326593E+0	1.298496E+0	1.318309E+0	1.262908E+0	1.359630E+0	1.323154E+0	1.298544E+0	1.318174E+0	1.367588E+0	1.281535E+0	1.283744E+0	1.271625E+0	1.335241E+0	1.301899E+0	1.326697E+0	1.275139E+0	1.238936E+0	1.370094E+0	1.242852E+0	1.287556E+0	1.321528E+0	1.269110E+0	1.280922E+0	1.305521E+0	1.304871E+0	1.281523E+0	1.223805E+0	1.254180E+0	1.285810E+0	1.332046E+0	1.347874E+0	1.286852E+0	1.316711E+0	1.352745E+0	1.305809E+0	1.259900E+0	1.318030E+0	1.283102E+0	1.318674E+0	1.298752E+0	1.300304E+0	1.315479E+0	1.249185E+0	1.276793E+0	1.330786E+0	1.340731E+0	1.250980E+0	1.316519E+0	1.276785E+0	1.330451E+0	1.327836E+0	1.336654E+0	1.348377E+0	1.301939E+0	1.278553E+0	1.261025E+0	1.324143E+0	1.217299E+0	1.270574E+0	1.289023E+0	1.329077E+0	1.319196E+0	1.382841E+0	1.281651E+0	1.273586E+0	1.220886E+0	1.297072E+0	1.293003E+0	1.260767E+0	1.276995E+0	1.291282E+0	1.292022E+0	1.315401E+0	1.308024E+0	1.292102E+0	1.279468E+0	1.275073E+0	1.275377E+0	1.313187E+0	1.276983E+0	1.337587E+0	1.277265E+0	1.280226E+0	1.305425E+0	1.347158E+0	1.307484E+0	1.273204E+0	1.320189E+0	1.277891E+0	1.251843E+0	1.265140E+0	1.289202E+0	1.282790E+0	1.316876E+0	1.263240E+0	1.338596E+0	1.272623E+0	1.235245E+0	1.334445E+0	1.266408E+0	1.322945E+0	1.268146E+0	1.350747E+0	1.289452E+0	1.293899E+0	1.247844E+0	1.277648E+0	1.328566E+0	1.279146E+0	1.292102E+0	1.264896E+0	1.325294E+0	1.333438E+0	1.317545E+0	1.249689E+0	1.310346E+0	1.297109E+0	1.284976E+0	1.260341E+0	1.274514E+0	1.356288E+0	1.274802E+0	1.250560E+0	1.344038E+0	1.299036E+0	1.356494E+0	1.271029E+0	1.292067E+0	1.313527E+0	1.271512E+0	1.270378E+0	1.312696E+0	1.327392E+0	1.284442E+0	1.269107E+0	1.379421E+0	1.388116E+0	1.280552E+0	1.279134E+0	1.273911E+0	1.346943E+0
5.490100E+2	1.459858E+0	1.404118E+0	1.414064E+0	1.416837E+0	1.339278E+0	1.413527E+0	1.423833E+0	1.345311E+0	1.331522E+0	1.408524E+0	1.347004E+0	1.367678E+0	1.427321E+0	1.373931E+0	1.371960E+0	1.410629E+0	1.402920E+0	1.377184E+0	1.436555E+0	1.385704E+0	1.359479E+0	1.355189E+0	1.352001E+0	1.344747E+0	1.377887E+0	1.407069E+0	1.379323E+0	1.389673E+0	1.341233E+0	1.454789E+0	1.428932E+0	1.352660E+0	1.439389E+0	1.391402E+0	1.379464E+0	1.403817E+0	1.378342E+0	1.404636E+0	1.389260E+0	1.347654E+0	1.353151E+0	1.360304E+0	1.379998E+0	1.396175E+0	1.439495E+0	1.442598E+0	1.419962E+0	1.349144E+0	1.353439E+0	1.421244E+0	1.357946E+0	1.359516E+0	1.462804E+0	1.406962E+0	1.343329E+0	1.323385E+0	1.412128E+0	1.385870E+0	1.371740E+0	1.403632E+0	1.442341E+0	1.410869E+0	1.348313E+0	1.390301E+0	1.358286E+0	1.419601E+0	1.364066E+0	1.402380E+0	1.401741E+0	1.439549E+0	1.405448E+0	1.368095E+0	1.332985E+0	1.246881E+0	1.392490E+0	1.357746E+0	1.356683E+0	1.367654E+0	1.379216E+0	1.331670E+0	1.350019E+0	1.378513E+0	1.366628E+0	1.362483E+0	1.400521E+0	1.364195E+0	1.391453E+0	1.329598E+0	1.407970E+0	1.413985E+0	1.340852E+0	1.339531E+0	1.305303E+0	1.391860E+0	1.395616E+0	1.347758E+0	1.390831E+0	1.421473E+0	1.378705E+0	1.339916E+0	1.372358E+0	1.361202E+0	1.381069E+0	1.377204E+0	1.387976E+0	1.419792E+0	1.378193E+0	1.345772E+0	1.389135E+0	1.424657E+0	1.425005E+0	1.390358E+0	1.384858E+0	1.469782E+0	1.361216E+0	1.339523E+0	1.321063E+0	1.332435E+0	1.338082E+0	1.353822E+0	1.393041E+0	1.453284E+0	1.327796E+0	1.372166E+0	1.344611E+0	1.363849E+0	1.338042E+0	1.352297E+0	1.356758E+0	1.385846E+0	1.344986E+0	1.363987E+0	1.403245E+0	1.349168E+0	1.361985E+0	1.370039E+0	1.401250E+0	1.415487E+0	1.345960E+0	1.351060E+0	1.329041E+0	1.349821E+0	1.352665E+0	1.360767E+0	1.326312E+0	1.375688E+0	1.351111E+0	1.348294E+0	1.365253E+0	1.406446E+0	1.409706E+0	1.311421E+0	1.404020E+0	1.397045E+0	1.347058E+0	1.350110E+0	1.405877E+0	1.443183E+0	1.349975E+0	1.384200E+0	1.397195E+0	1.303375E+0	1.299174E+0	1.381434E+0	1.416596E+0	1.388363E+0
5.497630E+2	1.270226E+0	1.287027E+0	1.303424E+0	1.266012E+0	1.225290E+0	1.308899E+0	1.238451E+0	1.287440E+0	1.283649E+0	1.220771E+0	1.293480E+0	1.218736E+0	1.290511E+0	1.265545E+0	1.256180E+0	1.270143E+0	1.281332E+0	1.230792E+0	1.278492E+0	1.244268E+0	1.171528E+0	1.256480E+0	1.279407E+0	1.242651E+0	1.245645E+0	1.265893E+0	1.265691E+0	1.239807E+0	1.209978E+0	1.244302E+0	1.289825E+0	1.182234E+0	1.277855E+0	1.267228E+0	1.265090E+0	1.227277E+0	1.164757E+0	1.252821E+0	1.269353E+0	1.263407E+0	1.211365E+0	1.372256E+0	1.256311E+0	1.232220E+0	1.305614E+0	1.296699E+0	1.198745E+0	1.237762E+0	1.232295E+0	1.299135E+0	1.246272E+0	1.194718E+0	1.276506E+0	1.270590E+0	1.343257E+0	1.288295E+0	1.308405E+0	1.277749E+0	1.231927E+0	1.251819E+0	1.260407E+0	1.307482E+0	1.246322E+0	1.246765E+0	1.209356E+0	1.324907E+0	1.297695E+0	1.224149E+0	1.182773E+0	1.264081E+0	1.216724E+0	1.237937E+0	1.239108E+0	1.192544E+0	1.243950E+0	1.222773E+0	1.213767E+0	1.284000E+0	1.206281E+0	1.246677E+0	1.237614E+0	1.233890E+0	1.278869E+0	1.222375E+0	1.200844E+0	1.281565E+0	1.281515E+0	1.243251E+0	1.270967E+0	1.259124E+0	1.225329E+0	1.279357E+0	1.214123E+0	1.257902E+0	1.190537E+0	1.278406E+0	1.191249E+0	1.235925E+0	1.262173E+0	1.261881E+0	1.251094E+0	1.252299E+0	1.259816E+0	1.249429E+0	1.271192E+0	1.320594E+0	1.246967E+0	1.172412E+0	1.275406E+0	1.286228E+0	1.252507E+0	1.241809E+0	1.249846E+0	1.280133E+0	1.209710E+0	1.285843E+0	1.214677E+0	1.268633E+0	1.221898E+0	1.227992E+0	1.239512E+0	1.272030E+0	1.164723E+0	1.232904E+0	1.249259E+0	1.205744E+0	1.226715E+0	1.247326E+0	1.234379E+0	1.290155E+0	1.279303E+0	1.220523E+0	1.297256E+0	1.330959E+0	1.262778E+0	1.298104E+0	1.215060E+0	1.265470E+0	1.220229E+0	1.245526E+0	1.252063E+0	1.228612E+0	1.263746E+0	1.214157E+0	1.221850E+0	1.228686E+0	1.213883E+0	1.261630E+0	1.247633E+0	1.222681E+0	1.290233E+0	1.149439E+0	1.232324E+0	1.329952E+0	1.247817E+0	1.244165E+0	1.263088E+0	1.319660E+0	1.265059E+0	1.239553E+0	1.314618E+0	1.228932E+0	1.207046E+0	1.276323E+0	1.187988E+0	1.250150E+0
5.505060E+2	1.278537E+0	1.247129E+0	1.336422E+0	1.366448E+0	1.292403E+0	1.259885E+0	1.287893E+0	1.324147E+0	1.322158E+0	1.283696E+0	1.252257E+0	1.227165E+0	1.292511E+0	1.340416E+0	1.312278E+0	1.317082E+0	1.286643E+0	1.275525E+0	1.292467E+0	1.286794E+0	1.282584E+0	1.218297E+0	1.277721E+0	1.267854E+0	1.354929E+0	1.323698E+0	1.297719E+0	1.259273E+0	1.266967E+0	1.273434E+0	1.287586E+0	1.240949E+0	1.335068E+0	1.372951E+0	1.181877E+0	1.289579E+0	1.273919E+0	1.275325E+0	1.267933E+0	1.296194E+0	1.274439E+0	1.291270E+0	1.292959E+0	1.315411E+0	1.321882E+0	1.311212E+0	1.228400E+0	1.257672E+0	1.257207E+0	1.329991E+0	1.259218E+0	1.205445E+0	1.252509E+0	1.244062E+0	1.269967E+0	1.273046E+0	1.258379E+0	1.245066E+0	1.291839E+0	1.271914E+0	1.265999E+0	1.299278E+0	1.254079E+0	1.206435E+0	1.331121E+0	1.378090E+0	1.291626E+0	1.271572E+0	1.259019E+0	1.296923E+0	1.270393E+0	1.267734E+0	1.286196E+0	1.261791E+0	1.258800E+0	1.213446E+0	1.298924E+0	1.305778E+0	1.278865E+0	1.221908E+0	1.195042E+0	1.300382E+0	1.284681E+0	1.263608E+0	1.273355E+0	1.295867E+0	1.216687E+0	1.248741E+0	1.269050E+0	1.285968E+0	1.211046E+0	1.222419E+0	1.304964E+0	1.306528E+0	1.229089E+0	1.253992E+0	1.221521E+0	1.319781E+0	1.318954E+0	1.325250E+0	1.291105E+0	1.258210E+0	1.243567E+0	1.282504E+0	1.285489E+0	1.279130E+0	1.208906E+0	1.225220E+0	1.277445E+0	1.314501E+0	1.314844E+0	1.286664E+0	1.227467E+0	1.254286E+0	1.236423E+0	1.295020E+0	1.279875E+0	1.295691E+0	1.279947E+0	1.254194E+0	1.262788E+0	1.314471E+0	1.262218E+0	1.305737E+0	1.228684E+0	1.278837E+0	1.262187E+0	1.293198E+0	1.329707E+0	1.281882E+0	1.190196E+0	1.249256E+0	1.292651E+0	1.240011E+0	1.259232E+0	1.291500E+0	1.321069E+0	1.259533E+0	1.223855E+0	1.219382E+0	1.300770E+0	1.257457E+0	1.266264E+0	1.216057E+0	1.264349E+0	1.281971E+0	1.234694E+0	1.225775E+0	1.326419E+0	1.288367E+0	1.271085E+0	1.245636E+0	1.270536E+0	1.277880E+0	1.277894E+0	1.270924E+0	1.249363E+0	1.348509E+0	1.195960E+0	1.262797E+0	1.261665E+0	1.249901E+0	1.278964E+0	1.225454E+0	1.258658E+0	1.260439E+0
5.512620E+2	1.230041E+0	1.271737E+0	1.301775E+0	1.240034E+0	1.304851E+0	1.249335E+0	1.230487E+0	1.267345E+0	1.289229E+0	1.214068E+0	1.268284E+0	1.200432E+0	1.313143E+0	1.278747E+0	1.269361E+0	1.258443E+0	1.249500E+0	1.210405E+0	1.231276E+0	1.308337E+0	1.217904E+0	1.236387E+0	1.253590E+0	1.260111E+0	1.285406E+0	1.297815E+0	1.312598E+0	1.292315E+0	1.209932E+0	1.232588E+0	1.280705E+0	1.235711E+0	1.291509E+0	1.268663E+0	1.299939E+0	1.256707E+0	1.264258E+0	1.250080E+0	1.268493E+0	1.233347E+0	1.294143E+0	1.306329E+0	1.241462E+0	1.213887E+0	1.225087E+0	1.255093E+0	1.255727E+0	1.287348E+0	1.218007E+0	1.268149E+0	1.233584E+0	1.290826E+0	1.282821E+0	1.300213E+0	1.289243E+0	1.279367E+0	1.291725E+0	1.311990E+0	1.257275E+0	1.206561E+0	1.269474E+0	1.272934E+0	1.288002E+0	1.214122E+0	1.209301E+0	1.277737E+0	1.348832E+0	1.272811E+0	1.244144E+0	1.250147E+0	1.320202E+0	1.240728E+0	1.267542E+0	1.263416E+0	1.158075E+0	1.280194E+0	1.293978E+0	1.283604E+0	1.252721E+0	1.220104E+0	1.279599E+0	1.299570E+0	1.302792E+0	1.205146E+0	1.260309E+0	1.263800E+0	1.310407E+0	1.312955E+0	1.302951E+0	1.225543E+0	1.279730E+0	1.268210E+0	1.230452E+0	1.288035E+0	1.225186E+0	1.281380E+0	1.281068E+0	1.366175E+0	1.296520E+0	1.289521E+0	1.254828E+0	1.238542E+0	1.219714E+0	1.285753E+0	1.281491E+0	1.267126E+0	1.250304E+0	1.271326E+0	1.303084E+0	1.315725E+0	1.233242E+0	1.271290E+0	1.291902E+0	1.297200E+0	1.200922E+0	1.259314E+0	1.278175E+0	1.246859E+0	1.244103E+0	1.273698E+0	1.261411E+0	1.310142E+0	1.228961E+0	1.257789E+0	1.282798E+0	1.232486E+0	1.256327E+0	1.296501E+0	1.243492E+0	1.302830E+0	1.176012E+0	1.275896E+0	1.290570E+0	1.285958E+0	1.214694E+0	1.277747E+0	1.259139E+0	1.232306E+0	1.234742E+0	1.227727E+0	1.254998E+0	1.299875E+0	1.222003E+0	1.263053E+0	1.255921E+0	1.284985E+0	1.292110E+0	1.243224E+0	1.295737E+0	1.280502E+0	1.278226E+0	1.226627E+0	1.281133E+0	1.286413E+0	1.286044E+0	1.268779E+0	1.245005E+0	1.310529E+0	1.212150E+0	1.307475E+0	1.233508E+0	1.276761E+0	1.198236E+0	1.271342E+0	1.322395E+0	1.200030E+0
5.520150E+2	1.238638E+0	1.290331E+0	1.260912E+0	1.259980E+0	1.281927E+0	1.238980E+0	1.268077E+0	1.232580E+0	1.253902E+0	1.254571E+0	1.255479E+0	1.198595E+0	1.278505E+0	1.217496E+0	1.258640E+0	1.191477E+0	1.287505E+0	1.212403E+0	1.267135E+0	1.206067E+0	1.288659E+0	1.203186E+0	1.231661E+0	1.242338E+0	1.252464E+0	1.285011E+0	1.250615E+0	1.251290E+0	1.156441E+0	1.282636E+0	1.256415E+0	1.246208E+0	1.235446E+0	1.270421E+0	1.210394E+0	1.262462E+0	1.244224E+0	1.248188E+0	1.253041E+0	1.214500E+0	1.252768E+0	1.284954E+0	1.265947E+0	1.275044E+0	1.202059E+0	1.281691E+0	1.195931E+0	1.251793E+0	1.233630E+0	1.202738E+0	1.241190E+0	1.228763E+0	1.223113E+0	1.251104E+0	1.263736E+0	1.249690E+0	1.207920E+0	1.149788E+0	1.259264E+0	1.297000E+0	1.244954E+0	1.255843E+0	1.125603E+0	1.246805E+0	1.271886E+0	1.288173E+0	1.263764E+0	1.203804E+0	1.231136E+0	1.262350E+0	1.257110E+0	1.255528E+0	1.256014E+0	1.214447E+0	1.256534E+0	1.187699E+0	1.263090E+0	1.202397E+0	1.263889E+0	1.196682E+0	1.239245E+0	1.257554E+0	1.213498E+0	1.251804E+0	1.221992E+0	1.253353E+0	1.219795E+0	1.222880E+0	1.258023E+0	1.204383E+0	1.279796E+0	1.225821E+0	1.217162E+0	1.229255E+0	1.246649E+0	1.189295E+0	1.254239E+0	1.247797E+0	1.288111E+0	1.205259E+0	1.191116E+0	1.216424E+0	1.200090E+0	1.178862E+0	1.245564E+0	1.295905E+0	1.174817E+0	1.212726E+0	1.236803E+0	1.279714E+0	1.262211E+0	1.183674E+0	1.237520E+0	1.206766E+0	1.221733E+0	1.219234E+0	1.190588E+0	1.293858E+0	1.176110E+0	1.212251E+0	1.245384E+0	1.256690E+0	1.181306E+0	1.206408E+0	1.244495E+0	1.299413E+0	1.184932E+0	1.242188E+0	1.187886E+0	1.302413E+0	1.253834E+0	1.254997E+0	1.280880E+0	1.265079E+0	1.207492E+0	1.248088E+0	1.215740E+0	1.221016E+0	1.248797E+0	1.279751E+0	1.249985E+0	1.238899E+0	1.217088E+0	1.185275E+0	1.243641E+0	1.282492E+0	1.264233E+0	1.174508E+0	1.276769E+0	1.266817E+0	1.227341E+0	1.192549E+0	1.307325E+0	1.265064E+0	1.281149E+0	1.217464E+0	1.215978E+0	1.307559E+0	1.210742E+0	1.236064E+0	1.226704E+0	1.239838E+0	1.243533E+0	1.242680E+0	1.183504E+0	1.236120E+0
5.527590E+2	1.230072E+0	1.211444E+0	1.195219E+0	1.171347E+0	1.203464E+0	1.264967E+0	1.196677E+0	1.185348E+0	1.135088E+0	1.164322E+0	1.265515E+0	1.227833E+0	1.225251E+0	1.227755E+0	1.196559E+0	1.195205E+0	1.232465E+0	1.248713E+0	1.237369E+0	1.239709E+0	1.266414E+0	1.210124E+0	1.175536E+0	1.212806E+0	1.200557E+0	1.205784E+0	1.251622E+0	1.169926E+0	1.171264E+0	1.252408E+0	1.207896E+0	1.202148E+0	1.267341E+0	1.143380E+0	1.219768E+0	1.195771E+0	1.213236E+0	1.223610E+0	1.271665E+0	1.201732E+0	1.159476E+0	1.246169E+0	1.248448E+0	1.195142E+0	1.168870E+0	1.284840E+0	1.224638E+0	1.194133E+0	1.178664E+0	1.147627E+0	1.162733E+0	1.195631E+0	1.171645E+0	1.248066E+0	1.144141E+0	1.217979E+0	1.237912E+0	1.234697E+0	1.258616E+0	1.232385E+0	1.272394E+0	1.161698E+0	1.144954E+0	1.249716E+0	1.226256E+0	1.204493E+0	1.208345E+0	1.245107E+0	1.147998E+0	1.273308E+0	1.217553E+0	1.183399E+0	1.233262E+0	1.166182E+0	1.196959E+0	1.227248E+0	1.227699E+0	1.220033E+0	1.195338E+0	1.196158E+0	1.221675E+0	1.230937E+0	1.244801E+0	1.230382E+0	1.209948E+0	1.214221E+0	1.238073E+0	1.197504E+0	1.234041E+0	1.159599E+0	1.186168E+0	1.161153E+0	1.205031E+0	1.232461E+0	1.242753E+0	1.212030E+0	1.206213E+0	1.173349E+0	1.212555E+0	1.223638E+0	1.181812E+0	1.196028E+0	1.179196E+0	1.226153E+0	1.213578E+0	1.194209E+0	1.180657E+0	1.175324E+0	1.152598E+0	1.216805E+0	1.241755E+0	1.157620E+0	1.233248E+0	1.179106E+0	1.183320E+0	1.181794E+0	1.199915E+0	1.228880E+0	1.196582E+0	1.208394E+0	1.174370E+0	1.233095E+0	1.177387E+0	1.173267E+0	1.203339E+0	1.201587E+0	1.199676E+0	1.205570E+0	1.223666E+0	1.231288E+0	1.223878E+0	1.151227E+0	1.217720E+0	1.202188E+0	1.249808E+0	1.211483E+0	1.203240E+0	1.202588E+0	1.204562E+0	1.225749E+0	1.229780E+0	1.234930E+0	1.151266E+0	1.168106E+0	1.173232E+0	1.201521E+0	1.205664E+0	1.139065E+0	1.254364E+0	1.190213E+0	1.209934E+0	1.198663E+0	1.247241E+0	1.228679E+0	1.204070E+0	1.266070E+0	1.172563E+0	1.214112E+0	1.155252E+0	1.196704E+0	1.172659E+0	1.260190E+0	1.170764E+0	1.227065E+0	1.163002E+0	1.164932E+0
5.535100E+2	1.182340E+0	1.198965E+0	1.222368E+0	1.225894E+0	1.207859E+0	1.223930E+0	1.166053E+0	1.179137E+0	1.191518E+0	1.174474E+0	1.199691E+0	1.174698E+0	1.185823E+0	1.180928E+0	1.194709E+0	1.152589E+0	1.168022E+0	1.157282E+0	1.164676E+0	1.216258E+0	1.156764E+0	1.219366E+0	1.156422E+0	1.207157E+0	1.188678E+0	1.174123E+0	1.220621E+0	1.147757E+0	1.061400E+0	1.216606E+0	1.202381E+0	1.147369E+0	1.137762E+0	1.181336E+0	1.166016E+0	1.183159E+0	1.159915E+0	1.217533E+0	1.173014E+0	1.152254E+0	1.185695E+0	1.171333E+0	1.168178E+0	1.212542E+0	1.209382E+0	1.172831E+0	1.158550E+0	1.148348E+0	1.152207E+0	1.159905E+0	1.189656E+0	1.118476E+0	1.208512E+0	1.178633E+0	1.142060E+0	1.176521E+0	1.171208E+0	1.151090E+0	1.164738E+0	1.202736E+0	1.151999E+0	1.153654E+0	1.134526E+0	1.174415E+0	1.167711E+0	1.214730E+0	1.174251E+0	1.182592E+0	1.164454E+0	1.198839E+0	1.190918E+0	1.182523E+0	1.218050E+0	1.104553E+0	1.146211E+0	1.174924E+0	1.170892E+0	1.161054E+0	1.133549E+0	1.176272E+0	1.191391E+0	1.209488E+0	1.219046E+0	1.166311E+0	1.157485E+0	1.186854E+0	1.202363E+0	1.140131E+0	1.132330E+0	1.182145E+0	1.154873E+0	1.196274E+0	1.115910E+0	1.169128E+0	1.166080E+0	1.157919E+0	1.180966E+0	1.143977E+0	1.214436E+0	1.203040E+0	1.118562E+0	1.195911E+0	1.145170E+0	1.188439E+0	1.240723E+0	1.184473E+0	1.203620E+0	1.120456E+0	1.244195E+0	1.139581E+0	1.161666E+0	1.153040E+0	1.114318E+0	1.175785E+0	1.178702E+0	1.154195E+0	1.138037E+0	1.130184E+0	1.125177E+0	1.180884E+0	1.200364E+0	1.255771E+0	1.113096E+0	1.153509E+0	1.197708E+0	1.199252E+0	1.118115E+0	1.168414E+0	1.154173E+0	1.173208E+0	1.140447E+0	1.197491E+0	1.163085E+0	1.254335E+0	1.163195E+0	1.191765E+0	1.166054E+0	1.214878E+0	1.168975E+0	1.144913E+0	1.192419E+0	1.184002E+0	1.182369E+0	1.138654E+0	1.151834E+0	1.167380E+0	1.134236E+0	1.127766E+0	1.204996E+0	1.205374E+0	1.258725E+0	1.193743E+0	1.159363E+0	1.204572E+0	1.194805E+0	1.178958E+0	1.149520E+0	1.272180E+0	1.196692E+0	1.171988E+0	1.116749E+0	1.237903E+0	1.120505E+0	1.211848E+0	1.124210E+0	1.270168E+0
5.542530E+2	1.241773E+0	1.213902E+0	1.144625E+0	1.147822E+0	1.189417E+0	1.166997E+0	1.164106E+0	1.106471E+0	1.179123E+0	1.118269E+0	1.208736E+0	1.128461E+0	1.177171E+0	1.192477E+0	1.136458E+0	1.147698E+0	1.113536E+0	1.122517E+0	1.150178E+0	1.118361E+0	1.158540E+0	1.120959E+0	1.110889E+0	1.162524E+0	1.155576E+0	1.209865E+0	1.194095E+0	1.189710E+0	1.090086E+0	1.155392E+0	1.154068E+0	1.150281E+0	1.127595E+0	1.154790E+0	1.156730E+0	1.114623E+0	1.153452E+0	1.182961E+0	1.191114E+0	1.196640E+0	1.084199E+0	1.135746E+0	1.177737E+0	1.175287E+0	1.152006E+0	1.139153E+0	1.120264E+0	1.154969E+0	1.140509E+0	1.102791E+0	1.125510E+0	1.121808E+0	1.097479E+0	1.189376E+0	1.168442E+0	1.108290E+0	1.161099E+0	1.173115E+0	1.136442E+0	1.110510E+0	1.186836E+0	1.107945E+0	1.097019E+0	1.179563E+0	1.231938E+0	1.151407E+0	1.141289E+0	1.116128E+0	1.097869E+0	1.145985E+0	1.190608E+0	1.146010E+0	1.163795E+0	1.139982E+0	1.139506E+0	1.079973E+0	1.151080E+0	1.182269E+0	1.112069E+0	1.127730E+0	1.115733E+0	1.106888E+0	1.128011E+0	1.171821E+0	1.088325E+0	1.149902E+0	1.135205E+0	1.113553E+0	1.130989E+0	1.102428E+0	1.172386E+0	1.133965E+0	1.179486E+0	1.160047E+0	1.126340E+0	1.106308E+0	1.129682E+0	1.180816E+0	1.198447E+0	1.158393E+0	1.097767E+0	1.104121E+0	1.112083E+0	1.181910E+0	1.156494E+0	1.189887E+0	1.118223E+0	1.177638E+0	1.188232E+0	1.120743E+0	1.181255E+0	1.098308E+0	1.158793E+0	1.154641E+0	1.087207E+0	1.131689E+0	1.116640E+0	1.118355E+0	1.138933E+0	1.124216E+0	1.147994E+0	1.164248E+0	1.141082E+0	1.228343E+0	1.156489E+0	1.132195E+0	1.107216E+0	1.174816E+0	1.198806E+0	1.101605E+0	1.138203E+0	1.124972E+0	1.141041E+0	1.146664E+0	1.100198E+0	1.107364E+0	1.182460E+0	1.134833E+0	1.080141E+0	1.115125E+0	1.170280E+0	1.141927E+0	1.147457E+0	1.146562E+0	1.092587E+0	1.227481E+0	1.138828E+0	1.176587E+0	1.150608E+0	1.176698E+0	1.172898E+0	1.116385E+0	1.143659E+0	1.145667E+0	1.087406E+0	1.124790E+0	1.143873E+0	1.157774E+0	1.165060E+0	1.127963E+0	1.103096E+0	1.216331E+0	1.103017E+0	1.103461E+0	1.214359E+0	1.133333E+0
5.550190E+2	1.006618E+0	1.011424E+0	1.054299E+0	1.003622E+0	1.064189E+0	9.527736E-1	1.015845E+0	1.074621E+0	1.015055E+0	1.043252E+0	9.979532E-1	1.014899E+0	1.041208E+0	1.027708E+0	1.003474E+0	1.068815E+0	9.875170E-1	1.002486E+0	1.010085E+0	1.007315E+0	1.056910E+0	1.026580E+0	1.027063E+0	9.854364E-1	1.030910E+0	1.028770E+0	1.053921E+0	1.039088E+0	9.479497E-1	1.085610E+0	1.051664E+0	9.823888E-1	1.013742E+0	1.064012E+0	1.016368E+0	1.018662E+0	9.636788E-1	9.960898E-1	1.069010E+0	1.039476E+0	1.012973E+0	1.048739E+0	1.027875E+0	1.043993E+0	1.045993E+0	1.019193E+0	1.000094E+0	9.971345E-1	1.020480E+0	1.023281E+0	1.054046E+0	9.521970E-1	1.045317E+0	1.067978E+0	1.016866E+0	1.002191E+0	1.016906E+0	9.638073E-1	1.126348E+0	1.073725E+0	1.017089E+0	1.025052E+0	1.005448E+0	1.033868E+0	1.066335E+0	1.018616E+0	1.031572E+0	1.037513E+0	1.002360E+0	1.036134E+0	1.036496E+0	1.026009E+0	1.077037E+0	9.837676E-1	1.046508E+0	1.018032E+0	1.002427E+0	9.934283E-1	1.027050E+0	1.013128E+0	1.017500E+0	1.006033E+0	1.040922E+0	1.021743E+0	1.007308E+0	9.845442E-1	1.060448E+0	1.070182E+0	1.051540E+0	1.035578E+0	1.035921E+0	1.056182E+0	1.049566E+0	1.051545E+0	1.023864E+0	1.028831E+0	1.028281E+0	9.741870E-1	1.030877E+0	1.034011E+0	1.061273E+0	1.023627E+0	1.035838E+0	1.016097E+0	1.011092E+0	1.065046E+0	1.044716E+0	1.027165E+0	1.044851E+0	1.033027E+0	1.034940E+0	1.004725E+0	1.055357E+0	1.044595E+0	1.071511E+0	1.020360E+0	1.037755E+0	9.918263E-1	9.824273E-1	1.084913E+0	9.934534E-1	1.008101E+0	1.044296E+0	9.964987E-1	1.053181E+0	1.051406E+0	1.064768E+0	1.051216E+0	1.093360E+0	1.038614E+0	1.018396E+0	9.770289E-1	1.029073E+0	1.004819E+0	9.756312E-1	1.045952E+0	1.033214E+0	1.096246E+0	1.022739E+0	1.036224E+0	1.031172E+0	1.020398E+0	9.754128E-1	9.976547E-1	1.039630E+0	1.052674E+0	1.106551E+0	9.909543E-1	1.033652E+0	1.059121E+0	1.052755E+0	9.955323E-1	9.990585E-1	1.045859E+0	1.046320E+0	1.020237E+0	1.042391E+0	1.072506E+0	1.043890E+0	1.057310E+0	1.035769E+0	1.061934E+0	9.852082E-1	1.048191E+0	9.779318E-1	9.957031E-1
5.557660E+2	1.034118E+0	1.052666E+0	1.021677E+0	9.750981E-1	9.805113E-1	9.344205E-1	9.369703E-1	1.028775E+0	9.862280E-1	9.701116E-1	1.044419E+0	9.799091E-1	9.954994E-1	9.860621E-1	1.016310E+0	9.705737E-1	9.872513E-1	9.620366E-1	1.054467E+0	1.007744E+0	9.688116E-1	9.806637E-1	1.018567E+0	9.859042E-1	1.021821E+0	1.041391E+0	1.029683E+0	9.898279E-1	9.698091E-1	9.871795E-1	1.054549E+0	1.018029E+0	9.732874E-1	9.563016E-1	9.557493E-1	9.842607E-1	9.634124E-1	9.885100E-1	1.043369E+0	9.636673E-1	9.826972E-1	9.843011E-1	1.034597E+0	9.928780E-1	9.699233E-1	1.017847E+0	1.021599E+0	9.563017E-1	9.322278E-1	9.758933E-1	1.030454E+0	9.993089E-1	1.020251E+0	9.823700E-1	1.010780E+0	9.648634E-1	9.971642E-1	9.916831E-1	9.839654E-1	1.022203E+0	1.012709E+0	9.437000E-1	9.953024E-1	1.029438E+0	1.044971E+0	1.008657E+0	9.790364E-1	1.019209E+0	9.945355E-1	9.722113E-1	9.945960E-1	9.938100E-1	1.035461E+0	9.446675E-1	9.583196E-1	1.010281E+0	1.021050E+0	9.685343E-1	9.823795E-1	9.677931E-1	1.005341E+0	9.948178E-1	9.887307E-1	9.649998E-1	9.891170E-1	1.029469E+0	1.005607E+0	9.988274E-1	1.014749E+0	9.921419E-1	1.016540E+0	1.003065E+0	9.913709E-1	9.951722E-1	9.584908E-1	9.846230E-1	1.028965E+0	1.011501E+0	9.989684E-1	1.003805E+0	9.585715E-1	9.985054E-1	9.952736E-1	9.909281E-1	1.018790E+0	9.775855E-1	1.024788E+0	9.754852E-1	9.969919E-1	9.640279E-1	1.040147E+0	9.923067E-1	1.040377E+0	9.712580E-1	1.005614E+0	9.736465E-1	1.027235E+0	9.783087E-1	9.681230E-1	1.006531E+0	1.026183E+0	1.021528E+0	9.611873E-1	1.037663E+0	9.991697E-1	9.799272E-1	1.007382E+0	1.024308E+0	1.001575E+0	9.495391E-1	1.022840E+0	9.977919E-1	9.871434E-1	1.028249E+0	1.000496E+0	1.042788E+0	1.012303E+0	9.954724E-1	9.788577E-1	1.012860E+0	1.016374E+0	1.018331E+0	9.918436E-1	1.017223E+0	9.546628E-1	1.011995E+0	9.812782E-1	9.218307E-1	9.780075E-1	1.022476E+0	1.015353E+0	9.405743E-1	9.945780E-1	1.027483E+0	9.626358E-1	9.996685E-1	9.958378E-1	1.079053E+0	1.017526E+0	1.020721E+0	9.739521E-1	1.017105E+0	9.915277E-1	9.771163E-1	1.031866E+0	9.605493E-1
5.560130E+2	9.857044E-1	9.706760E-1	1.001943E+0	9.180892E-1	9.608236E-1	9.753580E-1	9.243907E-1	9.904389E-1	9.445758E-1	9.587000E-1	9.576920E-1	9.204709E-1	1.031813E+0	9.616089E-1	9.972469E-1	9.467815E-1	9.687878E-1	9.833366E-1	1.014873E+0	1.039872E+0	1.010453E+0	9.369666E-1	9.637634E-1	9.477782E-1	9.774373E-1	9.449047E-1	1.039533E+0	9.837063E-1	9.278241E-1	9.827109E-1	1.062582E+0	1.008634E+0	1.013151E+0	9.753050E-1	9.912721E-1	9.567841E-1	9.685284E-1	1.011455E+0	9.574037E-1	9.729331E-1	9.468551E-1	9.687365E-1	9.763894E-1	9.940838E-1	9.460287E-1	9.694504E-1	9.931702E-1	1.005963E+0	9.717544E-1	9.937168E-1	9.434454E-1	9.825215E-1	9.926004E-1	9.981590E-1	9.590377E-1	9.620181E-1	9.923714E-1	9.502520E-1	9.313372E-1	9.915867E-1	9.846792E-1	9.127362E-1	9.479320E-1	9.865655E-1	9.268610E-1	9.818830E-1	9.719032E-1	9.890793E-1	9.327145E-1	9.717401E-1	9.791899E-1	9.551814E-1	9.165321E-1	9.226425E-1	9.578531E-1	9.596485E-1	9.932356E-1	9.962115E-1	9.681294E-1	9.098342E-1	9.416999E-1	9.954428E-1	9.838547E-1	9.375126E-1	9.789404E-1	9.865291E-1	9.603995E-1	9.927707E-1	1.042982E+0	9.822258E-1	9.434626E-1	9.894496E-1	9.623588E-1	9.596745E-1	1.029248E+0	9.899035E-1	9.834265E-1	9.834597E-1	1.010584E+0	9.772293E-1	9.844676E-1	9.867356E-1	8.762682E-1	1.005204E+0	9.593334E-1	9.789208E-1	9.487605E-1	9.351444E-1	9.478993E-1	1.011062E+0	1.003379E+0	9.715003E-1	9.832742E-1	9.284650E-1	9.480417E-1	9.977948E-1	9.915011E-1	9.960493E-1	9.713699E-1	9.857622E-1	9.657380E-1	9.800109E-1	9.791163E-1	1.006750E+0	1.007421E+0	9.792578E-1	1.006534E+0	9.875156E-1	1.013738E+0	9.921405E-1	9.281416E-1	9.627922E-1	9.602516E-1	9.599329E-1	9.593136E-1	9.826037E-1	9.623184E-1	9.571457E-1	9.561604E-1	9.553951E-1	9.900322E-1	9.665076E-1	9.374434E-1	9.992661E-1	9.424318E-1	9.174342E-1	9.439840E-1	9.633826E-1	1.054731E+0	9.611749E-1	9.850836E-1	9.342073E-1	1.021803E+0	9.628202E-1	9.500315E-1	1.000753E+0	9.584563E-1	9.601867E-1	9.548507E-1	9.734461E-1	9.502812E-1	9.863979E-1	9.772285E-1	9.901910E-1	9.652783E-1	1.039870E+0
5.565090E+2	9.135061E-1	9.724297E-1	9.261970E-1	9.173902E-1	9.715533E-1	9.593484E-1	9.537985E-1	9.480416E-1	9.500809E-1	9.230098E-1	9.639688E-1	9.296019E-1	9.688925E-1	9.175027E-1	9.585848E-1	9.296830E-1	9.485315E-1	8.912916E-1	9.353865E-1	9.590238E-1	9.499270E-1	9.171818E-1	9.518089E-1	9.473255E-1	9.422126E-1	9.787153E-1	9.701658E-1	9.486071E-1	8.895140E-1	9.456111E-1	8.858671E-1	9.431334E-1	9.455994E-1	9.126792E-1	9.372248E-1	9.302131E-1	8.839968E-1	9.608598E-1	9.506514E-1	9.666212E-1	9.302298E-1	9.290502E-1	9.766391E-1	9.502102E-1	9.791681E-1	9.861237E-1	9.905799E-1	9.162788E-1	9.265903E-1	9.493513E-1	9.592898E-1	9.609749E-1	9.705171E-1	9.345705E-1	9.451194E-1	9.619716E-1	9.562361E-1	8.977883E-1	9.832791E-1	9.673385E-1	9.109660E-1	9.103372E-1	9.689406E-1	9.459119E-1	9.141037E-1	9.431555E-1	1.000858E+0	9.144020E-1	9.866486E-1	9.085964E-1	8.863960E-1	9.298323E-1	9.758228E-1	8.975397E-1	9.072002E-1	9.177497E-1	9.342146E-1	9.480095E-1	9.576331E-1	9.304442E-1	9.319416E-1	9.520835E-1	9.841182E-1	9.832731E-1	9.241081E-1	9.399314E-1	9.398807E-1	9.733060E-1	9.598834E-1	9.791420E-1	9.670578E-1	9.375223E-1	9.487619E-1	9.238412E-1	9.610162E-1	9.341621E-1	9.172150E-1	9.223127E-1	9.786758E-1	9.534016E-1	9.133236E-1	8.773382E-1	9.148754E-1	9.235237E-1	9.720787E-1	9.380163E-1	9.231626E-1	9.334615E-1	9.216146E-1	9.838337E-1	9.703746E-1	9.421100E-1	9.655517E-1	9.217082E-1	9.621735E-1	8.923195E-1	9.733519E-1	9.393832E-1	9.040869E-1	9.139084E-1	9.340364E-1	9.363733E-1	9.105007E-1	9.400070E-1	9.865876E-1	9.277268E-1	9.454898E-1	9.864258E-1	9.820876E-1	9.396211E-1	9.475581E-1	9.465665E-1	9.704104E-1	9.666963E-1	9.538432E-1	9.318916E-1	9.226732E-1	8.875613E-1	9.710893E-1	9.095582E-1	9.127246E-1	9.321114E-1	9.564883E-1	9.761247E-1	9.575065E-1	9.368524E-1	9.444521E-1	9.491301E-1	9.610135E-1	9.274273E-1	9.839229E-1	9.387835E-1	9.896356E-1	9.418388E-1	9.197867E-1	9.816771E-1	9.708713E-1	9.959265E-1	9.950425E-1	9.272744E-1	9.411176E-1	9.595889E-1	9.366859E-1	9.429358E-1	9.775971E-1	9.042508E-1
5.570220E+2	9.611730E-1	9.724414E-1	9.836230E-1	9.646319E-1	9.402199E-1	9.123438E-1	8.983058E-1	9.339692E-1	1.020383E+0	9.576600E-1	8.896488E-1	9.674997E-1	9.398869E-1	9.686428E-1	9.444166E-1	1.000548E+0	9.710652E-1	9.306181E-1	9.744395E-1	9.491403E-1	9.546501E-1	8.958943E-1	9.345996E-1	9.190954E-1	9.522225E-1	9.688548E-1	9.839472E-1	9.891532E-1	9.529242E-1	9.738534E-1	9.829135E-1	9.207397E-1	9.619139E-1	9.355227E-1	9.341549E-1	9.160604E-1	9.772989E-1	9.715028E-1	9.461515E-1	9.658720E-1	9.369695E-1	9.926649E-1	1.020348E+0	9.710967E-1	9.284450E-1	9.481418E-1	9.512384E-1	9.348517E-1	9.835272E-1	9.234990E-1	9.577952E-1	9.297175E-1	9.485074E-1	9.930609E-1	9.609949E-1	9.182781E-1	9.628135E-1	9.244428E-1	9.719954E-1	9.407529E-1	9.131391E-1	9.542802E-1	9.181349E-1	9.507120E-1	1.040767E+0	9.996601E-1	9.626234E-1	9.392649E-1	9.173250E-1	9.663405E-1	9.688049E-1	9.599750E-1	9.868564E-1	9.765638E-1	9.772404E-1	9.488335E-1	9.318694E-1	9.712556E-1	9.657306E-1	9.343985E-1	9.528808E-1	9.568284E-1	9.427512E-1	9.562321E-1	9.899802E-1	9.799935E-1	1.028968E+0	9.097015E-1	9.852486E-1	9.480318E-1	9.276722E-1	9.641603E-1	9.034650E-1	9.372986E-1	1.022222E+0	9.620991E-1	9.389631E-1	9.770443E-1	1.003862E+0	9.449047E-1	9.608661E-1	9.034762E-1	9.275343E-1	9.263826E-1	1.030018E+0	9.483697E-1	9.333620E-1	9.374653E-1	9.737879E-1	9.491773E-1	9.495855E-1	9.389663E-1	1.041724E+0	1.014565E+0	9.605078E-1	9.404282E-1	9.369981E-1	9.517341E-1	9.455089E-1	9.390691E-1	9.595400E-1	9.480885E-1	9.152132E-1	9.448595E-1	9.714332E-1	9.877453E-1	1.013601E+0	9.734889E-1	1.033192E+0	1.011148E+0	9.486038E-1	9.543174E-1	9.722564E-1	9.951989E-1	9.620886E-1	9.771833E-1	9.178313E-1	9.851609E-1	9.321667E-1	9.543126E-1	9.583688E-1	9.791497E-1	9.923582E-1	9.247294E-1	1.010110E+0	9.814761E-1	9.419744E-1	9.752823E-1	9.653007E-1	9.217442E-1	9.567168E-1	9.351611E-1	9.304993E-1	9.899078E-1	9.913888E-1	9.374865E-1	9.528095E-1	9.419297E-1	9.756433E-1	9.140545E-1	9.495629E-1	9.713434E-1	1.003608E+0	9.937429E-1	9.733207E-1	9.325692E-1
5.575130E+2	9.183725E-1	8.996542E-1	9.325659E-1	8.852687E-1	9.470221E-1	9.484343E-1	9.519381E-1	9.247620E-1	8.960868E-1	9.486078E-1	9.723113E-1	8.811020E-1	9.608235E-1	9.254889E-1	9.621047E-1	9.344578E-1	9.517795E-1	9.215998E-1	9.680133E-1	9.982577E-1	9.322251E-1	9.244717E-1	9.451588E-1	9.128352E-1	9.158962E-1	9.392200E-1	9.284389E-1	9.505276E-1	8.721929E-1	9.598644E-1	8.774647E-1	9.180857E-1	9.527771E-1	9.083104E-1	8.962818E-1	9.141644E-1	9.210030E-1	9.469054E-1	9.526437E-1	9.094293E-1	9.265313E-1	9.193409E-1	9.460313E-1	9.223662E-1	9.680962E-1	9.238045E-1	9.299123E-1	9.500936E-1	9.901792E-1	9.417178E-1	9.544446E-1	9.097679E-1	9.819034E-1	9.145798E-1	9.455221E-1	9.302079E-1	9.551304E-1	9.034902E-1	9.536578E-1	9.163379E-1	9.002364E-1	9.362846E-1	9.271549E-1	9.207635E-1	9.636084E-1	9.140232E-1	9.526284E-1	9.659863E-1	9.046822E-1	9.164236E-1	9.578718E-1	9.466493E-1	8.751199E-1	9.701831E-1	9.104882E-1	9.556060E-1	9.638457E-1	9.706700E-1	9.850236E-1	8.722243E-1	9.875657E-1	9.609206E-1	9.575006E-1	9.802379E-1	9.927618E-1	8.952884E-1	9.214156E-1	9.370320E-1	1.010741E+0	9.400981E-1	9.302064E-1	9.450052E-1	8.849116E-1	9.002544E-1	9.164147E-1	9.441133E-1	9.450241E-1	9.427896E-1	9.340409E-1	8.790856E-1	9.831354E-1	9.676766E-1	9.054865E-1	9.990916E-1	1.012415E+0	9.489556E-1	9.234979E-1	9.293738E-1	9.367007E-1	9.388714E-1	9.246107E-1	9.330107E-1	9.025098E-1	9.176895E-1	8.931059E-1	8.707628E-1	9.217904E-1	9.040461E-1	9.184904E-1	9.877899E-1	8.944377E-1	9.749660E-1	9.521257E-1	9.241269E-1	9.478308E-1	9.452744E-1	9.428840E-1	9.086258E-1	9.441942E-1	9.783509E-1	9.595194E-1	9.000051E-1	9.774261E-1	9.600454E-1	9.313412E-1	9.538591E-1	9.299526E-1	9.431496E-1	9.411272E-1	9.695886E-1	9.477631E-1	9.402465E-1	9.136623E-1	8.963091E-1	9.310929E-1	9.287652E-1	9.605771E-1	8.953280E-1	9.527403E-1	9.026267E-1	9.829799E-1	9.719795E-1	9.903557E-1	9.133420E-1	9.127438E-1	9.317859E-1	9.573224E-1	9.926696E-1	9.616158E-1	9.171458E-1	9.335445E-1	9.837171E-1	9.365701E-1	9.929826E-1	8.951299E-1	8.907098E-1
5.580170E+2	1.037667E+0	9.776138E-1	1.055045E+0	9.422532E-1	1.038410E+0	9.781894E-1	9.886483E-1	1.008231E+0	1.011342E+0	1.010593E+0	9.935393E-1	9.976512E-1	9.775369E-1	1.016063E+0	1.026970E+0	9.891611E-1	1.008985E+0	1.022431E+0	1.054621E+0	9.945914E-1	1.007467E+0	9.834775E-1	1.018027E+0	9.744855E-1	9.746863E-1	1.025159E+0	1.018900E+0	9.941055E-1	1.006170E+0	1.077511E+0	1.042780E+0	9.908123E-1	1.040708E+0	1.009965E+0	1.004308E+0	9.648650E-1	9.878279E-1	9.985108E-1	1.023321E+0	1.039226E+0	9.466589E-1	9.929477E-1	1.002889E+0	1.001310E+0	9.731668E-1	9.963733E-1	1.006993E+0	9.923162E-1	1.000212E+0	9.890112E-1	9.930786E-1	9.702825E-1	9.948705E-1	9.741318E-1	9.767100E-1	1.003567E+0	1.034540E+0	9.787335E-1	9.922845E-1	9.714637E-1	9.970562E-1	1.024115E+0	1.051361E+0	1.002290E+0	9.954242E-1	1.010262E+0	9.541170E-1	1.052752E+0	1.015861E+0	9.830775E-1	9.855611E-1	1.019638E+0	1.023309E+0	9.898170E-1	9.697308E-1	1.009113E+0	1.030331E+0	9.593985E-1	1.021953E+0	9.579549E-1	9.758875E-1	9.866966E-1	1.011023E+0	9.905966E-1	9.817748E-1	1.000096E+0	1.038477E+0	1.013980E+0	1.004571E+0	1.033172E+0	9.648702E-1	1.008474E+0	9.873825E-1	9.897616E-1	9.776127E-1	9.947331E-1	9.832802E-1	9.977096E-1	1.010724E+0	1.005374E+0	9.896372E-1	1.012062E+0	1.035148E+0	1.015977E+0	9.888632E-1	9.856421E-1	1.033768E+0	1.019268E+0	1.005441E+0	9.385417E-1	1.026065E+0	1.015168E+0	9.619305E-1	1.003755E+0	1.008117E+0	9.912305E-1	9.828483E-1	1.002998E+0	1.007194E+0	9.640588E-1	9.556229E-1	9.800445E-1	1.005924E+0	1.024056E+0	9.865211E-1	9.796990E-1	1.013725E+0	1.002477E+0	9.881188E-1	1.015031E+0	9.688988E-1	9.651354E-1	1.024187E+0	1.030763E+0	9.868284E-1	9.806778E-1	9.988036E-1	1.001650E+0	9.716348E-1	9.988100E-1	1.012038E+0	9.693650E-1	1.017200E+0	9.872771E-1	1.011396E+0	1.024414E+0	9.982582E-1	1.015558E+0	1.015025E+0	9.784037E-1	9.907545E-1	9.873911E-1	1.008107E+0	9.881483E-1	1.021313E+0	9.908229E-1	9.475242E-1	9.534885E-1	1.001662E+0	1.014665E+0	1.011242E+0	1.026382E+0	1.007964E+0	1.007822E+0	1.017721E+0	1.020577E+0
5.585220E+2	9.606212E-1	9.574328E-1	9.993631E-1	1.004037E+0	9.707460E-1	9.975136E-1	9.777795E-1	1.003691E+0	9.881665E-1	9.771583E-1	1.010636E+0	9.623615E-1	1.018229E+0	9.808518E-1	9.765080E-1	1.010645E+0	9.762183E-1	1.010041E+0	1.037088E+0	1.004079E+0	9.933997E-1	1.006945E+0	1.017212E+0	1.040266E+0	1.000085E+0	9.832748E-1	1.032913E+0	9.891445E-1	9.650466E-1	1.009467E+0	9.650279E-1	9.862053E-1	9.735561E-1	9.947902E-1	1.000056E+0	9.702292E-1	1.005662E+0	9.930201E-1	9.796524E-1	1.023462E+0	1.007051E+0	9.722201E-1	9.534777E-1	9.830462E-1	9.938389E-1	9.954748E-1	9.767006E-1	1.004380E+0	9.872809E-1	1.007787E+0	9.703779E-1	9.778134E-1	9.786359E-1	1.006277E+0	1.005674E+0	1.050106E+0	9.934905E-1	1.056117E+0	9.933476E-1	9.570548E-1	1.034465E+0	9.996970E-1	9.672516E-1	9.938744E-1	9.865540E-1	1.018543E+0	1.006872E+0	9.640752E-1	9.973935E-1	1.003360E+0	1.015778E+0	1.032900E+0	9.975632E-1	9.495621E-1	9.838642E-1	9.677501E-1	9.965825E-1	9.630436E-1	9.948437E-1	9.882472E-1	9.413629E-1	9.868870E-1	1.003280E+0	1.000730E+0	9.941477E-1	9.542704E-1	9.862229E-1	9.763683E-1	9.873328E-1	1.048386E+0	1.022330E+0	1.006974E+0	1.022071E+0	1.025937E+0	1.001806E+0	9.759558E-1	1.022207E+0	9.975765E-1	9.457782E-1	9.672101E-1	1.037859E+0	9.787161E-1	9.578961E-1	9.932602E-1	1.028593E+0	1.042543E+0	1.049837E+0	1.040987E+0	1.024840E+0	9.686758E-1	9.747048E-1	1.035687E+0	1.006578E+0	9.767515E-1	1.040376E+0	1.021925E+0	1.016762E+0	1.030381E+0	9.756225E-1	1.018719E+0	1.008783E+0	1.025535E+0	9.486873E-1	9.942048E-1	1.018067E+0	9.954832E-1	9.950037E-1	1.014947E+0	1.018798E+0	9.912657E-1	9.784313E-1	1.012368E+0	9.808564E-1	9.469202E-1	1.016148E+0	9.968686E-1	1.028473E+0	9.770461E-1	1.008263E+0	9.714015E-1	9.940297E-1	1.014492E+0	1.011993E+0	9.753374E-1	1.025133E+0	9.865919E-1	9.957302E-1	1.035953E+0	1.000667E+0	1.017265E+0	9.743028E-1	1.008968E+0	9.747562E-1	1.002799E+0	1.012577E+0	1.040677E+0	1.032637E+0	9.927985E-1	9.957394E-1	1.000051E+0	9.890715E-1	1.036708E+0	1.001066E+0	9.830879E-1	9.409863E-1	9.327395E-1
5.590210E+2	1.046964E+0	1.043696E+0	1.006116E+0	1.038262E+0	1.046132E+0	1.031147E+0	1.042199E+0	1.015157E+0	1.043770E+0	1.056300E+0	1.066815E+0	1.035081E+0	1.077515E+0	1.058894E+0	1.025576E+0	1.050624E+0	1.048816E+0	1.011514E+0	1.037409E+0	1.019227E+0	1.068215E+0	1.044748E+0	1.033236E+0	1.049537E+0	1.037753E+0	1.043665E+0	9.933598E-1	1.064877E+0	1.040018E+0	1.048835E+0	1.049920E+0	1.025224E+0	1.036876E+0	1.039081E+0	1.053071E+0	1.034531E+0	1.036791E+0	9.974750E-1	1.043544E+0	1.010618E+0	1.099349E+0	1.083474E+0	1.065553E+0	1.057671E+0	1.035304E+0	1.032492E+0	1.039863E+0	1.015399E+0	1.038895E+0	1.039709E+0	1.005545E+0	1.041584E+0	1.072463E+0	1.044775E+0	1.063193E+0	1.022012E+0	1.056929E+0	1.032076E+0	1.026245E+0	1.049992E+0	1.047842E+0	1.023817E+0	1.028564E+0	1.063860E+0	1.034686E+0	1.006776E+0	1.083665E+0	1.055724E+0	1.025941E+0	1.020872E+0	1.069200E+0	1.044483E+0	1.015247E+0	1.034660E+0	1.017225E+0	1.011993E+0	1.078498E+0	1.053247E+0	9.960571E-1	1.040017E+0	1.056424E+0	1.010799E+0	1.005684E+0	1.048580E+0	1.045254E+0	1.059861E+0	1.003739E+0	1.007486E+0	1.028129E+0	1.007402E+0	1.060768E+0	1.022065E+0	1.030050E+0	1.058654E+0	1.033305E+0	1.057969E+0	1.032717E+0	1.025825E+0	1.034015E+0	1.072817E+0	1.051701E+0	1.034855E+0	1.060935E+0	1.011656E+0	1.024014E+0	1.004937E+0	1.050499E+0	9.845206E-1	1.066287E+0	1.015433E+0	1.031826E+0	1.026759E+0	9.990843E-1	1.059568E+0	1.051196E+0	1.082403E+0	1.070969E+0	1.030931E+0	1.028628E+0	1.039776E+0	1.023247E+0	1.073076E+0	1.061491E+0	1.076500E+0	1.070993E+0	1.079122E+0	1.005626E+0	9.965981E-1	1.058571E+0	1.034026E+0	1.085660E+0	1.004257E+0	1.048795E+0	1.081335E+0	1.047665E+0	1.071953E+0	9.719432E-1	1.093796E+0	1.057408E+0	1.045547E+0	1.061012E+0	1.052314E+0	1.058041E+0	1.075938E+0	1.070039E+0	1.053252E+0	1.045702E+0	1.077148E+0	1.051866E+0	1.058272E+0	1.063186E+0	1.045758E+0	1.034122E+0	9.850933E-1	1.031667E+0	1.035890E+0	1.034732E+0	1.053319E+0	1.046743E+0	1.052362E+0	1.026422E+0	1.065297E+0	1.000918E+0	1.043824E+0	9.932831E-1	1.089969E+0
5.595110E+2	1.024254E+0	1.049685E+0	1.004653E+0	1.010972E+0	1.058792E+0	9.913318E-1	1.004672E+0	1.046303E+0	1.005063E+0	1.031659E+0	1.022388E+0	1.009276E+0	9.600766E-1	1.014644E+0	9.663034E-1	9.735436E-1	9.734364E-1	1.053446E+0	9.756515E-1	1.058150E+0	1.018135E+0	9.622192E-1	9.911669E-1	1.038681E+0	1.006708E+0	9.932871E-1	9.903875E-1	1.010150E+0	1.021084E+0	9.789413E-1	9.900932E-1	1.033177E+0	1.014801E+0	1.009890E+0	1.034063E+0	1.055342E+0	1.008299E+0	1.037649E+0	1.035014E+0	9.899503E-1	9.928333E-1	1.025378E+0	1.000143E+0	9.716671E-1	1.026678E+0	1.017971E+0	1.003285E+0	9.572074E-1	1.027527E+0	9.723921E-1	1.044663E+0	9.930817E-1	1.002628E+0	1.017686E+0	1.010402E+0	9.503519E-1	1.016026E+0	9.702238E-1	9.851367E-1	9.756196E-1	1.006641E+0	1.025876E+0	1.031061E+0	9.646739E-1	1.028536E+0	9.951101E-1	9.814820E-1	1.037430E+0	1.003068E+0	9.990426E-1	9.831045E-1	9.918891E-1	9.984905E-1	1.022971E+0	1.014299E+0	1.025235E+0	9.941146E-1	1.022437E+0	1.046727E+0	1.018509E+0	9.985998E-1	1.007571E+0	1.058475E+0	9.656880E-1	1.037846E+0	1.016692E+0	1.010203E+0	1.029418E+0	1.055808E+0	9.899742E-1	9.838385E-1	9.954966E-1	1.030286E+0	9.992951E-1	1.049922E+0	1.012322E+0	1.020781E+0	1.019202E+0	9.938954E-1	9.799196E-1	9.816330E-1	9.990788E-1	9.889771E-1	1.019268E+0	9.768825E-1	9.542783E-1	1.028004E+0	9.872999E-1	1.011342E+0	1.023427E+0	1.017561E+0	1.020262E+0	1.049330E+0	1.000481E+0	1.055931E+0	1.024799E+0	9.767299E-1	9.713772E-1	9.874614E-1	9.429201E-1	1.049028E+0	9.507568E-1	9.925384E-1	9.916018E-1	1.007710E+0	9.829200E-1	1.028842E+0	1.039346E+0	9.763596E-1	9.946298E-1	1.012935E+0	1.040523E+0	1.013289E+0	1.050017E+0	1.002942E+0	1.026433E+0	1.021663E+0	1.010392E+0	9.902371E-1	1.013187E+0	9.843562E-1	1.028882E+0	1.009481E+0	1.015054E+0	9.882310E-1	9.919783E-1	1.001649E+0	9.404052E-1	1.012772E+0	1.003540E+0	1.004727E+0	1.054304E+0	1.030491E+0	1.074729E+0	1.021997E+0	9.902462E-1	1.014084E+0	1.023864E+0	1.030105E+0	1.012649E+0	9.625087E-1	9.998378E-1	1.046219E+0	1.004076E+0	1.075842E+0	1.058314E+0
5.600520E+2	9.839861E-1	9.990789E-1	9.768825E-1	9.777096E-1	9.541631E-1	1.008790E+0	9.868300E-1	9.254288E-1	9.595826E-1	9.492401E-1	9.176008E-1	9.696101E-1	1.020906E+0	9.519035E-1	1.019252E+0	9.503381E-1	1.001586E+0	9.588013E-1	9.480185E-1	9.890682E-1	9.640559E-1	9.670767E-1	9.626918E-1	9.305102E-1	9.409533E-1	9.840292E-1	9.962017E-1	9.871143E-1	9.868558E-1	9.884202E-1	9.720581E-1	9.555390E-1	9.780900E-1	9.215645E-1	9.566918E-1	9.894671E-1	9.633976E-1	9.789251E-1	9.563496E-1	9.772580E-1	9.583841E-1	9.811195E-1	9.908647E-1	9.949697E-1	9.918172E-1	9.858250E-1	9.514242E-1	1.040118E+0	9.704312E-1	1.031483E+0	9.847315E-1	9.985192E-1	9.942912E-1	9.800720E-1	9.683331E-1	9.932561E-1	9.882614E-1	9.776920E-1	9.815960E-1	9.753974E-1	9.683802E-1	9.850442E-1	9.616031E-1	9.678595E-1	1.006718E+0	9.651688E-1	9.507682E-1	9.423204E-1	9.861742E-1	9.793893E-1	9.906617E-1	9.704331E-1	1.021014E+0	9.680310E-1	1.030175E+0	9.763183E-1	9.349242E-1	9.839179E-1	9.335645E-1	9.526333E-1	1.046185E+0	9.828507E-1	9.552101E-1	9.895569E-1	9.892823E-1	9.844793E-1	9.801091E-1	1.009045E+0	9.631122E-1	9.792460E-1	9.867123E-1	9.935171E-1	9.599028E-1	9.606344E-1	9.368402E-1	9.605792E-1	9.833624E-1	9.724836E-1	1.001808E+0	9.848541E-1	9.760759E-1	9.780272E-1	1.011023E+0	9.768089E-1	9.435653E-1	1.008783E+0	9.164073E-1	9.952432E-1	9.641857E-1	1.010486E+0	9.929277E-1	8.946718E-1	9.799420E-1	9.622646E-1	9.573985E-1	9.366439E-1	9.941726E-1	9.453609E-1	9.840953E-1	1.004386E+0	9.604667E-1	9.632658E-1	9.844410E-1	9.685838E-1	9.343545E-1	9.790894E-1	9.394234E-1	9.628398E-1	9.843729E-1	1.013494E+0	9.813126E-1	9.888284E-1	9.544195E-1	9.307059E-1	9.767024E-1	9.637192E-1	9.232398E-1	9.465283E-1	1.005108E+0	9.759476E-1	9.461713E-1	9.658017E-1	9.320601E-1	9.534671E-1	9.300333E-1	9.551720E-1	9.827285E-1	9.428847E-1	9.511081E-1	9.155735E-1	9.774360E-1	9.277213E-1	9.303590E-1	9.554262E-1	9.685168E-1	9.779430E-1	9.363853E-1	9.747051E-1	9.661907E-1	9.177733E-1	9.578565E-1	9.587558E-1	9.715640E-1	1.011964E+0	9.618246E-1	9.205901E-1
5.605090E+2	9.936131E-1	9.823682E-1	9.982797E-1	1.022131E+0	9.954547E-1	1.006210E+0	1.034321E+0	9.968600E-1	1.032569E+0	1.002988E+0	1.020135E+0	1.024802E+0	9.687738E-1	1.005544E+0	1.038243E+0	1.050349E+0	1.035616E+0	9.696673E-1	9.797994E-1	9.766961E-1	1.000972E+0	1.061289E+0	9.837538E-1	1.010609E+0	1.023513E+0	1.028177E+0	9.904252E-1	9.953754E-1	1.021577E+0	9.893200E-1	1.011804E+0	1.005498E+0	9.842111E-1	1.021586E+0	9.724331E-1	9.988874E-1	1.023056E+0	1.010288E+0	9.993599E-1	1.014120E+0	1.022578E+0	9.912186E-1	1.029847E+0	1.033221E+0	1.005332E+0	9.981089E-1	1.011014E+0	1.004955E+0	1.001708E+0	9.927759E-1	1.025747E+0	1.005502E+0	9.730110E-1	1.030362E+0	1.030605E+0	1.012604E+0	9.708422E-1	1.061117E+0	1.047031E+0	1.041332E+0	9.672073E-1	9.948501E-1	9.327207E-1	1.005084E+0	1.014012E+0	1.017156E+0	9.839990E-1	9.901943E-1	9.989912E-1	1.032126E+0	1.009643E+0	9.992224E-1	9.361705E-1	1.009046E+0	9.477127E-1	1.014312E+0	9.817530E-1	1.018702E+0	1.019322E+0	1.039558E+0	1.001571E+0	1.047139E+0	9.830242E-1	1.040806E+0	9.785769E-1	1.007896E+0	1.021922E+0	9.856466E-1	9.904066E-1	9.760884E-1	1.007831E+0	9.564322E-1	9.997850E-1	1.020398E+0	1.024337E+0	1.013288E+0	9.722040E-1	1.000672E+0	1.034024E+0	9.980431E-1	1.004947E+0	1.040195E+0	9.922545E-1	9.910567E-1	1.009463E+0	1.009444E+0	9.735263E-1	9.944314E-1	9.711265E-1	1.022338E+0	9.579039E-1	1.019089E+0	1.008324E+0	1.015155E+0	9.554238E-1	9.636667E-1	9.807309E-1	1.037133E+0	1.023308E+0	1.047550E+0	9.755003E-1	1.019899E+0	1.028316E+0	9.850171E-1	9.921253E-1	1.004512E+0	9.903526E-1	1.019037E+0	9.987797E-1	9.915917E-1	1.003493E+0	1.044692E+0	9.646974E-1	9.804191E-1	1.003471E+0	9.825438E-1	1.096360E+0	9.865661E-1	1.002030E+0	1.043016E+0	1.013318E+0	1.002897E+0	1.002898E+0	1.024955E+0	1.021111E+0	9.826131E-1	9.914497E-1	1.024625E+0	9.837775E-1	1.042189E+0	1.006277E+0	9.718765E-1	1.017360E+0	1.001930E+0	9.813511E-1	9.769674E-1	1.034580E+0	1.027083E+0	9.943538E-1	9.966797E-1	9.843749E-1	9.747877E-1	1.027190E+0	9.799721E-1	1.061122E+0	1.062732E+0
5.610180E+2	9.528950E-1	9.901253E-1	9.596604E-1	1.004635E+0	9.363010E-1	9.868179E-1	9.655489E-1	1.004330E+0	9.595066E-1	9.720607E-1	9.688859E-1	1.001219E+0	9.769625E-1	9.720995E-1	9.471473E-1	9.753393E-1	9.553421E-1	9.740995E-1	9.674128E-1	9.581887E-1	9.477558E-1	9.742454E-1	9.939130E-1	9.559118E-1	1.016302E+0	9.424066E-1	9.778127E-1	9.592324E-1	9.592486E-1	9.075055E-1	9.683171E-1	1.003545E+0	9.717577E-1	1.003124E+0	9.793763E-1	9.866775E-1	9.749667E-1	9.841318E-1	9.627587E-1	9.453659E-1	9.731462E-1	9.536422E-1	9.572255E-1	9.581148E-1	9.738635E-1	9.737553E-1	1.010720E+0	9.856241E-1	9.739454E-1	9.668415E-1	9.758570E-1	1.013217E+0	9.841003E-1	9.466951E-1	9.450827E-1	9.681038E-1	9.399104E-1	9.240409E-1	9.743596E-1	1.029141E+0	9.784087E-1	9.466012E-1	1.027438E+0	1.002359E+0	9.340696E-1	9.869841E-1	1.039096E+0	9.575045E-1	9.725708E-1	9.821332E-1	9.460513E-1	9.414351E-1	1.008207E+0	1.025913E+0	1.036993E+0	9.952798E-1	9.837961E-1	9.992540E-1	9.875331E-1	1.003081E+0	9.799696E-1	9.780566E-1	9.833035E-1	9.640426E-1	9.731184E-1	9.767049E-1	9.593260E-1	9.780562E-1	9.706403E-1	9.657312E-1	9.736502E-1	1.017041E+0	9.705239E-1	9.453188E-1	9.761775E-1	9.851528E-1	9.854478E-1	9.865324E-1	9.797563E-1	9.917821E-1	9.581481E-1	9.570656E-1	9.537673E-1	9.919732E-1	1.028619E+0	9.943727E-1	9.479588E-1	9.782493E-1	9.567776E-1	1.021099E+0	9.990116E-1	9.883633E-1	9.948115E-1	9.820261E-1	9.315572E-1	9.793311E-1	9.777878E-1	9.818185E-1	9.936900E-1	9.825898E-1	1.027352E+0	9.874226E-1	9.786030E-1	9.600364E-1	9.902293E-1	9.791749E-1	1.027027E+0	9.647554E-1	9.749998E-1	9.599615E-1	9.692693E-1	9.441952E-1	1.013756E+0	9.798398E-1	9.662427E-1	9.778049E-1	9.595180E-1	9.840213E-1	9.653189E-1	9.520912E-1	9.890748E-1	9.662485E-1	9.683270E-1	9.679716E-1	9.540563E-1	1.005978E+0	9.844823E-1	9.634246E-1	9.847843E-1	9.847559E-1	9.833158E-1	1.003981E+0	1.004804E+0	9.918739E-1	9.625785E-1	9.874535E-1	1.000058E+0	9.747413E-1	9.652068E-1	1.005820E+0	1.068524E+0	9.382322E-1	9.450790E-1	9.692539E-1	9.492214E-1	9.150773E-1
