Photon Energy (eV)	#1	#2	#3	#4	#5	#6	#7	#8	#9	#10	#11	#12	#13	#14	#15	#16	#17	#18	#19	#20	#21	#22	#23	#24	#25	#26	#27	#28	#29	#30	#31	#32	#33	#34	#35	#36	#37	#38	#39	#40	#41	#42	#43	#44	#45	#46	#47	#48	#49	#50	#51	#52	#53	#54	#55	#56	#57	#58	#59	#60	#61	#62	#63	#64	#65	#66	#67	#68	#69	#70	#71	#72	#73	#74	#75	#76	#77	#78	#79	#80	#81	#82	#83	#84	#85	#86	#87	#88	#89	#90	#91	#92	#93	#94	#95	#96	#97	#98	#99	#100	#101	#102	#103	#104	#105	#106	#107	#108	#109	#110	#111	#112	#113	#114	#115	#116	#117	#118	#119	#120	#121	#122	#123	#124	#125	#126	#127	#128	#129	#130	#131	#132	#133	#134	#135	#136	#137	#138	#139	#140	#141	#142	#143	#144	#145	#146	#147	#148	#149	#150	#151	#152	#153	#154	#155	#156	#157	#158	#159	#160	#161	#162	#163	#164	#165	#166	
5.300160E+2	-1.229945E-2	-5.159465E-3	-1.039723E-2	-9.571653E-3	5.223340E-3	5.287160E-3	-2.284521E-3	-7.590937E-3	3.797677E-3	-1.188674E-2	9.371285E-4	-4.089950E-4	-3.995866E-3	-1.003291E-2	6.061375E-3	-7.548875E-3	-1.371289E-2	-5.770685E-3	1.771481E-3	-3.876628E-3	-3.782297E-3	-3.804968E-3	-1.246702E-2	-1.286579E-2	-4.882783E-4	-7.698097E-3	-9.527473E-3	-1.621120E-2	-8.966144E-3	-4.414110E-3	-5.230271E-3	-8.988275E-3	-1.186173E-2	-1.362099E-2	-2.871578E-4	-6.724828E-3	-9.473283E-3	-1.455295E-2	-1.499672E-3	-8.914595E-3	-1.169104E-2	-5.874961E-3	-4.991075E-4	-1.209481E-2	1.448975E-3	-9.832872E-3	3.470072E-3	-1.086220E-2	-3.170577E-3	-1.563631E-2	-1.172039E-3	-2.934520E-3	-8.050514E-3	-3.140838E-3	-5.879845E-3	-1.087257E-2	-7.206797E-3	-9.048330E-3	-1.082468E-3	-1.709878E-2	-6.905308E-3	-1.023084E-2	-8.566834E-4	-6.102067E-3	-3.016113E-3	1.552790E-2	-8.002788E-3	1.304349E-3	-1.351415E-3	-1.801041E-2	-7.253553E-3	-1.088914E-2	-1.380903E-2	-7.709936E-3	-2.301080E-3	-1.189536E-2	-6.349829E-3	-9.623720E-3	-8.716371E-3	5.282810E-3	-6.426275E-3	-1.224240E-2	-9.401603E-3	-1.358373E-2	-1.140165E-2	-6.474482E-3	-1.487191E-2	-7.019093E-4	-5.876640E-3	-6.723438E-4	-3.970795E-3	-2.342085E-3	-4.458037E-4	3.619114E-3	-2.742681E-3	-5.915120E-3	-4.179776E-3	-1.239524E-2	-4.678436E-3	-2.354524E-3	-1.184741E-2	-1.799424E-3	-3.077510E-3	3.431943E-3	-9.594783E-3	-8.369447E-3	-2.473837E-3	-1.037951E-3	-6.138020E-3	-1.189452E-2	-4.995569E-3	-2.447276E-3	-1.913172E-2	-9.415603E-4	-1.083101E-2	3.645706E-3	-5.828512E-3	-7.508157E-3	-6.434996E-3	-7.491025E-3	9.612625E-3	-1.839687E-4	-1.239157E-2	-1.277157E-2	-1.026384E-2	-3.956485E-3	-5.526261E-3	-3.919987E-3	-1.696849E-3	-1.469810E-3	-1.602333E-2	-1.474551E-2	-6.946841E-3	-9.683903E-3	-1.051937E-2	-5.961009E-3	-8.514733E-3	-8.898459E-3	-1.176809E-2	-4.289352E-3	-2.596681E-3	-6.455400E-3	-6.342545E-3	-4.616974E-3	-9.787798E-3	-4.634071E-3	-8.012279E-3	-5.443208E-3	-2.129630E-3	-2.391210E-3	-8.558448E-3	-1.372577E-2	-6.114921E-3	-9.067352E-3	-8.394440E-3	-7.894112E-3	2.821346E-3	-5.956178E-3	-9.581246E-3	-1.311428E-2	-6.521777E-3	-9.830060E-3	-7.731397E-3	-3.015228E-3	-2.121357E-2	-1.217545E-2
5.305130E+2	-2.567602E-3	-9.358034E-4	-7.990714E-3	-1.538233E-3	-1.036852E-2	7.031214E-3	-1.104233E-2	-9.048627E-3	4.139071E-4	-4.567890E-3	-3.894614E-3	-2.806485E-5	-7.459910E-3	-1.192191E-2	-1.778585E-2	-2.793724E-4	-9.163598E-3	-1.228578E-3	-2.451048E-3	3.341233E-3	-1.027973E-2	6.970489E-4	-2.035571E-3	2.482193E-3	7.241428E-4	2.057232E-3	9.535216E-3	-7.327011E-4	-5.226928E-4	-8.750221E-4	-9.804790E-3	-7.054962E-3	-4.632933E-3	5.576499E-4	-2.572186E-3	-2.245218E-5	-3.508451E-3	-1.036247E-2	-4.808268E-3	-7.405474E-3	1.606256E-3	2.705577E-3	-5.828868E-3	-6.310339E-3	-3.692567E-3	-4.136727E-4	-2.434001E-3	-3.958675E-3	-4.702283E-3	2.197098E-3	-2.774807E-3	-5.757036E-3	-3.639036E-3	-5.992712E-4	-7.321017E-3	-1.139122E-2	-5.098766E-3	-1.540648E-2	-1.092971E-2	3.159658E-3	-1.306911E-2	3.278468E-3	-3.970042E-3	-2.723332E-3	-2.494795E-3	-7.816701E-3	5.286817E-4	-1.422202E-2	-5.017054E-3	-1.690473E-3	3.166695E-4	-1.389598E-3	3.675720E-3	-6.304081E-3	-4.683970E-3	8.882872E-4	-4.253663E-3	9.367837E-4	-2.403217E-3	-1.813324E-3	-4.722634E-3	-6.722980E-3	-1.416369E-3	-2.212096E-3	-5.129116E-3	-5.269074E-3	-3.646746E-3	-2.226773E-3	7.084918E-3	-7.656554E-3	6.940085E-3	3.480903E-3	5.300434E-4	-3.931408E-3	-1.451483E-3	-1.006747E-2	4.028117E-3	2.384880E-4	-8.222032E-3	-1.186598E-2	-4.029095E-3	1.965465E-3	-4.738169E-4	6.198323E-3	1.200606E-2	-3.464009E-3	-9.243546E-3	-5.454690E-3	-3.898195E-3	3.286530E-3	-6.908624E-3	8.673518E-3	-6.740875E-3	-9.652397E-3	-5.829096E-3	-4.095317E-3	-4.785892E-3	-8.966223E-3	-6.091311E-3	-1.222274E-3	-7.109081E-3	-2.608478E-3	-2.869152E-3	-2.506988E-3	-2.455321E-3	-6.613967E-3	-6.440794E-3	-6.698446E-3	-4.672707E-3	-3.860452E-3	5.757446E-4	-1.099058E-2	-3.502944E-3	-7.351480E-3	-2.645018E-3	-3.742391E-3	-3.836362E-3	-4.082284E-3	-1.631111E-3	-1.004898E-2	-1.031998E-3	-3.346665E-3	-5.566386E-3	-1.387455E-2	-1.706254E-3	-8.997431E-3	-2.899491E-3	-1.105222E-2	-6.855207E-3	-8.413787E-4	-8.740915E-3	-2.756012E-3	-2.319446E-3	-1.211458E-2	-3.200088E-3	-5.755724E-3	-5.096147E-3	-4.963414E-3	1.969469E-3	-4.367690E-3	-9.465405E-3	-1.283891E-3	-2.901982E-3	-1.133312E-2	6.271791E-3	-5.518651E-3
5.310150E+2	-3.313176E-5	-4.666409E-3	-7.281729E-3	-1.514736E-2	3.297112E-3	-1.498138E-3	-1.222957E-3	-4.782929E-3	-5.727584E-3	-1.195346E-2	2.481848E-3	-6.075451E-3	-4.276700E-3	-4.945464E-3	-1.821123E-3	-3.355269E-4	2.984378E-3	-6.030723E-3	-4.468376E-3	-4.854016E-3	-1.725401E-3	-6.792677E-3	-3.209185E-3	-6.231722E-3	-8.859049E-3	5.275810E-3	-4.440147E-3	-4.034694E-3	-2.747602E-3	-5.802256E-3	-4.281841E-3	-2.282521E-3	9.901589E-3	-3.392286E-3	-5.262284E-3	-5.730931E-3	2.583759E-3	-6.766325E-3	-6.712818E-3	-8.034197E-3	-1.823918E-6	-1.755187E-3	-4.104836E-3	-5.134191E-3	9.306876E-4	-4.462720E-3	-2.503890E-3	-7.857520E-4	-2.168006E-3	-1.262259E-2	-4.213335E-3	3.661466E-3	-5.638327E-3	-3.528249E-3	3.920996E-3	-3.101534E-3	-4.408303E-3	-3.292406E-3	-6.313624E-3	-9.355074E-4	-1.802397E-3	-6.601380E-3	3.908736E-4	-4.347915E-3	-4.434822E-3	-8.506570E-3	-8.543620E-4	7.928161E-4	-3.905754E-3	3.102661E-3	-5.033759E-3	-1.206348E-2	-1.142216E-2	1.476835E-3	-4.046520E-3	-6.573723E-3	1.698198E-3	2.690327E-4	-8.841846E-3	-3.963897E-3	8.803501E-4	3.718123E-3	2.345365E-3	-9.580414E-3	-2.182818E-3	-7.369175E-3	2.985401E-3	-6.702406E-3	3.244949E-3	-1.787217E-4	-9.424727E-3	-3.819440E-3	-3.958075E-3	-2.769367E-3	-8.011010E-3	-7.623910E-3	-1.070001E-2	-4.097593E-4	7.063626E-3	-7.307976E-3	6.639893E-3	1.375365E-3	-4.016176E-3	-6.316115E-3	-6.528386E-3	5.190920E-3	-6.674553E-3	-3.381912E-3	-5.122029E-3	-2.664835E-3	-8.886399E-6	-5.115627E-3	9.532864E-4	1.351456E-3	4.980551E-3	-1.160253E-2	-8.434835E-3	-5.501056E-3	-6.742646E-3	-1.284625E-2	-2.325951E-3	3.790506E-3	-1.039975E-2	-8.104857E-3	-4.311790E-3	-2.055127E-3	-2.395565E-4	2.381871E-3	-7.393192E-3	-3.222893E-3	-6.643283E-3	4.483227E-3	-4.768843E-3	-3.600606E-3	-1.330152E-2	-1.941673E-3	-3.897035E-3	-4.851110E-3	1.039424E-3	-1.270275E-3	-3.552644E-3	-5.689726E-3	-4.489200E-3	-7.296255E-3	-8.590889E-3	-2.968083E-3	-3.611691E-3	-5.578039E-3	-1.062614E-2	-9.059768E-4	-6.977376E-4	1.969655E-3	-1.029010E-2	-8.423411E-3	-1.188471E-2	-4.332416E-3	1.007919E-3	-3.156818E-3	-6.488068E-3	-1.183161E-2	4.477449E-3	-1.071499E-2	4.275622E-3	4.713759E-3	-1.201788E-2	-5.572732E-3
5.315130E+2	-1.205523E-3	-9.683632E-3	-2.506165E-3	4.063483E-3	-5.999911E-3	-1.393574E-3	-1.107146E-3	1.093202E-3	4.423275E-4	-4.536601E-3	-3.214998E-3	-5.309571E-3	3.645256E-3	5.503046E-5	8.939287E-4	-5.544637E-3	5.414614E-3	-4.744916E-3	-1.761952E-3	-4.114937E-3	2.100306E-3	3.939265E-3	3.285742E-3	-6.108511E-3	-4.378581E-3	-4.535237E-3	-6.316325E-3	4.471290E-3	-2.092661E-3	-1.006440E-2	6.410176E-3	1.602384E-3	-1.192736E-2	3.182675E-3	-6.424536E-3	7.523759E-3	-2.370761E-3	4.963578E-3	-3.623446E-3	1.083786E-3	1.295182E-4	-8.903944E-3	3.533787E-3	-1.058337E-3	1.663979E-3	-6.603085E-3	-1.274103E-2	-9.626311E-5	-5.335779E-3	-2.925820E-3	-1.076797E-2	-6.702488E-4	-2.259124E-3	1.208815E-3	-5.473678E-3	4.322008E-3	-4.299627E-3	4.356025E-3	1.091309E-2	-1.084687E-2	-4.427033E-4	-2.604626E-3	-5.528884E-3	-6.433014E-3	4.580169E-3	3.682896E-3	3.281742E-3	4.181737E-3	5.386758E-3	-7.046232E-3	-1.084275E-2	4.328517E-3	6.925989E-3	-6.966994E-3	2.072890E-4	1.439130E-3	-5.163387E-4	2.915174E-3	2.482042E-3	-2.203436E-3	-3.334951E-3	5.438304E-3	-8.857668E-3	1.161355E-3	4.390627E-3	-3.551751E-4	1.304915E-3	-2.311961E-3	4.935815E-3	8.234334E-3	-8.674254E-3	-9.365048E-3	4.542405E-3	-8.588069E-4	-6.260995E-3	-4.662880E-3	1.112862E-3	3.584655E-3	-4.094353E-3	8.511944E-3	-1.752654E-3	-3.690159E-3	-4.483126E-3	-3.941832E-3	3.344569E-3	-1.198757E-3	3.795276E-3	-2.050833E-3	1.084371E-3	-3.712415E-3	-4.141368E-3	-4.347839E-3	4.848966E-3	-6.940964E-3	-3.137427E-3	-9.532871E-4	2.572658E-3	-6.782936E-4	6.076365E-3	3.640480E-3	-1.383204E-3	-6.135166E-3	3.370653E-3	1.541087E-3	2.542413E-3	1.546546E-3	4.296691E-3	2.421368E-3	-1.729865E-3	-3.065485E-3	-2.188224E-3	-4.854466E-3	-3.857478E-3	-4.719314E-3	-6.538185E-3	-7.510973E-3	-2.874356E-3	-8.972389E-3	5.142824E-4	1.481027E-3	-7.769368E-3	-5.554494E-3	5.722635E-3	7.885556E-3	6.597946E-3	-2.147978E-3	-2.830049E-3	5.614035E-3	6.290808E-3	-2.043780E-3	-1.188089E-3	4.112910E-5	-1.651819E-2	5.924580E-3	-4.464424E-3	1.712230E-3	-1.186804E-2	7.053007E-4	1.510249E-3	3.118446E-3	-3.791502E-3	-4.992699E-4	-3.641977E-3	-1.005483E-2	1.199234E-2	9.356670E-3
5.320070E+2	2.102765E-3	7.898045E-3	3.758114E-3	6.462679E-3	-1.863712E-4	-3.487295E-3	-1.795797E-3	1.051466E-2	-8.635454E-3	1.416800E-2	3.273615E-3	-3.290741E-3	-2.842666E-3	7.687839E-3	-2.691667E-3	2.471852E-3	3.905221E-3	2.400234E-3	-4.343104E-3	-5.338949E-3	-5.897860E-3	-5.067106E-3	5.643639E-3	4.319201E-3	-8.737670E-3	-1.047722E-2	4.976428E-3	1.272971E-3	-3.141667E-3	5.823655E-3	-1.656424E-3	-3.204204E-3	-1.523293E-3	7.738484E-3	3.887529E-3	-8.733877E-3	-1.766039E-3	-1.655964E-3	1.854488E-3	6.554879E-4	8.436799E-3	-2.319347E-3	-7.372411E-4	2.355583E-3	-2.422850E-3	3.747859E-3	3.129828E-3	-2.193005E-3	9.144835E-3	7.397074E-3	-5.411445E-3	-6.320614E-3	-1.473599E-3	-3.864448E-3	-3.580115E-3	4.369302E-3	6.836190E-3	-9.799324E-4	3.487293E-3	4.599800E-3	-3.613008E-4	-2.019351E-3	-6.052688E-3	1.924290E-3	1.453886E-4	-3.575612E-3	-3.385356E-3	-7.549575E-3	2.787407E-4	1.436973E-3	-7.359162E-4	-1.820137E-3	8.621413E-4	5.871777E-3	-8.044114E-3	-5.127246E-3	-3.463960E-3	1.040773E-3	9.608814E-3	-5.952844E-6	-3.313079E-3	-1.051619E-2	6.888486E-4	-8.660645E-4	8.517185E-3	5.184620E-3	7.595080E-4	5.040174E-3	-4.359285E-3	-4.572890E-3	5.089896E-3	1.978164E-3	-8.340123E-3	3.603997E-4	-2.407406E-3	-4.631241E-3	1.124030E-3	-2.800399E-3	-7.375244E-3	-2.769067E-3	4.825773E-3	-7.817734E-4	6.219480E-3	-3.346642E-3	-2.648250E-3	6.081687E-3	-5.242676E-3	-3.386332E-3	1.142593E-2	1.648038E-3	-6.778519E-3	2.981705E-3	2.790404E-3	-3.665110E-3	3.280104E-3	-2.251687E-3	1.343078E-3	-2.980084E-3	-5.287728E-3	6.601403E-3	-3.372067E-3	-2.521191E-3	4.760090E-3	-7.707982E-5	-4.084246E-3	4.338565E-4	-8.194513E-3	-5.375168E-3	-1.168425E-2	3.941966E-3	5.781049E-3	6.068448E-3	1.242244E-3	9.332220E-3	6.153148E-3	6.578286E-3	-8.290184E-3	8.766788E-3	-2.866437E-3	-6.180211E-4	-8.326361E-4	2.572831E-3	7.452212E-4	-5.489587E-3	-6.534262E-4	3.352683E-3	4.501160E-3	2.707945E-3	-6.534214E-3	1.224284E-3	-4.860285E-4	7.849561E-3	9.859612E-3	2.215521E-3	8.911718E-3	-1.331433E-3	1.149266E-2	-1.739782E-3	6.626722E-3	1.193599E-2	2.564697E-3	8.930389E-3	-4.413057E-3	4.866871E-3	6.412786E-3	-4.792214E-4
5.325070E+2	-1.827226E-3	7.929471E-3	3.001188E-3	4.891462E-3	-8.865493E-4	-1.349042E-3	-1.062320E-3	5.475961E-3	1.248889E-3	4.185665E-3	3.949658E-3	6.043044E-3	8.270261E-3	5.562012E-3	1.495499E-3	1.976315E-3	1.635791E-3	-1.726357E-3	6.107664E-3	2.833818E-3	5.873336E-3	5.077832E-3	-7.252972E-4	4.938342E-3	5.910064E-3	-3.818656E-3	-7.591032E-3	1.164878E-2	2.847353E-3	1.461918E-2	5.851180E-3	6.528261E-3	3.398216E-3	5.844771E-6	4.543302E-3	1.951087E-3	6.785568E-3	1.061843E-2	6.633615E-3	-2.700024E-3	2.512045E-3	7.177512E-3	5.431155E-4	1.296924E-2	-3.000198E-3	5.494629E-3	-1.061424E-4	7.103115E-3	1.310316E-3	7.443564E-3	1.400000E-2	1.371944E-3	-1.874298E-4	5.366993E-3	2.992238E-3	1.647314E-3	3.907952E-3	1.407233E-2	-7.412250E-3	5.315419E-3	2.693751E-3	3.009840E-3	2.238396E-3	7.508765E-3	8.241096E-4	-3.540879E-3	6.640150E-4	1.145299E-2	3.483794E-4	4.508310E-3	7.641989E-3	1.031084E-3	-7.485531E-3	9.106733E-4	1.128762E-2	4.132029E-3	5.010762E-3	-3.966242E-3	8.492295E-3	-3.748300E-3	2.321841E-3	7.925278E-3	2.678505E-3	6.990687E-3	3.293809E-3	1.144942E-2	-1.582601E-3	3.257649E-3	-9.747751E-3	3.003418E-3	-4.695825E-3	4.839395E-3	2.025764E-3	-1.985413E-3	1.077161E-2	9.065816E-3	-3.871821E-3	-2.752887E-3	1.392718E-3	1.047952E-3	-3.014333E-3	-4.785396E-3	-8.540375E-4	-3.868175E-3	3.934505E-4	-2.596969E-3	8.402266E-3	1.222667E-2	5.452400E-4	-7.939611E-5	1.092938E-2	-3.352856E-4	5.057323E-5	8.742375E-3	7.646216E-4	5.091259E-3	8.324417E-3	7.009302E-3	4.254704E-3	6.650694E-3	2.796392E-3	-1.048488E-3	5.481911E-3	1.173713E-2	3.276746E-3	-9.500126E-5	5.641214E-3	1.629961E-3	9.975087E-3	5.037265E-4	7.976756E-3	1.415384E-2	-1.797106E-3	2.371375E-3	4.195120E-3	-2.561231E-3	1.151122E-2	5.970410E-3	-4.890120E-3	2.365807E-3	5.503071E-3	2.058921E-3	-3.114329E-3	5.365706E-3	3.748544E-3	1.362467E-2	5.908230E-3	4.113118E-3	1.834424E-3	-7.697478E-3	1.464984E-3	-3.114363E-3	2.066305E-3	6.012800E-3	6.975101E-3	5.431833E-3	-6.269263E-3	1.761105E-4	-7.950561E-3	6.907214E-3	7.653956E-4	8.306934E-3	1.324920E-3	5.020955E-3	-1.448131E-2	1.195916E-2
5.330180E+2	1.583017E-2	4.617793E-3	2.141653E-2	1.083962E-2	8.920900E-3	-4.590325E-3	1.851507E-2	4.338673E-3	8.460237E-3	1.459102E-2	-3.532637E-3	9.069778E-3	6.659625E-3	1.359540E-2	1.384783E-2	9.260244E-3	8.936484E-3	1.710102E-2	5.145336E-3	1.200948E-2	1.371164E-2	5.950606E-3	9.507694E-3	1.346629E-2	1.582937E-2	1.919617E-2	1.336333E-2	3.585547E-3	1.462341E-2	7.129545E-4	8.711971E-3	1.339932E-2	1.664550E-2	5.528622E-3	6.115333E-3	1.173724E-2	7.749207E-3	1.775570E-2	8.156101E-3	2.531502E-2	-9.917540E-4	8.970350E-3	7.093150E-3	9.272850E-3	5.071974E-3	1.206986E-2	1.118516E-2	1.079278E-2	4.921494E-3	1.414698E-2	1.033959E-2	1.064901E-2	2.124803E-2	4.556997E-3	1.534142E-2	1.502670E-2	1.026935E-2	1.029879E-2	1.133767E-2	1.580628E-2	1.988707E-2	1.516789E-2	1.377903E-2	1.017327E-2	4.396064E-3	4.228970E-3	7.768068E-3	4.039698E-3	4.260345E-3	1.769917E-2	1.590732E-2	2.080275E-2	2.125288E-2	1.272173E-2	7.580776E-3	1.713688E-2	7.874830E-3	8.428199E-3	-6.217178E-4	6.452100E-3	1.459475E-2	1.239986E-2	1.396292E-2	1.809026E-2	2.511967E-3	2.833863E-3	1.505143E-2	3.645226E-3	4.717994E-3	1.842757E-3	1.473562E-2	5.228111E-3	5.645789E-3	5.565481E-3	1.010197E-2	2.383480E-2	1.248659E-2	1.453514E-2	1.591372E-2	1.473766E-2	9.177825E-3	7.715923E-3	6.685186E-3	7.842498E-3	3.027339E-3	4.356574E-3	1.143707E-2	3.085051E-3	2.102700E-3	1.341660E-2	1.190359E-2	5.908045E-4	1.722936E-2	1.110620E-2	1.077226E-2	1.016585E-2	6.809084E-3	1.862451E-2	1.422561E-2	4.666968E-3	1.781286E-3	8.706786E-3	1.204782E-2	1.018227E-2	1.529604E-2	1.074018E-2	1.046322E-2	9.560400E-3	1.720178E-2	7.172947E-3	1.052129E-2	5.885046E-3	1.963097E-2	1.365171E-2	2.265583E-2	1.513899E-2	1.590145E-2	1.206704E-2	1.960205E-2	1.237979E-2	1.028026E-2	1.641453E-2	1.304460E-2	1.802611E-2	1.039188E-2	1.770208E-3	6.944120E-3	9.638371E-3	1.801996E-2	1.265554E-2	1.820623E-2	9.735799E-3	2.331673E-2	1.545244E-2	1.205685E-2	1.216962E-2	7.911521E-3	1.493478E-2	1.391344E-2	7.351925E-3	1.197114E-2	5.090886E-3	1.308787E-2	9.801591E-3	2.303583E-2	2.430219E-3
5.331630E+2	8.062783E-3	1.580752E-2	1.286721E-2	1.656889E-2	2.157384E-2	1.540371E-2	1.436121E-2	8.075642E-3	2.548297E-3	9.996770E-3	1.025477E-2	1.387351E-2	1.998388E-2	1.044618E-2	1.450878E-2	1.044879E-2	-5.635008E-3	1.064199E-2	2.693169E-2	1.392995E-3	1.945999E-2	2.271220E-2	2.252931E-2	1.127604E-2	7.842661E-3	1.062662E-2	7.466790E-3	1.933843E-2	1.311784E-2	1.903184E-2	4.422354E-3	5.381383E-3	1.492262E-2	2.363369E-3	1.716189E-2	1.501818E-2	1.188094E-2	4.431499E-5	1.429673E-2	1.463806E-2	2.039940E-3	2.213890E-2	1.413845E-2	1.003438E-2	1.544180E-2	1.219347E-2	1.067310E-2	4.318580E-3	3.622658E-3	3.306792E-3	1.380924E-2	1.592443E-2	7.470104E-3	9.405822E-3	9.535289E-3	8.963468E-3	5.786366E-3	1.317251E-2	1.488687E-2	7.714902E-3	1.333933E-2	1.864646E-2	1.775898E-2	6.378767E-3	1.039381E-2	1.179983E-2	9.270847E-3	8.214299E-3	-3.693634E-3	1.727234E-2	7.083735E-3	1.590715E-2	5.368069E-3	2.438277E-2	4.257804E-3	1.465032E-2	2.502874E-2	1.559291E-2	1.814896E-2	4.983109E-3	4.725617E-3	4.593236E-3	6.456786E-3	2.182871E-2	1.696805E-2	1.349064E-2	2.074361E-2	1.061348E-2	8.126986E-3	1.186285E-2	1.819560E-2	1.605188E-2	1.693627E-2	2.019487E-2	1.192588E-2	1.485348E-2	1.775468E-2	2.401761E-3	3.949294E-3	1.428450E-2	1.205013E-2	2.126768E-2	1.763798E-2	1.721659E-3	6.194291E-3	2.225249E-2	1.159704E-2	2.030253E-2	2.614951E-2	2.016521E-2	1.152758E-2	3.561558E-3	1.388819E-2	2.571434E-2	1.479318E-2	1.602332E-3	6.305247E-3	2.530448E-2	1.758817E-2	2.669478E-2	5.345805E-3	1.392576E-2	1.218826E-2	9.664570E-3	1.729209E-2	4.479346E-3	1.251328E-2	3.510986E-2	9.856943E-3	-4.171741E-4	1.428138E-2	1.288356E-2	2.103951E-2	-3.359674E-4	1.408389E-2	2.110705E-2	1.444356E-2	2.508475E-2	1.215243E-2	3.538770E-3	1.230829E-2	4.923665E-3	1.038167E-2	1.357795E-2	2.030494E-2	8.066171E-3	1.173983E-2	6.544671E-3	1.057934E-2	1.021468E-2	1.710372E-2	1.489566E-2	9.450715E-4	1.331789E-2	8.156032E-3	1.732832E-2	5.269693E-3	2.261918E-2	1.521124E-2	1.380321E-2	1.996028E-2	1.324591E-2	2.622002E-3	1.095205E-2	3.142947E-3	7.536077E-3
5.333130E+2	1.845130E-2	5.270057E-3	2.129585E-2	1.794133E-2	7.453571E-3	1.942661E-2	1.697567E-2	2.025000E-2	2.449870E-2	1.449878E-2	1.721260E-2	1.165303E-2	1.450512E-2	2.062270E-2	9.088518E-3	1.456346E-2	1.114466E-2	1.762090E-2	7.688092E-3	1.884916E-2	2.111171E-2	1.553391E-2	1.996964E-2	1.048210E-2	1.281536E-2	1.775540E-2	1.460042E-2	3.990093E-2	2.654422E-2	1.111068E-2	1.865087E-2	7.915701E-3	1.718089E-2	2.040950E-2	2.910986E-2	2.425096E-2	1.800199E-2	1.772725E-2	1.769256E-2	2.066188E-2	8.603080E-3	1.749127E-2	2.779302E-2	2.379443E-2	2.487240E-2	1.198424E-2	1.704123E-2	1.825247E-2	2.580971E-2	1.596463E-2	1.556715E-2	2.086257E-2	1.521373E-2	1.797772E-2	9.373230E-3	2.452536E-2	1.304217E-2	1.774823E-2	7.114375E-3	1.151430E-2	1.314784E-2	2.010262E-2	2.035479E-2	1.349876E-2	2.562430E-2	1.697684E-2	3.467420E-2	2.388266E-2	1.462673E-2	1.951301E-2	1.350034E-2	1.858061E-2	2.908335E-2	9.079461E-3	1.862231E-2	1.973393E-2	2.539282E-2	2.809352E-2	2.154155E-2	1.190152E-2	3.459057E-2	2.382973E-2	1.265651E-2	2.159650E-2	9.667755E-3	2.517530E-2	1.694258E-2	1.785893E-2	3.989119E-3	1.317509E-2	1.270759E-2	1.511672E-2	8.297269E-3	1.878131E-2	1.229631E-2	5.481750E-3	1.923199E-2	2.242967E-2	1.797064E-2	3.122940E-2	3.018349E-2	2.285523E-2	7.249451E-3	1.408450E-2	1.052755E-2	1.108693E-2	1.075380E-2	1.667450E-2	2.775925E-2	1.815371E-2	2.105643E-2	1.471511E-2	9.467933E-3	2.088786E-2	2.037551E-2	1.813447E-2	7.391664E-3	1.386733E-2	-1.768962E-3	1.878825E-2	3.052985E-2	1.950677E-2	2.161683E-2	2.001704E-2	3.551945E-2	4.892809E-3	8.521083E-3	2.004207E-3	2.053942E-2	1.550697E-2	5.099809E-2	1.641171E-2	9.025604E-3	1.743527E-2	1.119692E-2	1.625883E-2	2.217057E-2	6.294938E-3	7.802793E-3	9.754680E-3	2.089912E-2	1.404823E-2	8.487972E-3	2.107584E-2	9.617842E-3	1.469396E-2	1.153655E-2	2.439477E-2	6.581061E-3	1.517001E-2	2.633625E-2	8.424068E-3	2.079731E-2	2.216235E-2	2.273251E-2	3.212171E-2	1.061144E-2	2.237964E-2	5.930769E-3	1.303556E-2	1.616286E-2	1.884416E-2	1.871281E-2	2.095286E-2	1.866595E-2	2.974690E-2
5.334630E+2	1.385338E-2	5.144211E-3	1.092020E-2	2.918188E-2	2.211551E-2	1.803003E-2	1.197851E-2	1.287839E-2	1.685301E-2	1.449378E-2	1.596625E-2	1.299895E-2	3.179380E-2	1.647228E-2	2.085339E-2	2.174229E-2	2.823613E-2	2.135565E-2	2.155470E-2	1.453210E-2	3.387763E-2	1.676621E-2	1.594836E-2	1.120536E-2	1.351348E-2	2.661642E-2	1.532463E-2	2.513764E-2	2.683719E-2	2.180772E-2	2.257913E-2	2.718463E-2	2.227246E-2	1.263225E-2	1.186022E-2	1.678295E-2	1.072940E-2	1.155653E-2	2.937282E-2	1.915095E-2	1.534742E-2	9.379387E-3	2.292631E-2	2.795121E-2	1.170968E-2	2.890764E-2	2.610878E-2	1.243239E-2	1.870665E-2	2.518949E-2	1.294448E-2	1.253785E-2	1.803323E-2	1.919550E-2	2.403245E-2	1.742829E-2	1.449954E-2	1.301484E-2	2.443055E-2	9.530150E-3	1.937408E-2	1.697234E-2	2.277802E-2	2.317237E-2	1.678825E-2	1.641627E-2	1.927911E-2	1.136236E-2	3.598357E-2	1.964741E-2	2.628732E-2	1.244655E-2	2.538416E-2	2.273297E-2	2.503333E-2	3.260118E-2	1.159608E-2	2.123149E-2	2.230230E-2	9.342542E-3	1.971483E-2	1.323777E-2	8.865271E-3	1.803359E-2	1.998439E-2	3.372833E-2	1.519820E-2	1.794964E-2	3.845822E-3	2.844262E-2	2.204648E-2	1.872797E-2	1.162011E-2	2.683204E-2	2.023401E-2	1.598559E-2	1.995280E-2	1.611221E-2	9.161706E-3	1.169264E-2	3.476007E-2	1.776166E-2	2.120772E-2	2.401961E-2	2.038789E-2	2.737231E-2	2.858512E-2	1.461907E-2	2.241860E-2	1.472003E-2	2.677082E-2	1.718182E-2	2.503488E-2	2.299076E-2	3.221777E-2	1.080368E-2	1.572267E-2	2.116648E-2	2.201790E-2	2.311677E-2	1.477150E-2	3.859386E-2	3.213597E-2	1.413544E-2	2.153604E-2	1.671652E-2	2.261779E-2	1.298870E-2	2.410003E-2	8.484382E-3	1.914523E-2	1.653220E-2	2.598885E-2	1.563567E-2	2.811994E-2	2.639231E-2	2.458173E-2	2.495756E-2	4.993534E-3	1.178685E-2	2.170316E-2	2.541398E-2	2.231962E-2	2.342311E-2	2.014866E-2	1.961719E-2	3.236744E-2	1.350126E-2	2.004233E-2	2.888793E-3	2.911728E-2	2.046699E-2	2.730474E-2	2.601873E-2	1.267703E-2	2.941720E-2	1.270685E-2	3.523006E-2	2.034522E-2	3.515674E-2	2.266011E-2	3.214619E-2	1.700678E-2	1.245711E-2	7.909095E-3	3.820063E-2
5.336130E+2	2.144511E-2	2.419015E-2	4.074876E-2	2.885653E-2	2.917016E-2	2.489565E-2	2.606209E-2	3.460488E-2	2.041606E-2	2.370886E-2	2.816027E-2	1.207620E-2	1.760281E-2	1.016658E-2	1.165941E-2	2.096069E-2	1.626134E-2	2.951710E-2	2.985796E-2	1.681935E-2	1.726999E-2	2.678614E-2	1.572787E-2	3.027740E-2	2.288926E-2	2.294683E-2	3.386311E-2	2.353938E-2	2.930830E-2	2.322229E-2	2.294291E-2	3.128025E-2	1.953918E-2	3.336692E-2	2.779433E-2	2.416265E-2	2.086061E-2	2.804485E-2	3.575292E-2	2.698595E-2	1.665838E-2	1.588919E-2	3.290333E-2	2.836566E-2	2.607298E-2	3.042255E-2	1.545118E-2	1.719236E-2	1.324078E-2	3.403551E-2	2.150740E-2	2.207193E-2	2.043271E-2	3.236827E-2	3.030430E-2	2.738762E-2	2.336327E-2	2.244534E-2	6.922373E-3	1.142155E-2	2.344670E-2	2.459326E-2	3.031715E-2	1.896972E-2	1.841103E-2	2.766130E-2	1.490137E-2	2.492306E-2	2.167129E-2	3.468258E-2	1.626624E-2	2.867781E-2	1.966327E-2	2.675620E-2	1.630187E-2	2.688716E-2	1.561392E-2	2.476480E-2	3.271579E-2	1.456619E-2	2.638844E-2	1.359648E-2	2.336148E-2	2.563594E-2	2.640869E-2	1.224087E-2	3.005403E-2	2.197559E-2	2.900945E-2	1.739674E-2	3.235238E-2	2.912958E-2	2.653139E-2	2.590067E-2	1.661581E-2	3.127175E-2	2.540720E-2	1.777007E-2	3.330895E-2	2.992140E-2	2.479762E-2	1.984187E-2	2.691184E-2	3.230930E-2	3.303009E-2	2.688926E-2	1.116540E-2	2.189053E-2	1.412779E-2	3.067677E-2	2.755911E-2	3.570929E-2	1.553550E-2	2.664967E-2	2.928562E-2	2.534895E-2	1.354005E-2	2.383275E-2	2.427185E-2	2.759070E-2	3.518036E-2	1.561980E-2	2.416920E-2	3.177475E-2	2.929850E-2	2.113052E-2	2.420941E-2	2.793411E-2	3.473818E-2	2.726185E-2	3.489512E-2	2.128025E-2	3.442861E-2	2.180592E-2	3.116614E-2	1.210753E-2	2.505957E-2	3.324911E-2	2.003924E-2	2.441732E-2	3.532558E-2	2.627178E-2	1.918716E-2	2.780499E-2	3.526945E-2	2.343387E-2	3.202578E-2	1.453916E-2	2.483272E-2	1.825804E-2	2.626301E-2	2.523440E-2	1.080593E-2	2.720930E-2	3.269264E-2	2.476041E-2	2.915142E-2	1.913062E-2	3.150133E-2	3.022369E-2	1.948285E-2	1.346528E-2	1.918696E-2	4.196765E-2	2.347571E-2	2.029242E-2
5.337840E+2	3.706910E-2	2.972172E-2	5.688860E-2	4.029523E-2	2.908855E-2	3.432943E-2	1.972491E-2	3.038579E-2	3.005717E-2	2.774746E-2	3.035573E-2	3.459574E-2	2.613784E-2	2.943062E-2	2.930773E-2	4.519826E-2	4.447444E-2	3.399766E-2	3.736097E-2	3.615656E-2	3.189516E-2	3.363287E-2	3.769422E-2	2.587929E-2	4.302842E-2	2.991314E-2	3.476554E-2	4.021531E-2	3.338568E-2	3.130526E-2	2.690706E-2	3.381127E-2	3.846529E-2	4.886934E-2	3.339765E-2	2.440441E-2	2.879215E-2	4.010659E-2	4.788314E-2	3.006670E-2	3.051681E-2	2.635425E-2	3.133801E-2	4.154528E-2	4.791992E-2	2.149455E-2	4.029126E-2	2.392208E-2	2.944786E-2	3.570874E-2	3.741296E-2	3.017817E-2	2.665606E-2	3.088115E-2	3.119915E-2	4.182560E-2	1.658886E-2	3.956091E-2	3.284458E-2	1.350878E-2	2.678678E-2	3.274444E-2	3.954619E-2	3.035643E-2	3.398840E-2	3.306900E-2	4.363534E-2	4.825162E-2	3.700124E-2	3.488471E-2	3.740638E-2	2.646655E-2	4.694967E-2	3.549729E-2	3.110980E-2	2.634336E-2	3.538731E-2	3.518390E-2	3.642364E-2	2.914842E-2	3.797898E-2	3.293560E-2	2.850770E-2	3.648663E-2	2.774273E-2	3.619793E-2	3.874756E-2	3.647526E-2	5.463333E-2	3.582903E-2	3.786278E-2	3.140328E-2	2.247860E-2	2.971346E-2	2.962049E-2	2.280367E-2	2.912043E-2	1.980009E-2	2.642592E-2	3.010883E-2	3.142847E-2	2.702074E-2	2.223995E-2	3.142099E-2	4.478268E-2	3.721166E-2	3.699667E-2	2.811420E-2	3.033991E-2	2.119707E-2	3.000599E-2	1.704695E-2	3.260898E-2	5.274651E-2	3.990549E-2	2.477782E-2	4.260134E-2	3.002315E-2	2.832086E-2	3.137404E-2	5.279830E-2	3.987626E-2	3.469609E-2	3.996829E-2	3.570561E-2	2.841857E-2	3.399896E-2	2.934520E-2	4.185824E-2	3.522052E-2	3.721654E-2	4.671936E-2	3.215768E-2	1.671748E-2	4.153094E-2	3.103537E-2	4.442444E-2	2.468479E-2	3.132411E-2	4.154547E-2	4.068840E-2	3.726150E-2	2.052752E-2	3.381915E-2	3.048309E-2	2.726652E-2	4.568220E-2	2.896411E-2	1.278908E-2	4.423295E-2	5.203467E-2	3.173576E-2	2.287074E-2	2.888192E-2	4.102045E-2	3.497693E-2	3.068652E-2	3.388399E-2	3.006491E-2	3.514849E-2	2.962337E-2	2.305026E-2	3.065271E-2	4.497918E-2	5.041003E-2	6.411127E-2
5.339090E+2	3.541887E-2	4.003661E-2	4.705768E-2	3.788308E-2	4.354265E-2	4.582215E-2	5.436310E-2	5.036328E-2	3.019895E-2	4.201248E-2	3.085645E-2	2.829282E-2	3.622809E-2	3.317087E-2	3.179531E-2	4.284592E-2	3.448848E-2	4.856447E-2	2.923087E-2	3.921102E-2	2.711121E-2	4.277670E-2	3.575402E-2	2.760479E-2	3.334477E-2	3.860692E-2	3.340759E-2	4.015203E-2	4.246079E-2	4.531083E-2	4.018143E-2	4.144768E-2	4.181492E-2	3.833757E-2	2.344529E-2	2.633185E-2	3.586538E-2	3.932239E-2	4.282251E-2	2.928093E-2	2.756367E-2	3.736935E-2	5.751854E-2	5.900511E-2	3.588249E-2	4.394239E-2	2.390639E-2	2.215050E-2	3.477186E-2	3.094459E-2	4.006651E-2	3.392907E-2	3.331136E-2	3.004990E-2	2.968816E-2	2.917592E-2	5.279433E-2	3.447373E-2	3.054763E-2	4.142419E-2	3.093426E-2	4.101225E-2	4.217268E-2	3.290039E-2	4.029571E-2	3.623558E-2	3.522208E-2	3.668567E-2	2.918329E-2	2.975170E-2	4.631762E-2	2.859056E-2	5.282186E-2	3.676859E-2	3.091237E-2	4.029492E-2	4.178531E-2	3.886947E-2	2.959132E-2	2.619674E-2	3.905282E-2	3.831785E-2	4.250678E-2	3.175304E-2	3.111211E-2	4.517861E-2	4.097623E-2	4.504258E-2	3.365363E-2	3.872901E-2	3.032757E-2	3.194154E-2	3.684214E-2	3.992878E-2	2.945904E-2	4.358749E-2	3.111282E-2	4.137328E-2	3.302019E-2	3.379497E-2	4.820692E-2	4.400458E-2	2.997857E-2	4.224686E-2	5.071496E-2	2.143866E-2	4.938084E-2	3.901625E-2	3.577374E-2	5.013228E-2	3.259173E-2	4.334354E-2	3.880783E-2	3.190252E-2	4.624783E-2	3.276170E-2	3.660218E-2	4.421626E-2	3.721418E-2	4.740491E-2	3.658700E-2	4.408765E-2	5.126501E-2	5.448566E-2	3.554220E-2	4.481050E-2	3.317674E-2	2.317497E-2	2.646557E-2	4.925321E-2	5.686838E-2	3.831957E-2	3.640634E-2	5.236696E-2	3.250213E-2	3.088192E-2	4.825089E-2	3.392990E-2	3.884853E-2	2.377289E-2	2.775380E-2	3.001404E-2	3.243512E-2	2.795741E-2	3.182398E-2	3.267501E-2	3.268341E-2	3.796488E-2	4.284120E-2	2.825680E-2	3.264507E-2	4.429811E-2	4.221594E-2	3.714351E-2	3.879520E-2	2.753623E-2	4.385377E-2	4.267825E-2	3.510859E-2	4.371735E-2	3.956369E-2	4.757776E-2	4.119371E-2	4.995790E-2	3.859000E-2	2.615067E-2
5.340640E+2	4.073250E-2	6.448819E-2	6.344942E-2	5.264947E-2	4.655682E-2	6.301662E-2	6.065629E-2	5.772821E-2	4.876611E-2	6.720786E-2	6.306498E-2	6.273811E-2	6.860796E-2	4.473145E-2	4.973984E-2	5.747340E-2	5.196369E-2	4.225584E-2	6.097571E-2	4.602449E-2	4.468492E-2	6.299764E-2	4.444429E-2	4.815707E-2	5.777577E-2	5.887690E-2	4.598989E-2	5.913220E-2	5.256081E-2	5.243660E-2	4.312360E-2	4.129486E-2	5.876553E-2	4.888306E-2	4.876194E-2	5.377860E-2	5.307327E-2	4.287564E-2	6.302926E-2	6.966190E-2	3.997658E-2	6.190528E-2	4.707544E-2	4.939858E-2	4.934725E-2	4.170640E-2	4.848285E-2	5.205729E-2	6.354093E-2	5.433947E-2	5.076456E-2	5.208639E-2	5.170169E-2	4.235478E-2	6.366595E-2	5.030212E-2	5.307864E-2	4.345728E-2	4.988038E-2	4.807594E-2	8.455721E-2	6.526827E-2	5.332982E-2	6.052786E-2	4.457779E-2	7.506699E-2	4.728146E-2	5.311892E-2	5.954761E-2	5.310125E-2	6.136108E-2	5.320586E-2	5.322294E-2	5.176251E-2	4.330067E-2	4.611173E-2	6.194127E-2	6.517263E-2	4.996824E-2	4.605839E-2	4.265152E-2	5.581995E-2	4.358894E-2	6.696055E-2	5.802006E-2	6.049968E-2	5.607635E-2	5.426861E-2	6.528406E-2	6.078859E-2	6.160050E-2	6.332112E-2	5.447511E-2	7.223948E-2	5.906555E-2	5.513422E-2	5.630113E-2	6.165664E-2	6.419080E-2	5.616910E-2	6.369161E-2	7.173670E-2	5.351866E-2	5.139324E-2	6.428285E-2	5.679763E-2	4.850786E-2	6.787927E-2	6.547967E-2	6.399393E-2	6.490332E-2	5.187013E-2	5.633733E-2	6.834293E-2	5.848583E-2	4.540939E-2	6.678042E-2	5.247682E-2	4.867905E-2	4.604417E-2	5.518197E-2	4.967061E-2	4.750130E-2	6.166945E-2	5.158517E-2	5.891183E-2	5.930727E-2	6.424897E-2	5.594540E-2	7.398507E-2	5.953737E-2	5.776499E-2	5.704778E-2	4.957956E-2	6.906185E-2	5.489687E-2	4.706006E-2	6.193459E-2	5.333337E-2	5.094176E-2	5.372878E-2	5.954384E-2	4.378766E-2	4.923745E-2	5.143521E-2	4.564851E-2	4.930776E-2	5.939302E-2	5.877904E-2	6.826221E-2	6.258262E-2	6.134682E-2	4.509735E-2	6.297194E-2	5.013875E-2	5.631972E-2	5.839029E-2	5.591000E-2	5.809922E-2	5.408740E-2	6.685313E-2	7.410725E-2	5.983995E-2	5.248528E-2	4.773506E-2	1.885655E-2
5.342040E+2	8.147004E-2	5.755420E-2	7.686104E-2	4.959648E-2	7.987004E-2	7.595719E-2	7.792117E-2	8.344212E-2	5.640925E-2	7.392576E-2	6.223999E-2	7.961135E-2	6.722000E-2	7.478205E-2	7.520054E-2	8.033520E-2	7.629736E-2	7.445672E-2	6.750293E-2	6.323173E-2	7.789086E-2	7.221899E-2	7.529941E-2	6.167217E-2	6.318162E-2	8.339201E-2	6.342847E-2	8.152526E-2	5.805617E-2	8.493237E-2	7.622239E-2	6.221439E-2	6.797491E-2	7.411293E-2	8.210159E-2	8.140361E-2	7.413311E-2	7.940624E-2	6.964822E-2	7.879694E-2	6.414368E-2	7.817398E-2	7.727772E-2	8.328911E-2	7.594700E-2	7.381061E-2	6.738077E-2	7.963989E-2	6.534044E-2	8.653374E-2	6.987373E-2	9.144378E-2	8.535047E-2	9.550790E-2	8.010609E-2	6.868308E-2	7.652438E-2	7.208816E-2	7.647109E-2	7.555145E-2	7.654655E-2	8.405494E-2	6.057501E-2	6.725442E-2	7.961056E-2	7.374470E-2	6.981659E-2	7.117225E-2	6.728838E-2	6.774981E-2	6.618250E-2	7.165917E-2	8.561225E-2	9.612655E-2	5.028673E-2	5.754878E-2	7.334658E-2	7.037977E-2	8.743427E-2	6.767352E-2	7.553219E-2	6.216189E-2	6.421071E-2	6.896356E-2	5.841433E-2	6.744866E-2	8.042637E-2	7.797577E-2	6.191740E-2	8.384091E-2	8.161109E-2	7.892625E-2	1.112852E-1	8.192157E-2	8.367466E-2	7.487382E-2	5.980507E-2	6.485034E-2	5.586219E-2	6.314657E-2	7.665127E-2	7.221351E-2	7.837025E-2	7.216291E-2	7.722686E-2	7.303735E-2	7.561215E-2	6.287029E-2	8.032273E-2	6.083948E-2	7.140324E-2	6.964104E-2	8.399534E-2	7.356327E-2	9.311427E-2	6.707380E-2	8.410253E-2	7.338039E-2	5.895151E-2	7.721879E-2	7.531884E-2	6.134321E-2	7.329151E-2	6.690625E-2	8.779572E-2	7.482506E-2	7.462554E-2	8.393165E-2	9.530007E-2	6.954707E-2	7.929795E-2	6.969241E-2	9.042979E-2	7.101215E-2	6.618458E-2	8.371644E-2	7.768733E-2	7.124587E-2	6.656449E-2	5.866385E-2	7.537660E-2	7.072048E-2	6.326870E-2	6.326122E-2	7.758904E-2	7.137237E-2	7.895587E-2	7.633863E-2	8.571416E-2	6.218775E-2	6.182840E-2	7.783457E-2	5.966065E-2	7.361427E-2	6.916734E-2	6.057270E-2	7.728757E-2	9.603306E-2	7.940637E-2	7.151185E-2	7.686324E-2	6.651104E-2	7.710474E-2	6.484077E-2	7.962861E-2	6.202227E-2
5.343550E+2	9.669884E-2	7.850106E-2	1.000495E-1	1.210933E-1	1.164110E-1	8.176239E-2	1.101997E-1	1.073933E-1	1.068019E-1	1.100666E-1	1.244787E-1	1.141081E-1	9.835855E-2	1.135008E-1	1.098253E-1	1.105164E-1	9.201618E-2	9.554108E-2	1.153695E-1	9.827036E-2	1.119871E-1	1.292006E-1	1.235969E-1	1.019835E-1	1.118674E-1	1.202431E-1	1.089314E-1	1.071417E-1	8.915873E-2	1.161251E-1	8.861118E-2	1.060031E-1	1.149079E-1	1.153762E-1	1.067679E-1	9.657626E-2	9.749395E-2	1.217178E-1	1.219095E-1	1.088704E-1	9.777656E-2	9.579528E-2	1.145678E-1	9.918939E-2	1.170259E-1	1.024538E-1	1.080632E-1	1.082678E-1	1.290780E-1	1.066140E-1	1.065373E-1	9.763645E-2	8.625613E-2	1.103295E-1	1.365687E-1	1.200859E-1	8.369348E-2	9.704099E-2	1.090806E-1	9.503823E-2	1.115682E-1	1.074234E-1	1.074666E-1	9.950652E-2	1.114622E-1	8.834560E-2	1.203426E-1	1.143195E-1	1.018605E-1	1.078890E-1	1.284402E-1	1.122110E-1	1.199536E-1	1.070146E-1	1.057229E-1	1.011670E-1	1.109449E-1	1.012953E-1	1.132726E-1	9.550053E-2	1.118142E-1	1.116812E-1	9.835565E-2	1.157176E-1	1.207461E-1	1.194936E-1	1.029050E-1	1.107097E-1	9.689424E-2	9.361968E-2	1.026141E-1	9.280418E-2	1.301972E-1	1.099988E-1	1.198522E-1	1.053351E-1	1.128458E-1	1.082805E-1	9.641913E-2	1.010193E-1	1.130589E-1	1.257078E-1	1.087819E-1	9.994559E-2	1.059117E-1	1.090519E-1	8.843872E-2	8.301322E-2	9.936860E-2	1.131702E-1	1.133789E-1	9.434986E-2	9.560076E-2	1.161296E-1	1.092974E-1	1.007543E-1	1.300625E-1	8.333099E-2	1.134251E-1	9.992086E-2	1.134688E-1	9.819936E-2	8.597569E-2	1.075129E-1	1.108348E-1	1.062852E-1	1.228974E-1	9.551261E-2	1.102708E-1	9.330341E-2	1.068048E-1	1.043931E-1	1.227091E-1	9.554811E-2	1.019664E-1	1.085240E-1	9.548737E-2	1.071442E-1	9.135957E-2	1.002370E-1	1.124047E-1	1.172223E-1	9.955400E-2	1.047129E-1	1.056287E-1	8.481521E-2	9.682806E-2	1.202563E-1	1.140138E-1	1.215689E-1	1.072529E-1	1.109360E-1	1.211755E-1	1.201692E-1	1.106037E-1	9.572411E-2	1.172370E-1	1.022569E-1	1.142712E-1	1.343436E-1	1.164726E-1	1.002023E-1	1.036547E-1	1.081444E-1	1.090838E-1	1.147644E-1
5.345160E+2	1.751393E-1	1.502773E-1	1.578033E-1	1.822514E-1	1.536041E-1	1.674513E-1	1.802158E-1	1.665196E-1	1.640743E-1	1.542039E-1	1.803248E-1	1.398863E-1	1.645020E-1	1.667948E-1	1.590927E-1	1.621712E-1	1.763456E-1	1.685100E-1	1.440113E-1	1.666726E-1	1.534953E-1	1.405445E-1	1.828833E-1	1.591763E-1	1.401875E-1	2.008204E-1	1.467406E-1	1.309053E-1	1.671492E-1	1.816743E-1	1.412079E-1	1.587988E-1	1.675622E-1	1.543757E-1	1.633686E-1	1.571001E-1	1.762587E-1	1.647682E-1	1.793760E-1	1.752312E-1	1.479282E-1	1.749119E-1	1.721578E-1	1.552106E-1	1.580562E-1	1.477418E-1	1.790028E-1	1.538196E-1	1.741670E-1	1.800484E-1	1.677182E-1	1.717992E-1	1.539041E-1	1.647705E-1	1.934090E-1	1.685111E-1	1.662754E-1	1.674172E-1	1.626963E-1	1.594384E-1	1.728256E-1	1.716993E-1	1.706249E-1	1.659922E-1	1.681573E-1	1.561998E-1	1.672502E-1	1.554906E-1	1.771575E-1	1.796534E-1	1.676221E-1	1.680523E-1	1.441644E-1	1.847930E-1	1.525471E-1	1.507627E-1	1.719135E-1	1.731032E-1	1.776072E-1	1.582754E-1	1.576543E-1	1.387043E-1	1.604080E-1	1.485381E-1	1.654649E-1	1.813507E-1	1.497688E-1	1.809336E-1	1.646755E-1	1.783388E-1	1.650364E-1	1.889281E-1	1.790044E-1	1.639213E-1	1.605207E-1	1.747961E-1	1.936623E-1	2.162954E-1	1.750338E-1	1.531058E-1	1.568078E-1	1.664555E-1	1.549180E-1	1.597898E-1	1.504162E-1	1.703597E-1	1.661182E-1	1.663963E-1	1.521513E-1	1.854942E-1	1.793516E-1	1.671073E-1	1.698305E-1	1.632862E-1	1.395442E-1	1.666007E-1	1.744769E-1	1.727222E-1	1.624460E-1	1.739238E-1	1.663781E-1	1.712873E-1	1.819559E-1	1.899685E-1	1.852673E-1	1.704122E-1	1.408496E-1	1.720173E-1	1.909480E-1	1.636964E-1	1.660928E-1	1.586034E-1	1.658643E-1	1.659023E-1	1.678395E-1	1.798185E-1	1.752346E-1	1.604184E-1	1.734382E-1	1.731604E-1	1.858182E-1	1.764338E-1	1.790516E-1	1.599588E-1	1.505563E-1	1.749313E-1	1.567241E-1	1.730272E-1	1.612510E-1	1.546290E-1	1.653632E-1	1.629092E-1	1.908575E-1	1.665143E-1	1.683330E-1	1.682891E-1	1.788585E-1	1.678511E-1	1.648981E-1	1.618147E-1	1.997183E-1	1.600510E-1	1.477197E-1	1.739649E-1	1.807930E-1	1.581624E-1
5.346670E+2	2.571557E-1	2.833108E-1	2.816452E-1	2.230204E-1	2.625604E-1	2.457728E-1	2.655635E-1	2.806226E-1	2.448377E-1	2.656390E-1	2.541719E-1	2.604962E-1	2.682933E-1	2.576846E-1	2.569185E-1	2.704926E-1	2.583745E-1	2.475075E-1	2.594820E-1	2.389061E-1	2.480239E-1	2.844057E-1	2.492848E-1	2.772391E-1	2.549140E-1	2.647240E-1	2.403333E-1	2.803263E-1	2.459635E-1	2.601894E-1	2.677921E-1	2.427417E-1	2.868004E-1	2.600741E-1	2.634185E-1	2.571293E-1	2.786198E-1	2.300839E-1	2.706321E-1	2.783249E-1	2.479520E-1	2.535042E-1	2.589779E-1	2.460987E-1	2.731035E-1	2.418607E-1	2.297223E-1	2.445495E-1	2.515081E-1	2.428081E-1	2.659181E-1	2.603618E-1	2.464158E-1	2.765394E-1	2.390616E-1	2.677504E-1	2.644536E-1	2.660975E-1	2.516960E-1	2.370282E-1	2.532885E-1	2.469342E-1	2.536172E-1	2.486749E-1	2.544429E-1	2.773855E-1	2.735682E-1	2.763214E-1	2.568875E-1	2.808964E-1	2.669964E-1	2.447968E-1	2.749178E-1	2.462345E-1	2.712711E-1	2.392312E-1	2.580370E-1	2.494501E-1	2.668707E-1	2.383563E-1	2.686673E-1	2.385019E-1	2.501673E-1	2.315848E-1	2.399316E-1	2.840703E-1	2.667404E-1	2.693609E-1	2.254117E-1	2.653329E-1	2.753479E-1	2.490914E-1	2.637190E-1	2.934638E-1	2.527104E-1	2.488860E-1	2.468099E-1	2.748778E-1	2.714644E-1	2.363832E-1	2.610339E-1	2.715984E-1	2.352939E-1	2.779205E-1	2.521054E-1	2.781871E-1	2.751297E-1	2.817310E-1	2.762467E-1	2.633551E-1	2.618355E-1	2.507432E-1	2.590230E-1	2.744332E-1	2.638486E-1	2.469340E-1	2.704666E-1	2.609279E-1	2.693109E-1	2.559526E-1	2.739371E-1	2.957843E-1	2.815387E-1	2.523279E-1	2.667299E-1	2.608848E-1	2.471825E-1	2.606645E-1	2.547981E-1	2.664501E-1	2.566223E-1	2.633144E-1	2.796382E-1	2.547898E-1	2.626065E-1	2.772237E-1	2.736247E-1	2.600251E-1	2.463193E-1	2.710518E-1	2.417526E-1	2.834951E-1	2.491192E-1	2.646308E-1	2.477518E-1	2.396369E-1	2.718339E-1	2.562774E-1	2.617662E-1	2.662667E-1	3.062872E-1	2.631674E-1	2.811591E-1	2.843985E-1	2.832586E-1	2.811933E-1	2.284659E-1	2.656065E-1	2.417563E-1	2.623113E-1	2.420343E-1	2.896746E-1	2.637904E-1	2.527171E-1	2.605972E-1	2.497251E-1
5.348180E+2	4.466133E-1	4.310717E-1	4.709643E-1	3.911742E-1	4.253234E-1	4.439820E-1	4.039785E-1	4.299124E-1	3.940847E-1	4.538662E-1	4.288096E-1	4.055271E-1	4.168774E-1	4.182634E-1	4.174253E-1	4.460584E-1	4.402392E-1	4.409502E-1	4.394257E-1	4.327376E-1	3.878814E-1	4.442892E-1	4.279067E-1	4.279063E-1	4.567819E-1	4.348461E-1	4.212489E-1	4.350433E-1	3.951216E-1	4.376001E-1	4.258902E-1	4.101034E-1	4.270667E-1	4.294190E-1	4.213106E-1	4.669179E-1	4.173375E-1	4.456020E-1	4.393631E-1	4.433195E-1	3.863349E-1	4.934865E-1	4.304935E-1	4.420899E-1	4.387496E-1	4.582753E-1	4.360983E-1	4.212332E-1	4.403632E-1	4.231608E-1	4.364105E-1	4.131198E-1	4.497793E-1	4.425542E-1	4.239897E-1	4.221271E-1	4.390323E-1	4.193341E-1	4.170295E-1	4.601624E-1	4.522217E-1	3.942210E-1	4.278245E-1	4.273706E-1	4.374130E-1	4.538126E-1	4.192748E-1	4.217973E-1	4.251617E-1	4.076536E-1	4.709436E-1	4.287180E-1	4.453716E-1	4.416523E-1	3.676685E-1	4.428296E-1	4.194611E-1	4.337748E-1	4.509245E-1	4.047920E-1	4.593645E-1	4.410207E-1	4.462082E-1	4.421723E-1	4.161004E-1	4.582209E-1	4.554172E-1	4.335264E-1	4.327340E-1	4.346388E-1	4.262744E-1	4.972169E-1	4.114666E-1	4.308107E-1	4.361148E-1	4.058500E-1	4.201222E-1	4.319737E-1	4.199674E-1	4.305405E-1	4.326262E-1	4.579230E-1	4.481480E-1	4.193747E-1	4.376528E-1	4.136912E-1	4.083370E-1	4.102988E-1	4.513049E-1	4.369415E-1	3.942011E-1	4.577450E-1	4.237598E-1	4.269554E-1	4.530130E-1	4.012450E-1	4.355408E-1	3.944975E-1	4.680686E-1	4.663356E-1	4.419114E-1	4.668267E-1	4.523197E-1	4.241155E-1	4.433819E-1	4.201483E-1	4.242307E-1	4.414363E-1	4.702909E-1	4.515343E-1	4.244004E-1	4.728460E-1	4.447037E-1	4.448221E-1	4.349358E-1	4.688588E-1	4.530936E-1	4.431740E-1	4.484289E-1	4.223676E-1	4.337164E-1	4.325018E-1	4.062169E-1	4.292733E-1	4.092824E-1	4.227318E-1	4.443222E-1	4.403640E-1	4.331034E-1	4.306019E-1	4.639312E-1	4.197489E-1	4.341601E-1	4.252855E-1	4.583227E-1	4.094921E-1	4.118155E-1	4.549566E-1	4.299474E-1	4.139612E-1	4.425391E-1	4.477338E-1	4.318423E-1	4.599431E-1	4.400022E-1	4.157918E-1
5.349580E+2	7.144994E-1	7.148790E-1	7.662981E-1	6.915966E-1	7.430761E-1	7.699148E-1	7.069206E-1	7.303782E-1	6.818679E-1	6.876207E-1	7.142633E-1	6.959894E-1	7.653282E-1	7.187023E-1	7.052392E-1	7.049561E-1	7.168863E-1	6.951341E-1	7.613913E-1	6.717135E-1	6.873581E-1	7.184658E-1	6.925516E-1	6.981345E-1	7.045319E-1	7.215885E-1	7.295656E-1	7.366750E-1	6.967626E-1	7.476579E-1	7.353660E-1	7.301420E-1	7.153287E-1	7.295583E-1	7.081920E-1	6.913733E-1	7.094251E-1	6.887232E-1	7.303910E-1	7.475717E-1	6.830279E-1	7.250126E-1	7.368519E-1	6.901875E-1	7.465884E-1	7.340590E-1	7.060903E-1	7.141717E-1	6.897362E-1	7.481244E-1	7.270487E-1	6.841508E-1	7.418385E-1	7.381354E-1	7.258210E-1	7.034516E-1	7.252325E-1	7.023777E-1	7.110520E-1	7.617699E-1	7.153576E-1	7.601497E-1	6.789913E-1	7.204971E-1	7.088472E-1	7.307338E-1	6.921760E-1	7.105745E-1	6.997125E-1	7.421697E-1	7.267535E-1	7.110112E-1	7.202738E-1	6.970090E-1	7.278823E-1	7.008649E-1	7.049834E-1	6.775277E-1	7.157299E-1	7.136904E-1	7.232358E-1	7.113871E-1	7.016265E-1	7.489685E-1	6.974103E-1	7.412431E-1	7.173555E-1	7.194506E-1	7.025859E-1	7.638737E-1	7.386531E-1	7.383985E-1	7.174556E-1	7.535634E-1	7.053062E-1	7.211965E-1	7.391870E-1	7.000190E-1	7.542899E-1	7.220314E-1	6.682564E-1	7.159863E-1	7.041343E-1	7.081829E-1	7.669348E-1	7.676835E-1	7.233014E-1	7.111715E-1	7.273767E-1	7.560725E-1	7.253190E-1	7.312970E-1	7.283449E-1	6.834112E-1	7.109426E-1	6.999784E-1	7.160253E-1	7.071348E-1	7.277347E-1	7.156169E-1	7.009019E-1	6.888773E-1	7.147971E-1	7.397182E-1	7.424075E-1	7.221286E-1	7.247783E-1	7.201908E-1	7.022656E-1	7.625820E-1	7.108850E-1	7.082617E-1	6.774239E-1	7.259095E-1	7.287918E-1	7.603552E-1	6.897860E-1	6.847618E-1	7.040432E-1	6.965734E-1	7.042745E-1	6.839528E-1	6.925338E-1	7.435355E-1	7.258833E-1	7.805075E-1	7.425881E-1	7.299090E-1	7.437558E-1	7.467662E-1	7.216992E-1	6.865386E-1	7.191816E-1	7.351869E-1	6.810754E-1	7.437783E-1	7.072347E-1	7.656509E-1	6.597612E-1	7.094145E-1	7.230667E-1	7.114224E-1	7.184678E-1	7.404260E-1	6.493214E-1	7.105148E-1
5.351200E+2	1.077044E+0	1.121283E+0	1.117132E+0	1.038441E+0	1.024151E+0	1.082407E+0	1.100388E+0	1.067671E+0	1.037294E+0	1.096283E+0	1.068123E+0	1.031373E+0	1.069161E+0	1.061322E+0	1.072443E+0	1.055934E+0	1.113620E+0	1.031971E+0	1.116170E+0	1.002020E+0	1.083000E+0	1.042239E+0	1.095840E+0	1.085200E+0	1.055988E+0	1.099125E+0	1.087304E+0	1.062534E+0	1.032758E+0	1.057579E+0	1.111639E+0	1.005439E+0	1.082066E+0	1.057898E+0	1.051446E+0	1.035542E+0	1.062487E+0	1.114358E+0	1.040721E+0	1.053474E+0	1.045483E+0	1.100346E+0	1.088188E+0	1.065194E+0	1.060089E+0	1.081238E+0	1.084095E+0	1.035500E+0	1.046555E+0	1.090610E+0	1.105097E+0	1.005686E+0	1.029989E+0	1.107816E+0	1.088552E+0	1.046513E+0	1.018043E+0	1.063063E+0	1.051135E+0	1.007205E+0	1.066835E+0	1.124373E+0	1.024580E+0	1.084492E+0	1.119206E+0	1.064757E+0	1.069175E+0	1.068420E+0	1.085921E+0	1.045688E+0	1.076899E+0	1.079975E+0	1.046785E+0	1.070447E+0	1.052501E+0	1.056000E+0	1.097732E+0	1.072972E+0	1.043716E+0	1.035149E+0	1.072335E+0	1.024241E+0	1.131172E+0	1.073738E+0	1.075475E+0	1.140308E+0	1.058425E+0	1.087330E+0	1.009427E+0	1.066761E+0	1.070826E+0	1.037631E+0	1.050113E+0	1.090057E+0	1.099977E+0	1.012154E+0	1.031097E+0	1.074615E+0	1.037079E+0	1.112833E+0	1.055431E+0	1.041533E+0	1.022503E+0	1.069946E+0	1.059958E+0	1.078036E+0	1.012345E+0	1.063735E+0	1.057907E+0	1.090782E+0	1.036559E+0	1.046641E+0	1.096181E+0	1.050425E+0	1.056084E+0	1.075469E+0	1.038880E+0	1.059611E+0	1.096784E+0	1.099509E+0	1.024981E+0	1.147537E+0	1.061841E+0	1.074424E+0	1.062782E+0	1.075027E+0	1.044501E+0	1.051712E+0	1.092542E+0	1.058972E+0	1.029404E+0	1.050185E+0	1.043099E+0	1.117991E+0	1.026862E+0	1.098459E+0	1.007149E+0	1.072886E+0	1.055172E+0	1.014239E+0	1.077098E+0	1.048904E+0	1.029182E+0	1.029223E+0	1.105246E+0	1.053391E+0	1.033988E+0	1.074323E+0	1.058978E+0	1.039577E+0	1.083228E+0	1.045825E+0	1.050270E+0	1.088084E+0	1.028879E+0	1.044419E+0	1.033656E+0	1.064593E+0	1.099178E+0	1.098383E+0	1.076917E+0	1.039364E+0	1.041827E+0	1.011141E+0	1.028594E+0	1.029015E+0
5.352550E+2	1.625270E+0	1.561419E+0	1.425707E+0	1.501720E+0	1.489560E+0	1.496901E+0	1.476730E+0	1.519908E+0	1.443486E+0	1.469647E+0	1.438639E+0	1.454006E+0	1.514190E+0	1.465307E+0	1.499082E+0	1.502421E+0	1.595730E+0	1.497668E+0	1.507082E+0	1.499008E+0	1.538213E+0	1.475448E+0	1.492805E+0	1.478254E+0	1.523795E+0	1.509124E+0	1.526821E+0	1.443880E+0	1.459728E+0	1.505422E+0	1.432033E+0	1.496675E+0	1.524276E+0	1.451797E+0	1.470437E+0	1.500795E+0	1.453661E+0	1.492063E+0	1.569982E+0	1.473366E+0	1.487921E+0	1.533009E+0	1.571971E+0	1.552453E+0	1.529371E+0	1.464691E+0	1.412360E+0	1.440185E+0	1.456586E+0	1.496582E+0	1.471742E+0	1.405185E+0	1.435577E+0	1.478494E+0	1.495098E+0	1.519733E+0	1.520471E+0	1.467918E+0	1.552160E+0	1.442249E+0	1.475960E+0	1.444120E+0	1.411987E+0	1.471147E+0	1.546388E+0	1.517453E+0	1.559816E+0	1.381537E+0	1.458386E+0	1.551984E+0	1.457278E+0	1.440774E+0	1.525244E+0	1.500972E+0	1.449193E+0	1.470265E+0	1.495868E+0	1.529019E+0	1.475424E+0	1.437859E+0	1.455446E+0	1.535359E+0	1.498188E+0	1.433636E+0	1.478249E+0	1.501857E+0	1.498382E+0	1.497857E+0	1.466339E+0	1.545215E+0	1.453150E+0	1.453354E+0	1.543935E+0	1.464701E+0	1.525444E+0	1.460784E+0	1.467460E+0	1.483237E+0	1.408902E+0	1.460832E+0	1.451984E+0	1.500275E+0	1.398429E+0	1.508768E+0	1.453313E+0	1.499715E+0	1.404318E+0	1.481640E+0	1.448724E+0	1.564937E+0	1.424651E+0	1.512794E+0	1.488716E+0	1.454557E+0	1.398075E+0	1.472481E+0	1.508587E+0	1.493333E+0	1.480964E+0	1.464108E+0	1.442725E+0	1.514039E+0	1.529478E+0	1.462992E+0	1.481408E+0	1.532012E+0	1.446403E+0	1.429676E+0	1.456781E+0	1.524416E+0	1.489056E+0	1.462877E+0	1.430582E+0	1.479710E+0	1.462416E+0	1.477067E+0	1.497378E+0	1.466470E+0	1.501504E+0	1.454105E+0	1.426739E+0	1.472621E+0	1.463018E+0	1.354204E+0	1.441679E+0	1.488945E+0	1.477362E+0	1.428150E+0	1.514799E+0	1.505840E+0	1.482781E+0	1.441418E+0	1.470304E+0	1.446688E+0	1.484108E+0	1.467822E+0	1.449385E+0	1.480593E+0	1.431992E+0	1.452339E+0	1.484729E+0	1.481632E+0	1.417191E+0	1.390175E+0	1.403016E+0	1.433623E+0
5.354060E+2	1.904905E+0	1.852429E+0	1.908829E+0	1.871079E+0	1.891087E+0	1.924664E+0	1.823044E+0	1.831318E+0	1.834688E+0	1.862699E+0	1.904789E+0	1.855320E+0	1.886533E+0	1.891482E+0	1.831094E+0	1.843693E+0	1.855180E+0	1.792787E+0	1.900336E+0	1.813265E+0	1.873451E+0	1.869104E+0	1.839858E+0	1.857987E+0	1.873121E+0	1.899016E+0	1.864788E+0	1.847213E+0	1.858481E+0	1.855387E+0	1.837346E+0	1.866727E+0	1.829206E+0	1.791231E+0	1.818948E+0	1.833979E+0	1.818055E+0	1.861665E+0	1.841089E+0	1.826886E+0	1.851346E+0	1.952029E+0	1.859311E+0	1.827342E+0	1.875545E+0	1.900012E+0	1.821761E+0	1.781012E+0	1.880197E+0	1.878665E+0	1.858538E+0	1.819365E+0	1.899258E+0	1.890219E+0	1.848171E+0	1.868046E+0	1.846555E+0	1.912678E+0	1.866458E+0	1.844013E+0	1.895343E+0	1.885789E+0	1.767876E+0	1.809463E+0	1.856422E+0	1.921202E+0	1.794834E+0	1.800727E+0	1.816830E+0	1.853445E+0	1.847105E+0	1.781336E+0	1.790345E+0	1.849280E+0	1.746082E+0	1.840629E+0	1.895591E+0	1.817082E+0	1.794244E+0	1.773229E+0	1.813202E+0	1.811167E+0	1.818174E+0	1.838250E+0	1.819479E+0	1.864461E+0	1.854555E+0	1.903832E+0	1.835919E+0	1.883664E+0	1.812465E+0	1.864201E+0	1.759702E+0	1.881535E+0	1.769015E+0	1.863810E+0	1.836252E+0	1.829258E+0	1.891047E+0	1.817793E+0	1.793503E+0	1.783346E+0	1.808318E+0	1.840400E+0	1.931627E+0	1.854479E+0	1.826681E+0	1.816284E+0	1.811906E+0	1.858910E+0	1.796499E+0	1.838586E+0	1.841368E+0	1.844961E+0	1.805305E+0	1.821169E+0	1.806860E+0	1.805750E+0	1.734470E+0	1.829618E+0	1.816958E+0	1.906393E+0	1.752103E+0	1.802597E+0	1.865945E+0	1.822979E+0	1.793427E+0	1.813074E+0	1.829835E+0	1.869902E+0	1.784979E+0	1.763679E+0	1.800792E+0	1.807231E+0	1.833516E+0	1.877793E+0	1.804776E+0	1.893608E+0	1.782226E+0	1.812685E+0	1.745328E+0	1.801472E+0	1.805007E+0	1.741897E+0	1.795326E+0	1.800828E+0	1.775721E+0	1.727999E+0	1.831752E+0	1.802105E+0	1.816574E+0	1.808063E+0	1.821801E+0	1.778978E+0	1.827099E+0	1.802594E+0	1.765294E+0	1.909733E+0	1.756360E+0	1.830472E+0	1.747987E+0	1.822311E+0	1.767833E+0	1.734582E+0	1.741790E+0	1.620032E+0
5.355630E+2	2.008170E+0	1.959529E+0	2.031543E+0	1.934919E+0	1.920238E+0	1.971562E+0	1.940811E+0	1.898227E+0	1.920399E+0	1.976348E+0	1.929394E+0	1.901776E+0	1.973921E+0	1.926843E+0	1.921618E+0	1.963343E+0	2.009611E+0	1.939288E+0	1.970709E+0	1.923479E+0	1.911618E+0	1.899561E+0	1.969605E+0	1.924214E+0	1.979942E+0	1.927546E+0	1.959147E+0	1.940065E+0	1.880264E+0	1.942843E+0	1.895861E+0	1.934888E+0	1.958246E+0	1.906740E+0	1.887726E+0	1.853766E+0	1.940268E+0	1.936675E+0	1.949941E+0	1.973564E+0	1.911285E+0	1.993211E+0	1.959884E+0	1.909829E+0	1.881448E+0	1.982138E+0	1.891799E+0	1.960540E+0	1.921959E+0	1.991525E+0	1.885533E+0	1.869132E+0	1.967487E+0	1.973858E+0	1.966762E+0	1.905788E+0	1.937225E+0	1.953202E+0	1.973180E+0	1.993600E+0	1.919837E+0	1.924797E+0	1.841711E+0	1.874073E+0	1.994373E+0	1.914140E+0	1.974882E+0	1.909601E+0	1.866536E+0	1.983014E+0	1.987767E+0	1.903797E+0	1.889602E+0	1.908616E+0	1.826342E+0	1.922592E+0	1.901559E+0	1.979558E+0	1.879725E+0	1.947000E+0	1.912569E+0	1.969358E+0	1.900813E+0	1.930937E+0	1.933305E+0	1.981181E+0	1.902131E+0	1.948860E+0	1.914362E+0	1.903761E+0	1.996311E+0	1.939431E+0	1.873404E+0	1.939983E+0	1.887351E+0	1.896946E+0	1.873960E+0	1.830750E+0	1.876947E+0	1.873784E+0	1.836820E+0	1.873890E+0	1.856133E+0	1.970992E+0	1.959749E+0	1.966968E+0	1.906025E+0	1.881999E+0	1.973264E+0	1.921744E+0	1.861864E+0	1.858253E+0	1.928484E+0	1.937988E+0	1.850624E+0	1.929964E+0	1.878641E+0	1.881788E+0	1.877841E+0	1.879952E+0	1.821031E+0	1.821440E+0	1.830701E+0	1.904182E+0	1.889645E+0	1.867719E+0	1.884815E+0	1.909714E+0	1.991018E+0	1.899420E+0	1.899460E+0	1.875447E+0	1.872550E+0	1.888575E+0	1.847474E+0	1.941650E+0	1.860623E+0	1.859499E+0	1.859513E+0	1.879846E+0	1.880867E+0	1.843765E+0	1.858426E+0	1.852630E+0	1.923564E+0	1.893609E+0	1.875133E+0	1.796360E+0	1.850227E+0	1.842963E+0	1.959319E+0	1.835476E+0	1.919792E+0	1.979230E+0	1.863550E+0	1.820420E+0	1.796473E+0	1.896973E+0	1.826154E+0	1.904502E+0	1.873729E+0	1.866606E+0	1.733204E+0	1.748614E+0	1.906401E+0	1.694322E+0
5.357140E+2	2.050269E+0	1.970819E+0	1.971341E+0	1.884236E+0	1.929623E+0	1.996431E+0	1.938079E+0	1.928222E+0	1.952337E+0	1.911698E+0	2.062629E+0	1.983003E+0	2.007042E+0	1.964863E+0	1.894201E+0	1.926929E+0	2.084588E+0	1.955431E+0	1.924054E+0	1.936840E+0	1.847049E+0	1.964335E+0	1.972920E+0	1.976402E+0	1.909449E+0	2.005741E+0	1.989620E+0	1.957714E+0	1.874946E+0	1.898504E+0	1.917569E+0	1.919428E+0	1.947077E+0	1.996609E+0	1.887302E+0	1.902828E+0	1.958777E+0	1.902830E+0	1.940914E+0	2.015187E+0	1.957471E+0	1.976956E+0	1.932480E+0	1.921058E+0	1.973321E+0	2.001276E+0	1.921742E+0	1.885530E+0	1.990925E+0	2.040799E+0	1.932227E+0	1.927184E+0	1.957773E+0	1.977928E+0	1.899718E+0	1.937401E+0	1.899246E+0	1.925582E+0	1.978952E+0	1.972478E+0	1.967544E+0	1.960262E+0	1.861425E+0	1.946173E+0	1.999790E+0	1.950232E+0	1.981404E+0	1.927662E+0	1.916011E+0	1.955154E+0	1.930812E+0	1.946684E+0	1.968697E+0	1.921559E+0	1.862994E+0	1.960896E+0	1.950086E+0	2.001960E+0	1.908770E+0	1.930669E+0	1.888147E+0	1.977896E+0	1.930084E+0	1.956654E+0	1.842553E+0	1.958810E+0	1.935350E+0	1.843079E+0	2.031960E+0	2.000372E+0	1.917090E+0	1.981212E+0	1.888616E+0	1.961218E+0	1.851821E+0	1.887564E+0	1.924726E+0	1.878981E+0	1.940969E+0	1.923960E+0	1.885206E+0	1.904294E+0	1.891256E+0	1.902130E+0	1.938819E+0	2.026603E+0	1.896449E+0	1.901649E+0	1.875387E+0	1.908553E+0	1.858520E+0	1.902632E+0	1.932801E+0	1.946923E+0	1.870175E+0	1.940522E+0	1.917280E+0	1.893082E+0	1.880609E+0	1.829545E+0	1.850104E+0	1.947576E+0	1.894275E+0	1.900016E+0	1.892482E+0	1.883767E+0	1.946579E+0	1.837237E+0	1.888893E+0	1.946652E+0	1.881754E+0	1.891395E+0	1.900376E+0	1.916489E+0	1.888612E+0	1.900592E+0	1.889209E+0	1.915927E+0	1.843591E+0	1.910131E+0	1.898191E+0	1.862694E+0	1.898179E+0	1.842150E+0	1.909915E+0	1.934185E+0	1.842811E+0	1.852171E+0	1.933689E+0	1.853563E+0	1.976854E+0	1.853073E+0	1.855250E+0	1.915504E+0	1.900169E+0	1.856814E+0	1.938619E+0	1.952711E+0	1.869855E+0	1.858803E+0	1.869086E+0	1.846979E+0	1.808021E+0	1.855308E+0	1.843077E+0	1.860064E+0
5.358600E+2	1.711959E+0	1.666096E+0	1.684414E+0	1.640416E+0	1.654649E+0	1.651878E+0	1.632245E+0	1.673656E+0	1.737582E+0	1.610692E+0	1.661281E+0	1.642371E+0	1.674301E+0	1.686756E+0	1.583716E+0	1.698640E+0	1.697955E+0	1.602630E+0	1.697749E+0	1.626989E+0	1.632823E+0	1.626662E+0	1.646583E+0	1.668228E+0	1.628974E+0	1.618662E+0	1.656772E+0	1.692043E+0	1.585578E+0	1.629428E+0	1.610679E+0	1.627376E+0	1.626765E+0	1.626816E+0	1.657903E+0	1.647469E+0	1.608957E+0	1.623870E+0	1.672102E+0	1.678390E+0	1.561580E+0	1.666278E+0	1.634803E+0	1.656396E+0	1.621138E+0	1.633009E+0	1.588966E+0	1.646528E+0	1.666717E+0	1.665855E+0	1.578927E+0	1.581936E+0	1.641010E+0	1.682342E+0	1.615155E+0	1.636077E+0	1.596592E+0	1.634256E+0	1.636058E+0	1.622141E+0	1.671176E+0	1.633581E+0	1.641666E+0	1.592897E+0	1.638894E+0	1.690343E+0	1.713878E+0	1.637767E+0	1.572247E+0	1.666173E+0	1.616503E+0	1.557279E+0	1.676756E+0	1.681394E+0	1.596680E+0	1.648574E+0	1.616073E+0	1.641682E+0	1.641480E+0	1.618049E+0	1.674274E+0	1.665012E+0	1.713073E+0	1.661642E+0	1.578354E+0	1.620102E+0	1.634949E+0	1.645356E+0	1.646001E+0	1.709205E+0	1.585982E+0	1.670085E+0	1.622912E+0	1.643412E+0	1.654621E+0	1.564977E+0	1.633879E+0	1.643825E+0	1.653722E+0	1.674294E+0	1.594080E+0	1.641864E+0	1.645686E+0	1.631749E+0	1.658346E+0	1.673793E+0	1.627791E+0	1.564504E+0	1.642870E+0	1.646086E+0	1.594282E+0	1.571230E+0	1.649468E+0	1.685911E+0	1.609970E+0	1.543334E+0	1.599205E+0	1.576945E+0	1.622061E+0	1.647520E+0	1.572533E+0	1.691332E+0	1.621948E+0	1.601857E+0	1.654011E+0	1.644749E+0	1.663641E+0	1.620758E+0	1.599531E+0	1.607769E+0	1.591717E+0	1.622600E+0	1.643080E+0	1.632025E+0	1.568158E+0	1.627383E+0	1.525136E+0	1.676359E+0	1.587362E+0	1.617267E+0	1.604576E+0	1.613692E+0	1.594790E+0	1.555334E+0	1.563064E+0	1.623399E+0	1.588869E+0	1.611654E+0	1.589699E+0	1.630097E+0	1.670309E+0	1.494173E+0	1.615937E+0	1.682100E+0	1.594986E+0	1.661274E+0	1.678428E+0	1.695252E+0	1.591268E+0	1.577141E+0	1.644498E+0	1.611298E+0	1.534825E+0	1.547686E+0	1.531652E+0	1.669077E+0
5.360070E+2	1.669816E+0	1.622103E+0	1.627504E+0	1.552938E+0	1.649617E+0	1.612634E+0	1.606526E+0	1.559706E+0	1.595938E+0	1.608458E+0	1.615461E+0	1.608146E+0	1.647747E+0	1.590278E+0	1.614704E+0	1.593706E+0	1.663823E+0	1.556607E+0	1.571825E+0	1.566791E+0	1.653641E+0	1.531485E+0	1.598792E+0	1.617212E+0	1.613024E+0	1.615070E+0	1.546894E+0	1.633149E+0	1.545514E+0	1.579198E+0	1.589856E+0	1.527036E+0	1.622340E+0	1.572106E+0	1.574871E+0	1.598323E+0	1.565320E+0	1.607452E+0	1.656378E+0	1.603898E+0	1.546504E+0	1.654979E+0	1.656044E+0	1.553551E+0	1.582871E+0	1.600237E+0	1.523524E+0	1.601172E+0	1.587442E+0	1.662894E+0	1.579748E+0	1.639221E+0	1.591709E+0	1.582979E+0	1.670026E+0	1.574426E+0	1.620624E+0	1.580003E+0	1.648301E+0	1.614205E+0	1.584118E+0	1.532369E+0	1.484969E+0	1.667005E+0	1.646243E+0	1.640721E+0	1.635158E+0	1.570358E+0	1.557983E+0	1.606419E+0	1.589627E+0	1.636890E+0	1.560557E+0	1.615375E+0	1.618281E+0	1.589635E+0	1.557812E+0	1.594424E+0	1.590242E+0	1.563679E+0	1.630650E+0	1.635627E+0	1.564582E+0	1.661324E+0	1.607740E+0	1.606414E+0	1.625323E+0	1.567887E+0	1.613386E+0	1.585301E+0	1.596047E+0	1.652061E+0	1.559842E+0	1.594967E+0	1.577117E+0	1.589461E+0	1.544435E+0	1.640137E+0	1.562919E+0	1.548768E+0	1.550072E+0	1.615813E+0	1.501852E+0	1.594576E+0	1.635175E+0	1.578090E+0	1.564432E+0	1.546874E+0	1.620851E+0	1.576301E+0	1.583608E+0	1.526772E+0	1.630028E+0	1.599319E+0	1.569107E+0	1.559361E+0	1.524655E+0	1.572052E+0	1.585240E+0	1.560687E+0	1.553851E+0	1.668686E+0	1.580646E+0	1.562600E+0	1.613014E+0	1.510177E+0	1.556821E+0	1.537676E+0	1.583490E+0	1.585280E+0	1.596333E+0	1.611302E+0	1.504972E+0	1.587118E+0	1.551267E+0	1.610968E+0	1.553310E+0	1.599031E+0	1.563903E+0	1.557155E+0	1.524145E+0	1.581506E+0	1.545634E+0	1.510820E+0	1.519966E+0	1.558419E+0	1.595617E+0	1.568898E+0	1.549767E+0	1.542057E+0	1.558849E+0	1.545517E+0	1.582564E+0	1.609760E+0	1.590813E+0	1.611464E+0	1.576538E+0	1.620292E+0	1.544863E+0	1.590540E+0	1.605478E+0	1.523959E+0	1.540352E+0	1.531311E+0	1.453951E+0	1.655517E+0
5.362730E+2	1.166146E+0	1.145938E+0	1.160894E+0	1.109813E+0	1.114266E+0	1.126236E+0	1.142356E+0	1.116922E+0	1.088821E+0	1.077885E+0	1.145978E+0	1.089711E+0	1.119174E+0	1.121046E+0	1.092261E+0	1.092958E+0	1.132890E+0	1.076192E+0	1.142669E+0	1.121344E+0	1.155436E+0	1.079110E+0	1.115689E+0	1.138394E+0	1.120162E+0	1.137043E+0	1.181722E+0	1.148700E+0	1.113659E+0	1.135282E+0	1.104020E+0	1.085916E+0	1.057980E+0	1.176776E+0	1.106076E+0	1.112451E+0	1.088956E+0	1.094040E+0	1.156766E+0	1.098684E+0	1.143455E+0	1.092684E+0	1.123439E+0	1.139652E+0	1.165308E+0	1.164212E+0	1.140199E+0	1.103408E+0	1.111906E+0	1.111386E+0	1.092992E+0	1.087118E+0	1.126473E+0	1.148328E+0	1.149935E+0	1.107892E+0	1.119034E+0	1.089497E+0	1.140222E+0	1.111657E+0	1.097961E+0	1.153779E+0	1.063628E+0	1.104217E+0	1.116387E+0	1.134273E+0	1.107777E+0	1.168072E+0	1.118168E+0	1.128347E+0	1.124508E+0	1.126042E+0	1.107677E+0	1.127800E+0	1.080261E+0	1.088015E+0	1.078676E+0	1.142113E+0	1.073426E+0	1.121452E+0	1.062346E+0	1.123379E+0	1.142180E+0	1.148455E+0	1.130500E+0	1.148098E+0	1.152755E+0	1.118360E+0	1.111901E+0	1.177936E+0	1.111253E+0	1.175756E+0	1.114696E+0	1.113482E+0	1.106254E+0	1.085125E+0	1.101845E+0	1.129001E+0	1.117030E+0	1.123223E+0	1.150437E+0	1.132819E+0	1.122032E+0	1.152339E+0	1.096136E+0	1.144666E+0	1.082839E+0	1.133713E+0	1.166357E+0	1.159119E+0	1.116706E+0	1.121092E+0	1.225336E+0	1.083357E+0	1.110693E+0	1.054058E+0	1.047486E+0	1.146354E+0	1.147880E+0	1.059056E+0	1.141617E+0	1.197645E+0	1.042507E+0	1.139454E+0	1.168119E+0	1.125078E+0	1.147494E+0	1.084426E+0	1.175013E+0	1.116268E+0	1.111753E+0	1.135774E+0	1.093461E+0	1.188536E+0	1.124539E+0	1.140348E+0	1.126859E+0	1.121832E+0	1.110125E+0	1.144014E+0	1.139257E+0	1.103426E+0	1.094882E+0	1.079147E+0	1.141462E+0	1.080467E+0	1.132826E+0	1.074084E+0	1.152738E+0	1.110284E+0	1.173726E+0	1.101880E+0	1.128487E+0	1.089322E+0	1.162153E+0	1.126545E+0	1.143139E+0	1.086398E+0	1.116140E+0	1.093125E+0	1.115804E+0	1.124485E+0	1.056432E+0	1.137791E+0	1.062290E+0	1.043511E+0
5.365140E+2	9.582178E-1	8.921419E-1	8.670293E-1	8.581661E-1	8.688616E-1	8.930911E-1	9.116649E-1	8.943133E-1	9.328088E-1	8.896046E-1	8.669008E-1	8.743166E-1	9.021431E-1	8.863843E-1	8.896949E-1	8.708033E-1	9.259833E-1	8.957035E-1	8.877490E-1	9.135522E-1	9.085764E-1	8.850740E-1	9.115227E-1	9.041763E-1	8.824284E-1	9.184652E-1	8.820295E-1	9.341468E-1	8.481219E-1	8.859584E-1	8.921356E-1	9.009531E-1	8.965913E-1	9.151519E-1	9.092785E-1	8.425710E-1	8.762758E-1	9.241606E-1	8.842985E-1	8.930504E-1	8.235335E-1	8.744246E-1	9.168446E-1	8.900864E-1	9.135480E-1	8.725967E-1	8.925235E-1	8.757799E-1	8.874643E-1	8.741440E-1	8.990307E-1	8.808487E-1	8.997203E-1	8.452569E-1	9.211502E-1	9.161330E-1	8.587124E-1	8.888342E-1	9.540261E-1	9.092422E-1	9.299297E-1	8.841674E-1	8.570572E-1	9.103777E-1	9.042935E-1	8.996757E-1	8.921484E-1	9.052402E-1	8.940080E-1	9.138684E-1	9.045886E-1	8.788077E-1	9.257767E-1	8.526180E-1	8.560893E-1	8.922489E-1	8.613225E-1	8.989174E-1	8.710304E-1	8.848996E-1	8.946590E-1	8.739430E-1	9.352710E-1	9.492957E-1	9.012626E-1	9.200229E-1	9.098164E-1	8.631400E-1	8.998607E-1	9.251076E-1	8.481561E-1	8.880697E-1	9.171488E-1	9.169433E-1	8.886833E-1	8.920668E-1	9.031184E-1	8.953426E-1	9.374849E-1	9.085057E-1	9.085746E-1	8.745779E-1	8.762344E-1	8.895430E-1	8.861459E-1	8.965631E-1	9.254564E-1	9.303684E-1	8.699940E-1	9.135923E-1	9.285176E-1	9.049155E-1	9.279264E-1	8.800965E-1	9.097527E-1	9.047027E-1	8.906871E-1	9.331448E-1	9.161707E-1	8.566881E-1	8.783592E-1	9.613094E-1	8.925890E-1	8.784428E-1	9.164020E-1	8.803910E-1	8.873945E-1	9.012272E-1	9.317863E-1	9.569863E-1	8.759876E-1	8.085513E-1	8.864584E-1	9.075595E-1	9.229666E-1	9.140387E-1	9.038417E-1	9.209805E-1	9.048370E-1	9.101926E-1	9.138108E-1	8.853350E-1	8.771511E-1	8.782265E-1	9.132143E-1	8.514899E-1	9.098945E-1	8.896850E-1	8.884615E-1	8.877657E-1	8.909543E-1	8.699753E-1	8.418456E-1	1.010122E+0	8.711424E-1	9.622035E-1	8.967859E-1	9.109508E-1	9.389185E-1	9.021581E-1	8.737682E-1	9.159700E-1	8.551250E-1	9.087915E-1	8.733255E-1	8.624691E-1
5.367660E+2	7.381301E-1	6.932826E-1	7.397829E-1	7.077442E-1	6.580128E-1	6.908613E-1	6.875805E-1	7.213835E-1	6.695959E-1	6.398897E-1	7.123811E-1	6.291269E-1	7.221264E-1	7.132568E-1	6.855271E-1	6.765105E-1	6.820009E-1	6.655754E-1	7.174768E-1	6.810200E-1	6.442617E-1	6.509034E-1	6.997439E-1	7.143566E-1	7.010348E-1	7.167819E-1	7.237839E-1	7.161169E-1	6.998568E-1	7.210975E-1	7.034531E-1	6.802756E-1	6.841110E-1	6.887618E-1	7.203092E-1	6.416559E-1	6.812834E-1	6.593435E-1	6.604175E-1	6.880333E-1	6.875332E-1	7.299324E-1	7.134796E-1	6.903318E-1	6.919625E-1	7.173771E-1	6.533041E-1	6.703472E-1	6.839383E-1	7.162944E-1	6.640150E-1	6.692469E-1	6.608372E-1	6.787604E-1	6.611957E-1	7.073045E-1	6.845150E-1	6.840589E-1	6.889959E-1	7.349113E-1	7.270185E-1	6.640571E-1	7.032832E-1	6.922680E-1	7.228399E-1	7.403324E-1	7.288911E-1	7.085584E-1	6.878676E-1	6.953088E-1	7.303075E-1	6.924892E-1	7.279066E-1	6.691895E-1	6.589996E-1	7.076590E-1	7.044857E-1	6.810333E-1	6.922777E-1	6.812189E-1	7.315017E-1	6.738824E-1	7.220217E-1	7.175697E-1	6.955374E-1	7.072547E-1	6.640113E-1	7.037021E-1	7.357287E-1	7.028682E-1	6.535206E-1	7.313966E-1	6.647687E-1	6.674084E-1	6.971620E-1	6.935159E-1	7.093302E-1	6.575651E-1	7.057945E-1	6.763458E-1	7.078255E-1	7.169520E-1	6.839487E-1	7.155263E-1	6.888577E-1	7.312585E-1	7.108019E-1	6.762889E-1	6.903602E-1	7.043572E-1	6.910823E-1	6.835789E-1	7.149192E-1	7.138295E-1	6.658748E-1	6.769045E-1	6.850694E-1	6.911485E-1	7.170640E-1	7.310404E-1	7.085079E-1	7.175689E-1	7.086316E-1	7.069297E-1	7.281275E-1	6.983925E-1	6.923286E-1	7.112625E-1	7.323312E-1	7.175729E-1	7.162744E-1	6.748732E-1	6.830828E-1	6.995437E-1	7.231442E-1	6.958716E-1	6.871827E-1	7.066466E-1	6.843865E-1	6.957239E-1	7.014301E-1	6.890483E-1	7.244479E-1	6.715012E-1	7.555021E-1	7.433878E-1	7.020520E-1	6.516908E-1	7.251906E-1	7.297885E-1	6.841006E-1	6.987166E-1	7.178343E-1	6.822784E-1	6.976041E-1	7.443152E-1	6.932341E-1	6.890804E-1	6.713205E-1	6.706483E-1	7.227488E-1	7.241390E-1	6.806464E-1	6.548118E-1	7.048462E-1	7.090053E-1
5.370070E+2	5.841974E-1	5.794662E-1	5.658960E-1	5.419579E-1	5.701004E-1	5.497369E-1	5.679775E-1	5.679237E-1	5.272809E-1	5.195741E-1	5.920469E-1	5.703650E-1	5.596506E-1	5.473718E-1	5.746520E-1	5.264852E-1	5.436215E-1	5.433484E-1	5.701839E-1	5.525192E-1	5.497019E-1	5.361544E-1	5.522383E-1	5.526993E-1	5.384224E-1	5.652356E-1	5.861786E-1	5.711668E-1	5.128803E-1	5.337726E-1	5.373847E-1	5.442784E-1	5.382747E-1	5.432341E-1	5.586289E-1	5.680011E-1	5.496709E-1	5.404541E-1	5.529461E-1	5.537414E-1	5.448946E-1	5.455158E-1	5.952749E-1	5.337531E-1	5.639138E-1	5.397618E-1	5.499899E-1	5.541166E-1	5.440768E-1	5.527174E-1	4.893645E-1	5.268408E-1	5.401652E-1	5.580713E-1	6.075507E-1	5.316648E-1	5.407334E-1	5.557799E-1	5.911291E-1	5.984460E-1	5.338152E-1	5.440203E-1	5.426794E-1	5.267824E-1	5.805477E-1	5.264566E-1	5.452006E-1	5.767626E-1	5.536211E-1	5.193237E-1	5.747039E-1	5.515556E-1	5.466154E-1	5.595993E-1	5.231659E-1	5.763020E-1	5.671281E-1	5.381056E-1	5.711928E-1	5.774163E-1	5.604230E-1	5.174678E-1	5.693562E-1	5.475341E-1	5.462813E-1	5.688142E-1	5.341135E-1	5.317263E-1	5.561909E-1	5.865562E-1	5.889829E-1	5.702962E-1	5.362159E-1	5.615552E-1	5.272687E-1	5.449622E-1	5.591676E-1	5.137739E-1	5.700546E-1	5.576598E-1	5.590617E-1	5.449637E-1	5.629828E-1	5.352209E-1	5.655632E-1	5.324695E-1	5.481636E-1	5.359964E-1	5.715191E-1	5.124304E-1	5.653345E-1	5.976970E-1	5.712677E-1	5.475777E-1	5.770889E-1	5.513859E-1	5.627101E-1	5.773150E-1	5.676936E-1	5.740631E-1	5.550679E-1	5.558586E-1	5.402105E-1	5.556033E-1	5.409191E-1	5.161003E-1	5.446623E-1	5.754361E-1	5.907244E-1	5.403369E-1	5.147984E-1	4.957449E-1	5.472468E-1	5.561109E-1	5.536713E-1	5.549849E-1	5.753370E-1	5.554546E-1	5.563900E-1	5.332449E-1	5.232463E-1	5.340303E-1	5.273620E-1	5.573599E-1	5.712164E-1	5.335377E-1	5.959984E-1	5.543705E-1	5.508985E-1	5.599496E-1	5.881252E-1	5.547645E-1	5.516744E-1	5.743606E-1	5.592927E-1	5.491783E-1	5.488183E-1	5.612351E-1	5.410258E-1	5.631757E-1	5.895005E-1	5.664952E-1	5.715386E-1	5.437159E-1	5.900168E-1	5.226298E-1
5.372640E+2	5.029196E-1	5.067714E-1	4.946901E-1	4.852318E-1	4.758294E-1	4.842951E-1	5.222477E-1	5.234653E-1	4.853399E-1	4.927634E-1	5.020032E-1	5.326800E-1	5.210767E-1	5.120116E-1	4.849834E-1	4.863888E-1	4.919539E-1	5.105320E-1	5.184782E-1	4.485955E-1	5.153576E-1	4.933224E-1	4.901929E-1	5.290884E-1	5.223506E-1	4.829371E-1	5.340143E-1	5.144023E-1	4.931286E-1	5.104602E-1	5.153791E-1	4.869583E-1	5.077426E-1	4.839025E-1	5.294683E-1	5.316901E-1	4.804216E-1	4.917028E-1	5.243870E-1	4.895347E-1	4.517111E-1	4.985936E-1	5.182715E-1	5.063827E-1	5.287457E-1	4.870731E-1	5.075365E-1	4.836121E-1	5.156840E-1	4.839752E-1	4.817002E-1	5.199933E-1	4.936387E-1	4.842324E-1	5.098990E-1	4.916833E-1	5.061361E-1	4.826809E-1	5.070668E-1	5.159650E-1	5.142485E-1	4.871224E-1	4.691934E-1	5.206921E-1	4.915501E-1	4.873772E-1	4.974128E-1	4.575551E-1	4.930670E-1	4.704031E-1	4.934682E-1	4.853262E-1	5.129043E-1	4.808209E-1	5.124693E-1	5.157523E-1	5.124204E-1	4.993504E-1	5.146386E-1	4.923087E-1	5.129353E-1	5.339280E-1	5.267941E-1	5.487125E-1	4.655347E-1	5.057278E-1	5.020630E-1	4.978492E-1	5.035013E-1	5.106626E-1	4.924965E-1	4.981720E-1	5.239906E-1	5.288843E-1	5.050570E-1	4.618180E-1	4.956156E-1	5.049632E-1	5.128845E-1	5.316116E-1	5.066567E-1	4.973668E-1	5.123003E-1	5.324941E-1	4.849838E-1	5.171945E-1	4.973102E-1	4.665546E-1	4.837408E-1	4.955982E-1	5.185382E-1	5.208926E-1	4.793287E-1	5.080919E-1	5.134906E-1	5.182394E-1	4.848127E-1	5.169367E-1	4.946452E-1	5.022457E-1	5.017837E-1	5.118838E-1	5.263541E-1	4.828489E-1	4.882493E-1	4.822613E-1	5.235590E-1	4.998171E-1	5.045179E-1	5.037333E-1	4.884007E-1	4.896106E-1	4.845004E-1	4.872299E-1	4.723300E-1	5.337761E-1	4.767534E-1	4.750177E-1	5.234622E-1	5.151350E-1	5.237597E-1	4.930651E-1	5.091874E-1	5.152216E-1	5.107528E-1	5.024128E-1	5.108394E-1	5.185267E-1	5.321738E-1	5.109603E-1	5.216858E-1	5.172864E-1	4.969740E-1	5.141887E-1	5.286004E-1	4.674470E-1	4.945119E-1	5.012005E-1	5.246050E-1	4.811603E-1	4.990980E-1	5.312087E-1	4.889240E-1	4.915778E-1	4.658171E-1	4.837055E-1
5.375060E+2	4.916359E-1	4.690471E-1	4.752427E-1	4.879846E-1	4.613400E-1	4.727871E-1	5.064512E-1	4.826200E-1	4.674988E-1	4.848246E-1	5.261461E-1	4.662634E-1	4.751951E-1	4.525439E-1	4.843022E-1	4.891323E-1	5.148928E-1	4.392488E-1	5.350115E-1	5.174932E-1	5.084681E-1	4.801344E-1	4.745936E-1	4.797468E-1	4.917317E-1	4.791172E-1	5.029743E-1	4.857331E-1	4.314588E-1	5.014041E-1	4.736364E-1	4.647612E-1	5.167161E-1	5.023283E-1	4.890151E-1	4.465850E-1	4.676853E-1	4.799826E-1	5.037121E-1	4.946478E-1	4.385760E-1	4.963086E-1	5.286900E-1	4.833770E-1	5.099410E-1	4.799616E-1	4.647457E-1	5.034889E-1	5.105853E-1	5.140939E-1	4.874272E-1	4.713555E-1	5.015177E-1	4.702459E-1	4.998408E-1	4.854130E-1	4.806599E-1	4.736469E-1	4.943488E-1	4.668383E-1	4.579997E-1	4.913336E-1	4.900409E-1	4.767197E-1	5.134129E-1	5.056002E-1	4.851155E-1	4.800571E-1	4.701124E-1	4.957464E-1	5.268509E-1	4.898525E-1	4.692728E-1	4.827485E-1	4.565550E-1	4.519426E-1	5.106583E-1	5.025563E-1	4.830439E-1	5.262612E-1	4.475337E-1	4.825253E-1	5.012296E-1	5.104733E-1	4.613045E-1	4.776962E-1	4.734842E-1	5.195764E-1	4.903507E-1	4.687321E-1	5.132535E-1	5.050669E-1	5.070586E-1	4.865764E-1	4.730832E-1	5.035623E-1	4.835054E-1	5.214569E-1	4.985845E-1	4.645073E-1	4.856409E-1	5.143629E-1	4.710023E-1	4.836636E-1	4.856357E-1	4.878876E-1	4.993444E-1	5.056994E-1	5.167576E-1	4.488458E-1	4.773643E-1	5.014954E-1	5.171070E-1	4.872829E-1	5.085341E-1	4.660198E-1	5.124570E-1	4.776916E-1	5.232796E-1	4.756543E-1	4.709326E-1	5.111814E-1	4.783811E-1	5.017419E-1	4.942922E-1	4.574882E-1	4.849740E-1	4.842146E-1	4.991367E-1	4.604901E-1	5.245500E-1	4.968583E-1	4.906356E-1	4.852871E-1	4.671435E-1	4.821690E-1	4.856895E-1	4.849901E-1	4.605706E-1	4.999173E-1	4.805549E-1	4.936586E-1	5.163932E-1	4.909731E-1	4.806437E-1	5.081679E-1	5.081531E-1	4.516269E-1	5.043109E-1	4.860864E-1	5.099458E-1	4.696350E-1	4.906180E-1	5.147055E-1	5.073446E-1	4.795249E-1	4.905512E-1	5.027564E-1	5.082715E-1	4.811152E-1	4.882667E-1	4.655165E-1	4.673251E-1	4.687777E-1	4.580504E-1	4.363230E-1
5.377740E+2	5.572093E-1	5.407612E-1	5.577586E-1	5.438885E-1	5.426013E-1	5.118547E-1	5.522897E-1	5.535629E-1	5.093274E-1	5.247787E-1	5.454939E-1	4.977216E-1	5.656091E-1	5.229690E-1	5.179063E-1	5.044129E-1	5.436409E-1	5.272790E-1	5.308769E-1	5.112521E-1	5.516565E-1	5.310719E-1	5.343187E-1	5.184992E-1	5.156824E-1	5.307031E-1	5.772884E-1	5.354556E-1	5.329676E-1	5.967929E-1	5.291014E-1	5.437302E-1	5.410174E-1	5.255881E-1	5.370727E-1	5.583122E-1	5.321246E-1	5.383574E-1	5.558559E-1	5.687868E-1	5.326767E-1	5.639873E-1	5.650401E-1	5.574913E-1	5.298230E-1	5.426635E-1	5.321062E-1	5.256808E-1	5.335987E-1	5.712260E-1	5.047663E-1	5.337041E-1	5.326024E-1	5.297518E-1	5.591537E-1	5.403718E-1	5.416763E-1	5.542557E-1	5.304875E-1	5.198092E-1	5.572378E-1	5.404098E-1	5.490836E-1	5.472295E-1	5.226378E-1	5.450256E-1	5.431187E-1	5.774139E-1	5.070314E-1	5.311252E-1	6.008327E-1	5.430261E-1	5.532282E-1	5.296951E-1	5.349628E-1	5.602286E-1	5.482448E-1	5.129867E-1	5.447713E-1	5.299153E-1	5.417208E-1	5.536466E-1	5.281079E-1	5.450225E-1	5.320105E-1	5.581507E-1	5.295331E-1	5.621488E-1	5.612049E-1	5.685112E-1	5.497566E-1	5.854360E-1	4.946385E-1	5.456265E-1	5.610337E-1	5.422060E-1	5.709193E-1	5.974447E-1	5.396373E-1	5.302876E-1	5.497143E-1	5.355527E-1	5.513796E-1	5.915237E-1	5.351244E-1	5.311684E-1	5.349991E-1	5.491185E-1	5.405466E-1	5.294851E-1	5.870241E-1	5.904016E-1	5.634369E-1	5.452574E-1	5.152588E-1	5.508847E-1	5.692664E-1	4.922108E-1	5.397604E-1	5.666723E-1	5.509902E-1	5.599540E-1	5.301798E-1	5.219313E-1	5.328188E-1	5.505771E-1	5.343749E-1	5.761959E-1	5.372230E-1	5.790970E-1	5.230760E-1	5.590546E-1	5.136022E-1	5.196031E-1	5.654971E-1	5.848555E-1	5.978627E-1	5.375126E-1	5.154409E-1	5.307881E-1	5.423577E-1	5.513928E-1	5.730321E-1	5.271553E-1	5.519178E-1	5.776571E-1	5.199649E-1	5.369982E-1	5.547146E-1	5.479889E-1	5.372058E-1	5.671409E-1	5.285380E-1	5.186995E-1	5.599639E-1	5.592647E-1	4.997283E-1	5.383494E-1	5.553304E-1	5.510872E-1	5.713183E-1	5.269737E-1	5.747020E-1	5.305020E-1	5.418919E-1	5.322421E-1
5.380160E+2	5.990174E-1	5.655708E-1	5.885988E-1	5.854682E-1	5.780270E-1	5.707983E-1	5.972768E-1	5.370698E-1	5.866153E-1	5.756258E-1	5.929201E-1	6.180612E-1	5.767804E-1	6.152602E-1	6.107621E-1	5.928699E-1	6.037830E-1	5.765454E-1	5.797092E-1	5.884305E-1	5.722746E-1	5.691540E-1	5.982968E-1	6.137632E-1	5.750075E-1	6.056145E-1	5.845251E-1	5.921121E-1	5.488217E-1	5.784291E-1	5.891990E-1	5.560880E-1	5.806138E-1	5.988416E-1	5.951459E-1	5.733312E-1	5.297033E-1	5.776441E-1	5.877350E-1	5.716759E-1	5.730440E-1	5.950841E-1	6.066598E-1	6.079852E-1	5.776653E-1	6.121931E-1	5.597900E-1	5.601239E-1	5.567999E-1	6.225306E-1	5.758965E-1	6.053007E-1	5.514072E-1	5.912173E-1	5.899993E-1	5.746193E-1	5.804031E-1	5.812789E-1	6.128000E-1	6.080418E-1	6.000799E-1	5.661488E-1	6.225965E-1	5.934031E-1	6.150107E-1	5.945938E-1	6.045197E-1	5.616708E-1	5.613870E-1	6.050451E-1	5.587251E-1	5.622562E-1	5.625316E-1	6.240169E-1	5.999408E-1	5.872052E-1	5.739454E-1	5.968310E-1	5.970983E-1	5.399090E-1	5.998677E-1	6.013245E-1	6.199831E-1	5.572789E-1	5.676804E-1	5.690012E-1	6.215699E-1	6.058307E-1	5.897213E-1	6.441665E-1	6.230440E-1	5.767466E-1	5.881918E-1	6.055814E-1	5.777460E-1	5.811389E-1	5.952384E-1	5.861121E-1	5.888797E-1	5.930315E-1	6.069141E-1	5.929780E-1	5.721029E-1	6.037814E-1	5.898750E-1	5.810877E-1	5.858467E-1	6.017449E-1	6.027584E-1	6.018259E-1	6.046571E-1	5.734097E-1	5.808143E-1	5.994684E-1	6.074010E-1	6.213464E-1	6.226460E-1	5.938563E-1	6.052192E-1	5.967071E-1	6.210273E-1	5.658549E-1	5.821126E-1	5.730092E-1	5.912211E-1	5.890079E-1	5.854851E-1	5.810137E-1	6.063269E-1	6.022979E-1	5.861588E-1	6.000136E-1	5.734833E-1	5.799854E-1	5.720356E-1	6.193662E-1	5.783963E-1	5.849073E-1	5.757080E-1	5.929264E-1	6.016876E-1	5.885765E-1	5.572385E-1	5.945414E-1	5.929013E-1	5.922128E-1	5.624025E-1	5.786669E-1	5.719137E-1	6.067207E-1	5.859306E-1	6.056687E-1	6.094994E-1	6.338296E-1	5.549087E-1	5.800635E-1	5.880322E-1	6.017147E-1	6.033528E-1	5.728384E-1	6.131641E-1	5.768665E-1	6.003946E-1	5.803582E-1	5.735152E-1	5.918839E-1
5.382850E+2	7.220932E-1	7.194316E-1	7.381888E-1	6.690029E-1	6.999773E-1	6.896623E-1	7.617607E-1	6.949532E-1	7.201130E-1	7.262512E-1	7.254185E-1	6.717689E-1	7.075004E-1	6.777357E-1	6.839598E-1	7.288861E-1	7.168370E-1	6.897780E-1	7.055854E-1	6.847533E-1	6.925621E-1	6.434589E-1	6.698120E-1	7.013955E-1	6.914172E-1	7.063519E-1	7.367924E-1	6.388646E-1	7.018847E-1	6.944116E-1	6.954743E-1	6.801109E-1	7.158227E-1	6.972964E-1	7.022059E-1	6.731441E-1	6.761013E-1	6.623812E-1	7.567437E-1	7.183700E-1	6.823365E-1	6.949073E-1	7.434152E-1	6.660544E-1	7.424471E-1	6.838136E-1	6.784870E-1	6.823088E-1	7.173225E-1	7.098916E-1	6.413368E-1	6.506524E-1	6.770797E-1	7.101786E-1	7.286478E-1	7.248295E-1	7.148395E-1	7.196206E-1	7.462105E-1	7.026291E-1	6.864733E-1	7.245148E-1	6.678626E-1	6.982717E-1	6.861347E-1	7.105718E-1	7.041997E-1	7.431619E-1	6.934686E-1	7.464189E-1	6.666166E-1	6.900101E-1	6.970537E-1	7.142830E-1	7.112710E-1	7.322195E-1	7.386956E-1	7.234564E-1	7.045226E-1	7.015642E-1	7.191035E-1	7.560720E-1	7.140009E-1	6.828632E-1	6.960484E-1	6.880608E-1	6.756874E-1	7.080202E-1	7.307099E-1	6.823648E-1	6.901771E-1	7.426888E-1	6.791990E-1	6.984709E-1	7.189514E-1	6.832475E-1	6.826935E-1	6.777505E-1	7.014450E-1	7.026842E-1	7.217967E-1	6.940840E-1	6.934617E-1	6.968952E-1	7.245291E-1	7.136765E-1	7.331621E-1	6.662052E-1	7.020734E-1	6.964668E-1	7.132758E-1	7.264277E-1	7.039237E-1	7.054257E-1	6.902086E-1	7.280511E-1	6.896626E-1	6.785733E-1	7.083179E-1	7.242057E-1	6.606875E-1	7.081815E-1	7.185861E-1	7.519678E-1	7.092083E-1	7.060428E-1	6.886103E-1	6.880902E-1	6.757720E-1	6.900394E-1	6.973565E-1	7.158477E-1	6.710223E-1	7.107477E-1	7.241425E-1	7.134071E-1	7.087791E-1	6.855060E-1	7.140454E-1	6.732824E-1	7.341860E-1	7.453530E-1	6.843987E-1	6.889657E-1	7.340573E-1	6.704545E-1	7.062640E-1	6.746498E-1	7.018972E-1	7.058557E-1	7.048493E-1	6.822897E-1	7.155232E-1	7.386544E-1	7.375460E-1	6.821056E-1	7.363272E-1	7.399241E-1	7.061719E-1	6.916018E-1	7.128420E-1	7.036771E-1	7.372017E-1	6.534056E-1	6.540680E-1	6.782100E-1
5.385110E+2	8.373593E-1	8.237080E-1	8.756275E-1	8.104241E-1	8.601244E-1	8.098280E-1	8.218854E-1	8.561936E-1	8.051900E-1	8.098228E-1	8.661148E-1	7.912441E-1	8.481734E-1	8.590834E-1	8.233242E-1	7.869623E-1	8.525104E-1	8.449782E-1	8.103662E-1	8.561135E-1	8.268319E-1	8.255748E-1	8.403730E-1	8.271924E-1	8.259894E-1	8.465669E-1	8.032421E-1	8.454262E-1	7.974027E-1	8.491639E-1	8.071930E-1	7.936014E-1	8.064362E-1	7.811200E-1	7.772956E-1	8.399390E-1	8.198889E-1	8.391885E-1	8.123984E-1	8.566469E-1	7.619070E-1	8.131311E-1	8.613090E-1	8.834616E-1	7.901555E-1	8.576523E-1	8.125280E-1	7.733096E-1	8.243602E-1	8.345634E-1	8.275147E-1	7.743511E-1	8.379030E-1	8.329199E-1	8.299405E-1	8.231416E-1	9.167978E-1	8.016008E-1	8.275002E-1	8.314780E-1	8.584016E-1	8.012380E-1	7.854812E-1	8.095955E-1	8.532332E-1	8.956448E-1	7.897944E-1	8.157907E-1	7.696645E-1	8.247994E-1	8.378355E-1	8.280539E-1	8.226964E-1	8.135076E-1	7.915509E-1	8.629697E-1	8.783756E-1	8.480314E-1	8.138100E-1	8.031475E-1	8.133079E-1	8.240934E-1	7.995517E-1	8.373019E-1	8.331641E-1	8.516130E-1	8.241179E-1	8.279053E-1	8.078947E-1	8.465428E-1	7.811870E-1	8.207404E-1	8.068606E-1	8.421929E-1	8.985067E-1	8.120559E-1	7.988658E-1	8.199102E-1	8.818202E-1	7.850855E-1	8.237713E-1	8.057584E-1	8.370776E-1	8.663682E-1	8.023611E-1	8.252979E-1	8.256498E-1	8.159917E-1	8.237636E-1	8.351745E-1	8.150461E-1	8.047449E-1	7.932583E-1	8.285599E-1	7.961741E-1	7.902018E-1	8.261739E-1	7.740582E-1	8.403475E-1	8.430166E-1	8.325542E-1	8.284284E-1	8.152845E-1	8.284868E-1	8.403970E-1	7.828128E-1	8.333942E-1	8.722103E-1	8.698395E-1	8.180665E-1	8.417076E-1	8.297269E-1	7.926186E-1	8.317294E-1	8.252643E-1	8.580996E-1	8.837183E-1	8.613185E-1	8.200390E-1	7.719022E-1	8.501216E-1	8.110535E-1	8.618696E-1	8.344567E-1	7.955983E-1	8.581870E-1	8.398965E-1	8.221531E-1	8.531528E-1	8.014171E-1	8.381647E-1	8.239044E-1	8.483589E-1	7.836702E-1	8.288620E-1	8.259638E-1	7.898901E-1	8.265225E-1	7.775125E-1	8.095021E-1	8.013311E-1	8.333724E-1	8.325288E-1	8.228125E-1	8.989373E-1	7.576949E-1
5.387600E+2	9.827934E-1	1.006083E+0	9.783202E-1	9.666283E-1	9.974191E-1	9.829831E-1	9.940333E-1	1.023073E+0	9.781011E-1	9.584174E-1	9.611214E-1	1.021971E+0	9.644471E-1	1.003507E+0	9.537268E-1	9.770316E-1	1.031983E+0	9.593369E-1	9.872483E-1	9.988287E-1	9.539143E-1	9.251578E-1	9.865731E-1	1.035974E+0	1.005761E+0	9.836591E-1	9.734019E-1	1.028166E+0	9.518435E-1	1.009471E+0	9.790545E-1	9.624639E-1	9.910921E-1	9.572629E-1	9.561883E-1	9.931253E-1	9.957147E-1	1.005567E+0	1.030128E+0	9.966533E-1	9.604648E-1	1.004524E+0	1.002460E+0	9.820633E-1	1.015696E+0	1.011367E+0	9.170418E-1	9.947055E-1	9.781627E-1	9.584362E-1	9.827884E-1	9.531347E-1	9.812548E-1	1.014932E+0	9.789805E-1	9.976946E-1	9.984081E-1	9.708697E-1	9.779434E-1	9.858993E-1	9.637401E-1	1.005182E+0	9.618077E-1	9.436942E-1	9.617231E-1	1.029588E+0	1.011600E+0	9.830403E-1	9.340066E-1	9.523597E-1	9.498555E-1	9.573574E-1	9.701666E-1	9.845452E-1	9.466106E-1	9.730368E-1	9.868763E-1	9.716404E-1	9.908403E-1	9.592446E-1	9.644814E-1	1.003080E+0	1.001032E+0	1.046976E+0	9.705257E-1	9.761687E-1	9.371512E-1	9.568935E-1	9.198380E-1	9.668213E-1	9.871531E-1	1.004711E+0	8.959810E-1	1.000401E+0	9.789238E-1	9.805042E-1	9.934165E-1	9.611611E-1	9.913873E-1	9.876839E-1	9.859984E-1	9.676987E-1	9.830594E-1	9.750606E-1	1.004809E+0	1.016421E+0	9.943680E-1	9.759180E-1	1.002568E+0	1.050369E+0	1.018364E+0	9.900595E-1	9.837503E-1	9.747971E-1	9.692643E-1	1.003251E+0	9.874050E-1	9.752965E-1	9.583552E-1	9.490143E-1	9.674684E-1	9.794958E-1	9.955765E-1	9.693978E-1	9.824627E-1	1.007045E+0	9.592932E-1	1.014456E+0	1.009520E+0	9.960392E-1	9.986600E-1	9.552477E-1	1.001213E+0	9.646108E-1	9.525894E-1	9.712776E-1	9.702947E-1	1.005136E+0	9.673702E-1	9.838279E-1	9.774491E-1	9.597440E-1	1.000730E+0	9.522483E-1	1.001280E+0	9.258420E-1	9.940513E-1	9.517935E-1	9.921149E-1	9.274471E-1	1.022463E+0	1.006703E+0	1.026525E+0	9.493712E-1	9.654280E-1	9.412836E-1	9.814307E-1	1.027682E+0	1.009039E+0	9.710599E-1	9.773441E-1	1.041982E+0	1.017139E+0	9.846236E-1	9.864140E-1	9.432938E-1
5.390240E+2	1.233384E+0	1.161862E+0	1.163514E+0	1.163979E+0	1.179581E+0	1.205076E+0	1.163836E+0	1.194111E+0	1.196091E+0	1.182322E+0	1.101027E+0	1.201380E+0	1.192456E+0	1.195064E+0	1.159160E+0	1.162626E+0	1.243953E+0	1.154148E+0	1.189178E+0	1.180240E+0	1.160497E+0	1.145713E+0	1.172442E+0	1.204493E+0	1.212609E+0	1.228427E+0	1.192958E+0	1.202569E+0	1.166132E+0	1.189415E+0	1.146793E+0	1.167252E+0	1.221120E+0	1.159082E+0	1.156735E+0	1.167316E+0	1.190418E+0	1.163728E+0	1.149474E+0	1.210969E+0	1.194577E+0	1.171513E+0	1.202532E+0	1.217427E+0	1.198458E+0	1.197797E+0	1.107710E+0	1.191858E+0	1.201734E+0	1.195079E+0	1.161143E+0	1.222474E+0	1.210790E+0	1.173177E+0	1.208815E+0	1.203320E+0	1.190753E+0	1.201207E+0	1.218200E+0	1.168952E+0	1.195401E+0	1.140900E+0	1.106477E+0	1.227557E+0	1.264129E+0	1.160641E+0	1.228828E+0	1.180460E+0	1.122953E+0	1.213645E+0	1.177034E+0	1.194929E+0	1.162674E+0	1.203381E+0	1.161987E+0	1.182242E+0	1.191647E+0	1.174570E+0	1.176655E+0	1.201741E+0	1.187849E+0	1.202389E+0	1.161580E+0	1.238287E+0	1.134596E+0	1.213526E+0	1.216479E+0	1.200192E+0	1.190536E+0	1.198934E+0	1.211220E+0	1.229087E+0	1.194719E+0	1.144499E+0	1.196702E+0	1.221469E+0	1.195979E+0	1.149797E+0	1.193425E+0	1.184595E+0	1.157652E+0	1.204626E+0	1.198278E+0	1.212487E+0	1.243956E+0	1.209937E+0	1.150889E+0	1.127944E+0	1.201938E+0	1.173215E+0	1.195430E+0	1.193832E+0	1.184314E+0	1.202121E+0	1.190468E+0	1.210448E+0	1.133227E+0	1.161927E+0	1.181873E+0	1.186214E+0	1.159394E+0	1.220585E+0	1.156601E+0	1.144762E+0	1.207615E+0	1.152289E+0	1.193498E+0	1.173047E+0	1.149848E+0	1.144611E+0	1.186410E+0	1.159954E+0	1.147982E+0	1.131928E+0	1.186272E+0	1.155767E+0	1.177588E+0	1.149673E+0	1.163768E+0	1.190401E+0	1.192743E+0	1.164854E+0	1.173952E+0	1.164910E+0	1.179710E+0	1.171767E+0	1.211783E+0	1.125610E+0	1.165702E+0	1.144630E+0	1.220108E+0	1.184380E+0	1.220356E+0	1.159835E+0	1.140155E+0	1.149331E+0	1.221606E+0	1.192658E+0	1.151460E+0	1.212684E+0	1.141269E+0	1.264760E+0	1.211090E+0	1.189738E+0	1.096546E+0	1.228971E+0
5.392670E+2	1.443421E+0	1.358469E+0	1.388361E+0	1.363594E+0	1.378035E+0	1.294968E+0	1.351034E+0	1.415127E+0	1.423405E+0	1.363867E+0	1.350975E+0	1.387149E+0	1.380412E+0	1.392680E+0	1.327188E+0	1.336899E+0	1.436531E+0	1.315096E+0	1.398854E+0	1.343996E+0	1.345882E+0	1.340649E+0	1.325098E+0	1.339679E+0	1.388063E+0	1.396309E+0	1.386268E+0	1.374490E+0	1.346790E+0	1.356459E+0	1.340270E+0	1.357845E+0	1.422414E+0	1.342152E+0	1.312626E+0	1.378627E+0	1.378350E+0	1.369163E+0	1.339675E+0	1.384804E+0	1.321158E+0	1.356812E+0	1.375009E+0	1.354604E+0	1.372542E+0	1.384914E+0	1.326463E+0	1.359699E+0	1.350242E+0	1.392942E+0	1.331316E+0	1.354855E+0	1.356060E+0	1.402713E+0	1.363562E+0	1.373442E+0	1.319685E+0	1.321996E+0	1.413417E+0	1.370671E+0	1.378710E+0	1.309407E+0	1.282804E+0	1.375156E+0	1.379015E+0	1.339669E+0	1.389674E+0	1.398738E+0	1.343942E+0	1.394117E+0	1.353424E+0	1.417510E+0	1.397478E+0	1.293240E+0	1.336315E+0	1.379262E+0	1.411539E+0	1.390523E+0	1.353689E+0	1.370917E+0	1.326246E+0	1.341910E+0	1.327731E+0	1.354095E+0	1.294396E+0	1.333307E+0	1.337675E+0	1.347133E+0	1.324712E+0	1.378506E+0	1.401022E+0	1.372355E+0	1.334725E+0	1.328629E+0	1.398587E+0	1.347888E+0	1.362662E+0	1.352693E+0	1.342916E+0	1.255979E+0	1.328225E+0	1.315947E+0	1.375160E+0	1.358653E+0	1.359589E+0	1.407238E+0	1.401095E+0	1.320830E+0	1.300444E+0	1.350897E+0	1.361025E+0	1.383750E+0	1.387148E+0	1.369852E+0	1.312501E+0	1.365961E+0	1.324287E+0	1.388819E+0	1.335043E+0	1.379282E+0	1.336163E+0	1.311028E+0	1.371228E+0	1.366880E+0	1.380035E+0	1.316767E+0	1.407227E+0	1.331394E+0	1.430782E+0	1.360873E+0	1.372540E+0	1.305341E+0	1.360305E+0	1.364135E+0	1.313444E+0	1.337372E+0	1.334516E+0	1.344930E+0	1.343342E+0	1.351782E+0	1.401119E+0	1.338958E+0	1.344773E+0	1.278321E+0	1.421439E+0	1.448589E+0	1.380754E+0	1.343086E+0	1.369037E+0	1.356466E+0	1.392178E+0	1.357023E+0	1.371175E+0	1.355540E+0	1.347252E+0	1.372107E+0	1.381754E+0	1.359962E+0	1.360766E+0	1.359932E+0	1.305486E+0	1.374935E+0	1.303669E+0	1.255637E+0	1.250281E+0	1.324070E+0
5.395160E+2	1.672366E+0	1.602216E+0	1.591545E+0	1.542351E+0	1.543104E+0	1.575097E+0	1.542874E+0	1.520196E+0	1.551447E+0	1.524323E+0	1.501890E+0	1.526974E+0	1.654161E+0	1.556472E+0	1.523768E+0	1.563005E+0	1.607896E+0	1.526331E+0	1.580781E+0	1.531030E+0	1.567347E+0	1.552982E+0	1.549141E+0	1.558719E+0	1.560759E+0	1.622951E+0	1.560989E+0	1.538899E+0	1.537503E+0	1.648732E+0	1.611579E+0	1.572071E+0	1.535201E+0	1.489605E+0	1.570881E+0	1.578214E+0	1.607334E+0	1.567832E+0	1.547569E+0	1.599737E+0	1.559753E+0	1.644082E+0	1.600939E+0	1.493049E+0	1.590793E+0	1.652680E+0	1.536693E+0	1.513362E+0	1.586634E+0	1.608908E+0	1.583073E+0	1.514313E+0	1.578519E+0	1.640714E+0	1.572749E+0	1.586041E+0	1.594687E+0	1.565962E+0	1.599398E+0	1.587504E+0	1.667764E+0	1.551536E+0	1.531241E+0	1.569067E+0	1.517886E+0	1.599838E+0	1.563056E+0	1.521812E+0	1.538320E+0	1.591543E+0	1.600513E+0	1.523445E+0	1.579558E+0	1.565324E+0	1.508202E+0	1.588420E+0	1.502928E+0	1.560731E+0	1.521043E+0	1.591817E+0	1.497193E+0	1.580251E+0	1.540367E+0	1.530838E+0	1.488600E+0	1.561182E+0	1.543749E+0	1.511798E+0	1.560389E+0	1.553171E+0	1.531693E+0	1.563938E+0	1.512138E+0	1.504940E+0	1.549035E+0	1.584487E+0	1.543003E+0	1.537849E+0	1.581689E+0	1.511549E+0	1.494022E+0	1.527092E+0	1.504805E+0	1.534253E+0	1.539343E+0	1.551039E+0	1.512654E+0	1.516983E+0	1.519811E+0	1.516731E+0	1.538106E+0	1.544279E+0	1.583025E+0	1.491828E+0	1.484207E+0	1.518553E+0	1.527262E+0	1.491255E+0	1.481711E+0	1.521843E+0	1.571214E+0	1.580905E+0	1.512103E+0	1.542735E+0	1.496530E+0	1.511005E+0	1.548042E+0	1.562393E+0	1.564433E+0	1.556996E+0	1.525311E+0	1.509112E+0	1.558338E+0	1.569910E+0	1.560011E+0	1.528579E+0	1.515008E+0	1.598329E+0	1.502672E+0	1.476025E+0	1.517615E+0	1.539588E+0	1.484141E+0	1.486024E+0	1.508878E+0	1.545881E+0	1.537295E+0	1.511244E+0	1.582784E+0	1.546691E+0	1.529310E+0	1.524427E+0	1.531497E+0	1.559733E+0	1.552968E+0	1.504919E+0	1.502315E+0	1.568655E+0	1.548651E+0	1.528691E+0	1.513083E+0	1.512394E+0	1.484043E+0	1.492935E+0	1.448610E+0	1.465892E+0
5.397700E+2	1.927736E+0	1.875027E+0	1.819389E+0	1.890377E+0	1.766071E+0	1.823980E+0	1.776710E+0	1.834652E+0	1.750753E+0	1.828381E+0	1.831624E+0	1.786862E+0	1.859544E+0	1.812681E+0	1.844987E+0	1.793269E+0	1.835332E+0	1.823760E+0	1.845407E+0	1.899951E+0	1.849020E+0	1.749557E+0	1.870386E+0	1.835320E+0	1.807235E+0	1.837217E+0	1.838903E+0	1.862169E+0	1.814794E+0	1.858387E+0	1.820767E+0	1.829362E+0	1.778085E+0	1.794659E+0	1.805741E+0	1.845927E+0	1.796754E+0	1.820701E+0	1.839135E+0	1.846896E+0	1.753426E+0	1.854337E+0	1.919904E+0	1.823591E+0	1.846741E+0	1.857992E+0	1.785933E+0	1.810624E+0	1.872174E+0	1.869740E+0	1.785577E+0	1.756864E+0	1.862388E+0	1.809835E+0	1.819235E+0	1.846897E+0	1.871209E+0	1.845990E+0	1.839435E+0	1.802148E+0	1.846985E+0	1.851798E+0	1.765944E+0	1.829243E+0	1.915156E+0	1.819372E+0	1.801324E+0	1.806837E+0	1.748787E+0	1.822907E+0	1.806565E+0	1.826307E+0	1.821112E+0	1.844577E+0	1.741517E+0	1.867604E+0	1.827509E+0	1.865210E+0	1.759374E+0	1.758172E+0	1.847913E+0	1.729474E+0	1.905213E+0	1.798305E+0	1.733314E+0	1.844991E+0	1.807298E+0	1.799886E+0	1.838212E+0	1.772415E+0	1.711163E+0	1.864284E+0	1.765027E+0	1.819647E+0	1.785831E+0	1.765819E+0	1.814578E+0	1.769043E+0	1.834847E+0	1.833464E+0	1.779355E+0	1.703088E+0	1.737598E+0	1.849829E+0	1.824026E+0	1.814531E+0	1.824233E+0	1.787608E+0	1.792027E+0	1.842960E+0	1.729890E+0	1.840088E+0	1.854732E+0	1.727938E+0	1.742879E+0	1.768483E+0	1.789149E+0	1.743100E+0	1.783069E+0	1.836352E+0	1.794887E+0	1.894855E+0	1.760867E+0	1.793918E+0	1.731470E+0	1.775288E+0	1.811009E+0	1.788609E+0	1.780249E+0	1.836126E+0	1.796336E+0	1.732828E+0	1.826857E+0	1.769924E+0	1.775067E+0	1.783499E+0	1.718369E+0	1.760646E+0	1.716732E+0	1.803908E+0	1.782105E+0	1.853509E+0	1.759593E+0	1.719238E+0	1.769471E+0	1.686714E+0	1.777802E+0	1.744671E+0	1.792622E+0	1.695079E+0	1.834646E+0	1.768524E+0	1.807332E+0	1.751491E+0	1.824303E+0	1.704660E+0	1.863113E+0	1.809423E+0	1.774714E+0	1.747406E+0	1.811715E+0	1.778690E+0	1.683489E+0	1.776648E+0	1.685132E+0	1.742074E+0
5.400190E+2	1.994610E+0	1.881370E+0	1.817471E+0	1.890493E+0	1.842340E+0	1.893112E+0	1.833889E+0	1.935283E+0	1.865808E+0	1.783269E+0	1.868984E+0	1.838297E+0	1.884802E+0	1.842214E+0	1.877659E+0	1.838049E+0	1.941006E+0	1.838194E+0	1.826805E+0	1.832662E+0	1.814739E+0	1.839667E+0	1.821400E+0	1.972968E+0	1.919933E+0	1.877104E+0	1.857876E+0	1.836586E+0	1.759853E+0	1.858300E+0	1.862290E+0	1.846000E+0	1.891363E+0	1.844844E+0	1.820334E+0	1.871172E+0	1.829128E+0	1.874878E+0	1.868755E+0	1.874838E+0	1.851478E+0	1.865241E+0	1.893282E+0	1.951690E+0	1.886802E+0	1.865346E+0	1.806246E+0	1.807172E+0	1.848714E+0	1.843240E+0	1.819415E+0	1.818399E+0	1.919443E+0	1.846218E+0	1.823264E+0	1.820843E+0	1.870962E+0	1.868624E+0	1.862682E+0	1.896750E+0	1.854281E+0	1.823551E+0	1.786430E+0	1.850469E+0	1.790559E+0	1.883476E+0	1.838753E+0	1.842670E+0	1.836823E+0	1.806177E+0	1.866562E+0	1.834283E+0	1.786806E+0	1.752778E+0	1.793879E+0	1.885464E+0	1.801159E+0	1.873807E+0	1.792525E+0	1.828093E+0	1.815571E+0	1.854849E+0	1.864561E+0	1.794310E+0	1.785906E+0	1.774715E+0	1.818128E+0	1.892164E+0	1.831442E+0	1.831105E+0	1.810917E+0	1.870303E+0	1.792051E+0	1.823819E+0	1.791529E+0	1.741875E+0	1.817005E+0	1.819173E+0	1.812868E+0	1.827265E+0	1.791806E+0	1.802504E+0	1.807568E+0	1.868624E+0	1.868535E+0	1.867894E+0	1.739657E+0	1.794735E+0	1.837344E+0	1.797259E+0	1.782598E+0	1.822293E+0	1.823438E+0	1.768851E+0	1.784980E+0	1.793645E+0	1.803100E+0	1.835375E+0	1.814602E+0	1.763802E+0	1.813179E+0	1.864151E+0	1.752711E+0	1.749151E+0	1.809675E+0	1.867926E+0	1.829806E+0	1.788571E+0	1.876514E+0	1.821205E+0	1.829030E+0	1.791884E+0	1.830274E+0	1.786404E+0	1.762559E+0	1.866525E+0	1.796894E+0	1.834747E+0	1.825245E+0	1.738890E+0	1.812267E+0	1.845836E+0	1.754651E+0	1.819250E+0	1.850789E+0	1.794001E+0	1.791802E+0	1.765957E+0	1.826663E+0	1.757022E+0	1.921290E+0	1.731588E+0	1.805296E+0	1.780384E+0	1.804346E+0	1.813965E+0	1.822996E+0	1.835778E+0	1.764317E+0	1.772515E+0	1.824823E+0	1.730600E+0	1.877690E+0	1.731940E+0	1.778651E+0	1.701236E+0
5.402530E+2	2.026149E+0	1.999918E+0	1.899348E+0	1.997830E+0	1.927956E+0	2.021454E+0	1.982201E+0	1.999592E+0	1.928731E+0	1.971763E+0	1.994221E+0	1.989866E+0	2.064061E+0	1.981315E+0	1.940632E+0	1.987491E+0	2.059192E+0	1.907998E+0	2.001927E+0	1.975033E+0	1.973076E+0	1.901189E+0	1.976084E+0	1.975973E+0	1.963666E+0	1.974138E+0	1.888286E+0	2.008036E+0	1.930478E+0	1.972514E+0	1.916991E+0	1.918775E+0	2.017896E+0	1.950773E+0	1.955859E+0	1.954381E+0	1.974277E+0	1.962912E+0	1.903589E+0	2.022519E+0	1.962669E+0	2.011038E+0	1.972363E+0	2.025687E+0	1.927268E+0	1.958411E+0	1.878995E+0	1.913671E+0	1.963321E+0	2.008008E+0	1.924693E+0	1.894087E+0	1.950642E+0	2.031415E+0	1.933131E+0	1.999796E+0	1.995352E+0	1.957371E+0	1.988625E+0	1.984047E+0	2.012096E+0	1.924200E+0	1.937581E+0	1.906866E+0	2.008337E+0	1.876401E+0	1.899464E+0	2.017069E+0	1.940081E+0	1.953124E+0	1.972047E+0	2.044504E+0	1.934195E+0	1.908644E+0	1.839357E+0	2.030390E+0	1.969373E+0	1.957998E+0	1.928219E+0	1.911937E+0	1.929396E+0	1.942658E+0	1.966669E+0	2.017000E+0	1.841037E+0	1.966585E+0	1.859554E+0	1.993534E+0	1.941387E+0	1.897502E+0	1.928351E+0	1.995746E+0	1.927248E+0	1.926179E+0	1.967014E+0	1.941728E+0	1.937723E+0	1.891656E+0	1.950246E+0	1.949231E+0	1.871333E+0	1.855357E+0	1.861059E+0	1.949357E+0	1.947317E+0	1.968022E+0	1.950530E+0	1.987749E+0	1.882506E+0	1.888402E+0	1.860673E+0	1.934002E+0	2.004520E+0	1.877057E+0	1.871924E+0	1.939182E+0	1.898375E+0	1.927613E+0	1.887175E+0	1.986062E+0	1.951820E+0	1.886975E+0	1.854379E+0	1.929858E+0	1.838194E+0	1.918325E+0	1.812702E+0	1.943839E+0	1.936000E+0	1.894227E+0	1.851032E+0	1.861408E+0	1.864598E+0	1.916709E+0	1.857051E+0	1.895278E+0	1.936980E+0	1.858848E+0	1.924313E+0	1.945758E+0	1.943836E+0	1.914232E+0	1.898597E+0	1.848794E+0	1.929823E+0	1.855144E+0	1.923312E+0	1.895594E+0	1.879206E+0	1.867723E+0	1.848871E+0	1.901643E+0	1.973700E+0	1.859520E+0	1.858254E+0	1.924219E+0	1.829915E+0	1.967839E+0	1.831456E+0	1.949046E+0	1.983534E+0	1.897662E+0	1.919471E+0	1.889369E+0	1.948304E+0	1.768908E+0
5.405080E+2	1.955305E+0	1.905459E+0	1.857614E+0	1.868513E+0	1.873036E+0	1.828029E+0	1.922515E+0	1.856531E+0	1.853733E+0	1.834296E+0	1.813157E+0	1.850833E+0	1.877983E+0	1.915925E+0	1.863792E+0	1.903463E+0	1.954956E+0	1.869225E+0	1.915588E+0	1.860283E+0	1.889805E+0	1.841193E+0	1.912613E+0	1.920410E+0	1.874335E+0	1.850665E+0	1.849111E+0	1.862386E+0	1.817306E+0	1.932104E+0	1.889730E+0	1.865149E+0	1.883398E+0	1.911253E+0	1.855636E+0	1.840642E+0	1.902874E+0	1.820816E+0	1.874066E+0	1.943830E+0	1.846945E+0	1.886170E+0	1.912570E+0	1.880474E+0	1.899168E+0	1.832808E+0	1.873255E+0	1.844414E+0	1.889188E+0	1.922115E+0	1.785222E+0	1.927708E+0	1.828418E+0	1.911913E+0	1.885901E+0	1.849893E+0	1.873172E+0	1.881351E+0	1.772548E+0	1.929085E+0	1.915239E+0	1.853953E+0	1.784096E+0	1.860589E+0	1.901514E+0	1.890390E+0	1.868049E+0	1.864149E+0	1.841933E+0	1.936624E+0	1.891908E+0	1.844759E+0	1.815855E+0	1.854785E+0	1.811005E+0	1.899321E+0	1.894877E+0	1.870461E+0	1.809211E+0	1.830854E+0	1.830791E+0	1.857017E+0	1.899912E+0	1.874473E+0	1.884237E+0	1.925959E+0	1.847081E+0	1.883948E+0	1.867462E+0	1.856684E+0	1.860937E+0	1.893737E+0	1.789153E+0	1.842109E+0	1.747180E+0	1.861815E+0	1.896509E+0	1.803090E+0	1.839239E+0	1.889945E+0	1.866289E+0	1.788903E+0	1.841702E+0	1.824746E+0	1.923386E+0	1.808947E+0	1.848150E+0	1.880091E+0	1.862327E+0	1.826322E+0	1.797621E+0	1.814384E+0	1.906192E+0	1.752588E+0	1.831656E+0	1.824524E+0	1.815426E+0	1.814788E+0	1.771483E+0	1.835665E+0	1.841376E+0	1.896835E+0	1.829629E+0	1.866336E+0	1.832606E+0	1.850638E+0	1.785127E+0	1.897015E+0	1.898700E+0	1.828069E+0	1.815388E+0	1.788048E+0	1.806466E+0	1.875345E+0	1.827616E+0	1.842005E+0	1.852235E+0	1.722667E+0	1.814196E+0	1.850509E+0	1.851783E+0	1.887977E+0	1.823272E+0	1.847823E+0	1.779303E+0	1.807016E+0	1.818067E+0	1.839717E+0	1.866562E+0	1.824369E+0	1.873870E+0	1.810617E+0	1.810120E+0	1.840635E+0	1.803801E+0	1.827710E+0	1.836374E+0	1.815080E+0	1.848702E+0	1.793942E+0	1.875073E+0	1.793694E+0	1.741788E+0	1.779844E+0	1.765503E+0	1.732142E+0
5.407630E+2	1.918313E+0	1.852034E+0	1.905533E+0	1.840300E+0	1.836135E+0	1.830021E+0	1.828664E+0	1.839438E+0	1.855602E+0	1.865952E+0	1.896776E+0	1.865352E+0	1.935771E+0	1.832226E+0	1.823580E+0	1.871918E+0	1.915567E+0	1.828757E+0	1.862906E+0	1.868190E+0	1.886018E+0	1.893476E+0	1.865126E+0	1.917447E+0	1.855064E+0	1.881460E+0	1.826788E+0	1.889098E+0	1.798026E+0	1.840724E+0	1.805143E+0	1.793837E+0	1.861651E+0	1.804477E+0	1.864326E+0	1.848298E+0	1.850270E+0	1.902196E+0	1.837034E+0	1.986544E+0	1.851316E+0	1.926889E+0	1.841128E+0	1.865669E+0	1.882094E+0	1.836839E+0	1.805756E+0	1.854645E+0	1.828487E+0	1.823342E+0	1.818580E+0	1.815871E+0	1.791225E+0	1.898424E+0	1.837020E+0	1.837669E+0	1.851113E+0	1.853352E+0	1.865731E+0	1.872279E+0	1.800670E+0	1.823946E+0	1.809092E+0	1.866242E+0	1.866153E+0	1.807112E+0	1.853158E+0	1.880957E+0	1.809699E+0	1.856159E+0	1.840386E+0	1.820428E+0	1.891288E+0	1.807918E+0	1.773545E+0	1.911915E+0	1.749955E+0	1.878736E+0	1.804681E+0	1.772503E+0	1.806800E+0	1.787802E+0	1.845580E+0	1.836042E+0	1.859297E+0	1.842530E+0	1.840782E+0	1.841376E+0	1.840214E+0	1.896566E+0	1.846836E+0	1.890361E+0	1.829322E+0	1.812996E+0	1.748764E+0	1.770699E+0	1.911403E+0	1.815816E+0	1.828107E+0	1.876781E+0	1.769746E+0	1.756438E+0	1.750844E+0	1.834663E+0	1.825410E+0	1.875940E+0	1.817102E+0	1.835976E+0	1.770461E+0	1.843107E+0	1.819277E+0	1.756642E+0	1.817551E+0	1.808466E+0	1.784482E+0	1.798990E+0	1.753444E+0	1.757988E+0	1.758823E+0	1.867293E+0	1.853622E+0	1.856268E+0	1.751552E+0	1.789706E+0	1.831544E+0	1.850645E+0	1.801402E+0	1.797468E+0	1.827428E+0	1.763627E+0	1.822138E+0	1.787904E+0	1.808900E+0	1.829427E+0	1.711215E+0	1.858531E+0	1.828502E+0	1.814926E+0	1.732074E+0	1.795823E+0	1.793885E+0	1.808056E+0	1.701788E+0	1.725670E+0	1.846237E+0	1.778626E+0	1.852717E+0	1.726950E+0	1.891032E+0	1.779711E+0	1.824549E+0	1.815911E+0	1.784317E+0	1.773024E+0	1.785659E+0	1.830315E+0	1.784652E+0	1.890707E+0	1.787617E+0	1.810013E+0	1.845073E+0	1.746710E+0	1.781517E+0	1.747090E+0	1.698207E+0	1.727405E+0
5.410130E+2	1.640944E+0	1.682629E+0	1.584718E+0	1.622138E+0	1.517877E+0	1.550199E+0	1.573996E+0	1.584655E+0	1.593788E+0	1.615700E+0	1.575758E+0	1.668639E+0	1.669332E+0	1.643372E+0	1.558402E+0	1.609263E+0	1.611284E+0	1.585663E+0	1.637717E+0	1.478889E+0	1.617198E+0	1.551213E+0	1.602213E+0	1.592492E+0	1.547361E+0	1.663414E+0	1.606689E+0	1.640859E+0	1.495884E+0	1.595608E+0	1.563511E+0	1.610439E+0	1.637716E+0	1.570128E+0	1.542291E+0	1.519426E+0	1.589853E+0	1.573879E+0	1.590087E+0	1.604236E+0	1.538491E+0	1.562834E+0	1.591869E+0	1.602928E+0	1.576249E+0	1.590380E+0	1.563202E+0	1.551203E+0	1.573339E+0	1.580942E+0	1.565975E+0	1.601343E+0	1.622489E+0	1.556909E+0	1.571960E+0	1.556114E+0	1.552312E+0	1.575179E+0	1.651644E+0	1.526835E+0	1.658307E+0	1.604328E+0	1.518925E+0	1.547297E+0	1.624723E+0	1.626041E+0	1.590098E+0	1.523667E+0	1.536794E+0	1.564509E+0	1.539845E+0	1.581681E+0	1.545989E+0	1.515337E+0	1.542675E+0	1.628470E+0	1.597629E+0	1.555487E+0	1.512760E+0	1.543286E+0	1.556637E+0	1.564209E+0	1.583485E+0	1.557921E+0	1.540897E+0	1.585690E+0	1.602727E+0	1.615189E+0	1.581278E+0	1.587539E+0	1.544380E+0	1.664898E+0	1.561575E+0	1.604535E+0	1.556554E+0	1.550174E+0	1.571501E+0	1.587243E+0	1.605474E+0	1.592259E+0	1.510750E+0	1.518631E+0	1.531208E+0	1.598818E+0	1.589681E+0	1.586876E+0	1.494341E+0	1.528123E+0	1.573266E+0	1.618256E+0	1.589239E+0	1.570178E+0	1.647232E+0	1.513423E+0	1.509104E+0	1.493505E+0	1.600214E+0	1.558048E+0	1.552599E+0	1.594326E+0	1.569275E+0	1.605651E+0	1.503178E+0	1.608522E+0	1.614279E+0	1.543428E+0	1.546847E+0	1.549928E+0	1.630006E+0	1.546812E+0	1.546716E+0	1.555879E+0	1.547404E+0	1.556297E+0	1.511535E+0	1.578085E+0	1.584268E+0	1.589198E+0	1.501081E+0	1.505723E+0	1.575282E+0	1.476531E+0	1.589195E+0	1.540416E+0	1.638508E+0	1.505593E+0	1.584782E+0	1.552419E+0	1.501342E+0	1.549517E+0	1.543474E+0	1.573766E+0	1.531188E+0	1.528027E+0	1.564687E+0	1.590316E+0	1.603801E+0	1.558398E+0	1.503629E+0	1.548809E+0	1.594335E+0	1.558996E+0	1.586800E+0	1.629070E+0	1.542170E+0	1.449683E+0
5.412690E+2	1.708210E+0	1.687173E+0	1.643117E+0	1.637927E+0	1.608688E+0	1.639107E+0	1.723066E+0	1.693978E+0	1.603838E+0	1.609614E+0	1.633922E+0	1.656614E+0	1.678317E+0	1.651951E+0	1.639613E+0	1.632233E+0	1.631246E+0	1.639613E+0	1.700977E+0	1.712584E+0	1.665112E+0	1.629199E+0	1.646023E+0	1.648354E+0	1.671046E+0	1.628158E+0	1.656991E+0	1.689555E+0	1.569287E+0	1.696195E+0	1.621493E+0	1.639993E+0	1.647602E+0	1.654496E+0	1.626072E+0	1.640481E+0	1.593273E+0	1.637827E+0	1.613914E+0	1.635070E+0	1.663335E+0	1.604422E+0	1.662311E+0	1.683600E+0	1.685517E+0	1.646917E+0	1.633681E+0	1.609848E+0	1.580703E+0	1.660896E+0	1.618285E+0	1.681484E+0	1.638153E+0	1.655961E+0	1.595464E+0	1.691584E+0	1.651639E+0	1.564661E+0	1.637089E+0	1.665231E+0	1.673007E+0	1.615426E+0	1.569921E+0	1.643731E+0	1.610673E+0	1.646496E+0	1.717232E+0	1.657101E+0	1.597127E+0	1.662598E+0	1.604666E+0	1.571094E+0	1.627134E+0	1.617305E+0	1.636732E+0	1.642318E+0	1.659631E+0	1.611013E+0	1.675707E+0	1.599314E+0	1.644287E+0	1.643618E+0	1.622215E+0	1.671282E+0	1.583808E+0	1.657092E+0	1.627542E+0	1.639397E+0	1.646457E+0	1.631870E+0	1.588888E+0	1.627561E+0	1.625660E+0	1.614015E+0	1.645267E+0	1.640527E+0	1.641537E+0	1.575424E+0	1.613682E+0	1.646830E+0	1.571203E+0	1.586059E+0	1.541078E+0	1.629153E+0	1.707852E+0	1.662284E+0	1.635039E+0	1.640997E+0	1.672618E+0	1.641381E+0	1.506417E+0	1.646795E+0	1.693576E+0	1.704545E+0	1.546882E+0	1.599374E+0	1.553741E+0	1.641768E+0	1.554106E+0	1.641504E+0	1.622204E+0	1.665799E+0	1.551088E+0	1.626404E+0	1.646218E+0	1.596090E+0	1.617518E+0	1.647469E+0	1.596932E+0	1.709068E+0	1.577088E+0	1.579641E+0	1.597241E+0	1.578460E+0	1.654633E+0	1.664852E+0	1.609416E+0	1.624299E+0	1.603001E+0	1.596084E+0	1.580037E+0	1.621655E+0	1.566040E+0	1.583259E+0	1.620264E+0	1.581929E+0	1.598025E+0	1.582819E+0	1.648737E+0	1.608896E+0	1.623744E+0	1.595115E+0	1.664689E+0	1.601405E+0	1.592386E+0	1.641603E+0	1.588345E+0	1.627113E+0	1.605331E+0	1.625302E+0	1.651526E+0	1.596419E+0	1.499690E+0	1.561843E+0	1.594309E+0	1.479390E+0
5.415140E+2	1.639127E+0	1.606411E+0	1.566304E+0	1.581614E+0	1.573849E+0	1.567378E+0	1.575987E+0	1.593143E+0	1.593216E+0	1.545763E+0	1.563020E+0	1.558385E+0	1.577779E+0	1.556780E+0	1.589984E+0	1.586278E+0	1.563130E+0	1.503235E+0	1.564036E+0	1.583728E+0	1.569577E+0	1.560574E+0	1.569569E+0	1.626946E+0	1.605790E+0	1.614181E+0	1.610244E+0	1.614297E+0	1.576413E+0	1.575990E+0	1.572527E+0	1.590598E+0	1.593696E+0	1.633273E+0	1.572268E+0	1.613606E+0	1.567544E+0	1.552381E+0	1.585788E+0	1.644609E+0	1.540097E+0	1.611729E+0	1.611602E+0	1.626216E+0	1.603813E+0	1.609272E+0	1.537943E+0	1.587949E+0	1.595125E+0	1.616664E+0	1.501661E+0	1.554093E+0	1.581528E+0	1.533402E+0	1.529998E+0	1.581783E+0	1.571732E+0	1.531407E+0	1.576925E+0	1.610223E+0	1.603091E+0	1.598448E+0	1.518550E+0	1.591627E+0	1.561188E+0	1.550222E+0	1.600526E+0	1.573210E+0	1.546042E+0	1.591944E+0	1.598778E+0	1.549243E+0	1.573218E+0	1.548559E+0	1.585520E+0	1.573207E+0	1.564033E+0	1.504331E+0	1.531808E+0	1.555594E+0	1.537686E+0	1.603178E+0	1.544458E+0	1.537450E+0	1.543523E+0	1.554235E+0	1.566610E+0	1.564933E+0	1.606034E+0	1.590664E+0	1.537304E+0	1.589047E+0	1.549021E+0	1.576014E+0	1.584907E+0	1.559728E+0	1.589074E+0	1.595109E+0	1.531237E+0	1.562974E+0	1.506840E+0	1.542955E+0	1.471303E+0	1.619414E+0	1.562667E+0	1.591425E+0	1.562964E+0	1.549759E+0	1.562944E+0	1.582263E+0	1.520664E+0	1.492292E+0	1.544135E+0	1.523668E+0	1.472681E+0	1.520435E+0	1.591767E+0	1.501647E+0	1.519454E+0	1.595712E+0	1.559606E+0	1.525902E+0	1.513721E+0	1.509818E+0	1.538339E+0	1.555103E+0	1.559846E+0	1.564877E+0	1.584597E+0	1.647771E+0	1.490946E+0	1.504617E+0	1.564421E+0	1.567650E+0	1.506136E+0	1.541256E+0	1.571643E+0	1.508983E+0	1.506710E+0	1.494078E+0	1.591035E+0	1.535583E+0	1.494122E+0	1.528076E+0	1.578459E+0	1.546013E+0	1.565697E+0	1.507119E+0	1.490001E+0	1.538598E+0	1.552737E+0	1.600645E+0	1.483746E+0	1.544187E+0	1.470324E+0	1.626480E+0	1.485307E+0	1.672943E+0	1.597554E+0	1.549977E+0	1.580314E+0	1.556122E+0	1.450034E+0	1.508396E+0	1.465493E+0	1.528886E+0
5.417490E+2	1.555827E+0	1.487447E+0	1.498113E+0	1.442514E+0	1.442306E+0	1.450929E+0	1.492097E+0	1.515919E+0	1.518880E+0	1.498157E+0	1.500110E+0	1.389533E+0	1.451155E+0	1.453940E+0	1.512762E+0	1.441898E+0	1.556432E+0	1.501703E+0	1.473256E+0	1.519472E+0	1.500023E+0	1.483672E+0	1.495441E+0	1.508852E+0	1.520550E+0	1.521731E+0	1.505130E+0	1.499445E+0	1.441338E+0	1.489005E+0	1.485127E+0	1.452049E+0	1.436735E+0	1.429318E+0	1.448531E+0	1.527138E+0	1.476064E+0	1.456598E+0	1.478746E+0	1.476618E+0	1.456787E+0	1.509266E+0	1.503957E+0	1.476764E+0	1.480728E+0	1.465913E+0	1.443194E+0	1.490892E+0	1.494641E+0	1.398401E+0	1.439799E+0	1.428003E+0	1.434658E+0	1.471809E+0	1.444054E+0	1.448232E+0	1.444685E+0	1.486140E+0	1.488430E+0	1.486603E+0	1.489486E+0	1.450337E+0	1.420736E+0	1.475059E+0	1.487667E+0	1.539110E+0	1.402010E+0	1.441452E+0	1.469402E+0	1.470113E+0	1.464117E+0	1.442406E+0	1.566731E+0	1.419494E+0	1.438305E+0	1.502598E+0	1.511993E+0	1.457766E+0	1.412133E+0	1.452773E+0	1.465166E+0	1.560251E+0	1.488551E+0	1.470462E+0	1.449674E+0	1.474943E+0	1.483315E+0	1.444859E+0	1.432791E+0	1.475164E+0	1.354506E+0	1.547178E+0	1.404228E+0	1.405093E+0	1.432479E+0	1.469507E+0	1.491761E+0	1.479553E+0	1.467544E+0	1.504261E+0	1.437512E+0	1.480340E+0	1.387206E+0	1.451793E+0	1.456207E+0	1.426928E+0	1.397227E+0	1.459405E+0	1.451053E+0	1.549883E+0	1.462903E+0	1.485890E+0	1.475977E+0	1.455644E+0	1.395496E+0	1.508634E+0	1.443318E+0	1.439456E+0	1.411180E+0	1.465413E+0	1.488505E+0	1.443373E+0	1.395596E+0	1.448685E+0	1.407850E+0	1.416712E+0	1.490687E+0	1.461069E+0	1.481505E+0	1.462493E+0	1.402222E+0	1.443055E+0	1.455508E+0	1.475862E+0	1.460088E+0	1.433230E+0	1.448358E+0	1.417330E+0	1.466433E+0	1.475121E+0	1.510982E+0	1.473619E+0	1.498280E+0	1.469796E+0	1.474174E+0	1.519877E+0	1.493854E+0	1.403270E+0	1.429035E+0	1.458746E+0	1.505203E+0	1.506686E+0	1.416070E+0	1.452004E+0	1.426400E+0	1.471210E+0	1.475979E+0	1.455552E+0	1.408629E+0	1.523688E+0	1.498055E+0	1.457152E+0	1.363995E+0	1.380450E+0	1.403218E+0	1.345149E+0
5.420320E+2	1.392588E+0	1.404871E+0	1.400414E+0	1.373864E+0	1.379960E+0	1.352505E+0	1.431133E+0	1.378977E+0	1.391732E+0	1.369420E+0	1.412327E+0	1.356133E+0	1.392634E+0	1.409931E+0	1.387660E+0	1.354442E+0	1.429347E+0	1.412371E+0	1.402016E+0	1.402240E+0	1.390728E+0	1.363667E+0	1.319684E+0	1.343560E+0	1.420701E+0	1.395986E+0	1.381652E+0	1.385401E+0	1.373360E+0	1.381010E+0	1.420008E+0	1.382550E+0	1.395717E+0	1.353747E+0	1.308853E+0	1.377475E+0	1.383174E+0	1.395598E+0	1.344148E+0	1.385746E+0	1.322242E+0	1.365169E+0	1.397565E+0	1.415629E+0	1.409208E+0	1.379468E+0	1.359480E+0	1.339886E+0	1.412842E+0	1.378586E+0	1.375335E+0	1.328431E+0	1.349746E+0	1.387377E+0	1.385382E+0	1.354442E+0	1.410632E+0	1.342606E+0	1.410422E+0	1.416478E+0	1.414694E+0	1.411267E+0	1.348373E+0	1.368270E+0	1.333396E+0	1.463270E+0	1.389429E+0	1.344060E+0	1.390157E+0	1.411145E+0	1.406134E+0	1.453377E+0	1.377718E+0	1.292054E+0	1.252873E+0	1.426770E+0	1.381368E+0	1.398995E+0	1.334100E+0	1.358012E+0	1.368807E+0	1.372301E+0	1.382614E+0	1.444145E+0	1.425941E+0	1.381950E+0	1.332599E+0	1.416380E+0	1.379867E+0	1.401102E+0	1.368547E+0	1.406285E+0	1.322706E+0	1.370182E+0	1.340362E+0	1.349754E+0	1.385503E+0	1.354928E+0	1.400504E+0	1.370243E+0	1.350315E+0	1.308494E+0	1.269924E+0	1.356614E+0	1.404759E+0	1.412113E+0	1.344980E+0	1.355503E+0	1.394724E+0	1.338824E+0	1.362982E+0	1.382083E+0	1.427038E+0	1.409937E+0	1.349604E+0	1.315330E+0	1.436448E+0	1.387291E+0	1.392847E+0	1.445885E+0	1.364270E+0	1.375285E+0	1.335333E+0	1.337111E+0	1.405517E+0	1.347342E+0	1.370169E+0	1.399387E+0	1.458577E+0	1.369434E+0	1.369981E+0	1.359230E+0	1.377240E+0	1.416959E+0	1.391854E+0	1.454560E+0	1.400953E+0	1.416340E+0	1.350139E+0	1.417642E+0	1.363414E+0	1.396585E+0	1.342123E+0	1.301168E+0	1.385064E+0	1.359934E+0	1.369486E+0	1.354943E+0	1.369035E+0	1.364601E+0	1.406685E+0	1.348565E+0	1.376829E+0	1.344752E+0	1.354258E+0	1.354929E+0	1.366355E+0	1.466167E+0	1.264772E+0	1.398525E+0	1.453101E+0	1.364408E+0	1.273599E+0	1.421827E+0	1.334953E+0	1.358792E+0
5.422780E+2	1.161405E+0	1.200692E+0	1.146843E+0	1.073321E+0	1.147415E+0	1.182797E+0	1.136581E+0	1.135402E+0	1.176312E+0	1.187180E+0	1.154634E+0	1.198033E+0	1.167630E+0	1.141479E+0	1.138622E+0	1.142081E+0	1.143667E+0	1.155242E+0	1.148425E+0	1.106704E+0	1.128320E+0	1.123762E+0	1.137207E+0	1.177131E+0	1.109891E+0	1.171970E+0	1.162766E+0	1.163048E+0	1.109037E+0	1.212131E+0	1.147382E+0	1.082034E+0	1.136091E+0	1.127986E+0	1.191979E+0	1.104703E+0	1.169693E+0	1.126525E+0	1.100639E+0	1.174475E+0	1.124116E+0	1.129963E+0	1.184889E+0	1.094267E+0	1.259064E+0	1.192638E+0	1.117075E+0	1.108601E+0	1.168768E+0	1.170774E+0	1.141452E+0	1.131996E+0	1.167772E+0	1.140184E+0	1.126302E+0	1.139430E+0	1.169144E+0	1.113491E+0	1.161903E+0	1.120483E+0	1.177130E+0	1.134520E+0	1.079442E+0	1.194879E+0	1.193055E+0	1.196876E+0	1.191043E+0	1.210542E+0	1.120120E+0	1.162406E+0	1.161350E+0	1.147096E+0	1.100776E+0	1.091630E+0	1.144306E+0	1.185918E+0	1.165499E+0	1.147640E+0	1.152970E+0	1.163031E+0	1.135411E+0	1.158899E+0	1.164035E+0	1.130314E+0	1.147755E+0	1.164338E+0	1.126545E+0	1.152393E+0	1.173687E+0	1.101294E+0	1.117116E+0	1.206349E+0	1.183042E+0	1.223057E+0	1.131856E+0	1.134854E+0	1.116981E+0	1.120489E+0	1.128937E+0	1.176522E+0	1.167065E+0	1.097531E+0	1.123020E+0	1.187779E+0	1.139704E+0	1.196933E+0	1.123141E+0	1.162909E+0	1.122920E+0	1.149207E+0	1.121759E+0	1.201745E+0	1.141510E+0	1.072296E+0	1.119563E+0	1.145196E+0	1.109251E+0	1.122886E+0	1.113330E+0	1.147741E+0	1.126247E+0	1.206186E+0	1.121634E+0	1.163560E+0	1.120206E+0	1.119647E+0	1.146041E+0	1.110870E+0	1.155868E+0	1.164465E+0	1.138897E+0	1.146043E+0	1.112630E+0	1.165634E+0	1.162366E+0	1.160686E+0	1.102804E+0	1.129888E+0	1.105585E+0	1.152980E+0	1.141218E+0	1.170233E+0	1.090891E+0	1.107051E+0	1.117317E+0	1.215487E+0	1.064147E+0	1.147417E+0	1.180246E+0	1.111945E+0	1.186668E+0	1.113064E+0	1.135727E+0	1.160241E+0	1.109204E+0	1.124493E+0	1.114046E+0	1.146189E+0	1.101048E+0	1.107675E+0	1.150677E+0	1.159778E+0	1.150020E+0	1.162555E+0	1.059937E+0	1.145308E+0
5.425240E+2	1.026586E+0	1.048777E+0	1.079824E+0	1.048772E+0	1.043861E+0	1.074534E+0	1.075331E+0	1.046419E+0	1.162414E+0	9.884993E-1	1.075471E+0	1.057880E+0	1.055736E+0	1.069609E+0	9.978403E-1	1.071436E+0	1.078188E+0	1.019689E+0	1.044325E+0	1.034750E+0	1.087920E+0	1.049153E+0	1.018995E+0	1.035115E+0	1.073159E+0	1.080505E+0	1.053350E+0	1.025538E+0	1.061072E+0	1.074095E+0	1.090886E+0	1.047008E+0	1.073020E+0	1.070119E+0	1.031265E+0	1.039478E+0	1.037999E+0	1.046938E+0	1.042853E+0	1.072254E+0	1.018638E+0	1.047682E+0	1.073508E+0	1.062227E+0	1.066004E+0	1.103481E+0	1.044920E+0	1.087666E+0	1.055325E+0	1.030238E+0	1.023593E+0	1.026197E+0	9.835457E-1	1.027113E+0	1.038406E+0	1.020261E+0	1.049499E+0	1.026920E+0	1.044538E+0	1.074272E+0	1.057360E+0	1.028937E+0	1.013460E+0	1.023394E+0	1.056110E+0	1.032666E+0	1.099604E+0	1.051838E+0	1.051641E+0	1.042362E+0	1.049322E+0	1.067384E+0	1.045074E+0	1.038645E+0	1.022752E+0	1.071928E+0	1.089931E+0	1.050289E+0	1.027594E+0	1.044058E+0	1.091141E+0	1.077282E+0	1.032081E+0	1.037347E+0	1.051781E+0	1.003595E+0	1.052712E+0	1.085699E+0	1.089291E+0	1.038505E+0	1.062961E+0	1.053124E+0	1.036111E+0	1.013063E+0	1.079126E+0	1.018579E+0	1.112147E+0	1.075826E+0	1.078166E+0	1.067581E+0	1.058950E+0	1.016159E+0	1.037850E+0	1.041547E+0	1.061827E+0	1.068178E+0	1.058827E+0	1.064057E+0	9.991882E-1	1.042972E+0	1.038120E+0	1.021383E+0	1.032597E+0	1.161236E+0	1.034451E+0	1.051511E+0	1.049566E+0	1.028723E+0	1.046540E+0	1.047661E+0	1.021984E+0	1.056299E+0	1.027931E+0	1.115131E+0	1.093794E+0	1.015551E+0	1.061901E+0	1.145128E+0	1.086058E+0	1.079609E+0	1.052974E+0	1.062341E+0	1.077262E+0	1.043808E+0	1.039362E+0	1.020677E+0	1.113810E+0	1.096031E+0	1.031551E+0	1.060193E+0	1.065300E+0	1.056242E+0	1.034082E+0	1.013102E+0	1.048382E+0	1.051666E+0	1.054197E+0	1.072678E+0	1.044588E+0	1.029386E+0	1.077354E+0	1.049139E+0	1.055133E+0	1.045343E+0	1.019732E+0	1.039388E+0	1.068351E+0	1.094916E+0	1.039719E+0	1.077737E+0	1.024272E+0	1.079658E+0	1.077833E+0	1.076166E+0	1.050563E+0	9.790250E-1
5.427870E+2	8.969802E-1	9.298468E-1	9.515758E-1	9.025867E-1	9.748112E-1	9.482071E-1	9.699375E-1	9.271445E-1	9.458758E-1	9.027304E-1	9.710966E-1	9.401723E-1	9.904050E-1	9.719368E-1	9.175584E-1	9.313786E-1	9.756243E-1	9.869928E-1	9.768228E-1	9.832037E-1	9.801207E-1	9.352450E-1	9.340647E-1	9.065508E-1	9.772608E-1	9.503011E-1	9.262737E-1	9.997470E-1	9.623528E-1	9.889713E-1	9.216500E-1	9.106426E-1	9.120526E-1	9.529575E-1	9.186159E-1	8.955456E-1	9.185087E-1	9.195966E-1	8.626812E-1	9.509677E-1	9.528331E-1	9.678141E-1	9.415406E-1	9.310552E-1	9.505710E-1	9.573417E-1	9.004933E-1	9.371580E-1	9.625681E-1	9.305828E-1	9.162728E-1	9.576299E-1	9.563979E-1	9.904518E-1	9.507290E-1	9.384178E-1	9.513010E-1	9.495878E-1	9.246158E-1	9.522084E-1	9.512571E-1	9.630717E-1	9.279175E-1	9.615251E-1	9.641007E-1	9.397786E-1	9.830824E-1	9.540009E-1	9.349024E-1	9.241436E-1	9.417123E-1	9.512230E-1	9.281919E-1	9.437949E-1	9.355531E-1	9.099263E-1	9.646454E-1	9.240546E-1	9.065557E-1	9.086903E-1	9.585075E-1	9.235152E-1	9.113761E-1	9.290502E-1	9.449081E-1	9.510959E-1	9.380683E-1	9.328061E-1	9.938979E-1	9.451448E-1	9.824106E-1	9.396147E-1	9.722710E-1	9.458408E-1	9.395487E-1	9.416477E-1	9.426075E-1	9.319186E-1	9.341895E-1	9.996049E-1	9.677062E-1	9.522918E-1	8.928244E-1	1.003123E+0	9.509574E-1	9.578747E-1	9.433858E-1	1.030796E+0	9.318040E-1	8.829926E-1	9.861590E-1	9.700518E-1	9.259375E-1	9.634663E-1	9.461306E-1	9.286567E-1	9.179919E-1	9.728625E-1	9.250828E-1	9.521361E-1	9.194560E-1	1.018774E+0	9.003523E-1	9.446590E-1	9.506875E-1	9.692147E-1	9.194278E-1	9.505755E-1	9.824487E-1	8.928355E-1	9.047861E-1	9.258771E-1	9.311540E-1	9.546955E-1	9.548154E-1	9.379094E-1	9.446616E-1	9.399880E-1	9.223913E-1	9.718207E-1	9.891860E-1	9.206083E-1	9.378175E-1	9.655490E-1	9.563923E-1	9.768499E-1	9.187556E-1	9.809511E-1	9.608866E-1	9.359223E-1	9.765382E-1	9.524092E-1	9.027207E-1	9.439316E-1	9.753603E-1	9.679818E-1	9.937244E-1	9.578090E-1	9.326538E-1	9.202289E-1	9.862624E-1	9.523729E-1	9.246248E-1	9.415606E-1	8.532517E-1	9.421041E-1
5.430170E+2	9.390076E-1	9.167055E-1	9.088955E-1	9.479887E-1	9.391299E-1	9.309242E-1	9.085639E-1	9.328701E-1	8.758251E-1	8.787231E-1	9.318061E-1	8.868764E-1	9.785647E-1	9.063562E-1	8.925873E-1	8.956396E-1	9.004924E-1	8.988669E-1	8.737318E-1	9.152434E-1	9.089077E-1	8.743690E-1	8.915562E-1	9.088836E-1	9.643625E-1	9.580390E-1	9.326253E-1	9.003102E-1	9.062973E-1	9.432987E-1	9.545215E-1	8.673214E-1	8.763984E-1	9.411138E-1	9.249450E-1	8.788440E-1	9.206139E-1	8.788285E-1	9.267828E-1	8.753103E-1	8.825915E-1	9.573901E-1	9.065877E-1	9.183506E-1	9.553793E-1	9.430822E-1	9.457944E-1	8.976007E-1	8.994287E-1	9.290736E-1	8.879638E-1	8.636516E-1	9.202723E-1	9.187925E-1	8.502467E-1	8.817564E-1	9.257132E-1	9.075032E-1	9.158215E-1	9.082444E-1	9.449408E-1	8.925515E-1	8.833578E-1	9.501489E-1	9.011268E-1	9.360148E-1	8.944945E-1	9.294257E-1	8.933143E-1	9.208769E-1	8.905776E-1	9.262991E-1	9.260396E-1	8.357697E-1	9.005127E-1	9.407332E-1	9.359855E-1	9.161792E-1	8.651962E-1	9.041462E-1	9.207695E-1	9.402353E-1	8.898262E-1	8.689474E-1	8.753451E-1	9.099912E-1	9.083079E-1	9.092655E-1	9.646376E-1	9.016132E-1	8.927637E-1	8.930892E-1	9.533367E-1	8.906444E-1	8.778698E-1	8.833517E-1	9.288987E-1	9.173940E-1	8.966629E-1	8.968903E-1	8.937148E-1	9.030170E-1	8.944654E-1	9.101024E-1	9.721950E-1	9.124553E-1	9.012737E-1	8.655972E-1	9.189847E-1	9.542539E-1	8.942954E-1	9.452001E-1	9.775583E-1	9.345495E-1	9.106699E-1	8.812827E-1	9.153304E-1	8.929188E-1	9.239913E-1	8.967454E-1	9.165752E-1	9.492646E-1	8.817417E-1	9.631642E-1	9.168527E-1	8.827613E-1	9.354859E-1	9.160060E-1	9.294630E-1	8.690259E-1	9.096978E-1	8.995814E-1	9.448546E-1	9.157371E-1	9.330334E-1	9.538368E-1	9.145188E-1	9.073371E-1	9.034231E-1	9.173037E-1	9.594255E-1	9.323543E-1	8.440446E-1	9.084069E-1	9.252897E-1	9.475621E-1	8.738873E-1	9.094140E-1	9.522865E-1	8.941283E-1	9.411773E-1	8.661275E-1	8.967920E-1	9.419120E-1	9.275690E-1	9.271144E-1	9.230954E-1	9.110471E-1	8.848905E-1	8.675351E-1	9.522745E-1	8.965708E-1	9.376877E-1	8.566976E-1	9.258331E-1	8.624045E-1
5.432700E+2	1.026146E+0	1.020491E+0	1.021884E+0	9.799239E-1	9.967708E-1	9.668426E-1	9.458793E-1	9.951258E-1	9.753691E-1	1.000538E+0	1.048013E+0	9.279302E-1	1.025396E+0	9.529890E-1	1.023208E+0	9.892397E-1	1.027925E+0	9.867749E-1	9.710650E-1	9.497093E-1	1.010467E+0	1.001552E+0	9.621818E-1	9.614445E-1	1.004009E+0	1.011084E+0	1.022226E+0	1.004645E+0	9.606369E-1	9.975220E-1	9.688119E-1	9.976268E-1	1.013893E+0	9.842950E-1	9.950582E-1	9.262646E-1	9.878706E-1	9.897250E-1	9.804546E-1	9.626502E-1	1.044643E+0	1.030253E+0	1.026803E+0	1.016592E+0	1.028743E+0	1.050815E+0	9.455878E-1	9.823964E-1	1.004452E+0	9.753775E-1	9.351649E-1	9.707787E-1	9.737790E-1	1.005933E+0	1.007114E+0	9.635595E-1	1.042751E+0	9.808933E-1	9.816448E-1	1.011219E+0	1.042857E+0	9.732570E-1	9.918941E-1	9.653899E-1	9.908750E-1	9.963229E-1	1.001016E+0	9.485949E-1	1.003647E+0	1.037639E+0	9.976662E-1	9.652779E-1	9.610194E-1	1.003939E+0	1.010154E+0	1.038264E+0	1.037916E+0	1.002315E+0	9.910464E-1	9.807969E-1	9.981603E-1	9.975653E-1	1.000236E+0	9.618623E-1	9.959064E-1	9.470454E-1	1.055024E+0	9.501599E-1	1.000763E+0	1.000735E+0	9.554964E-1	9.817182E-1	9.551879E-1	9.533485E-1	1.015774E+0	9.881632E-1	1.027367E+0	9.463106E-1	9.590247E-1	1.015007E+0	1.016267E+0	9.704805E-1	9.653782E-1	1.019974E+0	1.008101E+0	1.078132E+0	9.813575E-1	9.542913E-1	1.016826E+0	1.046743E+0	9.870272E-1	9.923567E-1	1.038191E+0	1.016169E+0	9.648110E-1	9.737999E-1	1.002635E+0	9.258741E-1	9.789942E-1	1.003755E+0	9.686453E-1	1.036335E+0	1.002444E+0	9.734502E-1	1.000405E+0	9.774220E-1	9.835756E-1	9.554980E-1	9.938652E-1	1.054660E+0	9.931966E-1	9.361682E-1	1.054175E+0	9.883271E-1	9.944153E-1	1.046652E+0	1.033825E+0	1.008571E+0	9.607347E-1	9.948228E-1	1.042358E+0	1.058484E+0	1.005192E+0	9.636342E-1	9.596403E-1	1.049926E+0	1.028773E+0	9.823015E-1	9.962498E-1	9.005646E-1	1.005778E+0	9.893960E-1	1.025499E+0	9.894016E-1	1.018529E+0	1.030229E+0	9.895014E-1	1.001763E+0	9.390128E-1	9.975031E-1	9.960811E-1	9.370757E-1	9.755696E-1	9.425512E-1	9.647210E-1	1.004959E+0
5.435110E+2	1.146733E+0	1.081428E+0	1.108873E+0	1.063755E+0	1.098766E+0	1.078917E+0	1.086102E+0	1.083383E+0	1.134318E+0	1.096932E+0	1.098357E+0	1.056346E+0	1.117885E+0	1.105709E+0	1.087792E+0	1.113070E+0	1.103610E+0	1.059043E+0	1.045508E+0	1.092453E+0	1.091780E+0	1.081838E+0	1.072437E+0	1.101357E+0	1.136571E+0	1.059675E+0	1.048286E+0	1.047782E+0	1.010616E+0	1.092054E+0	1.077413E+0	1.046702E+0	1.110947E+0	1.029212E+0	1.077064E+0	1.068559E+0	1.066136E+0	1.097919E+0	1.073849E+0	1.070911E+0	1.043214E+0	1.116217E+0	1.082028E+0	1.065212E+0	1.145834E+0	1.100606E+0	1.054859E+0	1.018322E+0	1.073556E+0	1.102897E+0	1.094667E+0	1.070500E+0	1.067754E+0	1.105218E+0	1.096606E+0	1.051530E+0	1.067849E+0	1.094201E+0	1.155954E+0	1.109012E+0	1.123449E+0	1.107921E+0	1.024623E+0	1.089343E+0	1.081180E+0	1.139804E+0	1.076250E+0	1.076907E+0	1.073263E+0	1.163647E+0	1.109464E+0	1.034772E+0	1.076710E+0	1.068397E+0	1.047481E+0	1.074024E+0	1.120939E+0	1.061826E+0	1.097338E+0	1.079219E+0	1.071539E+0	1.058450E+0	1.084951E+0	1.071748E+0	1.069609E+0	1.088686E+0	1.088785E+0	1.111250E+0	1.099720E+0	1.093654E+0	1.128740E+0	1.060317E+0	1.117977E+0	1.082280E+0	1.112394E+0	1.069259E+0	1.107517E+0	1.097009E+0	1.078597E+0	1.096197E+0	1.110369E+0	1.126028E+0	1.068361E+0	1.103351E+0	1.091133E+0	1.085864E+0	1.050257E+0	1.058145E+0	1.110904E+0	1.104665E+0	1.115625E+0	1.080814E+0	1.092911E+0	1.050251E+0	1.040962E+0	1.088630E+0	1.111608E+0	1.051089E+0	1.102058E+0	1.048009E+0	1.108998E+0	1.097675E+0	1.075913E+0	1.106110E+0	1.103448E+0	1.089657E+0	1.057306E+0	1.104592E+0	1.093329E+0	1.073263E+0	1.116426E+0	1.058025E+0	1.043129E+0	1.095174E+0	1.098165E+0	1.077127E+0	1.088437E+0	1.073657E+0	1.060629E+0	1.031946E+0	1.083724E+0	1.072830E+0	1.042985E+0	1.064866E+0	1.054040E+0	1.089189E+0	1.087239E+0	1.060748E+0	1.047686E+0	1.116314E+0	1.085155E+0	1.068663E+0	1.062849E+0	1.051269E+0	1.030425E+0	1.147784E+0	1.113578E+0	1.126137E+0	1.084584E+0	1.077038E+0	1.043403E+0	1.139425E+0	1.070216E+0	1.042937E+0	1.082171E+0	1.073237E+0
5.437750E+2	1.372254E+0	1.302976E+0	1.345286E+0	1.300088E+0	1.282164E+0	1.309430E+0	1.320361E+0	1.290838E+0	1.257814E+0	1.218427E+0	1.321400E+0	1.290446E+0	1.366206E+0	1.345869E+0	1.336820E+0	1.371205E+0	1.345150E+0	1.318859E+0	1.363186E+0	1.327319E+0	1.328540E+0	1.319448E+0	1.278945E+0	1.323706E+0	1.350065E+0	1.357942E+0	1.339121E+0	1.292832E+0	1.301978E+0	1.356727E+0	1.289710E+0	1.267322E+0	1.333764E+0	1.284928E+0	1.312592E+0	1.303179E+0	1.311552E+0	1.250717E+0	1.265862E+0	1.276162E+0	1.325748E+0	1.288791E+0	1.347159E+0	1.293271E+0	1.353887E+0	1.313621E+0	1.336075E+0	1.284206E+0	1.297970E+0	1.338937E+0	1.293050E+0	1.278753E+0	1.308588E+0	1.314956E+0	1.351446E+0	1.328826E+0	1.397809E+0	1.254748E+0	1.330665E+0	1.278558E+0	1.373486E+0	1.287743E+0	1.249375E+0	1.253419E+0	1.335925E+0	1.323347E+0	1.271922E+0	1.347400E+0	1.313039E+0	1.375532E+0	1.286161E+0	1.291574E+0	1.344363E+0	1.255998E+0	1.301479E+0	1.304695E+0	1.368428E+0	1.289179E+0	1.281714E+0	1.330882E+0	1.295313E+0	1.290707E+0	1.328813E+0	1.266505E+0	1.303554E+0	1.300722E+0	1.271056E+0	1.346876E+0	1.369279E+0	1.301085E+0	1.323412E+0	1.270131E+0	1.274661E+0	1.336083E+0	1.278404E+0	1.284560E+0	1.264954E+0	1.293268E+0	1.304400E+0	1.346180E+0	1.288438E+0	1.263348E+0	1.253136E+0	1.268667E+0	1.303449E+0	1.290872E+0	1.238913E+0	1.320934E+0	1.319978E+0	1.295839E+0	1.292503E+0	1.269656E+0	1.328396E+0	1.301289E+0	1.303207E+0	1.295564E+0	1.330099E+0	1.256977E+0	1.248329E+0	1.274263E+0	1.321692E+0	1.342886E+0	1.247910E+0	1.327108E+0	1.301920E+0	1.315147E+0	1.266747E+0	1.308402E+0	1.312728E+0	1.355147E+0	1.271791E+0	1.325265E+0	1.344422E+0	1.331216E+0	1.288638E+0	1.314922E+0	1.344115E+0	1.277437E+0	1.242458E+0	1.259271E+0	1.279004E+0	1.343070E+0	1.291421E+0	1.223671E+0	1.356436E+0	1.314321E+0	1.304316E+0	1.336216E+0	1.293682E+0	1.338217E+0	1.297777E+0	1.220104E+0	1.334878E+0	1.308204E+0	1.298109E+0	1.290802E+0	1.308813E+0	1.256998E+0	1.331072E+0	1.303303E+0	1.319692E+0	1.325810E+0	1.201416E+0	1.248277E+0	1.250207E+0	1.275642E+0
5.440170E+2	1.497985E+0	1.443511E+0	1.435614E+0	1.436992E+0	1.430354E+0	1.379668E+0	1.437636E+0	1.447527E+0	1.442723E+0	1.450192E+0	1.466644E+0	1.367798E+0	1.448275E+0	1.470400E+0	1.407454E+0	1.412353E+0	1.449213E+0	1.456475E+0	1.456698E+0	1.385839E+0	1.417239E+0	1.416106E+0	1.384383E+0	1.439434E+0	1.490176E+0	1.466591E+0	1.447968E+0	1.393384E+0	1.432607E+0	1.420858E+0	1.430370E+0	1.360380E+0	1.444090E+0	1.451324E+0	1.396959E+0	1.449559E+0	1.400465E+0	1.396797E+0	1.465315E+0	1.463461E+0	1.371007E+0	1.461312E+0	1.423911E+0	1.452261E+0	1.510183E+0	1.454773E+0	1.442920E+0	1.413004E+0	1.403360E+0	1.429355E+0	1.426743E+0	1.366586E+0	1.459837E+0	1.425581E+0	1.432908E+0	1.367831E+0	1.429486E+0	1.427385E+0	1.458396E+0	1.420059E+0	1.495296E+0	1.437034E+0	1.410984E+0	1.405367E+0	1.436545E+0	1.478762E+0	1.457098E+0	1.426515E+0	1.406142E+0	1.454212E+0	1.439940E+0	1.355115E+0	1.449235E+0	1.392036E+0	1.370965E+0	1.390083E+0	1.432424E+0	1.416485E+0	1.404839E+0	1.382623E+0	1.436261E+0	1.428082E+0	1.385648E+0	1.411759E+0	1.357317E+0	1.433544E+0	1.433893E+0	1.476317E+0	1.397877E+0	1.465190E+0	1.420886E+0	1.402507E+0	1.446828E+0	1.438835E+0	1.385978E+0	1.384689E+0	1.415070E+0	1.419367E+0	1.396297E+0	1.432134E+0	1.390573E+0	1.427492E+0	1.384624E+0	1.431006E+0	1.434977E+0	1.427257E+0	1.395147E+0	1.342175E+0	1.404982E+0	1.426946E+0	1.399881E+0	1.419488E+0	1.437224E+0	1.397468E+0	1.385589E+0	1.377001E+0	1.417954E+0	1.384168E+0	1.377156E+0	1.401590E+0	1.385544E+0	1.455497E+0	1.394466E+0	1.413081E+0	1.441652E+0	1.492591E+0	1.450222E+0	1.434906E+0	1.421173E+0	1.454416E+0	1.355610E+0	1.388823E+0	1.444603E+0	1.414286E+0	1.393180E+0	1.408490E+0	1.485592E+0	1.513560E+0	1.356519E+0	1.361540E+0	1.481083E+0	1.402600E+0	1.380583E+0	1.370693E+0	1.444750E+0	1.438517E+0	1.422463E+0	1.383215E+0	1.505347E+0	1.398416E+0	1.446387E+0	1.375123E+0	1.438193E+0	1.421598E+0	1.451632E+0	1.390618E+0	1.371222E+0	1.470880E+0	1.381020E+0	1.416839E+0	1.457922E+0	1.425373E+0	1.427175E+0	1.490698E+0	1.402225E+0	1.341283E+0
5.442700E+2	1.581505E+0	1.505419E+0	1.541822E+0	1.463420E+0	1.539491E+0	1.513109E+0	1.437061E+0	1.530489E+0	1.555230E+0	1.482724E+0	1.503142E+0	1.463597E+0	1.553138E+0	1.534537E+0	1.458063E+0	1.494308E+0	1.536084E+0	1.448894E+0	1.547919E+0	1.510715E+0	1.500084E+0	1.427746E+0	1.465152E+0	1.507011E+0	1.620377E+0	1.519229E+0	1.539426E+0	1.555568E+0	1.516190E+0	1.577842E+0	1.498704E+0	1.465257E+0	1.483447E+0	1.474393E+0	1.525690E+0	1.496258E+0	1.474164E+0	1.510148E+0	1.494691E+0	1.470391E+0	1.513618E+0	1.598273E+0	1.488558E+0	1.468266E+0	1.583374E+0	1.519061E+0	1.452373E+0	1.483320E+0	1.574177E+0	1.501363E+0	1.493265E+0	1.505680E+0	1.503885E+0	1.542085E+0	1.490786E+0	1.468838E+0	1.517792E+0	1.461167E+0	1.558184E+0	1.512261E+0	1.512184E+0	1.529333E+0	1.465593E+0	1.489518E+0	1.564053E+0	1.503097E+0	1.440639E+0	1.466954E+0	1.501897E+0	1.557336E+0	1.477454E+0	1.471561E+0	1.540016E+0	1.455948E+0	1.452648E+0	1.493371E+0	1.524240E+0	1.503784E+0	1.456097E+0	1.463156E+0	1.517732E+0	1.519565E+0	1.516601E+0	1.512788E+0	1.464831E+0	1.489945E+0	1.502432E+0	1.537645E+0	1.517592E+0	1.474334E+0	1.520428E+0	1.467038E+0	1.472430E+0	1.454766E+0	1.452725E+0	1.473970E+0	1.516222E+0	1.504994E+0	1.482884E+0	1.500319E+0	1.487965E+0	1.452884E+0	1.408880E+0	1.489195E+0	1.519324E+0	1.552074E+0	1.491225E+0	1.449029E+0	1.526109E+0	1.473364E+0	1.489608E+0	1.473129E+0	1.532494E+0	1.574131E+0	1.475780E+0	1.501967E+0	1.528616E+0	1.477224E+0	1.421615E+0	1.494132E+0	1.520733E+0	1.486360E+0	1.488456E+0	1.450963E+0	1.531731E+0	1.506907E+0	1.449643E+0	1.473721E+0	1.514220E+0	1.532008E+0	1.416455E+0	1.444686E+0	1.474752E+0	1.516589E+0	1.491734E+0	1.474225E+0	1.512132E+0	1.527765E+0	1.457517E+0	1.470237E+0	1.495156E+0	1.493875E+0	1.470277E+0	1.415130E+0	1.488618E+0	1.492972E+0	1.441292E+0	1.378320E+0	1.490971E+0	1.413318E+0	1.510746E+0	1.449576E+0	1.509959E+0	1.381397E+0	1.485606E+0	1.455833E+0	1.558091E+0	1.544244E+0	1.447511E+0	1.515669E+0	1.530171E+0	1.493063E+0	1.511595E+0	1.474788E+0	1.574812E+0	1.498585E+0
5.445180E+2	1.579907E+0	1.739579E+0	1.572065E+0	1.576868E+0	1.535470E+0	1.611049E+0	1.582665E+0	1.640541E+0	1.586394E+0	1.517013E+0	1.600744E+0	1.518311E+0	1.693292E+0	1.596702E+0	1.609574E+0	1.626332E+0	1.641264E+0	1.605880E+0	1.611060E+0	1.555117E+0	1.592131E+0	1.559946E+0	1.520831E+0	1.590372E+0	1.655159E+0	1.549447E+0	1.598669E+0	1.535742E+0	1.570181E+0	1.622197E+0	1.598117E+0	1.572090E+0	1.570788E+0	1.565579E+0	1.569164E+0	1.537318E+0	1.599097E+0	1.668563E+0	1.605740E+0	1.635233E+0	1.583285E+0	1.664582E+0	1.592565E+0	1.583576E+0	1.624981E+0	1.627272E+0	1.611241E+0	1.538628E+0	1.705617E+0	1.643945E+0	1.563955E+0	1.544245E+0	1.580450E+0	1.601283E+0	1.563108E+0	1.569998E+0	1.636011E+0	1.601607E+0	1.603853E+0	1.583209E+0	1.611580E+0	1.561821E+0	1.568659E+0	1.574529E+0	1.621549E+0	1.629522E+0	1.674846E+0	1.575544E+0	1.596139E+0	1.577365E+0	1.539587E+0	1.592956E+0	1.595130E+0	1.586142E+0	1.484814E+0	1.579833E+0	1.621076E+0	1.588555E+0	1.541428E+0	1.511203E+0	1.571730E+0	1.570895E+0	1.601820E+0	1.571154E+0	1.566678E+0	1.556065E+0	1.590056E+0	1.568763E+0	1.626779E+0	1.550835E+0	1.549501E+0	1.539893E+0	1.596483E+0	1.609100E+0	1.555874E+0	1.516546E+0	1.611283E+0	1.559245E+0	1.603271E+0	1.608852E+0	1.498749E+0	1.541953E+0	1.485266E+0	1.562687E+0	1.558337E+0	1.618400E+0	1.568858E+0	1.556236E+0	1.520936E+0	1.552778E+0	1.556522E+0	1.542254E+0	1.634738E+0	1.598089E+0	1.490709E+0	1.596957E+0	1.599780E+0	1.540853E+0	1.508545E+0	1.530476E+0	1.585906E+0	1.581079E+0	1.498247E+0	1.547270E+0	1.614226E+0	1.570661E+0	1.549730E+0	1.595659E+0	1.540306E+0	1.533129E+0	1.578298E+0	1.521315E+0	1.582552E+0	1.596992E+0	1.579864E+0	1.584187E+0	1.608895E+0	1.627231E+0	1.521151E+0	1.571278E+0	1.605164E+0	1.612649E+0	1.520179E+0	1.531910E+0	1.578321E+0	1.545622E+0	1.588459E+0	1.517411E+0	1.638720E+0	1.512643E+0	1.608121E+0	1.532148E+0	1.567348E+0	1.510236E+0	1.534816E+0	1.550625E+0	1.576658E+0	1.610095E+0	1.536726E+0	1.581727E+0	1.598846E+0	1.578591E+0	1.497196E+0	1.497776E+0	1.570507E+0	1.487240E+0
5.447610E+2	1.518608E+0	1.492268E+0	1.533983E+0	1.474797E+0	1.522918E+0	1.465035E+0	1.462734E+0	1.497275E+0	1.485391E+0	1.533541E+0	1.547102E+0	1.425864E+0	1.498985E+0	1.452394E+0	1.449123E+0	1.474506E+0	1.478564E+0	1.526360E+0	1.535213E+0	1.515484E+0	1.525557E+0	1.529889E+0	1.491961E+0	1.435579E+0	1.502051E+0	1.552876E+0	1.564647E+0	1.448874E+0	1.519142E+0	1.497602E+0	1.458061E+0	1.494368E+0	1.507788E+0	1.570973E+0	1.439204E+0	1.509492E+0	1.483552E+0	1.478659E+0	1.529820E+0	1.523615E+0	1.486884E+0	1.560567E+0	1.514374E+0	1.472143E+0	1.558352E+0	1.491896E+0	1.356529E+0	1.536072E+0	1.530134E+0	1.535387E+0	1.427040E+0	1.467020E+0	1.501683E+0	1.495091E+0	1.443843E+0	1.529601E+0	1.488619E+0	1.473474E+0	1.516623E+0	1.521338E+0	1.542429E+0	1.522342E+0	1.419531E+0	1.499972E+0	1.537504E+0	1.508524E+0	1.494385E+0	1.468315E+0	1.452016E+0	1.548934E+0	1.459417E+0	1.441197E+0	1.483317E+0	1.496616E+0	1.430436E+0	1.458565E+0	1.496047E+0	1.513884E+0	1.436363E+0	1.470774E+0	1.487226E+0	1.501160E+0	1.453476E+0	1.395302E+0	1.422688E+0	1.492901E+0	1.462397E+0	1.488130E+0	1.503600E+0	1.544111E+0	1.508600E+0	1.500250E+0	1.478024E+0	1.484768E+0	1.477450E+0	1.501193E+0	1.496419E+0	1.479518E+0	1.464070E+0	1.471787E+0	1.476343E+0	1.465924E+0	1.437365E+0	1.509478E+0	1.524800E+0	1.550701E+0	1.476025E+0	1.426461E+0	1.551276E+0	1.456125E+0	1.483633E+0	1.499225E+0	1.519356E+0	1.498261E+0	1.429250E+0	1.527983E+0	1.450635E+0	1.477099E+0	1.432670E+0	1.434837E+0	1.507165E+0	1.511060E+0	1.385383E+0	1.511630E+0	1.489888E+0	1.459648E+0	1.474989E+0	1.473501E+0	1.460947E+0	1.467613E+0	1.343604E+0	1.434961E+0	1.483927E+0	1.507657E+0	1.416152E+0	1.533694E+0	1.491025E+0	1.526711E+0	1.459483E+0	1.464428E+0	1.575295E+0	1.555301E+0	1.434114E+0	1.516881E+0	1.470707E+0	1.470360E+0	1.491919E+0	1.486668E+0	1.445577E+0	1.438459E+0	1.551739E+0	1.413016E+0	1.510861E+0	1.482400E+0	1.435062E+0	1.474091E+0	1.529487E+0	1.516517E+0	1.453480E+0	1.480357E+0	1.497576E+0	1.560146E+0	1.477243E+0	1.467386E+0	1.466539E+0	1.369624E+0
5.450150E+2	1.544670E+0	1.478167E+0	1.529448E+0	1.510448E+0	1.516571E+0	1.515869E+0	1.489964E+0	1.511136E+0	1.502440E+0	1.448648E+0	1.525524E+0	1.431468E+0	1.547694E+0	1.559534E+0	1.521901E+0	1.478402E+0	1.511789E+0	1.471290E+0	1.560981E+0	1.559260E+0	1.464290E+0	1.519601E+0	1.511527E+0	1.483272E+0	1.482390E+0	1.540446E+0	1.512317E+0	1.528548E+0	1.458123E+0	1.552202E+0	1.545447E+0	1.473671E+0	1.481725E+0	1.559359E+0	1.512466E+0	1.533689E+0	1.469193E+0	1.479647E+0	1.516819E+0	1.585712E+0	1.407587E+0	1.523991E+0	1.495869E+0	1.451706E+0	1.574871E+0	1.536792E+0	1.441759E+0	1.421521E+0	1.499581E+0	1.510468E+0	1.467610E+0	1.475184E+0	1.472975E+0	1.478465E+0	1.480219E+0	1.488218E+0	1.535298E+0	1.492532E+0	1.576987E+0	1.439381E+0	1.555817E+0	1.442031E+0	1.488760E+0	1.498822E+0	1.530463E+0	1.482543E+0	1.516420E+0	1.494167E+0	1.443557E+0	1.521163E+0	1.458488E+0	1.476054E+0	1.522886E+0	1.524384E+0	1.429514E+0	1.492586E+0	1.512041E+0	1.559900E+0	1.528091E+0	1.443163E+0	1.477895E+0	1.509175E+0	1.500502E+0	1.457656E+0	1.455744E+0	1.432211E+0	1.459820E+0	1.489427E+0	1.530760E+0	1.492909E+0	1.474418E+0	1.530540E+0	1.446361E+0	1.540885E+0	1.451941E+0	1.515178E+0	1.507630E+0	1.488932E+0	1.549577E+0	1.400734E+0	1.473785E+0	1.450961E+0	1.472906E+0	1.465278E+0	1.570557E+0	1.487345E+0	1.434342E+0	1.457586E+0	1.481457E+0	1.462291E+0	1.447645E+0	1.443972E+0	1.542839E+0	1.517325E+0	1.417292E+0	1.475837E+0	1.432827E+0	1.502070E+0	1.483520E+0	1.452834E+0	1.478637E+0	1.504798E+0	1.389376E+0	1.447323E+0	1.477113E+0	1.486197E+0	1.445768E+0	1.554861E+0	1.505376E+0	1.524297E+0	1.476568E+0	1.476878E+0	1.476510E+0	1.456374E+0	1.474900E+0	1.481215E+0	1.447093E+0	1.507997E+0	1.529218E+0	1.482247E+0	1.519669E+0	1.479145E+0	1.516917E+0	1.427721E+0	1.459425E+0	1.518209E+0	1.450298E+0	1.389658E+0	1.516471E+0	1.472074E+0	1.457770E+0	1.398872E+0	1.473903E+0	1.536778E+0	1.450560E+0	1.508069E+0	1.509596E+0	1.503385E+0	1.415195E+0	1.492325E+0	1.527910E+0	1.439344E+0	1.454438E+0	1.401510E+0	1.542138E+0	1.482785E+0
5.452690E+2	1.431091E+0	1.386065E+0	1.406664E+0	1.359860E+0	1.375371E+0	1.375411E+0	1.326572E+0	1.380443E+0	1.338454E+0	1.358525E+0	1.387322E+0	1.342996E+0	1.451103E+0	1.441886E+0	1.374102E+0	1.379677E+0	1.394654E+0	1.402113E+0	1.455773E+0	1.414706E+0	1.404322E+0	1.399936E+0	1.325844E+0	1.408826E+0	1.413942E+0	1.426229E+0	1.441612E+0	1.380134E+0	1.351163E+0	1.398531E+0	1.371214E+0	1.375758E+0	1.372593E+0	1.418387E+0	1.363927E+0	1.327268E+0	1.353799E+0	1.451350E+0	1.364729E+0	1.399767E+0	1.321400E+0	1.461106E+0	1.328028E+0	1.380482E+0	1.400646E+0	1.401649E+0	1.341319E+0	1.342051E+0	1.352227E+0	1.381483E+0	1.345113E+0	1.386963E+0	1.402336E+0	1.375601E+0	1.374429E+0	1.394300E+0	1.415087E+0	1.343831E+0	1.456358E+0	1.357503E+0	1.416232E+0	1.413712E+0	1.387964E+0	1.346288E+0	1.417560E+0	1.382425E+0	1.353919E+0	1.365609E+0	1.339834E+0	1.390461E+0	1.352980E+0	1.390081E+0	1.379811E+0	1.340326E+0	1.329341E+0	1.346375E+0	1.375838E+0	1.384706E+0	1.359683E+0	1.372456E+0	1.384680E+0	1.401983E+0	1.419756E+0	1.369152E+0	1.348775E+0	1.462478E+0	1.380528E+0	1.387097E+0	1.401368E+0	1.395049E+0	1.391545E+0	1.320195E+0	1.375548E+0	1.374720E+0	1.341357E+0	1.359815E+0	1.418130E+0	1.339509E+0	1.445780E+0	1.367705E+0	1.375994E+0	1.347288E+0	1.346909E+0	1.383148E+0	1.371891E+0	1.386695E+0	1.307601E+0	1.337103E+0	1.407348E+0	1.347961E+0	1.391666E+0	1.360796E+0	1.386618E+0	1.386623E+0	1.341686E+0	1.400835E+0	1.344285E+0	1.350414E+0	1.373825E+0	1.410989E+0	1.371554E+0	1.398207E+0	1.397741E+0	1.369943E+0	1.398370E+0	1.325192E+0	1.404856E+0	1.413326E+0	1.365130E+0	1.467846E+0	1.305574E+0	1.388574E+0	1.305462E+0	1.333947E+0	1.423807E+0	1.366706E+0	1.349024E+0	1.383392E+0	1.383900E+0	1.337811E+0	1.389861E+0	1.434060E+0	1.348384E+0	1.311254E+0	1.335539E+0	1.361067E+0	1.322721E+0	1.426007E+0	1.383260E+0	1.399115E+0	1.376752E+0	1.341119E+0	1.370451E+0	1.402001E+0	1.358324E+0	1.311702E+0	1.388287E+0	1.380586E+0	1.307997E+0	1.369963E+0	1.378885E+0	1.360454E+0	1.346628E+0	1.377735E+0	1.337266E+0	1.291877E+0
5.455070E+2	1.429123E+0	1.419628E+0	1.366097E+0	1.385812E+0	1.421380E+0	1.386153E+0	1.395668E+0	1.351354E+0	1.345722E+0	1.391965E+0	1.371037E+0	1.355606E+0	1.369941E+0	1.402116E+0	1.385963E+0	1.376955E+0	1.408659E+0	1.364986E+0	1.451981E+0	1.369016E+0	1.410884E+0	1.406994E+0	1.354603E+0	1.386854E+0	1.400126E+0	1.403868E+0	1.381794E+0	1.386486E+0	1.329438E+0	1.374040E+0	1.397116E+0	1.336747E+0	1.334695E+0	1.407109E+0	1.288458E+0	1.393789E+0	1.344037E+0	1.369385E+0	1.370758E+0	1.326457E+0	1.331549E+0	1.444885E+0	1.361002E+0	1.364818E+0	1.365206E+0	1.361685E+0	1.296127E+0	1.331182E+0	1.302510E+0	1.306787E+0	1.416974E+0	1.340984E+0	1.410941E+0	1.399546E+0	1.431196E+0	1.349315E+0	1.382300E+0	1.302045E+0	1.388359E+0	1.342842E+0	1.318269E+0	1.364706E+0	1.311001E+0	1.385713E+0	1.368780E+0	1.367636E+0	1.392896E+0	1.338891E+0	1.381765E+0	1.401251E+0	1.413626E+0	1.311186E+0	1.340753E+0	1.415952E+0	1.346705E+0	1.347490E+0	1.399975E+0	1.431108E+0	1.319491E+0	1.390983E+0	1.407189E+0	1.362141E+0	1.357175E+0	1.360858E+0	1.318818E+0	1.339873E+0	1.347813E+0	1.429230E+0	1.388796E+0	1.312495E+0	1.395803E+0	1.343867E+0	1.357945E+0	1.343684E+0	1.432935E+0	1.364536E+0	1.346710E+0	1.423664E+0	1.390891E+0	1.375672E+0	1.368126E+0	1.310075E+0	1.339047E+0	1.373259E+0	1.389152E+0	1.361271E+0	1.373802E+0	1.304829E+0	1.366513E+0	1.342361E+0	1.385504E+0	1.420647E+0	1.374295E+0	1.320555E+0	1.339162E+0	1.403376E+0	1.354096E+0	1.385865E+0	1.319246E+0	1.358456E+0	1.357923E+0	1.379009E+0	1.288709E+0	1.324015E+0	1.392630E+0	1.419120E+0	1.377846E+0	1.342273E+0	1.415531E+0	1.346257E+0	1.306773E+0	1.373044E+0	1.352101E+0	1.332865E+0	1.295969E+0	1.370663E+0	1.401212E+0	1.380614E+0	1.297452E+0	1.378231E+0	1.426996E+0	1.370222E+0	1.349451E+0	1.384859E+0	1.353367E+0	1.326823E+0	1.342736E+0	1.348589E+0	1.367447E+0	1.380411E+0	1.376181E+0	1.349473E+0	1.404147E+0	1.384850E+0	1.342133E+0	1.333079E+0	1.390100E+0	1.354893E+0	1.305541E+0	1.287667E+0	1.408994E+0	1.376484E+0	1.307045E+0	1.365899E+0	1.414961E+0	1.479935E+0
5.457720E+2	1.326747E+0	1.292116E+0	1.305534E+0	1.247837E+0	1.313765E+0	1.271118E+0	1.258053E+0	1.285944E+0	1.281435E+0	1.268177E+0	1.294490E+0	1.285910E+0	1.297180E+0	1.333082E+0	1.298916E+0	1.290785E+0	1.302742E+0	1.302106E+0	1.297987E+0	1.261431E+0	1.289263E+0	1.279122E+0	1.263038E+0	1.279094E+0	1.297007E+0	1.310799E+0	1.348877E+0	1.291584E+0	1.250443E+0	1.290359E+0	1.233746E+0	1.253948E+0	1.290012E+0	1.325596E+0	1.238880E+0	1.260864E+0	1.280786E+0	1.303759E+0	1.269802E+0	1.284930E+0	1.245404E+0	1.319278E+0	1.325340E+0	1.296358E+0	1.277163E+0	1.296966E+0	1.267554E+0	1.277746E+0	1.274344E+0	1.290611E+0	1.288385E+0	1.287120E+0	1.255742E+0	1.234786E+0	1.292877E+0	1.289310E+0	1.274863E+0	1.296872E+0	1.274641E+0	1.305356E+0	1.285634E+0	1.246081E+0	1.252261E+0	1.288989E+0	1.280171E+0	1.268965E+0	1.329945E+0	1.280329E+0	1.288544E+0	1.300345E+0	1.297057E+0	1.230652E+0	1.212051E+0	1.235087E+0	1.256677E+0	1.311576E+0	1.283389E+0	1.277348E+0	1.299202E+0	1.239572E+0	1.273062E+0	1.276453E+0	1.234261E+0	1.266696E+0	1.274757E+0	1.339336E+0	1.273147E+0	1.319436E+0	1.267259E+0	1.212673E+0	1.236314E+0	1.277964E+0	1.251914E+0	1.352422E+0	1.249151E+0	1.222437E+0	1.253968E+0	1.229655E+0	1.264617E+0	1.261788E+0	1.282429E+0	1.290434E+0	1.260593E+0	1.200548E+0	1.318731E+0	1.281114E+0	1.224008E+0	1.217228E+0	1.317230E+0	1.330772E+0	1.234922E+0	1.271696E+0	1.271514E+0	1.287589E+0	1.272031E+0	1.260465E+0	1.239121E+0	1.243548E+0	1.234416E+0	1.339817E+0	1.269550E+0	1.317068E+0	1.258101E+0	1.238698E+0	1.316811E+0	1.271944E+0	1.288103E+0	1.280330E+0	1.310230E+0	1.307746E+0	1.233842E+0	1.301500E+0	1.299436E+0	1.279708E+0	1.199588E+0	1.309356E+0	1.367415E+0	1.261575E+0	1.250262E+0	1.228012E+0	1.295513E+0	1.278469E+0	1.263317E+0	1.227976E+0	1.253860E+0	1.294845E+0	1.262841E+0	1.249599E+0	1.288161E+0	1.232660E+0	1.266683E+0	1.261327E+0	1.295280E+0	1.205769E+0	1.253376E+0	1.283310E+0	1.345756E+0	1.282648E+0	1.290243E+0	1.284449E+0	1.278094E+0	1.392345E+0	1.257834E+0	1.212404E+0	1.246552E+0	1.308794E+0
5.460110E+2	1.266224E+0	1.222269E+0	1.245362E+0	1.212204E+0	1.165601E+0	1.178750E+0	1.262172E+0	1.221097E+0	1.261748E+0	1.232162E+0	1.277754E+0	1.228962E+0	1.295242E+0	1.249992E+0	1.200436E+0	1.189070E+0	1.229310E+0	1.233643E+0	1.240047E+0	1.245858E+0	1.229397E+0	1.218234E+0	1.203218E+0	1.245798E+0	1.189539E+0	1.232159E+0	1.223913E+0	1.219884E+0	1.193313E+0	1.241625E+0	1.233990E+0	1.155092E+0	1.199564E+0	1.168036E+0	1.196820E+0	1.192267E+0	1.171908E+0	1.202939E+0	1.208983E+0	1.173119E+0	1.234772E+0	1.268816E+0	1.274386E+0	1.211721E+0	1.220713E+0	1.284722E+0	1.201173E+0	1.215945E+0	1.245730E+0	1.232871E+0	1.216621E+0	1.130271E+0	1.178917E+0	1.263593E+0	1.194221E+0	1.223847E+0	1.201213E+0	1.188021E+0	1.262424E+0	1.244052E+0	1.232876E+0	1.259104E+0	1.170503E+0	1.267093E+0	1.215987E+0	1.226530E+0	1.231767E+0	1.224769E+0	1.157686E+0	1.191755E+0	1.190222E+0	1.242922E+0	1.244701E+0	1.162202E+0	1.170796E+0	1.194520E+0	1.232614E+0	1.204643E+0	1.161068E+0	1.212568E+0	1.204221E+0	1.282542E+0	1.238815E+0	1.195286E+0	1.198852E+0	1.151985E+0	1.225988E+0	1.172863E+0	1.216365E+0	1.191837E+0	1.166675E+0	1.236461E+0	1.160102E+0	1.248602E+0	1.206866E+0	1.154795E+0	1.208383E+0	1.234339E+0	1.171545E+0	1.202751E+0	1.185826E+0	1.178400E+0	1.206001E+0	1.231985E+0	1.209422E+0	1.257874E+0	1.234855E+0	1.137700E+0	1.181518E+0	1.272250E+0	1.242124E+0	1.252848E+0	1.227210E+0	1.225138E+0	1.207954E+0	1.255767E+0	1.181962E+0	1.209877E+0	1.268434E+0	1.265271E+0	1.207187E+0	1.316552E+0	1.227613E+0	1.232184E+0	1.217432E+0	1.235794E+0	1.160469E+0	1.224438E+0	1.224791E+0	1.228953E+0	1.214227E+0	1.238859E+0	1.214168E+0	1.216142E+0	1.216330E+0	1.185638E+0	1.211623E+0	1.185988E+0	1.169106E+0	1.128264E+0	1.206194E+0	1.243828E+0	1.173895E+0	1.174640E+0	1.196401E+0	1.253545E+0	1.222443E+0	1.187021E+0	1.279653E+0	1.184644E+0	1.229752E+0	1.194337E+0	1.203574E+0	1.183523E+0	1.287372E+0	1.243522E+0	1.265961E+0	1.258918E+0	1.206246E+0	1.181026E+0	1.238410E+0	1.225933E+0	1.153287E+0	1.244389E+0	1.164642E+0	1.246768E+0
5.467660E+2	1.165548E+0	1.098057E+0	1.115170E+0	1.099267E+0	1.099626E+0	1.096077E+0	1.141016E+0	1.091208E+0	1.054758E+0	1.126024E+0	1.107550E+0	1.132162E+0	1.156788E+0	1.141948E+0	1.098767E+0	1.104785E+0	1.157469E+0	1.123370E+0	1.164655E+0	1.085407E+0	1.137537E+0	1.099893E+0	1.110117E+0	1.121363E+0	1.108214E+0	1.166924E+0	1.146563E+0	1.118425E+0	1.127146E+0	1.128625E+0	1.112501E+0	1.074838E+0	1.097517E+0	1.096980E+0	1.107545E+0	1.050343E+0	1.144035E+0	1.098905E+0	1.095154E+0	1.149430E+0	1.107816E+0	1.156370E+0	1.178229E+0	1.130533E+0	1.120103E+0	1.136783E+0	1.090289E+0	1.115106E+0	1.129132E+0	1.150989E+0	1.087348E+0	1.138504E+0	1.157324E+0	1.118746E+0	1.170733E+0	1.144852E+0	1.129303E+0	1.096591E+0	1.097402E+0	1.081884E+0	1.113898E+0	1.097258E+0	1.087733E+0	1.070074E+0	1.102864E+0	1.153329E+0	1.149290E+0	1.140736E+0	1.111762E+0	1.111118E+0	1.125200E+0	1.118348E+0	1.103534E+0	1.089073E+0	1.087864E+0	1.131199E+0	1.091897E+0	1.182112E+0	1.089748E+0	1.102340E+0	1.117656E+0	1.109367E+0	1.109055E+0	1.158873E+0	1.126005E+0	1.144783E+0	1.140481E+0	1.105438E+0	1.119065E+0	1.086187E+0	1.138202E+0	1.055749E+0	1.075393E+0	1.150465E+0	1.054707E+0	1.096215E+0	1.114207E+0	1.098322E+0	1.079916E+0	1.146469E+0	1.072424E+0	1.105073E+0	1.083197E+0	1.132876E+0	1.127431E+0	1.100640E+0	1.131348E+0	1.025782E+0	1.122085E+0	1.115038E+0	1.093681E+0	1.180108E+0	1.114107E+0	1.122840E+0	1.081175E+0	1.113709E+0	1.110068E+0	1.116782E+0	1.095601E+0	1.146476E+0	1.136966E+0	1.155436E+0	1.116475E+0	1.064633E+0	1.121012E+0	1.114931E+0	1.080725E+0	1.135124E+0	1.110948E+0	1.156868E+0	1.183591E+0	1.098807E+0	1.091330E+0	1.135323E+0	1.090489E+0	1.121838E+0	1.173615E+0	1.163408E+0	1.143740E+0	1.093949E+0	1.182217E+0	1.114423E+0	1.049753E+0	1.096436E+0	1.092738E+0	1.149408E+0	1.135260E+0	1.078525E+0	1.128820E+0	1.145450E+0	1.117791E+0	1.102530E+0	1.138630E+0	1.072609E+0	1.154235E+0	1.081272E+0	1.120120E+0	1.101443E+0	1.039629E+0	1.121101E+0	1.075114E+0	1.115745E+0	1.108361E+0	1.103104E+0	1.110118E+0	1.059249E+0
5.475120E+2	1.218531E+0	1.332437E+0	1.243795E+0	1.255389E+0	1.247324E+0	1.269357E+0	1.206564E+0	1.309973E+0	1.254757E+0	1.265310E+0	1.272649E+0	1.223031E+0	1.283722E+0	1.262608E+0	1.243022E+0	1.235253E+0	1.264372E+0	1.201361E+0	1.258525E+0	1.252123E+0	1.189760E+0	1.216468E+0	1.225076E+0	1.271537E+0	1.289553E+0	1.256152E+0	1.290565E+0	1.242740E+0	1.215036E+0	1.261204E+0	1.265374E+0	1.196409E+0	1.253308E+0	1.280788E+0	1.224094E+0	1.184528E+0	1.296990E+0	1.292317E+0	1.238289E+0	1.261336E+0	1.205427E+0	1.275213E+0	1.268058E+0	1.186215E+0	1.238739E+0	1.297722E+0	1.227962E+0	1.188976E+0	1.238450E+0	1.306608E+0	1.200155E+0	1.231155E+0	1.287601E+0	1.235372E+0	1.283923E+0	1.230361E+0	1.186862E+0	1.249100E+0	1.231711E+0	1.225124E+0	1.232296E+0	1.226803E+0	1.200145E+0	1.213647E+0	1.264428E+0	1.277482E+0	1.248055E+0	1.264912E+0	1.210145E+0	1.256975E+0	1.242275E+0	1.249050E+0	1.242959E+0	1.259544E+0	1.247122E+0	1.204138E+0	1.252163E+0	1.218625E+0	1.286571E+0	1.214934E+0	1.261912E+0	1.247870E+0	1.278962E+0	1.210523E+0	1.276234E+0	1.248164E+0	1.259272E+0	1.239027E+0	1.233652E+0	1.275981E+0	1.226126E+0	1.229453E+0	1.211229E+0	1.233816E+0	1.261421E+0	1.248612E+0	1.224331E+0	1.251519E+0	1.244237E+0	1.201941E+0	1.186915E+0	1.270265E+0	1.177265E+0	1.243174E+0	1.259118E+0	1.236842E+0	1.221155E+0	1.249664E+0	1.223143E+0	1.263385E+0	1.256073E+0	1.310193E+0	1.280168E+0	1.247874E+0	1.216365E+0	1.238693E+0	1.229814E+0	1.204476E+0	1.240345E+0	1.232655E+0	1.262045E+0	1.319063E+0	1.202806E+0	1.251956E+0	1.198476E+0	1.305667E+0	1.228106E+0	1.313951E+0	1.271946E+0	1.285457E+0	1.227036E+0	1.157803E+0	1.219539E+0	1.247532E+0	1.255246E+0	1.231591E+0	1.233195E+0	1.253310E+0	1.204427E+0	1.168438E+0	1.246237E+0	1.268419E+0	1.222993E+0	1.197042E+0	1.226208E+0	1.251460E+0	1.258746E+0	1.217457E+0	1.308247E+0	1.264519E+0	1.277165E+0	1.239577E+0	1.244710E+0	1.262928E+0	1.174677E+0	1.233344E+0	1.186067E+0	1.315658E+0	1.191748E+0	1.225750E+0	1.217491E+0	1.241321E+0	1.253192E+0	1.196865E+0	1.214994E+0	1.129760E+0
5.482600E+2	1.343743E+0	1.323703E+0	1.325365E+0	1.259085E+0	1.326536E+0	1.298783E+0	1.310213E+0	1.289731E+0	1.317019E+0	1.271787E+0	1.287601E+0	1.339442E+0	1.318382E+0	1.342107E+0	1.281331E+0	1.342295E+0	1.303169E+0	1.272059E+0	1.306793E+0	1.288275E+0	1.315960E+0	1.270573E+0	1.285768E+0	1.293078E+0	1.334797E+0	1.327047E+0	1.298902E+0	1.318776E+0	1.263357E+0	1.360372E+0	1.323542E+0	1.298784E+0	1.318557E+0	1.367792E+0	1.281980E+0	1.284017E+0	1.272024E+0	1.335418E+0	1.302340E+0	1.327241E+0	1.275639E+0	1.239524E+0	1.370405E+0	1.243424E+0	1.287943E+0	1.321842E+0	1.269399E+0	1.281279E+0	1.305870E+0	1.305303E+0	1.281775E+0	1.224129E+0	1.254649E+0	1.286323E+0	1.332557E+0	1.348352E+0	1.287447E+0	1.317295E+0	1.352963E+0	1.305838E+0	1.260492E+0	1.318457E+0	1.283324E+0	1.319034E+0	1.299230E+0	1.300620E+0	1.315714E+0	1.249713E+0	1.277203E+0	1.331073E+0	1.341357E+0	1.251685E+0	1.316755E+0	1.276938E+0	1.330415E+0	1.327930E+0	1.337081E+0	1.348521E+0	1.302213E+0	1.278745E+0	1.261337E+0	1.324309E+0	1.217699E+0	1.271094E+0	1.289400E+0	1.329340E+0	1.319543E+0	1.382957E+0	1.281963E+0	1.274165E+0	1.221516E+0	1.297315E+0	1.293449E+0	1.261453E+0	1.277384E+0	1.291602E+0	1.292403E+0	1.315658E+0	1.308258E+0	1.292432E+0	1.280151E+0	1.275563E+0	1.275853E+0	1.313447E+0	1.277236E+0	1.337841E+0	1.277967E+0	1.280694E+0	1.306080E+0	1.347079E+0	1.307759E+0	1.273651E+0	1.320299E+0	1.278307E+0	1.252627E+0	1.265729E+0	1.289760E+0	1.283222E+0	1.317053E+0	1.263725E+0	1.338688E+0	1.273160E+0	1.235666E+0	1.334980E+0	1.266968E+0	1.323348E+0	1.268299E+0	1.350983E+0	1.289955E+0	1.294316E+0	1.248395E+0	1.278074E+0	1.328800E+0	1.279506E+0	1.292616E+0	1.265381E+0	1.325561E+0	1.333810E+0	1.317971E+0	1.250104E+0	1.310735E+0	1.297532E+0	1.285478E+0	1.260852E+0	1.275156E+0	1.356449E+0	1.275226E+0	1.251287E+0	1.344336E+0	1.299402E+0	1.356757E+0	1.271414E+0	1.292222E+0	1.313685E+0	1.272051E+0	1.270892E+0	1.312972E+0	1.327701E+0	1.284898E+0	1.269504E+0	1.379328E+0	1.388704E+0	1.280989E+0	1.279600E+0	1.274118E+0	1.347394E+0
5.490100E+2	1.445545E+0	1.390215E+0	1.400377E+0	1.402922E+0	1.326378E+0	1.399667E+0	1.409823E+0	1.332224E+0	1.318605E+0	1.394868E+0	1.334094E+0	1.354202E+0	1.413601E+0	1.360548E+0	1.358640E+0	1.397069E+0	1.389142E+0	1.363868E+0	1.422777E+0	1.372219E+0	1.346383E+0	1.342157E+0	1.339049E+0	1.331791E+0	1.364286E+0	1.393428E+0	1.365906E+0	1.376238E+0	1.328263E+0	1.441017E+0	1.415007E+0	1.339388E+0	1.425342E+0	1.377765E+0	1.366046E+0	1.389987E+0	1.364846E+0	1.390755E+0	1.375802E+0	1.334793E+0	1.340026E+0	1.347196E+0	1.366591E+0	1.382706E+0	1.425397E+0	1.428390E+0	1.405945E+0	1.335977E+0	1.340252E+0	1.407374E+0	1.344592E+0	1.346118E+0	1.448450E+0	1.393334E+0	1.330467E+0	1.310725E+0	1.398511E+0	1.372525E+0	1.358271E+0	1.389508E+0	1.428399E+0	1.397124E+0	1.335040E+0	1.376763E+0	1.345167E+0	1.405619E+0	1.350650E+0	1.388773E+0	1.388027E+0	1.425406E+0	1.392084E+0	1.355041E+0	1.319918E+0	1.234689E+0	1.378460E+0	1.344267E+0	1.343578E+0	1.354188E+0	1.365708E+0	1.318472E+0	1.336761E+0	1.364855E+0	1.353164E+0	1.349351E+0	1.386790E+0	1.350836E+0	1.377884E+0	1.316561E+0	1.394029E+0	1.400337E+0	1.328008E+0	1.326358E+0	1.292731E+0	1.378578E+0	1.381981E+0	1.334560E+0	1.377209E+0	1.407421E+0	1.365145E+0	1.326811E+0	1.359347E+0	1.348097E+0	1.367645E+0	1.363685E+0	1.374225E+0	1.405776E+0	1.365046E+0	1.332801E+0	1.375921E+0	1.410285E+0	1.410966E+0	1.376810E+0	1.371055E+0	1.455366E+0	1.348351E+0	1.326670E+0	1.308446E+0	1.319506E+0	1.324881E+0	1.340749E+0	1.379204E+0	1.439146E+0	1.314884E+0	1.359022E+0	1.331737E+0	1.350612E+0	1.324737E+0	1.339056E+0	1.343659E+0	1.372322E+0	1.332058E+0	1.350726E+0	1.389430E+0	1.335969E+0	1.348874E+0	1.356736E+0	1.387475E+0	1.401662E+0	1.332929E+0	1.337812E+0	1.316178E+0	1.336698E+0	1.339584E+0	1.347638E+0	1.313668E+0	1.362099E+0	1.337992E+0	1.335491E+0	1.351907E+0	1.392627E+0	1.395887E+0	1.298707E+0	1.389978E+0	1.383191E+0	1.334106E+0	1.337085E+0	1.392020E+0	1.428989E+0	1.336902E+0	1.370688E+0	1.383197E+0	1.291071E+0	1.286652E+0	1.368054E+0	1.402481E+0	1.374958E+0
5.497630E+2	1.261537E+0	1.278004E+0	1.294541E+0	1.257261E+0	1.217049E+0	1.299819E+0	1.229952E+0	1.278541E+0	1.274828E+0	1.212541E+0	1.284730E+0	1.210298E+0	1.281842E+0	1.256878E+0	1.247624E+0	1.261598E+0	1.272486E+0	1.222476E+0	1.269960E+0	1.235799E+0	1.163769E+0	1.247991E+0	1.270762E+0	1.234284E+0	1.236980E+0	1.257318E+0	1.257037E+0	1.231456E+0	1.201797E+0	1.236222E+0	1.280996E+0	1.174135E+0	1.269116E+0	1.258473E+0	1.256449E+0	1.218807E+0	1.156897E+0	1.244111E+0	1.260720E+0	1.254953E+0	1.203201E+0	1.362811E+0	1.247747E+0	1.223948E+0	1.296602E+0	1.287716E+0	1.190510E+0	1.229269E+0	1.223875E+0	1.290222E+0	1.237616E+0	1.186478E+0	1.267754E+0	1.261983E+0	1.334111E+0	1.279589E+0	1.299554E+0	1.269160E+0	1.223450E+0	1.242915E+0	1.251937E+0	1.298511E+0	1.237639E+0	1.238261E+0	1.201239E+0	1.315654E+0	1.288621E+0	1.215896E+0	1.174784E+0	1.255378E+0	1.208745E+0	1.229737E+0	1.230535E+0	1.184257E+0	1.235092E+0	1.214224E+0	1.205614E+0	1.275020E+0	1.198021E+0	1.237919E+0	1.229047E+0	1.225302E+0	1.269945E+0	1.214163E+0	1.192686E+0	1.272680E+0	1.272707E+0	1.234634E+0	1.262115E+0	1.250660E+0	1.217137E+0	1.270412E+0	1.205929E+0	1.249550E+0	1.182472E+0	1.269535E+0	1.183176E+0	1.227393E+0	1.253404E+0	1.253158E+0	1.242835E+0	1.243835E+0	1.251234E+0	1.240795E+0	1.262291E+0	1.311361E+0	1.238716E+0	1.164582E+0	1.266940E+0	1.277002E+0	1.243856E+0	1.233354E+0	1.241058E+0	1.271347E+0	1.201830E+0	1.277146E+0	1.206587E+0	1.259939E+0	1.213413E+0	1.219695E+0	1.230841E+0	1.263412E+0	1.156848E+0	1.224695E+0	1.240872E+0	1.197615E+0	1.218088E+0	1.238730E+0	1.226059E+0	1.281280E+0	1.270629E+0	1.212237E+0	1.288214E+0	1.321656E+0	1.254249E+0	1.289197E+0	1.206736E+0	1.256824E+0	1.211989E+0	1.236941E+0	1.243524E+0	1.220265E+0	1.255163E+0	1.205995E+0	1.213747E+0	1.220186E+0	1.205649E+0	1.253265E+0	1.239077E+0	1.214332E+0	1.281316E+0	1.141708E+0	1.223678E+0	1.320532E+0	1.239410E+0	1.235756E+0	1.254340E+0	1.310494E+0	1.256434E+0	1.231074E+0	1.305194E+0	1.220858E+0	1.198890E+0	1.267626E+0	1.179760E+0	1.241733E+0
5.505060E+2	1.269796E+0	1.238464E+0	1.327287E+0	1.356876E+0	1.283620E+0	1.251234E+0	1.278992E+0	1.314962E+0	1.313030E+0	1.274965E+0	1.243862E+0	1.218672E+0	1.283843E+0	1.331136E+0	1.303270E+0	1.308175E+0	1.277768E+0	1.266859E+0	1.283839E+0	1.277987E+0	1.273913E+0	1.210136E+0	1.269108E+0	1.259292E+0	1.345352E+0	1.314658E+0	1.288815E+0	1.250777E+0	1.258332E+0	1.265138E+0	1.278793E+0	1.232372E+0	1.325873E+0	1.363327E+0	1.173951E+0	1.280602E+0	1.265147E+0	1.266441E+0	1.259328E+0	1.287491E+0	1.265756E+0	1.282515E+0	1.284108E+0	1.306474E+0	1.312752E+0	1.302124E+0	1.219931E+0	1.249028E+0	1.248594E+0	1.320837E+0	1.250469E+0	1.197130E+0	1.243976E+0	1.235692E+0	1.261443E+0	1.264482E+0	1.249961E+0	1.236769E+0	1.282869E+0	1.262851E+0	1.257500E+0	1.290394E+0	1.245347E+0	1.198284E+0	1.322006E+0	1.368404E+0	1.282622E+0	1.262942E+0	1.250403E+0	1.287963E+0	1.262001E+0	1.259306E+0	1.277239E+0	1.252937E+0	1.249828E+0	1.204995E+0	1.290076E+0	1.296632E+0	1.270016E+0	1.213383E+0	1.186854E+0	1.291236E+0	1.275725E+0	1.255072E+0	1.264598E+0	1.286878E+0	1.208437E+0	1.240094E+0	1.260233E+0	1.277301E+0	1.202989E+0	1.213980E+0	1.296029E+0	1.297798E+0	1.220718E+0	1.245347E+0	1.213208E+0	1.310550E+0	1.309724E+0	1.316003E+0	1.282543E+0	1.249715E+0	1.235139E+0	1.273608E+0	1.276482E+0	1.270271E+0	1.200985E+0	1.216972E+0	1.268981E+0	1.305046E+0	1.305684E+0	1.277849E+0	1.218891E+0	1.245734E+0	1.228344E+0	1.286264E+0	1.271267E+0	1.286786E+0	1.270977E+0	1.245698E+0	1.253935E+0	1.305517E+0	1.253544E+0	1.296947E+0	1.220481E+0	1.270110E+0	1.253269E+0	1.284227E+0	1.320608E+0	1.273095E+0	1.182271E+0	1.240746E+0	1.283666E+0	1.231501E+0	1.250751E+0	1.282666E+0	1.311865E+0	1.250955E+0	1.215602E+0	1.211039E+0	1.291840E+0	1.248881E+0	1.257678E+0	1.207895E+0	1.255912E+0	1.273027E+0	1.226303E+0	1.217719E+0	1.317209E+0	1.279473E+0	1.262347E+0	1.237116E+0	1.261572E+0	1.268922E+0	1.269255E+0	1.262309E+0	1.240749E+0	1.339117E+0	1.187930E+0	1.254141E+0	1.252716E+0	1.241671E+0	1.270225E+0	1.217195E+0	1.249838E+0	1.251954E+0
5.512620E+2	1.216933E+0	1.257936E+0	1.287899E+0	1.226723E+0	1.290913E+0	1.235934E+0	1.217294E+0	1.253740E+0	1.275380E+0	1.201212E+0	1.254854E+0	1.187513E+0	1.299236E+0	1.265030E+0	1.255794E+0	1.245156E+0	1.236083E+0	1.197590E+0	1.218377E+0	1.294287E+0	1.205041E+0	1.223302E+0	1.240339E+0	1.246719E+0	1.271444E+0	1.283966E+0	1.298493E+0	1.278545E+0	1.197084E+0	1.219846E+0	1.267017E+0	1.222395E+0	1.277684E+0	1.255007E+0	1.285989E+0	1.243145E+0	1.250661E+0	1.236567E+0	1.254979E+0	1.220383E+0	1.280267E+0	1.292395E+0	1.228230E+0	1.201083E+0	1.212019E+0	1.241610E+0	1.242170E+0	1.273470E+0	1.204997E+0	1.254595E+0	1.220275E+0	1.276795E+0	1.269065E+0	1.286346E+0	1.275572E+0	1.265799E+0	1.278024E+0	1.298035E+0	1.243720E+0	1.193376E+0	1.256036E+0	1.259332E+0	1.274004E+0	1.201203E+0	1.196506E+0	1.263950E+0	1.334124E+0	1.259245E+0	1.230828E+0	1.236739E+0	1.306321E+0	1.227709E+0	1.253830E+0	1.249673E+0	1.145474E+0	1.266201E+0	1.280158E+0	1.269682E+0	1.239249E+0	1.206845E+0	1.265737E+0	1.285392E+0	1.288629E+0	1.192422E+0	1.246771E+0	1.250186E+0	1.296311E+0	1.298679E+0	1.288780E+0	1.212621E+0	1.266164E+0	1.254459E+0	1.217367E+0	1.274477E+0	1.212101E+0	1.267532E+0	1.267279E+0	1.351260E+0	1.282467E+0	1.275578E+0	1.241712E+0	1.225423E+0	1.206748E+0	1.271854E+0	1.267548E+0	1.253448E+0	1.237191E+0	1.257789E+0	1.289382E+0	1.301166E+0	1.219993E+0	1.257679E+0	1.277751E+0	1.283276E+0	1.188473E+0	1.245972E+0	1.264638E+0	1.233525E+0	1.230609E+0	1.260120E+0	1.247683E+0	1.296154E+0	1.215805E+0	1.244524E+0	1.269203E+0	1.219362E+0	1.242584E+0	1.282475E+0	1.230288E+0	1.288814E+0	1.163646E+0	1.262223E+0	1.276608E+0	1.272068E+0	1.201871E+0	1.264077E+0	1.245579E+0	1.219172E+0	1.221599E+0	1.214532E+0	1.241589E+0	1.285895E+0	1.209038E+0	1.249621E+0	1.242680E+0	1.271023E+0	1.278240E+0	1.230208E+0	1.281760E+0	1.266701E+0	1.264478E+0	1.213516E+0	1.267099E+0	1.272403E+0	1.272364E+0	1.255268E+0	1.231595E+0	1.296387E+0	1.199279E+0	1.293393E+0	1.220022E+0	1.263357E+0	1.185522E+0	1.257787E+0	1.307908E+0	1.187386E+0
5.520150E+2	1.227231E+0	1.278178E+0	1.249354E+0	1.248256E+0	1.270130E+0	1.227507E+0	1.256273E+0	1.221180E+0	1.242311E+0	1.243053E+0	1.244026E+0	1.187442E+0	1.266866E+0	1.206300E+0	1.247035E+0	1.180708E+0	1.275500E+0	1.201326E+0	1.255652E+0	1.195012E+0	1.276819E+0	1.192244E+0	1.220452E+0	1.230975E+0	1.240728E+0	1.273185E+0	1.239078E+0	1.239833E+0	1.145919E+0	1.271170E+0	1.244845E+0	1.234576E+0	1.224090E+0	1.258589E+0	1.199293E+0	1.250664E+0	1.232687E+0	1.236515E+0	1.241533E+0	1.203525E+0	1.241228E+0	1.273146E+0	1.254261E+0	1.263362E+0	1.191019E+0	1.269750E+0	1.184841E+0	1.240169E+0	1.222228E+0	1.191734E+0	1.229593E+0	1.217278E+0	1.211863E+0	1.239648E+0	1.252207E+0	1.238296E+0	1.196989E+0	1.139488E+0	1.247520E+0	1.284575E+0	1.233619E+0	1.244280E+0	1.115227E+0	1.235305E+0	1.260188E+0	1.276134E+0	1.251937E+0	1.192821E+0	1.219772E+0	1.250629E+0	1.245793E+0	1.244161E+0	1.244273E+0	1.203061E+0	1.244532E+0	1.176585E+0	1.251483E+0	1.191215E+0	1.252117E+0	1.185466E+0	1.227681E+0	1.245729E+0	1.202206E+0	1.240341E+0	1.210705E+0	1.241691E+0	1.208568E+0	1.211489E+0	1.246246E+0	1.193470E+0	1.268086E+0	1.214379E+0	1.206011E+0	1.218180E+0	1.235118E+0	1.178312E+0	1.242607E+0	1.236156E+0	1.276031E+0	1.194110E+0	1.180476E+0	1.205334E+0	1.189114E+0	1.167983E+0	1.233881E+0	1.283762E+0	1.164323E+0	1.201651E+0	1.225678E+0	1.267466E+0	1.250445E+0	1.172851E+0	1.225852E+0	1.195689E+0	1.210817E+0	1.208152E+0	1.179829E+0	1.281836E+0	1.165176E+0	1.201171E+0	1.233666E+0	1.245174E+0	1.170448E+0	1.195512E+0	1.233161E+0	1.287369E+0	1.173807E+0	1.230640E+0	1.177088E+0	1.290298E+0	1.242360E+0	1.243403E+0	1.268899E+0	1.253290E+0	1.196514E+0	1.236596E+0	1.204481E+0	1.209800E+0	1.237305E+0	1.267782E+0	1.238455E+0	1.227473E+0	1.205960E+0	1.174498E+0	1.232361E+0	1.270432E+0	1.252539E+0	1.164021E+0	1.264886E+0	1.255033E+0	1.215999E+0	1.181586E+0	1.294871E+0	1.253157E+0	1.269389E+0	1.206345E+0	1.204698E+0	1.295354E+0	1.199654E+0	1.224643E+0	1.215088E+0	1.228684E+0	1.232081E+0	1.231275E+0	1.172458E+0	1.224843E+0
5.527590E+2	1.223097E+0	1.204422E+0	1.188559E+0	1.164695E+0	1.196752E+0	1.257667E+0	1.189874E+0	1.178615E+0	1.128800E+0	1.157857E+0	1.258405E+0	1.220688E+0	1.218483E+0	1.220781E+0	1.189841E+0	1.188596E+0	1.225421E+0	1.241641E+0	1.230552E+0	1.232664E+0	1.259278E+0	1.203362E+0	1.169039E+0	1.206049E+0	1.193619E+0	1.199059E+0	1.244484E+0	1.163465E+0	1.164712E+0	1.245660E+0	1.201097E+0	1.195224E+0	1.260102E+0	1.136947E+0	1.212872E+0	1.188902E+0	1.206323E+0	1.216516E+0	1.264430E+0	1.195122E+0	1.153058E+0	1.239164E+0	1.241343E+0	1.188509E+0	1.162307E+0	1.277394E+0	1.217551E+0	1.187345E+0	1.172016E+0	1.141279E+0	1.156085E+0	1.188720E+0	1.165087E+0	1.241040E+0	1.137920E+0	1.211216E+0	1.231032E+0	1.227857E+0	1.251320E+0	1.225032E+0	1.265245E+0	1.155259E+0	1.138412E+0	1.242581E+0	1.219370E+0	1.197614E+0	1.201387E+0	1.238070E+0	1.141591E+0	1.265948E+0	1.210925E+0	1.176973E+0	1.226118E+0	1.159418E+0	1.189861E+0	1.220035E+0	1.220803E+0	1.212958E+0	1.188503E+0	1.189184E+0	1.214610E+0	1.223754E+0	1.237564E+0	1.223477E+0	1.203067E+0	1.207266E+0	1.231011E+0	1.190618E+0	1.226895E+0	1.153256E+0	1.179623E+0	1.154526E+0	1.198262E+0	1.225691E+0	1.235638E+0	1.205083E+0	1.199366E+0	1.166670E+0	1.205560E+0	1.216614E+0	1.175425E+0	1.189357E+0	1.172615E+0	1.219086E+0	1.206533E+0	1.187403E+0	1.174277E+0	1.168783E+0	1.146412E+0	1.209548E+0	1.234580E+0	1.151171E+0	1.225987E+0	1.172482E+0	1.176977E+0	1.175287E+0	1.193288E+0	1.221899E+0	1.189658E+0	1.201607E+0	1.167572E+0	1.226180E+0	1.170723E+0	1.166861E+0	1.196668E+0	1.194841E+0	1.192629E+0	1.198683E+0	1.216806E+0	1.224292E+0	1.217026E+0	1.144815E+0	1.210712E+0	1.195333E+0	1.242782E+0	1.204661E+0	1.196364E+0	1.195821E+0	1.197806E+0	1.218710E+0	1.222802E+0	1.227913E+0	1.144925E+0	1.161629E+0	1.166847E+0	1.194606E+0	1.198847E+0	1.132978E+0	1.247156E+0	1.183478E+0	1.203048E+0	1.191860E+0	1.239863E+0	1.221498E+0	1.197370E+0	1.258892E+0	1.165903E+0	1.207196E+0	1.148842E+0	1.189922E+0	1.165776E+0	1.253269E+0	1.164221E+0	1.220145E+0	1.156295E+0	1.158529E+0
5.535100E+2	1.174832E+0	1.191141E+0	1.214605E+0	1.217933E+0	1.200214E+0	1.216019E+0	1.158605E+0	1.171573E+0	1.183922E+0	1.167061E+0	1.192157E+0	1.167070E+0	1.178451E+0	1.173416E+0	1.187113E+0	1.145421E+0	1.160586E+0	1.150001E+0	1.157503E+0	1.208477E+0	1.149561E+0	1.211633E+0	1.149199E+0	1.199539E+0	1.180942E+0	1.166751E+0	1.212799E+0	1.140598E+0	1.054845E+0	1.209199E+0	1.194726E+0	1.139991E+0	1.130611E+0	1.173744E+0	1.158642E+0	1.175502E+0	1.152531E+0	1.209577E+0	1.165614E+0	1.145135E+0	1.178194E+0	1.163995E+0	1.160784E+0	1.204882E+0	1.201624E+0	1.165339E+0	1.151086E+0	1.141040E+0	1.144892E+0	1.152599E+0	1.181922E+0	1.111302E+0	1.200782E+0	1.171229E+0	1.135000E+0	1.169178E+0	1.163934E+0	1.144001E+0	1.157271E+0	1.194713E+0	1.144850E+0	1.146410E+0	1.127214E+0	1.166952E+0	1.160378E+0	1.206868E+0	1.166670E+0	1.175126E+0	1.157054E+0	1.191130E+0	1.183590E+0	1.175220E+0	1.210111E+0	1.097419E+0	1.138647E+0	1.167229E+0	1.163535E+0	1.153548E+0	1.126319E+0	1.168569E+0	1.183662E+0	1.201564E+0	1.211092E+0	1.158996E+0	1.150129E+0	1.179215E+0	1.194664E+0	1.132820E+0	1.125105E+0	1.174758E+0	1.147690E+0	1.188489E+0	1.108955E+0	1.161932E+0	1.158655E+0	1.150509E+0	1.173423E+0	1.136661E+0	1.206523E+0	1.195270E+0	1.111780E+0	1.188352E+0	1.137982E+0	1.180764E+0	1.232547E+0	1.176853E+0	1.196176E+0	1.113472E+0	1.236443E+0	1.132063E+0	1.154214E+0	1.145762E+0	1.107130E+0	1.168309E+0	1.171512E+0	1.147025E+0	1.131001E+0	1.123087E+0	1.117949E+0	1.173416E+0	1.192476E+0	1.247755E+0	1.106070E+0	1.146383E+0	1.190186E+0	1.191627E+0	1.110852E+0	1.160930E+0	1.146956E+0	1.165763E+0	1.133340E+0	1.189846E+0	1.155613E+0	1.246154E+0	1.155923E+0	1.184197E+0	1.158582E+0	1.207112E+0	1.161605E+0	1.137626E+0	1.184824E+0	1.176477E+0	1.174915E+0	1.131539E+0	1.144742E+0	1.159849E+0	1.127093E+0	1.120915E+0	1.197255E+0	1.197623E+0	1.250543E+0	1.186086E+0	1.151790E+0	1.196673E+0	1.187281E+0	1.171532E+0	1.142172E+0	1.263889E+0	1.189086E+0	1.164513E+0	1.109455E+0	1.230217E+0	1.113490E+0	1.204136E+0	1.116953E+0	1.262057E+0
5.542530E+2	1.225893E+0	1.198237E+0	1.130199E+0	1.133192E+0	1.174346E+0	1.152119E+0	1.149249E+0	1.092452E+0	1.164109E+0	1.104187E+0	1.193460E+0	1.114024E+0	1.162386E+0	1.177278E+0	1.122082E+0	1.133292E+0	1.099413E+0	1.108373E+0	1.135802E+0	1.104229E+0	1.143930E+0	1.106871E+0	1.096971E+0	1.147841E+0	1.140749E+0	1.194511E+0	1.178890E+0	1.174651E+0	1.076361E+0	1.141105E+0	1.139455E+0	1.135565E+0	1.113347E+0	1.140065E+0	1.142058E+0	1.100420E+0	1.138756E+0	1.167760E+0	1.176006E+0	1.181580E+0	1.070570E+0	1.121449E+0	1.162778E+0	1.160455E+0	1.137377E+0	1.124662E+0	1.105975E+0	1.140248E+0	1.126017E+0	1.088894E+0	1.111129E+0	1.107458E+0	1.083631E+0	1.174320E+0	1.153736E+0	1.094414E+0	1.146500E+0	1.158344E+0	1.121948E+0	1.096158E+0	1.171870E+0	1.093984E+0	1.083019E+0	1.164561E+0	1.216261E+0	1.136715E+0	1.126695E+0	1.102074E+0	1.083992E+0	1.131406E+0	1.175732E+0	1.131685E+0	1.148881E+0	1.125327E+0	1.124709E+0	1.066153E+0	1.136540E+0	1.167077E+0	1.097937E+0	1.113216E+0	1.101501E+0	1.092730E+0	1.113596E+0	1.157013E+0	1.074566E+0	1.135234E+0	1.120815E+0	1.099348E+0	1.116531E+0	1.088636E+0	1.157615E+0	1.119451E+0	1.164515E+0	1.145545E+0	1.112058E+0	1.092246E+0	1.115335E+0	1.165667E+0	1.183050E+0	1.143593E+0	1.084166E+0	1.090260E+0	1.098054E+0	1.166769E+0	1.141632E+0	1.174628E+0	1.104307E+0	1.162728E+0	1.173371E+0	1.106226E+0	1.166134E+0	1.084453E+0	1.143829E+0	1.139988E+0	1.073787E+0	1.117474E+0	1.102658E+0	1.104204E+0	1.124313E+0	1.110043E+0	1.133222E+0	1.149544E+0	1.126570E+0	1.212829E+0	1.141945E+0	1.117879E+0	1.092964E+0	1.159784E+0	1.183598E+0	1.087692E+0	1.123876E+0	1.110735E+0	1.126477E+0	1.132040E+0	1.086407E+0	1.093400E+0	1.167325E+0	1.120468E+0	1.066571E+0	1.100937E+0	1.155413E+0	1.127443E+0	1.132954E+0	1.132093E+0	1.078976E+0	1.211622E+0	1.124393E+0	1.161867E+0	1.135957E+0	1.161666E+0	1.157940E+0	1.102236E+0	1.128900E+0	1.130951E+0	1.073792E+0	1.110622E+0	1.129267E+0	1.143029E+0	1.150285E+0	1.113657E+0	1.088876E+0	1.201068E+0	1.089106E+0	1.089577E+0	1.198628E+0	1.119082E+0
5.550190E+2	9.994047E-1	1.004012E+0	1.046691E+0	9.963263E-1	1.056510E+0	9.459828E-1	1.008489E+0	1.066699E+0	1.007759E+0	1.035719E+0	9.908960E-1	1.007443E+0	1.033811E+0	1.020293E+0	9.962965E-1	1.061116E+0	9.804615E-1	9.953115E-1	1.002994E+0	1.000091E+0	1.049332E+0	1.019218E+0	1.019706E+0	9.785046E-1	1.023318E+0	1.021414E+0	1.046267E+0	1.031641E+0	9.412396E-1	1.078004E+0	1.044043E+0	9.752528E-1	1.006452E+0	1.056186E+0	1.009068E+0	1.011203E+0	9.568207E-1	9.888325E-1	1.061250E+0	1.032085E+0	1.005749E+0	1.041212E+0	1.020462E+0	1.036502E+0	1.038382E+0	1.011816E+0	9.927996E-1	9.899410E-1	1.013096E+0	1.015939E+0	1.046245E+0	9.453171E-1	1.037739E+0	1.060271E+0	1.009665E+0	9.951137E-1	1.009727E+0	9.571498E-1	1.117948E+0	1.065596E+0	1.009872E+0	1.017705E+0	9.980691E-1	1.026381E+0	1.058629E+0	1.011218E+0	1.024012E+0	1.030051E+0	9.951564E-1	1.028584E+0	1.029205E+0	1.018796E+0	1.069056E+0	9.765197E-1	1.038624E+0	1.010507E+0	9.953043E-1	9.861801E-1	1.019536E+0	1.005662E+0	1.010059E+0	9.986747E-1	1.033277E+0	1.014437E+0	1.000053E+0	9.774529E-1	1.052711E+0	1.062257E+0	1.043814E+0	1.028201E+0	1.028523E+0	1.048377E+0	1.041978E+0	1.044099E+0	1.016444E+0	1.021332E+0	1.020838E+0	9.671777E-1	1.023306E+0	1.026475E+0	1.053758E+0	1.016281E+0	1.028380E+0	1.008689E+0	1.003687E+0	1.057225E+0	1.037363E+0	1.019779E+0	1.037481E+0	1.025254E+0	1.027365E+0	9.975231E-1	1.047488E+0	1.037009E+0	1.063963E+0	1.013120E+0	1.030358E+0	9.847459E-1	9.752868E-1	1.077005E+0	9.861618E-1	1.000937E+0	1.036666E+0	9.894983E-1	1.045622E+0	1.043805E+0	1.056769E+0	1.043523E+0	1.085418E+0	1.031108E+0	1.011121E+0	9.700690E-1	1.021545E+0	9.975613E-1	9.687578E-1	1.038396E+0	1.025673E+0	1.088224E+0	1.015412E+0	1.028681E+0	1.023725E+0	1.013069E+0	9.685395E-1	9.905456E-1	1.032270E+0	1.044924E+0	1.098406E+0	9.840701E-1	1.026162E+0	1.051392E+0	1.045068E+0	9.883589E-1	9.917170E-1	1.038101E+0	1.038812E+0	1.012942E+0	1.034760E+0	1.064641E+0	1.036352E+0	1.049584E+0	1.027998E+0	1.054454E+0	9.781798E-1	1.040614E+0	9.707935E-1	9.886684E-1
5.557660E+2	1.026154E+0	1.044364E+0	1.013868E+0	9.675894E-1	9.731135E-1	9.273429E-1	9.298834E-1	1.020770E+0	9.787171E-1	9.627622E-1	1.036444E+0	9.722991E-1	9.880263E-1	9.785486E-1	1.008524E+0	9.632683E-1	9.797175E-1	9.547574E-1	1.046476E+0	1.000028E+0	9.615609E-1	9.732351E-1	1.010795E+0	9.784886E-1	1.013819E+0	1.033418E+0	1.021750E+0	9.823449E-1	9.624338E-1	9.799523E-1	1.046393E+0	1.010076E+0	9.658900E-1	9.489923E-1	9.485371E-1	9.766396E-1	9.560881E-1	9.808435E-1	1.035336E+0	9.564802E-1	9.752731E-1	9.768777E-1	1.026623E+0	9.853629E-1	9.625311E-1	1.009990E+0	1.013615E+0	9.490174E-1	9.251965E-1	9.685088E-1	1.022372E+0	9.915121E-1	1.012408E+0	9.749580E-1	1.003144E+0	9.576528E-1	9.896792E-1	9.842880E-1	9.764030E-1	1.014067E+0	1.005042E+0	9.366355E-1	9.875352E-1	1.021494E+0	1.036953E+0	1.000862E+0	9.714861E-1	1.011419E+0	9.869211E-1	9.647712E-1	9.871906E-1	9.864022E-1	1.027364E+0	9.373200E-1	9.508104E-1	1.002338E+0	1.013264E+0	9.610453E-1	9.747954E-1	9.602832E-1	9.975251E-1	9.870810E-1	9.810909E-1	9.577348E-1	9.815488E-1	1.021467E+0	9.978805E-1	9.910768E-1	1.006874E+0	9.846736E-1	1.008824E+0	9.952662E-1	9.838292E-1	9.877424E-1	9.511990E-1	9.770546E-1	1.021017E+0	1.003656E+0	9.912062E-1	9.960605E-1	9.514870E-1	9.909002E-1	9.877024E-1	9.832704E-1	1.010820E+0	9.701011E-1	1.017117E+0	9.680888E-1	9.895604E-1	9.564372E-1	1.032021E+0	9.847369E-1	1.032145E+0	9.638644E-1	9.981578E-1	9.663549E-1	1.019435E+0	9.708767E-1	9.606450E-1	9.988389E-1	1.018092E+0	1.013749E+0	9.538462E-1	1.029794E+0	9.916063E-1	9.725024E-1	9.994338E-1	1.016367E+0	9.939785E-1	9.423879E-1	1.015032E+0	9.901599E-1	9.795216E-1	1.020276E+0	9.929156E-1	1.034756E+0	1.004464E+0	9.878879E-1	9.714559E-1	1.005042E+0	1.008569E+0	1.010527E+0	9.843384E-1	1.009448E+0	9.476019E-1	1.004135E+0	9.737949E-1	9.151111E-1	9.705562E-1	1.014589E+0	1.007516E+0	9.334433E-1	9.867946E-1	1.019398E+0	9.554111E-1	9.920758E-1	9.881534E-1	1.070607E+0	1.009734E+0	1.012834E+0	9.662862E-1	1.009533E+0	9.839621E-1	9.697054E-1	1.023725E+0	9.533650E-1
5.560130E+2	9.787630E-1	9.637209E-1	9.948855E-1	9.116438E-1	9.541594E-1	9.684425E-1	9.179527E-1	9.833549E-1	9.380042E-1	9.520006E-1	9.510726E-1	9.139566E-1	1.024584E+0	9.548774E-1	9.902081E-1	9.402309E-1	9.619869E-1	9.764139E-1	1.007824E+0	1.032438E+0	1.003380E+0	9.304763E-1	9.570406E-1	9.412684E-1	9.704200E-1	9.383855E-1	1.032095E+0	9.768394E-1	9.213714E-1	9.760814E-1	1.054950E+0	1.001341E+0	1.005950E+0	9.683669E-1	9.842831E-1	9.499692E-1	9.617062E-1	1.004140E+0	9.507245E-1	9.662110E-1	9.403185E-1	9.620110E-1	9.695224E-1	9.871199E-1	9.394009E-1	9.626119E-1	9.860212E-1	9.987719E-1	9.648961E-1	9.867264E-1	9.367374E-1	9.754441E-1	9.855846E-1	9.911637E-1	9.524332E-1	9.553809E-1	9.854958E-1	9.437976E-1	9.248167E-1	9.843194E-1	9.778331E-1	9.064899E-1	9.411595E-1	9.795872E-1	9.204940E-1	9.749050E-1	9.649748E-1	9.821358E-1	9.262253E-1	9.648557E-1	9.724798E-1	9.486793E-1	9.101098E-1	9.160290E-1	9.508954E-1	9.527496E-1	9.862789E-1	9.890203E-1	9.612290E-1	9.034187E-1	9.350348E-1	9.882663E-1	9.768225E-1	9.310389E-1	9.720276E-1	9.795014E-1	9.536484E-1	9.856426E-1	1.035423E+0	9.754084E-1	9.369663E-1	9.823459E-1	9.556402E-1	9.531186E-1	1.021864E+0	9.828469E-1	9.764778E-1	9.764463E-1	1.003282E+0	9.702997E-1	9.777020E-1	9.797974E-1	8.703383E-1	9.979790E-1	9.524914E-1	9.719814E-1	9.423441E-1	9.286571E-1	9.414583E-1	1.003580E+0	9.961750E-1	9.646819E-1	9.761663E-1	9.220057E-1	9.416556E-1	9.908411E-1	9.845983E-1	9.890129E-1	9.644136E-1	9.788238E-1	9.587836E-1	9.731825E-1	9.721592E-1	9.997420E-1	1.000349E+0	9.723965E-1	9.991665E-1	9.804938E-1	1.006601E+0	9.851431E-1	9.217494E-1	9.560417E-1	9.534341E-1	9.531699E-1	9.526659E-1	9.757055E-1	9.555083E-1	9.504741E-1	9.495214E-1	9.486864E-1	9.830409E-1	9.597554E-1	9.309948E-1	9.922252E-1	9.360233E-1	9.110285E-1	9.373930E-1	9.568228E-1	1.047134E+0	9.544334E-1	9.780970E-1	9.276678E-1	1.014332E+0	9.559107E-1	9.434653E-1	9.937178E-1	9.516803E-1	9.534278E-1	9.481999E-1	9.665619E-1	9.433878E-1	9.796754E-1	9.703533E-1	9.832174E-1	9.583381E-1	1.032523E+0
5.565090E+2	9.060804E-1	9.642542E-1	9.186622E-1	9.098158E-1	9.635890E-1	9.513897E-1	9.459080E-1	9.401657E-1	9.422786E-1	9.154845E-1	9.561026E-1	9.218531E-1	9.610193E-1	9.100295E-1	9.507055E-1	9.221345E-1	9.407353E-1	8.840781E-1	9.278751E-1	9.511293E-1	9.422172E-1	9.097316E-1	9.440183E-1	9.396412E-1	9.343487E-1	9.706808E-1	9.621500E-1	9.408778E-1	8.822991E-1	9.381312E-1	8.787129E-1	9.352671E-1	9.378306E-1	9.051742E-1	9.295598E-1	9.224867E-1	8.768439E-1	9.528164E-1	9.428565E-1	9.587603E-1	9.226849E-1	9.215258E-1	9.685620E-1	9.424591E-1	9.710329E-1	9.779108E-1	9.822313E-1	9.087629E-1	9.189903E-1	9.415827E-1	9.512510E-1	9.529046E-1	9.624979E-1	9.269835E-1	9.374668E-1	9.541431E-1	9.484960E-1	8.906855E-1	9.750631E-1	9.590972E-1	9.036415E-1	9.029786E-1	9.607791E-1	9.381267E-1	9.067147E-1	9.353592E-1	9.924254E-1	9.069909E-1	9.784484E-1	9.011534E-1	8.793898E-1	9.223992E-1	9.676482E-1	8.900432E-1	8.995890E-1	9.100973E-1	9.266278E-1	9.400830E-1	9.496445E-1	9.226758E-1	9.242089E-1	9.441251E-1	9.758624E-1	9.751786E-1	9.165455E-1	9.321613E-1	9.321495E-1	9.651499E-1	9.519002E-1	9.711403E-1	9.591581E-1	9.297309E-1	9.409889E-1	9.164540E-1	9.530567E-1	9.264540E-1	9.097279E-1	9.147127E-1	9.704538E-1	9.455054E-1	9.060428E-1	8.702743E-1	9.074579E-1	9.158936E-1	9.639121E-1	9.302854E-1	9.158245E-1	9.258350E-1	9.142614E-1	9.753871E-1	9.622690E-1	9.343874E-1	9.574089E-1	9.141668E-1	9.544742E-1	8.851968E-1	9.654062E-1	9.316937E-1	8.966267E-1	9.064760E-1	9.262146E-1	9.287729E-1	9.030320E-1	9.324232E-1	9.784831E-1	9.201777E-1	9.375160E-1	9.781900E-1	9.740179E-1	9.319327E-1	9.398226E-1	9.387887E-1	9.622994E-1	9.586706E-1	9.460631E-1	9.242930E-1	9.150775E-1	8.804134E-1	9.631093E-1	9.021370E-1	9.052949E-1	9.245118E-1	9.486784E-1	9.680836E-1	9.497754E-1	9.290984E-1	9.366864E-1	9.415191E-1	9.530800E-1	9.198394E-1	9.757288E-1	9.310402E-1	9.812355E-1	9.339538E-1	9.123485E-1	9.735974E-1	9.627769E-1	9.876112E-1	9.867984E-1	9.196562E-1	9.331423E-1	9.519118E-1	9.290132E-1	9.352160E-1	9.693310E-1	8.969912E-1
5.570220E+2	9.476803E-1	9.586269E-1	9.698323E-1	9.510027E-1	9.271090E-1	8.995633E-1	8.857470E-1	9.208380E-1	1.005946E+0	9.442515E-1	8.773570E-1	9.537618E-1	9.268567E-1	9.550221E-1	9.311964E-1	9.865419E-1	9.573785E-1	9.176249E-1	9.609032E-1	9.358358E-1	9.413408E-1	8.834652E-1	9.215879E-1	9.063363E-1	9.387291E-1	9.552980E-1	9.700915E-1	9.752867E-1	9.395581E-1	9.604629E-1	9.690936E-1	9.077623E-1	9.484132E-1	9.223601E-1	9.210896E-1	9.031629E-1	9.635043E-1	9.577187E-1	9.329220E-1	9.524322E-1	9.238873E-1	9.787477E-1	1.005932E+0	9.575221E-1	9.154381E-1	9.348054E-1	9.377827E-1	9.217140E-1	9.696441E-1	9.106158E-1	9.442233E-1	9.165727E-1	9.352037E-1	9.791319E-1	9.476110E-1	9.055506E-1	9.494134E-1	9.116625E-1	9.582482E-1	9.273115E-1	9.004902E-1	9.409218E-1	9.051670E-1	9.373698E-1	1.026076E+0	9.854857E-1	9.489956E-1	9.261519E-1	9.044944E-1	9.527134E-1	9.553948E-1	9.466668E-1	9.728439E-1	9.626269E-1	9.631960E-1	9.353364E-1	9.188848E-1	9.574679E-1	9.520796E-1	9.211357E-1	9.394010E-1	9.432508E-1	9.294353E-1	9.428712E-1	9.759926E-1	9.661300E-1	1.014390E+0	8.969052E-1	9.712630E-1	9.348418E-1	9.147872E-1	9.504896E-1	8.908935E-1	9.243449E-1	1.007736E+0	9.485096E-1	9.257825E-1	9.632004E-1	9.895803E-1	9.315947E-1	9.475733E-1	8.909213E-1	9.145870E-1	9.133423E-1	1.015280E+0	9.350046E-1	9.204887E-1	9.243730E-1	9.602924E-1	9.355794E-1	9.361872E-1	9.258182E-1	1.026740E+0	1.000222E+0	9.472610E-1	9.273508E-1	9.239829E-1	9.383801E-1	9.321095E-1	9.259456E-1	9.458872E-1	9.348630E-1	9.023837E-1	9.317468E-1	9.578693E-1	9.738499E-1	9.990348E-1	9.597282E-1	1.018623E+0	9.968579E-1	9.353668E-1	9.409231E-1	9.584920E-1	9.811001E-1	9.486510E-1	9.634519E-1	9.049451E-1	9.712959E-1	9.191539E-1	9.408571E-1	9.449157E-1	9.653693E-1	9.784180E-1	9.118437E-1	9.959958E-1	9.675417E-1	9.287677E-1	9.617595E-1	9.517031E-1	9.088323E-1	9.432484E-1	9.220314E-1	9.172896E-1	9.757925E-1	9.774940E-1	9.244094E-1	9.393609E-1	9.286942E-1	9.619376E-1	9.012624E-1	9.359900E-1	9.579033E-1	9.894520E-1	9.797687E-1	9.594482E-1	9.196028E-1
5.575130E+2	9.151361E-1	8.963852E-1	9.292498E-1	8.820952E-1	9.436694E-1	9.449483E-1	9.484558E-1	9.213605E-1	8.929860E-1	9.451765E-1	9.688217E-1	8.779149E-1	9.574407E-1	9.222059E-1	9.586166E-1	9.311400E-1	9.483512E-1	9.183146E-1	9.646201E-1	9.945484E-1	9.289998E-1	9.211901E-1	9.417552E-1	9.097284E-1	9.125278E-1	9.359149E-1	9.251251E-1	9.471524E-1	8.691717E-1	9.566516E-1	8.744437E-1	9.146987E-1	9.493110E-1	9.050332E-1	8.931764E-1	9.108092E-1	9.177263E-1	9.433641E-1	9.492028E-1	9.063207E-1	9.233151E-1	9.161542E-1	9.426152E-1	9.191334E-1	9.645179E-1	9.204995E-1	9.264606E-1	9.466052E-1	9.864784E-1	9.383723E-1	9.508409E-1	9.064173E-1	9.782824E-1	9.114129E-1	9.422167E-1	9.269852E-1	9.518037E-1	9.005239E-1	9.501468E-1	9.128767E-1	8.971680E-1	9.329841E-1	9.236878E-1	9.174708E-1	9.601522E-1	9.107497E-1	9.490838E-1	9.624925E-1	9.015010E-1	9.131208E-1	9.545527E-1	9.434094E-1	8.720371E-1	9.663824E-1	9.070619E-1	9.519645E-1	9.603967E-1	9.669669E-1	9.812663E-1	8.691220E-1	9.837974E-1	9.573045E-1	9.539394E-1	9.766705E-1	9.890615E-1	8.921131E-1	9.181142E-1	9.335710E-1	1.006887E+0	9.368170E-1	9.269519E-1	9.414959E-1	8.818762E-1	8.972481E-1	9.131295E-1	9.406591E-1	9.416143E-1	9.393299E-1	9.305723E-1	8.760339E-1	9.796659E-1	9.641414E-1	9.023514E-1	9.952715E-1	1.008485E+0	9.454964E-1	9.204217E-1	9.260556E-1	9.334995E-1	9.352280E-1	9.212303E-1	9.296830E-1	8.992123E-1	9.144134E-1	8.902065E-1	8.678904E-1	9.186035E-1	9.009029E-1	9.151287E-1	9.841398E-1	8.911571E-1	9.714590E-1	9.486076E-1	9.209576E-1	9.444578E-1	9.419069E-1	9.392895E-1	9.053993E-1	9.408629E-1	9.747737E-1	9.560663E-1	8.968563E-1	9.737339E-1	9.565175E-1	9.280740E-1	9.504318E-1	9.265699E-1	9.397842E-1	9.377998E-1	9.660232E-1	9.443394E-1	9.369104E-1	9.105176E-1	8.931968E-1	9.279250E-1	9.253967E-1	9.570634E-1	8.923856E-1	9.492942E-1	8.994809E-1	9.793134E-1	9.683601E-1	9.865182E-1	9.099640E-1	9.095818E-1	9.285041E-1	9.537816E-1	9.889493E-1	9.581383E-1	9.138540E-1	9.299474E-1	9.803288E-1	9.332092E-1	9.893090E-1	8.918631E-1	8.877029E-1
5.580170E+2	1.033901E+0	9.740367E-1	1.051207E+0	9.389020E-1	1.034697E+0	9.746876E-1	9.851081E-1	1.004514E+0	1.007726E+0	1.006973E+0	9.900897E-1	9.939368E-1	9.742180E-1	1.012412E+0	1.023271E+0	9.857006E-1	1.005376E+0	1.018740E+0	1.050915E+0	9.910637E-1	1.003968E+0	9.800235E-1	1.014385E+0	9.711762E-1	9.711251E-1	1.021524E+0	1.015225E+0	9.906406E-1	1.002546E+0	1.073832E+0	1.038978E+0	9.871582E-1	1.036905E+0	1.006257E+0	1.000735E+0	9.613681E-1	9.843132E-1	9.948236E-1	1.019642E+0	1.035560E+0	9.434770E-1	9.894986E-1	9.993064E-1	9.977923E-1	9.697159E-1	9.927992E-1	1.003251E+0	9.887395E-1	9.966135E-1	9.855486E-1	9.894067E-1	9.667293E-1	9.913344E-1	9.707802E-1	9.733851E-1	1.000087E+0	1.030925E+0	9.754850E-1	9.887031E-1	9.678170E-1	9.936012E-1	1.020465E+0	1.047329E+0	9.986879E-1	9.919448E-1	1.006580E+0	9.507178E-1	1.048928E+0	1.012190E+0	9.795450E-1	9.822493E-1	1.016150E+0	1.019507E+0	9.860601E-1	9.660900E-1	1.005308E+0	1.026662E+0	9.559166E-1	1.018146E+0	9.544792E-1	9.723461E-1	9.830833E-1	1.007302E+0	9.871297E-1	9.782984E-1	9.964629E-1	1.034665E+0	1.010223E+0	1.000917E+0	1.029527E+0	9.615758E-1	1.004746E+0	9.839130E-1	9.864173E-1	9.741297E-1	9.911376E-1	9.798022E-1	9.940817E-1	1.006967E+0	1.001730E+0	9.862910E-1	1.008441E+0	1.031421E+0	1.012221E+0	9.852352E-1	9.821214E-1	1.030233E+0	1.015605E+0	1.002023E+0	9.350523E-1	1.022254E+0	1.011524E+0	9.584232E-1	1.000143E+0	1.004747E+0	9.878258E-1	9.794749E-1	9.994326E-1	1.003456E+0	9.606989E-1	9.521289E-1	9.766665E-1	1.002255E+0	1.020487E+0	9.830905E-1	9.762882E-1	1.009859E+0	9.988509E-1	9.846926E-1	1.011401E+0	9.655485E-1	9.617627E-1	1.020384E+0	1.026979E+0	9.834042E-1	9.772524E-1	9.951750E-1	9.981033E-1	9.682857E-1	9.952292E-1	1.008404E+0	9.660130E-1	1.013613E+0	9.838070E-1	1.007932E+0	1.020628E+0	9.946865E-1	1.012107E+0	1.011371E+0	9.749622E-1	9.872022E-1	9.838412E-1	1.004323E+0	9.844818E-1	1.017696E+0	9.873610E-1	9.441953E-1	9.501526E-1	9.981130E-1	1.010970E+0	1.007335E+0	1.022918E+0	1.004352E+0	1.004226E+0	1.013876E+0	1.016988E+0
5.585220E+2	9.474303E-1	9.441480E-1	9.856313E-1	9.900951E-1	9.574536E-1	9.836992E-1	9.642638E-1	9.897772E-1	9.745381E-1	9.637436E-1	9.967748E-1	9.489974E-1	1.004296E+0	9.673379E-1	9.630823E-1	9.967890E-1	9.627485E-1	9.961213E-1	1.022899E+0	9.902180E-1	9.797864E-1	9.931027E-1	1.003238E+0	1.025920E+0	9.861390E-1	9.697922E-1	1.018604E+0	9.755792E-1	9.517849E-1	9.958377E-1	9.517807E-1	9.724977E-1	9.601697E-1	9.809992E-1	9.862608E-1	9.567748E-1	9.917257E-1	9.791979E-1	9.661990E-1	1.009443E+0	9.931685E-1	9.589183E-1	9.403985E-1	9.695847E-1	9.801107E-1	9.816943E-1	9.631411E-1	9.904529E-1	9.736394E-1	9.938860E-1	9.569028E-1	9.642062E-1	9.651575E-1	9.924482E-1	9.919016E-1	1.035644E+0	9.799145E-1	1.041588E+0	9.795652E-1	9.436439E-1	1.020247E+0	9.859293E-1	9.538030E-1	9.801592E-1	9.730121E-1	1.004380E+0	9.928503E-1	9.508684E-1	9.836061E-1	9.894565E-1	1.001956E+0	1.018774E+0	9.836850E-1	9.363382E-1	9.700137E-1	9.542466E-1	9.828875E-1	9.496785E-1	9.810386E-1	9.744232E-1	9.283525E-1	9.731313E-1	9.893085E-1	9.869808E-1	9.803973E-1	9.411038E-1	9.726148E-1	9.628140E-1	9.736161E-1	1.033953E+0	1.008287E+0	9.929302E-1	1.007953E+0	1.011928E+0	9.879436E-1	9.624448E-1	1.008023E+0	9.837111E-1	9.326994E-1	9.538422E-1	1.023701E+0	9.652944E-1	9.447641E-1	9.794685E-1	1.014190E+0	1.028000E+0	1.035473E+0	1.026602E+0	1.010870E+0	9.550608E-1	9.612078E-1	1.021335E+0	9.924644E-1	9.632971E-1	1.026217E+0	1.007886E+0	1.002817E+0	1.016100E+0	9.620411E-1	1.004665E+0	9.946552E-1	1.011412E+0	9.356217E-1	9.806290E-1	1.004090E+0	9.817696E-1	9.810388E-1	1.000838E+0	1.004765E+0	9.775921E-1	9.650284E-1	9.983703E-1	9.672551E-1	9.338760E-1	1.002178E+0	9.831318E-1	1.014154E+0	9.636069E-1	9.943603E-1	9.579713E-1	9.803200E-1	1.000463E+0	9.980530E-1	9.619612E-1	1.011097E+0	9.728775E-1	9.819837E-1	1.021807E+0	9.868144E-1	1.003149E+0	9.608546E-1	9.949880E-1	9.611342E-1	9.887847E-1	9.986595E-1	1.026304E+0	1.018238E+0	9.790644E-1	9.820218E-1	9.862141E-1	9.751694E-1	1.022568E+0	9.872542E-1	9.695783E-1	9.279161E-1	9.200553E-1
5.590210E+2	1.033964E+0	1.030587E+0	9.937417E-1	1.025299E+0	1.033204E+0	1.018312E+0	1.029202E+0	1.002537E+0	1.030801E+0	1.043209E+0	1.053644E+0	1.022093E+0	1.064243E+0	1.045714E+0	1.012887E+0	1.037683E+0	1.035745E+0	9.990382E-1	1.024720E+0	1.006616E+0	1.055005E+0	1.031844E+0	1.020512E+0	1.036578E+0	1.024729E+0	1.030774E+0	9.811053E-1	1.051697E+0	1.027118E+0	1.036136E+0	1.036894E+0	1.012401E+0	1.024024E+0	1.026115E+0	1.039989E+0	1.021585E+0	1.023882E+0	9.850357E-1	1.030627E+0	9.982607E-1	1.085635E+0	1.070040E+0	1.052299E+0	1.044606E+0	1.022441E+0	1.019641E+0	1.026836E+0	1.002779E+0	1.025967E+0	1.026829E+0	9.929867E-1	1.028499E+0	1.059095E+0	1.031874E+0	1.050085E+0	1.009466E+0	1.043918E+0	1.019427E+0	1.013446E+0	1.036643E+0	1.034940E+0	1.011169E+0	1.015659E+0	1.050613E+0	1.021910E+0	9.942634E-1	1.070023E+0	1.042644E+0	1.013206E+0	1.008182E+0	1.056121E+0	1.031699E+0	1.002573E+0	1.021619E+0	1.004331E+0	9.992718E-1	1.065110E+0	1.040013E+0	9.836787E-1	1.026896E+0	1.043162E+0	9.981443E-1	9.931420E-1	1.035621E+0	1.032233E+0	1.046598E+0	9.913213E-1	9.949157E-1	1.015275E+0	9.950602E-1	1.047678E+0	1.009275E+0	1.017307E+0	1.045683E+0	1.020459E+0	1.044723E+0	1.019874E+0	1.013014E+0	1.021073E+0	1.059366E+0	1.038856E+0	1.022079E+0	1.047756E+0	9.990507E-1	1.011176E+0	9.924478E-1	1.037654E+0	9.724258E-1	1.053235E+0	1.002560E+0	1.018945E+0	1.014038E+0	9.865487E-1	1.046378E+0	1.038398E+0	1.069009E+0	1.057751E+0	1.018145E+0	1.015717E+0	1.026908E+0	1.010382E+0	1.059781E+0	1.048228E+0	1.063232E+0	1.057763E+0	1.065685E+0	9.929615E-1	9.842303E-1	1.045466E+0	1.021197E+0	1.072194E+0	9.918463E-1	1.035665E+0	1.067773E+0	1.034734E+0	1.058616E+0	9.599174E-1	1.080142E+0	1.044285E+0	1.032483E+0	1.047812E+0	1.039232E+0	1.044930E+0	1.062584E+0	1.056871E+0	1.040029E+0	1.032705E+0	1.063939E+0	1.038751E+0	1.045060E+0	1.049909E+0	1.032729E+0	1.021074E+0	9.727893E-1	1.018956E+0	1.023095E+0	1.021808E+0	1.040181E+0	1.033762E+0	1.039247E+0	1.013427E+0	1.052271E+0	9.885645E-1	1.030899E+0	9.808444E-1	1.076457E+0
5.595110E+2	1.027908E+0	1.053200E+0	1.008273E+0	1.014457E+0	1.062542E+0	9.948612E-1	1.008256E+0	1.049826E+0	1.008705E+0	1.035287E+0	1.026089E+0	1.012717E+0	9.637369E-1	1.018282E+0	9.698913E-1	9.771161E-1	9.770596E-1	1.057095E+0	9.793646E-1	1.061833E+0	1.021887E+0	9.657641E-1	9.947332E-1	1.042466E+0	1.010178E+0	9.969621E-1	9.939791E-1	1.013834E+0	1.024672E+0	9.827970E-1	9.936772E-1	1.036663E+0	1.018400E+0	1.013410E+0	1.037730E+0	1.058864E+0	1.011912E+0	1.041162E+0	1.038664E+0	9.936367E-1	9.965389E-1	1.029094E+0	1.003741E+0	9.752719E-1	1.030269E+0	1.021579E+0	1.006745E+0	9.607131E-1	1.031135E+0	9.760211E-1	1.048160E+0	9.965141E-1	1.006242E+0	1.021383E+0	1.014131E+0	9.540007E-1	1.019807E+0	9.740319E-1	9.886834E-1	9.789760E-1	1.010340E+0	1.029581E+0	1.034516E+0	9.682029E-1	1.032241E+0	9.986655E-1	9.849778E-1	1.041114E+0	1.006671E+0	1.002575E+0	9.868342E-1	9.956757E-1	1.002003E+0	1.026319E+0	1.017685E+0	1.028693E+0	9.977914E-1	1.025907E+0	1.050245E+0	1.021997E+0	1.002091E+0	1.011080E+0	1.062066E+0	9.692843E-1	1.041491E+0	1.020252E+0	1.013782E+0	1.032950E+0	1.059438E+0	9.936698E-1	9.874870E-1	9.989992E-1	1.033954E+0	1.003053E+0	1.053534E+0	1.015895E+0	1.024420E+0	1.022768E+0	9.973543E-1	9.834776E-1	9.853415E-1	1.002660E+0	9.926226E-1	1.022793E+0	9.803570E-1	9.578288E-1	1.031877E+0	9.908736E-1	1.015120E+0	1.026767E+0	1.021083E+0	1.023905E+0	1.052832E+0	1.004051E+0	1.059848E+0	1.028556E+0	9.803923E-1	9.749879E-1	9.909478E-1	9.464404E-1	1.052493E+0	9.543827E-1	9.960541E-1	9.953195E-1	1.011362E+0	9.865600E-1	1.032270E+0	1.042965E+0	9.800200E-1	9.982722E-1	1.016583E+0	1.044170E+0	1.016808E+0	1.053652E+0	1.006613E+0	1.030109E+0	1.025226E+0	1.014051E+0	9.939057E-1	1.016820E+0	9.879430E-1	1.032581E+0	1.013195E+0	1.018687E+0	9.919990E-1	9.955345E-1	1.005237E+0	9.441259E-1	1.016417E+0	1.007178E+0	1.008301E+0	1.057907E+0	1.033984E+0	1.078237E+0	1.025691E+0	9.938924E-1	1.017649E+0	1.027465E+0	1.033777E+0	1.016214E+0	9.658042E-1	1.003707E+0	1.049874E+0	1.007684E+0	1.079354E+0	1.062087E+0
5.600520E+2	9.852236E-1	1.000140E+0	9.781202E-1	9.788084E-1	9.554853E-1	1.009916E+0	9.880151E-1	9.265772E-1	9.608568E-1	9.504777E-1	9.189502E-1	9.706770E-1	1.022202E+0	9.531741E-1	1.020451E+0	9.515986E-1	1.002816E+0	9.600223E-1	9.494107E-1	9.902897E-1	9.654155E-1	9.683084E-1	9.639118E-1	9.319182E-1	9.420866E-1	9.853222E-1	9.974037E-1	9.883948E-1	9.880317E-1	9.899161E-1	9.732823E-1	9.566406E-1	9.792932E-1	9.227619E-1	9.579626E-1	9.905389E-1	9.646373E-1	9.800211E-1	9.575996E-1	9.785794E-1	9.597331E-1	9.824181E-1	9.920696E-1	9.962179E-1	9.929832E-1	9.870226E-1	9.525367E-1	1.041216E+0	9.716370E-1	1.032696E+0	9.857977E-1	9.995574E-1	9.955013E-1	9.813631E-1	9.696752E-1	9.945694E-1	9.896249E-1	9.791407E-1	9.827703E-1	9.763967E-1	9.696990E-1	9.863268E-1	9.626712E-1	9.690641E-1	1.007974E+0	9.663636E-1	9.519374E-1	9.436162E-1	9.873820E-1	9.805442E-1	9.920282E-1	9.718515E-1	1.022093E+0	9.689970E-1	1.031088E+0	9.773772E-1	9.362720E-1	9.849814E-1	9.347039E-1	9.537617E-1	1.047213E+0	9.839635E-1	9.563939E-1	9.908064E-1	9.904908E-1	9.856339E-1	9.812960E-1	1.010128E+0	9.643278E-1	9.805706E-1	9.879945E-1	9.946225E-1	9.611734E-1	9.620264E-1	9.380621E-1	9.617800E-1	9.845880E-1	9.736563E-1	1.002870E+0	9.860395E-1	9.774365E-1	9.792355E-1	1.012258E+0	9.779360E-1	9.447268E-1	1.009951E+0	9.179161E-1	9.964408E-1	9.655782E-1	1.011384E+0	9.940354E-1	8.960057E-1	9.810195E-1	9.634741E-1	9.588661E-1	9.380295E-1	9.954696E-1	9.466573E-1	9.852024E-1	1.005576E+0	9.615315E-1	9.645841E-1	9.855813E-1	9.699394E-1	9.356580E-1	9.803628E-1	9.405048E-1	9.640557E-1	9.856697E-1	1.014714E+0	9.825632E-1	9.900368E-1	9.555750E-1	9.319696E-1	9.779902E-1	9.649981E-1	9.244676E-1	9.478292E-1	1.006370E+0	9.771839E-1	9.474314E-1	9.670996E-1	9.334310E-1	9.547277E-1	9.314786E-1	9.563822E-1	9.839297E-1	9.443345E-1	9.523886E-1	9.169028E-1	9.786252E-1	9.289400E-1	9.315172E-1	9.565141E-1	9.698119E-1	9.792193E-1	9.376086E-1	9.759024E-1	9.674591E-1	9.190136E-1	9.588397E-1	9.602548E-1	9.727914E-1	1.013155E+0	9.629101E-1	9.219691E-1
5.605090E+2	9.978807E-1	9.864574E-1	1.002539E+0	1.026292E+0	9.997779E-1	1.010411E+0	1.038609E+0	1.000968E+0	1.036913E+0	1.007228E+0	1.024495E+0	1.028925E+0	9.730767E-1	1.009828E+0	1.042590E+0	1.054713E+0	1.039975E+0	9.738354E-1	9.841559E-1	9.809215E-1	1.005357E+0	1.065656E+0	9.879463E-1	1.015021E+0	1.027667E+0	1.032564E+0	9.946622E-1	9.996897E-1	1.025828E+0	9.938353E-1	1.016072E+0	1.009607E+0	9.884125E-1	1.025783E+0	9.766653E-1	1.002996E+0	1.027352E+0	1.014431E+0	1.003614E+0	1.018499E+0	1.026982E+0	9.955385E-1	1.034151E+0	1.037578E+0	1.009550E+0	1.002348E+0	1.015139E+0	1.009167E+0	1.005940E+0	9.970758E-1	1.029891E+0	1.009601E+0	9.772257E-1	1.034745E+0	1.035029E+0	1.016991E+0	9.752010E-1	1.065719E+0	1.051322E+0	1.045416E+0	9.714844E-1	9.991701E-1	9.366804E-1	1.009315E+0	1.018360E+0	1.021397E+0	9.881395E-1	9.944653E-1	1.003241E+0	1.036367E+0	1.014068E+0	1.003670E+0	9.402334E-1	1.013032E+0	9.516742E-1	1.018422E+0	9.860563E-1	1.022829E+0	1.023469E+0	1.043742E+0	1.005718E+0	1.051365E+0	9.871866E-1	1.045174E+0	9.828002E-1	1.012103E+0	1.026180E+0	9.897780E-1	9.946281E-1	9.804027E-1	1.012167E+0	9.605231E-1	1.004068E+0	1.024849E+0	1.028585E+0	1.017523E+0	9.764284E-1	1.004874E+0	1.038198E+0	1.002271E+0	1.009342E+0	1.044506E+0	9.965514E-1	9.951960E-1	1.013626E+0	1.013706E+0	9.779645E-1	9.986603E-1	9.754772E-1	1.026343E+0	9.619843E-1	1.023394E+0	1.012452E+0	1.019403E+0	9.598161E-1	9.679787E-1	9.850371E-1	1.041490E+0	1.027494E+0	1.051883E+0	9.795310E-1	1.024273E+0	1.032540E+0	9.893675E-1	9.963997E-1	1.008831E+0	9.943956E-1	1.023300E+0	1.003118E+0	9.958788E-1	1.007781E+0	1.049023E+0	9.687938E-1	9.846269E-1	1.007796E+0	9.868111E-1	1.100713E+0	9.908430E-1	1.006366E+0	1.047357E+0	1.017598E+0	1.007225E+0	1.007259E+0	1.029267E+0	1.025586E+0	9.868046E-1	9.956713E-1	1.029128E+0	9.880369E-1	1.046545E+0	1.010509E+0	9.760161E-1	1.021509E+0	1.006020E+0	9.856327E-1	9.812345E-1	1.038840E+0	1.031355E+0	9.986330E-1	1.000874E+0	9.883312E-1	9.792619E-1	1.031490E+0	9.841883E-1	1.065311E+0	1.067201E+0
5.610180E+2	9.736922E-1	1.011431E+0	9.804881E-1	1.026146E+0	9.568401E-1	1.008113E+0	9.865463E-1	1.025800E+0	9.804600E-1	9.930820E-1	9.899572E-1	1.022654E+0	9.982270E-1	9.932512E-1	9.678273E-1	9.964001E-1	9.762804E-1	9.951473E-1	9.885346E-1	9.790580E-1	9.685813E-1	9.953014E-1	1.015275E+0	9.769208E-1	1.038075E+0	9.630621E-1	9.990206E-1	9.801638E-1	9.800200E-1	9.276453E-1	9.893150E-1	1.025033E+0	9.927957E-1	1.024674E+0	1.000657E+0	1.007873E+0	9.961781E-1	1.005328E+0	9.836534E-1	9.660217E-1	9.944654E-1	9.744932E-1	9.780355E-1	9.789496E-1	9.949296E-1	9.949152E-1	1.032351E+0	1.006932E+0	9.950684E-1	9.879438E-1	9.968550E-1	1.034892E+0	1.005444E+0	9.674059E-1	9.657926E-1	9.892416E-1	9.606099E-1	9.446091E-1	9.955103E-1	1.051107E+0	9.996886E-1	9.673583E-1	1.049342E+0	1.023958E+0	9.545574E-1	1.008350E+0	1.061354E+0	9.783632E-1	9.937036E-1	1.003330E+0	9.667439E-1	9.621798E-1	1.029906E+0	1.047635E+0	1.059118E+0	1.016682E+0	1.005221E+0	1.020674E+0	1.008719E+0	1.024701E+0	1.001117E+0	9.992331E-1	1.004601E+0	9.850035E-1	9.942897E-1	9.978460E-1	9.801407E-1	9.991913E-1	9.917979E-1	9.868169E-1	9.948104E-1	1.038904E+0	9.916326E-1	9.660435E-1	9.972880E-1	1.006497E+0	1.006865E+0	1.007894E+0	1.000840E+0	1.013274E+0	9.790315E-1	9.777833E-1	9.746273E-1	1.013335E+0	1.050688E+0	1.015946E+0	9.688829E-1	9.993926E-1	9.776953E-1	1.042833E+0	1.020490E+0	1.009798E+0	1.016260E+0	1.003253E+0	9.521088E-1	1.000714E+0	9.990577E-1	1.003187E+0	1.015142E+0	1.003828E+0	1.049278E+0	1.008901E+0	9.997201E-1	9.810251E-1	1.011636E+0	1.000503E+0	1.048970E+0	9.857591E-1	9.962686E-1	9.809455E-1	9.903009E-1	9.647902E-1	1.035518E+0	1.001124E+0	9.872845E-1	9.990821E-1	9.803466E-1	1.005425E+0	9.864274E-1	9.729555E-1	1.010492E+0	9.873869E-1	9.895187E-1	9.889661E-1	9.750357E-1	1.027744E+0	1.005787E+0	9.845590E-1	1.006222E+0	1.006204E+0	1.004599E+0	1.025579E+0	1.026458E+0	1.013173E+0	9.835518E-1	1.008894E+0	1.021660E+0	9.958803E-1	9.862341E-1	1.027467E+0	1.091094E+0	9.590202E-1	9.656738E-1	9.902682E-1	9.697889E-1	9.352419E-1
