Photon Energy (eV)	#1	#2	#3	#4	#5	#6	#7	#8	#9	#10	#11	#12	#13	#14	#15	#16	#17	#18	#19	#20	#21	#22	#23	#24	#25	#26	#27	#28	#29	#30	#31	#32	#33	#34	#35	#36	#37	#38	#39	#40	#41	#42	#43	#44	#45	#46	#47	#48	#49	#50	#51	#52	#53	#54	#55	#56	#57	#58	#59	#60	#61	#62	#63	#64	#65	#66	#67	#68	#69	#70	#71	#72	#73	#74	#75	#76	#77	#78	#79	#80	#81	#82	#83	#84	#85	#86	#87	#88	#89	#90	#91	#92	#93	#94	#95	#96	#97	#98	#99	#100	#101	#102	#103	#104	#105	#106	#107	#108	#109	#110	#111	#112	#113	#114	#115	#116	#117	#118	#119	#120	#121	#122	#123	#124	#125	#126	#127	#128	#129	#130	#131	#132	#133	#134	#135	#136	#137	#138	#139	#140	#141	#142	#143	#144	#145	#146	#147	#148	#149	#150	#151	#152	#153	#154	#155	#156	#157	#158	#159	#160	#161	#162	#163	#164	#165	#166	#167	#168	#169	#170	#171	
5.300220E+2	-5.424664E-3	7.933117E-4	-1.790828E-2	-9.161976E-3	-8.710726E-3	-3.038314E-3	4.999292E-4	-9.116614E-3	-5.987090E-3	-1.034775E-2	-1.507005E-2	-5.664535E-3	-9.142001E-3	-1.170800E-2	-6.911395E-3	-8.838718E-3	-1.315984E-2	7.003451E-3	-9.022720E-3	-6.534959E-3	-5.295936E-3	-9.329014E-3	-1.539126E-2	-1.847585E-2	-1.343700E-3	-4.773245E-3	-1.010542E-2	-8.025118E-3	-4.964227E-3	-1.097780E-2	-1.165030E-2	-1.220363E-2	-7.522697E-3	-7.807405E-3	-1.578700E-2	-1.105986E-2	-6.684087E-3	-1.801571E-2	-7.353422E-3	-2.329982E-3	-9.823313E-3	-4.992301E-3	-1.291120E-2	-1.177670E-2	-9.421505E-3	7.326795E-4	-1.008822E-2	-1.296352E-2	-4.730110E-3	-8.735126E-3	-8.311209E-3	-1.251611E-2	-1.034023E-2	-2.717712E-3	-1.689959E-2	-7.081815E-3	-1.052660E-2	-3.599149E-3	-7.536373E-3	-1.092432E-3	-9.854025E-3	-1.129186E-2	-9.144271E-3	4.213541E-3	-1.199746E-3	-1.180832E-2	-6.494853E-3	-8.723670E-3	-8.242455E-3	-1.029530E-2	-9.214409E-4	-9.693264E-3	-8.204693E-3	-8.300675E-3	-5.469914E-3	-9.226158E-3	-1.297574E-2	-8.814999E-3	-1.040216E-2	-7.121720E-3	-1.187789E-2	-9.557084E-3	-7.639338E-3	-6.934040E-3	3.357586E-3	-9.279493E-3	-4.895634E-3	1.660295E-3	-1.145273E-2	-6.885866E-3	-1.156664E-2	-5.749941E-3	-8.926084E-3	-4.094618E-3	-9.968919E-3	1.330148E-3	-6.467532E-3	3.435708E-4	-8.396865E-3	-1.337479E-2	-8.259500E-3	-2.088666E-2	-7.969402E-3	-5.901796E-3	-1.414911E-2	-3.960183E-3	-6.295387E-3	-9.122468E-3	-9.823204E-3	-9.838880E-3	-1.411494E-2	-8.685954E-3	-7.655536E-3	1.605151E-3	-2.187458E-3	-2.443146E-3	-9.224626E-3	-1.010191E-2	-1.939229E-3	-1.187605E-2	-1.095581E-2	-2.879618E-3	-9.919878E-3	-4.590004E-3	-1.546247E-2	-5.755484E-3	-1.077366E-2	-1.091814E-2	1.833824E-4	-3.371039E-3	-1.160216E-2	-1.312394E-2	-5.607828E-3	-3.239317E-3	-5.331675E-3	-1.207907E-2	7.616407E-3	-2.375172E-3	-2.565236E-3	-1.422552E-2	-1.818210E-2	-5.384599E-3	-1.041389E-2	-3.751685E-3	-3.524217E-3	-1.108988E-2	-7.655957E-3	-9.672514E-3	-2.843299E-3	-4.983740E-3	-5.332165E-3	1.530454E-4	-7.664570E-3	-8.743801E-3	-5.619101E-3	-8.854389E-3	-9.712247E-3	-2.629964E-3	-8.559710E-3	-1.086215E-2	-1.080237E-2	-9.705858E-3	-7.838762E-3	-1.188852E-2	-5.100627E-3	-6.915911E-3	2.178476E-3	-8.599449E-3	-8.985606E-3	-7.220467E-3	-2.580178E-2
5.305230E+2	-9.381937E-3	-2.115566E-3	-1.044472E-2	-1.065033E-2	-1.155689E-3	-6.672780E-3	-1.434523E-2	-1.052131E-2	-6.731345E-3	-1.048338E-2	-3.904460E-3	-1.098610E-2	-6.475559E-3	-1.767177E-3	-1.030460E-2	-4.817886E-3	-1.009340E-2	-5.904900E-3	-1.229960E-3	-8.601861E-4	-6.246498E-3	-5.995838E-3	-1.022390E-2	-1.790457E-2	-7.542300E-3	-6.977368E-3	-1.162436E-2	-3.528045E-3	-4.068271E-3	1.016463E-3	-3.367671E-3	-7.104596E-3	-8.781200E-3	-2.246221E-3	-8.093712E-3	-2.938432E-3	-1.082184E-2	-1.040057E-2	-1.255851E-2	-4.496657E-3	-1.133694E-2	-6.650373E-3	-6.587516E-3	-3.944328E-3	-5.631241E-3	-8.509501E-3	-6.517236E-3	-7.332332E-3	-2.472224E-3	-3.725998E-3	-8.499492E-3	-8.901501E-3	-7.751651E-3	-1.436421E-2	5.053242E-4	7.699289E-4	-8.813610E-3	8.231746E-4	-1.505939E-3	-1.004331E-2	-5.483525E-3	-5.473653E-3	-7.414260E-4	-9.110077E-3	1.056845E-3	-2.604218E-3	-9.603461E-3	-6.115186E-3	3.466921E-3	-9.410640E-3	-5.018470E-3	-7.396761E-3	-1.088078E-2	-7.747272E-3	-1.255595E-2	-1.637606E-2	-3.475488E-4	-3.351520E-3	-9.050334E-3	-1.059813E-2	-1.056183E-2	-7.681405E-3	-9.123611E-3	-3.689163E-3	-1.374180E-2	-2.126382E-3	-1.293945E-2	-5.847171E-4	-4.874722E-3	-6.369077E-3	-1.083061E-2	-2.662781E-3	-6.000215E-3	-1.002469E-2	-9.498230E-3	-8.182322E-3	-1.015921E-2	-9.437301E-3	2.115131E-3	-2.017940E-3	3.729127E-5	-4.519560E-3	-8.738413E-3	-6.813168E-3	-6.408841E-3	-2.930215E-3	-6.514605E-3	-3.591916E-3	-3.733933E-4	-1.416877E-2	-4.152987E-3	-1.024501E-2	-9.345886E-3	-1.327421E-2	-1.313325E-2	-1.303699E-2	-3.670013E-3	-1.041040E-2	-1.070072E-2	-7.343467E-3	-4.777943E-3	-9.667627E-4	-1.145895E-2	-1.333388E-2	-1.020609E-4	-1.729392E-3	-5.444123E-3	-3.314756E-3	-3.461327E-3	-1.239873E-2	-6.306839E-3	-2.943560E-3	-9.050567E-3	-1.088553E-2	-6.904765E-3	-4.155590E-3	3.392700E-3	-4.726341E-4	-1.486788E-2	-6.731325E-3	-3.442256E-3	9.982395E-4	-1.003940E-2	-4.102742E-4	-3.841030E-3	-2.244210E-3	-1.097148E-2	-2.968958E-3	-3.785506E-3	-1.045360E-2	-5.557610E-3	-8.266533E-3	-1.440007E-2	-6.311258E-3	-4.410290E-3	-6.225123E-3	-4.914362E-3	-9.125129E-3	2.420271E-4	-5.998508E-3	-4.436450E-3	-7.095620E-3	-2.007474E-2	-1.478528E-2	-5.560907E-3	-5.513279E-3	-6.304359E-3	1.974601E-3	-7.566812E-3	-6.340344E-3	-6.712637E-3
5.310050E+2	-1.066769E-2	-1.322201E-4	-2.914170E-3	-1.179057E-3	2.454663E-3	-7.345761E-3	-1.290704E-2	-7.941174E-3	-2.222646E-3	-3.701195E-3	-1.253308E-2	-7.732422E-3	-9.903815E-3	-1.124940E-2	-6.631517E-3	-1.560238E-2	-1.261377E-2	-1.208441E-2	-1.367322E-2	-4.109101E-3	-1.087075E-2	-4.159202E-3	-7.317289E-3	-3.402594E-3	-6.895137E-3	-6.977419E-3	-5.236242E-3	-1.082647E-2	-3.492303E-3	-5.082311E-3	-6.022351E-3	-7.104580E-3	-1.627543E-3	1.323351E-2	-7.450201E-3	-2.938467E-3	-8.067443E-3	-1.398424E-3	-5.314356E-3	-6.889339E-3	-4.849861E-3	-1.170892E-2	-8.323161E-4	-2.631632E-3	5.739532E-3	-1.140167E-2	-8.156960E-3	-5.588706E-3	-1.193847E-2	-1.020332E-2	-1.982111E-3	-5.204762E-3	-9.981043E-3	-4.417020E-3	7.137693E-3	-2.307858E-3	-1.440846E-2	-6.547349E-3	-1.531604E-2	-3.374576E-3	-6.053544E-3	-7.262839E-3	-1.433425E-2	-7.950366E-3	-2.156562E-3	-1.464837E-2	-8.146295E-3	-5.416505E-3	-1.080506E-2	-4.510907E-3	-6.235425E-3	1.014699E-3	-4.087632E-3	-9.170266E-3	-5.096944E-3	-6.541075E-3	-4.402499E-3	-3.351514E-3	-3.520038E-3	-4.966320E-3	-2.200821E-3	-2.679558E-3	-9.753736E-3	1.719045E-3	-1.312866E-2	3.216108E-3	-6.440863E-3	-1.105687E-2	-1.005492E-2	-6.369067E-3	-5.678170E-3	-1.188029E-2	-3.504270E-3	-2.965044E-3	-8.131730E-3	-4.554685E-3	-8.073969E-3	-5.829569E-3	-8.619462E-3	-1.121984E-2	-1.356176E-2	-4.519560E-3	-7.480067E-3	-7.454007E-3	-1.636065E-2	-4.235811E-3	-7.830035E-3	-5.683284E-3	-1.304020E-2	-1.598136E-3	-6.518639E-3	-8.398761E-3	-1.003114E-2	4.975678E-4	-7.158782E-3	-6.496561E-3	-1.066283E-3	-2.176830E-2	-2.270635E-3	9.710464E-3	-9.890669E-3	-2.413447E-3	1.989554E-3	-7.125185E-3	-1.246733E-2	-2.970318E-3	-6.055926E-3	-3.970214E-3	-1.076550E-2	-1.440984E-2	-1.499854E-3	-1.173939E-2	-7.840221E-3	5.593433E-3	-4.306975E-3	-9.707505E-3	-1.453836E-2	-1.089505E-2	-7.406666E-3	2.826074E-3	-5.291607E-3	9.981978E-4	-4.854054E-3	-6.623602E-3	1.343429E-3	-5.475209E-3	-5.033294E-3	-1.396336E-2	-7.851312E-3	1.568842E-3	-6.825695E-3	-8.496105E-4	6.242059E-4	-1.337359E-2	1.866393E-3	-2.024690E-3	-6.158785E-3	-1.629772E-2	-2.988594E-3	-5.998528E-3	-2.500874E-3	-1.320621E-2	-6.102834E-3	-4.158458E-3	-5.560869E-3	-9.887799E-3	-9.274978E-3	-5.333399E-3	-1.820761E-2	-2.331387E-2	1.272194E-2
5.315080E+2	-3.816567E-4	-1.454445E-3	3.110207E-3	-1.855609E-3	-8.978190E-3	5.769051E-5	-4.997085E-3	-9.231258E-3	9.978355E-4	-9.882630E-4	-3.240717E-3	5.282337E-3	-1.333230E-3	-1.767184E-3	1.239348E-3	-7.813555E-3	6.288899E-3	-3.433067E-3	3.294849E-3	-7.358007E-3	-2.778230E-3	1.263146E-4	-6.154655E-3	-3.402618E-3	-1.013105E-2	-5.663638E-3	-1.162438E-2	-1.537616E-3	-4.068253E-3	-4.472477E-3	1.410787E-3	-5.316587E-3	-4.012070E-3	-1.385596E-2	2.845707E-3	2.526426E-3	-8.067407E-3	-7.399854E-3	-2.161377E-2	-5.692997E-3	-1.606322E-3	-9.179662E-3	-5.948069E-3	-1.318936E-3	-3.925633E-3	-1.568192E-3	-2.144615E-3	5.454029E-3	1.314277E-3	-5.669227E-3	-5.892570E-3	1.572612E-3	5.130365E-5	-6.282120E-3	-7.332902E-3	-3.538903E-3	-1.105199E-4	1.531668E-4	-7.720497E-3	-4.708283E-3	-2.063106E-3	-9.052027E-3	-8.155705E-3	-1.432870E-2	-1.243974E-2	-1.197183E-2	2.782498E-3	-9.608636E-3	2.896073E-3	2.838720E-3	-6.235380E-3	-3.191035E-3	-7.793009E-3	2.213513E-3	-1.989074E-3	-4.433541E-3	-4.402486E-3	-1.026814E-2	-6.838214E-3	-4.340572E-3	-8.073133E-4	1.170073E-2	-4.082714E-3	-9.850837E-4	-1.479301E-3	-1.080804E-2	-5.141169E-3	-6.128804E-3	-1.174655E-3	-2.845601E-3	-9.358462E-3	-2.004410E-3	-2.256281E-3	3.388641E-3	-4.715494E-3	-3.345501E-3	9.620495E-4	-7.994272E-3	2.830744E-3	1.056183E-4	-6.144102E-3	-1.274886E-2	-3.075880E-3	-1.045671E-3	-2.143813E-3	-4.235808E-3	-6.514593E-3	-1.195749E-2	-1.002428E-2	-7.883423E-3	-1.787379E-3	-1.013959E-3	-5.234227E-3	-2.781429E-3	-3.839666E-3	-4.316460E-3	-9.528384E-3	2.840491E-3	-5.513007E-3	-5.979158E-3	-2.221605E-3	-3.860138E-3	-4.734731E-3	-1.404291E-4	1.752757E-3	-9.795340E-3	-7.279536E-3	4.550779E-3	-4.789364E-3	4.360605E-3	3.307093E-3	1.025017E-2	-1.788589E-3	-4.953092E-3	-4.306957E-3	-1.071217E-3	-1.238666E-2	-1.089502E-2	4.531187E-3	-4.683319E-3	8.728326E-4	-1.290958E-2	-4.854060E-3	-4.102685E-4	-1.291382E-2	8.741062E-3	-7.260114E-3	4.668440E-4	1.441919E-3	-1.361739E-2	3.319287E-3	-3.321918E-3	-4.601640E-3	7.510510E-4	-5.107728E-3	3.575988E-3	6.320987E-5	-1.151604E-2	-1.074214E-2	-5.998534E-3	-1.855709E-3	7.162472E-3	-8.643223E-3	-6.283831E-3	9.487474E-4	-6.763095E-3	1.864872E-3	-6.957435E-3	-1.820760E-2	-2.568425E-3	1.061158E-3
5.320070E+2	-8.096172E-3	-5.421122E-3	-7.432502E-3	-3.208662E-3	-4.766059E-3	4.769024E-3	6.508287E-3	-8.457324E-4	-1.578545E-3	7.150411E-3	-3.240702E-3	-1.875770E-3	1.523668E-3	5.483908E-3	-3.348089E-4	2.970957E-3	-1.199483E-5	2.746641E-4	2.729258E-3	3.038514E-3	2.424082E-3	1.350759E-3	8.959801E-3	8.462614E-3	2.812706E-3	2.218778E-3	1.009528E-2	-2.105837E-4	-2.340420E-3	-2.032924E-3	2.472653E-3	1.196710E-2	3.737662E-3	-2.246182E-3	-1.015278E-3	-5.670871E-3	-1.456793E-3	1.002172E-3	-4.710671E-3	-9.076927E-4	8.772961E-3	1.042222E-2	-5.308634E-3	5.244543E-3	1.191254E-3	3.059316E-3	-1.598119E-3	1.649681E-2	-8.151972E-3	1.181960E-2	2.580055E-3	3.420933E-3	6.086874E-4	-3.173632E-3	-1.336232E-2	7.699318E-4	-7.321318E-4	-5.168811E-4	-6.339468E-3	-2.707700E-3	-6.623644E-3	2.279577E-3	1.729995E-3	3.646635E-3	-2.799305E-3	-5.969143E-4	2.053929E-3	2.269060E-3	4.171159E-5	3.888659E-4	4.108664E-3	2.216362E-3	9.498650E-3	1.075135E-2	-5.096961E-3	1.102145E-2	-3.475728E-4	1.362565E-2	-2.413989E-3	1.291262E-3	9.643889E-3	-8.038510E-4	5.999038E-3	-1.315345E-2	-1.479273E-3	-1.229455E-4	4.606812E-3	1.879293E-3	2.525466E-3	-1.059717E-2	6.098794E-3	-1.346063E-3	-1.008296E-3	-8.612797E-3	6.216495E-3	-8.786967E-3	9.621134E-4	-2.943441E-3	-3.178831E-5	-1.310053E-3	3.729127E-5	-4.519560E-3	6.990567E-4	4.721821E-3	4.964621E-3	-4.888629E-3	7.955299E-3	1.035077E-2	1.436151E-3	8.115652E-3	-1.313798E-5	5.755452E-3	3.674374E-3	-8.683600E-3	-2.511989E-3	-4.316447E-3	1.537415E-3	1.041239E-2	1.620152E-3	-5.219318E-4	1.612935E-3	-7.476871E-3	-7.001692E-4	3.740018E-3	-5.666431E-3	3.234239E-3	4.344830E-3	-6.929200E-4	3.178875E-3	4.360605E-3	1.246965E-3	-7.341491E-3	-2.393786E-3	-8.248892E-3	1.538091E-3	1.625337E-4	4.109895E-3	4.738497E-3	9.007895E-3	-1.270007E-3	-1.592975E-3	-2.629908E-3	-2.261378E-3	5.181726E-3	-1.896827E-3	-2.244240E-3	-4.291008E-3	4.668376E-4	-7.270456E-3	-3.294277E-4	-1.119153E-3	2.240774E-3	4.543553E-3	1.457319E-3	-2.318072E-3	-7.625345E-3	6.320128E-5	4.622341E-3	4.764964E-3	4.197196E-4	1.104814E-2	-3.060922E-4	1.104441E-2	-2.033163E-3	-4.377347E-3	1.573432E-2	3.795985E-4	-5.333380E-3	1.253251E-2	1.203424E-3	1.061176E-3
5.325070E+2	7.975765E-3	-1.322201E-4	4.616305E-3	1.032176E-2	9.675396E-3	3.422881E-3	7.556092E-4	9.474946E-3	-9.344766E-4	-9.882505E-4	1.600767E-2	7.645511E-5	8.951556E-3	1.496615E-2	7.011326E-3	1.195812E-2	-4.422614E-3	2.128508E-3	3.860485E-3	1.018612E-2	8.204489E-3	9.309581E-3	1.244770E-2	2.098698E-2	7.990188E-3	9.444256E-3	1.137289E-2	3.770296E-3	1.033068E-2	7.725139E-3	-1.820511E-4	7.795189E-3	7.910643E-3	3.558686E-3	9.924059E-3	5.941959E-3	1.506979E-2	5.803274E-3	1.762564E-2	7.466603E-3	5.529488E-3	-3.272122E-4	1.259653E-2	7.869847E-3	6.308078E-3	5.373036E-3	5.507361E-3	-9.075889E-3	1.204264E-2	9.228642E-3	1.952525E-2	1.327892E-2	5.067483E-3	9.260400E-3	3.520044E-3	3.232139E-3	1.356576E-2	-2.527025E-3	1.092312E-2	1.263034E-2	3.637566E-3	1.003280E-2	8.526404E-3	1.002494E-2	2.984970E-3	1.546189E-2	7.882626E-3	1.065337E-2	3.466984E-3	1.001348E-3	-1.976110E-3	9.426248E-3	8.263493E-3	4.347981E-3	9.820992E-3	3.293986E-3	4.865894E-3	8.595380E-3	1.528283E-2	8.174566E-3	5.463362E-3	2.947511E-3	3.478604E-3	1.719039E-3	1.139634E-2	9.226487E-3	9.155843E-3	-2.432753E-3	6.225618E-3	7.724744E-3	1.051513E-2	9.188173E-3	4.607650E-3	9.036352E-3	1.168245E-2	6.932828E-3	5.132546E-3	-5.727950E-5	-3.609984E-3	9.307545E-3	-5.808606E-4	2.016824E-2	2.586569E-3	-5.531486E-3	1.278386E-2	1.143085E-2	9.270793E-3	5.908981E-4	4.452037E-3	9.829806E-3	1.595489E-2	1.447682E-3	-3.863629E-3	1.099036E-2	1.209216E-2	1.094454E-2	6.093971E-3	7.888426E-3	7.456320E-3	2.206733E-3	1.056018E-2	6.266711E-3	6.696501E-3	2.187829E-3	4.225762E-3	1.993324E-3	1.229829E-2	-4.625671E-3	-2.133272E-3	9.053284E-3	4.680526E-3	5.852226E-3	1.091985E-2	1.350334E-2	5.434737E-3	9.415677E-3	6.978854E-3	3.994074E-3	6.023394E-3	2.826027E-3	8.886529E-3	7.649787E-3	1.199832E-2	5.803039E-3	-6.007411E-4	-9.518716E-4	2.317294E-2	3.902577E-3	7.250215E-3	5.998172E-3	6.489556E-3	4.713068E-3	8.462948E-3	7.813363E-3	8.143105E-3	6.376298E-3	6.854056E-4	1.657668E-2	7.349473E-3	2.987003E-3	7.987349E-5	9.878283E-3	1.104442E-2	1.992886E-2	4.499416E-3	5.735500E-3	7.063519E-3	1.253053E-2	2.317332E-2	1.440493E-2	-2.825686E-3
5.330180E+2	2.597635E-2	8.462262E-3	3.097316E-2	1.573387E-2	1.148061E-2	8.807261E-3	2.448553E-2	2.818114E-2	1.645627E-2	1.935843E-2	2.198134E-2	2.090003E-2	1.637938E-2	6.041702E-3	1.593165E-2	2.214346E-2	3.401273E-2	1.201576E-2	1.404130E-2	5.637620E-3	1.456284E-2	8.697398E-3	1.767961E-2	1.373603E-2	1.510930E-2	1.272864E-2	1.712224E-2	2.035753E-2	8.602788E-3	1.382391E-2	1.733894E-2	1.196710E-2	1.029521E-2	9.363572E-3	1.957642E-2	1.413924E-2	2.002779E-2	3.040910E-2	3.392509E-2	1.285006E-2	1.331399E-2	2.243624E-2	1.899121E-2	6.557203E-3	5.739516E-3	1.231433E-2	2.299778E-2	1.300961E-2	1.393585E-2	7.285427E-3	2.580076E-3	8.349909E-3	2.234545E-2	2.169429E-2	2.643175E-2	8.156576E-3	2.102556E-2	1.221406E-2	2.749520E-2	9.295961E-3	2.644028E-2	2.076801E-2	2.211925E-2	1.350403E-2	1.455354E-2	2.616776E-2	1.152556E-2	1.694156E-2	9.175826E-3	1.998791E-2	1.627816E-2	7.623751E-3	1.320397E-2	7.905372E-3	2.038785E-2	2.226140E-2	1.760995E-2	3.565149E-3	1.694190E-2	1.756092E-2	1.034061E-2	6.073660E-3	2.112176E-2	2.132366E-2	1.507511E-2	9.894260E-3	1.565446E-2	1.666355E-2	1.880594E-2	2.534203E-2	2.081996E-2	1.445532E-2	1.708750E-2	1.327215E-2	1.441543E-2	1.660650E-2	1.764400E-2	2.591829E-2	1.571222E-2	1.850947E-2	2.847164E-2	2.702595E-2	2.397814E-2	2.202431E-2	2.131393E-2	8.819792E-3	9.928528E-3	1.941350E-2	2.737288E-2	1.554375E-2	1.063220E-2	2.114055E-2	3.245605E-2	1.164616E-2	1.673898E-2	1.966506E-2	1.585792E-2	2.113930E-2	1.134712E-2	1.380341E-2	1.567292E-2	1.133013E-2	1.812767E-2	1.926165E-2	2.771977E-2	1.502297E-2	1.291013E-2	1.897092E-2	1.778720E-2	1.240511E-2	1.017427E-2	1.904598E-2	1.576114E-2	8.230060E-3	1.387755E-2	1.743517E-2	4.827165E-3	1.590530E-2	5.277303E-3	2.125807E-2	1.874957E-2	1.127786E-2	2.042446E-2	2.110649E-4	2.143321E-2	1.326435E-2	1.203891E-2	2.176858E-2	1.305844E-2	2.181714E-2	9.025780E-3	5.331174E-3	1.303557E-2	1.840692E-2	7.445693E-3	1.477726E-2	1.997358E-2	1.836983E-2	9.933980E-3	2.545100E-2	8.467397E-3	1.327303E-2	2.057073E-2	1.922039E-2	1.515159E-2	7.610263E-3	4.092873E-3	1.171853E-2	1.726179E-2	2.383475E-2	2.049582E-2
5.331520E+2	1.504745E-2	2.565119E-2	2.796093E-2	1.911646E-2	1.569271E-2	2.630641E-2	2.089008E-2	2.173072E-2	3.127065E-2	2.614061E-2	3.127369E-2	1.764634E-2	1.752212E-2	3.002612E-2	3.009922E-2	1.914776E-2	8.179141E-3	4.538528E-2	2.705016E-2	1.733375E-2	1.571894E-2	3.563497E-2	2.523681E-2	2.428289E-2	2.158115E-2	1.601297E-2	2.159389E-2	2.433848E-2	1.781811E-2	2.114250E-2	2.742678E-2	1.077514E-2	1.566041E-2	1.581345E-2	1.185458E-2	1.823791E-2	1.727335E-2	1.840629E-2	1.521086E-2	9.261136E-3	1.136782E-2	2.117167E-2	2.922270E-2	2.493486E-2	2.563840E-2	-4.113304E-4	2.737038E-2	1.824039E-2	1.267371E-2	1.052414E-2	2.669436E-2	2.991424E-2	1.900133E-2	9.882067E-3	3.849054E-2	2.354546E-2	2.226888E-2	1.891453E-2	2.680469E-2	9.962902E-3	1.731915E-2	1.838241E-2	2.397280E-2	1.872264E-2	2.419397E-2	1.278546E-2	4.212619E-2	1.624292E-2	4.000349E-2	1.141329E-2	4.913584E-2	2.144264E-2	2.864293E-2	3.067286E-2	2.846844E-2	1.945144E-2	2.282339E-2	2.305747E-2	1.472976E-2	2.256699E-2	1.382437E-2	1.232593E-2	1.923136E-2	1.794356E-2	7.717585E-3	1.122993E-2	3.255083E-2	3.083178E-2	3.138627E-2	2.252326E-2	3.480508E-2	1.445532E-2	1.583951E-2	1.976702E-3	2.671390E-2	1.479267E-2	9.303037E-3	2.303203E-2	1.714352E-2	2.983485E-2	1.363633E-2	1.536784E-2	2.964060E-2	2.010186E-2	2.060308E-2	1.795870E-2	1.716348E-2	2.150484E-2	1.832515E-2	1.097258E-2	2.068617E-2	2.544838E-2	3.451190E-2	2.017152E-2	2.005813E-2	2.329864E-2	2.562186E-2	2.934222E-2	1.264408E-2	1.107479E-2	9.282061E-3	2.652041E-2	6.696479E-3	4.254420E-2	1.473624E-2	2.929347E-2	2.575805E-2	1.307177E-2	2.044330E-2	2.715335E-2	2.802876E-2	2.857478E-2	1.515598E-2	1.745830E-2	2.816543E-2	2.792208E-2	1.917196E-2	2.111649E-2	2.467632E-2	1.443140E-2	2.059893E-2	2.397633E-2	2.107267E-2	1.512307E-2	1.754487E-2	1.649532E-2	1.203887E-2	3.001439E-2	3.512987E-2	2.561369E-2	2.043890E-2	2.758185E-2	2.805981E-2	1.205081E-2	2.906541E-2	2.177803E-2	8.151812E-3	1.358807E-2	2.867177E-2	2.224182E-2	3.040395E-2	1.938366E-2	2.057073E-2	3.693163E-2	2.462011E-2	1.260971E-2	2.340205E-2	2.146249E-2	2.908485E-2	4.835209E-2	2.826974E-2
5.333180E+2	3.111934E-2	2.763451E-2	4.151589E-2	3.129376E-2	1.448925E-2	3.707509E-2	2.520457E-2	1.399024E-2	4.157631E-2	3.360108E-2	1.932637E-2	2.090002E-2	2.037901E-2	2.500610E-2	2.695086E-2	1.854861E-2	2.456141E-2	2.622871E-2	3.327181E-2	2.643067E-2	3.479414E-2	4.849148E-2	3.918862E-2	2.230536E-2	2.287552E-2	4.360137E-2	3.181492E-2	2.765595E-2	2.127390E-2	2.297216E-2	3.910745E-2	1.971498E-2	1.983335E-2	2.871323E-2	2.987230E-2	2.506894E-2	3.159640E-2	2.680830E-2	2.909565E-2	2.840238E-2	3.018037E-2	3.445028E-2	4.137263E-2	2.690387E-2	2.165862E-2	2.735379E-2	2.682379E-2	2.463356E-2	3.034398E-2	2.088783E-2	2.864958E-2	2.498525E-2	3.237783E-2	2.355940E-2	3.547583E-2	2.354546E-2	3.097195E-2	4.236623E-2	4.821028E-2	2.796835E-2	3.214089E-2	2.673204E-2	2.459064E-2	2.800023E-2	2.997823E-2	2.750599E-2	2.682591E-2	2.462720E-2	3.086932E-2	4.326172E-2	3.149005E-2	3.345905E-2	3.667114E-2	3.351883E-2	4.152161E-2	2.296395E-2	1.934775E-2	2.117108E-2	2.523726E-2	1.192915E-2	2.427558E-2	1.732777E-2	2.994328E-2	2.808384E-2	2.427199E-2	1.724028E-2	5.009709E-2	3.021578E-2	2.398608E-2	3.379832E-2	4.069356E-2	2.696474E-2	3.331127E-2	2.456758E-2	3.013014E-2	2.809402E-2	-4.280629E-4	3.096905E-2	2.644677E-2	2.204866E-2	3.746143E-3	2.222560E-2	5.354883E-2	1.817936E-2	3.624161E-2	3.884765E-2	3.031795E-2	2.289913E-2	2.496017E-2	3.097143E-2	4.375112E-2	3.529482E-2	3.108549E-2	3.066434E-2	2.669639E-2	3.710615E-2	2.887648E-2	3.375917E-2	2.950423E-2	9.028306E-3	2.909388E-2	2.869041E-2	3.830036E-2	1.382905E-2	2.462843E-2	2.246848E-2	2.698163E-2	3.208017E-2	2.309937E-2	3.117558E-2	2.940218E-2	3.150679E-2	3.633678E-2	3.723305E-2	2.621713E-2	3.347398E-2	1.415126E-2	4.270570E-2	2.915304E-2	3.218080E-2	4.217434E-2	2.760440E-2	2.172083E-2	3.127777E-2	2.920989E-2	2.748060E-2	2.614203E-2	3.688596E-2	2.757913E-2	2.877747E-2	3.629045E-2	1.707457E-2	1.891462E-2	3.394403E-2	2.697318E-2	2.947893E-2	2.681780E-2	3.391045E-2	3.061019E-2	2.288363E-2	3.492028E-2	3.364176E-2	1.358476E-2	3.834860E-2	2.994619E-2	2.885794E-2	3.379928E-2	3.201844E-2	1.607942E-2	4.080829E-2	5.547813E-2
5.334580E+2	3.754819E-2	2.234563E-2	4.226890E-2	2.926422E-2	4.156698E-2	3.572905E-2	4.605816E-2	4.043690E-2	4.350860E-2	2.071482E-2	4.322094E-2	2.870889E-2	5.066187E-2	4.006612E-2	2.065416E-2	2.094516E-2	3.275252E-2	5.589047E-2	5.476472E-2	2.513110E-2	3.537218E-2	4.359380E-2	4.848976E-2	3.746649E-2	3.193615E-2	5.214062E-2	3.692543E-2	4.490666E-2	4.258437E-2	4.370805E-2	3.698369E-2	2.627088E-2	3.533282E-2	3.580811E-2	2.408088E-2	4.009730E-2	3.875792E-2	5.381482E-2	4.660250E-2	2.541154E-2	5.158777E-2	3.571493E-2	3.050162E-2	3.084194E-2	3.359789E-2	3.892258E-2	2.190463E-2	4.032591E-2	2.781965E-2	3.384244E-2	3.125653E-2	2.991424E-2	4.296758E-2	2.915474E-2	6.260816E-2	4.755212E-2	3.967505E-2	3.566572E-2	5.994878E-2	2.796836E-2	3.727146E-2	3.269605E-2	3.447634E-2	3.031960E-2	3.447709E-2	3.754273E-2	3.994051E-2	4.279317E-2	2.630229E-2	4.448669E-2	5.156974E-2	2.865247E-2	3.975895E-2	3.849926E-2	4.711587E-2	3.279890E-2	3.267105E-2	3.186040E-2	4.238107E-2	2.757307E-2	4.657141E-2	4.108646E-2	3.561431E-2	4.025226E-2	4.757075E-2	4.929548E-2	4.489825E-2	2.713573E-2	3.212633E-2	2.816079E-2	5.762296E-2	1.774733E-2	2.519937E-2	3.445110E-2	4.652805E-2	3.474477E-2	3.849638E-2	2.880440E-2	5.292537E-2	4.682308E-2	3.279869E-2	3.662681E-2	4.977385E-2	4.509431E-2	3.268740E-2	4.276434E-2	3.886836E-2	2.847621E-2	4.426194E-2	2.811443E-2	4.493397E-2	3.098703E-2	2.628855E-2	4.378025E-2	4.528357E-2	2.983905E-2	5.035723E-2	4.322407E-2	6.322452E-2	4.040762E-2	3.676290E-2	3.954058E-2	4.367975E-2	3.400728E-2	2.339191E-2	2.557074E-2	4.961853E-2	4.060117E-2	5.497213E-2	4.592381E-2	3.214897E-2	3.810355E-2	5.509684E-2	3.986966E-2	7.297739E-2	3.285714E-2	3.925472E-2	4.047236E-2	5.377490E-2	3.354609E-2	4.094149E-2	4.332626E-2	5.412918E-2	4.556846E-2	4.994773E-2	4.234311E-2	2.168841E-2	5.269044E-2	4.384233E-2	4.965856E-2	3.946075E-2	3.376261E-2	4.700343E-2	5.159984E-2	4.092138E-2	3.227925E-2	5.481676E-2	3.391048E-2	4.094824E-2	5.497498E-2	3.233954E-2	3.432068E-2	2.692162E-2	4.189082E-2	2.580371E-2	3.510720E-2	3.676993E-2	3.770247E-2	2.199110E-2	2.760663E-2	7.102588E-2
5.336030E+2	4.783415E-2	3.160120E-2	4.076280E-2	3.738242E-2	4.698257E-2	4.515166E-2	5.468722E-2	4.688734E-2	4.093221E-2	5.530418E-2	4.189350E-2	2.155076E-2	2.152174E-2	5.289505E-2	4.164314E-2	4.670823E-2	4.787467E-2	6.268798E-2	4.854306E-2	4.397486E-2	4.288668E-2	4.849154E-2	7.058008E-2	3.878487E-2	3.711365E-2	6.002309E-2	5.736747E-2	4.822413E-2	3.509690E-2	6.078483E-2	4.123118E-2	3.819069E-2	3.056379E-2	4.096799E-2	3.759416E-2	5.785810E-2	3.655450E-2	5.441484E-2	4.237667E-2	4.275828E-2	4.315455E-2	3.761190E-2	4.840676E-2	3.149829E-2	4.155748E-2	4.991293E-2	5.469916E-2	4.148833E-2	4.927638E-2	5.910401E-2	5.146041E-2	5.394302E-2	5.299999E-2	4.718402E-2	5.718173E-2	5.370766E-2	4.216167E-2	4.839670E-2	5.580582E-2	3.797145E-2	4.582252E-2	3.627450E-2	6.722275E-2	4.655536E-2	5.375801E-2	4.891773E-2	6.034091E-2	4.069708E-2	4.856677E-2	4.816153E-2	6.678167E-2	4.006813E-2	4.778722E-2	4.632554E-2	5.954750E-2	3.701389E-2	4.773212E-2	4.506488E-2	4.957041E-2	3.257912E-2	5.423567E-2	3.921077E-2	4.002506E-2	5.039258E-2	4.450513E-2	4.462073E-2	5.139684E-2	4.746405E-2	4.322664E-2	5.212028E-2	6.424747E-2	5.198362E-2	5.390313E-2	4.857043E-2	5.677679E-2	3.897700E-2	3.571602E-2	5.045066E-2	5.077848E-2	4.399166E-2	5.010651E-2	5.857151E-2	6.550299E-2	3.355930E-2	5.898853E-2	5.451433E-2	5.596916E-2	4.729881E-2	5.150003E-2	4.868464E-2	4.966521E-2	3.960263E-2	4.410576E-2	5.296145E-2	4.528356E-2	5.454726E-2	6.272492E-2	5.268898E-2	4.506742E-2	4.654705E-2	4.890565E-2	4.894412E-2	6.116288E-2	5.108115E-2	5.306857E-2	3.984128E-2	4.778312E-2	5.305495E-2	5.563613E-2	3.787929E-2	5.549721E-2	5.569525E-2	4.844010E-2	5.568946E-2	5.868950E-2	4.457783E-2	6.435819E-2	4.419465E-2	3.437586E-2	4.993017E-2	5.635249E-2	4.997778E-2	6.774062E-2	5.302438E-2	5.837252E-2	4.363544E-2	5.509056E-2	5.406479E-2	6.300954E-2	4.333093E-2	6.989560E-2	4.550605E-2	3.524534E-2	5.089358E-2	5.486959E-2	5.188150E-2	4.423939E-2	4.646253E-2	5.903992E-2	5.240767E-2	4.459821E-2	4.586298E-2	3.644788E-2	5.676828E-2	5.125059E-2	5.697979E-2	6.573366E-2	5.881438E-2	4.681954E-2	4.835200E-2	5.159115E-2
5.337740E+2	6.069173E-2	4.416236E-2	7.916849E-2	5.023633E-2	6.022056E-2	6.601608E-2	7.697893E-2	5.269270E-2	6.218757E-2	7.225976E-2	8.105419E-2	5.669059E-2	4.951912E-2	7.018607E-2	6.473109E-2	7.187202E-2	5.354543E-2	6.207003E-2	7.456073E-2	5.177219E-2	7.410079E-2	5.889923E-2	1.048780E-1	7.635810E-2	7.659216E-2	6.330742E-2	8.547533E-2	6.215743E-2	5.237577E-2	8.274035E-2	5.928320E-2	7.335402E-2	5.619764E-2	7.708721E-2	6.204686E-2	8.449927E-2	6.740399E-2	6.581763E-2	7.195715E-2	4.873995E-2	5.418262E-2	6.606629E-2	8.229861E-2	5.315765E-2	7.396417E-2	6.900136E-2	6.563057E-2	6.473628E-2	6.063586E-2	6.558146E-2	7.427134E-2	5.763986E-2	6.860572E-2	6.334818E-2	8.129932E-2	6.170989E-2	8.132578E-2	7.050828E-2	6.063934E-2	5.531013E-2	6.634500E-2	6.490181E-2	5.795490E-2	6.163144E-2	5.954224E-2	7.969696E-2	7.345545E-2	7.633034E-2	7.026042E-2	6.531048E-2	9.233761E-2	5.989521E-2	5.705061E-2	6.980461E-2	7.135757E-2	6.651887E-2	7.148238E-2	8.530706E-2	6.450206E-2	8.013668E-2	6.399012E-2	6.859662E-2	5.955853E-2	8.824965E-2	6.412514E-2	6.532314E-2	7.284230E-2	5.424013E-2	8.022770E-2	5.987186E-2	6.498357E-2	4.737485E-2	5.203122E-2	6.833744E-2	8.205698E-2	7.041659E-2	6.351925E-2	5.333688E-2	7.940410E-2	5.956420E-2	5.876052E-2	7.983060E-2	8.563608E-2	6.624181E-2	6.965113E-2	8.062553E-2	7.438544E-2	6.333283E-2	6.296051E-2	6.754072E-2	6.208486E-2	7.591142E-2	6.534944E-2	6.870059E-2	6.918135E-2	6.036095E-2	7.313986E-2	8.171476E-2	8.527252E-2	7.724417E-2	7.766476E-2	6.268772E-2	8.940472E-2	7.436370E-2	5.430510E-2	7.582796E-2	6.980838E-2	5.895411E-2	6.626026E-2	6.670544E-2	6.305103E-2	8.354865E-2	6.659486E-2	7.678256E-2	7.947185E-2	5.629850E-2	7.153066E-2	6.503941E-2	9.108062E-2	6.767963E-2	5.573616E-2	6.872314E-2	6.385173E-2	8.222717E-2	4.476330E-2	6.883682E-2	6.919364E-2	7.605366E-2	5.952463E-2	6.294663E-2	9.272191E-2	6.095790E-2	7.509232E-2	7.490566E-2	9.392465E-2	7.428402E-2	5.917216E-2	7.096886E-2	8.682374E-2	8.064807E-2	8.460023E-2	6.691062E-2	4.724432E-2	8.227255E-2	7.906422E-2	8.072706E-2	9.024131E-2	6.368630E-2	7.874203E-2	7.852716E-2	7.491273E-2
5.339090E+2	8.897838E-2	8.647372E-2	1.205864E-1	6.106056E-2	1.065536E-1	8.755353E-2	9.136071E-2	9.720041E-2	9.181632E-2	8.853695E-2	1.009663E-1	8.467244E-2	7.523093E-2	8.189929E-2	9.516504E-2	9.224305E-2	9.009052E-2	8.369856E-2	8.870083E-2	7.451468E-2	9.144167E-2	9.073444E-2	1.531282E-1	1.218415E-1	1.031270E-1	1.243962E-1	1.218872E-1	9.864935E-2	8.808505E-2	8.639971E-2	9.910326E-2	8.527407E-2	6.871640E-2	1.035319E-1	9.100389E-2	1.049926E-1	9.825352E-2	8.802281E-2	1.142151E-1	7.087205E-2	8.856415E-2	1.065345E-1	1.085168E-1	7.547335E-2	7.566983E-2	9.618799E-2	8.694707E-2	8.856533E-2	8.019942E-2	9.667232E-2	1.029476E-1	1.013846E-1	1.059484E-1	1.056237E-1	1.162698E-1	1.054143E-1	1.142730E-1	1.026707E-1	9.792672E-2	7.798372E-2	8.686728E-2	1.102284E-1	7.896202E-2	8.308579E-2	7.303890E-2	9.977078E-2	1.062419E-1	1.014833E-1	7.996511E-2	1.081835E-1	1.045073E-1	7.731910E-2	9.348658E-2	9.328360E-2	9.808581E-2	8.829640E-2	8.596418E-2	9.599653E-2	1.004489E-1	8.639432E-2	8.419576E-2	7.922555E-2	1.049266E-1	8.216558E-2	8.067929E-2	9.003249E-2	1.092345E-1	9.859305E-2	1.090887E-1	8.735496E-2	1.047307E-1	8.819504E-2	8.073500E-2	8.951654E-2	1.011880E-1	7.767179E-2	7.255526E-2	8.364165E-2	8.369778E-2	7.513666E-2	9.461260E-2	1.154908E-1	1.101737E-1	9.187538E-2	1.108799E-1	1.113064E-1	1.000367E-1	7.797260E-2	9.191296E-2	8.582529E-2	1.170858E-1	7.898835E-2	9.687239E-2	7.657022E-2	8.644088E-2	9.306309E-2	1.030828E-1	1.189434E-1	1.352042E-1	1.024842E-1	1.096194E-1	9.017487E-2	1.270604E-1	1.023029E-1	8.521823E-2	1.043688E-1	1.120231E-1	1.041811E-1	9.215696E-2	9.888344E-2	8.433916E-2	1.114023E-1	1.016945E-1	9.392059E-2	1.132434E-1	7.788944E-2	1.023721E-1	1.000286E-1	1.201793E-1	9.225564E-2	8.594161E-2	7.960730E-2	1.033899E-1	8.533384E-2	9.336763E-2	8.434557E-2	1.115031E-1	1.035397E-1	1.059909E-1	9.648274E-2	1.199867E-1	1.048411E-1	8.619732E-2	1.010363E-1	1.253079E-1	1.022873E-1	8.406033E-2	9.547527E-2	1.107305E-1	1.011863E-1	7.879356E-2	1.069689E-1	7.264774E-2	7.377113E-2	1.045114E-1	9.760030E-2	1.095505E-1	8.804618E-2	8.938285E-2	1.143600E-1	1.137819E-1
5.340640E+2	1.198367E-1	1.301072E-1	1.537204E-1	1.287123E-1	1.318261E-1	1.461085E-1	1.661460E-1	1.088114E-1	1.394797E-1	1.536463E-1	1.467642E-1	1.419372E-1	1.106563E-1	1.237326E-1	1.061845E-1	1.359799E-1	1.247452E-1	1.306631E-1	1.220717E-1	1.154506E-1	1.446211E-1	1.329774E-1	2.048656E-1	1.699616E-1	1.581378E-1	1.572396E-1	1.697990E-1	1.364680E-1	1.237946E-1	1.601952E-1	1.304289E-1	1.573886E-1	1.229649E-1	1.435208E-1	1.251089E-1	1.569088E-1	1.434267E-1	1.666416E-1	1.564730E-1	1.199214E-1	1.482456E-1	1.476352E-1	1.603137E-1	1.194485E-1	1.308182E-1	1.308944E-1	1.421512E-1	1.280867E-1	1.142779E-1	1.510819E-1	1.583457E-1	1.297261E-1	1.399472E-1	1.441689E-1	1.693289E-1	1.251120E-1	1.304361E-1	1.582847E-1	1.662861E-1	1.199966E-1	1.376031E-1	1.316989E-1	1.419831E-1	1.300536E-1	1.270254E-1	1.599911E-1	1.528714E-1	1.336228E-1	1.507546E-1	1.602432E-1	1.848257E-1	1.289897E-1	1.472142E-1	1.516249E-1	1.366238E-1	1.142891E-1	1.166657E-1	1.274357E-1	1.535392E-1	1.201853E-1	1.308781E-1	1.186149E-1	1.307612E-1	1.146147E-1	1.481233E-1	1.334406E-1	1.664225E-1	1.256975E-1	1.512697E-1	1.183611E-1	1.827531E-1	1.066301E-1	1.343981E-1	1.396398E-1	1.578974E-1	1.345049E-1	1.128700E-1	1.413653E-1	1.545462E-1	1.445049E-1	1.193382E-1	1.751529E-1	1.630231E-1	1.309660E-1	1.428680E-1	1.380699E-1	1.519969E-1	1.253776E-1	1.474057E-1	1.183948E-1	1.224085E-1	1.312975E-1	1.503241E-1	1.198529E-1	1.422023E-1	1.257650E-1	1.506006E-1	1.586959E-1	1.637368E-1	1.345456E-1	1.434908E-1	1.400858E-1	1.391639E-1	1.457637E-1	1.111851E-1	1.335304E-1	1.505669E-1	1.507185E-1	1.160617E-1	1.404466E-1	1.399626E-1	1.649100E-1	1.591849E-1	1.670873E-1	1.509113E-1	1.241552E-1	1.547307E-1	1.476741E-1	1.694229E-1	1.175145E-1	1.525172E-1	1.267728E-1	1.558916E-1	1.356617E-1	1.179939E-1	1.341026E-1	1.352560E-1	1.591994E-1	1.646545E-1	1.490019E-1	1.897334E-1	1.289463E-1	1.280037E-1	1.751905E-1	1.608759E-1	1.085879E-1	1.301031E-1	1.432927E-1	1.488523E-1	1.396960E-1	1.297639E-1	1.341274E-1	1.094828E-1	1.524090E-1	1.429771E-1	1.613431E-1	1.570809E-1	1.440740E-1	1.473163E-1	1.747104E-1	1.837465E-1
5.342040E+2	1.892671E-1	1.710964E-1	2.260134E-1	1.875696E-1	2.293061E-1	2.046633E-1	2.416501E-1	1.862161E-1	2.103310E-1	2.140080E-1	2.423425E-1	1.738238E-1	1.895059E-1	1.934548E-1	1.917141E-1	2.210580E-1	1.827135E-1	2.165586E-1	2.142646E-1	1.732818E-1	2.105175E-1	2.364424E-1	3.345010E-1	2.965240E-1	2.461555E-1	2.787596E-1	2.790357E-1	2.399725E-1	2.113400E-1	2.370402E-1	2.116624E-1	2.390393E-1	1.873475E-1	2.151143E-1	2.345028E-1	2.429801E-1	2.177961E-1	2.506614E-1	2.524584E-1	2.186185E-1	2.481465E-1	2.658788E-1	2.530368E-1	2.198696E-1	2.132563E-1	1.985718E-1	2.372551E-1	2.100359E-1	2.095710E-1	2.158556E-1	2.391610E-1	2.005804E-1	2.280091E-1	2.473709E-1	2.627847E-1	2.094430E-1	2.417113E-1	2.440507E-1	2.339555E-1	1.866837E-1	2.043013E-1	2.265265E-1	2.291011E-1	2.158709E-1	2.144322E-1	2.282408E-1	2.366592E-1	2.314396E-1	2.261112E-1	2.417016E-1	2.474990E-1	2.088990E-1	2.163808E-1	2.348691E-1	2.509948E-1	2.049108E-1	2.122460E-1	2.079199E-1	2.337280E-1	2.077912E-1	2.110040E-1	1.898910E-1	2.183468E-1	2.133137E-1	2.180195E-1	2.129105E-1	2.470054E-1	2.107066E-1	2.363722E-1	2.078571E-1	2.394296E-1	1.941958E-1	2.036611E-1	2.187079E-1	2.508191E-1	2.161267E-1	1.969744E-1	2.250640E-1	2.318350E-1	2.315694E-1	2.182401E-1	2.773327E-1	2.536231E-1	2.245276E-1	2.167951E-1	2.340285E-1	2.289502E-1	2.139133E-1	2.107394E-1	1.783912E-1	2.318191E-1	2.100691E-1	2.222779E-1	2.037950E-1	2.271726E-1	2.260517E-1	2.469381E-1	2.400943E-1	2.759220E-1	2.164047E-1	2.534145E-1	2.333975E-1	2.662515E-1	2.357893E-1	1.965056E-1	2.191536E-1	2.478441E-1	2.274080E-1	2.010558E-1	2.349689E-1	2.230549E-1	2.147529E-1	2.366461E-1	2.633244E-1	2.866459E-1	2.123687E-1	2.221514E-1	2.451974E-1	2.492574E-1	1.967038E-1	2.277232E-1	2.071960E-1	2.544131E-1	2.114647E-1	1.970569E-1	2.336162E-1	2.480806E-1	2.286021E-1	2.546826E-1	2.426502E-1	2.861106E-1	2.272201E-1	2.161900E-1	2.670009E-1	2.696717E-1	2.157005E-1	1.885898E-1	2.018688E-1	2.515869E-1	2.346863E-1	1.975087E-1	2.149229E-1	1.888685E-1	2.140442E-1	2.169503E-1	2.288359E-1	2.491709E-1	2.098458E-1	2.288959E-1	2.878670E-1	2.692590E-1
5.343600E+2	3.159138E-1	3.443080E-1	3.916848E-1	3.039306E-1	3.791371E-1	3.823467E-1	4.501853E-1	3.655376E-1	3.391512E-1	3.706776E-1	3.558420E-1	3.410628E-1	3.426340E-1	3.379189E-1	3.554287E-1	3.522700E-1	2.980197E-1	4.037986E-1	3.669772E-1	3.376765E-1	3.573386E-1	4.060271E-1	5.240124E-1	5.041653E-1	4.299567E-1	4.620259E-1	4.757898E-1	4.211051E-1	3.939188E-1	4.023176E-1	3.948362E-1	3.928049E-1	3.226707E-1	4.053857E-1	3.863669E-1	3.850667E-1	3.593740E-1	4.709140E-1	4.371856E-1	3.526073E-1	4.239466E-1	4.030918E-1	4.595849E-1	3.826428E-1	3.696045E-1	3.802018E-1	3.624206E-1	3.698650E-1	3.761765E-1	4.082317E-1	4.118713E-1	3.730946E-1	3.823962E-1	3.996875E-1	4.358287E-1	3.879536E-1	3.766092E-1	4.142432E-1	4.279874E-1	3.133893E-1	3.810216E-1	3.982901E-1	3.928329E-1	3.718499E-1	3.905306E-1	4.155936E-1	4.304636E-1	3.977285E-1	4.082227E-1	4.572911E-1	4.422108E-1	3.512933E-1	3.732403E-1	3.878387E-1	4.356040E-1	3.988008E-1	3.530094E-1	4.135326E-1	3.797269E-1	3.742426E-1	3.956421E-1	3.430719E-1	3.727240E-1	3.505462E-1	4.099275E-1	3.825364E-1	4.530118E-1	3.302128E-1	4.309978E-1	3.452717E-1	4.668723E-1	3.607691E-1	3.846188E-1	3.528414E-1	4.482777E-1	3.950901E-1	3.596231E-1	4.105002E-1	4.286351E-1	3.519017E-1	3.826648E-1	4.618059E-1	4.820092E-1	3.341103E-1	4.023244E-1	4.305152E-1	4.157442E-1	3.519454E-1	3.536931E-1	3.503813E-1	3.885426E-1	3.959211E-1	3.620750E-1	4.070926E-1	3.931291E-1	3.953752E-1	4.018595E-1	4.363333E-1	4.685168E-1	3.869438E-1	4.349164E-1	4.243608E-1	4.410817E-1	4.119607E-1	3.826027E-1	3.550343E-1	3.965134E-1	4.142142E-1	3.624117E-1	3.563068E-1	3.947327E-1	3.928685E-1	4.296933E-1	4.208631E-1	4.574510E-1	3.400627E-1	4.071995E-1	3.732435E-1	4.268333E-1	3.475733E-1	3.799837E-1	3.626004E-1	4.397890E-1	4.003503E-1	3.610152E-1	3.828866E-1	4.470089E-1	3.770266E-1	4.115057E-1	4.375400E-1	4.636476E-1	3.421823E-1	3.834168E-1	4.527405E-1	4.119433E-1	3.606170E-1	3.497394E-1	3.943338E-1	4.241041E-1	4.009196E-1	3.678402E-1	3.561457E-1	3.190612E-1	3.819473E-1	3.749567E-1	4.281886E-1	4.058722E-1	3.527569E-1	4.263418E-1	4.670320E-1	4.286225E-1
5.345050E+2	5.518500E-1	5.618142E-1	7.026959E-1	6.266296E-1	6.252436E-1	6.892554E-1	7.255958E-1	6.893483E-1	5.955039E-1	6.412883E-1	7.116056E-1	6.859539E-1	5.631842E-1	5.822253E-1	5.873564E-1	6.722106E-1	5.834492E-1	6.775520E-1	5.909559E-1	5.728981E-1	6.336400E-1	7.066253E-1	8.478093E-1	7.942047E-1	7.263691E-1	7.799498E-1	7.830593E-1	7.083962E-1	6.185424E-1	6.688354E-1	6.279187E-1	7.390755E-1	5.199916E-1	6.756356E-1	6.315365E-1	6.446473E-1	6.843971E-1	6.971681E-1	7.299721E-1	6.259681E-1	6.905657E-1	6.857375E-1	7.524618E-1	6.136761E-1	6.601276E-1	6.300877E-1	6.941914E-1	6.627889E-1	6.248221E-1	6.291087E-1	6.914670E-1	6.534307E-1	6.794657E-1	7.124020E-1	7.650338E-1	6.397158E-1	6.395670E-1	7.030343E-1	7.269749E-1	6.648309E-1	6.301409E-1	6.827739E-1	6.714860E-1	6.408996E-1	5.807695E-1	6.651738E-1	7.204407E-1	6.492570E-1	6.582696E-1	7.427018E-1	7.592266E-1	5.898194E-1	6.579345E-1	7.122752E-1	7.128295E-1	6.474857E-1	6.281640E-1	6.229179E-1	6.684057E-1	6.533307E-1	6.248714E-1	5.631530E-1	6.808486E-1	6.081105E-1	6.803163E-1	6.917354E-1	7.175052E-1	5.821606E-1	7.188662E-1	6.489931E-1	7.046195E-1	6.247831E-1	6.441997E-1	6.514649E-1	6.785323E-1	6.369329E-1	5.855237E-1	6.500524E-1	6.311606E-1	6.407003E-1	6.750445E-1	7.134842E-1	7.651331E-1	6.199219E-1	6.795531E-1	7.210021E-1	7.235587E-1	6.245247E-1	6.462350E-1	6.555060E-1	6.552680E-1	6.322355E-1	6.862112E-1	6.372780E-1	6.971621E-1	6.882405E-1	7.130042E-1	7.019816E-1	7.460606E-1	6.754969E-1	6.758530E-1	7.404634E-1	7.302241E-1	6.828142E-1	6.317630E-1	6.472697E-1	7.183237E-1	7.373570E-1	6.320021E-1	6.787567E-1	7.133666E-1	6.560105E-1	7.147253E-1	7.418740E-1	7.230753E-1	6.441842E-1	6.826211E-1	7.127150E-1	7.543783E-1	6.001611E-1	6.197793E-1	6.359185E-1	7.405384E-1	6.880279E-1	5.820028E-1	6.659187E-1	7.424329E-1	6.731899E-1	6.357052E-1	7.172201E-1	7.648269E-1	6.345322E-1	6.381762E-1	7.656010E-1	7.229885E-1	6.259471E-1	6.017300E-1	6.399949E-1	7.471689E-1	7.006520E-1	6.381758E-1	6.093967E-1	5.927829E-1	6.766628E-1	6.637478E-1	6.937843E-1	7.281865E-1	6.117845E-1	6.935452E-1	7.574676E-1	7.318037E-1
5.346560E+2	8.957894E-1	8.322096E-1	1.121392E+0	9.601533E-1	1.012155E+0	1.037892E+0	1.141948E+0	1.109270E+0	8.995199E-1	9.831123E-1	1.096574E+0	1.142121E+0	8.665839E-1	9.001582E-1	9.562384E-1	1.045475E+0	8.707693E-1	9.908543E-1	8.805445E-1	8.536041E-1	1.001850E+0	1.085588E+0	1.221018E+0	1.135660E+0	1.085558E+0	1.111667E+0	1.214895E+0	9.538870E-1	9.485658E-1	1.023785E+0	9.767444E-1	1.043030E+0	7.858681E-1	1.031669E+0	9.957527E-1	1.037434E+0	1.013275E+0	1.138271E+0	1.125989E+0	1.066816E+0	1.051248E+0	1.005690E+0	1.083067E+0	1.068523E+0	9.654324E-1	9.852497E-1	1.010112E+0	1.030687E+0	8.583224E-1	9.950769E-1	1.008864E+0	9.996913E-1	1.041746E+0	1.054337E+0	1.109313E+0	1.063218E+0	9.628253E-1	1.008576E+0	1.095704E+0	1.012937E+0	9.482376E-1	9.463833E-1	1.067532E+0	1.002725E+0	9.503196E-1	9.983938E-1	1.104406E+0	1.070568E+0	1.013929E+0	1.089359E+0	1.187592E+0	9.503121E-1	9.846224E-1	1.072998E+0	1.059050E+0	9.284854E-1	9.212767E-1	9.498854E-1	9.891594E-1	1.003129E+0	9.760320E-1	8.295001E-1	1.045053E+0	9.346286E-1	1.080686E+0	1.012955E+0	1.139916E+0	9.277422E-1	1.045956E+0	1.000634E+0	1.077065E+0	9.171088E-1	8.913007E-1	1.049629E+0	1.075499E+0	9.978830E-1	8.468740E-1	1.016596E+0	1.109922E+0	9.535657E-1	1.037891E+0	1.124947E+0	1.200514E+0	9.313665E-1	1.017913E+0	1.089169E+0	1.037293E+0	9.682103E-1	9.852223E-1	9.292045E-1	9.976936E-1	9.694758E-1	1.035703E+0	9.743582E-1	9.925655E-1	1.023981E+0	1.086639E+0	1.155666E+0	1.111147E+0	9.988402E-1	1.008181E+0	1.065969E+0	1.105436E+0	1.001009E+0	9.946832E-1	9.674256E-1	1.023004E+0	1.140466E+0	9.547141E-1	9.743916E-1	1.102045E+0	9.726595E-1	1.076009E+0	1.041131E+0	1.206914E+0	9.513898E-1	1.088579E+0	1.058886E+0	1.149074E+0	9.298900E-1	9.828635E-1	9.424942E-1	1.078882E+0	1.038460E+0	9.073274E-1	9.735065E-1	1.119505E+0	1.033945E+0	9.720041E-1	1.091813E+0	1.179503E+0	9.571672E-1	9.641379E-1	1.160386E+0	1.094011E+0	9.759871E-1	9.028749E-1	1.031500E+0	1.090264E+0	1.062642E+0	9.323834E-1	9.739967E-1	8.353860E-1	1.045057E+0	9.892296E-1	1.137486E+0	1.062384E+0	9.698749E-1	9.867588E-1	1.208207E+0	9.766778E-1
5.348020E+2	1.279587E+0	1.191194E+0	1.580000E+0	1.344418E+0	1.319639E+0	1.420857E+0	1.548951E+0	1.545317E+0	1.275032E+0	1.388687E+0	1.419150E+0	1.512389E+0	1.184838E+0	1.256021E+0	1.275795E+0	1.367811E+0	1.260163E+0	1.425274E+0	1.326239E+0	1.184993E+0	1.333062E+0	1.473734E+0	1.434945E+0	1.457997E+0	1.380675E+0	1.457181E+0	1.557303E+0	1.307526E+0	1.212934E+0	1.325676E+0	1.345748E+0	1.490024E+0	1.037437E+0	1.339327E+0	1.296905E+0	1.334583E+0	1.311856E+0	1.525964E+0	1.526833E+0	1.441267E+0	1.390522E+0	1.368008E+0	1.489768E+0	1.502364E+0	1.249133E+0	1.321325E+0	1.343524E+0	1.430553E+0	1.257167E+0	1.297569E+0	1.340599E+0	1.388467E+0	1.339374E+0	1.458440E+0	1.510268E+0	1.551969E+0	1.366899E+0	1.363702E+0	1.476169E+0	1.601114E+0	1.262344E+0	1.371022E+0	1.403647E+0	1.492117E+0	1.257527E+0	1.433990E+0	1.456313E+0	1.364017E+0	1.316498E+0	1.535239E+0	1.565457E+0	1.376895E+0	1.313164E+0	1.405973E+0	1.451268E+0	1.348579E+0	1.239300E+0	1.294462E+0	1.355817E+0	1.396105E+0	1.276331E+0	1.135236E+0	1.327972E+0	1.337536E+0	1.376829E+0	1.372908E+0	1.512287E+0	1.226506E+0	1.395247E+0	1.295195E+0	1.425222E+0	1.224576E+0	1.226385E+0	1.289657E+0	1.423271E+0	1.321953E+0	1.231252E+0	1.320365E+0	1.484914E+0	1.328721E+0	1.382815E+0	1.495268E+0	1.574241E+0	1.237686E+0	1.382573E+0	1.367256E+0	1.367471E+0	1.234515E+0	1.336877E+0	1.272614E+0	1.360820E+0	1.321485E+0	1.379711E+0	1.279305E+0	1.367627E+0	1.481812E+0	1.429028E+0	1.472426E+0	1.578690E+0	1.337872E+0	1.352011E+0	1.426917E+0	1.537807E+0	1.367321E+0	1.226533E+0	1.326051E+0	1.423736E+0	1.456398E+0	1.276762E+0	1.304888E+0	1.395957E+0	1.312765E+0	1.391903E+0	1.335115E+0	1.498517E+0	1.252428E+0	1.409186E+0	1.452704E+0	1.496020E+0	1.286926E+0	1.344715E+0	1.302887E+0	1.489820E+0	1.325518E+0	1.225525E+0	1.311466E+0	1.479504E+0	1.413942E+0	1.338507E+0	1.520192E+0	1.570084E+0	1.227267E+0	1.266582E+0	1.516328E+0	1.469915E+0	1.235017E+0	1.268726E+0	1.310037E+0	1.471483E+0	1.405380E+0	1.224656E+0	1.285638E+0	1.134513E+0	1.395033E+0	1.324181E+0	1.476821E+0	1.421834E+0	1.272750E+0	1.379286E+0	1.483556E+0	1.532508E+0
5.349580E+2	1.569525E+0	1.536957E+0	2.007736E+0	1.673881E+0	1.782969E+0	1.863720E+0	1.963147E+0	1.995558E+0	1.597725E+0	1.798335E+0	1.954125E+0	1.876153E+0	1.522520E+0	1.684394E+0	1.662516E+0	1.868093E+0	1.614901E+0	1.844865E+0	1.694449E+0	1.566417E+0	1.695492E+0	1.908410E+0	1.860478E+0	1.844280E+0	1.752160E+0	1.819771E+0	1.926534E+0	1.722206E+0	1.575211E+0	1.716002E+0	1.637763E+0	1.810668E+0	1.363524E+0	1.722450E+0	1.731263E+0	1.728057E+0	1.652856E+0	1.909458E+0	1.811170E+0	1.890487E+0	1.773263E+0	1.792927E+0	1.813978E+0	1.856791E+0	1.594805E+0	1.658554E+0	1.634847E+0	1.803679E+0	1.543046E+0	1.681025E+0	1.665817E+0	1.785866E+0	1.740111E+0	1.845136E+0	1.864798E+0	1.948385E+0	1.710669E+0	1.805266E+0	1.884258E+0	1.961227E+0	1.588992E+0	1.729459E+0	1.816994E+0	1.817412E+0	1.662429E+0	1.860217E+0	1.908768E+0	1.728735E+0	1.683004E+0	1.880668E+0	2.027288E+0	1.918836E+0	1.650349E+0	1.775234E+0	1.906885E+0	1.965377E+0	1.590918E+0	1.625202E+0	1.694822E+0	1.890454E+0	1.630974E+0	1.409712E+0	1.728722E+0	1.746531E+0	1.760031E+0	1.742881E+0	1.969790E+0	1.837589E+0	1.781536E+0	1.609488E+0	1.842567E+0	1.728243E+0	1.583932E+0	1.768302E+0	1.809305E+0	1.748805E+0	1.550991E+0	1.729479E+0	1.804091E+0	1.662819E+0	1.709808E+0	2.009592E+0	1.996409E+0	1.596551E+0	1.758608E+0	1.824200E+0	1.770655E+0	1.572626E+0	1.620974E+0	1.572595E+0	1.643513E+0	1.655034E+0	1.753190E+0	1.651799E+0	1.655064E+0	1.702730E+0	1.785738E+0	1.941882E+0	1.973608E+0	1.743759E+0	1.729073E+0	1.863823E+0	1.854518E+0	1.727424E+0	1.593780E+0	1.640625E+0	1.788372E+0	1.820836E+0	1.608769E+0	1.670912E+0	1.798370E+0	1.687320E+0	1.800994E+0	1.874970E+0	1.990152E+0	1.622554E+0	1.782152E+0	1.769097E+0	1.921306E+0	1.546338E+0	1.752182E+0	1.580440E+0	1.852147E+0	1.703289E+0	1.605290E+0	1.619697E+0	1.878106E+0	1.731405E+0	1.734628E+0	1.854922E+0	1.908676E+0	1.596876E+0	1.625856E+0	1.923116E+0	1.868833E+0	1.567555E+0	1.612805E+0	1.688987E+0	1.874022E+0	1.785979E+0	1.504669E+0	1.618326E+0	1.394897E+0	1.720919E+0	1.739611E+0	1.846782E+0	1.833268E+0	1.638147E+0	1.651219E+0	1.953156E+0	1.925088E+0
5.351090E+2	1.742462E+0	1.698268E+0	2.342089E+0	1.886981E+0	2.005005E+0	2.026591E+0	2.203319E+0	2.127790E+0	1.838620E+0	1.971959E+0	2.127360E+0	2.201520E+0	1.767641E+0	1.763038E+0	1.792127E+0	2.007096E+0	1.782506E+0	1.991940E+0	1.853945E+0	1.722364E+0	1.883936E+0	2.097583E+0	1.928491E+0	1.888443E+0	1.883542E+0	1.980044E+0	1.994887E+0	1.815760E+0	1.688675E+0	1.920918E+0	1.830496E+0	1.844040E+0	1.712264E+0	1.894661E+0	1.823284E+0	1.892000E+0	1.902957E+0	2.056495E+0	2.058677E+0	2.039428E+0	1.967226E+0	1.937728E+0	2.068489E+0	2.053696E+0	1.717607E+0	1.856961E+0	1.804829E+0	1.980947E+0	1.811887E+0	1.816403E+0	1.888709E+0	1.929423E+0	1.841551E+0	2.005535E+0	2.091503E+0	2.152135E+0	1.842459E+0	1.976798E+0	2.048598E+0	2.121278E+0	1.724668E+0	1.889890E+0	1.977635E+0	2.042974E+0	1.787112E+0	1.940512E+0	2.003482E+0	1.876158E+0	1.868541E+0	2.071146E+0	2.148983E+0	2.141140E+0	1.803506E+0	2.013583E+0	1.931128E+0	2.168396E+0	1.718356E+0	1.762276E+0	1.846349E+0	2.033123E+0	1.780777E+0	1.566642E+0	1.888773E+0	1.977731E+0	1.873459E+0	1.869097E+0	2.131602E+0	2.120953E+0	1.894020E+0	1.760293E+0	2.050874E+0	2.044932E+0	1.760522E+0	1.933496E+0	2.008130E+0	1.994276E+0	1.708772E+0	1.855028E+0	1.953656E+0	1.785985E+0	1.894633E+0	2.128919E+0	2.137336E+0	1.885568E+0	1.916416E+0	1.990008E+0	1.885102E+0	1.929555E+0	1.782625E+0	1.822864E+0	1.835723E+0	1.859961E+0	1.886132E+0	1.838044E+0	1.884747E+0	1.903306E+0	2.018121E+0	1.987948E+0	2.072173E+0	1.870641E+0	1.869036E+0	1.980281E+0	1.946639E+0	1.964907E+0	1.735361E+0	1.823659E+0	1.897889E+0	1.917843E+0	1.744231E+0	1.892805E+0	1.996142E+0	1.821458E+0	1.947443E+0	1.975156E+0	2.146016E+0	1.715703E+0	2.028168E+0	2.057201E+0	2.119028E+0	1.740220E+0	1.887800E+0	1.738864E+0	2.009650E+0	1.851166E+0	1.686292E+0	1.805157E+0	1.983507E+0	1.887391E+0	1.842085E+0	1.966288E+0	2.094452E+0	1.747065E+0	1.756505E+0	2.076372E+0	2.032726E+0	1.757275E+0	1.613427E+0	1.818094E+0	1.994845E+0	1.920762E+0	1.678873E+0	1.803681E+0	1.513653E+0	1.808059E+0	1.886377E+0	2.038635E+0	1.985512E+0	1.749391E+0	1.841571E+0	2.162496E+0	2.131095E+0
5.352550E+2	1.789389E+0	1.655959E+0	2.311212E+0	1.962079E+0	1.932198E+0	2.066977E+0	2.280266E+0	2.223254E+0	1.823164E+0	2.018760E+0	2.090193E+0	2.111723E+0	1.771070E+0	1.906946E+0	1.824131E+0	2.047834E+0	1.821571E+0	2.044466E+0	1.870350E+0	1.784740E+0	1.991448E+0	2.130642E+0	1.960463E+0	2.031485E+0	1.886130E+0	1.987930E+0	2.139896E+0	1.831019E+0	1.713438E+0	1.952024E+0	1.843236E+0	1.966221E+0	1.759954E+0	1.912723E+0	1.874118E+0	1.870143E+0	1.961356E+0	2.085900E+0	2.046002E+0	2.056775E+0	1.954251E+0	1.921921E+0	2.023726E+0	2.099639E+0	1.777307E+0	1.784075E+0	1.839265E+0	1.966417E+0	1.700186E+0	1.848139E+0	1.876978E+0	1.960845E+0	1.904529E+0	1.990615E+0	2.059548E+0	2.146591E+0	1.913950E+0	1.970767E+0	2.139746E+0	2.173295E+0	1.764003E+0	1.911957E+0	1.889897E+0	2.017460E+0	1.791612E+0	2.016792E+0	1.982355E+0	1.924368E+0	1.891377E+0	2.091973E+0	2.155069E+0	2.117108E+0	1.860940E+0	1.965912E+0	1.985827E+0	2.127651E+0	1.703878E+0	1.752216E+0	1.941473E+0	2.083187E+0	1.830243E+0	1.597280E+0	1.902004E+0	1.959478E+0	1.999764E+0	1.928534E+0	2.087410E+0	2.104323E+0	1.954704E+0	1.835695E+0	2.129632E+0	2.043615E+0	1.789225E+0	1.893964E+0	2.010867E+0	2.040224E+0	1.721285E+0	1.873786E+0	2.043825E+0	1.950201E+0	1.890923E+0	2.180347E+0	2.166281E+0	2.209187E+0	1.905044E+0	2.015462E+0	1.962052E+0	2.094775E+0	1.812182E+0	1.792581E+0	1.868839E+0	2.116587E+0	1.912857E+0	1.828206E+0	1.974368E+0	2.004319E+0	1.968649E+0	2.129920E+0	2.081254E+0	1.923846E+0	1.887570E+0	1.960748E+0	2.052210E+0	2.038634E+0	1.767511E+0	1.850337E+0	1.943776E+0	1.967001E+0	1.801334E+0	1.857946E+0	1.969358E+0	1.879361E+0	2.007959E+0	1.961320E+0	2.182387E+0	1.749630E+0	1.966483E+0	2.009553E+0	2.094403E+0	1.779127E+0	1.818758E+0	1.816267E+0	2.115300E+0	1.904599E+0	1.794522E+0	1.832297E+0	2.050311E+0	1.866088E+0	1.926882E+0	2.067528E+0	2.195901E+0	1.764994E+0	1.750626E+0	2.139930E+0	2.048766E+0	1.758676E+0	1.798842E+0	1.853360E+0	2.015522E+0	2.029234E+0	1.714357E+0	1.777202E+0	1.589868E+0	1.855528E+0	1.894658E+0	2.091129E+0	2.001106E+0	1.743711E+0	1.856940E+0	2.147409E+0	1.952296E+0
5.354060E+2	1.638956E+0	1.588524E+0	2.092830E+0	1.689441E+0	1.760103E+0	1.904773E+0	2.090425E+0	2.022001E+0	1.647323E+0	1.885828E+0	1.963415E+0	1.911942E+0	1.614515E+0	1.743517E+0	1.651501E+0	1.877082E+0	1.606709E+0	1.868969E+0	1.710848E+0	1.598904E+0	1.779308E+0	1.960449E+0	1.777346E+0	1.786268E+0	1.668028E+0	1.807949E+0	1.947615E+0	1.633960E+0	1.532010E+0	1.706850E+0	1.661657E+0	1.848808E+0	1.554286E+0	1.719870E+0	1.636025E+0	1.659062E+0	1.754219E+0	1.858444E+0	1.875160E+0	1.920394E+0	1.723960E+0	1.804944E+0	1.929087E+0	1.865323E+0	1.644271E+0	1.647564E+0	1.628834E+0	1.830417E+0	1.559454E+0	1.679731E+0	1.674941E+0	1.816055E+0	1.674344E+0	1.837677E+0	1.872031E+0	2.028407E+0	1.683318E+0	1.771764E+0	1.919475E+0	1.980569E+0	1.612368E+0	1.795063E+0	1.794132E+0	1.890472E+0	1.673995E+0	1.837464E+0	1.905853E+0	1.787425E+0	1.721253E+0	1.881283E+0	2.029721E+0	1.928448E+0	1.655293E+0	1.754600E+0	1.875186E+0	1.983641E+0	1.562533E+0	1.620797E+0	1.639519E+0	1.893584E+0	1.612162E+0	1.491617E+0	1.757709E+0	1.793176E+0	1.777199E+0	1.722845E+0	1.904153E+0	1.888718E+0	1.774139E+0	1.623582E+0	1.883050E+0	1.791451E+0	1.621374E+0	1.762657E+0	1.758062E+0	1.824379E+0	1.549599E+0	1.767002E+0	1.806950E+0	1.766875E+0	1.696825E+0	1.987651E+0	1.952363E+0	2.013733E+0	1.787751E+0	1.781770E+0	1.849582E+0	1.988116E+0	1.657767E+0	1.713728E+0	1.713892E+0	1.834117E+0	1.773062E+0	1.697703E+0	1.771899E+0	1.725984E+0	1.913322E+0	1.902760E+0	2.047534E+0	1.967508E+0	1.798096E+0	1.803782E+0	1.864602E+0	1.912905E+0	1.597488E+0	1.707012E+0	1.822633E+0	1.840499E+0	1.593495E+0	1.639399E+0	1.821717E+0	1.873498E+0	1.825200E+0	1.876283E+0	1.966120E+0	2.014890E+0	1.818731E+0	1.806320E+0	1.878030E+0	1.926584E+0	1.697937E+0	1.633044E+0	1.927333E+0	1.858001E+0	1.663611E+0	1.686902E+0	1.881076E+0	1.798748E+0	1.771224E+0	1.972615E+0	1.975885E+0	1.778589E+0	1.586665E+0	1.889218E+0	1.921138E+0	1.705469E+0	1.600362E+0	1.691976E+0	1.881774E+0	1.832838E+0	1.542738E+0	1.697085E+0	1.416489E+0	1.711002E+0	1.727187E+0	1.916149E+0	1.857769E+0	1.576437E+0	1.745803E+0	1.958813E+0	1.777385E+0
5.355630E+2	1.410092E+0	1.368372E+0	1.848841E+0	1.503396E+0	1.541677E+0	1.662480E+0	1.811421E+0	1.800111E+0	1.468260E+0	1.588764E+0	1.706551E+0	1.760322E+0	1.433957E+0	1.466302E+0	1.448429E+0	1.669780E+0	1.423984E+0	1.664427E+0	1.487435E+0	1.437757E+0	1.597229E+0	1.686172E+0	1.570977E+0	1.623451E+0	1.475813E+0	1.646356E+0	1.617349E+0	1.511885E+0	1.388600E+0	1.500712E+0	1.491225E+0	1.678949E+0	1.404062E+0	1.527665E+0	1.468077E+0	1.568891E+0	1.527253E+0	1.660396E+0	1.645154E+0	1.678137E+0	1.565674E+0	1.572249E+0	1.707187E+0	1.695987E+0	1.437318E+0	1.512207E+0	1.499842E+0	1.613048E+0	1.390324E+0	1.463388E+0	1.526996E+0	1.626906E+0	1.475366E+0	1.630030E+0	1.706223E+0	1.784648E+0	1.524795E+0	1.601570E+0	1.663989E+0	1.798511E+0	1.420824E+0	1.635228E+0	1.554401E+0	1.639398E+0	1.429127E+0	1.662827E+0	1.687277E+0	1.554760E+0	1.423824E+0	1.688967E+0	1.780246E+0	1.707949E+0	1.528074E+0	1.615152E+0	1.643336E+0	1.745494E+0	1.445519E+0	1.410784E+0	1.588640E+0	1.642654E+0	1.486747E+0	1.327183E+0	1.540953E+0	1.582934E+0	1.626367E+0	1.590617E+0	1.696844E+0	1.710689E+0	1.599492E+0	1.474890E+0	1.690939E+0	1.709813E+0	1.417948E+0	1.557221E+0	1.622782E+0	1.627885E+0	1.397374E+0	1.560639E+0	1.662396E+0	1.522671E+0	1.609672E+0	1.797006E+0	1.810177E+0	1.750993E+0	1.612179E+0	1.664268E+0	1.571363E+0	1.710657E+0	1.491291E+0	1.441746E+0	1.544749E+0	1.661804E+0	1.547608E+0	1.514081E+0	1.541549E+0	1.561023E+0	1.614544E+0	1.649736E+0	1.816680E+0	1.750577E+0	1.541821E+0	1.612094E+0	1.707927E+0	1.718886E+0	1.408919E+0	1.547552E+0	1.597491E+0	1.684499E+0	1.454055E+0	1.487898E+0	1.641113E+0	1.570777E+0	1.583741E+0	1.638330E+0	1.788820E+0	1.802064E+0	1.615035E+0	1.609038E+0	1.678816E+0	1.798927E+0	1.566015E+0	1.474013E+0	1.655104E+0	1.665386E+0	1.406982E+0	1.513075E+0	1.715547E+0	1.653759E+0	1.551673E+0	1.684708E+0	1.732404E+0	1.730381E+0	1.505013E+0	1.728904E+0	1.776778E+0	1.757277E+0	1.383835E+0	1.513860E+0	1.664674E+0	1.730142E+0	1.327888E+0	1.466919E+0	1.261527E+0	1.588439E+0	1.534853E+0	1.686798E+0	1.713697E+0	1.579683E+0	1.566091E+0	1.726843E+0	1.559717E+0
5.357140E+2	1.212727E+0	1.184583E+0	1.598827E+0	1.269323E+0	1.371386E+0	1.478063E+0	1.576997E+0	1.612401E+0	1.276965E+0	1.398865E+0	1.513400E+0	1.484410E+0	1.269972E+0	1.315145E+0	1.259529E+0	1.441505E+0	1.253234E+0	1.402412E+0	1.262326E+0	1.175897E+0	1.303584E+0	1.473123E+0	1.359955E+0	1.414493E+0	1.288778E+0	1.449954E+0	1.533665E+0	1.277007E+0	1.201990E+0	1.317749E+0	1.290529E+0	1.394070E+0	1.250854E+0	1.312239E+0	1.305271E+0	1.325023E+0	1.382372E+0	1.434143E+0	1.423001E+0	1.465792E+0	1.355491E+0	1.363582E+0	1.422623E+0	1.462327E+0	1.266188E+0	1.265794E+0	1.267548E+0	1.414278E+0	1.231292E+0	1.309226E+0	1.349724E+0	1.328084E+0	1.307045E+0	1.472120E+0	1.446356E+0	1.562432E+0	1.339546E+0	1.397874E+0	1.476860E+0	1.525094E+0	1.230420E+0	1.344783E+0	1.341858E+0	1.436451E+0	1.268456E+0	1.352357E+0	1.382728E+0	1.385676E+0	1.309647E+0	1.494815E+0	1.578236E+0	1.474830E+0	1.321191E+0	1.383917E+0	1.430755E+0	1.496808E+0	1.192955E+0	1.224034E+0	1.344205E+0	1.474323E+0	1.265181E+0	1.153995E+0	1.352547E+0	1.365253E+0	1.316127E+0	1.332841E+0	1.481743E+0	1.488313E+0	1.428545E+0	1.330431E+0	1.420806E+0	1.414195E+0	1.218273E+0	1.291774E+0	1.451970E+0	1.437431E+0	1.196498E+0	1.348506E+0	1.482769E+0	1.332259E+0	1.308019E+0	1.523382E+0	1.562283E+0	1.488250E+0	1.371199E+0	1.363337E+0	1.414169E+0	1.512672E+0	1.290430E+0	1.258329E+0	1.316464E+0	1.446413E+0	1.322148E+0	1.348818E+0	1.313193E+0	1.392425E+0	1.423171E+0	1.471164E+0	1.509306E+0	1.542522E+0	1.380129E+0	1.389303E+0	1.451733E+0	1.561339E+0	1.275993E+0	1.317364E+0	1.438420E+0	1.448533E+0	1.265473E+0	1.298853E+0	1.370550E+0	1.433706E+0	1.390087E+0	1.456400E+0	1.549174E+0	1.527554E+0	1.432137E+0	1.402080E+0	1.573613E+0	1.512207E+0	1.321904E+0	1.256327E+0	1.423061E+0	1.479608E+0	1.159423E+0	1.310819E+0	1.463177E+0	1.393328E+0	1.334442E+0	1.405662E+0	1.499069E+0	1.514056E+0	1.336477E+0	1.503616E+0	1.482469E+0	1.459042E+0	1.240727E+0	1.271781E+0	1.392007E+0	1.558134E+0	1.211106E+0	1.246256E+0	1.154200E+0	1.421247E+0	1.365604E+0	1.493071E+0	1.432226E+0	1.468440E+0	1.372192E+0	1.455266E+0	1.345936E+0
5.358600E+2	1.067437E+0	9.888930E-1	1.324716E+0	1.180022E+0	1.181844E+0	1.259323E+0	1.374213E+0	1.355032E+0	1.135906E+0	1.238801E+0	1.279103E+0	1.269013E+0	1.062566E+0	1.125498E+0	1.125724E+0	1.210238E+0	1.090039E+0	1.221969E+0	1.135064E+0	1.079728E+0	1.178151E+0	1.285172E+0	1.222762E+0	1.221351E+0	1.081675E+0	1.227932E+0	1.216175E+0	1.133030E+0	1.071245E+0	1.124414E+0	1.082401E+0	1.172955E+0	1.038629E+0	1.212266E+0	1.123163E+0	1.195232E+0	1.139429E+0	1.313514E+0	1.295019E+0	1.258824E+0	1.135581E+0	1.220678E+0	1.225027E+0	1.211607E+0	1.103588E+0	1.101517E+0	1.105761E+0	1.221901E+0	1.045753E+0	1.119442E+0	1.130087E+0	1.186992E+0	1.150986E+0	1.196706E+0	1.273314E+0	1.361762E+0	1.113886E+0	1.165368E+0	1.302166E+0	1.333702E+0	1.093606E+0	1.152740E+0	1.187394E+0	1.228865E+0	1.100068E+0	1.260689E+0	1.271253E+0	1.214498E+0	1.138953E+0	1.293922E+0	1.317808E+0	1.312008E+0	1.124190E+0	1.212450E+0	1.251119E+0	1.306430E+0	1.094481E+0	1.090733E+0	1.122993E+0	1.219016E+0	1.127923E+0	1.018945E+0	1.156583E+0	1.203009E+0	1.183693E+0	1.179242E+0	1.303679E+0	1.267780E+0	1.159919E+0	1.056305E+0	1.297883E+0	1.220628E+0	1.105953E+0	1.125167E+0	1.268175E+0	1.188940E+0	1.110309E+0	1.120498E+0	1.215835E+0	1.175827E+0	1.183773E+0	1.310793E+0	1.322571E+0	1.360727E+0	1.226900E+0	1.238653E+0	1.220797E+0	1.332811E+0	1.094397E+0	1.133763E+0	1.143773E+0	1.256868E+0	1.164536E+0	1.152079E+0	1.163168E+0	1.273244E+0	1.149128E+0	1.308997E+0	1.296610E+0	1.309222E+0	1.190961E+0	1.236680E+0	1.289682E+0	1.340934E+0	1.058983E+0	1.169075E+0	1.190027E+0	1.261069E+0	1.072909E+0	1.105785E+0	1.211234E+0	1.235801E+0	1.231535E+0	1.242833E+0	1.331608E+0	1.365932E+0	1.251394E+0	1.242767E+0	1.265468E+0	1.316964E+0	1.130808E+0	1.079153E+0	1.272686E+0	1.318680E+0	1.105634E+0	1.125363E+0	1.249402E+0	1.242839E+0	1.175874E+0	1.288604E+0	1.348797E+0	1.387349E+0	1.093477E+0	1.388500E+0	1.307419E+0	1.313426E+0	1.046603E+0	1.131916E+0	1.260196E+0	1.298193E+0	1.050454E+0	1.098924E+0	9.782800E-1	1.328438E+0	1.191029E+0	1.306217E+0	1.231710E+0	1.340958E+0	1.236226E+0	1.294962E+0	1.373146E+0
5.360120E+2	8.655745E-1	8.447709E-1	1.116874E+0	9.851845E-1	9.495747E-1	1.071545E+0	1.121094E+0	1.129267E+0	8.956555E-1	9.742952E-1	1.040156E+0	1.076396E+0	8.740120E-1	9.263738E-1	9.095379E-1	9.951469E-1	8.966026E-1	1.024842E+0	9.291865E-1	8.691988E-1	9.879762E-1	1.039671E+0	9.989533E-1	1.013052E+0	9.483544E-1	1.020363E+0	1.066054E+0	9.412809E-1	8.420139E-1	9.408416E-1	9.077224E-1	1.008463E+0	8.937683E-1	9.581402E-1	9.584305E-1	9.978139E-1	9.928935E-1	1.019444E+0	1.039662E+0	1.058439E+0	1.032435E+0	1.001897E+0	9.986573E-1	1.056708E+0	8.864057E-1	8.788169E-1	9.472557E-1	9.812853E-1	8.898765E-1	8.920877E-1	9.476005E-1	9.608758E-1	9.564706E-1	1.036307E+0	1.062887E+0	1.116770E+0	9.404459E-1	1.005896E+0	1.052893E+0	1.120304E+0	8.872409E-1	9.451907E-1	9.699104E-1	1.045053E+0	9.085445E-1	1.017129E+0	1.039562E+0	9.727512E-1	9.699723E-1	1.064248E+0	1.127962E+0	1.107128E+0	9.197794E-1	9.783707E-1	1.044754E+0	1.042993E+0	8.778314E-1	9.153026E-1	9.631684E-1	1.040674E+0	9.209886E-1	8.219976E-1	9.763712E-1	1.016427E+0	1.000368E+0	9.421671E-1	1.098974E+0	1.129178E+0	1.040035E+0	9.435540E-1	1.063081E+0	1.041544E+0	9.050283E-1	9.860924E-1	1.033138E+0	1.022068E+0	8.851035E-1	9.249595E-1	9.710883E-1	9.634756E-1	9.989490E-1	1.109861E+0	1.123757E+0	1.131948E+0	1.028576E+0	9.958224E-1	1.007695E+0	1.106940E+0	9.122370E-1	9.052050E-1	1.003608E+0	1.034709E+0	9.747135E-1	9.323869E-1	9.812805E-1	1.038515E+0	1.056696E+0	1.017479E+0	1.092990E+0	1.102527E+0	1.048443E+0	1.026908E+0	1.089970E+0	1.068528E+0	9.174003E-1	9.246141E-1	1.039522E+0	1.118835E+0	9.135451E-1	9.670177E-1	1.012086E+0	1.043759E+0	1.037279E+0	1.029926E+0	1.057541E+0	1.098824E+0	1.074952E+0	1.011986E+0	1.102815E+0	1.153122E+0	9.243008E-1	9.116554E-1	1.078234E+0	1.080711E+0	8.943667E-1	9.308575E-1	1.129898E+0	1.038068E+0	9.638726E-1	1.106999E+0	1.057763E+0	1.140118E+0	9.001213E-1	1.060100E+0	1.073088E+0	1.080299E+0	9.171852E-1	9.466242E-1	1.041159E+0	1.098585E+0	9.001247E-1	9.515905E-1	8.252245E-1	1.040099E+0	9.762102E-1	1.093115E+0	1.072038E+0	1.135522E+0	1.022228E+0	1.098824E+0	1.089399E+0
5.362630E+2	6.592104E-1	6.609807E-1	8.811687E-1	7.240484E-1	7.377668E-1	8.157874E-1	8.615035E-1	8.260971E-1	7.140190E-1	7.586205E-1	8.383800E-1	8.115463E-1	6.711741E-1	7.255742E-1	6.839063E-1	7.614823E-1	6.974950E-1	7.517066E-1	6.972892E-1	6.437245E-1	7.538715E-1	8.174369E-1	7.704932E-1	7.474029E-1	7.004815E-1	7.549887E-1	8.035013E-1	7.210031E-1	6.646194E-1	6.968896E-1	7.229562E-1	7.956943E-1	6.857173E-1	7.078852E-1	7.010336E-1	7.416488E-1	7.036780E-1	8.051934E-1	7.933590E-1	7.886687E-1	7.489493E-1	7.413821E-1	7.556594E-1	7.941703E-1	7.215296E-1	6.861963E-1	7.209737E-1	7.522928E-1	6.462794E-1	7.184959E-1	7.357855E-1	7.569391E-1	7.156935E-1	7.832755E-1	8.223130E-1	8.656242E-1	6.911641E-1	7.412269E-1	8.229550E-1	8.508873E-1	7.202116E-1	7.543423E-1	7.703428E-1	7.864420E-1	6.829578E-1	7.836077E-1	8.122431E-1	7.002615E-1	7.187827E-1	8.119110E-1	8.547567E-1	8.025105E-1	7.382172E-1	7.307742E-1	8.035800E-1	8.779056E-1	6.959397E-1	6.575013E-1	7.198373E-1	8.003834E-1	7.126614E-1	5.931639E-1	7.192853E-1	7.392583E-1	7.526653E-1	7.538422E-1	8.533264E-1	8.599810E-1	7.299669E-1	6.990266E-1	8.157641E-1	7.571195E-1	6.423277E-1	7.382982E-1	7.666707E-1	7.892939E-1	6.981270E-1	7.207636E-1	8.036290E-1	7.681116E-1	7.362402E-1	8.979568E-1	8.595080E-1	8.371645E-1	7.556127E-1	7.790996E-1	7.492100E-1	8.706118E-1	7.137912E-1	6.749336E-1	7.859693E-1	8.211643E-1	7.225309E-1	7.435173E-1	7.768214E-1	7.536445E-1	8.054370E-1	8.426934E-1	8.647298E-1	8.794629E-1	7.608521E-1	8.106281E-1	7.927591E-1	8.271657E-1	7.071907E-1	7.986616E-1	7.427958E-1	8.160119E-1	6.791471E-1	7.685868E-1	7.573158E-1	7.740203E-1	7.764522E-1	7.952650E-1	8.406252E-1	8.107417E-1	8.016827E-1	8.057716E-1	8.439127E-1	8.213456E-1	7.597115E-1	6.685716E-1	8.319299E-1	7.980044E-1	6.792113E-1	7.557393E-1	7.906796E-1	7.742013E-1	7.443198E-1	8.165626E-1	8.681787E-1	8.922695E-1	7.041523E-1	8.136246E-1	8.338772E-1	8.625743E-1	7.099930E-1	7.386187E-1	8.072590E-1	8.578996E-1	7.039854E-1	6.847604E-1	6.467654E-1	8.119770E-1	7.424551E-1	7.968975E-1	7.690328E-1	8.927353E-1	7.869473E-1	9.045706E-1	7.084809E-1
5.365040E+2	5.441355E-1	5.247916E-1	6.823630E-1	5.657429E-1	5.867328E-1	6.253163E-1	6.608784E-1	6.738672E-1	5.137035E-1	5.965256E-1	6.146998E-1	6.709867E-1	5.397583E-1	5.392763E-1	5.390820E-1	6.134949E-1	5.658066E-1	6.528340E-1	5.621102E-1	5.306619E-1	6.064725E-1	6.766266E-1	6.530658E-1	6.590724E-1	5.749269E-1	6.203307E-1	6.706275E-1	5.756979E-1	5.523077E-1	5.797927E-1	5.376588E-1	6.019974E-1	5.480101E-1	5.685679E-1	5.729790E-1	5.742874E-1	5.852374E-1	6.203491E-1	6.201017E-1	6.463055E-1	6.412641E-1	5.833025E-1	6.501463E-1	6.668397E-1	5.390290E-1	5.670381E-1	5.903425E-1	6.174553E-1	5.478304E-1	5.941310E-1	6.028306E-1	6.133828E-1	6.203863E-1	5.924142E-1	6.402250E-1	6.643377E-1	5.935653E-1	5.623239E-1	6.530912E-1	6.514928E-1	5.463412E-1	5.688613E-1	6.115540E-1	6.165466E-1	5.685579E-1	5.935784E-1	6.789116E-1	5.954575E-1	5.206868E-1	6.643052E-1	6.636957E-1	6.619184E-1	6.177935E-1	5.635755E-1	6.363753E-1	6.762879E-1	5.377977E-1	5.468353E-1	5.412100E-1	6.389380E-1	5.398684E-1	4.931272E-1	5.819211E-1	6.358272E-1	6.306530E-1	5.915630E-1	6.687653E-1	6.554660E-1	6.123026E-1	5.834569E-1	6.162920E-1	6.300501E-1	5.587131E-1	5.829860E-1	6.354879E-1	6.200039E-1	5.521607E-1	5.598594E-1	6.511983E-1	6.279597E-1	5.860326E-1	7.320000E-1	7.009583E-1	6.974624E-1	6.134444E-1	6.276546E-1	6.071418E-1	6.635640E-1	5.859174E-1	5.829389E-1	5.842988E-1	6.260814E-1	5.779372E-1	5.467771E-1	5.816560E-1	6.264699E-1	6.446567E-1	6.470851E-1	6.487904E-1	7.007373E-1	5.710422E-1	6.254517E-1	6.750852E-1	6.789340E-1	5.680817E-1	5.908081E-1	6.265529E-1	6.213401E-1	5.529844E-1	5.949604E-1	6.309611E-1	6.699365E-1	6.832571E-1	6.607972E-1	6.867063E-1	7.034047E-1	6.424545E-1	5.630801E-1	6.834976E-1	6.902731E-1	5.957381E-1	5.712171E-1	6.329428E-1	6.420493E-1	5.463599E-1	5.470193E-1	6.748860E-1	6.615083E-1	5.677484E-1	6.824181E-1	7.001521E-1	6.747072E-1	5.708934E-1	6.660223E-1	6.971840E-1	6.805532E-1	5.600425E-1	5.527289E-1	6.541259E-1	6.865321E-1	5.375258E-1	5.774856E-1	5.210184E-1	6.398237E-1	5.832652E-1	6.669120E-1	6.115884E-1	6.743082E-1	5.682199E-1	7.140902E-1	6.890464E-1
5.367810E+2	4.464183E-1	4.315754E-1	5.746767E-1	4.744133E-1	5.373912E-1	5.425321E-1	5.673969E-1	5.796914E-1	4.834301E-1	5.320949E-1	5.556268E-1	5.213173E-1	4.740502E-1	5.113876E-1	4.608978E-1	5.481885E-1	4.555416E-1	5.107045E-1	5.134685E-1	4.663336E-1	5.076285E-1	5.241847E-1	5.507534E-1	5.898590E-1	4.992059E-1	5.710660E-1	5.703344E-1	5.319080E-1	4.394195E-1	5.261227E-1	4.967765E-1	5.406104E-1	4.824349E-1	5.330933E-1	4.835336E-1	5.046106E-1	4.910359E-1	5.069227E-1	5.609404E-1	5.416266E-1	5.089274E-1	5.352461E-1	5.369612E-1	5.381961E-1	4.395341E-1	4.687033E-1	5.258464E-1	5.511990E-1	4.197209E-1	5.099258E-1	5.096324E-1	5.098737E-1	4.938667E-1	5.370832E-1	5.244607E-1	5.849313E-1	4.959664E-1	5.227913E-1	5.785171E-1	5.507957E-1	4.699522E-1	5.378482E-1	5.472967E-1	5.562419E-1	4.869355E-1	5.072627E-1	5.754520E-1	5.060254E-1	5.126942E-1	5.558983E-1	5.669480E-1	5.555729E-1	4.751372E-1	5.080792E-1	5.512184E-1	5.554588E-1	4.624924E-1	4.701232E-1	5.069227E-1	5.237985E-1	4.778577E-1	4.099715E-1	5.063076E-1	5.242835E-1	4.853423E-1	4.927257E-1	5.524402E-1	6.000247E-1	5.368210E-1	4.439281E-1	5.772812E-1	5.576273E-1	4.626178E-1	4.897985E-1	5.152356E-1	5.341500E-1	4.889080E-1	5.151237E-1	5.302555E-1	4.955936E-1	5.155646E-1	5.790727E-1	5.656880E-1	5.750637E-1	4.954450E-1	5.016680E-1	5.249260E-1	5.582967E-1	4.906147E-1	4.829447E-1	5.133301E-1	5.442327E-1	5.094093E-1	5.080854E-1	5.219115E-1	5.283636E-1	5.574318E-1	5.833551E-1	6.021004E-1	6.120566E-1	4.994643E-1	5.878373E-1	5.392557E-1	5.695059E-1	4.512299E-1	5.076664E-1	5.592536E-1	5.394073E-1	4.892385E-1	5.212186E-1	5.410021E-1	5.724494E-1	5.579882E-1	5.559907E-1	5.931857E-1	6.170413E-1	5.284135E-1	5.541461E-1	5.842640E-1	6.063048E-1	4.903267E-1	4.926081E-1	5.655334E-1	5.786727E-1	4.439668E-1	5.043704E-1	5.479578E-1	5.460666E-1	5.218632E-1	5.659900E-1	5.549528E-1	5.894126E-1	4.794413E-1	5.431378E-1	5.835065E-1	5.734411E-1	4.517798E-1	4.959454E-1	5.933899E-1	5.710032E-1	4.633287E-1	5.041582E-1	4.352815E-1	5.675613E-1	5.276369E-1	5.637988E-1	5.336095E-1	6.345202E-1	5.351144E-1	5.877312E-1	5.219087E-1
5.370070E+2	4.335606E-1	4.481027E-1	5.174446E-1	4.696773E-1	4.994824E-1	5.183018E-1	5.638014E-1	5.164773E-1	5.143473E-1	4.737676E-1	5.403611E-1	5.668689E-1	5.500427E-1	4.321835E-1	4.582745E-1	5.314126E-1	5.097292E-1	4.853684E-1	4.529492E-1	4.227981E-1	5.151423E-1	5.217357E-1	5.426150E-1	5.404204E-1	4.972645E-1	5.218007E-1	5.562803E-1	5.086855E-1	4.129257E-1	4.694041E-1	4.728843E-1	5.125992E-1	4.395132E-1	4.260257E-1	4.687339E-1	4.841171E-1	4.866286E-1	5.555342E-1	5.174755E-1	4.967645E-1	5.322808E-1	5.036305E-1	5.465529E-1	5.703567E-1	4.412401E-1	4.201141E-1	4.471396E-1	5.081902E-1	4.279251E-1	4.930847E-1	4.855181E-1	4.759872E-1	4.999974E-1	5.028896E-1	5.111958E-1	5.036780E-1	4.928577E-1	5.274820E-1	5.647065E-1	5.307896E-1	4.431588E-1	4.585270E-1	5.164041E-1	5.098542E-1	4.721533E-1	5.152923E-1	5.208080E-1	4.899555E-1	4.795831E-1	5.571237E-1	5.961548E-1	5.363464E-1	5.251595E-1	5.045219E-1	5.450027E-1	5.512436E-1	4.456934E-1	5.028202E-1	4.864604E-1	5.263020E-1	4.339626E-1	4.099713E-1	4.678706E-1	5.134674E-1	4.908605E-1	5.000728E-1	5.153982E-1	5.482802E-1	4.672593E-1	4.692972E-1	5.191324E-1	5.332671E-1	4.170664E-1	4.777974E-1	5.336836E-1	5.105698E-1	4.207902E-1	5.021361E-1	5.245307E-1	4.531230E-1	4.865123E-1	5.447844E-1	5.568798E-1	5.513526E-1	5.018425E-1	5.434457E-1	4.966439E-1	5.764227E-1	4.664881E-1	4.458041E-1	5.156953E-1	5.214630E-1	5.011863E-1	4.582451E-1	4.887201E-1	4.651398E-1	5.047068E-1	5.278274E-1	5.657865E-1	5.724913E-1	4.962690E-1	5.183959E-1	5.137035E-1	5.803714E-1	4.883258E-1	4.816073E-1	5.457940E-1	5.682476E-1	4.905671E-1	5.098227E-1	5.396283E-1	4.940200E-1	5.343871E-1	5.263285E-1	5.886392E-1	5.646065E-1	5.735998E-1	5.280901E-1	5.700876E-1	5.714890E-1	5.032723E-1	4.545131E-1	5.033095E-1	5.264812E-1	4.932192E-1	4.920926E-1	5.486995E-1	5.295749E-1	5.044383E-1	5.457422E-1	5.872897E-1	5.745786E-1	4.552723E-1	5.417252E-1	5.660712E-1	5.510387E-1	4.779124E-1	4.941525E-1	5.617294E-1	5.536739E-1	4.917171E-1	4.878636E-1	3.920960E-1	5.555177E-1	4.714173E-1	5.575494E-1	5.521759E-1	5.679366E-1	5.504845E-1	5.858463E-1	4.597178E-1
5.372690E+2	4.663472E-1	4.295915E-1	5.724171E-1	4.940321E-1	5.048979E-1	5.485892E-1	5.846554E-1	5.829166E-1	5.195003E-1	5.287031E-1	5.708930E-1	5.740269E-1	5.740407E-1	4.974433E-1	4.729670E-1	5.302144E-1	5.658071E-1	5.459281E-1	4.744422E-1	4.708819E-1	5.330619E-1	5.670397E-1	5.513348E-1	5.496490E-1	5.412729E-1	5.631831E-1	6.029140E-1	5.345622E-1	5.620988E-1	4.907504E-1	5.010244E-1	5.829257E-1	5.748359E-1	5.330932E-1	4.867513E-1	5.305683E-1	5.615490E-1	5.621357E-1	5.681851E-1	5.882838E-1	5.277399E-1	5.232321E-1	5.638182E-1	5.460724E-1	4.651188E-1	4.993605E-1	4.990644E-1	5.389938E-1	4.430710E-1	5.105734E-1	5.298363E-1	5.530026E-1	5.050140E-1	5.669241E-1	5.781222E-1	6.027825E-1	4.704789E-1	5.335114E-1	5.854214E-1	5.881404E-1	4.739427E-1	5.127994E-1	5.405005E-1	5.272498E-1	4.888636E-1	5.440645E-1	5.521374E-1	5.095190E-1	5.184031E-1	5.626354E-1	5.736416E-1	5.826097E-1	4.967520E-1	5.600182E-1	5.636499E-1	5.969060E-1	4.926144E-1	4.789258E-1	5.500587E-1	5.575896E-1	5.085143E-1	4.393571E-1	5.447444E-1	5.398320E-1	5.239695E-1	5.401412E-1	5.901321E-1	5.815446E-1	5.738219E-1	4.685926E-1	5.912660E-1	5.740873E-1	4.882017E-1	5.272150E-1	5.234347E-1	5.837280E-1	4.750066E-1	4.833761E-1	5.395587E-1	4.920541E-1	5.378180E-1	6.181617E-1	6.065835E-1	6.218443E-1	5.395169E-1	5.525852E-1	5.492616E-1	6.147643E-1	5.081069E-1	4.938013E-1	5.233839E-1	5.596175E-1	5.059831E-1	4.825092E-1	5.252306E-1	5.407177E-1	5.418102E-1	5.884028E-1	6.144214E-1	5.595305E-1	5.588996E-1	5.827740E-1	5.755665E-1	5.912358E-1	4.988361E-1	5.188351E-1	5.280519E-1	5.269539E-1	4.759587E-1	5.319451E-1	5.677836E-1	4.947537E-1	5.452798E-1	5.658783E-1	6.172151E-1	6.232103E-1	5.226757E-1	5.794579E-1	6.014246E-1	5.912860E-1	5.205323E-1	4.883754E-1	5.810892E-1	5.923429E-1	4.530395E-1	5.192331E-1	5.345970E-1	5.646194E-1	5.050193E-1	5.653572E-1	6.094815E-1	5.962117E-1	5.081836E-1	5.890433E-1	5.835066E-1	5.790418E-1	4.704459E-1	4.929571E-1	6.185891E-1	6.011690E-1	4.781681E-1	5.014426E-1	4.606849E-1	5.441824E-1	4.933135E-1	5.481750E-1	5.737130E-1	6.320846E-1	5.764966E-1	6.084773E-1	5.491171E-1
5.375060E+2	4.984914E-1	4.798358E-1	6.078108E-1	5.684494E-1	5.325769E-1	6.105092E-1	6.249238E-1	6.448405E-1	5.639430E-1	5.714314E-1	6.180186E-1	6.150234E-1	6.226076E-1	5.303518E-1	5.317360E-1	5.601713E-1	5.777782E-1	5.731178E-1	5.145994E-1	4.780301E-1	5.735243E-1	6.098951E-1	5.897022E-1	5.951320E-1	5.885178E-1	6.223009E-1	6.195229E-1	5.504858E-1	6.340936E-1	5.242937E-1	5.344732E-1	5.781578E-1	6.153733E-1	5.821125E-1	5.285784E-1	5.537943E-1	5.797283E-1	5.993445E-1	6.188941E-1	6.152014E-1	5.900159E-1	5.782439E-1	6.507861E-1	6.307409E-1	5.742779E-1	5.068803E-1	5.345915E-1	5.796776E-1	5.970545E-1	5.520281E-1	5.565575E-1	5.813444E-1	5.585195E-1	5.787368E-1	6.221372E-1	6.274047E-1	4.996961E-1	5.589739E-1	6.088991E-1	6.268189E-1	5.138471E-1	5.259201E-1	5.460613E-1	5.747968E-1	5.184276E-1	5.688213E-1	6.111525E-1	5.409602E-1	5.389549E-1	6.159204E-1	6.204938E-1	6.390867E-1	5.696242E-1	5.891888E-1	6.009444E-1	6.292205E-1	5.088340E-1	5.166530E-1	5.754976E-1	6.007667E-1	4.820380E-1	4.506116E-1	5.283616E-1	6.013500E-1	5.423631E-1	5.534971E-1	5.888322E-1	6.228171E-1	5.346005E-1	5.616118E-1	5.743366E-1	6.083236E-1	5.399928E-1	5.215671E-1	5.910761E-1	5.807047E-1	4.937732E-1	5.382128E-1	6.068287E-1	5.798264E-1	5.736697E-1	6.284486E-1	6.481085E-1	6.506822E-1	5.722161E-1	5.937101E-1	6.235849E-1	6.614728E-1	5.093138E-1	5.566549E-1	5.671484E-1	6.205426E-1	5.470994E-1	5.448105E-1	5.836474E-1	5.937679E-1	5.854224E-1	6.407750E-1	6.306331E-1	6.141029E-1	5.397274E-1	6.399180E-1	6.374292E-1	6.013254E-1	5.674634E-1	5.597849E-1	6.283882E-1	6.128192E-1	5.038467E-1	5.352967E-1	5.801448E-1	5.739156E-1	5.113905E-1	5.777428E-1	6.334517E-1	6.596063E-1	5.757517E-1	5.906243E-1	6.663371E-1	6.083524E-1	5.137514E-1	5.313079E-1	6.024792E-1	6.084974E-1	5.217337E-1	5.528349E-1	6.117929E-1	5.756140E-1	5.555511E-1	6.096507E-1	6.323078E-1	6.283514E-1	5.290870E-1	6.010489E-1	6.107055E-1	6.245471E-1	4.940899E-1	5.389811E-1	5.972664E-1	6.249168E-1	5.439775E-1	5.381066E-1	4.403625E-1	5.944829E-1	5.631445E-1	6.369155E-1	6.115888E-1	6.621275E-1	5.812255E-1	6.461969E-1	6.190811E-1
5.377690E+2	5.614931E-1	5.585085E-1	7.034484E-1	6.083636E-1	6.186247E-1	6.603145E-1	7.608317E-1	7.841691E-1	6.502520E-1	6.677395E-1	6.950117E-1	7.165386E-1	6.963147E-1	6.240583E-1	6.177906E-1	6.758055E-1	7.327798E-1	6.528337E-1	6.350727E-1	5.865434E-1	6.573398E-1	7.317262E-1	6.763193E-1	6.636869E-1	6.532367E-1	7.011258E-1	7.798650E-1	6.440377E-1	7.412220E-1	6.572470E-1	6.061498E-1	6.770925E-1	7.006205E-1	6.562861E-1	6.115889E-1	6.528445E-1	7.510541E-1	6.743624E-1	7.058247E-1	6.971492E-1	6.795376E-1	6.585480E-1	6.955489E-1	6.990007E-1	7.482509E-1	6.092639E-1	6.373477E-1	6.587208E-1	7.548250E-1	6.381765E-1	6.621392E-1	6.836209E-1	6.850390E-1	6.663962E-1	7.469453E-1	7.308176E-1	6.445404E-1	6.681918E-1	7.283562E-1	7.368525E-1	7.452941E-1	6.016630E-1	6.436823E-1	7.145407E-1	7.427287E-1	6.732033E-1	7.073267E-1	6.765061E-1	7.136447E-1	7.200405E-1	7.555754E-1	7.700656E-1	6.622577E-1	6.944883E-1	6.916958E-1	7.619932E-1	6.414878E-1	6.248045E-1	6.042549E-1	6.977594E-1	6.576191E-1	5.243885E-1	6.682468E-1	6.425878E-1	6.987101E-1	6.696978E-1	7.084071E-1	7.312351E-1	6.433838E-1	5.996653E-1	7.274370E-1	6.866723E-1	6.023922E-1	6.747613E-1	6.498360E-1	6.919518E-1	5.723169E-1	6.291275E-1	6.891268E-1	6.895421E-1	6.181762E-1	7.635453E-1	7.645041E-1	7.480886E-1	6.568060E-1	7.014186E-1	6.794910E-1	7.890473E-1	5.901392E-1	5.892245E-1	6.333861E-1	6.950065E-1	6.355011E-1	6.372776E-1	6.686174E-1	6.795198E-1	7.025895E-1	6.918857E-1	7.324425E-1	7.334808E-1	6.924699E-1	6.854891E-1	6.986204E-1	7.363641E-1	6.193972E-1	6.764310E-1	6.742735E-1	7.294910E-1	6.074334E-1	6.432265E-1	7.291606E-1	7.109839E-1	7.110947E-1	6.759577E-1	7.568468E-1	7.663263E-1	6.869240E-1	7.097375E-1	7.424409E-1	7.360122E-1	6.351906E-1	6.099171E-1	7.042415E-1	7.240656E-1	6.215345E-1	6.652721E-1	6.889894E-1	7.047992E-1	6.566149E-1	7.475923E-1	7.267831E-1	7.414588E-1	6.407888E-1	7.260520E-1	7.676233E-1	7.911659E-1	6.452841E-1	6.471675E-1	6.993551E-1	7.218321E-1	6.097873E-1	6.582813E-1	5.368951E-1	6.879983E-1	6.400763E-1	7.525276E-1	7.341278E-1	7.961075E-1	6.639860E-1	7.442656E-1	7.628979E-1
5.380270E+2	6.707820E-1	6.437918E-1	8.939708E-1	6.983407E-1	7.275373E-1	7.558870E-1	8.564702E-1	8.570589E-1	7.732761E-1	7.538728E-1	8.065201E-1	8.414801E-1	8.134463E-1	7.239010E-1	6.702632E-1	7.626807E-1	8.480859E-1	7.628292E-1	6.876740E-1	6.768631E-1	7.590740E-1	8.407012E-1	8.007222E-1	8.159572E-1	7.813800E-1	8.062240E-1	8.335251E-1	7.316187E-1	8.610213E-1	7.658055E-1	7.675554E-1	7.950981E-1	8.478660E-1	7.401346E-1	7.344954E-1	7.197895E-1	7.945745E-1	8.009925E-1	8.169026E-1	8.030247E-1	7.781415E-1	7.723655E-1	7.748430E-1	8.204244E-1	8.733296E-1	6.804121E-1	6.974707E-1	8.022765E-1	8.103606E-1	7.444045E-1	7.344820E-1	7.902099E-1	8.254926E-1	7.689765E-1	7.981958E-1	8.680863E-1	8.105212E-1	7.814300E-1	8.512656E-1	8.762287E-1	8.764097E-1	7.907228E-1	7.629288E-1	7.899209E-1	8.204949E-1	7.575119E-1	8.144287E-1	7.540604E-1	8.232545E-1	8.021111E-1	8.480637E-1	8.523785E-1	7.746534E-1	7.321972E-1	7.967432E-1	8.174907E-1	8.998436E-1	7.203795E-1	7.408520E-1	8.316712E-1	8.401663E-1	6.200487E-1	7.293672E-1	7.791439E-1	8.004889E-1	7.745453E-1	8.546259E-1	8.254844E-1	7.329263E-1	7.272146E-1	8.319573E-1	8.051824E-1	7.889660E-1	7.559478E-1	8.042494E-1	8.050135E-1	7.294055E-1	7.741575E-1	8.143636E-1	7.546625E-1	7.628204E-1	8.862989E-1	8.953695E-1	8.801000E-1	7.719625E-1	7.849743E-1	7.906460E-1	8.510925E-1	7.355057E-1	7.320731E-1	7.439793E-1	7.768550E-1	7.574802E-1	7.540100E-1	7.628806E-1	7.652719E-1	8.080405E-1	8.559443E-1	8.575964E-1	8.787805E-1	7.653261E-1	8.091807E-1	8.021733E-1	8.124204E-1	7.127551E-1	7.651565E-1	7.697157E-1	8.147014E-1	7.389092E-1	7.364093E-1	7.676169E-1	8.158004E-1	7.831092E-1	7.801047E-1	8.217919E-1	8.915524E-1	7.772962E-1	8.236381E-1	8.648033E-1	8.575266E-1	7.042318E-1	6.988058E-1	8.384121E-1	8.545455E-1	6.856920E-1	7.557396E-1	8.411546E-1	7.996260E-1	7.478050E-1	8.368115E-1	8.554975E-1	8.885611E-1	7.139507E-1	8.256305E-1	8.938544E-1	8.968782E-1	6.726610E-1	7.362281E-1	8.079054E-1	8.373612E-1	6.801130E-1	7.302507E-1	6.448605E-1	8.077268E-1	7.921649E-1	8.193954E-1	8.091364E-1	8.919235E-1	8.165051E-1	8.593084E-1	7.434637E-1
5.382690E+2	8.167157E-1	8.361762E-1	1.003916E+0	8.674700E-1	8.165928E-1	9.530888E-1	1.026175E+0	1.058957E+0	9.169109E-1	9.478443E-1	9.903757E-1	9.722782E-1	1.032283E+0	8.265311E-1	8.329280E-1	9.520092E-1	9.810344E-1	8.851842E-1	8.697981E-1	7.853771E-1	9.197684E-1	9.931431E-1	1.048948E+0	9.517481E-1	9.768310E-1	9.888332E-1	1.052000E+0	8.497193E-1	1.079885E+0	9.127868E-1	8.233040E-1	9.381363E-1	1.012996E+0	8.949315E-1	8.889337E-1	9.458978E-1	9.879344E-1	1.010443E+0	9.732571E-1	1.014176E+0	1.004541E+0	9.532086E-1	9.833095E-1	1.025860E+0	1.070045E+0	8.585714E-1	8.767476E-1	8.993364E-1	9.933735E-1	8.927358E-1	9.221823E-1	8.998798E-1	9.269309E-1	9.809757E-1	9.881219E-1	1.137085E+0	9.043900E-1	9.321910E-1	9.914372E-1	1.058952E+0	1.004676E+0	9.034427E-1	9.445782E-1	9.528582E-1	9.965938E-1	9.856814E-1	9.251743E-1	9.482970E-1	9.591244E-1	9.999389E-1	1.051902E+0	1.030823E+0	9.197796E-1	9.819279E-1	9.508948E-1	9.945205E-1	1.006430E+0	8.480229E-1	9.189270E-1	9.774729E-1	1.042920E+0	8.576352E-1	8.768133E-1	9.745139E-1	1.009564E+0	9.341529E-1	1.000845E+0	1.040472E+0	1.003774E+0	8.928164E-1	1.027749E+0	1.000065E+0	1.074756E+0	9.162016E-1	9.552474E-1	9.501192E-1	1.010218E+0	9.473273E-1	9.582065E-1	9.486107E-1	1.036037E+0	1.022767E+0	1.046370E+0	1.053125E+0	9.873467E-1	9.814610E-1	9.715205E-1	1.081843E+0	8.507128E-1	8.486374E-1	9.219936E-1	9.399372E-1	9.171500E-1	8.517242E-1	9.228632E-1	9.462233E-1	9.766317E-1	9.916076E-1	1.065107E+0	1.037041E+0	9.474671E-1	9.444468E-1	9.985205E-1	1.025844E+0	8.098224E-1	8.917299E-1	9.526460E-1	9.713566E-1	8.438237E-1	8.859023E-1	9.241869E-1	9.638634E-1	9.676841E-1	1.018720E+0	1.057541E+0	1.050707E+0	9.766898E-1	9.412622E-1	1.027457E+0	1.061645E+0	8.836160E-1	8.699316E-1	9.699904E-1	9.744629E-1	8.464108E-1	9.056561E-1	9.680819E-1	1.011957E+0	9.365735E-1	1.088017E+0	1.100879E+0	1.031337E+0	8.308785E-1	1.057982E+0	1.002650E+0	1.056496E+0	8.450102E-1	8.737024E-1	9.700838E-1	9.740700E-1	8.181844E-1	8.972736E-1	7.528244E-1	9.848391E-1	8.909930E-1	1.037496E+0	9.242488E-1	1.038895E+0	9.465606E-1	1.030930E+0	9.572446E-1
5.385170E+2	1.021794E+0	9.412933E-1	1.222301E+0	1.095457E+0	1.100007E+0	1.157021E+0	1.268507E+0	1.233764E+0	1.160381E+0	1.104514E+0	1.193480E+0	1.192879E+0	1.247692E+0	1.018964E+0	1.007662E+0	1.141337E+0	1.202195E+0	1.163882E+0	1.029865E+0	9.445737E-1	1.218614E+0	1.175583E+0	1.162307E+0	1.175211E+0	1.195580E+0	1.210199E+0	1.280695E+0	1.092557E+0	1.259008E+0	1.134174E+0	1.033024E+0	1.175342E+0	1.229990E+0	1.122613E+0	1.034363E+0	1.140583E+0	1.203334E+0	1.156277E+0	1.206883E+0	1.196616E+0	1.187477E+0	1.145432E+0	1.207123E+0	1.224077E+0	1.245154E+0	1.076064E+0	1.018856E+0	1.074858E+0	1.189640E+0	1.082522E+0	1.073386E+0	1.097655E+0	1.128692E+0	1.127075E+0	1.183475E+0	1.214028E+0	1.127564E+0	1.094343E+0	1.230352E+0	1.211664E+0	1.244673E+0	1.067452E+0	1.115725E+0	1.143050E+0	1.206112E+0	1.140249E+0	1.164878E+0	1.155109E+0	1.192616E+0	1.214304E+0	1.306855E+0	1.244115E+0	1.158773E+0	1.110707E+0	1.152288E+0	1.210889E+0	1.227134E+0	1.057407E+0	1.073219E+0	1.184598E+0	1.231041E+0	1.108352E+0	1.089791E+0	1.115127E+0	1.205152E+0	1.123144E+0	1.208151E+0	1.200634E+0	1.200620E+0	1.083788E+0	1.240471E+0	1.154130E+0	1.262577E+0	1.044687E+0	1.188920E+0	1.120619E+0	1.238203E+0	1.139979E+0	1.147135E+0	1.119201E+0	1.207262E+0	1.281302E+0	1.262171E+0	1.295359E+0	1.150129E+0	1.133559E+0	1.118191E+0	1.238001E+0	1.211416E+0	1.024056E+0	1.128396E+0	1.187944E+0	1.172758E+0	1.036004E+0	1.109399E+0	1.111914E+0	1.212270E+0	1.135474E+0	1.258997E+0	1.233504E+0	1.196712E+0	1.129624E+0	1.147126E+0	1.250132E+0	1.151721E+0	1.084072E+0	1.079290E+0	1.187660E+0	1.102126E+0	1.095729E+0	1.117840E+0	1.154440E+0	1.195226E+0	1.180873E+0	1.241985E+0	1.263529E+0	1.166041E+0	1.104298E+0	1.202049E+0	1.271225E+0	1.132660E+0	1.057989E+0	1.190366E+0	1.195656E+0	1.066750E+0	1.059450E+0	1.192248E+0	1.178247E+0	1.098626E+0	1.243044E+0	1.234033E+0	1.258787E+0	1.063429E+0	1.171685E+0	1.211176E+0	1.171311E+0	9.594949E-1	1.060189E+0	1.152293E+0	1.236576E+0	9.962580E-1	1.045965E+0	9.135009E-1	1.139990E+0	1.075631E+0	1.208100E+0	1.151503E+0	1.169626E+0	1.067155E+0	1.274217E+0	1.198232E+0
5.387860E+2	1.145226E+0	1.111860E+0	1.442192E+0	1.352532E+0	1.297375E+0	1.380472E+0	1.438930E+0	1.480167E+0	1.330424E+0	1.409713E+0	1.439726E+0	1.423241E+0	1.425388E+0	1.183508E+0	1.219650E+0	1.398967E+0	1.434069E+0	1.296123E+0	1.235178E+0	1.147305E+0	1.411101E+0	1.439449E+0	1.334378E+0	1.440858E+0	1.348314E+0	1.397403E+0	1.443592E+0	1.218618E+0	1.465777E+0	1.265907E+0	1.242745E+0	1.401223E+0	1.419560E+0	1.300627E+0	1.237706E+0	1.312044E+0	1.443520E+0	1.317115E+0	1.426622E+0	1.371878E+0	1.380791E+0	1.327541E+0	1.349085E+0	1.427541E+0	1.431637E+0	1.261166E+0	1.247872E+0	1.368945E+0	1.398527E+0	1.245747E+0	1.238277E+0	1.296663E+0	1.346618E+0	1.372025E+0	1.393902E+0	1.496570E+0	1.286703E+0	1.342932E+0	1.424381E+0	1.428400E+0	1.436215E+0	1.306612E+0	1.289959E+0	1.436451E+0	1.414346E+0	1.344326E+0	1.428628E+0	1.317205E+0	1.362738E+0	1.399267E+0	1.483921E+0	1.438783E+0	1.374919E+0	1.302808E+0	1.372946E+0	1.460278E+0	1.387011E+0	1.183166E+0	1.306043E+0	1.379834E+0	1.456789E+0	1.273414E+0	1.326714E+0	1.296977E+0	1.367631E+0	1.350872E+0	1.423905E+0	1.421164E+0	1.392285E+0	1.211337E+0	1.381059E+0	1.366130E+0	1.515918E+0	1.283302E+0	1.333084E+0	1.323160E+0	1.406414E+0	1.253261E+0	1.358965E+0	1.285544E+0	1.403212E+0	1.481549E+0	1.481748E+0	1.501708E+0	1.360538E+0	1.348975E+0	1.346423E+0	1.442259E+0	1.449066E+0	1.182905E+0	1.294581E+0	1.373795E+0	1.431109E+0	1.227496E+0	1.330453E+0	1.310306E+0	1.454414E+0	1.375251E+0	1.420465E+0	1.463391E+0	1.366711E+0	1.397985E+0	1.364318E+0	1.390604E+0	1.475073E+0	1.283859E+0	1.308106E+0	1.385608E+0	1.507840E+0	1.239190E+0	1.333466E+0	1.356745E+0	1.492362E+0	1.352253E+0	1.453707E+0	1.474504E+0	1.417793E+0	1.401333E+0	1.457220E+0	1.412534E+0	1.339783E+0	1.189205E+0	1.426948E+0	1.418095E+0	1.238485E+0	1.290142E+0	1.370394E+0	1.378895E+0	1.267645E+0	1.458812E+0	1.474343E+0	1.477587E+0	1.214977E+0	1.394853E+0	1.409239E+0	1.403736E+0	1.161087E+0	1.271783E+0	1.342901E+0	1.435544E+0	1.132394E+0	1.239469E+0	1.098311E+0	1.331980E+0	1.305242E+0	1.424330E+0	1.330485E+0	1.461134E+0	1.276425E+0	1.376057E+0	1.186572E+0
5.390080E+2	1.334875E+0	1.328706E+0	1.720818E+0	1.506100E+0	1.551303E+0	1.581712E+0	1.778341E+0	1.740121E+0	1.538468E+0	1.564350E+0	1.627563E+0	1.645142E+0	1.735072E+0	1.408292E+0	1.350308E+0	1.519992E+0	1.645144E+0	1.555667E+0	1.385629E+0	1.288957E+0	1.629596E+0	1.649440E+0	1.550048E+0	1.618837E+0	1.584543E+0	1.595124E+0	1.671012E+0	1.428946E+0	1.654117E+0	1.440940E+0	1.423794E+0	1.564523E+0	1.683051E+0	1.470263E+0	1.433969E+0	1.532005E+0	1.634675E+0	1.609984E+0	1.579957E+0	1.567479E+0	1.614327E+0	1.570985E+0	1.591445E+0	1.635604E+0	1.759680E+0	1.426018E+0	1.476887E+0	1.518893E+0	1.637076E+0	1.482819E+0	1.536122E+0	1.554201E+0	1.579036E+0	1.597082E+0	1.601312E+0	1.703395E+0	1.504905E+0	1.491010E+0	1.599770E+0	1.675139E+0	1.725811E+0	1.487917E+0	1.535868E+0	1.543144E+0	1.666281E+0	1.550418E+0	1.564144E+0	1.519829E+0	1.659598E+0	1.652220E+0	1.707840E+0	1.650269E+0	1.605268E+0	1.478545E+0	1.550100E+0	1.592348E+0	1.718360E+0	1.429650E+0	1.472506E+0	1.560678E+0	1.743150E+0	1.489738E+0	1.490543E+0	1.543045E+0	1.593874E+0	1.528510E+0	1.618865E+0	1.700220E+0	1.720854E+0	1.440359E+0	1.612179E+0	1.561672E+0	1.726200E+0	1.426616E+0	1.622779E+0	1.542029E+0	1.638571E+0	1.497142E+0	1.511392E+0	1.459673E+0	1.611526E+0	1.679051E+0	1.735932E+0	1.709981E+0	1.546778E+0	1.572226E+0	1.552947E+0	1.644429E+0	1.696974E+0	1.403463E+0	1.463723E+0	1.595340E+0	1.656566E+0	1.458335E+0	1.521636E+0	1.575554E+0	1.632770E+0	1.621339E+0	1.640943E+0	1.690551E+0	1.609564E+0	1.586780E+0	1.637324E+0	1.546596E+0	1.721760E+0	1.479923E+0	1.545488E+0	1.599944E+0	1.683137E+0	1.412816E+0	1.509265E+0	1.529728E+0	1.600080E+0	1.550002E+0	1.695302E+0	1.674373E+0	1.681022E+0	1.571073E+0	1.634795E+0	1.621431E+0	1.686839E+0	1.394193E+0	1.667418E+0	1.601388E+0	1.610468E+0	1.454274E+0	1.699961E+0	1.508766E+0	1.567933E+0	1.623333E+0	1.651245E+0	1.634581E+0	1.484110E+0	1.684409E+0	1.730748E+0	1.631260E+0	1.577960E+0	1.425994E+0	1.577447E+0	1.596642E+0	1.564672E+0	1.459450E+0	1.249463E+0	1.553727E+0	1.549649E+0	1.604305E+0	1.502037E+0	1.625968E+0	1.508158E+0	1.645747E+0	1.462543E+0
5.392930E+2	1.485308E+0	1.473489E+0	1.981380E+0	1.675231E+0	1.679472E+0	1.821318E+0	1.932945E+0	1.943311E+0	1.774211E+0	1.773920E+0	1.904346E+0	1.815633E+0	1.911628E+0	1.616902E+0	1.586430E+0	1.857308E+0	1.861897E+0	1.666896E+0	1.576804E+0	1.491690E+0	1.830757E+0	1.834940E+0	1.730258E+0	1.773742E+0	1.742456E+0	1.723868E+0	1.852432E+0	1.674435E+0	1.847062E+0	1.700754E+0	1.611218E+0	1.760603E+0	1.895279E+0	1.675369E+0	1.597417E+0	1.684340E+0	1.871004E+0	1.830836E+0	1.768308E+0	1.770253E+0	1.764827E+0	1.660773E+0	1.769858E+0	1.770153E+0	1.923422E+0	1.599552E+0	1.604786E+0	1.788569E+0	1.801789E+0	1.620788E+0	1.661253E+0	1.707617E+0	1.801976E+0	1.737584E+0	1.790032E+0	1.941617E+0	1.698858E+0	1.703416E+0	1.836613E+0	1.841189E+0	1.907660E+0	1.660872E+0	1.765091E+0	1.744930E+0	1.826956E+0	1.674871E+0	1.771062E+0	1.700089E+0	1.808596E+0	1.861684E+0	1.889770E+0	1.822705E+0	1.820178E+0	1.665669E+0	1.801839E+0	1.898636E+0	1.878816E+0	1.574266E+0	1.635093E+0	1.782197E+0	1.874136E+0	1.689188E+0	1.664451E+0	1.649187E+0	1.768615E+0	1.752230E+0	1.829420E+0	1.850525E+0	1.817057E+0	1.565092E+0	1.801350E+0	1.766432E+0	1.890936E+0	1.569219E+0	1.783346E+0	1.749411E+0	1.817207E+0	1.640007E+0	1.743261E+0	1.674148E+0	1.741334E+0	1.836094E+0	1.947334E+0	1.915046E+0	1.717381E+0	1.717145E+0	1.806827E+0	1.873089E+0	1.811580E+0	1.568025E+0	1.610984E+0	1.820578E+0	1.845699E+0	1.644586E+0	1.601958E+0	1.739792E+0	1.796154E+0	1.801171E+0	1.806954E+0	1.894517E+0	1.801292E+0	1.729278E+0	1.754327E+0	1.857808E+0	1.888074E+0	1.638142E+0	1.685592E+0	1.778886E+0	1.831880E+0	1.556276E+0	1.764722E+0	1.752555E+0	1.804628E+0	1.771478E+0	1.901823E+0	1.921739E+0	1.838099E+0	1.752716E+0	1.803419E+0	1.882212E+0	1.850810E+0	1.500617E+0	1.817144E+0	1.753615E+0	1.756931E+0	1.549911E+0	1.752662E+0	1.754770E+0	1.760768E+0	1.860617E+0	1.911845E+0	1.837308E+0	1.690530E+0	1.885685E+0	1.856974E+0	1.789484E+0	1.892173E+0	1.623239E+0	1.787438E+0	1.866210E+0	1.877591E+0	1.579626E+0	1.356157E+0	1.681244E+0	1.783405E+0	1.821157E+0	1.712210E+0	1.828158E+0	1.737527E+0	1.966358E+0	1.641343E+0
5.395210E+2	1.577882E+0	1.494645E+0	1.943724E+0	1.756417E+0	1.740246E+0	1.814584E+0	2.055910E+0	1.932340E+0	1.734919E+0	1.775951E+0	1.867839E+0	1.877458E+0	1.900771E+0	1.628615E+0	1.571216E+0	1.818365E+0	1.878911E+0	1.784925E+0	1.630535E+0	1.492341E+0	1.798385E+0	1.888818E+0	1.775021E+0	1.838345E+0	1.775461E+0	1.821740E+0	1.914397E+0	1.696997E+0	1.908690E+0	1.703802E+0	1.604847E+0	1.789210E+0	1.797512E+0	1.663755E+0	1.646325E+0	1.659062E+0	1.866050E+0	1.847641E+0	1.768912E+0	1.845621E+0	1.919870E+0	1.699978E+0	1.764099E+0	1.834475E+0	1.863725E+0	1.646405E+0	1.586200E+0	1.741494E+0	1.809360E+0	1.609129E+0	1.661255E+0	1.709466E+0	1.718370E+0	1.770535E+0	1.828019E+0	1.897908E+0	1.730562E+0	1.789851E+0	1.794493E+0	1.923221E+0	1.895690E+0	1.645962E+0	1.686004E+0	1.770447E+0	1.869376E+0	1.761187E+0	1.888367E+0	1.719653E+0	1.835431E+0	1.793697E+0	1.937233E+0	1.791463E+0	1.789300E+0	1.747486E+0	1.738438E+0	1.864216E+0	1.822046E+0	1.556036E+0	1.682657E+0	1.826628E+0	1.973773E+0	1.707947E+0	1.752039E+0	1.749233E+0	1.877751E+0	1.787624E+0	1.877509E+0	1.843132E+0	1.903638E+0	1.611602E+0	1.843304E+0	1.757215E+0	1.957079E+0	1.634166E+0	1.734833E+0	1.753037E+0	1.826244E+0	1.660932E+0	1.766878E+0	1.703877E+0	1.842707E+0	1.895069E+0	1.943558E+0	1.907353E+0	1.695345E+0	1.743909E+0	1.787099E+0	1.888424E+0	1.856816E+0	1.601738E+0	1.680177E+0	1.781193E+0	1.840222E+0	1.610479E+0	1.669671E+0	1.723806E+0	1.834559E+0	1.820102E+0	1.871799E+0	1.909522E+0	1.753998E+0	1.780638E+0	1.847793E+0	1.776316E+0	1.910328E+0	1.646207E+0	1.707614E+0	1.847050E+0	1.888986E+0	1.599850E+0	1.755797E+0	1.787739E+0	1.831253E+0	1.778729E+0	1.873247E+0	1.963073E+0	1.905518E+0	1.711029E+0	1.845203E+0	1.910881E+0	1.918618E+0	1.584066E+0	1.795108E+0	1.744917E+0	1.795812E+0	1.675269E+0	1.832085E+0	1.765077E+0	1.711399E+0	1.804302E+0	1.834489E+0	1.869449E+0	1.744746E+0	1.832012E+0	1.879991E+0	1.869290E+0	1.859195E+0	1.644759E+0	1.819745E+0	1.851447E+0	1.764039E+0	1.590491E+0	1.426014E+0	1.811601E+0	1.740795E+0	1.858654E+0	1.792417E+0	1.820036E+0	1.743439E+0	1.872061E+0	1.785156E+0
5.397650E+2	1.797746E+0	1.664550E+0	2.232141E+0	1.824744E+0	1.935807E+0	2.077076E+0	2.227770E+0	2.120047E+0	2.031208E+0	1.941441E+0	2.147273E+0	2.091544E+0	2.171602E+0	1.869016E+0	1.798947E+0	1.993313E+0	2.149848E+0	1.974018E+0	1.823405E+0	1.679476E+0	2.108211E+0	2.089012E+0	2.031384E+0	1.900968E+0	1.914607E+0	1.997781E+0	2.031304E+0	1.789221E+0	2.091266E+0	1.867860E+0	1.866598E+0	1.973965E+0	2.036562E+0	1.901758E+0	1.864468E+0	1.856480E+0	2.108437E+0	2.107501E+0	1.972959E+0	2.047804E+0	2.067126E+0	1.891566E+0	2.044187E+0	2.010379E+0	2.198025E+0	1.775978E+0	1.805923E+0	1.879819E+0	2.115436E+0	1.872109E+0	1.796163E+0	1.904161E+0	1.988690E+0	2.026675E+0	2.017341E+0	2.141669E+0	1.984196E+0	1.939273E+0	2.044454E+0	2.083935E+0	2.163050E+0	1.913746E+0	1.954773E+0	1.957737E+0	2.076320E+0	1.941177E+0	1.990369E+0	1.927164E+0	2.023250E+0	2.072374E+0	2.111258E+0	2.073847E+0	1.993715E+0	1.940300E+0	2.018149E+0	2.061616E+0	2.115738E+0	1.767308E+0	1.863495E+0	1.988071E+0	2.115215E+0	1.878634E+0	1.851596E+0	1.943252E+0	2.037779E+0	1.954579E+0	2.042575E+0	2.114175E+0	2.081983E+0	1.781432E+0	2.005975E+0	1.931691E+0	2.238499E+0	1.863604E+0	1.948689E+0	2.004553E+0	2.037546E+0	1.823280E+0	1.964394E+0	1.979936E+0	1.996621E+0	2.141263E+0	2.185152E+0	2.134210E+0	1.968307E+0	1.974337E+0	1.954162E+0	2.069679E+0	2.081802E+0	1.757157E+0	1.823302E+0	1.973198E+0	2.043747E+0	1.817059E+0	1.782521E+0	1.920744E+0	1.966697E+0	2.122350E+0	1.998252E+0	2.114169E+0	2.018582E+0	1.996192E+0	1.978238E+0	2.044841E+0	2.140325E+0	1.797599E+0	1.905843E+0	1.996497E+0	2.128692E+0	1.762079E+0	1.934339E+0	2.012764E+0	2.018854E+0	1.942861E+0	2.081721E+0	2.174046E+0	2.052552E+0	1.956698E+0	2.057845E+0	2.055610E+0	2.067801E+0	1.735238E+0	2.067335E+0	1.985993E+0	1.994122E+0	1.793522E+0	2.028042E+0	1.969162E+0	1.885646E+0	1.999189E+0	2.131232E+0	2.105554E+0	1.922426E+0	2.020575E+0	2.042488E+0	2.059012E+0	2.072607E+0	1.805544E+0	2.054936E+0	2.033725E+0	2.035018E+0	1.797571E+0	1.568909E+0	1.978088E+0	1.927800E+0	2.104876E+0	1.960257E+0	2.143212E+0	1.885316E+0	2.085173E+0	1.944520E+0
5.400190E+2	1.709029E+0	1.578607E+0	2.183195E+0	1.820683E+0	1.873831E+0	1.950541E+0	2.082517E+0	2.118757E+0	1.905610E+0	1.935336E+0	2.028461E+0	2.059011E+0	2.081897E+0	1.737940E+0	1.734928E+0	1.935797E+0	2.027610E+0	1.890599E+0	1.833019E+0	1.681431E+0	1.970638E+0	2.011260E+0	1.893029E+0	1.987317E+0	1.869950E+0	1.974791E+0	1.992331E+0	1.782585E+0	2.096453E+0	1.851393E+0	1.774746E+0	1.895894E+0	2.059214E+0	1.862411E+0	1.825212E+0	1.829154E+0	2.074285E+0	1.965270E+0	2.032115E+0	1.983798E+0	2.076858E+0	1.908642E+0	1.973844E+0	2.066163E+0	2.099101E+0	1.804323E+0	1.791715E+0	1.874585E+0	2.022037E+0	1.797617E+0	1.856777E+0	1.826530E+0	1.905643E+0	1.945855E+0	1.993224E+0	2.135512E+0	1.897785E+0	1.876291E+0	1.994738E+0	2.115275E+0	2.122003E+0	1.784924E+0	1.859005E+0	1.936861E+0	2.044831E+0	1.881627E+0	2.014412E+0	1.926465E+0	1.982716E+0	2.011736E+0	2.129515E+0	2.004755E+0	1.937515E+0	1.842826E+0	1.918074E+0	2.051081E+0	2.096046E+0	1.715114E+0	1.761738E+0	1.917988E+0	2.072012E+0	1.886763E+0	1.797408E+0	1.851989E+0	1.997311E+0	1.907828E+0	2.026326E+0	1.995903E+0	2.056084E+0	1.763813E+0	1.968433E+0	1.986993E+0	2.191701E+0	1.776776E+0	1.867381E+0	1.928977E+0	1.967342E+0	1.893991E+0	1.877802E+0	1.752009E+0	1.999100E+0	2.084341E+0	2.033526E+0	2.104092E+0	1.909307E+0	1.904491E+0	1.906803E+0	2.131026E+0	2.035962E+0	1.764582E+0	1.859377E+0	1.961505E+0	1.992352E+0	1.746232E+0	1.832972E+0	1.939637E+0	1.938709E+0	1.920433E+0	2.079956E+0	2.069827E+0	1.978317E+0	1.874672E+0	1.972861E+0	2.048720E+0	2.088389E+0	1.821798E+0	1.889323E+0	1.990599E+0	2.003194E+0	1.737947E+0	1.926785E+0	1.898419E+0	2.026721E+0	1.949452E+0	2.088218E+0	2.065474E+0	2.065464E+0	1.982007E+0	2.042175E+0	2.042638E+0	2.049307E+0	1.717097E+0	1.989559E+0	2.002768E+0	1.928666E+0	1.778660E+0	2.021362E+0	1.944427E+0	1.865897E+0	1.951100E+0	2.080503E+0	2.028289E+0	1.813335E+0	2.009277E+0	1.992975E+0	1.921793E+0	2.160342E+0	1.780438E+0	1.906970E+0	2.070313E+0	1.945982E+0	1.757513E+0	1.522549E+0	1.932747E+0	1.894660E+0	1.953021E+0	1.928326E+0	2.035214E+0	1.933791E+0	1.966358E+0	1.882331E+0
5.402740E+2	1.675603E+0	1.527701E+0	2.141777E+0	1.786858E+0	1.763711E+0	1.879198E+0	2.136445E+0	2.089732E+0	1.883708E+0	1.799014E+0	1.959433E+0	1.957496E+0	2.071613E+0	1.717301E+0	1.675634E+0	1.855514E+0	1.967749E+0	1.899863E+0	1.686527E+0	1.663885E+0	1.915148E+0	1.959836E+0	1.841872E+0	1.895031E+0	1.820118E+0	1.909763E+0	1.970614E+0	1.678419E+0	2.024460E+0	1.772719E+0	1.719527E+0	1.844636E+0	1.937601E+0	1.812748E+0	1.701662E+0	1.764261E+0	1.972368E+0	1.905854E+0	1.880591E+0	1.930565E+0	1.914680E+0	1.827073E+0	1.885600E+0	1.881736E+0	2.050775E+0	1.680533E+0	1.657257E+0	1.828671E+0	1.897081E+0	1.691390E+0	1.670379E+0	1.799417E+0	1.856038E+0	1.938392E+0	1.938357E+0	2.050568E+0	1.826918E+0	1.816655E+0	1.911188E+0	1.899209E+0	2.062148E+0	1.731843E+0	1.803398E+0	1.876556E+0	1.972206E+0	1.855531E+0	1.905122E+0	1.762969E+0	1.963306E+0	1.894755E+0	2.037632E+0	1.942867E+0	1.918987E+0	1.806541E+0	1.867727E+0	2.028597E+0	1.972660E+0	1.632118E+0	1.744594E+0	1.871055E+0	1.978649E+0	1.753588E+0	1.786692E+0	1.830359E+0	1.904728E+0	1.759576E+0	1.958741E+0	1.978656E+0	1.938420E+0	1.638380E+0	1.869064E+0	1.843463E+0	2.032583E+0	1.778892E+0	1.884461E+0	1.800196E+0	1.968732E+0	1.840597E+0	1.891396E+0	1.772536E+0	1.876088E+0	1.962959E+0	1.981308E+0	1.990662E+0	1.840356E+0	1.833991E+0	1.806172E+0	1.921192E+0	1.952722E+0	1.648589E+0	1.758246E+0	1.890121E+0	1.929305E+0	1.641964E+0	1.753974E+0	1.773224E+0	1.916576E+0	1.958922E+0	1.912651E+0	2.005022E+0	1.893959E+0	1.767614E+0	1.908310E+0	1.946280E+0	2.122394E+0	1.713836E+0	1.827531E+0	1.847707E+0	1.971324E+0	1.691694E+0	1.818286E+0	1.905752E+0	1.916582E+0	1.813664E+0	1.967416E+0	2.058687E+0	1.924165E+0	1.864386E+0	1.937720E+0	1.926587E+0	1.975332E+0	1.591929E+0	1.925392E+0	1.855513E+0	1.838586E+0	1.752814E+0	1.903342E+0	1.870211E+0	1.808977E+0	1.913133E+0	1.938473E+0	1.976991E+0	1.883883E+0	1.936532E+0	1.848608E+0	1.939999E+0	2.016610E+0	1.717082E+0	1.823622E+0	1.977246E+0	1.949209E+0	1.694368E+0	1.420935E+0	1.885986E+0	1.832524E+0	1.858655E+0	1.836978E+0	1.911792E+0	1.777725E+0	1.936183E+0	1.812365E+0
5.405130E+2	1.553451E+0	1.537617E+0	2.023549E+0	1.707707E+0	1.742051E+0	1.841507E+0	1.982560E+0	1.962017E+0	1.734279E+0	1.802405E+0	1.905668E+0	1.909994E+0	2.009332E+0	1.628614E+0	1.643103E+0	1.808182E+0	1.928055E+0	1.745376E+0	1.724988E+0	1.526780E+0	1.878732E+0	1.939630E+0	1.743046E+0	1.742103E+0	1.800052E+0	1.796781E+0	1.883096E+0	1.644581E+0	1.929424E+0	1.706241E+0	1.619180E+0	1.755833E+0	1.857720E+0	1.723742E+0	1.587765E+0	1.683654E+0	1.879270E+0	1.829037E+0	1.845582E+0	1.895872E+0	1.808941E+0	1.808100E+0	1.865774E+0	1.789846E+0	1.966630E+0	1.624427E+0	1.694422E+0	1.793219E+0	1.808730E+0	1.640220E+0	1.659951E+0	1.721170E+0	1.759059E+0	1.847004E+0	1.861782E+0	1.903447E+0	1.775942E+0	1.726870E+0	1.863541E+0	1.898544E+0	1.937303E+0	1.759875E+0	1.763240E+0	1.787841E+0	1.942000E+0	1.757841E+0	1.814776E+0	1.714762E+0	1.863402E+0	1.885568E+0	1.966440E+0	1.849744E+0	1.774479E+0	1.786616E+0	1.836028E+0	1.867024E+0	1.943117E+0	1.603193E+0	1.715283E+0	1.843521E+0	1.938239E+0	1.732330E+0	1.683354E+0	1.752613E+0	1.874685E+0	1.809660E+0	1.872959E+0	1.871471E+0	1.899944E+0	1.622171E+0	1.915440E+0	1.790137E+0	1.947096E+0	1.706884E+0	1.762165E+0	1.784475E+0	1.791489E+0	1.663820E+0	1.754711E+0	1.683351E+0	1.860636E+0	1.938274E+0	1.883159E+0	1.973363E+0	1.828983E+0	1.807877E+0	1.769341E+0	1.923979E+0	1.851387E+0	1.549740E+0	1.711526E+0	1.847041E+0	1.884762E+0	1.651800E+0	1.749994E+0	1.741976E+0	1.831953E+0	1.878785E+0	1.906816E+0	1.954546E+0	1.826857E+0	1.758934E+0	1.791310E+0	1.853151E+0	1.963501E+0	1.614562E+0	1.725360E+0	1.778230E+0	1.928163E+0	1.634042E+0	1.748240E+0	1.817061E+0	1.908715E+0	1.808391E+0	1.935596E+0	2.009337E+0	1.879698E+0	1.848753E+0	2.002632E+0	1.835109E+0	1.946360E+0	1.639091E+0	1.831406E+0	1.821341E+0	1.814608E+0	1.683672E+0	1.842478E+0	1.849595E+0	1.806655E+0	1.840365E+0	1.922622E+0	1.887988E+0	1.715350E+0	1.953485E+0	1.860464E+0	1.855287E+0	1.902128E+0	1.633401E+0	1.849470E+0	1.886750E+0	1.806619E+0	1.606104E+0	1.427287E+0	1.713125E+0	1.757955E+0	1.822406E+0	1.795388E+0	1.843583E+0	1.791914E+0	2.004076E+0	1.742402E+0
5.407680E+2	1.529666E+0	1.395476E+0	1.994936E+0	1.618405E+0	1.637953E+0	1.790357E+0	1.963144E+0	1.867193E+0	1.815433E+0	1.750861E+0	1.803452E+0	1.816933E+0	1.869918E+0	1.558892E+0	1.599549E+0	1.725498E+0	1.845516E+0	1.710153E+0	1.637321E+0	1.589808E+0	1.792603E+0	1.931673E+0	1.712820E+0	1.788909E+0	1.712036E+0	1.807947E+0	1.777692E+0	1.586193E+0	1.869526E+0	1.645865E+0	1.611748E+0	1.718883E+0	1.845202E+0	1.596678E+0	1.482875E+0	1.697998E+0	1.756422E+0	1.766021E+0	1.748991E+0	1.773248E+0	1.777800E+0	1.703769E+0	1.744276E+0	1.768841E+0	1.873389E+0	1.509894E+0	1.586750E+0	1.688023E+0	1.782225E+0	1.575448E+0	1.682109E+0	1.646006E+0	1.681588E+0	1.754990E+0	1.829828E+0	1.888677E+0	1.673372E+0	1.714138E+0	1.802089E+0	1.879866E+0	1.855784E+0	1.594671E+0	1.676121E+0	1.708978E+0	1.859734E+0	1.696950E+0	1.768152E+0	1.706377E+0	1.730960E+0	1.812075E+0	1.898292E+0	1.821502E+0	1.769539E+0	1.662820E+0	1.776353E+0	1.830495E+0	1.911256E+0	1.504473E+0	1.628458E+0	1.741525E+0	1.895738E+0	1.676685E+0	1.645550E+0	1.676902E+0	1.749606E+0	1.652056E+0	1.754036E+0	1.808021E+0	1.902897E+0	1.598916E+0	1.767490E+0	1.774990E+0	1.906537E+0	1.617226E+0	1.669925E+0	1.729457E+0	1.798437E+0	1.670315E+0	1.756859E+0	1.604778E+0	1.729588E+0	1.853923E+0	1.859249E+0	1.899026E+0	1.733019E+0	1.669492E+0	1.758815E+0	1.843809E+0	1.780814E+0	1.521742E+0	1.621632E+0	1.760268E+0	1.841592E+0	1.582285E+0	1.699542E+0	1.701276E+0	1.767511E+0	1.803065E+0	1.848453E+0	1.852219E+0	1.760388E+0	1.701791E+0	1.746254E+0	1.838405E+0	1.873853E+0	1.582299E+0	1.681308E+0	1.722517E+0	1.815280E+0	1.570353E+0	1.740002E+0	1.753289E+0	1.844570E+0	1.729292E+0	1.828437E+0	1.802682E+0	1.779283E+0	1.696882E+0	1.804167E+0	1.794829E+0	1.877937E+0	1.517551E+0	1.797699E+0	1.789652E+0	1.770541E+0	1.540217E+0	1.737072E+0	1.759581E+0	1.690489E+0	1.813792E+0	1.814831E+0	1.799603E+0	1.678772E+0	1.786107E+0	1.771195E+0	1.792278E+0	1.796974E+0	1.526411E+0	1.693105E+0	1.802671E+0	1.742100E+0	1.510370E+0	1.343457E+0	1.706042E+0	1.680433E+0	1.831159E+0	1.754545E+0	1.888245E+0	1.751714E+0	1.811710E+0	1.855121E+0
5.410190E+2	1.448022E+0	1.350522E+0	1.850346E+0	1.502043E+0	1.540474E+0	1.636228E+0	1.825079E+0	1.762054E+0	1.503688E+0	1.681682E+0	1.697918E+0	1.699151E+0	1.660795E+0	1.782560E+0	1.451579E+0	1.639223E+0	1.658379E+0	1.784307E+0	1.493655E+0	1.635940E+0	1.669484E+0	1.736377E+0	1.609924E+0	1.654436E+0	1.559302E+0	1.656210E+0	1.695925E+0	1.476053E+0	1.701346E+0	1.683064E+0	1.452997E+0	1.611606E+0	1.739091E+0	1.631505E+0	1.430110E+0	1.529955E+0	1.680399E+0	1.692805E+0	1.614972E+0	1.618324E+0	1.672709E+0	1.586159E+0	1.624697E+0	1.636917E+0	1.761387E+0	1.487334E+0	1.468688E+0	1.558996E+0	1.632660E+0	1.445897E+0	1.521130E+0	1.570837E+0	1.626409E+0	1.632518E+0	1.684518E+0	1.752022E+0	1.596287E+0	1.610282E+0	1.648105E+0	1.761836E+0	1.721248E+0	1.514753E+0	1.557495E+0	1.593009E+0	1.718343E+0	1.598589E+0	1.653761E+0	1.542884E+0	1.689284E+0	1.690805E+0	1.749214E+0	1.683315E+0	1.648499E+0	1.553963E+0	1.594855E+0	1.707557E+0	1.722990E+0	1.410786E+0	1.467526E+0	1.606986E+0	1.695772E+0	1.505997E+0	1.460927E+0	1.589019E+0	1.734277E+0	1.579931E+0	1.666956E+0	1.686668E+0	1.711976E+0	1.414288E+0	1.641621E+0	1.528096E+0	1.736813E+0	1.509212E+0	1.559237E+0	1.574676E+0	1.666375E+0	1.528891E+0	1.574372E+0	1.607608E+0	1.630687E+0	1.789460E+0	1.674902E+0	1.731769E+0	1.647719E+0	1.562436E+0	1.575966E+0	1.689044E+0	1.706627E+0	1.417748E+0	1.542382E+0	1.616877E+0	1.622300E+0	1.468177E+0	1.566109E+0	1.561749E+0	1.643834E+0	1.590420E+0	1.700604E+0	1.711015E+0	1.578886E+0	1.597628E+0	1.613787E+0	1.720439E+0	1.760713E+0	1.497917E+0	1.554663E+0	1.665489E+0	1.749543E+0	1.470467E+0	1.537420E+0	1.621353E+0	1.673911E+0	1.599437E+0	1.690754E+0	1.686707E+0	1.645876E+0	1.675293E+0	1.662401E+0	1.704717E+0	1.705947E+0	1.480664E+0	1.697235E+0	1.629351E+0	1.627967E+0	1.436824E+0	1.616083E+0	1.619399E+0	1.581294E+0	1.627128E+0	1.675972E+0	1.690825E+0	1.507622E+0	1.621553E+0	1.689598E+0	1.675366E+0	1.694936E+0	1.454682E+0	1.634951E+0	1.714096E+0	1.675644E+0	1.415319E+0	1.192303E+0	1.674872E+0	1.542548E+0	1.649303E+0	1.617893E+0	1.710418E+0	1.628754E+0	1.683465E+0	1.629682E+0
5.412580E+2	1.397878E+0	1.291683E+0	1.753955E+0	1.420185E+0	1.568755E+0	1.578349E+0	1.640277E+0	1.687871E+0	1.547488E+0	1.609789E+0	1.616279E+0	1.652301E+0	1.686508E+0	1.758020E+0	1.397008E+0	1.570320E+0	1.675391E+0	1.732401E+0	1.436531E+0	1.544974E+0	1.597226E+0	1.730865E+0	1.528538E+0	1.585219E+0	1.487463E+0	1.724524E+0	1.629486E+0	1.338710E+0	1.672547E+0	1.717828E+0	1.364861E+0	1.498366E+0	1.641322E+0	1.723741E+0	1.400507E+0	1.475306E+0	1.602175E+0	1.632790E+0	1.566675E+0	1.573460E+0	1.640275E+0	1.653188E+0	1.600400E+0	1.611976E+0	1.701689E+0	1.729700E+0	1.430974E+0	1.533422E+0	1.566394E+0	1.665481E+0	1.419458E+0	1.493822E+0	1.497661E+0	1.685980E+0	1.657990E+0	1.637530E+0	1.543450E+0	1.537917E+0	1.642582E+0	1.642466E+0	1.644861E+0	1.458690E+0	1.556257E+0	1.573876E+0	1.671424E+0	1.571827E+0	1.575071E+0	1.521221E+0	1.616780E+0	1.585458E+0	1.697495E+0	1.588384E+0	1.521898E+0	1.567482E+0	1.541397E+0	1.602887E+0	1.596709E+0	1.390035E+0	1.475270E+0	1.541280E+0	1.656753E+0	1.482239E+0	1.438873E+0	1.532229E+0	1.612268E+0	1.535857E+0	1.611065E+0	1.626298E+0	1.673493E+0	1.386804E+0	1.594515E+0	1.570235E+0	1.699372E+0	1.434379E+0	1.621412E+0	1.540215E+0	1.639960E+0	1.503636E+0	1.532146E+0	1.490815E+0	1.581854E+0	1.661221E+0	1.656658E+0	1.639489E+0	1.511951E+0	1.514780E+0	1.525984E+0	1.594933E+0	1.613132E+0	1.403461E+0	1.448942E+0	1.557801E+0	1.696995E+0	1.451123E+0	1.500391E+0	1.532679E+0	1.608683E+0	1.603039E+0	1.633163E+0	1.721248E+0	1.512421E+0	1.546995E+0	1.564026E+0	1.665337E+0	1.732273E+0	1.458829E+0	1.466565E+0	1.611741E+0	1.622051E+0	1.454379E+0	1.514071E+0	1.564177E+0	1.618234E+0	1.534840E+0	1.679712E+0	1.631188E+0	1.627230E+0	1.518960E+0	1.581825E+0	1.609148E+0	1.660331E+0	1.386334E+0	1.527415E+0	1.578400E+0	1.483452E+0	1.443936E+0	1.590844E+0	1.521137E+0	1.513915E+0	1.656235E+0	1.659486E+0	1.705039E+0	1.518731E+0	1.566470E+0	1.642873E+0	1.663467E+0	1.599736E+0	1.422406E+0	1.570338E+0	1.613971E+0	1.649193E+0	1.444514E+0	1.215802E+0	1.562226E+0	1.621255E+0	1.585559E+0	1.548081E+0	1.610539E+0	1.505794E+0	1.641975E+0	1.470319E+0
5.415190E+2	1.257730E+0	1.195161E+0	1.556654E+0	1.334267E+0	1.382820E+0	1.418837E+0	1.610074E+0	1.583374E+0	1.412870E+0	1.512805E+0	1.494818E+0	1.478552E+0	1.520237E+0	1.573953E+0	1.276321E+0	1.449893E+0	1.509679E+0	1.531563E+0	1.325674E+0	1.393575E+0	1.438845E+0	1.574139E+0	1.354141E+0	1.525233E+0	1.435686E+0	1.464407E+0	1.501085E+0	1.265064E+0	1.542381E+0	1.555601E+0	1.269824E+0	1.391683E+0	1.466058E+0	1.498638E+0	1.311706E+0	1.369425E+0	1.514584E+0	1.548169E+0	1.430246E+0	1.463994E+0	1.439824E+0	1.504592E+0	1.469943E+0	1.432137E+0	1.573767E+0	1.601285E+0	1.279026E+0	1.368362E+0	1.460373E+0	1.464036E+0	1.293675E+0	1.406331E+0	1.403470E+0	1.523717E+0	1.434298E+0	1.557508E+0	1.373114E+0	1.551316E+0	1.449932E+0	1.565106E+0	1.514314E+0	1.526682E+0	1.329502E+0	1.407459E+0	1.578877E+0	1.554430E+0	1.414786E+0	1.355634E+0	1.480341E+0	1.536463E+0	1.493048E+0	1.493453E+0	1.397152E+0	1.387473E+0	1.452512E+0	1.460981E+0	1.498812E+0	1.413930E+0	1.318209E+0	1.422387E+0	1.538306E+0	1.452854E+0	1.373339E+0	1.340918E+0	1.495159E+0	1.424332E+0	1.518786E+0	1.485848E+0	1.509211E+0	1.283921E+0	1.439942E+0	1.428018E+0	1.587051E+0	1.378609E+0	1.454703E+0	1.379993E+0	1.507202E+0	1.334794E+0	1.372562E+0	1.345708E+0	1.452663E+0	1.537781E+0	1.520132E+0	1.470307E+0	1.431623E+0	1.455381E+0	1.457578E+0	1.480604E+0	1.507574E+0	1.317752E+0	1.374423E+0	1.441491E+0	1.478391E+0	1.329801E+0	1.370282E+0	1.385158E+0	1.514951E+0	1.419421E+0	1.526813E+0	1.509095E+0	1.428702E+0	1.421856E+0	1.459131E+0	1.495376E+0	1.517735E+0	1.324188E+0	1.376016E+0	1.499004E+0	1.559633E+0	1.282094E+0	1.381537E+0	1.424912E+0	1.502648E+0	1.435308E+0	1.472541E+0	1.523853E+0	1.447200E+0	1.454938E+0	1.507955E+0	1.501967E+0	1.478480E+0	1.270840E+0	1.484636E+0	1.462211E+0	1.450400E+0	1.324389E+0	1.414930E+0	1.456544E+0	1.451769E+0	1.512599E+0	1.537114E+0	1.529505E+0	1.364568E+0	1.526918E+0	1.474796E+0	1.488446E+0	1.582316E+0	1.346498E+0	1.405576E+0	1.483039E+0	1.473057E+0	1.306006E+0	1.140861E+0	1.432580E+0	1.404662E+0	1.456825E+0	1.464163E+0	1.507417E+0	1.397021E+0	1.549565E+0	1.454770E+0
5.417600E+2	1.241659E+0	1.101944E+0	1.385714E+0	1.189493E+0	1.253446E+0	1.359608E+0	1.477041E+0	1.420180E+0	1.308526E+0	1.377838E+0	1.391272E+0	1.311314E+0	1.381390E+0	1.382636E+0	1.149337E+0	1.319881E+0	1.422725E+0	1.476565E+0	1.171265E+0	1.327296E+0	1.352141E+0	1.475571E+0	1.272175E+0	1.317593E+0	1.299131E+0	1.423022E+0	1.405901E+0	1.249803E+0	1.412791E+0	1.466559E+0	1.167350E+0	1.327916E+0	1.454732E+0	1.461874E+0	1.231271E+0	1.293600E+0	1.393389E+0	1.413137E+0	1.345728E+0	1.382046E+0	1.391170E+0	1.422388E+0	1.393849E+0	1.345500E+0	1.421399E+0	1.458416E+0	1.190481E+0	1.296876E+0	1.355613E+0	1.418694E+0	1.308664E+0	1.252302E+0	1.314848E+0	1.423004E+0	1.325767E+0	1.364225E+0	1.261837E+0	1.461530E+0	1.342903E+0	1.411059E+0	1.433362E+0	1.476583E+0	1.218906E+0	1.279314E+0	1.382853E+0	1.446703E+0	1.349940E+0	1.322096E+0	1.374728E+0	1.371096E+0	1.411512E+0	1.377497E+0	1.268700E+0	1.373957E+0	1.307681E+0	1.434989E+0	1.349939E+0	1.450397E+0	1.246317E+0	1.347923E+0	1.415680E+0	1.410963E+0	1.232825E+0	1.282103E+0	1.341878E+0	1.349536E+0	1.398561E+0	1.403915E+0	1.411526E+0	1.158485E+0	1.408293E+0	1.320044E+0	1.434175E+0	1.280480E+0	1.328300E+0	1.297163E+0	1.336906E+0	1.282124E+0	1.278812E+0	1.274927E+0	1.353763E+0	1.469894E+0	1.406249E+0	1.402380E+0	1.320729E+0	1.344409E+0	1.350370E+0	1.386490E+0	1.367638E+0	1.166334E+0	1.201731E+0	1.359643E+0	1.345448E+0	1.287173E+0	1.242164E+0	1.263070E+0	1.313814E+0	1.341808E+0	1.390637E+0	1.429964E+0	1.366709E+0	1.267783E+0	1.349524E+0	1.399141E+0	1.449724E+0	1.270209E+0	1.316061E+0	1.325305E+0	1.326563E+0	1.212374E+0	1.304625E+0	1.319360E+0	1.388273E+0	1.276450E+0	1.426427E+0	1.525707E+0	1.376909E+0	1.323168E+0	1.378131E+0	1.456910E+0	1.414371E+0	1.135995E+0	1.355650E+0	1.367148E+0	1.392723E+0	1.181579E+0	1.337732E+0	1.299188E+0	1.322823E+0	1.359469E+0	1.417912E+0	1.368805E+0	1.282261E+0	1.372961E+0	1.388317E+0	1.313427E+0	1.434855E+0	1.231736E+0	1.351946E+0	1.382272E+0	1.380148E+0	1.211632E+0	1.079894E+0	1.303641E+0	1.324178E+0	1.423704E+0	1.316373E+0	1.400233E+0	1.248050E+0	1.443951E+0	1.260425E+0
5.420050E+2	1.196656E+0	1.002776E+0	1.309655E+0	1.056895E+0	1.131297E+0	1.088371E+0	1.248373E+0	1.296978E+0	1.172619E+0	1.246262E+0	1.252551E+0	1.175308E+0	1.229407E+0	1.264386E+0	1.030223E+0	1.160511E+0	1.263944E+0	1.276965E+0	1.063234E+0	1.134960E+0	1.192602E+0	1.328639E+0	1.209391E+0	1.198281E+0	1.141217E+0	1.266030E+0	1.216173E+0	1.056065E+0	1.233091E+0	1.270785E+0	1.073906E+0	1.136601E+0	1.238334E+0	1.256125E+0	1.078120E+0	1.125555E+0	1.213246E+0	1.239097E+0	1.196014E+0	1.197813E+0	1.247160E+0	1.197917E+0	1.178987E+0	1.238516E+0	1.279834E+0	1.278517E+0	1.059850E+0	1.138208E+0	1.206680E+0	1.249633E+0	1.119007E+0	1.189457E+0	1.154331E+0	1.275659E+0	1.164181E+0	1.286049E+0	1.146833E+0	1.231033E+0	1.231043E+0	1.305026E+0	1.237262E+0	1.257108E+0	1.129936E+0	1.136090E+0	1.245317E+0	1.290131E+0	1.208595E+0	1.179564E+0	1.175488E+0	1.265138E+0	1.274604E+0	1.242910E+0	1.196444E+0	1.247312E+0	1.225633E+0	1.210892E+0	1.232347E+0	1.273080E+0	1.088707E+0	1.127653E+0	1.259608E+0	1.245903E+0	1.083490E+0	1.081325E+0	1.186144E+0	1.238010E+0	1.217249E+0	1.214802E+0	1.258342E+0	1.097882E+0	1.153616E+0	1.153470E+0	1.293774E+0	1.264948E+0	1.189601E+0	1.153869E+0	1.191633E+0	1.259034E+0	1.159301E+0	1.075314E+0	1.212825E+0	1.262786E+0	1.252736E+0	1.253065E+0	1.143021E+0	1.247794E+0	1.200409E+0	1.228938E+0	1.269320E+0	1.296041E+0	1.112427E+0	1.195944E+0	1.228267E+0	1.262253E+0	1.064922E+0	1.132988E+0	1.212919E+0	1.298900E+0	1.238895E+0	1.213721E+0	1.146222E+0	1.170854E+0	1.188143E+0	1.203567E+0	1.319890E+0	1.058013E+0	1.142918E+0	1.213878E+0	1.242898E+0	1.073607E+0	1.155609E+0	1.178628E+0	1.225486E+0	1.145938E+0	1.240037E+0	1.319666E+0	1.248525E+0	1.185443E+0	1.195334E+0	1.264396E+0	1.242386E+0	1.030777E+0	1.236386E+0	1.208707E+0	1.180161E+0	1.065266E+0	1.175176E+0	1.170689E+0	1.179360E+0	1.208240E+0	1.257491E+0	1.255697E+0	1.165985E+0	1.194284E+0	1.279520E+0	1.210513E+0	1.234508E+0	1.122353E+0	1.183954E+0	1.183306E+0	1.227882E+0	1.033744E+0	9.338245E-1	1.176121E+0	1.188070E+0	1.161857E+0	1.171554E+0	1.298733E+0	1.152282E+0	1.242154E+0	1.260423E+0
5.422730E+2	1.073224E+0	8.328704E-1	1.156786E+0	9.073844E-1	9.790600E-1	1.015009E+0	1.096646E+0	1.073793E+0	9.993563E-1	1.052969E+0	1.040156E+0	1.049066E+0	1.094562E+0	1.078647E+0	8.791036E-1	1.012522E+0	1.095081E+0	1.116299E+0	9.110865E-1	1.011501E+0	1.059654E+0	1.114361E+0	1.046622E+0	1.080288E+0	1.033136E+0	1.093932E+0	1.025808E+0	9.678207E-1	1.076430E+0	1.148808E+0	9.040064E-1	9.911783E-1	1.033265E+0	1.051663E+0	9.230383E-1	9.534121E-1	1.083788E+0	1.103463E+0	9.961964E-1	9.998202E-1	1.093414E+0	1.075245E+0	1.054291E+0	1.003545E+0	1.123487E+0	1.093418E+0	9.166472E-1	9.847729E-1	1.036919E+0	1.116204E+0	9.801873E-1	9.830561E-1	1.007747E+0	1.141373E+0	1.087608E+0	1.143240E+0	1.029342E+0	1.100373E+0	1.052892E+0	1.144311E+0	1.066242E+0	1.101448E+0	9.865921E-1	1.055492E+0	1.112281E+0	1.158982E+0	1.079635E+0	1.037729E+0	1.058458E+0	1.088747E+0	1.068331E+0	1.063867E+0	9.889458E-1	1.084382E+0	1.006838E+0	1.078118E+0	1.103749E+0	1.087588E+0	9.382824E-1	9.874851E-1	1.103537E+0	1.097098E+0	9.675495E-1	9.522050E-1	1.022441E+0	1.092426E+0	1.049584E+0	1.102690E+0	1.067416E+0	9.498964E-1	1.051303E+0	1.028377E+0	1.172097E+0	1.070102E+0	9.716455E-1	9.960693E-1	1.080420E+0	1.075040E+0	9.811073E-1	9.974517E-1	1.065708E+0	1.090659E+0	1.144520E+0	1.091576E+0	1.022890E+0	1.127684E+0	1.051105E+0	1.106940E+0	1.067858E+0	1.073195E+0	9.503810E-1	1.058094E+0	1.076820E+0	1.098960E+0	1.003186E+0	9.992735E-1	1.072969E+0	1.132950E+0	1.083912E+0	1.074560E+0	1.047804E+0	1.113710E+0	1.067108E+0	1.094915E+0	1.105352E+0	1.102686E+0	9.630465E-1	1.046078E+0	1.088845E+0	1.094388E+0	1.041614E+0	1.096534E+0	1.094163E+0	1.100456E+0	1.091313E+0	1.130284E+0	1.034787E+0	1.128121E+0	1.114753E+0	1.092365E+0	1.078412E+0	9.914737E-1	1.075641E+0	1.084440E+0	1.090728E+0	1.032310E+0	1.085361E+0	1.009207E+0	1.050415E+0	1.073463E+0	1.112292E+0	1.062240E+0	1.025541E+0	1.049506E+0	1.043099E+0	1.072598E+0	1.078335E+0	9.388541E-1	1.023713E+0	1.053657E+0	1.080133E+0	9.352955E-1	7.972803E-1	1.047183E+0	1.015860E+0	1.043121E+0	1.046787E+0	1.094922E+0	1.024593E+0	1.149743E+0	1.093286E+0
5.425460E+2	9.729351E-1	7.799817E-1	1.034791E+0	8.857364E-1	9.555925E-1	9.140520E-1	1.026894E+0	1.062182E+0	9.768123E-1	1.000068E+0	9.093997E-1	9.755324E-1	9.774296E-1	1.039603E+0	8.061666E-1	8.813100E-1	9.829249E-1	1.038437E+0	8.070163E-1	9.153333E-1	9.619648E-1	9.692662E-1	9.768638E-1	9.781153E-1	9.496492E-1	1.063716E+0	1.027724E+0	8.729413E-1	1.037264E+0	1.068306E+0	8.084374E-1	8.916489E-1	1.012996E+0	1.002000E+0	8.715592E-1	9.274536E-1	9.873851E-1	1.009242E+0	9.358283E-1	9.531636E-1	9.805389E-1	9.886183E-1	9.506970E-1	9.549750E-1	1.042755E+0	1.055819E+0	8.548842E-1	9.493199E-1	9.662372E-1	1.015805E+0	8.602673E-1	9.189795E-1	9.180133E-1	1.008953E+0	9.670189E-1	9.875042E-1	9.273911E-1	9.844552E-1	1.019749E+0	1.010270E+0	1.032037E+0	1.019145E+0	8.914426E-1	9.505392E-1	9.573894E-1	1.041887E+0	9.543178E-1	9.147596E-1	9.105995E-1	1.017088E+0	1.073199E+0	9.899665E-1	9.574504E-1	1.034578E+0	9.372206E-1	9.881979E-1	1.012223E+0	1.027226E+0	8.940403E-1	9.155224E-1	9.718514E-1	1.068963E+0	8.755528E-1	9.359806E-1	9.752295E-1	9.969278E-1	9.683517E-1	9.708630E-1	9.889738E-1	8.864744E-1	9.880020E-1	9.671465E-1	1.054786E+0	1.011507E+0	9.839438E-1	9.428638E-1	9.768536E-1	9.725814E-1	9.453250E-1	8.898601E-1	9.383715E-1	1.033054E+0	1.020573E+0	1.019802E+0	9.148411E-1	1.009531E+0	9.340302E-1	9.737883E-1	1.016588E+0	1.093764E+0	8.350564E-1	9.350137E-1	1.047353E+0	1.091745E+0	8.671019E-1	9.011666E-1	1.025451E+0	1.049659E+0	1.024252E+0	9.947474E-1	9.468275E-1	1.008825E+0	9.675894E-1	1.005666E+0	1.018797E+0	1.017683E+0	8.951360E-1	9.510370E-1	9.560419E-1	9.784135E-1	9.166332E-1	9.887854E-1	9.543703E-1	1.050360E+0	1.034810E+0	1.088955E+0	1.003945E+0	1.025386E+0	1.028949E+0	1.010445E+0	1.030329E+0	1.044686E+0	1.015361E+0	9.477457E-1	1.009721E+0	1.025202E+0	9.294846E-1	9.501127E-1	9.743270E-1	1.053215E+0	1.066640E+0	1.027628E+0	9.380080E-1	1.039620E+0	1.060535E+0	1.006791E+0	1.030425E+0	9.633598E-1	9.190395E-1	1.002311E+0	1.000774E+0	9.346165E-1	7.667969E-1	9.593349E-1	9.407027E-1	1.024372E+0	9.747495E-1	1.076246E+0	9.371009E-1	1.025272E+0	1.007774E+0
5.427600E+2	9.163613E-1	7.912204E-1	9.911139E-1	8.789711E-1	9.224971E-1	9.302054E-1	1.009636E+0	1.016384E+0	9.452513E-1	9.729385E-1	1.010288E+0	9.826902E-1	9.842873E-1	1.046854E+0	8.528674E-1	9.112673E-1	1.023251E+0	1.028550E+0	8.375589E-1	9.211817E-1	9.336415E-1	9.870211E-1	9.576797E-1	1.036123E+0	9.477071E-1	9.776664E-1	9.766197E-1	8.483925E-1	1.035536E+0	1.037811E+0	8.031281E-1	9.530358E-1	9.635168E-1	1.007804E+0	8.728456E-1	9.021791E-1	9.201764E-1	1.015243E+0	9.050401E-1	1.005802E+0	9.636724E-1	1.023396E+0	9.577314E-1	9.930430E-1	1.020013E+0	1.035574E+0	8.674555E-1	8.941056E-1	9.712856E-1	1.039771E+0	9.013267E-1	9.269890E-1	9.731903E-1	1.003356E+0	9.935482E-1	1.024437E+0	9.012819E-1	1.017958E+0	1.002486E+0	1.011604E+0	1.005816E+0	1.047175E+0	8.970033E-1	9.522781E-1	9.914520E-1	1.085379E+0	9.754463E-1	9.427074E-1	9.391437E-1	1.034237E+0	1.009918E+0	9.713414E-1	9.549801E-1	1.005407E+0	9.322478E-1	9.867933E-1	9.757284E-1	1.037287E+0	8.603056E-1	9.593257E-1	1.016443E+0	1.033950E+0	9.316333E-1	9.657257E-1	9.960754E-1	9.782289E-1	1.016442E+0	1.049712E+0	1.029675E+0	9.266414E-1	9.379499E-1	9.263257E-1	1.028579E+0	9.973880E-1	9.340664E-1	9.077966E-1	1.063739E+0	9.776324E-1	9.403159E-1	8.488057E-1	9.816413E-1	9.939657E-1	9.589155E-1	9.800702E-1	9.119977E-1	1.034336E+0	9.662588E-1	9.751820E-1	1.028048E+0	1.042913E+0	8.752722E-1	9.362443E-1	1.039815E+0	1.043872E+0	9.075953E-1	9.476765E-1	9.317175E-1	1.013062E+0	1.019713E+0	1.020670E+0	9.103996E-1	1.078266E+0	9.501067E-1	1.003337E+0	1.067020E+0	1.026990E+0	8.994187E-1	9.556250E-1	9.792826E-1	1.001207E+0	9.077057E-1	9.235495E-1	9.731307E-1	1.012128E+0	1.030264E+0	1.062428E+0	1.034787E+0	1.005286E+0	9.871667E-1	1.000205E+0	1.029096E+0	1.003567E+0	9.777681E-1	9.527162E-1	9.520438E-1	1.040064E+0	9.621446E-1	9.583588E-1	9.476094E-1	1.065237E+0	9.734326E-1	1.010940E+0	9.236370E-1	1.021257E+0	9.663846E-1	1.011691E+0	1.024204E+0	1.085891E+0	9.507000E-1	9.984596E-1	9.943223E-1	1.060902E+0	7.083686E-1	9.798800E-1	9.566813E-1	1.034995E+0	9.955440E-1	1.065691E+0	8.945377E-1	1.002639E+0	1.007774E+0
5.430120E+2	1.059080E+0	8.328708E-1	1.118380E+0	9.493290E-1	9.826703E-1	1.051353E+0	1.126128E+0	1.149908E+0	1.010306E+0	1.049578E+0	1.072679E+0	1.092665E+0	1.118559E+0	1.142235E+0	8.958947E-1	1.001139E+0	1.100120E+0	1.090345E+0	9.337111E-1	1.005653E+0	1.008787E+0	1.121097E+0	1.054178E+0	1.109951E+0	1.038313E+0	1.164217E+0	1.113326E+0	9.737918E-1	1.094286E+0	1.179306E+0	9.316148E-1	1.087134E+0	1.111955E+0	1.084558E+0	8.940812E-1	9.889338E-1	1.103623E+0	1.102865E+0	1.058978E+0	1.087751E+0	1.090171E+0	1.093582E+0	1.070917E+0	1.093464E+0	1.140544E+0	1.140273E+0	9.330449E-1	1.035918E+0	1.100657E+0	1.138875E+0	1.002998E+0	1.025569E+0	1.015549E+0	1.129562E+0	1.042989E+0	1.132776E+0	9.914215E-1	1.093673E+0	1.086036E+0	1.074290E+0	1.113558E+0	1.110990E+0	1.032931E+0	1.063608E+0	1.080787E+0	1.135565E+0	1.081821E+0	1.023057E+0	1.041332E+0	1.088747E+0	1.118836E+0	1.137768E+0	1.022294E+0	1.085094E+0	1.027350E+0	1.071795E+0	1.078840E+0	1.134748E+0	9.559796E-1	1.080097E+0	1.126530E+0	1.139614E+0	9.700696E-1	9.887102E-1	1.050643E+0	1.145851E+0	1.129517E+0	1.137186E+0	1.102937E+0	1.029527E+0	1.063080E+0	1.050762E+0	1.140273E+0	1.100459E+0	1.007857E+0	1.025091E+0	1.023424E+0	1.078648E+0	9.696572E-1	9.748008E-1	1.084252E+0	1.172268E+0	1.108656E+0	1.149891E+0	1.071937E+0	1.142697E+0	1.021507E+0	1.150162E+0	1.052175E+0	1.120048E+0	1.018394E+0	1.074710E+0	1.107657E+0	1.134374E+0	1.015135E+0	1.045783E+0	1.093799E+0	1.129166E+0	1.129953E+0	1.133226E+0	1.068255E+0	1.173748E+0	1.067108E+0	1.098019E+0	1.124519E+0	1.140534E+0	1.010156E+0	1.028381E+0	1.112085E+0	1.168800E+0	1.071831E+0	1.019571E+0	1.104451E+0	1.126822E+0	1.117941E+0	1.156194E+0	1.113683E+0	1.108765E+0	1.108037E+0	1.153122E+0	1.098139E+0	1.195857E+0	1.027029E+0	1.044675E+0	1.042772E+0	1.148625E+0	1.119505E+0	1.076548E+0	1.026021E+0	1.120288E+0	1.119268E+0	1.124667E+0	1.039912E+0	1.127192E+0	1.089129E+0	1.073999E+0	1.053447E+0	1.159410E+0	1.056019E+0	1.117196E+0	1.075617E+0	1.136945E+0	8.779366E-1	1.071978E+0	1.085689E+0	1.129362E+0	1.097288E+0	1.135522E+0	1.042326E+0	1.134656E+0	1.054417E+0
5.432910E+2	1.224299E+0	9.802988E-1	1.288569E+0	1.108310E+0	1.121670E+0	1.229710E+0	1.327471E+0	1.322780E+0	1.162314E+0	1.244228E+0	1.230649E+0	1.273571E+0	1.231122E+0	1.241518E+0	1.031798E+0	1.199456E+0	1.251972E+0	1.276348E+0	1.091515E+0	1.190190E+0	1.148095E+0	1.282110E+0	1.231482E+0	1.232557E+0	1.190403E+0	1.306101E+0	1.285167E+0	1.137674E+0	1.290109E+0	1.334215E+0	1.035679E+0	1.214079E+0	1.234162E+0	1.285146E+0	1.064608E+0	1.090717E+0	1.223164E+0	1.234294E+0	1.174886E+0	1.230712E+0	1.243265E+0	1.258619E+0	1.227587E+0	1.153191E+0	1.328159E+0	1.347930E+0	1.081165E+0	1.160875E+0	1.226873E+0	1.257408E+0	1.125525E+0	1.141400E+0	1.184428E+0	1.316072E+0	1.185885E+0	1.299591E+0	1.157400E+0	1.226343E+0	1.252448E+0	1.247675E+0	1.333601E+0	1.298856E+0	1.176274E+0	1.204512E+0	1.293518E+0	1.306856E+0	1.208594E+0	1.153712E+0	1.189191E+0	1.310459E+0	1.301379E+0	1.230294E+0	1.236585E+0	1.227391E+0	1.185232E+0	1.208080E+0	1.295489E+0	1.292574E+0	1.075433E+0	1.222768E+0	1.297233E+0	1.342812E+0	1.116887E+0	1.108366E+0	1.233968E+0	1.235338E+0	1.217249E+0	1.250532E+0	1.306442E+0	1.092244E+0	1.216917E+0	1.189022E+0	1.328718E+0	1.245887E+0	1.222397E+0	1.222192E+0	1.281299E+0	1.244603E+0	1.177192E+0	1.088763E+0	1.197990E+0	1.306678E+0	1.281675E+0	1.294718E+0	1.197045E+0	1.296102E+0	1.174756E+0	1.239396E+0	1.271129E+0	1.282899E+0	1.160332E+0	1.189175E+0	1.235804E+0	1.317997E+0	1.117365E+0	1.238361E+0	1.240909E+0	1.307738E+0	1.253809E+0	1.296261E+0	1.171148E+0	1.357476E+0	1.237902E+0	1.259445E+0	1.352040E+0	1.342804E+0	1.207156E+0	1.201424E+0	1.269457E+0	1.257961E+0	1.132261E+0	1.163969E+0	1.281767E+0	1.263268E+0	1.286148E+0	1.348045E+0	1.244938E+0	1.266589E+0	1.295313E+0	1.258255E+0	1.292932E+0	1.295631E+0	1.203328E+0	1.221132E+0	1.187288E+0	1.337311E+0	1.205609E+0	1.166565E+0	1.206658E+0	1.297459E+0	1.241007E+0	1.311942E+0	1.176436E+0	1.264202E+0	1.308116E+0	1.232216E+0	1.291747E+0	1.326775E+0	1.185246E+0	1.194860E+0	1.207238E+0	1.303291E+0	1.213263E+0	1.170453E+0	1.221209E+0	1.366211E+0	1.240622E+0	1.302793E+0	1.186569E+0	1.334566E+0	1.128267E+0
5.435270E+2	1.361876E+0	1.098638E+0	1.476834E+0	1.182051E+0	1.305801E+0	1.410087E+0	1.414482E+0	1.404698E+0	1.275031E+0	1.400220E+0	1.371363E+0	1.353613E+0	1.419104E+0	1.460166E+0	1.219126E+0	1.402560E+0	1.383661E+0	1.510554E+0	1.209158E+0	1.262317E+0	1.355030E+0	1.449857E+0	1.283222E+0	1.360440E+0	1.323078E+0	1.434845E+0	1.423790E+0	1.208004E+0	1.396661E+0	1.403128E+0	1.218853E+0	1.321951E+0	1.379619E+0	1.440591E+0	1.217114E+0	1.253296E+0	1.347665E+0	1.362726E+0	1.347540E+0	1.358119E+0	1.382738E+0	1.412905E+0	1.306882E+0	1.392099E+0	1.466884E+0	1.487335E+0	1.217263E+0	1.284670E+0	1.304497E+0	1.499011E+0	1.231760E+0	1.291734E+0	1.370028E+0	1.423003E+0	1.364356E+0	1.470717E+0	1.343895E+0	1.386483E+0	1.417479E+0	1.451073E+0	1.431654E+0	1.439010E+0	1.286872E+0	1.375569E+0	1.452265E+0	1.421277E+0	1.317882E+0	1.294148E+0	1.367877E+0	1.424380E+0	1.446805E+0	1.442385E+0	1.358245E+0	1.434432E+0	1.312032E+0	1.405484E+0	1.359786E+0	1.490639E+0	1.257378E+0	1.322265E+0	1.410104E+0	1.474110E+0	1.261180E+0	1.311847E+0	1.308158E+0	1.355545E+0	1.403757E+0	1.423631E+0	1.384885E+0	1.253617E+0	1.363391E+0	1.403001E+0	1.447901E+0	1.464735E+0	1.330351E+0	1.282049E+0	1.327870E+0	1.318199E+0	1.288830E+0	1.285542E+0	1.380957E+0	1.508982E+0	1.416946E+0	1.398536E+0	1.281634E+0	1.387490E+0	1.324061E+0	1.414375E+0	1.386939E+0	1.395463E+0	1.247271E+0	1.334412E+0	1.365320E+0	1.499653E+0	1.197024E+0	1.335014E+0	1.370443E+0	1.437088E+0	1.379611E+0	1.370618E+0	1.309192E+0	1.471767E+0	1.344817E+0	1.366545E+0	1.430558E+0	1.400507E+0	1.308716E+0	1.354802E+0	1.481280E+0	1.396059E+0	1.242134E+0	1.472555E+0	1.402191E+0	1.431353E+0	1.443965E+0	1.473270E+0	1.404884E+0	1.419947E+0	1.419169E+0	1.390693E+0	1.458138E+0	1.484294E+0	1.404262E+0	1.413125E+0	1.328565E+0	1.512431E+0	1.365939E+0	1.328733E+0	1.306560E+0	1.482225E+0	1.396352E+0	1.424431E+0	1.297286E+0	1.399799E+0	1.435739E+0	1.337227E+0	1.388190E+0	1.414039E+0	1.311240E+0	1.384197E+0	1.362082E+0	1.401060E+0	1.318051E+0	1.365988E+0	1.342523E+0	1.450574E+0	1.422573E+0	1.376686E+0	1.265784E+0	1.374171E+0	1.373145E+0
5.437850E+2	1.421021E+0	1.207061E+0	1.561927E+0	1.316001E+0	1.415914E+0	1.529888E+0	1.546795E+0	1.545965E+0	1.445074E+0	1.501274E+0	1.454993E+0	1.504583E+0	1.585944E+0	1.551643E+0	1.246412E+0	1.404360E+0	1.526060E+0	1.558753E+0	1.333025E+0	1.400721E+0	1.420927E+0	1.594342E+0	1.435526E+0	1.439542E+0	1.375497E+0	1.606946E+0	1.433371E+0	1.326107E+0	1.490544E+0	1.542183E+0	1.360083E+0	1.413138E+0	1.550115E+0	1.548302E+0	1.295619E+0	1.378305E+0	1.462800E+0	1.520562E+0	1.436887E+0	1.444854E+0	1.439178E+0	1.460329E+0	1.414951E+0	1.490551E+0	1.540222E+0	1.550384E+0	1.291052E+0	1.359066E+0	1.460373E+0	1.500308E+0	1.357545E+0	1.410028E+0	1.403467E+0	1.566614E+0	1.470476E+0	1.532889E+0	1.411656E+0	1.578117E+0	1.477554E+0	1.430399E+0	1.506905E+0	1.543381E+0	1.379548E+0	1.439933E+0	1.539031E+0	1.523653E+0	1.434456E+0	1.374497E+0	1.391284E+0	1.458677E+0	1.525904E+0	1.483840E+0	1.447793E+0	1.541864E+0	1.394704E+0	1.450442E+0	1.531829E+0	1.506990E+0	1.293877E+0	1.477455E+0	1.561301E+0	1.575397E+0	1.338686E+0	1.367281E+0	1.468184E+0	1.505136E+0	1.495388E+0	1.504945E+0	1.529189E+0	1.377645E+0	1.450981E+0	1.409583E+0	1.543371E+0	1.490857E+0	1.424639E+0	1.375762E+0	1.452287E+0	1.400455E+0	1.463447E+0	1.362699E+0	1.439681E+0	1.517895E+0	1.476091E+0	1.524779E+0	1.398923E+0	1.518700E+0	1.404957E+0	1.542647E+0	1.427956E+0	1.493172E+0	1.368507E+0	1.462415E+0	1.489355E+0	1.524574E+0	1.369618E+0	1.399691E+0	1.495425E+0	1.570228E+0	1.491149E+0	1.440881E+0	1.450432E+0	1.500699E+0	1.425512E+0	1.475198E+0	1.574613E+0	1.507223E+0	1.358885E+0	1.466229E+0	1.466673E+0	1.536165E+0	1.415186E+0	1.359676E+0	1.520806E+0	1.511112E+0	1.540083E+0	1.525704E+0	1.445766E+0	1.533848E+0	1.526610E+0	1.517664E+0	1.490809E+0	1.483084E+0	1.442504E+0	1.438599E+0	1.438087E+0	1.523416E+0	1.467629E+0	1.407757E+0	1.427952E+0	1.526521E+0	1.516822E+0	1.520855E+0	1.345624E+0	1.559404E+0	1.507576E+0	1.527650E+0	1.491477E+0	1.617861E+0	1.397820E+0	1.481756E+0	1.430472E+0	1.456055E+0	1.373303E+0	1.409201E+0	1.401700E+0	1.634303E+0	1.537687E+0	1.526904E+0	1.464413E+0	1.600484E+0	1.513074E+0
5.440060E+2	1.616456E+0	1.242098E+0	1.704253E+0	1.468894E+0	1.526632E+0	1.531909E+0	1.699958E+0	1.706579E+0	1.504974E+0	1.546713E+0	1.681989E+0	1.581372E+0	1.676222E+0	1.692757E+0	1.443706E+0	1.519396E+0	1.640105E+0	1.662570E+0	1.374879E+0	1.575513E+0	1.587980E+0	1.676380E+0	1.557606E+0	1.587195E+0	1.528233E+0	1.649643E+0	1.637789E+0	1.420984E+0	1.643174E+0	1.687947E+0	1.348405E+0	1.469761E+0	1.596610E+0	1.663114E+0	1.400509E+0	1.475307E+0	1.612642E+0	1.629789E+0	1.556415E+0	1.564487E+0	1.627947E+0	1.632319E+0	1.568422E+0	1.598848E+0	1.668716E+0	1.654504E+0	1.375222E+0	1.467749E+0	1.532318E+0	1.670013E+0	1.462472E+0	1.432209E+0	1.531662E+0	1.674793E+0	1.630857E+0	1.628915E+0	1.506770E+0	1.623681E+0	1.634985E+0	1.601116E+0	1.594125E+0	1.648347E+0	1.464194E+0	1.527488E+0	1.648930E+0	1.684238E+0	1.582357E+0	1.491179E+0	1.536287E+0	1.580559E+0	1.630561E+0	1.554738E+0	1.553395E+0	1.642185E+0	1.525859E+0	1.665410E+0	1.659851E+0	1.615771E+0	1.432687E+0	1.534398E+0	1.636549E+0	1.629792E+0	1.434464E+0	1.529524E+0	1.577319E+0	1.550550E+0	1.583121E+0	1.633073E+0	1.634271E+0	1.428381E+0	1.644568E+0	1.543238E+0	1.662556E+0	1.654646E+0	1.492964E+0	1.523288E+0	1.648301E+0	1.576512E+0	1.530715E+0	1.454010E+0	1.565783E+0	1.709226E+0	1.644702E+0	1.611930E+0	1.488491E+0	1.676018E+0	1.475995E+0	1.658372E+0	1.557037E+0	1.655447E+0	1.403403E+0	1.585495E+0	1.618874E+0	1.638683E+0	1.418080E+0	1.462916E+0	1.518857E+0	1.701476E+0	1.622787E+0	1.646893E+0	1.509225E+0	1.664176E+0	1.646066E+0	1.652145E+0	1.679719E+0	1.689640E+0	1.522853E+0	1.537018E+0	1.610761E+0	1.661525E+0	1.495529E+0	1.460094E+0	1.582529E+0	1.660082E+0	1.615418E+0	1.702747E+0	1.600691E+0	1.670828E+0	1.621364E+0	1.601636E+0	1.633206E+0	1.607045E+0	1.553342E+0	1.531178E+0	1.585195E+0	1.616467E+0	1.547793E+0	1.591916E+0	1.508688E+0	1.706856E+0	1.605593E+0	1.603059E+0	1.509585E+0	1.697123E+0	1.536868E+0	1.594856E+0	1.541251E+0	1.717675E+0	1.494098E+0	1.615897E+0	1.572417E+0	1.584379E+0	1.523818E+0	1.501301E+0	1.567404E+0	1.668052E+0	1.547340E+0	1.602419E+0	1.423032E+0	1.655178E+0	1.536394E+0
5.442750E+2	1.624172E+0	1.286393E+0	1.742661E+0	1.393803E+0	1.508583E+0	1.582384E+0	1.735913E+0	1.711093E+0	1.580981E+0	1.654552E+0	1.702567E+0	1.656205E+0	1.687648E+0	1.703358E+0	1.377592E+0	1.531975E+0	1.607340E+0	1.695936E+0	1.392414E+0	1.508585E+0	1.524394E+0	1.769436E+0	1.519237E+0	1.609610E+0	1.528883E+0	1.592493E+0	1.592436E+0	1.477378E+0	1.625317E+0	1.762352E+0	1.396184E+0	1.495982E+0	1.616288E+0	1.676655E+0	1.378631E+0	1.467107E+0	1.580137E+0	1.670598E+0	1.565470E+0	1.628490E+0	1.598108E+0	1.644964E+0	1.572261E+0	1.670390E+0	1.669852E+0	1.693259E+0	1.412389E+0	1.498553E+0	1.544306E+0	1.660947E+0	1.460520E+0	1.515388E+0	1.479270E+0	1.699037E+0	1.611562E+0	1.716935E+0	1.508634E+0	1.636413E+0	1.628083E+0	1.654467E+0	1.687044E+0	1.694868E+0	1.507445E+0	1.555320E+0	1.673352E+0	1.678885E+0	1.555403E+0	1.466726E+0	1.503174E+0	1.692640E+0	1.668899E+0	1.643057E+0	1.557101E+0	1.636493E+0	1.522129E+0	1.632389E+0	1.652319E+0	1.716376E+0	1.442089E+0	1.523759E+0	1.688804E+0	1.665432E+0	1.498732E+0	1.499107E+0	1.567510E+0	1.567913E+0	1.649407E+0	1.704530E+0	1.720116E+0	1.457982E+0	1.537836E+0	1.539285E+0	1.751784E+0	1.678645E+0	1.493646E+0	1.534773E+0	1.629532E+0	1.593831E+0	1.480620E+0	1.526918E+0	1.588654E+0	1.663279E+0	1.610731E+0	1.701646E+0	1.583033E+0	1.651864E+0	1.585834E+0	1.664648E+0	1.585987E+0	1.721728E+0	1.474371E+0	1.566414E+0	1.597630E+0	1.695737E+0	1.399490E+0	1.528318E+0	1.628214E+0	1.631437E+0	1.640943E+0	1.648936E+0	1.570579E+0	1.674301E+0	1.641356E+0	1.680856E+0	1.640769E+0	1.680332E+0	1.543039E+0	1.582901E+0	1.590839E+0	1.634041E+0	1.494844E+0	1.543653E+0	1.594637E+0	1.662060E+0	1.652437E+0	1.682391E+0	1.512470E+0	1.607553E+0	1.623606E+0	1.595491E+0	1.721977E+0	1.653608E+0	1.634362E+0	1.569702E+0	1.549552E+0	1.666226E+0	1.616826E+0	1.574735E+0	1.563870E+0	1.682813E+0	1.776154E+0	1.645085E+0	1.497172E+0	1.692887E+0	1.631019E+0	1.609562E+0	1.622138E+0	1.749954E+0	1.657569E+0	1.579313E+0	1.540801E+0	1.671285E+0	1.553668E+0	1.563641E+0	1.624805E+0	1.663677E+0	1.617895E+0	1.539897E+0	1.512887E+0	1.677808E+0	1.548055E+0
5.445240E+2	1.624812E+0	1.579931E+0	1.706514E+0	1.440480E+0	1.523627E+0	1.605943E+0	1.729440E+0	1.774307E+0	1.491448E+0	1.596904E+0	1.672035E+0	1.552737E+0	1.680794E+0	1.650367E+0	1.328268E+0	1.499023E+0	1.606080E+0	1.688522E+0	1.401461E+0	1.531329E+0	1.524973E+0	1.665970E+0	1.515752E+0	1.535122E+0	1.517882E+0	1.661467E+0	1.586685E+0	1.415012E+0	1.670820E+0	1.715387E+0	1.347870E+0	1.499559E+0	1.572765E+0	1.599904E+0	1.372195E+0	1.456862E+0	1.583993E+0	1.605783E+0	1.533476E+0	1.560298E+0	1.613678E+0	1.640537E+0	1.588248E+0	1.595568E+0	1.672127E+0	1.660866E+0	1.380690E+0	1.544468E+0	1.589113E+0	1.611073E+0	1.456610E+0	1.489511E+0	1.497659E+0	1.680384E+0	1.558505E+0	1.670770E+0	1.516715E+0	1.646463E+0	1.557650E+0	1.603118E+0	1.587285E+0	1.679957E+0	1.446899E+0	1.524007E+0	1.575019E+0	1.605285E+0	1.608588E+0	1.503755E+0	1.566543E+0	1.628332E+0	1.636649E+0	1.601603E+0	1.601563E+0	1.686297E+0	1.540154E+0	1.619042E+0	1.609453E+0	1.703799E+0	1.350287E+0	1.515625E+0	1.605193E+0	1.641671E+0	1.446433E+0	1.522766E+0	1.593260E+0	1.553887E+0	1.564923E+0	1.598577E+0	1.657954E+0	1.402306E+0	1.632055E+0	1.529411E+0	1.637596E+0	1.654640E+0	1.474514E+0	1.515425E+0	1.554463E+0	1.535384E+0	1.516404E+0	1.460380E+0	1.548474E+0	1.718829E+0	1.623941E+0	1.568357E+0	1.512656E+0	1.650560E+0	1.498355E+0	1.607482E+0	1.532910E+0	1.634306E+0	1.431198E+0	1.560875E+0	1.546235E+0	1.681964E+0	1.478486E+0	1.516691E+0	1.562468E+0	1.657938E+0	1.606575E+0	1.638706E+0	1.497083E+0	1.683708E+0	1.566045E+0	1.579192E+0	1.678480E+0	1.643106E+0	1.469623E+0	1.525223E+0	1.590177E+0	1.728562E+0	1.490036E+0	1.503340E+0	1.631550E+0	1.650852E+0	1.636849E+0	1.691028E+0	1.617185E+0	1.632862E+0	1.639271E+0	1.633723E+0	1.638140E+0	1.659046E+0	1.618156E+0	1.569702E+0	1.554088E+0	1.633913E+0	1.565607E+0	1.553435E+0	1.511012E+0	1.642313E+0	1.566915E+0	1.585751E+0	1.486066E+0	1.658279E+0	1.575921E+0	1.638965E+0	1.624628E+0	1.657308E+0	1.593602E+0	1.650555E+0	1.529834E+0	1.572156E+0	1.509847E+0	1.528930E+0	1.517693E+0	1.701171E+0	1.565165E+0	1.597547E+0	1.432491E+0	1.647633E+0	1.501413E+0
5.447610E+2	1.554737E+0	1.503240E+0	1.608614E+0	1.355916E+0	1.445398E+0	1.537966E+0	1.619420E+0	1.613693E+0	1.443142E+0	1.497204E+0	1.690620E+0	1.560545E+0	1.608227E+0	1.517615E+0	1.580660E+0	1.497826E+0	1.507156E+0	1.574821E+0	1.635058E+0	1.380578E+0	1.509944E+0	1.574748E+0	1.596555E+0	1.512051E+0	1.457043E+0	1.511043E+0	1.559857E+0	1.351318E+0	1.544108E+0	1.595853E+0	1.390876E+0	1.383936E+0	1.530443E+0	1.567654E+0	1.430754E+0	1.399481E+0	1.450681E+0	1.590183E+0	1.558829E+0	1.521419E+0	1.495613E+0	1.512808E+0	1.467389E+0	1.465610E+0	1.560125E+0	1.555010E+0	1.325487E+0	1.453799E+0	1.519065E+0	1.515205E+0	1.361454E+0	1.382306E+0	1.411828E+0	1.542992E+0	1.527753E+0	1.547042E+0	1.429062E+0	1.547295E+0	1.558343E+0	1.527094E+0	1.546807E+0	1.610178E+0	1.377079E+0	1.500815E+0	1.575661E+0	1.595247E+0	1.526260E+0	1.435285E+0	1.456934E+0	1.521152E+0	1.580060E+0	1.486848E+0	1.473112E+0	1.570324E+0	1.443811E+0	1.539660E+0	1.544574E+0	1.546602E+0	1.306596E+0	1.501857E+0	1.587076E+0	1.591654E+0	1.366408E+0	1.401759E+0	1.473701E+0	1.505804E+0	1.429755E+0	1.528966E+0	1.523269E+0	1.405831E+0	1.472330E+0	1.486613E+0	1.587674E+0	1.545923E+0	1.376811E+0	1.443477E+0	1.503723E+0	1.526724E+0	1.401902E+0	1.386763E+0	1.493461E+0	1.541212E+0	1.516984E+0	1.560022E+0	1.506970E+0	1.610088E+0	1.462841E+0	1.527310E+0	1.503957E+0	1.573738E+0	1.370871E+0	1.435337E+0	1.529106E+0	1.596710E+0	1.419409E+0	1.450560E+0	1.528622E+0	1.588527E+0	1.570264E+0	1.599824E+0	1.456820E+0	1.583885E+0	1.526371E+0	1.541164E+0	1.611708E+0	1.569890E+0	1.402325E+0	1.472783E+0	1.515808E+0	1.685658E+0	1.392525E+0	1.443968E+0	1.491152E+0	1.536160E+0	1.502413E+0	1.510902E+0	1.513904E+0	1.588936E+0	1.510194E+0	1.549752E+0	1.468616E+0	1.567742E+0	1.502138E+0	1.418093E+0	1.474377E+0	1.590619E+0	1.521073E+0	1.435243E+0	1.473256E+0	1.524620E+0	1.588470E+0	1.579569E+0	1.407027E+0	1.575652E+0	1.534777E+0	1.494746E+0	1.614050E+0	1.581998E+0	1.483756E+0	1.484323E+0	1.473701E+0	1.591848E+0	1.453325E+0	1.456669E+0	1.427150E+0	1.569939E+0	1.539170E+0	1.470877E+0	1.386380E+0	1.540134E+0	1.450884E+0
5.450150E+2	1.352232E+0	1.393494E+0	1.516742E+0	1.245644E+0	1.324453E+0	1.417488E+0	1.495738E+0	1.476946E+0	1.338795E+0	1.373087E+0	1.490834E+0	1.346454E+0	1.412245E+0	1.466303E+0	1.500901E+0	1.366014E+0	1.400670E+0	1.469769E+0	1.525898E+0	1.296757E+0	1.413414E+0	1.457202E+0	1.457617E+0	1.398672E+0	1.373556E+0	1.409886E+0	1.490866E+0	1.227245E+0	1.513580E+0	1.503150E+0	1.524675E+0	1.277851E+0	1.358755E+0	1.391573E+0	1.484164E+0	1.273790E+0	1.368046E+0	1.393933E+0	1.524418E+0	1.352738E+0	1.379493E+0	1.381923E+0	1.384258E+0	1.397351E+0	1.426518E+0	1.371648E+0	1.293784E+0	1.324192E+0	1.380856E+0	1.418695E+0	1.413594E+0	1.345953E+0	1.265245E+0	1.473363E+0	1.355917E+0	1.442400E+0	1.279868E+0	1.501733E+0	1.452004E+0	1.425064E+0	1.467570E+0	1.493878E+0	1.278839E+0	1.341935E+0	1.462547E+0	1.416592E+0	1.360871E+0	1.339563E+0	1.334767E+0	1.432343E+0	1.440110E+0	1.406936E+0	1.376772E+0	1.410953E+0	1.368597E+0	1.374573E+0	1.420032E+0	1.447252E+0	1.262908E+0	1.349172E+0	1.461666E+0	1.465985E+0	1.317260E+0	1.292244E+0	1.365178E+0	1.384262E+0	1.411559E+0	1.356485E+0	1.381186E+0	1.209222E+0	1.406821E+0	1.400369E+0	1.510299E+0	1.389199E+0	1.361781E+0	1.276608E+0	1.431437E+0	1.344898E+0	1.276663E+0	1.286250E+0	1.377867E+0	1.451374E+0	1.476718E+0	1.441468E+0	1.330682E+0	1.403809E+0	1.354972E+0	1.433197E+0	1.426146E+0	1.443462E+0	1.268561E+0	1.335024E+0	1.409867E+0	1.470142E+0	1.261416E+0	1.322659E+0	1.380860E+0	1.486935E+0	1.353026E+0	1.431330E+0	1.336035E+0	1.435597E+0	1.351543E+0	1.374305E+0	1.447253E+0	1.436491E+0	1.325237E+0	1.332517E+0	1.408901E+0	1.442311E+0	1.330033E+0	1.342083E+0	1.407033E+0	1.505839E+0	1.417337E+0	1.478820E+0	1.422098E+0	1.464614E+0	1.419912E+0	1.393422E+0	1.455672E+0	1.403264E+0	1.397780E+0	1.354099E+0	1.357728E+0	1.462675E+0	1.356291E+0	1.338354E+0	1.372194E+0	1.456284E+0	1.400157E+0	1.458427E+0	1.308388E+0	1.478895E+0	1.416912E+0	1.419837E+0	1.464723E+0	1.437947E+0	1.347422E+0	1.433617E+0	1.356920E+0	1.443834E+0	1.350440E+0	1.319229E+0	1.350810E+0	1.449951E+0	1.379499E+0	1.440019E+0	1.309529E+0	1.517502E+0	1.377031E+0
5.452580E+2	1.422948E+0	1.343250E+0	1.478337E+0	1.246997E+0	1.284138E+0	1.364992E+0	1.423831E+0	1.435661E+0	1.305303E+0	1.400219E+0	1.480212E+0	1.418033E+0	1.436816E+0	1.479131E+0	1.424818E+0	1.324673E+0	1.405715E+0	1.420951E+0	1.436530E+0	1.254520E+0	1.354452E+0	1.455981E+0	1.412275E+0	1.331435E+0	1.338609E+0	1.472288E+0	1.449981E+0	1.211984E+0	1.395511E+0	1.417158E+0	1.419017E+0	1.309440E+0	1.324179E+0	1.396732E+0	1.449416E+0	1.292914E+0	1.393389E+0	1.330920E+0	1.445940E+0	1.280359E+0	1.310083E+0	1.422389E+0	1.421346E+0	1.336308E+0	1.385583E+0	1.419081E+0	1.483991E+0	1.278279E+0	1.333527E+0	1.390195E+0	1.390131E+0	1.325006E+0	1.251867E+0	1.380728E+0	1.461430E+0	1.440550E+0	1.320894E+0	1.407254E+0	1.436120E+0	1.412393E+0	1.339304E+0	1.454519E+0	1.394377E+0	1.334977E+0	1.371929E+0	1.423952E+0	1.363053E+0	1.230569E+0	1.293663E+0	1.368645E+0	1.444976E+0	1.385909E+0	1.321808E+0	1.431586E+0	1.366110E+0	1.371061E+0	1.339513E+0	1.519564E+0	1.284476E+0	1.379210E+0	1.388506E+0	1.447228E+0	1.217703E+0	1.277372E+0	1.382346E+0	1.365565E+0	1.336823E+0	1.374965E+0	1.441866E+0	1.247276E+0	1.341310E+0	1.341770E+0	1.475358E+0	1.389197E+0	1.307805E+0	1.337673E+0	1.384171E+0	1.360771E+0	1.278812E+0	1.218298E+0	1.347579E+0	1.455490E+0	1.390524E+0	1.477997E+0	1.381154E+0	1.437102E+0	1.310905E+0	1.407406E+0	1.326017E+0	1.461174E+0	1.233664E+0	1.298099E+0	1.389307E+0	1.434728E+0	1.204990E+0	1.319752E+0	1.335296E+0	1.445294E+0	1.375722E+0	1.416320E+0	1.348177E+0	1.488403E+0	1.329354E+0	1.395261E+0	1.459620E+0	1.425325E+0	1.281184E+0	1.320061E+0	1.407573E+0	1.434268E+0	1.267544E+0	1.339152E+0	1.372539E+0	1.418831E+0	1.434222E+0	1.419601E+0	1.441461E+0	1.437069E+0	1.398276E+0	1.440527E+0	1.408823E+0	1.380891E+0	1.400373E+0	1.372117E+0	1.350599E+0	1.434240E+0	1.347382E+0	1.321175E+0	1.273453E+0	1.414521E+0	1.417277E+0	1.399093E+0	1.294671E+0	1.405450E+0	1.353446E+0	1.430341E+0	1.395036E+0	1.396106E+0	1.342256E+0	1.382913E+0	1.344018E+0	1.392233E+0	1.344089E+0	1.330565E+0	1.349624E+0	1.440577E+0	1.425544E+0	1.379122E+0	1.342635E+0	1.430750E+0	1.244876E+0
5.455290E+2	1.301447E+0	1.339943E+0	1.376675E+0	1.186787E+0	1.220352E+0	1.330668E+0	1.415201E+0	1.358257E+0	1.242184E+0	1.280851E+0	1.384638E+0	1.362070E+0	1.346538E+0	1.420007E+0	1.373918E+0	1.256374E+0	1.320651E+0	1.462970E+0	1.382798E+0	1.292208E+0	1.346357E+0	1.390470E+0	1.408208E+0	1.309684E+0	1.229235E+0	1.390178E+0	1.394405E+0	1.176158E+0	1.388600E+0	1.401911E+0	1.395656E+0	1.200967E+0	1.363526E+0	1.375446E+0	1.405658E+0	1.195915E+0	1.354826E+0	1.349523E+0	1.424206E+0	1.279164E+0	1.318518E+0	1.358526E+0	1.372746E+0	1.312023E+0	1.376488E+0	1.377431E+0	1.427149E+0	1.261423E+0	1.321535E+0	1.377241E+0	1.378397E+0	1.217798E+0	1.265244E+0	1.356482E+0	1.336619E+0	1.334677E+0	1.269298E+0	1.398545E+0	1.320118E+0	1.308361E+0	1.335883E+0	1.399052E+0	1.399319E+0	1.294388E+0	1.324370E+0	1.422614E+0	1.381269E+0	1.280174E+0	1.291950E+0	1.323936E+0	1.362226E+0	1.362474E+0	1.279815E+0	1.338384E+0	1.387866E+0	1.331016E+0	1.305917E+0	1.367399E+0	1.458680E+0	1.282841E+0	1.389203E+0	1.364695E+0	1.418079E+0	1.279400E+0	1.314901E+0	1.283419E+0	1.454449E+0	1.326915E+0	1.353805E+0	1.159894E+0	1.338366E+0	1.222603E+0	1.374895E+0	1.412494E+0	1.284572E+0	1.280233E+0	1.317443E+0	1.270578E+0	1.297419E+0	1.177951E+0	1.240024E+0	1.386226E+0	1.347737E+0	1.387641E+0	1.319309E+0	1.344406E+0	1.246448E+0	1.372547E+0	1.323002E+0	1.357178E+0	1.146727E+0	1.223023E+0	1.307072E+0	1.399317E+0	1.219596E+0	1.195485E+0	1.341804E+0	1.447184E+0	1.344596E+0	1.331050E+0	1.270208E+0	1.439940E+0	1.308509E+0	1.315323E+0	1.383571E+0	1.425943E+0	1.199205E+0	1.286634E+0	1.361091E+0	1.370582E+0	1.246940E+0	1.290774E+0	1.399774E+0	1.340388E+0	1.354987E+0	1.346809E+0	1.311641E+0	1.338057E+0	1.305013E+0	1.354510E+0	1.442728E+0	1.355495E+0	1.314815E+0	1.261520E+0	1.325326E+0	1.389009E+0	1.279836E+0	1.235281E+0	1.254287E+0	1.372127E+0	1.357038E+0	1.335428E+0	1.256131E+0	1.370843E+0	1.303929E+0	1.370133E+0	1.336548E+0	1.401484E+0	1.326099E+0	1.313596E+0	1.285302E+0	1.327733E+0	1.304079E+0	1.266094E+0	1.263818E+0	1.360585E+0	1.288895E+0	1.376685E+0	1.359188E+0	1.342111E+0	1.330389E+0
5.457620E+2	1.241657E+0	1.254662E+0	1.295347E+0	1.095457E+0	1.196884E+0	1.263364E+0	1.325316E+0	1.293107E+0	1.172619E+0	1.257114E+0	1.318261E+0	1.240382E+0	1.271118E+0	1.301757E+0	1.297309E+0	1.227016E+0	1.265834E+0	1.341854E+0	1.338683E+0	1.210985E+0	1.255605E+0	1.321902E+0	1.308217E+0	1.209486E+0	1.180047E+0	1.269314E+0	1.269193E+0	1.134357E+0	1.316606E+0	1.310431E+0	1.270886E+0	1.165208E+0	1.263373E+0	1.240001E+0	1.278246E+0	1.156978E+0	1.219308E+0	1.236096E+0	1.253365E+0	1.212768E+0	1.203047E+0	1.312364E+0	1.307522E+0	1.269363E+0	1.297458E+0	1.307440E+0	1.326034E+0	1.134140E+0	1.192794E+0	1.351979E+0	1.306057E+0	1.155570E+0	1.162134E+0	1.300531E+0	1.302857E+0	1.302052E+0	1.186619E+0	1.297367E+0	1.321497E+0	1.208330E+0	1.281156E+0	1.323307E+0	1.320851E+0	1.151744E+0	1.298659E+0	1.347002E+0	1.288737E+0	1.160001E+0	1.186905E+0	1.284123E+0	1.295291E+0	1.287370E+0	1.200767E+0	1.294270E+0	1.321980E+0	1.246017E+0	1.281006E+0	1.275597E+0	1.337569E+0	1.227150E+0	1.313256E+0	1.306548E+0	1.303399E+0	1.181378E+0	1.255426E+0	1.256041E+0	1.367367E+0	1.276402E+0	1.285722E+0	1.145801E+0	1.271386E+0	1.221285E+0	1.237615E+0	1.269890E+0	1.344017E+0	1.167173E+0	1.250020E+0	1.222235E+0	1.323896E+0	1.132649E+0	1.245587E+0	1.313536E+0	1.306215E+0	1.267163E+0	1.150841E+0	1.292184E+0	1.353656E+0	1.218481E+0	1.233734E+0	1.304040E+0	1.320602E+0	1.200252E+0	1.225525E+0	1.323900E+0	1.311864E+0	1.161330E+0	1.195995E+0	1.242110E+0	1.284937E+0	1.271021E+0	1.245922E+0	1.352414E+0	1.252696E+0	1.306010E+0	1.325454E+0	1.280756E+0	1.240194E+0	1.221742E+0	1.257504E+0	1.308239E+0	1.231835E+0	1.211613E+0	1.251506E+0	1.281066E+0	1.250427E+0	1.291910E+0	1.273628E+0	1.322424E+0	1.175934E+0	1.271223E+0	1.296632E+0	1.296842E+0	1.232499E+0	1.198144E+0	1.202193E+0	1.353467E+0	1.213773E+0	1.186493E+0	1.139865E+0	1.312648E+0	1.261298E+0	1.274240E+0	1.144431E+0	1.300927E+0	1.260692E+0	1.211214E+0	1.248818E+0	1.283736E+0	1.205923E+0	1.266100E+0	1.218203E+0	1.356927E+0	1.203735E+0	1.215086E+0	1.189252E+0	1.314340E+0	1.241365E+0	1.278434E+0	1.160558E+0	1.279875E+0	1.147703E+0
5.460060E+2	1.107297E+0	1.165411E+0	1.245645E+0	1.027128E+0	1.094591E+0	1.161732E+0	1.161363E+0	1.194416E+0	1.030917E+0	1.122148E+0	1.205427E+0	1.151882E+0	1.173984E+0	1.221993E+0	1.194463E+0	1.107187E+0	1.165649E+0	1.219498E+0	1.161650E+0	1.108318E+0	1.134798E+0	1.204357E+0	1.209393E+0	1.069082E+0	1.073261E+0	1.132687E+0	1.183595E+0	1.046112E+0	1.140937E+0	1.237851E+0	1.258142E+0	1.050182E+0	1.167395E+0	1.222584E+0	1.227410E+0	1.057244E+0	1.148244E+0	1.237896E+0	1.191185E+0	1.106892E+0	1.103145E+0	1.197284E+0	1.257641E+0	1.146627E+0	1.210472E+0	1.182496E+0	1.254432E+0	1.071952E+0	1.125269E+0	1.190045E+0	1.255220E+0	1.087797E+0	1.124234E+0	1.221573E+0	1.169607E+0	1.215876E+0	1.070992E+0	1.218973E+0	1.237256E+0	1.168318E+0	1.167144E+0	1.198066E+0	1.202224E+0	1.150586E+0	1.232464E+0	1.235932E+0	1.188923E+0	1.054498E+0	1.110980E+0	1.197152E+0	1.183335E+0	1.176823E+0	1.107516E+0	1.225255E+0	1.257335E+0	1.210188E+0	1.139664E+0	1.171219E+0	1.215349E+0	1.126402E+0	1.155096E+0	1.247153E+0	1.208252E+0	1.159068E+0	1.108278E+0	1.217309E+0	1.202303E+0	1.201249E+0	1.172499E+0	1.062647E+0	1.188947E+0	1.117918E+0	1.240737E+0	1.200000E+0	1.247676E+0	1.076481E+0	1.126296E+0	1.152967E+0	1.140694E+0	1.075314E+0	1.145446E+0	1.194895E+0	1.206176E+0	1.181934E+0	1.087576E+0	1.159017E+0	1.244475E+0	1.143191E+0	1.141446E+0	1.208615E+0	1.173933E+0	1.163328E+0	1.163164E+0	1.233397E+0	1.163832E+0	1.053050E+0	1.142619E+0	1.201728E+0	1.190907E+0	1.184386E+0	1.120660E+0	1.282250E+0	1.188817E+0	1.204343E+0	1.199947E+0	1.221192E+0	1.248150E+0	1.114903E+0	1.092829E+0	1.170812E+0	1.176211E+0	1.100933E+0	1.114133E+0	1.171645E+0	1.206265E+0	1.177785E+0	1.193297E+0	1.165343E+0	1.184141E+0	1.164045E+0	1.193685E+0	1.224880E+0	1.194256E+0	1.106186E+0	1.155534E+0	1.259769E+0	1.180372E+0	1.083420E+0	1.107338E+0	1.193055E+0	1.171894E+0	1.177204E+0	1.054284E+0	1.190048E+0	1.159567E+0	1.130705E+0	1.157355E+0	1.225757E+0	1.180723E+0	1.175602E+0	1.148524E+0	1.174288E+0	1.136418E+0	1.089690E+0	1.127706E+0	1.254347E+0	1.186407E+0	1.207790E+0	1.132183E+0	1.149744E+0	1.003887E+0
5.467660E+2	1.188941E+0	1.195821E+0	1.286310E+0	1.079897E+0	1.125882E+0	1.222307E+0	1.239024E+0	1.258918E+0	1.165535E+0	1.156737E+0	1.240605E+0	1.215656E+0	1.198552E+0	1.284467E+0	1.263726E+0	1.112579E+0	1.211018E+0	1.264608E+0	1.187100E+0	1.120665E+0	1.134220E+0	1.238029E+0	1.243690E+0	1.176528E+0	1.118566E+0	1.201660E+0	1.283888E+0	1.034169E+0	1.254976E+0	1.321405E+0	1.309642E+0	1.108588E+0	1.170377E+0	1.180659E+0	1.202314E+0	1.108477E+0	1.192864E+0	1.198886E+0	1.275099E+0	1.209175E+0	1.169961E+0	1.261779E+0	1.242295E+0	1.197166E+0	1.238898E+0	1.266952E+0	1.269735E+0	1.113799E+0	1.163134E+0	1.266478E+0	1.272816E+0	1.116139E+0	1.062368E+0	1.237116E+0	1.241358E+0	1.245422E+0	1.104561E+0	1.236393E+0	1.254519E+0	1.223003E+0	1.213321E+0	1.235042E+0	1.274514E+0	1.177840E+0	1.238247E+0	1.205150E+0	1.211509E+0	1.146725E+0	1.155509E+0	1.261464E+0	1.241141E+0	1.229091E+0	1.150745E+0	1.233792E+0	1.274118E+0	1.232669E+0	1.234662E+0	1.335332E+0	1.275077E+0	1.108255E+0	1.213621E+0	1.247152E+0	1.256138E+0	1.094170E+0	1.225998E+0	1.213968E+0	1.278334E+0	1.259157E+0	1.252421E+0	1.042916E+0	1.206612E+0	1.175856E+0	1.302511E+0	1.232475E+0	1.255192E+0	1.149639E+0	1.187463E+0	1.128435E+0	1.271655E+0	1.088055E+0	1.120722E+0	1.253187E+0	1.209323E+0	1.246017E+0	1.119563E+0	1.264766E+0	1.272759E+0	1.235909E+0	1.200557E+0	1.224615E+0	1.273293E+0	1.157173E+0	1.185779E+0	1.281927E+0	1.258095E+0	1.086479E+0	1.179722E+0	1.227600E+0	1.295313E+0	1.223952E+0	1.077202E+0	1.265611E+0	1.301110E+0	1.187269E+0	1.199947E+0	1.248492E+0	1.227348E+0	1.141777E+0	1.204384E+0	1.240529E+0	1.198872E+0	1.180095E+0	1.150443E+0	1.228331E+0	1.275754E+0	1.264146E+0	1.241352E+0	1.215966E+0	1.271437E+0	1.222755E+0	1.241769E+0	1.223069E+0	1.235091E+0	1.167697E+0	1.143868E+0	1.290786E+0	1.296908E+0	1.078611E+0	1.102689E+0	1.277212E+0	1.241006E+0	1.185239E+0	1.100662E+0	1.279739E+0	1.242559E+0	1.206314E+0	1.265616E+0	1.304655E+0	1.306071E+0	1.184588E+0	1.193041E+0	1.233359E+0	1.253270E+0	1.167620E+0	1.184518E+0	1.260597E+0	1.229482E+0	1.183430E+0	1.135729E+0	1.276103E+0	1.058305E+0
5.475180E+2	1.259015E+0	1.271850E+0	1.325469E+0	1.177992E+0	1.192072E+0	1.254613E+0	1.385001E+0	1.366641E+0	1.195162E+0	1.356810E+0	1.330209E+0	1.292441E+0	1.313970E+0	1.348611E+0	1.287341E+0	1.250379E+0	1.283477E+0	1.304774E+0	1.312667E+0	1.197988E+0	1.226127E+0	1.342106E+0	1.343097E+0	1.314297E+0	1.214997E+0	1.344199E+0	1.388017E+0	1.119096E+0	1.325245E+0	1.362878E+0	1.344152E+0	1.204542E+0	1.238337E+0	1.298693E+0	1.379919E+0	1.152878E+0	1.267786E+0	1.330318E+0	1.351766E+0	1.302493E+0	1.284783E+0	1.292129E+0	1.354201E+0	1.255579E+0	1.314515E+0	1.338676E+0	1.349532E+0	1.195747E+0	1.236971E+0	1.326715E+0	1.375141E+0	1.177136E+0	1.203378E+0	1.335346E+0	1.329988E+0	1.357454E+0	1.169835E+0	1.336900E+0	1.291807E+0	1.327033E+0	1.317642E+0	1.397262E+0	1.308497E+0	1.237565E+0	1.248530E+0	1.335627E+0	1.291654E+0	1.206114E+0	1.241713E+0	1.259013E+0	1.368310E+0	1.317415E+0	1.274875E+0	1.308500E+0	1.337519E+0	1.297298E+0	1.304755E+0	1.370543E+0	1.327613E+0	1.245298E+0	1.337645E+0	1.317804E+0	1.310331E+0	1.190840E+0	1.291602E+0	1.281418E+0	1.352418E+0	1.293038E+0	1.271660E+0	1.137344E+0	1.389153E+0	1.210753E+0	1.326847E+0	1.281891E+0	1.352215E+0	1.213123E+0	1.245848E+0	1.233780E+0	1.263785E+0	1.145390E+0	1.264129E+0	1.362225E+0	1.374791E+0	1.293437E+0	1.207708E+0	1.353547E+0	1.374050E+0	1.273555E+0	1.247605E+0	1.304610E+0	1.324743E+0	1.246406E+0	1.283089E+0	1.342260E+0	1.322486E+0	1.242721E+0	1.292331E+0	1.392921E+0	1.343948E+0	1.307177E+0	1.205660E+0	1.340839E+0	1.367682E+0	1.266430E+0	1.353893E+0	1.317986E+0	1.353993E+0	1.268279E+0	1.305978E+0	1.284104E+0	1.314239E+0	1.243132E+0	1.303549E+0	1.297543E+0	1.332257E+0	1.345576E+0	1.257848E+0	1.265845E+0	1.382609E+0	1.297849E+0	1.286149E+0	1.312560E+0	1.353705E+0	1.292586E+0	1.260520E+0	1.332790E+0	1.351096E+0	1.235967E+0	1.217694E+0	1.353144E+0	1.334847E+0	1.295255E+0	1.193421E+0	1.298100E+0	1.329037E+0	1.251119E+0	1.270594E+0	1.364428E+0	1.379731E+0	1.305896E+0	1.273691E+0	1.360323E+0	1.351076E+0	1.165494E+0	1.219434E+0	1.372459E+0	1.300778E+0	1.293862E+0	1.237409E+0	1.398689E+0	1.217667E+0
5.482550E+2	1.369592E+0	1.324740E+0	1.434661E+0	1.228731E+0	1.279321E+0	1.422199E+0	1.461224E+0	1.396314E+0	1.323340E+0	1.431418E+0	1.528003E+0	1.273570E+0	1.433958E+0	1.433950E+0	1.450005E+0	1.282136E+0	1.393743E+0	1.486454E+0	1.452937E+0	1.311051E+0	1.312253E+0	1.445573E+0	1.472733E+0	1.311659E+0	1.333431E+0	1.441414E+0	1.472979E+0	1.200041E+0	1.417397E+0	1.446433E+0	1.469458E+0	1.257588E+0	1.421349E+0	1.367062E+0	1.434614E+0	1.243733E+0	1.322322E+0	1.366329E+0	1.427828E+0	1.324622E+0	1.358086E+0	1.408478E+0	1.453318E+0	1.379629E+0	1.470292E+0	1.422549E+0	1.424414E+0	1.310826E+0	1.375176E+0	1.413513E+0	1.499622E+0	1.282493E+0	1.305373E+0	1.416165E+0	1.405356E+0	1.390077E+0	1.282976E+0	1.410605E+0	1.401596E+0	1.380385E+0	1.421964E+0	1.449149E+0	1.502503E+0	1.341936E+0	1.348148E+0	1.446031E+0	1.403856E+0	1.306027E+0	1.362738E+0	1.396205E+0	1.458972E+0	1.356465E+0	1.318721E+0	1.369686E+0	1.426407E+0	1.383704E+0	1.378323E+0	1.490641E+0	1.510112E+0	1.301614E+0	1.433097E+0	1.449102E+0	1.457776E+0	1.270612E+0	1.352302E+0	1.404297E+0	1.412207E+0	1.436566E+0	1.453707E+0	1.247981E+0	1.409765E+0	1.260788E+0	1.424814E+0	1.428026E+0	1.408924E+0	1.284467E+0	1.397376E+0	1.300162E+0	1.396177E+0	1.268555E+0	1.324710E+0	1.380057E+0	1.429530E+0	1.418398E+0	1.270262E+0	1.393364E+0	1.427980E+0	1.348845E+0	1.329637E+0	1.405747E+0	1.431197E+0	1.279641E+0	1.413976E+0	1.428826E+0	1.376258E+0	1.252896E+0	1.368492E+0	1.442768E+0	1.412685E+0	1.358338E+0	1.317501E+0	1.482617E+0	1.442321E+0	1.387498E+0	1.481254E+0	1.462553E+0	1.404770E+0	1.328583E+0	1.365741E+0	1.357174E+0	1.430293E+0	1.295906E+0	1.414296E+0	1.439264E+0	1.420581E+0	1.457232E+0	1.379061E+0	1.443024E+0	1.419915E+0	1.369528E+0	1.424850E+0	1.353682E+0	1.338150E+0	1.324898E+0	1.387538E+0	1.431011E+0	1.408248E+0	1.332858E+0	1.272293E+0	1.439832E+0	1.370356E+0	1.400328E+0	1.243719E+0	1.421693E+0	1.435043E+0	1.375732E+0	1.385078E+0	1.354268E+0	1.452742E+0	1.423348E+0	1.290464E+0	1.462166E+0	1.446338E+0	1.357486E+0	1.331873E+0	1.448078E+0	1.482730E+0	1.384805E+0	1.322535E+0	1.383601E+0	1.501412E+0
5.490380E+2	1.314944E+0	1.374982E+0	1.442944E+0	1.192876E+0	1.323851E+0	1.341435E+0	1.364145E+0	1.414375E+0	1.237028E+0	1.360881E+0	1.425126E+0	1.311312E+0	1.365394E+0	1.408850E+0	1.390183E+0	1.378597E+0	1.363497E+0	1.459264E+0	1.398639E+0	1.297408E+0	1.333064E+0	1.373329E+0	1.415180E+0	1.324842E+0	1.233118E+0	1.414483E+0	1.421871E+0	1.193406E+0	1.371895E+0	1.372637E+0	1.402025E+0	1.231363E+0	1.372466E+0	1.381252E+0	1.334230E+0	1.217775E+0	1.338298E+0	1.389734E+0	1.389196E+0	1.255833E+0	1.281539E+0	1.292765E+0	1.455877E+0	1.352063E+0	1.339532E+0	1.393048E+0	1.383968E+0	1.241661E+0	1.271049E+0	1.407683E+0	1.421413E+0	1.238131E+0	1.249639E+0	1.413679E+0	1.408974E+0	1.364840E+0	1.209621E+0	1.385816E+0	1.397453E+0	1.371713E+0	1.396879E+0	1.447362E+0	1.425269E+0	1.232926E+0	1.329511E+0	1.410569E+0	1.406770E+0	1.190743E+0	1.319353E+0	1.368033E+0	1.408469E+0	1.317416E+0	1.287843E+0	1.402416E+0	1.412106E+0	1.334530E+0	1.290854E+0	1.411412E+0	1.431581E+0	1.253434E+0	1.362030E+0	1.376573E+0	1.376489E+0	1.275343E+0	1.278114E+0	1.360889E+0	1.450548E+0	1.385440E+0	1.356023E+0	1.310699E+0	1.416391E+0	1.266054E+0	1.416080E+0	1.401906E+0	1.432835E+0	1.287491E+0	1.322309E+0	1.290060E+0	1.411204E+0	1.175120E+0	1.341398E+0	1.436975E+0	1.384860E+0	1.350473E+0	1.292299E+0	1.373782E+0	1.452974E+0	1.296560E+0	1.302492E+0	1.331469E+0	1.431787E+0	1.271641E+0	1.276235E+0	1.401282E+0	1.405465E+0	1.275424E+0	1.292983E+0	1.382826E+0	1.397120E+0	1.377439E+0	1.287464E+0	1.389305E+0	1.401300E+0	1.401469E+0	1.337200E+0	1.377548E+0	1.381522E+0	1.254515E+0	1.343829E+0	1.390692E+0	1.376044E+0	1.267320E+0	1.381011E+0	1.372028E+0	1.416038E+0	1.385055E+0	1.313075E+0	1.387190E+0	1.329634E+0	1.297165E+0	1.358892E+0	1.420195E+0	1.345278E+0	1.355343E+0	1.333751E+0	1.386424E+0	1.410476E+0	1.350723E+0	1.257192E+0	1.379716E+0	1.376064E+0	1.413925E+0	1.241762E+0	1.337652E+0	1.382738E+0	1.330227E+0	1.322862E+0	1.381164E+0	1.399760E+0	1.344404E+0	1.324661E+0	1.423463E+0	1.368223E+0	1.281680E+0	1.281571E+0	1.393080E+0	1.404008E+0	1.366942E+0	1.246867E+0	1.325138E+0	1.345936E+0
5.497790E+2	1.270588E+0	1.298955E+0	1.366887E+0	1.156343E+0	1.195682E+0	1.313169E+0	1.387877E+0	1.307940E+0	1.224148E+0	1.240158E+0	1.352115E+0	1.358816E+0	1.320254E+0	1.368134E+0	1.333515E+0	1.406757E+0	1.301749E+0	1.374602E+0	1.394676E+0	1.387077E+0	1.284508E+0	1.373329E+0	1.363444E+0	1.355827E+0	1.193638E+0	1.330404E+0	1.339465E+0	1.209995E+0	1.323515E+0	1.302502E+0	1.353180E+0	1.357116E+0	1.310468E+0	1.336105E+0	1.289830E+0	1.406995E+0	1.276049E+0	1.308113E+0	1.333052E+0	1.301296E+0	1.291919E+0	1.286439E+0	1.352923E+0	1.335654E+0	1.352037E+0	1.306282E+0	1.365934E+0	1.273045E+0	1.252116E+0	1.351980E+0	1.363411E+0	1.320078E+0	1.238492E+0	1.306125E+0	1.347475E+0	1.293434E+0	1.210242E+0	1.315461E+0	1.369832E+0	1.261014E+0	1.314222E+0	1.314960E+0	1.411676E+0	1.239883E+0	1.355219E+0	1.323586E+0	1.320067E+0	1.166289E+0	1.310790E+0	1.298211E+0	1.349448E+0	1.313208E+0	1.218677E+0	1.317749E+0	1.287792E+0	1.299405E+0	1.303020E+0	1.312693E+0	1.358581E+0	1.242794E+0	1.323011E+0	1.346565E+0	1.295836E+0	1.244247E+0	1.314901E+0	1.280083E+0	1.358921E+0	1.267163E+0	1.305703E+0	1.332542E+0	1.315549E+0	1.161371E+0	1.352432E+0	1.320719E+0	1.379543E+0	1.201635E+0	1.279908E+0	1.279236E+0	1.283107E+0	1.189984E+0	1.290092E+0	1.305307E+0	1.330120E+0	1.276134E+0	1.226900E+0	1.363990E+0	1.402987E+0	1.322355E+0	1.246398E+0	1.305183E+0	1.358453E+0	1.235945E+0	1.318722E+0	1.374395E+0	1.293278E+0	1.236907E+0	1.272804E+0	1.430780E+0	1.385447E+0	1.339917E+0	1.240808E+0	1.343010E+0	1.330698E+0	1.319980E+0	1.331016E+0	1.316122E+0	1.300767E+0	1.226331E+0	1.290706E+0	1.320306E+0	1.354069E+0	1.274649E+0	1.281764E+0	1.323910E+0	1.349795E+0	1.352363E+0	1.313077E+0	1.339545E+0	1.359478E+0	1.252793E+0	1.272591E+0	1.389963E+0	1.342041E+0	1.256548E+0	1.244967E+0	1.339897E+0	1.318433E+0	1.189242E+0	1.233959E+0	1.362002E+0	1.322801E+0	1.291544E+0	1.237841E+0	1.386382E+0	1.352748E+0	1.338628E+0	1.305435E+0	1.332748E+0	1.371976E+0	1.310387E+0	1.248529E+0	1.355571E+0	1.317414E+0	1.208709E+0	1.229493E+0	1.298716E+0	1.337166E+0	1.319846E+0	1.211398E+0	1.213866E+0	1.330387E+0
5.505060E+2	1.211443E+0	1.296974E+0	1.375923E+0	1.108311E+0	1.199295E+0	1.259324E+0	1.276418E+0	1.262144E+0	1.140414E+0	1.281530E+0	1.310296E+0	1.308707E+0	1.239120E+0	1.293948E+0	1.313049E+0	1.289326E+0	1.233070E+0	1.358537E+0	1.267417E+0	1.344838E+0	1.249250E+0	1.336595E+0	1.314611E+0	1.280018E+0	1.136687E+0	1.305445E+0	1.319022E+0	1.165541E+0	1.311995E+0	1.234802E+0	1.304334E+0	1.323741E+0	1.292584E+0	1.296757E+0	1.249931E+0	1.241684E+0	1.228673E+0	1.301514E+0	1.274495E+0	1.317446E+0	1.219262E+0	1.252294E+0	1.283223E+0	1.311367E+0	1.308262E+0	1.338098E+0	1.375771E+0	1.270141E+0	1.240126E+0	1.282670E+0	1.291717E+0	1.367519E+0	1.198919E+0	1.284365E+0	1.348078E+0	1.311902E+0	1.168590E+0	1.261186E+0	1.353260E+0	1.303025E+0	1.260065E+0	1.319136E+0	1.319615E+0	1.314683E+0	1.242748E+0	1.309533E+0	1.310599E+0	1.313713E+0	1.185765E+0	1.266975E+0	1.305639E+0	1.305998E+0	1.197680E+0	1.299961E+0	1.295252E+0	1.306432E+0	1.246830E+0	1.300748E+0	1.229727E+0	1.310377E+0	1.259607E+0	1.314053E+0	1.367669E+0	1.205715E+0	1.259719E+0	1.226657E+0	1.322527E+0	1.243139E+0	1.268703E+0	1.263485E+0	1.321438E+0	1.176514E+0	1.306256E+0	1.335547E+0	1.326252E+0	1.163546E+0	1.244459E+0	1.204919E+0	1.277383E+0	1.118493E+0	1.209116E+0	1.297761E+0	1.294888E+0	1.262037E+0	1.187804E+0	1.311115E+0	1.275388E+0	1.290982E+0	1.199349E+0	1.309182E+0	1.324150E+0	1.199022E+0	1.280346E+0	1.360624E+0	1.325806E+0	1.126448E+0	1.171911E+0	1.304579E+0	1.312819E+0	1.244417E+0	1.251675E+0	1.306122E+0	1.296405E+0	1.256341E+0	1.303197E+0	1.334737E+0	1.330131E+0	1.205356E+0	1.259499E+0	1.298852E+0	1.352008E+0	1.227006E+0	1.273898E+0	1.289634E+0	1.328362E+0	1.291290E+0	1.231311E+0	1.280734E+0	1.325902E+0	1.278050E+0	1.278755E+0	1.305305E+0	1.273332E+0	1.191931E+0	1.240430E+0	1.277861E+0	1.297650E+0	1.200923E+0	1.181685E+0	1.317077E+0	1.268272E+0	1.287838E+0	1.164679E+0	1.281857E+0	1.360423E+0	1.219614E+0	1.292369E+0	1.316013E+0	1.289273E+0	1.268026E+0	1.227237E+0	1.284958E+0	1.292648E+0	1.178246E+0	1.196947E+0	1.313091E+0	1.233938E+0	1.287366E+0	1.196028E+0	1.227068E+0	1.248763E+0
5.512570E+2	1.217228E+0	1.243422E+0	1.296853E+0	1.129283E+0	1.158977E+0	1.252594E+0	1.290799E+0	1.286011E+0	1.184858E+0	1.228629E+0	1.299678E+0	1.297648E+0	1.242547E+0	1.327972E+0	1.277369E+0	1.319883E+0	1.255754E+0	1.273877E+0	1.268545E+0	1.244775E+0	1.231329E+0	1.304151E+0	1.276245E+0	1.276063E+0	1.156749E+0	1.300845E+0	1.280694E+0	1.146963E+0	1.284925E+0	1.331165E+0	1.326102E+0	1.287385E+0	1.243700E+0	1.252900E+0	1.258941E+0	1.290867E+0	1.229775E+0	1.263101E+0	1.349351E+0	1.310866E+0	1.180989E+0	1.264309E+0	1.299207E+0	1.323841E+0	1.296321E+0	1.340990E+0	1.276841E+0	1.318963E+0	1.242650E+0	1.228910E+0	1.341905E+0	1.306522E+0	1.169379E+0	1.288095E+0	1.268489E+0	1.302669E+0	1.108292E+0	1.255824E+0	1.286282E+0	1.335703E+0	1.264053E+0	1.245180E+0	1.315911E+0	1.320483E+0	1.205471E+0	1.324923E+0	1.277082E+0	1.259914E+0	1.160074E+0	1.259011E+0	1.255135E+0	1.326424E+0	1.248321E+0	1.279328E+0	1.323223E+0	1.345069E+0	1.271737E+0	1.249187E+0	1.286136E+0	1.333528E+0	1.234525E+0	1.313429E+0	1.295207E+0	1.309145E+0	1.199020E+0	1.261384E+0	1.290033E+0	1.239444E+0	1.277582E+0	1.236000E+0	1.280218E+0	1.228527E+0	1.287535E+0	1.274831E+0	1.250409E+0	1.321346E+0	1.347332E+0	1.200589E+0	1.313879E+0	1.282005E+0	1.265369E+0	1.238786E+0	1.280419E+0	1.269085E+0	1.211262E+0	1.311768E+0	1.291173E+0	1.254734E+0	1.243383E+0	1.292041E+0	1.236621E+0	1.189174E+0	1.197429E+0	1.283897E+0	1.261416E+0	1.184585E+0	1.191439E+0	1.336762E+0	1.292070E+0	1.255331E+0	1.266372E+0	1.241742E+0	1.303129E+0	1.272638E+0	1.297634E+0	1.259043E+0	1.318507E+0	1.186349E+0	1.238249E+0	1.312260E+0	1.283335E+0	1.152241E+0	1.238192E+0	1.314023E+0	1.345896E+0	1.248110E+0	1.211945E+0	1.327634E+0	1.313218E+0	1.218659E+0	1.280605E+0	1.312560E+0	1.261017E+0	1.240395E+0	1.186640E+0	1.250075E+0	1.281320E+0	1.213979E+0	1.204334E+0	1.329100E+0	1.312656E+0	1.263732E+0	1.156840E+0	1.305163E+0	1.275338E+0	1.260219E+0	1.198419E+0	1.317206E+0	1.309950E+0	1.205129E+0	1.173041E+0	1.289031E+0	1.306619E+0	1.158410E+0	1.163806E+0	1.305592E+0	1.293349E+0	1.258134E+0	1.142824E+0	1.398688E+0	1.330387E+0
5.520100E+2	1.237800E+0	1.251355E+0	1.362368E+0	1.115076E+0	1.180639E+0	1.235767E+0	1.394346E+0	1.303427E+0	1.166178E+0	1.258471E+0	1.322245E+0	1.336041E+0	1.276830E+0	1.328531E+0	1.323021E+0	1.325873E+0	1.281587E+0	1.370897E+0	1.329067E+0	1.368230E+0	1.174104E+0	1.350676E+0	1.307054E+0	1.324845E+0	1.184578E+0	1.344855E+0	1.334993E+0	1.135682E+0	1.277439E+0	1.350071E+0	1.331412E+0	1.266528E+0	1.307486E+0	1.287084E+0	1.305274E+0	1.276520E+0	1.267784E+0	1.321916E+0	1.327619E+0	1.301293E+0	1.251699E+0	1.325011E+0	1.286420E+0	1.304149E+0	1.321336E+0	1.268106E+0	1.356095E+0	1.302689E+0	1.165028E+0	1.299510E+0	1.307361E+0	1.386001E+0	1.146529E+0	1.319803E+0	1.295019E+0	1.348833E+0	1.180401E+0	1.273916E+0	1.400216E+0	1.427730E+0	1.303388E+0	1.317943E+0	1.297376E+0	1.283371E+0	1.245960E+0	1.308863E+0	1.256682E+0	1.399651E+0	1.201178E+0	1.320870E+0	1.301985E+0	1.313809E+0	1.163715E+0	1.307789E+0	1.330060E+0	1.318374E+0	1.236403E+0	1.296345E+0	1.336461E+0	1.274083E+0	1.346005E+0	1.335311E+0	1.296469E+0	1.346326E+0	1.216187E+0	1.224653E+0	1.371266E+0	1.341703E+0	1.315322E+0	1.305060E+0	1.291259E+0	1.266057E+0	1.291902E+0	1.308720E+0	1.345382E+0	1.314093E+0	1.273655E+0	1.194095E+0	1.261637E+0	1.327304E+0	1.255476E+0	1.226442E+0	1.283562E+0	1.352395E+0	1.169322E+0	1.363337E+0	1.308274E+0	1.304926E+0	1.243383E+0	1.351463E+0	1.296355E+0	1.357794E+0	1.265955E+0	1.336358E+0	1.289297E+0	1.344462E+0	1.258486E+0	1.355059E+0	1.332273E+0	1.339919E+0	1.229307E+0	1.314076E+0	1.321283E+0	1.327741E+0	1.274756E+0	1.306817E+0	1.306271E+0	1.327927E+0	1.309964E+0	1.306227E+0	1.318359E+0	1.273183E+0	1.270872E+0	1.280405E+0	1.310179E+0	1.357297E+0	1.252828E+0	1.300834E+0	1.285612E+0	1.308772E+0	1.315742E+0	1.359726E+0	1.333613E+0	1.255304E+0	1.151646E+0	1.377374E+0	1.335505E+0	1.269638E+0	1.189815E+0	1.316443E+0	1.322802E+0	1.282894E+0	1.167293E+0	1.353891E+0	1.318575E+0	1.260918E+0	1.268107E+0	1.301072E+0	1.333208E+0	1.309746E+0	1.247239E+0	1.299896E+0	1.318688E+0	1.201625E+0	1.182151E+0	1.331212E+0	1.307459E+0	1.305230E+0	1.121542E+0	1.410004E+0	1.229329E+0
5.527590E+2	1.251944E+0	1.234167E+0	1.363874E+0	1.108987E+0	1.149349E+0	1.253940E+0	1.236148E+0	1.305361E+0	1.182925E+0	1.210316E+0	1.295032E+0	1.337341E+0	1.294544E+0	1.259365E+0	1.258480E+0	1.288726E+0	1.266463E+0	1.259045E+0	1.242529E+0	1.334444E+0	1.229019E+0	1.327414E+0	1.266364E+0	1.243764E+0	1.192344E+0	1.275883E+0	1.284529E+0	1.130374E+0	1.244034E+0	1.297012E+0	1.270354E+0	1.279044E+0	1.212104E+0	1.272251E+0	1.264089E+0	1.301797E+0	1.237487E+0	1.276307E+0	1.301661E+0	1.242075E+0	1.182286E+0	1.282013E+0	1.287058E+0	1.212919E+0	1.238898E+0	1.274472E+0	1.321113E+0	1.323029E+0	1.219931E+0	1.290442E+0	1.317789E+0	1.265856E+0	1.144297E+0	1.298043E+0	1.306474E+0	1.344529E+0	1.158645E+0	1.261854E+0	1.356023E+0	1.294355E+0	1.270326E+0	1.331062E+0	1.295520E+0	1.317003E+0	1.278737E+0	1.345666E+0	1.262508E+0	1.329782E+0	1.214309E+0	1.258403E+0	1.280689E+0	1.249521E+0	1.213736E+0	1.255849E+0	1.322604E+0	1.281842E+0	1.235242E+0	1.247302E+0	1.306598E+0	1.287223E+0	1.274239E+0	1.288416E+0	1.295207E+0	1.269936E+0	1.232127E+0	1.231333E+0	1.325125E+0	1.276405E+0	1.324943E+0	1.243048E+0	1.278746E+0	1.290416E+0	1.291904E+0	1.279068E+0	1.265441E+0	1.363068E+0	1.202060E+0	1.264084E+0	1.262353E+0	1.303239E+0	1.171409E+0	1.318335E+0	1.235747E+0	1.277417E+0	1.189226E+0	1.356810E+0	1.280650E+0	1.285405E+0	1.198749E+0	1.250901E+0	1.260279E+0	1.245176E+0	1.263214E+0	1.297011E+0	1.246810E+0	1.224554E+0	1.188185E+0	1.238327E+0	1.256404E+0	1.287395E+0	1.171788E+0	1.322757E+0	1.321285E+0	1.281174E+0	1.245697E+0	1.302475E+0	1.240195E+0	1.302366E+0	1.234929E+0	1.239190E+0	1.319046E+0	1.340620E+0	1.272080E+0	1.324572E+0	1.242633E+0	1.307945E+0	1.242787E+0	1.280734E+0	1.274422E+0	1.278050E+0	1.312658E+0	1.304095E+0	1.273981E+0	1.323654E+0	1.211265E+0	1.231336E+0	1.288001E+0	1.310868E+0	1.195623E+0	1.282905E+0	1.235301E+0	1.227882E+0	1.138550E+0	1.278325E+0	1.288590E+0	1.274222E+0	1.283660E+0	1.342310E+0	1.310596E+0	1.320013E+0	1.214332E+0	1.261875E+0	1.252635E+0	1.298684E+0	1.184519E+0	1.303718E+0	1.297808E+0	1.257322E+0	1.183022E+0	1.238382E+0	1.272085E+0
5.534940E+2	1.173512E+0	1.158800E+0	1.231338E+0	1.039305E+0	1.105423E+0	1.215576E+0	1.207385E+0	1.186030E+0	1.048952E+0	1.177084E+0	1.237287E+0	1.237128E+0	1.177412E+0	1.173468E+0	1.226472E+0	1.264760E+0	1.139817E+0	1.193544E+0	1.208028E+0	1.226579E+0	1.135953E+0	1.183542E+0	1.171025E+0	1.216078E+0	1.148336E+0	1.171441E+0	1.206592E+0	1.078624E+0	1.153607E+0	1.215898E+0	1.191245E+0	1.168783E+0	1.151299E+0	1.187757E+0	1.259584E+0	1.196598E+0	1.131716E+0	1.159878E+0	1.211109E+0	1.180466E+0	1.131039E+0	1.187798E+0	1.209681E+0	1.258207E+0	1.178636E+0	1.204477E+0	1.205785E+0	1.178894E+0	1.091822E+0	1.232147E+0	1.210903E+0	1.214103E+0	1.065155E+0	1.216601E+0	1.190709E+0	1.210951E+0	1.099589E+0	1.139906E+0	1.227590E+0	1.225670E+0	1.176266E+0	1.201047E+0	1.234970E+0	1.243942E+0	1.178478E+0	1.223217E+0	1.181637E+0	1.204716E+0	1.169779E+0	1.174491E+0	1.209498E+0	1.210469E+0	1.107516E+0	1.186836E+0	1.223770E+0	1.239691E+0	1.195273E+0	1.172474E+0	1.212029E+0	1.192108E+0	1.175999E+0	1.191506E+0	1.212662E+0	1.251006E+0	1.148132E+0	1.163216E+0	1.213349E+0	1.192012E+0	1.199140E+0	1.170465E+0	1.227957E+0	1.198240E+0	1.239488E+0	1.192940E+0	1.218982E+0	1.223402E+0	1.132552E+0	1.145752E+0	1.168605E+0	1.193523E+0	1.139268E+0	1.190782E+0	1.216872E+0	1.203080E+0	1.047058E+0	1.147268E+0	1.234611E+0	1.180139E+0	1.177638E+0	1.216045E+0	1.189310E+0	1.221176E+0	1.130957E+0	1.170443E+0	1.215611E+0	1.180951E+0	1.180372E+0	1.204882E+0	1.240193E+0	1.190527E+0	1.141113E+0	1.248976E+0	1.228490E+0	1.212104E+0	1.174598E+0	1.206304E+0	1.185134E+0	1.210600E+0	1.197744E+0	1.196956E+0	1.220845E+0	1.198419E+0	1.164968E+0	1.236241E+0	1.212109E+0	1.228986E+0	1.133048E+0	1.233833E+0	1.180411E+0	1.212513E+0	1.209096E+0	1.205533E+0	1.196202E+0	1.188822E+0	1.165904E+0	1.208071E+0	1.233073E+0	1.201610E+0	1.073069E+0	1.217733E+0	1.180138E+0	1.208723E+0	1.075187E+0	1.220415E+0	1.273943E+0	1.194412E+0	1.193442E+0	1.209022E+0	1.227243E+0	1.198068E+0	1.144652E+0	1.196015E+0	1.176426E+0	1.218628E+0	1.088057E+0	1.201229E+0	1.176753E+0	1.163130E+0	1.045874E+0	1.294961E+0	1.190461E+0
5.542580E+2	1.106011E+0	1.119133E+0	1.177871E+0	9.554177E-1	1.053072E+0	1.097120E+0	1.132600E+0	1.169904E+0	1.029629E+0	1.091628E+0	1.131088E+0	1.170753E+0	1.161985E+0	1.203589E+0	1.161929E+0	1.181481E+0	1.132885E+0	1.173768E+0	1.145812E+0	1.151205E+0	1.075839E+0	1.195176E+0	1.146029E+0	1.113247E+0	1.055788E+0	1.125461E+0	1.231504E+0	1.035496E+0	1.159369E+0	1.156740E+0	1.181155E+0	1.142559E+0	1.108377E+0	1.160666E+0	1.124452E+0	1.120090E+0	1.104723E+0	1.155076E+0	1.170661E+0	1.165511E+0	1.104441E+0	1.092318E+0	1.143816E+0	1.145970E+0	1.164989E+0	1.131017E+0	1.150582E+0	1.170176E+0	1.050171E+0	1.176441E+0	1.173101E+0	1.100736E+0	1.077974E+0	1.141375E+0	1.169005E+0	1.238036E+0	1.090884E+0	1.199541E+0	1.206184E+0	1.195661E+0	1.091896E+0	1.134250E+0	1.147852E+0	1.144209E+0	1.067933E+0	1.144262E+0	1.179451E+0	1.148122E+0	1.059599E+0	1.138358E+0	1.088413E+0	1.151587E+0	1.042057E+0	1.134898E+0	1.177772E+0	1.156096E+0	1.105484E+0	1.158012E+0	1.151197E+0	1.193358E+0	1.186450E+0	1.170249E+0	1.180526E+0	1.177321E+0	1.104599E+0	1.137837E+0	1.188655E+0	1.169219E+0	1.084436E+0	1.138754E+0	1.142574E+0	1.144911E+0	1.169602E+0	1.147758E+0	1.145190E+0	1.147826E+0	1.082506E+0	1.061332E+0	1.139979E+0	1.199894E+0	1.086723E+0	1.150322E+0	1.118093E+0	1.122334E+0	1.072648E+0	1.154448E+0	1.240528E+0	1.158528E+0	1.144461E+0	1.212616E+0	1.173341E+0	1.125788E+0	1.103546E+0	1.153392E+0	1.151883E+0	1.182405E+0	1.118535E+0	1.163240E+0	1.134491E+0	1.161876E+0	1.063781E+0	1.174472E+0	1.161246E+0	1.143032E+0	1.151721E+0	1.176520E+0	1.201651E+0	1.104415E+0	1.064277E+0	1.150701E+0	1.137067E+0	1.136848E+0	1.162546E+0	1.184828E+0	1.221850E+0	1.158660E+0	1.084994E+0	1.192888E+0	1.197572E+0	1.160632E+0	1.164095E+0	1.180740E+0	1.135921E+0	1.181369E+0	1.063510E+0	1.125361E+0	1.165526E+0	1.103348E+0	1.049254E+0	1.132310E+0	1.181405E+0	1.079548E+0	1.001372E+0	1.164622E+0	1.182582E+0	1.109703E+0	1.103845E+0	1.174354E+0	1.213675E+0	1.187798E+0	1.129167E+0	1.198052E+0	1.160549E+0	1.167620E+0	1.044267E+0	1.108113E+0	1.129966E+0	1.113599E+0	1.082526E+0	1.196891E+0	1.171025E+0
5.550140E+2	9.986500E-1	9.829433E-1	1.065666E+0	9.520349E-1	9.477702E-1	9.901058E-1	1.038400E+0	1.005418E+0	9.194874E-1	1.003458E+0	1.077325E+0	9.865946E-1	1.023141E+0	1.027331E+0	1.006087E+0	1.054462E+0	1.011279E+0	1.037201E+0	1.040611E+0	1.034244E+0	9.608089E-1	1.059262E+0	1.036740E+0	1.027554E+0	9.308801E-1	1.049922E+0	1.080746E+0	9.220396E-1	9.854281E-1	1.041472E+0	1.022406E+0	1.051969E+0	9.486132E-1	9.987747E-1	1.042084E+0	1.051779E+0	9.471695E-1	1.032048E+0	1.031209E+0	9.998195E-1	9.708077E-1	1.026556E+0	1.059407E+0	1.055395E+0	1.057536E+0	1.012436E+0	1.037441E+0	1.016157E+0	9.403630E-1	1.000259E+0	1.050575E+0	1.071779E+0	9.269308E-1	1.040038E+0	1.016460E+0	1.055215E+0	9.304995E-1	1.038729E+0	1.085346E+0	1.072289E+0	1.017217E+0	1.029283E+0	1.014396E+0	1.009684E+0	1.014589E+0	9.990631E-1	1.039562E+0	1.078253E+0	9.499905E-1	1.029337E+0	1.028172E+0	1.069275E+0	9.562148E-1	9.961581E-1	1.041646E+0	1.065473E+0	9.919484E-1	1.042946E+0	1.030086E+0	1.060699E+0	1.031772E+0	1.020820E+0	1.041272E+0	1.032652E+0	9.948493E-1	9.755576E-1	1.039187E+0	1.052177E+0	1.015615E+0	1.055600E+0	1.077801E+0	1.019159E+0	1.084114E+0	1.055277E+0	1.007174E+0	1.031741E+0	9.525262E-1	9.271245E-1	1.021183E+0	1.038507E+0	9.766962E-1	1.032369E+0	1.050774E+0	1.080681E+0	9.525160E-1	1.026503E+0	1.057024E+0	1.047684E+0	9.809997E-1	9.869154E-1	1.050920E+0	1.059940E+0	9.712866E-1	1.042561E+0	1.070897E+0	9.774719E-1	9.948576E-1	1.042719E+0	1.045652E+0	9.879255E-1	9.934811E-1	1.078989E+0	1.075177E+0	1.020411E+0	9.891186E-1	1.033194E+0	1.023616E+0	1.047390E+0	1.003852E+0	1.006570E+0	1.039554E+0	1.041560E+0	9.979424E-1	1.051019E+0	1.030264E+0	1.010610E+0	1.011117E+0	1.000818E+0	1.055810E+0	1.022050E+0	1.064850E+0	1.009616E+0	1.021196E+0	1.025412E+0	9.559325E-1	1.051695E+0	1.023010E+0	1.060744E+0	9.644532E-1	1.100038E+0	1.036839E+0	1.010322E+0	9.353952E-1	1.052332E+0	1.054258E+0	1.041795E+0	1.009893E+0	1.052419E+0	1.037927E+0	1.047239E+0	1.007226E+0	1.026276E+0	1.057031E+0	1.072687E+0	9.418864E-1	1.001875E+0	1.075751E+0	1.010475E+0	1.003311E+0	1.006413E+0	9.999995E-1
5.557600E+2	9.542914E-1	9.426158E-1	9.873491E-1	8.620579E-1	9.658223E-1	9.443392E-1	9.672096E-1	9.628458E-1	9.452514E-1	9.458101E-1	1.028209E+0	9.885472E-1	9.648604E-1	9.654182E-1	1.006613E+0	9.867589E-1	9.577213E-1	9.964157E-1	1.026471E+0	9.478227E-1	9.186124E-1	1.013958E+0	1.033252E+0	9.945948E-1	9.257027E-1	9.632157E-1	9.893955E-1	9.114241E-1	9.773642E-1	9.786538E-1	9.772769E-1	9.661477E-1	9.116533E-1	9.878101E-1	9.610042E-1	9.882505E-1	9.273380E-1	9.534288E-1	1.000422E+0	9.920442E-1	9.474546E-1	9.911473E-1	9.775548E-1	1.029142E+0	9.762362E-1	9.898778E-1	1.016125E+0	9.958161E-1	9.851695E-1	9.775883E-1	9.678045E-1	1.011397E+0	8.962761E-1	9.797326E-1	9.977688E-1	9.819641E-1	9.261477E-1	9.811046E-1	9.962713E-1	9.915976E-1	9.761707E-1	1.009602E+0	9.995673E-1	1.024180E+0	9.721713E-1	9.977253E-1	9.841895E-1	9.790390E-1	9.282968E-1	9.760524E-1	1.005050E+0	9.875635E-1	9.234845E-1	9.926006E-1	1.004973E+0	1.030348E+0	9.878928E-1	9.832114E-1	9.957971E-1	1.009386E+0	9.467680E-1	1.025822E+0	1.036861E+0	1.020484E+0	9.237272E-1	9.588625E-1	9.930463E-1	1.001047E+0	9.763935E-1	1.000634E+0	9.541439E-1	1.015866E+0	9.561962E-1	9.839743E-1	1.041337E+0	1.034161E+0	9.427949E-1	9.429982E-1	9.925574E-1	1.010193E+0	9.309539E-1	1.015910E+0	9.538822E-1	9.691762E-1	9.027573E-1	9.605721E-1	9.866484E-1	9.947018E-1	9.779839E-1	9.537734E-1	9.793606E-1	9.971691E-1	9.815662E-1	1.033380E+0	9.938930E-1	1.042876E+0	9.466886E-1	9.808811E-1	9.983144E-1	9.579112E-1	9.231816E-1	9.950819E-1	9.648999E-1	9.684133E-1	1.039816E+0	1.022647E+0	9.893542E-1	9.864320E-1	9.626824E-1	1.005899E+0	9.715702E-1	9.763241E-1	9.761567E-1	9.633510E-1	1.027017E+0	9.884024E-1	9.974896E-1	9.874190E-1	9.856753E-1	1.000887E+0	9.964247E-1	9.775661E-1	9.421186E-1	1.014228E+0	8.950145E-1	1.014216E+0	9.896081E-1	1.004398E+0	8.866227E-1	1.007023E+0	1.010209E+0	9.837447E-1	9.556457E-1	1.005014E+0	1.021480E+0	9.696869E-1	1.013004E+0	9.944416E-1	1.015313E+0	9.978177E-1	9.168988E-1	1.041892E+0	9.903467E-1	9.586266E-1	9.040125E-1	1.010624E+0	1.009655E+0	1.060007E+0	9.560181E-1	9.630342E-1	8.989387E-1
5.560190E+2	9.806492E-1	9.789768E-1	1.013706E+0	8.011713E-1	1.000120E+0	9.268398E-1	1.016107E+0	9.783267E-1	9.716593E-1	9.342804E-1	9.631622E-1	9.781352E-1	9.500053E-1	9.637448E-1	9.646343E-1	9.771726E-1	1.004978E+0	9.865284E-1	9.687781E-1	9.647168E-1	1.046358E+0	9.998777E-1	1.032089E+0	1.000528E+0	9.593567E-1	9.796370E-1	1.049444E+0	8.769225E-1	1.001555E+0	1.060987E+0	1.037803E+0	9.762797E-1	9.527861E-1	1.016834E+0	9.655086E-1	9.363343E-1	9.829761E-1	9.684323E-1	1.037247E+0	9.693137E-1	1.035030E+0	9.525763E-1	1.003773E+0	9.451295E-1	9.904485E-1	9.898761E-1	1.001367E+0	9.818663E-1	9.738098E-1	9.769407E-1	9.925705E-1	9.910659E-1	9.804367E-1	9.610814E-1	9.658144E-1	9.536486E-1	1.049856E+0	9.650235E-1	1.005248E+0	9.875962E-1	9.858631E-1	9.815715E-1	1.027989E+0	1.019541E+0	9.625312E-1	9.341593E-1	9.579607E-1	1.034934E+0	9.168792E-1	9.650282E-1	9.703671E-1	9.551188E-1	9.895633E-1	9.869087E-1	9.825947E-1	1.013488E+0	9.902106E-1	9.668629E-1	9.554261E-1	1.045054E+0	9.216856E-1	9.626740E-1	9.524268E-1	1.004259E+0	9.059464E-1	9.314821E-1	1.005394E+0	1.004743E+0	9.408720E-1	9.498963E-1	9.335342E-1	9.513446E-1	9.649320E-1	1.017155E+0	9.880428E-1	9.954644E-1	9.219420E-1	9.047568E-1	9.796757E-1	1.054787E+0	9.334263E-1	9.665343E-1	1.009248E+0	9.819926E-1	9.006243E-1	9.847248E-1	1.090568E+0	9.947012E-1	9.695395E-1	9.714875E-1	9.746293E-1	1.028555E+0	9.548403E-1	9.645214E-1	1.021773E+0	1.008721E+0	9.382261E-1	9.991796E-1	9.885870E-1	9.647325E-1	9.174301E-1	9.900178E-1	9.595200E-1	9.738459E-1	1.011994E+0	9.810758E-1	9.844600E-1	9.929865E-1	9.726424E-1	9.562917E-1	1.014146E+0	9.917175E-1	9.646588E-1	9.936720E-1	9.835037E-1	1.006909E+0	9.393931E-1	9.784851E-1	9.923897E-1	9.817727E-1	9.933423E-1	1.035616E+0	9.939723E-1	1.001801E+0	9.468596E-1	9.838451E-1	1.043794E+0	9.597328E-1	9.214727E-1	1.018413E+0	9.848465E-1	9.812722E-1	9.144922E-1	9.619338E-1	1.005440E+0	9.598855E-1	1.002425E+0	9.950392E-1	9.584539E-1	9.785629E-1	9.123830E-1	1.009981E+0	1.023371E+0	9.805885E-1	9.176241E-1	9.875016E-1	1.006684E+0	1.001543E+0	9.028142E-1	9.800088E-1	9.106003E-1
5.565140E+2	9.986500E-1	9.750102E-1	1.001657E+0	1.031864E+0	9.928996E-1	9.584734E-1	1.051343E+0	1.016384E+0	1.010306E+0	9.912509E-1	1.033519E+0	9.944036E-1	1.020282E+0	1.002232E+0	9.913949E-1	1.050867E+0	1.004978E+0	9.605749E-1	1.017986E+0	1.019948E+0	9.665890E-1	9.686546E-1	1.018718E+0	1.000528E+0	1.020192E+0	9.934314E-1	1.041140E+0	8.682972E-1	1.039567E+0	1.022566E+0	1.008602E+0	1.013826E+0	1.002861E+0	9.774901E-1	1.002188E+0	9.752716E-1	1.007768E+0	9.960386E-1	9.635976E-1	1.009391E+0	1.022705E+0	9.544729E-1	9.948200E-1	1.006826E+0	9.932918E-1	9.840913E-1	9.904339E-1	1.005115E+0	9.731794E-1	9.873045E-1	1.040799E+0	1.020640E+0	9.910263E-1	1.010196E+0	9.634015E-1	9.807334E-1	1.041154E+0	9.891451E-1	1.063250E+0	1.006269E+0	1.048570E+0	1.025705E+0	1.002039E+0	9.725726E-1	1.014589E+0	9.308130E-1	1.014790E+0	9.923142E-1	9.985162E-1	9.405294E-1	9.807114E-1	1.013999E+0	1.011795E+0	1.039559E+0	1.058429E+0	1.004356E+0	9.977407E-1	9.750373E-1	1.016811E+0	1.017521E+0	1.025501E+0	1.023946E+0	9.757408E-1	9.887103E-1	9.733913E-1	1.030987E+0	1.021641E+0	1.005359E+0	9.985943E-1	9.365075E-1	1.026277E+0	9.934822E-1	9.967552E-1	9.931523E-1	1.003758E+0	1.022673E+0	1.012303E+0	9.213515E-1	1.049093E+0	9.995753E-1	9.742239E-1	1.016595E+0	9.809363E-1	1.036463E+0	9.788170E-1	1.003003E+0	9.833597E-1	1.042107E+0	1.025635E+0	1.002913E+0	1.005381E+0	1.003324E+0	9.795103E-1	1.056989E+0	9.739779E-1	9.934594E-1	9.831411E-1	1.020002E+0	9.795089E-1	9.886081E-1	9.340460E-1	1.052225E+0	9.420370E-1	9.878153E-1	1.008903E+0	1.028851E+0	1.002814E+0	1.032970E+0	9.918988E-1	9.837771E-1	9.523425E-1	1.040095E+0	9.803925E-1	9.771932E-1	9.802569E-1	9.896366E-1	9.594757E-1	1.044742E+0	1.040141E+0	1.021367E+0	9.964244E-1	9.848224E-1	1.029620E+0	1.022306E+0	9.364904E-1	9.631670E-1	9.777316E-1	9.686654E-1	8.918504E-1	1.012086E+0	1.001965E+0	9.788000E-1	9.393151E-1	1.011370E+0	9.887021E-1	1.017292E+0	9.955821E-1	1.029109E+0	1.023713E+0	9.811303E-1	9.227057E-1	9.644901E-1	1.011940E+0	1.022387E+0	8.998700E-1	1.051244E+0	1.018566E+0	1.050263E+0	8.909908E-1	1.023386E+0	1.077739E+0
5.570050E+2	9.806493E-1	9.241037E-1	9.941265E-1	9.087379E-1	1.002527E+0	8.528052E-1	9.679290E-1	9.415593E-1	9.826095E-1	9.207160E-1	9.299758E-1	8.974438E-1	9.762883E-1	9.687645E-1	9.593865E-1	9.448191E-1	9.961567E-1	9.537771E-1	9.342773E-1	9.595185E-1	9.538727E-1	9.515126E-1	9.966280E-1	9.702049E-1	9.502959E-1	9.625587E-1	9.523448E-1	8.503833E-1	9.572063E-1	9.377924E-1	9.528520E-1	1.017999E+0	9.664972E-1	9.465305E-1	9.719438E-1	9.185734E-1	9.576367E-1	9.810344E-1	1.012497E+0	9.693142E-1	9.539417E-1	9.747072E-1	1.029991E+0	9.858231E-1	9.500823E-1	9.464942E-1	9.636526E-1	9.562936E-1	9.138576E-1	9.737020E-1	9.638932E-1	1.002772E+0	9.458804E-1	9.952752E-1	9.887252E-1	9.844266E-1	9.584737E-1	9.388915E-1	9.776280E-1	9.675896E-1	9.328463E-1	1.006620E+0	9.458138E-1	9.487993E-1	9.561037E-1	9.629309E-1	9.302746E-1	9.566813E-1	9.282967E-1	9.546160E-1	9.636742E-1	9.695380E-1	9.735069E-1	9.314124E-1	9.844604E-1	1.040183E+0	1.004692E+0	9.700072E-1	9.642745E-1	9.468106E-1	9.620973E-1	1.002689E+0	9.272225E-1	9.535571E-1	9.874923E-1	9.187933E-1	9.657523E-1	9.560785E-1	9.260720E-1	9.238230E-1	9.673928E-1	9.625381E-1	9.724193E-1	9.571477E-1	9.648125E-1	9.477010E-1	9.546113E-1	8.758948E-1	9.596379E-1	9.988676E-1	9.816413E-1	1.007681E+0	9.809364E-1	9.653308E-1	1.024311E+0	9.618776E-1	9.544196E-1	9.563597E-1	9.472215E-1	9.652022E-1	9.166708E-1	9.423983E-1	9.870486E-1	9.284528E-1	9.673397E-1	9.295087E-1	9.883484E-1	9.550101E-1	9.671875E-1	9.660966E-1	9.174297E-1	9.675943E-1	9.770036E-1	9.327133E-1	9.619153E-1	9.556368E-1	9.630470E-1	9.916755E-1	9.699862E-1	1.005899E+0	9.688230E-1	9.609318E-1	9.471089E-1	9.501672E-1	9.270022E-1	9.970391E-1	9.465658E-1	1.025386E+0	9.491147E-1	1.010445E+0	9.803973E-1	9.866363E-1	9.492490E-1	9.477458E-1	1.017498E+0	9.579975E-1	9.391339E-1	1.014018E+0	9.505134E-1	9.842440E-1	1.000697E+0	9.695288E-1	9.967986E-1	9.400410E-1	9.677795E-1	9.640859E-1	9.937160E-1	9.615670E-1	9.377773E-1	9.715028E-1	9.420618E-1	9.346170E-1	9.712940E-1	9.352474E-1	9.702929E-1	9.612541E-1	9.517275E-1	9.495751E-1	9.347366E-1	9.215442E-1	9.650170E-1
5.575080E+2	9.960783E-1	9.102207E-1	9.828305E-1	9.540646E-1	9.471681E-1	9.497236E-1	9.334123E-1	9.634905E-1	9.851858E-1	9.742953E-1	9.757736E-1	9.878962E-1	1.003714E+0	9.704382E-1	9.604364E-1	9.981427E-1	9.690624E-1	9.562490E-1	9.591643E-1	9.569195E-1	9.498272E-1	9.398798E-1	9.960468E-1	9.814109E-1	9.748891E-1	9.270876E-1	9.580940E-1	9.810905E-1	9.675734E-1	9.774342E-1	9.539141E-1	9.727036E-1	9.545745E-1	9.452402E-1	9.828832E-1	9.732222E-1	9.730613E-1	9.348244E-1	9.557496E-1	9.370136E-1	9.597799E-1	9.355034E-1	9.865068E-1	9.884488E-1	1.015464E+0	9.615336E-1	1.027602E+0	1.028363E+0	9.851697E-1	9.801794E-1	1.019291E+0	9.731987E-1	9.876834E-1	9.486474E-1	9.724459E-1	1.014589E+0	9.671772E-1	9.563129E-1	9.451737E-1	9.442495E-1	9.949837E-1	9.541368E-1	9.810314E-1	9.656153E-1	9.811692E-1	1.001071E+0	9.936610E-1	9.475981E-1	9.905227E-1	9.840146E-1	9.490705E-1	9.857605E-1	9.660961E-1	9.484885E-1	9.390853E-1	1.009975E+0	9.844176E-1	1.025340E+0	9.626163E-1	9.799760E-1	9.878768E-1	9.295370E-1	9.618779E-1	9.893864E-1	1.002820E+0	9.581946E-1	9.625029E-1	9.924230E-1	9.852737E-1	9.365074E-1	9.298533E-1	9.710963E-1	9.661795E-1	9.394983E-1	9.641294E-1	9.428640E-1	9.553066E-1	8.564135E-1	1.014027E+0	9.429483E-1	9.525890E-1	9.514472E-1	9.714992E-1	9.903235E-1	9.930337E-1	9.729746E-1	9.583658E-1	1.000976E+0	1.009952E+0	1.007485E+0	9.338217E-1	9.860919E-1	9.466164E-1	9.494379E-1	9.607018E-1	1.022528E+0	9.505943E-1	9.903459E-1	9.808051E-1	1.004980E+0	9.704742E-1	9.755509E-1	1.009952E+0	9.653092E-1	9.563504E-1	9.897624E-1	1.000367E+0	9.438269E-1	9.646744E-1	9.958438E-1	9.667632E-1	9.565342E-1	9.779724E-1	9.771933E-1	9.646699E-1	1.002591E+0	1.017572E+0	9.434960E-1	9.722444E-1	9.510529E-1	9.335475E-1	9.703096E-1	9.855461E-1	9.980736E-1	9.766701E-1	9.599359E-1	9.562059E-1	9.727885E-1	1.017309E+0	9.703235E-1	9.778713E-1	9.633483E-1	9.876544E-1	1.005720E+0	1.017993E+0	9.661864E-1	9.949601E-1	1.009981E+0	1.003037E+0	9.618754E-1	9.736764E-1	9.658487E-1	9.522413E-1	9.876731E-1	1.014084E+0	9.643787E-1	9.435581E-1	1.007227E+0	1.012769E+0	9.460623E-1	1.077739E+0
5.580000E+2	1.055866E+0	1.001454E+0	1.048346E+0	1.065690E+0	1.015765E+0	9.537621E-1	1.034084E+0	1.029930E+0	1.004509E+0	1.002102E+0	1.038829E+0	1.070540E+0	1.004287E+0	9.910754E-1	1.013958E+0	9.873582E-1	1.019470E+0	1.022370E+0	1.029863E+0	1.001105E+0	1.031908E+0	1.015795E+0	9.733758E-1	9.728420E-1	1.040902E+0	1.025618E+0	1.046250E+0	1.046776E+0	1.022291E+0	1.033544E+0	1.023468E+0	1.003099E+0	9.921315E-1	1.008449E+0	1.003475E+0	1.027188E+0	1.047983E+0	1.014644E+0	1.040869E+0	1.076387E+0	1.027895E+0	1.018970E+0	1.039583E+0	9.871358E-1	9.893101E-1	1.058134E+0	9.909806E-1	1.014995E+0	1.033763E+0	9.931339E-1	9.984361E-1	9.984597E-1	1.009419E+0	1.038172E+0	1.061077E+0	1.031209E+0	1.036179E+0	1.007907E+0	9.990333E-1	1.050282E+0	9.972633E-1	1.034055E+0	1.014396E+0	9.928667E-1	1.001735E+0	1.028504E+0	1.049034E+0	1.023057E+0	1.025919E+0	1.015863E+0	9.971402E-1	1.031422E+0	1.004385E+0	9.534689E-1	9.707852E-1	1.022620E+0	1.035974E+0	9.857267E-1	1.035061E+0	9.981229E-1	1.047797E+0	9.720521E-1	1.040012E+0	1.041440E+0	1.004046E+0	9.935888E-1	1.008643E+0	1.050328E+0	1.028195E+0	1.011205E+0	1.025541E+0	1.019818E+0	1.030450E+0	1.012919E+0	1.030405E+0	9.948613E-1	9.643422E-1	9.617583E-1	9.968515E-1	1.014440E+0	1.021201E+0	9.761352E-1	1.057065E+0	9.980133E-1	1.018624E+0	1.033031E+0	1.016246E+0	1.000279E+0	1.043128E+0	9.943433E-1	1.082855E+0	1.012554E+0	1.051464E+0	1.042562E+0	1.039033E+0	9.978193E-1	1.048885E+0	9.575342E-1	1.074833E+0	9.879259E-1	1.014571E+0	1.029802E+0	1.027435E+0	1.034380E+0	1.075674E+0	9.866605E-1	9.930253E-1	1.034281E+0	1.015804E+0	1.034726E+0	1.047108E+0	1.041560E+0	1.016097E+0	1.020038E+0	1.039357E+0	1.013695E+0	1.026896E+0	1.028364E+0	9.752294E-1	1.007032E+0	1.045124E+0	1.025336E+0	1.065270E+0	1.044052E+0	1.031755E+0	1.045879E+0	1.002969E+0	1.034633E+0	1.025441E+0	1.009555E+0	1.007672E+0	1.022684E+0	1.016396E+0	1.052332E+0	1.043797E+0	1.052996E+0	1.041003E+0	9.824871E-1	1.015960E+0	1.064567E+0	1.027872E+0	1.030349E+0	1.003048E+0	1.024512E+0	1.037756E+0	1.008124E+0	9.962863E-1	9.812427E-1	1.071885E+0	9.460621E-1	9.416962E-1
5.585160E+2	9.812922E-1	9.855877E-1	1.025754E+0	1.043365E+0	1.027800E+0	9.779913E-1	1.030490E+0	1.034445E+0	1.060545E+0	9.559832E-1	1.040156E+0	1.071841E+0	1.019141E+0	1.018964E+0	1.049113E+0	1.026302E+0	9.986770E-1	1.026695E+0	1.058145E+0	1.001105E+0	1.015722E+0	1.039672E+0	1.000698E+0	1.044692E+0	1.020839E+0	9.408821E-1	1.016226E+0	1.117770E+0	1.046480E+0	1.023175E+0	9.953276E-1	9.774713E-1	1.069033E+0	1.029734E+0	1.020849E+0	1.031970E+0	1.040270E+0	1.013443E+0	1.028795E+0	1.053056E+0	1.044113E+0	1.012646E+0	1.015284E+0	1.010764E+0	1.049577E+0	9.759949E-1	1.032523E+0	1.026619E+0	9.996844E-1	1.004145E+0	9.951771E-1	1.018176E+0	1.025025E+0	9.635683E-1	1.015858E+0	1.004124E+0	9.796101E-1	1.008577E+0	1.003176E+0	1.019606E+0	1.029187E+0	9.988658E-1	1.040965E+0	1.053171E+0	1.042225E+0	1.021813E+0	1.027905E+0	1.008384E+0	1.057887E+0	1.007900E+0	1.030606E+0	1.024814E+0	1.045761E+0	9.499116E-1	1.076455E+0	1.033860E+0	1.008168E+0	1.003333E+0	1.012943E+0	1.046306E+0	9.892701E-1	1.001438E+0	1.012287E+0	1.005611E+0	1.027345E+0	1.024976E+0	1.056733E+0	1.042320E+0	1.008214E+0	1.078150E+0	1.029958E+0	1.031668E+0	1.049795E+0	1.036216E+0	1.017423E+0	1.008766E+0	1.026205E+0	9.942276E-1	9.660782E-1	1.027889E+0	1.013784E+0	1.026196E+0	9.985528E-1	1.071709E+0	9.994313E-1	1.046087E+0	1.069521E+0	1.029559E+0	9.870316E-1	1.023484E+0	1.039684E+0	1.037785E+0	1.011033E+0	1.000590E+0	1.021110E+0	1.013081E+0	1.054092E+0	1.036409E+0	1.007392E+0	1.047955E+0	1.008819E+0	1.012442E+0	1.013986E+0	9.645327E-1	1.036107E+0	1.031954E+0	1.044418E+0	1.026415E+0	1.019788E+0	1.013944E+0	1.032001E+0	1.009309E+0	1.051196E+0	9.851030E-1	1.062737E+0	9.686628E-1	1.054152E+0	9.993303E-1	1.048348E+0	1.040482E+0	1.042041E+0	1.005986E+0	9.848975E-1	9.999377E-1	1.011017E+0	1.012278E+0	1.014103E+0	1.001649E+0	1.065517E+0	9.861428E-1	9.708963E-1	1.043697E+0	1.036646E+0	9.944209E-1	1.006835E+0	9.969893E-1	1.004293E+0	9.926482E-1	1.017252E+0	1.037611E+0	9.981933E-1	9.753537E-1	1.060841E+0	1.014594E+0	1.027103E+0	1.036246E+0	1.056442E+0	1.012911E+0	1.026957E+0	1.004525E+0	9.028272E-1
5.590100E+2	1.007007E+0	9.769936E-1	1.021236E+0	9.946554E-1	1.024791E+0	9.221286E-1	1.003883E+0	9.944528E-1	9.826093E-1	9.369935E-1	9.764370E-1	9.800872E-1	9.614322E-1	1.006135E+0	9.934939E-1	9.789699E-1	9.873356E-1	1.030403E+0	9.993202E-1	9.822610E-1	1.035376E+0	1.009061E+0	9.786070E-1	1.013051E+0	9.943046E-1	1.024961E+0	9.651206E-1	1.023554E+0	9.773643E-1	9.749946E-1	9.958581E-1	1.047202E+0	9.724584E-1	9.568505E-1	1.005405E+0	1.024455E+0	1.014378E+0	9.468274E-1	9.756715E-1	9.322279E-1	9.747004E-1	9.266507E-1	9.775547E-1	9.845100E-1	9.790773E-1	9.933487E-1	9.510818E-1	9.429261E-1	1.014830E+0	9.141104E-1	9.665009E-1	9.861369E-1	1.009976E+0	1.003979E+0	9.748571E-1	9.567267E-1	1.000124E+0	9.616730E-1	9.796992E-1	1.017606E+0	1.029758E+0	9.612934E-1	1.006364E+0	9.743127E-1	1.015875E+0	9.843428E-1	1.003862E+0	1.020960E+0	9.454232E-1	9.723777E-1	1.044601E+0	1.014601E+0	9.932686E-1	9.762363E-1	9.751364E-1	9.031954E-1	1.009905E+0	9.637191E-1	9.570851E-1	9.787239E-1	9.488584E-1	9.764287E-1	1.014178E+0	9.880345E-1	9.966894E-1	1.022973E+0	9.319594E-1	9.899591E-1	9.971138E-1	9.858356E-1	9.902107E-1	1.031010E+0	1.002371E+0	1.041158E+0	9.791609E-1	1.023882E+0	1.018559E+0	9.444412E-1	9.567753E-1	1.066112E+0	1.029238E+0	9.727061E-1	1.007361E+0	9.499508E-1	9.525158E-1	9.644891E-1	9.951988E-1	9.723935E-1	9.846190E-1	9.572024E-1	1.036726E+0	1.007015E+0	9.767694E-1	1.028134E+0	9.839350E-1	9.803787E-1	9.844429E-1	9.834048E-1	9.872899E-1	1.026809E+0	9.813385E-1	1.005208E+0	9.843993E-1	9.637568E-1	1.018795E+0	9.947262E-1	9.807891E-1	9.851211E-1	9.859230E-1	9.810952E-1	9.990387E-1	9.352775E-1	1.002179E+0	1.024652E+0	1.001689E+0	9.711302E-1	1.001793E+0	9.665741E-1	1.013281E+0	9.558314E-1	1.009986E+0	9.805895E-1	9.764717E-1	9.862686E-1	9.850947E-1	1.025848E+0	9.695672E-1	1.019515E+0	9.667763E-1	9.817131E-1	1.020353E+0	1.033809E+0	1.027501E+0	9.527536E-1	9.817279E-1	9.619859E-1	1.011137E+0	1.030902E+0	1.012728E+0	1.037611E+0	1.048519E+0	9.590593E-1	9.725643E-1	9.678365E-1	1.012901E+0	9.656290E-1	1.012625E+0	9.633787E-1	1.028139E+0	1.013956E+0	1.034982E+0
5.595110E+2	9.947926E-1	9.756711E-1	9.820772E-1	1.021716E+0	9.928996E-1	1.006259E+0	1.019703E+0	1.027350E+0	9.974235E-1	1.000068E+0	9.731187E-1	9.865947E-1	1.000857E+0	1.016175E+0	1.038094E+0	9.478152E-1	9.923756E-1	1.011247E+0	9.902713E-1	1.024497E+0	9.816184E-1	9.894699E-1	1.057668E+0	9.880031E-1	1.018898E+0	9.500780E-1	1.007282E+0	1.045449E+0	9.911876E-1	1.035983E+0	1.001699E+0	9.792603E-1	1.000477E+0	1.022639E+0	9.970401E-1	1.042216E+0	9.934439E-1	1.024245E+0	1.041473E+0	1.004007E+0	9.857286E-1	9.898833E-1	1.001855E+0	9.877915E-1	9.745299E-1	1.030946E+0	1.027601E+0	1.033594E+0	1.012306E+0	1.017100E+0	1.021247E+0	9.824406E-1	1.041746E+0	9.716506E-1	1.001386E+0	9.751931E-1	1.006341E+0	1.020638E+0	1.055655E+0	9.835948E-1	1.020636E+0	1.002445E+0	1.016250E+0	1.044476E+0	1.008162E+0	9.930416E-1	9.659753E-1	1.011179E+0	1.029915E+0	9.785025E-1	1.023913E+0	9.725429E-1	1.067375E+0	9.968696E-1	9.962704E-1	1.016298E+0	9.722519E-1	1.016537E+0	1.046674E+0	1.024405E+0	1.082634E+0	9.876831E-1	1.061436E+0	1.006287E+0	1.012630E+0	9.221326E-1	1.003445E+0	9.991993E-1	1.060016E+0	1.036574E+0	1.017445E+0	1.016526E+0	1.034195E+0	9.889165E-1	1.015373E+0	1.046858E+0	1.009523E+0	1.122662E+0	9.911262E-1	1.017979E+0	1.040365E+0	1.011110E+0	1.012395E+0	9.871192E-1	1.059853E+0	1.002350E+0	1.018877E+0	1.026072E+0	1.042524E+0	9.812012E-1	1.007747E+0	9.811687E-1	1.023368E+0	1.010427E+0	1.041689E+0	1.004360E+0	9.981123E-1	1.020634E+0	9.788598E-1	1.020669E+0	1.020962E+0	9.820608E-1	9.971756E-1	9.979048E-1	9.742806E-1	1.068561E+0	1.038911E+0	1.013306E+0	9.772904E-1	1.005899E+0	9.962915E-1	1.045225E+0	1.028807E+0	1.037836E+0	1.013378E+0	1.009994E+0	1.011835E+0	1.032086E+0	9.700063E-1	1.038434E+0	9.884108E-1	1.031988E+0	9.920277E-1	9.912393E-1	1.020090E+0	1.021325E+0	1.054186E+0	9.693532E-1	1.049835E+0	1.097509E+0	1.022890E+0	9.843628E-1	1.033380E+0	1.043857E+0	1.002650E+0	1.036894E+0	1.026692E+0	1.010579E+0	9.830061E-1	1.017715E+0	1.024646E+0	1.043249E+0	1.041789E+0	1.016011E+0	9.898213E-1	1.028122E+0	1.013368E+0	1.044579E+0	1.042327E+0	1.087508E+0	1.027209E+0
5.600520E+2	9.800066E-1	1.112521E+0	1.013706E+0	1.009539E+0	9.796615E-1	1.157021E+0	9.945348E-1	1.017674E+0	1.020611E+0	1.078742E+0	9.976769E-1	1.006117E+0	1.016284E+0	1.006693E+0	1.012909E+0	1.034091E+0	9.999369E-1	1.008775E+0	1.018552E+0	9.952565E-1	1.026127E+0	1.041508E+0	9.931399E-1	1.006460E+0	1.000129E+0	1.072912E+0	1.000255E+0	9.863979E-1	9.825488E-1	9.975607E-1	1.036209E+0	9.774712E-1	1.014188E+0	1.043923E+0	1.003475E+0	9.445321E-1	9.653498E-1	1.023046E+0	9.919708E-1	1.029130E+0	1.043464E+0	1.049954E+0	9.852282E-1	1.031111E+0	1.026835E+0	1.015328E+0	1.017218E+0	1.000464E+0	1.002209E+0	1.026816E+0	9.997390E-1	9.972276E-1	9.748634E-1	9.927883E-1	1.025505E+0	1.015204E+0	9.696636E-1	9.884755E-1	9.900568E-1	1.003601E+0	9.841521E-1	1.031669E+0	9.890639E-1	9.772135E-1	1.026158E+0	9.870190E-1	9.900183E-1	1.028647E+0	1.003655E+0	1.002388E+0	9.867959E-1	1.031423E+0	1.001297E+0	9.762361E-1	1.003108E+0	1.059853E+0	9.936866E-1	9.951580E-1	9.996674E-1	9.862332E-1	1.015746E+0	1.021445E+0	1.014808E+0	1.050229E+0	9.936232E-1	1.019634E+0	1.026839E+0	1.029384E+0	9.882337E-1	9.886548E-1	9.916827E-1	1.005991E+0	1.006116E+0	9.952701E-1	1.020839E+0	1.049276E+0	9.879751E-1	1.072876E+0	1.011164E+0	9.882499E-1	1.021202E+0	1.007681E+0	1.028124E+0	9.666130E-1	9.994314E-1	1.004961E+0	9.991452E-1	9.835475E-1	1.000302E+0	1.023484E+0	1.014253E+0	9.891690E-1	9.980130E-1	1.028134E+0	1.058284E+0	1.026888E+0	1.031310E+0	1.047135E+0	1.018416E+0	1.022034E+0	1.049082E+0	9.538504E-1	1.021383E+0	1.032828E+0	9.965376E-1	9.841783E-1	9.765066E-1	1.005440E+0	1.053653E+0	9.790842E-1	1.010713E+0	9.741257E-1	1.020333E+0	1.000264E+0	9.770093E-1	9.951882E-1	1.002510E+0	9.755076E-1	1.037903E+0	1.002935E+0	9.921097E-1	1.002358E+0	9.823050E-1	1.008015E+0	1.025274E+0	1.005816E+0	1.011877E+0	1.027761E+0	1.034151E+0	9.538720E-1	1.030499E+0	9.744736E-1	1.015090E+0	1.006427E+0	1.004743E+0	9.955896E-1	9.607392E-1	1.001614E+0	1.070236E+0	9.605920E-1	1.080778E+0	1.055471E+0	1.018291E+0	1.050017E+0	1.012309E+0	9.718779E-1	1.037133E+0	1.033211E+0	1.021045E+0	9.686935E-1	1.042755E+0
5.605150E+2	1.018579E+0	1.111199E+0	9.542147E-1	9.905963E-1	1.010952E+0	1.108562E+0	1.013951E+0	9.938076E-1	1.003221E+0	1.060430E+0	1.016925E+0	1.028893E+0	1.009427E+0	9.977691E-1	9.961152E-1	1.023905E+0	9.980469E-1	1.023606E+0	9.930984E-1	1.042691E+0	1.063120E+0	1.055590E+0	1.028020E+0	1.029531E+0	1.000777E+0	1.070285E+0	1.009199E+0	1.040805E+0	1.013074E+0	1.046351E+0	1.030902E+0	9.697237E-1	1.005842E+0	1.040054E+0	1.057528E+0	1.037434E+0	1.000606E+0	1.034449E+0	1.002838E+0	1.033916E+0	1.033732E+0	1.075879E+0	9.922624E-1	9.969810E-1	1.017739E+0	1.030947E+0	9.805966E-1	1.023713E+0	1.068472E+0	1.075397E+0	1.019292E+0	1.061305E+0	1.003288E+0	1.031334E+0	1.037563E+0	9.985835E-1	1.054207E+0	1.082952E+0	1.008010E+0	1.018272E+0	9.607798E-1	9.696433E-1	1.001421E+0	1.052013E+0	1.008162E+0	1.049247E+0	1.059234E+0	1.042620E+0	1.016212E+0	1.090584E+0	1.003834E+0	1.019407E+0	1.004385E+0	1.124937E+0	1.014296E+0	1.004355E+0	1.016857E+0	1.045461E+0	9.908191E-1	1.026908E+0	9.551292E-1	9.808057E-1	9.902331E-1	9.887104E-1	1.022440E+0	1.026312E+0	1.001495E+0	9.548468E-1	1.027454E+0	1.040801E+0	1.003459E+0	9.901902E-1	9.512040E-1	9.832687E-1	9.880431E-1	9.724899E-1	1.034545E+0	1.104624E+0	1.009733E+0	9.677224E-1	9.828772E-1	9.857361E-1	9.979238E-1	1.016598E+0	9.994313E-1	9.873360E-1	1.003091E+0	1.036530E+0	9.816030E-1	1.018342E+0	9.959194E-1	1.017478E+0	1.004865E+0	9.769812E-1	9.812803E-1	1.005814E+0	9.727259E-1	9.953940E-1	1.017768E+0	9.742824E-1	1.036301E+0	1.038482E+0	1.026763E+0	9.746223E-1	1.008285E+0	9.655644E-1	1.037687E+0	9.910203E-1	1.034396E+0	1.012603E+0	1.034748E+0	1.009309E+0	1.000363E+0	1.010810E+0	1.014678E+0	1.019247E+0	1.002510E+0	1.030597E+0	9.797057E-1	1.007031E+0	1.043274E+0	1.005986E+0	1.045177E+0	1.032248E+0	9.987037E-1	1.026494E+0	1.035629E+0	1.021577E+0	9.981417E-1	1.030436E+0	9.962590E-1	1.057296E+0	9.595651E-1	1.047388E+0	9.928864E-1	9.976895E-1	9.918497E-1	9.890615E-1	9.687917E-1	9.676518E-1	1.023356E+0	1.025597E+0	1.004954E+0	9.883814E-1	1.040714E+0	1.041246E+0	9.903451E-1	9.926108E-1	9.997630E-1	1.051675E+0	9.455839E-1
5.609950E+2	9.870781E-1	1.027238E+0	9.760529E-1	9.797720E-1	1.005536E+0	1.113273E+0	9.506705E-1	9.809068E-1	9.529805E-1	1.079420E+0	1.017589E+0	9.761831E-1	9.882876E-1	1.021753E+0	9.850981E-1	1.007729E+0	1.033962E+0	1.006303E+0	9.993224E-1	1.016699E+0	9.758377E-1	9.888574E-1	9.570986E-1	9.932766E-1	9.787723E-1	1.032186E+0	1.004088E+0	1.039478E+0	1.002707E+0	9.505994E-1	1.001168E+0	1.041243E+0	1.021938E+0	1.029089E+0	9.552130E-1	1.025138E+0	9.995040E-1	1.031448E+0	9.865377E-1	9.555563E-1	9.539416E-1	1.061334E+0	9.769155E-1	1.020609E+0	1.004093E+0	1.003181E+0	1.018311E+0	9.679179E-1	9.965289E-1	1.028111E+0	9.756252E-1	9.596435E-1	1.011091E+0	1.044389E+0	9.591810E-1	1.039211E+0	9.870697E-1	1.045429E+0	9.783182E-1	9.889299E-1	1.001824E+0	1.015567E+0	1.002657E+0	1.018960E+0	9.458206E-1	1.041217E+0	9.652459E-1	9.685591E-1	1.003653E+0	1.053224E+0	1.019654E+0	9.364933E-1	9.321306E-1	1.102881E+0	9.819740E-1	9.053032E-1	9.763069E-1	1.019681E+0	1.014048E+0	9.949938E-1	9.850898E-1	1.103975E+0	1.002205E+0	9.880346E-1	9.795213E-1	1.082409E+0	1.020990E+0	9.801027E-1	9.808335E-1	1.061942E+0	1.018180E+0	9.776807E-1	9.905155E-1	1.052453E+0	1.016057E+0	9.906278E-1	1.036630E+0	1.145751E+0	1.045515E+0	9.762167E-1	9.828775E-1	1.044712E+0	9.652072E-1	1.017879E+0	9.745515E-1	1.023892E+0	1.001776E+0	9.521765E-1	9.779840E-1	1.026342E+0	9.669408E-1	1.023016E+0	1.021312E+0	9.782931E-1	9.726504E-1	1.026162E+0	9.883483E-1	9.941315E-1	9.879390E-1	9.606397E-1	1.066977E+0	9.827846E-1	9.998659E-1	1.146137E+0	9.631519E-1	9.941056E-1	9.624349E-1	9.759446E-1	9.865869E-1	9.871284E-1	9.921715E-1	1.027633E+0	9.755515E-1	1.016743E+0	1.019224E+0	1.032818E+0	9.766898E-1	9.539180E-1	1.014027E+0	9.653889E-1	9.686851E-1	1.005986E+0	9.894350E-1	9.701141E-1	9.974079E-1	9.812605E-1	1.038598E+0	9.700404E-1	1.000465E+0	9.741200E-1	9.708971E-1	9.720012E-1	9.876540E-1	9.456904E-1	9.928863E-1	1.010291E+0	9.800274E-1	9.920508E-1	9.674994E-1	9.997434E-1	9.581916E-1	1.045965E+0	9.630379E-1	9.933405E-1	9.951478E-1	9.718778E-1	9.799484E-1	9.650033E-1	9.713883E-1	1.036588E+0	9.844506E-1
