Photon Energy (eV)	#1	#2	#3	#4	#5	#6	#7	#8	#9	#10	#11	#12	#13	#14	#15	#16	#17	#18	#19	#20	#21	#22	#23	#24	#25	#26	#27	#28	#29	#30	#31	#32	#33	#34	#35	#36	#37	#38	#39	#40	#41	#42	#43	#44	#45	#46	#47	#48	#49	#50	#51	#52	#53	#54	#55	#56	#57	#58	#59	#60	#61	#62	#63	#64	#65	#66	#67	#68	#69	#70	#71	#72	#73	#74	#75	#76	#77	#78	#79	#80	#81	#82	#83	#84	#85	#86	#87	#88	#89	#90	#91	#92	#93	#94	#95	#96	#97	#98	#99	#100	#101	#102	#103	#104	#105	#106	#107	#108	#109	#110	#111	#112	#113	#114	#115	#116	#117	#118	#119	#120	#121	#122	#123	#124	#125	#126	#127	#128	#129	#130	#131	#132	#133	#134	#135	#136	#137	#138	#139	#140	#141	#142	#143	#144	#145	#146	#147	#148	#149	#150	#151	#152	#153	#154	#155	#156	#157	#158	#159	#160	#161	#162	#163	#164	#165	#166	#167	#168	#169	#170	#171	#172	
5.300220E+2	-8.134936E-3	1.657408E-4	-1.204619E-2	-1.336291E-3	-9.705701E-3	-4.844728E-3	-5.580605E-3	-7.268282E-3	-1.017365E-2	-5.218979E-3	-2.432955E-3	-5.631537E-3	-2.214689E-3	-7.880616E-3	-2.088545E-3	-9.276709E-3	-7.441727E-3	-7.097614E-3	-5.087296E-3	-4.032194E-4	-6.865944E-3	-1.108124E-2	-3.711599E-3	-9.508943E-3	-8.328614E-3	-9.888108E-3	-4.678675E-3	-4.918781E-3	-4.776837E-3	-1.234224E-2	-9.799138E-3	-8.084991E-3	-1.103714E-2	-9.064099E-3	-1.024728E-2	-6.304762E-3	-5.939474E-3	-7.777168E-3	-1.320296E-2	-4.606904E-3	5.237600E-3	-7.797786E-3	-3.385039E-3	-1.608714E-3	-7.425829E-3	-4.581474E-3	-1.547951E-2	-5.768050E-3	-8.438719E-3	-2.332835E-3	-6.924915E-3	-1.250688E-2	-7.010809E-3	-8.578884E-3	-4.110422E-3	-1.504588E-2	-9.638977E-3	-3.139042E-3	-1.072584E-2	-9.548240E-3	-6.125403E-3	-6.253940E-3	-5.341606E-3	-8.922659E-3	-1.457642E-2	-1.276383E-2	-6.457207E-3	-1.093357E-2	-1.392847E-2	-8.127285E-3	-1.108193E-3	-1.188711E-2	-4.760533E-3	-1.191107E-3	-1.575378E-3	-1.845176E-3	-6.557192E-3	-5.239874E-3	-1.113464E-2	-9.354227E-3	-1.077518E-2	-6.476306E-3	-7.856996E-3	-9.592806E-3	-6.405521E-3	-8.407058E-3	-1.145089E-2	-8.918612E-3	-6.694388E-3	-1.318165E-2	-1.160613E-2	-6.688846E-3	-1.566456E-2	-1.363491E-2	-1.013206E-2	-1.068013E-2	-2.379122E-3	-8.536414E-3	-9.023785E-3	-3.551077E-3	-2.798527E-3	-1.124084E-2	-4.463910E-3	-1.304831E-2	-6.152705E-3	-1.187979E-2	-1.853616E-3	-6.000524E-3	-6.206434E-3	-2.741380E-3	-8.186888E-3	-4.194636E-3	-7.720823E-3	-7.296051E-3	-8.256504E-3	-6.971436E-3	-4.319945E-3	-2.859037E-3	-1.343460E-2	4.467944E-3	-1.114921E-2	1.894163E-3	-1.349732E-2	1.078448E-3	-1.093935E-2	-5.648483E-3	-5.541422E-3	-1.427672E-2	-3.597287E-3	-9.981052E-3	-1.329344E-2	-9.610013E-3	-1.142000E-2	-1.553551E-2	-8.977561E-3	-1.246763E-2	-7.133199E-3	-7.885963E-3	-1.842323E-2	-3.990555E-3	-1.145655E-2	-9.290196E-3	-8.256499E-3	-3.894708E-3	-1.070840E-2	-1.106051E-2	-3.775430E-3	-8.182240E-3	-9.040072E-3	-2.249731E-3	-1.357282E-2	-6.871966E-3	-1.091713E-2	-9.633186E-3	-5.596295E-3	-6.864071E-3	-3.376673E-3	-7.880207E-3	-2.199254E-3	-1.453995E-2	-4.422556E-4	-1.541854E-2	-8.704901E-3	-7.820802E-3	-1.027422E-2	-9.017647E-3	-1.252817E-2	-1.036013E-2	-8.236948E-3	-1.625215E-2	5.497036E-4	-1.035795E-2
5.305230E+2	-7.279777E-3	-9.839249E-3	-6.108875E-3	-7.790812E-3	-8.401191E-3	-9.513175E-3	-1.043475E-2	-3.757428E-3	-4.580059E-3	-5.080953E-3	3.195514E-3	-6.885759E-3	-1.475438E-2	-6.664834E-3	-6.048964E-3	-3.732051E-3	-8.519267E-3	-5.833506E-3	-1.670394E-3	-1.229131E-2	-9.497520E-3	-4.878842E-3	-6.135008E-3	-1.053246E-2	-6.249257E-3	-2.633427E-3	-7.157505E-3	-8.883250E-4	-2.761662E-3	-5.797925E-3	-4.707530E-3	-7.482491E-3	-9.233181E-3	-1.132915E-3	-9.377289E-3	-1.089093E-2	-9.124389E-3	5.693740E-4	-7.776121E-3	4.985325E-4	-1.577212E-2	-3.815377E-3	-1.248930E-2	-9.455503E-3	-1.672816E-2	-1.092223E-3	-6.600324E-3	-7.924790E-3	-1.165762E-2	-3.492543E-3	-7.382918E-3	2.421933E-3	-3.690395E-3	-2.963238E-3	-8.284051E-3	-9.929199E-3	-6.415788E-3	-2.011600E-2	-4.273453E-3	6.634718E-4	2.026147E-3	7.556850E-4	-2.195765E-3	-9.368158E-3	-7.845783E-3	-2.920494E-3	-5.596240E-3	2.709453E-3	-5.571015E-3	-1.617783E-2	-7.716145E-3	-2.975532E-3	-7.032880E-3	-3.696117E-3	-1.229145E-2	-4.281988E-4	-1.064880E-2	-5.720448E-3	-1.846606E-3	-5.596792E-3	-9.117254E-3	-9.209008E-3	-1.399847E-3	-7.304126E-3	-1.311332E-2	-1.139815E-2	-6.845481E-3	-4.910066E-3	-9.270804E-3	-1.801148E-3	-1.494645E-3	-3.697468E-3	-1.668615E-2	-6.664919E-3	-4.281520E-3	-9.331965E-3	2.956897E-3	-9.653019E-3	-6.746808E-3	-2.675854E-3	-1.029100E-2	-6.630707E-3	-4.160012E-4	-4.173869E-3	3.141702E-3	-9.948974E-3	-9.595182E-3	-7.933826E-3	-3.088831E-3	-5.520943E-3	-4.349927E-3	-2.940305E-3	-6.889320E-3	-1.425099E-3	-9.444442E-3	-6.108770E-3	-8.911688E-3	-8.212416E-3	-8.587311E-3	-9.544072E-3	1.744662E-4	-1.464699E-2	-5.269932E-3	-5.342379E-3	-7.583416E-3	-6.685863E-3	-4.267095E-3	-9.353736E-3	-5.417220E-3	-5.263921E-3	-1.179031E-2	-3.823110E-3	-6.943801E-3	-4.260982E-3	-1.068192E-2	-7.256802E-3	-6.931533E-3	-7.708675E-3	-1.524283E-2	-1.567004E-2	-6.639621E-3	-1.216121E-3	-5.258448E-3	8.846320E-4	-3.780397E-3	-2.086907E-3	-6.367543E-3	-1.558907E-2	-7.325257E-3	-9.276682E-3	9.018687E-4	-2.279539E-3	-1.401504E-2	-1.322460E-3	-1.264701E-2	-1.089506E-2	-1.218997E-2	-4.914727E-3	-6.463551E-3	-1.270820E-2	-1.327948E-2	-7.773521E-3	-4.751257E-3	-1.718429E-3	-5.649905E-3	-2.671862E-3	-1.223790E-2	-3.722689E-3	-1.027268E-2	-8.147794E-3	-2.150696E-2	-1.994224E-2
5.310050E+2	-3.186752E-3	-1.135176E-2	-9.968312E-3	-3.304722E-3	-2.064517E-3	-6.567601E-3	-1.161512E-2	-7.153594E-3	-4.632787E-3	-5.131195E-3	-1.305324E-2	1.393878E-3	-2.867097E-3	-8.342857E-3	-5.614056E-3	-1.567521E-2	5.058661E-4	-9.806494E-3	-2.416802E-3	-6.709105E-3	-1.326260E-3	-4.932964E-3	-4.921975E-3	6.862825E-3	-5.058338E-3	-8.034103E-3	-2.092636E-3	-8.194587E-3	-1.163694E-2	-2.423130E-3	-5.333317E-3	-3.215699E-3	-7.795125E-3	-5.937374E-3	-1.013496E-2	1.869826E-3	-1.079136E-2	-1.032370E-2	-3.950545E-3	-6.567981E-3	-1.343079E-2	-5.563605E-3	-9.258873E-3	-6.225438E-3	-5.688688E-3	-8.615507E-3	8.360875E-4	-9.087924E-3	1.135115E-3	-1.121450E-2	-6.817632E-3	-5.035219E-3	-1.296485E-2	-6.896391E-3	-9.565202E-3	-5.720178E-3	1.521660E-3	-4.341954E-3	-9.528064E-4	-3.960416E-3	-7.195933E-3	-2.744005E-3	-7.667273E-3	-8.851400E-3	-7.897157E-3	3.571034E-5	-1.675261E-2	-1.274660E-2	-5.075437E-3	-3.084847E-3	-3.492151E-3	-4.895698E-3	6.432606E-4	-4.413289E-3	-4.614479E-3	-1.188476E-2	-6.493757E-3	-5.145297E-3	-2.030733E-4	-4.457416E-3	-3.575283E-3	-1.970145E-3	-4.606881E-3	-6.665530E-3	-2.988452E-3	-8.312303E-3	-1.192287E-2	-9.428996E-3	-1.296238E-3	-1.158437E-2	-1.063241E-2	-1.001760E-2	-7.791904E-3	-2.699626E-3	-5.622901E-4	5.350785E-3	-7.399677E-3	-3.780945E-4	-8.154271E-3	-4.889994E-3	-5.131591E-3	-1.284904E-2	-1.795050E-3	-9.508439E-3	-4.763783E-3	-8.241342E-3	-1.180731E-2	-5.119058E-3	-4.323434E-3	-1.178516E-2	-8.688778E-3	-4.711546E-3	-5.473317E-4	-1.481221E-2	-7.402169E-3	-6.830280E-3	-7.797705E-3	-4.475810E-3	-2.727269E-3	-1.150534E-2	-5.160125E-3	-5.765098E-3	-9.268326E-3	-7.597425E-3	-6.364908E-3	-9.078716E-3	-7.835135E-3	1.796746E-3	-8.172680E-3	-1.116143E-2	-6.757720E-3	-1.210243E-2	-4.815722E-3	-3.147670E-3	-5.054638E-3	-1.041483E-2	-1.015171E-2	-6.412459E-3	-6.735545E-3	-1.154183E-2	7.383571E-3	-6.161987E-3	-1.285665E-2	-1.892875E-2	-9.213192E-3	-2.771545E-3	-1.389850E-2	-1.734091E-3	-1.446810E-2	-3.888845E-3	-1.079695E-2	-5.467692E-3	-4.322774E-3	-1.011018E-2	-2.568833E-3	-5.284863E-3	-2.014808E-3	-1.010409E-2	-7.762789E-3	-9.935843E-3	-1.129188E-2	-2.485147E-3	-7.827294E-3	-5.726385E-3	-1.725721E-3	-7.931086E-3	-5.238425E-3	-4.419048E-3	-7.971454E-3	-9.132612E-3	1.612750E-3	-1.676445E-3
5.315080E+2	-3.920385E-3	-2.782294E-3	-6.106152E-3	-3.997276E-3	-3.155358E-3	-2.974451E-3	2.568736E-4	-1.181578E-2	2.726603E-3	5.689830E-4	-5.613465E-4	-5.275251E-3	-1.073710E-2	3.446037E-3	6.446454E-4	6.150576E-4	-1.393695E-2	-7.013821E-3	-1.236209E-2	-4.603673E-3	-5.711501E-3	3.513103E-3	-3.070548E-3	6.131693E-4	-2.624843E-3	-8.712289E-4	-1.984861E-3	-4.291204E-3	3.548159E-3	-1.262996E-3	1.041161E-3	-8.067821E-3	1.129771E-3	-4.221252E-3	5.906863E-3	-5.591661E-3	-5.940435E-3	-6.622468E-3	-7.273143E-3	-4.031801E-3	-4.474970E-3	-9.252238E-4	2.604098E-3	-4.345998E-3	8.463197E-4	-1.671771E-3	3.284656E-3	-3.472715E-3	1.178667E-3	8.850930E-4	1.509937E-5	-5.703829E-3	-6.955263E-3	-1.190254E-2	1.534228E-3	4.130663E-3	-2.744629E-3	4.905242E-3	-5.847579E-3	-3.064479E-4	-1.305739E-2	7.612673E-4	-5.290568E-3	-4.855728E-3	-2.041603E-4	-6.604195E-3	-2.211280E-3	-1.404451E-3	-4.469369E-3	-4.995163E-3	-1.054753E-3	1.990996E-3	-5.930815E-3	-3.166520E-3	1.165642E-3	-1.279388E-2	-1.647269E-3	-3.296080E-3	-1.853756E-3	-3.897121E-3	-1.218118E-2	-4.982220E-3	-5.870590E-3	-4.581713E-3	-8.078241E-3	1.816985E-3	-6.293081E-3	-3.062614E-3	-2.591171E-3	-6.831460E-3	-7.987651E-4	3.199498E-3	5.545293E-4	2.740010E-3	-7.542223E-3	-5.261884E-3	-6.090221E-3	-1.076739E-3	-6.224680E-3	-2.804510E-3	7.798021E-4	8.157854E-3	-3.763626E-3	-3.657397E-3	-2.805854E-3	7.122649E-3	4.009990E-3	7.868556E-3	-1.035993E-2	-6.110702E-3	-1.320557E-3	-4.142631E-3	-4.442762E-3	-1.687582E-4	-4.170803E-4	-1.233902E-2	-3.668232E-3	1.049903E-3	-6.737663E-3	-3.867139E-3	-5.153950E-3	-5.812946E-3	-4.130914E-3	6.311385E-3	7.791944E-4	-6.787704E-3	5.204854E-3	-2.267735E-3	1.234299E-3	-7.285695E-4	3.502731E-3	6.412459E-3	-6.393643E-3	-4.254150E-3	-1.021612E-2	-2.346197E-3	-3.228644E-3	-3.720168E-3	5.479563E-3	-6.784027E-3	-6.804795E-4	-4.293366E-3	-3.493573E-3	-8.501560E-3	-5.911337E-3	-1.419410E-2	-3.017864E-4	3.531117E-3	3.755877E-3	-4.358304E-3	-7.649492E-3	-9.644100E-4	-4.297624E-3	2.224096E-3	1.026027E-3	3.266763E-3	-5.936419E-3	-1.129943E-2	4.773539E-3	9.024979E-3	-1.784443E-3	-3.185492E-3	1.198994E-3	9.259514E-4	-3.370457E-3	1.625582E-3	6.847054E-3	-2.431481E-3	1.963988E-3	4.747447E-3	-6.656251E-3	1.442192E-2
5.320070E+2	2.660685E-3	-2.440150E-3	7.101228E-3	1.551749E-3	6.236151E-3	6.808427E-3	9.089808E-3	1.443679E-3	-4.417416E-3	-4.557996E-4	4.105933E-3	2.768382E-3	3.372641E-3	-4.259222E-3	3.085423E-4	-4.692827E-4	2.582630E-5	6.166961E-3	-4.871034E-4	5.204038E-3	6.229398E-4	-1.468206E-3	-7.818766E-5	-1.866671E-3	-2.298605E-3	4.777354E-3	6.963504E-3	-1.778198E-3	3.777800E-3	4.220652E-3	-2.145678E-3	6.965633E-3	1.500287E-3	-9.395445E-4	-1.708687E-3	4.266019E-3	3.515999E-3	8.756202E-4	1.789144E-2	-1.049363E-3	-1.082206E-2	-4.112351E-3	2.765185E-3	8.075946E-3	1.028183E-3	-1.241658E-2	-3.559419E-3	1.788444E-3	-1.966207E-3	-2.680113E-3	-9.921969E-4	7.891984E-4	-1.294575E-3	3.884884E-5	-2.573892E-3	-1.197463E-3	-2.522542E-3	-2.878244E-3	3.418559E-3	6.993679E-5	9.723184E-3	-4.236360E-3	9.469801E-3	-4.062042E-3	6.162698E-5	5.181510E-3	2.246680E-3	-1.116616E-3	1.196252E-4	8.365084E-3	-9.400748E-3	-2.784173E-3	6.890710E-3	1.095035E-3	1.346945E-4	2.641973E-3	2.193851E-3	-4.291084E-3	6.136974E-5	-1.842430E-3	-5.294626E-4	7.093892E-3	2.589967E-3	2.779385E-3	1.818465E-3	-2.401870E-3	-2.858244E-3	-6.004232E-3	1.008950E-3	-2.242420E-4	3.738403E-3	1.254881E-2	7.201269E-3	2.576906E-4	-9.714784E-3	2.688715E-3	-2.029861E-3	-6.829766E-3	2.321043E-3	-3.212145E-3	-1.381896E-3	-3.606434E-3	-5.473595E-3	-3.343715E-3	3.355569E-3	2.097934E-4	-7.281707E-3	-1.066337E-2	4.822623E-3	9.237621E-4	1.979125E-3	-2.180384E-3	1.621953E-3	3.872313E-3	5.555728E-4	5.417273E-3	1.786131E-3	-9.724458E-4	2.797990E-3	2.775523E-3	1.579159E-3	4.721001E-3	6.776193E-3	-7.747697E-4	4.170525E-3	8.813103E-3	1.215871E-3	-5.626320E-3	-2.558745E-3	4.700332E-3	4.929759E-4	2.525220E-3	5.268372E-3	-2.299468E-3	6.575844E-3	-3.351987E-3	7.250473E-3	-1.408564E-3	1.285521E-2	1.174373E-2	5.511003E-5	-2.238132E-3	1.900692E-4	8.774526E-3	1.790559E-3	1.862240E-3	-2.795847E-3	-2.640653E-3	5.527116E-4	-4.661081E-3	1.342253E-2	-7.076386E-3	1.486684E-2	1.233269E-2	3.481080E-3	-2.174606E-3	1.423439E-4	-3.579563E-3	-4.434906E-3	4.017843E-3	-3.583673E-3	-2.375817E-4	-5.345085E-3	-6.695018E-3	-1.504926E-3	-8.644384E-4	-5.762423E-3	-1.123144E-2	-6.242390E-3	5.433890E-4	-1.724536E-3	7.666438E-3
5.325070E+2	7.215971E-4	-1.568539E-3	1.470948E-2	-5.563304E-4	4.088803E-3	4.010320E-3	-9.461568E-5	1.250921E-2	3.026278E-3	-2.205431E-3	-3.020045E-4	-7.770688E-3	2.328931E-3	9.816968E-3	3.686446E-3	1.538605E-2	1.191472E-2	3.469520E-3	3.686038E-3	-3.212841E-3	4.077536E-3	1.303249E-3	-9.772957E-4	1.129621E-2	1.257494E-2	4.357410E-3	6.463262E-6	1.013806E-3	2.677198E-3	6.707749E-3	-4.610329E-3	7.702576E-3	6.982950E-3	1.117632E-2	2.904661E-3	-4.336732E-3	6.976159E-3	4.731617E-3	-3.110590E-3	3.267309E-3	1.046929E-2	2.436306E-3	3.583306E-3	4.399497E-3	7.113954E-3	9.175685E-3	8.536375E-3	7.653010E-3	1.601055E-3	6.476829E-3	6.811823E-3	3.612739E-4	8.732405E-3	5.255405E-3	9.169380E-3	1.463224E-2	3.889400E-3	1.145394E-2	-2.580589E-3	-3.504263E-3	2.948414E-3	2.876609E-3	7.724046E-3	2.020273E-2	9.947892E-3	5.078977E-4	3.734490E-3	1.070273E-3	1.021658E-2	1.010880E-2	-1.889394E-3	6.757421E-3	-7.260000E-4	5.228902E-3	5.472230E-3	2.803478E-3	-1.271101E-3	6.638697E-3	2.503453E-3	9.699108E-3	1.445052E-2	2.133123E-3	2.339274E-4	4.398829E-3	8.567101E-4	7.264520E-3	1.890085E-2	3.149626E-3	-8.331148E-4	2.231770E-2	1.456594E-2	-1.969648E-3	9.967503E-3	5.841041E-3	4.840904E-3	7.032376E-3	3.441365E-4	1.011286E-2	8.668946E-3	6.309227E-3	4.630227E-3	9.577285E-3	5.225858E-3	1.543497E-2	2.212216E-3	1.216187E-2	8.274920E-4	1.119676E-2	-2.763461E-3	3.947598E-3	2.957261E-4	-8.713155E-4	-1.525798E-4	7.255802E-3	9.199226E-3	1.297569E-2	8.414120E-3	3.547188E-3	1.291453E-2	4.237223E-3	3.530574E-3	1.261922E-2	-1.019742E-3	-5.052619E-3	2.433060E-3	5.451846E-3	7.890286E-3	1.475180E-2	4.391440E-3	4.234169E-3	4.506031E-3	2.674150E-3	6.553715E-3	6.686567E-3	9.935461E-3	1.121427E-2	-2.526982E-4	1.585374E-2	3.721759E-3	7.033493E-3	8.532447E-3	5.323460E-3	1.208214E-2	5.435639E-3	1.549893E-2	8.337065E-3	7.632036E-3	5.811632E-3	2.937935E-3	6.972498E-3	7.116337E-3	8.355961E-3	-5.873154E-3	-1.547878E-3	2.929674E-3	-7.010108E-3	1.061647E-2	1.732030E-2	7.261678E-4	-9.138624E-4	1.645275E-2	3.298798E-3	7.667800E-3	4.087283E-3	6.074085E-3	1.444363E-3	1.005695E-2	1.954506E-2	8.684139E-3	1.020504E-2	5.648152E-3	-1.366576E-3
5.330180E+2	1.913957E-2	2.781625E-2	1.241882E-2	1.543368E-2	1.300181E-2	1.308121E-2	1.837842E-2	1.604219E-2	1.805103E-2	1.752337E-2	9.048100E-3	2.140097E-2	2.487170E-2	1.388452E-2	9.111931E-3	1.315214E-2	1.745153E-2	2.011495E-2	1.833765E-2	2.201610E-2	1.870075E-2	1.754490E-2	1.889461E-2	3.135877E-3	1.198472E-2	1.229210E-2	8.943709E-3	1.905729E-2	9.172279E-3	1.089789E-2	2.555483E-2	1.218279E-2	1.845244E-2	1.011886E-2	2.265669E-2	2.098824E-2	2.130350E-2	1.854673E-2	1.742192E-2	1.249021E-2	2.879305E-2	1.977804E-2	1.618062E-2	9.160210E-3	2.085422E-2	1.920187E-2	1.298213E-2	1.681203E-2	1.814771E-2	1.235807E-2	1.529074E-2	1.967352E-2	2.318349E-2	2.504680E-2	1.382996E-2	1.312982E-2	1.591088E-2	1.411606E-2	2.096171E-2	1.658596E-2	1.168098E-2	8.840744E-3	3.301366E-3	1.585726E-2	2.051400E-2	1.656340E-2	2.503617E-2	2.242150E-2	1.870809E-2	1.391124E-2	2.466138E-2	1.379410E-2	1.091626E-2	6.143096E-3	1.170874E-2	2.150656E-2	2.442427E-2	1.705409E-2	1.247326E-2	1.544888E-2	2.172783E-2	1.341066E-2	1.691042E-2	2.096596E-2	2.791036E-2	2.143788E-2	2.046972E-2	2.917489E-2	1.967677E-2	1.130517E-2	6.227608E-3	6.625251E-3	2.241931E-2	1.416072E-2	2.739197E-2	1.020211E-2	1.459785E-2	1.636118E-2	1.915955E-2	1.082435E-2	1.419299E-2	1.659188E-2	1.068633E-2	1.829676E-2	5.012854E-3	1.057579E-2	2.570033E-2	1.065145E-2	2.191946E-2	2.128683E-2	2.027130E-2	1.904082E-2	1.813086E-2	1.257401E-2	1.576540E-2	1.385654E-2	1.449732E-2	1.192262E-2	1.577432E-2	1.343586E-2	1.617909E-2	6.990651E-3	2.641004E-2	1.137736E-2	1.750489E-2	1.393582E-2	3.332642E-3	1.497597E-2	1.412019E-2	1.820047E-2	2.333973E-2	1.392372E-2	1.775108E-2	2.281121E-2	1.841894E-2	2.462318E-2	2.044731E-2	1.128209E-2	1.834507E-2	1.920923E-2	2.805521E-3	1.787634E-2	1.759296E-2	1.623023E-2	1.232384E-2	1.991375E-2	1.950707E-2	1.880330E-2	2.358690E-2	1.746215E-2	1.057853E-2	1.430403E-2	2.455888E-2	8.056920E-3	1.337536E-2	2.896194E-2	1.275905E-2	2.045771E-2	1.536079E-2	2.505503E-2	1.392898E-2	2.580149E-2	1.776174E-2	1.694740E-2	1.645114E-2	1.741509E-2	1.886292E-2	1.261972E-2	2.207534E-2	1.803668E-2	2.207714E-2	1.125486E-2
5.331520E+2	1.764007E-2	2.113785E-2	2.725568E-2	3.113855E-2	2.283780E-2	3.055955E-2	1.650487E-2	2.213197E-2	1.727953E-2	1.871702E-2	2.972163E-2	1.979719E-2	1.103175E-2	1.115034E-2	2.415698E-2	2.465801E-2	1.340896E-2	1.663555E-2	2.596651E-2	1.834443E-2	1.880146E-2	2.912617E-2	2.310460E-2	1.849662E-2	1.656875E-2	1.889042E-2	2.167818E-2	1.765194E-2	3.201518E-2	2.548258E-2	2.391833E-2	6.742804E-3	1.464160E-2	4.365125E-2	1.473782E-2	1.009785E-2	2.632249E-2	1.691382E-2	1.307671E-2	2.408854E-2	1.479607E-2	2.565357E-2	2.460482E-2	2.327732E-2	1.139221E-2	1.570130E-2	1.142184E-2	1.730864E-2	1.879522E-2	1.367998E-2	1.535179E-2	1.418344E-2	2.311759E-2	1.097494E-2	2.211750E-2	2.299751E-2	2.206649E-2	3.375528E-2	2.284449E-2	2.739480E-2	9.447800E-3	1.865600E-2	1.644912E-2	2.785934E-2	1.654007E-2	1.466054E-2	1.784587E-2	1.758865E-2	2.638318E-2	7.200705E-3	1.253539E-2	1.499183E-2	2.469782E-2	2.736992E-2	2.229854E-2	1.416803E-2	2.435549E-2	1.825785E-2	2.367197E-2	1.176744E-2	1.881380E-2	2.442921E-2	1.547092E-2	2.960917E-2	2.041930E-2	2.329599E-2	2.320952E-2	1.330621E-2	1.965023E-2	2.112628E-2	1.639174E-2	2.441519E-2	2.171172E-2	2.024247E-2	2.424508E-2	1.736266E-2	2.342540E-2	2.371351E-2	1.975454E-2	2.668769E-2	1.589891E-2	2.335727E-2	1.662839E-2	2.590385E-2	2.017218E-2	2.415986E-2	3.026813E-2	2.465620E-2	2.485829E-2	2.697129E-2	1.921686E-2	2.082778E-2	1.935540E-2	1.958816E-2	1.133822E-2	1.177155E-2	1.737324E-2	1.734113E-2	3.096634E-2	2.944784E-2	2.152012E-2	1.657285E-2	2.431788E-2	2.314124E-2	6.114681E-4	3.225670E-2	2.697175E-2	1.312262E-2	1.609920E-2	2.467969E-2	1.233051E-2	2.425585E-2	3.307981E-2	1.920246E-2	2.088851E-2	2.203167E-2	2.614138E-2	9.829062E-3	1.104070E-2	1.630572E-2	2.886642E-2	2.025862E-2	2.632594E-2	2.030073E-2	2.038413E-2	3.689891E-2	1.393365E-2	2.129423E-2	1.688786E-2	2.249496E-2	1.050436E-2	1.423484E-2	1.328954E-2	2.566828E-2	2.060500E-2	4.537700E-3	2.173490E-2	2.153957E-2	3.915123E-2	1.295808E-2	8.351001E-3	3.111338E-2	2.510264E-4	1.619722E-2	1.651500E-2	1.848592E-2	1.540202E-2	3.738162E-2	2.455995E-2	1.527852E-2	1.837766E-2	2.970296E-2
5.333180E+2	1.442720E-2	1.630458E-2	2.130522E-2	2.462654E-2	2.545602E-2	2.668150E-2	3.201498E-2	2.885582E-2	3.959191E-2	2.280559E-2	2.603421E-2	2.699721E-2	2.393215E-2	1.926285E-2	3.897817E-2	3.348280E-2	2.074143E-2	2.757176E-2	3.022426E-2	2.800688E-2	3.461334E-2	3.004348E-2	3.953378E-2	3.369199E-2	3.878615E-2	3.991261E-2	3.825864E-2	1.798702E-2	2.726874E-2	2.765313E-2	2.813241E-2	1.864026E-2	2.942466E-2	2.899031E-2	1.177650E-2	1.450030E-2	2.338487E-2	3.781080E-2	3.117729E-2	1.922685E-2	2.004692E-2	1.965705E-2	1.942454E-2	2.776321E-2	2.371184E-2	3.018146E-2	2.107298E-2	2.271301E-2	2.000555E-2	3.224734E-2	1.943333E-2	2.763685E-2	3.063615E-2	1.971346E-2	3.083207E-2	3.268216E-2	2.553458E-2	3.052894E-2	4.122503E-2	3.407053E-2	3.415814E-2	1.670901E-2	2.713227E-2	2.879578E-2	3.771795E-2	2.233696E-2	1.686627E-2	1.584095E-2	2.229613E-2	2.546303E-2	3.303058E-2	1.145546E-2	2.986922E-2	2.984893E-2	4.006736E-2	2.464519E-2	2.347120E-2	3.199289E-2	2.831210E-2	3.018789E-2	2.692387E-2	3.018946E-2	2.419861E-2	2.711826E-2	1.901720E-2	1.532718E-2	2.745603E-2	4.096143E-2	2.679196E-2	1.792970E-2	1.863688E-2	3.040500E-2	3.824272E-2	1.918993E-2	1.474277E-2	2.185562E-2	2.373582E-2	1.590317E-2	2.554313E-2	2.784714E-2	3.623112E-2	3.512269E-2	2.548721E-2	2.533614E-2	1.855910E-2	1.921785E-2	2.821344E-2	2.021322E-2	3.301197E-2	3.253902E-2	2.222053E-2	3.532678E-2	3.135281E-2	2.056135E-2	3.300190E-2	2.165130E-2	2.419789E-2	2.315945E-2	3.012348E-2	2.496544E-2	2.248461E-2	3.246115E-2	4.401738E-2	2.670772E-2	3.008978E-2	3.621700E-2	3.441157E-2	3.629604E-2	4.448712E-2	2.240422E-2	2.286236E-2	3.638661E-2	2.517706E-2	3.550544E-2	3.142919E-2	2.169902E-2	3.934219E-2	2.866352E-2	2.360476E-2	3.567433E-2	2.505233E-2	2.800973E-2	1.310294E-2	3.777208E-2	3.704448E-2	4.107874E-2	1.558854E-2	3.768458E-2	2.940648E-2	3.385220E-2	1.403496E-2	3.568447E-2	3.139266E-2	3.071752E-2	3.926986E-2	2.058063E-2	2.138190E-2	1.720744E-2	3.070664E-2	1.038220E-2	2.239959E-2	2.941488E-2	1.870158E-2	3.120842E-2	2.543895E-2	3.745206E-2	2.279336E-2	3.183246E-2	2.483757E-2	1.645018E-2	3.493005E-2	1.761808E-2
5.334580E+2	3.162137E-2	4.077393E-2	5.088101E-2	3.109597E-2	2.809236E-2	3.255911E-2	2.994437E-2	4.011350E-2	4.325018E-2	3.693245E-2	3.327036E-2	3.284401E-2	2.848430E-2	3.356767E-2	3.275035E-2	4.108432E-2	3.876688E-2	3.860151E-2	4.439531E-2	2.701487E-2	3.541424E-2	3.940198E-2	3.447383E-2	3.761137E-2	3.735426E-2	3.361589E-2	3.867541E-2	2.857341E-2	3.143381E-2	3.384896E-2	3.317837E-2	3.175584E-2	2.913379E-2	3.957085E-2	3.245473E-2	3.823561E-2	4.564655E-2	3.230127E-2	2.663991E-2	3.911896E-2	4.910734E-2	2.819284E-2	4.027436E-2	3.572005E-2	2.643911E-2	3.344740E-2	3.857456E-2	3.544496E-2	3.419242E-2	4.371956E-2	4.801819E-2	2.377828E-2	3.149726E-2	4.082924E-2	3.844577E-2	2.806324E-2	2.295853E-2	2.917189E-2	1.823164E-2	3.773720E-2	3.693576E-2	4.166826E-2	3.725124E-2	5.272503E-2	2.246787E-2	3.313256E-2	3.799953E-2	2.785166E-2	2.761948E-2	2.626461E-2	4.237791E-2	3.409468E-2	4.589970E-2	4.438941E-2	4.878893E-2	3.018589E-2	4.211504E-2	4.512498E-2	3.506453E-2	3.838526E-2	3.090533E-2	2.178456E-2	3.834412E-2	3.825273E-2	3.942096E-2	3.292570E-2	2.499640E-2	3.805642E-2	1.497437E-2	3.194770E-2	2.228091E-2	3.648788E-2	2.825304E-2	2.370816E-2	3.348516E-2	4.972313E-2	4.128774E-2	2.783090E-2	2.201442E-2	4.349183E-2	2.773784E-2	4.963104E-2	3.052536E-2	3.049040E-2	4.014462E-2	3.914449E-2	2.796705E-2	3.609112E-2	3.814572E-2	3.571932E-2	3.998850E-2	3.505688E-2	4.402534E-2	3.446312E-2	4.745237E-2	4.048870E-2	3.692885E-2	3.665718E-2	4.508614E-2	3.475739E-2	3.837182E-2	3.934817E-2	3.701438E-2	4.983785E-2	2.917767E-2	3.122326E-2	4.884440E-2	3.072490E-2	4.212606E-2	5.500242E-2	2.846479E-2	4.659969E-2	4.312418E-2	4.291890E-2	3.721977E-2	3.850496E-2	3.143955E-2	4.225091E-2	2.303142E-2	2.598912E-2	2.958093E-2	3.771571E-2	3.830667E-2	5.184765E-2	3.742482E-2	4.144080E-2	2.744235E-2	2.787598E-2	4.964928E-2	4.682612E-2	3.130994E-2	3.582436E-2	3.314907E-2	2.994903E-2	4.048760E-2	3.865240E-2	4.318079E-2	4.538617E-2	3.197726E-2	4.417004E-2	3.797709E-2	4.135249E-2	3.795528E-2	3.496013E-2	2.464904E-2	3.138964E-2	3.328894E-2	3.615055E-2	3.006497E-2	4.962011E-2	3.278398E-2	4.205361E-2
5.336030E+2	3.682120E-2	3.741513E-2	4.564423E-2	6.157886E-2	5.471674E-2	4.675266E-2	4.264452E-2	5.000150E-2	4.693192E-2	4.228584E-2	4.858602E-2	4.695535E-2	3.787602E-2	4.568218E-2	5.298999E-2	5.054205E-2	4.563187E-2	3.437746E-2	3.719388E-2	4.746149E-2	5.974576E-2	4.349019E-2	4.232303E-2	4.269450E-2	4.737703E-2	3.755178E-2	5.130908E-2	5.093956E-2	5.597623E-2	4.704746E-2	5.363149E-2	4.538215E-2	4.239534E-2	4.592070E-2	5.050103E-2	5.439188E-2	4.216682E-2	4.532297E-2	5.664167E-2	5.315256E-2	5.378059E-2	3.319468E-2	2.409878E-2	3.740958E-2	3.150701E-2	4.256344E-2	4.504417E-2	4.540135E-2	5.244762E-2	5.251744E-2	4.841606E-2	3.226244E-2	5.060778E-2	4.402160E-2	4.142595E-2	4.146888E-2	3.898793E-2	4.067488E-2	4.372805E-2	4.036912E-2	5.539696E-2	5.784161E-2	5.837386E-2	4.850775E-2	4.821638E-2	5.434902E-2	4.420269E-2	4.929085E-2	4.516218E-2	3.893277E-2	4.933152E-2	5.224509E-2	4.081805E-2	5.414490E-2	5.368546E-2	6.471485E-2	3.884033E-2	4.484754E-2	5.750453E-2	4.962292E-2	3.476142E-2	4.365251E-2	4.773147E-2	4.935296E-2	4.322948E-2	4.666490E-2	4.093313E-2	5.927159E-2	3.772879E-2	3.653529E-2	3.422355E-2	3.468431E-2	5.321551E-2	4.924954E-2	3.992224E-2	4.291485E-2	3.566410E-2	4.369244E-2	4.140799E-2	3.440934E-2	3.276492E-2	3.862799E-2	5.251861E-2	4.840964E-2	3.917093E-2	5.437126E-2	5.354455E-2	3.494133E-2	5.291772E-2	4.066647E-2	4.824856E-2	4.650754E-2	4.307659E-2	4.963028E-2	4.975801E-2	4.558323E-2	4.970408E-2	4.470332E-2	5.157612E-2	5.270371E-2	5.485295E-2	4.488155E-2	5.345473E-2	4.046061E-2	5.939989E-2	4.047726E-2	3.421634E-2	4.426665E-2	4.862337E-2	4.816068E-2	3.065687E-2	3.857794E-2	4.074026E-2	4.863218E-2	3.865148E-2	5.347561E-2	5.044900E-2	4.192443E-2	4.221793E-2	3.481239E-2	4.542758E-2	4.799836E-2	3.697399E-2	4.094680E-2	3.435737E-2	5.004195E-2	4.266057E-2	5.213880E-2	4.285889E-2	4.282547E-2	3.213525E-2	4.966041E-2	4.150795E-2	4.755071E-2	6.023830E-2	4.531953E-2	3.772482E-2	5.630910E-2	3.974333E-2	3.899457E-2	4.800227E-2	4.105604E-2	4.788349E-2	3.665566E-2	3.700522E-2	4.398011E-2	3.252008E-2	4.463701E-2	4.376449E-2	3.374735E-2	3.116083E-2	2.706535E-2
5.337740E+2	5.445784E-2	6.313058E-2	5.071746E-2	7.448693E-2	5.240122E-2	5.699960E-2	6.268790E-2	7.463798E-2	5.378784E-2	5.628650E-2	6.872019E-2	7.014295E-2	6.245098E-2	6.870677E-2	6.689002E-2	6.933543E-2	5.826724E-2	6.557277E-2	6.046113E-2	6.765466E-2	6.419346E-2	6.962989E-2	6.051001E-2	5.165395E-2	5.514879E-2	6.173261E-2	7.296598E-2	6.696536E-2	4.649423E-2	6.986097E-2	5.938674E-2	6.848425E-2	5.018946E-2	6.700910E-2	5.512305E-2	6.949851E-2	6.851747E-2	5.848116E-2	6.360075E-2	5.061807E-2	6.226930E-2	6.453980E-2	7.074799E-2	6.317811E-2	4.764818E-2	5.598977E-2	5.766902E-2	4.375887E-2	5.802967E-2	5.325811E-2	6.906761E-2	6.797554E-2	5.227555E-2	5.585327E-2	6.965799E-2	6.332200E-2	7.335910E-2	6.791585E-2	5.334394E-2	6.530953E-2	7.340203E-2	6.885901E-2	6.697585E-2	6.579845E-2	6.263538E-2	5.560545E-2	5.207393E-2	5.485452E-2	5.296270E-2	5.843383E-2	6.545508E-2	6.878347E-2	5.659561E-2	7.219698E-2	5.988088E-2	7.056633E-2	6.084629E-2	6.790646E-2	7.142423E-2	6.356958E-2	6.891848E-2	4.086337E-2	5.617764E-2	7.228724E-2	6.218077E-2	5.630250E-2	5.821707E-2	7.034077E-2	6.295569E-2	5.922995E-2	4.599029E-2	6.452784E-2	6.233413E-2	6.566711E-2	7.057302E-2	5.735354E-2	6.482471E-2	6.810862E-2	8.942198E-2	7.509209E-2	5.752432E-2	4.951321E-2	4.883718E-2	7.620334E-2	6.509519E-2	6.921018E-2	6.498084E-2	5.496954E-2	6.376608E-2	6.195916E-2	7.021324E-2	7.341084E-2	7.168012E-2	6.706462E-2	5.621533E-2	7.140145E-2	6.917491E-2	5.626273E-2	5.600633E-2	6.576471E-2	6.738566E-2	7.146443E-2	6.783400E-2	5.412766E-2	6.590709E-2	5.248779E-2	5.260997E-2	6.410687E-2	8.633010E-2	5.286522E-2	5.214660E-2	7.416083E-2	6.282801E-2	5.282626E-2	5.269819E-2	6.242916E-2	7.368441E-2	6.336362E-2	7.114197E-2	6.478389E-2	5.203250E-2	5.301869E-2	5.954601E-2	6.588550E-2	5.557709E-2	5.836665E-2	6.274869E-2	5.415958E-2	7.111563E-2	6.872864E-2	6.109928E-2	6.916724E-2	5.095429E-2	7.064148E-2	5.611387E-2	7.225426E-2	7.479046E-2	6.558473E-2	6.440022E-2	6.609217E-2	7.150184E-2	5.947551E-2	5.087443E-2	6.355047E-2	6.567422E-2	6.889806E-2	7.564659E-2	6.677846E-2	5.577085E-2	6.578461E-2	6.290913E-2	6.711592E-2
5.339090E+2	1.014713E-1	8.859697E-2	8.608010E-2	8.719914E-2	9.905299E-2	6.399557E-2	8.613176E-2	1.020600E-1	8.978898E-2	9.031221E-2	6.229172E-2	9.019948E-2	9.139664E-2	6.701791E-2	9.421040E-2	7.288788E-2	7.712779E-2	8.702133E-2	1.009889E-1	1.106588E-1	8.698305E-2	8.007974E-2	8.563124E-2	1.074950E-1	9.148652E-2	8.397536E-2	7.909006E-2	8.149190E-2	1.076610E-1	8.732951E-2	7.483643E-2	7.676751E-2	8.639226E-2	7.890998E-2	8.308527E-2	8.030228E-2	9.266117E-2	7.954296E-2	7.867017E-2	9.594435E-2	9.076572E-2	7.302381E-2	9.579956E-2	9.001662E-2	8.496836E-2	7.692972E-2	8.559581E-2	7.578898E-2	7.156021E-2	7.574532E-2	7.768434E-2	8.103880E-2	6.707793E-2	8.054120E-2	7.752960E-2	8.873843E-2	9.387384E-2	8.141239E-2	9.278351E-2	8.201266E-2	8.549713E-2	8.810605E-2	9.342083E-2	9.168496E-2	8.071325E-2	8.985503E-2	1.070446E-1	9.751526E-2	9.841438E-2	8.001462E-2	9.025622E-2	9.854614E-2	8.425323E-2	8.812356E-2	9.243715E-2	8.051028E-2	8.202922E-2	1.054899E-1	9.834848E-2	7.917371E-2	7.083794E-2	1.007425E-1	9.994063E-2	8.570864E-2	9.025613E-2	8.036553E-2	7.543910E-2	8.583859E-2	8.386433E-2	8.011038E-2	9.943428E-2	9.119556E-2	1.036533E-1	1.022957E-1	9.312981E-2	9.921083E-2	8.910562E-2	6.860432E-2	8.015156E-2	9.375704E-2	9.038779E-2	7.848466E-2	9.521582E-2	9.771748E-2	9.078865E-2	8.697045E-2	8.773506E-2	7.966483E-2	8.048506E-2	9.524866E-2	8.542690E-2	8.917261E-2	7.999407E-2	9.852601E-2	1.039720E-1	7.463894E-2	9.276115E-2	8.093026E-2	8.305794E-2	8.778806E-2	9.477270E-2	8.171437E-2	7.697102E-2	8.074811E-2	8.526940E-2	6.188040E-2	7.811356E-2	9.045908E-2	9.237109E-2	8.295804E-2	9.473958E-2	8.789659E-2	8.986866E-2	9.238747E-2	8.928945E-2	8.835219E-2	8.517239E-2	7.558326E-2	7.799284E-2	7.807806E-2	7.935056E-2	9.070385E-2	8.996208E-2	1.073211E-1	8.870890E-2	9.690745E-2	8.911547E-2	7.972701E-2	8.279331E-2	8.860377E-2	8.647197E-2	8.069942E-2	8.722982E-2	9.132534E-2	8.327867E-2	8.801477E-2	9.613683E-2	9.342394E-2	8.211987E-2	7.009815E-2	8.306366E-2	9.523037E-2	7.960427E-2	6.939664E-2	8.456004E-2	9.393906E-2	1.195372E-1	7.918052E-2	9.312635E-2	8.451073E-2	7.002399E-2	8.314019E-2
5.340640E+2	1.290958E-1	1.063135E-1	1.422271E-1	1.128808E-1	1.324106E-1	1.243277E-1	1.280838E-1	1.358546E-1	1.187469E-1	1.437414E-1	1.355881E-1	1.073890E-1	1.219593E-1	1.383615E-1	1.367530E-1	1.196859E-1	1.447987E-1	1.308490E-1	1.441227E-1	1.422909E-1	1.278945E-1	1.248440E-1	1.264021E-1	1.263522E-1	1.230206E-1	1.105693E-1	1.185864E-1	1.491257E-1	1.351180E-1	1.388002E-1	1.225457E-1	1.240085E-1	1.183807E-1	1.258858E-1	1.092694E-1	1.250569E-1	1.394437E-1	1.318513E-1	1.224113E-1	1.272069E-1	1.242211E-1	1.207066E-1	1.293555E-1	1.420130E-1	1.248239E-1	1.231650E-1	1.374073E-1	1.216086E-1	1.437737E-1	1.483894E-1	1.545290E-1	1.298276E-1	1.261626E-1	1.290229E-1	1.394485E-1	1.186885E-1	1.294286E-1	1.179758E-1	1.270483E-1	1.291104E-1	1.280610E-1	1.219346E-1	1.494052E-1	1.327094E-1	1.257511E-1	1.266886E-1	1.395329E-1	1.520200E-1	1.245684E-1	1.124881E-1	1.469950E-1	1.233727E-1	1.459746E-1	1.261984E-1	1.279620E-1	1.343082E-1	1.088844E-1	1.407036E-1	1.318123E-1	1.240008E-1	1.304539E-1	1.394407E-1	1.102146E-1	1.136228E-1	1.299638E-1	1.320885E-1	1.162165E-1	1.255949E-1	1.403678E-1	1.124633E-1	1.259747E-1	1.166923E-1	1.263728E-1	1.166283E-1	1.305485E-1	1.274536E-1	1.553355E-1	1.308590E-1	1.374688E-1	1.278575E-1	1.363711E-1	1.116408E-1	1.338441E-1	1.180481E-1	1.392331E-1	1.006908E-1	1.353039E-1	1.230467E-1	1.268309E-1	1.281242E-1	1.176597E-1	1.360876E-1	1.053605E-1	1.327462E-1	1.417499E-1	1.492949E-1	1.147087E-1	1.073976E-1	1.185647E-1	1.406392E-1	1.228913E-1	1.348935E-1	1.115551E-1	1.338836E-1	1.431421E-1	1.412740E-1	1.510782E-1	1.283751E-1	1.266767E-1	1.159403E-1	1.168155E-1	1.401516E-1	1.247836E-1	1.209026E-1	1.190494E-1	1.545704E-1	1.335948E-1	1.279845E-1	1.296547E-1	1.350050E-1	1.450459E-1	1.223989E-1	1.193861E-1	1.234045E-1	1.268747E-1	1.464844E-1	1.337793E-1	1.448574E-1	1.239909E-1	1.350770E-1	1.207111E-1	1.567048E-1	1.349444E-1	1.228166E-1	1.343523E-1	1.345071E-1	1.299741E-1	1.580228E-1	1.435748E-1	1.152050E-1	1.507192E-1	1.387020E-1	1.369295E-1	1.082725E-1	1.407925E-1	1.392522E-1	1.284783E-1	1.281407E-1	1.488880E-1	1.469304E-1	1.177832E-1	1.172178E-1
5.342040E+2	2.031226E-1	1.912031E-1	2.151218E-1	2.172244E-1	1.984286E-1	1.915342E-1	2.093998E-1	2.185398E-1	2.117991E-1	2.057442E-1	2.208689E-1	2.067477E-1	2.007187E-1	2.024959E-1	1.869802E-1	2.033944E-1	1.902205E-1	2.071113E-1	2.163663E-1	1.947785E-1	2.153774E-1	1.902778E-1	2.053402E-1	2.058101E-1	2.042793E-1	2.162200E-1	2.056702E-1	2.181151E-1	2.328018E-1	2.337677E-1	2.031365E-1	1.976257E-1	2.158843E-1	1.978876E-1	2.058766E-1	1.987023E-1	2.100024E-1	2.107920E-1	2.176254E-1	2.223375E-1	1.922773E-1	1.835144E-1	1.916588E-1	2.021930E-1	2.213034E-1	2.043374E-1	2.054607E-1	1.976083E-1	2.128834E-1	1.919154E-1	2.013107E-1	1.967975E-1	2.157858E-1	2.221872E-1	2.078597E-1	1.976929E-1	2.086649E-1	1.985419E-1	1.751833E-1	1.881001E-1	2.156780E-1	2.053183E-1	1.791104E-1	2.016722E-1	1.799341E-1	2.013746E-1	2.047660E-1	2.027900E-1	1.872670E-1	1.830653E-1	1.973446E-1	2.121853E-1	2.026407E-1	1.930770E-1	2.148218E-1	2.151175E-1	2.063613E-1	2.153259E-1	2.144871E-1	2.135186E-1	2.043525E-1	2.168306E-1	1.905881E-1	1.952358E-1	2.104856E-1	1.839487E-1	2.067329E-1	2.231364E-1	2.038879E-1	2.096926E-1	2.202426E-1	2.281538E-1	1.992733E-1	1.979157E-1	2.020173E-1	2.083806E-1	1.984240E-1	1.938988E-1	1.989513E-1	2.275138E-1	2.011110E-1	2.162704E-1	1.974431E-1	2.336339E-1	1.951897E-1	2.082986E-1	1.989435E-1	1.765030E-1	2.133824E-1	2.145886E-1	2.098114E-1	1.951264E-1	1.873729E-1	1.969144E-1	2.067661E-1	1.990197E-1	2.189121E-1	2.049346E-1	2.034492E-1	1.976715E-1	2.160938E-1	2.052756E-1	2.274298E-1	2.298718E-1	1.961065E-1	2.182851E-1	2.085904E-1	2.058702E-1	2.119339E-1	1.919547E-1	1.951885E-1	2.015525E-1	2.029099E-1	2.044660E-1	2.099887E-1	1.988116E-1	2.036037E-1	2.249070E-1	1.923329E-1	1.955311E-1	2.005092E-1	2.191849E-1	2.064807E-1	2.004405E-1	1.910261E-1	2.315691E-1	1.883599E-1	2.097224E-1	2.058793E-1	2.193692E-1	1.971802E-1	2.221349E-1	2.121842E-1	1.962427E-1	2.145256E-1	2.035700E-1	1.978300E-1	2.075059E-1	2.212489E-1	2.083194E-1	2.186885E-1	2.000203E-1	2.392730E-1	1.948708E-1	2.179138E-1	1.915524E-1	2.099780E-1	2.204499E-1	1.915466E-1	2.059208E-1	1.841822E-1	2.004662E-1
5.343600E+2	3.450522E-1	3.302062E-1	3.489807E-1	3.816704E-1	3.415990E-1	3.567224E-1	3.347203E-1	3.568637E-1	3.648378E-1	3.699529E-1	3.521806E-1	3.779816E-1	3.585698E-1	3.711800E-1	3.825713E-1	3.589219E-1	3.587585E-1	3.430949E-1	3.800884E-1	3.804304E-1	3.553408E-1	3.544037E-1	3.446440E-1	3.276775E-1	3.760001E-1	3.477403E-1	3.423687E-1	3.706083E-1	3.768625E-1	3.416891E-1	3.548855E-1	3.303522E-1	3.732634E-1	3.356940E-1	3.590140E-1	3.269400E-1	3.690116E-1	3.565293E-1	3.562063E-1	3.346829E-1	3.386389E-1	3.244063E-1	3.488933E-1	3.782783E-1	3.637733E-1	3.234193E-1	3.418667E-1	3.987635E-1	3.598970E-1	3.595795E-1	3.621228E-1	3.430396E-1	3.725758E-1	3.883982E-1	3.410000E-1	3.355507E-1	3.996378E-1	3.674944E-1	3.463949E-1	3.324159E-1	3.721554E-1	3.491482E-1	3.801463E-1	3.753785E-1	4.008389E-1	3.548216E-1	3.545919E-1	3.890873E-1	3.619694E-1	3.406753E-1	3.391060E-1	3.726218E-1	3.660061E-1	3.660427E-1	3.589108E-1	3.708099E-1	3.760159E-1	3.269045E-1	3.545017E-1	3.652772E-1	3.738413E-1	3.771753E-1	3.487789E-1	3.512976E-1	3.968425E-1	3.479928E-1	3.669334E-1	3.570678E-1	3.424803E-1	3.647487E-1	3.421745E-1	3.794130E-1	3.515553E-1	3.546252E-1	3.422482E-1	3.836595E-1	3.440544E-1	3.575569E-1	3.490163E-1	3.635286E-1	3.506713E-1	3.726261E-1	3.517746E-1	3.735122E-1	3.543361E-1	3.575108E-1	3.553769E-1	3.167794E-1	3.558026E-1	3.566466E-1	3.684563E-1	3.485961E-1	3.654094E-1	3.568195E-1	3.517753E-1	3.822511E-1	3.636743E-1	3.302307E-1	3.390434E-1	3.796510E-1	3.707074E-1	3.711705E-1	3.543880E-1	3.588869E-1	3.480513E-1	3.487482E-1	3.353413E-1	3.741818E-1	3.632443E-1	3.480307E-1	3.676740E-1	3.371312E-1	3.856107E-1	3.656831E-1	3.692373E-1	3.623143E-1	3.511961E-1	3.755802E-1	3.433058E-1	3.725500E-1	3.598214E-1	3.897463E-1	3.691133E-1	3.583134E-1	3.441229E-1	3.396754E-1	3.448250E-1	3.396201E-1	3.626533E-1	4.023641E-1	3.548774E-1	3.757960E-1	3.622592E-1	3.527698E-1	3.769816E-1	3.470304E-1	3.549892E-1	3.667951E-1	3.789494E-1	3.886116E-1	3.605071E-1	3.580182E-1	3.555292E-1	3.534942E-1	3.733980E-1	3.803255E-1	3.657246E-1	3.741067E-1	3.567336E-1	3.523353E-1	3.732759E-1	3.582702E-1
5.345050E+2	5.916933E-1	6.111457E-1	5.910771E-1	6.471218E-1	6.276206E-1	6.039140E-1	5.680958E-1	6.322270E-1	6.214010E-1	6.173499E-1	6.018520E-1	6.214035E-1	6.062967E-1	6.194127E-1	6.587053E-1	6.005299E-1	6.293717E-1	6.373828E-1	6.405218E-1	6.295941E-1	6.293103E-1	6.143946E-1	6.269201E-1	6.159186E-1	6.285023E-1	5.841586E-1	5.976499E-1	6.438700E-1	6.683884E-1	5.851931E-1	6.325220E-1	5.967448E-1	6.471928E-1	5.856968E-1	6.183121E-1	6.373149E-1	6.430625E-1	6.096819E-1	6.261575E-1	6.312436E-1	5.976721E-1	6.022034E-1	6.127045E-1	6.592188E-1	6.152571E-1	6.541411E-1	6.139128E-1	6.057434E-1	6.068369E-1	6.350509E-1	6.143878E-1	6.158243E-1	6.254780E-1	6.407297E-1	5.933575E-1	6.798042E-1	6.344443E-1	6.141837E-1	6.423513E-1	6.281824E-1	6.027933E-1	6.551128E-1	6.412502E-1	6.400921E-1	6.223564E-1	5.980689E-1	6.387328E-1	6.196897E-1	6.349633E-1	5.863247E-1	6.500023E-1	6.371066E-1	6.333846E-1	6.269228E-1	5.991018E-1	6.044601E-1	5.915643E-1	6.233710E-1	6.296967E-1	5.898016E-1	6.279010E-1	6.395367E-1	5.913977E-1	6.336248E-1	6.072009E-1	5.986737E-1	5.949035E-1	5.980332E-1	6.166839E-1	5.942573E-1	6.211637E-1	6.376783E-1	6.397945E-1	6.071108E-1	6.439386E-1	6.274717E-1	6.409324E-1	6.079950E-1	6.242927E-1	6.202650E-1	6.272899E-1	6.248884E-1	6.148721E-1	6.547256E-1	6.144620E-1	6.302336E-1	6.185174E-1	6.368823E-1	6.096211E-1	6.376587E-1	6.790949E-1	6.141944E-1	6.365088E-1	6.208171E-1	6.530050E-1	6.681491E-1	6.080674E-1	5.821284E-1	6.269701E-1	6.315518E-1	5.904150E-1	6.168822E-1	5.985888E-1	6.304155E-1	6.549028E-1	6.403698E-1	6.015232E-1	5.999847E-1	6.888786E-1	6.036647E-1	6.440154E-1	5.935621E-1	6.500187E-1	6.376996E-1	6.561448E-1	6.203595E-1	6.217863E-1	6.561851E-1	6.457701E-1	6.410792E-1	6.601741E-1	6.436541E-1	6.238537E-1	6.317553E-1	6.081566E-1	6.157321E-1	6.292570E-1	6.371458E-1	6.451546E-1	6.433515E-1	6.210088E-1	6.560364E-1	6.415029E-1	6.239442E-1	5.987292E-1	6.582042E-1	6.282866E-1	6.365125E-1	6.058811E-1	6.598086E-1	6.589103E-1	6.515858E-1	6.527770E-1	5.840944E-1	6.334383E-1	6.325273E-1	6.005663E-1	6.439108E-1	6.207263E-1	6.223392E-1	6.049634E-1	5.599268E-1
5.346560E+2	1.005038E+0	9.569638E-1	9.686306E-1	9.799677E-1	1.026474E+0	9.719059E-1	9.594146E-1	9.757026E-1	1.057117E+0	9.021867E-1	9.575608E-1	9.391184E-1	9.670021E-1	9.487099E-1	9.204993E-1	9.771423E-1	9.311236E-1	1.019264E+0	9.860031E-1	1.043907E+0	9.473776E-1	9.380001E-1	9.391901E-1	9.282235E-1	9.500322E-1	9.410271E-1	9.328020E-1	9.763535E-1	1.016762E+0	8.939394E-1	9.484028E-1	9.570417E-1	9.943769E-1	9.026070E-1	9.039234E-1	9.897859E-1	9.434985E-1	9.319303E-1	9.466261E-1	9.426000E-1	9.714159E-1	9.401091E-1	9.285041E-1	9.363013E-1	9.726679E-1	9.317229E-1	9.059468E-1	9.746373E-1	9.973801E-1	9.998817E-1	9.217619E-1	9.557011E-1	9.755092E-1	9.404010E-1	9.432419E-1	9.343837E-1	9.677078E-1	9.280582E-1	9.075689E-1	1.003321E+0	9.546333E-1	9.619983E-1	9.617773E-1	9.663979E-1	9.371031E-1	9.262006E-1	9.287001E-1	9.551561E-1	9.807815E-1	9.248867E-1	9.154607E-1	9.270218E-1	9.378787E-1	9.687472E-1	9.386382E-1	9.888652E-1	9.296899E-1	9.354124E-1	9.945075E-1	9.513897E-1	9.725489E-1	9.494713E-1	9.409468E-1	9.523460E-1	9.008138E-1	9.268396E-1	9.506614E-1	9.450002E-1	9.012102E-1	9.771098E-1	9.052674E-1	9.490127E-1	9.660059E-1	9.293313E-1	9.398885E-1	9.472880E-1	9.292881E-1	9.467817E-1	9.642539E-1	9.776715E-1	9.818834E-1	9.506068E-1	9.341868E-1	9.303021E-1	9.658255E-1	9.725547E-1	9.825591E-1	9.782615E-1	9.710602E-1	9.788587E-1	9.400438E-1	8.943222E-1	9.639927E-1	9.434680E-1	9.728628E-1	9.695982E-1	9.753849E-1	9.423946E-1	9.060624E-1	9.319033E-1	9.762166E-1	9.173875E-1	9.986906E-1	1.001374E+0	9.616165E-1	8.900245E-1	9.756510E-1	9.489204E-1	9.568458E-1	9.198042E-1	9.812172E-1	8.951812E-1	9.994003E-1	9.290170E-1	9.566567E-1	9.830989E-1	9.288052E-1	9.595913E-1	9.671528E-1	9.692509E-1	9.401260E-1	9.435843E-1	9.461726E-1	9.727190E-1	9.948170E-1	9.416983E-1	9.259323E-1	9.743562E-1	9.430512E-1	9.688464E-1	9.060158E-1	9.833031E-1	9.525011E-1	9.458970E-1	9.497092E-1	9.593194E-1	9.565950E-1	9.651874E-1	9.164514E-1	9.326076E-1	9.628005E-1	9.655695E-1	9.463250E-1	9.698215E-1	9.307343E-1	9.250047E-1	9.232263E-1	9.796938E-1	9.416911E-1	9.382237E-1	9.667500E-1	9.591854E-1
5.348020E+2	1.302529E+0	1.275884E+0	1.358772E+0	1.365928E+0	1.369528E+0	1.304086E+0	1.317210E+0	1.289928E+0	1.352038E+0	1.351902E+0	1.314678E+0	1.263232E+0	1.320727E+0	1.288539E+0	1.283009E+0	1.268975E+0	1.316266E+0	1.306336E+0	1.364164E+0	1.388847E+0	1.355524E+0	1.336488E+0	1.305613E+0	1.297308E+0	1.281539E+0	1.308188E+0	1.286896E+0	1.381261E+0	1.363809E+0	1.309672E+0	1.279477E+0	1.348040E+0	1.381741E+0	1.296440E+0	1.314475E+0	1.295183E+0	1.330260E+0	1.330928E+0	1.292094E+0	1.291181E+0	1.278638E+0	1.379007E+0	1.307834E+0	1.282793E+0	1.318440E+0	1.368896E+0	1.311269E+0	1.273116E+0	1.320432E+0	1.366782E+0	1.325824E+0	1.293016E+0	1.319973E+0	1.313832E+0	1.264424E+0	1.279409E+0	1.343419E+0	1.351321E+0	1.294752E+0	1.325122E+0	1.287886E+0	1.343387E+0	1.329809E+0	1.301611E+0	1.289385E+0	1.281313E+0	1.262833E+0	1.395315E+0	1.298082E+0	1.262054E+0	1.353176E+0	1.316130E+0	1.325962E+0	1.299711E+0	1.301847E+0	1.312869E+0	1.312339E+0	1.258938E+0	1.337530E+0	1.285283E+0	1.301674E+0	1.345098E+0	1.240290E+0	1.293852E+0	1.288991E+0	1.306083E+0	1.245490E+0	1.336684E+0	1.270580E+0	1.319170E+0	1.291190E+0	1.268411E+0	1.332353E+0	1.321390E+0	1.248077E+0	1.295976E+0	1.291638E+0	1.260975E+0	1.281135E+0	1.335639E+0	1.309250E+0	1.361388E+0	1.323514E+0	1.366668E+0	1.337906E+0	1.337815E+0	1.325048E+0	1.299963E+0	1.337515E+0	1.276520E+0	1.284706E+0	1.316533E+0	1.351644E+0	1.307961E+0	1.250995E+0	1.258798E+0	1.300474E+0	1.310508E+0	1.371919E+0	1.311335E+0	1.314491E+0	1.351086E+0	1.306396E+0	1.309803E+0	1.348983E+0	1.304801E+0	1.289951E+0	1.322956E+0	1.274889E+0	1.270361E+0	1.253357E+0	1.292788E+0	1.257814E+0	1.270676E+0	1.287990E+0	1.331443E+0	1.299937E+0	1.364208E+0	1.289669E+0	1.343075E+0	1.311814E+0	1.270791E+0	1.301112E+0	1.345366E+0	1.324619E+0	1.290375E+0	1.333588E+0	1.329523E+0	1.345414E+0	1.274201E+0	1.248241E+0	1.406649E+0	1.266345E+0	1.295780E+0	1.251634E+0	1.316500E+0	1.347215E+0	1.316235E+0	1.317787E+0	1.337723E+0	1.353483E+0	1.296426E+0	1.318958E+0	1.275313E+0	1.355404E+0	1.279047E+0	1.287088E+0	1.323197E+0	1.254119E+0	1.324283E+0	1.355205E+0	1.345162E+0
5.349580E+2	1.749483E+0	1.778999E+0	1.721633E+0	1.730181E+0	1.713831E+0	1.696621E+0	1.694701E+0	1.653279E+0	1.761512E+0	1.720929E+0	1.745765E+0	1.689463E+0	1.723490E+0	1.761719E+0	1.727530E+0	1.702968E+0	1.740642E+0	1.668531E+0	1.654445E+0	1.720309E+0	1.728671E+0	1.675671E+0	1.693468E+0	1.662634E+0	1.779379E+0	1.759983E+0	1.744147E+0	1.765926E+0	1.727776E+0	1.687828E+0	1.706511E+0	1.699431E+0	1.760642E+0	1.728666E+0	1.693651E+0	1.771078E+0	1.730496E+0	1.651846E+0	1.680371E+0	1.700227E+0	1.712881E+0	1.661470E+0	1.649558E+0	1.660878E+0	1.733237E+0	1.759305E+0	1.678208E+0	1.692696E+0	1.734103E+0	1.701022E+0	1.654439E+0	1.663065E+0	1.685422E+0	1.719608E+0	1.632913E+0	1.708920E+0	1.742780E+0	1.707143E+0	1.642012E+0	1.684290E+0	1.691342E+0	1.714345E+0	1.655028E+0	1.653025E+0	1.706529E+0	1.649570E+0	1.643931E+0	1.657863E+0	1.697507E+0	1.555874E+0	1.646848E+0	1.656570E+0	1.695176E+0	1.710926E+0	1.686035E+0	1.679951E+0	1.704330E+0	1.725985E+0	1.716432E+0	1.617708E+0	1.714994E+0	1.732377E+0	1.677304E+0	1.705460E+0	1.693365E+0	1.670475E+0	1.672116E+0	1.679841E+0	1.656042E+0	1.667236E+0	1.690837E+0	1.648527E+0	1.725102E+0	1.632774E+0	1.651091E+0	1.688289E+0	1.658849E+0	1.651424E+0	1.677501E+0	1.703559E+0	1.692290E+0	1.741232E+0	1.636733E+0	1.712056E+0	1.672948E+0	1.705957E+0	1.634079E+0	1.726376E+0	1.624466E+0	1.696393E+0	1.664960E+0	1.692939E+0	1.701558E+0	1.640253E+0	1.729441E+0	1.733661E+0	1.626372E+0	1.674366E+0	1.680567E+0	1.711270E+0	1.627037E+0	1.563319E+0	1.631791E+0	1.723194E+0	1.751979E+0	1.667705E+0	1.568607E+0	1.660910E+0	1.754991E+0	1.675972E+0	1.658263E+0	1.614775E+0	1.639406E+0	1.665046E+0	1.618354E+0	1.677110E+0	1.638642E+0	1.716528E+0	1.631935E+0	1.696324E+0	1.657910E+0	1.640526E+0	1.629432E+0	1.602562E+0	1.699268E+0	1.653609E+0	1.656031E+0	1.653455E+0	1.665796E+0	1.637196E+0	1.567867E+0	1.663419E+0	1.656145E+0	1.678158E+0	1.717242E+0	1.705440E+0	1.628111E+0	1.630989E+0	1.654930E+0	1.615632E+0	1.681076E+0	1.659394E+0	1.693760E+0	1.622547E+0	1.652246E+0	1.630477E+0	1.606546E+0	1.630957E+0	1.575928E+0	1.668841E+0	1.652206E+0	1.728093E+0
5.351090E+2	1.943289E+0	1.918014E+0	1.830348E+0	1.976882E+0	1.923424E+0	1.857188E+0	1.858049E+0	1.937677E+0	1.913620E+0	1.874026E+0	1.917942E+0	1.910424E+0	1.906834E+0	1.847196E+0	1.968417E+0	1.859002E+0	1.925405E+0	1.844805E+0	1.929468E+0	1.885920E+0	1.958615E+0	1.888290E+0	1.906746E+0	1.884995E+0	1.894344E+0	1.905391E+0	1.843092E+0	1.902237E+0	1.971681E+0	1.793322E+0	1.861944E+0	1.865204E+0	1.934910E+0	1.832169E+0	1.936726E+0	1.884681E+0	1.886810E+0	1.859167E+0	1.879467E+0	1.827035E+0	1.818423E+0	1.860697E+0	1.848303E+0	1.904051E+0	1.853292E+0	1.852883E+0	1.886636E+0	1.868281E+0	1.907610E+0	1.862450E+0	1.737672E+0	1.854076E+0	1.937046E+0	1.862752E+0	1.871998E+0	1.807103E+0	1.834092E+0	1.836100E+0	1.863399E+0	1.825702E+0	1.891297E+0	1.885692E+0	1.842661E+0	1.912707E+0	1.888225E+0	1.863816E+0	1.834415E+0	1.914754E+0	1.796969E+0	1.798329E+0	1.836604E+0	1.844081E+0	1.912381E+0	1.889395E+0	1.861737E+0	1.877117E+0	1.875397E+0	1.845657E+0	1.870278E+0	1.918494E+0	1.880488E+0	1.903630E+0	1.836657E+0	1.900052E+0	1.913457E+0	1.818142E+0	1.816946E+0	1.832271E+0	1.876125E+0	1.878691E+0	1.829872E+0	1.861174E+0	1.892411E+0	1.867400E+0	1.856477E+0	1.833733E+0	1.883142E+0	1.855431E+0	1.882925E+0	1.826313E+0	1.845333E+0	1.836538E+0	1.812480E+0	1.878819E+0	1.847348E+0	1.807270E+0	1.817734E+0	1.876632E+0	1.840904E+0	1.839966E+0	1.859287E+0	1.758408E+0	1.805981E+0	1.853169E+0	1.892261E+0	1.861473E+0	1.860111E+0	1.761218E+0	1.778845E+0	1.844702E+0	1.835681E+0	1.824270E+0	1.856524E+0	1.853325E+0	1.851749E+0	1.799262E+0	1.805569E+0	1.779322E+0	1.788074E+0	1.863926E+0	1.773081E+0	1.822724E+0	1.870045E+0	1.837557E+0	1.833398E+0	1.882595E+0	1.847055E+0	1.858374E+0	1.772046E+0	1.804678E+0	1.833729E+0	1.790652E+0	1.805446E+0	1.808998E+0	1.880607E+0	1.830423E+0	1.813011E+0	1.829321E+0	1.851019E+0	1.829767E+0	1.765856E+0	1.869667E+0	1.803364E+0	1.779130E+0	1.766754E+0	1.850845E+0	1.801214E+0	1.831177E+0	1.888563E+0	1.759590E+0	1.808612E+0	1.865901E+0	1.895104E+0	1.780850E+0	1.903739E+0	1.753968E+0	1.740590E+0	1.852951E+0	1.824295E+0	1.792220E+0	1.896368E+0	1.520471E+0
5.352550E+2	1.998657E+0	1.928070E+0	1.836662E+0	2.006807E+0	1.941791E+0	1.878559E+0	1.885784E+0	1.925512E+0	1.988186E+0	1.979824E+0	1.930384E+0	1.895731E+0	1.956608E+0	1.930623E+0	1.886666E+0	1.969330E+0	1.923570E+0	1.911551E+0	2.003210E+0	1.945135E+0	1.915101E+0	1.931171E+0	1.943437E+0	1.905503E+0	1.889701E+0	1.875479E+0	1.931944E+0	1.973537E+0	1.958516E+0	1.880024E+0	1.968929E+0	1.853394E+0	1.894491E+0	1.872782E+0	1.938950E+0	1.909317E+0	1.891512E+0	1.944039E+0	1.859439E+0	1.919396E+0	1.894066E+0	1.881428E+0	1.862929E+0	1.847595E+0	1.928192E+0	1.940336E+0	1.951238E+0	1.885145E+0	1.941443E+0	1.945386E+0	1.905559E+0	1.880536E+0	1.986617E+0	1.924052E+0	1.878431E+0	1.843932E+0	1.951859E+0	1.857485E+0	1.852048E+0	1.864942E+0	1.928571E+0	1.916219E+0	1.949672E+0	1.910197E+0	1.899185E+0	1.879314E+0	1.912346E+0	1.896958E+0	1.870010E+0	1.753866E+0	1.880745E+0	1.893411E+0	1.888489E+0	1.882143E+0	1.884454E+0	1.873480E+0	1.893566E+0	1.915834E+0	1.892699E+0	1.814933E+0	1.884827E+0	1.942680E+0	1.867190E+0	1.916292E+0	1.836198E+0	1.932623E+0	1.913125E+0	1.882726E+0	1.855787E+0	1.818993E+0	1.838016E+0	1.869627E+0	1.900609E+0	1.923184E+0	1.816654E+0	1.875283E+0	1.924757E+0	1.801041E+0	1.905417E+0	1.907868E+0	1.902628E+0	1.918198E+0	1.921663E+0	1.860005E+0	1.885771E+0	1.930858E+0	1.842202E+0	1.851264E+0	1.934250E+0	1.936781E+0	1.821206E+0	1.844350E+0	1.909433E+0	1.936051E+0	1.864491E+0	1.890175E+0	1.982554E+0	1.809668E+0	1.938624E+0	1.860140E+0	1.890497E+0	1.855996E+0	1.763635E+0	1.926291E+0	1.941932E+0	1.824084E+0	1.841185E+0	1.826405E+0	1.864272E+0	1.837683E+0	1.870016E+0	1.856791E+0	1.825629E+0	1.802256E+0	1.836429E+0	1.826279E+0	1.816247E+0	1.950618E+0	1.841055E+0	1.889170E+0	1.916491E+0	1.856152E+0	1.831693E+0	1.891720E+0	1.935080E+0	1.796725E+0	1.880444E+0	1.886867E+0	1.830880E+0	1.878717E+0	1.814365E+0	1.860462E+0	1.870663E+0	1.816953E+0	1.894936E+0	1.875730E+0	1.892320E+0	1.884498E+0	1.867705E+0	1.870948E+0	1.882611E+0	1.828968E+0	1.855963E+0	1.826973E+0	1.842664E+0	1.831030E+0	1.781315E+0	2.024415E+0	1.838243E+0	1.809126E+0	1.909347E+0	1.816298E+0
5.354060E+2	1.793882E+0	1.783257E+0	1.779121E+0	1.773801E+0	1.766957E+0	1.737602E+0	1.738756E+0	1.757236E+0	1.811991E+0	1.751684E+0	1.737634E+0	1.764247E+0	1.742315E+0	1.687645E+0	1.769128E+0	1.715985E+0	1.861704E+0	1.741134E+0	1.811001E+0	1.759488E+0	1.730307E+0	1.762943E+0	1.725396E+0	1.767912E+0	1.781144E+0	1.700931E+0	1.707220E+0	1.778582E+0	1.824787E+0	1.698090E+0	1.733996E+0	1.761059E+0	1.747029E+0	1.670337E+0	1.717601E+0	1.733930E+0	1.764127E+0	1.768853E+0	1.804303E+0	1.727950E+0	1.747773E+0	1.703254E+0	1.699596E+0	1.704513E+0	1.715274E+0	1.814870E+0	1.806639E+0	1.704066E+0	1.818294E+0	1.713678E+0	1.705737E+0	1.741884E+0	1.767701E+0	1.744733E+0	1.739979E+0	1.710285E+0	1.861605E+0	1.672712E+0	1.749804E+0	1.691714E+0	1.694491E+0	1.790471E+0	1.733370E+0	1.745264E+0	1.701650E+0	1.707717E+0	1.707712E+0	1.766224E+0	1.799147E+0	1.672080E+0	1.701218E+0	1.657547E+0	1.721062E+0	1.661150E+0	1.757883E+0	1.711696E+0	1.728576E+0	1.749067E+0	1.742241E+0	1.766184E+0	1.768483E+0	1.760509E+0	1.717129E+0	1.701824E+0	1.676462E+0	1.707412E+0	1.712796E+0	1.682544E+0	1.700621E+0	1.648104E+0	1.649502E+0	1.727869E+0	1.775672E+0	1.716007E+0	1.689474E+0	1.722984E+0	1.751963E+0	1.693605E+0	1.674485E+0	1.673718E+0	1.723438E+0	1.654979E+0	1.679488E+0	1.716252E+0	1.708660E+0	1.739133E+0	1.691627E+0	1.742701E+0	1.722504E+0	1.718746E+0	1.700968E+0	1.719571E+0	1.715672E+0	1.680431E+0	1.743580E+0	1.733478E+0	1.725275E+0	1.735928E+0	1.749862E+0	1.683826E+0	1.708246E+0	1.707267E+0	1.650051E+0	1.708778E+0	1.666163E+0	1.719460E+0	1.710104E+0	1.734737E+0	1.731538E+0	1.667415E+0	1.667992E+0	1.652909E+0	1.732616E+0	1.656701E+0	1.674967E+0	1.634845E+0	1.740441E+0	1.729293E+0	1.686815E+0	1.692073E+0	1.718873E+0	1.734497E+0	1.738217E+0	1.683453E+0	1.725084E+0	1.685163E+0	1.705934E+0	1.691982E+0	1.738943E+0	1.652942E+0	1.630660E+0	1.766164E+0	1.736190E+0	1.742974E+0	1.654143E+0	1.775820E+0	1.713762E+0	1.679638E+0	1.719536E+0	1.672460E+0	1.738674E+0	1.762470E+0	1.660293E+0	1.690677E+0	1.716699E+0	1.656008E+0	1.696704E+0	1.790408E+0	1.715123E+0	1.586034E+0	1.782290E+0	1.719619E+0
5.355630E+2	1.607825E+0	1.597475E+0	1.570385E+0	1.570653E+0	1.589048E+0	1.522403E+0	1.546967E+0	1.556030E+0	1.595927E+0	1.540257E+0	1.571069E+0	1.511600E+0	1.539013E+0	1.572711E+0	1.533058E+0	1.558969E+0	1.540521E+0	1.529659E+0	1.559838E+0	1.585698E+0	1.575999E+0	1.532895E+0	1.572111E+0	1.501166E+0	1.574797E+0	1.550030E+0	1.567104E+0	1.554567E+0	1.618125E+0	1.558518E+0	1.536119E+0	1.533599E+0	1.588255E+0	1.467632E+0	1.511540E+0	1.527199E+0	1.552237E+0	1.589898E+0	1.515389E+0	1.558863E+0	1.526300E+0	1.505696E+0	1.571707E+0	1.520958E+0	1.627903E+0	1.534646E+0	1.549147E+0	1.547328E+0	1.567234E+0	1.565883E+0	1.567293E+0	1.582220E+0	1.522621E+0	1.579237E+0	1.564249E+0	1.537944E+0	1.579894E+0	1.514679E+0	1.553946E+0	1.563591E+0	1.545733E+0	1.526054E+0	1.511544E+0	1.522146E+0	1.492141E+0	1.544128E+0	1.538043E+0	1.555014E+0	1.512802E+0	1.505556E+0	1.501926E+0	1.518047E+0	1.514522E+0	1.487564E+0	1.589970E+0	1.532062E+0	1.503668E+0	1.564339E+0	1.552304E+0	1.488606E+0	1.481288E+0	1.479919E+0	1.527836E+0	1.568555E+0	1.520909E+0	1.515868E+0	1.485729E+0	1.510579E+0	1.526068E+0	1.530206E+0	1.484419E+0	1.566011E+0	1.560869E+0	1.536125E+0	1.495449E+0	1.600067E+0	1.547473E+0	1.509023E+0	1.485113E+0	1.527301E+0	1.529736E+0	1.521577E+0	1.526594E+0	1.509714E+0	1.482026E+0	1.504634E+0	1.525065E+0	1.558023E+0	1.501887E+0	1.549970E+0	1.543619E+0	1.538666E+0	1.559758E+0	1.492464E+0	1.553861E+0	1.553984E+0	1.511169E+0	1.490400E+0	1.540834E+0	1.502938E+0	1.529165E+0	1.447759E+0	1.548295E+0	1.563317E+0	1.563097E+0	1.452149E+0	1.461612E+0	1.541152E+0	1.494908E+0	1.512104E+0	1.501402E+0	1.520911E+0	1.559315E+0	1.515543E+0	1.493571E+0	1.505251E+0	1.503317E+0	1.604171E+0	1.526915E+0	1.487761E+0	1.591487E+0	1.474899E+0	1.513807E+0	1.477212E+0	1.556509E+0	1.469424E+0	1.492842E+0	1.532820E+0	1.538667E+0	1.534264E+0	1.472614E+0	1.531008E+0	1.563213E+0	1.477130E+0	1.497994E+0	1.561919E+0	1.545076E+0	1.503036E+0	1.494563E+0	1.482278E+0	1.558439E+0	1.526651E+0	1.575215E+0	1.437691E+0	1.545551E+0	1.541535E+0	1.505720E+0	1.529640E+0	1.485586E+0	1.451987E+0	1.547903E+0	1.551660E+0
5.357140E+2	1.321277E+0	1.351225E+0	1.299892E+0	1.355541E+0	1.315711E+0	1.268896E+0	1.306229E+0	1.309605E+0	1.374087E+0	1.304966E+0	1.312062E+0	1.366992E+0	1.401866E+0	1.361795E+0	1.300841E+0	1.376915E+0	1.381625E+0	1.350588E+0	1.369892E+0	1.438031E+0	1.343417E+0	1.379137E+0	1.287608E+0	1.362140E+0	1.362193E+0	1.297688E+0	1.286735E+0	1.359948E+0	1.389767E+0	1.316507E+0	1.316137E+0	1.320597E+0	1.316215E+0	1.343899E+0	1.361356E+0	1.378027E+0	1.362843E+0	1.345173E+0	1.403926E+0	1.300655E+0	1.285921E+0	1.327958E+0	1.313621E+0	1.323118E+0	1.345730E+0	1.360503E+0	1.385103E+0	1.329744E+0	1.374369E+0	1.346486E+0	1.319067E+0	1.284921E+0	1.408767E+0	1.295043E+0	1.309576E+0	1.320135E+0	1.357187E+0	1.323351E+0	1.369814E+0	1.326816E+0	1.359806E+0	1.406627E+0	1.366134E+0	1.261340E+0	1.290687E+0	1.266343E+0	1.234664E+0	1.395476E+0	1.292220E+0	1.300299E+0	1.348578E+0	1.289063E+0	1.284551E+0	1.373040E+0	1.343694E+0	1.330267E+0	1.358066E+0	1.355487E+0	1.326977E+0	1.356868E+0	1.360064E+0	1.363098E+0	1.318739E+0	1.354091E+0	1.370485E+0	1.325756E+0	1.337814E+0	1.284566E+0	1.330025E+0	1.303188E+0	1.304669E+0	1.286674E+0	1.313326E+0	1.355300E+0	1.326860E+0	1.359017E+0	1.345077E+0	1.272559E+0	1.345712E+0	1.321285E+0	1.325697E+0	1.306182E+0	1.333103E+0	1.336324E+0	1.305307E+0	1.333688E+0	1.301840E+0	1.329233E+0	1.365243E+0	1.389383E+0	1.300880E+0	1.304058E+0	1.358959E+0	1.377946E+0	1.366211E+0	1.348231E+0	1.387869E+0	1.333547E+0	1.334999E+0	1.313891E+0	1.302113E+0	1.310367E+0	1.324617E+0	1.353024E+0	1.374577E+0	1.289971E+0	1.238854E+0	1.341736E+0	1.296254E+0	1.345591E+0	1.339928E+0	1.324834E+0	1.328564E+0	1.282539E+0	1.335216E+0	1.307180E+0	1.348434E+0	1.336859E+0	1.347790E+0	1.384761E+0	1.338411E+0	1.289335E+0	1.320361E+0	1.277875E+0	1.393119E+0	1.318088E+0	1.378658E+0	1.347327E+0	1.346470E+0	1.371636E+0	1.252885E+0	1.319885E+0	1.325801E+0	1.306615E+0	1.346357E+0	1.384154E+0	1.339352E+0	1.361358E+0	1.337551E+0	1.329928E+0	1.431592E+0	1.377177E+0	1.340767E+0	1.238794E+0	1.304675E+0	1.312867E+0	1.325729E+0	1.276225E+0	1.377694E+0	1.342157E+0	1.425546E+0	1.267494E+0
5.358600E+2	1.197455E+0	1.184085E+0	1.135959E+0	1.193223E+0	1.156733E+0	1.120063E+0	1.112829E+0	1.155106E+0	1.167235E+0	1.143971E+0	1.165990E+0	1.119359E+0	1.175837E+0	1.152506E+0	1.144296E+0	1.123933E+0	1.163705E+0	1.150754E+0	1.185621E+0	1.184986E+0	1.167844E+0	1.120357E+0	1.188023E+0	1.143637E+0	1.183504E+0	1.186391E+0	1.102227E+0	1.230192E+0	1.181344E+0	1.067515E+0	1.164615E+0	1.128948E+0	1.176516E+0	1.120327E+0	1.171749E+0	1.144578E+0	1.151936E+0	1.133226E+0	1.156046E+0	1.157963E+0	1.176200E+0	1.105817E+0	1.140850E+0	1.136684E+0	1.145253E+0	1.192563E+0	1.157071E+0	1.141808E+0	1.179585E+0	1.168006E+0	1.149717E+0	1.206939E+0	1.138301E+0	1.094389E+0	1.144740E+0	1.142922E+0	1.154972E+0	1.179176E+0	1.127026E+0	1.172572E+0	1.165741E+0	1.135022E+0	1.146534E+0	1.120976E+0	1.150485E+0	1.183099E+0	1.157440E+0	1.193384E+0	1.162518E+0	1.102546E+0	1.173923E+0	1.144222E+0	1.192280E+0	1.150926E+0	1.167976E+0	1.124859E+0	1.209389E+0	1.139570E+0	1.153264E+0	1.153978E+0	1.198595E+0	1.229088E+0	1.172132E+0	1.194597E+0	1.139982E+0	1.155610E+0	1.158682E+0	1.188646E+0	1.187854E+0	1.134913E+0	1.088416E+0	1.172749E+0	1.130726E+0	1.084557E+0	1.137365E+0	1.139574E+0	1.172454E+0	1.140063E+0	1.156115E+0	1.153236E+0	1.166476E+0	1.134467E+0	1.146247E+0	1.177386E+0	1.139213E+0	1.180417E+0	1.124745E+0	1.157831E+0	1.207278E+0	1.158672E+0	1.136799E+0	1.134836E+0	1.183110E+0	1.160271E+0	1.188339E+0	1.136304E+0	1.148453E+0	1.158148E+0	1.121431E+0	1.173487E+0	1.123876E+0	1.123020E+0	1.169154E+0	1.170060E+0	1.174720E+0	1.174601E+0	1.121882E+0	1.178616E+0	1.207415E+0	1.178857E+0	1.156482E+0	1.194197E+0	1.226971E+0	1.110100E+0	1.145108E+0	1.144676E+0	1.227326E+0	1.140696E+0	1.130888E+0	1.118912E+0	1.164347E+0	1.188629E+0	1.153036E+0	1.133049E+0	1.163705E+0	1.124648E+0	1.163458E+0	1.123516E+0	1.168278E+0	1.192309E+0	1.075267E+0	1.144633E+0	1.194444E+0	1.131363E+0	1.124419E+0	1.178356E+0	1.144240E+0	1.153431E+0	1.175155E+0	1.108458E+0	1.212145E+0	1.160995E+0	1.172841E+0	1.144582E+0	1.211413E+0	1.194994E+0	1.127066E+0	1.131750E+0	1.227237E+0	1.200141E+0	1.179246E+0	1.082270E+0
5.360120E+2	9.847672E-1	9.742698E-1	9.716969E-1	1.005148E+0	9.503460E-1	9.710221E-1	9.201046E-1	9.062488E-1	9.782029E-1	9.781197E-1	9.372850E-1	9.520687E-1	9.564649E-1	9.582515E-1	9.670038E-1	9.741016E-1	9.574651E-1	9.374687E-1	9.684039E-1	9.354644E-1	9.495596E-1	9.363255E-1	9.226614E-1	9.605076E-1	1.017963E+0	9.754739E-1	9.320167E-1	9.708876E-1	1.000530E+0	9.656519E-1	1.005048E+0	1.023368E+0	9.815996E-1	9.922732E-1	9.847501E-1	1.011780E+0	9.594629E-1	9.533459E-1	9.609631E-1	9.555639E-1	9.539478E-1	9.312143E-1	9.349209E-1	9.595085E-1	9.430475E-1	9.293467E-1	9.562647E-1	9.827526E-1	9.980849E-1	9.371528E-1	9.165892E-1	9.493910E-1	9.829613E-1	9.245079E-1	9.224413E-1	9.562668E-1	9.824006E-1	9.815554E-1	9.496971E-1	9.581539E-1	9.811611E-1	9.583972E-1	1.003071E+0	9.716031E-1	9.624097E-1	9.701034E-1	9.593542E-1	9.843681E-1	9.817556E-1	9.110377E-1	8.790974E-1	9.331006E-1	9.362914E-1	9.956821E-1	9.681378E-1	9.640701E-1	9.133810E-1	9.759763E-1	1.015614E+0	9.709430E-1	9.391514E-1	1.010645E+0	9.347444E-1	1.016145E+0	9.744443E-1	1.024289E+0	9.376477E-1	9.237425E-1	9.596375E-1	9.365012E-1	9.549443E-1	9.920845E-1	1.032191E+0	9.968681E-1	9.783041E-1	9.652799E-1	9.835604E-1	9.258952E-1	9.547076E-1	9.382329E-1	9.767853E-1	9.226185E-1	9.565508E-1	9.888046E-1	9.723947E-1	9.705170E-1	9.802658E-1	9.824083E-1	9.803540E-1	9.569894E-1	9.997669E-1	9.346488E-1	9.279329E-1	1.009922E+0	1.005810E+0	9.509370E-1	9.935323E-1	9.773348E-1	9.572532E-1	9.251669E-1	9.874061E-1	9.420226E-1	9.585398E-1	9.685577E-1	9.928005E-1	9.319697E-1	9.764558E-1	9.756809E-1	9.502589E-1	9.474933E-1	9.010969E-1	9.597251E-1	9.755525E-1	9.801808E-1	9.389539E-1	9.609821E-1	9.705950E-1	9.857815E-1	9.581582E-1	9.778220E-1	9.279622E-1	9.659310E-1	1.025397E+0	9.782661E-1	9.853850E-1	9.493174E-1	9.855568E-1	9.603499E-1	9.902107E-1	9.711021E-1	9.194072E-1	1.022411E+0	1.038763E+0	9.581108E-1	9.016967E-1	9.095982E-1	9.612315E-1	1.008913E+0	9.821890E-1	9.847497E-1	1.022464E+0	9.959838E-1	9.534179E-1	9.664678E-1	9.978852E-1	9.866303E-1	1.000535E+0	9.678673E-1	1.009431E+0	9.314222E-1	1.091023E+0	9.551250E-1
5.362630E+2	7.970228E-1	7.446117E-1	7.187684E-1	7.379634E-1	7.543180E-1	7.332843E-1	7.584285E-1	7.355690E-1	7.596377E-1	7.210207E-1	7.469006E-1	7.109257E-1	7.816129E-1	7.342672E-1	7.199979E-1	7.417045E-1	7.266586E-1	7.367790E-1	7.305118E-1	7.469565E-1	7.335892E-1	6.961147E-1	7.135623E-1	6.981263E-1	7.584396E-1	7.381654E-1	7.516035E-1	7.470372E-1	7.333717E-1	7.275263E-1	7.478250E-1	7.441833E-1	7.265994E-1	7.257566E-1	7.746003E-1	7.492903E-1	7.502918E-1	7.394731E-1	7.118766E-1	7.025649E-1	7.378068E-1	7.116986E-1	7.391466E-1	7.271632E-1	7.552480E-1	7.246901E-1	7.540280E-1	7.234304E-1	8.086415E-1	7.515645E-1	7.384011E-1	7.677438E-1	7.699522E-1	7.577236E-1	7.738231E-1	7.550799E-1	7.962415E-1	7.377762E-1	7.563801E-1	7.365608E-1	7.753635E-1	7.482082E-1	7.429259E-1	7.360577E-1	7.512539E-1	7.301584E-1	7.436919E-1	7.198147E-1	7.334579E-1	7.443941E-1	7.540444E-1	7.288578E-1	7.269913E-1	7.241923E-1	7.126461E-1	7.173043E-1	7.624132E-1	7.340811E-1	7.451448E-1	7.344563E-1	7.166804E-1	7.608721E-1	7.397058E-1	7.126454E-1	7.089464E-1	7.327580E-1	7.298719E-1	7.354332E-1	7.542339E-1	7.181586E-1	7.380937E-1	7.148182E-1	7.377758E-1	7.325691E-1	7.776120E-1	7.246078E-1	7.417819E-1	7.259516E-1	7.806179E-1	7.459269E-1	7.651576E-1	7.444904E-1	7.269109E-1	7.898540E-1	7.274309E-1	7.185814E-1	7.597035E-1	7.213396E-1	7.319613E-1	7.480768E-1	7.496296E-1	6.952499E-1	7.560973E-1	7.806420E-1	7.399451E-1	7.313325E-1	7.536509E-1	7.457661E-1	7.210531E-1	7.728653E-1	7.318738E-1	7.430385E-1	7.410896E-1	7.456774E-1	7.693695E-1	7.407798E-1	8.080419E-1	7.805018E-1	7.170609E-1	7.369964E-1	7.737048E-1	7.568790E-1	7.488954E-1	7.637372E-1	7.519253E-1	7.423415E-1	7.557628E-1	7.178965E-1	7.179132E-1	7.338510E-1	7.818702E-1	7.294754E-1	7.280246E-1	7.511674E-1	7.985033E-1	7.581939E-1	7.424928E-1	7.605802E-1	7.105661E-1	7.573381E-1	7.526723E-1	7.483520E-1	7.530721E-1	7.696144E-1	7.517570E-1	7.566351E-1	7.527223E-1	7.445430E-1	7.634193E-1	7.563756E-1	7.629282E-1	7.311150E-1	7.922273E-1	7.300908E-1	7.661848E-1	7.508751E-1	7.398732E-1	7.274929E-1	7.604712E-1	7.480864E-1	8.324883E-1	7.132624E-1
5.365040E+2	6.194323E-1	5.978508E-1	5.980386E-1	6.192511E-1	5.676796E-1	5.794069E-1	5.456832E-1	5.914029E-1	5.896151E-1	5.793110E-1	5.958561E-1	5.718482E-1	5.906742E-1	5.887045E-1	6.011058E-1	5.812867E-1	6.071573E-1	6.219373E-1	6.062764E-1	5.670707E-1	5.630110E-1	6.056024E-1	6.085167E-1	5.900981E-1	6.045328E-1	5.635294E-1	5.814431E-1	6.072471E-1	5.623095E-1	5.672675E-1	5.768547E-1	6.064814E-1	6.146808E-1	5.835546E-1	5.835558E-1	6.028240E-1	6.209366E-1	6.187318E-1	5.813506E-1	5.558824E-1	5.677730E-1	5.710037E-1	5.814428E-1	5.749750E-1	6.257393E-1	5.556719E-1	6.142965E-1	5.894846E-1	6.408619E-1	5.791462E-1	6.353356E-1	5.825136E-1	6.030741E-1	6.098332E-1	6.146487E-1	6.272794E-1	6.324035E-1	6.125185E-1	5.892716E-1	6.042706E-1	6.171436E-1	6.121982E-1	5.669792E-1	6.073626E-1	5.797024E-1	5.921215E-1	5.764969E-1	6.037249E-1	5.896074E-1	5.865838E-1	5.892373E-1	6.027210E-1	6.110685E-1	6.246023E-1	6.113410E-1	6.183347E-1	5.804360E-1	6.185378E-1	6.332290E-1	5.582290E-1	6.382170E-1	6.371382E-1	6.166285E-1	6.544389E-1	5.848459E-1	5.881812E-1	5.894014E-1	5.813178E-1	5.655741E-1	5.832491E-1	6.257669E-1	5.745812E-1	6.319749E-1	5.958892E-1	6.126675E-1	5.688628E-1	6.005020E-1	6.212948E-1	6.040479E-1	5.744285E-1	6.019289E-1	6.026806E-1	5.762418E-1	6.139101E-1	5.963263E-1	5.842619E-1	5.836177E-1	6.020152E-1	5.794167E-1	6.051200E-1	6.022583E-1	5.637705E-1	5.996190E-1	5.849979E-1	6.084093E-1	5.907080E-1	6.035769E-1	6.217196E-1	5.961440E-1	5.969363E-1	5.959866E-1	5.773573E-1	6.034440E-1	5.738688E-1	5.998003E-1	5.714751E-1	6.140793E-1	5.665852E-1	6.178374E-1	6.241021E-1	5.873425E-1	5.726473E-1	6.111146E-1	5.806288E-1	6.425591E-1	5.566399E-1	5.833369E-1	6.411071E-1	5.860553E-1	6.119172E-1	5.884493E-1	5.803078E-1	6.093181E-1	6.114054E-1	6.526620E-1	5.964875E-1	6.059898E-1	5.854168E-1	6.043657E-1	5.912210E-1	6.211543E-1	5.957399E-1	6.091846E-1	5.930099E-1	5.966261E-1	6.015315E-1	6.216896E-1	5.926738E-1	5.762789E-1	6.003883E-1	6.217496E-1	6.174802E-1	6.004320E-1	5.769812E-1	5.715517E-1	5.561547E-1	6.357679E-1	5.728122E-1	6.316640E-1	5.768372E-1	6.298291E-1	5.854729E-1
5.367810E+2	5.452905E-1	5.096215E-1	5.424664E-1	5.139344E-1	5.368908E-1	5.083958E-1	4.837288E-1	4.988658E-1	4.972367E-1	5.059683E-1	4.829340E-1	4.914591E-1	5.163136E-1	4.995144E-1	5.011165E-1	5.094417E-1	4.876367E-1	5.139494E-1	5.216933E-1	5.141320E-1	5.194352E-1	5.285819E-1	5.442887E-1	4.797739E-1	5.194275E-1	5.141892E-1	5.046854E-1	5.415913E-1	5.249309E-1	5.084061E-1	5.132906E-1	5.064589E-1	5.290568E-1	4.981601E-1	5.137113E-1	4.999074E-1	4.962303E-1	4.910532E-1	5.040619E-1	5.027986E-1	4.850350E-1	5.218216E-1	5.034571E-1	5.039884E-1	5.220305E-1	5.443008E-1	4.907410E-1	5.160874E-1	5.016295E-1	5.234685E-1	5.076277E-1	5.027357E-1	5.075332E-1	5.137848E-1	5.067305E-1	4.862924E-1	4.959917E-1	5.023512E-1	4.969126E-1	4.974504E-1	5.313018E-1	4.886694E-1	4.881190E-1	5.210594E-1	5.116394E-1	4.955448E-1	5.342231E-1	4.936676E-1	5.149701E-1	4.785079E-1	5.164008E-1	5.067668E-1	4.953790E-1	5.082932E-1	5.281217E-1	5.045062E-1	5.190753E-1	4.762610E-1	5.250990E-1	4.965963E-1	5.569560E-1	5.527147E-1	5.050797E-1	5.314138E-1	5.148603E-1	5.195231E-1	5.356711E-1	5.077499E-1	4.776085E-1	4.822738E-1	5.508604E-1	5.052157E-1	4.975004E-1	5.273116E-1	5.174230E-1	5.173159E-1	4.988365E-1	5.159701E-1	5.062361E-1	4.896810E-1	5.072145E-1	5.243606E-1	4.988182E-1	4.955939E-1	5.148966E-1	5.198135E-1	5.255571E-1	5.009030E-1	5.041075E-1	5.255811E-1	5.176909E-1	5.176874E-1	5.206137E-1	5.135117E-1	5.276962E-1	5.009138E-1	4.955940E-1	5.055002E-1	5.045340E-1	5.062594E-1	5.346119E-1	5.156648E-1	4.857483E-1	5.156447E-1	5.179391E-1	5.256089E-1	5.443295E-1	5.489645E-1	5.423983E-1	5.596292E-1	5.184059E-1	4.669468E-1	5.585463E-1	5.208313E-1	5.150671E-1	4.935725E-1	5.225898E-1	5.164628E-1	4.793010E-1	4.836535E-1	5.018505E-1	5.318021E-1	5.408025E-1	5.190419E-1	5.111024E-1	4.903231E-1	4.999152E-1	4.945548E-1	5.002354E-1	5.091430E-1	5.347016E-1	5.132732E-1	5.249950E-1	4.677736E-1	5.192954E-1	5.057702E-1	5.545699E-1	5.243414E-1	5.316448E-1	5.131105E-1	5.377315E-1	5.430646E-1	5.276802E-1	5.080295E-1	5.202169E-1	4.870301E-1	4.924589E-1	5.062422E-1	4.951338E-1	5.124684E-1	5.392819E-1	5.104272E-1
5.370070E+2	4.732552E-1	4.942084E-1	4.895366E-1	4.887994E-1	4.809050E-1	4.703900E-1	4.398465E-1	4.426507E-1	4.707124E-1	5.083172E-1	4.657469E-1	5.030649E-1	4.841482E-1	4.699954E-1	4.943859E-1	4.759448E-1	5.024539E-1	4.549456E-1	4.969287E-1	4.624501E-1	4.898128E-1	4.934607E-1	4.489881E-1	4.895491E-1	4.869932E-1	4.745998E-1	4.872294E-1	4.748946E-1	5.097450E-1	4.628011E-1	5.113161E-1	4.690053E-1	4.820667E-1	4.919344E-1	4.698747E-1	4.630883E-1	4.730224E-1	4.997879E-1	4.901685E-1	4.576104E-1	4.895915E-1	4.623015E-1	4.894609E-1	4.700121E-1	5.027445E-1	4.849138E-1	5.101099E-1	4.959699E-1	5.088672E-1	4.849094E-1	4.592817E-1	5.162274E-1	4.851871E-1	4.833481E-1	4.877831E-1	4.861013E-1	4.895081E-1	4.607910E-1	4.857252E-1	5.242236E-1	5.271839E-1	4.881694E-1	4.816688E-1	4.978665E-1	4.663599E-1	4.635758E-1	4.963411E-1	5.062251E-1	4.644104E-1	4.729159E-1	4.827108E-1	5.082108E-1	4.680267E-1	4.937082E-1	4.875650E-1	5.041249E-1	5.005425E-1	4.744284E-1	5.016462E-1	4.614333E-1	4.831424E-1	5.216914E-1	4.807517E-1	5.316327E-1	4.654563E-1	5.083488E-1	4.702797E-1	4.683180E-1	4.806472E-1	4.986542E-1	4.824532E-1	4.572152E-1	4.761919E-1	4.823985E-1	4.886961E-1	5.043782E-1	5.186698E-1	4.615434E-1	4.676574E-1	4.762737E-1	5.001162E-1	4.814581E-1	4.858242E-1	4.791659E-1	4.903838E-1	4.781296E-1	4.700810E-1	5.223986E-1	5.202414E-1	5.216985E-1	4.930547E-1	4.807460E-1	4.947909E-1	4.893314E-1	4.829481E-1	5.010360E-1	5.014352E-1	4.838200E-1	4.826848E-1	4.724313E-1	5.001203E-1	5.015623E-1	4.944942E-1	4.926450E-1	4.871508E-1	4.901998E-1	4.826053E-1	4.642757E-1	5.115722E-1	5.025782E-1	4.736437E-1	4.819528E-1	5.210066E-1	5.193635E-1	4.818932E-1	4.993129E-1	4.973983E-1	5.166835E-1	5.125910E-1	4.833648E-1	5.166411E-1	4.877307E-1	5.328690E-1	4.789237E-1	5.449166E-1	5.044135E-1	4.770331E-1	4.798247E-1	4.946602E-1	4.920941E-1	4.898445E-1	4.832001E-1	4.996470E-1	4.839867E-1	4.588100E-1	5.153564E-1	4.927315E-1	5.106237E-1	5.057986E-1	4.565043E-1	4.992817E-1	4.897367E-1	4.597950E-1	4.923247E-1	4.860177E-1	4.782856E-1	4.808947E-1	5.024690E-1	5.175538E-1	4.800266E-1	5.323744E-1	4.080676E-1
5.372690E+2	5.226829E-1	4.795304E-1	5.307408E-1	5.028048E-1	5.147616E-1	4.706642E-1	4.703183E-1	5.035596E-1	5.301545E-1	5.116641E-1	5.081149E-1	5.248398E-1	5.436973E-1	5.180797E-1	5.266224E-1	5.403263E-1	5.130448E-1	5.319257E-1	5.529717E-1	5.207969E-1	5.173081E-1	5.397909E-1	5.097075E-1	5.177076E-1	5.274897E-1	4.836494E-1	5.073947E-1	5.215992E-1	4.966137E-1	5.406304E-1	5.018820E-1	5.285032E-1	5.300331E-1	5.030721E-1	5.344068E-1	5.130643E-1	5.087568E-1	5.193020E-1	5.653795E-1	5.001185E-1	5.481333E-1	5.086109E-1	5.252203E-1	5.093450E-1	5.191202E-1	5.297642E-1	5.385871E-1	5.448408E-1	5.466807E-1	5.317717E-1	5.104898E-1	4.972280E-1	5.483008E-1	5.353528E-1	5.504399E-1	5.592531E-1	5.009334E-1	5.188645E-1	4.854739E-1	4.918312E-1	5.204934E-1	5.702476E-1	5.199106E-1	5.621207E-1	5.367102E-1	5.178458E-1	4.978964E-1	5.277831E-1	4.884901E-1	4.875733E-1	5.167511E-1	5.211870E-1	5.271389E-1	5.323435E-1	5.402478E-1	4.810968E-1	5.361469E-1	5.197002E-1	5.180611E-1	5.068573E-1	5.224545E-1	5.261207E-1	5.011888E-1	5.257590E-1	5.123013E-1	5.007464E-1	5.284120E-1	5.203150E-1	5.171679E-1	5.250827E-1	5.241399E-1	5.081381E-1	5.251705E-1	5.099861E-1	5.190945E-1	5.514183E-1	5.270914E-1	5.102545E-1	5.267293E-1	5.436059E-1	5.573058E-1	5.355857E-1	5.142569E-1	5.342677E-1	5.231643E-1	5.644748E-1	5.418433E-1	5.332224E-1	5.243016E-1	5.139447E-1	5.210835E-1	5.373817E-1	5.130195E-1	5.195194E-1	5.255757E-1	5.219110E-1	5.264686E-1	5.140672E-1	5.479857E-1	5.091779E-1	5.295385E-1	5.458845E-1	5.237062E-1	5.275019E-1	5.776879E-1	5.211583E-1	5.336378E-1	5.391739E-1	5.508910E-1	5.767617E-1	5.380129E-1	5.014810E-1	5.106595E-1	5.245849E-1	5.648524E-1	5.340481E-1	5.470316E-1	5.280899E-1	5.248286E-1	5.078378E-1	5.446765E-1	5.271835E-1	5.188024E-1	5.571323E-1	5.411208E-1	5.427309E-1	5.059898E-1	5.409943E-1	5.288675E-1	4.884824E-1	4.752875E-1	5.147924E-1	5.465200E-1	5.353993E-1	5.289862E-1	4.925931E-1	5.392543E-1	5.485101E-1	5.577874E-1	4.871850E-1	5.339349E-1	5.444072E-1	5.508242E-1	4.967415E-1	5.007745E-1	4.924560E-1	5.195050E-1	5.291248E-1	5.491457E-1	5.108868E-1	5.270923E-1	5.433758E-1
5.375060E+2	5.458011E-1	5.110426E-1	5.345917E-1	5.226365E-1	5.553564E-1	5.592577E-1	5.431533E-1	5.249991E-1	5.597306E-1	5.869978E-1	5.488868E-1	5.309076E-1	5.727239E-1	5.544499E-1	5.325783E-1	5.469323E-1	5.038699E-1	5.300698E-1	5.759246E-1	5.721488E-1	5.653185E-1	5.331232E-1	5.466837E-1	5.616907E-1	5.543081E-1	5.291002E-1	5.840103E-1	5.481362E-1	5.342462E-1	5.597908E-1	5.653281E-1	5.395643E-1	5.859744E-1	5.665121E-1	5.619792E-1	5.201192E-1	5.657373E-1	5.693738E-1	5.348225E-1	5.551014E-1	5.609015E-1	5.066084E-1	5.545646E-1	5.163713E-1	5.688277E-1	5.765181E-1	5.660331E-1	5.309617E-1	5.449767E-1	5.731413E-1	5.723989E-1	5.404752E-1	5.566977E-1	5.315930E-1	5.322695E-1	5.698670E-1	5.649356E-1	5.507374E-1	5.402501E-1	5.501129E-1	5.818552E-1	5.614286E-1	5.547153E-1	5.112958E-1	5.709387E-1	5.397707E-1	5.276435E-1	5.821016E-1	5.599284E-1	5.339957E-1	5.567539E-1	5.605368E-1	5.681865E-1	5.480448E-1	5.329824E-1	5.579445E-1	5.530731E-1	5.713660E-1	5.468364E-1	5.437424E-1	5.369847E-1	5.769937E-1	5.448012E-1	5.784404E-1	5.597938E-1	5.121093E-1	5.499499E-1	5.506692E-1	5.350575E-1	5.306023E-1	5.336227E-1	5.875225E-1	5.367445E-1	5.362181E-1	5.557818E-1	5.634832E-1	5.845033E-1	5.425914E-1	5.446733E-1	5.712759E-1	5.527365E-1	5.852516E-1	5.520350E-1	5.955149E-1	5.989401E-1	5.635930E-1	5.483676E-1	5.453052E-1	5.854985E-1	5.280775E-1	5.545971E-1	5.616673E-1	5.552662E-1	5.337041E-1	5.309881E-1	5.562226E-1	5.466192E-1	5.607657E-1	5.834402E-1	5.309628E-1	5.531947E-1	5.546556E-1	5.577533E-1	5.315580E-1	5.833107E-1	5.701359E-1	5.633062E-1	5.516652E-1	5.759720E-1	5.596213E-1	5.394360E-1	5.726252E-1	5.582564E-1	5.584215E-1	5.790080E-1	5.636992E-1	5.722591E-1	5.820740E-1	5.804265E-1	5.673276E-1	5.638460E-1	5.481519E-1	6.041674E-1	5.657131E-1	5.740488E-1	5.741851E-1	5.758170E-1	5.988332E-1	5.574545E-1	5.831308E-1	5.209922E-1	5.507798E-1	5.499503E-1	5.638084E-1	5.828724E-1	5.466483E-1	5.798781E-1	5.513131E-1	5.406767E-1	5.619764E-1	5.743912E-1	5.493229E-1	5.396029E-1	5.177783E-1	5.754037E-1	5.328757E-1	5.550725E-1	5.243507E-1	5.420407E-1	5.690994E-1	5.823286E-1	4.898696E-1
5.377690E+2	6.358270E-1	6.604347E-1	6.626157E-1	6.694718E-1	6.867835E-1	6.890615E-1	6.542699E-1	6.650929E-1	6.989246E-1	6.312513E-1	6.348698E-1	6.565211E-1	6.309610E-1	6.380318E-1	6.330156E-1	6.633480E-1	6.355366E-1	6.729889E-1	6.473778E-1	6.462283E-1	6.657493E-1	6.983003E-1	6.545495E-1	6.088959E-1	6.753024E-1	6.378994E-1	6.447944E-1	6.450996E-1	6.633482E-1	6.869624E-1	6.650539E-1	6.175814E-1	6.440421E-1	6.233618E-1	6.494109E-1	6.467032E-1	6.685905E-1	6.704229E-1	6.468889E-1	6.842443E-1	6.302023E-1	6.637472E-1	6.510074E-1	6.186275E-1	6.464976E-1	7.098409E-1	6.516839E-1	6.407351E-1	6.181061E-1	6.373750E-1	6.433579E-1	6.662103E-1	6.761379E-1	6.659318E-1	6.570562E-1	6.125284E-1	6.441428E-1	6.580844E-1	6.276050E-1	6.317375E-1	6.475220E-1	6.927637E-1	6.217416E-1	6.395636E-1	6.792520E-1	6.366539E-1	6.548366E-1	6.573255E-1	6.623378E-1	6.223829E-1	6.676998E-1	6.931329E-1	6.655267E-1	6.283628E-1	6.876229E-1	6.267684E-1	7.004519E-1	6.621748E-1	6.496220E-1	6.567099E-1	6.257934E-1	6.922610E-1	6.763145E-1	6.324125E-1	6.498398E-1	6.609809E-1	6.737908E-1	6.483024E-1	6.603281E-1	6.793661E-1	6.604472E-1	6.577338E-1	6.709500E-1	5.855600E-1	6.793660E-1	6.809016E-1	6.836860E-1	6.192966E-1	6.555171E-1	6.476039E-1	6.565929E-1	6.252348E-1	6.317306E-1	6.817906E-1	6.633453E-1	6.848045E-1	6.468223E-1	6.750340E-1	6.799595E-1	6.635006E-1	6.255540E-1	6.328601E-1	7.076520E-1	6.553984E-1	6.240490E-1	6.717640E-1	6.738938E-1	6.522901E-1	6.990798E-1	6.205098E-1	6.515820E-1	6.386222E-1	6.476182E-1	6.512106E-1	6.405489E-1	6.335528E-1	6.663469E-1	6.723966E-1	6.279817E-1	6.985947E-1	6.848628E-1	6.450961E-1	6.822065E-1	6.729190E-1	6.747770E-1	6.776154E-1	6.721188E-1	6.852602E-1	6.711694E-1	6.129652E-1	6.310212E-1	6.702594E-1	6.791439E-1	6.589837E-1	6.671473E-1	6.495072E-1	6.708949E-1	6.482935E-1	6.882311E-1	6.425847E-1	6.524952E-1	6.515341E-1	6.525212E-1	6.190176E-1	6.323548E-1	6.523164E-1	6.519805E-1	6.295522E-1	6.571329E-1	6.547956E-1	6.976824E-1	7.024826E-1	6.449878E-1	6.328034E-1	6.892158E-1	6.798649E-1	6.640221E-1	6.377484E-1	6.441893E-1	6.221904E-1	6.549529E-1	5.599124E-1
5.380270E+2	7.569782E-1	7.029536E-1	7.197426E-1	7.695465E-1	8.058186E-1	7.516454E-1	7.810120E-1	7.425849E-1	7.555423E-1	8.024664E-1	7.781674E-1	7.559961E-1	7.549671E-1	7.608766E-1	7.414882E-1	7.393934E-1	7.836119E-1	7.654524E-1	7.384159E-1	7.719781E-1	7.243107E-1	7.308160E-1	7.515710E-1	7.700638E-1	7.307267E-1	7.490197E-1	7.499053E-1	7.375893E-1	7.629746E-1	7.600065E-1	7.846062E-1	7.737597E-1	7.585269E-1	7.793502E-1	7.116355E-1	7.816008E-1	7.370915E-1	7.396827E-1	7.417172E-1	7.841970E-1	7.173853E-1	7.508273E-1	7.357746E-1	7.271257E-1	7.616856E-1	7.945155E-1	7.747478E-1	7.181558E-1	7.545204E-1	8.075549E-1	7.264557E-1	7.393049E-1	7.911810E-1	7.011160E-1	7.372451E-1	7.236310E-1	7.855137E-1	7.671403E-1	7.332569E-1	7.726664E-1	7.541101E-1	7.761286E-1	7.315010E-1	7.225803E-1	7.433635E-1	7.511549E-1	7.639092E-1	7.895586E-1	7.315962E-1	7.572064E-1	7.566911E-1	7.005142E-1	7.675091E-1	7.520588E-1	7.519205E-1	7.347979E-1	7.511692E-1	8.080998E-1	7.506030E-1	8.024304E-1	7.148990E-1	7.699511E-1	7.343582E-1	8.005020E-1	7.667629E-1	8.087680E-1	7.283741E-1	7.425499E-1	7.319764E-1	7.351766E-1	7.399900E-1	7.501210E-1	7.457553E-1	7.206861E-1	7.337577E-1	7.728086E-1	7.770847E-1	7.600520E-1	7.572430E-1	7.475182E-1	7.584474E-1	7.685783E-1	7.401829E-1	7.553201E-1	7.130288E-1	7.548090E-1	7.692693E-1	7.530499E-1	7.483501E-1	7.543217E-1	7.642950E-1	7.777756E-1	7.511117E-1	7.271684E-1	7.403361E-1	7.926617E-1	7.620595E-1	7.475850E-1	7.351387E-1	8.045040E-1	7.655724E-1	7.769940E-1	7.547856E-1	7.784215E-1	7.675200E-1	7.601423E-1	7.300490E-1	7.358520E-1	7.748965E-1	7.364001E-1	7.683343E-1	7.764056E-1	7.859209E-1	7.576474E-1	7.643609E-1	7.737407E-1	8.108558E-1	7.815400E-1	7.607702E-1	7.114439E-1	7.828890E-1	7.566285E-1	7.792579E-1	7.299051E-1	7.972715E-1	7.699587E-1	7.573177E-1	7.589556E-1	7.885917E-1	7.947473E-1	7.280255E-1	7.972120E-1	8.036058E-1	8.086517E-1	7.238498E-1	7.418286E-1	7.831365E-1	7.566657E-1	7.878960E-1	7.664903E-1	7.716653E-1	7.658675E-1	7.750970E-1	7.120598E-1	7.933170E-1	7.537193E-1	7.682758E-1	8.221496E-1	7.264547E-1	7.787927E-1	8.139458E-1	8.155273E-1
5.382690E+2	9.656766E-1	9.176239E-1	9.489077E-1	9.457063E-1	9.226801E-1	9.333898E-1	8.963056E-1	8.723823E-1	9.436228E-1	9.848498E-1	9.161386E-1	9.148923E-1	9.294914E-1	9.308292E-1	9.229510E-1	9.439558E-1	9.020718E-1	9.602138E-1	9.372111E-1	9.569002E-1	9.122675E-1	9.571197E-1	9.212277E-1	9.440266E-1	9.275109E-1	9.426272E-1	9.550545E-1	9.261271E-1	9.234333E-1	9.085930E-1	9.666102E-1	9.336053E-1	9.091313E-1	8.700855E-1	9.742558E-1	9.064054E-1	9.046868E-1	9.501543E-1	8.980803E-1	9.411173E-1	8.696984E-1	8.672630E-1	9.431288E-1	8.775010E-1	9.110630E-1	9.428010E-1	9.197457E-1	8.928250E-1	9.183555E-1	9.742483E-1	9.110650E-1	9.348400E-1	8.965316E-1	9.528841E-1	9.274782E-1	9.175611E-1	9.496563E-1	9.330702E-1	9.183551E-1	9.105449E-1	9.075781E-1	9.395211E-1	9.069395E-1	9.177565E-1	9.415320E-1	9.402025E-1	9.335978E-1	8.683211E-1	9.203414E-1	9.012850E-1	9.640140E-1	9.160996E-1	9.557028E-1	9.670423E-1	9.648974E-1	9.090598E-1	9.174162E-1	8.969421E-1	9.475265E-1	9.146324E-1	9.048718E-1	9.479316E-1	9.489370E-1	9.369622E-1	8.577661E-1	9.157462E-1	9.308169E-1	9.403929E-1	8.915027E-1	8.960153E-1	9.116390E-1	9.248343E-1	9.477062E-1	9.398352E-1	9.448388E-1	9.555150E-1	9.242278E-1	8.860627E-1	9.216210E-1	9.396327E-1	9.202729E-1	9.953541E-1	9.166755E-1	9.476592E-1	9.733038E-1	9.053924E-1	9.491745E-1	9.311584E-1	9.280398E-1	8.726420E-1	9.153941E-1	8.906374E-1	9.361304E-1	9.503419E-1	9.236118E-1	9.094519E-1	9.054492E-1	9.656384E-1	9.296115E-1	9.151247E-1	9.646240E-1	9.332472E-1	9.238102E-1	9.295128E-1	9.477296E-1	9.393432E-1	9.110350E-1	8.920546E-1	9.329814E-1	9.185748E-1	9.316924E-1	9.266634E-1	9.269947E-1	9.328742E-1	9.123509E-1	8.866819E-1	9.553599E-1	9.151411E-1	8.802034E-1	9.385079E-1	9.143525E-1	9.187620E-1	9.699781E-1	9.221817E-1	9.203207E-1	9.225658E-1	9.125579E-1	9.505207E-1	9.296840E-1	9.094141E-1	8.744542E-1	9.575142E-1	9.405085E-1	9.240115E-1	8.937883E-1	9.057355E-1	9.377425E-1	8.966640E-1	9.705323E-1	9.317672E-1	9.310592E-1	9.809356E-1	9.163890E-1	9.039998E-1	9.806174E-1	9.147828E-1	8.564056E-1	9.249120E-1	9.444532E-1	9.682487E-1	9.943904E-1	8.660329E-1
5.385170E+2	1.138579E+0	1.107940E+0	1.114289E+0	1.084435E+0	1.090012E+0	1.122788E+0	1.154016E+0	1.132181E+0	1.119577E+0	1.117461E+0	1.117014E+0	1.090497E+0	1.086592E+0	1.098832E+0	1.176176E+0	1.102281E+0	1.084473E+0	1.153312E+0	1.142453E+0	1.142703E+0	1.083447E+0	1.090374E+0	1.085891E+0	1.070612E+0	1.124632E+0	1.114821E+0	1.111026E+0	1.136012E+0	1.084844E+0	1.135623E+0	1.076016E+0	1.140487E+0	1.087533E+0	1.054743E+0	1.188751E+0	1.133681E+0	1.121977E+0	1.104688E+0	1.113927E+0	1.117627E+0	1.048513E+0	1.040231E+0	1.126570E+0	1.099380E+0	1.100755E+0	1.167870E+0	1.091495E+0	1.102324E+0	1.087006E+0	1.079353E+0	1.098950E+0	1.122534E+0	1.087506E+0	1.080951E+0	1.083688E+0	1.080290E+0	1.117032E+0	1.153823E+0	1.072086E+0	1.104545E+0	1.117767E+0	1.091560E+0	1.102183E+0	1.127461E+0	1.064960E+0	1.084648E+0	1.083478E+0	1.144540E+0	1.131800E+0	1.069468E+0	1.078468E+0	1.130069E+0	1.147179E+0	1.126236E+0	1.107183E+0	1.138708E+0	1.080536E+0	1.115723E+0	1.091170E+0	1.110754E+0	1.153167E+0	1.090104E+0	1.053530E+0	1.115519E+0	1.105124E+0	1.111652E+0	1.098293E+0	1.097019E+0	1.108205E+0	1.066820E+0	1.091476E+0	1.079025E+0	1.101944E+0	1.112636E+0	1.083073E+0	1.122928E+0	1.094130E+0	1.068837E+0	1.122889E+0	1.100473E+0	1.149707E+0	1.096351E+0	1.108138E+0	1.105211E+0	1.073494E+0	1.089720E+0	1.105925E+0	1.067491E+0	1.094860E+0	1.119367E+0	1.086463E+0	1.099739E+0	1.092681E+0	1.130154E+0	1.121186E+0	1.183728E+0	1.092866E+0	1.091049E+0	1.088580E+0	1.079319E+0	1.111008E+0	1.103312E+0	1.049502E+0	1.134360E+0	1.102289E+0	1.073530E+0	1.091049E+0	1.079218E+0	1.097201E+0	1.158136E+0	1.118607E+0	1.063610E+0	1.095746E+0	1.092648E+0	1.046046E+0	1.079467E+0	1.136350E+0	1.130748E+0	1.077875E+0	1.071155E+0	1.066184E+0	1.175594E+0	1.122254E+0	1.116378E+0	1.197465E+0	1.117791E+0	1.143753E+0	1.101911E+0	1.115526E+0	1.099400E+0	1.043743E+0	1.137977E+0	1.133392E+0	1.103092E+0	1.157405E+0	1.060249E+0	1.050461E+0	1.131976E+0	1.102494E+0	1.085811E+0	1.182357E+0	1.059041E+0	1.086232E+0	1.067850E+0	1.138973E+0	1.083999E+0	1.115959E+0	1.122863E+0	1.131916E+0	1.083955E+0	1.166913E+0	1.025079E+0
5.387860E+2	1.348510E+0	1.300320E+0	1.364162E+0	1.309477E+0	1.317578E+0	1.274031E+0	1.290298E+0	1.316956E+0	1.347306E+0	1.363363E+0	1.273011E+0	1.210957E+0	1.323424E+0	1.344160E+0	1.312864E+0	1.314766E+0	1.328239E+0	1.346111E+0	1.397766E+0	1.321013E+0	1.296086E+0	1.298245E+0	1.325776E+0	1.275499E+0	1.273819E+0	1.285476E+0	1.329212E+0	1.335473E+0	1.368594E+0	1.345305E+0	1.322925E+0	1.314528E+0	1.295128E+0	1.251209E+0	1.320820E+0	1.346956E+0	1.337168E+0	1.315571E+0	1.345313E+0	1.285342E+0	1.261180E+0	1.300523E+0	1.291033E+0	1.304443E+0	1.305523E+0	1.394915E+0	1.336580E+0	1.294766E+0	1.272402E+0	1.324767E+0	1.319241E+0	1.363321E+0	1.304811E+0	1.339621E+0	1.312365E+0	1.245946E+0	1.308108E+0	1.320151E+0	1.288108E+0	1.285216E+0	1.309854E+0	1.326724E+0	1.356050E+0	1.350808E+0	1.292359E+0	1.348807E+0	1.348245E+0	1.372796E+0	1.311206E+0	1.285740E+0	1.299271E+0	1.276760E+0	1.308689E+0	1.344443E+0	1.328433E+0	1.351425E+0	1.339861E+0	1.330663E+0	1.351610E+0	1.285077E+0	1.286565E+0	1.330674E+0	1.268044E+0	1.349254E+0	1.310641E+0	1.287785E+0	1.337491E+0	1.309514E+0	1.335144E+0	1.336985E+0	1.291990E+0	1.280081E+0	1.303942E+0	1.356541E+0	1.313796E+0	1.343630E+0	1.303811E+0	1.227143E+0	1.331883E+0	1.364025E+0	1.364738E+0	1.256068E+0	1.278682E+0	1.329542E+0	1.312554E+0	1.264864E+0	1.299396E+0	1.233910E+0	1.297270E+0	1.323144E+0	1.300669E+0	1.302946E+0	1.293358E+0	1.348092E+0	1.329940E+0	1.328465E+0	1.305663E+0	1.280805E+0	1.347133E+0	1.272291E+0	1.335237E+0	1.256416E+0	1.280671E+0	1.354773E+0	1.317528E+0	1.345517E+0	1.295172E+0	1.270174E+0	1.332175E+0	1.330719E+0	1.345112E+0	1.273196E+0	1.316684E+0	1.291004E+0	1.342535E+0	1.318284E+0	1.324823E+0	1.331332E+0	1.271051E+0	1.252044E+0	1.341030E+0	1.339437E+0	1.291954E+0	1.337133E+0	1.324764E+0	1.346656E+0	1.338186E+0	1.346790E+0	1.324577E+0	1.329971E+0	1.267719E+0	1.325656E+0	1.414827E+0	1.284299E+0	1.281728E+0	1.305831E+0	1.304910E+0	1.344955E+0	1.299693E+0	1.281029E+0	1.289718E+0	1.323602E+0	1.395124E+0	1.300679E+0	1.331633E+0	1.286791E+0	1.295281E+0	1.324114E+0	1.348165E+0	1.259929E+0	1.339641E+0	1.392657E+0
5.390080E+2	1.606268E+0	1.541478E+0	1.545554E+0	1.551250E+0	1.597121E+0	1.488594E+0	1.492388E+0	1.527837E+0	1.508531E+0	1.576570E+0	1.541047E+0	1.543364E+0	1.558206E+0	1.541805E+0	1.569209E+0	1.506237E+0	1.560076E+0	1.544275E+0	1.549547E+0	1.584097E+0	1.545793E+0	1.535187E+0	1.595739E+0	1.547069E+0	1.563092E+0	1.528506E+0	1.574253E+0	1.534254E+0	1.547467E+0	1.555456E+0	1.548081E+0	1.564932E+0	1.496413E+0	1.519730E+0	1.636890E+0	1.543801E+0	1.495426E+0	1.542875E+0	1.544266E+0	1.486331E+0	1.506525E+0	1.554530E+0	1.522469E+0	1.519924E+0	1.526326E+0	1.581378E+0	1.614807E+0	1.596129E+0	1.557889E+0	1.582637E+0	1.571080E+0	1.550654E+0	1.538600E+0	1.516157E+0	1.519160E+0	1.477631E+0	1.597830E+0	1.544582E+0	1.536183E+0	1.573533E+0	1.517191E+0	1.554888E+0	1.514885E+0	1.544033E+0	1.496636E+0	1.493096E+0	1.541677E+0	1.583717E+0	1.532737E+0	1.441599E+0	1.484077E+0	1.532442E+0	1.590331E+0	1.552640E+0	1.540042E+0	1.480810E+0	1.545562E+0	1.551285E+0	1.526530E+0	1.512763E+0	1.508580E+0	1.587033E+0	1.513684E+0	1.587998E+0	1.499092E+0	1.499482E+0	1.497486E+0	1.510212E+0	1.501948E+0	1.563310E+0	1.461549E+0	1.523092E+0	1.491255E+0	1.531801E+0	1.529973E+0	1.504612E+0	1.468838E+0	1.481409E+0	1.519895E+0	1.540546E+0	1.537961E+0	1.578459E+0	1.541363E+0	1.510393E+0	1.525716E+0	1.605737E+0	1.551882E+0	1.525217E+0	1.512343E+0	1.515475E+0	1.524891E+0	1.479841E+0	1.513635E+0	1.490695E+0	1.576302E+0	1.558157E+0	1.494254E+0	1.578255E+0	1.524195E+0	1.474937E+0	1.485659E+0	1.491871E+0	1.492147E+0	1.494908E+0	1.558419E+0	1.494177E+0	1.475563E+0	1.501208E+0	1.488008E+0	1.547298E+0	1.479640E+0	1.490560E+0	1.525129E+0	1.539928E+0	1.503029E+0	1.484785E+0	1.525900E+0	1.607907E+0	1.446187E+0	1.476236E+0	1.451810E+0	1.506967E+0	1.498340E+0	1.459970E+0	1.522962E+0	1.526481E+0	1.498167E+0	1.529232E+0	1.496114E+0	1.538528E+0	1.501285E+0	1.473569E+0	1.490987E+0	1.513374E+0	1.471853E+0	1.447734E+0	1.447847E+0	1.513834E+0	1.476637E+0	1.515750E+0	1.506137E+0	1.505154E+0	1.552341E+0	1.535327E+0	1.579313E+0	1.498827E+0	1.553728E+0	1.512904E+0	1.550547E+0	1.525844E+0	1.493591E+0	1.452831E+0
5.392930E+2	1.817575E+0	1.729013E+0	1.717733E+0	1.774451E+0	1.713879E+0	1.640923E+0	1.718408E+0	1.677210E+0	1.717115E+0	1.768082E+0	1.722905E+0	1.711604E+0	1.684642E+0	1.788241E+0	1.738908E+0	1.736601E+0	1.740613E+0	1.726698E+0	1.731340E+0	1.722010E+0	1.706602E+0	1.770903E+0	1.731541E+0	1.689928E+0	1.720343E+0	1.732821E+0	1.694584E+0	1.800293E+0	1.745187E+0	1.757270E+0	1.737065E+0	1.707302E+0	1.645177E+0	1.683028E+0	1.761254E+0	1.711402E+0	1.749275E+0	1.729773E+0	1.745104E+0	1.678342E+0	1.712579E+0	1.704112E+0	1.730545E+0	1.694564E+0	1.778632E+0	1.691382E+0	1.752555E+0	1.715468E+0	1.733028E+0	1.740827E+0	1.665295E+0	1.764482E+0	1.715951E+0	1.664293E+0	1.701199E+0	1.656519E+0	1.724025E+0	1.690413E+0	1.734671E+0	1.657534E+0	1.683121E+0	1.709105E+0	1.700300E+0	1.725482E+0	1.667312E+0	1.658454E+0	1.687621E+0	1.706434E+0	1.726390E+0	1.641919E+0	1.648178E+0	1.660297E+0	1.741225E+0	1.726440E+0	1.693033E+0	1.724057E+0	1.740438E+0	1.737131E+0	1.713155E+0	1.732892E+0	1.626235E+0	1.723056E+0	1.663036E+0	1.793280E+0	1.687000E+0	1.694711E+0	1.738061E+0	1.688268E+0	1.668650E+0	1.694968E+0	1.684410E+0	1.667422E+0	1.648675E+0	1.718685E+0	1.640340E+0	1.738741E+0	1.679887E+0	1.663351E+0	1.721258E+0	1.739410E+0	1.669627E+0	1.707062E+0	1.636193E+0	1.734826E+0	1.645236E+0	1.679882E+0	1.734550E+0	1.718212E+0	1.624854E+0	1.709570E+0	1.692016E+0	1.667664E+0	1.694561E+0	1.683820E+0	1.663705E+0	1.713932E+0	1.764870E+0	1.731308E+0	1.707813E+0	1.684848E+0	1.648767E+0	1.669573E+0	1.561910E+0	1.709338E+0	1.723470E+0	1.629786E+0	1.639771E+0	1.689352E+0	1.690092E+0	1.736647E+0	1.645734E+0	1.717444E+0	1.693271E+0	1.710867E+0	1.638052E+0	1.674499E+0	1.743634E+0	1.770777E+0	1.680270E+0	1.715447E+0	1.633913E+0	1.693111E+0	1.623550E+0	1.638156E+0	1.616540E+0	1.689791E+0	1.683443E+0	1.642771E+0	1.645779E+0	1.687797E+0	1.624465E+0	1.746859E+0	1.697183E+0	1.658441E+0	1.651205E+0	1.692864E+0	1.743895E+0	1.700657E+0	1.755785E+0	1.690019E+0	1.653985E+0	1.745578E+0	1.681593E+0	1.667897E+0	1.695124E+0	1.644118E+0	1.667897E+0	1.655423E+0	1.628654E+0	1.590406E+0	1.717155E+0	1.528457E+0
5.395210E+2	1.787221E+0	1.687161E+0	1.777074E+0	1.786806E+0	1.776236E+0	1.715372E+0	1.704966E+0	1.706893E+0	1.775056E+0	1.796073E+0	1.721062E+0	1.720764E+0	1.794973E+0	1.822871E+0	1.763575E+0	1.740194E+0	1.790617E+0	1.770732E+0	1.833916E+0	1.779334E+0	1.814188E+0	1.695941E+0	1.803616E+0	1.724112E+0	1.738286E+0	1.769481E+0	1.761595E+0	1.876552E+0	1.798230E+0	1.713651E+0	1.802782E+0	1.709749E+0	1.734824E+0	1.761701E+0	1.792243E+0	1.804622E+0	1.806909E+0	1.749804E+0	1.770401E+0	1.706347E+0	1.736495E+0	1.786793E+0	1.731874E+0	1.771265E+0	1.750789E+0	1.833858E+0	1.780464E+0	1.746509E+0	1.682060E+0	1.777181E+0	1.753545E+0	1.757630E+0	1.725684E+0	1.755301E+0	1.766939E+0	1.711951E+0	1.766297E+0	1.747866E+0	1.783966E+0	1.786696E+0	1.743005E+0	1.767191E+0	1.733722E+0	1.840578E+0	1.726988E+0	1.749946E+0	1.744440E+0	1.771722E+0	1.758711E+0	1.728644E+0	1.818071E+0	1.752837E+0	1.732388E+0	1.772910E+0	1.722999E+0	1.690962E+0	1.721686E+0	1.776754E+0	1.775084E+0	1.725683E+0	1.747404E+0	1.760813E+0	1.777615E+0	1.756182E+0	1.733023E+0	1.651465E+0	1.725244E+0	1.712861E+0	1.724318E+0	1.704307E+0	1.688634E+0	1.734697E+0	1.729279E+0	1.778940E+0	1.717738E+0	1.712978E+0	1.727748E+0	1.726194E+0	1.783273E+0	1.742048E+0	1.757567E+0	1.737838E+0	1.737204E+0	1.775647E+0	1.700693E+0	1.740642E+0	1.728860E+0	1.782461E+0	1.685126E+0	1.783779E+0	1.700343E+0	1.745807E+0	1.729622E+0	1.766212E+0	1.698812E+0	1.752595E+0	1.729887E+0	1.716853E+0	1.748841E+0	1.678736E+0	1.749171E+0	1.737350E+0	1.643562E+0	1.778090E+0	1.743921E+0	1.748291E+0	1.648122E+0	1.739917E+0	1.748803E+0	1.694756E+0	1.753767E+0	1.599140E+0	1.701784E+0	1.765741E+0	1.715346E+0	1.650381E+0	1.702995E+0	1.812649E+0	1.694654E+0	1.727411E+0	1.731065E+0	1.766512E+0	1.700932E+0	1.738183E+0	1.695376E+0	1.760875E+0	1.687954E+0	1.725091E+0	1.679233E+0	1.803901E+0	1.660259E+0	1.717502E+0	1.693457E+0	1.714859E+0	1.785218E+0	1.717191E+0	1.695480E+0	1.659663E+0	1.706198E+0	1.707792E+0	1.706540E+0	1.797087E+0	1.747536E+0	1.703107E+0	1.670776E+0	1.630666E+0	1.716976E+0	1.714915E+0	1.702215E+0	1.593337E+0	1.707642E+0	1.715677E+0
5.397650E+2	2.072744E+0	2.063918E+0	2.038005E+0	2.034638E+0	2.035573E+0	1.936234E+0	1.934830E+0	1.939770E+0	2.038745E+0	1.933502E+0	1.973937E+0	1.925664E+0	1.964835E+0	1.953892E+0	1.963361E+0	2.016083E+0	1.938859E+0	1.980771E+0	2.018220E+0	1.914171E+0	1.991939E+0	1.952498E+0	1.974269E+0	2.044412E+0	2.106532E+0	1.946592E+0	2.030413E+0	2.041166E+0	1.979379E+0	2.007963E+0	2.006012E+0	2.002331E+0	2.005106E+0	1.931163E+0	2.060917E+0	1.997068E+0	2.011502E+0	1.984140E+0	1.947980E+0	1.963141E+0	1.970344E+0	1.906170E+0	1.987273E+0	1.962805E+0	1.895353E+0	1.994510E+0	1.981961E+0	1.983913E+0	1.984663E+0	2.044829E+0	1.977335E+0	2.004675E+0	1.982410E+0	2.028550E+0	1.944114E+0	1.929421E+0	2.024083E+0	1.935872E+0	1.969480E+0	1.961172E+0	1.970899E+0	1.991161E+0	2.031784E+0	1.970277E+0	1.896622E+0	1.954075E+0	1.921195E+0	2.061055E+0	1.925347E+0	1.912596E+0	1.974120E+0	1.936473E+0	1.934563E+0	2.038512E+0	1.923880E+0	1.950105E+0	1.979200E+0	2.057887E+0	1.953894E+0	1.963053E+0	1.922360E+0	1.979251E+0	1.956509E+0	1.933600E+0	1.906110E+0	1.910551E+0	1.920910E+0	1.871669E+0	1.931447E+0	1.952562E+0	1.925412E+0	1.920720E+0	1.934059E+0	1.988782E+0	1.881947E+0	1.924909E+0	1.940323E+0	1.908558E+0	1.936365E+0	1.947343E+0	1.929242E+0	1.940498E+0	1.956976E+0	1.938198E+0	1.907285E+0	1.915059E+0	1.968336E+0	1.874742E+0	1.990453E+0	1.939183E+0	1.856919E+0	1.916516E+0	1.928118E+0	1.925347E+0	1.969346E+0	1.943562E+0	1.924200E+0	1.890249E+0	1.933832E+0	1.888213E+0	1.936802E+0	1.943429E+0	1.898229E+0	1.956799E+0	1.984180E+0	1.928963E+0	1.900685E+0	1.975763E+0	1.909993E+0	1.930870E+0	1.900319E+0	1.936510E+0	1.905096E+0	2.010182E+0	1.957721E+0	1.896949E+0	1.922896E+0	2.023947E+0	1.926950E+0	1.833519E+0	1.876524E+0	1.908936E+0	1.915981E+0	1.992402E+0	1.939969E+0	1.945096E+0	1.876954E+0	1.894621E+0	1.913242E+0	1.887359E+0	1.890688E+0	1.912010E+0	1.991608E+0	1.872800E+0	1.909915E+0	1.901443E+0	1.924036E+0	1.957347E+0	1.975738E+0	1.818821E+0	1.951437E+0	1.948043E+0	1.985291E+0	1.885147E+0	1.980998E+0	1.930620E+0	1.881561E+0	1.927110E+0	1.908767E+0	1.913328E+0	1.927218E+0	1.787337E+0
5.400190E+2	2.030362E+0	1.978418E+0	1.932656E+0	2.026132E+0	2.086566E+0	1.903061E+0	1.973078E+0	1.963853E+0	2.023280E+0	2.037869E+0	2.011538E+0	1.889482E+0	1.969508E+0	2.018825E+0	1.983223E+0	1.974063E+0	1.912502E+0	1.926630E+0	1.940618E+0	2.003196E+0	1.949444E+0	1.946562E+0	1.943034E+0	1.987052E+0	1.965746E+0	2.024153E+0	2.009125E+0	1.968102E+0	2.000395E+0	1.915258E+0	1.963617E+0	1.913750E+0	1.923697E+0	1.960069E+0	1.982577E+0	1.983354E+0	1.941449E+0	1.965937E+0	1.998082E+0	1.954784E+0	1.941837E+0	1.913695E+0	1.970133E+0	1.950062E+0	1.907714E+0	1.974430E+0	2.013634E+0	1.904176E+0	1.955590E+0	1.932181E+0	1.956687E+0	2.007920E+0	1.939185E+0	1.951631E+0	1.948358E+0	1.880880E+0	1.965349E+0	1.885931E+0	1.913950E+0	1.837102E+0	1.892170E+0	2.038507E+0	1.922943E+0	1.991651E+0	1.927386E+0	1.945959E+0	1.893005E+0	1.953329E+0	1.861340E+0	1.895221E+0	1.973511E+0	1.963578E+0	1.923464E+0	1.996435E+0	1.924514E+0	1.914943E+0	1.908117E+0	1.991575E+0	1.937715E+0	1.932712E+0	1.901468E+0	1.903486E+0	1.958206E+0	1.934215E+0	1.891201E+0	1.979782E+0	1.878849E+0	1.936579E+0	1.895328E+0	1.990974E+0	1.909286E+0	1.863161E+0	1.918172E+0	1.970729E+0	1.930388E+0	1.982359E+0	1.839928E+0	1.939111E+0	1.966760E+0	1.924917E+0	1.924009E+0	1.948659E+0	1.937028E+0	1.888419E+0	1.875155E+0	1.925785E+0	1.892990E+0	1.947753E+0	1.931677E+0	2.003057E+0	1.923317E+0	1.861805E+0	1.864820E+0	1.898155E+0	1.961298E+0	1.981447E+0	1.927327E+0	1.909757E+0	1.972231E+0	1.999656E+0	1.880052E+0	1.893666E+0	1.895811E+0	1.965673E+0	1.896350E+0	1.911312E+0	1.864093E+0	1.914984E+0	1.886864E+0	1.927245E+0	1.922244E+0	1.922106E+0	1.882419E+0	1.890994E+0	1.816032E+0	1.894470E+0	1.891389E+0	1.852989E+0	1.989158E+0	1.898752E+0	1.880905E+0	1.895428E+0	1.961137E+0	1.935322E+0	1.905353E+0	1.930391E+0	1.886808E+0	1.942090E+0	1.876117E+0	1.947052E+0	1.867331E+0	1.839546E+0	1.873172E+0	1.869362E+0	1.828935E+0	1.873555E+0	1.842291E+0	1.849848E+0	1.941727E+0	1.855973E+0	1.793788E+0	1.892247E+0	1.895387E+0	1.867056E+0	1.904487E+0	1.813741E+0	1.909947E+0	1.901147E+0	1.878503E+0	1.993981E+0	1.952359E+0	1.798211E+0
5.402740E+2	1.933659E+0	1.817094E+0	1.871033E+0	1.950622E+0	1.914766E+0	1.818573E+0	1.875495E+0	1.866539E+0	1.858383E+0	1.919167E+0	1.890570E+0	1.884273E+0	1.816447E+0	1.843266E+0	1.892005E+0	1.875430E+0	1.911314E+0	1.894965E+0	1.865340E+0	1.947714E+0	1.816625E+0	1.874285E+0	1.885394E+0	1.874012E+0	1.825834E+0	1.891760E+0	1.911399E+0	1.889831E+0	1.863565E+0	1.902489E+0	1.894454E+0	1.831389E+0	1.848905E+0	1.796915E+0	1.875589E+0	1.854931E+0	1.870518E+0	1.855972E+0	1.781027E+0	1.799508E+0	1.853288E+0	1.789740E+0	1.866664E+0	1.856734E+0	1.836066E+0	1.872718E+0	1.839867E+0	1.862553E+0	1.859091E+0	1.920219E+0	1.820512E+0	1.856955E+0	1.910918E+0	1.861131E+0	1.842138E+0	1.844327E+0	1.891118E+0	1.802506E+0	1.862143E+0	1.791256E+0	1.823321E+0	1.910586E+0	1.818255E+0	1.899927E+0	1.810342E+0	1.861862E+0	1.816416E+0	1.875103E+0	1.797076E+0	1.773280E+0	1.779865E+0	1.831683E+0	1.849372E+0	1.817597E+0	1.910569E+0	1.803285E+0	1.867761E+0	1.863898E+0	1.853191E+0	1.794538E+0	1.790499E+0	1.902859E+0	1.832403E+0	1.901621E+0	1.768976E+0	1.764037E+0	1.805635E+0	1.764513E+0	1.787366E+0	1.823194E+0	1.809272E+0	1.798933E+0	1.846042E+0	1.843805E+0	1.750300E+0	1.810195E+0	1.767307E+0	1.843347E+0	1.881861E+0	1.868460E+0	1.758181E+0	1.844109E+0	1.793254E+0	1.852595E+0	1.773400E+0	1.769545E+0	1.860854E+0	1.836777E+0	1.803059E+0	1.832208E+0	1.809081E+0	1.824175E+0	1.842996E+0	1.822433E+0	1.800938E+0	1.810606E+0	1.827748E+0	1.816122E+0	1.787724E+0	1.778208E+0	1.886455E+0	1.793417E+0	1.738232E+0	1.863788E+0	1.797947E+0	1.784811E+0	1.785529E+0	1.774038E+0	1.814622E+0	1.810323E+0	1.804456E+0	1.711943E+0	1.803041E+0	1.829833E+0	1.825028E+0	1.851084E+0	1.822924E+0	1.838732E+0	1.814611E+0	1.761680E+0	1.762220E+0	1.835281E+0	1.814376E+0	1.838820E+0	1.828434E+0	1.773468E+0	1.809037E+0	1.797195E+0	1.833301E+0	1.775033E+0	1.770903E+0	1.778140E+0	1.848156E+0	1.772980E+0	1.796643E+0	1.797496E+0	1.797188E+0	1.814931E+0	1.828570E+0	1.757477E+0	1.832828E+0	1.818788E+0	1.883763E+0	1.784215E+0	1.815223E+0	1.854383E+0	1.754868E+0	1.800621E+0	1.791488E+0	1.758457E+0	1.801843E+0	1.653778E+0
5.405130E+2	1.856551E+0	1.840958E+0	1.838571E+0	1.758638E+0	1.861637E+0	1.729570E+0	1.693725E+0	1.793516E+0	1.809881E+0	1.866385E+0	1.765492E+0	1.830648E+0	1.819571E+0	1.795933E+0	1.818394E+0	1.758820E+0	1.843167E+0	1.829719E+0	1.835205E+0	1.936528E+0	1.828495E+0	1.776647E+0	1.818178E+0	1.892096E+0	1.841604E+0	1.809572E+0	1.782538E+0	1.858960E+0	1.824113E+0	1.869171E+0	1.794182E+0	1.800565E+0	1.796924E+0	1.773609E+0	1.796251E+0	1.762670E+0	1.752094E+0	1.802963E+0	1.788934E+0	1.867670E+0	1.836255E+0	1.733502E+0	1.737837E+0	1.708385E+0	1.808607E+0	1.797283E+0	1.866498E+0	1.776253E+0	1.762918E+0	1.887478E+0	1.760044E+0	1.836106E+0	1.767885E+0	1.751575E+0	1.706255E+0	1.736891E+0	1.839065E+0	1.789530E+0	1.773961E+0	1.729635E+0	1.810742E+0	1.824076E+0	1.771465E+0	1.738169E+0	1.733588E+0	1.825307E+0	1.832924E+0	1.823987E+0	1.759903E+0	1.782748E+0	1.788692E+0	1.760125E+0	1.787455E+0	1.747292E+0	1.791667E+0	1.787103E+0	1.775071E+0	1.870714E+0	1.829449E+0	1.721918E+0	1.807562E+0	1.840339E+0	1.780670E+0	1.855934E+0	1.796751E+0	1.816684E+0	1.813428E+0	1.837499E+0	1.682569E+0	1.796386E+0	1.788732E+0	1.705177E+0	1.722256E+0	1.801603E+0	1.774216E+0	1.846689E+0	1.718396E+0	1.869027E+0	1.843058E+0	1.759577E+0	1.780967E+0	1.803425E+0	1.755751E+0	1.735319E+0	1.791843E+0	1.786049E+0	1.750445E+0	1.770026E+0	1.754071E+0	1.793536E+0	1.782501E+0	1.740644E+0	1.705949E+0	1.751025E+0	1.794336E+0	1.799568E+0	1.807219E+0	1.706719E+0	1.813827E+0	1.830174E+0	1.721040E+0	1.685737E+0	1.721756E+0	1.786891E+0	1.795528E+0	1.741065E+0	1.733149E+0	1.753205E+0	1.690188E+0	1.784303E+0	1.778355E+0	1.793204E+0	1.710174E+0	1.746303E+0	1.738804E+0	1.784730E+0	1.790591E+0	1.876656E+0	1.748626E+0	1.768688E+0	1.796940E+0	1.833927E+0	1.737682E+0	1.737211E+0	1.727455E+0	1.807382E+0	1.729741E+0	1.724584E+0	1.786414E+0	1.804712E+0	1.733561E+0	1.748430E+0	1.772254E+0	1.799893E+0	1.755620E+0	1.721655E+0	1.746715E+0	1.789039E+0	1.749066E+0	1.744629E+0	1.775094E+0	1.791348E+0	1.774530E+0	1.722134E+0	1.724168E+0	1.732322E+0	1.701729E+0	1.738834E+0	1.758669E+0	1.760327E+0	1.790062E+0	1.613009E+0
5.407680E+2	1.835705E+0	1.721328E+0	1.734832E+0	1.738547E+0	1.770112E+0	1.759574E+0	1.725767E+0	1.771585E+0	1.751253E+0	1.742734E+0	1.734170E+0	1.698274E+0	1.723560E+0	1.683175E+0	1.776720E+0	1.761096E+0	1.740854E+0	1.782201E+0	1.726626E+0	1.825687E+0	1.798120E+0	1.686795E+0	1.741580E+0	1.780893E+0	1.726579E+0	1.737290E+0	1.765137E+0	1.767832E+0	1.738886E+0	1.726951E+0	1.715694E+0	1.686813E+0	1.668514E+0	1.697505E+0	1.801041E+0	1.757000E+0	1.773529E+0	1.741450E+0	1.702156E+0	1.760031E+0	1.678351E+0	1.729191E+0	1.721974E+0	1.695340E+0	1.737025E+0	1.787505E+0	1.759599E+0	1.764494E+0	1.705051E+0	1.759224E+0	1.655648E+0	1.713317E+0	1.738107E+0	1.757575E+0	1.718465E+0	1.681745E+0	1.747467E+0	1.746274E+0	1.711316E+0	1.716690E+0	1.776379E+0	1.754490E+0	1.719121E+0	1.756006E+0	1.673510E+0	1.723531E+0	1.796077E+0	1.783627E+0	1.674642E+0	1.657476E+0	1.691818E+0	1.732066E+0	1.662711E+0	1.739373E+0	1.719080E+0	1.736530E+0	1.689727E+0	1.746603E+0	1.701000E+0	1.705415E+0	1.692066E+0	1.741308E+0	1.746209E+0	1.693209E+0	1.728539E+0	1.767646E+0	1.725120E+0	1.764869E+0	1.743258E+0	1.760472E+0	1.662701E+0	1.689635E+0	1.722853E+0	1.661444E+0	1.714716E+0	1.683844E+0	1.701239E+0	1.716799E+0	1.651922E+0	1.657690E+0	1.725821E+0	1.639181E+0	1.715825E+0	1.737260E+0	1.745944E+0	1.720316E+0	1.693483E+0	1.729197E+0	1.743328E+0	1.775853E+0	1.732608E+0	1.649607E+0	1.642596E+0	1.698116E+0	1.685243E+0	1.749209E+0	1.724721E+0	1.761623E+0	1.685836E+0	1.700176E+0	1.709168E+0	1.673235E+0	1.652217E+0	1.742402E+0	1.716927E+0	1.776279E+0	1.688279E+0	1.687360E+0	1.692362E+0	1.695317E+0	1.687584E+0	1.637416E+0	1.654847E+0	1.701659E+0	1.720570E+0	1.675821E+0	1.755470E+0	1.691203E+0	1.616059E+0	1.644055E+0	1.661907E+0	1.690482E+0	1.674606E+0	1.706346E+0	1.692459E+0	1.713026E+0	1.675382E+0	1.643420E+0	1.672518E+0	1.684186E+0	1.660506E+0	1.708739E+0	1.698443E+0	1.677907E+0	1.702798E+0	1.703058E+0	1.622429E+0	1.760345E+0	1.678107E+0	1.695891E+0	1.749789E+0	1.760920E+0	1.676089E+0	1.659100E+0	1.676511E+0	1.714273E+0	1.702157E+0	1.721489E+0	1.625451E+0	1.662108E+0	1.776495E+0	1.514310E+0
5.410190E+2	1.675968E+0	1.595471E+0	1.604625E+0	1.729521E+0	1.657466E+0	1.635387E+0	1.638917E+0	1.626971E+0	1.721738E+0	1.598172E+0	1.655044E+0	1.659814E+0	1.627437E+0	1.567723E+0	1.631468E+0	1.638790E+0	1.572595E+0	1.573945E+0	1.653891E+0	1.585141E+0	1.604117E+0	1.611938E+0	1.687324E+0	1.593979E+0	1.633018E+0	1.697837E+0	1.637707E+0	1.670466E+0	1.636552E+0	1.597796E+0	1.580340E+0	1.672478E+0	1.625132E+0	1.627965E+0	1.591023E+0	1.577601E+0	1.629129E+0	1.588682E+0	1.592848E+0	1.566830E+0	1.599838E+0	1.625935E+0	1.640961E+0	1.585861E+0	1.607745E+0	1.702634E+0	1.602320E+0	1.610952E+0	1.636482E+0	1.653880E+0	1.590493E+0	1.571540E+0	1.648336E+0	1.641835E+0	1.622484E+0	1.569028E+0	1.617464E+0	1.599546E+0	1.633827E+0	1.548208E+0	1.623169E+0	1.672927E+0	1.568262E+0	1.610972E+0	1.586299E+0	1.631639E+0	1.577378E+0	1.642601E+0	1.608684E+0	1.560158E+0	1.662934E+0	1.652186E+0	1.595700E+0	1.664553E+0	1.652886E+0	1.613049E+0	1.604828E+0	1.575137E+0	1.677707E+0	1.573651E+0	1.626428E+0	1.634465E+0	1.615275E+0	1.681948E+0	1.591340E+0	1.611849E+0	1.604946E+0	1.543167E+0	1.589031E+0	1.561812E+0	1.585073E+0	1.583273E+0	1.588991E+0	1.596672E+0	1.585036E+0	1.576186E+0	1.553979E+0	1.627831E+0	1.582057E+0	1.641129E+0	1.639927E+0	1.674820E+0	1.661890E+0	1.644868E+0	1.600342E+0	1.590649E+0	1.624407E+0	1.531457E+0	1.606188E+0	1.576295E+0	1.601673E+0	1.562935E+0	1.572091E+0	1.617778E+0	1.637823E+0	1.651439E+0	1.600959E+0	1.575841E+0	1.653554E+0	1.603654E+0	1.565605E+0	1.544083E+0	1.609521E+0	1.570085E+0	1.557095E+0	1.561164E+0	1.591199E+0	1.572134E+0	1.528202E+0	1.628761E+0	1.632911E+0	1.595810E+0	1.595092E+0	1.628980E+0	1.575817E+0	1.599743E+0	1.630565E+0	1.637292E+0	1.636478E+0	1.597206E+0	1.577257E+0	1.654732E+0	1.574076E+0	1.574939E+0	1.589312E+0	1.567229E+0	1.585050E+0	1.543937E+0	1.573526E+0	1.629745E+0	1.524965E+0	1.593338E+0	1.596724E+0	1.605444E+0	1.570883E+0	1.572718E+0	1.563094E+0	1.675670E+0	1.675757E+0	1.550938E+0	1.565087E+0	1.626287E+0	1.665706E+0	1.504007E+0	1.606052E+0	1.543389E+0	1.583124E+0	1.594662E+0	1.591353E+0	1.557006E+0	1.652237E+0	1.419702E+0
5.412580E+2	1.617323E+0	1.574168E+0	1.589702E+0	1.564023E+0	1.611917E+0	1.576056E+0	1.525159E+0	1.537512E+0	1.526535E+0	1.540215E+0	1.535426E+0	1.528365E+0	1.513887E+0	1.530408E+0	1.596382E+0	1.611848E+0	1.556905E+0	1.534698E+0	1.565059E+0	1.560705E+0	1.583560E+0	1.500847E+0	1.586413E+0	1.518147E+0	1.580416E+0	1.511934E+0	1.587490E+0	1.588226E+0	1.591745E+0	1.570602E+0	1.571549E+0	1.544242E+0	1.570702E+0	1.590497E+0	1.585597E+0	1.587327E+0	1.547350E+0	1.552033E+0	1.603411E+0	1.538102E+0	1.538694E+0	1.512219E+0	1.532511E+0	1.484332E+0	1.542195E+0	1.563376E+0	1.606425E+0	1.532217E+0	1.583546E+0	1.595505E+0	1.597651E+0	1.574587E+0	1.581458E+0	1.509507E+0	1.525943E+0	1.553466E+0	1.583325E+0	1.548987E+0	1.538956E+0	1.530164E+0	1.508381E+0	1.545949E+0	1.505521E+0	1.533310E+0	1.450389E+0	1.607853E+0	1.533617E+0	1.566739E+0	1.564513E+0	1.487085E+0	1.623309E+0	1.572773E+0	1.551130E+0	1.508707E+0	1.570417E+0	1.557619E+0	1.551799E+0	1.610392E+0	1.583479E+0	1.475480E+0	1.554184E+0	1.518133E+0	1.519151E+0	1.598607E+0	1.628306E+0	1.574708E+0	1.602054E+0	1.552713E+0	1.520566E+0	1.544151E+0	1.541070E+0	1.548704E+0	1.514568E+0	1.581158E+0	1.564038E+0	1.611135E+0	1.516931E+0	1.560892E+0	1.594385E+0	1.521675E+0	1.545218E+0	1.591749E+0	1.533810E+0	1.566194E+0	1.533989E+0	1.435492E+0	1.546603E+0	1.577947E+0	1.571464E+0	1.597110E+0	1.548578E+0	1.587815E+0	1.475325E+0	1.535726E+0	1.583031E+0	1.573304E+0	1.552458E+0	1.617391E+0	1.527368E+0	1.572015E+0	1.559772E+0	1.493661E+0	1.464042E+0	1.598501E+0	1.546010E+0	1.530613E+0	1.519068E+0	1.504439E+0	1.539556E+0	1.517044E+0	1.582357E+0	1.572874E+0	1.582239E+0	1.537568E+0	1.562068E+0	1.509237E+0	1.545322E+0	1.531536E+0	1.600886E+0	1.525263E+0	1.569029E+0	1.582357E+0	1.556179E+0	1.498822E+0	1.559808E+0	1.546113E+0	1.519675E+0	1.497676E+0	1.590011E+0	1.526603E+0	1.525192E+0	1.589411E+0	1.485611E+0	1.541992E+0	1.510437E+0	1.574080E+0	1.546201E+0	1.574307E+0	1.550539E+0	1.546354E+0	1.519467E+0	1.542762E+0	1.630757E+0	1.537943E+0	1.526719E+0	1.529179E+0	1.559474E+0	1.562622E+0	1.498816E+0	1.546138E+0	1.547105E+0	1.459990E+0
5.415190E+2	1.473723E+0	1.432025E+0	1.439309E+0	1.437137E+0	1.474627E+0	1.445657E+0	1.398334E+0	1.349720E+0	1.461769E+0	1.450330E+0	1.378107E+0	1.410924E+0	1.444792E+0	1.448042E+0	1.469662E+0	1.499153E+0	1.450595E+0	1.383377E+0	1.468064E+0	1.431597E+0	1.392819E+0	1.472668E+0	1.427865E+0	1.405369E+0	1.455028E+0	1.465268E+0	1.443061E+0	1.445959E+0	1.467646E+0	1.409790E+0	1.432449E+0	1.400980E+0	1.399785E+0	1.445930E+0	1.466606E+0	1.492606E+0	1.429891E+0	1.446394E+0	1.467230E+0	1.429808E+0	1.443475E+0	1.407246E+0	1.443401E+0	1.384222E+0	1.377679E+0	1.444011E+0	1.483132E+0	1.415221E+0	1.409993E+0	1.376250E+0	1.442211E+0	1.490310E+0	1.430385E+0	1.387689E+0	1.472620E+0	1.455960E+0	1.485077E+0	1.414676E+0	1.398573E+0	1.404001E+0	1.424264E+0	1.449011E+0	1.417012E+0	1.440774E+0	1.402789E+0	1.452337E+0	1.389306E+0	1.428152E+0	1.440760E+0	1.379006E+0	1.449866E+0	1.383747E+0	1.438192E+0	1.442632E+0	1.456704E+0	1.460831E+0	1.384223E+0	1.508768E+0	1.471111E+0	1.410370E+0	1.352801E+0	1.430868E+0	1.474460E+0	1.465151E+0	1.447862E+0	1.355408E+0	1.417329E+0	1.471598E+0	1.407658E+0	1.413934E+0	1.431900E+0	1.390375E+0	1.378961E+0	1.478700E+0	1.393319E+0	1.431172E+0	1.374361E+0	1.462072E+0	1.435843E+0	1.413183E+0	1.422884E+0	1.403514E+0	1.402553E+0	1.406889E+0	1.401059E+0	1.404880E+0	1.412747E+0	1.443891E+0	1.425765E+0	1.403833E+0	1.434468E+0	1.409956E+0	1.407742E+0	1.456851E+0	1.480864E+0	1.435797E+0	1.431094E+0	1.377522E+0	1.426796E+0	1.438903E+0	1.424134E+0	1.367454E+0	1.343875E+0	1.503111E+0	1.386247E+0	1.412001E+0	1.402974E+0	1.424082E+0	1.365394E+0	1.420859E+0	1.407673E+0	1.464467E+0	1.437761E+0	1.434046E+0	1.417327E+0	1.344951E+0	1.434039E+0	1.448887E+0	1.409696E+0	1.399615E+0	1.409342E+0	1.432045E+0	1.441547E+0	1.375431E+0	1.421602E+0	1.434031E+0	1.469878E+0	1.385893E+0	1.435959E+0	1.379054E+0	1.383693E+0	1.401917E+0	1.458430E+0	1.330639E+0	1.427006E+0	1.459090E+0	1.367103E+0	1.435459E+0	1.474882E+0	1.380213E+0	1.406347E+0	1.393251E+0	1.421121E+0	1.370100E+0	1.437611E+0	1.402565E+0	1.408836E+0	1.414086E+0	1.394339E+0	1.391556E+0	1.383435E+0	1.464533E+0
5.417600E+2	1.365207E+0	1.305796E+0	1.331612E+0	1.374834E+0	1.383659E+0	1.289141E+0	1.314616E+0	1.287765E+0	1.295751E+0	1.351425E+0	1.345417E+0	1.264158E+0	1.305430E+0	1.266757E+0	1.340034E+0	1.336214E+0	1.295630E+0	1.334543E+0	1.353064E+0	1.362778E+0	1.298576E+0	1.302383E+0	1.337277E+0	1.293401E+0	1.308730E+0	1.333239E+0	1.319410E+0	1.392732E+0	1.327201E+0	1.270514E+0	1.304531E+0	1.341966E+0	1.347497E+0	1.310924E+0	1.372348E+0	1.322528E+0	1.290629E+0	1.364761E+0	1.369005E+0	1.344780E+0	1.280863E+0	1.305035E+0	1.315037E+0	1.315919E+0	1.334767E+0	1.353056E+0	1.391409E+0	1.344251E+0	1.312704E+0	1.298368E+0	1.347001E+0	1.331497E+0	1.326308E+0	1.340700E+0	1.347765E+0	1.341501E+0	1.268230E+0	1.327159E+0	1.285398E+0	1.352232E+0	1.272461E+0	1.308153E+0	1.342741E+0	1.357002E+0	1.314691E+0	1.316966E+0	1.351906E+0	1.280277E+0	1.279810E+0	1.282403E+0	1.282712E+0	1.337828E+0	1.295713E+0	1.301289E+0	1.297977E+0	1.303115E+0	1.330968E+0	1.307209E+0	1.361464E+0	1.331649E+0	1.300081E+0	1.348700E+0	1.350219E+0	1.353379E+0	1.341415E+0	1.363191E+0	1.364160E+0	1.327290E+0	1.314721E+0	1.346945E+0	1.331232E+0	1.314040E+0	1.348629E+0	1.379470E+0	1.275584E+0	1.345963E+0	1.385721E+0	1.336903E+0	1.263598E+0	1.325777E+0	1.371368E+0	1.275024E+0	1.342304E+0	1.331839E+0	1.361603E+0	1.319249E+0	1.328777E+0	1.349201E+0	1.351300E+0	1.400184E+0	1.328229E+0	1.302662E+0	1.298375E+0	1.329297E+0	1.370649E+0	1.397001E+0	1.313050E+0	1.330112E+0	1.309126E+0	1.299054E+0	1.305647E+0	1.333381E+0	1.318052E+0	1.311156E+0	1.343043E+0	1.370086E+0	1.338382E+0	1.304362E+0	1.342537E+0	1.404440E+0	1.270635E+0	1.297189E+0	1.346258E+0	1.359148E+0	1.329095E+0	1.308278E+0	1.276249E+0	1.370794E+0	1.333868E+0	1.288122E+0	1.315397E+0	1.399569E+0	1.305547E+0	1.314279E+0	1.282607E+0	1.343669E+0	1.350523E+0	1.347119E+0	1.279824E+0	1.312299E+0	1.238021E+0	1.285688E+0	1.308061E+0	1.259797E+0	1.296468E+0	1.316430E+0	1.344262E+0	1.309017E+0	1.344346E+0	1.243504E+0	1.364095E+0	1.318926E+0	1.310071E+0	1.269975E+0	1.274697E+0	1.357578E+0	1.344414E+0	1.330065E+0	1.340206E+0	1.307618E+0	1.379980E+0	1.262440E+0
5.420050E+2	1.180296E+0	1.152095E+0	1.188669E+0	1.205909E+0	1.197787E+0	1.213577E+0	1.198988E+0	1.174862E+0	1.188660E+0	1.157617E+0	1.167722E+0	1.181081E+0	1.172589E+0	1.142398E+0	1.193388E+0	1.155633E+0	1.167278E+0	1.142278E+0	1.201527E+0	1.184592E+0	1.182244E+0	1.175473E+0	1.148618E+0	1.147453E+0	1.183115E+0	1.198349E+0	1.169585E+0	1.220327E+0	1.206056E+0	1.180996E+0	1.176059E+0	1.162891E+0	1.201345E+0	1.130155E+0	1.185710E+0	1.213746E+0	1.168447E+0	1.179934E+0	1.125812E+0	1.160152E+0	1.127686E+0	1.118848E+0	1.160799E+0	1.148656E+0	1.173233E+0	1.163228E+0	1.159992E+0	1.131266E+0	1.194011E+0	1.187060E+0	1.168312E+0	1.178018E+0	1.153254E+0	1.169841E+0	1.187712E+0	1.175933E+0	1.173882E+0	1.141151E+0	1.181200E+0	1.148228E+0	1.171159E+0	1.143028E+0	1.189880E+0	1.152394E+0	1.130101E+0	1.173274E+0	1.195022E+0	1.152735E+0	1.134639E+0	1.159165E+0	1.179757E+0	1.202460E+0	1.155562E+0	1.142860E+0	1.151091E+0	1.133492E+0	1.190414E+0	1.111665E+0	1.137956E+0	1.212939E+0	1.161247E+0	1.179468E+0	1.191004E+0	1.189141E+0	1.164332E+0	1.176927E+0	1.143178E+0	1.178735E+0	1.115080E+0	1.133217E+0	1.173474E+0	1.121921E+0	1.133266E+0	1.105513E+0	1.155599E+0	1.171470E+0	1.140511E+0	1.194743E+0	1.171098E+0	1.245017E+0	1.161723E+0	1.166786E+0	1.169135E+0	1.152506E+0	1.150268E+0	1.167201E+0	1.192178E+0	1.153697E+0	1.184336E+0	1.139007E+0	1.206599E+0	1.132619E+0	1.129561E+0	1.184324E+0	1.178330E+0	1.208021E+0	1.137495E+0	1.171051E+0	1.154883E+0	1.176482E+0	1.173540E+0	1.098504E+0	1.161783E+0	1.201947E+0	1.121876E+0	1.195953E+0	1.104543E+0	1.119406E+0	1.117147E+0	1.166018E+0	1.149518E+0	1.083993E+0	1.186135E+0	1.131739E+0	1.145076E+0	1.177891E+0	1.122434E+0	1.222781E+0	1.155758E+0	1.145306E+0	1.149289E+0	1.178354E+0	1.155938E+0	1.171924E+0	1.148223E+0	1.217043E+0	1.173961E+0	1.184537E+0	1.124106E+0	1.165827E+0	1.133573E+0	1.154311E+0	1.144861E+0	1.127669E+0	1.138505E+0	1.093538E+0	1.177670E+0	1.248429E+0	1.161009E+0	1.171951E+0	1.197543E+0	1.170404E+0	1.205911E+0	1.151545E+0	1.148812E+0	1.210944E+0	1.161140E+0	1.159419E+0	1.213990E+0	1.132232E+0	1.152012E+0	9.569046E-1
5.422730E+2	9.989156E-1	1.047114E+0	1.063539E+0	1.014924E+0	9.840554E-1	1.013416E+0	1.014790E+0	1.017057E+0	1.048724E+0	1.050184E+0	1.043054E+0	1.037282E+0	1.055371E+0	1.037659E+0	1.024026E+0	1.032384E+0	1.050508E+0	1.020992E+0	1.075283E+0	1.063261E+0	1.019918E+0	1.037910E+0	1.011523E+0	1.028343E+0	1.043950E+0	1.051413E+0	1.022833E+0	1.065605E+0	1.035816E+0	1.033177E+0	9.857814E-1	1.009709E+0	1.040141E+0	1.030921E+0	9.918756E-1	1.040796E+0	1.050045E+0	1.024976E+0	1.009332E+0	1.030010E+0	9.471539E-1	9.858691E-1	1.017644E+0	1.052229E+0	1.078998E+0	1.040507E+0	1.071458E+0	1.030853E+0	1.024206E+0	1.006029E+0	1.037100E+0	1.023925E+0	1.076155E+0	1.040655E+0	1.040402E+0	9.950749E-1	1.038259E+0	1.038894E+0	1.024017E+0	1.015662E+0	1.029938E+0	1.034170E+0	1.041481E+0	1.034573E+0	1.001546E+0	1.024817E+0	1.036409E+0	1.012363E+0	1.037657E+0	9.753520E-1	1.078272E+0	1.064299E+0	1.060137E+0	1.009590E+0	1.015946E+0	9.934465E-1	1.009388E+0	1.082103E+0	1.062947E+0	9.439466E-1	9.751770E-1	1.008260E+0	1.069584E+0	1.063437E+0	1.044902E+0	1.035043E+0	1.006845E+0	1.044256E+0	1.001614E+0	1.025598E+0	1.032821E+0	1.008076E+0	1.037070E+0	1.014876E+0	1.021230E+0	1.049617E+0	9.941798E-1	9.665314E-1	1.015077E+0	1.027870E+0	1.034432E+0	9.860085E-1	1.008186E+0	1.022516E+0	1.003188E+0	9.962600E-1	1.012696E+0	1.026473E+0	1.021050E+0	1.004031E+0	1.022380E+0	1.035771E+0	1.053954E+0	9.907736E-1	1.085333E+0	1.027921E+0	1.031915E+0	1.019854E+0	1.067565E+0	1.007917E+0	1.028900E+0	1.002309E+0	1.022049E+0	1.047980E+0	1.069758E+0	9.805514E-1	1.000555E+0	1.049973E+0	1.056423E+0	1.039830E+0	1.054251E+0	9.701350E-1	1.045446E+0	9.747407E-1	1.037452E+0	1.009356E+0	1.017822E+0	1.017448E+0	1.005820E+0	9.890585E-1	1.010620E+0	1.024260E+0	1.052931E+0	1.011226E+0	1.010074E+0	9.801533E-1	1.011465E+0	1.066436E+0	1.054256E+0	1.043890E+0	1.013325E+0	1.057357E+0	1.064651E+0	1.040371E+0	9.961847E-1	1.046843E+0	1.010200E+0	1.014408E+0	1.076174E+0	1.021276E+0	1.003801E+0	9.835891E-1	1.040706E+0	1.009448E+0	1.055049E+0	1.005904E+0	1.047351E+0	1.017304E+0	1.078406E+0	1.014589E+0	9.977168E-1	1.013124E+0
5.425460E+2	9.806073E-1	9.841242E-1	9.136560E-1	9.966488E-1	9.251415E-1	9.164574E-1	9.467047E-1	9.058373E-1	9.262383E-1	9.395750E-1	9.603966E-1	9.399325E-1	9.003351E-1	8.581317E-1	9.408010E-1	9.288964E-1	9.196391E-1	8.888401E-1	9.303933E-1	9.454759E-1	9.064478E-1	9.435475E-1	9.156211E-1	9.398438E-1	9.415567E-1	8.732057E-1	9.719958E-1	1.013747E+0	9.978173E-1	9.464308E-1	9.330520E-1	9.475729E-1	8.920092E-1	9.362613E-1	9.460965E-1	9.907166E-1	9.413023E-1	9.480851E-1	9.055136E-1	9.223761E-1	9.168190E-1	8.922493E-1	9.334878E-1	9.069132E-1	9.259461E-1	9.447918E-1	9.422739E-1	9.398885E-1	9.631198E-1	9.240762E-1	9.591330E-1	9.311807E-1	9.543271E-1	9.048911E-1	9.533342E-1	9.164745E-1	9.204680E-1	9.374077E-1	9.526420E-1	9.101078E-1	9.552108E-1	9.328841E-1	9.427805E-1	9.470041E-1	9.054430E-1	9.214370E-1	9.348362E-1	9.748265E-1	9.261483E-1	9.199458E-1	9.863578E-1	9.381992E-1	9.183256E-1	9.599290E-1	9.455052E-1	9.491928E-1	9.682811E-1	8.968000E-1	9.335299E-1	9.274639E-1	9.630888E-1	9.375211E-1	9.493018E-1	9.488382E-1	8.989468E-1	9.810794E-1	9.332063E-1	9.464210E-1	9.525123E-1	9.348719E-1	9.330530E-1	9.649917E-1	9.562583E-1	9.533009E-1	9.824637E-1	9.513217E-1	9.547247E-1	9.629525E-1	9.733719E-1	9.424774E-1	1.006002E+0	9.102787E-1	9.604861E-1	9.595295E-1	9.322552E-1	8.835878E-1	8.792120E-1	9.307570E-1	9.393467E-1	9.430292E-1	9.370829E-1	8.852479E-1	9.786993E-1	9.133593E-1	1.015396E+0	9.294737E-1	9.416182E-1	9.487047E-1	9.803185E-1	9.664438E-1	9.572336E-1	8.917849E-1	9.134279E-1	9.096144E-1	9.443037E-1	9.167074E-1	9.408620E-1	9.518664E-1	9.586776E-1	8.926997E-1	9.377711E-1	9.085011E-1	9.286357E-1	9.592524E-1	9.649068E-1	8.978780E-1	9.337231E-1	9.609852E-1	9.171853E-1	9.163131E-1	9.022071E-1	9.586909E-1	9.683322E-1	9.745440E-1	9.248117E-1	9.111956E-1	9.445645E-1	9.655199E-1	9.597803E-1	9.971398E-1	9.139535E-1	9.644666E-1	9.586707E-1	8.825795E-1	9.633024E-1	9.421685E-1	9.832390E-1	9.741512E-1	9.037771E-1	9.335764E-1	9.356317E-1	9.199082E-1	9.162266E-1	9.043475E-1	9.896928E-1	9.532417E-1	9.364896E-1	9.505855E-1	8.586572E-1	9.087981E-1	9.909775E-1	9.112057E-1
5.427600E+2	9.470623E-1	9.009057E-1	9.083733E-1	1.003089E+0	9.738891E-1	8.999918E-1	8.967472E-1	9.680735E-1	9.554110E-1	9.508929E-1	9.285114E-1	9.309176E-1	9.672328E-1	9.119826E-1	9.560458E-1	9.608980E-1	9.551651E-1	9.439716E-1	9.686987E-1	9.383304E-1	9.596392E-1	9.501642E-1	9.734792E-1	9.187082E-1	9.015241E-1	9.636392E-1	9.316175E-1	9.957160E-1	9.390793E-1	9.336099E-1	9.786498E-1	8.913582E-1	9.403084E-1	9.731125E-1	9.580220E-1	9.412001E-1	9.537186E-1	9.474094E-1	9.522620E-1	9.075073E-1	9.723789E-1	9.398376E-1	9.391924E-1	9.645467E-1	9.535166E-1	9.179802E-1	1.022888E+0	9.266800E-1	1.009625E+0	9.746256E-1	9.584486E-1	9.636022E-1	9.143784E-1	9.153943E-1	9.224758E-1	9.459197E-1	9.338301E-1	9.361323E-1	9.582771E-1	9.171374E-1	9.437208E-1	9.406350E-1	9.339626E-1	9.571935E-1	9.521722E-1	9.317144E-1	9.488478E-1	9.222584E-1	9.455057E-1	9.263636E-1	8.990718E-1	9.714996E-1	9.390883E-1	9.469262E-1	9.712099E-1	9.269661E-1	9.843718E-1	9.820251E-1	9.267305E-1	9.587361E-1	1.013988E+0	9.864062E-1	9.255956E-1	9.621468E-1	9.244546E-1	8.954867E-1	9.185643E-1	9.454163E-1	9.414376E-1	9.717802E-1	9.003693E-1	9.751010E-1	9.686249E-1	9.811353E-1	9.544284E-1	9.598392E-1	9.323512E-1	9.466066E-1	9.869153E-1	9.659655E-1	9.192180E-1	9.519035E-1	9.388156E-1	9.583814E-1	9.253233E-1	9.255318E-1	9.758957E-1	1.000288E+0	9.302947E-1	9.360574E-1	1.011742E+0	9.564983E-1	9.536773E-1	9.246169E-1	9.430869E-1	9.510097E-1	9.514007E-1	9.564221E-1	9.721892E-1	9.261592E-1	9.333965E-1	8.884036E-1	9.358735E-1	1.002835E+0	9.583118E-1	9.442167E-1	9.442335E-1	9.377932E-1	8.896641E-1	9.497975E-1	9.205067E-1	9.300385E-1	9.707769E-1	9.397578E-1	9.423946E-1	8.850137E-1	9.647333E-1	9.370301E-1	9.553654E-1	9.156421E-1	9.285816E-1	9.303239E-1	9.807174E-1	9.446746E-1	9.504825E-1	9.666711E-1	9.280638E-1	9.330729E-1	9.540935E-1	9.854684E-1	9.365996E-1	9.565250E-1	9.262716E-1	1.015825E+0	9.230399E-1	9.787631E-1	9.240102E-1	9.496391E-1	9.834950E-1	9.255944E-1	9.563666E-1	9.706049E-1	9.591043E-1	9.857266E-1	9.160873E-1	9.243655E-1	9.880634E-1	9.261969E-1	9.584629E-1	9.490934E-1	9.504789E-1	9.884883E-1
5.430120E+2	1.024330E+0	1.030239E+0	1.063314E+0	1.057834E+0	1.080499E+0	9.838923E-1	1.081494E+0	1.015222E+0	1.079597E+0	9.902056E-1	1.030229E+0	1.038678E+0	1.058861E+0	1.044242E+0	1.022190E+0	1.016486E+0	1.018209E+0	1.001966E+0	1.075091E+0	1.012702E+0	1.017540E+0	1.028309E+0	1.020562E+0	9.968317E-1	1.044207E+0	1.055407E+0	1.076704E+0	1.046153E+0	1.035645E+0	1.010173E+0	1.048002E+0	1.039616E+0	1.035605E+0	1.014923E+0	1.069362E+0	1.022168E+0	1.018914E+0	1.029567E+0	1.006328E+0	1.067834E+0	1.040370E+0	1.013016E+0	1.025731E+0	1.018169E+0	1.040420E+0	1.052511E+0	1.067740E+0	1.040581E+0	1.040302E+0	1.043724E+0	1.048127E+0	1.071320E+0	1.034630E+0	9.732053E-1	1.035694E+0	1.035196E+0	1.037803E+0	1.016735E+0	1.010464E+0	1.031003E+0	1.038691E+0	1.064243E+0	1.043878E+0	1.028883E+0	1.014749E+0	1.015590E+0	1.029838E+0	1.044135E+0	1.012512E+0	9.881203E-1	1.020897E+0	1.036380E+0	1.055083E+0	1.083317E+0	1.070697E+0	1.064062E+0	1.024271E+0	1.009712E+0	1.022720E+0	9.989559E-1	1.044524E+0	9.985473E-1	1.089482E+0	1.083934E+0	1.050018E+0	1.020360E+0	1.041013E+0	1.028828E+0	1.037867E+0	1.043599E+0	9.703727E-1	1.022345E+0	1.067792E+0	1.029883E+0	1.065372E+0	1.068478E+0	1.038451E+0	9.933273E-1	1.087968E+0	1.053354E+0	1.046440E+0	1.037899E+0	1.057574E+0	1.055607E+0	1.030844E+0	1.047293E+0	1.031291E+0	1.039445E+0	1.053192E+0	1.037081E+0	1.020747E+0	9.987218E-1	9.882331E-1	9.960575E-1	1.052677E+0	1.045411E+0	1.021401E+0	1.036749E+0	1.066435E+0	1.091061E+0	1.062223E+0	1.032226E+0	1.026040E+0	1.029796E+0	1.017412E+0	1.023272E+0	1.035079E+0	1.013968E+0	1.024713E+0	1.035791E+0	1.063368E+0	1.002789E+0	1.043319E+0	1.033722E+0	1.042280E+0	1.012317E+0	9.948727E-1	1.063429E+0	1.060831E+0	1.006843E+0	1.039831E+0	1.050796E+0	1.075493E+0	1.067209E+0	1.019069E+0	1.031490E+0	1.026731E+0	1.024498E+0	1.044597E+0	1.065731E+0	1.019355E+0	1.075752E+0	1.030691E+0	1.033028E+0	1.054619E+0	1.008152E+0	1.001090E+0	9.895175E-1	1.019154E+0	1.017361E+0	1.031282E+0	1.084363E+0	1.078160E+0	1.056167E+0	1.023670E+0	9.959624E-1	1.052266E+0	1.051005E+0	1.039858E+0	1.060041E+0	1.067243E+0	1.026132E+0
5.432910E+2	1.244531E+0	1.245731E+0	1.168004E+0	1.223662E+0	1.220577E+0	1.224934E+0	1.147933E+0	1.170750E+0	1.211285E+0	1.178631E+0	1.189422E+0	1.149491E+0	1.168564E+0	1.218049E+0	1.182737E+0	1.201494E+0	1.254083E+0	1.171577E+0	1.161015E+0	1.170690E+0	1.189326E+0	1.236042E+0	1.139571E+0	1.219540E+0	1.226648E+0	1.164117E+0	1.162209E+0	1.197885E+0	1.179782E+0	1.163374E+0	1.221540E+0	1.152475E+0	1.237461E+0	1.137883E+0	1.177513E+0	1.227436E+0	1.124914E+0	1.146692E+0	1.201002E+0	1.205073E+0	1.146017E+0	1.194157E+0	1.194880E+0	1.159937E+0	1.187651E+0	1.177177E+0	1.236928E+0	1.220672E+0	1.166005E+0	1.218276E+0	1.178318E+0	1.230202E+0	1.208228E+0	1.210743E+0	1.183249E+0	1.179353E+0	1.231320E+0	1.197627E+0	1.214248E+0	1.184622E+0	1.203633E+0	1.211933E+0	1.153905E+0	1.182702E+0	1.156343E+0	1.213577E+0	1.160131E+0	1.228887E+0	1.191206E+0	1.201149E+0	1.185176E+0	1.219996E+0	1.240361E+0	1.237919E+0	1.188894E+0	1.189601E+0	1.194086E+0	1.218373E+0	1.217934E+0	1.212254E+0	1.212582E+0	1.166082E+0	1.224349E+0	1.190606E+0	1.182012E+0	1.170013E+0	1.184904E+0	1.194951E+0	1.189221E+0	1.155424E+0	1.151004E+0	1.152282E+0	1.160220E+0	1.151001E+0	1.219412E+0	1.173261E+0	1.157321E+0	1.202821E+0	1.234014E+0	1.161363E+0	1.207431E+0	1.212048E+0	1.182240E+0	1.134913E+0	1.156147E+0	1.189522E+0	1.197796E+0	1.186035E+0	1.150675E+0	1.179666E+0	1.198541E+0	1.187398E+0	1.193088E+0	1.137488E+0	1.162102E+0	1.227563E+0	1.211070E+0	1.169643E+0	1.177877E+0	1.233575E+0	1.183259E+0	1.159794E+0	1.124758E+0	1.231202E+0	1.208279E+0	1.175390E+0	1.206449E+0	1.176022E+0	1.189400E+0	1.144473E+0	1.235764E+0	1.152670E+0	1.235269E+0	1.197328E+0	1.186217E+0	1.226693E+0	1.224845E+0	1.228144E+0	1.220428E+0	1.155237E+0	1.185654E+0	1.206023E+0	1.210928E+0	1.209861E+0	1.200577E+0	1.166607E+0	1.176730E+0	1.190651E+0	1.207222E+0	1.210541E+0	1.151682E+0	1.215514E+0	1.200417E+0	1.203029E+0	1.205073E+0	1.210236E+0	1.144223E+0	1.171373E+0	1.171009E+0	1.181663E+0	1.181625E+0	1.199997E+0	1.220454E+0	1.138421E+0	1.205711E+0	1.165247E+0	1.205507E+0	1.207391E+0	1.189595E+0	1.191081E+0	1.203936E+0	1.098773E+0
5.435270E+2	1.303841E+0	1.292400E+0	1.296591E+0	1.331135E+0	1.392306E+0	1.323264E+0	1.266455E+0	1.327548E+0	1.315751E+0	1.370134E+0	1.322469E+0	1.312335E+0	1.367036E+0	1.314125E+0	1.315942E+0	1.404945E+0	1.294867E+0	1.350504E+0	1.383875E+0	1.302242E+0	1.344496E+0	1.301251E+0	1.346064E+0	1.362818E+0	1.386167E+0	1.382864E+0	1.378751E+0	1.413268E+0	1.336871E+0	1.307828E+0	1.356658E+0	1.328951E+0	1.306753E+0	1.309612E+0	1.343287E+0	1.325876E+0	1.276617E+0	1.331510E+0	1.319317E+0	1.311884E+0	1.311539E+0	1.306051E+0	1.324419E+0	1.356751E+0	1.309659E+0	1.292539E+0	1.420633E+0	1.322075E+0	1.343830E+0	1.319427E+0	1.331619E+0	1.345935E+0	1.396650E+0	1.304901E+0	1.303453E+0	1.358145E+0	1.374308E+0	1.308965E+0	1.349528E+0	1.380467E+0	1.353009E+0	1.326521E+0	1.328595E+0	1.314653E+0	1.301101E+0	1.267968E+0	1.380698E+0	1.326671E+0	1.376416E+0	1.301987E+0	1.376804E+0	1.312746E+0	1.324067E+0	1.335561E+0	1.316555E+0	1.384242E+0	1.320256E+0	1.327181E+0	1.362843E+0	1.275010E+0	1.351616E+0	1.365005E+0	1.332129E+0	1.350187E+0	1.331924E+0	1.315334E+0	1.301335E+0	1.311174E+0	1.253260E+0	1.286409E+0	1.315385E+0	1.292693E+0	1.323908E+0	1.342397E+0	1.339818E+0	1.376825E+0	1.276020E+0	1.307534E+0	1.353705E+0	1.354133E+0	1.315522E+0	1.277514E+0	1.293838E+0	1.333965E+0	1.297721E+0	1.303246E+0	1.338556E+0	1.298022E+0	1.357837E+0	1.376921E+0	1.341176E+0	1.336301E+0	1.331738E+0	1.324495E+0	1.402057E+0	1.343604E+0	1.364396E+0	1.354181E+0	1.298428E+0	1.335826E+0	1.350784E+0	1.301563E+0	1.283599E+0	1.333769E+0	1.301617E+0	1.302232E+0	1.362573E+0	1.291890E+0	1.346288E+0	1.294296E+0	1.307191E+0	1.281318E+0	1.327863E+0	1.342994E+0	1.324456E+0	1.328069E+0	1.342417E+0	1.306073E+0	1.314221E+0	1.302673E+0	1.271493E+0	1.328836E+0	1.345266E+0	1.309442E+0	1.281823E+0	1.340533E+0	1.341328E+0	1.331750E+0	1.361206E+0	1.357814E+0	1.323916E+0	1.349742E+0	1.353571E+0	1.316539E+0	1.304482E+0	1.355525E+0	1.272507E+0	1.279570E+0	1.374184E+0	1.305953E+0	1.288197E+0	1.356696E+0	1.311172E+0	1.280505E+0	1.233392E+0	1.299399E+0	1.301999E+0	1.320314E+0	1.358454E+0	1.299727E+0	1.435024E+0	1.167893E+0
5.437850E+2	1.428918E+0	1.493125E+0	1.442624E+0	1.513748E+0	1.447700E+0	1.414847E+0	1.406315E+0	1.458892E+0	1.463318E+0	1.440597E+0	1.432611E+0	1.369999E+0	1.456920E+0	1.394251E+0	1.480100E+0	1.451625E+0	1.398605E+0	1.431031E+0	1.486819E+0	1.434724E+0	1.491644E+0	1.449582E+0	1.446731E+0	1.442242E+0	1.477016E+0	1.431626E+0	1.460105E+0	1.488839E+0	1.435625E+0	1.440261E+0	1.493694E+0	1.419179E+0	1.447058E+0	1.430620E+0	1.415311E+0	1.401426E+0	1.466532E+0	1.466891E+0	1.394482E+0	1.428724E+0	1.388853E+0	1.401180E+0	1.426580E+0	1.450943E+0	1.477679E+0	1.424735E+0	1.526820E+0	1.447585E+0	1.445505E+0	1.419335E+0	1.461939E+0	1.426097E+0	1.455227E+0	1.421371E+0	1.382367E+0	1.428981E+0	1.439628E+0	1.451057E+0	1.437877E+0	1.469296E+0	1.429519E+0	1.460484E+0	1.403738E+0	1.488931E+0	1.403128E+0	1.427589E+0	1.455496E+0	1.459680E+0	1.439615E+0	1.433529E+0	1.425054E+0	1.440223E+0	1.474439E+0	1.373380E+0	1.431597E+0	1.428933E+0	1.467992E+0	1.417647E+0	1.428347E+0	1.450286E+0	1.455034E+0	1.448489E+0	1.509843E+0	1.481167E+0	1.454629E+0	1.417684E+0	1.479824E+0	1.386296E+0	1.409508E+0	1.445654E+0	1.477239E+0	1.384699E+0	1.443905E+0	1.449217E+0	1.479658E+0	1.450884E+0	1.450062E+0	1.420803E+0	1.446529E+0	1.398254E+0	1.417661E+0	1.388290E+0	1.447658E+0	1.427162E+0	1.459746E+0	1.413627E+0	1.449450E+0	1.421609E+0	1.457435E+0	1.406827E+0	1.441605E+0	1.440608E+0	1.410643E+0	1.405567E+0	1.487372E+0	1.477832E+0	1.433562E+0	1.439461E+0	1.439861E+0	1.488150E+0	1.433199E+0	1.396793E+0	1.372147E+0	1.428036E+0	1.386266E+0	1.410711E+0	1.396306E+0	1.469057E+0	1.400017E+0	1.457705E+0	1.476233E+0	1.388376E+0	1.408311E+0	1.474306E+0	1.444489E+0	1.359830E+0	1.471479E+0	1.457796E+0	1.414294E+0	1.391685E+0	1.426913E+0	1.456678E+0	1.399317E+0	1.404878E+0	1.390592E+0	1.434346E+0	1.389237E+0	1.430209E+0	1.495703E+0	1.400682E+0	1.430985E+0	1.485801E+0	1.472459E+0	1.399401E+0	1.396614E+0	1.361794E+0	1.398016E+0	1.444725E+0	1.429801E+0	1.436318E+0	1.402520E+0	1.421853E+0	1.480628E+0	1.396612E+0	1.445936E+0	1.385368E+0	1.398798E+0	1.454092E+0	1.416411E+0	1.412082E+0	1.423369E+0	1.349431E+0
5.440060E+2	1.538192E+0	1.573725E+0	1.584974E+0	1.568434E+0	1.624003E+0	1.570246E+0	1.520638E+0	1.528211E+0	1.523526E+0	1.567978E+0	1.561112E+0	1.513396E+0	1.579795E+0	1.485389E+0	1.556567E+0	1.533765E+0	1.515673E+0	1.532917E+0	1.670671E+0	1.549398E+0	1.594604E+0	1.556181E+0	1.539470E+0	1.529834E+0	1.509131E+0	1.531661E+0	1.544249E+0	1.552774E+0	1.502856E+0	1.519610E+0	1.549535E+0	1.493108E+0	1.511160E+0	1.503210E+0	1.614642E+0	1.608273E+0	1.519635E+0	1.557949E+0	1.554022E+0	1.563528E+0	1.512489E+0	1.497203E+0	1.558043E+0	1.516698E+0	1.580428E+0	1.569062E+0	1.595273E+0	1.531750E+0	1.535144E+0	1.484062E+0	1.572548E+0	1.556028E+0	1.575444E+0	1.541995E+0	1.534858E+0	1.517778E+0	1.593897E+0	1.494848E+0	1.626634E+0	1.551542E+0	1.548110E+0	1.489213E+0	1.538959E+0	1.576935E+0	1.544117E+0	1.552633E+0	1.596681E+0	1.581227E+0	1.542186E+0	1.508874E+0	1.574065E+0	1.481483E+0	1.526486E+0	1.492241E+0	1.524139E+0	1.561534E+0	1.507037E+0	1.617508E+0	1.526914E+0	1.524061E+0	1.542335E+0	1.561155E+0	1.524826E+0	1.613086E+0	1.565363E+0	1.537849E+0	1.574193E+0	1.494575E+0	1.489574E+0	1.503770E+0	1.568817E+0	1.542029E+0	1.529841E+0	1.472319E+0	1.537244E+0	1.565815E+0	1.531639E+0	1.512677E+0	1.530423E+0	1.597185E+0	1.563745E+0	1.523634E+0	1.526138E+0	1.544024E+0	1.568073E+0	1.536132E+0	1.575241E+0	1.596085E+0	1.576555E+0	1.515589E+0	1.551139E+0	1.490570E+0	1.599954E+0	1.508414E+0	1.589512E+0	1.476240E+0	1.522120E+0	1.539364E+0	1.551363E+0	1.487778E+0	1.551282E+0	1.470126E+0	1.533960E+0	1.546964E+0	1.585916E+0	1.467272E+0	1.552281E+0	1.500188E+0	1.545575E+0	1.463409E+0	1.541415E+0	1.495517E+0	1.522561E+0	1.509795E+0	1.609954E+0	1.500764E+0	1.580474E+0	1.556664E+0	1.586129E+0	1.540657E+0	1.537616E+0	1.476282E+0	1.533069E+0	1.498255E+0	1.520060E+0	1.465724E+0	1.506010E+0	1.511728E+0	1.535950E+0	1.476725E+0	1.496967E+0	1.543098E+0	1.484251E+0	1.515514E+0	1.535001E+0	1.479831E+0	1.513498E+0	1.502670E+0	1.579132E+0	1.465967E+0	1.508471E+0	1.546749E+0	1.498719E+0	1.493340E+0	1.505086E+0	1.469967E+0	1.453564E+0	1.542507E+0	1.537079E+0	1.489981E+0	1.599233E+0	1.380042E+0
5.442750E+2	1.552052E+0	1.589813E+0	1.625131E+0	1.596691E+0	1.655303E+0	1.536345E+0	1.548914E+0	1.524707E+0	1.632192E+0	1.644248E+0	1.622082E+0	1.542265E+0	1.577496E+0	1.565426E+0	1.577195E+0	1.557757E+0	1.565250E+0	1.541092E+0	1.624457E+0	1.606110E+0	1.547194E+0	1.559330E+0	1.553539E+0	1.564070E+0	1.553401E+0	1.594921E+0	1.565843E+0	1.596803E+0	1.552854E+0	1.602921E+0	1.590147E+0	1.594045E+0	1.523581E+0	1.641292E+0	1.626281E+0	1.584571E+0	1.583051E+0	1.636575E+0	1.541084E+0	1.563414E+0	1.538440E+0	1.504712E+0	1.572676E+0	1.542714E+0	1.602276E+0	1.529186E+0	1.578564E+0	1.562568E+0	1.505348E+0	1.545602E+0	1.614651E+0	1.647496E+0	1.608328E+0	1.566802E+0	1.604567E+0	1.534881E+0	1.611355E+0	1.513450E+0	1.528309E+0	1.528640E+0	1.541907E+0	1.578804E+0	1.576096E+0	1.557178E+0	1.549876E+0	1.585907E+0	1.589621E+0	1.571019E+0	1.570392E+0	1.534032E+0	1.578228E+0	1.548602E+0	1.637729E+0	1.564074E+0	1.573087E+0	1.547908E+0	1.542517E+0	1.559169E+0	1.649649E+0	1.621650E+0	1.615431E+0	1.579697E+0	1.606712E+0	1.649847E+0	1.553281E+0	1.569462E+0	1.591584E+0	1.578814E+0	1.521316E+0	1.510025E+0	1.600779E+0	1.581698E+0	1.535736E+0	1.537791E+0	1.561001E+0	1.574957E+0	1.524988E+0	1.524841E+0	1.595424E+0	1.497636E+0	1.555132E+0	1.572752E+0	1.573196E+0	1.600603E+0	1.553200E+0	1.530037E+0	1.522865E+0	1.530019E+0	1.584914E+0	1.522910E+0	1.576845E+0	1.549998E+0	1.597727E+0	1.550193E+0	1.574338E+0	1.550844E+0	1.544603E+0	1.512459E+0	1.574118E+0	1.527186E+0	1.567564E+0	1.552560E+0	1.530279E+0	1.552969E+0	1.561922E+0	1.543925E+0	1.519507E+0	1.526679E+0	1.521125E+0	1.497153E+0	1.599433E+0	1.528632E+0	1.588470E+0	1.560040E+0	1.513322E+0	1.534289E+0	1.555355E+0	1.537859E+0	1.513707E+0	1.551263E+0	1.541515E+0	1.477320E+0	1.516784E+0	1.578163E+0	1.554842E+0	1.546373E+0	1.559565E+0	1.568941E+0	1.539037E+0	1.516490E+0	1.591365E+0	1.547424E+0	1.488165E+0	1.536816E+0	1.556216E+0	1.522144E+0	1.517214E+0	1.563750E+0	1.587719E+0	1.546664E+0	1.540398E+0	1.557186E+0	1.577992E+0	1.554040E+0	1.595572E+0	1.497172E+0	1.576712E+0	1.535647E+0	1.537812E+0	1.500598E+0	1.564093E+0	1.466778E+0
5.445240E+2	1.539844E+0	1.586360E+0	1.604879E+0	1.608883E+0	1.594047E+0	1.519058E+0	1.550946E+0	1.542986E+0	1.695654E+0	1.587156E+0	1.581578E+0	1.518857E+0	1.565414E+0	1.553814E+0	1.575479E+0	1.578923E+0	1.555976E+0	1.573178E+0	1.605937E+0	1.642844E+0	1.551939E+0	1.554654E+0	1.507062E+0	1.563560E+0	1.555179E+0	1.551697E+0	1.575807E+0	1.584697E+0	1.585152E+0	1.536066E+0	1.572778E+0	1.589957E+0	1.530122E+0	1.594044E+0	1.581172E+0	1.579096E+0	1.553203E+0	1.561112E+0	1.556909E+0	1.549239E+0	1.571723E+0	1.546298E+0	1.540865E+0	1.578983E+0	1.524060E+0	1.558174E+0	1.548900E+0	1.538532E+0	1.526140E+0	1.529657E+0	1.583605E+0	1.505084E+0	1.578298E+0	1.564990E+0	1.519760E+0	1.515692E+0	1.515167E+0	1.546951E+0	1.556130E+0	1.599079E+0	1.539739E+0	1.552098E+0	1.517716E+0	1.532738E+0	1.547127E+0	1.543630E+0	1.597520E+0	1.543290E+0	1.562433E+0	1.526838E+0	1.571776E+0	1.537242E+0	1.582111E+0	1.576870E+0	1.569431E+0	1.478763E+0	1.565748E+0	1.487104E+0	1.596989E+0	1.553483E+0	1.582621E+0	1.564619E+0	1.534817E+0	1.645048E+0	1.539661E+0	1.554888E+0	1.566719E+0	1.556220E+0	1.561198E+0	1.537322E+0	1.538781E+0	1.503272E+0	1.467771E+0	1.502214E+0	1.540524E+0	1.621989E+0	1.528943E+0	1.520240E+0	1.635924E+0	1.575043E+0	1.543261E+0	1.520810E+0	1.490091E+0	1.593607E+0	1.472036E+0	1.570117E+0	1.545110E+0	1.569738E+0	1.521407E+0	1.481702E+0	1.591744E+0	1.519143E+0	1.551521E+0	1.547633E+0	1.645443E+0	1.562020E+0	1.499808E+0	1.568861E+0	1.565900E+0	1.545427E+0	1.560642E+0	1.498002E+0	1.498897E+0	1.549010E+0	1.550842E+0	1.491888E+0	1.468921E+0	1.549530E+0	1.540568E+0	1.604830E+0	1.588215E+0	1.503925E+0	1.517050E+0	1.508782E+0	1.518323E+0	1.502874E+0	1.504782E+0	1.553076E+0	1.508841E+0	1.517043E+0	1.500670E+0	1.565796E+0	1.644731E+0	1.525769E+0	1.508724E+0	1.496116E+0	1.543643E+0	1.518530E+0	1.518638E+0	1.538178E+0	1.492112E+0	1.547787E+0	1.604331E+0	1.487503E+0	1.529239E+0	1.503681E+0	1.496501E+0	1.540989E+0	1.543714E+0	1.489741E+0	1.484406E+0	1.506092E+0	1.543455E+0	1.452567E+0	1.541808E+0	1.494878E+0	1.510657E+0	1.496822E+0	1.514250E+0	1.513562E+0	1.627829E+0	1.481177E+0
5.447610E+2	1.471649E+0	1.491014E+0	1.465874E+0	1.491301E+0	1.512753E+0	1.399504E+0	1.481510E+0	1.481560E+0	1.489109E+0	1.499011E+0	1.471234E+0	1.431745E+0	1.463041E+0	1.472303E+0	1.458284E+0	1.449123E+0	1.486533E+0	1.434949E+0	1.491783E+0	1.524446E+0	1.508989E+0	1.453596E+0	1.443496E+0	1.468100E+0	1.510631E+0	1.438106E+0	1.517188E+0	1.535496E+0	1.502539E+0	1.420707E+0	1.496019E+0	1.480405E+0	1.479117E+0	1.450718E+0	1.463183E+0	1.495652E+0	1.440793E+0	1.494114E+0	1.430236E+0	1.464762E+0	1.379638E+0	1.381100E+0	1.525656E+0	1.413550E+0	1.466522E+0	1.500459E+0	1.486898E+0	1.461067E+0	1.478363E+0	1.481804E+0	1.504989E+0	1.473555E+0	1.507259E+0	1.423053E+0	1.480558E+0	1.469844E+0	1.442952E+0	1.452875E+0	1.474388E+0	1.493453E+0	1.477068E+0	1.482937E+0	1.516604E+0	1.473108E+0	1.480644E+0	1.458625E+0	1.455176E+0	1.487780E+0	1.440126E+0	1.494191E+0	1.461762E+0	1.475866E+0	1.447742E+0	1.506859E+0	1.471881E+0	1.511775E+0	1.452406E+0	1.484000E+0	1.429717E+0	1.463751E+0	1.484541E+0	1.477147E+0	1.494309E+0	1.510834E+0	1.465825E+0	1.484176E+0	1.482938E+0	1.471669E+0	1.440959E+0	1.418841E+0	1.426056E+0	1.486059E+0	1.411908E+0	1.454082E+0	1.509457E+0	1.502394E+0	1.444436E+0	1.500729E+0	1.494337E+0	1.466873E+0	1.465612E+0	1.481940E+0	1.512179E+0	1.465804E+0	1.457124E+0	1.460282E+0	1.441521E+0	1.440506E+0	1.470645E+0	1.456999E+0	1.508354E+0	1.451392E+0	1.482594E+0	1.439096E+0	1.486326E+0	1.510405E+0	1.528652E+0	1.451311E+0	1.439972E+0	1.475237E+0	1.508325E+0	1.425228E+0	1.429083E+0	1.428962E+0	1.496559E+0	1.410269E+0	1.434559E+0	1.462994E+0	1.464098E+0	1.412257E+0	1.485529E+0	1.387299E+0	1.460325E+0	1.457821E+0	1.447771E+0	1.450195E+0	1.457084E+0	1.480440E+0	1.480958E+0	1.465985E+0	1.479459E+0	1.432940E+0	1.459457E+0	1.422828E+0	1.443534E+0	1.477609E+0	1.464406E+0	1.513947E+0	1.507742E+0	1.454512E+0	1.421811E+0	1.434745E+0	1.455359E+0	1.429951E+0	1.507705E+0	1.483710E+0	1.437316E+0	1.469530E+0	1.467528E+0	1.428051E+0	1.442704E+0	1.424234E+0	1.447079E+0	1.451672E+0	1.444497E+0	1.412488E+0	1.476831E+0	1.433596E+0	1.381091E+0	1.461130E+0	1.495202E+0	1.330327E+0
5.450150E+2	1.387021E+0	1.367775E+0	1.395674E+0	1.389160E+0	1.377269E+0	1.339907E+0	1.358727E+0	1.385569E+0	1.424404E+0	1.366707E+0	1.347579E+0	1.329231E+0	1.390709E+0	1.399524E+0	1.321177E+0	1.378514E+0	1.369308E+0	1.313605E+0	1.440598E+0	1.368800E+0	1.351167E+0	1.394692E+0	1.369529E+0	1.346458E+0	1.356525E+0	1.331853E+0	1.341623E+0	1.346075E+0	1.366515E+0	1.335685E+0	1.348023E+0	1.409893E+0	1.371485E+0	1.386389E+0	1.361772E+0	1.363461E+0	1.351787E+0	1.337526E+0	1.346138E+0	1.340749E+0	1.362300E+0	1.344205E+0	1.318444E+0	1.318482E+0	1.327552E+0	1.329059E+0	1.419731E+0	1.341076E+0	1.376168E+0	1.364458E+0	1.362709E+0	1.353589E+0	1.418636E+0	1.404673E+0	1.324722E+0	1.323333E+0	1.411253E+0	1.384805E+0	1.432193E+0	1.344021E+0	1.375067E+0	1.327092E+0	1.362177E+0	1.394818E+0	1.337865E+0	1.331555E+0	1.371680E+0	1.375127E+0	1.413429E+0	1.358792E+0	1.364159E+0	1.390492E+0	1.347277E+0	1.343464E+0	1.373911E+0	1.316083E+0	1.361387E+0	1.293691E+0	1.370897E+0	1.344294E+0	1.278714E+0	1.373042E+0	1.402828E+0	1.365440E+0	1.296822E+0	1.350078E+0	1.358808E+0	1.370309E+0	1.332462E+0	1.325082E+0	1.380268E+0	1.384411E+0	1.381157E+0	1.361079E+0	1.406850E+0	1.393670E+0	1.333141E+0	1.327411E+0	1.371350E+0	1.313468E+0	1.368914E+0	1.342947E+0	1.374254E+0	1.348946E+0	1.364798E+0	1.325605E+0	1.363048E+0	1.358202E+0	1.365666E+0	1.367474E+0	1.391006E+0	1.352594E+0	1.288607E+0	1.354755E+0	1.387150E+0	1.355520E+0	1.310465E+0	1.351341E+0	1.294980E+0	1.338400E+0	1.308223E+0	1.297719E+0	1.323824E+0	1.349547E+0	1.435762E+0	1.337164E+0	1.306884E+0	1.337575E+0	1.330706E+0	1.367473E+0	1.367529E+0	1.351715E+0	1.355049E+0	1.360835E+0	1.317248E+0	1.328471E+0	1.373482E+0	1.347183E+0	1.377664E+0	1.342390E+0	1.346332E+0	1.402179E+0	1.304296E+0	1.322684E+0	1.359619E+0	1.297226E+0	1.288849E+0	1.294196E+0	1.405091E+0	1.323082E+0	1.328509E+0	1.374396E+0	1.314643E+0	1.384036E+0	1.394477E+0	1.361383E+0	1.316835E+0	1.340544E+0	1.378660E+0	1.309934E+0	1.346146E+0	1.377668E+0	1.391285E+0	1.370490E+0	1.360110E+0	1.388495E+0	1.357976E+0	1.368740E+0	1.332752E+0	1.364124E+0	1.513108E+0	1.286319E+0
5.452580E+2	1.417995E+0	1.322842E+0	1.376170E+0	1.401753E+0	1.394553E+0	1.362817E+0	1.362602E+0	1.312644E+0	1.344173E+0	1.352789E+0	1.356134E+0	1.327512E+0	1.329140E+0	1.295868E+0	1.324639E+0	1.397832E+0	1.325451E+0	1.356605E+0	1.350193E+0	1.360330E+0	1.312363E+0	1.363029E+0	1.383664E+0	1.343802E+0	1.351778E+0	1.369971E+0	1.389609E+0	1.413557E+0	1.345158E+0	1.290272E+0	1.325622E+0	1.343647E+0	1.320990E+0	1.269429E+0	1.350626E+0	1.398266E+0	1.386569E+0	1.319039E+0	1.357898E+0	1.341526E+0	1.345169E+0	1.355411E+0	1.374337E+0	1.315188E+0	1.352594E+0	1.320663E+0	1.338118E+0	1.358022E+0	1.386756E+0	1.371197E+0	1.300589E+0	1.321086E+0	1.346896E+0	1.336094E+0	1.323703E+0	1.362136E+0	1.408294E+0	1.334164E+0	1.313509E+0	1.287480E+0	1.362268E+0	1.331535E+0	1.333937E+0	1.355101E+0	1.303981E+0	1.304720E+0	1.346111E+0	1.308719E+0	1.330145E+0	1.287254E+0	1.359739E+0	1.334526E+0	1.314991E+0	1.339206E+0	1.314330E+0	1.330319E+0	1.367159E+0	1.361406E+0	1.378004E+0	1.350623E+0	1.331771E+0	1.325625E+0	1.326113E+0	1.403700E+0	1.385118E+0	1.311999E+0	1.357151E+0	1.314703E+0	1.323885E+0	1.305608E+0	1.300355E+0	1.337722E+0	1.308314E+0	1.365101E+0	1.384588E+0	1.366094E+0	1.328282E+0	1.303921E+0	1.348477E+0	1.366325E+0	1.359046E+0	1.306949E+0	1.316831E+0	1.303289E+0	1.302990E+0	1.323097E+0	1.335053E+0	1.393779E+0	1.327444E+0	1.335214E+0	1.404796E+0	1.319214E+0	1.368326E+0	1.338715E+0	1.399120E+0	1.318481E+0	1.364687E+0	1.348834E+0	1.307917E+0	1.338226E+0	1.313772E+0	1.335640E+0	1.273899E+0	1.333338E+0	1.355863E+0	1.297126E+0	1.395148E+0	1.369747E+0	1.302720E+0	1.355770E+0	1.328480E+0	1.305247E+0	1.345682E+0	1.367294E+0	1.296369E+0	1.279080E+0	1.291751E+0	1.337960E+0	1.386043E+0	1.323308E+0	1.302700E+0	1.296917E+0	1.363984E+0	1.347297E+0	1.344046E+0	1.352623E+0	1.337356E+0	1.320461E+0	1.348464E+0	1.314315E+0	1.272295E+0	1.367335E+0	1.409780E+0	1.304776E+0	1.314998E+0	1.390623E+0	1.299701E+0	1.309971E+0	1.315858E+0	1.332777E+0	1.308373E+0	1.328754E+0	1.359727E+0	1.301426E+0	1.339474E+0	1.318619E+0	1.324952E+0	1.306450E+0	1.276712E+0	1.335291E+0	1.371331E+0	1.305423E+0
5.455290E+2	1.281326E+0	1.260873E+0	1.302286E+0	1.328129E+0	1.351848E+0	1.248468E+0	1.340893E+0	1.329203E+0	1.323940E+0	1.378873E+0	1.346314E+0	1.213159E+0	1.322996E+0	1.283426E+0	1.275432E+0	1.297528E+0	1.312330E+0	1.324342E+0	1.302504E+0	1.329651E+0	1.296927E+0	1.287657E+0	1.324460E+0	1.322430E+0	1.343660E+0	1.310200E+0	1.258552E+0	1.376418E+0	1.227548E+0	1.274523E+0	1.252730E+0	1.347218E+0	1.276706E+0	1.225532E+0	1.277173E+0	1.358064E+0	1.297217E+0	1.282715E+0	1.303589E+0	1.287363E+0	1.258888E+0	1.254445E+0	1.305416E+0	1.335911E+0	1.255063E+0	1.351646E+0	1.283512E+0	1.290427E+0	1.290157E+0	1.295012E+0	1.237776E+0	1.290785E+0	1.334374E+0	1.299024E+0	1.326956E+0	1.270056E+0	1.324142E+0	1.337088E+0	1.239987E+0	1.245099E+0	1.302003E+0	1.332865E+0	1.306273E+0	1.278055E+0	1.282007E+0	1.301062E+0	1.304960E+0	1.309335E+0	1.280202E+0	1.233077E+0	1.246849E+0	1.286902E+0	1.284453E+0	1.269045E+0	1.288743E+0	1.293436E+0	1.302449E+0	1.261452E+0	1.321328E+0	1.289177E+0	1.257004E+0	1.255272E+0	1.282757E+0	1.407944E+0	1.300348E+0	1.292097E+0	1.311996E+0	1.290322E+0	1.250194E+0	1.309426E+0	1.315236E+0	1.257034E+0	1.277661E+0	1.279040E+0	1.276220E+0	1.294155E+0	1.295604E+0	1.262614E+0	1.332916E+0	1.310029E+0	1.273800E+0	1.265344E+0	1.257838E+0	1.309377E+0	1.326433E+0	1.291759E+0	1.252867E+0	1.292283E+0	1.271744E+0	1.234454E+0	1.274689E+0	1.293836E+0	1.239741E+0	1.254491E+0	1.301851E+0	1.236374E+0	1.230305E+0	1.263067E+0	1.289061E+0	1.351861E+0	1.281478E+0	1.239743E+0	1.219743E+0	1.232752E+0	1.295902E+0	1.278846E+0	1.284809E+0	1.299974E+0	1.336105E+0	1.314991E+0	1.278298E+0	1.298926E+0	1.308092E+0	1.290526E+0	1.240807E+0	1.246480E+0	1.298960E+0	1.316400E+0	1.242365E+0	1.291369E+0	1.283667E+0	1.255658E+0	1.314073E+0	1.266407E+0	1.259105E+0	1.227433E+0	1.304622E+0	1.292594E+0	1.310911E+0	1.303049E+0	1.280703E+0	1.320118E+0	1.298047E+0	1.293011E+0	1.277832E+0	1.316347E+0	1.248203E+0	1.253740E+0	1.353149E+0	1.240263E+0	1.251161E+0	1.308440E+0	1.290777E+0	1.258153E+0	1.271512E+0	1.300535E+0	1.261207E+0	1.298838E+0	1.248990E+0	1.208298E+0	1.284420E+0	1.238932E+0
5.457620E+2	1.239769E+0	1.201957E+0	1.199787E+0	1.290231E+0	1.265569E+0	1.240922E+0	1.244002E+0	1.222012E+0	1.261689E+0	1.282274E+0	1.229234E+0	1.198230E+0	1.172626E+0	1.213406E+0	1.176838E+0	1.186366E+0	1.238878E+0	1.206676E+0	1.203771E+0	1.294001E+0	1.220807E+0	1.233315E+0	1.238689E+0	1.235250E+0	1.219818E+0	1.202224E+0	1.246443E+0	1.246561E+0	1.236157E+0	1.195855E+0	1.214004E+0	1.247926E+0	1.195483E+0	1.202641E+0	1.232312E+0	1.292913E+0	1.240437E+0	1.199008E+0	1.222866E+0	1.219571E+0	1.226417E+0	1.224865E+0	1.248775E+0	1.214424E+0	1.252898E+0	1.198653E+0	1.246098E+0	1.237395E+0	1.288224E+0	1.213097E+0	1.223563E+0	1.228765E+0	1.260372E+0	1.270442E+0	1.214207E+0	1.258940E+0	1.284686E+0	1.158145E+0	1.220893E+0	1.192804E+0	1.195151E+0	1.239881E+0	1.235723E+0	1.254708E+0	1.146307E+0	1.228622E+0	1.228731E+0	1.234490E+0	1.208864E+0	1.211568E+0	1.224485E+0	1.246083E+0	1.241301E+0	1.249665E+0	1.206430E+0	1.259207E+0	1.232996E+0	1.213205E+0	1.228696E+0	1.210531E+0	1.272464E+0	1.207352E+0	1.211738E+0	1.268354E+0	1.230182E+0	1.200924E+0	1.173813E+0	1.227019E+0	1.177949E+0	1.233797E+0	1.202259E+0	1.193280E+0	1.243856E+0	1.218018E+0	1.208037E+0	1.239502E+0	1.190194E+0	1.232994E+0	1.205490E+0	1.208666E+0	1.258660E+0	1.276937E+0	1.248092E+0	1.229257E+0	1.187960E+0	1.162207E+0	1.192052E+0	1.256970E+0	1.219938E+0	1.296841E+0	1.191859E+0	1.251834E+0	1.235703E+0	1.248038E+0	1.229587E+0	1.228661E+0	1.207321E+0	1.179450E+0	1.232255E+0	1.180621E+0	1.233543E+0	1.168751E+0	1.234395E+0	1.210594E+0	1.197909E+0	1.159488E+0	1.228895E+0	1.227826E+0	1.184482E+0	1.150357E+0	1.207238E+0	1.202623E+0	1.241801E+0	1.253759E+0	1.190029E+0	1.173090E+0	1.175772E+0	1.243346E+0	1.203950E+0	1.221161E+0	1.167176E+0	1.245829E+0	1.250022E+0	1.263086E+0	1.244169E+0	1.227166E+0	1.207154E+0	1.294113E+0	1.195645E+0	1.274423E+0	1.245911E+0	1.258945E+0	1.250498E+0	1.147597E+0	1.215815E+0	1.256745E+0	1.208090E+0	1.239535E+0	1.238244E+0	1.234383E+0	1.213122E+0	1.264618E+0	1.228835E+0	1.228833E+0	1.205157E+0	1.170384E+0	1.213634E+0	1.186503E+0	1.217474E+0	1.197658E+0	1.249869E+0	1.185221E+0
5.460060E+2	1.071054E+0	1.146019E+0	1.133710E+0	1.172431E+0	1.173578E+0	1.100930E+0	1.100702E+0	1.142989E+0	1.159640E+0	1.168705E+0	1.148405E+0	1.153851E+0	1.117093E+0	1.096593E+0	1.135014E+0	1.120443E+0	1.097129E+0	1.078160E+0	1.092626E+0	1.215558E+0	1.152341E+0	1.165486E+0	1.091264E+0	1.108269E+0	1.145316E+0	1.114655E+0	1.205367E+0	1.162152E+0	1.145130E+0	1.117978E+0	1.131928E+0	1.146279E+0	1.114441E+0	1.144782E+0	1.118179E+0	1.143232E+0	1.137719E+0	1.143525E+0	1.180047E+0	1.164554E+0	1.119448E+0	1.175295E+0	1.128822E+0	1.116648E+0	1.120639E+0	1.213917E+0	1.178847E+0	1.140443E+0	1.145418E+0	1.137683E+0	1.158691E+0	1.161043E+0	1.101622E+0	1.160153E+0	1.140487E+0	1.112334E+0	1.163476E+0	1.133255E+0	1.103774E+0	1.121138E+0	1.155445E+0	1.129925E+0	1.077251E+0	1.134583E+0	1.119221E+0	1.152209E+0	1.084784E+0	1.178304E+0	1.119300E+0	1.107020E+0	1.087674E+0	1.146608E+0	1.154904E+0	1.097101E+0	1.124917E+0	1.153626E+0	1.140175E+0	1.128029E+0	1.130351E+0	1.109041E+0	1.113182E+0	1.151299E+0	1.150828E+0	1.137586E+0	1.141912E+0	1.139244E+0	1.158319E+0	1.128948E+0	1.079849E+0	1.066734E+0	1.102907E+0	1.111123E+0	1.140202E+0	1.084089E+0	1.141695E+0	1.123420E+0	1.121456E+0	1.104692E+0	1.171116E+0	1.181814E+0	1.159108E+0	1.150428E+0	1.133416E+0	1.113741E+0	1.147931E+0	1.165898E+0	1.163705E+0	1.100857E+0	1.105412E+0	1.098629E+0	1.096419E+0	1.093131E+0	1.171207E+0	1.065274E+0	1.091967E+0	1.147977E+0	1.161696E+0	1.101319E+0	1.136877E+0	1.145939E+0	1.141473E+0	1.090212E+0	1.053774E+0	1.201863E+0	1.178482E+0	1.099576E+0	1.092678E+0	1.157673E+0	1.081929E+0	1.144006E+0	1.146390E+0	1.146262E+0	1.152044E+0	1.115356E+0	1.088123E+0	1.131957E+0	1.173255E+0	1.173349E+0	1.072993E+0	1.115365E+0	1.142224E+0	1.126256E+0	1.139362E+0	1.152041E+0	1.094601E+0	1.097914E+0	1.085493E+0	1.205708E+0	1.128951E+0	1.146930E+0	1.088236E+0	1.188251E+0	1.193225E+0	1.161776E+0	1.089748E+0	1.115728E+0	1.130326E+0	1.148668E+0	1.137402E+0	1.202100E+0	1.104391E+0	1.117818E+0	1.144285E+0	1.157981E+0	1.169111E+0	1.133423E+0	1.120382E+0	1.140853E+0	1.165083E+0	1.145985E+0	1.182942E+0	1.050459E+0
5.467660E+2	1.195752E+0	1.212680E+0	1.219182E+0	1.214312E+0	1.239712E+0	1.175786E+0	1.159242E+0	1.190555E+0	1.217160E+0	1.186723E+0	1.186034E+0	1.144143E+0	1.182088E+0	1.145818E+0	1.197309E+0	1.188053E+0	1.178644E+0	1.209982E+0	1.183334E+0	1.271819E+0	1.189555E+0	1.213981E+0	1.158382E+0	1.239305E+0	1.215342E+0	1.206309E+0	1.212418E+0	1.165282E+0	1.172837E+0	1.139153E+0	1.208700E+0	1.216366E+0	1.176571E+0	1.128798E+0	1.183547E+0	1.176808E+0	1.232832E+0	1.182449E+0	1.157237E+0	1.152981E+0	1.230419E+0	1.122356E+0	1.172907E+0	1.164490E+0	1.196212E+0	1.221200E+0	1.189910E+0	1.217753E+0	1.198279E+0	1.229027E+0	1.199687E+0	1.194342E+0	1.181588E+0	1.203947E+0	1.168561E+0	1.217722E+0	1.198123E+0	1.083340E+0	1.196153E+0	1.200623E+0	1.166353E+0	1.202803E+0	1.205152E+0	1.169981E+0	1.163844E+0	1.210435E+0	1.207397E+0	1.164415E+0	1.162507E+0	1.120410E+0	1.217795E+0	1.174278E+0	1.214022E+0	1.212845E+0	1.197834E+0	1.189560E+0	1.131293E+0	1.158994E+0	1.151908E+0	1.250729E+0	1.200393E+0	1.204853E+0	1.176889E+0	1.251860E+0	1.195250E+0	1.181815E+0	1.196097E+0	1.166430E+0	1.163304E+0	1.165449E+0	1.166218E+0	1.155189E+0	1.226144E+0	1.224398E+0	1.176593E+0	1.221824E+0	1.152280E+0	1.169668E+0	1.170130E+0	1.149409E+0	1.199590E+0	1.142340E+0	1.208917E+0	1.178015E+0	1.233536E+0	1.179465E+0	1.199337E+0	1.201081E+0	1.221034E+0	1.193414E+0	1.211443E+0	1.164208E+0	1.200978E+0	1.129069E+0	1.214707E+0	1.206642E+0	1.183803E+0	1.205916E+0	1.181600E+0	1.202718E+0	1.176796E+0	1.140596E+0	1.128045E+0	1.233349E+0	1.179964E+0	1.122945E+0	1.147537E+0	1.183192E+0	1.196713E+0	1.154314E+0	1.153364E+0	1.169987E+0	1.193079E+0	1.207638E+0	1.187020E+0	1.175537E+0	1.231800E+0	1.212290E+0	1.224099E+0	1.143133E+0	1.183054E+0	1.152348E+0	1.229746E+0	1.198454E+0	1.189611E+0	1.131527E+0	1.215687E+0	1.207151E+0	1.193174E+0	1.206425E+0	1.151036E+0	1.185401E+0	1.186263E+0	1.168787E+0	1.172549E+0	1.188285E+0	1.158858E+0	1.193799E+0	1.205458E+0	1.134215E+0	1.224698E+0	1.162087E+0	1.189267E+0	1.192828E+0	1.194874E+0	1.129282E+0	1.210663E+0	1.175914E+0	1.268647E+0	1.181698E+0	1.230321E+0	1.137846E+0
5.475180E+2	1.317650E+0	1.307716E+0	1.301885E+0	1.324261E+0	1.269635E+0	1.231748E+0	1.281361E+0	1.306522E+0	1.322995E+0	1.295287E+0	1.295535E+0	1.305871E+0	1.228182E+0	1.238069E+0	1.250931E+0	1.276939E+0	1.296989E+0	1.250699E+0	1.292742E+0	1.324714E+0	1.315391E+0	1.260277E+0	1.315343E+0	1.218727E+0	1.301484E+0	1.280781E+0	1.269649E+0	1.327604E+0	1.259251E+0	1.274911E+0	1.208845E+0	1.298353E+0	1.279954E+0	1.258487E+0	1.237969E+0	1.282889E+0	1.249401E+0	1.279247E+0	1.228866E+0	1.290123E+0	1.322375E+0	1.232498E+0	1.289049E+0	1.272003E+0	1.276172E+0	1.263551E+0	1.263163E+0	1.265940E+0	1.217306E+0	1.276052E+0	1.248487E+0	1.297616E+0	1.301268E+0	1.295946E+0	1.238326E+0	1.310305E+0	1.307201E+0	1.304961E+0	1.253062E+0	1.265555E+0	1.277861E+0	1.278107E+0	1.306442E+0	1.306075E+0	1.249256E+0	1.260527E+0	1.242238E+0	1.311708E+0	1.253254E+0	1.236799E+0	1.256297E+0	1.237990E+0	1.245447E+0	1.299974E+0	1.312718E+0	1.279752E+0	1.273735E+0	1.266379E+0	1.254832E+0	1.246509E+0	1.215549E+0	1.244639E+0	1.276062E+0	1.272448E+0	1.226299E+0	1.287367E+0	1.224185E+0	1.233007E+0	1.263810E+0	1.256218E+0	1.256022E+0	1.229510E+0	1.274516E+0	1.321030E+0	1.223549E+0	1.262436E+0	1.290864E+0	1.255859E+0	1.263772E+0	1.291593E+0	1.276567E+0	1.320863E+0	1.285608E+0	1.245517E+0	1.204635E+0	1.289501E+0	1.219899E+0	1.307822E+0	1.271110E+0	1.280342E+0	1.300498E+0	1.310259E+0	1.284279E+0	1.240219E+0	1.285760E+0	1.264102E+0	1.275335E+0	1.272122E+0	1.237129E+0	1.267931E+0	1.331056E+0	1.201624E+0	1.241502E+0	1.272989E+0	1.310604E+0	1.284007E+0	1.283380E+0	1.267785E+0	1.280890E+0	1.270912E+0	1.226212E+0	1.233724E+0	1.225982E+0	1.288017E+0	1.290226E+0	1.220421E+0	1.306433E+0	1.204156E+0	1.246642E+0	1.221090E+0	1.267511E+0	1.227931E+0	1.197992E+0	1.255182E+0	1.290984E+0	1.222451E+0	1.264525E+0	1.264174E+0	1.259825E+0	1.267655E+0	1.251360E+0	1.288133E+0	1.230433E+0	1.240853E+0	1.235028E+0	1.244582E+0	1.208811E+0	1.293195E+0	1.295853E+0	1.264807E+0	1.184250E+0	1.316443E+0	1.246804E+0	1.259951E+0	1.296611E+0	1.250028E+0	1.262418E+0	1.268882E+0	1.258408E+0	1.255643E+0	1.271478E+0	1.204573E+0
5.482550E+2	1.394155E+0	1.359415E+0	1.463779E+0	1.406994E+0	1.413787E+0	1.367106E+0	1.289860E+0	1.436620E+0	1.408464E+0	1.366920E+0	1.375329E+0	1.350906E+0	1.371961E+0	1.402615E+0	1.355294E+0	1.383891E+0	1.368967E+0	1.351394E+0	1.379030E+0	1.429541E+0	1.349322E+0	1.438915E+0	1.371241E+0	1.371842E+0	1.423772E+0	1.413126E+0	1.379174E+0	1.476690E+0	1.421037E+0	1.355837E+0	1.356055E+0	1.363285E+0	1.410584E+0	1.375185E+0	1.328843E+0	1.420419E+0	1.333397E+0	1.441491E+0	1.378976E+0	1.415922E+0	1.397150E+0	1.359056E+0	1.345715E+0	1.400589E+0	1.345684E+0	1.377398E+0	1.375030E+0	1.348189E+0	1.401488E+0	1.418403E+0	1.359666E+0	1.438381E+0	1.404119E+0	1.402067E+0	1.366312E+0	1.406804E+0	1.372924E+0	1.363791E+0	1.371617E+0	1.385190E+0	1.344609E+0	1.409567E+0	1.372411E+0	1.419366E+0	1.367252E+0	1.337106E+0	1.354336E+0	1.370673E+0	1.384473E+0	1.360442E+0	1.448165E+0	1.412322E+0	1.394843E+0	1.440773E+0	1.322689E+0	1.359363E+0	1.395708E+0	1.341210E+0	1.392816E+0	1.396731E+0	1.396563E+0	1.389774E+0	1.381796E+0	1.459858E+0	1.386625E+0	1.306842E+0	1.371946E+0	1.413312E+0	1.412890E+0	1.364987E+0	1.329657E+0	1.355901E+0	1.372790E+0	1.323223E+0	1.387901E+0	1.376665E+0	1.289870E+0	1.365459E+0	1.331947E+0	1.360505E+0	1.444966E+0	1.391742E+0	1.420093E+0	1.385164E+0	1.410580E+0	1.377972E+0	1.384378E+0	1.416524E+0	1.381190E+0	1.357082E+0	1.340010E+0	1.394871E+0	1.392203E+0	1.342914E+0	1.417845E+0	1.422889E+0	1.327807E+0	1.316596E+0	1.379858E+0	1.338140E+0	1.353365E+0	1.349653E+0	1.372572E+0	1.360226E+0	1.416961E+0	1.385608E+0	1.408181E+0	1.409165E+0	1.389399E+0	1.411544E+0	1.373052E+0	1.367819E+0	1.337114E+0	1.362308E+0	1.357329E+0	1.356017E+0	1.360203E+0	1.379820E+0	1.335070E+0	1.389696E+0	1.352312E+0	1.370067E+0	1.384069E+0	1.391398E+0	1.373777E+0	1.431395E+0	1.345694E+0	1.338015E+0	1.360432E+0	1.377690E+0	1.365612E+0	1.398011E+0	1.337657E+0	1.377979E+0	1.373441E+0	1.412594E+0	1.418161E+0	1.374143E+0	1.385880E+0	1.298182E+0	1.369925E+0	1.349858E+0	1.369239E+0	1.337114E+0	1.406013E+0	1.356516E+0	1.340766E+0	1.375322E+0	1.308847E+0	1.397436E+0	1.381077E+0	1.223398E+0
5.490380E+2	1.357971E+0	1.313436E+0	1.395027E+0	1.434704E+0	1.374528E+0	1.385678E+0	1.336923E+0	1.380528E+0	1.337231E+0	1.327194E+0	1.336682E+0	1.323965E+0	1.348789E+0	1.316503E+0	1.342591E+0	1.393389E+0	1.375096E+0	1.302920E+0	1.376729E+0	1.333919E+0	1.332424E+0	1.336523E+0	1.346305E+0	1.304497E+0	1.340141E+0	1.395753E+0	1.364903E+0	1.365845E+0	1.406032E+0	1.311242E+0	1.295555E+0	1.351318E+0	1.329057E+0	1.345898E+0	1.345670E+0	1.436039E+0	1.318411E+0	1.286496E+0	1.330381E+0	1.342017E+0	1.360554E+0	1.328861E+0	1.333381E+0	1.322275E+0	1.354897E+0	1.363884E+0	1.361355E+0	1.362065E+0	1.330798E+0	1.391877E+0	1.326291E+0	1.346994E+0	1.377194E+0	1.343058E+0	1.282336E+0	1.290673E+0	1.392150E+0	1.328728E+0	1.323368E+0	1.313137E+0	1.275378E+0	1.343684E+0	1.289830E+0	1.353406E+0	1.305139E+0	1.299290E+0	1.322291E+0	1.428428E+0	1.363944E+0	1.262285E+0	1.335435E+0	1.341538E+0	1.295675E+0	1.332025E+0	1.365446E+0	1.303648E+0	1.322109E+0	1.355121E+0	1.342434E+0	1.395802E+0	1.331509E+0	1.326971E+0	1.348000E+0	1.373531E+0	1.315706E+0	1.344988E+0	1.365299E+0	1.374509E+0	1.310190E+0	1.310992E+0	1.340871E+0	1.303758E+0	1.361906E+0	1.351218E+0	1.323761E+0	1.329293E+0	1.322118E+0	1.296863E+0	1.333090E+0	1.396803E+0	1.331852E+0	1.309799E+0	1.301235E+0	1.367374E+0	1.358161E+0	1.328173E+0	1.325115E+0	1.293515E+0	1.350351E+0	1.351827E+0	1.360480E+0	1.316235E+0	1.320904E+0	1.316703E+0	1.342422E+0	1.277945E+0	1.361534E+0	1.343410E+0	1.365671E+0	1.288934E+0	1.352424E+0	1.309523E+0	1.376123E+0	1.295335E+0	1.328271E+0	1.290643E+0	1.320470E+0	1.381706E+0	1.399581E+0	1.330013E+0	1.387227E+0	1.308771E+0	1.364189E+0	1.329248E+0	1.371462E+0	1.311352E+0	1.356242E+0	1.330628E+0	1.334505E+0	1.264191E+0	1.349295E+0	1.312690E+0	1.307523E+0	1.332201E+0	1.329433E+0	1.349419E+0	1.373691E+0	1.319516E+0	1.376194E+0	1.351206E+0	1.341754E+0	1.329989E+0	1.347190E+0	1.294453E+0	1.358567E+0	1.297229E+0	1.368652E+0	1.356693E+0	1.314241E+0	1.334403E+0	1.350561E+0	1.349421E+0	1.358763E+0	1.382933E+0	1.329599E+0	1.285730E+0	1.286206E+0	1.351412E+0	1.345844E+0	1.304430E+0	1.349752E+0	1.299896E+0
5.497790E+2	1.347687E+0	1.339426E+0	1.312909E+0	1.310350E+0	1.297640E+0	1.240908E+0	1.304692E+0	1.293561E+0	1.345117E+0	1.321478E+0	1.275185E+0	1.316318E+0	1.281047E+0	1.284927E+0	1.290278E+0	1.301542E+0	1.280318E+0	1.347283E+0	1.315769E+0	1.382985E+0	1.307757E+0	1.309921E+0	1.307157E+0	1.267817E+0	1.314044E+0	1.304050E+0	1.347018E+0	1.345843E+0	1.349043E+0	1.285829E+0	1.343189E+0	1.309500E+0	1.325739E+0	1.293332E+0	1.293329E+0	1.266509E+0	1.277041E+0	1.317483E+0	1.323859E+0	1.255590E+0	1.257239E+0	1.232191E+0	1.291205E+0	1.349175E+0	1.289169E+0	1.300215E+0	1.303997E+0	1.328741E+0	1.338519E+0	1.260221E+0	1.258988E+0	1.201091E+0	1.358044E+0	1.324922E+0	1.303498E+0	1.275117E+0	1.367934E+0	1.320597E+0	1.333019E+0	1.309017E+0	1.281824E+0	1.310231E+0	1.326485E+0	1.309570E+0	1.273551E+0	1.273303E+0	1.339139E+0	1.296941E+0	1.327062E+0	1.248547E+0	1.300482E+0	1.344944E+0	1.285010E+0	1.282362E+0	1.286504E+0	1.302151E+0	1.312969E+0	1.326889E+0	1.252017E+0	1.287234E+0	1.296990E+0	1.317210E+0	1.263801E+0	1.312341E+0	1.290968E+0	1.269541E+0	1.304273E+0	1.282358E+0	1.265061E+0	1.296977E+0	1.287985E+0	1.323404E+0	1.290865E+0	1.294860E+0	1.278519E+0	1.284183E+0	1.270643E+0	1.267766E+0	1.309865E+0	1.298757E+0	1.341701E+0	1.279955E+0	1.256897E+0	1.253305E+0	1.306103E+0	1.259406E+0	1.215521E+0	1.355423E+0	1.312397E+0	1.288824E+0	1.276713E+0	1.338084E+0	1.286418E+0	1.299538E+0	1.307910E+0	1.293593E+0	1.307231E+0	1.260548E+0	1.336819E+0	1.288037E+0	1.301703E+0	1.286781E+0	1.263121E+0	1.322830E+0	1.339539E+0	1.300327E+0	1.309544E+0	1.314445E+0	1.274843E+0	1.248442E+0	1.306956E+0	1.259790E+0	1.265573E+0	1.335606E+0	1.217006E+0	1.265836E+0	1.351603E+0	1.306276E+0	1.243837E+0	1.306741E+0	1.333698E+0	1.258935E+0	1.277490E+0	1.334706E+0	1.273103E+0	1.309404E+0	1.316297E+0	1.312971E+0	1.327740E+0	1.301828E+0	1.312375E+0	1.296251E+0	1.304537E+0	1.263501E+0	1.272286E+0	1.281056E+0	1.322639E+0	1.281921E+0	1.296502E+0	1.299507E+0	1.276613E+0	1.248791E+0	1.303106E+0	1.330073E+0	1.300992E+0	1.288634E+0	1.280551E+0	1.285501E+0	1.320352E+0	1.228836E+0	1.255802E+0	1.267627E+0
5.505060E+2	1.268576E+0	1.185565E+0	1.250696E+0	1.324759E+0	1.294744E+0	1.209771E+0	1.229736E+0	1.278498E+0	1.243064E+0	1.235601E+0	1.263314E+0	1.242210E+0	1.215538E+0	1.231796E+0	1.234797E+0	1.194757E+0	1.324393E+0	1.271336E+0	1.253518E+0	1.231548E+0	1.305903E+0	1.281325E+0	1.248836E+0	1.285643E+0	1.285408E+0	1.262831E+0	1.293109E+0	1.286746E+0	1.285680E+0	1.220408E+0	1.247593E+0	1.270576E+0	1.285583E+0	1.271665E+0	1.255988E+0	1.258721E+0	1.232639E+0	1.240263E+0	1.266638E+0	1.258011E+0	1.253590E+0	1.222141E+0	1.189561E+0	1.246136E+0	1.247539E+0	1.305352E+0	1.289370E+0	1.261776E+0	1.289365E+0	1.279465E+0	1.255266E+0	1.248748E+0	1.278968E+0	1.210339E+0	1.249990E+0	1.283415E+0	1.250881E+0	1.239308E+0	1.281638E+0	1.253088E+0	1.270922E+0	1.267647E+0	1.263023E+0	1.270495E+0	1.258962E+0	1.208091E+0	1.295764E+0	1.254184E+0	1.264608E+0	1.229404E+0	1.253878E+0	1.298675E+0	1.317192E+0	1.244574E+0	1.279012E+0	1.221826E+0	1.248274E+0	1.237179E+0	1.268142E+0	1.285552E+0	1.262995E+0	1.200974E+0	1.278491E+0	1.285972E+0	1.290750E+0	1.286610E+0	1.229056E+0	1.241721E+0	1.251303E+0	1.147304E+0	1.225988E+0	1.223235E+0	1.255419E+0	1.259869E+0	1.291839E+0	1.238926E+0	1.241166E+0	1.243739E+0	1.293289E+0	1.274421E+0	1.209694E+0	1.230208E+0	1.270029E+0	1.229118E+0	1.252575E+0	1.216654E+0	1.253338E+0	1.311691E+0	1.264341E+0	1.271177E+0	1.221336E+0	1.223086E+0	1.276551E+0	1.250435E+0	1.234896E+0	1.250032E+0	1.284238E+0	1.211153E+0	1.314523E+0	1.243659E+0	1.211347E+0	1.223735E+0	1.198058E+0	1.281050E+0	1.325508E+0	1.248503E+0	1.210933E+0	1.273191E+0	1.231882E+0	1.271436E+0	1.265851E+0	1.226823E+0	1.266665E+0	1.265309E+0	1.265788E+0	1.211839E+0	1.232198E+0	1.258284E+0	1.286784E+0	1.258519E+0	1.245921E+0	1.241301E+0	1.287991E+0	1.261575E+0	1.249317E+0	1.212011E+0	1.253135E+0	1.256337E+0	1.244715E+0	1.225573E+0	1.209798E+0	1.267365E+0	1.295752E+0	1.253766E+0	1.233398E+0	1.281286E+0	1.233943E+0	1.270422E+0	1.228011E+0	1.278978E+0	1.224939E+0	1.206708E+0	1.260137E+0	1.226840E+0	1.279015E+0	1.230437E+0	1.237978E+0	1.260929E+0	1.282958E+0	1.226148E+0	1.237834E+0	1.210954E+0
5.512570E+2	1.244005E+0	1.241017E+0	1.254892E+0	1.297936E+0	1.265177E+0	1.204248E+0	1.246598E+0	1.230060E+0	1.261576E+0	1.203069E+0	1.295390E+0	1.242046E+0	1.216654E+0	1.235161E+0	1.225787E+0	1.273956E+0	1.240514E+0	1.269731E+0	1.260420E+0	1.220958E+0	1.225864E+0	1.240447E+0	1.240568E+0	1.201421E+0	1.269573E+0	1.245732E+0	1.284248E+0	1.238429E+0	1.266438E+0	1.215934E+0	1.244367E+0	1.236664E+0	1.271296E+0	1.214378E+0	1.286159E+0	1.261915E+0	1.276480E+0	1.269466E+0	1.267816E+0	1.195316E+0	1.270382E+0	1.236783E+0	1.229115E+0	1.221486E+0	1.227043E+0	1.215707E+0	1.218411E+0	1.280692E+0	1.223773E+0	1.268451E+0	1.261337E+0	1.301286E+0	1.264456E+0	1.288021E+0	1.247711E+0	1.254548E+0	1.281539E+0	1.257850E+0	1.260522E+0	1.263975E+0	1.231849E+0	1.237507E+0	1.257253E+0	1.236295E+0	1.227886E+0	1.247637E+0	1.216145E+0	1.266436E+0	1.258470E+0	1.202732E+0	1.264670E+0	1.248680E+0	1.287902E+0	1.264141E+0	1.251254E+0	1.197485E+0	1.204642E+0	1.244807E+0	1.217843E+0	1.254913E+0	1.210566E+0	1.213343E+0	1.236661E+0	1.229645E+0	1.280120E+0	1.276128E+0	1.259557E+0	1.221468E+0	1.216879E+0	1.172275E+0	1.259169E+0	1.215806E+0	1.276131E+0	1.233634E+0	1.244860E+0	1.299308E+0	1.234103E+0	1.261566E+0	1.206938E+0	1.245146E+0	1.264184E+0	1.287110E+0	1.259797E+0	1.261812E+0	1.253985E+0	1.264239E+0	1.253220E+0	1.262829E+0	1.310343E+0	1.230889E+0	1.197931E+0	1.273864E+0	1.240009E+0	1.243366E+0	1.247082E+0	1.237975E+0	1.242226E+0	1.221026E+0	1.246204E+0	1.271761E+0	1.310152E+0	1.218020E+0	1.296914E+0	1.275485E+0	1.255505E+0	1.211416E+0	1.219455E+0	1.246419E+0	1.229834E+0	1.240041E+0	1.205717E+0	1.180057E+0	1.227062E+0	1.242056E+0	1.274622E+0	1.244087E+0	1.282831E+0	1.254612E+0	1.275832E+0	1.236868E+0	1.198868E+0	1.195538E+0	1.267365E+0	1.233186E+0	1.288056E+0	1.251122E+0	1.256557E+0	1.266990E+0	1.253121E+0	1.271852E+0	1.226039E+0	1.263508E+0	1.258285E+0	1.246350E+0	1.232570E+0	1.225902E+0	1.240455E+0	1.234953E+0	1.232153E+0	1.227920E+0	1.238779E+0	1.249655E+0	1.233669E+0	1.264120E+0	1.225067E+0	1.225583E+0	1.197761E+0	1.263963E+0	1.234157E+0	1.196981E+0	1.229736E+0	1.119740E+0
5.520100E+2	1.309451E+0	1.279585E+0	1.239969E+0	1.310904E+0	1.329806E+0	1.274719E+0	1.247781E+0	1.260712E+0	1.220047E+0	1.283822E+0	1.285950E+0	1.252777E+0	1.306588E+0	1.250685E+0	1.275106E+0	1.270248E+0	1.281969E+0	1.250273E+0	1.235755E+0	1.276773E+0	1.320349E+0	1.224770E+0	1.260183E+0	1.247301E+0	1.244649E+0	1.310867E+0	1.287612E+0	1.273473E+0	1.317975E+0	1.267948E+0	1.248329E+0	1.330833E+0	1.285386E+0	1.220367E+0	1.289760E+0	1.310007E+0	1.273790E+0	1.297902E+0	1.294328E+0	1.294583E+0	1.251170E+0	1.275407E+0	1.267561E+0	1.228941E+0	1.275617E+0	1.282367E+0	1.251311E+0	1.252422E+0	1.289228E+0	1.255438E+0	1.246035E+0	1.273823E+0	1.298378E+0	1.246855E+0	1.258233E+0	1.228664E+0	1.278624E+0	1.256074E+0	1.261637E+0	1.202610E+0	1.233103E+0	1.320443E+0	1.282224E+0	1.338539E+0	1.270822E+0	1.290460E+0	1.235291E+0	1.249645E+0	1.278582E+0	1.279802E+0	1.264112E+0	1.273102E+0	1.297457E+0	1.260156E+0	1.301305E+0	1.230271E+0	1.275157E+0	1.267207E+0	1.299491E+0	1.293748E+0	1.266902E+0	1.263897E+0	1.297626E+0	1.286195E+0	1.238661E+0	1.283910E+0	1.270629E+0	1.260050E+0	1.264787E+0	1.218590E+0	1.281096E+0	1.332009E+0	1.291050E+0	1.285213E+0	1.230634E+0	1.310665E+0	1.276623E+0	1.281924E+0	1.287403E+0	1.269180E+0	1.270660E+0	1.260773E+0	1.228808E+0	1.291300E+0	1.277732E+0	1.274421E+0	1.275038E+0	1.285577E+0	1.273213E+0	1.262795E+0	1.303162E+0	1.229334E+0	1.316711E+0	1.240884E+0	1.237502E+0	1.288775E+0	1.260304E+0	1.261788E+0	1.288977E+0	1.283710E+0	1.305314E+0	1.226690E+0	1.289634E+0	1.275603E+0	1.259697E+0	1.270478E+0	1.274693E+0	1.276332E+0	1.303462E+0	1.219223E+0	1.259731E+0	1.263816E+0	1.264610E+0	1.256419E+0	1.257317E+0	1.228346E+0	1.290016E+0	1.301721E+0	1.330628E+0	1.315222E+0	1.260671E+0	1.208858E+0	1.293133E+0	1.271785E+0	1.301243E+0	1.256638E+0	1.259740E+0	1.255253E+0	1.248001E+0	1.260258E+0	1.208757E+0	1.242187E+0	1.252137E+0	1.277645E+0	1.273821E+0	1.266126E+0	1.257491E+0	1.240631E+0	1.270362E+0	1.252392E+0	1.288988E+0	1.283042E+0	1.315065E+0	1.274162E+0	1.234294E+0	1.205117E+0	1.183756E+0	1.218918E+0	1.247702E+0	1.203239E+0	1.285249E+0	1.123242E+0
5.527590E+2	1.324318E+0	1.236748E+0	1.205367E+0	1.327600E+0	1.261040E+0	1.241645E+0	1.192673E+0	1.207457E+0	1.201310E+0	1.208628E+0	1.246235E+0	1.224606E+0	1.253875E+0	1.251092E+0	1.223960E+0	1.264075E+0	1.290764E+0	1.270405E+0	1.237563E+0	1.233570E+0	1.281471E+0	1.313831E+0	1.292535E+0	1.243448E+0	1.270876E+0	1.251347E+0	1.274006E+0	1.235829E+0	1.303671E+0	1.209237E+0	1.237476E+0	1.305935E+0	1.273304E+0	1.216148E+0	1.251381E+0	1.237413E+0	1.278351E+0	1.262937E+0	1.277062E+0	1.269119E+0	1.257600E+0	1.218110E+0	1.222870E+0	1.248123E+0	1.237205E+0	1.257702E+0	1.267708E+0	1.219339E+0	1.299374E+0	1.320725E+0	1.260974E+0	1.247883E+0	1.271701E+0	1.227310E+0	1.263650E+0	1.248804E+0	1.262403E+0	1.232677E+0	1.225796E+0	1.263352E+0	1.258844E+0	1.247208E+0	1.224630E+0	1.242041E+0	1.189802E+0	1.221352E+0	1.256235E+0	1.238383E+0	1.239736E+0	1.209698E+0	1.206694E+0	1.286218E+0	1.253602E+0	1.264326E+0	1.218645E+0	1.239672E+0	1.273856E+0	1.248485E+0	1.255560E+0	1.222191E+0	1.268854E+0	1.232787E+0	1.247666E+0	1.266343E+0	1.282424E+0	1.240770E+0	1.224827E+0	1.269715E+0	1.218075E+0	1.194071E+0	1.167793E+0	1.286794E+0	1.282826E+0	1.182289E+0	1.239855E+0	1.251268E+0	1.237956E+0	1.242282E+0	1.323817E+0	1.261716E+0	1.234231E+0	1.264228E+0	1.231080E+0	1.279176E+0	1.251286E+0	1.265210E+0	1.231857E+0	1.235626E+0	1.229951E+0	1.299303E+0	1.233587E+0	1.241805E+0	1.217675E+0	1.207333E+0	1.267058E+0	1.296432E+0	1.286444E+0	1.271495E+0	1.265768E+0	1.227658E+0	1.244239E+0	1.214803E+0	1.217682E+0	1.276714E+0	1.264925E+0	1.234931E+0	1.239460E+0	1.293142E+0	1.265827E+0	1.264375E+0	1.224368E+0	1.245258E+0	1.269246E+0	1.265181E+0	1.218828E+0	1.219257E+0	1.215547E+0	1.340117E+0	1.208516E+0	1.262010E+0	1.226141E+0	1.224357E+0	1.254258E+0	1.220777E+0	1.220007E+0	1.225418E+0	1.265610E+0	1.239226E+0	1.270347E+0	1.233270E+0	1.263910E+0	1.232225E+0	1.280175E+0	1.242148E+0	1.275949E+0	1.252073E+0	1.241554E+0	1.262882E+0	1.284837E+0	1.267468E+0	1.221288E+0	1.181861E+0	1.248070E+0	1.256163E+0	1.327514E+0	1.251463E+0	1.283706E+0	1.232337E+0	1.231707E+0	1.259790E+0	1.168459E+0	1.091765E+0
5.534940E+2	1.198482E+0	1.161233E+0	1.174360E+0	1.205039E+0	1.229758E+0	1.194209E+0	1.120823E+0	1.166597E+0	1.236698E+0	1.207218E+0	1.200381E+0	1.138014E+0	1.190321E+0	1.192295E+0	1.141950E+0	1.208124E+0	1.130907E+0	1.168185E+0	1.196273E+0	1.165678E+0	1.171119E+0	1.145880E+0	1.150930E+0	1.156519E+0	1.176369E+0	1.179854E+0	1.170633E+0	1.179828E+0	1.159817E+0	1.144680E+0	1.178623E+0	1.193129E+0	1.161981E+0	1.199682E+0	1.135616E+0	1.169978E+0	1.200814E+0	1.153411E+0	1.178871E+0	1.157615E+0	1.182882E+0	1.209546E+0	1.180080E+0	1.192512E+0	1.180788E+0	1.152854E+0	1.146407E+0	1.175447E+0	1.184009E+0	1.135720E+0	1.132317E+0	1.189944E+0	1.220352E+0	1.235963E+0	1.133096E+0	1.150072E+0	1.203990E+0	1.157252E+0	1.219607E+0	1.146019E+0	1.142989E+0	1.159116E+0	1.174417E+0	1.218844E+0	1.125663E+0	1.209033E+0	1.166286E+0	1.195052E+0	1.140214E+0	1.164269E+0	1.176835E+0	1.190776E+0	1.175524E+0	1.219053E+0	1.192120E+0	1.174755E+0	1.145748E+0	1.164097E+0	1.149991E+0	1.115053E+0	1.213448E+0	1.109553E+0	1.170571E+0	1.143598E+0	1.209232E+0	1.083124E+0	1.183846E+0	1.195739E+0	1.191414E+0	1.140836E+0	1.122781E+0	1.154108E+0	1.204213E+0	1.161964E+0	1.191756E+0	1.118525E+0	1.145021E+0	1.140789E+0	1.181262E+0	1.243150E+0	1.132557E+0	1.199544E+0	1.161440E+0	1.185972E+0	1.145957E+0	1.158351E+0	1.169436E+0	1.167528E+0	1.177435E+0	1.126066E+0	1.175782E+0	1.173257E+0	1.202539E+0	1.155294E+0	1.206599E+0	1.219546E+0	1.180587E+0	1.128352E+0	1.163662E+0	1.176865E+0	1.155730E+0	1.158875E+0	1.144104E+0	1.175554E+0	1.190443E+0	1.149629E+0	1.160545E+0	1.138314E+0	1.219590E+0	1.153701E+0	1.120309E+0	1.184132E+0	1.177818E+0	1.131113E+0	1.190173E+0	1.199090E+0	1.154485E+0	1.197014E+0	1.115426E+0	1.199349E+0	1.173391E+0	1.192491E+0	1.169652E+0	1.155683E+0	1.190313E+0	1.138496E+0	1.209889E+0	1.150655E+0	1.158352E+0	1.187759E+0	1.141000E+0	1.221668E+0	1.146862E+0	1.174537E+0	1.160720E+0	1.126651E+0	1.166190E+0	1.176751E+0	1.252792E+0	1.134931E+0	1.151121E+0	1.175287E+0	1.118902E+0	1.075398E+0	1.195100E+0	1.158825E+0	1.157998E+0	1.198744E+0	1.152915E+0	1.148228E+0	1.222971E+0	1.146862E+0
5.542580E+2	1.102673E+0	1.093728E+0	1.174767E+0	1.094021E+0	1.175243E+0	1.146508E+0	1.109189E+0	1.118199E+0	1.118136E+0	1.108294E+0	1.088239E+0	1.116068E+0	1.104387E+0	1.094122E+0	1.099409E+0	1.105610E+0	1.059418E+0	1.094747E+0	1.100281E+0	1.107294E+0	1.161263E+0	1.092850E+0	1.136960E+0	1.125206E+0	1.155842E+0	1.122177E+0	1.105154E+0	1.221686E+0	1.088303E+0	1.117434E+0	1.116010E+0	1.088847E+0	1.098575E+0	1.084853E+0	1.153859E+0	1.171128E+0	1.159959E+0	1.087938E+0	1.139286E+0	1.107167E+0	1.130502E+0	1.082751E+0	1.102383E+0	1.110663E+0	1.076311E+0	1.125066E+0	1.147801E+0	1.119156E+0	1.150831E+0	1.129766E+0	1.039706E+0	1.135148E+0	1.117520E+0	1.123236E+0	1.167478E+0	1.154895E+0	1.080526E+0	1.088784E+0	1.119454E+0	1.167481E+0	1.130510E+0	1.146420E+0	1.135837E+0	1.084703E+0	1.134803E+0	1.105457E+0	1.137395E+0	1.142321E+0	1.126822E+0	1.064961E+0	1.113706E+0	1.100667E+0	1.116413E+0	1.172119E+0	1.137408E+0	1.105766E+0	1.120585E+0	1.093320E+0	1.135070E+0	1.119955E+0	1.127336E+0	1.124306E+0	1.113325E+0	1.132224E+0	1.133941E+0	1.076964E+0	1.101273E+0	1.128214E+0	1.121331E+0	1.108957E+0	1.093794E+0	1.087215E+0	1.060516E+0	1.121725E+0	1.091784E+0	1.103253E+0	1.102178E+0	1.119145E+0	1.146110E+0	1.049596E+0	1.174958E+0	1.151449E+0	1.144297E+0	1.060237E+0	1.129091E+0	1.140631E+0	1.084850E+0	1.118835E+0	1.159977E+0	1.139108E+0	1.128857E+0	1.116388E+0	1.162893E+0	1.122202E+0	1.126269E+0	1.121415E+0	1.118843E+0	1.088821E+0	1.091239E+0	1.108854E+0	1.144200E+0	1.118446E+0	1.085756E+0	1.153378E+0	1.124837E+0	1.135789E+0	1.097923E+0	1.145980E+0	1.102449E+0	1.138101E+0	1.054457E+0	1.110193E+0	1.099492E+0	1.090954E+0	1.125799E+0	1.051602E+0	1.074581E+0	1.142838E+0	1.112347E+0	1.126271E+0	1.183306E+0	1.106625E+0	1.142975E+0	1.134503E+0	1.059546E+0	1.109079E+0	1.140337E+0	1.070037E+0	1.123931E+0	1.138983E+0	1.086138E+0	1.125880E+0	1.150875E+0	1.138302E+0	1.108769E+0	1.176798E+0	1.074669E+0	1.082072E+0	1.094515E+0	1.056549E+0	1.106842E+0	1.100862E+0	1.088911E+0	1.165304E+0	1.120966E+0	1.149362E+0	1.106130E+0	1.134473E+0	1.109130E+0	1.096931E+0	1.172609E+0	1.190335E+0
5.550140E+2	1.051827E+0	1.011577E+0	9.967403E-1	1.033501E+0	1.046003E+0	9.997273E-1	9.623396E-1	1.023806E+0	1.004573E+0	9.847733E-1	1.035371E+0	1.007633E+0	1.003532E+0	9.592559E-1	9.931712E-1	1.008901E+0	1.015191E+0	1.044997E+0	9.910472E-1	1.005891E+0	1.044061E+0	1.079444E+0	1.031911E+0	1.000283E+0	1.030749E+0	1.037519E+0	1.021815E+0	1.063027E+0	1.054414E+0	1.021527E+0	9.902122E-1	9.781264E-1	1.059794E+0	9.745677E-1	9.852004E-1	1.013640E+0	1.031808E+0	1.061297E+0	1.054702E+0	9.846144E-1	9.914685E-1	9.625193E-1	1.025578E+0	1.042321E+0	1.018847E+0	9.723157E-1	1.049303E+0	9.740450E-1	1.030309E+0	1.035823E+0	1.021194E+0	1.011933E+0	1.061466E+0	1.028130E+0	9.819437E-1	9.891749E-1	1.024654E+0	9.830649E-1	9.900069E-1	9.942318E-1	9.883549E-1	1.040850E+0	9.996552E-1	1.050301E+0	1.011977E+0	1.054395E+0	1.001850E+0	1.054552E+0	9.996478E-1	9.907523E-1	1.005611E+0	1.062421E+0	1.008910E+0	1.015552E+0	1.003207E+0	1.025075E+0	9.972995E-1	1.044588E+0	1.052536E+0	1.015369E+0	9.755580E-1	1.028826E+0	1.031530E+0	9.642367E-1	1.047073E+0	1.029170E+0	1.034458E+0	1.025644E+0	9.800733E-1	9.603525E-1	1.018976E+0	1.005204E+0	1.006253E+0	1.006132E+0	1.027011E+0	1.032939E+0	1.013449E+0	1.007054E+0	9.831940E-1	1.019823E+0	1.058128E+0	1.021557E+0	1.022226E+0	1.058976E+0	1.042601E+0	1.008870E+0	1.010508E+0	9.993566E-1	9.783380E-1	1.009291E+0	1.044434E+0	1.001639E+0	1.028427E+0	1.024781E+0	1.021092E+0	1.027168E+0	1.008318E+0	1.013253E+0	1.025855E+0	1.008533E+0	1.047922E+0	1.034259E+0	9.809707E-1	1.081191E+0	9.941170E-1	9.695103E-1	9.730380E-1	1.028036E+0	9.649725E-1	9.931282E-1	1.005040E+0	9.557209E-1	9.987236E-1	9.961551E-1	1.021756E+0	1.008092E+0	1.038100E+0	9.879311E-1	1.069729E+0	1.002931E+0	1.014464E+0	1.022038E+0	1.038321E+0	1.038230E+0	1.020092E+0	1.009989E+0	1.064695E+0	9.823310E-1	1.067127E+0	1.002452E+0	9.828470E-1	1.056640E+0	1.039356E+0	9.932945E-1	1.000598E+0	1.012117E+0	1.023527E+0	1.006791E+0	1.056964E+0	1.010870E+0	9.990998E-1	9.933487E-1	1.040655E+0	1.007557E+0	1.089854E+0	9.915979E-1	1.017547E+0	1.060219E+0	1.014483E+0	1.000571E+0	9.972519E-1	1.052555E+0
5.557600E+2	9.875962E-1	9.336402E-1	9.277102E-1	9.884537E-1	1.012401E+0	9.163878E-1	9.386792E-1	9.162116E-1	9.506109E-1	9.599028E-1	9.664435E-1	9.353319E-1	9.676753E-1	9.331737E-1	9.268898E-1	9.777834E-1	9.335141E-1	9.694854E-1	9.802915E-1	9.812336E-1	9.800178E-1	9.682802E-1	9.464693E-1	9.586895E-1	1.006456E+0	9.482768E-1	1.000350E+0	9.751466E-1	9.868994E-1	9.493992E-1	9.692835E-1	9.998642E-1	9.944356E-1	9.752800E-1	9.871215E-1	9.781928E-1	9.654600E-1	9.517107E-1	1.000084E+0	9.795091E-1	9.429511E-1	9.987637E-1	9.624459E-1	9.754237E-1	9.683320E-1	9.470226E-1	9.616665E-1	9.951628E-1	1.004773E+0	9.413900E-1	9.900537E-1	9.742724E-1	9.986783E-1	9.894845E-1	9.937302E-1	9.647943E-1	1.002452E+0	9.960857E-1	9.631445E-1	9.762279E-1	9.833080E-1	9.397912E-1	9.462245E-1	9.863285E-1	9.869586E-1	9.601580E-1	1.055044E+0	9.519328E-1	9.766820E-1	9.546858E-1	9.876228E-1	9.793769E-1	1.018017E+0	9.638174E-1	9.327386E-1	9.877356E-1	9.502037E-1	9.987764E-1	9.469792E-1	9.544649E-1	9.534387E-1	9.864251E-1	9.753516E-1	9.830889E-1	9.694687E-1	9.181922E-1	9.871124E-1	1.000528E+0	9.892761E-1	8.970867E-1	9.777345E-1	9.660715E-1	9.625642E-1	9.676812E-1	1.007986E+0	1.019792E+0	1.015685E+0	9.577831E-1	9.776455E-1	9.853525E-1	1.040036E+0	9.556445E-1	9.819176E-1	9.707709E-1	1.008217E+0	9.607987E-1	9.911130E-1	9.400472E-1	9.477541E-1	9.616344E-1	9.494210E-1	9.582298E-1	9.662213E-1	9.298016E-1	1.038112E+0	9.935778E-1	9.439299E-1	1.008545E+0	9.709251E-1	9.537443E-1	9.950892E-1	9.362759E-1	9.739365E-1	1.009043E+0	9.881751E-1	9.494943E-1	9.424754E-1	9.546236E-1	9.974179E-1	1.020738E+0	9.178027E-1	9.464296E-1	9.809753E-1	9.594180E-1	9.515189E-1	9.778505E-1	9.644801E-1	9.236149E-1	9.840184E-1	9.900959E-1	9.954887E-1	9.647720E-1	9.489934E-1	9.720250E-1	9.830493E-1	9.330045E-1	9.841785E-1	9.331010E-1	9.622957E-1	9.418403E-1	9.271326E-1	9.467424E-1	9.550031E-1	9.172144E-1	9.593098E-1	9.750203E-1	9.604683E-1	1.018031E+0	9.615061E-1	8.874679E-1	9.359952E-1	1.008454E+0	9.896585E-1	9.907924E-1	1.003267E+0	1.000860E+0	9.969097E-1	9.969083E-1	9.926713E-1	9.403903E-1	9.667873E-1	8.931427E-1
5.560190E+2	9.621813E-1	9.466837E-1	9.625554E-1	9.717195E-1	1.001138E+0	1.003497E+0	9.477368E-1	9.348623E-1	9.770245E-1	9.851755E-1	9.745125E-1	9.681517E-1	9.245460E-1	9.521607E-1	9.571347E-1	9.831397E-1	9.236193E-1	9.567460E-1	9.509432E-1	9.659668E-1	9.505466E-1	9.272973E-1	9.268150E-1	9.241557E-1	9.712772E-1	9.786075E-1	8.766022E-1	1.016052E+0	9.863491E-1	9.766671E-1	9.665330E-1	9.767573E-1	9.333060E-1	1.007878E+0	9.245247E-1	9.544797E-1	9.373024E-1	1.011452E+0	9.557238E-1	9.658467E-1	9.735526E-1	9.572104E-1	9.522551E-1	9.856601E-1	9.634239E-1	9.764765E-1	9.719705E-1	9.459809E-1	9.733968E-1	9.516232E-1	9.486634E-1	9.770236E-1	9.961180E-1	9.748986E-1	9.729339E-1	1.001738E+0	1.003359E+0	9.698268E-1	1.001659E+0	9.614279E-1	9.882689E-1	1.001685E+0	9.808145E-1	9.178993E-1	9.877320E-1	9.556106E-1	9.752983E-1	9.625611E-1	9.447688E-1	9.519190E-1	9.665507E-1	9.929245E-1	9.914898E-1	9.981654E-1	9.686064E-1	9.676201E-1	9.995176E-1	9.517572E-1	9.688151E-1	9.547054E-1	9.548734E-1	9.695339E-1	9.527536E-1	9.639690E-1	9.444864E-1	9.907241E-1	9.721871E-1	9.556997E-1	9.729251E-1	9.644282E-1	1.000394E+0	9.778122E-1	9.596763E-1	9.956778E-1	1.007224E+0	9.384891E-1	9.444030E-1	9.316350E-1	1.023370E+0	9.186195E-1	9.748933E-1	9.827960E-1	1.004517E+0	9.969634E-1	9.281128E-1	9.608892E-1	9.862438E-1	9.785471E-1	9.732855E-1	9.415976E-1	9.243034E-1	9.649439E-1	9.531320E-1	9.759841E-1	9.761375E-1	9.514505E-1	9.732659E-1	9.534405E-1	9.962322E-1	9.426674E-1	9.898062E-1	9.641775E-1	9.400773E-1	1.036535E+0	9.927755E-1	9.562682E-1	9.793437E-1	9.710778E-1	9.424336E-1	9.592464E-1	9.453150E-1	9.054381E-1	9.200250E-1	9.748048E-1	9.722081E-1	9.167541E-1	1.012081E+0	9.804593E-1	9.040098E-1	9.130688E-1	9.442652E-1	9.343662E-1	9.493954E-1	9.390247E-1	1.006539E+0	9.708537E-1	9.232438E-1	9.535783E-1	9.510356E-1	1.000549E+0	9.375360E-1	9.720793E-1	9.307014E-1	9.405191E-1	9.035856E-1	9.598249E-1	9.964109E-1	9.879873E-1	9.866104E-1	9.724193E-1	9.713312E-1	9.400126E-1	9.342546E-1	9.391827E-1	9.917721E-1	9.203984E-1	9.630202E-1	9.823590E-1	9.934990E-1	1.009339E+0	9.453876E-1	9.486342E-1
5.565140E+2	9.697162E-1	9.741658E-1	1.024895E+0	9.463015E-1	9.625295E-1	9.854325E-1	9.163338E-1	9.428251E-1	9.626425E-1	9.822796E-1	1.000774E+0	1.009439E+0	9.866445E-1	9.740276E-1	1.016720E+0	9.470649E-1	9.014562E-1	9.871885E-1	9.996460E-1	1.007002E+0	9.964445E-1	9.751504E-1	9.310160E-1	9.443158E-1	1.016821E+0	9.742752E-1	1.002540E+0	9.971870E-1	9.563452E-1	9.662396E-1	9.695747E-1	9.963690E-1	9.836441E-1	9.457682E-1	9.723252E-1	9.928989E-1	9.667047E-1	9.410850E-1	9.982433E-1	9.940255E-1	9.701349E-1	9.992408E-1	9.795356E-1	9.723275E-1	1.003334E+0	9.634747E-1	9.500243E-1	9.575132E-1	9.640693E-1	9.797733E-1	9.900550E-1	1.009610E+0	9.990503E-1	9.835753E-1	9.765145E-1	9.810771E-1	9.902630E-1	9.844900E-1	1.008581E+0	9.708584E-1	9.627962E-1	9.410969E-1	9.592274E-1	9.275434E-1	9.732650E-1	1.021676E+0	9.834929E-1	9.489790E-1	9.763515E-1	9.657370E-1	1.007888E+0	9.664659E-1	9.585301E-1	9.628481E-1	9.559453E-1	1.015728E+0	9.682173E-1	9.715608E-1	9.830549E-1	9.114849E-1	9.768011E-1	1.002428E+0	1.013111E+0	9.887722E-1	9.817161E-1	9.667834E-1	9.822550E-1	9.915095E-1	9.822508E-1	9.932911E-1	1.014131E+0	9.741426E-1	1.000287E+0	9.656978E-1	9.890364E-1	9.616942E-1	1.012221E+0	9.690452E-1	9.854041E-1	9.492867E-1	9.495347E-1	9.873565E-1	9.555466E-1	9.854710E-1	1.024833E+0	9.805140E-1	9.741910E-1	1.022518E+0	9.776872E-1	9.910805E-1	9.734307E-1	1.003792E+0	9.532209E-1	9.580713E-1	9.676209E-1	9.551597E-1	9.940142E-1	9.292021E-1	9.810115E-1	1.037090E+0	9.922512E-1	9.884846E-1	9.840888E-1	1.017418E+0	9.891911E-1	9.922023E-1	1.005858E+0	9.627841E-1	1.006316E+0	9.706965E-1	9.980809E-1	9.872771E-1	9.753989E-1	9.534669E-1	9.822605E-1	1.000363E+0	1.033368E+0	9.781845E-1	9.516592E-1	9.671555E-1	9.774211E-1	9.698111E-1	1.024036E+0	9.359619E-1	1.009010E+0	9.762029E-1	9.695774E-1	9.859540E-1	9.874886E-1	9.705083E-1	9.547996E-1	9.775479E-1	1.058520E+0	9.940909E-1	9.608640E-1	9.729473E-1	9.877271E-1	9.379320E-1	9.827823E-1	1.051427E+0	9.537372E-1	9.677318E-1	9.530503E-1	9.385383E-1	9.873462E-1	9.575220E-1	9.576149E-1	9.991371E-1	9.679149E-1	1.028136E+0	9.706507E-1	9.908237E-1
5.570050E+2	1.002930E+0	9.720193E-1	9.402853E-1	9.543223E-1	9.580434E-1	9.500976E-1	9.539171E-1	9.089516E-1	9.802196E-1	9.582237E-1	9.601128E-1	9.950889E-1	9.098909E-1	9.404608E-1	9.519224E-1	9.446728E-1	9.506745E-1	9.722996E-1	9.423257E-1	9.316766E-1	9.960026E-1	9.366162E-1	9.776881E-1	9.369544E-1	9.153222E-1	9.683088E-1	9.001178E-1	9.856411E-1	9.512928E-1	9.326601E-1	9.448245E-1	9.512072E-1	9.490011E-1	9.633172E-1	9.097472E-1	9.691602E-1	9.140507E-1	9.582975E-1	9.887664E-1	9.806511E-1	9.458079E-1	9.802532E-1	9.459842E-1	9.353587E-1	9.665975E-1	9.518395E-1	9.581381E-1	9.512027E-1	9.272808E-1	9.895924E-1	9.358001E-1	9.770605E-1	9.545621E-1	9.644916E-1	9.469330E-1	9.020537E-1	9.694013E-1	9.936376E-1	9.862021E-1	9.234760E-1	9.798069E-1	9.883109E-1	9.711003E-1	9.506362E-1	9.355508E-1	9.589692E-1	9.783001E-1	9.643967E-1	9.634685E-1	9.807740E-1	9.554144E-1	9.500197E-1	9.741399E-1	9.509006E-1	9.620096E-1	9.711281E-1	9.741002E-1	9.835796E-1	9.406289E-1	9.749091E-1	9.238693E-1	8.790698E-1	9.405287E-1	9.907155E-1	8.883312E-1	9.341843E-1	9.317179E-1	9.672705E-1	9.554877E-1	9.478984E-1	9.477229E-1	9.359813E-1	9.676972E-1	9.544703E-1	9.884441E-1	9.553860E-1	9.393272E-1	9.538213E-1	9.520562E-1	9.455884E-1	9.401340E-1	9.547055E-1	9.182151E-1	9.099202E-1	9.281484E-1	9.743165E-1	9.824639E-1	9.700884E-1	9.315616E-1	9.795439E-1	9.739449E-1	9.540162E-1	9.532113E-1	9.794122E-1	9.124101E-1	9.401457E-1	9.315254E-1	9.858140E-1	9.875885E-1	9.749142E-1	9.631960E-1	9.159640E-1	9.395847E-1	9.586107E-1	9.696617E-1	9.389735E-1	9.735229E-1	9.773275E-1	9.197719E-1	1.006517E+0	9.625023E-1	9.672584E-1	9.310831E-1	9.487939E-1	9.647301E-1	8.875370E-1	9.199007E-1	9.919494E-1	9.477816E-1	9.542503E-1	9.693184E-1	9.905060E-1	9.708523E-1	9.311326E-1	9.431963E-1	9.115561E-1	9.651673E-1	9.277431E-1	9.752218E-1	9.736917E-1	8.972490E-1	9.465204E-1	9.645841E-1	1.009180E+0	9.671497E-1	9.412735E-1	9.801974E-1	9.806317E-1	9.358184E-1	9.750415E-1	9.926960E-1	9.256804E-1	9.484850E-1	9.967799E-1	9.841836E-1	9.645959E-1	9.947359E-1	9.398991E-1	9.488992E-1	9.665097E-1	9.405295E-1	1.004187E+0
5.575080E+2	9.414293E-1	9.641215E-1	9.577117E-1	9.084977E-1	1.001916E+0	9.103117E-1	9.914198E-1	9.574844E-1	9.789883E-1	9.353780E-1	1.007146E+0	9.553405E-1	9.334046E-1	9.533821E-1	9.151273E-1	9.269441E-1	9.971100E-1	9.816691E-1	9.458725E-1	9.866144E-1	9.758584E-1	9.742843E-1	9.360255E-1	1.001139E+0	9.670236E-1	9.590970E-1	9.835894E-1	9.412048E-1	9.454063E-1	9.842329E-1	9.119762E-1	9.780016E-1	9.818342E-1	9.705158E-1	9.743531E-1	9.609111E-1	9.913544E-1	9.751446E-1	1.000794E+0	9.304236E-1	9.407229E-1	9.418134E-1	9.357764E-1	1.020407E+0	9.570261E-1	9.784996E-1	9.935859E-1	9.360919E-1	9.518305E-1	1.002331E+0	9.530329E-1	9.503814E-1	9.413191E-1	1.017478E+0	9.611732E-1	9.870232E-1	9.873735E-1	9.639733E-1	9.510548E-1	9.459403E-1	9.721229E-1	1.002584E+0	1.008251E+0	9.431667E-1	9.683949E-1	9.829549E-1	9.369167E-1	9.627521E-1	9.434213E-1	9.433738E-1	9.534588E-1	9.600913E-1	9.691778E-1	9.539867E-1	9.714810E-1	9.533605E-1	9.586945E-1	9.528680E-1	9.751572E-1	9.459971E-1	9.530270E-1	9.798552E-1	9.604625E-1	9.698982E-1	9.665663E-1	9.815871E-1	9.892538E-1	9.776216E-1	9.331628E-1	9.682435E-1	9.686514E-1	9.693373E-1	9.967268E-1	9.616479E-1	9.822951E-1	9.507672E-1	1.004224E+0	9.750630E-1	9.635747E-1	9.613520E-1	9.802106E-1	9.510273E-1	9.982980E-1	9.530923E-1	9.466049E-1	9.171219E-1	9.466032E-1	1.001697E+0	9.589904E-1	9.618832E-1	9.249530E-1	9.245746E-1	9.598791E-1	9.916977E-1	1.002940E+0	9.672387E-1	9.669591E-1	9.556330E-1	9.734317E-1	9.789416E-1	9.067257E-1	9.649215E-1	9.899517E-1	9.440613E-1	9.354632E-1	9.518506E-1	9.553543E-1	9.404205E-1	9.609977E-1	9.443882E-1	9.820133E-1	9.405457E-1	9.318901E-1	9.973723E-1	9.546422E-1	9.741777E-1	9.322029E-1	9.743706E-1	9.244102E-1	9.664755E-1	9.844562E-1	9.969881E-1	9.676143E-1	9.827098E-1	9.775116E-1	9.540633E-1	9.361769E-1	9.816134E-1	9.497302E-1	9.470570E-1	1.005817E+0	9.717249E-1	9.589462E-1	9.774236E-1	9.903512E-1	9.438612E-1	9.535986E-1	9.541680E-1	9.570333E-1	9.839959E-1	9.576323E-1	9.189517E-1	9.394173E-1	9.844970E-1	9.491809E-1	9.287352E-1	9.468406E-1	9.292554E-1	8.916180E-1	9.150530E-1	9.716150E-1	1.024415E+0
5.580000E+2	1.054858E+0	1.046835E+0	9.947701E-1	9.841498E-1	9.850102E-1	1.006199E+0	9.952591E-1	1.044157E+0	1.004609E+0	1.040989E+0	1.022895E+0	9.878598E-1	9.937051E-1	1.021090E+0	1.049640E+0	1.076558E+0	1.019329E+0	1.030760E+0	1.030668E+0	1.018204E+0	1.009216E+0	1.002782E+0	1.019483E+0	9.724391E-1	1.037953E+0	1.025180E+0	1.027590E+0	1.007776E+0	1.019268E+0	1.019575E+0	9.954574E-1	1.012779E+0	9.788114E-1	1.036750E+0	9.804904E-1	1.023839E+0	1.002320E+0	1.039540E+0	1.000994E+0	1.016724E+0	1.052771E+0	9.837156E-1	1.049494E+0	1.015622E+0	1.018283E+0	1.015094E+0	1.032941E+0	1.026129E+0	1.029910E+0	1.026007E+0	1.040336E+0	9.852899E-1	1.008249E+0	1.008234E+0	1.003510E+0	1.023246E+0	1.002280E+0	9.625024E-1	1.003530E+0	1.034636E+0	1.004619E+0	9.902788E-1	1.030126E+0	9.965916E-1	1.004703E+0	1.021806E+0	9.542099E-1	1.062437E+0	1.008549E+0	1.010261E+0	1.022081E+0	9.921646E-1	1.006214E+0	1.053311E+0	1.015616E+0	1.017688E+0	1.010699E+0	1.026144E+0	9.878108E-1	1.044917E+0	1.009733E+0	1.012711E+0	1.021058E+0	1.024288E+0	1.013546E+0	1.000093E+0	1.034551E+0	9.932220E-1	9.976661E-1	1.043422E+0	9.939141E-1	1.072650E+0	1.008207E+0	9.795898E-1	9.925000E-1	1.023958E+0	9.988473E-1	1.031284E+0	1.020502E+0	1.068300E+0	9.958706E-1	9.686555E-1	1.049261E+0	1.067471E+0	9.813915E-1	1.038914E+0	1.004908E+0	1.056868E+0	1.004434E+0	1.053039E+0	1.012656E+0	1.018521E+0	1.029855E+0	1.031229E+0	1.000655E+0	1.027120E+0	1.000493E+0	1.023589E+0	1.004297E+0	1.028823E+0	9.941321E-1	1.022710E+0	1.043741E+0	1.017741E+0	1.004385E+0	1.056026E+0	1.036552E+0	1.041857E+0	1.014096E+0	1.058126E+0	1.027737E+0	9.937933E-1	1.009291E+0	9.733065E-1	1.018587E+0	9.860159E-1	1.035657E+0	1.044642E+0	1.015361E+0	9.923784E-1	1.003999E+0	9.896254E-1	9.948729E-1	1.006392E+0	1.046293E+0	1.019740E+0	1.046914E+0	1.044980E+0	9.933991E-1	1.034519E+0	1.028753E+0	1.012657E+0	1.036523E+0	1.030845E+0	1.033780E+0	9.889034E-1	1.014721E+0	1.011281E+0	1.012690E+0	9.872779E-1	1.044670E+0	1.011673E+0	1.022666E+0	9.969672E-1	1.017728E+0	9.979154E-1	1.023630E+0	9.933067E-1	1.025379E+0	1.042468E+0	1.038840E+0	9.461739E-1
5.585160E+2	1.042265E+0	9.892317E-1	9.373822E-1	1.043900E+0	9.799633E-1	1.007574E+0	1.038089E+0	1.053834E+0	1.045100E+0	1.045796E+0	1.012950E+0	9.992100E-1	9.785942E-1	1.037630E+0	1.005411E+0	9.675075E-1	1.016944E+0	1.040677E+0	1.014007E+0	1.028362E+0	9.903294E-1	1.012443E+0	1.028026E+0	1.010681E+0	1.009304E+0	1.019756E+0	1.021873E+0	9.967383E-1	1.032981E+0	1.022276E+0	1.001941E+0	1.019098E+0	1.094745E+0	1.017713E+0	1.024343E+0	1.044372E+0	1.007533E+0	1.049833E+0	1.020718E+0	1.034446E+0	9.708335E-1	1.052051E+0	1.042660E+0	1.044690E+0	1.014225E+0	1.002506E+0	1.004788E+0	1.026642E+0	1.072375E+0	9.917313E-1	9.978581E-1	1.042582E+0	1.028966E+0	9.576292E-1	1.025337E+0	1.026988E+0	9.914567E-1	1.027609E+0	9.691740E-1	9.949691E-1	1.001255E+0	1.028320E+0	1.018533E+0	1.034026E+0	1.003084E+0	1.019498E+0	1.016047E+0	1.022259E+0	9.872226E-1	1.044408E+0	1.001472E+0	1.031872E+0	1.002809E+0	1.059114E+0	1.043335E+0	1.016968E+0	1.035118E+0	1.031434E+0	1.004415E+0	1.050074E+0	1.017224E+0	1.009270E+0	9.910915E-1	9.917545E-1	1.048873E+0	9.862056E-1	9.870655E-1	1.027901E+0	1.037521E+0	1.004858E+0	1.023272E+0	1.039065E+0	9.664110E-1	1.001347E+0	1.001800E+0	1.078421E+0	1.020155E+0	1.043526E+0	9.998747E-1	1.004031E+0	1.001125E+0	1.034830E+0	9.828759E-1	1.036759E+0	1.000434E+0	1.012313E+0	9.879549E-1	9.827983E-1	9.938059E-1	1.019663E+0	1.044884E+0	1.023835E+0	1.007180E+0	1.016831E+0	1.039602E+0	1.094180E+0	1.012147E+0	1.007222E+0	9.899529E-1	9.878082E-1	1.067103E+0	1.047973E+0	1.003263E+0	1.030450E+0	1.035900E+0	9.386343E-1	9.953411E-1	1.025436E+0	1.014084E+0	9.673338E-1	1.032460E+0	9.947191E-1	1.036635E+0	1.061175E+0	1.031271E+0	1.001139E+0	1.033580E+0	9.851132E-1	1.076016E+0	9.958432E-1	9.945506E-1	9.913340E-1	9.758206E-1	1.014262E+0	1.034490E+0	1.021493E+0	1.008604E+0	1.011894E+0	1.016641E+0	1.028082E+0	9.938743E-1	1.001895E+0	1.018276E+0	1.041247E+0	9.904396E-1	9.925254E-1	9.924145E-1	9.739873E-1	1.018335E+0	1.022740E+0	1.000283E+0	1.034436E+0	1.026999E+0	9.850520E-1	1.003647E+0	1.004547E+0	1.025041E+0	1.007779E+0	1.059277E+0	1.062515E+0	1.006996E+0	9.761388E-1
5.590100E+2	9.513689E-1	9.900183E-1	1.010430E+0	1.001704E+0	9.689579E-1	1.029121E+0	1.020614E+0	1.003649E+0	1.005072E+0	9.624131E-1	9.360741E-1	9.442931E-1	1.025635E+0	9.982008E-1	9.708208E-1	9.697622E-1	1.012461E+0	9.780557E-1	1.019016E+0	9.522726E-1	1.006755E+0	1.027583E+0	1.009866E+0	1.039738E+0	1.000274E+0	1.027120E+0	9.862030E-1	1.002846E+0	1.020043E+0	1.002489E+0	1.059634E+0	9.871697E-1	1.028573E+0	9.849441E-1	1.000173E+0	9.813544E-1	1.010325E+0	1.015644E+0	1.018523E+0	9.829472E-1	9.987745E-1	9.959975E-1	9.939993E-1	1.009588E+0	9.785386E-1	9.635140E-1	1.006250E+0	1.022629E+0	9.375485E-1	1.020034E+0	9.690312E-1	9.863364E-1	9.689294E-1	1.025334E+0	9.576139E-1	1.002399E+0	9.994343E-1	9.419365E-1	1.045993E+0	9.705843E-1	1.010506E+0	9.738112E-1	9.872202E-1	1.044610E+0	1.038589E+0	1.032785E+0	1.009064E+0	1.015903E+0	9.831283E-1	1.002298E+0	9.919463E-1	1.060472E+0	1.009894E+0	1.071329E+0	1.044046E+0	9.442640E-1	9.664837E-1	9.770450E-1	1.016393E+0	9.653480E-1	1.032256E+0	9.917902E-1	9.750848E-1	9.733227E-1	1.011172E+0	1.010792E+0	9.893832E-1	1.029793E+0	9.765499E-1	9.716679E-1	9.904724E-1	9.724708E-1	1.027032E+0	1.023644E+0	9.577631E-1	1.003463E+0	9.782465E-1	9.985930E-1	1.031338E+0	1.049009E+0	1.027480E+0	9.915053E-1	1.011483E+0	9.867015E-1	1.008408E+0	1.047119E+0	1.001332E+0	9.850233E-1	9.632488E-1	9.767362E-1	9.758354E-1	1.014631E+0	1.034006E+0	9.899812E-1	1.022477E+0	9.979691E-1	1.004178E+0	1.018823E+0	1.000750E+0	9.820862E-1	9.491968E-1	9.977697E-1	9.819794E-1	9.816413E-1	1.024713E+0	9.739647E-1	1.027516E+0	9.535948E-1	1.017587E+0	9.955838E-1	9.804651E-1	9.851974E-1	1.018400E+0	9.919827E-1	1.025616E+0	9.947672E-1	9.596826E-1	9.691256E-1	9.669426E-1	1.034813E+0	1.017375E+0	9.691058E-1	9.553345E-1	1.049507E+0	9.926623E-1	9.874128E-1	9.361283E-1	9.825617E-1	1.001358E+0	9.535406E-1	1.019329E+0	9.956562E-1	9.914851E-1	9.683147E-1	9.789507E-1	1.015407E+0	1.020605E+0	1.013207E+0	1.025463E+0	9.595416E-1	1.013777E+0	1.026152E+0	9.907959E-1	9.580603E-1	9.783685E-1	1.004342E+0	9.982994E-1	1.018769E+0	1.042222E+0	9.529717E-1	1.009844E+0	1.003861E+0
5.595110E+2	1.050870E+0	1.071237E+0	1.004771E+0	1.036450E+0	1.083694E+0	1.100179E+0	1.011090E+0	1.023330E+0	9.928470E-1	1.051971E+0	1.066998E+0	1.002084E+0	1.060900E+0	1.014495E+0	1.021449E+0	1.057138E+0	1.064086E+0	9.891248E-1	1.005626E+0	9.953394E-1	1.026595E+0	1.018414E+0	9.784189E-1	1.088349E+0	1.006326E+0	1.008870E+0	1.042406E+0	1.011522E+0	9.636720E-1	1.030697E+0	1.019764E+0	9.553843E-1	9.595184E-1	1.045006E+0	9.839907E-1	9.920144E-1	1.016564E+0	1.007117E+0	9.994702E-1	1.007183E+0	1.027603E+0	9.922248E-1	1.017389E+0	1.047384E+0	1.038155E+0	1.028584E+0	1.033466E+0	9.844873E-1	1.015970E+0	1.003168E+0	1.057517E+0	1.024582E+0	1.019620E+0	1.022355E+0	1.033541E+0	1.005652E+0	9.976742E-1	1.049716E+0	9.762843E-1	1.053408E+0	9.932725E-1	1.021458E+0	1.026588E+0	9.939450E-1	1.019213E+0	1.009499E+0	1.034945E+0	9.834291E-1	1.032471E+0	9.775707E-1	1.045871E+0	9.996790E-1	1.034857E+0	1.009569E+0	1.005808E+0	1.006970E+0	1.018084E+0	1.028963E+0	1.050535E+0	1.042857E+0	1.012679E+0	1.076103E+0	1.071485E+0	1.022059E+0	1.041792E+0	1.046941E+0	9.960840E-1	1.021260E+0	1.013903E+0	1.011164E+0	1.046533E+0	9.450070E-1	9.989969E-1	1.086094E+0	1.004409E+0	1.025919E+0	1.012338E+0	1.030494E+0	1.021403E+0	9.920366E-1	1.057411E+0	1.013037E+0	1.039921E+0	1.015842E+0	1.024838E+0	1.034537E+0	1.026696E+0	1.009057E+0	1.052773E+0	1.004786E+0	1.017800E+0	9.331639E-1	9.796086E-1	1.045634E+0	1.040240E+0	9.781193E-1	1.031814E+0	1.023335E+0	1.016365E+0	1.004140E+0	1.035403E+0	1.030481E+0	1.034612E+0	1.042915E+0	1.014469E+0	1.045253E+0	1.021176E+0	1.031510E+0	1.027065E+0	9.951122E-1	9.859394E-1	1.021414E+0	1.070449E+0	1.004565E+0	1.028346E+0	9.911921E-1	1.034168E+0	1.011031E+0	1.015906E+0	1.017199E+0	9.703785E-1	1.034320E+0	1.036657E+0	9.905491E-1	1.028187E+0	9.951374E-1	1.041532E+0	9.894094E-1	1.017664E+0	9.873242E-1	1.036199E+0	1.071949E+0	9.837541E-1	9.900246E-1	1.006872E+0	1.051204E+0	1.030730E+0	1.022390E+0	1.031326E+0	9.948950E-1	1.018982E+0	1.023946E+0	1.017891E+0	1.050408E+0	1.015039E+0	1.032816E+0	1.026375E+0	1.025311E+0	1.011091E+0	1.029276E+0	1.042512E+0	1.018688E+0
5.600520E+2	9.841145E-1	1.024599E+0	1.070397E+0	1.085077E+0	1.016190E+0	1.006252E+0	1.018707E+0	1.009752E+0	1.024246E+0	1.020993E+0	1.003995E+0	1.057075E+0	1.022493E+0	1.037205E+0	1.063503E+0	1.026719E+0	1.030217E+0	1.002952E+0	1.001718E+0	1.020643E+0	1.028272E+0	1.029893E+0	1.052848E+0	1.024546E+0	1.032224E+0	1.030242E+0	1.001688E+0	1.040715E+0	1.111294E+0	1.005712E+0	1.024546E+0	1.043388E+0	1.058467E+0	1.029996E+0	1.054036E+0	1.022040E+0	1.028224E+0	1.012511E+0	1.029026E+0	9.995150E-1	1.015777E+0	1.016476E+0	1.011992E+0	1.006789E+0	9.945850E-1	1.045181E+0	1.012011E+0	1.021776E+0	1.034065E+0	1.003156E+0	1.014672E+0	1.026380E+0	1.001795E+0	1.000183E+0	1.002220E+0	1.027763E+0	9.790714E-1	1.049557E+0	1.033932E+0	1.030587E+0	1.025711E+0	1.024726E+0	1.030998E+0	1.030656E+0	9.861214E-1	9.699555E-1	1.035383E+0	1.036739E+0	1.031192E+0	1.015974E+0	1.014241E+0	1.057612E+0	1.020435E+0	1.001533E+0	9.954941E-1	1.014214E+0	1.021629E+0	1.003030E+0	1.027704E+0	1.021376E+0	1.013666E+0	1.010062E+0	1.036297E+0	9.861533E-1	1.024399E+0	9.613970E-1	1.057092E+0	9.548489E-1	9.930551E-1	1.054088E+0	1.026138E+0	1.047508E+0	1.044788E+0	9.687345E-1	1.046664E+0	1.038479E+0	1.064022E+0	1.009867E+0	1.045170E+0	1.018109E+0	1.003945E+0	1.057167E+0	1.013952E+0	1.003172E+0	1.060584E+0	1.014977E+0	1.031469E+0	1.032123E+0	9.933139E-1	1.018265E+0	1.046021E+0	1.036700E+0	1.055400E+0	1.026755E+0	1.003759E+0	9.939084E-1	1.020664E+0	1.015593E+0	1.013138E+0	1.010892E+0	1.041227E+0	1.044505E+0	1.010258E+0	1.010275E+0	1.014425E+0	1.050584E+0	1.001256E+0	9.888798E-1	1.032797E+0	1.026635E+0	1.041932E+0	1.036854E+0	1.015997E+0	1.058090E+0	9.997965E-1	1.061829E+0	1.044004E+0	1.012790E+0	1.013184E+0	9.930762E-1	9.913467E-1	1.014163E+0	1.045291E+0	1.032828E+0	1.037501E+0	1.101131E+0	1.054236E+0	9.999611E-1	1.011080E+0	1.046916E+0	1.051124E+0	1.036730E+0	9.419187E-1	1.012106E+0	1.058846E+0	1.026149E+0	1.034564E+0	1.065106E+0	1.054768E+0	1.021257E+0	1.022437E+0	1.018892E+0	1.079518E+0	1.037205E+0	1.019985E+0	1.040488E+0	1.019742E+0	1.008407E+0	1.029699E+0	9.972241E-1	1.022497E+0	1.059946E+0
5.605150E+2	1.013260E+0	9.559996E-1	1.058889E+0	1.026960E+0	1.032362E+0	1.000724E+0	1.032052E+0	1.015414E+0	1.016994E+0	1.053432E+0	1.002544E+0	1.041361E+0	1.024215E+0	1.000249E+0	1.000232E+0	1.038400E+0	1.024415E+0	1.012553E+0	1.026591E+0	1.005923E+0	9.477202E-1	1.007150E+0	1.020062E+0	9.913798E-1	1.002791E+0	1.003173E+0	1.029008E+0	1.025774E+0	9.948136E-1	1.047663E+0	1.059210E+0	1.071390E+0	9.737113E-1	1.013963E+0	1.055088E+0	1.015859E+0	1.044052E+0	1.021593E+0	9.986334E-1	1.011184E+0	1.028954E+0	1.042016E+0	9.897138E-1	1.004831E+0	1.024147E+0	1.039744E+0	1.012724E+0	1.029424E+0	1.027174E+0	1.011410E+0	1.033154E+0	1.014408E+0	1.040882E+0	1.017927E+0	1.041600E+0	1.021623E+0	1.030386E+0	9.742558E-1	1.012502E+0	1.015351E+0	1.031485E+0	1.033293E+0	1.020230E+0	1.040575E+0	1.036297E+0	1.028816E+0	1.032517E+0	9.933543E-1	1.036971E+0	1.033336E+0	9.724847E-1	9.865216E-1	1.023538E+0	9.857030E-1	1.032858E+0	1.068024E+0	1.058235E+0	1.016456E+0	1.051709E+0	1.018479E+0	1.030930E+0	1.048806E+0	1.026154E+0	1.036909E+0	9.893195E-1	1.056276E+0	1.027041E+0	9.805519E-1	1.039434E+0	1.041673E+0	9.670468E-1	1.025140E+0	9.890841E-1	1.026681E+0	1.021858E+0	9.520821E-1	1.005210E+0	9.886586E-1	1.006291E+0	1.040489E+0	1.044735E+0	1.026877E+0	1.027424E+0	1.073592E+0	1.015371E+0	9.480697E-1	1.036577E+0	9.642124E-1	1.099787E+0	1.026940E+0	1.028857E+0	1.040596E+0	1.060100E+0	9.837558E-1	1.011359E+0	1.032009E+0	1.042811E+0	1.055087E+0	1.018942E+0	1.021184E+0	1.032043E+0	9.915655E-1	1.007584E+0	1.028305E+0	1.006488E+0	1.033493E+0	9.299354E-1	1.031947E+0	1.008168E+0	1.013535E+0	9.997540E-1	1.037596E+0	1.040442E+0	1.032922E+0	9.924745E-1	1.051950E+0	1.009384E+0	1.046171E+0	1.076638E+0	1.040165E+0	1.058223E+0	9.904489E-1	1.031131E+0	1.044327E+0	9.660229E-1	1.027257E+0	1.013070E+0	1.036362E+0	1.042522E+0	1.032521E+0	9.981460E-1	1.012738E+0	1.024426E+0	9.960684E-1	9.855512E-1	1.032990E+0	1.019223E+0	1.024387E+0	1.005625E+0	1.010746E+0	1.010519E+0	1.016797E+0	9.997264E-1	1.040840E+0	1.013653E+0	1.058086E+0	9.945611E-1	1.021709E+0	9.928137E-1	1.045984E+0	1.032410E+0	9.677843E-1
5.609950E+2	9.891886E-1	1.011772E+0	1.000469E+0	1.012638E+0	1.011333E+0	1.004110E+0	1.022518E+0	1.040603E+0	9.892814E-1	9.485247E-1	9.865105E-1	1.008249E+0	1.064518E+0	1.023260E+0	1.005174E+0	1.045233E+0	9.833069E-1	1.004721E+0	1.014529E+0	1.053963E+0	1.022807E+0	1.015684E+0	1.046566E+0	9.904591E-1	1.011961E+0	9.839787E-1	1.004985E+0	9.905962E-1	1.004884E+0	9.884563E-1	1.013072E+0	9.852140E-1	9.916948E-1	9.920273E-1	1.045454E+0	9.975520E-1	1.018872E+0	9.792347E-1	9.448315E-1	1.042901E+0	1.048621E+0	9.962114E-1	1.033456E+0	9.430034E-1	1.005109E+0	1.011564E+0	9.960717E-1	1.044103E+0	1.039776E+0	9.727962E-1	1.008543E+0	9.833690E-1	1.036627E+0	1.002792E+0	1.051558E+0	1.022176E+0	1.052660E+0	1.052322E+0	1.012748E+0	1.060190E+0	1.018425E+0	9.961209E-1	9.477259E-1	1.038250E+0	1.034782E+0	9.540405E-1	1.019125E+0	1.009750E+0	1.037224E+0	1.026268E+0	1.035142E+0	9.951017E-1	1.000407E+0	9.517054E-1	9.734070E-1	9.916551E-1	9.887407E-1	1.008920E+0	9.625933E-1	1.024558E+0	1.029813E+0	9.899041E-1	9.647274E-1	1.016127E+0	1.034286E+0	1.055741E+0	1.005557E+0	1.056023E+0	1.070970E+0	9.636946E-1	1.022118E+0	1.018699E+0	1.000770E+0	1.032094E+0	1.015230E+0	1.009830E+0	9.654100E-1	9.996482E-1	9.743862E-1	9.717988E-1	9.995539E-1	1.014839E+0	1.003023E+0	9.679787E-1	1.009387E+0	1.032118E+0	1.007803E+0	9.756158E-1	1.024398E+0	9.680621E-1	1.001618E+0	1.050169E+0	9.675394E-1	9.766329E-1	9.989368E-1	1.014150E+0	9.953939E-1	9.857014E-1	1.014524E+0	9.741205E-1	1.018722E+0	9.956249E-1	1.004938E+0	9.685825E-1	1.005304E+0	1.019018E+0	1.053488E+0	1.046243E+0	9.991179E-1	1.022073E+0	9.891157E-1	1.035344E+0	9.704141E-1	9.783249E-1	1.002276E+0	1.051029E+0	9.980529E-1	9.866224E-1	1.012102E+0	1.038645E+0	1.032931E+0	1.053697E+0	9.983909E-1	1.012330E+0	9.651253E-1	1.006008E+0	1.028593E+0	1.039521E+0	1.004895E+0	1.025840E+0	1.014710E+0	9.725815E-1	1.021567E+0	9.807000E-1	1.027196E+0	1.034740E+0	9.662187E-1	1.016910E+0	9.761595E-1	9.930782E-1	9.852675E-1	1.055740E+0	1.021452E+0	1.011652E+0	1.030869E+0	1.010951E+0	1.013160E+0	1.056427E+0	1.031085E+0	9.598626E-1	9.641050E-1	1.007982E+0
