Photon Energy (eV)	#1	#2	#3	#4	#5	#6	#7	#8	#9	#10	#11	#12	#13	#14	#15	#16	#17	#18	#19	#20	#21	#22	#23	#24	#25	#26	#27	#28	#29	#30	#31	#32	#33	#34	#35	#36	#37	#38	#39	#40	#41	#42	#43	#44	#45	#46	#47	#48	#49	#50	#51	#52	#53	#54	#55	#56	#57	#58	#59	#60	#61	#62	#63	#64	#65	#66	#67	#68	#69	#70	#71	#72	#73	#74	#75	#76	#77	#78	#79	#80	#81	#82	#83	#84	#85	#86	#87	#88	#89	#90	#91	#92	#93	#94	#95	#96	#97	#98	#99	#100	#101	#102	#103	#104	#105	#106	#107	#108	#109	#110	#111	#112	#113	#114	#115	#116	#117	#118	#119	#120	#121	#122	#123	#124	#125	#126	#127	#128	#129	#130	#131	#132	#133	#134	#135	#136	#137	#138	#139	#140	#141	#142	#143	#144	#145	#146	#147	#148	#149	#150	#151	#152	#153	#154	#155	#156	#157	#158	#159	#160	#161	#162	#163	#164	#165	#166	#167	#168	#169	#170	#171	#172	
5.300470E+2	4.839695E-3	-2.082168E-3	-4.022393E-3	1.656323E-2	-6.788373E-3	-4.500033E-3	-7.629626E-4	3.307347E-3	-1.982226E-3	-6.181068E-3	-3.984490E-3	-7.153493E-3	-8.919868E-3	-4.867920E-3	-1.253331E-2	-1.506591E-3	4.918416E-3	-6.400850E-3	-2.484416E-3	-1.007969E-3	-4.818771E-3	-6.188387E-3	-7.014167E-3	-4.971126E-3	-9.198098E-3	-2.065928E-3	-3.733469E-3	3.767759E-3	-5.507717E-3	-1.190401E-3	-5.634741E-4	-3.121968E-3	-4.251059E-3	-3.175012E-4	-4.704069E-3	-4.203649E-3	-2.873747E-3	9.484641E-4	-6.674556E-3	-3.387177E-3	-9.321065E-3	-1.024749E-2	-9.245928E-3	3.453246E-3	-9.170975E-3	2.552889E-3	6.549771E-3	-9.161839E-3	-4.327330E-3	-9.932517E-3	-7.249938E-3	-1.133958E-2	-5.839355E-3	-7.864472E-3	-4.918143E-3	-1.091709E-2	-1.316343E-2	5.281432E-4	-6.324393E-4	-1.126361E-2	3.032038E-3	8.018594E-4	-2.608726E-3	-1.053982E-2	4.732077E-3	-1.161558E-2	-2.507031E-3	-2.032777E-3	-9.765913E-3	-4.005077E-3	7.576112E-4	-1.801806E-3	4.606001E-4	2.281689E-3	3.148904E-4	-4.100237E-3	-4.561213E-3	6.158167E-4	-5.903912E-4	-2.225814E-4	-1.251473E-2	-3.463702E-3	-6.933181E-3	3.871613E-3	-1.133453E-2	-4.459812E-3	-2.764575E-3	9.355645E-4	-2.527272E-3	1.814479E-3	-9.178193E-3	-3.485471E-5	3.507732E-4	-4.450835E-3	-1.031657E-2	-1.746363E-3	-6.920132E-3	-7.617193E-3	3.334692E-3	-4.132690E-3	-1.150176E-2	-5.338752E-3	-2.588418E-3	5.533757E-5	-7.697698E-3	-1.233060E-2	-6.294610E-3	-7.236676E-3	-1.830893E-3	-1.039336E-2	4.003556E-3	-7.889046E-3	-1.149246E-2	-6.838089E-3	-2.350750E-3	-1.065762E-2	1.257165E-3	-1.640198E-2	-2.400423E-3	1.144035E-3	-2.296405E-4	-3.070350E-3	-5.395324E-3	-8.874967E-3	-3.310199E-3	-7.620830E-3	-1.233231E-2	-1.660611E-3	-2.604172E-3	-6.479230E-3	-8.109730E-3	-7.080654E-3	-8.760630E-4	-1.596755E-2	-5.399193E-3	1.865816E-4	2.043877E-4	-1.116925E-2	2.281968E-3	-1.171509E-3	-6.528653E-3	-1.843232E-3	-1.019847E-2	-3.188425E-3	-5.195990E-3	-4.400894E-3	-5.728391E-3	-1.197137E-3	-1.885071E-3	-8.667174E-3	-1.108269E-3	8.028295E-4	-9.566043E-3	-1.112798E-2	-3.056843E-3	3.979165E-4	-1.017844E-2	-1.355334E-2	-2.024190E-3	-1.825287E-3	-1.348889E-2	-5.500181E-3	3.134007E-3	-2.327771E-3	-4.040214E-3	-2.241626E-3	1.834122E-3	-2.568938E-3	-5.100210E-3	-1.315261E-2	-2.521852E-3	-2.402068E-2
5.305130E+2	-3.587808E-4	3.046570E-3	-1.469565E-3	-1.325052E-2	5.658799E-3	-1.049563E-2	5.448323E-5	-1.421914E-2	1.280193E-2	-5.840121E-3	-4.088633E-3	9.916700E-5	-9.155949E-3	-2.093205E-3	-7.950491E-3	4.828881E-3	-1.753493E-3	-3.876050E-4	3.943646E-3	-5.409060E-3	2.604568E-5	-1.207484E-4	-7.593135E-3	1.927526E-3	-8.002603E-4	-1.109415E-3	-3.345139E-3	2.934867E-3	-6.358924E-3	-2.154358E-4	-6.752958E-3	-1.623440E-3	-7.894808E-3	-1.008363E-2	-4.807401E-3	1.212073E-3	-4.072887E-3	4.889406E-4	4.130936E-3	-9.308101E-3	6.989119E-3	6.376863E-3	9.730328E-5	-2.124893E-4	-7.423371E-3	-5.651324E-3	-4.614599E-3	-6.807653E-3	-1.603586E-3	-7.690366E-3	-2.936563E-4	-7.534642E-3	-4.731316E-3	1.132903E-3	-4.678675E-3	7.214636E-4	2.502457E-3	-1.244991E-2	-8.266210E-4	-9.286119E-5	1.115696E-3	2.148940E-3	-8.801809E-3	5.033469E-5	-3.083748E-3	-5.515711E-4	1.460897E-3	-2.875100E-3	-3.444060E-3	-4.827805E-3	-6.064089E-5	-1.007897E-2	-6.099040E-3	-3.102481E-3	-5.178114E-3	1.730366E-3	-2.940060E-3	-2.643282E-3	2.086981E-3	-5.633152E-3	-3.826813E-3	-1.311739E-3	-1.307912E-2	-6.955917E-3	1.872659E-3	3.402868E-3	-9.516145E-3	-5.426144E-3	-1.444166E-3	-1.408366E-2	-3.983806E-3	-1.153625E-2	-5.000317E-4	1.463245E-3	-6.972636E-3	-4.024259E-3	-5.596897E-3	3.992295E-3	3.720604E-3	1.958884E-3	-5.164171E-3	-1.270816E-2	2.710214E-3	-3.198344E-3	6.988773E-4	-9.772281E-4	-4.600541E-3	-4.009960E-3	-6.439785E-4	-4.998807E-3	-5.837328E-3	-3.678870E-3	-1.296380E-3	-6.890171E-3	-5.016018E-3	-3.251168E-3	-4.332602E-3	7.879087E-3	-3.555547E-3	-2.262609E-3	8.091392E-4	-4.491927E-3	-7.502897E-4	-4.396429E-3	-4.143896E-3	-8.340134E-3	-2.521889E-3	-2.503376E-3	-1.492593E-3	-1.139979E-2	4.978381E-4	-4.736742E-3	-3.792553E-3	-7.606889E-3	-2.807722E-4	-8.593946E-3	-1.219825E-2	-1.983324E-3	-1.455861E-2	6.266558E-4	-4.139817E-3	4.430258E-3	-5.375194E-3	-1.355508E-4	-6.945967E-4	-1.038614E-2	3.015278E-4	-7.335017E-3	-2.746831E-3	-1.176195E-2	-5.923500E-3	-4.959355E-3	-2.281566E-3	-9.375744E-3	-1.105486E-2	-6.200657E-3	-4.673483E-3	1.443332E-3	-5.711548E-3	1.881420E-3	-6.025937E-3	-1.617733E-3	-1.123109E-2	-1.070772E-2	-1.847465E-3	-1.381490E-2	-4.988742E-3	-6.484776E-3	-2.965275E-3	-2.034457E-3	-9.629946E-3	1.660956E-2
5.310100E+2	-4.013899E-3	6.334253E-3	-2.138430E-3	-8.281645E-4	2.237458E-3	-1.321218E-3	5.940287E-3	1.424310E-3	-5.866531E-3	7.939211E-4	1.024122E-3	1.914879E-3	-8.532827E-4	1.411675E-3	5.120989E-3	1.126512E-4	-8.810410E-3	-4.279099E-3	3.780490E-4	-4.189366E-3	-3.724781E-3	-1.026371E-3	2.204465E-3	-6.472165E-3	-7.113007E-3	-1.457856E-2	5.179495E-3	-4.204009E-3	1.190365E-3	-2.936360E-3	-5.114527E-4	-2.072940E-3	-9.030563E-3	-5.065826E-3	2.518789E-3	-8.072045E-3	4.417987E-3	-1.181141E-2	4.130966E-3	1.733580E-3	-5.213012E-3	-7.146213E-3	2.433181E-3	-1.037305E-2	2.967777E-3	-1.286550E-3	-6.847484E-3	9.586740E-4	4.275086E-3	8.831155E-3	-4.107828E-3	4.073629E-3	1.823330E-3	-3.266763E-3	-8.756597E-4	-9.512016E-3	6.408147E-3	-8.592306E-3	-2.415169E-3	4.598318E-3	-3.442863E-3	-3.180227E-3	1.155390E-3	4.459506E-3	-1.062710E-2	1.045494E-3	5.059044E-3	5.657232E-3	-7.442100E-3	-1.045657E-2	8.484887E-4	-9.572240E-4	-6.724787E-3	4.615382E-3	-3.434319E-3	-7.373119E-3	5.727590E-3	-4.976798E-3	-6.862519E-3	-8.838290E-3	6.102190E-3	-7.221964E-4	5.566169E-4	-8.705405E-3	3.942205E-4	1.471416E-3	-2.057576E-3	-1.216205E-3	1.155337E-3	1.426785E-3	3.775440E-3	4.774797E-3	-3.186790E-3	-6.655697E-3	2.257659E-3	-9.988162E-3	3.984801E-3	2.816634E-3	-6.638867E-3	-3.702839E-3	2.449097E-4	-2.042931E-3	4.263159E-4	1.283806E-3	-4.104894E-3	5.909433E-3	-3.404748E-3	-1.118769E-4	-4.179426E-3	1.135011E-3	-3.139117E-3	-1.245182E-3	-3.222195E-3	2.493702E-3	1.987595E-3	-1.373488E-3	-1.193237E-3	-5.457076E-3	-4.871507E-3	-7.372500E-4	-3.006784E-3	-1.590823E-3	-7.502929E-4	-2.467811E-3	5.173699E-3	6.835720E-3	-1.614927E-3	-6.130790E-4	-1.492623E-3	-4.213571E-3	1.746857E-3	9.138649E-4	-3.283861E-3	3.104255E-3	-7.667010E-4	-3.121722E-3	-1.320585E-3	-1.983289E-3	-8.571792E-3	-3.950428E-3	-4.139839E-3	2.541157E-3	1.265017E-3	-1.585480E-3	-5.362720E-3	-1.294667E-2	-9.346357E-3	8.989188E-3	-9.748482E-3	-2.403861E-3	5.999918E-3	-6.049944E-3	4.484201E-3	-2.124879E-3	-2.034593E-3	2.264646E-3	-2.609155E-3	-8.305313E-3	-2.366659E-3	-4.183998E-3	-2.618243E-3	3.235584E-4	-2.599711E-3	8.368624E-3	-3.054488E-3	-1.240735E-2	-7.818540E-3	8.512166E-3	-5.811905E-3	-9.031836E-3	-7.518638E-3	-1.098582E-3
5.315180E+2	6.342388E-3	-9.446586E-3	-2.807311E-3	-4.968941E-3	-1.183877E-3	-8.383198E-4	2.506899E-3	1.424356E-3	-1.309300E-2	1.346785E-3	-4.088629E-3	-3.532179E-3	6.118412E-4	-2.093176E-3	6.988294E-3	-7.904929E-3	1.454143E-3	1.280170E-3	3.780418E-4	7.397906E-3	-1.122648E-2	8.029801E-3	4.230658E-4	-1.805701E-3	-5.391339E-3	1.818669E-3	-6.754924E-3	5.909412E-3	-8.579230E-3	6.586941E-3	-7.198758E-3	-1.173836E-3	4.598106E-3	8.872542E-3	2.518751E-3	4.306827E-3	-4.072884E-3	-3.593693E-4	-4.606692E-3	4.614053E-3	-3.321975E-4	-9.850816E-3	-3.406370E-3	-2.005556E-3	1.337883E-4	3.563276E-3	7.442750E-4	2.414813E-3	7.478941E-4	-4.740090E-3	-3.018054E-3	-3.665204E-3	-4.263124E-3	-8.546448E-3	1.237179E-3	1.208790E-3	-2.704979E-3	-3.632551E-3	-6.651257E-3	1.079943E-3	-2.936313E-3	-5.400789E-3	-6.550359E-4	-2.399177E-3	4.459719E-3	-2.680988E-3	-7.534387E-3	-5.500420E-3	2.053148E-3	4.697868E-3	-8.242538E-3	-1.970718E-3	7.666828E-3	-9.166468E-3	-2.853058E-3	-7.373147E-3	2.356859E-3	-9.643685E-3	-7.757474E-3	1.235005E-3	-3.206242E-3	7.531615E-3	-1.814806E-3	3.541134E-3	1.379876E-3	-4.600702E-4	2.604023E-3	-3.555058E-3	5.054600E-4	-5.731896E-3	9.594910E-3	-5.262736E-3	-3.186796E-3	-2.835002E-3	-2.600405E-3	1.442674E-3	-5.596931E-3	-6.000671E-3	-2.373212E-3	5.733368E-3	-6.245978E-3	-2.931728E-3	-3.684690E-3	-2.202329E-3	-1.102515E-3	-2.698887E-3	1.034706E-2	4.435814E-3	-1.149041E-3	-1.224126E-3	2.257227E-3	-2.717431E-4	-6.544110E-4	-4.387867E-3	-5.599621E-3	-1.999395E-3	-4.332583E-3	1.900769E-3	-4.849585E-4	-2.262618E-3	2.081030E-3	7.301184E-4	-6.130627E-3	-5.682108E-3	-2.206493E-4	2.093245E-3	1.106019E-3	-6.130588E-4	-7.784560E-3	2.373778E-3	-8.245074E-3	2.169543E-3	-4.809915E-3	5.335717E-3	-2.224452E-3	-6.343029E-4	-1.320593E-3	3.288147E-3	2.736609E-3	5.857535E-3	-4.653560E-3	2.068847E-3	1.583204E-4	-6.418476E-3	3.306539E-3	6.897415E-3	-1.507484E-3	-3.417191E-3	-3.823966E-3	1.536424E-3	-7.757844E-3	-5.149736E-5	6.513928E-3	9.959816E-3	3.377608E-3	-5.549473E-3	1.519619E-3	4.855385E-3	1.456090E-3	-4.184062E-3	2.152521E-3	-7.441452E-3	-1.366652E-3	1.930019E-4	5.666557E-4	6.360060E-3	-1.215752E-3	-3.985332E-3	7.472442E-3	7.295455E-3	3.037991E-3	-1.098582E-3
5.320070E+2	-4.623088E-3	-4.186293E-3	4.549999E-3	3.312586E-3	1.748683E-3	4.956109E-3	-9.264653E-3	6.059425E-3	1.555711E-4	-3.075971E-3	1.024136E-3	6.756737E-3	7.449268E-3	-2.969411E-3	-2.815305E-3	-3.589128E-4	2.095658E-3	1.073090E-2	-3.781879E-3	-2.359824E-3	7.996562E-3	-5.101628E-3	5.767199E-3	6.127386E-3	8.381889E-3	5.917973E-3	-4.481756E-3	-1.074802E-2	6.963314E-3	-4.750262E-3	-1.403097E-3	1.748073E-4	8.005230E-3	-8.968534E-3	-2.990128E-4	4.306812E-3	2.183564E-3	3.033857E-3	-2.422258E-3	1.253536E-3	1.498132E-3	6.376909E-3	6.520791E-3	1.580515E-3	6.274062E-3	1.138313E-3	1.637458E-3	8.239598E-3	2.511504E-3	-2.969900E-3	-8.384668E-4	9.232893E-3	4.632477E-3	1.125225E-2	3.349958E-3	-2.689678E-3	-3.355916E-3	9.593439E-3	6.057042E-3	4.011920E-3	2.635225E-3	3.037169E-3	-4.275822E-3	-4.358798E-3	6.879972E-4	-1.616284E-3	-2.137235E-3	-2.498035E-4	1.054882E-2	8.161758E-3	-6.058544E-5	8.164496E-3	-4.675532E-4	-3.653729E-3	4.122147E-3	9.533467E-3	-4.384648E-3	3.890400E-3	7.456658E-3	9.476767E-3	-1.344561E-3	1.636037E-3	8.263814E-3	-2.290547E-3	-2.069781E-3	3.885772E-3	6.799443E-3	2.058178E-3	-3.393752E-3	1.097165E-2	-9.156642E-3	6.656891E-3	2.724059E-3	3.851206E-3	3.715044E-3	3.927587E-3	-1.490492E-3	2.816644E-3	-6.029482E-3	-8.106455E-3	9.440352E-3	1.395491E-2	-4.598250E-3	2.877204E-4	1.299393E-3	8.205067E-3	-2.806869E-3	-5.309262E-3	8.712574E-4	3.965983E-3	-3.139133E-3	1.675149E-3	6.406906E-3	8.124019E-3	7.823934E-3	7.389040E-3	6.655132E-3	1.017842E-2	1.269680E-3	-7.347167E-3	-1.734832E-3	-6.812861E-3	8.638687E-4	6.532113E-3	-1.201462E-3	-2.174938E-3	6.547843E-3	3.640230E-3	-4.638545E-3	4.769191E-3	7.367301E-3	-2.225336E-3	-4.809909E-3	6.674642E-3	5.064466E-3	8.320362E-3	-3.240175E-3	3.288158E-3	1.471008E-2	-2.727140E-5	1.435450E-2	-2.181668E-3	1.818359E-3	3.476892E-4	-6.946577E-4	2.416498E-3	1.175827E-2	5.006517E-4	5.870644E-3	1.384972E-2	1.413980E-3	1.140007E-2	-2.958154E-3	-1.520648E-3	6.384340E-3	3.111044E-4	1.003473E-3	5.342832E-3	-9.056422E-3	3.397789E-3	7.604844E-3	9.706186E-4	3.565618E-3	-7.301273E-3	-1.847446E-3	1.339783E-2	7.273498E-3	1.013710E-3	-2.016347E-3	9.627960E-3	9.371864E-3	4.804143E-3
5.325070E+2	-2.186316E-3	6.334225E-3	5.887700E-3	-8.281897E-4	-1.672690E-3	1.219909E-2	1.525946E-3	2.003707E-3	7.984253E-3	1.295645E-2	1.011349E-2	1.914890E-3	1.086799E-2	1.061204E-2	1.118983E-2	4.828901E-3	2.095686E-3	-9.435153E-4	1.566557E-3	5.568312E-3	1.174743E-2	4.407333E-3	6.212573E-3	5.194081E-3	1.412081E-2	1.001726E-2	1.313579E-2	2.339987E-3	1.229219E-2	2.505519E-3	1.642974E-2	7.817376E-3	8.573095E-3	1.556295E-2	4.772943E-3	2.449981E-3	4.417968E-3	7.699520E-3	5.441604E-3	5.094108E-3	6.379024E-3	1.449075E-2	3.601023E-3	7.557331E-3	7.218719E-3	-3.166042E-4	2.530578E-3	4.356408E-3	-1.603568E-3	1.650172E-2	1.550794E-2	9.232909E-3	8.377988E-3	7.292525E-3	5.885340E-3	2.118853E-2	1.031372E-2	1.455319E-2	4.468445E-3	1.666295E-3	-4.037834E-4	2.593048E-3	1.518600E-2	1.278795E-2	3.831058E-3	1.541893E-2	5.658711E-3	5.000870E-3	8.050108E-3	6.429824E-3	6.757664E-3	6.644218E-3	5.163952E-3	9.025605E-3	7.028454E-3	7.582671E-3	3.801471E-3	1.275755E-2	5.666745E-3	3.982252E-3	1.479015E-2	-3.670016E-3	1.300667E-2	1.053912E-2	9.757553E-3	-3.840174E-3	4.934831E-3	7.203665E-3	5.704394E-3	5.602637E-3	8.948291E-3	5.402151E-3	3.798785E-3	8.627082E-3	1.391691E-2	1.038852E-2	1.561965E-2	3.992291E-3	7.986266E-3	8.249731E-3	1.322664E-2	9.066661E-3	7.734827E-3	3.773810E-3	1.090684E-2	1.892213E-3	6.759709E-3	1.223196E-2	6.932081E-3	1.151530E-2	5.854795E-3	1.140969E-2	1.025854E-2	7.498406E-3	3.154861E-3	9.892631E-3	1.946124E-3	1.900775E-3	1.004276E-2	1.146561E-2	2.081088E-3	1.523584E-2	1.216267E-2	1.488920E-2	3.702507E-3	9.206937E-3	8.815265E-3	1.749895E-3	1.801249E-2	1.494962E-2	6.742809E-3	1.095932E-2	1.757230E-2	8.459826E-3	3.606652E-3	3.843028E-3	1.787521E-2	8.559555E-3	3.401748E-3	-1.334982E-3	5.107365E-3	-5.015362E-3	1.233197E-2	1.098024E-2	8.641425E-3	1.841979E-2	4.522431E-3	2.459505E-3	1.233371E-2	7.446843E-3	7.375715E-3	-1.142103E-3	3.807634E-3	1.418944E-2	6.384347E-3	8.776463E-3	1.493799E-2	1.021711E-2	1.770273E-2	4.914138E-3	1.237570E-2	1.326519E-2	8.497831E-3	1.177513E-2	1.022296E-2	8.705983E-3	4.915414E-3	3.513170E-3	8.421295E-3	7.295484E-3	7.260582E-3	4.804143E-3
5.330030E+2	1.852628E-2	1.290953E-2	1.391393E-2	2.815737E-2	2.178802E-2	1.123336E-2	6.921222E-3	1.475024E-2	9.188656E-3	2.954172E-2	1.920285E-2	2.067697E-2	9.891197E-3	1.586941E-2	1.585822E-2	1.284645E-2	1.556790E-2	5.171620E-3	1.642330E-2	1.837532E-2	8.465461E-3	1.210510E-2	1.957292E-2	1.592705E-2	1.699023E-2	1.938710E-2	1.427238E-2	7.099239E-3	9.183697E-3	1.384273E-2	1.732138E-2	6.019137E-3	2.163390E-2	2.169578E-2	1.548035E-2	9.258353E-3	1.424960E-2	1.999990E-2	2.204303E-2	1.037495E-2	1.614073E-2	2.152276E-2	1.936777E-2	1.413167E-2	1.335891E-2	2.005252E-2	2.217988E-2	1.649130E-2	1.015374E-2	2.063215E-2	2.804021E-2	2.138943E-3	1.446435E-2	1.829177E-2	9.688348E-3	1.290430E-2	3.179465E-2	1.289993E-2	1.664721E-2	1.163498E-2	2.289557E-2	1.280739E-2	2.197505E-2	6.909062E-3	3.023296E-2	2.926002E-2	1.345467E-2	1.944014E-2	-2.444588E-3	1.422352E-2	2.084878E-2	1.019154E-2	1.016974E-2	1.894855E-2	1.923495E-2	2.058774E-2	1.535825E-2	7.157259E-3	2.311826E-2	1.542916E-2	1.913415E-2	1.578548E-2	1.537809E-2	2.103616E-2	1.074317E-2	2.609780E-2	1.565648E-2	1.141357E-2	2.650005E-2	2.023313E-3	1.929395E-2	1.167566E-2	2.475562E-2	1.244774E-2	2.411878E-2	2.529830E-2	1.630409E-2	6.931432E-3	1.286139E-2	9.507918E-3	9.981193E-3	2.773083E-2	1.595686E-2	2.269831E-2	6.103073E-3	1.738725E-2	1.752192E-2	1.872873E-2	2.107403E-2	1.245895E-2	1.484877E-2	1.530351E-2	4.481063E-3	2.689175E-2	1.541115E-2	4.885471E-3	2.182869E-2	2.397450E-2	6.094840E-3	6.889527E-3	1.798064E-2	2.219861E-2	7.320315E-3	2.453203E-2	1.547213E-2	1.205241E-2	9.268750E-3	2.490678E-2	3.311319E-2	1.494968E-2	2.995837E-3	1.095939E-2	1.045066E-2	1.961728E-2	1.429707E-2	1.080781E-2	3.195224E-2	1.675958E-2	1.271449E-2	1.174240E-2	1.486829E-2	1.812644E-2	2.118549E-2	1.388002E-2	1.464319E-2	1.393896E-2	2.381814E-2	1.617189E-2	5.870671E-3	1.778999E-2	1.884048E-2	1.848916E-2	1.192652E-2	1.418947E-2	6.985698E-3	1.528821E-2	1.338966E-2	2.240301E-2	1.961403E-2	2.614316E-2	1.305728E-2	3.138345E-2	1.897883E-2	9.049935E-3	1.324065E-2	3.028850E-2	1.576278E-2	1.851017E-2	1.031908E-2	3.411903E-2	1.992845E-2	4.804143E-3
5.331580E+2	1.304353E-2	1.488220E-2	2.662210E-2	2.401657E-2	2.276553E-2	1.702772E-2	2.408813E-2	2.865561E-2	9.790899E-3	8.533728E-3	2.147515E-2	7.361958E-3	1.868219E-2	1.718375E-2	2.332763E-2	1.237485E-2	2.134167E-2	3.574752E-2	1.582903E-2	2.203440E-2	2.253108E-2	1.663322E-2	2.625308E-2	2.012691E-2	2.215523E-2	2.700010E-2	2.791175E-2	2.494647E-2	1.229220E-2	2.064509E-2	1.687554E-2	9.166063E-3	1.141240E-2	2.002319E-2	2.337005E-2	1.668565E-2	1.469648E-2	1.448597E-2	1.898485E-2	9.894853E-3	1.125988E-2	1.773630E-2	1.411219E-2	2.190149E-2	3.036267E-2	2.102248E-2	1.458813E-2	1.891833E-2	2.602607E-2	2.122220E-2	1.659769E-2	1.503702E-2	2.944639E-2	2.401143E-2	1.560421E-2	2.070122E-2	1.812500E-2	2.612594E-2	1.347011E-2	1.808532E-2	2.644109E-2	2.302172E-2	2.378540E-2	1.082830E-2	1.766065E-2	2.340416E-2	1.825215E-2	1.944017E-2	1.554633E-2	1.292461E-2	1.721239E-2	2.691470E-2	5.789665E-3	2.446135E-2	3.783538E-2	2.774052E-2	1.295060E-2	2.115808E-2	1.461626E-2	2.962327E-2	2.285754E-2	2.934546E-2	1.834242E-2	2.395195E-2	1.616402E-2	1.402606E-2	1.565651E-2	1.047807E-2	2.000140E-2	1.991998E-2	1.347455E-2	1.418500E-2	2.583036E-2	2.152187E-2	2.071816E-2	2.778324E-2	2.657014E-2	2.985655E-2	1.895520E-2	3.341311E-2	5.113066E-3	9.066664E-3	6.821215E-3	3.016854E-2	1.811248E-2	1.623946E-2	2.170731E-2	2.327646E-2	1.955883E-2	1.906457E-2	3.823299E-2	2.698491E-2	1.539407E-2	2.251263E-2	2.358204E-2	9.266792E-3	2.339838E-2	5.119881E-3	2.188645E-2	1.909239E-2	3.070028E-2	1.407537E-2	1.861911E-2	1.360354E-2	2.478974E-2	2.201156E-2	2.604767E-2	2.726973E-2	2.115846E-2	1.794391E-2	1.923265E-2	1.912130E-2	1.146803E-2	2.006355E-2	1.818448E-2	4.837970E-3	1.403609E-2	1.910243E-2	2.269248E-2	1.828108E-2	2.771154E-2	2.757206E-2	1.731205E-2	1.774641E-2	2.131186E-2	2.738169E-2	2.502414E-2	2.008972E-2	1.341090E-2	3.601374E-2	1.012726E-2	1.794385E-2	1.192654E-2	1.358518E-2	2.562771E-2	3.091650E-2	2.061496E-2	2.191553E-2	1.292427E-2	2.058317E-2	1.987268E-2	2.685389E-2	1.466314E-2	1.518161E-2	1.746522E-2	2.090485E-2	1.623443E-2	1.288632E-2	1.221686E-2	2.712158E-2	1.992849E-2	3.431784E-2
5.333130E+2	1.487117E-2	5.019148E-3	3.397944E-2	6.542443E-2	2.178800E-2	2.475363E-2	3.046441E-2	2.112352E-2	2.484607E-2	1.682633E-2	3.738155E-2	2.793981E-2	2.551964E-2	2.331730E-2	2.939654E-2	2.605189E-2	3.032313E-2	2.240530E-2	2.296026E-2	3.484142E-2	2.768846E-2	2.704786E-2	2.580775E-2	1.919360E-2	2.272909E-2	2.700009E-2	2.904830E-2	2.673117E-2	2.250590E-2	1.928464E-2	2.757524E-2	2.714853E-2	2.560887E-2	2.727114E-2	3.125975E-2	2.596979E-2	3.033764E-2	1.915160E-2	4.694524E-2	2.429709E-2	2.468226E-2	2.693198E-2	3.396663E-2	1.472941E-2	2.563944E-2	3.557183E-2	3.423739E-2	2.085990E-2	2.485036E-2	2.004215E-2	1.932213E-2	1.697171E-2	1.867808E-2	3.545069E-2	1.518165E-2	2.606163E-2	2.919090E-2	2.888134E-2	3.570952E-2	1.925808E-2	1.732399E-2	3.234784E-2	2.740627E-2	2.258609E-2	3.211880E-2	2.500119E-2	1.225527E-2	2.665979E-2	2.754028E-2	2.721312E-2	2.812162E-2	2.286063E-2	1.892982E-2	2.060239E-2	2.969771E-2	2.253854E-2	2.691511E-2	2.535830E-2	2.311828E-2	2.550241E-2	3.650993E-2	2.344981E-2	2.486387E-2	2.336881E-2	2.552734E-2	3.478950E-2	3.103978E-2	3.526992E-2	2.844968E-2	1.634067E-2	3.739890E-2	1.230301E-2	2.905444E-2	3.584944E-2	4.209347E-2	2.231638E-2	2.383255E-2	1.868787E-2	4.150229E-2	3.655855E-2	8.899396E-3	3.128592E-2	6.821226E-3	2.668246E-2	2.591862E-2	1.968279E-2	2.529468E-2	2.522550E-2	2.763994E-2	2.331102E-2	4.003181E-2	2.017074E-2	2.373928E-2	3.752684E-2	1.366026E-2	1.740342E-2	2.339841E-2	2.167516E-2	2.232513E-2	2.773609E-2	3.006427E-2	3.496361E-2	3.583629E-2	2.003205E-2	2.429930E-2	2.438274E-2	2.922215E-2	1.687276E-2	1.864172E-2	2.093819E-2	1.798366E-2	3.167813E-2	-7.404095E-4	2.541909E-2	3.081859E-2	2.772215E-2	2.811300E-2	2.847386E-2	2.734882E-2	2.808911E-2	3.028021E-2	4.126810E-2	2.837898E-2	2.596247E-2	2.798042E-2	2.610141E-2	2.080321E-2	2.139556E-2	1.341092E-2	2.320789E-2	2.709517E-2	2.939545E-2	3.290042E-2	2.989958E-2	3.224252E-2	3.352125E-2	1.906666E-2	2.532758E-2	2.582587E-2	2.311044E-2	2.941424E-2	1.973597E-2	2.144494E-2	3.289544E-2	2.712160E-2	3.310362E-2	2.472366E-2	2.413400E-2	3.119441E-2	4.811399E-2	3.470753E-2	3.431766E-2
5.334580E+2	1.608953E-2	2.277258E-2	3.264170E-2	1.573494E-2	2.569811E-2	3.875677E-2	3.684062E-2	1.822660E-2	2.665268E-2	3.341159E-2	3.226878E-2	3.338680E-2	2.698483E-2	4.478486E-2	3.779962E-2	3.689921E-2	3.930456E-2	4.575424E-2	3.365713E-2	2.996257E-2	2.206220E-2	3.021752E-2	2.135434E-2	3.552639E-2	3.707622E-2	4.046926E-2	2.848006E-2	2.613630E-2	2.650254E-2	3.787757E-2	3.158761E-2	3.299283E-2	3.526249E-2	4.009441E-2	4.422136E-2	1.606669E-2	2.139986E-2	2.933120E-2	4.257640E-2	2.189674E-2	2.163171E-2	4.261876E-2	2.812705E-2	2.130389E-2	3.933689E-2	2.393234E-2	3.781003E-2	2.183067E-2	3.249259E-2	3.951379E-2	3.076460E-2	3.889849E-2	3.553285E-2	2.313148E-2	4.391571E-2	2.947281E-2	2.658717E-2	2.337050E-2	2.882592E-2	2.981318E-2	2.796063E-2	3.323600E-2	3.600565E-2	3.336405E-2	3.400467E-2	2.659825E-2	4.463838E-2	3.125412E-2	3.353731E-2	2.721307E-2	4.312187E-2	2.944852E-2	4.333299E-2	2.335880E-2	4.364802E-2	2.383901E-2	3.750883E-2	3.375872E-2	4.280708E-2	2.641817E-2	3.775103E-2	3.700976E-2	4.383544E-2	3.386587E-2	4.228269E-2	4.637840E-2	3.476905E-2	2.918886E-2	2.000143E-2	4.378213E-2	5.162422E-2	2.484994E-2	4.141363E-2	3.728224E-2	3.674967E-2	4.169891E-2	2.657014E-2	4.396424E-2	2.992407E-2	3.530028E-2	2.025838E-2	3.439662E-2	2.509251E-2	2.718048E-2	3.132283E-2	3.230832E-2	3.486118E-2	2.262678E-2	3.824642E-2	3.086036E-2	3.058814E-2	2.844512E-2	3.208440E-2	2.626619E-2	3.642193E-2	3.179909E-2	3.020029E-2	3.823043E-2	2.671166E-2	2.163467E-2	3.896800E-2	3.438341E-2	2.561359E-2	4.703197E-2	2.871294E-2	3.813592E-2	2.967566E-2	3.057779E-2	2.807963E-2	3.770597E-2	4.858385E-2	3.293386E-2	3.079816E-2	2.898953E-2	3.567789E-2	2.821964E-2	1.915496E-2	3.257389E-2	4.131797E-2	2.220433E-2	3.079395E-2	4.126827E-2	3.667917E-2	3.079547E-2	5.398811E-2	2.482114E-2	3.708393E-2	2.531341E-2	3.172295E-2	3.059589E-2	1.700618E-2	2.394231E-2	3.019411E-2	3.896310E-2	4.246551E-2	3.091654E-2	4.177466E-2	3.410137E-2	3.968335E-2	4.080128E-2	2.191729E-2	3.979549E-2	2.144495E-2	3.017022E-2	3.013923E-2	3.779546E-2	2.000744E-2	2.600864E-2	4.732536E-2	3.645154E-2	9.371954E-3	-7.001235E-3
5.336080E+2	2.766419E-2	4.184108E-2	4.869419E-2	4.472045E-2	3.645088E-2	3.875676E-2	4.763121E-2	4.024328E-2	4.712768E-2	3.562293E-2	4.874321E-2	3.701823E-2	3.235707E-2	4.697523E-2	2.752914E-2	4.397357E-2	4.956911E-2	3.963899E-2	3.900557E-2	4.398922E-2	4.831812E-2	4.244338E-2	4.495756E-2	3.039322E-2	5.429283E-2	4.456854E-2	4.893906E-2	3.684459E-2	3.271955E-2	3.515674E-2	4.407067E-2	4.333276E-2	3.753395E-2	3.507663E-2	4.140364E-2	2.596982E-2	3.927546E-2	3.102782E-2	5.349846E-2	3.725911E-2	3.261363E-2	5.614202E-2	5.090124E-2	4.521089E-2	4.358772E-2	4.527141E-2	4.182921E-2	4.610045E-2	3.366834E-2	4.128397E-2	3.839295E-2	1.761660E-2	3.038279E-2	4.293016E-2	3.673223E-2	2.265048E-2	4.220968E-2	4.045405E-2	4.471125E-2	2.688122E-2	4.670145E-2	4.300624E-2	4.460505E-2	4.022270E-2	3.400464E-2	4.097170E-2	3.864147E-2	4.831879E-2	3.053880E-2	4.626449E-2	5.448574E-2	4.211759E-2	3.957872E-2	3.493556E-2	6.399222E-2	3.944512E-2	5.628864E-2	4.029247E-2	4.504441E-2	4.107026E-2	3.713047E-2	3.877844E-2	4.739258E-2	3.853120E-2	3.932586E-2	4.734412E-2	4.922001E-2	4.368977E-2	3.559821E-2	3.304417E-2	5.162421E-2	2.986875E-2	5.269807E-2	4.731150E-2	5.666756E-2	6.505772E-2	4.504909E-2	4.984254E-2	3.906479E-2	4.096206E-2	3.107648E-2	3.972931E-2	5.295601E-2	3.863476E-2	3.192331E-2	4.665561E-2	4.323183E-2	4.016800E-2	5.592385E-2	4.595888E-2	5.172398E-2	5.375489E-2	4.428127E-2	5.754579E-2	3.467109E-2	3.367672E-2	5.688487E-2	4.006989E-2	4.250324E-2	4.705734E-2	5.804747E-2	3.844501E-2	3.476024E-2	4.960342E-2	5.029058E-2	3.623893E-2	6.686136E-2	4.664588E-2	3.562999E-2	4.249684E-2	5.420433E-2	4.235149E-2	3.334165E-2	5.041179E-2	3.810749E-2	3.518437E-2	4.091027E-2	5.248821E-2	3.865717E-2	3.724330E-2	4.980202E-2	4.174051E-2	4.165927E-2	4.626095E-2	5.265441E-2	3.826399E-2	4.492282E-2	4.490250E-2	5.057365E-2	5.275988E-2	4.222871E-2	4.630018E-2	4.372567E-2	2.566994E-2	3.945878E-2	4.524248E-2	3.661375E-2	3.410139E-2	3.729415E-2	3.574673E-2	1.782803E-2	3.656008E-2	4.857221E-2	5.060918E-2	4.281321E-2	3.451119E-2	3.085484E-2	4.850415E-2	2.929670E-2	3.878405E-2	5.370938E-2	2.841501E-2
5.337630E+2	4.533079E-2	5.564934E-2	6.541540E-2	4.886122E-2	4.280481E-2	5.565699E-2	5.351703E-2	4.661662E-2	6.459168E-2	6.160652E-2	6.692191E-2	4.367572E-2	5.970678E-2	5.223270E-2	4.666952E-2	5.434917E-2	5.598449E-2	6.576750E-2	4.970241E-2	5.618643E-2	5.394437E-2	6.146130E-2	5.876327E-2	4.532602E-2	5.716225E-2	5.042472E-2	5.916860E-2	6.242565E-2	3.849253E-2	5.647061E-2	5.075799E-2	5.412222E-2	6.308776E-2	5.124504E-2	5.042035E-2	4.948964E-2	5.000072E-2	6.156655E-2	7.097368E-2	4.446022E-2	4.725623E-2	5.830559E-2	6.433218E-2	5.118768E-2	5.445116E-2	4.672633E-2	3.513054E-2	5.823539E-2	4.660136E-2	5.072475E-2	4.329689E-2	4.599242E-2	5.238764E-2	6.052912E-2	5.870540E-2	4.604134E-2	4.025687E-2	6.304850E-2	4.841777E-2	4.623216E-2	5.429905E-2	4.744731E-2	6.180388E-2	5.687955E-2	5.600624E-2	5.428045E-2	5.363371E-2	5.356945E-2	3.803498E-2	6.964567E-2	5.675831E-2	5.123928E-2	4.833879E-2	5.478153E-2	8.026762E-2	5.179994E-2	4.713951E-2	5.616000E-2	6.160101E-2	4.198586E-2	5.326518E-2	6.236091E-2	6.399264E-2	5.252724E-2	6.987977E-2	6.424459E-2	4.409226E-2	4.181868E-2	4.599608E-2	4.915122E-2	5.938346E-2	5.621742E-2	6.129570E-2	6.020625E-2	4.792313E-2	4.319000E-2	5.668398E-2	5.865987E-2	6.283066E-2	3.718754E-2	5.758083E-2	5.483830E-2	6.802984E-2	4.411292E-2	4.693503E-2	6.616783E-2	5.758157E-2	5.381120E-2	7.158099E-2	6.247302E-2	6.656382E-2	4.791418E-2	4.556514E-2	5.754578E-2	5.334731E-2	4.181341E-2	4.851322E-2	5.248626E-2	6.662919E-2	4.705725E-2	5.423158E-2	5.991347E-2	6.327634E-2	4.253198E-2	4.440572E-2	6.279662E-2	6.323368E-2	4.522814E-2	5.953950E-2	5.327613E-2	6.669415E-2	5.490832E-2	4.656746E-2	4.773402E-2	6.920681E-2	4.413904E-2	4.219003E-2	5.600249E-2	5.661752E-2	4.639742E-2	6.778267E-2	6.299326E-2	5.106622E-2	5.254384E-2	6.265738E-2	5.938833E-2	4.251084E-2	6.579752E-2	4.841926E-2	5.423745E-2	5.461072E-2	4.357366E-2	6.266991E-2	5.406897E-2	6.712102E-2	4.719592E-2	4.900002E-2	5.652320E-2	5.449639E-2	5.192124E-2	6.349150E-2	5.403130E-2	4.055736E-2	4.379613E-2	4.945198E-2	5.797043E-2	4.547527E-2	4.725437E-2	4.163212E-2	6.094259E-2	3.681894E-2	2.251217E-2
5.339290E+2	7.030782E-2	5.564929E-2	9.618251E-2	7.370608E-2	5.649027E-2	7.304017E-2	8.245543E-2	6.573645E-2	7.723808E-2	8.648434E-2	8.453248E-2	5.941173E-2	6.800936E-2	7.808114E-2	6.861084E-2	7.368590E-2	9.126871E-2	7.521822E-2	7.050191E-2	8.545951E-2	6.566569E-2	8.364889E-2	9.082808E-2	6.025884E-2	8.241318E-2	6.155140E-2	7.621782E-2	5.826127E-2	8.645248E-2	7.551731E-2	7.171120E-2	7.210462E-2	8.012349E-2	8.023694E-2	6.450914E-2	5.753588E-2	7.100465E-2	6.580818E-2	8.189570E-2	6.750368E-2	6.494936E-2	6.046929E-2	8.827433E-2	5.895750E-2	7.995661E-2	7.970481E-2	7.889483E-2	6.891403E-2	6.658871E-2	9.379839E-2	7.980394E-2	5.179661E-2	6.081516E-2	7.328815E-2	8.025581E-2	5.822408E-2	5.457751E-2	8.894958E-2	8.548333E-2	6.030556E-2	7.506582E-2	6.831978E-2	7.628697E-2	7.206660E-2	7.360752E-2	6.652441E-2	7.882066E-2	8.244804E-2	6.652051E-2	7.743931E-2	7.084948E-2	5.681371E-2	7.274200E-2	7.352494E-2	8.782411E-2	7.325829E-2	8.036539E-2	7.809456E-2	8.084254E-2	7.357948E-2	7.498488E-2	7.651040E-2	7.822127E-2	7.060544E-2	6.495182E-2	7.921346E-2	8.138479E-2	6.848152E-2	9.343640E-2	9.210308E-2	9.106716E-2	6.625489E-2	7.795372E-2	7.119061E-2	8.144358E-2	8.593131E-2	8.337567E-2	7.041633E-2	8.111219E-2	8.436894E-2	5.758086E-2	6.772524E-2	7.533846E-2	6.901345E-2	6.014534E-2	6.329825E-2	9.106417E-2	6.615514E-2	6.703535E-2	8.276164E-2	7.960515E-2	8.928592E-2	7.958780E-2	8.444624E-2	8.603083E-2	7.060473E-2	7.676758E-2	5.616526E-2	6.531322E-2	5.976864E-2	8.221484E-2	9.124574E-2	7.242285E-2	7.210335E-2	8.559931E-2	6.279661E-2	8.862887E-2	8.303500E-2	8.407822E-2	8.142214E-2	9.167390E-2	8.378910E-2	6.284548E-2	6.290809E-2	9.253112E-2	6.403830E-2	7.162368E-2	9.231679E-2	1.118287E-1	7.124435E-2	9.398274E-2	9.227452E-2	7.652009E-2	6.752594E-2	7.732838E-2	7.795221E-2	4.914375E-2	7.036838E-2	6.780859E-2	7.344612E-2	7.845747E-2	5.393461E-2	7.417168E-2	7.280031E-2	8.756693E-2	8.691781E-2	6.757918E-2	7.894524E-2	7.074297E-2	7.011748E-2	7.984846E-2	6.762006E-2	6.706806E-2	5.810344E-2	7.600677E-2	7.251529E-2	8.273381E-2	6.974985E-2	7.958723E-2	8.893236E-2	1.107149E-1	9.334459E-2
5.340640E+2	1.007675E-1	9.378629E-2	1.062152E-1	5.714285E-2	8.874876E-2	9.476915E-2	9.815069E-2	7.848293E-2	8.566893E-2	1.152322E-1	1.174812E-1	9.875174E-2	1.065920E-1	1.126922E-1	1.040907E-1	8.547647E-2	9.896723E-2	1.107973E-1	9.605530E-2	1.049749E-1	8.488884E-2	9.451666E-2	1.028523E-1	9.059118E-2	9.733422E-2	9.493133E-2	1.103162E-1	9.693032E-2	8.512007E-2	1.113428E-1	1.024732E-1	8.154560E-2	9.261639E-2	9.027237E-2	9.775850E-2	9.157761E-2	1.165876E-1	9.846798E-2	1.050502E-1	9.006728E-2	8.020197E-2	1.015792E-1	1.075444E-1	9.302511E-2	9.459911E-2	1.058935E-1	8.737973E-2	9.366915E-2	9.715751E-2	1.002891E-1	1.092275E-1	9.113584E-2	1.001429E-1	8.692730E-2	1.102576E-1	9.233575E-2	1.007941E-1	1.043797E-1	1.236082E-1	8.845242E-2	1.019108E-1	1.011835E-1	1.120424E-1	9.019339E-2	9.875216E-2	8.568912E-2	9.201368E-2	1.008253E-1	9.950407E-2	9.692384E-2	1.085775E-1	7.505716E-2	9.464233E-2	1.088064E-1	1.418811E-1	1.031699E-1	9.336677E-2	1.163633E-1	1.202204E-1	9.052079E-2	1.016694E-1	9.950311E-2	1.066783E-1	1.020967E-1	1.073331E-1	1.178432E-1	1.102871E-1	9.374117E-2	1.311286E-1	1.099994E-1	1.311568E-1	8.821209E-2	1.026719E-1	1.194270E-1	1.062195E-1	8.990735E-2	1.080144E-1	1.098004E-1	1.030498E-1	1.013542E-1	9.057577E-2	1.126084E-1	1.036588E-1	8.146380E-2	7.996080E-2	1.252782E-1	1.143824E-1	1.044858E-1	1.069358E-1	8.936724E-2	1.065869E-1	9.366635E-2	1.059073E-1	1.000862E-1	1.163795E-1	9.125923E-2	9.455706E-2	1.108896E-1	1.083012E-1	9.281810E-2	1.140138E-1	1.185166E-1	1.251505E-1	1.016746E-1	1.194371E-1	9.172547E-2	1.045012E-1	1.043016E-1	1.042123E-1	9.938768E-2	1.166537E-1	9.760158E-2	8.471876E-2	1.115546E-1	1.241165E-1	1.038370E-1	1.093756E-1	1.016884E-1	1.218067E-1	1.058996E-1	1.022026E-1	1.045539E-1	1.019742E-1	1.066730E-1	1.020023E-1	1.022773E-1	8.954415E-2	1.252176E-1	1.103571E-1	9.462528E-2	9.909410E-2	8.774425E-2	1.059709E-1	1.114711E-1	1.068103E-1	1.201279E-1	9.028710E-2	1.077038E-1	1.018025E-1	1.004450E-1	8.257458E-2	9.673873E-2	9.481188E-2	1.112448E-1	9.894079E-2	1.128649E-1	1.152760E-1	8.099772E-2	9.666701E-2	9.476357E-2	9.171309E-2	9.924774E-2
5.342040E+2	1.281814E-1	1.135123E-1	1.904905E-1	9.441001E-2	1.337149E-1	1.449875E-1	1.305229E-1	1.283104E-1	1.675694E-1	1.561425E-1	1.674728E-1	1.193294E-1	1.446864E-1	1.538748E-1	1.554430E-1	1.524469E-1	1.451574E-1	1.630545E-1	1.263631E-1	1.586421E-1	1.411515E-1	1.551930E-1	1.540670E-1	1.461227E-1	1.443930E-1	1.757465E-1	1.853327E-1	1.344092E-1	1.464024E-1	1.621338E-1	1.568631E-1	1.471814E-1	1.590558E-1	1.582914E-1	1.591853E-1	1.472825E-1	1.737895E-1	1.561521E-1	1.749512E-1	1.121507E-1	1.515846E-1	1.540492E-1	1.682758E-1	1.468160E-1	1.489161E-1	1.539069E-1	1.530263E-1	1.392963E-1	1.571198E-1	1.616545E-1	1.560872E-1	1.524014E-1	1.572620E-1	1.489632E-1	1.571617E-1	1.303462E-1	1.600294E-1	1.528752E-1	1.744409E-1	1.165993E-1	1.500289E-1	1.407086E-1	1.618285E-1	1.480024E-1	1.421265E-1	1.650093E-1	1.549808E-1	1.500503E-1	1.319875E-1	1.614384E-1	1.667598E-1	1.368822E-1	1.572145E-1	1.540111E-1	1.610634E-1	1.590920E-1	1.521142E-1	1.644327E-1	1.636256E-1	1.399716E-1	1.531761E-1	1.702508E-1	1.825645E-1	1.417517E-1	1.502070E-1	1.690277E-1	1.457149E-1	1.437926E-1	1.889665E-1	1.463894E-1	1.731858E-1	1.453007E-1	1.693040E-1	1.700510E-1	1.616009E-1	1.460674E-1	1.764551E-1	1.550629E-1	1.505816E-1	1.428738E-1	1.403391E-1	1.472701E-1	1.717193E-1	1.526799E-1	1.340029E-1	1.482337E-1	1.717813E-1	1.551607E-1	1.599679E-1	1.445718E-1	1.618998E-1	1.520737E-1	1.623982E-1	1.632708E-1	1.706576E-1	1.338203E-1	1.688554E-1	1.559568E-1	1.635722E-1	1.431549E-1	1.757039E-1	1.504293E-1	1.768023E-1	1.569603E-1	1.434665E-1	1.690278E-1	1.593729E-1	1.581768E-1	1.595818E-1	1.407082E-1	1.978380E-1	1.522240E-1	1.508482E-1	1.642177E-1	1.858294E-1	1.307009E-1	1.695225E-1	1.643597E-1	2.076173E-1	1.660556E-1	1.607679E-1	1.787020E-1	1.611821E-1	1.554860E-1	1.433477E-1	1.765327E-1	1.414013E-1	1.435009E-1	1.658318E-1	1.419082E-1	1.582527E-1	1.417301E-1	1.519780E-1	1.634359E-1	1.693509E-1	1.539894E-1	1.599597E-1	1.457237E-1	1.586660E-1	1.651429E-1	1.452763E-1	1.653294E-1	1.422843E-1	1.650675E-1	1.472224E-1	1.569684E-1	1.633818E-1	1.378610E-1	1.517021E-1	1.950603E-1	1.444960E-1	9.334477E-2
5.343600E+2	2.469743E-1	2.206903E-1	2.740967E-1	1.730846E-1	2.583493E-1	2.420439E-1	2.796291E-1	2.204331E-1	2.741599E-1	2.689222E-1	2.515492E-1	2.518752E-1	2.462707E-1	2.414970E-1	2.618818E-1	2.307362E-1	2.497273E-1	2.664563E-1	2.392747E-1	2.556097E-1	2.546141E-1	2.290009E-1	2.458080E-1	2.133206E-1	2.775345E-1	2.524621E-1	2.461414E-1	2.135321E-1	2.618611E-1	2.628082E-1	2.544978E-1	2.254050E-1	2.607032E-1	2.653383E-1	2.758401E-1	2.215558E-1	2.654020E-1	2.401341E-1	2.470363E-1	2.019246E-1	2.473711E-1	2.622339E-1	2.739710E-1	2.203299E-1	2.589681E-1	2.581769E-1	2.597579E-1	2.184157E-1	2.541176E-1	2.554727E-1	2.743270E-1	2.330149E-1	2.326398E-1	2.545565E-1	2.437863E-1	2.273209E-1	2.537644E-1	2.581322E-1	2.565149E-1	1.834483E-1	2.427201E-1	2.397430E-1	2.473703E-1	2.234478E-1	2.571635E-1	2.379410E-1	2.809150E-1	2.734405E-1	2.409325E-1	2.476023E-1	3.003985E-1	2.068154E-1	2.610843E-1	2.631643E-1	2.994036E-1	2.150137E-1	2.546811E-1	2.489042E-1	2.781789E-1	2.484879E-1	2.661190E-1	2.675287E-1	2.655651E-1	2.531368E-1	2.477827E-1	2.718792E-1	2.734430E-1	2.279917E-1	2.591527E-1	2.627176E-1	2.553050E-1	2.519498E-1	2.848353E-1	2.603147E-1	2.524459E-1	2.658429E-1	2.681651E-1	2.743910E-1	2.474734E-1	2.623996E-1	2.263431E-1	2.699206E-1	2.521125E-1	2.253899E-1	2.222723E-1	2.853933E-1	2.728274E-1	2.604084E-1	2.579516E-1	2.667754E-1	2.887143E-1	2.518526E-1	2.574051E-1	2.639913E-1	2.634551E-1	2.314604E-1	2.468162E-1	2.483906E-1	2.627084E-1	2.250159E-1	2.711016E-1	2.676357E-1	2.763390E-1	2.649596E-1	2.523358E-1	2.615054E-1	2.736513E-1	2.640368E-1	2.413772E-1	2.550893E-1	2.821448E-1	2.752811E-1	2.291861E-1	2.512459E-1	2.757260E-1	2.311920E-1	2.405475E-1	2.973177E-1	2.887715E-1	2.621743E-1	2.352593E-1	2.840207E-1	2.441844E-1	2.743776E-1	3.193997E-1	2.431070E-1	2.197902E-1	2.597294E-1	2.660093E-1	2.448476E-1	2.458437E-1	2.426130E-1	2.730857E-1	2.764279E-1	2.836081E-1	2.405958E-1	2.533717E-1	2.734315E-1	2.690469E-1	2.490481E-1	2.515971E-1	2.688627E-1	2.637411E-1	2.577244E-1	2.606847E-1	2.587818E-1	2.440298E-1	2.440895E-1	2.541807E-1	2.825281E-1	2.563956E-1	2.645229E-1
5.345110E+2	4.382617E-1	4.113754E-1	5.088632E-1	4.008281E-1	4.250181E-1	4.298786E-1	4.537501E-1	4.574029E-1	4.891473E-1	4.884005E-1	4.679894E-1	4.673368E-1	4.206255E-1	4.373332E-1	4.210739E-1	4.349490E-1	4.575836E-1	4.387932E-1	3.979447E-1	4.483241E-1	4.529397E-1	4.341239E-1	4.359701E-1	4.186465E-1	5.145496E-1	4.808526E-1	4.865354E-1	4.497104E-1	4.785694E-1	4.505526E-1	4.765168E-1	4.407451E-1	4.452577E-1	4.443063E-1	4.663192E-1	4.431369E-1	4.553300E-1	4.382128E-1	4.667876E-1	3.853126E-1	4.474868E-1	4.840128E-1	4.520772E-1	4.199544E-1	4.408134E-1	4.206443E-1	4.468728E-1	4.305338E-1	4.616335E-1	5.168660E-1	4.715739E-1	4.413190E-1	4.522204E-1	4.556231E-1	4.423901E-1	3.525598E-1	4.594614E-1	4.758097E-1	4.651423E-1	3.804761E-1	4.463361E-1	4.493586E-1	4.469673E-1	4.140219E-1	4.268902E-1	4.668514E-1	5.010000E-1	4.782161E-1	4.133459E-1	4.783833E-1	4.940375E-1	4.120542E-1	4.944787E-1	5.002128E-1	4.859892E-1	3.671729E-1	4.660749E-1	4.687166E-1	5.247372E-1	4.288915E-1	4.603563E-1	4.491131E-1	4.849230E-1	4.175904E-1	4.291346E-1	4.785475E-1	4.580423E-1	3.949855E-1	4.469636E-1	4.923912E-1	4.331214E-1	4.276073E-1	4.755957E-1	4.742734E-1	4.457957E-1	4.502267E-1	4.885437E-1	4.519135E-1	4.564922E-1	4.429468E-1	4.210693E-1	4.338983E-1	4.343682E-1	3.747940E-1	3.819974E-1	4.569865E-1	4.856820E-1	4.072350E-1	4.503832E-1	4.833459E-1	4.771376E-1	4.275610E-1	4.859352E-1	4.704367E-1	4.426300E-1	4.254885E-1	4.320380E-1	4.626891E-1	4.627351E-1	4.187363E-1	5.057785E-1	4.782583E-1	4.721849E-1	4.610306E-1	4.607556E-1	4.365019E-1	4.763596E-1	4.577985E-1	4.729217E-1	4.467217E-1	4.888518E-1	4.479383E-1	4.087529E-1	4.409226E-1	4.914778E-1	4.267022E-1	4.568206E-1	4.835748E-1	4.856698E-1	4.151794E-1	4.731167E-1	4.729336E-1	4.616491E-1	4.599632E-1	5.101229E-1	4.869972E-1	3.904369E-1	4.641082E-1	4.674423E-1	4.566369E-1	4.434974E-1	4.018452E-1	5.159766E-1	4.341334E-1	4.628112E-1	4.196703E-1	4.231656E-1	4.294099E-1	4.611390E-1	4.572951E-1	4.015375E-1	4.629866E-1	4.634966E-1	4.771024E-1	4.483801E-1	4.506783E-1	4.491874E-1	4.440493E-1	4.828608E-1	4.679610E-1	4.717496E-1	4.652150E-1
5.346560E+2	7.270197E-1	7.006908E-1	8.319179E-1	6.492753E-1	7.080124E-1	6.867642E-1	7.112537E-1	7.499940E-1	7.673672E-1	7.598454E-1	7.804358E-1	7.493743E-1	7.571248E-1	7.786222E-1	7.226512E-1	7.150927E-1	7.796335E-1	7.339899E-1	7.212278E-1	7.776465E-1	7.286264E-1	7.569777E-1	7.071854E-1	7.476357E-1	7.888675E-1	7.935709E-1	7.723930E-1	8.149840E-1	7.547825E-1	7.743437E-1	8.010746E-1	7.104824E-1	7.598516E-1	7.515073E-1	7.452759E-1	7.117586E-1	7.386582E-1	7.202729E-1	7.608083E-1	7.117632E-1	7.958583E-1	7.815208E-1	7.761714E-1	8.102375E-1	7.161792E-1	7.353958E-1	7.496502E-1	7.159467E-1	7.061853E-1	7.363650E-1	6.840777E-1	7.560328E-1	7.097239E-1	7.561238E-1	7.411398E-1	7.204788E-1	7.452226E-1	7.403298E-1	7.659039E-1	6.912642E-1	7.011097E-1	7.220367E-1	7.542831E-1	7.216836E-1	6.896522E-1	7.351561E-1	8.218332E-1	7.860365E-1	6.892063E-1	7.498643E-1	8.135878E-1	6.765845E-1	7.472706E-1	7.576591E-1	8.864793E-1	7.046546E-1	7.366971E-1	7.832677E-1	8.249927E-1	7.553570E-1	7.216139E-1	7.698347E-1	7.505248E-1	7.155893E-1	7.218616E-1	8.151087E-1	7.279491E-1	6.531951E-1	7.764462E-1	7.727724E-1	7.402586E-1	7.055231E-1	7.963965E-1	7.565266E-1	7.290195E-1	7.523985E-1	7.575151E-1	7.328934E-1	7.282763E-1	6.637546E-1	6.942262E-1	7.045292E-1	7.545713E-1	6.531837E-1	6.666193E-1	7.944325E-1	7.924073E-1	7.203783E-1	7.524148E-1	7.692747E-1	7.752866E-1	7.424725E-1	7.683882E-1	7.363129E-1	7.951451E-1	7.215378E-1	7.752745E-1	7.261939E-1	7.373330E-1	6.871995E-1	7.996018E-1	7.358803E-1	7.406661E-1	7.348867E-1	7.442076E-1	7.414414E-1	7.674978E-1	7.418246E-1	7.673857E-1	7.503387E-1	8.079684E-1	7.461632E-1	7.109126E-1	7.265529E-1	8.092741E-1	6.674832E-1	7.466786E-1	8.209470E-1	8.255850E-1	6.963439E-1	7.423120E-1	7.799166E-1	8.191110E-1	7.939219E-1	7.588620E-1	7.206462E-1	6.243971E-1	7.592507E-1	7.221955E-1	7.290082E-1	6.952647E-1	6.505082E-1	8.346446E-1	7.561912E-1	7.418393E-1	6.749314E-1	7.307561E-1	7.106593E-1	7.272964E-1	7.297341E-1	7.068685E-1	6.991718E-1	7.532652E-1	7.407653E-1	7.272076E-1	7.035693E-1	7.562166E-1	6.877505E-1	6.631477E-1	7.152041E-1	7.335523E-1	6.659069E-1
5.348120E+2	1.113249E+0	1.069567E+0	1.222527E+0	9.349887E-1	9.919837E-1	1.060986E+0	1.107072E+0	1.146874E+0	1.146757E+0	1.211517E+0	1.133216E+0	1.137327E+0	1.102414E+0	1.121664E+0	1.056442E+0	1.107484E+0	1.130552E+0	1.093674E+0	1.083138E+0	1.144170E+0	1.119183E+0	1.087983E+0	1.103543E+0	1.161088E+0	1.184275E+0	1.174220E+0	1.178733E+0	1.214167E+0	1.107821E+0	1.177042E+0	1.156839E+0	1.107444E+0	1.135775E+0	1.159622E+0	1.148777E+0	1.114691E+0	1.130581E+0	1.120669E+0	1.044344E+0	1.112145E+0	1.136908E+0	1.176936E+0	1.219391E+0	1.170039E+0	1.092624E+0	1.139867E+0	1.119860E+0	1.114941E+0	1.146496E+0	1.127569E+0	1.099278E+0	1.157808E+0	1.075378E+0	1.075543E+0	1.074961E+0	1.095220E+0	1.081758E+0	1.165766E+0	1.164094E+0	1.085320E+0	1.082511E+0	1.122173E+0	1.094185E+0	1.120957E+0	1.094481E+0	1.122174E+0	1.183445E+0	1.240217E+0	1.051025E+0	1.181552E+0	1.232686E+0	1.228448E+0	1.099553E+0	1.192064E+0	1.363698E+0	1.282080E+0	1.143594E+0	1.196759E+0	1.226376E+0	1.130357E+0	1.095815E+0	1.190192E+0	1.172048E+0	1.153548E+0	1.083580E+0	1.202854E+0	1.110200E+0	1.139209E+0	1.146870E+0	1.233313E+0	1.145681E+0	1.130238E+0	1.151587E+0	1.159132E+0	1.131749E+0	1.108740E+0	1.133938E+0	1.099695E+0	1.126203E+0	1.100339E+0	1.014983E+0	1.116917E+0	1.099440E+0	9.978089E-1	9.524429E-1	1.168034E+0	1.203766E+0	1.012084E+0	1.146368E+0	1.113711E+0	1.146735E+0	1.110924E+0	1.223523E+0	1.131061E+0	1.135986E+0	1.026351E+0	1.126882E+0	1.123981E+0	1.109754E+0	9.643067E-1	1.191367E+0	1.171632E+0	1.140428E+0	1.083314E+0	1.137018E+0	1.121311E+0	1.151146E+0	1.112335E+0	1.153083E+0	1.086893E+0	1.136452E+0	1.077664E+0	1.059364E+0	1.119295E+0	1.164488E+0	9.779116E-1	1.106921E+0	1.201662E+0	1.194104E+0	1.085396E+0	1.103979E+0	1.209220E+0	1.168273E+0	1.148663E+0	1.259677E+0	1.120729E+0	9.530269E-1	1.132748E+0	1.149836E+0	1.060975E+0	1.052508E+0	1.008235E+0	1.219617E+0	1.178552E+0	1.157976E+0	9.992188E-1	1.081697E+0	1.112791E+0	1.128682E+0	1.125505E+0	1.057863E+0	1.053773E+0	1.050432E+0	1.133875E+0	1.070008E+0	1.119736E+0	1.095315E+0	1.054552E+0	1.062626E+0	1.182867E+0	1.048138E+0	1.090902E+0
5.349530E+2	1.550041E+0	1.428581E+0	1.737542E+0	1.386336E+0	1.455332E+0	1.500395E+0	1.474444E+0	1.550129E+0	1.565289E+0	1.653788E+0	1.529171E+0	1.677797E+0	1.578105E+0	1.613662E+0	1.535419E+0	1.546095E+0	1.560376E+0	1.532856E+0	1.458716E+0	1.578995E+0	1.500831E+0	1.576562E+0	1.554677E+0	1.640804E+0	1.666338E+0	1.721771E+0	1.683388E+0	1.782306E+0	1.620282E+0	1.568857E+0	1.642336E+0	1.527784E+0	1.567915E+0	1.582232E+0	1.573693E+0	1.508957E+0	1.564065E+0	1.524463E+0	1.515301E+0	1.551412E+0	1.636584E+0	1.597774E+0	1.669621E+0	1.556139E+0	1.617849E+0	1.524941E+0	1.545001E+0	1.526555E+0	1.530371E+0	1.653307E+0	1.490504E+0	1.525402E+0	1.536074E+0	1.569629E+0	1.523298E+0	1.594713E+0	1.474923E+0	1.537196E+0	1.579230E+0	1.476443E+0	1.564198E+0	1.578708E+0	1.591143E+0	1.555507E+0	1.499311E+0	1.493753E+0	1.663193E+0	1.624829E+0	1.439328E+0	1.566907E+0	1.682690E+0	1.661731E+0	1.565089E+0	1.597254E+0	1.797902E+0	1.718403E+0	1.614051E+0	1.669984E+0	1.699807E+0	1.645465E+0	1.548829E+0	1.657127E+0	1.680128E+0	1.593257E+0	1.466491E+0	1.712282E+0	1.570301E+0	1.670595E+0	1.583581E+0	1.682517E+0	1.597658E+0	1.725589E+0	1.630907E+0	1.631463E+0	1.543710E+0	1.597286E+0	1.554849E+0	1.598757E+0	1.562520E+0	1.577812E+0	1.446625E+0	1.529750E+0	1.507349E+0	1.614848E+0	1.385980E+0	1.677649E+0	1.545172E+0	1.620829E+0	1.589820E+0	1.669055E+0	1.616222E+0	1.529998E+0	1.660040E+0	1.581489E+0	1.620986E+0	1.503911E+0	1.583135E+0	1.476242E+0	1.511559E+0	1.527166E+0	1.688706E+0	1.591137E+0	1.569244E+0	1.555171E+0	1.541598E+0	1.542440E+0	1.552482E+0	1.589649E+0	1.597299E+0	1.477942E+0	1.670391E+0	1.544151E+0	1.439864E+0	1.524980E+0	1.663047E+0	1.401271E+0	1.495958E+0	1.678432E+0	1.693668E+0	1.539181E+0	1.573016E+0	1.606408E+0	1.571110E+0	1.553662E+0	1.631787E+0	1.558579E+0	1.330500E+0	1.593091E+0	1.531694E+0	1.527899E+0	1.424428E+0	1.467934E+0	1.628270E+0	1.558616E+0	1.568100E+0	1.413367E+0	1.506953E+0	1.456433E+0	1.550615E+0	1.599620E+0	1.493369E+0	1.524199E+0	1.422816E+0	1.550831E+0	1.526876E+0	1.497900E+0	1.499502E+0	1.428224E+0	1.473490E+0	1.573558E+0	1.563298E+0	1.574921E+0
5.351460E+2	1.966123E+0	1.834936E+0	2.258572E+0	1.787990E+0	1.856118E+0	1.930630E+0	1.859964E+0	1.980035E+0	2.062711E+0	2.089979E+0	2.008067E+0	2.038513E+0	1.951232E+0	2.044767E+0	1.881808E+0	1.971498E+0	2.044738E+0	1.934231E+0	1.907392E+0	1.925394E+0	2.025950E+0	1.927491E+0	1.922979E+0	2.032794E+0	2.101919E+0	2.091880E+0	2.044833E+0	2.146981E+0	2.030604E+0	2.059984E+0	2.034216E+0	1.934188E+0	2.016524E+0	2.025469E+0	2.012130E+0	1.953360E+0	2.010507E+0	2.024535E+0	1.988880E+0	2.043970E+0	1.995941E+0	2.100294E+0	2.080720E+0	2.069543E+0	1.989098E+0	1.994399E+0	1.988449E+0	1.920214E+0	1.921884E+0	2.015007E+0	1.954743E+0	1.972325E+0	1.905477E+0	1.977043E+0	1.896843E+0	2.047913E+0	1.965731E+0	2.059070E+0	2.009190E+0	1.930901E+0	1.936990E+0	1.987724E+0	1.985356E+0	1.968986E+0	1.884023E+0	1.931345E+0	2.062586E+0	2.103292E+0	1.842127E+0	2.025873E+0	2.173153E+0	2.137581E+0	2.091950E+0	2.214131E+0	2.297205E+0	2.177482E+0	1.938123E+0	2.119876E+0	2.144593E+0	2.023674E+0	1.883313E+0	2.024426E+0	2.150268E+0	1.957739E+0	1.903115E+0	2.055119E+0	1.935769E+0	2.064456E+0	2.050183E+0	2.123968E+0	1.990793E+0	2.095098E+0	2.086046E+0	1.971506E+0	1.951783E+0	1.999353E+0	2.056514E+0	1.985544E+0	1.942775E+0	2.082966E+0	1.808493E+0	1.893701E+0	1.958644E+0	2.117841E+0	1.717443E+0	2.034034E+0	2.027680E+0	2.132777E+0	1.990846E+0	2.040857E+0	2.002961E+0	1.915000E+0	2.046490E+0	1.971857E+0	2.024278E+0	1.978967E+0	1.981833E+0	1.854711E+0	1.931355E+0	2.070193E+0	2.053123E+0	2.004259E+0	1.966317E+0	2.052100E+0	2.008946E+0	1.935592E+0	1.972412E+0	1.996075E+0	2.028924E+0	1.971995E+0	2.089426E+0	2.038266E+0	1.848846E+0	1.948069E+0	2.067822E+0	2.159926E+0	1.884353E+0	2.115968E+0	2.108751E+0	2.081892E+0	1.904889E+0	2.053659E+0	1.989437E+0	2.006032E+0	2.066579E+0	1.967624E+0	1.575917E+0	2.003809E+0	2.017504E+0	1.784508E+0	1.811481E+0	1.974531E+0	2.031511E+0	2.009374E+0	1.885013E+0	1.792355E+0	1.888864E+0	1.887811E+0	1.943879E+0	1.945855E+0	1.887301E+0	1.878155E+0	1.822329E+0	1.918049E+0	1.872090E+0	1.855418E+0	1.898496E+0	1.780027E+0	1.769540E+0	1.956085E+0	1.987672E+0	1.952696E+0
5.352550E+2	2.058721E+0	1.875704E+0	2.360240E+0	1.928777E+0	1.932856E+0	1.993886E+0	2.056648E+0	1.996260E+0	2.150035E+0	2.222665E+0	2.134181E+0	2.211613E+0	2.136819E+0	2.156045E+0	2.011593E+0	2.107797E+0	2.126853E+0	2.023736E+0	2.004849E+0	2.116281E+0	2.132848E+0	2.069221E+0	2.033421E+0	2.196120E+0	2.240223E+0	2.289233E+0	2.220439E+0	2.340326E+0	2.165157E+0	2.215532E+0	2.198277E+0	2.015110E+0	2.227770E+0	2.162628E+0	2.108499E+0	2.015873E+0	2.120447E+0	2.128030E+0	2.109459E+0	2.125099E+0	2.180193E+0	2.208477E+0	2.171237E+0	2.115567E+0	2.093953E+0	2.064237E+0	2.066153E+0	2.052725E+0	2.063562E+0	2.181996E+0	2.076796E+0	2.099367E+0	2.046400E+0	2.114754E+0	2.051500E+0	2.110775E+0	2.072485E+0	2.121343E+0	2.027196E+0	2.026478E+0	2.045384E+0	2.116072E+0	2.143316E+0	2.110569E+0	2.020435E+0	2.150140E+0	2.181326E+0	2.253593E+0	1.990551E+0	2.139746E+0	2.228609E+0	2.212582E+0	2.222101E+0	2.230670E+0	2.450659E+0	2.245758E+0	2.060917E+0	2.221616E+0	2.278837E+0	2.074042E+0	2.055209E+0	2.174171E+0	2.200068E+0	2.146099E+0	1.975065E+0	2.284966E+0	2.111512E+0	2.194968E+0	2.180804E+0	2.208680E+0	2.125286E+0	2.226843E+0	2.183847E+0	2.122422E+0	2.022717E+0	2.112667E+0	2.066099E+0	2.135438E+0	2.033573E+0	2.145876E+0	1.933439E+0	2.017686E+0	2.003412E+0	2.229395E+0	1.844142E+0	2.191279E+0	2.094648E+0	2.226977E+0	2.163575E+0	2.089455E+0	2.148661E+0	2.035709E+0	2.146629E+0	2.085088E+0	2.202868E+0	2.113535E+0	2.093805E+0	1.989452E+0	2.023033E+0	2.291370E+0	2.161240E+0	2.149896E+0	2.121807E+0	2.162664E+0	2.061423E+0	2.024749E+0	2.120248E+0	2.121315E+0	2.052835E+0	2.027689E+0	2.191848E+0	2.156295E+0	1.977543E+0	2.092674E+0	2.170356E+0	2.163409E+0	2.078873E+0	2.201483E+0	2.244450E+0	2.268247E+0	1.960370E+0	2.168897E+0	2.149908E+0	2.193553E+0	2.125929E+0	2.095651E+0	1.724852E+0	2.232346E+0	2.072440E+0	1.967235E+0	1.876599E+0	2.310994E+0	2.224337E+0	2.028711E+0	2.075037E+0	2.033289E+0	1.984858E+0	1.993099E+0	2.033716E+0	2.119733E+0	1.962948E+0	1.933157E+0	1.946253E+0	2.142881E+0	2.010898E+0	1.937056E+0	1.948959E+0	2.254312E+0	1.908077E+0	2.073876E+0	1.937002E+0	2.289153E+0
5.354060E+2	2.045928E+0	1.859265E+0	2.304729E+0	1.746585E+0	2.011544E+0	1.947531E+0	2.004163E+0	2.041451E+0	2.151239E+0	2.190048E+0	2.106347E+0	2.188006E+0	2.101656E+0	2.119244E+0	2.050337E+0	2.090815E+0	2.075531E+0	2.025404E+0	1.938889E+0	2.096159E+0	2.053611E+0	2.055185E+0	2.081965E+0	2.057992E+0	2.138078E+0	2.258779E+0	2.249993E+0	2.305227E+0	2.141625E+0	2.181520E+0	2.093061E+0	1.984542E+0	2.155649E+0	2.091262E+0	2.114136E+0	2.015249E+0	2.133850E+0	2.046593E+0	1.998929E+0	2.062214E+0	2.127726E+0	2.165205E+0	2.179408E+0	2.095245E+0	2.017907E+0	2.037079E+0	2.077765E+0	1.973606E+0	2.031822E+0	2.085811E+0	2.099678E+0	1.987800E+0	1.993026E+0	2.065041E+0	2.016849E+0	2.123931E+0	2.015855E+0	2.123548E+0	2.082791E+0	1.972534E+0	1.957754E+0	2.082317E+0	2.102583E+0	2.156621E+0	2.062552E+0	2.139496E+0	2.174128E+0	2.168271E+0	1.925584E+0	2.148405E+0	2.218157E+0	2.128963E+0	2.101336E+0	2.241696E+0	2.339058E+0	2.243804E+0	2.098479E+0	2.109611E+0	2.234538E+0	2.108838E+0	2.050866E+0	2.144106E+0	2.202441E+0	2.062709E+0	1.999211E+0	2.188390E+0	2.072354E+0	2.197305E+0	2.092426E+0	2.112633E+0	2.072265E+0	2.216179E+0	2.094648E+0	2.131017E+0	1.972191E+0	2.177276E+0	2.042828E+0	2.087823E+0	2.036622E+0	2.103097E+0	1.852301E+0	1.982137E+0	1.979201E+0	2.109375E+0	1.720442E+0	2.118969E+0	2.193895E+0	2.171756E+0	2.093373E+0	2.104082E+0	2.109537E+0	1.987034E+0	2.140851E+0	2.050685E+0	2.046452E+0	2.005253E+0	1.973984E+0	1.917255E+0	1.984869E+0	2.170356E+0	2.121171E+0	2.108119E+0	2.037336E+0	2.169097E+0	2.081038E+0	2.004356E+0	2.035901E+0	2.112804E+0	2.092475E+0	1.977384E+0	2.213079E+0	2.139975E+0	1.933795E+0	2.030634E+0	2.202430E+0	2.251462E+0	1.993769E+0	2.188006E+0	2.225823E+0	2.232282E+0	1.973726E+0	2.093333E+0	2.099004E+0	2.129272E+0	2.231963E+0	2.063644E+0	1.696515E+0	2.158564E+0	2.046589E+0	1.944091E+0	1.827528E+0	2.312081E+0	2.180358E+0	1.983997E+0	2.049784E+0	2.102967E+0	1.918795E+0	1.985297E+0	1.964425E+0	2.084350E+0	2.027017E+0	1.971333E+0	1.949948E+0	2.110859E+0	2.004259E+0	1.915945E+0	1.877746E+0	2.207445E+0	1.996323E+0	1.960750E+0	1.989784E+0	2.318667E+0
5.355630E+2	1.933832E+0	1.874387E+0	2.206405E+0	1.688612E+0	1.852205E+0	1.842745E+0	1.904105E+0	1.942375E+0	2.041034E+0	2.135315E+0	2.027945E+0	2.023384E+0	1.981511E+0	2.009278E+0	1.889746E+0	1.916787E+0	1.944017E+0	1.874747E+0	1.895508E+0	1.993701E+0	1.906859E+0	2.007639E+0	1.922532E+0	2.025792E+0	2.090443E+0	2.040345E+0	2.061880E+0	2.091058E+0	1.976872E+0	1.954776E+0	2.017275E+0	1.933739E+0	2.019365E+0	2.008186E+0	2.020587E+0	1.909414E+0	1.950176E+0	1.977457E+0	1.960044E+0	1.994041E+0	2.000819E+0	1.986697E+0	2.004224E+0	1.982279E+0	1.910689E+0	1.959482E+0	1.897794E+0	1.898370E+0	1.935411E+0	2.004979E+0	1.955830E+0	1.958782E+0	1.865679E+0	1.896091E+0	1.838950E+0	2.007953E+0	1.882415E+0	1.971448E+0	1.966303E+0	1.862290E+0	1.853922E+0	1.860268E+0	1.967255E+0	1.933713E+0	1.930539E+0	2.009068E+0	2.035602E+0	2.107231E+0	1.857118E+0	1.976078E+0	2.008609E+0	2.072715E+0	1.946155E+0	2.015119E+0	2.183856E+0	2.063686E+0	1.925608E+0	1.998535E+0	2.083738E+0	2.018636E+0	1.909999E+0	1.988457E+0	2.056002E+0	1.985728E+0	1.896709E+0	1.993795E+0	1.912459E+0	2.008327E+0	2.093729E+0	2.082810E+0	1.913201E+0	2.152817E+0	2.032849E+0	1.977238E+0	1.836649E+0	2.017739E+0	1.964808E+0	1.905603E+0	1.948869E+0	1.936394E+0	1.802539E+0	1.843932E+0	1.812476E+0	2.060573E+0	1.659797E+0	1.943358E+0	2.024092E+0	2.037275E+0	1.973166E+0	1.950268E+0	1.959339E+0	1.891149E+0	2.069600E+0	1.877394E+0	2.005599E+0	1.910744E+0	1.883465E+0	1.885064E+0	1.876080E+0	2.054943E+0	1.980619E+0	1.995557E+0	1.922734E+0	2.021881E+0	1.909888E+0	1.920890E+0	1.921621E+0	2.051372E+0	1.948389E+0	1.857016E+0	2.108165E+0	1.984897E+0	1.752193E+0	1.897192E+0	2.053734E+0	2.047496E+0	1.886913E+0	2.128262E+0	2.156643E+0	2.081237E+0	1.966534E+0	1.963927E+0	1.989990E+0	1.980899E+0	2.045907E+0	1.958024E+0	1.589785E+0	2.057351E+0	1.890935E+0	1.864294E+0	1.791301E+0	2.169209E+0	2.018654E+0	1.872213E+0	1.997465E+0	1.954495E+0	1.852734E+0	1.824932E+0	1.865989E+0	1.983762E+0	1.907062E+0	1.819271E+0	1.766839E+0	2.025016E+0	1.876921E+0	1.784572E+0	1.820206E+0	2.185576E+0	1.784723E+0	1.919931E+0	1.839881E+0	2.029431E+0
5.357090E+2	1.687720E+0	1.533786E+0	1.878667E+0	1.481573E+0	1.564818E+0	1.610969E+0	1.595104E+0	1.701932E+0	1.721263E+0	1.784815E+0	1.730841E+0	1.728636E+0	1.680175E+0	1.674122E+0	1.649326E+0	1.708803E+0	1.729102E+0	1.709641E+0	1.596588E+0	1.676573E+0	1.689312E+0	1.636333E+0	1.654880E+0	1.799002E+0	1.812679E+0	1.778571E+0	1.790230E+0	1.835252E+0	1.718868E+0	1.724402E+0	1.741309E+0	1.684234E+0	1.753041E+0	1.716042E+0	1.770373E+0	1.606128E+0	1.705728E+0	1.719995E+0	1.686994E+0	1.730000E+0	1.781793E+0	1.806571E+0	1.744368E+0	1.721098E+0	1.612653E+0	1.683527E+0	1.720952E+0	1.665381E+0	1.750232E+0	1.735911E+0	1.669768E+0	1.704041E+0	1.588982E+0	1.695905E+0	1.651335E+0	1.718977E+0	1.668253E+0	1.707479E+0	1.732791E+0	1.582578E+0	1.658409E+0	1.659978E+0	1.727374E+0	1.688272E+0	1.651433E+0	1.707757E+0	1.773537E+0	1.773815E+0	1.558272E+0	1.766513E+0	1.844058E+0	1.760550E+0	1.763443E+0	1.770356E+0	1.951352E+0	1.851703E+0	1.653539E+0	1.806260E+0	1.855526E+0	1.728800E+0	1.637571E+0	1.716673E+0	1.812339E+0	1.674318E+0	1.568502E+0	1.831070E+0	1.669591E+0	1.780989E+0	1.745395E+0	1.820920E+0	1.676543E+0	1.858587E+0	1.739991E+0	1.765666E+0	1.620954E+0	1.714076E+0	1.676672E+0	1.669883E+0	1.641131E+0	1.753960E+0	1.578064E+0	1.639515E+0	1.619256E+0	1.802101E+0	1.456837E+0	1.753400E+0	1.717963E+0	1.772856E+0	1.717097E+0	1.719070E+0	1.671534E+0	1.658005E+0	1.778800E+0	1.710358E+0	1.792575E+0	1.673530E+0	1.606680E+0	1.596266E+0	1.650614E+0	1.889180E+0	1.755482E+0	1.702540E+0	1.688691E+0	1.787882E+0	1.636244E+0	1.639188E+0	1.693517E+0	1.750329E+0	1.661475E+0	1.622267E+0	1.773438E+0	1.754477E+0	1.597552E+0	1.713318E+0	1.800081E+0	1.842535E+0	1.646963E+0	1.835407E+0	1.857306E+0	1.807264E+0	1.608464E+0	1.731563E+0	1.727154E+0	1.710738E+0	1.758486E+0	1.741018E+0	1.363063E+0	1.741317E+0	1.718047E+0	1.623449E+0	1.572093E+0	1.906913E+0	1.841393E+0	1.625686E+0	1.700398E+0	1.679049E+0	1.626690E+0	1.610951E+0	1.681544E+0	1.708294E+0	1.586740E+0	1.513200E+0	1.575097E+0	1.872403E+0	1.588434E+0	1.562178E+0	1.598540E+0	1.909377E+0	1.593049E+0	1.686683E+0	1.571743E+0	1.793323E+0
5.358600E+2	1.499478E+0	1.400306E+0	1.676007E+0	1.390475E+0	1.386904E+0	1.402374E+0	1.437167E+0	1.475966E+0	1.600221E+0	1.575286E+0	1.535987E+0	1.552515E+0	1.625478E+0	1.525603E+0	1.438316E+0	1.538076E+0	1.565509E+0	1.458361E+0	1.423059E+0	1.503986E+0	1.445037E+0	1.471964E+0	1.431763E+0	1.500810E+0	1.552135E+0	1.517976E+0	1.558363E+0	1.601452E+0	1.522584E+0	1.569310E+0	1.559416E+0	1.434275E+0	1.581547E+0	1.539301E+0	1.489161E+0	1.453872E+0	1.522504E+0	1.494347E+0	1.438408E+0	1.491886E+0	1.539579E+0	1.545303E+0	1.545240E+0	1.486806E+0	1.458201E+0	1.438614E+0	1.448093E+0	1.388220E+0	1.421615E+0	1.488681E+0	1.479059E+0	1.451239E+0	1.433543E+0	1.462274E+0	1.456955E+0	1.535748E+0	1.441727E+0	1.448473E+0	1.480741E+0	1.474098E+0	1.476573E+0	1.473900E+0	1.474823E+0	1.532968E+0	1.432050E+0	1.506529E+0	1.601425E+0	1.599889E+0	1.392354E+0	1.487236E+0	1.559055E+0	1.622201E+0	1.505646E+0	1.581267E+0	1.686878E+0	1.587049E+0	1.494149E+0	1.529512E+0	1.600016E+0	1.523216E+0	1.410440E+0	1.531548E+0	1.574008E+0	1.558847E+0	1.438401E+0	1.555348E+0	1.406214E+0	1.601834E+0	1.526394E+0	1.508325E+0	1.538815E+0	1.615806E+0	1.562128E+0	1.518276E+0	1.431003E+0	1.547587E+0	1.545264E+0	1.503528E+0	1.507677E+0	1.520567E+0	1.394156E+0	1.397326E+0	1.434264E+0	1.670626E+0	1.322932E+0	1.538764E+0	1.497935E+0	1.629278E+0	1.544365E+0	1.487874E+0	1.475916E+0	1.494954E+0	1.554123E+0	1.455119E+0	1.515933E+0	1.443199E+0	1.503604E+0	1.409100E+0	1.464186E+0	1.584110E+0	1.540522E+0	1.560965E+0	1.473472E+0	1.528812E+0	1.503346E+0	1.476048E+0	1.522102E+0	1.567911E+0	1.553255E+0	1.477344E+0	1.610441E+0	1.515900E+0	1.376782E+0	1.443309E+0	1.595989E+0	1.604243E+0	1.448607E+0	1.582962E+0	1.647102E+0	1.622221E+0	1.481573E+0	1.567211E+0	1.516326E+0	1.561883E+0	1.546426E+0	1.489446E+0	1.293717E+0	1.554565E+0	1.528463E+0	1.387522E+0	1.346924E+0	1.562821E+0	1.552492E+0	1.441998E+0	1.500146E+0	1.498021E+0	1.398578E+0	1.388680E+0	1.488975E+0	1.552106E+0	1.515178E+0	1.442669E+0	1.368561E+0	1.543337E+0	1.461092E+0	1.410163E+0	1.391968E+0	1.640683E+0	1.375756E+0	1.467430E+0	1.445065E+0	1.746103E+0
5.360120E+2	1.197927E+0	1.107704E+0	1.347601E+0	1.158594E+0	1.183581E+0	1.206328E+0	1.229694E+0	1.266808E+0	1.374391E+0	1.343096E+0	1.266716E+0	1.239005E+0	1.515591E+0	1.235135E+0	1.219369E+0	1.211238E+0	1.364070E+0	1.256559E+0	1.195455E+0	1.253944E+0	1.296880E+0	1.236955E+0	1.210427E+0	1.292217E+0	1.400631E+0	1.304813E+0	1.344110E+0	1.344452E+0	1.521700E+0	1.266379E+0	1.311982E+0	1.209947E+0	1.504319E+0	1.289527E+0	1.232747E+0	1.219292E+0	1.330787E+0	1.245371E+0	1.264530E+0	1.267208E+0	1.349834E+0	1.368964E+0	1.340272E+0	1.254909E+0	1.409081E+0	1.210191E+0	1.268570E+0	1.199399E+0	1.365179E+0	1.293375E+0	1.220240E+0	1.243581E+0	1.210217E+0	1.207094E+0	1.222435E+0	1.287707E+0	1.239936E+0	1.286451E+0	1.306532E+0	1.222537E+0	1.261306E+0	1.254513E+0	1.247619E+0	1.264501E+0	1.220205E+0	1.235566E+0	1.286591E+0	1.380015E+0	1.192453E+0	1.298888E+0	1.319505E+0	1.325241E+0	1.222194E+0	1.323269E+0	1.452050E+0	1.345805E+0	1.259162E+0	1.315764E+0	1.371805E+0	1.273672E+0	1.237304E+0	1.326970E+0	1.332715E+0	1.297007E+0	1.183127E+0	1.333229E+0	1.246318E+0	1.292639E+0	1.287241E+0	1.303110E+0	1.249137E+0	1.401879E+0	1.305272E+0	1.257038E+0	1.274575E+0	1.359226E+0	1.244812E+0	1.241949E+0	1.259049E+0	1.296613E+0	1.135606E+0	1.256453E+0	1.237387E+0	1.331977E+0	1.076140E+0	1.311506E+0	1.268938E+0	1.365508E+0	1.266073E+0	1.298668E+0	1.243871E+0	1.254024E+0	1.357046E+0	1.266815E+0	1.273725E+0	1.215371E+0	1.250365E+0	1.167667E+0	1.202307E+0	1.348699E+0	1.345275E+0	1.334096E+0	1.224898E+0	1.330170E+0	1.248341E+0	1.240823E+0	1.268148E+0	1.273014E+0	1.263193E+0	1.224629E+0	1.329421E+0	1.335706E+0	1.167713E+0	1.212574E+0	1.356914E+0	1.316199E+0	1.229135E+0	1.391436E+0	1.370381E+0	1.341059E+0	1.241145E+0	1.321153E+0	1.292776E+0	1.313948E+0	1.364374E+0	1.307648E+0	1.047697E+0	1.329292E+0	1.280714E+0	1.179182E+0	1.178622E+0	1.395407E+0	1.277803E+0	1.272813E+0	1.304104E+0	1.299412E+0	1.233429E+0	1.254635E+0	1.262478E+0	1.228112E+0	1.220751E+0	1.188366E+0	1.211963E+0	1.335540E+0	1.205198E+0	1.196683E+0	1.169361E+0	1.391985E+0	1.192622E+0	1.257505E+0	1.172705E+0	1.332913E+0
5.362580E+2	9.042952E-1	8.611290E-1	1.027222E+0	7.610768E-1	8.766357E-1	8.755651E-1	8.878268E-1	8.594978E-1	9.974104E-1	9.798762E-1	9.270012E-1	9.805719E-1	1.089715E+0	9.398479E-1	8.804423E-1	9.131743E-1	1.030473E+0	8.774182E-1	8.798980E-1	9.258413E-1	9.466449E-1	9.326679E-1	9.267404E-1	9.510955E-1	1.036212E+0	9.669134E-1	9.741421E-1	1.035695E+0	1.148676E+0	9.348795E-1	9.834156E-1	8.894079E-1	1.051732E+0	9.315905E-1	9.543526E-1	8.906326E-1	1.004111E+0	8.958710E-1	9.416753E-1	9.412386E-1	9.910923E-1	1.004922E+0	1.009168E+0	9.704151E-1	1.104905E+0	9.255070E-1	8.952339E-1	9.008820E-1	1.069486E+0	9.381626E-1	9.374477E-1	9.359616E-1	9.737816E-1	9.294726E-1	9.050919E-1	9.144279E-1	9.671933E-1	9.078587E-1	9.485847E-1	9.047113E-1	1.099733E+0	9.054499E-1	9.072624E-1	8.995198E-1	1.042306E+0	9.438373E-1	9.969413E-1	1.013783E+0	9.205899E-1	9.538001E-1	9.863161E-1	9.547966E-1	9.925536E-1	9.847850E-1	1.071320E+0	1.016126E+0	1.031396E+0	9.512774E-1	1.023670E+0	8.977562E-1	9.772869E-1	9.231210E-1	9.764041E-1	9.721826E-1	8.958216E-1	1.017432E+0	9.064883E-1	9.941996E-1	1.011048E+0	1.050170E+0	9.659239E-1	1.020451E+0	9.581400E-1	9.437401E-1	9.082804E-1	9.700804E-1	9.491495E-1	9.480372E-1	8.867159E-1	9.367772E-1	8.235027E-1	9.027248E-1	9.482463E-1	1.009761E+0	8.113330E-1	9.556956E-1	9.747689E-1	1.034822E+0	9.428259E-1	9.174293E-1	9.196381E-1	9.138005E-1	9.333664E-1	9.002180E-1	9.690676E-1	9.168187E-1	9.018946E-1	8.981849E-1	9.277094E-1	1.021761E+0	9.897604E-1	9.557866E-1	9.402779E-1	9.849574E-1	9.384058E-1	8.557346E-1	9.284856E-1	9.488184E-1	8.737204E-1	9.533497E-1	1.024668E+0	1.002951E+0	9.047225E-1	9.327414E-1	1.008017E+0	1.060494E+0	9.162420E-1	1.023019E+0	1.008514E+0	1.003662E+0	9.174945E-1	9.504105E-1	9.546809E-1	9.495434E-1	1.004935E+0	9.222879E-1	8.052943E-1	9.394696E-1	9.451713E-1	8.752902E-1	8.644858E-1	1.024049E+0	1.011908E+0	9.277942E-1	9.823801E-1	9.783807E-1	9.062267E-1	9.329288E-1	9.036197E-1	9.657804E-1	9.079242E-1	9.243558E-1	8.938338E-1	1.020098E+0	8.859340E-1	8.968736E-1	9.241153E-1	1.062050E+0	9.070098E-1	9.624473E-1	9.087913E-1	1.067291E+0
5.365140E+2	6.825486E-1	6.579509E-1	7.844300E-1	6.782606E-1	6.508273E-1	6.321999E-1	6.862385E-1	6.833644E-1	7.655611E-1	7.736666E-1	7.054483E-1	7.348481E-1	8.215919E-1	7.023906E-1	6.582277E-1	7.165079E-1	7.674446E-1	6.511570E-1	6.267387E-1	6.843382E-1	7.333149E-1	6.723018E-1	6.960517E-1	7.051705E-1	7.802592E-1	7.730736E-1	7.365900E-1	7.406203E-1	8.062953E-1	7.262739E-1	7.105726E-1	6.902517E-1	8.030094E-1	7.325512E-1	6.956839E-1	6.430555E-1	7.422339E-1	6.579227E-1	6.734322E-1	7.357675E-1	7.531508E-1	7.339193E-1	7.236155E-1	7.008625E-1	8.361500E-1	6.384004E-1	7.000807E-1	6.518740E-1	7.802560E-1	7.163031E-1	7.053281E-1	6.941213E-1	6.933368E-1	6.817686E-1	7.128278E-1	7.092705E-1	7.810245E-1	6.868744E-1	7.108349E-1	6.906777E-1	8.317883E-1	7.011638E-1	6.958977E-1	6.996377E-1	7.707436E-1	6.984238E-1	7.444731E-1	7.768469E-1	6.587220E-1	6.801546E-1	7.622234E-1	7.642539E-1	7.973290E-1	7.289925E-1	7.882459E-1	7.820349E-1	8.618959E-1	7.678670E-1	7.815876E-1	6.994956E-1	8.233872E-1	7.179534E-1	7.451891E-1	7.033425E-1	7.189046E-1	7.581299E-1	6.911223E-1	7.434745E-1	7.679978E-1	7.501035E-1	7.363790E-1	7.444183E-1	8.135918E-1	6.791575E-1	6.882119E-1	7.464348E-1	7.527250E-1	6.829280E-1	6.709945E-1	7.467937E-1	6.926035E-1	6.552018E-1	7.143746E-1	7.761932E-1	6.371958E-1	7.330269E-1	7.182673E-1	7.717035E-1	8.231246E-1	6.989722E-1	7.186244E-1	6.684906E-1	7.420685E-1	7.244271E-1	7.239412E-1	7.177825E-1	6.952208E-1	6.360598E-1	6.715349E-1	7.604165E-1	7.404558E-1	7.335592E-1	7.471221E-1	7.670290E-1	7.545056E-1	6.982849E-1	7.203352E-1	7.318999E-1	7.510268E-1	6.982384E-1	7.786167E-1	7.568368E-1	6.783568E-1	7.046841E-1	7.806036E-1	7.679747E-1	6.929300E-1	7.922466E-1	7.517489E-1	7.721922E-1	7.001859E-1	7.279657E-1	7.316822E-1	6.996791E-1	7.441915E-1	7.142443E-1	5.634951E-1	7.259487E-1	7.238112E-1	6.654709E-1	6.815069E-1	8.195559E-1	7.365411E-1	6.903293E-1	7.111704E-1	7.485156E-1	6.781143E-1	6.906742E-1	7.024483E-1	7.322614E-1	6.714279E-1	6.823477E-1	6.761986E-1	7.121511E-1	6.771153E-1	6.585278E-1	6.666069E-1	7.952289E-1	6.479661E-1	6.988760E-1	7.314410E-1	6.541012E-1
5.368020E+2	5.674110E-1	5.146081E-1	5.637088E-1	5.084886E-1	5.076191E-1	4.902374E-1	5.278128E-1	5.251912E-1	6.095890E-1	6.409844E-1	5.685402E-1	5.653843E-1	6.496793E-1	5.398511E-1	5.382502E-1	5.420077E-1	5.756260E-1	5.483105E-1	5.595863E-1	5.398023E-1	6.020360E-1	5.473261E-1	5.406264E-1	5.609752E-1	6.390823E-1	5.891907E-1	5.751909E-1	6.281823E-1	6.633039E-1	5.680061E-1	5.790559E-1	5.508876E-1	6.985235E-1	5.797871E-1	5.485973E-1	5.378355E-1	6.233607E-1	5.595198E-1	5.331934E-1	5.859838E-1	6.122158E-1	6.116708E-1	5.758744E-1	5.861089E-1	6.911461E-1	5.680782E-1	5.678941E-1	5.115948E-1	6.421077E-1	5.664299E-1	5.538508E-1	5.341852E-1	5.893991E-1	5.576965E-1	5.547909E-1	5.889049E-1	5.440830E-1	5.601253E-1	6.049331E-1	5.382155E-1	6.519785E-1	5.617164E-1	5.293403E-1	5.619738E-1	6.330765E-1	5.578834E-1	6.011484E-1	6.212964E-1	5.537749E-1	5.571865E-1	5.981296E-1	5.985428E-1	6.021027E-1	5.944812E-1	6.469991E-1	6.357272E-1	6.702452E-1	6.035912E-1	5.954382E-1	5.717485E-1	5.863311E-1	5.522867E-1	5.750380E-1	5.913742E-1	5.543071E-1	6.127856E-1	5.354251E-1	5.811581E-1	5.717378E-1	6.224405E-1	5.559762E-1	6.302415E-1	6.545349E-1	5.874612E-1	5.448995E-1	6.033000E-1	6.062618E-1	5.712418E-1	5.728842E-1	5.907812E-1	5.184321E-1	5.236640E-1	5.599831E-1	5.984019E-1	5.159014E-1	5.711906E-1	5.669973E-1	5.930427E-1	6.736238E-1	5.767682E-1	5.594322E-1	5.653046E-1	6.419263E-1	5.855455E-1	5.879547E-1	4.974671E-1	5.780180E-1	5.210926E-1	5.329199E-1	6.058472E-1	6.189837E-1	5.716755E-1	5.485861E-1	6.133872E-1	6.985995E-1	5.783008E-1	5.888242E-1	5.839799E-1	6.440634E-1	5.575091E-1	6.043839E-1	5.992477E-1	5.867934E-1	5.440174E-1	5.867194E-1	6.212174E-1	5.835137E-1	6.136037E-1	6.027443E-1	6.178786E-1	6.914529E-1	6.042279E-1	5.440978E-1	5.977030E-1	6.494970E-1	5.734151E-1	4.471175E-1	5.294056E-1	5.870095E-1	5.305167E-1	5.292545E-1	6.515989E-1	6.350543E-1	5.658568E-1	5.463993E-1	5.896275E-1	6.306341E-1	5.615047E-1	5.844222E-1	6.069089E-1	5.950955E-1	5.458133E-1	5.812535E-1	5.895171E-1	6.046928E-1	5.215253E-1	5.279491E-1	6.665047E-1	5.511797E-1	5.577608E-1	5.456452E-1	5.596581E-1
5.370070E+2	4.620199E-1	4.179512E-1	5.449809E-1	4.712216E-1	4.504340E-1	4.322934E-1	4.532596E-1	4.863720E-1	5.005896E-1	5.254406E-1	5.276380E-1	5.151500E-1	5.857003E-1	5.109361E-1	4.677576E-1	4.953165E-1	5.890978E-1	4.993894E-1	4.472691E-1	5.141884E-1	5.237368E-1	4.866504E-1	4.715983E-1	5.175765E-1	5.679208E-1	4.954923E-1	5.200653E-1	4.723169E-1	6.126790E-1	4.936341E-1	5.202074E-1	4.488376E-1	5.576933E-1	4.850064E-1	5.068948E-1	4.864628E-1	4.915281E-1	4.589960E-1	4.820781E-1	4.923693E-1	5.316814E-1	5.045673E-1	5.192318E-1	5.185707E-1	5.976257E-1	4.987263E-1	4.718808E-1	5.014012E-1	5.462859E-1	5.180460E-1	4.666697E-1	4.800136E-1	4.863980E-1	4.789420E-1	4.825331E-1	5.299405E-1	4.991686E-1	4.884848E-1	5.048554E-1	4.649162E-1	5.851195E-1	5.048714E-1	4.736707E-1	4.879978E-1	5.532425E-1	4.854842E-1	5.016002E-1	4.795288E-1	4.873083E-1	5.108573E-1	5.540383E-1	5.235421E-1	5.101219E-1	5.206099E-1	5.941040E-1	5.238846E-1	5.917550E-1	5.111852E-1	5.117604E-1	4.989465E-1	5.379267E-1	5.015844E-1	5.276090E-1	4.869871E-1	4.808793E-1	5.181435E-1	5.079214E-1	4.974274E-1	4.736084E-1	5.478711E-1	5.339916E-1	5.731522E-1	5.755440E-1	5.091371E-1	4.618271E-1	4.790526E-1	5.624598E-1	5.030544E-1	4.796481E-1	4.926437E-1	4.729957E-1	4.596731E-1	4.768488E-1	5.441183E-1	4.666626E-1	4.942889E-1	5.161748E-1	5.267759E-1	5.539224E-1	4.743809E-1	4.982730E-1	4.981364E-1	5.276612E-1	5.054699E-1	5.056627E-1	4.511502E-1	5.126150E-1	4.838435E-1	4.772110E-1	5.417823E-1	5.483895E-1	5.397627E-1	4.958590E-1	5.111732E-1	6.206264E-1	5.057412E-1	4.985804E-1	4.937152E-1	5.987611E-1	4.838500E-1	5.032151E-1	5.176288E-1	4.743732E-1	4.900150E-1	5.177172E-1	5.122690E-1	5.329646E-1	5.263318E-1	5.761363E-1	5.551077E-1	5.707256E-1	5.593614E-1	5.020434E-1	5.498570E-1	5.821435E-1	5.343668E-1	4.410880E-1	5.065516E-1	5.024502E-1	4.728905E-1	4.622998E-1	5.758001E-1	5.410100E-1	5.181220E-1	4.970888E-1	5.140906E-1	5.924436E-1	4.844902E-1	4.491929E-1	5.224983E-1	5.835092E-1	4.720461E-1	4.776764E-1	5.479580E-1	5.208028E-1	4.811754E-1	4.996514E-1	5.484033E-1	4.961447E-1	5.262727E-1	4.949742E-1	4.888257E-1
5.372590E+2	4.394796E-1	3.857315E-1	5.222402E-1	4.256733E-1	4.162201E-1	4.197388E-1	4.311878E-1	4.394419E-1	4.831253E-1	4.684981E-1	4.776470E-1	4.624953E-1	5.251406E-1	4.491621E-1	4.318109E-1	4.519276E-1	5.127560E-1	4.371256E-1	4.448924E-1	4.861346E-1	4.398121E-1	4.540477E-1	4.537844E-1	4.741779E-1	4.824116E-1	5.130615E-1	4.751692E-1	4.996826E-1	5.527296E-1	4.546346E-1	4.600217E-1	4.474887E-1	5.071540E-1	4.565719E-1	4.792806E-1	4.654195E-1	4.870594E-1	4.530579E-1	4.410116E-1	4.640449E-1	5.292412E-1	4.964543E-1	4.766034E-1	4.737452E-1	5.725922E-1	4.395588E-1	4.357082E-1	4.324753E-1	5.092505E-1	4.779222E-1	4.530477E-1	4.348701E-1	4.451974E-1	4.543030E-1	4.525312E-1	4.441739E-1	5.082812E-1	4.543172E-1	4.963833E-1	4.549475E-1	5.405464E-1	4.688992E-1	4.347465E-1	4.610530E-1	5.155251E-1	4.695133E-1	4.830097E-1	4.841235E-1	4.568238E-1	4.770841E-1	5.231286E-1	4.895887E-1	4.976073E-1	5.046231E-1	5.255150E-1	5.043765E-1	5.744199E-1	4.799172E-1	5.050485E-1	4.581952E-1	5.155866E-1	4.809499E-1	4.736588E-1	4.461656E-1	4.498326E-1	4.737189E-1	4.692298E-1	4.754425E-1	4.729580E-1	5.198333E-1	4.796770E-1	4.928517E-1	5.561989E-1	4.809594E-1	4.608555E-1	4.785553E-1	5.152354E-1	4.519135E-1	4.686790E-1	4.309938E-1	4.389189E-1	4.365648E-1	4.837002E-1	5.017871E-1	4.162239E-1	4.793676E-1	5.000315E-1	4.968902E-1	5.352351E-1	4.687189E-1	4.506053E-1	4.572510E-1	5.507704E-1	4.310241E-1	4.653921E-1	4.980923E-1	4.880233E-1	4.295791E-1	4.763334E-1	5.244946E-1	4.981467E-1	4.823196E-1	4.506636E-1	4.963876E-1	5.642301E-1	4.739673E-1	4.772667E-1	4.913524E-1	5.245159E-1	4.419305E-1	5.113337E-1	4.987930E-1	4.397825E-1	4.333353E-1	5.157737E-1	5.207265E-1	4.619400E-1	5.251607E-1	5.082863E-1	4.897206E-1	5.409294E-1	5.229958E-1	4.682895E-1	4.957275E-1	5.501347E-1	4.517898E-1	3.856127E-1	5.000218E-1	4.744440E-1	4.487564E-1	4.123130E-1	5.283579E-1	5.247723E-1	5.126839E-1	4.688246E-1	5.114858E-1	5.645748E-1	4.411088E-1	4.917207E-1	5.093562E-1	5.623808E-1	4.856354E-1	4.339033E-1	5.186621E-1	4.628647E-1	4.605315E-1	4.274926E-1	5.690245E-1	4.648320E-1	4.947834E-1	4.717499E-1	4.711181E-1
5.375160E+2	4.699392E-1	4.547726E-1	5.255845E-1	4.753622E-1	4.274620E-1	4.337420E-1	4.557119E-1	4.834753E-1	5.505727E-1	5.105138E-1	5.015061E-1	4.933616E-1	5.935150E-1	5.087452E-1	4.770940E-1	5.056924E-1	5.538134E-1	4.221158E-1	4.573717E-1	4.849154E-1	4.998252E-1	4.789523E-1	4.475490E-1	4.900441E-1	5.237321E-1	4.650408E-1	5.115406E-1	5.431107E-1	5.602786E-1	4.736807E-1	4.974702E-1	4.402958E-1	5.718899E-1	5.017318E-1	5.035136E-1	4.536590E-1	5.170010E-1	4.662064E-1	4.838259E-1	5.024508E-1	5.292414E-1	4.634576E-1	5.525171E-1	4.952615E-1	6.127400E-1	4.439238E-1	4.763465E-1	4.562600E-1	5.827335E-1	4.761522E-1	5.080804E-1	4.658257E-1	4.779704E-1	4.886213E-1	4.677435E-1	4.919300E-1	4.991684E-1	4.917911E-1	5.064440E-1	4.660898E-1	5.846128E-1	4.524672E-1	4.963005E-1	4.688918E-1	5.557570E-1	5.147632E-1	5.159929E-1	5.490999E-1	4.673182E-1	4.809813E-1	5.304017E-1	5.296232E-1	5.057415E-1	4.974565E-1	5.946855E-1	5.557464E-1	5.864582E-1	5.181862E-1	5.189201E-1	4.916201E-1	5.311008E-1	5.092489E-1	5.104161E-1	5.003997E-1	4.823576E-1	5.109002E-1	4.962676E-1	5.287679E-1	4.723087E-1	5.293778E-1	4.926086E-1	5.405302E-1	5.647964E-1	5.330165E-1	4.759158E-1	5.496251E-1	5.282394E-1	5.089323E-1	4.418663E-1	4.983060E-1	4.729961E-1	4.596729E-1	4.777622E-1	5.187199E-1	4.456470E-1	5.189659E-1	5.448744E-1	5.189795E-1	5.771556E-1	4.885359E-1	4.973737E-1	4.752603E-1	5.315125E-1	5.054697E-1	5.079971E-1	4.868264E-1	4.948250E-1	4.820037E-1	4.916865E-1	5.000887E-1	5.433009E-1	4.939247E-1	4.942446E-1	5.388158E-1	5.603069E-1	4.953081E-1	4.922315E-1	4.932425E-1	5.459084E-1	4.904377E-1	5.363134E-1	4.812137E-1	4.509738E-1	4.761800E-1	5.439579E-1	5.510727E-1	5.092893E-1	5.140321E-1	5.588417E-1	5.537998E-1	5.887064E-1	5.059934E-1	5.125573E-1	5.010435E-1	6.074840E-1	4.588318E-1	4.175710E-1	5.365881E-1	4.906014E-1	4.517118E-1	4.393702E-1	5.763450E-1	5.213890E-1	4.981820E-1	5.199397E-1	5.323235E-1	5.625102E-1	4.864397E-1	4.869421E-1	4.997530E-1	5.780564E-1	4.908114E-1	4.819922E-1	5.309260E-1	5.334773E-1	4.610008E-1	5.180453E-1	5.521528E-1	5.284063E-1	5.542623E-1	5.034193E-1	5.006311E-1
5.377630E+2	5.430431E-1	4.869916E-1	5.831054E-1	4.753627E-1	5.037093E-1	4.892712E-1	5.052508E-1	5.454696E-1	5.577990E-1	5.829361E-1	5.032104E-1	5.460165E-1	6.721450E-1	5.810334E-1	5.564567E-1	5.415356E-1	6.006457E-1	5.116195E-1	5.120450E-1	5.501696E-1	5.584324E-1	5.405343E-1	5.441893E-1	5.479090E-1	6.121104E-1	5.563964E-1	5.462075E-1	5.728566E-1	6.735173E-1	5.698204E-1	5.643437E-1	4.951423E-1	6.337872E-1	5.608309E-1	5.902996E-1	5.316464E-1	5.934190E-1	5.446744E-1	5.240187E-1	5.542988E-1	5.695078E-1	5.705606E-1	5.863859E-1	5.723619E-1	6.245480E-1	5.035759E-1	5.160919E-1	5.120802E-1	6.227084E-1	5.510886E-1	5.440434E-1	5.632060E-1	5.528803E-1	5.484569E-1	5.480300E-1	5.811084E-1	5.785829E-1	5.270609E-1	5.562175E-1	5.124145E-1	6.388087E-1	5.159736E-1	5.420136E-1	5.703023E-1	6.613636E-1	5.573511E-1	5.813584E-1	5.497563E-1	5.038002E-1	5.476607E-1	5.831297E-1	5.894209E-1	5.726944E-1	5.911733E-1	6.179360E-1	6.155698E-1	6.586887E-1	5.653224E-1	5.497958E-1	5.493131E-1	6.446644E-1	5.564135E-1	5.341308E-1	5.383066E-1	5.341022E-1	5.630503E-1	5.358909E-1	5.783517E-1	5.743376E-1	5.603992E-1	5.559760E-1	5.875810E-1	6.147704E-1	5.631045E-1	5.220674E-1	5.471404E-1	5.987331E-1	5.271550E-1	5.296171E-1	5.360511E-1	5.151867E-1	5.392175E-1	5.229835E-1	5.680234E-1	4.840765E-1	5.367568E-1	5.843362E-1	5.793995E-1	6.402895E-1	5.475144E-1	5.702249E-1	5.463222E-1	5.867198E-1	5.855456E-1	5.424315E-1	5.694453E-1	5.612748E-1	5.344287E-1	5.794177E-1	5.763567E-1	6.037199E-1	5.780577E-1	5.609615E-1	6.204583E-1	6.780032E-1	5.280308E-1	5.656966E-1	5.305773E-1	6.069408E-1	5.575092E-1	5.413091E-1	5.892028E-1	5.359245E-1	5.288431E-1	5.872050E-1	6.092783E-1	5.963111E-1	5.931035E-1	5.927662E-1	5.878012E-1	6.652524E-1	5.872260E-1	5.391179E-1	5.604893E-1	6.668355E-1	5.266858E-1	5.339482E-1	5.966611E-1	5.950878E-1	5.058907E-1	5.466806E-1	6.068835E-1	6.019019E-1	5.350408E-1	5.415889E-1	5.713943E-1	6.435362E-1	4.864399E-1	5.175237E-1	5.624287E-1	6.380322E-1	5.380483E-1	5.306979E-1	6.010990E-1	5.781376E-1	5.313784E-1	5.557752E-1	6.383852E-1	5.473849E-1	5.612601E-1	5.160867E-1	7.308370E-1
5.380160E+2	6.258932E-1	5.895674E-1	6.961414E-1	5.167703E-1	5.863102E-1	6.080570E-1	6.107047E-1	6.155755E-1	7.053402E-1	6.553585E-1	6.179635E-1	6.676680E-1	7.605434E-1	7.426970E-1	6.442225E-1	6.226547E-1	7.013663E-1	6.939632E-1	6.172309E-1	6.379892E-1	6.953377E-1	6.356243E-1	6.034201E-1	6.561713E-1	7.245921E-1	7.074857E-1	6.689613E-1	6.876734E-1	7.463454E-1	7.516695E-1	6.593035E-1	6.390018E-1	7.286193E-1	7.191702E-1	6.596165E-1	6.015869E-1	6.716250E-1	6.252632E-1	6.528986E-1	6.503139E-1	7.073927E-1	7.214783E-1	6.430295E-1	6.751625E-1	7.544377E-1	6.083314E-1	6.080860E-1	6.397392E-1	7.044211E-1	6.903411E-1	6.159674E-1	6.554274E-1	6.474546E-1	6.324917E-1	5.966242E-1	6.249658E-1	6.410729E-1	6.427877E-1	6.552361E-1	6.232428E-1	7.178242E-1	6.363254E-1	6.252919E-1	6.418285E-1	7.267404E-1	6.111180E-1	7.174875E-1	6.593640E-1	6.172429E-1	6.879480E-1	6.954039E-1	6.720233E-1	6.859496E-1	6.931599E-1	7.498826E-1	6.753936E-1	7.824431E-1	6.675276E-1	6.876179E-1	6.477559E-1	7.104438E-1	6.637142E-1	6.633743E-1	6.257810E-1	6.326632E-1	6.958394E-1	6.524307E-1	6.756477E-1	6.854650E-1	6.731474E-1	6.477939E-1	6.609809E-1	7.636177E-1	6.309214E-1	6.401171E-1	6.684065E-1	6.678584E-1	6.282609E-1	6.466191E-1	6.775946E-1	6.033545E-1	6.409818E-1	6.147968E-1	6.865504E-1	5.891585E-1	6.515345E-1	6.339625E-1	6.372204E-1	7.271617E-1	6.414086E-1	6.435255E-1	6.319864E-1	7.061208E-1	6.124460E-1	6.755003E-1	6.026175E-1	6.533628E-1	5.771969E-1	6.263538E-1	6.688955E-1	6.533263E-1	6.854001E-1	6.868619E-1	6.751008E-1	7.648037E-1	6.527576E-1	6.609285E-1	6.931478E-1	7.107576E-1	6.599124E-1	7.030533E-1	6.664273E-1	6.681834E-1	6.006972E-1	7.018840E-1	6.615135E-1	6.788533E-1	6.768609E-1	7.284667E-1	6.898048E-1	7.366608E-1	6.500394E-1	6.957147E-1	6.745472E-1	7.315208E-1	6.380685E-1	6.750482E-1	6.697937E-1	6.877256E-1	5.984864E-1	6.113423E-1	7.224898E-1	7.074479E-1	6.226554E-1	6.696764E-1	6.677690E-1	7.663660E-1	6.204838E-1	6.446297E-1	6.180288E-1	7.682074E-1	6.726415E-1	6.262603E-1	6.692289E-1	6.668555E-1	5.914341E-1	6.232173E-1	7.696094E-1	6.479657E-1	6.627230E-1	7.145491E-1	7.544471E-1
5.382580E+2	7.398128E-1	7.368554E-1	8.479703E-1	7.776397E-1	7.485796E-1	7.012498E-1	7.411728E-1	7.610021E-1	7.938645E-1	8.195524E-1	7.770274E-1	7.590576E-1	9.353861E-1	9.494863E-1	7.553297E-1	7.532938E-1	8.861282E-1	8.863135E-1	7.230107E-1	8.014307E-1	8.064564E-1	8.425582E-1	7.677523E-1	8.507652E-1	8.376476E-1	8.263649E-1	8.002407E-1	8.679308E-1	9.386289E-1	9.888449E-1	8.247028E-1	7.792653E-1	9.137420E-1	8.089329E-1	8.348801E-1	7.476571E-1	7.940730E-1	7.991649E-1	7.695454E-1	7.732129E-1	8.342950E-1	8.518410E-1	8.211354E-1	8.084445E-1	9.428954E-1	9.361769E-1	7.545626E-1	7.232277E-1	8.731385E-1	9.057098E-1	8.044967E-1	7.637717E-1	8.024249E-1	7.900013E-1	7.128283E-1	7.960114E-1	8.409109E-1	8.593637E-1	7.531958E-1	7.610445E-1	9.102974E-1	9.378700E-1	7.913962E-1	8.054577E-1	8.926948E-1	8.932642E-1	8.302286E-1	8.746408E-1	7.676671E-1	8.005243E-1	8.094966E-1	9.046272E-1	8.229829E-1	8.006586E-1	8.603221E-1	8.964796E-1	9.288291E-1	8.224698E-1	8.209652E-1	7.874079E-1	9.313655E-1	7.922385E-1	8.892540E-1	8.182267E-1	7.662136E-1	8.455293E-1	7.652416E-1	8.197215E-1	7.835940E-1	7.626308E-1	8.301369E-1	8.190726E-1	9.269738E-1	7.761071E-1	7.960599E-1	8.060738E-1	8.649664E-1	8.028444E-1	7.556983E-1	7.713277E-1	7.223531E-1	7.765192E-1	7.764969E-1	8.264920E-1	7.380753E-1	8.351792E-1	8.318691E-1	8.548618E-1	8.640353E-1	7.857888E-1	7.739374E-1	7.697295E-1	8.325825E-1	7.613364E-1	8.435863E-1	7.866316E-1	8.375379E-1	7.781593E-1	7.724260E-1	8.351602E-1	8.593847E-1	8.008657E-1	7.697198E-1	8.743859E-1	9.129049E-1	7.803296E-1	8.069514E-1	7.900289E-1	8.712034E-1	7.730952E-1	8.729159E-1	7.907403E-1	7.633082E-1	7.903734E-1	8.607821E-1	8.435915E-1	8.170630E-1	8.613611E-1	8.734793E-1	8.473870E-1	9.082475E-1	8.446195E-1	8.329446E-1	8.031042E-1	9.349142E-1	7.955417E-1	7.480100E-1	7.938573E-1	8.223732E-1	7.812165E-1	7.296594E-1	8.926281E-1	8.691500E-1	7.737137E-1	7.893460E-1	8.103768E-1	9.098387E-1	7.540413E-1	7.774698E-1	7.873557E-1	9.324591E-1	8.065873E-1	7.507987E-1	7.891381E-1	8.292031E-1	7.303130E-1	7.500856E-1	9.077061E-1	7.608821E-1	8.318289E-1	7.124393E-1	8.961119E-1
5.385110E+2	9.682607E-1	8.867731E-1	1.144940E+0	8.977227E-1	8.800574E-1	9.016401E-1	9.133320E-1	9.887019E-1	1.066664E+0	1.093209E+0	9.923308E-1	9.848082E-1	1.147834E+0	1.207097E+0	9.238586E-1	9.589218E-1	1.079871E+0	1.120358E+0	9.286285E-1	1.000244E+0	1.025411E+0	1.012361E+0	9.743927E-1	9.744274E-1	1.106226E+0	1.030745E+0	1.029267E+0	1.090426E+0	1.110485E+0	1.152554E+0	1.007491E+0	9.298693E-1	1.105111E+0	1.072089E+0	9.577337E-1	9.401481E-1	1.005454E+0	1.006575E+0	9.941038E-1	9.681233E-1	1.079558E+0	1.095798E+0	1.036030E+0	1.016436E+0	1.141743E+0	1.150053E+0	9.657926E-1	9.547609E-1	1.127685E+0	1.144091E+0	9.548839E-1	9.578878E-1	9.976590E-1	1.031546E+0	9.262214E-1	1.012378E+0	1.014711E+0	1.088615E+0	1.025893E+0	9.211300E-1	1.164562E+0	1.154591E+0	9.715331E-1	1.001420E+0	1.076880E+0	1.104607E+0	1.073102E+0	1.022315E+0	9.415793E-1	1.033470E+0	1.040409E+0	1.017129E+0	1.015079E+0	1.120950E+0	1.099803E+0	1.047989E+0	1.187893E+0	1.177624E+0	1.026805E+0	9.623168E-1	1.106365E+0	1.079944E+0	1.035097E+0	9.995920E-1	9.722064E-1	1.066685E+0	9.931929E-1	1.041911E+0	1.061088E+0	1.108036E+0	9.930814E-1	1.082559E+0	1.135467E+0	1.087971E+0	9.437444E-1	1.046121E+0	1.061391E+0	1.012697E+0	9.464353E-1	9.569080E-1	8.835430E-1	9.751585E-1	9.500751E-1	1.028686E+0	8.779845E-1	1.038910E+0	9.837372E-1	1.080300E+0	1.130210E+0	9.891477E-1	9.902418E-1	9.707472E-1	1.146490E+0	1.003441E+0	1.058363E+0	9.612572E-1	1.018575E+0	9.588879E-1	9.772775E-1	1.038032E+0	1.080070E+0	9.813164E-1	9.553429E-1	1.056314E+0	1.171345E+0	9.439450E-1	9.978693E-1	1.029159E+0	1.068771E+0	1.001258E+0	1.102105E+0	1.078920E+0	9.591521E-1	9.380981E-1	1.079935E+0	1.063975E+0	9.795882E-1	1.071047E+0	1.102973E+0	1.065125E+0	1.144562E+0	1.040617E+0	9.867752E-1	1.073750E+0	1.179653E+0	1.004225E+0	9.500120E-1	1.040680E+0	1.043195E+0	9.678867E-1	9.167652E-1	1.079671E+0	1.084302E+0	1.002719E+0	1.010644E+0	1.005730E+0	1.142596E+0	9.465768E-1	1.005878E+0	1.042104E+0	1.141011E+0	9.806521E-1	9.326751E-1	1.028955E+0	1.028969E+0	9.409765E-1	9.354344E-1	1.096418E+0	9.753295E-1	9.356233E-1	1.001689E+0	1.132220E+0
5.387600E+2	1.132743E+0	1.083376E+0	1.332887E+0	1.113044E+0	1.117109E+0	1.094304E+0	1.144349E+0	1.189170E+0	1.236487E+0	1.303287E+0	1.179231E+0	1.267451E+0	1.419378E+0	1.439730E+0	1.118062E+0	1.128707E+0	1.355730E+0	1.328273E+0	1.081950E+0	1.191739E+0	1.191386E+0	1.185335E+0	1.140062E+0	1.176953E+0	1.227316E+0	1.294270E+0	1.163956E+0	1.273657E+0	1.387144E+0	1.418297E+0	1.223712E+0	1.146106E+0	1.354969E+0	1.384307E+0	1.194426E+0	1.154303E+0	1.254816E+0	1.243250E+0	1.226084E+0	1.237446E+0	1.280894E+0	1.322448E+0	1.223479E+0	1.207095E+0	1.411914E+0	1.352291E+0	1.181937E+0	1.129502E+0	1.322267E+0	1.371259E+0	1.179376E+0	1.188764E+0	1.155906E+0	1.219853E+0	1.156093E+0	1.199017E+0	1.264672E+0	1.266064E+0	1.224990E+0	1.107603E+0	1.405662E+0	1.400179E+0	1.167053E+0	1.215509E+0	1.291869E+0	1.386751E+0	1.247611E+0	1.263189E+0	1.141976E+0	1.213158E+0	1.246777E+0	1.324228E+0	1.342957E+0	1.311692E+0	1.370091E+0	1.274927E+0	1.402180E+0	1.401634E+0	1.307818E+0	1.218727E+0	1.363279E+0	1.360574E+0	1.325600E+0	1.192036E+0	1.168833E+0	1.345301E+0	1.193645E+0	1.250538E+0	1.248899E+0	1.316832E+0	1.195468E+0	1.309657E+0	1.382112E+0	1.401744E+0	1.137579E+0	1.213606E+0	1.253709E+0	1.306608E+0	1.182875E+0	1.175829E+0	1.097202E+0	1.175132E+0	1.193082E+0	1.262752E+0	1.087548E+0	1.291993E+0	1.213333E+0	1.283648E+0	1.315570E+0	1.388788E+0	1.241624E+0	1.191720E+0	1.391069E+0	1.305602E+0	1.227033E+0	1.197220E+0	1.192808E+0	1.179624E+0	1.142652E+0	1.301920E+0	1.316656E+0	1.288257E+0	1.206069E+0	1.242742E+0	1.446461E+0	1.260266E+0	1.177901E+0	1.175662E+0	1.341843E+0	1.251576E+0	1.290702E+0	1.269783E+0	1.169240E+0	1.196060E+0	1.292771E+0	1.351521E+0	1.202901E+0	1.348675E+0	1.307188E+0	1.268479E+0	1.338241E+0	1.224334E+0	1.184320E+0	1.231788E+0	1.313692E+0	1.224431E+0	1.159250E+0	1.243754E+0	1.251631E+0	1.131409E+0	1.078649E+0	1.292888E+0	1.328546E+0	1.157404E+0	1.244570E+0	1.211503E+0	1.382061E+0	1.153249E+0	1.180290E+0	1.210927E+0	1.379552E+0	1.150188E+0	1.166956E+0	1.241521E+0	1.278224E+0	1.115984E+0	1.118898E+0	1.295753E+0	1.144229E+0	1.081404E+0	1.242378E+0	1.279788E+0
5.390130E+2	1.361191E+0	1.296417E+0	1.527522E+0	1.237266E+0	1.284752E+0	1.320288E+0	1.318470E+0	1.424401E+0	1.562882E+0	1.523873E+0	1.367266E+0	1.464151E+0	1.615709E+0	1.646959E+0	1.390695E+0	1.373949E+0	1.559097E+0	1.590113E+0	1.345804E+0	1.461905E+0	1.401434E+0	1.463360E+0	1.364961E+0	1.414478E+0	1.637645E+0	1.510951E+0	1.398666E+0	1.506864E+0	1.676235E+0	1.621460E+0	1.442611E+0	1.397862E+0	1.645715E+0	1.557143E+0	1.415898E+0	1.331939E+0	1.484072E+0	1.432000E+0	1.411761E+0	1.361784E+0	1.526157E+0	1.504196E+0	1.415600E+0	1.425247E+0	1.662718E+0	1.627272E+0	1.390486E+0	1.332886E+0	1.606795E+0	1.643276E+0	1.344474E+0	1.471231E+0	1.382511E+0	1.398042E+0	1.391459E+0	1.422207E+0	1.458002E+0	1.485946E+0	1.412965E+0	1.360923E+0	1.610798E+0	1.630224E+0	1.402860E+0	1.369832E+0	1.559030E+0	1.575738E+0	1.492282E+0	1.517187E+0	1.318887E+0	1.493300E+0	1.521325E+0	1.468653E+0	1.519412E+0	1.512357E+0	1.534587E+0	1.542834E+0	1.626090E+0	1.695654E+0	1.448327E+0	1.342811E+0	1.595370E+0	1.583429E+0	1.407415E+0	1.400812E+0	1.361029E+0	1.561144E+0	1.362859E+0	1.521845E+0	1.440610E+0	1.536363E+0	1.364880E+0	1.543032E+0	1.618547E+0	1.633373E+0	1.356192E+0	1.407435E+0	1.520625E+0	1.503531E+0	1.460145E+0	1.412995E+0	1.303824E+0	1.361330E+0	1.345646E+0	1.478893E+0	1.254479E+0	1.475068E+0	1.414825E+0	1.501291E+0	1.504462E+0	1.638387E+0	1.436792E+0	1.410262E+0	1.487361E+0	1.533318E+0	1.435973E+0	1.386866E+0	1.415181E+0	1.306090E+0	1.329518E+0	1.463606E+0	1.468655E+0	1.510486E+0	1.412677E+0	1.474813E+0	1.574456E+0	1.674757E+0	1.389680E+0	1.410064E+0	1.495997E+0	1.561185E+0	1.522390E+0	1.426745E+0	1.414938E+0	1.409835E+0	1.488600E+0	1.553000E+0	1.442847E+0	1.571247E+0	1.491448E+0	1.546373E+0	1.578668E+0	1.643721E+0	1.380758E+0	1.469088E+0	1.605779E+0	1.548337E+0	1.297938E+0	1.466416E+0	1.447135E+0	1.378660E+0	1.268504E+0	1.579178E+0	1.518666E+0	1.374926E+0	1.366646E+0	1.377553E+0	1.663849E+0	1.478368E+0	1.344190E+0	1.406031E+0	1.593556E+0	1.372137E+0	1.276699E+0	1.484065E+0	1.454451E+0	1.357143E+0	1.336318E+0	1.581947E+0	1.350137E+0	1.307654E+0	1.375393E+0	1.580827E+0
5.392880E+2	1.649947E+0	1.555485E+0	1.885358E+0	1.427743E+0	1.548685E+0	1.591656E+0	1.628944E+0	1.677014E+0	1.845919E+0	1.841757E+0	1.721182E+0	1.734691E+0	1.982975E+0	1.982116E+0	1.647458E+0	1.631454E+0	1.911296E+0	1.899206E+0	1.572817E+0	1.670475E+0	1.747449E+0	1.740932E+0	1.665567E+0	1.696336E+0	1.890730E+0	1.810784E+0	1.774317E+0	1.861427E+0	1.979978E+0	2.033229E+0	1.712776E+0	1.609605E+0	1.962013E+0	1.956896E+0	1.704998E+0	1.678546E+0	1.762039E+0	1.725509E+0	1.644619E+0	1.684393E+0	1.837314E+0	1.842816E+0	1.745536E+0	1.733645E+0	1.939975E+0	1.956089E+0	1.643693E+0	1.675090E+0	1.910720E+0	1.926499E+0	1.699738E+0	1.635681E+0	1.626438E+0	1.660704E+0	1.654291E+0	1.678532E+0	1.707309E+0	1.790695E+0	1.703665E+0	1.592552E+0	2.001317E+0	2.005935E+0	1.688452E+0	1.665736E+0	1.900994E+0	1.874386E+0	1.787332E+0	1.736406E+0	1.677706E+0	1.810679E+0	1.804056E+0	1.728115E+0	1.841033E+0	1.832098E+0	1.912989E+0	1.833497E+0	1.981464E+0	1.949532E+0	1.794225E+0	1.750778E+0	1.888280E+0	1.868782E+0	1.783879E+0	1.680148E+0	1.638480E+0	1.844588E+0	1.670991E+0	1.750119E+0	1.746697E+0	1.863275E+0	1.734737E+0	1.832240E+0	1.967829E+0	1.982967E+0	1.636499E+0	1.700660E+0	1.809448E+0	1.819779E+0	1.661243E+0	1.682239E+0	1.543989E+0	1.636849E+0	1.616973E+0	1.772219E+0	1.536699E+0	1.740204E+0	1.679104E+0	1.775455E+0	1.876197E+0	1.995090E+0	1.655796E+0	1.640482E+0	1.869954E+0	1.852367E+0	1.747051E+0	1.665391E+0	1.694060E+0	1.633054E+0	1.590517E+0	1.778338E+0	1.833074E+0	1.842958E+0	1.616052E+0	1.846383E+0	1.996691E+0	1.969262E+0	1.654062E+0	1.662902E+0	1.859673E+0	1.855221E+0	1.795292E+0	1.743803E+0	1.615359E+0	1.713763E+0	1.815631E+0	1.818158E+0	1.659123E+0	1.838334E+0	1.850654E+0	1.757572E+0	1.998899E+0	1.966762E+0	1.699485E+0	1.785164E+0	1.935213E+0	1.790950E+0	1.578326E+0	1.733480E+0	1.735282E+0	1.606701E+0	1.528986E+0	1.871466E+0	1.807563E+0	1.742303E+0	1.687163E+0	1.639330E+0	1.868734E+0	1.872700E+0	1.619905E+0	1.693127E+0	1.960229E+0	1.838683E+0	1.587430E+0	1.787245E+0	1.704308E+0	1.685104E+0	1.566471E+0	1.841267E+0	1.584509E+0	1.708842E+0	1.641418E+0	1.740197E+0
5.395160E+2	1.834535E+0	1.690279E+0	2.104739E+0	1.614078E+0	1.771563E+0	1.703683E+0	1.813855E+0	1.901817E+0	1.998278E+0	2.042990E+0	1.893312E+0	1.896285E+0	2.147076E+0	2.226581E+0	1.723549E+0	1.826710E+0	1.961979E+0	2.032631E+0	1.710093E+0	1.851603E+0	1.885761E+0	1.873606E+0	1.792044E+0	1.857331E+0	2.023296E+0	2.023948E+0	1.850472E+0	1.953638E+0	2.204681E+0	2.194672E+0	1.879069E+0	1.737731E+0	2.065930E+0	2.096278E+0	1.818838E+0	1.792429E+0	1.876887E+0	1.843427E+0	1.807135E+0	1.870183E+0	2.002652E+0	2.017531E+0	1.893856E+0	1.916536E+0	2.140241E+0	2.125346E+0	1.785258E+0	1.738192E+0	2.045931E+0	2.089356E+0	1.792368E+0	1.853013E+0	1.838992E+0	1.869250E+0	1.852472E+0	1.825697E+0	1.886317E+0	1.997346E+0	1.884228E+0	1.745597E+0	2.094513E+0	2.126729E+0	1.808845E+0	1.787231E+0	2.067582E+0	2.093179E+0	1.950444E+0	1.921490E+0	1.774661E+0	1.969152E+0	1.972694E+0	1.964268E+0	2.034380E+0	1.933534E+0	2.086204E+0	1.971349E+0	2.112440E+0	2.153945E+0	1.948153E+0	1.863874E+0	2.014252E+0	2.021473E+0	1.951661E+0	1.845769E+0	1.727185E+0	1.983171E+0	1.816899E+0	1.912901E+0	1.877970E+0	2.011220E+0	1.878929E+0	1.975276E+0	2.070465E+0	2.101408E+0	1.789044E+0	1.825405E+0	1.931954E+0	2.006704E+0	1.809933E+0	1.791069E+0	1.711127E+0	1.786604E+0	1.774108E+0	1.949512E+0	1.665200E+0	1.948522E+0	1.860864E+0	1.898889E+0	2.042867E+0	2.208360E+0	1.820383E+0	1.758755E+0	2.019527E+0	2.007515E+0	1.894125E+0	1.804965E+0	1.831670E+0	1.730548E+0	1.747996E+0	2.026973E+0	1.953276E+0	1.956682E+0	1.824276E+0	1.994882E+0	2.201679E+0	2.156112E+0	1.843621E+0	1.881241E+0	1.978589E+0	2.035476E+0	1.942672E+0	1.898255E+0	1.764404E+0	1.902994E+0	1.867138E+0	1.976358E+0	1.808850E+0	2.015218E+0	2.027597E+0	1.962232E+0	2.066711E+0	2.111278E+0	1.818455E+0	1.875056E+0	2.119930E+0	1.956745E+0	1.651895E+0	1.910435E+0	1.790219E+0	1.718014E+0	1.717008E+0	2.018157E+0	1.993622E+0	1.904237E+0	1.771958E+0	1.831425E+0	2.087042E+0	2.044279E+0	1.766601E+0	1.791187E+0	2.073359E+0	1.988158E+0	1.750808E+0	1.936447E+0	1.844932E+0	1.770496E+0	1.665986E+0	2.060601E+0	1.775234E+0	1.847624E+0	1.814545E+0	1.870057E+0
5.397650E+2	1.962468E+0	1.823101E+0	2.255230E+0	1.808695E+0	1.867848E+0	1.831158E+0	1.859960E+0	1.926731E+0	2.193393E+0	2.134206E+0	2.012043E+0	1.936837E+0	2.324363E+0	2.268641E+0	1.934095E+0	1.889908E+0	2.167913E+0	2.222199E+0	1.865790E+0	1.946132E+0	1.984223E+0	2.030278E+0	1.909172E+0	1.990793E+0	2.207514E+0	2.189095E+0	2.077224E+0	2.090464E+0	2.297940E+0	2.375160E+0	2.036444E+0	1.868105E+0	2.306135E+0	2.299777E+0	1.991844E+0	1.901985E+0	2.039557E+0	1.973215E+0	1.878788E+0	1.960437E+0	2.077081E+0	2.147898E+0	2.068459E+0	1.969132E+0	2.234705E+0	2.257257E+0	1.922357E+0	1.793040E+0	2.170557E+0	2.271090E+0	1.926411E+0	1.940078E+0	1.974301E+0	1.980122E+0	1.902337E+0	1.983098E+0	2.021713E+0	2.045846E+0	1.917588E+0	1.803065E+0	2.251023E+0	2.314141E+0	1.916110E+0	1.935672E+0	2.163761E+0	2.207637E+0	2.087177E+0	2.099357E+0	1.927583E+0	2.054018E+0	2.044515E+0	2.074740E+0	2.106967E+0	2.092849E+0	2.183860E+0	2.051980E+0	2.245346E+0	2.291618E+0	2.039883E+0	1.954993E+0	2.237034E+0	2.299747E+0	2.009760E+0	1.907001E+0	1.895232E+0	2.136728E+0	1.954415E+0	1.982598E+0	2.070329E+0	2.102495E+0	1.893799E+0	2.034246E+0	2.240266E+0	2.260442E+0	1.875027E+0	1.939710E+0	2.136593E+0	2.086064E+0	1.914745E+0	1.976025E+0	1.843650E+0	1.882148E+0	1.840338E+0	2.007780E+0	1.759475E+0	2.069616E+0	1.987620E+0	1.995041E+0	2.169140E+0	2.259316E+0	1.970131E+0	1.869733E+0	2.128656E+0	2.133887E+0	2.034781E+0	1.943912E+0	1.976601E+0	1.870808E+0	1.867309E+0	2.035619E+0	2.075381E+0	2.081431E+0	1.905517E+0	2.004527E+0	2.312016E+0	2.251910E+0	1.950190E+0	1.923773E+0	2.111352E+0	2.163032E+0	2.044468E+0	2.031360E+0	1.883435E+0	1.944946E+0	2.031378E+0	2.049489E+0	1.950900E+0	2.109519E+0	2.062188E+0	2.161664E+0	2.168430E+0	2.229823E+0	1.939086E+0	1.985250E+0	2.195949E+0	2.125097E+0	1.895503E+0	2.058004E+0	1.925408E+0	1.882523E+0	1.800017E+0	2.157210E+0	2.080220E+0	2.023880E+0	1.915078E+0	1.927145E+0	2.227417E+0	2.167112E+0	1.848788E+0	1.896324E+0	2.134019E+0	2.061284E+0	1.737861E+0	1.994357E+0	1.990984E+0	1.900460E+0	1.753708E+0	2.088719E+0	1.834064E+0	1.944422E+0	1.930668E+0	2.058947E+0
5.400190E+2	1.955157E+0	1.787596E+0	2.164939E+0	1.783850E+0	1.796975E+0	1.894901E+0	1.847210E+0	1.891969E+0	2.158465E+0	2.155770E+0	2.015451E+0	2.065749E+0	2.316058E+0	2.359769E+0	1.932227E+0	1.910185E+0	2.148026E+0	2.243885E+0	1.956716E+0	2.001020E+0	2.026418E+0	1.994959E+0	1.911842E+0	1.996392E+0	2.167914E+0	2.136387E+0	2.035170E+0	2.139248E+0	2.324136E+0	2.349312E+0	1.973583E+0	1.913510E+0	2.240260E+0	2.187712E+0	1.876881E+0	1.888368E+0	2.008271E+0	1.957945E+0	1.874416E+0	1.985401E+0	2.048407E+0	2.111112E+0	2.023494E+0	1.967938E+0	2.288551E+0	2.332432E+0	1.888864E+0	1.860023E+0	2.178197E+0	2.200284E+0	1.937304E+0	2.001989E+0	1.963998E+0	1.984960E+0	1.880785E+0	1.989435E+0	2.077695E+0	2.092137E+0	1.940887E+0	1.908028E+0	2.242417E+0	2.303037E+0	1.866324E+0	1.950862E+0	2.197699E+0	2.303462E+0	2.001418E+0	2.094104E+0	1.893600E+0	2.079995E+0	2.096789E+0	2.034706E+0	2.084437E+0	2.128132E+0	2.226872E+0	2.098800E+0	2.304575E+0	2.246350E+0	2.100743E+0	1.922484E+0	2.220279E+0	2.223693E+0	2.012130E+0	1.894174E+0	1.894246E+0	2.052705E+0	1.881230E+0	2.015345E+0	2.003396E+0	2.171101E+0	1.941654E+0	2.088197E+0	2.207491E+0	2.285278E+0	1.902716E+0	1.954124E+0	2.148227E+0	2.114279E+0	1.927541E+0	1.984833E+0	1.839323E+0	1.872371E+0	1.880992E+0	1.993835E+0	1.751668E+0	2.075353E+0	1.985228E+0	2.017136E+0	2.174691E+0	2.286209E+0	1.945398E+0	1.906723E+0	2.101050E+0	2.135759E+0	2.007353E+0	1.828752E+0	1.973465E+0	1.846898E+0	1.864679E+0	2.007144E+0	2.131348E+0	2.063445E+0	1.849561E+0	2.018669E+0	2.305152E+0	2.230571E+0	1.966060E+0	1.924716E+0	2.100654E+0	2.186986E+0	2.040095E+0	2.039520E+0	1.890561E+0	1.923077E+0	1.980843E+0	2.126102E+0	2.003371E+0	2.106009E+0	2.121389E+0	2.093008E+0	2.190008E+0	2.232180E+0	1.956238E+0	2.003130E+0	2.241299E+0	2.210234E+0	1.936504E+0	2.001196E+0	1.994343E+0	1.846074E+0	1.800013E+0	2.125038E+0	2.049777E+0	1.951366E+0	1.987240E+0	1.924544E+0	2.224837E+0	2.244125E+0	1.844010E+0	1.923615E+0	2.262832E+0	2.133103E+0	1.812462E+0	2.027058E+0	1.942096E+0	1.861049E+0	1.807002E+0	2.174949E+0	1.821729E+0	1.981742E+0	1.884218E+0	1.911380E+0
5.402690E+2	1.879007E+0	1.773786E+0	2.182327E+0	1.771428E+0	1.811150E+0	1.779492E+0	1.840341E+0	1.926152E+0	2.149433E+0	2.077269E+0	2.082483E+0	1.974361E+0	2.263310E+0	2.294486E+0	2.214201E+0	1.880473E+0	2.130700E+0	2.208861E+0	2.041103E+0	1.887585E+0	1.990316E+0	1.965979E+0	1.971967E+0	1.956728E+0	2.184558E+0	2.083096E+0	2.039146E+0	2.033353E+0	2.321472E+0	2.330719E+0	2.179999E+0	1.825847E+0	2.128963E+0	2.160394E+0	2.081450E+0	1.918076E+0	1.980567E+0	1.948191E+0	1.869611E+0	1.919151E+0	2.044746E+0	2.135453E+0	2.085393E+0	1.899203E+0	2.225260E+0	2.266961E+0	2.008990E+0	1.798378E+0	2.090018E+0	2.100563E+0	1.964552E+0	1.883974E+0	1.872705E+0	1.968245E+0	1.870220E+0	1.907568E+0	1.932532E+0	1.966491E+0	1.974248E+0	1.925038E+0	2.195309E+0	2.220433E+0	1.817894E+0	1.852881E+0	2.129183E+0	2.142160E+0	2.001419E+0	2.035034E+0	1.858617E+0	2.041460E+0	2.082241E+0	1.986059E+0	2.038138E+0	2.088989E+0	2.164095E+0	2.099448E+0	2.203451E+0	2.255216E+0	2.099846E+0	1.907832E+0	2.050244E+0	2.192447E+0	2.020428E+0	1.939659E+0	1.866647E+0	2.050774E+0	1.883093E+0	1.986806E+0	1.985197E+0	2.103091E+0	1.891865E+0	2.032364E+0	2.190831E+0	2.208388E+0	1.838108E+0	1.953628E+0	2.077048E+0	2.026106E+0	1.890369E+0	1.942684E+0	1.794969E+0	1.832376E+0	1.852675E+0	2.027698E+0	1.684415E+0	2.031738E+0	2.005554E+0	1.995696E+0	2.157014E+0	2.239030E+0	1.845566E+0	1.791856E+0	2.181298E+0	2.133887E+0	1.917468E+0	1.934531E+0	1.909108E+0	1.852874E+0	1.837481E+0	1.969519E+0	2.074110E+0	1.965386E+0	1.896908E+0	2.008380E+0	2.268370E+0	2.280840E+0	1.815960E+0	1.918573E+0	2.176158E+0	2.136681E+0	2.003250E+0	1.957898E+0	1.813240E+0	1.944945E+0	1.992507E+0	2.082817E+0	1.938104E+0	2.145837E+0	2.029591E+0	2.019119E+0	2.202849E+0	2.240683E+0	1.874344E+0	1.956250E+0	2.201282E+0	2.023958E+0	1.871984E+0	1.993363E+0	1.965260E+0	1.803716E+0	1.747277E+0	2.044327E+0	2.089695E+0	1.927805E+0	1.927107E+0	1.873102E+0	2.135037E+0	2.164674E+0	1.815339E+0	1.922602E+0	2.163327E+0	2.055453E+0	1.718131E+0	2.056354E+0	1.936666E+0	1.801933E+0	1.715504E+0	2.132457E+0	1.861582E+0	1.952586E+0	1.886329E+0	1.994015E+0
5.405290E+2	1.918603E+0	1.676473E+0	2.122797E+0	1.605796E+0	1.750058E+0	1.759209E+0	1.756960E+0	1.851411E+0	2.005507E+0	2.052391E+0	2.022268E+0	1.863602E+0	2.140725E+0	2.192847E+0	2.162848E+0	1.803126E+0	2.091566E+0	2.006503E+0	2.039323E+0	1.886976E+0	1.857630E+0	1.927491E+0	1.865527E+0	1.864330E+0	2.060600E+0	2.048542E+0	1.920942E+0	1.969696E+0	2.218447E+0	2.204649E+0	2.130958E+0	1.788531E+0	2.172688E+0	2.025472E+0	2.093283E+0	1.783768E+0	1.856774E+0	1.843427E+0	1.898881E+0	1.826974E+0	2.045969E+0	1.997518E+0	2.091818E+0	1.881274E+0	2.197867E+0	2.146196E+0	2.171991E+0	1.822161E+0	2.003016E+0	2.120038E+0	1.946567E+0	1.889776E+0	1.870830E+0	1.857372E+0	1.834302E+0	1.850553E+0	1.909753E+0	2.000106E+0	1.918115E+0	1.753811E+0	2.123381E+0	2.168474E+0	2.125665E+0	1.845531E+0	2.054383E+0	2.098503E+0	2.102168E+0	1.999596E+0	1.779656E+0	1.941872E+0	2.019971E+0	1.928793E+0	1.944279E+0	2.033861E+0	2.109458E+0	1.952491E+0	2.168781E+0	2.212748E+0	1.979923E+0	1.878986E+0	1.995012E+0	2.142335E+0	2.009759E+0	1.904669E+0	1.801599E+0	2.053670E+0	1.788464E+0	1.911497E+0	1.822731E+0	2.069683E+0	1.867294E+0	1.985945E+0	2.075834E+0	2.154897E+0	1.725400E+0	1.862681E+0	1.972334E+0	2.059022E+0	1.828821E+0	1.850205E+0	1.764678E+0	1.835488E+0	1.796030E+0	1.917141E+0	1.708434E+0	1.953690E+0	1.853089E+0	1.980101E+0	2.065089E+0	2.197976E+0	1.805092E+0	1.798669E+0	2.110682E+0	1.979989E+0	1.920386E+0	1.769916E+0	1.834284E+0	1.835397E+0	1.719044E+0	1.944607E+0	1.908757E+0	1.953200E+0	1.835573E+0	1.951168E+0	2.145770E+0	2.177930E+0	1.823213E+0	1.840594E+0	2.030813E+0	2.077989E+0	1.966401E+0	1.929018E+0	1.742021E+0	1.819093E+0	1.901151E+0	1.970887E+0	1.844043E+0	2.025179E+0	1.973050E+0	2.013889E+0	2.075444E+0	2.086720E+0	1.843353E+0	1.887142E+0	2.129930E+0	2.015636E+0	1.746564E+0	1.875825E+0	1.868854E+0	1.817016E+0	1.697747E+0	1.999617E+0	1.974676E+0	1.900009E+0	1.766542E+0	1.819053E+0	2.105620E+0	2.141278E+0	1.733153E+0	1.879135E+0	2.065182E+0	2.021160E+0	1.716283E+0	1.917369E+0	1.884159E+0	1.781291E+0	1.685321E+0	2.069343E+0	1.807496E+0	1.750826E+0	1.789209E+0	1.881863E+0
5.407580E+2	1.868043E+0	1.859267E+0	1.968961E+0	1.601657E+0	1.659637E+0	1.707543E+0	1.738322E+0	1.761607E+0	2.001889E+0	2.026958E+0	1.954096E+0	1.904760E+0	2.175404E+0	2.202924E+0	2.133903E+0	1.782377E+0	2.022279E+0	2.005391E+0	2.001286E+0	1.862582E+0	1.841687E+0	1.850515E+0	1.801843E+0	1.851730E+0	2.054285E+0	1.989982E+0	1.962996E+0	1.939952E+0	2.154501E+0	2.201927E+0	2.066313E+0	1.751217E+0	2.140318E+0	2.009860E+0	1.975504E+0	1.830190E+0	1.892082E+0	1.812461E+0	1.790099E+0	1.798172E+0	1.945302E+0	1.987242E+0	2.024661E+0	1.834655E+0	2.180388E+0	2.124371E+0	2.148326E+0	1.770224E+0	2.030057E+0	2.047457E+0	2.045736E+0	1.856238E+0	1.788428E+0	1.845931E+0	1.801344E+0	1.853474E+0	1.925374E+0	1.899260E+0	1.901174E+0	1.726831E+0	2.079319E+0	2.150266E+0	2.101673E+0	1.811236E+0	2.050606E+0	2.052723E+0	2.201111E+0	1.973343E+0	1.725183E+0	1.899439E+0	1.967695E+0	1.945519E+0	1.979319E+0	1.967709E+0	2.085045E+0	2.036374E+0	2.122556E+0	2.110074E+0	2.090900E+0	1.791074E+0	2.030389E+0	2.040932E+0	2.029323E+0	1.842268E+0	1.749855E+0	1.962892E+0	1.811304E+0	1.828238E+0	1.865623E+0	1.999887E+0	1.975922E+0	1.944535E+0	2.110767E+0	2.148211E+0	2.050404E+0	1.852242E+0	1.882676E+0	1.974967E+0	1.974464E+0	1.791073E+0	1.695983E+0	1.723947E+0	1.777761E+0	1.990847E+0	1.645387E+0	1.928442E+0	1.851897E+0	1.958012E+0	2.061552E+0	2.059730E+0	1.922465E+0	1.767033E+0	1.977805E+0	1.874266E+0	1.983420E+0	1.744882E+0	1.874574E+0	1.739745E+0	1.767737E+0	1.906470E+0	1.948819E+0	1.924770E+0	1.823198E+0	1.881096E+0	2.110952E+0	2.076440E+0	1.738409E+0	1.800425E+0	2.013198E+0	1.989963E+0	1.866484E+0	1.803450E+0	1.729813E+0	1.803470E+0	1.925936E+0	1.952973E+0	1.900991E+0	1.944348E+0	1.909191E+0	1.926923E+0	2.051301E+0	2.075385E+0	1.869365E+0	1.868292E+0	2.028567E+0	2.003474E+0	1.742944E+0	1.858195E+0	1.840307E+0	1.781552E+0	1.668401E+0	2.051421E+0	1.914463E+0	1.842610E+0	1.735875E+0	1.768911E+0	2.079817E+0	2.020881E+0	1.716426E+0	1.840215E+0	2.080180E+0	1.878152E+0	1.676207E+0	1.813131E+0	1.891401E+0	1.800055E+0	1.687206E+0	1.995613E+0	1.692681E+0	1.845292E+0	1.825101E+0	2.123876E+0
5.410400E+2	1.668226E+0	1.781676E+0	1.916796E+0	1.547826E+0	1.616624E+0	1.694025E+0	1.618646E+0	1.640514E+0	1.883859E+0	1.848392E+0	1.784238E+0	1.794003E+0	2.021562E+0	2.048271E+0	2.023731E+0	1.732855E+0	1.898469E+0	1.902544E+0	1.811714E+0	1.751585E+0	1.778391E+0	1.721462E+0	1.723018E+0	1.752333E+0	1.960742E+0	1.860560E+0	1.824896E+0	1.905449E+0	1.969325E+0	2.045020E+0	1.944605E+0	1.662203E+0	1.974506E+0	1.959683E+0	1.856033E+0	1.709496E+0	1.766059E+0	1.707697E+0	1.716267E+0	1.731920E+0	1.895881E+0	1.909888E+0	1.909623E+0	1.745005E+0	2.109067E+0	2.015740E+0	2.027750E+0	1.629947E+0	1.936585E+0	1.943021E+0	1.887175E+0	1.685339E+0	1.695257E+0	1.714381E+0	1.686829E+0	1.760399E+0	1.775660E+0	1.844699E+0	1.804272E+0	1.637115E+0	1.930911E+0	2.046348E+0	2.036500E+0	1.658387E+0	1.912315E+0	1.945719E+0	2.019408E+0	1.829605E+0	1.676709E+0	1.777336E+0	1.820877E+0	1.781832E+0	1.799737E+0	1.850288E+0	1.990294E+0	1.845850E+0	1.991095E+0	1.985002E+0	2.050179E+0	1.670650E+0	1.859112E+0	1.951317E+0	1.871622E+0	1.656239E+0	1.695153E+0	1.879837E+0	1.699427E+0	1.741697E+0	1.784388E+0	1.926509E+0	1.861476E+0	1.886818E+0	1.923764E+0	2.004461E+0	1.955669E+0	1.771234E+0	1.867619E+0	1.835654E+0	1.913524E+0	1.714324E+0	1.604571E+0	1.671066E+0	1.647121E+0	1.836464E+0	1.566122E+0	1.841785E+0	1.860865E+0	1.845618E+0	1.869628E+0	1.972915E+0	2.025893E+0	1.663844E+0	1.927088E+0	1.842360E+0	1.919225E+0	1.702947E+0	1.687781E+0	1.667086E+0	1.674302E+0	1.829695E+0	1.878862E+0	1.831932E+0	1.761324E+0	1.802666E+0	1.992278E+0	2.018586E+0	1.943842E+0	1.684166E+0	1.880439E+0	1.836654E+0	1.980142E+0	1.749456E+0	1.657579E+0	1.714209E+0	1.838955E+0	1.787313E+0	1.781976E+0	1.817833E+0	1.945778E+0	1.861539E+0	1.957801E+0	2.035712E+0	1.918055E+0	1.772594E+0	1.972554E+0	1.844720E+0	1.735711E+0	1.739357E+0	1.762750E+0	1.660388E+0	1.626208E+0	1.858925E+0	1.854247E+0	1.774934E+0	1.756923E+0	1.705098E+0	2.006017E+0	1.951664E+0	1.672942E+0	1.697171E+0	1.942508E+0	1.852268E+0	1.671278E+0	1.860820E+0	1.728449E+0	1.582354E+0	1.622591E+0	1.841269E+0	1.664215E+0	1.755491E+0	1.668865E+0	1.834641E+0
5.412580E+2	1.631065E+0	1.692254E+0	1.822486E+0	1.365631E+0	1.481725E+0	1.567512E+0	1.554881E+0	1.589524E+0	1.741737E+0	1.788684E+0	1.762088E+0	1.656011E+0	1.854532E+0	1.912019E+0	1.884146E+0	1.594667E+0	1.790688E+0	1.779686E+0	1.744563E+0	1.649131E+0	1.639145E+0	1.706972E+0	1.607228E+0	1.616542E+0	1.784561E+0	1.772137E+0	1.701577E+0	1.748991E+0	1.856529E+0	1.947973E+0	1.891553E+0	1.586679E+0	1.885920E+0	1.814726E+0	1.771495E+0	1.579518E+0	1.641824E+0	1.624137E+0	1.652484E+0	1.621026E+0	1.723834E+0	1.730842E+0	1.760130E+0	1.649377E+0	1.876679E+0	1.892555E+0	1.841523E+0	1.589661E+0	1.825480E+0	1.809671E+0	1.813618E+0	1.581512E+0	1.571657E+0	1.641786E+0	1.624714E+0	1.634186E+0	1.683878E+0	1.725665E+0	1.672956E+0	1.587859E+0	1.886339E+0	1.874923E+0	1.883973E+0	1.596169E+0	1.746985E+0	1.847237E+0	1.911464E+0	1.737062E+0	1.592253E+0	1.639215E+0	1.744511E+0	1.628792E+0	1.680223E+0	1.749407E+0	1.853700E+0	1.782779E+0	1.913085E+0	1.872530E+0	1.916831E+0	1.596935E+0	1.819392E+0	1.796265E+0	1.774393E+0	1.653905E+0	1.595606E+0	1.704557E+0	1.604330E+0	1.682288E+0	1.693407E+0	1.820921E+0	1.727627E+0	1.716182E+0	1.844241E+0	1.818202E+0	1.848793E+0	1.656424E+0	1.752640E+0	1.726311E+0	1.744118E+0	1.686644E+0	1.510996E+0	1.546637E+0	1.555310E+0	1.624312E+0	1.503072E+0	1.727003E+0	1.714978E+0	1.713738E+0	1.826196E+0	1.847877E+0	1.929211E+0	1.620041E+0	1.841710E+0	1.746019E+0	1.804247E+0	1.593412E+0	1.665804E+0	1.559017E+0	1.567706E+0	1.721904E+0	1.714780E+0	1.696157E+0	1.691917E+0	1.731955E+0	1.904001E+0	1.875360E+0	1.844528E+0	1.669519E+0	1.777246E+0	1.801922E+0	1.857742E+0	1.648376E+0	1.552282E+0	1.585232E+0	1.744685E+0	1.728114E+0	1.703912E+0	1.737589E+0	1.789458E+0	1.706571E+0	1.846323E+0	1.889308E+0	1.846119E+0	1.665306E+0	1.803171E+0	1.794150E+0	1.673601E+0	1.642716E+0	1.663651E+0	1.577642E+0	1.583558E+0	1.813660E+0	1.783884E+0	1.658316E+0	1.723249E+0	1.584628E+0	1.889896E+0	1.847354E+0	1.840190E+0	1.606190E+0	1.817781E+0	1.713797E+0	1.750808E+0	1.704121E+0	1.628871E+0	1.555139E+0	1.594767E+0	1.763786E+0	1.612027E+0	1.762489E+0	1.620306E+0	1.698879E+0
5.415300E+2	1.525066E+0	1.637675E+0	1.719483E+0	1.369772E+0	1.435781E+0	1.525021E+0	1.420000E+0	1.463222E+0	1.709819E+0	1.680328E+0	1.631992E+0	1.623329E+0	1.748551E+0	1.770507E+0	1.732890E+0	1.485723E+0	1.677134E+0	1.718532E+0	1.612634E+0	1.528381E+0	1.558031E+0	1.584714E+0	1.555121E+0	1.531608E+0	1.685854E+0	1.671995E+0	1.583933E+0	1.637146E+0	1.828107E+0	1.788346E+0	1.751564E+0	1.422590E+0	1.780297E+0	1.722175E+0	1.649769E+0	1.480485E+0	1.577470E+0	1.528281E+0	1.516174E+0	1.550935E+0	1.687834E+0	1.639427E+0	1.733855E+0	1.544187E+0	1.753879E+0	1.730570E+0	1.760249E+0	1.466853E+0	1.654413E+0	1.683400E+0	1.609287E+0	1.506703E+0	1.484572E+0	1.537953E+0	1.523721E+0	1.507973E+0	1.606414E+0	1.635288E+0	1.590882E+0	1.395522E+0	1.822518E+0	1.713269E+0	1.783500E+0	1.467811E+0	1.644518E+0	1.667302E+0	1.786131E+0	1.653709E+0	1.461816E+0	1.548721E+0	1.699966E+0	1.587745E+0	1.595750E+0	1.620959E+0	1.779301E+0	1.644271E+0	1.765737E+0	1.762859E+0	1.783932E+0	1.525505E+0	1.734376E+0	1.639441E+0	1.680129E+0	1.523277E+0	1.489159E+0	1.644681E+0	1.505970E+0	1.554587E+0	1.568633E+0	1.667009E+0	1.607356E+0	1.593847E+0	1.705060E+0	1.786681E+0	1.783210E+0	1.544600E+0	1.641765E+0	1.648135E+0	1.691710E+0	1.519305E+0	1.410928E+0	1.498201E+0	1.493186E+0	1.626800E+0	1.380578E+0	1.638622E+0	1.589418E+0	1.650067E+0	1.703968E+0	1.782768E+0	1.813636E+0	1.457474E+0	1.726160E+0	1.635912E+0	1.756390E+0	1.446326E+0	1.529246E+0	1.459684E+0	1.474272E+0	1.636992E+0	1.618746E+0	1.548200E+0	1.585385E+0	1.656100E+0	1.785815E+0	1.799483E+0	1.736145E+0	1.504112E+0	1.682239E+0	1.713295E+0	1.743460E+0	1.552942E+0	1.494294E+0	1.505792E+0	1.653327E+0	1.617175E+0	1.613694E+0	1.615764E+0	1.717613E+0	1.627453E+0	1.729705E+0	1.771234E+0	1.728257E+0	1.544481E+0	1.719147E+0	1.645640E+0	1.589182E+0	1.594396E+0	1.560780E+0	1.477658E+0	1.472119E+0	1.695874E+0	1.676308E+0	1.529010E+0	1.646878E+0	1.491511E+0	1.762422E+0	1.741096E+0	1.706869E+0	1.519758E+0	1.693060E+0	1.689206E+0	1.595448E+0	1.635312E+0	1.575760E+0	1.448166E+0	1.480634E+0	1.668180E+0	1.501957E+0	1.526908E+0	1.563298E+0	1.610339E+0
5.417540E+2	1.342306E+0	1.485787E+0	1.494748E+0	1.249690E+0	1.255428E+0	1.344912E+0	1.276779E+0	1.368781E+0	1.531569E+0	1.507839E+0	1.519516E+0	1.413313E+0	1.597640E+0	1.605339E+0	1.627853E+0	1.373951E+0	1.516755E+0	1.551756E+0	1.508041E+0	1.428972E+0	1.423938E+0	1.424872E+0	1.414837E+0	1.438745E+0	1.556728E+0	1.549013E+0	1.427084E+0	1.505078E+0	1.658028E+0	1.661823E+0	1.595973E+0	1.360548E+0	1.632653E+0	1.558815E+0	1.506631E+0	1.354219E+0	1.420167E+0	1.420545E+0	1.386421E+0	1.337301E+0	1.520668E+0	1.554502E+0	1.597211E+0	1.402534E+0	1.610292E+0	1.608844E+0	1.689691E+0	1.303277E+0	1.536838E+0	1.566569E+0	1.519383E+0	1.405453E+0	1.399364E+0	1.372525E+0	1.373290E+0	1.441698E+0	1.461254E+0	1.478232E+0	1.468033E+0	1.365028E+0	1.624474E+0	1.672858E+0	1.603362E+0	1.388448E+0	1.515655E+0	1.544858E+0	1.661394E+0	1.445649E+0	1.365867E+0	1.444807E+0	1.514960E+0	1.499059E+0	1.490630E+0	1.493062E+0	1.582253E+0	1.499265E+0	1.687246E+0	1.671384E+0	1.706068E+0	1.389058E+0	1.575511E+0	1.544518E+0	1.521243E+0	1.401396E+0	1.395032E+0	1.534584E+0	1.397822E+0	1.456824E+0	1.438010E+0	1.530992E+0	1.527179E+0	1.442656E+0	1.591680E+0	1.642926E+0	1.583063E+0	1.411906E+0	1.513784E+0	1.502354E+0	1.558258E+0	1.371475E+0	1.313564E+0	1.376885E+0	1.336055E+0	1.430084E+0	1.277898E+0	1.495727E+0	1.547562E+0	1.466209E+0	1.551940E+0	1.635555E+0	1.586089E+0	1.371810E+0	1.489929E+0	1.492029E+0	1.590637E+0	1.352444E+0	1.379078E+0	1.335520E+0	1.356713E+0	1.505809E+0	1.466109E+0	1.433315E+0	1.505217E+0	1.480598E+0	1.630849E+0	1.623062E+0	1.625493E+0	1.434169E+0	1.520536E+0	1.550403E+0	1.628554E+0	1.454368E+0	1.364577E+0	1.405375E+0	1.504636E+0	1.475392E+0	1.457566E+0	1.481632E+0	1.581251E+0	1.447639E+0	1.564795E+0	1.614437E+0	1.637511E+0	1.432842E+0	1.584441E+0	1.554740E+0	1.473411E+0	1.460538E+0	1.395970E+0	1.336303E+0	1.374898E+0	1.482656E+0	1.480097E+0	1.453478E+0	1.507966E+0	1.440718E+0	1.615848E+0	1.589017E+0	1.613691E+0	1.409568E+0	1.573107E+0	1.447200E+0	1.470905E+0	1.433647E+0	1.476781E+0	1.356675E+0	1.387252E+0	1.509459E+0	1.400426E+0	1.434775E+0	1.432398E+0	1.557216E+0
5.420210E+2	1.292352E+0	1.247101E+0	1.385057E+0	1.092339E+0	1.183579E+0	1.147901E+0	1.140425E+0	1.176423E+0	1.299117E+0	1.306607E+0	1.271258E+0	1.241426E+0	1.365166E+0	1.398988E+0	1.381827E+0	1.209355E+0	1.314032E+0	1.313821E+0	1.245969E+0	1.232599E+0	1.223738E+0	1.172657E+0	1.203299E+0	1.228750E+0	1.288149E+0	1.325307E+0	1.281596E+0	1.297455E+0	1.404020E+0	1.419205E+0	1.375737E+0	1.123180E+0	1.379386E+0	1.325208E+0	1.343764E+0	1.200104E+0	1.242305E+0	1.241556E+0	1.221718E+0	1.190398E+0	1.318720E+0	1.327313E+0	1.358373E+0	1.228612E+0	1.395383E+0	1.393995E+0	1.393611E+0	1.136298E+0	1.376351E+0	1.365949E+0	1.277999E+0	1.177156E+0	1.198512E+0	1.182015E+0	1.160742E+0	1.254571E+0	1.250351E+0	1.293068E+0	1.264702E+0	1.190869E+0	1.411742E+0	1.418830E+0	1.379327E+0	1.207672E+0	1.310726E+0	1.351085E+0	1.423918E+0	1.265814E+0	1.168964E+0	1.232644E+0	1.348596E+0	1.238075E+0	1.207802E+0	1.360202E+0	1.395085E+0	1.325647E+0	1.387250E+0	1.433836E+0	1.399101E+0	1.166988E+0	1.341559E+0	1.321077E+0	1.316707E+0	1.228776E+0	1.124482E+0	1.302808E+0	1.167071E+0	1.254748E+0	1.226803E+0	1.344868E+0	1.319617E+0	1.323460E+0	1.388561E+0	1.406521E+0	1.378536E+0	1.244916E+0	1.326940E+0	1.353047E+0	1.316332E+0	1.150666E+0	1.107478E+0	1.167576E+0	1.176181E+0	1.237356E+0	1.092953E+0	1.277649E+0	1.277908E+0	1.271305E+0	1.379205E+0	1.407663E+0	1.440390E+0	1.134774E+0	1.337146E+0	1.326246E+0	1.361853E+0	1.168429E+0	1.245653E+0	1.153870E+0	1.182130E+0	1.329885E+0	1.312204E+0	1.321332E+0	1.236197E+0	1.281956E+0	1.415566E+0	1.377406E+0	1.374716E+0	1.167154E+0	1.307237E+0	1.365359E+0	1.426842E+0	1.260994E+0	1.175855E+0	1.165265E+0	1.290340E+0	1.254013E+0	1.215697E+0	1.358048E+0	1.338452E+0	1.288095E+0	1.355193E+0	1.409942E+0	1.413405E+0	1.201825E+0	1.419057E+0	1.343496E+0	1.308188E+0	1.283584E+0	1.239242E+0	1.145692E+0	1.181830E+0	1.313066E+0	1.368464E+0	1.282480E+0	1.294482E+0	1.140524E+0	1.383096E+0	1.369184E+0	1.366648E+0	1.232157E+0	1.389775E+0	1.310664E+0	1.331570E+0	1.221763E+0	1.238391E+0	1.170407E+0	1.148609E+0	1.341369E+0	1.204009E+0	1.236513E+0	1.263492E+0	1.232565E+0
5.422620E+2	1.159548E+0	1.171485E+0	1.197779E+0	9.391295E-1	1.043304E+0	1.046983E+0	1.028594E+0	1.154986E+0	1.145553E+0	1.199906E+0	1.135489E+0	1.157905E+0	1.222556E+0	1.283326E+0	1.236173E+0	1.209825E+0	1.186365E+0	1.178174E+0	1.166336E+0	1.216743E+0	1.137467E+0	1.150015E+0	1.116904E+0	1.139620E+0	1.221004E+0	1.148454E+0	1.177027E+0	1.227255E+0	1.273904E+0	1.257762E+0	1.280778E+0	1.184320E+0	1.234583E+0	1.188056E+0	1.154411E+0	1.150589E+0	1.099748E+0	1.134667E+0	1.043470E+0	1.107344E+0	1.189988E+0	1.201819E+0	1.202456E+0	1.116248E+0	1.239989E+0	1.279543E+0	1.241776E+0	1.109116E+0	1.195876E+0	1.210767E+0	1.214248E+0	1.135882E+0	1.059459E+0	1.062783E+0	1.039466E+0	1.124458E+0	1.139691E+0	1.170725E+0	1.203808E+0	1.082388E+0	1.204579E+0	1.287377E+0	1.257576E+0	1.088135E+0	1.212661E+0	1.239292E+0	1.273997E+0	1.121421E+0	1.049525E+0	1.113572E+0	1.203138E+0	1.105305E+0	1.145855E+0	1.168912E+0	1.263719E+0	1.186493E+0	1.253381E+0	1.238293E+0	1.242039E+0	1.123029E+0	1.198209E+0	1.177222E+0	1.237855E+0	1.082984E+0	1.041199E+0	1.170986E+0	1.072442E+0	1.120496E+0	1.139071E+0	1.174254E+0	1.145681E+0	1.181680E+0	1.280553E+0	1.262767E+0	1.212879E+0	1.072959E+0	1.125726E+0	1.142018E+0	1.170688E+0	1.116066E+0	1.005788E+0	1.056926E+0	1.077516E+0	1.153188E+0	9.548447E-1	1.171478E+0	1.185231E+0	1.160210E+0	1.227685E+0	1.299139E+0	1.298734E+0	1.075394E+0	1.158687E+0	1.172351E+0	1.262635E+0	1.083933E+0	1.058863E+0	1.068335E+0	1.063254E+0	1.168195E+0	1.141760E+0	1.119411E+0	1.114064E+0	1.138599E+0	1.256186E+0	1.253152E+0	1.233227E+0	1.072636E+0	1.232362E+0	1.185704E+0	1.296947E+0	1.104033E+0	1.033421E+0	1.072881E+0	1.169347E+0	1.156508E+0	1.192663E+0	1.213376E+0	1.183462E+0	1.154705E+0	1.196451E+0	1.233780E+0	1.292774E+0	1.101299E+0	1.270346E+0	1.226351E+0	1.194224E+0	1.148420E+0	1.153068E+0	1.065408E+0	1.047464E+0	1.216546E+0	1.199996E+0	1.132025E+0	1.170003E+0	1.082569E+0	1.240137E+0	1.222464E+0	1.225685E+0	1.162403E+0	1.206439E+0	1.216190E+0	1.216279E+0	1.105261E+0	1.147863E+0	1.071879E+0	1.093901E+0	1.217019E+0	1.051239E+0	1.157209E+0	1.250824E+0	1.126318E+0
5.425140E+2	1.027353E+0	1.014334E+0	1.027892E+0	1.005384E+0	9.147593E-1	9.141948E-1	9.128417E-1	9.214927E-1	1.029328E+0	1.079388E+0	1.014486E+0	9.660467E-1	1.114623E+0	1.136121E+0	1.085852E+0	1.036741E+0	1.019566E+0	1.080887E+0	1.005289E+0	1.081354E+0	9.700867E-1	9.562139E-1	9.525699E-1	9.870273E-1	1.069498E+0	1.052413E+0	9.917590E-1	1.033910E+0	1.147344E+0	1.143030E+0	1.060096E+0	1.104299E+0	1.118171E+0	1.040867E+0	1.066499E+0	1.093646E+0	1.014389E+0	9.645856E-1	9.661429E-1	9.868458E-1	1.029529E+0	1.042787E+0	1.062892E+0	1.033171E+0	1.126158E+0	1.096705E+0	1.105122E+0	1.114457E+0	1.023632E+0	1.053812E+0	1.093284E+0	1.113954E+0	9.658222E-1	9.879894E-1	9.376299E-1	1.060621E+0	1.062880E+0	1.056100E+0	1.039660E+0	9.551403E-1	1.100744E+0	1.132831E+0	1.086491E+0	1.003870E+0	1.075623E+0	1.107801E+0	1.110282E+0	1.035442E+0	8.776120E-1	9.953668E-1	1.027681E+0	1.072365E+0	1.079529E+0	1.033297E+0	1.095153E+0	1.048639E+0	1.109888E+0	1.116952E+0	1.132856E+0	1.042903E+0	1.096436E+0	1.056362E+0	1.070669E+0	1.023501E+0	9.308105E-1	1.000531E+0	9.377210E-1	9.970055E-1	1.011698E+0	1.070453E+0	1.043517E+0	9.865750E-1	1.117197E+0	1.133819E+0	1.094344E+0	1.015307E+0	1.090821E+0	1.088526E+0	1.042718E+0	1.002202E+0	9.035565E-1	9.716039E-1	9.582961E-1	1.020718E+0	8.533659E-1	9.654521E-1	1.026188E+0	9.815493E-1	1.103944E+0	1.092007E+0	1.175069E+0	9.478714E-1	1.074593E+0	1.049735E+0	1.115560E+0	8.986667E-1	9.814253E-1	9.340546E-1	9.417483E-1	9.998984E-1	1.034279E+0	1.033537E+0	9.768643E-1	1.064028E+0	1.093373E+0	1.100918E+0	1.103985E+0	9.417298E-1	1.116590E+0	1.079108E+0	1.169550E+0	1.014880E+0	9.291395E-1	9.403309E-1	1.051266E+0	1.028157E+0	9.719099E-1	1.100333E+0	1.069047E+0	1.044856E+0	1.106548E+0	1.110042E+0	1.205346E+0	1.002705E+0	1.110966E+0	1.092563E+0	1.081464E+0	9.930132E-1	1.002262E+0	8.925288E-1	9.630830E-1	1.052405E+0	1.054532E+0	1.009366E+0	1.007036E+0	9.979164E-1	1.193174E+0	1.080133E+0	1.091889E+0	9.925698E-1	1.074901E+0	1.058949E+0	1.077560E+0	9.758147E-1	1.027762E+0	9.381627E-1	9.392077E-1	1.078921E+0	9.079584E-1	9.402877E-1	1.062917E+0	1.008263E+0
5.427920E+2	9.682611E-1	9.492393E-1	1.015183E+0	9.142856E-1	8.150517E-1	8.499733E-1	8.088590E-1	8.705066E-1	9.570622E-1	1.004755E+0	9.923309E-1	9.733090E-1	9.949697E-1	1.033164E+0	1.024696E+0	9.909932E-1	9.862068E-1	9.585837E-1	9.773585E-1	1.020979E+0	8.786602E-1	9.068575E-1	8.848780E-1	9.291628E-1	1.022439E+0	9.762829E-1	9.451588E-1	9.881018E-1	1.060305E+0	1.065030E+0	1.038250E+0	1.032367E+0	9.665531E-1	9.667147E-1	9.656234E-1	1.032370E+0	9.330559E-1	9.064750E-1	9.193962E-1	9.153152E-1	9.618073E-1	9.789580E-1	9.928173E-1	8.735909E-1	1.046335E+0	1.005529E+0	1.020723E+0	1.051841E+0	9.495609E-1	1.038471E+0	1.013187E+0	1.051399E+0	8.993398E-1	9.065933E-1	8.564987E-1	9.573113E-1	9.398528E-1	9.712333E-1	9.734718E-1	8.560405E-1	1.076432E+0	1.066215E+0	1.088755E+0	1.010727E+0	1.058021E+0	9.667280E-1	1.056311E+0	9.665270E-1	8.741137E-1	8.949149E-1	9.699535E-1	9.613846E-1	9.124615E-1	9.886435E-1	1.017844E+0	1.021979E+0	1.045362E+0	1.020814E+0	1.084975E+0	1.077242E+0	9.692199E-1	9.744129E-1	1.036876E+0	1.049744E+0	8.775876E-1	9.392061E-1	8.836460E-1	9.563104E-1	8.810745E-1	9.869355E-1	9.400595E-1	9.978673E-1	1.024771E+0	1.068867E+0	1.031188E+0	1.042642E+0	9.984259E-1	9.786029E-1	9.659356E-1	1.007864E+0	8.267474E-1	8.676180E-1	8.856672E-1	9.669318E-1	8.059283E-1	1.004476E+0	9.891181E-1	9.256773E-1	1.012021E+0	1.036331E+0	1.101766E+0	9.512784E-1	9.885738E-1	9.759149E-1	9.801567E-1	8.880272E-1	9.338119E-1	8.627753E-1	8.996362E-1	9.099022E-1	9.528739E-1	9.441827E-1	9.983854E-1	9.502432E-1	1.038449E+0	1.023618E+0	1.004670E+0	8.472124E-1	9.806831E-1	9.892801E-1	1.012802E+0	9.288651E-1	8.874275E-1	8.983777E-1	9.963554E-1	9.147319E-1	9.162419E-1	9.943183E-1	9.606200E-1	9.833918E-1	1.050551E+0	1.057145E+0	1.027169E+0	9.418104E-1	1.012270E+0	9.952625E-1	9.855884E-1	9.486114E-1	9.063929E-1	8.526335E-1	8.938353E-1	1.019686E+0	1.001759E+0	9.344402E-1	9.180357E-1	9.021929E-1	1.056925E+0	1.046501E+0	1.032159E+0	9.511228E-1	1.025149E+0	9.916523E-1	9.493216E-1	9.247168E-1	9.318018E-1	8.921820E-1	8.741228E-1	1.000812E+0	8.491281E-1	8.236649E-1	9.869101E-1	1.025972E+0
5.430070E+2	9.914103E-1	1.016307E+0	1.017190E+0	8.894410E-1	9.059620E-1	8.943964E-1	8.946935E-1	9.128018E-1	1.013068E+0	1.045112E+0	9.775607E-1	9.799665E-1	1.095089E+0	1.117284E+0	1.102191E+0	1.049474E+0	1.008019E+0	1.008617E+0	9.981575E-1	1.079525E+0	9.339849E-1	9.566665E-1	9.338668E-1	1.009892E+0	1.023012E+0	1.017861E+0	9.605029E-1	9.904816E-1	1.043429E+0	1.089066E+0	1.045830E+0	1.062939E+0	1.100568E+0	1.055920E+0	1.020288E+0	1.056510E+0	9.697016E-1	9.607653E-1	9.246381E-1	9.887665E-1	1.031360E+0	9.984312E-1	1.010336E+0	1.040941E+0	1.105376E+0	1.087974E+0	1.039030E+0	1.090187E+0	1.027159E+0	1.047912E+0	1.028988E+0	1.121048E+0	9.648864E-1	8.995547E-1	9.334039E-1	9.865500E-1	9.528721E-1	9.739887E-1	9.830030E-1	9.082291E-1	1.105811E+0	1.083535E+0	1.123152E+0	1.028855E+0	1.058650E+0	1.072666E+0	1.115081E+0	1.073509E+0	8.981015E-1	9.529339E-1	1.070864E+0	1.054122E+0	1.000688E+0	1.009040E+0	1.109103E+0	1.024580E+0	1.065105E+0	1.120221E+0	1.106901E+0	1.118910E+0	1.060443E+0	1.041033E+0	1.043398E+0	1.138969E+0	9.007491E-1	1.055095E+0	9.367887E-1	1.036299E+0	9.642579E-1	1.001849E+0	1.017006E+0	1.063738E+0	1.072059E+0	1.085583E+0	1.079768E+0	1.112717E+0	1.023065E+0	1.017400E+0	1.021390E+0	1.099710E+0	8.884111E-1	9.089455E-1	9.254077E-1	1.004283E+0	7.873142E-1	9.694693E-1	1.032765E+0	1.087446E+0	1.055962E+0	1.095780E+0	1.103115E+0	1.105085E+0	1.017461E+0	1.050360E+0	1.060697E+0	1.060149E+0	9.291031E-1	9.101416E-1	9.106022E-1	1.031931E+0	1.060355E+0	1.002205E+0	9.774026E-1	1.104528E+0	1.064929E+0	1.159727E+0	1.087207E+0	1.098631E+0	1.071917E+0	1.063538E+0	1.088365E+0	1.062595E+0	8.976012E-1	9.581821E-1	1.060982E+0	1.047559E+0	9.936653E-1	1.100333E+0	1.068382E+0	1.040932E+0	1.073155E+0	1.083595E+0	1.063691E+0	1.002224E+0	1.062952E+0	1.058636E+0	1.018150E+0	1.010644E+0	1.011418E+0	9.028723E-1	9.341913E-1	1.035501E+0	1.049796E+0	9.652565E-1	1.029887E+0	9.178215E-1	1.117823E+0	1.042602E+0	1.122470E+0	9.703300E-1	1.020378E+0	1.047949E+0	1.018989E+0	1.024186E+0	9.879301E-1	9.039111E-1	9.052501E-1	1.028307E+0	9.098563E-1	9.939350E-1	9.847980E-1	1.020069E+0
5.432700E+2	1.188180E+0	1.112965E+0	1.161661E+0	9.515536E-1	1.016911E+0	1.018977E+0	1.015843E+0	1.072133E+0	1.156393E+0	1.170607E+0	1.169006E+0	1.134300E+0	1.216209E+0	1.251346E+0	1.243175E+0	1.269722E+0	1.157496E+0	1.215421E+0	1.136028E+0	1.216133E+0	1.120589E+0	1.095679E+0	1.090183E+0	1.119089E+0	1.169928E+0	1.233953E+0	1.145203E+0	1.168954E+0	1.273016E+0	1.190194E+0	1.200528E+0	1.222086E+0	1.230608E+0	1.176905E+0	1.156103E+0	1.232289E+0	1.063100E+0	1.068078E+0	1.058760E+0	1.081900E+0	1.138739E+0	1.156381E+0	1.176178E+0	1.162867E+0	1.268326E+0	1.226679E+0	1.264551E+0	1.244056E+0	1.195877E+0	1.209588E+0	1.158125E+0	1.206821E+0	1.050564E+0	1.112501E+0	1.074116E+0	1.146873E+0	1.077201E+0	1.188911E+0	1.114851E+0	1.017299E+0	1.230409E+0	1.238525E+0	1.276584E+0	1.226290E+0	1.174944E+0	1.225452E+0	1.270399E+0	1.221184E+0	1.041029E+0	1.068108E+0	1.179501E+0	1.129631E+0	1.165253E+0	1.170566E+0	1.205012E+0	1.170236E+0	1.247123E+0	1.248094E+0	1.267994E+0	1.323583E+0	1.250957E+0	1.229104E+0	1.209397E+0	1.291759E+0	1.044648E+0	1.162293E+0	1.096680E+0	1.208438E+0	1.149469E+0	1.179623E+0	1.150853E+0	1.164114E+0	1.232192E+0	1.297152E+0	1.241057E+0	1.264796E+0	1.189375E+0	1.114978E+0	1.204204E+0	1.238108E+0	9.884785E-1	1.054260E+0	1.077059E+0	1.163648E+0	9.686549E-1	1.180661E+0	1.172673E+0	1.127077E+0	1.149905E+0	1.259034E+0	1.256013E+0	1.271058E+0	1.153552E+0	1.149830E+0	1.152911E+0	1.200350E+0	1.079269E+0	1.051780E+0	1.061064E+0	1.229209E+0	1.192003E+0	1.106646E+0	1.141504E+0	1.207385E+0	1.249318E+0	1.252679E+0	1.279936E+0	1.288137E+0	1.200273E+0	1.186303E+0	1.253857E+0	1.265389E+0	1.015108E+0	1.073772E+0	1.211136E+0	1.233121E+0	1.129956E+0	1.175891E+0	1.178805E+0	1.186091E+0	1.246281E+0	1.195524E+0	1.310482E+0	1.265621E+0	1.261677E+0	1.173220E+0	1.182164E+0	1.241794E+0	1.126138E+0	1.077723E+0	9.965601E-1	1.202367E+0	1.128956E+0	1.107252E+0	1.153766E+0	1.116430E+0	1.270070E+0	1.241963E+0	1.241454E+0	1.209408E+0	1.150552E+0	1.199366E+0	1.138596E+0	1.218357E+0	1.105617E+0	1.070472E+0	1.083524E+0	1.303252E+0	1.065473E+0	1.167706E+0	1.115699E+0	1.386036E+0
5.435170E+2	1.278341E+0	1.242498E+0	1.295431E+0	1.075776E+0	1.065787E+0	1.118447E+0	1.141895E+0	1.140501E+0	1.251541E+0	1.261272E+0	1.232062E+0	1.261398E+0	1.354912E+0	1.418704E+0	1.334209E+0	1.341881E+0	1.284519E+0	1.311594E+0	1.314905E+0	1.340545E+0	1.227019E+0	1.198468E+0	1.140506E+0	1.214287E+0	1.302495E+0	1.308912E+0	1.221923E+0	1.351592E+0	1.381815E+0	1.399706E+0	1.346312E+0	1.333576E+0	1.319195E+0	1.363678E+0	1.311081E+0	1.306562E+0	1.216383E+0	1.202534E+0	1.183709E+0	1.230244E+0	1.280283E+0	1.250503E+0	1.288297E+0	1.300929E+0	1.366571E+0	1.321251E+0	1.366818E+0	1.413462E+0	1.341667E+0	1.357691E+0	1.293800E+0	1.317100E+0	1.167612E+0	1.176297E+0	1.156094E+0	1.219971E+0	1.221710E+0	1.252836E+0	1.290117E+0	1.116986E+0	1.349946E+0	1.408617E+0	1.368461E+0	1.256174E+0	1.295639E+0	1.294121E+0	1.396932E+0	1.372797E+0	1.126985E+0	1.214026E+0	1.287688E+0	1.311048E+0	1.278510E+0	1.271448E+0	1.333469E+0	1.285982E+0	1.393027E+0	1.312029E+0	1.413420E+0	1.439880E+0	1.326665E+0	1.361756E+0	1.322042E+0	1.355906E+0	1.108714E+0	1.254519E+0	1.167072E+0	1.257555E+0	1.181962E+0	1.304303E+0	1.250431E+0	1.309032E+0	1.397696E+0	1.387419E+0	1.345988E+0	1.383083E+0	1.279716E+0	1.294851E+0	1.294393E+0	1.301017E+0	1.131817E+0	1.171132E+0	1.143292E+0	1.211954E+0	1.028702E+0	1.279367E+0	1.234259E+0	1.292094E+0	1.323143E+0	1.346324E+0	1.405760E+0	1.361588E+0	1.321739E+0	1.279327E+0	1.328584E+0	1.336794E+0	1.161413E+0	1.154331E+0	1.172920E+0	1.318698E+0	1.288036E+0	1.234877E+0	1.210911E+0	1.208670E+0	1.351324E+0	1.364127E+0	1.354308E+0	1.378876E+0	1.343101E+0	1.295293E+0	1.334417E+0	1.401630E+0	1.127529E+0	1.180885E+0	1.246122E+0	1.229139E+0	1.150431E+0	1.315876E+0	1.344439E+0	1.330597E+0	1.330023E+0	1.372631E+0	1.349769E+0	1.370980E+0	1.375044E+0	1.333893E+0	1.291908E+0	1.309704E+0	1.190230E+0	1.123528E+0	1.136888E+0	1.322335E+0	1.251416E+0	1.231121E+0	1.228334E+0	1.186758E+0	1.304647E+0	1.318002E+0	1.325552E+0	1.396425E+0	1.350245E+0	1.264721E+0	1.259436E+0	1.401626E+0	1.217872E+0	1.151170E+0	1.112766E+0	1.315749E+0	1.162258E+0	1.163040E+0	1.242379E+0	1.279789E+0
5.437640E+2	1.476939E+0	1.376635E+0	1.474683E+0	1.237265E+0	1.279379E+0	1.243027E+0	1.309152E+0	1.229148E+0	1.387037E+0	1.437075E+0	1.383739E+0	1.374578E+0	1.585921E+0	1.526919E+0	1.481732E+0	1.492327E+0	1.398714E+0	1.490603E+0	1.399885E+0	1.495449E+0	1.307663E+0	1.351063E+0	1.400588E+0	1.394880E+0	1.454002E+0	1.414323E+0	1.417991E+0	1.503291E+0	1.549231E+0	1.548448E+0	1.476050E+0	1.496314E+0	1.517943E+0	1.480761E+0	1.362361E+0	1.555993E+0	1.344643E+0	1.300937E+0	1.328316E+0	1.359384E+0	1.380953E+0	1.434417E+0	1.444211E+0	1.447361E+0	1.502128E+0	1.483717E+0	1.536071E+0	1.572187E+0	1.442189E+0	1.500481E+0	1.463258E+0	1.547975E+0	1.300109E+0	1.332043E+0	1.313707E+0	1.376398E+0	1.392255E+0	1.406037E+0	1.368486E+0	1.253616E+0	1.481131E+0	1.570712E+0	1.530945E+0	1.433030E+0	1.460337E+0	1.500677E+0	1.569642E+0	1.507345E+0	1.213443E+0	1.369468E+0	1.457689E+0	1.421527E+0	1.402400E+0	1.431321E+0	1.502037E+0	1.427737E+0	1.515336E+0	1.545375E+0	1.493520E+0	1.538783E+0	1.482426E+0	1.420125E+0	1.477372E+0	1.505782E+0	1.280209E+0	1.427869E+0	1.347943E+0	1.429228E+0	1.317785E+0	1.472535E+0	1.441181E+0	1.449559E+0	1.520215E+0	1.509679E+0	1.499018E+0	1.526712E+0	1.443974E+0	1.404187E+0	1.365083E+0	1.443821E+0	1.191319E+0	1.272009E+0	1.301337E+0	1.480882E+0	1.211846E+0	1.378653E+0	1.431569E+0	1.430475E+0	1.465572E+0	1.527034E+0	1.544719E+0	1.515395E+0	1.461683E+0	1.440105E+0	1.442979E+0	1.441944E+0	1.263443E+0	1.293210E+0	1.289162E+0	1.450388E+0	1.420958E+0	1.409527E+0	1.338962E+0	1.429811E+0	1.516590E+0	1.525843E+0	1.503506E+0	1.531524E+0	1.523052E+0	1.449198E+0	1.549866E+0	1.510246E+0	1.235878E+0	1.316560E+0	1.378782E+0	1.454001E+0	1.370544E+0	1.423649E+0	1.489451E+0	1.516293E+0	1.463076E+0	1.547849E+0	1.537908E+0	1.543033E+0	1.487743E+0	1.493288E+0	1.369694E+0	1.442909E+0	1.302796E+0	1.239273E+0	1.279512E+0	1.494657E+0	1.396203E+0	1.362844E+0	1.412947E+0	1.379507E+0	1.508503E+0	1.486654E+0	1.476550E+0	1.466179E+0	1.443617E+0	1.442668E+0	1.416035E+0	1.503139E+0	1.417638E+0	1.224834E+0	1.326884E+0	1.474469E+0	1.308386E+0	1.378794E+0	1.347944E+0	1.415551E+0
5.440170E+2	1.576845E+0	1.515376E+0	1.602434E+0	1.224846E+0	1.425029E+0	1.434242E+0	1.367029E+0	1.427298E+0	1.497845E+0	1.574735E+0	1.571207E+0	1.570064E+0	1.663571E+0	1.697780E+0	1.623180E+0	1.614475E+0	1.636082E+0	1.637371E+0	1.534784E+0	1.694261E+0	1.481608E+0	1.500943E+0	1.435770E+0	1.523210E+0	1.624447E+0	1.563655E+0	1.527673E+0	1.640717E+0	1.673127E+0	1.683137E+0	1.674884E+0	1.607807E+0	1.696252E+0	1.645233E+0	1.621031E+0	1.617273E+0	1.499266E+0	1.442177E+0	1.425305E+0	1.468840E+0	1.571306E+0	1.552339E+0	1.615311E+0	1.551360E+0	1.683499E+0	1.637456E+0	1.693264E+0	1.705666E+0	1.588568E+0	1.684580E+0	1.567875E+0	1.682116E+0	1.423241E+0	1.449078E+0	1.394417E+0	1.511872E+0	1.504868E+0	1.579077E+0	1.515160E+0	1.399626E+0	1.644733E+0	1.679073E+0	1.670346E+0	1.593227E+0	1.582917E+0	1.614066E+0	1.670992E+0	1.618921E+0	1.448323E+0	1.442640E+0	1.605871E+0	1.569498E+0	1.547569E+0	1.572998E+0	1.692690E+0	1.635168E+0	1.643426E+0	1.708720E+0	1.704277E+0	1.681640E+0	1.659911E+0	1.621754E+0	1.619066E+0	1.666733E+0	1.401931E+0	1.529758E+0	1.457025E+0	1.570960E+0	1.521193E+0	1.613914E+0	1.570500E+0	1.581930E+0	1.723332E+0	1.639106E+0	1.635044E+0	1.674816E+0	1.569904E+0	1.537620E+0	1.605176E+0	1.663995E+0	1.336283E+0	1.411989E+0	1.460754E+0	1.552100E+0	1.343348E+0	1.537045E+0	1.595393E+0	1.565610E+0	1.629722E+0	1.694537E+0	1.720548E+0	1.704730E+0	1.600338E+0	1.584615E+0	1.655422E+0	1.642858E+0	1.438726E+0	1.340577E+0	1.380840E+0	1.604957E+0	1.495366E+0	1.582435E+0	1.492845E+0	1.549384E+0	1.653406E+0	1.690876E+0	1.625947E+0	1.687476E+0	1.627497E+0	1.652208E+0	1.647289E+0	1.682906E+0	1.473943E+0	1.453126E+0	1.538649E+0	1.593794E+0	1.478682E+0	1.587648E+0	1.582581E+0	1.598031E+0	1.629012E+0	1.581853E+0	1.619249E+0	1.723302E+0	1.645792E+0	1.601470E+0	1.521646E+0	1.629658E+0	1.465452E+0	1.407228E+0	1.415256E+0	1.644071E+0	1.654658E+0	1.495170E+0	1.545248E+0	1.432254E+0	1.625142E+0	1.632397E+0	1.634718E+0	1.618319E+0	1.629679E+0	1.503495E+0	1.565849E+0	1.659839E+0	1.461695E+0	1.388111E+0	1.400458E+0	1.661305E+0	1.408967E+0	1.519911E+0	1.546407E+0	1.793326E+0
5.442920E+2	1.671883E+0	1.563376E+0	1.618486E+0	1.249689E+0	1.746148E+0	1.391748E+0	1.389590E+0	1.407020E+0	1.729695E+0	1.545433E+0	1.554167E+0	1.603959E+0	1.712898E+0	1.713555E+0	1.670798E+0	1.602213E+0	1.652119E+0	1.610129E+0	1.565683E+0	1.700968E+0	1.631171E+0	1.471964E+0	1.462044E+0	1.526009E+0	1.596899E+0	1.558969E+0	1.500395E+0	1.600260E+0	1.688227E+0	1.645496E+0	1.613804E+0	1.635228E+0	1.602555E+0	1.606762E+0	1.572568E+0	1.588802E+0	1.477814E+0	1.436663E+0	1.397342E+0	1.494764E+0	1.571916E+0	1.535570E+0	1.647426E+0	1.533425E+0	1.651856E+0	1.644246E+0	1.669595E+0	1.793041E+0	1.555060E+0	1.597251E+0	1.572236E+0	1.651805E+0	1.426049E+0	1.426199E+0	1.392307E+0	1.506508E+0	1.569961E+0	1.537748E+0	1.579230E+0	1.399040E+0	1.651822E+0	1.738141E+0	1.678495E+0	1.613312E+0	1.592976E+0	1.631101E+0	1.692575E+0	1.626142E+0	1.431832E+0	1.477714E+0	1.547690E+0	1.552269E+0	1.490004E+0	1.584573E+0	1.674672E+0	1.583149E+0	1.703619E+0	1.688186E+0	1.744107E+0	1.676147E+0	1.615230E+0	1.582254E+0	1.584085E+0	1.680730E+0	1.382714E+0	1.563559E+0	1.429519E+0	1.563006E+0	1.536789E+0	1.597210E+0	1.584722E+0	1.568125E+0	1.674432E+0	1.676357E+0	1.630669E+0	1.679287E+0	1.526102E+0	1.625795E+0	1.565568E+0	1.660225E+0	1.332496E+0	1.404434E+0	1.425580E+0	1.512256E+0	1.470046E+0	1.542783E+0	1.584629E+0	1.578600E+0	1.697904E+0	1.640748E+0	1.746633E+0	1.671146E+0	1.574022E+0	1.607134E+0	1.667090E+0	1.638477E+0	1.425643E+0	1.357594E+0	1.396634E+0	1.602417E+0	1.566597E+0	1.493077E+0	1.519744E+0	1.595025E+0	1.618591E+0	1.684242E+0	1.668575E+0	1.691730E+0	1.569609E+0	1.574956E+0	1.649162E+0	1.645234E+0	1.401201E+0	1.495525E+0	1.578011E+0	1.524149E+0	1.528590E+0	1.615760E+0	1.591228E+0	1.616992E+0	1.607949E+0	1.671583E+0	1.693951E+0	1.681740E+0	1.628452E+0	1.582265E+0	1.511999E+0	1.640760E+0	1.436364E+0	1.409689E+0	1.391865E+0	1.621167E+0	1.660067E+0	1.483688E+0	1.555470E+0	1.420531E+0	1.658172E+0	1.585116E+0	1.618945E+0	1.634495E+0	1.635130E+0	1.526788E+0	1.530093E+0	1.597158E+0	1.472558E+0	1.405002E+0	1.386779E+0	1.625061E+0	1.448819E+0	1.528074E+0	1.459844E+0	1.722493E+0
5.445240E+2	1.687113E+0	1.565350E+0	1.577685E+0	1.398758E+0	1.717312E+0	1.431828E+0	1.421470E+0	1.417450E+0	1.680918E+0	1.594634E+0	1.571777E+0	1.638460E+0	1.740740E+0	1.645209E+0	1.675936E+0	1.633342E+0	1.700232E+0	1.607349E+0	1.519925E+0	1.633882E+0	1.735729E+0	1.456116E+0	1.450467E+0	1.505476E+0	1.716266E+0	1.541400E+0	1.552679E+0	1.586582E+0	1.715757E+0	1.730298E+0	1.652145E+0	1.631635E+0	1.734298E+0	1.656941E+0	1.539881E+0	1.700209E+0	1.736565E+0	1.469321E+0	1.435789E+0	1.525970E+0	1.689667E+0	1.623198E+0	1.619984E+0	1.590804E+0	1.678308E+0	1.662673E+0	1.704426E+0	1.693531E+0	1.646184E+0	1.663339E+0	1.578774E+0	1.685341E+0	1.624565E+0	1.423120E+0	1.451885E+0	1.507973E+0	1.596000E+0	1.575772E+0	1.552226E+0	1.418390E+0	1.771364E+0	1.795876E+0	1.702029E+0	1.577059E+0	1.691039E+0	1.606078E+0	1.721966E+0	1.655020E+0	1.468314E+0	1.455195E+0	1.552691E+0	1.592812E+0	1.590117E+0	1.570792E+0	1.654325E+0	1.607856E+0	1.667023E+0	1.685852E+0	1.701146E+0	1.698583E+0	1.641912E+0	1.641208E+0	1.655230E+0	1.693560E+0	1.432485E+0	1.538929E+0	1.436047E+0	1.562075E+0	1.510796E+0	1.627635E+0	1.546574E+0	1.600123E+0	1.651328E+0	1.686387E+0	1.619499E+0	1.738930E+0	1.589751E+0	1.592294E+0	1.631382E+0	1.684757E+0	1.390913E+0	1.423097E+0	1.413705E+0	1.572518E+0	1.557114E+0	1.526717E+0	1.495544E+0	1.559114E+0	1.673662E+0	1.697836E+0	1.638256E+0	1.677476E+0	1.599698E+0	1.615895E+0	1.620401E+0	1.611563E+0	1.457562E+0	1.409101E+0	1.408915E+0	1.608518E+0	1.545609E+0	1.542979E+0	1.494458E+0	1.590525E+0	1.652428E+0	1.651991E+0	1.652703E+0	1.626513E+0	1.618061E+0	1.585735E+0	1.663523E+0	1.709274E+0	1.427145E+0	1.424562E+0	1.559547E+0	1.559470E+0	1.515793E+0	1.582963E+0	1.565285E+0	1.666031E+0	1.640317E+0	1.673474E+0	1.677353E+0	1.666275E+0	1.681132E+0	1.618750E+0	1.499337E+0	1.644676E+0	1.463833E+0	1.402300E+0	1.448733E+0	1.633166E+0	1.576849E+0	1.527194E+0	1.503755E+0	1.459601E+0	1.630819E+0	1.589504E+0	1.661955E+0	1.706270E+0	1.664437E+0	1.546201E+0	1.580650E+0	1.613508E+0	1.477389E+0	1.392802E+0	1.371691E+0	1.616938E+0	1.464951E+0	1.575890E+0	1.489403E+0	1.580827E+0
5.447830E+2	1.724882E+0	1.562062E+0	1.605108E+0	1.440164E+0	1.737839E+0	1.483495E+0	1.424415E+0	1.408757E+0	1.771245E+0	1.580816E+0	1.551893E+0	1.653587E+0	1.707037E+0	1.771821E+0	1.687138E+0	1.715878E+0	1.770160E+0	1.601233E+0	1.556773E+0	1.730852E+0	1.804178E+0	1.491887E+0	1.439780E+0	1.575941E+0	1.777100E+0	1.636273E+0	1.581094E+0	1.662728E+0	1.743288E+0	1.720777E+0	1.703862E+0	1.662202E+0	1.697391E+0	1.697083E+0	1.578764E+0	1.656885E+0	1.795552E+0	1.484594E+0	1.439723E+0	1.574938E+0	1.779963E+0	1.595072E+0	1.608887E+0	1.537010E+0	1.767104E+0	1.688379E+0	1.666913E+0	1.707608E+0	1.753760E+0	1.664517E+0	1.606020E+0	1.689212E+0	1.761742E+0	1.447319E+0	1.472591E+0	1.552803E+0	1.690383E+0	1.580731E+0	1.524161E+0	1.432464E+0	1.680696E+0	1.722598E+0	1.693430E+0	1.613316E+0	1.697326E+0	1.633231E+0	1.721364E+0	1.681930E+0	1.751168E+0	1.506290E+0	1.570418E+0	1.581153E+0	1.794730E+0	1.542123E+0	1.689205E+0	1.577944E+0	1.748882E+0	1.722719E+0	1.735602E+0	1.755359E+0	1.678527E+0	1.608781E+0	1.654044E+0	1.770539E+0	1.641928E+0	1.569835E+0	1.460288E+0	1.595284E+0	1.642068E+0	1.662236E+0	1.593131E+0	1.607020E+0	1.685717E+0	1.658687E+0	1.624841E+0	1.677299E+0	1.659561E+0	1.527042E+0	1.658196E+0	1.653931E+0	1.416337E+0	1.440873E+0	1.418729E+0	1.559070E+0	1.594344E+0	1.654120E+0	1.586424E+0	1.572753E+0	1.684269E+0	1.654899E+0	1.688173E+0	1.765570E+0	1.679297E+0	1.562719E+0	1.717285E+0	1.615947E+0	1.476920E+0	1.415078E+0	1.416811E+0	1.640039E+0	1.558329E+0	1.522670E+0	1.561710E+0	1.636171E+0	1.712259E+0	1.681394E+0	1.652249E+0	1.706381E+0	1.607994E+0	1.573758E+0	1.691003E+0	1.706762E+0	1.375259E+0	1.468302E+0	1.567322E+0	1.637075E+0	1.522831E+0	1.617522E+0	1.590561E+0	1.645761E+0	1.654185E+0	1.692836E+0	1.731578E+0	1.687540E+0	1.667795E+0	1.643717E+0	1.553005E+0	1.732175E+0	1.522001E+0	1.440719E+0	1.391408E+0	1.667520E+0	1.570085E+0	1.559223E+0	1.544045E+0	1.500624E+0	1.632365E+0	1.614848E+0	1.687757E+0	1.662800E+0	1.658983E+0	1.616086E+0	1.607160E+0	1.702760E+0	1.515408E+0	1.413446E+0	1.417437E+0	1.734413E+0	1.578815E+0	1.514080E+0	1.550631E+0	1.734296E+0
5.450090E+2	1.665791E+0	1.538388E+0	1.494080E+0	1.262111E+0	1.600983E+0	1.331874E+0	1.303267E+0	1.413392E+0	1.637553E+0	1.513368E+0	1.512128E+0	1.547068E+0	1.609362E+0	1.582558E+0	1.578832E+0	1.580521E+0	1.583475E+0	1.491158E+0	1.423063E+0	1.606444E+0	1.669146E+0	1.423515E+0	1.406378E+0	1.480278E+0	1.676096E+0	1.495724E+0	1.499826E+0	1.558617E+0	1.659802E+0	1.618741E+0	1.637880E+0	1.577689E+0	1.640035E+0	1.576097E+0	1.493104E+0	1.640794E+0	1.651653E+0	1.341654E+0	1.396031E+0	1.503888E+0	1.571915E+0	1.510147E+0	1.561002E+0	1.475452E+0	1.660356E+0	1.551132E+0	1.598144E+0	1.658099E+0	1.607383E+0	1.635606E+0	1.501948E+0	1.602147E+0	1.645162E+0	1.364165E+0	1.309904E+0	1.454856E+0	1.636355E+0	1.435798E+0	1.497158E+0	1.308734E+0	1.670061E+0	1.646655E+0	1.614674E+0	1.502595E+0	1.657721E+0	1.540068E+0	1.614621E+0	1.565759E+0	1.604743E+0	1.427053E+0	1.495871E+0	1.484361E+0	1.621403E+0	1.508497E+0	1.546213E+0	1.568192E+0	1.614533E+0	1.618649E+0	1.576752E+0	1.593268E+0	1.638192E+0	1.553950E+0	1.530726E+0	1.628247E+0	1.665584E+0	1.466985E+0	1.382903E+0	1.505941E+0	1.726552E+0	1.501165E+0	1.536230E+0	1.538642E+0	1.640579E+0	1.631944E+0	1.574802E+0	1.574918E+0	1.657507E+0	1.501765E+0	1.497317E+0	1.602977E+0	1.615930E+0	1.308448E+0	1.364372E+0	1.525207E+0	1.639381E+0	1.496871E+0	1.517666E+0	1.544817E+0	1.594872E+0	1.586485E+0	1.594633E+0	1.568448E+0	1.547703E+0	1.545831E+0	1.604062E+0	1.541463E+0	1.518780E+0	1.294131E+0	1.324254E+0	1.600382E+0	1.585041E+0	1.480895E+0	1.394381E+0	1.541668E+0	1.602407E+0	1.575640E+0	1.593296E+0	1.580670E+0	1.523052E+0	1.504890E+0	1.603575E+0	1.529710E+0	1.351350E+0	1.374132E+0	1.470134E+0	1.540563E+0	1.389100E+0	1.567731E+0	1.526036E+0	1.492104E+0	1.570449E+0	1.647026E+0	1.603755E+0	1.587013E+0	1.553097E+0	1.550898E+0	1.463758E+0	1.551954E+0	1.419671E+0	1.386049E+0	1.293726E+0	1.570452E+0	1.486865E+0	1.414202E+0	1.438206E+0	1.432902E+0	1.634431E+0	1.575368E+0	1.624681E+0	1.528352E+0	1.551302E+0	1.475022E+0	1.498646E+0	1.601927E+0	1.445401E+0	1.349166E+0	1.360368E+0	1.623810E+0	1.603486E+0	1.391624E+0	1.436619E+0	1.450967E+0
5.452690E+2	1.465973E+0	1.331266E+0	1.419838E+0	1.199999E+0	1.505189E+0	1.180738E+0	1.183588E+0	1.270285E+0	1.470142E+0	1.363551E+0	1.393968E+0	1.394549E+0	1.472612E+0	1.468648E+0	1.466791E+0	1.456014E+0	1.504565E+0	1.389980E+0	1.364227E+0	1.515574E+0	1.513957E+0	1.292197E+0	1.236255E+0	1.322081E+0	1.518275E+0	1.382114E+0	1.324786E+0	1.406917E+0	1.474624E+0	1.496299E+0	1.460443E+0	1.496766E+0	1.515673E+0	1.399359E+0	1.356164E+0	1.465011E+0	1.517140E+0	1.269975E+0	1.225211E+0	1.342580E+0	1.502362E+0	1.364635E+0	1.364799E+0	1.293159E+0	1.534248E+0	1.420186E+0	1.404777E+0	1.518304E+0	1.490396E+0	1.440886E+0	1.400052E+0	1.449949E+0	1.547311E+0	1.258570E+0	1.252862E+0	1.302329E+0	1.513331E+0	1.386200E+0	1.327182E+0	1.192629E+0	1.549004E+0	1.508982E+0	1.494739E+0	1.393837E+0	1.450277E+0	1.444779E+0	1.521068E+0	1.454180E+0	1.497300E+0	1.285470E+0	1.434505E+0	1.382506E+0	1.483120E+0	1.375087E+0	1.463091E+0	1.403028E+0	1.492705E+0	1.501509E+0	1.434453E+0	1.480631E+0	1.475601E+0	1.384157E+0	1.390220E+0	1.484788E+0	1.487682E+0	1.345783E+0	1.217415E+0	1.404904E+0	1.465953E+0	1.410491E+0	1.349360E+0	1.374905E+0	1.516988E+0	1.464788E+0	1.464526E+0	1.447693E+0	1.487093E+0	1.314839E+0	1.337659E+0	1.472755E+0	1.491523E+0	1.221348E+0	1.249722E+0	1.380286E+0	1.498872E+0	1.298882E+0	1.392105E+0	1.392145E+0	1.548406E+0	1.458617E+0	1.504696E+0	1.484730E+0	1.476445E+0	1.421335E+0	1.496673E+0	1.500780E+0	1.561162E+0	1.231130E+0	1.214590E+0	1.374121E+0	1.497272E+0	1.329452E+0	1.315828E+0	1.371313E+0	1.428806E+0	1.484110E+0	1.440927E+0	1.451653E+0	1.501029E+0	1.385721E+0	1.450570E+0	1.507735E+0	1.493275E+0	1.240243E+0	1.370521E+0	1.367438E+0	1.494679E+0	1.493934E+0	1.437567E+0	1.511066E+0	1.418384E+0	1.445361E+0	1.481465E+0	1.427040E+0	1.492413E+0	1.380623E+0	1.363664E+0	1.429850E+0	1.445523E+0	1.227944E+0	1.185958E+0	1.445031E+0	1.469276E+0	1.371907E+0	1.351007E+0	1.300063E+0	1.433156E+0	1.426700E+0	1.409176E+0	1.432313E+0	1.432030E+0	1.366960E+0	1.393840E+0	1.438417E+0	1.330730E+0	1.252515E+0	1.226899E+0	1.473841E+0	1.484878E+0	1.252841E+0	1.278270E+0	1.539504E+0
5.455130E+2	1.444042E+0	1.352964E+0	1.340244E+0	1.038509E+0	1.498831E+0	1.156593E+0	1.175250E+0	1.212925E+0	1.453282E+0	1.317663E+0	1.324660E+0	1.286820E+0	1.477499E+0	1.468648E+0	1.422443E+0	1.421583E+0	1.367919E+0	1.394429E+0	1.345806E+0	1.421655E+0	1.503643E+0	1.255520E+0	1.185486E+0	1.277283E+0	1.452279E+0	1.376259E+0	1.350930E+0	1.383713E+0	1.521253E+0	1.455485E+0	1.410955E+0	1.451808E+0	1.494664E+0	1.389882E+0	1.326857E+0	1.352364E+0	1.480942E+0	1.222891E+0	1.241375E+0	1.262888E+0	1.454163E+0	1.288908E+0	1.385817E+0	1.350538E+0	1.481818E+0	1.445406E+0	1.416833E+0	1.456661E+0	1.478639E+0	1.417874E+0	1.386431E+0	1.408676E+0	1.435416E+0	1.226892E+0	1.232579E+0	1.274063E+0	1.449538E+0	1.355892E+0	1.401315E+0	1.204946E+0	1.449220E+0	1.430821E+0	1.430017E+0	1.386976E+0	1.503710E+0	1.416563E+0	1.529463E+0	1.347855E+0	1.423337E+0	1.252993E+0	1.328598E+0	1.339432E+0	1.461846E+0	1.383358E+0	1.432866E+0	1.395225E+0	1.504746E+0	1.445971E+0	1.427292E+0	1.460488E+0	1.413544E+0	1.410101E+0	1.389628E+0	1.423554E+0	1.508873E+0	1.353510E+0	1.228140E+0	1.339882E+0	1.443860E+0	1.405717E+0	1.339662E+0	1.320324E+0	1.458417E+0	1.426102E+0	1.360562E+0	1.438250E+0	1.511045E+0	1.324833E+0	1.361426E+0	1.385943E+0	1.477458E+0	1.208905E+0	1.204498E+0	1.341438E+0	1.456237E+0	1.355124E+0	1.301225E+0	1.330426E+0	1.482240E+0	1.412379E+0	1.448484E+0	1.458935E+0	1.430869E+0	1.372539E+0	1.370608E+0	1.394377E+0	1.507267E+0	1.220092E+0	1.220732E+0	1.412253E+0	1.465475E+0	1.395019E+0	1.291616E+0	1.446526E+0	1.428808E+0	1.436210E+0	1.435938E+0	1.434641E+0	1.481523E+0	1.363562E+0	1.479922E+0	1.410422E+0	1.480555E+0	1.231317E+0	1.345253E+0	1.368435E+0	1.458206E+0	1.429505E+0	1.311844E+0	1.402520E+0	1.419412E+0	1.454806E+0	1.455461E+0	1.439605E+0	1.436395E+0	1.380621E+0	1.335927E+0	1.389367E+0	1.467064E+0	1.175737E+0	1.237320E+0	1.398681E+0	1.399587E+0	1.272208E+0	1.290275E+0	1.270760E+0	1.443475E+0	1.402814E+0	1.411563E+0	1.395921E+0	1.397271E+0	1.375372E+0	1.319238E+0	1.419340E+0	1.439362E+0	1.162434E+0	1.216996E+0	1.396983E+0	1.443127E+0	1.305322E+0	1.343722E+0	1.592630E+0
5.457720E+2	1.323421E+0	1.197786E+0	1.225202E+0	1.034368E+0	1.334607E+0	1.092854E+0	1.089415E+0	1.128914E+0	1.309956E+0	1.207646E+0	1.169005E+0	1.191797E+0	1.332934E+0	1.317500E+0	1.291258E+0	1.276795E+0	1.339691E+0	1.230987E+0	1.188918E+0	1.309442E+0	1.390649E+0	1.106095E+0	1.122694E+0	1.183486E+0	1.302493E+0	1.206430E+0	1.163386E+0	1.201674E+0	1.336073E+0	1.323067E+0	1.258041E+0	1.279627E+0	1.358377E+0	1.267228E+0	1.256978E+0	1.264474E+0	1.340617E+0	1.113460E+0	1.063131E+0	1.184157E+0	1.290045E+0	1.252666E+0	1.284209E+0	1.186177E+0	1.376490E+0	1.264506E+0	1.307867E+0	1.337250E+0	1.321678E+0	1.281573E+0	1.227323E+0	1.252610E+0	1.292150E+0	1.113823E+0	1.042847E+0	1.162470E+0	1.305680E+0	1.199934E+0	1.192690E+0	1.110535E+0	1.317529E+0	1.278496E+0	1.265271E+0	1.208162E+0	1.281181E+0	1.259523E+0	1.367548E+0	1.245467E+0	1.307393E+0	1.086294E+0	1.251776E+0	1.205139E+0	1.265996E+0	1.156230E+0	1.243957E+0	1.233961E+0	1.354507E+0	1.306430E+0	1.340484E+0	1.312133E+0	1.285708E+0	1.186066E+0	1.207026E+0	1.324999E+0	1.314705E+0	1.180643E+0	1.090156E+0	1.248199E+0	1.341182E+0	1.222575E+0	1.221980E+0	1.226849E+0	1.326228E+0	1.298109E+0	1.281864E+0	1.277721E+0	1.332416E+0	1.201976E+0	1.229189E+0	1.311082E+0	1.304367E+0	1.085811E+0	1.100354E+0	1.191038E+0	1.340947E+0	1.224277E+0	1.209147E+0	1.225178E+0	1.295870E+0	1.291119E+0	1.311328E+0	1.303669E+0	1.340356E+0	1.212389E+0	1.267886E+0	1.325530E+0	1.302684E+0	1.056382E+0	1.090449E+0	1.215482E+0	1.331919E+0	1.182076E+0	1.187237E+0	1.231171E+0	1.317483E+0	1.279709E+0	1.312135E+0	1.260728E+0	1.275148E+0	1.219839E+0	1.317556E+0	1.270412E+0	1.308112E+0	1.100105E+0	1.172747E+0	1.215209E+0	1.300160E+0	1.228019E+0	1.307853E+0	1.293326E+0	1.287893E+0	1.289510E+0	1.296097E+0	1.265619E+0	1.283017E+0	1.255797E+0	1.220152E+0	1.266608E+0	1.346422E+0	1.127467E+0	1.085527E+0	1.261259E+0	1.308249E+0	1.172509E+0	1.201273E+0	1.148338E+0	1.333035E+0	1.246348E+0	1.288759E+0	1.270063E+0	1.275275E+0	1.258897E+0	1.223060E+0	1.306245E+0	1.291501E+0	1.074694E+0	1.062302E+0	1.232641E+0	1.301743E+0	1.191030E+0	1.130480E+0	1.214858E+0
5.460060E+2	1.279559E+0	1.157677E+0	1.152966E+0	9.556934E-1	1.295507E+0	1.046017E+0	1.008486E+0	1.029838E+0	1.254553E+0	1.149048E+0	1.187752E+0	1.184534E+0	1.284093E+0	1.311802E+0	1.258583E+0	1.281038E+0	1.305691E+0	1.192629E+0	1.201993E+0	1.251505E+0	1.262652E+0	1.086171E+0	1.048766E+0	1.176489E+0	1.293886E+0	1.153138E+0	1.153727E+0	1.185611E+0	1.248592E+0	1.284973E+0	1.257595E+0	1.260747E+0	1.264679E+0	1.227082E+0	1.157793E+0	1.211865E+0	1.359390E+0	1.121942E+0	1.073179E+0	1.145270E+0	1.300419E+0	1.178559E+0	1.197785E+0	1.202313E+0	1.277776E+0	1.257718E+0	1.264998E+0	1.284344E+0	1.295812E+0	1.207816E+0	1.157580E+0	1.185540E+0	1.286531E+0	1.085222E+0	1.044537E+0	1.142490E+0	1.273134E+0	1.191116E+0	1.148739E+0	1.016712E+0	1.312969E+0	1.248743E+0	1.217293E+0	1.217470E+0	1.309468E+0	1.183393E+0	1.286592E+0	1.253344E+0	1.255420E+0	1.118334E+0	1.171775E+0	1.142807E+0	1.187153E+0	1.191514E+0	1.273602E+0	1.146177E+0	1.269754E+0	1.268629E+0	1.268440E+0	1.257645E+0	1.315495E+0	1.204932E+0	1.223627E+0	1.228778E+0	1.318649E+0	1.164223E+0	1.104605E+0	1.150902E+0	1.282692E+0	1.204678E+0	1.143094E+0	1.244415E+0	1.283239E+0	1.259904E+0	1.201705E+0	1.243923E+0	1.259869E+0	1.129086E+0	1.194454E+0	1.236221E+0	1.299498E+0	1.063593E+0	1.056504E+0	1.168626E+0	1.267088E+0	1.188695E+0	1.197190E+0	1.169306E+0	1.338798E+0	1.234500E+0	1.275802E+0	1.268626E+0	1.294136E+0	1.159839E+0	1.197851E+0	1.291104E+0	1.310012E+0	1.013151E+0	1.050972E+0	1.228195E+0	1.250513E+0	1.144941E+0	1.168407E+0	1.241456E+0	1.289040E+0	1.246038E+0	1.283564E+0	1.262617E+0	1.236767E+0	1.225826E+0	1.280085E+0	1.310593E+0	1.298956E+0	1.085823E+0	1.206761E+0	1.195810E+0	1.284163E+0	1.198149E+0	1.248650E+0	1.237093E+0	1.286867E+0	1.226695E+0	1.324869E+0	1.245321E+0	1.251674E+0	1.244275E+0	1.208696E+0	1.256812E+0	1.302258E+0	1.062452E+0	1.049298E+0	1.288526E+0	1.257505E+0	1.141088E+0	1.165192E+0	1.082569E+0	1.290198E+0	1.255124E+0	1.201315E+0	1.223056E+0	1.228248E+0	1.206484E+0	1.139829E+0	1.294662E+0	1.282449E+0	1.016048E+0	1.045323E+0	1.227017E+0	1.256196E+0	1.182866E+0	1.221266E+0	1.096805E+0
5.467770E+2	1.296616E+0	1.251704E+0	1.235235E+0	1.030228E+0	1.300394E+0	1.207778E+0	1.073229E+0	1.103421E+0	1.287674E+0	1.252428E+0	1.164461E+0	1.165772E+0	1.268468E+0	1.292966E+0	1.245510E+0	1.266891E+0	1.263991E+0	1.210418E+0	1.177627E+0	1.268581E+0	1.318915E+0	1.128282E+0	1.095971E+0	1.174155E+0	1.297331E+0	1.243322E+0	1.182143E+0	1.187990E+0	1.260141E+0	1.296310E+0	1.236196E+0	1.222533E+0	1.282851E+0	1.239908E+0	1.174700E+0	1.253333E+0	1.282075E+0	1.107946E+0	1.077983E+0	1.120305E+0	1.306518E+0	1.189918E+0	1.200705E+0	1.189762E+0	1.299973E+0	1.242197E+0	1.246241E+0	1.291627E+0	1.253489E+0	1.231419E+0	1.189727E+0	1.233907E+0	1.303855E+0	1.041666E+0	1.108766E+0	1.175140E+0	1.291360E+0	1.223629E+0	1.195335E+0	1.087666E+0	1.261307E+0	1.274498E+0	1.253500E+0	1.210120E+0	1.241577E+0	1.237694E+0	1.262602E+0	1.284848E+0	1.258420E+0	1.148211E+0	1.219957E+0	1.208683E+0	1.252229E+0	1.176077E+0	1.284646E+0	1.259321E+0	1.306355E+0	1.282163E+0	1.231298E+0	1.265431E+0	1.231719E+0	1.212596E+0	1.153669E+0	1.227027E+0	1.306328E+0	1.146841E+0	1.051464E+0	1.156984E+0	1.285941E+0	1.197520E+0	1.238792E+0	1.171015E+0	1.310644E+0	1.268022E+0	1.248829E+0	1.273246E+0	1.287929E+0	1.201388E+0	1.184094E+0	1.232446E+0	1.261636E+0	1.068923E+0	1.066553E+0	1.178088E+0	1.266488E+0	1.159426E+0	1.216322E+0	1.201789E+0	1.319610E+0	1.303387E+0	1.279398E+0	1.287120E+0	1.262039E+0	1.218018E+0	1.187929E+0	1.262940E+0	1.344547E+0	1.042124E+0	1.072906E+0	1.230226E+0	1.263869E+0	1.141460E+0	1.061874E+0	1.254956E+0	1.267466E+0	1.295359E+0	1.258621E+0	1.305148E+0	1.297170E+0	1.210257E+0	1.246988E+0	1.226463E+0	1.379838E+0	1.071542E+0	1.198986E+0	1.243068E+0	1.297600E+0	1.214547E+0	1.198761E+0	1.214862E+0	1.266833E+0	1.237086E+0	1.312694E+0	1.312017E+0	1.275681E+0	1.206507E+0	1.173119E+0	1.276402E+0	1.330264E+0	1.101855E+0	1.038293E+0	1.295616E+0	1.287274E+0	1.145318E+0	1.130915E+0	1.228433E+0	1.268522E+0	1.258047E+0	1.279679E+0	1.286745E+0	1.275275E+0	1.165718E+0	1.113934E+0	1.205412E+0	1.281241E+0	1.078918E+0	1.097674E+0	1.261385E+0	1.335903E+0	1.139715E+0	1.130480E+0	1.226664E+0
5.475180E+2	1.375812E+0	1.433842E+0	1.323523E+0	1.046791E+0	1.380553E+0	1.412996E+0	1.146311E+0	1.137025E+0	1.388846E+0	1.383453E+0	1.267851E+0	1.198455E+0	1.418401E+0	1.387595E+0	1.374357E+0	1.362159E+0	1.435923E+0	1.386090E+0	1.293508E+0	1.361278E+0	1.378928E+0	1.414004E+0	1.178363E+0	1.332815E+0	1.374806E+0	1.410807E+0	1.242381E+0	1.314111E+0	1.399576E+0	1.472717E+0	1.352109E+0	1.339867E+0	1.428224E+0	1.448982E+0	1.306569E+0	1.341225E+0	1.408099E+0	1.348443E+0	1.167981E+0	1.180797E+0	1.369969E+0	1.405205E+0	1.302897E+0	1.267461E+0	1.416166E+0	1.355682E+0	1.336450E+0	1.387735E+0	1.382816E+0	1.377751E+0	1.291077E+0	1.345475E+0	1.437291E+0	1.218096E+0	1.155671E+0	1.292093E+0	1.408529E+0	1.264411E+0	1.279527E+0	1.202012E+0	1.428962E+0	1.368649E+0	1.352620E+0	1.288506E+0	1.408791E+0	1.366523E+0	1.390936E+0	1.349823E+0	1.407844E+0	1.194108E+0	1.320412E+0	1.290272E+0	1.364232E+0	1.291846E+0	1.392761E+0	1.324347E+0	1.372804E+0	1.384834E+0	1.410736E+0	1.398671E+0	1.402994E+0	1.348195E+0	1.346347E+0	1.401395E+0	1.406861E+0	1.232790E+0	1.177794E+0	1.265972E+0	1.407467E+0	1.307880E+0	1.288580E+0	1.330989E+0	1.401995E+0	1.387894E+0	1.309068E+0	1.367675E+0	1.460400E+0	1.286035E+0	1.326690E+0	1.365183E+0	1.416874E+0	1.148913E+0	1.190341E+0	1.300103E+0	1.375174E+0	1.268464E+0	1.275514E+0	1.289495E+0	1.478199E+0	1.370386E+0	1.415204E+0	1.326544E+0	1.346775E+0	1.300597E+0	1.345511E+0	1.326156E+0	1.429310E+0	1.116162E+0	1.202749E+0	1.318699E+0	1.387251E+0	1.275492E+0	1.229205E+0	1.292884E+0	1.414096E+0	1.389733E+0	1.360204E+0	1.396361E+0	1.416717E+0	1.306073E+0	1.343158E+0	1.379029E+0	1.364069E+0	1.212124E+0	1.248065E+0	1.284856E+0	1.389740E+0	1.283077E+0	1.343774E+0	1.353481E+0	1.420437E+0	1.378771E+0	1.399570E+0	1.384995E+0	1.380379E+0	1.316610E+0	1.285275E+0	1.350840E+0	1.439059E+0	1.151602E+0	1.135512E+0	1.348513E+0	1.399586E+0	1.213597E+0	1.274037E+0	1.358669E+0	1.437799E+0	1.353098E+0	1.354223E+0	1.422203E+0	1.341385E+0	1.275722E+0	1.271150E+0	1.362111E+0	1.360906E+0	1.152109E+0	1.178322E+0	1.336370E+0	1.512395E+0	1.193362E+0	1.255047E+0	1.244372E+0
5.482820E+2	1.399571E+0	1.403595E+0	1.373018E+0	1.212422E+0	1.407432E+0	1.443416E+0	1.142387E+0	1.181638E+0	1.405105E+0	1.468588E+0	1.320118E+0	1.301344E+0	1.441357E+0	1.451126E+0	1.360351E+0	1.358387E+0	1.435922E+0	1.438346E+0	1.310744E+0	1.389330E+0	1.447851E+0	1.478756E+0	1.219332E+0	1.287085E+0	1.444821E+0	1.406709E+0	1.250908E+0	1.363490E+0	1.393804E+0	1.465008E+0	1.375293E+0	1.372235E+0	1.458319E+0	1.459019E+0	1.329112E+0	1.434066E+0	1.445191E+0	1.457447E+0	1.187641E+0	1.269130E+0	1.407185E+0	1.441988E+0	1.378810E+0	1.256105E+0	1.451119E+0	1.441039E+0	1.375748E+0	1.431906E+0	1.436901E+0	1.458590E+0	1.309056E+0	1.394488E+0	1.427455E+0	1.431920E+0	1.166235E+0	1.319383E+0	1.424153E+0	1.417610E+0	1.295941E+0	1.141027E+0	1.449730E+0	1.439705E+0	1.448119E+0	1.366403E+0	1.400618E+0	1.424015E+0	1.440712E+0	1.427929E+0	1.436329E+0	1.377260E+0	1.353595E+0	1.328790E+0	1.451833E+0	1.398243E+0	1.421824E+0	1.389372E+0	1.408439E+0	1.460439E+0	1.453246E+0	1.443086E+0	1.384378E+0	1.390053E+0	1.354055E+0	1.440468E+0	1.408830E+0	1.304256E+0	1.154018E+0	1.294975E+0	1.445159E+0	1.374098E+0	1.326730E+0	1.303384E+0	1.393931E+0	1.412729E+0	1.367849E+0	1.453159E+0	1.401541E+0	1.292502E+0	1.310848E+0	1.360152E+0	1.393617E+0	1.159579E+0	1.163392E+0	1.287652E+0	1.375775E+0	1.308638E+0	1.301821E+0	1.260260E+0	1.412541E+0	1.407659E+0	1.428248E+0	1.433624E+0	1.377588E+0	1.348768E+0	1.360687E+0	1.395003E+0	1.482677E+0	1.151112E+0	1.158002E+0	1.377171E+0	1.381524E+0	1.296963E+0	1.263101E+0	1.350741E+0	1.402323E+0	1.401589E+0	1.376981E+0	1.365172E+0	1.419861E+0	1.285712E+0	1.406234E+0	1.439300E+0	1.419005E+0	1.159907E+0	1.303947E+0	1.294310E+0	1.407015E+0	1.408422E+0	1.363730E+0	1.356097E+0	1.428660E+0	1.377355E+0	1.428347E+0	1.371463E+0	1.413722E+0	1.312769E+0	1.269597E+0	1.345616E+0	1.405127E+0	1.168349E+0	1.168074E+0	1.351780E+0	1.421914E+0	1.265561E+0	1.227131E+0	1.356064E+0	1.401673E+0	1.417927E+0	1.398187E+0	1.445963E+0	1.395909E+0	1.263427E+0	1.289645E+0	1.413890E+0	1.433934E+0	1.187770E+0	1.216523E+0	1.348868E+0	1.483928E+0	1.270335E+0	1.248712E+0	1.403744E+0
5.490160E+2	1.473283E+0	1.379266E+0	1.399103E+0	1.224844E+0	1.497369E+0	1.467561E+0	1.189962E+0	1.157304E+0	1.455689E+0	1.468591E+0	1.340567E+0	1.307397E+0	1.497033E+0	1.499316E+0	1.494800E+0	1.420641E+0	1.489169E+0	1.441682E+0	1.347588E+0	1.493616E+0	1.452540E+0	1.484641E+0	1.236255E+0	1.302017E+0	1.474662E+0	1.509780E+0	1.286141E+0	1.368844E+0	1.468853E+0	1.490859E+0	1.415861E+0	1.410899E+0	1.487281E+0	1.506965E+0	1.385469E+0	1.420448E+0	1.495243E+0	1.464236E+0	1.215599E+0	1.278731E+0	1.509684E+0	1.482559E+0	1.357204E+0	1.361295E+0	1.501656E+0	1.545797E+0	1.457023E+0	1.428993E+0	1.443368E+0	1.483372E+0	1.370082E+0	1.434472E+0	1.505642E+0	1.511994E+0	1.167503E+0	1.308661E+0	1.471020E+0	1.465001E+0	1.339363E+0	1.203185E+0	1.525197E+0	1.473453E+0	1.450386E+0	1.384038E+0	1.477936E+0	1.473525E+0	1.471893E+0	1.457462E+0	1.444324E+0	1.510186E+0	1.389959E+0	1.320174E+0	1.508775E+0	1.489754E+0	1.401478E+0	1.380267E+0	1.451293E+0	1.526244E+0	1.458168E+0	1.451330E+0	1.452020E+0	1.389463E+0	1.416305E+0	1.465540E+0	1.528584E+0	1.447669E+0	1.242588E+0	1.364674E+0	1.457506E+0	1.460004E+0	1.332549E+0	1.347928E+0	1.460565E+0	1.474337E+0	1.449952E+0	1.437256E+0	1.492565E+0	1.471788E+0	1.290736E+0	1.421171E+0	1.479078E+0	1.322666E+0	1.245610E+0	1.414648E+0	1.411200E+0	1.413084E+0	1.335903E+0	1.307037E+0	1.503957E+0	1.450128E+0	1.458826E+0	1.413668E+0	1.522668E+0	1.446360E+0	1.381697E+0	1.331163E+0	1.467502E+0	1.247224E+0	1.239594E+0	1.369035E+0	1.412690E+0	1.389216E+0	1.294844E+0	1.339813E+0	1.446461E+0	1.455655E+0	1.417797E+0	1.412429E+0	1.472713E+0	1.371348E+0	1.446826E+0	1.508990E+0	1.468855E+0	1.217035E+0	1.352540E+0	1.317692E+0	1.401898E+0	1.384992E+0	1.371047E+0	1.410369E+0	1.362388E+0	1.434026E+0	1.462656E+0	1.451691E+0	1.513083E+0	1.363340E+0	1.270200E+0	1.444215E+0	1.447676E+0	1.231392E+0	1.180457E+0	1.419946E+0	1.455742E+0	1.292752E+0	1.341388E+0	1.390578E+0	1.471344E+0	1.413537E+0	1.429243E+0	1.427763E+0	1.425215E+0	1.362430E+0	1.389522E+0	1.415252E+0	1.468936E+0	1.200436E+0	1.240104E+0	1.394484E+0	1.534218E+0	1.273833E+0	1.312052E+0	1.397843E+0
5.497630E+2	1.473284E+0	1.462774E+0	1.425857E+0	1.117184E+0	1.509585E+0	1.478666E+0	1.147293E+0	1.167732E+0	1.451472E+0	1.439843E+0	1.399081E+0	1.329186E+0	1.498010E+0	1.430532E+0	1.395366E+0	1.406492E+0	1.460300E+0	1.483936E+0	1.296482E+0	1.458857E+0	1.476922E+0	1.539434E+0	1.243382E+0	1.288951E+0	1.472940E+0	1.465270E+0	1.329332E+0	1.374196E+0	1.490613E+0	1.469995E+0	1.392676E+0	1.433828E+0	1.454343E+0	1.426680E+0	1.306008E+0	1.396927E+0	1.508649E+0	1.445995E+0	1.162302E+0	1.296973E+0	1.408404E+0	1.507981E+0	1.388154E+0	1.342170E+0	1.516298E+0	1.472564E+0	1.427104E+0	1.423167E+0	1.439253E+0	1.467440E+0	1.364088E+0	1.417706E+0	1.491129E+0	1.495275E+0	1.213137E+0	1.276500E+0	1.403972E+0	1.391158E+0	1.339364E+0	1.214325E+0	1.472013E+0	1.445477E+0	1.418700E+0	1.302224E+0	1.440224E+0	1.483106E+0	1.461700E+0	1.423988E+0	1.437331E+0	1.452599E+0	1.368140E+0	1.327775E+0	1.402403E+0	1.490858E+0	1.436354E+0	1.413430E+0	1.473445E+0	1.462305E+0	1.448770E+0	1.486126E+0	1.474979E+0	1.388877E+0	1.360576E+0	1.443384E+0	1.431501E+0	1.443326E+0	1.205764E+0	1.373095E+0	1.432161E+0	1.501763E+0	1.339662E+0	1.349810E+0	1.447670E+0	1.513021E+0	1.428090E+0	1.420355E+0	1.474087E+0	1.480015E+0	1.319377E+0	1.418654E+0	1.418497E+0	1.447537E+0	1.262968E+0	1.333970E+0	1.458037E+0	1.449815E+0	1.323348E+0	1.376553E+0	1.403952E+0	1.418984E+0	1.490306E+0	1.472075E+0	1.453337E+0	1.392559E+0	1.453483E+0	1.451962E+0	1.422505E+0	1.495553E+0	1.213714E+0	1.351748E+0	1.438766E+0	1.501781E+0	1.295919E+0	1.371956E+0	1.421449E+0	1.444275E+0	1.330730E+0	1.488988E+0	1.467682E+0	1.519862E+0	1.427465E+0	1.379031E+0	1.425109E+0	1.420545E+0	1.310267E+0	1.339580E+0	1.442209E+0	1.441218E+0	1.407633E+0	1.369829E+0	1.462563E+0	1.460000E+0	1.443288E+0	1.416409E+0	1.450398E+0	1.404309E+0	1.319645E+0	1.441602E+0	1.442290E+0	1.309213E+0	1.144685E+0	1.425944E+0	1.450330E+0	1.319340E+0	1.275239E+0	1.365832E+0	1.454315E+0	1.423776E+0	1.409654E+0	1.433325E+0	1.436801E+0	1.354665E+0	1.351298E+0	1.458171E+0	1.430915E+0	1.174630E+0	1.182568E+0	1.333870E+0	1.483928E+0	1.189865E+0	1.339498E+0	1.403745E+0
5.505060E+2	1.388605E+0	1.389129E+0	1.298775E+0	1.208280E+0	1.406455E+0	1.422173E+0	1.161026E+0	1.154407E+0	1.365359E+0	1.375159E+0	1.293416E+0	1.245057E+0	1.362727E+0	1.369637E+0	1.355217E+0	1.338107E+0	1.358938E+0	1.386091E+0	1.254883E+0	1.303952E+0	1.370019E+0	1.416269E+0	1.152084E+0	1.267487E+0	1.357015E+0	1.392656E+0	1.283870E+0	1.279607E+0	1.387141E+0	1.377936E+0	1.374847E+0	1.355153E+0	1.307840E+0	1.390997E+0	1.206258E+0	1.397546E+0	1.379945E+0	1.417154E+0	1.167981E+0	1.201440E+0	1.358989E+0	1.418731E+0	1.326840E+0	1.324239E+0	1.422306E+0	1.368780E+0	1.346721E+0	1.364920E+0	1.376940E+0	1.421414E+0	1.302520E+0	1.415126E+0	1.385785E+0	1.398921E+0	1.104118E+0	1.198041E+0	1.430009E+0	1.407692E+0	1.221812E+0	1.115813E+0	1.361597E+0	1.425051E+0	1.361673E+0	1.289485E+0	1.397474E+0	1.363861E+0	1.373543E+0	1.379359E+0	1.389852E+0	1.392412E+0	1.240865E+0	1.269497E+0	1.393015E+0	1.415329E+0	1.348583E+0	1.359460E+0	1.393510E+0	1.400704E+0	1.395971E+0	1.415612E+0	1.431543E+0	1.335816E+0	1.356427E+0	1.364655E+0	1.380247E+0	1.375237E+0	1.170802E+0	1.283750E+0	1.406816E+0	1.388416E+0	1.258190E+0	1.277664E+0	1.356319E+0	1.386464E+0	1.335301E+0	1.391532E+0	1.416597E+0	1.370681E+0	1.298658E+0	1.350712E+0	1.379554E+0	1.417768E+0	1.172070E+0	1.266736E+0	1.389586E+0	1.345939E+0	1.314976E+0	1.314833E+0	1.390318E+0	1.407660E+0	1.376534E+0	1.369377E+0	1.382724E+0	1.409450E+0	1.374694E+0	1.329911E+0	1.390065E+0	1.403121E+0	1.131685E+0	1.304464E+0	1.385339E+0	1.401403E+0	1.219521E+0	1.321170E+0	1.355248E+0	1.419137E+0	1.343878E+0	1.382655E+0	1.371417E+0	1.393504E+0	1.340037E+0	1.360194E+0	1.445965E+0	1.406710E+0	1.248068E+0	1.268442E+0	1.324474E+0	1.372104E+0	1.301866E+0	1.326673E+0	1.383448E+0	1.370270E+0	1.391273E+0	1.314432E+0	1.316360E+0	1.424794E+0	1.260553E+0	1.380224E+0	1.378200E+0	1.333347E+0	1.146979E+0	1.315792E+0	1.373200E+0	1.329610E+0	1.251184E+0	1.369088E+0	1.363483E+0	1.406224E+0	1.338456E+0	1.370145E+0	1.382278E+0	1.383784E+0	1.314923E+0	1.376418E+0	1.382029E+0	1.399371E+0	1.186811E+0	1.321373E+0	1.410864E+0	1.358968E+0	1.261381E+0	1.397841E+0
5.512620E+2	1.345352E+0	1.327320E+0	1.279379E+0	9.515528E-1	1.324831E+0	1.383058E+0	1.056061E+0	1.128335E+0	1.330430E+0	1.349727E+0	1.232062E+0	1.203901E+0	1.308516E+0	1.396360E+0	1.318337E+0	1.297076E+0	1.308256E+0	1.332165E+0	1.261420E+0	1.284437E+0	1.357362E+0	1.365552E+0	1.147632E+0	1.207287E+0	1.346111E+0	1.407296E+0	1.199192E+0	1.294479E+0	1.358277E+0	1.364334E+0	1.301283E+0	1.316942E+0	1.353832E+0	1.409399E+0	1.197243E+0	1.249620E+0	1.334364E+0	1.393400E+0	1.114683E+0	1.187036E+0	1.312008E+0	1.425762E+0	1.238078E+0	1.226220E+0	1.356181E+0	1.333859E+0	1.342255E+0	1.331430E+0	1.328735E+0	1.329366E+0	1.222422E+0	1.311941E+0	1.352075E+0	1.334686E+0	1.151023E+0	1.193171E+0	1.347341E+0	1.362502E+0	1.192688E+0	1.124608E+0	1.363620E+0	1.357989E+0	1.348999E+0	1.288016E+0	1.358502E+0	1.379831E+0	1.321973E+0	1.366233E+0	1.338879E+0	1.373796E+0	1.232684E+0	1.250745E+0	1.389888E+0	1.356897E+0	1.359046E+0	1.325647E+0	1.355469E+0	1.376434E+0	1.338244E+0	1.311678E+0	1.339698E+0	1.302798E+0	1.221848E+0	1.382150E+0	1.332446E+0	1.393105E+0	1.132576E+0	1.244456E+0	1.384721E+0	1.256579E+0	1.244611E+0	1.295230E+0	1.316555E+0	1.370700E+0	1.306642E+0	1.300582E+0	1.311883E+0	1.301318E+0	1.217611E+0	1.321147E+0	1.308154E+0	1.383552E+0	1.157451E+0	1.276696E+0	1.300715E+0	1.330444E+0	1.219910E+0	1.271954E+0	1.327689E+0	1.311878E+0	1.302781E+0	1.343091E+0	1.296704E+0	1.324996E+0	1.269636E+0	1.291104E+0	1.322048E+0	1.329541E+0	1.160198E+0	1.263278E+0	1.358630E+0	1.344539E+0	1.228667E+0	1.267171E+0	1.323860E+0	1.317649E+0	1.244110E+0	1.329252E+0	1.354427E+0	1.385122E+0	1.348155E+0	1.372749E+0	1.364574E+0	1.305402E+0	1.205304E+0	1.239091E+0	1.378863E+0	1.389676E+0	1.291223E+0	1.286787E+0	1.341323E+0	1.312650E+0	1.327638E+0	1.298485E+0	1.347703E+0	1.326212E+0	1.208092E+0	1.290767E+0	1.311412E+0	1.343196E+0	1.113501E+0	1.279799E+0	1.398910E+0	1.383388E+0	1.204881E+0	1.277272E+0	1.337678E+0	1.361385E+0	1.342279E+0	1.279160E+0	1.292995E+0	1.286075E+0	1.226143E+0	1.366880E+0	1.330729E+0	1.377789E+0	1.114181E+0	1.311375E+0	1.334006E+0	1.372963E+0	1.143147E+0	1.226664E+0
5.520040E+2	1.392869E+0	1.389788E+0	1.263995E+0	1.063354E+0	1.379573E+0	1.370987E+0	1.098244E+0	1.124279E+0	1.378005E+0	1.400587E+0	1.218429E+0	1.208139E+0	1.380794E+0	1.374892E+0	1.352415E+0	1.341879E+0	1.366636E+0	1.374414E+0	1.251317E+0	1.384453E+0	1.398152E+0	1.392723E+0	1.188604E+0	1.246487E+0	1.357017E+0	1.382115E+0	1.252044E+0	1.337909E+0	1.411568E+0	1.397437E+0	1.299501E+0	1.314692E+0	1.424814E+0	1.382076E+0	1.284028E+0	1.320180E+0	1.378606E+0	1.315781E+0	1.126913E+0	1.202881E+0	1.387053E+0	1.369505E+0	1.332093E+0	1.216658E+0	1.402942E+0	1.372174E+0	1.315908E+0	1.295023E+0	1.350483E+0	1.342347E+0	1.316141E+0	1.321614E+0	1.356759E+0	1.399802E+0	1.154404E+0	1.210227E+0	1.400065E+0	1.356990E+0	1.200101E+0	1.097634E+0	1.404140E+0	1.412614E+0	1.306458E+0	1.284588E+0	1.364786E+0	1.382493E+0	1.404730E+0	1.294036E+0	1.370362E+0	1.373798E+0	1.280866E+0	1.293314E+0	1.362982E+0	1.335396E+0	1.338120E+0	1.317193E+0	1.368951E+0	1.343298E+0	1.395075E+0	1.356548E+0	1.344662E+0	1.388284E+0	1.324413E+0	1.350074E+0	1.376305E+0	1.390690E+0	1.128379E+0	1.252408E+0	1.386670E+0	1.375292E+0	1.286640E+0	1.283311E+0	1.376203E+0	1.364492E+0	1.386312E+0	1.328411E+0	1.394012E+0	1.390079E+0	1.287690E+0	1.325551E+0	1.327624E+0	1.320891E+0	1.156995E+0	1.268230E+0	1.346350E+0	1.331019E+0	1.267741E+0	1.279750E+0	1.387791E+0	1.356704E+0	1.319870E+0	1.365969E+0	1.378873E+0	1.323118E+0	1.347262E+0	1.295486E+0	1.390587E+0	1.318504E+0	1.153179E+0	1.286668E+0	1.401876E+0	1.444923E+0	1.211448E+0	1.274884E+0	1.370940E+0	1.378351E+0	1.287647E+0	1.393050E+0	1.360717E+0	1.415065E+0	1.301318E+0	1.392841E+0	1.321844E+0	1.378149E+0	1.298601E+0	1.255010E+0	1.332792E+0	1.386161E+0	1.334461E+0	1.315558E+0	1.293033E+0	1.386326E+0	1.399572E+0	1.381127E+0	1.307024E+0	1.381263E+0	1.277437E+0	1.339087E+0	1.335110E+0	1.353539E+0	1.124507E+0	1.334878E+0	1.357639E+0	1.353174E+0	1.256598E+0	1.315691E+0	1.315486E+0	1.339933E+0	1.275380E+0	1.378230E+0	1.337977E+0	1.401255E+0	1.301976E+0	1.343715E+0	1.335560E+0	1.377320E+0	1.161815E+0	1.326996E+0	1.429842E+0	1.379961E+0	1.206487E+0	1.279789E+0
5.527700E+2	1.302100E+0	1.306937E+0	1.238578E+0	1.009524E+0	1.287687E+0	1.288898E+0	1.062439E+0	1.079665E+0	1.324409E+0	1.354704E+0	1.230359E+0	1.212980E+0	1.353934E+0	1.361309E+0	1.249713E+0	1.313110E+0	1.328786E+0	1.351069E+0	1.179410E+0	1.315539E+0	1.365798E+0	1.356497E+0	1.140952E+0	1.185822E+0	1.371362E+0	1.344049E+0	1.208854E+0	1.281390E+0	1.324085E+0	1.347098E+0	1.289248E+0	1.292217E+0	1.312378E+0	1.326324E+0	1.201751E+0	1.253952E+0	1.340173E+0	1.355649E+0	1.107691E+0	1.154873E+0	1.370581E+0	1.359227E+0	1.257932E+0	1.239967E+0	1.314147E+0	1.354229E+0	1.270804E+0	1.283373E+0	1.307569E+0	1.348840E+0	1.191907E+0	1.288079E+0	1.353013E+0	1.349643E+0	1.096090E+0	1.187810E+0	1.295265E+0	1.294718E+0	1.196923E+0	1.096461E+0	1.311453E+0	1.295814E+0	1.321841E+0	1.245884E+0	1.288723E+0	1.361198E+0	1.360350E+0	1.298630E+0	1.338378E+0	1.337859E+0	1.225867E+0	1.199057E+0	1.306042E+0	1.348077E+0	1.275924E+0	1.289233E+0	1.344875E+0	1.389969E+0	1.355252E+0	1.337776E+0	1.327285E+0	1.276269E+0	1.293582E+0	1.340163E+0	1.328996E+0	1.350611E+0	1.082695E+0	1.236974E+0	1.373673E+0	1.267915E+0	1.237498E+0	1.186071E+0	1.315480E+0	1.367836E+0	1.245429E+0	1.317478E+0	1.304355E+0	1.288387E+0	1.212126E+0	1.354490E+0	1.338986E+0	1.290228E+0	1.062440E+0	1.216438E+0	1.303717E+0	1.331592E+0	1.227683E+0	1.227126E+0	1.322637E+0	1.318014E+0	1.335161E+0	1.309508E+0	1.299271E+0	1.316237E+0	1.270222E+0	1.257306E+0	1.347162E+0	1.307009E+0	1.108873E+0	1.232770E+0	1.316019E+0	1.346861E+0	1.161412E+0	1.271670E+0	1.256676E+0	1.286824E+0	1.303974E+0	1.295226E+0	1.292766E+0	1.281520E+0	1.316929E+0	1.345123E+0	1.331004E+0	1.306740E+0	1.219396E+0	1.244560E+0	1.290561E+0	1.349262E+0	1.254637E+0	1.274364E+0	1.343890E+0	1.356100E+0	1.330957E+0	1.289302E+0	1.345702E+0	1.374222E+0	1.220755E+0	1.281626E+0	1.306566E+0	1.333346E+0	1.066726E+0	1.316337E+0	1.369140E+0	1.329610E+0	1.197063E+0	1.292900E+0	1.302587E+0	1.279008E+0	1.240973E+0	1.280175E+0	1.317531E+0	1.343018E+0	1.269299E+0	1.291256E+0	1.327111E+0	1.290521E+0	1.122669E+0	1.282006E+0	1.334954E+0	1.263337E+0	1.210710E+0	1.167637E+0
5.535050E+2	1.192444E+0	1.265512E+0	1.240585E+0	9.929605E-1	1.268135E+0	1.234335E+0	1.129633E+0	1.038529E+0	1.248531E+0	1.278966E+0	1.279782E+0	1.130670E+0	1.237210E+0	1.245651E+0	1.257648E+0	1.197091E+0	1.293501E+0	1.221536E+0	1.172279E+0	1.232599E+0	1.285156E+0	1.280427E+0	1.099979E+0	1.100891E+0	1.267490E+0	1.268504E+0	1.177027E+0	1.164194E+0	1.226388E+0	1.205611E+0	1.214350E+0	1.202304E+0	1.310109E+0	1.269455E+0	1.149904E+0	1.192058E+0	1.248560E+0	1.243674E+0	1.037354E+0	1.079020E+0	1.216832E+0	1.280793E+0	1.211799E+0	1.180797E+0	1.303283E+0	1.271783E+0	1.261871E+0	1.215419E+0	1.261716E+0	1.234369E+0	1.181554E+0	1.232618E+0	1.245797E+0	1.200496E+0	1.063975E+0	1.123970E+0	1.211946E+0	1.242919E+0	1.162506E+0	1.131059E+0	1.260803E+0	1.278942E+0	1.222727E+0	1.247841E+0	1.280552E+0	1.260054E+0	1.278194E+0	1.187711E+0	1.220938E+0	1.249096E+0	1.134955E+0	1.158009E+0	1.252854E+0	1.267590E+0	1.206174E+0	1.224858E+0	1.236050E+0	1.249495E+0	1.282759E+0	1.193088E+0	1.237304E+0	1.230873E+0	1.163748E+0	1.297007E+0	1.285137E+0	1.260314E+0	1.042607E+0	1.141080E+0	1.226154E+0	1.273879E+0	1.104944E+0	1.186699E+0	1.253684E+0	1.275185E+0	1.226965E+0	1.271260E+0	1.254393E+0	1.227253E+0	1.139609E+0	1.223010E+0	1.258389E+0	1.252899E+0	1.050567E+0	1.154186E+0	1.212446E+0	1.235181E+0	1.152945E+0	1.190745E+0	1.276172E+0	1.235443E+0	1.283891E+0	1.272031E+0	1.290926E+0	1.201128E+0	1.186178E+0	1.229141E+0	1.238852E+0	1.267000E+0	1.023776E+0	1.173789E+0	1.294396E+0	1.305666E+0	1.133973E+0	1.182313E+0	1.250299E+0	1.237975E+0	1.191963E+0	1.266872E+0	1.304720E+0	1.270141E+0	1.197653E+0	1.207627E+0	1.274538E+0	1.275053E+0	1.198015E+0	1.163474E+0	1.258569E+0	1.303577E+0	1.154857E+0	1.278287E+0	1.259638E+0	1.255031E+0	1.252936E+0	1.256921E+0	1.275681E+0	1.280762E+0	1.173119E+0	1.182374E+0	1.275327E+0	1.217109E+0	1.005732E+0	1.212727E+0	1.254123E+0	1.253477E+0	1.121894E+0	1.166571E+0	1.269038E+0	1.193218E+0	1.182678E+0	1.236201E+0	1.256873E+0	1.216837E+0	1.160791E+0	1.229257E+0	1.287277E+0	1.273160E+0	1.086825E+0	1.190150E+0	1.298897E+0	1.224851E+0	1.048138E+0	1.167637E+0
5.542530E+2	1.167467E+0	1.224088E+0	1.215169E+0	9.722577E-1	1.155719E+0	1.202463E+0	1.147292E+0	9.661054E-1	1.139531E+0	1.168950E+0	1.206499E+0	1.024148E+0	1.143441E+0	1.163722E+0	1.160545E+0	1.177755E+0	1.190214E+0	1.168169E+0	1.170496E+0	1.202716E+0	1.184353E+0	1.241937E+0	1.170790E+0	1.058425E+0	1.181979E+0	1.195303E+0	1.196350E+0	1.095780E+0	1.221061E+0	1.196543E+0	1.195625E+0	1.161393E+0	1.189154E+0	1.190285E+0	1.144832E+0	1.078792E+0	1.210129E+0	1.208473E+0	1.126039E+0	1.040133E+0	1.172905E+0	1.155839E+0	1.117784E+0	1.100111E+0	1.181421E+0	1.184484E+0	1.193544E+0	1.226097E+0	1.171186E+0	1.191885E+0	1.085655E+0	1.190054E+0	1.145607E+0	1.207094E+0	9.866471E-1	1.023097E+0	1.184606E+0	1.168521E+0	1.090493E+0	1.091771E+0	1.180770E+0	1.209214E+0	1.164338E+0	1.108709E+0	1.174316E+0	1.188717E+0	1.220625E+0	1.189023E+0	1.187455E+0	1.174623E+0	1.092229E+0	1.093143E+0	1.063886E+0	1.149616E+0	1.160254E+0	1.121467E+0	1.197526E+0	1.167824E+0	1.189684E+0	1.199039E+0	1.147943E+0	1.135953E+0	1.097941E+0	1.180375E+0	1.197419E+0	1.178710E+0	9.820058E-1	1.050333E+0	1.167666E+0	1.155164E+0	1.108824E+0	1.044918E+0	1.155347E+0	1.182532E+0	1.177899E+0	1.129615E+0	1.149679E+0	1.144957E+0	1.125593E+0	1.164506E+0	1.169683E+0	1.180912E+0	9.825051E-1	1.041634E+0	1.210644E+0	1.177791E+0	1.071629E+0	1.111484E+0	1.216069E+0	1.187789E+0	1.167422E+0	1.159599E+0	1.175378E+0	1.195497E+0	1.128983E+0	1.143393E+0	1.165076E+0	1.161230E+0	9.834205E-1	1.067523E+0	1.166564E+0	1.167569E+0	1.050575E+0	1.138599E+0	1.186057E+0	1.156880E+0	1.164299E+0	1.158650E+0	1.176993E+0	1.173127E+0	1.165178E+0	1.176863E+0	1.160593E+0	1.155448E+0	1.052237E+0	1.126660E+0	1.115879E+0	1.232705E+0	1.121598E+0	1.174322E+0	1.194909E+0	1.213471E+0	1.179341E+0	1.181526E+0	1.183654E+0	1.193705E+0	1.095936E+0	1.183680E+0	1.184306E+0	1.175737E+0	9.419878E-1	1.151652E+0	1.197290E+0	1.181573E+0	1.063563E+0	1.147687E+0	1.154466E+0	1.104018E+0	1.152574E+0	1.187169E+0	1.179177E+0	1.181894E+0	1.052282E+0	1.154995E+0	1.166572E+0	1.152110E+0	1.018911E+0	1.106416E+0	1.190724E+0	1.174703E+0	1.020690E+0	1.155832E+0
5.550080E+2	1.094974E+0	1.124800E+0	1.107485E+0	9.474119E-1	1.108309E+0	1.139210E+0	1.104621E+0	9.400334E-1	1.144349E+0	1.120851E+0	1.155939E+0	1.015070E+0	1.064321E+0	1.103263E+0	1.106858E+0	1.075885E+0	1.123495E+0	1.132032E+0	1.099778E+0	1.050252E+0	1.074172E+0	1.110621E+0	1.113339E+0	1.013160E+0	1.123443E+0	1.101604E+0	1.110536E+0	1.010708E+0	1.065190E+0	1.065029E+0	1.081051E+0	1.064287E+0	1.136911E+0	1.139551E+0	1.070444E+0	1.110976E+0	1.097510E+0	1.084618E+0	1.110750E+0	9.902061E-1	1.098471E+0	1.136908E+0	1.130046E+0	1.018827E+0	1.138437E+0	1.067605E+0	1.072971E+0	1.083393E+0	1.100055E+0	1.075055E+0	1.086745E+0	1.076550E+0	1.074909E+0	1.107222E+0	1.097358E+0	9.943470E-1	1.122767E+0	1.100187E+0	1.109556E+0	1.029613E+0	1.078458E+0	1.103076E+0	1.084682E+0	1.075887E+0	1.132827E+0	1.140806E+0	1.088094E+0	1.059070E+0	1.040030E+0	1.124829E+0	1.058137E+0	9.938172E-1	1.083284E+0	1.117641E+0	1.128285E+0	1.053842E+0	1.103145E+0	1.105287E+0	1.101532E+0	1.093728E+0	1.068510E+0	1.144797E+0	1.118098E+0	1.071321E+0	1.058447E+0	1.125110E+0	1.019299E+0	9.843772E-1	1.015596E+0	1.043011E+0	1.021532E+0	1.069384E+0	1.035519E+0	1.089404E+0	1.100658E+0	1.083395E+0	1.090136E+0	1.070892E+0	1.051249E+0	1.080208E+0	1.104232E+0	1.067146E+0	9.272357E-1	9.803786E-1	1.096556E+0	1.072769E+0	9.974885E-1	1.012734E+0	1.107479E+0	1.077379E+0	1.109860E+0	1.102164E+0	1.100270E+0	1.130436E+0	1.002334E+0	1.108969E+0	1.101245E+0	1.107424E+0	9.391149E-1	1.068538E+0	1.132220E+0	1.128115E+0	9.553435E-1	1.071742E+0	1.116419E+0	1.134591E+0	1.098995E+0	1.090123E+0	1.119736E+0	1.118632E+0	1.072754E+0	1.056945E+0	1.070555E+0	1.098765E+0	9.910104E-1	1.033132E+0	1.131875E+0	1.106190E+0	1.033127E+0	1.047471E+0	1.084457E+0	1.074622E+0	1.126218E+0	1.049102E+0	1.066286E+0	1.047114E+0	1.003678E+0	1.058963E+0	1.113212E+0	1.138794E+0	8.864982E-1	1.045316E+0	1.142487E+0	1.096376E+0	9.769678E-1	1.066290E+0	1.120404E+0	1.109868E+0	1.036936E+0	1.096692E+0	1.049003E+0	1.091303E+0	1.009741E+0	1.066427E+0	1.125532E+0	1.098624E+0	9.033638E-1	1.085170E+0	1.098683E+0	1.093066E+0	9.214593E-1	1.067291E+0
5.557880E+2	9.694793E-1	1.019594E+0	1.021202E+0	8.894409E-1	9.826976E-1	9.919358E-1	1.019276E+0	8.229968E-1	9.787422E-1	9.920394E-1	1.038346E+0	8.958399E-1	1.031598E+0	1.034916E+0	1.027495E+0	9.428866E-1	1.024058E+0	9.986105E-1	1.018363E+0	9.965851E-1	1.027287E+0	1.044965E+0	1.025162E+0	8.894973E-1	9.604593E-1	1.033673E+0	1.007104E+0	9.637105E-1	1.022115E+0	1.014693E+0	9.851979E-1	1.002247E+0	9.841563E-1	1.030831E+0	9.797116E-1	9.673815E-1	1.013496E+0	1.020147E+0	9.897346E-1	8.773891E-1	1.018547E+0	1.008168E+0	9.957372E-1	9.363472E-1	1.006659E+0	1.018139E+0	1.001072E+0	1.016892E+0	9.930631E-1	1.037291E+0	1.020814E+0	9.572436E-1	1.002340E+0	1.010428E+0	1.016648E+0	8.842150E-1	9.606832E-1	1.037914E+0	9.729414E-1	9.334438E-1	9.948842E-1	9.938257E-1	1.020865E+0	1.009749E+0	9.882450E-1	1.024222E+0	1.049114E+0	9.737464E-1	1.015042E+0	1.052087E+0	1.009046E+0	9.020935E-1	1.043863E+0	9.765154E-1	9.736687E-1	9.738600E-1	9.856503E-1	1.008680E+0	1.016958E+0	1.002610E+0	1.028174E+0	9.814880E-1	1.011976E+0	9.820968E-1	1.016559E+0	1.017433E+0	1.037478E+0	8.954999E-1	1.064336E+0	1.060312E+0	1.040930E+0	9.382686E-1	1.003277E+0	9.719174E-1	9.762932E-1	1.032205E+0	1.027855E+0	1.016812E+0	1.006155E+0	9.921363E-1	9.695470E-1	1.002710E+0	1.008999E+0	9.470114E-1	1.037709E+0	9.907028E-1	9.652020E-1	9.549123E-1	1.043335E+0	1.009908E+0	1.068938E+0	1.023800E+0	1.023880E+0	1.004066E+0	1.013423E+0	9.750262E-1	9.971222E-1	1.000735E+0	9.522755E-1	9.663410E-1	1.029828E+0	9.726133E-1	9.827828E-1	9.759566E-1	1.033053E+0	1.024566E+0	1.005580E+0	1.031993E+0	1.025986E+0	1.025212E+0	9.890712E-1	9.765814E-1	9.983211E-1	1.005937E+0	9.195797E-1	9.425905E-1	1.000065E+0	1.052890E+0	9.592900E-1	9.533139E-1	1.026920E+0	1.043924E+0	1.029936E+0	1.018173E+0	9.789268E-1	9.888619E-1	9.711171E-1	9.806064E-1	1.056121E+0	1.022558E+0	8.131229E-1	9.891480E-1	1.025440E+0	9.954680E-1	9.090154E-1	1.017451E+0	1.018734E+0	1.024566E+0	9.872419E-1	1.010766E+0	1.005384E+0	9.754752E-1	9.548704E-1	9.996593E-1	1.045264E+0	1.037629E+0	8.632758E-1	9.851900E-1	1.074013E+0	1.026590E+0	9.869084E-1	1.073194E+0
5.560020E+2	9.652152E-1	9.689647E-1	9.824092E-1	7.859213E-1	9.660795E-1	9.846928E-1	9.270651E-1	8.096705E-1	9.420074E-1	9.754533E-1	1.025848E+0	8.837354E-1	9.803178E-1	1.013012E+0	9.677411E-1	9.395853E-1	9.958297E-1	9.674779E-1	9.993464E-1	9.465764E-1	9.775873E-1	1.027305E+0	1.012691E+0	8.540318E-1	9.851368E-1	9.616417E-1	9.656179E-1	8.976761E-1	9.541722E-1	1.017866E+0	1.000357E+0	8.997481E-1	9.722314E-1	9.288027E-1	9.639327E-1	9.692385E-1	9.554011E-1	9.705224E-1	9.766262E-1	8.490644E-1	9.740096E-1	9.697624E-1	1.006832E+0	9.267846E-1	9.906013E-1	9.609116E-1	9.720438E-1	9.853412E-1	9.454462E-1	9.700257E-1	1.000654E+0	9.462797E-1	9.662908E-1	9.620307E-1	9.439700E-1	8.929867E-1	9.496176E-1	9.458833E-1	9.925335E-1	8.513491E-1	9.624678E-1	9.844994E-1	1.023127E+0	9.333235E-1	1.001446E+0	1.022625E+0	1.001139E+0	9.757157E-1	9.740626E-1	1.000128E+0	9.713175E-1	9.203368E-1	1.005068E+0	9.737590E-1	1.001569E+0	9.361452E-1	9.914289E-1	9.788111E-1	9.668430E-1	9.668961E-1	1.001489E+0	9.685173E-1	1.025019E+0	9.511891E-1	9.682635E-1	1.004394E+0	9.722165E-1	8.735149E-1	9.584084E-1	1.010201E+0	9.911413E-1	9.257219E-1	9.640511E-1	9.938869E-1	9.495734E-1	9.561650E-1	9.963729E-1	1.015636E+0	1.023218E+0	9.569079E-1	9.657603E-1	9.889350E-1	9.477908E-1	8.937242E-1	1.011889E+0	8.828120E-1	9.323168E-1	8.938426E-1	9.721205E-1	9.735772E-1	1.001034E+0	9.941104E-1	9.917833E-1	9.771655E-1	1.015175E+0	9.299620E-1	9.892739E-1	9.331347E-1	9.882454E-1	9.226136E-1	9.846726E-1	9.679713E-1	9.736362E-1	9.033146E-1	9.791075E-1	1.019348E+0	9.933338E-1	9.615782E-1	9.913799E-1	9.305930E-1	1.018423E+0	1.028692E+0	9.520307E-1	9.327426E-1	9.861515E-1	9.490576E-1	9.354374E-1	9.796758E-1	9.666075E-1	9.546213E-1	9.472907E-1	9.749691E-1	9.729413E-1	9.567931E-1	9.655901E-1	1.013826E+0	1.028401E+0	9.394699E-1	1.015188E+0	9.959611E-1	9.910570E-1	9.324356E-1	1.043707E+0	9.966765E-1	1.014252E+0	9.607991E-1	9.537068E-1	9.850845E-1	9.729064E-1	9.809443E-1	9.433637E-1	9.618870E-1	9.721332E-1	9.560564E-1	9.849116E-1	9.930562E-1	9.392070E-1	9.395749E-1	9.962039E-1	1.012595E+0	1.001689E+0	9.256260E-1
5.564970E+2	9.633878E-1	9.637043E-1	9.703697E-1	7.527950E-1	9.782984E-1	9.629644E-1	9.824899E-1	8.392198E-1	1.017283E+0	9.859578E-1	9.957391E-1	8.583156E-1	1.023297E+0	9.700761E-1	1.005556E+0	9.244930E-1	9.509226E-1	9.897155E-1	9.256572E-1	9.288909E-1	9.747760E-1	9.688926E-1	9.779567E-1	8.470319E-1	9.851362E-1	9.809673E-1	9.786883E-1	8.941061E-1	1.015897E+0	9.892982E-1	9.664752E-1	9.901081E-1	1.031289E+0	9.533343E-1	9.825298E-1	9.531458E-1	1.034501E+0	9.891840E-1	9.438621E-1	8.457041E-1	1.005125E+0	9.730084E-1	9.846420E-1	9.399331E-1	9.872950E-1	1.011833E+0	9.836546E-1	9.756327E-1	1.002469E+0	9.995280E-1	9.875769E-1	9.520835E-1	9.897000E-1	9.743490E-1	1.024679E+0	8.808040E-1	9.632868E-1	9.668247E-1	1.020598E+0	8.836007E-1	9.872865E-1	9.667366E-1	9.733422E-1	9.553694E-1	1.001446E+0	9.949429E-1	1.005337E+0	9.461808E-1	9.965515E-1	9.906049E-1	9.854088E-1	8.985462E-1	9.706536E-1	1.004631E+0	9.783188E-1	9.517511E-1	9.663891E-1	9.900120E-1	1.038886E+0	9.536176E-1	9.611525E-1	9.750025E-1	9.621756E-1	9.885119E-1	9.894542E-1	9.976333E-1	1.010907E+0	9.048555E-1	9.538592E-1	9.923043E-1	9.756228E-1	9.583440E-1	9.785598E-1	9.795590E-1	9.884379E-1	9.462252E-1	1.006639E+0	9.439214E-1	9.665448E-1	1.007863E+0	9.749560E-1	9.804912E-1	1.004430E+0	8.738032E-1	1.004684E+0	9.562695E-1	9.819434E-1	8.944932E-1	9.877772E-1	1.000472E+0	1.008229E+0	9.989778E-1	1.017461E+0	1.003441E+0	9.708188E-1	9.600049E-1	1.033748E+0	9.648662E-1	9.869287E-1	9.063433E-1	9.687729E-1	9.801565E-1	9.714838E-1	9.206717E-1	9.977447E-1	1.002751E+0	9.969619E-1	9.885160E-1	9.844589E-1	1.021619E+0	9.790793E-1	9.790925E-1	9.947608E-1	1.016199E+0	9.710877E-1	9.555248E-1	9.783089E-1	9.978329E-1	1.011175E+0	9.533141E-1	9.688678E-1	1.019835E+0	9.950752E-1	9.722583E-1	9.462512E-1	1.054155E+0	9.783525E-1	9.590590E-1	9.947217E-1	9.742897E-1	9.727142E-1	9.771513E-1	1.016643E+0	9.719030E-1	1.011847E+0	9.692645E-1	1.013573E+0	1.017743E+0	9.862868E-1	9.283771E-1	9.856195E-1	9.709463E-1	1.027621E+0	9.703638E-1	9.963790E-1	9.832033E-1	1.015139E+0	9.383246E-1	1.007591E+0	9.939353E-1	1.003800E+0	8.606965E-1
5.570160E+2	9.810541E-1	1.036033E+0	9.890980E-1	8.149065E-1	1.001759E+0	9.755185E-1	1.017314E+0	8.131472E-1	9.859689E-1	9.478115E-1	9.508607E-1	9.218647E-1	9.690853E-1	9.639430E-1	1.009756E+0	9.697693E-1	9.765842E-1	9.402378E-1	9.559643E-1	9.532852E-1	1.006658E+0	9.616481E-1	9.855254E-1	9.048969E-1	9.811193E-1	9.651556E-1	9.820984E-1	8.911318E-1	9.834794E-1	9.720652E-1	1.021310E+0	9.775224E-1	9.949453E-1	1.026371E+0	9.904196E-1	9.512892E-1	9.835541E-1	9.930006E-1	9.643943E-1	8.346625E-1	9.746192E-1	9.529936E-1	9.536926E-1	9.405316E-1	1.003826E+0	1.009409E+0	1.001071E+0	9.688378E-1	9.907117E-1	9.706151E-1	9.815829E-1	9.875534E-1	1.004683E+0	9.281530E-1	9.786191E-1	8.720317E-1	9.932302E-1	9.998895E-1	9.787666E-1	9.129208E-1	9.589227E-1	9.987120E-1	9.642909E-1	9.259748E-1	9.951595E-1	9.826983E-1	9.921436E-1	9.809662E-1	9.650673E-1	9.776146E-1	1.011317E+0	9.193237E-1	9.581392E-1	9.699002E-1	9.806437E-1	8.990811E-1	9.745748E-1	9.946793E-1	9.771337E-1	9.646061E-1	9.915605E-1	9.408079E-1	9.710685E-1	9.576041E-1	9.569288E-1	9.788018E-1	9.852691E-1	9.460207E-1	9.545094E-1	9.553182E-1	1.004074E+0	9.138023E-1	9.554532E-1	9.872003E-1	1.003498E+0	9.690870E-1	9.710496E-1	1.036798E+0	9.769043E-1	9.072104E-1	9.873970E-1	9.476060E-1	9.601225E-1	9.091625E-1	9.524427E-1	1.007346E+0	9.992826E-1	9.074861E-1	9.660595E-1	9.929224E-1	9.655084E-1	9.702611E-1	9.847220E-1	9.089767E-1	1.049025E+0	9.662641E-1	9.641589E-1	9.901583E-1	9.943847E-1	9.312574E-1	9.732249E-1	9.859582E-1	9.978476E-1	9.116719E-1	9.776378E-1	9.942151E-1	9.810888E-1	9.748111E-1	9.643240E-1	9.707165E-1	9.734590E-1	9.790935E-1	9.835693E-1	1.023787E+0	9.671994E-1	9.500527E-1	9.680712E-1	9.749903E-1	9.533032E-1	9.323900E-1	9.673265E-1	9.593841E-1	1.000055E+0	9.664595E-1	1.016938E+0	9.690178E-1	9.506149E-1	9.766892E-1	1.016804E+0	9.866031E-1	9.667518E-1	9.166217E-1	9.577819E-1	1.001511E+0	1.005231E+0	9.367055E-1	9.908650E-1	9.938583E-1	9.666948E-1	9.526392E-1	9.794855E-1	1.011712E+0	9.758319E-1	1.001022E+0	1.000604E+0	1.002908E+0	9.651473E-1	9.626949E-1	1.020875E+0	9.227956E-1	9.510179E-1	1.096804E+0
5.575360E+2	1.012123E+0	9.525258E-1	1.004481E+0	8.107660E-1	1.015446E+0	1.010768E+0	9.864136E-1	8.432752E-1	9.679023E-1	1.006413E+0	9.821054E-1	8.976557E-1	1.028668E+0	1.009506E+0	1.045237E+0	9.641092E-1	1.067040E+0	1.018624E+0	9.500221E-1	9.392578E-1	1.003376E+0	1.030021E+0	1.020262E+0	9.431622E-1	9.793975E-1	1.013177E+0	1.019606E+0	1.000595E+0	1.007905E+0	1.039181E+0	9.851988E-1	1.015285E+0	1.001761E+0	1.000724E+0	9.977459E-1	9.741897E-1	9.884712E-1	1.029055E+0	1.023810E+0	9.205954E-1	1.005735E+0	1.038460E+0	9.992410E-1	9.823688E-1	1.001937E+0	1.039478E+0	1.031438E+0	9.591296E-1	1.012463E+0	1.029031E+0	1.022994E+0	9.856189E-1	1.023878E+0	1.026267E+0	1.036931E+0	9.251490E-1	1.042050E+0	1.052243E+0	1.042837E+0	9.187847E-1	1.064782E+0	9.876088E-1	1.043043E+0	9.940721E-1	1.040420E+0	9.795043E-1	1.014332E+0	1.061039E+0	9.960516E-1	1.004459E+0	1.044501E+0	9.096945E-1	1.043237E+0	1.058105E+0	1.037608E+0	9.582535E-1	9.798720E-1	9.834799E-1	1.016512E+0	1.013599E+0	1.027554E+0	1.019809E+0	1.008419E+0	9.826794E-1	9.840333E-1	1.001014E+0	9.959911E-1	9.216953E-1	1.042891E+0	1.027502E+0	1.017652E+0	9.276042E-1	1.024772E+0	1.003916E+0	1.029245E+0	9.800212E-1	1.018274E+0	1.033859E+0	1.053687E+0	1.007863E+0	1.011738E+0	1.028040E+0	1.013110E+0	8.967123E-1	9.872700E-1	1.022841E+0	1.013034E+0	9.705045E-1	1.020102E+0	9.990564E-1	1.004631E+0	9.970308E-1	9.930674E-1	1.029716E+0	1.015758E+0	1.010077E+0	9.819487E-1	9.892395E-1	9.856111E-1	9.215968E-1	9.681373E-1	1.025994E+0	9.763267E-1	9.534574E-1	9.977439E-1	9.823568E-1	1.005579E+0	9.837904E-1	1.003335E+0	1.015031E+0	1.022794E+0	9.703027E-1	1.011547E+0	9.688943E-1	1.036688E+0	9.510480E-1	1.003903E+0	1.014819E+0	1.051753E+0	1.014124E+0	1.008939E+0	9.872485E-1	9.690685E-1	9.978732E-1	9.889301E-1	9.728581E-1	9.958393E-1	9.819123E-1	1.011418E+0	1.042260E+0	1.055719E+0	9.275279E-1	1.017997E+0	1.035952E+0	9.757655E-1	9.764269E-1	1.030089E+0	1.016768E+0	1.019736E+0	1.011777E+0	1.051729E+0	1.012359E+0	9.992601E-1	1.030999E+0	9.837047E-1	9.939946E-1	1.029289E+0	9.801918E-1	9.772272E-1	9.974348E-1	9.784646E-1	1.002361E+0
5.580000E+2	1.027962E+0	1.035375E+0	1.023209E+0	1.158593E+0	1.037929E+0	1.066297E+0	1.058515E+0	1.105738E+0	1.049200E+0	1.009177E+0	1.034937E+0	1.030201E+0	1.072624E+0	1.031414E+0	1.035901E+0	1.041927E+0	1.065757E+0	1.002502E+0	1.049859E+0	1.042934E+0	1.039009E+0	1.057643E+0	1.073259E+0	9.305625E-1	1.054002E+0	1.026060E+0	1.034951E+0	9.982150E-1	1.041211E+0	1.048251E+0	1.031563E+0	9.887621E-1	1.052300E+0	1.011876E+0	1.030995E+0	1.014422E+0	1.039416E+0	1.019723E+0	1.046964E+0	8.937112E-1	1.017937E+0	1.018987E+0	1.023767E+0	9.184173E-1	1.036889E+0	9.900094E-1	1.040818E+0	1.040190E+0	9.995295E-1	1.001888E+0	1.013731E+0	1.017219E+0	1.024345E+0	1.032866E+0	1.025522E+0	9.027329E-1	1.054419E+0	1.015320E+0	1.029070E+0	9.739055E-1	9.928580E-1	1.035129E+0	1.063409E+0	1.013668E+0	9.794443E-1	1.031142E+0	1.045516E+0	1.001313E+0	1.039030E+0	1.033904E+0	1.052229E+0	9.583441E-1	1.045115E+0	1.011246E+0	1.030051E+0	9.894659E-1	1.041508E+0	1.013815E+0	1.028145E+0	1.039699E+0	1.048032E+0	1.091146E+0	1.084305E+0	1.018836E+0	1.023457E+0	1.029020E+0	1.082697E+0	9.740845E-1	1.033143E+0	9.791800E-1	1.029938E+0	9.903387E-1	1.022622E+0	1.056928E+0	1.008356E+0	1.013816E+0	1.017589E+0	1.010934E+0	9.939668E-1	1.010380E+0	1.036619E+0	9.787154E-1	1.036863E+0	9.599599E-1	1.061127E+0	1.007346E+0	1.028579E+0	9.536126E-1	1.036264E+0	1.038690E+0	1.051850E+0	1.041810E+0	1.068174E+0	1.015327E+0	1.014590E+0	1.016963E+0	1.050491E+0	1.071555E+0	1.024214E+0	9.663404E-1	1.066079E+0	1.032957E+0	1.051652E+0	9.598862E-1	1.003629E+0	1.055391E+0	1.027797E+0	1.013090E+0	1.019694E+0	1.027607E+0	1.036533E+0	1.023670E+0	1.036473E+0	1.019772E+0	1.031827E+0	9.664698E-1	1.030778E+0	1.020676E+0	9.972064E-1	9.984307E-1	1.008939E+0	1.027865E+0	9.961823E-1	1.038471E+0	1.028275E+0	1.028550E+0	1.046491E+0	9.988899E-1	9.952605E-1	1.029946E+0	1.040586E+0	9.984185E-1	1.038294E+0	1.012387E+0	1.035300E+0	9.712180E-1	1.008928E+0	1.038702E+0	1.042672E+0	1.047159E+0	9.999318E-1	1.052478E+0	1.010357E+0	9.792202E-1	9.752555E-1	1.059680E+0	9.943866E-1	1.000813E+0	1.011387E+0	1.076739E+0	1.033358E+0	8.843069E-1
5.585100E+2	1.001767E+0	1.010389E+0	9.951174E-1	1.092339E+0	9.797651E-1	9.986965E-1	9.716991E-1	1.050117E+0	9.937974E-1	1.046770E+0	1.017327E+0	1.080435E+0	1.021343E+0	1.038424E+0	1.018160E+0	1.044285E+0	9.733766E-1	1.009729E+0	1.036191E+0	1.054521E+0	9.766514E-1	1.001947E+0	1.014474E+0	1.097625E+0	1.023587E+0	9.815532E-1	1.000284E+0	1.033910E+0	1.036770E+0	1.044170E+0	9.869824E-1	1.032368E+0	9.796136E-1	1.021911E+0	1.028178E+0	1.019992E+0	1.020645E+0	1.004879E+0	1.027305E+0	1.079021E+0	1.010006E+0	9.930220E-1	1.015592E+0	1.051699E+0	9.910720E-1	9.633358E-1	9.760623E-1	1.004757E+0	1.026572E+0	1.001298E+0	1.023538E+0	9.894880E-1	9.672268E-1	1.012628E+0	9.824222E-1	1.026998E+0	1.034890E+0	1.036261E+0	1.011067E+0	1.031373E+0	1.001975E+0	1.009813E+0	1.011360E+0	1.022977E+0	1.049220E+0	1.041790E+0	9.687568E-1	9.829352E-1	9.730635E-1	1.027407E+0	1.019046E+0	9.091880E-1	9.662737E-1	1.003528E+0	9.765747E-1	9.413470E-1	1.013578E+0	1.074484E+0	9.968238E-1	9.714737E-1	9.853548E-1	9.909209E-1	1.003083E+0	9.873449E-1	1.068302E+0	9.985996E-1	1.026292E+0	9.848428E-1	1.017546E+0	1.007815E+0	1.009893E+0	9.163115E-1	1.025847E+0	9.962761E-1	1.027788E+0	1.021768E+0	9.792628E-1	1.005643E+0	1.001279E+0	9.663437E-1	9.846923E-1	1.004934E+0	9.975799E-1	9.171307E-1	1.031705E+0	1.018249E+0	1.027982E+0	9.458171E-1	9.998993E-1	1.004719E+0	1.006432E+0	9.702608E-1	9.750928E-1	1.051611E+0	1.020427E+0	9.806600E-1	9.992153E-1	1.010393E+0	1.023776E+0	9.373586E-1	1.012021E+0	1.062549E+0	1.030668E+0	1.010671E+0	1.033545E+0	1.025041E+0	9.937873E-1	1.017817E+0	1.011514E+0	1.011438E+0	9.984389E-1	9.960446E-1	1.019686E+0	1.006382E+0	1.015308E+0	9.689571E-1	1.001344E+0	1.008961E+0	9.765848E-1	9.624680E-1	9.899312E-1	1.035421E+0	1.026616E+0	1.017205E+0	1.006268E+0	1.027909E+0	1.050109E+0	1.015867E+0	1.030269E+0	9.629612E-1	1.003439E+0	9.831497E-1	1.038970E+0	1.019638E+0	1.036502E+0	9.738226E-1	9.882845E-1	1.001657E+0	1.007311E+0	1.016832E+0	1.012200E+0	1.003300E+0	9.961776E-1	1.007154E+0	1.039229E+0	9.921177E-1	1.000991E+0	9.858153E-1	9.715338E-1	1.006764E+0	1.014358E+0	8.784045E-1
5.590100E+2	9.987202E-1	1.026827E+0	1.011170E+0	1.096480E+0	1.030108E+0	1.033945E+0	1.034481E+0	1.090094E+0	1.014874E+0	9.688201E-1	1.027552E+0	1.043516E+0	9.866655E-1	9.674472E-1	9.831471E-1	1.016460E+0	1.021492E+0	9.969422E-1	1.054614E+0	1.035616E+0	1.020724E+0	1.011004E+0	9.873072E-1	1.042560E+0	9.994836E-1	1.023132E+0	1.033814E+0	1.024987E+0	9.919177E-1	9.838549E-1	9.994651E-1	1.000451E+0	1.013685E+0	9.912463E-1	1.034376E+0	1.044131E+0	9.500374E-1	1.009968E+0	1.016820E+0	1.087662E+0	9.978038E-1	9.789578E-1	1.012088E+0	1.045722E+0	1.028860E+0	9.725503E-1	9.818692E-1	9.931072E-1	9.936510E-1	1.016639E+0	9.870318E-1	1.019798E+0	1.049160E+0	1.045186E+0	1.004395E+0	1.087424E+0	9.717494E-1	1.010911E+0	9.930634E-1	1.072419E+0	1.002989E+0	1.015144E+0	9.905397E-1	1.068538E+0	9.756730E-1	1.006654E+0	9.891460E-1	1.017065E+0	9.720638E-1	9.867070E-1	1.001318E+0	1.111385E+0	9.869226E-1	9.814770E-1	9.963382E-1	1.055142E+0	1.015024E+0	1.024548E+0	1.020092E+0	1.011767E+0	1.003351E+0	1.003891E+0	1.005455E+0	1.025251E+0	1.026907E+0	1.043507E+0	1.025826E+0	1.000281E+0	9.896025E-1	1.015570E+0	1.010540E+0	1.032999E+0	9.833960E-1	9.747837E-1	1.027302E+0	1.009841E+0	1.001163E+0	1.019751E+0	1.017733E+0	9.839586E-1	1.036619E+0	1.029818E+0	1.008540E+0	9.236046E-1	1.016693E+0	1.006772E+0	1.023797E+0	9.770014E-1	9.867671E-1	1.007549E+0	1.007330E+0	9.853492E-1	9.898572E-1	9.609008E-1	9.795726E-1	9.869186E-1	9.939830E-1	9.929164E-1	1.021582E+0	9.470194E-1	9.821287E-1	9.749340E-1	9.973098E-1	9.116717E-1	1.012946E+0	1.013185E+0	1.007846E+0	9.956048E-1	1.009627E+0	1.036589E+0	9.472305E-1	9.709306E-1	9.866213E-1	9.996883E-1	1.031828E+0	9.202037E-1	9.923853E-1	9.814328E-1	9.885583E-1	9.533139E-1	1.035653E+0	1.028809E+0	9.746011E-1	9.915897E-1	9.735922E-1	1.002945E+0	1.027798E+0	1.005420E+0	1.010880E+0	9.846329E-1	1.019033E+0	9.607923E-1	9.611648E-1	9.664647E-1	9.661440E-1	1.003126E+0	1.031636E+0	1.005557E+0	9.948858E-1	1.029468E+0	1.001295E+0	9.942415E-1	1.022689E+0	1.025549E+0	1.027762E+0	1.032937E+0	1.009008E+0	9.620700E-1	1.004744E+0	9.892700E-1	9.890221E-1	9.020152E-1
5.595110E+2	1.017606E+0	1.054444E+0	1.001137E+0	1.195860E+0	9.919843E-1	1.039740E+0	1.028105E+0	1.097047E+0	1.016681E+0	1.005307E+0	1.024143E+0	1.064699E+0	1.014017E+0	1.038422E+0	1.010224E+0	1.073525E+0	1.011868E+0	1.110907E+0	1.011826E+0	1.012441E+0	1.010876E+0	1.047680E+0	9.966606E-1	1.107422E+0	9.765282E-1	1.045971E+0	1.017902E+0	1.089831E+0	9.928058E-1	9.834020E-1	1.044493E+0	1.054396E+0	1.049461E+0	9.695034E-1	1.006199E+0	1.042274E+0	1.013494E+0	1.006998E+0	1.015509E+0	1.115026E+0	1.039291E+0	1.032509E+0	1.016759E+0	1.076203E+0	1.025553E+0	1.049661E+0	1.036352E+0	1.039706E+0	1.040092E+0	1.001298E+0	1.017545E+0	1.041726E+0	1.006555E+0	1.005586E+0	1.025944E+0	1.107890E+0	1.021871E+0	1.043425E+0	1.011596E+0	1.115226E+0	1.006027E+0	1.009815E+0	1.034895E+0	1.043552E+0	1.000189E+0	1.072133E+0	1.018530E+0	1.048568E+0	1.049025E+0	9.966651E-1	1.028591E+0	1.097198E+0	1.068892E+0	1.005182E+0	1.035283E+0	1.072048E+0	1.066066E+0	1.009615E+0	1.007563E+0	1.100136E+0	1.033758E+0	1.007429E+0	9.912255E-1	1.008340E+0	1.029863E+0	1.009224E+0	9.852685E-1	1.086350E+0	1.102679E+0	1.027501E+0	1.056449E+0	1.102635E+0	1.051103E+0	1.006303E+0	1.021958E+0	1.054074E+0	1.012114E+0	9.991774E-1	9.878728E-1	1.067627E+0	1.016606E+0	1.033374E+0	1.049652E+0	1.138249E+0	1.019695E+0	1.018250E+0	1.038744E+0	1.129675E+0	1.018587E+0	1.016515E+0	1.048702E+0	1.051545E+0	1.005264E+0	9.809193E-1	1.003502E+0	1.019465E+0	1.000785E+0	1.019591E+0	1.020267E+0	1.032948E+0	1.015200E+0	1.016710E+0	1.014527E+0	1.010028E+0	1.025206E+0	1.017926E+0	1.040043E+0	9.951316E-1	1.003335E+0	1.003653E+0	1.090864E+0	9.734424E-1	9.845866E-1	1.030035E+0	1.003644E+0	9.565200E-1	1.058292E+0	1.010719E+0	1.078360E+0	9.552750E-1	1.040276E+0	1.000473E+0	1.034363E+0	9.693585E-1	1.022940E+0	9.863012E-1	1.035034E+0	1.004114E+0	1.018420E+0	9.821701E-1	1.073145E+0	9.716979E-1	1.011908E+0	1.034744E+0	1.042516E+0	1.004428E+0	9.779627E-1	9.962957E-1	1.026424E+0	9.688135E-1	1.036735E+0	9.851820E-1	1.014673E+0	9.764947E-1	1.010260E+0	1.022146E+0	1.034004E+0	1.000812E+0	1.068319E+0	1.090733E+0	1.005912E+0	1.096803E+0
5.600070E+2	1.020652E+0	9.446353E-1	1.008494E+0	9.929606E-1	9.528827E-1	9.547554E-1	9.476657E-1	1.001449E+0	9.871727E-1	1.050640E+0	9.485882E-1	1.056226E+0	9.090131E-1	9.705156E-1	9.598044E-1	9.527907E-1	9.688852E-1	9.530242E-1	9.951866E-1	1.005733E+0	9.850903E-1	9.666269E-1	9.721663E-1	1.011293E+0	1.044821E+0	1.020204E+0	9.309507E-1	9.678746E-1	9.785955E-1	9.607278E-1	9.704864E-1	9.712280E-1	9.682571E-1	1.011318E+0	9.701321E-1	1.029276E+0	9.933847E-1	9.963942E-1	9.989081E-1	1.074701E+0	1.009395E+0	1.034132E+0	1.011504E+0	1.011057E+0	9.669838E-1	9.972845E-1	9.720453E-1	9.693231E-1	9.865967E-1	1.012509E+0	9.619675E-1	1.039146E+0	9.578635E-1	9.624704E-1	9.646734E-1	1.058673E+0	9.632874E-1	9.624162E-1	9.644699E-1	1.029026E+0	1.020210E+0	9.742875E-1	9.511647E-1	9.813355E-1	9.951597E-1	9.582104E-1	9.549636E-1	9.914676E-1	9.965515E-1	9.793471E-1	9.563171E-1	1.038413E+0	9.769108E-1	9.748616E-1	9.975005E-1	9.933673E-1	9.601288E-1	9.918784E-1	9.596835E-1	9.710156E-1	9.729435E-1	9.632108E-1	9.580253E-1	1.001925E+0	9.593931E-1	9.565911E-1	9.843377E-1	1.073253E+0	9.616579E-1	9.821630E-1	9.588114E-1	1.046800E+0	9.925308E-1	9.895882E-1	9.762928E-1	1.001888E+0	9.929506E-1	9.615565E-1	1.013468E+0	1.007235E+0	9.722512E-1	1.006265E+0	9.678892E-1	1.109861E+0	9.434357E-1	9.820944E-1	9.299258E-1	1.076402E+0	9.953531E-1	9.613104E-1	9.722534E-1	9.965434E-1	9.635377E-1	1.015327E+0	9.877437E-1	1.013207E+0	9.573567E-1	9.919989E-1	9.838564E-1	1.101588E+0	1.002480E+0	9.673912E-1	9.424299E-1	1.125742E+0	1.005590E+0	9.738215E-1	9.702054E-1	1.001277E+0	1.008998E+0	9.910774E-1	9.609692E-1	1.052551E+0	9.749215E-1	9.965621E-1	9.686579E-1	1.066961E+0	9.802284E-1	1.004276E+0	9.925496E-1	1.068395E+0	9.837658E-1	9.891372E-1	9.701746E-1	1.039921E+0	9.682571E-1	9.875813E-1	9.650866E-1	9.525291E-1	9.807184E-1	9.944844E-1	9.396952E-1	9.389794E-1	1.004466E+0	9.761325E-1	1.024475E+0	1.015498E+0	9.588677E-1	9.836227E-1	9.504474E-1	9.940859E-1	9.549496E-1	1.003300E+0	9.924784E-1	9.519679E-1	9.873262E-1	9.451995E-1	9.849553E-1	9.277023E-1	9.478123E-1	9.764420E-1	1.018581E+0	9.846532E-1
5.605040E+2	9.981115E-1	1.015649E+0	1.004482E+0	1.063354E+0	1.026686E+0	1.002559E+0	9.918089E-1	1.065181E+0	9.998195E-1	1.014706E+0	1.033801E+0	1.021727E+0	9.978995E-1	1.042803E+0	9.882825E-1	1.038626E+0	9.836404E-1	9.819323E-1	1.026682E+0	9.782890E-1	1.021192E+0	9.883626E-1	1.007348E+0	1.045357E+0	9.811191E-1	9.546151E-1	1.001989E+0	1.090427E+0	1.013678E+0	9.956458E-1	1.015068E+0	1.014386E+0	9.421353E-1	1.002955E+0	1.003945E+0	9.840930E-1	1.004559E+0	9.883350E-1	9.831800E-1	1.086221E+0	9.593673E-1	9.995133E-1	9.776349E-1	1.024206E+0	9.924895E-1	9.841900E-1	9.858883E-1	1.017377E+0	9.865971E-1	9.953978E-1	1.012641E+0	9.933573E-1	9.948491E-1	1.009108E+0	9.934085E-1	1.076703E+0	9.756548E-1	1.003196E+0	9.909450E-1	1.076524E+0	9.725976E-1	1.001821E+0	9.832990E-1	1.013668E+0	9.656145E-1	1.007187E+0	1.010135E+0	1.003938E+0	1.000050E+0	1.008358E+0	9.526813E-1	1.095677E+0	1.018208E+0	1.015657E+0	9.829692E-1	1.057742E+0	1.018396E+0	9.606116E-1	9.847401E-1	9.952843E-1	1.011418E+0	9.921003E-1	1.022647E+0	1.017087E+0	9.904397E-1	1.013569E+0	9.405179E-1	1.084012E+0	9.883021E-1	1.006621E+0	1.002134E+0	1.091969E+0	9.640502E-1	1.036392E+0	9.753215E-1	1.031708E+0	1.013483E+0	9.903593E-1	1.007983E+0	1.037430E+0	9.976742E-1	9.867119E-1	9.989495E-1	1.158170E+0	1.011890E+0	1.015380E+0	9.891182E-1	1.081599E+0	9.938382E-1	1.005190E+0	9.628109E-1	1.023800E+0	1.013609E+0	1.019706E+0	9.900784E-1	1.050134E+0	1.007587E+0	1.009014E+0	9.921924E-1	1.167180E+0	1.002480E+0	1.001045E+0	1.016141E+0	1.136028E+0	9.845033E-1	1.009864E+0	9.942411E-1	1.039555E+0	9.938967E-1	9.850889E-1	9.747084E-1	1.072641E+0	1.023247E+0	9.755877E-1	1.025997E+0	1.166956E+0	9.904665E-1	9.972466E-1	9.785803E-1	1.094549E+0	9.858207E-1	9.877205E-1	1.053730E+0	1.027356E+0	1.026942E+0	9.811802E-1	9.795584E-1	1.079858E+0	9.505574E-1	1.033886E+0	9.837189E-1	1.169647E+0	9.902570E-1	9.785496E-1	9.859883E-1	1.123594E+0	9.934456E-1	9.821600E-1	9.829411E-1	1.021381E+0	1.023104E+0	9.644754E-1	9.579528E-1	1.003747E+0	1.014485E+0	9.616210E-1	9.948589E-1	1.113915E+0	9.734311E-1	1.006764E+0	1.035469E+0	1.090902E+0
5.610530E+2	9.786169E-1	9.604170E-1	9.924419E-1	1.021946E+0	9.851412E-1	9.547557E-1	9.815089E-1	1.094730E+0	9.672999E-1	9.643969E-1	9.849461E-1	1.025359E+0	9.773886E-1	9.674491E-1	9.439326E-1	9.740144E-1	9.804338E-1	9.963868E-1	9.939978E-1	1.049033E+0	9.616475E-1	9.661751E-1	9.650407E-1	1.070089E+0	9.748063E-1	9.891661E-1	9.997158E-1	1.008924E+0	9.377408E-1	9.834032E-1	9.789571E-1	9.554931E-1	9.665527E-1	1.010761E+0	9.554796E-1	9.871879E-1	9.719366E-1	9.624627E-1	9.792474E-1	1.062697E+0	9.807208E-1	9.784169E-1	1.005080E+0	1.009861E+0	9.650947E-1	9.822485E-1	9.908011E-1	1.031939E+0	9.613184E-1	9.717954E-1	9.913911E-1	9.740100E-1	9.817401E-1	1.003387E+0	9.634066E-1	1.061595E+0	9.795604E-1	9.095125E-1	9.575864E-1	9.862196E-1	9.923517E-1	1.000933E+0	9.846571E-1	9.808444E-1	9.976741E-1	9.257376E-1	1.001139E+0	9.665269E-1	1.012545E+0	9.949336E-1	9.485896E-1	1.062231E+0	9.656483E-1	9.754127E-1	9.847128E-1	1.081802E+0	9.644630E-1	9.568773E-1	9.704205E-1	9.788005E-1	9.648759E-1	1.015682E+0	9.935970E-1	1.012421E+0	9.712208E-1	9.720412E-1	9.628936E-1	1.024606E+0	9.558086E-1	1.006025E+0	9.348865E-1	1.019197E+0	1.001666E+0	9.690525E-1	9.418006E-1	9.715719E-1	9.874755E-1	9.980015E-1	9.805606E-1	1.004089E+0	9.814472E-1	1.004045E+0	9.628641E-1	1.113347E+0	9.710575E-1	9.654519E-1	9.675934E-1	1.063409E+0	9.953533E-1	9.735762E-1	9.722525E-1	9.644218E-1	9.892149E-1	1.014076E+0	9.684839E-1	9.963068E-1	1.010726E+0	9.602676E-1	9.671882E-1	1.088369E+0	1.009476E+0	9.523053E-1	1.001614E+0	1.060171E+0	9.614540E-1	9.254485E-1	9.824501E-1	9.904076E-1	1.000819E+0	9.371804E-1	1.015924E+0	9.822318E-1	9.845871E-1	9.630924E-1	9.477629E-1	1.097307E+0	9.962240E-1	9.890471E-1	9.719292E-1	1.067741E+0	1.010481E+0	9.641068E-1	9.801347E-1	9.795084E-1	1.021606E+0	9.895020E-1	9.711168E-1	1.025661E+0	9.909520E-1	1.008767E+0	9.451977E-1	1.156014E+0	9.625176E-1	1.002719E+0	9.162315E-1	1.025917E+0	1.006348E+0	9.636373E-1	1.022601E+0	1.029468E+0	9.549503E-1	1.002006E+0	1.002959E+0	1.053482E+0	9.649957E-1	1.006193E+0	9.722211E-1	1.127662E+0	1.017080E+0	9.391214E-1	9.700191E-1	1.203053E+0
