Photon Energy (eV)	#1	#2	#3	#4	#5	#6	#7	#8	#9	#10	#11	#12	#13	#14	#15	#16	#17	#18	#19	#20	#21	#22	#23	#24	#25	#26	#27	#28	#29	#30	#31	#32	#33	#34	#35	#36	#37	#38	#39	#40	#41	#42	#43	#44	#45	#46	#47	#48	#49	#50	#51	#52	#53	#54	#55	#56	#57	#58	#59	#60	#61	#62	#63	#64	#65	#66	#67	#68	#69	#70	#71	#72	#73	#74	#75	#76	#77	#78	#79	#80	#81	#82	#83	#84	#85	#86	#87	#88	#89	#90	#91	#92	#93	#94	#95	#96	#97	#98	#99	#100	#101	#102	#103	#104	#105	#106	#107	#108	#109	#110	#111	#112	#113	#114	#115	#116	#117	#118	#119	#120	#121	#122	#123	#124	#125	#126	#127	#128	#129	#130	#131	#132	#133	#134	#135	#136	#137	#138	#139	#140	#141	#142	#143	#144	#145	#146	#147	#148	#149	#150	#151	#152	#153	#154	#155	#156	#157	#158	#159	#160	#161	#162	#163	#164	#165	#166	#167	#168	#169	#170	#171	
2.790030E+2	1.779915E-3	-1.954307E-2	-5.543273E-3	-4.681982E-3	2.011521E-3	-1.240098E-3	-1.252124E-2	-1.038707E-2	-8.368630E-3	-3.895348E-3	-7.208248E-3	-2.067053E-3	-7.336902E-3	7.921640E-5	-8.945159E-3	-2.699252E-3	-2.516641E-3	-3.822870E-4	-1.027396E-2	-7.884949E-4	-7.387902E-3	-1.566764E-2	-1.047425E-2	-6.818557E-3	5.349796E-3	-1.155054E-2	-8.301090E-3	-1.018031E-2	9.798218E-4	-1.204134E-3	-8.445781E-3	-5.474791E-3	-5.168172E-3	-1.355847E-3	-5.111184E-3	-5.238157E-3	-1.347616E-2	-1.209102E-3	-5.865391E-3	-1.131609E-2	-8.712560E-3	-9.788882E-3	3.698629E-3	-6.728285E-3	-9.075490E-3	-4.216596E-3	-4.764299E-3	-7.811513E-3	-8.576722E-3	-2.698679E-3	-6.342358E-3	-2.661613E-3	-3.594892E-3	-1.274488E-3	-4.565197E-3	-1.950908E-4	-1.097765E-2	-4.914352E-3	-1.435950E-2	-5.190951E-3	-5.246800E-4	-7.774767E-3	-4.376099E-3	-2.616120E-3	4.355858E-3	-4.286150E-3	-1.760107E-2	-1.066445E-2	2.204629E-3	-1.344653E-3	4.857405E-4	6.972919E-4	-1.211328E-3	7.502447E-3	2.294594E-3	5.642722E-3	1.114365E-4	-2.728385E-3	-4.028231E-3	-2.299578E-4	-9.680528E-3	4.038548E-3	-5.952861E-3	-3.220608E-3	-1.456318E-2	-5.491962E-3	1.258764E-3	-1.369281E-2	-3.279273E-3	-1.051342E-2	-6.345401E-3	-2.576488E-3	-6.744574E-3	-8.995839E-5	7.445732E-4	-4.765145E-3	-1.656923E-2	-1.073328E-2	-2.588190E-3	-5.676186E-3	-2.435818E-3	4.808116E-3	-6.817541E-4	-5.467805E-3	-3.048659E-3	-1.271955E-2	-1.313547E-4	-5.001142E-3	-1.606468E-3	-8.894466E-3	-3.875309E-3	-1.579611E-3	2.812170E-4	-3.982723E-3	-6.278888E-3	-2.980351E-4	-1.617466E-2	-5.509100E-3	-6.481469E-3	-1.199366E-2	-7.069276E-3	-1.602897E-3	3.139692E-3	-7.350240E-3	-1.105963E-2	-9.360120E-3	-1.204387E-2	-8.735367E-3	9.549761E-5	-1.022021E-2	-6.657929E-3	-3.686244E-3	2.388719E-3	-5.834100E-3	1.078362E-3	-5.574785E-3	-6.501983E-3	1.767676E-3	-7.589164E-3	-3.278526E-4	-3.399258E-3	-2.182968E-3	2.260154E-3	-3.051935E-3	-2.522009E-3	4.080319E-3	-1.256581E-2	-1.440500E-3	-9.118642E-3	-5.750717E-3	-6.226280E-3	-3.206372E-3	-1.160775E-2	-4.829186E-3	-4.013942E-3	6.118618E-3	-3.506346E-3	5.704163E-3	-1.004078E-2	3.684104E-3	-1.026769E-3	-3.944593E-3	7.318105E-4	-7.292474E-3	8.796296E-3	-1.483947E-2	1.138946E-3	6.396557E-4	-1.421930E-2	-4.661640E-3	-1.550923E-2
2.795050E+2	5.482911E-3	3.979603E-3	-4.897086E-3	4.562012E-3	-5.153840E-3	-3.226800E-3	8.834570E-3	4.386079E-3	1.742180E-3	-2.493521E-3	3.233079E-3	2.210661E-3	-1.275720E-2	4.112563E-3	-1.477700E-2	-6.416235E-3	-1.355420E-2	-7.951675E-3	1.172642E-3	-5.657972E-3	-9.114647E-3	-3.599277E-3	8.331274E-4	-1.955902E-3	1.683342E-3	-3.671202E-3	1.190897E-3	-1.279999E-2	-6.146620E-3	-7.833732E-3	7.633517E-3	-3.702465E-3	5.407679E-4	-3.789578E-3	2.360253E-3	-1.847523E-3	-1.627413E-3	-2.811584E-3	-9.747001E-3	2.103035E-3	-1.422563E-3	-6.857941E-3	-2.714700E-3	-6.094485E-3	-7.777557E-3	-5.053025E-3	-2.185792E-3	1.903589E-3	1.504459E-3	-1.276599E-3	-2.623220E-3	-2.872913E-3	3.401348E-3	-4.502126E-3	-3.224611E-3	3.986383E-4	-2.924294E-3	3.896381E-3	9.422958E-3	-7.053852E-3	7.017408E-5	-5.814636E-3	-1.142566E-2	3.971451E-3	-5.378755E-3	-7.431664E-3	5.331938E-3	4.055488E-4	-4.396732E-3	5.498506E-3	1.035639E-3	-7.079379E-3	-1.394254E-3	-6.693795E-3	2.085561E-3	-9.143278E-3	-1.154747E-2	-3.650589E-3	2.862557E-3	-2.880479E-3	3.028991E-3	5.497768E-3	-8.309705E-3	-1.789250E-3	-1.974119E-3	-9.574733E-3	-8.162656E-3	5.950008E-4	-5.332340E-3	1.458432E-2	-8.045869E-5	3.084016E-3	1.440151E-4	2.649707E-3	-6.422003E-3	-2.478997E-3	-1.214918E-2	4.756631E-3	-9.485511E-4	-6.439676E-3	-5.437031E-3	7.202589E-5	-7.292062E-3	-2.271831E-3	4.528964E-3	-3.955466E-3	4.573530E-3	-5.471278E-3	1.096861E-2	-3.214257E-3	-1.621021E-2	-6.252502E-3	-7.265204E-3	-8.628507E-4	-2.044191E-3	1.046227E-2	-3.693588E-3	-1.002993E-3	1.433724E-3	-2.801970E-3	-4.283506E-3	-5.953142E-3	-2.385269E-3	-2.166177E-3	8.077356E-3	-3.146358E-3	-1.629960E-3	4.619035E-3	-5.702520E-3	-1.992985E-3	-4.850789E-3	1.026783E-2	-1.140954E-3	-6.781902E-3	2.489909E-3	-6.504836E-3	-9.398608E-3	-3.727656E-4	-6.034810E-3	1.276828E-3	-5.039089E-3	-1.084329E-5	2.841522E-3	-6.615417E-3	-4.289530E-3	1.018724E-2	-4.227127E-3	3.940447E-3	-4.296834E-4	-8.235684E-4	-1.501943E-3	1.928690E-3	-2.034349E-5	-1.576315E-3	2.372741E-3	-3.380654E-3	3.038132E-3	-6.534747E-3	-2.196174E-3	9.277330E-3	6.463541E-4	4.471107E-3	-2.590515E-3	-8.393844E-3	2.595591E-3	-5.559415E-3	-4.392470E-3	-8.761975E-3	-3.398641E-3	-5.794284E-5	1.610035E-2
2.800020E+2	4.776731E-4	-7.914657E-3	-1.571182E-3	-7.801914E-3	5.181634E-3	-9.461384E-3	4.778614E-3	8.456642E-3	2.610501E-3	3.160290E-3	1.661978E-3	-5.885252E-3	-3.784926E-3	-3.680193E-3	6.603260E-3	-9.290932E-5	5.567611E-3	9.985841E-4	-1.055935E-3	-1.927375E-4	5.720499E-3	9.121694E-4	-1.510007E-3	-2.004449E-3	-6.960820E-3	2.682377E-3	-3.310952E-3	2.761680E-3	2.128672E-3	-1.451802E-3	-8.763712E-4	-8.228561E-3	2.992176E-3	-6.090974E-3	-6.865398E-3	9.377067E-4	-1.905921E-4	5.646933E-3	5.681419E-4	-2.224545E-3	-5.617949E-3	3.072896E-3	8.840122E-3	5.104578E-3	2.943842E-3	-5.775562E-3	-4.959263E-3	-2.367544E-3	-7.089150E-3	-7.742909E-3	6.636667E-3	-3.777923E-4	-3.030042E-3	3.000940E-3	-4.032097E-3	1.106550E-3	1.925325E-3	-4.315492E-3	-8.112597E-3	-4.582233E-3	2.359906E-3	-2.514505E-4	-1.551045E-3	-1.170032E-4	-7.082118E-4	-3.733859E-3	-5.382508E-3	-1.885016E-3	-2.049248E-3	-1.801912E-4	-2.020274E-3	-1.090488E-2	-5.547920E-3	2.272609E-3	5.188969E-3	-4.476203E-3	1.435482E-3	-5.966004E-3	2.812565E-3	-8.135754E-3	6.351892E-3	-1.994517E-3	5.665351E-3	6.853386E-3	4.698346E-3	-3.314879E-3	-2.050429E-3	1.270227E-3	5.194512E-3	-6.349596E-4	-2.907147E-3	3.844441E-4	-6.114389E-3	-9.092303E-3	5.172279E-3	-5.835651E-3	2.227645E-3	-4.635454E-3	-1.874771E-3	1.140569E-3	-1.555077E-3	-6.062662E-3	-6.536941E-3	-2.318626E-3	-4.975788E-3	2.263187E-5	6.129723E-3	3.643452E-3	-8.404254E-3	1.123246E-3	-2.628145E-3	1.435286E-3	-2.160029E-3	6.802186E-4	-5.535714E-3	-1.093371E-2	-9.810250E-4	-1.838727E-3	-3.423092E-3	-1.437469E-3	6.723227E-4	-4.319247E-3	-5.069693E-3	-1.159175E-2	-1.121422E-3	-5.298337E-3	-3.297951E-3	-1.531549E-2	-4.635697E-3	4.485974E-4	-5.858765E-3	2.783350E-3	1.459720E-3	-2.037377E-3	4.870744E-3	-8.997582E-4	6.928127E-3	-6.145598E-3	-2.356690E-6	-1.248435E-2	-1.027606E-2	7.482135E-4	-4.644920E-3	-2.465971E-3	-1.114048E-3	4.685852E-3	1.186439E-2	-1.714221E-3	-6.938680E-3	-1.736273E-3	7.436450E-3	-1.958174E-3	-1.004450E-2	9.450056E-4	1.368434E-3	-3.441618E-3	-1.224227E-2	1.201571E-3	-2.238672E-3	-4.120738E-3	-6.201969E-3	-4.195792E-3	-4.191984E-3	9.463907E-3	-1.617396E-2	-1.227999E-4	-1.152562E-2	-8.804057E-3	1.217216E-2	-9.781034E-3	1.598872E-2
2.805030E+2	3.467463E-3	1.959874E-3	1.871371E-3	6.397646E-3	-8.654411E-3	-5.010226E-3	4.029143E-3	-3.924522E-3	8.322449E-4	-8.100298E-3	3.227677E-3	-9.410164E-3	1.522825E-3	-8.137057E-4	-1.520337E-3	3.504241E-3	-2.724973E-3	2.688287E-3	-5.351609E-3	-4.033040E-3	-6.771635E-3	-5.124746E-3	4.643769E-3	-5.155083E-4	2.519158E-3	-2.878706E-3	-1.777083E-3	3.460054E-4	-3.366406E-3	-3.541302E-3	2.703080E-3	1.687535E-4	-9.568071E-3	7.482557E-3	5.875933E-5	4.536999E-3	-1.387993E-4	-1.390031E-3	-4.562436E-3	-2.174471E-3	5.178223E-3	8.193446E-4	-3.929947E-4	5.963665E-3	-1.308805E-3	-3.680707E-3	-4.226826E-3	5.039481E-4	-2.781000E-3	2.722447E-3	-2.624926E-3	-8.018957E-3	-2.190108E-3	6.084138E-3	1.039271E-2	8.008127E-3	-3.759797E-3	1.432687E-3	2.034557E-3	-6.225221E-3	2.411027E-3	9.624588E-3	-5.318731E-3	-3.430176E-3	-4.460226E-3	-4.439783E-3	6.191301E-3	4.147405E-3	8.397365E-3	-1.137584E-2	-4.972048E-3	2.737531E-3	-4.691361E-3	-9.596721E-4	4.901662E-4	2.838522E-4	-4.504483E-5	1.642993E-3	-7.694942E-3	2.366280E-3	-3.784350E-3	-3.003786E-4	2.771197E-3	-9.710804E-3	-9.572548E-3	-1.699028E-3	7.242593E-3	-7.473606E-3	4.273231E-3	-6.479367E-3	9.071031E-3	-9.209440E-3	-3.743835E-3	-4.657550E-3	-2.118915E-4	-2.457687E-3	-1.974484E-3	5.524340E-3	3.343586E-3	1.954742E-3	-3.082188E-3	3.868990E-3	2.404830E-3	-2.267922E-3	-9.677562E-3	-1.546354E-3	-1.940048E-3	-4.454719E-3	-5.352419E-3	3.365139E-3	4.602245E-3	-7.372441E-3	1.187586E-3	3.137769E-3	2.319335E-3	7.479997E-3	-9.388382E-3	5.016819E-4	3.897978E-3	7.439502E-3	-4.166244E-3	-4.284328E-3	-6.065964E-4	-9.068191E-4	-1.537080E-4	-2.843971E-4	4.100863E-3	5.349604E-3	-1.005468E-2	-2.835081E-3	3.262506E-3	-4.607188E-3	-2.609778E-3	2.820085E-3	-4.629769E-3	3.895033E-3	-8.371533E-3	-5.135782E-3	7.027200E-3	5.139934E-3	2.304434E-4	-7.022174E-3	1.108556E-2	-9.058071E-3	-8.100885E-3	-1.785247E-2	-5.874780E-3	-7.808825E-3	6.138137E-3	1.446454E-2	9.679694E-4	-4.749137E-3	-7.210799E-3	-6.744357E-3	-1.171392E-2	9.136405E-3	-3.726782E-3	-2.267259E-3	7.342763E-4	-2.977772E-4	-3.234148E-3	-6.487263E-3	5.050740E-4	-6.637037E-3	7.669761E-3	-6.343677E-5	7.996743E-3	2.086992E-3	9.135986E-3	-7.325267E-3	-1.119512E-2
2.810050E+2	-8.598038E-3	2.595791E-3	9.938852E-3	3.860254E-4	1.441638E-3	3.479221E-3	-3.418321E-3	-1.325709E-2	3.307446E-3	-1.075055E-2	-3.842358E-3	-3.381131E-3	1.094025E-2	-2.483378E-3	-6.185428E-3	-6.646379E-3	6.121193E-3	2.400400E-3	8.728732E-4	-3.484555E-3	2.331542E-3	1.492909E-3	5.841360E-3	8.467802E-3	-1.205082E-3	-8.722897E-3	-1.309498E-3	3.318527E-3	-2.230503E-3	-5.227487E-3	-3.885919E-3	5.405787E-4	-6.213097E-4	4.167236E-3	-5.552270E-3	-2.812065E-3	-4.911416E-3	1.856246E-3	6.199780E-3	1.817331E-3	3.199316E-3	-7.858795E-3	-6.835908E-3	-7.159947E-3	-1.566556E-3	-5.236083E-4	-7.859963E-3	-4.754551E-4	2.013593E-3	-1.571931E-3	-2.133116E-3	6.979828E-3	-1.680764E-3	-7.038909E-3	-4.246303E-3	-4.411217E-3	7.368293E-3	1.145570E-3	5.368102E-3	8.579654E-3	-5.667377E-3	-9.520385E-3	-4.068516E-3	1.688147E-3	-1.004165E-3	4.241481E-3	2.286303E-3	4.571110E-3	-7.042514E-3	-4.169014E-4	-8.218789E-3	7.638185E-3	8.087220E-3	-6.146329E-3	-2.970281E-3	7.729132E-4	-3.397060E-3	4.348328E-3	4.769512E-4	-4.404329E-3	3.517434E-3	2.679807E-3	-5.612617E-3	-8.358461E-3	-6.168847E-4	5.088978E-3	-3.042194E-3	-4.828156E-3	2.967454E-3	2.427865E-3	-3.175912E-3	5.315327E-3	-4.021077E-3	4.497276E-3	-5.116340E-4	-6.028813E-3	-2.263631E-3	1.334429E-3	-5.547677E-3	1.448260E-4	-7.314212E-3	-1.746531E-3	2.063929E-3	-3.242472E-3	5.121176E-3	5.603624E-4	-2.242485E-3	-6.199003E-3	-1.010766E-2	-2.013388E-3	2.834983E-3	1.152860E-2	-2.392787E-3	4.384101E-3	-8.485681E-3	-3.252289E-3	6.198187E-3	6.284679E-3	-1.324267E-3	-1.798097E-4	-5.556465E-4	7.862473E-3	-6.199336E-3	5.268798E-3	5.371363E-3	-1.282517E-3	-1.238594E-2	-4.838605E-3	1.843483E-3	-6.042362E-4	2.906353E-3	-7.393371E-3	5.436169E-3	1.052770E-2	-1.202343E-2	-6.529984E-3	-5.900204E-3	-9.209627E-3	-2.330430E-4	8.579031E-3	-8.156281E-4	4.085463E-4	-1.921273E-3	1.778539E-2	-1.942615E-3	1.797446E-3	5.733404E-3	4.720833E-3	-2.134417E-3	1.432774E-3	-5.772404E-3	-3.305005E-3	2.481029E-3	3.258664E-3	1.699841E-2	-4.647296E-3	-3.092113E-3	-8.835858E-3	-3.124193E-3	-8.530155E-3	-1.001556E-2	1.051761E-3	-3.563599E-3	6.783672E-3	-7.719497E-3	-1.116689E-3	-4.639291E-3	-4.460129E-3	-5.096003E-3	9.266596E-3	-2.427657E-3
2.815020E+2	-3.621392E-3	-1.217323E-3	8.331389E-4	3.287058E-3	-1.844734E-3	4.435351E-3	-6.504054E-3	-8.232949E-3	-1.957085E-3	1.333295E-3	-6.022781E-3	-5.983096E-3	-1.061978E-2	-3.801058E-3	5.839241E-3	2.604459E-3	4.167193E-4	9.187622E-4	2.583776E-4	3.625524E-3	6.331991E-3	8.495822E-4	-4.684352E-3	-4.275818E-3	-2.826898E-3	6.507356E-3	1.739523E-3	3.417280E-3	-7.615410E-4	5.542043E-3	-2.880331E-4	4.485867E-3	-5.309799E-4	-1.714323E-3	8.993009E-3	1.022593E-4	7.111360E-3	-9.346687E-3	-3.270744E-3	-7.311587E-3	-5.757932E-3	1.391939E-3	-7.524169E-3	4.134280E-3	7.822819E-3	9.282944E-4	1.748405E-3	-2.479882E-3	2.966142E-3	9.119046E-4	4.149664E-3	-9.064226E-3	-1.269293E-2	-3.187135E-3	-4.911914E-3	-5.853825E-3	-3.121191E-3	-3.635648E-3	9.154580E-4	6.263223E-3	3.767483E-3	8.018603E-3	-1.751539E-4	-8.287546E-3	6.641489E-3	4.341978E-3	-2.019049E-3	3.938175E-3	4.179989E-3	-7.314908E-3	4.565250E-3	1.755605E-3	3.400992E-5	1.286241E-3	-9.974739E-3	7.910332E-3	-2.535512E-3	-4.579733E-3	5.491718E-3	8.704836E-3	3.617807E-3	6.065352E-3	6.974259E-3	1.062902E-2	-5.189393E-4	-3.053574E-4	-1.416789E-3	5.497547E-3	-1.035838E-2	3.373520E-3	5.663860E-4	1.980960E-4	3.025167E-3	2.532635E-4	-4.123145E-4	-1.297695E-3	7.118677E-3	-2.444189E-3	1.399004E-3	9.359145E-3	-5.653093E-3	3.651018E-3	-3.465171E-3	6.699075E-3	-3.254788E-3	6.290951E-3	-1.103797E-2	-2.078987E-4	4.559114E-4	-4.088072E-3	-4.136703E-3	-4.728667E-3	4.315721E-3	-1.929867E-3	4.595851E-3	4.010052E-3	1.048526E-2	-5.009235E-4	-2.041080E-3	7.970648E-3	5.846885E-3	5.603680E-3	9.809945E-3	-2.897950E-4	-7.608188E-3	2.233548E-4	4.714425E-3	1.873792E-3	8.517026E-3	3.142169E-4	-2.992769E-3	-4.836575E-3	-6.974429E-3	3.432810E-3	2.285930E-3	-3.526865E-3	4.117718E-3	8.882239E-3	2.463415E-3	-1.302305E-2	6.666212E-3	5.154967E-4	-6.276930E-3	-6.667024E-3	7.777871E-3	-3.520671E-3	6.706761E-3	-3.904572E-3	3.584570E-3	-8.625245E-3	-4.024639E-3	-4.625855E-3	8.923427E-3	-6.056794E-3	-1.568850E-3	1.588295E-3	-2.948584E-3	4.651088E-3	2.766009E-3	-8.431036E-3	2.654428E-3	4.329650E-3	1.352018E-2	7.631081E-4	-1.679835E-3	-1.791194E-3	1.222297E-2	2.317586E-3	1.235382E-3	7.042015E-3	-1.589802E-2
2.820060E+2	-2.614324E-3	1.252551E-2	8.799862E-4	2.372279E-3	-1.799619E-3	-2.553038E-3	-6.472167E-3	8.641172E-4	4.630210E-3	-2.456382E-4	-1.051550E-2	2.999669E-4	6.524403E-4	6.758181E-3	9.043467E-3	4.763267E-3	-8.684723E-3	-3.159364E-3	8.236779E-3	-4.927952E-3	1.803894E-3	4.176121E-5	5.230914E-3	-3.525853E-3	-1.582373E-4	9.532674E-4	-1.178697E-3	4.266164E-3	1.374833E-3	-1.538757E-3	-7.278072E-3	7.741787E-3	-3.836090E-3	-2.423512E-3	6.605368E-4	2.971649E-3	6.445715E-3	-6.483732E-3	-2.774450E-4	5.513401E-3	-4.888215E-3	3.722341E-3	-5.478301E-4	4.973601E-3	4.297145E-3	4.372338E-3	5.882430E-3	2.482216E-3	-3.959895E-4	-5.442172E-3	-3.545701E-3	-5.172840E-4	-7.604104E-4	-8.421463E-3	4.170224E-3	-2.788720E-3	1.801801E-3	6.139965E-3	2.763118E-3	5.496271E-3	1.471406E-3	3.879998E-3	2.911782E-3	-2.186973E-3	-3.704773E-3	-2.323724E-3	5.964396E-3	8.457026E-3	-4.551141E-3	6.042226E-3	-2.867731E-3	3.313113E-3	-7.284181E-3	-8.486228E-3	3.234614E-4	1.698700E-3	7.446290E-3	2.248965E-3	5.546633E-3	-1.004676E-3	-6.488328E-3	-1.362528E-2	8.494442E-3	-5.096763E-3	3.711686E-3	-3.410577E-3	1.692953E-3	5.556478E-3	6.929504E-3	-7.477124E-3	1.514849E-3	1.115550E-3	3.846419E-3	3.949272E-3	-1.916710E-3	4.723549E-3	2.932188E-3	1.469031E-3	-1.148668E-3	2.561975E-3	6.959322E-3	-1.610865E-3	3.826554E-3	-4.509995E-3	-6.055124E-3	1.508974E-3	1.134685E-3	7.225401E-3	2.005479E-3	3.117633E-4	-3.372677E-3	1.093873E-4	1.868493E-3	-2.835757E-4	-1.270302E-2	-2.311968E-3	-3.423643E-4	-4.565516E-4	5.210920E-3	-4.442226E-3	5.711087E-3	-2.538281E-3	8.995425E-3	-2.647028E-3	-4.337053E-3	7.397069E-3	3.130841E-3	5.271970E-3	-6.510460E-3	-5.444914E-3	-5.943920E-3	-3.975235E-3	-2.708535E-3	-1.257147E-2	5.532790E-3	1.104350E-2	5.103533E-3	-6.245425E-3	7.828682E-4	3.532449E-3	-3.654133E-3	-7.217527E-3	-4.744393E-3	2.296516E-3	1.102734E-2	-8.893999E-3	2.520636E-3	-1.455015E-3	-3.674401E-4	-1.538533E-2	-8.063391E-3	-9.057478E-4	1.726354E-3	3.426281E-3	-1.089284E-2	-1.331699E-2	2.169602E-3	3.298181E-3	-3.700704E-3	5.467963E-4	1.333569E-2	1.379747E-2	2.018603E-3	8.210462E-4	-7.596796E-3	6.079514E-3	-8.048202E-5	5.239451E-3	-9.672813E-3	2.285860E-3	1.590744E-2
2.825060E+2	8.576644E-3	-3.815195E-3	-9.766642E-3	-7.658720E-3	-5.841467E-3	3.082153E-3	-3.777199E-3	-2.109580E-3	-4.383616E-3	4.166869E-3	2.662469E-3	1.235656E-2	1.758344E-3	-4.866073E-3	-1.917164E-3	-5.443915E-4	6.659284E-3	-3.985419E-4	-1.099770E-2	1.031149E-2	-2.010503E-4	1.417955E-2	-6.645409E-3	-1.755080E-3	-4.134562E-3	9.356607E-3	-3.075665E-3	5.201662E-4	-3.714059E-4	1.103164E-2	8.594805E-3	-6.696245E-3	1.001605E-2	-2.855245E-3	5.629975E-3	-6.646403E-3	-1.342096E-3	1.661199E-3	1.349611E-2	8.764942E-3	1.289733E-3	7.946741E-3	-4.868308E-3	-7.568184E-3	1.071964E-3	8.857542E-3	9.019534E-3	-2.105680E-3	5.975494E-3	6.140106E-3	-3.216174E-3	7.242107E-4	1.165402E-2	9.365793E-3	5.316428E-3	-2.087176E-4	4.654247E-3	-1.675945E-3	2.209604E-3	-9.375343E-4	1.844516E-3	-4.208207E-3	2.533459E-3	-4.974352E-4	-3.347522E-3	4.744400E-3	-5.177423E-3	-3.882893E-3	-8.274532E-3	2.221122E-3	-1.773504E-3	-3.845609E-3	-4.231694E-4	-7.834195E-4	-2.494151E-3	4.781221E-4	-2.912419E-3	-4.234914E-4	-8.223642E-3	3.276259E-3	-1.215363E-2	-6.755721E-3	-9.630259E-3	3.163791E-3	8.339254E-3	5.588432E-3	-2.669956E-4	1.705972E-2	-8.138376E-3	-6.313169E-3	2.815595E-3	-5.530466E-3	3.467216E-3	3.637908E-3	-1.015775E-2	4.602482E-4	8.419838E-3	6.510676E-3	3.509210E-3	-2.447581E-3	-5.135643E-4	-5.035834E-4	5.050352E-3	-1.350699E-3	4.675338E-3	4.319779E-3	-1.317489E-2	6.907046E-3	2.400463E-3	1.458793E-2	3.540731E-3	2.545619E-3	6.457017E-4	-3.175749E-3	9.437667E-3	-4.362152E-3	3.370823E-3	-3.965726E-3	-3.291369E-3	-7.095936E-3	-6.729324E-3	-3.068748E-3	-4.876791E-3	1.793401E-3	6.452531E-3	1.402141E-3	-3.829018E-3	-2.353588E-3	9.928079E-3	1.546693E-3	8.366319E-3	2.187228E-3	1.898931E-4	9.515389E-3	-8.416297E-3	-6.070558E-3	6.372194E-3	-5.926379E-3	-4.101681E-3	3.799440E-4	4.933780E-3	7.178777E-3	-2.126784E-3	-1.146900E-4	-1.422113E-3	-4.576069E-4	-1.386215E-3	-3.537766E-4	-2.466049E-3	1.057208E-2	-2.834688E-3	3.065077E-3	-1.510585E-3	5.578804E-3	-2.501671E-4	1.113373E-3	-5.075949E-3	-6.295214E-3	6.858200E-3	-1.136693E-3	-1.750561E-3	-7.137329E-4	-9.277458E-3	-8.099872E-3	9.872556E-3	3.344476E-3	-9.487974E-3	2.767946E-3	1.423537E-2	7.542480E-3	-1.092075E-2
2.830040E+2	-4.950851E-3	1.142947E-2	8.254836E-3	3.137597E-3	1.465928E-2	1.049482E-2	1.505065E-2	2.420437E-2	1.586750E-3	1.682490E-2	1.680369E-2	1.185950E-2	1.962495E-2	4.694448E-3	1.185912E-2	5.527199E-3	8.715729E-3	4.885834E-3	1.713853E-2	5.147740E-3	7.287309E-3	6.915688E-3	6.764850E-3	1.238337E-2	5.733304E-3	7.323733E-3	1.602256E-2	8.350475E-3	8.393148E-3	4.223533E-3	1.842774E-3	1.116508E-2	6.175626E-3	6.579686E-3	-1.736810E-4	7.995534E-3	8.129399E-3	1.207676E-2	3.458989E-3	4.827987E-3	1.673195E-2	7.552356E-3	1.034516E-2	7.374776E-3	3.592638E-3	5.091324E-3	7.345774E-3	1.035032E-2	6.383173E-3	8.957831E-3	9.699166E-3	1.580875E-2	8.893780E-3	5.973250E-3	1.100759E-3	3.944255E-3	5.033268E-3	1.926834E-3	-2.416974E-4	3.650642E-3	-5.732454E-3	6.046258E-3	2.146996E-2	1.147566E-2	7.606304E-3	8.887321E-3	1.040612E-2	-5.086902E-3	1.153218E-2	6.870638E-3	1.376572E-2	5.688138E-3	1.243098E-2	1.200815E-2	5.056420E-3	-3.167160E-3	1.144430E-2	9.107915E-3	2.756391E-3	2.307820E-3	1.559071E-2	4.394425E-3	5.600193E-3	7.529689E-3	1.049638E-2	1.311913E-2	4.744754E-3	-3.984400E-3	7.743667E-3	1.103234E-2	-1.458943E-3	7.218961E-3	1.014106E-2	-1.147614E-3	1.371545E-2	1.768019E-2	1.225818E-2	-1.782180E-3	3.856058E-3	-5.978150E-4	1.903166E-2	-2.476508E-3	4.630263E-3	1.473028E-2	1.268644E-2	5.518669E-3	1.668881E-2	3.558141E-3	9.640344E-3	-1.177894E-3	1.924509E-2	4.314325E-3	3.519301E-3	2.032676E-3	1.869464E-2	-7.941697E-4	1.052575E-2	6.487661E-3	6.018654E-3	1.254092E-2	1.057370E-2	8.300491E-3	-2.807376E-3	1.788961E-2	4.378747E-3	1.034916E-2	2.124061E-2	1.412865E-2	6.519275E-3	1.878791E-2	1.176899E-2	9.260202E-3	3.959194E-3	9.288633E-4	8.811766E-3	1.416826E-2	7.650756E-3	2.238566E-2	7.687572E-3	6.927067E-3	1.135373E-2	7.582479E-3	3.527060E-3	7.891204E-3	5.859849E-4	9.973887E-3	-2.771261E-3	8.015629E-3	1.173220E-2	5.851738E-3	2.001893E-2	1.375652E-2	1.726317E-2	5.997896E-3	7.700131E-3	6.829864E-3	2.538431E-2	9.078073E-3	1.094204E-2	9.008170E-3	5.592536E-3	-8.308607E-3	2.847887E-3	1.259149E-2	4.235878E-3	1.406902E-2	8.767183E-3	8.974530E-3	-4.392129E-3	-4.311066E-3	7.954271E-3
2.835020E+2	2.718358E-2	2.159104E-2	1.611045E-2	3.087670E-3	1.929811E-2	1.511528E-2	1.531955E-2	2.032910E-2	3.035856E-2	1.460909E-2	2.100615E-2	2.858449E-2	1.377276E-2	2.081776E-2	1.943872E-2	2.542610E-2	2.253569E-2	2.013405E-2	1.751635E-2	2.374998E-2	3.010256E-2	1.887748E-2	1.869197E-2	8.970411E-3	3.498074E-2	3.304209E-2	1.710851E-2	1.437800E-2	2.508502E-2	1.324034E-2	2.303226E-2	2.343965E-2	1.923313E-2	1.522934E-2	1.640560E-2	1.330174E-2	2.151891E-2	1.969061E-2	2.272182E-2	2.187961E-2	1.783755E-2	2.034236E-2	2.653980E-2	2.657561E-2	2.816842E-2	2.356262E-2	2.449118E-2	2.225400E-2	1.613531E-2	1.735152E-2	2.513105E-2	1.434976E-2	2.632963E-2	2.566942E-2	1.441130E-2	2.044602E-2	2.448721E-2	2.457405E-2	1.667370E-2	1.936238E-2	2.647698E-2	1.272677E-2	2.033993E-2	2.015403E-2	1.450616E-2	2.908584E-2	2.520373E-2	2.185905E-2	2.325623E-2	9.275081E-3	1.795136E-2	1.216623E-2	2.612824E-2	1.981439E-2	1.743465E-2	1.540022E-2	1.091004E-2	2.101027E-2	1.669348E-2	1.662190E-2	2.986878E-2	2.912372E-2	1.642354E-2	3.213708E-2	1.247438E-2	1.164632E-2	2.549352E-2	2.030506E-2	2.365023E-2	7.765860E-3	3.152126E-2	1.365761E-2	3.361106E-2	1.782134E-2	2.040139E-2	1.128870E-2	1.331444E-2	2.626034E-2	3.048798E-2	7.234552E-3	1.873868E-2	2.418315E-2	2.392812E-2	2.966227E-2	2.838147E-2	1.977539E-2	1.280184E-2	1.514827E-2	1.611993E-2	8.626890E-3	1.756005E-2	2.223424E-2	1.550982E-2	2.281976E-2	1.632229E-2	2.727028E-2	2.969516E-2	2.650303E-2	2.360432E-2	2.491870E-2	1.742012E-2	2.658565E-2	2.165947E-2	2.073866E-2	2.101943E-2	3.260763E-2	2.072300E-2	1.313870E-2	3.093302E-2	1.560697E-2	2.516944E-2	1.112147E-2	1.879575E-2	3.078536E-2	1.144513E-2	1.826315E-2	2.373707E-2	2.939770E-2	2.379354E-2	2.843421E-2	2.171371E-2	1.819635E-2	3.073402E-2	2.799062E-2	3.136234E-2	3.696742E-2	1.647391E-2	3.114861E-2	3.118852E-2	1.550001E-2	2.697972E-2	2.008467E-2	1.292573E-2	1.495654E-2	3.285805E-2	4.995928E-3	1.525509E-2	2.695210E-2	1.194310E-2	2.071046E-2	2.067497E-2	1.097665E-2	3.339140E-2	2.250846E-2	1.929868E-2	2.570890E-2	2.268434E-2	1.888453E-2	2.059011E-2	2.896165E-2	2.337932E-2
2.840000E+2	3.388598E-2	3.896769E-2	4.914396E-2	4.987175E-2	4.060817E-2	4.314980E-2	5.688692E-2	4.798661E-2	5.875119E-2	4.691389E-2	4.865385E-2	3.192280E-2	4.944052E-2	4.385808E-2	3.411054E-2	4.928309E-2	6.215694E-2	4.298057E-2	6.306715E-2	3.407841E-2	4.453891E-2	5.232338E-2	4.326942E-2	4.334251E-2	4.003533E-2	4.473397E-2	5.821724E-2	3.287045E-2	6.666833E-2	5.440295E-2	5.114596E-2	6.142772E-2	4.619815E-2	5.128112E-2	5.391317E-2	5.033120E-2	5.930333E-2	5.766819E-2	4.288818E-2	5.627373E-2	1.996089E-2	4.429215E-2	5.249326E-2	4.243182E-2	5.083462E-2	6.020878E-2	3.597226E-2	5.185675E-2	6.686842E-2	2.874358E-2	4.623374E-2	4.444365E-2	4.375616E-2	5.347693E-2	5.229084E-2	7.464118E-2	4.311900E-2	4.997820E-2	6.240183E-2	3.570065E-2	5.929160E-2	5.605707E-2	4.584930E-2	5.425840E-2	4.077600E-2	5.417623E-2	5.473990E-2	4.687752E-2	4.232839E-2	4.378870E-2	5.407304E-2	3.575014E-2	4.050889E-2	6.610914E-2	5.131225E-2	4.560770E-2	6.307416E-2	5.107990E-2	4.246674E-2	6.753178E-2	4.214186E-2	5.586147E-2	5.662474E-2	4.539338E-2	5.547535E-2	5.008292E-2	7.240449E-2	4.109225E-2	7.074502E-2	4.347443E-2	5.149782E-2	4.449132E-2	2.952808E-2	5.004028E-2	6.188144E-2	4.615850E-2	6.909667E-2	3.998941E-2	5.470809E-2	3.399816E-2	4.266474E-2	4.565959E-2	5.609429E-2	6.251152E-2	5.480213E-2	4.071735E-2	5.767570E-2	5.547933E-2	6.027675E-2	4.274586E-2	5.535059E-2	4.970540E-2	2.466601E-2	5.902737E-2	6.167385E-2	4.399541E-2	5.775610E-2	4.342756E-2	5.056077E-2	4.647309E-2	6.339806E-2	5.108253E-2	4.724798E-2	3.419992E-2	5.461796E-2	5.745209E-2	4.958282E-2	5.707432E-2	3.745718E-2	7.045713E-2	3.817674E-2	5.069305E-2	5.217385E-2	5.265492E-2	5.714727E-2	6.261655E-2	5.678121E-2	4.206077E-2	4.993806E-2	3.911847E-2	5.369818E-2	4.428755E-2	6.066726E-2	5.557078E-2	7.116687E-2	4.369415E-2	5.902912E-2	5.701277E-2	5.146119E-2	4.590510E-2	2.838980E-2	5.752205E-2	3.824023E-2	5.817383E-2	3.940423E-2	5.622263E-2	5.773440E-2	6.063691E-2	4.761940E-2	5.195246E-2	5.082346E-2	5.016847E-2	4.648115E-2	6.231774E-2	6.382078E-2	6.277989E-2	5.871748E-2	4.548986E-2	6.653110E-2	5.603706E-2	6.361736E-2
2.841030E+2	6.558274E-2	4.397085E-2	5.972285E-2	6.173137E-2	4.787225E-2	7.053658E-2	5.439253E-2	6.643188E-2	4.974481E-2	6.159937E-2	7.277108E-2	5.820460E-2	5.940819E-2	4.915535E-2	5.227193E-2	5.385742E-2	5.719555E-2	6.125883E-2	6.325230E-2	6.457399E-2	5.974496E-2	6.444949E-2	8.548667E-2	5.107983E-2	5.494425E-2	6.624739E-2	5.752141E-2	7.724262E-2	5.970029E-2	4.924370E-2	6.322014E-2	4.594281E-2	5.935757E-2	7.219296E-2	6.210850E-2	5.268396E-2	5.871513E-2	6.595528E-2	5.398662E-2	5.267612E-2	5.411019E-2	5.602175E-2	6.323453E-2	5.691504E-2	5.563124E-2	6.996404E-2	4.613124E-2	5.572940E-2	7.083064E-2	7.804406E-2	5.366191E-2	4.436166E-2	8.364784E-2	7.063322E-2	6.039854E-2	7.161422E-2	7.215471E-2	4.740358E-2	6.428947E-2	2.915799E-2	6.333289E-2	6.445564E-2	4.097148E-2	7.673917E-2	5.661853E-2	5.025607E-2	4.716845E-2	8.109848E-2	8.226565E-2	4.982490E-2	3.977737E-2	6.622189E-2	5.954790E-2	5.748798E-2	5.722492E-2	6.310325E-2	5.751015E-2	6.643638E-2	5.899452E-2	5.947650E-2	5.282980E-2	6.113945E-2	6.616988E-2	6.048295E-2	4.469517E-2	7.518397E-2	6.277597E-2	6.142144E-2	5.331564E-2	7.111331E-2	4.553908E-2	5.927608E-2	7.068483E-2	7.428554E-2	7.109844E-2	6.541153E-2	5.745263E-2	7.466348E-2	7.296450E-2	6.471354E-2	5.860845E-2	6.183715E-2	5.357911E-2	3.941687E-2	5.264395E-2	4.578781E-2	5.342678E-2	6.349221E-2	7.245735E-2	5.592354E-2	4.619802E-2	6.078190E-2	8.394978E-2	5.650875E-2	3.488426E-2	5.672261E-2	6.757844E-2	5.159860E-2	5.744141E-2	5.196528E-2	5.589129E-2	3.042836E-2	7.543976E-2	6.807528E-2	7.695351E-2	6.734889E-2	9.462174E-2	6.005539E-2	7.618587E-2	7.232276E-2	7.179169E-2	5.859139E-2	6.470971E-2	6.633106E-2	5.282726E-2	8.374704E-2	4.889151E-2	6.619153E-2	5.921700E-2	7.606524E-2	6.250698E-2	5.839946E-2	7.903329E-2	6.815418E-2	6.185887E-2	6.674081E-2	5.001755E-2	5.880306E-2	4.461981E-2	6.777448E-2	5.953608E-2	6.157145E-2	6.108517E-2	4.354235E-2	8.301965E-2	7.586296E-2	5.054165E-2	5.177811E-2	6.158906E-2	6.751313E-2	6.506854E-2	6.569502E-2	5.525446E-2	5.669573E-2	5.743164E-2	5.547948E-2	7.841148E-2	6.566933E-2	8.079132E-2	6.724999E-2	4.514388E-2
2.842030E+2	6.212414E-2	5.974912E-2	5.633932E-2	7.297963E-2	6.327321E-2	5.553080E-2	6.141250E-2	6.937968E-2	5.157046E-2	4.263802E-2	7.155451E-2	7.181808E-2	8.970153E-2	7.063256E-2	5.876736E-2	5.108769E-2	7.194680E-2	7.118341E-2	6.674283E-2	6.663908E-2	6.666237E-2	6.974169E-2	5.567874E-2	7.373322E-2	5.853798E-2	5.445047E-2	6.338154E-2	5.113908E-2	6.006023E-2	7.103210E-2	7.497231E-2	7.043352E-2	6.620174E-2	6.457436E-2	6.982808E-2	5.600207E-2	5.980891E-2	7.895361E-2	5.828876E-2	4.375095E-2	4.747381E-2	5.556841E-2	7.605410E-2	5.715116E-2	6.060825E-2	7.784618E-2	6.548680E-2	8.108545E-2	5.909658E-2	7.270435E-2	5.976443E-2	6.560258E-2	6.034531E-2	7.523327E-2	4.940296E-2	6.804129E-2	6.792190E-2	6.381763E-2	6.153834E-2	6.260378E-2	6.877581E-2	5.897693E-2	6.244625E-2	6.134909E-2	5.649058E-2	5.535326E-2	6.059160E-2	5.676386E-2	6.413857E-2	5.202505E-2	6.013915E-2	6.107462E-2	7.150923E-2	6.765912E-2	5.663233E-2	7.442971E-2	7.766426E-2	6.690877E-2	7.605572E-2	7.963755E-2	5.999136E-2	4.999492E-2	5.230140E-2	4.972696E-2	7.942458E-2	6.483284E-2	6.063990E-2	6.818734E-2	8.156203E-2	7.352438E-2	6.722672E-2	5.763256E-2	7.002879E-2	6.312394E-2	5.482786E-2	7.097084E-2	5.484727E-2	6.675902E-2	5.012067E-2	6.423930E-2	7.167344E-2	5.645367E-2	6.335874E-2	5.553483E-2	6.991155E-2	6.589681E-2	7.370957E-2	4.792309E-2	5.757072E-2	5.154299E-2	6.880120E-2	5.454259E-2	6.220857E-2	5.067012E-2	7.037402E-2	6.043058E-2	7.056284E-2	5.430900E-2	5.073761E-2	6.174631E-2	6.562526E-2	5.661855E-2	7.210879E-2	6.586058E-2	7.564832E-2	6.020009E-2	4.889620E-2	7.047502E-2	4.706478E-2	7.624972E-2	9.026317E-2	5.348613E-2	7.133541E-2	6.143405E-2	6.927939E-2	8.045771E-2	6.454697E-2	3.884997E-2	6.978002E-2	4.370155E-2	5.895056E-2	6.456375E-2	6.828273E-2	5.158460E-2	7.246714E-2	7.969058E-2	6.388010E-2	6.938972E-2	7.864668E-2	6.074007E-2	5.626471E-2	5.886942E-2	6.411523E-2	7.328964E-2	7.529600E-2	6.862476E-2	6.524492E-2	5.122511E-2	7.211052E-2	6.060593E-2	7.355410E-2	5.585148E-2	5.634197E-2	6.116626E-2	5.760392E-2	7.348726E-2	5.881022E-2	8.236465E-2	6.019637E-2	6.063892E-2	4.130800E-2
2.843040E+2	8.390432E-2	6.130361E-2	9.749390E-2	6.866910E-2	9.020879E-2	9.833612E-2	9.040891E-2	8.413268E-2	8.572416E-2	5.708518E-2	6.640580E-2	9.264648E-2	7.456531E-2	7.882461E-2	6.680973E-2	9.446882E-2	8.024833E-2	8.059222E-2	7.671040E-2	7.056934E-2	8.763134E-2	8.025067E-2	1.006965E-1	8.208414E-2	7.188583E-2	7.487378E-2	8.314118E-2	6.046236E-2	9.220901E-2	6.620015E-2	7.634116E-2	1.009429E-1	8.508561E-2	9.439932E-2	8.774154E-2	8.335748E-2	8.199734E-2	7.416473E-2	8.284300E-2	7.737595E-2	7.296501E-2	8.775135E-2	9.005153E-2	8.374280E-2	1.013521E-1	6.958331E-2	6.012243E-2	8.936717E-2	1.070148E-1	9.673642E-2	7.878054E-2	8.277250E-2	7.571407E-2	9.564011E-2	9.243884E-2	9.496992E-2	8.384798E-2	9.093472E-2	6.601277E-2	7.678675E-2	8.140471E-2	8.918193E-2	7.703950E-2	9.923240E-2	7.472098E-2	7.697105E-2	6.497198E-2	7.670458E-2	7.624321E-2	8.190552E-2	7.616146E-2	7.315165E-2	1.047869E-1	7.461927E-2	8.285195E-2	9.206796E-2	7.929269E-2	8.228631E-2	9.804630E-2	8.526266E-2	8.068456E-2	9.212043E-2	7.125753E-2	8.026658E-2	8.353464E-2	8.006592E-2	8.549173E-2	8.808626E-2	9.600180E-2	8.684346E-2	8.670522E-2	7.060855E-2	7.532189E-2	6.714406E-2	7.554018E-2	7.600111E-2	8.871602E-2	8.094984E-2	5.807966E-2	7.888857E-2	8.081863E-2	6.392178E-2	1.033830E-1	7.680519E-2	7.399702E-2	7.984257E-2	6.031559E-2	7.814257E-2	8.491575E-2	8.681362E-2	7.564394E-2	8.554846E-2	7.247798E-2	8.170755E-2	8.044802E-2	7.919100E-2	8.479065E-2	8.152363E-2	9.770247E-2	8.379869E-2	8.786319E-2	8.277372E-2	7.372201E-2	7.098230E-2	8.425992E-2	8.776323E-2	1.030778E-1	8.127429E-2	9.037114E-2	7.962842E-2	7.608637E-2	7.280248E-2	9.012880E-2	9.932595E-2	8.953981E-2	8.030144E-2	7.801696E-2	8.964599E-2	9.104049E-2	8.559883E-2	7.650903E-2	8.545376E-2	7.453436E-2	1.019100E-1	9.426410E-2	9.029432E-2	7.363796E-2	9.079319E-2	7.764556E-2	7.418570E-2	9.215565E-2	8.781409E-2	7.049033E-2	8.881784E-2	8.601933E-2	8.347538E-2	9.321276E-2	7.160258E-2	7.505351E-2	6.862329E-2	7.811548E-2	8.003622E-2	8.356186E-2	7.342438E-2	8.487343E-2	7.408058E-2	8.710702E-2	9.963558E-2	9.287925E-2	1.030520E-1	1.203487E-1
2.844030E+2	1.433672E-1	1.338878E-1	1.330560E-1	1.163128E-1	1.226522E-1	1.157168E-1	1.484549E-1	1.246159E-1	1.138334E-1	1.124873E-1	1.164849E-1	9.659530E-2	1.298969E-1	1.149613E-1	1.370000E-1	1.131312E-1	1.252271E-1	1.259315E-1	1.224547E-1	1.266590E-1	1.295972E-1	1.044243E-1	1.182452E-1	1.259213E-1	1.235328E-1	1.254090E-1	1.299673E-1	1.334806E-1	1.345876E-1	1.160032E-1	1.393506E-1	1.607668E-1	1.113922E-1	1.255989E-1	1.301769E-1	1.228043E-1	1.223434E-1	1.395591E-1	1.563024E-1	1.216905E-1	1.209787E-1	1.566317E-1	1.364388E-1	1.099583E-1	1.293072E-1	1.060982E-1	1.241329E-1	1.240415E-1	1.192880E-1	1.465956E-1	1.218701E-1	1.272690E-1	1.248080E-1	1.347659E-1	1.246349E-1	1.539401E-1	1.210179E-1	1.408487E-1	1.455601E-1	1.160458E-1	1.339488E-1	1.291306E-1	1.110820E-1	1.127236E-1	1.059090E-1	1.160700E-1	1.446811E-1	1.059928E-1	1.383203E-1	1.251800E-1	1.284672E-1	1.381518E-1	1.329274E-1	1.165812E-1	1.181782E-1	1.109164E-1	1.400325E-1	1.128139E-1	1.289430E-1	1.275037E-1	1.264925E-1	1.254814E-1	1.203077E-1	1.241741E-1	1.399213E-1	1.424024E-1	1.366959E-1	1.466431E-1	1.254056E-1	1.356499E-1	1.264451E-1	1.362166E-1	1.311349E-1	1.318379E-1	1.338317E-1	1.269243E-1	1.250140E-1	1.185713E-1	1.487999E-1	1.121610E-1	1.529204E-1	1.273226E-1	1.062743E-1	1.170925E-1	1.632086E-1	1.413455E-1	1.193837E-1	1.242811E-1	1.175219E-1	1.235773E-1	1.265187E-1	1.374666E-1	1.160834E-1	1.681454E-1	1.277440E-1	1.323614E-1	1.374527E-1	1.310914E-1	1.135800E-1	1.254828E-1	1.295994E-1	1.302091E-1	1.218421E-1	1.208832E-1	1.404754E-1	1.074433E-1	1.066997E-1	1.379640E-1	1.487089E-1	1.358727E-1	1.234537E-1	1.195425E-1	1.310737E-1	1.195495E-1	1.293454E-1	1.247654E-1	1.243311E-1	1.247831E-1	1.184166E-1	1.358127E-1	1.269630E-1	1.271857E-1	1.136557E-1	1.336520E-1	1.418140E-1	1.415110E-1	1.242682E-1	1.340352E-1	1.100591E-1	1.392627E-1	1.153702E-1	1.204060E-1	1.205885E-1	1.216556E-1	1.256396E-1	1.331903E-1	1.477090E-1	1.211261E-1	1.266050E-1	1.370754E-1	1.209608E-1	1.245620E-1	1.037900E-1	1.129670E-1	1.377453E-1	1.108208E-1	1.227009E-1	1.121202E-1	1.500417E-1	1.594348E-1	1.809564E-1
2.845030E+2	1.701885E-1	1.742149E-1	1.857768E-1	1.601971E-1	1.807023E-1	1.900390E-1	1.805171E-1	1.807607E-1	1.758148E-1	1.858237E-1	1.882571E-1	1.721348E-1	1.756083E-1	1.921211E-1	1.697050E-1	1.804997E-1	1.990494E-1	1.739531E-1	2.048760E-1	1.846776E-1	1.746511E-1	1.770866E-1	1.906645E-1	1.785224E-1	1.944321E-1	1.980470E-1	1.866942E-1	1.835054E-1	2.002426E-1	1.699288E-1	1.756775E-1	1.772963E-1	1.790520E-1	1.962959E-1	2.305044E-1	1.584075E-1	1.738413E-1	1.740306E-1	1.790818E-1	1.896269E-1	2.191385E-1	1.836282E-1	2.058632E-1	1.896909E-1	1.927032E-1	2.057674E-1	1.795905E-1	2.036252E-1	1.722061E-1	1.833595E-1	1.837638E-1	1.792271E-1	1.699050E-1	1.847944E-1	2.007757E-1	1.772552E-1	1.745916E-1	1.845639E-1	1.973563E-1	1.857232E-1	1.614774E-1	1.877035E-1	1.634584E-1	1.942941E-1	1.773527E-1	2.020491E-1	1.714632E-1	1.581254E-1	2.016405E-1	2.121699E-1	1.999694E-1	1.803585E-1	1.858159E-1	1.973331E-1	1.916396E-1	1.923904E-1	1.872723E-1	2.130809E-1	1.992897E-1	1.785662E-1	1.938743E-1	1.805300E-1	1.516737E-1	2.046524E-1	1.864396E-1	2.024580E-1	1.889476E-1	2.015467E-1	1.825144E-1	1.929027E-1	1.881457E-1	1.886669E-1	1.825320E-1	1.985974E-1	1.924300E-1	2.045317E-1	1.660896E-1	1.850209E-1	1.768098E-1	1.989509E-1	1.693764E-1	1.793475E-1	1.848323E-1	1.900073E-1	1.988921E-1	2.053048E-1	1.438992E-1	1.753874E-1	1.870834E-1	1.802585E-1	1.744668E-1	1.987656E-1	1.756273E-1	1.753439E-1	2.046040E-1	1.663680E-1	2.040555E-1	1.958685E-1	1.743399E-1	1.535358E-1	1.814278E-1	1.784602E-1	1.630701E-1	1.752977E-1	1.852875E-1	1.899038E-1	2.124948E-1	1.943149E-1	1.934535E-1	1.966142E-1	1.985739E-1	1.756317E-1	1.688303E-1	2.172104E-1	1.842035E-1	1.766056E-1	1.763567E-1	1.826096E-1	1.759483E-1	1.862588E-1	1.908581E-1	1.798288E-1	1.914079E-1	1.775796E-1	1.776437E-1	1.815807E-1	1.770673E-1	1.542534E-1	1.713770E-1	1.949311E-1	1.950409E-1	1.753835E-1	1.992115E-1	1.754535E-1	2.072957E-1	1.936974E-1	2.322816E-1	1.663200E-1	1.935554E-1	1.583520E-1	1.443645E-1	1.751187E-1	1.508464E-1	1.796621E-1	1.691589E-1	1.767965E-1	1.823671E-1	1.944888E-1	1.841708E-1	2.086757E-1	2.427012E-1
2.846030E+2	2.798657E-1	2.330363E-1	2.705509E-1	2.363825E-1	2.694167E-1	2.844134E-1	2.546218E-1	2.762861E-1	2.306237E-1	2.703709E-1	2.838402E-1	2.685849E-1	2.514352E-1	3.142219E-1	2.532782E-1	2.897765E-1	2.873829E-1	2.455769E-1	2.798841E-1	2.654909E-1	2.912577E-1	2.561428E-1	3.107028E-1	3.248993E-1	2.946279E-1	3.171324E-1	2.911212E-1	3.043094E-1	3.015693E-1	2.912465E-1	2.914802E-1	3.200594E-1	3.103339E-1	3.023184E-1	3.189511E-1	3.185724E-1	2.877077E-1	3.063638E-1	2.711858E-1	3.076403E-1	2.909483E-1	3.220241E-1	2.833637E-1	3.187897E-1	2.853547E-1	2.979438E-1	3.055838E-1	2.845292E-1	2.825109E-1	3.158754E-1	3.214504E-1	3.066869E-1	3.008711E-1	3.132850E-1	2.882557E-1	2.550717E-1	2.926942E-1	3.024966E-1	2.917687E-1	2.703565E-1	2.929848E-1	3.141678E-1	2.657850E-1	3.168531E-1	3.148505E-1	2.911260E-1	2.918286E-1	2.716075E-1	2.840026E-1	2.958513E-1	2.776429E-1	2.551440E-1	2.839697E-1	2.858615E-1	2.742849E-1	3.073769E-1	3.060502E-1	2.898574E-1	2.599197E-1	2.602279E-1	2.831784E-1	2.806149E-1	3.021673E-1	2.664016E-1	2.745478E-1	2.943562E-1	2.788157E-1	2.768980E-1	2.459771E-1	3.110949E-1	3.066744E-1	2.992339E-1	3.034181E-1	2.826760E-1	2.984033E-1	2.988479E-1	3.009179E-1	2.966390E-1	2.721336E-1	2.888691E-1	3.174345E-1	2.976924E-1	2.853279E-1	3.024470E-1	3.118492E-1	2.659062E-1	3.242456E-1	3.102275E-1	3.232300E-1	2.565103E-1	2.927416E-1	2.800384E-1	2.547723E-1	2.792300E-1	3.087106E-1	2.867806E-1	2.864102E-1	2.802913E-1	3.305736E-1	2.777787E-1	2.918057E-1	2.821945E-1	2.939189E-1	2.729002E-1	2.816164E-1	2.779678E-1	2.614335E-1	2.708675E-1	2.655345E-1	2.897030E-1	3.203598E-1	3.158838E-1	2.814565E-1	2.581326E-1	2.767841E-1	2.661904E-1	2.948644E-1	3.006179E-1	2.616915E-1	2.828142E-1	2.470364E-1	2.770164E-1	2.894831E-1	2.886878E-1	2.685655E-1	2.575328E-1	2.562479E-1	2.403740E-1	2.820006E-1	2.701065E-1	2.810359E-1	2.697353E-1	2.526300E-1	2.947318E-1	2.917173E-1	3.023575E-1	2.864387E-1	2.732596E-1	2.569857E-1	2.917146E-1	2.760286E-1	2.787717E-1	2.854108E-1	2.640914E-1	2.948460E-1	2.672286E-1	2.886959E-1	2.801153E-1	2.918422E-1	3.076059E-1	2.998340E-1
2.847020E+2	5.008982E-1	4.729294E-1	4.763031E-1	4.972058E-1	4.832997E-1	4.632495E-1	4.831649E-1	5.088386E-1	4.893503E-1	4.805665E-1	4.976349E-1	4.924719E-1	4.861325E-1	5.101756E-1	4.536997E-1	5.035640E-1	5.213760E-1	5.025355E-1	4.804180E-1	4.661992E-1	4.709093E-1	4.966123E-1	5.761277E-1	5.669869E-1	5.617530E-1	5.263284E-1	5.246353E-1	5.626055E-1	5.647110E-1	5.671463E-1	5.558038E-1	5.293520E-1	5.599430E-1	5.492199E-1	5.654338E-1	5.311303E-1	5.635397E-1	5.514221E-1	5.275513E-1	5.326224E-1	5.203936E-1	5.547736E-1	5.741615E-1	5.292749E-1	5.381617E-1	5.545097E-1	5.349607E-1	5.286896E-1	5.476017E-1	4.855999E-1	5.516495E-1	5.518751E-1	5.433094E-1	5.308799E-1	5.534669E-1	5.170866E-1	5.565146E-1	5.496406E-1	5.478566E-1	5.084847E-1	5.236390E-1	5.166073E-1	5.383438E-1	5.281542E-1	5.360756E-1	4.949824E-1	5.714854E-1	5.246913E-1	5.173700E-1	5.426852E-1	4.836640E-1	5.543090E-1	5.756272E-1	4.895883E-1	4.958021E-1	5.410809E-1	5.298155E-1	5.679947E-1	5.322365E-1	5.089646E-1	5.216782E-1	5.563994E-1	4.845756E-1	5.396209E-1	5.217796E-1	5.127153E-1	5.184100E-1	5.055069E-1	5.291692E-1	5.189861E-1	5.406058E-1	5.394278E-1	5.230954E-1	4.841503E-1	5.055350E-1	5.284168E-1	4.714982E-1	5.547255E-1	5.140326E-1	4.908278E-1	5.091133E-1	5.245852E-1	5.207442E-1	4.875388E-1	5.390407E-1	5.506537E-1	5.147040E-1	5.024195E-1	5.063160E-1	4.939023E-1	4.958531E-1	5.151055E-1	5.133656E-1	5.045588E-1	5.510332E-1	5.115831E-1	5.025390E-1	4.941653E-1	5.110699E-1	4.751086E-1	5.167889E-1	5.341416E-1	5.165945E-1	5.289953E-1	5.162479E-1	4.924954E-1	5.265559E-1	5.025858E-1	5.000797E-1	4.488449E-1	5.003636E-1	5.284250E-1	4.951953E-1	5.158017E-1	5.255393E-1	5.039904E-1	5.010385E-1	5.287262E-1	5.002003E-1	4.885548E-1	4.981061E-1	5.004404E-1	5.017019E-1	5.001435E-1	5.090062E-1	5.000568E-1	5.017992E-1	4.854941E-1	5.077543E-1	5.352049E-1	5.257245E-1	5.193763E-1	4.415286E-1	5.197743E-1	5.147917E-1	5.519853E-1	4.850057E-1	4.749566E-1	4.754796E-1	5.600685E-1	5.533211E-1	5.012326E-1	4.851118E-1	4.886412E-1	4.891351E-1	5.011036E-1	5.145180E-1	5.315658E-1	5.180663E-1	4.293914E-1	5.156310E-1
2.848000E+2	9.322060E-1	1.019735E+0	9.796348E-1	9.636668E-1	9.068890E-1	9.799062E-1	8.909491E-1	9.347139E-1	1.007910E+0	1.013330E+0	9.372827E-1	9.929127E-1	9.587595E-1	1.018742E+0	9.493025E-1	9.964009E-1	9.681930E-1	9.711332E-1	9.273750E-1	8.754172E-1	9.928387E-1	9.714603E-1	9.933333E-1	1.014317E+0	9.825568E-1	1.048549E+0	9.800725E-1	1.075341E+0	9.977568E-1	9.800336E-1	1.064904E+0	9.856345E-1	1.022186E+0	1.027812E+0	1.011949E+0	9.822731E-1	9.830250E-1	9.763389E-1	1.010903E+0	9.977739E-1	1.002643E+0	1.039174E+0	9.657373E-1	1.005005E+0	1.013173E+0	9.455062E-1	1.005494E+0	1.031448E+0	9.822009E-1	1.044401E+0	1.011836E+0	1.027263E+0	9.973299E-1	1.052832E+0	1.035479E+0	9.911928E-1	9.524625E-1	1.019782E+0	1.025600E+0	1.014151E+0	9.757277E-1	9.954746E-1	1.020080E+0	9.645431E-1	1.033726E+0	9.760158E-1	1.040906E+0	9.926814E-1	9.838568E-1	1.015583E+0	1.023195E+0	9.644974E-1	1.021232E+0	9.731296E-1	9.659713E-1	1.018486E+0	1.042315E+0	9.910378E-1	9.725725E-1	9.990953E-1	1.008472E+0	1.064434E+0	9.879053E-1	9.954034E-1	1.013203E+0	1.007692E+0	1.041577E+0	9.714138E-1	9.713610E-1	1.017846E+0	9.833726E-1	1.018542E+0	1.048792E+0	9.865398E-1	9.860700E-1	1.005133E+0	1.010652E+0	1.008366E+0	9.133697E-1	9.708842E-1	9.891609E-1	9.368435E-1	1.026564E+0	1.022091E+0	9.834647E-1	9.585132E-1	9.924305E-1	9.015718E-1	1.013722E+0	9.288515E-1	9.921278E-1	1.031162E+0	9.665064E-1	9.566294E-1	1.011293E+0	9.175179E-1	9.984326E-1	1.006758E+0	1.019148E+0	9.541237E-1	9.820810E-1	9.115698E-1	9.595850E-1	9.920239E-1	9.377634E-1	9.432254E-1	1.026208E+0	9.342348E-1	9.064804E-1	1.004406E+0	9.897967E-1	9.717602E-1	9.956131E-1	9.574871E-1	9.581251E-1	9.763223E-1	9.900517E-1	1.002454E+0	1.042886E+0	1.020640E+0	1.010297E+0	9.256354E-1	1.050069E+0	9.209704E-1	9.214348E-1	9.812791E-1	9.577943E-1	9.807025E-1	9.942622E-1	9.821320E-1	1.045207E+0	9.817553E-1	9.331962E-1	1.023864E+0	1.028642E+0	9.931966E-1	9.814866E-1	9.756819E-1	1.000434E+0	9.485646E-1	1.007081E+0	1.001957E+0	9.697325E-1	1.004362E+0	9.750753E-1	9.699313E-1	9.881898E-1	9.934089E-1	9.540021E-1	9.928192E-1	1.076501E+0
2.849020E+2	1.435468E+0	1.528949E+0	1.395372E+0	1.358587E+0	1.359518E+0	1.475428E+0	1.355736E+0	1.451734E+0	1.377732E+0	1.366496E+0	1.416944E+0	1.435771E+0	1.446860E+0	1.383758E+0	1.445032E+0	1.381455E+0	1.389297E+0	1.422820E+0	1.415644E+0	1.416042E+0	1.401011E+0	1.416684E+0	1.432020E+0	1.402901E+0	1.327249E+0	1.420791E+0	1.414706E+0	1.366717E+0	1.373624E+0	1.444408E+0	1.391218E+0	1.446091E+0	1.330969E+0	1.443216E+0	1.371636E+0	1.386608E+0	1.379662E+0	1.412639E+0	1.431669E+0	1.465847E+0	1.369743E+0	1.400334E+0	1.371405E+0	1.359576E+0	1.440492E+0	1.417281E+0	1.404998E+0	1.405485E+0	1.426112E+0	1.373086E+0	1.380330E+0	1.419003E+0	1.365516E+0	1.383452E+0	1.456051E+0	1.425393E+0	1.409508E+0	1.368632E+0	1.417176E+0	1.388582E+0	1.445679E+0	1.390522E+0	1.398949E+0	1.466097E+0	1.429530E+0	1.364086E+0	1.479559E+0	1.326817E+0	1.453345E+0	1.438806E+0	1.381177E+0	1.374430E+0	1.382543E+0	1.418459E+0	1.398421E+0	1.484401E+0	1.511046E+0	1.507927E+0	1.398614E+0	1.406340E+0	1.400217E+0	1.444497E+0	1.395390E+0	1.394782E+0	1.434685E+0	1.484177E+0	1.467246E+0	1.402232E+0	1.342083E+0	1.378581E+0	1.439256E+0	1.457785E+0	1.462311E+0	1.429685E+0	1.453821E+0	1.409210E+0	1.437774E+0	1.425466E+0	1.350958E+0	1.370634E+0	1.400435E+0	1.399351E+0	1.478625E+0	1.440482E+0	1.480279E+0	1.398583E+0	1.443184E+0	1.350128E+0	1.460325E+0	1.356992E+0	1.453177E+0	1.449740E+0	1.425534E+0	1.420622E+0	1.442768E+0	1.427456E+0	1.409823E+0	1.400794E+0	1.388490E+0	1.356375E+0	1.410014E+0	1.451785E+0	1.466672E+0	1.493173E+0	1.385268E+0	1.495203E+0	1.473115E+0	1.476876E+0	1.469715E+0	1.403929E+0	1.466742E+0	1.415923E+0	1.384391E+0	1.423857E+0	1.421254E+0	1.364731E+0	1.376654E+0	1.448462E+0	1.454587E+0	1.406052E+0	1.452865E+0	1.381774E+0	1.381920E+0	1.374348E+0	1.461429E+0	1.416562E+0	1.435029E+0	1.412223E+0	1.425340E+0	1.422387E+0	1.461892E+0	1.387986E+0	1.318995E+0	1.411073E+0	1.546336E+0	1.438904E+0	1.448519E+0	1.434237E+0	1.361675E+0	1.429345E+0	1.595976E+0	1.451987E+0	1.342359E+0	1.407004E+0	1.450009E+0	1.424791E+0	1.386447E+0	1.413318E+0	1.386869E+0	1.486612E+0	1.381376E+0
2.850010E+2	1.522880E+0	1.490264E+0	1.482547E+0	1.352860E+0	1.430141E+0	1.544951E+0	1.522287E+0	1.544504E+0	1.466198E+0	1.420234E+0	1.444308E+0	1.463636E+0	1.486306E+0	1.492211E+0	1.424582E+0	1.489627E+0	1.379387E+0	1.511564E+0	1.367789E+0	1.485866E+0	1.434970E+0	1.432194E+0	1.462445E+0	1.456746E+0	1.383193E+0	1.437986E+0	1.363899E+0	1.446465E+0	1.387731E+0	1.456932E+0	1.485588E+0	1.424218E+0	1.425681E+0	1.498863E+0	1.429638E+0	1.371787E+0	1.415164E+0	1.481547E+0	1.427500E+0	1.391373E+0	1.373863E+0	1.399159E+0	1.465207E+0	1.409719E+0	1.426537E+0	1.353352E+0	1.468447E+0	1.445362E+0	1.431181E+0	1.509836E+0	1.424864E+0	1.389121E+0	1.424460E+0	1.402020E+0	1.435288E+0	1.499721E+0	1.436104E+0	1.444968E+0	1.465857E+0	1.451402E+0	1.426813E+0	1.400915E+0	1.409278E+0	1.366780E+0	1.439712E+0	1.493207E+0	1.429793E+0	1.412586E+0	1.428098E+0	1.396110E+0	1.390051E+0	1.419065E+0	1.406236E+0	1.434199E+0	1.388416E+0	1.440200E+0	1.439976E+0	1.432287E+0	1.438311E+0	1.421149E+0	1.499280E+0	1.449856E+0	1.391512E+0	1.446210E+0	1.405381E+0	1.413690E+0	1.432488E+0	1.431635E+0	1.456908E+0	1.431285E+0	1.437544E+0	1.481831E+0	1.458867E+0	1.382407E+0	1.447863E+0	1.395530E+0	1.503178E+0	1.488166E+0	1.421558E+0	1.436079E+0	1.439623E+0	1.430228E+0	1.565594E+0	1.397100E+0	1.450871E+0	1.425174E+0	1.475008E+0	1.452960E+0	1.448083E+0	1.389007E+0	1.410680E+0	1.436858E+0	1.476488E+0	1.478241E+0	1.386947E+0	1.384567E+0	1.391568E+0	1.434532E+0	1.455987E+0	1.423385E+0	1.441237E+0	1.366505E+0	1.405630E+0	1.385662E+0	1.506889E+0	1.489065E+0	1.464404E+0	1.452979E+0	1.429758E+0	1.473121E+0	1.532974E+0	1.462615E+0	1.407436E+0	1.427292E+0	1.389317E+0	1.421170E+0	1.431039E+0	1.494962E+0	1.432540E+0	1.465841E+0	1.456613E+0	1.405838E+0	1.448849E+0	1.440748E+0	1.477979E+0	1.504992E+0	1.413526E+0	1.383241E+0	1.438471E+0	1.436756E+0	1.461885E+0	1.522708E+0	1.389673E+0	1.514509E+0	1.479417E+0	1.325968E+0	1.475564E+0	1.465098E+0	1.482332E+0	1.452627E+0	1.511931E+0	1.457208E+0	1.369799E+0	1.422452E+0	1.431474E+0	1.425664E+0	1.471074E+0	1.415818E+0	1.425410E+0	1.379622E+0	1.612936E+0
2.851060E+2	1.236957E+0	1.232782E+0	1.254990E+0	1.168175E+0	1.223722E+0	1.264816E+0	1.189857E+0	1.261789E+0	1.226752E+0	1.173942E+0	1.170541E+0	1.236549E+0	1.267646E+0	1.255871E+0	1.143166E+0	1.282855E+0	1.267290E+0	1.229170E+0	1.219675E+0	1.210764E+0	1.258564E+0	1.244020E+0	1.216060E+0	1.200515E+0	1.272397E+0	1.217271E+0	1.242784E+0	1.235617E+0	1.248784E+0	1.206913E+0	1.276650E+0	1.211794E+0	1.182664E+0	1.172432E+0	1.171904E+0	1.195599E+0	1.187156E+0	1.234015E+0	1.208152E+0	1.183822E+0	1.174098E+0	1.199877E+0	1.237633E+0	1.232467E+0	1.263556E+0	1.130203E+0	1.201898E+0	1.186764E+0	1.302803E+0	1.133570E+0	1.247169E+0	1.265032E+0	1.184832E+0	1.201970E+0	1.232013E+0	1.249824E+0	1.227704E+0	1.215021E+0	1.241529E+0	1.282057E+0	1.226956E+0	1.221536E+0	1.160274E+0	1.208054E+0	1.281596E+0	1.246611E+0	1.281475E+0	1.193541E+0	1.197034E+0	1.267636E+0	1.254471E+0	1.233868E+0	1.217528E+0	1.280145E+0	1.207160E+0	1.254629E+0	1.202553E+0	1.229867E+0	1.200825E+0	1.213229E+0	1.319672E+0	1.247002E+0	1.219464E+0	1.232659E+0	1.249118E+0	1.290021E+0	1.229164E+0	1.306287E+0	1.256237E+0	1.279457E+0	1.159178E+0	1.249750E+0	1.266193E+0	1.216704E+0	1.250268E+0	1.216330E+0	1.244169E+0	1.171760E+0	1.240183E+0	1.169178E+0	1.254639E+0	1.238430E+0	1.265209E+0	1.265527E+0	1.261513E+0	1.212103E+0	1.321575E+0	1.228286E+0	1.242592E+0	1.264323E+0	1.255407E+0	1.201489E+0	1.245671E+0	1.222651E+0	1.242119E+0	1.361117E+0	1.255945E+0	1.246365E+0	1.244436E+0	1.253400E+0	1.190281E+0	1.277901E+0	1.240988E+0	1.258953E+0	1.242880E+0	1.265838E+0	1.210548E+0	1.226552E+0	1.190850E+0	1.242571E+0	1.307530E+0	1.209557E+0	1.254514E+0	1.181654E+0	1.274505E+0	1.240660E+0	1.157107E+0	1.276393E+0	1.224066E+0	1.177043E+0	1.237686E+0	1.261615E+0	1.241995E+0	1.251688E+0	1.225668E+0	1.288790E+0	1.245433E+0	1.226501E+0	1.260615E+0	1.298330E+0	1.210772E+0	1.256209E+0	1.236513E+0	1.383350E+0	1.256319E+0	1.232503E+0	1.312791E+0	1.214676E+0	1.197833E+0	1.272099E+0	1.265442E+0	1.256579E+0	1.205542E+0	1.273120E+0	1.260626E+0	1.341608E+0	1.286677E+0	1.194562E+0	1.236439E+0	1.250614E+0	1.254922E+0
2.852010E+2	1.065960E+0	1.077151E+0	1.093419E+0	1.017333E+0	1.051471E+0	1.073799E+0	1.091492E+0	1.095564E+0	1.023189E+0	1.046847E+0	1.065483E+0	1.075963E+0	1.105252E+0	1.097953E+0	1.077414E+0	1.108908E+0	1.029103E+0	1.091852E+0	1.025263E+0	1.051567E+0	1.085845E+0	1.073389E+0	1.090748E+0	1.092500E+0	1.053399E+0	1.038334E+0	1.084692E+0	1.043442E+0	1.049534E+0	1.051535E+0	1.072113E+0	1.071499E+0	1.047560E+0	1.057423E+0	1.035377E+0	1.031708E+0	1.085655E+0	1.100022E+0	1.045175E+0	1.155635E+0	1.037353E+0	1.016695E+0	1.067322E+0	1.118643E+0	1.162912E+0	1.067521E+0	1.008189E+0	1.044935E+0	1.090494E+0	1.091297E+0	1.088522E+0	1.079412E+0	1.032544E+0	1.112672E+0	1.039409E+0	1.108293E+0	1.064921E+0	1.092583E+0	1.077661E+0	1.161297E+0	1.028198E+0	1.104040E+0	1.083118E+0	1.038079E+0	1.080546E+0	1.048545E+0	1.078274E+0	1.065489E+0	1.059037E+0	1.115309E+0	1.014389E+0	1.077611E+0	1.047006E+0	1.088082E+0	1.035800E+0	1.079297E+0	1.093411E+0	1.089186E+0	1.065274E+0	1.040529E+0	1.093544E+0	1.083157E+0	1.047826E+0	1.066322E+0	1.086591E+0	1.111208E+0	1.062197E+0	1.122508E+0	1.097114E+0	1.054514E+0	1.106353E+0	1.084484E+0	1.150776E+0	1.051831E+0	1.051030E+0	1.076233E+0	1.067875E+0	1.125570E+0	1.116721E+0	1.052909E+0	1.084434E+0	1.011658E+0	1.139529E+0	1.036670E+0	1.100705E+0	9.797185E-1	1.037981E+0	1.045460E+0	1.099073E+0	1.072400E+0	1.053203E+0	1.068575E+0	1.094160E+0	1.129947E+0	1.175277E+0	1.067293E+0	1.150364E+0	1.120269E+0	1.061807E+0	1.120773E+0	1.055420E+0	1.096470E+0	1.088115E+0	1.097406E+0	1.064213E+0	1.080232E+0	1.086297E+0	1.120034E+0	1.114226E+0	1.034528E+0	1.178644E+0	1.044878E+0	1.113362E+0	1.127382E+0	1.104812E+0	1.088532E+0	1.043832E+0	1.104124E+0	1.056926E+0	1.058413E+0	1.110337E+0	1.047173E+0	1.092297E+0	1.054436E+0	1.056057E+0	1.024539E+0	1.081567E+0	1.022934E+0	1.111083E+0	1.129181E+0	1.068028E+0	1.105209E+0	1.049300E+0	1.118423E+0	1.065735E+0	1.070498E+0	1.055849E+0	1.107287E+0	1.078700E+0	1.083609E+0	1.143125E+0	1.091448E+0	1.041983E+0	1.071934E+0	1.072392E+0	1.080985E+0	1.067629E+0	1.053240E+0	1.185816E+0	1.184555E+0	1.198211E+0
2.853000E+2	7.835161E-1	8.228908E-1	8.066585E-1	8.000202E-1	8.281315E-1	7.900420E-1	7.907478E-1	7.736155E-1	8.163113E-1	8.081982E-1	7.855956E-1	8.151495E-1	7.986140E-1	8.027777E-1	8.046272E-1	8.502963E-1	7.815521E-1	8.126453E-1	7.749386E-1	8.015204E-1	8.280881E-1	7.725455E-1	8.126933E-1	8.079698E-1	7.542527E-1	8.200166E-1	8.234915E-1	8.203342E-1	7.894085E-1	8.292898E-1	8.230079E-1	8.498676E-1	7.817353E-1	8.494685E-1	8.057555E-1	7.998548E-1	7.762887E-1	8.194020E-1	8.153497E-1	8.478741E-1	7.957936E-1	7.881057E-1	8.201268E-1	8.059811E-1	7.776043E-1	8.168941E-1	8.111134E-1	8.313678E-1	8.446070E-1	8.223319E-1	8.249098E-1	8.319212E-1	8.064983E-1	8.383358E-1	7.526605E-1	7.758371E-1	7.741074E-1	8.336826E-1	8.600644E-1	7.514819E-1	8.513022E-1	8.173844E-1	8.378755E-1	8.414623E-1	8.275611E-1	7.979908E-1	8.166494E-1	8.022461E-1	8.041793E-1	8.026805E-1	8.680138E-1	8.624527E-1	8.260136E-1	8.081604E-1	7.758591E-1	8.801883E-1	7.878853E-1	8.104470E-1	8.067135E-1	8.203293E-1	8.373860E-1	7.798919E-1	8.041501E-1	8.272247E-1	7.799781E-1	8.333789E-1	8.234302E-1	8.178019E-1	8.697237E-1	8.116500E-1	8.082878E-1	8.670762E-1	8.491942E-1	7.988725E-1	8.614420E-1	7.797153E-1	7.949964E-1	8.024514E-1	8.276795E-1	8.390905E-1	7.810058E-1	8.469237E-1	8.396490E-1	7.989730E-1	8.133359E-1	7.995862E-1	8.327663E-1	7.640014E-1	8.375885E-1	7.940234E-1	8.063664E-1	8.525239E-1	8.263395E-1	8.280051E-1	8.420001E-1	8.134827E-1	8.486346E-1	8.076526E-1	8.362832E-1	8.214860E-1	7.558297E-1	7.805072E-1	7.560994E-1	8.282829E-1	8.223926E-1	8.502611E-1	8.458134E-1	8.450611E-1	8.219063E-1	8.179365E-1	8.293667E-1	8.572607E-1	8.172010E-1	7.991045E-1	8.785140E-1	8.465261E-1	8.490587E-1	8.345591E-1	8.201089E-1	8.307512E-1	8.295559E-1	8.231340E-1	7.809112E-1	8.381453E-1	8.028052E-1	8.369824E-1	8.536247E-1	7.989705E-1	8.393321E-1	8.663490E-1	8.685570E-1	7.625460E-1	8.053411E-1	8.004355E-1	8.253515E-1	8.107620E-1	7.913563E-1	7.720296E-1	8.229822E-1	8.136674E-1	8.014416E-1	8.175006E-1	8.080067E-1	8.228585E-1	8.300881E-1	8.150151E-1	8.428170E-1	8.068403E-1	8.610576E-1	8.720786E-1	8.971838E-1
2.854020E+2	6.882315E-1	6.716231E-1	6.944575E-1	6.398537E-1	6.453335E-1	6.669281E-1	6.607554E-1	7.264565E-1	6.445532E-1	6.473826E-1	6.553299E-1	6.851536E-1	6.709548E-1	6.537227E-1	6.486095E-1	6.733522E-1	6.725338E-1	6.609339E-1	6.475343E-1	6.804820E-1	6.859148E-1	6.384038E-1	7.242840E-1	6.945368E-1	6.955160E-1	6.811914E-1	7.051519E-1	7.089425E-1	6.736761E-1	6.864176E-1	6.473644E-1	6.541500E-1	6.802057E-1	7.130267E-1	6.809105E-1	6.588360E-1	6.886887E-1	6.850299E-1	6.639855E-1	6.814164E-1	6.455529E-1	6.985286E-1	6.762911E-1	6.906638E-1	6.444770E-1	7.065078E-1	6.499734E-1	6.591201E-1	6.879640E-1	6.317540E-1	6.770638E-1	6.907585E-1	7.000563E-1	6.690422E-1	6.679199E-1	6.819346E-1	6.214297E-1	6.552186E-1	6.672229E-1	6.882894E-1	6.629623E-1	6.988593E-1	7.020985E-1	7.068837E-1	6.756425E-1	6.272339E-1	7.063893E-1	6.564799E-1	6.268839E-1	6.909520E-1	6.884971E-1	6.279490E-1	6.470669E-1	6.558124E-1	6.814962E-1	6.664568E-1	6.887432E-1	6.993449E-1	6.864320E-1	6.779481E-1	6.503552E-1	6.938604E-1	6.740690E-1	7.041159E-1	6.899959E-1	6.938299E-1	7.135969E-1	6.873546E-1	7.115955E-1	7.190800E-1	7.281691E-1	6.932740E-1	6.722982E-1	6.694543E-1	7.100531E-1	7.248715E-1	6.685407E-1	7.180149E-1	6.731360E-1	7.154372E-1	7.398998E-1	7.190264E-1	7.175349E-1	6.849422E-1	6.351763E-1	6.713959E-1	7.039233E-1	6.806240E-1	6.940416E-1	6.296003E-1	6.623250E-1	6.842861E-1	7.044551E-1	6.952917E-1	6.993517E-1	6.794257E-1	7.212657E-1	7.172346E-1	7.059001E-1	6.894871E-1	6.514806E-1	6.491312E-1	7.041821E-1	6.551601E-1	7.238402E-1	7.120987E-1	6.593225E-1	7.097033E-1	7.089145E-1	6.828779E-1	6.857347E-1	6.690235E-1	6.503175E-1	6.775424E-1	6.791084E-1	6.462297E-1	6.786078E-1	6.904901E-1	7.104139E-1	6.419766E-1	6.319631E-1	6.929767E-1	7.022911E-1	6.661738E-1	6.852633E-1	7.096646E-1	7.013225E-1	6.351234E-1	6.779245E-1	6.741930E-1	6.990952E-1	6.917292E-1	6.901088E-1	7.074230E-1	7.289484E-1	6.832904E-1	7.021934E-1	6.329067E-1	6.394970E-1	6.989705E-1	7.227726E-1	7.123052E-1	6.322513E-1	6.328509E-1	6.634358E-1	6.578704E-1	6.841546E-1	6.644257E-1	6.823911E-1	7.210220E-1	6.794899E-1
2.855050E+2	5.583523E-1	5.677732E-1	5.581735E-1	5.107162E-1	5.415623E-1	5.364461E-1	5.475734E-1	5.556485E-1	5.629990E-1	5.292029E-1	5.442363E-1	5.412704E-1	5.282440E-1	5.292188E-1	5.386373E-1	5.655605E-1	5.856500E-1	5.516240E-1	5.485957E-1	5.144191E-1	5.311598E-1	5.368384E-1	5.599342E-1	5.448169E-1	5.656971E-1	5.780039E-1	5.421010E-1	5.155647E-1	5.497079E-1	5.277641E-1	5.338285E-1	5.331580E-1	5.492973E-1	5.439391E-1	5.406661E-1	5.400833E-1	5.789466E-1	5.381711E-1	5.719975E-1	5.302809E-1	5.539575E-1	5.224547E-1	5.382358E-1	5.496251E-1	6.206694E-1	5.664937E-1	5.660088E-1	5.479180E-1	5.829866E-1	5.664235E-1	5.819143E-1	5.271447E-1	5.433084E-1	5.806077E-1	6.106606E-1	5.476817E-1	5.822677E-1	5.294168E-1	5.442179E-1	5.573523E-1	5.207726E-1	5.631620E-1	5.620573E-1	5.443536E-1	5.555941E-1	5.321036E-1	6.076379E-1	5.528373E-1	5.049260E-1	5.348592E-1	5.539098E-1	5.682283E-1	5.631747E-1	5.650681E-1	5.567563E-1	5.482285E-1	5.583191E-1	5.244947E-1	6.004542E-1	5.819210E-1	5.296893E-1	5.600322E-1	5.181908E-1	5.661199E-1	5.641263E-1	5.442005E-1	5.508520E-1	5.501264E-1	5.974726E-1	5.465470E-1	5.937868E-1	5.652818E-1	5.462881E-1	5.181367E-1	5.693929E-1	5.550444E-1	5.816773E-1	5.623932E-1	5.337810E-1	5.816781E-1	5.289388E-1	5.684843E-1	5.223409E-1	5.458378E-1	5.408771E-1	5.456663E-1	5.731695E-1	5.213223E-1	5.569540E-1	5.489174E-1	5.890326E-1	5.866978E-1	5.958333E-1	6.089777E-1	5.766351E-1	5.863259E-1	5.562246E-1	5.725346E-1	5.874859E-1	5.654111E-1	5.592325E-1	5.539602E-1	5.753598E-1	5.240088E-1	5.584748E-1	5.520828E-1	5.417870E-1	5.842815E-1	5.486632E-1	5.460067E-1	5.424075E-1	5.202802E-1	5.916875E-1	5.223277E-1	5.718091E-1	5.313183E-1	5.419484E-1	5.475490E-1	5.600698E-1	5.785225E-1	5.566367E-1	5.860846E-1	5.585535E-1	5.717685E-1	5.534065E-1	5.473773E-1	5.739599E-1	5.981750E-1	5.609585E-1	6.224162E-1	5.629696E-1	5.242937E-1	5.494565E-1	5.922564E-1	5.740075E-1	5.832939E-1	6.056345E-1	5.249138E-1	6.080316E-1	5.500983E-1	5.971199E-1	5.864025E-1	5.299393E-1	5.029362E-1	5.693089E-1	5.236896E-1	5.714850E-1	5.664652E-1	5.233183E-1	5.659468E-1	5.792784E-1
2.856010E+2	4.337614E-1	4.093695E-1	4.318779E-1	4.404251E-1	4.026674E-1	4.373484E-1	4.203363E-1	4.256782E-1	3.931385E-1	3.825476E-1	4.105746E-1	4.137311E-1	4.150166E-1	4.174668E-1	4.084928E-1	4.060276E-1	4.000459E-1	4.615209E-1	4.282293E-1	4.201184E-1	4.370663E-1	4.018679E-1	4.424038E-1	4.547755E-1	4.385693E-1	4.430820E-1	4.317278E-1	4.596896E-1	4.150795E-1	4.430272E-1	4.414300E-1	4.099556E-1	4.341592E-1	4.835957E-1	4.759730E-1	4.363900E-1	4.385963E-1	4.032505E-1	4.457695E-1	4.297947E-1	4.489558E-1	4.186834E-1	4.214965E-1	4.067840E-1	4.510617E-1	4.086750E-1	4.139413E-1	4.223132E-1	4.525868E-1	4.671630E-1	4.448156E-1	4.268425E-1	4.355576E-1	4.836813E-1	4.249300E-1	4.755170E-1	4.688541E-1	3.996335E-1	4.445668E-1	4.539236E-1	4.276603E-1	4.383615E-1	4.071581E-1	4.698050E-1	4.446936E-1	4.077721E-1	4.291367E-1	4.598622E-1	4.137557E-1	4.372112E-1	4.537045E-1	4.475505E-1	4.174887E-1	4.477871E-1	4.566042E-1	4.306947E-1	3.970637E-1	4.583272E-1	4.608965E-1	4.382726E-1	4.130923E-1	4.043908E-1	4.298256E-1	4.380370E-1	4.242912E-1	4.087740E-1	4.257610E-1	4.083795E-1	4.367933E-1	4.018874E-1	4.365735E-1	4.603174E-1	4.254278E-1	4.828618E-1	4.460820E-1	4.507028E-1	4.502558E-1	4.479440E-1	4.453080E-1	4.113338E-1	4.290255E-1	4.507143E-1	4.622254E-1	4.472767E-1	4.717366E-1	4.580569E-1	4.329262E-1	4.268056E-1	4.445029E-1	4.168513E-1	4.537004E-1	4.184086E-1	4.493653E-1	4.843538E-1	4.687026E-1	4.607791E-1	4.534040E-1	4.232448E-1	4.376637E-1	4.004192E-1	3.905650E-1	4.641050E-1	4.755909E-1	4.785721E-1	4.442062E-1	4.236605E-1	4.321897E-1	4.516696E-1	4.197253E-1	4.507962E-1	4.375030E-1	4.486715E-1	4.276140E-1	4.083839E-1	4.305981E-1	4.596807E-1	4.528026E-1	4.180503E-1	4.055292E-1	4.347658E-1	4.367828E-1	4.356135E-1	4.624748E-1	4.315781E-1	4.512011E-1	4.022327E-1	4.053652E-1	4.512727E-1	4.389734E-1	4.403971E-1	4.198314E-1	4.204958E-1	4.337979E-1	4.719445E-1	4.698393E-1	4.468604E-1	4.042034E-1	4.437268E-1	4.357048E-1	4.497382E-1	4.357785E-1	4.400898E-1	4.128291E-1	4.093273E-1	4.442823E-1	4.380669E-1	5.008626E-1	4.458691E-1	4.322403E-1	4.266385E-1	4.742609E-1
2.858010E+2	4.336256E-1	4.367531E-1	4.234743E-1	4.072670E-1	4.363828E-1	4.550564E-1	4.233598E-1	4.421745E-1	4.100795E-1	4.235268E-1	4.153616E-1	4.502102E-1	4.321442E-1	4.212818E-1	4.356945E-1	4.483079E-1	4.463294E-1	4.516086E-1	4.136293E-1	4.191865E-1	4.358336E-1	4.353531E-1	4.706180E-1	4.762061E-1	4.797554E-1	4.441793E-1	4.443790E-1	4.477656E-1	4.421924E-1	4.830975E-1	4.486945E-1	4.686788E-1	4.313149E-1	4.483058E-1	4.396200E-1	4.398233E-1	4.311133E-1	4.909427E-1	4.648490E-1	4.457885E-1	4.484733E-1	4.842253E-1	4.534651E-1	4.373788E-1	4.482847E-1	4.519822E-1	4.435011E-1	4.373875E-1	4.348903E-1	4.369698E-1	4.606820E-1	4.305025E-1	4.407196E-1	4.499660E-1	4.580880E-1	4.775068E-1	4.527372E-1	4.421650E-1	4.839356E-1	4.699724E-1	4.306222E-1	4.321549E-1	4.805353E-1	4.343162E-1	4.662477E-1	4.576426E-1	4.785239E-1	3.948364E-1	4.371835E-1	4.271145E-1	4.317172E-1	3.959027E-1	4.280524E-1	4.782313E-1	4.396915E-1	4.862439E-1	4.514054E-1	4.682288E-1	4.680717E-1	4.097279E-1	4.383139E-1	3.970652E-1	4.213568E-1	4.620152E-1	4.363779E-1	4.336822E-1	4.553124E-1	4.861541E-1	4.374176E-1	4.401824E-1	4.808864E-1	4.734909E-1	4.701152E-1	4.281538E-1	4.627435E-1	4.150305E-1	4.567869E-1	4.483760E-1	4.451856E-1	4.245188E-1	4.144722E-1	4.493685E-1	4.689760E-1	4.343297E-1	4.508388E-1	4.185311E-1	4.683840E-1	4.378052E-1	4.867299E-1	4.474814E-1	4.184160E-1	4.393512E-1	4.657039E-1	4.507421E-1	4.662575E-1	4.535111E-1	4.384264E-1	4.371400E-1	4.756243E-1	4.634505E-1	4.442027E-1	4.440710E-1	4.822018E-1	4.363660E-1	4.623791E-1	4.588007E-1	4.633322E-1	5.117589E-1	4.427948E-1	4.599899E-1	4.739277E-1	4.462237E-1	4.729063E-1	4.385341E-1	4.541512E-1	4.065134E-1	4.555767E-1	4.517898E-1	4.355761E-1	4.892164E-1	4.458860E-1	4.324686E-1	4.711050E-1	4.602507E-1	4.658044E-1	4.446114E-1	4.617291E-1	4.225172E-1	4.492185E-1	5.267244E-1	4.315041E-1	4.166384E-1	4.269514E-1	4.660453E-1	4.320871E-1	4.353237E-1	4.701612E-1	4.718920E-1	4.490827E-1	4.197810E-1	4.649720E-1	4.398930E-1	4.144083E-1	4.295572E-1	4.468382E-1	4.568944E-1	4.095578E-1	4.725452E-1	4.796413E-1	4.158589E-1	5.305389E-1
2.860050E+2	6.906521E-1	6.846313E-1	7.193284E-1	6.440152E-1	6.689095E-1	6.774297E-1	6.865675E-1	6.801415E-1	6.713980E-1	6.433003E-1	7.014598E-1	7.121660E-1	6.413415E-1	6.947245E-1	6.784058E-1	6.768557E-1	6.637067E-1	7.110414E-1	7.005420E-1	6.906737E-1	7.012171E-1	6.991737E-1	7.263514E-1	7.014816E-1	7.032414E-1	7.359743E-1	7.430824E-1	7.515154E-1	6.961781E-1	7.118161E-1	6.858898E-1	6.842101E-1	6.941569E-1	7.159252E-1	7.431662E-1	7.327931E-1	7.014762E-1	7.105272E-1	7.767080E-1	7.623039E-1	6.689432E-1	7.322904E-1	7.457022E-1	7.017501E-1	6.758634E-1	6.849150E-1	7.403170E-1	6.782812E-1	6.997270E-1	6.870426E-1	7.329350E-1	7.518907E-1	6.950910E-1	7.243617E-1	7.159620E-1	7.163964E-1	7.213865E-1	7.188165E-1	7.379199E-1	7.062617E-1	7.134265E-1	7.128047E-1	7.022538E-1	7.371743E-1	7.407770E-1	6.847199E-1	7.355919E-1	7.051976E-1	7.042515E-1	6.699038E-1	6.988333E-1	6.951764E-1	7.303872E-1	7.218601E-1	7.275095E-1	7.359253E-1	7.153783E-1	6.975920E-1	7.242829E-1	7.286902E-1	7.342155E-1	7.151962E-1	6.966204E-1	6.827074E-1	7.696922E-1	7.204115E-1	6.974216E-1	7.212567E-1	6.779459E-1	6.480590E-1	7.236316E-1	6.623254E-1	7.097809E-1	6.958740E-1	7.296028E-1	6.980880E-1	7.113090E-1	6.723431E-1	7.330579E-1	6.918522E-1	6.987767E-1	7.194261E-1	7.341965E-1	7.066352E-1	7.312519E-1	6.940601E-1	7.328010E-1	6.837215E-1	7.239114E-1	6.383969E-1	7.329651E-1	6.971854E-1	7.358486E-1	7.167287E-1	7.564241E-1	7.264678E-1	7.658256E-1	6.996446E-1	7.022570E-1	6.974188E-1	7.008371E-1	7.245524E-1	6.780714E-1	7.134589E-1	6.839800E-1	7.315373E-1	7.097302E-1	6.982568E-1	6.862960E-1	7.500663E-1	6.865246E-1	7.068621E-1	7.001388E-1	7.031838E-1	7.001250E-1	7.185446E-1	6.868632E-1	6.351442E-1	7.283916E-1	7.262388E-1	7.280442E-1	7.143890E-1	6.978133E-1	6.736292E-1	6.917996E-1	7.041310E-1	6.624448E-1	7.140983E-1	7.257228E-1	6.780343E-1	7.340834E-1	6.616184E-1	7.217749E-1	7.088203E-1	7.395379E-1	6.855402E-1	7.192141E-1	7.010002E-1	6.842894E-1	6.776421E-1	6.845690E-1	7.416274E-1	6.649997E-1	6.923746E-1	7.170628E-1	7.208588E-1	7.190981E-1	7.041123E-1	7.112621E-1	6.947814E-1	7.517819E-1
2.862050E+2	1.228093E+0	1.189075E+0	1.237978E+0	1.219803E+0	1.212476E+0	1.250359E+0	1.221256E+0	1.184851E+0	1.215161E+0	1.150521E+0	1.188366E+0	1.200181E+0	1.228115E+0	1.225963E+0	1.245545E+0	1.181295E+0	1.232177E+0	1.248660E+0	1.232938E+0	1.191497E+0	1.282227E+0	1.171388E+0	1.228825E+0	1.164366E+0	1.196680E+0	1.200327E+0	1.239463E+0	1.220139E+0	1.225377E+0	1.216658E+0	1.208876E+0	1.170317E+0	1.175359E+0	1.244996E+0	1.203948E+0	1.189440E+0	1.239361E+0	1.180511E+0	1.210523E+0	1.253223E+0	1.253915E+0	1.206990E+0	1.279419E+0	1.162194E+0	1.204628E+0	1.211747E+0	1.220938E+0	1.251982E+0	1.236588E+0	1.231488E+0	1.197944E+0	1.180614E+0	1.190510E+0	1.229678E+0	1.305450E+0	1.187369E+0	1.210054E+0	1.206311E+0	1.251518E+0	1.266130E+0	1.158912E+0	1.237321E+0	1.245503E+0	1.272694E+0	1.276534E+0	1.162677E+0	1.251622E+0	1.226540E+0	1.239056E+0	1.201037E+0	1.195394E+0	1.224951E+0	1.236104E+0	1.204122E+0	1.145734E+0	1.221352E+0	1.215207E+0	1.227145E+0	1.234378E+0	1.181423E+0	1.218826E+0	1.166396E+0	1.223519E+0	1.206329E+0	1.225116E+0	1.264804E+0	1.241068E+0	1.257095E+0	1.223206E+0	1.237947E+0	1.262807E+0	1.281779E+0	1.267818E+0	1.224288E+0	1.224669E+0	1.231967E+0	1.283478E+0	1.292758E+0	1.207260E+0	1.221699E+0	1.186282E+0	1.180773E+0	1.169079E+0	1.205152E+0	1.231244E+0	1.240147E+0	1.252212E+0	1.197242E+0	1.241303E+0	1.177016E+0	1.289985E+0	1.227879E+0	1.342551E+0	1.235136E+0	1.303222E+0	1.225820E+0	1.277655E+0	1.161653E+0	1.238831E+0	1.224471E+0	1.193611E+0	1.240193E+0	1.238573E+0	1.253237E+0	1.236583E+0	1.236196E+0	1.257191E+0	1.271768E+0	1.189448E+0	1.245182E+0	1.174716E+0	1.225985E+0	1.207572E+0	1.185014E+0	1.203397E+0	1.191765E+0	1.224280E+0	1.190256E+0	1.262216E+0	1.241012E+0	1.228826E+0	1.201310E+0	1.219292E+0	1.191398E+0	1.246212E+0	1.181646E+0	1.235478E+0	1.302185E+0	1.270084E+0	1.243684E+0	1.274836E+0	1.149718E+0	1.265791E+0	1.274474E+0	1.297443E+0	1.236644E+0	1.191910E+0	1.181872E+0	1.262193E+0	1.233053E+0	1.262371E+0	1.169854E+0	1.169536E+0	1.251977E+0	1.241926E+0	1.171712E+0	1.241983E+0	1.190662E+0	1.227072E+0	1.227604E+0	1.277449E+0
2.864190E+2	1.266547E+0	1.327200E+0	1.246022E+0	1.293086E+0	1.276344E+0	1.336756E+0	1.266264E+0	1.289925E+0	1.291120E+0	1.278283E+0	1.278302E+0	1.313356E+0	1.328970E+0	1.288865E+0	1.271675E+0	1.297606E+0	1.245844E+0	1.280984E+0	1.245710E+0	1.313293E+0	1.305149E+0	1.273562E+0	1.298149E+0	1.324770E+0	1.269058E+0	1.263296E+0	1.357940E+0	1.274986E+0	1.291907E+0	1.363619E+0	1.301172E+0	1.259503E+0	1.265183E+0	1.287535E+0	1.223537E+0	1.236963E+0	1.258528E+0	1.351744E+0	1.297093E+0	1.339331E+0	1.279302E+0	1.286735E+0	1.301186E+0	1.280594E+0	1.360100E+0	1.281874E+0	1.261454E+0	1.275049E+0	1.352900E+0	1.344450E+0	1.335913E+0	1.312156E+0	1.279054E+0	1.261498E+0	1.287118E+0	1.237503E+0	1.235973E+0	1.262753E+0	1.334816E+0	1.322355E+0	1.271487E+0	1.329820E+0	1.271174E+0	1.349891E+0	1.246178E+0	1.333005E+0	1.286506E+0	1.237461E+0	1.346235E+0	1.279400E+0	1.276592E+0	1.359272E+0	1.300811E+0	1.287871E+0	1.361645E+0	1.339519E+0	1.305709E+0	1.215503E+0	1.290201E+0	1.269875E+0	1.245079E+0	1.295708E+0	1.283869E+0	1.307312E+0	1.307166E+0	1.249916E+0	1.338328E+0	1.338284E+0	1.291600E+0	1.273241E+0	1.310725E+0	1.344359E+0	1.340658E+0	1.317316E+0	1.373031E+0	1.322459E+0	1.281680E+0	1.277788E+0	1.297615E+0	1.273467E+0	1.270411E+0	1.315978E+0	1.412417E+0	1.279125E+0	1.307606E+0	1.256962E+0	1.323239E+0	1.270219E+0	1.338882E+0	1.298422E+0	1.270728E+0	1.258320E+0	1.281731E+0	1.280395E+0	1.327619E+0	1.328504E+0	1.312093E+0	1.257724E+0	1.302088E+0	1.263941E+0	1.304387E+0	1.270769E+0	1.329436E+0	1.329467E+0	1.288959E+0	1.296984E+0	1.330495E+0	1.334677E+0	1.292909E+0	1.288260E+0	1.294956E+0	1.354384E+0	1.274716E+0	1.274858E+0	1.312458E+0	1.288919E+0	1.272283E+0	1.379954E+0	1.336323E+0	1.300736E+0	1.333118E+0	1.216592E+0	1.271076E+0	1.280417E+0	1.355622E+0	1.288957E+0	1.310586E+0	1.311063E+0	1.339294E+0	1.283782E+0	1.338278E+0	1.307336E+0	1.351207E+0	1.297452E+0	1.325638E+0	1.244457E+0	1.280731E+0	1.258844E+0	1.275721E+0	1.304853E+0	1.316222E+0	1.289155E+0	1.221110E+0	1.236048E+0	1.324796E+0	1.263898E+0	1.349147E+0	1.260275E+0	1.291687E+0	1.285842E+0	1.420118E+0
2.866180E+2	1.139006E+0	1.186584E+0	1.168605E+0	1.187074E+0	1.155861E+0	1.206888E+0	1.180608E+0	1.218073E+0	1.182400E+0	1.167251E+0	1.139073E+0	1.163627E+0	1.174423E+0	1.191724E+0	1.182346E+0	1.179445E+0	1.147924E+0	1.245566E+0	1.179175E+0	1.203479E+0	1.190047E+0	1.203523E+0	1.267003E+0	1.219886E+0	1.204594E+0	1.217085E+0	1.246854E+0	1.175940E+0	1.194057E+0	1.167785E+0	1.193656E+0	1.188044E+0	1.179525E+0	1.197409E+0	1.188595E+0	1.158556E+0	1.159778E+0	1.230253E+0	1.205842E+0	1.185732E+0	1.137493E+0	1.200709E+0	1.219247E+0	1.193236E+0	1.253700E+0	1.176163E+0	1.217061E+0	1.223169E+0	1.262312E+0	1.174698E+0	1.305297E+0	1.192403E+0	1.227666E+0	1.188531E+0	1.250245E+0	1.186594E+0	1.169200E+0	1.133544E+0	1.213462E+0	1.187041E+0	1.176072E+0	1.214955E+0	1.151723E+0	1.220847E+0	1.308979E+0	1.182610E+0	1.195709E+0	1.169952E+0	1.199831E+0	1.208069E+0	1.317839E+0	1.217052E+0	1.163785E+0	1.156970E+0	1.185340E+0	1.236855E+0	1.158900E+0	1.194331E+0	1.179146E+0	1.210057E+0	1.170044E+0	1.172131E+0	1.195253E+0	1.226647E+0	1.196249E+0	1.238166E+0	1.180943E+0	1.178050E+0	1.212466E+0	1.272676E+0	1.223961E+0	1.225528E+0	1.152720E+0	1.207158E+0	1.210488E+0	1.174864E+0	1.186012E+0	1.190647E+0	1.200729E+0	1.194813E+0	1.201105E+0	1.179486E+0	1.299523E+0	1.130683E+0	1.261541E+0	1.204654E+0	1.203302E+0	1.135717E+0	1.202425E+0	1.224824E+0	1.195828E+0	1.232894E+0	1.242965E+0	1.188437E+0	1.185585E+0	1.183104E+0	1.207039E+0	1.204119E+0	1.215554E+0	1.178293E+0	1.167171E+0	1.183354E+0	1.183269E+0	1.186185E+0	1.235694E+0	1.216696E+0	1.154344E+0	1.142995E+0	1.145755E+0	1.153868E+0	1.245507E+0	1.199774E+0	1.211633E+0	1.141127E+0	1.226237E+0	1.173592E+0	1.180610E+0	1.179807E+0	1.180643E+0	1.226354E+0	1.222065E+0	1.116375E+0	1.181471E+0	1.168821E+0	1.173719E+0	1.200462E+0	1.186176E+0	1.203821E+0	1.228601E+0	1.214914E+0	1.193813E+0	1.160067E+0	1.184647E+0	1.289719E+0	1.251215E+0	1.159525E+0	1.244718E+0	1.171428E+0	1.213810E+0	1.153863E+0	1.186058E+0	1.168902E+0	1.168706E+0	1.145405E+0	1.239168E+0	1.130327E+0	1.175765E+0	1.176201E+0	1.232742E+0	1.218821E+0	1.284293E+0
2.868000E+2	1.335158E+0	1.325040E+0	1.351484E+0	1.272361E+0	1.303884E+0	1.363708E+0	1.352656E+0	1.362636E+0	1.296187E+0	1.330805E+0	1.333238E+0	1.366367E+0	1.330871E+0	1.274547E+0	1.294020E+0	1.314303E+0	1.315711E+0	1.344218E+0	1.310308E+0	1.378519E+0	1.370528E+0	1.307617E+0	1.282241E+0	1.355029E+0	1.307321E+0	1.285271E+0	1.301822E+0	1.366782E+0	1.320331E+0	1.387965E+0	1.307863E+0	1.323891E+0	1.251857E+0	1.378786E+0	1.313754E+0	1.287415E+0	1.289574E+0	1.263662E+0	1.374922E+0	1.372631E+0	1.319760E+0	1.290012E+0	1.354996E+0	1.339433E+0	1.325827E+0	1.262233E+0	1.322707E+0	1.312096E+0	1.367275E+0	1.322252E+0	1.369566E+0	1.317421E+0	1.280342E+0	1.313546E+0	1.383922E+0	1.335142E+0	1.250283E+0	1.316810E+0	1.413927E+0	1.378506E+0	1.342940E+0	1.335796E+0	1.310289E+0	1.339343E+0	1.400805E+0	1.273340E+0	1.403573E+0	1.298531E+0	1.337363E+0	1.316373E+0	1.363529E+0	1.262500E+0	1.312890E+0	1.318521E+0	1.381233E+0	1.329863E+0	1.353524E+0	1.321395E+0	1.375775E+0	1.317917E+0	1.405804E+0	1.278663E+0	1.273844E+0	1.312264E+0	1.354362E+0	1.308031E+0	1.349004E+0	1.341313E+0	1.291151E+0	1.224372E+0	1.360180E+0	1.405482E+0	1.373636E+0	1.350195E+0	1.412306E+0	1.352106E+0	1.337609E+0	1.333795E+0	1.366267E+0	1.326762E+0	1.351369E+0	1.292556E+0	1.330484E+0	1.367525E+0	1.319220E+0	1.331490E+0	1.384732E+0	1.268073E+0	1.331765E+0	1.296408E+0	1.286505E+0	1.321446E+0	1.342516E+0	1.303597E+0	1.387109E+0	1.278391E+0	1.388642E+0	1.377850E+0	1.318710E+0	1.310559E+0	1.335196E+0	1.310001E+0	1.328206E+0	1.314209E+0	1.322921E+0	1.362615E+0	1.321933E+0	1.323817E+0	1.367545E+0	1.361220E+0	1.364952E+0	1.303774E+0	1.301184E+0	1.222167E+0	1.299665E+0	1.317413E+0	1.390448E+0	1.313249E+0	1.381109E+0	1.308481E+0	1.344817E+0	1.265764E+0	1.386900E+0	1.371550E+0	1.311188E+0	1.372783E+0	1.452606E+0	1.301834E+0	1.306986E+0	1.310443E+0	1.407049E+0	1.344580E+0	1.297933E+0	1.382748E+0	1.331590E+0	1.325273E+0	1.303663E+0	1.245120E+0	1.345322E+0	1.332321E+0	1.402850E+0	1.344791E+0	1.330217E+0	1.249077E+0	1.342056E+0	1.316824E+0	1.390160E+0	1.285633E+0	1.331981E+0	1.247316E+0	1.529163E+0
2.870190E+2	1.300859E+0	1.293989E+0	1.314242E+0	1.254893E+0	1.265188E+0	1.281298E+0	1.342368E+0	1.301713E+0	1.278456E+0	1.303255E+0	1.267235E+0	1.332085E+0	1.316283E+0	1.297784E+0	1.263214E+0	1.335470E+0	1.228332E+0	1.350949E+0	1.256856E+0	1.289485E+0	1.303567E+0	1.315609E+0	1.316650E+0	1.235194E+0	1.224570E+0	1.259617E+0	1.286063E+0	1.315617E+0	1.200683E+0	1.271889E+0	1.244138E+0	1.298628E+0	1.279858E+0	1.283198E+0	1.258570E+0	1.224483E+0	1.310978E+0	1.252053E+0	1.237604E+0	1.294820E+0	1.233712E+0	1.253579E+0	1.285427E+0	1.276942E+0	1.292221E+0	1.248308E+0	1.230260E+0	1.203235E+0	1.318695E+0	1.255168E+0	1.329861E+0	1.258988E+0	1.239205E+0	1.269372E+0	1.299563E+0	1.295380E+0	1.273181E+0	1.262897E+0	1.289198E+0	1.249297E+0	1.258662E+0	1.308031E+0	1.234022E+0	1.306319E+0	1.278754E+0	1.226194E+0	1.291305E+0	1.305603E+0	1.242293E+0	1.223201E+0	1.279498E+0	1.335860E+0	1.303429E+0	1.284960E+0	1.248722E+0	1.315331E+0	1.335649E+0	1.275516E+0	1.301370E+0	1.255347E+0	1.256472E+0	1.258539E+0	1.295009E+0	1.221646E+0	1.320940E+0	1.282053E+0	1.300010E+0	1.263472E+0	1.277521E+0	1.284332E+0	1.352599E+0	1.368740E+0	1.335630E+0	1.299683E+0	1.264791E+0	1.265255E+0	1.349042E+0	1.217054E+0	1.278644E+0	1.239525E+0	1.293834E+0	1.240034E+0	1.310566E+0	1.262403E+0	1.324754E+0	1.263901E+0	1.245349E+0	1.248262E+0	1.329295E+0	1.212495E+0	1.289611E+0	1.309741E+0	1.338620E+0	1.291282E+0	1.329887E+0	1.277337E+0	1.315851E+0	1.258716E+0	1.294759E+0	1.225585E+0	1.282413E+0	1.356364E+0	1.290420E+0	1.213167E+0	1.342184E+0	1.315403E+0	1.332691E+0	1.297719E+0	1.297308E+0	1.310632E+0	1.354213E+0	1.294977E+0	1.277250E+0	1.237815E+0	1.316880E+0	1.263873E+0	1.216023E+0	1.325317E+0	1.278912E+0	1.298712E+0	1.269837E+0	1.272135E+0	1.316183E+0	1.226701E+0	1.286349E+0	1.268336E+0	1.321082E+0	1.238631E+0	1.315953E+0	1.312883E+0	1.335675E+0	1.284435E+0	1.277788E+0	1.256501E+0	1.315556E+0	1.334975E+0	1.247460E+0	1.267951E+0	1.304289E+0	1.273436E+0	1.307193E+0	1.316976E+0	1.300058E+0	1.324883E+0	1.284870E+0	1.263125E+0	1.316297E+0	1.310710E+0	1.289158E+0	1.255803E+0	1.381360E+0
2.872120E+2	1.073049E+0	1.114608E+0	1.103470E+0	1.047309E+0	1.070417E+0	1.106590E+0	1.080862E+0	1.113427E+0	1.095222E+0	1.106476E+0	1.095044E+0	1.133056E+0	1.083335E+0	1.078098E+0	1.086465E+0	1.072844E+0	1.053535E+0	1.116224E+0	1.107793E+0	1.076832E+0	1.114813E+0	1.116812E+0	1.103956E+0	1.095577E+0	1.089445E+0	1.073440E+0	1.077802E+0	1.035465E+0	1.120530E+0	1.042706E+0	1.081228E+0	1.048919E+0	1.086576E+0	1.115213E+0	1.069392E+0	1.038735E+0	1.054537E+0	1.070208E+0	1.055107E+0	1.140096E+0	1.016236E+0	1.047743E+0	1.068653E+0	1.087578E+0	1.079490E+0	1.123446E+0	1.127750E+0	1.139267E+0	1.101803E+0	1.118235E+0	1.128868E+0	1.111366E+0	1.096598E+0	1.107569E+0	1.109227E+0	1.112257E+0	1.049643E+0	1.060015E+0	1.082317E+0	1.109464E+0	1.060469E+0	1.110833E+0	1.077990E+0	1.069724E+0	1.084179E+0	1.068780E+0	1.158180E+0	1.083423E+0	1.068329E+0	1.067731E+0	1.065742E+0	1.083538E+0	1.076992E+0	1.103396E+0	1.056620E+0	1.114981E+0	1.091205E+0	1.091929E+0	1.070042E+0	1.047065E+0	1.119329E+0	1.065236E+0	1.068485E+0	1.143966E+0	1.104138E+0	1.131554E+0	1.100955E+0	1.083498E+0	1.093947E+0	1.111159E+0	1.131137E+0	1.075431E+0	1.144037E+0	1.129398E+0	1.046848E+0	1.069141E+0	1.145446E+0	1.153108E+0	1.096348E+0	1.129555E+0	1.104376E+0	1.093404E+0	1.099310E+0	1.038141E+0	1.109295E+0	1.089400E+0	1.162097E+0	1.122139E+0	1.135349E+0	1.059091E+0	1.088730E+0	1.117428E+0	1.114547E+0	1.084037E+0	1.151173E+0	1.066853E+0	1.119145E+0	1.084018E+0	1.152154E+0	1.097173E+0	1.077571E+0	1.078397E+0	1.066108E+0	1.083033E+0	1.144202E+0	1.101118E+0	1.067535E+0	1.119771E+0	1.044676E+0	1.097581E+0	1.125440E+0	1.129238E+0	1.097721E+0	1.068513E+0	1.145980E+0	1.106331E+0	1.064839E+0	1.100916E+0	1.128892E+0	1.162709E+0	1.112614E+0	1.046002E+0	1.116117E+0	1.117498E+0	1.159315E+0	1.092686E+0	1.130678E+0	1.158381E+0	1.086002E+0	1.105604E+0	1.124522E+0	1.076570E+0	1.065147E+0	1.123470E+0	1.110716E+0	1.116792E+0	1.096282E+0	1.116584E+0	1.086499E+0	1.044260E+0	1.191040E+0	1.085953E+0	1.061325E+0	1.082358E+0	1.128583E+0	1.120586E+0	1.128461E+0	1.047728E+0	1.121712E+0	1.069764E+0	1.128904E+0
2.874030E+2	8.033237E-1	8.631109E-1	8.990375E-1	8.446023E-1	8.384620E-1	8.650086E-1	8.247636E-1	8.402158E-1	8.841127E-1	7.964580E-1	8.470264E-1	8.988068E-1	8.703620E-1	8.194301E-1	8.278489E-1	8.577061E-1	8.090613E-1	8.638321E-1	7.844022E-1	8.480369E-1	8.346531E-1	8.516832E-1	8.423536E-1	8.506703E-1	7.941577E-1	8.474127E-1	8.456307E-1	8.899915E-1	8.240298E-1	8.433611E-1	8.800640E-1	8.560321E-1	8.501928E-1	8.357063E-1	7.853642E-1	8.387831E-1	8.402191E-1	8.361511E-1	8.643074E-1	8.164542E-1	8.537358E-1	8.490392E-1	8.736343E-1	8.560756E-1	8.382923E-1	8.239240E-1	8.253203E-1	8.428711E-1	8.977482E-1	8.318576E-1	8.547955E-1	8.265178E-1	8.266330E-1	8.500262E-1	8.464528E-1	8.330803E-1	8.344161E-1	8.082164E-1	8.459226E-1	9.049298E-1	8.251207E-1	8.551675E-1	8.288345E-1	8.429332E-1	8.379847E-1	8.330888E-1	8.276638E-1	8.698279E-1	8.294634E-1	8.279256E-1	8.540856E-1	8.374779E-1	8.105923E-1	8.586456E-1	8.370711E-1	8.710733E-1	8.741797E-1	8.290110E-1	8.506644E-1	8.095453E-1	8.382850E-1	8.101001E-1	8.187310E-1	8.538057E-1	8.617808E-1	8.479171E-1	8.945063E-1	8.224642E-1	8.876550E-1	8.478332E-1	9.129885E-1	8.960864E-1	9.010880E-1	8.479947E-1	8.459520E-1	8.183550E-1	8.161239E-1	8.323553E-1	8.470419E-1	8.741358E-1	8.238757E-1	8.074118E-1	8.973242E-1	8.822272E-1	9.040622E-1	8.200195E-1	8.492982E-1	8.483995E-1	8.676313E-1	8.167691E-1	8.207536E-1	8.893161E-1	9.280782E-1	8.250908E-1	8.577382E-1	8.624026E-1	8.821587E-1	8.437484E-1	8.449492E-1	8.384426E-1	8.018939E-1	8.095510E-1	8.198532E-1	8.860091E-1	8.719766E-1	8.853903E-1	8.946664E-1	8.876185E-1	8.532881E-1	8.447103E-1	8.612319E-1	8.885387E-1	8.379795E-1	8.185495E-1	8.937821E-1	8.486113E-1	8.492970E-1	8.462731E-1	8.875604E-1	8.466784E-1	8.743847E-1	7.672432E-1	8.505971E-1	8.266770E-1	8.789775E-1	8.793580E-1	8.554739E-1	8.681736E-1	8.920686E-1	8.375334E-1	9.100766E-1	8.298126E-1	8.056372E-1	8.528259E-1	9.100750E-1	8.038356E-1	8.644307E-1	8.159211E-1	8.613634E-1	8.166334E-1	8.696671E-1	8.771788E-1	8.467970E-1	8.604987E-1	8.633632E-1	8.952175E-1	8.770756E-1	9.119485E-1	8.022928E-1	7.716655E-1	8.789069E-1
2.876120E+2	7.237545E-1	6.770613E-1	7.080509E-1	6.573337E-1	6.650638E-1	6.855186E-1	6.030634E-1	6.433665E-1	6.191983E-1	5.818746E-1	6.376915E-1	6.795277E-1	6.412769E-1	6.422784E-1	5.992514E-1	6.611264E-1	6.288612E-1	6.728187E-1	5.956165E-1	6.394519E-1	6.457768E-1	6.697890E-1	6.573764E-1	6.767902E-1	6.622676E-1	6.856350E-1	6.493726E-1	6.820344E-1	6.706622E-1	6.499456E-1	6.638538E-1	6.484523E-1	6.740318E-1	6.607129E-1	6.452927E-1	6.295819E-1	6.657958E-1	6.108414E-1	6.290020E-1	6.349116E-1	6.287667E-1	6.418870E-1	6.406060E-1	6.686177E-1	6.836099E-1	6.759804E-1	5.964053E-1	6.513502E-1	6.686148E-1	6.550583E-1	6.745729E-1	6.930850E-1	6.432657E-1	6.504905E-1	6.597920E-1	6.529922E-1	6.388067E-1	6.461105E-1	6.985284E-1	6.193647E-1	6.363598E-1	6.267996E-1	6.550798E-1	6.847708E-1	6.329367E-1	6.409909E-1	6.747859E-1	6.231532E-1	6.849146E-1	6.385554E-1	6.165508E-1	6.692705E-1	6.509663E-1	6.529289E-1	6.753711E-1	6.982624E-1	6.631590E-1	6.612186E-1	6.655683E-1	6.592806E-1	6.823124E-1	6.619201E-1	6.422050E-1	6.691286E-1	6.512244E-1	6.339219E-1	6.884691E-1	6.791227E-1	6.582490E-1	6.489651E-1	6.542470E-1	6.811653E-1	6.847939E-1	6.479160E-1	5.921863E-1	6.566104E-1	6.548699E-1	6.516023E-1	6.019532E-1	6.191918E-1	6.488516E-1	6.960019E-1	7.204132E-1	6.573298E-1	6.652567E-1	6.320706E-1	6.915157E-1	6.026740E-1	6.636691E-1	6.458832E-1	6.684476E-1	6.152266E-1	6.664331E-1	6.419554E-1	6.628281E-1	6.843454E-1	6.849836E-1	6.595828E-1	6.603881E-1	6.275162E-1	6.650572E-1	6.409675E-1	5.986000E-1	6.343270E-1	6.467724E-1	6.855319E-1	6.773808E-1	6.759292E-1	6.826427E-1	6.586174E-1	6.866300E-1	6.336035E-1	6.692216E-1	6.394859E-1	6.887334E-1	6.682200E-1	6.444318E-1	6.313115E-1	6.612385E-1	6.458964E-1	6.677024E-1	6.382608E-1	6.680173E-1	6.110578E-1	6.538816E-1	6.750372E-1	6.887105E-1	6.461507E-1	6.515097E-1	6.163858E-1	6.618159E-1	6.089617E-1	6.167152E-1	6.942860E-1	6.739037E-1	6.426287E-1	6.735905E-1	6.222778E-1	6.803726E-1	6.545148E-1	7.094924E-1	6.664273E-1	6.263879E-1	6.172742E-1	6.485291E-1	6.278294E-1	6.495584E-1	6.445058E-1	6.317938E-1	6.495484E-1	7.268073E-1
2.878030E+2	6.905385E-1	7.044604E-1	7.329352E-1	6.914017E-1	7.221282E-1	7.539049E-1	7.131055E-1	7.446361E-1	7.121643E-1	6.878575E-1	6.930745E-1	7.244256E-1	7.201731E-1	6.667674E-1	6.798470E-1	7.515464E-1	6.934139E-1	7.431308E-1	6.943726E-1	7.111577E-1	6.865441E-1	7.041701E-1	7.157801E-1	7.194441E-1	7.371879E-1	7.468741E-1	7.398913E-1	6.845844E-1	6.730744E-1	6.919977E-1	7.127601E-1	7.353206E-1	7.352796E-1	7.187751E-1	7.343485E-1	6.904834E-1	6.797824E-1	6.977871E-1	7.308665E-1	7.225959E-1	7.332437E-1	7.415808E-1	7.072090E-1	6.737064E-1	7.585113E-1	6.797836E-1	7.107079E-1	7.149993E-1	7.358451E-1	7.195035E-1	7.480044E-1	7.538666E-1	7.226268E-1	6.884877E-1	7.051326E-1	7.363634E-1	7.014298E-1	7.364518E-1	7.250980E-1	7.080697E-1	6.694801E-1	7.211335E-1	7.182839E-1	7.552506E-1	7.151835E-1	7.587163E-1	7.064167E-1	6.922798E-1	6.859952E-1	6.909683E-1	7.065239E-1	7.223146E-1	7.089415E-1	7.014923E-1	6.786033E-1	7.302632E-1	7.178921E-1	7.182117E-1	6.945791E-1	7.236958E-1	7.212360E-1	7.278791E-1	6.990845E-1	7.890668E-1	7.674049E-1	7.211196E-1	7.589016E-1	7.362046E-1	7.250345E-1	7.202502E-1	7.405395E-1	7.222376E-1	7.815380E-1	7.031876E-1	7.420367E-1	7.422080E-1	6.997288E-1	6.943431E-1	7.126274E-1	6.763504E-1	7.560241E-1	6.966223E-1	7.544319E-1	7.195138E-1	7.459683E-1	7.342754E-1	6.989400E-1	7.033429E-1	7.301985E-1	7.120116E-1	7.496116E-1	7.306854E-1	7.633580E-1	6.922712E-1	7.595678E-1	7.419957E-1	7.057758E-1	6.782398E-1	7.250910E-1	7.326606E-1	7.220276E-1	7.051657E-1	7.240866E-1	7.312817E-1	6.985912E-1	7.241590E-1	7.987887E-1	7.184559E-1	7.460721E-1	7.007713E-1	7.119888E-1	7.220980E-1	6.853582E-1	7.386654E-1	7.364887E-1	7.358290E-1	7.146443E-1	7.394587E-1	7.183135E-1	7.187455E-1	7.125460E-1	6.861977E-1	7.723975E-1	7.547360E-1	7.039509E-1	7.575504E-1	7.314849E-1	6.953273E-1	7.358273E-1	7.303776E-1	7.270172E-1	6.911178E-1	6.925455E-1	7.030673E-1	7.266615E-1	7.384025E-1	7.417762E-1	7.120144E-1	6.975197E-1	7.245298E-1	7.612721E-1	6.980461E-1	6.753863E-1	7.738395E-1	7.076554E-1	6.897389E-1	6.800828E-1	7.166515E-1	7.742264E-1	7.297648E-1	6.654916E-1
2.880040E+2	7.715121E-1	7.396696E-1	7.603803E-1	7.720501E-1	7.682817E-1	7.668980E-1	8.057413E-1	7.704394E-1	7.879941E-1	7.122447E-1	7.568916E-1	7.857763E-1	7.385313E-1	7.808747E-1	7.212801E-1	7.906132E-1	7.370196E-1	7.994220E-1	7.360205E-1	7.128596E-1	7.698278E-1	7.593958E-1	7.732890E-1	7.436562E-1	7.568417E-1	7.612811E-1	7.735608E-1	7.665960E-1	8.054708E-1	7.449506E-1	7.723112E-1	7.526320E-1	7.693492E-1	8.175283E-1	7.340229E-1	7.369500E-1	7.470760E-1	7.575360E-1	7.475473E-1	7.734371E-1	7.783053E-1	7.366695E-1	7.741184E-1	7.791776E-1	8.244788E-1	7.144374E-1	7.776937E-1	7.767529E-1	8.245349E-1	7.478738E-1	7.680099E-1	7.680811E-1	7.374525E-1	7.687719E-1	7.609302E-1	7.698807E-1	7.458783E-1	7.293718E-1	8.115903E-1	7.742027E-1	7.937885E-1	7.869811E-1	7.528031E-1	8.275022E-1	8.648329E-1	7.940260E-1	7.702559E-1	7.872340E-1	7.645377E-1	7.426411E-1	7.681739E-1	7.889428E-1	7.826625E-1	7.447445E-1	7.857995E-1	8.080535E-1	7.512414E-1	7.846063E-1	7.828238E-1	7.911335E-1	8.068551E-1	7.492091E-1	7.336908E-1	7.951084E-1	7.939733E-1	7.937750E-1	8.167991E-1	7.312203E-1	7.743666E-1	7.363400E-1	7.820682E-1	7.857456E-1	7.716559E-1	7.540789E-1	7.841915E-1	7.615659E-1	7.777362E-1	7.244053E-1	7.949240E-1	7.723105E-1	7.840807E-1	7.818070E-1	8.156456E-1	7.659288E-1	7.537119E-1	7.997951E-1	7.977756E-1	8.170656E-1	8.099218E-1	7.651551E-1	7.552459E-1	7.741933E-1	7.661428E-1	7.530922E-1	7.836551E-1	8.129765E-1	8.360052E-1	7.213647E-1	7.862039E-1	7.873380E-1	7.681831E-1	7.735369E-1	7.471886E-1	7.875654E-1	7.813527E-1	7.880823E-1	7.610277E-1	8.003782E-1	8.307615E-1	7.747002E-1	7.852383E-1	7.788689E-1	7.938245E-1	7.363600E-1	7.871294E-1	7.659474E-1	8.080169E-1	7.784732E-1	7.503280E-1	8.573650E-1	7.681480E-1	7.905440E-1	7.595495E-1	7.342333E-1	7.579953E-1	8.357369E-1	7.789964E-1	8.017206E-1	7.822275E-1	7.921836E-1	8.001213E-1	7.564941E-1	7.631436E-1	7.678733E-1	7.827084E-1	8.155703E-1	7.779776E-1	7.484614E-1	8.042319E-1	7.919504E-1	7.913501E-1	7.642136E-1	7.352330E-1	7.839694E-1	8.367355E-1	7.857606E-1	8.272150E-1	7.941375E-1	7.755037E-1	7.343043E-1	8.072921E-1
2.882200E+2	7.714920E-1	7.946277E-1	7.849592E-1	7.682221E-1	7.376580E-1	7.691116E-1	7.718312E-1	7.948679E-1	7.306165E-1	7.948795E-1	7.401541E-1	7.817483E-1	7.341139E-1	8.033621E-1	7.578609E-1	7.891020E-1	7.437056E-1	7.903604E-1	7.731241E-1	7.650720E-1	7.564734E-1	7.514739E-1	7.756954E-1	8.362876E-1	7.375061E-1	8.150369E-1	7.684257E-1	8.125066E-1	7.560867E-1	7.790738E-1	7.511608E-1	7.548577E-1	8.094539E-1	7.596817E-1	7.448493E-1	7.977013E-1	7.876395E-1	7.798149E-1	7.944794E-1	7.680525E-1	7.796109E-1	7.679597E-1	7.784924E-1	7.345297E-1	7.861947E-1	7.675936E-1	7.473699E-1	7.869290E-1	8.209192E-1	7.810226E-1	8.213786E-1	7.443927E-1	7.375513E-1	8.062403E-1	7.886725E-1	8.187462E-1	7.869089E-1	7.679030E-1	7.641414E-1	8.144403E-1	7.797855E-1	7.684607E-1	7.853385E-1	8.129734E-1	8.622519E-1	7.713758E-1	8.046498E-1	7.371883E-1	7.800121E-1	8.144757E-1	7.528816E-1	7.862065E-1	8.057825E-1	7.756278E-1	7.394545E-1	7.953267E-1	7.724885E-1	8.144918E-1	8.038198E-1	7.913098E-1	7.552768E-1	7.759205E-1	7.438602E-1	7.501219E-1	7.717755E-1	7.700362E-1	8.180119E-1	7.892753E-1	7.836309E-1	7.823122E-1	8.134439E-1	8.375762E-1	7.923993E-1	7.677128E-1	8.250449E-1	7.310423E-1	8.080346E-1	8.055546E-1	7.716925E-1	7.559823E-1	7.670904E-1	7.920454E-1	8.097139E-1	7.678632E-1	8.246987E-1	7.818945E-1	7.813031E-1	7.950724E-1	8.307319E-1	8.432988E-1	7.622846E-1	7.668591E-1	8.076137E-1	7.541483E-1	7.895478E-1	7.715865E-1	8.241365E-1	7.836211E-1	7.650391E-1	7.987414E-1	7.545573E-1	7.942301E-1	7.503947E-1	7.679595E-1	8.518282E-1	7.856946E-1	8.202364E-1	8.540113E-1	7.656348E-1	7.671195E-1	8.058246E-1	8.000860E-1	7.742180E-1	7.543233E-1	7.863044E-1	7.625207E-1	7.889206E-1	7.775428E-1	7.297764E-1	8.229465E-1	8.188927E-1	7.745219E-1	7.793089E-1	7.451449E-1	8.093814E-1	7.681966E-1	7.462602E-1	7.792911E-1	7.776893E-1	7.969631E-1	8.074910E-1	7.558073E-1	7.056086E-1	7.990793E-1	8.007914E-1	8.055360E-1	8.079447E-1	7.939405E-1	7.918066E-1	8.196003E-1	8.206526E-1	7.766888E-1	7.363900E-1	8.031374E-1	7.599748E-1	7.409589E-1	7.494351E-1	7.894637E-1	8.062625E-1	8.491482E-1	7.646074E-1
2.884090E+2	8.741158E-1	8.701043E-1	8.990079E-1	9.079514E-1	8.347765E-1	8.503534E-1	8.491457E-1	8.924131E-1	8.223813E-1	8.015295E-1	8.060513E-1	8.568566E-1	8.796823E-1	8.375262E-1	8.248059E-1	8.496168E-1	8.339408E-1	9.020039E-1	8.149108E-1	8.180449E-1	8.402942E-1	8.541162E-1	8.399288E-1	8.980964E-1	8.811444E-1	8.810994E-1	8.487970E-1	8.409775E-1	8.105892E-1	8.777478E-1	8.465541E-1	9.008167E-1	8.306887E-1	8.950226E-1	8.716798E-1	8.324409E-1	8.926299E-1	8.767541E-1	8.233952E-1	8.830195E-1	8.080625E-1	8.153537E-1	8.594293E-1	8.624049E-1	8.965495E-1	8.373757E-1	9.153795E-1	8.751468E-1	8.429574E-1	8.754457E-1	8.759937E-1	8.446623E-1	8.514640E-1	8.512650E-1	8.327441E-1	8.855259E-1	8.911531E-1	8.306193E-1	8.746146E-1	8.436501E-1	8.065999E-1	9.258774E-1	8.338886E-1	9.088684E-1	9.026448E-1	8.307539E-1	8.756975E-1	8.157301E-1	8.475488E-1	8.744731E-1	8.888568E-1	8.432480E-1	9.054423E-1	8.371752E-1	8.307760E-1	8.476291E-1	8.698294E-1	8.619277E-1	8.379164E-1	8.432691E-1	8.978272E-1	8.788784E-1	8.667386E-1	8.736861E-1	8.942222E-1	8.885928E-1	8.749332E-1	9.081955E-1	8.748133E-1	8.565267E-1	8.818869E-1	8.999716E-1	9.045431E-1	8.730262E-1	8.620371E-1	8.939144E-1	8.975419E-1	9.079512E-1	8.238613E-1	8.328862E-1	8.646408E-1	8.843545E-1	8.902208E-1	8.522189E-1	9.183493E-1	8.437201E-1	7.960236E-1	8.772558E-1	8.941619E-1	8.300720E-1	8.456581E-1	9.105015E-1	9.340276E-1	8.414095E-1	8.213826E-1	8.664380E-1	8.609498E-1	8.785057E-1	8.430464E-1	9.012891E-1	8.651764E-1	8.498382E-1	8.826592E-1	8.751237E-1	8.463938E-1	8.838477E-1	9.226871E-1	8.952866E-1	9.055800E-1	8.312473E-1	8.660777E-1	8.478143E-1	8.602242E-1	8.679904E-1	8.227207E-1	8.422732E-1	8.324477E-1	8.497569E-1	8.315387E-1	8.495215E-1	8.699156E-1	8.408182E-1	8.283426E-1	8.204478E-1	8.908199E-1	8.760760E-1	8.298938E-1	9.161502E-1	9.098204E-1	8.223394E-1	8.625700E-1	8.647844E-1	8.140941E-1	8.588209E-1	8.439573E-1	8.947287E-1	8.731166E-1	8.510076E-1	8.498949E-1	8.973242E-1	8.863635E-1	8.511202E-1	8.231544E-1	8.303449E-1	8.742354E-1	8.761104E-1	8.313494E-1	8.976245E-1	8.803461E-1	8.468923E-1	7.913910E-1
2.886010E+2	1.124006E+0	1.157146E+0	1.195052E+0	1.106582E+0	1.107476E+0	1.130816E+0	1.100161E+0	1.194451E+0	1.119909E+0	1.079691E+0	1.094812E+0	1.169457E+0	1.094733E+0	1.135705E+0	1.105367E+0	1.160632E+0	1.072966E+0	1.109732E+0	1.139305E+0	1.143423E+0	1.152335E+0	1.124422E+0	1.146392E+0	1.133355E+0	1.133201E+0	1.163501E+0	1.091362E+0	1.125252E+0	1.090685E+0	1.123668E+0	1.147830E+0	1.125326E+0	1.123038E+0	1.147617E+0	1.059918E+0	1.076704E+0	1.087441E+0	1.102327E+0	1.125875E+0	1.131786E+0	1.096037E+0	1.054029E+0	1.097749E+0	1.121505E+0	1.113625E+0	1.100680E+0	1.100945E+0	1.135955E+0	1.138500E+0	1.071031E+0	1.121262E+0	1.203847E+0	1.107793E+0	1.115905E+0	1.111572E+0	1.123025E+0	1.146178E+0	1.118309E+0	1.106298E+0	1.140367E+0	1.079014E+0	1.156582E+0	1.114439E+0	1.188605E+0	1.159296E+0	1.090417E+0	1.145448E+0	1.164665E+0	1.145139E+0	1.110522E+0	1.120767E+0	1.096386E+0	1.187508E+0	1.170643E+0	1.117894E+0	1.212165E+0	1.077531E+0	1.140131E+0	1.127909E+0	1.072143E+0	1.109811E+0	1.084592E+0	1.178143E+0	1.191713E+0	1.180462E+0	1.109091E+0	1.154538E+0	1.114251E+0	1.128142E+0	1.162043E+0	1.109973E+0	1.192074E+0	1.136884E+0	1.123197E+0	1.130116E+0	1.163174E+0	1.104933E+0	1.130830E+0	1.133775E+0	1.107926E+0	1.058439E+0	1.105741E+0	1.140869E+0	1.090943E+0	1.164226E+0	1.148415E+0	1.147866E+0	1.110511E+0	1.134866E+0	1.096531E+0	1.097258E+0	1.109569E+0	1.143741E+0	1.119863E+0	1.124834E+0	1.098718E+0	1.171830E+0	1.095682E+0	1.082900E+0	1.134305E+0	1.118667E+0	1.128271E+0	1.181960E+0	1.141113E+0	1.129039E+0	1.185165E+0	1.156143E+0	1.154781E+0	1.124604E+0	1.107298E+0	1.093637E+0	1.139488E+0	1.125688E+0	1.120219E+0	1.170013E+0	1.105864E+0	1.132249E+0	1.118539E+0	1.105965E+0	1.128879E+0	1.161589E+0	1.096479E+0	1.127509E+0	1.120404E+0	1.104567E+0	1.173158E+0	1.103449E+0	1.130007E+0	1.176191E+0	1.154121E+0	1.107605E+0	1.124221E+0	1.150381E+0	1.126719E+0	1.137369E+0	1.190570E+0	1.211045E+0	1.102311E+0	1.153144E+0	1.086728E+0	1.112172E+0	1.136050E+0	1.055666E+0	1.162775E+0	1.181876E+0	1.113361E+0	1.144807E+0	1.137828E+0	1.209670E+0	1.147068E+0	1.185586E+0
2.888170E+2	1.215080E+0	1.235367E+0	1.233544E+0	1.182044E+0	1.180363E+0	1.249569E+0	1.168020E+0	1.230227E+0	1.189207E+0	1.178569E+0	1.170510E+0	1.270746E+0	1.212603E+0	1.201444E+0	1.245234E+0	1.217551E+0	1.157420E+0	1.176538E+0	1.209979E+0	1.170284E+0	1.206602E+0	1.175033E+0	1.190209E+0	1.243883E+0	1.183099E+0	1.153573E+0	1.135833E+0	1.180367E+0	1.175866E+0	1.181221E+0	1.217742E+0	1.182403E+0	1.187935E+0	1.174294E+0	1.187922E+0	1.124351E+0	1.144634E+0	1.147944E+0	1.166975E+0	1.226543E+0	1.141123E+0	1.175286E+0	1.178895E+0	1.217043E+0	1.182109E+0	1.146097E+0	1.147991E+0	1.171075E+0	1.220718E+0	1.175306E+0	1.176713E+0	1.149798E+0	1.165347E+0	1.239810E+0	1.168667E+0	1.249130E+0	1.198452E+0	1.165917E+0	1.236356E+0	1.217001E+0	1.129843E+0	1.246888E+0	1.146457E+0	1.237178E+0	1.197728E+0	1.163750E+0	1.163650E+0	1.173973E+0	1.122373E+0	1.176489E+0	1.181745E+0	1.139473E+0	1.217197E+0	1.157758E+0	1.157927E+0	1.239150E+0	1.184997E+0	1.162879E+0	1.170534E+0	1.171651E+0	1.162123E+0	1.240811E+0	1.221977E+0	1.246273E+0	1.234963E+0	1.134493E+0	1.236490E+0	1.234728E+0	1.202361E+0	1.193344E+0	1.172971E+0	1.203286E+0	1.237538E+0	1.183912E+0	1.167604E+0	1.190949E+0	1.242783E+0	1.212808E+0	1.150574E+0	1.189287E+0	1.150208E+0	1.177318E+0	1.157187E+0	1.196867E+0	1.261659E+0	1.200309E+0	1.263258E+0	1.226790E+0	1.257314E+0	1.173980E+0	1.191864E+0	1.202634E+0	1.236924E+0	1.198060E+0	1.235838E+0	1.127579E+0	1.246366E+0	1.189732E+0	1.187007E+0	1.147582E+0	1.187872E+0	1.164228E+0	1.151235E+0	1.172963E+0	1.164089E+0	1.175580E+0	1.214161E+0	1.190435E+0	1.167289E+0	1.185482E+0	1.151004E+0	1.218695E+0	1.167296E+0	1.129421E+0	1.238607E+0	1.209951E+0	1.236250E+0	1.223882E+0	1.186881E+0	1.259842E+0	1.210804E+0	1.170169E+0	1.232493E+0	1.194776E+0	1.211807E+0	1.221534E+0	1.130621E+0	1.180323E+0	1.221639E+0	1.203693E+0	1.225772E+0	1.252152E+0	1.172784E+0	1.222001E+0	1.184770E+0	1.228500E+0	1.246979E+0	1.233630E+0	1.211098E+0	1.187195E+0	1.229773E+0	1.171682E+0	1.188992E+0	1.211286E+0	1.225755E+0	1.161604E+0	1.262517E+0	1.291301E+0	1.193135E+0	1.179811E+0	1.198383E+0
2.890140E+2	1.062164E+0	1.076562E+0	1.050406E+0	1.047035E+0	1.029705E+0	1.052333E+0	1.035317E+0	1.046763E+0	1.073999E+0	1.056531E+0	1.069165E+0	1.127436E+0	1.039189E+0	1.050164E+0	1.057409E+0	1.021059E+0	1.038008E+0	1.074738E+0	1.008610E+0	1.045131E+0	1.022877E+0	1.070689E+0	1.018797E+0	1.067634E+0	1.007705E+0	9.985096E-1	1.039956E+0	1.101450E+0	1.031472E+0	9.875546E-1	1.073246E+0	1.009334E+0	9.823320E-1	1.040437E+0	1.004944E+0	9.886768E-1	9.862256E-1	1.052977E+0	1.059570E+0	1.074092E+0	1.043304E+0	1.012450E+0	1.047961E+0	1.009724E+0	1.091638E+0	1.074035E+0	9.903813E-1	1.038024E+0	1.018843E+0	1.040647E+0	1.090766E+0	9.870305E-1	1.048410E+0	1.024923E+0	1.020678E+0	1.055624E+0	1.027163E+0	1.003691E+0	1.087668E+0	1.075597E+0	1.077147E+0	1.042010E+0	1.028557E+0	1.033238E+0	1.048276E+0	1.049751E+0	1.054086E+0	9.985804E-1	1.048232E+0	1.040331E+0	1.038684E+0	1.071143E+0	1.011630E+0	1.033205E+0	1.019434E+0	1.057959E+0	1.080677E+0	1.042604E+0	1.031680E+0	1.051924E+0	1.031955E+0	9.962602E-1	1.072172E+0	1.027046E+0	1.049211E+0	1.020686E+0	1.078464E+0	1.088395E+0	1.038777E+0	1.012484E+0	1.053697E+0	1.040148E+0	1.112091E+0	1.034155E+0	1.074116E+0	1.067048E+0	1.014086E+0	1.056806E+0	1.020581E+0	1.057725E+0	1.041924E+0	1.025640E+0	1.052495E+0	1.012820E+0	1.073155E+0	1.028756E+0	1.083201E+0	9.890011E-1	1.123623E+0	1.001186E+0	1.056124E+0	1.042970E+0	1.042459E+0	1.008755E+0	1.046508E+0	1.045094E+0	1.109564E+0	1.070205E+0	1.041513E+0	1.064836E+0	1.062819E+0	1.039102E+0	1.049645E+0	1.051921E+0	1.057458E+0	1.017670E+0	1.039827E+0	1.078710E+0	1.029049E+0	1.054202E+0	1.044544E+0	1.100105E+0	1.027160E+0	1.105679E+0	1.061298E+0	1.004785E+0	1.029096E+0	1.029721E+0	1.051385E+0	1.026713E+0	1.094012E+0	1.027777E+0	1.092320E+0	1.071935E+0	1.065539E+0	1.082083E+0	1.060636E+0	1.055663E+0	1.073277E+0	1.065762E+0	1.087451E+0	9.953674E-1	1.053967E+0	1.070136E+0	1.069301E+0	1.117770E+0	1.110284E+0	1.010616E+0	1.059697E+0	1.032637E+0	1.079340E+0	1.057560E+0	1.051166E+0	1.042064E+0	1.100521E+0	1.046485E+0	1.100277E+0	1.031448E+0	1.060658E+0	1.017485E+0	1.172278E+0
2.892040E+2	8.358986E-1	8.435159E-1	8.598965E-1	8.242306E-1	8.412698E-1	8.352040E-1	7.623020E-1	8.193831E-1	8.401199E-1	7.908686E-1	8.636216E-1	8.593444E-1	8.659096E-1	8.269911E-1	8.538837E-1	8.735909E-1	7.847013E-1	8.984083E-1	8.534007E-1	8.375184E-1	8.185422E-1	8.497367E-1	8.043281E-1	7.875581E-1	8.752232E-1	8.339437E-1	8.383667E-1	9.012076E-1	8.424060E-1	8.339508E-1	8.777097E-1	8.528603E-1	8.367310E-1	8.489880E-1	8.620072E-1	8.394446E-1	8.186394E-1	8.605132E-1	8.193357E-1	8.482679E-1	8.429592E-1	8.540914E-1	8.241802E-1	8.793145E-1	8.630969E-1	7.617216E-1	8.352056E-1	8.476318E-1	8.610139E-1	8.105609E-1	8.446729E-1	8.260780E-1	8.564752E-1	8.528987E-1	8.605840E-1	8.948905E-1	8.201391E-1	8.365905E-1	8.352328E-1	8.267035E-1	8.097207E-1	8.911848E-1	8.315457E-1	8.170762E-1	8.603591E-1	7.703471E-1	8.401123E-1	8.632796E-1	8.369727E-1	8.370002E-1	8.227963E-1	8.594743E-1	8.493061E-1	8.829591E-1	8.529055E-1	7.889805E-1	8.310454E-1	8.684283E-1	8.398661E-1	8.304430E-1	8.015599E-1	8.325106E-1	8.283843E-1	8.295520E-1	8.270094E-1	8.192009E-1	8.872757E-1	8.194894E-1	8.430317E-1	8.545494E-1	8.729659E-1	8.885579E-1	8.416041E-1	8.219659E-1	8.218401E-1	8.457815E-1	8.554575E-1	8.529913E-1	7.676149E-1	8.457808E-1	8.525194E-1	8.783409E-1	8.425953E-1	8.342910E-1	8.337661E-1	7.986919E-1	8.837149E-1	8.077521E-1	8.432673E-1	8.126826E-1	8.284223E-1	8.592677E-1	8.463220E-1	8.192742E-1	8.044852E-1	8.949533E-1	8.241054E-1	8.427077E-1	8.456001E-1	8.081528E-1	8.581163E-1	8.297056E-1	8.764460E-1	8.545493E-1	8.593863E-1	8.262492E-1	8.329420E-1	8.724345E-1	8.074704E-1	8.388362E-1	8.193444E-1	8.601658E-1	7.987052E-1	8.490841E-1	8.105617E-1	8.340386E-1	8.204295E-1	8.268190E-1	8.181884E-1	8.235014E-1	8.852120E-1	8.144025E-1	8.725105E-1	8.342139E-1	8.158506E-1	8.971521E-1	9.143294E-1	8.087943E-1	8.629831E-1	8.816828E-1	8.529378E-1	8.627507E-1	8.859350E-1	8.221264E-1	8.466814E-1	9.170497E-1	8.402341E-1	7.870555E-1	8.563867E-1	8.424045E-1	8.950705E-1	8.577110E-1	8.510240E-1	7.980067E-1	8.025332E-1	8.625505E-1	8.610937E-1	8.539106E-1	8.572662E-1	8.634106E-1	8.311241E-1
2.894050E+2	8.724338E-1	8.647062E-1	8.380591E-1	8.140512E-1	8.120699E-1	8.846170E-1	8.088794E-1	8.605795E-1	8.998279E-1	8.221956E-1	8.651684E-1	8.522386E-1	8.414134E-1	8.338056E-1	8.496245E-1	8.146472E-1	8.525937E-1	8.588108E-1	8.039631E-1	8.572556E-1	8.489691E-1	8.287215E-1	8.061133E-1	8.232744E-1	8.615741E-1	7.946266E-1	8.776454E-1	9.060001E-1	8.834538E-1	8.341735E-1	8.538888E-1	8.447003E-1	8.639043E-1	8.818476E-1	8.172288E-1	8.125449E-1	7.764679E-1	8.477400E-1	8.680396E-1	8.629930E-1	8.471924E-1	8.510608E-1	8.644973E-1	8.478678E-1	8.748102E-1	8.829811E-1	8.804051E-1	8.712787E-1	8.466227E-1	8.223191E-1	8.715694E-1	8.501959E-1	8.507010E-1	8.250697E-1	8.887505E-1	8.496724E-1	8.288147E-1	8.636085E-1	8.390030E-1	8.031587E-1	8.573238E-1	8.301531E-1	8.485996E-1	8.695644E-1	8.649384E-1	8.052528E-1	8.374269E-1	8.522300E-1	8.485921E-1	8.423620E-1	8.183072E-1	8.853345E-1	8.465202E-1	8.908264E-1	8.427125E-1	8.511009E-1	8.198512E-1	8.606475E-1	8.736563E-1	8.739686E-1	8.389276E-1	8.941445E-1	8.016069E-1	9.337190E-1	8.625070E-1	8.618635E-1	8.438000E-1	8.601717E-1	8.359507E-1	8.859611E-1	9.055319E-1	8.821595E-1	8.634944E-1	8.845690E-1	9.217825E-1	8.895517E-1	8.296376E-1	8.542163E-1	8.219934E-1	8.477450E-1	8.454390E-1	8.670886E-1	8.391465E-1	8.618348E-1	9.046659E-1	8.531105E-1	9.050733E-1	8.675186E-1	8.719786E-1	8.724657E-1	8.493445E-1	8.882364E-1	9.323519E-1	8.791098E-1	8.352045E-1	8.263631E-1	8.754797E-1	8.192116E-1	8.499931E-1	8.816149E-1	8.370511E-1	8.151508E-1	8.380323E-1	8.590702E-1	8.742850E-1	8.830500E-1	8.334325E-1	9.120236E-1	8.723035E-1	8.583873E-1	8.014225E-1	8.214015E-1	8.755296E-1	8.683403E-1	8.538193E-1	8.423234E-1	8.229194E-1	9.116546E-1	8.380004E-1	9.331763E-1	9.207187E-1	8.382240E-1	9.003184E-1	8.143468E-1	8.664622E-1	8.672240E-1	8.873947E-1	8.724733E-1	8.881315E-1	8.881418E-1	8.410748E-1	8.646543E-1	8.283669E-1	7.893677E-1	8.747454E-1	8.757202E-1	8.650965E-1	8.070021E-1	8.649162E-1	8.233293E-1	9.139798E-1	8.873594E-1	8.112643E-1	8.494944E-1	8.571726E-1	8.477636E-1	9.101043E-1	8.970222E-1	8.607847E-1	8.294684E-1	8.286951E-1
2.896080E+2	8.738280E-1	8.874212E-1	9.076829E-1	8.142102E-1	8.650880E-1	8.846197E-1	8.331860E-1	8.835293E-1	9.032515E-1	8.494901E-1	8.853283E-1	9.348916E-1	8.728516E-1	8.334917E-1	9.042385E-1	8.626090E-1	8.257721E-1	8.899386E-1	8.436342E-1	8.970224E-1	9.326343E-1	9.058135E-1	9.191798E-1	8.955421E-1	8.987424E-1	8.840321E-1	8.730049E-1	8.842244E-1	8.975486E-1	8.898818E-1	8.957374E-1	8.973806E-1	8.784045E-1	9.208598E-1	8.839924E-1	9.214622E-1	8.837777E-1	8.593245E-1	8.584621E-1	9.203889E-1	8.420341E-1	8.432184E-1	8.745895E-1	8.782932E-1	9.115736E-1	8.370944E-1	8.890218E-1	8.747669E-1	9.431798E-1	9.026110E-1	9.063319E-1	9.057814E-1	8.544160E-1	9.124736E-1	8.876312E-1	8.770546E-1	8.900582E-1	9.239844E-1	8.812431E-1	8.926871E-1	8.901086E-1	9.106563E-1	9.019701E-1	8.845057E-1	9.017371E-1	9.067452E-1	8.280634E-1	7.899526E-1	8.697581E-1	8.769351E-1	8.496076E-1	8.828448E-1	9.477672E-1	8.663543E-1	9.057594E-1	8.966709E-1	8.851511E-1	8.798103E-1	8.903239E-1	9.098095E-1	9.145501E-1	9.091215E-1	8.720459E-1	8.968550E-1	9.068721E-1	8.509319E-1	8.858809E-1	9.025985E-1	8.538377E-1	8.830600E-1	8.966389E-1	8.752422E-1	9.121607E-1	8.714307E-1	8.696335E-1	8.613415E-1	8.616525E-1	8.808950E-1	8.946071E-1	8.682299E-1	8.993170E-1	8.500411E-1	9.143283E-1	8.724758E-1	9.211354E-1	8.826355E-1	9.044100E-1	9.237392E-1	9.547798E-1	8.668914E-1	8.743538E-1	9.166310E-1	8.858196E-1	8.931519E-1	8.716343E-1	8.816247E-1	9.950276E-1	8.686929E-1	8.990737E-1	9.253683E-1	8.801760E-1	9.264365E-1	8.620986E-1	9.010144E-1	8.964201E-1	9.110944E-1	9.065896E-1	9.489255E-1	9.071732E-1	8.776556E-1	8.866151E-1	9.443874E-1	9.192991E-1	9.059434E-1	8.895059E-1	8.506334E-1	9.188608E-1	8.842734E-1	8.802548E-1	9.122353E-1	9.045537E-1	8.842862E-1	9.633065E-1	8.584300E-1	9.655574E-1	8.805423E-1	8.901195E-1	9.329242E-1	9.029689E-1	9.555370E-1	8.710134E-1	8.882106E-1	8.742965E-1	9.405519E-1	8.923648E-1	8.828391E-1	9.621064E-1	8.446625E-1	9.083991E-1	8.791575E-1	9.523380E-1	9.087699E-1	8.373290E-1	8.994877E-1	9.052877E-1	9.265403E-1	8.976207E-1	9.524234E-1	9.180534E-1	8.812793E-1	9.187771E-1
2.898030E+2	8.382313E-1	8.592009E-1	8.794664E-1	8.213998E-1	8.048627E-1	8.388879E-1	8.325090E-1	8.299962E-1	8.414239E-1	8.258553E-1	8.145307E-1	8.134978E-1	8.793711E-1	8.294798E-1	8.149289E-1	8.212543E-1	8.328821E-1	8.343931E-1	7.982366E-1	8.169559E-1	8.708095E-1	8.288845E-1	8.250828E-1	8.319178E-1	8.930572E-1	8.510161E-1	9.008023E-1	8.753621E-1	8.461125E-1	8.491209E-1	8.666435E-1	8.690970E-1	8.630252E-1	8.159570E-1	8.861292E-1	8.583154E-1	8.198575E-1	8.170733E-1	8.635425E-1	8.582924E-1	8.210415E-1	8.408091E-1	8.628222E-1	8.225001E-1	8.318442E-1	8.166985E-1	8.007911E-1	8.694434E-1	8.089390E-1	8.272606E-1	8.273150E-1	8.571283E-1	8.659920E-1	8.482943E-1	8.989238E-1	8.180585E-1	8.439950E-1	8.424540E-1	8.727655E-1	8.516540E-1	8.561341E-1	9.040969E-1	8.260973E-1	8.238616E-1	8.361839E-1	8.537847E-1	8.547051E-1	7.809548E-1	8.517371E-1	8.579667E-1	8.515423E-1	8.176111E-1	8.944067E-1	8.288517E-1	8.438926E-1	8.801694E-1	8.902300E-1	8.250975E-1	8.852949E-1	8.638654E-1	8.787348E-1	8.814519E-1	8.439332E-1	8.105208E-1	8.382664E-1	8.496253E-1	8.365400E-1	9.010773E-1	8.765494E-1	8.344336E-1	8.552450E-1	8.653056E-1	9.443937E-1	8.564396E-1	8.539878E-1	8.181304E-1	8.680903E-1	9.166207E-1	8.746667E-1	8.475289E-1	8.683479E-1	8.728404E-1	8.893288E-1	8.786934E-1	8.640324E-1	8.136061E-1	8.521815E-1	8.054799E-1	8.921171E-1	8.171610E-1	8.408641E-1	8.404742E-1	8.712852E-1	8.365649E-1	8.726420E-1	7.776967E-1	8.745280E-1	8.294768E-1	8.717029E-1	8.748248E-1	8.438459E-1	8.399555E-1	8.822061E-1	8.236226E-1	8.534360E-1	8.377099E-1	8.789519E-1	8.513770E-1	8.642220E-1	8.445290E-1	8.512112E-1	8.709941E-1	8.863262E-1	8.257663E-1	8.456803E-1	8.280360E-1	8.722802E-1	8.609114E-1	8.404195E-1	8.300959E-1	8.861300E-1	8.645560E-1	8.695030E-1	8.251574E-1	8.544643E-1	8.956643E-1	8.603970E-1	7.983422E-1	8.953606E-1	8.551287E-1	8.125835E-1	8.753975E-1	8.365970E-1	8.680297E-1	8.374582E-1	9.017133E-1	8.469327E-1	8.443194E-1	8.506796E-1	8.894721E-1	8.804018E-1	9.002366E-1	8.318363E-1	8.586626E-1	8.771899E-1	8.316922E-1	8.828237E-1	8.655116E-1	8.711178E-1	8.954109E-1	7.086230E-1
2.900020E+2	7.945154E-1	7.853595E-1	7.349216E-1	7.587885E-1	7.802802E-1	7.813470E-1	7.636384E-1	7.853580E-1	8.176399E-1	7.685433E-1	7.819512E-1	7.594870E-1	8.015561E-1	8.148495E-1	8.227475E-1	7.685940E-1	8.202445E-1	8.030554E-1	7.829163E-1	7.619782E-1	7.405013E-1	7.818451E-1	7.670154E-1	7.922077E-1	7.624667E-1	8.119075E-1	7.824690E-1	7.423969E-1	7.314852E-1	7.117618E-1	7.916417E-1	7.391658E-1	7.943923E-1	7.879239E-1	7.850260E-1	7.473794E-1	7.721979E-1	7.524214E-1	7.717358E-1	8.372479E-1	7.392075E-1	8.171273E-1	7.604347E-1	8.115458E-1	8.343644E-1	7.899488E-1	7.806151E-1	7.537915E-1	7.929333E-1	7.407238E-1	7.517487E-1	7.878409E-1	7.629645E-1	8.086709E-1	7.648476E-1	7.983498E-1	7.651087E-1	7.495596E-1	8.214729E-1	7.708721E-1	7.852117E-1	7.785694E-1	7.739965E-1	7.757676E-1	8.039044E-1	7.602036E-1	7.927761E-1	7.973160E-1	7.799200E-1	7.851332E-1	8.144675E-1	7.266813E-1	7.509217E-1	7.612243E-1	7.304111E-1	7.584372E-1	7.753326E-1	8.106227E-1	7.818889E-1	7.562444E-1	7.551081E-1	7.835598E-1	7.573541E-1	8.069624E-1	7.693517E-1	7.977817E-1	7.721596E-1	7.645062E-1	8.124638E-1	7.657982E-1	8.009269E-1	7.680917E-1	7.745811E-1	7.665590E-1	8.003175E-1	7.643135E-1	8.188898E-1	8.014459E-1	7.005431E-1	7.848545E-1	7.704554E-1	8.152154E-1	7.644416E-1	7.678751E-1	7.702304E-1	7.812184E-1	7.727772E-1	7.245008E-1	8.111361E-1	7.737129E-1	7.781979E-1	7.692408E-1	7.925437E-1	7.574307E-1	8.228125E-1	7.821552E-1	7.693636E-1	7.327615E-1	7.483098E-1	7.709342E-1	7.608885E-1	7.904103E-1	7.785836E-1	8.170523E-1	8.141763E-1	7.912315E-1	7.478802E-1	8.330045E-1	8.324542E-1	7.649135E-1	8.048396E-1	7.451477E-1	7.998585E-1	7.505772E-1	7.659957E-1	7.599554E-1	7.753289E-1	7.757526E-1	7.745134E-1	7.992907E-1	7.926586E-1	7.929568E-1	7.946962E-1	7.197592E-1	7.817455E-1	8.237238E-1	7.617488E-1	7.962316E-1	8.055357E-1	8.281086E-1	8.313788E-1	8.449311E-1	7.814459E-1	7.832563E-1	7.833095E-1	7.950929E-1	8.181289E-1	7.541161E-1	8.031842E-1	8.436185E-1	8.134299E-1	7.820382E-1	7.444136E-1	7.658783E-1	7.813405E-1	7.886652E-1	8.071206E-1	7.728585E-1	8.095289E-1	8.003406E-1	8.789057E-1
2.905120E+2	7.394094E-1	7.839307E-1	8.277752E-1	8.320551E-1	7.804217E-1	7.459339E-1	7.783966E-1	7.910568E-1	7.805116E-1	7.761588E-1	8.167790E-1	8.016803E-1	8.245763E-1	8.097800E-1	7.909787E-1	7.792336E-1	7.849421E-1	8.585762E-1	7.792274E-1	7.399686E-1	7.998176E-1	7.998329E-1	8.003203E-1	8.147129E-1	7.822506E-1	8.016430E-1	7.523753E-1	8.003594E-1	8.289566E-1	7.844571E-1	8.273976E-1	8.109896E-1	8.280820E-1	8.054060E-1	7.752993E-1	7.568754E-1	7.838105E-1	7.609771E-1	8.410469E-1	8.130737E-1	7.860771E-1	7.730268E-1	7.906294E-1	7.993724E-1	8.154725E-1	8.184795E-1	8.134863E-1	8.336996E-1	7.916035E-1	7.437634E-1	7.961720E-1	7.772081E-1	7.980217E-1	7.993390E-1	7.852386E-1	8.109875E-1	8.026007E-1	7.365100E-1	8.134163E-1	7.623703E-1	8.402878E-1	8.001104E-1	8.047381E-1	7.844209E-1	7.519161E-1	7.778325E-1	8.924748E-1	7.582822E-1	8.339493E-1	7.641844E-1	7.538391E-1	8.203503E-1	8.122598E-1	7.990893E-1	7.857333E-1	8.155307E-1	8.108278E-1	7.967795E-1	7.934986E-1	8.061178E-1	8.092571E-1	8.367558E-1	7.266857E-1	8.392039E-1	8.305123E-1	7.996664E-1	7.837576E-1	8.026419E-1	8.181731E-1	8.052234E-1	8.272440E-1	8.265149E-1	8.287765E-1	7.614323E-1	8.030393E-1	8.079849E-1	8.214969E-1	8.009032E-1	7.860530E-1	7.665406E-1	7.755677E-1	7.983639E-1	8.029753E-1	8.307597E-1	7.812166E-1	8.443010E-1	8.183588E-1	7.701158E-1	8.322867E-1	8.109613E-1	8.403278E-1	8.309481E-1	8.144249E-1	8.015557E-1	8.001181E-1	7.806717E-1	8.385808E-1	7.912201E-1	7.893759E-1	7.868394E-1	7.903572E-1	8.223376E-1	7.824061E-1	7.839036E-1	7.992435E-1	7.619483E-1	8.367285E-1	8.328656E-1	8.494599E-1	7.946735E-1	8.066891E-1	8.073624E-1	7.833379E-1	7.971812E-1	8.043805E-1	7.783508E-1	8.114508E-1	7.806603E-1	8.245413E-1	8.006219E-1	8.213175E-1	7.508418E-1	8.041638E-1	7.741595E-1	8.145808E-1	7.858339E-1	8.265899E-1	8.138805E-1	8.409218E-1	7.822298E-1	8.363148E-1	7.789255E-1	8.403092E-1	7.829158E-1	7.927443E-1	7.907841E-1	8.399253E-1	7.219435E-1	7.610168E-1	7.973391E-1	8.227914E-1	8.366858E-1	8.249355E-1	8.022757E-1	8.113961E-1	8.233894E-1	8.175994E-1	8.682979E-1	8.088825E-1	7.684774E-1	8.923340E-1
2.910040E+2	1.011636E+0	9.770579E-1	1.029438E+0	1.010434E+0	9.547532E-1	9.967609E-1	9.099433E-1	9.585418E-1	1.005461E+0	9.804695E-1	9.724695E-1	9.349547E-1	1.000038E+0	9.746579E-1	9.378065E-1	9.452660E-1	9.253782E-1	9.142686E-1	1.008354E+0	1.019792E+0	9.470919E-1	9.494537E-1	1.000945E+0	1.000500E+0	9.330686E-1	9.786986E-1	9.683303E-1	9.866192E-1	9.559502E-1	9.770782E-1	9.861953E-1	9.606235E-1	9.552339E-1	9.797536E-1	1.009782E+0	9.375987E-1	9.555064E-1	1.000401E+0	9.614298E-1	9.632576E-1	9.820533E-1	9.768083E-1	1.013397E+0	9.988676E-1	9.314960E-1	9.866201E-1	9.726545E-1	9.836371E-1	1.019229E+0	9.373671E-1	1.010435E+0	1.024412E+0	9.477945E-1	9.445272E-1	9.856025E-1	9.720539E-1	9.725924E-1	9.583284E-1	1.024595E+0	9.265475E-1	9.717858E-1	1.009775E+0	9.671924E-1	9.843701E-1	9.540913E-1	9.505109E-1	9.741523E-1	9.562242E-1	9.423058E-1	1.018034E+0	9.746499E-1	1.005279E+0	9.880695E-1	9.827286E-1	1.020277E+0	9.838830E-1	9.944716E-1	9.485635E-1	9.604746E-1	1.008907E+0	9.885895E-1	9.582498E-1	1.006588E+0	9.794322E-1	1.026234E+0	9.954454E-1	9.667460E-1	9.261904E-1	9.691150E-1	9.747751E-1	9.989441E-1	9.883519E-1	1.062091E+0	9.993419E-1	9.861386E-1	9.647871E-1	9.619517E-1	9.739187E-1	9.584809E-1	9.464391E-1	9.546827E-1	9.397474E-1	9.647265E-1	9.910797E-1	9.886241E-1	9.450023E-1	1.011391E+0	9.568315E-1	1.027601E+0	9.792366E-1	9.655891E-1	9.892545E-1	9.907371E-1	9.860084E-1	1.001498E+0	9.761789E-1	1.016468E+0	9.709953E-1	9.295997E-1	9.596493E-1	9.665398E-1	9.012626E-1	1.009612E+0	1.008147E+0	9.672816E-1	9.308269E-1	1.019145E+0	1.046277E+0	9.501912E-1	9.822069E-1	1.002560E+0	9.987206E-1	1.013592E+0	9.330947E-1	1.008066E+0	9.873015E-1	9.216636E-1	1.015601E+0	1.005866E+0	9.581440E-1	9.995523E-1	9.975941E-1	9.232385E-1	9.808309E-1	9.719075E-1	9.456074E-1	1.006348E+0	9.428081E-1	9.264642E-1	1.014513E+0	9.856352E-1	9.209542E-1	9.746462E-1	9.404887E-1	9.731103E-1	9.676256E-1	1.070673E+0	9.723614E-1	9.864133E-1	9.661095E-1	9.904460E-1	9.607064E-1	9.569113E-1	9.524856E-1	9.921663E-1	9.573632E-1	9.849939E-1	9.386518E-1	9.253930E-1	9.855925E-1	9.845866E-1
2.915240E+2	1.141349E+0	1.123272E+0	1.140990E+0	1.087371E+0	1.112244E+0	1.114737E+0	1.125573E+0	1.124302E+0	1.101491E+0	1.104339E+0	1.172878E+0	1.196606E+0	1.049859E+0	1.154583E+0	1.105215E+0	1.146495E+0	1.096826E+0	1.107290E+0	1.081455E+0	1.094420E+0	1.113433E+0	1.060831E+0	1.089535E+0	1.164461E+0	1.120696E+0	1.139571E+0	1.152497E+0	1.056723E+0	1.150007E+0	1.061487E+0	1.091505E+0	1.071672E+0	1.103503E+0	1.096694E+0	1.076271E+0	1.094142E+0	1.084311E+0	1.139712E+0	1.115877E+0	1.120425E+0	1.094597E+0	1.101355E+0	1.117749E+0	1.106528E+0	1.181284E+0	1.107734E+0	1.080243E+0	1.110260E+0	1.135148E+0	1.132680E+0	1.102686E+0	1.126799E+0	1.155477E+0	1.093471E+0	1.086861E+0	1.104487E+0	1.111119E+0	1.067925E+0	1.098211E+0	1.120043E+0	1.073801E+0	1.095283E+0	1.075777E+0	1.162469E+0	1.093753E+0	1.113023E+0	1.171122E+0	1.130896E+0	1.148497E+0	1.098598E+0	1.135908E+0	1.105393E+0	1.132040E+0	1.118410E+0	1.131836E+0	1.124237E+0	1.179993E+0	1.121548E+0	1.075266E+0	1.124956E+0	1.125374E+0	1.096936E+0	1.091798E+0	1.173396E+0	1.149525E+0	1.061934E+0	1.129489E+0	1.126356E+0	1.150962E+0	1.141140E+0	1.102335E+0	1.092632E+0	1.131846E+0	1.170799E+0	1.162197E+0	1.083833E+0	1.116488E+0	1.135915E+0	1.185868E+0	1.113667E+0	1.103414E+0	1.134538E+0	1.105127E+0	1.127829E+0	1.077322E+0	1.133977E+0	1.097623E+0	1.111070E+0	1.180548E+0	1.062783E+0	1.152533E+0	1.137743E+0	1.154101E+0	1.124266E+0	1.127364E+0	1.069812E+0	1.144827E+0	1.070584E+0	1.111491E+0	1.150936E+0	1.167569E+0	1.046169E+0	1.103430E+0	1.093930E+0	1.128324E+0	1.152840E+0	1.148389E+0	1.101553E+0	1.157087E+0	1.098157E+0	1.139917E+0	1.071840E+0	1.122349E+0	1.100649E+0	1.081659E+0	1.080070E+0	1.151338E+0	1.106178E+0	1.105114E+0	1.151776E+0	1.172682E+0	1.131318E+0	1.094856E+0	1.096539E+0	1.107520E+0	1.138331E+0	1.073006E+0	1.115214E+0	1.166886E+0	1.107870E+0	1.157533E+0	1.090955E+0	1.105151E+0	1.134327E+0	1.157346E+0	1.116220E+0	1.143017E+0	1.072104E+0	1.149045E+0	1.098044E+0	1.092221E+0	1.066737E+0	1.047973E+0	1.076941E+0	1.114042E+0	1.125004E+0	1.194690E+0	1.106875E+0	1.109109E+0	1.093189E+0	1.040466E+0
2.920030E+2	9.942216E-1	9.696451E-1	1.070563E+0	9.930113E-1	9.949174E-1	9.921362E-1	9.923092E-1	9.591683E-1	1.022849E+0	9.007291E-1	1.006619E+0	9.919949E-1	1.018042E+0	9.933333E-1	9.726536E-1	1.007309E+0	9.125812E-1	9.642530E-1	9.605938E-1	9.813705E-1	9.850574E-1	9.418359E-1	9.977750E-1	9.697264E-1	1.022218E+0	9.160551E-1	9.607146E-1	9.381921E-1	9.340152E-1	1.013229E+0	9.410860E-1	1.001906E+0	9.549974E-1	9.885656E-1	1.039373E+0	9.116493E-1	9.582278E-1	1.012708E+0	9.372236E-1	9.854323E-1	9.745584E-1	9.295516E-1	9.357343E-1	9.805437E-1	1.001726E+0	9.710158E-1	9.580315E-1	9.671606E-1	9.938398E-1	9.450236E-1	9.666536E-1	1.003440E+0	9.581048E-1	9.547845E-1	9.580704E-1	1.037372E+0	9.693390E-1	9.502169E-1	1.055515E+0	9.465962E-1	9.982826E-1	1.000059E+0	9.322437E-1	9.858338E-1	9.964266E-1	9.818019E-1	1.009420E+0	1.003136E+0	9.656488E-1	1.015600E+0	9.456901E-1	9.514967E-1	9.933281E-1	9.965378E-1	9.822737E-1	9.626020E-1	9.547692E-1	1.071825E+0	9.780769E-1	9.408635E-1	9.407076E-1	9.867834E-1	9.789356E-1	1.051113E+0	9.971305E-1	9.760212E-1	9.955737E-1	1.019157E+0	9.656565E-1	1.032313E+0	9.492672E-1	9.856611E-1	1.009846E+0	9.999822E-1	1.002562E+0	9.764694E-1	1.020864E+0	9.830762E-1	9.476682E-1	9.013359E-1	9.281794E-1	9.163123E-1	1.020498E+0	9.744453E-1	9.915035E-1	1.030087E+0	9.765987E-1	9.262856E-1	1.036336E+0	9.585170E-1	1.088492E+0	9.385076E-1	1.014067E+0	1.021758E+0	9.775932E-1	1.035440E+0	1.046009E+0	9.446451E-1	9.429855E-1	1.006404E+0	9.909777E-1	9.579751E-1	9.585607E-1	9.409394E-1	9.940030E-1	9.821875E-1	1.036292E+0	9.458255E-1	1.014982E+0	9.981355E-1	9.939030E-1	1.032691E+0	9.808314E-1	8.887711E-1	9.649386E-1	9.666536E-1	9.915005E-1	9.797142E-1	9.317364E-1	9.227014E-1	1.019641E+0	9.108897E-1	9.848144E-1	9.549062E-1	9.730887E-1	9.860032E-1	9.672497E-1	9.715061E-1	1.016789E+0	9.608518E-1	9.996011E-1	9.999499E-1	9.700874E-1	1.022950E+0	9.840556E-1	9.718079E-1	9.831998E-1	9.596243E-1	9.492414E-1	9.316396E-1	9.800177E-1	1.067079E+0	9.720114E-1	9.584576E-1	9.552557E-1	1.012525E+0	9.816901E-1	1.019752E+0	9.983591E-1	9.505264E-1	1.072670E+0
2.925000E+2	9.745564E-1	9.465550E-1	9.730847E-1	9.160879E-1	9.823847E-1	9.791035E-1	9.346732E-1	9.513493E-1	9.559292E-1	9.453744E-1	9.765758E-1	1.013296E+0	9.790896E-1	9.715145E-1	9.006214E-1	1.036654E+0	9.455442E-1	9.990538E-1	9.373119E-1	9.009295E-1	9.740792E-1	9.398174E-1	9.960879E-1	9.787230E-1	9.459369E-1	9.629467E-1	9.551009E-1	9.298586E-1	9.316794E-1	9.617554E-1	9.655633E-1	9.490208E-1	9.592209E-1	9.950186E-1	9.726655E-1	9.031669E-1	9.110100E-1	9.767949E-1	9.502796E-1	9.763049E-1	9.493016E-1	9.399968E-1	9.282582E-1	9.881865E-1	9.662363E-1	9.190794E-1	9.365990E-1	9.805034E-1	9.854373E-1	9.999143E-1	9.405348E-1	9.434683E-1	9.454820E-1	1.002667E+0	9.648872E-1	9.477504E-1	9.557864E-1	9.433857E-1	9.840936E-1	9.287506E-1	9.823657E-1	9.638862E-1	9.772187E-1	9.747353E-1	9.634757E-1	9.774994E-1	1.052120E+0	9.960279E-1	9.413199E-1	9.432080E-1	9.687963E-1	9.274101E-1	9.991383E-1	9.463871E-1	9.509494E-1	9.883452E-1	9.517558E-1	9.963699E-1	9.201577E-1	9.610781E-1	9.603799E-1	9.706487E-1	9.390233E-1	9.344222E-1	9.826165E-1	9.699684E-1	9.927806E-1	9.669616E-1	1.016849E+0	9.304300E-1	1.006241E+0	9.717945E-1	9.848662E-1	9.594381E-1	9.744897E-1	9.661838E-1	1.005341E+0	9.604763E-1	9.301492E-1	1.004087E+0	9.526054E-1	9.595784E-1	9.605952E-1	9.486416E-1	9.761886E-1	1.016087E+0	9.677266E-1	9.491589E-1	9.833457E-1	9.564476E-1	9.905522E-1	9.597754E-1	1.014968E+0	9.516312E-1	1.002620E+0	9.714709E-1	9.938629E-1	8.972715E-1	9.474112E-1	9.326632E-1	9.810453E-1	1.015020E+0	9.349215E-1	9.894683E-1	9.325534E-1	9.185991E-1	9.940349E-1	9.892585E-1	9.416004E-1	9.399635E-1	1.025395E+0	9.907715E-1	9.923055E-1	9.224094E-1	1.016659E+0	9.417506E-1	1.036717E+0	8.984433E-1	9.756707E-1	9.921557E-1	1.017299E+0	9.302018E-1	9.920286E-1	9.423863E-1	1.000205E+0	9.754113E-1	9.861119E-1	9.346540E-1	9.912471E-1	9.946415E-1	9.598327E-1	9.899787E-1	1.015763E+0	9.969060E-1	9.841138E-1	9.757736E-1	1.048407E+0	9.554363E-1	9.645222E-1	9.616832E-1	1.017646E+0	1.013284E+0	9.432426E-1	9.964639E-1	1.026500E+0	9.542390E-1	1.004645E+0	9.603433E-1	9.719278E-1	1.059693E+0	9.869904E-1
2.930040E+2	1.089096E+0	1.084330E+0	1.048093E+0	1.021554E+0	1.101751E+0	1.063201E+0	1.060310E+0	1.043651E+0	1.041517E+0	1.031377E+0	1.024535E+0	1.069382E+0	1.095372E+0	1.026773E+0	1.022804E+0	1.080383E+0	1.094684E+0	1.130419E+0	1.038570E+0	1.077194E+0	1.122654E+0	1.056969E+0	1.083152E+0	1.084811E+0	1.065037E+0	1.031662E+0	1.043461E+0	1.022179E+0	1.012101E+0	1.050759E+0	1.073268E+0	1.065718E+0	1.090700E+0	1.109395E+0	1.052387E+0	1.018740E+0	1.007590E+0	1.086511E+0	1.074677E+0	1.066194E+0	1.064716E+0	1.049963E+0	1.057819E+0	1.027910E+0	1.113593E+0	9.915939E-1	1.044192E+0	1.119071E+0	1.135580E+0	1.062855E+0	1.074700E+0	1.089746E+0	1.011041E+0	1.066470E+0	1.116613E+0	1.070169E+0	1.104576E+0	1.072008E+0	1.029949E+0	1.035118E+0	1.087135E+0	1.038538E+0	1.074342E+0	1.059964E+0	1.066815E+0	1.014011E+0	1.045441E+0	1.033782E+0	1.083555E+0	1.065237E+0	1.013652E+0	1.057191E+0	1.061194E+0	1.040336E+0	1.034894E+0	1.073119E+0	1.068830E+0	1.113562E+0	1.101273E+0	1.023919E+0	1.036271E+0	1.062948E+0	1.013793E+0	1.037800E+0	1.088060E+0	1.024888E+0	1.047349E+0	1.073877E+0	1.076234E+0	1.049223E+0	1.060352E+0	1.070951E+0	1.051961E+0	1.056811E+0	1.023482E+0	1.064985E+0	1.094905E+0	1.087739E+0	1.055729E+0	1.054455E+0	1.058927E+0	9.935670E-1	1.066022E+0	1.053233E+0	1.079271E+0	1.084209E+0	1.071554E+0	1.069344E+0	1.047134E+0	1.043981E+0	1.090262E+0	1.073962E+0	1.084096E+0	1.071073E+0	9.908680E-1	1.147719E+0	1.083249E+0	1.048711E+0	1.083122E+0	1.007615E+0	1.032830E+0	1.021080E+0	1.075981E+0	1.072242E+0	1.093804E+0	1.085281E+0	1.072783E+0	1.110078E+0	1.049023E+0	1.073335E+0	1.000009E+0	1.119477E+0	1.079896E+0	1.049064E+0	1.052467E+0	9.942821E-1	1.118760E+0	1.121527E+0	1.035042E+0	1.114588E+0	1.115721E+0	9.970920E-1	1.102354E+0	1.029771E+0	1.048112E+0	1.040131E+0	1.065409E+0	1.035798E+0	1.015757E+0	1.094183E+0	9.982572E-1	1.024413E+0	1.130667E+0	1.017211E+0	1.049266E+0	1.088749E+0	1.110025E+0	1.029843E+0	1.075069E+0	1.092725E+0	1.084449E+0	1.066619E+0	1.046647E+0	1.119364E+0	1.046003E+0	1.044034E+0	1.087555E+0	1.077519E+0	1.092953E+0	1.046703E+0	1.144092E+0
2.935120E+2	1.132218E+0	1.165595E+0	1.149886E+0	1.144555E+0	1.162899E+0	1.113517E+0	1.119508E+0	1.149901E+0	1.187147E+0	1.086971E+0	1.101479E+0	1.105832E+0	1.087623E+0	1.139801E+0	1.095108E+0	1.137704E+0	1.084176E+0	1.157608E+0	1.182013E+0	1.130381E+0	1.194771E+0	1.161934E+0	1.139903E+0	1.103441E+0	1.103073E+0	1.104337E+0	1.187426E+0	1.102087E+0	1.172942E+0	1.129664E+0	1.181629E+0	1.134234E+0	1.125614E+0	1.120591E+0	1.102851E+0	1.082910E+0	1.136105E+0	1.108812E+0	1.065856E+0	1.126652E+0	1.105472E+0	1.144104E+0	1.084470E+0	1.145482E+0	1.195074E+0	1.071972E+0	1.099132E+0	1.183634E+0	1.201509E+0	1.116111E+0	1.142252E+0	1.110835E+0	1.087070E+0	1.191451E+0	1.098787E+0	1.132810E+0	1.128277E+0	1.124436E+0	1.136083E+0	1.140652E+0	1.086621E+0	1.160955E+0	1.113695E+0	1.117181E+0	1.162108E+0	1.106631E+0	1.165376E+0	1.022187E+0	1.150086E+0	1.126672E+0	1.127254E+0	1.116864E+0	1.136570E+0	1.124013E+0	1.096439E+0	1.155331E+0	1.159363E+0	1.154759E+0	1.147344E+0	1.128996E+0	1.153926E+0	1.115433E+0	1.098569E+0	1.121924E+0	1.153842E+0	1.144936E+0	1.140311E+0	1.128836E+0	1.148429E+0	1.119452E+0	1.164943E+0	1.158788E+0	1.187639E+0	1.128059E+0	1.153819E+0	1.144280E+0	1.131435E+0	1.082562E+0	1.121005E+0	1.125652E+0	1.111644E+0	1.152700E+0	1.135236E+0	1.104644E+0	1.110513E+0	1.066497E+0	1.136346E+0	1.121575E+0	1.137260E+0	1.134211E+0	1.193236E+0	1.161431E+0	1.207011E+0	1.065419E+0	1.153659E+0	1.169706E+0	1.152441E+0	1.100306E+0	1.095494E+0	1.121951E+0	1.128513E+0	1.064941E+0	1.066801E+0	1.124783E+0	1.143714E+0	1.088873E+0	1.118619E+0	1.117377E+0	1.163063E+0	1.105758E+0	1.160154E+0	1.179271E+0	1.122250E+0	1.108609E+0	1.110114E+0	1.145651E+0	1.194559E+0	1.135627E+0	1.113473E+0	1.151751E+0	1.150201E+0	1.143619E+0	1.088233E+0	1.102451E+0	1.105098E+0	1.119943E+0	1.201594E+0	1.100788E+0	1.108977E+0	1.170426E+0	1.154010E+0	1.106267E+0	1.116121E+0	1.174747E+0	1.115335E+0	1.170673E+0	1.169096E+0	1.111182E+0	1.125270E+0	1.086704E+0	1.154215E+0	1.189943E+0	1.100798E+0	1.093592E+0	1.138691E+0	1.109203E+0	1.141347E+0	1.134498E+0	1.137732E+0	1.201291E+0	1.136976E+0
2.940080E+2	1.011130E+0	1.033105E+0	1.044250E+0	1.056256E+0	1.052331E+0	1.043590E+0	9.571643E-1	1.021357E+0	1.014104E+0	1.060032E+0	9.957304E-1	1.012560E+0	1.002051E+0	1.079554E+0	1.019770E+0	1.040822E+0	9.862665E-1	1.063816E+0	9.635992E-1	1.017595E+0	1.030178E+0	1.065445E+0	1.037402E+0	1.055792E+0	1.029990E+0	1.082107E+0	1.002891E+0	1.012630E+0	1.054447E+0	1.068299E+0	1.027263E+0	1.008589E+0	1.059548E+0	1.030281E+0	1.047912E+0	1.028200E+0	1.056851E+0	1.013703E+0	1.052075E+0	1.070005E+0	1.009749E+0	1.043043E+0	1.053537E+0	1.033678E+0	1.071395E+0	1.026774E+0	1.034631E+0	9.795757E-1	1.002364E+0	9.838373E-1	1.066626E+0	1.049003E+0	1.008047E+0	1.045826E+0	1.042081E+0	1.018547E+0	1.015126E+0	9.444521E-1	9.797135E-1	1.044929E+0	1.079217E+0	1.030352E+0	1.036516E+0	1.050107E+0	9.993671E-1	9.993090E-1	1.023013E+0	1.029028E+0	1.036540E+0	1.012252E+0	1.029530E+0	9.988382E-1	1.080996E+0	9.913905E-1	1.022317E+0	1.008542E+0	1.059617E+0	1.041453E+0	1.067048E+0	1.058912E+0	1.058747E+0	1.024383E+0	1.013497E+0	1.007048E+0	1.094815E+0	1.009874E+0	1.025601E+0	1.033777E+0	9.728735E-1	1.055693E+0	1.048131E+0	1.019710E+0	1.062832E+0	1.003088E+0	1.013618E+0	1.063320E+0	1.016222E+0	1.049080E+0	1.013650E+0	1.021833E+0	1.054450E+0	9.835031E-1	1.039677E+0	1.068719E+0	1.071523E+0	1.071382E+0	1.042124E+0	9.873623E-1	1.082686E+0	1.040077E+0	1.011339E+0	1.081642E+0	1.053757E+0	1.024590E+0	1.008721E+0	9.986090E-1	1.074256E+0	1.003947E+0	1.089218E+0	1.018056E+0	1.018658E+0	1.013739E+0	9.750294E-1	1.024889E+0	1.037562E+0	1.070686E+0	1.091596E+0	1.047061E+0	1.082086E+0	1.034995E+0	1.048617E+0	1.010523E+0	1.021127E+0	9.991954E-1	1.012572E+0	9.659627E-1	1.055031E+0	1.064141E+0	1.025386E+0	1.027602E+0	1.078826E+0	9.882700E-1	1.058335E+0	1.030281E+0	1.017596E+0	1.067195E+0	1.083581E+0	1.023464E+0	1.019558E+0	1.035211E+0	1.072736E+0	1.016496E+0	1.045597E+0	1.049897E+0	1.044178E+0	1.035152E+0	1.050161E+0	1.027409E+0	1.023087E+0	1.057592E+0	1.055643E+0	1.062595E+0	1.046712E+0	1.017246E+0	1.064161E+0	1.018274E+0	1.020119E+0	1.044575E+0	1.019915E+0	1.033172E+0	9.870520E-1
2.945010E+2	9.325252E-1	9.727630E-1	9.595639E-1	9.298499E-1	9.091337E-1	9.720242E-1	8.691402E-1	9.222523E-1	9.391495E-1	9.284828E-1	9.702591E-1	9.684200E-1	9.728822E-1	9.754877E-1	9.506990E-1	9.837190E-1	9.507026E-1	1.032510E+0	9.450959E-1	9.473374E-1	9.400714E-1	9.404967E-1	9.774474E-1	9.658788E-1	9.598995E-1	9.216939E-1	9.667299E-1	9.256022E-1	9.529824E-1	8.979605E-1	9.493739E-1	9.228627E-1	8.915389E-1	9.617800E-1	9.641104E-1	9.222810E-1	9.352787E-1	9.907759E-1	9.274242E-1	9.325590E-1	8.847121E-1	9.700413E-1	9.578772E-1	8.625479E-1	9.764087E-1	9.410143E-1	9.582895E-1	9.665187E-1	9.667727E-1	9.655907E-1	9.548615E-1	9.758804E-1	9.546305E-1	9.402681E-1	9.419407E-1	9.046720E-1	9.609886E-1	9.712424E-1	1.005030E+0	9.323306E-1	9.418287E-1	9.408253E-1	9.640659E-1	9.479891E-1	9.585935E-1	9.309671E-1	9.543098E-1	9.846894E-1	9.778396E-1	9.875877E-1	9.431868E-1	9.428875E-1	9.628451E-1	9.972666E-1	9.102442E-1	9.260080E-1	9.592760E-1	9.328378E-1	9.543991E-1	9.391085E-1	9.539102E-1	9.354544E-1	9.467774E-1	9.090238E-1	9.569998E-1	9.137606E-1	9.404726E-1	9.537247E-1	9.854512E-1	9.466406E-1	9.271473E-1	9.621096E-1	9.726612E-1	9.860267E-1	9.369067E-1	9.526751E-1	9.476841E-1	9.634278E-1	9.595891E-1	9.034993E-1	9.398476E-1	9.714803E-1	9.822336E-1	9.540241E-1	9.835583E-1	9.802606E-1	9.404442E-1	9.634095E-1	9.764078E-1	9.393887E-1	8.862732E-1	9.183954E-1	9.973874E-1	9.000309E-1	9.324281E-1	9.516895E-1	9.212430E-1	9.208951E-1	9.452938E-1	9.276392E-1	9.735740E-1	9.524966E-1	9.375780E-1	9.857081E-1	9.831037E-1	9.348056E-1	9.778648E-1	9.354220E-1	9.727599E-1	9.225012E-1	9.365245E-1	1.004980E+0	9.301549E-1	9.183649E-1	9.317837E-1	9.211197E-1	9.635505E-1	9.579746E-1	9.380351E-1	9.531297E-1	9.850086E-1	8.875419E-1	1.000614E+0	9.108969E-1	9.713007E-1	9.784655E-1	9.764944E-1	9.479449E-1	1.007099E+0	1.005660E+0	9.890544E-1	9.190078E-1	9.724131E-1	9.626315E-1	9.905775E-1	9.499049E-1	1.013744E+0	9.532346E-1	9.952679E-1	9.743996E-1	9.990745E-1	9.607697E-1	8.999531E-1	9.551635E-1	9.347063E-1	9.512417E-1	9.492650E-1	9.658423E-1	9.625155E-1	9.680464E-1	9.222889E-1
2.950070E+2	9.298750E-1	9.743206E-1	9.703812E-1	9.515323E-1	9.028204E-1	9.546759E-1	9.504326E-1	9.141073E-1	9.423416E-1	9.742078E-1	9.639243E-1	9.916916E-1	1.005634E+0	1.005136E+0	9.529087E-1	9.457087E-1	9.700278E-1	9.461837E-1	9.551768E-1	9.304870E-1	9.962175E-1	9.917924E-1	9.128744E-1	9.429068E-1	9.611284E-1	9.612018E-1	1.012377E+0	9.630198E-1	9.731291E-1	9.398803E-1	9.468148E-1	9.372752E-1	9.338581E-1	9.610165E-1	9.511927E-1	9.681046E-1	9.464149E-1	9.425228E-1	9.506497E-1	9.847354E-1	9.256170E-1	9.778651E-1	9.071584E-1	9.426590E-1	9.544954E-1	9.389664E-1	9.174568E-1	9.658590E-1	9.881318E-1	1.022574E+0	9.231280E-1	9.954575E-1	9.946356E-1	9.692631E-1	9.844155E-1	9.514030E-1	9.349184E-1	9.337975E-1	1.003477E+0	9.697146E-1	9.641958E-1	9.881570E-1	9.364200E-1	9.610063E-1	9.475293E-1	9.731886E-1	9.784962E-1	9.486421E-1	9.063741E-1	9.032387E-1	9.415914E-1	9.526094E-1	9.478593E-1	9.521846E-1	9.346042E-1	9.366524E-1	9.896899E-1	1.010819E+0	9.496456E-1	9.888767E-1	9.598598E-1	9.183180E-1	9.139464E-1	9.558863E-1	9.780202E-1	9.437063E-1	9.222912E-1	9.756137E-1	9.773565E-1	9.672895E-1	9.563347E-1	8.921991E-1	1.006375E+0	9.680037E-1	9.844599E-1	9.660021E-1	9.425415E-1	9.757047E-1	9.379395E-1	9.213623E-1	9.279923E-1	9.178917E-1	9.986654E-1	9.950674E-1	9.874595E-1	1.017112E+0	9.392091E-1	9.532676E-1	9.902050E-1	9.290021E-1	9.772039E-1	9.994598E-1	9.756268E-1	9.641645E-1	9.540543E-1	1.004759E+0	9.968934E-1	9.497916E-1	9.915690E-1	9.698486E-1	9.776577E-1	9.612701E-1	9.807666E-1	9.535368E-1	9.772886E-1	9.252863E-1	9.581310E-1	9.312384E-1	9.133285E-1	1.004762E+0	9.370304E-1	9.594908E-1	9.560655E-1	9.371505E-1	9.934193E-1	9.228853E-1	9.405131E-1	9.864363E-1	9.510318E-1	9.671874E-1	9.968755E-1	9.379194E-1	9.863556E-1	9.698910E-1	9.970991E-1	1.017265E+0	9.855946E-1	9.382818E-1	9.863543E-1	9.772347E-1	1.047766E+0	9.596775E-1	9.105206E-1	9.877543E-1	9.164223E-1	9.854983E-1	1.018305E+0	9.069570E-1	9.236200E-1	9.255348E-1	9.812913E-1	9.872645E-1	9.297902E-1	9.505462E-1	9.819647E-1	9.917274E-1	9.666537E-1	9.236372E-1	9.621773E-1	9.537882E-1	9.498256E-1
2.955070E+2	1.046903E+0	1.073644E+0	1.097043E+0	9.991886E-1	1.008139E+0	1.019201E+0	1.012958E+0	1.046126E+0	1.078161E+0	9.825573E-1	1.090583E+0	1.071037E+0	1.042605E+0	1.034065E+0	1.021379E+0	1.026379E+0	9.898557E-1	1.073487E+0	1.037151E+0	1.064081E+0	1.043444E+0	1.041386E+0	1.033917E+0	1.054949E+0	1.032060E+0	1.052067E+0	1.055736E+0	9.960214E-1	1.094880E+0	1.045535E+0	1.093458E+0	1.054174E+0	1.033210E+0	1.078216E+0	1.061252E+0	9.890839E-1	9.877107E-1	9.796066E-1	1.022285E+0	1.100499E+0	1.044226E+0	1.076558E+0	1.041419E+0	1.017222E+0	1.051166E+0	1.035663E+0	1.033332E+0	1.083831E+0	1.072300E+0	1.088071E+0	1.036384E+0	1.064448E+0	1.054701E+0	1.035977E+0	1.027763E+0	1.026708E+0	1.032375E+0	1.046635E+0	1.111645E+0	1.019496E+0	1.084820E+0	1.085176E+0	1.027667E+0	1.078390E+0	1.015661E+0	1.088689E+0	1.054815E+0	1.054967E+0	1.033183E+0	1.044393E+0	1.019737E+0	1.046008E+0	1.018127E+0	1.058914E+0	1.057713E+0	1.030533E+0	1.032211E+0	1.091906E+0	1.039660E+0	1.048322E+0	9.602702E-1	1.090514E+0	9.911915E-1	1.097441E+0	1.047192E+0	1.043057E+0	1.033945E+0	1.023334E+0	1.053135E+0	1.085823E+0	1.126235E+0	1.039761E+0	1.049807E+0	1.110261E+0	1.032490E+0	1.022660E+0	1.069005E+0	1.048083E+0	1.046713E+0	9.854080E-1	1.043915E+0	1.025671E+0	1.064266E+0	1.040587E+0	1.102873E+0	1.068918E+0	1.054489E+0	1.127533E+0	1.044415E+0	1.082467E+0	1.002979E+0	1.043020E+0	1.052757E+0	1.066179E+0	1.077469E+0	9.964879E-1	1.069170E+0	1.092893E+0	1.022550E+0	1.090459E+0	1.040933E+0	1.065564E+0	1.076239E+0	1.056757E+0	1.073583E+0	1.083616E+0	1.082237E+0	1.066677E+0	1.113234E+0	1.089490E+0	1.087162E+0	1.044130E+0	1.105524E+0	1.066451E+0	1.110287E+0	1.026138E+0	1.069121E+0	1.033513E+0	1.041923E+0	1.027913E+0	1.035835E+0	1.049394E+0	1.077029E+0	1.001740E+0	9.974935E-1	1.096063E+0	1.077024E+0	1.110417E+0	1.033032E+0	1.128912E+0	1.087090E+0	1.023440E+0	1.074525E+0	1.050294E+0	1.024416E+0	1.071578E+0	1.088257E+0	1.086133E+0	1.054804E+0	1.041485E+0	1.072277E+0	1.077815E+0	1.080052E+0	1.049730E+0	1.034171E+0	1.027649E+0	1.094522E+0	1.043901E+0	9.910629E-1	1.145290E+0	1.106042E+0
2.960030E+2	1.070980E+0	1.086299E+0	1.114639E+0	1.058023E+0	1.097422E+0	1.118819E+0	1.098455E+0	1.121637E+0	1.075130E+0	1.060269E+0	1.097257E+0	1.095000E+0	1.100772E+0	1.087256E+0	1.085899E+0	1.073891E+0	1.066350E+0	1.126423E+0	1.068533E+0	1.042553E+0	1.143667E+0	1.084059E+0	1.046725E+0	1.091805E+0	1.111224E+0	1.150546E+0	1.087066E+0	1.089417E+0	1.058509E+0	1.079309E+0	1.135079E+0	1.110369E+0	1.101465E+0	1.091859E+0	1.031450E+0	1.048747E+0	1.046780E+0	1.051770E+0	1.066883E+0	1.079612E+0	1.049518E+0	1.089715E+0	1.126467E+0	1.098231E+0	1.103283E+0	1.075713E+0	1.068889E+0	1.054424E+0	1.117154E+0	1.102570E+0	1.098999E+0	1.080202E+0	1.052388E+0	1.146069E+0	1.052678E+0	1.108912E+0	1.075071E+0	1.063122E+0	1.121964E+0	1.106223E+0	1.039110E+0	1.121701E+0	1.113916E+0	1.107169E+0	1.040705E+0	1.119583E+0	1.117090E+0	1.086217E+0	1.090741E+0	1.059808E+0	1.103931E+0	1.111989E+0	1.081946E+0	1.099717E+0	1.035170E+0	1.100260E+0	1.087731E+0	1.107989E+0	1.068314E+0	1.040034E+0	1.046144E+0	1.137839E+0	1.092564E+0	1.077914E+0	1.141210E+0	1.083600E+0	1.102479E+0	1.087226E+0	1.104103E+0	1.116807E+0	1.075796E+0	1.080446E+0	1.074578E+0	1.109314E+0	1.091712E+0	1.032548E+0	1.084171E+0	1.101047E+0	1.041328E+0	1.080058E+0	1.084039E+0	1.063897E+0	1.107706E+0	1.066995E+0	1.119124E+0	1.089464E+0	1.086766E+0	1.018077E+0	1.087531E+0	1.082095E+0	1.095427E+0	1.099103E+0	1.083245E+0	1.113327E+0	1.056199E+0	1.113675E+0	1.080430E+0	1.079026E+0	1.087596E+0	1.047049E+0	1.100900E+0	1.145560E+0	1.101304E+0	1.060746E+0	1.086417E+0	1.134220E+0	1.120057E+0	1.081740E+0	1.046626E+0	1.071823E+0	1.068175E+0	1.092446E+0	1.056132E+0	1.029414E+0	1.081030E+0	1.107493E+0	1.117876E+0	1.096828E+0	1.057903E+0	1.106961E+0	1.080412E+0	1.061040E+0	1.128825E+0	1.087745E+0	1.028011E+0	1.127929E+0	1.082455E+0	1.059215E+0	1.083576E+0	1.139751E+0	1.129656E+0	1.064158E+0	1.069445E+0	1.121111E+0	1.048775E+0	1.089368E+0	1.104313E+0	1.038244E+0	1.044859E+0	1.087651E+0	1.074644E+0	1.066759E+0	1.086754E+0	1.076892E+0	1.102568E+0	1.087689E+0	1.106748E+0	1.107544E+0	1.121346E+0	1.107932E+0	1.129948E+0
2.964980E+2	9.625894E-1	9.889728E-1	9.707987E-1	9.543235E-1	1.020321E+0	1.051587E+0	9.752767E-1	1.009120E+0	1.018020E+0	1.003363E+0	9.625953E-1	9.781921E-1	9.938322E-1	9.814285E-1	9.629611E-1	9.880534E-1	9.977933E-1	1.034298E+0	1.006268E+0	9.933798E-1	1.023867E+0	1.070039E+0	1.013161E+0	1.007214E+0	1.017907E+0	9.711844E-1	1.020627E+0	1.007666E+0	9.806604E-1	9.991971E-1	1.019704E+0	9.778843E-1	1.030247E+0	9.987850E-1	9.823164E-1	9.629568E-1	9.571392E-1	9.785242E-1	9.794452E-1	1.074841E+0	9.870793E-1	9.587321E-1	1.023528E+0	9.957332E-1	9.951564E-1	9.590911E-1	9.994147E-1	1.003342E+0	9.752092E-1	9.668946E-1	1.026330E+0	1.047269E+0	9.445151E-1	1.005947E+0	9.789689E-1	9.891686E-1	9.788424E-1	9.684604E-1	1.000787E+0	9.697523E-1	9.935862E-1	1.040669E+0	9.717061E-1	1.022130E+0	9.741440E-1	1.005629E+0	9.927804E-1	9.389771E-1	1.033142E+0	1.021449E+0	9.777923E-1	1.007222E+0	9.864662E-1	1.015785E+0	9.831618E-1	9.799977E-1	1.014788E+0	1.023740E+0	9.760704E-1	1.018708E+0	1.019261E+0	9.875159E-1	9.975843E-1	9.954796E-1	1.027288E+0	1.016037E+0	9.850668E-1	1.038415E+0	9.496027E-1	9.836337E-1	9.636657E-1	1.022437E+0	1.001211E+0	1.026008E+0	9.831701E-1	9.997265E-1	9.504644E-1	9.794315E-1	9.562632E-1	9.322995E-1	9.874201E-1	9.784821E-1	1.007884E+0	9.801751E-1	1.022355E+0	9.960785E-1	1.025386E+0	9.956422E-1	9.754377E-1	9.776761E-1	9.906289E-1	9.956735E-1	1.027379E+0	9.523907E-1	9.668922E-1	1.031439E+0	1.048972E+0	9.672656E-1	9.851418E-1	9.994085E-1	9.770400E-1	1.014872E+0	1.002388E+0	1.011782E+0	9.973540E-1	1.019954E+0	9.546560E-1	1.014998E+0	9.640908E-1	1.034964E+0	1.034087E+0	1.060711E+0	9.989990E-1	9.634088E-1	1.006234E+0	9.515149E-1	1.027348E+0	9.995783E-1	9.847506E-1	9.891227E-1	9.667612E-1	9.594316E-1	1.039546E+0	9.977872E-1	9.768019E-1	1.026408E+0	1.033727E+0	9.532250E-1	9.874021E-1	1.033348E+0	9.954328E-1	9.771567E-1	1.006742E+0	1.075739E+0	1.011268E+0	9.979566E-1	1.055184E+0	9.960411E-1	9.951557E-1	9.810538E-1	9.700847E-1	1.042976E+0	9.387055E-1	1.007640E+0	9.774757E-1	9.708483E-1	1.008253E+0	9.700086E-1	9.257517E-1	1.054485E+0	1.035689E+0
2.970040E+2	8.172277E-1	8.975718E-1	8.702133E-1	8.854329E-1	8.903778E-1	8.519254E-1	8.871044E-1	9.064964E-1	8.883990E-1	9.038334E-1	8.325699E-1	8.643114E-1	8.738066E-1	9.436903E-1	8.594578E-1	8.501875E-1	8.563674E-1	8.753197E-1	8.657341E-1	8.637766E-1	8.415274E-1	9.360848E-1	8.818465E-1	8.753947E-1	8.771691E-1	8.501943E-1	8.905647E-1	9.127430E-1	8.623687E-1	8.932935E-1	8.941083E-1	8.710874E-1	9.108808E-1	9.018202E-1	8.912149E-1	8.817470E-1	8.546210E-1	8.418047E-1	8.491091E-1	9.041296E-1	8.343317E-1	8.774622E-1	8.683265E-1	8.437515E-1	8.882638E-1	8.578765E-1	8.561749E-1	8.781414E-1	8.849250E-1	8.949777E-1	8.860164E-1	8.849052E-1	8.358269E-1	9.202720E-1	8.485099E-1	8.543905E-1	8.899266E-1	8.897663E-1	8.740986E-1	8.815053E-1	8.412824E-1	8.526762E-1	8.674414E-1	9.364089E-1	8.608844E-1	8.613232E-1	9.110885E-1	8.843318E-1	8.735024E-1	9.143105E-1	8.721811E-1	8.705855E-1	8.485338E-1	8.821974E-1	8.515048E-1	8.935623E-1	8.898746E-1	8.760511E-1	8.653123E-1	9.058459E-1	8.669999E-1	8.593127E-1	8.664381E-1	8.801098E-1	9.000220E-1	8.865765E-1	8.777963E-1	8.349463E-1	9.078428E-1	8.805074E-1	9.029442E-1	8.916989E-1	8.590528E-1	8.520344E-1	8.708850E-1	8.915258E-1	9.097885E-1	9.162536E-1	8.798359E-1	8.891040E-1	8.947453E-1	9.014234E-1	8.945033E-1	8.972978E-1	9.429548E-1	8.778360E-1	9.093285E-1	8.307102E-1	9.053644E-1	8.818966E-1	8.729624E-1	9.138487E-1	8.693142E-1	8.732000E-1	9.238771E-1	8.725958E-1	8.972576E-1	8.478090E-1	8.908940E-1	8.923934E-1	9.101556E-1	8.978216E-1	8.902142E-1	8.608087E-1	9.049951E-1	8.625343E-1	8.786806E-1	8.843737E-1	8.528515E-1	8.640542E-1	8.742966E-1	8.656879E-1	8.418271E-1	8.545666E-1	8.839450E-1	8.645917E-1	9.137153E-1	9.335590E-1	8.501774E-1	9.336730E-1	8.821375E-1	8.328595E-1	8.632647E-1	8.980166E-1	8.912099E-1	8.961481E-1	9.149898E-1	9.198013E-1	8.779320E-1	8.687302E-1	8.974686E-1	8.928066E-1	8.452319E-1	8.731698E-1	8.505235E-1	8.789653E-1	9.366882E-1	8.474653E-1	8.218823E-1	8.730524E-1	8.904970E-1	9.179591E-1	8.424470E-1	8.726505E-1	8.405661E-1	8.721640E-1	9.238916E-1	8.390467E-1	8.742033E-1	8.348977E-1	9.417190E-1
2.975020E+2	9.019619E-1	9.512587E-1	9.081388E-1	9.257182E-1	8.763427E-1	9.562288E-1	9.395244E-1	9.220979E-1	9.621993E-1	9.342316E-1	9.153639E-1	9.446332E-1	9.128903E-1	9.328055E-1	9.263203E-1	9.209223E-1	8.997703E-1	9.391188E-1	9.002924E-1	9.015171E-1	9.518589E-1	9.506207E-1	9.282681E-1	9.287177E-1	8.884136E-1	9.568772E-1	9.245333E-1	9.081348E-1	9.097912E-1	9.246592E-1	8.890638E-1	9.654736E-1	9.304717E-1	9.067813E-1	9.098367E-1	9.153095E-1	9.445723E-1	9.221458E-1	8.903499E-1	9.269940E-1	9.255970E-1	9.109842E-1	9.204428E-1	8.698970E-1	9.190262E-1	9.108256E-1	9.303767E-1	9.292558E-1	9.486771E-1	8.941772E-1	9.429076E-1	9.241412E-1	9.144684E-1	9.441954E-1	9.249064E-1	9.175724E-1	9.014022E-1	9.333133E-1	9.329233E-1	9.200814E-1	9.119829E-1	9.313746E-1	8.834018E-1	9.333162E-1	9.535607E-1	9.016106E-1	9.352466E-1	9.082129E-1	9.194095E-1	9.389691E-1	9.243297E-1	8.925904E-1	8.909551E-1	9.563539E-1	9.425888E-1	8.879090E-1	8.901291E-1	9.795612E-1	9.398264E-1	8.914725E-1	9.437285E-1	9.806570E-1	8.843799E-1	9.368802E-1	9.303807E-1	9.010357E-1	8.777747E-1	9.501024E-1	9.335667E-1	9.411029E-1	9.352687E-1	9.529732E-1	9.117020E-1	9.534899E-1	9.337837E-1	9.001014E-1	9.125355E-1	9.404561E-1	9.464578E-1	8.953338E-1	9.305893E-1	9.217327E-1	9.207839E-1	9.096820E-1	9.367415E-1	9.294839E-1	9.474058E-1	9.451385E-1	9.237046E-1	9.267154E-1	9.261651E-1	9.201978E-1	9.454138E-1	9.324739E-1	8.920330E-1	9.257252E-1	9.339404E-1	8.993859E-1	9.247746E-1	9.061697E-1	9.253433E-1	9.391563E-1	9.336034E-1	9.062252E-1	9.509762E-1	9.085998E-1	9.701127E-1	9.402939E-1	8.835578E-1	9.386432E-1	9.314922E-1	9.460014E-1	9.172196E-1	8.817945E-1	9.399974E-1	9.015702E-1	8.717198E-1	9.103278E-1	8.977055E-1	9.757346E-1	9.096440E-1	8.853502E-1	9.219526E-1	9.115926E-1	8.999384E-1	9.297002E-1	9.430919E-1	9.323940E-1	9.193027E-1	9.760800E-1	9.166603E-1	9.001557E-1	9.356200E-1	9.078826E-1	9.251100E-1	9.340067E-1	9.122508E-1	9.068054E-1	9.603532E-1	9.392758E-1	9.254213E-1	9.205024E-1	9.167024E-1	9.184458E-1	9.146390E-1	9.182445E-1	9.545267E-1	8.847691E-1	9.213810E-1	8.737291E-1	8.721170E-1
2.980020E+2	9.616089E-1	9.618969E-1	1.000981E+0	1.004867E+0	9.871340E-1	9.917854E-1	9.580333E-1	1.005598E+0	9.856314E-1	1.045101E+0	9.673267E-1	9.929478E-1	9.962360E-1	9.576910E-1	9.797372E-1	9.518400E-1	9.669540E-1	1.014469E+0	9.893884E-1	9.849366E-1	9.901816E-1	9.744032E-1	9.654057E-1	1.021741E+0	9.410665E-1	9.690652E-1	9.719250E-1	9.961889E-1	9.698526E-1	9.925706E-1	9.842264E-1	1.012086E+0	9.762909E-1	1.000604E+0	1.000874E+0	9.876428E-1	9.485878E-1	9.964039E-1	1.020032E+0	9.971362E-1	9.800900E-1	9.916875E-1	9.924876E-1	1.007868E+0	9.648150E-1	1.005657E+0	1.007557E+0	9.243187E-1	1.003248E+0	1.026696E+0	1.020915E+0	9.776275E-1	9.747669E-1	1.010951E+0	9.458126E-1	9.889677E-1	9.491583E-1	9.697209E-1	9.787277E-1	9.754550E-1	9.933082E-1	1.013536E+0	9.931267E-1	9.801278E-1	1.000751E+0	9.846877E-1	1.004465E+0	9.793954E-1	9.739967E-1	9.774021E-1	9.641990E-1	9.762628E-1	1.004192E+0	9.415180E-1	9.882118E-1	9.828687E-1	1.015168E+0	1.004887E+0	9.750342E-1	9.732169E-1	9.754971E-1	9.929769E-1	9.773553E-1	9.976522E-1	9.896244E-1	9.650350E-1	9.976864E-1	9.867995E-1	9.672315E-1	9.916460E-1	9.802584E-1	9.781190E-1	9.704304E-1	9.552128E-1	9.875714E-1	9.834572E-1	9.521789E-1	1.017396E+0	9.701078E-1	9.677643E-1	9.978382E-1	9.908769E-1	9.992214E-1	9.862087E-1	9.772781E-1	9.495168E-1	1.017560E+0	9.984321E-1	9.856562E-1	9.600841E-1	1.006403E+0	1.009633E+0	9.402426E-1	9.723616E-1	1.017655E+0	1.034877E+0	9.738811E-1	9.968453E-1	1.003449E+0	9.889926E-1	1.016586E+0	1.011550E+0	9.681405E-1	9.747052E-1	9.855962E-1	9.843671E-1	9.846672E-1	9.915486E-1	9.434183E-1	1.049996E+0	9.485556E-1	9.892920E-1	9.399760E-1	9.848989E-1	9.929101E-1	9.737649E-1	9.482317E-1	1.003586E+0	1.003918E+0	9.938898E-1	9.681814E-1	9.592973E-1	9.518135E-1	1.003593E+0	1.028200E+0	9.937798E-1	9.963965E-1	9.975708E-1	1.027636E+0	9.672446E-1	1.012068E+0	9.997100E-1	9.777069E-1	9.900225E-1	9.899292E-1	1.012739E+0	9.989615E-1	9.800460E-1	9.910850E-1	1.017693E+0	9.679884E-1	9.923670E-1	9.961564E-1	1.001147E+0	1.022368E+0	9.728284E-1	9.880923E-1	9.692992E-1	9.537390E-1	9.579805E-1	9.830732E-1
2.985020E+2	1.068952E+0	1.070785E+0	9.905621E-1	1.041594E+0	1.018143E+0	1.001025E+0	1.025947E+0	1.039597E+0	1.027749E+0	1.033019E+0	1.008965E+0	1.042437E+0	1.049389E+0	1.039005E+0	1.041705E+0	1.021080E+0	1.029504E+0	1.053005E+0	1.043879E+0	9.778357E-1	1.042436E+0	1.017048E+0	1.018089E+0	1.032083E+0	1.042821E+0	1.068172E+0	1.020901E+0	1.052040E+0	1.017096E+0	1.066400E+0	1.036751E+0	1.036313E+0	1.047039E+0	9.989456E-1	1.026662E+0	1.046579E+0	1.089627E+0	1.022995E+0	1.018097E+0	1.012460E+0	1.012462E+0	1.064477E+0	1.022851E+0	1.058428E+0	1.029243E+0	1.007322E+0	9.966849E-1	1.070171E+0	1.029137E+0	1.038778E+0	9.885450E-1	1.046056E+0	1.041404E+0	1.031068E+0	1.061596E+0	1.043591E+0	1.040548E+0	9.952349E-1	1.006229E+0	1.043602E+0	1.058323E+0	1.037532E+0	9.848821E-1	1.008492E+0	1.047099E+0	1.015969E+0	1.034516E+0	1.042368E+0	1.034632E+0	1.035430E+0	1.024622E+0	1.088793E+0	1.029144E+0	1.043687E+0	1.042359E+0	9.963931E-1	1.020522E+0	1.030969E+0	1.065790E+0	1.024327E+0	1.031521E+0	1.024989E+0	1.021461E+0	1.056729E+0	1.044157E+0	1.048625E+0	1.016527E+0	1.064433E+0	1.045058E+0	1.056886E+0	1.035474E+0	1.011129E+0	1.055940E+0	1.083541E+0	1.080078E+0	1.032353E+0	1.034769E+0	1.045732E+0	1.076502E+0	1.065523E+0	1.047333E+0	1.033097E+0	1.025717E+0	1.045482E+0	1.032530E+0	1.064136E+0	1.030246E+0	1.070989E+0	1.022020E+0	1.026909E+0	9.836658E-1	9.944971E-1	1.008413E+0	1.000644E+0	9.989268E-1	1.029616E+0	1.074666E+0	1.044273E+0	1.023556E+0	1.045780E+0	1.001584E+0	1.027002E+0	1.037635E+0	1.028138E+0	9.858115E-1	1.034499E+0	1.025939E+0	1.039908E+0	1.045911E+0	1.031368E+0	1.050576E+0	1.042629E+0	1.042433E+0	1.057363E+0	1.040520E+0	1.058182E+0	1.078780E+0	1.018747E+0	1.022079E+0	1.005387E+0	1.069088E+0	1.033462E+0	1.019799E+0	1.030858E+0	1.002884E+0	1.006366E+0	1.012477E+0	1.045584E+0	9.803380E-1	1.058316E+0	1.036400E+0	1.043780E+0	1.021803E+0	1.005344E+0	1.011113E+0	1.033453E+0	1.053834E+0	1.077822E+0	1.018226E+0	9.985000E-1	1.021710E+0	1.028474E+0	9.789445E-1	1.027403E+0	1.043188E+0	1.036394E+0	1.018233E+0	1.038147E+0	1.046072E+0	1.003956E+0	1.086156E+0
2.990020E+2	1.056209E+0	1.011702E+0	1.062888E+0	1.011192E+0	1.045838E+0	1.018600E+0	1.013726E+0	1.002996E+0	1.008713E+0	1.003573E+0	1.060738E+0	1.028557E+0	1.016880E+0	1.041485E+0	1.020005E+0	1.058651E+0	1.039553E+0	1.019445E+0	1.009742E+0	1.056850E+0	1.051189E+0	1.044967E+0	1.012910E+0	1.042523E+0	1.031037E+0	1.083589E+0	1.015336E+0	1.038945E+0	1.046063E+0	1.036119E+0	1.009439E+0	9.847339E-1	1.016632E+0	1.066847E+0	1.038989E+0	1.020646E+0	1.017149E+0	1.046244E+0	1.025410E+0	1.047781E+0	1.028659E+0	1.012381E+0	1.037021E+0	1.020001E+0	1.023092E+0	1.052811E+0	1.059365E+0	1.026815E+0	1.003649E+0	1.041824E+0	1.046663E+0	1.041928E+0	1.041148E+0	1.006508E+0	1.038681E+0	1.054627E+0	1.007868E+0	1.063373E+0	1.026865E+0	1.010119E+0	1.034340E+0	1.037401E+0	1.032996E+0	1.010569E+0	1.015923E+0	1.049034E+0	1.010659E+0	1.044201E+0	1.011156E+0	1.059431E+0	1.018661E+0	1.043380E+0	1.027634E+0	1.014143E+0	1.021155E+0	1.030650E+0	1.000378E+0	1.022986E+0	1.024538E+0	1.013235E+0	1.025381E+0	1.032034E+0	1.032929E+0	1.016392E+0	1.002038E+0	1.028308E+0	1.028697E+0	1.001606E+0	1.008453E+0	9.971140E-1	9.930418E-1	1.057917E+0	1.038129E+0	1.023543E+0	1.001920E+0	1.035108E+0	1.046259E+0	1.015422E+0	1.020376E+0	1.006256E+0	1.024480E+0	9.949245E-1	1.063420E+0	1.036243E+0	1.023969E+0	9.970546E-1	1.007507E+0	9.850234E-1	1.029033E+0	1.053801E+0	1.044274E+0	1.030460E+0	1.041029E+0	1.030476E+0	1.025493E+0	1.031326E+0	1.004924E+0	1.006954E+0	1.019974E+0	1.045805E+0	1.025981E+0	1.047159E+0	9.910217E-1	1.035511E+0	1.026460E+0	1.037211E+0	1.037906E+0	1.003491E+0	1.047816E+0	1.042542E+0	1.043142E+0	1.057617E+0	1.055724E+0	1.028720E+0	1.016703E+0	1.012967E+0	1.050496E+0	9.999624E-1	1.051375E+0	1.047759E+0	1.012650E+0	1.046639E+0	1.026081E+0	1.075203E+0	1.030418E+0	1.035271E+0	1.027710E+0	1.017253E+0	1.084607E+0	1.028241E+0	1.056318E+0	1.014537E+0	1.021421E+0	1.038383E+0	1.042110E+0	1.033001E+0	1.016534E+0	9.993981E-1	1.053911E+0	1.020698E+0	1.013561E+0	1.007318E+0	1.039774E+0	1.016719E+0	1.036997E+0	1.012770E+0	1.015989E+0	1.044363E+0	1.030184E+0	1.053143E+0	1.049442E+0
2.995060E+2	9.484308E-1	9.652724E-1	9.693181E-1	9.723660E-1	9.923133E-1	9.626211E-1	9.766590E-1	9.527456E-1	1.006782E+0	9.640426E-1	9.803431E-1	9.587479E-1	9.727916E-1	9.794627E-1	9.784988E-1	9.679761E-1	9.881918E-1	9.579540E-1	9.666754E-1	9.833620E-1	9.269201E-1	9.862680E-1	1.013154E+0	9.440636E-1	1.009057E+0	9.405760E-1	9.914359E-1	9.588507E-1	1.000373E+0	9.269199E-1	9.900358E-1	9.984382E-1	9.805289E-1	9.819989E-1	9.419649E-1	1.000880E+0	9.747616E-1	9.600661E-1	9.580629E-1	9.603164E-1	9.883633E-1	9.575096E-1	9.685243E-1	9.452607E-1	9.844904E-1	9.789355E-1	9.538398E-1	9.779225E-1	9.917227E-1	9.485135E-1	9.648553E-1	9.504348E-1	1.008205E+0	9.816345E-1	9.724265E-1	9.661275E-1	9.785937E-1	9.715752E-1	9.777788E-1	9.839083E-1	9.449296E-1	9.235405E-1	9.753337E-1	9.788778E-1	9.793604E-1	9.833147E-1	9.865872E-1	9.522377E-1	9.863006E-1	9.475202E-1	9.983081E-1	9.433616E-1	9.987489E-1	9.985734E-1	9.603230E-1	9.883345E-1	9.869115E-1	9.762905E-1	9.457335E-1	1.012710E+0	9.699995E-1	9.740269E-1	9.778757E-1	9.827695E-1	9.840130E-1	9.754126E-1	9.733853E-1	9.739048E-1	9.755728E-1	9.419481E-1	9.942169E-1	9.641138E-1	9.645931E-1	9.610161E-1	9.666924E-1	9.665953E-1	9.929628E-1	9.537626E-1	9.395048E-1	9.767000E-1	9.749234E-1	9.927953E-1	9.316392E-1	9.740496E-1	9.852278E-1	9.794075E-1	9.378866E-1	1.001122E+0	9.798927E-1	9.528917E-1	9.966758E-1	9.646564E-1	1.010807E+0	9.734976E-1	9.660598E-1	9.364141E-1	9.458315E-1	9.604090E-1	9.640863E-1	9.485644E-1	1.000653E+0	9.747814E-1	1.006588E+0	9.868751E-1	9.768511E-1	9.852273E-1	9.661516E-1	9.691000E-1	9.722774E-1	9.182519E-1	9.858782E-1	9.537376E-1	9.611309E-1	9.525801E-1	9.795053E-1	9.516386E-1	9.198455E-1	1.001494E+0	9.730610E-1	9.598894E-1	9.512477E-1	9.795302E-1	1.025583E+0	9.579094E-1	9.935584E-1	9.752211E-1	9.665525E-1	9.372530E-1	9.365352E-1	9.734688E-1	9.491715E-1	9.849165E-1	9.891666E-1	9.425546E-1	9.464083E-1	9.533072E-1	9.444958E-1	9.596372E-1	9.652881E-1	9.657377E-1	9.905244E-1	9.745493E-1	9.958142E-1	9.864976E-1	9.837346E-1	9.315811E-1	9.753250E-1	9.543480E-1	1.017632E+0	9.563958E-1	1.025190E+0
3.000040E+2	9.647988E-1	9.903437E-1	9.762506E-1	9.699820E-1	9.565716E-1	1.025968E+0	1.025635E+0	9.990632E-1	9.711244E-1	9.542642E-1	9.826268E-1	9.773102E-1	9.647041E-1	9.823563E-1	9.800531E-1	1.000453E+0	9.757971E-1	9.551271E-1	9.903157E-1	9.970156E-1	9.892729E-1	9.773137E-1	9.904411E-1	9.595892E-1	9.760188E-1	9.385986E-1	1.000402E+0	9.539753E-1	9.666150E-1	9.779912E-1	9.795474E-1	9.684292E-1	9.795086E-1	9.516040E-1	9.915103E-1	9.442517E-1	9.698746E-1	9.742908E-1	9.783985E-1	9.823064E-1	9.904256E-1	9.739454E-1	9.791155E-1	9.684426E-1	9.983595E-1	9.552750E-1	9.825529E-1	1.000773E+0	9.722435E-1	9.441882E-1	9.790211E-1	9.839534E-1	9.344758E-1	9.698386E-1	9.814837E-1	9.466875E-1	1.023832E+0	1.000096E+0	1.010399E+0	9.869161E-1	9.690994E-1	9.879900E-1	1.013661E+0	1.021934E+0	9.568667E-1	9.669940E-1	9.637726E-1	9.817978E-1	9.939149E-1	9.802174E-1	9.942104E-1	9.482021E-1	9.402817E-1	1.002079E+0	9.879508E-1	1.001754E+0	9.770206E-1	9.648686E-1	9.889044E-1	9.765112E-1	9.976019E-1	9.759737E-1	9.903788E-1	9.464573E-1	9.801682E-1	9.826193E-1	9.837043E-1	9.732566E-1	1.003685E+0	1.012406E+0	9.970091E-1	9.887212E-1	9.709076E-1	9.766866E-1	9.637384E-1	9.824870E-1	9.738309E-1	9.676871E-1	9.935100E-1	9.837564E-1	9.554258E-1	9.883061E-1	9.800025E-1	9.580172E-1	9.809950E-1	1.009885E+0	1.006801E+0	9.444337E-1	9.833988E-1	1.006314E+0	9.689818E-1	1.000753E+0	9.995077E-1	1.023021E+0	9.918646E-1	9.677674E-1	1.000698E+0	9.915197E-1	9.889350E-1	9.708580E-1	9.551965E-1	9.395075E-1	9.966151E-1	9.747702E-1	1.025281E+0	9.586958E-1	9.853364E-1	9.959523E-1	9.905768E-1	9.578424E-1	9.718484E-1	9.567239E-1	1.000736E+0	9.764380E-1	9.703610E-1	1.003447E+0	1.002646E+0	9.762106E-1	9.495670E-1	9.930748E-1	9.988333E-1	9.810712E-1	9.767241E-1	9.324359E-1	9.449400E-1	9.893622E-1	9.968639E-1	1.002339E+0	9.708833E-1	9.727289E-1	9.460426E-1	9.570566E-1	9.899023E-1	1.023696E+0	1.010439E+0	9.675000E-1	9.861746E-1	9.830966E-1	9.714902E-1	9.973711E-1	1.006216E+0	9.972916E-1	9.893109E-1	9.682335E-1	9.137129E-1	1.046426E+0	1.002361E+0	9.938422E-1	9.523728E-1	1.028525E+0	8.561388E-1
