Photon Energy (eV)	#1	#2	#3	#4	#5	#6	#7	#8	#9	#10	#11	#12	#13	#14	#15	#16	#17	#18	#19	#20	#21	#22	#23	#24	#25	#26	#27	#28	#29	#30	#31	#32	#33	#34	#35	#36	#37	#38	#39	#40	#41	#42	#43	#44	#45	#46	#47	#48	#49	#50	#51	#52	#53	#54	#55	#56	#57	#58	#59	#60	#61	#62	#63	#64	#65	#66	#67	#68	#69	#70	#71	#72	#73	#74	#75	#76	#77	#78	#79	#80	#81	#82	#83	#84	#85	#86	#87	#88	#89	#90	#91	#92	#93	#94	#95	#96	#97	#98	#99	#100	#101	#102	#103	#104	#105	#106	#107	#108	#109	#110	#111	#112	#113	#114	#115	#116	#117	#118	#119	#120	#121	#122	#123	#124	#125	#126	#127	#128	#129	#130	#131	#132	#133	#134	#135	#136	#137	#138	#139	#140	#141	#142	#143	#144	#145	#146	#147	#148	#149	#150	#151	#152	#153	#154	#155	#156	#157	#158	#159	#160	#161	#162	#163	#164	#165	#166	#167	#168	#169	#170	#171	#172	
2.790030E+2	-7.242082E-3	-5.062517E-3	-1.113867E-2	6.885237E-3	-2.707963E-4	-9.135290E-3	-1.306212E-3	5.757484E-3	3.947654E-3	4.871927E-3	-4.027523E-3	9.073641E-4	-9.081799E-3	-9.064623E-3	3.818305E-3	2.361631E-3	-3.242332E-3	-1.097868E-2	-6.232554E-3	1.628354E-3	-3.660831E-3	-8.692396E-3	-6.413948E-3	-1.658331E-3	-6.395670E-3	-3.459819E-3	-3.631454E-3	2.307048E-3	-9.986244E-3	1.597023E-3	-3.363467E-4	-2.829019E-3	-5.814970E-4	-3.442335E-3	-3.846886E-3	-2.792635E-3	-1.106323E-2	-1.572317E-3	-3.525273E-3	-1.375358E-3	1.757097E-4	3.400452E-3	-3.720516E-3	-2.899460E-3	-1.740368E-3	-8.205780E-3	-1.002815E-2	-4.160269E-3	-4.874238E-3	-7.308786E-3	-5.334317E-3	1.020978E-3	-8.140985E-3	-5.397329E-3	-1.378741E-3	6.355454E-3	-9.932404E-3	-2.225150E-3	-5.280707E-3	1.408896E-3	-6.568453E-3	3.364776E-3	-4.338036E-3	4.980416E-3	3.651989E-3	3.803168E-3	1.291202E-3	-7.531180E-3	-3.693913E-3	-7.473806E-3	1.480710E-4	-1.081858E-2	-1.129842E-2	-8.305474E-4	-7.744659E-3	7.653802E-4	-8.076131E-3	-5.932906E-3	-9.661612E-4	-3.275127E-3	-5.819565E-3	2.200933E-3	7.496448E-3	-2.956730E-3	4.108591E-3	-9.486909E-3	-1.248334E-2	-7.359768E-3	4.382154E-3	-7.707350E-3	3.105416E-4	-5.509522E-3	-2.933277E-3	-9.746124E-3	-1.338095E-2	-2.099020E-3	-1.393497E-2	2.171607E-3	-3.702688E-3	-3.993508E-3	-1.824903E-2	-6.789788E-3	-3.962214E-3	2.659227E-4	1.903062E-3	-2.739288E-3	-3.825209E-3	-1.508821E-3	1.474839E-3	-6.887232E-3	-4.683487E-3	-8.790675E-3	2.179313E-3	-2.559062E-3	-6.687583E-3	-3.379716E-3	-8.429551E-3	-6.178641E-3	7.715029E-3	-2.231408E-4	2.708910E-3	-3.853188E-3	5.043566E-5	-4.180055E-4	-8.389419E-5	-1.327041E-3	-4.397269E-3	-2.425539E-3	1.055468E-4	-1.220025E-2	-5.914393E-3	-4.070100E-3	1.176980E-2	-3.521865E-3	-8.722998E-3	-7.192703E-3	-1.581118E-2	-1.326953E-2	-3.707948E-3	-3.480445E-4	5.974290E-3	-1.260760E-2	3.783303E-3	2.291856E-4	-1.579259E-3	-4.006240E-3	-5.463222E-3	-7.721774E-3	-1.619715E-3	1.202682E-3	-4.257930E-3	-7.252502E-3	6.488384E-4	-1.279573E-2	-8.397751E-3	-9.598695E-3	-2.584623E-4	-7.725146E-3	-3.371658E-3	9.202894E-3	2.291218E-3	1.165724E-4	-4.049830E-3	-4.385385E-3	8.744906E-3	-8.555008E-3	-6.466223E-3	-3.651342E-3	5.268403E-3	-7.676123E-4	-6.359422E-3	-1.392377E-3
2.795050E+2	-8.463014E-3	1.408161E-3	3.247089E-4	1.743210E-3	3.814398E-3	-4.898864E-3	-3.097803E-3	-2.790894E-3	-4.512479E-3	-1.153976E-3	-1.574652E-2	-8.919032E-3	2.708407E-3	-4.304165E-3	-4.532954E-3	7.495642E-4	-4.268571E-3	-9.752517E-4	-7.126070E-3	5.413280E-3	-2.276320E-3	-5.820004E-3	3.235498E-3	-2.570099E-3	-2.298182E-3	1.128867E-3	-8.859060E-3	-4.523395E-3	-8.713348E-3	-8.666561E-3	7.127528E-3	-3.645903E-3	3.525085E-3	5.175927E-3	-4.018395E-3	1.416113E-3	-2.824416E-3	-3.434825E-4	1.449618E-3	-7.942439E-3	-1.522433E-5	4.892940E-5	-2.352106E-3	-1.272519E-2	-2.642317E-3	-1.418497E-3	-6.046943E-3	-3.627862E-3	-1.179884E-2	2.894306E-3	5.692013E-4	-8.874607E-4	-1.320799E-2	1.260206E-3	-6.151698E-3	-6.964690E-3	-5.937728E-3	-3.234021E-3	-1.000427E-3	-1.260187E-2	-3.507837E-3	-9.734488E-4	-3.749019E-3	-6.656116E-3	5.358607E-4	-6.300524E-3	1.955532E-3	-9.617922E-4	4.198234E-3	-6.921805E-3	2.964203E-3	-7.176768E-3	-6.469828E-3	-8.360740E-3	7.224565E-3	-7.640113E-3	-2.833933E-3	-3.141686E-3	-4.379705E-4	-1.947322E-3	-4.151745E-3	-7.109716E-3	1.216911E-3	-5.366122E-3	-5.046997E-3	-1.755295E-3	1.268942E-3	1.718279E-3	-8.184196E-3	4.483309E-3	-4.382328E-3	-3.708314E-3	7.798463E-3	-3.623268E-4	-1.195373E-2	-7.314022E-3	4.113956E-4	-9.520473E-3	-7.311929E-3	-5.599374E-3	-8.067115E-5	-2.590736E-5	-2.454498E-3	-2.782266E-3	-8.525096E-3	-2.100277E-3	4.412974E-5	-7.822585E-3	-1.732356E-2	-4.589921E-4	1.178531E-4	6.882085E-3	-3.632818E-3	1.342621E-3	-5.104024E-3	-1.062229E-3	-6.880944E-3	3.971881E-3	-2.400049E-3	1.060762E-3	-1.415503E-2	-3.162453E-3	-1.959381E-3	6.602442E-3	3.104563E-3	6.192694E-4	3.524337E-3	-6.002447E-3	-3.922201E-3	-3.933753E-3	-3.130459E-3	7.066370E-4	-1.158504E-3	-2.849083E-3	3.176977E-3	-1.973205E-4	-3.021547E-3	1.385902E-2	6.438501E-3	-1.478284E-3	-9.844076E-3	-7.987288E-4	-1.033493E-2	-6.860076E-3	4.721454E-3	-5.998083E-3	-1.313530E-2	9.639204E-3	-1.446064E-2	-9.240497E-3	-1.344337E-2	-8.970685E-3	1.329643E-3	-1.245841E-4	-2.022000E-3	-3.642051E-4	-1.217539E-2	-6.442771E-3	-3.547567E-3	-3.442007E-3	-8.620375E-3	-8.652058E-4	2.896858E-3	-9.937760E-3	2.577034E-3	1.195895E-4	5.876482E-3	9.992055E-4	-1.008197E-2	-3.930186E-3	-4.594339E-3	-9.121897E-3
2.800020E+2	8.533909E-3	-1.533192E-3	-8.003660E-3	-6.117563E-3	1.995658E-3	-1.432071E-3	-3.954244E-3	-2.018844E-3	-1.193223E-2	-1.168344E-3	4.202706E-3	7.706934E-3	-4.798429E-3	8.228475E-3	-3.948369E-3	-4.983555E-3	-1.783084E-3	-7.265879E-3	6.753283E-3	6.128690E-4	-5.419487E-3	-5.868623E-3	-6.018803E-4	2.567790E-4	5.290843E-3	4.241940E-3	4.081058E-3	4.512348E-3	-2.606338E-4	-5.115924E-3	-8.228083E-3	-2.410812E-3	8.751645E-4	-2.192820E-3	-3.322617E-3	-4.484264E-3	1.686085E-3	-6.682764E-3	2.125411E-3	-7.274359E-3	4.135465E-3	-1.574100E-3	-4.713415E-3	-1.522876E-3	7.494265E-3	-2.848053E-3	-5.775853E-4	-1.536592E-3	-5.965869E-3	-2.742638E-3	-3.258809E-3	-3.499529E-3	3.874329E-3	-1.829637E-3	-8.687514E-4	-8.660786E-4	-4.337740E-3	2.355909E-5	-8.208809E-3	-5.770412E-3	-3.401748E-4	-3.088386E-3	-2.280542E-3	-1.005106E-2	-5.308257E-3	-7.102785E-3	-6.909014E-3	1.974143E-3	-1.525487E-3	-5.546513E-3	-3.090096E-3	9.410843E-3	1.760430E-3	4.623588E-3	-3.961324E-3	-2.944510E-3	-9.783430E-3	6.371137E-3	-7.446415E-3	-5.938938E-3	1.734633E-3	-3.844302E-3	-3.402281E-3	-3.046367E-3	-9.217976E-3	1.333380E-3	-4.950792E-3	-4.182532E-3	-5.388845E-3	1.123637E-3	-6.245755E-3	-3.758182E-3	4.638101E-3	-4.120203E-4	-3.568873E-3	-2.676707E-3	2.013988E-3	-3.213923E-4	3.150779E-3	3.599217E-3	-9.227711E-4	-1.153958E-2	-8.860308E-4	-1.381882E-3	-7.615329E-3	2.713808E-3	-1.085484E-5	-4.861844E-3	1.436702E-3	-4.137272E-3	-6.256146E-3	5.925778E-3	1.396959E-3	-9.147669E-3	-2.546434E-3	-4.427611E-3	7.918471E-4	-2.406591E-3	-3.230201E-3	-8.310150E-3	2.572845E-3	-3.204394E-3	-4.717031E-3	-3.908421E-3	-1.031377E-2	-6.473063E-3	-2.992263E-3	1.186408E-3	-8.614239E-3	4.367791E-3	-3.139361E-3	-2.623835E-3	-8.731741E-3	-1.134108E-2	4.779630E-3	1.380277E-3	-1.174587E-3	-3.113597E-3	-1.078388E-2	-8.019897E-3	3.510211E-3	-1.035959E-2	-3.000863E-3	5.056353E-3	-5.826093E-3	-8.752626E-3	4.262984E-3	-8.846797E-3	2.042223E-3	-8.439125E-3	-2.939936E-3	-5.198671E-3	-7.011984E-3	6.703043E-4	-2.155099E-4	4.264879E-3	2.865732E-4	-8.623224E-3	3.330232E-5	-1.851622E-3	9.688932E-4	-1.702730E-3	-2.700614E-3	1.052488E-2	-1.188427E-2	-2.343882E-3	-3.341956E-3	-6.596132E-4	-5.490312E-3	7.628039E-3	-4.644976E-3	-5.416523E-3
2.805030E+2	-5.486982E-3	-2.450281E-3	9.521359E-3	-5.112251E-3	-7.469353E-3	-3.150549E-3	-2.323567E-3	-6.964213E-3	-1.726638E-3	5.530468E-3	1.949591E-3	-4.503165E-3	7.180274E-3	-5.702089E-3	3.004059E-3	-6.691532E-4	4.198228E-3	-3.321465E-3	9.430814E-4	-1.051203E-4	-4.607818E-3	3.992029E-3	9.630897E-4	3.149697E-4	-1.466800E-3	1.118421E-3	-1.637316E-3	1.255347E-3	-3.747900E-3	-2.911187E-3	-6.092185E-3	2.770631E-3	-4.244044E-3	-6.535504E-3	6.428850E-3	2.149069E-3	2.141108E-4	-3.841031E-3	-1.504166E-3	-6.520993E-3	5.027845E-3	-3.080682E-3	-6.210674E-3	5.755839E-3	6.101457E-3	-6.261753E-3	-5.137223E-4	-2.904736E-3	8.080408E-4	-1.226386E-2	-3.214608E-3	-3.456113E-3	8.825708E-3	-2.539336E-3	2.998691E-3	7.238459E-4	3.157280E-3	6.697813E-3	-2.814709E-3	-1.419716E-3	-1.903232E-3	-5.796434E-3	-7.554014E-3	7.657214E-4	-5.273935E-3	-7.063483E-3	-1.479328E-2	-4.693816E-3	-1.117760E-2	1.866475E-4	2.211674E-3	-2.636262E-3	-3.997504E-3	3.860091E-3	5.661293E-5	-8.435173E-3	-2.072755E-3	-2.407671E-3	2.691433E-4	5.330575E-3	-5.020347E-3	3.441904E-4	3.504170E-3	1.200495E-2	1.534507E-3	-2.553333E-3	-3.362114E-3	6.843758E-3	-1.012290E-2	1.992671E-3	9.336064E-5	1.005829E-2	-6.921874E-3	-1.645727E-2	4.904888E-3	1.390113E-3	7.888312E-3	9.749957E-3	-4.701902E-3	-4.057764E-3	-1.665333E-3	-3.253403E-5	-6.538971E-3	3.029844E-3	2.847558E-3	-1.303505E-3	2.437929E-3	-3.305898E-3	-8.985669E-3	-1.893855E-3	8.680126E-4	-9.412391E-3	-1.233216E-2	-1.901062E-3	-1.107691E-2	-4.416120E-3	1.623962E-3	-3.169135E-3	-7.178087E-4	7.130916E-4	9.539074E-3	1.782193E-4	8.985991E-3	3.446448E-3	4.944127E-3	-3.581159E-3	-5.350353E-3	-6.455876E-3	-3.511189E-3	-4.777886E-3	9.187879E-4	-6.200998E-4	-9.477946E-3	-4.072412E-4	4.823921E-3	1.682633E-3	6.376304E-3	-7.761268E-3	-3.857728E-3	1.752746E-3	-7.553661E-3	-8.744681E-3	1.432974E-3	1.968546E-3	-5.595992E-3	-5.964388E-3	1.105405E-2	1.097300E-3	3.834835E-3	-5.870071E-3	6.097483E-3	1.016418E-3	-7.827932E-3	-9.774325E-4	-2.018113E-3	2.045806E-3	-7.996562E-3	1.075343E-2	4.463076E-3	1.087080E-3	-7.668172E-3	-7.077260E-3	-3.436156E-3	1.614167E-3	8.479122E-3	-5.501565E-3	2.538671E-3	-1.690846E-2	3.919915E-4	-3.940069E-3	5.115307E-3	-1.668465E-2
2.810050E+2	5.169682E-3	-8.683650E-4	9.348002E-4	-8.318452E-3	5.971208E-3	1.824164E-3	-3.398876E-3	2.175025E-4	1.359422E-2	-6.267591E-3	8.528346E-3	3.146958E-3	1.911662E-4	-2.449414E-3	2.191016E-4	-2.341013E-3	-7.905700E-3	1.504925E-2	3.572456E-3	-7.544690E-3	5.142203E-3	-2.999953E-3	-8.356012E-3	8.596253E-3	-4.112278E-5	-6.274993E-3	-3.338808E-3	-1.504674E-3	6.559744E-3	1.836222E-3	-9.105449E-3	-1.980013E-3	-2.803279E-3	6.321523E-3	-1.311599E-3	6.925031E-3	7.482124E-3	1.474308E-3	8.452119E-3	3.830683E-3	5.546748E-3	3.594917E-3	5.805161E-3	-3.340451E-3	-7.228733E-3	1.002847E-2	-4.247362E-3	3.902480E-3	4.797524E-4	7.314401E-3	6.310005E-3	-2.888882E-3	-5.330187E-3	-2.065319E-3	-1.110634E-3	-4.939062E-3	-4.426004E-4	6.101057E-4	-2.223396E-3	-4.298653E-3	-4.583402E-3	5.625550E-3	-1.002946E-3	8.489837E-3	-1.128973E-2	-1.986978E-3	4.224235E-3	-4.981860E-4	7.042318E-3	-2.221750E-3	-4.048568E-3	-2.156614E-3	1.489638E-3	-3.744351E-3	5.664182E-4	-3.168827E-3	9.812296E-3	1.194306E-2	1.369502E-3	5.667425E-3	-7.822937E-3	5.001023E-5	-8.906415E-3	-5.606524E-3	1.223361E-3	4.198132E-3	3.248561E-3	-2.212824E-3	-6.596684E-3	1.662854E-3	1.229061E-2	1.159974E-3	-6.413375E-3	5.896901E-3	1.543194E-3	-2.877833E-3	-4.036409E-3	1.960691E-4	1.103970E-3	3.327604E-3	-5.062888E-3	-2.597386E-3	5.318105E-3	-7.394643E-3	-6.918087E-3	-8.069086E-3	-7.418999E-3	5.434496E-3	5.634381E-3	7.268186E-3	-6.443985E-3	-2.389288E-4	-2.062108E-3	-1.096383E-2	-3.770891E-3	-1.539025E-3	4.525969E-3	-3.465231E-3	-5.171668E-3	4.148186E-3	-3.533269E-3	-3.480493E-3	1.368858E-3	-1.500597E-4	7.935537E-3	-8.063520E-3	6.479180E-3	-8.460413E-4	1.900207E-3	-2.515077E-5	-5.273859E-3	-4.138582E-3	-6.344690E-3	9.299393E-3	-4.321034E-3	6.492240E-3	-4.079366E-3	-1.453872E-3	-1.527319E-3	-6.921456E-3	2.586523E-3	5.171224E-3	9.158745E-3	-2.816737E-3	6.157161E-4	-3.505130E-3	-8.311597E-3	4.651760E-3	9.907381E-3	-5.237605E-3	-5.496160E-3	1.037507E-2	6.639058E-3	2.129591E-3	3.269526E-3	6.060612E-3	3.476620E-3	-2.363974E-3	-3.031961E-3	5.670485E-3	-6.729188E-3	1.181210E-3	5.839760E-3	-2.820696E-3	4.984366E-3	1.441894E-3	-2.678022E-3	9.238904E-3	1.358671E-3	-4.190473E-3	2.030003E-2	7.144045E-3
2.815020E+2	-2.703930E-3	2.071253E-3	9.287675E-3	3.350229E-3	1.878335E-3	5.413039E-3	6.985993E-3	-7.127504E-3	-3.570294E-3	-2.170526E-3	2.112740E-4	-2.018197E-3	-1.173716E-3	5.290612E-3	-4.049718E-3	4.829714E-3	4.836284E-3	-1.881307E-3	-7.008440E-4	7.699813E-3	-1.489577E-4	2.363393E-3	3.008292E-3	8.002313E-3	-8.048963E-4	-1.458938E-3	-3.740289E-4	1.052118E-3	1.026201E-3	1.937906E-3	-7.055306E-4	-6.967198E-3	7.061617E-4	-5.228178E-3	-7.910193E-3	-9.703904E-3	7.725571E-4	6.446708E-3	-6.843920E-3	2.522910E-3	-7.782909E-3	-7.159354E-3	-1.097467E-2	-8.574922E-4	-4.974088E-3	-1.578903E-3	4.104387E-3	-2.412624E-4	6.443889E-3	-1.002723E-2	-1.869455E-3	-8.729553E-3	-4.430053E-3	1.238174E-2	-2.530325E-3	6.641990E-3	-3.651008E-3	1.523622E-3	4.993939E-3	3.595263E-3	5.933459E-3	-3.881669E-3	8.176020E-3	-4.774389E-3	3.149957E-3	3.412598E-3	1.701363E-3	-2.630865E-3	7.225519E-4	-7.092603E-4	-7.700846E-3	8.488550E-3	7.646566E-4	2.829250E-3	3.826323E-3	-1.505073E-3	7.846466E-4	-3.323310E-3	4.948292E-3	3.824554E-3	1.085745E-2	3.443904E-3	-8.834661E-3	7.608759E-4	4.602660E-3	2.737043E-3	4.127767E-3	7.964797E-4	-4.620264E-3	-6.425617E-3	-4.611700E-3	-4.750711E-3	-4.012019E-3	5.284582E-3	3.929888E-3	1.882905E-3	-4.786787E-3	3.361283E-3	1.203041E-3	-1.268625E-2	9.102613E-3	6.629173E-3	-3.481812E-3	5.708776E-3	6.366063E-3	-2.321513E-3	-4.151100E-3	8.555420E-3	5.377680E-4	-6.440142E-3	3.547329E-3	-8.159802E-3	4.929471E-4	2.716752E-4	2.258836E-3	1.752003E-3	7.117667E-3	3.686306E-3	-1.797318E-4	-2.108164E-4	1.536847E-3	4.206770E-3	-4.856609E-3	-2.499608E-3	4.784516E-3	7.493045E-3	-6.304296E-3	-5.945433E-3	6.354985E-5	1.727101E-3	-3.077644E-4	-5.672263E-3	8.223939E-3	3.577469E-3	4.562283E-3	5.460559E-5	-1.253805E-3	-2.307329E-3	2.670129E-4	1.779075E-2	-3.005276E-4	2.915124E-3	1.247681E-3	4.265647E-3	-4.940987E-3	6.463488E-3	1.724731E-3	-3.896957E-3	-4.198732E-3	1.694540E-2	-3.747323E-3	-6.241469E-3	3.158672E-4	8.196564E-3	-1.281987E-3	-1.167388E-2	2.795481E-3	-2.263297E-3	7.923729E-3	-5.051767E-3	5.992164E-3	-2.534286E-3	-4.300183E-3	-1.038229E-2	-2.031811E-2	3.159052E-3	-9.280829E-4	6.374497E-3	-7.812042E-3	-2.603639E-3	-1.245908E-2	5.985132E-3
2.820060E+2	5.333132E-3	4.941892E-3	-3.083402E-3	-8.228521E-3	-1.100646E-2	-5.974063E-3	3.062186E-3	1.167180E-3	1.312687E-2	-4.606159E-3	2.548355E-3	-2.870802E-3	8.532925E-3	-3.031791E-3	-4.004437E-3	-2.218554E-3	-5.266320E-3	2.791725E-3	-5.785081E-3	2.946852E-3	6.944449E-3	9.084837E-3	7.916772E-4	-1.995041E-3	-5.797845E-3	-6.174952E-3	9.017367E-3	-8.807014E-3	1.092017E-3	7.710661E-3	2.806811E-3	-1.820152E-3	-1.065442E-4	-3.734714E-3	2.533690E-3	-8.939892E-3	3.878957E-3	-2.572195E-3	-1.661742E-3	-7.343597E-3	1.500562E-3	-8.681431E-3	2.881144E-3	-6.431937E-3	1.472381E-4	5.363792E-3	-6.578744E-4	-2.323909E-3	1.067627E-2	5.879493E-3	4.949899E-3	-5.310374E-3	1.296979E-3	5.631666E-3	-9.331909E-3	-8.648170E-3	-6.920138E-3	-6.699004E-3	5.677822E-4	7.970476E-3	1.320776E-2	-3.149289E-3	6.511650E-4	-2.041575E-3	1.085473E-2	7.253663E-3	-3.522784E-3	3.897898E-4	-2.458911E-3	5.002856E-3	3.551493E-3	-2.773994E-3	3.278979E-3	-4.441947E-3	-6.431276E-3	9.025114E-4	3.126400E-3	-1.061780E-2	-1.250955E-3	-4.665933E-3	-6.027961E-3	-2.302394E-3	-5.007188E-3	-7.760510E-4	-6.854320E-3	4.275035E-4	3.406307E-3	-2.802729E-3	-6.490667E-3	1.806611E-3	2.588651E-3	7.289298E-3	-1.130061E-4	4.608708E-3	1.684505E-3	3.941092E-3	7.689051E-3	-5.045051E-3	-4.006407E-3	8.097811E-3	6.797273E-3	2.101354E-3	-5.066366E-3	3.596198E-3	2.625849E-3	2.581939E-3	-6.511370E-3	4.090094E-3	2.078520E-3	1.618282E-3	7.768662E-4	6.645344E-3	1.101489E-2	7.498686E-3	3.999723E-3	-2.193414E-3	-1.919133E-3	6.875700E-3	-2.621222E-3	-2.407592E-3	-1.768122E-3	6.121336E-3	-2.079567E-3	-7.760082E-4	-1.397323E-2	-2.240928E-3	3.414826E-3	3.312970E-3	4.912773E-3	1.175298E-4	7.594390E-3	8.882506E-3	-6.153414E-3	4.466116E-3	1.105094E-2	1.086526E-4	-5.797836E-3	-2.268885E-3	1.166288E-3	2.349290E-4	1.224682E-3	2.944228E-3	-3.830977E-3	-5.409288E-3	-2.473639E-3	-2.475697E-3	-1.234210E-2	2.452861E-3	-1.768953E-4	-1.675756E-3	3.931984E-4	1.885996E-3	3.501366E-4	-1.121591E-3	-6.842450E-3	-3.605563E-3	4.513981E-3	7.783825E-3	1.971542E-5	-9.073991E-3	-1.145089E-2	1.414952E-3	2.873187E-3	-1.147586E-3	-1.096785E-2	3.212617E-3	4.930942E-3	4.933700E-3	-3.135311E-3	2.067087E-2	-6.618948E-3	-9.572306E-4
2.825060E+2	2.740426E-3	-4.225019E-3	3.876979E-3	6.708627E-3	-2.709020E-4	1.409089E-3	-1.367452E-3	4.021034E-3	-8.808135E-3	-1.770277E-4	-3.269499E-3	-1.733098E-3	-2.308402E-3	8.516119E-3	-5.571712E-3	-4.052157E-3	2.685947E-3	3.124025E-3	4.080173E-4	-1.597392E-2	7.330304E-3	1.898365E-3	-8.696534E-3	-4.535825E-3	6.443243E-3	1.086080E-2	-1.446396E-3	2.261300E-3	2.165857E-3	-3.444189E-3	3.196526E-3	-8.171429E-4	-2.329028E-3	8.334768E-3	6.423277E-4	9.724046E-3	-4.094016E-3	1.960620E-3	-2.779571E-3	1.291491E-2	-1.337707E-2	2.587235E-3	1.177116E-2	6.757020E-3	-3.161122E-3	-4.003505E-3	7.362248E-3	-1.242406E-3	-1.335212E-2	-3.326204E-3	-3.811383E-3	9.517744E-3	2.552637E-3	-2.347756E-3	7.049592E-3	-2.942079E-3	1.087355E-2	-6.016253E-4	-8.589774E-4	-2.899224E-3	-3.320731E-3	4.808736E-3	-1.278758E-3	-4.389338E-3	1.637697E-3	3.815362E-3	1.536475E-2	2.253742E-3	-1.286991E-3	6.838208E-3	-1.357142E-3	2.121012E-3	6.995375E-3	-7.415458E-3	-4.557127E-3	8.409731E-3	4.305105E-3	-3.690146E-3	-6.512822E-3	-3.673800E-3	9.633212E-3	4.684330E-3	5.242040E-3	2.724233E-3	2.545681E-3	2.369915E-3	6.125390E-3	1.940109E-3	1.296500E-2	3.013018E-3	-4.269218E-3	-3.577907E-3	-1.295587E-3	-3.089440E-3	2.039836E-3	-1.713490E-3	5.571025E-3	-3.962111E-3	7.365869E-4	-1.545915E-3	-5.447566E-3	1.536390E-4	1.161232E-2	-8.396000E-3	-3.651465E-3	3.783375E-3	-1.397664E-3	-2.362547E-3	3.969135E-3	1.301956E-2	1.187666E-3	-3.757563E-3	5.800895E-3	-9.518574E-4	1.725030E-2	3.789960E-3	-6.548875E-3	-5.390658E-3	-2.272502E-3	2.439141E-3	1.714190E-4	-2.800652E-3	-2.691826E-3	-2.128666E-3	4.076848E-3	1.230178E-2	-1.168172E-2	1.720953E-3	8.252650E-3	6.325718E-3	1.984979E-3	-1.298844E-3	2.733015E-3	6.566856E-3	-8.640467E-3	-6.158064E-3	-8.747427E-4	4.637513E-3	-1.121045E-3	-5.675738E-3	-8.883507E-3	7.322769E-3	-3.483979E-3	1.941148E-3	1.100789E-2	3.254580E-3	9.646431E-3	1.959698E-3	-6.310149E-4	8.094849E-3	5.685020E-3	7.370790E-3	-2.993934E-3	-1.620683E-3	4.761307E-3	3.962144E-3	1.167569E-2	2.770169E-4	-7.651560E-3	-5.345452E-3	1.233547E-2	-5.269872E-3	-1.565076E-3	9.235247E-3	-4.533346E-4	3.829069E-4	-2.231629E-3	-7.156888E-4	6.589124E-3	-8.055124E-3	-6.350177E-3	1.000015E-2
2.830040E+2	2.118859E-3	5.718067E-3	-1.719788E-3	9.089484E-3	5.357913E-3	1.594454E-2	5.399974E-3	7.738255E-3	-1.189625E-4	5.141228E-3	5.603277E-3	8.283039E-3	-1.250427E-3	2.516874E-3	1.506572E-2	6.323524E-3	1.074555E-2	3.457579E-3	8.167712E-3	5.322568E-3	-3.303543E-3	6.042352E-3	1.606982E-2	-6.411018E-3	5.070430E-3	1.867082E-5	6.188639E-3	3.446922E-3	1.186431E-2	7.056049E-3	1.133673E-2	1.769961E-2	4.957980E-3	1.301333E-3	1.080482E-2	5.706438E-3	3.947826E-3	5.130155E-3	4.287524E-3	1.118825E-2	4.788877E-3	1.086403E-2	7.513913E-3	1.526455E-2	6.003669E-3	8.924228E-3	1.060501E-2	1.213456E-2	1.758312E-2	1.958052E-2	5.659467E-3	1.423319E-2	1.455956E-2	-5.094239E-3	1.132377E-2	1.063879E-2	1.719079E-2	3.904701E-3	1.482531E-2	1.401524E-2	1.082615E-3	3.090167E-3	1.137613E-2	1.367650E-2	2.041692E-3	4.168979E-3	6.879943E-4	1.169816E-2	8.179798E-3	1.084542E-2	7.321210E-3	5.541812E-3	7.476671E-3	1.348012E-2	1.102047E-2	1.361607E-2	4.737801E-3	1.079931E-2	1.002739E-2	4.678566E-3	6.617257E-3	2.533044E-3	8.690975E-3	2.261732E-3	7.104493E-3	2.729564E-3	2.619274E-3	5.259227E-3	2.405640E-2	5.086559E-5	4.225838E-3	2.797074E-3	9.252573E-3	1.427699E-2	1.480124E-2	9.466963E-3	-8.156043E-4	3.370112E-3	1.352855E-2	1.285818E-2	1.552837E-2	1.210103E-2	5.459472E-3	7.354049E-3	1.296745E-2	7.454547E-3	2.083314E-2	1.781685E-3	1.117788E-2	-2.088537E-3	1.088589E-2	1.090615E-2	-2.857917E-3	1.641050E-2	5.676986E-3	1.147615E-2	9.719058E-3	6.076370E-3	8.878153E-3	2.790518E-3	2.927330E-3	5.994855E-3	5.899130E-3	-1.681215E-4	-4.746996E-4	1.271614E-3	1.730755E-2	1.545501E-2	8.129025E-4	8.398896E-3	7.267680E-3	8.834581E-3	9.139543E-3	-5.790566E-3	-6.709254E-3	3.829678E-3	2.563675E-2	1.167795E-2	1.312612E-2	2.664992E-3	1.328607E-2	1.415725E-2	5.028045E-3	1.625222E-3	4.070915E-3	2.098410E-2	1.256402E-2	6.647061E-4	5.302556E-3	4.220119E-3	1.770901E-2	7.015055E-3	8.550307E-3	5.643559E-3	1.274698E-2	8.908897E-3	-2.317930E-3	8.604144E-3	5.162924E-3	8.804380E-3	1.288088E-2	1.473662E-2	4.442053E-3	7.299423E-3	1.883814E-2	8.084396E-3	2.299816E-3	3.887977E-4	1.291144E-2	-4.811809E-3	1.561160E-2	1.044335E-2
2.835020E+2	2.273202E-2	2.038403E-2	1.527235E-2	1.915198E-2	1.528967E-2	6.149459E-3	2.353953E-2	4.550402E-2	1.783063E-2	3.404297E-2	1.838747E-2	2.264774E-2	2.104819E-2	1.773803E-2	2.197572E-2	2.628066E-2	1.867911E-2	1.880091E-2	7.581985E-3	1.367208E-2	2.377203E-2	1.546058E-2	2.188838E-2	2.030398E-2	2.518935E-2	2.699293E-2	1.602546E-2	1.793402E-2	2.166922E-2	3.617335E-2	1.525090E-2	2.218017E-2	3.337046E-2	1.566756E-2	1.331438E-2	6.634168E-3	1.743225E-2	1.319977E-2	1.207277E-2	2.389115E-2	3.873061E-2	2.318435E-2	2.515219E-2	2.790438E-2	1.515880E-2	3.560513E-2	1.311689E-2	1.617977E-2	2.571571E-2	1.826779E-2	2.131729E-2	2.231699E-2	1.398243E-2	2.381836E-2	1.866327E-2	1.803212E-2	8.020917E-3	2.438495E-2	1.779262E-2	2.321476E-2	2.604296E-2	1.320669E-2	2.338622E-2	3.494721E-2	1.880067E-2	2.544908E-2	3.600761E-2	1.966337E-2	1.838089E-2	1.993513E-2	2.450544E-2	2.598380E-2	1.356897E-2	3.384757E-2	1.526607E-2	2.364533E-2	1.836045E-2	8.769399E-3	2.037900E-2	1.785601E-2	1.985295E-2	3.331652E-2	2.533962E-2	3.075153E-2	1.406698E-2	2.145790E-2	1.622166E-2	2.277293E-2	1.066421E-2	2.379668E-2	1.346022E-2	1.688561E-2	1.027899E-2	1.987125E-2	2.612825E-2	1.735337E-2	3.175056E-2	2.332675E-2	7.384998E-3	2.108498E-2	1.502773E-2	1.230564E-2	2.486064E-2	1.359255E-2	2.485573E-2	1.679983E-2	4.099788E-2	1.117247E-2	2.304801E-2	1.981032E-2	1.484446E-2	2.027835E-2	2.554038E-2	1.831761E-2	1.718778E-2	1.582381E-2	9.067765E-3	3.545217E-2	2.003992E-2	1.289385E-2	1.617641E-2	1.551900E-2	2.835318E-2	2.354808E-2	2.610980E-2	1.019279E-2	2.336097E-2	2.001322E-2	7.742611E-3	2.915598E-2	2.034408E-2	2.809724E-2	1.979375E-2	2.524906E-2	3.975442E-3	2.370395E-2	2.516076E-2	1.059635E-2	2.196058E-2	2.795773E-2	1.825908E-2	7.039814E-3	1.351712E-2	1.117115E-2	8.363770E-3	1.832459E-2	1.613026E-2	2.498613E-2	2.103388E-2	2.349790E-2	7.827355E-3	2.383407E-2	2.007809E-2	2.153086E-2	1.382113E-2	1.821881E-2	2.346811E-2	1.923323E-2	1.058487E-2	1.614604E-2	2.707678E-2	2.705882E-2	1.842368E-2	1.852862E-2	2.442632E-2	5.762545E-3	2.900160E-2	3.077847E-2	2.124590E-2	2.597525E-2	3.678667E-2	1.873976E-2
2.840000E+2	5.610999E-2	4.729695E-2	5.754369E-2	3.083822E-2	4.702350E-2	3.672484E-2	3.004873E-2	4.399199E-2	6.115232E-2	5.164688E-2	4.318272E-2	5.150508E-2	4.655572E-2	5.456259E-2	5.774572E-2	5.245935E-2	5.264721E-2	4.470921E-2	4.804074E-2	3.756364E-2	5.497380E-2	7.145741E-2	3.681939E-2	4.594359E-2	6.932608E-2	5.266580E-2	4.310305E-2	4.007978E-2	4.090423E-2	4.387408E-2	5.320263E-2	5.196076E-2	5.126566E-2	4.847319E-2	4.671541E-2	4.933889E-2	5.329248E-2	4.531535E-2	2.960764E-2	4.695445E-2	4.748535E-2	3.613527E-2	4.362110E-2	5.556345E-2	4.553631E-2	4.525573E-2	4.790052E-2	4.083422E-2	4.140595E-2	4.977953E-2	4.011590E-2	4.786585E-2	4.278573E-2	4.603344E-2	5.053327E-2	4.124037E-2	5.534991E-2	5.541775E-2	4.162896E-2	5.002655E-2	6.658837E-2	3.841897E-2	5.043535E-2	5.155921E-2	5.562074E-2	5.253817E-2	3.398893E-2	4.068297E-2	4.532392E-2	5.951196E-2	5.358856E-2	5.697272E-2	5.763956E-2	4.231661E-2	5.330866E-2	5.422588E-2	5.046536E-2	3.627451E-2	4.451727E-2	4.981690E-2	4.445932E-2	3.839478E-2	5.565863E-2	3.724820E-2	3.876065E-2	5.269146E-2	4.513281E-2	5.735738E-2	3.898399E-2	2.611201E-2	4.781441E-2	4.980170E-2	3.185959E-2	5.669865E-2	7.521016E-2	4.050629E-2	5.611281E-2	5.072476E-2	4.729272E-2	3.792541E-2	4.693989E-2	3.278837E-2	6.149468E-2	5.928494E-2	4.932712E-2	4.551862E-2	4.526583E-2	4.098791E-2	3.553476E-2	5.121123E-2	4.002517E-2	4.151866E-2	6.555582E-2	5.757989E-2	4.904451E-2	4.666351E-2	4.694976E-2	5.871469E-2	4.739504E-2	6.140477E-2	5.617203E-2	4.505053E-2	5.953559E-2	4.923081E-2	4.542275E-2	5.544893E-2	4.869247E-2	4.712021E-2	4.152819E-2	5.799260E-2	4.959739E-2	5.854937E-2	5.711986E-2	2.937401E-2	5.000781E-2	5.382514E-2	4.611354E-2	5.517432E-2	6.303149E-2	6.285657E-2	4.470244E-2	5.346743E-2	7.047683E-2	3.965712E-2	3.871455E-2	5.312477E-2	4.712308E-2	5.205295E-2	5.496012E-2	4.056298E-2	4.500124E-2	3.992757E-2	6.437084E-2	5.276595E-2	5.254577E-2	3.663434E-2	4.521565E-2	4.173371E-2	4.701136E-2	6.136630E-2	5.533721E-2	2.851549E-2	6.329580E-2	6.358937E-2	5.627804E-2	5.518268E-2	4.804273E-2	5.936126E-2	5.336393E-2	4.584585E-2	6.511388E-2	3.116365E-2
2.841030E+2	5.368872E-2	7.461679E-2	6.368072E-2	5.111295E-2	2.905769E-2	7.634742E-2	4.339993E-2	5.360081E-2	4.980191E-2	7.188557E-2	4.964868E-2	6.615366E-2	5.425517E-2	5.617918E-2	4.728534E-2	7.750025E-2	6.265487E-2	5.388592E-2	6.679287E-2	5.266697E-2	5.819430E-2	5.223066E-2	6.252205E-2	5.757585E-2	5.056528E-2	7.322630E-2	7.149585E-2	5.401180E-2	4.590494E-2	6.382100E-2	3.850776E-2	6.442853E-2	6.557812E-2	3.999496E-2	5.862392E-2	5.253654E-2	4.381285E-2	4.056652E-2	4.603106E-2	6.067494E-2	4.930588E-2	5.380550E-2	6.734828E-2	5.303493E-2	5.278541E-2	5.277466E-2	5.979034E-2	5.684253E-2	5.070793E-2	6.846254E-2	4.565771E-2	4.867981E-2	5.943117E-2	5.667633E-2	4.815128E-2	6.084788E-2	4.418217E-2	7.312084E-2	6.038577E-2	5.627777E-2	6.140305E-2	5.683962E-2	5.451076E-2	6.249319E-2	5.235772E-2	6.555473E-2	7.020464E-2	6.926733E-2	5.817987E-2	6.574164E-2	4.724856E-2	5.704828E-2	6.382193E-2	5.779208E-2	5.921869E-2	6.433952E-2	5.868119E-2	5.660269E-2	7.129916E-2	6.685541E-2	6.963693E-2	6.645676E-2	7.355438E-2	7.236989E-2	6.142270E-2	7.364246E-2	4.511099E-2	5.592810E-2	5.087938E-2	6.523721E-2	6.487637E-2	6.247944E-2	6.305696E-2	4.047064E-2	5.669418E-2	6.121829E-2	7.026570E-2	5.567034E-2	6.395011E-2	6.903287E-2	6.866857E-2	6.193122E-2	5.034125E-2	7.108438E-2	6.931953E-2	6.622948E-2	5.201588E-2	5.542334E-2	6.574368E-2	6.217881E-2	7.155714E-2	5.662635E-2	5.688733E-2	5.676515E-2	6.166113E-2	4.408462E-2	5.396460E-2	5.796082E-2	6.485039E-2	7.350242E-2	4.686860E-2	6.549973E-2	5.955801E-2	6.594074E-2	4.710268E-2	6.608025E-2	5.042183E-2	6.613636E-2	5.660662E-2	6.240963E-2	7.134133E-2	4.822223E-2	6.437161E-2	5.324077E-2	4.815659E-2	4.924411E-2	5.370667E-2	5.012943E-2	7.868029E-2	5.916902E-2	7.008804E-2	6.030350E-2	5.418594E-2	6.647983E-2	6.022449E-2	6.175481E-2	5.144782E-2	5.877283E-2	5.588034E-2	6.691339E-2	5.615517E-2	6.020458E-2	5.139670E-2	6.275656E-2	5.835941E-2	4.309751E-2	7.097973E-2	5.246128E-2	5.478698E-2	6.450022E-2	6.237665E-2	5.359162E-2	7.235358E-2	4.567261E-2	7.246277E-2	5.617840E-2	6.205615E-2	6.347385E-2	7.402907E-2	6.678252E-2	6.176105E-2	6.549717E-2
2.842030E+2	5.946380E-2	4.810626E-2	5.770982E-2	3.755424E-2	8.078999E-2	5.375010E-2	4.345196E-2	7.785153E-2	5.078735E-2	7.753231E-2	6.550955E-2	9.077857E-2	6.791461E-2	5.796805E-2	6.176717E-2	6.347080E-2	6.026088E-2	5.324347E-2	7.822399E-2	5.294151E-2	5.712592E-2	6.709333E-2	6.124322E-2	6.178462E-2	6.503436E-2	4.965394E-2	5.641365E-2	5.769511E-2	5.657990E-2	6.186579E-2	6.411874E-2	4.908897E-2	4.946757E-2	7.477818E-2	7.254856E-2	7.012461E-2	4.569530E-2	5.834150E-2	6.134813E-2	7.941737E-2	6.896603E-2	5.252413E-2	6.273259E-2	6.356426E-2	8.036664E-2	8.072816E-2	5.130157E-2	7.104240E-2	5.928562E-2	5.445365E-2	5.880251E-2	6.707972E-2	9.512302E-2	5.275685E-2	6.648935E-2	6.380650E-2	6.357210E-2	6.601267E-2	5.580706E-2	5.655753E-2	5.645424E-2	6.181171E-2	7.276380E-2	7.459792E-2	5.040988E-2	4.301368E-2	6.674051E-2	6.169505E-2	5.810824E-2	7.202900E-2	5.070291E-2	6.637471E-2	7.397625E-2	7.315235E-2	6.116070E-2	7.064526E-2	6.423972E-2	4.508791E-2	6.956817E-2	5.885749E-2	8.184443E-2	7.940982E-2	6.827487E-2	7.364653E-2	6.445650E-2	8.201624E-2	6.850621E-2	7.359443E-2	6.999924E-2	7.018616E-2	5.736514E-2	6.637533E-2	5.834309E-2	8.009294E-2	6.437734E-2	4.871613E-2	6.694474E-2	5.345946E-2	6.232115E-2	6.447740E-2	7.325897E-2	8.281410E-2	7.149773E-2	5.439660E-2	6.442471E-2	5.083453E-2	6.078222E-2	7.031968E-2	6.374351E-2	7.122054E-2	5.600441E-2	5.339566E-2	7.181880E-2	6.129797E-2	7.473330E-2	5.195027E-2	5.505280E-2	8.026439E-2	6.161357E-2	5.872741E-2	6.335349E-2	7.215158E-2	5.198038E-2	5.917914E-2	6.370252E-2	4.596617E-2	7.146559E-2	5.745410E-2	6.601387E-2	6.532420E-2	7.366718E-2	7.876779E-2	6.461282E-2	6.693985E-2	5.781690E-2	5.186832E-2	6.768373E-2	6.630196E-2	5.786494E-2	7.362160E-2	5.212212E-2	6.657991E-2	6.548841E-2	4.738127E-2	7.444713E-2	6.779343E-2	5.515716E-2	6.921759E-2	6.472287E-2	6.263635E-2	4.679820E-2	6.455993E-2	5.233563E-2	5.289012E-2	6.248980E-2	4.503204E-2	5.864910E-2	5.343963E-2	5.350206E-2	6.277480E-2	5.613836E-2	5.966701E-2	6.931120E-2	6.896873E-2	6.912345E-2	8.328444E-2	6.496629E-2	7.438704E-2	7.908541E-2	6.328352E-2	5.443161E-2	6.669091E-2
2.843040E+2	7.131925E-2	8.157181E-2	7.159699E-2	7.710589E-2	9.195472E-2	8.215999E-2	8.614484E-2	1.057029E-1	7.570801E-2	1.049024E-1	5.358935E-2	8.286908E-2	8.190801E-2	6.148830E-2	7.655261E-2	9.247292E-2	8.439742E-2	7.226651E-2	7.964117E-2	6.985195E-2	7.488371E-2	8.812486E-2	6.912247E-2	8.724176E-2	1.020431E-1	8.017128E-2	8.655019E-2	9.210339E-2	6.910965E-2	7.639267E-2	6.694406E-2	7.176246E-2	6.423274E-2	7.536865E-2	7.715324E-2	8.179794E-2	8.946059E-2	7.562668E-2	8.102626E-2	8.694523E-2	6.794130E-2	7.840555E-2	8.659524E-2	8.146146E-2	6.817628E-2	8.587689E-2	7.199162E-2	8.866403E-2	9.039880E-2	9.292784E-2	7.484336E-2	6.946009E-2	7.494066E-2	8.717454E-2	8.768279E-2	7.103072E-2	7.188909E-2	8.456581E-2	8.326704E-2	9.708362E-2	7.185592E-2	7.734177E-2	8.652189E-2	8.326455E-2	1.126136E-1	7.982695E-2	8.155693E-2	8.488819E-2	6.449142E-2	8.920260E-2	1.032152E-1	7.437689E-2	7.031228E-2	8.539855E-2	9.262500E-2	6.955475E-2	8.926466E-2	7.351624E-2	8.752791E-2	9.304562E-2	7.231186E-2	7.964601E-2	8.789628E-2	9.057617E-2	7.352350E-2	9.495934E-2	7.507654E-2	7.281672E-2	7.938205E-2	6.973779E-2	7.057945E-2	9.030615E-2	8.439994E-2	6.514320E-2	9.977677E-2	6.957651E-2	7.887955E-2	8.998613E-2	7.902337E-2	8.931665E-2	8.190286E-2	8.555284E-2	7.835821E-2	7.782612E-2	7.250612E-2	7.973064E-2	7.521078E-2	7.670100E-2	9.969910E-2	8.141440E-2	6.956351E-2	8.014815E-2	8.108610E-2	8.181293E-2	7.910598E-2	7.502948E-2	8.966150E-2	7.243250E-2	8.370999E-2	7.142451E-2	8.210472E-2	8.744439E-2	8.996079E-2	7.051834E-2	8.274274E-2	7.496351E-2	7.735395E-2	7.095090E-2	9.488077E-2	7.859174E-2	9.150036E-2	9.428808E-2	1.020139E-1	7.563269E-2	1.016831E-1	7.222961E-2	8.539606E-2	1.013243E-1	7.787767E-2	9.137485E-2	9.147372E-2	9.304148E-2	8.433006E-2	7.432686E-2	8.240332E-2	9.002144E-2	8.168892E-2	6.992597E-2	7.138939E-2	8.440491E-2	7.358176E-2	6.752577E-2	7.666772E-2	8.111921E-2	8.222344E-2	7.260517E-2	8.443036E-2	9.034521E-2	9.333552E-2	8.475996E-2	8.484972E-2	9.632425E-2	1.024000E-1	9.864383E-2	7.886659E-2	7.435264E-2	9.342955E-2	9.458052E-2	9.228138E-2	7.796308E-2	9.466121E-2	1.052522E-1
2.844030E+2	1.186870E-1	1.239094E-1	1.201206E-1	1.169319E-1	1.105353E-1	1.390928E-1	1.156073E-1	1.278533E-1	1.165996E-1	1.292322E-1	1.094256E-1	1.123234E-1	1.030333E-1	1.194089E-1	1.101630E-1	1.437162E-1	1.107706E-1	1.171704E-1	1.171830E-1	1.098263E-1	1.241541E-1	1.178600E-1	1.208404E-1	1.281206E-1	1.243199E-1	1.069127E-1	1.471018E-1	1.199368E-1	1.477708E-1	9.911602E-2	1.306198E-1	1.158282E-1	9.640378E-2	1.160009E-1	1.031040E-1	1.152968E-1	1.256701E-1	1.201566E-1	1.308620E-1	1.466167E-1	1.152190E-1	1.252378E-1	1.444881E-1	1.111133E-1	1.396061E-1	1.388857E-1	1.239596E-1	1.261352E-1	1.126684E-1	1.181314E-1	1.258060E-1	1.348976E-1	1.310415E-1	1.321885E-1	1.250957E-1	1.221053E-1	1.375540E-1	1.252613E-1	7.923627E-2	1.195603E-1	1.158814E-1	1.218859E-1	1.072344E-1	1.098407E-1	1.245668E-1	9.391033E-2	1.215528E-1	1.011961E-1	1.286307E-1	1.353033E-1	1.376924E-1	1.172189E-1	1.376721E-1	1.315938E-1	1.142648E-1	1.383213E-1	1.435852E-1	1.377389E-1	1.112022E-1	1.062227E-1	1.238559E-1	1.185284E-1	1.352591E-1	1.258355E-1	1.136290E-1	1.339623E-1	1.086188E-1	1.374907E-1	1.297658E-1	1.038451E-1	1.260778E-1	1.257949E-1	1.119236E-1	1.234468E-1	1.140424E-1	1.272926E-1	1.224667E-1	1.366209E-1	1.218267E-1	1.238788E-1	1.115097E-1	1.361043E-1	1.351592E-1	1.136887E-1	1.368132E-1	1.140146E-1	1.152644E-1	1.335937E-1	1.208766E-1	1.254625E-1	1.065936E-1	1.023705E-1	1.061025E-1	1.476263E-1	1.114945E-1	1.125643E-1	1.100559E-1	1.100594E-1	1.132153E-1	1.186418E-1	1.254395E-1	9.619873E-2	1.365157E-1	1.387863E-1	1.425179E-1	1.208319E-1	1.389876E-1	1.005124E-1	1.196835E-1	1.149627E-1	1.136808E-1	1.137148E-1	1.098563E-1	1.166223E-1	1.314944E-1	1.202027E-1	1.334290E-1	1.227680E-1	1.328964E-1	1.364838E-1	1.227307E-1	1.200228E-1	1.284375E-1	1.224245E-1	1.188856E-1	1.370975E-1	1.149344E-1	1.331896E-1	1.152627E-1	1.178428E-1	1.301730E-1	1.257249E-1	1.315888E-1	1.424746E-1	1.257808E-1	1.338040E-1	9.442986E-2	1.061363E-1	1.243993E-1	1.154298E-1	1.300057E-1	1.210546E-1	1.189014E-1	1.280561E-1	1.259262E-1	1.356586E-1	1.251657E-1	1.275562E-1	1.324585E-1	9.621934E-2	1.061251E-1	8.710921E-2
2.845030E+2	1.775345E-1	1.848809E-1	1.622074E-1	1.675419E-1	1.830291E-1	1.610089E-1	1.753922E-1	1.682130E-1	1.714876E-1	1.432754E-1	1.705107E-1	2.025663E-1	1.883522E-1	1.807274E-1	1.775685E-1	1.592795E-1	1.688440E-1	1.826238E-1	1.852832E-1	1.813049E-1	1.875284E-1	1.881973E-1	1.768610E-1	1.556132E-1	1.643787E-1	1.900505E-1	1.668606E-1	1.873627E-1	1.889849E-1	1.776673E-1	1.687422E-1	1.833195E-1	1.646132E-1	1.421865E-1	1.632216E-1	1.688009E-1	1.822138E-1	1.547644E-1	1.646799E-1	1.856035E-1	1.836412E-1	1.790200E-1	1.798275E-1	1.748886E-1	1.855560E-1	1.982937E-1	1.572417E-1	1.832563E-1	1.716987E-1	1.623359E-1	1.985331E-1	1.913025E-1	1.890116E-1	1.789791E-1	1.867823E-1	1.809495E-1	1.603329E-1	1.996908E-1	1.691388E-1	1.851497E-1	1.792682E-1	1.597443E-1	1.785307E-1	1.548392E-1	2.022390E-1	1.796438E-1	1.633514E-1	1.614753E-1	1.759875E-1	1.713806E-1	1.820415E-1	2.033828E-1	1.903615E-1	1.608055E-1	1.687191E-1	2.005806E-1	1.867700E-1	1.926678E-1	1.921741E-1	1.844830E-1	1.962569E-1	1.820169E-1	1.961595E-1	1.844443E-1	1.683095E-1	1.912926E-1	1.700116E-1	1.695924E-1	1.579295E-1	1.659748E-1	1.727885E-1	1.582991E-1	1.907162E-1	1.716008E-1	2.120635E-1	1.758560E-1	2.050874E-1	1.737511E-1	1.664419E-1	1.718837E-1	1.945729E-1	1.986420E-1	1.661353E-1	1.869893E-1	1.777505E-1	2.006006E-1	1.772376E-1	1.849082E-1	2.003625E-1	1.606598E-1	1.910576E-1	1.518070E-1	1.895427E-1	1.748888E-1	1.697851E-1	1.772816E-1	1.715482E-1	1.682498E-1	1.624383E-1	1.849388E-1	1.820438E-1	1.700917E-1	1.889583E-1	1.883160E-1	1.706560E-1	1.503526E-1	1.876952E-1	1.864883E-1	1.977131E-1	1.885479E-1	2.060925E-1	1.979036E-1	1.494081E-1	1.830974E-1	1.798819E-1	1.829130E-1	1.956993E-1	1.600870E-1	1.880031E-1	1.797857E-1	1.810676E-1	1.946175E-1	2.025380E-1	1.985332E-1	2.025731E-1	1.909019E-1	1.582280E-1	1.887066E-1	1.644424E-1	1.713554E-1	1.950794E-1	1.706007E-1	1.858277E-1	1.922535E-1	2.041288E-1	1.658354E-1	1.771500E-1	1.753382E-1	2.016976E-1	1.573241E-1	2.195738E-1	1.848739E-1	1.706980E-1	1.598492E-1	1.897601E-1	1.627749E-1	1.676491E-1	1.819194E-1	2.116859E-1	1.642060E-1	1.562539E-1	2.038648E-1
2.846030E+2	2.713119E-1	2.450510E-1	2.834046E-1	2.955329E-1	2.870143E-1	2.915414E-1	2.969794E-1	2.665998E-1	3.054633E-1	2.683146E-1	2.539909E-1	2.951483E-1	2.530030E-1	2.872955E-1	2.620615E-1	2.563110E-1	2.611917E-1	2.604812E-1	2.772907E-1	2.762857E-1	2.615561E-1	2.597971E-1	2.498264E-1	2.768670E-1	2.694877E-1	2.746475E-1	2.628608E-1	2.724820E-1	2.747339E-1	2.615762E-1	2.615053E-1	2.512563E-1	2.460202E-1	2.515991E-1	2.582852E-1	2.871777E-1	2.692410E-1	2.555637E-1	2.587415E-1	2.607122E-1	2.655464E-1	2.908953E-1	2.534189E-1	3.037568E-1	2.655530E-1	2.541366E-1	2.698677E-1	2.958755E-1	2.761088E-1	3.141850E-1	2.817307E-1	2.563612E-1	2.701384E-1	2.985459E-1	2.732003E-1	2.740759E-1	2.670081E-1	2.764029E-1	2.666257E-1	2.383394E-1	2.649401E-1	2.886863E-1	2.788120E-1	2.439641E-1	2.884421E-1	2.812132E-1	2.866238E-1	2.724576E-1	2.726573E-1	2.786065E-1	2.595992E-1	2.742522E-1	2.913317E-1	2.566563E-1	2.760417E-1	2.805590E-1	2.899190E-1	2.526698E-1	2.783514E-1	2.691599E-1	2.557875E-1	2.715729E-1	3.002870E-1	2.590115E-1	2.609607E-1	2.733805E-1	2.854053E-1	2.364479E-1	2.648270E-1	2.695700E-1	2.790396E-1	3.094635E-1	2.652447E-1	2.701682E-1	2.744145E-1	3.164325E-1	2.771450E-1	3.022113E-1	2.497743E-1	2.617727E-1	2.592847E-1	2.614199E-1	2.788176E-1	2.751738E-1	2.908123E-1	2.579470E-1	2.740105E-1	2.873205E-1	2.732017E-1	2.832356E-1	2.695004E-1	2.669998E-1	2.666766E-1	2.754909E-1	2.818375E-1	2.785470E-1	2.778383E-1	2.860251E-1	2.670359E-1	2.660107E-1	2.801356E-1	2.960968E-1	2.903444E-1	2.977021E-1	3.050401E-1	2.978064E-1	2.783311E-1	2.375448E-1	2.762770E-1	2.948611E-1	2.893987E-1	2.377536E-1	2.744587E-1	2.712095E-1	2.867029E-1	2.635129E-1	2.678692E-1	3.315990E-1	2.548539E-1	2.794828E-1	2.783350E-1	2.743816E-1	2.908528E-1	2.543562E-1	2.986064E-1	2.766418E-1	2.638757E-1	2.636815E-1	2.300867E-1	2.909464E-1	2.804205E-1	2.825045E-1	2.974999E-1	2.897993E-1	2.552561E-1	2.899654E-1	2.844600E-1	2.858853E-1	2.908895E-1	2.719582E-1	2.724479E-1	2.704943E-1	3.087633E-1	2.666229E-1	2.684748E-1	2.722059E-1	2.759496E-1	2.928704E-1	3.058510E-1	3.127415E-1	2.625339E-1	2.950013E-1
2.847020E+2	5.077286E-1	4.929308E-1	4.613818E-1	4.794173E-1	4.426345E-1	5.243434E-1	4.888416E-1	5.176326E-1	4.683102E-1	4.869655E-1	4.857772E-1	4.667387E-1	4.790392E-1	4.565270E-1	4.674885E-1	4.734097E-1	4.625699E-1	4.762162E-1	5.362125E-1	5.018384E-1	4.777058E-1	4.977905E-1	5.168435E-1	4.887556E-1	4.933662E-1	4.950220E-1	4.480219E-1	4.650711E-1	5.312260E-1	5.081465E-1	4.755530E-1	4.491810E-1	5.071074E-1	4.734687E-1	5.122115E-1	4.959380E-1	4.767790E-1	4.614731E-1	4.846831E-1	5.357486E-1	4.742759E-1	5.115116E-1	4.927803E-1	4.742128E-1	5.041613E-1	4.745077E-1	4.900842E-1	4.817111E-1	4.897549E-1	5.233514E-1	4.908316E-1	4.686194E-1	4.536104E-1	4.856341E-1	4.841747E-1	5.048066E-1	5.045543E-1	4.486265E-1	4.947150E-1	4.361039E-1	5.150677E-1	4.352390E-1	4.730256E-1	4.910410E-1	5.100915E-1	5.041011E-1	5.128476E-1	4.429589E-1	5.219763E-1	4.814132E-1	4.714436E-1	4.679264E-1	4.976842E-1	5.338461E-1	5.061995E-1	4.739474E-1	4.890164E-1	4.933313E-1	4.753630E-1	5.034796E-1	4.904793E-1	4.651646E-1	4.700279E-1	4.810500E-1	4.811451E-1	4.651605E-1	4.800482E-1	5.123042E-1	4.974874E-1	4.839293E-1	5.054924E-1	4.970181E-1	4.844152E-1	4.985655E-1	5.193379E-1	5.072812E-1	5.023744E-1	5.075297E-1	4.754644E-1	4.523157E-1	4.735205E-1	4.810637E-1	5.103012E-1	4.855198E-1	5.175348E-1	5.057548E-1	4.911900E-1	4.925005E-1	4.966149E-1	4.957107E-1	5.083245E-1	4.921801E-1	4.920089E-1	4.870639E-1	4.673732E-1	5.136127E-1	4.942114E-1	5.181043E-1	5.117900E-1	4.750616E-1	4.913234E-1	4.647319E-1	5.231596E-1	4.804124E-1	4.862462E-1	4.950992E-1	4.896361E-1	4.963010E-1	5.316802E-1	5.324559E-1	5.061152E-1	4.637616E-1	4.891724E-1	5.211251E-1	4.830206E-1	4.650419E-1	4.359137E-1	4.899582E-1	4.965086E-1	4.888885E-1	4.884919E-1	5.215974E-1	4.603411E-1	4.747964E-1	5.162015E-1	5.462690E-1	4.872527E-1	5.090150E-1	4.558829E-1	4.958496E-1	4.682683E-1	4.857599E-1	4.894949E-1	5.101028E-1	5.209681E-1	5.042093E-1	5.005787E-1	4.746893E-1	4.851476E-1	4.907824E-1	4.744690E-1	4.937245E-1	5.267305E-1	5.248394E-1	4.443086E-1	4.768082E-1	5.179235E-1	4.696349E-1	5.296685E-1	4.895646E-1	5.282563E-1	6.057840E-1
2.848000E+2	9.512697E-1	9.292077E-1	9.749346E-1	1.011882E+0	9.121827E-1	9.776332E-1	9.561924E-1	9.447450E-1	9.707850E-1	9.435914E-1	9.556153E-1	9.617583E-1	9.495482E-1	9.460152E-1	9.824505E-1	9.547463E-1	1.012103E+0	9.637565E-1	9.996964E-1	9.791070E-1	9.484750E-1	1.005611E+0	9.187516E-1	9.514024E-1	9.375670E-1	9.124092E-1	9.462612E-1	9.648574E-1	9.739759E-1	9.637411E-1	9.111947E-1	9.467009E-1	9.909563E-1	9.716052E-1	9.430780E-1	9.357679E-1	9.281742E-1	9.527710E-1	9.239197E-1	9.808089E-1	9.614727E-1	9.314691E-1	1.000059E+0	9.838585E-1	1.049059E+0	9.405988E-1	9.534875E-1	1.023257E+0	9.648681E-1	1.020512E+0	9.166977E-1	9.676733E-1	9.514902E-1	1.000521E+0	9.518858E-1	1.006829E+0	9.708809E-1	9.608213E-1	8.922049E-1	1.001327E+0	9.964453E-1	9.677392E-1	9.724970E-1	9.818722E-1	1.037540E+0	9.713728E-1	9.783798E-1	9.210881E-1	9.840326E-1	1.017656E+0	9.342517E-1	9.575455E-1	9.537483E-1	9.501137E-1	9.480279E-1	9.637403E-1	9.920571E-1	9.621037E-1	9.588005E-1	9.681432E-1	9.610472E-1	9.872827E-1	9.808030E-1	9.345680E-1	9.720453E-1	1.013070E+0	1.006809E+0	1.006412E+0	9.359091E-1	9.690253E-1	1.008245E+0	1.032339E+0	1.001441E+0	9.769532E-1	9.688175E-1	9.738183E-1	9.733814E-1	9.729903E-1	9.841759E-1	9.741740E-1	9.905642E-1	9.878663E-1	1.011924E+0	9.782714E-1	9.979951E-1	1.023011E+0	9.412211E-1	9.455618E-1	1.018914E+0	9.715015E-1	9.477290E-1	9.333138E-1	9.787040E-1	9.318908E-1	1.000458E+0	9.872019E-1	9.541170E-1	1.012818E+0	9.846733E-1	9.715245E-1	9.943589E-1	9.717844E-1	9.742673E-1	9.544191E-1	9.950055E-1	9.932159E-1	1.067220E+0	9.812077E-1	9.627935E-1	9.578279E-1	1.008794E+0	9.387722E-1	9.900173E-1	1.034891E+0	1.009176E+0	9.883905E-1	1.017951E+0	1.007517E+0	9.724704E-1	1.006361E+0	9.400617E-1	9.649751E-1	9.383268E-1	9.726552E-1	9.988764E-1	9.714434E-1	9.732278E-1	9.522895E-1	9.858022E-1	9.939481E-1	9.524269E-1	9.898969E-1	9.199486E-1	1.038592E+0	9.710444E-1	1.011111E+0	1.020872E+0	9.183641E-1	9.718986E-1	9.706752E-1	9.849880E-1	9.110392E-1	9.735167E-1	1.013261E+0	9.967867E-1	1.035559E+0	9.546028E-1	9.924798E-1	9.918934E-1	9.142566E-1	9.559433E-1	9.190965E-1
2.849020E+2	1.426671E+0	1.435645E+0	1.398213E+0	1.464406E+0	1.413104E+0	1.402428E+0	1.402045E+0	1.395085E+0	1.431140E+0	1.356897E+0	1.366512E+0	1.453048E+0	1.387102E+0	1.451399E+0	1.378273E+0	1.440970E+0	1.364958E+0	1.387505E+0	1.478682E+0	1.338491E+0	1.334186E+0	1.383992E+0	1.409216E+0	1.364331E+0	1.373820E+0	1.388656E+0	1.425448E+0	1.420069E+0	1.439578E+0	1.442761E+0	1.396317E+0	1.397527E+0	1.415188E+0	1.395582E+0	1.377940E+0	1.408769E+0	1.445218E+0	1.433959E+0	1.402532E+0	1.410555E+0	1.437990E+0	1.410703E+0	1.385093E+0	1.407553E+0	1.470684E+0	1.431310E+0	1.445177E+0	1.415655E+0	1.405010E+0	1.432236E+0	1.371907E+0	1.388632E+0	1.437779E+0	1.448611E+0	1.416427E+0	1.407064E+0	1.440365E+0	1.484396E+0	1.362599E+0	1.423293E+0	1.478538E+0	1.445169E+0	1.380868E+0	1.426928E+0	1.451630E+0	1.377789E+0	1.428268E+0	1.396194E+0	1.400335E+0	1.462782E+0	1.434770E+0	1.435724E+0	1.381016E+0	1.406077E+0	1.441007E+0	1.410708E+0	1.356531E+0	1.455435E+0	1.433865E+0	1.376304E+0	1.391712E+0	1.482975E+0	1.422466E+0	1.434747E+0	1.412194E+0	1.442163E+0	1.437890E+0	1.408509E+0	1.450118E+0	1.386220E+0	1.387581E+0	1.408470E+0	1.462730E+0	1.446553E+0	1.453208E+0	1.450928E+0	1.496905E+0	1.423938E+0	1.461207E+0	1.437416E+0	1.418834E+0	1.424635E+0	1.502910E+0	1.406589E+0	1.461285E+0	1.421495E+0	1.430520E+0	1.415570E+0	1.373810E+0	1.380283E+0	1.385318E+0	1.384098E+0	1.421969E+0	1.343136E+0	1.385883E+0	1.404905E+0	1.430384E+0	1.468293E+0	1.496988E+0	1.398273E+0	1.364354E+0	1.379162E+0	1.432780E+0	1.457926E+0	1.461387E+0	1.365880E+0	1.414205E+0	1.432341E+0	1.435427E+0	1.425897E+0	1.484965E+0	1.444656E+0	1.431061E+0	1.405540E+0	1.485209E+0	1.404523E+0	1.437995E+0	1.379451E+0	1.418778E+0	1.372305E+0	1.456463E+0	1.431011E+0	1.455951E+0	1.425882E+0	1.398195E+0	1.482481E+0	1.408113E+0	1.375198E+0	1.409667E+0	1.591176E+0	1.466220E+0	1.440221E+0	1.422584E+0	1.493336E+0	1.434180E+0	1.448318E+0	1.448248E+0	1.408367E+0	1.398558E+0	1.359880E+0	1.405961E+0	1.351223E+0	1.447611E+0	1.464354E+0	1.415217E+0	1.462771E+0	1.372994E+0	1.374141E+0	1.364174E+0	1.406380E+0	1.315752E+0	1.397630E+0
2.850010E+2	1.407278E+0	1.422638E+0	1.447782E+0	1.481186E+0	1.407777E+0	1.489062E+0	1.394545E+0	1.479516E+0	1.462884E+0	1.430256E+0	1.446456E+0	1.431751E+0	1.448627E+0	1.479681E+0	1.420694E+0	1.432190E+0	1.419563E+0	1.388161E+0	1.455947E+0	1.482883E+0	1.448041E+0	1.397777E+0	1.451042E+0	1.446410E+0	1.372608E+0	1.492799E+0	1.424359E+0	1.436295E+0	1.480674E+0	1.445866E+0	1.436994E+0	1.468836E+0	1.469035E+0	1.406078E+0	1.433578E+0	1.439666E+0	1.465661E+0	1.386225E+0	1.374855E+0	1.422279E+0	1.471322E+0	1.426868E+0	1.461348E+0	1.463633E+0	1.488143E+0	1.430280E+0	1.489228E+0	1.475037E+0	1.404794E+0	1.450503E+0	1.420988E+0	1.426533E+0	1.435129E+0	1.461069E+0	1.396585E+0	1.452521E+0	1.461634E+0	1.504489E+0	1.476739E+0	1.417937E+0	1.481965E+0	1.481915E+0	1.376105E+0	1.469167E+0	1.521575E+0	1.391270E+0	1.450827E+0	1.489846E+0	1.459262E+0	1.453662E+0	1.484066E+0	1.401492E+0	1.462494E+0	1.490393E+0	1.410619E+0	1.386735E+0	1.407867E+0	1.428340E+0	1.404192E+0	1.439046E+0	1.437745E+0	1.490973E+0	1.432906E+0	1.477992E+0	1.467048E+0	1.436953E+0	1.444168E+0	1.474312E+0	1.417465E+0	1.447682E+0	1.480186E+0	1.512049E+0	1.490325E+0	1.411372E+0	1.465870E+0	1.435535E+0	1.397891E+0	1.388564E+0	1.435838E+0	1.445281E+0	1.443720E+0	1.414634E+0	1.491403E+0	1.456551E+0	1.500464E+0	1.415679E+0	1.436249E+0	1.400653E+0	1.536017E+0	1.496665E+0	1.426875E+0	1.391841E+0	1.442022E+0	1.366162E+0	1.429108E+0	1.445323E+0	1.375791E+0	1.421742E+0	1.530813E+0	1.472983E+0	1.432762E+0	1.477370E+0	1.479752E+0	1.448098E+0	1.480698E+0	1.481482E+0	1.446169E+0	1.412427E+0	1.488004E+0	1.484081E+0	1.545803E+0	1.416665E+0	1.465538E+0	1.427214E+0	1.479359E+0	1.471061E+0	1.468390E+0	1.481963E+0	1.453931E+0	1.447799E+0	1.412861E+0	1.428993E+0	1.429948E+0	1.420197E+0	1.501126E+0	1.493109E+0	1.399017E+0	1.416288E+0	1.409206E+0	1.538684E+0	1.449889E+0	1.447941E+0	1.424905E+0	1.433686E+0	1.405197E+0	1.493727E+0	1.481819E+0	1.409438E+0	1.442311E+0	1.371020E+0	1.468436E+0	1.495703E+0	1.441121E+0	1.418891E+0	1.447565E+0	1.554566E+0	1.494787E+0	1.480748E+0	1.461281E+0	1.423793E+0	1.463468E+0	1.319508E+0
2.851060E+2	1.266479E+0	1.214357E+0	1.233534E+0	1.318274E+0	1.176704E+0	1.289921E+0	1.205991E+0	1.277199E+0	1.240439E+0	1.288528E+0	1.253294E+0	1.248476E+0	1.215447E+0	1.214282E+0	1.183535E+0	1.294531E+0	1.165362E+0	1.195877E+0	1.206160E+0	1.198759E+0	1.177443E+0	1.219021E+0	1.205440E+0	1.219695E+0	1.140275E+0	1.252394E+0	1.164403E+0	1.225894E+0	1.241114E+0	1.219091E+0	1.209025E+0	1.211150E+0	1.236748E+0	1.218094E+0	1.179535E+0	1.187438E+0	1.211293E+0	1.209206E+0	1.220130E+0	1.202347E+0	1.198427E+0	1.246490E+0	1.210894E+0	1.200404E+0	1.243226E+0	1.238969E+0	1.167923E+0	1.255958E+0	1.273024E+0	1.191461E+0	1.231353E+0	1.248588E+0	1.241523E+0	1.269934E+0	1.218566E+0	1.217743E+0	1.224569E+0	1.285771E+0	1.164396E+0	1.303879E+0	1.260162E+0	1.216442E+0	1.190462E+0	1.210290E+0	1.326759E+0	1.242846E+0	1.189907E+0	1.201511E+0	1.257948E+0	1.296189E+0	1.274689E+0	1.227531E+0	1.298994E+0	1.249616E+0	1.261394E+0	1.245301E+0	1.172869E+0	1.161829E+0	1.257502E+0	1.248276E+0	1.270989E+0	1.228084E+0	1.240928E+0	1.250168E+0	1.248854E+0	1.161715E+0	1.204794E+0	1.274519E+0	1.191764E+0	1.179791E+0	1.214443E+0	1.356703E+0	1.252687E+0	1.253007E+0	1.187796E+0	1.247273E+0	1.259806E+0	1.252430E+0	1.233937E+0	1.257703E+0	1.243098E+0	1.254249E+0	1.250235E+0	1.239763E+0	1.300996E+0	1.241045E+0	1.230533E+0	1.219087E+0	1.257781E+0	1.224510E+0	1.251692E+0	1.233245E+0	1.267583E+0	1.359368E+0	1.273506E+0	1.261061E+0	1.310463E+0	1.203329E+0	1.341004E+0	1.208611E+0	1.229637E+0	1.241176E+0	1.319781E+0	1.240075E+0	1.308411E+0	1.206886E+0	1.239988E+0	1.237186E+0	1.240973E+0	1.210840E+0	1.250489E+0	1.234466E+0	1.215534E+0	1.277961E+0	1.266259E+0	1.168850E+0	1.184524E+0	1.231790E+0	1.302932E+0	1.295810E+0	1.239776E+0	1.304015E+0	1.231661E+0	1.270702E+0	1.242425E+0	1.236562E+0	1.219207E+0	1.203564E+0	1.222654E+0	1.293617E+0	1.199932E+0	1.246409E+0	1.265015E+0	1.217563E+0	1.239507E+0	1.307928E+0	1.274896E+0	1.213689E+0	1.220210E+0	1.195883E+0	1.265238E+0	1.218451E+0	1.217098E+0	1.257466E+0	1.245303E+0	1.343194E+0	1.242960E+0	1.301892E+0	1.303818E+0	1.129472E+0	1.196973E+0	1.266093E+0
2.852010E+2	1.054112E+0	1.082583E+0	1.084776E+0	1.054141E+0	1.080076E+0	1.054528E+0	1.122675E+0	1.097084E+0	1.032707E+0	1.056454E+0	1.138244E+0	1.069141E+0	1.127862E+0	1.088255E+0	1.032367E+0	1.102477E+0	1.072211E+0	9.862540E-1	1.070297E+0	1.092638E+0	1.067540E+0	1.102307E+0	1.067102E+0	1.065810E+0	1.054709E+0	1.106516E+0	1.042493E+0	1.102897E+0	1.040738E+0	1.102693E+0	1.085972E+0	1.053589E+0	1.071885E+0	1.024829E+0	1.049477E+0	1.060624E+0	1.036782E+0	1.077085E+0	1.104463E+0	1.019038E+0	1.090880E+0	1.072769E+0	1.061869E+0	1.073396E+0	1.069979E+0	1.039652E+0	1.062056E+0	1.067843E+0	1.067256E+0	1.088358E+0	9.855356E-1	1.104276E+0	1.079562E+0	1.102143E+0	1.054873E+0	1.070518E+0	1.057544E+0	1.145590E+0	1.134334E+0	1.089759E+0	1.148725E+0	1.064603E+0	1.084146E+0	1.071623E+0	1.093214E+0	1.077456E+0	1.088452E+0	1.039519E+0	1.099514E+0	1.059625E+0	1.114537E+0	1.107889E+0	1.046835E+0	1.087862E+0	1.065649E+0	1.033776E+0	1.062136E+0	1.076468E+0	1.027289E+0	1.072429E+0	1.073800E+0	1.070809E+0	1.081581E+0	1.109593E+0	1.054792E+0	1.042352E+0	1.100172E+0	1.047271E+0	1.063009E+0	1.094965E+0	1.086032E+0	1.078980E+0	1.145545E+0	1.110011E+0	1.079605E+0	1.092980E+0	1.088515E+0	1.014505E+0	1.055122E+0	1.087900E+0	1.089047E+0	1.022806E+0	1.061529E+0	1.070030E+0	1.077431E+0	1.061490E+0	1.038604E+0	1.073802E+0	1.120565E+0	1.080662E+0	1.044259E+0	1.051095E+0	1.110964E+0	1.029438E+0	1.141134E+0	1.026184E+0	1.130197E+0	1.095498E+0	1.112042E+0	1.093683E+0	1.053801E+0	1.116141E+0	1.124452E+0	1.057112E+0	1.110656E+0	1.107328E+0	1.077570E+0	1.061134E+0	1.086178E+0	1.062664E+0	1.071112E+0	1.037309E+0	1.106857E+0	1.120080E+0	1.061801E+0	1.027933E+0	1.037544E+0	1.109893E+0	1.126108E+0	1.099371E+0	1.101112E+0	1.058821E+0	1.050950E+0	1.072467E+0	1.096649E+0	1.067725E+0	1.139503E+0	1.070953E+0	1.098375E+0	1.108356E+0	1.073753E+0	1.118164E+0	1.124400E+0	1.079874E+0	1.119873E+0	1.054023E+0	1.070716E+0	1.045906E+0	1.068734E+0	1.067113E+0	1.100867E+0	1.097366E+0	1.053733E+0	1.058231E+0	1.125133E+0	1.182713E+0	1.137091E+0	1.134667E+0	1.096880E+0	1.047195E+0	1.014509E+0	9.818896E-1
2.853000E+2	8.012720E-1	8.276258E-1	8.380282E-1	8.102758E-1	7.736169E-1	7.920912E-1	7.542861E-1	8.161619E-1	7.518215E-1	8.141684E-1	8.091070E-1	8.246645E-1	7.822342E-1	8.070976E-1	7.522988E-1	7.326559E-1	8.220559E-1	7.736121E-1	8.329996E-1	8.385817E-1	8.500177E-1	7.887486E-1	7.951390E-1	8.027750E-1	8.209168E-1	8.082685E-1	7.641958E-1	8.235961E-1	8.143722E-1	8.070359E-1	8.022538E-1	8.101095E-1	8.380529E-1	8.144301E-1	8.177232E-1	8.295962E-1	7.631872E-1	7.954611E-1	8.365176E-1	8.213582E-1	7.466918E-1	8.013676E-1	7.893490E-1	8.374396E-1	8.812471E-1	8.157409E-1	7.856474E-1	8.443389E-1	8.414042E-1	8.407548E-1	8.420869E-1	8.682036E-1	8.138978E-1	8.364672E-1	7.913276E-1	8.088017E-1	8.119351E-1	7.956027E-1	7.660931E-1	8.052652E-1	8.151126E-1	7.799192E-1	8.223082E-1	7.963946E-1	8.423989E-1	8.195866E-1	8.326587E-1	7.632125E-1	8.033262E-1	8.096910E-1	8.283516E-1	8.394007E-1	8.233921E-1	8.622201E-1	8.021374E-1	8.378627E-1	8.242111E-1	7.944735E-1	7.885151E-1	8.288016E-1	8.331606E-1	8.396699E-1	8.427766E-1	8.482282E-1	8.100945E-1	8.169554E-1	8.363953E-1	8.019349E-1	8.041451E-1	7.637037E-1	7.927472E-1	8.454400E-1	7.737497E-1	8.290517E-1	8.340367E-1	8.341971E-1	8.539494E-1	7.861855E-1	8.097762E-1	7.675537E-1	7.781823E-1	7.896846E-1	8.473414E-1	7.749316E-1	8.211804E-1	8.013938E-1	8.121341E-1	8.060501E-1	8.643466E-1	7.865291E-1	8.384073E-1	8.049168E-1	8.198844E-1	7.792450E-1	8.695216E-1	8.525613E-1	7.802604E-1	8.504501E-1	8.385583E-1	7.917728E-1	8.413191E-1	8.051175E-1	8.195032E-1	8.687457E-1	8.504592E-1	8.111531E-1	8.407361E-1	8.063877E-1	8.758458E-1	8.006849E-1	8.232175E-1	8.572215E-1	8.027639E-1	8.163900E-1	8.395396E-1	8.159582E-1	7.992119E-1	8.637318E-1	8.092003E-1	8.257905E-1	8.341880E-1	8.303807E-1	8.024262E-1	7.873540E-1	7.685823E-1	8.377538E-1	8.346077E-1	8.055161E-1	7.937732E-1	8.018172E-1	7.781605E-1	7.856028E-1	7.559362E-1	8.179025E-1	8.254082E-1	8.028579E-1	8.807186E-1	8.077601E-1	8.260849E-1	8.332802E-1	9.097039E-1	8.091256E-1	7.889556E-1	8.650376E-1	8.262223E-1	8.190696E-1	8.001989E-1	8.258663E-1	8.257553E-1	8.352804E-1	7.984535E-1	8.250551E-1
2.854020E+2	6.933394E-1	6.805435E-1	7.020584E-1	7.263958E-1	6.240142E-1	6.422845E-1	6.462900E-1	7.144615E-1	6.720960E-1	6.632720E-1	6.792405E-1	6.609676E-1	6.952892E-1	6.740182E-1	6.410972E-1	6.698062E-1	6.950453E-1	6.394672E-1	6.731231E-1	6.627991E-1	6.832578E-1	6.899720E-1	6.427620E-1	6.842056E-1	7.046192E-1	6.152375E-1	6.834279E-1	7.060478E-1	6.792681E-1	6.204536E-1	6.844322E-1	6.797573E-1	6.191852E-1	6.216933E-1	6.413780E-1	6.914418E-1	6.550697E-1	6.434038E-1	6.414936E-1	6.776325E-1	6.653138E-1	6.452649E-1	6.427482E-1	6.584122E-1	6.798347E-1	7.190100E-1	6.275019E-1	6.730080E-1	6.635817E-1	6.619319E-1	7.099747E-1	6.582795E-1	6.744723E-1	7.024697E-1	6.881347E-1	7.130956E-1	7.053056E-1	6.941415E-1	6.807906E-1	7.178636E-1	7.083288E-1	6.546933E-1	6.533711E-1	6.637671E-1	7.316021E-1	6.794234E-1	6.639292E-1	7.076632E-1	6.766773E-1	7.044225E-1	6.911957E-1	6.966335E-1	6.661431E-1	6.901431E-1	6.784019E-1	7.005717E-1	6.584408E-1	6.767414E-1	6.500611E-1	6.615735E-1	6.442033E-1	6.735021E-1	6.662980E-1	6.686047E-1	7.133481E-1	6.683222E-1	6.709570E-1	6.799125E-1	6.493270E-1	6.221708E-1	6.645530E-1	7.060637E-1	6.873635E-1	6.775311E-1	6.821381E-1	6.556095E-1	6.582613E-1	7.085301E-1	6.816582E-1	6.715538E-1	6.552287E-1	6.866943E-1	6.587102E-1	6.940029E-1	6.625665E-1	7.184788E-1	7.470136E-1	6.599059E-1	6.562808E-1	6.530576E-1	6.655938E-1	6.916300E-1	7.082967E-1	6.935005E-1	6.763359E-1	7.128895E-1	7.035206E-1	6.910834E-1	6.947792E-1	6.989558E-1	6.505873E-1	7.469121E-1	6.856824E-1	6.996929E-1	6.780827E-1	7.099920E-1	6.935383E-1	7.066676E-1	6.921417E-1	6.512168E-1	6.988673E-1	6.810319E-1	6.755489E-1	7.121104E-1	6.887870E-1	6.694548E-1	7.377501E-1	6.975510E-1	6.465340E-1	6.325717E-1	6.522355E-1	6.667547E-1	6.940269E-1	7.141342E-1	6.937737E-1	7.380205E-1	6.682905E-1	6.886020E-1	6.710644E-1	7.568421E-1	7.232232E-1	6.631870E-1	6.721181E-1	6.923492E-1	6.579683E-1	6.841564E-1	6.673676E-1	6.615152E-1	6.782075E-1	6.992811E-1	6.858042E-1	6.943965E-1	6.742956E-1	6.785872E-1	6.527705E-1	6.931599E-1	6.869507E-1	6.838718E-1	6.523259E-1	6.360825E-1	5.953191E-1	7.471228E-1
2.855050E+2	5.454127E-1	5.464490E-1	5.331681E-1	5.053866E-1	4.787282E-1	5.390679E-1	5.691257E-1	5.353200E-1	5.464132E-1	5.594872E-1	5.348227E-1	5.280261E-1	5.716748E-1	5.252109E-1	5.373666E-1	5.538019E-1	5.675140E-1	5.111070E-1	5.615322E-1	5.281893E-1	5.568382E-1	5.081040E-1	5.733397E-1	5.586343E-1	5.441020E-1	5.414172E-1	5.366442E-1	5.296170E-1	5.313434E-1	5.267797E-1	5.421495E-1	5.646472E-1	5.264864E-1	5.645985E-1	5.062344E-1	5.351319E-1	5.605988E-1	5.283944E-1	5.386406E-1	5.310518E-1	5.249251E-1	5.488004E-1	5.369028E-1	5.116079E-1	5.380931E-1	5.664444E-1	5.580748E-1	5.665727E-1	5.042022E-1	5.062249E-1	5.561731E-1	5.245505E-1	5.046245E-1	5.250018E-1	5.617262E-1	5.628400E-1	5.457770E-1	5.442566E-1	5.482418E-1	5.433334E-1	5.978867E-1	5.697753E-1	5.285267E-1	5.473707E-1	5.542030E-1	5.818358E-1	5.633073E-1	5.420744E-1	5.471206E-1	5.758793E-1	5.607754E-1	5.530038E-1	5.660671E-1	5.886808E-1	5.612204E-1	5.483332E-1	6.214936E-1	5.446210E-1	5.852254E-1	5.458266E-1	5.366643E-1	5.875165E-1	5.518754E-1	5.493943E-1	5.971921E-1	5.323652E-1	5.508286E-1	5.673031E-1	5.297476E-1	5.224159E-1	5.119031E-1	5.197915E-1	5.726471E-1	5.343355E-1	5.308305E-1	5.562773E-1	5.637113E-1	5.459206E-1	5.111440E-1	5.129457E-1	5.452714E-1	5.438991E-1	5.611999E-1	5.839328E-1	5.625027E-1	5.264684E-1	5.577758E-1	5.625949E-1	5.525515E-1	5.653683E-1	5.322468E-1	5.051857E-1	5.914147E-1	5.495001E-1	5.544282E-1	5.577142E-1	5.346731E-1	5.494253E-1	5.400037E-1	6.048719E-1	5.690831E-1	5.350347E-1	5.585959E-1	5.426986E-1	5.790628E-1	5.617251E-1	5.851309E-1	5.845175E-1	5.542163E-1	5.566238E-1	5.416697E-1	5.479011E-1	5.612372E-1	5.595619E-1	5.397248E-1	5.794366E-1	5.906770E-1	5.761221E-1	5.340789E-1	5.539064E-1	5.472564E-1	5.563123E-1	5.715301E-1	5.454595E-1	5.379633E-1	6.159754E-1	5.843196E-1	5.252402E-1	5.791782E-1	6.059339E-1	5.600640E-1	5.336952E-1	5.574533E-1	6.141509E-1	5.450547E-1	5.560157E-1	5.954929E-1	5.299718E-1	5.863507E-1	5.571448E-1	5.658210E-1	5.515469E-1	5.437377E-1	5.304402E-1	6.035652E-1	5.760918E-1	5.971532E-1	5.508553E-1	5.642596E-1	5.702966E-1	5.375121E-1	4.245755E-1
2.856010E+2	4.601422E-1	4.084366E-1	4.338972E-1	4.230293E-1	4.153314E-1	4.266954E-1	4.540581E-1	4.271165E-1	4.390216E-1	4.462936E-1	4.226897E-1	4.416262E-1	4.228981E-1	4.248264E-1	3.983317E-1	4.193592E-1	4.062112E-1	4.027430E-1	4.597963E-1	4.370014E-1	3.704810E-1	4.143329E-1	4.068270E-1	4.461560E-1	4.294056E-1	4.062369E-1	3.918304E-1	4.426568E-1	4.343244E-1	4.483947E-1	4.310402E-1	4.087671E-1	4.249151E-1	4.503542E-1	4.266937E-1	4.322071E-1	3.968882E-1	4.067732E-1	4.300972E-1	4.091270E-1	4.348975E-1	4.289575E-1	4.342477E-1	4.032321E-1	4.413444E-1	4.139573E-1	4.516200E-1	3.859458E-1	4.308202E-1	3.883658E-1	4.068897E-1	4.489224E-1	4.317681E-1	4.142292E-1	4.515229E-1	4.281632E-1	4.563586E-1	4.395054E-1	4.593189E-1	4.234671E-1	4.281119E-1	4.532381E-1	4.295708E-1	4.099804E-1	4.436014E-1	4.382632E-1	4.219376E-1	4.417445E-1	4.331575E-1	4.338636E-1	4.338824E-1	4.378865E-1	4.641667E-1	4.441590E-1	4.220305E-1	4.343719E-1	4.349269E-1	4.443585E-1	3.831643E-1	4.488868E-1	4.463755E-1	4.334654E-1	4.429779E-1	4.242165E-1	4.176391E-1	3.907681E-1	4.778658E-1	4.428473E-1	4.138921E-1	4.164594E-1	4.143378E-1	4.317961E-1	4.631690E-1	4.270827E-1	4.226936E-1	4.528362E-1	4.288459E-1	4.319252E-1	4.682760E-1	4.357402E-1	4.393834E-1	4.256166E-1	4.684994E-1	4.385605E-1	4.223338E-1	4.494389E-1	4.378936E-1	4.445998E-1	4.390940E-1	4.061681E-1	4.588924E-1	3.900135E-1	4.324022E-1	4.204395E-1	4.254004E-1	4.336312E-1	4.117392E-1	4.163601E-1	4.769637E-1	4.493925E-1	4.188223E-1	4.182729E-1	4.578754E-1	4.233970E-1	4.233803E-1	4.473348E-1	4.466101E-1	3.949161E-1	4.136572E-1	4.527876E-1	4.611763E-1	4.187454E-1	4.411402E-1	4.668091E-1	4.563406E-1	4.261759E-1	4.236911E-1	4.483217E-1	4.518924E-1	3.918158E-1	4.524460E-1	4.160225E-1	3.834015E-1	4.522041E-1	4.518949E-1	4.454994E-1	4.287888E-1	4.334474E-1	4.072180E-1	4.411094E-1	4.414783E-1	4.051021E-1	4.551983E-1	4.428748E-1	4.668720E-1	4.438533E-1	4.439979E-1	4.748708E-1	4.605947E-1	4.397281E-1	4.165398E-1	4.442765E-1	4.210108E-1	4.237910E-1	4.946067E-1	4.820948E-1	4.710241E-1	4.577202E-1	4.518917E-1	3.676977E-1	4.649543E-1	4.707699E-1
2.858010E+2	4.494378E-1	3.857065E-1	4.155187E-1	4.644458E-1	4.210210E-1	4.218444E-1	4.612994E-1	4.832470E-1	4.342418E-1	4.577461E-1	4.502852E-1	4.314167E-1	4.398327E-1	4.540543E-1	4.157955E-1	4.431311E-1	4.382861E-1	4.293836E-1	4.328480E-1	4.203041E-1	3.688935E-1	4.064678E-1	4.839333E-1	4.157861E-1	4.411452E-1	4.530563E-1	4.509386E-1	4.658262E-1	4.498016E-1	4.078344E-1	4.549645E-1	4.293784E-1	4.608122E-1	4.421156E-1	4.133887E-1	4.318492E-1	4.292203E-1	4.504270E-1	4.240528E-1	4.298202E-1	4.361664E-1	4.061052E-1	4.019955E-1	4.163433E-1	4.645620E-1	4.083590E-1	4.019192E-1	5.021238E-1	4.502713E-1	4.400211E-1	4.191966E-1	4.163613E-1	4.393252E-1	4.628269E-1	4.629315E-1	4.296001E-1	4.063677E-1	4.375815E-1	4.063460E-1	4.513127E-1	4.663041E-1	4.707357E-1	4.109546E-1	4.347249E-1	4.725398E-1	4.225612E-1	4.594633E-1	4.503409E-1	4.282006E-1	4.465416E-1	4.559612E-1	4.417117E-1	4.352906E-1	4.377572E-1	4.927295E-1	4.367419E-1	4.280588E-1	4.059804E-1	4.627165E-1	4.475466E-1	4.352642E-1	4.592624E-1	4.342676E-1	4.283786E-1	4.575396E-1	4.255284E-1	4.620178E-1	4.528476E-1	4.240428E-1	4.522547E-1	3.967366E-1	4.327143E-1	4.515711E-1	4.175764E-1	4.082226E-1	4.639896E-1	4.639695E-1	4.266574E-1	4.365034E-1	4.059382E-1	4.241539E-1	4.512020E-1	4.761779E-1	4.604365E-1	4.721848E-1	4.065879E-1	4.279771E-1	4.351080E-1	4.536026E-1	4.096660E-1	4.131325E-1	4.401974E-1	4.773716E-1	4.029192E-1	4.315414E-1	4.527866E-1	4.191264E-1	4.077793E-1	4.231299E-1	4.649050E-1	4.395050E-1	4.507373E-1	4.577175E-1	4.209311E-1	4.366996E-1	4.213852E-1	4.526755E-1	4.713668E-1	4.500901E-1	4.258383E-1	4.370474E-1	4.342977E-1	4.277485E-1	4.175285E-1	4.750106E-1	4.493302E-1	4.418555E-1	4.748464E-1	4.457909E-1	4.761773E-1	4.515515E-1	4.393646E-1	4.457255E-1	4.667125E-1	4.477569E-1	4.774368E-1	4.044066E-1	4.524218E-1	4.457900E-1	4.591868E-1	4.501956E-1	4.558174E-1	3.958741E-1	4.065138E-1	4.669749E-1	4.653848E-1	4.805795E-1	4.724446E-1	4.371497E-1	4.685323E-1	4.557136E-1	4.397702E-1	4.348991E-1	4.531043E-1	4.290441E-1	4.638920E-1	4.188702E-1	4.598585E-1	4.418049E-1	4.434139E-1	4.149541E-1	4.217355E-1
2.860050E+2	6.456651E-1	6.929424E-1	7.315733E-1	7.027979E-1	6.622700E-1	6.686051E-1	6.940686E-1	6.970068E-1	6.655354E-1	6.701649E-1	6.777078E-1	6.812725E-1	6.746646E-1	6.835005E-1	6.918294E-1	6.697702E-1	7.284049E-1	6.445519E-1	6.656819E-1	6.586779E-1	7.260719E-1	6.667319E-1	6.535100E-1	7.100616E-1	6.429299E-1	7.084586E-1	7.025654E-1	6.643933E-1	7.241120E-1	6.912557E-1	6.843118E-1	7.018884E-1	7.119104E-1	6.692937E-1	6.925379E-1	7.210089E-1	6.872600E-1	6.636168E-1	6.969705E-1	7.299682E-1	6.700472E-1	6.694331E-1	6.855079E-1	6.903116E-1	6.861260E-1	6.918616E-1	6.496314E-1	6.829540E-1	7.083585E-1	7.056577E-1	6.774669E-1	6.392615E-1	7.274195E-1	6.440879E-1	7.087879E-1	6.825156E-1	6.426885E-1	6.997520E-1	6.771849E-1	6.711232E-1	7.586910E-1	7.105320E-1	7.367151E-1	7.284370E-1	6.985149E-1	7.206816E-1	7.347132E-1	7.170938E-1	6.877600E-1	7.009851E-1	7.430786E-1	6.628585E-1	7.146282E-1	6.905207E-1	7.343107E-1	7.161292E-1	7.482484E-1	6.837068E-1	7.237416E-1	6.984548E-1	6.896205E-1	6.634435E-1	7.439530E-1	6.822311E-1	7.095829E-1	6.829904E-1	6.957892E-1	7.108877E-1	6.968021E-1	6.786588E-1	7.271946E-1	6.760628E-1	6.723544E-1	6.917541E-1	6.846998E-1	6.770893E-1	6.795087E-1	6.754520E-1	6.477372E-1	6.359245E-1	7.170253E-1	6.950736E-1	7.059702E-1	6.757969E-1	6.798989E-1	7.018849E-1	7.276284E-1	6.974785E-1	6.877855E-1	6.983383E-1	7.174939E-1	6.585611E-1	7.323285E-1	6.721100E-1	7.104411E-1	7.014865E-1	7.107483E-1	7.201191E-1	7.227965E-1	7.086873E-1	7.293324E-1	7.264107E-1	7.257080E-1	6.769361E-1	7.192106E-1	6.714446E-1	7.087971E-1	7.029324E-1	6.992728E-1	6.897357E-1	7.031091E-1	6.895650E-1	7.439577E-1	7.399412E-1	7.165516E-1	6.547080E-1	6.659894E-1	6.823904E-1	7.270037E-1	7.204725E-1	6.991754E-1	7.058467E-1	7.599272E-1	6.843893E-1	6.874087E-1	7.445663E-1	6.981726E-1	7.008600E-1	6.796284E-1	7.029711E-1	7.040115E-1	7.277803E-1	7.003111E-1	7.455180E-1	7.761628E-1	6.943633E-1	6.563123E-1	6.962069E-1	6.983434E-1	7.147981E-1	7.347578E-1	7.021769E-1	7.158986E-1	6.976879E-1	6.585835E-1	7.298814E-1	7.171089E-1	7.044978E-1	7.007485E-1	6.653989E-1	7.113190E-1	7.109898E-1
2.862050E+2	1.280248E+0	1.181555E+0	1.190265E+0	1.238248E+0	1.237666E+0	1.214162E+0	1.195091E+0	1.251080E+0	1.192025E+0	1.259303E+0	1.249441E+0	1.247823E+0	1.220605E+0	1.192189E+0	1.231916E+0	1.193887E+0	1.238216E+0	1.120730E+0	1.226210E+0	1.223917E+0	1.214034E+0	1.225355E+0	1.204954E+0	1.237258E+0	1.234640E+0	1.224250E+0	1.189790E+0	1.223357E+0	1.162082E+0	1.230918E+0	1.221215E+0	1.158601E+0	1.242278E+0	1.217729E+0	1.217392E+0	1.208564E+0	1.176030E+0	1.174983E+0	1.259020E+0	1.232640E+0	1.235876E+0	1.217429E+0	1.178621E+0	1.232412E+0	1.307834E+0	1.213657E+0	1.243272E+0	1.203985E+0	1.254051E+0	1.248127E+0	1.210414E+0	1.253642E+0	1.244811E+0	1.249457E+0	1.297371E+0	1.215227E+0	1.181293E+0	1.190949E+0	1.177267E+0	1.200659E+0	1.284737E+0	1.196815E+0	1.229395E+0	1.195782E+0	1.292556E+0	1.268587E+0	1.214024E+0	1.207083E+0	1.202421E+0	1.191037E+0	1.198916E+0	1.229689E+0	1.194355E+0	1.221309E+0	1.307424E+0	1.263043E+0	1.255606E+0	1.192760E+0	1.217923E+0	1.275289E+0	1.201690E+0	1.184687E+0	1.290833E+0	1.237474E+0	1.215288E+0	1.165988E+0	1.279666E+0	1.228303E+0	1.175175E+0	1.203635E+0	1.261571E+0	1.217688E+0	1.260059E+0	1.226594E+0	1.189691E+0	1.265732E+0	1.188446E+0	1.142419E+0	1.188354E+0	1.206498E+0	1.216405E+0	1.223816E+0	1.293351E+0	1.275613E+0	1.225572E+0	1.249184E+0	1.237663E+0	1.135622E+0	1.220409E+0	1.217338E+0	1.204981E+0	1.187530E+0	1.227938E+0	1.245060E+0	1.254852E+0	1.260288E+0	1.212835E+0	1.201688E+0	1.203875E+0	1.230507E+0	1.157063E+0	1.212966E+0	1.222273E+0	1.245345E+0	1.185553E+0	1.248745E+0	1.265405E+0	1.189069E+0	1.192910E+0	1.194008E+0	1.234200E+0	1.152460E+0	1.204366E+0	1.237737E+0	1.314467E+0	1.190442E+0	1.236982E+0	1.233125E+0	1.243143E+0	1.245893E+0	1.195816E+0	1.236689E+0	1.259852E+0	1.204848E+0	1.169710E+0	1.218931E+0	1.210405E+0	1.242147E+0	1.195833E+0	1.251228E+0	1.236064E+0	1.212924E+0	1.225291E+0	1.213318E+0	1.247588E+0	1.257492E+0	1.238712E+0	1.280504E+0	1.212497E+0	1.217457E+0	1.235010E+0	1.262687E+0	1.234917E+0	1.208364E+0	1.219195E+0	1.248909E+0	1.242488E+0	1.277320E+0	1.254630E+0	1.249179E+0	1.182988E+0	1.201655E+0
2.864190E+2	1.302792E+0	1.319900E+0	1.262172E+0	1.274127E+0	1.253493E+0	1.307236E+0	1.276831E+0	1.333007E+0	1.325637E+0	1.266566E+0	1.266999E+0	1.326568E+0	1.337482E+0	1.263817E+0	1.287967E+0	1.359538E+0	1.277956E+0	1.201571E+0	1.303174E+0	1.376347E+0	1.279260E+0	1.280502E+0	1.256751E+0	1.317647E+0	1.223122E+0	1.278889E+0	1.290659E+0	1.288150E+0	1.361814E+0	1.325979E+0	1.288491E+0	1.310688E+0	1.293030E+0	1.259883E+0	1.229979E+0	1.294818E+0	1.333054E+0	1.282843E+0	1.323635E+0	1.329018E+0	1.262856E+0	1.326400E+0	1.320836E+0	1.266187E+0	1.348040E+0	1.274694E+0	1.261380E+0	1.321555E+0	1.349353E+0	1.279973E+0	1.284259E+0	1.291707E+0	1.306965E+0	1.277375E+0	1.272492E+0	1.330880E+0	1.264902E+0	1.297197E+0	1.267897E+0	1.337962E+0	1.358737E+0	1.289359E+0	1.339657E+0	1.291070E+0	1.342842E+0	1.309917E+0	1.334420E+0	1.340750E+0	1.257166E+0	1.302990E+0	1.267265E+0	1.345893E+0	1.292555E+0	1.278045E+0	1.349431E+0	1.325713E+0	1.335549E+0	1.266762E+0	1.289512E+0	1.295885E+0	1.289447E+0	1.239271E+0	1.352136E+0	1.304568E+0	1.301057E+0	1.291103E+0	1.429468E+0	1.358482E+0	1.322907E+0	1.221089E+0	1.297901E+0	1.250458E+0	1.336568E+0	1.267340E+0	1.305330E+0	1.287478E+0	1.342169E+0	1.291773E+0	1.243470E+0	1.288403E+0	1.329184E+0	1.328781E+0	1.379313E+0	1.370676E+0	1.349645E+0	1.291948E+0	1.282213E+0	1.255501E+0	1.327499E+0	1.293297E+0	1.275487E+0	1.286376E+0	1.356255E+0	1.296260E+0	1.398746E+0	1.279056E+0	1.292745E+0	1.279406E+0	1.373450E+0	1.283480E+0	1.236902E+0	1.254605E+0	1.303400E+0	1.283184E+0	1.323420E+0	1.269459E+0	1.298696E+0	1.308758E+0	1.325636E+0	1.301783E+0	1.399783E+0	1.293225E+0	1.361165E+0	1.279230E+0	1.227118E+0	1.317395E+0	1.334256E+0	1.276098E+0	1.308305E+0	1.291591E+0	1.349940E+0	1.259135E+0	1.285861E+0	1.324395E+0	1.342646E+0	1.349918E+0	1.248418E+0	1.294656E+0	1.209470E+0	1.256519E+0	1.397177E+0	1.325158E+0	1.392083E+0	1.347172E+0	1.300963E+0	1.322249E+0	1.325202E+0	1.264499E+0	1.269088E+0	1.258682E+0	1.347875E+0	1.294816E+0	1.318280E+0	1.281757E+0	1.304724E+0	1.361669E+0	1.301651E+0	1.381123E+0	1.326347E+0	1.272002E+0	1.298111E+0	1.251094E+0
2.866180E+2	1.188799E+0	1.194741E+0	1.173953E+0	1.233652E+0	1.170171E+0	1.224566E+0	1.168221E+0	1.178637E+0	1.207999E+0	1.221722E+0	1.204518E+0	1.157019E+0	1.241300E+0	1.158558E+0	1.160591E+0	1.198674E+0	1.144201E+0	1.174853E+0	1.208436E+0	1.180616E+0	1.152486E+0	1.149690E+0	1.226886E+0	1.205698E+0	1.152972E+0	1.186150E+0	1.194132E+0	1.179825E+0	1.227900E+0	1.136630E+0	1.178653E+0	1.187116E+0	1.288351E+0	1.143199E+0	1.182301E+0	1.113978E+0	1.173331E+0	1.103550E+0	1.214638E+0	1.162660E+0	1.175909E+0	1.214185E+0	1.146625E+0	1.139446E+0	1.184603E+0	1.197986E+0	1.126291E+0	1.265751E+0	1.176800E+0	1.172185E+0	1.195571E+0	1.185131E+0	1.207156E+0	1.197626E+0	1.226593E+0	1.229488E+0	1.192717E+0	1.202575E+0	1.140785E+0	1.248608E+0	1.263361E+0	1.146835E+0	1.159397E+0	1.164979E+0	1.313167E+0	1.212824E+0	1.261446E+0	1.207330E+0	1.234166E+0	1.147719E+0	1.201019E+0	1.129450E+0	1.164594E+0	1.123335E+0	1.195373E+0	1.215073E+0	1.240929E+0	1.185327E+0	1.216396E+0	1.155878E+0	1.165766E+0	1.188772E+0	1.186385E+0	1.195068E+0	1.165338E+0	1.181827E+0	1.270469E+0	1.188468E+0	1.259903E+0	1.163062E+0	1.183369E+0	1.169463E+0	1.224129E+0	1.219745E+0	1.171968E+0	1.152816E+0	1.155392E+0	1.192598E+0	1.199674E+0	1.211297E+0	1.179695E+0	1.180663E+0	1.132461E+0	1.208485E+0	1.219956E+0	1.143278E+0	1.200410E+0	1.242676E+0	1.190269E+0	1.122033E+0	1.198449E+0	1.131360E+0	1.244566E+0	1.214888E+0	1.185641E+0	1.148028E+0	1.254801E+0	1.208119E+0	1.194976E+0	1.164016E+0	1.206343E+0	1.207828E+0	1.246993E+0	1.172884E+0	1.164553E+0	1.176579E+0	1.267106E+0	1.206139E+0	1.282390E+0	1.234399E+0	1.236124E+0	1.141311E+0	1.232578E+0	1.189049E+0	1.214121E+0	1.169129E+0	1.191034E+0	1.161915E+0	1.204357E+0	1.205403E+0	1.171805E+0	1.195012E+0	1.177982E+0	1.205586E+0	1.235756E+0	1.182335E+0	1.192945E+0	1.172798E+0	1.169802E+0	1.249963E+0	1.230699E+0	1.166877E+0	1.233317E+0	1.209330E+0	1.264590E+0	1.265444E+0	1.190776E+0	1.128510E+0	1.192560E+0	1.143456E+0	1.198233E+0	1.151150E+0	1.227757E+0	1.201068E+0	1.257953E+0	1.147119E+0	1.241432E+0	1.185226E+0	1.224046E+0	1.140863E+0	1.142472E+0	1.106475E+0
2.868000E+2	1.293125E+0	1.333129E+0	1.386050E+0	1.372511E+0	1.331540E+0	1.323481E+0	1.317089E+0	1.353327E+0	1.288408E+0	1.289169E+0	1.387042E+0	1.348795E+0	1.329022E+0	1.308675E+0	1.315784E+0	1.324389E+0	1.316807E+0	1.322395E+0	1.310426E+0	1.365010E+0	1.353633E+0	1.312055E+0	1.334158E+0	1.366921E+0	1.277064E+0	1.289199E+0	1.278784E+0	1.357317E+0	1.394573E+0	1.310741E+0	1.297895E+0	1.302294E+0	1.336933E+0	1.301114E+0	1.309819E+0	1.348838E+0	1.363260E+0	1.329662E+0	1.375121E+0	1.302180E+0	1.277071E+0	1.333955E+0	1.305619E+0	1.346113E+0	1.390994E+0	1.287372E+0	1.299458E+0	1.328045E+0	1.323215E+0	1.298256E+0	1.346577E+0	1.370515E+0	1.301320E+0	1.357122E+0	1.370397E+0	1.313487E+0	1.329432E+0	1.315422E+0	1.327114E+0	1.291529E+0	1.366216E+0	1.336220E+0	1.364132E+0	1.324316E+0	1.401811E+0	1.326356E+0	1.340711E+0	1.293488E+0	1.304061E+0	1.325045E+0	1.378915E+0	1.314853E+0	1.340181E+0	1.279102E+0	1.304168E+0	1.354231E+0	1.337104E+0	1.324836E+0	1.293361E+0	1.315076E+0	1.281009E+0	1.316995E+0	1.332667E+0	1.366355E+0	1.357961E+0	1.267364E+0	1.412812E+0	1.376554E+0	1.375834E+0	1.284485E+0	1.332124E+0	1.363555E+0	1.352153E+0	1.355572E+0	1.401637E+0	1.338974E+0	1.332327E+0	1.287217E+0	1.335309E+0	1.279452E+0	1.321595E+0	1.309227E+0	1.349707E+0	1.343480E+0	1.409187E+0	1.356088E+0	1.280347E+0	1.279975E+0	1.406866E+0	1.295067E+0	1.321292E+0	1.358795E+0	1.332932E+0	1.314314E+0	1.307192E+0	1.307325E+0	1.336665E+0	1.390052E+0	1.421790E+0	1.339548E+0	1.320680E+0	1.347089E+0	1.393783E+0	1.347694E+0	1.360985E+0	1.324780E+0	1.357667E+0	1.302294E+0	1.322013E+0	1.329407E+0	1.340057E+0	1.282617E+0	1.322421E+0	1.416095E+0	1.395789E+0	1.350520E+0	1.436205E+0	1.335892E+0	1.360145E+0	1.309999E+0	1.365231E+0	1.275645E+0	1.337839E+0	1.316163E+0	1.354038E+0	1.364757E+0	1.385072E+0	1.352978E+0	1.304145E+0	1.347932E+0	1.372020E+0	1.362488E+0	1.318343E+0	1.350126E+0	1.324883E+0	1.314934E+0	1.344494E+0	1.309749E+0	1.357123E+0	1.353100E+0	1.443908E+0	1.303062E+0	1.291626E+0	1.373081E+0	1.344742E+0	1.384861E+0	1.399866E+0	1.341470E+0	1.379714E+0	1.266084E+0	1.287919E+0	1.311909E+0
2.870190E+2	1.292629E+0	1.276700E+0	1.324674E+0	1.335946E+0	1.259327E+0	1.278696E+0	1.411837E+0	1.329859E+0	1.287209E+0	1.295017E+0	1.322977E+0	1.297203E+0	1.295883E+0	1.309363E+0	1.256879E+0	1.315419E+0	1.319537E+0	1.226922E+0	1.327408E+0	1.289152E+0	1.256502E+0	1.262441E+0	1.322105E+0	1.261609E+0	1.266674E+0	1.254907E+0	1.250593E+0	1.268458E+0	1.321962E+0	1.284198E+0	1.242181E+0	1.269866E+0	1.264595E+0	1.268292E+0	1.286689E+0	1.276987E+0	1.278203E+0	1.230034E+0	1.264554E+0	1.222829E+0	1.260072E+0	1.266284E+0	1.256643E+0	1.280335E+0	1.276197E+0	1.267510E+0	1.304803E+0	1.337874E+0	1.310401E+0	1.251337E+0	1.270861E+0	1.289237E+0	1.263400E+0	1.301741E+0	1.301472E+0	1.275063E+0	1.298509E+0	1.267167E+0	1.322918E+0	1.267083E+0	1.285093E+0	1.282203E+0	1.322719E+0	1.312503E+0	1.340403E+0	1.304284E+0	1.351815E+0	1.265677E+0	1.243198E+0	1.252686E+0	1.253851E+0	1.360624E+0	1.298776E+0	1.279391E+0	1.312198E+0	1.273946E+0	1.331662E+0	1.226701E+0	1.276965E+0	1.269198E+0	1.284410E+0	1.285311E+0	1.326568E+0	1.270751E+0	1.247697E+0	1.298296E+0	1.336811E+0	1.308649E+0	1.271364E+0	1.262369E+0	1.293760E+0	1.301792E+0	1.296356E+0	1.291999E+0	1.339015E+0	1.288780E+0	1.248312E+0	1.270863E+0	1.302682E+0	1.231601E+0	1.287675E+0	1.341549E+0	1.335575E+0	1.244830E+0	1.344785E+0	1.321534E+0	1.331981E+0	1.252790E+0	1.279210E+0	1.283227E+0	1.268636E+0	1.280813E+0	1.324354E+0	1.260103E+0	1.269120E+0	1.283699E+0	1.357256E+0	1.261704E+0	1.336607E+0	1.281891E+0	1.284731E+0	1.279034E+0	1.285535E+0	1.251684E+0	1.393607E+0	1.308357E+0	1.286288E+0	1.248179E+0	1.364536E+0	1.258904E+0	1.283019E+0	1.236663E+0	1.260390E+0	1.306841E+0	1.339413E+0	1.284129E+0	1.376747E+0	1.249304E+0	1.290447E+0	1.292904E+0	1.296522E+0	1.263355E+0	1.334824E+0	1.292693E+0	1.324080E+0	1.316535E+0	1.286238E+0	1.246775E+0	1.277111E+0	1.303123E+0	1.266236E+0	1.294294E+0	1.351793E+0	1.282298E+0	1.353119E+0	1.292221E+0	1.289524E+0	1.297777E+0	1.311352E+0	1.305397E+0	1.305938E+0	1.359617E+0	1.287839E+0	1.298739E+0	1.333438E+0	1.285271E+0	1.426480E+0	1.332022E+0	1.300500E+0	1.231961E+0	1.220843E+0	1.242184E+0
2.872120E+2	1.089581E+0	1.069540E+0	1.097870E+0	1.092141E+0	1.009868E+0	1.072254E+0	1.040181E+0	1.131009E+0	1.085981E+0	1.087763E+0	1.119521E+0	1.089290E+0	1.122351E+0	1.057542E+0	1.115335E+0	1.088444E+0	1.121170E+0	1.057039E+0	1.116343E+0	1.122030E+0	1.104078E+0	1.081201E+0	1.098392E+0	1.086434E+0	1.092191E+0	1.032589E+0	1.075075E+0	1.122694E+0	1.079631E+0	1.082896E+0	1.093848E+0	1.108054E+0	1.147528E+0	1.070326E+0	9.964792E-1	1.133484E+0	1.101952E+0	1.069071E+0	1.123429E+0	1.073570E+0	1.084648E+0	1.093849E+0	1.094850E+0	1.068902E+0	1.146388E+0	1.077934E+0	1.111153E+0	1.119800E+0	1.077975E+0	1.053648E+0	1.105894E+0	1.139444E+0	1.133234E+0	1.115702E+0	1.134247E+0	1.134614E+0	1.071574E+0	1.044182E+0	1.113010E+0	1.110049E+0	1.189708E+0	1.023513E+0	1.158002E+0	1.092667E+0	1.113444E+0	1.115393E+0	1.119630E+0	1.093914E+0	1.095148E+0	1.090080E+0	1.129413E+0	1.136476E+0	1.089628E+0	1.107320E+0	1.060410E+0	1.116588E+0	1.081182E+0	1.065255E+0	1.040188E+0	1.091710E+0	1.073272E+0	1.104326E+0	1.103180E+0	1.110760E+0	1.070569E+0	1.054459E+0	1.138916E+0	1.059939E+0	1.093627E+0	1.062495E+0	1.102895E+0	1.074965E+0	1.124815E+0	1.122395E+0	1.137562E+0	1.100483E+0	1.106276E+0	1.117167E+0	1.050708E+0	1.082474E+0	1.069909E+0	1.086932E+0	1.093345E+0	1.107163E+0	1.053120E+0	1.168476E+0	1.100736E+0	1.128257E+0	1.069545E+0	1.116480E+0	1.055778E+0	1.082547E+0	1.123260E+0	1.049677E+0	1.095365E+0	1.104045E+0	1.079937E+0	1.083090E+0	1.151822E+0	1.095298E+0	1.116021E+0	1.076302E+0	1.168347E+0	1.145678E+0	1.119216E+0	1.117897E+0	1.138090E+0	1.085120E+0	1.098080E+0	1.114057E+0	1.136180E+0	1.117647E+0	1.086116E+0	1.090063E+0	1.146449E+0	1.069555E+0	1.125295E+0	1.078724E+0	1.069060E+0	1.116421E+0	1.126279E+0	1.049510E+0	1.114973E+0	1.041314E+0	1.127608E+0	1.145537E+0	1.068509E+0	1.108722E+0	1.066592E+0	1.083887E+0	1.102270E+0	1.122333E+0	1.053146E+0	1.096192E+0	1.100045E+0	1.114200E+0	1.130054E+0	1.030723E+0	1.067722E+0	1.091129E+0	1.114189E+0	1.054173E+0	1.090643E+0	1.080743E+0	1.111819E+0	1.172990E+0	1.064438E+0	1.120500E+0	1.083289E+0	1.061737E+0	1.053422E+0	1.157045E+0
2.874030E+2	8.336291E-1	8.398139E-1	8.591283E-1	7.996792E-1	8.049178E-1	7.995235E-1	8.626063E-1	8.578651E-1	8.409409E-1	8.384792E-1	9.038785E-1	8.745433E-1	8.271741E-1	8.485206E-1	8.351236E-1	8.818947E-1	8.250048E-1	8.382212E-1	8.177050E-1	8.674332E-1	8.448035E-1	8.130659E-1	8.322909E-1	8.414999E-1	8.473478E-1	8.298392E-1	8.474742E-1	8.309229E-1	8.433678E-1	8.210913E-1	8.045837E-1	8.927374E-1	8.792775E-1	8.324415E-1	8.218981E-1	8.632743E-1	8.590462E-1	8.269011E-1	8.074768E-1	8.291258E-1	8.673902E-1	8.141368E-1	8.625272E-1	8.242539E-1	8.176585E-1	8.194534E-1	8.516206E-1	8.703911E-1	8.050356E-1	8.373708E-1	8.430012E-1	9.025091E-1	8.725969E-1	8.560511E-1	8.351672E-1	8.823528E-1	8.449897E-1	8.201128E-1	8.334902E-1	8.369164E-1	8.632656E-1	8.034092E-1	8.444484E-1	8.765489E-1	8.822115E-1	8.471679E-1	8.328785E-1	8.210320E-1	8.404507E-1	8.219600E-1	8.304391E-1	8.445853E-1	8.738551E-1	8.496594E-1	8.442439E-1	9.200019E-1	8.251187E-1	8.622407E-1	8.553341E-1	8.643126E-1	8.336841E-1	8.943081E-1	8.517542E-1	8.968925E-1	8.517723E-1	8.692064E-1	8.544958E-1	8.729438E-1	8.118081E-1	7.896725E-1	8.368762E-1	8.502167E-1	8.608754E-1	8.881703E-1	8.808663E-1	8.740119E-1	8.878929E-1	8.513162E-1	8.782047E-1	8.671529E-1	8.642778E-1	8.533183E-1	9.213621E-1	8.349017E-1	8.718750E-1	8.218724E-1	8.044433E-1	8.647137E-1	8.714237E-1	8.846608E-1	8.478603E-1	8.379790E-1	9.118691E-1	8.499895E-1	8.791655E-1	8.545872E-1	8.563338E-1	8.857107E-1	8.679285E-1	8.831039E-1	8.294787E-1	8.204793E-1	8.974510E-1	8.546329E-1	9.078189E-1	8.281391E-1	8.679152E-1	8.475364E-1	8.232536E-1	8.793740E-1	8.843307E-1	8.643524E-1	8.198023E-1	8.407995E-1	8.730184E-1	8.043897E-1	9.259363E-1	8.463373E-1	8.738155E-1	8.487582E-1	8.741806E-1	8.296645E-1	8.235022E-1	8.558591E-1	9.037917E-1	8.364271E-1	8.744005E-1	7.928961E-1	8.282747E-1	8.173556E-1	8.980574E-1	8.650075E-1	8.652247E-1	8.386010E-1	8.441201E-1	8.685032E-1	8.393757E-1	8.067649E-1	8.390232E-1	8.309719E-1	8.455306E-1	8.828329E-1	8.424687E-1	8.608471E-1	8.923047E-1	8.843570E-1	9.271941E-1	8.609328E-1	8.501647E-1	7.462392E-1	7.855076E-1	9.393467E-1
2.876120E+2	6.713250E-1	6.113908E-1	6.353573E-1	6.045118E-1	5.955073E-1	6.344258E-1	6.420886E-1	6.571188E-1	6.610978E-1	6.687749E-1	6.219088E-1	6.511851E-1	6.637808E-1	6.404218E-1	6.896497E-1	6.566808E-1	6.716685E-1	6.417992E-1	6.185030E-1	6.442105E-1	6.467795E-1	6.298936E-1	6.365425E-1	6.483866E-1	6.288788E-1	6.390376E-1	6.374207E-1	6.625338E-1	6.559328E-1	5.959465E-1	6.236456E-1	6.773009E-1	6.388597E-1	6.270365E-1	6.227377E-1	6.724008E-1	6.297599E-1	6.280902E-1	6.280745E-1	6.490786E-1	6.016222E-1	6.207086E-1	6.237012E-1	6.593722E-1	6.687714E-1	6.411458E-1	6.465088E-1	6.726661E-1	6.518246E-1	6.571485E-1	6.654195E-1	6.821183E-1	6.363681E-1	6.495020E-1	6.421524E-1	6.579650E-1	6.626987E-1	6.299079E-1	6.476133E-1	6.738050E-1	6.728650E-1	6.637432E-1	6.382200E-1	6.770275E-1	6.786472E-1	6.723150E-1	6.786909E-1	6.617570E-1	6.349471E-1	6.570512E-1	6.601819E-1	6.641383E-1	6.272947E-1	6.834282E-1	6.556663E-1	6.749193E-1	6.846897E-1	6.184875E-1	6.442613E-1	6.577786E-1	6.341063E-1	6.488304E-1	7.007470E-1	6.899472E-1	6.566237E-1	6.157163E-1	6.751515E-1	6.388383E-1	6.526744E-1	6.132486E-1	6.598259E-1	6.646371E-1	6.272650E-1	6.620760E-1	6.446737E-1	6.426357E-1	6.416162E-1	6.606372E-1	6.603726E-1	6.285137E-1	6.357193E-1	6.627079E-1	6.328010E-1	6.639189E-1	6.746621E-1	6.068121E-1	6.570427E-1	6.468820E-1	6.566396E-1	6.261591E-1	6.623025E-1	6.301572E-1	6.730785E-1	6.671643E-1	6.314856E-1	6.505575E-1	6.588624E-1	6.460889E-1	6.550891E-1	6.476178E-1	6.665800E-1	6.237292E-1	6.898344E-1	6.609766E-1	6.506066E-1	6.890922E-1	6.791221E-1	6.686137E-1	6.412280E-1	6.858028E-1	6.270455E-1	6.476098E-1	6.646646E-1	6.844848E-1	6.973775E-1	6.431723E-1	6.583969E-1	6.444455E-1	6.410327E-1	6.562208E-1	6.631779E-1	6.442044E-1	6.777994E-1	6.366147E-1	6.580642E-1	6.619131E-1	6.453661E-1	6.762196E-1	6.249927E-1	6.627391E-1	6.441720E-1	6.883051E-1	6.739597E-1	6.785322E-1	6.886591E-1	7.269690E-1	7.083994E-1	6.707267E-1	6.617964E-1	6.676602E-1	7.076564E-1	6.581702E-1	6.470946E-1	6.277098E-1	6.985327E-1	6.103953E-1	6.703357E-1	6.404046E-1	6.783610E-1	6.203466E-1	6.515694E-1	6.294919E-1
2.878030E+2	6.774435E-1	6.979025E-1	7.109078E-1	6.908675E-1	6.924327E-1	7.365582E-1	6.975811E-1	6.854418E-1	6.936747E-1	7.144167E-1	7.085928E-1	7.031380E-1	7.371072E-1	7.274866E-1	6.777168E-1	6.955851E-1	6.948232E-1	6.795138E-1	7.098089E-1	7.389791E-1	7.116987E-1	6.924541E-1	6.949919E-1	6.836856E-1	6.627914E-1	7.382774E-1	6.908363E-1	7.016324E-1	7.609015E-1	6.980905E-1	6.908243E-1	7.081440E-1	7.328605E-1	7.208261E-1	6.817560E-1	6.876986E-1	7.116754E-1	7.024667E-1	6.947988E-1	7.452507E-1	7.400037E-1	6.755580E-1	7.023577E-1	7.066774E-1	6.907212E-1	6.817910E-1	7.271832E-1	7.349379E-1	6.850297E-1	7.024251E-1	7.271382E-1	7.172293E-1	7.141968E-1	7.156380E-1	7.132573E-1	6.877651E-1	7.527456E-1	7.075251E-1	7.012653E-1	7.174255E-1	7.447403E-1	6.767416E-1	6.908195E-1	7.248988E-1	7.415519E-1	6.705303E-1	6.650516E-1	6.874974E-1	7.253189E-1	7.106219E-1	7.067767E-1	7.528544E-1	7.450718E-1	7.212840E-1	6.697000E-1	6.800295E-1	7.440158E-1	7.083489E-1	6.755788E-1	7.221207E-1	7.358569E-1	7.420721E-1	6.834422E-1	7.597190E-1	7.131190E-1	7.240289E-1	7.379400E-1	7.162672E-1	6.864011E-1	6.945765E-1	7.063966E-1	7.414368E-1	7.267118E-1	7.073313E-1	7.105969E-1	7.307645E-1	6.753120E-1	7.208168E-1	7.208425E-1	7.054821E-1	7.596856E-1	7.386504E-1	6.983006E-1	7.497792E-1	7.547084E-1	7.251767E-1	6.664964E-1	6.625906E-1	7.406409E-1	7.284572E-1	6.996883E-1	7.272788E-1	7.280662E-1	6.879511E-1	7.337033E-1	7.007775E-1	7.238765E-1	7.641972E-1	7.398232E-1	7.592946E-1	7.286150E-1	7.694024E-1	6.966641E-1	7.392574E-1	7.112109E-1	7.363261E-1	7.351223E-1	7.402834E-1	7.369378E-1	7.273975E-1	7.103378E-1	7.140509E-1	7.419764E-1	7.109575E-1	7.149120E-1	6.892694E-1	7.067201E-1	6.984717E-1	7.588463E-1	7.581132E-1	7.713956E-1	6.983285E-1	7.174854E-1	7.311959E-1	7.274374E-1	6.992947E-1	7.567129E-1	7.290155E-1	7.097283E-1	6.987434E-1	7.436870E-1	6.973975E-1	6.848917E-1	7.138448E-1	6.589180E-1	7.602002E-1	7.254819E-1	7.173170E-1	7.354773E-1	7.384151E-1	7.321842E-1	7.222727E-1	6.956888E-1	6.721792E-1	6.793088E-1	7.523449E-1	7.121178E-1	7.293419E-1	7.372610E-1	7.254153E-1	6.979605E-1	8.369561E-1
2.880040E+2	7.752888E-1	7.716420E-1	7.754341E-1	8.200510E-1	6.975964E-1	7.543569E-1	7.632716E-1	7.870605E-1	8.122814E-1	7.725955E-1	7.377255E-1	7.971343E-1	7.489564E-1	7.213519E-1	7.234118E-1	7.830476E-1	7.517107E-1	7.594993E-1	7.633956E-1	7.754012E-1	7.465237E-1	7.591747E-1	7.184469E-1	7.693638E-1	7.313668E-1	7.882834E-1	7.215967E-1	7.807645E-1	7.770431E-1	7.470649E-1	7.739526E-1	7.486055E-1	8.227737E-1	7.923809E-1	7.265990E-1	7.182140E-1	7.491829E-1	7.595090E-1	7.410439E-1	7.722652E-1	7.479159E-1	7.472082E-1	7.311133E-1	7.043170E-1	7.654067E-1	7.381882E-1	7.734128E-1	7.494806E-1	7.594760E-1	7.238335E-1	7.955117E-1	7.847955E-1	7.757430E-1	7.579473E-1	7.975267E-1	7.888978E-1	7.287001E-1	7.499252E-1	7.488526E-1	7.512401E-1	8.050150E-1	7.911176E-1	7.273621E-1	7.352685E-1	8.025154E-1	7.453049E-1	7.571177E-1	7.467316E-1	7.940613E-1	7.592400E-1	8.156159E-1	7.539942E-1	7.501450E-1	7.733213E-1	7.562494E-1	7.738770E-1	7.912160E-1	7.667969E-1	7.924224E-1	7.764265E-1	7.897817E-1	7.462781E-1	8.144620E-1	7.698064E-1	7.315416E-1	7.819759E-1	7.337171E-1	8.054474E-1	7.278963E-1	7.357596E-1	8.052502E-1	8.394941E-1	8.024694E-1	7.986019E-1	7.330650E-1	7.683320E-1	7.629530E-1	7.692771E-1	7.668458E-1	7.849281E-1	7.697636E-1	7.769114E-1	7.708336E-1	8.097006E-1	8.189808E-1	7.814349E-1	7.505449E-1	7.957690E-1	7.441231E-1	7.566598E-1	7.571553E-1	7.804741E-1	7.774338E-1	7.592023E-1	7.091386E-1	7.874729E-1	7.716978E-1	7.676225E-1	7.362523E-1	8.048588E-1	7.501558E-1	7.902319E-1	8.348189E-1	8.140028E-1	7.657480E-1	8.075861E-1	7.684097E-1	7.506310E-1	8.469328E-1	8.023855E-1	7.679243E-1	7.577708E-1	7.707725E-1	7.777346E-1	7.306192E-1	7.030150E-1	7.481571E-1	7.747135E-1	7.597899E-1	8.172843E-1	7.966722E-1	7.505198E-1	7.528336E-1	7.677680E-1	7.704608E-1	7.946379E-1	7.345594E-1	7.692634E-1	7.467165E-1	7.645005E-1	8.209495E-1	7.631702E-1	7.382187E-1	7.983213E-1	7.715549E-1	7.594695E-1	8.287917E-1	7.664113E-1	7.556585E-1	7.281338E-1	7.916888E-1	7.477025E-1	7.529307E-1	7.367106E-1	8.245975E-1	7.903363E-1	8.166726E-1	8.131428E-1	7.992172E-1	7.283351E-1	8.412446E-1	7.502017E-1
2.882200E+2	8.029217E-1	7.283321E-1	8.219682E-1	7.398105E-1	7.563766E-1	7.890256E-1	7.406080E-1	7.422761E-1	7.678862E-1	8.056781E-1	7.938330E-1	7.932867E-1	7.859749E-1	7.931393E-1	7.151585E-1	8.013130E-1	7.409189E-1	7.251958E-1	7.383957E-1	7.784541E-1	7.801654E-1	7.609077E-1	7.276672E-1	7.556740E-1	7.687576E-1	7.509416E-1	7.494016E-1	7.843504E-1	8.100109E-1	7.878136E-1	7.741599E-1	7.668170E-1	8.358926E-1	7.720041E-1	7.271199E-1	7.898552E-1	7.897347E-1	7.637300E-1	7.801538E-1	7.876531E-1	7.788472E-1	7.721090E-1	7.374227E-1	6.919383E-1	7.921754E-1	7.544558E-1	7.515089E-1	8.167578E-1	7.436465E-1	7.650222E-1	7.508989E-1	7.893670E-1	7.932638E-1	7.967725E-1	7.540655E-1	7.860866E-1	7.515222E-1	7.770071E-1	7.151040E-1	7.860462E-1	8.221714E-1	8.286597E-1	7.197302E-1	7.809059E-1	8.533157E-1	7.560624E-1	7.686108E-1	7.836875E-1	7.528142E-1	7.846869E-1	7.727971E-1	7.995308E-1	7.813493E-1	7.776120E-1	7.720899E-1	7.659190E-1	7.679109E-1	7.668833E-1	7.210538E-1	7.786220E-1	7.482058E-1	8.204708E-1	7.549150E-1	7.478723E-1	7.514270E-1	7.962650E-1	7.814206E-1	8.028935E-1	7.077357E-1	7.807680E-1	7.008422E-1	7.735608E-1	8.135342E-1	8.036829E-1	7.511907E-1	7.747044E-1	8.340907E-1	7.393019E-1	7.688445E-1	8.109156E-1	7.740316E-1	8.146552E-1	7.928044E-1	8.117470E-1	7.702291E-1	7.737911E-1	7.618574E-1	7.338339E-1	7.564747E-1	7.808842E-1	8.099002E-1	7.494140E-1	7.574815E-1	7.927357E-1	8.038307E-1	7.575964E-1	7.486734E-1	7.851823E-1	8.036793E-1	7.686154E-1	7.560828E-1	7.745747E-1	7.655200E-1	7.796507E-1	8.331760E-1	7.792990E-1	8.067015E-1	7.469366E-1	7.638191E-1	7.580794E-1	7.575554E-1	7.444403E-1	7.593938E-1	7.915367E-1	7.553743E-1	7.964661E-1	8.303027E-1	7.484944E-1	7.922601E-1	8.171713E-1	7.936348E-1	7.461318E-1	7.601260E-1	8.023154E-1	8.052634E-1	7.837657E-1	7.622881E-1	8.050883E-1	7.454783E-1	8.482728E-1	8.108474E-1	7.701861E-1	7.533531E-1	7.787350E-1	7.845616E-1	7.918904E-1	7.850963E-1	8.055928E-1	7.642208E-1	7.408584E-1	8.100556E-1	7.727468E-1	8.081663E-1	8.431358E-1	7.593283E-1	7.541686E-1	8.054829E-1	7.885993E-1	7.718076E-1	7.337486E-1	8.296975E-1	8.485916E-1
2.884090E+2	8.316987E-1	8.700317E-1	8.511826E-1	8.928575E-1	8.825157E-1	8.558162E-1	8.679648E-1	8.725778E-1	8.208227E-1	8.410052E-1	8.563750E-1	8.099474E-1	8.683677E-1	9.091254E-1	8.172499E-1	8.893786E-1	8.377063E-1	8.391223E-1	8.143394E-1	8.691952E-1	8.429184E-1	8.222282E-1	8.508899E-1	8.678922E-1	8.154002E-1	8.271787E-1	8.454782E-1	9.044214E-1	8.694233E-1	8.791613E-1	8.670853E-1	8.634724E-1	8.295349E-1	8.512550E-1	8.206317E-1	8.574931E-1	8.851739E-1	8.376221E-1	8.260813E-1	8.635479E-1	8.674431E-1	8.507585E-1	8.337773E-1	8.570500E-1	8.917091E-1	8.522404E-1	8.651986E-1	8.757194E-1	8.634234E-1	8.414177E-1	8.502810E-1	8.664017E-1	8.647938E-1	8.842893E-1	8.900203E-1	8.744018E-1	8.687600E-1	8.535745E-1	8.114028E-1	8.622499E-1	9.005914E-1	8.227489E-1	8.473107E-1	8.770647E-1	8.508299E-1	8.527656E-1	8.726491E-1	8.920221E-1	8.623571E-1	8.323994E-1	8.724248E-1	8.790128E-1	8.542022E-1	8.744391E-1	8.556435E-1	8.540015E-1	8.853010E-1	8.150480E-1	8.364854E-1	8.393270E-1	8.284350E-1	8.720317E-1	8.692237E-1	8.826881E-1	8.259010E-1	8.833267E-1	8.454063E-1	8.568493E-1	8.629856E-1	8.153512E-1	8.206555E-1	8.068750E-1	8.167654E-1	8.468477E-1	8.406006E-1	8.873772E-1	8.628993E-1	8.272553E-1	8.492605E-1	8.558554E-1	8.639247E-1	8.496634E-1	8.363193E-1	8.939346E-1	8.485993E-1	8.913481E-1	8.461496E-1	8.743111E-1	8.799223E-1	8.652672E-1	8.337047E-1	8.167287E-1	8.864015E-1	8.625662E-1	8.813243E-1	8.768748E-1	8.219708E-1	8.651831E-1	9.119844E-1	8.239225E-1	7.974564E-1	8.823149E-1	8.898386E-1	9.394197E-1	8.530735E-1	8.894543E-1	8.463070E-1	8.853075E-1	8.507696E-1	8.415689E-1	8.407777E-1	8.414110E-1	8.191144E-1	8.537510E-1	8.820399E-1	8.390581E-1	8.537696E-1	8.275826E-1	8.749663E-1	8.578655E-1	8.513015E-1	8.612715E-1	8.960050E-1	8.379976E-1	9.410527E-1	8.788877E-1	8.645714E-1	8.798354E-1	8.339862E-1	8.491978E-1	8.589022E-1	8.520762E-1	8.283022E-1	9.040103E-1	8.050954E-1	8.975800E-1	8.731768E-1	8.701673E-1	8.385704E-1	8.642935E-1	8.935189E-1	8.473279E-1	8.741948E-1	8.510056E-1	8.808798E-1	9.037678E-1	9.121105E-1	8.627241E-1	8.454017E-1	7.297553E-1	9.106318E-1	8.350310E-1
2.886010E+2	1.129953E+0	1.069899E+0	1.191109E+0	1.142909E+0	1.080502E+0	1.084291E+0	1.066904E+0	1.141729E+0	1.119046E+0	1.135122E+0	1.156925E+0	1.167192E+0	1.113326E+0	1.076179E+0	1.091535E+0	1.101977E+0	1.108666E+0	1.105452E+0	1.075056E+0	1.155369E+0	1.150135E+0	1.110855E+0	1.135901E+0	1.127982E+0	1.097388E+0	1.145022E+0	1.100207E+0	1.141726E+0	1.150469E+0	1.150253E+0	1.126291E+0	1.119231E+0	1.154403E+0	1.152214E+0	1.096402E+0	1.125423E+0	1.130418E+0	1.109205E+0	1.138723E+0	1.148490E+0	1.151921E+0	1.094497E+0	1.129977E+0	1.166024E+0	1.195400E+0	1.160019E+0	1.104525E+0	1.134692E+0	1.097805E+0	1.134363E+0	1.094661E+0	1.164743E+0	1.084020E+0	1.146008E+0	1.183470E+0	1.197581E+0	1.103403E+0	1.105838E+0	1.081678E+0	1.120743E+0	1.170080E+0	1.093689E+0	1.124426E+0	1.085811E+0	1.168037E+0	1.201839E+0	1.097973E+0	1.104890E+0	1.096319E+0	1.173665E+0	1.099330E+0	1.175100E+0	1.107411E+0	1.123765E+0	1.082971E+0	1.189430E+0	1.124744E+0	1.144915E+0	1.172507E+0	1.111370E+0	1.114911E+0	1.068928E+0	1.143398E+0	1.104924E+0	1.130648E+0	1.160621E+0	1.104867E+0	1.115563E+0	1.106373E+0	1.095796E+0	1.134954E+0	1.164585E+0	1.148319E+0	1.128395E+0	1.169431E+0	1.149642E+0	1.086360E+0	1.093273E+0	1.141763E+0	1.094406E+0	1.149988E+0	1.140971E+0	1.148198E+0	1.158565E+0	1.111769E+0	1.156845E+0	1.106398E+0	1.106546E+0	1.095357E+0	1.113272E+0	1.162795E+0	1.112230E+0	1.157740E+0	1.127752E+0	1.103287E+0	1.181017E+0	1.147878E+0	1.135978E+0	1.118795E+0	1.145279E+0	1.129739E+0	1.116762E+0	1.164883E+0	1.123144E+0	1.165818E+0	1.176726E+0	1.133486E+0	1.145219E+0	1.235453E+0	1.073909E+0	1.152060E+0	1.132072E+0	1.149909E+0	1.212927E+0	1.122336E+0	1.150576E+0	1.126607E+0	1.092748E+0	1.093965E+0	1.151010E+0	1.176972E+0	1.149261E+0	1.169369E+0	1.133450E+0	1.174735E+0	1.138417E+0	1.120093E+0	1.134417E+0	1.104600E+0	1.134119E+0	1.172544E+0	1.191929E+0	1.095888E+0	1.147975E+0	1.148515E+0	1.167024E+0	1.148799E+0	1.129055E+0	1.179989E+0	1.082778E+0	1.117511E+0	1.143491E+0	1.184752E+0	1.125861E+0	1.113879E+0	1.146222E+0	1.121736E+0	1.213116E+0	1.162846E+0	1.107839E+0	1.053738E+0	1.054495E+0
2.888170E+2	1.221272E+0	1.191137E+0	1.173737E+0	1.236015E+0	1.172683E+0	1.174194E+0	1.205695E+0	1.193760E+0	1.198645E+0	1.222156E+0	1.225297E+0	1.210912E+0	1.188733E+0	1.229727E+0	1.168342E+0	1.222050E+0	1.215504E+0	1.199956E+0	1.189459E+0	1.167919E+0	1.197422E+0	1.207641E+0	1.191975E+0	1.259236E+0	1.214145E+0	1.182852E+0	1.188207E+0	1.217726E+0	1.235105E+0	1.228878E+0	1.183058E+0	1.165378E+0	1.259100E+0	1.169765E+0	1.160541E+0	1.165389E+0	1.193139E+0	1.171312E+0	1.164948E+0	1.190737E+0	1.194709E+0	1.234948E+0	1.188476E+0	1.246459E+0	1.173999E+0	1.177400E+0	1.165518E+0	1.220880E+0	1.230828E+0	1.184810E+0	1.117728E+0	1.233495E+0	1.194004E+0	1.193826E+0	1.204277E+0	1.214422E+0	1.178882E+0	1.211393E+0	1.228979E+0	1.283224E+0	1.200791E+0	1.190066E+0	1.178500E+0	1.259129E+0	1.237261E+0	1.204393E+0	1.154502E+0	1.190020E+0	1.225587E+0	1.194631E+0	1.149282E+0	1.210857E+0	1.225872E+0	1.180982E+0	1.185934E+0	1.247266E+0	1.184145E+0	1.182861E+0	1.158979E+0	1.184024E+0	1.291293E+0	1.180806E+0	1.116423E+0	1.233813E+0	1.145645E+0	1.180431E+0	1.240454E+0	1.196511E+0	1.178238E+0	1.155822E+0	1.184087E+0	1.236485E+0	1.237440E+0	1.193503E+0	1.165647E+0	1.230254E+0	1.172114E+0	1.222149E+0	1.229739E+0	1.190392E+0	1.307766E+0	1.195361E+0	1.257087E+0	1.248131E+0	1.234144E+0	1.196357E+0	1.169146E+0	1.229176E+0	1.264389E+0	1.206215E+0	1.192317E+0	1.265462E+0	1.224296E+0	1.187607E+0	1.174819E+0	1.188748E+0	1.203264E+0	1.182451E+0	1.222758E+0	1.224129E+0	1.199653E+0	1.197080E+0	1.220440E+0	1.228512E+0	1.259511E+0	1.160495E+0	1.205203E+0	1.206182E+0	1.257526E+0	1.144065E+0	1.196491E+0	1.192517E+0	1.241985E+0	1.218780E+0	1.173973E+0	1.173357E+0	1.220505E+0	1.196766E+0	1.227924E+0	1.261601E+0	1.182387E+0	1.172203E+0	1.180454E+0	1.209812E+0	1.240758E+0	1.189374E+0	1.215611E+0	1.219528E+0	1.215002E+0	1.239154E+0	1.232428E+0	1.174757E+0	1.244971E+0	1.251814E+0	1.224138E+0	1.303916E+0	1.227807E+0	1.150769E+0	1.194156E+0	1.188676E+0	1.231016E+0	1.185525E+0	1.220803E+0	1.231584E+0	1.193694E+0	1.259228E+0	1.157869E+0	1.231613E+0	1.300475E+0	1.182471E+0	1.206150E+0	1.160389E+0
2.890140E+2	1.053469E+0	1.030627E+0	1.054740E+0	1.008605E+0	1.034313E+0	1.026068E+0	1.042142E+0	1.151233E+0	9.748794E-1	1.022382E+0	1.014661E+0	1.054605E+0	1.033800E+0	1.051160E+0	1.010884E+0	1.094656E+0	1.042020E+0	1.059006E+0	1.083955E+0	1.041635E+0	1.117549E+0	1.032148E+0	1.072401E+0	1.105022E+0	1.046880E+0	1.000677E+0	1.032190E+0	1.092930E+0	1.044438E+0	1.097125E+0	1.026181E+0	1.057827E+0	1.057052E+0	1.046122E+0	1.006362E+0	1.045949E+0	1.102870E+0	1.042630E+0	1.045310E+0	1.038959E+0	1.049937E+0	1.049878E+0	1.047068E+0	1.037604E+0	1.035967E+0	1.046658E+0	1.070313E+0	1.082345E+0	1.053692E+0	1.055499E+0	1.068489E+0	1.071420E+0	1.061684E+0	1.039871E+0	1.081985E+0	1.106636E+0	1.006396E+0	1.047954E+0	1.024647E+0	1.111004E+0	1.106168E+0	1.065542E+0	9.884569E-1	1.091776E+0	1.090189E+0	1.044000E+0	1.066081E+0	1.047388E+0	1.065744E+0	1.018824E+0	1.034608E+0	1.128055E+0	1.100473E+0	1.042571E+0	1.074855E+0	1.079762E+0	1.097587E+0	1.046357E+0	1.012345E+0	1.080463E+0	1.039272E+0	1.058585E+0	1.074369E+0	1.075187E+0	1.038669E+0	1.037318E+0	1.064082E+0	1.059012E+0	1.081416E+0	1.030795E+0	1.081111E+0	1.059250E+0	1.043433E+0	1.068233E+0	1.085210E+0	1.076911E+0	1.058639E+0	1.020844E+0	1.023490E+0	1.051786E+0	1.061917E+0	1.037473E+0	1.093373E+0	1.088046E+0	1.113008E+0	1.070042E+0	1.044123E+0	1.114613E+0	1.046237E+0	1.060219E+0	1.054826E+0	1.044731E+0	1.047809E+0	1.077642E+0	1.001658E+0	1.105195E+0	1.021248E+0	1.082371E+0	1.049894E+0	1.110808E+0	1.085495E+0	1.037024E+0	1.127576E+0	1.024758E+0	1.070145E+0	1.108027E+0	1.060005E+0	1.042797E+0	1.098446E+0	1.068321E+0	1.022546E+0	1.052554E+0	9.851980E-1	1.082350E+0	1.061183E+0	1.022226E+0	1.062715E+0	1.022638E+0	1.064749E+0	1.093432E+0	1.059345E+0	1.004342E+0	1.061247E+0	1.097359E+0	1.082538E+0	1.018703E+0	1.019959E+0	1.062387E+0	1.058101E+0	1.065053E+0	1.009642E+0	1.096653E+0	1.037583E+0	1.058364E+0	1.085221E+0	1.137554E+0	1.075613E+0	1.023969E+0	1.061929E+0	1.022017E+0	1.102988E+0	1.058825E+0	1.047691E+0	1.053549E+0	1.061248E+0	1.081611E+0	1.061412E+0	1.102615E+0	1.084428E+0	1.018324E+0	1.001066E+0	1.090008E+0
2.892040E+2	8.383151E-1	8.609504E-1	8.535182E-1	8.431196E-1	8.305131E-1	8.893947E-1	8.435332E-1	8.409861E-1	8.069671E-1	8.359479E-1	8.367024E-1	8.305596E-1	8.257790E-1	7.922727E-1	8.194115E-1	8.816389E-1	7.993773E-1	8.394344E-1	8.322409E-1	8.633839E-1	8.242687E-1	8.043013E-1	8.930014E-1	8.984855E-1	8.280923E-1	8.193479E-1	7.949726E-1	8.380394E-1	8.484193E-1	8.891275E-1	8.685646E-1	8.491492E-1	8.672658E-1	8.388159E-1	8.160900E-1	8.044455E-1	8.730813E-1	8.131634E-1	7.907590E-1	9.050665E-1	8.609471E-1	8.349399E-1	8.507321E-1	8.680062E-1	8.963124E-1	8.091679E-1	8.388757E-1	9.008571E-1	8.243051E-1	8.459410E-1	7.894103E-1	8.010713E-1	8.587024E-1	8.247423E-1	8.352255E-1	8.247741E-1	8.185677E-1	8.195441E-1	8.215268E-1	8.909010E-1	8.610604E-1	8.156512E-1	8.264020E-1	8.371341E-1	8.815091E-1	8.553907E-1	8.302684E-1	8.763905E-1	8.402416E-1	8.760411E-1	8.453525E-1	8.074797E-1	8.163847E-1	8.246035E-1	8.402875E-1	8.797151E-1	8.527898E-1	8.129302E-1	8.404458E-1	8.026487E-1	8.744215E-1	8.390132E-1	8.537972E-1	8.842012E-1	8.716441E-1	8.133543E-1	8.805400E-1	8.547660E-1	8.617958E-1	8.199447E-1	8.141070E-1	8.862000E-1	8.996749E-1	8.502129E-1	8.223980E-1	8.297273E-1	8.359840E-1	8.423121E-1	8.398442E-1	8.415023E-1	8.685659E-1	8.481642E-1	8.513824E-1	8.255516E-1	8.351204E-1	8.679890E-1	8.313464E-1	8.525768E-1	8.074720E-1	8.333698E-1	8.393901E-1	9.222563E-1	8.596599E-1	8.460964E-1	8.460719E-1	8.710659E-1	8.270606E-1	8.941762E-1	8.267949E-1	8.284649E-1	8.493563E-1	8.450811E-1	8.957535E-1	8.056276E-1	8.613291E-1	8.593897E-1	8.123030E-1	8.557061E-1	8.479401E-1	8.769409E-1	8.207202E-1	9.040926E-1	8.485885E-1	8.481007E-1	8.476264E-1	8.454926E-1	8.845032E-1	8.583246E-1	8.217106E-1	8.712013E-1	8.098670E-1	8.616596E-1	8.309059E-1	8.409738E-1	8.558415E-1	9.141007E-1	8.184945E-1	8.377941E-1	8.289565E-1	8.226389E-1	7.992612E-1	8.127515E-1	8.494090E-1	8.993270E-1	8.395048E-1	8.092366E-1	8.579553E-1	8.682540E-1	8.601231E-1	8.286429E-1	8.994706E-1	8.583967E-1	7.849110E-1	8.457217E-1	8.300138E-1	8.984767E-1	8.217723E-1	8.924463E-1	8.657475E-1	8.438879E-1	7.529864E-1	8.701865E-1
2.894050E+2	8.091503E-1	8.435210E-1	8.859497E-1	8.773218E-1	8.834781E-1	8.587354E-1	8.572566E-1	8.451114E-1	8.241704E-1	7.809456E-1	7.942802E-1	8.549677E-1	8.143736E-1	8.537699E-1	8.575691E-1	8.190093E-1	8.328566E-1	8.229561E-1	8.419441E-1	8.417824E-1	8.466948E-1	8.503815E-1	8.880130E-1	8.322906E-1	8.329369E-1	8.542460E-1	8.005154E-1	8.313055E-1	8.442437E-1	8.403559E-1	8.663337E-1	8.664268E-1	8.083777E-1	7.785955E-1	8.414937E-1	8.414894E-1	8.376524E-1	8.107451E-1	8.366168E-1	8.550566E-1	7.981373E-1	8.118129E-1	8.296150E-1	8.597771E-1	8.870790E-1	8.296577E-1	8.288645E-1	8.784934E-1	8.672133E-1	8.097709E-1	8.593810E-1	8.516120E-1	8.667736E-1	8.601619E-1	8.531962E-1	8.747541E-1	8.408547E-1	8.339854E-1	8.416780E-1	8.517865E-1	9.013923E-1	8.425731E-1	8.515914E-1	8.374284E-1	8.861705E-1	8.487444E-1	8.291640E-1	8.520342E-1	7.965828E-1	8.491055E-1	8.116787E-1	9.253662E-1	8.510288E-1	8.477714E-1	8.499041E-1	8.591666E-1	8.952711E-1	8.639172E-1	8.366216E-1	8.339477E-1	8.523129E-1	8.880595E-1	8.553634E-1	8.986777E-1	8.567552E-1	8.734910E-1	8.475249E-1	8.853443E-1	8.556765E-1	8.248587E-1	8.545735E-1	8.519413E-1	8.763957E-1	8.633116E-1	8.467184E-1	9.189749E-1	8.419834E-1	8.600079E-1	8.636555E-1	8.556028E-1	9.045126E-1	8.232114E-1	8.809768E-1	8.769319E-1	8.942210E-1	8.551131E-1	8.372440E-1	8.523222E-1	8.600469E-1	8.489172E-1	8.728914E-1	7.923032E-1	9.042287E-1	8.346640E-1	8.450135E-1	8.947641E-1	8.305211E-1	9.018768E-1	8.663864E-1	8.842055E-1	9.357937E-1	8.305756E-1	8.624689E-1	8.871184E-1	8.474834E-1	8.664915E-1	8.460600E-1	8.914280E-1	8.671116E-1	8.510759E-1	8.448475E-1	8.937230E-1	8.407191E-1	8.357736E-1	8.804559E-1	8.515171E-1	8.960066E-1	8.509652E-1	8.273603E-1	9.361021E-1	8.998996E-1	8.593976E-1	8.423801E-1	8.362817E-1	8.376379E-1	8.923499E-1	8.323681E-1	8.852143E-1	8.334122E-1	8.834294E-1	8.946397E-1	8.883194E-1	8.728524E-1	8.479907E-1	8.728148E-1	9.409239E-1	8.554059E-1	8.188181E-1	8.404170E-1	8.605140E-1	8.727745E-1	8.984034E-1	8.514702E-1	8.417478E-1	8.568644E-1	8.542922E-1	8.649699E-1	8.691937E-1	8.510909E-1	7.793731E-1	8.685422E-1	8.013769E-1
2.896080E+2	9.014172E-1	8.585995E-1	8.990964E-1	9.073264E-1	8.400701E-1	8.817250E-1	8.777219E-1	8.745565E-1	8.699801E-1	9.047166E-1	9.266710E-1	8.861110E-1	9.302966E-1	9.144899E-1	8.373977E-1	8.610123E-1	8.916689E-1	8.857208E-1	8.294817E-1	8.766188E-1	8.687706E-1	8.801049E-1	8.430792E-1	8.630988E-1	8.886928E-1	8.651403E-1	8.620052E-1	8.834826E-1	8.676635E-1	8.766754E-1	8.441943E-1	8.977482E-1	9.083438E-1	8.745805E-1	8.563516E-1	8.745783E-1	9.054162E-1	8.906036E-1	8.889437E-1	8.684267E-1	8.545100E-1	9.050872E-1	8.674975E-1	8.524357E-1	9.177075E-1	8.824268E-1	8.383890E-1	9.276654E-1	9.132647E-1	8.971848E-1	8.446888E-1	9.151418E-1	8.982582E-1	9.200460E-1	8.855803E-1	9.013259E-1	8.768292E-1	8.767141E-1	9.028361E-1	8.550923E-1	9.297319E-1	9.485124E-1	8.542146E-1	8.870119E-1	9.472715E-1	8.771475E-1	8.675394E-1	8.956490E-1	8.798959E-1	8.846248E-1	8.868951E-1	9.299247E-1	9.028095E-1	8.472185E-1	8.625022E-1	8.962941E-1	9.350775E-1	8.504155E-1	8.824384E-1	8.821441E-1	8.828118E-1	9.183270E-1	8.868272E-1	9.271334E-1	8.996078E-1	8.518580E-1	8.877015E-1	8.918426E-1	8.413914E-1	8.580332E-1	9.025940E-1	8.875145E-1	8.739114E-1	8.970684E-1	8.689188E-1	9.161842E-1	9.363347E-1	8.953168E-1	8.624579E-1	9.081510E-1	8.346047E-1	8.911102E-1	9.295972E-1	9.142917E-1	9.313060E-1	8.604382E-1	8.461304E-1	8.739554E-1	8.731229E-1	8.563098E-1	9.079420E-1	8.588567E-1	9.155281E-1	9.057296E-1	8.693994E-1	9.100307E-1	8.640598E-1	8.738064E-1	9.366159E-1	8.661904E-1	9.345069E-1	8.989622E-1	9.216431E-1	9.007145E-1	9.137846E-1	8.284149E-1	9.464483E-1	9.208498E-1	8.563746E-1	9.311261E-1	8.972450E-1	9.091497E-1	9.448894E-1	8.786519E-1	9.127980E-1	9.103489E-1	9.016921E-1	8.912455E-1	8.868914E-1	9.400061E-1	8.856391E-1	9.079415E-1	8.994247E-1	8.834780E-1	9.343200E-1	9.103833E-1	8.826173E-1	8.642512E-1	8.401053E-1	8.804161E-1	8.667589E-1	9.435511E-1	8.696822E-1	8.942929E-1	9.322304E-1	9.026191E-1	8.780004E-1	8.736690E-1	9.003423E-1	8.664180E-1	9.475225E-1	8.869861E-1	9.181156E-1	9.020553E-1	9.213893E-1	9.602160E-1	8.926581E-1	9.184427E-1	8.635136E-1	8.669653E-1	8.684105E-1	9.137574E-1
2.898030E+2	8.779985E-1	8.298964E-1	7.959615E-1	8.501122E-1	8.399918E-1	8.715226E-1	8.591146E-1	8.421541E-1	8.075675E-1	8.707470E-1	8.981663E-1	8.300147E-1	7.924320E-1	8.485609E-1	8.499825E-1	8.104222E-1	8.336708E-1	8.253943E-1	8.408484E-1	8.703492E-1	8.385079E-1	8.760746E-1	8.152623E-1	8.484689E-1	8.586042E-1	8.421273E-1	8.260342E-1	8.045708E-1	8.697589E-1	8.398792E-1	8.108974E-1	8.600845E-1	8.839174E-1	8.239004E-1	8.308426E-1	8.529126E-1	8.868194E-1	8.257977E-1	8.413880E-1	8.511757E-1	8.417148E-1	8.545730E-1	8.059251E-1	7.794316E-1	8.479938E-1	8.650294E-1	8.200912E-1	8.433567E-1	8.349488E-1	8.060049E-1	7.788896E-1	8.426593E-1	8.521912E-1	8.404792E-1	8.282455E-1	8.804667E-1	8.671153E-1	9.003487E-1	8.406891E-1	8.373644E-1	8.335620E-1	8.358418E-1	7.957536E-1	8.156522E-1	8.880618E-1	8.418612E-1	8.574710E-1	8.374280E-1	8.714071E-1	8.403824E-1	8.370868E-1	8.748561E-1	8.219461E-1	8.500826E-1	8.349558E-1	8.571822E-1	9.150986E-1	8.477387E-1	8.400489E-1	7.863726E-1	8.369452E-1	8.463670E-1	8.782361E-1	8.376161E-1	8.297789E-1	8.430513E-1	8.524554E-1	8.617006E-1	8.689371E-1	8.502918E-1	8.494194E-1	8.677336E-1	8.931155E-1	8.368242E-1	8.619431E-1	8.599497E-1	8.350709E-1	8.003443E-1	8.855939E-1	8.160766E-1	9.113923E-1	8.382849E-1	8.565666E-1	8.680705E-1	8.882413E-1	8.737625E-1	8.599739E-1	8.432062E-1	8.406590E-1	8.397346E-1	7.968694E-1	8.222713E-1	9.048943E-1	8.281690E-1	8.674531E-1	8.785288E-1	8.636066E-1	8.287427E-1	8.595609E-1	8.747153E-1	8.317646E-1	9.020376E-1	8.302789E-1	8.764516E-1	8.610877E-1	8.757723E-1	8.711107E-1	8.608222E-1	8.828584E-1	8.400790E-1	8.531064E-1	8.458576E-1	8.822228E-1	8.816655E-1	8.680229E-1	8.706319E-1	8.696577E-1	8.283445E-1	8.805533E-1	8.777265E-1	8.887358E-1	8.583212E-1	8.353139E-1	8.535783E-1	9.021346E-1	9.021880E-1	8.698418E-1	8.720717E-1	8.994789E-1	8.383925E-1	8.362016E-1	8.844342E-1	8.427426E-1	8.943773E-1	8.479866E-1	9.054072E-1	8.836633E-1	8.643587E-1	8.594827E-1	8.424906E-1	8.494653E-1	8.397870E-1	8.887610E-1	8.407132E-1	8.440387E-1	8.786630E-1	8.454111E-1	8.957812E-1	9.210669E-1	8.268411E-1	8.484934E-1	9.564857E-1
2.900020E+2	7.373337E-1	8.055424E-1	7.352625E-1	7.422646E-1	7.530269E-1	8.092728E-1	7.599980E-1	7.595842E-1	7.779466E-1	7.762941E-1	8.340628E-1	7.280808E-1	7.621847E-1	7.637463E-1	7.111636E-1	7.699198E-1	8.110187E-1	7.181629E-1	7.659929E-1	7.665048E-1	7.334210E-1	7.809043E-1	7.577904E-1	7.852917E-1	7.894031E-1	7.698537E-1	7.494201E-1	7.551985E-1	7.798979E-1	7.552141E-1	7.314513E-1	7.938199E-1	8.083276E-1	7.906917E-1	7.136516E-1	7.713193E-1	7.658327E-1	7.397258E-1	7.511078E-1	7.770789E-1	7.726706E-1	7.378036E-1	7.825617E-1	7.081433E-1	8.060820E-1	7.687532E-1	7.887015E-1	7.800994E-1	7.362332E-1	7.834223E-1	7.787699E-1	7.802631E-1	7.716896E-1	8.159637E-1	7.896699E-1	8.118561E-1	7.687107E-1	8.005228E-1	7.543920E-1	7.374590E-1	8.079677E-1	7.642851E-1	7.489713E-1	7.656136E-1	7.804024E-1	7.948889E-1	7.700426E-1	7.832061E-1	7.504527E-1	7.797705E-1	7.920940E-1	7.802975E-1	8.042413E-1	7.730068E-1	7.975322E-1	7.584320E-1	7.843524E-1	7.721520E-1	7.511056E-1	7.906483E-1	7.761241E-1	7.976763E-1	7.745426E-1	7.687873E-1	7.968326E-1	7.571274E-1	8.086015E-1	7.371934E-1	7.678842E-1	7.226170E-1	7.784030E-1	7.967003E-1	8.362487E-1	7.654401E-1	7.769374E-1	7.663393E-1	7.924256E-1	7.458383E-1	7.814076E-1	7.953602E-1	7.761172E-1	7.560632E-1	7.584659E-1	7.795927E-1	8.150331E-1	8.091055E-1	7.639918E-1	8.144444E-1	8.257114E-1	7.563939E-1	7.750186E-1	7.575521E-1	7.710676E-1	7.937476E-1	7.755631E-1	7.864760E-1	7.818413E-1	8.120574E-1	7.527659E-1	7.921071E-1	8.106195E-1	7.706138E-1	7.749277E-1	8.114923E-1	8.284809E-1	7.685378E-1	7.909086E-1	7.529420E-1	8.269266E-1	7.792402E-1	8.279786E-1	8.057325E-1	8.116899E-1	7.575563E-1	7.776860E-1	7.765947E-1	7.681793E-1	8.149720E-1	7.673231E-1	8.125688E-1	7.857289E-1	8.109823E-1	7.556195E-1	7.938463E-1	8.053216E-1	8.141140E-1	8.334760E-1	7.864183E-1	7.531478E-1	7.941061E-1	7.473821E-1	7.969999E-1	7.596106E-1	7.986131E-1	7.969490E-1	8.521165E-1	7.697252E-1	8.218352E-1	7.808050E-1	8.274308E-1	8.413971E-1	8.062090E-1	8.053832E-1	7.842637E-1	7.673741E-1	8.034933E-1	8.024021E-1	8.155939E-1	7.984131E-1	7.478259E-1	7.146308E-1	8.147225E-1
2.905120E+2	8.446977E-1	7.490703E-1	7.930474E-1	8.024878E-1	7.977858E-1	7.728738E-1	7.814895E-1	7.792376E-1	7.994138E-1	8.329882E-1	7.755676E-1	7.842067E-1	8.072672E-1	7.948017E-1	7.785569E-1	8.203703E-1	8.004661E-1	7.590757E-1	8.332552E-1	7.707374E-1	8.359457E-1	7.906400E-1	8.069683E-1	8.045638E-1	7.974313E-1	8.094996E-1	7.527938E-1	7.861839E-1	7.856952E-1	7.864819E-1	7.529190E-1	7.640218E-1	7.849815E-1	7.819241E-1	7.445096E-1	8.110497E-1	7.343886E-1	7.298661E-1	7.368921E-1	7.852467E-1	7.524935E-1	8.231531E-1	8.042720E-1	8.165997E-1	8.499700E-1	7.752443E-1	7.691864E-1	8.193641E-1	8.559280E-1	7.513410E-1	8.168530E-1	7.978261E-1	8.067010E-1	7.916646E-1	7.493943E-1	8.191742E-1	8.009735E-1	7.758773E-1	7.598440E-1	7.904833E-1	8.688622E-1	7.981701E-1	7.328200E-1	8.167525E-1	8.163211E-1	7.744853E-1	7.700027E-1	7.557571E-1	7.855019E-1	7.860778E-1	7.984592E-1	7.677891E-1	7.814616E-1	7.983090E-1	8.288623E-1	8.526505E-1	8.340334E-1	8.406604E-1	7.271318E-1	8.074266E-1	8.041922E-1	7.954252E-1	8.019796E-1	7.740187E-1	7.947217E-1	8.066175E-1	8.375069E-1	7.825377E-1	8.443983E-1	7.816151E-1	8.090224E-1	8.058945E-1	8.251185E-1	7.916779E-1	8.090772E-1	8.301570E-1	7.676234E-1	8.055237E-1	7.733318E-1	7.374737E-1	8.010304E-1	7.764067E-1	7.796053E-1	8.483665E-1	7.989186E-1	7.310751E-1	8.059152E-1	8.017333E-1	7.701619E-1	7.888031E-1	7.592981E-1	7.869716E-1	8.106042E-1	8.030886E-1	8.041078E-1	7.755232E-1	7.797844E-1	8.271102E-1	8.402341E-1	7.482942E-1	8.354792E-1	7.793819E-1	7.840873E-1	7.886900E-1	7.951325E-1	7.678733E-1	7.856282E-1	8.025207E-1	7.957411E-1	8.052262E-1	7.654535E-1	7.805020E-1	7.737114E-1	8.299110E-1	7.765045E-1	7.531709E-1	8.396185E-1	7.710375E-1	7.703332E-1	8.106375E-1	7.884577E-1	7.416042E-1	7.704938E-1	8.359031E-1	7.763211E-1	8.258256E-1	7.959791E-1	8.050366E-1	8.119780E-1	8.245557E-1	8.291250E-1	8.130017E-1	7.994159E-1	8.025032E-1	8.151661E-1	7.578562E-1	8.085495E-1	7.977185E-1	8.086985E-1	7.998093E-1	8.158668E-1	7.957825E-1	7.600501E-1	7.904522E-1	8.414262E-1	8.320293E-1	8.230782E-1	8.215511E-1	7.995812E-1	8.001210E-1	7.613488E-1	7.523975E-1
2.910040E+2	9.188547E-1	9.876355E-1	9.355697E-1	9.586257E-1	9.029062E-1	9.805537E-1	9.739205E-1	9.471558E-1	9.377256E-1	9.843631E-1	1.013142E+0	9.244449E-1	1.005028E+0	9.686130E-1	8.797138E-1	9.486904E-1	9.683275E-1	9.617926E-1	9.341148E-1	9.433348E-1	9.843052E-1	9.821679E-1	9.570397E-1	9.485296E-1	9.060084E-1	1.019899E+0	9.609714E-1	9.981115E-1	9.313938E-1	9.634613E-1	9.731030E-1	9.373480E-1	9.864254E-1	9.214292E-1	9.742411E-1	9.699172E-1	9.362882E-1	9.571144E-1	9.882647E-1	9.375096E-1	9.928808E-1	9.773618E-1	9.577240E-1	1.000880E+0	9.961559E-1	9.796138E-1	9.820523E-1	9.751113E-1	9.747087E-1	9.710201E-1	9.792783E-1	9.596826E-1	1.035025E+0	9.714424E-1	9.308121E-1	1.013186E+0	1.030360E+0	9.899741E-1	9.640696E-1	9.451297E-1	9.671098E-1	9.833906E-1	9.235283E-1	9.797931E-1	9.889162E-1	9.379644E-1	9.820319E-1	8.990924E-1	9.480884E-1	9.364969E-1	9.550287E-1	1.015595E+0	1.020360E+0	9.688572E-1	9.911263E-1	9.425260E-1	1.017678E+0	9.591253E-1	9.069662E-1	9.957313E-1	9.214835E-1	9.870438E-1	1.005091E+0	9.440540E-1	1.004481E+0	9.964864E-1	9.770919E-1	9.964330E-1	9.353648E-1	9.295813E-1	1.009695E+0	9.702822E-1	1.005777E+0	9.759680E-1	9.419126E-1	1.000992E+0	1.002213E+0	1.008373E+0	9.562855E-1	1.027797E+0	1.013602E+0	9.628006E-1	9.234281E-1	9.551475E-1	9.751085E-1	9.783862E-1	9.880807E-1	9.808238E-1	1.033483E+0	9.492510E-1	9.765140E-1	9.710705E-1	1.000665E+0	9.864493E-1	9.409979E-1	9.960141E-1	1.021929E+0	9.533204E-1	1.005792E+0	9.490314E-1	9.327901E-1	9.866355E-1	9.945815E-1	9.489676E-1	1.001661E+0	9.637533E-1	1.016240E+0	9.425302E-1	9.828208E-1	9.852614E-1	9.467195E-1	9.754791E-1	9.677915E-1	9.882528E-1	9.992307E-1	9.457103E-1	9.449426E-1	9.429568E-1	9.340576E-1	9.643824E-1	1.022743E+0	9.523035E-1	9.109172E-1	9.701276E-1	9.897423E-1	9.560021E-1	9.832314E-1	9.334958E-1	9.877643E-1	1.011660E+0	1.016872E+0	9.408780E-1	9.816567E-1	9.611030E-1	9.689429E-1	9.934608E-1	9.909269E-1	9.533135E-1	9.984204E-1	9.868827E-1	1.033923E+0	9.905270E-1	9.964040E-1	9.459296E-1	1.029271E+0	1.004850E+0	9.706590E-1	9.916653E-1	1.044653E+0	9.069506E-1	1.013724E+0	8.320254E-1
2.915240E+2	1.139132E+0	1.120700E+0	1.080619E+0	1.176306E+0	1.077882E+0	1.155748E+0	1.143470E+0	1.141689E+0	1.096275E+0	1.115955E+0	1.161000E+0	1.095946E+0	1.133360E+0	1.076761E+0	1.105571E+0	1.144623E+0	1.122474E+0	1.100914E+0	1.113715E+0	1.085993E+0	1.123928E+0	1.053693E+0	1.150534E+0	1.080151E+0	1.104426E+0	1.064790E+0	1.097681E+0	1.104157E+0	1.204276E+0	1.108092E+0	1.083323E+0	1.099119E+0	1.164396E+0	1.061228E+0	1.124165E+0	1.082632E+0	1.196551E+0	1.055776E+0	1.083213E+0	1.048192E+0	1.066698E+0	1.093861E+0	1.078947E+0	1.117233E+0	1.125575E+0	1.122029E+0	1.129461E+0	1.159970E+0	1.100172E+0	1.113253E+0	1.111056E+0	1.130586E+0	1.083267E+0	1.090384E+0	1.152433E+0	1.127299E+0	1.134314E+0	1.160438E+0	1.034080E+0	1.150787E+0	1.153871E+0	1.090160E+0	1.101632E+0	1.089901E+0	1.185552E+0	1.101944E+0	1.123056E+0	1.089814E+0	1.121060E+0	1.115845E+0	1.122011E+0	1.132539E+0	1.114394E+0	1.107857E+0	1.124745E+0	1.107950E+0	1.126199E+0	1.075235E+0	1.167905E+0	1.120446E+0	1.150968E+0	1.099824E+0	1.108771E+0	1.105489E+0	1.105824E+0	1.098485E+0	1.125975E+0	1.123563E+0	1.089417E+0	1.054172E+0	1.156235E+0	1.106637E+0	1.114753E+0	1.175223E+0	1.169976E+0	1.125887E+0	1.130007E+0	1.149491E+0	1.093132E+0	1.082024E+0	1.114759E+0	1.111313E+0	1.149587E+0	1.078825E+0	1.145203E+0	1.091342E+0	1.143436E+0	1.173161E+0	1.154388E+0	1.072612E+0	1.141497E+0	1.061164E+0	1.121626E+0	1.080062E+0	1.101032E+0	1.185803E+0	1.119213E+0	1.147660E+0	1.151170E+0	1.080109E+0	1.111307E+0	1.107909E+0	1.165323E+0	1.146367E+0	1.159410E+0	1.114955E+0	1.127680E+0	1.112685E+0	1.139040E+0	1.128933E+0	1.143575E+0	1.169553E+0	1.118689E+0	1.185393E+0	1.138620E+0	1.102873E+0	1.170836E+0	1.098178E+0	1.120928E+0	1.135520E+0	1.145392E+0	1.140874E+0	1.118717E+0	1.127704E+0	1.093114E+0	1.197045E+0	1.050808E+0	1.073655E+0	1.126010E+0	1.170749E+0	1.121120E+0	1.136151E+0	1.149025E+0	1.121407E+0	1.103604E+0	1.197063E+0	1.126919E+0	1.113151E+0	1.109596E+0	1.113788E+0	1.162637E+0	1.140765E+0	1.139567E+0	1.129346E+0	1.107405E+0	1.146270E+0	1.146442E+0	1.084662E+0	1.190894E+0	1.062023E+0	1.118393E+0	1.044922E+0
2.920030E+2	9.421693E-1	1.004372E+0	1.003239E+0	1.021731E+0	9.674919E-1	9.836768E-1	9.631899E-1	9.856850E-1	9.769586E-1	9.547674E-1	9.621044E-1	9.409141E-1	9.734043E-1	9.594586E-1	9.523711E-1	1.019506E+0	1.015236E+0	8.565366E-1	1.029105E+0	9.625624E-1	9.631521E-1	9.436114E-1	9.605788E-1	9.771398E-1	9.708861E-1	9.381148E-1	9.433567E-1	9.727247E-1	1.031515E+0	9.210969E-1	9.413316E-1	9.188618E-1	9.840880E-1	9.725636E-1	9.205911E-1	9.607334E-1	9.762817E-1	9.283392E-1	9.117378E-1	9.614588E-1	1.000332E+0	9.639904E-1	9.733592E-1	9.797370E-1	9.781189E-1	1.024384E+0	9.291315E-1	9.781386E-1	9.879653E-1	9.585180E-1	9.845503E-1	9.818734E-1	1.003845E+0	1.007069E+0	9.984072E-1	9.538216E-1	9.501445E-1	9.563827E-1	9.202595E-1	8.956538E-1	1.022404E+0	9.950251E-1	9.975125E-1	9.686388E-1	9.796045E-1	9.640900E-1	9.500346E-1	9.760430E-1	9.503614E-1	9.494961E-1	1.001231E+0	9.727571E-1	9.893695E-1	9.494463E-1	9.800938E-1	1.033702E+0	9.924718E-1	9.640352E-1	9.586074E-1	9.599604E-1	9.659410E-1	9.860720E-1	9.823007E-1	9.955936E-1	9.634798E-1	9.989755E-1	9.768739E-1	9.521980E-1	9.647639E-1	9.473896E-1	9.994970E-1	9.990584E-1	1.007458E+0	1.021636E+0	9.839366E-1	9.625989E-1	9.963451E-1	9.672781E-1	9.714249E-1	1.029124E+0	9.832880E-1	9.720843E-1	1.012585E+0	9.825844E-1	9.887226E-1	1.000111E+0	9.750879E-1	1.011370E+0	1.070534E+0	9.534723E-1	9.899430E-1	9.377228E-1	1.053076E+0	9.650839E-1	1.000719E+0	9.454142E-1	1.070372E+0	1.001136E+0	9.882557E-1	1.006135E+0	1.001953E+0	9.503742E-1	1.014104E+0	9.540945E-1	1.009668E+0	9.816473E-1	9.840765E-1	9.681981E-1	1.036900E+0	9.577333E-1	1.032764E+0	9.383420E-1	9.482312E-1	1.029407E+0	9.748039E-1	9.684310E-1	1.005120E+0	1.003057E+0	9.896775E-1	1.027858E+0	1.013167E+0	9.603894E-1	1.000855E+0	9.623690E-1	9.521985E-1	9.609747E-1	9.398747E-1	9.804177E-1	9.757321E-1	1.040210E+0	9.876578E-1	9.961583E-1	9.830218E-1	9.476507E-1	9.864393E-1	1.012349E+0	1.066649E+0	9.850670E-1	9.350750E-1	9.486277E-1	9.508854E-1	9.448605E-1	9.503795E-1	9.544385E-1	9.814742E-1	9.949108E-1	9.685109E-1	1.014178E+0	1.030600E+0	9.727484E-1	1.021893E+0	9.765946E-1
2.925000E+2	9.222098E-1	9.268232E-1	9.686964E-1	9.498443E-1	9.694196E-1	9.766574E-1	1.017145E+0	1.004485E+0	9.669912E-1	9.716372E-1	1.017155E+0	1.019188E+0	1.003819E+0	9.623156E-1	9.088814E-1	9.909125E-1	9.686134E-1	9.266272E-1	9.595356E-1	1.023514E+0	9.325932E-1	9.455002E-1	9.228838E-1	9.366136E-1	9.497699E-1	9.744487E-1	8.955332E-1	9.872695E-1	1.015350E+0	9.725499E-1	9.591321E-1	9.282151E-1	1.023828E+0	9.172426E-1	9.510439E-1	9.179236E-1	9.388227E-1	9.584697E-1	9.915017E-1	9.890905E-1	1.016906E+0	9.920315E-1	9.854273E-1	9.270896E-1	9.921256E-1	9.596809E-1	9.994399E-1	1.045583E+0	1.000198E+0	9.530208E-1	9.496308E-1	9.976103E-1	9.507694E-1	1.001364E+0	1.009096E+0	9.706637E-1	9.986173E-1	1.004893E+0	9.545808E-1	9.905222E-1	9.856111E-1	9.398738E-1	9.661189E-1	9.521312E-1	1.058484E+0	9.916181E-1	9.637877E-1	9.124487E-1	9.689820E-1	9.554422E-1	9.743055E-1	9.616310E-1	1.003224E+0	9.701495E-1	9.245400E-1	1.031088E+0	9.942787E-1	9.241876E-1	9.669561E-1	9.271252E-1	8.974773E-1	9.532433E-1	9.641422E-1	9.953228E-1	9.562893E-1	9.563483E-1	9.817506E-1	9.574866E-1	1.013803E+0	9.913576E-1	9.402342E-1	9.509742E-1	1.048248E+0	9.727015E-1	9.466456E-1	9.299375E-1	9.606901E-1	9.257967E-1	9.884035E-1	9.394485E-1	9.434118E-1	9.753957E-1	1.036597E+0	1.024985E+0	1.001344E+0	9.399585E-1	9.682961E-1	9.679875E-1	9.698124E-1	9.413078E-1	9.600622E-1	9.582170E-1	9.942785E-1	9.439030E-1	9.361554E-1	1.004143E+0	9.668930E-1	9.596992E-1	9.803227E-1	9.291980E-1	9.732300E-1	9.648701E-1	9.724800E-1	9.562574E-1	1.009528E+0	9.975784E-1	9.815495E-1	9.420118E-1	9.812563E-1	9.947644E-1	9.956805E-1	9.545229E-1	1.006372E+0	9.589246E-1	9.448950E-1	9.657523E-1	9.552062E-1	9.767144E-1	1.011344E+0	9.592319E-1	9.724471E-1	9.467333E-1	9.931642E-1	9.562200E-1	9.735717E-1	9.566795E-1	9.499399E-1	9.600925E-1	1.012531E+0	9.792329E-1	9.496759E-1	9.230538E-1	9.940191E-1	9.735588E-1	9.581796E-1	9.841681E-1	9.663306E-1	9.287732E-1	9.805371E-1	1.008783E+0	9.356980E-1	1.024717E+0	8.981315E-1	9.959916E-1	9.786122E-1	9.488695E-1	1.004225E+0	9.582456E-1	1.052814E+0	9.071745E-1	9.939857E-1	9.310646E-1
2.930040E+2	1.073172E+0	1.063253E+0	1.073730E+0	1.102155E+0	1.039778E+0	1.044540E+0	1.044453E+0	1.105979E+0	1.025862E+0	1.043641E+0	1.050805E+0	1.031882E+0	1.072579E+0	1.056612E+0	1.016489E+0	1.074927E+0	1.080603E+0	9.936455E-1	1.022360E+0	1.067798E+0	1.049898E+0	1.007085E+0	1.009799E+0	1.039266E+0	1.068117E+0	1.077860E+0	9.952261E-1	1.072513E+0	1.088963E+0	1.093623E+0	1.049560E+0	1.008974E+0	1.133519E+0	1.039098E+0	1.039821E+0	1.068086E+0	1.104605E+0	9.830635E-1	1.054133E+0	1.080634E+0	1.074481E+0	1.064592E+0	1.048891E+0	1.040068E+0	1.109544E+0	1.072546E+0	1.031827E+0	1.060525E+0	1.119546E+0	1.003607E+0	1.073529E+0	1.128508E+0	1.076030E+0	1.024006E+0	1.079168E+0	1.090552E+0	1.027480E+0	1.111130E+0	9.805799E-1	1.044379E+0	1.084354E+0	1.089151E+0	9.864093E-1	1.063110E+0	1.077591E+0	1.057410E+0	1.080816E+0	1.072044E+0	1.046974E+0	1.052347E+0	9.669213E-1	1.082197E+0	1.059273E+0	1.043293E+0	1.008865E+0	1.039660E+0	1.075648E+0	1.106880E+0	1.064165E+0	1.040458E+0	1.102348E+0	1.065812E+0	1.099922E+0	1.127209E+0	1.044133E+0	1.072285E+0	1.061479E+0	1.059339E+0	1.062353E+0	1.054906E+0	1.052697E+0	1.071024E+0	1.111399E+0	1.065083E+0	1.015657E+0	1.083269E+0	9.944494E-1	1.066403E+0	1.005490E+0	1.081729E+0	1.087448E+0	1.024439E+0	1.079886E+0	1.036183E+0	1.051980E+0	1.087436E+0	1.069549E+0	1.042164E+0	1.074074E+0	1.064524E+0	1.117402E+0	1.026941E+0	1.050784E+0	1.042725E+0	9.903638E-1	1.033016E+0	1.080659E+0	1.098761E+0	1.091987E+0	1.045013E+0	1.066107E+0	1.130136E+0	1.033792E+0	1.026742E+0	1.085938E+0	1.100714E+0	1.048060E+0	1.051199E+0	1.028930E+0	1.095676E+0	1.014095E+0	1.113477E+0	1.111221E+0	1.113298E+0	1.054150E+0	1.036366E+0	1.042357E+0	1.031906E+0	1.087205E+0	1.045005E+0	1.066383E+0	1.083517E+0	1.035411E+0	1.042002E+0	1.035648E+0	1.062715E+0	1.065452E+0	1.071877E+0	1.089782E+0	1.126824E+0	1.039580E+0	1.105311E+0	1.039785E+0	1.067546E+0	1.067143E+0	1.081695E+0	1.082966E+0	1.043521E+0	1.073200E+0	1.058227E+0	1.052947E+0	1.055547E+0	1.021725E+0	1.091398E+0	1.088437E+0	1.080585E+0	1.043384E+0	1.079393E+0	1.079164E+0	1.062534E+0	1.152809E+0	1.014194E+0
2.935120E+2	1.141022E+0	1.093792E+0	1.167014E+0	1.105478E+0	1.112405E+0	1.126872E+0	1.059990E+0	1.147015E+0	1.135210E+0	1.180353E+0	1.158533E+0	1.121927E+0	1.179156E+0	1.111611E+0	1.099637E+0	1.108087E+0	1.099780E+0	1.052706E+0	1.084857E+0	1.156012E+0	1.128932E+0	1.148572E+0	1.109567E+0	1.174307E+0	1.120692E+0	1.195324E+0	1.117238E+0	1.099195E+0	1.143077E+0	1.143363E+0	1.082530E+0	1.063959E+0	1.162459E+0	1.133671E+0	1.067214E+0	1.112799E+0	1.119305E+0	1.128061E+0	1.151300E+0	1.140976E+0	1.177373E+0	1.097318E+0	1.109349E+0	1.144163E+0	1.197844E+0	1.183885E+0	1.126572E+0	1.159989E+0	1.129564E+0	1.113181E+0	1.154874E+0	1.130668E+0	1.118025E+0	1.164082E+0	1.110827E+0	1.085127E+0	1.071513E+0	1.125524E+0	1.089436E+0	1.109724E+0	1.163377E+0	1.128604E+0	1.102040E+0	1.194095E+0	1.194834E+0	1.141383E+0	1.118207E+0	1.078361E+0	1.158578E+0	1.095597E+0	1.118059E+0	1.141625E+0	1.177499E+0	1.137222E+0	1.153518E+0	1.120789E+0	1.165628E+0	1.122998E+0	1.105231E+0	1.106832E+0	1.151200E+0	1.136347E+0	1.161263E+0	1.131908E+0	1.198461E+0	1.121717E+0	1.100639E+0	1.110813E+0	1.151287E+0	1.141870E+0	1.088297E+0	1.105544E+0	1.171675E+0	1.153789E+0	1.084990E+0	1.108981E+0	1.148042E+0	1.120897E+0	1.106771E+0	1.168545E+0	1.160054E+0	1.101241E+0	1.117213E+0	1.149814E+0	1.224240E+0	1.127389E+0	1.106994E+0	1.130198E+0	1.161014E+0	1.124786E+0	1.116608E+0	1.056778E+0	1.177553E+0	1.074499E+0	1.133814E+0	1.133408E+0	1.088035E+0	1.136201E+0	1.171448E+0	1.139961E+0	1.137521E+0	1.105555E+0	1.124029E+0	1.153693E+0	1.203568E+0	1.147379E+0	1.151979E+0	1.072572E+0	1.149014E+0	1.112402E+0	1.098000E+0	1.124158E+0	1.116795E+0	1.111798E+0	1.136328E+0	1.109390E+0	1.188735E+0	1.149641E+0	1.158325E+0	1.160195E+0	1.158205E+0	1.154795E+0	1.173149E+0	1.148328E+0	1.142479E+0	1.129848E+0	1.086729E+0	1.153416E+0	1.132668E+0	1.173816E+0	1.117024E+0	1.099746E+0	1.135947E+0	1.108036E+0	1.167197E+0	1.120921E+0	1.124913E+0	1.108931E+0	1.138639E+0	1.154648E+0	1.182028E+0	1.044800E+0	1.108870E+0	1.180769E+0	1.114759E+0	1.170037E+0	1.127017E+0	1.140381E+0	1.222960E+0	1.105367E+0	1.203722E+0	1.167017E+0
2.940080E+2	1.025664E+0	1.026468E+0	1.050049E+0	1.037145E+0	9.770336E-1	1.022248E+0	1.042732E+0	1.006414E+0	1.033608E+0	1.025964E+0	1.053249E+0	1.037716E+0	9.881348E-1	1.049604E+0	1.034447E+0	1.033628E+0	1.003932E+0	1.018776E+0	1.037339E+0	1.030321E+0	9.894421E-1	1.014362E+0	1.052192E+0	1.057742E+0	1.000293E+0	1.038044E+0	1.012263E+0	1.029031E+0	1.051065E+0	1.064425E+0	1.053474E+0	9.969311E-1	1.080937E+0	9.828504E-1	1.031992E+0	1.046773E+0	1.060531E+0	9.905686E-1	1.002499E+0	1.033984E+0	1.013290E+0	1.058495E+0	1.006302E+0	1.037871E+0	1.092610E+0	9.801169E-1	1.013576E+0	1.021411E+0	9.674874E-1	1.033352E+0	1.014484E+0	1.100337E+0	1.073868E+0	1.043952E+0	1.056353E+0	1.065266E+0	1.023683E+0	1.028535E+0	9.799698E-1	1.063853E+0	1.053377E+0	1.047503E+0	1.035484E+0	1.015423E+0	1.063888E+0	1.051117E+0	1.053311E+0	9.574700E-1	1.025722E+0	1.051961E+0	9.827872E-1	1.045686E+0	1.046267E+0	9.804599E-1	1.012810E+0	1.037574E+0	1.097528E+0	1.026975E+0	1.078243E+0	1.021925E+0	1.057706E+0	1.008478E+0	1.031552E+0	1.086969E+0	1.065197E+0	1.010709E+0	1.052444E+0	9.923729E-1	9.863017E-1	9.779296E-1	1.121144E+0	1.063912E+0	9.976307E-1	1.034054E+0	1.044910E+0	1.058827E+0	1.018836E+0	1.035882E+0	1.014826E+0	1.050028E+0	1.040802E+0	1.006254E+0	1.052644E+0	1.071790E+0	1.093862E+0	1.014619E+0	1.032040E+0	1.033130E+0	1.060388E+0	1.017725E+0	1.049933E+0	1.046154E+0	1.048148E+0	9.921798E-1	1.048409E+0	1.033476E+0	1.024594E+0	1.035194E+0	1.048180E+0	1.056560E+0	1.018898E+0	9.714706E-1	1.016252E+0	1.021417E+0	1.040646E+0	1.053978E+0	1.028646E+0	1.058413E+0	1.091623E+0	9.945336E-1	9.921981E-1	1.012040E+0	1.018017E+0	1.028210E+0	1.030620E+0	1.018772E+0	1.025155E+0	1.010341E+0	1.011891E+0	1.106458E+0	1.048459E+0	1.041291E+0	1.017935E+0	1.051859E+0	1.094961E+0	1.079596E+0	9.831346E-1	1.052044E+0	1.023347E+0	1.069426E+0	1.066928E+0	1.059852E+0	1.103523E+0	1.030334E+0	1.018382E+0	1.051244E+0	1.081707E+0	1.025975E+0	1.014799E+0	1.003161E+0	1.103194E+0	1.081119E+0	1.029229E+0	9.956554E-1	1.070725E+0	1.049723E+0	1.078036E+0	1.045127E+0	1.076150E+0	9.583425E-1	9.599871E-1	9.317484E-1
2.945010E+2	9.592501E-1	9.485574E-1	9.060417E-1	9.266768E-1	9.205424E-1	9.537242E-1	9.224362E-1	9.533671E-1	9.185800E-1	9.378285E-1	9.440521E-1	9.533425E-1	9.279108E-1	9.140113E-1	8.887421E-1	1.013539E+0	9.836719E-1	9.173712E-1	9.670559E-1	9.382268E-1	9.495554E-1	9.387014E-1	9.105898E-1	9.637273E-1	9.293277E-1	9.403858E-1	8.782113E-1	9.707413E-1	9.308255E-1	9.356295E-1	9.611784E-1	9.236015E-1	9.822274E-1	9.489423E-1	9.651729E-1	9.453074E-1	9.631228E-1	9.308399E-1	8.888380E-1	8.973111E-1	9.644044E-1	9.471648E-1	9.280146E-1	9.943488E-1	9.685733E-1	9.629566E-1	9.698519E-1	9.689881E-1	9.210072E-1	9.888286E-1	9.777432E-1	9.513329E-1	9.533097E-1	9.972571E-1	9.740586E-1	9.662997E-1	9.665856E-1	9.714369E-1	9.339580E-1	9.516418E-1	9.830397E-1	9.690775E-1	8.906173E-1	9.045123E-1	9.593855E-1	9.301301E-1	9.684950E-1	9.864881E-1	9.451171E-1	9.378459E-1	9.492967E-1	9.568982E-1	9.383431E-1	9.195124E-1	9.689415E-1	9.896036E-1	9.434808E-1	9.664262E-1	9.510348E-1	9.688462E-1	9.524461E-1	9.410338E-1	9.682315E-1	9.356695E-1	9.635955E-1	9.053331E-1	9.114735E-1	9.544935E-1	9.561119E-1	9.269266E-1	9.481200E-1	8.960830E-1	9.872265E-1	9.544792E-1	9.533090E-1	9.204227E-1	9.361553E-1	9.125185E-1	9.741450E-1	8.726567E-1	9.489594E-1	9.357832E-1	9.645824E-1	9.681175E-1	9.188043E-1	9.813707E-1	9.636896E-1	9.509438E-1	9.092152E-1	9.471640E-1	9.350038E-1	9.742816E-1	9.403146E-1	9.738042E-1	9.161081E-1	9.385652E-1	9.278307E-1	9.645049E-1	9.629132E-1	9.399810E-1	9.907881E-1	9.814952E-1	9.689799E-1	9.363759E-1	9.408072E-1	9.773603E-1	9.521178E-1	9.804060E-1	9.579487E-1	8.863173E-1	9.665743E-1	9.048402E-1	9.605597E-1	9.573270E-1	9.899746E-1	9.185611E-1	1.037938E+0	9.721183E-1	9.344091E-1	9.671249E-1	1.022752E+0	9.329075E-1	9.298567E-1	9.798865E-1	9.982569E-1	9.375838E-1	9.516543E-1	9.356858E-1	9.933149E-1	9.476554E-1	9.751712E-1	9.546249E-1	9.924631E-1	9.434651E-1	9.106311E-1	9.560287E-1	9.964483E-1	9.557517E-1	9.520200E-1	9.206675E-1	9.214978E-1	9.815450E-1	9.344347E-1	9.670009E-1	9.625205E-1	9.796791E-1	9.703179E-1	9.583227E-1	9.995497E-1	8.825109E-1	8.888475E-1	9.846861E-1
2.950070E+2	9.388117E-1	9.412872E-1	9.472949E-1	9.833694E-1	9.257221E-1	9.522405E-1	9.143305E-1	9.604937E-1	9.233559E-1	9.499699E-1	1.013684E+0	9.495857E-1	9.765336E-1	9.414949E-1	9.153191E-1	9.827882E-1	9.205488E-1	8.859634E-1	9.516218E-1	9.719596E-1	9.357536E-1	9.560096E-1	8.956513E-1	9.954403E-1	9.316842E-1	9.625494E-1	9.255644E-1	9.302226E-1	9.882547E-1	9.804821E-1	9.318435E-1	9.093222E-1	9.856291E-1	9.364997E-1	9.047350E-1	1.000656E+0	9.426125E-1	9.173938E-1	9.223024E-1	1.017539E+0	9.590161E-1	9.605111E-1	9.246738E-1	9.836075E-1	9.992898E-1	9.226873E-1	9.145191E-1	9.565419E-1	9.760877E-1	9.414228E-1	9.523589E-1	9.625332E-1	1.002588E+0	9.593350E-1	9.788438E-1	9.703179E-1	9.439490E-1	9.478475E-1	9.227240E-1	9.653439E-1	9.497080E-1	9.664582E-1	9.057070E-1	9.495472E-1	9.616563E-1	9.959973E-1	9.710719E-1	9.283328E-1	9.348217E-1	9.472344E-1	9.236863E-1	9.497942E-1	9.957263E-1	9.063738E-1	9.605283E-1	9.599780E-1	9.904556E-1	9.042521E-1	9.277099E-1	9.385495E-1	9.603604E-1	9.918262E-1	9.575960E-1	9.455084E-1	9.168555E-1	9.413227E-1	9.308157E-1	1.001471E+0	9.487853E-1	9.332396E-1	9.746692E-1	9.271736E-1	9.699434E-1	1.023042E+0	9.638820E-1	1.016014E+0	9.717997E-1	9.520046E-1	9.650999E-1	9.426383E-1	9.797728E-1	9.439074E-1	9.833427E-1	9.582633E-1	9.870886E-1	1.006385E+0	9.902456E-1	9.898322E-1	9.905970E-1	9.543679E-1	9.405009E-1	9.787299E-1	9.661750E-1	9.757481E-1	9.555591E-1	9.403985E-1	9.792661E-1	9.777838E-1	9.822564E-1	9.610629E-1	9.879486E-1	9.356615E-1	1.000816E+0	1.017261E+0	9.551334E-1	9.713038E-1	9.384338E-1	9.366569E-1	9.916160E-1	9.675133E-1	9.163528E-1	9.620643E-1	9.671306E-1	9.440542E-1	9.443523E-1	9.074360E-1	9.908968E-1	9.541559E-1	9.400301E-1	9.448218E-1	1.014885E+0	9.906126E-1	9.270606E-1	9.963750E-1	9.718589E-1	9.935250E-1	9.133549E-1	9.336939E-1	9.396467E-1	9.524508E-1	9.697322E-1	9.699535E-1	9.420212E-1	9.883215E-1	9.666664E-1	9.672368E-1	9.611461E-1	9.556187E-1	9.859965E-1	9.524933E-1	9.925250E-1	9.331566E-1	9.576013E-1	9.690141E-1	9.803537E-1	9.807678E-1	9.472132E-1	9.679014E-1	1.011705E+0	8.599561E-1	9.446357E-1	9.600475E-1
2.955070E+2	1.061607E+0	9.996963E-1	1.105915E+0	1.094935E+0	1.027235E+0	1.026048E+0	1.029349E+0	1.096442E+0	1.023987E+0	1.039564E+0	1.058845E+0	9.993619E-1	1.033996E+0	1.071831E+0	1.029267E+0	9.965918E-1	1.017932E+0	1.050556E+0	1.009642E+0	1.039318E+0	1.032191E+0	1.008275E+0	1.029117E+0	1.039934E+0	1.024882E+0	1.020534E+0	1.004828E+0	1.023651E+0	1.048502E+0	1.073577E+0	1.063267E+0	1.017734E+0	1.031717E+0	1.016627E+0	1.054896E+0	1.067135E+0	1.042918E+0	1.087402E+0	1.030668E+0	1.025868E+0	1.066451E+0	1.045311E+0	9.928970E-1	1.004543E+0	1.115163E+0	1.033182E+0	1.038199E+0	1.054053E+0	1.079976E+0	1.001995E+0	1.017110E+0	1.048150E+0	1.057705E+0	1.084883E+0	1.056961E+0	9.938597E-1	1.036537E+0	1.017947E+0	1.019367E+0	1.044155E+0	1.040302E+0	1.028524E+0	1.053548E+0	1.037322E+0	1.049030E+0	1.103157E+0	1.077409E+0	1.059325E+0	9.802044E-1	1.080235E+0	1.018040E+0	1.059511E+0	1.031399E+0	1.060315E+0	1.058956E+0	1.034850E+0	1.075572E+0	1.044960E+0	1.028094E+0	1.014716E+0	1.088375E+0	1.020278E+0	1.064861E+0	1.071517E+0	1.013330E+0	1.032148E+0	1.037786E+0	1.111713E+0	1.034963E+0	9.970630E-1	9.863685E-1	1.062528E+0	1.076415E+0	1.086203E+0	1.010712E+0	1.090475E+0	1.021763E+0	1.057199E+0	1.058378E+0	1.002991E+0	1.037523E+0	1.049063E+0	1.080050E+0	1.083803E+0	1.077651E+0	1.096149E+0	1.066488E+0	1.032557E+0	1.020145E+0	1.006366E+0	1.062441E+0	1.066937E+0	1.074266E+0	1.038233E+0	1.047173E+0	1.021100E+0	1.076020E+0	1.009381E+0	1.036158E+0	1.081193E+0	1.039648E+0	1.038162E+0	1.070236E+0	1.044620E+0	9.988534E-1	1.091069E+0	1.074562E+0	1.065976E+0	1.044841E+0	1.028923E+0	1.083443E+0	1.043303E+0	1.065044E+0	1.081680E+0	1.066503E+0	1.039326E+0	1.099651E+0	1.022756E+0	1.048247E+0	1.072875E+0	1.085085E+0	1.008111E+0	1.062287E+0	1.067657E+0	1.055272E+0	1.076854E+0	1.026295E+0	1.027068E+0	1.051626E+0	1.075509E+0	1.063533E+0	1.051693E+0	1.040633E+0	1.069117E+0	1.012761E+0	1.088890E+0	1.062960E+0	1.038158E+0	1.080410E+0	1.060862E+0	1.136805E+0	1.062517E+0	1.044406E+0	1.032552E+0	1.040361E+0	1.060172E+0	1.048314E+0	1.088724E+0	1.092420E+0	1.060928E+0	1.030275E+0	1.055826E+0
2.960030E+2	1.080889E+0	1.096094E+0	1.105940E+0	1.073305E+0	1.087836E+0	1.080500E+0	1.086066E+0	1.125347E+0	1.046432E+0	1.088178E+0	1.109727E+0	1.084624E+0	1.099990E+0	1.110304E+0	1.095967E+0	1.078967E+0	1.071042E+0	1.045121E+0	1.132286E+0	1.142684E+0	1.112673E+0	1.035993E+0	1.095333E+0	1.103216E+0	1.098566E+0	1.092378E+0	1.082334E+0	1.114158E+0	1.101270E+0	1.053257E+0	1.040051E+0	1.059088E+0	1.082705E+0	1.114211E+0	1.085321E+0	1.097275E+0	1.070475E+0	1.043339E+0	1.074791E+0	1.115975E+0	1.082564E+0	1.070844E+0	1.100160E+0	1.090563E+0	1.108745E+0	1.103456E+0	1.036442E+0	1.142217E+0	1.046344E+0	1.071414E+0	1.061471E+0	1.105797E+0	1.117962E+0	1.103510E+0	1.050837E+0	1.092824E+0	1.091041E+0	1.084290E+0	1.023695E+0	1.121862E+0	1.098172E+0	1.083426E+0	1.078769E+0	1.146796E+0	1.149164E+0	1.075777E+0	1.088970E+0	1.060665E+0	1.080740E+0	1.096925E+0	1.044586E+0	1.112678E+0	1.115743E+0	1.078693E+0	1.098904E+0	1.083078E+0	1.044931E+0	1.045736E+0	1.058165E+0	1.093233E+0	1.068242E+0	1.051011E+0	1.141614E+0	1.128964E+0	1.121187E+0	1.094368E+0	1.043622E+0	1.064511E+0	1.089937E+0	1.067140E+0	1.045211E+0	1.110742E+0	1.070583E+0	1.075040E+0	1.102768E+0	1.079877E+0	1.070782E+0	1.101750E+0	1.033365E+0	1.116379E+0	1.102376E+0	1.097751E+0	1.101811E+0	1.090030E+0	1.071885E+0	1.096762E+0	1.100375E+0	1.053451E+0	1.105246E+0	1.121536E+0	1.074057E+0	1.049506E+0	1.067632E+0	1.096408E+0	1.119993E+0	1.112795E+0	1.036258E+0	1.106532E+0	1.129514E+0	1.085073E+0	1.050599E+0	1.128642E+0	1.084687E+0	1.067198E+0	1.070449E+0	1.096349E+0	1.098295E+0	1.124954E+0	1.114098E+0	1.084163E+0	1.058426E+0	1.051161E+0	1.136593E+0	1.120888E+0	1.170319E+0	1.049586E+0	1.153332E+0	1.113100E+0	1.090625E+0	1.064397E+0	1.063673E+0	1.096215E+0	1.086396E+0	1.129133E+0	1.080086E+0	1.139798E+0	1.116321E+0	1.104018E+0	1.075275E+0	1.130569E+0	1.111196E+0	1.093853E+0	1.122018E+0	1.108255E+0	1.077159E+0	1.121112E+0	1.141827E+0	1.090385E+0	1.105843E+0	1.097742E+0	1.118674E+0	1.093992E+0	1.100882E+0	1.124476E+0	1.100994E+0	1.115232E+0	1.060793E+0	1.085960E+0	1.112381E+0	1.068520E+0	1.067922E+0	1.042066E+0
2.964980E+2	1.017182E+0	9.990122E-1	1.031486E+0	1.028094E+0	9.947033E-1	9.967137E-1	9.788380E-1	1.027234E+0	9.856787E-1	1.028856E+0	1.042458E+0	9.526634E-1	9.683030E-1	9.904852E-1	9.520570E-1	1.028237E+0	1.012182E+0	9.710235E-1	9.858899E-1	9.928510E-1	1.018919E+0	1.031733E+0	9.297870E-1	1.002521E+0	9.403375E-1	1.002948E+0	9.597987E-1	1.032409E+0	1.050892E+0	9.818755E-1	1.056634E+0	9.496486E-1	1.001924E+0	9.795114E-1	9.628912E-1	9.956886E-1	9.979482E-1	1.002981E+0	9.840299E-1	9.956149E-1	1.036247E+0	1.035769E+0	9.887110E-1	1.019450E+0	9.954651E-1	1.021268E+0	1.057092E+0	1.000107E+0	9.852296E-1	1.015410E+0	9.659466E-1	9.967004E-1	1.000228E+0	1.019303E+0	9.876420E-1	1.014681E+0	9.867660E-1	1.024530E+0	9.468731E-1	9.473944E-1	1.048678E+0	9.903235E-1	9.687965E-1	1.020342E+0	9.927340E-1	1.066931E+0	1.014870E+0	9.810933E-1	1.010147E+0	9.624050E-1	1.026677E+0	9.789426E-1	1.023039E+0	9.606415E-1	1.003404E+0	9.898429E-1	1.028953E+0	9.567413E-1	1.008427E+0	1.027774E+0	9.875407E-1	1.052270E+0	1.021806E+0	9.675085E-1	9.895753E-1	1.038039E+0	1.000612E+0	9.959831E-1	1.010664E+0	9.803412E-1	9.924080E-1	9.779913E-1	1.005265E+0	1.048257E+0	1.023818E+0	9.869071E-1	9.728327E-1	9.958116E-1	9.779663E-1	9.964130E-1	1.048087E+0	9.956242E-1	1.016813E+0	1.010590E+0	9.711371E-1	9.996244E-1	9.820107E-1	9.982048E-1	1.011964E+0	1.009846E+0	1.022560E+0	9.790851E-1	1.017121E+0	1.009837E+0	1.002644E+0	9.806029E-1	9.777789E-1	1.017538E+0	1.021466E+0	9.971329E-1	9.898379E-1	1.012560E+0	1.030698E+0	9.921467E-1	1.003028E+0	9.953982E-1	9.710224E-1	9.813699E-1	1.078305E+0	1.029532E+0	1.036552E+0	9.835114E-1	1.041457E+0	1.040544E+0	9.909821E-1	9.627111E-1	9.892055E-1	9.720478E-1	9.855297E-1	1.033275E+0	1.008157E+0	1.015137E+0	1.019335E+0	1.002822E+0	9.708946E-1	1.027569E+0	1.008710E+0	9.743372E-1	9.605282E-1	1.056337E+0	1.032548E+0	9.987019E-1	9.822433E-1	9.538078E-1	9.358975E-1	1.052210E+0	9.544906E-1	1.030531E+0	1.026129E+0	1.004410E+0	9.910513E-1	1.002912E+0	1.023443E+0	1.000584E+0	9.887753E-1	1.008785E+0	1.029304E+0	9.967537E-1	1.014210E+0	9.918824E-1	9.779216E-1	9.688071E-1
2.970040E+2	8.835082E-1	8.643073E-1	8.738882E-1	8.970953E-1	8.759101E-1	8.849886E-1	8.367871E-1	8.699420E-1	8.355841E-1	8.904402E-1	8.900303E-1	8.372736E-1	9.018479E-1	8.574449E-1	9.194406E-1	8.693683E-1	8.319029E-1	8.543728E-1	8.936468E-1	8.589178E-1	9.161332E-1	8.625789E-1	8.639566E-1	8.763115E-1	9.174617E-1	8.978019E-1	8.453955E-1	8.654399E-1	8.901101E-1	8.801479E-1	8.775210E-1	9.046057E-1	9.228145E-1	8.799714E-1	8.560117E-1	8.916892E-1	9.118410E-1	8.844703E-1	8.668990E-1	9.152456E-1	9.040087E-1	8.957893E-1	8.654879E-1	8.558935E-1	9.289439E-1	8.421926E-1	8.940736E-1	8.984279E-1	9.073604E-1	8.630305E-1	8.218442E-1	8.763005E-1	9.031389E-1	8.981506E-1	8.774360E-1	8.752346E-1	8.718065E-1	9.117791E-1	8.268417E-1	9.038219E-1	8.719151E-1	9.014350E-1	8.749540E-1	9.096298E-1	8.924281E-1	8.943060E-1	8.592921E-1	8.640664E-1	8.740512E-1	8.680489E-1	9.392930E-1	8.963818E-1	9.070121E-1	8.706623E-1	8.435634E-1	8.636515E-1	8.574857E-1	8.642878E-1	8.586777E-1	9.070828E-1	8.346075E-1	8.669935E-1	8.794233E-1	8.461293E-1	8.559149E-1	8.710583E-1	8.913370E-1	8.633188E-1	8.841455E-1	8.412524E-1	8.803851E-1	9.059448E-1	8.253704E-1	8.958473E-1	8.523628E-1	9.205638E-1	8.607131E-1	9.162936E-1	8.685659E-1	9.001826E-1	8.705008E-1	8.464832E-1	8.781218E-1	8.983625E-1	8.959564E-1	9.129879E-1	9.055168E-1	8.866390E-1	9.020195E-1	8.536297E-1	8.902718E-1	8.585965E-1	8.682326E-1	8.531346E-1	9.269684E-1	9.118536E-1	9.213930E-1	8.594569E-1	9.038387E-1	8.943311E-1	8.498663E-1	8.462181E-1	8.696729E-1	8.926159E-1	8.567225E-1	8.980704E-1	9.060165E-1	8.996751E-1	9.376977E-1	8.628608E-1	8.687081E-1	8.319869E-1	8.507924E-1	9.137137E-1	8.870899E-1	8.688345E-1	8.755301E-1	8.775627E-1	8.666564E-1	8.787450E-1	8.833227E-1	8.660034E-1	8.695290E-1	8.786231E-1	8.862073E-1	8.817050E-1	8.853528E-1	8.595899E-1	8.900680E-1	8.676399E-1	8.473026E-1	8.653133E-1	8.981522E-1	9.313946E-1	8.992008E-1	8.897746E-1	8.867009E-1	8.796856E-1	8.822219E-1	8.562023E-1	9.238883E-1	9.210139E-1	8.804779E-1	8.889411E-1	8.583628E-1	9.326648E-1	8.727946E-1	8.931241E-1	8.027218E-1	8.805666E-1	8.120820E-1	8.708497E-1
2.975020E+2	9.154380E-1	8.702033E-1	9.206626E-1	9.219164E-1	8.785459E-1	9.425693E-1	8.556275E-1	9.337800E-1	9.478576E-1	9.658563E-1	9.255381E-1	8.887618E-1	9.222048E-1	9.317445E-1	9.276494E-1	9.065378E-1	9.228160E-1	9.255064E-1	9.487513E-1	9.352808E-1	9.134599E-1	9.416647E-1	9.597601E-1	9.174826E-1	9.305266E-1	9.286737E-1	9.069748E-1	9.055633E-1	9.881616E-1	9.509930E-1	9.105763E-1	9.476861E-1	9.803469E-1	8.807161E-1	9.101379E-1	9.348119E-1	9.087665E-1	9.017782E-1	9.047442E-1	9.129260E-1	9.409835E-1	8.884654E-1	9.088954E-1	9.081780E-1	9.559228E-1	8.666869E-1	9.274230E-1	9.289742E-1	9.634017E-1	9.158238E-1	9.185256E-1	9.094631E-1	9.376728E-1	9.581386E-1	9.142567E-1	9.040882E-1	9.283174E-1	9.261687E-1	8.900098E-1	9.305439E-1	9.416696E-1	9.735996E-1	9.500260E-1	9.139357E-1	9.406113E-1	9.325091E-1	8.915161E-1	9.239348E-1	9.388950E-1	9.263448E-1	9.265613E-1	9.492869E-1	8.989056E-1	9.166376E-1	9.793855E-1	9.512326E-1	9.600676E-1	9.175330E-1	8.987836E-1	9.075826E-1	9.061717E-1	9.547740E-1	9.171342E-1	9.148606E-1	9.378341E-1	9.264295E-1	9.023063E-1	8.950621E-1	9.650996E-1	8.883294E-1	8.938246E-1	9.261438E-1	9.450294E-1	9.630258E-1	8.926921E-1	9.583720E-1	8.858753E-1	9.643986E-1	9.100627E-1	9.353814E-1	9.599471E-1	9.201884E-1	9.507626E-1	9.506253E-1	9.326183E-1	9.524340E-1	9.210562E-1	9.338393E-1	9.216279E-1	9.255252E-1	9.143153E-1	8.864608E-1	9.198190E-1	8.935480E-1	8.851485E-1	9.564357E-1	9.058106E-1	9.540012E-1	9.264245E-1	9.289305E-1	9.315068E-1	8.975697E-1	8.976271E-1	9.445189E-1	9.703478E-1	9.506346E-1	9.425565E-1	9.384460E-1	8.771744E-1	8.973452E-1	8.868163E-1	9.040032E-1	9.509002E-1	9.242460E-1	8.802620E-1	9.047310E-1	9.236805E-1	9.351378E-1	9.700041E-1	9.437348E-1	9.320038E-1	9.394115E-1	9.035611E-1	8.796710E-1	8.910261E-1	8.790155E-1	9.417430E-1	9.312227E-1	9.525442E-1	9.267400E-1	8.892190E-1	9.204085E-1	9.114056E-1	9.176693E-1	8.982668E-1	9.463679E-1	9.549308E-1	9.149882E-1	9.060174E-1	9.023936E-1	9.047500E-1	9.243593E-1	9.450206E-1	9.009940E-1	9.181071E-1	9.405332E-1	9.290554E-1	9.739799E-1	9.730994E-1	9.024093E-1	8.780444E-1	9.240737E-1
2.980020E+2	9.671325E-1	9.955803E-1	9.753145E-1	1.003964E+0	9.830245E-1	9.815492E-1	9.592526E-1	9.670814E-1	1.000773E+0	1.005001E+0	9.841725E-1	9.394828E-1	9.885909E-1	1.002092E+0	9.976639E-1	9.641916E-1	9.948495E-1	1.014916E+0	9.719509E-1	1.017968E+0	9.612152E-1	1.011643E+0	1.009992E+0	1.022690E+0	1.008980E+0	1.025751E+0	9.856535E-1	9.633348E-1	9.898933E-1	9.643626E-1	9.961267E-1	9.653679E-1	1.001329E+0	9.450351E-1	9.878077E-1	9.805360E-1	9.706457E-1	9.756601E-1	9.885623E-1	9.436413E-1	9.730949E-1	1.000214E+0	9.844106E-1	9.454459E-1	9.796895E-1	9.977944E-1	9.816425E-1	9.985743E-1	1.005305E+0	9.849414E-1	9.729368E-1	9.830641E-1	9.508613E-1	1.004601E+0	9.805394E-1	9.805629E-1	1.011761E+0	9.926291E-1	9.604639E-1	9.902054E-1	1.004904E+0	9.639627E-1	9.683720E-1	9.870386E-1	9.747706E-1	9.605297E-1	9.984818E-1	9.635258E-1	1.014175E+0	9.982660E-1	9.841253E-1	1.003274E+0	9.919608E-1	9.563231E-1	9.953843E-1	1.012884E+0	9.727110E-1	9.753560E-1	1.001875E+0	1.006886E+0	9.825616E-1	9.978434E-1	9.866226E-1	9.686094E-1	9.903065E-1	9.841947E-1	9.962689E-1	9.826663E-1	9.735535E-1	9.863896E-1	9.869194E-1	1.000638E+0	9.841326E-1	1.011810E+0	9.613003E-1	1.001036E+0	1.011701E+0	9.626130E-1	9.868473E-1	1.005563E+0	9.525184E-1	9.610346E-1	9.669523E-1	9.949803E-1	9.666181E-1	9.643702E-1	9.804477E-1	9.522672E-1	9.895381E-1	9.959345E-1	9.834966E-1	9.707132E-1	1.010250E+0	9.747201E-1	1.004998E+0	9.998433E-1	9.713936E-1	9.819365E-1	1.005362E+0	9.774031E-1	9.937278E-1	1.012723E+0	1.018095E+0	9.593406E-1	9.965176E-1	9.457040E-1	9.898751E-1	9.974546E-1	9.574274E-1	9.967360E-1	9.841294E-1	9.523287E-1	9.861984E-1	9.935097E-1	9.989062E-1	1.008483E+0	9.765361E-1	9.691986E-1	1.031353E+0	9.766018E-1	9.958011E-1	9.826740E-1	9.886302E-1	9.881765E-1	9.969545E-1	1.053713E+0	9.738781E-1	9.922917E-1	9.727009E-1	9.530526E-1	9.941975E-1	9.914409E-1	9.651071E-1	9.719434E-1	1.001305E+0	9.683000E-1	1.034233E+0	9.979582E-1	9.933823E-1	9.846227E-1	9.842388E-1	9.999996E-1	9.697647E-1	1.024454E+0	9.962412E-1	9.989547E-1	9.743780E-1	9.911041E-1	1.003602E+0	1.037180E+0	9.720549E-1	9.178935E-1
2.985020E+2	1.031534E+0	1.008008E+0	1.019422E+0	1.029736E+0	1.088490E+0	1.053513E+0	1.029397E+0	1.032243E+0	1.053034E+0	1.030985E+0	1.013188E+0	1.072867E+0	1.009252E+0	1.012545E+0	1.014166E+0	1.035870E+0	1.017933E+0	1.007976E+0	1.054427E+0	1.043670E+0	1.062799E+0	1.040743E+0	1.043207E+0	1.020762E+0	1.016705E+0	1.041776E+0	9.947205E-1	1.038125E+0	1.041976E+0	1.050124E+0	1.051000E+0	1.041550E+0	1.010473E+0	1.066132E+0	1.012026E+0	1.071923E+0	1.045687E+0	1.038780E+0	1.013888E+0	1.054983E+0	1.046723E+0	1.027405E+0	1.049360E+0	1.051392E+0	1.030310E+0	1.018818E+0	1.050040E+0	1.066173E+0	1.038205E+0	1.045647E+0	1.026596E+0	1.023472E+0	1.026096E+0	1.012298E+0	1.010936E+0	1.027905E+0	9.959021E-1	1.041055E+0	1.059765E+0	1.015302E+0	1.030017E+0	1.048120E+0	1.047930E+0	1.041623E+0	1.072217E+0	1.041692E+0	1.045541E+0	1.071003E+0	1.002294E+0	1.014548E+0	1.034421E+0	1.036524E+0	1.033195E+0	1.015847E+0	1.043461E+0	1.021140E+0	1.024880E+0	1.036966E+0	1.018478E+0	1.028377E+0	1.055360E+0	1.054229E+0	1.011170E+0	1.050525E+0	1.027809E+0	1.048631E+0	1.054015E+0	1.072794E+0	1.047559E+0	1.035890E+0	1.060431E+0	1.041931E+0	1.023915E+0	1.034683E+0	1.017456E+0	1.043899E+0	1.054232E+0	1.036409E+0	1.032118E+0	1.052434E+0	1.031020E+0	1.059966E+0	1.039177E+0	1.039165E+0	1.050563E+0	1.054083E+0	1.032299E+0	1.021122E+0	1.028595E+0	1.023924E+0	1.016869E+0	1.037878E+0	1.018842E+0	1.001765E+0	1.080092E+0	1.069540E+0	1.010865E+0	1.041890E+0	1.054913E+0	9.980384E-1	1.050836E+0	9.893350E-1	1.003044E+0	1.079732E+0	1.036384E+0	1.055820E+0	9.854035E-1	1.006878E+0	1.092292E+0	1.037968E+0	1.075853E+0	1.021260E+0	1.055471E+0	1.042432E+0	1.028763E+0	1.022041E+0	1.030607E+0	1.051629E+0	1.033688E+0	1.003777E+0	1.064286E+0	1.035703E+0	1.029060E+0	1.014920E+0	1.023981E+0	1.000355E+0	1.042589E+0	1.055334E+0	1.012725E+0	1.065264E+0	1.052952E+0	1.022760E+0	9.962476E-1	1.049837E+0	9.932232E-1	1.041567E+0	1.018963E+0	1.005125E+0	1.002768E+0	1.028599E+0	1.045268E+0	1.028511E+0	1.049106E+0	1.030778E+0	1.046613E+0	1.040418E+0	1.027901E+0	1.003423E+0	1.012619E+0	1.015691E+0	1.012490E+0	1.073027E+0
2.990020E+2	1.056927E+0	1.013916E+0	1.028077E+0	9.955221E-1	1.028965E+0	1.046684E+0	1.048571E+0	1.050951E+0	1.033429E+0	1.032982E+0	1.028645E+0	1.008864E+0	1.046063E+0	1.055746E+0	1.040601E+0	1.063372E+0	1.047963E+0	1.054299E+0	1.034760E+0	1.046742E+0	1.018171E+0	1.026293E+0	1.039097E+0	9.962953E-1	1.058523E+0	1.031290E+0	1.058599E+0	1.054816E+0	9.989498E-1	1.072016E+0	9.970864E-1	1.056741E+0	1.042635E+0	1.025806E+0	1.038281E+0	1.017001E+0	1.032612E+0	1.041690E+0	1.056528E+0	1.062655E+0	1.020134E+0	1.014796E+0	1.040253E+0	1.040496E+0	1.077363E+0	1.069856E+0	1.000829E+0	1.008879E+0	1.020619E+0	1.003056E+0	1.007274E+0	1.035429E+0	1.048980E+0	1.026014E+0	1.021218E+0	1.030944E+0	1.082644E+0	1.030663E+0	1.028619E+0	1.038007E+0	1.027578E+0	1.030014E+0	1.045535E+0	1.012960E+0	1.013831E+0	1.045098E+0	1.013520E+0	1.061466E+0	1.025548E+0	1.052843E+0	1.028921E+0	1.023872E+0	1.018096E+0	1.043687E+0	1.026355E+0	1.057148E+0	1.025461E+0	1.036577E+0	1.049881E+0	1.057986E+0	1.066831E+0	1.012307E+0	1.038869E+0	1.049060E+0	1.044158E+0	1.077944E+0	1.023817E+0	1.055031E+0	1.024017E+0	1.033890E+0	1.018740E+0	1.063872E+0	1.036193E+0	1.017539E+0	1.034754E+0	9.935267E-1	1.010625E+0	1.046242E+0	1.033742E+0	1.003391E+0	1.096506E+0	1.042105E+0	1.037996E+0	1.020472E+0	1.010459E+0	1.019771E+0	1.062577E+0	1.009459E+0	1.046082E+0	1.050389E+0	1.048108E+0	1.039423E+0	1.037234E+0	1.048565E+0	9.875105E-1	1.032615E+0	1.057922E+0	1.037347E+0	1.024034E+0	1.063627E+0	1.040511E+0	1.016632E+0	1.007365E+0	1.004519E+0	9.835982E-1	1.052863E+0	1.048842E+0	1.048304E+0	1.031111E+0	1.024067E+0	1.007391E+0	1.055398E+0	9.922715E-1	1.018094E+0	1.029772E+0	9.862038E-1	1.050729E+0	1.011893E+0	9.981150E-1	1.052045E+0	1.026684E+0	1.065982E+0	1.021629E+0	1.054756E+0	1.037265E+0	1.007578E+0	1.065899E+0	1.037608E+0	1.054231E+0	1.045925E+0	1.008863E+0	1.038717E+0	1.082966E+0	1.016375E+0	1.029694E+0	1.004002E+0	1.041774E+0	9.932852E-1	1.011183E+0	1.042749E+0	1.016232E+0	1.035840E+0	1.029086E+0	1.024754E+0	1.006054E+0	1.038397E+0	1.052395E+0	1.033915E+0	1.036780E+0	1.013369E+0	1.020536E+0	1.009131E+0
2.995060E+2	9.869353E-1	9.972915E-1	1.011711E+0	1.008094E+0	9.570679E-1	9.622795E-1	9.773875E-1	9.513042E-1	9.642232E-1	9.604855E-1	9.716130E-1	1.007648E+0	9.866563E-1	9.523849E-1	9.553801E-1	1.001448E+0	9.425819E-1	9.531725E-1	9.411909E-1	9.372245E-1	1.004755E+0	9.549845E-1	9.648439E-1	9.658121E-1	9.415188E-1	9.421170E-1	1.007404E+0	9.770091E-1	9.569588E-1	9.411187E-1	9.561745E-1	9.454419E-1	9.566463E-1	9.844833E-1	9.771953E-1	9.527527E-1	9.891923E-1	9.792391E-1	9.779529E-1	9.777523E-1	9.851805E-1	9.916148E-1	9.692959E-1	9.772586E-1	9.628356E-1	9.523916E-1	9.672543E-1	9.500984E-1	9.562239E-1	1.005257E+0	1.015884E+0	9.718770E-1	9.861468E-1	9.858965E-1	9.892884E-1	9.842833E-1	9.506937E-1	9.827996E-1	9.854005E-1	1.005219E+0	9.677658E-1	9.797554E-1	9.717875E-1	9.712000E-1	9.526539E-1	9.995172E-1	9.406995E-1	9.329186E-1	9.720254E-1	9.674118E-1	9.586782E-1	9.397063E-1	9.481633E-1	9.713653E-1	9.824443E-1	9.466892E-1	9.891554E-1	9.762584E-1	9.618192E-1	9.523125E-1	9.418583E-1	9.632858E-1	9.562880E-1	9.428738E-1	9.789930E-1	9.481571E-1	9.321027E-1	9.457769E-1	9.899065E-1	9.665352E-1	9.589385E-1	9.560913E-1	9.990736E-1	9.521443E-1	9.859660E-1	9.575171E-1	9.594794E-1	9.584073E-1	9.532829E-1	9.449190E-1	9.917329E-1	9.528727E-1	9.501169E-1	9.536175E-1	9.785774E-1	9.302943E-1	9.501340E-1	1.010159E+0	9.752477E-1	9.418556E-1	9.508661E-1	9.686717E-1	9.690325E-1	9.716851E-1	9.493020E-1	9.687628E-1	9.633623E-1	9.658572E-1	9.414354E-1	9.839918E-1	9.334720E-1	9.886031E-1	9.639586E-1	9.874213E-1	9.770496E-1	9.790623E-1	9.673432E-1	9.937226E-1	9.792690E-1	9.733856E-1	9.698786E-1	9.918664E-1	9.779355E-1	9.453052E-1	9.821225E-1	9.702159E-1	9.882484E-1	9.747021E-1	9.653060E-1	9.726819E-1	9.386440E-1	9.484720E-1	9.924556E-1	9.765577E-1	9.846300E-1	9.805731E-1	9.999603E-1	9.607420E-1	9.902609E-1	9.330148E-1	9.856643E-1	9.718733E-1	9.717199E-1	9.696555E-1	9.861124E-1	9.898644E-1	9.808712E-1	9.985806E-1	1.031245E+0	9.367228E-1	9.780058E-1	9.814186E-1	9.634552E-1	9.700564E-1	9.729680E-1	9.440182E-1	9.443645E-1	9.497689E-1	9.320497E-1	9.428364E-1	9.817776E-1	9.991373E-1
3.000040E+2	9.574710E-1	9.852046E-1	9.654757E-1	9.626849E-1	9.424528E-1	9.559742E-1	9.853921E-1	9.984210E-1	9.485410E-1	9.705467E-1	1.002382E+0	9.711378E-1	9.694382E-1	9.772325E-1	9.921895E-1	9.351185E-1	9.966734E-1	9.696366E-1	9.976707E-1	9.543947E-1	9.530607E-1	9.663359E-1	9.428596E-1	9.944407E-1	9.742737E-1	9.590655E-1	9.536234E-1	9.667149E-1	1.012222E+0	9.723791E-1	9.996122E-1	9.908990E-1	9.889162E-1	9.785432E-1	9.846895E-1	9.777871E-1	9.618633E-1	9.646308E-1	9.630682E-1	9.609693E-1	9.748672E-1	9.659699E-1	9.566808E-1	9.854082E-1	9.498012E-1	9.611397E-1	1.000234E+0	9.762752E-1	9.796468E-1	9.610992E-1	9.773091E-1	9.861582E-1	9.879154E-1	9.711898E-1	9.980181E-1	9.763047E-1	9.589995E-1	9.528540E-1	9.657512E-1	9.512668E-1	9.697352E-1	9.781476E-1	9.663758E-1	9.871780E-1	9.865275E-1	9.531625E-1	1.001758E+0	9.710860E-1	9.859577E-1	9.669309E-1	9.938548E-1	9.966238E-1	1.008586E+0	1.012777E+0	9.523554E-1	9.621376E-1	9.877920E-1	9.748425E-1	9.679470E-1	9.544383E-1	9.533889E-1	9.723353E-1	1.007051E+0	9.889319E-1	9.587333E-1	9.410733E-1	9.937962E-1	9.437317E-1	9.649639E-1	9.772956E-1	9.749707E-1	9.374670E-1	9.566851E-1	9.838244E-1	1.000523E+0	1.004021E+0	9.639623E-1	9.963293E-1	9.940098E-1	9.936937E-1	9.282221E-1	9.840216E-1	1.005758E+0	9.917644E-1	9.937820E-1	1.031482E+0	9.745426E-1	1.006993E+0	9.605374E-1	9.878971E-1	1.000661E+0	9.833146E-1	9.646411E-1	1.003264E+0	9.780972E-1	9.292385E-1	9.964569E-1	9.729695E-1	9.742551E-1	9.769395E-1	9.814527E-1	9.927078E-1	1.007538E+0	9.689876E-1	1.006451E+0	9.665510E-1	1.008536E+0	9.536408E-1	9.399001E-1	9.678441E-1	9.627482E-1	9.791470E-1	9.881240E-1	1.000659E+0	9.604355E-1	1.013057E+0	9.538794E-1	9.925773E-1	9.715387E-1	9.948942E-1	9.745852E-1	9.671686E-1	9.682252E-1	9.655895E-1	9.571691E-1	9.577806E-1	9.176739E-1	9.540252E-1	9.700816E-1	1.002744E+0	9.583224E-1	9.752084E-1	9.839599E-1	9.921896E-1	9.896653E-1	9.962662E-1	9.241592E-1	1.005051E+0	9.614219E-1	1.007306E+0	9.762555E-1	9.542313E-1	9.885876E-1	9.499580E-1	9.781236E-1	9.782116E-1	1.000962E+0	1.021789E+0	1.014950E+0	9.909233E-1	1.013142E+0	1.000811E+0
