Photon Energy (eV)	#1	#2	#3	#4	#5	#6	#7	#8	#9	#10	#11	#12	#13	#14	#15	#16	#17	#18	#19	#20	#21	#22	#23	#24	#25	#26	#27	#28	#29	#30	#31	#32	#33	#34	#35	#36	#37	#38	#39	#40	#41	#42	#43	#44	#45	#46	#47	#48	#49	#50	#51	#52	#53	#54	#55	#56	#57	#58	#59	#60	#61	#62	#63	#64	#65	#66	#67	#68	#69	#70	#71	#72	#73	#74	#75	#76	#77	#78	#79	#80	#81	#82	#83	#84	#85	#86	#87	#88	#89	#90	#91	#92	#93	#94	#95	#96	#97	#98	#99	#100	#101	#102	#103	#104	#105	#106	#107	#108	#109	#110	#111	#112	#113	#114	#115	#116	#117	#118	#119	#120	#121	#122	#123	#124	#125	#126	#127	#128	#129	#130	#131	#132	#133	#134	#135	#136	#137	#138	#139	#140	#141	#142	#143	#144	#145	#146	#147	#148	#149	#150	#151	#152	#153	#154	#155	#156	#157	#158	#159	#160	#161	#162	#163	#164	#165	#166	#167	#168	#169	#170	#171	#172	
2.790030E+2	-4.793678E-3	-2.763614E-3	-8.389141E-3	3.938332E-3	-2.802205E-4	-5.328791E-3	-9.836324E-4	3.159747E-3	2.283738E-3	2.749913E-3	-3.044728E-3	4.676884E-4	-5.338953E-3	-5.782218E-3	2.816460E-3	1.532787E-3	-2.112392E-3	-7.176506E-3	-4.287183E-3	1.062548E-3	-2.360979E-3	-5.309975E-3	-4.035284E-3	-1.112926E-3	-4.338489E-3	-2.280235E-3	-2.531173E-3	1.308015E-3	-6.534824E-3	9.670374E-4	-3.334485E-4	-2.076712E-3	-4.993934E-4	-2.556279E-3	-2.822369E-3	-2.178674E-3	-6.866008E-3	-1.120720E-3	-2.326655E-3	-1.013443E-3	-2.735971E-8	2.210154E-3	-2.536011E-3	-2.178368E-3	-1.128149E-3	-5.854790E-3	-7.271795E-3	-3.235905E-3	-3.135804E-3	-4.892009E-3	-3.722473E-3	5.930230E-4	-4.969850E-3	-3.381185E-3	-9.396003E-4	3.913484E-3	-5.974628E-3	-1.485520E-3	-3.473247E-3	8.212638E-4	-3.761453E-3	2.233663E-3	-3.204105E-3	3.558424E-3	1.648423E-3	2.528222E-3	6.978523E-4	-5.579885E-3	-2.258540E-3	-4.740029E-3	1.904733E-8	-6.781525E-3	-7.187094E-3	-6.267914E-4	-4.941210E-3	-2.220481E-4	-5.048289E-3	-4.211782E-3	-7.563553E-4	-4.002939E-3	-3.538748E-3	1.354541E-3	4.895326E-3	-3.541386E-3	2.368067E-3	-6.005479E-3	-7.804303E-3	-5.200718E-3	2.350487E-3	-5.133404E-3	6.322737E-5	-4.346109E-3	-1.775167E-3	-7.212090E-3	-9.497483E-3	-6.483909E-3	-8.639572E-3	1.530054E-3	-2.541404E-3	-7.667843E-3	-1.088358E-2	-4.444914E-3	-2.401999E-3	-1.647008E-3	1.076321E-3	-1.955259E-3	-2.557864E-3	-3.535270E-3	8.771806E-4	-5.129007E-3	-3.457947E-3	-1.006129E-2	1.348728E-3	-1.900154E-3	-4.415013E-3	-5.820738E-3	-4.894789E-3	-3.852809E-3	4.574507E-3	-1.511796E-3	-5.020036E-4	-2.449012E-3	-6.241353E-5	-1.920022E-3	-4.426467E-4	-9.878523E-4	-3.127367E-3	-6.671966E-3	1.267755E-4	-8.246487E-3	-3.133467E-3	-6.120888E-3	7.139025E-3	-2.317258E-3	-5.174535E-3	-5.752900E-3	-8.778147E-3	-8.274612E-3	-2.375761E-3	-1.079410E-3	3.421484E-3	-8.935552E-3	2.616159E-3	-3.734902E-3	-9.095313E-4	-2.295161E-3	-3.868933E-3	-7.299552E-3	-9.591257E-4	5.963517E-4	-2.609664E-3	-5.183749E-3	3.178339E-4	-8.063155E-3	-4.422686E-3	-6.648777E-3	-2.118028E-4	-5.551287E-3	-2.409597E-3	2.359904E-3	1.104188E-3	1.247166E-8	-3.124125E-3	-5.105397E-3	4.810884E-3	-5.205590E-3	-4.229224E-3	-3.302270E-3	2.837270E-3	-6.036841E-4	-4.409939E-3	-2.092914E-3
2.795050E+2	-5.437664E-3	7.185379E-4	2.750633E-4	1.032993E-3	2.241881E-3	-2.804653E-3	-2.025128E-3	-1.579857E-3	-2.584238E-3	-6.470463E-4	-1.143326E-2	-5.319721E-3	1.587252E-3	-2.695087E-3	-3.400976E-3	5.474338E-4	-2.640463E-3	-6.167450E-4	-4.781832E-3	3.875209E-3	-1.395145E-3	-3.489379E-3	2.017639E-3	-1.548419E-3	-1.509041E-3	7.230032E-4	-5.923986E-3	-2.786653E-3	-5.615854E-3	-5.802176E-3	5.168885E-3	-2.532573E-3	2.309756E-3	3.718163E-3	-2.822365E-3	1.089305E-3	-1.716504E-3	-2.037470E-4	9.306578E-4	-5.333950E-3	1.215987E-8	5.974037E-5	-1.521597E-3	-9.097884E-3	-1.569585E-3	-9.757792E-4	-4.296945E-3	-2.696571E-3	-7.316826E-3	1.921883E-3	4.008748E-4	-5.929969E-4	-7.918971E-3	7.684576E-4	-3.758313E-3	-4.402700E-3	-3.508045E-3	-1.999715E-3	-6.314921E-4	-8.275649E-3	-1.955936E-3	-6.381749E-4	-2.660037E-3	-4.817534E-3	2.575608E-4	-4.350860E-3	1.268777E-3	-6.671811E-4	2.468633E-3	-4.295670E-3	1.813064E-3	-4.434118E-3	-4.057204E-3	-5.242230E-3	4.552585E-3	-4.718072E-3	-1.735339E-3	-2.162869E-3	-2.701070E-4	-1.158731E-3	-2.511355E-3	-4.740850E-3	8.440352E-4	-3.541393E-3	-2.960105E-3	-1.091900E-3	7.963787E-4	1.161309E-3	-4.524750E-3	2.924879E-3	-2.781099E-3	-2.202794E-3	4.615428E-3	-2.384186E-4	-8.415495E-3	-4.570657E-3	2.319119E-4	-7.076445E-3	-4.887401E-3	-3.608383E-3	-5.231030E-5	1.573269E-8	-1.441217E-3	-1.647014E-3	-4.843408E-3	-1.405381E-3	5.810919E-5	-7.442696E-3	-1.008774E-2	-2.981812E-4	1.728744E-4	2.286475E-4	-2.050042E-3	9.500672E-4	-3.311263E-3	-4.183621E-3	-3.926582E-3	2.407995E-3	-1.450441E-3	-5.734325E-4	-9.036136E-3	-1.924219E-3	-1.186104E-3	2.399987E-3	1.549264E-3	4.939482E-4	2.501873E-3	-8.608989E-3	-2.155256E-3	-2.623915E-3	-1.595209E-3	-3.190709E-3	-5.711123E-4	-1.795912E-3	1.881650E-3	-1.592323E-3	-1.596018E-3	8.597827E-3	4.038775E-3	-1.650891E-3	-5.686399E-3	-5.584585E-4	-7.325243E-3	-7.809306E-3	2.942674E-3	-3.302806E-3	-9.091976E-3	3.189696E-3	-8.228265E-3	-5.258954E-3	-7.992163E-3	-6.089652E-3	8.898979E-4	-5.926368E-5	-1.024757E-3	-1.003611E-3	-6.883032E-3	-4.531652E-3	-2.409581E-3	-5.049044E-3	-4.101350E-3	-5.575999E-4	2.259996E-3	-8.426946E-3	1.516456E-3	1.073309E-4	3.812279E-3	-4.260831E-4	-5.461771E-3	-2.414738E-3	-3.086958E-3	-6.801998E-3
2.800020E+2	5.509199E-3	-7.738143E-4	-5.913657E-3	-3.615501E-3	1.233043E-3	-7.852896E-4	-2.545872E-3	-1.105929E-3	-6.911333E-3	-6.470433E-4	3.106844E-3	4.676666E-3	-2.741637E-3	5.243190E-3	-2.922732E-3	-3.394036E-3	-1.056206E-3	-4.653507E-3	4.616965E-3	5.000145E-4	-3.326814E-3	-3.489390E-3	-3.103992E-4	1.935733E-4	3.583960E-3	2.725153E-3	2.800420E-3	2.843522E-3	-1.021043E-4	-3.384598E-3	-5.835874E-3	-1.620848E-3	6.242487E-4	-1.510533E-3	-2.293173E-3	-3.267966E-3	1.092331E-3	-4.330014E-3	1.395992E-3	-4.853916E-3	2.491804E-3	-1.015462E-3	-3.043222E-3	-1.025127E-3	4.610761E-3	-1.951609E-3	-3.305567E-4	-1.078624E-3	-3.658391E-3	-1.747151E-3	-2.176199E-3	-2.372195E-3	2.403001E-3	-1.075832E-3	-4.697921E-4	-4.891963E-4	-2.521408E-3	5.715300E-5	-5.178265E-3	-3.727210E-3	-1.504628E-4	-2.074100E-3	-1.571855E-3	-7.281050E-3	-2.524127E-3	-4.880073E-3	-4.440816E-3	1.516262E-3	-8.403699E-4	-3.406912E-3	-1.813079E-3	5.894750E-3	1.159212E-3	2.962978E-3	-2.442873E-3	-1.720720E-3	-5.994810E-3	4.496399E-3	-5.132430E-3	-4.002959E-3	1.084429E-3	-2.524332E-3	-2.194460E-3	-1.892811E-3	-5.382035E-3	8.735311E-4	-3.026143E-3	-2.474133E-3	-2.938145E-3	7.759565E-4	-3.918824E-3	-2.202846E-3	2.789575E-3	-2.384251E-4	-2.464529E-3	-1.222384E-3	1.275630E-3	-1.912926E-4	2.150443E-3	3.350631E-3	-5.232437E-4	-7.408119E-3	-4.804025E-4	-6.588095E-4	-4.305258E-3	1.894148E-3	5.814110E-5	-2.977103E-3	8.771886E-4	-2.981960E-3	-4.495302E-3	5.888166E-3	8.631868E-4	-6.460418E-3	-1.655631E-3	-2.000903E-3	4.303234E-4	-1.444829E-3	-1.952551E-3	-4.796082E-3	-5.020434E-4	-1.924236E-3	-2.871588E-3	-3.000011E-3	-6.418433E-3	-4.445326E-3	-2.001511E-3	-1.345129E-3	-5.007811E-3	2.998715E-3	-1.595206E-3	-3.190691E-3	-5.197193E-3	-7.009797E-3	2.822467E-3	2.568254E-4	-5.699994E-4	-1.874706E-3	-6.652109E-3	-5.651066E-3	2.120351E-3	-7.260157E-3	-2.092925E-3	-6.790842E-4	-3.317225E-3	-4.814277E-3	3.095102E-3	-7.851593E-3	1.312480E-3	-4.770983E-3	-1.631090E-3	-3.824879E-3	-4.258933E-3	4.742917E-4	-5.393397E-5	1.819003E-3	2.647491E-4	-6.061081E-3	1.120492E-4	-4.061220E-3	6.309758E-4	-1.115236E-3	-1.927639E-3	4.305735E-3	-6.484218E-3	-1.341636E-3	-2.084845E-3	-1.384823E-3	-2.908220E-3	4.829511E-3	-3.086958E-3	-4.447463E-3
2.805030E+2	-3.505861E-3	-1.271256E-3	7.082646E-3	-3.034445E-3	-4.315656E-3	-1.794957E-3	-1.504380E-3	-3.949689E-3	-9.615705E-4	3.235235E-3	1.429125E-3	-2.689090E-3	4.184585E-3	-3.577150E-3	2.338169E-3	-4.379314E-4	2.640456E-3	-2.130533E-3	6.595710E-4	-6.250525E-5	-2.843875E-3	2.427408E-3	6.208184E-4	1.935680E-4	-9.431097E-4	7.229849E-4	-1.077101E-3	7.962128E-4	-2.399521E-3	-1.934031E-3	-4.335209E-3	2.026064E-3	-2.746695E-3	-4.647735E-3	4.586335E-3	1.633980E-3	1.560391E-4	-2.496126E-3	-9.306600E-4	-4.373864E-3	2.990122E-3	-2.090673E-3	-4.057639E-3	4.164523E-3	3.727816E-3	-4.391082E-3	-3.305295E-4	-2.157270E-3	5.226498E-4	-8.036911E-3	-2.176221E-3	-2.372227E-3	5.352143E-3	-1.536901E-3	1.879181E-3	4.891730E-4	1.918461E-3	4.170842E-3	-1.768193E-3	-8.844075E-4	-1.053219E-3	-3.988649E-3	-5.380510E-3	6.021798E-4	-2.524132E-3	-4.880060E-3	-9.579490E-3	-3.396431E-3	-6.513010E-3	1.481213E-4	1.359825E-3	-1.617148E-3	-2.492290E-3	2.450209E-3	5.554271E-5	-5.217647E-3	-1.262059E-3	-1.650566E-3	2.161146E-4	4.055616E-3	-3.025034E-3	2.462621E-4	2.363257E-3	8.548148E-3	9.149625E-4	-1.583272E-3	-2.070544E-3	4.342344E-3	-5.582462E-3	1.313172E-3	6.322043E-5	6.370365E-3	-4.057534E-3	-1.204002E-2	3.486428E-3	1.647570E-3	4.928622E-3	7.267714E-3	-3.127936E-3	-2.448551E-3	-9.941685E-4	-5.355810E-9	-3.843197E-3	2.305802E-3	1.614471E-3	-8.554245E-4	1.627737E-3	-1.860665E-3	-5.263141E-3	-1.371726E-3	6.915885E-4	-5.945292E-3	-7.390953E-3	-1.330092E-3	-7.174394E-3	-2.000879E-3	9.143719E-4	-1.926404E-3	-4.462881E-4	8.340953E-4	3.012059E-3	1.748996E-4	5.555894E-3	2.940030E-3	2.545249E-3	-2.469641E-3	-3.690263E-3	-2.797932E-3	-2.155259E-3	-3.186158E-3	4.557547E-4	9.116194E-4	-5.711214E-3	-2.317093E-4	2.822456E-3	1.643676E-3	3.534085E-3	-4.783782E-3	-2.375735E-3	1.206435E-3	-4.385287E-3	-6.143209E-3	1.046475E-3	1.867451E-3	-3.317208E-3	-3.302818E-3	7.737848E-3	9.814386E-4	2.221144E-3	-3.307157E-3	3.751423E-3	7.045660E-4	-4.831032E-3	-5.928647E-4	-1.024778E-3	6.899736E-4	-4.500456E-3	7.703814E-3	3.138056E-3	-1.591533E-3	-3.628091E-3	-5.018393E-3	-2.525922E-3	-6.765881E-4	4.810872E-3	-3.273622E-3	1.667870E-3	-1.097204E-2	2.837262E-4	-2.414733E-3	3.527948E-3	-1.151110E-2
2.810050E+2	3.577404E-3	-2.763757E-4	8.939067E-4	-4.777646E-3	3.755169E-3	1.234037E-3	-2.025112E-3	3.159669E-4	8.233480E-3	-3.558715E-3	6.462317E-3	2.046005E-3	2.886017E-4	-1.372030E-3	4.251238E-4	-1.423303E-3	-4.752842E-3	9.979819E-3	2.638253E-3	-5.125255E-3	3.434125E-3	-1.668857E-3	-4.966487E-3	5.419472E-3	1.886224E-4	-3.781849E-3	-2.046459E-3	-7.392845E-4	4.492682E-3	1.450530E-3	-6.336105E-3	-1.164998E-3	-1.623060E-3	4.763941E-3	-7.056150E-4	5.446623E-3	4.837394E-3	1.171659E-3	5.584019E-3	2.827026E-3	3.488485E-3	2.747745E-3	4.057629E-3	-2.178340E-3	-4.218345E-3	7.318457E-3	-2.809524E-3	3.235903E-3	5.226243E-4	5.066734E-3	4.524223E-3	-1.779140E-3	-3.003751E-3	-1.075832E-3	-4.697863E-4	-2.935134E-3	-5.481636E-5	5.713449E-4	-1.199865E-3	-2.590106E-3	-2.407304E-3	4.148218E-3	-4.836193E-4	6.514580E-3	-5.305820E-3	-1.175940E-3	2.981684E-3	-1.212878E-4	4.359512E-3	-1.185008E-3	-2.266351E-3	-1.147659E-3	1.159206E-3	-2.165245E-3	5.552046E-4	-1.720692E-3	6.310338E-3	8.594394E-3	1.188585E-3	4.529671E-3	-4.566103E-3	2.462587E-4	-5.739368E-3	-3.541383E-3	9.149389E-4	2.838945E-3	2.229821E-3	-1.110836E-3	-3.466998E-3	1.313169E-3	8.027208E-3	1.012095E-3	-3.601093E-3	4.589528E-3	1.322455E-3	-1.222357E-3	-2.377342E-3	3.824873E-4	9.774854E-4	3.350649E-3	-2.877876E-3	-1.481644E-3	3.362802E-3	-4.611619E-3	-3.767081E-3	-5.254754E-3	-4.650688E-3	4.837764E-3	3.508793E-3	5.606114E-3	-4.495296E-3	1.257646E-3	-1.078981E-3	-7.600541E-3	-2.207526E-3	1.818789E-4	2.850805E-3	-1.926430E-3	-2.956723E-3	3.179986E-3	-3.514096E-3	-1.924203E-3	1.061239E-3	7.800044E-4	4.537150E-3	-5.433155E-3	4.753560E-3	1.560363E-3	1.267800E-3	1.874309E-4	-2.620686E-3	-1.432534E-3	-3.655209E-3	6.024950E-3	-2.352060E-3	4.879703E-3	-2.109031E-3	-7.111018E-4	-7.721056E-4	-3.936708E-3	1.686656E-3	3.909313E-3	6.802010E-3	3.395664E-4	5.350538E-4	-1.791347E-3	-5.609889E-3	4.845917E-3	5.855677E-3	-2.819234E-3	-3.099027E-3	7.045850E-3	4.322523E-3	1.541464E-3	1.887713E-3	4.641597E-3	2.170823E-3	-1.472772E-3	-1.905242E-3	6.805240E-3	-3.154867E-3	1.115217E-3	4.652982E-3	-1.230326E-4	2.928341E-3	1.073306E-3	-1.548723E-3	6.764293E-3	9.221248E-4	-2.414744E-3	1.411183E-2	4.970691E-3
2.815020E+2	-1.574062E-3	1.215998E-3	7.082635E-3	2.195149E-3	1.233052E-3	3.253412E-3	4.744563E-3	-3.949707E-3	-2.043334E-3	-1.132346E-3	3.106701E-4	-1.110680E-3	-5.771850E-4	3.479105E-3	-2.922735E-3	3.503487E-3	3.168568E-3	-1.121316E-3	-3.298046E-4	5.562775E-3	5.365273E-5	1.517111E-3	2.017648E-3	4.983958E-3	-3.772816E-4	-7.786203E-4	-1.077133E-4	7.961941E-4	8.168681E-4	1.450563E-3	-3.334821E-4	-4.811896E-3	6.242315E-4	-3.601986E-3	-5.468354E-3	-7.080619E-3	6.241934E-4	4.380958E-3	-4.187992E-3	1.866902E-3	-4.485211E-3	-4.778721E-3	-7.100860E-3	-4.485082E-4	-2.893988E-3	-9.757881E-4	3.140085E-3	-1.425592E-8	4.181059E-3	-6.464452E-3	-1.145359E-3	-5.930508E-3	-2.512246E-3	7.684509E-3	-1.409380E-3	4.402707E-3	-2.028115E-3	1.085556E-3	3.346950E-3	2.526900E-3	3.460525E-3	-2.552765E-3	6.045499E-3	-3.339413E-3	1.648386E-3	2.528257E-3	1.268798E-3	-1.758878E-3	5.777829E-4	-2.962616E-4	-4.532672E-3	5.425232E-3	6.375746E-4	1.937321E-3	2.553861E-3	-7.215748E-4	6.310041E-4	-2.162816E-3	3.619693E-3	3.107545E-3	6.735021E-3	2.462786E-3	-5.739359E-3	8.548507E-4	2.852468E-3	1.856253E-3	2.707599E-3	7.069212E-4	-2.409250E-3	-4.058940E-3	-2.781071E-3	-2.738641E-3	-2.231645E-3	4.053028E-3	2.945421E-3	2.125864E-3	-2.899170E-3	2.677593E-3	9.774353E-4	-8.827640E-3	5.598750E-3	4.444888E-3	-1.921589E-3	4.282238E-3	3.767093E-3	-1.405357E-3	-2.557864E-3	7.070582E-3	4.386013E-4	-4.592239E-3	2.766362E-3	-4.916332E-3	3.776368E-4	3.800160E-4	1.655626E-3	2.364677E-3	4.303122E-3	2.408042E-3	5.579444E-5	3.649051E-4	1.004032E-3	2.798885E-3	-2.871598E-3	-8.399748E-4	3.043192E-3	5.433201E-3	-4.253167E-3	-2.313677E-3	1.268033E-4	1.311947E-3	-5.693220E-5	-2.604663E-3	5.083001E-3	2.375211E-3	2.822470E-3	7.191090E-4	-5.700181E-4	-1.292867E-3	2.969913E-4	1.206409E-2	-4.820218E-5	2.233878E-3	1.046446E-3	5.432590E-3	-2.835687E-3	3.750668E-3	1.354149E-3	-1.226786E-3	-2.322087E-3	9.867294E-3	-2.120352E-3	-3.371940E-3	3.178583E-4	5.276652E-3	-5.393338E-4	-6.648753E-3	1.694286E-3	-1.472754E-3	5.659761E-3	-1.097625E-3	2.997150E-3	-1.672801E-3	-3.124121E-3	-5.658972E-3	-1.119048E-2	2.039263E-3	-4.765516E-4	4.846884E-3	-4.185009E-3	-1.509217E-3	-8.378899E-3	4.970706E-3
2.820060E+2	3.577404E-3	2.708344E-3	-2.200416E-3	-4.777639E-3	-6.333368E-3	-3.309499E-3	2.140844E-3	7.899467E-4	7.692583E-3	-2.588166E-3	1.988369E-3	-1.636832E-3	5.050346E-3	-1.813043E-3	-2.922717E-3	-1.423288E-3	-3.168547E-3	1.906272E-3	-3.792514E-3	2.187625E-3	4.400010E-3	5.613383E-3	6.208212E-4	-1.112931E-3	-3.772571E-3	-3.781846E-3	6.193250E-3	-5.345864E-3	8.168681E-4	5.318635E-3	2.167592E-3	-1.164987E-3	6.240705E-5	-2.556260E-3	1.940402E-3	-6.535938E-3	2.496722E-3	-1.579178E-3	-9.306685E-4	-4.853904E-3	9.967082E-4	-5.853894E-3	2.028813E-3	-4.484892E-3	1.961813E-4	3.903196E-3	-3.305053E-4	-1.617945E-3	6.794186E-3	4.018432E-3	3.493392E-3	-3.558309E-3	9.284120E-4	3.534863E-3	-5.637531E-3	-5.381076E-3	-4.001356E-3	-4.056571E-3	5.052055E-4	5.369689E-3	7.522887E-3	-2.074085E-3	6.045731E-4	-1.368616E-3	5.357349E-3	5.174032E-3	-2.156995E-3	4.245656E-4	-1.313128E-3	3.258761E-3	2.266323E-3	-1.617151E-3	2.202485E-3	-2.678101E-3	-3.941871E-3	7.770845E-4	2.050868E-3	-7.285327E-3	-7.563583E-4	-3.054889E-3	-3.538748E-3	-1.416107E-3	-3.207314E-3	-2.442320E-4	-3.928859E-3	3.821777E-4	2.229795E-3	-1.565274E-3	-3.466992E-3	1.313192E-3	1.769777E-3	4.762852E-3	5.072495E-5	3.516669E-3	1.322422E-3	3.560871E-3	4.928631E-3	-3.633857E-3	-2.541443E-3	6.830160E-3	4.186022E-3	1.481634E-3	-2.882400E-3	2.799922E-3	1.614455E-3	1.894144E-3	-4.127489E-3	3.721325E-3	1.315792E-3	1.312049E-3	6.915695E-4	6.402628E-3	6.689615E-3	5.510414E-3	2.759409E-3	-3.637756E-4	-1.022005E-3	4.334433E-3	-1.450435E-3	-1.042597E-3	2.008051E-3	3.848435E-3	-1.186070E-3	2.400003E-4	-7.912343E-3	-1.481782E-3	2.501883E-3	4.465887E-3	2.979324E-3	1.874309E-4	4.044973E-3	7.944173E-3	-3.655184E-3	2.896588E-3	6.585768E-3	7.191202E-4	-3.135072E-3	-1.292945E-3	8.314811E-4	6.349582E-4	8.192201E-4	2.233895E-3	-2.616172E-3	-1.697685E-3	-1.391131E-3	-1.287537E-3	-8.511608E-3	3.189723E-3	-5.048394E-5	-8.674540E-4	3.262006E-4	1.610467E-3	3.178339E-4	-5.928940E-4	-3.451857E-3	-1.568131E-3	2.647322E-3	5.664525E-3	1.120676E-4	-4.061202E-3	-5.521042E-3	1.115183E-3	2.260007E-3	9.841729E-4	-6.013586E-3	2.039311E-3	3.276180E-3	3.888118E-3	-1.631434E-3	1.297916E-2	-4.409956E-3	2.616070E-4
2.825060E+2	1.645577E-3	-2.266185E-3	2.750554E-3	3.938318E-3	-2.802266E-4	7.291935E-4	-9.836260E-4	2.211834E-3	-5.288639E-3	-1.617411E-4	-2.485453E-3	-1.110712E-3	-1.442959E-3	5.243190E-3	-4.357542E-3	-2.901317E-3	1.584302E-3	1.906248E-3	1.649224E-4	-1.131307E-2	4.399981E-3	1.061991E-3	-5.432110E-3	-2.854926E-3	4.149823E-3	6.729467E-3	-1.077068E-3	1.308000E-3	1.276332E-3	-2.417580E-3	2.167620E-3	-7.090949E-4	-1.623046E-3	5.809712E-3	3.528054E-4	7.080629E-3	-2.652753E-3	1.171659E-3	-1.861366E-3	8.587675E-3	-7.973687E-3	1.672560E-3	7.608030E-3	4.741152E-3	-2.011056E-3	-2.927401E-3	5.123282E-3	-1.078640E-3	-8.362083E-3	-2.271325E-3	-2.691614E-3	6.523549E-3	1.419941E-3	-1.536881E-3	4.228122E-3	-1.956771E-3	6.358336E-3	-4.570546E-4	-6.314991E-4	-2.021522E-3	-1.955958E-3	3.190897E-3	-1.027737E-3	-3.339410E-3	7.211928E-4	2.528225E-3	9.833283E-3	1.516272E-3	-8.404045E-4	4.147560E-3	-9.065423E-4	1.199848E-3	4.289030E-3	-4.729404E-3	-2.942502E-3	5.273151E-3	2.524160E-3	-2.675079E-3	-4.646202E-3	-2.580865E-3	5.707637E-3	3.016910E-3	3.376114E-3	1.953856E-3	1.399349E-3	1.364893E-3	3.663226E-3	1.161342E-3	7.110273E-3	1.850431E-3	-2.781071E-3	-2.202830E-3	-8.622296E-4	-2.384157E-3	1.322432E-3	-7.440867E-4	3.363051E-3	-3.060091E-3	3.909746E-4	-7.088148E-4	-3.348816E-3	6.694763E-9	6.725610E-3	-5.599827E-3	-2.152613E-3	2.444104E-3	-9.882807E-4	-1.302485E-3	2.192985E-3	9.363430E-3	6.916075E-4	-1.829299E-3	3.290874E-3	-7.600656E-4	1.103754E-2	3.456079E-3	-3.926574E-3	-3.371220E-3	-1.450459E-3	1.772467E-3	3.012049E-3	-1.924203E-3	-1.747932E-3	-8.400110E-4	3.043225E-3	8.396691E-3	-8.193637E-3	3.013167E-3	4.690841E-3	4.123245E-3	9.685105E-4	3.256088E-4	1.484933E-3	3.939356E-3	-5.174529E-3	-3.441468E-3	-5.700056E-4	2.779757E-3	-7.721024E-4	-3.365266E-3	-5.252699E-3	5.026237E-3	-2.616159E-3	3.395329E-3	6.313397E-3	1.735381E-3	6.577147E-3	2.637649E-3	-5.047951E-4	4.499929E-3	3.262122E-3	4.781146E-3	-1.970579E-3	-1.126498E-3	2.373154E-3	2.948040E-3	6.459458E-3	5.664724E-5	-5.435582E-3	-1.591551E-3	5.836542E-3	-3.903179E-3	-1.329418E-3	8.180928E-3	-3.660204E-4	1.073486E-4	-1.548753E-3	5.328232E-5	3.475688E-3	-5.131286E-3	-4.409956E-3	7.325241E-3
2.830040E+2	1.001681E-3	2.708365E-3	-1.581591E-3	5.100438E-3	2.746325E-3	8.806548E-3	3.182343E-3	4.107687E-3	-4.206869E-4	2.749910E-3	3.666116E-3	4.676675E-3	-1.010051E-3	1.274042E-3	1.094695E-2	3.996167E-3	6.337124E-3	1.906269E-3	5.111622E-3	3.312662E-3	-2.360956E-3	3.337708E-3	9.467354E-3	-4.161370E-3	3.018087E-3	-2.780577E-4	3.769831E-3	1.819858E-3	7.249554E-3	4.351619E-3	7.670021E-3	1.205504E-2	2.871550E-3	5.809773E-4	7.232333E-3	3.812660E-3	2.028585E-3	3.005510E-3	2.326672E-3	7.147475E-3	2.491795E-3	7.048550E-3	4.564858E-3	1.050744E-2	3.286364E-3	5.854797E-3	7.106488E-3	8.629066E-3	1.045259E-2	1.240480E-2	3.493376E-3	9.488803E-3	8.301323E-3	-3.381197E-3	6.577100E-3	6.359514E-3	9.811571E-3	2.113965E-3	9.030407E-3	8.781042E-3	3.009220E-4	1.754995E-3	7.677792E-3	9.470839E-3	7.211674E-4	2.528196E-3	1.269066E-4	8.066563E-3	4.359524E-3	6.369439E-3	4.079412E-3	3.077771E-3	4.289080E-3	8.091263E-3	6.551263E-3	8.270518E-3	2.524128E-3	7.057646E-3	6.537061E-3	3.107551E-3	3.652901E-3	1.354531E-3	5.401770E-3	1.404350E-3	3.821214E-3	1.364852E-3	1.274171E-3	2.979044E-3	1.292784E-2	-2.984554E-4	2.338632E-3	1.547907E-3	5.071941E-3	9.953883E-3	9.978349E-3	6.909089E-3	-8.117618E-4	2.103838E-3	8.601847E-3	9.729791E-3	8.895224E-3	7.408139E-3	2.882392E-3	4.776317E-3	6.996020E-3	4.643780E-3	1.313820E-2	1.488548E-3	6.140335E-3	-1.908480E-3	7.434542E-3	8.975130E-3	-2.050066E-3	1.121077E-2	3.311254E-3	8.367280E-3	5.271328E-3	3.371221E-3	5.076596E-3	1.772453E-3	4.518088E-3	3.323655E-3	3.308572E-3	2.399970E-4	5.534148E-5	4.939151E-4	1.150863E-2	1.269828E-2	1.267824E-4	5.247791E-3	3.532261E-3	7.358084E-3	5.082954E-3	-3.881429E-3	-4.233689E-3	2.568257E-3	1.379421E-2	6.852430E-3	7.780565E-3	1.777853E-3	7.324876E-3	9.494053E-3	3.139408E-3	2.886042E-3	1.979657E-3	1.130790E-2	8.318160E-3	1.533506E-3	2.675455E-3	2.060208E-3	1.011255E-2	4.328190E-3	4.894597E-3	3.142267E-3	6.256480E-3	5.770658E-3	-1.641348E-3	5.664560E-3	3.138069E-3	8.287030E-3	5.836493E-3	1.003680E-2	2.858239E-3	6.520099E-3	9.987754E-3	4.454288E-3	1.131768E-3	5.326360E-4	6.667626E-3	-3.320265E-3	1.014289E-2	7.325227E-3
2.835020E+2	1.323642E-2	9.672709E-3	1.017702E-2	1.033005E-2	7.790595E-3	2.748566E-3	1.411808E-2	2.448810E-2	9.315257E-3	1.876419E-2	1.205465E-2	1.256854E-2	1.111077E-2	1.009437E-2	1.525135E-2	1.680593E-2	1.056188E-2	1.098903E-2	4.122292E-3	8.375446E-3	1.357559E-2	8.344187E-3	1.226098E-2	1.108090E-2	1.546758E-2	1.573917E-2	9.586065E-3	1.000920E-2	1.276331E-2	2.272504E-2	9.670874E-3	1.433433E-2	2.028816E-2	9.992666E-3	8.290689E-3	3.812620E-3	9.518766E-3	7.590272E-3	6.514645E-3	1.482837E-2	2.142928E-2	1.457500E-2	1.521607E-2	1.858023E-2	8.142350E-3	2.341921E-2	8.098105E-3	1.078631E-2	1.463360E-2	1.083237E-2	1.328628E-2	1.423320E-2	7.318245E-3	1.321734E-2	1.033543E-2	1.027297E-2	3.891742E-3	1.394093E-2	1.016711E-2	1.389801E-2	1.339070E-2	7.977295E-3	1.529514E-2	2.375923E-2	8.139062E-3	1.628647E-2	2.182353E-2	1.297926E-2	9.559446E-3	1.125758E-2	1.359806E-2	1.481510E-2	7.418907E-3	1.988623E-2	8.549916E-3	1.376568E-2	1.009657E-2	5.008652E-3	1.285804E-2	1.164018E-2	1.084449E-2	2.074894E-2	1.553005E-2	2.008815E-2	7.211937E-3	1.217473E-2	8.919179E-3	1.297653E-2	4.994818E-3	1.420641E-2	7.458373E-3	9.585284E-3	5.071939E-3	1.317248E-2	1.701127E-2	1.169230E-2	1.849684E-2	1.587421E-2	3.909889E-3	1.494905E-2	7.953380E-3	6.914297E-3	1.345120E-2	8.235066E-3	1.291574E-2	1.014298E-2	2.517176E-2	7.628762E-3	1.228070E-2	1.312067E-2	9.509328E-3	1.514905E-2	1.397266E-2	1.178077E-2	9.933794E-3	1.055002E-2	4.303125E-3	2.022730E-2	1.110156E-2	7.402636E-3	1.204821E-2	8.571517E-3	1.623073E-2	1.482007E-2	1.549269E-2	5.927097E-3	1.488615E-2	1.511953E-2	3.549838E-3	1.817978E-2	9.685164E-3	2.025105E-2	1.073709E-2	1.436718E-2	1.411220E-3	1.412547E-2	1.276819E-2	5.688779E-3	1.259148E-2	1.720722E-2	9.493419E-3	3.909306E-3	8.371691E-3	8.997685E-3	3.905742E-3	9.292631E-3	1.005921E-2	1.754343E-2	1.085319E-2	1.230697E-2	3.751453E-3	1.384010E-2	1.118770E-2	1.221328E-2	6.256471E-3	1.085132E-2	1.217773E-2	1.229212E-2	6.164057E-3	1.273244E-2	1.198855E-2	1.784324E-2	1.242999E-2	1.371685E-2	1.234091E-2	2.522279E-3	1.721489E-2	1.874835E-2	1.049793E-2	1.479021E-2	2.337269E-2	1.203434E-2
2.840000E+2	4.028158E-2	2.210896E-2	3.926394E-2	1.614070E-2	3.755184E-2	1.839842E-2	1.724259E-2	2.259223E-2	4.339099E-2	2.749920E-2	2.827245E-2	2.835229E-2	2.756053E-2	3.126318E-2	4.012116E-2	3.306437E-2	3.010141E-2	2.612694E-2	2.935065E-2	2.356367E-2	3.144384E-2	3.974878E-2	2.017632E-2	2.501669E-2	4.263020E-2	3.025482E-2	2.606549E-2	2.229329E-2	2.379080E-2	2.659312E-2	3.468168E-2	3.348057E-2	3.040105E-2	3.143051E-2	2.998766E-2	3.322439E-2	2.964858E-2	2.684611E-2	1.628662E-2	2.875003E-2	2.541611E-2	2.210142E-2	2.586731E-2	3.645566E-2	2.491758E-2	2.878611E-2	3.090499E-2	2.750511E-2	2.299574E-2	2.970163E-2	2.462543E-2	3.024552E-2	2.304701E-2	2.520516E-2	2.818753E-2	2.348108E-2	3.003758E-2	3.142428E-2	2.380741E-2	2.981753E-2	3.415381E-2	2.377227E-2	3.270618E-2	3.410597E-2	2.436555E-2	3.321967E-2	1.953967E-2	2.662573E-2	2.374098E-2	3.392089E-2	2.946245E-2	3.218636E-2	3.297938E-2	2.398885E-2	3.053554E-2	3.125032E-2	2.808102E-2	2.242511E-2	2.793117E-2	3.249765E-2	2.420037E-2	2.296543E-2	3.376094E-2	2.338532E-2	2.029016E-2	2.986361E-2	2.516485E-2	3.251703E-2	1.927415E-2	1.474365E-2	2.736834E-2	2.833906E-2	1.648375E-2	3.784851E-2	4.893002E-2	2.652025E-2	3.206505E-2	3.423482E-2	2.854240E-2	2.596752E-2	2.537749E-2	1.876728E-2	3.314756E-2	3.689309E-2	2.529330E-2	2.774042E-2	2.674138E-2	2.772405E-2	1.842109E-2	3.405414E-2	2.610740E-2	2.955501E-2	3.582182E-2	3.743250E-2	2.869756E-2	2.964925E-2	2.463528E-2	3.274898E-2	2.616404E-2	3.555345E-2	3.514058E-2	2.536473E-2	3.364758E-2	2.994011E-2	2.595028E-2	3.506863E-2	3.064798E-2	3.303703E-2	2.180606E-2	3.560987E-2	2.352928E-2	4.017662E-2	3.129751E-2	1.593135E-2	2.634305E-2	3.123008E-2	2.302836E-2	3.128839E-2	3.611135E-2	3.777968E-2	2.337212E-2	3.406678E-2	4.604435E-2	2.784192E-2	2.027776E-2	2.692626E-2	2.979066E-2	3.465751E-2	2.857169E-2	2.060202E-2	2.430273E-2	2.244612E-2	3.635992E-2	2.982188E-2	2.470228E-2	2.101263E-2	2.313760E-2	2.656682E-2	2.936330E-2	4.286214E-2	2.429253E-2	1.784319E-2	4.353833E-2	4.361094E-2	2.834223E-2	3.005291E-2	2.793698E-2	3.504661E-2	2.645765E-2	2.565648E-2	4.057151E-2	1.909796E-2
2.841030E+2	3.963773E-2	3.504276E-2	4.297721E-2	2.718092E-2	2.695887E-2	3.909669E-2	2.505379E-2	2.733189E-2	3.744126E-2	3.817534E-2	3.218713E-2	3.624414E-2	3.232228E-2	3.170418E-2	3.199066E-2	4.883019E-2	3.802280E-2	3.117291E-2	4.072814E-2	3.312666E-2	4.206820E-2	2.791513E-2	3.461011E-2	3.111364E-2	3.470782E-2	4.176724E-2	4.351430E-2	2.997082E-2	2.746662E-2	3.868094E-2	2.417715E-2	4.123024E-2	4.051389E-2	2.515596E-2	3.739637E-2	3.485839E-2	3.058485E-2	2.317834E-2	2.559327E-2	3.691095E-2	3.089802E-2	3.285346E-2	4.006899E-2	3.414916E-2	3.021503E-2	3.317720E-2	3.834207E-2	3.829143E-2	2.874464E-2	4.070865E-2	2.771798E-2	3.024550E-2	3.435209E-2	3.073804E-2	2.630840E-2	3.473240E-2	2.461110E-2	4.119433E-2	3.460602E-2	3.322887E-2	3.144557E-2	3.525961E-2	3.488259E-2	4.100383E-2	2.251116E-2	4.115705E-2	4.123634E-2	4.573076E-2	3.035903E-2	3.703160E-2	2.538300E-2	3.171688E-2	3.610921E-2	3.270693E-2	3.353354E-2	3.674546E-2	3.234047E-2	3.523127E-2	4.494916E-2	4.340039E-2	3.806991E-2	4.014333E-2	4.439572E-2	4.591578E-2	3.239972E-2	4.165618E-2	2.468704E-2	3.115374E-2	2.509168E-2	3.838118E-2	3.703889E-2	3.530476E-2	3.337323E-2	2.604696E-2	3.594611E-2	3.991328E-2	3.989284E-2	3.710363E-2	3.851268E-2	4.742451E-2	3.715064E-2	3.605293E-2	2.642199E-2	4.381053E-2	3.551829E-2	4.038864E-2	3.040377E-2	3.721343E-2	3.464912E-2	4.103195E-2	4.737368E-2	3.984497E-2	3.048090E-2	3.629245E-2	3.587196E-2	2.746654E-2	2.802401E-2	3.178581E-2	3.570351E-2	4.212191E-2	2.911647E-2	3.691007E-2	3.308574E-2	3.966013E-2	2.644828E-2	4.148965E-2	3.121093E-2	4.562771E-2	2.979320E-2	3.785887E-2	3.378412E-2	3.255804E-2	3.489554E-2	2.948742E-2	2.493176E-2	2.799409E-2	2.661937E-2	2.779757E-2	4.466411E-2	3.492238E-2	3.681714E-2	3.797615E-2	3.453329E-2	4.566752E-2	3.183448E-2	3.095680E-2	3.211210E-2	3.852197E-2	2.857172E-2	3.426439E-2	3.017456E-2	3.376983E-2	2.835057E-2	3.515780E-2	2.712937E-2	2.439978E-2	3.648016E-2	3.319433E-2	3.390229E-2	4.434398E-2	2.713192E-2	3.401358E-2	4.952072E-2	3.087827E-2	3.634289E-2	3.005292E-2	3.597851E-2	3.696407E-2	3.667190E-2	3.742833E-2	3.792562E-2	4.028885E-2
2.842030E+2	4.285737E-2	2.161154E-2	3.802620E-2	1.904604E-2	6.277316E-2	2.647581E-2	2.453303E-2	3.965498E-2	3.744124E-2	4.060173E-2	4.225339E-2	4.939727E-2	3.968138E-2	3.214519E-2	4.155597E-2	3.897652E-2	3.591041E-2	3.016369E-2	4.715891E-2	3.256414E-2	4.061942E-2	3.565250E-2	3.321328E-2	3.285554E-2	4.376202E-2	2.725156E-2	3.333586E-2	3.150630E-2	3.343984E-2	3.674691E-2	4.068427E-2	3.028953E-2	3.040100E-2	4.763951E-2	4.586345E-2	4.629629E-2	3.432992E-2	3.326472E-2	3.396927E-2	4.795227E-2	4.485201E-2	3.124066E-2	3.651855E-2	4.049206E-2	4.654880E-2	5.074161E-2	3.189661E-2	4.745982E-2	3.658405E-2	3.127402E-2	3.544923E-2	4.151349E-2	6.875878E-2	2.751051E-2	3.617396E-2	3.571080E-2	4.237059E-2	3.605220E-2	3.119590E-2	3.266033E-2	3.054293E-2	3.765278E-2	4.630865E-2	4.839436E-2	2.251115E-2	2.581139E-2	3.838150E-2	3.972633E-2	3.603169E-2	3.969783E-2	2.674283E-2	3.641178E-2	4.497716E-2	4.091216E-2	3.403326E-2	3.974292E-2	3.612669E-2	2.703535E-2	4.300425E-2	3.723797E-2	4.628893E-2	4.734698E-2	4.034435E-2	4.591580E-2	3.675917E-2	4.558706E-2	3.758797E-2	4.069680E-2	3.725553E-2	4.053004E-2	3.191918E-2	3.691221E-2	3.109084E-2	5.233227E-2	4.027409E-2	3.082516E-2	3.728360E-2	3.480855E-2	3.675322E-2	4.336508E-2	3.903432E-2	4.790598E-2	3.747115E-2	3.244615E-2	3.228931E-2	2.994011E-2	3.511261E-2	4.670287E-2	3.289475E-2	4.639955E-2	3.596252E-2	3.675795E-2	3.824950E-2	3.857264E-2	4.304637E-2	3.183209E-2	2.802398E-2	4.382584E-2	3.319313E-2	3.273834E-2	3.815263E-2	4.005878E-2	2.802927E-2	3.480008E-2	3.541194E-2	2.765975E-2	4.415811E-2	3.884812E-2	3.435726E-2	3.898341E-2	3.429691E-2	5.248356E-2	3.438153E-2	3.678681E-2	2.963590E-2	2.891862E-2	3.328848E-2	3.652464E-2	3.183500E-2	4.292284E-2	2.640812E-2	4.132691E-2	4.133529E-2	3.191631E-2	3.905747E-2	3.347592E-2	3.385304E-2	4.459467E-2	3.266060E-2	3.133677E-2	2.430272E-2	3.558164E-2	2.835056E-2	2.875469E-2	2.858560E-2	2.496430E-2	2.933236E-2	3.319435E-2	3.238928E-2	4.236822E-2	2.381928E-2	3.735922E-2	4.652956E-2	4.582531E-2	3.398975E-2	4.454269E-2	3.705072E-2	4.271636E-2	3.858708E-2	3.471172E-2	3.263373E-2	4.028888E-2
2.843040E+2	5.058457E-2	3.753000E-2	4.730928E-2	4.984241E-2	6.983521E-2	4.111602E-2	5.004978E-2	5.576971E-2	5.366782E-2	5.516018E-2	3.386481E-2	4.466219E-2	4.747338E-2	3.390926E-2	5.159955E-2	5.720573E-2	5.016896E-2	4.126484E-2	4.765359E-2	4.325214E-2	5.220964E-2	4.703095E-2	3.740379E-2	4.679135E-2	6.809519E-2	4.477049E-2	5.175400E-2	5.095599E-2	4.079153E-2	4.545013E-2	4.218494E-2	4.487710E-2	3.939027E-2	4.763950E-2	4.850946E-2	5.392152E-2	6.382247E-2	4.335113E-2	4.513728E-2	5.227279E-2	4.385525E-2	4.736875E-2	5.072021E-2	5.202457E-2	3.904408E-2	5.366900E-2	4.528328E-2	5.932475E-2	5.539879E-2	5.433647E-2	4.524212E-2	4.269955E-2	5.450453E-2	4.641442E-2	4.791881E-2	3.962430E-2	4.730376E-2	4.633646E-2	4.710961E-2	5.710816E-2	3.866756E-2	4.722550E-2	5.501417E-2	5.381408E-2	5.218260E-2	4.909451E-2	4.694602E-2	5.501038E-2	4.359523E-2	4.902976E-2	5.575199E-2	4.063724E-2	4.445551E-2	4.757890E-2	5.202144E-2	3.874376E-2	5.127151E-2	4.496404E-2	5.418751E-2	5.951753E-2	4.680259E-2	4.679283E-2	5.199190E-2	5.635677E-2	5.419688E-2	5.197468E-2	4.093267E-2	3.978791E-2	5.259262E-2	3.945558E-2	3.931433E-2	5.030781E-2	4.934981E-2	4.160357E-2	6.299590E-2	4.421818E-2	4.563327E-2	5.948057E-2	4.672349E-2	6.018271E-2	4.845276E-2	4.889370E-2	4.083397E-2	4.677514E-2	3.928539E-2	4.753754E-2	4.348381E-2	5.061029E-2	5.307016E-2	5.284063E-2	4.478024E-2	5.527992E-2	4.310482E-2	5.168350E-2	4.525386E-2	4.602012E-2	4.641977E-2	3.900981E-2	4.524305E-2	3.977605E-2	4.869477E-2	4.845539E-2	4.937887E-2	4.128015E-2	4.586951E-2	4.593501E-2	4.753565E-2	4.756471E-2	4.976099E-2	4.685509E-2	4.250081E-2	6.244625E-2	5.494191E-2	4.147937E-2	5.315645E-2	4.047585E-2	4.200962E-2	5.630619E-2	4.306039E-2	5.320901E-2	4.722614E-2	5.808106E-2	5.336963E-2	4.974192E-2	4.290972E-2	4.455990E-2	5.068287E-2	4.459464E-2	3.584083E-2	4.255940E-2	3.898221E-2	3.694050E-2	4.208086E-2	4.476248E-2	3.780849E-2	4.077074E-2	4.267483E-2	5.715551E-2	5.760586E-2	5.669221E-2	3.659650E-2	6.133604E-2	6.926254E-2	6.520108E-2	3.869603E-2	3.922980E-2	5.366990E-2	5.422104E-2	4.497094E-2	4.286144E-2	5.777038E-2	6.383418E-2
2.844030E+2	8.213727E-2	5.742808E-2	8.010949E-2	7.715250E-2	8.194149E-2	7.039645E-2	6.723448E-2	6.761882E-2	8.017118E-2	6.777750E-2	7.077434E-2	6.044592E-2	5.916133E-2	6.698546E-2	7.455637E-2	8.922983E-2	6.548376E-2	6.750396E-2	7.040855E-2	6.856594E-2	8.456555E-2	6.296082E-2	6.627140E-2	6.900147E-2	8.224245E-2	5.978667E-2	8.859046E-2	6.631107E-2	8.811780E-2	5.898843E-2	8.370292E-2	7.314051E-2	5.905421E-2	7.378311E-2	6.491443E-2	7.625271E-2	8.769738E-2	6.948407E-2	7.352259E-2	8.875712E-2	7.275988E-2	7.639927E-2	8.520986E-2	7.105324E-2	8.009922E-2	8.733409E-2	7.899777E-2	8.467246E-2	6.846459E-2	6.901254E-2	7.668258E-2	8.421299E-2	9.186047E-2	7.085113E-2	6.858969E-2	6.897568E-2	8.824924E-2	6.896197E-2	4.426788E-2	7.018495E-2	6.213891E-2	7.498647E-2	6.807247E-2	7.105858E-2	5.728239E-2	5.756113E-2	7.035548E-2	6.538168E-2	8.377632E-2	7.480372E-2	7.433596E-2	6.458140E-2	8.618689E-2	7.373305E-2	6.401358E-2	7.820918E-2	8.250762E-2	8.543160E-2	6.877440E-2	6.757613E-2	7.865107E-2	7.006609E-2	8.035120E-2	7.833772E-2	8.083794E-2	7.359448E-2	5.956742E-2	7.614239E-2	8.326676E-2	5.933264E-2	7.117030E-2	7.013326E-2	6.486994E-2	8.022696E-2	7.165180E-2	8.152731E-2	7.590067E-2	9.046400E-2	7.252894E-2	8.337951E-2	7.906277E-2	7.753851E-2	7.109912E-2	6.851574E-2	8.449040E-2	6.788457E-2	6.702788E-2	8.856806E-2	6.666667E-2	8.182542E-2	6.915867E-2	7.020017E-2	6.106969E-2	9.386639E-2	6.401767E-2	6.893915E-2	7.159302E-2	5.923717E-2	6.130963E-2	6.651928E-2	8.383531E-2	5.265366E-2	7.522322E-2	8.178030E-2	8.371605E-2	7.458267E-2	8.637733E-2	6.693502E-2	6.459419E-2	6.878328E-2	5.275574E-2	7.475319E-2	6.111003E-2	6.442045E-2	6.868000E-2	6.775083E-2	6.817301E-2	6.794237E-2	7.406395E-2	7.949613E-2	6.414086E-2	7.483526E-2	8.162415E-2	8.131876E-2	6.217093E-2	6.823932E-2	7.157500E-2	8.489544E-2	5.855686E-2	5.963743E-2	6.980917E-2	6.955278E-2	7.297415E-2	7.944601E-2	5.819598E-2	7.577088E-2	4.744005E-2	6.684189E-2	7.677048E-2	7.644946E-2	5.647223E-2	7.694880E-2	8.003084E-2	8.402325E-2	6.222741E-2	7.255617E-2	7.189746E-2	7.291610E-2	6.476098E-2	5.282228E-2	6.438529E-2	5.206155E-2
2.845030E+2	1.207731E-1	8.578282E-2	1.079587E-1	1.085300E-1	1.308707E-1	8.099801E-2	1.021247E-1	8.847319E-2	1.153288E-1	7.457132E-2	1.104802E-1	1.093755E-1	1.072118E-1	1.013848E-1	1.204697E-1	9.809801E-2	9.928165E-2	1.053487E-1	1.114664E-1	1.135680E-1	1.256141E-1	1.007374E-1	9.700134E-2	8.337293E-2	1.077074E-1	1.068373E-1	9.973829E-2	1.036749E-1	1.120106E-1	1.063727E-1	1.077132E-1	1.159915E-1	1.006293E-1	8.999206E-2	1.030166E-1	1.116556E-1	1.246801E-1	8.919848E-2	9.213588E-2	1.117999E-1	1.141233E-1	1.091932E-1	1.054980E-1	1.119937E-1	1.057036E-1	1.244143E-1	9.982158E-2	1.229638E-1	1.034808E-1	9.469567E-2	1.210084E-1	1.192031E-1	1.297074E-1	9.574888E-2	1.024148E-1	1.022405E-1	1.015688E-1	1.100992E-1	9.598743E-2	1.088467E-1	9.554022E-2	9.796116E-2	1.137764E-1	1.001281E-1	9.251696E-2	1.110067E-1	9.433603E-2	1.046834E-1	1.126121E-1	9.435642E-2	9.790604E-2	1.124696E-1	1.180071E-1	8.963065E-2	9.449366E-2	1.131786E-1	1.066448E-1	1.192399E-1	1.193420E-1	1.178237E-1	1.228282E-1	1.077465E-1	1.163066E-1	1.146064E-1	1.166823E-1	1.050413E-1	9.349211E-2	9.341074E-2	9.966158E-2	9.532619E-2	9.733773E-2	8.781541E-2	1.096044E-1	1.113400E-1	1.338662E-1	1.121399E-1	1.259988E-1	1.145622E-1	9.892070E-2	1.152750E-1	1.341607E-1	1.130977E-1	8.695240E-2	1.129849E-1	1.081692E-1	1.201270E-1	1.031286E-1	1.220598E-1	1.100877E-1	1.043692E-1	1.246585E-1	1.036425E-1	1.110799E-1	1.103976E-1	9.768212E-2	1.082291E-1	1.166142E-1	9.054132E-2	8.791990E-2	1.035845E-1	1.239960E-1	9.358725E-2	1.038768E-1	1.104003E-1	1.011452E-1	9.236390E-2	1.162122E-1	1.235928E-1	1.262093E-1	1.126396E-1	9.582616E-2	1.292554E-1	1.063428E-1	1.003961E-1	9.361172E-2	1.028848E-1	1.210127E-1	8.772380E-2	1.045330E-1	1.040688E-1	1.014400E-1	1.211884E-1	1.287149E-1	1.307211E-1	1.108054E-1	9.443793E-2	9.827052E-2	1.191237E-1	9.399392E-2	8.647424E-2	1.045504E-1	9.401196E-2	1.124489E-1	1.066593E-1	9.460231E-2	9.327081E-2	9.270928E-2	1.106856E-1	1.246818E-1	1.031217E-1	9.575037E-2	1.176536E-1	1.147284E-1	1.039527E-1	9.375945E-2	8.656311E-2	9.602205E-2	1.035953E-1	1.037027E-1	9.085428E-2	9.481386E-2	1.226978E-1
2.846030E+2	1.825907E-1	1.136402E-1	1.890307E-1	1.887172E-1	2.009866E-1	1.476361E-1	1.734672E-1	1.401353E-1	2.018703E-1	1.405694E-1	1.647260E-1	1.588314E-1	1.431417E-1	1.613632E-1	1.778620E-1	1.582053E-1	1.531476E-1	1.502578E-1	1.668700E-1	1.731961E-1	1.734242E-1	1.389689E-1	1.370436E-1	1.491326E-1	1.756140E-1	1.543885E-1	1.574163E-1	1.507638E-1	1.625537E-1	1.566576E-1	1.672390E-1	1.588426E-1	1.500697E-1	1.600570E-1	1.633444E-1	1.906317E-1	1.817925E-1	1.478830E-1	1.451839E-1	1.569251E-1	1.634606E-1	1.780062E-1	1.486101E-1	1.950279E-1	1.507318E-1	1.590556E-1	1.722083E-1	1.990075E-1	1.656737E-1	1.843245E-1	1.715192E-1	1.595301E-1	1.827920E-1	1.602984E-1	1.498639E-1	1.550731E-1	1.671801E-1	1.522648E-1	1.516854E-1	1.395486E-1	1.406777E-1	1.778931E-1	1.779799E-1	1.582672E-1	1.314610E-1	1.739771E-1	1.662777E-1	1.772828E-1	1.721747E-1	1.539032E-1	1.396064E-1	1.514375E-1	1.795609E-1	1.434774E-1	1.549537E-1	1.581389E-1	1.653311E-1	1.561218E-1	1.728276E-1	1.718634E-1	1.587864E-1	1.609426E-1	1.780892E-1	1.607663E-1	1.777141E-1	1.502465E-1	1.575192E-1	1.302196E-1	1.641828E-1	1.554945E-1	1.576366E-1	1.724752E-1	1.515998E-1	1.757124E-1	1.728182E-1	2.020641E-1	1.693128E-1	2.000536E-1	1.487721E-1	1.755865E-1	1.765440E-1	1.486568E-1	1.465217E-1	1.663480E-1	1.749005E-1	1.542221E-1	1.596342E-1	1.896022E-1	1.495616E-1	1.848826E-1	1.754899E-1	1.823605E-1	1.552637E-1	1.742417E-1	1.628034E-1	1.698926E-1	1.853564E-1	1.545944E-1	1.451573E-1	1.486260E-1	1.872491E-1	1.639089E-1	1.600598E-1	1.746606E-1	1.798260E-1	1.847274E-1	1.725042E-1	1.565223E-1	1.741321E-1	1.761750E-1	1.347948E-1	1.544553E-1	1.906406E-1	1.488854E-1	1.495909E-1	1.477267E-1	1.635924E-1	1.825586E-1	1.414164E-1	1.617861E-1	1.552199E-1	1.708921E-1	1.847007E-1	1.663723E-1	1.724413E-1	1.367587E-1	1.644290E-1	1.660493E-1	1.535100E-1	1.464912E-1	1.500571E-1	1.556130E-1	2.022679E-1	1.600186E-1	1.179021E-1	1.632713E-1	1.556099E-1	1.805298E-1	1.796540E-1	1.772109E-1	1.274570E-1	1.717406E-1	2.080539E-1	1.725984E-1	1.615296E-1	1.440394E-1	1.582101E-1	1.663914E-1	1.783943E-1	1.732568E-1	1.596401E-1	1.768523E-1
2.847020E+2	3.409986E-1	2.310388E-1	3.097109E-1	3.049300E-1	3.074206E-1	2.677871E-1	2.875113E-1	2.737933E-1	3.078836E-1	2.565512E-1	3.179565E-1	2.524813E-1	2.717094E-1	2.579454E-1	3.199066E-1	2.946776E-1	2.719690E-1	2.764069E-1	3.251659E-1	3.172032E-1	3.158871E-1	2.686835E-1	2.865033E-1	2.654090E-1	3.221794E-1	2.805243E-1	2.703488E-1	2.592727E-1	3.164791E-1	3.070304E-1	3.067994E-1	2.864841E-1	3.113142E-1	3.038471E-1	3.268655E-1	3.316992E-1	3.203609E-1	2.693781E-1	2.745464E-1	3.254250E-1	2.915378E-1	3.156324E-1	2.916414E-1	3.063171E-1	2.875824E-1	2.995703E-1	3.154952E-1	3.262865E-1	2.947631E-1	3.090716E-1	3.008889E-1	2.941522E-1	3.051817E-1	2.626559E-1	2.677815E-1	2.881322E-1	3.151756E-1	2.489370E-1	2.835416E-1	2.578085E-1	2.747353E-1	2.697917E-1	3.042097E-1	3.218442E-1	2.334565E-1	3.142054E-1	2.998837E-1	2.902756E-1	3.281715E-1	2.681085E-1	2.556431E-1	2.603602E-1	3.073630E-1	3.014279E-1	2.863676E-1	2.690421E-1	2.803372E-1	3.077475E-1	2.973018E-1	3.240281E-1	3.041597E-1	2.778634E-1	2.803849E-1	3.008952E-1	3.249660E-1	2.578536E-1	2.669386E-1	2.851802E-1	3.064473E-1	2.817404E-1	2.879045E-1	2.785678E-1	2.775866E-1	3.269871E-1	3.297064E-1	3.254712E-1	3.076039E-1	3.383317E-1	2.860101E-1	3.054888E-1	3.201754E-1	2.760765E-1	2.704649E-1	2.958033E-1	3.105156E-1	3.054502E-1	2.883416E-1	3.269198E-1	2.732457E-1	3.260492E-1	3.336902E-1	3.377386E-1	2.868438E-1	3.104813E-1	2.720748E-1	3.150469E-1	3.267136E-1	2.817375E-1	2.807191E-1	2.673283E-1	3.253009E-1	2.588953E-1	2.904048E-1	2.832013E-1	2.868916E-1	3.087028E-1	3.053541E-1	3.284332E-1	3.338738E-1	3.201138E-1	2.373435E-1	3.027246E-1	3.371328E-1	2.886174E-1	2.535516E-1	2.623739E-1	2.646550E-1	2.709934E-1	2.777249E-1	2.846493E-1	2.731889E-1	3.278229E-1	2.935329E-1	3.115240E-1	2.986022E-1	2.722856E-1	3.054511E-1	3.217321E-1	3.007100E-1	2.513987E-1	2.523241E-1	2.688502E-1	3.309895E-1	2.838120E-1	2.431397E-1	2.857712E-1	2.742629E-1	3.013551E-1	3.017021E-1	3.204508E-1	2.282550E-1	3.156018E-1	3.564162E-1	3.408908E-1	2.848341E-1	2.536788E-1	2.992056E-1	2.680158E-1	3.271383E-1	2.719587E-1	3.236898E-1	3.652154E-1
2.848000E+2	6.339882E-1	4.349944E-1	6.531847E-1	6.372993E-1	6.236972E-1	4.979919E-1	5.614249E-1	4.975040E-1	6.307919E-1	4.928826E-1	6.244178E-1	5.192268E-1	5.357710E-1	5.331398E-1	6.714316E-1	5.932429E-1	5.925224E-1	5.579728E-1	6.046564E-1	6.175933E-1	6.220626E-1	5.417662E-1	5.081324E-1	5.158181E-1	6.090842E-1	5.152779E-1	5.703714E-1	5.371989E-1	5.783818E-1	5.806980E-1	5.869212E-1	6.033085E-1	6.062724E-1	6.222762E-1	6.004588E-1	6.247272E-1	6.176268E-1	5.554651E-1	5.225688E-1	5.942566E-1	5.865645E-1	5.736810E-1	5.908904E-1	6.344178E-1	5.961584E-1	5.927985E-1	6.129769E-1	6.924819E-1	5.780287E-1	6.015448E-1	5.606587E-1	6.066896E-1	6.330281E-1	5.406816E-1	5.256977E-1	5.738183E-1	6.017939E-1	5.327839E-1	5.097442E-1	5.921187E-1	5.293093E-1	5.995729E-1	6.246826E-1	6.425938E-1	4.731464E-1	6.041858E-1	5.710915E-1	6.030519E-1	6.132216E-1	5.662869E-1	5.058468E-1	5.321966E-1	5.859204E-1	5.352770E-1	5.352044E-1	5.462981E-1	5.671420E-1	5.992165E-1	5.987642E-1	6.217214E-1	5.918243E-1	5.892817E-1	5.842338E-1	5.833508E-1	6.490172E-1	5.615126E-1	5.593602E-1	5.592021E-1	5.708796E-1	5.637796E-1	5.734709E-1	5.775573E-1	5.710984E-1	6.397296E-1	6.137288E-1	6.229873E-1	5.930583E-1	6.475921E-1	5.915704E-1	6.569195E-1	6.625363E-1	5.664753E-1	5.356457E-1	5.952302E-1	5.941235E-1	6.172549E-1	5.515118E-1	6.261166E-1	5.587718E-1	6.379047E-1	6.205260E-1	6.371766E-1	5.674843E-1	5.932202E-1	5.822294E-1	6.037182E-1	6.234669E-1	5.495088E-1	5.392907E-1	5.455522E-1	6.501002E-1	5.412308E-1	5.409824E-1	5.618420E-1	5.836884E-1	6.183940E-1	6.644989E-1	6.465897E-1	5.997309E-1	5.742559E-1	4.726936E-1	6.103978E-1	6.748375E-1	5.722530E-1	5.282718E-1	5.563890E-1	6.109351E-1	5.566622E-1	5.439274E-1	5.858075E-1	5.230055E-1	6.053839E-1	5.970074E-1	6.339128E-1	5.745196E-1	4.843929E-1	6.101287E-1	5.999728E-1	6.414501E-1	5.031771E-1	5.121511E-1	5.474137E-1	6.164662E-1	5.767542E-1	4.523538E-1	5.719821E-1	5.563612E-1	5.812412E-1	6.027885E-1	6.301453E-1	4.705492E-1	5.799043E-1	6.561333E-1	6.542250E-1	6.307456E-1	5.507196E-1	5.501018E-1	5.647402E-1	6.061144E-1	5.064901E-1	5.829954E-1	5.512243E-1
2.849020E+2	9.495154E-1	6.727763E-1	9.378660E-1	9.226017E-1	9.641858E-1	7.150710E-1	8.238827E-1	7.359078E-1	9.293607E-1	7.093172E-1	8.934102E-1	7.849207E-1	7.820846E-1	8.184776E-1	9.421297E-1	8.957487E-1	8.000632E-1	8.037112E-1	8.955246E-1	8.448545E-1	8.736663E-1	7.456683E-1	7.800474E-1	7.400974E-1	8.920286E-1	7.840671E-1	8.597307E-1	7.910691E-1	8.549885E-1	8.693543E-1	9.000567E-1	8.909574E-1	8.658366E-1	8.941707E-1	8.777557E-1	9.411765E-1	9.593653E-1	8.355914E-1	7.938576E-1	8.549271E-1	8.761089E-1	8.677502E-1	8.186248E-1	9.083161E-1	8.354258E-1	9.016390E-1	9.297941E-1	9.583648E-1	8.414338E-1	8.442247E-1	8.394993E-1	8.711895E-1	9.539928E-1	7.827433E-1	7.826741E-1	8.022695E-1	8.913714E-1	8.228016E-1	7.814135E-1	8.422823E-1	7.852376E-1	8.953703E-1	8.874814E-1	9.342734E-1	6.618380E-1	8.571262E-1	8.343063E-1	9.147370E-1	8.708531E-1	8.142497E-1	7.773547E-1	7.983997E-1	8.477848E-1	7.927159E-1	8.140216E-1	8.000756E-1	7.753836E-1	9.070780E-1	8.958498E-1	8.838619E-1	8.558594E-1	8.857391E-1	8.475694E-1	8.960300E-1	9.401302E-1	7.998207E-1	7.992226E-1	7.827822E-1	8.823810E-1	8.071387E-1	7.896364E-1	7.881358E-1	8.335704E-1	9.476434E-1	9.210146E-1	9.281559E-1	9.113890E-1	9.482464E-1	8.789492E-1	9.694964E-1	9.465036E-1	8.173651E-1	7.960224E-1	8.561170E-1	8.685826E-1	8.581203E-1	8.387490E-1	9.375929E-1	7.530700E-1	9.062819E-1	9.073621E-1	9.448462E-1	8.238475E-1	8.554381E-1	8.068434E-1	8.591014E-1	9.318382E-1	7.970528E-1	8.204559E-1	7.853032E-1	8.895578E-1	7.684638E-1	7.960549E-1	8.583034E-1	8.565816E-1	8.505385E-1	8.806605E-1	9.434394E-1	8.929726E-1	8.553866E-1	6.962502E-1	9.391686E-1	9.734775E-1	7.776804E-1	7.780599E-1	7.907687E-1	8.612826E-1	7.626219E-1	7.940934E-1	7.989609E-1	8.096877E-1	8.985817E-1	9.271664E-1	9.287996E-1	8.037278E-1	7.398284E-1	8.828875E-1	8.660686E-1	9.144966E-1	8.066773E-1	7.895938E-1	7.965353E-1	9.511428E-1	8.302109E-1	6.688490E-1	8.198054E-1	7.889023E-1	8.922258E-1	8.675625E-1	8.820493E-1	6.711988E-1	8.609350E-1	9.761897E-1	9.448626E-1	8.928853E-1	7.782094E-1	7.913486E-1	7.814118E-1	8.314656E-1	7.799582E-1	8.026104E-1	8.384787E-1
2.850010E+2	9.417887E-1	6.702889E-1	9.768540E-1	9.377098E-1	9.651946E-1	7.635354E-1	8.238830E-1	7.847256E-1	9.553229E-1	7.525074E-1	9.510115E-1	7.775543E-1	8.210438E-1	8.387643E-1	9.760870E-1	8.947633E-1	8.365021E-1	8.082531E-1	8.861263E-1	9.410466E-1	9.528666E-1	7.570467E-1	8.075182E-1	7.888728E-1	8.959899E-1	8.476357E-1	8.636085E-1	8.043765E-1	8.839355E-1	8.756398E-1	9.310698E-1	9.411026E-1	9.034786E-1	9.051508E-1	9.179752E-1	9.667757E-1	9.776233E-1	8.117509E-1	7.822243E-1	8.664479E-1	9.010264E-1	8.822656E-1	8.683304E-1	9.492563E-1	8.495525E-1	9.055424E-1	9.630128E-1	1.003667E+0	8.456149E-1	8.594246E-1	8.740319E-1	8.996559E-1	9.569427E-1	7.928867E-1	7.756270E-1	8.325993E-1	9.091307E-1	8.371993E-1	8.518887E-1	8.434200E-1	7.911052E-1	9.221743E-1	8.891132E-1	9.667917E-1	6.975363E-1	8.698259E-1	8.520060E-1	9.813314E-1	9.119799E-1	8.129169E-1	8.081769E-1	7.833759E-1	9.025570E-1	8.434854E-1	8.010302E-1	7.905844E-1	8.089859E-1	8.942718E-1	8.817491E-1	9.288952E-1	8.887356E-1	8.951590E-1	8.582039E-1	9.279023E-1	9.813028E-1	8.008032E-1	8.068678E-1	8.236807E-1	8.670437E-1	8.468934E-1	8.470912E-1	8.508270E-1	8.536553E-1	9.288686E-1	9.339983E-1	9.228949E-1	8.555510E-1	9.293117E-1	8.683919E-1	9.799350E-1	9.676949E-1	8.158827E-1	7.941003E-1	8.911985E-1	8.965667E-1	8.592205E-1	8.465978E-1	9.325695E-1	8.464912E-1	9.878692E-1	9.395206E-1	9.546208E-1	8.398699E-1	8.748193E-1	8.366443E-1	8.885695E-1	9.008562E-1	7.758621E-1	8.435518E-1	8.317519E-1	9.387551E-1	8.277648E-1	8.269557E-1	8.572232E-1	8.725171E-1	9.275909E-1	9.065549E-1	9.342377E-1	9.300550E-1	8.958694E-1	7.290659E-1	9.262762E-1	1.002262E+0	7.933220E-1	7.794716E-1	8.323744E-1	8.838552E-1	8.254574E-1	8.186830E-1	8.481064E-1	7.880021E-1	9.024914E-1	9.156552E-1	9.298178E-1	8.668084E-1	7.494010E-1	8.823072E-1	8.969848E-1	9.172231E-1	7.852076E-1	7.851896E-1	8.046883E-1	9.585805E-1	8.013966E-1	6.591411E-1	8.508545E-1	8.127280E-1	8.973235E-1	8.978222E-1	8.929161E-1	7.043255E-1	9.573995E-1	9.761899E-1	9.182896E-1	9.173575E-1	8.313389E-1	8.658671E-1	8.451666E-1	8.946664E-1	7.935409E-1	8.965424E-1	7.937408E-1
2.851060E+2	8.445543E-1	7.399318E-1	8.233741E-1	8.313747E-1	8.032734E-1	7.246630E-1	7.072349E-1	6.747665E-1	8.071208E-1	7.088318E-1	8.190316E-1	6.754863E-1	6.859831E-1	6.980803E-1	8.086936E-1	8.050955E-1	6.833546E-1	6.937090E-1	7.307982E-1	7.576628E-1	7.717690E-1	6.573716E-1	6.678359E-1	6.621441E-1	7.415027E-1	7.079850E-1	7.026914E-1	6.835838E-1	7.373616E-1	7.349383E-1	7.795048E-1	7.719775E-1	7.574040E-1	7.807072E-1	7.518080E-1	7.935730E-1	8.048814E-1	7.049266E-1	6.910190E-1	7.291522E-1	7.310876E-1	7.672187E-1	7.161700E-1	7.745386E-1	7.065218E-1	7.806401E-1	7.513057E-1	8.505014E-1	7.630401E-1	7.027049E-1	7.539404E-1	7.840109E-1	8.247221E-1	6.859182E-1	6.736823E-1	6.946483E-1	7.586691E-1	7.122454E-1	6.683130E-1	7.723503E-1	6.696859E-1	7.532150E-1	7.656037E-1	7.923750E-1	6.057405E-1	7.735180E-1	6.955615E-1	7.875519E-1	7.829271E-1	7.213749E-1	6.907805E-1	6.829040E-1	7.982287E-1	7.034837E-1	7.130878E-1	7.066572E-1	6.707894E-1	7.236933E-1	7.859622E-1	8.018540E-1	7.824024E-1	7.339086E-1	7.397031E-1	7.811792E-1	8.321134E-1	6.435697E-1	6.697351E-1	7.087099E-1	7.263656E-1	6.857279E-1	6.917934E-1	7.602734E-1	7.144306E-1	8.199723E-1	7.533059E-1	7.980529E-1	7.678795E-1	8.340666E-1	7.428836E-1	8.488726E-1	8.297142E-1	7.200712E-1	6.624710E-1	7.548257E-1	7.744053E-1	7.497858E-1	7.220756E-1	8.080898E-1	6.899124E-1	8.037622E-1	8.202218E-1	8.419467E-1	7.349940E-1	8.668391E-1	7.422737E-1	7.717912E-1	8.543824E-1	6.535348E-1	7.356044E-1	6.792683E-1	8.027108E-1	6.923700E-1	7.342528E-1	7.308624E-1	7.679412E-1	7.517534E-1	7.737056E-1	8.136577E-1	7.725949E-1	7.277532E-1	5.870355E-1	8.037927E-1	8.274981E-1	7.067708E-1	6.637500E-1	6.571672E-1	7.104584E-1	6.829136E-1	7.304835E-1	7.555301E-1	6.882489E-1	8.203955E-1	7.832775E-1	8.305039E-1	7.141632E-1	6.179049E-1	7.644982E-1	7.589680E-1	7.927390E-1	6.568788E-1	6.462242E-1	6.891868E-1	8.475935E-1	6.781372E-1	5.795327E-1	7.424667E-1	6.959809E-1	7.698711E-1	7.566098E-1	7.758547E-1	6.044735E-1	7.761794E-1	8.206480E-1	8.103388E-1	7.860527E-1	7.149374E-1	7.157580E-1	7.392275E-1	7.950779E-1	6.260191E-1	7.298465E-1	7.584232E-1
2.852010E+2	7.041777E-1	7.414244E-1	7.206414E-1	6.651907E-1	7.376977E-1	7.231479E-1	6.556806E-1	5.794996E-1	6.724406E-1	6.753479E-1	7.396203E-1	5.792054E-1	6.366339E-1	6.672086E-1	7.039538E-1	6.858664E-1	6.294889E-1	5.927899E-1	6.481875E-1	6.918467E-1	7.002959E-1	6.655640E-1	5.886826E-1	5.785294E-1	6.860457E-1	6.654396E-1	6.280494E-1	6.155097E-1	6.183567E-1	6.788508E-1	6.999702E-1	6.716881E-1	6.568366E-1	6.578319E-1	6.692535E-1	7.091504E-1	6.897198E-1	6.283619E-1	6.258730E-1	6.182593E-1	6.663012E-1	6.607728E-1	6.284236E-1	6.932341E-1	6.085193E-1	6.552497E-1	6.833805E-1	7.232224E-1	6.402216E-1	6.424280E-1	6.034385E-1	6.938680E-1	7.180616E-1	5.955489E-1	5.834822E-1	6.109973E-1	6.560590E-1	6.351126E-1	6.518307E-1	6.461315E-1	6.110074E-1	6.594020E-1	6.975918E-1	7.017183E-1	4.995725E-1	6.708607E-1	6.367521E-1	6.816553E-1	6.850746E-1	5.898387E-1	6.042062E-1	6.167055E-1	6.438229E-1	6.127135E-1	6.026608E-1	5.867625E-1	6.078436E-1	6.709314E-1	6.420381E-1	6.890338E-1	6.616859E-1	6.402612E-1	6.450035E-1	6.938050E-1	7.037522E-1	5.777272E-1	6.119200E-1	5.823783E-1	6.486226E-1	6.368411E-1	6.189794E-1	6.048840E-1	6.537199E-1	7.266326E-1	6.851405E-1	6.995190E-1	6.640305E-1	6.757068E-1	6.355562E-1	7.346292E-1	7.275240E-1	5.872186E-1	5.625475E-1	6.515579E-1	6.420194E-1	6.414518E-1	6.095874E-1	7.120797E-1	6.149125E-1	7.098298E-1	6.843249E-1	7.184669E-1	6.446843E-1	6.564945E-1	6.655631E-1	6.282742E-1	7.377143E-1	5.952611E-1	6.100838E-1	6.149905E-1	6.887549E-1	6.230975E-1	6.258191E-1	6.234022E-1	6.524097E-1	6.900128E-1	6.718162E-1	6.984051E-1	6.773203E-1	6.389161E-1	5.029456E-1	6.760346E-1	7.539949E-1	6.202207E-1	5.569670E-1	5.790406E-1	6.232473E-1	6.154242E-1	6.315927E-1	6.412391E-1	6.123498E-1	6.662570E-1	6.671203E-1	7.016500E-1	6.313402E-1	5.337669E-1	7.128486E-1	6.761576E-1	7.136871E-1	5.631944E-1	5.772306E-1	6.194323E-1	7.537695E-1	6.018327E-1	5.232241E-1	5.985144E-1	5.849529E-1	6.633206E-1	6.628038E-1	6.928747E-1	5.263905E-1	6.997884E-1	7.081799E-1	6.835658E-1	7.112226E-1	6.299306E-1	6.541062E-1	6.452732E-1	6.699532E-1	5.807424E-1	6.187158E-1	5.888976E-1
2.853000E+2	5.373981E-1	5.707991E-1	5.578781E-1	5.135323E-1	5.313865E-1	5.459514E-1	4.411326E-1	4.320971E-1	4.917845E-1	5.224846E-1	5.265511E-1	4.487264E-1	4.427000E-1	4.960946E-1	5.136042E-1	4.562773E-1	4.842628E-1	4.822827E-1	5.047322E-1	5.326514E-1	5.592821E-1	5.312981E-1	4.368945E-1	4.361230E-1	5.349528E-1	5.177802E-1	4.598621E-1	4.604240E-1	4.846483E-1	5.081713E-1	5.173908E-1	5.171505E-1	5.146945E-1	5.307735E-1	5.221377E-1	5.555552E-1	5.094871E-1	5.366672E-1	4.713822E-1	4.987252E-1	4.569918E-1	5.258348E-1	4.666261E-1	5.421579E-1	5.021287E-1	5.210775E-1	5.058835E-1	5.727534E-1	5.059056E-1	5.286886E-1	5.153019E-1	5.461986E-1	5.430792E-1	5.282328E-1	4.350276E-1	4.617947E-1	5.046096E-1	5.060447E-1	4.375637E-1	4.789760E-1	4.340695E-1	5.119820E-1	5.283776E-1	5.218812E-1	3.855229E-1	5.121117E-1	4.877308E-1	5.009769E-1	5.021325E-1	4.511924E-1	4.496417E-1	4.678761E-1	5.076738E-1	4.865582E-1	4.542577E-1	4.763598E-1	4.724872E-1	4.957425E-1	4.932522E-1	5.330773E-1	5.147716E-1	5.028382E-1	5.032071E-1	5.311457E-1	5.424536E-1	4.534140E-1	4.657088E-1	4.465035E-1	4.926075E-1	4.445175E-1	4.523043E-1	4.746794E-1	4.423734E-1	5.431710E-1	5.298751E-1	5.344977E-1	5.220862E-1	5.242322E-1	4.883483E-1	5.188988E-1	5.217306E-1	4.538721E-1	4.496540E-1	4.721987E-1	4.907976E-1	4.847242E-1	4.772176E-1	5.351295E-1	4.750000E-1	5.176708E-1	5.499845E-1	5.517698E-1	4.766891E-1	4.974537E-1	5.077262E-1	5.229552E-1	5.116398E-1	4.628201E-1	4.604641E-1	4.456167E-1	5.517067E-1	4.499179E-1	4.555842E-1	5.127017E-1	5.005258E-1	5.057791E-1	5.248936E-1	5.323052E-1	5.478145E-1	4.814830E-1	3.870651E-1	5.594123E-1	5.489054E-1	4.528550E-1	4.412454E-1	4.606953E-1	4.816569E-1	4.786994E-1	4.535896E-1	4.818025E-1	4.653222E-1	5.227300E-1	5.091043E-1	5.157546E-1	4.435432E-1	4.194004E-1	5.224979E-1	5.094345E-1	5.183294E-1	4.070524E-1	4.182025E-1	4.359883E-1	5.083401E-1	4.556284E-1	3.853665E-1	4.556910E-1	4.815481E-1	5.124168E-1	5.125131E-1	5.422256E-1	4.364768E-1	5.168952E-1	5.293072E-1	5.612211E-1	5.243837E-1	4.367334E-1	4.611085E-1	4.712653E-1	5.065260E-1	4.648348E-1	4.877412E-1	4.970698E-1
2.854020E+2	4.652778E-1	4.703133E-1	4.669042E-1	4.606555E-1	4.294923E-1	4.434697E-1	3.776009E-1	3.780649E-1	4.398593E-1	4.259136E-1	4.415475E-1	3.592850E-1	3.933508E-1	4.140650E-1	4.370816E-1	4.168630E-1	4.092732E-1	3.985202E-1	4.072815E-1	4.201461E-1	4.496574E-1	4.648480E-1	3.526196E-1	3.712345E-1	4.591238E-1	3.941470E-1	4.109084E-1	3.943971E-1	4.037799E-1	3.901944E-1	4.408580E-1	4.332720E-1	3.798568E-1	4.047613E-1	4.088908E-1	4.624182E-1	4.373947E-1	4.367206E-1	3.606329E-1	4.108750E-1	4.071564E-1	4.242283E-1	3.793873E-1	4.256791E-1	3.869098E-1	4.591139E-1	4.032522E-1	4.557222E-1	3.987664E-1	4.296248E-1	4.333508E-1	4.133555E-1	4.501813E-1	4.788985E-1	3.763038E-1	4.065157E-1	4.380118E-1	4.726210E-1	3.869810E-1	4.266687E-1	3.767454E-1	4.425793E-1	4.184699E-1	4.341805E-1	3.345249E-1	4.602539E-1	3.866694E-1	4.638581E-1	4.227156E-1	4.796329E-1	3.707731E-1	3.871236E-1	4.096053E-1	4.691226E-1	3.803061E-1	3.974288E-1	3.764118E-1	4.650078E-1	4.042720E-1	4.245235E-1	3.976508E-1	4.091912E-1	3.968603E-1	4.179436E-1	4.775461E-1	3.787276E-1	3.725350E-1	3.778841E-1	3.979409E-1	3.676952E-1	3.783534E-1	3.959133E-1	3.926171E-1	4.455393E-1	4.324955E-1	4.192223E-1	4.020597E-1	4.720195E-1	4.103457E-1	4.533683E-1	4.393189E-1	3.941130E-1	3.487699E-1	4.222941E-1	3.960824E-1	4.341315E-1	4.385011E-1	4.374442E-1	3.600874E-1	4.291067E-1	4.358724E-1	4.735661E-1	4.121125E-1	4.421604E-1	3.940398E-1	4.367364E-1	4.617772E-1	3.761317E-1	3.806332E-1	3.925995E-1	4.272085E-1	4.163310E-1	3.802980E-1	4.117218E-1	3.984396E-1	4.420626E-1	4.325744E-1	4.654779E-1	4.331426E-1	3.909587E-1	3.275869E-1	4.439613E-1	4.620376E-1	3.944592E-1	3.617463E-1	3.774835E-1	4.447207E-1	3.861919E-1	3.616486E-1	3.680820E-1	3.634008E-1	4.188541E-1	4.395145E-1	4.678798E-1	4.002055E-1	3.685146E-1	4.174565E-1	4.349051E-1	4.383691E-1	3.841188E-1	3.878653E-1	3.675931E-1	4.517019E-1	3.851946E-1	3.067291E-1	3.879494E-1	3.648011E-1	4.191216E-1	4.207244E-1	4.547999E-1	3.290533E-1	4.438497E-1	4.527327E-1	4.399845E-1	4.147276E-1	3.691142E-1	3.957039E-1	3.897739E-1	4.005535E-1	3.534559E-1	3.633799E-1	4.499789E-1
2.855050E+2	3.693320E-1	3.812690E-1	3.567452E-1	3.235241E-1	3.331465E-1	3.758220E-1	3.348997E-1	2.851682E-1	3.608907E-1	3.623426E-1	3.498327E-1	2.882580E-1	3.258205E-1	3.249799E-1	3.686896E-1	3.469020E-1	3.363965E-1	3.208120E-1	3.419848E-1	3.363295E-1	3.694916E-1	3.456016E-1	3.167679E-1	3.050393E-1	3.572638E-1	3.495990E-1	3.246340E-1	2.976606E-1	3.178573E-1	3.336234E-1	3.513190E-1	3.621571E-1	3.253599E-1	3.702520E-1	3.247484E-1	3.600224E-1	3.774732E-1	3.615315E-1	3.047930E-1	3.239849E-1	3.239311E-1	3.634795E-1	3.190301E-1	3.328419E-1	3.083307E-1	3.639734E-1	3.611094E-1	3.861506E-1	3.052160E-1	3.310856E-1	3.416063E-1	3.315146E-1	3.400796E-1	3.613254E-1	3.091231E-1	3.228647E-1	3.418149E-1	3.738912E-1	3.136646E-1	3.248978E-1	3.203241E-1	3.880153E-1	3.406643E-1	3.602752E-1	2.552465E-1	4.009878E-1	3.301447E-1	3.574158E-1	3.447165E-1	4.045328E-1	3.023298E-1	3.091878E-1	3.506597E-1	4.121985E-1	3.163481E-1	3.130032E-1	3.579541E-1	3.815113E-1	3.663465E-1	3.524704E-1	3.339536E-1	4.091913E-1	3.290006E-1	3.454069E-1	4.029512E-1	3.743054E-1	3.046858E-1	3.169908E-1	3.270730E-1	3.650091E-1	2.907491E-1	2.930355E-1	3.291674E-1	3.731210E-1	3.378216E-1	3.579969E-1	3.467427E-1	3.675938E-1	3.094698E-1	3.484024E-1	3.686808E-1	3.215133E-1	2.988086E-1	3.575663E-1	3.390377E-1	3.252479E-1	3.291515E-1	3.754838E-1	3.052634E-1	3.765043E-1	3.502886E-1	3.480287E-1	3.460794E-1	3.526639E-1	3.250551E-1	3.439686E-1	3.543075E-1	3.010018E-1	2.977894E-1	3.423971E-1	3.770081E-1	3.003532E-1	3.117549E-1	3.215413E-1	3.431638E-1	3.516744E-1	3.672754E-1	3.879965E-1	3.498483E-1	3.364196E-1	3.060515E-1	3.578128E-1	3.869920E-1	3.115587E-1	2.925958E-1	3.284809E-1	3.595615E-1	3.210288E-1	3.007104E-1	3.246512E-1	3.070181E-1	3.518375E-1	3.641690E-1	3.599077E-1	3.125666E-1	3.095681E-1	3.675478E-1	3.338772E-1	3.815788E-1	3.094642E-1	3.022344E-1	2.978392E-1	3.779018E-1	3.441080E-1	2.557605E-1	3.173846E-1	3.276327E-1	3.375515E-1	3.662567E-1	3.649047E-1	2.736852E-1	3.546334E-1	3.671843E-1	3.464267E-1	3.864896E-1	3.087400E-1	3.463825E-1	3.159521E-1	3.494821E-1	3.190462E-1	3.303052E-1	2.569066E-1
2.856010E+2	3.120209E-1	2.867534E-1	2.899067E-1	2.712282E-1	2.897656E-1	2.985822E-1	2.666813E-1	2.273444E-1	2.905754E-1	2.895504E-1	2.760136E-1	2.409070E-1	2.409741E-1	2.627967E-1	2.725579E-1	2.621611E-1	2.402826E-1	2.526908E-1	2.796556E-1	2.778262E-1	2.463457E-1	2.823372E-1	2.241123E-1	2.431991E-1	2.820008E-1	2.625049E-1	2.364206E-1	2.485239E-1	2.595038E-1	2.838214E-1	2.787878E-1	2.614120E-1	2.624353E-1	2.949586E-1	2.734166E-1	2.903044E-1	2.679300E-1	2.785476E-1	2.429038E-1	2.490957E-1	2.686138E-1	2.839137E-1	2.576588E-1	2.619170E-1	2.527073E-1	2.654175E-1	2.916968E-1	2.621074E-1	2.607924E-1	2.540361E-1	2.493474E-1	2.834774E-1	2.914192E-1	2.857098E-1	2.480501E-1	2.450838E-1	2.860696E-1	3.024155E-1	2.625131E-1	2.526910E-1	2.291464E-1	3.085615E-1	2.764611E-1	2.691250E-1	2.042490E-1	3.020344E-1	2.467837E-1	2.908211E-1	2.733363E-1	3.054362E-1	2.334328E-1	2.443974E-1	2.875410E-1	3.116845E-1	2.373999E-1	2.475603E-1	2.500471E-1	3.113332E-1	2.389542E-1	2.894238E-1	2.779617E-1	3.022446E-1	2.636734E-1	2.662752E-1	2.828246E-1	2.755424E-1	2.640720E-1	2.470085E-1	2.562053E-1	2.914106E-1	2.350011E-1	2.432043E-1	2.661743E-1	2.980196E-1	2.685741E-1	2.910321E-1	2.637683E-1	2.975939E-1	2.830779E-1	2.956299E-1	2.975712E-1	2.987947E-1	2.469253E-1	2.676395E-1	2.545476E-1	3.142494E-1	2.564269E-1	2.962187E-1	2.421054E-1	2.841824E-1	3.010132E-1	2.682816E-1	2.528564E-1	2.825490E-1	2.483446E-1	2.670258E-1	2.734628E-1	2.687344E-1	2.611379E-1	2.537224E-1	2.781126E-1	2.699156E-1	2.533240E-1	2.502607E-1	2.505393E-1	3.008000E-1	2.788968E-1	2.616058E-1	2.614197E-1	2.740085E-1	2.783633E-1	2.728366E-1	3.047501E-1	2.594198E-1	2.497881E-1	2.411086E-1	2.590122E-1	2.494666E-1	2.542050E-1	2.292179E-1	2.536719E-1	2.624820E-1	2.433024E-1	2.982817E-1	2.624876E-1	2.234150E-1	2.688901E-1	2.753581E-1	2.693617E-1	2.250500E-1	2.376447E-1	2.258199E-1	3.092502E-1	2.475279E-1	2.188687E-1	2.530294E-1	2.442420E-1	3.023748E-1	2.870768E-1	2.878514E-1	2.017540E-1	2.854912E-1	2.840298E-1	2.766738E-1	3.173073E-1	2.580257E-1	2.729362E-1	2.622638E-1	2.805364E-1	2.049500E-1	2.853242E-1	2.851611E-1
2.858010E+2	3.068697E-1	2.728243E-1	2.793861E-1	2.991196E-1	2.953142E-1	2.970675E-1	2.724094E-1	2.590999E-1	2.889528E-1	2.987706E-1	2.961462E-1	2.366978E-1	2.522293E-1	2.826424E-1	2.864279E-1	2.789122E-1	2.608786E-1	2.708566E-1	2.648154E-1	2.688260E-1	2.468286E-1	2.786963E-1	2.688103E-1	2.279569E-1	2.916208E-1	2.945399E-1	2.742264E-1	2.633673E-1	2.705313E-1	2.596459E-1	2.962949E-1	2.764551E-1	2.865935E-1	2.912978E-1	2.665373E-1	2.919390E-1	2.913364E-1	3.101823E-1	2.410420E-1	2.634977E-1	2.711053E-1	2.704738E-1	2.399064E-1	2.722964E-1	2.677169E-1	2.634662E-1	2.609573E-1	3.440835E-1	2.743805E-1	2.896781E-1	2.586246E-1	2.645002E-1	2.983002E-1	3.207510E-1	2.560369E-1	2.475296E-1	2.564705E-1	3.029303E-1	2.335271E-1	2.708849E-1	2.512641E-1	3.224415E-1	2.661232E-1	2.873552E-1	2.190847E-1	2.930386E-1	2.707640E-1	2.984628E-1	2.719186E-1	3.161012E-1	2.470311E-1	2.481530E-1	2.713699E-1	3.091205E-1	2.793725E-1	2.505583E-1	2.476810E-1	2.862331E-1	2.909808E-1	2.903718E-1	2.728250E-1	3.221934E-1	2.601281E-1	2.706712E-1	3.114032E-1	3.015844E-1	2.569043E-1	2.542791E-1	2.641383E-1	3.182712E-1	2.264684E-1	2.453476E-1	2.611530E-1	2.931919E-1	2.610001E-1	3.001200E-1	2.872515E-1	2.958724E-1	2.654832E-1	2.770724E-1	2.890945E-1	3.185499E-1	2.526904E-1	2.829567E-1	2.862986E-1	2.862029E-1	2.522413E-1	2.917533E-1	2.517545E-1	2.884765E-1	2.724853E-1	3.048111E-1	2.810173E-1	2.808391E-1	2.533111E-1	2.806678E-1	2.797559E-1	2.918511E-1	2.320172E-1	2.640440E-1	2.931727E-1	3.181958E-1	2.538859E-1	2.508014E-1	2.600010E-1	2.988244E-1	2.839629E-1	3.143899E-1	2.859515E-1	2.908764E-1	2.645187E-1	2.845571E-1	2.970407E-1	2.844463E-1	2.601377E-1	2.559016E-1	2.713241E-1	3.227743E-1	2.509977E-1	2.806492E-1	2.545392E-1	3.032500E-1	2.841146E-1	3.099961E-1	2.615246E-1	2.420565E-1	2.549621E-1	2.891599E-1	2.961665E-1	2.377364E-1	2.440058E-1	2.557149E-1	2.709194E-1	2.299190E-1	2.203252E-1	2.671428E-1	2.661621E-1	3.033941E-1	2.739643E-1	3.085967E-1	2.221032E-1	2.843761E-1	2.953959E-1	2.977109E-1	2.773042E-1	2.498145E-1	2.439866E-1	2.651396E-1	2.760676E-1	2.493209E-1	2.562182E-1	2.569068E-1
2.860050E+2	4.485355E-1	4.931962E-1	5.034174E-1	4.600745E-1	4.698460E-1	4.762841E-1	4.187401E-1	3.813829E-1	4.495952E-1	4.443547E-1	4.555287E-1	3.819084E-1	3.942165E-1	4.334701E-1	4.872993E-1	4.306576E-1	4.420152E-1	4.141619E-1	4.161856E-1	4.308341E-1	4.931210E-1	4.634823E-1	3.707786E-1	3.982349E-1	4.330930E-1	4.687273E-1	4.365974E-1	3.836490E-1	4.446735E-1	4.491826E-1	4.553641E-1	4.619913E-1	4.517707E-1	4.502514E-1	4.565182E-1	4.983662E-1	4.734410E-1	4.646872E-1	4.053051E-1	4.574405E-1	4.236023E-1	4.548712E-1	4.184420E-1	4.614302E-1	4.032436E-1	4.561864E-1	4.315132E-1	4.778338E-1	4.400539E-1	4.731288E-1	4.271659E-1	4.151347E-1	5.008084E-1	4.530785E-1	4.007333E-1	4.021135E-1	4.123592E-1	4.916469E-1	3.983481E-1	4.113182E-1	4.169173E-1	4.957082E-1	4.881147E-1	4.923192E-1	3.303520E-1	5.089371E-1	4.426243E-1	4.856922E-1	4.435154E-1	5.031845E-1	4.115674E-1	3.805503E-1	4.539446E-1	4.947634E-1	4.252767E-1	4.199092E-1	4.421970E-1	4.906204E-1	4.650506E-1	4.629201E-1	4.397731E-1	4.734700E-1	4.556039E-1	4.404744E-1	4.896559E-1	4.907569E-1	3.954701E-1	4.078772E-1	4.402499E-1	4.853460E-1	4.249994E-1	3.916272E-1	3.962689E-1	4.954281E-1	4.476441E-1	4.469647E-1	4.286742E-1	4.783308E-1	4.027211E-1	4.435093E-1	4.953586E-1	4.983206E-1	3.828786E-1	4.242704E-1	4.192229E-1	5.023218E-1	4.385007E-1	4.776347E-1	3.894735E-1	5.015679E-1	4.841106E-1	4.648200E-1	4.393025E-1	4.775024E-1	4.266004E-1	4.438301E-1	4.801733E-1	5.210942E-1	4.052346E-1	4.108974E-1	4.924698E-1	5.202393E-1	4.117610E-1	4.122614E-1	4.362858E-1	4.845401E-1	4.545283E-1	4.780687E-1	4.513994E-1	4.904789E-1	4.306487E-1	4.603707E-1	5.232045E-1	5.310634E-1	3.998495E-1	3.807196E-1	4.149664E-1	4.891721E-1	4.177753E-1	4.332284E-1	4.015666E-1	5.048589E-1	4.949769E-1	4.627867E-1	4.088728E-1	4.083163E-1	4.493755E-1	4.564359E-1	4.574504E-1	4.924423E-1	3.868864E-1	4.160584E-1	4.854561E-1	5.362014E-1	3.708037E-1	4.065785E-1	3.700429E-1	5.047695E-1	4.454369E-1	4.794964E-1	3.645455E-1	4.901306E-1	4.958053E-1	4.671105E-1	4.311993E-1	4.768215E-1	4.235815E-1	4.142209E-1	4.433253E-1	4.403864E-1	4.480502E-1	4.429152E-1
2.862050E+2	8.941374E-1	8.409148E-1	8.246116E-1	8.145236E-1	8.789369E-1	8.665217E-1	7.270236E-1	6.904071E-1	8.076616E-1	8.369461E-1	8.475527E-1	7.049495E-1	7.184491E-1	7.615862E-1	8.756510E-1	7.750417E-1	7.572876E-1	7.254990E-1	7.723505E-1	8.066026E-1	8.292375E-1	8.549017E-1	6.906508E-1	7.004679E-1	8.377034E-1	8.151009E-1	7.463137E-1	7.132703E-1	7.185234E-1	8.064983E-1	8.205223E-1	7.696987E-1	7.950458E-1	8.251515E-1	8.100195E-1	8.431377E-1	8.137757E-1	8.273392E-1	7.394134E-1	7.795579E-1	7.859060E-1	8.338810E-1	7.263137E-1	8.298945E-1	7.749471E-1	8.074743E-1	8.341045E-1	8.505017E-1	7.849904E-1	8.426516E-1	7.704333E-1	8.219668E-1	8.606033E-1	8.814123E-1	7.408627E-1	7.230209E-1	7.621221E-1	8.407992E-1	6.995719E-1	7.427855E-1	7.116634E-1	8.408059E-1	8.221898E-1	8.155326E-1	6.164035E-1	9.021054E-1	7.383844E-1	8.252159E-1	7.791457E-1	8.582432E-1	6.703833E-1	7.129520E-1	7.643218E-1	8.788705E-1	7.645543E-1	7.476215E-1	7.484066E-1	8.614882E-1	7.898520E-1	8.530496E-1	7.711013E-1	8.502750E-1	7.979410E-1	8.064573E-1	8.418007E-1	8.410949E-1	7.347177E-1	7.114366E-1	7.459335E-1	8.651586E-1	7.446970E-1	7.120490E-1	7.482097E-1	8.854172E-1	7.852247E-1	8.430151E-1	7.553547E-1	8.162799E-1	7.464026E-1	8.494529E-1	8.438420E-1	8.815685E-1	7.085891E-1	8.086829E-1	7.598752E-1	8.993648E-1	7.529446E-1	7.846452E-1	6.969297E-1	8.799817E-1	8.207406E-1	8.445184E-1	7.422773E-1	8.913502E-1	7.610376E-1	8.045328E-1	8.224323E-1	8.721827E-1	6.803755E-1	7.200869E-1	7.826304E-1	8.728964E-1	7.016670E-1	7.654232E-1	7.246167E-1	9.053641E-1	8.187392E-1	8.136582E-1	7.731656E-1	8.536996E-1	7.588050E-1	7.744900E-1	8.496009E-1	8.903000E-1	7.385459E-1	6.978485E-1	7.725323E-1	8.859656E-1	7.192578E-1	7.572452E-1	6.908512E-1	8.907630E-1	8.282758E-1	8.198083E-1	6.997172E-1	6.743323E-1	7.871321E-1	8.163832E-1	8.059144E-1	8.788927E-1	6.843908E-1	6.991517E-1	8.521700E-1	8.755664E-1	6.004057E-1	7.430311E-1	7.026525E-1	9.325007E-1	7.793048E-1	8.212961E-1	6.158310E-1	9.161370E-1	8.601325E-1	8.147675E-1	8.001718E-1	9.071685E-1	7.366657E-1	7.569640E-1	7.957162E-1	9.049211E-1	7.483684E-1	7.537145E-1
2.864190E+2	9.166744E-1	9.448824E-1	8.809288E-1	8.435774E-1	8.960879E-1	9.392182E-1	7.796193E-1	7.411215E-1	9.033980E-1	8.471373E-1	8.637707E-1	7.559831E-1	7.929063E-1	8.131852E-1	9.210866E-1	8.893439E-1	7.868613E-1	7.835274E-1	8.257757E-1	9.134832E-1	8.799447E-1	8.995049E-1	7.255714E-1	7.514205E-1	8.360055E-1	8.576463E-1	8.146550E-1	7.567763E-1	8.476364E-1	8.751570E-1	8.715441E-1	8.772820E-1	8.338125E-1	8.591381E-1	8.232492E-1	9.101312E-1	9.284690E-1	9.094057E-1	7.831550E-1	8.467659E-1	8.088310E-1	9.150588E-1	8.201460E-1	8.581493E-1	8.045246E-1	8.543126E-1	8.524491E-1	9.405670E-1	8.508416E-1	8.704313E-1	8.235217E-1	8.522119E-1	9.097559E-1	9.072321E-1	7.319362E-1	7.978671E-1	8.218139E-1	9.220452E-1	7.592476E-1	8.331854E-1	7.581549E-1	9.121227E-1	9.027161E-1	8.869744E-1	6.451477E-1	9.380880E-1	8.177480E-1	9.234711E-1	8.202722E-1	9.448961E-1	7.138973E-1	7.861930E-1	8.331787E-1	9.260505E-1	7.950341E-1	7.905837E-1	8.018868E-1	9.214207E-1	8.423644E-1	8.729592E-1	8.332572E-1	8.957135E-1	8.419987E-1	8.564642E-1	9.071925E-1	9.374009E-1	8.269357E-1	7.927799E-1	8.453600E-1	8.839611E-1	7.720018E-1	7.366969E-1	7.993349E-1	9.213584E-1	8.679971E-1	8.635827E-1	8.592036E-1	9.298860E-1	7.868702E-1	9.138242E-1	9.281377E-1	9.635517E-1	7.614335E-1	8.753867E-1	8.427511E-1	9.367596E-1	7.859059E-1	8.739580E-1	7.635967E-1	9.406345E-1	8.752029E-1	9.211791E-1	8.257896E-1	9.346736E-1	8.548564E-1	8.225404E-1	8.824600E-1	9.338277E-1	7.817952E-1	7.566832E-1	8.413655E-1	9.091069E-1	7.539173E-1	7.945827E-1	8.147511E-1	9.261092E-1	8.463226E-1	9.013084E-1	8.644468E-1	9.374764E-1	8.664814E-1	8.752901E-1	9.662812E-1	9.257545E-1	6.938567E-1	7.773621E-1	8.381978E-1	9.226198E-1	7.625559E-1	7.909612E-1	7.849665E-1	9.136603E-1	8.518212E-1	9.068993E-1	8.085436E-1	7.524243E-1	8.178898E-1	8.572359E-1	8.199983E-1	8.886519E-1	7.793183E-1	7.689054E-1	9.745989E-1	9.780162E-1	6.305011E-1	7.870638E-1	7.574522E-1	9.263832E-1	8.206600E-1	8.538955E-1	6.754578E-1	9.451325E-1	9.241436E-1	8.690197E-1	8.618235E-1	9.950732E-1	7.774097E-1	8.240743E-1	8.467875E-1	9.275588E-1	8.264247E-1	7.890326E-1
2.866180E+2	8.432665E-1	8.618080E-1	8.252305E-1	8.232402E-1	8.431232E-1	8.867150E-1	7.186912E-1	6.600734E-1	8.298381E-1	8.233578E-1	8.274202E-1	6.644378E-1	7.413923E-1	7.510020E-1	8.359551E-1	7.898225E-1	7.092311E-1	7.719221E-1	7.713616E-1	7.891646E-1	7.988133E-1	8.139394E-1	7.134657E-1	6.926286E-1	7.941301E-1	8.015861E-1	7.584307E-1	6.984273E-1	7.699844E-1	7.557294E-1	8.025144E-1	8.002415E-1	8.371827E-1	7.854128E-1	7.967895E-1	7.886710E-1	8.236066E-1	7.883691E-1	7.235924E-1	7.459544E-1	7.589956E-1	8.440952E-1	7.151551E-1	7.785748E-1	7.122605E-1	8.089379E-1	7.651880E-1	9.076688E-1	7.478835E-1	8.033411E-1	7.714642E-1	7.887557E-1	8.468411E-1	8.569758E-1	7.107954E-1	7.425889E-1	7.808684E-1	8.613673E-1	6.876365E-1	7.825848E-1	7.103094E-1	8.173526E-1	7.868233E-1	8.061707E-1	6.358752E-1	8.751176E-1	7.789225E-1	8.377708E-1	8.112907E-1	8.386905E-1	6.817153E-1	6.645939E-1	7.564971E-1	8.204084E-1	7.095901E-1	7.301368E-1	7.507731E-1	8.686596E-1	8.005485E-1	7.843145E-1	7.592859E-1	8.657900E-1	7.442606E-1	7.905210E-1	8.190351E-1	8.646801E-1	7.404519E-1	6.987126E-1	8.115130E-1	8.485047E-1	7.094282E-1	6.943667E-1	7.377110E-1	8.934637E-1	7.852247E-1	7.789196E-1	7.454397E-1	8.650494E-1	7.651706E-1	8.656909E-1	8.301854E-1	8.628011E-1	6.298038E-1	7.775541E-1	7.679476E-1	8.355735E-1	7.414341E-1	8.717254E-1	6.899122E-1	8.220119E-1	8.285207E-1	8.162215E-1	7.636404E-1	8.827997E-1	7.301325E-1	7.439608E-1	8.630964E-1	8.875940E-1	6.853964E-1	6.914674E-1	8.263050E-1	8.818186E-1	7.275109E-1	7.319429E-1	7.226250E-1	8.648622E-1	8.328121E-1	8.369024E-1	8.444788E-1	8.964319E-1	7.721364E-1	7.785927E-1	8.824976E-1	8.678801E-1	6.915046E-1	6.936881E-1	7.535514E-1	8.464025E-1	7.085668E-1	7.446725E-1	6.865140E-1	8.745674E-1	7.874638E-1	8.310138E-1	7.502785E-1	6.642559E-1	7.877123E-1	7.827065E-1	7.990996E-1	8.901151E-1	6.922196E-1	6.823926E-1	8.699052E-1	8.846377E-1	6.178804E-1	7.599670E-1	6.869277E-1	8.335972E-1	7.767827E-1	7.817817E-1	6.044735E-1	8.464369E-1	8.667130E-1	8.191961E-1	8.368807E-1	8.448626E-1	7.468519E-1	7.109452E-1	7.874169E-1	8.370061E-1	7.324926E-1	7.019149E-1
2.868000E+2	9.244026E-1	9.692575E-1	9.842807E-1	9.226024E-1	9.656990E-1	9.649641E-1	8.171135E-1	7.643455E-1	8.920396E-1	8.767386E-1	9.605177E-1	7.812374E-1	7.998325E-1	8.546409E-1	9.550432E-1	8.794902E-1	8.232994E-1	8.753647E-1	8.430892E-1	9.202333E-1	9.446566E-1	9.350063E-1	7.819098E-1	7.914861E-1	8.863692E-1	8.776681E-1	8.185323E-1	8.100066E-1	8.811784E-1	8.780579E-1	8.905523E-1	8.845754E-1	8.753878E-1	9.009675E-1	8.899276E-1	9.624187E-1	9.631113E-1	9.561699E-1	8.255003E-1	8.419654E-1	8.302605E-1	9.344128E-1	8.206535E-1	9.284978E-1	8.424894E-1	8.757805E-1	8.896346E-1	9.594431E-1	8.471831E-1	8.961149E-1	8.755787E-1	9.198195E-1	9.190952E-1	9.773152E-1	7.995865E-1	7.993345E-1	8.765719E-1	9.487839E-1	8.018740E-1	8.178348E-1	7.739529E-1	9.590292E-1	9.315526E-1	9.234341E-1	6.840918E-1	9.640169E-1	8.337349E-1	9.043658E-1	8.632894E-1	9.742267E-1	7.882331E-1	7.796200E-1	8.769961E-1	9.404093E-1	7.785451E-1	8.200578E-1	8.151388E-1	9.777682E-1	8.564652E-1	8.990313E-1	8.404490E-1	9.660874E-1	8.419990E-1	9.108672E-1	9.604745E-1	9.334707E-1	8.298026E-1	8.155009E-1	8.924289E-1	9.435916E-1	8.049954E-1	8.159988E-1	8.207887E-1	1.000214E+0	9.464416E-1	9.114149E-1	8.659879E-1	9.407876E-1	8.584218E-1	9.213632E-1	9.361427E-1	9.630580E-1	7.566293E-1	8.709399E-1	8.933373E-1	9.978007E-1	7.968931E-1	9.046591E-1	8.214914E-1	9.556643E-1	9.203288E-1	9.875493E-1	8.238472E-1	9.620356E-1	8.112588E-1	8.536457E-1	9.255451E-1	1.027259E+0	8.219622E-1	8.017243E-1	9.111442E-1	9.899243E-1	8.196520E-1	8.475035E-1	8.506054E-1	9.804396E-1	8.992370E-1	9.100252E-1	8.769982E-1	9.723371E-1	8.434079E-1	8.823224E-1	9.534309E-1	1.040460E+0	8.011103E-1	8.074106E-1	9.141224E-1	9.796371E-1	8.063885E-1	8.155334E-1	8.053506E-1	9.410255E-1	9.015282E-1	9.140298E-1	8.287676E-1	7.725766E-1	9.217702E-1	9.096820E-1	8.963243E-1	9.657462E-1	7.768720E-1	8.028768E-1	9.362682E-1	9.940236E-1	6.528302E-1	7.966605E-1	7.812777E-1	9.748154E-1	8.912660E-1	9.324305E-1	7.336660E-1	9.652059E-1	9.187593E-1	9.437549E-1	9.004155E-1	1.025502E+0	8.487117E-1	8.106521E-1	8.933894E-1	9.348025E-1	8.317164E-1	8.384789E-1
2.870190E+2	9.295541E-1	9.339389E-1	9.471482E-1	9.057517E-1	9.187869E-1	9.377034E-1	8.832480E-1	7.553399E-1	8.963665E-1	8.864446E-1	9.213719E-1	7.565096E-1	7.842483E-1	8.599326E-1	9.172601E-1	8.785048E-1	8.306930E-1	8.168311E-1	8.589188E-1	8.757939E-1	8.818759E-1	9.045118E-1	7.791159E-1	7.344362E-1	8.841063E-1	8.591479E-1	8.049609E-1	7.613826E-1	8.402848E-1	8.650030E-1	8.570381E-1	8.672528E-1	8.326885E-1	8.831900E-1	8.798731E-1	9.161223E-1	9.078708E-1	8.892331E-1	7.631454E-1	7.949200E-1	8.237817E-1	8.919420E-1	7.942788E-1	8.892872E-1	7.771542E-1	8.669981E-1	8.980631E-1	9.718474E-1	8.435244E-1	8.683351E-1	8.307369E-1	8.700037E-1	8.969771E-1	9.422737E-1	7.634123E-1	7.802561E-1	8.607857E-1	9.189597E-1	8.041477E-1	8.070321E-1	7.319754E-1	9.250456E-1	9.081566E-1	9.199854E-1	6.576651E-1	9.529046E-1	8.451546E-1	8.896273E-1	8.273628E-1	9.257884E-1	7.202426E-1	8.110758E-1	8.545658E-1	9.455378E-1	7.870395E-1	7.755969E-1	8.160852E-1	9.101514E-1	8.496579E-1	8.720112E-1	8.471268E-1	9.478017E-1	8.425051E-1	8.515182E-1	8.873328E-1	9.609864E-1	7.887106E-1	7.791470E-1	8.294938E-1	9.323106E-1	7.839479E-1	7.833134E-1	7.911185E-1	9.583724E-1	9.074895E-1	8.817591E-1	8.158901E-1	9.339019E-1	8.414135E-1	8.917874E-1	9.168351E-1	9.917028E-1	7.527863E-1	8.111533E-1	8.572815E-1	9.774533E-1	8.335175E-1	8.901458E-1	7.508772E-1	9.519068E-1	8.881705E-1	9.355853E-1	8.228762E-1	9.272627E-1	7.919424E-1	8.427310E-1	9.444250E-1	9.376802E-1	7.767753E-1	7.712279E-1	8.910640E-1	9.447921E-1	7.600972E-1	7.913434E-1	8.755049E-1	9.730316E-1	8.564547E-1	8.766114E-1	9.100879E-1	9.256688E-1	8.111053E-1	8.541921E-1	9.133381E-1	9.648591E-1	7.728857E-1	7.718149E-1	8.823162E-1	9.214560E-1	7.695045E-1	8.092476E-1	7.689188E-1	9.365581E-1	9.041441E-1	9.018062E-1	8.138404E-1	7.494013E-1	8.608353E-1	8.428821E-1	8.822401E-1	9.389094E-1	7.220679E-1	7.666408E-1	9.654453E-1	9.492023E-1	7.440887E-1	7.831118E-1	7.531636E-1	9.707368E-1	8.766404E-1	9.032881E-1	6.674133E-1	1.012044E+0	9.211526E-1	8.972532E-1	8.975915E-1	9.569172E-1	8.696198E-1	8.087350E-1	8.467869E-1	9.139756E-1	7.933506E-1	7.984515E-1
2.872120E+2	7.911080E-1	7.901749E-1	8.010946E-1	7.459581E-1	7.442550E-1	7.938256E-1	7.671210E-1	6.434846E-1	7.627679E-1	7.505661E-1	8.240646E-1	6.407621E-1	6.851172E-1	7.002851E-1	8.278245E-1	7.326709E-1	7.118716E-1	7.098564E-1	8.198397E-1	7.649756E-1	7.809448E-1	7.807144E-1	8.028614E-1	6.316595E-1	7.680991E-1	7.119895E-1	7.899356E-1	6.753948E-1	6.932512E-1	7.349385E-1	8.065164E-1	7.610370E-1	7.618982E-1	7.509032E-1	6.988881E-1	8.191721E-1	7.894325E-1	7.791996E-1	7.170773E-1	7.022688E-1	7.151399E-1	7.768953E-1	7.232704E-1	7.474368E-1	7.038733E-1	7.430718E-1	7.830365E-1	8.192208E-1	6.998014E-1	7.372985E-1	7.292001E-1	7.751158E-1	8.114513E-1	8.145571E-1	6.708634E-1	7.000296E-1	7.167370E-1	7.641813E-1	6.825214E-1	7.126523E-1	6.832272E-1	7.445996E-1	8.015138E-1	7.716821E-1	5.510339E-1	8.216722E-1	7.058391E-1	7.749973E-1	7.351831E-1	8.124722E-1	6.540655E-1	6.829042E-1	7.231116E-1	8.255365E-1	6.411351E-1	6.851762E-1	6.679500E-1	7.969449E-1	6.974682E-1	7.558729E-1	7.140815E-1	8.214608E-1	7.062796E-1	7.504058E-1	7.681753E-1	7.875376E-1	6.773804E-1	6.360011E-1	7.200192E-1	7.915598E-1	6.735899E-1	6.520368E-1	6.920639E-1	8.392835E-1	7.771097E-1	7.588306E-1	7.292624E-1	8.277550E-1	6.842347E-1	7.903014E-1	7.684944E-1	8.104508E-1	6.211568E-1	7.271558E-1	6.775376E-1	8.713186E-1	6.943458E-1	8.080903E-1	6.328949E-1	8.348939E-1	7.450120E-1	7.971853E-1	7.039197E-1	7.790531E-1	6.892939E-1	7.308645E-1	7.585309E-1	8.115007E-1	6.748524E-1	6.642545E-1	7.806225E-1	8.020506E-1	6.966105E-1	7.303234E-1	7.091792E-1	8.381903E-1	7.641353E-1	7.681386E-1	7.395056E-1	8.261487E-1	7.244508E-1	7.785926E-1	7.940874E-1	8.115702E-1	6.670433E-1	6.479215E-1	7.279008E-1	8.027670E-1	6.428182E-1	7.046712E-1	6.735028E-1	7.846531E-1	7.618254E-1	7.322085E-1	6.987545E-1	6.577060E-1	7.209730E-1	7.539991E-1	7.436722E-1	7.881354E-1	6.339914E-1	6.697096E-1	7.594904E-1	8.184720E-1	6.926345E-1	6.764183E-1	6.650076E-1	7.764989E-1	7.324019E-1	7.590613E-1	5.760798E-1	7.912344E-1	7.865486E-1	7.477825E-1	7.554620E-1	8.806040E-1	6.541055E-1	6.841012E-1	7.120872E-1	7.944471E-1	6.901570E-1	7.490064E-1
2.874030E+2	6.062990E-1	6.220356E-1	6.259539E-1	5.466528E-1	5.944399E-1	5.934060E-1	6.358924E-1	4.880245E-1	5.913079E-1	5.787773E-1	6.652417E-1	5.139660E-1	5.050359E-1	5.618057E-1	6.193007E-1	5.932424E-1	5.233417E-1	5.630185E-1	6.071298E-1	5.905922E-1	5.979162E-1	5.877351E-1	6.203438E-1	4.883820E-1	5.960692E-1	5.723388E-1	6.299878E-1	4.993234E-1	5.407043E-1	5.570057E-1	5.964255E-1	6.124256E-1	5.837998E-1	5.835841E-1	6.078671E-1	6.220045E-1	6.157545E-1	6.026877E-1	6.007447E-1	5.380900E-1	5.716137E-1	5.774445E-1	6.400893E-1	5.727189E-1	5.016875E-1	5.640122E-1	6.323128E-1	6.347749E-1	5.226299E-1	5.858204E-1	6.204469E-1	6.102477E-1	6.251640E-1	6.250572E-1	6.144885E-1	5.381076E-1	5.647946E-1	5.996324E-1	6.092045E-1	5.346945E-1	4.954565E-1	5.837774E-1	6.214182E-1	6.169733E-1	4.365202E-1	6.237657E-1	5.482529E-1	5.801259E-1	5.645313E-1	6.129463E-1	5.149124E-1	5.054357E-1	5.796603E-1	6.337395E-1	5.392021E-1	5.627835E-1	5.094024E-1	6.448073E-1	5.885529E-1	5.970715E-1	5.548393E-1	6.651969E-1	5.452398E-1	6.053316E-1	6.117199E-1	6.494659E-1	5.077562E-1	5.233019E-1	5.354455E-1	5.890289E-1	5.108967E-1	5.154018E-1	5.295593E-1	6.638690E-1	6.012866E-1	6.019411E-1	5.852306E-1	6.303792E-1	5.716297E-1	6.325626E-1	6.210956E-1	6.366056E-1	5.231554E-1	5.477961E-1	5.612958E-1	6.134055E-1	5.070399E-1	6.188600E-1	5.153509E-1	6.615220E-1	5.977038E-1	6.165965E-1	5.713687E-1	6.308427E-1	5.529801E-1	5.655196E-1	6.021667E-1	6.641305E-1	5.081615E-1	5.352300E-1	5.813256E-1	6.120774E-1	5.348026E-1	5.445624E-1	5.752228E-1	6.208636E-1	5.823120E-1	5.996169E-1	5.552316E-1	6.524104E-1	5.649877E-1	6.021928E-1	6.003061E-1	6.269985E-1	5.075741E-1	4.870454E-1	5.991357E-1	6.305519E-1	5.252184E-1	5.355192E-1	5.225719E-1	6.204625E-1	5.619507E-1	6.018269E-1	5.605548E-1	4.803627E-1	5.898166E-1	5.392457E-1	5.782996E-1	5.953982E-1	5.155766E-1	5.157069E-1	6.244753E-1	6.269118E-1	5.324475E-1	5.273854E-1	4.939375E-1	6.077513E-1	5.755546E-1	5.782825E-1	4.369501E-1	6.624286E-1	6.070776E-1	5.949908E-1	6.067431E-1	6.647060E-1	5.694015E-1	5.249536E-1	5.595119E-1	5.599159E-1	5.142004E-1	6.077336E-1
2.876120E+2	4.897472E-1	4.553900E-1	4.625718E-1	4.147514E-1	4.421025E-1	4.727503E-1	4.744600E-1	3.742733E-1	4.663627E-1	4.623097E-1	4.583246E-1	3.824346E-1	4.059046E-1	4.246499E-1	5.116908E-1	4.419891E-1	4.261722E-1	4.318232E-1	4.597168E-1	4.387095E-1	4.588331E-1	4.566551E-1	4.760058E-1	3.764597E-1	4.432792E-1	4.416982E-1	4.748877E-1	3.984920E-1	4.203212E-1	4.046996E-1	4.628669E-1	4.647266E-1	4.248029E-1	4.397939E-1	4.612809E-1	4.847495E-1	4.528430E-1	4.587274E-1	4.685902E-1	4.214361E-1	3.976876E-1	4.408941E-1	4.640901E-1	4.585466E-1	4.107478E-1	4.415496E-1	4.805979E-1	4.907778E-1	4.238528E-1	4.605493E-1	4.941701E-1	4.613924E-1	4.575541E-1	4.756708E-1	4.805978E-1	4.011349E-1	4.439315E-1	4.618223E-1	4.801899E-1	4.306486E-1	3.866756E-1	4.827853E-1	4.723357E-1	4.765528E-1	3.363795E-1	4.957079E-1	5.031463E-1	4.654957E-1	4.274427E-1	4.907421E-1	4.954219E-1	3.936961E-1	4.163863E-1	5.101484E-1	4.897344E-1	4.099180E-1	4.227930E-1	4.629585E-1	4.801237E-1	4.529651E-1	4.228212E-1	4.834441E-1	4.991560E-1	4.635544E-1	4.727021E-1	4.612758E-1	4.728758E-1	3.801567E-1	4.312595E-1	4.579479E-1	4.625438E-1	4.007360E-1	3.862267E-1	4.948923E-1	4.660371E-1	4.417033E-1	4.234552E-1	4.892325E-1	4.308722E-1	4.585877E-1	4.581560E-1	4.953575E-1	3.593389E-1	4.356353E-1	4.353679E-1	4.539290E-1	4.144335E-1	4.631216E-1	3.885965E-1	4.688265E-1	4.669939E-1	4.637906E-1	4.223088E-1	4.957436E-1	3.973512E-1	4.307330E-1	4.646824E-1	4.869004E-1	3.836456E-1	3.925994E-1	4.688758E-1	4.667109E-1	4.111993E-1	4.214418E-1	4.128811E-1	5.171391E-1	4.556541E-1	4.732260E-1	4.331428E-1	5.095956E-1	4.019348E-1	4.515801E-1	4.877379E-1	5.112503E-1	4.059650E-1	3.899653E-1	4.277913E-1	4.816086E-1	3.851684E-1	4.143699E-1	3.967962E-1	4.819613E-1	4.620131E-1	4.480172E-1	4.083911E-1	3.806059E-1	4.354469E-1	4.603000E-1	4.379145E-1	4.841474E-1	3.702496E-1	4.106232E-1	4.883164E-1	5.089882E-1	4.358499E-1	4.410143E-1	4.172180E-1	5.052794E-1	4.540106E-1	4.646782E-1	3.669116E-1	4.945916E-1	4.664920E-1	4.344481E-1	4.763799E-1	4.608829E-1	4.117872E-1	3.907323E-1	4.477937E-1	4.666467E-1	4.268831E-1	4.075973E-1
2.878030E+2	4.942547E-1	5.180686E-1	5.176517E-1	4.734386E-1	5.127229E-1	5.474655E-1	5.150785E-1	3.903881E-1	4.890805E-1	4.933678E-1	5.220775E-1	4.129497E-1	4.504921E-1	4.819819E-1	5.026040E-1	4.681014E-1	4.399027E-1	4.570532E-1	5.269928E-1	5.034000E-1	5.042280E-1	5.012590E-1	5.188415E-1	3.969282E-1	4.670468E-1	5.097711E-1	5.141473E-1	4.220361E-1	4.874050E-1	4.738420E-1	5.123890E-1	4.856959E-1	4.871659E-1	5.051530E-1	5.046743E-1	4.956430E-1	5.108919E-1	5.123685E-1	5.174501E-1	4.838436E-1	4.883885E-1	4.796010E-1	5.219114E-1	4.914145E-1	4.239917E-1	4.693595E-1	5.400937E-1	5.360799E-1	4.452806E-1	4.919986E-1	5.395269E-1	4.851148E-1	5.126048E-1	5.231612E-1	5.327445E-1	4.192348E-1	5.036233E-1	5.178720E-1	5.194062E-1	4.585078E-1	4.277504E-1	4.918794E-1	5.109666E-1	5.100567E-1	3.674417E-1	4.941207E-1	4.928697E-1	4.835089E-1	4.874781E-1	5.298473E-1	5.294171E-1	4.462792E-1	4.941109E-1	5.378411E-1	4.997279E-1	4.129154E-1	4.592352E-1	5.295509E-1	5.029769E-1	4.970503E-1	4.901142E-1	5.521553E-1	5.082714E-1	5.091646E-1	5.124216E-1	5.408756E-1	5.512373E-1	4.246909E-1	4.529426E-1	5.175787E-1	5.234111E-1	4.457454E-1	4.469380E-1	5.281508E-1	5.260882E-1	5.014939E-1	4.453733E-1	5.334126E-1	5.311618E-1	5.119400E-1	5.457475E-1	5.506716E-1	5.226751E-1	4.855391E-1	4.854162E-1	5.402662E-1	4.970988E-1	4.703781E-1	4.377191E-1	5.450459E-1	5.178259E-1	5.337624E-1	4.562963E-1	5.105649E-1	4.911701E-1	4.623833E-1	5.092195E-1	5.740707E-1	4.760285E-1	4.582844E-1	5.120481E-1	5.737676E-1	4.510894E-1	4.689617E-1	4.507275E-1	5.517138E-1	5.102576E-1	5.226198E-1	4.958985E-1	5.388334E-1	4.547475E-1	4.972910E-1	5.427370E-1	5.305416E-1	4.158438E-1	4.181648E-1	4.585719E-1	5.217529E-1	4.551932E-1	4.778022E-1	4.609853E-1	5.216130E-1	4.881750E-1	5.142264E-1	4.507662E-1	4.017669E-1	5.103106E-1	4.956323E-1	4.965223E-1	5.095205E-1	4.270102E-1	4.156056E-1	4.957538E-1	5.346007E-1	4.164330E-1	4.607725E-1	4.262719E-1	5.394367E-1	5.049486E-1	5.130832E-1	3.796885E-1	5.425452E-1	5.017880E-1	4.654495E-1	4.632021E-1	5.661751E-1	4.375200E-1	4.449000E-1	4.860976E-1	5.454271E-1	4.573115E-1	5.418063E-1
2.880040E+2	5.644436E-1	5.707986E-1	5.640666E-1	5.605986E-1	5.157499E-1	5.595818E-1	5.624668E-1	4.477378E-1	5.712950E-1	5.326754E-1	5.427692E-1	4.681929E-1	4.569853E-1	4.771310E-1	5.356041E-1	5.262378E-1	4.752855E-1	5.100356E-1	5.655774E-1	5.275889E-1	5.278916E-1	5.481386E-1	5.351377E-1	4.461392E-1	5.145807E-1	5.433080E-1	5.359587E-1	4.691251E-1	4.970539E-1	5.062372E-1	5.729148E-1	5.125922E-1	5.461572E-1	5.548260E-1	5.369551E-1	5.168842E-1	5.366397E-1	5.527139E-1	5.504887E-1	5.006454E-1	4.928738E-1	5.295982E-1	5.421995E-1	4.891085E-1	4.690193E-1	5.074157E-1	5.733125E-1	5.457877E-1	4.928398E-1	5.061505E-1	5.890068E-1	5.301863E-1	5.553674E-1	5.526695E-1	5.938174E-1	4.803834E-1	4.868508E-1	5.476964E-1	5.535069E-1	4.795444E-1	4.616035E-1	5.737261E-1	5.370834E-1	5.164617E-1	3.971132E-1	5.480948E-1	5.596719E-1	5.244484E-1	5.323866E-1	5.645088E-1	6.087389E-1	4.462794E-1	4.967191E-1	5.752771E-1	5.626865E-1	4.693657E-1	4.876313E-1	5.720679E-1	5.885530E-1	5.335509E-1	5.250449E-1	5.543720E-1	6.039837E-1	5.152095E-1	5.245310E-1	5.826411E-1	5.469368E-1	4.769505E-1	4.793861E-1	5.471256E-1	5.950874E-1	5.041495E-1	4.925852E-1	5.952055E-1	5.417764E-1	5.263662E-1	5.022558E-1	5.684121E-1	5.640051E-1	5.687719E-1	5.518698E-1	5.778346E-1	5.750383E-1	5.235854E-1	5.257777E-1	5.809606E-1	5.583137E-1	5.641560E-1	4.390349E-1	5.649055E-1	5.593204E-1	5.718355E-1	4.863993E-1	5.624385E-1	5.237310E-1	5.164073E-1	5.411694E-1	5.750337E-1	5.503366E-1	4.826820E-1	5.256026E-1	5.874124E-1	6.190774E-1	5.121620E-1	4.840920E-1	6.030821E-1	5.676754E-1	5.284308E-1	5.683531E-1	5.928109E-1	5.624235E-1	5.242492E-1	5.627838E-1	5.785095E-1	5.343874E-1	4.223254E-1	4.842221E-1	5.770249E-1	5.535492E-1	5.092321E-1	4.757313E-1	5.584723E-1	5.509631E-1	5.376547E-1	4.762875E-1	4.551713E-1	4.981233E-1	5.215795E-1	5.215095E-1	5.553869E-1	4.769203E-1	4.536530E-1	5.329403E-1	5.959638E-1	4.902162E-1	4.596433E-1	4.858370E-1	5.756332E-1	5.205824E-1	5.051805E-1	4.099754E-1	5.609454E-1	5.436648E-1	5.102909E-1	5.601515E-1	5.932228E-1	5.013164E-1	4.957127E-1	5.256773E-1	5.472379E-1	5.512431E-1	4.852971E-1
2.882200E+2	5.831171E-1	5.374692E-1	5.962483E-1	5.048169E-1	5.571120E-1	5.833089E-1	5.442403E-1	4.211957E-1	5.388416E-1	5.530569E-1	5.824748E-1	4.639841E-1	4.781970E-1	5.229966E-1	5.279516E-1	5.370765E-1	4.673638E-1	4.858151E-1	5.448011E-1	5.281511E-1	5.496235E-1	5.476833E-1	5.402595E-1	4.369936E-1	5.394800E-1	5.162785E-1	5.548615E-1	4.701488E-1	5.163521E-1	5.323469E-1	5.714145E-1	5.235327E-1	5.534607E-1	5.380938E-1	5.353678E-1	5.669936E-1	5.637910E-1	5.540897E-1	5.774778E-1	5.092864E-1	5.118107E-1	5.457264E-1	5.452424E-1	4.793053E-1	4.840290E-1	5.171743E-1	5.554635E-1	5.932475E-1	4.813420E-1	5.334054E-1	5.544736E-1	5.319655E-1	5.661809E-1	5.789504E-1	5.599922E-1	4.774488E-1	5.006637E-1	5.656936E-1	5.273627E-1	5.005808E-1	4.701795E-1	5.990941E-1	5.300095E-1	5.470095E-1	4.212210E-1	5.544447E-1	5.665234E-1	5.490118E-1	5.035501E-1	5.813954E-1	5.751972E-1	4.721013E-1	5.160200E-1	5.768155E-1	5.726800E-1	4.633713E-1	4.720136E-1	5.705309E-1	5.340953E-1	5.335512E-1	4.962788E-1	6.075681E-1	5.584064E-1	4.992734E-1	5.371252E-1	5.914855E-1	5.803841E-1	4.742237E-1	4.651067E-1	5.788220E-1	5.171540E-1	4.634272E-1	4.980628E-1	5.973509E-1	5.536786E-1	5.292364E-1	5.476570E-1	5.448878E-1	5.640051E-1	5.861696E-1	5.532820E-1	6.040103E-1	5.894501E-1	5.235855E-1	4.934885E-1	5.738116E-1	5.651152E-1	5.189417E-1	4.451754E-1	5.804711E-1	5.966667E-1	5.476538E-1	4.728045E-1	5.858099E-1	5.916113E-1	4.956707E-1	5.237423E-1	5.856289E-1	5.980336E-1	4.587537E-1	5.281123E-1	5.742926E-1	5.657033E-1	4.900220E-1	5.254247E-1	5.803616E-1	5.935701E-1	5.235889E-1	5.130135E-1	5.596372E-1	5.629366E-1	5.125285E-1	5.530172E-1	5.863300E-1	5.654346E-1	4.768754E-1	5.350102E-1	5.554978E-1	5.877600E-1	5.075175E-1	4.718278E-1	5.540041E-1	5.603812E-1	5.600638E-1	4.965119E-1	4.481179E-1	5.660230E-1	5.425584E-1	5.183293E-1	6.134517E-1	6.065893E-1	4.527473E-1	5.415216E-1	5.788890E-1	5.882698E-1	4.743210E-1	4.591519E-1	6.021433E-1	5.684939E-1	5.111082E-1	4.180205E-1	5.771162E-1	5.903275E-1	5.817043E-1	5.145009E-1	5.642437E-1	5.592159E-1	4.774965E-1	5.058878E-1	5.490494E-1	5.896104E-1	5.465147E-1
2.884090E+2	6.017914E-1	6.379547E-1	6.154331E-1	6.059214E-1	6.463962E-1	6.297536E-1	6.348508E-1	4.932382E-1	5.734586E-1	5.748950E-1	6.260952E-1	4.713497E-1	5.262475E-1	5.970871E-1	6.011268E-1	5.937352E-1	5.265101E-1	5.599907E-1	5.982258E-1	5.872170E-1	5.916381E-1	5.891007E-1	6.282590E-1	5.001407E-1	5.700383E-1	5.663329E-1	6.232028E-1	5.402699E-1	5.521918E-1	5.918186E-1	6.374427E-1	5.873530E-1	5.472807E-1	5.909039E-1	6.020464E-1	6.132899E-1	6.288621E-1	6.049800E-1	6.086552E-1	5.563319E-1	5.676265E-1	5.989487E-1	6.137148E-1	5.917478E-1	5.427427E-1	5.820649E-1	6.367752E-1	6.336961E-1	5.566010E-1	5.842481E-1	6.250861E-1	5.817813E-1	6.143503E-1	6.393507E-1	6.572395E-1	5.293024E-1	5.761409E-1	6.186580E-1	5.955641E-1	5.472029E-1	5.130597E-1	5.923933E-1	6.214181E-1	6.120465E-1	4.184394E-1	6.227069E-1	6.401785E-1	6.227029E-1	5.739859E-1	6.138353E-1	6.459068E-1	5.171730E-1	5.619245E-1	6.455343E-1	6.316413E-1	5.148259E-1	5.420585E-1	6.038269E-1	6.167542E-1	5.728962E-1	5.471339E-1	6.430323E-1	6.399392E-1	5.871973E-1	5.875007E-1	6.529052E-1	6.248209E-1	5.042160E-1	5.640047E-1	6.019221E-1	6.024827E-1	4.816450E-1	4.980623E-1	6.268553E-1	6.169749E-1	6.038541E-1	5.643560E-1	6.074283E-1	6.203084E-1	6.163254E-1	6.145029E-1	6.272224E-1	6.187550E-1	5.744780E-1	5.413840E-1	6.573991E-1	6.247600E-1	6.160688E-1	5.157893E-1	6.405883E-1	6.117089E-1	5.944732E-1	5.509761E-1	6.348329E-1	6.456954E-1	5.715223E-1	5.721523E-1	6.414951E-1	6.748527E-1	4.897198E-1	5.547191E-1	6.509114E-1	6.539114E-1	5.883024E-1	5.358821E-1	6.593899E-1	6.200274E-1	6.180188E-1	5.689235E-1	6.186747E-1	6.213894E-1	5.769932E-1	5.936241E-1	6.296060E-1	6.566941E-1	5.004520E-1	5.478354E-1	6.107697E-1	6.460254E-1	5.315192E-1	5.039224E-1	6.366580E-1	6.582255E-1	5.824730E-1	5.778903E-1	5.005147E-1	6.391455E-1	5.905879E-1	5.764825E-1	6.115004E-1	6.393737E-1	4.994009E-1	5.930101E-1	6.690656E-1	6.013762E-1	5.352889E-1	5.082332E-1	6.470070E-1	6.209444E-1	5.931002E-1	4.591919E-1	6.300884E-1	6.399812E-1	5.844724E-1	5.935664E-1	6.719506E-1	6.728691E-1	5.192010E-1	5.512132E-1	5.436151E-1	6.742811E-1	5.347426E-1
2.886010E+2	8.142898E-1	7.802261E-1	8.598875E-1	7.726872E-1	7.876357E-1	7.938254E-1	7.775362E-1	6.430106E-1	7.784536E-1	7.728887E-1	8.436376E-1	6.744340E-1	6.725637E-1	7.046949E-1	8.010417E-1	7.326716E-1	6.949722E-1	7.355903E-1	7.871914E-1	7.762266E-1	8.041254E-1	7.920928E-1	8.345235E-1	6.482083E-1	7.647037E-1	7.810641E-1	8.078687E-1	6.794890E-1	7.295501E-1	7.721687E-1	8.255244E-1	7.587575E-1	7.596508E-1	7.979617E-1	8.015524E-1	8.028321E-1	7.997312E-1	7.979970E-1	8.348071E-1	7.382733E-1	7.510218E-1	7.682935E-1	8.282614E-1	8.033701E-1	7.255045E-1	7.903977E-1	8.103057E-1	8.192212E-1	7.055502E-1	7.849957E-1	8.018739E-1	7.804530E-1	7.667225E-1	8.247007E-1	8.695855E-1	7.235106E-1	7.290700E-1	7.981192E-1	7.905071E-1	7.098092E-1	6.647211E-1	7.848053E-1	8.221896E-1	7.559153E-1	5.728238E-1	8.745885E-1	8.023319E-1	7.695381E-1	7.266738E-1	8.609095E-1	8.099902E-1	6.899465E-1	7.262419E-1	8.260493E-1	7.960338E-1	7.156498E-1	6.868808E-1	8.450961E-1	8.613270E-1	7.568210E-1	7.336019E-1	7.854424E-1	8.384538E-1	7.333708E-1	8.001444E-1	8.538703E-1	8.126013E-1	6.550874E-1	7.200194E-1	8.055277E-1	8.294567E-1	6.938309E-1	6.979976E-1	8.328467E-1	8.555542E-1	7.803548E-1	7.083877E-1	8.007877E-1	8.308574E-1	7.862419E-1	8.141742E-1	8.386018E-1	8.445423E-1	7.429673E-1	7.065979E-1	8.498716E-1	8.136356E-1	7.779472E-1	6.403507E-1	8.220115E-1	8.508242E-1	8.074745E-1	7.175149E-1	8.275061E-1	8.051878E-1	7.679720E-1	7.948385E-1	8.379885E-1	8.229663E-1	6.792686E-1	7.806224E-1	8.204178E-1	8.522383E-1	7.017028E-1	7.300945E-1	8.693074E-1	8.277462E-1	7.971933E-1	8.227999E-1	7.867907E-1	8.459716E-1	7.750758E-1	8.290404E-1	8.908214E-1	8.312165E-1	6.839803E-1	7.202061E-1	8.021847E-1	8.042498E-1	7.115279E-1	6.947546E-1	8.483186E-1	8.570535E-1	7.856849E-1	7.204236E-1	6.466224E-1	8.254344E-1	7.595198E-1	7.595737E-1	8.120449E-1	8.678841E-1	6.968867E-1	7.818022E-1	8.451514E-1	8.503944E-1	6.939182E-1	6.678667E-1	8.381858E-1	8.710926E-1	7.412795E-1	5.722942E-1	8.475523E-1	8.649182E-1	7.693727E-1	7.469903E-1	8.477609E-1	8.240509E-1	7.282023E-1	7.542202E-1	8.198010E-1	7.774739E-1	6.736601E-1
2.888170E+2	8.838348E-1	8.717573E-1	8.512230E-1	8.389286E-1	8.577513E-1	8.624825E-1	8.822068E-1	6.752398E-1	8.374108E-1	8.354899E-1	8.973246E-1	7.028451E-1	7.210467E-1	8.083339E-1	8.608249E-1	8.159343E-1	7.652090E-1	8.016932E-1	8.742541E-1	7.886019E-1	8.403450E-1	8.640043E-1	8.787556E-1	7.261618E-1	8.495875E-1	8.100952E-1	8.757253E-1	7.265780E-1	7.874452E-1	8.282561E-1	8.705436E-1	7.924917E-1	8.321264E-1	8.141708E-1	8.518257E-1	8.344225E-1	8.470134E-1	8.456784E-1	8.571430E-1	7.675569E-1	7.819197E-1	8.704381E-1	8.744166E-1	8.575728E-1	7.153509E-1	8.055223E-1	8.583988E-1	8.839395E-1	7.943973E-1	8.232587E-1	8.219744E-1	8.296762E-1	8.473329E-1	8.620471E-1	8.879076E-1	7.367186E-1	7.818551E-1	8.773084E-1	9.013347E-1	8.149923E-1	6.850327E-1	8.570796E-1	8.651729E-1	8.800761E-1	6.094491E-1	8.798800E-1	8.468672E-1	8.323124E-1	8.150721E-1	8.791293E-1	8.494247E-1	7.138911E-1	8.070962E-1	8.711782E-1	8.744824E-1	7.536164E-1	7.261630E-1	8.763431E-1	8.545201E-1	8.094390E-1	8.527775E-1	8.707776E-1	8.217418E-1	8.223936E-1	8.137070E-1	8.715590E-1	9.148537E-1	7.055287E-1	7.697330E-1	8.528025E-1	8.687080E-1	7.399113E-1	7.550570E-1	8.843442E-1	8.560949E-1	8.382319E-1	7.673575E-1	8.989025E-1	8.983031E-1	8.587319E-1	9.286079E-1	8.815685E-1	9.271712E-1	8.037421E-1	7.873212E-1	8.823169E-1	8.628168E-1	8.678180E-1	7.421052E-1	8.939370E-1	8.757213E-1	9.222081E-1	7.616988E-1	8.748194E-1	8.603754E-1	7.761570E-1	8.359867E-1	8.750722E-1	9.022953E-1	7.290019E-1	8.318272E-1	8.823427E-1	8.960612E-1	7.708228E-1	7.918441E-1	8.604170E-1	8.834754E-1	8.427134E-1	8.410563E-1	8.413299E-1	8.813510E-1	8.202017E-1	8.984317E-1	8.986418E-1	8.721426E-1	7.001602E-1	7.833055E-1	8.818931E-1	9.058130E-1	7.835314E-1	7.008267E-1	8.689825E-1	8.685642E-1	8.417083E-1	7.642422E-1	6.783628E-1	8.997176E-1	8.196954E-1	8.377168E-1	8.896276E-1	9.148588E-1	6.896395E-1	8.916441E-1	9.241229E-1	9.086443E-1	7.791606E-1	7.169484E-1	8.575592E-1	8.847102E-1	8.168504E-1	6.328672E-1	8.821235E-1	8.948301E-1	8.446613E-1	8.029953E-1	9.337332E-1	8.535363E-1	7.421035E-1	8.461486E-1	8.777543E-1	8.925743E-1	7.442960E-1
2.890140E+2	7.640630E-1	7.573429E-1	7.670570E-1	6.861090E-1	7.583791E-1	7.554580E-1	7.639965E-1	6.520158E-1	6.837991E-1	7.010675E-1	7.440944E-1	6.134038E-1	6.279760E-1	6.919058E-1	7.455626E-1	7.316855E-1	6.574780E-1	7.083424E-1	7.985684E-1	7.047855E-1	7.852911E-1	7.397517E-1	7.916878E-1	6.377566E-1	7.335796E-1	6.864620E-1	7.618237E-1	6.528742E-1	6.670609E-1	7.402570E-1	7.559941E-1	7.200095E-1	6.995355E-1	7.294655E-1	7.396363E-1	7.494555E-1	7.838155E-1	7.535251E-1	7.701258E-1	6.701052E-1	6.882288E-1	7.408754E-1	7.714551E-1	7.157230E-1	6.319161E-1	7.167252E-1	7.889864E-1	7.841655E-1	6.809862E-1	7.341537E-1	7.864116E-1	7.211484E-1	7.544343E-1	7.518515E-1	7.986470E-1	6.716564E-1	6.683914E-1	7.600668E-1	7.529964E-1	7.035556E-1	6.317705E-1	7.680531E-1	7.264286E-1	7.633056E-1	5.375888E-1	7.634640E-1	7.829194E-1	7.329658E-1	7.096560E-1	7.507035E-1	7.655694E-1	6.650633E-1	7.251989E-1	7.701513E-1	7.935349E-1	6.517062E-1	6.736287E-1	7.759423E-1	7.470638E-1	7.383336E-1	6.873699E-1	7.815634E-1	7.913574E-1	7.168848E-1	7.386279E-1	7.669000E-1	7.858443E-1	6.246405E-1	7.073265E-1	7.614759E-1	7.941876E-1	6.332833E-1	6.372865E-1	7.920774E-1	7.976671E-1	7.334793E-1	6.937765E-1	7.514440E-1	7.487488E-1	7.589853E-1	7.553084E-1	7.660013E-1	8.075516E-1	7.009682E-1	7.109031E-1	7.899307E-1	7.712565E-1	7.874365E-1	6.144737E-1	7.860487E-1	7.750959E-1	7.616844E-1	6.524530E-1	7.944443E-1	7.345474E-1	7.221330E-1	7.106046E-1	8.018684E-1	7.762729E-1	6.619084E-1	7.540157E-1	7.653149E-1	8.286413E-1	6.433828E-1	6.733248E-1	8.218910E-1	7.776458E-1	7.289135E-1	7.355120E-1	7.862285E-1	7.547029E-1	7.235042E-1	7.139024E-1	7.980143E-1	7.888799E-1	6.104766E-1	6.822430E-1	7.550582E-1	7.860754E-1	6.795268E-1	6.279630E-1	7.444439E-1	7.811845E-1	7.637850E-1	6.664916E-1	5.816297E-1	7.552129E-1	7.148030E-1	7.300426E-1	7.656901E-1	7.509378E-1	6.443448E-1	7.440436E-1	7.832545E-1	8.071924E-1	6.798057E-1	6.283160E-1	7.627337E-1	7.868695E-1	7.022593E-1	5.675613E-1	7.884469E-1	7.686017E-1	7.234244E-1	7.149875E-1	8.033249E-1	7.833068E-1	6.649265E-1	7.069802E-1	7.573193E-1	7.417539E-1	6.995600E-1
2.892040E+2	6.056547E-1	6.294979E-1	6.160517E-1	5.995300E-1	6.055378E-1	6.519664E-1	6.150624E-1	5.747598E-1	5.588539E-1	5.695570E-1	6.093187E-1	5.718395E-1	4.959453E-1	5.185865E-1	6.001700E-1	6.277303E-1	5.001057E-1	5.584772E-1	6.091085E-1	5.810286E-1	5.766677E-1	5.740809E-1	6.561956E-1	5.153829E-1	5.773946E-1	5.593248E-1	5.839426E-1	4.977877E-1	5.384072E-1	5.966533E-1	6.364430E-1	5.741332E-1	5.708773E-1	5.804467E-1	5.951664E-1	5.729846E-1	6.176265E-1	5.848071E-1	5.802699E-1	5.803343E-1	5.616467E-1	5.860464E-1	6.238589E-1	5.946310E-1	5.436253E-1	5.508390E-1	6.149598E-1	6.487968E-1	5.299462E-1	5.852962E-1	5.781831E-1	5.355238E-1	6.074687E-1	5.937047E-1	6.140184E-1	4.975055E-1	5.411158E-1	5.919187E-1	6.012475E-1	5.608477E-1	4.891373E-1	5.847349E-1	6.040068E-1	5.814985E-1	4.323481E-1	6.221776E-1	6.070623E-1	6.096021E-1	5.569676E-1	6.422751E-1	6.227903E-1	4.730406E-1	5.353211E-1	6.065596E-1	6.176503E-1	5.278143E-1	5.202881E-1	5.997290E-1	6.167542E-1	5.449276E-1	5.753867E-1	6.164340E-1	6.257598E-1	5.860982E-1	6.170479E-1	5.988556E-1	6.472779E-1	5.010352E-1	5.613596E-1	6.029967E-1	5.956565E-1	5.261184E-1	5.464485E-1	6.268552E-1	6.012864E-1	5.612836E-1	5.450474E-1	6.166086E-1	6.115107E-1	6.035671E-1	6.149733E-1	6.232712E-1	6.264407E-1	5.285265E-1	5.311589E-1	6.376024E-1	6.111570E-1	5.987648E-1	4.714912E-1	6.142873E-1	6.132641E-1	6.685604E-1	5.325254E-1	6.205821E-1	6.175500E-1	5.660648E-1	5.731207E-1	6.593143E-1	6.080757E-1	4.906584E-1	5.858434E-1	6.209987E-1	6.555971E-1	5.029818E-1	5.388702E-1	6.341997E-1	5.930073E-1	5.947746E-1	5.655005E-1	6.422896E-1	6.039561E-1	6.180166E-1	6.121281E-1	6.217845E-1	6.265879E-1	5.009142E-1	5.637381E-1	6.305517E-1	6.027267E-1	5.383766E-1	4.774661E-1	6.355411E-1	6.085185E-1	5.814548E-1	5.239591E-1	5.191560E-1	6.031650E-1	5.607761E-1	5.669414E-1	5.895429E-1	5.909314E-1	4.740359E-1	6.033082E-1	6.615955E-1	6.217639E-1	4.805301E-1	4.982264E-1	6.434381E-1	6.325439E-1	5.659344E-1	4.591917E-1	6.356639E-1	5.723800E-1	5.772754E-1	5.568573E-1	6.642230E-1	6.037124E-1	5.340611E-1	5.620657E-1	6.233023E-1	5.538903E-1	5.535793E-1
2.894050E+2	5.837613E-1	6.155693E-1	6.383317E-1	6.343936E-1	6.418561E-1	6.282392E-1	6.233944E-1	6.174168E-1	5.680494E-1	5.307345E-1	5.768829E-1	6.249780E-1	4.868548E-1	5.573960E-1	6.264749E-1	5.976767E-1	5.191166E-1	5.463668E-1	6.145500E-1	6.119681E-1	5.892236E-1	6.050305E-1	6.506081E-1	6.103202E-1	5.717357E-1	5.808482E-1	5.853969E-1	6.068086E-1	5.305961E-1	5.623245E-1	6.324409E-1	6.333953E-1	5.287406E-1	5.375713E-1	6.121008E-1	6.072985E-1	5.909436E-1	5.815981E-1	6.119127E-1	5.918562E-1	5.177915E-1	5.683055E-1	6.066138E-1	6.101996E-1	5.361207E-1	5.635243E-1	6.060355E-1	6.353144E-1	5.560783E-1	5.590888E-1	6.276629E-1	5.847470E-1	6.109093E-1	6.172191E-1	6.252938E-1	5.615890E-1	5.529552E-1	6.006606E-1	6.143194E-1	5.619853E-1	5.098999E-1	6.024442E-1	6.208737E-1	5.898744E-1	4.332754E-1	6.158281E-1	6.047786E-1	5.915892E-1	5.267140E-1	6.209450E-1	5.965005E-1	5.411173E-1	5.567083E-1	6.219446E-1	6.231467E-1	5.143263E-1	5.448979E-1	6.355860E-1	6.123782E-1	5.648372E-1	5.594622E-1	6.507900E-1	6.252530E-1	5.943412E-1	6.049387E-1	6.411128E-1	6.214759E-1	5.178489E-1	5.560715E-1	6.051455E-1	6.235307E-1	5.046859E-1	5.309285E-1	6.349017E-1	6.175159E-1	6.201171E-1	5.476571E-1	6.280842E-1	6.273463E-1	6.122661E-1	6.385193E-1	6.035161E-1	6.461374E-1	5.601485E-1	5.672157E-1	6.266040E-1	6.137731E-1	5.970897E-1	5.008771E-1	6.244855E-1	6.360869E-1	5.728640E-1	5.587444E-1	6.108918E-1	6.153423E-1	5.802535E-1	5.740886E-1	6.631669E-1	6.351880E-1	5.225622E-1	6.430723E-1	6.089285E-1	6.297521E-1	5.526623E-1	5.289104E-1	6.376567E-1	6.160876E-1	6.180185E-1	5.769108E-1	6.220482E-1	6.198514E-1	6.098119E-1	6.049324E-1	6.113573E-1	6.486972E-1	5.032258E-1	5.704073E-1	6.235695E-1	6.059351E-1	5.772359E-1	5.290776E-1	6.321902E-1	6.153198E-1	5.768708E-1	5.114391E-1	5.055533E-1	6.118694E-1	5.911400E-1	5.678502E-1	6.310177E-1	6.589464E-1	5.170661E-1	6.176102E-1	6.226428E-1	6.440931E-1	5.578688E-1	4.953670E-1	6.057119E-1	6.169099E-1	5.866792E-1	4.440485E-1	6.635442E-1	6.196408E-1	5.734004E-1	5.690933E-1	6.304140E-1	6.337340E-1	5.187217E-1	5.486594E-1	5.753099E-1	6.372383E-1	5.088427E-1
2.896080E+2	6.436469E-1	6.200464E-1	6.414262E-1	6.495013E-1	6.045287E-1	6.383360E-1	6.312059E-1	6.321094E-1	5.934708E-1	6.078936E-1	6.663598E-1	6.402359E-1	5.504892E-1	5.909129E-1	6.054308E-1	6.218178E-1	5.497463E-1	5.821932E-1	5.992156E-1	6.299695E-1	5.983985E-1	6.195953E-1	6.114977E-1	6.259983E-1	6.039915E-1	5.823496E-1	6.236873E-1	6.380306E-1	5.397854E-1	5.806983E-1	6.099310E-1	6.493508E-1	5.882946E-1	5.977017E-1	6.163340E-1	6.301744E-1	6.316707E-1	6.320297E-1	6.430894E-1	6.278600E-1	5.471941E-1	6.269039E-1	6.274095E-1	6.148128E-1	5.484814E-1	5.932864E-1	6.065313E-1	6.671338E-1	5.795966E-1	6.130758E-1	6.106545E-1	6.594711E-1	6.251637E-1	6.527216E-1	6.417363E-1	6.515998E-1	5.672612E-1	6.243142E-1	6.512625E-1	6.171348E-1	5.184766E-1	6.708895E-1	6.159769E-1	6.406231E-1	4.629468E-1	6.295863E-1	6.259041E-1	6.461742E-1	5.754039E-1	6.396090E-1	6.440937E-1	6.744531E-1	5.780954E-1	6.142521E-1	6.246458E-1	6.492079E-1	5.581500E-1	6.186821E-1	6.381483E-1	6.387863E-1	5.712770E-1	6.657509E-1	6.409518E-1	6.366545E-1	6.272202E-1	6.185102E-1	6.434554E-1	5.778338E-1	5.380900E-1	6.223362E-1	6.508358E-1	5.775570E-1	5.217994E-1	6.526042E-1	6.267131E-1	6.359018E-1	6.014081E-1	6.470181E-1	6.197218E-1	6.441619E-1	5.829510E-1	6.459898E-1	6.740005E-1	5.779366E-1	5.844369E-1	6.238538E-1	6.137733E-1	6.060210E-1	5.030702E-1	6.234123E-1	6.547600E-1	6.145384E-1	5.597152E-1	6.559244E-1	6.263797E-1	5.840731E-1	5.905483E-1	6.357158E-1	6.788690E-1	5.066100E-1	6.355419E-1	6.519613E-1	6.657098E-1	5.553623E-1	5.642672E-1	6.030820E-1	6.819491E-1	6.315779E-1	5.632184E-1	6.732142E-1	6.506157E-1	6.139138E-1	6.717532E-1	6.358622E-1	6.651614E-1	5.328120E-1	5.683551E-1	6.462607E-1	6.428185E-1	5.732356E-1	5.151989E-1	6.601142E-1	6.493306E-1	6.023359E-1	5.639258E-1	5.105911E-1	6.420472E-1	5.712653E-1	5.660331E-1	6.227229E-1	6.320340E-1	5.437905E-1	6.090292E-1	6.498563E-1	6.800135E-1	5.296436E-1	5.029916E-1	6.388500E-1	6.532218E-1	5.842097E-1	4.771744E-1	6.484890E-1	6.615171E-1	6.082772E-1	6.053318E-1	7.004470E-1	6.471363E-1	5.426895E-1	5.512130E-1	6.332629E-1	6.306229E-1	5.747695E-1
2.898030E+2	6.204654E-1	5.931841E-1	5.615914E-1	6.024352E-1	5.979711E-1	6.242006E-1	6.114173E-1	6.022499E-1	5.453325E-1	5.787769E-1	6.389576E-1	5.934108E-1	4.639114E-1	5.424012E-1	6.078220E-1	5.789550E-1	5.085554E-1	5.367795E-1	6.006992E-1	6.187179E-1	5.713554E-1	6.100372E-1	5.849580E-1	6.085785E-1	5.773948E-1	5.608263E-1	5.912131E-1	5.750745E-1	5.351906E-1	5.502368E-1	5.794178E-1	6.151611E-1	5.663829E-1	5.569171E-1	5.914624E-1	6.078429E-1	6.120094E-1	5.797641E-1	6.021407E-1	6.086576E-1	5.332401E-1	5.855086E-1	5.766891E-1	5.559970E-1	5.012460E-1	5.752344E-1	5.866990E-1	5.997199E-1	5.241975E-1	5.449370E-1	5.570511E-1	6.007592E-1	5.868250E-1	5.900158E-1	5.938174E-1	6.295862E-1	5.549284E-1	6.340842E-1	6.001112E-1	5.978045E-1	4.597978E-1	5.847348E-1	5.675526E-1	5.824839E-1	5.361980E-1	5.925444E-1	6.110588E-1	5.965016E-1	5.867489E-1	6.000591E-1	6.014865E-1	6.275037E-1	5.207149E-1	6.096368E-1	5.981633E-1	6.142384E-1	5.401652E-1	6.099738E-1	6.007088E-1	5.629410E-1	5.358327E-1	6.070140E-1	6.277853E-1	5.970891E-1	5.715162E-1	6.052436E-1	6.109640E-1	6.196416E-1	5.460231E-1	6.094430E-1	6.053273E-1	6.214946E-1	5.249946E-1	6.016426E-1	6.142702E-1	6.158121E-1	5.293920E-1	5.718551E-1	6.291051E-1	5.763111E-1	6.291009E-1	6.010470E-1	6.144310E-1	5.823836E-1	5.494563E-1	6.260545E-1	6.163889E-1	5.892751E-1	4.785086E-1	6.046257E-1	5.681386E-1	5.841833E-1	5.470916E-1	5.932202E-1	6.181016E-1	5.764334E-1	5.828026E-1	5.962242E-1	6.161092E-1	5.389834E-1	5.587347E-1	6.467133E-1	5.932331E-1	5.586021E-1	5.249266E-1	6.302482E-1	6.205907E-1	5.923533E-1	5.729174E-1	6.006819E-1	6.116473E-1	5.652723E-1	6.198385E-1	6.306481E-1	6.256469E-1	5.036878E-1	5.427050E-1	5.944788E-1	6.315924E-1	5.292332E-1	5.112951E-1	6.171116E-1	5.959604E-1	5.753429E-1	5.384049E-1	5.005153E-1	6.257979E-1	5.701616E-1	5.987442E-1	5.866154E-1	6.041428E-1	5.043835E-1	5.838572E-1	6.434535E-1	6.125407E-1	5.256921E-1	5.006088E-1	6.245750E-1	6.164054E-1	5.614890E-1	4.232262E-1	6.072266E-1	6.334003E-1	5.606678E-1	5.488565E-1	6.342773E-1	6.063927E-1	5.244742E-1	5.818557E-1	5.988535E-1	6.094554E-1	5.959611E-1
2.900020E+2	5.155049E-1	5.693061E-1	5.127007E-1	5.205051E-1	5.303773E-1	5.732125E-1	5.343462E-1	5.373171E-1	5.193697E-1	5.103522E-1	5.863893E-1	5.150181E-1	4.409685E-1	4.824231E-1	5.021256E-1	5.434818E-1	4.890155E-1	4.615943E-1	5.408432E-1	5.382766E-1	4.940871E-1	5.376702E-1	5.374660E-1	5.567547E-1	5.247668E-1	5.067684E-1	5.301422E-1	5.336160E-1	4.740806E-1	4.888306E-1	5.163902E-1	5.609134E-1	5.118860E-1	5.281594E-1	5.020286E-1	5.430282E-1	5.225952E-1	5.132855E-1	5.314101E-1	5.491310E-1	4.839031E-1	4.994924E-1	5.533577E-1	4.983342E-1	4.707858E-1	5.049766E-1	5.574466E-1	5.479452E-1	4.567786E-1	5.234470E-1	5.503507E-1	5.497566E-1	5.253844E-1	5.660407E-1	5.595226E-1	5.738185E-1	4.863572E-1	5.574666E-1	5.324778E-1	5.204805E-1	4.403887E-1	5.282559E-1	5.278333E-1	5.401116E-1	4.661917E-1	5.528577E-1	5.425433E-1	5.511956E-1	4.997691E-1	5.502889E-1	5.625058E-1	5.533239E-1	5.035007E-1	5.480973E-1	5.646850E-1	5.373060E-1	4.573423E-1	5.490167E-1	5.306916E-1	5.591488E-1	4.911416E-1	5.654540E-1	5.472654E-1	5.415866E-1	5.424533E-1	5.374361E-1	5.727392E-1	5.242113E-1	4.772704E-1	5.122066E-1	5.484414E-1	5.641618E-1	4.857379E-1	5.437074E-1	5.471867E-1	5.421511E-1	4.965153E-1	5.265276E-1	5.487567E-1	5.577535E-1	5.297364E-1	5.358554E-1	5.380472E-1	5.507606E-1	4.967176E-1	5.727113E-1	5.410479E-1	5.725295E-1	4.640354E-1	5.380677E-1	5.458347E-1	5.337630E-1	4.606661E-1	5.618682E-1	5.463578E-1	5.551510E-1	5.198693E-1	5.769600E-1	5.332658E-1	5.638501E-1	5.351405E-1	5.459537E-1	5.466012E-1	5.731820E-1	4.965415E-1	5.462807E-1	5.564174E-1	5.323053E-1	5.295585E-1	5.506407E-1	5.865230E-1	5.535517E-1	5.627833E-1	5.357555E-1	5.541444E-1	5.129337E-1	4.719101E-1	5.781890E-1	5.439274E-1	5.423764E-1	4.453715E-1	5.757850E-1	5.321262E-1	5.493689E-1	4.738799E-1	4.461028E-1	5.921380E-1	5.116419E-1	4.956135E-1	5.490437E-1	5.336813E-1	4.563707E-1	5.192094E-1	5.676832E-1	5.693391E-1	4.963368E-1	4.300840E-1	5.868491E-1	5.538684E-1	5.476585E-1	4.142351E-1	5.760009E-1	5.669960E-1	5.169337E-1	4.933226E-1	5.734200E-1	5.688654E-1	4.717443E-1	4.988646E-1	5.354662E-1	5.075851E-1	5.017784E-1
2.905120E+2	5.792540E-1	5.200588E-1	5.424067E-1	5.518829E-1	5.510585E-1	5.373691E-1	5.385120E-1	5.406342E-1	5.236968E-1	5.370428E-1	5.349399E-1	5.439552E-1	4.582839E-1	4.925664E-1	5.394306E-1	5.681157E-1	4.737008E-1	4.787509E-1	5.769549E-1	5.309638E-1	5.520378E-1	5.340289E-1	5.612120E-1	5.593677E-1	5.202396E-1	5.227855E-1	5.223873E-1	5.448768E-1	4.685663E-1	4.994679E-1	5.213928E-1	5.294589E-1	4.877274E-1	5.124732E-1	5.136707E-1	5.593680E-1	4.916983E-1	4.967805E-1	5.114005E-1	5.443304E-1	4.624735E-1	5.468016E-1	5.579226E-1	5.634930E-1	4.871195E-1	4.996096E-1	5.331526E-1	5.646638E-1	5.210621E-1	4.925224E-1	5.663283E-1	5.515359E-1	5.386550E-1	5.388368E-1	5.209996E-1	5.679483E-1	4.972100E-1	5.302135E-1	5.262262E-1	5.472028E-1	4.647632E-1	5.411787E-1	5.066138E-1	5.652392E-1	4.782457E-1	5.285159E-1	5.322661E-1	5.217194E-1	5.130052E-1	5.440673E-1	5.561598E-1	5.340748E-1	4.800267E-1	5.552775E-1	5.756781E-1	5.922577E-1	4.772195E-1	5.864105E-1	5.039493E-1	5.600969E-1	4.993611E-1	5.532637E-1	5.558743E-1	5.349929E-1	5.308283E-1	5.615125E-1	5.818176E-1	5.455695E-1	5.148200E-1	5.433655E-1	5.592499E-1	5.598753E-1	4.702179E-1	5.517545E-1	5.590886E-1	5.761117E-1	4.719882E-1	5.580844E-1	5.329213E-1	5.073006E-1	5.363291E-1	5.398063E-1	5.423711E-1	5.878186E-1	4.778819E-1	5.078213E-1	5.598834E-1	5.529922E-1	4.245613E-1	5.504130E-1	5.245685E-1	5.440523E-1	4.752325E-1	5.578778E-1	5.557392E-1	5.371433E-1	5.087351E-1	5.764784E-1	5.834734E-1	5.225624E-1	5.411646E-1	5.417555E-1	5.426677E-1	5.467219E-1	4.676590E-1	5.354146E-1	5.423442E-1	5.565180E-1	5.010328E-1	5.585128E-1	5.331976E-1	5.371420E-1	5.268024E-1	5.753812E-1	5.428546E-1	5.244908E-1	5.047427E-1	5.362983E-1	5.353747E-1	5.618066E-1	4.371311E-1	5.165868E-1	5.326496E-1	5.783986E-1	4.478772E-1	4.440874E-1	5.549963E-1	5.574637E-1	5.224184E-1	5.588027E-1	5.796770E-1	5.664379E-1	5.317959E-1	5.591456E-1	5.703096E-1	5.245626E-1	4.400911E-1	5.582995E-1	5.614333E-1	5.550674E-1	3.929394E-1	5.576002E-1	5.245214E-1	5.280057E-1	5.295605E-1	5.821138E-1	5.720826E-1	5.134483E-1	4.880124E-1	5.617272E-1	5.300758E-1	4.852971E-1
2.910040E+2	6.275489E-1	6.817302E-1	6.383317E-1	6.570551E-1	6.211745E-1	6.787230E-1	6.692199E-1	6.543858E-1	6.124017E-1	6.326428E-1	6.976775E-1	6.391839E-1	5.691030E-1	5.988514E-1	6.083006E-1	6.553201E-1	5.719261E-1	6.054046E-1	6.447252E-1	6.485324E-1	6.481405E-1	6.610127E-1	6.631798E-1	6.569183E-1	5.898439E-1	6.569303E-1	6.648858E-1	6.892139E-1	5.544888E-1	6.106759E-1	6.724579E-1	6.479832E-1	6.118911E-1	6.029301E-1	6.708409E-1	6.677561E-1	6.246489E-1	6.494522E-1	6.831084E-1	6.480226E-1	6.084916E-1	6.478706E-1	6.624064E-1	6.891979E-1	5.696715E-1	6.303668E-1	6.789184E-1	6.709092E-1	5.916167E-1	6.350900E-1	6.771433E-1	6.618431E-1	6.885707E-1	6.587155E-1	6.445555E-1	7.000297E-1	6.378055E-1	6.741935E-1	6.654714E-1	6.523854E-1	5.162195E-1	6.651460E-1	6.371968E-1	6.765901E-1	5.769962E-1	6.385820E-1	6.767200E-1	6.194273E-1	6.170031E-1	6.458303E-1	6.626781E-1	7.035620E-1	6.255649E-1	6.716887E-1	6.861058E-1	6.527051E-1	5.813405E-1	6.673457E-1	6.269648E-1	6.890339E-1	5.707635E-1	6.845915E-1	6.946315E-1	6.509420E-1	6.683927E-1	6.912312E-1	6.764244E-1	6.918956E-1	5.687639E-1	6.443621E-1	6.957752E-1	6.718620E-1	5.720113E-1	6.788893E-1	6.494348E-1	6.928219E-1	6.149763E-1	6.975104E-1	6.572564E-1	7.062126E-1	6.761934E-1	6.672264E-1	6.398919E-1	6.599578E-1	5.817456E-1	6.777467E-1	6.844051E-1	6.752383E-1	5.688596E-1	6.609850E-1	6.734326E-1	6.701041E-1	5.854495E-1	6.838566E-1	6.484547E-1	6.877545E-1	6.641316E-1	6.622039E-1	6.959397E-1	6.595630E-1	6.024096E-1	6.834487E-1	6.859353E-1	6.558028E-1	5.881702E-1	6.702558E-1	6.999623E-1	6.519170E-1	6.174171E-1	6.816475E-1	6.562563E-1	6.707600E-1	6.568469E-1	6.827871E-1	6.952677E-1	6.567051E-1	5.657908E-1	6.532418E-1	6.465597E-1	6.652402E-1	5.655092E-1	6.629066E-1	6.289245E-1	6.700737E-1	5.706672E-1	5.131101E-1	6.838321E-1	6.446900E-1	6.332723E-1	6.827398E-1	7.073886E-1	6.529506E-1	6.519362E-1	6.679990E-1	6.746740E-1	6.860153E-1	5.382536E-1	6.663797E-1	6.915511E-1	6.834897E-1	5.623561E-1	6.903089E-1	6.860454E-1	6.531180E-1	6.552184E-1	6.994813E-1	6.723334E-1	6.884154E-1	6.316499E-1	6.341679E-1	7.033877E-1	5.771238E-1
2.915240E+2	7.370175E-1	7.324703E-1	7.002183E-1	7.633904E-1	7.018831E-1	7.574773E-1	7.452494E-1	7.468089E-1	6.778488E-1	6.797153E-1	7.580750E-1	7.181022E-1	6.067643E-1	6.310454E-1	7.249974E-1	7.494223E-1	6.279043E-1	6.568736E-1	7.288192E-1	7.075981E-1	6.998137E-1	6.719360E-1	7.549044E-1	7.083063E-1	6.815178E-1	6.499225E-1	7.196555E-1	7.224836E-1	6.776294E-1	6.657962E-1	7.094741E-1	7.200092E-1	6.826812E-1	6.583546E-1	7.338158E-1	7.064269E-1	7.557267E-1	6.787939E-1	7.091670E-1	6.864270E-1	6.194556E-1	6.871157E-1	7.070400E-1	7.295616E-1	6.098437E-1	6.845235E-1	7.399019E-1	7.566604E-1	6.323819E-1	6.901253E-1	7.281694E-1	7.389394E-1	6.826721E-1	7.002122E-1	7.554259E-1	7.376967E-1	6.654318E-1	7.487544E-1	6.762695E-1	7.524512E-1	5.839252E-1	6.986503E-1	7.204432E-1	7.130501E-1	6.548840E-1	7.110771E-1	7.332456E-1	7.116778E-1	6.907473E-1	7.284848E-1	7.370137E-1	7.429991E-1	6.474742E-1	7.275865E-1	7.375716E-1	7.266400E-1	6.097370E-1	7.088381E-1	7.650536E-1	7.345413E-1	6.755553E-1	7.228264E-1	7.260298E-1	7.223803E-1	6.969708E-1	7.216950E-1	7.380630E-1	7.387023E-1	6.274683E-1	6.921745E-1	7.549365E-1	7.259801E-1	6.007690E-1	7.749114E-1	7.646663E-1	7.382629E-1	6.572464E-1	7.537391E-1	7.117998E-1	7.044732E-1	7.044484E-1	7.294550E-1	7.537470E-1	7.059094E-1	6.474009E-1	7.162405E-1	7.503288E-1	7.656667E-1	6.021931E-1	7.076826E-1	7.460494E-1	6.937714E-1	6.218645E-1	7.095086E-1	7.185431E-1	7.756110E-1	6.888205E-1	7.546717E-1	7.541814E-1	7.111727E-1	6.797189E-1	7.270058E-1	7.612207E-1	7.503026E-1	6.454382E-1	7.344664E-1	7.359893E-1	7.289132E-1	6.778909E-1	7.401235E-1	7.500887E-1	7.627692E-1	7.190427E-1	7.761156E-1	7.493655E-1	7.251235E-1	6.632619E-1	7.207320E-1	7.352940E-1	7.423871E-1	6.002062E-1	7.528203E-1	7.320008E-1	7.383202E-1	5.976328E-1	6.093398E-1	6.925366E-1	7.026571E-1	6.832479E-1	7.481241E-1	7.377263E-1	7.462582E-1	7.228764E-1	7.378993E-1	7.266135E-1	7.831123E-1	5.806638E-1	7.377533E-1	7.288713E-1	7.314008E-1	6.475374E-1	7.516446E-1	7.434761E-1	7.383715E-1	6.745137E-1	7.550260E-1	7.522128E-1	7.128628E-1	6.820832E-1	7.029873E-1	7.351392E-1	6.854327E-1
2.920030E+2	5.650874E-1	6.096001E-1	6.024373E-1	6.152189E-1	5.843515E-1	5.984541E-1	5.822552E-1	5.984580E-1	5.604773E-1	5.394692E-1	5.819157E-1	5.723660E-1	4.829586E-1	5.212325E-1	5.781696E-1	6.188622E-1	5.265102E-1	4.732001E-1	6.244437E-1	5.810295E-1	5.559014E-1	5.581510E-1	5.844923E-1	5.942071E-1	5.553250E-1	5.307940E-1	5.732797E-1	5.904300E-1	5.370286E-1	5.125227E-1	5.709142E-1	5.572664E-1	5.337968E-1	5.590093E-1	5.565355E-1	5.806099E-1	5.717497E-1	5.531728E-1	5.532807E-1	5.836952E-1	5.382239E-1	5.607791E-1	5.913980E-1	5.929012E-1	4.893267E-1	5.791373E-1	5.633964E-1	5.905510E-1	5.241977E-1	5.507026E-1	5.982846E-1	5.948288E-1	5.863330E-1	5.996983E-1	6.069716E-1	5.787101E-1	5.164500E-1	5.723785E-1	5.580532E-1	5.426544E-1	4.787554E-1	5.909569E-1	6.045513E-1	5.869180E-1	5.018909E-1	5.766697E-1	5.750880E-1	5.904972E-1	5.427859E-1	5.747299E-1	6.100987E-1	5.918227E-1	5.327126E-1	5.783543E-1	5.961645E-1	6.287253E-1	4.975705E-1	5.889717E-1	5.817456E-1	5.828504E-1	5.255588E-1	6.009183E-1	5.963878E-1	6.031332E-1	5.632821E-1	6.086828E-1	5.937628E-1	5.805604E-1	5.153487E-1	5.766729E-1	6.053274E-1	6.080991E-1	5.030838E-1	6.241733E-1	5.958761E-1	5.847214E-1	5.372196E-1	5.873467E-1	5.862921E-1	6.209644E-1	5.763578E-1	5.916636E-1	6.158723E-1	5.957244E-1	5.182438E-1	6.084568E-1	5.933680E-1	6.116031E-1	5.175440E-1	5.826182E-1	5.992600E-1	5.677191E-1	5.412653E-1	5.875201E-1	6.054082E-1	5.731587E-1	6.108804E-1	6.106722E-1	6.005446E-1	6.135836E-1	5.687751E-1	5.784911E-1	6.145830E-1	5.791218E-1	5.209425E-1	5.991307E-1	5.952593E-1	5.875104E-1	5.723472E-1	5.821279E-1	6.290808E-1	5.676168E-1	5.653532E-1	6.249131E-1	5.950703E-1	5.905979E-1	5.278280E-1	6.107699E-1	6.016582E-1	6.229525E-1	4.917785E-1	5.875124E-1	6.069487E-1	5.840010E-1	4.825474E-1	4.531562E-1	5.741476E-1	5.950042E-1	5.496772E-1	6.163795E-1	6.026750E-1	6.067502E-1	5.735588E-1	5.783552E-1	6.028327E-1	6.143208E-1	5.096630E-1	6.052023E-1	5.689982E-1	5.772948E-1	4.918447E-1	5.760012E-1	5.741747E-1	5.783829E-1	5.545040E-1	6.077126E-1	5.892371E-1	6.179494E-1	5.473827E-1	5.970419E-1	6.226850E-1	5.936059E-1
2.925000E+2	5.902007E-1	6.001480E-1	6.203844E-1	6.099896E-1	6.242011E-1	6.332876E-1	6.556810E-1	6.496461E-1	5.913077E-1	5.855710E-1	6.562943E-1	6.607544E-1	5.310090E-1	5.573959E-1	5.882138E-1	6.410324E-1	5.354882E-1	5.463669E-1	6.204860E-1	6.592207E-1	5.742527E-1	5.959281E-1	5.984606E-1	6.068364E-1	5.790924E-1	5.878560E-1	5.800651E-1	6.385422E-1	5.641384E-1	5.773133E-1	6.204358E-1	6.001177E-1	5.927889E-1	5.621464E-1	6.131594E-1	5.915030E-1	5.857937E-1	6.086479E-1	6.412286E-1	6.398617E-1	5.830757E-1	6.156144E-1	6.380605E-1	5.986671E-1	5.290574E-1	5.781614E-1	6.461953E-1	6.736055E-1	5.660084E-1	5.837238E-1	6.147773E-1	6.440517E-1	5.917398E-1	6.352008E-1	6.534812E-1	6.276295E-1	5.781141E-1	6.407691E-1	6.171616E-1	6.398772E-1	4.909425E-1	5.947865E-1	6.241389E-1	6.150021E-1	5.769966E-1	6.322319E-1	6.219072E-1	5.883139E-1	5.895854E-1	6.160569E-1	6.323091E-1	6.232786E-1	5.754875E-1	6.296366E-1	5.991628E-1	6.681915E-1	5.302267E-1	6.017777E-1	6.255061E-1	5.999156E-1	5.193947E-1	6.192046E-1	6.237338E-1	6.426990E-1	5.952506E-1	6.209669E-1	6.358107E-1	6.219139E-1	5.772259E-1	6.432878E-1	6.070336E-1	6.166718E-1	5.578606E-1	6.332920E-1	6.110242E-1	6.019412E-1	5.518315E-1	5.993956E-1	6.361434E-1	6.041468E-1	5.890725E-1	6.326550E-1	6.715981E-1	6.624284E-1	5.596816E-1	6.095563E-1	6.278997E-1	6.238838E-1	4.995614E-1	6.132136E-1	6.194891E-1	6.186544E-1	5.446642E-1	6.126017E-1	6.037530E-1	6.490102E-1	5.881279E-1	6.236756E-1	6.346857E-1	6.032613E-1	5.888552E-1	6.257213E-1	6.280668E-1	6.185425E-1	5.553033E-1	6.490170E-1	6.329747E-1	6.093021E-1	5.774813E-1	6.445385E-1	6.460014E-1	6.156721E-1	6.393712E-1	6.202205E-1	6.143568E-1	6.271188E-1	5.350101E-1	6.340422E-1	6.545781E-1	6.195235E-1	5.034890E-1	6.176701E-1	6.420051E-1	6.186336E-1	5.263665E-1	4.813699E-1	6.194146E-1	6.215033E-1	6.082850E-1	6.178436E-1	6.173545E-1	5.990500E-1	6.181829E-1	6.327819E-1	6.237055E-1	6.357728E-1	4.920315E-1	6.077513E-1	6.360742E-1	6.543475E-1	5.159793E-1	6.657743E-1	5.783625E-1	6.437073E-1	5.893299E-1	6.173728E-1	6.508892E-1	6.217845E-1	5.959002E-1	5.925140E-1	6.451756E-1	6.030228E-1
2.930040E+2	7.222072E-1	7.225215E-1	7.237353E-1	7.436342E-1	7.033967E-1	7.115371E-1	7.072355E-1	7.510738E-1	6.675721E-1	6.607894E-1	7.127764E-1	7.023184E-1	6.262445E-1	6.420710E-1	6.919974E-1	7.307005E-1	6.516687E-1	6.154965E-1	6.946869E-1	7.227859E-1	6.872569E-1	6.664743E-1	6.878570E-1	7.070001E-1	6.849134E-1	6.834586E-1	6.774880E-1	7.286258E-1	6.362764E-1	6.827191E-1	7.139758E-1	6.858198E-1	6.905465E-1	6.698577E-1	7.041808E-1	7.238562E-1	7.238938E-1	6.558704E-1	7.161470E-1	7.344329E-1	6.473638E-1	6.946420E-1	7.136336E-1	7.059200E-1	6.222041E-1	6.796446E-1	7.012291E-1	7.183693E-1	6.653076E-1	6.460969E-1	7.302309E-1	7.650339E-1	7.033160E-1	6.822302E-1	7.338151E-1	7.406319E-1	6.249795E-1	7.441262E-1	6.660390E-1	7.086728E-1	5.676757E-1	7.244970E-1	6.698423E-1	7.219189E-1	6.168672E-1	7.084316E-1	7.326746E-1	7.269615E-1	6.690019E-1	7.124872E-1	6.590517E-1	7.364263E-1	6.386061E-1	7.111759E-1	6.866054E-1	7.076566E-1	6.031108E-1	7.575013E-1	7.232384E-1	7.075213E-1	6.704185E-1	7.272594E-1	7.472987E-1	7.646936E-1	6.824393E-1	7.310310E-1	7.218171E-1	7.223426E-1	6.348723E-1	7.190349E-1	7.139788E-1	7.291953E-1	6.203974E-1	7.287779E-1	6.889277E-1	7.368276E-1	5.993206E-1	7.261983E-1	6.801296E-1	7.317294E-1	7.124545E-1	6.978467E-1	7.345309E-1	7.034392E-1	6.178022E-1	7.409874E-1	7.283537E-1	7.059393E-1	5.815787E-1	7.280794E-1	7.579787E-1	6.968582E-1	6.048703E-1	7.112184E-1	6.710813E-1	7.013966E-1	6.902728E-1	7.493739E-1	7.421311E-1	7.121116E-1	6.752010E-1	7.695138E-1	7.011054E-1	6.973829E-1	6.275107E-1	7.522476E-1	7.100950E-1	7.143855E-1	6.362437E-1	7.457453E-1	6.906099E-1	7.533922E-1	7.411447E-1	7.552605E-1	7.192587E-1	7.052453E-1	6.124742E-1	7.032777E-1	7.385010E-1	7.086708E-1	5.798218E-1	7.422093E-1	7.032229E-1	7.077616E-1	5.880023E-1	5.619809E-1	7.290981E-1	7.280526E-1	6.864279E-1	7.451966E-1	7.093459E-1	7.525995E-1	6.782528E-1	7.272278E-1	7.285554E-1	7.328698E-1	5.792344E-1	7.158312E-1	7.303844E-1	7.195463E-1	6.077860E-1	7.198616E-1	6.920274E-1	7.405858E-1	6.872207E-1	7.381214E-1	7.103968E-1	7.353927E-1	6.418642E-1	7.283429E-1	7.854119E-1	6.901421E-1
2.935120E+2	8.213725E-1	7.936567E-1	8.413213E-1	7.976734E-1	8.042818E-1	8.200769E-1	7.666003E-1	8.321222E-1	8.238878E-1	7.966679E-1	8.402822E-1	8.149093E-1	8.578397E-1	7.170435E-1	8.000853E-1	8.041099E-1	7.974232E-1	6.937092E-1	7.876860E-1	8.358542E-1	8.219933E-1	8.107532E-1	8.075183E-1	8.528905E-1	7.980913E-1	8.090945E-1	8.127160E-1	7.977231E-1	7.934184E-1	7.595976E-1	7.870079E-1	7.728897E-1	8.152721E-1	7.807070E-1	7.729758E-1	8.055559E-1	8.039446E-1	8.034988E-1	8.357372E-1	8.285240E-1	7.849095E-1	7.645303E-1	8.064516E-1	8.293180E-1	7.599374E-1	8.001562E-1	8.187347E-1	8.402547E-1	7.463150E-1	7.650782E-1	8.394991E-1	8.190011E-1	7.893326E-1	8.279281E-1	8.071030E-1	7.875941E-1	6.970042E-1	8.053181E-1	7.910760E-1	8.058952E-1	6.520823E-1	8.025145E-1	8.004258E-1	8.672660E-1	7.304532E-1	8.174389E-1	8.103258E-1	7.820935E-1	7.909637E-1	7.924756E-1	8.136159E-1	8.298556E-1	7.591057E-1	8.281003E-1	8.385058E-1	8.150625E-1	6.991860E-1	8.215326E-1	8.029801E-1	8.046983E-1	7.484988E-1	8.286644E-1	8.430115E-1	8.207449E-1	8.364727E-1	8.170184E-1	7.997010E-1	8.091390E-1	7.353562E-1	8.318508E-1	7.890676E-1	8.042107E-1	6.993671E-1	8.441114E-1	7.868481E-1	8.061842E-1	7.396995E-1	8.162799E-1	8.003595E-1	8.453929E-1	8.118195E-1	8.015604E-1	8.118753E-1	8.343768E-1	7.684860E-1	8.212760E-1	8.057881E-1	8.186963E-1	6.723684E-1	8.220115E-1	8.098480E-1	7.668298E-1	7.247980E-1	7.836132E-1	8.211922E-1	8.225400E-1	7.430394E-1	8.278752E-1	8.505807E-1	8.294061E-1	7.685743E-1	8.046739E-1	8.145958E-1	8.372432E-1	7.435400E-1	8.381902E-1	8.345010E-1	7.792762E-1	7.594732E-1	8.092814E-1	7.982864E-1	8.125829E-1	7.961435E-1	8.063561E-1	8.279238E-1	8.060241E-1	7.463694E-1	8.370936E-1	8.400650E-1	8.406776E-1	6.735034E-1	8.460855E-1	8.518210E-1	8.340693E-1	6.939393E-1	6.390645E-1	7.952566E-1	8.373618E-1	7.622995E-1	8.281469E-1	8.140595E-1	8.001589E-1	7.909561E-1	8.040648E-1	8.508800E-1	8.119025E-1	6.440409E-1	8.116756E-1	8.292333E-1	8.390776E-1	7.275134E-1	7.611241E-1	8.032996E-1	8.562870E-1	7.516965E-1	8.530738E-1	8.197622E-1	8.298268E-1	7.772025E-1	8.062177E-1	8.766978E-1	8.478953E-1
2.940080E+2	7.988354E-1	8.050984E-1	8.184228E-1	8.092942E-1	7.644323E-1	8.044265E-1	8.150301E-1	7.894654E-1	8.109067E-1	7.486249E-1	8.257424E-1	8.143832E-1	7.773226E-1	7.315969E-1	8.134768E-1	8.105150E-1	7.868607E-1	7.260038E-1	8.139036E-1	8.054778E-1	7.785303E-1	7.738870E-1	8.275390E-1	8.302447E-1	7.828119E-1	7.590402E-1	7.957522E-1	8.069359E-1	8.251220E-1	7.624984E-1	8.275255E-1	7.824626E-1	8.467339E-1	7.310338E-1	8.079025E-1	8.191721E-1	8.325012E-1	7.622359E-1	7.868778E-1	8.112415E-1	7.953753E-1	7.940988E-1	7.902211E-1	8.125957E-1	8.597063E-1	7.108704E-1	7.964236E-1	7.987269E-1	7.604266E-1	7.645543E-1	7.967196E-1	8.617010E-1	8.419259E-1	8.016477E-1	8.291832E-1	8.350455E-1	7.808680E-1	7.924629E-1	7.689102E-1	8.343228E-1	7.766612E-1	7.982073E-1	8.118512E-1	7.958242E-1	8.004592E-1	8.084430E-1	8.245998E-1	7.498874E-1	7.919091E-1	8.204710E-1	7.728220E-1	8.209353E-1	7.304148E-1	7.716896E-1	7.955335E-1	8.150621E-1	7.114906E-1	8.117994E-1	8.462542E-1	8.028021E-1	7.433621E-1	7.948621E-1	8.090818E-1	8.515184E-1	8.035348E-1	7.953986E-1	8.259802E-1	7.809643E-1	6.814119E-1	7.700705E-1	8.778093E-1	8.358237E-1	6.436774E-1	8.172899E-1	8.187664E-1	8.315352E-1	7.094318E-1	8.151326E-1	7.933218E-1	8.210366E-1	7.868607E-1	7.911894E-1	8.262871E-1	8.403058E-1	7.421161E-1	7.987292E-1	8.115430E-1	8.086488E-1	6.635965E-1	8.048358E-1	8.228151E-1	8.203374E-1	6.971229E-1	7.819029E-1	8.206403E-1	8.105355E-1	7.561100E-1	8.148720E-1	8.224641E-1	8.308135E-1	7.449801E-1	7.642657E-1	7.960547E-1	8.010631E-1	6.947381E-1	8.317692E-1	8.052291E-1	8.306068E-1	7.788707E-1	7.817303E-1	7.793147E-1	7.903138E-1	7.838073E-1	8.047923E-1	8.109889E-1	8.000140E-1	6.960941E-1	7.952037E-1	7.930243E-1	8.658216E-1	6.587570E-1	8.231876E-1	7.979281E-1	8.243921E-1	7.175341E-1	6.597219E-1	7.778465E-1	8.252158E-1	7.445807E-1	8.154603E-1	8.399936E-1	8.327714E-1	8.310025E-1	8.077998E-1	8.028241E-1	8.220636E-1	6.683433E-1	8.106560E-1	7.979645E-1	7.882030E-1	7.350852E-1	8.508980E-1	8.056928E-1	7.804451E-1	7.799343E-1	8.269917E-1	8.471037E-1	8.216776E-1	7.395374E-1	7.555088E-1	7.563074E-1	7.325243E-1
2.945010E+2	7.679262E-1	7.648051E-1	7.237357E-1	7.436342E-1	7.402192E-1	7.711079E-1	7.410840E-1	7.681370E-1	7.405914E-1	7.025233E-1	7.603119E-1	7.686101E-1	7.496174E-1	6.544193E-1	7.178233E-1	8.159339E-1	7.916137E-1	6.710024E-1	7.787814E-1	7.537250E-1	7.654913E-1	7.356553E-1	7.362803E-1	7.771143E-1	7.471608E-1	7.064835E-1	7.094771E-1	7.818560E-1	7.506864E-1	6.885211E-1	7.755027E-1	7.428022E-1	7.905520E-1	7.237143E-1	7.761513E-1	7.592593E-1	7.767925E-1	7.356444E-1	7.170781E-1	7.233912E-1	7.774346E-1	7.301235E-1	7.486305E-1	7.993334E-1	7.828932E-1	7.172128E-1	7.820451E-1	7.782330E-1	7.416118E-1	7.514500E-1	7.884730E-1	7.638478E-1	7.681971E-1	7.864321E-1	7.854926E-1	7.782992E-1	7.793878E-1	7.677804E-1	7.518601E-1	7.649595E-1	7.942647E-1	7.560871E-1	7.171786E-1	7.278308E-1	7.758873E-1	7.333022E-1	7.789228E-1	7.930108E-1	7.621279E-1	7.511480E-1	7.664764E-1	7.716383E-1	7.554542E-1	7.398946E-1	7.810434E-1	7.975774E-1	7.607118E-1	7.779915E-1	7.660262E-1	7.805228E-1	7.675057E-1	7.582897E-1	7.797097E-1	7.526042E-1	7.768940E-1	7.310306E-1	7.351955E-1	7.709669E-1	7.184328E-1	7.480447E-1	7.629004E-1	7.233016E-1	7.158003E-1	7.716927E-1	7.668307E-1	7.420894E-1	7.063004E-1	7.359521E-1	7.821785E-1	7.009937E-1	7.496574E-1	7.551366E-1	7.777669E-1	7.795305E-1	6.414814E-1	7.932294E-1	7.780577E-1	7.645506E-1	5.846490E-1	7.694093E-1	7.527922E-1	7.848366E-1	6.427423E-1	7.881740E-1	7.373068E-1	7.565123E-1	7.038274E-1	7.797144E-1	7.762729E-1	7.590289E-1	7.429715E-1	7.926042E-1	7.797613E-1	7.546228E-1	6.454380E-1	7.922555E-1	7.658243E-1	7.904140E-1	7.035637E-1	7.159454E-1	7.798277E-1	7.264343E-1	7.601635E-1	7.703806E-1	8.006397E-1	7.408419E-1	7.237970E-1	7.858940E-1	7.523998E-1	7.778174E-1	6.600578E-1	7.584045E-1	7.492677E-1	7.897593E-1	6.727517E-1	5.886830E-1	7.732038E-1	7.539995E-1	7.423092E-1	7.427572E-1	7.891048E-1	7.707175E-1	7.674995E-1	7.603107E-1	7.382639E-1	7.689990E-1	6.330806E-1	7.759888E-1	7.697223E-1	7.427609E-1	6.309744E-1	7.934654E-1	7.512528E-1	7.782302E-1	7.206352E-1	7.926991E-1	7.833069E-1	7.737416E-1	7.057028E-1	7.138552E-1	7.192618E-1	7.937421E-1
2.950070E+2	7.666388E-1	7.737584E-1	7.713887E-1	8.040648E-1	7.588832E-1	7.847386E-1	7.488949E-1	7.885176E-1	7.589822E-1	7.253318E-1	8.318940E-1	7.801853E-1	8.032955E-1	6.870547E-1	7.536936E-1	8.065733E-1	7.557032E-1	6.609106E-1	7.812547E-1	7.959151E-1	7.688718E-1	7.634187E-1	7.381425E-1	8.176153E-1	7.635720E-1	7.370166E-1	7.618233E-1	7.639421E-1	8.117973E-1	7.354218E-1	7.664987E-1	7.464495E-1	8.085305E-1	7.284194E-1	7.412243E-1	8.191722E-1	7.749206E-1	7.388538E-1	7.580271E-1	8.352446E-1	7.878998E-1	7.548535E-1	7.602961E-1	8.062536E-1	8.226243E-1	7.006242E-1	7.522971E-1	7.830869E-1	8.017142E-1	7.294362E-1	7.828035E-1	7.881630E-1	8.227566E-1	7.712166E-1	8.042845E-1	7.963997E-1	7.759352E-1	7.636669E-1	7.581117E-1	7.916813E-1	7.820776E-1	7.685313E-1	7.432958E-1	7.785794E-1	7.921144E-1	7.999764E-1	7.960517E-1	7.608049E-1	7.682727E-1	7.729223E-1	7.601303E-1	7.805586E-1	8.164860E-1	7.434844E-1	7.890384E-1	7.885860E-1	8.132451E-1	7.421340E-1	7.616504E-1	7.705674E-1	7.885667E-1	8.142568E-1	7.857865E-1	7.751344E-1	7.536435E-1	7.742706E-1	7.648204E-1	8.236813E-1	7.787233E-1	7.652357E-1	7.987386E-1	7.618808E-1	7.979651E-1	8.382107E-1	7.895523E-1	8.334488E-1	7.976252E-1	7.801326E-1	7.898027E-1	7.711642E-1	8.056973E-1	7.753852E-1	8.075515E-1	7.859538E-1	7.706388E-1	8.256752E-1	8.125890E-1	8.103229E-1	7.548242E-1	7.860485E-1	7.709463E-1	8.023299E-1	7.500461E-1	8.007141E-1	7.831128E-1	7.717913E-1	7.866089E-1	8.037950E-1	8.063978E-1	7.899949E-1	7.575300E-1	7.700386E-1	8.202136E-1	8.345433E-1	6.678469E-1	8.021335E-1	7.692018E-1	7.695910E-1	7.412172E-1	7.957865E-1	7.536771E-1	7.862110E-1	7.791815E-1	7.735088E-1	7.775895E-1	7.463889E-1	7.043026E-1	7.858943E-1	7.711085E-1	7.743890E-1	6.674309E-1	8.198371E-1	7.607787E-1	8.172621E-1	6.669732E-1	6.355380E-1	7.563740E-1	7.666967E-1	7.155049E-1	7.603226E-1	7.993800E-1	7.974413E-1	7.434717E-1	8.110010E-1	7.974841E-1	7.921440E-1	6.221212E-1	7.902637E-1	8.110776E-1	7.822756E-1	6.920213E-1	7.689309E-1	7.847545E-1	7.948383E-1	7.474607E-1	8.086383E-1	7.795543E-1	7.962713E-1	7.280466E-1	7.102327E-1	7.787969E-1	7.890328E-1
2.955070E+2	8.767514E-1	8.309662E-1	9.118726E-1	9.051701E-1	8.511939E-1	8.549101E-1	8.525236E-1	9.093783E-1	8.509328E-1	8.024909E-1	8.794290E-1	8.306935E-1	8.600041E-1	7.911343E-1	8.574772E-1	8.277588E-1	8.449512E-1	7.926103E-1	8.386377E-1	8.611677E-1	8.572471E-1	8.143941E-1	8.568724E-1	8.637781E-1	8.495867E-1	7.905744E-1	8.364658E-1	8.499297E-1	8.710703E-1	8.147180E-1	8.845496E-1	8.449157E-1	8.562854E-1	8.005760E-1	8.740522E-1	8.839866E-1	8.666754E-1	8.851070E-1	8.562123E-1	8.520462E-1	8.855772E-1	8.311933E-1	8.257256E-1	8.333546E-1	9.276899E-1	7.938135E-1	8.633567E-1	8.731528E-1	8.968327E-1	7.855201E-1	8.456843E-1	8.682238E-1	8.778071E-1	8.814126E-1	8.780418E-1	8.252618E-1	8.612790E-1	8.294860E-1	8.467740E-1	8.661618E-1	8.655815E-1	8.274040E-1	8.744229E-1	8.603683E-1	8.727836E-1	8.962841E-1	8.931159E-1	8.781646E-1	8.145995E-1	8.906829E-1	8.467049E-1	8.800912E-1	8.556089E-1	8.788704E-1	8.794788E-1	8.595234E-1	8.927556E-1	8.671224E-1	8.535478E-1	8.426210E-1	9.031190E-1	8.475045E-1	8.835244E-1	8.883363E-1	8.418011E-1	8.582925E-1	8.618165E-1	9.241100E-1	8.585818E-1	8.270159E-1	8.180799E-1	8.824405E-1	8.947377E-1	9.004377E-1	8.377008E-1	9.047182E-1	8.482455E-1	8.765254E-1	8.760166E-1	8.303159E-1	8.626793E-1	8.711974E-1	8.964256E-1	8.986099E-1	8.933377E-1	9.076134E-1	8.847913E-1	8.549790E-1	8.491230E-1	8.359677E-1	8.803898E-1	8.841352E-1	8.923079E-1	8.594286E-1	8.675501E-1	8.470972E-1	8.926266E-1	8.384703E-1	8.601205E-1	8.979064E-1	8.604419E-1	8.613513E-1	8.865096E-1	8.664037E-1	8.212250E-1	9.053642E-1	8.896678E-1	8.843594E-1	8.610238E-1	8.525749E-1	8.987841E-1	8.618114E-1	8.814693E-1	8.944709E-1	8.867252E-1	8.633474E-1	8.556397E-1	8.493117E-1	8.689302E-1	8.881085E-1	8.179282E-1	8.377080E-1	8.800761E-1	8.839805E-1	8.085432E-1	6.929734E-1	8.590940E-1	8.522669E-1	8.431688E-1	8.671826E-1	8.859892E-1	8.735370E-1	8.315745E-1	8.862383E-1	8.445697E-1	9.005318E-1	6.945518E-1	8.667354E-1	8.983272E-1	8.810619E-1	8.018110E-1	8.854688E-1	8.661146E-1	8.568404E-1	8.025246E-1	8.835021E-1	8.722998E-1	9.050869E-1	7.950775E-1	8.859048E-1	8.594996E-1	8.785051E-1
2.960030E+2	9.121670E-1	9.294618E-1	9.310577E-1	9.069132E-1	9.203005E-1	9.190247E-1	9.186592E-1	9.529824E-1	8.871715E-1	8.578127E-1	9.415041E-1	9.196079E-1	9.335950E-1	8.370004E-1	9.325647E-1	9.149630E-1	9.077947E-1	8.057296E-1	9.583485E-1	9.669228E-1	9.432082E-1	8.544466E-1	9.309039E-1	9.351986E-1	9.299432E-1	8.641530E-1	9.198321E-1	9.441078E-1	9.340189E-1	8.166517E-1	8.840504E-1	8.964280E-1	9.164006E-1	8.946931E-1	9.169161E-1	9.286490E-1	9.083394E-1	8.676851E-1	9.115868E-1	9.461374E-1	9.179704E-1	8.699000E-1	9.337595E-1	9.238849E-1	9.418165E-1	8.660228E-1	8.792223E-1	9.664543E-1	8.863800E-1	8.578519E-1	9.013495E-1	9.352390E-1	9.471120E-1	9.155316E-1	8.916658E-1	9.260347E-1	9.254101E-1	9.019904E-1	8.672347E-1	9.486029E-1	9.323845E-1	8.901056E-1	9.146853E-1	9.712262E-1	9.747803E-1	8.931091E-1	9.222347E-1	8.983611E-1	9.162339E-1	9.235666E-1	8.870452E-1	9.434730E-1	9.448099E-1	9.132298E-1	9.319445E-1	9.184712E-1	8.861297E-1	8.865877E-1	8.973086E-1	9.269989E-1	9.056873E-1	8.918349E-1	9.670830E-1	9.559286E-1	9.503024E-1	9.290479E-1	8.852293E-1	9.041153E-1	9.231032E-1	9.038384E-1	8.852050E-1	9.419169E-1	9.088880E-1	9.106301E-1	9.334571E-1	9.152418E-1	9.077364E-1	9.333284E-1	8.742568E-1	9.439799E-1	9.356717E-1	9.309564E-1	9.338968E-1	9.233147E-1	9.078683E-1	9.279603E-1	9.324024E-1	8.912627E-1	9.385969E-1	9.497591E-1	9.094366E-1	8.887656E-1	9.059030E-1	9.272634E-1	9.475720E-1	9.425928E-1	8.785876E-1	9.381621E-1	9.570221E-1	9.204266E-1	8.920682E-1	9.558128E-1	9.179725E-1	9.042036E-1	9.073756E-1	9.290725E-1	9.290724E-1	9.531242E-1	9.431774E-1	9.177972E-1	8.977589E-1	8.881826E-1	9.621690E-1	9.481737E-1	9.939791E-1	8.901602E-1	9.761966E-1	9.400739E-1	9.223839E-1	8.995381E-1	9.042366E-1	9.253883E-1	9.198411E-1	9.552834E-1	9.159248E-1	7.458748E-1	9.536889E-1	9.345248E-1	9.117715E-1	9.281746E-1	9.447071E-1	9.269846E-1	9.442777E-1	9.374629E-1	9.164110E-1	9.473868E-1	9.237572E-1	9.258730E-1	9.381686E-1	9.309485E-1	9.177529E-1	9.278469E-1	9.319203E-1	9.515052E-1	9.187695E-1	9.462911E-1	9.012497E-1	9.213850E-1	8.487023E-1	9.103539E-1	9.097720E-1	8.855696E-1
2.964980E+2	8.954247E-1	8.827010E-1	9.069216E-1	9.057511E-1	8.779287E-1	8.821715E-1	8.634593E-1	9.070087E-1	8.709453E-1	8.442249E-1	9.219309E-1	8.422676E-1	8.569738E-1	7.783453E-1	8.445639E-1	9.085585E-1	8.940642E-1	7.805002E-1	8.702967E-1	8.763569E-1	9.002280E-1	8.863058E-1	8.247455E-1	8.859877E-1	8.303471E-1	8.271134E-1	8.505216E-1	9.118621E-1	9.285047E-1	7.934429E-1	9.355723E-1	8.380777E-1	8.838149E-1	8.199226E-1	8.481213E-1	8.785403E-1	8.825919E-1	8.690603E-1	8.701720E-1	8.798898E-1	9.154791E-1	8.768891E-1	8.749241E-1	9.002436E-1	8.813374E-1	8.352848E-1	9.337608E-1	8.823207E-1	8.701787E-1	8.473693E-1	8.549621E-1	8.788987E-1	8.837052E-1	8.814126E-1	8.733438E-1	8.961941E-1	8.726255E-1	8.881071E-1	8.359751E-1	8.360286E-1	9.274198E-1	8.479852E-1	8.564674E-1	9.007700E-1	8.788106E-1	9.227424E-1	8.959706E-1	8.661552E-1	8.925982E-1	8.449119E-1	9.078960E-1	8.655372E-1	9.030789E-1	8.481007E-1	8.869739E-1	8.750095E-1	9.088472E-1	8.456081E-1	8.909869E-1	9.080377E-1	8.728116E-1	9.300698E-1	9.022623E-1	8.542657E-1	8.747392E-1	9.182384E-1	8.842737E-1	8.813937E-1	8.924289E-1	8.656954E-1	8.761032E-1	8.647588E-1	8.892601E-1	9.251129E-1	9.031617E-1	8.717140E-1	8.597254E-1	8.793941E-1	8.625272E-1	8.784489E-1	9.267244E-1	8.800872E-1	8.983469E-1	8.921865E-1	8.578199E-1	8.817673E-1	8.675256E-1	8.800987E-1	8.956140E-1	8.912530E-1	9.021748E-1	8.640698E-1	8.991052E-1	8.902107E-1	8.846579E-1	8.661959E-1	8.640643E-1	8.991523E-1	9.022952E-1	8.814850E-1	8.760039E-1	8.938881E-1	9.089836E-1	8.761237E-1	8.859628E-1	8.791859E-1	8.564548E-1	8.669266E-1	9.511643E-1	9.082389E-1	9.157050E-1	8.670850E-1	9.189923E-1	9.179336E-1	8.782578E-1	8.513283E-1	8.735951E-1	8.562932E-1	8.689298E-1	9.098237E-1	8.933934E-1	8.935554E-1	8.994349E-1	8.849989E-1	8.586229E-1	7.101035E-1	8.979764E-1	8.599963E-1	8.495293E-1	9.047536E-1	9.148587E-1	8.821424E-1	8.687615E-1	8.414165E-1	8.309783E-1	9.270642E-1	8.456081E-1	9.105793E-1	9.069002E-1	8.879766E-1	8.775277E-1	8.854691E-1	9.026069E-1	8.823059E-1	8.735890E-1	8.917129E-1	9.108994E-1	8.811182E-1	8.959432E-1	8.768487E-1	8.674368E-1	8.573150E-1
2.970040E+2	8.245922E-1	8.085808E-1	8.147098E-1	8.377672E-1	8.194148E-1	8.276491E-1	7.822228E-1	8.141117E-1	7.827810E-1	7.724036E-1	8.335720E-1	7.828157E-1	8.444201E-1	7.130745E-1	8.627375E-1	8.134708E-1	7.789397E-1	7.265080E-1	8.356693E-1	8.032278E-1	8.567641E-1	7.834447E-1	8.112432E-1	8.202284E-1	8.569435E-1	7.835666E-1	7.933285E-1	8.100071E-1	8.329330E-1	7.528282E-1	8.230235E-1	8.444594E-1	8.619029E-1	7.796613E-1	7.983772E-1	8.327886E-1	8.535674E-1	8.112927E-1	8.120056E-1	8.558871E-1	8.457090E-1	8.032376E-1	8.110167E-1	7.999102E-1	8.698596E-1	7.294107E-1	8.365830E-1	8.391759E-1	8.482279E-1	7.629819E-1	7.704334E-1	8.184085E-1	8.448749E-1	8.223953E-1	8.216666E-1	8.189022E-1	8.163869E-1	8.366855E-1	7.734567E-1	8.439884E-1	8.172846E-1	8.168740E-1	8.189250E-1	8.500212E-1	8.366215E-1	8.190264E-1	8.040452E-1	8.077491E-1	8.183814E-1	8.066956E-1	8.788866E-1	8.387760E-1	8.477850E-1	8.137415E-1	7.900375E-1	8.085677E-1	8.028333E-1	8.087264E-1	8.034661E-1	8.483094E-1	7.818885E-1	8.120403E-1	8.222483E-1	7.910710E-1	8.015973E-1	8.165271E-1	8.341034E-1	8.091387E-1	8.273790E-1	7.872621E-1	8.231992E-1	8.476121E-1	7.742287E-1	8.371377E-1	7.965856E-1	8.602345E-1	8.054529E-1	8.564437E-1	8.115027E-1	8.401743E-1	8.155868E-1	7.926713E-1	8.219635E-1	8.398116E-1	8.379074E-1	8.526209E-1	8.465972E-1	8.276276E-1	8.451756E-1	7.978581E-1	8.316328E-1	8.023303E-1	8.131655E-1	7.967237E-1	8.658940E-1	8.525539E-1	8.616442E-1	8.047584E-1	8.455598E-1	8.369128E-1	7.971887E-1	7.915548E-1	8.129097E-1	8.345430E-1	8.018035E-1	8.396720E-1	8.457594E-1	8.412603E-1	8.764278E-1	8.064703E-1	8.136687E-1	7.774202E-1	7.961440E-1	8.538024E-1	8.321573E-1	8.134202E-1	8.202426E-1	8.184756E-1	8.090611E-1	8.195334E-1	8.292044E-1	8.092262E-1	8.125787E-1	8.213363E-1	8.297308E-1	8.244702E-1	8.254341E-1	8.020294E-1	8.331734E-1	8.120449E-1	7.949764E-1	8.096710E-1	8.395839E-1	8.691630E-1	8.445696E-1	8.310962E-1	8.313128E-1	8.228921E-1	8.267122E-1	8.005509E-1	8.656970E-1	8.603774E-1	8.218448E-1	8.297147E-1	8.034662E-1	8.723932E-1	8.181534E-1	8.355791E-1	7.529435E-1	8.243283E-1	7.629209E-1	8.149338E-1
2.975020E+2	8.864102E-1	8.443973E-1	8.902122E-1	8.929678E-1	8.527068E-1	9.134715E-1	8.296111E-1	9.051129E-1	9.180020E-1	8.680036E-1	8.990021E-1	8.612083E-1	8.950679E-1	8.026008E-1	9.029123E-1	8.794901E-1	8.951206E-1	8.148128E-1	9.207531E-1	9.067334E-1	8.862223E-1	8.835754E-1	9.332318E-1	8.899070E-1	9.016486E-1	8.401273E-1	8.820266E-1	8.785927E-1	9.574520E-1	8.427618E-1	8.855505E-1	9.173980E-1	9.478628E-1	8.084193E-1	8.814607E-1	9.052289E-1	8.821233E-1	8.566812E-1	8.785482E-1	8.856506E-1	9.124890E-1	8.263542E-1	8.830391E-1	8.789080E-1	9.276901E-1	7.786882E-1	9.000461E-1	9.001182E-1	9.334172E-1	8.395067E-1	8.920716E-1	8.806781E-1	9.092645E-1	9.090768E-1	8.874376E-1	8.771154E-1	9.007448E-1	8.814219E-1	8.626873E-1	9.014128E-1	9.138781E-1	9.145156E-1	9.217588E-1	8.859889E-1	9.131182E-1	8.857010E-1	8.651386E-1	8.956324E-1	9.105615E-1	8.920163E-1	8.992839E-1	9.204681E-1	8.717803E-1	8.881014E-1	9.494330E-1	9.224683E-1	9.306179E-1	8.901739E-1	8.720240E-1	8.805436E-1	8.794892E-1	9.267442E-1	8.890951E-1	8.866881E-1	9.096143E-1	9.000580E-1	8.756729E-1	8.695787E-1	9.352669E-1	8.619351E-1	8.670015E-1	8.985154E-1	9.171048E-1	9.331600E-1	8.652917E-1	9.286345E-1	8.597259E-1	9.350499E-1	8.818815E-1	9.057056E-1	9.314337E-1	8.929276E-1	9.218869E-1	9.213384E-1	9.041010E-1	9.224612E-1	8.931622E-1	9.041010E-1	8.951755E-1	8.971576E-1	8.860958E-1	8.594392E-1	8.927938E-1	8.656986E-1	8.587198E-1	9.273136E-1	8.790716E-1	9.251587E-1	8.987805E-1	9.011903E-1	9.036143E-1	8.702724E-1	8.702168E-1	9.155437E-1	9.402423E-1	9.216636E-1	9.127470E-1	9.100252E-1	8.518954E-1	8.700052E-1	8.613542E-1	8.758763E-1	9.215620E-1	8.960355E-1	8.556779E-1	8.781410E-1	8.966805E-1	9.057473E-1	9.400240E-1	9.143955E-1	9.055373E-1	9.103095E-1	8.758897E-1	8.534227E-1	8.653641E-1	8.536915E-1	9.130654E-1	9.030574E-1	9.240376E-1	8.988987E-1	8.654375E-1	8.934664E-1	8.830628E-1	8.889059E-1	8.746656E-1	9.163387E-1	9.266163E-1	8.871275E-1	8.811793E-1	8.741464E-1	8.789470E-1	8.960634E-1	9.145719E-1	8.728950E-1	8.910025E-1	9.119982E-1	9.023223E-1	9.434358E-1	9.425453E-1	8.759436E-1	8.542059E-1	8.949875E-1
2.980020E+2	9.553107E-1	9.831860E-1	9.613825E-1	9.911679E-1	9.717523E-1	9.700126E-1	9.478209E-1	9.558264E-1	9.877758E-1	9.208994E-1	9.750583E-1	9.275001E-1	9.777498E-1	8.802197E-1	9.904347E-1	9.538849E-1	9.838400E-1	9.111911E-1	9.613166E-1	1.006301E+0	9.504517E-1	9.664104E-1	1.001211E+0	1.010104E+0	9.967180E-1	9.457413E-1	9.770253E-1	9.528087E-1	9.776692E-1	8.717721E-1	9.875945E-1	9.534109E-1	9.877520E-1	8.842362E-1	9.751276E-1	9.673203E-1	9.588976E-1	9.442497E-1	9.781297E-1	9.336560E-1	9.623246E-1	9.478526E-1	9.748426E-1	9.325346E-1	9.696281E-1	9.128607E-1	9.714416E-1	9.869485E-1	9.929966E-1	9.160322E-1	9.637146E-1	9.696358E-1	9.407224E-1	9.708601E-1	9.701213E-1	9.695723E-1	1.000395E+0	9.626683E-1	9.490758E-1	9.775988E-1	9.937707E-1	9.240887E-1	9.587578E-1	9.756603E-1	9.645794E-1	9.301506E-1	9.873248E-1	9.529470E-1	1.002269E+0	9.795586E-1	9.736213E-1	9.918309E-1	9.802819E-1	9.450251E-1	9.844102E-1	1.001399E+0	9.618540E-1	9.649624E-1	9.906643E-1	9.957334E-1	9.719525E-1	9.876985E-1	9.751859E-1	9.575763E-1	9.793654E-1	9.747442E-1	9.850925E-1	9.727343E-1	9.627681E-1	9.752880E-1	9.756532E-1	9.896051E-1	9.737070E-1	1.000215E+0	9.502284E-1	9.893816E-1	1.000104E+0	9.528363E-1	9.751326E-1	9.932727E-1	9.432068E-1	9.512051E-1	9.564756E-1	9.835954E-1	9.557638E-1	9.532568E-1	9.695496E-1	9.409421E-1	9.793850E-1	9.835753E-1	9.721985E-1	9.597661E-1	9.991259E-1	9.631758E-1	9.933771E-1	9.889767E-1	9.608846E-1	9.713927E-1	9.941757E-1	9.668756E-1	9.814257E-1	1.000420E+0	1.005619E+0	9.490236E-1	9.850606E-1	9.359875E-1	9.780463E-1	9.865379E-1	9.477409E-1	9.852685E-1	9.736445E-1	9.415126E-1	9.750190E-1	9.820644E-1	9.878638E-1	9.960241E-1	9.659362E-1	9.592736E-1	1.020206E+0	9.663982E-1	9.849070E-1	9.717413E-1	9.773963E-1	9.771833E-1	9.862281E-1	1.041111E+0	9.641349E-1	9.820027E-1	9.626541E-1	9.437888E-1	9.853206E-1	9.808859E-1	9.551478E-1	9.614745E-1	9.921365E-1	9.569839E-1	1.022396E+0	9.850114E-1	9.835590E-1	9.724386E-1	9.735939E-1	9.880673E-1	9.594392E-1	1.012954E+0	9.851282E-1	9.878287E-1	9.650455E-1	9.789085E-1	9.917009E-1	1.023544E+0	9.613688E-1	9.067608E-1
2.985020E+2	1.002318E+0	9.797040E-1	9.910883E-1	1.000465E+0	1.057505E+0	1.023525E+0	1.000417E+0	1.003223E+0	1.022934E+0	9.296342E-1	9.879208E-1	1.042195E+0	9.820790E-1	8.753684E-1	9.909128E-1	1.008080E+0	9.907057E-1	8.910069E-1	1.027108E+0	1.015301E+0	1.033515E+0	9.796097E-1	1.016574E+0	9.922485E-1	9.887956E-1	9.452409E-1	9.702405E-1	1.009622E+0	1.013049E+0	9.336618E-1	1.025111E+0	1.011305E+0	9.815720E-1	9.809673E-1	9.841243E-1	1.040850E+0	1.016010E+0	9.887224E-1	9.869710E-1	1.025827E+0	1.017642E+0	9.580668E-1	1.022013E+0	1.021335E+0	1.002737E+0	9.172516E-1	1.022014E+0	1.036566E+0	1.009199E+0	9.563912E-1	1.000309E+0	9.945439E-1	9.977389E-1	9.625612E-1	9.837450E-1	9.994127E-1	9.693161E-1	9.930061E-1	1.029213E+0	9.866959E-1	1.001896E+0	9.877471E-1	1.020240E+0	1.012613E+0	1.042004E+0	9.910044E-1	1.017015E+0	1.041376E+0	9.748512E-1	9.791134E-1	1.006254E+0	1.007793E+0	1.004277E+0	9.870769E-1	1.014890E+0	9.934058E-1	9.964027E-1	1.007991E+0	9.906637E-1	1.000474E+0	1.026404E+0	1.024271E+0	9.832882E-1	1.021322E+0	9.997094E-1	1.019949E+0	1.024750E+0	1.043624E+0	1.018299E+0	1.006984E+0	1.030832E+0	1.013717E+0	9.960747E-1	1.006115E+0	9.891801E-1	1.014733E+0	1.025153E+0	1.007918E+0	1.003285E+0	1.022849E+0	1.003485E+0	1.030719E+0	1.010281E+0	1.010277E+0	1.020880E+0	1.024196E+0	1.004081E+0	9.922968E-1	1.000878E+0	9.953843E-1	9.887963E-1	1.009158E+0	9.913577E-1	9.740064E-1	1.049669E+0	1.040272E+0	9.831533E-1	1.013292E+0	1.025807E+0	9.710983E-1	1.020582E+0	9.621104E-1	9.752790E-1	1.049464E+0	1.007470E+0	1.026870E+0	9.583441E-1	9.797578E-1	1.061844E+0	1.009446E+0	1.045942E+0	9.930845E-1	1.025906E+0	1.013348E+0	1.000564E+0	9.927885E-1	1.002360E+0	1.023272E+0	1.006308E+0	9.772562E-1	1.034350E+0	1.007483E+0	1.000942E+0	9.873693E-1	9.963401E-1	9.735996E-1	1.015205E+0	1.027272E+0	9.853708E-1	1.036010E+0	1.025934E+0	9.944732E-1	9.694499E-1	1.021237E+0	9.688361E-1	1.011742E+0	9.918994E-1	9.758353E-1	9.770025E-1	9.991111E-1	1.016184E+0	9.997766E-1	1.021656E+0	1.003543E+0	1.017602E+0	1.012461E+0	1.001502E+0	9.750732E-1	9.853170E-1	9.864170E-1	9.851823E-1	1.040969E+0
2.990020E+2	1.029364E+0	9.876630E-1	1.002228E+0	9.702497E-1	1.003027E+0	1.021001E+0	1.021247E+0	1.023603E+0	1.009411E+0	1.032999E+0	1.000783E+0	9.843215E-1	1.018874E+0	1.066771E+0	1.011957E+0	1.036163E+0	1.020279E+0	1.059038E+0	1.007816E+0	1.019801E+0	9.929493E-1	1.012835E+0	1.011455E+0	9.709083E-1	1.031237E+0	9.467428E-1	1.033735E+0	1.028049E+0	9.739930E-1	9.650904E-1	9.750891E-1	1.030452E+0	1.017529E+0	9.522095E-1	1.013230E+0	9.918301E-1	1.007116E+0	9.960568E-1	1.029780E+0	1.035429E+0	9.942189E-1	9.489279E-1	1.015419E+0	1.014993E+0	1.049972E+0	9.650661E-1	9.793746E-1	9.837127E-1	9.956101E-1	9.223219E-1	9.838155E-1	1.008777E+0	1.021823E+0	9.773150E-1	9.954898E-1	1.004305E+0	1.054659E+0	9.852933E-1	1.004206E+0	1.012281E+0	1.001445E+0	9.729080E-1	1.020240E+0	9.869923E-1	9.882236E-1	9.962960E-1	9.884667E-1	1.034280E+0	9.989601E-1	1.017330E+0	1.002629E+0	9.974645E-1	9.917585E-1	1.015795E+0	1.000401E+0	1.029874E+0	9.987696E-1	1.009528E+0	1.022755E+0	1.030812E+0	1.039246E+0	9.860360E-1	1.011648E+0	1.021871E+0	1.017147E+0	1.049922E+0	9.975154E-1	1.028177E+0	9.976732E-1	1.006984E+0	9.927184E-1	1.036757E+0	1.009311E+0	9.910953E-1	1.007574E+0	9.678568E-1	9.849706E-1	1.018246E+0	1.006803E+0	9.776150E-1	1.068000E+0	1.014915E+0	1.010760E+0	9.939721E-1	9.842860E-1	9.928512E-1	1.034950E+0	9.828077E-1	1.018860E+0	1.023295E+0	1.020436E+0	1.012245E+0	1.010293E+0	1.020749E+0	9.624727E-1	1.006439E+0	1.029627E+0	1.010403E+0	9.976901E-1	1.035377E+0	1.014558E+0	9.899242E-1	9.808978E-1	9.787238E-1	9.581700E-1	1.025388E+0	1.020828E+0	1.020920E+0	1.004792E+0	9.976387E-1	9.818492E-1	1.027661E+0	9.667949E-1	9.914491E-1	1.002917E+0	9.608905E-1	1.023393E+0	9.842911E-1	9.715623E-1	1.022972E+0	1.000955E+0	1.038200E+0	9.951864E-1	1.027095E+0	1.010305E+0	9.816611E-1	1.037838E+0	1.010158E+0	1.026260E+0	1.017468E+0	9.818954E-1	1.011233E+0	1.053549E+0	9.892213E-1	1.000874E+0	9.778704E-1	1.015249E+0	9.681873E-1	9.845674E-1	1.015904E+0	9.901569E-1	1.009257E+0	1.001316E+0	9.974538E-1	9.804218E-1	1.011012E+0	1.026698E+0	1.006232E+0	1.008937E+0	9.882279E-1	9.970895E-1	9.821062E-1
2.995060E+2	9.997424E-1	1.009054E+0	1.024508E+0	1.020221E+0	9.702387E-1	9.750611E-1	9.894807E-1	9.634103E-1	9.774991E-1	1.031058E+0	9.806502E-1	1.020098E+0	9.980941E-1	1.052216E+0	9.631737E-1	1.013500E+0	9.537388E-1	1.037845E+0	9.519178E-1	9.494853E-1	1.016613E+0	9.937190E-1	9.756022E-1	9.774426E-1	9.537100E-1	1.048853E+0	1.015316E+0	9.886371E-1	9.680200E-1	1.073397E+0	9.625838E-1	9.579695E-1	9.686501E-1	1.071947E+0	9.883580E-1	9.662306E-1	1.001498E+0	1.021272E+0	9.888322E-1	9.898224E-1	9.967110E-1	1.019891E+0	9.809289E-1	9.901970E-1	9.749256E-1	9.928770E-1	9.788788E-1	9.621401E-1	9.689558E-1	1.040254E+0	1.026595E+0	9.844621E-1	9.977392E-1	1.005901E+0	1.000188E+0	9.959890E-1	9.629028E-1	9.770662E-1	9.996591E-1	1.017966E+0	9.797782E-1	9.614224E-1	9.854184E-1	9.830512E-1	9.650426E-1	9.899458E-1	9.536373E-1	9.453048E-1	9.838331E-1	9.715599E-1	9.704467E-1	9.514546E-1	9.599379E-1	9.824613E-1	9.944034E-1	9.589360E-1	1.000663E+0	9.880132E-1	9.736464E-1	9.644476E-1	9.544876E-1	9.749538E-1	9.675894E-1	9.548293E-1	9.909905E-1	9.604949E-1	9.440008E-1	9.581923E-1	1.001903E+0	9.785111E-1	9.711019E-1	9.687078E-1	1.010682E+0	9.637368E-1	9.972949E-1	9.688137E-1	9.714022E-1	9.694759E-1	9.651627E-1	9.567380E-1	1.003956E+0	9.645396E-1	9.617598E-1	9.653138E-1	9.902055E-1	9.417084E-1	9.622248E-1	1.021323E+0	9.868430E-1	9.540535E-1	9.623432E-1	9.803461E-1	9.806759E-1	9.831267E-1	9.613688E-1	9.813372E-1	9.749233E-1	9.776542E-1	9.535076E-1	9.954960E-1	9.462853E-1	9.998949E-1	9.752794E-1	9.992441E-1	9.880482E-1	9.908130E-1	9.786087E-1	1.005423E+0	9.916706E-1	9.852689E-1	9.818487E-1	1.003634E+0	9.894116E-1	9.570372E-1	9.939787E-1	9.816933E-1	1.000308E+0	9.854549E-1	9.763729E-1	9.835421E-1	9.510769E-1	9.605717E-1	1.004081E+0	9.883880E-1	9.963407E-1	9.922414E-1	1.012303E+0	9.726176E-1	1.001727E+0	9.447650E-1	9.955961E-1	9.836034E-1	9.831801E-1	9.806837E-1	9.955342E-1	1.001580E+0	9.933288E-1	1.010502E+0	1.041053E+0	9.492241E-1	9.896835E-1	9.942008E-1	9.743957E-1	9.819525E-1	9.846577E-1	9.559512E-1	9.537879E-1	9.616509E-1	9.438217E-1	9.556298E-1	9.904746E-1	1.012714E+0
3.000040E+2	1.013265E+0	1.040393E+0	1.020794E+0	1.017897E+0	9.974774E-1	1.010400E+0	1.041035E+0	1.053937E+0	1.002380E+0	1.085409E+0	1.055588E+0	1.025885E+0	1.023203E+0	1.125425E+0	1.043522E+0	9.883722E-1	1.051437E+0	1.100920E+0	1.051842E+0	1.009113E+0	1.006471E+0	1.047426E+0	9.951576E-1	1.049297E+0	1.029539E+0	1.113422E+0	1.003684E+0	1.020883E+0	1.067269E+0	1.156079E+0	1.049622E+0	1.046863E+0	1.044497E+0	1.110640E+0	1.039160E+0	1.033769E+0	1.016478E+0	1.049699E+0	1.016287E+0	1.015266E+0	1.029104E+0	1.125261E+0	1.006796E+0	1.040941E+0	1.002737E+0	1.211945E+0	1.048292E+0	1.030633E+0	1.033239E+0	1.165000E+0	1.025565E+0	1.042581E+0	1.041976E+0	1.083362E+0	1.050456E+0	1.030721E+0	1.012728E+0	1.081966E+0	1.017846E+0	1.005458E+0	1.023110E+0	1.153834E+0	1.015343E+0	1.041683E+0	1.040150E+0	1.092603E+0	1.053556E+0	1.026092E+0	1.040087E+0	1.052438E+0	1.047049E+0	1.051457E+0	1.063745E+0	1.069642E+0	1.005896E+0	1.016386E+0	1.042311E+0	1.029505E+0	1.022271E+0	1.008533E+0	1.007911E+0	1.027041E+0	1.062289E+0	1.044402E+0	1.012788E+0	9.948903E-1	1.048641E+0	9.972723E-1	1.019357E+0	1.032233E+0	1.029695E+0	9.912128E-1	1.010225E+0	1.038838E+0	1.055722E+0	1.059215E+0	1.018370E+0	1.051524E+0	1.049617E+0	1.049525E+0	9.813518E-1	1.038621E+0	1.060724E+0	1.046841E+0	1.048864E+0	1.087987E+0	1.029195E+0	1.062630E+0	1.014034E+0	1.043692E+0	1.056226E+0	1.038485E+0	1.018547E+0	1.058942E+0	1.033113E+0	9.829746E-1	1.051412E+0	1.027259E+0	1.028820E+0	1.031153E+0	1.037148E+0	1.047651E+0	1.062925E+0	1.023544E+0	1.061252E+0	1.020942E+0	1.064173E+0	1.007361E+0	9.939526E-1	1.022378E+0	1.016716E+0	1.034108E+0	1.042868E+0	1.056102E+0	1.014677E+0	1.068604E+0	1.008003E+0	1.047708E+0	1.025551E+0	1.049831E+0	1.028711E+0	1.022004E+0	1.022394E+0	1.019965E+0	1.010786E+0	1.011387E+0	9.705188E-1	1.007950E+0	1.023988E+0	1.057968E+0	1.011254E+0	1.029804E+0	1.038673E+0	1.047383E+0	1.042619E+0	1.051823E+0	9.771271E-1	1.060464E+0	1.013818E+0	1.063322E+0	1.030381E+0	1.008699E+0	1.043192E+0	1.004097E+0	1.032191E+0	1.032747E+0	1.052967E+0	1.078136E+0	1.070223E+0	1.046181E+0	1.065885E+0	1.057450E+0
