Photon Energy (eV)	#1	#2	#3	#4	#5	#6	#7	#8	#9	#10	#11	#12	#13	#14	#15	#16	#17	#18	#19	#20	#21	#22	#23	#24	#25	#26	#27	#28	#29	#30	#31	#32	#33	#34	#35	#36	#37	#38	#39	#40	#41	#42	#43	#44	#45	#46	#47	#48	#49	#50	#51	#52	#53	#54	#55	#56	#57	#58	#59	#60	#61	#62	#63	#64	#65	#66	#67	#68	#69	#70	#71	#72	#73	#74	#75	#76	#77	#78	#79	#80	#81	#82	#83	#84	#85	#86	#87	#88	#89	#90	#91	#92	#93	#94	#95	#96	#97	#98	#99	#100	#101	#102	#103	#104	#105	#106	#107	#108	#109	#110	#111	#112	#113	#114	#115	#116	#117	#118	#119	#120	#121	#122	#123	#124	#125	#126	#127	#128	#129	#130	#131	#132	#133	#134	#135	#136	#137	#138	#139	#140	#141	#142	#143	#144	#145	#146	#147	#148	#149	#150	#151	#152	#153	#154	#155	#156	#157	#158	#159	#160	#161	#162	#163	#164	#165	#166	#167	#168	#169	#170	#171	
2.790030E+2	8.774938E-3	-2.617028E-4	-7.047311E-4	-6.664112E-3	2.569197E-3	-1.291107E-2	-2.740819E-3	-1.415984E-2	1.251843E-3	1.843929E-3	-1.983964E-3	8.853966E-3	-1.801306E-3	-7.886750E-3	-1.539568E-2	-7.258011E-3	-3.576990E-3	4.189756E-3	-6.973897E-3	-1.681810E-2	-2.060233E-3	-2.906590E-4	-9.408381E-3	-1.130696E-2	1.050993E-2	-3.508936E-3	-2.246108E-3	-3.530261E-3	-2.301001E-2	5.461769E-3	-1.221050E-2	-6.808891E-3	-2.497196E-3	-2.020949E-3	-1.568506E-2	-1.401568E-2	-4.605940E-3	8.508719E-4	-6.750115E-3	-4.898735E-3	-1.122149E-3	-9.041929E-3	-7.666937E-3	1.110806E-3	5.800478E-3	1.643624E-3	-9.724053E-3	1.138108E-3	-1.387736E-2	-1.331443E-2	-6.657938E-3	-1.941308E-2	-3.473484E-3	7.142109E-4	-1.523494E-2	3.082195E-3	-3.813688E-3	-7.771515E-3	-1.339836E-2	-3.324461E-3	1.482016E-2	-4.413749E-3	-8.931288E-3	1.534841E-4	-6.620191E-4	-1.588697E-3	1.361356E-3	8.810240E-4	5.812236E-4	-4.192012E-3	-3.055524E-3	-3.210423E-3	2.358064E-3	-5.627070E-4	3.456515E-4	-2.030149E-2	-1.712495E-3	-4.551855E-3	-7.361620E-3	-9.872937E-3	-6.872713E-3	-1.187198E-3	-5.772758E-3	3.666004E-3	-3.785434E-3	8.140714E-3	-9.670355E-3	-1.189063E-2	-8.908908E-3	-1.457751E-2	1.173369E-3	-1.062644E-2	-5.658459E-3	-2.395031E-3	-1.374421E-2	-4.076346E-3	7.026423E-4	-1.673940E-2	-1.449597E-2	-1.286376E-2	-8.233002E-3	-6.975115E-3	-8.738692E-3	-1.526349E-3	-1.094239E-2	-6.939769E-3	-7.419887E-3	-3.419041E-3	7.859834E-3	-7.651586E-3	-7.721667E-3	-1.344869E-2	1.257499E-2	5.230484E-3	1.903591E-3	-1.130637E-2	-1.022629E-2	-8.746037E-3	2.735735E-3	-1.429575E-2	-1.147903E-2	-1.004896E-2	4.179309E-3	-7.782693E-3	-4.178814E-3	-2.309593E-3	6.168130E-3	-2.103654E-2	-8.591039E-3	9.789374E-3	-8.305886E-3	-8.350434E-3	1.312861E-2	-4.013247E-3	-2.334342E-2	-3.451446E-3	-5.777444E-3	-1.080436E-2	-6.585102E-6	1.777922E-4	-1.819716E-2	-1.930518E-2	-7.119021E-3	-5.713444E-3	-3.513786E-3	-3.843134E-3	-1.962784E-3	-1.104289E-2	-6.352129E-3	5.214134E-3	1.790602E-2	-2.265250E-2	1.364716E-2	1.755224E-3	-1.424792E-2	-6.302959E-3	5.408361E-3	-3.440484E-3	5.847812E-3	-8.918853E-4	-8.546581E-3	-3.150813E-4	9.521705E-4	-5.922770E-3	-1.205145E-2	3.425664E-3	-1.462771E-2	-3.312332E-3	2.637007E-3	-1.633938E-2	4.820306E-3
2.795020E+2	-8.816902E-3	3.453802E-3	-1.767995E-2	-1.679369E-3	4.954186E-3	4.923805E-3	6.541565E-5	-1.470053E-3	-1.448953E-3	4.150156E-3	5.806111E-3	-1.098976E-2	-1.051747E-2	4.643811E-4	-2.783234E-3	7.359853E-3	1.332784E-2	-2.137541E-3	7.711350E-4	5.747318E-3	-2.206767E-3	6.672676E-3	-3.263527E-3	3.613517E-3	-6.952125E-3	4.310260E-3	-1.133850E-3	-5.233901E-3	-6.147807E-3	-1.716892E-3	2.491107E-3	6.343601E-4	4.056229E-3	-7.153446E-3	-5.861121E-4	2.981805E-3	-4.747238E-3	-1.738109E-2	-5.568035E-3	-2.169909E-3	3.881288E-3	-5.019524E-3	2.045731E-3	5.401184E-3	1.558733E-3	-2.414399E-3	1.467655E-3	9.598489E-4	1.236819E-3	-5.008686E-4	9.155460E-3	-1.339384E-2	-7.364323E-3	5.554522E-4	2.142399E-4	-1.115004E-2	-6.534397E-3	-3.620166E-3	2.911775E-3	-3.437435E-3	1.466409E-3	-1.336090E-2	1.850138E-3	1.250882E-3	-8.201019E-4	3.936289E-3	7.709377E-3	-1.293611E-2	-7.978549E-3	2.551237E-3	2.109639E-3	-1.844954E-3	-8.595071E-3	-4.870356E-3	2.504723E-4	4.783030E-3	-9.186239E-3	1.581490E-2	-3.373602E-3	1.093478E-2	3.132267E-3	8.491136E-3	-1.155862E-2	-5.015114E-3	-3.996898E-3	-4.393143E-3	-9.728356E-3	5.972646E-3	-4.628965E-3	-8.905829E-3	-1.658292E-2	-2.927838E-3	3.857416E-3	3.533501E-5	-5.136572E-3	-1.340765E-2	1.869819E-3	7.080182E-4	-4.742799E-3	5.540746E-3	-3.501465E-3	-1.073959E-2	1.895729E-2	-1.022723E-2	-5.306930E-4	-5.386547E-4	-3.151856E-3	3.788053E-3	-7.096496E-3	-7.781515E-3	6.145888E-3	-1.258633E-3	-1.951710E-3	3.774823E-3	-1.313721E-2	-7.026478E-3	-5.260071E-3	-1.001468E-2	-6.312108E-3	-5.626241E-3	1.651408E-4	-6.244870E-3	-4.359575E-3	1.467026E-4	1.521967E-3	-7.350184E-3	-5.267535E-3	-3.352092E-3	-1.263030E-3	-1.679814E-2	-3.958982E-3	3.069656E-3	-4.734017E-4	-6.533779E-3	-4.522866E-3	-1.205557E-2	-1.848263E-3	7.912196E-3	9.945942E-3	-3.158866E-3	-1.112199E-2	-3.125394E-3	1.078926E-2	-3.299097E-3	1.236709E-3	1.068885E-2	-3.501553E-3	2.991647E-3	5.234577E-3	-3.549155E-3	3.767401E-4	-1.035566E-2	1.039309E-2	-3.525617E-3	-7.789566E-3	-2.429684E-4	-5.174411E-4	-1.144416E-2	-1.372620E-2	-9.126902E-3	-5.728113E-3	-1.732797E-3	-2.189900E-3	1.421340E-3	-7.237801E-3	5.611676E-3	3.301575E-3	2.455952E-3	4.894518E-3	6.589225E-3	-3.195298E-3
2.800030E+2	6.898800E-3	2.045241E-3	-1.151241E-2	-7.267016E-3	-2.590323E-5	-1.093196E-3	-1.006484E-2	1.413456E-4	3.612913E-3	-6.984711E-3	4.309017E-3	-1.510596E-2	7.733078E-3	-2.003530E-3	1.273268E-3	-2.499841E-3	-1.195887E-3	7.636869E-3	7.962578E-3	5.733748E-3	-1.104140E-3	6.525835E-4	8.132557E-3	-4.915026E-4	-3.921800E-4	-1.036964E-2	8.962758E-3	2.397816E-3	1.199941E-2	-3.198537E-3	-8.073397E-3	-4.476841E-3	2.630569E-3	5.204842E-3	-4.810300E-3	2.883919E-3	-1.481917E-3	-3.915834E-3	2.308342E-3	-6.605503E-3	-5.224720E-3	-3.721401E-3	3.342279E-3	-5.137245E-3	-3.936169E-3	2.689856E-3	1.018044E-2	7.158726E-3	-1.128153E-2	-1.601096E-2	-6.776154E-3	3.334309E-3	6.314404E-3	4.489787E-4	1.547451E-3	4.240743E-3	-7.839279E-3	3.531286E-3	9.755090E-3	-1.238000E-2	-1.303582E-2	-9.029011E-3	-7.847164E-3	-1.274324E-2	1.005337E-2	-4.182909E-4	-5.398623E-3	8.162005E-3	5.164785E-3	-3.289163E-3	-1.648082E-2	-2.155413E-2	4.768941E-3	1.300411E-2	4.559914E-3	1.365733E-2	1.049365E-3	-7.291378E-3	7.324502E-3	-7.690708E-3	4.438571E-3	-1.515328E-3	5.251678E-3	3.345602E-3	-7.916628E-3	-4.474958E-3	-6.828317E-3	1.630596E-3	1.183450E-3	-6.098148E-3	-5.801886E-3	-6.193037E-3	2.321317E-3	-5.335079E-3	3.469971E-3	-9.579673E-3	1.339146E-2	-2.103561E-3	4.978881E-3	-1.927960E-2	1.246631E-3	4.831413E-3	-3.387188E-3	-4.706850E-3	-2.194283E-3	-8.508178E-3	4.126223E-3	-7.729847E-4	-1.312578E-2	-2.984021E-3	-1.497708E-2	4.787484E-3	-3.643215E-3	-1.148609E-2	6.489195E-3	9.033851E-3	-6.623101E-3	-8.943726E-3	-7.884259E-3	3.061220E-3	3.006791E-3	2.174045E-4	-1.699692E-3	-6.418581E-3	5.798497E-3	1.458140E-2	-1.614945E-3	7.977046E-3	-7.349405E-3	-3.071244E-3	-1.060302E-3	4.399722E-3	-5.602804E-4	7.627127E-3	-4.618152E-3	-9.328738E-3	-8.745443E-3	-1.371696E-2	-4.603595E-3	2.960723E-3	-5.457988E-3	1.179221E-2	-7.331282E-3	1.838413E-3	-2.098101E-3	-4.102034E-3	1.136194E-2	-4.828108E-3	-1.108724E-4	3.586485E-5	2.534511E-4	2.990636E-2	-1.793382E-3	2.084492E-4	-1.306011E-3	-6.570746E-3	8.032414E-4	6.777072E-3	-1.016688E-2	-1.166189E-3	-5.832356E-3	-3.081987E-3	1.383906E-2	-7.675432E-3	1.303092E-3	-4.225159E-4	-4.325461E-3	1.227343E-2	-9.798844E-3	2.619603E-2	-2.658897E-2
2.805050E+2	-1.049909E-2	-4.575116E-3	-1.634765E-3	-4.358437E-3	-2.022852E-2	4.714268E-3	-3.681112E-3	1.607729E-3	-1.177318E-2	2.661473E-4	-4.673848E-3	7.210274E-3	-3.405895E-3	3.885429E-3	-1.264536E-3	-1.000500E-2	-2.666175E-3	5.005222E-3	-4.065027E-3	4.321796E-3	-8.228473E-3	-5.421102E-3	4.476237E-3	3.653489E-3	-1.856590E-3	-1.179504E-2	-1.031213E-2	-6.853062E-3	-5.069816E-3	-1.029050E-2	-9.080833E-4	-5.852415E-3	7.795537E-3	-3.635763E-3	-1.406579E-3	4.550521E-3	-4.953984E-4	4.971839E-3	-6.120573E-3	-5.029332E-3	-1.946092E-2	-5.201359E-3	5.248427E-3	-5.209712E-3	-3.732178E-5	-2.628850E-3	-1.337489E-3	-5.549567E-3	-4.509463E-3	-4.532118E-3	-3.926543E-3	-4.201370E-3	-1.002259E-2	-1.248469E-2	3.421021E-3	-1.109978E-2	1.144619E-3	-9.106899E-4	-3.208254E-3	-2.045775E-3	9.178690E-3	8.364997E-3	3.661502E-3	7.322213E-3	4.379801E-3	-6.240403E-3	-1.486769E-2	1.963687E-3	-3.373544E-3	-6.849944E-3	-7.151122E-3	1.055342E-3	5.773917E-4	7.294194E-3	6.374396E-3	2.357251E-4	6.784056E-3	-1.886777E-2	9.674893E-5	4.420459E-3	4.269622E-3	-1.022028E-2	-1.041558E-2	5.994900E-3	-2.980896E-3	-1.240643E-2	1.066846E-2	1.475092E-3	6.906353E-3	1.688841E-2	6.204416E-3	-1.102434E-2	-6.135561E-3	2.266440E-3	-3.849822E-4	9.815850E-3	5.272692E-5	4.467607E-3	-1.060083E-2	-9.255083E-4	8.388471E-3	-1.092061E-2	-2.125564E-3	2.168738E-3	-9.851063E-3	-9.931972E-3	-4.619957E-4	-1.123732E-2	-7.438501E-3	4.173430E-3	1.648535E-3	-7.640516E-3	5.691492E-3	-1.286087E-2	-1.909114E-3	-4.312044E-3	1.102822E-2	-3.379299E-3	1.542779E-2	4.348353E-3	-7.246309E-5	-9.076959E-3	-1.428665E-2	-1.225617E-4	8.529258E-3	-2.168557E-4	-1.046318E-2	-2.315320E-3	-1.544970E-3	5.539255E-3	3.253830E-3	2.790432E-3	-1.909185E-3	8.658531E-3	3.923258E-3	-5.257389E-3	1.280223E-2	9.134930E-4	1.251756E-2	-3.359781E-4	2.979432E-3	4.117661E-3	-2.319782E-3	4.142500E-4	1.400852E-2	-1.752379E-2	-6.466406E-3	-8.101397E-3	-1.196216E-2	-1.108176E-2	-1.708944E-2	-5.864535E-3	-1.943831E-3	-5.015656E-3	6.403081E-3	-8.280866E-3	-1.643546E-2	9.218794E-3	1.141089E-2	1.402602E-3	5.869776E-3	1.069816E-2	-8.325120E-3	-1.075139E-2	2.376441E-3	-1.002995E-2	1.048718E-2	4.183024E-3	4.607765E-3	-1.009854E-2	-3.507441E-3
2.810070E+2	-1.664183E-3	-8.254914E-3	1.844759E-2	-2.628153E-3	6.327493E-3	-5.810311E-3	8.600302E-3	-7.917510E-3	6.224043E-3	1.160675E-2	-3.258003E-3	1.027170E-2	4.679286E-4	5.309987E-3	3.423491E-3	4.945579E-3	1.700134E-4	2.778600E-3	3.214087E-3	-4.012223E-3	7.193707E-3	-8.755223E-3	9.252282E-3	-1.674797E-2	4.988551E-3	-2.319653E-3	2.942410E-3	-9.749207E-3	2.957267E-3	-3.457571E-4	7.161801E-3	4.446505E-3	4.028250E-3	4.048185E-3	8.394223E-3	-1.436776E-3	-9.153293E-3	1.429158E-2	5.461318E-3	-6.258312E-3	2.600953E-3	-2.236816E-3	-5.451865E-3	-7.993111E-3	4.234156E-3	1.771944E-4	-1.744531E-2	-1.551938E-3	-1.618138E-4	7.977688E-4	5.171640E-3	-2.314450E-3	-1.064582E-3	-1.111844E-2	-3.481275E-3	1.967239E-3	3.953006E-3	2.178560E-3	-3.305596E-4	-3.264251E-3	-5.074067E-3	8.647582E-3	8.479270E-3	-2.507956E-3	-7.715649E-3	3.920185E-3	-6.717455E-3	3.893372E-3	-3.129814E-3	-1.009100E-2	9.051553E-3	-2.842676E-3	8.869589E-4	-1.029541E-2	3.974786E-3	9.770768E-3	1.147168E-3	8.204637E-3	-7.367485E-3	4.808263E-3	1.638356E-3	2.283874E-3	7.602853E-3	6.410291E-3	6.157028E-3	-9.856678E-4	-1.059789E-2	-3.652983E-3	-1.687852E-4	-1.325258E-2	-2.384320E-3	3.310264E-3	9.358071E-3	2.564286E-3	-1.864056E-3	6.223743E-3	1.786942E-3	-1.551604E-2	1.348229E-2	-2.214126E-3	1.357029E-2	1.461438E-2	-3.322766E-3	-1.453659E-2	2.386422E-3	1.523739E-2	2.719688E-3	-9.554023E-3	-1.309920E-2	-1.023149E-2	-1.071828E-2	1.212960E-3	-1.628530E-2	-8.883205E-3	1.807412E-2	9.127529E-3	1.124453E-3	2.750003E-4	-3.405070E-3	-2.722467E-3	3.120349E-3	2.921996E-3	-8.545085E-3	3.346573E-3	-4.389305E-3	-8.575292E-3	-1.276203E-2	1.190497E-2	1.685152E-3	-5.490259E-3	8.014417E-3	1.598794E-3	-1.386384E-2	-4.131672E-3	2.718664E-3	1.182166E-2	-5.953821E-3	-2.872076E-3	-1.321038E-2	-1.099344E-2	6.110078E-3	4.409997E-3	-2.103257E-3	-5.767606E-3	-1.674995E-2	-2.683316E-3	-4.885770E-3	-2.737449E-6	-3.924626E-3	-3.536335E-3	8.329507E-3	1.141843E-2	-3.228565E-3	-3.516918E-3	-1.174235E-2	-3.359134E-3	-1.978387E-3	-9.708316E-4	-6.451541E-3	-9.984473E-4	1.210288E-2	-4.272414E-3	-8.113240E-3	7.534749E-3	8.805872E-3	8.987380E-4	-5.758592E-3	-1.491931E-3	1.216738E-2	6.596248E-3	-1.877653E-2
2.815020E+2	2.556794E-3	5.798076E-3	-4.211387E-3	1.753980E-3	6.134998E-3	-3.565638E-3	-4.806786E-3	6.508090E-3	-6.650029E-3	3.310446E-4	3.741262E-3	1.286926E-2	3.963652E-3	1.536456E-3	9.927655E-3	3.536552E-3	-2.613595E-3	-8.433005E-3	-7.535158E-3	-5.552476E-3	3.512204E-3	5.935085E-4	1.226789E-3	2.330405E-3	-8.417375E-3	5.475333E-3	4.089075E-4	1.464927E-2	1.446652E-2	8.622183E-4	-3.063042E-3	1.056774E-2	-9.497852E-3	-7.294195E-3	5.751648E-3	-4.737277E-3	1.291945E-2	-5.485728E-4	-9.901765E-3	-2.060804E-3	1.657830E-2	-3.770035E-3	1.729538E-2	2.281838E-3	-1.335171E-3	3.900103E-3	1.238939E-3	3.286805E-3	2.430718E-3	-3.225079E-3	-5.026879E-3	5.183944E-3	1.126083E-2	6.322853E-3	-3.602973E-3	4.619173E-3	1.421081E-2	-2.290948E-3	-1.200855E-2	-3.412263E-3	1.373330E-3	4.065943E-3	2.347515E-3	-6.453013E-3	-2.360821E-3	9.102079E-4	-7.510363E-4	-8.407266E-3	-3.262388E-3	4.742104E-3	-8.661967E-4	6.268452E-3	-7.345277E-3	-1.316823E-2	-3.639693E-3	-6.816257E-3	2.467391E-3	4.194791E-3	-9.983134E-3	9.666194E-4	-1.428499E-3	3.394610E-3	-1.586106E-3	-7.080863E-4	2.211521E-3	1.569102E-2	1.119695E-2	-9.179107E-3	-6.227137E-3	8.417562E-3	1.428999E-2	9.438239E-3	-1.917702E-3	-4.056215E-3	6.070468E-3	4.758013E-3	-1.444663E-2	1.265566E-2	-1.597484E-3	2.378592E-3	-4.856348E-3	1.237795E-3	5.376578E-3	1.128751E-2	-9.758563E-3	-4.557694E-3	-1.625230E-3	-6.526644E-3	4.318366E-3	4.292825E-3	6.213107E-3	7.280477E-3	-3.723151E-3	-3.945907E-3	-2.133237E-2	3.169816E-3	6.069445E-3	6.976115E-3	5.424685E-3	4.602249E-3	-4.346118E-3	1.464805E-3	1.239699E-2	-8.041739E-3	-3.084672E-3	-1.347614E-3	6.344929E-3	4.148447E-3	5.987452E-3	1.191851E-2	-1.314578E-2	-8.647177E-3	-1.816327E-3	1.666390E-3	8.337741E-3	4.619833E-3	-6.718037E-4	-3.495263E-4	-1.805203E-3	-4.914761E-3	3.065901E-3	2.980660E-3	-3.523746E-3	6.940118E-3	-1.523253E-2	3.827017E-3	3.122222E-3	4.565217E-3	5.023824E-3	-2.448320E-3	-5.113768E-3	8.117678E-3	-1.690068E-2	2.707840E-3	2.094352E-2	4.262433E-3	7.852001E-3	4.110124E-3	-6.577328E-3	-7.852603E-3	2.980078E-3	1.937546E-3	-3.870437E-3	1.321428E-3	3.708483E-3	-4.491029E-4	7.585996E-3	-1.669378E-3	-2.578818E-3	-1.328590E-2	1.980286E-2
2.820040E+2	-1.799759E-4	-5.120382E-4	3.867256E-3	7.996955E-3	-3.759235E-3	8.542117E-3	4.971762E-3	-6.346872E-3	7.470753E-3	-1.188725E-2	2.709636E-3	-1.369028E-2	4.116357E-3	-4.382094E-3	7.880184E-3	1.230688E-3	-1.169831E-3	-1.201535E-2	3.199803E-3	1.638942E-3	1.330782E-3	5.526622E-3	-7.572370E-3	1.091127E-3	1.159081E-2	-3.674029E-3	-6.569820E-3	4.051058E-3	-2.283556E-3	6.583084E-3	2.678807E-3	-1.893178E-3	-8.051066E-3	-5.922591E-3	-2.780421E-4	4.768704E-3	5.328265E-3	6.394505E-3	8.969746E-3	1.264553E-2	1.160823E-2	1.019978E-2	-8.176393E-3	6.902748E-3	-2.558500E-3	-5.035516E-3	7.678169E-3	9.439204E-4	9.486822E-3	2.539795E-2	2.660308E-3	2.248495E-3	1.440363E-3	1.353882E-2	2.495635E-3	3.374931E-3	1.336049E-3	-4.987213E-3	1.254867E-2	1.012544E-2	-1.129825E-3	-1.338635E-2	-3.461023E-3	3.825822E-3	-2.225589E-3	-3.647121E-4	6.740884E-3	-6.811888E-4	1.131738E-2	9.543159E-3	-1.775372E-3	9.431628E-3	8.960848E-3	1.184516E-2	2.760485E-3	-3.721942E-3	-3.534457E-4	5.140158E-4	5.195049E-3	-1.319613E-3	1.848161E-4	1.097411E-3	7.409734E-3	-7.663740E-3	-5.248318E-3	-8.818181E-3	5.498450E-3	1.181756E-2	5.777171E-3	1.319010E-3	-7.959661E-3	1.589705E-2	-5.944213E-3	-2.602146E-3	7.462869E-3	-4.225988E-3	6.207435E-3	1.419083E-2	1.070589E-2	5.673105E-3	-7.139419E-3	2.618119E-3	-5.180042E-3	2.150385E-2	9.972511E-3	6.125780E-3	-5.190234E-4	1.294947E-2	4.504716E-3	1.178531E-2	1.424473E-2	5.008354E-3	-2.015220E-3	1.392281E-2	1.489847E-2	4.989383E-3	1.168655E-3	1.518885E-2	4.451665E-4	6.665668E-3	9.114160E-3	5.623990E-3	9.115141E-3	1.174360E-2	4.401467E-3	1.260765E-3	7.441333E-3	-1.982814E-3	1.214866E-2	8.222116E-4	-5.971059E-4	4.603751E-3	2.004525E-3	1.375480E-2	8.766793E-3	-1.900064E-3	1.451627E-2	1.335330E-2	2.982632E-3	1.265829E-2	-1.080721E-3	-5.733442E-4	-2.979193E-3	2.013706E-3	4.479028E-3	6.677504E-3	1.873417E-3	1.589194E-2	7.843295E-3	1.121757E-2	-1.953686E-3	-5.564605E-3	-2.214187E-4	3.312693E-4	-1.051905E-3	2.016852E-2	2.305197E-3	-1.143650E-2	8.792387E-3	9.787110E-3	-8.761486E-3	8.218705E-4	-2.267891E-3	9.037890E-3	5.122197E-3	3.302929E-3	-1.259928E-3	2.473478E-3	-9.743750E-3	3.310680E-3	3.556315E-2
2.825030E+2	2.929624E-3	2.306651E-3	1.342839E-2	1.284615E-2	4.027788E-3	5.200023E-3	7.656081E-3	2.163711E-2	1.312612E-3	6.739340E-4	-6.650209E-3	5.808059E-4	-5.563413E-4	3.076120E-3	-3.061151E-3	2.690181E-3	-2.275381E-3	2.975447E-3	3.426479E-3	8.941000E-3	1.562919E-3	1.021594E-3	-2.843587E-3	1.785789E-2	-9.471017E-3	2.188171E-2	7.947830E-3	4.268291E-3	7.087994E-3	2.644619E-3	1.192331E-2	3.382715E-3	1.535527E-3	1.677392E-2	8.620225E-3	5.004786E-3	2.236069E-3	-4.663293E-3	1.160108E-2	1.437706E-2	-8.860989E-3	1.879129E-2	-6.636624E-3	2.643492E-3	-3.726207E-3	1.667988E-3	7.941648E-3	-6.385904E-3	1.667581E-2	1.138773E-2	5.400105E-3	2.855599E-2	2.909382E-3	2.022819E-3	1.464084E-2	4.965544E-3	-2.457123E-3	1.387069E-2	3.730185E-3	1.773874E-2	-7.598885E-3	1.911148E-2	3.901050E-3	9.151808E-3	-6.489902E-4	-1.545789E-4	1.192319E-2	7.124473E-3	6.809037E-4	7.585622E-3	1.816784E-2	1.269676E-2	-1.611855E-3	-3.246758E-3	-1.462601E-2	2.392834E-3	-1.957995E-4	1.982665E-3	1.546954E-2	-2.246869E-3	-5.362420E-3	-2.344224E-3	9.068800E-3	-6.029856E-3	1.555962E-2	7.246648E-3	9.461057E-3	3.826828E-3	6.066820E-3	1.620908E-2	1.106102E-2	2.126113E-3	4.119132E-3	9.522410E-3	4.126513E-3	1.049205E-2	-9.564397E-3	2.336881E-3	2.270022E-3	2.169055E-2	5.248410E-4	5.333605E-3	-1.579616E-3	-3.963086E-3	2.091805E-2	9.113101E-3	6.332082E-3	1.477250E-2	2.407706E-2	8.397049E-3	5.164767E-3	4.058569E-3	9.352113E-3	1.424796E-2	-4.986685E-3	-3.675686E-3	2.718694E-3	8.643774E-3	-6.431941E-3	3.966969E-3	4.911665E-4	1.514259E-2	3.199558E-3	7.128696E-3	-8.598398E-3	3.957375E-3	1.015330E-2	4.656307E-3	-1.072818E-3	-2.709712E-3	1.579980E-2	5.352560E-4	3.489901E-3	-1.702815E-2	8.737985E-3	1.555172E-2	-4.321723E-3	5.563924E-3	-5.820374E-3	3.606237E-3	2.370244E-2	-2.966076E-4	1.458702E-2	3.573659E-3	1.787011E-2	6.958906E-3	4.589356E-4	5.263190E-4	4.248095E-3	4.148005E-3	-2.708823E-3	-5.005169E-3	4.762222E-5	7.055409E-3	8.791156E-3	3.257236E-4	2.562488E-3	7.185995E-3	1.087087E-2	8.846315E-3	7.915802E-3	-4.055297E-3	9.975355E-3	5.034184E-3	-2.026832E-3	-2.337436E-3	4.596939E-3	-1.491224E-2	-2.185257E-3	-2.968361E-3	-8.118076E-3
2.830040E+2	1.820034E-2	2.980501E-3	8.943357E-3	-4.937568E-3	2.175162E-3	1.200574E-2	2.070575E-2	1.261874E-2	-5.466685E-4	1.011574E-2	1.588167E-2	-1.274970E-3	8.828130E-3	2.090100E-2	2.140745E-2	8.392157E-3	1.167724E-2	4.870223E-3	1.248993E-2	1.245975E-2	4.618948E-3	5.566095E-4	2.185286E-2	1.452371E-2	1.803212E-2	5.223487E-3	9.921212E-3	9.650544E-3	1.844579E-2	3.367342E-3	9.323001E-3	1.690026E-2	3.544804E-3	2.462688E-3	2.193262E-2	8.932212E-3	-3.848602E-3	-1.673861E-2	-1.021321E-2	3.008114E-2	1.921339E-2	6.980754E-3	9.067965E-3	1.396886E-2	1.610461E-2	1.948247E-2	3.174796E-2	1.598899E-2	-7.806356E-3	8.266537E-3	4.856838E-3	2.496392E-2	7.418446E-3	1.700687E-2	-1.330303E-4	1.005535E-2	1.002383E-2	1.034933E-2	5.311003E-4	1.715300E-2	-3.011174E-3	1.402906E-2	2.237972E-3	4.836375E-3	6.988845E-3	9.185481E-3	-9.588468E-4	9.458337E-3	2.828977E-2	3.584868E-3	3.590743E-3	1.510080E-2	-9.518933E-4	2.969833E-2	-2.776046E-3	1.066732E-2	1.536362E-2	3.522438E-2	1.881551E-2	1.090985E-2	-3.277750E-3	2.966763E-2	1.623037E-2	1.622152E-2	1.247932E-2	-2.352833E-3	-2.997613E-3	3.083285E-3	5.327602E-3	8.211890E-3	1.060325E-2	1.165896E-3	2.037830E-2	1.430625E-2	2.586437E-2	9.972850E-3	1.193410E-2	5.716367E-3	1.054774E-2	-4.243595E-3	4.889965E-3	1.158069E-3	7.000952E-3	3.006711E-2	6.417945E-3	7.165300E-3	1.376638E-2	2.044039E-3	1.101434E-3	1.036364E-2	3.184337E-3	4.801475E-3	8.454813E-3	-1.676049E-3	1.469014E-2	1.795320E-2	2.557084E-2	1.290972E-2	1.428050E-3	7.722177E-3	1.013966E-2	1.065229E-2	5.251095E-3	2.276102E-2	1.286746E-2	8.343925E-3	1.463423E-2	1.576038E-2	1.634551E-2	1.457565E-2	2.396401E-3	1.301437E-2	6.661675E-3	1.976872E-2	4.715857E-3	-9.255059E-4	1.294410E-2	1.180883E-2	2.251094E-2	1.076755E-2	-7.525709E-3	-2.150025E-3	2.622660E-3	1.215180E-2	1.875919E-2	1.043244E-2	-1.339308E-3	1.574688E-2	5.088024E-3	6.086092E-3	8.251635E-3	5.152385E-3	8.373608E-3	3.875264E-3	1.095054E-3	5.853928E-3	1.197486E-2	2.390860E-2	1.762990E-2	1.517617E-2	-3.839181E-4	1.976663E-2	1.273039E-2	3.059254E-2	1.623275E-2	-2.830740E-3	-6.391287E-3	2.060590E-2	1.083114E-2	2.126859E-2	-3.690452E-2
2.835040E+2	3.884619E-2	1.743982E-2	2.666825E-2	3.393790E-2	2.408329E-2	3.308960E-2	1.210662E-2	1.128668E-2	2.425151E-2	2.276972E-2	1.471549E-2	3.353006E-2	3.609502E-3	2.464195E-2	1.932455E-2	1.465293E-2	1.150711E-2	2.120289E-2	9.961616E-3	3.113943E-2	1.297526E-2	1.401694E-2	1.287913E-2	1.721938E-2	5.143510E-5	1.730826E-2	2.342185E-2	2.690768E-2	1.708072E-2	-5.658490E-3	-1.142172E-3	2.869728E-2	1.427032E-2	1.512160E-2	1.941450E-2	2.311581E-2	1.676098E-2	3.389763E-4	1.129196E-2	1.963061E-2	3.124075E-2	3.534988E-2	2.286519E-2	3.231870E-2	7.506037E-3	2.618678E-2	2.555127E-2	2.390563E-2	1.594059E-2	1.614086E-2	1.245568E-2	3.296342E-2	1.762154E-2	1.587331E-2	1.805788E-2	9.857687E-3	1.654858E-2	1.157947E-2	1.888488E-2	1.092559E-2	3.897554E-2	7.676023E-3	1.207094E-2	1.387971E-2	1.949064E-2	1.475319E-2	-1.284619E-3	1.379364E-2	2.857553E-2	2.852857E-2	2.732026E-2	1.801702E-2	2.660773E-2	1.258849E-2	9.717673E-3	-4.927748E-4	1.193596E-2	1.698475E-2	5.745310E-3	3.385000E-2	2.022181E-2	2.849108E-2	5.607831E-3	1.454344E-2	2.548999E-2	2.418687E-2	3.611023E-2	2.867333E-2	3.417246E-2	2.145430E-2	1.566155E-2	1.997114E-2	1.442607E-2	2.100935E-2	3.096787E-2	2.882501E-2	1.476588E-2	2.074728E-2	2.193782E-2	9.490427E-3	2.882487E-2	8.435483E-3	2.785381E-2	1.973816E-2	3.247686E-2	2.182438E-2	1.909463E-2	1.699339E-2	2.035315E-2	1.399326E-2	5.624921E-3	2.643183E-2	2.596721E-2	1.877633E-3	1.303139E-2	7.729794E-4	2.574110E-2	1.887164E-2	2.465527E-2	8.879833E-3	1.431108E-2	3.630793E-3	2.970089E-2	1.065539E-2	1.258059E-2	3.102410E-2	2.214536E-2	1.175935E-2	3.163883E-2	2.891339E-2	3.843547E-2	5.202269E-3	1.406767E-2	5.079953E-2	1.558983E-2	7.383007E-3	1.843074E-2	8.834722E-3	2.655363E-2	1.856898E-2	3.804707E-2	2.230991E-2	8.770854E-3	2.138236E-2	3.026838E-2	1.575345E-2	1.232569E-2	2.691947E-2	2.392747E-2	1.606991E-2	1.649679E-2	2.086295E-2	2.356922E-2	4.886236E-3	2.187305E-2	4.293074E-2	2.800584E-2	1.439980E-2	2.138850E-2	6.779325E-3	2.228547E-2	2.892565E-2	1.537354E-2	3.907280E-3	2.265425E-2	8.090688E-3	5.757909E-3	1.197316E-3	1.702455E-2	9.028769E-3	-1.284646E-3
2.840020E+2	2.375863E-2	3.660333E-2	5.772605E-2	2.917846E-2	2.024562E-2	3.221171E-2	2.870999E-2	3.943579E-2	3.647933E-2	3.725137E-2	3.252758E-2	1.197688E-2	5.260702E-2	4.520139E-2	2.780711E-2	4.202928E-2	3.910494E-2	4.309970E-3	4.235796E-2	4.458776E-2	3.286109E-2	1.920603E-2	2.377728E-2	3.164094E-2	2.208469E-2	3.270801E-2	2.615205E-2	2.029832E-2	4.188960E-2	3.510988E-2	3.425875E-2	2.755914E-2	4.955505E-2	1.249476E-2	2.597772E-2	2.132139E-2	1.461541E-2	1.932990E-2	8.844311E-3	5.050973E-2	1.917288E-2	3.261732E-2	3.007691E-2	1.350523E-2	2.291802E-2	1.117548E-2	3.109653E-2	4.204501E-3	4.798431E-2	2.304150E-2	2.173595E-2	2.983217E-2	2.696402E-2	1.722450E-2	2.082795E-2	4.873329E-2	2.894536E-2	2.816132E-2	1.221794E-2	3.286801E-2	1.997579E-2	2.741191E-2	3.489985E-2	2.467475E-2	3.687578E-2	4.165042E-2	2.562342E-2	1.516832E-2	3.522366E-2	1.654591E-2	2.316222E-2	4.550450E-2	1.819368E-2	3.144929E-2	4.001411E-2	1.158238E-2	2.861164E-2	3.184952E-2	4.932898E-2	5.632035E-2	1.849617E-2	2.856306E-2	3.473017E-2	4.587500E-2	1.882359E-2	1.846105E-2	2.529537E-2	3.602006E-2	2.489211E-2	2.753084E-2	1.828882E-2	2.454284E-2	5.689595E-2	2.102768E-2	2.343131E-2	1.376779E-2	4.084961E-2	4.211783E-2	4.045113E-2	3.528410E-2	2.894708E-2	3.523131E-2	4.360224E-2	4.679269E-2	3.723559E-2	4.550232E-2	2.464029E-2	2.939555E-2	3.562975E-2	2.813895E-2	2.659822E-2	3.454768E-2	3.914347E-2	2.973938E-2	2.350012E-2	2.987668E-2	4.083025E-2	2.508510E-2	3.374775E-2	2.107733E-2	2.489880E-2	3.534346E-2	1.559224E-2	2.560012E-2	2.937266E-2	3.643127E-2	1.469036E-2	3.864543E-2	5.547884E-2	4.383988E-2	5.957645E-2	1.551149E-2	3.341878E-2	4.396412E-2	3.692674E-2	2.504743E-2	4.869389E-2	2.718394E-2	5.004975E-2	1.837693E-2	3.218009E-2	2.249335E-2	2.979211E-2	1.460051E-2	2.840353E-2	1.421551E-2	4.598698E-2	4.190233E-2	2.272996E-2	4.469934E-2	2.272338E-2	3.055480E-2	4.736067E-2	2.627833E-2	3.594063E-2	1.826193E-2	2.498468E-2	3.783248E-2	2.901437E-2	2.940290E-2	3.955196E-2	2.498709E-2	3.467642E-2	1.948841E-2	2.672339E-2	3.966171E-2	3.248220E-2	-6.196374E-3	4.154287E-2	1.379033E-2	3.578433E-2
2.841030E+2	5.189878E-2	5.385111E-2	4.308848E-2	5.746177E-2	3.692278E-2	3.285963E-2	4.994307E-2	5.290207E-2	4.395012E-2	2.999517E-2	3.702767E-2	4.750121E-2	4.033402E-2	4.459424E-2	3.318819E-2	3.748813E-2	4.538871E-2	3.231368E-2	3.298156E-2	4.828004E-2	6.858078E-2	4.525301E-2	4.961382E-2	4.253490E-2	6.512359E-2	6.171298E-2	4.833251E-2	5.700131E-2	2.869105E-2	4.619586E-2	4.689996E-2	5.650162E-2	4.174455E-2	3.692116E-2	3.977429E-2	5.360246E-2	3.897606E-2	3.682030E-2	3.561867E-2	3.885253E-2	3.621443E-2	1.402717E-2	4.368415E-2	2.516223E-2	6.820338E-2	3.935027E-2	4.248821E-2	3.690296E-2	6.349542E-2	5.959947E-2	4.515037E-2	2.720955E-2	4.763360E-2	6.034104E-2	1.634242E-2	3.144022E-2	5.175481E-2	5.172302E-2	3.603940E-2	4.625559E-2	4.018091E-2	3.581650E-2	3.434192E-2	3.886062E-2	5.515814E-2	5.450660E-2	4.976849E-2	4.972445E-2	2.559868E-2	4.050517E-2	4.473573E-2	5.285291E-2	3.167187E-2	4.387768E-2	5.802298E-2	4.562713E-2	7.323694E-2	5.711713E-2	4.201818E-2	3.750545E-2	5.160909E-2	6.743385E-2	1.655248E-2	4.209215E-2	4.660495E-2	3.822373E-2	3.863252E-2	3.832581E-2	6.668543E-2	2.349426E-2	3.481706E-2	5.049788E-2	6.214805E-2	3.000010E-2	5.915938E-2	4.091382E-2	1.663401E-2	5.148212E-2	2.648456E-2	1.956424E-2	4.401428E-2	5.143410E-2	5.635720E-2	7.040788E-2	5.562007E-2	6.040592E-2	3.505432E-2	4.908047E-2	4.425840E-2	3.656724E-2	5.437497E-2	4.184158E-2	6.180612E-2	4.255237E-2	4.714602E-2	5.256182E-2	4.567160E-2	5.012744E-2	3.064476E-2	2.955938E-2	5.854518E-2	3.742448E-2	5.738149E-2	6.086134E-2	3.470887E-2	5.149939E-2	3.833058E-2	5.432152E-2	4.354437E-2	4.997721E-2	4.097295E-2	4.389323E-2	4.190216E-2	4.726105E-2	4.772861E-2	4.532094E-2	5.966904E-2	3.644943E-2	5.220588E-2	4.238146E-2	2.821806E-2	4.724682E-2	3.039553E-2	3.851773E-2	4.818604E-2	4.040752E-2	4.024549E-2	4.091229E-2	3.172663E-2	4.675977E-2	4.366479E-2	3.618624E-2	4.164705E-2	3.643056E-2	3.535957E-2	7.750886E-2	4.388018E-2	4.409906E-2	3.837995E-2	4.443997E-2	2.437462E-2	3.367625E-2	4.093769E-2	2.975354E-2	3.921296E-2	3.660583E-2	4.347488E-2	3.285033E-2	2.921750E-2	3.901448E-2	3.652550E-2
2.842040E+2	4.829562E-2	7.031397E-2	6.838069E-2	7.307868E-2	4.634162E-2	5.707118E-2	6.673782E-2	4.462901E-2	7.616568E-2	6.829207E-2	5.232822E-2	6.680359E-2	6.146284E-2	7.819763E-2	4.497488E-2	5.139600E-2	5.503627E-2	6.905908E-2	4.788866E-2	5.567903E-2	4.466303E-2	5.025024E-2	3.018019E-2	5.394317E-2	7.542428E-2	6.154516E-2	6.745025E-2	6.613811E-2	4.940699E-2	3.525648E-2	6.615044E-2	6.607296E-2	6.300585E-2	5.939632E-2	7.147016E-2	6.306441E-2	4.362647E-2	5.368553E-2	3.913933E-2	6.351063E-2	9.424659E-2	9.538095E-2	5.783689E-2	4.209890E-2	6.800503E-2	3.889911E-2	5.573846E-2	5.964511E-2	6.940512E-2	4.695363E-2	7.763681E-2	6.454584E-2	7.059227E-2	8.314944E-2	4.273912E-2	6.465060E-2	6.271072E-2	3.748333E-2	7.044887E-2	5.222984E-2	6.406194E-2	5.889957E-2	7.141178E-2	7.965021E-2	7.586064E-2	8.812983E-2	4.570081E-2	6.086795E-2	5.506703E-2	7.279707E-2	6.119550E-2	9.382561E-2	5.743581E-2	7.783478E-2	6.197713E-2	4.671446E-2	5.220046E-2	4.441260E-2	6.329627E-2	5.977698E-2	6.369335E-2	9.925298E-2	7.860560E-2	9.206897E-2	7.928041E-2	5.736292E-2	5.624344E-2	6.194609E-2	7.117645E-2	8.394929E-2	7.075332E-2	7.725834E-2	8.135817E-2	6.338898E-2	5.498582E-2	6.033199E-2	8.050193E-2	4.815988E-2	5.155796E-2	4.391100E-2	6.624154E-2	4.861708E-2	6.841028E-2	5.781312E-2	6.817216E-2	8.864725E-2	4.873538E-2	4.375324E-2	7.059924E-2	7.970413E-2	5.550164E-2	5.351326E-2	4.068717E-2	6.268316E-2	6.528944E-2	6.954707E-2	4.257512E-2	6.727659E-2	6.361393E-2	6.560763E-2	4.222562E-2	6.532541E-2	6.398789E-2	6.376558E-2	5.147825E-2	8.035631E-2	6.915320E-2	6.645235E-2	6.393603E-2	5.106549E-2	7.228366E-2	4.801899E-2	7.584405E-2	4.316490E-2	7.177100E-2	8.769398E-2	5.496717E-2	6.944307E-2	5.466917E-2	5.187503E-2	4.299745E-2	4.156406E-2	5.424141E-2	7.147695E-2	8.469713E-2	7.021788E-2	6.501102E-2	7.614572E-2	5.414031E-2	6.500585E-2	6.046968E-2	7.256556E-2	6.554070E-2	5.389470E-2	5.300801E-2	5.517965E-2	9.278561E-2	9.034507E-2	4.312490E-2	6.003245E-2	5.256304E-2	7.569845E-2	8.130318E-2	4.860543E-2	4.696651E-2	4.402647E-2	5.103250E-2	8.370993E-2	3.533872E-2	7.923017E-2	3.022745E-2
2.843030E+2	7.791868E-2	8.310943E-2	4.287851E-2	5.857061E-2	6.703992E-2	7.412900E-2	6.436170E-2	5.742235E-2	8.346884E-2	4.844004E-2	6.551160E-2	6.184446E-2	7.366285E-2	9.674081E-2	7.175011E-2	6.668287E-2	5.949259E-2	4.929876E-2	8.639690E-2	7.791858E-2	9.587112E-2	8.402715E-2	8.026709E-2	3.344879E-2	6.041779E-2	8.486647E-2	5.748783E-2	1.129274E-1	6.825574E-2	6.404529E-2	9.556055E-2	8.335470E-2	6.329052E-2	8.655948E-2	7.842193E-2	7.525001E-2	6.229352E-2	5.258794E-2	8.132840E-2	5.420120E-2	9.539251E-2	8.695962E-2	9.628653E-2	4.546000E-2	6.131471E-2	9.807832E-2	6.977549E-2	7.090048E-2	9.687015E-2	7.946969E-2	7.390337E-2	6.591435E-2	9.005321E-2	7.571925E-2	5.192255E-2	6.255444E-2	8.466849E-2	7.978703E-2	5.830770E-2	5.544863E-2	9.767562E-2	7.522906E-2	8.342425E-2	7.810865E-2	9.103257E-2	9.002712E-2	6.723238E-2	9.051626E-2	7.902402E-2	6.555521E-2	8.144032E-2	7.080941E-2	5.926818E-2	7.656318E-2	8.517182E-2	7.593641E-2	9.696120E-2	7.228003E-2	8.386007E-2	6.385183E-2	7.639242E-2	8.591497E-2	7.596731E-2	8.307430E-2	6.283461E-2	1.013520E-1	6.004363E-2	8.617461E-2	6.974133E-2	5.586175E-2	8.310227E-2	9.617216E-2	8.748660E-2	7.049344E-2	6.169251E-2	7.327822E-2	9.327176E-2	9.205960E-2	1.069539E-1	9.902579E-2	7.816950E-2	8.411289E-2	8.447035E-2	8.111200E-2	7.967788E-2	1.001536E-1	7.163220E-2	9.851343E-2	5.953631E-2	7.993824E-2	8.029896E-2	6.440721E-2	7.165747E-2	7.109314E-2	6.082164E-2	1.032636E-1	6.903002E-2	8.112057E-2	6.513698E-2	8.983077E-2	4.878230E-2	5.842865E-2	8.174774E-2	7.624905E-2	6.277105E-2	7.395947E-2	7.850345E-2	5.977591E-2	9.323710E-2	1.070398E-1	7.098697E-2	7.639972E-2	6.684546E-2	9.494757E-2	6.564627E-2	9.255507E-2	7.877437E-2	6.822251E-2	8.019571E-2	9.444121E-2	1.068750E-1	9.474171E-2	7.886469E-2	8.564704E-2	8.319377E-2	8.777561E-2	7.319039E-2	8.666129E-2	6.859500E-2	7.189093E-2	6.558601E-2	9.310917E-2	8.210867E-2	5.824967E-2	9.320290E-2	8.931770E-2	7.294968E-2	9.202542E-2	8.120674E-2	8.207533E-2	6.574415E-2	8.832221E-2	7.876558E-2	8.480567E-2	5.674514E-2	9.193454E-2	1.061679E-1	7.743817E-2	1.253158E-1	9.734844E-2	7.442002E-2
2.844030E+2	8.860497E-2	1.042167E-1	6.550189E-2	1.332340E-1	9.856708E-2	7.013534E-2	1.129909E-1	6.526221E-2	8.335522E-2	7.912845E-2	1.164812E-1	8.339211E-2	1.017160E-1	8.756094E-2	8.397678E-2	7.175157E-2	1.035804E-1	7.715371E-2	8.257443E-2	1.109167E-1	7.164739E-2	9.325908E-2	9.271103E-2	7.122411E-2	9.220899E-2	1.050869E-1	9.761715E-2	8.138426E-2	9.944823E-2	8.041353E-2	9.705191E-2	9.949896E-2	9.806219E-2	6.753172E-2	1.121393E-1	8.973123E-2	8.061744E-2	7.735264E-2	8.524900E-2	9.040639E-2	1.128062E-1	7.457988E-2	7.560191E-2	6.233439E-2	9.503665E-2	9.387062E-2	1.052395E-1	7.860700E-2	1.180307E-1	1.190435E-1	7.516713E-2	1.184513E-1	9.305538E-2	1.103599E-1	9.322201E-2	9.278039E-2	8.956697E-2	1.252213E-1	8.206581E-2	1.038958E-1	8.510849E-2	7.630392E-2	1.005424E-1	9.167150E-2	9.277280E-2	9.928224E-2	9.937504E-2	1.155330E-1	8.180325E-2	7.565557E-2	1.081132E-1	9.520499E-2	8.789641E-2	8.556099E-2	8.533792E-2	9.061873E-2	7.940086E-2	7.355402E-2	1.113527E-1	7.439121E-2	5.239877E-2	8.729984E-2	8.698840E-2	9.264191E-2	8.510646E-2	9.315510E-2	9.886188E-2	8.763426E-2	7.966173E-2	8.095836E-2	8.329162E-2	1.049470E-1	8.007701E-2	9.743859E-2	7.351536E-2	9.666540E-2	8.860982E-2	1.083203E-1	9.774402E-2	1.307955E-1	8.221828E-2	8.159695E-2	1.080452E-1	9.649145E-2	8.100452E-2	9.879963E-2	8.150669E-2	9.681322E-2	1.230873E-1	1.106599E-1	1.065212E-1	7.371965E-2	9.712539E-2	1.014517E-1	7.459130E-2	9.188061E-2	9.548843E-2	7.750551E-2	8.846232E-2	1.155440E-1	7.238521E-2	6.960338E-2	7.501015E-2	8.460832E-2	7.194374E-2	9.667642E-2	8.775491E-2	8.043148E-2	9.148557E-2	8.120023E-2	9.066530E-2	7.927829E-2	8.274362E-2	7.950491E-2	8.496225E-2	9.865324E-2	9.650993E-2	8.863321E-2	1.056876E-1	8.570575E-2	7.553533E-2	9.632082E-2	1.048653E-1	9.411294E-2	8.795341E-2	1.114898E-1	7.186999E-2	1.263093E-1	7.793794E-2	8.800618E-2	9.869804E-2	9.629028E-2	7.188820E-2	1.097168E-1	8.171151E-2	7.880856E-2	9.455351E-2	1.092419E-1	1.106992E-1	7.028436E-2	8.977135E-2	9.386555E-2	1.100182E-1	9.283435E-2	1.107544E-1	1.078153E-1	1.065312E-1	8.320287E-2	1.164540E-1	1.206100E-1	3.875507E-2
2.845010E+2	1.361036E-1	1.231090E-1	1.150955E-1	1.307703E-1	1.502117E-1	1.230622E-1	1.505385E-1	1.193471E-1	1.571696E-1	1.215538E-1	1.209612E-1	1.343852E-1	1.196786E-1	1.463147E-1	1.211619E-1	1.426455E-1	1.428691E-1	1.220596E-1	1.580599E-1	1.215350E-1	1.145723E-1	1.237995E-1	1.412986E-1	1.296833E-1	1.689437E-1	1.565813E-1	1.646893E-1	1.377135E-1	1.414820E-1	1.555769E-1	1.418080E-1	1.527049E-1	1.528479E-1	1.456888E-1	1.058528E-1	1.524338E-1	1.461466E-1	1.274539E-1	1.075857E-1	1.235287E-1	1.362365E-1	1.250729E-1	1.753576E-1	8.219521E-2	1.267019E-1	1.128132E-1	1.415688E-1	1.389431E-1	1.245595E-1	1.053693E-1	1.584994E-1	1.189893E-1	1.501364E-1	1.610942E-1	1.249243E-1	1.097314E-1	1.434556E-1	1.415415E-1	1.249366E-1	1.284459E-1	1.598385E-1	1.411143E-1	1.325494E-1	9.878813E-2	1.432531E-1	1.450270E-1	1.442866E-1	1.394812E-1	1.525808E-1	1.179676E-1	1.483399E-1	1.364133E-1	1.390725E-1	1.269710E-1	1.352120E-1	1.139037E-1	1.494014E-1	1.441978E-1	1.283973E-1	1.188951E-1	1.530915E-1	1.446147E-1	1.635914E-1	1.153417E-1	1.457713E-1	1.232908E-1	1.514817E-1	1.537086E-1	1.359595E-1	1.405084E-1	1.235286E-1	1.018369E-1	9.281641E-2	1.407813E-1	1.420686E-1	1.161241E-1	1.372809E-1	1.324622E-1	1.160205E-1	1.285546E-1	1.423089E-1	1.272479E-1	1.173353E-1	1.217477E-1	1.624342E-1	1.616973E-1	1.297603E-1	1.199426E-1	1.666881E-1	1.407337E-1	1.526922E-1	1.101908E-1	1.171252E-1	1.256104E-1	1.255232E-1	1.386638E-1	1.423774E-1	1.545581E-1	1.176710E-1	1.388154E-1	1.524782E-1	1.190639E-1	1.314953E-1	1.380543E-1	1.607002E-1	1.509875E-1	1.568243E-1	9.758676E-2	1.083468E-1	1.175271E-1	1.604292E-1	1.401843E-1	1.475977E-1	1.479977E-1	1.308452E-1	1.426544E-1	1.241493E-1	1.187147E-1	1.119069E-1	1.470978E-1	1.138875E-1	1.381903E-1	1.397842E-1	1.467215E-1	1.287898E-1	1.317449E-1	1.113216E-1	1.147471E-1	1.564244E-1	1.439669E-1	1.311745E-1	1.327987E-1	1.550495E-1	1.298795E-1	1.475439E-1	1.359770E-1	1.483851E-1	1.370946E-1	1.112770E-1	1.179498E-1	1.245793E-1	1.403725E-1	1.405597E-1	1.248257E-1	1.399021E-1	1.319156E-1	1.667567E-1	1.277075E-1	1.143181E-1	8.135178E-2	1.283677E-1
2.846040E+2	2.176418E-1	2.677425E-1	2.206308E-1	2.360305E-1	2.318062E-1	2.440252E-1	2.099854E-1	2.402574E-1	2.248102E-1	2.422491E-1	2.446234E-1	2.135500E-1	2.124233E-1	2.644638E-1	1.946307E-1	2.131059E-1	2.044599E-1	1.879230E-1	2.813347E-1	2.491318E-1	2.047649E-1	2.271543E-1	3.170392E-1	2.596933E-1	2.466007E-1	2.790939E-1	2.719851E-1	2.752481E-1	2.604848E-1	2.868082E-1	2.836367E-1	2.501335E-1	2.673872E-1	2.302709E-1	2.047585E-1	2.472287E-1	2.446310E-1	2.607779E-1	2.804218E-1	2.831654E-1	2.719059E-1	2.799876E-1	2.389825E-1	2.109562E-1	2.649635E-1	2.336657E-1	2.367097E-1	2.164534E-1	2.606778E-1	2.475266E-1	2.580318E-1	2.768167E-1	2.204727E-1	2.089365E-1	2.317844E-1	2.551199E-1	2.284317E-1	2.565204E-1	2.451441E-1	2.343960E-1	2.325898E-1	2.547956E-1	2.481197E-1	2.602421E-1	2.142569E-1	2.071341E-1	2.331024E-1	2.567472E-1	2.505443E-1	2.720175E-1	2.636751E-1	1.808475E-1	2.268967E-1	2.102258E-1	2.189757E-1	2.437663E-1	2.154387E-1	2.567771E-1	2.609341E-1	2.180753E-1	2.726496E-1	2.385899E-1	1.995381E-1	2.606472E-1	2.353827E-1	2.099041E-1	2.103306E-1	2.183055E-1	2.292570E-1	2.216869E-1	2.056933E-1	2.053531E-1	2.178360E-1	2.399058E-1	2.277054E-1	2.353233E-1	2.205068E-1	2.345732E-1	2.036603E-1	2.429065E-1	2.341306E-1	2.389852E-1	2.351513E-1	1.957913E-1	2.322206E-1	2.253499E-1	2.321768E-1	2.103205E-1	2.392453E-1	2.590285E-1	2.600151E-1	2.089971E-1	2.387043E-1	2.355067E-1	2.453137E-1	2.643681E-1	2.296481E-1	2.213175E-1	2.470670E-1	2.316473E-1	2.655394E-1	2.636000E-1	2.466147E-1	2.273666E-1	2.344886E-1	2.399090E-1	2.467738E-1	2.288573E-1	2.145491E-1	2.141234E-1	2.156639E-1	2.050555E-1	2.259008E-1	2.372444E-1	2.140814E-1	2.289242E-1	2.540852E-1	2.418987E-1	2.177755E-1	2.602477E-1	2.175777E-1	2.473253E-1	2.253374E-1	2.478540E-1	2.269429E-1	2.171777E-1	2.081593E-1	2.191264E-1	2.056850E-1	2.632257E-1	2.039198E-1	2.472222E-1	2.009856E-1	1.676449E-1	2.395676E-1	2.327005E-1	2.593671E-1	2.161170E-1	2.384968E-1	2.171107E-1	2.343420E-1	2.535506E-1	2.076882E-1	2.240581E-1	2.559777E-1	1.894560E-1	2.106329E-1	2.076213E-1	1.932674E-1	1.986079E-1	2.414791E-1
2.847000E+2	4.028239E-1	3.961218E-1	4.494081E-1	3.722663E-1	3.947578E-1	4.028436E-1	3.804273E-1	3.917593E-1	3.739442E-1	4.266396E-1	4.751972E-1	3.703722E-1	4.197749E-1	3.994040E-1	4.316660E-1	3.998182E-1	4.011689E-1	4.242425E-1	3.700931E-1	4.170686E-1	4.437940E-1	4.076619E-1	5.400732E-1	5.052866E-1	5.569812E-1	4.641243E-1	5.446108E-1	5.142670E-1	5.666969E-1	5.264873E-1	4.735654E-1	5.390781E-1	5.158679E-1	4.846478E-1	4.808918E-1	4.853970E-1	4.490540E-1	5.039735E-1	4.363414E-1	4.557740E-1	5.164418E-1	4.588721E-1	4.733738E-1	4.252819E-1	4.701210E-1	4.557716E-1	4.339510E-1	4.482746E-1	4.727129E-1	4.695645E-1	4.542878E-1	4.563715E-1	4.596794E-1	4.336926E-1	4.783691E-1	4.473073E-1	4.653695E-1	4.343003E-1	4.331773E-1	4.407829E-1	4.511613E-1	4.748373E-1	4.478105E-1	4.683631E-1	4.244189E-1	4.316828E-1	4.692095E-1	4.434257E-1	4.804583E-1	4.679506E-1	4.500490E-1	4.401816E-1	5.045263E-1	4.854231E-1	4.446303E-1	4.290138E-1	4.221595E-1	4.550569E-1	4.611079E-1	4.298103E-1	4.249826E-1	4.614983E-1	3.948032E-1	4.467672E-1	4.313181E-1	4.466387E-1	4.190434E-1	3.819131E-1	4.682601E-1	4.288737E-1	3.864696E-1	3.854057E-1	4.514740E-1	4.481098E-1	4.149252E-1	4.461303E-1	4.724899E-1	4.461236E-1	4.299359E-1	4.474557E-1	4.665195E-1	4.921486E-1	4.474720E-1	3.905506E-1	4.266412E-1	4.075397E-1	4.123043E-1	4.795177E-1	4.147201E-1	3.889177E-1	4.212949E-1	3.890374E-1	4.822161E-1	4.231984E-1	4.612932E-1	4.273086E-1	4.221951E-1	3.860133E-1	4.194666E-1	4.337229E-1	4.276242E-1	4.789346E-1	4.575642E-1	4.105342E-1	4.188269E-1	4.299314E-1	4.517506E-1	4.540583E-1	3.858804E-1	3.907016E-1	4.264305E-1	4.262082E-1	4.425214E-1	4.524436E-1	4.261513E-1	4.379003E-1	4.259594E-1	4.523829E-1	4.408596E-1	4.218584E-1	4.361155E-1	4.558740E-1	4.543758E-1	4.239426E-1	4.020445E-1	4.324720E-1	4.072871E-1	4.296613E-1	4.099722E-1	3.982793E-1	4.308851E-1	4.119714E-1	4.646854E-1	4.167735E-1	4.088482E-1	3.847794E-1	4.094571E-1	4.479351E-1	3.990057E-1	3.819989E-1	4.092537E-1	3.659747E-1	3.962312E-1	4.687633E-1	3.811793E-1	4.416031E-1	4.196697E-1	4.012070E-1	4.259684E-1	3.317615E-1	4.387483E-1
2.848000E+2	9.418109E-1	8.416724E-1	8.902266E-1	9.662130E-1	9.256807E-1	8.364477E-1	8.853054E-1	8.947679E-1	9.086999E-1	8.342698E-1	9.110507E-1	8.863505E-1	8.613531E-1	8.651577E-1	8.578381E-1	8.572982E-1	8.654930E-1	8.542624E-1	8.642017E-1	8.967747E-1	8.896668E-1	8.752916E-1	1.023062E+0	1.003808E+0	9.496268E-1	9.749016E-1	9.517233E-1	9.224383E-1	9.728413E-1	9.307055E-1	9.907270E-1	9.423292E-1	9.189015E-1	8.812829E-1	9.457991E-1	1.008332E+0	9.342458E-1	9.485739E-1	9.549300E-1	9.446683E-1	1.001644E+0	9.859149E-1	9.868177E-1	9.105945E-1	9.305442E-1	9.557434E-1	9.676948E-1	9.159567E-1	8.835014E-1	1.021470E+0	8.880867E-1	9.155354E-1	9.326176E-1	9.502979E-1	9.153529E-1	9.306709E-1	8.903139E-1	9.314051E-1	9.371110E-1	9.863507E-1	9.925093E-1	1.024095E+0	9.252468E-1	9.148361E-1	9.216605E-1	8.920099E-1	8.850225E-1	9.060959E-1	8.998946E-1	9.576587E-1	9.031576E-1	9.003972E-1	9.253190E-1	9.277618E-1	9.151387E-1	8.459827E-1	9.372871E-1	9.306046E-1	9.348211E-1	8.830048E-1	9.147090E-1	9.210723E-1	8.904043E-1	7.918019E-1	9.830335E-1	8.831489E-1	8.954917E-1	9.147601E-1	9.644591E-1	9.630507E-1	8.789882E-1	8.800631E-1	8.758657E-1	8.944679E-1	9.178217E-1	9.290775E-1	9.007096E-1	8.607055E-1	8.992492E-1	9.419163E-1	8.874203E-1	9.139956E-1	9.264485E-1	9.344907E-1	9.840733E-1	9.440557E-1	8.882198E-1	8.579715E-1	9.107948E-1	9.343596E-1	9.522726E-1	9.352322E-1	9.125577E-1	8.750778E-1	8.884729E-1	8.862517E-1	9.462135E-1	9.406085E-1	8.771912E-1	8.968136E-1	9.571667E-1	9.704789E-1	9.039380E-1	8.958825E-1	9.600509E-1	8.993651E-1	9.069436E-1	9.268360E-1	9.522316E-1	9.179227E-1	9.780735E-1	9.102119E-1	8.836472E-1	8.826460E-1	9.029426E-1	9.465819E-1	8.733943E-1	9.189012E-1	8.951574E-1	9.028803E-1	9.458155E-1	9.409992E-1	8.322754E-1	8.507704E-1	8.715031E-1	9.369876E-1	9.415861E-1	8.964791E-1	9.590179E-1	9.175356E-1	9.291017E-1	8.873730E-1	9.635628E-1	8.877596E-1	9.124101E-1	8.991556E-1	9.184704E-1	9.578935E-1	9.363886E-1	8.268575E-1	9.255736E-1	8.217940E-1	9.462218E-1	9.026090E-1	9.242616E-1	8.357058E-1	8.476547E-1	9.129916E-1	9.041250E-1	9.044921E-1	9.595577E-1
2.849020E+2	1.450413E+0	1.468857E+0	1.494255E+0	1.577443E+0	1.495821E+0	1.484593E+0	1.479901E+0	1.413907E+0	1.541072E+0	1.444107E+0	1.527362E+0	1.484077E+0	1.586925E+0	1.509703E+0	1.531756E+0	1.492018E+0	1.480436E+0	1.427983E+0	1.421322E+0	1.409322E+0	1.506153E+0	1.534924E+0	1.533451E+0	1.354487E+0	1.562602E+0	1.500057E+0	1.468319E+0	1.463780E+0	1.459370E+0	1.537299E+0	1.483288E+0	1.589594E+0	1.510329E+0	1.433717E+0	1.490853E+0	1.538724E+0	1.479259E+0	1.438238E+0	1.409405E+0	1.464014E+0	1.480119E+0	1.579125E+0	1.427503E+0	1.539104E+0	1.471125E+0	1.554669E+0	1.415255E+0	1.569335E+0	1.527273E+0	1.558222E+0	1.515372E+0	1.615403E+0	1.523508E+0	1.439237E+0	1.528599E+0	1.489420E+0	1.489481E+0	1.445123E+0	1.495989E+0	1.448885E+0	1.644443E+0	1.465437E+0	1.396099E+0	1.545131E+0	1.454148E+0	1.395383E+0	1.441814E+0	1.512840E+0	1.507669E+0	1.475938E+0	1.539633E+0	1.530300E+0	1.414674E+0	1.536649E+0	1.531626E+0	1.457260E+0	1.502796E+0	1.445842E+0	1.613850E+0	1.421954E+0	1.564124E+0	1.469817E+0	1.450694E+0	1.456326E+0	1.593117E+0	1.478181E+0	1.464754E+0	1.454567E+0	1.570382E+0	1.515802E+0	1.463428E+0	1.611590E+0	1.446676E+0	1.516471E+0	1.529629E+0	1.576260E+0	1.504304E+0	1.462574E+0	1.484974E+0	1.533141E+0	1.523250E+0	1.542772E+0	1.577943E+0	1.477749E+0	1.480163E+0	1.404317E+0	1.471521E+0	1.424078E+0	1.527791E+0	1.489094E+0	1.531017E+0	1.504290E+0	1.505539E+0	1.435915E+0	1.465600E+0	1.510708E+0	1.542785E+0	1.526345E+0	1.517399E+0	1.475922E+0	1.612982E+0	1.498190E+0	1.498429E+0	1.678124E+0	1.565766E+0	1.492973E+0	1.563779E+0	1.526775E+0	1.524878E+0	1.534843E+0	1.590937E+0	1.443864E+0	1.469053E+0	1.435969E+0	1.557170E+0	1.447823E+0	1.507123E+0	1.439774E+0	1.441062E+0	1.599981E+0	1.488458E+0	1.471780E+0	1.502576E+0	1.412892E+0	1.536138E+0	1.402787E+0	1.501330E+0	1.550139E+0	1.588344E+0	1.492971E+0	1.489731E+0	1.412800E+0	1.558371E+0	1.511534E+0	1.540491E+0	1.478884E+0	1.484573E+0	1.617882E+0	1.543275E+0	1.456350E+0	1.456379E+0	1.488081E+0	1.465620E+0	1.413931E+0	1.546280E+0	1.496601E+0	1.434796E+0	1.534702E+0	1.509229E+0	1.353500E+0	1.515009E+0
2.850010E+2	1.849025E+0	1.865781E+0	1.785102E+0	1.812450E+0	1.799567E+0	1.872326E+0	1.829772E+0	1.894654E+0	1.862861E+0	1.863134E+0	1.930249E+0	1.736758E+0	1.876491E+0	1.846640E+0	1.870262E+0	1.793606E+0	1.772409E+0	1.725288E+0	1.745268E+0	1.746434E+0	1.807287E+0	1.798834E+0	1.787334E+0	1.716936E+0	1.819047E+0	1.706959E+0	1.760765E+0	1.763959E+0	1.867688E+0	1.846519E+0	1.773018E+0	1.739688E+0	1.714553E+0	1.729037E+0	1.851450E+0	1.851303E+0	1.677777E+0	1.750884E+0	1.859288E+0	1.737375E+0	1.840689E+0	1.829580E+0	1.832271E+0	1.699985E+0	1.753067E+0	1.738309E+0	1.782579E+0	1.756213E+0	1.720604E+0	1.824827E+0	1.799369E+0	1.787835E+0	1.802200E+0	1.778346E+0	1.757947E+0	1.763637E+0	1.818980E+0	1.899033E+0	1.769046E+0	1.760203E+0	1.892804E+0	1.661356E+0	1.721611E+0	1.823550E+0	1.721375E+0	1.832239E+0	1.784515E+0	1.742778E+0	1.743648E+0	1.752517E+0	1.813359E+0	1.808534E+0	1.907138E+0	1.788119E+0	1.819982E+0	1.830635E+0	1.787361E+0	1.919179E+0	1.768611E+0	1.787359E+0	1.900684E+0	1.837423E+0	1.838677E+0	1.814351E+0	1.798500E+0	1.802040E+0	1.744696E+0	1.781910E+0	1.845813E+0	1.805703E+0	1.780077E+0	1.947086E+0	1.824892E+0	1.642229E+0	1.815845E+0	1.865572E+0	1.829427E+0	1.643954E+0	1.735947E+0	1.923356E+0	1.762137E+0	1.870649E+0	1.851630E+0	1.848156E+0	1.804391E+0	1.822368E+0	1.812044E+0	1.898464E+0	1.898275E+0	1.866721E+0	1.732987E+0	1.823299E+0	1.755918E+0	1.772965E+0	1.884052E+0	1.804488E+0	1.866715E+0	1.795103E+0	1.766948E+0	1.712697E+0	1.860433E+0	1.733707E+0	1.784534E+0	1.794493E+0	1.766550E+0	1.725389E+0	1.865965E+0	1.806023E+0	1.882843E+0	1.864535E+0	1.917121E+0	1.809765E+0	1.907543E+0	1.835466E+0	1.805928E+0	1.852003E+0	1.820806E+0	1.834832E+0	1.733618E+0	1.886366E+0	1.838108E+0	1.765629E+0	1.863462E+0	1.850570E+0	1.945868E+0	1.725259E+0	1.791050E+0	1.921353E+0	1.757016E+0	1.744395E+0	1.804371E+0	1.859148E+0	1.823521E+0	1.842413E+0	1.958031E+0	1.756672E+0	1.885865E+0	1.899762E+0	1.849072E+0	1.750077E+0	1.917384E+0	1.873566E+0	1.928627E+0	1.772681E+0	1.788219E+0	1.769811E+0	1.778110E+0	1.893266E+0	1.968094E+0	1.701474E+0	1.580737E+0
2.851000E+2	1.804769E+0	1.712800E+0	1.815722E+0	1.815057E+0	1.748996E+0	1.724180E+0	1.758966E+0	1.705244E+0	1.703826E+0	1.796338E+0	1.836350E+0	1.686087E+0	1.747355E+0	1.815100E+0	1.738542E+0	1.711529E+0	1.693108E+0	1.765928E+0	1.695680E+0	1.667456E+0	1.770306E+0	1.640718E+0	1.626546E+0	1.619895E+0	1.713685E+0	1.673131E+0	1.649913E+0	1.708913E+0	1.761145E+0	1.685022E+0	1.655843E+0	1.724875E+0	1.648641E+0	1.677967E+0	1.733542E+0	1.683566E+0	1.691412E+0	1.621663E+0	1.694867E+0	1.630919E+0	1.807245E+0	1.689735E+0	1.718800E+0	1.644317E+0	1.645428E+0	1.770918E+0	1.830669E+0	1.673348E+0	1.698197E+0	1.723143E+0	1.762126E+0	1.767963E+0	1.715944E+0	1.687377E+0	1.705270E+0	1.667567E+0	1.649376E+0	1.670047E+0	1.726627E+0	1.667443E+0	1.689951E+0	1.726852E+0	1.672268E+0	1.734399E+0	1.722979E+0	1.701492E+0	1.631103E+0	1.782861E+0	1.726196E+0	1.618230E+0	1.696781E+0	1.678346E+0	1.674032E+0	1.690658E+0	1.678791E+0	1.710561E+0	1.748830E+0	1.671151E+0	1.742127E+0	1.678802E+0	1.815035E+0	1.647280E+0	1.583718E+0	1.727928E+0	1.750600E+0	1.682962E+0	1.722667E+0	1.736769E+0	1.879930E+0	1.716213E+0	1.736848E+0	1.758369E+0	1.808075E+0	1.709331E+0	1.719109E+0	1.688109E+0	1.703265E+0	1.679432E+0	1.649944E+0	1.779938E+0	1.695776E+0	1.833100E+0	1.652846E+0	1.612599E+0	1.661379E+0	1.779588E+0	1.784214E+0	1.704912E+0	1.794408E+0	1.783729E+0	1.741898E+0	1.707349E+0	1.749698E+0	1.739128E+0	1.692649E+0	1.749766E+0	1.693667E+0	1.745935E+0	1.808733E+0	1.586290E+0	1.769018E+0	1.639452E+0	1.695683E+0	1.747007E+0	1.746593E+0	1.691396E+0	1.766908E+0	1.706472E+0	1.700657E+0	1.698945E+0	1.827688E+0	1.705428E+0	1.649436E+0	1.761590E+0	1.672871E+0	1.674983E+0	1.685483E+0	1.856080E+0	1.730870E+0	1.771522E+0	1.669997E+0	1.736343E+0	1.616714E+0	1.761520E+0	1.721149E+0	1.747674E+0	1.718981E+0	1.704467E+0	1.741611E+0	1.740201E+0	1.727685E+0	1.664302E+0	1.744369E+0	1.668116E+0	1.717827E+0	1.653818E+0	1.708568E+0	1.773567E+0	1.658631E+0	1.730090E+0	1.806901E+0	1.723566E+0	1.752657E+0	1.699683E+0	1.732781E+0	1.631596E+0	1.652788E+0	1.778569E+0	1.751929E+0	1.651186E+0	1.574487E+0
2.852010E+2	1.468004E+0	1.369651E+0	1.339765E+0	1.447377E+0	1.389849E+0	1.393859E+0	1.347078E+0	1.311615E+0	1.430163E+0	1.269021E+0	1.403073E+0	1.281624E+0	1.348009E+0	1.358967E+0	1.332705E+0	1.301981E+0	1.388443E+0	1.319139E+0	1.245196E+0	1.396284E+0	1.402000E+0	1.247191E+0	1.466767E+0	1.300610E+0	1.457882E+0	1.411369E+0	1.426867E+0	1.287755E+0	1.391540E+0	1.322233E+0	1.328446E+0	1.390462E+0	1.324861E+0	1.309678E+0	1.326512E+0	1.410526E+0	1.342659E+0	1.395486E+0	1.376159E+0	1.425650E+0	1.404322E+0	1.321720E+0	1.343254E+0	1.334882E+0	1.396448E+0	1.422608E+0	1.431618E+0	1.360183E+0	1.372496E+0	1.365200E+0	1.261721E+0	1.345712E+0	1.322653E+0	1.357647E+0	1.271753E+0	1.307237E+0	1.290751E+0	1.273948E+0	1.333416E+0	1.316197E+0	1.357212E+0	1.369950E+0	1.328776E+0	1.420222E+0	1.192272E+0	1.358944E+0	1.297191E+0	1.422757E+0	1.366740E+0	1.321924E+0	1.294624E+0	1.458107E+0	1.352736E+0	1.280678E+0	1.345353E+0	1.365019E+0	1.432567E+0	1.404703E+0	1.375214E+0	1.316018E+0	1.542412E+0	1.325006E+0	1.333800E+0	1.308504E+0	1.418395E+0	1.366954E+0	1.347954E+0	1.395955E+0	1.351485E+0	1.291399E+0	1.325969E+0	1.344269E+0	1.425593E+0	1.336073E+0	1.384681E+0	1.351983E+0	1.370455E+0	1.255959E+0	1.296666E+0	1.466498E+0	1.405696E+0	1.451397E+0	1.406649E+0	1.371014E+0	1.321181E+0	1.304462E+0	1.344387E+0	1.304980E+0	1.361279E+0	1.267724E+0	1.392754E+0	1.378574E+0	1.369381E+0	1.421517E+0	1.420305E+0	1.388801E+0	1.355128E+0	1.326720E+0	1.345454E+0	1.278274E+0	1.424107E+0	1.394493E+0	1.330179E+0	1.427155E+0	1.397164E+0	1.401677E+0	1.330847E+0	1.397337E+0	1.414454E+0	1.394693E+0	1.342342E+0	1.333789E+0	1.370918E+0	1.262082E+0	1.361311E+0	1.291960E+0	1.358555E+0	1.402712E+0	1.405714E+0	1.348766E+0	1.391670E+0	1.398934E+0	1.370717E+0	1.379488E+0	1.456233E+0	1.382313E+0	1.404874E+0	1.411845E+0	1.321389E+0	1.318965E+0	1.362844E+0	1.371180E+0	1.409335E+0	1.442726E+0	1.356763E+0	1.375465E+0	1.391123E+0	1.453170E+0	1.424267E+0	1.384548E+0	1.370676E+0	1.263909E+0	1.360516E+0	1.434180E+0	1.360138E+0	1.400380E+0	1.450694E+0	1.300400E+0	1.399799E+0	1.264221E+0	1.513940E+0
2.853000E+2	8.903216E-1	9.604906E-1	9.058663E-1	9.440035E-1	9.689410E-1	9.205479E-1	9.889312E-1	9.441134E-1	9.403421E-1	9.962703E-1	9.678334E-1	9.477681E-1	8.951961E-1	1.019546E+0	9.565054E-1	9.000865E-1	8.927352E-1	9.127668E-1	8.737401E-1	8.900315E-1	9.315815E-1	9.433848E-1	9.599274E-1	8.713157E-1	9.397372E-1	9.612281E-1	9.875760E-1	8.851775E-1	8.883777E-1	9.421810E-1	9.458784E-1	9.371222E-1	9.259927E-1	9.736825E-1	9.346736E-1	8.937670E-1	9.315312E-1	9.022092E-1	1.012119E+0	9.029378E-1	8.767365E-1	9.664925E-1	9.873100E-1	8.694936E-1	8.847202E-1	1.003018E+0	9.524055E-1	9.441348E-1	9.544416E-1	9.562155E-1	9.119038E-1	9.791770E-1	8.821073E-1	8.957434E-1	9.230704E-1	8.953681E-1	9.414979E-1	9.603039E-1	9.224605E-1	9.461402E-1	1.009763E+0	9.203605E-1	8.902890E-1	9.013632E-1	8.837417E-1	1.005191E+0	9.014112E-1	9.597094E-1	9.275306E-1	8.444335E-1	9.634447E-1	8.907083E-1	9.319328E-1	9.230359E-1	9.349193E-1	1.001241E+0	9.457804E-1	9.519312E-1	9.632767E-1	8.366693E-1	9.715138E-1	8.719979E-1	9.487319E-1	9.096275E-1	9.558066E-1	8.918704E-1	9.810299E-1	9.708713E-1	1.015903E+0	8.917010E-1	9.039777E-1	9.842992E-1	9.729645E-1	9.055621E-1	9.649876E-1	1.016295E+0	9.939800E-1	8.590892E-1	9.101617E-1	9.256404E-1	9.387027E-1	9.079251E-1	9.437664E-1	9.189670E-1	9.696725E-1	9.381331E-1	9.629722E-1	9.566385E-1	9.167671E-1	8.992125E-1	9.864398E-1	9.751442E-1	9.297500E-1	9.872442E-1	9.701364E-1	9.609458E-1	9.935416E-1	9.697315E-1	9.150965E-1	8.632573E-1	1.012473E+0	9.585737E-1	9.377478E-1	1.044636E+0	9.775633E-1	9.644194E-1	9.277973E-1	9.072729E-1	9.602960E-1	9.775344E-1	9.811191E-1	9.271778E-1	9.075928E-1	9.316460E-1	9.579225E-1	8.878040E-1	9.701062E-1	9.747618E-1	8.795081E-1	9.487377E-1	8.846187E-1	9.668657E-1	9.322134E-1	8.952552E-1	9.556596E-1	9.462117E-1	9.833384E-1	9.204817E-1	9.436757E-1	9.167767E-1	8.916388E-1	9.993636E-1	9.747233E-1	9.146297E-1	9.900865E-1	9.718407E-1	9.968583E-1	9.757368E-1	9.593217E-1	9.973814E-1	9.452325E-1	9.079409E-1	9.812826E-1	9.619306E-1	9.983587E-1	9.024909E-1	9.421576E-1	9.525278E-1	1.018673E+0	1.030810E+0	1.032008E+0
2.854010E+2	7.697097E-1	7.654793E-1	7.023607E-1	6.896738E-1	7.433828E-1	7.476388E-1	7.423195E-1	7.197584E-1	6.959552E-1	7.122327E-1	6.599006E-1	7.150972E-1	7.131389E-1	7.332084E-1	6.704182E-1	7.292992E-1	6.874316E-1	6.686638E-1	7.230809E-1	7.167530E-1	6.860014E-1	7.032241E-1	7.421996E-1	7.022366E-1	6.923262E-1	7.638672E-1	7.729487E-1	8.242338E-1	7.342941E-1	7.509717E-1	7.061456E-1	7.327393E-1	7.290237E-1	6.917632E-1	7.473058E-1	7.251161E-1	7.306003E-1	6.779433E-1	7.631297E-1	7.158045E-1	7.407158E-1	7.123944E-1	6.722720E-1	7.722167E-1	7.194429E-1	7.325007E-1	8.067266E-1	7.420309E-1	7.493670E-1	7.840656E-1	7.677665E-1	7.569431E-1	7.311934E-1	6.985578E-1	6.686668E-1	7.391660E-1	7.091232E-1	8.168481E-1	6.703201E-1	7.443191E-1	7.380212E-1	7.902465E-1	7.627351E-1	7.471120E-1	7.243956E-1	6.976206E-1	7.610706E-1	7.625749E-1	7.238361E-1	7.405388E-1	7.445426E-1	7.240451E-1	6.980668E-1	7.702932E-1	7.447241E-1	7.451105E-1	7.071630E-1	7.749517E-1	7.391631E-1	6.851729E-1	7.618365E-1	7.216631E-1	6.867548E-1	6.964228E-1	7.703203E-1	6.972717E-1	6.759307E-1	7.802984E-1	7.330006E-1	6.727869E-1	7.006718E-1	7.200122E-1	7.477015E-1	7.295443E-1	7.367520E-1	7.955803E-1	7.417104E-1	7.336646E-1	7.369823E-1	7.159587E-1	7.260140E-1	7.010298E-1	7.367599E-1	7.321464E-1	8.252879E-1	7.171229E-1	7.323852E-1	6.904662E-1	7.841619E-1	7.584028E-1	7.634377E-1	7.105334E-1	7.773620E-1	7.028461E-1	8.011367E-1	7.400153E-1	6.871757E-1	6.984288E-1	7.739482E-1	6.502146E-1	7.653226E-1	7.044443E-1	7.440003E-1	7.474736E-1	7.401208E-1	7.447524E-1	8.223810E-1	7.517373E-1	7.132944E-1	7.397931E-1	7.427825E-1	7.339012E-1	6.872126E-1	7.447760E-1	7.369034E-1	7.123104E-1	6.550825E-1	7.844307E-1	7.248921E-1	7.518221E-1	7.774930E-1	7.224130E-1	7.076213E-1	6.981125E-1	7.498413E-1	6.716298E-1	7.340269E-1	7.163510E-1	7.217635E-1	7.565796E-1	7.635510E-1	7.331490E-1	7.667135E-1	7.447615E-1	7.364178E-1	6.776180E-1	6.836639E-1	7.775618E-1	7.409595E-1	7.070588E-1	7.284783E-1	7.017087E-1	6.917985E-1	6.821994E-1	7.392986E-1	7.831488E-1	7.659145E-1	7.532630E-1	7.626261E-1	7.712476E-1	7.512700E-1
2.855000E+2	5.150383E-1	5.169917E-1	5.291566E-1	6.009353E-1	5.663403E-1	5.462293E-1	5.810177E-1	5.451978E-1	5.282035E-1	5.546774E-1	5.409269E-1	5.304392E-1	5.169681E-1	5.807971E-1	4.698855E-1	5.009774E-1	5.629511E-1	5.188211E-1	5.638608E-1	5.370900E-1	5.303721E-1	5.223141E-1	5.764323E-1	5.050176E-1	5.379543E-1	5.348348E-1	5.776735E-1	5.877799E-1	6.059225E-1	5.932119E-1	5.670866E-1	5.703521E-1	5.287997E-1	5.497278E-1	5.761307E-1	6.158296E-1	5.074395E-1	5.608704E-1	5.588109E-1	5.434535E-1	5.515630E-1	5.656261E-1	5.193735E-1	5.437770E-1	5.390607E-1	5.623922E-1	5.713921E-1	6.231792E-1	5.572763E-1	6.081426E-1	5.192751E-1	5.507489E-1	5.768631E-1	5.485385E-1	5.428387E-1	6.033084E-1	5.686819E-1	5.416575E-1	5.794731E-1	5.259204E-1	5.451816E-1	5.771812E-1	5.788037E-1	5.621830E-1	5.388413E-1	5.433102E-1	5.109038E-1	4.894983E-1	5.536275E-1	5.700265E-1	5.109058E-1	5.758329E-1	5.517321E-1	5.430646E-1	5.786984E-1	5.569009E-1	5.700482E-1	5.450374E-1	6.059252E-1	5.512641E-1	5.470812E-1	6.243366E-1	5.631533E-1	5.744754E-1	6.520383E-1	6.266736E-1	5.591266E-1	5.939135E-1	5.495297E-1	5.735668E-1	5.935752E-1	5.669157E-1	5.146611E-1	5.745587E-1	6.037808E-1	5.369665E-1	5.846234E-1	5.528713E-1	5.729548E-1	5.306370E-1	5.545035E-1	6.146113E-1	5.769000E-1	5.509857E-1	5.994879E-1	5.864324E-1	5.731021E-1	5.883579E-1	5.510741E-1	5.748882E-1	6.316987E-1	5.587390E-1	5.448806E-1	5.878422E-1	5.679951E-1	5.576015E-1	6.052900E-1	5.678674E-1	5.512931E-1	5.771772E-1	6.092378E-1	5.019811E-1	5.373447E-1	5.777100E-1	5.674548E-1	5.567195E-1	5.772409E-1	5.339094E-1	5.148423E-1	5.638236E-1	5.196144E-1	5.493290E-1	5.465800E-1	6.038991E-1	5.416744E-1	5.324505E-1	5.489775E-1	5.652595E-1	5.755967E-1	5.364361E-1	6.048554E-1	5.771464E-1	5.901434E-1	5.815216E-1	5.338916E-1	5.819785E-1	5.441676E-1	5.655413E-1	5.981326E-1	5.710342E-1	5.535262E-1	6.038931E-1	5.887467E-1	5.545210E-1	5.541881E-1	5.407798E-1	4.918073E-1	5.889366E-1	5.063740E-1	5.785113E-1	5.475521E-1	5.769788E-1	5.497125E-1	5.624928E-1	5.144963E-1	5.606781E-1	5.311587E-1	5.569593E-1	5.636301E-1	5.997793E-1	5.908627E-1
2.856010E+2	3.809380E-1	3.447721E-1	3.853250E-1	3.616594E-1	3.560752E-1	3.637279E-1	4.119435E-1	3.708692E-1	4.282376E-1	3.643219E-1	3.954201E-1	4.027332E-1	3.580448E-1	3.839933E-1	3.775731E-1	3.669139E-1	4.053006E-1	3.731870E-1	4.218759E-1	3.663414E-1	3.317408E-1	3.972672E-1	4.072265E-1	3.318678E-1	3.811185E-1	4.068148E-1	4.183671E-1	3.853799E-1	4.128446E-1	4.008994E-1	4.144950E-1	3.848940E-1	4.224967E-1	3.772124E-1	3.955100E-1	3.791708E-1	3.988342E-1	4.022447E-1	3.635127E-1	3.820932E-1	3.927495E-1	3.926588E-1	3.320168E-1	3.608341E-1	4.163960E-1	4.228050E-1	4.063611E-1	4.033637E-1	3.596308E-1	4.038576E-1	3.690902E-1	4.172999E-1	3.792481E-1	4.612199E-1	4.113494E-1	3.779381E-1	3.711292E-1	4.577973E-1	3.843384E-1	3.466209E-1	3.743428E-1	3.686796E-1	3.940345E-1	3.917904E-1	3.628720E-1	3.366900E-1	4.111139E-1	3.897940E-1	3.975133E-1	3.731167E-1	3.961796E-1	3.911829E-1	3.544147E-1	4.239890E-1	3.795011E-1	4.267260E-1	3.415203E-1	3.511577E-1	3.918470E-1	3.695509E-1	3.855759E-1	3.034778E-1	3.148327E-1	3.782755E-1	4.067132E-1	3.843885E-1	4.065043E-1	3.639355E-1	4.274618E-1	3.937815E-1	3.406952E-1	3.572157E-1	3.563032E-1	3.740204E-1	4.004300E-1	3.458129E-1	3.700891E-1	3.704761E-1	3.883512E-1	4.158521E-1	4.251198E-1	3.545364E-1	3.808626E-1	4.117383E-1	3.804182E-1	3.952201E-1	4.195045E-1	4.656982E-1	3.838592E-1	4.153108E-1	4.616776E-1	4.032742E-1	4.113742E-1	4.204283E-1	4.511243E-1	4.029322E-1	3.595101E-1	3.889067E-1	3.830797E-1	3.358039E-1	3.942122E-1	3.927672E-1	4.332692E-1	4.379200E-1	3.771420E-1	4.075982E-1	3.524175E-1	4.235613E-1	3.782964E-1	3.737131E-1	3.868819E-1	3.816260E-1	3.893964E-1	3.965783E-1	4.281822E-1	3.729981E-1	4.069247E-1	4.072871E-1	3.903157E-1	3.574380E-1	3.833710E-1	3.834521E-1	3.811092E-1	4.265368E-1	3.793431E-1	3.515635E-1	3.395796E-1	3.721848E-1	4.149383E-1	3.539712E-1	3.624323E-1	3.749031E-1	3.545548E-1	3.788740E-1	4.133078E-1	3.620560E-1	3.659806E-1	3.948009E-1	3.996955E-1	3.607432E-1	4.136958E-1	3.886383E-1	3.655673E-1	3.942808E-1	3.630854E-1	3.782443E-1	3.518318E-1	4.371498E-1	4.269506E-1	3.349852E-1	4.172672E-1
2.858030E+2	3.155328E-1	2.401040E-1	2.656618E-1	2.857784E-1	2.693688E-1	3.077164E-1	2.806262E-1	2.769604E-1	2.651849E-1	2.818285E-1	3.044128E-1	2.660945E-1	2.879464E-1	2.825043E-1	2.766636E-1	2.793397E-1	3.035602E-1	2.951130E-1	3.357362E-1	3.204981E-1	3.005400E-1	2.792776E-1	3.039271E-1	3.085125E-1	3.030750E-1	3.527622E-1	2.923703E-1	3.420380E-1	3.250660E-1	2.859175E-1	3.077098E-1	2.996187E-1	3.174103E-1	3.388477E-1	3.193771E-1	3.052340E-1	2.840890E-1	2.969170E-1	3.041865E-1	3.060813E-1	2.890913E-1	2.819773E-1	2.870670E-1	2.971447E-1	3.467172E-1	3.220311E-1	3.067213E-1	2.912180E-1	3.394959E-1	2.953260E-1	3.153458E-1	3.152587E-1	3.441508E-1	2.752977E-1	2.490500E-1	2.634506E-1	3.036178E-1	2.979116E-1	2.784541E-1	2.835452E-1	2.878222E-1	3.223143E-1	2.977749E-1	2.829309E-1	2.774097E-1	3.332498E-1	3.177238E-1	3.413623E-1	3.069152E-1	3.003254E-1	3.170897E-1	3.092553E-1	2.687905E-1	2.885561E-1	3.246147E-1	2.847388E-1	3.073890E-1	3.121079E-1	3.146082E-1	2.825078E-1	3.136065E-1	2.759429E-1	3.297099E-1	2.732245E-1	2.604648E-1	2.588518E-1	3.276970E-1	3.067139E-1	2.944206E-1	2.709925E-1	2.891193E-1	2.782428E-1	3.050195E-1	2.878111E-1	3.239635E-1	3.657391E-1	2.991055E-1	2.910459E-1	3.268166E-1	2.983564E-1	2.556204E-1	3.215163E-1	2.739182E-1	3.036058E-1	3.299392E-1	2.779428E-1	3.053922E-1	3.019911E-1	2.814575E-1	2.915765E-1	3.552618E-1	2.920713E-1	3.124932E-1	3.389792E-1	3.438769E-1	3.217841E-1	3.061297E-1	2.851269E-1	2.979902E-1	2.933546E-1	3.084712E-1	3.075777E-1	3.026407E-1	2.780416E-1	3.035203E-1	2.703746E-1	2.786325E-1	2.596659E-1	2.935379E-1	2.673234E-1	3.028759E-1	3.129856E-1	3.061981E-1	3.031224E-1	2.974673E-1	2.960390E-1	3.006422E-1	2.751862E-1	3.062210E-1	2.586213E-1	3.383159E-1	2.999776E-1	2.874832E-1	2.963154E-1	2.820309E-1	2.976451E-1	2.875824E-1	2.854718E-1	2.783894E-1	2.974105E-1	2.685575E-1	2.778591E-1	3.318496E-1	3.312577E-1	2.711806E-1	2.678801E-1	3.117803E-1	3.003310E-1	2.875559E-1	3.176211E-1	3.220207E-1	2.924696E-1	2.873896E-1	2.677566E-1	3.195421E-1	3.045054E-1	3.281622E-1	2.917781E-1	3.422565E-1	2.652514E-1	2.326951E-1
2.860050E+2	5.802975E-1	5.780864E-1	5.841500E-1	6.035389E-1	5.341984E-1	5.203549E-1	6.140850E-1	6.049427E-1	5.672449E-1	5.520349E-1	5.668552E-1	5.334640E-1	5.555519E-1	6.362833E-1	5.801582E-1	5.582990E-1	5.935050E-1	5.807169E-1	5.217309E-1	5.348349E-1	5.923318E-1	6.204804E-1	6.400069E-1	6.093768E-1	5.789659E-1	6.289652E-1	6.390533E-1	5.682790E-1	5.849346E-1	6.087355E-1	6.245041E-1	5.831047E-1	6.062136E-1	6.251797E-1	6.695557E-1	5.892471E-1	6.003941E-1	5.558441E-1	5.484990E-1	6.111775E-1	6.101448E-1	5.758340E-1	6.094361E-1	6.156796E-1	5.876709E-1	6.434020E-1	5.383560E-1	6.203485E-1	5.856767E-1	5.980325E-1	5.913197E-1	5.861051E-1	6.042245E-1	6.248286E-1	5.817719E-1	5.764542E-1	5.430733E-1	5.822592E-1	6.227033E-1	5.827877E-1	6.395070E-1	5.822856E-1	5.561044E-1	6.492392E-1	5.608033E-1	5.590803E-1	5.760851E-1	6.008395E-1	6.023412E-1	5.865342E-1	5.780354E-1	6.155196E-1	6.071110E-1	5.853314E-1	5.963423E-1	5.765383E-1	6.002066E-1	6.003769E-1	5.889670E-1	6.479225E-1	5.657473E-1	6.170783E-1	5.874074E-1	5.282498E-1	6.227303E-1	6.461129E-1	5.855492E-1	6.041638E-1	6.151994E-1	5.932815E-1	5.875696E-1	5.989422E-1	5.762781E-1	5.648742E-1	6.111837E-1	5.888118E-1	5.376585E-1	5.726128E-1	6.104142E-1	6.410767E-1	5.961628E-1	5.978651E-1	5.417759E-1	5.818804E-1	5.725186E-1	5.463826E-1	6.165707E-1	6.165064E-1	5.471992E-1	5.572088E-1	6.194924E-1	5.689407E-1	5.799532E-1	5.585286E-1	5.598525E-1	5.949329E-1	6.058820E-1	5.899927E-1	6.695823E-1	5.788774E-1	5.589881E-1	5.724712E-1	5.543854E-1	6.312941E-1	5.926173E-1	5.701286E-1	5.310996E-1	5.365178E-1	6.286006E-1	5.716613E-1	6.087501E-1	5.521669E-1	5.722244E-1	5.418477E-1	5.496226E-1	6.065170E-1	6.061067E-1	6.344676E-1	5.307025E-1	6.150512E-1	5.790795E-1	5.699197E-1	5.782508E-1	5.687582E-1	5.877793E-1	5.417811E-1	5.364820E-1	5.905261E-1	5.908197E-1	5.830517E-1	5.959804E-1	5.407075E-1	6.173435E-1	6.260698E-1	6.156307E-1	5.907345E-1	5.955293E-1	5.753654E-1	5.789322E-1	5.803393E-1	5.765570E-1	5.729500E-1	5.444396E-1	6.165263E-1	5.220068E-1	6.035133E-1	6.231040E-1	6.024898E-1	6.240688E-1	6.313289E-1	4.463084E-1
2.862030E+2	1.193823E+0	1.192480E+0	1.219844E+0	1.158074E+0	1.216789E+0	1.267338E+0	1.185824E+0	1.137314E+0	1.274434E+0	1.167426E+0	1.211269E+0	1.167602E+0	1.174440E+0	1.214135E+0	1.205791E+0	1.171580E+0	1.210446E+0	1.198670E+0	1.167384E+0	1.220721E+0	1.324237E+0	1.179523E+0	1.250321E+0	1.184051E+0	1.146466E+0	1.202246E+0	1.233694E+0	1.190050E+0	1.255438E+0	1.177487E+0	1.249169E+0	1.187725E+0	1.192622E+0	1.153446E+0	1.208119E+0	1.206262E+0	1.231081E+0	1.263329E+0	1.214314E+0	1.275511E+0	1.191230E+0	1.270118E+0	1.299461E+0	1.188206E+0	1.188947E+0	1.207760E+0	1.224112E+0	1.184896E+0	1.176197E+0	1.223683E+0	1.237365E+0	1.223273E+0	1.219965E+0	1.173851E+0	1.174279E+0	1.175126E+0	1.243285E+0	1.269262E+0	1.124631E+0	1.252452E+0	1.260610E+0	1.232633E+0	1.208098E+0	1.283621E+0	1.169720E+0	1.260468E+0	1.254731E+0	1.252689E+0	1.227538E+0	1.170770E+0	1.252636E+0	1.197978E+0	1.226111E+0	1.175066E+0	1.279379E+0	1.113211E+0	1.265585E+0	1.282711E+0	1.244350E+0	1.235688E+0	1.306713E+0	1.315502E+0	1.196686E+0	1.223734E+0	1.238832E+0	1.213650E+0	1.218181E+0	1.131600E+0	1.223574E+0	1.232446E+0	1.200437E+0	1.159174E+0	1.144233E+0	1.146719E+0	1.164694E+0	1.286404E+0	1.204198E+0	1.118592E+0	1.215606E+0	1.253828E+0	1.219455E+0	1.263130E+0	1.196406E+0	1.165791E+0	1.187326E+0	1.211035E+0	1.200986E+0	1.271626E+0	1.086638E+0	1.116693E+0	1.246730E+0	1.186974E+0	1.260887E+0	1.198593E+0	1.249253E+0	1.263128E+0	1.216558E+0	1.218953E+0	1.196035E+0	1.208016E+0	1.182496E+0	1.156091E+0	1.203473E+0	1.243013E+0	1.169926E+0	1.219054E+0	1.175266E+0	1.287122E+0	1.235523E+0	1.222478E+0	1.220968E+0	1.188061E+0	1.196765E+0	1.252453E+0	1.281685E+0	1.197185E+0	1.184304E+0	1.281937E+0	1.163243E+0	1.235267E+0	1.181376E+0	1.273363E+0	1.188777E+0	1.215045E+0	1.227996E+0	1.077777E+0	1.211512E+0	1.230499E+0	1.243786E+0	1.144309E+0	1.269510E+0	1.194289E+0	1.241019E+0	1.173362E+0	1.249081E+0	1.157335E+0	1.263460E+0	1.259342E+0	1.250032E+0	1.191737E+0	1.241425E+0	1.193921E+0	1.254164E+0	1.195281E+0	1.255169E+0	1.180159E+0	1.105860E+0	1.218908E+0	1.187078E+0	1.261286E+0	1.222348E+0
2.864210E+2	1.411913E+0	1.302374E+0	1.399911E+0	1.435119E+0	1.394106E+0	1.326062E+0	1.292958E+0	1.368632E+0	1.339386E+0	1.370886E+0	1.406553E+0	1.408657E+0	1.355070E+0	1.413801E+0	1.426847E+0	1.345694E+0	1.369420E+0	1.295658E+0	1.271130E+0	1.284156E+0	1.372522E+0	1.373011E+0	1.299362E+0	1.359457E+0	1.271068E+0	1.318015E+0	1.417290E+0	1.270427E+0	1.351437E+0	1.295780E+0	1.333013E+0	1.366714E+0	1.309071E+0	1.318626E+0	1.352070E+0	1.283890E+0	1.368070E+0	1.336781E+0	1.386974E+0	1.279533E+0	1.306361E+0	1.373038E+0	1.385604E+0	1.324897E+0	1.335528E+0	1.403436E+0	1.430596E+0	1.406249E+0	1.275547E+0	1.378541E+0	1.303822E+0	1.412282E+0	1.387022E+0	1.311928E+0	1.386954E+0	1.317691E+0	1.266987E+0	1.352767E+0	1.346159E+0	1.249477E+0	1.362303E+0	1.373023E+0	1.370698E+0	1.531430E+0	1.357897E+0	1.382123E+0	1.373872E+0	1.383314E+0	1.318474E+0	1.301756E+0	1.321728E+0	1.327560E+0	1.326964E+0	1.383575E+0	1.338651E+0	1.371913E+0	1.321041E+0	1.458798E+0	1.374254E+0	1.390037E+0	1.424817E+0	1.288977E+0	1.373496E+0	1.327330E+0	1.320238E+0	1.340636E+0	1.394548E+0	1.335406E+0	1.411887E+0	1.409192E+0	1.234913E+0	1.408880E+0	1.405474E+0	1.366649E+0	1.370615E+0	1.434454E+0	1.325956E+0	1.255499E+0	1.338451E+0	1.407824E+0	1.403798E+0	1.267834E+0	1.392553E+0	1.293293E+0	1.305827E+0	1.330835E+0	1.406319E+0	1.349854E+0	1.358008E+0	1.309018E+0	1.343882E+0	1.256520E+0	1.440362E+0	1.388438E+0	1.389019E+0	1.282218E+0	1.296713E+0	1.296254E+0	1.418148E+0	1.353486E+0	1.377279E+0	1.386703E+0	1.361170E+0	1.363279E+0	1.347723E+0	1.475927E+0	1.324632E+0	1.349102E+0	1.353106E+0	1.391335E+0	1.383102E+0	1.478484E+0	1.379108E+0	1.365958E+0	1.348888E+0	1.371063E+0	1.392945E+0	1.377324E+0	1.378797E+0	1.394455E+0	1.392707E+0	1.457777E+0	1.324144E+0	1.359757E+0	1.442596E+0	1.398861E+0	1.341778E+0	1.399760E+0	1.301650E+0	1.333761E+0	1.357765E+0	1.337897E+0	1.411508E+0	1.357278E+0	1.380047E+0	1.383489E+0	1.387490E+0	1.306046E+0	1.392811E+0	1.427497E+0	1.366930E+0	1.317254E+0	1.319395E+0	1.335138E+0	1.438930E+0	1.337940E+0	1.323620E+0	1.326917E+0	1.379111E+0	1.386918E+0	1.389003E+0
2.866160E+2	1.129423E+0	1.052383E+0	1.144987E+0	1.071595E+0	1.148899E+0	1.128184E+0	1.123393E+0	1.138009E+0	1.115501E+0	1.083212E+0	1.162293E+0	1.040775E+0	1.171330E+0	1.119814E+0	1.131136E+0	1.052906E+0	1.148197E+0	1.099954E+0	1.128684E+0	1.116603E+0	1.119068E+0	1.124036E+0	1.201552E+0	1.064361E+0	1.158266E+0	1.171528E+0	1.148105E+0	1.146692E+0	1.122418E+0	1.198973E+0	1.111949E+0	1.145623E+0	1.107114E+0	1.130602E+0	1.135222E+0	1.113509E+0	1.101014E+0	1.161522E+0	1.121581E+0	1.113846E+0	1.107782E+0	1.166514E+0	1.147596E+0	1.140447E+0	1.064480E+0	1.138331E+0	1.111888E+0	1.240764E+0	1.141645E+0	1.191517E+0	1.158319E+0	1.150800E+0	1.091477E+0	1.092366E+0	1.125024E+0	1.151034E+0	1.165309E+0	1.081673E+0	1.100292E+0	1.143885E+0	1.111636E+0	1.116877E+0	1.067368E+0	1.115653E+0	1.115641E+0	1.168991E+0	1.103270E+0	1.154872E+0	1.117363E+0	1.133610E+0	1.158704E+0	1.143635E+0	1.095577E+0	1.113998E+0	1.164071E+0	1.069563E+0	1.100892E+0	1.177664E+0	1.119189E+0	1.116181E+0	1.093665E+0	1.125402E+0	1.092727E+0	1.150730E+0	1.142020E+0	1.119377E+0	1.174912E+0	1.100878E+0	1.159253E+0	1.164805E+0	1.103067E+0	1.075667E+0	1.112418E+0	1.155300E+0	1.060937E+0	1.104564E+0	1.122946E+0	1.083297E+0	1.136563E+0	1.107298E+0	1.117761E+0	1.110620E+0	1.142665E+0	1.072931E+0	1.194297E+0	1.155422E+0	1.127287E+0	1.093303E+0	1.090490E+0	1.188765E+0	1.179787E+0	1.047701E+0	1.192093E+0	1.052246E+0	1.132771E+0	1.138969E+0	1.110736E+0	1.122460E+0	1.098156E+0	1.058676E+0	1.092206E+0	1.173110E+0	1.114542E+0	1.180683E+0	1.132586E+0	1.127075E+0	1.188246E+0	1.172784E+0	1.170718E+0	1.118909E+0	1.149165E+0	1.133487E+0	1.134932E+0	1.142085E+0	1.162120E+0	1.163338E+0	1.123473E+0	1.194013E+0	1.105909E+0	1.185127E+0	1.142727E+0	1.206484E+0	1.092944E+0	1.147187E+0	1.137944E+0	1.235244E+0	1.146199E+0	1.092388E+0	1.074020E+0	1.103907E+0	1.144719E+0	1.130490E+0	1.142520E+0	1.090344E+0	1.147899E+0	1.129236E+0	1.154915E+0	1.147318E+0	1.076541E+0	1.110265E+0	1.214637E+0	1.095502E+0	1.084264E+0	1.136926E+0	1.114375E+0	1.104859E+0	1.150308E+0	1.130563E+0	1.190123E+0	1.169116E+0	1.227711E+0
2.868020E+2	1.418732E+0	1.416207E+0	1.395971E+0	1.468664E+0	1.506982E+0	1.357958E+0	1.392725E+0	1.439796E+0	1.438079E+0	1.349872E+0	1.421769E+0	1.394469E+0	1.373807E+0	1.533044E+0	1.404951E+0	1.432353E+0	1.437880E+0	1.414455E+0	1.419623E+0	1.373124E+0	1.472715E+0	1.500123E+0	1.412528E+0	1.372556E+0	1.481448E+0	1.357001E+0	1.445114E+0	1.399950E+0	1.429516E+0	1.380877E+0	1.392849E+0	1.342289E+0	1.396261E+0	1.319077E+0	1.374088E+0	1.464281E+0	1.374924E+0	1.411421E+0	1.424013E+0	1.471832E+0	1.414498E+0	1.432772E+0	1.540183E+0	1.365312E+0	1.399991E+0	1.424087E+0	1.399452E+0	1.383939E+0	1.442519E+0	1.469618E+0	1.394253E+0	1.448064E+0	1.496226E+0	1.417301E+0	1.470925E+0	1.441326E+0	1.429099E+0	1.432052E+0	1.452924E+0	1.417172E+0	1.480126E+0	1.435367E+0	1.402809E+0	1.453474E+0	1.460741E+0	1.454008E+0	1.452399E+0	1.384099E+0	1.430117E+0	1.358878E+0	1.470419E+0	1.513088E+0	1.370307E+0	1.437295E+0	1.403446E+0	1.388677E+0	1.339589E+0	1.470901E+0	1.455543E+0	1.384658E+0	1.450091E+0	1.415199E+0	1.405783E+0	1.406033E+0	1.423824E+0	1.412240E+0	1.413222E+0	1.397404E+0	1.445109E+0	1.460832E+0	1.377916E+0	1.372817E+0	1.415621E+0	1.409718E+0	1.429031E+0	1.427879E+0	1.502266E+0	1.341437E+0	1.414026E+0	1.423480E+0	1.380508E+0	1.343727E+0	1.464467E+0	1.366872E+0	1.473207E+0	1.491105E+0	1.404582E+0	1.377294E+0	1.329809E+0	1.425976E+0	1.425076E+0	1.436147E+0	1.477261E+0	1.411894E+0	1.525203E+0	1.433875E+0	1.392309E+0	1.371092E+0	1.391693E+0	1.367811E+0	1.389911E+0	1.374143E+0	1.449928E+0	1.435927E+0	1.410536E+0	1.426018E+0	1.397364E+0	1.407228E+0	1.472505E+0	1.476546E+0	1.372597E+0	1.433644E+0	1.464299E+0	1.395973E+0	1.502916E+0	1.345755E+0	1.370534E+0	1.501064E+0	1.407047E+0	1.450519E+0	1.361889E+0	1.469867E+0	1.506510E+0	1.421351E+0	1.357096E+0	1.452829E+0	1.372233E+0	1.405297E+0	1.466770E+0	1.362349E+0	1.377084E+0	1.380406E+0	1.347567E+0	1.371052E+0	1.380174E+0	1.449291E+0	1.382246E+0	1.465564E+0	1.439699E+0	1.417992E+0	1.399595E+0	1.352837E+0	1.378218E+0	1.433589E+0	1.449254E+0	1.427942E+0	1.407887E+0	1.377665E+0	1.509184E+0	1.623480E+0	1.379590E+0
2.870100E+2	1.412120E+0	1.472333E+0	1.527659E+0	1.486752E+0	1.483228E+0	1.468639E+0	1.451002E+0	1.469397E+0	1.435653E+0	1.462727E+0	1.533796E+0	1.412062E+0	1.498729E+0	1.531821E+0	1.470670E+0	1.395006E+0	1.434172E+0	1.380577E+0	1.483793E+0	1.418667E+0	1.509399E+0	1.427337E+0	1.424128E+0	1.315970E+0	1.348756E+0	1.378461E+0	1.378839E+0	1.377058E+0	1.382388E+0	1.412413E+0	1.335805E+0	1.504647E+0	1.375158E+0	1.407693E+0	1.401453E+0	1.490366E+0	1.319628E+0	1.375968E+0	1.403505E+0	1.443572E+0	1.253690E+0	1.373251E+0	1.528978E+0	1.360264E+0	1.443567E+0	1.408306E+0	1.427045E+0	1.354783E+0	1.335262E+0	1.429045E+0	1.410688E+0	1.404734E+0	1.425487E+0	1.411718E+0	1.410345E+0	1.383869E+0	1.481126E+0	1.387967E+0	1.433020E+0	1.421185E+0	1.441483E+0	1.381562E+0	1.335072E+0	1.441141E+0	1.419318E+0	1.394233E+0	1.421972E+0	1.439253E+0	1.405816E+0	1.402287E+0	1.479295E+0	1.429642E+0	1.414291E+0	1.430265E+0	1.413802E+0	1.437944E+0	1.399051E+0	1.389874E+0	1.425225E+0	1.307314E+0	1.493377E+0	1.385030E+0	1.339171E+0	1.403075E+0	1.443677E+0	1.397555E+0	1.432258E+0	1.401264E+0	1.494611E+0	1.422684E+0	1.376395E+0	1.433550E+0	1.370543E+0	1.429043E+0	1.389864E+0	1.416915E+0	1.346841E+0	1.394061E+0	1.290869E+0	1.525951E+0	1.433964E+0	1.381341E+0	1.475090E+0	1.341167E+0	1.463049E+0	1.378996E+0	1.424693E+0	1.393988E+0	1.379148E+0	1.428794E+0	1.513877E+0	1.352824E+0	1.411017E+0	1.392700E+0	1.499816E+0	1.349054E+0	1.434191E+0	1.383284E+0	1.474806E+0	1.453482E+0	1.411553E+0	1.480882E+0	1.471450E+0	1.399297E+0	1.476568E+0	1.495914E+0	1.418783E+0	1.390655E+0	1.468016E+0	1.410217E+0	1.424354E+0	1.375158E+0	1.472552E+0	1.435777E+0	1.511059E+0	1.380408E+0	1.441544E+0	1.387773E+0	1.515350E+0	1.421971E+0	1.395952E+0	1.414236E+0	1.441168E+0	1.402205E+0	1.467474E+0	1.375568E+0	1.462451E+0	1.475009E+0	1.414056E+0	1.435851E+0	1.413482E+0	1.346509E+0	1.469457E+0	1.368395E+0	1.391752E+0	1.398992E+0	1.484409E+0	1.440373E+0	1.442884E+0	1.424498E+0	1.503079E+0	1.311154E+0	1.399779E+0	1.337366E+0	1.521494E+0	1.417270E+0	1.483924E+0	1.401006E+0	1.499939E+0	1.379840E+0	1.513641E+0
2.872160E+2	1.016050E+0	9.948621E-1	1.017493E+0	9.909078E-1	9.705872E-1	9.756318E-1	9.867115E-1	1.014460E+0	9.638428E-1	9.833016E-1	1.010597E+0	9.801505E-1	1.046933E+0	9.693809E-1	9.897704E-1	1.027828E+0	1.005251E+0	9.539992E-1	9.178476E-1	1.002219E+0	1.005551E+0	1.034635E+0	9.686491E-1	9.647330E-1	9.715180E-1	9.482264E-1	9.805417E-1	1.044744E+0	1.004119E+0	9.755373E-1	9.755675E-1	1.005256E+0	9.487123E-1	9.871266E-1	1.023606E+0	9.539711E-1	9.808776E-1	1.025567E+0	9.700316E-1	9.807106E-1	1.028153E+0	9.871437E-1	9.558848E-1	9.371736E-1	9.435488E-1	1.015466E+0	1.045398E+0	1.028953E+0	1.008732E+0	9.993400E-1	1.011003E+0	9.717457E-1	9.761875E-1	1.002793E+0	1.038685E+0	9.787116E-1	9.683413E-1	9.556746E-1	9.881989E-1	1.020805E+0	1.006960E+0	1.020030E+0	9.983378E-1	1.056175E+0	9.705318E-1	1.010586E+0	9.916597E-1	1.074770E+0	1.002915E+0	9.673064E-1	9.610765E-1	9.621922E-1	9.253204E-1	9.478485E-1	9.967816E-1	1.028814E+0	9.707804E-1	1.011402E+0	1.038769E+0	9.810148E-1	9.309020E-1	9.819730E-1	9.579760E-1	9.872933E-1	1.017548E+0	9.718687E-1	1.059117E+0	9.454593E-1	9.473484E-1	9.918474E-1	1.000554E+0	1.018601E+0	1.019560E+0	9.419753E-1	9.706711E-1	1.024074E+0	9.929979E-1	9.750022E-1	9.446770E-1	1.031813E+0	1.045453E+0	1.029599E+0	1.059565E+0	9.957527E-1	9.788196E-1	1.011509E+0	1.006745E+0	1.013612E+0	1.001721E+0	9.537338E-1	1.061344E+0	1.019674E+0	1.028967E+0	9.723867E-1	1.010398E+0	9.276059E-1	1.048615E+0	9.607955E-1	1.012537E+0	9.928920E-1	1.053804E+0	9.881338E-1	1.026220E+0	1.034422E+0	1.019135E+0	1.013204E+0	1.025418E+0	1.002884E+0	1.048353E+0	9.817107E-1	1.032840E+0	9.582725E-1	1.012155E+0	1.011011E+0	1.040195E+0	9.453738E-1	1.027418E+0	9.949303E-1	1.042919E+0	9.993876E-1	9.979177E-1	9.731930E-1	1.020069E+0	9.785658E-1	1.084809E+0	9.696430E-1	1.033391E+0	1.020146E+0	9.444244E-1	1.034014E+0	1.044845E+0	9.416047E-1	1.066564E+0	9.689585E-1	1.075347E+0	1.029142E+0	9.490160E-1	9.938064E-1	1.000013E+0	9.663171E-1	1.103931E+0	9.507431E-1	9.803642E-1	9.990456E-1	9.919399E-1	1.016674E+0	9.980370E-1	1.051232E+0	1.103869E+0	1.004184E+0	9.962243E-1
2.874030E+2	6.460804E-1	6.450952E-1	6.927751E-1	6.846096E-1	6.571780E-1	6.557596E-1	6.824718E-1	6.748910E-1	7.317756E-1	6.611997E-1	6.709168E-1	6.464914E-1	6.407292E-1	6.198903E-1	6.526109E-1	6.261825E-1	6.606732E-1	7.043183E-1	6.699199E-1	6.584461E-1	7.253595E-1	6.856133E-1	6.743385E-1	6.301281E-1	6.625351E-1	6.604227E-1	6.776118E-1	6.474315E-1	7.070949E-1	6.375990E-1	6.419340E-1	6.497652E-1	6.827546E-1	6.630303E-1	7.476804E-1	6.944483E-1	6.338652E-1	6.960803E-1	6.548052E-1	6.849350E-1	6.557224E-1	6.894076E-1	6.775581E-1	6.548291E-1	6.300292E-1	6.643440E-1	7.318923E-1	6.188937E-1	6.503429E-1	6.942228E-1	6.793775E-1	6.534637E-1	7.137425E-1	6.816216E-1	6.723509E-1	6.642612E-1	6.927546E-1	6.983297E-1	6.903013E-1	6.693586E-1	6.904349E-1	6.721557E-1	6.708681E-1	7.216819E-1	6.423340E-1	7.385727E-1	6.645642E-1	7.201694E-1	7.140670E-1	6.241438E-1	7.183943E-1	7.050098E-1	6.963002E-1	6.993281E-1	6.867516E-1	7.016217E-1	6.461840E-1	7.145535E-1	6.827137E-1	6.205994E-1	6.800735E-1	6.650125E-1	6.702140E-1	7.184883E-1	7.131082E-1	6.608124E-1	6.902494E-1	7.077885E-1	6.150864E-1	7.288533E-1	7.231781E-1	7.251627E-1	6.600086E-1	6.768210E-1	6.715205E-1	7.028709E-1	7.320691E-1	6.492234E-1	6.313061E-1	7.464820E-1	6.546163E-1	6.701690E-1	7.135174E-1	7.155899E-1	7.281559E-1	6.799966E-1	6.682043E-1	6.203949E-1	6.590097E-1	6.023421E-1	6.912959E-1	6.666859E-1	7.111082E-1	6.961207E-1	7.126618E-1	7.358791E-1	6.694099E-1	6.428640E-1	6.749017E-1	6.102827E-1	6.458846E-1	7.049618E-1	6.929660E-1	6.753340E-1	7.185494E-1	6.900467E-1	6.856152E-1	6.645311E-1	6.559518E-1	6.677251E-1	7.187503E-1	6.527710E-1	6.689631E-1	6.628663E-1	7.071876E-1	6.654141E-1	6.682597E-1	6.303693E-1	6.533142E-1	6.697817E-1	7.270465E-1	7.111574E-1	6.804037E-1	6.878558E-1	6.846151E-1	6.864544E-1	6.779742E-1	7.420855E-1	7.087285E-1	6.692420E-1	6.978730E-1	6.756274E-1	6.602314E-1	6.332239E-1	6.742768E-1	6.456244E-1	6.993673E-1	6.628400E-1	6.817358E-1	6.326649E-1	7.411622E-1	6.466741E-1	7.503761E-1	6.824532E-1	7.296834E-1	6.570172E-1	6.778966E-1	6.842366E-1	6.723347E-1	7.665804E-1	6.763672E-1
2.876200E+2	6.394873E-1	6.341322E-1	5.870173E-1	6.158813E-1	6.242829E-1	5.633365E-1	6.248641E-1	6.239958E-1	5.788748E-1	6.514899E-1	6.098083E-1	5.737353E-1	5.686936E-1	6.057398E-1	6.083318E-1	6.647467E-1	5.818426E-1	6.428112E-1	5.899317E-1	6.374887E-1	6.386381E-1	5.999344E-1	6.243090E-1	6.068235E-1	6.319764E-1	5.982905E-1	6.316708E-1	6.370827E-1	6.135712E-1	6.053905E-1	5.593180E-1	6.188073E-1	6.389096E-1	5.296651E-1	6.091170E-1	6.040517E-1	6.003138E-1	5.861820E-1	6.290965E-1	5.950247E-1	5.907452E-1	6.694818E-1	5.891996E-1	6.648822E-1	5.717050E-1	5.932851E-1	6.303970E-1	6.425003E-1	5.869692E-1	6.995220E-1	5.825402E-1	5.614794E-1	5.950721E-1	5.758245E-1	6.605250E-1	5.864810E-1	6.109084E-1	6.501459E-1	6.512796E-1	6.598928E-1	6.363250E-1	6.345890E-1	6.182214E-1	6.170126E-1	6.500947E-1	5.430768E-1	6.182405E-1	5.950550E-1	6.125432E-1	6.390798E-1	6.117099E-1	6.049674E-1	6.070129E-1	5.841205E-1	5.976375E-1	5.631001E-1	5.830721E-1	6.361128E-1	5.582538E-1	5.836700E-1	6.484140E-1	6.432676E-1	5.913171E-1	5.971349E-1	6.201961E-1	5.741815E-1	6.199215E-1	5.875761E-1	6.406860E-1	6.241516E-1	5.519285E-1	6.432915E-1	5.958321E-1	6.026177E-1	6.150435E-1	6.289746E-1	6.327156E-1	5.982067E-1	6.706618E-1	6.504190E-1	5.606652E-1	6.251422E-1	6.228456E-1	5.933278E-1	5.992609E-1	6.100190E-1	6.157220E-1	6.161318E-1	6.148011E-1	5.970766E-1	6.137160E-1	6.424054E-1	6.024864E-1	5.895571E-1	6.869321E-1	6.505441E-1	6.351081E-1	6.179682E-1	5.804924E-1	5.880486E-1	6.369993E-1	6.030931E-1	5.986445E-1	6.156817E-1	6.367240E-1	6.457555E-1	5.852755E-1	6.181337E-1	6.323258E-1	6.193693E-1	6.156563E-1	6.066677E-1	6.440641E-1	6.193768E-1	5.833524E-1	5.431836E-1	5.937807E-1	6.496618E-1	5.778631E-1	5.959529E-1	6.345171E-1	6.139496E-1	5.702105E-1	5.949308E-1	6.530603E-1	5.938672E-1	5.969771E-1	6.302158E-1	5.591099E-1	6.758081E-1	6.124133E-1	6.026187E-1	6.151239E-1	5.949027E-1	5.877863E-1	6.100525E-1	6.627105E-1	5.977811E-1	6.139217E-1	5.855258E-1	6.357397E-1	6.189624E-1	6.121980E-1	6.126136E-1	6.190439E-1	6.360637E-1	6.411296E-1	6.348796E-1	6.127968E-1	6.884264E-1	6.360700E-1
2.878020E+2	6.167058E-1	5.747562E-1	6.021014E-1	5.742484E-1	6.374729E-1	5.983352E-1	5.908966E-1	5.588832E-1	6.063340E-1	6.192371E-1	5.979622E-1	5.985827E-1	6.251770E-1	6.240499E-1	6.222459E-1	6.105080E-1	5.869713E-1	5.747996E-1	6.348068E-1	5.948229E-1	6.173524E-1	6.374616E-1	6.813797E-1	6.389252E-1	6.247854E-1	6.500824E-1	6.418909E-1	6.356245E-1	6.435823E-1	6.069693E-1	6.236865E-1	6.189398E-1	6.631484E-1	6.045136E-1	6.463039E-1	7.256452E-1	5.497266E-1	5.922451E-1	6.184011E-1	6.040556E-1	6.075845E-1	6.272495E-1	6.234080E-1	6.291113E-1	6.136474E-1	6.108906E-1	6.396784E-1	5.811614E-1	6.076249E-1	6.151732E-1	6.366504E-1	6.446538E-1	6.823464E-1	5.723485E-1	5.911607E-1	5.916608E-1	6.294483E-1	6.164755E-1	6.044151E-1	5.864830E-1	6.185271E-1	6.746908E-1	6.357225E-1	6.373653E-1	6.551661E-1	6.358992E-1	6.570426E-1	6.171973E-1	6.383400E-1	5.965247E-1	6.340793E-1	6.376083E-1	6.159380E-1	6.140798E-1	6.660742E-1	6.318487E-1	6.086385E-1	6.690921E-1	6.139174E-1	6.313832E-1	5.606894E-1	6.104099E-1	6.097049E-1	6.085131E-1	6.091973E-1	6.052743E-1	6.069695E-1	6.085022E-1	6.419080E-1	6.194960E-1	6.542487E-1	6.469313E-1	6.664948E-1	6.277785E-1	6.203880E-1	6.421304E-1	6.194866E-1	6.176110E-1	6.243960E-1	6.039297E-1	5.783314E-1	6.288497E-1	6.160303E-1	5.780510E-1	6.179758E-1	5.919470E-1	6.113976E-1	5.887416E-1	6.076174E-1	6.871378E-1	6.261700E-1	5.980261E-1	6.303926E-1	6.303084E-1	6.536253E-1	6.337425E-1	6.171885E-1	5.927630E-1	5.942198E-1	5.698975E-1	5.686571E-1	6.104888E-1	6.117150E-1	6.351271E-1	6.237389E-1	6.711164E-1	5.992526E-1	5.960802E-1	6.480894E-1	6.207115E-1	6.948459E-1	6.694385E-1	6.327733E-1	6.585252E-1	6.282224E-1	6.190930E-1	6.524050E-1	6.177751E-1	5.982491E-1	5.858378E-1	5.978395E-1	6.045273E-1	6.577683E-1	6.178828E-1	6.543523E-1	6.273419E-1	5.826694E-1	6.582070E-1	6.438913E-1	5.889212E-1	6.374239E-1	6.353554E-1	5.885296E-1	6.448126E-1	6.532786E-1	5.759978E-1	6.390225E-1	6.874678E-1	6.350763E-1	6.365100E-1	6.012060E-1	6.097548E-1	6.092417E-1	6.280317E-1	6.333405E-1	6.184569E-1	6.450762E-1	6.311584E-1	6.302018E-1	5.986720E-1	7.017636E-1
2.880020E+2	6.599946E-1	6.209131E-1	6.725478E-1	6.019273E-1	6.115747E-1	6.660889E-1	6.629094E-1	6.384890E-1	6.913527E-1	6.506410E-1	6.646828E-1	6.453699E-1	6.319744E-1	6.393094E-1	6.039569E-1	6.374365E-1	6.722330E-1	5.803213E-1	5.956028E-1	6.597729E-1	7.195451E-1	6.096642E-1	6.516102E-1	6.211623E-1	6.462690E-1	6.873355E-1	6.616786E-1	6.613777E-1	6.304857E-1	6.288431E-1	6.168945E-1	6.889664E-1	6.327987E-1	5.936217E-1	6.190821E-1	6.571229E-1	6.897035E-1	6.439721E-1	6.718303E-1	6.324827E-1	5.992294E-1	6.908663E-1	6.053147E-1	6.586459E-1	6.149198E-1	6.106668E-1	6.707795E-1	6.834340E-1	6.574316E-1	6.150744E-1	6.083433E-1	6.387190E-1	6.422180E-1	7.105731E-1	6.489999E-1	6.369440E-1	6.171279E-1	6.468745E-1	7.116771E-1	6.800915E-1	6.900758E-1	6.870656E-1	5.957157E-1	6.807038E-1	6.163920E-1	6.871739E-1	6.533946E-1	6.278731E-1	6.545285E-1	6.543697E-1	6.432155E-1	6.469824E-1	6.008270E-1	6.119381E-1	6.086089E-1	7.206134E-1	6.771696E-1	6.332695E-1	6.686016E-1	6.474006E-1	7.131696E-1	6.759282E-1	6.366344E-1	6.395795E-1	6.619731E-1	6.238243E-1	6.174124E-1	6.786595E-1	6.255775E-1	6.363291E-1	6.598141E-1	6.282658E-1	6.869218E-1	6.042175E-1	6.930337E-1	6.716616E-1	6.484364E-1	6.258745E-1	7.426564E-1	6.646123E-1	6.880104E-1	6.706930E-1	6.662740E-1	6.779237E-1	6.893333E-1	6.740147E-1	6.601714E-1	6.939261E-1	5.935048E-1	6.316794E-1	6.830638E-1	6.365364E-1	6.618697E-1	6.690495E-1	6.063218E-1	6.106056E-1	6.750834E-1	6.280019E-1	6.755636E-1	6.693938E-1	6.202600E-1	6.289113E-1	6.449446E-1	6.282926E-1	6.291594E-1	6.347400E-1	6.062002E-1	7.012759E-1	6.647766E-1	6.186623E-1	7.526238E-1	6.443014E-1	6.608000E-1	7.159979E-1	6.621319E-1	6.483967E-1	6.062653E-1	6.424850E-1	6.372119E-1	6.673318E-1	6.412949E-1	6.529763E-1	6.436072E-1	6.119911E-1	6.438942E-1	6.200679E-1	6.914158E-1	6.394679E-1	6.510447E-1	6.863007E-1	6.282637E-1	6.566904E-1	6.890881E-1	6.055560E-1	6.547793E-1	6.230575E-1	6.102855E-1	6.831454E-1	6.935349E-1	6.004645E-1	6.157488E-1	5.855430E-1	6.931965E-1	6.119476E-1	6.637695E-1	6.211837E-1	6.492947E-1	6.784273E-1	6.534235E-1	6.810354E-1	7.063091E-1
2.882020E+2	6.434728E-1	6.626891E-1	6.327430E-1	5.960867E-1	7.009183E-1	7.038626E-1	6.782798E-1	6.438026E-1	6.317841E-1	6.309362E-1	6.686485E-1	6.271913E-1	6.114127E-1	6.341577E-1	6.494915E-1	6.351013E-1	6.787950E-1	5.879450E-1	6.149430E-1	6.154427E-1	7.212976E-1	6.235979E-1	7.127445E-1	6.450544E-1	6.985605E-1	6.890233E-1	6.496945E-1	6.361415E-1	7.008105E-1	6.682397E-1	6.555101E-1	6.686393E-1	6.726240E-1	7.056541E-1	6.246537E-1	7.499702E-1	6.301420E-1	6.807065E-1	6.676396E-1	6.920458E-1	6.490131E-1	6.803034E-1	6.813991E-1	6.338560E-1	6.054667E-1	6.683480E-1	6.203327E-1	6.984436E-1	6.002175E-1	7.110747E-1	7.020376E-1	6.124037E-1	7.384924E-1	6.845969E-1	6.783777E-1	6.085943E-1	6.477811E-1	6.155057E-1	6.706044E-1	7.080575E-1	6.950303E-1	6.306300E-1	6.410196E-1	6.392560E-1	6.454353E-1	7.026792E-1	6.454346E-1	6.533702E-1	6.450655E-1	6.704899E-1	6.736946E-1	6.702965E-1	6.478349E-1	6.189001E-1	6.848800E-1	6.901817E-1	6.692711E-1	6.764527E-1	6.872662E-1	6.862231E-1	6.479350E-1	6.542985E-1	6.403331E-1	6.895089E-1	6.865661E-1	7.002310E-1	6.026984E-1	6.841659E-1	6.655955E-1	6.961464E-1	6.561740E-1	7.035688E-1	6.587627E-1	6.433037E-1	6.611307E-1	6.667125E-1	6.484558E-1	6.495786E-1	7.010504E-1	6.430549E-1	6.694924E-1	6.661374E-1	6.895233E-1	6.666925E-1	6.420854E-1	6.731803E-1	6.368536E-1	6.657254E-1	6.312582E-1	6.754276E-1	6.930472E-1	6.246343E-1	6.253890E-1	6.351273E-1	6.693536E-1	6.330885E-1	6.666057E-1	6.730212E-1	6.149582E-1	6.724104E-1	6.345966E-1	6.909353E-1	6.517954E-1	6.585926E-1	6.320172E-1	6.658149E-1	6.932068E-1	6.112645E-1	6.197910E-1	6.472972E-1	6.750614E-1	6.831844E-1	6.235370E-1	6.483731E-1	6.489113E-1	6.320567E-1	7.129873E-1	6.850779E-1	6.757187E-1	5.966238E-1	7.499651E-1	6.834936E-1	6.400101E-1	6.622890E-1	7.486704E-1	6.669930E-1	6.609934E-1	7.066630E-1	6.380705E-1	6.599895E-1	6.335615E-1	6.308931E-1	7.105896E-1	5.994455E-1	7.132508E-1	6.218848E-1	6.843914E-1	6.216028E-1	6.359293E-1	6.397958E-1	6.250039E-1	6.329042E-1	6.497134E-1	6.818368E-1	7.073159E-1	6.359926E-1	7.008433E-1	6.438774E-1	6.874127E-1	5.917549E-1	6.937743E-1
2.884210E+2	7.688865E-1	7.318739E-1	7.788329E-1	7.335982E-1	7.027738E-1	7.804156E-1	7.378392E-1	7.935756E-1	7.457678E-1	7.359877E-1	7.539925E-1	6.866452E-1	7.237768E-1	7.445442E-1	7.033392E-1	7.863240E-1	7.119546E-1	7.274121E-1	7.754470E-1	8.152322E-1	7.480035E-1	7.549980E-1	7.803645E-1	7.716737E-1	7.570909E-1	8.046701E-1	7.378780E-1	8.289995E-1	8.297424E-1	8.297553E-1	7.637782E-1	8.071503E-1	7.741330E-1	7.422530E-1	7.518982E-1	7.873892E-1	8.008624E-1	7.674057E-1	7.085093E-1	7.863513E-1	7.405612E-1	8.242590E-1	8.390881E-1	7.252533E-1	8.019183E-1	7.529961E-1	7.673454E-1	7.270805E-1	7.900799E-1	7.295822E-1	7.242279E-1	7.818551E-1	7.869507E-1	7.519888E-1	7.570296E-1	7.414177E-1	7.772345E-1	7.548011E-1	7.726707E-1	7.335981E-1	8.098795E-1	7.934255E-1	7.603301E-1	7.691921E-1	7.677384E-1	8.003408E-1	8.251621E-1	7.934046E-1	7.736150E-1	7.796608E-1	7.525955E-1	7.194637E-1	7.213246E-1	7.391587E-1	7.694435E-1	7.667510E-1	7.432405E-1	7.741185E-1	7.808364E-1	7.519779E-1	7.716887E-1	7.838903E-1	7.708029E-1	7.339111E-1	7.637579E-1	7.285948E-1	7.691086E-1	7.748883E-1	7.854324E-1	7.432244E-1	7.401515E-1	8.222921E-1	7.673177E-1	7.446371E-1	7.379563E-1	7.496952E-1	8.106758E-1	7.315726E-1	6.885052E-1	7.671715E-1	7.792798E-1	7.551686E-1	7.946973E-1	7.403607E-1	8.248780E-1	7.328450E-1	7.600428E-1	7.859960E-1	7.350349E-1	7.424522E-1	7.816879E-1	7.416499E-1	7.228262E-1	7.026192E-1	7.216483E-1	7.707255E-1	7.823676E-1	7.388112E-1	7.597051E-1	7.782782E-1	7.855067E-1	8.196847E-1	7.491583E-1	7.844401E-1	7.781303E-1	7.410313E-1	7.486980E-1	7.814916E-1	7.184221E-1	8.063063E-1	7.715064E-1	7.814617E-1	7.300909E-1	7.965062E-1	7.727513E-1	7.930218E-1	7.444700E-1	6.809292E-1	8.010939E-1	7.608487E-1	7.911002E-1	7.923816E-1	7.417276E-1	7.729110E-1	7.562825E-1	7.554438E-1	8.241343E-1	7.435893E-1	7.358531E-1	7.603526E-1	7.524471E-1	7.876048E-1	7.500224E-1	7.115979E-1	7.466640E-1	7.094678E-1	7.640300E-1	7.585444E-1	7.667948E-1	7.455584E-1	8.113853E-1	7.367884E-1	7.986026E-1	6.958253E-1	7.473543E-1	7.567881E-1	6.788107E-1	7.872489E-1	7.385797E-1	7.785654E-1	7.989522E-1
2.886030E+2	1.028792E+0	1.036261E+0	1.040008E+0	1.042956E+0	9.996528E-1	1.012066E+0	1.030078E+0	9.767952E-1	1.016961E+0	1.058750E+0	1.023299E+0	9.900656E-1	9.855661E-1	1.033643E+0	1.030331E+0	1.063265E+0	9.934642E-1	1.027072E+0	1.021970E+0	1.071498E+0	1.063399E+0	1.089635E+0	1.044740E+0	9.469510E-1	1.082920E+0	1.080018E+0	1.058103E+0	1.095298E+0	1.116456E+0	1.006946E+0	9.935278E-1	1.089016E+0	1.039702E+0	9.830509E-1	1.011976E+0	1.050645E+0	1.047937E+0	1.017859E+0	1.127986E+0	9.921026E-1	1.017794E+0	1.065213E+0	1.099009E+0	1.131539E+0	1.000221E+0	9.988485E-1	1.113085E+0	1.008885E+0	1.000811E+0	9.839060E-1	1.021541E+0	1.093762E+0	1.002873E+0	1.060193E+0	1.021678E+0	1.083647E+0	9.789918E-1	1.027974E+0	1.019249E+0	1.084619E+0	1.115416E+0	1.047221E+0	1.036232E+0	1.078110E+0	1.045492E+0	9.896342E-1	1.012950E+0	1.016191E+0	1.013465E+0	9.863046E-1	1.073117E+0	1.057816E+0	1.027125E+0	1.060213E+0	1.037312E+0	9.899182E-1	1.051618E+0	9.762008E-1	1.083155E+0	9.878883E-1	1.061270E+0	1.035493E+0	1.076381E+0	1.030899E+0	1.082990E+0	1.013239E+0	9.973219E-1	9.744380E-1	1.090900E+0	9.964410E-1	9.810546E-1	1.041466E+0	1.043982E+0	9.702787E-1	1.091627E+0	1.109970E+0	1.093480E+0	1.008358E+0	1.011383E+0	1.087178E+0	9.825910E-1	1.062425E+0	1.045780E+0	9.998977E-1	1.096474E+0	1.095672E+0	9.840012E-1	1.013451E+0	1.067576E+0	1.024021E+0	1.045939E+0	1.044963E+0	1.082821E+0	1.009269E+0	9.945439E-1	9.896731E-1	1.098185E+0	1.086649E+0	1.027606E+0	1.013689E+0	1.032579E+0	1.084382E+0	1.051168E+0	1.099273E+0	1.018067E+0	1.014522E+0	1.069688E+0	1.101718E+0	1.034094E+0	1.030386E+0	1.063997E+0	1.012561E+0	1.066212E+0	1.066603E+0	1.071264E+0	1.076963E+0	9.640730E-1	1.089881E+0	1.031304E+0	1.081607E+0	1.089928E+0	1.034089E+0	1.065540E+0	1.061813E+0	1.055763E+0	1.033261E+0	1.050037E+0	1.113658E+0	1.054079E+0	1.036200E+0	1.064222E+0	1.047617E+0	9.921142E-1	9.713652E-1	9.962338E-1	1.027003E+0	9.995225E-1	1.037016E+0	1.092719E+0	1.065317E+0	1.079380E+0	1.058847E+0	1.043347E+0	1.046748E+0	1.023923E+0	1.019451E+0	1.045160E+0	1.065535E+0	1.076261E+0	1.101751E+0	1.150303E+0
2.888080E+2	1.201930E+0	1.219887E+0	1.138174E+0	1.168946E+0	1.058077E+0	1.134028E+0	1.184306E+0	1.156427E+0	1.070219E+0	1.191622E+0	1.151373E+0	1.049662E+0	1.154858E+0	1.195302E+0	1.083468E+0	1.204992E+0	1.225163E+0	1.141547E+0	1.147661E+0	1.182938E+0	1.138730E+0	1.199091E+0	1.164714E+0	1.121446E+0	1.101378E+0	1.184272E+0	1.137109E+0	1.104907E+0	1.093849E+0	1.140225E+0	1.085454E+0	1.211094E+0	1.127911E+0	1.155457E+0	1.102281E+0	1.139290E+0	1.195973E+0	1.169922E+0	1.096856E+0	1.158354E+0	1.220274E+0	1.232545E+0	1.181581E+0	1.119595E+0	1.166029E+0	1.089124E+0	1.188025E+0	1.125483E+0	1.174107E+0	1.189848E+0	1.156212E+0	1.193819E+0	1.201488E+0	1.221274E+0	1.151624E+0	1.175104E+0	1.118655E+0	1.199626E+0	1.109877E+0	1.208867E+0	1.136790E+0	1.157234E+0	1.105783E+0	1.188018E+0	1.132236E+0	1.150333E+0	1.127292E+0	1.190059E+0	1.162815E+0	1.111242E+0	1.194779E+0	1.135546E+0	1.174217E+0	1.190594E+0	1.190590E+0	1.135910E+0	1.160897E+0	1.137306E+0	1.141471E+0	1.167911E+0	1.158045E+0	1.182132E+0	1.203807E+0	1.136387E+0	1.148482E+0	1.190192E+0	1.187482E+0	1.163674E+0	1.156753E+0	1.152024E+0	1.155923E+0	1.201982E+0	1.148901E+0	1.116770E+0	1.200084E+0	1.206562E+0	1.145174E+0	1.071654E+0	1.192173E+0	1.217648E+0	1.136867E+0	1.144944E+0	1.180416E+0	1.098687E+0	1.200402E+0	1.124499E+0	1.119380E+0	1.183592E+0	1.144563E+0	1.075188E+0	1.195425E+0	1.139193E+0	1.186664E+0	1.241152E+0	1.123145E+0	1.084686E+0	1.169400E+0	1.170623E+0	1.102661E+0	1.096932E+0	1.185758E+0	1.178584E+0	1.140675E+0	1.204358E+0	1.143911E+0	1.204115E+0	1.153060E+0	1.175215E+0	1.222993E+0	1.130536E+0	1.176374E+0	1.091312E+0	1.091116E+0	1.095775E+0	1.187920E+0	1.099813E+0	1.187483E+0	1.153575E+0	1.111826E+0	1.210143E+0	1.153014E+0	1.208128E+0	1.089954E+0	1.205621E+0	1.152708E+0	1.150749E+0	1.133935E+0	1.210162E+0	1.202697E+0	1.232274E+0	1.194324E+0	1.169155E+0	1.220206E+0	1.072338E+0	1.116777E+0	1.113602E+0	1.149940E+0	1.178947E+0	1.140181E+0	1.175444E+0	1.178832E+0	1.164663E+0	1.129177E+0	1.204742E+0	1.213246E+0	1.079360E+0	1.124719E+0	1.227750E+0	1.218319E+0	1.178108E+0	1.251666E+0
2.890020E+2	9.129795E-1	9.688912E-1	9.821527E-1	1.015278E+0	9.905297E-1	9.197052E-1	9.622996E-1	9.422944E-1	9.560698E-1	9.719161E-1	9.709675E-1	9.172664E-1	9.359507E-1	9.974790E-1	8.759782E-1	9.207489E-1	9.699285E-1	9.059402E-1	9.336887E-1	9.242833E-1	9.466572E-1	9.327733E-1	8.868604E-1	9.277705E-1	9.411402E-1	9.690037E-1	8.948285E-1	9.002835E-1	9.294188E-1	9.482016E-1	8.879713E-1	9.380156E-1	9.212946E-1	9.062129E-1	9.143476E-1	9.506304E-1	9.185398E-1	1.043416E+0	9.048576E-1	8.814084E-1	8.770152E-1	9.276928E-1	9.184588E-1	9.708459E-1	9.266391E-1	9.955539E-1	9.953229E-1	9.855711E-1	9.376025E-1	9.391349E-1	9.549511E-1	9.894667E-1	9.700920E-1	9.697882E-1	8.696677E-1	9.333362E-1	9.055194E-1	9.587653E-1	9.158679E-1	9.777538E-1	9.162975E-1	9.281279E-1	9.417942E-1	9.489199E-1	9.407860E-1	9.685677E-1	9.199324E-1	1.037596E+0	9.485322E-1	9.995778E-1	9.325104E-1	1.023111E+0	9.415987E-1	9.698364E-1	9.337859E-1	9.584883E-1	9.582153E-1	9.587729E-1	9.662785E-1	9.352637E-1	9.209254E-1	9.739604E-1	9.423970E-1	8.994033E-1	1.005118E+0	9.282265E-1	9.650223E-1	9.832858E-1	9.561692E-1	9.112850E-1	8.926021E-1	9.306058E-1	8.876331E-1	8.834510E-1	9.965742E-1	9.273169E-1	9.140689E-1	8.808214E-1	9.421168E-1	9.331031E-1	9.037957E-1	9.318124E-1	9.860852E-1	9.023792E-1	9.216535E-1	9.208946E-1	9.541374E-1	9.081993E-1	1.005519E+0	1.000230E+0	9.688503E-1	8.849724E-1	9.911873E-1	9.792481E-1	9.290856E-1	9.292394E-1	9.311046E-1	9.357210E-1	9.749933E-1	9.490606E-1	1.010964E+0	9.548845E-1	9.298076E-1	1.006233E+0	9.401271E-1	9.761194E-1	9.332372E-1	8.971460E-1	9.450352E-1	9.652875E-1	9.175167E-1	9.365353E-1	9.584588E-1	9.674262E-1	9.567814E-1	9.633501E-1	9.710144E-1	1.008768E+0	9.323496E-1	9.670532E-1	9.499234E-1	1.006758E+0	9.275143E-1	9.233915E-1	9.843754E-1	9.706198E-1	9.556768E-1	9.105574E-1	9.339907E-1	9.492630E-1	9.762158E-1	9.389088E-1	9.427736E-1	8.900210E-1	9.384480E-1	9.375490E-1	9.783910E-1	9.565621E-1	9.460302E-1	9.731001E-1	9.771954E-1	9.712613E-1	9.798074E-1	9.781068E-1	9.174183E-1	9.591422E-1	9.767256E-1	9.615934E-1	9.652998E-1	1.042405E+0	1.016836E+0
2.892050E+2	8.215213E-1	7.892240E-1	8.111782E-1	7.919338E-1	7.497413E-1	7.342111E-1	8.419741E-1	8.100006E-1	7.546200E-1	7.386596E-1	8.477996E-1	7.690144E-1	7.249305E-1	7.991761E-1	7.622622E-1	7.684283E-1	7.897289E-1	7.562552E-1	7.315162E-1	8.014528E-1	8.571752E-1	7.488257E-1	7.868735E-1	7.127085E-1	7.906862E-1	7.609790E-1	8.366334E-1	7.497443E-1	7.475261E-1	7.872957E-1	7.408432E-1	7.655767E-1	7.791931E-1	7.847368E-1	7.209063E-1	8.043121E-1	7.836190E-1	7.543223E-1	7.353624E-1	7.755170E-1	7.457640E-1	7.997509E-1	7.784522E-1	7.519423E-1	7.907378E-1	7.401279E-1	8.205996E-1	7.713041E-1	7.501766E-1	7.167576E-1	7.779825E-1	7.754359E-1	7.458722E-1	7.499752E-1	7.628484E-1	6.642609E-1	7.917452E-1	7.478911E-1	6.957749E-1	8.202316E-1	7.983404E-1	8.524828E-1	7.345261E-1	7.240274E-1	8.170920E-1	7.928702E-1	7.969046E-1	7.465518E-1	7.399296E-1	7.369292E-1	7.671794E-1	8.303516E-1	6.957872E-1	8.103608E-1	7.725456E-1	7.225563E-1	7.794034E-1	7.541792E-1	7.586878E-1	7.845050E-1	8.089710E-1	7.405792E-1	7.750770E-1	7.224913E-1	7.948745E-1	7.628645E-1	7.151079E-1	7.890679E-1	7.920612E-1	7.888277E-1	8.047481E-1	7.797701E-1	6.978958E-1	7.121681E-1	7.788086E-1	8.012385E-1	7.811380E-1	7.515646E-1	7.323943E-1	7.939966E-1	7.622934E-1	8.026473E-1	6.999351E-1	7.390958E-1	8.530243E-1	7.132733E-1	7.321121E-1	7.804445E-1	7.763259E-1	7.671823E-1	7.874286E-1	7.611800E-1	8.026558E-1	7.922780E-1	7.630457E-1	7.711307E-1	7.769077E-1	8.194498E-1	7.203827E-1	7.461670E-1	8.983783E-1	7.475911E-1	7.616920E-1	7.609650E-1	7.592560E-1	7.416209E-1	8.102188E-1	8.296628E-1	7.343781E-1	7.958357E-1	7.359233E-1	7.675065E-1	7.851576E-1	7.799543E-1	7.896295E-1	7.359237E-1	7.690856E-1	7.356901E-1	7.660959E-1	7.568535E-1	7.856913E-1	8.009355E-1	8.050461E-1	7.921694E-1	8.241096E-1	7.940272E-1	7.687119E-1	7.614771E-1	8.004726E-1	7.414659E-1	7.733008E-1	7.125196E-1	8.069622E-1	7.587242E-1	7.920586E-1	7.473430E-1	7.734091E-1	7.633723E-1	7.711054E-1	7.482743E-1	7.647110E-1	7.813800E-1	7.614489E-1	7.445622E-1	7.703932E-1	6.966235E-1	8.038871E-1	7.635188E-1	7.325365E-1	7.797728E-1	8.745908E-1
2.894040E+2	7.450313E-1	7.354076E-1	7.452247E-1	7.716835E-1	7.048547E-1	7.309556E-1	7.992252E-1	7.596824E-1	7.553882E-1	7.179648E-1	7.866587E-1	7.115870E-1	7.301725E-1	7.618325E-1	6.974854E-1	7.351093E-1	7.072356E-1	6.816467E-1	7.510784E-1	7.792136E-1	7.518758E-1	7.735941E-1	7.358914E-1	7.099652E-1	8.170683E-1	8.043595E-1	7.667973E-1	7.112546E-1	7.861575E-1	7.113581E-1	7.416870E-1	8.136064E-1	7.457859E-1	7.666725E-1	6.940296E-1	7.608930E-1	7.654413E-1	7.628733E-1	7.606934E-1	7.501934E-1	7.568707E-1	7.783608E-1	7.911254E-1	7.615047E-1	6.987230E-1	6.925430E-1	7.969776E-1	7.696658E-1	7.440786E-1	7.433694E-1	7.697136E-1	8.148866E-1	7.496017E-1	7.240597E-1	7.429326E-1	7.869327E-1	7.691348E-1	8.451199E-1	6.848410E-1	7.652445E-1	7.683585E-1	7.700009E-1	7.270885E-1	7.620163E-1	7.308782E-1	7.585434E-1	7.751726E-1	8.193216E-1	7.469182E-1	7.017598E-1	8.544683E-1	8.162792E-1	7.662831E-1	7.145455E-1	7.221069E-1	7.286339E-1	8.042067E-1	7.563102E-1	7.315060E-1	7.416873E-1	7.665773E-1	6.625542E-1	7.287232E-1	7.441753E-1	7.619902E-1	7.377364E-1	7.733858E-1	7.545713E-1	8.609385E-1	8.104177E-1	7.190285E-1	7.772989E-1	7.577825E-1	7.870938E-1	7.295315E-1	7.711347E-1	7.911313E-1	7.372427E-1	7.340155E-1	7.421082E-1	8.359805E-1	7.988305E-1	7.256889E-1	7.197713E-1	7.440907E-1	7.882928E-1	7.824428E-1	7.863865E-1	7.191355E-1	8.140035E-1	8.159882E-1	7.445481E-1	7.585116E-1	7.556096E-1	7.986851E-1	7.503785E-1	7.570842E-1	7.763862E-1	7.383829E-1	7.417691E-1	7.709174E-1	6.839919E-1	7.373281E-1	7.783316E-1	7.130663E-1	7.722189E-1	7.724476E-1	7.925305E-1	7.598253E-1	7.578345E-1	8.434870E-1	7.349386E-1	8.129768E-1	7.800930E-1	7.961357E-1	7.954908E-1	7.775680E-1	7.516700E-1	7.484769E-1	7.305048E-1	7.747108E-1	7.459975E-1	7.135123E-1	6.663192E-1	7.246923E-1	7.478609E-1	7.718081E-1	8.073365E-1	7.475707E-1	7.379727E-1	7.857445E-1	7.547992E-1	7.239193E-1	7.412205E-1	7.611073E-1	7.367042E-1	7.552319E-1	7.789828E-1	7.157879E-1	8.291540E-1	8.351483E-1	7.485507E-1	7.557513E-1	7.929076E-1	8.184856E-1	7.971772E-1	8.154783E-1	7.887105E-1	7.674309E-1	8.029224E-1	6.970404E-1
2.896060E+2	7.657002E-1	7.410800E-1	7.732037E-1	7.660800E-1	7.914354E-1	7.453283E-1	8.406861E-1	7.653166E-1	7.836642E-1	8.217636E-1	8.106174E-1	7.114691E-1	7.824167E-1	7.582468E-1	7.759593E-1	8.250314E-1	7.715111E-1	8.178900E-1	6.891196E-1	7.903345E-1	7.963856E-1	8.071909E-1	8.168157E-1	7.245591E-1	7.896773E-1	7.840695E-1	8.490162E-1	8.152553E-1	8.080898E-1	7.760435E-1	7.941253E-1	8.461008E-1	7.734392E-1	8.288134E-1	7.862144E-1	8.238454E-1	7.756099E-1	8.146933E-1	7.612884E-1	7.232799E-1	8.151690E-1	8.298657E-1	8.052548E-1	7.908438E-1	7.836885E-1	7.403104E-1	8.244614E-1	8.234247E-1	7.890594E-1	8.055768E-1	8.066241E-1	8.540076E-1	7.886075E-1	8.184535E-1	7.556432E-1	7.482804E-1	6.973724E-1	7.874842E-1	7.080028E-1	8.163315E-1	7.727678E-1	8.234737E-1	7.692201E-1	8.205903E-1	7.118361E-1	7.498386E-1	7.859290E-1	8.289649E-1	7.488857E-1	7.497151E-1	8.431758E-1	7.264065E-1	7.919259E-1	7.855179E-1	7.987394E-1	8.360345E-1	7.235174E-1	8.584263E-1	7.806196E-1	7.632990E-1	7.761846E-1	7.927267E-1	7.412807E-1	7.908402E-1	9.017149E-1	8.242137E-1	7.895429E-1	8.165788E-1	7.958671E-1	7.775736E-1	7.780237E-1	8.040481E-1	7.831165E-1	7.455170E-1	8.194400E-1	7.738016E-1	7.613364E-1	7.738132E-1	7.577708E-1	8.327254E-1	8.254961E-1	7.868772E-1	8.382838E-1	7.481892E-1	8.324556E-1	8.292017E-1	8.057188E-1	8.179001E-1	7.848301E-1	7.805067E-1	7.454920E-1	7.767539E-1	8.389835E-1	7.976188E-1	8.184753E-1	7.700522E-1	7.732262E-1	7.956180E-1	7.933746E-1	7.391640E-1	8.588253E-1	8.059753E-1	8.167690E-1	8.387520E-1	8.232802E-1	7.383273E-1	7.688402E-1	8.369735E-1	7.939148E-1	7.735395E-1	8.630175E-1	8.210099E-1	7.243050E-1	7.673103E-1	7.489247E-1	7.707265E-1	7.902371E-1	8.223472E-1	8.055605E-1	7.913294E-1	8.130017E-1	7.783838E-1	7.574173E-1	7.569770E-1	8.085931E-1	7.798091E-1	7.486435E-1	8.027575E-1	7.411312E-1	7.319294E-1	7.404318E-1	7.445301E-1	8.033343E-1	7.728675E-1	8.010936E-1	8.030906E-1	8.020627E-1	7.743827E-1	7.985821E-1	7.965201E-1	7.275199E-1	8.374532E-1	7.897487E-1	8.248315E-1	7.556983E-1	7.533323E-1	8.021144E-1	8.348172E-1	7.892160E-1	7.963012E-1	7.539576E-1
2.898030E+2	6.956035E-1	6.655134E-1	7.914966E-1	7.920958E-1	8.093261E-1	7.215795E-1	7.237159E-1	7.684355E-1	7.360239E-1	7.541676E-1	7.960303E-1	7.212530E-1	7.524412E-1	7.664705E-1	7.004645E-1	7.470295E-1	7.434862E-1	7.212816E-1	6.995978E-1	7.374635E-1	7.722908E-1	7.651093E-1	7.826347E-1	7.583899E-1	7.498154E-1	7.325242E-1	7.257251E-1	7.459972E-1	7.562285E-1	6.892364E-1	7.928146E-1	6.792219E-1	6.961304E-1	7.712955E-1	7.225670E-1	7.643037E-1	7.489765E-1	7.336827E-1	7.659373E-1	7.142732E-1	8.020483E-1	7.151003E-1	6.980460E-1	7.797726E-1	7.435557E-1	7.573464E-1	7.700014E-1	7.360853E-1	7.055657E-1	7.356004E-1	7.967660E-1	7.439868E-1	8.364451E-1	6.972068E-1	6.990261E-1	7.384525E-1	7.891545E-1	8.085073E-1	7.200264E-1	7.226879E-1	7.759903E-1	7.409437E-1	8.085422E-1	8.024263E-1	7.211931E-1	7.181847E-1	7.831966E-1	7.852879E-1	7.257594E-1	7.650660E-1	7.645556E-1	7.603834E-1	6.813975E-1	7.780448E-1	7.981743E-1	7.774172E-1	7.654091E-1	7.936025E-1	6.969730E-1	7.479010E-1	7.724806E-1	6.788338E-1	6.950780E-1	7.551833E-1	7.984033E-1	7.482745E-1	7.646474E-1	7.754641E-1	7.070308E-1	7.612606E-1	7.393617E-1	7.452761E-1	7.107306E-1	7.768415E-1	7.566060E-1	7.604081E-1	7.713807E-1	6.936095E-1	6.526567E-1	7.754522E-1	7.758453E-1	8.044956E-1	7.429232E-1	7.540191E-1	8.280742E-1	7.387128E-1	7.392949E-1	7.890706E-1	7.278203E-1	7.363780E-1	7.583152E-1	7.419360E-1	7.024554E-1	7.712563E-1	6.996771E-1	7.390543E-1	7.047262E-1	7.452024E-1	7.884234E-1	7.475295E-1	7.067479E-1	7.107524E-1	7.236551E-1	7.355747E-1	7.676927E-1	7.264729E-1	6.915288E-1	7.630968E-1	7.105948E-1	7.296222E-1	8.107775E-1	7.375940E-1	7.390298E-1	7.083815E-1	7.436693E-1	7.286052E-1	7.227798E-1	7.593039E-1	7.587375E-1	7.492851E-1	7.427125E-1	7.296948E-1	8.325299E-1	7.761402E-1	7.052872E-1	7.819685E-1	7.256777E-1	8.043276E-1	6.709714E-1	7.820436E-1	7.697913E-1	7.381539E-1	6.592470E-1	7.683867E-1	7.681148E-1	7.597542E-1	7.340919E-1	7.690872E-1	7.720438E-1	8.054981E-1	8.001936E-1	7.238450E-1	7.179419E-1	7.494324E-1	7.338114E-1	7.544505E-1	7.075186E-1	7.757315E-1	7.723196E-1	7.094626E-1	7.599133E-1
2.900030E+2	6.328999E-1	7.127005E-1	7.036556E-1	6.387325E-1	7.190396E-1	6.609093E-1	7.300092E-1	6.619345E-1	7.770181E-1	7.426850E-1	6.546267E-1	6.571323E-1	6.465642E-1	7.395996E-1	7.007721E-1	6.950150E-1	6.431456E-1	6.130159E-1	6.770950E-1	6.708872E-1	7.196238E-1	6.780134E-1	7.353810E-1	6.626441E-1	6.783566E-1	6.642545E-1	7.251992E-1	6.326918E-1	6.946415E-1	6.964770E-1	6.467143E-1	6.481857E-1	6.858512E-1	7.004108E-1	7.103051E-1	7.004289E-1	7.012360E-1	7.343143E-1	7.329217E-1	7.067626E-1	7.296778E-1	6.833478E-1	7.107624E-1	6.900049E-1	6.742935E-1	6.804812E-1	6.740742E-1	6.797592E-1	6.510309E-1	7.133250E-1	7.307969E-1	7.322890E-1	6.666415E-1	6.400113E-1	6.699127E-1	6.662023E-1	6.752251E-1	7.066806E-1	6.295241E-1	7.265885E-1	7.108110E-1	6.929121E-1	7.262462E-1	6.235587E-1	6.456198E-1	6.835882E-1	7.229519E-1	7.228389E-1	7.078095E-1	6.938068E-1	6.472376E-1	7.757462E-1	6.437273E-1	6.864309E-1	6.948448E-1	7.257517E-1	6.959040E-1	7.108694E-1	6.986483E-1	6.968632E-1	7.331420E-1	6.368192E-1	6.717263E-1	6.307255E-1	6.942644E-1	6.656142E-1	6.752005E-1	6.612766E-1	7.119497E-1	6.545535E-1	6.892523E-1	7.446519E-1	7.156874E-1	6.855138E-1	6.870723E-1	6.968695E-1	6.380382E-1	6.836594E-1	6.106146E-1	6.522384E-1	6.835239E-1	6.896753E-1	6.897393E-1	6.812340E-1	7.125857E-1	7.138267E-1	6.804770E-1	7.690720E-1	6.797977E-1	6.419942E-1	6.528192E-1	6.844336E-1	7.276044E-1	7.317707E-1	6.961804E-1	6.604524E-1	6.887607E-1	6.923746E-1	6.927431E-1	6.194871E-1	7.686669E-1	7.084708E-1	6.686964E-1	7.263011E-1	6.724202E-1	6.805999E-1	7.023087E-1	6.901616E-1	7.229336E-1	6.769425E-1	6.800991E-1	6.507116E-1	7.016076E-1	6.531805E-1	6.651603E-1	7.315668E-1	6.715886E-1	7.133988E-1	6.737323E-1	6.986884E-1	7.050908E-1	6.866358E-1	7.262652E-1	6.885251E-1	6.918751E-1	6.624304E-1	6.914785E-1	7.327206E-1	7.018220E-1	6.572880E-1	6.956670E-1	6.271182E-1	6.967499E-1	6.841588E-1	6.681232E-1	7.239337E-1	6.725593E-1	6.836998E-1	6.413420E-1	6.448671E-1	6.607395E-1	6.650774E-1	6.813148E-1	7.370424E-1	6.879808E-1	7.442103E-1	6.840044E-1	7.479158E-1	6.627038E-1	7.159100E-1	7.462243E-1
2.905220E+2	7.895620E-1	7.268474E-1	6.904471E-1	7.844903E-1	7.511964E-1	7.552225E-1	7.538190E-1	6.968099E-1	7.309314E-1	7.691731E-1	7.606151E-1	6.743581E-1	7.486464E-1	6.952285E-1	6.902334E-1	6.863639E-1	7.118228E-1	7.126591E-1	7.408243E-1	7.014500E-1	7.590804E-1	7.492883E-1	7.345876E-1	7.209662E-1	7.310013E-1	7.882223E-1	7.149159E-1	7.296014E-1	6.941860E-1	6.852211E-1	7.031838E-1	7.094057E-1	7.063021E-1	7.203129E-1	6.939352E-1	7.280559E-1	7.239804E-1	7.297883E-1	7.628684E-1	6.567914E-1	7.379853E-1	7.171231E-1	7.294299E-1	7.012428E-1	7.071366E-1	7.307253E-1	7.460872E-1	6.481763E-1	7.585382E-1	7.590946E-1	7.222986E-1	7.562251E-1	7.035485E-1	7.377048E-1	7.239796E-1	6.888347E-1	7.047842E-1	6.926890E-1	6.301407E-1	7.319884E-1	7.329343E-1	7.531031E-1	7.386863E-1	7.523144E-1	7.159558E-1	6.958705E-1	7.221193E-1	7.619655E-1	7.751119E-1	6.912308E-1	7.864067E-1	7.296663E-1	6.786802E-1	7.016167E-1	7.318353E-1	6.758870E-1	7.446762E-1	7.755420E-1	7.301439E-1	6.950792E-1	7.601643E-1	7.029533E-1	7.316581E-1	7.102386E-1	7.579533E-1	6.637152E-1	6.867208E-1	7.478923E-1	7.896772E-1	7.431722E-1	7.152288E-1	6.772248E-1	7.375777E-1	7.045582E-1	7.397623E-1	7.517301E-1	7.125849E-1	7.202171E-1	6.862174E-1	7.523597E-1	7.270682E-1	7.776488E-1	7.709637E-1	7.005081E-1	6.925614E-1	7.175587E-1	7.446621E-1	7.616082E-1	7.369152E-1	6.815430E-1	7.019479E-1	7.204883E-1	7.979290E-1	6.833508E-1	7.168028E-1	7.366906E-1	7.073338E-1	7.354969E-1	6.981976E-1	7.274559E-1	7.202955E-1	6.770955E-1	7.994543E-1	7.695692E-1	7.488179E-1	7.399784E-1	7.510805E-1	7.161231E-1	6.975709E-1	7.087585E-1	7.615682E-1	7.787695E-1	7.903208E-1	7.908586E-1	7.195723E-1	7.005878E-1	7.401775E-1	7.547484E-1	7.549536E-1	7.142617E-1	7.737929E-1	7.629769E-1	7.442008E-1	7.200721E-1	7.305342E-1	6.895354E-1	7.210369E-1	7.349525E-1	8.011811E-1	6.962048E-1	7.555158E-1	7.543405E-1	7.899486E-1	6.900088E-1	7.723148E-1	7.655441E-1	7.112921E-1	7.046363E-1	7.500666E-1	6.766911E-1	7.183095E-1	6.822584E-1	7.500547E-1	7.341527E-1	6.870315E-1	7.107180E-1	7.431772E-1	7.299078E-1	7.790040E-1	7.837262E-1	6.831220E-1
2.910030E+2	8.604571E-1	8.928068E-1	8.496242E-1	8.948010E-1	8.142723E-1	8.442714E-1	9.502724E-1	7.770764E-1	8.813319E-1	8.566775E-1	9.027655E-1	8.579305E-1	8.505203E-1	9.314028E-1	8.723693E-1	8.525572E-1	8.536401E-1	7.813910E-1	7.867249E-1	8.536713E-1	9.118401E-1	8.748516E-1	8.548087E-1	9.155438E-1	8.909442E-1	9.197221E-1	9.282568E-1	8.961368E-1	8.634982E-1	8.727657E-1	8.300503E-1	8.955292E-1	8.820452E-1	8.196085E-1	8.752146E-1	8.414089E-1	9.220144E-1	8.502008E-1	7.983873E-1	9.312818E-1	8.563923E-1	9.261238E-1	9.214424E-1	8.755095E-1	8.614947E-1	9.545806E-1	9.281549E-1	8.459208E-1	8.841482E-1	9.015113E-1	9.221408E-1	8.933410E-1	8.704049E-1	9.523511E-1	8.492774E-1	8.243499E-1	9.216922E-1	9.485617E-1	8.173489E-1	8.072057E-1	8.994001E-1	9.684809E-1	9.420401E-1	8.847217E-1	8.470095E-1	8.307624E-1	9.127252E-1	9.080079E-1	8.990859E-1	8.561797E-1	9.001284E-1	8.454593E-1	8.223819E-1	8.949145E-1	8.316707E-1	9.139684E-1	8.789480E-1	8.825502E-1	8.904164E-1	8.741321E-1	8.920447E-1	8.737484E-1	8.779921E-1	8.353298E-1	8.397969E-1	8.014914E-1	8.308102E-1	8.353484E-1	8.635815E-1	8.457080E-1	8.973948E-1	9.039855E-1	8.649954E-1	8.684230E-1	8.388857E-1	9.057575E-1	9.089735E-1	7.981069E-1	8.516153E-1	9.087592E-1	9.167299E-1	9.254069E-1	9.040246E-1	7.858191E-1	9.880257E-1	9.145500E-1	8.445572E-1	8.794874E-1	7.868918E-1	8.670312E-1	8.438075E-1	8.247700E-1	8.555420E-1	9.562394E-1	9.060365E-1	8.837311E-1	8.831149E-1	9.324636E-1	8.600353E-1	9.030420E-1	8.487257E-1	9.050548E-1	8.559021E-1	8.984395E-1	9.188969E-1	8.451829E-1	8.842929E-1	8.615500E-1	8.631496E-1	9.122149E-1	8.600973E-1	8.603680E-1	9.092024E-1	9.085421E-1	8.728078E-1	8.522535E-1	9.142660E-1	8.965514E-1	8.935867E-1	9.147806E-1	8.817834E-1	8.651960E-1	8.801236E-1	9.265737E-1	9.355873E-1	9.151482E-1	8.749580E-1	8.932141E-1	9.132236E-1	8.501354E-1	8.894361E-1	9.142580E-1	9.265131E-1	8.749177E-1	8.018269E-1	8.842953E-1	8.694572E-1	8.777787E-1	8.868288E-1	8.611266E-1	9.503587E-1	8.585553E-1	9.448231E-1	7.973586E-1	8.739699E-1	8.653449E-1	8.236664E-1	9.637547E-1	9.003294E-1	8.473887E-1	8.460204E-1
2.914980E+2	1.068819E+0	1.062873E+0	1.045536E+0	1.105070E+0	1.049182E+0	1.043450E+0	1.103655E+0	1.081120E+0	1.075991E+0	9.951774E-1	1.077062E+0	9.606787E-1	1.086098E+0	1.058293E+0	1.018776E+0	1.098929E+0	9.360897E-1	1.055510E+0	9.915932E-1	1.040641E+0	1.102853E+0	1.110592E+0	1.050372E+0	1.052237E+0	1.076630E+0	1.056867E+0	1.045694E+0	1.063603E+0	1.031376E+0	1.002494E+0	1.012159E+0	1.005469E+0	1.072487E+0	1.046506E+0	1.043910E+0	1.085210E+0	1.070950E+0	1.036820E+0	1.062265E+0	1.002043E+0	9.980713E-1	1.104247E+0	1.088531E+0	9.673820E-1	9.896135E-1	9.570922E-1	1.038591E+0	1.027568E+0	1.089820E+0	1.042493E+0	1.064792E+0	1.062772E+0	1.088225E+0	9.780647E-1	1.022219E+0	1.033640E+0	1.039421E+0	1.059075E+0	9.594928E-1	1.042372E+0	1.116453E+0	1.079907E+0	1.029863E+0	1.086026E+0	1.017916E+0	1.037940E+0	1.093006E+0	1.053598E+0	1.062093E+0	1.005114E+0	1.099932E+0	1.114465E+0	1.031106E+0	1.081317E+0	1.045732E+0	1.096208E+0	1.017158E+0	1.005218E+0	1.072495E+0	1.032867E+0	1.065383E+0	9.875064E-1	1.066800E+0	1.001093E+0	1.065401E+0	1.062907E+0	1.000826E+0	1.042119E+0	1.006742E+0	1.106826E+0	9.756531E-1	1.031661E+0	9.815574E-1	1.089726E+0	1.016797E+0	1.087193E+0	9.831483E-1	1.031967E+0	1.048072E+0	1.113678E+0	1.106826E+0	1.101652E+0	1.065090E+0	1.072429E+0	1.000929E+0	1.000453E+0	1.067400E+0	9.897009E-1	1.050718E+0	1.018390E+0	1.055611E+0	9.963709E-1	1.044875E+0	1.101788E+0	1.065842E+0	1.005730E+0	1.073658E+0	1.125288E+0	1.021838E+0	9.873912E-1	1.123102E+0	1.020363E+0	1.021764E+0	1.016043E+0	1.017566E+0	1.064218E+0	1.077395E+0	1.021577E+0	1.080770E+0	1.076302E+0	1.059927E+0	1.046298E+0	1.009119E+0	1.077455E+0	1.083960E+0	1.077039E+0	1.141586E+0	1.164178E+0	1.109689E+0	1.028263E+0	1.044324E+0	1.041746E+0	1.002775E+0	1.092868E+0	1.135092E+0	1.052515E+0	1.004455E+0	1.022581E+0	9.960599E-1	1.110567E+0	1.103047E+0	1.052854E+0	1.064517E+0	9.818611E-1	1.079271E+0	1.070159E+0	1.081394E+0	1.041024E+0	9.947613E-1	1.049158E+0	1.121534E+0	1.042027E+0	1.087157E+0	1.074650E+0	1.021492E+0	1.063127E+0	1.091107E+0	1.047818E+0	1.022404E+0	1.015032E+0	9.869282E-1
2.920010E+2	8.649116E-1	7.929978E-1	7.758062E-1	7.996788E-1	8.283883E-1	8.256516E-1	8.271961E-1	7.512328E-1	8.120596E-1	8.117085E-1	7.934516E-1	8.078575E-1	8.400788E-1	8.096878E-1	7.434952E-1	8.583668E-1	8.200446E-1	8.305893E-1	8.060810E-1	8.046133E-1	8.244400E-1	8.258446E-1	8.483355E-1	7.734250E-1	8.823217E-1	8.261738E-1	7.928016E-1	8.742382E-1	8.183554E-1	7.716956E-1	7.805091E-1	8.514809E-1	8.152598E-1	8.317146E-1	8.623222E-1	7.902774E-1	8.124976E-1	8.531939E-1	8.640000E-1	7.990419E-1	8.019359E-1	8.660540E-1	8.205596E-1	7.826054E-1	8.102669E-1	7.593126E-1	8.081592E-1	8.369024E-1	8.230997E-1	8.269319E-1	8.464230E-1	7.464961E-1	8.411319E-1	8.362222E-1	8.269355E-1	8.092135E-1	7.930075E-1	8.440763E-1	8.643652E-1	8.513671E-1	8.019786E-1	7.610148E-1	7.961278E-1	8.294565E-1	8.090324E-1	8.359972E-1	7.432622E-1	8.242205E-1	8.561082E-1	7.917590E-1	8.493734E-1	8.454754E-1	7.556986E-1	8.206492E-1	8.625506E-1	8.212643E-1	7.778626E-1	7.523207E-1	8.535949E-1	7.475657E-1	7.876535E-1	8.292107E-1	7.746231E-1	7.620855E-1	8.149739E-1	8.837742E-1	8.507680E-1	7.605299E-1	8.478479E-1	8.042166E-1	7.869499E-1	7.761542E-1	8.225230E-1	7.524928E-1	8.084640E-1	8.057928E-1	8.713754E-1	7.491394E-1	8.270842E-1	8.207624E-1	8.294478E-1	8.655558E-1	8.875004E-1	7.623256E-1	8.005413E-1	8.032909E-1	8.450212E-1	8.706884E-1	8.197830E-1	8.050267E-1	8.847308E-1	7.562375E-1	8.291538E-1	8.448609E-1	8.545445E-1	7.910813E-1	8.628816E-1	8.548419E-1	7.528298E-1	8.069698E-1	8.393243E-1	7.270749E-1	8.699743E-1	7.541372E-1	8.609709E-1	8.401572E-1	8.281681E-1	8.539604E-1	8.246018E-1	7.798081E-1	8.285499E-1	7.980413E-1	7.926266E-1	9.607314E-1	8.051166E-1	8.438732E-1	8.171368E-1	7.822931E-1	8.236390E-1	8.119700E-1	8.216013E-1	8.045373E-1	8.450118E-1	7.887659E-1	8.583373E-1	8.499768E-1	8.030036E-1	8.529497E-1	8.123104E-1	7.948629E-1	7.917980E-1	8.465915E-1	7.986856E-1	7.552623E-1	8.361301E-1	7.791066E-1	7.885799E-1	8.439846E-1	7.742735E-1	8.049038E-1	8.508802E-1	8.214587E-1	8.408249E-1	8.240568E-1	8.201272E-1	7.902574E-1	8.129628E-1	8.021946E-1	8.055272E-1	7.525806E-1	9.265657E-1
2.925000E+2	9.583023E-1	8.806024E-1	9.255653E-1	9.817954E-1	9.212292E-1	9.258274E-1	9.636573E-1	9.496524E-1	9.147346E-1	9.153105E-1	9.257788E-1	9.603252E-1	9.091441E-1	9.702840E-1	9.622794E-1	9.143472E-1	8.771864E-1	9.267509E-1	8.602674E-1	9.126443E-1	9.524760E-1	9.228539E-1	9.359463E-1	8.128433E-1	9.550388E-1	9.352516E-1	9.100778E-1	9.613612E-1	9.377207E-1	8.841903E-1	9.214238E-1	8.886768E-1	9.485121E-1	9.953901E-1	9.685558E-1	9.235900E-1	9.203898E-1	9.438438E-1	9.751694E-1	9.772724E-1	9.666059E-1	9.564133E-1	9.829187E-1	9.406286E-1	9.016822E-1	9.437043E-1	8.884771E-1	8.555228E-1	9.499896E-1	1.016676E+0	9.223910E-1	1.005695E+0	9.274716E-1	9.011102E-1	9.098635E-1	9.276720E-1	9.271410E-1	8.726784E-1	9.130663E-1	9.170061E-1	9.867270E-1	8.666411E-1	9.156078E-1	9.383757E-1	9.105920E-1	9.541813E-1	8.961576E-1	9.295175E-1	8.691757E-1	9.226365E-1	9.771076E-1	9.290598E-1	9.072394E-1	9.480256E-1	9.211342E-1	8.694640E-1	9.444834E-1	9.324892E-1	9.678761E-1	8.908436E-1	9.222962E-1	9.510467E-1	8.626235E-1	9.171631E-1	9.023376E-1	9.036116E-1	8.722142E-1	8.981415E-1	9.571284E-1	9.519053E-1	9.425962E-1	9.430461E-1	9.083632E-1	8.777319E-1	9.453092E-1	9.754883E-1	9.603317E-1	8.824784E-1	9.219180E-1	9.330558E-1	9.643904E-1	9.351500E-1	9.424584E-1	9.714147E-1	9.452639E-1	8.669038E-1	9.236289E-1	9.010666E-1	9.013139E-1	9.097530E-1	1.017052E+0	9.518078E-1	9.170523E-1	9.081960E-1	9.635125E-1	9.175552E-1	1.013480E+0	8.681107E-1	8.936247E-1	9.677368E-1	9.253295E-1	8.643938E-1	9.057051E-1	9.718414E-1	9.867084E-1	9.356851E-1	9.265030E-1	9.355406E-1	9.720218E-1	9.037071E-1	1.002304E+0	9.439585E-1	9.675942E-1	9.163853E-1	9.086920E-1	8.594474E-1	9.058725E-1	9.527239E-1	9.289048E-1	9.308302E-1	9.435050E-1	9.296781E-1	9.743042E-1	9.200332E-1	9.329056E-1	9.297853E-1	9.241714E-1	1.015461E+0	9.450148E-1	9.284805E-1	9.529490E-1	8.845940E-1	9.948116E-1	8.927298E-1	9.410619E-1	8.590572E-1	9.424899E-1	9.299770E-1	9.701960E-1	8.843547E-1	9.278032E-1	9.617258E-1	9.277983E-1	1.012131E+0	9.548189E-1	9.130681E-1	9.236779E-1	9.935833E-1	9.444920E-1	9.638433E-1	1.027897E+0
2.930010E+2	1.094908E+0	1.018206E+0	9.867562E-1	1.102115E+0	1.026999E+0	1.019421E+0	1.064053E+0	9.633965E-1	1.030532E+0	1.009256E+0	1.084824E+0	1.039501E+0	1.016167E+0	1.089471E+0	1.043219E+0	1.050526E+0	1.075511E+0	1.076051E+0	9.694711E-1	9.865183E-1	9.894645E-1	1.025321E+0	1.069235E+0	1.033789E+0	1.051691E+0	1.050966E+0	1.118537E+0	1.037437E+0	1.075983E+0	9.930093E-1	1.029013E+0	1.016590E+0	1.093022E+0	1.017934E+0	1.078315E+0	1.072310E+0	1.018310E+0	1.028013E+0	1.039951E+0	1.002460E+0	1.037598E+0	1.091383E+0	1.089701E+0	1.023728E+0	1.027133E+0	1.038897E+0	1.073405E+0	1.041276E+0	1.084817E+0	1.020421E+0	9.934377E-1	1.075778E+0	1.035036E+0	1.069359E+0	1.044496E+0	1.048134E+0	1.119120E+0	1.031443E+0	1.028769E+0	1.094349E+0	1.073832E+0	1.034425E+0	1.010419E+0	1.050634E+0	9.922871E-1	1.087176E+0	1.069121E+0	1.025550E+0	1.076454E+0	1.015767E+0	1.119746E+0	1.011167E+0	9.550795E-1	1.051064E+0	1.126051E+0	1.026640E+0	1.101402E+0	9.987889E-1	1.070926E+0	1.015385E+0	1.098824E+0	1.017746E+0	1.008875E+0	1.021040E+0	1.091642E+0	1.037281E+0	1.027166E+0	1.063119E+0	1.113425E+0	1.072038E+0	9.752079E-1	1.075802E+0	9.740780E-1	1.032432E+0	1.060464E+0	1.061565E+0	1.030012E+0	1.024873E+0	1.010012E+0	1.065199E+0	1.034376E+0	1.043527E+0	1.078046E+0	9.715494E-1	1.155587E+0	1.090859E+0	1.053098E+0	1.039410E+0	1.029043E+0	1.076565E+0	1.076197E+0	1.083325E+0	1.006960E+0	1.035943E+0	1.021063E+0	1.028103E+0	1.100016E+0	1.079967E+0	1.024725E+0	1.051492E+0	1.079676E+0	1.053069E+0	1.059616E+0	1.109937E+0	1.048178E+0	1.081396E+0	1.021994E+0	1.027788E+0	1.053830E+0	9.962761E-1	1.059211E+0	1.031145E+0	9.710833E-1	1.052306E+0	9.533144E-1	1.045038E+0	1.082459E+0	1.021643E+0	1.108939E+0	1.038580E+0	1.047200E+0	1.063800E+0	1.046647E+0	1.045167E+0	1.102226E+0	1.049758E+0	1.084726E+0	1.077046E+0	1.045191E+0	1.011118E+0	1.029404E+0	1.031515E+0	1.119334E+0	1.085430E+0	1.044803E+0	1.086163E+0	1.063083E+0	1.095543E+0	1.078592E+0	1.042073E+0	1.052800E+0	1.036243E+0	1.072427E+0	1.080314E+0	1.129153E+0	1.073748E+0	1.009219E+0	1.082858E+0	1.115182E+0	1.000070E+0	1.080170E+0
2.935110E+2	1.172740E+0	1.158205E+0	1.187832E+0	1.107294E+0	1.131242E+0	1.137559E+0	1.161522E+0	1.158532E+0	1.200303E+0	1.173225E+0	1.164482E+0	1.129595E+0	1.123419E+0	1.172981E+0	1.130066E+0	1.098955E+0	1.170379E+0	1.150407E+0	1.100684E+0	1.127081E+0	1.114303E+0	1.177540E+0	1.072861E+0	1.119360E+0	1.123451E+0	1.098953E+0	1.185810E+0	1.126632E+0	1.166652E+0	1.144344E+0	1.143800E+0	1.124880E+0	1.075898E+0	1.164687E+0	1.137765E+0	1.127991E+0	1.100281E+0	1.165660E+0	1.161265E+0	1.121298E+0	1.118601E+0	1.167770E+0	1.142270E+0	1.068586E+0	1.043125E+0	1.163824E+0	1.168396E+0	1.128578E+0	1.015458E+0	1.164468E+0	1.147695E+0	1.137700E+0	1.168102E+0	1.168649E+0	1.104005E+0	1.142005E+0	1.102314E+0	1.150500E+0	1.092186E+0	1.167087E+0	1.198687E+0	1.111269E+0	1.056811E+0	1.091064E+0	1.175660E+0	1.096183E+0	1.164905E+0	1.165125E+0	1.224795E+0	1.058965E+0	1.133464E+0	1.162463E+0	1.114470E+0	1.109009E+0	1.205322E+0	1.134118E+0	1.115926E+0	1.212031E+0	1.193268E+0	1.073251E+0	1.157921E+0	1.152000E+0	1.104290E+0	1.211474E+0	1.150612E+0	1.183675E+0	1.135530E+0	1.169636E+0	1.204697E+0	1.205632E+0	1.107247E+0	1.105776E+0	1.076431E+0	1.102923E+0	1.154657E+0	1.124244E+0	1.184089E+0	1.103818E+0	1.075085E+0	1.177490E+0	1.129644E+0	1.162490E+0	1.127105E+0	1.154838E+0	1.148766E+0	1.151409E+0	1.088110E+0	1.104308E+0	1.092058E+0	1.132766E+0	1.146107E+0	1.095853E+0	1.217119E+0	1.087148E+0	1.169908E+0	1.177956E+0	1.118545E+0	1.132697E+0	1.101576E+0	1.159487E+0	1.173236E+0	1.129612E+0	1.220151E+0	1.148859E+0	1.108890E+0	1.139789E+0	1.166671E+0	1.153568E+0	1.143415E+0	1.068740E+0	1.148257E+0	1.108759E+0	1.171863E+0	1.106149E+0	1.208052E+0	1.116020E+0	1.108085E+0	1.105865E+0	1.173451E+0	1.153193E+0	1.200241E+0	1.166545E+0	1.052418E+0	1.116476E+0	1.175306E+0	1.101161E+0	1.168401E+0	1.023898E+0	1.178993E+0	1.068542E+0	1.218055E+0	1.126905E+0	1.169725E+0	1.119961E+0	1.230312E+0	1.080007E+0	1.190034E+0	1.142992E+0	1.150446E+0	1.106552E+0	1.159809E+0	1.126809E+0	1.117657E+0	1.057290E+0	1.209668E+0	1.134244E+0	1.191928E+0	1.156257E+0	1.173335E+0	1.207861E+0	1.085050E+0
2.940050E+2	1.080351E+0	1.016028E+0	1.064688E+0	1.009698E+0	1.021718E+0	9.630399E-1	9.594360E-1	9.754740E-1	9.955434E-1	9.741559E-1	1.067434E+0	1.056426E+0	1.039949E+0	1.032701E+0	1.002834E+0	9.877351E-1	9.884453E-1	1.041181E+0	9.573219E-1	1.034191E+0	1.063349E+0	1.016881E+0	1.013006E+0	9.694819E-1	9.709346E-1	1.007821E+0	1.029072E+0	1.029755E+0	9.509982E-1	9.547345E-1	1.029232E+0	1.022159E+0	1.046631E+0	1.030185E+0	1.024165E+0	1.005200E+0	1.034832E+0	9.710982E-1	1.045689E+0	1.037033E+0	1.073953E+0	1.079525E+0	1.043597E+0	1.024029E+0	9.852755E-1	1.027510E+0	1.076256E+0	1.027458E+0	1.058377E+0	1.024127E+0	1.065328E+0	1.078341E+0	9.915636E-1	9.708755E-1	1.081517E+0	9.802516E-1	1.000608E+0	1.045636E+0	9.845034E-1	1.034700E+0	1.098831E+0	1.022492E+0	9.941952E-1	9.986954E-1	1.019825E+0	1.074609E+0	1.111494E+0	1.036007E+0	9.715185E-1	1.004931E+0	1.063224E+0	1.032864E+0	9.738737E-1	1.025817E+0	9.675852E-1	9.883848E-1	9.868210E-1	1.023671E+0	1.016461E+0	1.018570E+0	9.356040E-1	9.982600E-1	1.007668E+0	1.019392E+0	1.046919E+0	9.518747E-1	9.874080E-1	1.018142E+0	1.019367E+0	9.380013E-1	9.959796E-1	9.806110E-1	9.969887E-1	9.309179E-1	1.011508E+0	1.046766E+0	1.064607E+0	1.032936E+0	1.044737E+0	1.077304E+0	1.055822E+0	1.040727E+0	9.937873E-1	9.203077E-1	1.005498E+0	1.055746E+0	1.021951E+0	1.054215E+0	1.054096E+0	1.078619E+0	9.755110E-1	1.015019E+0	1.035945E+0	1.007262E+0	1.116826E+0	1.031784E+0	1.022791E+0	9.647104E-1	1.044292E+0	1.074356E+0	1.134743E+0	1.008493E+0	1.026223E+0	1.108105E+0	1.071232E+0	9.984610E-1	1.022238E+0	1.027689E+0	1.062179E+0	1.046636E+0	1.107804E+0	1.055012E+0	1.119953E+0	1.026222E+0	1.000618E+0	9.924547E-1	1.000874E+0	1.092152E+0	1.000547E+0	1.136674E+0	9.919776E-1	1.039590E+0	9.836660E-1	1.015981E+0	1.064148E+0	1.005142E+0	1.082283E+0	9.993676E-1	1.055058E+0	9.435709E-1	1.034021E+0	9.281118E-1	1.082953E+0	9.970615E-1	9.706796E-1	1.056069E+0	9.768867E-1	1.058181E+0	1.003123E+0	9.653140E-1	9.774949E-1	1.126615E+0	1.020435E+0	9.527124E-1	1.011032E+0	1.109394E+0	1.001384E+0	1.054367E+0	1.001956E+0	1.021692E+0	1.093108E+0
2.945010E+2	9.017204E-1	8.663142E-1	9.558810E-1	9.514101E-1	8.895614E-1	9.379782E-1	9.390686E-1	8.961644E-1	9.150859E-1	8.985210E-1	9.740164E-1	8.765368E-1	9.326419E-1	9.130914E-1	9.381439E-1	8.715795E-1	9.189480E-1	9.656971E-1	9.287802E-1	8.728773E-1	8.784065E-1	9.030917E-1	9.606804E-1	8.802427E-1	9.501380E-1	9.356813E-1	9.306327E-1	9.610791E-1	9.641841E-1	9.013156E-1	9.521186E-1	9.300024E-1	9.877729E-1	9.184445E-1	9.323050E-1	9.200602E-1	8.737314E-1	9.439777E-1	9.621833E-1	9.084989E-1	9.520374E-1	9.505034E-1	9.347885E-1	8.982859E-1	8.895216E-1	9.547405E-1	9.410312E-1	9.443826E-1	8.880105E-1	9.478679E-1	9.506228E-1	9.682930E-1	8.731562E-1	9.708725E-1	8.989889E-1	8.683861E-1	9.859843E-1	9.695621E-1	9.536557E-1	9.096788E-1	8.788737E-1	9.528076E-1	9.173273E-1	9.536424E-1	9.050177E-1	9.261466E-1	9.614943E-1	8.955941E-1	9.504763E-1	9.589846E-1	9.049847E-1	9.517230E-1	8.697742E-1	9.321500E-1	9.131191E-1	9.799569E-1	8.720503E-1	9.534154E-1	9.018996E-1	8.873829E-1	9.799399E-1	9.068834E-1	9.166046E-1	9.351927E-1	8.984444E-1	8.726183E-1	9.601677E-1	9.489973E-1	9.117688E-1	9.177553E-1	8.911045E-1	9.373560E-1	9.578753E-1	9.575616E-1	9.012028E-1	9.236275E-1	9.113555E-1	9.463084E-1	9.271745E-1	9.265500E-1	9.762864E-1	9.445767E-1	9.972174E-1	9.110033E-1	9.306194E-1	8.938548E-1	9.349073E-1	9.159323E-1	8.809260E-1	9.594334E-1	9.688123E-1	9.228397E-1	8.958099E-1	9.370516E-1	9.580760E-1	9.450410E-1	9.224835E-1	9.653023E-1	9.416226E-1	9.082366E-1	9.717496E-1	9.157743E-1	9.417554E-1	8.503142E-1	9.155766E-1	9.543605E-1	9.577704E-1	9.363481E-1	9.366776E-1	9.102674E-1	9.756294E-1	9.508395E-1	9.135884E-1	9.471918E-1	9.649488E-1	9.645672E-1	9.069379E-1	8.925345E-1	9.534327E-1	9.270089E-1	9.265247E-1	9.406584E-1	9.143948E-1	9.107011E-1	9.304510E-1	9.791966E-1	9.093059E-1	9.760950E-1	9.549687E-1	9.237177E-1	9.234432E-1	8.850355E-1	9.666938E-1	8.811188E-1	9.841073E-1	9.233577E-1	9.206940E-1	9.176378E-1	9.193018E-1	9.008396E-1	8.978754E-1	8.957759E-1	8.729978E-1	8.985807E-1	9.419970E-1	9.402942E-1	9.231465E-1	9.280844E-1	9.787489E-1	8.957864E-1	1.027527E+0
2.950050E+2	9.356664E-1	9.341149E-1	9.187518E-1	9.769961E-1	9.127035E-1	9.582062E-1	9.857056E-1	9.230550E-1	9.193606E-1	9.358627E-1	9.429400E-1	8.993330E-1	9.614608E-1	9.194373E-1	9.358708E-1	9.219045E-1	9.682323E-1	8.746234E-1	9.373926E-1	9.356354E-1	9.934489E-1	9.850641E-1	9.896496E-1	9.472474E-1	9.593275E-1	9.253102E-1	9.561470E-1	9.223191E-1	1.031198E+0	9.422213E-1	1.001877E+0	9.339678E-1	9.505824E-1	9.941242E-1	9.568710E-1	1.031552E+0	9.383577E-1	9.437172E-1	9.904545E-1	9.379502E-1	9.785123E-1	1.062809E+0	9.581708E-1	9.296737E-1	8.670251E-1	1.008709E+0	9.772883E-1	9.522950E-1	9.407266E-1	1.012680E+0	9.428968E-1	9.903059E-1	9.437817E-1	9.587001E-1	9.621120E-1	9.470369E-1	9.887321E-1	9.243140E-1	8.871419E-1	9.746425E-1	1.006988E+0	9.812523E-1	9.468059E-1	9.761677E-1	9.256087E-1	9.819300E-1	9.237180E-1	9.175350E-1	8.814766E-1	9.249305E-1	9.405282E-1	9.035206E-1	9.534466E-1	9.553308E-1	9.412485E-1	9.851083E-1	9.633720E-1	9.631191E-1	1.006487E+0	9.477682E-1	1.027954E+0	9.602752E-1	9.653464E-1	9.370544E-1	9.217044E-1	8.846286E-1	9.558104E-1	9.323329E-1	9.234108E-1	8.897131E-1	9.037001E-1	9.161907E-1	9.150937E-1	9.414449E-1	9.619963E-1	9.677469E-1	9.314189E-1	9.204895E-1	9.394323E-1	9.997852E-1	9.801246E-1	1.028837E+0	1.034200E+0	9.028018E-1	9.382784E-1	8.883411E-1	9.334119E-1	9.064362E-1	9.391056E-1	8.893271E-1	9.801807E-1	8.866028E-1	9.272371E-1	9.270294E-1	9.461850E-1	9.410937E-1	1.011406E+0	9.431552E-1	9.337774E-1	8.713341E-1	9.651407E-1	9.403758E-1	9.301355E-1	9.882629E-1	8.861191E-1	9.839830E-1	9.358622E-1	9.580254E-1	9.157201E-1	9.438570E-1	9.871071E-1	9.736836E-1	9.217387E-1	1.001089E+0	9.473582E-1	9.442135E-1	8.975477E-1	9.771921E-1	9.494880E-1	9.155321E-1	9.424907E-1	9.191215E-1	9.482439E-1	9.155231E-1	9.839572E-1	9.027500E-1	9.549368E-1	9.655904E-1	9.342964E-1	8.847252E-1	9.239238E-1	9.496274E-1	1.033246E+0	8.982432E-1	9.580374E-1	9.682533E-1	9.645632E-1	9.132060E-1	9.298001E-1	9.487683E-1	8.914672E-1	8.889098E-1	9.196462E-1	9.866311E-1	9.655375E-1	9.920202E-1	9.646098E-1	9.509758E-1	9.780437E-1	9.085410E-1	1.030948E+0
2.955070E+2	9.158141E-1	9.337653E-1	9.819860E-1	1.037698E+0	9.512528E-1	9.430793E-1	9.835481E-1	1.014233E+0	1.042818E+0	1.049692E+0	1.002551E+0	9.444659E-1	9.858847E-1	9.658697E-1	9.352592E-1	9.727023E-1	9.305614E-1	9.210120E-1	9.148220E-1	9.461759E-1	9.892561E-1	1.022347E+0	1.020787E+0	9.590203E-1	9.808607E-1	1.019170E+0	1.008240E+0	1.048978E+0	9.994224E-1	9.410100E-1	1.012181E+0	9.487576E-1	9.635650E-1	9.044777E-1	9.910185E-1	1.004924E+0	9.641100E-1	1.035668E+0	9.715308E-1	9.986176E-1	1.036706E+0	1.019518E+0	9.542887E-1	1.008254E+0	1.000647E+0	1.040316E+0	1.022746E+0	9.875225E-1	1.003159E+0	1.052180E+0	1.007068E+0	1.065598E+0	1.030982E+0	1.005869E+0	1.026708E+0	9.770007E-1	9.466470E-1	9.492662E-1	9.782036E-1	9.622994E-1	9.963009E-1	1.032379E+0	9.079210E-1	9.997102E-1	9.577294E-1	9.912268E-1	9.434444E-1	9.934389E-1	9.634530E-1	1.014948E+0	1.023314E+0	1.036634E+0	1.033380E+0	9.099984E-1	1.003491E+0	9.498893E-1	9.751368E-1	9.862254E-1	1.028287E+0	9.815075E-1	1.055067E+0	1.048177E+0	9.766084E-1	9.957853E-1	9.514060E-1	9.545854E-1	9.564436E-1	9.402106E-1	9.873639E-1	9.721289E-1	9.406814E-1	9.273369E-1	1.045568E+0	9.478124E-1	1.016788E+0	1.027469E+0	9.191049E-1	9.861585E-1	1.038306E+0	1.017325E+0	9.998795E-1	9.846727E-1	9.883007E-1	9.614291E-1	9.969876E-1	9.806530E-1	1.041044E+0	9.925859E-1	9.671431E-1	1.013414E+0	9.596105E-1	1.018446E+0	1.008556E+0	1.055149E+0	9.596354E-1	9.736922E-1	9.969233E-1	1.025252E+0	1.002296E+0	9.594253E-1	1.032400E+0	1.031959E+0	1.052389E+0	1.005638E+0	9.815101E-1	1.009418E+0	9.919817E-1	1.000395E+0	9.601354E-1	1.013858E+0	1.044640E+0	9.868127E-1	9.411903E-1	1.010805E+0	1.051653E+0	9.721831E-1	8.972179E-1	9.501070E-1	1.033831E+0	9.927235E-1	1.001945E+0	1.032393E+0	9.734871E-1	9.715343E-1	1.003371E+0	9.372537E-1	1.024469E+0	9.596203E-1	9.904865E-1	1.012957E+0	1.009012E+0	9.415187E-1	9.711731E-1	9.697554E-1	9.615783E-1	1.024259E+0	9.835124E-1	9.732849E-1	1.038867E+0	9.600177E-1	9.212832E-1	1.000392E+0	1.010167E+0	1.060057E+0	1.007381E+0	1.007034E+0	9.631660E-1	9.998681E-1	9.558006E-1	9.832084E-1	9.486059E-1
2.960030E+2	9.789688E-1	1.048121E+0	9.628763E-1	1.055066E+0	9.674444E-1	9.630991E-1	1.003521E+0	9.490905E-1	1.008256E+0	9.826929E-1	9.857846E-1	9.713145E-1	1.029067E+0	1.014545E+0	9.525079E-1	1.004992E+0	9.841475E-1	9.809669E-1	9.887872E-1	9.774640E-1	9.873378E-1	1.021093E+0	1.055477E+0	9.780714E-1	9.541563E-1	9.611548E-1	9.992308E-1	9.686013E-1	1.028196E+0	9.456870E-1	9.823127E-1	9.496172E-1	9.797564E-1	9.119504E-1	9.891060E-1	1.024856E+0	9.307269E-1	1.054461E+0	1.051303E+0	9.136403E-1	1.006576E+0	1.061406E+0	9.868211E-1	8.747780E-1	9.332756E-1	9.542112E-1	9.283270E-1	9.885086E-1	9.748200E-1	1.006385E+0	9.825273E-1	1.007092E+0	1.003363E+0	9.777559E-1	9.429035E-1	9.711594E-1	9.472834E-1	9.239860E-1	1.005070E+0	1.037777E+0	9.639952E-1	9.656714E-1	9.409230E-1	1.019733E+0	9.426101E-1	9.365384E-1	9.671375E-1	9.793452E-1	9.599499E-1	8.927812E-1	9.924567E-1	9.871336E-1	9.261501E-1	9.961281E-1	9.991134E-1	9.504348E-1	9.526086E-1	1.009023E+0	1.001252E+0	9.336117E-1	9.571817E-1	1.016700E+0	9.691309E-1	1.034758E+0	9.822260E-1	9.611358E-1	9.834540E-1	9.590605E-1	1.051987E+0	9.866712E-1	9.343284E-1	9.929561E-1	9.627052E-1	9.472218E-1	1.067209E+0	9.705537E-1	9.299568E-1	9.117908E-1	9.891815E-1	9.715614E-1	9.607514E-1	1.041459E+0	1.050866E+0	9.085948E-1	9.751372E-1	1.048373E+0	9.445128E-1	1.007939E+0	9.601755E-1	9.702749E-1	9.730332E-1	9.997773E-1	1.034679E+0	1.003717E+0	9.623035E-1	9.577726E-1	9.123863E-1	9.533729E-1	9.868333E-1	1.000199E+0	9.930010E-1	9.784191E-1	9.896146E-1	1.074654E+0	9.672417E-1	9.985678E-1	9.591494E-1	9.270175E-1	1.006051E+0	9.535959E-1	9.671580E-1	9.324205E-1	1.001705E+0	1.034979E+0	1.001539E+0	9.762054E-1	9.273308E-1	1.032599E+0	1.071393E+0	9.813538E-1	1.050828E+0	1.028587E+0	9.537200E-1	9.730199E-1	1.012200E+0	1.008547E+0	9.679477E-1	1.024075E+0	9.983759E-1	9.972925E-1	1.042009E+0	9.452573E-1	1.007053E+0	1.025019E+0	9.845390E-1	1.004219E+0	1.017269E+0	9.878059E-1	9.176309E-1	1.029863E+0	9.966859E-1	9.620682E-1	1.026756E+0	9.651851E-1	9.908145E-1	9.838031E-1	9.915597E-1	9.814139E-1	1.067866E+0	9.495914E-1	9.282763E-1
2.964980E+2	8.768264E-1	8.652282E-1	8.502431E-1	8.704927E-1	8.073202E-1	8.931570E-1	8.676851E-1	8.625568E-1	8.492402E-1	8.830445E-1	9.256595E-1	8.099465E-1	8.358374E-1	8.657045E-1	8.489814E-1	8.728275E-1	8.571198E-1	8.008685E-1	7.765203E-1	7.960470E-1	8.452079E-1	8.311823E-1	8.621640E-1	8.704671E-1	8.118116E-1	8.619053E-1	9.029087E-1	8.269544E-1	8.605431E-1	8.652841E-1	8.049707E-1	8.549728E-1	7.985038E-1	8.506304E-1	8.507465E-1	9.407562E-1	8.461512E-1	8.374244E-1	8.033004E-1	8.664869E-1	8.553550E-1	8.762278E-1	8.334900E-1	8.249592E-1	8.217490E-1	8.829739E-1	9.099140E-1	8.353491E-1	8.084572E-1	8.616346E-1	8.519224E-1	8.274431E-1	8.166135E-1	8.311200E-1	8.197589E-1	8.546079E-1	8.206925E-1	8.353381E-1	8.334570E-1	8.398429E-1	8.997829E-1	9.272539E-1	8.044363E-1	7.898785E-1	9.035612E-1	8.623891E-1	8.310688E-1	8.687821E-1	8.313719E-1	8.727187E-1	8.141202E-1	8.505359E-1	7.446965E-1	8.892492E-1	8.742931E-1	8.665184E-1	8.629976E-1	8.623259E-1	8.286055E-1	8.439341E-1	8.384483E-1	8.221665E-1	8.630223E-1	8.444770E-1	8.904379E-1	8.521215E-1	8.758106E-1	8.521737E-1	8.521925E-1	8.559942E-1	8.195805E-1	8.778727E-1	8.501478E-1	8.293731E-1	8.339861E-1	8.512488E-1	8.061698E-1	8.718781E-1	7.938827E-1	8.863794E-1	7.873090E-1	8.089386E-1	8.723076E-1	8.389473E-1	8.078930E-1	8.916503E-1	8.415041E-1	8.944382E-1	8.252114E-1	8.326241E-1	8.396256E-1	8.816847E-1	8.671631E-1	8.396895E-1	8.443615E-1	8.592775E-1	8.425842E-1	8.962593E-1	8.354203E-1	8.282413E-1	8.202317E-1	8.852195E-1	8.189720E-1	8.572064E-1	7.949569E-1	8.310197E-1	8.543122E-1	8.876609E-1	8.653132E-1	8.847754E-1	8.917117E-1	7.848794E-1	8.456535E-1	8.047022E-1	8.830858E-1	8.276826E-1	8.558952E-1	8.977103E-1	8.344737E-1	8.717490E-1	8.712417E-1	8.762949E-1	8.715591E-1	8.483452E-1	9.156504E-1	8.774622E-1	8.638779E-1	8.514301E-1	8.165958E-1	8.734401E-1	8.982434E-1	8.457254E-1	8.263310E-1	8.571401E-1	9.274956E-1	8.770047E-1	8.234441E-1	8.024789E-1	8.506789E-1	8.616396E-1	7.920812E-1	8.095675E-1	7.913751E-1	8.351824E-1	8.793928E-1	8.314589E-1	8.622336E-1	8.678235E-1	8.160745E-1	8.869920E-1	8.399363E-1
2.970020E+2	8.925343E-1	9.274340E-1	8.706634E-1	9.005735E-1	8.940261E-1	9.034584E-1	9.053149E-1	9.105490E-1	8.285832E-1	8.522883E-1	9.153244E-1	8.401274E-1	9.305958E-1	9.033627E-1	9.002260E-1	8.675315E-1	8.478307E-1	8.749386E-1	9.032943E-1	8.851887E-1	9.188034E-1	9.234329E-1	9.127159E-1	8.780827E-1	9.156990E-1	9.287428E-1	8.761155E-1	9.082125E-1	8.982105E-1	8.517178E-1	8.439419E-1	9.046368E-1	9.244127E-1	9.179165E-1	8.815447E-1	8.334661E-1	9.316550E-1	8.687491E-1	8.812311E-1	8.999029E-1	8.316372E-1	8.631349E-1	9.246585E-1	8.967336E-1	8.621461E-1	9.176709E-1	8.704762E-1	8.451825E-1	8.465126E-1	9.490974E-1	8.636912E-1	8.857466E-1	9.656506E-1	9.258091E-1	8.726879E-1	8.751447E-1	8.884792E-1	8.820276E-1	8.518313E-1	8.921238E-1	9.053987E-1	9.548612E-1	8.609632E-1	8.984365E-1	8.616589E-1	8.933492E-1	8.843975E-1	8.903883E-1	9.504871E-1	8.797166E-1	9.124204E-1	9.809570E-1	8.352055E-1	9.250779E-1	9.300333E-1	9.291516E-1	8.521371E-1	8.777760E-1	8.837858E-1	8.973824E-1	8.605739E-1	9.066055E-1	9.137739E-1	8.635831E-1	9.128129E-1	8.363274E-1	9.283863E-1	8.822969E-1	9.514414E-1	9.047405E-1	8.608799E-1	8.741601E-1	8.933760E-1	8.734651E-1	8.967269E-1	9.103056E-1	9.046768E-1	8.512075E-1	8.504115E-1	9.055440E-1	8.491039E-1	9.494988E-1	9.170342E-1	8.099851E-1	9.319032E-1	8.782657E-1	8.665624E-1	9.034606E-1	9.184373E-1	9.301375E-1	8.935659E-1	8.888888E-1	8.347705E-1	8.718646E-1	8.761973E-1	9.338201E-1	9.554178E-1	9.138674E-1	8.611538E-1	8.868014E-1	9.693402E-1	9.032780E-1	8.834539E-1	9.238725E-1	9.250932E-1	9.011841E-1	8.970343E-1	9.417038E-1	8.771857E-1	9.103876E-1	9.067285E-1	8.841860E-1	8.869131E-1	8.778242E-1	9.283827E-1	8.680760E-1	8.553705E-1	8.937231E-1	9.549573E-1	9.157990E-1	9.257304E-1	8.974060E-1	8.801823E-1	8.268848E-1	9.165337E-1	8.712082E-1	8.996335E-1	8.933685E-1	9.411022E-1	8.782193E-1	8.672813E-1	9.113086E-1	8.916274E-1	9.033895E-1	9.232707E-1	8.893097E-1	8.774471E-1	8.656292E-1	8.788686E-1	8.972277E-1	9.083346E-1	8.356059E-1	9.591495E-1	8.857595E-1	8.300857E-1	9.428868E-1	9.184497E-1	9.070074E-1	8.898425E-1	8.580166E-1	9.994575E-1
2.975020E+2	9.874248E-1	9.812791E-1	9.150949E-1	8.975365E-1	9.801171E-1	9.664712E-1	9.860813E-1	9.600394E-1	9.631860E-1	9.683009E-1	9.335825E-1	1.003478E+0	9.433329E-1	1.022612E+0	9.659079E-1	9.658216E-1	9.906911E-1	9.704950E-1	9.863780E-1	9.515527E-1	1.044942E+0	1.003943E+0	9.859570E-1	1.037900E+0	1.019089E+0	9.289973E-1	9.783146E-1	9.164211E-1	9.979601E-1	9.747676E-1	1.006175E+0	1.014639E+0	9.115466E-1	1.001294E+0	9.996181E-1	9.526326E-1	9.739868E-1	1.029804E+0	9.645798E-1	9.355795E-1	9.724920E-1	9.549834E-1	9.801362E-1	9.573928E-1	1.020366E+0	1.000313E+0	9.752714E-1	9.732812E-1	9.169623E-1	9.603618E-1	9.758244E-1	9.931355E-1	9.754175E-1	9.464647E-1	9.931082E-1	9.787752E-1	9.948363E-1	9.742289E-1	9.495908E-1	9.905482E-1	9.747375E-1	9.774414E-1	9.887912E-1	9.699228E-1	9.925377E-1	9.887890E-1	9.772427E-1	9.457848E-1	9.325081E-1	9.483047E-1	9.790846E-1	9.833895E-1	1.028060E+0	9.776383E-1	9.226549E-1	9.849265E-1	9.971700E-1	9.531555E-1	9.680027E-1	1.009915E+0	1.000552E+0	9.620016E-1	9.625310E-1	9.693321E-1	9.708791E-1	9.467776E-1	9.266678E-1	9.423717E-1	1.000366E+0	1.001343E+0	9.756906E-1	9.758219E-1	9.584086E-1	9.102598E-1	1.002148E+0	9.765856E-1	9.700309E-1	9.326237E-1	1.018998E+0	9.501895E-1	8.930515E-1	1.000909E+0	9.795531E-1	9.682524E-1	1.012693E+0	9.525980E-1	9.995425E-1	9.731359E-1	9.708328E-1	9.592988E-1	9.940851E-1	1.003466E+0	9.741264E-1	9.446022E-1	9.430690E-1	9.672072E-1	9.977683E-1	9.802005E-1	9.396325E-1	9.790829E-1	9.705090E-1	9.929856E-1	1.003688E+0	9.501710E-1	9.590881E-1	9.516436E-1	9.547919E-1	1.013951E+0	9.699576E-1	9.733457E-1	9.423698E-1	9.913773E-1	9.722060E-1	9.703759E-1	9.668154E-1	9.743741E-1	9.618497E-1	9.545292E-1	9.701768E-1	9.975504E-1	9.549890E-1	9.446791E-1	9.538013E-1	9.453357E-1	9.645599E-1	9.350137E-1	9.415010E-1	9.571072E-1	1.014343E+0	9.507977E-1	9.923706E-1	9.769761E-1	9.802316E-1	9.663632E-1	9.564624E-1	9.404751E-1	1.014800E+0	1.005578E+0	1.029921E+0	9.596843E-1	9.900717E-1	9.945328E-1	9.966646E-1	9.602969E-1	9.249478E-1	9.551977E-1	9.985689E-1	9.917476E-1	9.101010E-1	1.011222E+0	8.929358E-1
2.980020E+2	9.992476E-1	1.011675E+0	1.092917E+0	1.069496E+0	1.033080E+0	1.046049E+0	1.033510E+0	1.091859E+0	9.996716E-1	1.026941E+0	1.003667E+0	1.038510E+0	1.050764E+0	1.039025E+0	9.970442E-1	1.007736E+0	1.018426E+0	1.022935E+0	1.036103E+0	1.039708E+0	9.846977E-1	1.070301E+0	9.698555E-1	1.003868E+0	1.008875E+0	1.023164E+0	1.040292E+0	1.009804E+0	1.015835E+0	1.051984E+0	9.931063E-1	1.056217E+0	1.013570E+0	9.473369E-1	9.937655E-1	1.078776E+0	1.061757E+0	1.016071E+0	1.007548E+0	9.760390E-1	1.032049E+0	1.019454E+0	1.005491E+0	9.587978E-1	9.631695E-1	1.009452E+0	1.038421E+0	1.040675E+0	1.024272E+0	1.029265E+0	1.015284E+0	1.022921E+0	1.027171E+0	1.109548E+0	1.033780E+0	1.007535E+0	9.874432E-1	1.034613E+0	1.010928E+0	1.000717E+0	1.001284E+0	1.012313E+0	9.897385E-1	1.037192E+0	1.028480E+0	9.712995E-1	9.813458E-1	9.977436E-1	9.868445E-1	9.950540E-1	1.027734E+0	9.605581E-1	1.025022E+0	9.684570E-1	1.051505E+0	1.004994E+0	9.842039E-1	1.059237E+0	1.014525E+0	9.892374E-1	1.029561E+0	1.066172E+0	1.053482E+0	1.016615E+0	1.011957E+0	1.016565E+0	1.031969E+0	1.045574E+0	1.032161E+0	9.995986E-1	1.020923E+0	9.972485E-1	1.058661E+0	1.060237E+0	1.033966E+0	1.024326E+0	1.041086E+0	1.050271E+0	1.021156E+0	9.983806E-1	1.061650E+0	1.016066E+0	1.045139E+0	1.027774E+0	1.030163E+0	1.009558E+0	1.003942E+0	1.038105E+0	1.034183E+0	1.023571E+0	9.752945E-1	9.886979E-1	1.020924E+0	1.026670E+0	1.020902E+0	1.034286E+0	1.010405E+0	1.041229E+0	1.002045E+0	1.014775E+0	1.065246E+0	1.010575E+0	1.018468E+0	1.014616E+0	1.029318E+0	1.078410E+0	9.931723E-1	1.040236E+0	9.775419E-1	1.021115E+0	1.026319E+0	1.035463E+0	1.024856E+0	1.003003E+0	1.082333E+0	1.062557E+0	1.011961E+0	1.060000E+0	9.911566E-1	1.046285E+0	1.031168E+0	1.008437E+0	9.783904E-1	1.004095E+0	1.065461E+0	9.912087E-1	1.022579E+0	1.000141E+0	9.761969E-1	1.016108E+0	1.029943E+0	1.035203E+0	1.025965E+0	9.865454E-1	1.022479E+0	1.025741E+0	1.024595E+0	1.023615E+0	1.000567E+0	9.913333E-1	9.601308E-1	1.014716E+0	1.042489E+0	1.059850E+0	1.025961E+0	1.016827E+0	9.795215E-1	1.014941E+0	1.021338E+0	8.878057E-1	9.870957E-1
2.985010E+2	1.012730E+0	1.027327E+0	9.890304E-1	1.009895E+0	1.011507E+0	1.050146E+0	9.758728E-1	1.001096E+0	1.052587E+0	1.006873E+0	1.044931E+0	1.023941E+0	9.937591E-1	1.009787E+0	9.904628E-1	9.888813E-1	9.564119E-1	1.017763E+0	1.001660E+0	9.971004E-1	9.754530E-1	9.909842E-1	1.014426E+0	1.008164E+0	1.048615E+0	9.815870E-1	9.630813E-1	1.009604E+0	1.028637E+0	9.823534E-1	9.764734E-1	9.686421E-1	1.023884E+0	9.879469E-1	1.028330E+0	9.990442E-1	9.770346E-1	1.042952E+0	9.949057E-1	1.034069E+0	1.006830E+0	1.011092E+0	1.019871E+0	1.041026E+0	1.011198E+0	1.003199E+0	9.703782E-1	9.788669E-1	1.018227E+0	1.021318E+0	1.010588E+0	9.800619E-1	1.005114E+0	1.002410E+0	9.828355E-1	9.540729E-1	9.645679E-1	9.979065E-1	9.926054E-1	1.007580E+0	1.010809E+0	1.009310E+0	9.593111E-1	9.888985E-1	9.685348E-1	1.011338E+0	1.015013E+0	1.001641E+0	9.904703E-1	1.030545E+0	1.029290E+0	1.020575E+0	1.008986E+0	9.987342E-1	9.775084E-1	1.013190E+0	1.013085E+0	9.730758E-1	1.054165E+0	9.908169E-1	9.772184E-1	9.651357E-1	1.013017E+0	1.039993E+0	9.675618E-1	9.893699E-1	9.963629E-1	9.939542E-1	9.886961E-1	9.608412E-1	1.013910E+0	1.050062E+0	9.751104E-1	1.004856E+0	9.873560E-1	9.638241E-1	9.337909E-1	1.036807E+0	9.715774E-1	1.000893E+0	1.031060E+0	9.744364E-1	9.396270E-1	1.043907E+0	1.011314E+0	1.006716E+0	1.005999E+0	9.390115E-1	9.673015E-1	1.002429E+0	1.030531E+0	1.011775E+0	9.604154E-1	1.047301E+0	1.018335E+0	1.045012E+0	9.892401E-1	9.923895E-1	1.032802E+0	9.800669E-1	9.546833E-1	9.610824E-1	9.761627E-1	9.713166E-1	1.026809E+0	1.015552E+0	1.002711E+0	9.739251E-1	9.822054E-1	1.007031E+0	1.006816E+0	1.004297E+0	1.015541E+0	1.020884E+0	9.800100E-1	9.760517E-1	9.947816E-1	9.968102E-1	1.002179E+0	9.932131E-1	1.004824E+0	1.002952E+0	9.852977E-1	9.953704E-1	9.816590E-1	9.759956E-1	1.048898E+0	9.826319E-1	1.023987E+0	1.002836E+0	1.014587E+0	9.834892E-1	9.495839E-1	9.802725E-1	1.020354E+0	1.019666E+0	1.023527E+0	9.872458E-1	9.724064E-1	9.732727E-1	1.007974E+0	1.005929E+0	9.411346E-1	9.518214E-1	1.021599E+0	9.597740E-1	1.025308E+0	9.821960E-1	1.042791E+0	1.013840E+0	9.845174E-1
2.990010E+2	9.889766E-1	1.078897E+0	1.019567E+0	1.019265E+0	1.036243E+0	9.659017E-1	1.052271E+0	1.005449E+0	1.035928E+0	1.025448E+0	1.022848E+0	1.009519E+0	1.004180E+0	9.762304E-1	1.053738E+0	1.072214E+0	1.033315E+0	1.058906E+0	9.581175E-1	9.649699E-1	1.024235E+0	9.719704E-1	1.044170E+0	9.566684E-1	9.766426E-1	1.059814E+0	1.018320E+0	1.075637E+0	1.012677E+0	1.027381E+0	1.030545E+0	1.020044E+0	1.064950E+0	1.024107E+0	1.053595E+0	1.038653E+0	1.026574E+0	9.597146E-1	1.083869E+0	1.028852E+0	1.005909E+0	1.011937E+0	1.059576E+0	1.040604E+0	1.024966E+0	9.895413E-1	1.044633E+0	1.027024E+0	1.034286E+0	1.014757E+0	1.007744E+0	1.060928E+0	1.041781E+0	1.029484E+0	1.026628E+0	1.029892E+0	1.051847E+0	1.016332E+0	1.016162E+0	1.025092E+0	1.010636E+0	1.036023E+0	1.048974E+0	9.715290E-1	1.030711E+0	9.964495E-1	1.070559E+0	1.019465E+0	1.028577E+0	1.064981E+0	1.019209E+0	1.084026E+0	1.020892E+0	1.026189E+0	1.036762E+0	1.049667E+0	1.056243E+0	1.016382E+0	1.006211E+0	1.026889E+0	1.033314E+0	1.021252E+0	9.760172E-1	1.006177E+0	1.059147E+0	1.055213E+0	1.023818E+0	1.032385E+0	9.858135E-1	1.016238E+0	1.001390E+0	1.039625E+0	1.012302E+0	1.085414E+0	9.939750E-1	9.661899E-1	1.059129E+0	9.790057E-1	9.968736E-1	1.017313E+0	1.026962E+0	1.044091E+0	1.022660E+0	1.005511E+0	9.751285E-1	1.051186E+0	1.011584E+0	1.064851E+0	1.001500E+0	1.040091E+0	1.048106E+0	1.009078E+0	1.073954E+0	1.001355E+0	1.027316E+0	1.004463E+0	1.031529E+0	1.005986E+0	1.034485E+0	1.071663E+0	9.875951E-1	1.035849E+0	1.016808E+0	1.060118E+0	1.050350E+0	9.579760E-1	1.028784E+0	1.005757E+0	1.066371E+0	1.018848E+0	1.067098E+0	1.009894E+0	1.014709E+0	1.076445E+0	1.019413E+0	1.020659E+0	1.033847E+0	1.000746E+0	1.070029E+0	1.007656E+0	1.020302E+0	1.021896E+0	1.047394E+0	1.037156E+0	1.002887E+0	1.071762E+0	1.000655E+0	1.036759E+0	1.003606E+0	9.826959E-1	9.930121E-1	1.022688E+0	1.015271E+0	1.075266E+0	1.066033E+0	1.007718E+0	9.889996E-1	9.982393E-1	1.028255E+0	1.020011E+0	1.063493E+0	1.046149E+0	9.931688E-1	1.051909E+0	1.022288E+0	1.060533E+0	9.860807E-1	1.006470E+0	1.041548E+0	1.111622E+0	1.031773E+0
2.995040E+2	1.050164E+0	9.896814E-1	1.008281E+0	1.050124E+0	9.732556E-1	1.031277E+0	1.027892E+0	1.026814E+0	1.032721E+0	1.034533E+0	1.015804E+0	1.001587E+0	1.066211E+0	1.005716E+0	1.030488E+0	1.027747E+0	1.052982E+0	1.025525E+0	1.044174E+0	1.051639E+0	1.053377E+0	1.001401E+0	1.073084E+0	1.002080E+0	9.868577E-1	1.050347E+0	1.014202E+0	1.055686E+0	9.661682E-1	1.041544E+0	1.046908E+0	1.004901E+0	1.050204E+0	1.087949E+0	9.689210E-1	1.025933E+0	1.013903E+0	1.013759E+0	1.010582E+0	1.055077E+0	1.033087E+0	1.044662E+0	1.021588E+0	1.031667E+0	1.046806E+0	1.031371E+0	1.028437E+0	1.022421E+0	1.048091E+0	1.028306E+0	9.933479E-1	9.952366E-1	1.001844E+0	9.797374E-1	1.026380E+0	1.057897E+0	1.033660E+0	1.012661E+0	1.029619E+0	1.013576E+0	1.045737E+0	1.023705E+0	1.067177E+0	1.073877E+0	1.022183E+0	1.066843E+0	9.960952E-1	1.057692E+0	1.071343E+0	1.035718E+0	1.026507E+0	9.950582E-1	9.707454E-1	1.038184E+0	1.070347E+0	9.963250E-1	9.969868E-1	1.037065E+0	9.540352E-1	1.040081E+0	1.014170E+0	1.056072E+0	1.014666E+0	1.044163E+0	1.021918E+0	1.043228E+0	1.024866E+0	1.039571E+0	1.041902E+0	1.054182E+0	1.042057E+0	1.005345E+0	1.022015E+0	1.046519E+0	1.048629E+0	1.085893E+0	1.026837E+0	1.014693E+0	1.040964E+0	1.071464E+0	1.054537E+0	1.036241E+0	1.004842E+0	1.007538E+0	1.036222E+0	9.897672E-1	1.030003E+0	1.064753E+0	1.045009E+0	1.036919E+0	1.032308E+0	1.065482E+0	1.030194E+0	1.055417E+0	9.700665E-1	1.063512E+0	9.883753E-1	1.030837E+0	1.049850E+0	1.037467E+0	1.071380E+0	1.044834E+0	1.012391E+0	1.039649E+0	9.943491E-1	1.023907E+0	1.059037E+0	1.039239E+0	1.094477E+0	1.018026E+0	1.013170E+0	1.022129E+0	1.002385E+0	9.733178E-1	1.046979E+0	1.025289E+0	1.027449E+0	1.057105E+0	1.021425E+0	9.942703E-1	1.018521E+0	1.072657E+0	1.026912E+0	1.086690E+0	1.040017E+0	1.048289E+0	1.060493E+0	1.036662E+0	1.026799E+0	1.062401E+0	1.034094E+0	1.033068E+0	1.044434E+0	1.002955E+0	9.945443E-1	1.054259E+0	1.037623E+0	9.868805E-1	1.031906E+0	1.057322E+0	9.928059E-1	1.001257E+0	1.066157E+0	1.042137E+0	1.030177E+0	1.052866E+0	1.049515E+0	1.075617E+0	1.010308E+0	1.012704E+0	1.030929E+0
3.000060E+2	9.614576E-1	9.111407E-1	9.751092E-1	9.536840E-1	9.657972E-1	9.401547E-1	9.243723E-1	9.147438E-1	9.159068E-1	9.379048E-1	9.791681E-1	9.229653E-1	9.417525E-1	9.466284E-1	9.623583E-1	9.376008E-1	9.481735E-1	9.043766E-1	9.735674E-1	9.950300E-1	9.172947E-1	9.614006E-1	9.125080E-1	9.913196E-1	9.599212E-1	9.560902E-1	9.857897E-1	9.328485E-1	9.787231E-1	9.219693E-1	9.467921E-1	9.355571E-1	9.358455E-1	9.513665E-1	9.557706E-1	9.049615E-1	9.467445E-1	9.377007E-1	9.385151E-1	9.703837E-1	9.496327E-1	9.578711E-1	9.133381E-1	9.705124E-1	9.334953E-1	9.661244E-1	9.428599E-1	9.577323E-1	9.581622E-1	9.459931E-1	9.972119E-1	9.477164E-1	9.486717E-1	9.323560E-1	9.372684E-1	9.718286E-1	9.676456E-1	9.642587E-1	1.001095E+0	9.624871E-1	9.567973E-1	9.412088E-1	9.460084E-1	9.585801E-1	9.575547E-1	9.652811E-1	9.597443E-1	9.776741E-1	9.902570E-1	9.253977E-1	9.181757E-1	9.563933E-1	9.462957E-1	9.907974E-1	9.412224E-1	9.508971E-1	9.523117E-1	9.610842E-1	1.003061E+0	9.430604E-1	9.451844E-1	9.293672E-1	9.802867E-1	9.237197E-1	9.685374E-1	9.488467E-1	9.963176E-1	9.461441E-1	9.510616E-1	9.677965E-1	9.460288E-1	9.318980E-1	9.735036E-1	8.927142E-1	9.339265E-1	9.831817E-1	9.691263E-1	9.866001E-1	9.504310E-1	9.617593E-1	9.327387E-1	9.282574E-1	1.008180E+0	9.470179E-1	9.344792E-1	9.901744E-1	9.489296E-1	9.201446E-1	9.811741E-1	9.376920E-1	9.196756E-1	9.215014E-1	9.403857E-1	9.246547E-1	1.020311E+0	8.855200E-1	9.826831E-1	9.493573E-1	9.411859E-1	9.169453E-1	9.505873E-1	9.546739E-1	9.724830E-1	9.641294E-1	9.400861E-1	9.725114E-1	9.615025E-1	9.268913E-1	9.094472E-1	9.616340E-1	9.442265E-1	9.368397E-1	9.703029E-1	9.559749E-1	9.044501E-1	9.410692E-1	9.701123E-1	9.308095E-1	9.450344E-1	9.610252E-1	9.701968E-1	9.493796E-1	1.008205E+0	9.313532E-1	9.454154E-1	9.777308E-1	9.258746E-1	9.866989E-1	9.550671E-1	9.851616E-1	9.359933E-1	9.485755E-1	9.845151E-1	9.885982E-1	9.401272E-1	9.521422E-1	9.104554E-1	9.984413E-1	9.369450E-1	9.983766E-1	9.855242E-1	9.374165E-1	9.603855E-1	9.339863E-1	9.750270E-1	9.548024E-1	9.610058E-1	9.290288E-1	9.739136E-1	9.628069E-1	1.072749E+0
