Photon Energy (eV)	#1	#2	#3	#4	#5	#6	#7	#8	#9	#10	#11	#12	#13	#14	#15	#16	#17	#18	#19	#20	#21	#22	#23	#24	#25	#26	#27	#28	#29	#30	#31	#32	#33	#34	#35	#36	#37	#38	#39	#40	#41	#42	#43	#44	#45	#46	#47	#48	#49	#50	#51	#52	#53	#54	#55	#56	#57	#58	#59	#60	#61	#62	#63	#64	#65	#66	#67	#68	#69	#70	#71	#72	#73	#74	#75	#76	#77	#78	#79	#80	#81	#82	#83	#84	#85	#86	#87	#88	#89	#90	#91	#92	#93	#94	#95	#96	#97	#98	#99	#100	#101	#102	#103	#104	#105	#106	#107	#108	#109	#110	#111	#112	#113	#114	#115	#116	#117	#118	#119	#120	#121	#122	#123	#124	#125	#126	#127	#128	#129	#130	#131	#132	#133	#134	#135	#136	#137	#138	#139	#140	#141	#142	#143	#144	#145	#146	#147	#148	#149	#150	#151	#152	#153	#154	#155	#156	#157	#158	#159	#160	#161	#162	#163	#164	#165	#166	#167	#168	#169	#170	#171	
5.300160E+2	-3.902042E-3	-6.067543E-3	-8.104822E-3	-1.173993E-2	-4.145537E-3	7.725606E-4	-1.629094E-3	-8.470887E-3	4.789248E-4	-1.115479E-2	-1.570148E-3	-1.175676E-2	-5.361376E-3	-2.264752E-3	-6.775198E-4	-2.768303E-3	3.114784E-4	-2.863928E-3	-6.211283E-3	-2.570266E-3	-1.038541E-2	1.377694E-3	-5.781444E-3	-4.468288E-3	1.759021E-4	1.641949E-5	-3.008819E-3	-2.428301E-3	-4.119756E-4	-2.052995E-3	-9.826655E-3	-7.942690E-3	-2.177017E-3	-8.135645E-3	-6.245499E-3	-5.402207E-3	9.073026E-4	6.744570E-4	-4.021701E-3	-2.482914E-3	-6.511122E-3	-3.329641E-3	-7.586232E-3	-7.477786E-3	-8.083138E-3	-2.927225E-3	-7.314546E-4	-9.253367E-3	-3.060127E-3	-6.267731E-3	-8.583386E-3	2.554974E-3	-5.879269E-3	-4.816097E-3	-5.133647E-4	-6.585774E-3	2.216970E-3	-5.419968E-3	-8.111736E-3	-4.247712E-4	-5.828754E-3	-2.274639E-3	1.040159E-3	-5.713665E-3	-2.091359E-3	-1.290909E-2	-1.399201E-2	-1.130942E-2	-8.214238E-3	-3.362566E-3	-2.978983E-3	-8.347254E-3	-5.805365E-3	-7.802032E-3	-2.430840E-3	-2.250323E-3	-2.083629E-3	-9.582782E-3	-7.254885E-4	6.163639E-4	-7.600685E-4	-8.857094E-3	-1.654860E-4	-3.327258E-3	-4.457619E-3	9.299153E-4	-4.446235E-3	-9.496979E-4	-8.479615E-3	-7.454314E-4	-1.160941E-2	-4.748995E-4	-9.393432E-3	-2.108083E-3	-4.390804E-3	-2.805715E-3	-3.285763E-3	-1.856790E-3	-1.546964E-3	-2.357492E-4	-3.310879E-3	4.881594E-3	-8.000181E-3	-2.824693E-3	-2.990327E-4	-8.556758E-3	-8.388932E-3	-4.025779E-3	-5.368690E-3	-8.603015E-3	-2.784549E-3	-9.669290E-3	-9.781181E-3	-1.553411E-2	-4.875638E-3	4.819926E-5	-5.767201E-4	-5.178487E-3	-7.262523E-3	-4.298952E-3	-8.152573E-3	-5.679812E-3	-9.815789E-3	-2.166533E-4	-7.826243E-3	-6.768361E-3	-8.498174E-3	-7.121307E-3	-1.145752E-2	-2.823354E-3	-8.896824E-3	-1.040861E-2	-5.381730E-3	-1.543026E-2	-7.748148E-3	7.435962E-3	-5.385744E-3	-7.761272E-3	-5.478567E-3	-8.261258E-3	-8.855409E-3	5.221623E-4	-4.490005E-3	-3.570822E-3	-6.960783E-3	-5.000321E-4	-5.417858E-3	-3.648453E-3	4.975258E-3	-5.035146E-3	-9.511455E-3	-6.427348E-3	3.781330E-3	-1.174013E-3	-7.630029E-3	-6.829224E-3	-8.021814E-3	-6.159855E-3	-1.082005E-2	-1.724500E-3	-5.744191E-3	-1.328566E-2	-1.643536E-2	-4.300799E-3	6.657981E-4	-1.048035E-2	-4.215552E-3	-1.205483E-2	7.009689E-3	-9.933369E-3	-9.532319E-3
5.305130E+2	-8.066765E-3	-1.262020E-2	-1.653293E-3	2.780070E-4	1.237045E-4	-6.643164E-3	-5.980788E-3	-3.446051E-3	-1.890898E-3	-6.230590E-3	-4.945715E-3	1.878231E-3	-3.251678E-3	-4.617590E-3	-1.704808E-3	-3.811309E-3	-9.442284E-3	5.948913E-4	-1.263029E-2	-5.172626E-3	-7.342626E-3	-1.116771E-2	-7.193444E-3	-8.163121E-3	-5.875615E-3	-9.529513E-3	-7.027637E-4	-9.495235E-3	-6.140655E-3	-2.200759E-3	-8.592136E-4	4.347554E-3	-7.380309E-3	-7.619013E-3	1.685522E-3	-6.343473E-4	-2.161786E-3	-4.220477E-3	-9.763418E-3	-1.077163E-2	-3.494880E-3	-7.711370E-3	-3.291005E-3	-4.304123E-3	-2.860788E-3	4.440971E-3	-5.211735E-3	-3.943197E-3	-7.675492E-3	-3.216761E-3	-7.632077E-3	-1.067365E-3	-4.015014E-3	-3.932511E-3	-1.517961E-2	-5.633704E-3	-3.490717E-3	-5.448053E-3	-4.703363E-3	-8.605422E-3	-7.668084E-3	-1.574222E-3	1.845635E-3	-2.853337E-3	1.839034E-3	1.752110E-3	-9.673516E-3	-6.414652E-4	2.816157E-3	-7.370596E-3	-6.040661E-3	-9.768690E-3	-4.137699E-3	-4.400825E-3	-3.038738E-3	-3.476592E-3	-3.580433E-3	-6.700542E-3	-7.740952E-3	-8.744582E-3	-1.901696E-3	-1.130991E-3	-1.305410E-3	-1.145574E-2	-1.827103E-2	-8.849625E-3	1.910740E-3	-4.039793E-3	-5.623700E-4	-7.294684E-3	-5.299124E-3	-3.494520E-3	-1.042738E-2	-4.119728E-3	-6.799674E-3	-5.812666E-4	-3.911146E-3	-1.013582E-2	-5.517251E-3	-3.187280E-3	6.439103E-4	-7.146367E-3	-9.553242E-3	-8.276459E-3	-3.256316E-3	-4.444357E-4	3.980063E-3	-5.195454E-3	3.886658E-3	-1.265629E-3	8.575436E-5	-1.231450E-3	-8.153269E-3	-1.175700E-3	-2.240007E-3	-7.104378E-3	-9.143434E-3	-3.510251E-3	-5.074449E-4	-3.465338E-3	-9.929120E-3	-2.572488E-3	-7.913790E-3	-8.282667E-3	-2.468873E-3	-3.446560E-3	-1.236693E-2	-1.569518E-3	-3.739190E-3	-1.728344E-3	-1.003704E-2	-4.189777E-3	-1.117336E-2	4.028922E-3	4.217058E-4	-4.719448E-3	-6.993348E-3	-7.133887E-3	-1.095927E-2	1.112583E-3	2.226037E-4	-4.911856E-3	-6.562551E-3	-7.600522E-3	-3.468335E-3	-1.150998E-2	-7.077088E-3	-7.456070E-3	-3.739249E-3	-6.098852E-3	-9.531197E-3	-5.558049E-3	-1.016346E-2	-1.121069E-2	5.026869E-4	-2.228460E-3	-3.734129E-3	-8.711666E-3	-7.149310E-3	-5.229931E-3	-7.843028E-3	-1.481078E-2	-1.062070E-3	-2.005618E-3	-4.478515E-3	-2.634338E-3	-1.192323E-2	-5.450538E-3	-8.477711E-3	2.749133E-3	1.601261E-3
5.310000E+2	-5.943627E-3	-1.145703E-3	-3.884026E-3	-3.618952E-3	-5.661468E-3	-1.041468E-2	-6.942874E-3	-7.362429E-3	-5.936164E-3	-5.582416E-3	-7.562085E-3	-6.745787E-3	-5.786711E-3	-5.824580E-3	-4.069259E-3	1.546125E-3	-7.835412E-3	-4.390160E-3	2.290345E-3	3.687578E-3	1.112019E-3	-6.224281E-3	-4.366649E-3	-2.626139E-3	1.759546E-4	-3.674681E-3	-5.878107E-3	-1.271636E-3	-5.609419E-3	-4.329847E-3	-4.023461E-3	-1.117740E-3	-2.149716E-3	-3.157910E-3	-2.187400E-3	9.388204E-4	-6.032294E-3	-6.241360E-3	3.574944E-3	-2.092699E-3	-3.986038E-3	-4.374670E-3	-5.852685E-3	-1.048795E-2	-1.306736E-3	-5.623365E-3	-5.517366E-3	2.854208E-3	-5.046942E-3	-9.239883E-3	-6.080423E-3	-5.894355E-3	1.422586E-3	5.235479E-4	-4.916539E-4	-4.035313E-3	-5.073149E-3	2.397817E-3	-1.783608E-3	1.708088E-4	-3.603971E-4	-4.897252E-3	-6.699634E-3	-8.294578E-3	-5.438554E-3	-9.105904E-3	2.643710E-3	4.050836E-3	1.914431E-3	-8.760898E-3	4.590902E-5	-2.026884E-3	-5.126195E-4	-6.552430E-3	-5.548494E-3	1.228120E-3	3.321173E-3	-6.109251E-3	-4.419242E-3	-8.654453E-4	1.488108E-3	-2.663507E-3	-8.933774E-3	-5.971506E-3	-8.204830E-4	-5.850135E-3	4.702241E-3	-5.888626E-3	1.794500E-4	-7.193279E-3	-5.764695E-3	7.567563E-4	3.393244E-3	4.488130E-3	-2.054491E-3	-1.868577E-3	4.115944E-3	4.676943E-3	-1.017123E-2	-2.504876E-3	-1.713794E-3	1.713575E-3	3.511101E-3	5.455742E-3	-4.267903E-3	8.290285E-4	-9.946021E-3	-1.154301E-3	1.223022E-3	-6.806219E-3	-5.005900E-3	-3.953620E-3	-3.124219E-3	6.044146E-3	-5.372498E-3	-5.376103E-3	-1.003407E-2	-6.868402E-3	-3.207486E-3	-3.821545E-3	-2.797248E-3	-8.485222E-4	-1.146079E-3	-4.815203E-3	-3.248107E-3	-3.328244E-3	3.690574E-3	-8.455456E-3	7.643029E-3	-5.031487E-3	-3.305968E-3	-6.611547E-4	-5.876114E-3	-4.205546E-4	-2.719696E-3	-3.552710E-3	-4.175843E-3	5.497591E-3	-9.990610E-4	-7.546687E-3	1.283303E-3	-4.745458E-3	-2.917128E-3	2.156490E-3	-7.914955E-4	-1.544928E-3	-3.699577E-3	-1.443227E-3	-8.108274E-3	-7.398482E-4	5.975314E-4	2.779072E-3	-1.116328E-2	-9.933048E-3	-4.586308E-3	-4.411999E-3	-7.357370E-4	-1.153831E-2	3.123709E-3	-3.173759E-3	-4.648846E-3	3.652817E-4	-1.266522E-2	4.416932E-3	-2.359405E-3	-1.454145E-3	-8.765992E-3	3.007198E-4	-1.406490E-2	-1.019926E-2	-1.124223E-3
5.315130E+2	5.031570E-3	-6.456585E-3	6.782835E-3	3.960507E-3	-5.053198E-3	7.027766E-3	2.780745E-3	8.829458E-4	9.842714E-4	6.720951E-3	-2.542213E-3	1.035340E-3	-5.051418E-4	5.424714E-4	-6.871031E-3	-1.378973E-3	4.514062E-3	-3.725397E-3	-5.663552E-4	-5.489177E-3	5.615188E-3	2.949287E-3	3.059072E-3	4.805355E-3	-1.039825E-3	3.381815E-3	4.942288E-4	-7.479259E-5	-5.144482E-3	-1.944080E-3	2.692642E-3	1.030450E-3	-2.588173E-3	-1.172609E-2	-1.562977E-3	1.057357E-4	-3.288250E-3	-5.743117E-4	2.310051E-3	2.364856E-3	-8.322275E-4	2.379186E-3	-1.489251E-3	7.458429E-3	-3.952414E-3	-1.911313E-3	2.158464E-4	-4.938462E-3	-5.998855E-3	4.183731E-3	5.182929E-3	-3.203054E-4	-1.008754E-3	3.561919E-3	-1.466852E-3	2.068540E-3	-1.126027E-3	-6.904638E-3	-2.806627E-3	2.602110E-3	1.984847E-3	3.466553E-3	-6.114490E-3	4.730570E-3	2.088421E-3	-1.127861E-3	9.699692E-3	-4.056069E-4	-1.659184E-3	3.257012E-3	-8.842290E-3	3.831491E-3	-2.714815E-3	-3.621186E-3	-7.548070E-3	-2.098173E-3	-3.774512E-3	3.712611E-3	-6.138127E-3	-3.667814E-3	1.059319E-3	-3.108335E-3	-2.761911E-3	1.700561E-3	1.344969E-3	5.425069E-3	-9.091656E-3	-5.283509E-3	1.371562E-2	3.166689E-3	7.942660E-3	-3.268393E-3	-3.333256E-5	-2.929108E-3	3.179955E-3	-1.217284E-2	-5.943162E-3	-4.042874E-3	4.594107E-4	-9.391704E-5	4.413316E-4	-6.414581E-3	5.252718E-3	-4.157372E-3	3.953316E-3	-2.524609E-3	-7.596020E-3	-6.112735E-3	-9.941630E-3	-1.485115E-4	-4.887048E-3	-5.254049E-3	1.362811E-3	-4.276726E-3	-3.098600E-3	-3.870565E-4	5.433790E-4	-7.315028E-3	-2.538785E-3	-7.935445E-4	7.821847E-3	-1.253620E-3	1.451909E-3	4.434279E-3	-4.044001E-3	-5.639319E-3	9.845898E-3	1.474994E-3	1.248829E-3	2.302979E-4	5.867440E-3	8.051999E-3	-2.869339E-3	4.357125E-3	5.614996E-3	-2.924124E-3	-1.393975E-3	-4.532283E-3	8.493500E-3	-2.120850E-3	1.862998E-3	2.148919E-3	7.210896E-3	-2.989093E-3	-1.192053E-2	-3.544354E-3	2.042176E-4	-3.981018E-3	-5.998493E-3	-8.428249E-3	1.907901E-4	-5.313282E-3	-3.327369E-3	-2.154478E-3	-4.384523E-4	-6.618177E-3	-1.580040E-3	9.065238E-4	3.263643E-3	4.218399E-3	7.314207E-3	-5.362323E-3	-8.271923E-4	5.153509E-4	3.264987E-3	-1.807365E-3	-8.481913E-6	5.365333E-3	-4.940012E-3	-8.632884E-3	7.849833E-3
5.320170E+2	1.284818E-4	1.283277E-2	1.020541E-3	8.274304E-5	-4.066473E-4	-5.471584E-3	2.356816E-3	6.082033E-3	2.112602E-3	3.801166E-3	1.236209E-2	7.738497E-3	4.589156E-5	7.359505E-3	4.084405E-3	-3.888406E-3	9.748446E-4	-1.473192E-5	4.015671E-3	-3.325569E-3	1.875393E-3	1.340304E-3	3.182187E-3	4.023662E-3	-3.375737E-3	2.464309E-3	-1.325041E-3	4.939139E-3	7.729727E-3	3.156979E-3	4.486518E-3	7.613020E-4	7.574259E-3	1.030868E-2	-4.464628E-3	-3.664496E-3	-5.559501E-3	7.815881E-3	1.505101E-3	4.256689E-3	-6.688069E-3	1.542482E-3	1.092239E-2	3.917502E-3	5.709138E-3	-3.105023E-3	3.382004E-3	6.342795E-4	7.883491E-3	7.978047E-3	9.218121E-3	6.787742E-3	5.944182E-3	3.980347E-3	1.066645E-2	3.758284E-3	-1.668139E-4	2.310948E-3	4.104539E-3	2.192726E-3	8.521197E-3	-2.621304E-4	3.685168E-3	-2.009935E-3	-8.841729E-4	8.505460E-3	7.780187E-4	-2.657577E-4	-4.865121E-3	4.513884E-3	8.831573E-3	4.947838E-3	-3.854779E-4	1.820761E-2	3.653720E-3	3.227481E-3	-1.714197E-3	1.023002E-2	7.353471E-3	-2.068493E-3	-3.147332E-3	1.412564E-2	5.677901E-3	5.095971E-3	8.478242E-3	-1.675362E-3	-3.926435E-4	1.277405E-3	-4.934299E-3	-7.898423E-3	7.190798E-4	-1.930702E-3	-7.132481E-4	-1.816093E-3	4.723881E-3	9.815851E-3	2.110672E-3	1.408816E-3	7.812193E-3	3.689841E-5	5.743083E-4	8.198716E-3	2.668112E-3	3.773673E-4	-2.871936E-3	5.170807E-3	5.506998E-3	4.748211E-3	6.241456E-3	1.269761E-2	6.207395E-3	5.363458E-3	5.361904E-3	2.457958E-3	5.032882E-3	5.224263E-3	4.151774E-3	1.541260E-2	2.654696E-3	3.205155E-3	2.671589E-3	4.843317E-4	8.403747E-3	4.070673E-3	6.194064E-3	-3.561257E-3	2.779421E-3	4.893806E-3	3.742630E-3	-1.391115E-3	1.143267E-3	1.281882E-3	1.696168E-2	1.873445E-3	-4.154594E-3	-1.247240E-3	1.929209E-3	2.753758E-3	-1.367578E-3	5.690685E-3	2.453392E-3	3.719108E-3	-3.724982E-3	9.029155E-3	1.124308E-2	9.343207E-3	8.504377E-3	-1.763730E-3	1.659302E-3	-3.076043E-3	1.145083E-2	4.033496E-3	6.765943E-3	6.243872E-3	6.041446E-3	-7.305617E-4	9.142457E-3	9.453872E-3	3.864850E-3	2.408323E-3	-3.915350E-3	1.484365E-2	2.081224E-2	-6.288798E-3	-1.117403E-3	-2.731856E-3	1.237677E-2	-1.803215E-4	1.392907E-2	1.516514E-2	-9.776517E-3
5.325170E+2	1.275238E-2	1.345726E-2	5.838766E-3	1.103762E-2	1.514315E-2	1.472910E-2	9.415196E-3	1.231439E-2	4.251264E-3	1.244568E-2	4.258070E-3	7.850474E-3	1.485901E-2	4.804946E-3	9.238213E-3	1.030087E-2	1.147731E-2	1.039933E-2	1.310191E-2	1.287006E-2	9.125438E-3	1.172470E-2	1.110028E-2	6.428531E-3	9.939320E-3	7.341649E-3	1.042050E-2	8.330826E-3	9.576805E-3	7.370701E-3	7.530169E-3	2.921124E-3	6.720955E-3	2.032998E-2	1.277498E-2	8.656494E-3	1.613453E-2	2.545811E-3	6.395024E-3	8.725702E-3	2.151234E-2	1.149401E-2	7.296785E-3	1.089393E-2	1.049394E-2	9.125955E-3	7.862705E-3	1.464654E-2	1.389792E-2	6.562596E-3	7.894837E-3	-2.060691E-3	3.536269E-3	6.827936E-4	6.985030E-3	1.042797E-2	7.639737E-3	1.306389E-2	1.330080E-2	4.064549E-3	3.351192E-3	5.541690E-3	6.243162E-3	1.414094E-2	4.486632E-3	1.288529E-2	1.054410E-2	8.571414E-3	1.000795E-2	1.172316E-2	8.984451E-3	1.136350E-2	1.355598E-2	4.168865E-3	1.491242E-2	3.369488E-3	7.831599E-3	8.449947E-3	1.167034E-2	1.472997E-2	3.261670E-3	1.634282E-3	7.488680E-3	1.395797E-2	1.372592E-2	1.002014E-2	7.317553E-3	1.488422E-2	8.120942E-5	1.996513E-2	1.401149E-2	8.411757E-3	1.717415E-2	6.484882E-3	5.341133E-3	7.612546E-3	6.913455E-3	9.949724E-3	8.963845E-3	5.984924E-3	3.365123E-3	-1.232937E-3	6.121491E-3	9.425414E-3	6.741872E-3	5.525967E-3	1.644391E-2	1.174006E-2	3.959184E-3	4.125761E-3	6.384348E-3	1.474495E-2	1.433395E-2	1.248443E-2	1.055386E-2	7.595076E-3	1.505908E-2	7.459565E-3	1.086154E-2	9.174224E-3	1.038551E-2	9.870110E-3	9.020002E-3	4.809572E-3	1.139316E-2	2.274374E-2	4.549208E-3	1.077748E-2	2.562217E-3	1.074400E-2	1.522912E-2	5.925657E-3	8.338867E-3	5.591318E-3	8.585736E-3	5.007560E-3	1.601970E-2	1.117609E-2	1.031098E-2	1.112553E-2	3.033112E-3	3.267124E-3	1.048377E-2	2.974793E-3	1.189806E-2	7.756085E-3	7.485928E-3	1.829250E-2	1.121146E-2	2.337814E-2	6.803501E-3	1.048611E-2	1.410684E-2	1.822835E-2	6.110656E-3	2.081842E-2	4.929262E-3	1.604943E-2	7.717160E-3	3.501469E-3	1.483721E-2	1.824983E-2	1.017760E-2	7.662932E-3	4.024539E-3	1.910805E-2	1.253648E-2	1.201963E-2	6.543863E-3	1.085124E-2	1.098197E-2
5.330230E+2	2.693404E-2	1.853571E-2	1.776881E-2	1.808906E-2	2.393959E-2	2.868641E-2	2.135624E-2	1.858403E-2	1.961336E-2	2.968935E-2	1.483781E-2	2.175460E-2	2.628720E-2	1.794479E-2	2.784447E-2	3.205833E-2	1.558825E-2	1.414862E-2	1.973550E-2	2.081502E-2	1.443812E-2	1.321889E-2	2.504045E-2	2.262125E-2	2.484578E-2	2.073313E-2	1.687711E-2	3.201337E-2	2.306172E-2	1.798023E-2	3.766027E-2	2.011467E-2	2.619486E-2	1.778672E-3	3.464453E-2	1.516398E-2	3.295795E-2	2.160317E-2	3.189014E-2	2.234026E-2	1.282146E-2	8.890400E-3	1.978341E-2	2.795612E-2	3.254530E-2	2.366728E-2	2.456921E-2	1.355604E-2	3.270284E-2	2.944816E-2	1.780951E-2	2.608153E-2	2.081403E-2	2.977928E-2	3.009275E-2	2.772136E-2	1.496466E-2	1.713223E-2	2.196505E-2	2.171462E-2	3.054779E-2	1.925474E-2	1.465928E-2	2.690920E-2	2.537301E-2	2.415140E-2	1.713062E-2	1.693090E-2	2.417209E-2	2.443629E-2	3.282692E-2	1.585777E-2	1.318178E-2	2.717575E-2	2.250476E-2	2.378349E-2	1.866261E-2	3.162544E-2	3.269936E-2	1.538512E-2	4.220428E-2	1.451484E-2	2.379773E-2	2.065176E-2	1.433819E-2	2.151420E-2	3.553861E-2	2.500699E-2	9.699136E-3	1.572451E-2	2.273660E-2	2.052368E-2	2.416856E-2	2.383795E-2	2.283398E-2	1.876662E-2	1.570500E-2	2.801084E-2	1.781838E-2	1.715146E-2	2.578711E-2	1.259750E-2	2.541780E-2	2.783557E-2	2.047269E-2	3.395191E-2	2.229094E-2	2.556241E-2	8.455396E-3	3.076679E-2	1.978880E-2	2.546545E-2	2.376224E-2	2.761589E-2	3.504663E-2	2.972474E-2	2.056326E-2	2.365859E-2	3.211949E-2	1.719265E-2	1.155008E-2	2.267644E-2	2.145672E-2	2.623726E-2	1.573087E-2	1.950476E-2	1.077334E-2	2.847115E-2	1.343766E-2	3.167020E-2	2.636057E-2	1.982525E-2	2.303905E-2	2.978521E-2	2.422681E-2	1.990517E-2	1.509222E-2	1.985957E-2	2.530730E-2	2.027622E-2	7.795660E-3	3.051451E-2	2.274967E-2	3.193736E-2	2.269979E-2	2.485825E-2	1.756855E-2	1.467894E-2	2.735504E-2	2.757879E-2	1.817131E-2	2.534196E-2	1.316288E-2	3.275863E-2	2.063552E-2	1.811314E-2	2.293962E-2	2.324448E-2	2.233153E-2	2.124631E-2	2.440325E-2	1.024739E-2	2.578174E-2	2.865155E-2	1.763601E-2	2.893292E-2	1.937924E-2	2.714248E-2	2.169619E-2	2.889365E-2	1.704869E-2
5.331630E+2	3.111315E-2	1.818644E-2	3.035251E-2	3.326511E-2	3.100960E-2	3.117997E-2	2.421851E-2	2.693979E-2	2.945356E-2	2.505745E-2	2.988677E-2	2.690787E-2	2.778458E-2	3.026895E-2	3.267692E-2	2.564551E-2	2.519018E-2	1.947818E-2	3.693304E-2	2.828233E-2	2.256873E-2	1.427332E-2	3.582961E-2	3.752030E-2	2.502407E-2	3.259317E-2	3.312936E-2	3.548302E-2	3.100036E-2	3.606400E-2	2.493906E-2	2.885561E-2	1.444345E-2	2.344056E-2	2.167408E-2	2.465460E-2	2.649950E-2	3.315034E-2	3.544376E-2	2.513709E-2	3.284162E-2	2.603608E-2	2.478166E-2	3.554719E-2	3.788580E-2	2.656419E-2	2.913001E-2	2.175874E-2	2.158713E-2	2.600187E-2	3.806517E-2	3.629425E-2	3.088831E-2	3.489230E-2	3.740041E-2	2.638537E-2	2.077723E-2	2.515124E-2	2.781724E-2	2.773056E-2	2.807254E-2	4.444882E-2	2.018023E-2	2.536990E-2	2.834810E-2	3.016288E-2	2.696864E-2	2.687302E-2	3.016395E-2	4.527219E-2	3.301740E-2	3.297500E-2	1.279559E-2	2.848668E-2	3.491186E-2	2.685122E-2	3.578627E-2	2.641055E-2	2.918213E-2	2.983459E-2	2.768220E-2	4.358028E-2	2.114753E-2	2.681892E-2	2.587348E-2	2.117694E-2	2.002017E-2	2.069545E-2	2.173479E-2	2.689782E-2	5.041841E-2	2.486952E-2	3.216027E-2	2.688596E-2	1.266073E-2	2.468552E-2	2.564560E-2	3.713660E-2	2.815243E-2	2.136645E-2	1.891386E-2	1.904137E-2	4.203714E-2	3.246469E-2	4.016410E-2	3.294905E-2	3.668081E-2	3.256660E-2	4.298875E-2	3.139424E-2	4.031044E-2	2.658184E-2	1.864665E-2	2.784367E-2	2.279922E-2	3.262726E-2	3.212238E-2	2.562501E-2	2.934894E-2	3.498448E-2	2.175673E-2	2.439208E-2	2.787520E-2	2.067447E-2	2.309562E-2	3.946322E-2	2.148818E-2	3.570935E-2	2.046626E-2	1.868514E-2	3.266516E-2	1.947874E-2	1.852318E-2	2.221002E-2	2.774876E-2	3.223347E-2	3.573501E-2	3.090658E-2	3.668100E-2	2.466376E-2	4.210540E-2	1.915006E-2	3.156560E-2	2.549911E-2	2.390916E-2	2.396079E-2	2.051360E-2	2.033028E-2	2.007481E-2	4.026465E-2	3.015001E-2	2.608931E-2	2.104750E-2	4.024245E-2	3.773030E-2	2.996204E-2	3.539176E-2	2.548980E-2	3.751512E-2	2.635592E-2	2.738965E-2	3.789113E-2	4.098056E-2	3.235803E-2	2.745063E-2	2.211081E-2	3.559657E-2	2.742233E-2	3.932684E-2	5.182035E-2	2.911480E-2
5.333130E+2	3.280113E-2	2.845466E-2	3.885759E-2	3.875363E-2	3.580345E-2	3.486356E-2	4.112493E-2	3.739027E-2	3.831355E-2	4.894437E-2	2.896411E-2	3.989787E-2	3.409527E-2	3.863582E-2	2.994959E-2	3.472584E-2	3.834312E-2	2.900200E-2	3.765001E-2	4.992605E-2	3.114729E-2	4.368997E-2	2.679475E-2	1.741794E-2	4.976480E-2	3.078536E-2	3.479311E-2	4.447871E-2	5.544580E-2	3.313684E-2	4.398307E-2	4.541633E-2	3.752604E-2	3.857321E-2	3.454452E-2	4.502656E-2	3.716515E-2	4.096565E-2	4.768731E-2	4.760492E-2	2.831784E-2	2.685134E-2	3.521052E-2	5.169040E-2	3.576105E-2	3.902090E-2	5.080097E-2	3.212677E-2	2.668486E-2	3.762124E-2	3.581222E-2	4.756732E-2	3.196368E-2	2.769008E-2	3.319764E-2	4.025580E-2	4.676595E-2	3.547098E-2	4.626646E-2	4.551409E-2	3.852182E-2	3.280636E-2	4.873203E-2	3.342294E-2	3.076781E-2	2.981117E-2	3.037329E-2	4.201941E-2	4.736015E-2	2.931294E-2	3.016500E-2	4.969459E-2	2.596623E-2	2.635705E-2	5.111431E-2	2.119875E-2	3.913112E-2	3.544072E-2	2.983478E-2	4.384708E-2	3.890993E-2	4.934722E-2	3.642832E-2	3.301426E-2	2.563050E-2	3.522397E-2	2.450767E-2	3.787333E-2	3.478093E-2	2.760894E-2	3.222372E-2	2.441795E-2	3.479604E-2	2.657907E-2	3.777989E-2	3.880157E-2	2.907789E-2	3.911458E-2	3.319572E-2	3.083919E-2	3.367985E-2	5.710761E-2	4.277041E-2	3.809632E-2	4.246995E-2	3.015664E-2	3.856279E-2	4.702053E-2	2.876501E-2	3.735662E-2	2.413081E-2	3.244299E-2	3.418394E-2	3.368167E-2	3.180943E-2	3.721427E-2	3.451893E-2	3.004094E-2	3.859018E-2	3.127303E-2	3.040006E-2	3.321794E-2	3.423129E-2	3.333608E-2	2.828498E-2	3.704796E-2	3.226796E-2	2.731768E-2	3.799984E-2	3.990111E-2	3.288442E-2	3.468922E-2	2.016721E-2	3.132879E-2	3.906765E-2	2.839550E-2	3.749397E-2	3.176486E-2	4.081927E-2	2.794655E-2	4.284702E-2	3.951294E-2	3.946177E-2	3.554529E-2	3.312032E-2	2.301918E-2	2.958858E-2	2.542403E-2	3.597872E-2	4.479504E-2	4.164644E-2	4.156366E-2	2.523712E-2	3.510076E-2	2.352958E-2	3.250444E-2	4.552554E-2	3.172347E-2	3.495699E-2	3.444452E-2	3.465043E-2	3.758107E-2	3.760834E-2	3.607092E-2	2.943575E-2	4.222127E-2	3.895252E-2	4.485730E-2	3.353230E-2	4.606974E-2	6.806751E-2
5.334630E+2	5.319375E-2	4.896832E-2	5.035120E-2	5.042184E-2	4.932997E-2	4.781192E-2	5.156615E-2	4.529906E-2	2.981105E-2	4.311641E-2	3.770109E-2	5.505759E-2	4.744786E-2	4.657396E-2	3.991037E-2	5.049964E-2	4.355910E-2	4.427546E-2	6.605095E-2	4.805491E-2	5.296085E-2	3.852226E-2	5.154908E-2	6.060022E-2	5.051023E-2	5.827744E-2	5.409806E-2	5.185091E-2	5.743392E-2	5.036415E-2	4.506547E-2	4.772450E-2	4.573133E-2	3.823360E-2	4.442736E-2	5.118169E-2	4.369793E-2	4.011394E-2	4.262676E-2	4.960926E-2	3.900833E-2	3.428885E-2	3.972510E-2	4.818013E-2	4.019561E-2	4.292305E-2	4.228400E-2	5.149096E-2	4.022708E-2	5.817372E-2	4.588327E-2	3.974880E-2	4.860027E-2	3.733032E-2	5.049172E-2	5.470038E-2	4.543245E-2	5.846877E-2	3.789232E-2	5.866817E-2	4.499561E-2	4.413747E-2	4.406461E-2	4.810805E-2	4.847357E-2	5.402987E-2	4.408970E-2	4.845451E-2	4.029970E-2	5.484436E-2	4.408194E-2	5.090832E-2	3.268200E-2	5.539912E-2	5.563544E-2	4.004279E-2	3.936865E-2	4.406826E-2	3.565737E-2	4.953950E-2	5.391724E-2	4.846300E-2	5.235965E-2	4.255105E-2	3.947071E-2	4.587852E-2	6.113443E-2	5.816824E-2	4.648878E-2	4.997495E-2	4.854581E-2	4.809726E-2	4.581939E-2	4.460810E-2	5.833231E-2	4.386179E-2	4.842236E-2	4.232610E-2	4.413258E-2	4.272675E-2	4.810654E-2	4.364944E-2	4.463838E-2	5.323189E-2	4.641894E-2	5.758376E-2	6.281586E-2	4.266946E-2	4.346659E-2	5.850515E-2	6.794151E-2	6.213203E-2	5.187735E-2	5.005499E-2	5.755687E-2	4.737194E-2	4.400578E-2	5.034323E-2	5.596494E-2	4.624007E-2	4.443367E-2	5.356091E-2	3.939606E-2	4.920027E-2	4.125476E-2	4.569958E-2	5.482434E-2	5.656578E-2	4.685522E-2	5.409514E-2	4.289916E-2	4.928104E-2	4.810809E-2	5.559303E-2	5.319037E-2	5.084186E-2	4.426704E-2	3.738642E-2	5.331431E-2	5.519323E-2	3.621646E-2	5.535558E-2	3.405510E-2	6.352062E-2	5.835610E-2	5.677054E-2	3.811732E-2	3.872443E-2	5.587309E-2	6.218903E-2	5.167872E-2	5.213571E-2	4.633255E-2	5.330971E-2	4.835015E-2	4.733498E-2	4.860261E-2	3.544875E-2	5.071550E-2	5.734685E-2	3.990608E-2	4.163894E-2	4.145486E-2	4.327467E-2	4.714734E-2	6.619212E-2	5.162332E-2	4.363353E-2	3.546799E-2	5.983926E-2	4.743605E-2
5.336080E+2	6.454354E-2	6.100365E-2	5.249128E-2	5.898130E-2	5.559174E-2	6.270412E-2	6.076354E-2	5.952122E-2	5.728179E-2	4.771470E-2	6.286646E-2	5.762713E-2	5.263650E-2	5.660730E-2	7.086103E-2	5.386662E-2	6.435235E-2	4.092487E-2	5.978972E-2	5.459304E-2	6.810257E-2	4.865025E-2	6.357169E-2	5.347597E-2	5.904524E-2	6.057756E-2	7.806128E-2	7.752872E-2	5.292486E-2	6.134694E-2	6.091100E-2	6.401075E-2	5.949458E-2	7.340526E-2	7.073312E-2	7.769115E-2	7.387218E-2	6.649475E-2	8.117682E-2	7.009415E-2	6.768154E-2	5.365520E-2	7.092683E-2	6.923723E-2	6.443754E-2	7.868237E-2	6.590440E-2	6.627377E-2	6.177615E-2	6.523519E-2	5.305520E-2	5.414984E-2	5.798121E-2	5.890730E-2	6.786801E-2	7.278861E-2	6.952771E-2	6.495724E-2	5.129209E-2	7.070497E-2	6.226827E-2	5.811623E-2	6.201339E-2	7.385886E-2	5.494373E-2	7.355446E-2	6.602186E-2	6.322722E-2	6.837475E-2	6.526761E-2	6.215093E-2	7.509064E-2	4.486840E-2	6.898487E-2	6.501146E-2	7.595073E-2	6.660043E-2	5.570096E-2	5.886055E-2	6.767822E-2	7.536009E-2	6.327952E-2	5.484977E-2	7.029433E-2	6.440351E-2	5.260642E-2	7.012653E-2	6.546965E-2	6.015785E-2	5.866235E-2	6.783013E-2	6.766198E-2	6.427510E-2	5.118659E-2	6.003358E-2	5.570187E-2	6.565793E-2	8.286567E-2	5.510850E-2	6.577489E-2	7.060169E-2	6.345388E-2	6.528657E-2	5.248607E-2	6.208283E-2	7.207645E-2	6.021613E-2	5.552192E-2	6.762000E-2	7.440323E-2	7.227789E-2	5.612766E-2	5.856827E-2	5.811392E-2	5.787028E-2	6.581534E-2	5.704676E-2	4.762467E-2	7.456132E-2	6.475138E-2	5.588400E-2	6.037091E-2	7.196715E-2	6.905692E-2	5.975652E-2	6.737047E-2	5.515847E-2	6.686320E-2	6.035390E-2	6.430968E-2	6.405964E-2	6.991110E-2	6.338327E-2	6.188319E-2	7.467044E-2	6.930857E-2	5.515492E-2	5.846398E-2	6.367039E-2	5.682183E-2	6.036159E-2	6.649317E-2	7.686487E-2	6.249484E-2	5.915689E-2	7.120147E-2	5.893051E-2	6.084659E-2	6.671185E-2	5.708492E-2	6.120543E-2	4.891857E-2	6.406912E-2	8.737809E-2	6.874555E-2	5.636116E-2	5.786076E-2	5.229092E-2	6.423939E-2	5.022066E-2	6.693990E-2	7.116179E-2	5.844017E-2	6.399160E-2	5.182398E-2	6.488227E-2	8.365525E-2	7.489448E-2	5.826025E-2	6.915741E-2	3.271480E-2
5.337580E+2	8.254865E-2	8.438846E-2	5.934083E-2	9.377299E-2	7.389563E-2	8.259213E-2	7.745197E-2	7.325099E-2	7.712502E-2	7.507372E-2	7.789390E-2	8.916556E-2	6.962838E-2	7.748593E-2	8.227089E-2	7.334757E-2	8.773548E-2	7.336967E-2	9.202724E-2	9.703528E-2	8.735089E-2	8.249369E-2	8.885858E-2	9.609435E-2	1.042500E-1	9.415098E-2	9.339869E-2	8.448281E-2	9.032163E-2	8.861362E-2	9.291550E-2	9.525402E-2	8.386429E-2	7.862426E-2	8.293110E-2	9.093731E-2	7.591752E-2	7.429597E-2	1.019744E-1	7.530624E-2	8.338822E-2	9.224275E-2	9.556828E-2	9.096529E-2	7.988473E-2	7.364701E-2	7.469807E-2	8.241897E-2	8.146164E-2	9.330589E-2	9.326233E-2	9.148512E-2	7.918893E-2	9.037651E-2	9.248507E-2	8.241858E-2	7.623922E-2	8.105259E-2	7.158776E-2	8.875138E-2	8.645352E-2	7.948842E-2	8.660697E-2	9.931782E-2	8.079333E-2	9.469724E-2	9.090725E-2	8.279030E-2	8.685176E-2	1.063161E-1	9.406599E-2	8.330726E-2	8.126571E-2	9.687803E-2	8.066902E-2	7.218474E-2	7.372564E-2	8.182232E-2	9.218451E-2	7.894966E-2	8.792142E-2	9.212989E-2	8.846233E-2	8.000471E-2	9.569962E-2	8.288339E-2	9.833147E-2	8.342985E-2	7.776008E-2	8.568250E-2	9.244412E-2	8.671733E-2	7.691057E-2	7.714550E-2	8.934280E-2	9.333044E-2	7.806165E-2	9.647770E-2	9.360730E-2	7.371340E-2	8.924855E-2	7.595387E-2	1.099062E-1	9.220993E-2	8.742721E-2	7.534980E-2	7.833451E-2	8.400815E-2	8.909151E-2	8.593371E-2	9.277806E-2	8.653807E-2	6.893355E-2	9.372428E-2	9.915706E-2	9.060304E-2	8.613166E-2	8.291876E-2	8.693275E-2	8.678806E-2	7.010271E-2	8.798012E-2	8.911245E-2	8.390454E-2	8.020076E-2	8.116507E-2	7.612838E-2	9.588669E-2	9.581640E-2	1.049849E-1	9.083207E-2	9.795650E-2	8.289567E-2	8.325263E-2	9.119046E-2	8.024259E-2	8.079737E-2	6.902806E-2	9.533856E-2	7.332080E-2	8.093832E-2	8.396679E-2	9.210013E-2	9.246043E-2	6.594855E-2	7.326679E-2	8.910749E-2	7.427779E-2	9.868408E-2	8.378586E-2	9.265388E-2	8.930813E-2	8.089477E-2	8.946697E-2	7.849797E-2	9.430025E-2	8.993694E-2	7.172568E-2	9.015175E-2	8.468479E-2	8.294059E-2	8.805516E-2	9.753108E-2	9.593160E-2	8.071001E-2	9.121644E-2	6.900385E-2	8.675853E-2	6.549980E-2	9.214803E-2	5.396440E-2
5.339090E+2	1.296354E-1	1.024411E-1	1.399677E-1	1.186222E-1	1.098327E-1	1.152436E-1	1.236516E-1	1.098610E-1	1.078598E-1	1.145927E-1	1.137956E-1	1.247635E-1	1.114002E-1	1.176823E-1	1.129402E-1	1.198119E-1	1.268307E-1	1.190852E-1	1.233354E-1	1.216798E-1	1.054859E-1	1.201824E-1	1.318817E-1	1.066941E-1	1.615055E-1	1.610573E-1	1.328241E-1	1.436712E-1	1.458496E-1	1.299066E-1	1.394396E-1	1.297665E-1	1.219131E-1	1.482116E-1	1.474605E-1	1.420842E-1	1.372396E-1	1.227573E-1	1.326104E-1	1.149469E-1	1.239654E-1	1.346490E-1	1.331038E-1	1.310077E-1	1.327679E-1	1.200888E-1	1.215829E-1	1.398214E-1	1.306245E-1	1.270338E-1	1.180564E-1	1.457559E-1	1.131024E-1	1.191615E-1	1.349892E-1	1.314494E-1	1.397699E-1	1.134071E-1	1.403048E-1	1.340966E-1	1.337295E-1	1.219061E-1	1.320275E-1	1.306273E-1	1.317787E-1	1.102335E-1	1.214508E-1	1.254045E-1	1.378344E-1	1.291012E-1	1.338420E-1	1.422417E-1	1.228752E-1	1.294184E-1	1.503508E-1	1.325267E-1	1.207515E-1	1.223384E-1	1.285913E-1	1.462159E-1	1.298225E-1	1.360557E-1	1.218692E-1	1.296183E-1	1.400750E-1	1.159113E-1	1.373209E-1	1.273731E-1	1.331703E-1	1.304450E-1	1.229500E-1	1.192752E-1	1.416527E-1	1.316084E-1	1.351973E-1	1.394142E-1	1.070852E-1	1.323171E-1	1.131621E-1	1.376356E-1	1.312816E-1	1.359253E-1	1.442852E-1	1.341711E-1	1.305769E-1	1.311810E-1	1.052328E-1	1.166739E-1	1.271675E-1	1.259976E-1	1.183338E-1	1.200049E-1	1.048789E-1	1.272638E-1	1.270056E-1	1.249652E-1	1.183592E-1	1.350214E-1	1.172709E-1	1.228394E-1	1.133433E-1	1.206704E-1	1.232097E-1	1.274276E-1	1.182420E-1	1.475431E-1	1.326619E-1	1.375796E-1	1.170688E-1	1.405069E-1	1.245636E-1	1.256774E-1	1.179130E-1	1.229242E-1	1.217987E-1	1.340351E-1	1.253637E-1	1.241457E-1	1.254398E-1	1.348412E-1	1.154838E-1	1.158086E-1	1.349290E-1	1.217470E-1	1.071022E-1	1.453556E-1	1.395886E-1	1.279026E-1	1.105520E-1	1.316959E-1	1.186109E-1	1.298963E-1	1.253856E-1	1.230632E-1	1.314578E-1	1.093826E-1	1.421834E-1	1.241474E-1	1.290048E-1	1.277750E-1	1.259388E-1	1.305735E-1	1.267357E-1	1.362440E-1	1.251839E-1	1.285294E-1	1.362351E-1	1.320417E-1	1.234047E-1	1.835611E-1	1.204567E-1
5.340690E+2	1.968614E-1	1.695941E-1	2.005353E-1	1.877966E-1	1.790117E-1	1.931474E-1	1.953069E-1	1.939871E-1	1.770490E-1	1.852166E-1	1.918290E-1	2.009559E-1	1.750879E-1	1.941887E-1	1.900635E-1	1.876626E-1	1.737161E-1	1.977862E-1	1.965785E-1	1.788850E-1	1.682590E-1	1.926026E-1	2.057076E-1	1.940752E-1	2.517437E-1	2.493807E-1	2.439348E-1	2.176433E-1	2.367981E-1	2.189001E-1	2.100272E-1	2.165752E-1	1.930030E-1	2.187244E-1	2.030690E-1	2.124545E-1	2.091256E-1	2.056311E-1	2.202570E-1	1.977897E-1	2.067162E-1	2.091756E-1	2.262723E-1	2.094931E-1	2.220485E-1	2.036178E-1	2.132111E-1	2.048691E-1	1.925437E-1	2.075360E-1	2.103441E-1	2.156071E-1	2.053478E-1	2.004534E-1	2.415811E-1	2.208171E-1	1.931428E-1	1.974752E-1	1.947766E-1	2.069874E-1	2.052517E-1	2.150552E-1	1.995265E-1	1.909297E-1	2.012896E-1	2.052932E-1	2.237242E-1	1.912197E-1	2.309353E-1	2.072697E-1	2.026503E-1	1.959754E-1	1.662094E-1	1.989652E-1	2.090422E-1	2.326309E-1	2.215625E-1	2.142350E-1	1.977421E-1	1.922948E-1	1.879422E-1	2.257488E-1	2.174662E-1	2.066811E-1	2.073842E-1	1.882546E-1	2.146735E-1	2.172124E-1	2.174567E-1	2.030119E-1	2.220493E-1	2.135007E-1	2.132140E-1	2.138778E-1	1.875137E-1	2.267122E-1	2.070246E-1	2.199895E-1	1.982929E-1	2.018610E-1	1.955492E-1	2.141045E-1	2.105001E-1	2.155911E-1	2.115651E-1	1.938389E-1	2.083546E-1	2.022217E-1	2.231691E-1	2.006744E-1	2.012587E-1	2.177022E-1	2.127633E-1	2.158699E-1	2.127657E-1	1.964797E-1	2.089357E-1	1.839701E-1	2.133017E-1	1.935754E-1	1.840936E-1	2.116220E-1	2.056897E-1	2.058693E-1	2.017769E-1	2.069721E-1	2.243954E-1	2.065797E-1	1.977364E-1	2.021936E-1	2.258120E-1	2.268132E-1	2.076363E-1	2.198229E-1	2.181411E-1	2.236883E-1	2.153384E-1	1.882885E-1	2.035417E-1	1.839955E-1	2.078256E-1	1.939851E-1	1.923598E-1	2.023321E-1	2.087208E-1	2.019087E-1	2.152490E-1	2.314543E-1	2.082651E-1	2.007574E-1	2.040501E-1	2.045716E-1	2.138716E-1	2.214444E-1	1.809768E-1	2.274745E-1	2.027950E-1	1.877979E-1	2.057380E-1	1.875728E-1	2.063945E-1	2.145139E-1	2.303361E-1	2.121774E-1	1.938210E-1	2.020189E-1	1.896974E-1	1.979125E-1	2.358372E-1	2.297516E-1	1.540795E-1
5.342040E+2	3.348667E-1	2.992199E-1	2.881440E-1	3.125045E-1	3.307038E-1	3.018298E-1	3.198008E-1	2.972330E-1	3.035846E-1	2.974652E-1	3.241087E-1	2.963968E-1	3.113739E-1	2.915296E-1	3.100617E-1	3.251552E-1	3.229919E-1	3.157530E-1	3.155551E-1	3.088107E-1	3.124889E-1	3.075397E-1	3.213459E-1	3.010773E-1	4.281192E-1	3.893788E-1	3.938603E-1	3.840183E-1	3.510522E-1	3.595266E-1	3.643951E-1	3.662149E-1	3.392307E-1	3.406086E-1	3.569901E-1	3.526708E-1	3.350526E-1	3.411755E-1	3.220531E-1	3.583136E-1	3.281326E-1	3.613422E-1	3.285968E-1	3.481633E-1	3.460049E-1	3.415424E-1	3.418355E-1	3.525842E-1	3.343643E-1	3.374687E-1	3.275825E-1	3.640006E-1	3.554657E-1	3.437084E-1	3.610025E-1	3.363334E-1	3.322921E-1	3.626729E-1	3.606115E-1	3.354893E-1	3.419459E-1	3.282501E-1	3.210797E-1	3.407651E-1	3.574552E-1	3.214251E-1	3.517048E-1	3.160596E-1	3.200323E-1	3.498675E-1	3.257171E-1	3.433407E-1	3.232374E-1	3.440824E-1	3.497123E-1	3.449493E-1	3.333178E-1	3.528450E-1	3.588347E-1	3.254229E-1	3.447896E-1	3.590139E-1	3.247318E-1	3.569219E-1	3.356809E-1	3.630408E-1	3.528427E-1	3.526775E-1	3.427468E-1	3.253979E-1	3.369848E-1	3.172036E-1	3.323170E-1	3.452736E-1	3.287388E-1	3.295349E-1	3.478077E-1	3.640806E-1	3.395655E-1	3.580093E-1	3.330320E-1	3.253909E-1	3.263734E-1	3.380879E-1	3.433456E-1	3.489260E-1	3.314023E-1	3.263737E-1	3.228914E-1	3.360029E-1	3.761902E-1	3.519601E-1	3.245143E-1	3.111153E-1	3.289568E-1	3.241158E-1	2.982967E-1	3.302759E-1	3.680022E-1	3.225309E-1	3.231344E-1	3.255664E-1	3.341709E-1	3.270843E-1	3.445454E-1	3.343995E-1	3.524172E-1	3.475888E-1	3.546220E-1	3.253705E-1	3.469219E-1	3.127409E-1	3.180075E-1	3.239718E-1	3.494943E-1	3.312854E-1	3.494567E-1	3.468133E-1	3.512243E-1	3.324334E-1	3.562739E-1	3.124125E-1	3.254933E-1	3.155915E-1	3.240337E-1	3.218313E-1	3.224715E-1	3.337747E-1	3.319010E-1	3.427292E-1	3.277753E-1	3.203657E-1	3.123217E-1	3.060065E-1	3.183089E-1	3.527326E-1	3.376465E-1	3.432640E-1	3.392369E-1	3.471269E-1	3.292107E-1	3.365995E-1	3.539712E-1	3.228424E-1	3.437231E-1	3.320344E-1	3.512993E-1	3.379629E-1	3.140630E-1	3.192495E-1	3.343562E-1
5.343600E+2	5.627098E-1	5.119553E-1	5.269895E-1	5.393666E-1	5.322893E-1	5.433000E-1	5.629465E-1	5.311501E-1	5.123128E-1	5.664146E-1	5.815793E-1	5.412174E-1	5.613264E-1	5.352996E-1	5.380359E-1	5.328809E-1	5.505537E-1	5.422124E-1	5.621225E-1	5.676373E-1	5.384786E-1	5.317882E-1	5.581118E-1	5.510443E-1	7.231273E-1	6.374300E-1	6.558605E-1	6.189279E-1	6.110877E-1	6.054861E-1	5.819673E-1	6.284814E-1	5.880643E-1	5.639570E-1	6.306732E-1	6.018860E-1	5.867924E-1	6.186080E-1	6.168331E-1	6.065203E-1	5.792602E-1	6.011087E-1	6.144346E-1	6.042813E-1	5.784684E-1	5.781359E-1	5.815393E-1	5.637911E-1	6.069351E-1	5.862497E-1	5.944208E-1	5.833597E-1	5.419856E-1	5.898491E-1	6.079444E-1	5.742833E-1	6.131464E-1	6.183927E-1	5.750358E-1	6.244252E-1	6.071275E-1	6.025754E-1	6.013950E-1	5.920532E-1	5.843004E-1	5.715269E-1	6.156657E-1	6.033928E-1	6.021928E-1	5.856775E-1	5.929667E-1	5.846126E-1	5.992561E-1	5.922524E-1	6.057962E-1	5.862751E-1	5.867085E-1	5.692276E-1	6.116742E-1	5.845242E-1	5.850188E-1	5.726431E-1	5.897574E-1	5.960396E-1	5.859639E-1	5.794946E-1	5.967429E-1	5.948670E-1	5.916922E-1	5.513920E-1	5.916804E-1	6.097380E-1	5.697137E-1	6.018508E-1	5.736608E-1	5.725170E-1	5.870357E-1	5.992816E-1	5.839967E-1	5.747929E-1	5.592809E-1	5.726048E-1	5.891898E-1	5.843413E-1	5.533201E-1	5.705493E-1	5.899512E-1	5.696877E-1	5.589731E-1	5.595428E-1	5.710908E-1	5.694379E-1	5.940132E-1	5.547284E-1	5.991504E-1	5.568311E-1	5.324992E-1	5.817649E-1	5.833695E-1	6.018159E-1	5.843919E-1	6.064820E-1	5.986821E-1	5.811490E-1	6.001739E-1	5.689822E-1	5.878734E-1	5.802752E-1	5.998436E-1	5.964445E-1	5.838724E-1	6.043514E-1	5.881294E-1	5.809073E-1	5.997284E-1	5.700776E-1	5.580625E-1	5.827425E-1	5.758103E-1	6.251236E-1	5.806042E-1	5.919671E-1	5.582143E-1	5.934297E-1	5.777898E-1	5.552166E-1	5.892199E-1	5.617695E-1	6.012022E-1	5.888954E-1	6.026980E-1	5.914891E-1	5.426806E-1	5.981783E-1	5.939140E-1	5.666454E-1	5.951127E-1	5.552363E-1	5.657947E-1	5.742174E-1	5.874000E-1	5.847611E-1	5.561609E-1	5.390003E-1	5.728507E-1	5.819282E-1	6.211829E-1	5.928784E-1	5.547886E-1	6.232910E-1	5.249573E-1
5.345160E+2	9.486422E-1	9.008632E-1	9.319176E-1	9.182726E-1	9.028710E-1	9.139748E-1	9.363956E-1	9.243174E-1	8.835201E-1	9.173032E-1	8.968004E-1	9.264621E-1	9.396377E-1	9.204528E-1	9.244503E-1	9.788849E-1	8.977810E-1	9.068578E-1	9.362141E-1	9.657640E-1	9.162665E-1	9.263894E-1	9.380287E-1	9.125692E-1	1.057099E+0	1.009947E+0	1.027041E+0	9.861172E-1	9.450322E-1	1.009465E+0	9.676649E-1	9.900921E-1	9.591785E-1	9.523068E-1	1.005457E+0	1.011852E+0	9.624094E-1	9.165600E-1	9.949259E-1	1.013783E+0	9.631310E-1	9.678299E-1	1.006948E+0	9.559227E-1	9.757053E-1	9.648633E-1	9.625947E-1	9.534426E-1	9.537703E-1	9.956010E-1	9.475778E-1	9.902448E-1	9.933932E-1	9.662807E-1	9.850967E-1	9.335578E-1	9.544189E-1	9.715150E-1	9.920782E-1	9.876008E-1	9.676479E-1	9.441801E-1	8.993386E-1	9.384686E-1	9.484211E-1	9.923534E-1	9.680476E-1	9.389993E-1	9.542368E-1	9.472672E-1	9.726746E-1	9.785573E-1	9.530398E-1	9.707217E-1	9.803601E-1	9.730097E-1	9.458138E-1	9.455842E-1	9.775711E-1	9.514081E-1	9.372255E-1	9.485901E-1	9.552193E-1	9.246297E-1	9.273531E-1	9.660769E-1	9.873325E-1	9.579420E-1	9.165304E-1	9.336780E-1	9.477573E-1	1.000468E+0	9.434574E-1	9.393765E-1	9.409565E-1	8.875251E-1	9.772601E-1	9.621035E-1	9.140680E-1	9.423919E-1	9.226191E-1	9.399505E-1	9.826871E-1	9.447264E-1	9.032015E-1	9.247604E-1	9.325828E-1	9.156024E-1	9.549317E-1	9.462853E-1	9.186961E-1	9.480357E-1	9.603159E-1	9.552410E-1	9.325175E-1	9.127105E-1	9.101996E-1	9.478479E-1	9.756150E-1	9.483422E-1	9.492274E-1	9.110085E-1	9.219400E-1	9.502102E-1	9.543346E-1	9.326494E-1	9.662634E-1	9.844268E-1	9.486264E-1	9.785864E-1	9.746748E-1	9.468924E-1	9.592653E-1	9.586429E-1	9.523715E-1	9.350403E-1	9.223897E-1	9.326643E-1	9.451318E-1	9.901181E-1	9.337661E-1	9.446336E-1	9.532875E-1	9.334770E-1	9.429682E-1	9.262210E-1	9.227202E-1	9.619901E-1	9.185358E-1	9.321318E-1	9.725458E-1	1.009285E+0	9.422236E-1	9.156602E-1	9.621805E-1	9.817533E-1	9.377251E-1	9.507093E-1	9.782670E-1	9.632899E-1	9.408758E-1	9.332956E-1	9.917738E-1	1.005707E+0	9.179911E-1	9.138205E-1	1.016087E+0	9.456968E-1	9.193578E-1	9.541097E-1	9.663866E-1
5.346560E+2	1.350837E+0	1.298813E+0	1.291356E+0	1.298067E+0	1.350693E+0	1.307934E+0	1.319340E+0	1.297363E+0	1.256554E+0	1.300364E+0	1.344499E+0	1.342104E+0	1.274351E+0	1.274717E+0	1.328810E+0	1.335964E+0	1.321409E+0	1.290690E+0	1.297623E+0	1.284340E+0	1.315970E+0	1.265768E+0	1.344677E+0	1.311911E+0	1.405817E+0	1.366230E+0	1.399497E+0	1.362272E+0	1.356117E+0	1.271961E+0	1.360704E+0	1.384514E+0	1.351466E+0	1.410538E+0	1.416914E+0	1.385183E+0	1.350117E+0	1.339001E+0	1.388514E+0	1.332340E+0	1.352410E+0	1.353075E+0	1.388855E+0	1.409234E+0	1.345136E+0	1.343709E+0	1.340992E+0	1.318745E+0	1.314474E+0	1.376179E+0	1.305135E+0	1.349380E+0	1.330563E+0	1.354368E+0	1.365236E+0	1.345245E+0	1.319615E+0	1.300554E+0	1.357618E+0	1.368182E+0	1.301364E+0	1.324968E+0	1.307531E+0	1.340538E+0	1.333994E+0	1.379637E+0	1.337387E+0	1.365939E+0	1.308328E+0	1.318340E+0	1.319914E+0	1.337954E+0	1.392393E+0	1.320417E+0	1.359514E+0	1.375835E+0	1.351467E+0	1.353170E+0	1.310683E+0	1.302901E+0	1.317468E+0	1.283098E+0	1.306367E+0	1.339735E+0	1.315134E+0	1.310881E+0	1.385916E+0	1.349091E+0	1.291876E+0	1.340594E+0	1.320367E+0	1.305094E+0	1.373306E+0	1.313245E+0	1.308147E+0	1.333731E+0	1.374361E+0	1.353534E+0	1.345918E+0	1.351549E+0	1.281517E+0	1.381228E+0	1.348127E+0	1.297724E+0	1.340843E+0	1.346268E+0	1.328733E+0	1.240936E+0	1.322935E+0	1.321250E+0	1.342036E+0	1.359245E+0	1.334336E+0	1.336242E+0	1.281651E+0	1.347648E+0	1.316906E+0	1.351239E+0	1.366440E+0	1.331279E+0	1.301324E+0	1.280338E+0	1.372959E+0	1.328352E+0	1.299458E+0	1.323214E+0	1.312037E+0	1.383958E+0	1.323489E+0	1.323682E+0	1.307136E+0	1.321875E+0	1.321439E+0	1.330894E+0	1.380324E+0	1.283930E+0	1.252175E+0	1.260354E+0	1.327042E+0	1.366015E+0	1.298242E+0	1.316394E+0	1.350505E+0	1.287693E+0	1.340844E+0	1.361655E+0	1.309318E+0	1.343866E+0	1.310031E+0	1.316063E+0	1.387542E+0	1.342773E+0	1.286540E+0	1.295367E+0	1.310380E+0	1.364277E+0	1.337298E+0	1.332554E+0	1.332683E+0	1.296462E+0	1.271006E+0	1.311805E+0	1.308886E+0	1.300382E+0	1.275073E+0	1.310348E+0	1.342237E+0	1.297418E+0	1.322194E+0	1.316968E+0	1.247549E+0
5.348120E+2	1.768943E+0	1.662370E+0	1.689166E+0	1.715515E+0	1.693222E+0	1.631151E+0	1.640934E+0	1.622226E+0	1.708206E+0	1.662392E+0	1.654852E+0	1.706951E+0	1.689689E+0	1.658475E+0	1.726581E+0	1.718377E+0	1.672624E+0	1.668347E+0	1.752834E+0	1.720299E+0	1.716722E+0	1.610845E+0	1.688731E+0	1.621863E+0	1.684377E+0	1.673329E+0	1.692655E+0	1.712443E+0	1.737944E+0	1.670282E+0	1.695918E+0	1.729220E+0	1.630238E+0	1.702691E+0	1.695641E+0	1.781812E+0	1.672084E+0	1.686384E+0	1.748822E+0	1.677930E+0	1.726823E+0	1.703284E+0	1.718055E+0	1.723118E+0	1.712175E+0	1.653998E+0	1.723598E+0	1.654866E+0	1.662169E+0	1.720342E+0	1.717119E+0	1.776977E+0	1.666503E+0	1.701955E+0	1.774716E+0	1.689736E+0	1.633131E+0	1.707447E+0	1.670299E+0	1.727037E+0	1.621266E+0	1.671452E+0	1.629451E+0	1.707416E+0	1.652156E+0	1.652341E+0	1.618723E+0	1.662583E+0	1.660330E+0	1.690313E+0	1.697494E+0	1.671675E+0	1.713122E+0	1.638002E+0	1.716895E+0	1.722312E+0	1.699317E+0	1.631431E+0	1.655957E+0	1.615496E+0	1.663105E+0	1.643385E+0	1.652555E+0	1.732392E+0	1.639336E+0	1.623856E+0	1.667146E+0	1.732139E+0	1.613991E+0	1.662630E+0	1.670127E+0	1.721038E+0	1.704836E+0	1.656631E+0	1.680469E+0	1.660396E+0	1.630161E+0	1.694783E+0	1.612974E+0	1.691626E+0	1.622041E+0	1.713619E+0	1.682802E+0	1.747448E+0	1.666235E+0	1.697320E+0	1.684960E+0	1.649439E+0	1.602120E+0	1.614225E+0	1.704258E+0	1.652980E+0	1.685614E+0	1.617868E+0	1.712874E+0	1.678504E+0	1.643677E+0	1.723611E+0	1.747236E+0	1.668524E+0	1.645859E+0	1.638855E+0	1.722075E+0	1.657578E+0	1.613059E+0	1.615153E+0	1.636302E+0	1.702007E+0	1.724332E+0	1.664818E+0	1.715893E+0	1.656149E+0	1.647028E+0	1.617711E+0	1.676394E+0	1.698594E+0	1.691323E+0	1.664089E+0	1.693017E+0	1.714793E+0	1.599831E+0	1.617661E+0	1.662818E+0	1.657176E+0	1.647815E+0	1.702655E+0	1.637040E+0	1.682576E+0	1.577970E+0	1.648948E+0	1.722322E+0	1.742851E+0	1.552596E+0	1.705694E+0	1.700161E+0	1.655311E+0	1.628046E+0	1.592011E+0	1.704083E+0	1.644494E+0	1.580768E+0	1.605061E+0	1.660613E+0	1.649870E+0	1.573462E+0	1.644445E+0	1.754080E+0	1.646054E+0	1.571613E+0	1.620955E+0	1.649782E+0
5.349580E+2	2.010581E+0	1.948937E+0	2.040319E+0	1.933111E+0	1.935676E+0	1.944039E+0	1.958742E+0	1.989774E+0	1.876825E+0	1.920552E+0	1.969182E+0	2.063770E+0	2.013074E+0	1.983119E+0	1.963622E+0	2.066473E+0	1.997422E+0	1.873491E+0	1.993753E+0	1.974141E+0	1.938543E+0	1.879288E+0	2.004033E+0	1.997282E+0	1.885098E+0	1.911282E+0	2.011766E+0	1.972358E+0	1.971851E+0	1.936549E+0	1.894615E+0	1.979786E+0	1.946946E+0	1.977900E+0	1.889882E+0	1.976416E+0	1.959087E+0	1.881413E+0	1.992024E+0	1.950261E+0	1.980380E+0	1.987061E+0	1.950858E+0	1.935489E+0	1.966193E+0	1.955685E+0	1.952141E+0	1.941872E+0	1.950693E+0	2.004779E+0	1.936221E+0	1.973818E+0	1.907995E+0	1.947588E+0	2.025207E+0	1.956337E+0	1.949097E+0	1.955590E+0	1.961470E+0	1.963904E+0	1.960161E+0	1.931620E+0	1.936672E+0	1.950564E+0	1.962583E+0	1.995480E+0	1.923910E+0	1.927651E+0	1.948069E+0	1.918344E+0	2.031151E+0	1.892136E+0	2.007777E+0	1.914559E+0	1.981730E+0	2.038806E+0	1.944575E+0	1.919060E+0	1.960540E+0	1.959994E+0	1.894253E+0	1.897692E+0	1.928010E+0	1.921462E+0	1.927182E+0	1.927704E+0	1.934994E+0	1.962300E+0	1.849181E+0	1.907894E+0	1.919817E+0	1.992324E+0	1.932580E+0	1.978622E+0	1.905233E+0	1.892664E+0	1.904341E+0	2.063805E+0	1.919286E+0	2.009584E+0	1.842396E+0	2.005776E+0	1.953579E+0	1.916702E+0	1.834471E+0	1.923625E+0	1.935978E+0	1.891697E+0	1.973735E+0	1.945539E+0	1.914669E+0	1.956672E+0	1.893369E+0	1.800362E+0	1.952389E+0	1.911839E+0	1.890151E+0	1.998034E+0	1.882863E+0	1.958602E+0	1.865819E+0	1.902317E+0	2.025421E+0	1.942163E+0	1.914193E+0	1.888426E+0	1.954290E+0	1.976066E+0	1.976270E+0	1.932525E+0	1.868757E+0	1.933765E+0	1.952829E+0	1.938523E+0	1.969411E+0	1.935222E+0	1.866291E+0	1.855534E+0	1.964554E+0	1.960466E+0	1.938985E+0	1.836693E+0	1.935961E+0	1.845508E+0	1.879375E+0	1.969153E+0	1.891835E+0	1.875312E+0	1.894126E+0	1.894037E+0	1.994801E+0	1.933430E+0	1.910062E+0	1.946689E+0	1.869118E+0	1.906793E+0	1.892992E+0	1.885742E+0	1.925635E+0	1.871698E+0	1.830877E+0	1.932263E+0	1.889925E+0	1.949701E+0	1.847680E+0	1.936387E+0	1.903286E+0	1.891931E+0	1.859709E+0	2.015299E+0	1.752420E+0
5.351090E+2	2.117087E+0	2.003071E+0	2.084531E+0	2.047452E+0	2.035363E+0	2.089190E+0	2.059816E+0	2.107157E+0	1.970104E+0	2.047894E+0	2.032039E+0	2.113483E+0	2.083885E+0	2.076361E+0	2.096816E+0	2.052436E+0	2.037494E+0	1.999339E+0	2.088410E+0	2.064714E+0	2.001072E+0	1.984413E+0	2.072255E+0	2.079607E+0	2.023772E+0	1.983062E+0	1.982003E+0	2.000869E+0	1.972314E+0	1.972852E+0	1.951770E+0	2.020658E+0	2.037610E+0	2.077220E+0	2.109882E+0	2.029918E+0	1.992809E+0	1.978126E+0	2.105484E+0	1.994262E+0	1.977920E+0	2.070869E+0	2.002115E+0	2.054334E+0	2.010997E+0	1.989554E+0	2.008141E+0	2.010660E+0	2.008978E+0	2.009384E+0	2.001279E+0	2.085382E+0	1.997157E+0	2.023706E+0	2.096483E+0	1.984898E+0	1.968099E+0	1.975197E+0	2.090858E+0	2.047830E+0	1.921825E+0	2.023354E+0	1.998720E+0	2.021480E+0	2.004311E+0	2.042538E+0	2.001409E+0	2.018409E+0	2.034935E+0	1.979260E+0	1.996464E+0	2.017153E+0	1.983431E+0	1.993286E+0	2.042983E+0	2.061058E+0	2.026206E+0	1.994096E+0	1.994370E+0	2.034735E+0	1.984377E+0	1.930655E+0	2.015162E+0	2.052853E+0	1.961288E+0	2.007999E+0	1.990754E+0	2.094140E+0	2.009157E+0	1.950226E+0	1.934050E+0	2.034810E+0	2.029600E+0	2.035007E+0	1.970862E+0	2.014772E+0	2.026168E+0	2.053836E+0	1.982457E+0	1.968629E+0	1.941499E+0	2.045337E+0	1.927630E+0	2.049490E+0	1.999988E+0	2.043040E+0	2.056390E+0	2.020309E+0	2.061731E+0	2.027215E+0	2.056634E+0	2.032693E+0	2.128595E+0	1.953998E+0	2.074275E+0	2.068134E+0	2.033724E+0	2.012914E+0	2.049605E+0	2.045340E+0	2.004626E+0	2.000333E+0	2.087728E+0	2.032713E+0	2.051761E+0	2.001953E+0	2.043884E+0	2.037059E+0	2.074585E+0	2.013056E+0	1.999355E+0	2.162740E+0	2.060479E+0	1.937822E+0	2.043432E+0	2.013309E+0	2.010808E+0	1.977700E+0	2.013620E+0	2.036957E+0	1.917418E+0	2.013321E+0	2.084975E+0	2.000993E+0	1.961797E+0	2.100164E+0	2.025166E+0	2.104542E+0	2.051182E+0	1.962598E+0	2.130440E+0	2.084194E+0	2.006246E+0	2.078737E+0	2.030530E+0	2.011188E+0	2.054564E+0	2.068634E+0	2.015245E+0	2.064772E+0	2.012821E+0	1.978981E+0	2.043448E+0	2.063266E+0	1.976628E+0	1.980107E+0	2.071333E+0	2.001898E+0	1.870667E+0	2.016986E+0	1.804246E+0
5.352600E+2	2.057283E+0	1.925389E+0	1.948698E+0	1.957384E+0	1.973980E+0	1.933356E+0	1.909835E+0	2.066917E+0	1.926381E+0	1.966400E+0	1.956698E+0	2.015409E+0	1.981383E+0	1.998879E+0	1.947452E+0	1.968850E+0	1.963284E+0	1.845189E+0	2.006712E+0	2.031995E+0	1.946824E+0	1.916847E+0	1.990659E+0	2.019123E+0	1.850914E+0	1.912189E+0	1.950152E+0	1.844257E+0	1.878027E+0	1.871282E+0	1.926458E+0	1.925726E+0	1.926407E+0	1.940569E+0	1.940280E+0	1.906814E+0	1.905933E+0	1.884675E+0	1.944230E+0	1.964240E+0	1.982877E+0	1.938570E+0	1.957176E+0	1.884286E+0	1.922268E+0	1.938525E+0	1.924364E+0	1.929723E+0	1.923977E+0	1.939001E+0	1.878076E+0	1.978842E+0	1.897360E+0	1.907654E+0	1.964617E+0	1.927327E+0	1.870955E+0	1.880300E+0	1.908598E+0	1.934969E+0	1.878968E+0	1.891220E+0	1.876152E+0	1.962915E+0	1.966039E+0	1.902798E+0	1.903974E+0	1.895074E+0	1.922416E+0	1.866293E+0	1.951191E+0	1.967474E+0	1.936692E+0	1.937202E+0	1.958451E+0	1.989253E+0	1.871182E+0	1.864268E+0	1.829673E+0	1.906195E+0	1.905473E+0	1.938195E+0	1.907792E+0	1.914652E+0	1.897872E+0	1.897405E+0	1.908527E+0	1.919447E+0	1.866725E+0	1.922684E+0	1.932979E+0	1.981716E+0	1.857239E+0	1.884279E+0	1.896504E+0	1.909009E+0	1.960750E+0	1.902500E+0	1.917051E+0	1.925115E+0	1.827541E+0	1.972749E+0	1.877574E+0	1.889966E+0	1.921749E+0	1.841588E+0	1.885518E+0	1.919746E+0	1.872125E+0	1.876602E+0	1.877403E+0	1.952182E+0	1.892620E+0	1.827139E+0	1.819616E+0	1.953674E+0	1.845417E+0	1.920771E+0	1.921867E+0	1.908606E+0	1.822803E+0	1.866991E+0	1.907025E+0	1.902075E+0	1.839428E+0	1.867950E+0	1.851575E+0	1.888235E+0	1.869719E+0	1.914131E+0	1.971723E+0	1.950367E+0	1.933336E+0	1.871923E+0	1.877450E+0	1.867718E+0	1.830501E+0	1.819410E+0	1.826090E+0	1.955109E+0	1.902532E+0	1.843356E+0	1.895442E+0	1.820862E+0	1.837510E+0	1.959923E+0	1.875964E+0	1.890889E+0	1.912061E+0	1.902551E+0	1.969448E+0	1.916144E+0	1.791138E+0	1.888646E+0	1.871544E+0	1.895503E+0	1.854255E+0	1.881814E+0	1.902450E+0	1.884624E+0	1.865255E+0	1.875759E+0	1.856450E+0	1.911621E+0	1.824603E+0	1.855254E+0	1.874270E+0	1.881903E+0	1.740728E+0	1.819203E+0	1.838221E+0
5.354010E+2	1.782039E+0	1.693228E+0	1.751859E+0	1.731618E+0	1.701089E+0	1.769293E+0	1.712017E+0	1.653891E+0	1.687732E+0	1.750112E+0	1.737235E+0	1.774919E+0	1.706360E+0	1.697077E+0	1.736329E+0	1.813455E+0	1.747906E+0	1.680879E+0	1.772732E+0	1.703144E+0	1.755606E+0	1.661629E+0	1.749045E+0	1.750360E+0	1.673592E+0	1.679172E+0	1.704357E+0	1.636568E+0	1.663264E+0	1.642624E+0	1.619977E+0	1.736506E+0	1.687159E+0	1.675635E+0	1.695397E+0	1.696660E+0	1.690441E+0	1.664460E+0	1.724952E+0	1.644638E+0	1.709084E+0	1.700226E+0	1.702121E+0	1.673348E+0	1.720781E+0	1.710540E+0	1.749347E+0	1.713322E+0	1.721285E+0	1.763946E+0	1.710432E+0	1.692561E+0	1.675896E+0	1.673890E+0	1.735231E+0	1.704706E+0	1.644748E+0	1.666636E+0	1.667300E+0	1.743138E+0	1.648503E+0	1.702081E+0	1.616766E+0	1.704433E+0	1.716438E+0	1.708172E+0	1.638452E+0	1.686391E+0	1.674698E+0	1.727773E+0	1.716153E+0	1.687104E+0	1.638141E+0	1.638923E+0	1.737871E+0	1.795687E+0	1.697927E+0	1.665657E+0	1.687609E+0	1.709912E+0	1.685721E+0	1.690939E+0	1.663489E+0	1.697451E+0	1.632990E+0	1.663973E+0	1.595231E+0	1.720405E+0	1.653010E+0	1.626379E+0	1.688323E+0	1.691203E+0	1.720208E+0	1.681711E+0	1.723493E+0	1.684084E+0	1.710088E+0	1.736573E+0	1.685170E+0	1.725422E+0	1.634522E+0	1.651080E+0	1.697621E+0	1.690739E+0	1.675636E+0	1.675371E+0	1.678702E+0	1.661388E+0	1.678532E+0	1.657199E+0	1.671256E+0	1.747594E+0	1.710729E+0	1.592508E+0	1.662428E+0	1.757668E+0	1.642351E+0	1.669561E+0	1.636510E+0	1.665667E+0	1.633377E+0	1.672792E+0	1.659285E+0	1.702393E+0	1.634300E+0	1.622774E+0	1.644946E+0	1.672778E+0	1.689279E+0	1.642537E+0	1.706917E+0	1.700785E+0	1.738830E+0	1.646083E+0	1.687269E+0	1.698267E+0	1.639744E+0	1.617743E+0	1.681617E+0	1.723644E+0	1.713223E+0	1.648725E+0	1.609443E+0	1.621671E+0	1.655214E+0	1.706340E+0	1.695737E+0	1.693684E+0	1.687943E+0	1.672984E+0	1.676401E+0	1.774590E+0	1.609926E+0	1.737535E+0	1.698643E+0	1.684317E+0	1.720478E+0	1.669440E+0	1.696931E+0	1.677281E+0	1.649797E+0	1.623438E+0	1.647350E+0	1.623851E+0	1.616942E+0	1.612643E+0	1.722622E+0	1.624883E+0	1.582692E+0	1.795805E+0	1.684145E+0
5.355580E+2	1.457266E+0	1.496010E+0	1.503545E+0	1.456117E+0	1.404866E+0	1.433737E+0	1.480899E+0	1.531842E+0	1.442148E+0	1.479712E+0	1.478999E+0	1.501788E+0	1.442014E+0	1.494470E+0	1.458601E+0	1.522396E+0	1.479689E+0	1.502119E+0	1.444064E+0	1.538008E+0	1.472579E+0	1.453004E+0	1.516624E+0	1.462939E+0	1.454948E+0	1.364619E+0	1.474365E+0	1.481766E+0	1.475579E+0	1.441328E+0	1.405891E+0	1.479748E+0	1.432241E+0	1.450569E+0	1.452844E+0	1.471645E+0	1.479354E+0	1.392932E+0	1.518226E+0	1.421551E+0	1.477517E+0	1.434452E+0	1.452247E+0	1.425434E+0	1.441843E+0	1.434318E+0	1.497008E+0	1.459331E+0	1.446357E+0	1.472312E+0	1.402562E+0	1.492034E+0	1.395543E+0	1.484395E+0	1.455794E+0	1.526987E+0	1.377678E+0	1.467711E+0	1.521846E+0	1.482247E+0	1.453600E+0	1.414375E+0	1.437727E+0	1.439411E+0	1.471994E+0	1.432737E+0	1.443199E+0	1.455580E+0	1.447361E+0	1.432441E+0	1.447949E+0	1.444478E+0	1.446414E+0	1.467063E+0	1.481827E+0	1.549623E+0	1.471466E+0	1.460132E+0	1.451443E+0	1.448586E+0	1.436983E+0	1.430811E+0	1.385582E+0	1.466052E+0	1.432412E+0	1.432376E+0	1.432060E+0	1.471578E+0	1.482759E+0	1.454825E+0	1.439673E+0	1.491193E+0	1.449131E+0	1.510768E+0	1.433535E+0	1.442601E+0	1.436099E+0	1.481941E+0	1.404880E+0	1.562128E+0	1.431606E+0	1.467585E+0	1.489225E+0	1.420834E+0	1.464507E+0	1.466323E+0	1.404029E+0	1.389761E+0	1.412009E+0	1.416245E+0	1.426375E+0	1.469208E+0	1.426259E+0	1.453543E+0	1.426672E+0	1.345549E+0	1.458147E+0	1.489128E+0	1.468667E+0	1.479008E+0	1.426997E+0	1.444510E+0	1.388576E+0	1.477828E+0	1.384055E+0	1.455947E+0	1.455545E+0	1.449753E+0	1.486031E+0	1.460697E+0	1.457968E+0	1.560505E+0	1.405277E+0	1.395349E+0	1.461783E+0	1.421956E+0	1.394775E+0	1.432899E+0	1.413307E+0	1.585777E+0	1.482801E+0	1.390457E+0	1.430251E+0	1.416974E+0	1.365591E+0	1.529353E+0	1.451284E+0	1.451249E+0	1.391870E+0	1.482697E+0	1.465448E+0	1.479279E+0	1.379499E+0	1.486088E+0	1.420450E+0	1.487791E+0	1.499270E+0	1.447596E+0	1.420811E+0	1.474026E+0	1.408076E+0	1.455242E+0	1.418092E+0	1.510160E+0	1.394234E+0	1.452360E+0	1.442230E+0	1.543923E+0	1.396913E+0	1.425518E+0	1.526795E+0
5.357090E+2	1.368093E+0	1.238167E+0	1.274264E+0	1.251100E+0	1.252661E+0	1.274062E+0	1.242911E+0	1.278210E+0	1.221910E+0	1.201765E+0	1.244309E+0	1.219887E+0	1.240573E+0	1.259546E+0	1.280087E+0	1.303367E+0	1.303627E+0	1.241807E+0	1.275866E+0	1.283856E+0	1.256029E+0	1.203912E+0	1.290501E+0	1.256519E+0	1.233295E+0	1.210573E+0	1.257419E+0	1.234106E+0	1.204831E+0	1.228210E+0	1.274978E+0	1.215821E+0	1.239860E+0	1.259675E+0	1.296070E+0	1.241162E+0	1.213384E+0	1.187340E+0	1.232340E+0	1.223517E+0	1.205050E+0	1.261395E+0	1.268239E+0	1.245233E+0	1.254214E+0	1.226452E+0	1.264103E+0	1.258245E+0	1.232833E+0	1.273913E+0	1.263188E+0	1.236416E+0	1.214692E+0	1.258583E+0	1.228631E+0	1.239644E+0	1.256807E+0	1.239311E+0	1.243679E+0	1.360487E+0	1.221413E+0	1.239488E+0	1.263434E+0	1.295702E+0	1.265264E+0	1.295100E+0	1.242808E+0	1.262042E+0	1.214319E+0	1.215243E+0	1.268900E+0	1.267792E+0	1.270795E+0	1.254377E+0	1.315409E+0	1.283977E+0	1.283256E+0	1.211897E+0	1.271575E+0	1.248853E+0	1.260564E+0	1.224049E+0	1.223464E+0	1.263348E+0	1.245496E+0	1.254461E+0	1.235512E+0	1.302561E+0	1.238066E+0	1.228977E+0	1.209147E+0	1.302975E+0	1.271972E+0	1.219989E+0	1.238587E+0	1.261241E+0	1.208885E+0	1.316727E+0	1.236793E+0	1.328420E+0	1.249946E+0	1.232261E+0	1.279393E+0	1.228649E+0	1.251932E+0	1.267541E+0	1.244948E+0	1.274935E+0	1.248768E+0	1.199810E+0	1.241757E+0	1.242117E+0	1.247130E+0	1.211322E+0	1.286423E+0	1.217941E+0	1.202212E+0	1.265821E+0	1.256386E+0	1.216224E+0	1.242391E+0	1.182588E+0	1.229704E+0	1.275047E+0	1.185114E+0	1.228772E+0	1.241898E+0	1.248694E+0	1.269350E+0	1.263911E+0	1.298377E+0	1.253032E+0	1.277243E+0	1.215076E+0	1.244531E+0	1.265493E+0	1.233561E+0	1.224191E+0	1.239132E+0	1.266769E+0	1.264176E+0	1.206450E+0	1.268003E+0	1.238947E+0	1.219151E+0	1.263003E+0	1.256928E+0	1.269804E+0	1.237631E+0	1.244371E+0	1.232472E+0	1.293764E+0	1.242724E+0	1.283030E+0	1.222691E+0	1.267604E+0	1.236437E+0	1.228047E+0	1.226192E+0	1.247544E+0	1.224207E+0	1.236566E+0	1.216763E+0	1.243083E+0	1.226686E+0	1.257287E+0	1.264439E+0	1.320128E+0	1.199460E+0	1.228874E+0	1.290932E+0
5.358650E+2	1.101232E+0	1.137082E+0	1.121612E+0	1.044196E+0	1.073939E+0	1.075973E+0	1.087417E+0	1.091316E+0	1.094023E+0	1.111365E+0	1.105889E+0	1.162924E+0	1.101983E+0	1.093640E+0	1.111767E+0	1.086326E+0	1.050604E+0	1.112093E+0	1.100677E+0	1.089502E+0	1.071282E+0	1.060224E+0	1.126722E+0	1.118947E+0	1.093566E+0	1.026372E+0	1.087928E+0	1.099008E+0	1.101845E+0	1.057592E+0	1.085255E+0	1.080613E+0	1.109017E+0	1.124877E+0	1.064525E+0	1.086916E+0	1.043016E+0	1.027196E+0	1.050698E+0	1.122252E+0	1.128828E+0	1.084218E+0	1.110343E+0	1.084511E+0	1.091962E+0	1.096711E+0	1.108001E+0	1.079105E+0	1.026657E+0	1.054679E+0	1.031734E+0	1.113556E+0	1.035335E+0	1.078924E+0	1.091118E+0	1.103179E+0	1.058226E+0	1.098187E+0	1.117202E+0	1.076503E+0	1.081908E+0	1.095521E+0	1.021832E+0	1.065196E+0	1.067786E+0	1.108798E+0	1.060296E+0	1.040789E+0	1.068809E+0	1.062647E+0	1.060188E+0	1.037845E+0	1.073659E+0	1.085385E+0	1.071017E+0	1.118302E+0	1.069340E+0	1.067882E+0	1.072667E+0	1.083994E+0	1.133665E+0	1.040208E+0	1.070895E+0	1.105979E+0	1.057803E+0	1.059409E+0	1.082005E+0	1.084814E+0	1.095340E+0	1.048117E+0	1.025702E+0	1.091465E+0	1.041968E+0	1.084389E+0	1.098956E+0	1.064226E+0	1.088515E+0	1.118768E+0	1.045520E+0	1.085037E+0	1.082406E+0	1.081097E+0	1.080524E+0	1.093658E+0	1.086379E+0	1.064172E+0	1.082804E+0	1.023870E+0	1.040686E+0	1.094562E+0	1.089891E+0	1.092279E+0	1.069376E+0	1.075545E+0	1.107852E+0	1.105824E+0	1.058083E+0	1.107727E+0	1.061520E+0	1.097758E+0	1.091103E+0	1.120934E+0	1.086512E+0	1.071748E+0	1.043108E+0	1.054262E+0	1.087548E+0	1.058780E+0	1.087706E+0	1.070927E+0	1.073863E+0	1.153769E+0	1.115799E+0	1.072204E+0	1.081927E+0	1.096382E+0	1.090639E+0	1.042518E+0	1.082738E+0	1.112699E+0	1.060703E+0	1.043368E+0	1.067761E+0	1.068734E+0	1.077764E+0	1.082667E+0	1.096164E+0	1.055220E+0	1.076985E+0	1.044549E+0	1.089709E+0	1.131129E+0	1.024053E+0	1.072339E+0	1.071504E+0	1.078384E+0	1.050855E+0	1.109365E+0	1.069428E+0	1.068468E+0	1.032158E+0	1.087693E+0	1.098455E+0	1.063453E+0	1.056500E+0	1.113787E+0	1.078735E+0	1.096417E+0	1.052196E+0	1.044937E+0	1.010970E+0
5.360070E+2	9.650661E-1	9.395335E-1	9.750723E-1	9.180544E-1	9.324878E-1	9.459028E-1	9.228520E-1	9.310702E-1	8.875953E-1	9.226764E-1	9.422087E-1	9.087166E-1	9.316106E-1	9.412162E-1	9.525749E-1	9.739088E-1	9.341430E-1	9.343590E-1	9.628930E-1	9.129865E-1	9.429796E-1	9.159599E-1	9.523974E-1	9.438691E-1	8.903063E-1	9.051995E-1	9.399520E-1	9.204090E-1	9.165541E-1	9.715665E-1	9.083079E-1	8.986109E-1	9.428739E-1	9.373244E-1	8.952051E-1	9.378398E-1	9.000722E-1	9.533827E-1	9.553061E-1	9.221562E-1	9.171998E-1	9.540517E-1	9.214346E-1	9.198793E-1	9.620895E-1	9.153429E-1	9.563776E-1	9.305165E-1	9.344495E-1	9.257544E-1	9.290935E-1	9.170819E-1	9.239493E-1	9.373236E-1	9.725940E-1	9.355508E-1	9.314272E-1	9.044463E-1	9.062649E-1	9.274151E-1	8.703821E-1	9.368906E-1	9.143552E-1	9.435145E-1	9.336637E-1	9.130109E-1	9.475029E-1	9.189210E-1	9.313221E-1	9.320883E-1	9.144115E-1	9.307106E-1	9.333958E-1	9.235284E-1	9.317005E-1	9.459347E-1	9.370670E-1	8.884559E-1	8.979543E-1	9.305198E-1	9.129945E-1	9.578885E-1	9.572449E-1	9.210673E-1	9.018606E-1	9.092988E-1	9.139942E-1	9.362709E-1	9.461724E-1	8.973336E-1	9.258184E-1	9.467450E-1	9.424932E-1	9.432499E-1	8.816598E-1	9.254848E-1	9.476438E-1	9.765890E-1	9.400765E-1	9.158383E-1	9.255152E-1	9.222656E-1	9.218947E-1	9.218217E-1	9.053317E-1	9.077132E-1	9.410226E-1	9.104470E-1	9.342552E-1	9.663999E-1	9.225312E-1	9.454099E-1	9.572310E-1	9.391915E-1	9.140881E-1	9.330604E-1	9.339183E-1	9.552473E-1	9.148148E-1	9.209319E-1	9.341447E-1	9.264527E-1	9.544161E-1	9.195844E-1	9.234973E-1	9.041225E-1	9.593460E-1	9.310297E-1	9.465708E-1	9.506160E-1	9.217298E-1	9.514696E-1	1.005149E+0	9.209960E-1	9.202416E-1	9.276094E-1	9.639893E-1	9.343055E-1	9.238928E-1	9.335901E-1	9.333682E-1	8.628649E-1	9.423557E-1	9.102547E-1	9.265615E-1	9.850850E-1	9.201886E-1	9.168703E-1	8.983170E-1	9.429053E-1	9.327027E-1	9.277049E-1	9.064192E-1	9.338863E-1	9.347175E-1	9.035082E-1	8.973927E-1	9.071020E-1	9.290197E-1	9.263757E-1	9.756196E-1	9.365641E-1	9.744367E-1	9.716251E-1	9.417163E-1	9.007832E-1	9.896456E-1	9.393827E-1	9.269080E-1	9.219722E-1	9.022735E-1
5.362680E+2	7.437760E-1	7.026193E-1	6.831409E-1	6.980168E-1	7.261108E-1	6.980957E-1	7.100701E-1	7.415936E-1	6.983675E-1	7.452957E-1	7.448116E-1	7.263901E-1	7.154304E-1	7.335548E-1	7.165891E-1	7.550114E-1	7.225329E-1	6.885567E-1	7.005759E-1	7.268071E-1	7.277306E-1	6.834267E-1	7.189342E-1	7.063848E-1	7.213239E-1	6.923184E-1	7.152477E-1	7.334626E-1	7.167551E-1	6.982438E-1	7.166612E-1	7.185222E-1	7.426335E-1	7.067044E-1	7.052733E-1	7.551002E-1	7.278784E-1	6.865403E-1	7.419889E-1	7.366594E-1	7.600672E-1	7.126645E-1	7.202363E-1	7.292381E-1	7.230983E-1	6.984569E-1	7.284583E-1	7.085317E-1	7.136699E-1	7.684403E-1	7.144383E-1	6.890217E-1	6.922620E-1	6.912513E-1	7.213555E-1	7.268394E-1	7.007091E-1	7.258765E-1	7.795112E-1	7.030016E-1	6.833142E-1	7.375751E-1	7.270966E-1	7.495651E-1	7.329285E-1	7.491820E-1	6.864315E-1	7.068062E-1	7.196719E-1	7.112904E-1	7.452142E-1	6.918178E-1	7.174466E-1	6.851842E-1	7.679796E-1	7.214689E-1	6.910166E-1	7.432135E-1	7.336997E-1	7.452870E-1	7.116627E-1	7.035766E-1	7.173323E-1	7.128405E-1	6.878858E-1	7.502226E-1	7.079541E-1	7.161300E-1	7.090724E-1	7.251949E-1	7.365307E-1	7.115701E-1	7.015124E-1	7.363501E-1	7.211618E-1	7.075087E-1	7.279896E-1	7.706833E-1	7.308078E-1	7.155492E-1	7.114451E-1	6.996839E-1	7.491732E-1	7.302144E-1	7.412847E-1	7.106685E-1	7.641529E-1	7.060038E-1	7.120109E-1	7.080113E-1	7.183439E-1	7.785788E-1	7.290687E-1	7.088559E-1	7.252852E-1	7.170723E-1	7.262919E-1	7.199997E-1	7.098714E-1	7.550411E-1	7.131222E-1	7.386940E-1	7.245508E-1	7.468959E-1	7.280765E-1	7.295328E-1	7.160516E-1	7.495802E-1	7.572514E-1	6.796303E-1	7.447898E-1	7.149031E-1	7.288188E-1	7.237987E-1	7.511155E-1	7.233880E-1	7.407691E-1	7.166753E-1	7.401734E-1	7.345509E-1	7.524527E-1	7.056695E-1	7.463720E-1	7.046782E-1	7.229997E-1	7.533145E-1	7.244308E-1	7.173495E-1	7.275776E-1	7.077323E-1	7.530037E-1	7.645607E-1	7.321382E-1	7.373154E-1	7.296615E-1	7.225772E-1	7.495246E-1	7.430367E-1	7.585565E-1	7.146343E-1	7.091525E-1	7.223703E-1	7.270842E-1	7.289725E-1	7.333280E-1	7.317344E-1	7.391796E-1	7.367427E-1	7.045864E-1	7.138221E-1	6.946175E-1
5.365140E+2	5.798735E-1	5.689699E-1	5.978710E-1	5.407167E-1	5.641566E-1	5.767626E-1	5.906001E-1	5.894149E-1	5.526261E-1	5.683694E-1	5.608253E-1	5.650167E-1	5.595448E-1	5.559043E-1	5.685743E-1	5.814074E-1	5.953195E-1	5.613803E-1	5.713329E-1	5.653843E-1	5.697594E-1	5.389979E-1	5.794157E-1	5.551055E-1	5.953620E-1	5.594282E-1	6.155373E-1	5.708258E-1	5.861294E-1	5.956831E-1	5.706627E-1	5.740944E-1	5.939741E-1	5.733970E-1	5.960941E-1	5.692354E-1	5.438881E-1	5.372869E-1	5.583335E-1	5.698048E-1	5.897123E-1	5.455545E-1	5.790335E-1	5.887112E-1	5.863181E-1	5.615649E-1	5.928286E-1	5.818422E-1	5.482801E-1	5.552470E-1	5.543053E-1	5.989422E-1	5.675053E-1	5.567491E-1	5.951002E-1	5.601349E-1	5.557065E-1	5.756272E-1	5.363010E-1	5.953144E-1	5.676554E-1	5.587132E-1	5.338497E-1	5.555788E-1	5.908704E-1	5.320003E-1	5.573553E-1	5.589113E-1	5.461688E-1	5.660156E-1	6.047337E-1	5.772537E-1	5.696619E-1	6.003501E-1	5.800960E-1	6.250241E-1	5.721402E-1	5.592800E-1	5.886222E-1	5.681953E-1	5.676354E-1	5.573598E-1	5.682132E-1	5.835576E-1	5.564630E-1	5.853278E-1	5.864467E-1	5.526531E-1	5.711841E-1	5.968227E-1	5.855315E-1	5.934292E-1	5.651909E-1	5.470247E-1	5.832544E-1	5.653238E-1	5.798554E-1	6.066966E-1	5.333777E-1	5.967412E-1	5.562257E-1	6.000253E-1	6.047372E-1	5.650731E-1	5.990142E-1	5.995723E-1	5.789572E-1	5.599246E-1	5.485841E-1	5.550959E-1	5.931806E-1	5.673672E-1	6.071349E-1	5.595398E-1	6.206829E-1	6.211791E-1	5.635331E-1	5.670789E-1	5.640049E-1	5.883636E-1	5.814483E-1	5.670241E-1	5.657825E-1	5.543552E-1	5.601976E-1	5.844747E-1	5.769637E-1	5.731885E-1	6.032640E-1	5.823243E-1	5.913422E-1	6.082640E-1	5.987397E-1	5.734238E-1	6.078156E-1	5.870050E-1	5.505323E-1	5.637553E-1	5.687111E-1	5.665578E-1	6.036667E-1	5.805245E-1	5.799217E-1	5.854321E-1	5.758178E-1	6.009002E-1	6.178138E-1	5.840764E-1	5.935730E-1	5.546086E-1	5.727970E-1	6.056524E-1	5.702229E-1	5.895647E-1	5.760048E-1	5.560627E-1	5.748535E-1	5.861079E-1	5.804727E-1	5.603339E-1	5.687817E-1	6.099550E-1	5.848596E-1	5.846141E-1	5.956399E-1	5.505774E-1	5.815715E-1	5.672824E-1	5.455116E-1	5.583560E-1	6.591449E-1
5.367660E+2	5.189401E-1	5.204959E-1	5.053878E-1	4.937529E-1	5.191426E-1	4.847635E-1	5.106142E-1	4.651548E-1	5.034642E-1	4.970789E-1	4.852602E-1	5.009230E-1	4.772301E-1	4.879473E-1	5.031635E-1	4.934918E-1	5.122728E-1	5.167154E-1	5.055291E-1	5.209774E-1	4.811339E-1	5.179810E-1	5.089511E-1	5.019098E-1	5.512881E-1	4.964890E-1	5.002619E-1	5.383372E-1	5.131408E-1	4.939705E-1	4.896050E-1	5.152357E-1	5.106840E-1	5.498591E-1	5.191627E-1	5.478992E-1	5.071628E-1	5.121931E-1	5.352137E-1	5.055002E-1	5.261809E-1	5.254802E-1	5.063724E-1	5.107466E-1	5.158202E-1	5.250090E-1	5.250045E-1	4.825330E-1	5.100240E-1	5.170093E-1	5.520380E-1	5.004251E-1	4.963626E-1	4.927388E-1	4.931826E-1	4.942901E-1	4.875915E-1	5.047987E-1	5.216335E-1	5.447439E-1	5.217511E-1	5.065459E-1	4.954161E-1	4.948763E-1	5.447386E-1	5.354163E-1	4.880167E-1	5.057584E-1	5.260009E-1	4.876179E-1	5.207034E-1	5.046627E-1	5.135167E-1	4.902622E-1	5.185774E-1	5.255379E-1	5.304044E-1	4.836011E-1	4.621216E-1	5.186148E-1	5.567290E-1	4.800996E-1	5.159159E-1	5.046637E-1	5.038452E-1	5.090590E-1	5.020680E-1	5.191155E-1	5.108370E-1	5.109985E-1	4.870219E-1	5.115648E-1	4.793233E-1	5.142135E-1	5.144171E-1	4.995575E-1	4.895173E-1	4.975608E-1	5.208828E-1	4.898239E-1	4.716824E-1	4.995298E-1	5.297713E-1	5.233311E-1	5.014041E-1	4.918178E-1	4.903918E-1	4.907540E-1	5.197261E-1	5.019846E-1	5.287186E-1	5.215917E-1	4.899744E-1	4.901496E-1	4.867114E-1	5.055506E-1	4.997954E-1	5.224250E-1	5.103342E-1	5.209205E-1	5.022468E-1	4.908576E-1	4.880989E-1	5.244086E-1	5.434321E-1	4.930494E-1	5.047155E-1	5.232249E-1	5.140641E-1	5.215902E-1	5.619112E-1	5.364520E-1	5.347082E-1	5.047305E-1	5.347031E-1	5.159186E-1	5.415719E-1	4.883866E-1	5.105470E-1	4.869935E-1	4.966846E-1	5.061204E-1	5.143114E-1	5.043597E-1	5.033140E-1	4.883286E-1	5.339383E-1	4.768485E-1	4.902100E-1	4.955782E-1	5.319686E-1	5.384673E-1	5.066471E-1	4.970412E-1	5.123480E-1	5.032689E-1	4.958171E-1	5.218958E-1	5.152444E-1	5.491017E-1	4.922269E-1	4.957153E-1	5.331117E-1	5.350224E-1	4.843772E-1	5.512737E-1	5.086408E-1	5.052417E-1	4.811655E-1	5.048702E-1	4.339709E-1
5.370280E+2	5.107116E-1	4.965627E-1	5.125294E-1	4.835179E-1	4.757329E-1	4.394602E-1	4.798766E-1	4.677239E-1	4.586734E-1	4.753901E-1	4.538987E-1	4.579376E-1	4.822021E-1	4.677719E-1	4.766009E-1	4.997392E-1	5.130828E-1	4.483035E-1	5.112650E-1	4.903185E-1	4.686265E-1	4.753343E-1	4.837283E-1	4.760679E-1	5.292516E-1	5.097527E-1	4.959208E-1	4.784056E-1	4.883980E-1	4.709515E-1	4.690949E-1	5.061815E-1	5.026902E-1	4.907126E-1	5.167279E-1	5.420375E-1	4.934685E-1	4.992796E-1	5.068896E-1	5.022529E-1	4.791919E-1	4.817125E-1	4.769787E-1	5.094162E-1	4.772014E-1	4.916692E-1	4.861372E-1	5.011368E-1	4.624840E-1	4.719243E-1	4.823610E-1	5.261114E-1	4.955585E-1	4.759919E-1	4.891551E-1	4.574129E-1	4.669129E-1	4.964750E-1	4.927296E-1	5.028393E-1	4.928428E-1	5.038813E-1	4.727363E-1	5.091444E-1	4.634998E-1	4.804656E-1	5.071572E-1	4.675937E-1	4.831355E-1	5.026654E-1	4.738894E-1	4.920275E-1	5.016214E-1	4.999940E-1	4.887388E-1	4.939992E-1	5.114390E-1	4.595759E-1	4.991376E-1	4.939646E-1	4.802177E-1	5.260483E-1	4.674975E-1	5.071541E-1	4.824643E-1	4.930525E-1	4.768245E-1	4.873909E-1	4.964348E-1	4.642656E-1	5.034298E-1	4.952423E-1	5.178603E-1	4.584342E-1	4.758325E-1	5.154137E-1	5.070496E-1	5.177305E-1	4.946252E-1	4.929162E-1	4.599485E-1	5.459584E-1	4.883795E-1	4.783706E-1	5.005427E-1	5.051504E-1	4.928765E-1	4.792361E-1	4.721583E-1	4.768742E-1	5.027099E-1	5.107178E-1	4.899466E-1	4.841182E-1	5.141581E-1	5.041923E-1	5.087416E-1	4.780633E-1	5.101183E-1	4.982932E-1	5.074665E-1	4.903789E-1	4.889685E-1	4.851423E-1	4.682341E-1	4.890059E-1	4.925614E-1	5.129511E-1	4.968129E-1	4.811946E-1	5.237212E-1	5.122047E-1	5.162191E-1	4.942200E-1	4.578209E-1	5.030940E-1	4.680434E-1	4.850751E-1	4.931292E-1	5.087972E-1	5.099455E-1	4.840525E-1	4.931297E-1	4.516324E-1	4.986640E-1	5.086638E-1	5.036537E-1	4.726683E-1	4.871998E-1	4.736237E-1	4.943645E-1	5.099271E-1	4.461370E-1	5.037579E-1	4.640882E-1	4.986302E-1	5.469035E-1	5.007388E-1	4.985369E-1	4.921820E-1	5.112209E-1	5.045679E-1	4.671281E-1	4.718662E-1	4.689902E-1	5.024823E-1	5.120676E-1	4.770378E-1	5.147584E-1	4.619745E-1	5.022829E-1
5.372590E+2	5.261260E-1	4.858007E-1	5.213555E-1	4.806735E-1	5.154207E-1	4.749784E-1	4.888151E-1	4.923612E-1	4.669187E-1	5.003471E-1	4.971509E-1	5.255850E-1	4.798574E-1	4.722452E-1	4.885106E-1	5.102537E-1	4.693510E-1	4.991963E-1	5.345060E-1	4.978863E-1	4.735735E-1	4.926678E-1	5.081867E-1	4.568399E-1	4.913836E-1	5.079348E-1	5.351395E-1	5.101141E-1	5.352280E-1	5.166525E-1	5.040796E-1	4.904699E-1	5.082617E-1	4.890307E-1	4.744782E-1	5.258850E-1	4.874320E-1	5.042069E-1	5.472218E-1	4.517601E-1	5.146067E-1	5.152282E-1	5.245424E-1	5.008322E-1	5.289551E-1	5.189184E-1	4.889142E-1	5.044374E-1	5.131427E-1	5.124701E-1	4.665746E-1	5.413006E-1	5.219799E-1	5.042353E-1	5.268306E-1	5.120858E-1	4.929266E-1	5.348454E-1	5.469808E-1	5.108893E-1	4.881507E-1	5.131131E-1	5.061442E-1	5.230177E-1	4.817346E-1	5.225609E-1	4.997086E-1	5.148325E-1	5.072885E-1	5.032701E-1	5.261565E-1	5.093325E-1	5.202007E-1	5.309017E-1	4.798820E-1	5.278910E-1	5.022197E-1	5.076431E-1	5.152501E-1	5.144624E-1	5.211686E-1	4.851289E-1	5.183837E-1	5.215738E-1	5.398528E-1	4.967097E-1	4.923688E-1	4.767129E-1	5.007199E-1	5.162182E-1	5.212611E-1	5.107924E-1	5.107217E-1	5.096728E-1	4.770345E-1	4.976105E-1	5.017027E-1	5.335277E-1	5.137609E-1	5.256218E-1	5.090338E-1	4.792555E-1	5.056088E-1	5.034298E-1	4.987841E-1	5.012027E-1	4.767549E-1	4.835759E-1	5.055745E-1	5.130036E-1	4.959836E-1	5.082847E-1	4.972425E-1	5.139236E-1	4.914859E-1	4.807271E-1	5.038422E-1	5.042329E-1	5.302666E-1	4.995874E-1	4.834902E-1	4.822070E-1	5.134574E-1	5.102946E-1	5.123019E-1	4.943724E-1	5.000103E-1	5.301802E-1	5.199272E-1	5.130395E-1	5.298877E-1	5.141110E-1	5.100347E-1	5.042579E-1	4.874640E-1	5.046869E-1	5.009443E-1	5.058082E-1	5.089002E-1	5.032229E-1	5.213840E-1	5.050077E-1	4.771787E-1	4.943394E-1	4.848390E-1	5.436073E-1	4.976608E-1	4.975516E-1	5.161886E-1	4.995023E-1	5.119815E-1	5.245725E-1	5.051681E-1	5.181809E-1	4.831758E-1	5.204386E-1	5.115115E-1	5.161613E-1	5.462303E-1	4.841114E-1	5.278120E-1	5.506640E-1	4.994656E-1	5.154624E-1	5.019425E-1	5.159020E-1	5.103112E-1	5.343874E-1	4.870966E-1	5.167743E-1	5.474132E-1
5.375160E+2	5.753216E-1	5.433537E-1	6.159643E-1	5.752509E-1	5.932011E-1	5.958230E-1	5.502690E-1	5.854617E-1	5.687535E-1	5.707543E-1	5.714527E-1	5.872803E-1	5.450393E-1	5.684247E-1	5.920064E-1	5.611662E-1	5.728533E-1	5.952206E-1	5.581854E-1	6.164198E-1	5.915698E-1	5.854252E-1	5.590649E-1	5.766560E-1	6.239994E-1	6.055874E-1	5.917023E-1	5.846918E-1	5.792284E-1	5.746569E-1	5.803689E-1	5.730497E-1	5.770114E-1	5.655154E-1	6.082671E-1	5.783646E-1	6.098747E-1	6.236257E-1	6.046373E-1	5.663008E-1	5.925801E-1	6.015391E-1	6.163605E-1	6.014765E-1	5.865702E-1	5.652971E-1	5.885358E-1	5.663208E-1	5.927342E-1	6.005347E-1	6.237588E-1	5.779978E-1	5.594966E-1	5.943376E-1	6.040470E-1	5.691959E-1	6.188251E-1	5.902775E-1	5.954595E-1	5.574924E-1	5.893042E-1	5.609011E-1	5.860332E-1	5.858541E-1	6.139615E-1	6.012148E-1	5.680009E-1	5.994333E-1	5.569276E-1	5.895349E-1	6.072430E-1	6.283737E-1	5.871052E-1	5.971359E-1	6.066951E-1	5.790622E-1	5.775833E-1	5.710954E-1	5.941835E-1	5.865719E-1	6.105910E-1	5.830507E-1	6.021876E-1	5.995265E-1	5.626426E-1	5.580899E-1	6.001707E-1	5.807991E-1	5.767872E-1	5.892460E-1	5.522747E-1	5.945811E-1	6.145743E-1	6.065722E-1	5.722223E-1	6.009396E-1	5.605132E-1	6.279331E-1	5.733147E-1	5.981229E-1	5.920887E-1	5.624234E-1	6.160145E-1	6.218946E-1	6.024639E-1	5.771195E-1	5.740593E-1	5.753680E-1	5.711955E-1	5.850681E-1	5.973919E-1	6.206723E-1	5.686380E-1	5.885101E-1	5.496379E-1	5.682009E-1	5.942048E-1	5.951746E-1	5.719390E-1	5.987544E-1	6.182623E-1	5.952611E-1	5.806203E-1	5.966501E-1	6.030021E-1	5.752375E-1	5.779014E-1	6.131843E-1	6.439820E-1	5.995591E-1	6.033114E-1	6.085092E-1	6.290398E-1	5.850955E-1	5.892536E-1	5.632012E-1	5.747561E-1	5.441457E-1	5.521564E-1	5.904033E-1	6.039469E-1	5.614220E-1	5.996842E-1	5.703685E-1	6.257080E-1	5.965911E-1	5.971605E-1	5.819847E-1	5.972501E-1	5.810582E-1	6.122810E-1	5.993145E-1	5.614716E-1	6.083088E-1	6.071075E-1	5.804182E-1	6.240074E-1	5.790232E-1	6.099873E-1	6.067776E-1	5.883287E-1	5.933338E-1	5.741363E-1	6.376441E-1	5.650933E-1	5.999558E-1	6.042263E-1	6.112892E-1	5.797360E-1	5.934091E-1	5.626230E-1
5.377630E+2	7.034348E-1	6.519018E-1	6.380614E-1	6.573892E-1	6.813276E-1	6.452158E-1	6.353994E-1	6.498229E-1	6.152230E-1	6.550974E-1	6.569593E-1	6.672254E-1	6.335027E-1	6.548755E-1	6.729992E-1	6.648572E-1	7.060433E-1	6.491964E-1	6.416612E-1	6.784836E-1	6.501573E-1	6.139937E-1	6.813395E-1	6.394434E-1	6.620085E-1	6.967917E-1	6.737465E-1	6.768098E-1	6.912206E-1	6.748098E-1	6.542907E-1	6.968927E-1	6.412726E-1	6.582980E-1	6.997041E-1	6.276791E-1	6.650887E-1	6.762514E-1	6.725273E-1	6.538157E-1	6.873037E-1	6.809222E-1	6.578376E-1	6.586569E-1	6.730398E-1	6.615904E-1	6.856034E-1	6.693094E-1	6.935568E-1	6.758504E-1	6.805620E-1	7.101135E-1	6.987468E-1	7.529890E-1	6.998088E-1	6.923468E-1	6.959070E-1	6.592808E-1	6.900620E-1	7.069162E-1	6.825914E-1	6.753850E-1	6.233425E-1	6.708963E-1	6.684578E-1	6.827637E-1	7.029150E-1	7.073034E-1	6.839597E-1	7.056055E-1	6.947269E-1	6.521209E-1	6.636873E-1	7.012862E-1	6.865220E-1	6.757479E-1	7.200077E-1	6.783205E-1	6.959195E-1	7.159908E-1	6.966524E-1	6.433382E-1	6.884987E-1	6.977662E-1	6.627497E-1	6.712933E-1	6.923037E-1	6.500027E-1	6.989244E-1	6.698895E-1	6.970817E-1	7.024729E-1	6.941559E-1	6.678009E-1	6.914734E-1	6.683736E-1	7.036195E-1	6.758126E-1	6.569867E-1	6.871979E-1	6.421479E-1	6.853535E-1	6.682061E-1	6.978494E-1	6.835753E-1	7.075764E-1	6.897046E-1	6.726976E-1	7.353990E-1	6.915128E-1	7.042548E-1	7.033063E-1	7.248493E-1	6.503025E-1	6.912314E-1	6.505520E-1	6.847932E-1	6.700112E-1	7.095636E-1	7.046845E-1	7.056956E-1	6.623752E-1	6.903091E-1	6.994772E-1	6.867281E-1	6.229598E-1	6.870729E-1	6.578505E-1	7.269132E-1	6.662833E-1	6.970774E-1	7.029871E-1	7.185854E-1	6.945106E-1	7.015331E-1	6.536866E-1	6.913480E-1	6.897754E-1	6.962113E-1	6.944795E-1	6.803704E-1	6.633996E-1	6.815515E-1	6.942939E-1	6.880087E-1	6.937584E-1	6.656401E-1	6.890661E-1	6.957883E-1	6.870434E-1	7.084999E-1	7.202240E-1	6.777978E-1	7.114478E-1	7.118791E-1	7.063649E-1	6.805212E-1	6.762549E-1	7.098704E-1	7.281448E-1	6.538887E-1	6.817615E-1	6.765679E-1	6.796716E-1	6.820789E-1	7.078110E-1	6.674250E-1	7.131528E-1	6.782796E-1	6.877224E-1	6.776018E-1
5.380160E+2	7.946629E-1	7.767340E-1	7.523812E-1	7.466421E-1	7.804354E-1	7.434211E-1	7.741176E-1	7.926119E-1	7.532311E-1	7.950811E-1	7.890722E-1	7.964830E-1	7.733736E-1	7.926847E-1	7.936737E-1	8.135541E-1	7.541713E-1	7.701123E-1	7.835916E-1	7.716429E-1	7.953128E-1	7.621508E-1	7.858454E-1	7.747057E-1	8.152161E-1	7.951866E-1	8.286758E-1	8.249928E-1	7.733778E-1	7.839806E-1	7.791591E-1	8.091480E-1	7.952561E-1	8.073090E-1	7.418317E-1	8.077492E-1	7.975960E-1	7.636975E-1	8.230972E-1	7.780382E-1	7.946407E-1	7.809515E-1	7.981817E-1	7.744071E-1	7.844777E-1	7.758170E-1	7.953771E-1	7.859419E-1	7.649218E-1	8.299509E-1	8.002040E-1	7.904954E-1	7.722223E-1	8.089463E-1	7.726998E-1	7.938864E-1	7.727433E-1	8.036240E-1	8.237687E-1	8.216554E-1	7.942831E-1	7.772629E-1	7.820889E-1	7.542736E-1	7.727740E-1	7.782787E-1	8.011227E-1	8.197086E-1	7.591876E-1	8.012864E-1	7.831385E-1	8.046977E-1	8.224733E-1	8.270621E-1	8.110354E-1	8.066801E-1	8.166762E-1	7.574889E-1	7.848471E-1	8.161632E-1	7.880884E-1	8.001286E-1	7.899823E-1	7.887517E-1	7.978887E-1	7.645729E-1	7.887525E-1	8.265165E-1	8.254207E-1	7.683306E-1	7.624023E-1	8.022587E-1	7.950817E-1	7.912864E-1	8.031155E-1	7.960602E-1	7.842079E-1	8.120164E-1	7.748443E-1	8.180536E-1	7.662732E-1	7.957193E-1	8.308369E-1	8.121371E-1	7.337436E-1	8.184218E-1	7.986775E-1	7.745010E-1	7.911004E-1	7.679414E-1	8.241499E-1	8.179513E-1	7.733041E-1	7.749230E-1	7.992593E-1	7.655867E-1	7.742176E-1	7.837773E-1	7.836783E-1	8.083139E-1	7.742917E-1	7.819011E-1	7.539233E-1	7.590679E-1	7.815208E-1	7.784226E-1	7.787462E-1	7.669676E-1	8.316508E-1	7.794411E-1	7.650732E-1	8.000437E-1	8.067534E-1	7.704836E-1	8.063472E-1	8.140595E-1	7.929533E-1	7.698670E-1	7.870325E-1	7.951921E-1	7.953887E-1	7.755490E-1	7.732133E-1	7.549847E-1	8.152625E-1	7.798049E-1	8.241658E-1	7.786191E-1	7.880661E-1	7.970172E-1	7.604106E-1	8.232595E-1	8.008290E-1	7.772976E-1	7.366827E-1	7.870762E-1	7.916585E-1	7.664073E-1	8.388353E-1	7.873551E-1	8.127794E-1	7.778370E-1	8.290662E-1	7.828291E-1	8.161997E-1	8.072042E-1	7.782477E-1	8.078242E-1	7.448968E-1	7.751186E-1	7.697548E-1
5.382740E+2	9.734277E-1	9.364649E-1	1.007748E+0	9.811026E-1	9.902420E-1	9.650702E-1	9.749994E-1	9.474972E-1	9.968683E-1	9.712071E-1	1.003543E+0	9.937730E-1	1.011947E+0	9.899501E-1	9.669352E-1	1.015554E+0	9.493266E-1	9.645996E-1	9.552557E-1	1.010830E+0	9.513870E-1	9.527612E-1	1.015802E+0	9.521687E-1	1.035750E+0	9.566062E-1	1.035697E+0	1.002837E+0	9.676165E-1	9.901988E-1	9.366110E-1	1.006287E+0	1.007074E+0	1.019988E+0	1.020479E+0	1.007729E+0	9.495739E-1	9.782368E-1	1.023077E+0	1.000433E+0	9.878837E-1	1.023253E+0	9.694935E-1	9.845964E-1	1.018394E+0	1.003054E+0	9.875375E-1	9.686542E-1	9.737862E-1	9.950391E-1	9.245359E-1	9.982261E-1	9.915206E-1	9.987424E-1	9.951413E-1	9.915076E-1	9.494023E-1	9.998959E-1	1.010283E+0	1.005791E+0	9.688699E-1	9.553106E-1	9.722034E-1	1.013114E+0	9.966677E-1	1.006417E+0	9.677491E-1	9.798429E-1	9.719223E-1	9.715347E-1	9.870476E-1	9.973883E-1	9.641261E-1	1.010264E+0	9.823639E-1	1.033365E+0	9.440926E-1	9.712919E-1	9.501778E-1	9.960305E-1	9.776287E-1	9.739102E-1	9.713728E-1	9.966464E-1	1.017434E+0	9.515146E-1	9.825348E-1	1.006728E+0	9.433659E-1	9.414576E-1	1.004388E+0	9.914745E-1	9.754299E-1	9.880174E-1	9.909359E-1	1.013372E+0	9.987827E-1	1.011212E+0	1.008635E+0	1.016212E+0	9.767738E-1	9.931149E-1	1.014243E+0	9.656714E-1	9.759739E-1	9.697099E-1	9.671715E-1	9.889305E-1	9.762925E-1	9.770458E-1	9.775191E-1	9.939001E-1	1.004571E+0	9.385712E-1	1.007801E+0	9.712908E-1	9.839955E-1	9.809245E-1	9.674544E-1	1.031890E+0	9.750495E-1	9.793438E-1	1.015907E+0	1.019463E+0	1.012191E+0	1.004468E+0	9.799535E-1	9.959555E-1	1.026763E+0	9.559842E-1	1.001580E+0	9.891953E-1	9.959796E-1	9.596942E-1	9.922705E-1	9.717456E-1	1.001235E+0	9.618280E-1	9.818899E-1	1.008852E+0	9.655301E-1	9.574938E-1	1.001329E+0	9.689170E-1	1.006604E+0	1.026575E+0	9.667567E-1	9.588462E-1	1.004949E+0	1.036638E+0	1.020349E+0	1.006826E+0	9.560490E-1	9.886156E-1	9.495998E-1	9.538914E-1	9.454187E-1	9.950448E-1	9.653659E-1	9.736640E-1	9.562349E-1	9.996019E-1	9.815767E-1	1.020284E+0	9.523026E-1	9.856871E-1	9.966058E-1	9.778625E-1	9.290299E-1	1.011443E+0	9.629607E-1
5.385110E+2	1.201898E+0	1.209750E+0	1.244324E+0	1.185296E+0	1.163306E+0	1.204382E+0	1.186764E+0	1.174596E+0	1.196456E+0	1.213125E+0	1.231762E+0	1.214424E+0	1.234409E+0	1.206488E+0	1.219622E+0	1.233283E+0	1.208342E+0	1.218539E+0	1.207108E+0	1.204679E+0	1.167025E+0	1.125264E+0	1.202255E+0	1.193496E+0	1.243873E+0	1.239816E+0	1.248414E+0	1.219691E+0	1.210935E+0	1.260835E+0	1.187427E+0	1.238807E+0	1.200646E+0	1.251460E+0	1.257643E+0	1.228156E+0	1.221074E+0	1.206249E+0	1.248184E+0	1.221400E+0	1.239086E+0	1.251891E+0	1.214406E+0	1.193207E+0	1.216918E+0	1.232053E+0	1.213794E+0	1.197838E+0	1.213016E+0	1.213044E+0	1.201811E+0	1.229074E+0	1.212442E+0	1.220243E+0	1.247991E+0	1.227993E+0	1.206844E+0	1.175225E+0	1.204636E+0	1.189577E+0	1.169926E+0	1.233197E+0	1.195395E+0	1.228944E+0	1.233235E+0	1.187365E+0	1.193988E+0	1.190133E+0	1.214431E+0	1.180526E+0	1.255791E+0	1.181196E+0	1.223240E+0	1.179879E+0	1.241979E+0	1.254497E+0	1.218351E+0	1.187123E+0	1.187503E+0	1.238796E+0	1.205364E+0	1.209519E+0	1.206577E+0	1.239076E+0	1.212170E+0	1.172763E+0	1.241124E+0	1.188866E+0	1.203045E+0	1.227758E+0	1.224822E+0	1.218927E+0	1.166981E+0	1.207614E+0	1.196040E+0	1.226793E+0	1.211037E+0	1.278768E+0	1.239447E+0	1.221228E+0	1.185831E+0	1.266698E+0	1.223356E+0	1.218619E+0	1.195848E+0	1.168424E+0	1.201321E+0	1.246822E+0	1.208474E+0	1.196543E+0	1.194558E+0	1.271448E+0	1.179700E+0	1.189664E+0	1.193525E+0	1.223830E+0	1.218813E+0	1.208568E+0	1.196178E+0	1.166443E+0	1.187298E+0	1.252575E+0	1.156538E+0	1.198316E+0	1.193757E+0	1.164265E+0	1.237032E+0	1.202661E+0	1.186986E+0	1.228648E+0	1.185125E+0	1.204705E+0	1.241257E+0	1.195887E+0	1.216300E+0	1.173515E+0	1.230209E+0	1.188242E+0	1.201677E+0	1.224490E+0	1.216379E+0	1.172482E+0	1.156643E+0	1.188430E+0	1.163977E+0	1.229697E+0	1.239422E+0	1.182983E+0	1.135704E+0	1.196610E+0	1.188917E+0	1.210724E+0	1.177177E+0	1.226723E+0	1.166909E+0	1.213196E+0	1.188433E+0	1.201680E+0	1.227155E+0	1.201800E+0	1.229536E+0	1.179031E+0	1.237213E+0	1.206318E+0	1.145734E+0	1.229672E+0	1.230045E+0	1.201029E+0	1.162464E+0	1.307236E+0	1.138514E+0
5.387650E+2	1.500711E+0	1.471973E+0	1.422648E+0	1.414623E+0	1.450580E+0	1.484253E+0	1.433063E+0	1.476486E+0	1.438497E+0	1.453898E+0	1.450001E+0	1.427423E+0	1.479541E+0	1.445637E+0	1.470066E+0	1.463027E+0	1.486308E+0	1.456480E+0	1.441114E+0	1.514815E+0	1.437159E+0	1.460364E+0	1.491303E+0	1.442503E+0	1.539343E+0	1.502640E+0	1.487783E+0	1.473514E+0	1.448931E+0	1.500803E+0	1.439344E+0	1.501375E+0	1.396819E+0	1.492840E+0	1.438568E+0	1.489366E+0	1.426610E+0	1.439084E+0	1.439622E+0	1.496474E+0	1.472775E+0	1.464947E+0	1.557179E+0	1.479925E+0	1.509041E+0	1.493554E+0	1.457944E+0	1.452578E+0	1.506399E+0	1.481672E+0	1.431043E+0	1.464748E+0	1.431414E+0	1.518392E+0	1.489648E+0	1.454856E+0	1.407858E+0	1.499876E+0	1.485720E+0	1.474200E+0	1.450363E+0	1.431847E+0	1.489600E+0	1.428721E+0	1.420945E+0	1.474478E+0	1.418205E+0	1.477251E+0	1.476804E+0	1.432382E+0	1.505172E+0	1.412595E+0	1.502956E+0	1.459759E+0	1.504081E+0	1.532153E+0	1.478574E+0	1.478971E+0	1.413746E+0	1.462000E+0	1.445851E+0	1.443748E+0	1.428218E+0	1.454985E+0	1.432051E+0	1.431971E+0	1.486399E+0	1.485940E+0	1.414337E+0	1.439979E+0	1.445573E+0	1.461030E+0	1.419437E+0	1.499684E+0	1.424237E+0	1.454558E+0	1.429977E+0	1.449617E+0	1.502230E+0	1.469738E+0	1.421628E+0	1.437875E+0	1.448866E+0	1.476860E+0	1.484355E+0	1.433811E+0	1.440719E+0	1.433606E+0	1.395330E+0	1.433700E+0	1.402981E+0	1.503017E+0	1.433407E+0	1.365870E+0	1.437111E+0	1.423029E+0	1.380736E+0	1.458208E+0	1.459366E+0	1.404269E+0	1.401012E+0	1.458259E+0	1.391159E+0	1.477109E+0	1.476071E+0	1.427020E+0	1.451756E+0	1.475093E+0	1.439134E+0	1.410597E+0	1.494346E+0	1.406818E+0	1.505604E+0	1.419700E+0	1.525839E+0	1.439272E+0	1.496897E+0	1.351897E+0	1.449678E+0	1.478947E+0	1.466186E+0	1.368332E+0	1.422857E+0	1.468242E+0	1.425596E+0	1.463283E+0	1.474506E+0	1.445298E+0	1.383041E+0	1.401402E+0	1.451744E+0	1.442597E+0	1.385774E+0	1.494916E+0	1.452937E+0	1.455650E+0	1.420156E+0	1.497215E+0	1.403695E+0	1.467202E+0	1.381093E+0	1.489735E+0	1.379305E+0	1.460832E+0	1.415956E+0	1.414575E+0	1.457111E+0	1.529698E+0	1.374115E+0	1.538538E+0	1.344148E+0
5.390390E+2	1.709388E+0	1.686682E+0	1.774179E+0	1.642312E+0	1.678604E+0	1.688826E+0	1.650946E+0	1.670310E+0	1.683811E+0	1.688037E+0	1.686007E+0	1.635628E+0	1.663587E+0	1.730889E+0	1.616179E+0	1.743490E+0	1.677790E+0	1.655911E+0	1.719941E+0	1.770984E+0	1.631582E+0	1.611014E+0	1.694750E+0	1.650693E+0	1.631369E+0	1.662814E+0	1.722219E+0	1.748665E+0	1.638861E+0	1.690707E+0	1.666732E+0	1.697869E+0	1.707750E+0	1.731677E+0	1.665771E+0	1.730870E+0	1.646455E+0	1.653433E+0	1.738670E+0	1.694811E+0	1.700514E+0	1.685064E+0	1.750993E+0	1.663423E+0	1.686716E+0	1.708833E+0	1.698214E+0	1.678866E+0	1.680191E+0	1.704945E+0	1.653027E+0	1.626866E+0	1.665338E+0	1.680158E+0	1.656267E+0	1.696256E+0	1.609794E+0	1.665243E+0	1.738138E+0	1.687016E+0	1.610477E+0	1.723655E+0	1.599665E+0	1.659439E+0	1.651308E+0	1.723208E+0	1.663434E+0	1.692448E+0	1.664062E+0	1.710684E+0	1.694783E+0	1.663567E+0	1.681833E+0	1.695654E+0	1.721551E+0	1.703750E+0	1.657629E+0	1.652815E+0	1.695811E+0	1.713462E+0	1.649024E+0	1.704513E+0	1.646206E+0	1.680279E+0	1.681902E+0	1.642745E+0	1.687016E+0	1.641419E+0	1.671469E+0	1.680822E+0	1.673502E+0	1.721113E+0	1.659269E+0	1.650249E+0	1.629855E+0	1.688144E+0	1.648837E+0	1.701525E+0	1.682896E+0	1.652044E+0	1.709633E+0	1.672135E+0	1.646352E+0	1.689044E+0	1.644065E+0	1.728742E+0	1.659582E+0	1.606808E+0	1.629901E+0	1.626479E+0	1.671400E+0	1.719414E+0	1.638983E+0	1.633623E+0	1.652886E+0	1.694609E+0	1.630814E+0	1.655098E+0	1.686995E+0	1.624775E+0	1.709153E+0	1.661747E+0	1.644158E+0	1.648488E+0	1.630521E+0	1.652240E+0	1.647039E+0	1.668121E+0	1.700564E+0	1.706270E+0	1.680821E+0	1.721439E+0	1.711952E+0	1.670778E+0	1.663641E+0	1.628093E+0	1.672497E+0	1.625752E+0	1.671110E+0	1.708914E+0	1.658871E+0	1.664357E+0	1.592188E+0	1.601481E+0	1.612896E+0	1.691816E+0	1.675040E+0	1.617128E+0	1.626038E+0	1.644996E+0	1.693043E+0	1.677807E+0	1.607879E+0	1.684656E+0	1.673794E+0	1.636463E+0	1.709203E+0	1.716925E+0	1.686651E+0	1.640995E+0	1.612505E+0	1.670773E+0	1.629481E+0	1.661456E+0	1.606461E+0	1.647790E+0	1.653692E+0	1.604912E+0	1.592962E+0	1.684237E+0	1.555305E+0
5.392720E+2	1.951105E+0	1.870953E+0	1.905729E+0	1.861587E+0	1.888920E+0	1.832246E+0	1.834478E+0	1.877303E+0	1.871744E+0	1.893823E+0	1.881046E+0	1.856798E+0	1.916416E+0	1.834419E+0	1.914106E+0	1.883340E+0	1.909191E+0	1.880121E+0	1.919244E+0	1.918894E+0	1.856274E+0	1.773559E+0	1.949519E+0	1.874594E+0	1.853224E+0	1.809731E+0	1.904603E+0	1.816541E+0	1.832264E+0	1.896721E+0	1.818936E+0	1.865323E+0	1.874446E+0	1.860786E+0	1.824594E+0	1.894792E+0	1.866023E+0	1.795996E+0	1.917932E+0	1.862680E+0	1.845261E+0	1.824122E+0	1.844430E+0	1.867864E+0	1.846894E+0	1.854828E+0	1.874394E+0	1.903607E+0	1.828036E+0	1.942163E+0	1.849383E+0	1.903519E+0	1.803234E+0	1.905248E+0	1.920170E+0	1.853635E+0	1.824832E+0	1.853656E+0	1.845413E+0	1.842626E+0	1.805627E+0	1.875079E+0	1.822823E+0	1.847010E+0	1.817760E+0	1.869068E+0	1.851372E+0	1.858135E+0	1.828160E+0	1.852593E+0	1.844824E+0	1.827128E+0	1.862787E+0	1.913846E+0	1.870221E+0	1.893098E+0	1.841275E+0	1.810882E+0	1.811047E+0	1.871943E+0	1.744497E+0	1.866802E+0	1.849283E+0	1.853822E+0	1.846745E+0	1.793356E+0	1.811187E+0	1.862232E+0	1.867711E+0	1.883689E+0	1.816530E+0	1.795858E+0	1.844342E+0	1.874179E+0	1.777469E+0	1.816546E+0	1.866483E+0	1.865398E+0	1.859854E+0	1.887445E+0	1.821169E+0	1.885923E+0	1.801823E+0	1.859993E+0	1.833943E+0	1.799466E+0	1.808186E+0	1.780602E+0	1.790451E+0	1.815891E+0	1.843136E+0	1.897162E+0	1.834310E+0	1.827906E+0	1.823785E+0	1.837326E+0	1.746022E+0	1.831977E+0	1.776446E+0	1.830356E+0	1.823962E+0	1.855190E+0	1.745350E+0	1.864668E+0	1.795897E+0	1.840701E+0	1.842036E+0	1.851114E+0	1.848139E+0	1.875221E+0	1.835993E+0	1.794706E+0	1.819169E+0	1.817810E+0	1.835574E+0	1.767606E+0	1.762831E+0	1.751167E+0	1.828157E+0	1.884364E+0	1.794891E+0	1.838457E+0	1.841664E+0	1.726518E+0	1.809738E+0	1.870753E+0	1.734745E+0	1.821246E+0	1.858326E+0	1.844815E+0	1.853966E+0	1.834820E+0	1.813858E+0	1.855757E+0	1.768000E+0	1.851497E+0	1.808689E+0	1.833920E+0	1.795458E+0	1.815033E+0	1.804338E+0	1.854123E+0	1.895734E+0	1.843480E+0	1.750804E+0	1.841673E+0	1.818237E+0	1.800014E+0	1.812428E+0	1.840246E+0	1.723584E+0
5.395160E+2	2.057439E+0	1.920990E+0	1.973101E+0	1.907419E+0	1.930555E+0	1.954210E+0	1.963709E+0	1.923721E+0	1.960513E+0	1.930221E+0	1.922815E+0	1.979237E+0	1.970710E+0	1.936004E+0	1.944890E+0	1.952997E+0	1.978975E+0	1.944477E+0	1.945653E+0	2.033701E+0	1.953159E+0	1.927127E+0	1.985792E+0	1.944525E+0	1.921096E+0	1.883169E+0	1.991251E+0	1.979696E+0	1.887093E+0	1.882806E+0	1.935688E+0	1.976780E+0	1.962476E+0	1.928881E+0	1.930007E+0	1.980723E+0	1.933775E+0	1.909661E+0	1.943847E+0	1.943900E+0	1.971631E+0	1.977951E+0	1.929479E+0	1.992422E+0	1.917681E+0	1.915194E+0	1.951349E+0	1.921818E+0	1.898793E+0	2.004294E+0	1.920296E+0	1.971533E+0	1.946326E+0	1.941784E+0	1.966686E+0	1.949437E+0	1.839271E+0	1.931742E+0	1.956385E+0	2.016206E+0	1.973931E+0	1.866944E+0	1.903629E+0	1.983377E+0	1.956928E+0	1.920410E+0	1.967332E+0	1.860561E+0	1.918375E+0	1.947558E+0	1.917556E+0	1.906231E+0	1.939600E+0	1.945879E+0	1.954246E+0	1.980428E+0	1.911006E+0	1.885497E+0	1.932004E+0	1.948415E+0	1.944301E+0	1.924789E+0	1.925978E+0	1.906930E+0	1.944249E+0	1.896196E+0	1.906641E+0	1.992152E+0	1.910030E+0	1.904180E+0	1.891088E+0	1.927214E+0	1.891837E+0	1.994351E+0	1.895808E+0	1.889116E+0	1.916955E+0	1.942614E+0	1.909533E+0	1.910598E+0	1.863750E+0	1.960390E+0	1.952347E+0	1.917313E+0	1.873179E+0	1.946459E+0	1.934002E+0	1.876793E+0	1.889490E+0	1.909846E+0	1.897494E+0	1.932784E+0	1.901555E+0	1.820542E+0	1.910953E+0	1.883461E+0	1.878391E+0	1.962906E+0	1.877176E+0	1.882332E+0	1.923094E+0	1.858996E+0	1.929683E+0	1.876192E+0	1.904267E+0	1.884666E+0	2.008815E+0	1.944547E+0	1.980589E+0	1.832305E+0	1.965614E+0	1.974857E+0	1.973581E+0	1.947382E+0	1.923778E+0	1.856458E+0	1.888601E+0	1.845857E+0	1.905664E+0	1.957511E+0	1.895085E+0	1.910299E+0	1.928856E+0	1.855708E+0	1.843377E+0	1.950676E+0	1.922416E+0	1.951936E+0	1.887551E+0	1.920136E+0	1.928666E+0	1.941585E+0	1.838078E+0	2.022985E+0	1.898828E+0	1.926497E+0	1.877414E+0	1.910130E+0	1.910753E+0	1.891084E+0	1.821851E+0	1.927250E+0	1.928576E+0	1.952519E+0	1.893327E+0	1.937749E+0	1.883138E+0	1.888713E+0	1.895672E+0	1.839799E+0	1.817650E+0
5.397750E+2	2.002849E+0	1.903309E+0	1.987748E+0	1.956455E+0	1.981928E+0	1.896874E+0	1.942938E+0	1.929505E+0	1.895911E+0	1.964978E+0	1.956504E+0	1.938197E+0	1.943762E+0	1.973511E+0	1.942219E+0	1.976120E+0	1.951375E+0	1.935669E+0	1.933800E+0	1.901021E+0	1.887636E+0	1.872377E+0	1.959460E+0	1.927048E+0	1.846432E+0	1.874079E+0	1.961780E+0	1.897819E+0	1.889904E+0	1.846462E+0	1.933080E+0	1.893180E+0	1.928500E+0	1.913638E+0	1.958688E+0	1.937514E+0	1.853060E+0	1.870325E+0	1.939901E+0	1.875224E+0	1.891661E+0	1.899051E+0	1.912388E+0	1.907774E+0	1.871634E+0	1.893426E+0	1.876881E+0	1.926021E+0	1.921984E+0	1.896338E+0	1.921926E+0	1.961186E+0	1.892592E+0	1.896375E+0	1.979423E+0	1.886433E+0	1.876712E+0	1.914116E+0	1.942928E+0	1.981179E+0	1.829903E+0	1.916057E+0	1.909483E+0	1.920625E+0	1.884439E+0	1.864548E+0	1.916416E+0	1.894940E+0	1.898664E+0	1.875773E+0	1.899414E+0	1.859356E+0	1.895483E+0	1.880883E+0	1.965888E+0	1.950290E+0	1.870997E+0	1.886638E+0	1.906799E+0	1.844417E+0	1.893569E+0	1.907153E+0	1.932877E+0	1.899892E+0	1.919853E+0	1.894994E+0	1.856701E+0	1.948387E+0	1.869895E+0	1.822669E+0	1.920319E+0	1.857610E+0	1.952074E+0	1.851266E+0	1.882459E+0	1.865929E+0	1.937126E+0	1.920302E+0	1.935912E+0	1.907041E+0	1.818586E+0	1.981271E+0	1.880568E+0	1.954582E+0	1.920777E+0	1.914841E+0	1.890707E+0	1.904634E+0	1.893576E+0	1.861260E+0	1.886837E+0	1.956461E+0	1.866905E+0	1.843810E+0	1.913641E+0	1.862434E+0	1.853921E+0	1.901540E+0	1.936346E+0	1.939445E+0	1.881591E+0	1.853347E+0	1.875783E+0	1.951112E+0	1.888487E+0	1.808297E+0	1.892296E+0	1.885305E+0	1.956846E+0	1.881745E+0	1.898264E+0	1.886913E+0	1.892254E+0	1.898548E+0	1.966284E+0	1.842640E+0	1.873898E+0	1.833816E+0	1.902851E+0	1.894284E+0	1.849384E+0	1.806349E+0	1.850631E+0	1.897778E+0	1.827339E+0	1.970195E+0	1.869170E+0	1.865842E+0	1.932870E+0	1.871293E+0	1.911364E+0	1.851061E+0	1.787344E+0	1.878077E+0	1.852922E+0	1.859708E+0	1.776943E+0	1.878199E+0	1.894728E+0	1.820018E+0	1.826862E+0	1.896335E+0	1.856840E+0	1.832176E+0	1.764802E+0	1.858214E+0	1.873606E+0	1.855016E+0	1.707764E+0	1.857435E+0	1.872079E+0
5.400240E+2	2.025663E+0	1.971944E+0	2.045565E+0	1.992149E+0	1.942773E+0	2.010192E+0	1.954183E+0	1.887454E+0	1.957369E+0	2.004555E+0	1.976501E+0	1.961047E+0	2.005966E+0	2.014332E+0	1.944106E+0	2.000324E+0	1.912605E+0	1.914839E+0	2.011876E+0	2.015484E+0	1.971381E+0	1.922131E+0	2.021080E+0	1.905895E+0	1.970849E+0	1.876751E+0	2.002266E+0	1.903034E+0	1.979067E+0	1.886687E+0	1.901166E+0	1.954213E+0	1.931627E+0	1.969773E+0	1.986379E+0	1.975273E+0	1.956275E+0	1.882659E+0	1.989068E+0	1.939091E+0	1.973934E+0	1.977938E+0	2.021767E+0	1.906552E+0	1.939135E+0	1.959199E+0	1.958867E+0	1.914631E+0	1.929899E+0	1.988525E+0	1.903981E+0	2.034513E+0	1.951777E+0	1.993520E+0	1.991510E+0	1.926670E+0	1.868213E+0	1.887013E+0	1.927215E+0	1.925280E+0	1.909904E+0	1.895378E+0	1.927428E+0	1.967768E+0	1.935242E+0	1.939966E+0	1.974341E+0	1.925697E+0	1.935300E+0	1.946489E+0	1.969943E+0	1.969390E+0	1.996334E+0	1.910685E+0	1.942906E+0	1.992837E+0	1.936512E+0	1.853232E+0	1.967028E+0	1.915448E+0	1.913952E+0	1.892988E+0	1.979544E+0	1.950533E+0	1.939190E+0	1.968557E+0	1.901205E+0	1.929656E+0	1.912220E+0	1.938095E+0	1.947936E+0	1.960156E+0	1.837944E+0	1.928236E+0	1.872565E+0	1.985347E+0	1.927966E+0	1.945826E+0	1.910297E+0	1.907532E+0	1.958791E+0	1.900282E+0	1.984803E+0	1.961501E+0	1.955281E+0	1.988140E+0	1.898695E+0	1.900174E+0	1.871616E+0	1.903899E+0	1.946724E+0	1.997587E+0	1.904012E+0	1.897587E+0	1.955757E+0	1.962731E+0	1.826475E+0	1.914165E+0	1.911458E+0	1.962665E+0	1.868050E+0	1.878310E+0	1.897806E+0	1.918764E+0	1.882676E+0	1.852537E+0	1.965702E+0	1.958424E+0	1.957617E+0	1.870884E+0	2.008531E+0	2.014022E+0	1.902418E+0	1.876416E+0	1.967659E+0	1.919573E+0	1.901182E+0	1.896449E+0	2.023636E+0	1.941395E+0	1.868526E+0	1.901800E+0	1.966605E+0	1.803109E+0	1.880541E+0	1.926882E+0	1.941804E+0	1.932876E+0	1.905899E+0	1.856607E+0	1.917521E+0	1.990683E+0	1.936555E+0	1.962193E+0	1.890656E+0	1.879293E+0	1.886335E+0	1.894286E+0	1.844515E+0	1.856328E+0	1.910540E+0	1.900673E+0	1.911260E+0	1.897071E+0	1.827221E+0	1.899349E+0	1.925178E+0	1.935163E+0	1.779777E+0	1.871046E+0	1.901999E+0
5.402850E+2	2.018197E+0	1.914198E+0	1.918811E+0	1.859077E+0	1.938467E+0	1.882209E+0	1.945517E+0	1.932851E+0	1.950353E+0	1.901648E+0	1.974059E+0	1.961152E+0	1.940116E+0	1.904286E+0	1.992849E+0	1.997622E+0	1.926050E+0	1.888244E+0	1.976413E+0	1.969134E+0	1.910599E+0	1.804515E+0	1.945320E+0	1.950792E+0	1.884950E+0	1.860629E+0	1.900321E+0	1.892456E+0	1.861650E+0	1.860610E+0	1.912054E+0	1.873448E+0	1.937655E+0	1.906218E+0	1.947722E+0	1.903466E+0	1.910734E+0	1.836104E+0	1.961911E+0	1.932255E+0	1.905370E+0	1.912908E+0	1.921485E+0	1.871576E+0	1.954748E+0	1.934306E+0	1.957264E+0	1.944139E+0	1.855815E+0	1.918240E+0	1.932261E+0	1.937218E+0	1.870012E+0	1.941498E+0	1.976393E+0	1.943573E+0	1.843551E+0	1.900308E+0	1.855874E+0	2.019994E+0	1.860081E+0	1.878762E+0	1.908625E+0	1.936071E+0	1.876798E+0	1.870285E+0	1.890478E+0	1.919590E+0	1.849539E+0	1.859176E+0	1.918381E+0	1.848124E+0	1.897102E+0	1.968280E+0	1.985080E+0	1.988625E+0	1.912997E+0	1.785272E+0	1.859528E+0	1.913360E+0	1.955100E+0	1.842181E+0	1.889147E+0	1.895496E+0	1.881595E+0	1.860218E+0	1.906810E+0	1.886519E+0	1.916259E+0	1.855572E+0	1.932472E+0	1.894431E+0	1.922262E+0	1.932238E+0	1.908236E+0	1.891997E+0	1.925561E+0	1.917973E+0	1.913697E+0	1.947368E+0	1.877714E+0	1.897886E+0	1.903669E+0	1.924616E+0	1.839730E+0	1.902465E+0	1.875733E+0	1.882825E+0	1.852557E+0	1.830369E+0	1.897198E+0	1.964741E+0	1.864146E+0	1.847740E+0	1.836899E+0	1.859850E+0	1.857770E+0	1.900486E+0	1.864606E+0	1.904162E+0	1.924165E+0	1.864580E+0	1.850245E+0	1.946727E+0	1.860355E+0	1.866992E+0	1.841439E+0	1.918420E+0	1.937695E+0	1.824544E+0	1.930919E+0	1.894995E+0	1.879396E+0	1.820048E+0	1.955322E+0	1.890960E+0	1.842766E+0	1.870226E+0	1.891785E+0	1.872396E+0	1.836388E+0	1.833607E+0	1.828585E+0	1.826607E+0	1.810830E+0	1.871285E+0	1.763124E+0	1.863808E+0	1.897052E+0	1.869197E+0	1.932979E+0	1.962574E+0	1.809833E+0	1.922506E+0	1.866486E+0	1.911359E+0	1.876893E+0	1.863497E+0	1.997361E+0	1.829929E+0	1.823600E+0	1.826293E+0	1.823192E+0	1.849112E+0	1.831211E+0	1.816257E+0	1.903747E+0	1.851426E+0	1.795895E+0	1.898214E+0	1.736191E+0
5.405130E+2	2.019813E+0	1.891463E+0	1.955787E+0	1.919501E+0	1.896317E+0	1.824995E+0	1.885127E+0	1.851101E+0	1.849081E+0	1.916824E+0	1.949211E+0	1.850629E+0	1.881030E+0	1.892507E+0	1.965537E+0	1.975005E+0	1.864783E+0	1.838064E+0	1.905793E+0	1.905883E+0	1.846954E+0	1.837342E+0	1.912169E+0	1.867904E+0	1.831614E+0	1.833651E+0	1.902426E+0	1.909066E+0	1.831477E+0	1.840627E+0	1.829251E+0	1.858340E+0	1.909275E+0	1.898860E+0	1.911084E+0	1.918052E+0	1.863609E+0	1.843051E+0	1.935308E+0	1.809674E+0	1.846632E+0	1.864001E+0	1.857534E+0	1.863916E+0	1.851567E+0	1.817121E+0	1.922426E+0	1.965735E+0	1.903717E+0	1.886757E+0	1.873463E+0	1.910654E+0	1.879603E+0	1.921894E+0	1.927604E+0	1.876524E+0	1.820822E+0	1.861317E+0	1.887642E+0	1.891808E+0	1.886299E+0	1.862987E+0	1.867487E+0	1.887587E+0	1.829417E+0	1.852666E+0	1.885170E+0	1.939504E+0	1.871039E+0	1.872473E+0	1.874728E+0	1.896479E+0	1.856800E+0	1.840850E+0	1.856887E+0	1.889247E+0	1.847589E+0	1.813277E+0	1.866466E+0	1.861520E+0	1.858590E+0	1.830796E+0	1.942196E+0	1.875244E+0	1.840199E+0	1.902446E+0	1.851876E+0	1.847051E+0	1.871304E+0	1.817538E+0	1.857723E+0	1.814172E+0	1.831338E+0	1.831290E+0	1.818935E+0	1.848475E+0	1.812940E+0	1.893375E+0	1.893797E+0	1.834204E+0	1.801100E+0	1.841561E+0	1.863956E+0	1.838212E+0	1.850936E+0	1.916159E+0	1.882667E+0	1.810432E+0	1.844013E+0	1.845505E+0	1.866346E+0	1.901090E+0	1.900388E+0	1.810665E+0	1.900144E+0	1.824005E+0	1.739281E+0	1.860836E+0	1.786778E+0	1.851340E+0	1.829453E+0	1.871150E+0	1.881947E+0	1.916443E+0	1.869363E+0	1.864830E+0	1.891026E+0	1.863705E+0	1.895334E+0	1.911571E+0	1.896963E+0	1.887843E+0	1.858707E+0	1.750286E+0	1.867647E+0	1.832362E+0	1.770464E+0	1.835717E+0	1.784247E+0	1.874171E+0	1.853701E+0	1.860955E+0	1.813899E+0	1.820143E+0	1.800437E+0	1.832058E+0	1.885437E+0	1.827278E+0	1.812016E+0	1.820304E+0	1.871215E+0	1.800632E+0	1.815361E+0	1.894362E+0	1.823661E+0	1.832229E+0	1.848105E+0	1.927300E+0	1.902394E+0	1.797005E+0	1.758541E+0	1.800431E+0	1.873192E+0	1.821656E+0	1.810263E+0	1.845185E+0	1.824833E+0	1.819015E+0	1.720445E+0	1.745419E+0	1.923338E+0
5.407740E+2	1.874803E+0	1.769998E+0	1.824174E+0	1.765806E+0	1.799927E+0	1.777449E+0	1.815505E+0	1.769346E+0	1.718703E+0	1.798597E+0	1.751257E+0	1.845451E+0	1.804196E+0	1.784244E+0	1.730111E+0	1.857688E+0	1.811529E+0	1.826054E+0	1.771250E+0	1.839752E+0	1.785282E+0	1.760339E+0	1.893484E+0	1.787344E+0	1.795008E+0	1.825831E+0	1.800669E+0	1.750952E+0	1.783272E+0	1.776778E+0	1.714172E+0	1.809246E+0	1.754397E+0	1.782378E+0	1.842502E+0	1.842483E+0	1.750310E+0	1.702222E+0	1.868857E+0	1.740383E+0	1.817195E+0	1.818121E+0	1.811701E+0	1.798577E+0	1.797341E+0	1.790004E+0	1.786379E+0	1.809565E+0	1.775277E+0	1.807128E+0	1.727737E+0	1.750944E+0	1.814788E+0	1.829911E+0	1.742372E+0	1.835541E+0	1.781302E+0	1.725683E+0	1.810875E+0	1.835274E+0	1.752515E+0	1.743959E+0	1.805845E+0	1.840320E+0	1.740447E+0	1.737844E+0	1.782469E+0	1.786749E+0	1.661421E+0	1.762423E+0	1.787418E+0	1.747847E+0	1.725654E+0	1.817620E+0	1.845732E+0	1.822954E+0	1.736987E+0	1.766500E+0	1.817737E+0	1.832817E+0	1.734237E+0	1.730626E+0	1.840544E+0	1.737258E+0	1.780444E+0	1.732658E+0	1.739431E+0	1.802721E+0	1.768680E+0	1.696367E+0	1.761307E+0	1.727545E+0	1.726158E+0	1.784721E+0	1.720795E+0	1.774086E+0	1.788700E+0	1.729411E+0	1.777292E+0	1.776930E+0	1.805341E+0	1.797794E+0	1.768144E+0	1.795374E+0	1.838676E+0	1.777682E+0	1.835828E+0	1.745024E+0	1.726209E+0	1.759986E+0	1.789968E+0	1.902235E+0	1.691287E+0	1.745211E+0	1.707010E+0	1.849314E+0	1.765485E+0	1.766689E+0	1.799106E+0	1.744743E+0	1.739242E+0	1.754885E+0	1.745892E+0	1.779326E+0	1.752877E+0	1.758454E+0	1.792482E+0	1.755934E+0	1.860473E+0	1.735875E+0	1.811330E+0	1.721391E+0	1.812224E+0	1.737581E+0	1.753199E+0	1.792898E+0	1.708214E+0	1.690735E+0	1.780207E+0	1.836787E+0	1.810120E+0	1.719796E+0	1.777072E+0	1.737505E+0	1.732664E+0	1.769165E+0	1.733747E+0	1.748068E+0	1.767909E+0	1.756806E+0	1.771850E+0	1.786867E+0	1.738651E+0	1.748043E+0	1.695112E+0	1.735170E+0	1.711961E+0	1.793218E+0	1.723255E+0	1.696527E+0	1.728251E+0	1.757235E+0	1.734755E+0	1.715929E+0	1.724514E+0	1.794674E+0	1.763254E+0	1.733438E+0	1.646286E+0	1.757051E+0	1.649684E+0
5.410240E+2	1.779823E+0	1.684588E+0	1.769367E+0	1.790855E+0	1.707968E+0	1.735053E+0	1.745122E+0	1.766685E+0	1.704709E+0	1.769905E+0	1.759179E+0	1.776747E+0	1.715815E+0	1.737774E+0	1.677504E+0	1.723244E+0	1.749130E+0	1.745752E+0	1.718805E+0	1.740129E+0	1.722480E+0	1.671533E+0	1.769967E+0	1.746850E+0	1.678271E+0	1.635205E+0	1.717793E+0	1.701849E+0	1.687603E+0	1.691278E+0	1.699352E+0	1.710428E+0	1.687586E+0	1.790136E+0	1.715768E+0	1.765111E+0	1.699515E+0	1.656809E+0	1.727720E+0	1.674928E+0	1.768397E+0	1.763217E+0	1.719940E+0	1.714409E+0	1.695800E+0	1.671274E+0	1.705671E+0	1.739267E+0	1.686542E+0	1.764929E+0	1.658213E+0	1.758555E+0	1.750878E+0	1.661128E+0	1.715478E+0	1.774996E+0	1.736826E+0	1.760260E+0	1.691020E+0	1.734963E+0	1.648496E+0	1.687528E+0	1.724656E+0	1.690215E+0	1.745683E+0	1.696835E+0	1.757456E+0	1.714669E+0	1.687481E+0	1.673240E+0	1.733955E+0	1.642005E+0	1.661347E+0	1.706790E+0	1.736182E+0	1.793743E+0	1.718091E+0	1.642988E+0	1.729328E+0	1.740983E+0	1.764565E+0	1.739732E+0	1.771648E+0	1.728964E+0	1.704463E+0	1.707749E+0	1.731069E+0	1.714646E+0	1.702580E+0	1.699907E+0	1.663320E+0	1.803577E+0	1.673503E+0	1.696801E+0	1.711318E+0	1.723786E+0	1.674839E+0	1.704955E+0	1.671665E+0	1.718376E+0	1.695134E+0	1.702179E+0	1.781142E+0	1.637770E+0	1.651281E+0	1.730801E+0	1.728144E+0	1.746442E+0	1.664731E+0	1.675788E+0	1.753938E+0	1.717736E+0	1.677970E+0	1.613742E+0	1.707134E+0	1.672940E+0	1.661245E+0	1.679645E+0	1.696127E+0	1.742591E+0	1.699381E+0	1.692209E+0	1.657523E+0	1.730354E+0	1.664568E+0	1.630455E+0	1.678640E+0	1.697212E+0	1.712497E+0	1.667220E+0	1.786333E+0	1.667292E+0	1.641613E+0	1.680804E+0	1.708934E+0	1.683951E+0	1.635481E+0	1.661180E+0	1.664867E+0	1.698786E+0	1.679471E+0	1.686723E+0	1.707779E+0	1.664489E+0	1.556356E+0	1.735644E+0	1.657793E+0	1.723868E+0	1.693472E+0	1.738916E+0	1.752812E+0	1.651692E+0	1.664243E+0	1.705120E+0	1.645728E+0	1.712992E+0	1.721479E+0	1.678190E+0	1.652806E+0	1.638089E+0	1.656373E+0	1.665482E+0	1.679812E+0	1.699333E+0	1.650764E+0	1.738649E+0	1.731694E+0	1.666447E+0	1.546201E+0	1.659487E+0	1.742034E+0
5.412690E+2	1.677026E+0	1.604529E+0	1.591015E+0	1.605111E+0	1.649092E+0	1.614798E+0	1.650943E+0	1.588299E+0	1.601892E+0	1.629841E+0	1.603886E+0	1.622470E+0	1.607388E+0	1.566313E+0	1.614451E+0	1.611029E+0	1.589740E+0	1.611527E+0	1.632678E+0	1.608770E+0	1.602619E+0	1.553915E+0	1.611919E+0	1.618920E+0	1.586134E+0	1.577580E+0	1.595841E+0	1.594363E+0	1.581477E+0	1.593464E+0	1.600203E+0	1.561313E+0	1.577049E+0	1.613649E+0	1.615022E+0	1.622461E+0	1.590912E+0	1.609334E+0	1.650984E+0	1.575832E+0	1.663760E+0	1.585980E+0	1.626064E+0	1.632473E+0	1.583734E+0	1.581903E+0	1.594298E+0	1.594297E+0	1.539646E+0	1.626228E+0	1.599612E+0	1.679118E+0	1.599779E+0	1.637407E+0	1.655083E+0	1.575953E+0	1.581982E+0	1.596386E+0	1.604978E+0	1.615811E+0	1.536150E+0	1.583835E+0	1.578055E+0	1.609364E+0	1.628838E+0	1.539797E+0	1.646724E+0	1.625753E+0	1.634334E+0	1.555664E+0	1.584026E+0	1.543310E+0	1.630386E+0	1.587570E+0	1.613788E+0	1.678299E+0	1.604147E+0	1.520745E+0	1.530942E+0	1.604491E+0	1.597558E+0	1.637095E+0	1.572360E+0	1.587796E+0	1.579767E+0	1.563944E+0	1.625488E+0	1.643264E+0	1.633520E+0	1.493220E+0	1.581743E+0	1.589767E+0	1.588426E+0	1.610168E+0	1.610315E+0	1.608757E+0	1.562352E+0	1.608837E+0	1.628299E+0	1.687659E+0	1.628762E+0	1.561859E+0	1.616424E+0	1.587355E+0	1.552445E+0	1.595316E+0	1.563545E+0	1.637412E+0	1.554780E+0	1.592614E+0	1.626077E+0	1.616395E+0	1.577214E+0	1.514051E+0	1.559521E+0	1.593328E+0	1.583138E+0	1.544095E+0	1.597526E+0	1.564909E+0	1.578749E+0	1.556291E+0	1.601810E+0	1.567507E+0	1.561278E+0	1.583164E+0	1.584758E+0	1.555764E+0	1.593193E+0	1.579912E+0	1.614634E+0	1.598100E+0	1.570454E+0	1.555434E+0	1.611871E+0	1.581937E+0	1.549313E+0	1.620216E+0	1.630290E+0	1.632436E+0	1.590690E+0	1.544737E+0	1.599993E+0	1.509080E+0	1.546006E+0	1.616745E+0	1.559607E+0	1.540003E+0	1.613073E+0	1.548323E+0	1.601160E+0	1.618726E+0	1.518594E+0	1.591770E+0	1.533440E+0	1.596582E+0	1.562819E+0	1.575580E+0	1.631946E+0	1.529573E+0	1.556474E+0	1.562350E+0	1.599211E+0	1.590576E+0	1.569466E+0	1.585248E+0	1.572075E+0	1.559205E+0	1.494462E+0	1.556188E+0	1.547105E+0
5.415090E+2	1.551404E+0	1.460886E+0	1.494566E+0	1.425761E+0	1.469165E+0	1.414340E+0	1.453122E+0	1.448272E+0	1.463109E+0	1.424625E+0	1.454577E+0	1.460961E+0	1.457390E+0	1.395827E+0	1.436745E+0	1.478660E+0	1.453404E+0	1.422952E+0	1.486760E+0	1.456987E+0	1.450420E+0	1.408614E+0	1.428301E+0	1.470806E+0	1.437667E+0	1.465945E+0	1.442248E+0	1.452379E+0	1.404547E+0	1.377873E+0	1.460951E+0	1.505991E+0	1.459874E+0	1.482143E+0	1.495035E+0	1.486353E+0	1.410311E+0	1.424962E+0	1.439249E+0	1.400958E+0	1.451317E+0	1.415309E+0	1.485512E+0	1.456078E+0	1.444569E+0	1.418120E+0	1.436447E+0	1.434788E+0	1.408780E+0	1.466163E+0	1.443036E+0	1.470637E+0	1.411795E+0	1.473004E+0	1.466433E+0	1.432871E+0	1.426539E+0	1.466607E+0	1.477922E+0	1.500764E+0	1.433829E+0	1.427107E+0	1.402346E+0	1.513036E+0	1.467586E+0	1.453550E+0	1.436518E+0	1.446510E+0	1.522536E+0	1.440067E+0	1.434618E+0	1.456391E+0	1.498039E+0	1.444251E+0	1.461535E+0	1.501777E+0	1.414419E+0	1.463877E+0	1.405034E+0	1.413739E+0	1.467949E+0	1.452983E+0	1.446352E+0	1.457148E+0	1.419335E+0	1.420093E+0	1.423884E+0	1.496565E+0	1.442993E+0	1.397188E+0	1.451163E+0	1.453111E+0	1.462026E+0	1.422424E+0	1.414918E+0	1.523467E+0	1.461850E+0	1.478355E+0	1.522448E+0	1.534900E+0	1.396026E+0	1.432261E+0	1.480729E+0	1.425068E+0	1.476996E+0	1.408606E+0	1.438966E+0	1.411418E+0	1.408908E+0	1.442022E+0	1.432887E+0	1.513159E+0	1.445336E+0	1.366945E+0	1.454057E+0	1.407094E+0	1.417260E+0	1.466553E+0	1.502113E+0	1.432021E+0	1.417745E+0	1.386396E+0	1.389471E+0	1.506029E+0	1.437921E+0	1.475329E+0	1.465746E+0	1.478955E+0	1.502707E+0	1.463186E+0	1.510433E+0	1.446856E+0	1.496891E+0	1.410043E+0	1.449442E+0	1.485367E+0	1.437940E+0	1.432791E+0	1.451101E+0	1.451452E+0	1.446723E+0	1.438323E+0	1.450784E+0	1.385120E+0	1.350342E+0	1.435345E+0	1.427135E+0	1.454369E+0	1.468265E+0	1.453838E+0	1.470656E+0	1.466819E+0	1.398971E+0	1.494907E+0	1.440824E+0	1.418103E+0	1.444577E+0	1.465592E+0	1.472488E+0	1.451611E+0	1.431287E+0	1.413273E+0	1.477447E+0	1.433727E+0	1.421871E+0	1.458166E+0	1.461647E+0	1.430582E+0	1.308682E+0	1.409616E+0	1.311201E+0
5.417760E+2	1.246048E+0	1.220170E+0	1.262242E+0	1.226540E+0	1.256878E+0	1.261711E+0	1.198231E+0	1.226723E+0	1.243496E+0	1.271202E+0	1.282926E+0	1.239196E+0	1.266429E+0	1.259414E+0	1.238193E+0	1.292661E+0	1.254916E+0	1.269841E+0	1.290356E+0	1.258253E+0	1.232339E+0	1.248200E+0	1.254259E+0	1.250998E+0	1.240861E+0	1.259279E+0	1.208275E+0	1.256261E+0	1.199688E+0	1.236787E+0	1.236249E+0	1.249092E+0	1.257873E+0	1.268722E+0	1.215623E+0	1.313312E+0	1.238835E+0	1.226564E+0	1.258948E+0	1.252929E+0	1.227186E+0	1.262973E+0	1.265790E+0	1.266627E+0	1.248783E+0	1.286951E+0	1.241198E+0	1.269754E+0	1.216056E+0	1.261721E+0	1.220289E+0	1.305788E+0	1.233674E+0	1.283519E+0	1.263077E+0	1.246846E+0	1.208801E+0	1.272914E+0	1.277497E+0	1.273504E+0	1.198709E+0	1.229076E+0	1.181982E+0	1.218697E+0	1.211969E+0	1.221578E+0	1.273017E+0	1.240609E+0	1.276825E+0	1.267596E+0	1.267373E+0	1.218501E+0	1.247572E+0	1.247337E+0	1.265407E+0	1.310571E+0	1.295941E+0	1.263334E+0	1.265997E+0	1.313978E+0	1.259845E+0	1.236827E+0	1.197602E+0	1.220533E+0	1.235044E+0	1.220422E+0	1.265464E+0	1.250678E+0	1.250635E+0	1.237493E+0	1.228038E+0	1.240675E+0	1.212787E+0	1.225608E+0	1.225053E+0	1.244501E+0	1.171208E+0	1.228103E+0	1.240790E+0	1.241903E+0	1.223773E+0	1.222799E+0	1.321409E+0	1.269081E+0	1.230130E+0	1.278615E+0	1.280792E+0	1.256692E+0	1.219312E+0	1.239541E+0	1.243764E+0	1.270468E+0	1.244929E+0	1.177389E+0	1.232798E+0	1.268754E+0	1.183224E+0	1.258795E+0	1.234627E+0	1.222312E+0	1.203108E+0	1.214175E+0	1.204300E+0	1.232620E+0	1.210379E+0	1.208769E+0	1.235042E+0	1.258557E+0	1.285413E+0	1.269585E+0	1.200976E+0	1.282429E+0	1.243608E+0	1.252580E+0	1.237002E+0	1.187998E+0	1.264499E+0	1.254627E+0	1.247711E+0	1.254148E+0	1.284203E+0	1.225905E+0	1.263567E+0	1.223323E+0	1.188665E+0	1.207692E+0	1.257341E+0	1.253726E+0	1.178958E+0	1.225056E+0	1.295252E+0	1.280395E+0	1.240466E+0	1.259172E+0	1.217185E+0	1.222429E+0	1.238195E+0	1.265316E+0	1.292439E+0	1.240036E+0	1.252827E+0	1.226248E+0	1.231662E+0	1.246201E+0	1.241663E+0	1.209791E+0	1.267597E+0	1.221563E+0	1.177247E+0	1.204072E+0	1.243226E+0
5.420210E+2	1.080643E+0	1.041846E+0	1.063317E+0	1.008117E+0	1.101804E+0	1.083457E+0	1.034687E+0	1.053486E+0	1.037597E+0	1.048757E+0	1.079696E+0	1.063992E+0	1.021022E+0	1.051904E+0	1.052355E+0	1.099146E+0	1.048096E+0	1.045284E+0	1.053174E+0	1.074718E+0	1.027092E+0	1.013304E+0	1.071811E+0	1.044712E+0	1.056314E+0	1.058067E+0	1.035539E+0	1.069826E+0	1.035546E+0	1.014306E+0	1.048889E+0	1.054645E+0	1.063672E+0	1.035604E+0	1.099936E+0	1.031592E+0	1.042275E+0	1.061423E+0	1.073162E+0	1.041842E+0	1.047157E+0	1.015476E+0	1.045273E+0	1.030593E+0	1.065091E+0	1.001504E+0	1.027216E+0	1.019208E+0	9.996035E-1	1.055140E+0	1.048509E+0	1.054231E+0	1.038035E+0	1.021197E+0	9.800838E-1	1.049185E+0	1.001101E+0	1.029985E+0	1.024631E+0	1.045632E+0	1.017092E+0	1.040331E+0	1.032804E+0	1.043916E+0	1.093942E+0	1.005717E+0	1.074818E+0	1.017529E+0	1.034003E+0	1.011263E+0	1.061267E+0	1.027681E+0	1.034642E+0	1.096130E+0	1.081322E+0	1.079155E+0	1.069645E+0	1.010391E+0	1.004796E+0	1.075928E+0	1.003301E+0	1.002172E+0	1.040453E+0	1.011519E+0	1.032308E+0	1.079740E+0	1.030913E+0	1.048253E+0	1.010573E+0	1.044413E+0	1.048445E+0	1.065010E+0	1.026506E+0	1.051981E+0	1.009300E+0	1.015207E+0	1.080222E+0	1.079636E+0	1.057868E+0	1.068448E+0	1.016927E+0	1.049076E+0	1.065575E+0	1.039155E+0	1.036494E+0	1.028318E+0	1.072343E+0	1.090165E+0	1.022014E+0	1.078956E+0	1.047817E+0	1.037651E+0	1.030125E+0	1.031072E+0	1.024034E+0	1.099197E+0	1.009725E+0	1.042495E+0	1.035286E+0	1.033950E+0	1.028536E+0	1.032721E+0	1.037659E+0	1.060173E+0	1.045793E+0	1.040604E+0	1.048342E+0	1.066151E+0	1.039991E+0	1.059191E+0	1.078404E+0	1.096408E+0	1.045003E+0	1.042707E+0	1.061771E+0	1.001399E+0	1.049936E+0	1.062156E+0	1.009140E+0	1.068260E+0	1.051729E+0	1.053427E+0	1.066545E+0	1.010469E+0	1.078619E+0	1.058946E+0	1.047440E+0	1.066282E+0	1.093367E+0	1.068538E+0	1.104260E+0	1.061408E+0	9.829704E-1	1.072093E+0	1.061705E+0	1.020960E+0	1.026500E+0	1.054860E+0	1.057894E+0	1.036851E+0	9.837021E-1	1.023630E+0	1.049008E+0	1.088768E+0	1.045521E+0	1.061890E+0	1.067112E+0	1.098065E+0	1.020592E+0	1.017682E+0	9.342271E-1
5.422670E+2	1.005555E+0	9.837642E-1	1.039192E+0	9.536523E-1	9.865960E-1	9.864804E-1	9.665795E-1	9.600098E-1	9.644312E-1	9.870688E-1	9.995933E-1	1.005417E+0	1.012102E+0	9.514232E-1	9.716526E-1	1.018586E+0	9.458613E-1	9.587380E-1	9.973021E-1	1.016707E+0	9.685329E-1	9.743134E-1	9.853618E-1	1.002276E+0	9.669371E-1	9.870710E-1	9.647094E-1	9.916041E-1	9.707448E-1	9.456189E-1	9.727037E-1	9.960341E-1	9.950082E-1	1.006896E+0	9.833498E-1	1.016558E+0	9.638344E-1	1.009303E+0	9.841643E-1	9.398963E-1	9.712125E-1	9.779237E-1	1.006934E+0	1.012026E+0	9.791331E-1	1.015597E+0	1.002062E+0	9.991642E-1	9.891013E-1	9.997070E-1	9.930961E-1	1.000804E+0	9.769058E-1	1.011691E+0	1.003682E+0	9.983079E-1	9.612489E-1	1.014505E+0	9.659853E-1	9.847678E-1	1.009483E+0	9.953311E-1	9.530677E-1	9.615517E-1	9.663411E-1	9.875916E-1	9.757537E-1	9.784087E-1	9.640991E-1	9.616886E-1	9.543943E-1	1.000973E+0	1.026128E+0	9.910186E-1	1.014659E+0	1.035776E+0	1.002185E+0	9.808274E-1	9.857363E-1	1.001500E+0	1.012559E+0	1.005933E+0	9.855242E-1	1.005764E+0	9.455410E-1	9.709180E-1	1.006856E+0	1.006783E+0	9.716581E-1	9.732267E-1	9.677747E-1	9.949751E-1	9.354774E-1	1.002020E+0	9.590444E-1	9.933965E-1	9.835349E-1	9.823659E-1	1.006657E+0	1.027003E+0	9.980108E-1	9.977025E-1	1.008071E+0	9.479140E-1	1.010069E+0	9.831197E-1	9.866687E-1	9.993836E-1	1.011310E+0	9.825359E-1	9.893795E-1	9.986827E-1	9.798938E-1	9.761607E-1	1.014680E+0	1.021974E+0	9.808139E-1	9.867931E-1	9.621921E-1	9.962659E-1	1.000344E+0	9.355979E-1	9.835660E-1	9.654559E-1	1.001590E+0	9.563570E-1	9.795417E-1	9.433439E-1	1.016754E+0	9.758034E-1	1.022159E+0	9.538260E-1	1.029063E+0	1.004442E+0	9.717818E-1	1.022409E+0	9.585735E-1	9.894689E-1	9.984937E-1	1.042225E+0	9.840654E-1	9.750723E-1	1.000151E+0	9.233637E-1	9.552480E-1	1.020932E+0	9.859754E-1	1.039324E+0	1.009240E+0	9.919998E-1	9.987482E-1	1.004803E+0	9.961138E-1	9.898610E-1	9.695777E-1	9.872304E-1	9.355009E-1	1.018367E+0	1.004768E+0	1.015567E+0	9.607753E-1	1.009236E+0	9.981265E-1	1.008354E+0	9.586713E-1	1.009047E+0	9.707937E-1	9.978270E-1	9.323247E-1	1.045676E+0	9.198618E-1
5.425400E+2	9.641174E-1	9.269251E-1	9.610211E-1	9.166148E-1	9.343591E-1	9.257142E-1	9.079512E-1	9.099957E-1	9.151506E-1	9.352592E-1	9.465483E-1	9.525322E-1	9.231451E-1	9.458803E-1	8.952689E-1	9.375319E-1	9.304319E-1	9.004569E-1	9.543568E-1	9.267301E-1	9.231615E-1	9.473061E-1	9.413801E-1	9.276238E-1	9.628903E-1	9.318612E-1	9.503025E-1	9.832549E-1	9.156221E-1	9.440592E-1	9.626587E-1	9.302057E-1	9.392045E-1	9.964509E-1	9.531908E-1	9.937734E-1	9.421055E-1	9.390413E-1	9.521380E-1	9.707512E-1	9.648809E-1	9.505487E-1	9.131044E-1	9.583912E-1	9.398028E-1	9.390325E-1	9.405105E-1	9.474690E-1	9.647117E-1	9.807795E-1	9.402706E-1	1.002147E+0	9.447274E-1	9.506850E-1	9.212836E-1	8.926191E-1	9.116210E-1	9.389206E-1	9.697883E-1	9.494906E-1	9.001699E-1	9.069562E-1	8.890017E-1	9.471120E-1	9.613102E-1	9.651869E-1	9.506175E-1	9.375181E-1	9.462732E-1	9.274463E-1	9.571660E-1	9.498782E-1	9.081830E-1	9.729864E-1	9.910036E-1	9.604869E-1	9.902859E-1	8.948395E-1	9.482802E-1	9.417430E-1	9.206154E-1	8.978307E-1	9.206779E-1	9.145103E-1	9.356592E-1	9.334895E-1	8.993050E-1	9.588429E-1	9.402842E-1	9.028797E-1	9.388227E-1	9.446026E-1	9.144022E-1	8.937500E-1	9.056413E-1	9.991664E-1	9.393927E-1	1.007532E+0	9.651082E-1	9.410899E-1	8.906428E-1	9.902534E-1	9.482131E-1	9.115509E-1	9.753234E-1	9.676655E-1	9.040437E-1	9.125791E-1	9.100934E-1	9.022928E-1	9.346053E-1	1.027161E+0	9.518042E-1	9.527686E-1	9.551719E-1	9.245322E-1	9.583561E-1	9.083137E-1	9.691620E-1	9.227921E-1	9.408019E-1	9.514906E-1	9.026686E-1	9.501372E-1	9.428399E-1	9.134025E-1	9.088109E-1	9.732829E-1	9.743669E-1	9.331551E-1	1.014037E+0	9.358465E-1	9.561424E-1	9.515496E-1	9.376011E-1	9.375246E-1	9.434456E-1	9.865305E-1	9.528481E-1	9.940404E-1	9.173981E-1	9.315872E-1	9.134724E-1	9.453871E-1	9.154918E-1	9.109468E-1	9.106210E-1	9.437951E-1	9.754336E-1	9.214915E-1	9.676522E-1	9.781187E-1	9.190978E-1	9.567173E-1	9.410464E-1	9.777598E-1	9.291979E-1	9.269372E-1	9.584435E-1	9.325516E-1	9.589154E-1	9.359096E-1	9.511072E-1	9.823256E-1	9.435665E-1	9.166523E-1	9.238193E-1	9.571497E-1	8.676374E-1	9.158471E-1	9.143234E-1
5.427600E+2	1.010260E+0	9.183376E-1	9.932466E-1	9.708292E-1	9.875874E-1	9.818782E-1	9.789353E-1	9.438210E-1	9.567420E-1	9.604302E-1	9.807111E-1	9.711240E-1	9.613937E-1	9.638030E-1	9.764980E-1	9.621060E-1	9.710533E-1	9.241767E-1	9.837037E-1	9.636820E-1	9.621389E-1	9.441141E-1	1.003011E+0	9.829236E-1	1.063142E+0	1.013120E+0	1.011168E+0	9.925374E-1	9.396466E-1	9.504359E-1	9.985971E-1	9.992553E-1	9.908737E-1	9.757628E-1	9.705459E-1	1.006200E+0	1.013578E+0	9.801817E-1	9.545130E-1	9.079092E-1	9.939650E-1	9.972620E-1	9.921667E-1	1.011736E+0	9.713005E-1	9.367120E-1	9.419303E-1	9.928595E-1	9.996830E-1	9.734561E-1	9.700853E-1	1.004063E+0	9.604304E-1	9.900054E-1	9.763526E-1	9.991560E-1	9.606383E-1	9.458003E-1	9.815766E-1	1.023035E+0	9.291403E-1	9.765249E-1	9.066830E-1	1.002643E+0	9.340728E-1	1.005732E+0	9.711532E-1	1.010346E+0	9.408911E-1	9.958573E-1	9.865796E-1	9.446337E-1	9.774481E-1	9.954978E-1	1.006764E+0	9.959944E-1	9.647840E-1	9.516226E-1	9.340557E-1	9.520650E-1	9.951485E-1	9.582092E-1	9.804727E-1	9.682021E-1	9.661547E-1	9.914854E-1	9.386446E-1	9.743736E-1	9.762511E-1	9.762112E-1	9.910547E-1	9.479301E-1	9.992873E-1	9.737211E-1	9.642687E-1	1.004975E+0	9.476273E-1	9.621146E-1	1.005714E+0	9.436012E-1	9.540212E-1	1.008102E+0	1.018009E+0	9.498773E-1	9.463255E-1	9.983176E-1	9.765351E-1	9.606386E-1	9.688082E-1	9.467369E-1	9.949259E-1	1.007263E+0	9.732629E-1	9.574139E-1	9.197250E-1	1.023059E+0	9.999533E-1	9.425925E-1	9.594910E-1	9.162924E-1	9.920469E-1	9.384460E-1	9.626405E-1	9.648860E-1	9.139111E-1	9.360154E-1	9.734497E-1	9.672640E-1	9.939276E-1	9.804719E-1	9.703532E-1	9.931027E-1	9.532164E-1	9.863009E-1	1.005047E+0	9.782514E-1	9.918622E-1	9.608321E-1	9.844886E-1	9.680196E-1	9.336933E-1	9.618567E-1	9.629416E-1	9.714705E-1	9.820166E-1	1.008120E+0	9.720063E-1	9.660607E-1	9.235622E-1	9.481966E-1	1.001549E+0	9.756612E-1	9.867452E-1	9.863841E-1	9.751195E-1	9.778151E-1	9.548623E-1	9.511015E-1	9.997586E-1	9.704716E-1	9.538991E-1	9.630585E-1	9.878383E-1	9.680915E-1	9.389921E-1	9.707413E-1	9.947037E-1	1.009529E+0	9.520801E-1	1.033109E+0	1.014632E+0
5.430070E+2	1.066135E+0	1.050691E+0	1.119691E+0	1.034132E+0	1.064845E+0	1.079810E+0	1.083225E+0	1.051142E+0	1.036271E+0	1.045508E+0	1.077813E+0	1.094790E+0	1.073428E+0	1.066395E+0	1.037637E+0	1.103770E+0	1.078624E+0	1.041968E+0	1.083147E+0	1.047029E+0	1.068399E+0	1.016477E+0	1.089290E+0	1.051455E+0	1.120527E+0	1.071580E+0	1.151933E+0	1.096288E+0	1.078903E+0	1.034391E+0	1.050797E+0	1.087785E+0	1.062759E+0	1.105722E+0	1.055340E+0	1.075249E+0	1.079881E+0	1.046552E+0	1.135247E+0	1.036891E+0	1.112508E+0	1.138010E+0	1.071187E+0	1.114807E+0	1.105984E+0	1.052963E+0	1.076151E+0	1.076287E+0	1.088984E+0	1.114376E+0	1.085387E+0	1.073198E+0	1.089742E+0	1.061740E+0	1.121337E+0	1.087264E+0	1.069510E+0	1.065581E+0	1.100396E+0	1.109681E+0	1.039081E+0	1.071295E+0	1.033361E+0	1.104978E+0	1.095851E+0	1.024872E+0	1.050145E+0	1.054824E+0	1.080451E+0	1.093176E+0	1.033572E+0	1.060740E+0	1.072876E+0	1.046066E+0	1.116911E+0	1.157097E+0	1.062729E+0	1.035053E+0	1.056015E+0	1.102883E+0	1.074885E+0	1.080833E+0	1.069341E+0	1.162856E+0	1.057706E+0	1.064042E+0	1.060609E+0	1.096536E+0	1.050863E+0	1.072102E+0	1.039108E+0	1.051339E+0	1.044728E+0	1.106105E+0	1.080744E+0	1.129428E+0	1.114179E+0	1.097743E+0	1.094136E+0	1.073225E+0	1.065334E+0	1.026971E+0	1.057003E+0	1.062856E+0	1.097695E+0	1.051596E+0	1.100611E+0	1.037744E+0	1.088597E+0	1.041939E+0	1.098615E+0	1.131809E+0	1.011789E+0	1.030914E+0	1.063537E+0	1.100624E+0	1.047485E+0	1.068547E+0	1.056556E+0	1.084023E+0	1.059829E+0	1.059306E+0	1.083703E+0	1.028183E+0	1.016071E+0	1.065324E+0	1.071958E+0	1.080371E+0	1.063904E+0	1.059465E+0	1.121442E+0	1.114634E+0	1.118733E+0	1.066111E+0	1.108168E+0	1.132008E+0	1.035791E+0	1.023123E+0	1.087669E+0	1.069084E+0	1.127937E+0	1.068722E+0	1.015847E+0	1.076639E+0	1.046939E+0	1.085989E+0	1.062409E+0	1.056688E+0	1.087599E+0	1.070337E+0	1.087294E+0	1.100140E+0	1.077216E+0	1.084171E+0	1.046648E+0	1.102121E+0	1.034069E+0	1.084869E+0	1.086188E+0	1.095818E+0	1.107828E+0	1.065329E+0	1.048583E+0	1.106246E+0	1.042594E+0	1.088440E+0	1.067464E+0	1.031929E+0	1.032575E+0	1.027204E+0	1.017250E+0
5.432860E+2	1.223399E+0	1.226176E+0	1.215575E+0	1.256912E+0	1.258053E+0	1.187253E+0	1.214754E+0	1.199336E+0	1.225689E+0	1.191200E+0	1.188046E+0	1.177960E+0	1.226380E+0	1.240039E+0	1.262710E+0	1.225264E+0	1.233229E+0	1.199347E+0	1.260878E+0	1.287948E+0	1.216632E+0	1.150256E+0	1.220850E+0	1.170538E+0	1.244415E+0	1.212021E+0	1.240673E+0	1.208762E+0	1.264906E+0	1.233805E+0	1.228667E+0	1.208681E+0	1.243485E+0	1.223726E+0	1.259762E+0	1.268468E+0	1.233208E+0	1.250040E+0	1.275014E+0	1.210121E+0	1.229723E+0	1.242533E+0	1.224462E+0	1.271388E+0	1.238081E+0	1.252076E+0	1.235339E+0	1.267240E+0	1.267521E+0	1.269049E+0	1.220665E+0	1.204335E+0	1.241148E+0	1.257653E+0	1.246155E+0	1.257670E+0	1.215016E+0	1.228830E+0	1.229732E+0	1.263698E+0	1.234598E+0	1.195158E+0	1.194723E+0	1.231384E+0	1.203408E+0	1.251924E+0	1.239359E+0	1.262350E+0	1.292965E+0	1.245620E+0	1.219500E+0	1.184222E+0	1.208476E+0	1.238102E+0	1.264065E+0	1.189243E+0	1.231385E+0	1.217177E+0	1.186610E+0	1.187953E+0	1.187406E+0	1.230418E+0	1.214769E+0	1.190257E+0	1.189768E+0	1.194495E+0	1.259280E+0	1.238010E+0	1.237779E+0	1.196972E+0	1.187374E+0	1.295948E+0	1.237935E+0	1.223542E+0	1.183919E+0	1.222223E+0	1.268961E+0	1.246634E+0	1.221446E+0	1.210097E+0	1.186807E+0	1.263641E+0	1.247342E+0	1.237895E+0	1.215708E+0	1.172769E+0	1.241116E+0	1.202260E+0	1.213488E+0	1.243662E+0	1.188869E+0	1.235753E+0	1.206749E+0	1.180917E+0	1.211720E+0	1.223721E+0	1.240896E+0	1.227113E+0	1.229451E+0	1.203218E+0	1.241560E+0	1.189656E+0	1.218718E+0	1.182125E+0	1.252315E+0	1.215910E+0	1.232425E+0	1.209835E+0	1.280297E+0	1.219529E+0	1.266243E+0	1.255856E+0	1.261014E+0	1.224409E+0	1.277698E+0	1.183771E+0	1.268593E+0	1.277558E+0	1.249244E+0	1.233739E+0	1.284488E+0	1.182109E+0	1.200737E+0	1.206238E+0	1.237431E+0	1.225875E+0	1.184250E+0	1.184266E+0	1.219778E+0	1.237001E+0	1.239218E+0	1.259168E+0	1.222185E+0	1.237649E+0	1.246471E+0	1.251264E+0	1.211773E+0	1.215045E+0	1.234810E+0	1.196496E+0	1.233344E+0	1.171922E+0	1.233462E+0	1.259244E+0	1.221523E+0	1.194214E+0	1.229708E+0	1.225838E+0	1.176447E+0	1.162946E+0	1.220757E+0
5.435220E+2	1.434974E+0	1.320270E+0	1.353022E+0	1.339174E+0	1.391118E+0	1.303848E+0	1.378092E+0	1.372694E+0	1.360274E+0	1.352782E+0	1.363023E+0	1.337117E+0	1.355462E+0	1.311870E+0	1.341905E+0	1.372061E+0	1.399483E+0	1.353470E+0	1.375320E+0	1.355333E+0	1.349014E+0	1.348002E+0	1.366218E+0	1.348730E+0	1.337139E+0	1.283174E+0	1.366807E+0	1.361438E+0	1.364795E+0	1.359985E+0	1.366677E+0	1.343235E+0	1.368446E+0	1.392268E+0	1.401124E+0	1.402884E+0	1.387841E+0	1.325618E+0	1.436763E+0	1.376153E+0	1.375213E+0	1.381883E+0	1.386345E+0	1.350997E+0	1.402178E+0	1.363925E+0	1.387066E+0	1.346222E+0	1.378674E+0	1.405562E+0	1.319677E+0	1.355516E+0	1.325878E+0	1.364371E+0	1.397109E+0	1.365817E+0	1.370127E+0	1.352572E+0	1.342720E+0	1.369539E+0	1.319385E+0	1.308405E+0	1.322677E+0	1.379046E+0	1.385870E+0	1.374909E+0	1.396920E+0	1.313795E+0	1.386170E+0	1.373657E+0	1.377452E+0	1.346362E+0	1.367103E+0	1.407422E+0	1.383018E+0	1.460800E+0	1.358932E+0	1.347246E+0	1.359412E+0	1.352644E+0	1.352137E+0	1.362241E+0	1.367615E+0	1.405330E+0	1.354493E+0	1.318725E+0	1.355225E+0	1.357223E+0	1.354775E+0	1.376409E+0	1.340611E+0	1.358597E+0	1.357197E+0	1.329054E+0	1.331818E+0	1.330154E+0	1.372371E+0	1.321055E+0	1.351903E+0	1.338881E+0	1.386185E+0	1.396419E+0	1.380783E+0	1.382677E+0	1.404270E+0	1.321098E+0	1.390639E+0	1.315012E+0	1.351303E+0	1.359015E+0	1.325792E+0	1.387448E+0	1.370918E+0	1.273147E+0	1.358877E+0	1.393917E+0	1.383950E+0	1.358588E+0	1.370039E+0	1.314432E+0	1.315380E+0	1.327007E+0	1.335412E+0	1.314984E+0	1.366539E+0	1.320781E+0	1.359388E+0	1.281212E+0	1.413466E+0	1.344009E+0	1.407204E+0	1.358862E+0	1.386659E+0	1.334171E+0	1.328502E+0	1.397069E+0	1.339565E+0	1.353568E+0	1.293629E+0	1.375478E+0	1.363104E+0	1.303944E+0	1.367391E+0	1.323894E+0	1.376370E+0	1.347103E+0	1.358983E+0	1.352419E+0	1.352420E+0	1.347195E+0	1.393730E+0	1.420599E+0	1.293659E+0	1.386995E+0	1.311321E+0	1.357204E+0	1.358546E+0	1.297782E+0	1.334427E+0	1.298053E+0	1.313055E+0	1.322080E+0	1.340905E+0	1.351126E+0	1.340151E+0	1.369550E+0	1.360084E+0	1.345588E+0	1.254616E+0	1.329864E+0	1.294903E+0
5.437590E+2	1.500388E+0	1.443718E+0	1.468118E+0	1.433196E+0	1.463655E+0	1.501761E+0	1.448513E+0	1.487328E+0	1.394102E+0	1.483875E+0	1.426660E+0	1.483049E+0	1.459576E+0	1.483325E+0	1.425165E+0	1.503766E+0	1.547372E+0	1.413706E+0	1.400678E+0	1.393618E+0	1.445547E+0	1.457145E+0	1.505834E+0	1.539004E+0	1.523081E+0	1.502393E+0	1.478553E+0	1.431870E+0	1.430418E+0	1.443646E+0	1.416705E+0	1.481814E+0	1.507716E+0	1.470219E+0	1.495640E+0	1.462214E+0	1.499173E+0	1.443867E+0	1.437895E+0	1.403346E+0	1.405150E+0	1.447328E+0	1.497173E+0	1.483634E+0	1.472357E+0	1.465243E+0	1.505609E+0	1.433827E+0	1.477282E+0	1.488399E+0	1.459675E+0	1.467213E+0	1.471245E+0	1.452683E+0	1.513130E+0	1.493604E+0	1.478325E+0	1.481111E+0	1.473852E+0	1.507253E+0	1.410257E+0	1.443603E+0	1.443005E+0	1.479088E+0	1.487681E+0	1.422715E+0	1.469283E+0	1.440757E+0	1.473549E+0	1.448886E+0	1.452701E+0	1.482918E+0	1.460082E+0	1.442768E+0	1.481326E+0	1.503583E+0	1.505818E+0	1.452778E+0	1.462471E+0	1.462021E+0	1.489947E+0	1.421923E+0	1.443630E+0	1.419714E+0	1.419352E+0	1.432418E+0	1.474059E+0	1.465657E+0	1.530402E+0	1.445645E+0	1.467196E+0	1.435172E+0	1.508696E+0	1.458129E+0	1.453656E+0	1.440618E+0	1.481190E+0	1.498705E+0	1.453321E+0	1.478970E+0	1.440534E+0	1.449750E+0	1.456698E+0	1.417483E+0	1.412517E+0	1.445188E+0	1.499462E+0	1.486679E+0	1.475532E+0	1.474533E+0	1.476992E+0	1.506605E+0	1.457595E+0	1.423475E+0	1.438265E+0	1.408148E+0	1.415376E+0	1.452310E+0	1.452389E+0	1.436155E+0	1.443694E+0	1.447852E+0	1.386106E+0	1.459256E+0	1.446321E+0	1.432545E+0	1.436645E+0	1.432933E+0	1.544117E+0	1.427870E+0	1.513398E+0	1.469719E+0	1.480102E+0	1.437892E+0	1.463790E+0	1.441022E+0	1.473956E+0	1.444972E+0	1.444783E+0	1.395494E+0	1.483726E+0	1.462063E+0	1.435957E+0	1.356192E+0	1.411418E+0	1.441825E+0	1.441019E+0	1.417282E+0	1.446147E+0	1.405701E+0	1.454899E+0	1.456970E+0	1.416076E+0	1.499988E+0	1.443833E+0	1.426410E+0	1.425553E+0	1.435721E+0	1.432347E+0	1.434253E+0	1.480861E+0	1.469291E+0	1.464365E+0	1.418205E+0	1.452272E+0	1.447333E+0	1.424597E+0	1.355367E+0	1.450201E+0	1.410923E+0	1.315611E+0
5.440120E+2	1.583531E+0	1.548808E+0	1.542360E+0	1.457729E+0	1.548236E+0	1.539231E+0	1.501392E+0	1.486035E+0	1.510610E+0	1.571146E+0	1.527168E+0	1.537499E+0	1.517523E+0	1.499973E+0	1.513892E+0	1.553319E+0	1.532491E+0	1.476323E+0	1.521707E+0	1.439323E+0	1.543898E+0	1.469013E+0	1.517096E+0	1.503211E+0	1.516960E+0	1.454055E+0	1.507220E+0	1.488326E+0	1.486390E+0	1.442526E+0	1.467016E+0	1.455193E+0	1.533618E+0	1.530174E+0	1.505859E+0	1.476115E+0	1.533128E+0	1.458497E+0	1.510215E+0	1.476929E+0	1.511363E+0	1.430947E+0	1.525092E+0	1.476956E+0	1.489223E+0	1.509872E+0	1.455204E+0	1.499922E+0	1.512865E+0	1.492110E+0	1.438498E+0	1.553893E+0	1.501043E+0	1.473750E+0	1.586573E+0	1.481301E+0	1.466737E+0	1.549396E+0	1.541446E+0	1.562711E+0	1.476636E+0	1.487345E+0	1.462225E+0	1.506429E+0	1.437243E+0	1.485100E+0	1.519725E+0	1.432669E+0	1.515224E+0	1.480632E+0	1.522712E+0	1.464865E+0	1.519363E+0	1.469673E+0	1.536948E+0	1.571286E+0	1.514127E+0	1.475299E+0	1.477641E+0	1.496070E+0	1.516136E+0	1.480331E+0	1.472836E+0	1.524121E+0	1.484646E+0	1.470056E+0	1.511614E+0	1.453270E+0	1.478030E+0	1.481761E+0	1.504328E+0	1.587923E+0	1.497098E+0	1.508903E+0	1.481662E+0	1.527258E+0	1.516594E+0	1.528526E+0	1.495059E+0	1.477396E+0	1.484158E+0	1.491881E+0	1.498578E+0	1.542934E+0	1.524409E+0	1.470456E+0	1.491614E+0	1.425684E+0	1.477890E+0	1.491597E+0	1.470163E+0	1.526750E+0	1.497811E+0	1.464825E+0	1.466063E+0	1.503432E+0	1.505815E+0	1.498235E+0	1.434222E+0	1.483667E+0	1.448373E+0	1.463103E+0	1.482358E+0	1.489433E+0	1.502810E+0	1.500896E+0	1.490459E+0	1.438513E+0	1.515292E+0	1.471122E+0	1.524017E+0	1.498002E+0	1.512195E+0	1.498645E+0	1.473606E+0	1.496165E+0	1.440934E+0	1.489218E+0	1.437930E+0	1.529817E+0	1.471715E+0	1.546118E+0	1.420006E+0	1.438762E+0	1.433143E+0	1.463635E+0	1.463522E+0	1.487931E+0	1.498315E+0	1.481366E+0	1.509341E+0	1.525730E+0	1.444379E+0	1.465376E+0	1.479527E+0	1.477878E+0	1.488509E+0	1.478503E+0	1.476415E+0	1.407994E+0	1.483987E+0	1.474569E+0	1.507909E+0	1.516324E+0	1.464965E+0	1.518590E+0	1.458717E+0	1.476820E+0	1.380321E+0	1.537602E+0	1.540299E+0
5.442700E+2	1.564731E+0	1.502287E+0	1.528600E+0	1.563443E+0	1.527902E+0	1.525794E+0	1.566385E+0	1.550801E+0	1.521440E+0	1.504622E+0	1.519261E+0	1.601365E+0	1.548634E+0	1.581434E+0	1.524143E+0	1.553214E+0	1.547007E+0	1.502082E+0	1.489937E+0	1.521353E+0	1.524055E+0	1.508777E+0	1.527120E+0	1.437076E+0	1.515478E+0	1.568729E+0	1.535845E+0	1.549607E+0	1.547164E+0	1.504155E+0	1.464946E+0	1.493375E+0	1.499798E+0	1.535260E+0	1.491695E+0	1.547584E+0	1.510075E+0	1.484701E+0	1.593320E+0	1.523547E+0	1.522987E+0	1.571778E+0	1.517980E+0	1.546841E+0	1.509990E+0	1.522094E+0	1.507782E+0	1.468620E+0	1.576196E+0	1.535611E+0	1.490400E+0	1.537079E+0	1.493850E+0	1.532602E+0	1.533601E+0	1.530922E+0	1.459973E+0	1.493098E+0	1.573851E+0	1.589052E+0	1.486154E+0	1.490267E+0	1.469934E+0	1.526890E+0	1.525583E+0	1.503874E+0	1.497712E+0	1.470134E+0	1.525410E+0	1.520304E+0	1.530470E+0	1.486065E+0	1.562579E+0	1.523852E+0	1.527794E+0	1.577923E+0	1.515974E+0	1.477299E+0	1.498397E+0	1.531972E+0	1.510898E+0	1.475501E+0	1.501390E+0	1.524552E+0	1.519171E+0	1.516418E+0	1.473002E+0	1.520380E+0	1.507187E+0	1.512746E+0	1.534671E+0	1.526676E+0	1.534695E+0	1.525955E+0	1.537454E+0	1.560727E+0	1.536160E+0	1.535768E+0	1.523402E+0	1.530331E+0	1.478581E+0	1.518961E+0	1.547863E+0	1.480815E+0	1.515012E+0	1.501733E+0	1.544097E+0	1.489751E+0	1.502906E+0	1.486446E+0	1.501040E+0	1.562520E+0	1.505811E+0	1.474833E+0	1.451609E+0	1.488034E+0	1.530260E+0	1.555887E+0	1.529513E+0	1.499176E+0	1.513719E+0	1.490669E+0	1.505307E+0	1.501563E+0	1.558834E+0	1.507544E+0	1.496215E+0	1.525999E+0	1.549473E+0	1.534180E+0	1.504448E+0	1.544872E+0	1.526686E+0	1.491158E+0	1.501056E+0	1.510959E+0	1.514847E+0	1.467853E+0	1.489150E+0	1.542758E+0	1.529819E+0	1.514049E+0	1.491878E+0	1.477790E+0	1.467142E+0	1.457296E+0	1.534684E+0	1.469827E+0	1.509159E+0	1.449315E+0	1.572680E+0	1.531457E+0	1.488275E+0	1.531544E+0	1.497100E+0	1.536379E+0	1.515149E+0	1.528413E+0	1.548049E+0	1.470255E+0	1.551521E+0	1.516127E+0	1.440222E+0	1.567382E+0	1.453109E+0	1.520152E+0	1.568076E+0	1.482244E+0	1.403081E+0	1.530455E+0	1.532664E+0
5.445240E+2	1.534556E+0	1.527859E+0	1.594719E+0	1.538080E+0	1.496128E+0	1.543565E+0	1.551479E+0	1.502416E+0	1.492127E+0	1.534863E+0	1.542233E+0	1.520819E+0	1.522383E+0	1.527804E+0	1.540768E+0	1.537815E+0	1.495108E+0	1.454054E+0	1.502556E+0	1.539151E+0	1.487516E+0	1.484598E+0	1.555463E+0	1.503017E+0	1.433010E+0	1.428022E+0	1.509687E+0	1.458527E+0	1.549857E+0	1.504548E+0	1.527621E+0	1.527379E+0	1.492405E+0	1.586694E+0	1.529932E+0	1.465756E+0	1.510859E+0	1.498791E+0	1.591126E+0	1.543895E+0	1.517039E+0	1.551189E+0	1.495521E+0	1.499386E+0	1.504607E+0	1.529472E+0	1.535987E+0	1.500834E+0	1.475259E+0	1.540052E+0	1.478235E+0	1.527355E+0	1.502356E+0	1.480176E+0	1.594749E+0	1.523293E+0	1.516325E+0	1.513192E+0	1.511716E+0	1.577411E+0	1.493648E+0	1.498107E+0	1.426395E+0	1.538757E+0	1.550322E+0	1.514304E+0	1.512167E+0	1.471193E+0	1.485756E+0	1.473121E+0	1.538370E+0	1.484972E+0	1.536591E+0	1.487655E+0	1.498120E+0	1.560432E+0	1.501689E+0	1.502216E+0	1.524225E+0	1.470221E+0	1.520564E+0	1.456705E+0	1.507607E+0	1.503215E+0	1.528548E+0	1.526022E+0	1.540453E+0	1.494238E+0	1.513137E+0	1.430479E+0	1.505798E+0	1.472889E+0	1.485641E+0	1.506463E+0	1.486032E+0	1.499166E+0	1.556693E+0	1.468218E+0	1.542669E+0	1.493350E+0	1.501891E+0	1.502944E+0	1.558798E+0	1.526224E+0	1.517388E+0	1.472670E+0	1.508329E+0	1.463390E+0	1.471202E+0	1.501790E+0	1.513702E+0	1.523770E+0	1.451645E+0	1.430909E+0	1.501317E+0	1.519116E+0	1.435683E+0	1.522323E+0	1.515456E+0	1.495821E+0	1.499258E+0	1.523315E+0	1.508953E+0	1.490093E+0	1.439576E+0	1.543170E+0	1.442622E+0	1.465931E+0	1.537693E+0	1.530350E+0	1.549994E+0	1.547875E+0	1.512008E+0	1.514846E+0	1.492744E+0	1.490467E+0	1.537358E+0	1.482859E+0	1.537008E+0	1.548814E+0	1.503589E+0	1.518646E+0	1.453326E+0	1.455376E+0	1.467875E+0	1.503362E+0	1.490018E+0	1.527190E+0	1.548883E+0	1.522139E+0	1.471009E+0	1.570366E+0	1.463631E+0	1.502917E+0	1.477109E+0	1.502821E+0	1.457560E+0	1.540094E+0	1.466330E+0	1.456437E+0	1.498950E+0	1.482426E+0	1.500583E+0	1.442668E+0	1.459599E+0	1.476698E+0	1.585524E+0	1.478400E+0	1.494710E+0	1.561468E+0	1.554934E+0
5.447720E+2	1.520763E+0	1.456462E+0	1.479570E+0	1.487620E+0	1.462496E+0	1.504629E+0	1.506941E+0	1.502071E+0	1.433891E+0	1.471710E+0	1.533501E+0	1.494360E+0	1.443244E+0	1.480175E+0	1.521913E+0	1.497098E+0	1.489129E+0	1.450760E+0	1.495495E+0	1.452598E+0	1.463917E+0	1.444103E+0	1.526112E+0	1.458254E+0	1.439055E+0	1.425246E+0	1.524539E+0	1.472351E+0	1.436887E+0	1.464842E+0	1.419306E+0	1.476916E+0	1.505601E+0	1.492601E+0	1.478735E+0	1.425626E+0	1.488938E+0	1.426089E+0	1.483164E+0	1.498318E+0	1.455224E+0	1.460414E+0	1.480375E+0	1.481653E+0	1.456884E+0	1.415758E+0	1.479809E+0	1.417160E+0	1.462950E+0	1.495393E+0	1.402877E+0	1.532789E+0	1.422248E+0	1.521716E+0	1.456139E+0	1.457652E+0	1.477807E+0	1.461814E+0	1.539541E+0	1.591676E+0	1.409866E+0	1.445860E+0	1.438105E+0	1.426049E+0	1.509835E+0	1.466435E+0	1.454153E+0	1.453712E+0	1.437092E+0	1.469449E+0	1.456838E+0	1.404826E+0	1.434154E+0	1.492960E+0	1.505216E+0	1.529076E+0	1.496148E+0	1.504891E+0	1.464417E+0	1.457949E+0	1.441721E+0	1.511105E+0	1.463129E+0	1.486318E+0	1.490156E+0	1.481120E+0	1.464000E+0	1.483544E+0	1.470698E+0	1.484223E+0	1.429540E+0	1.420934E+0	1.432963E+0	1.460296E+0	1.418074E+0	1.455804E+0	1.492089E+0	1.477444E+0	1.492933E+0	1.484503E+0	1.477632E+0	1.424348E+0	1.498360E+0	1.493608E+0	1.430157E+0	1.470547E+0	1.456825E+0	1.474760E+0	1.437656E+0	1.473303E+0	1.454273E+0	1.490676E+0	1.441271E+0	1.413639E+0	1.442544E+0	1.407378E+0	1.417833E+0	1.470226E+0	1.454518E+0	1.476174E+0	1.504351E+0	1.410491E+0	1.415709E+0	1.415061E+0	1.463242E+0	1.415762E+0	1.431649E+0	1.450391E+0	1.492486E+0	1.446986E+0	1.527432E+0	1.450691E+0	1.523904E+0	1.401003E+0	1.499018E+0	1.465953E+0	1.428037E+0	1.488589E+0	1.494434E+0	1.494003E+0	1.436608E+0	1.450221E+0	1.412863E+0	1.431901E+0	1.419846E+0	1.414915E+0	1.425138E+0	1.499603E+0	1.422297E+0	1.458531E+0	1.550029E+0	1.470507E+0	1.441523E+0	1.504443E+0	1.413013E+0	1.446623E+0	1.459855E+0	1.450489E+0	1.418825E+0	1.472243E+0	1.411653E+0	1.415613E+0	1.484588E+0	1.433579E+0	1.411476E+0	1.444810E+0	1.451881E+0	1.410171E+0	1.409229E+0	1.430137E+0	1.458252E+0
5.450200E+2	1.418491E+0	1.424266E+0	1.373225E+0	1.464702E+0	1.341272E+0	1.377312E+0	1.416316E+0	1.461073E+0	1.372716E+0	1.441268E+0	1.377131E+0	1.438708E+0	1.418160E+0	1.392720E+0	1.424311E+0	1.407334E+0	1.401841E+0	1.351039E+0	1.412402E+0	1.463943E+0	1.418120E+0	1.378912E+0	1.458583E+0	1.385651E+0	1.401072E+0	1.411468E+0	1.391823E+0	1.411101E+0	1.382914E+0	1.349317E+0	1.340347E+0	1.391038E+0	1.388906E+0	1.467047E+0	1.381855E+0	1.449057E+0	1.372369E+0	1.390508E+0	1.446418E+0	1.414165E+0	1.415151E+0	1.414634E+0	1.374313E+0	1.384348E+0	1.388727E+0	1.424334E+0	1.387251E+0	1.391307E+0	1.415964E+0	1.435092E+0	1.424047E+0	1.439249E+0	1.340698E+0	1.425431E+0	1.444566E+0	1.433224E+0	1.409131E+0	1.420335E+0	1.412441E+0	1.448480E+0	1.398078E+0	1.381551E+0	1.345111E+0	1.369523E+0	1.416544E+0	1.389172E+0	1.421207E+0	1.421027E+0	1.352396E+0	1.388602E+0	1.366716E+0	1.361967E+0	1.377337E+0	1.434783E+0	1.473016E+0	1.448376E+0	1.388603E+0	1.383948E+0	1.383453E+0	1.353027E+0	1.419517E+0	1.354301E+0	1.402141E+0	1.417769E+0	1.393016E+0	1.398890E+0	1.437417E+0	1.440586E+0	1.430837E+0	1.403590E+0	1.369505E+0	1.423824E+0	1.421976E+0	1.431639E+0	1.359165E+0	1.399648E+0	1.454343E+0	1.436236E+0	1.427382E+0	1.463440E+0	1.358446E+0	1.400204E+0	1.436583E+0	1.448520E+0	1.402998E+0	1.420194E+0	1.356726E+0	1.408230E+0	1.405779E+0	1.406772E+0	1.394036E+0	1.435075E+0	1.421364E+0	1.379841E+0	1.375869E+0	1.436976E+0	1.323917E+0	1.454597E+0	1.397293E+0	1.414057E+0	1.432179E+0	1.390843E+0	1.376015E+0	1.385607E+0	1.344810E+0	1.389281E+0	1.377656E+0	1.362971E+0	1.454138E+0	1.394254E+0	1.467248E+0	1.431535E+0	1.424764E+0	1.370607E+0	1.370753E+0	1.311696E+0	1.357461E+0	1.416991E+0	1.439348E+0	1.401028E+0	1.417874E+0	1.383844E+0	1.374095E+0	1.355208E+0	1.394080E+0	1.373094E+0	1.418449E+0	1.461739E+0	1.357714E+0	1.381924E+0	1.452594E+0	1.370864E+0	1.360813E+0	1.409053E+0	1.448887E+0	1.438407E+0	1.356150E+0	1.421621E+0	1.382135E+0	1.399799E+0	1.442948E+0	1.357631E+0	1.369730E+0	1.379680E+0	1.389457E+0	1.371100E+0	1.424332E+0	1.403792E+0	1.314159E+0	1.451600E+0	1.435735E+0
5.452690E+2	1.354290E+0	1.369715E+0	1.294917E+0	1.265762E+0	1.327641E+0	1.318456E+0	1.322816E+0	1.341583E+0	1.309665E+0	1.360841E+0	1.315153E+0	1.326169E+0	1.308769E+0	1.320778E+0	1.365739E+0	1.354222E+0	1.354200E+0	1.290041E+0	1.353878E+0	1.295886E+0	1.310834E+0	1.302749E+0	1.351229E+0	1.334690E+0	1.309849E+0	1.315666E+0	1.311289E+0	1.297189E+0	1.316039E+0	1.302564E+0	1.323302E+0	1.354959E+0	1.314545E+0	1.380466E+0	1.338796E+0	1.337635E+0	1.316301E+0	1.264548E+0	1.390964E+0	1.344818E+0	1.272657E+0	1.313340E+0	1.350578E+0	1.299875E+0	1.270226E+0	1.299252E+0	1.324758E+0	1.241755E+0	1.364733E+0	1.355998E+0	1.287022E+0	1.340016E+0	1.281774E+0	1.309553E+0	1.385938E+0	1.339353E+0	1.308780E+0	1.342830E+0	1.351086E+0	1.316904E+0	1.264195E+0	1.310540E+0	1.298880E+0	1.278858E+0	1.327663E+0	1.320393E+0	1.258794E+0	1.300411E+0	1.317139E+0	1.317874E+0	1.357017E+0	1.289887E+0	1.286638E+0	1.332361E+0	1.307130E+0	1.342504E+0	1.311976E+0	1.299017E+0	1.323518E+0	1.361514E+0	1.327500E+0	1.358677E+0	1.373976E+0	1.309178E+0	1.318908E+0	1.332180E+0	1.284774E+0	1.283360E+0	1.349846E+0	1.291413E+0	1.327119E+0	1.336270E+0	1.251977E+0	1.283174E+0	1.285619E+0	1.313589E+0	1.279053E+0	1.369959E+0	1.282238E+0	1.332770E+0	1.270830E+0	1.334816E+0	1.364544E+0	1.345772E+0	1.270605E+0	1.341264E+0	1.339581E+0	1.284948E+0	1.258278E+0	1.258727E+0	1.292545E+0	1.324391E+0	1.341551E+0	1.318390E+0	1.291719E+0	1.305987E+0	1.277771E+0	1.313367E+0	1.312440E+0	1.343349E+0	1.292373E+0	1.313649E+0	1.318694E+0	1.323532E+0	1.326309E+0	1.272204E+0	1.306605E+0	1.268979E+0	1.409390E+0	1.399324E+0	1.336826E+0	1.358198E+0	1.312181E+0	1.359301E+0	1.290080E+0	1.272476E+0	1.278605E+0	1.319227E+0	1.336035E+0	1.354908E+0	1.321083E+0	1.348975E+0	1.273732E+0	1.308610E+0	1.261834E+0	1.297105E+0	1.286108E+0	1.338616E+0	1.311684E+0	1.356189E+0	1.361646E+0	1.319658E+0	1.316177E+0	1.347713E+0	1.307062E+0	1.295626E+0	1.305450E+0	1.339003E+0	1.344571E+0	1.303933E+0	1.303896E+0	1.309720E+0	1.301684E+0	1.284282E+0	1.344824E+0	1.315557E+0	1.301225E+0	1.317548E+0	1.252901E+0	1.309208E+0	1.195785E+0
5.455340E+2	1.226029E+0	1.253366E+0	1.240564E+0	1.270416E+0	1.203162E+0	1.243392E+0	1.195433E+0	1.239909E+0	1.214257E+0	1.247180E+0	1.283862E+0	1.231477E+0	1.237244E+0	1.279713E+0	1.208911E+0	1.272723E+0	1.289576E+0	1.199569E+0	1.229295E+0	1.232653E+0	1.246517E+0	1.235626E+0	1.302773E+0	1.240893E+0	1.211521E+0	1.223731E+0	1.244891E+0	1.210487E+0	1.235611E+0	1.185885E+0	1.238699E+0	1.284482E+0	1.258837E+0	1.248992E+0	1.293198E+0	1.295571E+0	1.259204E+0	1.249635E+0	1.297695E+0	1.222240E+0	1.232337E+0	1.314489E+0	1.257038E+0	1.185514E+0	1.219372E+0	1.272978E+0	1.271271E+0	1.269077E+0	1.298090E+0	1.287262E+0	1.192743E+0	1.217485E+0	1.268576E+0	1.288715E+0	1.282317E+0	1.249278E+0	1.207363E+0	1.232604E+0	1.294040E+0	1.264078E+0	1.225063E+0	1.225274E+0	1.244103E+0	1.268291E+0	1.257417E+0	1.201197E+0	1.265239E+0	1.245188E+0	1.221740E+0	1.294179E+0	1.253215E+0	1.209829E+0	1.213023E+0	1.268550E+0	1.244765E+0	1.286562E+0	1.250217E+0	1.209856E+0	1.250879E+0	1.225875E+0	1.280161E+0	1.302077E+0	1.273910E+0	1.204395E+0	1.232466E+0	1.296799E+0	1.246829E+0	1.242885E+0	1.249897E+0	1.259722E+0	1.277367E+0	1.250550E+0	1.237575E+0	1.253373E+0	1.285743E+0	1.255163E+0	1.217416E+0	1.289191E+0	1.251212E+0	1.273818E+0	1.258582E+0	1.286744E+0	1.255031E+0	1.239343E+0	1.237694E+0	1.229946E+0	1.214022E+0	1.235131E+0	1.242428E+0	1.252347E+0	1.245202E+0	1.273077E+0	1.212495E+0	1.215301E+0	1.250990E+0	1.234474E+0	1.244454E+0	1.261766E+0	1.259205E+0	1.213016E+0	1.210510E+0	1.264746E+0	1.237653E+0	1.226903E+0	1.247713E+0	1.264089E+0	1.214239E+0	1.270945E+0	1.302511E+0	1.286542E+0	1.298730E+0	1.295778E+0	1.254569E+0	1.282447E+0	1.253180E+0	1.278862E+0	1.232048E+0	1.205301E+0	1.215462E+0	1.252041E+0	1.249093E+0	1.245870E+0	1.207148E+0	1.217887E+0	1.261528E+0	1.294735E+0	1.235476E+0	1.273043E+0	1.294233E+0	1.231788E+0	1.259659E+0	1.277851E+0	1.232418E+0	1.229485E+0	1.217802E+0	1.272582E+0	1.236161E+0	1.272879E+0	1.221086E+0	1.195742E+0	1.218829E+0	1.232653E+0	1.236170E+0	1.186233E+0	1.238279E+0	1.273677E+0	1.290127E+0	1.266569E+0	1.158770E+0	1.195834E+0	1.124189E+0
5.457720E+2	1.165353E+0	1.235828E+0	1.210963E+0	1.242410E+0	1.155880E+0	1.182339E+0	1.138771E+0	1.218294E+0	1.149488E+0	1.208867E+0	1.188298E+0	1.185939E+0	1.215531E+0	1.154859E+0	1.196792E+0	1.185362E+0	1.196610E+0	1.167261E+0	1.195097E+0	1.235188E+0	1.141001E+0	1.174237E+0	1.221823E+0	1.212126E+0	1.168500E+0	1.185777E+0	1.224984E+0	1.222622E+0	1.169531E+0	1.175587E+0	1.164938E+0	1.218719E+0	1.165335E+0	1.262014E+0	1.202048E+0	1.225423E+0	1.156552E+0	1.152376E+0	1.201633E+0	1.183731E+0	1.154924E+0	1.216852E+0	1.214040E+0	1.189611E+0	1.175334E+0	1.165853E+0	1.212874E+0	1.180532E+0	1.224667E+0	1.174749E+0	1.200635E+0	1.183525E+0	1.197281E+0	1.213716E+0	1.243570E+0	1.251837E+0	1.201342E+0	1.176778E+0	1.210127E+0	1.227660E+0	1.151825E+0	1.160345E+0	1.145045E+0	1.191726E+0	1.210712E+0	1.173169E+0	1.141003E+0	1.206242E+0	1.180493E+0	1.229473E+0	1.199258E+0	1.186540E+0	1.181948E+0	1.250792E+0	1.184159E+0	1.161956E+0	1.180355E+0	1.198636E+0	1.206109E+0	1.239824E+0	1.207724E+0	1.154279E+0	1.182893E+0	1.174160E+0	1.160130E+0	1.181195E+0	1.167934E+0	1.210095E+0	1.157757E+0	1.230562E+0	1.187658E+0	1.164559E+0	1.159703E+0	1.198948E+0	1.167782E+0	1.166102E+0	1.224964E+0	1.219890E+0	1.219523E+0	1.167012E+0	1.165095E+0	1.209676E+0	1.211353E+0	1.229082E+0	1.160560E+0	1.214160E+0	1.179240E+0	1.194296E+0	1.191646E+0	1.154354E+0	1.216082E+0	1.242739E+0	1.177907E+0	1.180769E+0	1.181641E+0	1.172012E+0	1.187713E+0	1.171486E+0	1.203934E+0	1.238331E+0	1.186143E+0	1.185239E+0	1.205849E+0	1.198308E+0	1.193889E+0	1.189737E+0	1.169577E+0	1.195087E+0	1.252363E+0	1.184509E+0	1.208707E+0	1.191151E+0	1.205797E+0	1.187050E+0	1.159483E+0	1.161349E+0	1.190893E+0	1.195570E+0	1.172972E+0	1.154181E+0	1.222713E+0	1.124476E+0	1.166512E+0	1.179708E+0	1.126075E+0	1.146795E+0	1.120094E+0	1.176093E+0	1.201271E+0	1.216220E+0	1.285047E+0	1.202631E+0	1.142524E+0	1.196499E+0	1.175588E+0	1.171749E+0	1.154202E+0	1.242043E+0	1.216773E+0	1.201177E+0	1.193077E+0	1.201377E+0	1.148953E+0	1.180430E+0	1.185773E+0	1.186049E+0	1.214810E+0	1.154462E+0	1.097361E+0	1.173071E+0	1.150956E+0
5.460160E+2	1.140709E+0	1.156118E+0	1.149451E+0	1.152660E+0	1.141147E+0	1.168901E+0	1.182304E+0	1.182983E+0	1.106108E+0	1.191871E+0	1.140337E+0	1.193443E+0	1.197058E+0	1.164960E+0	1.147974E+0	1.155611E+0	1.192179E+0	1.164238E+0	1.211460E+0	1.156727E+0	1.177824E+0	1.158696E+0	1.211214E+0	1.135198E+0	1.198562E+0	1.172539E+0	1.206518E+0	1.179433E+0	1.147847E+0	1.144731E+0	1.156636E+0	1.164883E+0	1.217206E+0	1.175848E+0	1.130831E+0	1.226817E+0	1.159697E+0	1.111301E+0	1.210200E+0	1.150309E+0	1.225163E+0	1.204945E+0	1.184018E+0	1.135095E+0	1.212738E+0	1.191272E+0	1.171676E+0	1.140522E+0	1.187193E+0	1.201755E+0	1.164948E+0	1.152151E+0	1.176848E+0	1.186427E+0	1.227921E+0	1.165957E+0	1.095907E+0	1.156341E+0	1.199684E+0	1.197487E+0	1.196648E+0	1.161156E+0	1.113529E+0	1.224184E+0	1.165217E+0	1.153952E+0	1.200166E+0	1.168569E+0	1.154993E+0	1.181693E+0	1.205703E+0	1.192883E+0	1.146123E+0	1.204905E+0	1.164050E+0	1.179143E+0	1.215632E+0	1.136068E+0	1.164401E+0	1.150146E+0	1.173095E+0	1.225824E+0	1.109984E+0	1.139574E+0	1.182866E+0	1.164076E+0	1.130828E+0	1.189980E+0	1.128267E+0	1.165916E+0	1.182180E+0	1.123686E+0	1.169336E+0	1.127198E+0	1.182191E+0	1.180156E+0	1.176012E+0	1.210721E+0	1.139017E+0	1.158716E+0	1.167089E+0	1.167482E+0	1.222845E+0	1.161291E+0	1.148357E+0	1.177395E+0	1.141198E+0	1.149151E+0	1.158100E+0	1.137213E+0	1.203219E+0	1.161760E+0	1.166989E+0	1.179430E+0	1.184573E+0	1.166907E+0	1.122650E+0	1.164806E+0	1.144049E+0	1.185917E+0	1.173819E+0	1.187645E+0	1.188861E+0	1.167591E+0	1.171702E+0	1.168096E+0	1.190897E+0	1.132011E+0	1.203614E+0	1.184852E+0	1.245731E+0	1.183434E+0	1.173522E+0	1.146975E+0	1.254735E+0	1.170116E+0	1.157705E+0	1.137022E+0	1.179245E+0	1.186449E+0	1.144083E+0	1.176442E+0	1.188424E+0	1.123162E+0	1.168308E+0	1.160362E+0	1.122752E+0	1.158974E+0	1.225839E+0	1.171315E+0	1.145619E+0	1.155645E+0	1.129744E+0	1.197239E+0	1.203201E+0	1.152585E+0	1.151237E+0	1.135326E+0	1.162984E+0	1.177993E+0	1.160673E+0	1.127507E+0	1.184935E+0	1.194450E+0	1.185406E+0	1.213786E+0	1.190425E+0	1.154532E+0	1.082539E+0	1.109629E+0	1.140686E+0
5.467660E+2	1.204156E+0	1.230402E+0	1.192331E+0	1.190737E+0	1.202008E+0	1.191763E+0	1.173986E+0	1.199571E+0	1.153386E+0	1.205571E+0	1.252822E+0	1.219811E+0	1.215990E+0	1.166218E+0	1.216968E+0	1.247051E+0	1.235669E+0	1.198944E+0	1.156336E+0	1.218514E+0	1.153766E+0	1.199396E+0	1.252218E+0	1.214129E+0	1.193726E+0	1.211403E+0	1.242225E+0	1.174021E+0	1.172887E+0	1.189439E+0	1.184124E+0	1.239170E+0	1.243147E+0	1.249471E+0	1.209538E+0	1.220829E+0	1.149566E+0	1.194025E+0	1.237512E+0	1.174794E+0	1.192742E+0	1.218700E+0	1.205901E+0	1.197672E+0	1.201543E+0	1.239976E+0	1.198846E+0	1.193148E+0	1.188219E+0	1.265277E+0	1.170469E+0	1.207216E+0	1.186967E+0	1.213867E+0	1.220626E+0	1.229523E+0	1.181568E+0	1.188090E+0	1.243215E+0	1.226911E+0	1.203535E+0	1.198446E+0	1.166597E+0	1.207899E+0	1.195397E+0	1.223927E+0	1.195464E+0	1.224830E+0	1.222771E+0	1.199556E+0	1.200369E+0	1.229249E+0	1.203915E+0	1.227419E+0	1.239198E+0	1.199517E+0	1.292838E+0	1.167042E+0	1.173261E+0	1.238925E+0	1.197456E+0	1.186227E+0	1.217378E+0	1.184645E+0	1.229188E+0	1.194278E+0	1.149738E+0	1.251307E+0	1.245823E+0	1.281020E+0	1.203754E+0	1.217155E+0	1.198730E+0	1.218849E+0	1.197221E+0	1.228717E+0	1.215488E+0	1.199548E+0	1.222564E+0	1.202141E+0	1.203121E+0	1.186595E+0	1.191364E+0	1.202112E+0	1.209315E+0	1.197100E+0	1.248375E+0	1.247416E+0	1.159735E+0	1.247704E+0	1.206045E+0	1.204904E+0	1.191415E+0	1.172811E+0	1.211470E+0	1.168328E+0	1.183638E+0	1.230170E+0	1.219123E+0	1.223527E+0	1.185513E+0	1.176803E+0	1.185847E+0	1.200481E+0	1.223462E+0	1.206598E+0	1.193782E+0	1.266635E+0	1.257335E+0	1.214980E+0	1.217189E+0	1.227920E+0	1.197375E+0	1.239784E+0	1.189669E+0	1.259354E+0	1.196483E+0	1.173688E+0	1.150165E+0	1.193069E+0	1.207955E+0	1.194970E+0	1.235697E+0	1.186022E+0	1.161384E+0	1.221961E+0	1.189808E+0	1.201490E+0	1.192730E+0	1.199775E+0	1.219984E+0	1.218483E+0	1.197804E+0	1.210505E+0	1.193493E+0	1.190418E+0	1.183596E+0	1.227952E+0	1.199319E+0	1.179733E+0	1.190224E+0	1.158391E+0	1.193254E+0	1.210431E+0	1.203619E+0	1.228608E+0	1.256499E+0	1.224593E+0	1.165075E+0	1.214521E+0	1.143464E+0
5.475070E+2	1.335605E+0	1.321887E+0	1.319445E+0	1.248329E+0	1.318347E+0	1.327612E+0	1.327596E+0	1.357084E+0	1.311803E+0	1.347728E+0	1.281233E+0	1.292807E+0	1.333603E+0	1.315726E+0	1.334599E+0	1.321330E+0	1.390661E+0	1.279675E+0	1.346317E+0	1.273756E+0	1.283019E+0	1.289522E+0	1.333683E+0	1.331626E+0	1.354170E+0	1.344042E+0	1.335399E+0	1.338625E+0	1.273874E+0	1.278706E+0	1.336278E+0	1.316851E+0	1.325304E+0	1.318933E+0	1.316693E+0	1.296509E+0	1.296507E+0	1.287283E+0	1.334263E+0	1.302352E+0	1.306473E+0	1.367870E+0	1.280345E+0	1.318906E+0	1.317117E+0	1.279352E+0	1.268131E+0	1.303293E+0	1.413464E+0	1.361476E+0	1.282377E+0	1.374888E+0	1.294353E+0	1.362477E+0	1.317114E+0	1.308264E+0	1.271738E+0	1.308759E+0	1.344634E+0	1.291398E+0	1.312084E+0	1.325385E+0	1.238125E+0	1.344007E+0	1.341455E+0	1.337474E+0	1.294437E+0	1.344386E+0	1.285768E+0	1.261917E+0	1.318233E+0	1.296520E+0	1.361498E+0	1.319795E+0	1.350923E+0	1.304008E+0	1.331568E+0	1.331268E+0	1.340599E+0	1.312838E+0	1.342892E+0	1.271973E+0	1.286699E+0	1.329190E+0	1.292213E+0	1.263697E+0	1.298542E+0	1.334666E+0	1.284080E+0	1.228135E+0	1.372483E+0	1.315543E+0	1.313787E+0	1.332615E+0	1.263392E+0	1.367230E+0	1.368396E+0	1.350330E+0	1.322494E+0	1.349150E+0	1.286274E+0	1.300257E+0	1.349946E+0	1.331599E+0	1.314089E+0	1.304828E+0	1.333685E+0	1.296978E+0	1.303342E+0	1.323280E+0	1.319115E+0	1.334257E+0	1.325768E+0	1.349126E+0	1.300791E+0	1.334482E+0	1.295960E+0	1.321977E+0	1.336799E+0	1.304547E+0	1.339289E+0	1.300794E+0	1.324825E+0	1.296111E+0	1.256266E+0	1.274049E+0	1.292078E+0	1.244368E+0	1.305957E+0	1.241276E+0	1.308122E+0	1.298102E+0	1.342911E+0	1.300017E+0	1.327750E+0	1.343275E+0	1.277812E+0	1.343748E+0	1.281633E+0	1.352595E+0	1.292178E+0	1.286961E+0	1.330812E+0	1.285770E+0	1.268456E+0	1.335873E+0	1.317474E+0	1.254459E+0	1.321509E+0	1.316191E+0	1.345777E+0	1.324135E+0	1.280755E+0	1.336349E+0	1.324963E+0	1.290239E+0	1.261520E+0	1.324521E+0	1.320578E+0	1.294352E+0	1.288037E+0	1.325395E+0	1.325737E+0	1.301161E+0	1.319709E+0	1.340855E+0	1.352967E+0	1.335409E+0	1.221792E+0	1.277079E+0	1.249545E+0
5.482600E+2	1.365688E+0	1.415666E+0	1.357553E+0	1.437289E+0	1.363580E+0	1.364671E+0	1.372186E+0	1.375322E+0	1.376737E+0	1.433241E+0	1.422816E+0	1.392647E+0	1.380677E+0	1.415020E+0	1.419062E+0	1.403606E+0	1.455439E+0	1.417765E+0	1.464396E+0	1.361850E+0	1.403243E+0	1.314013E+0	1.449076E+0	1.384112E+0	1.389296E+0	1.365096E+0	1.420867E+0	1.388568E+0	1.375208E+0	1.438585E+0	1.373571E+0	1.393558E+0	1.373655E+0	1.364884E+0	1.391896E+0	1.444702E+0	1.310714E+0	1.397272E+0	1.449808E+0	1.394620E+0	1.417778E+0	1.458449E+0	1.410001E+0	1.400312E+0	1.391049E+0	1.433785E+0	1.360841E+0	1.399431E+0	1.357703E+0	1.407428E+0	1.371675E+0	1.400617E+0	1.373300E+0	1.399740E+0	1.383491E+0	1.387458E+0	1.389728E+0	1.348727E+0	1.433589E+0	1.355351E+0	1.361951E+0	1.409708E+0	1.367703E+0	1.373052E+0	1.400759E+0	1.422758E+0	1.371934E+0	1.375567E+0	1.428005E+0	1.349083E+0	1.400937E+0	1.384105E+0	1.363936E+0	1.390531E+0	1.403161E+0	1.412923E+0	1.400339E+0	1.365585E+0	1.346880E+0	1.352929E+0	1.378202E+0	1.383050E+0	1.390843E+0	1.377508E+0	1.390578E+0	1.333659E+0	1.387924E+0	1.435391E+0	1.388873E+0	1.343748E+0	1.450544E+0	1.388282E+0	1.362933E+0	1.411946E+0	1.380300E+0	1.367491E+0	1.373800E+0	1.420307E+0	1.375190E+0	1.388824E+0	1.387497E+0	1.440253E+0	1.383870E+0	1.351262E+0	1.362562E+0	1.398787E+0	1.385741E+0	1.379712E+0	1.361007E+0	1.378848E+0	1.394779E+0	1.419439E+0	1.384519E+0	1.370766E+0	1.382592E+0	1.349902E+0	1.387650E+0	1.381077E+0	1.407426E+0	1.380024E+0	1.350420E+0	1.433589E+0	1.357629E+0	1.398154E+0	1.394767E+0	1.380900E+0	1.394466E+0	1.366481E+0	1.328969E+0	1.368253E+0	1.393590E+0	1.446971E+0	1.398670E+0	1.329187E+0	1.406146E+0	1.405255E+0	1.405414E+0	1.355676E+0	1.441328E+0	1.438692E+0	1.416309E+0	1.384920E+0	1.382912E+0	1.390129E+0	1.373137E+0	1.411398E+0	1.410315E+0	1.404338E+0	1.373312E+0	1.365643E+0	1.424586E+0	1.381989E+0	1.355162E+0	1.402933E+0	1.379378E+0	1.386072E+0	1.435548E+0	1.369022E+0	1.365726E+0	1.324972E+0	1.345886E+0	1.386593E+0	1.354382E+0	1.354917E+0	1.360439E+0	1.413372E+0	1.394618E+0	1.400421E+0	1.350485E+0	1.363444E+0	1.409134E+0
5.490320E+2	1.353227E+0	1.470307E+0	1.373464E+0	1.397128E+0	1.337226E+0	1.398861E+0	1.360198E+0	1.329442E+0	1.341976E+0	1.364264E+0	1.388917E+0	1.386711E+0	1.363348E+0	1.413985E+0	1.414508E+0	1.399994E+0	1.397685E+0	1.339384E+0	1.410629E+0	1.399189E+0	1.406557E+0	1.362593E+0	1.356760E+0	1.345181E+0	1.348596E+0	1.338305E+0	1.396007E+0	1.379993E+0	1.358659E+0	1.381340E+0	1.399414E+0	1.349573E+0	1.340180E+0	1.375341E+0	1.376614E+0	1.362723E+0	1.372364E+0	1.292721E+0	1.371231E+0	1.346923E+0	1.388752E+0	1.412291E+0	1.339207E+0	1.381578E+0	1.396673E+0	1.423727E+0	1.349388E+0	1.356417E+0	1.429190E+0	1.367929E+0	1.341816E+0	1.387414E+0	1.315317E+0	1.433113E+0	1.429677E+0	1.348051E+0	1.337050E+0	1.388797E+0	1.449030E+0	1.386437E+0	1.370815E+0	1.388581E+0	1.333496E+0	1.401752E+0	1.450436E+0	1.349344E+0	1.344026E+0	1.395587E+0	1.321156E+0	1.344295E+0	1.414262E+0	1.356931E+0	1.386200E+0	1.345462E+0	1.415376E+0	1.382344E+0	1.410820E+0	1.355906E+0	1.361961E+0	1.378166E+0	1.367723E+0	1.373935E+0	1.408328E+0	1.373541E+0	1.404941E+0	1.323730E+0	1.405548E+0	1.342896E+0	1.346072E+0	1.346809E+0	1.361304E+0	1.377785E+0	1.347417E+0	1.358300E+0	1.355126E+0	1.364566E+0	1.383495E+0	1.369926E+0	1.393190E+0	1.380215E+0	1.406504E+0	1.364635E+0	1.436456E+0	1.365028E+0	1.359737E+0	1.454507E+0	1.414271E+0	1.402573E+0	1.374654E+0	1.350008E+0	1.371069E+0	1.344606E+0	1.361637E+0	1.341416E+0	1.358795E+0	1.312479E+0	1.301887E+0	1.338848E+0	1.382729E+0	1.408098E+0	1.384538E+0	1.364580E+0	1.330299E+0	1.382302E+0	1.343748E+0	1.384763E+0	1.271084E+0	1.304276E+0	1.402068E+0	1.367124E+0	1.363033E+0	1.382080E+0	1.421443E+0	1.341408E+0	1.411886E+0	1.363114E+0	1.366781E+0	1.311764E+0	1.413956E+0	1.354063E+0	1.402744E+0	1.343492E+0	1.409823E+0	1.350453E+0	1.306148E+0	1.385797E+0	1.360158E+0	1.375928E+0	1.377527E+0	1.302759E+0	1.386399E+0	1.385688E+0	1.338210E+0	1.351982E+0	1.349389E+0	1.392601E+0	1.356049E+0	1.335933E+0	1.412967E+0	1.322348E+0	1.369344E+0	1.388920E+0	1.361980E+0	1.343772E+0	1.308465E+0	1.390154E+0	1.377588E+0	1.327765E+0	1.347689E+0	1.369068E+0	1.326204E+0
5.497740E+2	1.346642E+0	1.307265E+0	1.288964E+0	1.427854E+0	1.332132E+0	1.359278E+0	1.300847E+0	1.331412E+0	1.303352E+0	1.327894E+0	1.381546E+0	1.322685E+0	1.318800E+0	1.353724E+0	1.335943E+0	1.395195E+0	1.382985E+0	1.326869E+0	1.343675E+0	1.327857E+0	1.302068E+0	1.283721E+0	1.373430E+0	1.323030E+0	1.313406E+0	1.381874E+0	1.371372E+0	1.339600E+0	1.343434E+0	1.279740E+0	1.300600E+0	1.320949E+0	1.353448E+0	1.398824E+0	1.364430E+0	1.344193E+0	1.340905E+0	1.338340E+0	1.330414E+0	1.348361E+0	1.358679E+0	1.390159E+0	1.359616E+0	1.369970E+0	1.308700E+0	1.290790E+0	1.396610E+0	1.333521E+0	1.306312E+0	1.332124E+0	1.348108E+0	1.364637E+0	1.314005E+0	1.369287E+0	1.367513E+0	1.383555E+0	1.305406E+0	1.368682E+0	1.376859E+0	1.372205E+0	1.389904E+0	1.337793E+0	1.325382E+0	1.370559E+0	1.362680E+0	1.286905E+0	1.343089E+0	1.323007E+0	1.304328E+0	1.350092E+0	1.368390E+0	1.340623E+0	1.311304E+0	1.381021E+0	1.414774E+0	1.369612E+0	1.354244E+0	1.299369E+0	1.358795E+0	1.341247E+0	1.338246E+0	1.356175E+0	1.295923E+0	1.350086E+0	1.401439E+0	1.295305E+0	1.370075E+0	1.317774E+0	1.316288E+0	1.355495E+0	1.366890E+0	1.326284E+0	1.369095E+0	1.318303E+0	1.302315E+0	1.344606E+0	1.363633E+0	1.344265E+0	1.354796E+0	1.401608E+0	1.357075E+0	1.373968E+0	1.342661E+0	1.357603E+0	1.272061E+0	1.299779E+0	1.371508E+0	1.280060E+0	1.297924E+0	1.379623E+0	1.345684E+0	1.429886E+0	1.341083E+0	1.327830E+0	1.319441E+0	1.348863E+0	1.289747E+0	1.349065E+0	1.344508E+0	1.327548E+0	1.317768E+0	1.301958E+0	1.353130E+0	1.314687E+0	1.321495E+0	1.312133E+0	1.341469E+0	1.369300E+0	1.358095E+0	1.336191E+0	1.474378E+0	1.393618E+0	1.385625E+0	1.283060E+0	1.349893E+0	1.338381E+0	1.315995E+0	1.322798E+0	1.341976E+0	1.336983E+0	1.373224E+0	1.304160E+0	1.322673E+0	1.329576E+0	1.312074E+0	1.337070E+0	1.351238E+0	1.346709E+0	1.347844E+0	1.356093E+0	1.406894E+0	1.315474E+0	1.330424E+0	1.362843E+0	1.338292E+0	1.315846E+0	1.334197E+0	1.365081E+0	1.348639E+0	1.283311E+0	1.345290E+0	1.308917E+0	1.333885E+0	1.258282E+0	1.355171E+0	1.342027E+0	1.354944E+0	1.330035E+0	1.276718E+0	1.309449E+0	1.324264E+0
5.505170E+2	1.345268E+0	1.310587E+0	1.327220E+0	1.372010E+0	1.391934E+0	1.342835E+0	1.368708E+0	1.336541E+0	1.309483E+0	1.341845E+0	1.376600E+0	1.327712E+0	1.345470E+0	1.346790E+0	1.322195E+0	1.370005E+0	1.332712E+0	1.328751E+0	1.346881E+0	1.318134E+0	1.292315E+0	1.312367E+0	1.391781E+0	1.366268E+0	1.344516E+0	1.423747E+0	1.350013E+0	1.354144E+0	1.308766E+0	1.322211E+0	1.312136E+0	1.306998E+0	1.321852E+0	1.371476E+0	1.357178E+0	1.371378E+0	1.352325E+0	1.286522E+0	1.403694E+0	1.363044E+0	1.331204E+0	1.340943E+0	1.323333E+0	1.347987E+0	1.344497E+0	1.341246E+0	1.355885E+0	1.333929E+0	1.335907E+0	1.301199E+0	1.336870E+0	1.373460E+0	1.294947E+0	1.352743E+0	1.342947E+0	1.342804E+0	1.328143E+0	1.364671E+0	1.372365E+0	1.385283E+0	1.286339E+0	1.322799E+0	1.331118E+0	1.347869E+0	1.331384E+0	1.334540E+0	1.293153E+0	1.311367E+0	1.322194E+0	1.345439E+0	1.346891E+0	1.300633E+0	1.319454E+0	1.320368E+0	1.341524E+0	1.341196E+0	1.380721E+0	1.279210E+0	1.350135E+0	1.329920E+0	1.341014E+0	1.338703E+0	1.268695E+0	1.311648E+0	1.288797E+0	1.316419E+0	1.334505E+0	1.301332E+0	1.335598E+0	1.343016E+0	1.350095E+0	1.324482E+0	1.342470E+0	1.358634E+0	1.326468E+0	1.288890E+0	1.343449E+0	1.401320E+0	1.328843E+0	1.331641E+0	1.317082E+0	1.321370E+0	1.310767E+0	1.339365E+0	1.312896E+0	1.357339E+0	1.365416E+0	1.354495E+0	1.330275E+0	1.310686E+0	1.368191E+0	1.328813E+0	1.307923E+0	1.281418E+0	1.292874E+0	1.298661E+0	1.309386E+0	1.290362E+0	1.292229E+0	1.322613E+0	1.308552E+0	1.298975E+0	1.303588E+0	1.349705E+0	1.313381E+0	1.330588E+0	1.291331E+0	1.309365E+0	1.378879E+0	1.342077E+0	1.357014E+0	1.343729E+0	1.381277E+0	1.290214E+0	1.339005E+0	1.313653E+0	1.295112E+0	1.334454E+0	1.343109E+0	1.324592E+0	1.337010E+0	1.337944E+0	1.316726E+0	1.362142E+0	1.237463E+0	1.313594E+0	1.342223E+0	1.351849E+0	1.351938E+0	1.333753E+0	1.375264E+0	1.318680E+0	1.292610E+0	1.359192E+0	1.334648E+0	1.308534E+0	1.279303E+0	1.342282E+0	1.261446E+0	1.283188E+0	1.306576E+0	1.322573E+0	1.328821E+0	1.321471E+0	1.302041E+0	1.312471E+0	1.360790E+0	1.319196E+0	1.275842E+0	1.388335E+0	1.263998E+0
5.512620E+2	1.310650E+0	1.299572E+0	1.328494E+0	1.316656E+0	1.289963E+0	1.314943E+0	1.302745E+0	1.305583E+0	1.305204E+0	1.269827E+0	1.298402E+0	1.335506E+0	1.345840E+0	1.294498E+0	1.301303E+0	1.308464E+0	1.308097E+0	1.274993E+0	1.373369E+0	1.338221E+0	1.322027E+0	1.270526E+0	1.378201E+0	1.376396E+0	1.257312E+0	1.317345E+0	1.356418E+0	1.332760E+0	1.324063E+0	1.312605E+0	1.283814E+0	1.357076E+0	1.343813E+0	1.382611E+0	1.310733E+0	1.318270E+0	1.304881E+0	1.276961E+0	1.295504E+0	1.296986E+0	1.314909E+0	1.336167E+0	1.275845E+0	1.303966E+0	1.297574E+0	1.298143E+0	1.311363E+0	1.320158E+0	1.310446E+0	1.333204E+0	1.327884E+0	1.308145E+0	1.326922E+0	1.319317E+0	1.374302E+0	1.309587E+0	1.300555E+0	1.295890E+0	1.359909E+0	1.284687E+0	1.295871E+0	1.306125E+0	1.339035E+0	1.297389E+0	1.324349E+0	1.280686E+0	1.287737E+0	1.328887E+0	1.304303E+0	1.306788E+0	1.352081E+0	1.294023E+0	1.304264E+0	1.344485E+0	1.370568E+0	1.328299E+0	1.304157E+0	1.321593E+0	1.331598E+0	1.309123E+0	1.338528E+0	1.254821E+0	1.319647E+0	1.268880E+0	1.287348E+0	1.343027E+0	1.346396E+0	1.347864E+0	1.334809E+0	1.292328E+0	1.302307E+0	1.320565E+0	1.318793E+0	1.330736E+0	1.311106E+0	1.331733E+0	1.283058E+0	1.270432E+0	1.333931E+0	1.303683E+0	1.324729E+0	1.336290E+0	1.336230E+0	1.341290E+0	1.281034E+0	1.310249E+0	1.261789E+0	1.324347E+0	1.285489E+0	1.267287E+0	1.312738E+0	1.335428E+0	1.306670E+0	1.292197E+0	1.308418E+0	1.320050E+0	1.290633E+0	1.302824E+0	1.312270E+0	1.298350E+0	1.295926E+0	1.329021E+0	1.315995E+0	1.308189E+0	1.307309E+0	1.314001E+0	1.306065E+0	1.275778E+0	1.363934E+0	1.356492E+0	1.361627E+0	1.285343E+0	1.318318E+0	1.264458E+0	1.329222E+0	1.350961E+0	1.272285E+0	1.317144E+0	1.307051E+0	1.322907E+0	1.326658E+0	1.305187E+0	1.298943E+0	1.292150E+0	1.302113E+0	1.274523E+0	1.322542E+0	1.341949E+0	1.377895E+0	1.295012E+0	1.329253E+0	1.332217E+0	1.229141E+0	1.307116E+0	1.254832E+0	1.319621E+0	1.304771E+0	1.333289E+0	1.328394E+0	1.263072E+0	1.289634E+0	1.337492E+0	1.356935E+0	1.309373E+0	1.281240E+0	1.334112E+0	1.344720E+0	1.300249E+0	1.319451E+0	1.267128E+0	1.311588E+0
5.520210E+2	1.359359E+0	1.325347E+0	1.284477E+0	1.330256E+0	1.299557E+0	1.326817E+0	1.316542E+0	1.289993E+0	1.284142E+0	1.342078E+0	1.318396E+0	1.321218E+0	1.384325E+0	1.289729E+0	1.347517E+0	1.321662E+0	1.377257E+0	1.307505E+0	1.360306E+0	1.365833E+0	1.283362E+0	1.305174E+0	1.316190E+0	1.352479E+0	1.284640E+0	1.322177E+0	1.315124E+0	1.312681E+0	1.305810E+0	1.303857E+0	1.299792E+0	1.291166E+0	1.331004E+0	1.358494E+0	1.308056E+0	1.276589E+0	1.268942E+0	1.360827E+0	1.345170E+0	1.342082E+0	1.342747E+0	1.348601E+0	1.334648E+0	1.361677E+0	1.331976E+0	1.307029E+0	1.296377E+0	1.324850E+0	1.303880E+0	1.330118E+0	1.317574E+0	1.315309E+0	1.333393E+0	1.367965E+0	1.344080E+0	1.367206E+0	1.288273E+0	1.315632E+0	1.297015E+0	1.309724E+0	1.361475E+0	1.330465E+0	1.281678E+0	1.339758E+0	1.339464E+0	1.299679E+0	1.336054E+0	1.298946E+0	1.362062E+0	1.315902E+0	1.298420E+0	1.371310E+0	1.331475E+0	1.313516E+0	1.376852E+0	1.299628E+0	1.333991E+0	1.286217E+0	1.331915E+0	1.283370E+0	1.337532E+0	1.325275E+0	1.322847E+0	1.341064E+0	1.359470E+0	1.285854E+0	1.332259E+0	1.342082E+0	1.321246E+0	1.328542E+0	1.371357E+0	1.317085E+0	1.317064E+0	1.333444E+0	1.285819E+0	1.341103E+0	1.323092E+0	1.355558E+0	1.386906E+0	1.355828E+0	1.285563E+0	1.338009E+0	1.349291E+0	1.349647E+0	1.347534E+0	1.339704E+0	1.372769E+0	1.252434E+0	1.337989E+0	1.347054E+0	1.356816E+0	1.350019E+0	1.353620E+0	1.272632E+0	1.324052E+0	1.322444E+0	1.300504E+0	1.343271E+0	1.313502E+0	1.350750E+0	1.337761E+0	1.320902E+0	1.307974E+0	1.343771E+0	1.371379E+0	1.283157E+0	1.281325E+0	1.308738E+0	1.318920E+0	1.318244E+0	1.296325E+0	1.324496E+0	1.342400E+0	1.294276E+0	1.348186E+0	1.302780E+0	1.298924E+0	1.299710E+0	1.350987E+0	1.307046E+0	1.340383E+0	1.310525E+0	1.313403E+0	1.301193E+0	1.337018E+0	1.323212E+0	1.286367E+0	1.337963E+0	1.297779E+0	1.296532E+0	1.367977E+0	1.365294E+0	1.271908E+0	1.299107E+0	1.299397E+0	1.295292E+0	1.311138E+0	1.310288E+0	1.377467E+0	1.281202E+0	1.287647E+0	1.330257E+0	1.308190E+0	1.287780E+0	1.259745E+0	1.318679E+0	1.313901E+0	1.323056E+0	1.173033E+0	1.253748E+0	1.202738E+0
5.527650E+2	1.287765E+0	1.298659E+0	1.285183E+0	1.350927E+0	1.269919E+0	1.259571E+0	1.237181E+0	1.260966E+0	1.276774E+0	1.275502E+0	1.276208E+0	1.310779E+0	1.257070E+0	1.284102E+0	1.254721E+0	1.300613E+0	1.309557E+0	1.244029E+0	1.339370E+0	1.255093E+0	1.247279E+0	1.284613E+0	1.234837E+0	1.261560E+0	1.224019E+0	1.290800E+0	1.241665E+0	1.266489E+0	1.270343E+0	1.308443E+0	1.270216E+0	1.242368E+0	1.340160E+0	1.301836E+0	1.288944E+0	1.241961E+0	1.266006E+0	1.263801E+0	1.264435E+0	1.308766E+0	1.309546E+0	1.354844E+0	1.272418E+0	1.314085E+0	1.321754E+0	1.311153E+0	1.301885E+0	1.280916E+0	1.286061E+0	1.261402E+0	1.274068E+0	1.286762E+0	1.251097E+0	1.231969E+0	1.303107E+0	1.283344E+0	1.299215E+0	1.287029E+0	1.275083E+0	1.287627E+0	1.246474E+0	1.257521E+0	1.251210E+0	1.260873E+0	1.294324E+0	1.306806E+0	1.289229E+0	1.264678E+0	1.214922E+0	1.250654E+0	1.267848E+0	1.264845E+0	1.263289E+0	1.253343E+0	1.299103E+0	1.305327E+0	1.340214E+0	1.264412E+0	1.301370E+0	1.250572E+0	1.244828E+0	1.239192E+0	1.272245E+0	1.246761E+0	1.271199E+0	1.293037E+0	1.280089E+0	1.267520E+0	1.283883E+0	1.272405E+0	1.294639E+0	1.293758E+0	1.322627E+0	1.244672E+0	1.268966E+0	1.248394E+0	1.288926E+0	1.302765E+0	1.260974E+0	1.244606E+0	1.279418E+0	1.303415E+0	1.269636E+0	1.297307E+0	1.285786E+0	1.266856E+0	1.272130E+0	1.250545E+0	1.263938E+0	1.283186E+0	1.231517E+0	1.315514E+0	1.349663E+0	1.256370E+0	1.269415E+0	1.298363E+0	1.289794E+0	1.293901E+0	1.274416E+0	1.297713E+0	1.232870E+0	1.312281E+0	1.280901E+0	1.218468E+0	1.268177E+0	1.223738E+0	1.276152E+0	1.273871E+0	1.301568E+0	1.285693E+0	1.314908E+0	1.281379E+0	1.251169E+0	1.255115E+0	1.384394E+0	1.267160E+0	1.276052E+0	1.260268E+0	1.334627E+0	1.297941E+0	1.293579E+0	1.262202E+0	1.303252E+0	1.266980E+0	1.234568E+0	1.212385E+0	1.265038E+0	1.258874E+0	1.253380E+0	1.242728E+0	1.300729E+0	1.308707E+0	1.199130E+0	1.275608E+0	1.304382E+0	1.267968E+0	1.274402E+0	1.260558E+0	1.263290E+0	1.235550E+0	1.263447E+0	1.287675E+0	1.248974E+0	1.233116E+0	1.278167E+0	1.276547E+0	1.316861E+0	1.243976E+0	1.170324E+0	1.197032E+0	1.313460E+0
5.535490E+2	1.170515E+0	1.225287E+0	1.193049E+0	1.243136E+0	1.222842E+0	1.207157E+0	1.193446E+0	1.209403E+0	1.204868E+0	1.199215E+0	1.182047E+0	1.219735E+0	1.213314E+0	1.206082E+0	1.173244E+0	1.209830E+0	1.207303E+0	1.193641E+0	1.197692E+0	1.222057E+0	1.192010E+0	1.186024E+0	1.195539E+0	1.198408E+0	1.211026E+0	1.185588E+0	1.223137E+0	1.212780E+0	1.128934E+0	1.184903E+0	1.185551E+0	1.164745E+0	1.214216E+0	1.262239E+0	1.207309E+0	1.186859E+0	1.223998E+0	1.188188E+0	1.251421E+0	1.178207E+0	1.201548E+0	1.225839E+0	1.168500E+0	1.213853E+0	1.152634E+0	1.217970E+0	1.229260E+0	1.199084E+0	1.173058E+0	1.163841E+0	1.213491E+0	1.241510E+0	1.124736E+0	1.245398E+0	1.151617E+0	1.206755E+0	1.168006E+0	1.158007E+0	1.234345E+0	1.196696E+0	1.172153E+0	1.162474E+0	1.200199E+0	1.216146E+0	1.243009E+0	1.243932E+0	1.241292E+0	1.216506E+0	1.226215E+0	1.222586E+0	1.190838E+0	1.190864E+0	1.207883E+0	1.225877E+0	1.265606E+0	1.225476E+0	1.220336E+0	1.138346E+0	1.209883E+0	1.211217E+0	1.229924E+0	1.199680E+0	1.205921E+0	1.248539E+0	1.200979E+0	1.177445E+0	1.174600E+0	1.213242E+0	1.208236E+0	1.216201E+0	1.199814E+0	1.198455E+0	1.234288E+0	1.204341E+0	1.183421E+0	1.195365E+0	1.211371E+0	1.238993E+0	1.167137E+0	1.235317E+0	1.136182E+0	1.254775E+0	1.236239E+0	1.172265E+0	1.169499E+0	1.192586E+0	1.247164E+0	1.154053E+0	1.148626E+0	1.238798E+0	1.161794E+0	1.233412E+0	1.202723E+0	1.170390E+0	1.191386E+0	1.193889E+0	1.175644E+0	1.169858E+0	1.220803E+0	1.242779E+0	1.177543E+0	1.161192E+0	1.195932E+0	1.216178E+0	1.217285E+0	1.199305E+0	1.190437E+0	1.187897E+0	1.281922E+0	1.188885E+0	1.229846E+0	1.226058E+0	1.172001E+0	1.181800E+0	1.201548E+0	1.216857E+0	1.199046E+0	1.163082E+0	1.194736E+0	1.283538E+0	1.181212E+0	1.209267E+0	1.215417E+0	1.179089E+0	1.164903E+0	1.206992E+0	1.158226E+0	1.245937E+0	1.230235E+0	1.197553E+0	1.217864E+0	1.229108E+0	1.159116E+0	1.210181E+0	1.159336E+0	1.206469E+0	1.199750E+0	1.181989E+0	1.221102E+0	1.202562E+0	1.213365E+0	1.144869E+0	1.216341E+0	1.174403E+0	1.193458E+0	1.226984E+0	1.225382E+0	1.172184E+0	1.168694E+0	1.151264E+0	1.192157E+0
5.542580E+2	1.127403E+0	1.121008E+0	1.127350E+0	1.086911E+0	1.119790E+0	1.110816E+0	1.113994E+0	1.108049E+0	1.103222E+0	1.075952E+0	1.117688E+0	1.096419E+0	1.124281E+0	1.132503E+0	1.138072E+0	1.124354E+0	1.142037E+0	1.119093E+0	1.148079E+0	1.145354E+0	1.086960E+0	1.094338E+0	1.149629E+0	1.133745E+0	1.051423E+0	1.110158E+0	1.103179E+0	1.128115E+0	1.123001E+0	1.131029E+0	1.109030E+0	1.105694E+0	1.138006E+0	1.171942E+0	1.149147E+0	1.122889E+0	1.068369E+0	1.077465E+0	1.147649E+0	1.073485E+0	1.051807E+0	1.130931E+0	1.124269E+0	1.103333E+0	1.119659E+0	1.127571E+0	1.113827E+0	1.050039E+0	1.133366E+0	1.099780E+0	1.102689E+0	1.164879E+0	1.082336E+0	1.106334E+0	1.127032E+0	1.118541E+0	1.092029E+0	1.088031E+0	1.129049E+0	1.124019E+0	1.093097E+0	1.086555E+0	1.113207E+0	1.084891E+0	1.108531E+0	1.087889E+0	1.097738E+0	1.114097E+0	1.091471E+0	1.097973E+0	1.086663E+0	1.123149E+0	1.125855E+0	1.189064E+0	1.131668E+0	1.120007E+0	1.142874E+0	1.075742E+0	1.093321E+0	1.113341E+0	1.103118E+0	1.045699E+0	1.127872E+0	1.147721E+0	1.121084E+0	1.104833E+0	1.086059E+0	1.096790E+0	1.108979E+0	1.031521E+0	1.168895E+0	1.118890E+0	1.052329E+0	1.125987E+0	1.123678E+0	1.095198E+0	1.070435E+0	1.152468E+0	1.074979E+0	1.171204E+0	1.083315E+0	1.106745E+0	1.165745E+0	1.116915E+0	1.047590E+0	1.095170E+0	1.088658E+0	1.107801E+0	1.130150E+0	1.128404E+0	1.105466E+0	1.138028E+0	1.105676E+0	1.113235E+0	1.087856E+0	1.064889E+0	1.062550E+0	1.123166E+0	1.015886E+0	1.120715E+0	1.114515E+0	1.133514E+0	1.155445E+0	1.179209E+0	1.091528E+0	1.096251E+0	1.124613E+0	1.142771E+0	1.148180E+0	1.115730E+0	1.143789E+0	1.116784E+0	1.119823E+0	1.077302E+0	1.106076E+0	1.148763E+0	1.136222E+0	1.120269E+0	1.145175E+0	1.153176E+0	1.099843E+0	1.097241E+0	1.124283E+0	1.047814E+0	1.096808E+0	1.127667E+0	1.060587E+0	1.128505E+0	1.119286E+0	1.133807E+0	1.137326E+0	1.154326E+0	1.114502E+0	1.139318E+0	1.096661E+0	1.100867E+0	1.118070E+0	1.120710E+0	1.138636E+0	1.093976E+0	1.087836E+0	1.102937E+0	1.105847E+0	1.103445E+0	1.121269E+0	1.101371E+0	1.080284E+0	1.129682E+0	1.104962E+0	1.177589E+0	1.003700E+0
5.550140E+2	1.063073E+0	1.024520E+0	9.894784E-1	1.026854E+0	1.033677E+0	1.047070E+0	1.008843E+0	1.026160E+0	1.032531E+0	1.043526E+0	1.051800E+0	1.080948E+0	1.019725E+0	1.019802E+0	1.020443E+0	1.056264E+0	1.081154E+0	1.055894E+0	1.029407E+0	1.049438E+0	1.024992E+0	1.015665E+0	1.013559E+0	1.026770E+0	1.045851E+0	1.064472E+0	1.014836E+0	1.049495E+0	9.857603E-1	1.030026E+0	9.812301E-1	1.066389E+0	1.061021E+0	1.075517E+0	1.023795E+0	1.097788E+0	1.004227E+0	1.035983E+0	1.045093E+0	9.912804E-1	1.049358E+0	1.040139E+0	1.010539E+0	1.033633E+0	1.029621E+0	1.007823E+0	1.037161E+0	1.036028E+0	1.047639E+0	1.057518E+0	9.636259E-1	1.041855E+0	9.898708E-1	1.055394E+0	1.073781E+0	1.066292E+0	1.014741E+0	1.027792E+0	1.032884E+0	1.073244E+0	1.013313E+0	1.022115E+0	1.029398E+0	1.012100E+0	1.005680E+0	1.039165E+0	1.069486E+0	1.019014E+0	1.023231E+0	1.039196E+0	1.032731E+0	1.038989E+0	9.539153E-1	9.981393E-1	1.060957E+0	1.067866E+0	1.044240E+0	9.881081E-1	1.042392E+0	1.043296E+0	1.074171E+0	1.049573E+0	9.954391E-1	1.025595E+0	9.593888E-1	1.007926E+0	1.059896E+0	1.083555E+0	1.012741E+0	1.004155E+0	1.030804E+0	1.038347E+0	1.016732E+0	1.030986E+0	1.011052E+0	1.019917E+0	1.020593E+0	1.081563E+0	9.883385E-1	1.048390E+0	1.037555E+0	1.003754E+0	1.038002E+0	1.035836E+0	1.029742E+0	1.038447E+0	9.942158E-1	9.904933E-1	1.015420E+0	1.038916E+0	1.049508E+0	1.101202E+0	1.019253E+0	1.030754E+0	1.046926E+0	1.005471E+0	1.014586E+0	1.023444E+0	9.590313E-1	1.027539E+0	9.715879E-1	1.029304E+0	9.944872E-1	9.997461E-1	1.049433E+0	1.017252E+0	1.003552E+0	1.059348E+0	1.123385E+0	1.031551E+0	1.002380E+0	1.043846E+0	1.008196E+0	1.054237E+0	1.034202E+0	1.061481E+0	1.063487E+0	9.991095E-1	1.029116E+0	1.049414E+0	1.070534E+0	1.004104E+0	1.054413E+0	1.010159E+0	1.020875E+0	1.068392E+0	9.865526E-1	1.050142E+0	1.042983E+0	1.009971E+0	1.014120E+0	1.022859E+0	1.041283E+0	9.723791E-1	1.052793E+0	1.069059E+0	1.035142E+0	9.964282E-1	1.030544E+0	1.054121E+0	1.044066E+0	1.024676E+0	1.067101E+0	1.003744E+0	1.014730E+0	1.043571E+0	1.003074E+0	1.002158E+0	9.749226E-1	1.045134E+0	9.956784E-1
5.557600E+2	9.491660E-1	1.003689E+0	9.567676E-1	9.687385E-1	9.883915E-1	9.456566E-1	9.561442E-1	9.810617E-1	9.606146E-1	9.459284E-1	9.689295E-1	9.655720E-1	9.646881E-1	9.818301E-1	9.814128E-1	1.011866E+0	9.965292E-1	9.510449E-1	9.736861E-1	9.950187E-1	9.989750E-1	9.918614E-1	9.574672E-1	9.706795E-1	9.606201E-1	1.046265E+0	1.004482E+0	9.798776E-1	9.720570E-1	9.460371E-1	9.454511E-1	9.795708E-1	9.976957E-1	9.798341E-1	1.036283E+0	1.000327E+0	9.615035E-1	9.569628E-1	1.056421E+0	9.920116E-1	9.914949E-1	9.870084E-1	9.612615E-1	9.617070E-1	9.964333E-1	1.013782E+0	9.854981E-1	9.590330E-1	9.678567E-1	9.812550E-1	9.438498E-1	9.581587E-1	9.732579E-1	1.007816E+0	9.480501E-1	9.936338E-1	9.457640E-1	9.602396E-1	9.899015E-1	9.570853E-1	1.002205E+0	1.002821E+0	9.532412E-1	9.731276E-1	9.578483E-1	1.030591E+0	1.031737E+0	9.764766E-1	9.732037E-1	1.002871E+0	1.016735E+0	9.340545E-1	9.778643E-1	9.627711E-1	1.006553E+0	1.015357E+0	9.969898E-1	9.898239E-1	9.891409E-1	9.729686E-1	1.007395E+0	9.573455E-1	9.696553E-1	1.000101E+0	9.649438E-1	9.828313E-1	9.796023E-1	9.725875E-1	9.609444E-1	9.984603E-1	9.953801E-1	9.877239E-1	9.787934E-1	9.526110E-1	1.002786E+0	9.742652E-1	1.030771E+0	9.921661E-1	9.597898E-1	9.921075E-1	9.392462E-1	9.822166E-1	9.840233E-1	1.006479E+0	9.903060E-1	9.428461E-1	1.016321E+0	9.740976E-1	9.339844E-1	9.590277E-1	9.947215E-1	9.954005E-1	1.000719E+0	9.396068E-1	9.546322E-1	1.011136E+0	1.002186E+0	9.517349E-1	9.336172E-1	9.855972E-1	9.796741E-1	9.772026E-1	9.956454E-1	9.600615E-1	9.872813E-1	9.373175E-1	9.736706E-1	9.732243E-1	1.012123E+0	9.320525E-1	9.661542E-1	1.011956E+0	9.877262E-1	9.532492E-1	9.886717E-1	9.814678E-1	9.815803E-1	9.820714E-1	9.906139E-1	1.016644E+0	1.023042E+0	1.001556E+0	9.757623E-1	1.015443E+0	9.949762E-1	9.752628E-1	9.746219E-1	9.611512E-1	1.026651E+0	9.761359E-1	9.967091E-1	9.923734E-1	9.798107E-1	1.010933E+0	9.703661E-1	1.052928E+0	9.917030E-1	9.788089E-1	9.773387E-1	9.519397E-1	1.035679E+0	9.955862E-1	9.958023E-1	9.910390E-1	9.513863E-1	9.853221E-1	1.006652E+0	1.012676E+0	9.352302E-1	9.534329E-1	9.738561E-1
5.560190E+2	9.845638E-1	9.901416E-1	9.301237E-1	9.595604E-1	9.968166E-1	9.494285E-1	9.820133E-1	9.825022E-1	9.555759E-1	9.527883E-1	9.882433E-1	1.009321E+0	9.828370E-1	9.934326E-1	9.977756E-1	1.006944E+0	9.862818E-1	9.826611E-1	1.064340E+0	9.869189E-1	9.783222E-1	9.562547E-1	1.010244E+0	9.657810E-1	9.985423E-1	9.792879E-1	9.660012E-1	9.744160E-1	9.914578E-1	9.760095E-1	9.624725E-1	1.003772E+0	9.790821E-1	1.020804E+0	1.004080E+0	9.900622E-1	1.013345E+0	9.688492E-1	9.686448E-1	9.461968E-1	9.792074E-1	1.010481E+0	9.523089E-1	1.012598E+0	1.039754E+0	9.662884E-1	9.900325E-1	9.757882E-1	1.005005E+0	9.848609E-1	9.669226E-1	1.026516E+0	9.338774E-1	9.729886E-1	1.019507E+0	1.010122E+0	9.815754E-1	9.816387E-1	9.784153E-1	1.019431E+0	9.838420E-1	9.775392E-1	9.590466E-1	9.599417E-1	9.792478E-1	1.015598E+0	9.725680E-1	9.739968E-1	9.872743E-1	9.898986E-1	1.012358E+0	9.505534E-1	1.013465E+0	9.892790E-1	1.006008E+0	9.785872E-1	9.748170E-1	1.013943E+0	9.839271E-1	9.674224E-1	1.021323E+0	1.009858E+0	9.756901E-1	9.688459E-1	1.002052E+0	9.367350E-1	9.885242E-1	1.019071E+0	9.159663E-1	9.551633E-1	9.897297E-1	9.977086E-1	1.015002E+0	9.705443E-1	9.977049E-1	9.968627E-1	1.002083E+0	1.016600E+0	9.338551E-1	9.723330E-1	9.422115E-1	1.005998E+0	9.801827E-1	1.000543E+0	9.551455E-1	9.556445E-1	9.875403E-1	9.954871E-1	1.005441E+0	9.986888E-1	9.707963E-1	9.916461E-1	1.024965E+0	9.871811E-1	9.823854E-1	9.408416E-1	9.893879E-1	9.806968E-1	9.603585E-1	1.012508E+0	9.520959E-1	9.462602E-1	9.394296E-1	9.861614E-1	1.011140E+0	1.021484E+0	9.470171E-1	9.763953E-1	1.005162E+0	9.929439E-1	1.033357E+0	9.949259E-1	1.006614E+0	9.481870E-1	1.001639E+0	9.649299E-1	9.750684E-1	9.695465E-1	9.882776E-1	9.660728E-1	9.431814E-1	9.900985E-1	9.817750E-1	9.912403E-1	9.955509E-1	9.662209E-1	9.628183E-1	1.024737E+0	9.991292E-1	1.001608E+0	1.004838E+0	1.006036E+0	9.267396E-1	9.964111E-1	9.632509E-1	1.028553E+0	9.314989E-1	9.534490E-1	1.014191E+0	9.345158E-1	9.985161E-1	1.011612E+0	9.729558E-1	9.998960E-1	1.010015E+0	9.525706E-1	9.939058E-1	9.794559E-1	9.979466E-1	9.982406E-1	1.051146E+0
5.565090E+2	9.716194E-1	1.013125E+0	9.981852E-1	9.574801E-1	9.787401E-1	9.364164E-1	9.865155E-1	1.016081E+0	9.885146E-1	9.560847E-1	1.033397E+0	1.005925E+0	9.811348E-1	9.551659E-1	9.790512E-1	9.768160E-1	1.071064E+0	9.545442E-1	9.728924E-1	9.558544E-1	9.538711E-1	9.560041E-1	9.836381E-1	9.799467E-1	1.016912E+0	1.026816E+0	9.881660E-1	9.865949E-1	9.590893E-1	9.754846E-1	9.820752E-1	9.869109E-1	9.634004E-1	9.918046E-1	9.921915E-1	9.703276E-1	9.643381E-1	9.525415E-1	1.007266E+0	1.037438E+0	9.957962E-1	9.578700E-1	9.209219E-1	1.017396E+0	9.758331E-1	1.012331E+0	9.448530E-1	9.481804E-1	9.781480E-1	9.980519E-1	9.974813E-1	1.022246E+0	9.902328E-1	1.012008E+0	1.057569E+0	9.651871E-1	9.661695E-1	1.011737E+0	9.842602E-1	9.880756E-1	9.834546E-1	9.877683E-1	9.564850E-1	1.011733E+0	9.478644E-1	9.641756E-1	9.617463E-1	9.707472E-1	9.762373E-1	9.453487E-1	9.877187E-1	9.754237E-1	9.854954E-1	9.985733E-1	9.921618E-1	9.799276E-1	9.752981E-1	9.460537E-1	1.010947E+0	9.462502E-1	1.011755E+0	9.733152E-1	9.900940E-1	9.512810E-1	9.930626E-1	1.003357E+0	1.005946E+0	9.945885E-1	9.856024E-1	9.367962E-1	9.189843E-1	9.674958E-1	1.018484E+0	9.967009E-1	9.494862E-1	9.794256E-1	9.605296E-1	9.877211E-1	1.006720E+0	9.505603E-1	9.769593E-1	9.833593E-1	9.391584E-1	9.971960E-1	9.981532E-1	9.843210E-1	9.483206E-1	9.585043E-1	9.880944E-1	9.539956E-1	1.015045E+0	1.035856E+0	9.697013E-1	9.916121E-1	9.659902E-1	9.185340E-1	9.670094E-1	9.840469E-1	9.883719E-1	9.413933E-1	9.789592E-1	1.015567E+0	9.811862E-1	9.966385E-1	9.502671E-1	9.405789E-1	9.073917E-1	9.969561E-1	9.987519E-1	9.872391E-1	9.935990E-1	1.003762E+0	9.913750E-1	9.636508E-1	9.792897E-1	1.039620E+0	1.015842E+0	9.024593E-1	9.717724E-1	9.644513E-1	9.733838E-1	9.682424E-1	9.948990E-1	9.400276E-1	9.770415E-1	9.818627E-1	9.185679E-1	9.577348E-1	9.832319E-1	9.706189E-1	9.763549E-1	9.961917E-1	9.799062E-1	9.685699E-1	9.730250E-1	9.712818E-1	9.792424E-1	9.990601E-1	9.981274E-1	9.832573E-1	9.658721E-1	9.936334E-1	9.403684E-1	9.636755E-1	9.708097E-1	9.531901E-1	9.931537E-1	9.455711E-1	9.458136E-1	1.013920E+0	8.760636E-1
5.570160E+2	9.881591E-1	9.682868E-1	9.891571E-1	9.623863E-1	9.824696E-1	9.717359E-1	9.519973E-1	9.590169E-1	9.554974E-1	9.599127E-1	9.906647E-1	9.576822E-1	9.950936E-1	9.496123E-1	9.596562E-1	9.682442E-1	1.002719E+0	9.847458E-1	9.737246E-1	1.008289E+0	9.362702E-1	9.519354E-1	9.857612E-1	9.705293E-1	9.772058E-1	9.643161E-1	9.813280E-1	9.939369E-1	9.964075E-1	9.396796E-1	9.536218E-1	9.639183E-1	9.706440E-1	9.618353E-1	9.702399E-1	1.033652E+0	9.509672E-1	9.594000E-1	9.803353E-1	1.010243E+0	9.851987E-1	9.847792E-1	9.888692E-1	9.941222E-1	9.887530E-1	9.652280E-1	9.827505E-1	9.439858E-1	9.986215E-1	9.861638E-1	9.638209E-1	9.906784E-1	1.004396E+0	1.017795E+0	9.813813E-1	9.454791E-1	9.401845E-1	9.612519E-1	9.599384E-1	9.605276E-1	9.920778E-1	9.886604E-1	9.384024E-1	9.816766E-1	9.370528E-1	9.572403E-1	9.788057E-1	9.809726E-1	9.626726E-1	9.519613E-1	9.567644E-1	9.569421E-1	9.804343E-1	9.880401E-1	1.036987E+0	9.890208E-1	9.825752E-1	9.440521E-1	9.461199E-1	9.576182E-1	9.867797E-1	9.452423E-1	9.449931E-1	9.700012E-1	9.593761E-1	1.025106E+0	9.601133E-1	9.884765E-1	9.722205E-1	9.244641E-1	1.009278E+0	1.017612E+0	1.002621E+0	9.460902E-1	1.002921E+0	9.805049E-1	9.820956E-1	1.006658E+0	9.663785E-1	9.729768E-1	9.606014E-1	9.814962E-1	1.004247E+0	1.013270E+0	9.776792E-1	9.960636E-1	9.980512E-1	9.434824E-1	9.460679E-1	9.676213E-1	9.594475E-1	9.692901E-1	9.687175E-1	9.857328E-1	9.677314E-1	9.745416E-1	9.778207E-1	9.390566E-1	9.453326E-1	9.811592E-1	9.971647E-1	9.644962E-1	9.681733E-1	9.988735E-1	1.005292E+0	9.760065E-1	1.002586E+0	9.351948E-1	9.718860E-1	1.004487E+0	9.916282E-1	9.892672E-1	9.738408E-1	9.736625E-1	9.835109E-1	1.012970E+0	9.760415E-1	9.986584E-1	9.632917E-1	9.748635E-1	1.015463E+0	9.839251E-1	9.755455E-1	1.000639E+0	9.936522E-1	9.396701E-1	1.021694E+0	1.012160E+0	9.758887E-1	1.003563E+0	1.050200E+0	1.032865E+0	9.463276E-1	1.037987E+0	9.797661E-1	1.000777E+0	1.004342E+0	9.673078E-1	1.014542E+0	1.020572E+0	9.782618E-1	9.867429E-1	9.689247E-1	1.001098E+0	9.495724E-1	1.018629E+0	9.388260E-1	9.380999E-1	9.699487E-1	1.028207E+0	8.973790E-1
5.575530E+2	1.032632E+0	1.055557E+0	9.857931E-1	1.029423E+0	1.032534E+0	1.009982E+0	1.040696E+0	1.012156E+0	9.905179E-1	1.048973E+0	1.021490E+0	1.002776E+0	1.029476E+0	9.848387E-1	9.987362E-1	1.079968E+0	1.018146E+0	9.891367E-1	1.047717E+0	1.024618E+0	9.998683E-1	1.014861E+0	1.051830E+0	1.021890E+0	1.051842E+0	9.712473E-1	1.057162E+0	1.028975E+0	1.006602E+0	1.017672E+0	1.018307E+0	1.035272E+0	1.046270E+0	1.036344E+0	1.012626E+0	1.051858E+0	9.814866E-1	1.019490E+0	1.033585E+0	1.029464E+0	1.027918E+0	9.934356E-1	1.005352E+0	9.912523E-1	1.005872E+0	9.713340E-1	1.028666E+0	9.974536E-1	1.030472E+0	1.002569E+0	9.888673E-1	1.035194E+0	9.608207E-1	1.032009E+0	1.028671E+0	9.810687E-1	1.023668E+0	1.012907E+0	1.027162E+0	1.003405E+0	1.058859E+0	1.038132E+0	9.844790E-1	1.015108E+0	1.035780E+0	9.860573E-1	1.029234E+0	9.898202E-1	1.000722E+0	9.911119E-1	1.013026E+0	1.012755E+0	1.054224E+0	1.042323E+0	1.052714E+0	1.032788E+0	1.009382E+0	1.033476E+0	1.022599E+0	1.024553E+0	1.062153E+0	1.012354E+0	1.006637E+0	1.052300E+0	1.051135E+0	1.033110E+0	1.023661E+0	9.843747E-1	1.024294E+0	1.027721E+0	1.014669E+0	9.694468E-1	1.040070E+0	1.040623E+0	9.929818E-1	9.847903E-1	1.044779E+0	1.046331E+0	1.021994E+0	9.837690E-1	1.048256E+0	1.009950E+0	1.032197E+0	1.022979E+0	1.045899E+0	1.013368E+0	1.029552E+0	9.750683E-1	1.017197E+0	1.056470E+0	1.008777E+0	1.040506E+0	1.007863E+0	9.849724E-1	1.022115E+0	1.042224E+0	9.799345E-1	9.946135E-1	1.038059E+0	1.005077E+0	1.002976E+0	1.058164E+0	1.016632E+0	9.743131E-1	1.030972E+0	1.049880E+0	1.027786E+0	9.809379E-1	1.058273E+0	1.034318E+0	1.027333E+0	1.007852E+0	1.051503E+0	1.008785E+0	1.014195E+0	9.911086E-1	1.064303E+0	1.011960E+0	9.680769E-1	1.039739E+0	1.040240E+0	1.011565E+0	1.012548E+0	1.003008E+0	1.000603E+0	1.012655E+0	9.919701E-1	1.024296E+0	1.032294E+0	9.895841E-1	1.015686E+0	1.086592E+0	1.025062E+0	1.033539E+0	1.006146E+0	1.047584E+0	1.025566E+0	1.033040E+0	1.061241E+0	1.043527E+0	9.990495E-1	1.033588E+0	1.035429E+0	1.064372E+0	1.012173E+0	1.013366E+0	1.023177E+0	1.043892E+0	9.921258E-1	9.690923E-1	9.965710E-1
5.580170E+2	1.020322E+0	1.013594E+0	9.970638E-1	1.016729E+0	1.014416E+0	9.952508E-1	1.008971E+0	1.014234E+0	9.799114E-1	9.576360E-1	9.927975E-1	1.018872E+0	9.750034E-1	1.024192E+0	1.023320E+0	1.022207E+0	9.705011E-1	1.034691E+0	1.021896E+0	9.802765E-1	9.608170E-1	9.623628E-1	9.887162E-1	9.733009E-1	9.691040E-1	9.987402E-1	9.958090E-1	9.944192E-1	1.014781E+0	1.026054E+0	9.835366E-1	1.013149E+0	9.706577E-1	1.006211E+0	1.003865E+0	9.566673E-1	1.012498E+0	1.001242E+0	1.007724E+0	9.916051E-1	9.816328E-1	1.000746E+0	1.020007E+0	9.872458E-1	1.010481E+0	1.005685E+0	9.877970E-1	1.016252E+0	9.986067E-1	9.503982E-1	9.938123E-1	1.010113E+0	9.892165E-1	9.940759E-1	1.025506E+0	9.968550E-1	1.002051E+0	1.044151E+0	9.958615E-1	9.954130E-1	9.770374E-1	9.854607E-1	9.839499E-1	1.027816E+0	1.007281E+0	9.986303E-1	9.949770E-1	9.874298E-1	9.485401E-1	1.018691E+0	9.916308E-1	9.846329E-1	9.954766E-1	1.007921E+0	1.040278E+0	1.026310E+0	1.001448E+0	9.794789E-1	1.002969E+0	9.992543E-1	1.016884E+0	1.000304E+0	9.571070E-1	1.001702E+0	1.011269E+0	9.911754E-1	1.003471E+0	1.014938E+0	9.997511E-1	1.032184E+0	9.910681E-1	1.026114E+0	1.045677E+0	9.798178E-1	1.017758E+0	9.780059E-1	9.885045E-1	9.945617E-1	1.042320E+0	1.031507E+0	1.003826E+0	9.629574E-1	1.018376E+0	9.901171E-1	1.014998E+0	9.862363E-1	9.833411E-1	9.899188E-1	1.008707E+0	1.046866E+0	1.000427E+0	9.509759E-1	1.041201E+0	9.785528E-1	9.918811E-1	9.802901E-1	9.751642E-1	9.735738E-1	9.886212E-1	1.009233E+0	9.857449E-1	1.035353E+0	9.751376E-1	1.031953E+0	1.014606E+0	1.053888E+0	9.959914E-1	1.003406E+0	1.000988E+0	1.015331E+0	1.007862E+0	1.044502E+0	1.003046E+0	9.787886E-1	1.000901E+0	1.000056E+0	1.009068E+0	9.798557E-1	1.034670E+0	1.017566E+0	9.861493E-1	1.021174E+0	9.992937E-1	9.824169E-1	1.009146E+0	1.008347E+0	9.823376E-1	9.583390E-1	9.870761E-1	1.002012E+0	9.851264E-1	9.817693E-1	9.975693E-1	1.028269E+0	1.049531E+0	1.059496E+0	1.024406E+0	9.872458E-1	1.017755E+0	1.018635E+0	1.026007E+0	9.679139E-1	1.009510E+0	9.962427E-1	1.020276E+0	9.691532E-1	1.000067E+0	9.959878E-1	9.640699E-1	9.687692E-1	1.004461E+0
5.585160E+2	1.016451E+0	1.016077E+0	9.692797E-1	1.038691E+0	9.876291E-1	1.041158E+0	9.759263E-1	9.829901E-1	1.018010E+0	9.996384E-1	9.725775E-1	1.009329E+0	1.011721E+0	1.013786E+0	1.014918E+0	9.853436E-1	1.004259E+0	9.640984E-1	9.877412E-1	9.919351E-1	1.005080E+0	9.963548E-1	1.011049E+0	1.034017E+0	9.636092E-1	9.804818E-1	9.816691E-1	9.532098E-1	9.730868E-1	9.786888E-1	9.886037E-1	9.808269E-1	1.036996E+0	9.898421E-1	9.949756E-1	1.005078E+0	1.029595E+0	9.783864E-1	1.018464E+0	9.777754E-1	1.010654E+0	1.010004E+0	1.028610E+0	9.910060E-1	1.016623E+0	9.862349E-1	1.021321E+0	9.868858E-1	9.920719E-1	1.015396E+0	1.009008E+0	1.000541E+0	9.686325E-1	9.841028E-1	1.012083E+0	9.728551E-1	1.014646E+0	1.000258E+0	1.034381E+0	9.851162E-1	1.035599E+0	1.015019E+0	1.017507E+0	9.782295E-1	1.010500E+0	1.007116E+0	9.859752E-1	9.911436E-1	9.531468E-1	9.938758E-1	9.880215E-1	9.696674E-1	1.002764E+0	1.007943E+0	1.007200E+0	9.827509E-1	1.035454E+0	9.889752E-1	1.007633E+0	1.001460E+0	1.021012E+0	1.020324E+0	9.904850E-1	9.865816E-1	9.589363E-1	1.000954E+0	9.863914E-1	1.004228E+0	9.964519E-1	9.950072E-1	1.027296E+0	1.014167E+0	9.624982E-1	1.002503E+0	1.002962E+0	9.981370E-1	1.010894E+0	9.888307E-1	9.767845E-1	1.033643E+0	9.985083E-1	1.040863E+0	1.032142E+0	9.997678E-1	1.007871E+0	9.828293E-1	1.015870E+0	1.012936E+0	9.464645E-1	1.038447E+0	1.019923E+0	1.018865E+0	1.027090E+0	9.966892E-1	9.754850E-1	1.024406E+0	9.782768E-1	1.027655E+0	9.863062E-1	1.006296E+0	9.855180E-1	1.005960E+0	9.931128E-1	9.989163E-1	1.013623E+0	1.002223E+0	1.061593E+0	1.009330E+0	9.950502E-1	9.729470E-1	1.019061E+0	9.743588E-1	1.001446E+0	1.066947E+0	9.793470E-1	9.377872E-1	1.001434E+0	9.809951E-1	1.035633E+0	1.029667E+0	1.012990E+0	1.008169E+0	9.776639E-1	1.000687E+0	9.934067E-1	1.027723E+0	1.038977E+0	1.023626E+0	1.033237E+0	1.009746E+0	9.871497E-1	9.732785E-1	1.032461E+0	9.854042E-1	9.856389E-1	9.590188E-1	1.024423E+0	9.973133E-1	1.042021E+0	9.684255E-1	1.001827E+0	1.025329E+0	1.003877E+0	9.611617E-1	1.012022E+0	1.008840E+0	1.012837E+0	9.723327E-1	9.942784E-1	1.000136E+0	9.662970E-1
5.590100E+2	1.016083E+0	1.018776E+0	1.023146E+0	9.813635E-1	1.016410E+0	9.803836E-1	9.893318E-1	9.946528E-1	9.898129E-1	9.931661E-1	1.004113E+0	1.013389E+0	1.028144E+0	9.865462E-1	1.012251E+0	9.798851E-1	1.021031E+0	1.029833E+0	9.877408E-1	1.026379E+0	9.807566E-1	1.012421E+0	1.008245E+0	1.017706E+0	1.008531E+0	1.037094E+0	1.016168E+0	1.047506E+0	1.034951E+0	9.957203E-1	9.797257E-1	1.019456E+0	1.018790E+0	9.942635E-1	1.005573E+0	9.589730E-1	9.832383E-1	1.015554E+0	1.004524E+0	1.038172E+0	9.986267E-1	1.034807E+0	9.994069E-1	1.012892E+0	1.005027E+0	1.025146E+0	1.011420E+0	1.022964E+0	9.993786E-1	9.831100E-1	1.048378E+0	9.929070E-1	9.955098E-1	9.987862E-1	9.932394E-1	1.007736E+0	9.987626E-1	9.969327E-1	9.688428E-1	9.704005E-1	9.998765E-1	1.009921E+0	9.702371E-1	9.850295E-1	1.003572E+0	9.852170E-1	1.005551E+0	9.979470E-1	1.052380E+0	1.014986E+0	1.008488E+0	1.047090E+0	1.009922E+0	1.000940E+0	1.030713E+0	9.971853E-1	1.021454E+0	9.902095E-1	9.875349E-1	1.009139E+0	1.035693E+0	1.034802E+0	9.676252E-1	9.795472E-1	1.002073E+0	9.865251E-1	1.017070E+0	9.541657E-1	9.943520E-1	9.879747E-1	1.009091E+0	1.020125E+0	1.034399E+0	9.960789E-1	9.934956E-1	9.854111E-1	1.013625E+0	9.978399E-1	9.768624E-1	9.978570E-1	9.905428E-1	9.869742E-1	1.002169E+0	9.939517E-1	1.001075E+0	9.877278E-1	1.015949E+0	9.939144E-1	9.983520E-1	9.468136E-1	9.770041E-1	9.909238E-1	9.757439E-1	1.010133E+0	1.019958E+0	9.912941E-1	1.003895E+0	9.890123E-1	1.035645E+0	9.736084E-1	1.012103E+0	9.795677E-1	1.006430E+0	1.028721E+0	9.865298E-1	1.000542E+0	9.967733E-1	9.654961E-1	1.005329E+0	1.006371E+0	1.033322E+0	9.979460E-1	1.019758E+0	9.993200E-1	1.003989E+0	1.015190E+0	1.006113E+0	9.674383E-1	9.844114E-1	9.532206E-1	1.014756E+0	1.013660E+0	1.036471E+0	1.013401E+0	9.968876E-1	1.007958E+0	9.746909E-1	9.951809E-1	9.924521E-1	1.004969E+0	9.848229E-1	9.941867E-1	1.021490E+0	9.874014E-1	9.897607E-1	1.002119E+0	9.874107E-1	1.015183E+0	9.691864E-1	1.003388E+0	9.962947E-1	1.035771E+0	1.006930E+0	1.019946E+0	1.001783E+0	1.019213E+0	1.024486E+0	1.035049E+0	9.944345E-1	9.948867E-1	1.007570E+0
5.595110E+2	1.007097E+0	1.006383E+0	9.978584E-1	1.005641E+0	1.018474E+0	1.018159E+0	1.021634E+0	1.021497E+0	1.035309E+0	1.000536E+0	1.008354E+0	9.794603E-1	1.033921E+0	9.862055E-1	1.014462E+0	1.011906E+0	1.016839E+0	1.014872E+0	1.015182E+0	1.020702E+0	1.003244E+0	1.007884E+0	1.003681E+0	9.768239E-1	1.022113E+0	9.782414E-1	1.002504E+0	1.041602E+0	9.827135E-1	9.999219E-1	1.038971E+0	1.019864E+0	1.016661E+0	9.832886E-1	1.013113E+0	9.888618E-1	1.028128E+0	1.012854E+0	1.001127E+0	1.015343E+0	1.024748E+0	9.927716E-1	1.011883E+0	9.846534E-1	1.018607E+0	1.003385E+0	9.958555E-1	9.811435E-1	1.007438E+0	9.923391E-1	9.759285E-1	9.935975E-1	1.015823E+0	9.846145E-1	9.760680E-1	1.018591E+0	1.031941E+0	9.904836E-1	1.058731E+0	1.058853E+0	1.035913E+0	9.957926E-1	1.013441E+0	1.009928E+0	1.005117E+0	9.905302E-1	9.934109E-1	1.018740E+0	1.032705E+0	1.028796E+0	1.004177E+0	9.896102E-1	1.003883E+0	9.877368E-1	9.702679E-1	1.017406E+0	1.011951E+0	1.018945E+0	1.038294E+0	9.949364E-1	1.008381E+0	9.880851E-1	9.991392E-1	1.042975E+0	1.044058E+0	9.736729E-1	1.016985E+0	9.992831E-1	9.968446E-1	9.747697E-1	1.000323E+0	9.807114E-1	9.698982E-1	9.900875E-1	9.936191E-1	1.022625E+0	1.050818E+0	1.054941E+0	9.945862E-1	9.493266E-1	1.010895E+0	9.888023E-1	1.019203E+0	9.767408E-1	1.009395E+0	1.021188E+0	1.031879E+0	1.003272E+0	1.014903E+0	9.933713E-1	1.047324E+0	9.900803E-1	1.018548E+0	9.845115E-1	1.040968E+0	9.520678E-1	1.018819E+0	1.028598E+0	1.014460E+0	1.018376E+0	1.007237E+0	1.006755E+0	1.027074E+0	9.965179E-1	9.967052E-1	9.761708E-1	9.813787E-1	1.017873E+0	1.002756E+0	1.046341E+0	9.703203E-1	1.005788E+0	1.003885E+0	1.026579E+0	9.905923E-1	1.033972E+0	9.785425E-1	1.027952E+0	9.887642E-1	1.027250E+0	9.977013E-1	1.007511E+0	1.022799E+0	1.071018E+0	1.018689E+0	1.024230E+0	1.017708E+0	1.027351E+0	9.889689E-1	1.021812E+0	1.004478E+0	1.041989E+0	1.010333E+0	1.034466E+0	1.010955E+0	1.021466E+0	9.981453E-1	1.035746E+0	9.734982E-1	1.012220E+0	9.694021E-1	9.917658E-1	1.025303E+0	1.012452E+0	9.906806E-1	9.929407E-1	1.007871E+0	1.027840E+0	1.001048E+0	9.730674E-1	1.051987E+0
5.600240E+2	9.664444E-1	9.948989E-1	1.018416E+0	9.700323E-1	9.764195E-1	1.000330E+0	1.016769E+0	9.923422E-1	1.008007E+0	1.038257E+0	1.004905E+0	1.027676E+0	9.980935E-1	1.001535E+0	9.918757E-1	9.616473E-1	9.869960E-1	9.885477E-1	9.870051E-1	1.011124E+0	1.015056E+0	1.010878E+0	1.009491E+0	9.981869E-1	1.035531E+0	1.027485E+0	1.013205E+0	9.503421E-1	1.017534E+0	1.007789E+0	1.012470E+0	9.920638E-1	9.852172E-1	9.986530E-1	9.917331E-1	1.024429E+0	9.806052E-1	1.010855E+0	9.791739E-1	9.892701E-1	1.003196E+0	1.034450E+0	1.008993E+0	1.019800E+0	9.757244E-1	9.844158E-1	9.628707E-1	1.015145E+0	9.808248E-1	1.000314E+0	9.713918E-1	9.936531E-1	1.001169E+0	1.013391E+0	9.751718E-1	9.996430E-1	1.022913E+0	1.014403E+0	1.011734E+0	9.844511E-1	1.011832E+0	1.002337E+0	9.966583E-1	1.000196E+0	9.984760E-1	1.020817E+0	1.024340E+0	1.029887E+0	1.031635E+0	9.951664E-1	9.804327E-1	9.676199E-1	1.012711E+0	9.638240E-1	9.526146E-1	1.018546E+0	9.756244E-1	9.814918E-1	9.849177E-1	1.004308E+0	1.001191E+0	9.974636E-1	1.015149E+0	1.020576E+0	9.874906E-1	1.027379E+0	1.017154E+0	9.930399E-1	1.001184E+0	1.029765E+0	1.018912E+0	1.020175E+0	1.014461E+0	1.026498E+0	9.514541E-1	1.025765E+0	9.729489E-1	1.030870E+0	1.021825E+0	1.030898E+0	9.805657E-1	9.902301E-1	9.851945E-1	9.795185E-1	1.018908E+0	1.021075E+0	9.546426E-1	9.917767E-1	1.015542E+0	9.810378E-1	9.954050E-1	1.003835E+0	1.016380E+0	9.946780E-1	9.734052E-1	1.001000E+0	1.028112E+0	1.007908E+0	1.031503E+0	1.002597E+0	9.939845E-1	9.896167E-1	1.006897E+0	9.798134E-1	1.003704E+0	9.951372E-1	9.667459E-1	9.740470E-1	9.925634E-1	9.676844E-1	9.722126E-1	1.019374E+0	1.001829E+0	9.862940E-1	1.022469E+0	9.955559E-1	9.917098E-1	9.988469E-1	9.832970E-1	1.015878E+0	1.013108E+0	9.788680E-1	9.642086E-1	9.549054E-1	1.033357E+0	9.854036E-1	1.003254E+0	1.006238E+0	1.003410E+0	9.769111E-1	1.046470E+0	1.000827E+0	1.001896E+0	9.649525E-1	9.549846E-1	9.681821E-1	9.862739E-1	1.025316E+0	9.950064E-1	1.011024E+0	1.003390E+0	9.836923E-1	9.906677E-1	9.881318E-1	9.966422E-1	1.045264E+0	9.653664E-1	9.915569E-1	1.086895E+0	1.030073E+0	1.004669E+0
5.605150E+2	9.915502E-1	9.608456E-1	9.962109E-1	9.958048E-1	9.953543E-1	9.897480E-1	9.877170E-1	1.004142E+0	9.595013E-1	1.011027E+0	9.706249E-1	9.889592E-1	9.437968E-1	9.819329E-1	9.794199E-1	1.044056E+0	1.004881E+0	9.842318E-1	1.011724E+0	9.948126E-1	9.927730E-1	1.033359E+0	9.964251E-1	1.005062E+0	9.828596E-1	9.888700E-1	1.005590E+0	1.005093E+0	9.991840E-1	9.870838E-1	9.981549E-1	9.856205E-1	9.868253E-1	1.014022E+0	9.864283E-1	1.065864E+0	9.869695E-1	9.947800E-1	1.002647E+0	9.714180E-1	9.831020E-1	9.587442E-1	9.433553E-1	9.904516E-1	9.663657E-1	1.003421E+0	1.010210E+0	9.919640E-1	9.936289E-1	1.034647E+0	1.023084E+0	1.007041E+0	1.053832E+0	9.852159E-1	9.930374E-1	1.021186E+0	9.945040E-1	9.742055E-1	9.364946E-1	1.007601E+0	9.501383E-1	1.000892E+0	1.017405E+0	9.923093E-1	9.974467E-1	9.800282E-1	9.776982E-1	9.604591E-1	9.971877E-1	9.757231E-1	1.011643E+0	1.014760E+0	9.823256E-1	1.038055E+0	9.941352E-1	9.635932E-1	9.654494E-1	1.005223E+0	9.780542E-1	9.801351E-1	9.594316E-1	9.932586E-1	1.019975E+0	9.846192E-1	9.980746E-1	1.019353E+0	9.829740E-1	1.030515E+0	1.023469E+0	9.915981E-1	9.854183E-1	9.566424E-1	9.701527E-1	1.022616E+0	1.025814E+0	9.966058E-1	1.009437E+0	9.826378E-1	9.935166E-1	9.438159E-1	1.023874E+0	1.005348E+0	9.797765E-1	1.030734E+0	9.473303E-1	9.877915E-1	1.043601E+0	1.000903E+0	9.933144E-1	9.771859E-1	9.826359E-1	1.019568E+0	9.638928E-1	9.997476E-1	1.004303E+0	1.011764E+0	1.008310E+0	9.761005E-1	9.654229E-1	9.987183E-1	1.027009E+0	1.007942E+0	9.976903E-1	9.788695E-1	1.011960E+0	9.960604E-1	9.642784E-1	1.018499E+0	9.765717E-1	9.866083E-1	9.987049E-1	9.764397E-1	9.667491E-1	9.785167E-1	1.002635E+0	1.027019E+0	1.024838E+0	1.028304E+0	9.660600E-1	9.684739E-1	9.903992E-1	9.744700E-1	9.584613E-1	9.777025E-1	9.669154E-1	9.546045E-1	9.904682E-1	9.654911E-1	1.000551E+0	1.010413E+0	9.787241E-1	9.906667E-1	9.596502E-1	9.872614E-1	1.035254E+0	9.786287E-1	9.826682E-1	9.445026E-1	9.914642E-1	9.836736E-1	1.010011E+0	9.619098E-1	9.851652E-1	1.008170E+0	9.930498E-1	1.016166E+0	9.671429E-1	9.597363E-1	9.879115E-1	1.017667E+0	9.654704E-1
5.610010E+2	9.820517E-1	9.894256E-1	9.980256E-1	9.917384E-1	9.912969E-1	9.749705E-1	9.996512E-1	9.901414E-1	1.009448E+0	9.997400E-1	1.046628E+0	9.623142E-1	1.009321E+0	1.005802E+0	9.637545E-1	9.949556E-1	9.954937E-1	9.837269E-1	9.887109E-1	9.747704E-1	1.042274E+0	9.767403E-1	9.823926E-1	9.949028E-1	1.018252E+0	9.890876E-1	9.850541E-1	1.007828E+0	9.777502E-1	1.004742E+0	9.985388E-1	9.890195E-1	9.848539E-1	1.013720E+0	1.004311E+0	1.000126E+0	9.789650E-1	9.863291E-1	9.863384E-1	1.016417E+0	9.980406E-1	9.684774E-1	9.877443E-1	1.013951E+0	1.007171E+0	9.917120E-1	1.010525E+0	9.856460E-1	1.028051E+0	1.023796E+0	9.783974E-1	1.002148E+0	9.758175E-1	1.039813E+0	1.024894E+0	9.831344E-1	9.351816E-1	9.795660E-1	9.939545E-1	9.981653E-1	9.896034E-1	9.905775E-1	1.000802E+0	1.006491E+0	9.776083E-1	1.017661E+0	1.018048E+0	1.014393E+0	9.844056E-1	9.727621E-1	1.015606E+0	1.026620E+0	9.929189E-1	9.935800E-1	1.004790E+0	9.942087E-1	9.886204E-1	1.035676E+0	1.000597E+0	1.010767E+0	9.574072E-1	9.657625E-1	1.050520E+0	9.839992E-1	9.980985E-1	1.000940E+0	9.759537E-1	1.003830E+0	9.879469E-1	9.887020E-1	9.678913E-1	9.820658E-1	1.002914E+0	9.823990E-1	1.014896E+0	9.934500E-1	9.537724E-1	9.503181E-1	9.941055E-1	1.012953E+0	9.917886E-1	1.024825E+0	9.631386E-1	1.029171E+0	1.000424E+0	1.013152E+0	9.547183E-1	1.007278E+0	1.022717E+0	1.016278E+0	9.772813E-1	1.025752E+0	9.571429E-1	1.035688E+0	9.940000E-1	1.039177E+0	9.874236E-1	9.971526E-1	9.780409E-1	9.911703E-1	9.884031E-1	9.748067E-1	9.936575E-1	9.852085E-1	9.728729E-1	9.759787E-1	1.033239E+0	1.011348E+0	1.026741E+0	1.004718E+0	9.985173E-1	9.815919E-1	1.003286E+0	9.635549E-1	1.000066E+0	9.904187E-1	9.882950E-1	1.016608E+0	1.007164E+0	9.879453E-1	9.848965E-1	9.961483E-1	1.041103E+0	9.998687E-1	9.815974E-1	9.917341E-1	9.925643E-1	1.023775E+0	9.943046E-1	9.741370E-1	1.013229E+0	1.017282E+0	9.766010E-1	1.012245E+0	9.738763E-1	1.011090E+0	9.966726E-1	9.946924E-1	1.011069E+0	1.002634E+0	9.930686E-1	1.033618E+0	9.785467E-1	1.013896E+0	9.855463E-1	9.484229E-1	1.022229E+0	1.017497E+0	9.713621E-1	1.015401E+0	9.995449E-1
