Photon Energy (eV)	#1	#2	#3	#4	#5	#6	#7	#8	#9	#10	#11	#12	#13	#14	#15	#16	#17	#18	#19	#20	#21	#22	#23	#24	#25	#26	#27	#28	#29	#30	#31	#32	#33	#34	#35	#36	#37	#38	#39	#40	#41	#42	#43	#44	#45	#46	#47	#48	#49	#50	#51	#52	#53	#54	#55	#56	#57	#58	#59	#60	#61	#62	#63	#64	#65	#66	#67	#68	#69	#70	#71	#72	#73	#74	#75	#76	#77	#78	#79	#80	#81	#82	#83	#84	#85	#86	#87	#88	#89	#90	#91	#92	#93	#94	#95	#96	#97	#98	#99	#100	#101	#102	#103	#104	#105	#106	#107	#108	#109	#110	#111	#112	#113	#114	#115	#116	#117	#118	#119	#120	#121	#122	#123	#124	#125	#126	#127	#128	#129	#130	#131	#132	#133	#134	#135	#136	#137	#138	#139	#140	#141	#142	#143	#144	#145	#146	#147	#148	#149	#150	#151	#152	#153	#154	#155	#156	#157	#158	#159	#160	#161	#162	#163	#164	#165	#166	#167	#168	#169	#170	#171	
5.300160E+2	-4.625620E-3	-5.883677E-3	-7.029388E-3	-1.195791E-2	-8.066305E-3	1.188530E-3	-1.278574E-3	-7.100668E-3	-2.786207E-3	-9.079580E-3	-1.279029E-3	-1.053666E-2	-6.019008E-3	-2.024045E-3	-3.903618E-4	-2.482657E-3	-2.017980E-4	-2.858504E-3	-6.277970E-3	-2.391178E-3	-1.247597E-2	2.078729E-3	-5.195215E-3	-3.983719E-3	-1.213664E-3	4.127314E-4	-2.674251E-3	-2.058220E-3	-4.686723E-4	-1.840026E-3	-9.948865E-3	-8.106838E-3	-2.874899E-3	-8.339889E-3	-6.375839E-3	-5.674666E-3	-2.632999E-3	1.204381E-3	-3.564064E-3	-2.379772E-3	-8.486502E-3	-3.090727E-3	-7.431348E-3	-7.948719E-3	-8.120955E-3	-2.830803E-3	-4.244756E-4	-9.593825E-3	-3.567296E-3	-6.018652E-3	-9.071168E-3	3.128103E-3	-7.744803E-3	-3.992272E-3	-1.895011E-4	-6.173441E-3	7.249975E-4	-4.922665E-3	-7.996285E-3	-9.105268E-5	-6.325243E-3	-2.072517E-3	1.407331E-3	-5.620134E-3	-1.993731E-3	-1.317371E-2	-1.425211E-2	-1.156086E-2	-8.906376E-3	-2.684379E-3	-2.475463E-3	-7.735562E-3	-6.995538E-3	-7.115905E-3	-2.107014E-3	-1.727889E-3	-2.184882E-3	-9.623532E-3	-3.935416E-4	9.597650E-4	-9.505979E-4	-8.948602E-3	1.181478E-4	-3.014012E-3	-5.799001E-3	1.279352E-3	-3.962990E-3	-5.217240E-4	-9.949162E-3	-2.675973E-4	-1.200196E-2	-1.311515E-4	-9.826692E-3	-1.841339E-3	-4.544063E-3	-2.569496E-3	-3.362698E-3	-1.350025E-3	-1.329851E-3	6.814110E-5	-3.705266E-3	5.318722E-3	-7.177071E-3	-2.305541E-3	-6.806633E-4	-7.647656E-3	-7.917921E-3	-3.715348E-3	-5.127106E-3	-9.579481E-3	-2.620399E-3	-9.775590E-3	-9.817709E-3	-1.662298E-2	-4.929676E-3	4.088018E-4	-7.598015E-4	-4.381281E-3	-6.611461E-3	-3.975809E-3	-8.312111E-3	-5.483849E-3	-8.418158E-3	9.469004E-5	-8.374895E-3	-6.948075E-3	-8.198895E-3	-7.104520E-3	-1.019658E-2	-2.642718E-3	-8.513004E-3	-1.012468E-2	-4.574737E-3	-1.339712E-2	-6.604726E-3	7.554215E-3	-5.245679E-3	-7.117736E-3	-5.098835E-3	-7.377498E-3	-9.257526E-3	1.070884E-3	-4.408251E-3	-3.782088E-3	-7.397845E-3	2.338209E-5	-5.391129E-3	-3.717357E-3	5.504977E-3	-4.394295E-3	-8.348480E-3	-5.760849E-3	4.359177E-3	-8.106817E-4	-6.967574E-3	-6.175179E-3	-8.024542E-3	-5.962112E-3	-1.104941E-2	-1.377212E-3	-5.904564E-3	-1.393495E-2	-1.668885E-2	-3.714582E-3	1.050426E-3	-1.015882E-2	-3.495857E-3	-1.071562E-2	3.428259E-3	-9.806200E-3	-8.784146E-3
5.305130E+2	-8.646805E-3	-1.255952E-2	-1.315745E-3	5.006556E-4	-4.384896E-3	-5.837017E-3	-5.386704E-3	-2.796336E-3	-5.158670E-3	-5.038932E-3	-4.787287E-3	1.908091E-3	-3.989497E-3	-4.607625E-3	-1.672749E-3	-3.662483E-3	-1.033880E-2	9.157107E-4	-1.316703E-2	-5.189333E-3	-9.656134E-3	-1.217174E-2	-6.622885E-3	-7.608760E-3	-7.323208E-3	-1.013985E-2	-5.059453E-4	-8.915102E-3	-6.477828E-3	-2.119015E-3	-6.728301E-4	4.857012E-3	-8.311160E-3	-7.892979E-3	2.023353E-3	-4.778485E-4	-5.460031E-3	-3.949396E-3	-9.188274E-3	-1.177641E-2	-5.979444E-3	-7.870235E-3	-3.152329E-3	-4.531847E-3	-3.263450E-3	5.149627E-3	-5.463324E-3	-3.986652E-3	-8.512014E-3	-3.026493E-3	-8.128036E-3	-9.481125E-4	-6.061440E-3	-3.289251E-3	-1.455209E-2	-5.332168E-3	-5.031717E-3	-5.048402E-3	-4.600062E-3	-7.346474E-3	-8.388027E-3	-1.444930E-3	2.126314E-3	-2.738337E-3	1.559808E-3	2.088371E-3	-9.838553E-3	-4.535800E-4	1.579986E-3	-6.362596E-3	-5.415230E-3	-9.188376E-3	-5.426469E-3	-3.952971E-3	-2.821956E-3	-2.917596E-3	-3.870413E-3	-6.717637E-3	-7.893847E-3	-8.561882E-3	-2.181161E-3	-9.544045E-4	-1.157618E-3	-1.130308E-2	-1.861537E-2	-8.339227E-3	2.013294E-3	-3.349941E-3	-3.104140E-3	-6.903298E-3	-5.384676E-3	-2.911580E-3	-1.096344E-2	-4.083982E-3	-7.360963E-3	-3.717689E-4	-4.101556E-3	-8.774443E-3	-5.938990E-3	-2.847741E-3	-1.058854E-4	-6.987225E-3	-8.698878E-3	-7.478074E-3	-3.650641E-3	-1.894884E-4	4.109975E-3	-4.989164E-3	3.889896E-3	-1.203190E-3	3.363248E-4	-1.023052E-3	-8.237632E-3	-1.075191E-3	-2.225115E-3	-7.353097E-3	-9.076447E-3	-2.988602E-3	-2.751102E-4	-3.246132E-3	-1.015489E-2	-2.403155E-3	-6.821243E-3	-7.465518E-3	-2.563648E-3	-3.455004E-3	-1.213437E-2	-1.404637E-3	-3.239270E-3	-1.605422E-3	-9.734155E-3	-3.983741E-3	-9.891279E-3	3.764272E-3	5.492837E-4	-4.453612E-3	-6.989160E-3	-6.608605E-3	-1.060734E-2	1.256671E-3	4.690511E-4	-5.428321E-3	-6.723123E-3	-8.609060E-3	-3.625673E-3	-1.088596E-2	-7.219215E-3	-8.059187E-3	-3.698381E-3	-5.488095E-3	-8.459960E-3	-5.046756E-3	-1.053799E-2	-1.071098E-2	6.317795E-4	-1.913638E-3	-3.665585E-3	-8.717798E-3	-7.286380E-3	-4.943446E-3	-8.303535E-3	-1.566609E-2	-8.691405E-4	-1.688460E-3	-4.546812E-3	-2.385195E-3	-1.062052E-2	-4.777539E-3	-1.183980E-2	3.163063E-3	1.756819E-3
5.310000E+2	-6.179805E-3	-1.021094E-3	-3.409256E-3	-3.635790E-3	-7.241150E-3	-9.534670E-3	-6.376655E-3	-6.310076E-3	-7.357112E-3	-4.534887E-3	-7.528157E-3	-6.061836E-3	-6.227972E-3	-5.999982E-3	-4.437286E-3	1.646882E-3	-8.781919E-3	-4.817258E-3	2.509736E-3	3.900128E-3	-1.639619E-3	-6.738268E-3	-4.040193E-3	-2.409513E-3	-1.462289E-3	-3.854041E-3	-5.709860E-3	-1.142824E-3	-6.033799E-3	-4.510369E-3	-4.108381E-3	-1.103384E-3	-3.083982E-3	-3.229059E-3	-2.251963E-3	1.134948E-3	-8.930607E-3	-6.130846E-3	3.528746E-3	-2.204240E-3	-6.498116E-3	-4.429022E-3	-5.849145E-3	-1.146189E-2	-1.905803E-3	-6.065240E-3	-5.933545E-3	3.171413E-3	-5.891147E-3	-9.217139E-3	-6.541524E-3	-6.323383E-3	-8.938632E-4	6.244899E-4	-3.819502E-4	-3.861964E-3	-6.697622E-3	2.492764E-3	-1.730025E-3	2.199666E-4	-7.420254E-4	-5.163842E-3	-6.902881E-3	-8.576790E-3	-5.301043E-3	-9.385469E-3	2.850423E-3	4.333299E-3	5.732046E-4	-7.689425E-3	1.256898E-4	-1.847865E-3	-1.896011E-3	-6.103376E-3	-5.437520E-3	1.161363E-3	3.152494E-3	-6.215171E-3	-4.531964E-3	-7.759110E-4	1.052388E-3	-2.669478E-3	-9.095604E-3	-5.891294E-3	-2.682743E-3	-5.519465E-3	4.556363E-3	-5.077083E-3	-2.573499E-3	-6.903282E-3	-5.983499E-3	7.606997E-4	2.779748E-3	4.820487E-3	-2.192341E-3	-1.847850E-3	3.855260E-3	4.220453E-3	-1.128813E-2	-2.302740E-3	-2.458397E-3	1.846008E-3	3.341869E-3	5.152403E-3	-4.764354E-3	8.848726E-4	-9.620443E-3	-1.055268E-3	1.117838E-3	-7.743262E-3	-5.295531E-3	-4.001227E-3	-3.247919E-3	6.654166E-3	-5.665579E-3	-5.621833E-3	-1.002783E-2	-6.122199E-3	-2.937416E-3	-3.727253E-3	-3.134697E-3	-7.625445E-4	-9.001335E-4	-4.319082E-3	-3.572826E-3	-3.455026E-3	3.716832E-3	-8.712175E-3	6.994737E-3	-5.162024E-3	-3.181805E-3	-5.826071E-4	-5.215459E-3	-3.038794E-4	-2.344504E-3	-3.438865E-3	-4.236323E-3	5.269954E-3	-9.181192E-4	-6.948933E-3	1.456527E-3	-5.428331E-3	-3.026341E-3	2.588832E-3	-7.894208E-4	-1.350800E-3	-3.809305E-3	-1.516690E-3	-8.373630E-3	-5.904153E-4	6.185203E-4	2.701915E-3	-1.170261E-2	-9.566458E-3	-4.265177E-3	-4.085123E-3	-6.822891E-4	-1.175152E-2	3.372667E-3	-3.045683E-3	-4.956108E-3	5.819197E-4	-1.296404E-2	4.125678E-3	-2.431317E-3	-1.333567E-3	-7.859600E-3	3.488758E-4	-1.390536E-2	-1.035701E-2	-1.029339E-3
5.315130E+2	5.661743E-3	-6.515551E-3	6.011676E-3	4.046136E-3	-2.004662E-3	6.312440E-3	2.532515E-3	7.173765E-4	3.635021E-3	5.545752E-3	-2.594674E-3	9.118399E-4	3.980759E-5	4.976337E-4	-7.662559E-3	-1.450228E-3	5.229946E-3	-4.243950E-3	-6.255991E-4	-5.724003E-3	7.642609E-3	3.140674E-3	2.846924E-3	4.522889E-3	1.361852E-4	3.574671E-3	4.402411E-4	-1.064664E-4	-5.145778E-3	-2.119024E-3	2.762815E-3	1.025307E-3	-2.561277E-3	-1.255678E-2	-1.717572E-3	5.971959E-5	-2.423332E-3	-6.771881E-4	2.166159E-3	2.581870E-3	-2.737674E-4	2.453481E-3	-1.534224E-3	8.173334E-3	-3.716027E-3	-2.164405E-3	1.789394E-4	-5.328792E-3	-6.939458E-3	4.195831E-3	5.621878E-3	-4.106382E-4	-3.242772E-3	3.233677E-3	-1.431591E-3	2.018773E-3	-2.810490E-3	-6.664332E-3	-2.878011E-3	2.237699E-3	1.647331E-3	3.668544E-3	-6.401277E-3	4.896559E-3	1.559821E-3	-1.189853E-3	1.002244E-2	-4.535898E-4	-2.950155E-3	2.925186E-3	-8.185686E-3	3.657517E-3	-4.249635E-3	-3.415334E-3	-7.530045E-3	-1.897856E-3	-4.338575E-3	3.834036E-3	-6.453029E-3	-3.695653E-3	5.134946E-4	-3.241164E-3	-2.858627E-3	1.685182E-3	-8.083585E-4	5.289691E-3	-8.667734E-3	-4.645312E-3	9.100208E-3	3.264345E-3	8.388885E-3	-2.911625E-3	-7.833352E-4	-3.094600E-3	3.493102E-3	-1.267257E-2	-6.374913E-3	-3.576496E-3	4.799329E-4	-1.226511E-4	-5.764044E-4	-6.467568E-3	4.846954E-3	-3.869319E-3	3.031894E-3	-2.338332E-3	-7.423615E-3	-6.113110E-3	-9.970563E-3	-1.970427E-4	-5.295557E-3	-5.490343E-3	1.187354E-3	-4.642538E-3	-3.371885E-3	-4.279907E-4	-3.829877E-5	-6.644493E-3	-2.404945E-3	-8.406106E-4	7.395581E-3	-1.309438E-3	1.253016E-3	4.071435E-3	-4.582034E-3	-6.087976E-3	9.729360E-3	1.518340E-3	1.069776E-3	1.728827E-4	5.753115E-3	7.920252E-3	-2.617884E-3	3.764258E-3	4.889946E-3	-2.931491E-3	-1.483475E-3	-4.346056E-3	8.232875E-3	-2.025586E-3	1.950240E-3	2.337409E-3	7.535797E-3	-3.519174E-3	-1.326889E-2	-3.594359E-3	1.689453E-4	-4.490545E-3	-6.295723E-3	-7.936936E-3	1.406874E-4	-5.046753E-3	-3.550403E-3	-2.126952E-3	-4.564540E-4	-6.256603E-3	-1.676745E-3	8.890752E-4	3.372711E-3	4.071028E-3	7.875807E-3	-5.801282E-3	-8.691276E-4	4.257890E-4	3.386247E-3	-1.859362E-3	-3.706530E-5	4.834514E-3	-3.577481E-3	-8.854817E-3	7.329169E-3
5.320170E+2	7.277761E-4	1.271518E-2	7.777888E-4	-9.027755E-5	2.755744E-3	-5.308767E-3	2.037529E-3	5.109552E-3	4.734266E-3	3.025601E-3	1.220579E-2	6.889285E-3	4.875293E-4	7.459356E-3	4.316985E-3	-4.104917E-3	1.597209E-3	-2.309158E-4	4.077383E-3	-3.585263E-3	4.267238E-3	1.164901E-3	2.846937E-3	3.656368E-3	-1.995060E-3	2.431790E-3	-1.452126E-3	4.556857E-3	8.174993E-3	3.141969E-3	4.480554E-3	5.996074E-4	8.938360E-3	1.076252E-2	-4.923971E-3	-4.241094E-3	-1.555696E-3	7.503382E-3	1.257793E-3	4.496261E-3	-3.385959E-3	1.306421E-3	1.087132E-2	4.130750E-3	6.240314E-3	-3.627224E-3	3.470261E-3	4.871316E-4	9.309927E-3	7.807040E-3	9.852659E-3	7.114730E-3	1.038076E-2	3.233691E-3	1.011441E-2	3.488960E-3	2.742561E-3	1.954117E-3	4.010150E-3	1.733295E-3	9.771243E-3	-5.152260E-4	3.631192E-3	-2.289237E-3	-5.512294E-4	8.644822E-3	6.436516E-4	-4.535768E-4	-3.453520E-3	3.809693E-3	7.975339E-3	4.575066E-3	1.046077E-3	1.701397E-2	3.455503E-3	2.690986E-3	-1.529439E-3	1.036610E-2	7.474944E-3	-2.235751E-3	-3.259080E-3	1.448129E-2	5.646348E-3	4.932189E-3	7.626524E-3	-1.759756E-3	-5.298003E-4	9.679157E-4	-3.104175E-3	-7.973564E-3	6.038439E-4	-1.862391E-3	-7.832824E-4	-2.105163E-3	5.043686E-3	9.960931E-3	1.581897E-3	1.101689E-3	8.503609E-3	-1.226577E-4	-5.763843E-4	8.081241E-3	2.338455E-3	1.904459E-4	-3.650648E-3	4.645292E-3	5.208416E-3	4.564550E-3	5.738006E-3	1.439228E-2	6.437591E-3	5.429618E-3	5.068261E-3	2.492206E-3	5.229119E-3	5.342874E-3	3.291515E-3	1.372421E-2	2.387228E-3	3.008267E-3	2.130426E-3	3.311223E-4	7.174118E-3	3.547030E-3	6.519103E-3	-3.981599E-3	2.623646E-3	4.928482E-3	3.224315E-3	-1.605375E-3	9.878004E-4	1.117954E-3	1.504616E-2	1.504204E-3	-3.791376E-3	-1.409385E-3	1.819929E-3	2.441697E-3	-1.456365E-3	5.085995E-3	2.443986E-3	4.001567E-3	-4.082539E-3	1.022368E-2	1.225730E-2	8.745227E-3	8.693674E-3	-2.111435E-3	1.496395E-3	-3.039263E-3	1.017475E-2	3.613508E-3	6.930998E-3	5.884876E-3	5.528722E-3	-8.279013E-4	9.262027E-3	9.484628E-3	3.857204E-3	2.173202E-3	-4.398202E-3	1.566936E-2	2.121718E-2	-5.916883E-3	-1.373603E-3	-2.911045E-3	1.100653E-2	-2.919480E-4	1.707835E-2	1.518080E-2	-9.387847E-3
5.325170E+2	1.306271E-2	1.326465E-2	4.964923E-3	1.113718E-2	1.894127E-2	1.317948E-2	8.471889E-3	1.038015E-2	6.932701E-3	1.008205E-2	3.983357E-3	6.889276E-3	1.570914E-2	4.674661E-3	9.845971E-3	1.005340E-2	1.249537E-2	1.123492E-2	1.348348E-2	1.298965E-2	1.186187E-2	1.252570E-2	1.016443E-2	5.822735E-3	1.185804E-2	7.574698E-3	9.901941E-3	7.665755E-3	9.951083E-3	7.446464E-3	7.486706E-3	2.728296E-3	7.892958E-3	2.125619E-2	1.324599E-2	9.198941E-3	2.100266E-2	2.049667E-3	5.799640E-3	9.282289E-3	2.462379E-2	1.163008E-2	7.095726E-3	1.163837E-2	1.076592E-2	9.538046E-3	8.172145E-3	1.525072E-2	1.559999E-2	6.259413E-3	8.266192E-3	-2.560699E-3	7.562123E-3	1.896660E-4	6.440718E-3	9.859840E-3	1.107227E-2	1.218852E-2	1.319423E-2	3.246566E-3	4.036720E-3	5.527971E-3	6.139321E-3	1.432794E-2	4.726375E-3	1.301584E-2	1.057415E-2	8.588303E-3	1.315686E-2	1.000152E-2	7.975351E-3	1.053922E-2	1.752158E-2	3.573620E-3	1.444103E-2	2.690992E-3	8.770815E-3	8.356209E-3	1.179744E-2	1.430943E-2	4.824956E-3	1.332355E-3	7.347354E-3	1.359102E-2	2.027895E-2	9.049405E-3	6.590866E-3	1.262614E-2	9.630768E-3	1.878340E-2	1.437741E-2	7.056047E-3	1.957700E-2	6.304597E-3	5.560580E-3	7.500752E-3	8.402011E-3	8.378821E-3	9.573425E-3	5.327648E-3	7.422337E-3	-1.791179E-3	5.348672E-3	8.310085E-3	9.714413E-3	4.645312E-3	1.564359E-2	1.130834E-2	4.351929E-3	4.330691E-3	6.437571E-3	1.486059E-2	1.504764E-2	1.319434E-2	1.096314E-2	7.651245E-3	1.661086E-2	6.412367E-3	9.841705E-3	8.781537E-3	1.207569E-2	9.627864E-3	7.712400E-3	4.071445E-3	1.257430E-2	2.392768E-2	4.263431E-3	1.077451E-2	2.147022E-3	1.084266E-2	1.468805E-2	5.652819E-3	7.253197E-3	4.668267E-3	7.301376E-3	4.679138E-3	1.613471E-2	1.036075E-2	9.847788E-3	1.000935E-2	2.937722E-3	3.446793E-3	1.070446E-2	3.097810E-3	1.282453E-2	7.062511E-3	7.557030E-3	1.989521E-2	1.136636E-2	2.144900E-2	5.874481E-3	9.538936E-3	1.450083E-2	1.733020E-2	5.528703E-3	1.925844E-2	4.787134E-3	1.605773E-2	7.733209E-3	3.122111E-3	1.568660E-2	1.915105E-2	1.017398E-2	6.768458E-3	3.915059E-3	1.864799E-2	1.100651E-2	1.060172E-2	8.816032E-3	1.067416E-2	1.011534E-2
5.330230E+2	2.687787E-2	1.820974E-2	1.543265E-2	1.822824E-2	2.798610E-2	2.585718E-2	1.936079E-2	1.565077E-2	2.342101E-2	2.419491E-2	1.439849E-2	1.934231E-2	2.734920E-2	1.813395E-2	3.011902E-2	3.173342E-2	1.664705E-2	1.524796E-2	2.027675E-2	2.100974E-2	1.734681E-2	1.400759E-2	2.307778E-2	2.098726E-2	2.730970E-2	2.186069E-2	1.605202E-2	2.994630E-2	2.371588E-2	1.844675E-2	3.840685E-2	2.060945E-2	2.827870E-2	1.434783E-3	3.622572E-2	1.618777E-2	3.835526E-2	2.113763E-2	2.987121E-2	2.411915E-2	1.580594E-2	8.762401E-3	1.950126E-2	3.011853E-2	3.203628E-2	2.514136E-2	2.603925E-2	1.390860E-2	3.551866E-2	2.895832E-2	1.884302E-2	2.754069E-2	2.635320E-2	2.584653E-2	2.848318E-2	2.652201E-2	1.884660E-2	1.595910E-2	2.180441E-2	1.837946E-2	3.318723E-2	1.993867E-2	1.466691E-2	2.735217E-2	2.425336E-2	2.448969E-2	1.719450E-2	1.709827E-2	2.775388E-2	2.105839E-2	2.967730E-2	1.466828E-2	1.693321E-2	2.507813E-2	2.176470E-2	2.053651E-2	2.000740E-2	3.197191E-2	3.340984E-2	1.479605E-2	4.470580E-2	1.448128E-2	2.379034E-2	2.008513E-2	2.074749E-2	1.985853E-2	3.303917E-2	2.126189E-2	2.024324E-2	1.450226E-2	2.336014E-2	1.754834E-2	2.670313E-2	2.411349E-2	2.468440E-2	1.881750E-2	1.806384E-2	2.397266E-2	1.920188E-2	1.568309E-2	3.282993E-2	1.171846E-2	2.290809E-2	2.500042E-2	2.530692E-2	3.043091E-2	2.113572E-2	2.479600E-2	8.972123E-3	3.451554E-2	2.051737E-2	2.578058E-2	2.669032E-2	2.924756E-2	3.676621E-2	3.073493E-2	2.802744E-2	2.051375E-2	2.954298E-2	1.647928E-2	1.734083E-2	2.220573E-2	1.847804E-2	2.347461E-2	1.812485E-2	2.024154E-2	1.027600E-2	2.879963E-2	1.453559E-2	3.218225E-2	2.540997E-2	1.925736E-2	3.063202E-2	2.546084E-2	2.080562E-2	1.888554E-2	1.998866E-2	1.827978E-2	2.438171E-2	1.821497E-2	8.862556E-3	3.450988E-2	2.337899E-2	3.618243E-2	2.643851E-2	2.332838E-2	1.778672E-2	1.573179E-2	3.578169E-2	2.487735E-2	1.590852E-2	2.321304E-2	1.857691E-2	3.106476E-2	1.913139E-2	1.654414E-2	2.467569E-2	2.313646E-2	2.275288E-2	2.020217E-2	2.628688E-2	1.044679E-2	2.594996E-2	2.579645E-2	1.978114E-2	2.811300E-2	1.698846E-2	2.405854E-2	2.637345E-2	2.870097E-2	1.568768E-2
5.331630E+2	3.082503E-2	1.766028E-2	2.642377E-2	3.359217E-2	3.512675E-2	2.797011E-2	2.183555E-2	2.267824E-2	3.386364E-2	2.016267E-2	2.919895E-2	2.382540E-2	2.869233E-2	3.066501E-2	3.518730E-2	2.509668E-2	2.650729E-2	2.098088E-2	3.804369E-2	2.849524E-2	2.578520E-2	1.499547E-2	3.297794E-2	3.485205E-2	2.730966E-2	3.443227E-2	3.166378E-2	3.305520E-2	3.170833E-2	3.709936E-2	2.509403E-2	2.955006E-2	1.573363E-2	2.417104E-2	2.233101E-2	2.640226E-2	3.141421E-2	3.259044E-2	3.305043E-2	2.699084E-2	3.551647E-2	2.654209E-2	2.435560E-2	3.820368E-2	3.701450E-2	2.806699E-2	3.074113E-2	2.240884E-2	2.346264E-2	2.534710E-2	4.052557E-2	3.829121E-2	3.715807E-2	3.019519E-2	3.530584E-2	2.505180E-2	2.495503E-2	2.350020E-2	2.754449E-2	2.342377E-2	3.031994E-2	4.643579E-2	2.018479E-2	2.555577E-2	2.689213E-2	3.049978E-2	2.712500E-2	2.720383E-2	3.379399E-2	3.919162E-2	2.967734E-2	3.072560E-2	1.634474E-2	2.615335E-2	3.379645E-2	2.308584E-2	3.779873E-2	2.644482E-2	2.956762E-2	2.890811E-2	2.961575E-2	4.420940E-2	2.095532E-2	2.603808E-2	3.293127E-2	1.938852E-2	1.828912E-2	1.737582E-2	3.350879E-2	2.520505E-2	5.210498E-2	2.122062E-2	3.484731E-2	2.708162E-2	1.331344E-2	2.472185E-2	2.829403E-2	3.176959E-2	3.043503E-2	1.949829E-2	2.530175E-2	1.795363E-2	3.795900E-2	2.906024E-2	4.591142E-2	2.935645E-2	3.486621E-2	3.153981E-2	4.316144E-2	3.501864E-2	4.210634E-2	2.677324E-2	2.114620E-2	2.924758E-2	2.357795E-2	3.362033E-2	4.039539E-2	2.208057E-2	2.688062E-2	3.379915E-2	2.845614E-2	2.384637E-2	2.386092E-2	1.823048E-2	2.619844E-2	4.130512E-2	2.066123E-2	3.610712E-2	2.099914E-2	1.854863E-2	3.136661E-2	1.869048E-2	2.595624E-2	1.868066E-2	2.369936E-2	3.055514E-2	4.256196E-2	2.846146E-2	3.514753E-2	2.204429E-2	4.589268E-2	2.119712E-2	3.235677E-2	2.854751E-2	2.870754E-2	2.220661E-2	2.062830E-2	2.167958E-2	3.162589E-2	3.614199E-2	2.642044E-2	2.366886E-2	3.080526E-2	3.793199E-2	3.491050E-2	2.740164E-2	3.859778E-2	2.515896E-2	3.825707E-2	2.494663E-2	3.186599E-2	3.946106E-2	4.119999E-2	2.896778E-2	4.093588E-2	2.075133E-2	3.125312E-2	2.405851E-2	5.322603E-2	5.123452E-2	2.683234E-2
5.333130E+2	3.230526E-2	2.755042E-2	3.375128E-2	3.891045E-2	3.988722E-2	3.113953E-2	3.717904E-2	3.146263E-2	4.320696E-2	3.931584E-2	2.810263E-2	3.528216E-2	3.496001E-2	3.901907E-2	3.196203E-2	3.394563E-2	4.000021E-2	3.130014E-2	3.856629E-2	5.041690E-2	3.464552E-2	4.710218E-2	2.436911E-2	1.578799E-2	5.288477E-2	3.214661E-2	3.308303E-2	4.134558E-2	5.657377E-2	3.375147E-2	4.441914E-2	4.657975E-2	3.977835E-2	3.991163E-2	3.569130E-2	4.844391E-2	4.225963E-2	4.022564E-2	4.440497E-2	5.139979E-2	3.084811E-2	2.711560E-2	3.460356E-2	5.552886E-2	3.475166E-2	4.123228E-2	5.378038E-2	3.314597E-2	2.870438E-2	3.669653E-2	3.788142E-2	5.011675E-2	3.809765E-2	2.367220E-2	3.110725E-2	3.828357E-2	5.272052E-2	3.319592E-2	4.591287E-2	3.855666E-2	4.131109E-2	3.388452E-2	4.927902E-2	3.363974E-2	2.900312E-2	2.995338E-2	3.043517E-2	4.262815E-2	5.141105E-2	2.503881E-2	2.690688E-2	4.632417E-2	3.046664E-2	2.400290E-2	4.949010E-2	1.798714E-2	4.107607E-2	3.548914E-2	3.004796E-2	4.253361E-2	4.093331E-2	4.992633E-2	3.626432E-2	3.199100E-2	3.246262E-2	3.254753E-2	2.235810E-2	3.205663E-2	4.783559E-2	2.574019E-2	3.294175E-2	2.069601E-2	3.739229E-2	2.658695E-2	4.070704E-2	3.899079E-2	3.170408E-2	3.332899E-2	3.578410E-2	2.821873E-2	4.082863E-2	5.536495E-2	3.846070E-2	3.402220E-2	4.813884E-2	2.667045E-2	3.651386E-2	4.558944E-2	2.883890E-2	4.155870E-2	2.474128E-2	3.272964E-2	3.722414E-2	3.519320E-2	3.275238E-2	3.823710E-2	4.277385E-2	2.573648E-2	3.540013E-2	2.995024E-2	3.781636E-2	3.259619E-2	2.924380E-2	2.976750E-2	3.174902E-2	3.867222E-2	3.104650E-2	2.733813E-2	3.715805E-2	3.988823E-2	3.136658E-2	3.342878E-2	2.751484E-2	2.636490E-2	3.334526E-2	2.649611E-2	4.421368E-2	2.902706E-2	3.891560E-2	2.477949E-2	4.638639E-2	4.393975E-2	4.027845E-2	3.974540E-2	3.891805E-2	2.108482E-2	2.972135E-2	2.703255E-2	5.032696E-2	4.006010E-2	3.645452E-2	3.779879E-2	3.546359E-2	3.278160E-2	2.130781E-2	2.957312E-2	4.903930E-2	3.122644E-2	3.535003E-2	3.253776E-2	3.967677E-2	3.888073E-2	3.751890E-2	3.213912E-2	4.305130E-2	4.020712E-2	3.401402E-2	3.943779E-2	4.599644E-2	4.522543E-2	6.305240E-2
5.334630E+2	5.204118E-2	4.788003E-2	4.369562E-2	5.072883E-2	5.369235E-2	4.276070E-2	4.658315E-2	3.805083E-2	3.386362E-2	4.032390E-2	3.632509E-2	4.873143E-2	4.839092E-2	4.783726E-2	4.255934E-2	4.943123E-2	4.518979E-2	4.792561E-2	6.782961E-2	4.827820E-2	5.742916E-2	4.117474E-2	4.718259E-2	5.608247E-2	5.341756E-2	6.128993E-2	5.153331E-2	4.808159E-2	5.834984E-2	5.144758E-2	4.527803E-2	4.870854E-2	4.814174E-2	3.932864E-2	4.584510E-2	5.489519E-2	4.876673E-2	3.913485E-2	3.940896E-2	5.331424E-2	4.122214E-2	3.457158E-2	3.891857E-2	5.148632E-2	3.882475E-2	4.513309E-2	4.437662E-2	5.327812E-2	4.285711E-2	5.681609E-2	4.845828E-2	4.151630E-2	5.594919E-2	3.193457E-2	4.737666E-2	5.200541E-2	5.105453E-2	5.474203E-2	3.730275E-2	4.965411E-2	4.800145E-2	4.550608E-2	4.426273E-2	4.846043E-2	4.536362E-2	5.454016E-2	4.422758E-2	4.901066E-2	4.386088E-2	4.715253E-2	3.937392E-2	4.724170E-2	3.752755E-2	5.088350E-2	5.367510E-2	3.430298E-2	4.107603E-2	4.403102E-2	3.581121E-2	4.788648E-2	5.602341E-2	4.878300E-2	5.214023E-2	4.119104E-2	4.698949E-2	4.241673E-2	5.643572E-2	4.932808E-2	6.057053E-2	4.714579E-2	4.970956E-2	4.115594E-2	4.859048E-2	4.489058E-2	6.293193E-2	4.391113E-2	5.159614E-2	3.592799E-2	4.755216E-2	3.911923E-2	5.588502E-2	4.185535E-2	3.996580E-2	4.755493E-2	5.203699E-2	5.138168E-2	5.958105E-2	4.109355E-2	4.316144E-2	6.520350E-2	7.073520E-2	6.300781E-2	5.551972E-2	5.243555E-2	5.970232E-2	4.862472E-2	5.276335E-2	4.349375E-2	5.137406E-2	4.438339E-2	5.302679E-2	5.283013E-2	3.355000E-2	4.392657E-2	4.587774E-2	4.762426E-2	5.291024E-2	5.705527E-2	4.523752E-2	5.411462E-2	4.089721E-2	4.760017E-2	5.608899E-2	4.715744E-2	4.540260E-2	4.780581E-2	5.137106E-2	3.411794E-2	5.075810E-2	4.939635E-2	3.898033E-2	6.169000E-2	3.446925E-2	7.130306E-2	6.728044E-2	5.305566E-2	3.824611E-2	4.130718E-2	7.370315E-2	5.573260E-2	4.505516E-2	4.737065E-2	5.992013E-2	4.994964E-2	4.416028E-2	4.314495E-2	5.202256E-2	3.476579E-2	5.133868E-2	5.436224E-2	4.525582E-2	4.294272E-2	4.119994E-2	3.848179E-2	6.420605E-2	6.334367E-2	4.505762E-2	3.815623E-2	4.806210E-2	5.874555E-2	4.354939E-2
5.336080E+2	6.289594E-2	6.271523E-2	4.526577E-2	5.900171E-2	5.988113E-2	6.758780E-2	5.450235E-2	4.990979E-2	6.299294E-2	6.199730E-2	5.989619E-2	5.072395E-2	5.331556E-2	6.176064E-2	7.573326E-2	5.252847E-2	6.646710E-2	4.505916E-2	6.103634E-2	5.469426E-2	7.304014E-2	5.549937E-2	5.794368E-2	4.915006E-2	6.194264E-2	6.700434E-2	7.424129E-2	7.191653E-2	5.346554E-2	6.340446E-2	6.116747E-2	6.531241E-2	6.225484E-2	7.663947E-2	7.310022E-2	8.338809E-2	7.956785E-2	6.749414E-2	7.528931E-2	7.533005E-2	6.923190E-2	5.579251E-2	6.966272E-2	7.400909E-2	6.190534E-2	8.365381E-2	6.929662E-2	6.848899E-2	6.539669E-2	6.352255E-2	5.586210E-2	5.656704E-2	6.581457E-2	5.063366E-2	6.364610E-2	6.915761E-2	7.659883E-2	6.066721E-2	5.050492E-2	5.974271E-2	6.616067E-2	5.991688E-2	6.232130E-2	7.450890E-2	5.116891E-2	7.420961E-2	6.629525E-2	6.390313E-2	7.255137E-2	5.599800E-2	5.553500E-2	6.972204E-2	5.047254E-2	6.324865E-2	6.256813E-2	6.540520E-2	6.916764E-2	5.558758E-2	5.934480E-2	6.540481E-2	7.758065E-2	6.364701E-2	5.440828E-2	6.824980E-2	7.323135E-2	4.852624E-2	6.457363E-2	5.537301E-2	7.542801E-2	5.517289E-2	6.947168E-2	5.794359E-2	6.742372E-2	5.132144E-2	6.448271E-2	5.571991E-2	6.921484E-2	7.075422E-2	5.932020E-2	6.037525E-2	7.941049E-2	6.108056E-2	5.852859E-2	4.665279E-2	6.818645E-2	6.427449E-2	5.683494E-2	5.345724E-2	6.672421E-2	8.281131E-2	7.495903E-2	5.655505E-2	6.217266E-2	6.075947E-2	5.970235E-2	6.766871E-2	6.655851E-2	4.088243E-2	6.841301E-2	6.218461E-2	6.531213E-2	5.939258E-2	6.154077E-2	6.175648E-2	6.606162E-2	7.026757E-2	5.291019E-2	6.728577E-2	5.762606E-2	6.419162E-2	6.114975E-2	6.744021E-2	7.167486E-2	5.212961E-2	6.372979E-2	6.505649E-2	6.293304E-2	5.334988E-2	6.044732E-2	5.049047E-2	6.465459E-2	7.389337E-2	7.830208E-2	6.977616E-2	6.784772E-2	6.651701E-2	5.870549E-2	6.509816E-2	8.617064E-2	5.083489E-2	5.270009E-2	4.418006E-2	8.030043E-2	8.199682E-2	6.265992E-2	5.128807E-2	6.146969E-2	5.145128E-2	6.490473E-2	4.724555E-2	7.482510E-2	7.369795E-2	5.802763E-2	5.698120E-2	6.949481E-2	6.176616E-2	7.312659E-2	6.571069E-2	7.491465E-2	6.775892E-2	2.961842E-2
5.337580E+2	8.016490E-2	8.744057E-2	5.102301E-2	9.386602E-2	7.844672E-2	9.188654E-2	6.935098E-2	6.132944E-2	8.387816E-2	9.324724E-2	7.414853E-2	7.861871E-2	7.032799E-2	8.450229E-2	8.771269E-2	7.155360E-2	9.033897E-2	8.289649E-2	9.395765E-2	9.746833E-2	9.287074E-2	1.004486E-1	8.075709E-2	8.857787E-2	1.082977E-1	1.104338E-1	8.843375E-2	7.813440E-2	9.120767E-2	9.305718E-2	9.337617E-2	9.724325E-2	8.734511E-2	8.538425E-2	8.539163E-2	9.736569E-2	8.130291E-2	8.821825E-2	9.391060E-2	8.059474E-2	8.427413E-2	1.062639E-1	9.339509E-2	9.710945E-2	7.638731E-2	8.024054E-2	7.823018E-2	8.504223E-2	8.583941E-2	9.860273E-2	9.816958E-2	9.580618E-2	8.836351E-2	9.672900E-2	8.568849E-2	7.797877E-2	8.326257E-2	8.759991E-2	7.002128E-2	7.487560E-2	9.148815E-2	8.501941E-2	8.690095E-2	1.001081E-1	7.491799E-2	9.824993E-2	9.112157E-2	8.358224E-2	9.117519E-2	1.011098E-1	8.370138E-2	7.706241E-2	8.930778E-2	9.711830E-2	7.721557E-2	6.183612E-2	7.619043E-2	8.422781E-2	9.296424E-2	7.611069E-2	8.997593E-2	9.280326E-2	8.786120E-2	7.744966E-2	1.060336E-1	7.672412E-2	9.051327E-2	7.048554E-2	9.453040E-2	8.085958E-2	9.462342E-2	7.420661E-2	8.014902E-2	7.754025E-2	9.601108E-2	9.360616E-2	8.171842E-2	8.218965E-2	1.010432E-1	6.746065E-2	9.870176E-2	7.303140E-2	9.866412E-2	8.228888E-2	9.435967E-2	6.696052E-2	7.386082E-2	8.099446E-2	8.751524E-2	9.538807E-2	9.607885E-2	8.732981E-2	7.270649E-2	9.821693E-2	1.027073E-1	9.306083E-2	9.747823E-2	7.169654E-2	7.959477E-2	8.335307E-2	8.052249E-2	8.673582E-2	7.607446E-2	7.486661E-2	8.826388E-2	8.448536E-2	7.313419E-2	9.651562E-2	9.048254E-2	1.050926E-1	8.676318E-2	9.464911E-2	9.141680E-2	7.021003E-2	7.771611E-2	7.520381E-2	9.046136E-2	6.296585E-2	9.059179E-2	6.526060E-2	8.637899E-2	9.330787E-2	9.361741E-2	1.033698E-1	7.522193E-2	6.819966E-2	8.882641E-2	7.937291E-2	1.235731E-1	7.483345E-2	7.993544E-2	8.110011E-2	9.951631E-2	8.371366E-2	7.136558E-2	8.603187E-2	9.478300E-2	7.066498E-2	9.106825E-2	7.998219E-2	9.212033E-2	9.110647E-2	9.694146E-2	8.552318E-2	1.038712E-1	8.700612E-2	5.978238E-2	7.596351E-2	8.317693E-2	9.029230E-2	4.912164E-2
5.339090E+2	1.255575E-1	1.055724E-1	1.211571E-1	1.186846E-1	1.151022E-1	1.256938E-1	1.109266E-1	9.207442E-2	1.163052E-1	1.355861E-1	1.086828E-1	1.100003E-1	1.124114E-1	1.272007E-1	1.204259E-1	1.171258E-1	1.302990E-1	1.339192E-1	1.258335E-1	1.220634E-1	1.114352E-1	1.444103E-1	1.199274E-1	9.810992E-2	1.669070E-1	1.864350E-1	1.258075E-1	1.330584E-1	1.471549E-1	1.361021E-1	1.401858E-1	1.321541E-1	1.265487E-1	1.600056E-1	1.521932E-1	1.522011E-1	1.437723E-1	1.422097E-1	1.220697E-1	1.231907E-1	1.236952E-1	1.532938E-1	1.300721E-1	1.398447E-1	1.266215E-1	1.304635E-1	1.275998E-1	1.445439E-1	1.372084E-1	1.347145E-1	1.240830E-1	1.527838E-1	1.245366E-1	1.289089E-1	1.250500E-1	1.245348E-1	1.504549E-1	1.231510E-1	1.377546E-1	1.132121E-1	1.411874E-1	1.305757E-1	1.325486E-1	1.315459E-1	1.218883E-1	1.184658E-1	1.214648E-1	1.266644E-1	1.430197E-1	1.387034E-1	1.183323E-1	1.316571E-1	1.334386E-1	1.438905E-1	1.436520E-1	1.138431E-1	1.244142E-1	1.304544E-1	1.294653E-1	1.413184E-1	1.320126E-1	1.431124E-1	1.207470E-1	1.256143E-1	1.524258E-1	1.204308E-1	1.256080E-1	1.076192E-1	1.550214E-1	1.359788E-1	1.251650E-1	1.020112E-1	1.463197E-1	1.373979E-1	1.451128E-1	1.398575E-1	1.112722E-1	1.128575E-1	1.219046E-1	1.263234E-1	1.424592E-1	1.327857E-1	1.292677E-1	1.197294E-1	1.389096E-1	1.179946E-1	9.912459E-2	1.124656E-1	1.244766E-1	1.401628E-1	1.223609E-1	1.210824E-1	1.098522E-1	1.332962E-1	1.313774E-1	1.282635E-1	1.317282E-1	1.171343E-1	1.072830E-1	1.179928E-1	1.273237E-1	1.190008E-1	1.051417E-1	1.136728E-1	1.296410E-1	1.539957E-1	1.277934E-1	1.384119E-1	1.098731E-1	1.406585E-1	1.189289E-1	1.212917E-1	1.267449E-1	1.041110E-1	1.037602E-1	1.259412E-1	1.383607E-1	1.138741E-1	1.191213E-1	1.205118E-1	1.229154E-1	1.288084E-1	1.374502E-1	1.359455E-1	1.211691E-1	1.360674E-1	1.394063E-1	1.370661E-1	1.370789E-1	1.179329E-1	1.023928E-1	1.180199E-1	1.507585E-1	1.151883E-1	1.197909E-1	9.960394E-2	1.489797E-1	1.227439E-1	1.303132E-1	1.207845E-1	1.389846E-1	1.352080E-1	1.258640E-1	1.214649E-1	1.567582E-1	1.227627E-1	1.186817E-1	1.156932E-1	1.513411E-1	1.804262E-1	1.104172E-1
5.340690E+2	1.901928E-1	1.737039E-1	1.734957E-1	1.878222E-1	1.855568E-1	2.065139E-1	1.752704E-1	1.627885E-1	1.894034E-1	2.111908E-1	1.837818E-1	1.772467E-1	1.764320E-1	2.084206E-1	2.029012E-1	1.834932E-1	1.780435E-1	2.216330E-1	2.005595E-1	1.792736E-1	1.764110E-1	2.288754E-1	1.870768E-1	1.786987E-1	2.590841E-1	2.864368E-1	2.313055E-1	2.014544E-1	2.386238E-1	2.288871E-1	2.110446E-1	2.207086E-1	1.997281E-1	2.352104E-1	2.093754E-1	2.274657E-1	2.166535E-1	2.343775E-1	2.029138E-1	2.122118E-1	2.040938E-1	2.358835E-1	2.212258E-1	2.235834E-1	2.112506E-1	2.206704E-1	2.239886E-1	2.116509E-1	2.016820E-1	2.182880E-1	2.213906E-1	2.258873E-1	2.231898E-1	2.119674E-1	2.242407E-1	2.093157E-1	2.065416E-1	2.109514E-1	1.911374E-1	1.747526E-1	2.162142E-1	2.295912E-1	2.002682E-1	1.921762E-1	1.857468E-1	2.189985E-1	2.240799E-1	1.931482E-1	2.376483E-1	2.183122E-1	1.792826E-1	1.812059E-1	1.793349E-1	2.175433E-1	1.996256E-1	2.000114E-1	2.278849E-1	2.269267E-1	1.991050E-1	1.856009E-1	1.902174E-1	2.420153E-1	2.154358E-1	2.002967E-1	2.227168E-1	2.054940E-1	1.957978E-1	1.836136E-1	2.468190E-1	2.210660E-1	2.257719E-1	1.828016E-1	2.191086E-1	2.269373E-1	2.009338E-1	2.274394E-1	2.135743E-1	1.882277E-1	2.139099E-1	1.851864E-1	2.092718E-1	2.205979E-1	1.879666E-1	1.923552E-1	2.224411E-1	1.813841E-1	1.963364E-1	1.950773E-1	2.178042E-1	2.251831E-1	2.082477E-1	2.198583E-1	2.207342E-1	2.450741E-1	2.196814E-1	2.015535E-1	2.278175E-1	2.006980E-1	1.935422E-1	1.858289E-1	2.033761E-1	2.376702E-1	1.745803E-1	1.834197E-1	2.204687E-1	2.261381E-1	2.157950E-1	2.075895E-1	1.842044E-1	2.106048E-1	2.154264E-1	2.193580E-1	2.176626E-1	2.157582E-1	1.847854E-1	2.106724E-1	2.347100E-1	1.958927E-1	1.928673E-1	1.642751E-1	2.206748E-1	2.247713E-1	1.955420E-1	2.260375E-1	2.346189E-1	1.893521E-1	2.149928E-1	2.482887E-1	2.513634E-1	1.806228E-1	1.769316E-1	1.859352E-1	2.526611E-1	2.084688E-1	1.649521E-1	2.076362E-1	2.116285E-1	1.859473E-1	2.078338E-1	1.772437E-1	2.265771E-1	2.222508E-1	2.289331E-1	1.891204E-1	2.382034E-1	1.932244E-1	1.651569E-1	1.733655E-1	2.835386E-1	2.254931E-1	1.410651E-1
5.342040E+2	3.229165E-1	3.050233E-1	2.488641E-1	3.125067E-1	3.397948E-1	3.190279E-1	2.866340E-1	2.493149E-1	3.229591E-1	3.311499E-1	3.109558E-1	2.609308E-1	3.134268E-1	3.114538E-1	3.309899E-1	3.179977E-1	3.306172E-1	3.529167E-1	3.217933E-1	3.092002E-1	3.257707E-1	3.627356E-1	2.921051E-1	2.770519E-1	4.391753E-1	4.447248E-1	3.732308E-1	3.553454E-1	3.531824E-1	3.752384E-1	3.660748E-1	3.731242E-1	3.502694E-1	3.652155E-1	3.680957E-1	3.774566E-1	3.441950E-1	3.848995E-1	2.964748E-1	3.845107E-1	3.218381E-1	4.045040E-1	3.210094E-1	3.714248E-1	3.284642E-1	3.693892E-1	3.589324E-1	3.642079E-1	3.494992E-1	3.529337E-1	3.446105E-1	3.812317E-1	3.833840E-1	3.580809E-1	3.349779E-1	3.186004E-1	3.531429E-1	3.833200E-1	3.541563E-1	2.832050E-1	3.595769E-1	3.495257E-1	3.221624E-1	3.430777E-1	3.292968E-1	3.413864E-1	3.520732E-1	3.192023E-1	3.277473E-1	3.633781E-1	2.882539E-1	3.174640E-1	3.464433E-1	3.713004E-1	3.340675E-1	2.963771E-1	3.421233E-1	3.721386E-1	3.614385E-1	3.140695E-1	3.475850E-1	3.832238E-1	3.214648E-1	3.458734E-1	3.567380E-1	3.911293E-1	3.219359E-1	2.980374E-1	3.831891E-1	3.511050E-1	3.425475E-1	2.714613E-1	3.402526E-1	3.649568E-1	3.523741E-1	3.302740E-1	3.573650E-1	3.114197E-1	3.663593E-1	3.285281E-1	3.523073E-1	3.338710E-1	2.913164E-1	3.015189E-1	3.583190E-1	3.253536E-1	3.122220E-1	3.147802E-1	3.143657E-1	3.766109E-1	3.894069E-1	3.553661E-1	3.349428E-1	3.515010E-1	3.389490E-1	3.325532E-1	3.220047E-1	3.542465E-1	3.335813E-1	3.094733E-1	3.531400E-1	3.634493E-1	2.833134E-1	2.914477E-1	3.753797E-1	3.641049E-1	3.382321E-1	3.488681E-1	3.285577E-1	3.451629E-1	3.303894E-1	3.015518E-1	3.288422E-1	3.418697E-1	2.947484E-1	3.111324E-1	3.778582E-1	3.825560E-1	3.317469E-1	2.966596E-1	3.771888E-1	3.684376E-1	3.302089E-1	3.522681E-1	3.628171E-1	3.138701E-1	3.212678E-1	3.571328E-1	3.952575E-1	3.588970E-1	2.825287E-1	2.907695E-1	3.650447E-1	3.246397E-1	2.890083E-1	3.216395E-1	3.508493E-1	3.543196E-1	3.420421E-1	3.281175E-1	3.599173E-1	3.626802E-1	3.509341E-1	2.874314E-1	4.159031E-1	3.593868E-1	3.045823E-1	2.957584E-1	3.744236E-1	3.411643E-1	3.054489E-1
5.343600E+2	5.414920E-1	5.198582E-1	4.540313E-1	5.388289E-1	5.435416E-1	5.688840E-1	5.029279E-1	4.452055E-1	5.428023E-1	6.184483E-1	5.570821E-1	4.766176E-1	5.641362E-1	5.695011E-1	5.733452E-1	5.206391E-1	5.625916E-1	6.045926E-1	5.726214E-1	5.669131E-1	5.590932E-1	6.235403E-1	5.068963E-1	5.066870E-1	7.396822E-1	7.247300E-1	6.206536E-1	5.719329E-1	6.138251E-1	6.306365E-1	5.838041E-1	6.396392E-1	6.058753E-1	6.030722E-1	6.497307E-1	6.435699E-1	5.988447E-1	6.924888E-1	5.676208E-1	6.501380E-1	5.651083E-1	6.694782E-1	5.998640E-1	6.440080E-1	5.479562E-1	6.239184E-1	6.100129E-1	5.816352E-1	6.330779E-1	6.103599E-1	6.248982E-1	6.102175E-1	5.816294E-1	6.085617E-1	5.637995E-1	5.435399E-1	6.485681E-1	6.494138E-1	5.642439E-1	5.268451E-1	6.372231E-1	6.400643E-1	6.030722E-1	5.954784E-1	5.372329E-1	6.047379E-1	6.157838E-1	6.090731E-1	6.136464E-1	6.026484E-1	5.246675E-1	5.399729E-1	6.394721E-1	6.336554E-1	5.783649E-1	5.033845E-1	6.010334E-1	5.982464E-1	6.155042E-1	5.637075E-1	5.879487E-1	6.090433E-1	5.834179E-1	5.769551E-1	6.177509E-1	6.200011E-1	5.442030E-1	5.022725E-1	6.538070E-1	5.908474E-1	6.012515E-1	5.217019E-1	5.815227E-1	6.340689E-1	6.144218E-1	5.733377E-1	6.011850E-1	5.120608E-1	6.295358E-1	5.269175E-1	5.870925E-1	5.853584E-1	5.256088E-1	5.207488E-1	5.743871E-1	5.305640E-1	5.555253E-1	5.491277E-1	5.430641E-1	6.261389E-1	5.902787E-1	5.742620E-1	6.104860E-1	6.232163E-1	6.159022E-1	5.708919E-1	5.693636E-1	6.164276E-1	5.284634E-1	5.764883E-1	6.339473E-1	6.718813E-1	5.067016E-1	5.179926E-1	6.524038E-1	6.173949E-1	5.623350E-1	5.812457E-1	5.531665E-1	6.296909E-1	5.555502E-1	5.815793E-1	6.005564E-1	6.053928E-1	5.055109E-1	5.338692E-1	6.002875E-1	6.365320E-1	5.422200E-1	5.575990E-1	6.131941E-1	6.940449E-1	5.646885E-1	6.617369E-1	6.447402E-1	5.399091E-1	5.861031E-1	5.992063E-1	7.085009E-1	6.116162E-1	5.195240E-1	5.364477E-1	6.288259E-1	6.279426E-1	5.387531E-1	5.159887E-1	6.163622E-1	5.712316E-1	5.697597E-1	5.420923E-1	6.399884E-1	6.394766E-1	5.502365E-1	4.792971E-1	6.866837E-1	6.596366E-1	5.369576E-1	5.181168E-1	6.553431E-1	6.881790E-1	4.781912E-1
5.345160E+2	9.110478E-1	9.121663E-1	8.031316E-1	9.164272E-1	9.186646E-1	9.513267E-1	8.355346E-1	7.737405E-1	9.330257E-1	9.919359E-1	8.574768E-1	8.153399E-1	9.424388E-1	9.760649E-1	9.834136E-1	9.551233E-1	9.154839E-1	1.008763E+0	9.519992E-1	9.636421E-1	9.481038E-1	1.081431E+0	8.503901E-1	8.377080E-1	1.078552E+0	1.144166E+0	9.693168E-1	9.097676E-1	9.472880E-1	1.049126E+0	9.685897E-1	1.005777E+0	9.858871E-1	1.015824E+0	1.033973E+0	1.080103E+0	9.775662E-1	1.021347E+0	9.137057E-1	1.084714E+0	9.359776E-1	1.073823E+0	9.795813E-1	1.017078E+0	9.222241E-1	1.038869E+0	1.006851E+0	9.820410E-1	9.926616E-1	1.032869E+0	9.940318E-1	1.034325E+0	1.061272E+0	9.903714E-1	9.122801E-1	8.821745E-1	1.006188E+0	1.015698E+0	9.717911E-1	8.320246E-1	1.013312E+0	1.000332E+0	9.000334E-1	9.421929E-1	8.702472E-1	1.046754E+0	9.666619E-1	9.462808E-1	9.690082E-1	9.684088E-1	8.594320E-1	9.024104E-1	1.013702E+0	1.032564E+0	9.346101E-1	8.342919E-1	9.666916E-1	9.906683E-1	9.819553E-1	9.160224E-1	9.393316E-1	1.005799E+0	9.434627E-1	8.935431E-1	9.724868E-1	1.027929E+0	8.992205E-1	8.075463E-1	1.005610E+0	9.954130E-1	9.617592E-1	8.548316E-1	9.602247E-1	9.867847E-1	1.006203E+0	8.872543E-1	9.978889E-1	8.208193E-1	9.836468E-1	8.626532E-1	9.630314E-1	9.579122E-1	8.752922E-1	8.405716E-1	9.335723E-1	8.577184E-1	8.768177E-1	8.812606E-1	9.256150E-1	1.056777E+0	9.479050E-1	9.544763E-1	9.841593E-1	1.069733E+0	9.570765E-1	9.344591E-1	9.675170E-1	9.966427E-1	8.825535E-1	9.070086E-1	1.025323E+0	1.004375E+0	7.796115E-1	8.457487E-1	1.034385E+0	1.008125E+0	9.236328E-1	9.841323E-1	8.720369E-1	1.029808E+0	9.260524E-1	9.097890E-1	9.740971E-1	9.918632E-1	8.016392E-1	8.743166E-1	9.878881E-1	1.012121E+0	8.888814E-1	8.809011E-1	9.834953E-1	1.103966E+0	9.634099E-1	1.038901E+0	1.049188E+0	8.983185E-1	9.157264E-1	1.025066E+0	1.075769E+0	9.627777E-1	8.372703E-1	9.138531E-1	1.085349E+0	9.569979E-1	8.706582E-1	8.927435E-1	9.683909E-1	9.752248E-1	9.835266E-1	9.078900E-1	1.022157E+0	1.017242E+0	9.798671E-1	8.931562E-1	1.093383E+0	1.029297E+0	8.770088E-1	8.250611E-1	1.079819E+0	1.048716E+0	8.793991E-1
5.346560E+2	1.294417E+0	1.313266E+0	1.111931E+0	1.292843E+0	1.371859E+0	1.355954E+0	1.175565E+0	1.083829E+0	1.323249E+0	1.397680E+0	1.283401E+0	1.178968E+0	1.275075E+0	1.347819E+0	1.410531E+0	1.300674E+0	1.344663E+0	1.432428E+0	1.316744E+0	1.279634E+0	1.357367E+0	1.472637E+0	1.216266E+0	1.201656E+0	1.430743E+0	1.543030E+0	1.317979E+0	1.254337E+0	1.356236E+0	1.318871E+0	1.358958E+0	1.403421E+0	1.385764E+0	1.500863E+0	1.454020E+0	1.475239E+0	1.366261E+0	1.486004E+0	1.272054E+0	1.422131E+0	1.309960E+0	1.496520E+0	1.347971E+0	1.496407E+0	1.268434E+0	1.443090E+0	1.399459E+0	1.355158E+0	1.364825E+0	1.423392E+0	1.365808E+0	1.406292E+0	1.416424E+0	1.381746E+0	1.261285E+0	1.268345E+0	1.387131E+0	1.355049E+0	1.325956E+0	1.150320E+0	1.359296E+0	1.400111E+0	1.305348E+0	1.342801E+0	1.221206E+0	1.451070E+0	1.332436E+0	1.373377E+0	1.324366E+0	1.341687E+0	1.163261E+0	1.230898E+0	1.476782E+0	1.399216E+0	1.291380E+0	1.177436E+0	1.377764E+0	1.413743E+0	1.312385E+0	1.249846E+0	1.317121E+0	1.356818E+0	1.287064E+0	1.291849E+0	1.373613E+0	1.389331E+0	1.259834E+0	1.134840E+0	1.410475E+0	1.424060E+0	1.336640E+0	1.112942E+0	1.393900E+0	1.375614E+0	1.395399E+0	1.330573E+0	1.399709E+0	1.152449E+0	1.445276E+0	1.234906E+0	1.332382E+0	1.403730E+0	1.198385E+0	1.152274E+0	1.381301E+0	1.245577E+0	1.246992E+0	1.192039E+0	1.279059E+0	1.471817E+0	1.381560E+0	1.365464E+0	1.363378E+0	1.491876E+0	1.313160E+0	1.377089E+0	1.393736E+0	1.413416E+0	1.233980E+0	1.270728E+0	1.400904E+0	1.406322E+0	1.158564E+0	1.180322E+0	1.403750E+0	1.425712E+0	1.251589E+0	1.379710E+0	1.213529E+0	1.389024E+0	1.239372E+0	1.267475E+0	1.335690E+0	1.370198E+0	1.159501E+0	1.197514E+0	1.335297E+0	1.361691E+0	1.245231E+0	1.211314E+0	1.362684E+0	1.533855E+0	1.361601E+0	1.429299E+0	1.487674E+0	1.317303E+0	1.295931E+0	1.427727E+0	1.526155E+0	1.353611E+0	1.191808E+0	1.212860E+0	1.476070E+0	1.348431E+0	1.181887E+0	1.238011E+0	1.377100E+0	1.363039E+0	1.336731E+0	1.219127E+0	1.376990E+0	1.423442E+0	1.290127E+0	1.152148E+0	1.511717E+0	1.468894E+0	1.155860E+0	1.129442E+0	1.546642E+0	1.442299E+0	1.132939E+0
5.348120E+2	1.691603E+0	1.676450E+0	1.540062E+0	1.705899E+0	1.714133E+0	1.685049E+0	1.676456E+0	1.344283E+0	1.792618E+0	1.777219E+0	1.740572E+0	1.489795E+0	1.686062E+0	1.747888E+0	1.873123E+0	1.667465E+0	1.698075E+0	1.846915E+0	1.803769E+0	1.711118E+0	1.765366E+0	1.867799E+0	1.594628E+0	1.478951E+0	1.709407E+0	1.883608E+0	1.642992E+0	1.570929E+0	1.733657E+0	1.727315E+0	1.710242E+0	1.747420E+0	1.667503E+0	1.806929E+0	1.736721E+0	1.892956E+0	1.686419E+0	1.865582E+0	1.598156E+0	1.786354E+0	1.667864E+0	1.878495E+0	1.664045E+0	1.825587E+0	1.610571E+0	1.771738E+0	1.794417E+0	1.696063E+0	1.721263E+0	1.774193E+0	1.792588E+0	1.847064E+0	1.768288E+0	1.729634E+0	1.636007E+0	1.589339E+0	1.711988E+0	1.773580E+0	1.627885E+0	1.448944E+0	1.689031E+0	1.761311E+0	1.622875E+0	1.705680E+0	1.508830E+0	1.732999E+0	1.608833E+0	1.667501E+0	1.675705E+0	1.713639E+0	1.492483E+0	1.534150E+0	1.812176E+0	1.729848E+0	1.627222E+0	1.470610E+0	1.727506E+0	1.699642E+0	1.653861E+0	1.545226E+0	1.658269E+0	1.732990E+0	1.624427E+0	1.666339E+0	1.706319E+0	1.715013E+0	1.511601E+0	1.453501E+0	1.755379E+0	1.760662E+0	1.684574E+0	1.464432E+0	1.725774E+0	1.730309E+0	1.786662E+0	1.652363E+0	1.656033E+0	1.439898E+0	1.727172E+0	1.542300E+0	1.680558E+0	1.736792E+0	1.492381E+0	1.547884E+0	1.711529E+0	1.566288E+0	1.577621E+0	1.580932E+0	1.544716E+0	1.793291E+0	1.749983E+0	1.656334E+0	1.718201E+0	1.801644E+0	1.751811E+0	1.711800E+0	1.733856E+0	1.797287E+0	1.574227E+0	1.587296E+0	1.764780E+0	1.794046E+0	1.449775E+0	1.468750E+0	1.738296E+0	1.735873E+0	1.558228E+0	1.692472E+0	1.576026E+0	1.742905E+0	1.623576E+0	1.584348E+0	1.659355E+0	1.659485E+0	1.404988E+0	1.581085E+0	1.797224E+0	1.791017E+0	1.585433E+0	1.518206E+0	1.674727E+0	1.879987E+0	1.673713E+0	1.831408E+0	1.823486E+0	1.643184E+0	1.615893E+0	1.779243E+0	1.833160E+0	1.690081E+0	1.474197E+0	1.567931E+0	1.775952E+0	1.770195E+0	1.531206E+0	1.498048E+0	1.671950E+0	1.623937E+0	1.704956E+0	1.542225E+0	1.707828E+0	1.736800E+0	1.632990E+0	1.455013E+0	1.858652E+0	1.836447E+0	1.506954E+0	1.428697E+0	1.832724E+0	1.769785E+0	1.495144E+0
5.349580E+2	1.918566E+0	1.959418E+0	1.885499E+0	1.916264E+0	1.953585E+0	2.001988E+0	2.067467E+0	1.642510E+0	1.964095E+0	2.045360E+0	2.120996E+0	1.795144E+0	2.003477E+0	2.083906E+0	2.138980E+0	1.999746E+0	2.022942E+0	2.068781E+0	2.116260E+0	1.957603E+0	1.987293E+0	2.172069E+0	2.072421E+0	1.808676E+0	1.907080E+0	2.143610E+0	2.084851E+0	1.798915E+0	1.961443E+0	1.996582E+0	1.956316E+0	1.993077E+0	1.986357E+0	2.093173E+0	1.952096E+0	2.093484E+0	1.969699E+0	2.075004E+0	1.987388E+0	2.062987E+0	1.906463E+0	2.183618E+0	2.000072E+0	2.040421E+0	1.844542E+0	2.088682E+0	2.059600E+0	1.983727E+0	2.014803E+0	2.061546E+0	2.034269E+0	2.045412E+0	2.018208E+0	1.972292E+0	1.986062E+0	1.830449E+0	2.036842E+0	2.024595E+0	1.988937E+0	1.640628E+0	2.036448E+0	2.029538E+0	1.944914E+0	1.942366E+0	1.788016E+0	2.087047E+0	1.956406E+0	1.925992E+0	1.960094E+0	1.937871E+0	1.933451E+0	1.725462E+0	2.116972E+0	2.014244E+0	1.981897E+0	1.731666E+0	1.970964E+0	1.993078E+0	1.991495E+0	1.868344E+0	1.883542E+0	1.995400E+0	1.891484E+0	1.843308E+0	1.999201E+0	2.028948E+0	1.750142E+0	1.642190E+0	2.004239E+0	2.014318E+0	1.931896E+0	1.691067E+0	1.950753E+0	2.060764E+0	2.020285E+0	1.878207E+0	1.929405E+0	1.749172E+0	2.049723E+0	1.827351E+0	1.902644E+0	2.027252E+0	1.728174E+0	1.693132E+0	1.879150E+0	1.770422E+0	1.808292E+0	1.808535E+0	1.897697E+0	2.155504E+0	1.960241E+0	1.955145E+0	1.924443E+0	1.999630E+0	1.992067E+0	1.945521E+0	1.987400E+0	2.075659E+0	1.692434E+0	1.859123E+0	1.995863E+0	2.076230E+0	1.770054E+0	1.714170E+0	2.057710E+0	2.024446E+0	1.863770E+0	1.960415E+0	1.803329E+0	2.017948E+0	1.764150E+0	1.845670E+0	1.961724E+0	1.981316E+0	1.646620E+0	1.796717E+0	1.978910E+0	1.990691E+0	1.835202E+0	1.732099E+0	2.024784E+0	2.129046E+0	1.943576E+0	2.033986E+0	2.074775E+0	1.895582E+0	1.863680E+0	1.976706E+0	2.192638E+0	1.934965E+0	1.704502E+0	1.733846E+0	2.177742E+0	2.013983E+0	1.678656E+0	1.721170E+0	1.938461E+0	1.918209E+0	1.921527E+0	1.749558E+0	1.972837E+0	2.085549E+0	1.853853E+0	1.708189E+0	2.175448E+0	2.155098E+0	1.630734E+0	1.635677E+0	2.162185E+0	2.193415E+0	1.584299E+0
5.351090E+2	2.015768E+0	2.008872E+0	1.921613E+0	2.021449E+0	2.046412E+0	2.145668E+0	2.167941E+0	1.735187E+0	2.056428E+0	2.174392E+0	2.182944E+0	1.833999E+0	2.068392E+0	2.175799E+0	2.277663E+0	1.980718E+0	2.058232E+0	2.202358E+0	2.210841E+0	2.041550E+0	2.045516E+0	2.287161E+0	2.136555E+0	1.878433E+0	2.042412E+0	2.218468E+0	2.048424E+0	1.820677E+0	1.956557E+0	2.028629E+0	2.009569E+0	2.028412E+0	2.073646E+0	2.192867E+0	2.176014E+0	2.144556E+0	1.997900E+0	2.175894E+0	2.112287E+0	2.103188E+0	1.899201E+0	2.269649E+0	2.058860E+0	2.159965E+0	1.881651E+0	2.118913E+0	2.116023E+0	2.048148E+0	2.069841E+0	2.061027E+0	2.106193E+0	2.155063E+0	2.106528E+0	2.043172E+0	2.114640E+0	1.850055E+0	2.051280E+0	2.039139E+0	2.158270E+0	1.705194E+0	1.991051E+0	2.119719E+0	2.012636E+0	2.007036E+0	1.821791E+0	2.130760E+0	2.093224E+0	2.008965E+0	2.041635E+0	1.993157E+0	2.081666E+0	1.826397E+0	2.084607E+0	2.089511E+0	2.177022E+0	1.740331E+0	2.047749E+0	2.064428E+0	2.069300E+0	1.932580E+0	1.968150E+0	2.024555E+0	2.050809E+0	1.961284E+0	2.028255E+0	2.106495E+0	2.045650E+0	1.738480E+0	2.169263E+0	2.051242E+0	2.092389E+0	1.716776E+0	2.042884E+0	2.112704E+0	2.128828E+0	1.992360E+0	2.047619E+0	1.736180E+0	2.147077E+0	1.783747E+0	1.998628E+0	2.061025E+0	1.794401E+0	1.801394E+0	1.996094E+0	1.832201E+0	1.926377E+0	1.880468E+0	1.931886E+0	2.188707E+0	2.067244E+0	1.978973E+0	2.109063E+0	2.114977E+0	2.076931E+0	2.049974E+0	2.083964E+0	2.037534E+0	1.840994E+0	1.891837E+0	2.090051E+0	2.127638E+0	2.042963E+0	1.739344E+0	2.149545E+0	2.088688E+0	1.938108E+0	1.967233E+0	1.846958E+0	2.047584E+0	1.840395E+0	2.012325E+0	2.017833E+0	1.930693E+0	1.665426E+0	1.822089E+0	2.076363E+0	2.067617E+0	1.833587E+0	1.752338E+0	1.952203E+0	2.272715E+0	2.040748E+0	2.148512E+0	2.109943E+0	1.970741E+0	1.943808E+0	2.162276E+0	2.313677E+0	1.953574E+0	1.774264E+0	1.821360E+0	2.228982E+0	2.095816E+0	1.777681E+0	1.769487E+0	2.050331E+0	2.050687E+0	1.959803E+0	1.880976E+0	2.113985E+0	2.080327E+0	1.953769E+0	1.762633E+0	2.267469E+0	2.147215E+0	1.729665E+0	1.686941E+0	2.119840E+0	2.139332E+0	1.589869E+0
5.352600E+2	1.954584E+0	1.926452E+0	1.792335E+0	1.926904E+0	1.979294E+0	1.980860E+0	2.005101E+0	1.697853E+0	2.005866E+0	2.082661E+0	2.096875E+0	1.744832E+0	1.961394E+0	2.089013E+0	2.109488E+0	1.894885E+0	1.978313E+0	2.027502E+0	2.118874E+0	2.002516E+0	1.984341E+0	2.203187E+0	2.046595E+0	1.819072E+0	1.863391E+0	2.133896E+0	2.010101E+0	1.674040E+0	1.857984E+0	1.919106E+0	1.977790E+0	1.927511E+0	1.955516E+0	2.043622E+0	1.995913E+0	2.009081E+0	1.905496E+0	2.067912E+0	1.945151E+0	2.065859E+0	1.899203E+0	2.119380E+0	2.007626E+0	1.976317E+0	1.793858E+0	2.058935E+0	2.021988E+0	1.960016E+0	1.977063E+0	1.983645E+0	1.971336E+0	2.039496E+0	1.995659E+0	1.920543E+0	1.976616E+0	1.791734E+0	1.945215E+0	1.936258E+0	1.965407E+0	1.607336E+0	1.941349E+0	1.975611E+0	1.884217E+0	1.943267E+0	1.782739E+0	1.979958E+0	1.986194E+0	1.881312E+0	1.923853E+0	1.874188E+0	2.028568E+0	1.776849E+0	2.030476E+0	2.025532E+0	2.081290E+0	1.675582E+0	1.885755E+0	1.924745E+0	1.893034E+0	1.805571E+0	1.885158E+0	2.027418E+0	1.954984E+0	1.823825E+0	1.957025E+0	1.984774E+0	2.015643E+0	1.586921E+0	2.010078E+0	2.016457E+0	2.123530E+0	1.666408E+0	1.864224E+0	1.950444E+0	2.053364E+0	1.882141E+0	1.976578E+0	1.604151E+0	2.116056E+0	1.737962E+0	1.875824E+0	1.982046E+0	1.867652E+0	1.651631E+0	1.956555E+0	1.684467E+0	1.875299E+0	1.820337E+0	1.789587E+0	2.066464E+0	1.945221E+0	1.938268E+0	1.913911E+0	2.018659E+0	1.957092E+0	1.970916E+0	1.928412E+0	1.982693E+0	2.096575E+0	1.791763E+0	1.937363E+0	2.023735E+0	2.101101E+0	1.655435E+0	1.966377E+0	1.988633E+0	1.854481E+0	1.859571E+0	1.698296E+0	1.987125E+0	1.948802E+0	1.847935E+0	1.929512E+0	1.899956E+0	1.771533E+0	1.719093E+0	1.931010E+0	1.939784E+0	1.853504E+0	1.714048E+0	1.977878E+0	2.123497E+0	1.951494E+0	1.994282E+0	2.016917E+0	1.876512E+0	1.867660E+0	1.980869E+0	2.200427E+0	1.932025E+0	1.746549E+0	1.706041E+0	2.031002E+0	1.944163E+0	1.729261E+0	1.701083E+0	1.888244E+0	1.903548E+0	1.906508E+0	1.750978E+0	1.999056E+0	2.014174E+0	1.811781E+0	1.666434E+0	2.135782E+0	2.053090E+0	1.597143E+0	1.618372E+0	2.013463E+0	1.969582E+0	1.653953E+0
5.354010E+2	1.689136E+0	1.690189E+0	1.607578E+0	1.700579E+0	1.701278E+0	1.808653E+0	1.793267E+0	1.354826E+0	1.753042E+0	1.849796E+0	1.857331E+0	1.532636E+0	1.684269E+0	1.768771E+0	1.875430E+0	1.740470E+0	1.756713E+0	1.842327E+0	1.866998E+0	1.674227E+0	1.784350E+0	1.904845E+0	1.793495E+0	1.572538E+0	1.680633E+0	1.869319E+0	1.752271E+0	1.481808E+0	1.640855E+0	1.679967E+0	1.658282E+0	1.732945E+0	1.708275E+0	1.760290E+0	1.739397E+0	1.782749E+0	1.685552E+0	1.821951E+0	1.721241E+0	1.724613E+0	1.633111E+0	1.854409E+0	1.741713E+0	1.750509E+0	1.601520E+0	1.811719E+0	1.832970E+0	1.734986E+0	1.764245E+0	1.799987E+0	1.790471E+0	1.739558E+0	1.757952E+0	1.680930E+0	1.741496E+0	1.580517E+0	1.705877E+0	1.712176E+0	1.712837E+0	1.444402E+0	1.698585E+0	1.772934E+0	1.619360E+0	1.682331E+0	1.552638E+0	1.772884E+0	1.704828E+0	1.669628E+0	1.671675E+0	1.730447E+0	1.779685E+0	1.519472E+0	1.713326E+0	1.709954E+0	1.842223E+0	1.508853E+0	1.706434E+0	1.715219E+0	1.741270E+0	1.615301E+0	1.663655E+0	1.764433E+0	1.700405E+0	1.612766E+0	1.679614E+0	1.736166E+0	1.680970E+0	1.418524E+0	1.776073E+0	1.701797E+0	1.850452E+0	1.467054E+0	1.720174E+0	1.735749E+0	1.860575E+0	1.667619E+0	1.719118E+0	1.460688E+0	1.855019E+0	1.553747E+0	1.673502E+0	1.654697E+0	1.684531E+0	1.473451E+0	1.702062E+0	1.528678E+0	1.665497E+0	1.571380E+0	1.600159E+0	1.819446E+0	1.726516E+0	1.730294E+0	1.725963E+0	1.757645E+0	1.784497E+0	1.770087E+0	1.712449E+0	1.720512E+0	1.780823E+0	1.558909E+0	1.732021E+0	1.808267E+0	1.823884E+0	1.478187E+0	1.741828E+0	1.722182E+0	1.644044E+0	1.642296E+0	1.530782E+0	1.700228E+0	1.720071E+0	1.605321E+0	1.732094E+0	1.667624E+0	1.673624E+0	1.556225E+0	1.724547E+0	1.719742E+0	1.766839E+0	1.504527E+0	1.775446E+0	1.892192E+0	1.675830E+0	1.769818E+0	1.811572E+0	1.629160E+0	1.776725E+0	1.764968E+0	1.936539E+0	1.693508E+0	1.725048E+0	1.565194E+0	1.819046E+0	1.781637E+0	1.762448E+0	1.501852E+0	1.746537E+0	1.682591E+0	1.761157E+0	1.551236E+0	1.763062E+0	1.739118E+0	1.665593E+0	1.411669E+0	1.887210E+0	1.779134E+0	1.659262E+0	1.384481E+0	1.824462E+0	1.936533E+0	1.698530E+0
5.355580E+2	1.377803E+0	1.489640E+0	1.375717E+0	1.425209E+0	1.401374E+0	1.462662E+0	1.547769E+0	1.251171E+0	1.494179E+0	1.561490E+0	1.577766E+0	1.290548E+0	1.419233E+0	1.553422E+0	1.570871E+0	1.455534E+0	1.483225E+0	1.642253E+0	1.516886E+0	1.505802E+0	1.492384E+0	1.661326E+0	1.551152E+0	1.310409E+0	1.457383E+0	1.515602E+0	1.511943E+0	1.337761E+0	1.451701E+0	1.470007E+0	1.434968E+0	1.471966E+0	1.446394E+0	1.520106E+0	1.486620E+0	1.541904E+0	1.471246E+0	1.521450E+0	1.510951E+0	1.486266E+0	1.408515E+0	1.560758E+0	1.482276E+0	1.487170E+0	1.338129E+0	1.514768E+0	1.564025E+0	1.473267E+0	1.478573E+0	1.498712E+0	1.464176E+0	1.529387E+0	1.460112E+0	1.486984E+0	1.457569E+0	1.411934E+0	1.425446E+0	1.504255E+0	1.559578E+0	1.224975E+0	1.493579E+0	1.468910E+0	1.436271E+0	1.416456E+0	1.328338E+0	1.483304E+0	1.497944E+0	1.437200E+0	1.441146E+0	1.431471E+0	1.498025E+0	1.297420E+0	1.509145E+0	1.527168E+0	1.567061E+0	1.298784E+0	1.474681E+0	1.499660E+0	1.493448E+0	1.364689E+0	1.414668E+0	1.489451E+0	1.412936E+0	1.389261E+0	1.469676E+0	1.490843E+0	1.505496E+0	1.209973E+0	1.589824E+0	1.518778E+0	1.574386E+0	1.354788E+0	1.442765E+0	1.554690E+0	1.542702E+0	1.439808E+0	1.439491E+0	1.243411E+0	1.542093E+0	1.403320E+0	1.462244E+0	1.467122E+0	1.474319E+0	1.234826E+0	1.484322E+0	1.334753E+0	1.389790E+0	1.311179E+0	1.342356E+0	1.550301E+0	1.467450E+0	1.449846E+0	1.434344E+0	1.601272E+0	1.528184E+0	1.353427E+0	1.515512E+0	1.530925E+0	1.595527E+0	1.380899E+0	1.509130E+0	1.559990E+0	1.523520E+0	1.278912E+0	1.471871E+0	1.539981E+0	1.450547E+0	1.418685E+0	1.343339E+0	1.508763E+0	1.468107E+0	1.469845E+0	1.397515E+0	1.410426E+0	1.448395E+0	1.298989E+0	1.462478E+0	1.519506E+0	1.481003E+0	1.380353E+0	1.531540E+0	1.592656E+0	1.486763E+0	1.541280E+0	1.491644E+0	1.456405E+0	1.514733E+0	1.508023E+0	1.592644E+0	1.496623E+0	1.503820E+0	1.300375E+0	1.554680E+0	1.519538E+0	1.470266E+0	1.321072E+0	1.517317E+0	1.454556E+0	1.469971E+0	1.359088E+0	1.500288E+0	1.552848E+0	1.455774E+0	1.307013E+0	1.622777E+0	1.597720E+0	1.467380E+0	1.307585E+0	1.605511E+0	1.532434E+0	1.620518E+0
5.357090E+2	1.290470E+0	1.229749E+0	1.162699E+0	1.221341E+0	1.246184E+0	1.296795E+0	1.296335E+0	1.040786E+0	1.262791E+0	1.266632E+0	1.324514E+0	1.043977E+0	1.217325E+0	1.305586E+0	1.374594E+0	1.241829E+0	1.303146E+0	1.353885E+0	1.336602E+0	1.252365E+0	1.269185E+0	1.372862E+0	1.316562E+0	1.121502E+0	1.232003E+0	1.341311E+0	1.286285E+0	1.109256E+0	1.181733E+0	1.249044E+0	1.297545E+0	1.204600E+0	1.248812E+0	1.316643E+0	1.322554E+0	1.296217E+0	1.203581E+0	1.294034E+0	1.223454E+0	1.274721E+0	1.146050E+0	1.369195E+0	1.291338E+0	1.294281E+0	1.160724E+0	1.291449E+0	1.316706E+0	1.265683E+0	1.256846E+0	1.293392E+0	1.315041E+0	1.263310E+0	1.267505E+0	1.257809E+0	1.227172E+0	1.142889E+0	1.297170E+0	1.267249E+0	1.271425E+0	1.121064E+0	1.251295E+0	1.283435E+0	1.258695E+0	1.270942E+0	1.138875E+0	1.337424E+0	1.286647E+0	1.242535E+0	1.206083E+0	1.211659E+0	1.309632E+0	1.135470E+0	1.322617E+0	1.302984E+0	1.387630E+0	1.072911E+0	1.282255E+0	1.241398E+0	1.304701E+0	1.172958E+0	1.237900E+0	1.271064E+0	1.244538E+0	1.193894E+0	1.274736E+0	1.302388E+0	1.295947E+0	1.067916E+0	1.325043E+0	1.280109E+0	1.319272E+0	1.181140E+0	1.263085E+0	1.251939E+0	1.329242E+0	1.255294E+0	1.208745E+0	1.102029E+0	1.353805E+0	1.190214E+0	1.273567E+0	1.228624E+0	1.263607E+0	1.064762E+0	1.266028E+0	1.151030E+0	1.229417E+0	1.199906E+0	1.183883E+0	1.309322E+0	1.272211E+0	1.220528E+0	1.248614E+0	1.331343E+0	1.374515E+0	1.222428E+0	1.244847E+0	1.299038E+0	1.361769E+0	1.133128E+0	1.309055E+0	1.275619E+0	1.346425E+0	1.099039E+0	1.255904E+0	1.295642E+0	1.234096E+0	1.217971E+0	1.144045E+0	1.301888E+0	1.305490E+0	1.177912E+0	1.267111E+0	1.224648E+0	1.230880E+0	1.152356E+0	1.289049E+0	1.294944E+0	1.294755E+0	1.099171E+0	1.301462E+0	1.379651E+0	1.314600E+0	1.343279E+0	1.329977E+0	1.200077E+0	1.306162E+0	1.315316E+0	1.411871E+0	1.252720E+0	1.261570E+0	1.133549E+0	1.396876E+0	1.308373E+0	1.262416E+0	1.120751E+0	1.247328E+0	1.230058E+0	1.264541E+0	1.146535E+0	1.300555E+0	1.314349E+0	1.245427E+0	1.071279E+0	1.423924E+0	1.379500E+0	1.282859E+0	1.114704E+0	1.375197E+0	1.317613E+0	1.366977E+0
5.358650E+2	1.036370E+0	1.127001E+0	1.022431E+0	1.159295E+0	1.064334E+0	1.092366E+0	1.131020E+0	9.740236E-1	1.123191E+0	1.168852E+0	1.173768E+0	1.053940E+0	1.076300E+0	1.130614E+0	1.190289E+0	1.048038E+0	1.046780E+0	1.209415E+0	1.150049E+0	1.060953E+0	1.079322E+0	1.205908E+0	1.146536E+0	9.958532E-1	1.089741E+0	1.134451E+0	1.110297E+0	9.854180E-1	1.077831E+0	1.072561E+0	1.101288E+0	1.067509E+0	1.113951E+0	1.172646E+0	1.083139E+0	1.131713E+0	1.031791E+0	1.116787E+0	1.040422E+0	1.165600E+0	1.070840E+0	1.174192E+0	1.127908E+0	1.123916E+0	1.007758E+0	1.151506E+0	1.150728E+0	1.081807E+0	1.043506E+0	1.067949E+0	1.070714E+0	1.134304E+0	1.077246E+0	1.075604E+0	1.087045E+0	1.014002E+0	1.089484E+0	1.120197E+0	1.139403E+0	8.839811E-1	1.105066E+0	1.130957E+0	1.014905E+0	1.040999E+0	9.583831E-1	1.141822E+0	1.094655E+0	1.021275E+0	1.058604E+0	1.056865E+0	1.091688E+0	9.262671E-1	1.114320E+0	1.125033E+0	1.127119E+0	9.306568E-1	1.065012E+0	1.090658E+0	1.097223E+0	1.014321E+0	1.110173E+0	1.077260E+0	1.086346E+0	1.041825E+0	1.079798E+0	1.097014E+0	1.132169E+0	8.861317E-1	1.169572E+0	1.089062E+0	1.116263E+0	9.854605E-1	1.031486E+0	1.109468E+0	1.175731E+0	1.055037E+0	1.085414E+0	9.336145E-1	1.140910E+0	9.689337E-1	1.099950E+0	1.074823E+0	1.064432E+0	9.447740E-1	1.095624E+0	9.635472E-1	1.066299E+0	9.605003E-1	9.833668E-1	1.190596E+0	1.114047E+0	1.070625E+0	1.069539E+0	1.178539E+0	1.180130E+0	1.105855E+0	1.094527E+0	1.134001E+0	1.147721E+0	1.017663E+0	1.148176E+0	1.203434E+0	1.186016E+0	9.223124E-1	1.100487E+0	1.108177E+0	1.077772E+0	1.028952E+0	9.776081E-1	1.099754E+0	1.076159E+0	1.080413E+0	1.104500E+0	1.078649E+0	1.066901E+0	9.955791E-1	1.137092E+0	1.100927E+0	1.128960E+0	9.629574E-1	1.088661E+0	1.188835E+0	1.103358E+0	1.154952E+0	1.167177E+0	1.025641E+0	1.136802E+0	1.089897E+0	1.222261E+0	1.049467E+0	1.112970E+0	9.881492E-1	1.147654E+0	1.092054E+0	1.104079E+0	9.513738E-1	1.056896E+0	1.108203E+0	1.099809E+0	9.790565E-1	1.093569E+0	1.153030E+0	1.121325E+0	9.137700E-1	1.223484E+0	1.219123E+0	1.091899E+0	9.231034E-1	1.203754E+0	1.117819E+0	1.068859E+0
5.360070E+2	9.061137E-1	9.286498E-1	8.868734E-1	1.046429E+0	9.215206E-1	9.581937E-1	9.577877E-1	9.362511E-1	9.033469E-1	9.687498E-1	9.967104E-1	9.154618E-1	9.034898E-1	9.700314E-1	1.016127E+0	9.657425E-1	9.269009E-1	1.013349E+0	1.003210E+0	9.032240E-1	9.468382E-1	1.038952E+0	9.666103E-1	9.247965E-1	8.803450E-1	9.973057E-1	9.560707E-1	9.175402E-1	8.904524E-1	9.821675E-1	9.183437E-1	9.116884E-1	9.430246E-1	9.744320E-1	9.078519E-1	9.779581E-1	8.877659E-1	1.033891E+0	9.432272E-1	9.947358E-1	8.659536E-1	1.030234E+0	9.331955E-1	9.922451E-1	8.837565E-1	9.579266E-1	9.899243E-1	9.395399E-1	9.465342E-1	9.348513E-1	9.612436E-1	9.321952E-1	9.583908E-1	9.320993E-1	9.663367E-1	8.699230E-1	9.556543E-1	9.203563E-1	9.218525E-1	7.689706E-1	8.857190E-1	9.640725E-1	9.055512E-1	9.215338E-1	8.354152E-1	9.374788E-1	9.754892E-1	8.989444E-1	9.196803E-1	9.246238E-1	9.393133E-1	8.280881E-1	9.660405E-1	9.551478E-1	9.780290E-1	7.848337E-1	9.301722E-1	9.047473E-1	9.156772E-1	8.678469E-1	8.913665E-1	9.892191E-1	9.684104E-1	8.648606E-1	9.181279E-1	9.391060E-1	9.541511E-1	7.622086E-1	1.008263E+0	9.301259E-1	1.004876E+0	8.522087E-1	9.301927E-1	9.620500E-1	9.400443E-1	9.143158E-1	9.421915E-1	8.125020E-1	1.022696E+0	8.152358E-1	9.380942E-1	9.142658E-1	9.058955E-1	7.936584E-1	9.107410E-1	8.195776E-1	9.240512E-1	8.514753E-1	8.798751E-1	1.047721E+0	9.403954E-1	9.241983E-1	9.547756E-1	1.026330E+0	9.714115E-1	9.298424E-1	9.632360E-1	9.762740E-1	9.874488E-1	8.512007E-1	9.808608E-1	9.923441E-1	1.041217E+0	7.885880E-1	9.723191E-1	9.480935E-1	9.487763E-1	9.027758E-1	8.488755E-1	9.746807E-1	9.212873E-1	8.882479E-1	9.922812E-1	9.245137E-1	9.053324E-1	8.398151E-1	1.002753E+0	9.844046E-1	9.610124E-1	8.054090E-1	9.553526E-1	9.797134E-1	9.713317E-1	9.808764E-1	1.000405E+0	9.308503E-1	9.526676E-1	9.441758E-1	1.014471E+0	9.451461E-1	9.505125E-1	8.076512E-1	1.011396E+0	9.495587E-1	9.609797E-1	7.955691E-1	8.992780E-1	9.034264E-1	9.525185E-1	8.462123E-1	1.030525E+0	9.905488E-1	9.919619E-1	8.329006E-1	1.085978E+0	9.840749E-1	9.989481E-1	7.885357E-1	1.056066E+0	9.841188E-1	9.518392E-1
5.362680E+2	6.964193E-1	6.929354E-1	6.199459E-1	7.946975E-1	7.153941E-1	7.062253E-1	7.360497E-1	7.447520E-1	7.087849E-1	7.822584E-1	7.862152E-1	7.306590E-1	6.912818E-1	7.537547E-1	7.617916E-1	7.462873E-1	7.146468E-1	7.444753E-1	7.278213E-1	7.187609E-1	7.282829E-1	7.732069E-1	7.281443E-1	7.046934E-1	7.103775E-1	7.607307E-1	7.256786E-1	7.460320E-1	6.933058E-1	7.033343E-1	7.220866E-1	7.311740E-1	7.402124E-1	7.324948E-1	7.127916E-1	7.881847E-1	7.159744E-1	7.432077E-1	7.306712E-1	8.291372E-1	7.139747E-1	7.675529E-1	7.271554E-1	8.224579E-1	6.606439E-1	7.282653E-1	7.510688E-1	7.212181E-1	7.200908E-1	7.738951E-1	7.364844E-1	7.005214E-1	7.159863E-1	6.864022E-1	7.149478E-1	7.135927E-1	7.152050E-1	7.366762E-1	7.904043E-1	6.105804E-1	6.917010E-1	7.562794E-1	7.174422E-1	7.373981E-1	6.533394E-1	7.670108E-1	7.046066E-1	6.973640E-1	7.082754E-1	7.043715E-1	7.638508E-1	6.587969E-1	7.377368E-1	7.073087E-1	8.038297E-1	6.181060E-1	6.824997E-1	7.545113E-1	7.456592E-1	6.980155E-1	6.925010E-1	7.245251E-1	7.234672E-1	6.884371E-1	6.978832E-1	7.727391E-1	7.374788E-1	6.637610E-1	7.503800E-1	7.492485E-1	7.964764E-1	7.005954E-1	6.873960E-1	7.483432E-1	7.658623E-1	7.179950E-1	7.205371E-1	6.388903E-1	7.921485E-1	6.381028E-1	7.193064E-1	6.913571E-1	7.343153E-1	6.380324E-1	7.431206E-1	6.396161E-1	7.472025E-1	6.654587E-1	6.678089E-1	7.644862E-1	7.296685E-1	7.608947E-1	7.252490E-1	7.724519E-1	7.684277E-1	7.117022E-1	7.477478E-1	7.349836E-1	7.654110E-1	6.953216E-1	7.474404E-1	7.889102E-1	7.903769E-1	6.391314E-1	7.634158E-1	7.627335E-1	7.060891E-1	7.239858E-1	6.775909E-1	6.948951E-1	7.419928E-1	6.643399E-1	7.184894E-1	7.256286E-1	7.374943E-1	6.525947E-1	7.687616E-1	7.541860E-1	7.683036E-1	6.314494E-1	7.672392E-1	7.983277E-1	7.664255E-1	7.564096E-1	7.774764E-1	7.092983E-1	7.486419E-1	7.360048E-1	8.196682E-1	7.080999E-1	7.660763E-1	6.631616E-1	8.151617E-1	7.481199E-1	7.487780E-1	6.343352E-1	7.486221E-1	7.375818E-1	7.751893E-1	6.502658E-1	7.465488E-1	7.619168E-1	7.379695E-1	6.225353E-1	8.437575E-1	7.979304E-1	7.449453E-1	6.161594E-1	8.009668E-1	7.602872E-1	7.317323E-1
5.365140E+2	5.414925E-1	5.594187E-1	5.414375E-1	6.150582E-1	5.540147E-1	5.826182E-1	6.113216E-1	5.914652E-1	5.592911E-1	5.972788E-1	5.910682E-1	5.677736E-1	5.386176E-1	5.695009E-1	6.023724E-1	5.728480E-1	5.869827E-1	6.051652E-1	5.919563E-1	5.567540E-1	5.683753E-1	6.082280E-1	5.856675E-1	5.526139E-1	5.846332E-1	6.132998E-1	6.230190E-1	5.797053E-1	5.649825E-1	5.981142E-1	5.730682E-1	5.821640E-1	5.901937E-1	5.925788E-1	6.005654E-1	5.919598E-1	5.337723E-1	5.806881E-1	5.485448E-1	6.396086E-1	5.526596E-1	5.863154E-1	5.831436E-1	6.624884E-1	5.339267E-1	5.834474E-1	6.090723E-1	5.901351E-1	5.513069E-1	5.577397E-1	5.693699E-1	6.069924E-1	5.853882E-1	5.520296E-1	5.884665E-1	5.484404E-1	5.658267E-1	5.831603E-1	5.424316E-1	5.157472E-1	5.727098E-1	5.707996E-1	5.248184E-1	5.442798E-1	5.250942E-1	5.429973E-1	5.705448E-1	5.495035E-1	5.361317E-1	5.597476E-1	6.188631E-1	5.482309E-1	5.841613E-1	6.186024E-1	6.060903E-1	5.339774E-1	5.631102E-1	5.660884E-1	5.962936E-1	5.301304E-1	5.507620E-1	5.724544E-1	5.715111E-1	5.747907E-1	5.629248E-1	6.016724E-1	6.098151E-1	5.588369E-1	6.012750E-1	6.149289E-1	6.311934E-1	6.213783E-1	5.504731E-1	5.539291E-1	6.170064E-1	5.846547E-1	5.716309E-1	5.011448E-1	5.760448E-1	5.465383E-1	5.607435E-1	5.910737E-1	5.913314E-1	5.523252E-1	5.955486E-1	5.375475E-1	5.637638E-1	5.648631E-1	5.111851E-1	5.969599E-1	6.001344E-1	5.633422E-1	6.016152E-1	6.083530E-1	6.554674E-1	6.170589E-1	5.788772E-1	5.783012E-1	6.072685E-1	5.678281E-1	6.064514E-1	6.040701E-1	6.175882E-1	4.917721E-1	5.842835E-1	6.094960E-1	5.672543E-1	5.534775E-1	5.375464E-1	5.929395E-1	5.871199E-1	5.713752E-1	5.891260E-1	5.742039E-1	5.952174E-1	5.688780E-1	5.683550E-1	5.924108E-1	5.890515E-1	5.132882E-1	6.122063E-1	6.541069E-1	5.926788E-1	6.332329E-1	6.169446E-1	5.640272E-1	6.366839E-1	6.146704E-1	6.669430E-1	5.538238E-1	5.821176E-1	5.619730E-1	6.317376E-1	5.976122E-1	5.898991E-1	5.154458E-1	5.711157E-1	5.798275E-1	5.910776E-1	5.164722E-1	5.964717E-1	6.417977E-1	5.917795E-1	4.977961E-1	6.840389E-1	5.996925E-1	5.852737E-1	4.726200E-1	6.191958E-1	5.935398E-1	6.927263E-1
5.367660E+2	4.832709E-1	5.105181E-1	4.556023E-1	5.595111E-1	5.078387E-1	4.891204E-1	5.266857E-1	4.667275E-1	5.081771E-1	5.221780E-1	5.104881E-1	5.025200E-1	4.575847E-1	4.984919E-1	5.314164E-1	4.848005E-1	5.034306E-1	5.547154E-1	5.224556E-1	5.107725E-1	4.785062E-1	5.830366E-1	5.133531E-1	4.984547E-1	5.398765E-1	5.430127E-1	5.052212E-1	5.455071E-1	4.930506E-1	4.943285E-1	4.901851E-1	5.208568E-1	5.060368E-1	5.669276E-1	5.214717E-1	5.683055E-1	4.964643E-1	5.523286E-1	5.244732E-1	5.659028E-1	4.919711E-1	5.633736E-1	5.087105E-1	5.735524E-1	4.683054E-1	5.439513E-1	5.376036E-1	4.876849E-1	5.114691E-1	5.180167E-1	5.656677E-1	5.054002E-1	5.106939E-1	4.876700E-1	4.866513E-1	4.827721E-1	4.953024E-1	5.104420E-1	5.263594E-1	4.708528E-1	5.249221E-1	5.159462E-1	4.856918E-1	4.832008E-1	4.828737E-1	5.451831E-1	4.982723E-1	4.957841E-1	5.149913E-1	4.814654E-1	5.320551E-1	4.780377E-1	5.253206E-1	5.046281E-1	5.407007E-1	4.478090E-1	5.205047E-1	4.882070E-1	4.666190E-1	4.824412E-1	5.389053E-1	4.918455E-1	5.176460E-1	4.957785E-1	5.085666E-1	5.222487E-1	5.213149E-1	5.238626E-1	5.370694E-1	5.255606E-1	5.239990E-1	5.353421E-1	4.654683E-1	5.193005E-1	5.425786E-1	5.152780E-1	4.812646E-1	4.096612E-1	5.610670E-1	4.473435E-1	4.746403E-1	4.907911E-1	5.170802E-1	5.103738E-1	4.975380E-1	4.397773E-1	4.764379E-1	4.940530E-1	4.830020E-1	5.381000E-1	5.320826E-1	5.151947E-1	4.829715E-1	5.316536E-1	5.126900E-1	5.010636E-1	5.113296E-1	5.307746E-1	5.481645E-1	5.048032E-1	5.204544E-1	5.220400E-1	5.314625E-1	4.660762E-1	5.635948E-1	5.115504E-1	4.940105E-1	5.037866E-1	4.562136E-1	5.295129E-1	5.573370E-1	5.067542E-1	5.236656E-1	5.036901E-1	5.233560E-1	5.206776E-1	5.556916E-1	5.109575E-1	5.260710E-1	4.547547E-1	5.001286E-1	5.686830E-1	5.240251E-1	5.467043E-1	5.363959E-1	4.568973E-1	5.474579E-1	5.218854E-1	5.479834E-1	4.935830E-1	5.391145E-1	5.501221E-1	5.572034E-1	5.014711E-1	5.229739E-1	5.035021E-1	4.895726E-1	5.146021E-1	5.227619E-1	5.174209E-1	5.127852E-1	5.193574E-1	5.370897E-1	4.623835E-1	5.549952E-1	5.986402E-1	5.107292E-1	4.847951E-1	5.417361E-1	5.349525E-1	4.559017E-1
5.370280E+2	4.743901E-1	4.857927E-1	4.608356E-1	5.476930E-1	4.645185E-1	4.426354E-1	4.950088E-1	4.680447E-1	4.614606E-1	4.984889E-1	4.765021E-1	4.586851E-1	4.602708E-1	4.766783E-1	5.019280E-1	4.896676E-1	5.023926E-1	4.807610E-1	5.271587E-1	4.797607E-1	4.645830E-1	5.336417E-1	4.866657E-1	4.715920E-1	5.169658E-1	5.561560E-1	4.995444E-1	4.838469E-1	4.677413E-1	4.699367E-1	4.682830E-1	5.102133E-1	4.966287E-1	5.045483E-1	5.177307E-1	5.607789E-1	4.817146E-1	5.370580E-1	4.954055E-1	5.606381E-1	4.468447E-1	5.151966E-1	4.779662E-1	5.706646E-1	4.316477E-1	5.078690E-1	4.962274E-1	5.051330E-1	4.621971E-1	4.715868E-1	4.926872E-1	5.301265E-1	5.083445E-1	4.698406E-1	4.814026E-1	4.455267E-1	4.730902E-1	5.007463E-1	4.959371E-1	4.335249E-1	4.943383E-1	5.117625E-1	4.621155E-1	4.957760E-1	4.095156E-1	4.878143E-1	5.164783E-1	4.569573E-1	4.717035E-1	4.947334E-1	4.831100E-1	4.647328E-1	5.117866E-1	5.132302E-1	5.082669E-1	4.197660E-1	5.003726E-1	4.625811E-1	5.026395E-1	4.581101E-1	4.634554E-1	5.375808E-1	4.677503E-1	4.968613E-1	4.856047E-1	5.043904E-1	4.938495E-1	4.906145E-1	5.206203E-1	4.763276E-1	5.401685E-1	5.169803E-1	5.016079E-1	4.614218E-1	5.001962E-1	5.300390E-1	4.971776E-1	4.252546E-1	5.311115E-1	4.489783E-1	4.614657E-1	5.349570E-1	4.754395E-1	4.652646E-1	4.953111E-1	4.505212E-1	4.775362E-1	4.811273E-1	4.372627E-1	5.094243E-1	5.039229E-1	5.027856E-1	4.813078E-1	5.227355E-1	5.390667E-1	4.976016E-1	5.184650E-1	4.848150E-1	5.455024E-1	4.812289E-1	5.239644E-1	5.198530E-1	5.303859E-1	4.293675E-1	4.833636E-1	5.057578E-1	4.803460E-1	4.920946E-1	4.389766E-1	4.862408E-1	5.174273E-1	4.823788E-1	5.034041E-1	4.910339E-1	4.466713E-1	5.064708E-1	4.797130E-1	5.069982E-1	5.072309E-1	4.739014E-1	5.129659E-1	5.420580E-1	5.002602E-1	4.871517E-1	5.295884E-1	4.748456E-1	5.150634E-1	5.159379E-1	5.433076E-1	4.705638E-1	4.999340E-1	5.195832E-1	4.896568E-1	5.066215E-1	4.729165E-1	4.975306E-1	5.387969E-1	4.923545E-1	5.043514E-1	4.623854E-1	5.317535E-1	5.269014E-1	4.697793E-1	4.068851E-1	5.359562E-1	5.444794E-1	5.125696E-1	4.565998E-1	5.778835E-1	4.883830E-1	5.255558E-1
5.372590E+2	4.872183E-1	4.737047E-1	4.671160E-1	5.423746E-1	5.011738E-1	4.764423E-1	5.019378E-1	4.904451E-1	4.680559E-1	5.221783E-1	5.198071E-1	5.239390E-1	4.562415E-1	4.794630E-1	5.125251E-1	4.980746E-1	4.577618E-1	5.335039E-1	5.491065E-1	4.851078E-1	4.675362E-1	5.509301E-1	5.090486E-1	4.507947E-1	4.780705E-1	5.521556E-1	5.369179E-1	5.138998E-1	5.108113E-1	5.139375E-1	5.013508E-1	4.923319E-1	5.002874E-1	5.010507E-1	4.733749E-1	5.419625E-1	4.739060E-1	5.403305E-1	5.326486E-1	5.022484E-1	4.779670E-1	5.490353E-1	5.238128E-1	5.591149E-1	4.764514E-1	5.341994E-1	4.971674E-1	5.064750E-1	5.109449E-1	5.102784E-1	4.747066E-1	5.435648E-1	5.332427E-1	4.954978E-1	5.165654E-1	4.969842E-1	4.975240E-1	5.373747E-1	5.487460E-1	4.390741E-1	4.871699E-1	5.192002E-1	4.932165E-1	5.074531E-1	4.237652E-1	5.287919E-1	5.071000E-1	5.016344E-1	4.933473E-1	4.934069E-1	5.339018E-1	4.794135E-1	5.288507E-1	5.427987E-1	4.972812E-1	4.472991E-1	4.886677E-1	5.093104E-1	5.170479E-1	4.756283E-1	5.006417E-1	4.941326E-1	5.170796E-1	5.093080E-1	5.409001E-1	5.062701E-1	5.080910E-1	4.780926E-1	5.232734E-1	5.277010E-1	5.575350E-1	5.311447E-1	4.929546E-1	5.113854E-1	4.996794E-1	5.098655E-1	4.903581E-1	5.198576E-1	5.460895E-1	4.767749E-1	5.080465E-1	4.778008E-1	4.899882E-1	4.878192E-1	4.919696E-1	4.456862E-1	4.605101E-1	4.839374E-1	4.668316E-1	5.461492E-1	4.950055E-1	4.983187E-1	4.868518E-1	5.542468E-1	5.144099E-1	4.733633E-1	5.118049E-1	5.093615E-1	5.657359E-1	4.807477E-1	4.976388E-1	5.100087E-1	5.546084E-1	4.503441E-1	5.272639E-1	5.094442E-1	4.858118E-1	5.067095E-1	4.589065E-1	5.176574E-1	5.227881E-1	4.829460E-1	4.961302E-1	4.991701E-1	4.741617E-1	5.059633E-1	5.105455E-1	5.256649E-1	5.206884E-1	4.662428E-1	5.218532E-1	5.642454E-1	4.828319E-1	5.319431E-1	5.131384E-1	5.062559E-1	5.071073E-1	5.415129E-1	5.729178E-1	4.940725E-1	5.152241E-1	5.318898E-1	5.519625E-1	5.186389E-1	4.892400E-1	5.165318E-1	5.015053E-1	5.055006E-1	5.503795E-1	4.528963E-1	5.462598E-1	5.721634E-1	4.992276E-1	4.422979E-1	5.708615E-1	5.565734E-1	5.084285E-1	5.091456E-1	5.448342E-1	5.439653E-1	5.701347E-1
5.375160E+2	5.316248E-1	5.286501E-1	5.503351E-1	6.451948E-1	5.744848E-1	5.952958E-1	5.618271E-1	5.804845E-1	5.801763E-1	5.922385E-1	5.954538E-1	5.832154E-1	5.686129E-1	5.732143E-1	6.194201E-1	5.458584E-1	5.989189E-1	6.326836E-1	5.715768E-1	5.984589E-1	5.945344E-1	6.521894E-1	5.581192E-1	5.669121E-1	6.150038E-1	6.561578E-1	5.917960E-1	5.869592E-1	5.711990E-1	5.694177E-1	5.756447E-1	5.736489E-1	5.813079E-1	5.774214E-1	6.059092E-1	5.946478E-1	5.949401E-1	6.657659E-1	5.866962E-1	6.276436E-1	5.490287E-1	6.390809E-1	6.138875E-1	6.694184E-1	5.271382E-1	5.805213E-1	5.973177E-1	5.673190E-1	5.890472E-1	5.964311E-1	6.338883E-1	5.790409E-1	5.698858E-1	5.816003E-1	5.905654E-1	5.508907E-1	6.230239E-1	5.912400E-1	5.958148E-1	4.779153E-1	5.870468E-1	5.661509E-1	5.699647E-1	5.671847E-1	5.393434E-1	6.069236E-1	5.749578E-1	5.830115E-1	5.401584E-1	5.756693E-1	6.137838E-1	5.899800E-1	5.953418E-1	6.083882E-1	6.264917E-1	4.896186E-1	5.607690E-1	5.716154E-1	5.948523E-1	5.413227E-1	5.852543E-1	5.924640E-1	5.992938E-1	5.839906E-1	5.619875E-1	5.668952E-1	6.169361E-1	5.795626E-1	6.002137E-1	6.004800E-1	5.892740E-1	6.156080E-1	5.911931E-1	6.073559E-1	5.983996E-1	6.141762E-1	5.460554E-1	6.576032E-1	6.059998E-1	5.410882E-1	5.885039E-1	5.650938E-1	5.948432E-1	6.005917E-1	5.927639E-1	5.122994E-1	5.533285E-1	5.744172E-1	5.264320E-1	6.216112E-1	5.949719E-1	6.070221E-1	5.555992E-1	6.333240E-1	5.740441E-1	5.593502E-1	6.017110E-1	5.981478E-1	6.088657E-1	5.750451E-1	6.339473E-1	6.286789E-1	6.245853E-1	5.258589E-1	6.191010E-1	5.910653E-1	5.596017E-1	5.846567E-1	5.677100E-1	6.042017E-1	5.942683E-1	5.719424E-1	6.099074E-1	5.764641E-1	5.706204E-1	5.627894E-1	5.848716E-1	5.641286E-1	5.632137E-1	5.439230E-1	6.038131E-1	6.263713E-1	6.048251E-1	6.123643E-1	6.606232E-1	5.556141E-1	6.076999E-1	6.331085E-1	6.612289E-1	5.729246E-1	6.131760E-1	6.052742E-1	6.113575E-1	6.039079E-1	6.116633E-1	5.729906E-1	6.089042E-1	5.646585E-1	6.128805E-1	5.662892E-1	6.070716E-1	6.139444E-1	5.717971E-1	5.458951E-1	6.401432E-1	6.443874E-1	5.990777E-1	5.802745E-1	6.460474E-1	6.220821E-1	5.840660E-1
5.377630E+2	6.490530E-1	6.330452E-1	5.686534E-1	7.361958E-1	6.587443E-1	6.428372E-1	6.474537E-1	6.419754E-1	6.334886E-1	6.764119E-1	6.826118E-1	6.604240E-1	6.948632E-1	6.572185E-1	7.023552E-1	6.449671E-1	7.665422E-1	6.877195E-1	6.557087E-1	6.578077E-1	6.595102E-1	6.818262E-1	6.777826E-1	6.267039E-1	6.832039E-1	7.515875E-1	6.717468E-1	6.771179E-1	7.616858E-1	6.636374E-1	6.469335E-1	6.954112E-1	7.004862E-1	6.683666E-1	6.956899E-1	6.435698E-1	6.617475E-1	7.192123E-1	6.507350E-1	7.224078E-1	6.698852E-1	7.199497E-1	6.532615E-1	7.306341E-1	6.814617E-1	6.575630E-1	6.772497E-1	6.523211E-1	7.347674E-1	6.511148E-1	6.735519E-1	6.929962E-1	7.080000E-1	7.159725E-1	6.661393E-1	6.523345E-1	7.029883E-1	6.418731E-1	6.721580E-1	5.898986E-1	7.003030E-1	6.623776E-1	5.900295E-1	6.323056E-1	5.926466E-1	6.703021E-1	6.930210E-1	6.702384E-1	6.519008E-1	6.698741E-1	6.830458E-1	5.959441E-1	6.553595E-1	6.949434E-1	6.897899E-1	5.564114E-1	6.810943E-1	6.610536E-1	6.784208E-1	6.440004E-1	6.504643E-1	6.364839E-1	6.673336E-1	6.619194E-1	6.439935E-1	6.632379E-1	6.922118E-1	6.305134E-1	7.068689E-1	6.641617E-1	7.240155E-1	7.068906E-1	6.502379E-1	6.508888E-1	7.043556E-1	6.648561E-1	6.676810E-1	6.882714E-1	6.760729E-1	6.054013E-1	6.209693E-1	6.700535E-1	6.279553E-1	6.556247E-1	6.545772E-1	6.116810E-1	6.472451E-1	6.536570E-1	6.604165E-1	7.156876E-1	6.836746E-1	6.700600E-1	6.897665E-1	6.808891E-1	7.024860E-1	6.228302E-1	6.744915E-1	6.555979E-1	7.334627E-1	6.592385E-1	7.053193E-1	6.800844E-1	7.214771E-1	6.003251E-1	6.867170E-1	6.231870E-1	6.481503E-1	6.104761E-1	6.237274E-1	6.534010E-1	6.681305E-1	6.427995E-1	6.779662E-1	6.659625E-1	6.612916E-1	6.363583E-1	6.839738E-1	6.942277E-1	6.907891E-1	6.237908E-1	6.615798E-1	7.201152E-1	6.697825E-1	7.268879E-1	7.077051E-1	6.279696E-1	6.588477E-1	7.288676E-1	7.490197E-1	6.586334E-1	6.901035E-1	7.073739E-1	7.184997E-1	6.868863E-1	6.998091E-1	6.793934E-1	6.481845E-1	6.420192E-1	6.947615E-1	6.621268E-1	6.572835E-1	6.870601E-1	6.569867E-1	5.670374E-1	7.517343E-1	7.390371E-1	6.437126E-1	6.590937E-1	7.359007E-1	7.001976E-1	6.843672E-1
5.380160E+2	7.314504E-1	7.522760E-1	6.691440E-1	8.331070E-1	7.520495E-1	7.379196E-1	7.845551E-1	7.790112E-1	7.730897E-1	8.160287E-1	8.169127E-1	7.849541E-1	8.443941E-1	7.932043E-1	8.258364E-1	7.869927E-1	8.158434E-1	8.138439E-1	7.983673E-1	7.460292E-1	8.038074E-1	8.433478E-1	7.785068E-1	7.562528E-1	8.382528E-1	8.550176E-1	8.231337E-1	8.222005E-1	8.487146E-1	7.688577E-1	7.680375E-1	8.048276E-1	8.651404E-1	8.176096E-1	7.352368E-1	8.263549E-1	7.901570E-1	8.091981E-1	7.933479E-1	8.564179E-1	7.788121E-1	8.226131E-1	7.902618E-1	8.559529E-1	8.303542E-1	7.867776E-1	8.023197E-1	7.820614E-1	8.401268E-1	8.156816E-1	8.089361E-1	7.876012E-1	8.014854E-1	7.842459E-1	7.506357E-1	7.635788E-1	8.329305E-1	7.970054E-1	8.191046E-1	6.998642E-1	9.024452E-1	7.753390E-1	7.560672E-1	7.252714E-1	7.377805E-1	7.784846E-1	8.061186E-1	7.931015E-1	7.490464E-1	7.751350E-1	7.850911E-1	7.505537E-1	8.583615E-1	8.347220E-1	8.310323E-1	6.782707E-1	8.885034E-1	7.489848E-1	7.802393E-1	7.486242E-1	8.385517E-1	8.039903E-1	7.813004E-1	7.631195E-1	8.131603E-1	7.694494E-1	8.041081E-1	8.161823E-1	8.649946E-1	7.765412E-1	8.078543E-1	8.223054E-1	8.268648E-1	7.844557E-1	8.346044E-1	8.075449E-1	8.097668E-1	8.400518E-1	8.140797E-1	7.356624E-1	7.682394E-1	7.931991E-1	7.960236E-1	7.778703E-1	7.414504E-1	7.196585E-1	7.647775E-1	7.677404E-1	8.045666E-1	8.077513E-1	8.164932E-1	7.951436E-1	8.012039E-1	8.247738E-1	8.286344E-1	7.480584E-1	7.886572E-1	7.819882E-1	8.250467E-1	7.713364E-1	7.930715E-1	8.173474E-1	8.022192E-1	6.648275E-1	8.068113E-1	7.953825E-1	7.514559E-1	7.278835E-1	7.319921E-1	7.790678E-1	7.473536E-1	7.459674E-1	7.777154E-1	7.527489E-1	7.746307E-1	8.078505E-1	8.006943E-1	7.903875E-1	7.968326E-1	7.310114E-1	7.899510E-1	8.582348E-1	7.769876E-1	8.062915E-1	8.568909E-1	7.199551E-1	8.327525E-1	8.394958E-1	8.638235E-1	7.791159E-1	7.555644E-1	8.245156E-1	8.664042E-1	7.658599E-1	7.395283E-1	7.738540E-1	7.704994E-1	7.431438E-1	8.381758E-1	7.309218E-1	8.346991E-1	8.007959E-1	8.226334E-1	6.674625E-1	9.172698E-1	8.594527E-1	7.651921E-1	7.616220E-1	8.247208E-1	8.053537E-1	7.930271E-1
5.382740E+2	8.942718E-1	9.050230E-1	8.931546E-1	1.088976E+0	9.505595E-1	9.544961E-1	9.835248E-1	9.274665E-1	1.020414E+0	9.919354E-1	1.035631E+0	9.757344E-1	1.100475E+0	9.881324E-1	1.003687E+0	9.799005E-1	1.023428E+0	1.017362E+0	9.702889E-1	9.738001E-1	9.586519E-1	1.051300E+0	1.002768E+0	9.265294E-1	1.062035E+0	1.025878E+0	1.025614E+0	9.962988E-1	1.057851E+0	9.692541E-1	9.209201E-1	9.985410E-1	1.091997E+0	1.030982E+0	1.009925E+0	1.029030E+0	9.376543E-1	1.033345E+0	9.831955E-1	1.098116E+0	9.650250E-1	1.074970E+0	9.574669E-1	1.085224E+0	1.073381E+0	1.015464E+0	9.941561E-1	9.619092E-1	1.066046E+0	9.756058E-1	9.326855E-1	9.929353E-1	1.026039E+0	9.647144E-1	9.642372E-1	9.512734E-1	1.020070E+0	9.887651E-1	1.002214E+0	8.547239E-1	1.096941E+0	9.510563E-1	9.381569E-1	9.727326E-1	9.488827E-1	1.004683E+0	9.716273E-1	9.462807E-1	9.564245E-1	9.365655E-1	9.859499E-1	9.281020E-1	1.003699E+0	1.016436E+0	1.003662E+0	8.674334E-1	1.023811E+0	9.585114E-1	9.425726E-1	9.121294E-1	1.036878E+0	9.766422E-1	9.587712E-1	9.622721E-1	1.033405E+0	9.546153E-1	9.984017E-1	9.901920E-1	9.886293E-1	9.488563E-1	1.061767E+0	1.012216E+0	1.028941E+0	9.768911E-1	1.027911E+0	1.025515E+0	1.042220E+0	1.041212E+0	1.058000E+0	9.122510E-1	9.794993E-1	9.875297E-1	9.691095E-1	9.222193E-1	1.008752E+0	8.501980E-1	9.240514E-1	9.779217E-1	1.067453E+0	1.022567E+0	9.657396E-1	9.634110E-1	1.086726E+0	9.960076E-1	1.043660E+0	9.494633E-1	1.010329E+0	9.726178E-1	1.016735E+0	9.825429E-1	1.034098E+0	1.021875E+0	1.075668E+0	8.913728E-1	1.154983E+0	1.019709E+0	9.416704E-1	9.422357E-1	9.544473E-1	9.527479E-1	9.778755E-1	9.228269E-1	9.730587E-1	9.331019E-1	9.501856E-1	9.610774E-1	1.024225E+0	9.827074E-1	9.900801E-1	9.219292E-1	1.061012E+0	1.053488E+0	1.002490E+0	1.032794E+0	1.130305E+0	9.437505E-1	9.742637E-1	1.032798E+0	1.119925E+0	1.008816E+0	1.008328E+0	1.004102E+0	1.064968E+0	9.695887E-1	9.490093E-1	9.323731E-1	1.018610E+0	9.580335E-1	9.612399E-1	9.007729E-1	1.058421E+0	1.024205E+0	9.709271E-1	8.672567E-1	1.089681E+0	1.044545E+0	9.754805E-1	9.186185E-1	1.028180E+0	1.047213E+0	9.880598E-1
5.385110E+2	1.101992E+0	1.166013E+0	1.099893E+0	1.311162E+0	1.113843E+0	1.186920E+0	1.193385E+0	1.145319E+0	1.221572E+0	1.233366E+0	1.267505E+0	1.188433E+0	1.337753E+0	1.201162E+0	1.263087E+0	1.186967E+0	1.298477E+0	1.281650E+0	1.222161E+0	1.158264E+0	1.172567E+0	1.238013E+0	1.183122E+0	1.157896E+0	1.270897E+0	1.326457E+0	1.232825E+0	1.208222E+0	1.318938E+0	1.231826E+0	1.164845E+0	1.226312E+0	1.297945E+0	1.262426E+0	1.241860E+0	1.251600E+0	1.201847E+0	1.270584E+0	1.196206E+0	1.336942E+0	1.206739E+0	1.311841E+0	1.196408E+0	1.311608E+0	1.277937E+0	1.244636E+0	1.219375E+0	1.186940E+0	1.323939E+0	1.186602E+0	1.210328E+0	1.220308E+0	1.251061E+0	1.174750E+0	1.206178E+0	1.175233E+0	1.292729E+0	1.158980E+0	1.192211E+0	1.008575E+0	1.320109E+0	1.225327E+0	1.151348E+0	1.177529E+0	1.171068E+0	1.182801E+0	1.196167E+0	1.147329E+0	1.191989E+0	1.134262E+0	1.250068E+0	1.096475E+0	1.270247E+0	1.183633E+0	1.265221E+0	1.050987E+0	1.316896E+0	1.169043E+0	1.175506E+0	1.132570E+0	1.274547E+0	1.210465E+0	1.188406E+0	1.193895E+0	1.227408E+0	1.173149E+0	1.257290E+0	1.165066E+0	1.256062E+0	1.234085E+0	1.291725E+0	1.239898E+0	1.227453E+0	1.191588E+0	1.238273E+0	1.238566E+0	1.260464E+0	1.311504E+0	1.297642E+0	1.094289E+0	1.185584E+0	1.256683E+0	1.165774E+0	1.160394E+0	1.232615E+0	1.022639E+0	1.145386E+0	1.230253E+0	1.316480E+0	1.249962E+0	1.177408E+0	1.228964E+0	1.271899E+0	1.259994E+0	1.233457E+0	1.194727E+0	1.247700E+0	1.194062E+0	1.253148E+0	1.108112E+0	1.255234E+0	1.304057E+0	1.219389E+0	1.046597E+0	1.357831E+0	1.181373E+0	1.184905E+0	1.136128E+0	1.100955E+0	1.222457E+0	1.154787E+0	1.122360E+0	1.208927E+0	1.156849E+0	1.159982E+0	1.157432E+0	1.259869E+0	1.212360E+0	1.209166E+0	1.115035E+0	1.355772E+0	1.286461E+0	1.153528E+0	1.261842E+0	1.318631E+0	1.129967E+0	1.248760E+0	1.272492E+0	1.265897E+0	1.163092E+0	1.171261E+0	1.204656E+0	1.340978E+0	1.197924E+0	1.159579E+0	1.180467E+0	1.376607E+0	1.149664E+0	1.218026E+0	1.108106E+0	1.436683E+0	1.202934E+0	1.219137E+0	1.022652E+0	1.328202E+0	1.297472E+0	1.199113E+0	1.124316E+0	1.353510E+0	1.346156E+0	1.163589E+0
5.387650E+2	1.373853E+0	1.414915E+0	1.256909E+0	1.562893E+0	1.386618E+0	1.458434E+0	1.437891E+0	1.434763E+0	1.465598E+0	1.472784E+0	1.488416E+0	1.393159E+0	1.598764E+0	1.435536E+0	1.519267E+0	1.405092E+0	1.593244E+0	1.524725E+0	1.458359E+0	1.455008E+0	1.440487E+0	1.601557E+0	1.463343E+0	1.395765E+0	1.568739E+0	1.603601E+0	1.465582E+0	1.455898E+0	1.573360E+0	1.463308E+0	1.408772E+0	1.483038E+0	1.505987E+0	1.502616E+0	1.418214E+0	1.515021E+0	1.400104E+0	1.511636E+0	1.376062E+0	1.633678E+0	1.430298E+0	1.531505E+0	1.530817E+0	1.622882E+0	1.579343E+0	1.505506E+0	1.461522E+0	1.436130E+0	1.639492E+0	1.445058E+0	1.438261E+0	1.451443E+0	1.472798E+0	1.456542E+0	1.436050E+0	1.388900E+0	1.503743E+0	1.475167E+0	1.467164E+0	1.247172E+0	1.631204E+0	1.419172E+0	1.431756E+0	1.365705E+0	1.345755E+0	1.464728E+0	1.417398E+0	1.421243E+0	1.445674E+0	1.371319E+0	1.493406E+0	1.307973E+0	1.556805E+0	1.459968E+0	1.527829E+0	1.280939E+0	1.593132E+0	1.452933E+0	1.395954E+0	1.333543E+0	1.524073E+0	1.441429E+0	1.403298E+0	1.398459E+0	1.445309E+0	1.427867E+0	1.500919E+0	1.450476E+0	1.471499E+0	1.443326E+0	1.520488E+0	1.480697E+0	1.488067E+0	1.476036E+0	1.470861E+0	1.464407E+0	1.483823E+0	1.481477E+0	1.568843E+0	1.313937E+0	1.416602E+0	1.422434E+0	1.376487E+0	1.401728E+0	1.524975E+0	1.252023E+0	1.370014E+0	1.410650E+0	1.514225E+0	1.493954E+0	1.380154E+0	1.450838E+0	1.540790E+0	1.442526E+0	1.481167E+0	1.385744E+0	1.408483E+0	1.435877E+0	1.523110E+0	1.330384E+0	1.477537E+0	1.512958E+0	1.463232E+0	1.285729E+0	1.673710E+0	1.442036E+0	1.388783E+0	1.390430E+0	1.330412E+0	1.399693E+0	1.452024E+0	1.307155E+0	1.460899E+0	1.370650E+0	1.451291E+0	1.415686E+0	1.527997E+0	1.373004E+0	1.453549E+0	1.344793E+0	1.629300E+0	1.497246E+0	1.418637E+0	1.558074E+0	1.610765E+0	1.340300E+0	1.478927E+0	1.549658E+0	1.536022E+0	1.355569E+0	1.424505E+0	1.428910E+0	1.572150E+0	1.456591E+0	1.442516E+0	1.413902E+0	1.638641E+0	1.429778E+0	1.390025E+0	1.350073E+0	1.609081E+0	1.517449E+0	1.359015E+0	1.236189E+0	1.636002E+0	1.488344E+0	1.415845E+0	1.428056E+0	1.595184E+0	1.580504E+0	1.369763E+0
5.390390E+2	1.560852E+0	1.616562E+0	1.566752E+0	1.812262E+0	1.603217E+0	1.654409E+0	1.654679E+0	1.617036E+0	1.710725E+0	1.703126E+0	1.725223E+0	1.590913E+0	1.790820E+0	1.713541E+0	1.664863E+0	1.669236E+0	1.792525E+0	1.731685E+0	1.735838E+0	1.700427E+0	1.629930E+0	1.761103E+0	1.657043E+0	1.591604E+0	1.657187E+0	1.768750E+0	1.690769E+0	1.721712E+0	1.772731E+0	1.643142E+0	1.626070E+0	1.671641E+0	1.834773E+0	1.738141E+0	1.637857E+0	1.755865E+0	1.610069E+0	1.730877E+0	1.656292E+0	1.843305E+0	1.645558E+0	1.755761E+0	1.715823E+0	1.818078E+0	1.758106E+0	1.716638E+0	1.697091E+0	1.654453E+0	1.822432E+0	1.656572E+0	1.656673E+0	1.607324E+0	1.707217E+0	1.604833E+0	1.591396E+0	1.613840E+0	1.713098E+0	1.631918E+0	1.711116E+0	1.422714E+0	1.804198E+0	1.702273E+0	1.532581E+0	1.581280E+0	1.558971E+0	1.704042E+0	1.657384E+0	1.623356E+0	1.623358E+0	1.630050E+0	1.674872E+0	1.535071E+0	1.736272E+0	1.689525E+0	1.742306E+0	1.420134E+0	1.779003E+0	1.617742E+0	1.668748E+0	1.558364E+0	1.732102E+0	1.692403E+0	1.612519E+0	1.610061E+0	1.690859E+0	1.629950E+0	1.697245E+0	1.595561E+0	1.732030E+0	1.678252E+0	1.754638E+0	1.737234E+0	1.732898E+0	1.618505E+0	1.677605E+0	1.693693E+0	1.704908E+0	1.730461E+0	1.751779E+0	1.472537E+0	1.697027E+0	1.647942E+0	1.558605E+0	1.597048E+0	1.683128E+0	1.505046E+0	1.573225E+0	1.575873E+0	1.760942E+0	1.689149E+0	1.638753E+0	1.654348E+0	1.756454E+0	1.719591E+0	1.697912E+0	1.645436E+0	1.656795E+0	1.624938E+0	1.753668E+0	1.535334E+0	1.796958E+0	1.718033E+0	1.720530E+0	1.430465E+0	1.841240E+0	1.664257E+0	1.571895E+0	1.567271E+0	1.566333E+0	1.687778E+0	1.627744E+0	1.595118E+0	1.654684E+0	1.606149E+0	1.576200E+0	1.595801E+0	1.699773E+0	1.645079E+0	1.669407E+0	1.549385E+0	1.836176E+0	1.815089E+0	1.582352E+0	1.693471E+0	1.815542E+0	1.543343E+0	1.674430E+0	1.726899E+0	1.798878E+0	1.585270E+0	1.655288E+0	1.654989E+0	1.817300E+0	1.636281E+0	1.655805E+0	1.585452E+0	1.963319E+0	1.634555E+0	1.664742E+0	1.505216E+0	1.871299E+0	1.696756E+0	1.600387E+0	1.590319E+0	1.841205E+0	1.726025E+0	1.598982E+0	1.534428E+0	1.839954E+0	1.724718E+0	1.578727E+0
5.392720E+2	1.777948E+0	1.789090E+0	1.678235E+0	2.048037E+0	1.797917E+0	1.790165E+0	1.831874E+0	1.812050E+0	1.897041E+0	1.966733E+0	1.917082E+0	1.800624E+0	2.056305E+0	2.049097E+0	1.956517E+0	1.797101E+0	2.031768E+0	2.146747E+0	1.925007E+0	1.837836E+0	1.848484E+0	1.975973E+0	1.899381E+0	1.802607E+0	1.877775E+0	1.997322E+0	1.862030E+0	1.783370E+0	1.975209E+0	2.058284E+0	1.761780E+0	1.830441E+0	2.006220E+0	2.027879E+0	1.783753E+0	1.917150E+0	1.818733E+0	1.933207E+0	1.820248E+0	2.020391E+0	1.780419E+0	1.908323E+0	1.802122E+0	2.035800E+0	1.918764E+0	1.889737E+0	1.866823E+0	1.870988E+0	1.977062E+0	1.907808E+0	1.848115E+0	1.876625E+0	1.843451E+0	1.821827E+0	1.839640E+0	1.758899E+0	1.936331E+0	1.811827E+0	1.811570E+0	1.549827E+0	2.016378E+0	1.846844E+0	1.742259E+0	1.755534E+0	1.712021E+0	1.843912E+0	1.839996E+0	1.778128E+0	1.778889E+0	1.760079E+0	1.817551E+0	1.681422E+0	1.918091E+0	1.901345E+0	1.887212E+0	1.574113E+0	1.970026E+0	1.767977E+0	1.777294E+0	1.698513E+0	1.827491E+0	1.849051E+0	1.807001E+0	1.771870E+0	1.851123E+0	1.774230E+0	1.816770E+0	1.804111E+0	1.929423E+0	1.875718E+0	1.899558E+0	1.807529E+0	1.920725E+0	1.833206E+0	1.824910E+0	1.817687E+0	1.924856E+0	1.889518E+0	1.930977E+0	1.678559E+0	1.802422E+0	1.852666E+0	1.701086E+0	1.753576E+0	1.872466E+0	1.562525E+0	1.709983E+0	1.742219E+0	1.928190E+0	1.881325E+0	1.802550E+0	1.820631E+0	1.958265E+0	1.919365E+0	1.868785E+0	1.779899E+0	1.768579E+0	1.792063E+0	1.841522E+0	1.723927E+0	1.912207E+0	1.913264E+0	1.821729E+0	1.614534E+0	2.021380E+0	1.849088E+0	1.750628E+0	1.733879E+0	1.697758E+0	1.850792E+0	1.773681E+0	1.659174E+0	1.753393E+0	1.742206E+0	1.733914E+0	1.727716E+0	1.788417E+0	1.767824E+0	1.821207E+0	1.702013E+0	1.980838E+0	2.000354E+0	1.823168E+0	1.821230E+0	2.031664E+0	1.704320E+0	1.730694E+0	1.941018E+0	2.049784E+0	1.773830E+0	1.803889E+0	1.804492E+0	2.043815E+0	1.797665E+0	1.734700E+0	1.790114E+0	2.070719E+0	1.741243E+0	1.764551E+0	1.660835E+0	2.087210E+0	1.878386E+0	1.853326E+0	1.785357E+0	1.999334E+0	1.923210E+0	1.751294E+0	1.721544E+0	2.086791E+0	1.879448E+0	1.740326E+0
5.395160E+2	1.870213E+0	1.831945E+0	1.733715E+0	2.092951E+0	1.831719E+0	1.903737E+0	1.954617E+0	1.850701E+0	1.981133E+0	1.999496E+0	1.953807E+0	1.913197E+0	2.107343E+0	2.160482E+0	1.981403E+0	1.857718E+0	2.099229E+0	2.217837E+0	1.945384E+0	1.942632E+0	1.938351E+0	2.140949E+0	1.928222E+0	1.863701E+0	1.940646E+0	2.119612E+0	1.938667E+0	1.937264E+0	2.026716E+0	2.167804E+0	1.863558E+0	1.932618E+0	2.092469E+0	2.198697E+0	1.877278E+0	1.997790E+0	1.877734E+0	2.085912E+0	1.837509E+0	2.101279E+0	1.896090E+0	2.156661E+0	1.876016E+0	2.164007E+0	1.984386E+0	2.202294E+0	1.926072E+0	1.880829E+0	2.044155E+0	2.169365E+0	1.904172E+0	1.936828E+0	1.981564E+0	1.909234E+0	1.875323E+0	1.843680E+0	1.944661E+0	1.962648E+0	1.910872E+0	1.690059E+0	2.195105E+0	2.109027E+0	1.799947E+0	1.876794E+0	1.833931E+0	2.113822E+0	1.938749E+0	1.773875E+0	1.858923E+0	1.910010E+0	1.879423E+0	1.747944E+0	1.989878E+0	1.955646E+0	1.963590E+0	1.640910E+0	2.036042E+0	1.988558E+0	1.882473E+0	1.760800E+0	2.027971E+0	2.008551E+0	1.871074E+0	1.816249E+0	1.941094E+0	1.902531E+0	1.903748E+0	1.921993E+0	1.965504E+0	1.895520E+0	1.969625E+0	1.931864E+0	1.962461E+0	1.957865E+0	1.938618E+0	1.883128E+0	1.969755E+0	1.967490E+0	1.974838E+0	1.693274E+0	1.837714E+0	1.920733E+0	1.836042E+0	1.800489E+0	1.905325E+0	1.684468E+0	1.822024E+0	1.828767E+0	2.026142E+0	1.971881E+0	1.849950E+0	1.849419E+0	2.025345E+0	1.902718E+0	1.949637E+0	1.815676E+0	1.896068E+0	1.914795E+0	1.935773E+0	1.768192E+0	2.012243E+0	1.907795E+0	2.005823E+0	1.618730E+0	2.135922E+0	1.888056E+0	1.905314E+0	1.815724E+0	1.813027E+0	1.799811E+0	1.889240E+0	1.816762E+0	1.897820E+0	1.859275E+0	1.810118E+0	1.808897E+0	1.910643E+0	1.857198E+0	1.892802E+0	1.767112E+0	2.081067E+0	2.068586E+0	1.904496E+0	1.950001E+0	2.061729E+0	1.769380E+0	1.910278E+0	2.071279E+0	2.073680E+0	1.838968E+0	1.871259E+0	1.902493E+0	2.064779E+0	1.956180E+0	1.858210E+0	1.858521E+0	2.141321E+0	1.807984E+0	1.871625E+0	1.724885E+0	2.100044E+0	1.947444E+0	1.882777E+0	1.885783E+0	2.154293E+0	2.016808E+0	1.806510E+0	1.800362E+0	2.175612E+0	1.873439E+0	1.826695E+0
5.397750E+2	1.816928E+0	1.811067E+0	1.743136E+0	2.141996E+0	1.878368E+0	1.844046E+0	1.931357E+0	1.851581E+0	1.911332E+0	2.030238E+0	1.983407E+0	1.868863E+0	2.072872E+0	2.196219E+0	1.973568E+0	1.874975E+0	2.064978E+0	2.202931E+0	1.929185E+0	1.811638E+0	1.868310E+0	2.074764E+0	1.897663E+0	1.842036E+0	1.860724E+0	2.104182E+0	1.905076E+0	1.852803E+0	2.024049E+0	2.119981E+0	1.856256E+0	1.845768E+0	2.051176E+0	2.175956E+0	1.900788E+0	1.949407E+0	1.794442E+0	2.037916E+0	1.828881E+0	2.021348E+0	1.814652E+0	2.065469E+0	1.854980E+0	2.066985E+0	1.931437E+0	2.171082E+0	1.847548E+0	1.879936E+0	2.063550E+0	2.047098E+0	1.900999E+0	1.921779E+0	1.921434E+0	1.859228E+0	1.882671E+0	1.779485E+0	1.979092E+0	1.940027E+0	1.893078E+0	1.656768E+0	2.029280E+0	2.157837E+0	1.800952E+0	1.812124E+0	1.761627E+0	2.046616E+0	1.883580E+0	1.802066E+0	1.834762E+0	1.834381E+0	1.856337E+0	1.700229E+0	1.939860E+0	1.904570E+0	1.969342E+0	1.611844E+0	1.987353E+0	2.096587E+0	1.847894E+0	1.661529E+0	1.968690E+0	2.062859E+0	1.869372E+0	1.804346E+0	1.910636E+0	1.919919E+0	1.847801E+0	1.874061E+0	1.918811E+0	1.913714E+0	1.989387E+0	1.856320E+0	2.017943E+0	2.097865E+0	1.905542E+0	1.852623E+0	1.981691E+0	2.089120E+0	1.989280E+0	1.685098E+0	1.786896E+0	1.975812E+0	1.762295E+0	1.829815E+0	1.947644E+0	1.661372E+0	1.775887E+0	1.848434E+0	2.023371E+0	2.000556E+0	1.833993E+0	1.870269E+0	1.983761E+0	2.003200E+0	1.941608E+0	1.787397E+0	1.867047E+0	1.873541E+0	1.986887E+0	1.815339E+0	1.965444E+0	1.924750E+0	1.941225E+0	1.676413E+0	2.110692E+0	1.913856E+0	1.785611E+0	1.756292E+0	1.785558E+0	1.922514E+0	1.814183E+0	1.729464E+0	1.814177E+0	1.824924E+0	1.840500E+0	1.790630E+0	1.892471E+0	1.844751E+0	1.887417E+0	1.708030E+0	2.023302E+0	1.964852E+0	1.819470E+0	1.986141E+0	2.038470E+0	1.783966E+0	1.852881E+0	1.973137E+0	2.117837E+0	1.788522E+0	1.850714E+0	1.809049E+0	2.003051E+0	1.815404E+0	1.812506E+0	1.790118E+0	2.021494E+0	1.773602E+0	1.851277E+0	1.656090E+0	2.100597E+0	1.915525E+0	1.808630E+0	1.768972E+0	2.003037E+0	1.928993E+0	1.792248E+0	1.763837E+0	1.955627E+0	1.886958E+0	1.876849E+0
5.400240E+2	1.832218E+0	1.870959E+0	1.785528E+0	2.174495E+0	1.835050E+0	1.948107E+0	1.934326E+0	1.805025E+0	1.967392E+0	2.064011E+0	1.997113E+0	1.884803E+0	2.131070E+0	2.233347E+0	1.968499E+0	1.891346E+0	2.017234E+0	2.171973E+0	2.000773E+0	1.914828E+0	1.944256E+0	2.122677E+0	1.950172E+0	1.815605E+0	1.979540E+0	2.100182E+0	1.937721E+0	1.851767E+0	2.111520E+0	2.157764E+0	1.818895E+0	1.898562E+0	2.047512E+0	2.232508E+0	1.921634E+0	1.981123E+0	1.887711E+0	2.044463E+0	1.868848E+0	2.082609E+0	1.887272E+0	2.144047E+0	1.954765E+0	2.058902E+0	1.993438E+0	2.237886E+0	1.921838E+0	1.862038E+0	2.065124E+0	2.138928E+0	1.877202E+0	1.987358E+0	1.974519E+0	1.947070E+0	1.887921E+0	1.811338E+0	1.963541E+0	1.906089E+0	1.871841E+0	1.604814E+0	2.110040E+0	2.126226E+0	1.811985E+0	1.850296E+0	1.803318E+0	2.122021E+0	1.934337E+0	1.825465E+0	1.863957E+0	1.896299E+0	1.918209E+0	1.794740E+0	2.036362E+0	1.928227E+0	1.939526E+0	1.641928E+0	2.049150E+0	2.051867E+0	1.899764E+0	1.719925E+0	1.983239E+0	2.040565E+0	1.908495E+0	1.846553E+0	1.922820E+0	1.987123E+0	1.885434E+0	1.849016E+0	1.955428E+0	2.027698E+0	2.011547E+0	1.951799E+0	1.893238E+0	2.176520E+0	1.889000E+0	1.964314E+0	1.965779E+0	2.108872E+0	1.956116E+0	1.680191E+0	1.917698E+0	1.888519E+0	1.853600E+0	1.829814E+0	1.976047E+0	1.723149E+0	1.777535E+0	1.838323E+0	1.991027E+0	2.078031E+0	1.883273E+0	1.900547E+0	2.015364E+0	2.095354E+0	1.978305E+0	1.878581E+0	1.831373E+0	1.890253E+0	1.955476E+0	1.830734E+0	1.943797E+0	1.978888E+0	1.955762E+0	1.644424E+0	2.095555E+0	2.073944E+0	1.846283E+0	1.817673E+0	1.779631E+0	1.991870E+0	1.910089E+0	1.840569E+0	1.816775E+0	1.819045E+0	1.835194E+0	1.858621E+0	1.911742E+0	1.902447E+0	1.998841E+0	1.743585E+0	2.036633E+0	2.111850E+0	1.925622E+0	1.880779E+0	2.090091E+0	1.748070E+0	1.918236E+0	2.037375E+0	2.080431E+0	1.770398E+0	1.848802E+0	1.937588E+0	2.162021E+0	2.013410E+0	1.838625E+0	1.802059E+0	2.135854E+0	2.123496E+0	1.781992E+0	1.681236E+0	2.185399E+0	2.178394E+0	1.845439E+0	1.824472E+0	2.064385E+0	2.050461E+0	1.831359E+0	1.833044E+0	2.029988E+0	2.050702E+0	1.893562E+0
5.402850E+2	1.821367E+0	1.812166E+0	1.664107E+0	2.024401E+0	1.825529E+0	1.819747E+0	1.915518E+0	1.843238E+0	1.955303E+0	1.953124E+0	1.988891E+0	1.879824E+0	2.054962E+0	2.105252E+0	2.011812E+0	1.883382E+0	2.026058E+0	2.136428E+0	1.957924E+0	1.866710E+0	1.878858E+0	1.987330E+0	1.870544E+0	1.853302E+0	1.888430E+0	2.076755E+0	1.833640E+0	1.836738E+0	1.980534E+0	2.121891E+0	1.824049E+0	1.814690E+0	2.048560E+0	2.154970E+0	1.877811E+0	1.904249E+0	1.838689E+0	1.988835E+0	1.837506E+0	2.069687E+0	1.817247E+0	2.068336E+0	1.852820E+0	2.016165E+0	2.003844E+0	2.203266E+0	1.915257E+0	1.885753E+0	1.980731E+0	2.057930E+0	1.900471E+0	1.887376E+0	1.886670E+0	1.890971E+0	1.869028E+0	1.822609E+0	1.932998E+0	1.914706E+0	1.798362E+0	1.679971E+0	2.049349E+0	2.101590E+0	1.789916E+0	1.815714E+0	1.744740E+0	2.040605E+0	1.847719E+0	1.815364E+0	1.776875E+0	1.806519E+0	1.863263E+0	1.680044E+0	1.930450E+0	1.981451E+0	1.976665E+0	1.634792E+0	2.018719E+0	1.971474E+0	1.791220E+0	1.714084E+0	2.020967E+0	1.981106E+0	1.817206E+0	1.790272E+0	1.860963E+0	1.872923E+0	1.886452E+0	1.802818E+0	1.954895E+0	1.936726E+0	1.991182E+0	1.882026E+0	1.975190E+0	2.175036E+0	1.920528E+0	1.867384E+0	1.958961E+0	2.073528E+0	1.955046E+0	1.711803E+0	1.833947E+0	1.881764E+0	1.773833E+0	1.791019E+0	1.855207E+0	1.645252E+0	1.752271E+0	1.817527E+0	1.965152E+0	1.992508E+0	1.829767E+0	1.862323E+0	1.968792E+0	2.038871E+0	1.854449E+0	1.779321E+0	1.856581E+0	1.874582E+0	1.905954E+0	1.772523E+0	1.994108E+0	1.961937E+0	1.902470E+0	1.665925E+0	2.066285E+0	2.084474E+0	1.725486E+0	1.775291E+0	1.757546E+0	1.940299E+0	1.835630E+0	1.729462E+0	1.790278E+0	1.759835E+0	1.822172E+0	1.826148E+0	1.845121E+0	1.868509E+0	1.861039E+0	1.676303E+0	1.997136E+0	2.030311E+0	1.788843E+0	1.902160E+0	2.007274E+0	1.694781E+0	1.736377E+0	1.961244E+0	2.064851E+0	1.777256E+0	1.856926E+0	1.903859E+0	2.014697E+0	1.966484E+0	1.809246E+0	1.827030E+0	2.117954E+0	2.082036E+0	1.923952E+0	1.652295E+0	2.079396E+0	2.086707E+0	1.754991E+0	1.772148E+0	2.062269E+0	1.954762E+0	1.805130E+0	1.748454E+0	2.042381E+0	2.077742E+0	1.723609E+0
5.405130E+2	1.817420E+0	1.785242E+0	1.689748E+0	2.083492E+0	1.778401E+0	1.759002E+0	1.848698E+0	1.759344E+0	1.847579E+0	1.961692E+0	1.957097E+0	1.767748E+0	1.984675E+0	2.084369E+0	1.976792E+0	1.855506E+0	1.954962E+0	2.072796E+0	1.881106E+0	1.799337E+0	1.809666E+0	2.016475E+0	1.831801E+0	1.768380E+0	1.828756E+0	2.039611E+0	1.828911E+0	1.846586E+0	1.941016E+0	2.091285E+0	1.738162E+0	1.793403E+0	2.011969E+0	2.139816E+0	1.833455E+0	1.912847E+0	1.787065E+0	1.989925E+0	1.805259E+0	1.931373E+0	1.755524E+0	2.008691E+0	1.784860E+0	2.001152E+0	1.891158E+0	2.062346E+0	1.873877E+0	1.900066E+0	2.025286E+0	2.017691E+0	1.833307E+0	1.855663E+0	1.889958E+0	1.865313E+0	1.814969E+0	1.754000E+0	1.903013E+0	1.869463E+0	1.823049E+0	1.568489E+0	2.070851E+0	2.076487E+0	1.745268E+0	1.764067E+0	1.695657E+0	2.014928E+0	1.834480E+0	1.828657E+0	1.791977E+0	1.813149E+0	1.813397E+0	1.718583E+0	1.883961E+0	1.847583E+0	1.842746E+0	1.548623E+0	1.942872E+0	1.995592E+0	1.792181E+0	1.662502E+0	1.915339E+0	1.962817E+0	1.862003E+0	1.765917E+0	1.814101E+0	1.909108E+0	1.825928E+0	1.759204E+0	1.903423E+0	1.891236E+0	1.908544E+0	1.797038E+0	1.875930E+0	2.054334E+0	1.824910E+0	1.818673E+0	1.839037E+0	2.040259E+0	1.928836E+0	1.607706E+0	1.753491E+0	1.820451E+0	1.731692E+0	1.705313E+0	1.861326E+0	1.652776E+0	1.753920E+0	1.742783E+0	1.949445E+0	2.002065E+0	1.790814E+0	1.794320E+0	1.995960E+0	1.992500E+0	1.913510E+0	1.741809E+0	1.732903E+0	1.825490E+0	1.822356E+0	1.716712E+0	1.888221E+0	1.964667E+0	1.929382E+0	1.635509E+0	2.066792E+0	2.075522E+0	1.763202E+0	1.721212E+0	1.713917E+0	2.022099E+0	1.799294E+0	1.720394E+0	1.763783E+0	1.685704E+0	1.732947E+0	1.761713E+0	1.768591E+0	1.830610E+0	1.750152E+0	1.666999E+0	2.007993E+0	2.054162E+0	1.766130E+0	1.887906E+0	1.987419E+0	1.657767E+0	1.855153E+0	1.920201E+0	1.965629E+0	1.726811E+0	1.790509E+0	1.742506E+0	2.015863E+0	1.925282E+0	1.755921E+0	1.741258E+0	2.079172E+0	2.144226E+0	1.825115E+0	1.616239E+0	1.996267E+0	2.047249E+0	1.795481E+0	1.734616E+0	2.030536E+0	1.977894E+0	1.723222E+0	1.711288E+0	1.949431E+0	1.903484E+0	1.901921E+0
5.407740E+2	1.683218E+0	1.666563E+0	1.569370E+0	1.912718E+0	1.681288E+0	1.709344E+0	1.774456E+0	1.677651E+0	1.713471E+0	1.836696E+0	1.787713E+0	1.757284E+0	1.898268E+0	1.959987E+0	1.834423E+0	1.736488E+0	1.893724E+0	2.053300E+0	1.823103E+0	1.729296E+0	1.744268E+0	1.926577E+0	1.833092E+0	1.686925E+0	1.787730E+0	2.025894E+0	1.749908E+0	1.688551E+0	1.884627E+0	2.012847E+0	1.684476E+0	1.738483E+0	1.843658E+0	2.002815E+0	1.811544E+0	1.831134E+0	1.673837E+0	1.833400E+0	1.751215E+0	1.851921E+0	1.723363E+0	1.954203E+0	1.736857E+0	1.926075E+0	1.830513E+0	2.025782E+0	1.736113E+0	1.743929E+0	1.883756E+0	1.927415E+0	1.686289E+0	1.696021E+0	1.819963E+0	1.771382E+0	1.636533E+0	1.711363E+0	1.856925E+0	1.728876E+0	1.744411E+0	1.517545E+0	1.918411E+0	1.937960E+0	1.683072E+0	1.715115E+0	1.609105E+0	1.885437E+0	1.729656E+0	1.680266E+0	1.587115E+0	1.702141E+0	1.724278E+0	1.579570E+0	1.746275E+0	1.819627E+0	1.826533E+0	1.490497E+0	1.821143E+0	1.938812E+0	1.740310E+0	1.632332E+0	1.782757E+0	1.850763E+0	1.758805E+0	1.631708E+0	1.750372E+0	1.734287E+0	1.709962E+0	1.712141E+0	1.794647E+0	1.760660E+0	1.804942E+0	1.706805E+0	1.763440E+0	1.996455E+0	1.721021E+0	1.740439E+0	1.810053E+0	1.859369E+0	1.802060E+0	1.553747E+0	1.753022E+0	1.772649E+0	1.636870E+0	1.661105E+0	1.844624E+0	1.529755E+0	1.705590E+0	1.675906E+0	1.820084E+0	1.903966E+0	1.712437E+0	1.787868E+0	1.771979E+0	1.915799E+0	1.714542E+0	1.762007E+0	1.754310E+0	1.728867E+0	1.830343E+0	1.613755E+0	1.785260E+0	1.838343E+0	1.784048E+0	1.514895E+0	1.931058E+0	1.950720E+0	1.663718E+0	1.614523E+0	1.678370E+0	1.831822E+0	1.714117E+0	1.564509E+0	1.714946E+0	1.665812E+0	1.619607E+0	1.716555E+0	1.698670E+0	1.679019E+0	1.739922E+0	1.627070E+0	1.952696E+0	1.893298E+0	1.723884E+0	1.793741E+0	1.903466E+0	1.597750E+0	1.702844E+0	1.832770E+0	1.912641E+0	1.661674E+0	1.688735E+0	1.725183E+0	1.922694E+0	1.772483E+0	1.624789E+0	1.641909E+0	1.922050E+0	1.989507E+0	1.648266E+0	1.520399E+0	1.952193E+0	1.988640E+0	1.654024E+0	1.625733E+0	1.928994E+0	1.918479E+0	1.660186E+0	1.626064E+0	1.860609E+0	1.910995E+0	1.626091E+0
5.410240E+2	1.594404E+0	1.582495E+0	1.517555E+0	1.931629E+0	1.591316E+0	1.664448E+0	1.699225E+0	1.670623E+0	1.695335E+0	1.801912E+0	1.820604E+0	1.686554E+0	1.800227E+0	1.903365E+0	1.857919E+0	1.602865E+0	1.823142E+0	1.956985E+0	1.831463E+0	1.629312E+0	1.678027E+0	1.823838E+0	1.728494E+0	1.643598E+0	1.667311E+0	1.809892E+0	1.741391E+0	1.633628E+0	1.778061E+0	1.910019E+0	1.873432E+0	1.629918E+0	1.767342E+0	2.003397E+0	1.837193E+0	1.742968E+0	1.620481E+0	1.778867E+0	1.654473E+0	1.775822E+0	1.673049E+0	1.889968E+0	1.702878E+0	1.828475E+0	1.721900E+0	1.885349E+0	1.822628E+0	1.664297E+0	1.783641E+0	1.875825E+0	1.742345E+0	1.693328E+0	1.750906E+0	1.603093E+0	1.655949E+0	1.648637E+0	1.805835E+0	1.758499E+0	1.671507E+0	1.428765E+0	1.798938E+0	1.869157E+0	1.720689E+0	1.566011E+0	1.609104E+0	1.835172E+0	1.776550E+0	1.605272E+0	1.607752E+0	1.611475E+0	1.686877E+0	1.479099E+0	1.676842E+0	1.704042E+0	1.714062E+0	1.462454E+0	1.795862E+0	1.798124E+0	1.650979E+0	1.546202E+0	1.809165E+0	1.855908E+0	1.689062E+0	1.619800E+0	1.671177E+0	1.704677E+0	1.697246E+0	1.623625E+0	1.723012E+0	1.759592E+0	1.700139E+0	1.776577E+0	1.704902E+0	1.892565E+0	1.707065E+0	1.686313E+0	1.690698E+0	1.828180E+0	1.690264E+0	1.498697E+0	1.641510E+0	1.673922E+0	1.644397E+0	1.510894E+0	1.652498E+0	1.485706E+0	1.601238E+0	1.673097E+0	1.750315E+0	1.807876E+0	1.673014E+0	1.609182E+0	1.753682E+0	1.767159E+0	1.710527E+0	1.589455E+0	1.646326E+0	1.639562E+0	1.721187E+0	1.607501E+0	1.739625E+0	1.768345E+0	1.689849E+0	1.470321E+0	1.828621E+0	1.803802E+0	1.553308E+0	1.557041E+0	1.541016E+0	1.754761E+0	1.686119E+0	1.511226E+0	1.550258E+0	1.607507E+0	1.574757E+0	1.607469E+0	1.622142E+0	1.645643E+0	1.623114E+0	1.501246E+0	1.806550E+0	1.851697E+0	1.652061E+0	1.713318E+0	1.704929E+0	1.562976E+0	1.623849E+0	1.802435E+0	1.826926E+0	1.639633E+0	1.665321E+0	1.589809E+0	1.835928E+0	1.725555E+0	1.574190E+0	1.616938E+0	1.927518E+0	1.858043E+0	1.576076E+0	1.461566E+0	1.865716E+0	1.879547E+0	1.597231E+0	1.604591E+0	1.841203E+0	1.853277E+0	1.625672E+0	1.557498E+0	1.742871E+0	1.799830E+0	1.709676E+0
5.412690E+2	1.499177E+0	1.503926E+0	1.361586E+0	1.726580E+0	1.532758E+0	1.545593E+0	1.603700E+0	1.498447E+0	1.589259E+0	1.655242E+0	1.656155E+0	1.536619E+0	1.682030E+0	1.711219E+0	1.783277E+0	1.494470E+0	1.652925E+0	1.802197E+0	1.735313E+0	1.502593E+0	1.556937E+0	1.690964E+0	1.570091E+0	1.519249E+0	1.571939E+0	1.741888E+0	1.613658E+0	1.526884E+0	1.661724E+0	1.794753E+0	1.759202E+0	1.483461E+0	1.647640E+0	1.801683E+0	1.724971E+0	1.597812E+0	1.512893E+0	1.723783E+0	1.576807E+0	1.666220E+0	1.570345E+0	1.696111E+0	1.621434E+0	1.736073E+0	1.603783E+0	1.779540E+0	1.744106E+0	1.519345E+0	1.623766E+0	1.723639E+0	1.711672E+0	1.611089E+0	1.595409E+0	1.575694E+0	1.607141E+0	1.459472E+0	1.640905E+0	1.590977E+0	1.647978E+0	1.324853E+0	1.671351E+0	1.748759E+0	1.731726E+0	1.480676E+0	1.496694E+0	1.659785E+0	1.766067E+0	1.513791E+0	1.552886E+0	1.493832E+0	1.562669E+0	1.385504E+0	1.641537E+0	1.580926E+0	1.674304E+0	1.360987E+0	1.671323E+0	1.658940E+0	1.698048E+0	1.409460E+0	1.631857E+0	1.739279E+0	1.689633E+0	1.475307E+0	1.544187E+0	1.555699E+0	1.643329E+0	1.549789E+0	1.648722E+0	1.541255E+0	1.629479E+0	1.561483E+0	1.613282E+0	1.790167E+0	1.655381E+0	1.566750E+0	1.572484E+0	1.720064E+0	1.673685E+0	1.466543E+0	1.572815E+0	1.531552E+0	1.498902E+0	1.459470E+0	1.549478E+0	1.600665E+0	1.437569E+0	1.561823E+0	1.627881E+0	1.758072E+0	1.550519E+0	1.513382E+0	1.643353E+0	1.653595E+0	1.562591E+0	1.509241E+0	1.564512E+0	1.503246E+0	1.617887E+0	1.438631E+0	1.610924E+0	1.621787E+0	1.626868E+0	1.327157E+0	1.711552E+0	1.744822E+0	1.466399E+0	1.420633E+0	1.430060E+0	1.658733E+0	1.519930E+0	1.444335E+0	1.478561E+0	1.482749E+0	1.481194E+0	1.508531E+0	1.534602E+0	1.599261E+0	1.582741E+0	1.440526E+0	1.706324E+0	1.690834E+0	1.543269E+0	1.548407E+0	1.689049E+0	1.451358E+0	1.521554E+0	1.604972E+0	1.734978E+0	1.456463E+0	1.519588E+0	1.551976E+0	1.671143E+0	1.605953E+0	1.464278E+0	1.501309E+0	1.743550E+0	1.737703E+0	1.552337E+0	1.361933E+0	1.749672E+0	1.758847E+0	1.516776E+0	1.500464E+0	1.746008E+0	1.685534E+0	1.471981E+0	1.453687E+0	1.680905E+0	1.684158E+0	1.517431E+0
5.415090E+2	1.382737E+0	1.364914E+0	1.275228E+0	1.530395E+0	1.360912E+0	1.349617E+0	1.407204E+0	1.361853E+0	1.446913E+0	1.443550E+0	1.497187E+0	1.379212E+0	1.519517E+0	1.519541E+0	1.581009E+0	1.366601E+0	1.506061E+0	1.586068E+0	1.574887E+0	1.356095E+0	1.403777E+0	1.527466E+0	1.386293E+0	1.375401E+0	1.420084E+0	1.613315E+0	1.453286E+0	1.386467E+0	1.470349E+0	1.546528E+0	1.599874E+0	1.425560E+0	1.520099E+0	1.649527E+0	1.591365E+0	1.458572E+0	1.336331E+0	1.521451E+0	1.369702E+0	1.475736E+0	1.365459E+0	1.508566E+0	1.476342E+0	1.543187E+0	1.457603E+0	1.589372E+0	1.565433E+0	1.361865E+0	1.480669E+0	1.548755E+0	1.538742E+0	1.405753E+0	1.402801E+0	1.412623E+0	1.419258E+0	1.322251E+0	1.474870E+0	1.456853E+0	1.512509E+0	1.226489E+0	1.554270E+0	1.569788E+0	1.533584E+0	1.386813E+0	1.344174E+0	1.561436E+0	1.535459E+0	1.341995E+0	1.441648E+0	1.377953E+0	1.410292E+0	1.302925E+0	1.503261E+0	1.433624E+0	1.511091E+0	1.213636E+0	1.468125E+0	1.591109E+0	1.552522E+0	1.237192E+0	1.494428E+0	1.538617E+0	1.549018E+0	1.349214E+0	1.382517E+0	1.407659E+0	1.434797E+0	1.406435E+0	1.451862E+0	1.437439E+0	1.524677E+0	1.421415E+0	1.479411E+0	1.575470E+0	1.565446E+0	1.473265E+0	1.465635E+0	1.574524E+0	1.631960E+0	1.325927E+0	1.343204E+0	1.399056E+0	1.392041E+0	1.304742E+0	1.469287E+0	1.467977E+0	1.443611E+0	1.335344E+0	1.468483E+0	1.596078E+0	1.582902E+0	1.403684E+0	1.499208E+0	1.485333E+0	1.619933E+0	1.320532E+0	1.395162E+0	1.421774E+0	1.569433E+0	1.309696E+0	1.441270E+0	1.439130E+0	1.475075E+0	1.267375E+0	1.569764E+0	1.618967E+0	1.594849E+0	1.338303E+0	1.342801E+0	1.528916E+0	1.580088E+0	1.295818E+0	1.403749E+0	1.339009E+0	1.370745E+0	1.409595E+0	1.418431E+0	1.408640E+0	1.419101E+0	1.275866E+0	1.545860E+0	1.567694E+0	1.471450E+0	1.414030E+0	1.471224E+0	1.281968E+0	1.435737E+0	1.506834E+0	1.572905E+0	1.362427E+0	1.406825E+0	1.399285E+0	1.534298E+0	1.502943E+0	1.383206E+0	1.328130E+0	1.603834E+0	1.610285E+0	1.422006E+0	1.286971E+0	1.605732E+0	1.587084E+0	1.417387E+0	1.347715E+0	1.576240E+0	1.545135E+0	1.368448E+0	1.328731E+0	1.467117E+0	1.520415E+0	1.283393E+0
5.417760E+2	1.107420E+0	1.136891E+0	1.074247E+0	1.310571E+0	1.160970E+0	1.201182E+0	1.157748E+0	1.150588E+0	1.226518E+0	1.284273E+0	1.317387E+0	1.167012E+0	1.316711E+0	1.367314E+0	1.358464E+0	1.190949E+0	1.296919E+0	1.411788E+0	1.363252E+0	1.167888E+0	1.189019E+0	1.349646E+0	1.214116E+0	1.166564E+0	1.222412E+0	1.382455E+0	1.214374E+0	1.196306E+0	1.252331E+0	1.384395E+0	1.349939E+0	1.178206E+0	1.306310E+0	1.408752E+0	1.290492E+0	1.284930E+0	1.170612E+0	1.306575E+0	1.194844E+0	1.315882E+0	1.151757E+0	1.342812E+0	1.254659E+0	1.338747E+0	1.256668E+0	1.438218E+0	1.348678E+0	1.201256E+0	1.274668E+0	1.329501E+0	1.297588E+0	1.244497E+0	1.222408E+0	1.227806E+0	1.219300E+0	1.147299E+0	1.246637E+0	1.261324E+0	1.304144E+0	1.037832E+0	1.295738E+0	1.348048E+0	1.289294E+0	1.112856E+0	1.107210E+0	1.309014E+0	1.357262E+0	1.147329E+0	1.205579E+0	1.209889E+0	1.242678E+0	1.086840E+0	1.248478E+0	1.235245E+0	1.304979E+0	1.056086E+0	1.341247E+0	1.369526E+0	1.394993E+0	1.146682E+0	1.279398E+0	1.306509E+0	1.279691E+0	1.126790E+0	1.199759E+0	1.206515E+0	1.272038E+0	1.172406E+0	1.255533E+0	1.269941E+0	1.286935E+0	1.211044E+0	1.223891E+0	1.353847E+0	1.351465E+0	1.199693E+0	1.171234E+0	1.305789E+0	1.325991E+0	1.132987E+0	1.171939E+0	1.190692E+0	1.238523E+0	1.174829E+0	1.219807E+0	1.329383E+0	1.281593E+0	1.185856E+0	1.267506E+0	1.367680E+0	1.369358E+0	1.172877E+0	1.287978E+0	1.276047E+0	1.369926E+0	1.187225E+0	1.161598E+0	1.217564E+0	1.287228E+0	1.114367E+0	1.220133E+0	1.257026E+0	1.283982E+0	1.033488E+0	1.317464E+0	1.323553E+0	1.371293E+0	1.134667E+0	1.145123E+0	1.322635E+0	1.273324E+0	1.144467E+0	1.163208E+0	1.185777E+0	1.171560E+0	1.124453E+0	1.244453E+0	1.231026E+0	1.234465E+0	1.098624E+0	1.367624E+0	1.331947E+0	1.370054E+0	1.243007E+0	1.291969E+0	1.074999E+0	1.322074E+0	1.292120E+0	1.259662E+0	1.144971E+0	1.256314E+0	1.216962E+0	1.357283E+0	1.262590E+0	1.236298E+0	1.138666E+0	1.370637E+0	1.385791E+0	1.431209E+0	1.088179E+0	1.401536E+0	1.372378E+0	1.297488E+0	1.166419E+0	1.372626E+0	1.278016E+0	1.217982E+0	1.130083E+0	1.316329E+0	1.295080E+0	1.216526E+0
5.420210E+2	9.579203E-1	9.682102E-1	9.036214E-1	1.073021E+0	1.016730E+0	1.029506E+0	9.983738E-1	9.854430E-1	1.020963E+0	1.059980E+0	1.106344E+0	9.996444E-1	1.058840E+0	1.139434E+0	1.151589E+0	1.009102E+0	1.080513E+0	1.159539E+0	1.110335E+0	9.893065E-1	9.881870E-1	1.092792E+0	1.035052E+0	9.707227E-1	1.038059E+0	1.159023E+0	1.038386E+0	1.015989E+0	1.078276E+0	1.132824E+0	1.142516E+0	9.913019E-1	1.101929E+0	1.147578E+0	1.164904E+0	1.004838E+0	9.823367E-1	1.128240E+0	1.015896E+0	1.090457E+0	9.805859E-1	1.077264E+0	1.033517E+0	1.086379E+0	1.069308E+0	1.116398E+0	1.113112E+0	9.605663E-1	1.045079E+0	1.109220E+0	1.111964E+0	1.000998E+0	1.025570E+0	9.747161E-1	9.437693E-1	9.625452E-1	1.030066E+0	1.018391E+0	1.043542E+0	8.496799E-1	1.096462E+0	1.137931E+0	1.123757E+0	9.498280E-1	9.969082E-1	1.075165E+0	1.143205E+0	9.377709E-1	9.735382E-1	9.631018E-1	1.038127E+0	9.138800E-1	1.032530E+0	1.083100E+0	1.112471E+0	8.669236E-1	1.103873E+0	1.092668E+0	1.104426E+0	9.354873E-1	1.016398E+0	1.056107E+0	1.109026E+0	9.308843E-1	1.000134E+0	1.064586E+0	1.034005E+0	9.802600E-1	1.012508E+0	1.069262E+0	1.095902E+0	1.037398E+0	1.033013E+0	1.158938E+0	1.110091E+0	9.753283E-1	1.077457E+0	1.145691E+0	1.127003E+0	1.029432E+0	9.691480E-1	1.018186E+0	9.956996E-1	9.731926E-1	1.024344E+0	1.067227E+0	1.070143E+0	1.025691E+0	1.059600E+0	1.186572E+0	1.150654E+0	9.554690E-1	1.063441E+0	1.114326E+0	1.134831E+0	1.025063E+0	9.884472E-1	1.006044E+0	1.076904E+0	9.382809E-1	1.040533E+0	1.066171E+0	1.105811E+0	8.861281E-1	1.134800E+0	1.134506E+0	1.161948E+0	9.573382E-1	9.237454E-1	1.100346E+0	1.140492E+0	9.732765E-1	9.751364E-1	9.859876E-1	1.004685E+0	9.448412E-1	1.029731E+0	1.039272E+0	9.960014E-1	9.334168E-1	1.116804E+0	1.140576E+0	1.153528E+0	1.022614E+0	1.169446E+0	9.381413E-1	1.096452E+0	1.094059E+0	1.164599E+0	9.946130E-1	1.067577E+0	1.005470E+0	1.073120E+0	1.072597E+0	1.076330E+0	9.486594E-1	1.133467E+0	1.152699E+0	1.168608E+0	9.069408E-1	1.098033E+0	1.144325E+0	1.102393E+0	1.017895E+0	1.153145E+0	1.119214E+0	1.022876E+0	1.013457E+0	1.138689E+0	1.092279E+0	9.128324E-1
5.422670E+2	8.883509E-1	9.110678E-1	8.795460E-1	1.011565E+0	9.058115E-1	9.344233E-1	9.290805E-1	8.949644E-1	9.456667E-1	9.929439E-1	1.020830E+0	9.408661E-1	1.045409E+0	1.026653E+0	1.058976E+0	9.312314E-1	9.715312E-1	1.059786E+0	1.047627E+0	9.326311E-1	9.282737E-1	1.046854E+0	9.481009E-1	9.278290E-1	9.469475E-1	1.077307E+0	9.636400E-1	9.382660E-1	1.006788E+0	1.051996E+0	1.055336E+0	9.321256E-1	1.027181E+0	1.112016E+0	1.037714E+0	9.860219E-1	9.051183E-1	1.069339E+0	9.282393E-1	9.794199E-1	9.064121E-1	1.033675E+0	9.919864E-1	1.062701E+0	9.792469E-1	1.127612E+0	1.081612E+0	9.377505E-1	1.030402E+0	1.047314E+0	1.049560E+0	9.456335E-1	9.616800E-1	9.621047E-1	9.631876E-1	9.120683E-1	9.856413E-1	9.995384E-1	9.804010E-1	7.972189E-1	1.084037E+0	1.084471E+0	1.033466E+0	8.707843E-1	8.776358E-1	1.052217E+0	1.034520E+0	8.968164E-1	9.045803E-1	9.126822E-1	9.305402E-1	8.863530E-1	1.020763E+0	9.761151E-1	1.040280E+0	8.291927E-1	1.030366E+0	1.056993E+0	1.079451E+0	8.673607E-1	1.022327E+0	1.056679E+0	1.047223E+0	9.211428E-1	9.129732E-1	9.541448E-1	1.006540E+0	9.375141E-1	9.705883E-1	9.932724E-1	1.008469E+0	9.660496E-1	9.383373E-1	1.100069E+0	1.051169E+0	9.512189E-1	9.779970E-1	1.039653E+0	1.068698E+0	9.863744E-1	9.479746E-1	9.651867E-1	9.390076E-1	8.847789E-1	9.953860E-1	1.017267E+0	9.817189E-1	9.374593E-1	1.044815E+0	1.076396E+0	1.080256E+0	9.147674E-1	1.007999E+0	1.051897E+0	1.121070E+0	9.500402E-1	9.570518E-1	9.496376E-1	9.980985E-1	9.021977E-1	1.009527E+0	9.628127E-1	1.043371E+0	8.048448E-1	1.081312E+0	1.040773E+0	1.082691E+0	8.452901E-1	9.005839E-1	1.010839E+0	1.078542E+0	8.451668E-1	9.579923E-1	9.457583E-1	9.144961E-1	9.605699E-1	9.361342E-1	9.663040E-1	9.830825E-1	9.066123E-1	1.040768E+0	1.052379E+0	1.076425E+0	9.304859E-1	1.029902E+0	1.002083E+0	1.027117E+0	1.064321E+0	1.071094E+0	9.353514E-1	9.629354E-1	9.503176E-1	1.083019E+0	9.873288E-1	9.794797E-1	9.144582E-1	1.031040E+0	1.108709E+0	1.105138E+0	8.846422E-1	1.067348E+0	1.121114E+0	1.044548E+0	9.370264E-1	1.053189E+0	1.059269E+0	9.267045E-1	9.173370E-1	1.036442E+0	1.117818E+0	8.933298E-1
5.425400E+2	8.498664E-1	8.561218E-1	8.115057E-1	9.702007E-1	8.572546E-1	8.747328E-1	8.706766E-1	8.462111E-1	8.951026E-1	9.405244E-1	9.643693E-1	9.005183E-1	9.504976E-1	1.017835E+0	9.728160E-1	9.321155E-1	9.492163E-1	9.921375E-1	9.990296E-1	9.214025E-1	8.797528E-1	1.014748E+0	9.029049E-1	8.814687E-1	9.394873E-1	1.014450E+0	9.466090E-1	9.304937E-1	9.468443E-1	1.047213E+0	1.041168E+0	8.737980E-1	9.665465E-1	1.097441E+0	1.002978E+0	9.672063E-1	8.821257E-1	9.924420E-1	8.955385E-1	1.011008E+0	8.981125E-1	1.002130E+0	8.970574E-1	1.003795E+0	9.371584E-1	1.039357E+0	1.012023E+0	8.863017E-1	1.002097E+0	1.024615E+0	9.908582E-1	9.445583E-1	9.273860E-1	9.016589E-1	8.818406E-1	8.130759E-1	9.323310E-1	9.225110E-1	9.815497E-1	7.664486E-1	9.636126E-1	9.849914E-1	9.612316E-1	8.550653E-1	8.707755E-1	1.025445E+0	1.005280E+0	8.569262E-1	8.854527E-1	8.777429E-1	9.305404E-1	8.386396E-1	9.007267E-1	9.556851E-1	1.013078E+0	7.664788E-1	1.014915E+0	9.615259E-1	1.035265E+0	8.128588E-1	9.269366E-1	9.406256E-1	9.757812E-1	8.345550E-1	9.007897E-1	9.146678E-1	8.966775E-1	8.900176E-1	9.366284E-1	9.188883E-1	9.755330E-1	9.146375E-1	9.144140E-1	9.783746E-1	9.896631E-1	9.536789E-1	9.313928E-1	1.063043E+0	1.021626E+0	8.997152E-1	8.435215E-1	9.553142E-1	8.808111E-1	8.473379E-1	9.586315E-1	9.984654E-1	8.971388E-1	8.531613E-1	9.376276E-1	9.853392E-1	1.017365E+0	9.385930E-1	9.763979E-1	1.023952E+0	1.052261E+0	8.565522E-1	9.323161E-1	8.718192E-1	1.002358E+0	8.329184E-1	9.469307E-1	9.764847E-1	9.556299E-1	7.896372E-1	1.015715E+0	9.912735E-1	1.001796E+0	8.701354E-1	8.607252E-1	9.640109E-1	1.066629E+0	8.270281E-1	8.873363E-1	8.933248E-1	8.797709E-1	8.788830E-1	9.190666E-1	9.612127E-1	9.357129E-1	8.623015E-1	9.672023E-1	1.002457E+0	9.803093E-1	9.503367E-1	9.839549E-1	9.684300E-1	9.430058E-1	9.632089E-1	1.031614E+0	8.785385E-1	9.299661E-1	9.225135E-1	9.962563E-1	9.512751E-1	9.484657E-1	9.030584E-1	1.018610E+0	1.006067E+0	1.050873E+0	8.096795E-1	1.059537E+0	1.038133E+0	9.924876E-1	9.105988E-1	1.033092E+0	9.598863E-1	8.793093E-1	8.776067E-1	9.620815E-1	9.766074E-1	8.849723E-1
5.427600E+2	8.888446E-1	8.462322E-1	8.366281E-1	1.023975E+0	9.024789E-1	9.254432E-1	9.360102E-1	8.751992E-1	9.335756E-1	9.627017E-1	9.967108E-1	9.254241E-1	9.867609E-1	1.034079E+0	1.058055E+0	1.023260E+0	9.845053E-1	1.015069E+0	1.026203E+0	1.022456E+0	9.122410E-1	1.008327E+0	9.588625E-1	9.546917E-1	1.033796E+0	1.100165E+0	1.004325E+0	9.735005E-1	9.677133E-1	1.051038E+0	1.076381E+0	1.079430E+0	1.009409E+0	1.070624E+0	1.016872E+0	1.104832E+0	9.419922E-1	1.032800E+0	8.946299E-1	9.842060E-1	9.209352E-1	1.048587E+0	9.720298E-1	1.088111E+0	9.647650E-1	1.033505E+0	1.010143E+0	1.037962E+0	1.029878E+0	1.013266E+0	1.018358E+0	1.026799E+0	9.372516E-1	9.360128E-1	9.316980E-1	9.302015E-1	9.789772E-1	9.268201E-1	9.907340E-1	8.284938E-1	9.913296E-1	1.057044E+0	9.772838E-1	9.219828E-1	8.428038E-1	1.065330E+0	1.024038E+0	9.398983E-1	8.773993E-1	9.396614E-1	9.563980E-1	8.372629E-1	9.666285E-1	9.750390E-1	1.026156E+0	7.929922E-1	9.854191E-1	1.019309E+0	1.016535E+0	8.196710E-1	9.991529E-1	1.001225E+0	1.036450E+0	8.816369E-1	9.275001E-1	9.687140E-1	9.332981E-1	9.016754E-1	9.695275E-1	9.905964E-1	1.027034E+0	9.151625E-1	9.963637E-1	1.062473E+0	1.050653E+0	9.566309E-1	9.370762E-1	1.012623E+0	1.061744E+0	8.997154E-1	9.009239E-1	9.698628E-1	9.430217E-1	8.802677E-1	9.274469E-1	1.026937E+0	9.663406E-1	8.958722E-1	9.949177E-1	1.031119E+0	1.080256E+0	9.177453E-1	9.958023E-1	1.026330E+0	1.010403E+0	9.460011E-1	9.698957E-1	9.021113E-1	9.895784E-1	8.247394E-1	9.954870E-1	9.606260E-1	1.015918E+0	8.001254E-1	9.819064E-1	1.012864E+0	1.069573E+0	8.623410E-1	8.758070E-1	1.010247E+0	1.017784E+0	8.757774E-1	8.821410E-1	9.231577E-1	9.405400E-1	9.149063E-1	9.642136E-1	9.340619E-1	9.642421E-1	8.376848E-1	9.815206E-1	1.032410E+0	1.030479E+0	9.737507E-1	1.052592E+0	1.068268E+0	1.003816E+0	9.834315E-1	9.739523E-1	9.015575E-1	9.595910E-1	9.174998E-1	1.066133E+0	9.787442E-1	9.805680E-1	9.014295E-1	1.040985E+0	1.029832E+0	1.092541E+0	8.405186E-1	1.048379E+0	1.065406E+0	1.027721E+0	8.952702E-1	1.024630E+0	1.013521E+0	9.437302E-1	9.231041E-1	1.051934E+0	1.098290E+0	9.797010E-1
5.430070E+2	9.362109E-1	9.665617E-1	9.413056E-1	1.086612E+0	9.705539E-1	1.015244E+0	1.033020E+0	9.718275E-1	1.008872E+0	1.043347E+0	1.092640E+0	1.039494E+0	1.098686E+0	1.140826E+0	1.121178E+0	1.170153E+0	1.090892E+0	1.141767E+0	1.127057E+0	1.107470E+0	1.010547E+0	1.082913E+0	1.038495E+0	1.018383E+0	1.087077E+0	1.160737E+0	1.141048E+0	1.072467E+0	1.108027E+0	1.140475E+0	1.129202E+0	1.171391E+0	1.079975E+0	1.209957E+0	1.102913E+0	1.177408E+0	1.000992E+0	1.099880E+0	1.061315E+0	1.121087E+0	1.028306E+0	1.193692E+0	1.047002E+0	1.215740E+0	1.094650E+0	1.158331E+0	1.150728E+0	1.194992E+0	1.115319E+0	1.156165E+0	1.135762E+0	1.148280E+0	1.058924E+0	1.000808E+0	1.067102E+0	1.024294E+0	1.086707E+0	1.041553E+0	1.107832E+0	9.233266E-1	1.104587E+0	1.156061E+0	1.110214E+0	1.149682E+0	9.794928E-1	1.081722E+0	1.102930E+0	1.102120E+0	1.000216E+0	1.028115E+0	9.984163E-1	9.776506E-1	1.056656E+0	1.021812E+0	1.134965E+0	9.485026E-1	1.081398E+0	1.105230E+0	1.145250E+0	1.087315E+0	1.069753E+0	1.125282E+0	1.126036E+0	1.174413E+0	1.008569E+0	1.036389E+0	1.050789E+0	1.042869E+0	1.039039E+0	1.084782E+0	1.073744E+0	1.014314E+0	1.038612E+0	1.202966E+0	1.174182E+0	1.081607E+0	1.098486E+0	1.150889E+0	1.152144E+0	1.026706E+0	1.003024E+0	9.854510E-1	9.766350E-1	9.835677E-1	1.072792E+0	1.078508E+0	1.086070E+0	9.655584E-1	1.114118E+0	1.131737E+0	1.189606E+0	1.029427E+0	1.032393E+0	1.102435E+0	1.165222E+0	1.015829E+0	1.013183E+0	1.019623E+0	1.086488E+0	9.738829E-1	1.060423E+0	1.081483E+0	1.139723E+0	9.144464E-1	1.086358E+0	1.149250E+0	1.172879E+0	9.739016E-1	9.345180E-1	1.089084E+0	1.173253E+0	9.812128E-1	1.032804E+0	9.950278E-1	1.034587E+0	1.054941E+0	1.004405E+0	9.917574E-1	1.062212E+0	9.235701E-1	1.182469E+0	1.144459E+0	1.084346E+0	1.076059E+0	1.119528E+0	1.147355E+0	1.094178E+0	1.073242E+0	1.143301E+0	1.014693E+0	1.038430E+0	1.031452E+0	1.160465E+0	1.073169E+0	1.049125E+0	1.013805E+0	1.124019E+0	1.171407E+0	1.183629E+0	9.472685E-1	1.214079E+0	1.175661E+0	1.087669E+0	1.020009E+0	1.134106E+0	1.132885E+0	1.009532E+0	9.410462E-1	1.137656E+0	1.089276E+0	9.797022E-1
5.432860E+2	1.071895E+0	1.125353E+0	1.019291E+0	1.318253E+0	1.143834E+0	1.112967E+0	1.154779E+0	1.104909E+0	1.190243E+0	1.184979E+0	1.200629E+0	1.115707E+0	1.250902E+0	1.321832E+0	1.359846E+0	1.294040E+0	1.243466E+0	1.310314E+0	1.307863E+0	1.357698E+0	1.147252E+0	1.221713E+0	1.159880E+0	1.129734E+0	1.203764E+0	1.308741E+0	1.224784E+0	1.178689E+0	1.294514E+0	1.355221E+0	1.315153E+0	1.296560E+0	1.259787E+0	1.334714E+0	1.312403E+0	1.384384E+0	1.139379E+0	1.309304E+0	1.188030E+0	1.303917E+0	1.133083E+0	1.299223E+0	1.193172E+0	1.382061E+0	1.220915E+0	1.372390E+0	1.316233E+0	1.401237E+0	1.294060E+0	1.311962E+0	1.273260E+0	1.284273E+0	1.202206E+0	1.180840E+0	1.182038E+0	1.181113E+0	1.230533E+0	1.197224E+0	1.234114E+0	1.048425E+0	1.307685E+0	1.284828E+0	1.278758E+0	1.276333E+0	1.072378E+0	1.316661E+0	1.297127E+0	1.314336E+0	1.193500E+0	1.166990E+0	1.173418E+0	1.087759E+0	1.186694E+0	1.205137E+0	1.279868E+0	9.831740E-1	1.248074E+0	1.294657E+0	1.281647E+0	1.227463E+0	1.174845E+0	1.276210E+0	1.274023E+0	1.246390E+0	1.128532E+0	1.159048E+0	1.242538E+0	1.186655E+0	1.218389E+0	1.206793E+0	1.222858E+0	1.271375E+0	1.225418E+0	1.325155E+0	1.281171E+0	1.302527E+0	1.239435E+0	1.300069E+0	1.280520E+0	1.247987E+0	1.109829E+0	1.208360E+0	1.147714E+0	1.162650E+0	1.183053E+0	1.197767E+0	1.220080E+0	1.186418E+0	1.234240E+0	1.345546E+0	1.282533E+0	1.342136E+0	1.219785E+0	1.256427E+0	1.320040E+0	1.272634E+0	1.190142E+0	1.165859E+0	1.257940E+0	1.111479E+0	1.238854E+0	1.209996E+0	1.276985E+0	1.148857E+0	1.331593E+0	1.304069E+0	1.342323E+0	1.231612E+0	1.115498E+0	1.249724E+0	1.317403E+0	1.210789E+0	1.156971E+0	1.139218E+0	1.189404E+0	1.131555E+0	1.224632E+0	1.233289E+0	1.213471E+0	1.064160E+0	1.340959E+0	1.260945E+0	1.277634E+0	1.215523E+0	1.320899E+0	1.289260E+0	1.215798E+0	1.204688E+0	1.277326E+0	1.166521E+0	1.176998E+0	1.175029E+0	1.311862E+0	1.219671E+0	1.243914E+0	1.146266E+0	1.311469E+0	1.305395E+0	1.340123E+0	1.031720E+0	1.349650E+0	1.290558E+0	1.275404E+0	1.160605E+0	1.323968E+0	1.238577E+0	1.158620E+0	1.114063E+0	1.291542E+0	1.228983E+0	1.174732E+0
5.435220E+2	1.255439E+0	1.209419E+0	1.133389E+0	1.401572E+0	1.262843E+0	1.219671E+0	1.307717E+0	1.261271E+0	1.318303E+0	1.340726E+0	1.374400E+0	1.262155E+0	1.378943E+0	1.394695E+0	1.441401E+0	1.444914E+0	1.407976E+0	1.475421E+0	1.423346E+0	1.425603E+0	1.269186E+0	1.428676E+0	1.294608E+0	1.298279E+0	1.290612E+0	1.382454E+0	1.345890E+0	1.324287E+0	1.393089E+0	1.489614E+0	1.458586E+0	1.436628E+0	1.383146E+0	1.514854E+0	1.456158E+0	1.527386E+0	1.279064E+0	1.385109E+0	1.335639E+0	1.479084E+0	1.264313E+0	1.441462E+0	1.347971E+0	1.465223E+0	1.378859E+0	1.490876E+0	1.473749E+0	1.484002E+0	1.404140E+0	1.449191E+0	1.373213E+0	1.441768E+0	1.281129E+0	1.277380E+0	1.322166E+0	1.279615E+0	1.384352E+0	1.314651E+0	1.344323E+0	1.133674E+0	1.393700E+0	1.402435E+0	1.411688E+0	1.424990E+0	1.232289E+0	1.442329E+0	1.458221E+0	1.364332E+0	1.276554E+0	1.283307E+0	1.321638E+0	1.233650E+0	1.339680E+0	1.366420E+0	1.396527E+0	1.205479E+0	1.373551E+0	1.428817E+0	1.463671E+0	1.393398E+0	1.334370E+0	1.409416E+0	1.430513E+0	1.467189E+0	1.281296E+0	1.276071E+0	1.333582E+0	1.296759E+0	1.329820E+0	1.383923E+0	1.377362E+0	1.329083E+0	1.339944E+0	1.434977E+0	1.437264E+0	1.413237E+0	1.337192E+0	1.373364E+0	1.413718E+0	1.376612E+0	1.292859E+0	1.332023E+0	1.267119E+0	1.294819E+0	1.362924E+0	1.344960E+0	1.363424E+0	1.294319E+0	1.370074E+0	1.466283E+0	1.424738E+0	1.501965E+0	1.382226E+0	1.350962E+0	1.476005E+0	1.445760E+0	1.323810E+0	1.287548E+0	1.397446E+0	1.210106E+0	1.307885E+0	1.345617E+0	1.392719E+0	1.290449E+0	1.446642E+0	1.411492E+0	1.474598E+0	1.374353E+0	1.225918E+0	1.373018E+0	1.458575E+0	1.371210E+0	1.265554E+0	1.236853E+0	1.231362E+0	1.351755E+0	1.287396E+0	1.302298E+0	1.253306E+0	1.186150E+0	1.417982E+0	1.386863E+0	1.449267E+0	1.384002E+0	1.463281E+0	1.410974E+0	1.389704E+0	1.405127E+0	1.409791E+0	1.265943E+0	1.319386E+0	1.327722E+0	1.384068E+0	1.363882E+0	1.304310E+0	1.308584E+0	1.463119E+0	1.389835E+0	1.443322E+0	1.380913E+0	1.421622E+0	1.450137E+0	1.380577E+0	1.407967E+0	1.441906E+0	1.416309E+0	1.276878E+0	1.263370E+0	1.372099E+0	1.401739E+0	1.241599E+0
5.437590E+2	1.309712E+0	1.319859E+0	1.226553E+0	1.494347E+0	1.322827E+0	1.401912E+0	1.370578E+0	1.363172E+0	1.346332E+0	1.464211E+0	1.435245E+0	1.394157E+0	1.480569E+0	1.572914E+0	1.527100E+0	1.579418E+0	1.552767E+0	1.537911E+0	1.446340E+0	1.461959E+0	1.355679E+0	1.540801E+0	1.423311E+0	1.477652E+0	1.465911E+0	1.615032E+0	1.452338E+0	1.389573E+0	1.456141E+0	1.577141E+0	1.507974E+0	1.580531E+0	1.520622E+0	1.595893E+0	1.550751E+0	1.588138E+0	1.377978E+0	1.505094E+0	1.333366E+0	1.504453E+0	1.288694E+0	1.506269E+0	1.452610E+0	1.605559E+0	1.444027E+0	1.597660E+0	1.595528E+0	1.576162E+0	1.501110E+0	1.530695E+0	1.515471E+0	1.556800E+0	1.418305E+0	1.356524E+0	1.428705E+0	1.396251E+0	1.490415E+0	1.436385E+0	1.472325E+0	1.245152E+0	1.485934E+0	1.543289E+0	1.536092E+0	1.524240E+0	1.319896E+0	1.488769E+0	1.529942E+0	1.492513E+0	1.354065E+0	1.350093E+0	1.390438E+0	1.355685E+0	1.427945E+0	1.397604E+0	1.492256E+0	1.238110E+0	1.518223E+0	1.536846E+0	1.570293E+0	1.501916E+0	1.466946E+0	1.467727E+0	1.506490E+0	1.478553E+0	1.339405E+0	1.382750E+0	1.447006E+0	1.396503E+0	1.498560E+0	1.450282E+0	1.504317E+0	1.400430E+0	1.486030E+0	1.570028E+0	1.564928E+0	1.526405E+0	1.440059E+0	1.553211E+0	1.516416E+0	1.516685E+0	1.340382E+0	1.379830E+0	1.333843E+0	1.324139E+0	1.367936E+0	1.467440E+0	1.466679E+0	1.460105E+0	1.492046E+0	1.587027E+0	1.580557E+0	1.626057E+0	1.465945E+0	1.507330E+0	1.558576E+0	1.457305E+0	1.350450E+0	1.372157E+0	1.477849E+0	1.319800E+0	1.428985E+0	1.465381E+0	1.441164E+0	1.426793E+0	1.525865E+0	1.526291E+0	1.551123E+0	1.534139E+0	1.333643E+0	1.453044E+0	1.565197E+0	1.477211E+0	1.345561E+0	1.327255E+0	1.350970E+0	1.389808E+0	1.410724E+0	1.384315E+0	1.394874E+0	1.197638E+0	1.539440E+0	1.552158E+0	1.515281E+0	1.413524E+0	1.496749E+0	1.506885E+0	1.466424E+0	1.469957E+0	1.502256E+0	1.317369E+0	1.372900E+0	1.357808E+0	1.508097E+0	1.470898E+0	1.428913E+0	1.370474E+0	1.528752E+0	1.532926E+0	1.544585E+0	1.520872E+0	1.599036E+0	1.606814E+0	1.503628E+0	1.473510E+0	1.558260E+0	1.492556E+0	1.333477E+0	1.269137E+0	1.581756E+0	1.482859E+0	1.255530E+0
5.440120E+2	1.395069E+0	1.411068E+0	1.284649E+0	1.515028E+0	1.396613E+0	1.432548E+0	1.416111E+0	1.357459E+0	1.454057E+0	1.544857E+0	1.531173E+0	1.439986E+0	1.533396E+0	1.584518E+0	1.616022E+0	1.624991E+0	1.532008E+0	1.600403E+0	1.566006E+0	1.504732E+0	1.442173E+0	1.548212E+0	1.428905E+0	1.438226E+0	1.454720E+0	1.557888E+0	1.475046E+0	1.439319E+0	1.507205E+0	1.569963E+0	1.555214E+0	1.546046E+0	1.541007E+0	1.655355E+0	1.556092E+0	1.597814E+0	1.402705E+0	1.515451E+0	1.395591E+0	1.577680E+0	1.380503E+0	1.482754E+0	1.474723E+0	1.592850E+0	1.454888E+0	1.640086E+0	1.536284E+0	1.642374E+0	1.531514E+0	1.529152E+0	1.488503E+0	1.643340E+0	1.439444E+0	1.371310E+0	1.493254E+0	1.380080E+0	1.472092E+0	1.497792E+0	1.534894E+0	1.287022E+0	1.549967E+0	1.584197E+0	1.551140E+0	1.546697E+0	1.270815E+0	1.548870E+0	1.577390E+0	1.479216E+0	1.386282E+0	1.374858E+0	1.452312E+0	1.334583E+0	1.480311E+0	1.419108E+0	1.542999E+0	1.290117E+0	1.521033E+0	1.555434E+0	1.580859E+0	1.531604E+0	1.487964E+0	1.523183E+0	1.532005E+0	1.581918E+0	1.395639E+0	1.414240E+0	1.479047E+0	1.379663E+0	1.442310E+0	1.481855E+0	1.537851E+0	1.544173E+0	1.469741E+0	1.618999E+0	1.589735E+0	1.612510E+0	1.470182E+0	1.578682E+0	1.554932E+0	1.510144E+0	1.376613E+0	1.415679E+0	1.367957E+0	1.436463E+0	1.472073E+0	1.488390E+0	1.454596E+0	1.396039E+0	1.489277E+0	1.599600E+0	1.566946E+0	1.638466E+0	1.498099E+0	1.546572E+0	1.583804E+0	1.551371E+0	1.432269E+0	1.411329E+0	1.454955E+0	1.360209E+0	1.430151E+0	1.476318E+0	1.536440E+0	1.455637E+0	1.578342E+0	1.594745E+0	1.605237E+0	1.532683E+0	1.302940E+0	1.492759E+0	1.571155E+0	1.501019E+0	1.370499E+0	1.378788E+0	1.355311E+0	1.434962E+0	1.377689E+0	1.425608E+0	1.386263E+0	1.308688E+0	1.518705E+0	1.635920E+0	1.493100E+0	1.491399E+0	1.510364E+0	1.524832E+0	1.487453E+0	1.541329E+0	1.552646E+0	1.382998E+0	1.418292E+0	1.418884E+0	1.534302E+0	1.431982E+0	1.459382E+0	1.414990E+0	1.590907E+0	1.572365E+0	1.585281E+0	1.486714E+0	1.596247E+0	1.602749E+0	1.542018E+0	1.567594E+0	1.565663E+0	1.559860E+0	1.359705E+0	1.377433E+0	1.500166E+0	1.606042E+0	1.464495E+0
5.442700E+2	1.575161E+0	1.356670E+0	1.268947E+0	1.619620E+0	1.453739E+0	1.413006E+0	1.473524E+0	1.412363E+0	1.499126E+0	1.476310E+0	1.519663E+0	1.497270E+0	1.570110E+0	1.665741E+0	1.622474E+0	1.620122E+0	1.542905E+0	1.624478E+0	1.529425E+0	1.586541E+0	1.419812E+0	1.586248E+0	1.434503E+0	1.371499E+0	1.449923E+0	1.676745E+0	1.499172E+0	1.494759E+0	1.564482E+0	1.632141E+0	1.548341E+0	1.581806E+0	1.502849E+0	1.656524E+0	1.537390E+0	1.670927E+0	1.377977E+0	1.538904E+0	1.468714E+0	1.623144E+0	1.387766E+0	1.626714E+0	1.463936E+0	1.663886E+0	1.470730E+0	1.648371E+0	1.587062E+0	1.603007E+0	1.591269E+0	1.569389E+0	1.538211E+0	1.621301E+0	1.428640E+0	1.422188E+0	1.439722E+0	1.422717E+0	1.461541E+0	1.439616E+0	1.563022E+0	1.305178E+0	1.555222E+0	1.582340E+0	1.554655E+0	1.562864E+0	1.345229E+0	1.564167E+0	1.550357E+0	1.513793E+0	1.391313E+0	1.407586E+0	1.455543E+0	1.350179E+0	1.517969E+0	1.467491E+0	1.529400E+0	1.292156E+0	1.518223E+0	1.552924E+0	1.598147E+0	1.563716E+0	1.478262E+0	1.514034E+0	1.557520E+0	1.578134E+0	1.422347E+0	1.454655E+0	1.437340E+0	1.438820E+0	1.465658E+0	1.508612E+0	1.564799E+0	1.480695E+0	1.502318E+0	1.632359E+0	1.645041E+0	1.643013E+0	1.484959E+0	1.581278E+0	1.580073E+0	1.559739E+0	1.365790E+0	1.437506E+0	1.409097E+0	1.374665E+0	1.457592E+0	1.515789E+0	1.501831E+0	1.455048E+0	1.509604E+0	1.589537E+0	1.595104E+0	1.672218E+0	1.501982E+0	1.553114E+0	1.563737E+0	1.531172E+0	1.451294E+0	1.461466E+0	1.547071E+0	1.370316E+0	1.490997E+0	1.499832E+0	1.555816E+0	1.462978E+0	1.633344E+0	1.596853E+0	1.606872E+0	1.621343E+0	1.329335E+0	1.552628E+0	1.546732E+0	1.543535E+0	1.379851E+0	1.367935E+0	1.376533E+0	1.445620E+0	1.444861E+0	1.401286E+0	1.431481E+0	1.316346E+0	1.574005E+0	1.594871E+0	1.564923E+0	1.527029E+0	1.542128E+0	1.513055E+0	1.555652E+0	1.518729E+0	1.559918E+0	1.348714E+0	1.474195E+0	1.420248E+0	1.577973E+0	1.492644E+0	1.473528E+0	1.467106E+0	1.614275E+0	1.620398E+0	1.656990E+0	1.547444E+0	1.664312E+0	1.643372E+0	1.468920E+0	1.616750E+0	1.548737E+0	1.557233E+0	1.457258E+0	1.378714E+0	1.520821E+0	1.594024E+0	1.453350E+0
5.445240E+2	1.637329E+0	1.371509E+0	1.320764E+0	1.588896E+0	1.623211E+0	1.415119E+0	1.454719E+0	1.362292E+0	1.590359E+0	1.498991E+0	1.537751E+0	1.417569E+0	1.569663E+0	1.602618E+0	1.634454E+0	1.598000E+0	1.568855E+0	1.563710E+0	1.536744E+0	1.598835E+0	1.607990E+0	1.543766E+0	1.454735E+0	1.427394E+0	1.527715E+0	1.514459E+0	1.468421E+0	1.401491E+0	1.607555E+0	1.624969E+0	1.608466E+0	1.611184E+0	1.537869E+0	1.703742E+0	1.571059E+0	1.576308E+0	1.535885E+0	1.539450E+0	1.460540E+0	1.637507E+0	1.512252E+0	1.594022E+0	1.437506E+0	1.606714E+0	1.500144E+0	1.648373E+0	1.610570E+0	1.631192E+0	1.488529E+0	1.567840E+0	1.520232E+0	1.605177E+0	1.452128E+0	1.367833E+0	1.492206E+0	1.410954E+0	1.527068E+0	1.453624E+0	1.496437E+0	1.291559E+0	1.561435E+0	1.584197E+0	1.502986E+0	1.568704E+0	1.362643E+0	1.569089E+0	1.559732E+0	1.509533E+0	1.350544E+0	1.358934E+0	1.457854E+0	1.344674E+0	1.487960E+0	1.427709E+0	1.494349E+0	1.273801E+0	1.498089E+0	1.573022E+0	1.619281E+0	1.495104E+0	1.482573E+0	1.489451E+0	1.558656E+0	1.550527E+0	1.426098E+0	1.458414E+0	1.497867E+0	1.408594E+0	1.466190E+0	1.421384E+0	1.530069E+0	1.423512E+0	1.448874E+0	1.605149E+0	1.584054E+0	1.572162E+0	1.499737E+0	1.506429E+0	1.594515E+0	1.516686E+0	1.381786E+0	1.417240E+0	1.414117E+0	1.411200E+0	1.454253E+0	1.480873E+0	1.461737E+0	1.424135E+0	1.471719E+0	1.600105E+0	1.602615E+0	1.626055E+0	1.445983E+0	1.501982E+0	1.611904E+0	1.557715E+0	1.356630E+0	1.424909E+0	1.527369E+0	1.362135E+0	1.471101E+0	1.527177E+0	1.553661E+0	1.445149E+0	1.503156E+0	1.630556E+0	1.542924E+0	1.551195E+0	1.315333E+0	1.543735E+0	1.588429E+0	1.541269E+0	1.362189E+0	1.384663E+0	1.364476E+0	1.422280E+0	1.461377E+0	1.410901E+0	1.471855E+0	1.317441E+0	1.542898E+0	1.592658E+0	1.521092E+0	1.500049E+0	1.538157E+0	1.551758E+0	1.507913E+0	1.572855E+0	1.595244E+0	1.409443E+0	1.376722E+0	1.451247E+0	1.545946E+0	1.459453E+0	1.447952E+0	1.430188E+0	1.547648E+0	1.624951E+0	1.563479E+0	1.527038E+0	1.602383E+0	1.594049E+0	1.525716E+0	1.483552E+0	1.550326E+0	1.504648E+0	1.468303E+0	1.370384E+0	1.614807E+0	1.619563E+0	1.470065E+0
5.447720E+2	1.619073E+0	1.304475E+0	1.444283E+0	1.527439E+0	1.581317E+0	1.374445E+0	1.443830E+0	1.357459E+0	1.524955E+0	1.433970E+0	1.525688E+0	1.388679E+0	1.484150E+0	1.548781E+0	1.610036E+0	1.551543E+0	1.558474E+0	1.556256E+0	1.525771E+0	1.505269E+0	1.578033E+0	1.497828E+0	1.423739E+0	1.381466E+0	1.530378E+0	1.508173E+0	1.479302E+0	1.411339E+0	1.486335E+0	1.577617E+0	1.490366E+0	1.553281E+0	1.573935E+0	1.597641E+0	1.514409E+0	1.529000E+0	1.600525E+0	1.456553E+0	1.357440E+0	1.583902E+0	1.520554E+0	1.493654E+0	1.419169E+0	1.583036E+0	1.470276E+0	1.520621E+0	1.547098E+0	1.535450E+0	1.499014E+0	1.517284E+0	1.438791E+0	1.606251E+0	1.521651E+0	1.396097E+0	1.357853E+0	1.345285E+0	1.588707E+0	1.396526E+0	1.519973E+0	1.299127E+0	1.499314E+0	1.523304E+0	1.511013E+0	1.449240E+0	1.348923E+0	1.514450E+0	1.495739E+0	1.487198E+0	1.470844E+0	1.345224E+0	1.375660E+0	1.267142E+0	1.497374E+0	1.424485E+0	1.496967E+0	1.244229E+0	1.517285E+0	1.570008E+0	1.551081E+0	1.478074E+0	1.421675E+0	1.539761E+0	1.508195E+0	1.528342E+0	1.437345E+0	1.409070E+0	1.419031E+0	1.393913E+0	1.457702E+0	1.469012E+0	1.448625E+0	1.369479E+0	1.406626E+0	1.550731E+0	1.507041E+0	1.521976E+0	1.433809E+0	1.511108E+0	1.538350E+0	1.503058E+0	1.355437E+0	1.338782E+0	1.355416E+0	1.376919E+0	1.366824E+0	1.474424E+0	1.407911E+0	1.431444E+0	1.433834E+0	1.564887E+0	1.535501E+0	1.587341E+0	1.432126E+0	1.479387E+0	1.544241E+0	1.438837E+0	1.335703E+0	1.372156E+0	1.461877E+0	1.338561E+0	1.471690E+0	1.409600E+0	1.452465E+0	1.366487E+0	1.523340E+0	1.488902E+0	1.526525E+0	1.531705E+0	1.274395E+0	1.455413E+0	1.561029E+0	1.440366E+0	1.368941E+0	1.276633E+0	1.366405E+0	1.396911E+0	1.350711E+0	1.409771E+0	1.425024E+0	1.267661E+0	1.471308E+0	1.516109E+0	1.476201E+0	1.467986E+0	1.487673E+0	1.456404E+0	1.438011E+0	1.538358E+0	1.460701E+0	1.344794E+0	1.445051E+0	1.352793E+0	1.516831E+0	1.457164E+0	1.381573E+0	1.373186E+0	1.543172E+0	1.526355E+0	1.508728E+0	1.539375E+0	1.505308E+0	1.519189E+0	1.505733E+0	1.470341E+0	1.495321E+0	1.468366E+0	1.340840E+0	1.303741E+0	1.518755E+0	1.479854E+0	1.375336E+0
5.450200E+2	1.506579E+0	1.272606E+0	1.451087E+0	1.496713E+0	1.445647E+0	1.254006E+0	1.370083E+0	1.316175E+0	1.456254E+0	1.400705E+0	1.366724E+0	1.332887E+0	1.454154E+0	1.453173E+0	1.502221E+0	1.454209E+0	1.462986E+0	1.445037E+0	1.436935E+0	1.512753E+0	1.524025E+0	1.426205E+0	1.357021E+0	1.309110E+0	1.486156E+0	1.489884E+0	1.346840E+0	1.349158E+0	1.426393E+0	1.448963E+0	1.403191E+0	1.458344E+0	1.447965E+0	1.566157E+0	1.411270E+0	1.549967E+0	1.471248E+0	1.416741E+0	1.320196E+0	1.490574E+0	1.474907E+0	1.443183E+0	1.313990E+0	1.475040E+0	1.397415E+0	1.525497E+0	1.446005E+0	1.502794E+0	1.447120E+0	1.452285E+0	1.456768E+0	1.504121E+0	1.430518E+0	1.304342E+0	1.343683E+0	1.319312E+0	1.510964E+0	1.353433E+0	1.390820E+0	1.179074E+0	1.482587E+0	1.451248E+0	1.409682E+0	1.387711E+0	1.266066E+0	1.430856E+0	1.458222E+0	1.449965E+0	1.404906E+0	1.266945E+0	1.287008E+0	1.224935E+0	1.450893E+0	1.364810E+0	1.460869E+0	1.175396E+0	1.408194E+0	1.439869E+0	1.461272E+0	1.368096E+0	1.453472E+0	1.373968E+0	1.441287E+0	1.453660E+0	1.487954E+0	1.320716E+0	1.388513E+0	1.348574E+0	1.524027E+0	1.380711E+0	1.383950E+0	1.367902E+0	1.432076E+0	1.514620E+0	1.440366E+0	1.458994E+0	1.472457E+0	1.462248E+0	1.466137E+0	1.476899E+0	1.422723E+0	1.303447E+0	1.294712E+0	1.330005E+0	1.475972E+0	1.414257E+0	1.307405E+0	1.362319E+0	1.434759E+0	1.488421E+0	1.467448E+0	1.521818E+0	1.436561E+0	1.438956E+0	1.468551E+0	1.464804E+0	1.319051E+0	1.350221E+0	1.400109E+0	1.278906E+0	1.463499E+0	1.384447E+0	1.409404E+0	1.334498E+0	1.411825E+0	1.456780E+0	1.464763E+0	1.434274E+0	1.240998E+0	1.398509E+0	1.495506E+0	1.417691E+0	1.286853E+0	1.244989E+0	1.246313E+0	1.246221E+0	1.288499E+0	1.339063E+0	1.369575E+0	1.185604E+0	1.448594E+0	1.442332E+0	1.430258E+0	1.381964E+0	1.458177E+0	1.409288E+0	1.428347E+0	1.496129E+0	1.390568E+0	1.272312E+0	1.351877E+0	1.258443E+0	1.428905E+0	1.361022E+0	1.413131E+0	1.361788E+0	1.430306E+0	1.491463E+0	1.465125E+0	1.459195E+0	1.534318E+0	1.453039E+0	1.385307E+0	1.411139E+0	1.467820E+0	1.389491E+0	1.311389E+0	1.294128E+0	1.412379E+0	1.497882E+0	1.350260E+0
5.452690E+2	1.435036E+0	1.220957E+0	1.365250E+0	1.289889E+0	1.427082E+0	1.197484E+0	1.275051E+0	1.205490E+0	1.385906E+0	1.319555E+0	1.302039E+0	1.225793E+0	1.338203E+0	1.374275E+0	1.436331E+0	1.395362E+0	1.409534E+0	1.376243E+0	1.373706E+0	1.335777E+0	1.404623E+0	1.343717E+0	1.253717E+0	1.257550E+0	1.385986E+0	1.385314E+0	1.265468E+0	1.237238E+0	1.353572E+0	1.394919E+0	1.381287E+0	1.416193E+0	1.366944E+0	1.469969E+0	1.363707E+0	1.426856E+0	1.407045E+0	1.285307E+0	1.266149E+0	1.413517E+0	1.323446E+0	1.336503E+0	1.288102E+0	1.381484E+0	1.274768E+0	1.387507E+0	1.376889E+0	1.337261E+0	1.391033E+0	1.368709E+0	1.312923E+0	1.396617E+0	1.363809E+0	1.195191E+0	1.285955E+0	1.229630E+0	1.399903E+0	1.276405E+0	1.327104E+0	1.069106E+0	1.336836E+0	1.372685E+0	1.357516E+0	1.292050E+0	1.183736E+0	1.356547E+0	1.288300E+0	1.323379E+0	1.364637E+0	1.199277E+0	1.274540E+0	1.157035E+0	1.352038E+0	1.264275E+0	1.292947E+0	1.086678E+0	1.326732E+0	1.347919E+0	1.394033E+0	1.372964E+0	1.355926E+0	1.375113E+0	1.408968E+0	1.338932E+0	1.405010E+0	1.254449E+0	1.237962E+0	1.198312E+0	1.434352E+0	1.267263E+0	1.337837E+0	1.280819E+0	1.257485E+0	1.353847E+0	1.358701E+0	1.365509E+0	1.302520E+0	1.391034E+0	1.313151E+0	1.341734E+0	1.354024E+0	1.237978E+0	1.226481E+0	1.232119E+0	1.353457E+0	1.331528E+0	1.287634E+0	1.239807E+0	1.285989E+0	1.327437E+0	1.356219E+0	1.399217E+0	1.386108E+0	1.369988E+0	1.375085E+0	1.327457E+0	1.365195E+0	1.211820E+0	1.311187E+0	1.211550E+0	1.396222E+0	1.301321E+0	1.347501E+0	1.273142E+0	1.408796E+0	1.331978E+0	1.386050E+0	1.330995E+0	1.264162E+0	1.396732E+0	1.358503E+0	1.340600E+0	1.380889E+0	1.226912E+0	1.169147E+0	1.205125E+0	1.350711E+0	1.238379E+0	1.267840E+0	1.185057E+0	1.386879E+0	1.399619E+0	1.322524E+0	1.338700E+0	1.319767E+0	1.327399E+0	1.291385E+0	1.365872E+0	1.383816E+0	1.244884E+0	1.263481E+0	1.207390E+0	1.399788E+0	1.297500E+0	1.271121E+0	1.223354E+0	1.375113E+0	1.400453E+0	1.421035E+0	1.355292E+0	1.383126E+0	1.397910E+0	1.312739E+0	1.310185E+0	1.427628E+0	1.329022E+0	1.194511E+0	1.211464E+0	1.345248E+0	1.347659E+0	1.121796E+0
5.455340E+2	1.296394E+0	1.113815E+0	1.305062E+0	1.292843E+0	1.290454E+0	1.126701E+0	1.151809E+0	1.111499E+0	1.282029E+0	1.206148E+0	1.268053E+0	1.135631E+0	1.261643E+0	1.327861E+0	1.267699E+0	1.307756E+0	1.338953E+0	1.276490E+0	1.244111E+0	1.267338E+0	1.332051E+0	1.270615E+0	1.205507E+0	1.166131E+0	1.278892E+0	1.283596E+0	1.198290E+0	1.151746E+0	1.267431E+0	1.265783E+0	1.289387E+0	1.338709E+0	1.305788E+0	1.326553E+0	1.314004E+0	1.378473E+0	1.342402E+0	1.266763E+0	1.178038E+0	1.280943E+0	1.278318E+0	1.333635E+0	1.195867E+0	1.256743E+0	1.220461E+0	1.355323E+0	1.317647E+0	1.362760E+0	1.319748E+0	1.295970E+0	1.213501E+0	1.265460E+0	1.345956E+0	1.173011E+0	1.186761E+0	1.143868E+0	1.288284E+0	1.168675E+0	1.267981E+0	1.023708E+0	1.291913E+0	1.279714E+0	1.296817E+0	1.277679E+0	1.118293E+0	1.230882E+0	1.291611E+0	1.263809E+0	1.262457E+0	1.174508E+0	1.173879E+0	1.082251E+0	1.271426E+0	1.200838E+0	1.228082E+0	1.038750E+0	1.260717E+0	1.251949E+0	1.313827E+0	1.232815E+0	1.304188E+0	1.314514E+0	1.302940E+0	1.228530E+0	1.309413E+0	1.217794E+0	1.198289E+0	1.157294E+0	1.325045E+0	1.233015E+0	1.284540E+0	1.195831E+0	1.239669E+0	1.318722E+0	1.355084E+0	1.301054E+0	1.236593E+0	1.305789E+0	1.277847E+0	1.279054E+0	1.337088E+0	1.190174E+0	1.125138E+0	1.131525E+0	1.315033E+0	1.218180E+0	1.164059E+0	1.188666E+0	1.266121E+0	1.316868E+0	1.302715E+0	1.341144E+0	1.248614E+0	1.259400E+0	1.328069E+0	1.251282E+0	1.325714E+0	1.161681E+0	1.254747E+0	1.090311E+0	1.304375E+0	1.249370E+0	1.261375E+0	1.176651E+0	1.321499E+0	1.318812E+0	1.284931E+0	1.329049E+0	1.165590E+0	1.280548E+0	1.316212E+0	1.275411E+0	1.316988E+0	1.154137E+0	1.132493E+0	1.207154E+0	1.297306E+0	1.128645E+0	1.149953E+0	1.229914E+0	1.301955E+0	1.287571E+0	1.248587E+0	1.269985E+0	1.315797E+0	1.321231E+0	1.235689E+0	1.295094E+0	1.383300E+0	1.126849E+0	1.165049E+0	1.165001E+0	1.317103E+0	1.180184E+0	1.181887E+0	1.198382E+0	1.299041E+0	1.327643E+0	1.286828E+0	1.239527E+0	1.289955E+0	1.312029E+0	1.243327E+0	1.207118E+0	1.323440E+0	1.282746E+0	1.180709E+0	1.161482E+0	1.243001E+0	1.227480E+0	1.052142E+0
5.457720E+2	1.228304E+0	1.094584E+0	1.268424E+0	1.258570E+0	1.234757E+0	1.067539E+0	1.091424E+0	1.088220E+0	1.209480E+0	1.164313E+0	1.169931E+0	1.089804E+0	1.234784E+0	1.193734E+0	1.250188E+0	1.213071E+0	1.237757E+0	1.237507E+0	1.204917E+0	1.264130E+0	1.214337E+0	1.202450E+0	1.126305E+0	1.134933E+0	1.229339E+0	1.238453E+0	1.175109E+0	1.159517E+0	1.195054E+0	1.249525E+0	1.207793E+0	1.265054E+0	1.204380E+0	1.335298E+0	1.216742E+0	1.298906E+0	1.228312E+0	1.163689E+0	1.086748E+0	1.235953E+0	1.194292E+0	1.228678E+0	1.151101E+0	1.256743E+0	1.172038E+0	1.235860E+0	1.252289E+0	1.262550E+0	1.240597E+0	1.178348E+0	1.217205E+0	1.225685E+0	1.265623E+0	1.100390E+0	1.146874E+0	1.142398E+0	1.277734E+0	1.109423E+0	1.181879E+0	9.904158E-1	1.210198E+0	1.205800E+0	1.189472E+0	1.195941E+0	1.073433E+0	1.197553E+0	1.160859E+0	1.220195E+0	1.215646E+0	1.111707E+0	1.119394E+0	1.057937E+0	1.234944E+0	1.178257E+0	1.164261E+0	1.030082E+0	1.182059E+0	1.234361E+0	1.261478E+0	1.264446E+0	1.225504E+0	1.161299E+0	1.205983E+0	1.193896E+0	1.228345E+0	1.105473E+0	1.118945E+0	1.122751E+0	1.223696E+0	1.200371E+0	1.190520E+0	1.110318E+0	1.157720E+0	1.256887E+0	1.226384E+0	1.204616E+0	1.240573E+0	1.231977E+0	1.241473E+0	1.168413E+0	1.233575E+0	1.115351E+0	1.082493E+0	1.118445E+0	1.229274E+0	1.198842E+0	1.127262E+0	1.145955E+0	1.210217E+0	1.209211E+0	1.267045E+0	1.303419E+0	1.206478E+0	1.220158E+0	1.250659E+0	1.184339E+0	1.261017E+0	1.074462E+0	1.196176E+0	1.110036E+0	1.271615E+0	1.167341E+0	1.225848E+0	1.147284E+0	1.258930E+0	1.235085E+0	1.234098E+0	1.244279E+0	1.117652E+0	1.176221E+0	1.222693E+0	1.169409E+0	1.262955E+0	1.064639E+0	1.044716E+0	1.090457E+0	1.247758E+0	1.117331E+0	1.108504E+0	1.129805E+0	1.269368E+0	1.158881E+0	1.201586E+0	1.227229E+0	1.169445E+0	1.167546E+0	1.116343E+0	1.193387E+0	1.279923E+0	1.108238E+0	1.184642E+0	1.094352E+0	1.219277E+0	1.146420E+0	1.139446E+0	1.102293E+0	1.210037E+0	1.292756E+0	1.278105E+0	1.240951E+0	1.256480E+0	1.270247E+0	1.150773E+0	1.194433E+0	1.262091E+0	1.189675E+0	1.107083E+0	1.054468E+0	1.172772E+0	1.198938E+0	1.071645E+0
5.460160E+2	1.199685E+0	1.055024E+0	1.200906E+0	1.165795E+0	1.215715E+0	1.176356E+0	1.129536E+0	1.053522E+0	1.160015E+0	1.231855E+0	1.116211E+0	1.096280E+0	1.212399E+0	1.229471E+0	1.194898E+0	1.179445E+0	1.229973E+0	1.232920E+0	1.218504E+0	1.181789E+0	1.249776E+0	1.199484E+0	1.112962E+0	1.059978E+0	1.257578E+0	1.228167E+0	1.154293E+0	1.115992E+0	1.169744E+0	1.214610E+0	1.195765E+0	1.205451E+0	1.254561E+0	1.241437E+0	1.141390E+0	1.296757E+0	1.227877E+0	1.126604E+0	1.091289E+0	1.197665E+0	1.263276E+0	1.216634E+0	1.119817E+0	1.196105E+0	1.205981E+0	1.259751E+0	1.206211E+0	1.216021E+0	1.199185E+0	1.202080E+0	1.177540E+0	1.189668E+0	1.240257E+0	1.072561E+0	1.129556E+0	1.061048E+0	1.162785E+0	1.087339E+0	1.168677E+0	9.641853E-1	1.253685E+0	1.203011E+0	1.153355E+0	1.224686E+0	1.030158E+0	1.174605E+0	1.217683E+0	1.178710E+0	1.185951E+0	1.065266E+0	1.122164E+0	1.060689E+0	1.194344E+0	1.131485E+0	1.141243E+0	1.119310E+0	1.210618E+0	1.165527E+0	1.213449E+0	1.185614E+0	1.186162E+0	1.229903E+0	1.128304E+0	1.155472E+0	1.248496E+0	1.085736E+0	1.080289E+0	1.100729E+0	1.189207E+0	1.132409E+0	1.181537E+0	1.068350E+0	1.163828E+0	1.177241E+0	1.237756E+0	1.215440E+0	1.187716E+0	1.218982E+0	1.155888E+0	1.156967E+0	1.231694E+0	1.073264E+0	1.089517E+0	1.053486E+0	1.212567E+0	1.159088E+0	1.087718E+0	1.099311E+0	1.172333E+0	1.187577E+0	1.250152E+0	1.215564E+0	1.193727E+0	1.215402E+0	1.250085E+0	1.175683E+0	1.188237E+0	1.065060E+0	1.133345E+0	1.059519E+0	1.256404E+0	1.166247E+0	1.204855E+0	1.113722E+0	1.232694E+0	1.210861E+0	1.252136E+0	1.175101E+0	1.070253E+0	1.172664E+0	1.255454E+0	1.158072E+0	1.224512E+0	1.025766E+0	1.126705E+0	1.097560E+0	1.210869E+0	1.059635E+0	1.111196E+0	1.159346E+0	1.184445E+0	1.208804E+0	1.219014E+0	1.164115E+0	1.210287E+0	1.177642E+0	1.114069E+0	1.172569E+0	1.302261E+0	1.065629E+0	1.052287E+0	1.048769E+0	1.202391E+0	1.143558E+0	1.160667E+0	1.080035E+0	1.203575E+0	1.176967E+0	1.217544E+0	1.212958E+0	1.219657E+0	1.190748E+0	1.183377E+0	1.206590E+0	1.258391E+0	1.214390E+0	1.081775E+0	1.051906E+0	1.154181E+0	1.131338E+0	1.060501E+0
5.467660E+2	1.263334E+0	1.133595E+0	1.241731E+0	1.201251E+0	1.276650E+0	1.241857E+0	1.117657E+0	1.065379E+0	1.206182E+0	1.274194E+0	1.222007E+0	1.117201E+0	1.228070E+0	1.237825E+0	1.263088E+0	1.269262E+0	1.271487E+0	1.268464E+0	1.159978E+0	1.241673E+0	1.220664E+0	1.268639E+0	1.146535E+0	1.130600E+0	1.249051E+0	1.277884E+0	1.185042E+0	1.108220E+0	1.191948E+0	1.260524E+0	1.220674E+0	1.278677E+0	1.278083E+0	1.318975E+0	1.217811E+0	1.287080E+0	1.213561E+0	1.258584E+0	1.111275E+0	1.219680E+0	1.226448E+0	1.244164E+0	1.137078E+0	1.259053E+0	1.191498E+0	1.310952E+0	1.230661E+0	1.268364E+0	1.197089E+0	1.334660E+0	1.177012E+0	1.242886E+0	1.246834E+0	1.278250E+0	1.110137E+0	1.114954E+0	1.248303E+0	1.246241E+0	1.201969E+0	1.068098E+0	1.253206E+0	1.271811E+0	1.203014E+0	1.223786E+0	1.052851E+0	1.284975E+0	1.207754E+0	1.231897E+0	1.251384E+0	1.219177E+0	1.107851E+0	1.089135E+0	1.249654E+0	1.256211E+0	1.207157E+0	1.135116E+0	1.283190E+0	1.226322E+0	1.217771E+0	1.273205E+0	1.207180E+0	1.193886E+0	1.233765E+0	1.197685E+0	1.293011E+0	1.124743E+0	1.094531E+0	1.153839E+0	1.308595E+0	1.251211E+0	1.199503E+0	1.153861E+0	1.189788E+0	1.271727E+0	1.249643E+0	1.261691E+0	1.224090E+0	1.204429E+0	1.237194E+0	1.196755E+0	1.265568E+0	1.087813E+0	1.058412E+0	1.087320E+0	1.273268E+0	1.175204E+0	1.186577E+0	1.190353E+0	1.170482E+0	1.299766E+0	1.249212E+0	1.257261E+0	1.216458E+0	1.205295E+0	1.274742E+0	1.173952E+0	1.248649E+0	1.121988E+0	1.204163E+0	1.090311E+0	1.266349E+0	1.152575E+0	1.198396E+0	1.142040E+0	1.283656E+0	1.247723E+0	1.252136E+0	1.311508E+0	1.116037E+0	1.199339E+0	1.223288E+0	1.198319E+0	1.245292E+0	1.105772E+0	1.065454E+0	1.178740E+0	1.248856E+0	1.090746E+0	1.079975E+0	1.162628E+0	1.247148E+0	1.224335E+0	1.263904E+0	1.225702E+0	1.200644E+0	1.236536E+0	1.176584E+0	1.213014E+0	1.263299E+0	1.088648E+0	1.116313E+0	1.102100E+0	1.270519E+0	1.152142E+0	1.147064E+0	1.111522E+0	1.232911E+0	1.268487E+0	1.250974E+0	1.210586E+0	1.248111E+0	1.221503E+0	1.188109E+0	1.220333E+0	1.274257E+0	1.225958E+0	1.138374E+0	1.112782E+0	1.238869E+0	1.234992E+0	1.060498E+0
5.475070E+2	1.397539E+0	1.215463E+0	1.369437E+0	1.252661E+0	1.395658E+0	1.379199E+0	1.257729E+0	1.201978E+0	1.368319E+0	1.419354E+0	1.246675E+0	1.178968E+0	1.343129E+0	1.392377E+0	1.381504E+0	1.340936E+0	1.427178E+0	1.350445E+0	1.347054E+0	1.293535E+0	1.353147E+0	1.360510E+0	1.217989E+0	1.236753E+0	1.413160E+0	1.414455E+0	1.270673E+0	1.260557E+0	1.290964E+0	1.351396E+0	1.373557E+0	1.354885E+0	1.359101E+0	1.388932E+0	1.322557E+0	1.363421E+0	1.364095E+0	1.353479E+0	1.195297E+0	1.348903E+0	1.339526E+0	1.393284E+0	1.204499E+0	1.383218E+0	1.302376E+0	1.348984E+0	1.298368E+0	1.381553E+0	1.420912E+0	1.437839E+0	1.286481E+0	1.412203E+0	1.355824E+0	1.444366E+0	1.194632E+0	1.183566E+0	1.339929E+0	1.379288E+0	1.296681E+0	1.212367E+0	1.358817E+0	1.404761E+0	1.272741E+0	1.380079E+0	1.177930E+0	1.418833E+0	1.303747E+0	1.348911E+0	1.312290E+0	1.338591E+0	1.210819E+0	1.145564E+0	1.409113E+0	1.393300E+0	1.310734E+0	1.230461E+0	1.317838E+0	1.410226E+0	1.387307E+0	1.345712E+0	1.350536E+0	1.340811E+0	1.298403E+0	1.340012E+0	1.354869E+0	1.338105E+0	1.225754E+0	1.226379E+0	1.343616E+0	1.296698E+0	1.359396E+0	1.243571E+0	1.300241E+0	1.413704E+0	1.314767E+0	1.400442E+0	1.374702E+0	1.407149E+0	1.332941E+0	1.339006E+0	1.348382E+0	1.329430E+0	1.190359E+0	1.200541E+0	1.378516E+0	1.354093E+0	1.261270E+0	1.234749E+0	1.311399E+0	1.397363E+0	1.361850E+0	1.387305E+0	1.347300E+0	1.399122E+0	1.364766E+0	1.337845E+0	1.362817E+0	1.281281E+0	1.313318E+0	1.159591E+0	1.425474E+0	1.312260E+0	1.334044E+0	1.230666E+0	1.314435E+0	1.327238E+0	1.352161E+0	1.284227E+0	1.155356E+0	1.228976E+0	1.310851E+0	1.263508E+0	1.392837E+0	1.171765E+0	1.185546E+0	1.253324E+0	1.329791E+0	1.258743E+0	1.201630E+0	1.315252E+0	1.330098E+0	1.318633E+0	1.357377E+0	1.325466E+0	1.307855E+0	1.348153E+0	1.299908E+0	1.263571E+0	1.395764E+0	1.191011E+0	1.227168E+0	1.195541E+0	1.356699E+0	1.269458E+0	1.272209E+0	1.203269E+0	1.311469E+0	1.365565E+0	1.373553E+0	1.324453E+0	1.346860E+0	1.393266E+0	1.316420E+0	1.307015E+0	1.393251E+0	1.334279E+0	1.222122E+0	1.210183E+0	1.295673E+0	1.295081E+0	1.155229E+0
5.482600E+2	1.425660E+0	1.298980E+0	1.405550E+0	1.442348E+0	1.439930E+0	1.414060E+0	1.297817E+0	1.215154E+0	1.432621E+0	1.505038E+0	1.381523E+0	1.268131E+0	1.387003E+0	1.493553E+0	1.465359E+0	1.420578E+0	1.489972E+0	1.493193E+0	1.462018E+0	1.380687E+0	1.475506E+0	1.382739E+0	1.320002E+0	1.282247E+0	1.446196E+0	1.433314E+0	1.348729E+0	1.304599E+0	1.389979E+0	1.516399E+0	1.407913E+0	1.429818E+0	1.405104E+0	1.433822E+0	1.394702E+0	1.515561E+0	1.374939E+0	1.465279E+0	1.295674E+0	1.440797E+0	1.449490E+0	1.482181E+0	1.323700E+0	1.465221E+0	1.371615E+0	1.507942E+0	1.389585E+0	1.479081E+0	1.361157E+0	1.482204E+0	1.372684E+0	1.434782E+0	1.434275E+0	1.479157E+0	1.251841E+0	1.252172E+0	1.460432E+0	1.417532E+0	1.379339E+0	1.268859E+0	1.406605E+0	1.489831E+0	1.402158E+0	1.405677E+0	1.227011E+0	1.505162E+0	1.378229E+0	1.376565E+0	1.453226E+0	1.426160E+0	1.283314E+0	1.219887E+0	1.407936E+0	1.463729E+0	1.357815E+0	1.329375E+0	1.381978E+0	1.442384E+0	1.389709E+0	1.382695E+0	1.382332E+0	1.454005E+0	1.399895E+0	1.384932E+0	1.453279E+0	1.407660E+0	1.306626E+0	1.314895E+0	1.448678E+0	1.414428E+0	1.433055E+0	1.308624E+0	1.345035E+0	1.493351E+0	1.432611E+0	1.396505E+0	1.376406E+0	1.493953E+0	1.381621E+0	1.374434E+0	1.449541E+0	1.518043E+0	1.214943E+0	1.214526E+0	1.424737E+0	1.473351E+0	1.305758E+0	1.310055E+0	1.364996E+0	1.459240E+0	1.435536E+0	1.471687E+0	1.403294E+0	1.440148E+0	1.445614E+0	1.349388E+0	1.454149E+0	1.457811E+0	1.372956E+0	1.222616E+0	1.432492E+0	1.509132E+0	1.362035E+0	1.322962E+0	1.455219E+0	1.459414E+0	1.452736E+0	1.406506E+0	1.172054E+0	1.445931E+0	1.388287E+0	1.403522E+0	1.444271E+0	1.409978E+0	1.244867E+0	1.307613E+0	1.456971E+0	1.430699E+0	1.341046E+0	1.394029E+0	1.453531E+0	1.461745E+0	1.405436E+0	1.428792E+0	1.412230E+0	1.459209E+0	1.384589E+0	1.409884E+0	1.445115E+0	1.358995E+0	1.294059E+0	1.241120E+0	1.428906E+0	1.418249E+0	1.317370E+0	1.287413E+0	1.485494E+0	1.430286E+0	1.415219E+0	1.351496E+0	1.403768E+0	1.457680E+0	1.341135E+0	1.358286E+0	1.432388E+0	1.422619E+0	1.255712E+0	1.265933E+0	1.428905E+0	1.394227E+0	1.300110E+0
5.490320E+2	1.409379E+0	1.346233E+0	1.418112E+0	1.399209E+0	1.408513E+0	1.445755E+0	1.282477E+0	1.171672E+0	1.393050E+0	1.429435E+0	1.344248E+0	1.260659E+0	1.365959E+0	1.488447E+0	1.456145E+0	1.413059E+0	1.427178E+0	1.407201E+0	1.404536E+0	1.415444E+0	1.474661E+0	1.430159E+0	1.232624E+0	1.242818E+0	1.400372E+0	1.401884E+0	1.321765E+0	1.293199E+0	1.369556E+0	1.452309E+0	1.428098E+0	1.380858E+0	1.367467E+0	1.441401E+0	1.375463E+0	1.425779E+0	1.435240E+0	1.352388E+0	1.222095E+0	1.387671E+0	1.416295E+0	1.431710E+0	1.254122E+0	1.442123E+0	1.373427E+0	1.493315E+0	1.374067E+0	1.429421E+0	1.429299E+0	1.436808E+0	1.339366E+0	1.417579E+0	1.369917E+0	1.509598E+0	1.290676E+0	1.213457E+0	1.401570E+0	1.455777E+0	1.390817E+0	1.294588E+0	1.411862E+0	1.463332E+0	1.363534E+0	1.430826E+0	1.267648E+0	1.423751E+0	1.346780E+0	1.393056E+0	1.340982E+0	1.416874E+0	1.292087E+0	1.192819E+0	1.427356E+0	1.412655E+0	1.366184E+0	1.297257E+0	1.388534E+0	1.428313E+0	1.401236E+0	1.404592E+0	1.368320E+0	1.440859E+0	1.414070E+0	1.377354E+0	1.464055E+0	1.393090E+0	1.319851E+0	1.226809E+0	1.400391E+0	1.413891E+0	1.341430E+0	1.295508E+0	1.326201E+0	1.432504E+0	1.402635E+0	1.389619E+0	1.382658E+0	1.437295E+0	1.396065E+0	1.362442E+0	1.465066E+0	1.434384E+0	1.258085E+0	1.223545E+0	1.418057E+0	1.527607E+0	1.329376E+0	1.328600E+0	1.374698E+0	1.424527E+0	1.406905E+0	1.390283E+0	1.377793E+0	1.405663E+0	1.416946E+0	1.308414E+0	1.360438E+0	1.409240E+0	1.345264E+0	1.244266E+0	1.465255E+0	1.432569E+0	1.331891E+0	1.304082E+0	1.397694E+0	1.459412E+0	1.321005E+0	1.338301E+0	1.233458E+0	1.441187E+0	1.354334E+0	1.337199E+0	1.463496E+0	1.418563E+0	1.246795E+0	1.264995E+0	1.412925E+0	1.380355E+0	1.313057E+0	1.308688E+0	1.435756E+0	1.414042E+0	1.430257E+0	1.383999E+0	1.339620E+0	1.453599E+0	1.331165E+0	1.377173E+0	1.445114E+0	1.371734E+0	1.252969E+0	1.240664E+0	1.406195E+0	1.420538E+0	1.284723E+0	1.290127E+0	1.398979E+0	1.407531E+0	1.459313E+0	1.344853E+0	1.424409E+0	1.461743E+0	1.344816E+0	1.343486E+0	1.373684E+0	1.462583E+0	1.234543E+0	1.196726E+0	1.421674E+0	1.443801E+0	1.219310E+0
5.497740E+2	1.399020E+0	1.193485E+0	1.327566E+0	1.427573E+0	1.398992E+0	1.401384E+0	1.222587E+0	1.170355E+0	1.349631E+0	1.388105E+0	1.332189E+0	1.201383E+0	1.317609E+0	1.421150E+0	1.370442E+0	1.404209E+0	1.408494E+0	1.390576E+0	1.333988E+0	1.339519E+0	1.361164E+0	1.343718E+0	1.243814E+0	1.218989E+0	1.360410E+0	1.444169E+0	1.292905E+0	1.252265E+0	1.350463E+0	1.341829E+0	1.322455E+0	1.347648E+0	1.377399E+0	1.462388E+0	1.359429E+0	1.402666E+0	1.398364E+0	1.396561E+0	1.182125E+0	1.385277E+0	1.382059E+0	1.405903E+0	1.268146E+0	1.426530E+0	1.283368E+0	1.349961E+0	1.417324E+0	1.401237E+0	1.302975E+0	1.395535E+0	1.342012E+0	1.390704E+0	1.364749E+0	1.438279E+0	1.231371E+0	1.242370E+0	1.364919E+0	1.431000E+0	1.317920E+0	1.277941E+0	1.427632E+0	1.405691E+0	1.351497E+0	1.394897E+0	1.187958E+0	1.354361E+0	1.342366E+0	1.316997E+0	1.320345E+0	1.418644E+0	1.246835E+0	1.175386E+0	1.346743E+0	1.445986E+0	1.362001E+0	1.281960E+0	1.329071E+0	1.365004E+0	1.394032E+0	1.363228E+0	1.335447E+0	1.418562E+0	1.297838E+0	1.350295E+0	1.456087E+0	1.359254E+0	1.283230E+0	1.200472E+0	1.365904E+0	1.419243E+0	1.343825E+0	1.244095E+0	1.344016E+0	1.386496E+0	1.344228E+0	1.365510E+0	1.359355E+0	1.406628E+0	1.353805E+0	1.379884E+0	1.409547E+0	1.440101E+0	1.172799E+0	1.213623E+0	1.323385E+0	1.362148E+0	1.285987E+0	1.209460E+0	1.294305E+0	1.451697E+0	1.376400E+0	1.473675E+0	1.351734E+0	1.387826E+0	1.372220E+0	1.341308E+0	1.343790E+0	1.415507E+0	1.304801E+0	1.169694E+0	1.390956E+0	1.363117E+0	1.350193E+0	1.238008E+0	1.370445E+0	1.378843E+0	1.390969E+0	1.400659E+0	1.191983E+0	1.405028E+0	1.461551E+0	1.345135E+0	1.422455E+0	1.353021E+0	1.188921E+0	1.238609E+0	1.356768E+0	1.388275E+0	1.242538E+0	1.288448E+0	1.400702E+0	1.369111E+0	1.336251E+0	1.359058E+0	1.341890E+0	1.399194E+0	1.318095E+0	1.345055E+0	1.410310E+0	1.423646E+0	1.267781E+0	1.174573E+0	1.393966E+0	1.427977E+0	1.270576E+0	1.215754E+0	1.372627E+0	1.433826E+0	1.388571E+0	1.301205E+0	1.395399E+0	1.373538E+0	1.313263E+0	1.254689E+0	1.418637E+0	1.407895E+0	1.210618E+0	1.195445E+0	1.343182E+0	1.376201E+0	1.213740E+0
5.505170E+2	1.394575E+0	1.194035E+0	1.363680E+0	1.369072E+0	1.458022E+0	1.381311E+0	1.283466E+0	1.172112E+0	1.352929E+0	1.399194E+0	1.324514E+0	1.203375E+0	1.340886E+0	1.410475E+0	1.352937E+0	1.375450E+0	1.354004E+0	1.389430E+0	1.333992E+0	1.326686E+0	1.347240E+0	1.370390E+0	1.257160E+0	1.255819E+0	1.389182E+0	1.484745E+0	1.269727E+0	1.263148E+0	1.312276E+0	1.382961E+0	1.330614E+0	1.329768E+0	1.341854E+0	1.430323E+0	1.348742E+0	1.427392E+0	1.406176E+0	1.339298E+0	1.243895E+0	1.396765E+0	1.350937E+0	1.353136E+0	1.230389E+0	1.400544E+0	1.315047E+0	1.399210E+0	1.371717E+0	1.397658E+0	1.329182E+0	1.359425E+0	1.327204E+0	1.396080E+0	1.341260E+0	1.416969E+0	1.205655E+0	1.202677E+0	1.385465E+0	1.423455E+0	1.308736E+0	1.287022E+0	1.317717E+0	1.386167E+0	1.353001E+0	1.367951E+0	1.157874E+0	1.400803E+0	1.288854E+0	1.302105E+0	1.334940E+0	1.409798E+0	1.223748E+0	1.137307E+0	1.352037E+0	1.379323E+0	1.286669E+0	1.252386E+0	1.351545E+0	1.340384E+0	1.380585E+0	1.348143E+0	1.334905E+0	1.396839E+0	1.267218E+0	1.308623E+0	1.335656E+0	1.377582E+0	1.246610E+0	1.182338E+0	1.382353E+0	1.402654E+0	1.323465E+0	1.239373E+0	1.314494E+0	1.425085E+0	1.365420E+0	1.305480E+0	1.336053E+0	1.462245E+0	1.324384E+0	1.307939E+0	1.364377E+0	1.381387E+0	1.142196E+0	1.194226E+0	1.362369E+0	1.418558E+0	1.277200E+0	1.276899E+0	1.322949E+0	1.375227E+0	1.395640E+0	1.365466E+0	1.315143E+0	1.336098E+0	1.341257E+0	1.288216E+0	1.360439E+0	1.350744E+0	1.251019E+0	1.162476E+0	1.375163E+0	1.356556E+0	1.296364E+0	1.267375E+0	1.358335E+0	1.392535E+0	1.332485E+0	1.335380E+0	1.207604E+0	1.407993E+0	1.341826E+0	1.293551E+0	1.414657E+0	1.355735E+0	1.176382E+0	1.212733E+0	1.331993E+0	1.396759E+0	1.238234E+0	1.273676E+0	1.359723E+0	1.401283E+0	1.326746E+0	1.389089E+0	1.260773E+0	1.371150E+0	1.306730E+0	1.347435E+0	1.410828E+0	1.396711E+0	1.234813E+0	1.174573E+0	1.350875E+0	1.420536E+0	1.262414E+0	1.205982E+0	1.312463E+0	1.406016E+0	1.295063E+0	1.297409E+0	1.350209E+0	1.381661E+0	1.304852E+0	1.312302E+0	1.359402E+0	1.373190E+0	1.212458E+0	1.182629E+0	1.339051E+0	1.452813E+0	1.155230E+0
5.512620E+2	1.355601E+0	1.181397E+0	1.381999E+0	1.307026E+0	1.346628E+0	1.349090E+0	1.339888E+0	1.137413E+0	1.344133E+0	1.320060E+0	1.336574E+0	1.203874E+0	1.337306E+0	1.351534E+0	1.352937E+0	1.309083E+0	1.325460E+0	1.328086E+0	1.402969E+0	1.341122E+0	1.373821E+0	1.322476E+0	1.363046E+0	1.256248E+0	1.294875E+0	1.368739E+0	1.359613E+0	1.236204E+0	1.323822E+0	1.368610E+0	1.324173E+0	1.375747E+0	1.360672E+0	1.437902E+0	1.310800E+0	1.367721E+0	1.352817E+0	1.325665E+0	1.181218E+0	1.323539E+0	1.330709E+0	1.344531E+0	1.208814E+0	1.350299E+0	1.265719E+0	1.350447E+0	1.330808E+0	1.378866E+0	1.300352E+0	1.388829E+0	1.315040E+0	1.325662E+0	1.370387E+0	1.377833E+0	1.230845E+0	1.169841E+0	1.353257E+0	1.348585E+0	1.293812E+0	1.190676E+0	1.323932E+0	1.364782E+0	1.357517E+0	1.312708E+0	1.148903E+0	1.340701E+0	1.280025E+0	1.315934E+0	1.313294E+0	1.365571E+0	1.225131E+0	1.128590E+0	1.333208E+0	1.400829E+0	1.310734E+0	1.237091E+0	1.272889E+0	1.381081E+0	1.357530E+0	1.323327E+0	1.328982E+0	1.305939E+0	1.314847E+0	1.262623E+0	1.330500E+0	1.401550E+0	1.254238E+0	1.221200E+0	1.378106E+0	1.346462E+0	1.271964E+0	1.232554E+0	1.288026E+0	1.391937E+0	1.345264E+0	1.345337E+0	1.272968E+0	1.322944E+0	1.325989E+0	1.277419E+0	1.368612E+0	1.393336E+0	1.161762E+0	1.192874E+0	1.326171E+0	1.365911E+0	1.177241E+0	1.245425E+0	1.274902E+0	1.325923E+0	1.334631E+0	1.368443E+0	1.310709E+0	1.344421E+0	1.354445E+0	1.306683E+0	1.337606E+0	1.357534E+0	1.267524E+0	1.138422E+0	1.356441E+0	1.384447E+0	1.304437E+0	1.225944E+0	1.346226E+0	1.370419E+0	1.345057E+0	1.297380E+0	1.191984E+0	1.419846E+0	1.343612E+0	1.234597E+0	1.345562E+0	1.324546E+0	1.164805E+0	1.241147E+0	1.302263E+0	1.374701E+0	1.202706E+0	1.268207E+0	1.344909E+0	1.363563E+0	1.306151E+0	1.313759E+0	1.321468E+0	1.327398E+0	1.285701E+0	1.331969E+0	1.434203E+0	1.352142E+0	1.189896E+0	1.183689E+0	1.282747E+0	1.364456E+0	1.183518E+0	1.214668E+0	1.335335E+0	1.394385E+0	1.360958E+0	1.273686E+0	1.326219E+0	1.392107E+0	1.326936E+0	1.290100E+0	1.334018E+0	1.391594E+0	1.194513E+0	1.160841E+0	1.381394E+0	1.322120E+0	1.194236E+0
5.520210E+2	1.402964E+0	1.202276E+0	1.336462E+0	1.319435E+0	1.354244E+0	1.357540E+0	1.368103E+0	1.120723E+0	1.319402E+0	1.391129E+0	1.365625E+0	1.187935E+0	1.372229E+0	1.343179E+0	1.400853E+0	1.318816E+0	1.392408E+0	1.360763E+0	1.414465E+0	1.365185E+0	1.329941E+0	1.355078E+0	1.368644E+0	1.228087E+0	1.319384E+0	1.369885E+0	1.366237E+0	1.212368E+0	1.302064E+0	1.355699E+0	1.352944E+0	1.304649E+0	1.344468E+0	1.409337E+0	1.361568E+0	1.318798E+0	1.311603E+0	1.408561E+0	1.398316E+0	1.357998E+0	1.354049E+0	1.351990E+0	1.384110E+0	1.401121E+0	1.295588E+0	1.355321E+0	1.348205E+0	1.378421E+0	1.290393E+0	1.381607E+0	1.353646E+0	1.327276E+0	1.372733E+0	1.423495E+0	1.354705E+0	1.211988E+0	1.336042E+0	1.364206E+0	1.321364E+0	1.207320E+0	1.387013E+0	1.385703E+0	1.323404E+0	1.350437E+0	1.158930E+0	1.356549E+0	1.352298E+0	1.281360E+0	1.367153E+0	1.370436E+0	1.251453E+0	1.189149E+0	1.356746E+0	1.364271E+0	1.365140E+0	1.204968E+0	1.298171E+0	1.339880E+0	1.368097E+0	1.292669E+0	1.324128E+0	1.375114E+0	1.314847E+0	1.330272E+0	1.400321E+0	1.337635E+0	1.237452E+0	1.212130E+0	1.360067E+0	1.380176E+0	1.336041E+0	1.225732E+0	1.282426E+0	1.390456E+0	1.315286E+0	1.350255E+0	1.308773E+0	1.406629E+0	1.374667E+0	1.324292E+0	1.323915E+0	1.390739E+0	1.169789E+0	1.196484E+0	1.390769E+0	1.392234E+0	1.277200E+0	1.174054E+0	1.322486E+0	1.405414E+0	1.375931E+0	1.379362E+0	1.354505E+0	1.320046E+0	1.366488E+0	1.304952E+0	1.343313E+0	1.397228E+0	1.263799E+0	1.178835E+0	1.396808E+0	1.371319E+0	1.291519E+0	1.252166E+0	1.409806E+0	1.334083E+0	1.315540E+0	1.326125E+0	1.148893E+0	1.375392E+0	1.275111E+0	1.268042E+0	1.366343E+0	1.351665E+0	1.177829E+0	1.195484E+0	1.327590E+0	1.351508E+0	1.238772E+0	1.247966E+0	1.355278E+0	1.364674E+0	1.315656E+0	1.318337E+0	1.356070E+0	1.373394E+0	1.244214E+0	1.323048E+0	1.346416E+0	1.349202E+0	1.219045E+0	1.207390E+0	1.322342E+0	1.350719E+0	1.223783E+0	1.187524E+0	1.336829E+0	1.365057E+0	1.406498E+0	1.286974E+0	1.324546E+0	1.382241E+0	1.277506E+0	1.265789E+0	1.308631E+0	1.372137E+0	1.164142E+0	1.177502E+0	1.225444E+0	1.305595E+0	1.093933E+0
5.527650E+2	1.325996E+0	1.175353E+0	1.332276E+0	1.334208E+0	1.319017E+0	1.283588E+0	1.282476E+0	1.092611E+0	1.308409E+0	1.318547E+0	1.318484E+0	1.175481E+0	1.242397E+0	1.333433E+0	1.300411E+0	1.294038E+0	1.320271E+0	1.289677E+0	1.387811E+0	1.250763E+0	1.288594E+0	1.329886E+0	1.280402E+0	1.142297E+0	1.253848E+0	1.333883E+0	1.286284E+0	1.166771E+0	1.262991E+0	1.356657E+0	1.318158E+0	1.251432E+0	1.350217E+0	1.346957E+0	1.338054E+0	1.279554E+0	1.304661E+0	1.304940E+0	1.310660E+0	1.320667E+0	1.317223E+0	1.354858E+0	1.316148E+0	1.348568E+0	1.282011E+0	1.355810E+0	1.350087E+0	1.328762E+0	1.269426E+0	1.306803E+0	1.317685E+0	1.294488E+0	1.284418E+0	1.278684E+0	1.347355E+0	1.133088E+0	1.343818E+0	1.330810E+0	1.317920E+0	1.183108E+0	1.266108E+0	1.305746E+0	1.295313E+0	1.266904E+0	1.117237E+0	1.360371E+0	1.334092E+0	1.243065E+0	1.216151E+0	1.298787E+0	1.314250E+0	1.089593E+0	1.283194E+0	1.297606E+0	1.345783E+0	1.204457E+0	1.300513E+0	1.313246E+0	1.350329E+0	1.255685E+0	1.229277E+0	1.282498E+0	1.307474E+0	1.231778E+0	1.305665E+0	1.340924E+0	1.306117E+0	1.137431E+0	1.317617E+0	1.317566E+0	1.327658E+0	1.198454E+0	1.284463E+0	1.293989E+0	1.312700E+0	1.252836E+0	1.271831E+0	1.348411E+0	1.283732E+0	1.210925E+0	1.313563E+0	1.350731E+0	1.233002E+0	1.141448E+0	1.322830E+0	1.312190E+0	1.265664E+0	1.165625E+0	1.245794E+0	1.334479E+0	1.268456E+0	1.339159E+0	1.346192E+0	1.299830E+0	1.308574E+0	1.277828E+0	1.328566E+0	1.342389E+0	1.243033E+0	1.130724E+0	1.283314E+0	1.359291E+0	1.275908E+0	1.133125E+0	1.300307E+0	1.270365E+0	1.309528E+0	1.287638E+0	1.131118E+0	1.338046E+0	1.290598E+0	1.223828E+0	1.270749E+0	1.306462E+0	1.206765E+0	1.159967E+0	1.301161E+0	1.308520E+0	1.220470E+0	1.237574E+0	1.303928E+0	1.310869E+0	1.301926E+0	1.280166E+0	1.248293E+0	1.255606E+0	1.222618E+0	1.242159E+0	1.297065E+0	1.289941E+0	1.157883E+0	1.155429E+0	1.244316E+0	1.322679E+0	1.223783E+0	1.159295E+0	1.297050E+0	1.309440E+0	1.285856E+0	1.237154E+0	1.295533E+0	1.333498E+0	1.216505E+0	1.208705E+0	1.323970E+0	1.324287E+0	1.163221E+0	1.103810E+0	1.219247E+0	1.242502E+0	1.191450E+0
5.535490E+2	1.202646E+0	1.106122E+0	1.232833E+0	1.223705E+0	1.265700E+0	1.227067E+0	1.232979E+0	1.045176E+0	1.231465E+0	1.236895E+0	1.218170E+0	1.090800E+0	1.195835E+0	1.248961E+0	1.212407E+0	1.200238E+0	1.213885E+0	1.232347E+0	1.236272E+0	1.213870E+0	1.227839E+0	1.224183E+0	1.236068E+0	1.082073E+0	1.237331E+0	1.221881E+0	1.263575E+0	1.114437E+0	1.119126E+0	1.225132E+0	1.226686E+0	1.169687E+0	1.220060E+0	1.302651E+0	1.249341E+0	1.219342E+0	1.257811E+0	1.223680E+0	1.293400E+0	1.185221E+0	1.205702E+0	1.222368E+0	1.205576E+0	1.242306E+0	1.115016E+0	1.255852E+0	1.271097E+0	1.240181E+0	1.154632E+0	1.202595E+0	1.251579E+0	1.245572E+0	1.151470E+0	1.288686E+0	1.187812E+0	1.062518E+0	1.204989E+0	1.194530E+0	1.272572E+0	1.096850E+0	1.187260E+0	1.203476E+0	1.239132E+0	1.218396E+0	1.070267E+0	1.291529E+0	1.281130E+0	1.192539E+0	1.224203E+0	1.266058E+0	1.231136E+0	1.023069E+0	1.223764E+0	1.265887E+0	1.307595E+0	1.127978E+0	1.180654E+0	1.179092E+0	1.251870E+0	1.212863E+0	1.211491E+0	1.238478E+0	1.242838E+0	1.230155E+0	1.230219E+0	1.217795E+0	1.212532E+0	1.085185E+0	1.236963E+0	1.256027E+0	1.237230E+0	1.107171E+0	1.195385E+0	1.248476E+0	1.223284E+0	1.196250E+0	1.192262E+0	1.279279E+0	1.205635E+0	1.197846E+0	1.163468E+0	1.296692E+0	1.277154E+0	1.025518E+0	1.199759E+0	1.231610E+0	1.288183E+0	1.070650E+0	1.128902E+0	1.284170E+0	1.206505E+0	1.251299E+0	1.196499E+0	1.207673E+0	1.228296E+0	1.171643E+0	1.207741E+0	1.209731E+0	1.259539E+0	1.076840E+0	1.221888E+0	1.199058E+0	1.235538E+0	1.126832E+0	1.244297E+0	1.240351E+0	1.228631E+0	1.197024E+0	1.111189E+0	1.234312E+0	1.267964E+0	1.164874E+0	1.186585E+0	1.226007E+0	1.241975E+0	1.104157E+0	1.218575E+0	1.203310E+0	1.238233E+0	1.214050E+0	1.186913E+0	1.250961E+0	1.257038E+0	1.185492E+0	1.173984E+0	1.246071E+0	1.165786E+0	1.223720E+0	1.269014E+0	1.239006E+0	1.194675E+0	1.076575E+0	1.198314E+0	1.250573E+0	1.155770E+0	1.096865E+0	1.216999E+0	1.223990E+0	1.255335E+0	1.200147E+0	1.240858E+0	1.182044E+0	1.199151E+0	1.147391E+0	1.232476E+0	1.269075E+0	1.121809E+0	1.035244E+0	1.214083E+0	1.191426E+0	1.113438E+0
5.542580E+2	1.155773E+0	1.009419E+0	1.161652E+0	1.067111E+0	1.155260E+0	1.126702E+0	1.147849E+0	9.551370E-1	1.124840E+0	1.107863E+0	1.149101E+0	9.777269E-1	1.104954E+0	1.169598E+0	1.172784E+0	1.112193E+0	1.145382E+0	1.152086E+0	1.181401E+0	1.133668E+0	1.116450E+0	1.126380E+0	1.185275E+0	1.020983E+0	1.071626E+0	1.141308E+0	1.136790E+0	1.034124E+0	1.110245E+0	1.166302E+0	1.144234E+0	1.107105E+0	1.140610E+0	1.206459E+0	1.185746E+0	1.150528E+0	1.095129E+0	1.106970E+0	1.183034E+0	1.076578E+0	1.053204E+0	1.124867E+0	1.157034E+0	1.126226E+0	1.080168E+0	1.159307E+0	1.148377E+0	1.082703E+0	1.112698E+0	1.133467E+0	1.134175E+0	1.165481E+0	1.104960E+0	1.142138E+0	1.159470E+0	9.821477E-1	1.123914E+0	1.119658E+0	1.161214E+0	1.027744E+0	1.104110E+0	1.121661E+0	1.146331E+0	1.083663E+0	1.121987E+0	1.119421E+0	1.128860E+0	1.087759E+0	1.121018E+0	1.132935E+0	1.120779E+0	9.620518E-1	1.137857E+0	1.225027E+0	1.166353E+0	1.028553E+0	1.102468E+0	1.111259E+0	1.127961E+0	1.111645E+0	1.083765E+0	1.076689E+0	1.159488E+0	1.127872E+0	1.145402E+0	1.139781E+0	1.118435E+0	9.785348E-1	1.132959E+0	1.062840E+0	1.202497E+0	1.031102E+0	1.016216E+0	1.163885E+0	1.158158E+0	1.092923E+0	1.050745E+0	1.187274E+0	1.107212E+0	1.132987E+0	1.106538E+0	1.140812E+0	1.201394E+0	9.745455E-1	1.072235E+0	1.128468E+0	1.121770E+0	1.025128E+0	1.107650E+0	1.165946E+0	1.144552E+0	1.151035E+0	1.097259E+0	1.145838E+0	1.118776E+0	1.042375E+0	1.088819E+0	1.157503E+0	1.046020E+0	9.681090E-1	1.153441E+0	1.167340E+0	1.189783E+0	1.090648E+0	1.112597E+0	1.129767E+0	1.158121E+0	1.148309E+0	9.926895E-1	1.155474E+0	1.176231E+0	1.058305E+0	1.130996E+0	1.115263E+0	1.140692E+0	1.037691E+0	1.151406E+0	1.155795E+0	1.183328E+0	1.089324E+0	1.101992E+0	1.131701E+0	1.159338E+0	1.050099E+0	1.100809E+0	1.161376E+0	1.091336E+0	1.103576E+0	1.151093E+0	1.169459E+0	1.176994E+0	1.005926E+0	1.149401E+0	1.173316E+0	1.130743E+0	9.964324E-1	1.131478E+0	1.157250E+0	1.175875E+0	1.088180E+0	1.107517E+0	1.135621E+0	1.142885E+0	1.072865E+0	1.154203E+0	1.135515E+0	1.117666E+0	9.884661E-1	1.143853E+0	1.213959E+0	1.038209E+0
5.550140E+2	1.087191E+0	9.198588E-1	1.019814E+0	1.005656E+0	1.065762E+0	1.059615E+0	1.038465E+0	8.817879E-1	1.050093E+0	1.072077E+0	1.078936E+0	9.573042E-1	9.992963E-1	1.050324E+0	1.048380E+0	1.040958E+0	1.081550E+0	1.086157E+0	1.058602E+0	1.036358E+0	1.049786E+0	1.042409E+0	1.042367E+0	9.217635E-1	1.063101E+0	1.091594E+0	1.043118E+0	9.579559E-1	9.717098E-1	1.059170E+0	1.009387E+0	1.063680E+0	1.060634E+0	1.104437E+0	1.054281E+0	1.121498E+0	1.026585E+0	1.061704E+0	1.074486E+0	9.909063E-1	1.048017E+0	1.031955E+0	1.037294E+0	1.051728E+0	9.905608E-1	1.033017E+0	1.066095E+0	1.064808E+0	1.025685E+0	1.087037E+0	9.882142E-1	1.039163E+0	1.007718E+0	1.086475E+0	1.101740E+0	9.336314E-1	1.041727E+0	1.055020E+0	1.059615E+0	9.788142E-1	1.020482E+0	1.051931E+0	1.057042E+0	1.007763E+0	1.015380E+0	1.066423E+0	1.096862E+0	9.920216E-1	1.048033E+0	1.069248E+0	1.062137E+0	8.872705E-1	9.613333E-1	1.026113E+0	1.090500E+0	9.780758E-1	1.004147E+0	1.017801E+0	1.072247E+0	1.038652E+0	1.052507E+0	1.077832E+0	1.020574E+0	1.005025E+0	9.776414E-1	1.036858E+0	1.088427E+0	9.638533E-1	1.032140E+0	1.031802E+0	1.057575E+0	9.545083E-1	9.790580E-1	1.062472E+0	1.038765E+0	1.014691E+0	9.990253E-1	1.111385E+0	1.014672E+0	1.011446E+0	1.056663E+0	1.031696E+0	1.066941E+0	9.010179E-1	1.051074E+0	1.067227E+0	1.021812E+0	9.138553E-1	9.921451E-1	1.069857E+0	1.083070E+0	1.110335E+0	1.008554E+0	1.057842E+0	1.073478E+0	9.812034E-1	1.036492E+0	1.053571E+0	9.847864E-1	8.843968E-1	1.003092E+0	1.056874E+0	1.022377E+0	9.217882E-1	1.066174E+0	1.045512E+0	1.030219E+0	1.061105E+0	9.689900E-1	1.065374E+0	1.028507E+0	9.863148E-1	1.014621E+0	1.086788E+0	1.063525E+0	9.575256E-1	1.074878E+0	1.028525E+0	1.060597E+0	9.892159E-1	1.069405E+0	1.032410E+0	1.083818E+0	1.009380E+0	1.021960E+0	1.097435E+0	1.012340E+0	1.023876E+0	1.069535E+0	1.039182E+0	1.047032E+0	8.878724E-1	1.071955E+0	9.993463E-1	1.082316E+0	9.649456E-1	1.044466E+0	1.025787E+0	1.061048E+0	1.045479E+0	1.061211E+0	1.052060E+0	1.099764E+0	9.734966E-1	1.041554E+0	1.072940E+0	1.034840E+0	8.744029E-1	1.006492E+0	1.075756E+0	1.027065E+0
5.557600E+2	9.687752E-1	8.989790E-1	9.842235E-1	9.483365E-1	1.016730E+0	9.550246E-1	9.820400E-1	8.409403E-1	9.747966E-1	9.702624E-1	9.917772E-1	8.536949E-1	9.428865E-1	1.008553E+0	1.005529E+0	9.945014E-1	9.943658E-1	9.766587E-1	9.990295E-1	9.807516E-1	1.020252E+0	1.015242E+0	9.821062E-1	8.689036E-1	9.741205E-1	1.070450E+0	1.029872E+0	8.916325E-1	9.557246E-1	9.702107E-1	9.698784E-1	9.738479E-1	9.947727E-1	1.003581E+0	1.064434E+0	1.018816E+0	9.801671E-1	9.782628E-1	1.083115E+0	9.885136E-1	9.878476E-1	9.768949E-1	9.844353E-1	9.743420E-1	9.561667E-1	1.036431E+0	1.010143E+0	9.820407E-1	9.449619E-1	1.006043E+0	9.654737E-1	9.526207E-1	9.879858E-1	1.034727E+0	9.705352E-1	8.669828E-1	9.684264E-1	9.833790E-1	1.013120E+0	8.698568E-1	1.006623E+0	1.029153E+0	9.762808E-1	9.655473E-1	9.647159E-1	1.054950E+0	1.055485E+0	9.478769E-1	9.941759E-1	1.029000E+0	1.042744E+0	7.950553E-1	9.831042E-1	9.874043E-1	1.031911E+0	9.270887E-1	9.559231E-1	1.016796E+0	1.014614E+0	9.656579E-1	9.846020E-1	9.806440E-1	9.916567E-1	9.774256E-1	9.804524E-1	1.008191E+0	1.003488E+0	8.628153E-1	9.769559E-1	1.023240E+0	1.018650E+0	9.057188E-1	9.398641E-1	9.788697E-1	1.027394E+0	9.664713E-1	1.006414E+0	1.017302E+0	9.825770E-1	9.547631E-1	9.540913E-1	1.006755E+0	1.008744E+0	8.730506E-1	1.008194E+0	9.667700E-1	1.041584E+0	8.964337E-1	9.099062E-1	9.843325E-1	1.023467E+0	1.000638E+0	9.874856E-1	9.615236E-1	9.759990E-1	9.840890E-1	1.020794E+0	9.778405E-1	9.560333E-1	8.454273E-1	1.010697E+0	1.000547E+0	1.022377E+0	8.819331E-1	1.000072E+0	9.617844E-1	9.974227E-1	9.719533E-1	8.704207E-1	9.598614E-1	9.885973E-1	9.534371E-1	9.928010E-1	9.814674E-1	1.013848E+0	8.834494E-1	9.895389E-1	1.008162E+0	1.018071E+0	9.552989E-1	1.019044E+0	1.026863E+0	1.001434E+0	1.011925E+0	9.947325E-1	9.992790E-1	9.969961E-1	9.340653E-1	1.049796E+0	1.001469E+0	1.026007E+0	8.587010E-1	1.006156E+0	1.035971E+0	9.952584E-1	9.481165E-1	9.967326E-1	1.004550E+0	1.003392E+0	9.415757E-1	1.050611E+0	1.019564E+0	1.023514E+0	9.586967E-1	9.738589E-1	1.010366E+0	1.035301E+0	8.814515E-1	9.631147E-1	9.796125E-1	1.001991E+0
5.560190E+2	1.001833E+0	8.841441E-1	9.538671E-1	9.607464E-1	1.021014E+0	9.555529E-1	1.004809E+0	9.301017E-1	9.616056E-1	9.732866E-1	1.007126E+0	9.677646E-1	9.545270E-1	1.015515E+0	1.018431E+0	1.009545E+0	9.798347E-1	1.004750E+0	1.088387E+0	9.727319E-1	9.953597E-1	9.752320E-1	1.032039E+0	8.697704E-1	1.008753E+0	9.984488E-1	9.868208E-1	8.911138E-1	9.712657E-1	9.974721E-1	9.836183E-1	9.964116E-1	9.728192E-1	1.042058E+0	1.027560E+0	1.004839E+0	1.028755E+0	9.869891E-1	9.895536E-1	9.392170E-1	9.722867E-1	9.969687E-1	9.720300E-1	1.022853E+0	9.941814E-1	9.842575E-1	1.011083E+0	9.954635E-1	9.779848E-1	1.006043E+0	9.855699E-1	1.017124E+0	9.442982E-1	9.951536E-1	1.039811E+0	8.782543E-1	1.001746E+0	1.001693E+0	9.981957E-1	9.228225E-1	9.846396E-1	9.994024E-1	9.787887E-1	9.484805E-1	9.826597E-1	1.035826E+0	9.914884E-1	9.420259E-1	1.004746E+0	1.011751E+0	1.034433E+0	8.060658E-1	1.015467E+0	1.011060E+0	1.027726E+0	8.893575E-1	9.311093E-1	1.037900E+0	1.005489E+0	9.559258E-1	9.948420E-1	1.030953E+0	9.944917E-1	9.433313E-1	1.014192E+0	9.574347E-1	1.009082E+0	9.003801E-1	9.281387E-1	9.756128E-1	1.009667E+0	9.104408E-1	9.714226E-1	9.937109E-1	1.018607E+0	9.846771E-1	9.751555E-1	1.038614E+0	9.526224E-1	9.324168E-1	9.536213E-1	1.027539E+0	1.001218E+0	8.649307E-1	9.692129E-1	9.764396E-1	1.008631E+0	9.132934E-1	9.759748E-1	1.021561E+0	9.948373E-1	9.931927E-1	1.008553E+0	1.007305E+0	1.001229E+0	9.125298E-1	1.004146E+0	1.002910E+0	9.799944E-1	8.661145E-1	9.779361E-1	9.655473E-1	9.610132E-1	9.039580E-1	1.020256E+0	1.043406E+0	9.668136E-1	9.714658E-1	8.618024E-1	1.019731E+0	1.054121E+0	9.347306E-1	1.006828E+0	9.715230E-1	1.023494E+0	8.641690E-1	9.790791E-1	9.923231E-1	1.012150E+0	9.049712E-1	9.356030E-1	1.011886E+0	1.003546E+0	9.844388E-1	9.896275E-1	9.869393E-1	9.822196E-1	9.935426E-1	1.016549E+0	1.023999E+0	1.030307E+0	8.687286E-1	9.467613E-1	1.018804E+0	9.854645E-1	9.236875E-1	9.335859E-1	9.762362E-1	1.037307E+0	9.206998E-1	1.006536E+0	1.032330E+0	9.961687E-1	9.634537E-1	1.029918E+0	9.730323E-1	1.017813E+0	8.494112E-1	1.024049E+0	1.020172E+0	1.077216E+0
5.565090E+2	9.865377E-1	9.028258E-1	1.020861E+0	9.767010E-1	9.991157E-1	9.402342E-1	1.006788E+0	1.034196E+0	9.885364E-1	9.737902E-1	1.049883E+0	1.025048E+0	9.482592E-1	9.737447E-1	9.963143E-1	9.949425E-1	1.060792E+0	9.743658E-1	9.922359E-1	9.743356E-1	9.666692E-1	9.722684E-1	1.001907E+0	9.980194E-1	1.018344E+0	1.043592E+0	1.005745E+0	1.003035E+0	9.335232E-1	9.941241E-1	1.000368E+0	1.005777E+0	9.534787E-1	1.009994E+0	1.012597E+0	9.854845E-1	9.762641E-1	9.679010E-1	1.025888E+0	1.046903E+0	9.852541E-1	9.424823E-1	9.375103E-1	1.032670E+0	9.303703E-1	1.028629E+0	9.621837E-1	9.654877E-1	9.491552E-1	1.016877E+0	1.014128E+0	1.024112E+0	9.978528E-1	1.031684E+0	1.075499E+0	9.047175E-1	9.800881E-1	1.029164E+0	1.001066E+0	9.450172E-1	9.793832E-1	1.006841E+0	9.732708E-1	1.012704E+0	9.478277E-1	9.806425E-1	9.776956E-1	9.489401E-1	9.901486E-1	9.635440E-1	1.006267E+0	8.661661E-1	9.825159E-1	1.017511E+0	1.010462E+0	9.148516E-1	9.278316E-1	9.655454E-1	1.029982E+0	9.398679E-1	9.824461E-1	9.909346E-1	1.006399E+0	9.238490E-1	1.002008E+0	1.022290E+0	1.023833E+0	8.762005E-1	9.955277E-1	9.542071E-1	9.348105E-1	8.805382E-1	9.719321E-1	1.017456E+0	9.664042E-1	9.645034E-1	9.319612E-1	1.006386E+0	1.024300E+0	9.089806E-1	9.856160E-1	1.001558E+0	9.565671E-1	8.595179E-1	1.009865E+0	1.002763E+0	9.657916E-1	8.767643E-1	9.561077E-1	9.727616E-1	1.037076E+0	1.034391E+0	9.520036E-1	1.009088E+0	9.817333E-1	8.882916E-1	9.784580E-1	1.004477E+0	1.005553E+0	8.016461E-1	1.003092E+0	1.033359E+0	1.001384E+0	9.092023E-1	9.556679E-1	9.591515E-1	9.236327E-1	9.890041E-1	8.537235E-1	1.010839E+0	1.010637E+0	9.403992E-1	9.891642E-1	9.837274E-1	9.974506E-1	9.306347E-1	1.017618E+0	9.210518E-1	9.922334E-1	9.005945E-1	9.627584E-1	9.863703E-1	1.014636E+0	9.304856E-1	9.680714E-1	9.998394E-1	9.344816E-1	9.257378E-1	9.962895E-1	9.897155E-1	9.982936E-1	8.564219E-1	9.956742E-1	9.867562E-1	9.909057E-1	8.693997E-1	9.773407E-1	1.018708E+0	1.017927E+0	9.662464E-1	9.708287E-1	1.011440E+0	9.604101E-1	9.264547E-1	9.849651E-1	9.714550E-1	1.014133E+0	8.180124E-1	9.662128E-1	1.036696E+0	8.961175E-1
5.570160E+2	1.001339E+0	8.610671E-1	1.006729E+0	9.767012E-1	9.986401E-1	9.735122E-1	9.666968E-1	9.740237E-1	9.533611E-1	9.753024E-1	1.004385E+0	9.737420E-1	9.594515E-1	9.658542E-1	9.741983E-1	9.838824E-1	9.907330E-1	1.000164E+0	9.880556E-1	1.022456E+0	9.464150E-1	9.658472E-1	1.001476E+0	9.858875E-1	9.762518E-1	9.778770E-1	9.962825E-1	1.008216E+0	9.677130E-1	9.553843E-1	9.690185E-1	9.798073E-1	9.587059E-1	9.773470E-1	9.848077E-1	1.048922E+0	9.602127E-1	9.728092E-1	9.959124E-1	1.025366E+0	9.722869E-1	9.665709E-1	1.004392E+0	1.010147E+0	9.403275E-1	9.784060E-1	9.983879E-1	9.592245E-1	9.669770E-1	1.002432E+0	9.776374E-1	1.005298E+0	1.009126E+0	1.034727E+0	9.957261E-1	9.600948E-1	9.478796E-1	9.752987E-1	9.735133E-1	9.752830E-1	9.832059E-1	1.004980E+0	9.522023E-1	9.974339E-1	9.341055E-1	9.713537E-1	9.925914E-1	9.952133E-1	9.725317E-1	9.675243E-1	9.720976E-1	9.721447E-1	9.683940E-1	1.003533E+0	1.052312E+0	1.004079E+0	9.292366E-1	9.610231E-1	9.608231E-1	9.724715E-1	9.549610E-1	9.600633E-1	9.582045E-1	9.687661E-1	9.645198E-1	1.041557E+0	9.744960E-1	9.565113E-1	9.748334E-1	9.386882E-1	1.023441E+0	9.938541E-1	9.515715E-1	9.630395E-1	1.018090E+0	9.841847E-1	9.495798E-1	1.023019E+0	9.804377E-1	9.416822E-1	9.658544E-1	9.968820E-1	1.019781E+0	9.064315E-1	9.848051E-1	1.011895E+0	1.013574E+0	8.823844E-1	9.122164E-1	9.843329E-1	9.765336E-1	9.698636E-1	9.475686E-1	1.000764E+0	9.811595E-1	9.408065E-1	9.865446E-1	9.538159E-1	9.592281E-1	8.329185E-1	1.016547E+0	9.792193E-1	9.825441E-1	9.086780E-1	1.006127E+0	9.896939E-1	1.015461E+0	9.232368E-1	8.284072E-1	1.025658E+0	1.005872E+0	9.239603E-1	9.673438E-1	9.905078E-1	9.988973E-1	9.012072E-1	9.713705E-1	1.013252E+0	9.776991E-1	9.055185E-1	1.000283E+0	9.996833E-1	9.908712E-1	9.880026E-1	9.816861E-1	9.544074E-1	1.035073E+0	9.751043E-1	9.859003E-1	1.020081E+0	1.067576E+0	8.855935E-1	9.554958E-1	1.054856E+0	9.941701E-1	8.938292E-1	9.962351E-1	9.838201E-1	1.031977E+0	1.000407E+0	9.803141E-1	1.002155E+0	9.846002E-1	9.576398E-1	9.611659E-1	1.035606E+0	9.561543E-1	8.096816E-1	9.858357E-1	1.045711E+0	9.128316E-1
5.575530E+2	1.043772E+0	9.368915E-1	1.000448E+0	1.041111E+0	1.045768E+0	1.008904E+0	1.053313E+0	1.024533E+0	9.857886E-1	1.061996E+0	1.032890E+0	1.014588E+0	9.898948E-1	9.988063E-1	1.011058E+0	1.094053E+0	1.003188E+0	1.000737E+0	1.060169E+0	1.036358E+0	1.007594E+0	1.027097E+0	1.065183E+0	1.034846E+0	1.048182E+0	9.824485E-1	1.070083E+0	1.040860E+0	9.748177E-1	1.031908E+0	1.031717E+0	1.049204E+0	1.030840E+0	1.047305E+0	1.024888E+0	1.064512E+0	9.879758E-1	1.031164E+0	1.046781E+0	1.042118E+0	1.011708E+0	9.700121E-1	1.018416E+0	1.003795E+0	9.539032E-1	9.818194E-1	1.042115E+0	1.010673E+0	9.952825E-1	1.016361E+0	1.000377E+0	1.047763E+0	9.626189E-1	1.046034E+0	1.040861E+0	9.934194E-1	1.029510E+0	1.024855E+0	1.038951E+0	1.015637E+0	1.046764E+0	1.052397E+0	9.963453E-1	1.028421E+0	1.029630E+0	9.981264E-1	1.041141E+0	1.001596E+0	1.008269E+0	1.004233E+0	1.026122E+0	1.025823E+0	1.039003E+0	1.055681E+0	1.065390E+0	1.045378E+0	9.521774E-1	1.049456E+0	1.035746E+0	1.037679E+0	1.025561E+0	1.025808E+0	1.018306E+0	1.065096E+0	1.053086E+0	1.046727E+0	1.036039E+0	9.979654E-1	1.021528E+0	1.040365E+0	1.025836E+0	9.812636E-1	9.831299E-1	1.056536E+0	1.005169E+0	9.974696E-1	1.007551E+0	1.060445E+0	1.034464E+0	9.956401E-1	1.049135E+0	1.022862E+0	1.044866E+0	1.036795E+0	1.043834E+0	1.025863E+0	1.041584E+0	9.863517E-1	9.755126E-1	1.072372E+0	1.022058E+0	1.054742E+0	9.830510E-1	9.977913E-1	1.033913E+0	1.045838E+0	9.846416E-1	1.007088E+0	1.050280E+0	9.887972E-1	1.012452E+0	1.071093E+0	1.028837E+0	9.684609E-1	1.027825E+0	1.063416E+0	1.038964E+0	9.890041E-1	8.989681E-1	1.053518E+0	1.039228E+0	9.721428E-1	1.040078E+0	1.022602E+0	1.026388E+0	9.301272E-1	1.056158E+0	1.025131E+0	9.803909E-1	9.996093E-1	1.021019E+0	1.025199E+0	1.025726E+0	9.986909E-1	9.856565E-1	1.025641E+0	1.003816E+0	9.881896E-1	1.039925E+0	1.003429E+0	1.029829E+0	9.375551E-1	1.033523E+0	1.047416E+0	1.017022E+0	9.388884E-1	1.015626E+0	1.047529E+0	1.076067E+0	1.021282E+0	9.970511E-1	1.046837E+0	1.048756E+0	1.014724E+0	1.021457E+0	1.027193E+0	1.038060E+0	8.987535E-1	1.005458E+0	9.826164E-1	1.010348E+0
5.580170E+2	1.027983E+0	8.967819E-1	1.008299E+0	1.023974E+0	1.023870E+0	9.909447E-1	1.017677E+0	1.022776E+0	9.720487E-1	9.652216E-1	1.000548E+0	1.026045E+0	9.339329E-1	1.035008E+0	1.032252E+0	1.031667E+0	9.523300E-1	1.042587E+0	1.030383E+0	9.882368E-1	9.645595E-1	9.702923E-1	9.976022E-1	9.819884E-1	9.623988E-1	1.007021E+0	1.004326E+0	1.002517E+0	9.792580E-1	1.036690E+0	9.926378E-1	1.022807E+0	9.529557E-1	1.012909E+0	1.010994E+0	9.645186E-1	1.015308E+0	1.009349E+0	1.016805E+0	9.999996E-1	9.629504E-1	9.734536E-1	1.029743E+0	9.951330E-1	9.548090E-1	1.013026E+0	9.969774E-1	1.025883E+0	9.612110E-1	9.601294E-1	1.001965E+0	1.018737E+0	9.875174E-1	1.003852E+0	1.034039E+0	1.005671E+0	1.004522E+0	1.052865E+0	1.003936E+0	1.004035E+0	9.621797E-1	9.952180E-1	9.923324E-1	1.037405E+0	9.979642E-1	1.007415E+0	1.003074E+0	9.957451E-1	9.523977E-1	1.028117E+0	1.000725E+0	9.937078E-1	9.778084E-1	1.017511E+0	1.049173E+0	1.035181E+0	9.414092E-1	9.911707E-1	1.012212E+0	1.008481E+0	9.786737E-1	1.010372E+0	9.650081E-1	1.010437E+0	1.009507E+0	1.000671E+0	1.012134E+0	1.024734E+0	9.939360E-1	1.041435E+0	9.988881E-1	1.034774E+0	9.851664E-1	9.912367E-1	1.026877E+0	9.871370E-1	9.501482E-1	1.004827E+0	1.051581E+0	1.040332E+0	1.001143E+0	9.719415E-1	1.027307E+0	9.998072E-1	1.009865E+0	9.952422E-1	9.916051E-1	9.981533E-1	9.639622E-1	1.058789E+0	1.009856E+0	9.599364E-1	1.012435E+0	9.882782E-1	1.000082E+0	9.887057E-1	9.760794E-1	9.825412E-1	9.970331E-1	1.018626E+0	9.896369E-1	1.044296E+0	9.836212E-1	1.040829E+0	1.006127E+0	1.063943E+0	1.004528E+0	1.012875E+0	9.576794E-1	1.025658E+0	1.015998E+0	1.053204E+0	1.004230E+0	9.891513E-1	1.009508E+0	1.008770E+0	9.966965E-1	9.889293E-1	1.043910E+0	1.026414E+0	9.622645E-1	1.031301E+0	1.009355E+0	9.905470E-1	9.901945E-1	1.017788E+0	9.907449E-1	9.661830E-1	9.890170E-1	1.011754E+0	9.944713E-1	9.913387E-1	9.968386E-1	1.037688E+0	1.057287E+0	1.068092E+0	1.008666E+0	9.974722E-1	1.027132E+0	1.027924E+0	1.019925E+0	9.766222E-1	1.018255E+0	1.000453E+0	1.023572E+0	9.782908E-1	1.009992E+0	9.935923E-1	9.693110E-1	9.781104E-1	1.013134E+0
5.585160E+2	1.021075E+0	8.967820E-1	9.758495E-1	1.042294E+0	9.938795E-1	1.033732E+0	9.810507E-1	9.885177E-1	1.007223E+0	1.003529E+0	9.775256E-1	1.013592E+0	9.661668E-1	1.021548E+0	1.020734E+0	9.914032E-1	9.808726E-1	9.674859E-1	9.922363E-1	9.973267E-1	1.005907E+0	1.001905E+0	1.016971E+0	1.040047E+0	9.538733E-1	9.858775E-1	9.872944E-1	9.584742E-1	9.348553E-1	9.859926E-1	9.947860E-1	9.870460E-1	1.014636E+0	9.936697E-1	9.981676E-1	1.010752E+0	1.029190E+0	9.837168E-1	1.024527E+0	9.832489E-1	9.883665E-1	9.797619E-1	1.035676E+0	9.951322E-1	9.566188E-1	9.905958E-1	1.028010E+0	9.932254E-1	9.517761E-1	1.023067E+0	1.014657E+0	1.006373E+0	9.640291E-1	9.908060E-1	1.017769E+0	9.787170E-1	1.014518E+0	1.006002E+0	1.040098E+0	9.909202E-1	1.017135E+0	1.022181E+0	1.023433E+0	9.844096E-1	9.984920E-1	1.013425E+0	9.914881E-1	9.968089E-1	9.544111E-1	1.000253E+0	9.942613E-1	9.758153E-1	9.825157E-1	1.014823E+0	1.013078E+0	9.887827E-1	9.709054E-1	9.982058E-1	1.014134E+0	1.007994E+0	9.802905E-1	1.028095E+0	9.961927E-1	9.925783E-1	9.546791E-1	1.007721E+0	9.922979E-1	1.010919E+0	9.880987E-1	1.001300E+0	1.033022E+0	1.020085E+0	9.042337E-1	1.011519E+0	1.009304E+0	1.004850E+0	9.694718E-1	9.965100E-1	9.825772E-1	1.039787E+0	9.931438E-1	1.047803E+0	1.038344E+0	1.006573E+0	1.000398E+0	9.893327E-1	1.021812E+0	1.018947E+0	9.020522E-1	1.047218E+0	1.026752E+0	1.025456E+0	9.963563E-1	1.004332E+0	9.811598E-1	1.030833E+0	9.765554E-1	1.034246E+0	9.922410E-1	1.012853E+0	9.867114E-1	1.012031E+0	9.992306E-1	1.005169E+0	1.001586E+0	1.009178E+0	1.068480E+0	1.015798E+0	9.991534E-1	9.806080E-1	1.026720E+0	9.817793E-1	1.007867E+0	1.073227E+0	9.868403E-1	9.438262E-1	9.845839E-1	9.866668E-1	1.041756E+0	1.035714E+0	9.844828E-1	1.016324E+0	9.866462E-1	1.008363E+0	9.726101E-1	1.035176E+0	1.045303E+0	1.029824E+0	1.032653E+0	1.014693E+0	9.935154E-1	9.799446E-1	1.030612E+0	9.936230E-1	9.903617E-1	9.660314E-1	1.005683E+0	1.004550E+0	1.047966E+0	9.757352E-1	9.903567E-1	1.031750E+0	1.009315E+0	9.666258E-1	1.011938E+0	1.015099E+0	1.019195E+0	9.801350E-1	9.961637E-1	1.006653E+0	9.713428E-1
5.590100E+2	1.018608E+0	9.813973E-1	1.027142E+0	9.849735E-1	1.019586E+0	9.793232E-1	9.924341E-1	9.977413E-1	9.769949E-1	9.974797E-1	1.007126E+0	1.017577E+0	9.795980E-1	9.918447E-1	1.015666E+0	9.834396E-1	9.974795E-1	1.033988E+0	9.906683E-1	1.029407E+0	9.789041E-1	1.015735E+0	1.011375E+0	1.020983E+0	9.959653E-1	1.040736E+0	1.019464E+0	1.050705E+0	9.916906E-1	1.000820E+0	9.831895E-1	1.023234E+0	9.942499E-1	9.983347E-1	1.008856E+0	9.618301E-1	9.801693E-1	1.018620E+0	1.007721E+0	1.041639E+0	9.738430E-1	1.003277E+0	1.003852E+0	1.017078E+0	9.425897E-1	1.027166E+0	1.015315E+0	1.026779E+0	9.559695E-1	9.879874E-1	1.051675E+0	9.961604E-1	9.879865E-1	1.002547E+0	9.962513E-1	1.011061E+0	9.956368E-1	1.000077E+0	9.717917E-1	9.737696E-1	9.779495E-1	1.014278E+0	9.732705E-1	9.884508E-1	9.879371E-1	9.888382E-1	1.008591E+0	1.001064E+0	1.050550E+0	1.018386E+0	1.011808E+0	1.050598E+0	9.866348E-1	1.005146E+0	1.034003E+0	1.000510E+0	9.540503E-1	9.966981E-1	9.910807E-1	1.012861E+0	9.910687E-1	1.040100E+0	9.706782E-1	9.828371E-1	9.945106E-1	9.903322E-1	1.020273E+0	9.578077E-1	9.833230E-1	9.916673E-1	1.012062E+0	1.023233E+0	9.693867E-1	1.002120E+0	9.968986E-1	9.891052E-1	9.694715E-1	1.002747E+0	9.799030E-1	1.001090E+0	9.823222E-1	9.906471E-1	1.005232E+0	9.975515E-1	9.909308E-1	9.914815E-1	1.019066E+0	9.970295E-1	9.487158E-1	9.516324E-1	9.802885E-1	9.941855E-1	9.436877E-1	1.015034E+0	1.023018E+0	9.944764E-1	9.989124E-1	9.924641E-1	1.038566E+0	9.767691E-1	1.010697E+0	9.825003E-1	1.009458E+0	1.031914E+0	9.723195E-1	1.004438E+0	1.000157E+0	9.685427E-1	1.006156E+0	1.009061E+0	1.035655E+0	1.000486E+0	1.021894E+0	1.002260E+0	1.006614E+0	1.018410E+0	9.884383E-1	9.702632E-1	9.873888E-1	9.563931E-1	9.844825E-1	1.018543E+0	1.040513E+0	1.016506E+0	9.731770E-1	1.012179E+0	9.776731E-1	9.983006E-1	9.890168E-1	1.009306E+0	9.882592E-1	9.977209E-1	1.016055E+0	9.913342E-1	9.909055E-1	1.005118E+0	9.668994E-1	1.020225E+0	9.723831E-1	1.006575E+0	9.836615E-1	1.039874E+0	1.009841E+0	1.023181E+0	9.992446E-1	1.022986E+0	1.027938E+0	1.040371E+0	9.940978E-1	9.991421E-1	1.010350E+0
5.595110E+2	1.007260E+0	1.080848E+0	9.967851E-1	1.006247E+0	1.018158E+0	1.025808E+0	1.022131E+0	1.021899E+0	1.041299E+0	1.001512E+0	1.008771E+0	9.817113E-1	1.053020E+0	9.858113E-1	1.014743E+0	1.012199E+0	1.027060E+0	1.015642E+0	1.015751E+0	1.020852E+0	1.005486E+0	1.008327E+0	1.004059E+0	9.772222E-1	1.022074E+0	9.784485E-1	1.002907E+0	1.041896E+0	9.823662E-1	1.000342E+0	1.039448E+0	1.020254E+0	1.016726E+0	9.849257E-1	1.014200E+0	9.892479E-1	1.028323E+0	1.013167E+0	1.001362E+0	1.015794E+0	1.011708E+0	9.608356E-1	1.013561E+0	9.870477E-1	9.882981E-1	1.000836E+0	9.965073E-1	9.815936E-1	9.858472E-1	9.936619E-1	9.760508E-1	9.940103E-1	1.011007E+0	9.851529E-1	9.763077E-1	1.018903E+0	1.026179E+0	9.909200E-1	1.059041E+0	1.059018E+0	1.010445E+0	9.970779E-1	1.013902E+0	1.010457E+0	9.868816E-1	9.915702E-1	9.936946E-1	1.019147E+0	1.027900E+0	1.029001E+0	1.004419E+0	9.900383E-1	9.778087E-1	9.890173E-1	9.707054E-1	1.017846E+0	9.418772E-1	1.022826E+0	1.039108E+0	9.958293E-1	9.619669E-1	9.903629E-1	9.995958E-1	1.043449E+0	1.032936E+0	9.743536E-1	1.017220E+0	9.996916E-1	9.827931E-1	9.756128E-1	1.000684E+0	9.812642E-1	9.052517E-1	9.932153E-1	9.943144E-1	1.023547E+0	1.001867E+0	1.056806E+0	9.948802E-1	9.498577E-1	9.992605E-1	9.896079E-1	1.019280E+0	9.772523E-1	9.964995E-1	1.022102E+0	1.032247E+0	1.003773E+0	9.616522E-1	9.959036E-1	1.047871E+0	9.907109E-1	9.824965E-1	9.864949E-1	1.041367E+0	9.523488E-1	1.010805E+0	1.029024E+0	1.014605E+0	1.018626E+0	1.004263E+0	1.007109E+0	1.027222E+0	9.967785E-1	9.803927E-1	9.770557E-1	9.815717E-1	1.018234E+0	1.000231E+0	1.046405E+0	9.701321E-1	1.005587E+0	1.002672E+0	1.026669E+0	9.906987E-1	1.034139E+0	9.587074E-1	1.028525E+0	9.890034E-1	1.027509E+0	9.657208E-1	1.009668E+0	1.022030E+0	1.071986E+0	9.918965E-1	1.025641E+0	1.018024E+0	1.028039E+0	9.827829E-1	1.022529E+0	1.004983E+0	1.042390E+0	1.002662E+0	1.034827E+0	1.011582E+0	1.021948E+0	9.748550E-1	1.036910E+0	9.738365E-1	1.012742E+0	9.552075E-1	9.928708E-1	1.025617E+0	1.013667E+0	9.854942E-1	9.935392E-1	1.008151E+0	1.030118E+0	9.982300E-1	9.736040E-1	1.052141E+0
5.600240E+2	9.638410E-1	1.064914E+0	1.014057E+0	9.678370E-1	9.729334E-1	1.004678E+0	1.013717E+0	9.893963E-1	1.019315E+0	1.035282E+0	1.002192E+0	1.025049E+0	1.040485E+0	9.964857E-1	9.884815E-1	9.582206E-1	1.007859E+0	9.858318E-1	9.843981E-1	1.008020E+0	1.016454E+0	1.007832E+0	1.006211E+0	9.949865E-1	1.048182E+0	1.024163E+0	1.010002E+0	9.475925E-1	1.060514E+0	1.002733E+0	1.008957E+0	9.883219E-1	1.009409E+0	9.960025E-1	9.896174E-1	1.021504E+0	9.836385E-1	1.007713E+0	9.759270E-1	9.861205E-1	1.032455E+0	9.963947E-1	1.007088E+0	1.017655E+0	1.048488E+0	9.735305E-1	9.593622E-1	1.011121E+0	1.030402E+0	9.952099E-1	9.681183E-1	9.902483E-1	1.010067E+0	1.009505E+0	9.721093E-1	9.963598E-1	1.027845E+0	1.010850E+0	1.008528E+0	9.813366E-1	1.042463E+0	9.975436E-1	9.933358E-1	9.965366E-1	1.019603E+0	1.016703E+0	1.021280E+0	1.026594E+0	1.034947E+0	9.914070E-1	9.771768E-1	9.643458E-1	1.043122E+0	9.594482E-1	9.492573E-1	1.014786E+0	1.061265E+0	9.740873E-1	9.809948E-1	1.000209E+0	1.058975E+0	9.915063E-1	1.012069E+0	1.016931E+0	9.977908E-1	1.023229E+0	1.013660E+0	9.893286E-1	1.006140E+0	1.025916E+0	1.015656E+0	1.016413E+0	1.050319E+0	1.021413E+0	9.477971E-1	1.022071E+0	9.973209E-1	1.026138E+0	1.018416E+0	1.027251E+0	9.837337E-1	9.864907E-1	9.816521E-1	9.758995E-1	1.008751E+0	1.017804E+0	9.515116E-1	9.885998E-1	9.819811E-1	9.787986E-1	9.924907E-1	1.001631E+0	9.935846E-1	9.924405E-1	9.702653E-1	9.979390E-1	1.019843E+0	1.004476E+0	1.027916E+0	9.989004E-1	9.890517E-1	9.863286E-1	1.003537E+0	9.763267E-1	9.849339E-1	9.923268E-1	9.629876E-1	9.709788E-1	9.856881E-1	9.640106E-1	9.683450E-1	1.015224E+0	9.964375E-1	9.819191E-1	1.018189E+0	9.925345E-1	9.686177E-1	9.974144E-1	9.803908E-1	1.012738E+0	9.775702E-1	9.769402E-1	9.591847E-1	9.513549E-1	1.002675E+0	9.830130E-1	9.998379E-1	1.003059E+0	9.931727E-1	9.740425E-1	1.042730E+0	9.972665E-1	9.904334E-1	9.604317E-1	9.522742E-1	9.638600E-1	9.594415E-1	1.021742E+0	9.917632E-1	1.007049E+0	9.858929E-1	9.812652E-1	9.877551E-1	9.872393E-1	9.881378E-1	1.041917E+0	9.621360E-1	9.903876E-1	1.080853E+0	1.026181E+0	1.001990E+0
5.605150E+2	9.865374E-1	1.025903E+0	9.894570E-1	9.908827E-1	9.891190E-1	9.914733E-1	9.820404E-1	9.981798E-1	9.676514E-1	1.005544E+0	9.654656E-1	9.827079E-1	9.809409E-1	9.742084E-1	9.732768E-1	1.037418E+0	1.023427E+0	9.789524E-1	1.006345E+0	9.893068E-1	9.911390E-1	1.027591E+0	9.902846E-1	9.988859E-1	9.922366E-1	9.830198E-1	9.995944E-1	9.994076E-1	1.038312E+0	9.792974E-1	9.917784E-1	9.789557E-1	1.008364E+0	1.008828E+0	9.816012E-1	1.060211E+0	9.871086E-1	9.891706E-1	9.963666E-1	9.655402E-1	1.009114E+0	9.734535E-1	9.369708E-1	9.841596E-1	1.034912E+0	9.964474E-1	1.003560E+0	9.851728E-1	1.040885E+0	1.026679E+0	1.017301E+0	1.000998E+0	1.060331E+0	9.786293E-1	9.873295E-1	1.014982E+0	9.967471E-1	9.682963E-1	9.310368E-1	1.001513E+0	9.760379E-1	9.933592E-1	1.011394E+0	9.857571E-1	1.015908E+0	9.735404E-1	9.721786E-1	9.547909E-1	9.976993E-1	9.692934E-1	1.005343E+0	1.008389E+0	1.011936E+0	1.030413E+0	9.879683E-1	9.576809E-1	1.054245E+0	9.946883E-1	9.713893E-1	9.734443E-1	1.016938E+0	9.846460E-1	1.014337E+0	9.785078E-1	1.006694E+0	1.012420E+0	9.770391E-1	1.023440E+0	1.042222E+0	9.847106E-1	9.797248E-1	9.508359E-1	1.076278E+0	1.011519E+0	1.019124E+0	9.895972E-1	1.087119E+0	9.736391E-1	9.873910E-1	9.378667E-1	1.037842E+0	9.984410E-1	9.736252E-1	1.023714E+0	9.708832E-1	9.807377E-1	1.037190E+0	9.947818E-1	1.106265E+0	9.657186E-1	9.755949E-1	1.012551E+0	1.040710E+0	9.900628E-1	9.983620E-1	1.005441E+0	1.020794E+0	9.694845E-1	9.597608E-1	9.921645E-1	1.028833E+0	1.001641E+0	9.916948E-1	9.726559E-1	1.040440E+0	9.881143E-1	9.580688E-1	1.011901E+0	9.959217E-1	9.788293E-1	9.921710E-1	9.698760E-1	9.652659E-1	9.719749E-1	9.960036E-1	1.020440E+0	1.048450E+0	1.021737E+0	9.599355E-1	9.624102E-1	1.030400E+0	9.658468E-1	9.512637E-1	9.706966E-1	9.981361E-1	9.471163E-1	9.844929E-1	9.596400E-1	1.003562E+0	1.003428E+0	9.724915E-1	9.840469E-1	9.467616E-1	9.804612E-1	1.030626E+0	9.725462E-1	9.534747E-1	9.388195E-1	9.854651E-1	9.776334E-1	9.897982E-1	9.568930E-1	9.793411E-1	1.003096E+0	9.817917E-1	1.009841E+0	9.607557E-1	9.557847E-1	9.796395E-1	1.011159E+0	9.601970E-1
5.610010E+2	9.746958E-1	1.053375E+0	9.884108E-1	9.837918E-1	9.824544E-1	9.740410E-1	9.909494E-1	9.814899E-1	1.015468E+0	9.914316E-1	1.038371E+0	9.533191E-1	1.045857E+0	9.950936E-1	9.548465E-1	9.856522E-1	1.010972E+0	9.755122E-1	9.802175E-1	9.668502E-1	1.037550E+0	9.683170E-1	9.734971E-1	9.858873E-1	1.025271E+0	9.807348E-1	9.764128E-1	9.994080E-1	1.013004E+0	9.941243E-1	9.892027E-1	9.793813E-1	1.003659E+0	1.005330E+0	9.965644E-1	9.919360E-1	9.762632E-1	9.782632E-1	9.772906E-1	1.007658E+0	1.021563E+0	1.112823E+0	9.731085E-1	1.003795E+0	1.074284E+0	9.983977E-1	1.000269E+0	9.762248E-1	1.073909E+0	1.013265E+0	9.702337E-1	9.934728E-1	9.790614E-1	1.029509E+0	1.016195E+0	9.743065E-1	9.345528E-1	9.709898E-1	9.855679E-1	9.894068E-1	1.013790E+0	9.803428E-1	9.923323E-1	9.969837E-1	9.932142E-1	1.008508E+0	1.009694E+0	1.005851E+0	9.820950E-1	9.635435E-1	1.006267E+0	1.017106E+0	1.020174E+0	9.836417E-1	9.958147E-1	9.852136E-1	1.076248E+0	1.022323E+0	9.910804E-1	1.001182E+0	1.012087E+0	9.549180E-1	1.042120E+0	9.752602E-1	1.003882E+0	9.912721E-1	9.673755E-1	9.940784E-1	1.003487E+0	9.793585E-1	9.599624E-1	9.733948E-1	1.109364E+0	9.689761E-1	1.005685E+0	9.836927E-1	1.024601E+0	9.393323E-1	9.852517E-1	1.003815E+0	1.002554E+0	1.015069E+0	9.545605E-1	1.019202E+0	1.022673E+0	1.003300E+0	9.465690E-1	9.987151E-1	1.135372E+0	1.001940E+0	9.671470E-1	1.015529E+0	1.030730E+0	1.023358E+0	9.857467E-1	1.030256E+0	9.970101E-1	9.877640E-1	9.698780E-1	9.820617E-1	9.908072E-1	9.660942E-1	9.852356E-1	9.763267E-1	1.014201E+0	9.649440E-1	1.024207E+0	1.001670E+0	1.055171E+0	9.954274E-1	9.909795E-1	9.738436E-1	1.001633E+0	9.547987E-1	9.921457E-1	9.818798E-1	1.054506E+0	1.006464E+0	9.976159E-1	9.788215E-1	1.095079E+0	9.813779E-1	1.031007E+0	9.905469E-1	1.071311E+0	9.790868E-1	9.839246E-1	1.014954E+0	1.009796E+0	9.642468E-1	1.003549E+0	1.007293E+0	1.016637E+0	1.001635E+0	9.669646E-1	1.002405E+0	1.130981E+0	9.802809E-1	1.001454E+0	9.923409E-1	1.075158E+0	1.020724E+0	9.698754E-1	1.005738E+0	1.009822E+0	9.383274E-1	1.011832E+0	1.009612E+0	9.817048E-1	1.005149E+0	9.908450E-1
