Photon Energy (eV)	#1	#2	#3	#4	#5	#6	#7	#8	#9	#10	#11	#12	#13	#14	#15	#16	#17	#18	#19	#20	#21	#22	#23	#24	#25	#26	#27	#28	#29	#30	#31	#32	#33	#34	#35	#36	#37	#38	#39	#40	#41	#42	#43	#44	#45	#46	#47	#48	#49	#50	#51	#52	#53	#54	#55	#56	#57	#58	#59	#60	#61	#62	#63	#64	#65	#66	#67	#68	#69	#70	#71	#72	#73	#74	#75	#76	#77	#78	#79	#80	#81	#82	#83	#84	#85	#86	#87	#88	#89	#90	#91	#92	#93	#94	#95	#96	#97	#98	#99	#100	#101	#102	#103	#104	#105	#106	#107	#108	#109	#110	#111	#112	#113	#114	#115	#116	#117	#118	#119	#120	#121	#122	#123	#124	#125	#126	#127	#128	#129	#130	#131	#132	#133	#134	#135	#136	#137	#138	#139	#140	#141	#142	#143	#144	#145	#146	#147	#148	#149	#150	#151	#152	#153	#154	#155	#156	#157	#158	#159	#160	#161	#162	#163	#164	#165	#166	#167	#168	#169	#170	#171	
5.300160E+2	-4.001200E-3	-6.110624E-3	-8.120375E-3	-1.162974E-2	-4.264627E-3	5.140717E-4	-1.813605E-3	-8.458384E-3	2.176952E-4	-1.107545E-2	-1.776228E-3	-1.165316E-2	-5.439969E-3	-2.435136E-3	-8.986508E-4	-2.940091E-3	5.296625E-5	-3.030493E-3	-6.244404E-3	-2.713035E-3	-1.032209E-2	1.082422E-3	-5.833705E-3	-4.562188E-3	-8.840734E-5	-2.340345E-4	-3.159278E-3	-2.583696E-3	-6.103079E-4	-2.235190E-3	-9.777523E-3	-7.961212E-3	-2.354038E-3	-8.138428E-3	-6.305614E-3	-5.485692E-3	6.417241E-4	4.073825E-4	-4.138480E-3	-2.647821E-3	-6.576048E-3	-3.481107E-3	-7.583476E-3	-7.479921E-3	-8.080838E-3	-3.097124E-3	-9.533102E-4	-9.223787E-3	-3.209997E-3	-6.313786E-3	-8.563681E-3	2.233160E-3	-5.960050E-3	-4.922380E-3	-7.335645E-4	-6.632217E-3	1.910967E-3	-5.505656E-3	-8.109371E-3	-6.778625E-4	-5.880401E-3	-2.456729E-3	7.692291E-4	-5.796151E-3	-2.282710E-3	-1.277221E-2	-1.382697E-2	-1.122346E-2	-8.220070E-3	-3.489164E-3	-3.120829E-3	-8.321858E-3	-5.913751E-3	-7.810147E-3	-2.597950E-3	-2.448050E-3	-2.270355E-3	-9.537145E-3	-9.402710E-4	3.583123E-4	-9.776893E-4	-8.822594E-3	-3.834948E-4	-3.470063E-3	-4.562304E-3	6.759125E-4	-4.558054E-3	-1.168862E-3	-8.507854E-3	-9.701105E-4	-1.150316E-2	-7.157652E-4	-9.363958E-3	-2.295478E-3	-4.503845E-3	-2.967093E-3	-3.445580E-3	-2.054832E-3	-1.756103E-3	-4.857979E-4	-3.458476E-3	4.480266E-3	-7.991285E-3	-2.986613E-3	-5.476582E-4	-8.560909E-3	-8.379673E-3	-4.154506E-3	-5.465704E-3	-8.583953E-3	-2.957302E-3	-9.637735E-3	-9.743736E-3	-1.530647E-2	-4.977619E-3	-2.065911E-4	-7.946704E-4	-5.294909E-3	-7.286603E-3	-4.426412E-3	-8.171383E-3	-5.779705E-3	-9.779112E-3	-4.751466E-4	-7.852122E-3	-6.812947E-3	-8.510702E-3	-7.143806E-3	-1.139325E-2	-2.988892E-3	-8.883454E-3	-1.037710E-2	-5.471332E-3	-1.523775E-2	-7.774652E-3	6.970219E-3	-5.452978E-3	-7.782232E-3	-5.567779E-3	-8.293354E-3	-8.840783E-3	2.389873E-4	-4.609791E-3	-3.693920E-3	-7.005553E-3	-7.524896E-4	-5.499970E-3	-3.779975E-3	4.578750E-3	-5.112282E-3	-9.486609E-3	-6.492504E-3	3.415601E-3	-1.381684E-3	-7.640360E-3	-6.870840E-3	-8.018675E-3	-6.231269E-3	-1.074362E-2	-1.925627E-3	-5.822526E-3	-1.311727E-2	-1.617883E-2	-4.421142E-3	3.863367E-4	-1.043008E-2	-4.346750E-3	-1.193248E-2	6.580583E-3	-9.856956E-3	-9.519019E-3
5.305130E+2	-7.736878E-3	-1.216824E-2	-1.448060E-3	4.292020E-4	3.012462E-4	-6.326665E-3	-5.680153E-3	-3.197755E-3	-1.673187E-3	-5.919812E-3	-4.646514E-3	2.005438E-3	-3.007274E-3	-4.344023E-3	-1.485032E-3	-3.549129E-3	-9.050929E-3	7.641199E-4	-1.219480E-2	-4.899755E-3	-7.017512E-3	-1.073156E-2	-6.876350E-3	-7.826787E-3	-5.560183E-3	-9.139473E-3	-5.165447E-4	-9.120268E-3	-5.840952E-3	-1.976068E-3	-6.757912E-4	4.418303E-3	-7.039742E-3	-7.253000E-3	1.819048E-3	-4.547360E-4	-1.934619E-3	-3.946603E-3	-9.387006E-3	-1.036210E-2	-3.230671E-3	-7.361743E-3	-3.057770E-3	-4.052850E-3	-2.627113E-3	4.523666E-3	-4.918914E-3	-3.681602E-3	-7.317986E-3	-2.981116E-3	-7.299480E-3	-8.678043E-4	-3.749506E-3	-3.679451E-3	-1.466615E-2	-5.338096E-3	-3.237612E-3	-5.146770E-3	-4.428152E-3	-8.229634E-3	-7.344972E-3	-1.367600E-3	1.985015E-3	-2.612871E-3	1.972421E-3	1.890118E-3	-9.300355E-3	-4.628382E-4	2.920972E-3	-7.042311E-3	-5.730732E-3	-9.396892E-3	-3.844960E-3	-4.124947E-3	-2.786266E-3	-3.214794E-3	-3.326663E-3	-6.383406E-3	-7.386127E-3	-8.370733E-3	-1.697939E-3	-9.453322E-4	-1.107856E-3	-1.102229E-2	-1.768908E-2	-8.491596E-3	2.041112E-3	-3.760913E-3	-3.822193E-4	-6.951920E-3	-5.023145E-3	-3.235268E-3	-1.002081E-2	-3.854763E-3	-6.480486E-3	-3.800820E-4	-3.641733E-3	-9.728755E-3	-5.204247E-3	-2.935031E-3	7.972472E-4	-6.798032E-3	-9.194758E-3	-7.916821E-3	-3.006321E-3	-2.568527E-4	4.074945E-3	-4.895108E-3	3.984517E-3	-1.070341E-3	2.709866E-4	-1.015838E-3	-7.793923E-3	-9.925369E-4	-2.009274E-3	-6.759401E-3	-8.759628E-3	-3.226220E-3	-3.258187E-4	-3.206005E-3	-9.531185E-3	-2.327417E-3	-7.560021E-3	-7.912256E-3	-2.226556E-3	-3.185853E-3	-1.192321E-2	-1.367293E-3	-3.478004E-3	-1.512480E-3	-9.640533E-3	-3.917698E-3	-1.073521E-2	4.106190E-3	5.804757E-4	-4.432382E-3	-6.670108E-3	-6.797011E-3	-1.054833E-2	1.287296E-3	3.795310E-4	-4.613744E-3	-6.246439E-3	-7.269707E-3	-3.198197E-3	-1.105463E-2	-6.745853E-3	-7.111397E-3	-3.461845E-3	-5.788697E-3	-9.137647E-3	-5.250269E-3	-9.735673E-3	-1.076983E-2	6.565182E-4	-1.994036E-3	-3.487687E-3	-8.325151E-3	-6.829376E-3	-4.940566E-3	-7.497961E-3	-1.430957E-2	-8.690393E-4	-1.796327E-3	-4.200138E-3	-2.390990E-3	-1.146256E-2	-5.176126E-3	-8.105400E-3	2.858318E-3	1.736321E-3
5.310000E+2	-5.709792E-3	-1.002080E-3	-3.694067E-3	-3.443809E-3	-5.419317E-3	-1.006728E-2	-6.675918E-3	-7.086315E-3	-5.690311E-3	-5.347321E-3	-7.266147E-3	-6.491609E-3	-5.545877E-3	-5.582309E-3	-3.860425E-3	1.621534E-3	-7.536314E-3	-4.176832E-3	2.342281E-3	3.705321E-3	1.186399E-3	-5.956461E-3	-4.165710E-3	-2.466444E-3	2.897013E-4	-3.473966E-3	-5.637973E-3	-1.134408E-3	-5.372924E-3	-4.120123E-3	-3.832569E-3	-9.959869E-4	-1.985418E-3	-2.955768E-3	-2.034557E-3	1.017204E-3	-5.780003E-3	-5.983009E-3	3.596602E-3	-1.932610E-3	-3.777445E-3	-4.159438E-3	-5.618590E-3	-1.015085E-2	-1.170611E-3	-5.385798E-3	-5.277253E-3	2.897299E-3	-4.807717E-3	-8.925453E-3	-5.837538E-3	-5.649130E-3	1.498955E-3	6.129231E-4	-3.597912E-4	-3.835214E-3	-4.844877E-3	2.458350E-3	-1.634703E-3	2.851443E-4	-2.538411E-4	-4.679544E-3	-6.433347E-3	-7.994363E-3	-5.209309E-3	-8.790360E-3	2.680058E-3	4.055271E-3	1.968564E-3	-8.453589E-3	1.595548E-4	-1.880447E-3	-3.752251E-4	-6.288785E-3	-5.302078E-3	1.315124E-3	3.354920E-3	-5.862810E-3	-4.196518E-3	-7.267292E-4	1.553601E-3	-2.504406E-3	-8.621152E-3	-5.715397E-3	-6.803083E-4	-5.610138E-3	4.699483E-3	-5.631035E-3	2.707976E-4	-6.910809E-3	-5.535661E-3	8.541984E-4	3.427766E-3	4.493592E-3	-1.900869E-3	-1.706158E-3	4.136760E-3	4.689448E-3	-9.814554E-3	-2.333479E-3	-1.573441E-3	1.798042E-3	3.525171E-3	5.443203E-3	-4.059380E-3	9.172764E-4	-9.606433E-3	-1.009071E-3	1.306048E-3	-6.548043E-3	-4.774880E-3	-3.745714E-3	-2.938634E-3	5.998673E-3	-5.135521E-3	-5.130998E-3	-9.683364E-3	-6.578667E-3	-3.029638E-3	-3.619409E-3	-2.620835E-3	-7.128882E-4	-1.007356E-3	-4.584630E-3	-3.056566E-3	-3.134825E-3	3.712619E-3	-8.158252E-3	7.573078E-3	-4.805760E-3	-3.119000E-3	-5.386699E-4	-5.614957E-3	-3.181063E-4	-2.558045E-3	-3.352373E-3	-3.971153E-3	5.483618E-3	-8.684350E-4	-7.251530E-3	1.349232E-3	-4.516769E-3	-2.743587E-3	2.212638E-3	-6.497404E-4	-1.376685E-3	-3.503057E-3	-1.293284E-3	-7.794836E-3	-6.082884E-4	6.993905E-4	2.831610E-3	-1.077035E-2	-9.575298E-3	-4.381823E-3	-4.193704E-3	-6.171139E-4	-1.114705E-2	3.152050E-3	-2.992187E-3	-4.433923E-3	4.733934E-4	-1.227202E-2	4.415389E-3	-2.192913E-3	-1.306864E-3	-8.434035E-3	3.875351E-4	-1.361613E-2	-9.860052E-3	-1.000286E-3
5.315130E+2	5.078611E-3	-6.139951E-3	6.801348E-3	4.028356E-3	-4.768977E-3	7.047568E-3	2.889121E-3	1.033794E-3	1.135736E-3	6.747294E-3	-2.299486E-3	1.175796E-3	-3.239199E-4	7.010444E-4	-6.544996E-3	-1.173735E-3	4.600461E-3	-3.468014E-3	-3.925362E-4	-5.213213E-3	5.656343E-3	3.076143E-3	3.152843E-3	4.859966E-3	-8.334656E-4	3.489371E-3	6.502144E-4	9.423516E-5	-4.869668E-3	-1.729332E-3	2.795122E-3	1.167378E-3	-2.354475E-3	-1.127522E-2	-1.364367E-3	2.648330E-4	-3.041307E-3	-3.832952E-4	2.423974E-3	2.488047E-3	-6.301291E-4	2.507898E-3	-1.298437E-3	7.453003E-3	-3.699613E-3	-1.696910E-3	3.875806E-4	-4.659758E-3	-5.681590E-3	4.255475E-3	5.236305E-3	-1.413340E-4	-8.127219E-4	3.648807E-3	-1.252131E-3	2.194049E-3	-9.277662E-4	-6.576259E-3	-2.576152E-3	2.731525E-3	2.098381E-3	3.560166E-3	-5.808388E-3	4.802887E-3	2.211560E-3	-9.326571E-4	9.651068E-3	-2.366743E-4	-1.462805E-3	3.354266E-3	-8.475870E-3	3.907063E-3	-2.457898E-3	-3.366392E-3	-7.202930E-3	-1.870731E-3	-3.520908E-3	3.800890E-3	-5.821648E-3	-3.407146E-3	1.195643E-3	-2.884618E-3	-2.537053E-3	1.847128E-3	1.501001E-3	5.472350E-3	-8.729744E-3	-4.982147E-3	1.358206E-2	3.279829E-3	7.930861E-3	-3.018469E-3	1.451044E-4	-2.694121E-3	3.280100E-3	-1.172617E-2	-5.634562E-3	-3.770705E-3	6.388235E-4	8.719149E-5	5.943934E-4	-6.086231E-3	5.292214E-3	-3.890784E-3	4.043789E-3	-2.296900E-3	-7.257424E-3	-5.796892E-3	-9.549537E-3	1.840698E-5	-4.599770E-3	-4.956010E-3	1.513900E-3	-4.031058E-3	-2.853899E-3	-1.919403E-4	7.144461E-4	-6.953571E-3	-2.318073E-3	-5.963597E-4	7.831643E-3	-1.041854E-3	1.599257E-3	4.526381E-3	-3.772435E-3	-5.335875E-3	9.807098E-3	1.607371E-3	1.397225E-3	3.994494E-4	5.917250E-3	8.054895E-3	-2.614270E-3	4.422082E-3	5.656843E-3	-2.679978E-3	-1.194950E-3	-4.255912E-3	8.482815E-3	-1.881706E-3	1.980059E-3	2.290224E-3	7.226027E-3	-2.760616E-3	-1.147270E-2	-3.264874E-3	3.748838E-4	-3.715157E-3	-5.676785E-3	-8.071991E-3	3.697021E-4	-5.015183E-3	-3.050795E-3	-1.912735E-3	-2.689598E-4	-6.293731E-3	-1.383895E-3	1.081402E-3	3.355684E-3	4.299859E-3	7.328450E-3	-5.067773E-3	-6.436758E-4	6.658690E-4	3.372191E-3	-1.586656E-3	1.907626E-4	5.403693E-3	-4.647425E-3	-8.282833E-3	7.845147E-3
5.320170E+2	5.966766E-5	1.242603E-2	9.042785E-4	-3.919114E-6	-4.689557E-4	-5.393058E-3	2.224081E-3	5.841602E-3	1.981260E-3	3.612582E-3	1.195397E-2	7.445294E-3	-2.869819E-5	7.089705E-3	3.905408E-3	-3.862803E-3	8.772368E-4	-9.169929E-5	3.842256E-3	-3.301806E-3	1.739893E-3	1.233309E-3	3.026776E-3	3.844015E-3	-3.361366E-3	2.324502E-3	-1.364139E-3	4.739246E-3	7.465169E-3	2.998124E-3	4.282246E-3	6.513367E-4	7.299698E-3	9.959829E-3	-4.425171E-3	-3.646515E-3	-5.477779E-3	7.533072E-3	1.390164E-3	4.071134E-3	-6.588257E-3	1.425186E-3	1.056004E-2	3.738876E-3	5.479702E-3	-3.103356E-3	3.219098E-3	5.374523E-4	7.603262E-3	7.687922E-3	8.893627E-3	6.531881E-3	5.700169E-3	3.789769E-3	1.031451E-2	3.579773E-3	-2.311718E-4	2.173796E-3	3.919218E-3	2.052714E-3	8.221400E-3	-3.345663E-4	3.516478E-3	-2.036415E-3	-9.420428E-4	8.191957E-3	6.661515E-4	-3.472256E-4	-4.820346E-3	4.325951E-3	8.527560E-3	4.742849E-3	-4.633915E-4	1.764184E-2	3.487614E-3	3.057701E-3	-1.744966E-3	9.875348E-3	7.091352E-3	-2.079025E-3	-3.139763E-3	1.367148E-2	5.460602E-3	4.889202E-3	8.182610E-3	-1.695678E-3	-4.600709E-4	1.173173E-3	-4.904688E-3	-7.756599E-3	6.175984E-4	-1.955515E-3	-7.742546E-4	-1.845249E-3	4.519301E-3	9.479988E-3	1.974334E-3	1.296508E-3	7.527133E-3	-4.224412E-5	4.785484E-4	7.906795E-3	2.520065E-3	2.927811E-4	-2.874473E-3	4.943915E-3	5.284172E-3	4.546300E-3	5.989959E-3	1.227895E-2	5.962650E-3	5.135711E-3	5.136866E-3	2.306818E-3	4.821469E-3	5.009870E-3	3.975693E-3	1.491551E-2	2.505852E-3	3.039343E-3	2.513316E-3	3.850139E-4	8.093120E-3	3.881529E-3	5.944894E-3	-3.539474E-3	2.613993E-3	4.686924E-3	3.542555E-3	-1.430885E-3	1.031201E-3	1.149230E-3	1.643198E-2	1.722734E-3	-4.131724E-3	-1.278634E-3	1.809361E-3	2.598566E-3	-1.411999E-3	5.447038E-3	2.300102E-3	3.538268E-3	-3.706483E-3	8.717229E-3	1.086492E-2	9.016299E-3	8.200517E-3	-1.785914E-3	1.550029E-3	-3.057853E-3	1.105709E-2	3.844099E-3	6.520543E-3	6.011620E-3	5.800493E-3	-7.846384E-4	8.820131E-3	9.124402E-3	3.676290E-3	2.264224E-3	-3.889451E-3	1.437496E-2	2.017467E-2	-6.201588E-3	-1.167027E-3	-2.744251E-3	1.196965E-2	-2.584383E-4	1.350403E-2	1.468750E-2	-9.610233E-3
5.325170E+2	1.230959E-2	1.299487E-2	5.556876E-3	1.061991E-2	1.462063E-2	1.422537E-2	9.056475E-3	1.186706E-2	4.028807E-3	1.198270E-2	4.034406E-3	7.518242E-3	1.434574E-2	4.570718E-3	8.883697E-3	9.904224E-3	1.105658E-2	1.000292E-2	1.264720E-2	1.242249E-2	8.756970E-3	1.129614E-2	1.069615E-2	6.151438E-3	9.553720E-3	7.033601E-3	1.002772E-2	8.004890E-3	9.228683E-3	7.062589E-3	7.208514E-3	2.720181E-3	6.433976E-3	1.966259E-2	1.231066E-2	8.304906E-3	1.559198E-2	2.372453E-3	6.114746E-3	8.383350E-3	2.080255E-2	1.106920E-2	6.998233E-3	1.049175E-2	1.009847E-2	8.759522E-3	7.542799E-3	1.413039E-2	1.341403E-2	6.276959E-3	7.570767E-3	-2.106772E-3	3.323154E-3	5.503322E-4	6.697127E-3	1.003170E-2	7.330460E-3	1.259654E-2	1.282916E-2	3.838114E-3	3.159433E-3	5.278274E-3	5.971013E-3	1.363691E-2	4.250081E-3	1.241316E-2	1.013005E-2	8.214932E-3	9.613684E-3	1.130485E-2	8.640316E-3	1.094928E-2	1.305523E-2	3.948436E-3	1.440161E-2	3.160751E-3	7.507972E-3	8.107124E-3	1.125321E-2	1.422532E-2	3.066148E-3	1.485469E-3	7.188953E-3	1.347141E-2	1.324808E-2	9.649149E-3	7.007274E-3	1.436978E-2	-5.809181E-5	1.930961E-2	1.351350E-2	8.070819E-3	1.658615E-2	6.196019E-3	5.085800E-3	7.299521E-3	6.610781E-3	9.568336E-3	8.608947E-3	5.709361E-3	3.161727E-3	-1.300841E-3	5.848593E-3	9.058234E-3	6.444044E-3	5.253470E-3	1.588441E-2	1.130928E-2	3.734717E-3	3.904978E-3	6.098316E-3	1.421959E-2	1.382553E-2	1.202457E-2	1.015484E-2	7.279061E-3	1.454752E-2	7.137855E-3	1.045428E-2	8.808842E-3	9.978444E-3	9.476850E-3	8.654112E-3	4.564122E-3	1.096279E-2	2.200898E-2	4.300204E-3	1.037506E-2	2.358393E-3	1.033857E-2	1.469454E-2	5.629341E-3	8.003787E-3	5.304851E-3	8.227102E-3	4.773147E-3	1.547983E-2	1.075297E-2	9.913730E-3	1.069226E-2	2.831858E-3	3.063033E-3	1.008027E-2	2.794375E-3	1.146128E-2	7.432381E-3	7.173479E-3	1.768573E-2	1.080469E-2	2.263911E-2	6.498072E-3	1.008225E-2	1.362068E-2	1.762792E-2	5.834132E-3	2.013695E-2	4.687241E-3	1.549766E-2	7.388974E-3	3.294296E-3	1.431541E-2	1.764625E-2	9.788892E-3	7.337799E-3	3.801551E-3	1.845884E-2	1.208293E-2	1.157582E-2	6.284346E-3	1.045403E-2	1.054807E-2
5.330230E+2	2.616479E-2	1.799200E-2	1.721660E-2	1.753487E-2	2.323916E-2	2.786614E-2	2.072847E-2	1.802312E-2	1.902758E-2	2.881981E-2	1.437889E-2	2.110164E-2	2.552528E-2	1.740607E-2	2.704593E-2	3.113248E-2	1.511208E-2	1.370553E-2	1.915544E-2	2.020670E-2	1.397832E-2	1.280612E-2	2.431506E-2	2.195822E-2	2.411415E-2	2.011712E-2	1.636314E-2	3.110369E-2	2.240165E-2	1.743783E-2	3.658296E-2	1.950051E-2	2.543767E-2	1.674370E-3	3.365062E-2	1.468765E-2	3.202464E-2	2.096581E-2	3.097768E-2	2.168447E-2	1.240996E-2	8.589702E-3	1.919980E-2	2.714812E-2	3.161418E-2	2.296438E-2	2.385273E-2	1.312603E-2	3.177182E-2	2.859663E-2	1.726974E-2	2.532354E-2	2.018509E-2	2.891044E-2	2.923591E-2	2.691495E-2	1.450949E-2	1.661227E-2	2.131769E-2	2.106483E-2	2.967668E-2	1.867283E-2	1.420990E-2	2.612057E-2	2.462636E-2	2.343350E-2	1.659340E-2	1.640188E-2	2.345084E-2	2.373121E-2	3.189500E-2	1.537355E-2	1.275296E-2	2.638674E-2	2.184812E-2	2.307734E-2	1.810082E-2	3.071227E-2	3.177474E-2	1.491934E-2	4.101940E-2	1.406509E-2	2.310739E-2	2.004281E-2	1.390004E-2	2.088501E-2	3.452478E-2	2.427919E-2	9.347973E-3	1.524453E-2	2.206085E-2	1.991152E-2	2.345374E-2	2.313367E-2	2.215817E-2	1.820589E-2	1.521897E-2	2.720131E-2	1.727976E-2	1.662732E-2	2.502990E-2	1.220214E-2	2.467842E-2	2.702638E-2	1.985862E-2	3.296743E-2	2.163376E-2	2.481674E-2	8.158478E-3	2.988164E-2	1.919565E-2	2.471138E-2	2.306094E-2	2.680398E-2	3.404619E-2	2.886573E-2	1.996088E-2	2.295774E-2	3.119764E-2	1.666592E-2	1.116702E-2	2.199616E-2	2.081123E-2	2.546926E-2	1.524074E-2	1.892180E-2	1.040751E-2	2.764748E-2	1.299148E-2	3.075916E-2	2.558682E-2	1.920943E-2	2.236372E-2	2.890466E-2	2.350086E-2	1.931881E-2	1.463278E-2	1.925822E-2	2.456324E-2	1.965684E-2	7.512210E-3	2.963078E-2	2.207143E-2	3.102989E-2	2.203073E-2	2.413198E-2	1.703693E-2	1.422878E-2	2.657088E-2	2.679092E-2	1.761288E-2	2.459471E-2	1.276112E-2	3.183094E-2	2.001869E-2	1.756736E-2	2.226377E-2	2.256137E-2	2.166287E-2	2.061111E-2	2.368272E-2	9.917182E-3	2.502889E-2	2.781405E-2	1.709730E-2	2.808443E-2	1.880065E-2	2.634757E-2	2.107857E-2	2.806378E-2	1.650792E-2
5.331630E+2	3.011652E-2	1.755046E-2	2.933804E-2	3.218207E-2	2.999539E-2	3.017101E-2	2.340378E-2	2.603809E-2	2.848331E-2	2.419419E-2	2.889706E-2	2.599954E-2	2.686449E-2	2.927972E-2	3.162222E-2	2.477323E-2	2.433965E-2	1.878476E-2	3.576688E-2	2.736227E-2	2.178025E-2	1.373072E-2	3.469003E-2	3.633062E-2	2.416872E-2	3.153061E-2	3.205508E-2	3.435278E-2	3.001216E-2	3.490572E-2	2.408780E-2	2.788681E-2	1.390155E-2	2.263646E-2	2.091743E-2	2.381089E-2	2.562177E-2	3.207527E-2	3.430762E-2	2.429229E-2	3.176131E-2	2.515902E-2	2.395654E-2	3.441046E-2	3.667763E-2	2.566404E-2	2.816986E-2	2.099854E-2	2.084252E-2	2.512938E-2	3.685083E-2	3.513089E-2	2.986182E-2	3.375573E-2	3.621322E-2	2.549766E-2	2.006084E-2	2.429997E-2	2.689541E-2	2.679460E-2	2.715323E-2	4.304743E-2	1.947745E-2	2.450470E-2	2.740109E-2	2.915870E-2	2.604887E-2	2.596009E-2	2.915926E-2	4.386955E-2	3.195432E-2	3.191094E-2	1.227051E-2	2.754113E-2	3.379203E-2	2.593994E-2	3.463553E-2	2.552014E-2	2.822937E-2	2.885965E-2	2.676678E-2	4.221739E-2	2.042518E-2	2.592588E-2	2.500925E-2	2.045348E-2	1.931419E-2	1.997262E-2	2.094564E-2	2.599940E-2	4.885173E-2	2.402405E-2	3.110186E-2	2.598142E-2	1.216268E-2	2.384991E-2	2.477460E-2	3.594525E-2	2.721221E-2	2.061782E-2	1.823662E-2	1.836446E-2	4.072046E-2	3.140324E-2	3.888257E-2	3.185986E-2	3.550517E-2	3.150324E-2	4.161734E-2	3.036907E-2	3.902619E-2	2.567473E-2	1.797300E-2	2.690894E-2	2.201316E-2	3.155941E-2	3.108444E-2	2.474499E-2	2.838014E-2	3.384717E-2	2.098508E-2	2.354498E-2	2.693389E-2	1.994155E-2	2.229104E-2	3.820611E-2	2.072183E-2	3.456263E-2	1.971602E-2	1.801512E-2	3.159247E-2	1.875814E-2	1.785934E-2	2.141735E-2	2.680766E-2	3.119076E-2	3.459530E-2	2.988081E-2	3.549804E-2	2.380187E-2	4.076519E-2	1.845878E-2	3.052454E-2	2.465116E-2	2.308936E-2	2.313635E-2	1.979515E-2	1.962110E-2	1.937585E-2	3.900132E-2	2.914111E-2	2.520064E-2	2.032059E-2	3.897142E-2	3.652506E-2	2.897413E-2	3.425520E-2	2.462466E-2	3.630618E-2	2.546580E-2	2.646918E-2	3.668646E-2	3.968319E-2	3.129548E-2	2.652786E-2	2.132878E-2	3.444416E-2	2.650444E-2	3.810368E-2	5.022329E-2	2.812557E-2
5.333130E+2	3.214185E-2	2.791032E-2	3.805095E-2	3.794856E-2	3.508210E-2	3.416469E-2	4.027714E-2	3.662705E-2	3.753272E-2	4.790765E-2	2.840482E-2	3.907116E-2	3.341159E-2	3.784653E-2	2.936900E-2	3.402454E-2	3.756727E-2	2.843715E-2	3.688102E-2	4.887412E-2	3.051766E-2	4.279266E-2	2.627274E-2	1.710948E-2	4.871874E-2	3.018118E-2	3.408793E-2	4.355406E-2	5.427251E-2	3.247399E-2	4.305900E-2	4.445772E-2	3.676872E-2	3.779745E-2	3.384254E-2	4.407447E-2	3.641748E-2	4.012635E-2	4.668578E-2	4.661024E-2	2.777101E-2	2.633937E-2	3.449806E-2	5.058880E-2	3.503662E-2	3.821923E-2	4.973300E-2	3.148495E-2	2.618162E-2	3.684511E-2	3.508279E-2	4.657095E-2	3.132322E-2	2.714220E-2	3.254292E-2	3.942509E-2	4.579682E-2	3.476010E-2	4.530460E-2	4.456929E-2	3.773056E-2	3.214673E-2	4.771129E-2	3.275141E-2	3.015537E-2	2.921962E-2	2.975960E-2	4.113856E-2	4.635540E-2	2.874046E-2	2.957458E-2	4.863970E-2	2.547912E-2	2.585264E-2	5.004591E-2	2.081520E-2	3.833273E-2	3.471833E-2	2.926053E-2	4.294487E-2	3.811074E-2	4.830553E-2	3.568434E-2	3.236317E-2	2.515113E-2	3.450944E-2	2.403996E-2	3.710918E-2	3.406163E-2	2.707988E-2	3.157282E-2	2.396149E-2	3.409503E-2	2.606454E-2	3.700540E-2	3.801503E-2	2.851415E-2	3.832367E-2	3.254079E-2	3.023272E-2	3.299600E-2	5.589882E-2	4.187845E-2	3.731735E-2	4.159323E-2	2.955670E-2	3.777803E-2	4.604253E-2	2.820012E-2	3.659210E-2	2.368247E-2	3.179649E-2	3.350318E-2	3.298856E-2	3.117994E-2	3.646194E-2	3.383281E-2	2.946622E-2	3.779829E-2	3.065603E-2	2.979836E-2	3.255664E-2	3.354263E-2	3.267719E-2	2.773881E-2	3.630174E-2	3.162042E-2	2.678332E-2	3.721514E-2	3.908263E-2	3.222721E-2	3.398440E-2	1.981822E-2	3.069333E-2	3.825447E-2	2.784891E-2	3.673045E-2	3.113163E-2	3.997836E-2	2.741179E-2	4.194717E-2	3.871061E-2	3.864831E-2	3.482689E-2	3.246945E-2	2.261070E-2	2.901005E-2	2.494552E-2	3.526548E-2	4.387100E-2	4.078660E-2	4.070769E-2	2.478290E-2	3.441032E-2	2.308003E-2	3.186231E-2	4.457282E-2	3.110767E-2	3.424262E-2	3.374902E-2	3.394943E-2	3.682167E-2	3.683950E-2	3.532869E-2	2.886009E-2	4.134865E-2	3.817166E-2	4.391080E-2	3.287732E-2	4.510214E-2	6.658468E-2
5.334630E+2	5.077466E-2	4.666634E-2	4.793923E-2	4.805027E-2	4.698359E-2	4.554869E-2	4.916258E-2	4.310232E-2	2.818711E-2	4.096578E-2	3.575642E-2	5.249259E-2	4.518269E-2	4.434448E-2	3.791992E-2	4.808827E-2	4.141338E-2	4.210025E-2	6.313975E-2	4.581345E-2	5.046661E-2	3.654916E-2	4.916395E-2	5.787932E-2	4.808674E-2	5.558797E-2	5.158715E-2	4.944533E-2	5.485956E-2	4.798184E-2	4.287512E-2	4.542246E-2	4.352177E-2	3.626297E-2	4.225954E-2	4.876396E-2	4.157654E-2	3.810427E-2	4.054871E-2	4.726141E-2	3.700231E-2	3.248288E-2	3.777948E-2	4.591504E-2	3.819471E-2	4.078998E-2	4.019905E-2	4.905080E-2	3.820821E-2	5.551789E-2	4.367610E-2	3.776249E-2	4.624962E-2	3.541705E-2	4.811266E-2	5.215285E-2	4.324939E-2	5.577314E-2	3.597588E-2	5.593211E-2	4.285707E-2	4.197769E-2	4.192451E-2	4.578453E-2	4.614943E-2	5.148555E-2	4.191117E-2	4.612404E-2	3.827391E-2	5.233487E-2	4.194836E-2	4.853930E-2	3.086029E-2	5.282169E-2	5.305887E-2	3.799817E-2	3.738746E-2	4.191155E-2	3.382541E-2	4.719190E-2	5.143124E-2	4.618248E-2	4.994238E-2	4.045098E-2	3.748714E-2	4.370147E-2	5.835755E-2	5.547841E-2	4.417826E-2	4.759641E-2	4.623832E-2	4.577937E-2	4.357543E-2	4.242561E-2	5.565326E-2	4.170623E-2	4.608294E-2	4.021750E-2	4.194692E-2	4.060252E-2	4.580880E-2	4.149107E-2	4.250779E-2	5.072943E-2	4.416149E-2	5.489258E-2	5.997018E-2	4.054934E-2	4.130224E-2	5.583429E-2	6.488525E-2	5.926122E-2	4.940983E-2	4.768722E-2	5.489391E-2	4.507075E-2	4.186607E-2	4.788463E-2	5.338146E-2	4.397997E-2	4.221998E-2	5.100123E-2	3.737826E-2	4.681747E-2	3.916324E-2	4.347172E-2	5.222845E-2	5.396833E-2	4.452196E-2	5.156364E-2	4.076420E-2	4.685997E-2	4.577679E-2	5.297521E-2	5.067457E-2	4.844858E-2	4.213441E-2	3.544946E-2	5.080657E-2	5.254650E-2	3.434882E-2	5.274186E-2	3.225480E-2	6.068829E-2	5.564243E-2	5.409277E-2	3.618151E-2	3.676943E-2	5.327618E-2	5.939643E-2	4.919579E-2	4.964601E-2	4.407138E-2	5.080467E-2	4.605591E-2	4.504742E-2	4.630138E-2	3.357539E-2	4.831095E-2	5.469143E-2	3.789302E-2	3.958297E-2	3.940613E-2	4.114789E-2	4.485819E-2	6.316987E-2	4.914705E-2	4.151203E-2	3.368018E-2	5.713806E-2	4.510932E-2
5.336080E+2	6.229866E-2	5.885072E-2	5.055816E-2	5.687233E-2	5.358484E-2	6.049316E-2	5.860862E-2	5.738981E-2	5.522347E-2	4.592889E-2	6.061352E-2	5.554814E-2	5.072883E-2	5.457687E-2	6.838700E-2	5.189788E-2	6.206471E-2	3.936706E-2	5.768066E-2	5.265027E-2	6.568766E-2	4.684668E-2	6.133925E-2	5.155559E-2	5.690811E-2	5.840670E-2	7.535570E-2	7.485548E-2	5.104347E-2	5.915973E-2	5.873127E-2	6.172593E-2	5.737022E-2	7.081968E-2	6.824780E-2	7.498091E-2	7.130882E-2	6.414475E-2	7.838261E-2	6.763846E-2	6.527128E-2	5.170192E-2	6.847193E-2	6.682165E-2	6.215915E-2	7.593599E-2	6.357520E-2	6.392177E-2	5.957160E-2	6.293040E-2	5.113172E-2	5.219016E-2	5.587605E-2	5.678325E-2	6.548502E-2	7.023876E-2	6.710138E-2	6.265163E-2	4.942577E-2	6.819742E-2	6.008145E-2	5.602427E-2	5.981202E-2	7.126387E-2	5.294881E-2	7.096613E-2	6.366501E-2	6.096511E-2	6.595290E-2	6.298427E-2	5.994964E-2	7.248955E-2	4.314413E-2	6.655324E-2	6.271394E-2	7.328145E-2	6.425002E-2	5.368294E-2	5.676167E-2	6.529862E-2	7.275510E-2	6.105085E-2	5.288602E-2	6.782755E-2	6.212213E-2	5.071487E-2	6.766625E-2	6.314392E-2	5.795661E-2	5.655493E-2	6.544384E-2	6.526914E-2	6.197802E-2	4.930788E-2	5.788397E-2	5.368572E-2	6.332214E-2	7.999729E-2	5.309930E-2	6.343655E-2	6.812296E-2	6.118843E-2	6.300208E-2	5.056633E-2	5.986164E-2	6.952413E-2	5.806379E-2	5.350568E-2	6.521020E-2	7.181514E-2	6.973734E-2	5.407076E-2	5.645435E-2	5.602221E-2	5.578380E-2	6.346959E-2	5.500167E-2	4.582720E-2	7.196462E-2	6.244046E-2	5.383537E-2	5.817978E-2	6.942171E-2	6.660596E-2	5.759301E-2	6.498757E-2	5.313376E-2	6.450975E-2	5.814430E-2	6.202353E-2	6.177044E-2	6.740533E-2	6.111794E-2	5.965003E-2	7.204247E-2	6.687756E-2	5.317635E-2	5.634333E-2	6.140130E-2	5.472762E-2	5.819676E-2	6.411984E-2	7.417811E-2	6.029425E-2	5.702105E-2	6.867874E-2	5.681748E-2	5.867612E-2	6.435570E-2	5.504997E-2	5.898999E-2	4.709574E-2	6.179125E-2	8.437426E-2	6.633399E-2	5.432218E-2	5.579167E-2	5.036773E-2	6.195300E-2	4.837132E-2	6.456586E-2	6.867271E-2	5.634733E-2	6.171262E-2	4.992023E-2	6.255094E-2	8.074611E-2	7.228797E-2	5.620336E-2	6.674130E-2	3.138684E-2
5.337580E+2	8.096382E-2	8.278153E-2	5.824407E-2	9.194269E-2	7.250324E-2	8.101614E-2	7.597675E-2	7.186601E-2	7.566246E-2	7.364347E-2	7.641682E-2	8.743812E-2	6.832573E-2	7.601282E-2	8.070930E-2	7.196074E-2	8.605085E-2	7.198932E-2	9.023994E-2	9.514147E-2	8.564972E-2	8.092287E-2	8.713729E-2	9.421553E-2	1.022031E-1	9.232503E-2	9.158025E-2	8.285745E-2	8.857395E-2	8.690190E-2	9.110130E-2	9.339137E-2	8.226447E-2	7.713891E-2	8.133543E-2	8.915570E-2	7.448859E-2	7.289547E-2	9.997682E-2	7.388091E-2	8.179630E-2	9.046528E-2	9.371279E-2	8.918904E-2	7.836153E-2	7.225423E-2	7.328681E-2	8.083876E-2	7.991200E-2	9.147842E-2	9.144748E-2	8.971131E-2	7.767283E-2	8.861238E-2	9.069935E-2	8.083543E-2	7.480310E-2	7.951244E-2	7.024717E-2	8.704388E-2	8.478710E-2	7.796840E-2	8.493945E-2	9.737590E-2	7.924769E-2	9.284991E-2	8.913133E-2	8.119131E-2	8.516369E-2	1.042356E-1	9.223864E-2	8.169408E-2	7.972592E-2	9.499078E-2	7.913838E-2	7.083205E-2	7.233930E-2	8.024679E-2	9.041208E-2	7.745256E-2	8.622788E-2	9.034026E-2	8.673957E-2	7.848814E-2	9.384664E-2	8.128584E-2	9.641202E-2	8.183632E-2	7.626474E-2	8.404021E-2	9.064626E-2	8.505700E-2	7.545090E-2	7.567469E-2	8.761022E-2	9.152536E-2	7.658732E-2	9.461417E-2	9.179890E-2	7.232688E-2	8.751493E-2	7.452262E-2	1.077421E-1	9.041546E-2	8.574704E-2	7.391631E-2	7.684876E-2	8.240189E-2	8.736360E-2	8.427752E-2	9.099072E-2	8.486854E-2	6.765618E-2	9.188191E-2	9.722423E-2	8.884969E-2	8.447980E-2	8.135102E-2	8.525636E-2	8.512086E-2	6.878630E-2	8.629071E-2	8.739139E-2	8.230781E-2	7.867733E-2	7.962320E-2	7.468355E-2	9.401307E-2	9.394360E-2	1.029269E-1	8.907540E-2	9.604443E-2	8.132340E-2	8.165097E-2	8.940976E-2	7.871352E-2	7.925068E-2	6.773193E-2	9.348770E-2	7.195264E-2	7.937926E-2	8.236800E-2	9.031068E-2	9.067043E-2	6.473761E-2	7.191211E-2	8.739081E-2	7.287941E-2	9.677352E-2	8.218643E-2	9.085569E-2	8.758383E-2	7.938132E-2	8.775695E-2	7.699558E-2	9.247559E-2	8.819532E-2	7.039501E-2	8.839955E-2	8.305526E-2	8.134742E-2	8.636185E-2	9.563095E-2	9.404951E-2	7.917245E-2	8.945290E-2	6.773304E-2	8.507357E-2	6.429584E-2	9.034885E-2	5.298463E-2
5.339090E+2	1.252694E-1	9.891207E-2	1.351870E-1	1.145618E-1	1.060411E-1	1.113037E-1	1.194356E-1	1.060667E-1	1.041337E-1	1.106154E-1	1.098502E-1	1.204909E-1	1.075695E-1	1.136509E-1	1.090629E-1	1.156808E-1	1.224866E-1	1.149882E-1	1.191498E-1	1.175536E-1	1.018121E-1	1.160374E-1	1.274197E-1	1.030279E-1	1.560304E-1	1.556197E-1	1.283045E-1	1.388245E-1	1.409639E-1	1.254739E-1	1.346989E-1	1.253269E-1	1.177434E-1	1.431618E-1	1.424665E-1	1.372461E-1	1.325958E-1	1.185498E-1	1.281103E-1	1.109965E-1	1.196926E-1	1.300614E-1	1.286155E-1	1.265632E-1	1.282558E-1	1.159502E-1	1.174155E-1	1.350612E-1	1.261594E-1	1.226948E-1	1.140092E-1	1.408210E-1	1.091755E-1	1.150542E-1	1.304016E-1	1.269620E-1	1.350493E-1	1.094952E-1	1.355595E-1	1.294963E-1	1.292200E-1	1.177234E-1	1.275342E-1	1.261524E-1	1.272815E-1	1.064059E-1	1.172616E-1	1.210995E-1	1.331328E-1	1.247313E-1	1.292941E-1	1.374343E-1	1.185988E-1	1.249935E-1	1.452723E-1	1.279819E-1	1.166166E-1	1.181357E-1	1.242137E-1	1.412685E-1	1.254250E-1	1.314580E-1	1.177101E-1	1.251950E-1	1.353175E-1	1.119493E-1	1.326579E-1	1.230052E-1	1.285743E-1	1.259887E-1	1.187493E-1	1.151742E-1	1.368231E-1	1.271086E-1	1.305918E-1	1.346688E-1	1.033661E-1	1.277998E-1	1.092395E-1	1.329432E-1	1.268048E-1	1.312804E-1	1.394397E-1	1.295838E-1	1.261135E-1	1.266723E-1	1.015874E-1	1.126473E-1	1.227875E-1	1.217020E-1	1.142586E-1	1.158424E-1	1.012322E-1	1.229092E-1	1.226557E-1	1.206611E-1	1.142997E-1	1.303729E-1	1.132478E-1	1.186118E-1	1.093983E-1	1.164922E-1	1.189598E-1	1.230483E-1	1.141502E-1	1.425415E-1	1.281076E-1	1.329113E-1	1.129824E-1	1.357311E-1	1.202819E-1	1.213225E-1	1.138437E-1	1.186905E-1	1.175974E-1	1.294728E-1	1.210936E-1	1.198635E-1	1.211429E-1	1.301938E-1	1.115054E-1	1.117964E-1	1.303208E-1	1.176060E-1	1.033755E-1	1.403982E-1	1.348486E-1	1.235343E-1	1.067321E-1	1.272319E-1	1.144965E-1	1.254300E-1	1.210896E-1	1.188436E-1	1.269886E-1	1.055946E-1	1.373780E-1	1.198746E-1	1.245942E-1	1.233982E-1	1.216186E-1	1.261248E-1	1.224142E-1	1.315985E-1	1.208864E-1	1.241007E-1	1.315702E-1	1.275509E-1	1.192150E-1	1.774331E-1	1.162865E-1
5.340690E+2	1.917364E-1	1.651664E-1	1.952483E-1	1.828765E-1	1.743150E-1	1.881028E-1	1.901897E-1	1.888950E-1	1.724058E-1	1.803245E-1	1.867713E-1	1.956835E-1	1.705026E-1	1.891005E-1	1.850971E-1	1.827192E-1	1.691495E-1	1.925944E-1	1.914420E-1	1.742137E-1	1.638140E-1	1.875318E-1	2.003318E-1	1.889958E-1	2.451122E-1	2.428336E-1	2.375413E-1	2.119477E-1	2.306259E-1	2.131567E-1	2.045096E-1	2.108875E-1	1.879504E-1	2.129618E-1	1.977376E-1	2.068510E-1	2.036649E-1	2.002350E-1	2.144959E-1	1.926022E-1	2.012774E-1	2.036955E-1	2.203828E-1	2.040025E-1	2.162398E-1	1.982623E-1	2.076174E-1	1.994856E-1	1.874825E-1	2.020769E-1	2.048305E-1	2.099506E-1	1.999313E-1	1.951694E-1	2.352519E-1	2.150178E-1	1.881011E-1	1.922977E-1	1.896878E-1	2.015365E-1	1.999030E-1	2.094102E-1	1.942923E-1	1.859039E-1	1.960074E-1	1.998877E-1	2.178308E-1	1.861860E-1	2.248606E-1	2.018649E-1	1.973342E-1	1.908307E-1	1.618089E-1	1.937363E-1	2.035665E-1	2.265175E-1	2.157693E-1	2.085973E-1	1.925689E-1	1.872515E-1	1.830392E-1	2.198556E-1	2.117527E-1	2.012638E-1	2.019443E-1	1.833186E-1	2.090492E-1	2.115004E-1	2.117066E-1	1.976817E-1	2.162390E-1	2.079059E-1	2.076056E-1	2.082530E-1	1.825833E-1	2.207600E-1	2.015969E-1	2.142269E-1	1.930750E-1	1.965603E-1	1.904123E-1	2.084723E-1	2.050165E-1	2.099113E-1	2.060162E-1	1.887234E-1	2.028962E-1	1.969051E-1	2.172821E-1	1.954197E-1	1.959817E-1	2.119499E-1	2.071938E-1	2.101891E-1	2.071792E-1	1.912954E-1	2.034546E-1	1.791180E-1	2.077153E-1	1.884845E-1	1.792310E-1	2.060507E-1	2.002722E-1	2.004609E-1	1.964666E-1	2.015441E-1	2.184921E-1	2.011605E-1	1.925027E-1	1.968870E-1	2.198793E-1	2.208306E-1	2.021832E-1	2.140562E-1	2.123925E-1	2.178167E-1	2.096981E-1	1.833158E-1	1.982039E-1	1.791407E-1	2.023689E-1	1.888843E-1	1.872990E-1	1.970506E-1	2.032396E-1	1.966074E-1	2.096083E-1	2.253872E-1	2.028028E-1	1.955117E-1	1.986636E-1	1.991788E-1	2.082753E-1	2.156398E-1	1.762311E-1	2.215071E-1	1.974883E-1	1.828639E-1	2.003341E-1	1.826389E-1	2.009673E-1	2.088912E-1	2.243115E-1	2.065940E-1	1.887283E-1	1.966943E-1	1.847077E-1	1.927212E-1	2.296781E-1	2.237223E-1	1.500048E-1
5.342040E+2	3.234829E-1	2.889672E-1	2.781718E-1	3.017983E-1	3.193601E-1	2.914881E-1	3.088394E-1	2.869983E-1	2.931490E-1	2.871669E-1	3.129216E-1	2.861938E-1	3.006957E-1	2.815019E-1	2.994319E-1	3.139549E-1	3.118791E-1	3.048907E-1	3.047691E-1	2.982621E-1	3.017096E-1	2.969144E-1	3.103643E-1	2.907592E-1	4.134582E-1	3.760532E-1	3.804221E-1	3.709334E-1	3.391075E-1	3.472172E-1	3.519248E-1	3.536826E-1	3.276170E-1	3.288618E-1	3.447694E-1	3.405531E-1	3.236007E-1	3.294710E-1	3.110272E-1	3.460538E-1	3.168237E-1	3.489772E-1	3.174051E-1	3.362697E-1	3.341758E-1	3.298058E-1	3.301128E-1	3.404915E-1	3.228657E-1	3.258875E-1	3.163542E-1	3.515458E-1	3.432366E-1	3.318936E-1	3.486471E-1	3.247868E-1	3.209404E-1	3.502604E-1	3.483151E-1	3.239256E-1	3.303105E-1	3.169787E-1	3.100559E-1	3.290508E-1	3.452193E-1	3.103500E-1	3.396202E-1	3.051810E-1	3.090158E-1	3.379517E-1	3.145393E-1	3.315931E-1	3.120284E-1	3.322711E-1	3.377371E-1	3.330858E-1	3.219063E-1	3.407341E-1	3.465705E-1	3.142504E-1	3.330480E-1	3.467879E-1	3.135876E-1	3.446998E-1	3.241575E-1	3.506470E-1	3.407751E-1	3.405583E-1	3.309139E-1	3.142105E-1	3.254602E-1	3.063001E-1	3.208788E-1	3.334158E-1	3.174464E-1	3.182027E-1	3.358818E-1	3.516167E-1	3.278754E-1	3.457351E-1	3.216087E-1	3.141751E-1	3.152561E-1	3.264499E-1	3.315703E-1	3.369135E-1	3.200392E-1	3.151376E-1	3.117397E-1	3.245079E-1	3.633222E-1	3.398151E-1	3.133727E-1	3.004078E-1	3.176499E-1	3.129223E-1	2.880217E-1	3.188558E-1	3.554365E-1	3.114233E-1	3.119697E-1	3.143311E-1	3.226580E-1	3.158200E-1	3.326886E-1	3.229186E-1	3.403031E-1	3.356923E-1	3.423797E-1	3.141932E-1	3.350061E-1	3.019119E-1	3.070466E-1	3.128408E-1	3.374792E-1	3.199063E-1	3.375085E-1	3.348634E-1	3.391952E-1	3.209451E-1	3.440814E-1	3.016310E-1	3.142957E-1	3.048039E-1	3.128731E-1	3.107297E-1	3.114009E-1	3.223204E-1	3.204959E-1	3.310226E-1	3.164502E-1	3.093019E-1	3.015702E-1	2.954624E-1	3.073994E-1	3.406357E-1	3.261046E-1	3.314599E-1	3.276022E-1	3.352127E-1	3.178892E-1	3.250579E-1	3.418786E-1	3.117368E-1	3.319218E-1	3.205811E-1	3.392111E-1	3.263987E-1	3.033066E-1	3.082932E-1	3.228398E-1
5.343600E+2	5.442745E-1	4.950940E-1	5.095206E-1	5.216092E-1	5.147077E-1	5.254243E-1	5.443917E-1	5.136005E-1	4.953904E-1	5.476363E-1	5.622997E-1	5.233570E-1	5.428402E-1	5.176385E-1	5.203132E-1	5.152225E-1	5.323413E-1	5.242915E-1	5.436419E-1	5.490005E-1	5.206331E-1	5.141451E-1	5.397600E-1	5.329076E-1	6.992340E-1	6.163896E-1	6.342719E-1	5.985687E-1	5.910420E-1	5.855151E-1	5.627648E-1	6.077766E-1	5.686952E-1	5.452384E-1	6.098976E-1	5.819716E-1	5.674981E-1	5.982047E-1	5.965568E-1	5.865280E-1	5.600890E-1	5.812975E-1	5.943170E-1	5.843968E-1	5.594249E-1	5.590244E-1	5.623433E-1	5.451589E-1	5.868737E-1	5.668849E-1	5.748399E-1	5.641101E-1	5.240051E-1	5.703390E-1	5.878928E-1	5.553140E-1	5.930156E-1	5.980145E-1	5.561315E-1	6.037689E-1	5.872411E-1	5.827020E-1	5.815637E-1	5.724825E-1	5.650325E-1	5.526166E-1	5.953208E-1	5.834791E-1	5.823031E-1	5.664544E-1	5.734038E-1	5.653419E-1	5.793483E-1	5.726888E-1	5.858284E-1	5.668856E-1	5.673993E-1	5.503981E-1	5.915355E-1	5.652349E-1	5.658363E-1	5.538329E-1	5.702851E-1	5.763790E-1	5.666147E-1	5.604000E-1	5.770902E-1	5.751843E-1	5.720706E-1	5.331598E-1	5.722203E-1	5.896420E-1	5.508622E-1	5.819661E-1	5.547131E-1	5.535873E-1	5.676702E-1	5.795190E-1	5.646631E-1	5.558053E-1	5.408194E-1	5.536389E-1	5.698929E-1	5.649901E-1	5.350474E-1	5.516417E-1	5.705088E-1	5.508392E-1	5.404263E-1	5.411140E-1	5.522408E-1	5.505178E-1	5.744439E-1	5.363914E-1	5.793692E-1	5.383457E-1	5.148875E-1	5.624586E-1	5.641565E-1	5.819312E-1	5.650176E-1	5.864152E-1	5.788730E-1	5.619342E-1	5.803219E-1	5.501940E-1	5.684326E-1	5.611433E-1	5.799367E-1	5.767694E-1	5.645756E-1	5.843298E-1	5.686811E-1	5.617618E-1	5.798942E-1	5.512347E-1	5.396613E-1	5.634196E-1	5.568201E-1	6.044223E-1	5.614617E-1	5.723937E-1	5.397559E-1	5.739471E-1	5.586824E-1	5.368300E-1	5.697941E-1	5.432161E-1	5.813484E-1	5.695263E-1	5.827169E-1	5.718929E-1	5.247413E-1	5.784232E-1	5.743691E-1	5.479213E-1	5.755436E-1	5.368582E-1	5.471195E-1	5.552411E-1	5.679910E-1	5.654692E-1	5.378414E-1	5.211649E-1	5.539241E-1	5.626515E-1	6.006345E-1	5.733634E-1	5.365066E-1	6.027462E-1	5.075572E-1
5.345160E+2	9.257707E-1	8.790773E-1	9.092142E-1	8.960577E-1	8.809564E-1	8.918716E-1	9.136732E-1	9.018693E-1	8.620932E-1	8.949163E-1	8.749025E-1	9.039980E-1	9.168802E-1	8.981251E-1	9.020844E-1	9.550345E-1	8.759390E-1	8.848321E-1	9.135509E-1	9.424152E-1	8.939226E-1	9.037925E-1	9.153274E-1	8.904635E-1	1.031275E+0	9.853582E-1	1.002091E+0	9.621939E-1	9.221682E-1	9.849256E-1	9.441529E-1	9.660579E-1	9.359269E-1	9.290365E-1	9.810389E-1	9.871490E-1	9.391232E-1	8.942808E-1	9.708256E-1	9.891534E-1	9.396793E-1	9.443538E-1	9.826672E-1	9.327241E-1	9.520703E-1	9.413883E-1	9.391952E-1	9.302597E-1	9.305315E-1	9.713471E-1	9.245856E-1	9.661750E-1	9.691488E-1	9.427229E-1	9.611446E-1	9.108527E-1	9.313496E-1	9.479362E-1	9.680979E-1	9.635269E-1	9.443072E-1	9.212419E-1	8.774837E-1	9.156238E-1	9.254061E-1	9.681840E-1	9.444686E-1	9.161729E-1	9.310110E-1	9.243827E-1	9.490178E-1	9.547712E-1	9.297445E-1	9.470985E-1	9.565553E-1	9.493336E-1	9.229184E-1	9.225448E-1	9.538602E-1	9.282836E-1	9.146254E-1	9.256623E-1	9.319383E-1	9.021724E-1	9.048016E-1	9.426073E-1	9.633889E-1	9.345853E-1	8.941600E-1	9.109685E-1	9.248151E-1	9.761925E-1	9.204860E-1	9.165042E-1	9.180707E-1	8.659255E-1	9.535506E-1	9.387570E-1	8.917915E-1	9.194913E-1	9.002082E-1	9.170270E-1	9.590064E-1	9.216654E-1	8.812821E-1	9.022064E-1	9.099623E-1	8.933084E-1	9.316079E-1	9.233622E-1	8.964054E-1	9.248414E-1	9.370572E-1	9.319892E-1	9.098428E-1	8.904002E-1	8.880553E-1	9.247175E-1	9.519643E-1	9.252692E-1	9.260584E-1	8.888265E-1	8.994782E-1	9.271060E-1	9.310983E-1	9.099995E-1	9.427560E-1	9.605178E-1	9.254516E-1	9.548161E-1	9.509661E-1	9.238116E-1	9.359187E-1	9.354319E-1	9.291647E-1	9.122724E-1	8.999977E-1	9.098802E-1	9.222078E-1	9.659874E-1	9.111083E-1	9.216566E-1	9.300991E-1	9.109142E-1	9.200309E-1	9.036983E-1	9.003282E-1	9.386099E-1	8.961931E-1	9.095581E-1	9.487904E-1	9.846555E-1	9.193503E-1	8.933923E-1	9.388614E-1	9.578857E-1	9.150225E-1	9.275849E-1	9.545094E-1	9.398560E-1	9.179817E-1	9.106203E-1	9.677539E-1	9.812202E-1	8.956823E-1	8.915512E-1	9.913267E-1	9.227706E-1	8.970464E-1	9.308921E-1	9.428745E-1
5.346560E+2	1.316141E+0	1.265343E+0	1.257854E+0	1.264617E+0	1.315768E+0	1.274233E+0	1.285239E+0	1.263802E+0	1.224087E+0	1.266569E+0	1.309531E+0	1.307442E+0	1.241470E+0	1.241778E+0	1.294554E+0	1.301300E+0	1.287161E+0	1.257294E+0	1.264163E+0	1.251265E+0	1.281800E+0	1.232880E+0	1.310014E+0	1.278061E+0	1.369254E+0	1.330808E+0	1.363294E+0	1.327074E+0	1.321167E+0	1.239032E+0	1.325496E+0	1.348724E+0	1.316566E+0	1.373829E+0	1.380271E+0	1.349184E+0	1.315314E+0	1.304331E+0	1.352692E+0	1.297867E+0	1.317336E+0	1.318112E+0	1.353179E+0	1.372816E+0	1.310428E+0	1.308892E+0	1.306273E+0	1.284594E+0	1.280362E+0	1.340486E+0	1.271405E+0	1.314450E+0	1.295986E+0	1.319212E+0	1.329881E+0	1.310400E+0	1.285631E+0	1.266930E+0	1.322659E+0	1.332664E+0	1.267923E+0	1.290684E+0	1.273684E+0	1.305783E+0	1.299514E+0	1.343857E+0	1.302702E+0	1.330579E+0	1.274419E+0	1.284408E+0	1.285724E+0	1.303325E+0	1.356145E+0	1.286195E+0	1.324350E+0	1.340178E+0	1.316614E+0	1.318061E+0	1.276817E+0	1.269168E+0	1.283620E+0	1.250062E+0	1.272466E+0	1.305070E+0	1.281065E+0	1.276967E+0	1.350120E+0	1.314058E+0	1.258301E+0	1.305862E+0	1.286322E+0	1.271362E+0	1.337694E+0	1.279191E+0	1.274262E+0	1.299152E+0	1.338842E+0	1.318544E+0	1.310977E+0	1.316564E+0	1.248363E+0	1.345350E+0	1.313519E+0	1.263991E+0	1.306177E+0	1.311302E+0	1.294399E+0	1.208749E+0	1.288529E+0	1.287157E+0	1.307344E+0	1.323835E+0	1.299904E+0	1.301611E+0	1.248455E+0	1.312565E+0	1.282777E+0	1.316113E+0	1.331159E+0	1.296779E+0	1.267498E+0	1.247128E+0	1.337333E+0	1.293945E+0	1.265757E+0	1.288980E+0	1.278041E+0	1.348163E+0	1.289060E+0	1.289437E+0	1.273271E+0	1.287559E+0	1.287179E+0	1.296570E+0	1.344511E+0	1.250631E+0	1.219795E+0	1.227565E+0	1.292755E+0	1.330555E+0	1.264691E+0	1.282284E+0	1.315520E+0	1.254533E+0	1.306099E+0	1.326374E+0	1.275470E+0	1.309077E+0	1.276082E+0	1.282107E+0	1.351452E+0	1.307880E+0	1.253258E+0	1.261804E+0	1.276554E+0	1.328950E+0	1.302810E+0	1.298024E+0	1.298216E+0	1.262872E+0	1.238067E+0	1.277854E+0	1.275120E+0	1.266671E+0	1.242064E+0	1.276335E+0	1.307399E+0	1.263920E+0	1.288007E+0	1.282842E+0	1.215223E+0
5.348120E+2	1.715599E+0	1.612068E+0	1.637762E+0	1.663623E+0	1.641838E+0	1.581799E+0	1.591157E+0	1.572973E+0	1.656406E+0	1.611719E+0	1.604370E+0	1.655209E+0	1.638511E+0	1.608176E+0	1.674325E+0	1.666078E+0	1.621757E+0	1.617684E+0	1.699791E+0	1.668297E+0	1.664448E+0	1.561740E+0	1.637632E+0	1.572742E+0	1.632997E+0	1.622426E+0	1.641276E+0	1.660523E+0	1.685376E+0	1.619543E+0	1.644431E+0	1.676765E+0	1.580811E+0	1.650721E+0	1.644180E+0	1.727527E+0	1.621475E+0	1.635146E+0	1.695869E+0	1.626984E+0	1.674280E+0	1.651621E+0	1.666228E+0	1.670873E+0	1.660318E+0	1.603707E+0	1.671239E+0	1.604576E+0	1.611562E+0	1.668014E+0	1.665045E+0	1.723015E+0	1.615708E+0	1.650142E+0	1.720799E+0	1.638384E+0	1.583737E+0	1.655636E+0	1.619789E+0	1.674442E+0	1.572335E+0	1.620699E+0	1.579952E+0	1.655484E+0	1.602031E+0	1.602062E+0	1.569467E+0	1.612079E+0	1.609845E+0	1.639229E+0	1.645910E+0	1.620916E+0	1.660808E+0	1.588187E+0	1.664781E+0	1.669937E+0	1.647865E+0	1.581774E+0	1.605728E+0	1.566408E+0	1.612918E+0	1.593703E+0	1.602262E+0	1.679791E+0	1.589498E+0	1.574562E+0	1.616603E+0	1.679381E+0	1.564782E+0	1.612083E+0	1.619572E+0	1.668829E+0	1.652968E+0	1.606233E+0	1.629399E+0	1.609885E+0	1.580695E+0	1.643353E+0	1.563838E+0	1.640238E+0	1.572794E+0	1.661407E+0	1.632064E+0	1.694188E+0	1.615668E+0	1.645612E+0	1.633856E+0	1.599242E+0	1.553243E+0	1.565323E+0	1.652545E+0	1.602480E+0	1.634541E+0	1.568678E+0	1.660820E+0	1.627263E+0	1.593694E+0	1.671044E+0	1.694290E+0	1.617784E+0	1.595674E+0	1.588968E+0	1.669654E+0	1.607183E+0	1.563961E+0	1.566099E+0	1.586543E+0	1.650355E+0	1.671726E+0	1.614269E+0	1.663735E+0	1.605701E+0	1.596914E+0	1.568715E+0	1.625372E+0	1.646918E+0	1.640005E+0	1.613321E+0	1.641673E+0	1.662559E+0	1.551300E+0	1.568459E+0	1.612272E+0	1.607070E+0	1.597698E+0	1.650872E+0	1.587363E+0	1.631462E+0	1.529971E+0	1.599001E+0	1.669785E+0	1.689735E+0	1.505427E+0	1.653833E+0	1.648654E+0	1.605006E+0	1.578752E+0	1.543582E+0	1.652367E+0	1.594499E+0	1.532690E+0	1.556304E+0	1.610320E+0	1.599694E+0	1.525645E+0	1.594360E+0	1.700668E+0	1.596173E+0	1.523913E+0	1.571680E+0	1.599621E+0
5.349580E+2	1.958166E+0	1.897957E+0	1.986610E+0	1.882558E+0	1.884877E+0	1.893198E+0	1.907359E+0	1.937537E+0	1.827608E+0	1.869903E+0	1.917206E+0	2.009681E+0	1.960360E+0	1.931112E+0	1.912242E+0	2.012063E+0	1.944882E+0	1.824293E+0	1.941574E+0	1.922542E+0	1.887465E+0	1.829731E+0	1.951602E+0	1.944982E+0	1.835339E+0	1.860988E+0	1.958950E+0	1.920635E+0	1.920269E+0	1.885669E+0	1.844865E+0	1.927851E+0	1.895915E+0	1.925657E+0	1.840278E+0	1.924294E+0	1.907828E+0	1.831969E+0	1.939864E+0	1.899048E+0	1.928257E+0	1.934950E+0	1.899994E+0	1.884725E+0	1.914704E+0	1.904259E+0	1.900844E+0	1.890837E+0	1.899313E+0	1.952012E+0	1.885438E+0	1.921962E+0	1.857679E+0	1.896285E+0	1.971976E+0	1.904910E+0	1.898149E+0	1.904276E+0	1.910204E+0	1.912162E+0	1.909039E+0	1.880896E+0	1.885791E+0	1.899244E+0	1.911103E+0	1.942962E+0	1.873278E+0	1.877011E+0	1.896834E+0	1.868228E+0	1.977754E+0	1.842433E+0	1.954734E+0	1.864198E+0	1.929706E+0	1.985183E+0	1.893677E+0	1.868530E+0	1.909121E+0	1.908491E+0	1.844858E+0	1.848102E+0	1.877232E+0	1.871001E+0	1.876510E+0	1.877088E+0	1.884271E+0	1.910583E+0	1.800418E+0	1.857725E+0	1.869580E+0	1.940064E+0	1.881720E+0	1.926555E+0	1.855148E+0	1.842861E+0	1.854389E+0	2.009657E+0	1.868717E+0	1.956792E+0	1.794023E+0	1.952897E+0	1.902679E+0	1.866140E+0	1.786333E+0	1.872925E+0	1.885207E+0	1.841900E+0	1.921644E+0	1.894590E+0	1.864434E+0	1.904944E+0	1.843781E+0	1.753010E+0	1.901069E+0	1.861328E+0	1.840431E+0	1.945321E+0	1.833521E+0	1.907091E+0	1.816603E+0	1.852243E+0	1.972085E+0	1.891107E+0	1.863812E+0	1.838838E+0	1.902905E+0	1.924196E+0	1.924106E+0	1.881782E+0	1.819622E+0	1.882825E+0	1.901443E+0	1.887790E+0	1.917560E+0	1.884283E+0	1.817310E+0	1.806548E+0	1.913041E+0	1.908819E+0	1.888135E+0	1.788391E+0	1.885064E+0	1.797272E+0	1.829946E+0	1.917366E+0	1.842197E+0	1.826038E+0	1.844304E+0	1.844435E+0	1.942148E+0	1.882443E+0	1.859906E+0	1.895492E+0	1.820151E+0	1.856680E+0	1.843444E+0	1.836146E+0	1.875094E+0	1.822484E+0	1.782723E+0	1.881507E+0	1.840442E+0	1.898410E+0	1.799135E+0	1.885380E+0	1.853146E+0	1.842359E+0	1.810897E+0	1.962302E+0	1.706341E+0
5.351090E+2	2.044882E+0	1.934532E+0	2.012856E+0	1.977423E+0	1.965540E+0	2.017733E+0	1.989198E+0	2.034869E+0	1.902550E+0	1.977371E+0	1.962007E+0	2.041068E+0	2.012532E+0	2.005187E+0	2.025059E+0	1.981843E+0	1.967466E+0	1.930706E+0	2.016958E+0	1.994142E+0	1.932212E+0	1.916062E+0	2.001366E+0	2.008422E+0	1.954023E+0	1.914877E+0	1.913990E+0	1.932282E+0	1.904844E+0	1.905105E+0	1.884777E+0	1.951358E+0	1.967777E+0	2.005593E+0	2.037515E+0	1.960031E+0	1.924599E+0	1.910183E+0	2.033408E+0	1.925814E+0	1.909882E+0	1.999861E+0	1.933794E+0	1.983926E+0	1.942124E+0	1.921180E+0	1.939180E+0	1.941599E+0	1.939855E+0	1.940309E+0	1.932661E+0	2.013800E+0	1.928373E+0	1.954087E+0	2.024490E+0	1.916712E+0	1.900781E+0	1.907426E+0	2.019370E+0	1.977347E+0	1.856215E+0	1.953910E+0	1.930097E+0	1.951987E+0	1.935570E+0	1.972308E+0	1.932595E+0	1.949111E+0	1.965015E+0	1.911606E+0	1.927888E+0	1.947931E+0	1.914978E+0	1.924777E+0	1.972879E+0	1.990216E+0	1.956833E+0	1.925512E+0	1.925978E+0	1.964866E+0	1.916642E+0	1.864642E+0	1.945869E+0	1.982391E+0	1.893891E+0	1.939109E+0	1.922518E+0	2.022068E+0	1.939953E+0	1.883201E+0	1.867840E+0	1.965019E+0	1.959812E+0	1.965049E+0	1.903157E+0	1.945504E+0	1.956669E+0	1.983378E+0	1.914214E+0	1.901017E+0	1.874866E+0	1.974915E+0	1.861872E+0	1.978906E+0	1.931371E+0	1.972711E+0	1.985885E+0	1.950828E+0	1.990689E+0	1.957794E+0	1.986085E+0	1.962546E+0	2.055688E+0	1.886858E+0	2.003030E+0	1.996817E+0	1.963837E+0	1.943529E+0	1.979382E+0	1.975048E+0	1.935562E+0	1.931517E+0	2.015913E+0	1.962864E+0	1.981199E+0	1.933229E+0	1.973648E+0	1.967181E+0	2.003075E+0	1.943964E+0	1.930652E+0	2.088325E+0	1.989633E+0	1.871451E+0	1.973156E+0	1.944085E+0	1.941839E+0	1.909525E+0	1.944577E+0	1.966826E+0	1.851659E+0	1.944115E+0	2.013358E+0	1.932577E+0	1.894349E+0	2.027973E+0	1.955702E+0	2.032294E+0	1.980686E+0	1.895378E+0	2.057027E+0	2.012420E+0	1.937357E+0	2.007304E+0	1.960981E+0	1.942105E+0	1.984243E+0	1.997531E+0	1.946106E+0	1.993841E+0	1.943650E+0	1.911036E+0	1.973482E+0	1.992368E+0	1.908740E+0	1.911949E+0	2.000045E+0	1.933319E+0	1.806476E+0	1.947705E+0	1.742200E+0
5.352600E+2	1.993933E+0	1.865901E+0	1.888156E+0	1.896927E+0	1.912821E+0	1.873634E+0	1.850686E+0	2.002873E+0	1.866732E+0	1.905216E+0	1.895767E+0	1.953040E+0	1.920112E+0	1.936994E+0	1.887263E+0	1.907672E+0	1.902330E+0	1.787970E+0	1.944705E+0	1.969280E+0	1.886301E+0	1.857200E+0	1.929160E+0	1.956703E+0	1.793262E+0	1.852798E+0	1.889713E+0	1.787149E+0	1.820009E+0	1.813238E+0	1.866741E+0	1.866076E+0	1.866778E+0	1.880098E+0	1.880157E+0	1.847488E+0	1.847027E+0	1.826203E+0	1.884112E+0	1.903354E+0	1.921278E+0	1.878532E+0	1.896885E+0	1.825942E+0	1.862816E+0	1.878353E+0	1.864672E+0	1.869854E+0	1.864172E+0	1.878781E+0	1.819912E+0	1.917480E+0	1.838318E+0	1.848357E+0	1.903666E+0	1.867524E+0	1.813174E+0	1.822034E+0	1.849663E+0	1.874800E+0	1.821063E+0	1.832585E+0	1.817962E+0	1.901961E+0	1.905148E+0	1.843686E+0	1.844833E+0	1.836299E+0	1.862740E+0	1.808691E+0	1.890652E+0	1.906485E+0	1.876312E+0	1.877060E+0	1.897752E+0	1.927492E+0	1.813323E+0	1.806334E+0	1.772998E+0	1.847064E+0	1.846757E+0	1.878370E+0	1.848515E+0	1.855285E+0	1.838966E+0	1.838600E+0	1.849448E+0	1.859750E+0	1.808627E+0	1.863006E+0	1.873238E+0	1.920335E+0	1.799538E+0	1.825752E+0	1.837655E+0	1.849717E+0	1.900016E+0	1.843547E+0	1.857438E+0	1.865405E+0	1.770886E+0	1.911383E+0	1.819760E+0	1.831142E+0	1.862205E+0	1.784297E+0	1.827122E+0	1.860101E+0	1.813822E+0	1.818558E+0	1.819228E+0	1.891305E+0	1.834062E+0	1.770418E+0	1.763139E+0	1.892790E+0	1.788115E+0	1.860958E+0	1.862394E+0	1.849348E+0	1.766052E+0	1.808968E+0	1.847748E+0	1.843034E+0	1.782266E+0	1.810029E+0	1.794087E+0	1.829719E+0	1.811471E+0	1.854791E+0	1.910531E+0	1.889723E+0	1.873282E+0	1.814039E+0	1.819106E+0	1.809694E+0	1.773779E+0	1.762730E+0	1.769530E+0	1.894307E+0	1.843617E+0	1.786112E+0	1.836615E+0	1.764635E+0	1.780444E+0	1.899065E+0	1.817841E+0	1.832235E+0	1.852693E+0	1.843709E+0	1.908116E+0	1.856513E+0	1.735578E+0	1.830007E+0	1.813641E+0	1.836689E+0	1.796927E+0	1.823376E+0	1.843495E+0	1.826126E+0	1.807344E+0	1.817587E+0	1.799036E+0	1.852269E+0	1.767993E+0	1.797561E+0	1.815982E+0	1.823675E+0	1.686774E+0	1.762735E+0	1.781152E+0
5.354010E+2	1.706502E+0	1.621218E+0	1.677050E+0	1.658010E+0	1.628578E+0	1.694092E+0	1.639097E+0	1.583361E+0	1.615823E+0	1.675285E+0	1.662905E+0	1.699355E+0	1.633736E+0	1.624786E+0	1.662467E+0	1.736029E+0	1.673297E+0	1.609176E+0	1.697388E+0	1.630796E+0	1.680617E+0	1.590540E+0	1.674706E+0	1.675927E+0	1.601955E+0	1.607454E+0	1.631711E+0	1.566852E+0	1.592567E+0	1.572536E+0	1.550876E+0	1.662517E+0	1.615290E+0	1.603868E+0	1.623128E+0	1.624137E+0	1.618524E+0	1.593430E+0	1.651565E+0	1.574494E+0	1.636058E+0	1.627760E+0	1.629910E+0	1.602093E+0	1.647548E+0	1.637522E+0	1.674745E+0	1.640221E+0	1.647744E+0	1.688684E+0	1.637575E+0	1.620373E+0	1.604211E+0	1.602368E+0	1.661215E+0	1.631972E+0	1.574799E+0	1.595566E+0	1.596399E+0	1.668625E+0	1.578535E+0	1.629503E+0	1.547781E+0	1.631649E+0	1.643296E+0	1.635216E+0	1.568453E+0	1.614453E+0	1.603209E+0	1.654383E+0	1.642952E+0	1.615199E+0	1.567889E+0	1.568931E+0	1.663789E+0	1.719035E+0	1.625662E+0	1.594503E+0	1.615696E+0	1.636974E+0	1.614174E+0	1.619091E+0	1.592469E+0	1.625052E+0	1.563264E+0	1.593061E+0	1.527242E+0	1.646867E+0	1.582266E+0	1.556925E+0	1.616499E+0	1.619105E+0	1.646738E+0	1.609894E+0	1.649971E+0	1.612158E+0	1.637185E+0	1.662542E+0	1.613116E+0	1.651813E+0	1.564818E+0	1.580452E+0	1.625631E+0	1.618432E+0	1.604185E+0	1.603724E+0	1.607162E+0	1.590395E+0	1.606695E+0	1.586652E+0	1.599982E+0	1.672737E+0	1.637865E+0	1.524517E+0	1.591464E+0	1.682435E+0	1.572226E+0	1.598051E+0	1.566799E+0	1.594526E+0	1.563457E+0	1.601278E+0	1.588348E+0	1.629698E+0	1.564431E+0	1.553520E+0	1.574675E+0	1.601479E+0	1.616935E+0	1.572465E+0	1.634052E+0	1.628042E+0	1.664562E+0	1.575975E+0	1.615186E+0	1.625751E+0	1.569855E+0	1.548470E+0	1.609950E+0	1.649909E+0	1.640243E+0	1.578277E+0	1.540710E+0	1.552725E+0	1.584498E+0	1.633430E+0	1.623458E+0	1.621431E+0	1.615865E+0	1.601777E+0	1.604627E+0	1.698713E+0	1.541182E+0	1.663363E+0	1.626342E+0	1.612431E+0	1.647296E+0	1.598113E+0	1.624595E+0	1.605683E+0	1.579348E+0	1.554168E+0	1.577219E+0	1.554507E+0	1.547907E+0	1.543649E+0	1.648967E+0	1.555688E+0	1.515212E+0	1.719253E+0	1.612228E+0
5.355580E+2	1.407733E+0	1.445012E+0	1.452018E+0	1.406477E+0	1.356819E+0	1.384854E+0	1.430305E+0	1.479475E+0	1.392868E+0	1.428921E+0	1.428198E+0	1.450501E+0	1.392794E+0	1.443420E+0	1.408845E+0	1.470219E+0	1.429005E+0	1.450740E+0	1.394822E+0	1.485641E+0	1.422079E+0	1.403126E+0	1.464934E+0	1.413031E+0	1.404965E+0	1.317834E+0	1.423954E+0	1.431160E+0	1.425297E+0	1.392003E+0	1.357792E+0	1.429172E+0	1.383312E+0	1.400704E+0	1.403166E+0	1.421151E+0	1.428903E+0	1.345237E+0	1.466436E+0	1.372920E+0	1.426867E+0	1.385416E+0	1.402866E+0	1.376740E+0	1.392627E+0	1.385185E+0	1.445785E+0	1.409375E+0	1.396757E+0	1.421879E+0	1.354624E+0	1.440992E+0	1.347620E+0	1.433505E+0	1.405963E+0	1.474731E+0	1.330704E+0	1.417529E+0	1.469996E+0	1.431397E+0	1.404163E+0	1.365982E+0	1.388531E+0	1.390085E+0	1.421683E+0	1.383625E+0	1.393737E+0	1.405769E+0	1.397789E+0	1.383650E+0	1.398386E+0	1.395079E+0	1.396648E+0	1.416815E+0	1.431155E+0	1.496550E+0	1.421257E+0	1.410085E+0	1.401842E+0	1.399009E+0	1.388101E+0	1.382065E+0	1.338090E+0	1.415897E+0	1.383357E+0	1.383403E+0	1.383137E+0	1.421093E+0	1.431852E+0	1.405002E+0	1.390562E+0	1.440223E+0	1.399461E+0	1.459018E+0	1.384455E+0	1.393166E+0	1.386993E+0	1.431271E+0	1.356667E+0	1.508690E+0	1.382642E+0	1.417220E+0	1.438622E+0	1.372050E+0	1.414432E+0	1.416007E+0	1.356033E+0	1.342104E+0	1.363493E+0	1.367900E+0	1.377592E+0	1.418669E+0	1.377543E+0	1.403776E+0	1.377817E+0	1.299264E+0	1.408209E+0	1.437968E+0	1.418517E+0	1.428346E+0	1.377983E+0	1.394971E+0	1.340934E+0	1.427213E+0	1.336583E+0	1.406134E+0	1.405680E+0	1.400187E+0	1.434964E+0	1.410731E+0	1.408035E+0	1.506983E+0	1.357096E+0	1.347703E+0	1.411672E+0	1.373224E+0	1.347087E+0	1.383664E+0	1.364995E+0	1.531383E+0	1.432140E+0	1.342795E+0	1.381268E+0	1.368688E+0	1.318775E+0	1.476958E+0	1.401669E+0	1.401583E+0	1.344172E+0	1.432105E+0	1.415097E+0	1.428497E+0	1.332268E+0	1.435191E+0	1.371953E+0	1.436866E+0	1.448137E+0	1.397990E+0	1.372218E+0	1.423555E+0	1.359835E+0	1.405454E+0	1.369689E+0	1.458449E+0	1.346494E+0	1.402531E+0	1.392741E+0	1.491238E+0	1.349155E+0	1.376717E+0	1.474515E+0
5.357090E+2	1.315879E+0	1.190715E+0	1.225196E+0	1.203164E+0	1.204532E+0	1.225257E+0	1.195190E+0	1.229102E+0	1.174975E+0	1.155392E+0	1.196284E+0	1.173039E+0	1.192982E+0	1.211192E+0	1.231017E+0	1.253184E+0	1.253471E+0	1.194056E+0	1.226994E+0	1.234731E+0	1.207640E+0	1.157458E+0	1.241079E+0	1.208355E+0	1.185688E+0	1.163946E+0	1.209110E+0	1.186737E+0	1.158680E+0	1.180976E+0	1.225989E+0	1.169096E+0	1.192257E+0	1.211033E+0	1.246292E+0	1.193321E+0	1.166851E+0	1.141644E+0	1.185075E+0	1.176483E+0	1.158599E+0	1.212940E+0	1.219775E+0	1.197448E+0	1.206103E+0	1.179236E+0	1.215499E+0	1.209847E+0	1.185329E+0	1.224904E+0	1.214693E+0	1.188876E+0	1.167829E+0	1.210107E+0	1.181370E+0	1.191956E+0	1.208663E+0	1.191680E+0	1.196028E+0	1.308086E+0	1.174711E+0	1.191838E+0	1.214871E+0	1.245837E+0	1.216666E+0	1.245246E+0	1.194950E+0	1.213517E+0	1.167575E+0	1.168710E+0	1.220114E+0	1.219098E+0	1.221670E+0	1.206103E+0	1.264884E+0	1.234547E+0	1.234049E+0	1.165213E+0	1.222751E+0	1.200830E+0	1.212369E+0	1.177175E+0	1.176375E+0	1.214783E+0	1.197573E+0	1.206289E+0	1.188077E+0	1.252377E+0	1.190288E+0	1.181676E+0	1.162773E+0	1.252933E+0	1.222994E+0	1.173009E+0	1.190943E+0	1.212688E+0	1.162406E+0	1.266148E+0	1.189108E+0	1.277359E+0	1.201916E+0	1.184738E+0	1.230529E+0	1.181260E+0	1.203818E+0	1.218676E+0	1.197130E+0	1.225840E+0	1.200577E+0	1.153767E+0	1.194025E+0	1.194110E+0	1.199247E+0	1.164713E+0	1.236947E+0	1.170895E+0	1.155933E+0	1.216943E+0	1.208172E+0	1.169385E+0	1.194448E+0	1.136975E+0	1.182304E+0	1.225970E+0	1.139419E+0	1.181515E+0	1.194077E+0	1.200728E+0	1.220332E+0	1.215330E+0	1.248428E+0	1.204702E+0	1.228059E+0	1.168429E+0	1.196591E+0	1.216786E+0	1.186182E+0	1.176931E+0	1.191530E+0	1.217899E+0	1.215636E+0	1.159966E+0	1.219221E+0	1.191502E+0	1.172190E+0	1.214350E+0	1.208642E+0	1.220983E+0	1.189985E+0	1.196646E+0	1.184882E+0	1.243877E+0	1.194916E+0	1.233658E+0	1.175775E+0	1.218845E+0	1.189028E+0	1.180741E+0	1.179064E+0	1.199539E+0	1.177080E+0	1.189022E+0	1.170079E+0	1.195244E+0	1.179487E+0	1.208815E+0	1.215690E+0	1.269515E+0	1.153383E+0	1.181618E+0	1.241252E+0
5.358650E+2	1.065003E+0	1.099563E+0	1.084384E+0	1.009715E+0	1.038378E+0	1.040457E+0	1.051441E+0	1.055177E+0	1.057828E+0	1.074420E+0	1.069101E+0	1.124480E+0	1.065571E+0	1.057461E+0	1.075054E+0	1.050254E+0	1.015739E+0	1.075255E+0	1.064347E+0	1.053577E+0	1.035693E+0	1.024967E+0	1.089544E+0	1.081998E+0	1.057182E+0	9.922941E-1	1.051904E+0	1.062666E+0	1.065499E+0	1.022538E+0	1.049309E+0	1.044837E+0	1.072343E+0	1.087438E+0	1.029270E+0	1.050794E+0	1.008559E+0	9.931304E-1	1.015973E+0	1.085094E+0	1.091359E+0	1.048330E+0	1.073802E+0	1.048645E+0	1.055875E+0	1.060335E+0	1.071287E+0	1.043328E+0	9.925458E-1	1.019681E+0	9.975812E-1	1.076669E+0	1.000896E+0	1.043093E+0	1.054955E+0	1.066612E+0	1.023299E+0	1.061828E+0	1.080344E+0	1.040725E+0	1.046287E+0	1.059234E+0	9.879584E-1	1.029841E+0	1.032435E+0	1.072000E+0	1.025094E+0	1.006281E+0	1.033352E+0	1.027603E+0	1.025042E+0	1.003466E+0	1.037870E+0	1.049382E+0	1.035544E+0	1.081199E+0	1.034001E+0	1.032428E+0	1.037170E+0	1.048071E+0	1.096349E+0	1.005888E+0	1.035362E+0	1.069345E+0	1.022719E+0	1.024336E+0	1.046215E+0	1.048768E+0	1.058907E+0	1.013346E+0	9.918064E-1	1.055332E+0	1.007366E+0	1.048405E+0	1.062529E+0	1.028905E+0	1.052475E+0	1.081730E+0	1.010767E+0	1.049072E+0	1.046560E+0	1.045162E+0	1.044973E+0	1.057300E+0	1.050405E+0	1.028794E+0	1.046970E+0	9.898608E-1	1.006046E+0	1.058394E+0	1.053801E+0	1.055883E+0	1.034005E+0	1.039880E+0	1.071127E+0	1.069013E+0	1.022985E+0	1.070863E+0	1.026411E+0	1.061341E+0	1.054811E+0	1.083713E+0	1.050421E+0	1.036188E+0	1.008456E+0	1.019323E+0	1.051462E+0	1.023721E+0	1.051489E+0	1.035446E+0	1.038239E+0	1.115437E+0	1.078771E+0	1.036754E+0	1.046001E+0	1.060006E+0	1.054546E+0	1.007813E+0	1.046905E+0	1.075709E+0	1.025595E+0	1.008729E+0	1.032346E+0	1.033477E+0	1.041998E+0	1.046727E+0	1.059880E+0	1.020242E+0	1.041256E+0	1.010024E+0	1.053442E+0	1.093530E+0	9.900955E-1	1.036764E+0	1.036083E+0	1.042630E+0	1.016134E+0	1.072557E+0	1.034010E+0	1.033029E+0	9.979033E-1	1.051659E+0	1.062162E+0	1.028171E+0	1.021469E+0	1.076784E+0	1.042884E+0	1.060176E+0	1.017372E+0	1.010292E+0	9.773998E-1
5.360070E+2	9.276068E-1	9.029279E-1	9.368994E-1	8.822733E-1	8.960486E-1	9.090569E-1	8.868201E-1	8.946801E-1	8.529030E-1	8.864718E-1	9.052292E-1	8.732172E-1	8.952684E-1	9.044744E-1	9.154406E-1	9.357763E-1	8.975713E-1	8.978187E-1	9.254046E-1	8.774501E-1	9.060363E-1	8.800162E-1	9.153124E-1	9.070893E-1	8.553266E-1	8.697354E-1	9.032310E-1	8.844865E-1	8.808714E-1	9.336010E-1	8.727905E-1	8.634746E-1	9.060673E-1	9.005071E-1	8.601983E-1	9.010847E-1	8.649618E-1	9.161036E-1	9.180683E-1	8.861092E-1	8.812390E-1	9.167841E-1	8.856207E-1	8.839842E-1	9.245750E-1	8.794961E-1	9.189907E-1	8.941078E-1	8.978371E-1	8.895285E-1	8.928144E-1	8.812178E-1	8.876985E-1	9.006069E-1	9.345817E-1	8.989546E-1	8.951393E-1	8.690746E-1	8.709355E-1	8.910344E-1	8.365170E-1	9.002663E-1	8.786002E-1	9.065712E-1	8.971840E-1	8.772339E-1	9.104027E-1	8.829708E-1	8.948719E-1	8.958102E-1	8.786459E-1	8.943604E-1	8.966694E-1	8.873744E-1	8.952832E-1	9.088840E-1	9.005122E-1	8.536351E-1	8.628628E-1	8.941303E-1	8.774824E-1	9.206143E-1	9.198138E-1	8.850444E-1	8.665517E-1	8.737844E-1	8.782993E-1	8.995672E-1	9.090348E-1	8.621920E-1	8.897183E-1	9.097504E-1	9.055771E-1	9.063249E-1	8.471403E-1	8.892400E-1	9.106060E-1	9.384358E-1	9.032179E-1	8.799934E-1	8.893436E-1	8.860884E-1	8.860774E-1	8.856635E-1	8.699223E-1	8.720932E-1	9.042694E-1	8.747644E-1	8.975835E-1	9.287257E-1	8.864553E-1	9.082510E-1	9.198609E-1	9.024602E-1	8.783064E-1	8.964142E-1	8.973774E-1	9.177248E-1	8.790987E-1	8.848595E-1	8.974766E-1	8.901184E-1	9.170146E-1	8.835578E-1	8.872923E-1	8.687436E-1	9.217855E-1	8.946614E-1	9.093796E-1	9.134597E-1	8.856370E-1	9.141387E-1	9.658143E-1	8.850287E-1	8.841787E-1	8.912956E-1	9.263676E-1	8.976277E-1	8.877906E-1	8.969325E-1	8.969148E-1	8.290100E-1	9.054809E-1	8.748007E-1	8.902619E-1	9.465069E-1	8.842249E-1	8.810030E-1	8.631258E-1	9.061413E-1	8.960713E-1	8.912973E-1	8.709323E-1	8.973249E-1	8.982554E-1	8.681344E-1	8.623841E-1	8.715444E-1	8.927101E-1	8.901171E-1	9.374586E-1	8.999518E-1	9.364535E-1	9.336257E-1	9.048737E-1	8.654270E-1	9.508633E-1	9.027395E-1	8.907217E-1	8.859269E-1	8.669116E-1
5.362680E+2	7.146934E-1	6.750137E-1	6.561248E-1	6.705850E-1	6.975139E-1	6.706662E-1	6.821267E-1	7.123960E-1	6.708575E-1	7.158379E-1	7.153565E-1	6.978015E-1	6.872964E-1	7.047003E-1	6.884186E-1	7.252174E-1	6.940180E-1	6.613816E-1	6.730654E-1	6.983181E-1	6.989916E-1	6.563647E-1	6.907154E-1	6.786321E-1	6.927746E-1	6.649653E-1	6.870769E-1	7.046319E-1	6.886483E-1	6.707050E-1	6.884229E-1	6.902153E-1	7.134252E-1	6.787025E-1	6.774790E-1	7.252981E-1	6.992834E-1	6.594417E-1	7.128458E-1	7.076541E-1	7.300632E-1	6.845820E-1	6.920329E-1	7.005773E-1	6.946664E-1	6.708698E-1	6.997492E-1	6.805748E-1	6.854764E-1	7.381782E-1	6.863174E-1	6.618442E-1	6.648582E-1	6.639294E-1	6.929218E-1	6.981839E-1	6.731789E-1	6.972774E-1	7.489440E-1	6.751810E-1	6.565245E-1	7.085229E-1	6.984547E-1	7.199957E-1	7.040702E-1	7.196205E-1	6.592970E-1	6.789249E-1	6.912779E-1	6.833854E-1	7.158681E-1	6.645696E-1	6.889671E-1	6.581200E-1	7.377621E-1	6.929681E-1	6.638158E-1	7.138953E-1	7.048287E-1	7.159317E-1	6.837670E-1	6.759613E-1	6.890570E-1	6.847367E-1	6.607268E-1	7.207326E-1	6.800841E-1	6.878234E-1	6.809855E-1	6.965885E-1	7.075997E-1	6.835231E-1	6.737881E-1	7.073004E-1	6.927285E-1	6.795694E-1	6.993006E-1	7.403478E-1	7.019234E-1	6.873187E-1	6.834147E-1	6.720016E-1	7.198696E-1	7.013559E-1	7.120874E-1	6.825543E-1	7.341001E-1	6.781075E-1	6.838245E-1	6.801659E-1	6.900250E-1	7.477670E-1	7.003648E-1	6.809011E-1	6.966781E-1	6.886764E-1	6.976548E-1	6.914614E-1	6.819362E-1	7.252601E-1	6.848885E-1	7.094981E-1	6.959138E-1	7.174212E-1	6.993061E-1	7.007764E-1	6.877634E-1	7.200943E-1	7.272691E-1	6.528081E-1	7.154133E-1	6.865960E-1	7.000340E-1	6.953041E-1	7.214730E-1	6.948507E-1	7.116361E-1	6.883059E-1	7.110362E-1	7.054704E-1	7.228553E-1	6.777765E-1	7.169457E-1	6.770169E-1	6.944457E-1	7.235639E-1	6.959001E-1	6.890684E-1	6.988694E-1	6.799076E-1	7.232120E-1	7.343491E-1	7.032627E-1	7.082297E-1	7.009805E-1	6.940747E-1	7.200964E-1	7.137020E-1	7.287045E-1	6.864352E-1	6.811592E-1	6.939068E-1	6.985023E-1	7.002234E-1	7.044093E-1	7.028001E-1	7.099575E-1	7.077876E-1	6.768612E-1	6.857006E-1	6.671577E-1
5.365140E+2	5.571464E-1	5.465699E-1	5.742155E-1	5.193944E-1	5.418668E-1	5.540646E-1	5.673272E-1	5.661512E-1	5.307938E-1	5.458179E-1	5.385542E-1	5.427066E-1	5.374745E-1	5.339579E-1	5.461628E-1	5.583860E-1	5.717834E-1	5.391731E-1	5.488598E-1	5.431650E-1	5.471899E-1	5.175832E-1	5.566293E-1	5.332385E-1	5.717543E-1	5.372705E-1	5.912800E-1	5.483261E-1	5.631137E-1	5.721679E-1	5.481182E-1	5.514173E-1	5.705588E-1	5.506218E-1	5.725754E-1	5.466853E-1	5.224338E-1	5.160084E-1	5.363224E-1	5.472989E-1	5.663546E-1	5.239729E-1	5.563146E-1	5.655312E-1	5.632172E-1	5.393250E-1	5.694193E-1	5.588391E-1	5.265409E-1	5.332823E-1	5.324173E-1	5.753069E-1	5.449902E-1	5.346874E-1	5.716063E-1	5.379760E-1	5.338142E-1	5.528845E-1	5.151445E-1	5.717230E-1	5.453693E-1	5.366215E-1	5.127239E-1	5.335628E-1	5.675526E-1	5.108870E-1	5.352679E-1	5.367972E-1	5.245336E-1	5.437577E-1	5.808776E-1	5.544891E-1	5.469694E-1	5.766286E-1	5.571891E-1	6.003167E-1	5.495782E-1	5.371310E-1	5.654084E-1	5.457377E-1	5.453315E-1	5.354273E-1	5.457644E-1	5.605060E-1	5.344402E-1	5.622628E-1	5.633227E-1	5.307298E-1	5.484926E-1	5.732389E-1	5.624752E-1	5.700018E-1	5.427953E-1	5.253485E-1	5.602088E-1	5.429397E-1	5.569402E-1	5.827503E-1	5.121855E-1	5.731608E-1	5.342427E-1	5.762644E-1	5.810418E-1	5.426668E-1	5.753678E-1	5.758201E-1	5.561056E-1	5.377346E-1	5.267834E-1	5.331992E-1	5.697526E-1	5.448018E-1	5.831930E-1	5.374113E-1	5.961820E-1	5.965663E-1	5.412445E-1	5.445213E-1	5.417505E-1	5.650833E-1	5.583730E-1	5.445230E-1	5.433437E-1	5.323743E-1	5.379747E-1	5.613783E-1	5.541084E-1	5.505677E-1	5.793076E-1	5.593198E-1	5.679545E-1	5.841458E-1	5.750462E-1	5.507782E-1	5.837766E-1	5.638024E-1	5.287955E-1	5.413678E-1	5.462437E-1	5.440337E-1	5.798688E-1	5.575279E-1	5.569844E-1	5.624208E-1	5.530112E-1	5.771018E-1	5.934616E-1	5.610029E-1	5.701062E-1	5.327415E-1	5.500436E-1	5.816546E-1	5.476575E-1	5.662504E-1	5.533045E-1	5.340484E-1	5.522111E-1	5.628982E-1	5.575507E-1	5.381536E-1	5.462713E-1	5.858965E-1	5.618171E-1	5.615040E-1	5.720998E-1	5.287059E-1	5.585069E-1	5.449156E-1	5.239825E-1	5.362991E-1	6.331273E-1
5.367660E+2	5.022514E-1	5.036963E-1	4.889512E-1	4.777916E-1	5.023253E-1	4.690969E-1	4.940874E-1	4.500509E-1	4.871570E-1	4.808829E-1	4.694373E-1	4.846945E-1	4.617782E-1	4.721393E-1	4.868974E-1	4.774372E-1	4.956387E-1	4.999589E-1	4.892071E-1	5.041852E-1	4.654685E-1	5.011260E-1	4.925192E-1	4.856890E-1	5.333506E-1	4.803532E-1	4.840457E-1	5.209375E-1	4.965948E-1	4.779413E-1	4.737178E-1	4.985363E-1	4.941544E-1	5.319583E-1	5.023402E-1	5.300965E-1	4.907748E-1	4.955781E-1	5.179254E-1	4.891144E-1	5.090786E-1	5.084623E-1	4.900685E-1	4.942239E-1	4.991399E-1	5.079649E-1	5.079849E-1	4.668547E-1	4.934475E-1	5.002303E-1	5.341875E-1	4.841933E-1	4.801923E-1	4.767083E-1	4.771796E-1	4.782407E-1	4.718374E-1	4.884331E-1	5.047942E-1	5.270343E-1	5.049563E-1	4.901177E-1	4.793474E-1	4.787867E-1	5.271064E-1	5.180278E-1	4.721385E-1	4.893422E-1	5.089274E-1	4.718804E-1	5.038252E-1	4.883133E-1	4.967422E-1	4.743325E-1	5.017763E-1	5.084646E-1	5.132618E-1	4.678715E-1	4.471339E-1	5.018025E-1	5.388182E-1	4.645924E-1	4.991788E-1	4.882974E-1	4.874921E-1	4.925792E-1	4.858093E-1	5.022364E-1	4.941809E-1	4.944117E-1	4.712646E-1	4.949849E-1	4.637242E-1	4.975115E-1	4.977276E-1	4.833255E-1	4.736338E-1	4.814221E-1	5.039427E-1	4.739149E-1	4.563708E-1	4.832696E-1	5.127319E-1	5.063070E-1	4.851424E-1	4.757942E-1	4.744965E-1	4.747930E-1	5.027970E-1	4.857456E-1	5.115871E-1	5.045734E-1	4.740945E-1	4.742292E-1	4.708996E-1	4.890679E-1	4.835725E-1	5.053946E-1	4.938185E-1	5.040032E-1	4.858760E-1	4.748717E-1	4.722056E-1	5.073791E-1	5.257784E-1	4.770476E-1	4.883055E-1	5.062824E-1	4.972882E-1	5.046827E-1	5.436920E-1	5.189890E-1	5.173449E-1	4.883790E-1	5.173299E-1	4.991719E-1	5.240556E-1	4.724580E-1	4.940046E-1	4.711063E-1	4.805850E-1	4.896672E-1	4.976139E-1	4.880833E-1	4.869560E-1	4.724373E-1	5.166515E-1	4.613642E-1	4.742835E-1	4.795529E-1	5.146388E-1	5.209480E-1	4.902096E-1	4.808974E-1	4.957765E-1	4.869313E-1	4.797833E-1	5.049425E-1	4.985436E-1	5.312972E-1	4.762309E-1	4.796368E-1	5.158840E-1	5.176633E-1	4.686396E-1	5.333531E-1	4.920870E-1	4.888923E-1	4.655856E-1	4.884992E-1	4.198125E-1
5.370280E+2	4.902820E-1	4.765975E-1	4.918063E-1	4.640546E-1	4.565117E-1	4.217223E-1	4.605275E-1	4.488143E-1	4.401314E-1	4.560929E-1	4.354363E-1	4.394207E-1	4.627664E-1	4.488873E-1	4.573872E-1	4.795177E-1	4.923581E-1	4.301312E-1	4.907462E-1	4.706403E-1	4.496290E-1	4.560431E-1	4.642795E-1	4.569062E-1	5.078292E-1	4.891552E-1	4.759207E-1	4.591267E-1	4.687965E-1	4.519079E-1	4.501302E-1	4.857638E-1	4.824337E-1	4.707882E-1	4.959039E-1	5.201641E-1	4.736071E-1	4.791176E-1	4.865038E-1	4.819979E-1	4.597564E-1	4.622487E-1	4.578369E-1	4.889336E-1	4.579582E-1	4.717780E-1	4.664961E-1	4.808918E-1	4.437286E-1	4.528423E-1	4.629035E-1	5.049158E-1	4.754737E-1	4.567117E-1	4.694001E-1	4.388886E-1	4.481008E-1	4.764304E-1	4.729021E-1	4.824622E-1	4.730816E-1	4.835497E-1	4.536334E-1	4.885637E-1	4.447537E-1	4.610026E-1	4.866517E-1	4.486665E-1	4.635914E-1	4.824895E-1	4.547415E-1	4.722026E-1	4.812046E-1	4.797903E-1	4.690060E-1	4.739921E-1	4.908527E-1	4.409482E-1	4.790174E-1	4.740212E-1	4.609277E-1	5.049551E-1	4.486073E-1	4.866902E-1	4.629548E-1	4.731970E-1	4.575805E-1	4.676448E-1	4.762791E-1	4.454610E-1	4.831759E-1	4.752444E-1	4.969288E-1	4.398500E-1	4.565907E-1	4.945951E-1	4.865802E-1	4.968454E-1	4.745823E-1	4.729874E-1	4.413475E-1	5.239059E-1	4.687991E-1	4.589764E-1	4.803341E-1	4.846875E-1	4.729909E-1	4.598206E-1	4.529771E-1	4.576496E-1	4.824101E-1	4.899858E-1	4.701623E-1	4.645580E-1	4.934013E-1	4.837476E-1	4.882114E-1	4.586039E-1	4.895812E-1	4.781342E-1	4.868919E-1	4.704873E-1	4.691485E-1	4.654863E-1	4.492253E-1	4.692411E-1	4.726112E-1	4.922931E-1	4.766168E-1	4.617447E-1	5.025739E-1	4.914309E-1	4.953458E-1	4.742690E-1	4.392403E-1	4.827764E-1	4.491536E-1	4.653864E-1	4.732232E-1	4.881433E-1	4.893963E-1	4.644315E-1	4.731905E-1	4.334373E-1	4.784807E-1	4.880615E-1	4.833411E-1	4.535527E-1	4.674904E-1	4.545375E-1	4.742933E-1	4.892672E-1	4.280308E-1	4.833980E-1	4.453628E-1	4.784798E-1	5.249586E-1	4.804669E-1	4.784197E-1	4.722833E-1	4.905726E-1	4.842149E-1	4.482797E-1	4.527695E-1	4.499950E-1	4.821141E-1	4.913256E-1	4.578060E-1	4.940578E-1	4.433083E-1	4.819525E-1
5.372590E+2	5.078534E-1	4.688339E-1	5.030501E-1	4.638720E-1	4.973786E-1	4.583801E-1	4.717073E-1	4.751043E-1	4.505473E-1	4.827359E-1	4.796432E-1	5.072055E-1	4.630661E-1	4.556998E-1	4.714311E-1	4.923308E-1	4.528498E-1	4.816906E-1	5.158844E-1	4.805360E-1	4.569072E-1	4.753274E-1	4.904617E-1	4.408564E-1	4.740706E-1	4.901065E-1	5.164258E-1	4.922880E-1	5.166021E-1	4.985556E-1	4.864177E-1	4.732747E-1	4.904830E-1	4.717889E-1	4.578338E-1	5.074201E-1	4.703961E-1	4.865292E-1	5.281374E-1	4.358963E-1	4.965252E-1	4.971906E-1	5.063068E-1	4.833257E-1	5.104840E-1	5.007140E-1	4.717650E-1	4.867429E-1	4.951265E-1	4.945051E-1	4.502195E-1	5.223634E-1	5.036286E-1	4.865224E-1	5.083855E-1	4.941348E-1	4.757162E-1	5.161313E-1	5.279200E-1	4.929205E-1	4.711510E-1	4.951386E-1	4.884150E-1	5.046666E-1	4.648433E-1	5.042197E-1	4.821508E-1	4.967855E-1	4.894884E-1	4.857286E-1	5.077389E-1	4.915142E-1	5.018413E-1	5.122952E-1	4.630540E-1	5.093626E-1	4.846599E-1	4.898229E-1	4.972295E-1	4.964419E-1	5.030320E-1	4.681987E-1	5.002264E-1	5.033094E-1	5.209489E-1	4.793331E-1	4.751322E-1	4.599341E-1	4.830710E-1	4.981181E-1	5.030632E-1	4.929015E-1	4.927851E-1	4.917857E-1	4.602863E-1	4.801375E-1	4.841161E-1	5.148532E-1	4.957028E-1	5.072013E-1	4.912079E-1	4.623817E-1	4.880228E-1	4.857263E-1	4.812994E-1	4.835653E-1	4.600421E-1	4.665732E-1	4.877737E-1	4.950805E-1	4.785921E-1	4.903588E-1	4.798264E-1	4.959105E-1	4.742340E-1	4.637741E-1	4.861757E-1	4.864528E-1	5.117408E-1	4.820403E-1	4.664449E-1	4.652236E-1	4.954106E-1	4.923759E-1	4.942979E-1	4.770323E-1	4.824373E-1	5.116421E-1	5.015989E-1	4.950655E-1	5.113074E-1	4.960095E-1	4.921213E-1	4.866004E-1	4.703200E-1	4.869823E-1	4.834177E-1	4.879981E-1	4.910806E-1	4.854886E-1	5.031433E-1	4.872633E-1	4.604111E-1	4.770944E-1	4.677927E-1	5.245303E-1	4.802271E-1	4.801069E-1	4.980852E-1	4.820510E-1	4.939481E-1	5.061258E-1	4.874507E-1	5.000088E-1	4.662696E-1	5.021957E-1	4.936498E-1	4.980372E-1	5.271274E-1	4.671087E-1	5.093075E-1	5.314084E-1	4.820036E-1	4.973856E-1	4.843307E-1	4.977576E-1	4.923633E-1	5.157286E-1	4.700581E-1	4.986849E-1	5.282149E-1
5.375160E+2	5.609285E-1	5.297214E-1	6.003904E-1	5.608046E-1	5.782604E-1	5.808708E-1	5.364158E-1	5.707072E-1	5.544393E-1	5.562994E-1	5.569769E-1	5.724999E-1	5.313417E-1	5.541178E-1	5.771444E-1	5.469806E-1	5.583935E-1	5.802184E-1	5.441667E-1	6.009574E-1	5.765994E-1	5.706120E-1	5.450259E-1	5.621608E-1	6.081888E-1	5.902933E-1	5.767898E-1	5.699771E-1	5.646920E-1	5.601652E-1	5.657346E-1	5.586111E-1	5.624993E-1	5.511837E-1	5.929388E-1	5.637158E-1	5.945644E-1	6.078973E-1	5.894401E-1	5.520293E-1	5.776086E-1	5.863991E-1	6.009382E-1	5.863310E-1	5.718262E-1	5.510253E-1	5.736936E-1	5.520323E-1	5.777543E-1	5.853580E-1	6.080536E-1	5.634228E-1	5.453293E-1	5.793026E-1	5.888137E-1	5.548317E-1	6.033045E-1	5.754133E-1	5.805235E-1	5.433937E-1	5.745527E-1	5.467605E-1	5.712575E-1	5.710557E-1	5.984997E-1	5.860209E-1	5.536417E-1	5.843089E-1	5.428593E-1	5.747571E-1	5.919235E-1	6.125274E-1	5.722145E-1	5.820600E-1	5.914133E-1	5.644416E-1	5.630737E-1	5.566579E-1	5.792342E-1	5.717829E-1	5.953085E-1	5.684253E-1	5.869650E-1	5.844192E-1	5.484495E-1	5.440263E-1	5.850678E-1	5.661104E-1	5.621714E-1	5.743770E-1	5.383987E-1	5.796124E-1	5.990474E-1	5.912478E-1	5.577815E-1	5.857653E-1	5.464024E-1	6.121228E-1	5.588191E-1	5.830409E-1	5.771632E-1	5.481960E-1	6.006071E-1	6.061461E-1	5.872897E-1	5.625124E-1	5.596108E-1	5.608330E-1	5.567207E-1	5.703600E-1	5.823500E-1	6.049179E-1	5.543451E-1	5.736439E-1	5.357712E-1	5.537934E-1	5.792085E-1	5.801061E-1	5.575517E-1	5.836388E-1	6.026032E-1	5.802188E-1	5.659406E-1	5.815967E-1	5.877675E-1	5.607424E-1	5.633095E-1	5.977325E-1	6.276535E-1	5.844481E-1	5.880838E-1	5.931130E-1	6.131573E-1	5.703854E-1	5.743518E-1	5.489770E-1	5.602803E-1	5.303541E-1	5.382577E-1	5.754717E-1	5.887358E-1	5.472522E-1	5.845471E-1	5.560630E-1	6.099164E-1	5.815390E-1	5.821230E-1	5.673114E-1	5.821800E-1	5.664594E-1	5.967642E-1	5.841424E-1	5.473344E-1	5.929626E-1	5.918383E-1	5.657794E-1	6.083290E-1	5.644119E-1	5.946137E-1	5.914614E-1	5.734740E-1	5.783784E-1	5.597069E-1	6.215354E-1	5.508423E-1	5.847826E-1	5.889544E-1	5.959085E-1	5.651459E-1	5.784295E-1	5.484127E-1
5.377630E+2	6.788136E-1	6.289730E-1	6.154672E-1	6.342646E-1	6.573040E-1	6.225188E-1	6.129928E-1	6.268856E-1	5.935035E-1	6.318779E-1	6.336639E-1	6.437062E-1	6.111786E-1	6.317912E-1	6.493197E-1	6.413329E-1	6.811129E-1	6.262644E-1	6.190941E-1	6.546706E-1	6.271399E-1	5.922091E-1	6.574001E-1	6.169365E-1	6.385343E-1	6.721766E-1	6.499879E-1	6.529810E-1	6.669622E-1	6.509947E-1	6.311947E-1	6.723269E-1	6.186588E-1	6.349390E-1	6.750411E-1	6.054370E-1	6.416898E-1	6.523779E-1	6.488627E-1	6.307418E-1	6.629919E-1	6.569129E-1	6.347703E-1	6.354591E-1	6.493459E-1	6.382005E-1	6.614108E-1	6.456679E-1	6.690392E-1	6.519812E-1	6.565848E-1	6.850788E-1	6.740129E-1	7.264069E-1	6.751245E-1	6.679111E-1	6.714614E-1	6.360136E-1	6.658126E-1	6.819037E-1	6.586663E-1	6.515539E-1	6.013196E-1	6.471751E-1	6.448810E-1	6.586238E-1	6.780771E-1	6.823514E-1	6.598000E-1	6.808503E-1	6.702233E-1	6.291226E-1	6.400938E-1	6.765263E-1	6.623140E-1	6.518486E-1	6.946902E-1	6.543427E-1	6.714083E-1	6.907479E-1	6.722307E-1	6.207249E-1	6.641980E-1	6.731576E-1	6.393371E-1	6.476412E-1	6.679234E-1	6.269826E-1	6.741583E-1	6.462230E-1	6.725712E-1	6.777116E-1	6.696192E-1	6.441931E-1	6.670701E-1	6.447459E-1	6.788121E-1	6.519670E-1	6.337174E-1	6.629369E-1	6.194785E-1	6.610954E-1	6.447897E-1	6.731556E-1	6.594628E-1	6.825392E-1	6.654010E-1	6.489070E-1	7.093731E-1	6.671836E-1	6.794234E-1	6.783554E-1	6.993341E-1	6.273254E-1	6.668273E-1	6.274656E-1	6.606173E-1	6.462334E-1	6.845939E-1	6.797932E-1	6.807026E-1	6.389154E-1	6.658864E-1	6.747634E-1	6.624349E-1	6.009372E-1	6.627831E-1	6.346493E-1	7.011477E-1	6.427655E-1	6.724570E-1	6.780906E-1	6.931995E-1	6.700484E-1	6.767343E-1	6.305786E-1	6.669978E-1	6.653337E-1	6.716759E-1	6.698703E-1	6.563899E-1	6.399287E-1	6.574772E-1	6.699192E-1	6.636903E-1	6.692231E-1	6.421615E-1	6.647541E-1	6.712167E-1	6.628783E-1	6.833959E-1	6.947363E-1	6.538650E-1	6.863328E-1	6.868419E-1	6.814376E-1	6.565850E-1	6.523397E-1	6.848523E-1	7.024562E-1	6.307703E-1	6.577120E-1	6.527550E-1	6.556629E-1	6.579931E-1	6.827651E-1	6.437847E-1	6.880686E-1	6.543943E-1	6.634681E-1	6.536402E-1
5.380160E+2	7.708624E-1	7.533888E-1	7.296119E-1	7.241867E-1	7.569012E-1	7.210693E-1	7.507899E-1	7.687055E-1	7.305259E-1	7.709947E-1	7.651539E-1	7.724893E-1	7.500972E-1	7.688038E-1	7.698081E-1	7.889513E-1	7.313738E-1	7.468686E-1	7.600367E-1	7.484719E-1	7.712445E-1	7.390616E-1	7.622256E-1	7.513995E-1	7.905097E-1	7.711527E-1	8.036942E-1	8.001550E-1	7.501451E-1	7.603179E-1	7.556486E-1	7.847545E-1	7.713062E-1	7.828269E-1	7.194459E-1	7.832939E-1	7.736174E-1	7.406360E-1	7.983418E-1	7.545669E-1	7.706068E-1	7.574100E-1	7.742666E-1	7.510776E-1	7.608676E-1	7.523709E-1	7.713709E-1	7.622076E-1	7.417786E-1	8.048786E-1	7.760941E-1	7.666406E-1	7.488247E-1	7.844762E-1	7.493712E-1	7.699139E-1	7.495251E-1	7.793953E-1	7.990281E-1	7.967900E-1	7.704773E-1	7.538079E-1	7.584882E-1	7.314626E-1	7.494725E-1	7.547404E-1	7.768994E-1	7.949698E-1	7.362383E-1	7.772367E-1	7.594965E-1	7.804316E-1	7.975069E-1	8.020832E-1	7.865818E-1	7.822991E-1	7.921124E-1	7.345733E-1	7.611997E-1	7.915379E-1	7.644628E-1	7.761040E-1	7.661066E-1	7.649546E-1	7.737955E-1	7.415184E-1	7.649928E-1	8.015099E-1	8.004104E-1	7.451174E-1	7.394643E-1	7.780751E-1	7.710416E-1	7.673675E-1	7.788677E-1	7.720018E-1	7.605605E-1	7.875354E-1	7.513882E-1	7.933649E-1	7.431535E-1	7.716287E-1	8.059626E-1	7.875434E-1	7.116001E-1	7.936456E-1	7.746112E-1	7.510773E-1	7.671185E-1	7.448256E-1	7.993060E-1	7.931225E-1	7.500126E-1	7.515100E-1	7.751245E-1	7.423560E-1	7.508291E-1	7.600104E-1	7.600778E-1	7.838913E-1	7.508208E-1	7.582407E-1	7.310994E-1	7.361241E-1	7.578795E-1	7.549322E-1	7.552044E-1	7.438362E-1	8.064298E-1	7.559223E-1	7.419514E-1	7.758146E-1	7.823678E-1	7.472803E-1	7.819582E-1	7.894627E-1	7.690549E-1	7.465192E-1	7.633111E-1	7.711068E-1	7.714167E-1	7.521035E-1	7.498513E-1	7.323030E-1	7.906308E-1	7.562286E-1	7.993282E-1	7.551167E-1	7.642574E-1	7.730419E-1	7.373430E-1	7.983278E-1	7.766676E-1	7.538135E-1	7.144934E-1	7.633098E-1	7.678478E-1	7.432369E-1	8.135483E-1	7.635701E-1	7.882273E-1	7.543656E-1	8.041299E-1	7.591709E-1	7.915642E-1	7.827723E-1	7.546887E-1	7.835072E-1	7.224450E-1	7.517142E-1	7.464810E-1
5.382740E+2	9.431332E-1	9.072157E-1	9.760988E-1	9.504687E-1	9.592299E-1	9.349376E-1	9.444827E-1	9.178036E-1	9.656719E-1	9.406485E-1	9.719565E-1	9.626794E-1	9.803221E-1	9.589715E-1	9.367243E-1	9.836589E-1	9.195233E-1	9.343619E-1	9.254201E-1	9.793091E-1	9.214771E-1	9.227848E-1	9.840946E-1	9.224100E-1	1.003157E+0	9.265675E-1	1.003268E+0	9.714684E-1	9.374183E-1	9.591599E-1	9.072496E-1	9.747793E-1	9.755728E-1	9.878672E-1	9.885237E-1	9.760460E-1	9.199056E-1	9.475618E-1	9.911131E-1	9.690931E-1	9.568521E-1	9.912269E-1	9.393084E-1	9.537921E-1	9.865671E-1	9.715822E-1	9.565776E-1	9.382700E-1	9.431906E-1	9.638101E-1	8.955833E-1	9.669411E-1	9.603315E-1	9.673657E-1	9.639417E-1	9.604121E-1	9.197637E-1	9.685822E-1	9.787579E-1	9.741749E-1	9.386965E-1	9.253657E-1	9.417297E-1	9.813151E-1	9.654632E-1	9.748171E-1	9.373535E-1	9.491200E-1	9.414187E-1	9.412342E-1	9.560993E-1	9.661472E-1	9.337172E-1	9.785682E-1	9.515893E-1	1.000935E+0	9.145759E-1	9.407836E-1	9.204305E-1	9.648089E-1	9.471804E-1	9.435267E-1	9.408773E-1	9.654161E-1	9.855276E-1	9.217118E-1	9.517923E-1	9.750867E-1	9.136613E-1	9.119098E-1	9.730149E-1	9.604278E-1	9.447951E-1	9.570002E-1	9.598594E-1	9.815674E-1	9.675059E-1	9.795450E-1	9.769351E-1	9.843564E-1	9.461710E-1	9.618877E-1	9.826911E-1	9.352894E-1	9.454005E-1	9.392104E-1	9.368919E-1	9.578734E-1	9.455559E-1	9.465022E-1	9.468979E-1	9.625644E-1	9.731541E-1	9.091146E-1	9.761962E-1	9.406885E-1	9.531242E-1	9.500345E-1	9.371891E-1	9.995148E-1	9.443599E-1	9.485687E-1	9.839908E-1	9.874798E-1	9.804019E-1	9.729930E-1	9.491911E-1	9.647674E-1	9.944276E-1	9.260191E-1	9.701564E-1	9.580849E-1	9.647076E-1	9.296783E-1	9.611000E-1	9.412379E-1	9.698937E-1	9.315377E-1	9.511513E-1	9.771250E-1	9.353000E-1	9.274280E-1	9.699183E-1	9.386847E-1	9.750128E-1	9.943536E-1	9.364783E-1	9.287806E-1	9.734184E-1	1.004254E+0	9.882280E-1	9.751552E-1	9.260737E-1	9.575953E-1	9.198997E-1	9.239668E-1	9.158707E-1	9.638108E-1	9.351199E-1	9.431135E-1	9.262196E-1	9.682788E-1	9.508960E-1	9.882738E-1	9.224310E-1	9.546984E-1	9.652790E-1	9.472813E-1	8.999392E-1	9.797339E-1	9.327273E-1
5.385110E+2	1.170125E+0	1.177666E+0	1.211106E+0	1.153858E+0	1.132347E+0	1.172443E+0	1.155196E+0	1.143325E+0	1.164641E+0	1.180681E+0	1.198798E+0	1.182143E+0	1.201631E+0	1.174404E+0	1.187263E+0	1.200354E+0	1.176114E+0	1.186092E+0	1.175075E+0	1.172752E+0	1.135840E+0	1.095175E+0	1.170359E+0	1.161804E+0	1.210584E+0	1.206737E+0	1.215180E+0	1.187260E+0	1.178819E+0	1.227247E+0	1.155806E+0	1.205849E+0	1.168736E+0	1.217948E+0	1.224171E+0	1.195313E+0	1.188679E+0	1.174106E+0	1.215043E+0	1.188879E+0	1.206016E+0	1.218599E+0	1.182298E+0	1.161472E+0	1.184602E+0	1.199200E+0	1.181453E+0	1.165914E+0	1.180623E+0	1.180669E+0	1.169846E+0	1.196333E+0	1.180020E+0	1.187648E+0	1.214734E+0	1.195260E+0	1.174856E+0	1.143954E+0	1.172707E+0	1.157794E+0	1.138982E+0	1.200359E+0	1.163551E+0	1.196157E+0	1.200431E+0	1.155673E+0	1.162120E+0	1.158424E+0	1.182040E+0	1.149253E+0	1.222320E+0	1.149734E+0	1.190467E+0	1.148409E+0	1.208921E+0	1.221038E+0	1.186013E+0	1.155426E+0	1.155924E+0	1.205792E+0	1.173488E+0	1.177467E+0	1.174359E+0	1.206083E+0	1.179855E+0	1.141540E+0	1.208133E+0	1.157096E+0	1.170868E+0	1.195024E+0	1.192319E+0	1.186503E+0	1.135836E+0	1.175389E+0	1.164158E+0	1.194063E+0	1.178823E+0	1.244748E+0	1.206336E+0	1.188695E+0	1.154259E+0	1.232842E+0	1.191031E+0	1.186025E+0	1.164027E+0	1.137192E+0	1.169374E+0	1.213545E+0	1.176132E+0	1.164766E+0	1.162776E+0	1.237367E+0	1.148366E+0	1.157935E+0	1.161711E+0	1.191048E+0	1.186309E+0	1.176235E+0	1.164390E+0	1.135333E+0	1.155538E+0	1.219141E+0	1.125650E+0	1.166370E+0	1.161894E+0	1.133263E+0	1.204046E+0	1.170649E+0	1.155207E+0	1.195935E+0	1.153526E+0	1.172518E+0	1.208140E+0	1.164139E+0	1.183824E+0	1.142195E+0	1.197474E+0	1.156433E+0	1.169723E+0	1.191776E+0	1.184028E+0	1.141213E+0	1.125803E+0	1.156933E+0	1.132934E+0	1.196905E+0	1.206448E+0	1.151466E+0	1.105414E+0	1.164836E+0	1.157093E+0	1.178348E+0	1.145835E+0	1.194014E+0	1.135907E+0	1.180866E+0	1.156889E+0	1.169633E+0	1.194492E+0	1.169756E+0	1.196746E+0	1.147628E+0	1.204366E+0	1.174136E+0	1.115207E+0	1.196825E+0	1.197190E+0	1.169115E+0	1.131533E+0	1.272384E+0	1.108150E+0
5.387650E+2	1.429971E+0	1.402370E+0	1.355055E+0	1.347710E+0	1.381818E+0	1.414087E+0	1.365178E+0	1.406507E+0	1.370334E+0	1.384762E+0	1.381006E+0	1.359790E+0	1.409527E+0	1.377158E+0	1.400508E+0	1.393532E+0	1.415764E+0	1.387397E+0	1.372978E+0	1.443302E+0	1.368878E+0	1.390919E+0	1.420828E+0	1.374272E+0	1.466158E+0	1.431323E+0	1.417293E+0	1.403763E+0	1.380471E+0	1.429657E+0	1.371102E+0	1.430251E+0	1.330614E+0	1.421791E+0	1.370371E+0	1.418624E+0	1.359096E+0	1.370802E+0	1.371494E+0	1.425558E+0	1.402802E+0	1.395513E+0	1.483771E+0	1.409892E+0	1.437647E+0	1.422679E+0	1.388792E+0	1.383655E+0	1.434867E+0	1.411389E+0	1.363243E+0	1.395298E+0	1.363335E+0	1.446320E+0	1.419008E+0	1.385836E+0	1.341258E+0	1.428793E+0	1.415483E+0	1.404117E+0	1.381921E+0	1.363939E+0	1.418992E+0	1.360860E+0	1.353579E+0	1.404465E+0	1.350838E+0	1.407199E+0	1.406736E+0	1.364695E+0	1.433820E+0	1.345647E+0	1.431342E+0	1.390474E+0	1.432801E+0	1.459428E+0	1.408599E+0	1.408763E+0	1.346732E+0	1.392660E+0	1.377595E+0	1.375525E+0	1.360446E+0	1.385977E+0	1.364076E+0	1.364132E+0	1.416020E+0	1.415333E+0	1.347018E+0	1.371624E+0	1.377181E+0	1.391767E+0	1.351991E+0	1.428516E+0	1.356654E+0	1.385489E+0	1.362151E+0	1.380866E+0	1.430848E+0	1.400008E+0	1.354224E+0	1.369498E+0	1.380527E+0	1.406665E+0	1.413995E+0	1.365628E+0	1.372439E+0	1.365493E+0	1.328905E+0	1.365833E+0	1.336410E+0	1.431452E+0	1.365475E+0	1.301028E+0	1.368901E+0	1.355269E+0	1.315166E+0	1.388762E+0	1.390266E+0	1.337552E+0	1.334319E+0	1.388939E+0	1.324997E+0	1.406973E+0	1.405941E+0	1.359310E+0	1.382807E+0	1.405212E+0	1.370590E+0	1.343673E+0	1.423433E+0	1.339861E+0	1.434108E+0	1.352436E+0	1.453414E+0	1.370939E+0	1.426016E+0	1.287501E+0	1.380971E+0	1.408581E+0	1.396734E+0	1.303267E+0	1.355308E+0	1.398865E+0	1.357861E+0	1.393739E+0	1.404631E+0	1.376735E+0	1.317327E+0	1.335049E+0	1.382642E+0	1.373971E+0	1.319951E+0	1.423964E+0	1.384168E+0	1.386572E+0	1.352949E+0	1.426116E+0	1.337124E+0	1.397580E+0	1.315489E+0	1.419114E+0	1.313974E+0	1.391514E+0	1.348738E+0	1.347284E+0	1.387817E+0	1.457346E+0	1.308978E+0	1.465647E+0	1.280240E+0
5.390390E+2	1.647402E+0	1.625331E+0	1.709349E+0	1.582575E+0	1.617385E+0	1.627407E+0	1.590767E+0	1.609379E+0	1.622441E+0	1.626244E+0	1.624245E+0	1.576018E+0	1.603014E+0	1.667822E+0	1.557345E+0	1.679760E+0	1.616488E+0	1.595476E+0	1.657389E+0	1.706654E+0	1.571894E+0	1.552017E+0	1.633117E+0	1.590612E+0	1.571591E+0	1.602041E+0	1.659416E+0	1.684972E+0	1.579267E+0	1.629003E+0	1.605926E+0	1.635968E+0	1.645531E+0	1.668216E+0	1.605015E+0	1.667549E+0	1.586536E+0	1.593063E+0	1.675398E+0	1.632986E+0	1.638342E+0	1.623627E+0	1.687488E+0	1.602817E+0	1.625305E+0	1.646418E+0	1.636230E+0	1.617568E+0	1.618745E+0	1.642663E+0	1.592772E+0	1.567479E+0	1.604372E+0	1.618722E+0	1.595792E+0	1.634326E+0	1.551241E+0	1.604503E+0	1.674955E+0	1.625287E+0	1.552020E+0	1.660780E+0	1.541266E+0	1.598790E+0	1.591093E+0	1.660234E+0	1.602635E+0	1.630681E+0	1.603276E+0	1.648534E+0	1.632916E+0	1.602887E+0	1.620133E+0	1.633714E+0	1.658761E+0	1.641492E+0	1.597279E+0	1.592390E+0	1.633999E+0	1.650926E+0	1.589171E+0	1.642575E+0	1.586044E+0	1.618963E+0	1.620477E+0	1.582837E+0	1.625550E+0	1.581349E+0	1.610263E+0	1.619430E+0	1.612607E+0	1.658361E+0	1.598610E+0	1.589935E+0	1.570333E+0	1.626453E+0	1.588694E+0	1.639465E+0	1.621323E+0	1.591725E+0	1.647283E+0	1.610932E+0	1.586644E+0	1.627216E+0	1.584090E+0	1.665494E+0	1.599079E+0	1.548044E+0	1.570183E+0	1.567249E+0	1.610433E+0	1.656356E+0	1.579261E+0	1.573958E+0	1.592519E+0	1.632496E+0	1.571231E+0	1.594438E+0	1.625546E+0	1.565393E+0	1.646572E+0	1.600966E+0	1.584012E+0	1.588251E+0	1.570886E+0	1.591936E+0	1.586850E+0	1.607289E+0	1.638245E+0	1.644022E+0	1.619424E+0	1.658452E+0	1.649378E+0	1.609940E+0	1.602813E+0	1.568580E+0	1.611520E+0	1.566176E+0	1.610189E+0	1.646364E+0	1.598402E+0	1.603529E+0	1.534012E+0	1.543250E+0	1.553933E+0	1.629974E+0	1.613958E+0	1.558082E+0	1.566612E+0	1.585101E+0	1.631012E+0	1.616377E+0	1.549161E+0	1.623108E+0	1.612844E+0	1.576695E+0	1.647013E+0	1.654188E+0	1.625139E+0	1.581050E+0	1.553580E+0	1.609801E+0	1.570147E+0	1.600759E+0	1.547789E+0	1.587489E+0	1.593170E+0	1.546446E+0	1.534864E+0	1.622754E+0	1.498444E+0
5.392720E+2	1.878327E+0	1.800943E+0	1.834083E+0	1.791942E+0	1.818064E+0	1.763685E+0	1.765692E+0	1.806866E+0	1.801569E+0	1.822525E+0	1.810178E+0	1.787201E+0	1.844655E+0	1.765638E+0	1.842461E+0	1.812515E+0	1.837453E+0	1.809551E+0	1.847440E+0	1.847173E+0	1.786442E+0	1.706751E+0	1.876601E+0	1.804417E+0	1.783394E+0	1.741686E+0	1.833157E+0	1.748443E+0	1.763724E+0	1.825522E+0	1.750668E+0	1.795363E+0	1.804189E+0	1.790630E+0	1.756132E+0	1.823488E+0	1.796174E+0	1.728531E+0	1.846130E+0	1.792779E+0	1.775856E+0	1.755696E+0	1.775582E+0	1.797862E+0	1.777714E+0	1.785131E+0	1.804018E+0	1.832125E+0	1.759261E+0	1.869200E+0	1.780043E+0	1.832073E+0	1.735322E+0	1.833603E+0	1.848075E+0	1.784014E+0	1.756561E+0	1.784107E+0	1.776378E+0	1.773270E+0	1.738204E+0	1.804710E+0	1.754386E+0	1.777578E+0	1.749572E+0	1.798799E+0	1.781772E+0	1.788375E+0	1.759465E+0	1.783338E+0	1.775540E+0	1.758568E+0	1.792502E+0	1.841945E+0	1.800042E+0	1.821943E+0	1.772316E+0	1.742779E+0	1.743121E+0	1.801658E+0	1.679332E+0	1.797010E+0	1.779771E+0	1.784232E+0	1.777363E+0	1.726071E+0	1.743286E+0	1.792147E+0	1.797375E+0	1.812923E+0	1.748521E+0	1.728471E+0	1.774991E+0	1.803735E+0	1.710689E+0	1.748247E+0	1.796463E+0	1.795406E+0	1.789859E+0	1.816576E+0	1.752827E+0	1.814933E+0	1.734586E+0	1.789959E+0	1.765128E+0	1.731715E+0	1.740365E+0	1.713620E+0	1.722975E+0	1.747869E+0	1.773974E+0	1.825600E+0	1.765559E+0	1.759241E+0	1.755267E+0	1.768049E+0	1.680385E+0	1.762919E+0	1.709854E+0	1.761556E+0	1.755249E+0	1.785399E+0	1.679654E+0	1.794595E+0	1.728333E+0	1.771598E+0	1.772802E+0	1.781674E+0	1.778469E+0	1.804845E+0	1.767002E+0	1.727128E+0	1.750751E+0	1.749709E+0	1.766540E+0	1.701134E+0	1.696692E+0	1.685148E+0	1.759593E+0	1.813420E+0	1.727576E+0	1.769342E+0	1.772473E+0	1.661921E+0	1.741695E+0	1.800412E+0	1.669637E+0	1.752851E+0	1.788484E+0	1.775720E+0	1.784096E+0	1.765717E+0	1.745731E+0	1.786012E+0	1.701747E+0	1.781952E+0	1.740964E+0	1.764968E+0	1.728079E+0	1.746832E+0	1.736524E+0	1.784521E+0	1.824751E+0	1.774208E+0	1.685021E+0	1.772358E+0	1.749787E+0	1.732567E+0	1.744442E+0	1.771136E+0	1.658772E+0
5.395160E+2	1.995360E+0	1.862833E+0	1.913033E+0	1.849686E+0	1.871939E+0	1.895062E+0	1.904120E+0	1.865294E+0	1.901032E+0	1.871361E+0	1.864134E+0	1.919214E+0	1.910994E+0	1.877263E+0	1.885990E+0	1.893526E+0	1.918769E+0	1.885405E+0	1.886735E+0	1.972196E+0	1.893655E+0	1.868363E+0	1.925677E+0	1.885610E+0	1.862466E+0	1.825850E+0	1.930782E+0	1.919642E+0	1.829969E+0	1.825579E+0	1.876891E+0	1.916786E+0	1.902957E+0	1.869975E+0	1.871403E+0	1.920339E+0	1.875216E+0	1.851607E+0	1.884950E+0	1.884851E+0	1.911609E+0	1.917930E+0	1.871238E+0	1.931981E+0	1.859564E+0	1.856937E+0	1.892038E+0	1.863390E+0	1.840951E+0	1.943300E+0	1.862025E+0	1.911623E+0	1.886979E+0	1.882639E+0	1.906896E+0	1.890164E+0	1.783611E+0	1.873093E+0	1.897198E+0	1.954779E+0	1.914338E+0	1.810222E+0	1.845776E+0	1.923025E+0	1.897537E+0	1.861950E+0	1.907457E+0	1.804011E+0	1.860019E+0	1.888669E+0	1.859250E+0	1.848318E+0	1.880341E+0	1.886681E+0	1.894894E+0	1.920175E+0	1.853111E+0	1.828081E+0	1.873376E+0	1.889193E+0	1.885602E+0	1.866574E+0	1.867335E+0	1.848990E+0	1.885120E+0	1.838607E+0	1.848807E+0	1.931443E+0	1.851782E+0	1.846260E+0	1.833814E+0	1.868716E+0	1.834245E+0	1.933661E+0	1.838162E+0	1.831618E+0	1.858766E+0	1.883634E+0	1.851344E+0	1.852526E+0	1.807139E+0	1.900628E+0	1.893453E+0	1.858836E+0	1.816301E+0	1.887134E+0	1.875315E+0	1.819647E+0	1.831827E+0	1.851968E+0	1.839882E+0	1.873714E+0	1.843908E+0	1.765159E+0	1.852845E+0	1.825930E+0	1.821240E+0	1.903013E+0	1.820249E+0	1.825060E+0	1.864435E+0	1.802381E+0	1.870908E+0	1.819122E+0	1.846288E+0	1.827404E+0	1.947721E+0	1.885503E+0	1.920140E+0	1.776634E+0	1.905836E+0	1.914687E+0	1.913513E+0	1.888390E+0	1.865200E+0	1.799939E+0	1.831261E+0	1.789509E+0	1.847839E+0	1.897857E+0	1.837579E+0	1.852178E+0	1.870198E+0	1.799565E+0	1.787281E+0	1.891321E+0	1.864057E+0	1.892612E+0	1.830117E+0	1.861948E+0	1.869801E+0	1.882377E+0	1.782217E+0	1.961451E+0	1.841267E+0	1.867926E+0	1.820543E+0	1.852009E+0	1.852732E+0	1.833566E+0	1.766418E+0	1.868688E+0	1.870142E+0	1.893118E+0	1.835776E+0	1.878712E+0	1.825751E+0	1.831451E+0	1.838115E+0	1.783840E+0	1.762352E+0
5.397750E+2	1.933939E+0	1.837611E+0	1.918803E+0	1.888951E+0	1.913351E+0	1.831408E+0	1.875740E+0	1.862715E+0	1.830334E+0	1.896720E+0	1.888490E+0	1.871190E+0	1.876614E+0	1.905270E+0	1.875158E+0	1.907562E+0	1.883721E+0	1.868644E+0	1.867049E+0	1.835463E+0	1.822106E+0	1.807315E+0	1.891841E+0	1.860497E+0	1.782220E+0	1.809073E+0	1.893885E+0	1.832193E+0	1.824690E+0	1.782492E+0	1.866163E+0	1.827674E+0	1.861823E+0	1.847061E+0	1.890908E+0	1.870225E+0	1.789067E+0	1.805517E+0	1.872899E+0	1.810293E+0	1.826020E+0	1.833347E+0	1.846556E+0	1.841808E+0	1.806961E+0	1.827784E+0	1.811856E+0	1.859289E+0	1.855277E+0	1.830576E+0	1.855454E+0	1.893272E+0	1.826836E+0	1.830558E+0	1.910852E+0	1.821060E+0	1.811956E+0	1.847869E+0	1.875903E+0	1.912399E+0	1.766882E+0	1.849716E+0	1.843350E+0	1.854019E+0	1.819236E+0	1.799859E+0	1.849948E+0	1.829304E+0	1.832846E+0	1.811091E+0	1.833599E+0	1.794980E+0	1.829491E+0	1.815667E+0	1.897843E+0	1.882663E+0	1.806362E+0	1.821179E+0	1.840838E+0	1.780508E+0	1.828365E+0	1.841385E+0	1.865837E+0	1.834097E+0	1.853312E+0	1.829410E+0	1.792492E+0	1.880735E+0	1.804911E+0	1.759470E+0	1.854018E+0	1.793319E+0	1.884367E+0	1.787049E+0	1.817225E+0	1.801204E+0	1.870097E+0	1.853839E+0	1.868697E+0	1.840975E+0	1.755616E+0	1.912465E+0	1.815859E+0	1.886679E+0	1.854302E+0	1.848340E+0	1.825300E+0	1.838551E+0	1.827742E+0	1.796947E+0	1.821528E+0	1.888358E+0	1.802365E+0	1.779897E+0	1.847325E+0	1.797625E+0	1.789638E+0	1.835414E+0	1.869418E+0	1.872205E+0	1.816191E+0	1.789014E+0	1.810668E+0	1.883481E+0	1.822955E+0	1.745654E+0	1.826685E+0	1.820055E+0	1.888798E+0	1.816584E+0	1.832460E+0	1.821379E+0	1.826606E+0	1.832960E+0	1.898073E+0	1.778714E+0	1.809053E+0	1.770035E+0	1.837029E+0	1.828480E+0	1.785406E+0	1.743685E+0	1.786477E+0	1.832320E+0	1.763951E+0	1.901870E+0	1.804481E+0	1.801199E+0	1.865854E+0	1.806638E+0	1.844899E+0	1.786729E+0	1.725404E+0	1.812953E+0	1.788882E+0	1.795255E+0	1.715554E+0	1.813055E+0	1.829148E+0	1.756916E+0	1.763511E+0	1.830659E+0	1.792687E+0	1.768640E+0	1.703629E+0	1.793682E+0	1.808535E+0	1.790900E+0	1.648634E+0	1.793065E+0	1.807171E+0
5.400240E+2	1.973348E+0	1.920845E+0	1.992218E+0	1.940540E+0	1.892263E+0	1.958112E+0	1.903398E+0	1.838362E+0	1.906520E+0	1.952182E+0	1.924815E+0	1.910127E+0	1.953928E+0	1.961998E+0	1.893712E+0	1.948143E+0	1.862762E+0	1.865024E+0	1.959714E+0	1.963296E+0	1.919920E+0	1.871916E+0	1.968696E+0	1.856451E+0	1.919311E+0	1.827824E+0	1.950188E+0	1.853592E+0	1.927778E+0	1.837577E+0	1.851708E+0	1.903426E+0	1.881470E+0	1.918226E+0	1.934729E+0	1.923663E+0	1.905568E+0	1.833643E+0	1.937471E+0	1.888644E+0	1.922463E+0	1.926549E+0	1.969548E+0	1.857012E+0	1.888827E+0	1.908159E+0	1.907872E+0	1.864779E+0	1.879538E+0	1.936670E+0	1.854507E+0	1.981560E+0	1.900785E+0	1.941496E+0	1.939650E+0	1.876493E+0	1.819834E+0	1.837959E+0	1.877315E+0	1.875027E+0	1.860558E+0	1.846069E+0	1.877261E+0	1.916476E+0	1.884951E+0	1.889381E+0	1.922866E+0	1.875579E+0	1.884874E+0	1.896113E+0	1.918635E+0	1.918140E+0	1.944082E+0	1.860893E+0	1.892375E+0	1.940909E+0	1.886298E+0	1.804887E+0	1.915920E+0	1.865583E+0	1.864510E+0	1.843983E+0	1.927892E+0	1.899786E+0	1.888677E+0	1.917348E+0	1.851831E+0	1.879271E+0	1.862265E+0	1.887607E+0	1.897439E+0	1.909217E+0	1.790022E+0	1.877965E+0	1.823796E+0	1.933592E+0	1.877866E+0	1.895247E+0	1.860432E+0	1.857886E+0	1.907843E+0	1.850648E+0	1.933574E+0	1.910238E+0	1.904455E+0	1.936228E+0	1.849365E+0	1.850619E+0	1.822676E+0	1.854504E+0	1.896125E+0	1.945266E+0	1.854612E+0	1.848145E+0	1.904826E+0	1.911357E+0	1.778876E+0	1.864132E+0	1.861834E+0	1.911528E+0	1.819232E+0	1.829327E+0	1.848293E+0	1.868793E+0	1.833584E+0	1.804345E+0	1.914498E+0	1.907495E+0	1.906424E+0	1.822217E+0	1.956215E+0	1.961464E+0	1.852823E+0	1.827766E+0	1.916334E+0	1.869514E+0	1.851751E+0	1.846848E+0	1.971069E+0	1.890726E+0	1.819979E+0	1.852252E+0	1.915384E+0	1.756421E+0	1.831542E+0	1.876679E+0	1.891331E+0	1.882564E+0	1.856233E+0	1.808439E+0	1.867376E+0	1.938675E+0	1.886177E+0	1.911068E+0	1.841587E+0	1.830363E+0	1.837423E+0	1.844929E+0	1.796552E+0	1.807972E+0	1.860760E+0	1.851211E+0	1.861687E+0	1.847627E+0	1.779661E+0	1.849782E+0	1.874934E+0	1.884932E+0	1.733498E+0	1.822296E+0	1.852458E+0
5.402850E+2	1.940336E+0	1.840111E+0	1.844199E+0	1.787125E+0	1.863264E+0	1.809363E+0	1.870090E+0	1.857851E+0	1.874737E+0	1.827602E+0	1.897164E+0	1.885143E+0	1.864971E+0	1.830449E+0	1.915709E+0	1.919956E+0	1.851196E+0	1.814932E+0	1.899939E+0	1.893012E+0	1.836273E+0	1.734215E+0	1.870052E+0	1.875270E+0	1.811498E+0	1.788282E+0	1.826583E+0	1.819093E+0	1.789620E+0	1.788353E+0	1.837852E+0	1.800767E+0	1.862547E+0	1.831899E+0	1.872164E+0	1.829382E+0	1.836758E+0	1.764772E+0	1.885945E+0	1.857269E+0	1.831260E+0	1.838707E+0	1.847305E+0	1.799024E+0	1.879038E+0	1.859149E+0	1.881275E+0	1.868638E+0	1.783605E+0	1.843695E+0	1.857344E+0	1.862018E+0	1.797189E+0	1.865995E+0	1.899653E+0	1.868093E+0	1.772204E+0	1.826568E+0	1.784053E+0	1.941409E+0	1.788242E+0	1.805829E+0	1.834528E+0	1.860818E+0	1.803989E+0	1.797553E+0	1.816978E+0	1.845063E+0	1.777658E+0	1.787278E+0	1.843881E+0	1.776398E+0	1.823076E+0	1.891809E+0	1.908063E+0	1.911340E+0	1.838903E+0	1.715816E+0	1.787395E+0	1.839062E+0	1.879610E+0	1.770925E+0	1.815713E+0	1.821905E+0	1.808483E+0	1.788045E+0	1.832892E+0	1.813089E+0	1.841633E+0	1.783456E+0	1.857664E+0	1.820928E+0	1.847523E+0	1.857135E+0	1.834120E+0	1.818440E+0	1.850854E+0	1.843545E+0	1.839219E+0	1.871751E+0	1.804843E+0	1.823996E+0	1.830207E+0	1.849684E+0	1.768320E+0	1.828410E+0	1.802976E+0	1.809596E+0	1.780365E+0	1.759445E+0	1.823573E+0	1.888113E+0	1.791875E+0	1.775951E+0	1.765518E+0	1.787326E+0	1.785567E+0	1.826407E+0	1.792328E+0	1.830150E+0	1.849222E+0	1.792026E+0	1.778242E+0	1.871079E+0	1.787980E+0	1.794497E+0	1.769845E+0	1.844000E+0	1.862173E+0	1.753695E+0	1.855895E+0	1.821222E+0	1.806301E+0	1.749509E+0	1.879298E+0	1.817445E+0	1.771273E+0	1.797341E+0	1.818411E+0	1.799472E+0	1.765157E+0	1.762299E+0	1.757518E+0	1.755937E+0	1.740402E+0	1.798501E+0	1.694678E+0	1.791420E+0	1.823314E+0	1.796783E+0	1.857657E+0	1.886164E+0	1.739512E+0	1.847789E+0	1.794163E+0	1.837114E+0	1.804212E+0	1.791031E+0	1.919891E+0	1.758807E+0	1.752710E+0	1.755368E+0	1.752549E+0	1.777242E+0	1.760064E+0	1.745539E+0	1.829643E+0	1.779678E+0	1.726206E+0	1.824496E+0	1.668660E+0
5.405130E+2	1.943322E+0	1.819595E+0	1.881141E+0	1.846594E+0	1.824086E+0	1.755645E+0	1.813364E+0	1.780566E+0	1.778678E+0	1.843556E+0	1.874664E+0	1.780187E+0	1.809494E+0	1.820469E+0	1.890843E+0	1.899616E+0	1.793618E+0	1.767994E+0	1.833386E+0	1.833543E+0	1.776399E+0	1.767085E+0	1.839532E+0	1.796894E+0	1.761529E+0	1.763651E+0	1.829959E+0	1.836421E+0	1.761907E+0	1.770451E+0	1.759539E+0	1.787563E+0	1.836616E+0	1.826178E+0	1.838296E+0	1.844769E+0	1.792770E+0	1.772765E+0	1.861739E+0	1.740697E+0	1.776104E+0	1.793010E+0	1.787124E+0	1.792983E+0	1.781140E+0	1.747774E+0	1.849146E+0	1.890801E+0	1.831014E+0	1.814768E+0	1.802141E+0	1.837836E+0	1.807750E+0	1.848514E+0	1.854115E+0	1.804963E+0	1.751644E+0	1.790404E+0	1.815946E+0	1.819518E+0	1.814796E+0	1.791988E+0	1.796304E+0	1.815547E+0	1.759734E+0	1.781933E+0	1.813217E+0	1.865590E+0	1.799662E+0	1.801396E+0	1.803245E+0	1.824238E+0	1.785659E+0	1.770602E+0	1.786128E+0	1.817140E+0	1.777324E+0	1.744033E+0	1.795395E+0	1.790544E+0	1.788121E+0	1.761279E+0	1.868094E+0	1.803768E+0	1.769993E+0	1.829999E+0	1.781388E+0	1.776461E+0	1.799748E+0	1.748183E+0	1.787108E+0	1.745050E+0	1.761409E+0	1.761383E+0	1.749555E+0	1.777913E+0	1.743859E+0	1.821243E+0	1.821437E+0	1.764253E+0	1.732461E+0	1.771159E+0	1.793339E+0	1.767926E+0	1.780414E+0	1.842940E+0	1.810984E+0	1.741286E+0	1.773465E+0	1.775313E+0	1.795238E+0	1.828279E+0	1.828078E+0	1.741593E+0	1.827680E+0	1.754167E+0	1.672886E+0	1.789617E+0	1.718765E+0	1.780683E+0	1.759473E+0	1.799677E+0	1.810063E+0	1.843328E+0	1.797973E+0	1.793747E+0	1.818870E+0	1.792717E+0	1.822800E+0	1.838733E+0	1.824599E+0	1.815692E+0	1.787735E+0	1.683675E+0	1.796333E+0	1.762412E+0	1.703014E+0	1.765474E+0	1.716280E+0	1.802518E+0	1.783123E+0	1.789921E+0	1.744690E+0	1.751016E+0	1.731694E+0	1.762094E+0	1.813627E+0	1.757599E+0	1.742848E+0	1.751065E+0	1.799614E+0	1.731759E+0	1.746122E+0	1.822079E+0	1.754282E+0	1.762338E+0	1.777845E+0	1.853749E+0	1.829933E+0	1.728433E+0	1.691413E+0	1.731785E+0	1.801961E+0	1.752142E+0	1.741214E+0	1.774667E+0	1.755076E+0	1.749807E+0	1.654886E+0	1.678833E+0	1.849968E+0
5.407740E+2	1.806261E+0	1.705072E+0	1.756945E+0	1.701048E+0	1.733741E+0	1.712262E+0	1.748792E+0	1.704263E+0	1.655519E+0	1.732214E+0	1.686562E+0	1.777667E+0	1.737966E+0	1.718676E+0	1.666607E+0	1.789221E+0	1.744799E+0	1.758876E+0	1.706278E+0	1.772353E+0	1.719447E+0	1.695355E+0	1.824071E+0	1.721755E+0	1.728710E+0	1.758563E+0	1.734450E+0	1.686614E+0	1.717894E+0	1.711388E+0	1.651098E+0	1.742738E+0	1.689929E+0	1.716501E+0	1.774762E+0	1.774521E+0	1.686080E+0	1.639537E+0	1.800285E+0	1.676349E+0	1.750210E+0	1.751290E+0	1.745430E+0	1.732508E+0	1.731358E+0	1.724074E+0	1.720630E+0	1.742953E+0	1.709812E+0	1.740562E+0	1.664226E+0	1.686503E+0	1.747815E+0	1.762457E+0	1.678219E+0	1.767978E+0	1.715990E+0	1.662201E+0	1.744488E+0	1.767578E+0	1.688381E+0	1.679789E+0	1.739402E+0	1.772526E+0	1.676450E+0	1.673781E+0	1.716783E+0	1.720996E+0	1.600196E+0	1.697843E+0	1.721622E+0	1.683556E+0	1.661805E+0	1.750677E+0	1.777856E+0	1.755791E+0	1.673214E+0	1.701385E+0	1.750933E+0	1.765371E+0	1.670760E+0	1.667192E+0	1.772744E+0	1.673321E+0	1.714877E+0	1.668940E+0	1.675511E+0	1.736219E+0	1.703378E+0	1.633866E+0	1.696678E+0	1.664006E+0	1.662520E+0	1.718960E+0	1.657427E+0	1.708710E+0	1.722925E+0	1.665787E+0	1.711723E+0	1.711519E+0	1.738949E+0	1.731452E+0	1.703486E+0	1.729109E+0	1.771072E+0	1.712087E+0	1.768363E+0	1.680688E+0	1.662439E+0	1.695369E+0	1.724137E+0	1.831919E+0	1.629132E+0	1.680945E+0	1.644134E+0	1.780984E+0	1.700454E+0	1.701408E+0	1.733028E+0	1.680453E+0	1.675009E+0	1.690163E+0	1.681496E+0	1.713779E+0	1.688243E+0	1.693742E+0	1.726450E+0	1.691361E+0	1.791748E+0	1.671998E+0	1.744624E+0	1.657851E+0	1.745434E+0	1.673773E+0	1.688561E+0	1.726834E+0	1.645397E+0	1.628254E+0	1.714771E+0	1.769007E+0	1.743603E+0	1.656406E+0	1.711630E+0	1.673810E+0	1.668804E+0	1.703951E+0	1.669985E+0	1.683720E+0	1.702773E+0	1.692308E+0	1.706388E+0	1.720904E+0	1.674640E+0	1.683635E+0	1.632848E+0	1.671270E+0	1.649121E+0	1.727140E+0	1.659865E+0	1.634025E+0	1.664578E+0	1.692568E+0	1.671062E+0	1.652708E+0	1.661014E+0	1.728469E+0	1.698190E+0	1.669773E+0	1.585730E+0	1.692367E+0	1.588875E+0
5.410240E+2	1.716169E+0	1.624139E+0	1.705578E+0	1.726635E+0	1.646524E+0	1.672816E+0	1.682391E+0	1.703131E+0	1.643419E+0	1.706009E+0	1.695622E+0	1.712907E+0	1.654196E+0	1.675309E+0	1.617278E+0	1.661094E+0	1.686100E+0	1.682921E+0	1.657135E+0	1.677762E+0	1.660339E+0	1.611160E+0	1.706484E+0	1.684151E+0	1.617614E+0	1.576236E+0	1.655992E+0	1.640682E+0	1.627075E+0	1.630383E+0	1.638199E+0	1.648912E+0	1.626925E+0	1.725428E+0	1.654044E+0	1.701412E+0	1.638514E+0	1.597130E+0	1.665689E+0	1.614643E+0	1.704632E+0	1.699819E+0	1.658394E+0	1.652798E+0	1.634892E+0	1.611040E+0	1.644254E+0	1.676634E+0	1.625694E+0	1.701336E+0	1.598583E+0	1.695262E+0	1.687666E+0	1.601196E+0	1.653699E+0	1.711084E+0	1.674541E+0	1.696945E+0	1.630366E+0	1.672347E+0	1.589477E+0	1.626788E+0	1.662576E+0	1.629280E+0	1.682911E+0	1.635649E+0	1.694111E+0	1.652938E+0	1.626674E+0	1.613260E+0	1.671518E+0	1.582910E+0	1.601210E+0	1.645283E+0	1.673714E+0	1.729104E+0	1.656401E+0	1.583725E+0	1.667151E+0	1.678303E+0	1.701416E+0	1.677376E+0	1.707802E+0	1.666733E+0	1.643056E+0	1.646323E+0	1.668858E+0	1.652760E+0	1.641082E+0	1.638657E+0	1.603608E+0	1.738728E+0	1.613150E+0	1.635632E+0	1.649685E+0	1.661649E+0	1.614579E+0	1.643609E+0	1.611320E+0	1.656499E+0	1.634140E+0	1.640721E+0	1.717454E+0	1.578608E+0	1.591855E+0	1.668327E+0	1.666009E+0	1.683472E+0	1.604566E+0	1.615598E+0	1.690846E+0	1.655583E+0	1.617663E+0	1.555590E+0	1.645640E+0	1.612437E+0	1.601374E+0	1.618921E+0	1.635179E+0	1.679795E+0	1.637989E+0	1.631155E+0	1.597707E+0	1.668002E+0	1.604517E+0	1.571741E+0	1.618131E+0	1.636159E+0	1.650586E+0	1.607204E+0	1.721990E+0	1.607089E+0	1.582397E+0	1.620430E+0	1.647302E+0	1.623238E+0	1.576645E+0	1.601133E+0	1.604989E+0	1.637439E+0	1.619081E+0	1.625913E+0	1.646255E+0	1.604800E+0	1.500209E+0	1.673067E+0	1.598148E+0	1.661802E+0	1.632433E+0	1.676480E+0	1.689471E+0	1.592022E+0	1.604303E+0	1.643667E+0	1.586599E+0	1.651294E+0	1.659689E+0	1.617681E+0	1.593329E+0	1.579053E+0	1.596672E+0	1.605518E+0	1.619484E+0	1.638097E+0	1.591299E+0	1.675906E+0	1.669193E+0	1.606575E+0	1.490554E+0	1.599713E+0	1.679267E+0
5.412690E+2	1.630064E+0	1.559447E+0	1.546036E+0	1.560020E+0	1.602615E+0	1.569435E+0	1.604435E+0	1.543514E+0	1.556775E+0	1.583691E+0	1.558433E+0	1.576793E+0	1.562176E+0	1.522193E+0	1.569073E+0	1.565476E+0	1.544832E+0	1.566077E+0	1.586788E+0	1.563605E+0	1.557278E+0	1.509914E+0	1.566622E+0	1.573390E+0	1.541182E+0	1.533000E+0	1.550845E+0	1.549460E+0	1.537044E+0	1.548503E+0	1.555076E+0	1.517316E+0	1.532648E+0	1.567889E+0	1.569496E+0	1.576524E+0	1.546197E+0	1.563916E+0	1.604553E+0	1.531390E+0	1.616736E+0	1.541302E+0	1.580518E+0	1.586495E+0	1.539183E+0	1.537227E+0	1.549308E+0	1.549297E+0	1.496097E+0	1.580270E+0	1.554552E+0	1.631750E+0	1.554479E+0	1.591096E+0	1.608370E+0	1.531461E+0	1.537558E+0	1.551394E+0	1.559913E+0	1.570096E+0	1.493103E+0	1.539166E+0	1.533531E+0	1.563892E+0	1.582947E+0	1.496271E+0	1.600189E+0	1.579886E+0	1.588177E+0	1.512003E+0	1.539308E+0	1.499775E+0	1.584132E+0	1.542725E+0	1.568289E+0	1.630895E+0	1.559043E+0	1.477743E+0	1.487812E+0	1.559214E+0	1.552800E+0	1.591143E+0	1.527900E+0	1.543012E+0	1.535160E+0	1.519846E+0	1.579723E+0	1.596764E+0	1.587266E+0	1.451046E+0	1.537280E+0	1.544972E+0	1.543532E+0	1.564667E+0	1.564857E+0	1.563300E+0	1.518328E+0	1.563496E+0	1.582232E+0	1.640048E+0	1.582840E+0	1.517644E+0	1.571175E+0	1.542396E+0	1.508687E+0	1.550164E+0	1.519500E+0	1.591130E+0	1.510717E+0	1.547814E+0	1.580254E+0	1.570517E+0	1.532836E+0	1.471286E+0	1.515493E+0	1.548134E+0	1.538420E+0	1.500341E+0	1.552560E+0	1.520705E+0	1.534030E+0	1.512290E+0	1.556510E+0	1.523246E+0	1.517143E+0	1.538514E+0	1.540002E+0	1.511903E+0	1.548031E+0	1.535356E+0	1.569043E+0	1.552886E+0	1.526072E+0	1.511693E+0	1.566298E+0	1.537225E+0	1.505645E+0	1.574295E+0	1.584374E+0	1.586248E+0	1.545883E+0	1.501102E+0	1.554818E+0	1.466706E+0	1.502333E+0	1.571077E+0	1.515654E+0	1.496545E+0	1.567510E+0	1.504768E+0	1.555779E+0	1.572889E+0	1.475757E+0	1.546813E+0	1.490286E+0	1.551518E+0	1.518878E+0	1.531073E+0	1.585945E+0	1.486377E+0	1.512510E+0	1.518274E+0	1.554235E+0	1.545642E+0	1.525177E+0	1.540402E+0	1.527598E+0	1.515322E+0	1.452335E+0	1.512244E+0	1.503412E+0
5.415090E+2	1.494761E+0	1.407359E+0	1.439537E+0	1.373519E+0	1.415195E+0	1.362511E+0	1.399773E+0	1.395052E+0	1.409392E+0	1.372075E+0	1.400897E+0	1.407336E+0	1.403939E+0	1.344563E+0	1.384067E+0	1.424202E+0	1.399909E+0	1.370629E+0	1.432297E+0	1.403659E+0	1.396980E+0	1.356649E+0	1.375967E+0	1.416896E+0	1.384604E+0	1.411980E+0	1.389254E+0	1.399075E+0	1.353100E+0	1.327188E+0	1.407265E+0	1.450692E+0	1.406289E+0	1.427420E+0	1.440121E+0	1.431577E+0	1.358602E+0	1.372546E+0	1.386470E+0	1.349455E+0	1.397854E+0	1.363310E+0	1.431235E+0	1.402645E+0	1.391582E+0	1.365919E+0	1.383621E+0	1.382007E+0	1.356865E+0	1.412210E+0	1.390052E+0	1.416579E+0	1.359716E+0	1.418752E+0	1.412507E+0	1.380161E+0	1.374278E+0	1.412723E+0	1.423795E+0	1.445456E+0	1.381415E+0	1.374645E+0	1.350778E+0	1.457355E+0	1.413687E+0	1.400025E+0	1.383621E+0	1.393322E+0	1.466537E+0	1.387355E+0	1.381855E+0	1.402886E+0	1.442683E+0	1.391097E+0	1.407828E+0	1.446501E+0	1.362535E+0	1.409976E+0	1.353424E+0	1.361742E+0	1.414290E+0	1.399793E+0	1.393117E+0	1.403582E+0	1.367105E+0	1.367926E+0	1.371610E+0	1.441417E+0	1.389755E+0	1.345759E+0	1.397970E+0	1.399727E+0	1.408189E+0	1.370049E+0	1.362864E+0	1.467406E+0	1.408142E+0	1.424038E+0	1.466355E+0	1.478479E+0	1.344712E+0	1.379445E+0	1.426651E+0	1.372506E+0	1.422733E+0	1.356658E+0	1.386118E+0	1.359421E+0	1.356901E+0	1.389132E+0	1.380226E+0	1.457264E+0	1.392285E+0	1.316635E+0	1.400566E+0	1.355118E+0	1.365100E+0	1.412411E+0	1.447009E+0	1.379302E+0	1.365425E+0	1.335285E+0	1.338249E+0	1.450616E+0	1.384945E+0	1.421099E+0	1.411795E+0	1.424637E+0	1.447236E+0	1.409408E+0	1.454870E+0	1.393501E+0	1.441779E+0	1.358299E+0	1.396056E+0	1.430697E+0	1.385129E+0	1.379904E+0	1.397810E+0	1.397914E+0	1.393601E+0	1.385361E+0	1.397406E+0	1.334383E+0	1.300590E+0	1.382473E+0	1.374701E+0	1.400891E+0	1.414228E+0	1.400524E+0	1.416375E+0	1.412720E+0	1.347501E+0	1.439901E+0	1.387969E+0	1.365926E+0	1.391619E+0	1.411633E+0	1.418393E+0	1.398202E+0	1.378608E+0	1.361307E+0	1.423274E+0	1.380962E+0	1.369564E+0	1.404416E+0	1.407764E+0	1.378095E+0	1.260580E+0	1.357768E+0	1.262886E+0
5.417760E+2	1.216515E+0	1.191157E+0	1.232010E+0	1.197373E+0	1.226881E+0	1.231711E+0	1.169646E+0	1.197433E+0	1.213844E+0	1.240699E+0	1.252117E+0	1.209658E+0	1.236274E+0	1.229376E+0	1.208740E+0	1.261695E+0	1.224893E+0	1.239515E+0	1.259644E+0	1.228347E+0	1.202794E+0	1.218260E+0	1.224417E+0	1.221205E+0	1.211063E+0	1.229138E+0	1.179423E+0	1.226298E+0	1.171153E+0	1.207232E+0	1.206721E+0	1.219288E+0	1.227894E+0	1.238235E+0	1.186604E+0	1.281790E+0	1.209367E+0	1.197249E+0	1.228970E+0	1.223005E+0	1.197810E+0	1.232854E+0	1.235788E+0	1.236407E+0	1.219047E+0	1.256168E+0	1.211534E+0	1.239400E+0	1.186924E+0	1.231503E+0	1.191181E+0	1.274582E+0	1.204075E+0	1.252755E+0	1.232881E+0	1.217032E+0	1.180079E+0	1.242541E+0	1.247142E+0	1.242983E+0	1.170289E+0	1.199722E+0	1.153742E+0	1.189532E+0	1.183058E+0	1.192331E+0	1.242535E+0	1.210963E+0	1.246273E+0	1.237489E+0	1.237065E+0	1.189384E+0	1.217589E+0	1.217493E+0	1.235197E+0	1.279217E+0	1.265099E+0	1.233070E+0	1.235806E+0	1.282573E+0	1.229981E+0	1.207440E+0	1.168904E+0	1.191386E+0	1.205512E+0	1.191274E+0	1.235296E+0	1.220694E+0	1.220629E+0	1.207899E+0	1.198818E+0	1.211083E+0	1.183756E+0	1.196270E+0	1.195760E+0	1.214716E+0	1.143279E+0	1.198805E+0	1.211055E+0	1.212233E+0	1.194550E+0	1.193476E+0	1.290107E+0	1.238620E+0	1.200779E+0	1.247955E+0	1.250246E+0	1.226603E+0	1.190033E+0	1.210023E+0	1.214093E+0	1.239905E+0	1.215288E+0	1.149218E+0	1.203326E+0	1.238254E+0	1.154919E+0	1.228590E+0	1.205206E+0	1.193075E+0	1.174239E+0	1.185110E+0	1.175454E+0	1.203154E+0	1.181407E+0	1.179908E+0	1.205506E+0	1.228507E+0	1.254541E+0	1.239267E+0	1.172259E+0	1.251698E+0	1.213848E+0	1.222772E+0	1.207370E+0	1.159556E+0	1.234316E+0	1.224490E+0	1.217960E+0	1.224100E+0	1.253570E+0	1.196589E+0	1.233349E+0	1.194255E+0	1.160239E+0	1.178817E+0	1.227341E+0	1.223768E+0	1.150761E+0	1.195888E+0	1.264144E+0	1.249676E+0	1.210855E+0	1.229057E+0	1.188187E+0	1.193213E+0	1.208726E+0	1.235054E+0	1.261583E+0	1.210380E+0	1.222855E+0	1.196955E+0	1.202341E+0	1.216375E+0	1.211996E+0	1.180806E+0	1.237228E+0	1.192453E+0	1.149154E+0	1.175266E+0	1.213494E+0
5.420210E+2	1.040526E+0	1.003026E+0	1.023493E+0	9.705384E-1	1.060664E+0	1.043110E+0	9.960545E-1	1.014119E+0	9.988474E-1	1.009416E+0	1.039186E+0	1.024277E+0	9.829262E-1	1.012636E+0	1.013122E+0	1.057993E+0	1.008860E+0	1.006198E+0	1.013945E+0	1.034738E+0	9.885956E-1	9.752771E-1	1.031899E+0	1.005773E+0	1.016667E+0	1.018455E+0	9.968432E-1	1.029915E+0	9.969930E-1	9.763638E-1	1.009688E+0	1.015246E+0	1.023972E+0	9.966988E-1	1.058863E+0	9.929155E-1	1.003421E+0	1.021731E+0	1.033159E+0	1.002903E+0	1.007917E+0	9.775207E-1	1.006431E+0	9.921329E-1	1.025370E+0	9.639919E-1	9.887925E-1	9.810646E-1	9.621273E-1	1.015661E+0	1.009362E+0	1.014822E+0	9.990936E-1	9.829275E-1	9.433972E-1	1.009940E+0	9.637883E-1	9.914838E-1	9.864492E-1	1.006418E+0	9.792782E-1	1.001439E+0	9.941887E-1	1.004824E+0	1.053098E+0	9.680271E-1	1.034580E+0	9.794600E-1	9.953001E-1	9.736105E-1	1.021589E+0	9.892857E-1	9.957184E-1	1.055129E+0	1.040927E+0	1.038752E+0	1.029760E+0	9.725343E-1	9.672526E-1	1.035709E+0	9.659806E-1	9.648458E-1	1.001519E+0	9.736827E-1	9.936761E-1	1.039438E+0	9.924215E-1	1.008957E+0	9.726208E-1	1.005328E+0	1.009362E+0	1.025222E+0	9.880449E-1	1.012597E+0	9.715287E-1	9.771785E-1	1.039866E+0	1.039297E+0	1.018211E+0	1.028490E+0	9.789124E-1	1.009735E+0	1.026006E+0	1.000180E+0	9.977490E-1	9.897435E-1	1.032305E+0	1.049351E+0	9.836400E-1	1.038730E+0	1.008651E+0	9.986389E-1	9.916540E-1	9.924962E-1	9.857066E-1	1.057941E+0	9.719261E-1	1.003329E+0	9.966448E-1	9.952295E-1	9.899231E-1	9.939983E-1	9.987594E-1	1.020483E+0	1.006601E+0	1.001689E+0	1.009083E+0	1.026336E+0	1.000912E+0	1.019600E+0	1.038054E+0	1.055298E+0	1.005855E+0	1.003788E+0	1.022002E+0	9.638901E-1	1.010732E+0	1.022291E+0	9.714251E-1	1.028176E+0	1.012456E+0	1.013973E+0	1.026644E+0	9.728325E-1	1.038241E+0	1.019272E+0	1.008307E+0	1.026418E+0	1.052462E+0	1.028703E+0	1.062825E+0	1.021591E+0	9.461641E-1	1.031973E+0	1.022108E+0	9.827485E-1	9.882231E-1	1.015353E+0	1.018368E+0	9.980459E-1	9.468511E-1	9.853515E-1	1.009885E+0	1.048044E+0	1.006405E+0	1.022075E+0	1.027102E+0	1.057128E+0	9.824782E-1	9.796212E-1	8.991820E-1
5.422670E+2	9.793466E-1	9.580402E-1	1.011834E+0	9.287094E-1	9.607084E-1	9.606870E-1	9.412281E-1	9.348075E-1	9.391437E-1	9.610362E-1	9.732147E-1	9.790644E-1	9.856036E-1	9.264746E-1	9.462339E-1	9.917685E-1	9.209847E-1	9.335634E-1	9.712080E-1	9.901397E-1	9.430106E-1	9.486272E-1	9.595854E-1	9.760339E-1	9.414169E-1	9.611017E-1	9.393834E-1	9.656065E-1	9.453599E-1	9.207760E-1	9.471605E-1	9.699014E-1	9.689338E-1	9.803085E-1	9.575401E-1	9.897501E-1	9.386214E-1	9.827850E-1	9.583968E-1	9.152179E-1	9.456505E-1	9.522797E-1	9.806855E-1	9.854871E-1	9.534941E-1	9.888920E-1	9.757356E-1	9.729063E-1	9.630566E-1	9.733962E-1	9.670515E-1	9.745152E-1	9.511434E-1	9.850419E-1	9.773093E-1	9.720673E-1	9.361271E-1	9.878893E-1	9.407400E-1	9.588242E-1	9.831588E-1	9.691955E-1	9.280326E-1	9.362524E-1	9.409917E-1	9.615981E-1	9.500697E-1	9.527018E-1	9.387393E-1	9.365702E-1	9.293097E-1	9.746845E-1	9.990189E-1	9.649552E-1	9.880298E-1	1.008535E+0	9.759565E-1	9.550030E-1	9.598921E-1	9.751907E-1	9.861587E-1	9.796496E-1	9.595757E-1	9.793575E-1	9.206858E-1	9.454302E-1	9.804650E-1	9.802558E-1	9.460262E-1	9.476404E-1	9.424488E-1	9.688786E-1	9.108570E-1	9.756535E-1	9.338343E-1	9.672630E-1	9.577380E-1	9.565945E-1	9.801402E-1	1.000027E+0	9.718098E-1	9.714064E-1	9.818081E-1	9.229106E-1	9.835683E-1	9.572062E-1	9.607966E-1	9.730817E-1	9.846203E-1	9.568070E-1	9.634247E-1	9.722820E-1	9.542317E-1	9.504858E-1	9.880130E-1	9.949804E-1	9.550225E-1	9.607617E-1	9.369783E-1	9.700666E-1	9.739577E-1	9.109676E-1	9.576646E-1	9.400771E-1	9.752299E-1	9.312477E-1	9.537824E-1	9.185824E-1	9.899110E-1	9.501837E-1	9.952866E-1	9.286921E-1	1.001992E+0	9.781476E-1	9.461914E-1	9.955058E-1	9.334215E-1	9.633494E-1	9.723128E-1	1.014770E+0	9.582552E-1	9.494319E-1	9.738572E-1	8.992328E-1	9.301280E-1	9.940899E-1	9.601095E-1	1.012024E+0	9.827039E-1	9.660294E-1	9.723864E-1	9.783080E-1	9.699677E-1	9.638377E-1	9.441779E-1	9.612895E-1	9.110148E-1	9.915903E-1	9.783956E-1	9.888674E-1	9.355071E-1	9.827332E-1	9.719959E-1	9.818276E-1	9.334850E-1	9.824680E-1	9.452252E-1	9.716819E-1	9.078676E-1	1.018185E+0	8.956673E-1
5.425400E+2	9.290609E-1	8.930905E-1	9.257625E-1	8.831508E-1	9.001566E-1	8.919266E-1	8.747333E-1	8.766659E-1	8.816623E-1	9.008836E-1	9.117435E-1	9.177014E-1	8.894079E-1	9.112921E-1	8.625492E-1	9.031191E-1	8.963050E-1	8.674512E-1	9.195425E-1	8.929469E-1	8.892632E-1	9.124978E-1	9.070345E-1	8.937518E-1	9.274907E-1	8.976752E-1	9.155265E-1	9.473354E-1	8.822278E-1	9.094821E-1	9.274249E-1	8.961543E-1	9.048588E-1	9.598125E-1	9.183070E-1	9.573072E-1	9.077077E-1	9.046341E-1	9.173676E-1	9.352281E-1	9.294713E-1	9.157654E-1	8.798595E-1	9.233727E-1	9.054631E-1	9.045964E-1	9.060567E-1	9.127488E-1	9.293156E-1	9.448470E-1	9.058812E-1	9.654770E-1	9.100119E-1	9.157995E-1	8.875227E-1	8.598843E-1	8.783451E-1	9.045459E-1	9.344150E-1	9.146108E-1	8.673838E-1	8.737264E-1	8.564213E-1	9.123715E-1	9.261409E-1	9.297843E-1	9.157452E-1	9.031687E-1	9.115835E-1	8.936321E-1	9.221139E-1	9.151276E-1	8.746928E-1	9.373287E-1	9.547488E-1	9.252530E-1	9.541301E-1	8.619871E-1	9.135962E-1	9.072473E-1	8.870825E-1	8.650736E-1	8.869233E-1	8.810029E-1	9.013622E-1	8.993430E-1	8.663985E-1	9.236384E-1	9.057038E-1	8.697607E-1	9.045395E-1	9.100264E-1	8.808331E-1	8.609442E-1	8.724386E-1	9.625478E-1	9.049974E-1	9.706749E-1	9.296718E-1	9.066019E-1	8.580148E-1	9.538994E-1	9.137219E-1	8.780443E-1	9.396322E-1	9.321265E-1	8.709488E-1	8.790752E-1	8.766093E-1	8.693086E-1	9.003793E-1	9.893791E-1	9.169976E-1	9.178620E-1	9.201690E-1	8.905048E-1	9.232384E-1	8.748632E-1	9.337476E-1	8.889339E-1	9.062076E-1	9.165505E-1	8.695000E-1	9.152885E-1	9.082259E-1	8.799292E-1	8.754497E-1	9.376865E-1	9.385169E-1	8.989770E-1	9.768921E-1	9.014406E-1	9.210610E-1	9.167640E-1	9.031874E-1	9.031435E-1	9.089383E-1	9.502729E-1	9.179878E-1	9.575174E-1	8.838248E-1	8.973977E-1	8.799698E-1	9.109149E-1	8.818894E-1	8.774881E-1	8.772781E-1	9.092233E-1	9.396820E-1	8.878240E-1	9.320666E-1	9.421848E-1	8.854041E-1	9.216423E-1	9.066613E-1	9.419430E-1	8.952614E-1	8.929156E-1	9.233675E-1	8.983608E-1	9.237649E-1	9.016340E-1	9.163651E-1	9.463338E-1	9.089866E-1	8.829596E-1	8.898671E-1	9.221815E-1	8.358758E-1	8.822951E-1	8.807649E-1
5.427600E+2	9.823341E-1	8.928617E-1	9.655183E-1	9.438984E-1	9.601056E-1	9.546481E-1	9.517084E-1	9.175418E-1	9.301347E-1	9.335696E-1	9.532692E-1	9.441251E-1	9.346935E-1	9.370001E-1	9.494014E-1	9.352415E-1	9.439702E-1	8.984346E-1	9.564086E-1	9.369733E-1	9.352557E-1	9.177173E-1	9.751872E-1	9.556320E-1	1.033401E+0	9.848579E-1	9.830223E-1	9.649437E-1	9.135862E-1	9.239554E-1	9.707917E-1	9.714524E-1	9.633343E-1	9.484414E-1	9.435301E-1	9.780705E-1	9.854586E-1	9.528702E-1	9.280055E-1	8.826232E-1	9.662229E-1	9.695269E-1	9.647329E-1	9.836050E-1	9.443240E-1	9.105852E-1	9.156831E-1	9.651900E-1	9.717720E-1	9.462919E-1	9.431037E-1	9.760964E-1	9.335725E-1	9.623551E-1	9.491464E-1	9.713080E-1	9.340066E-1	9.194783E-1	9.543662E-1	9.944581E-1	9.034345E-1	9.493312E-1	8.814206E-1	9.746715E-1	9.080811E-1	9.776646E-1	9.440462E-1	9.821990E-1	9.146436E-1	9.682709E-1	9.590856E-1	9.183248E-1	9.500598E-1	9.677361E-1	9.787446E-1	9.682131E-1	9.379987E-1	9.250530E-1	9.080780E-1	9.255391E-1	9.676247E-1	9.316516E-1	9.531053E-1	9.412410E-1	9.392218E-1	9.638896E-1	9.125458E-1	9.471490E-1	9.489424E-1	9.489945E-1	9.635494E-1	9.215554E-1	9.714022E-1	9.465509E-1	9.373895E-1	9.769412E-1	9.212599E-1	9.353410E-1	9.776222E-1	9.173087E-1	9.274573E-1	9.799299E-1	9.898785E-1	9.233108E-1	9.199868E-1	9.704169E-1	9.493766E-1	9.338253E-1	9.416961E-1	9.204397E-1	9.672433E-1	9.790337E-1	9.462241E-1	9.307117E-1	8.940830E-1	9.944120E-1	9.720729E-1	9.162162E-1	9.328237E-1	8.907298E-1	9.642995E-1	9.122412E-1	9.357552E-1	9.379834E-1	8.883939E-1	9.099473E-1	9.462994E-1	9.403410E-1	9.661011E-1	9.531717E-1	9.432965E-1	9.653525E-1	9.266180E-1	9.589109E-1	9.769864E-1	9.509560E-1	9.642666E-1	9.339371E-1	9.571096E-1	9.409673E-1	9.077163E-1	9.350288E-1	9.360927E-1	9.445446E-1	9.546295E-1	9.800068E-1	9.449614E-1	9.391474E-1	8.978028E-1	9.218656E-1	9.735195E-1	9.483791E-1	9.592725E-1	9.588830E-1	9.480282E-1	9.505660E-1	9.283544E-1	9.245727E-1	9.719318E-1	9.434127E-1	9.272936E-1	9.362361E-1	9.604093E-1	9.410849E-1	9.128250E-1	9.436212E-1	9.669213E-1	9.814795E-1	9.255945E-1	1.004315E+0	9.863383E-1
5.430070E+2	1.036107E+0	1.020999E+0	1.087855E+0	1.004904E+0	1.034657E+0	1.049302E+0	1.052534E+0	1.021329E+0	1.006910E+0	1.015722E+0	1.047092E+0	1.063788E+0	1.043060E+0	1.036185E+0	1.008298E+0	1.072381E+0	1.047979E+0	1.012405E+0	1.052530E+0	1.017464E+0	1.037993E+0	9.875238E-1	1.058505E+0	1.021711E+0	1.088591E+0	1.041124E+0	1.119275E+0	1.065240E+0	1.048423E+0	1.005032E+0	1.020986E+0	1.056953E+0	1.032665E+0	1.074189E+0	1.025414E+0	1.044626E+0	1.049357E+0	1.016842E+0	1.103140E+0	1.007477E+0	1.080880E+0	1.105773E+0	1.041009E+0	1.083232E+0	1.074696E+0	1.023048E+0	1.045608E+0	1.045731E+0	1.058011E+0	1.082706E+0	1.054636E+0	1.042744E+0	1.058705E+0	1.031531E+0	1.089512E+0	1.056394E+0	1.039304E+0	1.035373E+0	1.069321E+0	1.078104E+0	1.009796E+0	1.040904E+0	1.004034E+0	1.073577E+0	1.064796E+0	9.957271E-1	1.020285E+0	1.024883E+0	1.049756E+0	1.062325E+0	1.004225E+0	1.030648E+0	1.042254E+0	1.016344E+0	1.085244E+0	1.124228E+0	1.032672E+0	1.005614E+0	1.026097E+0	1.071586E+0	1.044595E+0	1.050318E+0	1.038936E+0	1.129880E+0	1.027669E+0	1.033870E+0	1.030570E+0	1.065329E+0	1.020918E+0	1.041653E+0	1.009723E+0	1.021540E+0	1.015024E+0	1.074670E+0	1.050059E+0	1.097337E+0	1.082606E+0	1.066628E+0	1.063003E+0	1.042765E+0	1.035119E+0	9.977268E-1	1.027239E+0	1.032578E+0	1.066579E+0	1.021653E+0	1.069432E+0	1.008235E+0	1.057569E+0	1.012456E+0	1.067476E+0	1.099502E+0	9.831448E-1	1.001624E+0	1.033338E+0	1.069228E+0	1.017727E+0	1.038092E+0	1.026642E+0	1.053226E+0	1.029630E+0	1.029178E+0	1.052875E+0	9.989749E-1	9.871728E-1	1.035103E+0	1.041503E+0	1.049740E+0	1.033561E+0	1.029411E+0	1.089596E+0	1.082911E+0	1.086941E+0	1.035949E+0	1.076654E+0	1.099838E+0	1.006428E+0	9.939469E-1	1.056855E+0	1.038650E+0	1.095983E+0	1.038357E+0	9.869889E-1	1.046239E+0	1.017191E+0	1.055134E+0	1.032294E+0	1.026698E+0	1.056705E+0	1.040060E+0	1.056297E+0	1.068807E+0	1.046661E+0	1.053377E+0	1.017022E+0	1.070837E+0	1.004823E+0	1.054047E+0	1.055390E+0	1.064698E+0	1.076360E+0	1.035104E+0	1.018917E+0	1.074816E+0	1.012998E+0	1.057467E+0	1.037089E+0	1.002713E+0	1.003310E+0	9.980290E-1	9.883411E-1
5.432860E+2	1.184795E+0	1.187361E+0	1.176868E+0	1.217134E+0	1.218116E+0	1.149666E+0	1.176207E+0	1.161240E+0	1.186799E+0	1.153205E+0	1.150126E+0	1.140583E+0	1.187515E+0	1.200700E+0	1.222726E+0	1.186245E+0	1.193995E+0	1.161235E+0	1.220965E+0	1.247230E+0	1.177871E+0	1.113563E+0	1.182202E+0	1.133445E+0	1.204708E+0	1.173445E+0	1.201277E+0	1.170418E+0	1.224889E+0	1.194597E+0	1.189639E+0	1.170306E+0	1.204048E+0	1.184650E+0	1.219767E+0	1.228043E+0	1.194156E+0	1.210310E+0	1.234627E+0	1.171680E+0	1.190567E+0	1.203100E+0	1.185811E+0	1.231070E+0	1.198846E+0	1.212253E+0	1.196078E+0	1.226960E+0	1.227161E+0	1.228678E+0	1.181932E+0	1.166061E+0	1.201575E+0	1.217604E+0	1.206546E+0	1.217690E+0	1.176569E+0	1.189812E+0	1.190821E+0	1.223435E+0	1.195620E+0	1.157183E+0	1.156755E+0	1.192196E+0	1.165204E+0	1.212077E+0	1.199912E+0	1.222238E+0	1.251852E+0	1.206239E+0	1.180732E+0	1.146602E+0	1.169850E+0	1.198718E+0	1.223928E+0	1.151387E+0	1.192371E+0	1.178424E+0	1.148948E+0	1.150188E+0	1.149905E+0	1.191504E+0	1.176106E+0	1.152433E+0	1.151925E+0	1.156566E+0	1.219344E+0	1.198561E+0	1.198299E+0	1.158896E+0	1.149759E+0	1.254824E+0	1.198530E+0	1.184602E+0	1.146268E+0	1.183327E+0	1.228684E+0	1.207053E+0	1.182523E+0	1.171629E+0	1.149107E+0	1.223369E+0	1.207995E+0	1.198424E+0	1.177103E+0	1.135373E+0	1.201734E+0	1.163979E+0	1.174763E+0	1.204254E+0	1.151110E+0	1.196262E+0	1.168480E+0	1.143352E+0	1.173188E+0	1.184642E+0	1.201430E+0	1.187947E+0	1.190466E+0	1.164930E+0	1.201959E+0	1.151756E+0	1.179895E+0	1.144510E+0	1.212445E+0	1.177276E+0	1.193214E+0	1.171420E+0	1.239432E+0	1.180786E+0	1.225976E+0	1.215832E+0	1.220882E+0	1.185602E+0	1.237024E+0	1.146089E+0	1.228336E+0	1.236797E+0	1.209606E+0	1.194407E+0	1.243741E+0	1.144482E+0	1.162544E+0	1.168079E+0	1.198059E+0	1.186857E+0	1.146645E+0	1.146619E+0	1.180971E+0	1.197807E+0	1.199667E+0	1.219020E+0	1.183346E+0	1.198280E+0	1.206965E+0	1.211488E+0	1.173387E+0	1.176376E+0	1.195600E+0	1.158435E+0	1.194112E+0	1.134676E+0	1.194379E+0	1.219191E+0	1.182692E+0	1.156151E+0	1.190522E+0	1.186976E+0	1.139100E+0	1.125961E+0	1.181917E+0
5.435220E+2	1.385442E+0	1.274525E+0	1.305899E+0	1.292786E+0	1.342805E+0	1.258673E+0	1.330261E+0	1.325004E+0	1.313053E+0	1.305600E+0	1.315455E+0	1.290706E+0	1.308460E+0	1.266320E+0	1.295393E+0	1.324273E+0	1.350789E+0	1.306422E+0	1.327684E+0	1.308433E+0	1.302008E+0	1.300987E+0	1.318900E+0	1.301983E+0	1.290464E+0	1.238481E+0	1.319326E+0	1.314196E+0	1.317547E+0	1.312707E+0	1.319191E+0	1.296580E+0	1.320958E+0	1.343656E+0	1.352465E+0	1.353994E+0	1.339757E+0	1.279511E+0	1.386977E+0	1.328339E+0	1.327316E+0	1.333902E+0	1.338461E+0	1.304117E+0	1.353568E+0	1.316465E+0	1.338848E+0	1.299397E+0	1.330651E+0	1.356661E+0	1.273855E+0	1.308397E+0	1.279628E+0	1.316846E+0	1.348537E+0	1.318316E+0	1.322688E+0	1.305582E+0	1.296220E+0	1.321802E+0	1.273787E+0	1.262919E+0	1.276691E+0	1.331046E+0	1.337751E+0	1.327039E+0	1.348296E+0	1.268104E+0	1.337948E+0	1.326132E+0	1.329560E+0	1.299587E+0	1.319318E+0	1.358461E+0	1.334971E+0	1.409976E+0	1.311818E+0	1.300329E+0	1.312216E+0	1.305613E+0	1.305409E+0	1.315098E+0	1.320017E+0	1.356498E+0	1.307373E+0	1.272917E+0	1.308193E+0	1.309916E+0	1.307509E+0	1.328527E+0	1.294148E+0	1.311407E+0	1.309937E+0	1.282780E+0	1.285492E+0	1.283840E+0	1.324703E+0	1.275145E+0	1.304780E+0	1.292317E+0	1.338034E+0	1.347742E+0	1.333114E+0	1.334465E+0	1.355498E+0	1.275027E+0	1.342366E+0	1.269203E+0	1.304144E+0	1.311893E+0	1.279721E+0	1.338967E+0	1.323353E+0	1.228837E+0	1.311609E+0	1.345249E+0	1.335806E+0	1.311156E+0	1.322510E+0	1.268669E+0	1.269472E+0	1.280761E+0	1.288874E+0	1.269205E+0	1.318942E+0	1.274859E+0	1.312073E+0	1.236689E+0	1.364126E+0	1.297295E+0	1.358255E+0	1.311481E+0	1.338380E+0	1.287891E+0	1.282221E+0	1.348448E+0	1.293046E+0	1.306323E+0	1.248692E+0	1.327511E+0	1.315783E+0	1.258532E+0	1.319823E+0	1.278060E+0	1.328463E+0	1.300188E+0	1.311783E+0	1.305396E+0	1.305351E+0	1.300485E+0	1.345088E+0	1.371068E+0	1.248657E+0	1.338735E+0	1.265830E+0	1.309999E+0	1.311462E+0	1.252581E+0	1.288062E+0	1.252874E+0	1.267350E+0	1.276117E+0	1.294409E+0	1.304109E+0	1.293540E+0	1.321815E+0	1.312672E+0	1.298914E+0	1.211027E+0	1.283614E+0	1.249814E+0
5.437590E+2	1.446800E+0	1.391980E+0	1.415240E+0	1.381840E+0	1.411067E+0	1.447969E+0	1.396500E+0	1.433886E+0	1.344021E+0	1.430360E+0	1.375155E+0	1.429818E+0	1.407223E+0	1.430075E+0	1.374060E+0	1.449607E+0	1.491699E+0	1.362863E+0	1.350471E+0	1.343713E+0	1.393452E+0	1.404587E+0	1.451896E+0	1.483853E+0	1.468126E+0	1.448312E+0	1.425430E+0	1.380467E+0	1.379183E+0	1.391731E+0	1.365773E+0	1.428590E+0	1.453608E+0	1.417121E+0	1.441911E+0	1.409498E+0	1.445446E+0	1.391929E+0	1.386326E+0	1.352889E+0	1.354509E+0	1.395334E+0	1.443679E+0	1.430392E+0	1.419548E+0	1.412508E+0	1.451478E+0	1.382240E+0	1.424059E+0	1.434835E+0	1.407263E+0	1.414463E+0	1.418184E+0	1.400344E+0	1.458723E+0	1.439885E+0	1.425377E+0	1.427896E+0	1.421062E+0	1.452927E+0	1.359834E+0	1.391706E+0	1.391121E+0	1.425839E+0	1.434251E+0	1.371465E+0	1.416377E+0	1.388942E+0	1.420524E+0	1.397021E+0	1.400451E+0	1.429641E+0	1.407298E+0	1.390834E+0	1.428094E+0	1.449455E+0	1.451829E+0	1.400455E+0	1.409951E+0	1.409444E+0	1.436691E+0	1.371006E+0	1.391657E+0	1.368659E+0	1.368268E+0	1.380957E+0	1.421149E+0	1.412822E+0	1.475209E+0	1.393617E+0	1.414603E+0	1.383601E+0	1.454376E+0	1.405630E+0	1.401364E+0	1.388741E+0	1.427975E+0	1.444858E+0	1.400926E+0	1.425781E+0	1.388762E+0	1.397467E+0	1.404663E+0	1.366344E+0	1.361743E+0	1.393073E+0	1.445623E+0	1.433139E+0	1.422283E+0	1.421651E+0	1.423919E+0	1.452166E+0	1.405278E+0	1.372254E+0	1.386512E+0	1.357272E+0	1.364428E+0	1.399866E+0	1.400265E+0	1.384446E+0	1.391594E+0	1.395672E+0	1.336129E+0	1.406727E+0	1.394210E+0	1.381031E+0	1.384917E+0	1.381446E+0	1.488381E+0	1.376531E+0	1.458950E+0	1.416721E+0	1.426799E+0	1.386301E+0	1.411062E+0	1.389134E+0	1.421022E+0	1.392808E+0	1.392888E+0	1.345131E+0	1.430454E+0	1.409419E+0	1.384280E+0	1.307600E+0	1.360583E+0	1.389885E+0	1.389243E+0	1.366301E+0	1.394085E+0	1.355271E+0	1.402371E+0	1.404409E+0	1.365131E+0	1.446008E+0	1.392033E+0	1.375083E+0	1.374436E+0	1.384013E+0	1.380870E+0	1.382635E+0	1.427571E+0	1.416470E+0	1.411848E+0	1.367151E+0	1.400031E+0	1.395150E+0	1.373220E+0	1.306709E+0	1.398116E+0	1.360166E+0	1.268202E+0
5.440120E+2	1.534262E+0	1.500463E+0	1.493941E+0	1.412219E+0	1.499767E+0	1.491191E+0	1.454409E+0	1.439489E+0	1.463345E+0	1.521752E+0	1.479114E+0	1.489413E+0	1.470101E+0	1.453040E+0	1.466611E+0	1.504548E+0	1.484413E+0	1.430064E+0	1.474194E+0	1.394419E+0	1.495401E+0	1.422816E+0	1.469735E+0	1.456246E+0	1.469224E+0	1.408412E+0	1.460018E+0	1.441765E+0	1.439998E+0	1.397307E+0	1.421056E+0	1.409631E+0	1.485654E+0	1.481994E+0	1.458705E+0	1.429706E+0	1.485255E+0	1.412768E+0	1.463027E+0	1.430660E+0	1.463910E+0	1.386148E+0	1.477621E+0	1.430747E+0	1.442677E+0	1.462511E+0	1.409583E+0	1.452896E+0	1.465349E+0	1.445283E+0	1.393474E+0	1.505207E+0	1.453843E+0	1.427455E+0	1.536847E+0	1.434851E+0	1.420963E+0	1.500891E+0	1.493355E+0	1.513614E+0	1.430654E+0	1.440748E+0	1.416397E+0	1.459154E+0	1.392244E+0	1.438477E+0	1.472026E+0	1.387755E+0	1.467696E+0	1.434458E+0	1.474975E+0	1.418973E+0	1.471490E+0	1.423560E+0	1.488817E+0	1.521991E+0	1.466822E+0	1.428974E+0	1.431397E+0	1.449176E+0	1.468930E+0	1.434156E+0	1.426596E+0	1.476372E+0	1.438082E+0	1.424019E+0	1.464332E+0	1.407589E+0	1.431539E+0	1.435283E+0	1.457345E+0	1.538230E+0	1.450101E+0	1.461548E+0	1.435202E+0	1.479332E+0	1.469118E+0	1.480669E+0	1.448078E+0	1.431084E+0	1.437672E+0	1.444980E+0	1.451953E+0	1.494419E+0	1.476681E+0	1.424230E+0	1.444934E+0	1.380910E+0	1.431381E+0	1.444980E+0	1.424125E+0	1.478639E+0	1.450980E+0	1.418878E+0	1.420086E+0	1.456085E+0	1.458580E+0	1.451084E+0	1.389361E+0	1.437114E+0	1.402803E+0	1.417147E+0	1.435793E+0	1.442711E+0	1.455624E+0	1.453872E+0	1.443697E+0	1.393460E+0	1.467591E+0	1.425031E+0	1.476220E+0	1.450921E+0	1.464729E+0	1.451813E+0	1.427328E+0	1.449204E+0	1.395817E+0	1.442346E+0	1.392921E+0	1.481734E+0	1.425656E+0	1.497614E+0	1.375457E+0	1.393869E+0	1.388162E+0	1.417694E+0	1.417698E+0	1.441294E+0	1.451306E+0	1.435070E+0	1.461836E+0	1.477753E+0	1.399107E+0	1.419398E+0	1.433274E+0	1.431538E+0	1.442011E+0	1.432104E+0	1.430177E+0	1.363818E+0	1.437431E+0	1.428360E+0	1.460792E+0	1.468754E+0	1.419038E+0	1.470877E+0	1.412871E+0	1.430645E+0	1.337094E+0	1.489396E+0	1.491987E+0
5.442700E+2	1.507903E+0	1.447543E+0	1.472621E+0	1.506501E+0	1.472085E+0	1.470210E+0	1.509213E+0	1.494143E+0	1.465891E+0	1.449437E+0	1.463507E+0	1.542940E+0	1.492163E+0	1.523720E+0	1.468581E+0	1.496332E+0	1.490394E+0	1.447164E+0	1.435641E+0	1.465978E+0	1.468218E+0	1.453442E+0	1.471488E+0	1.384665E+0	1.459860E+0	1.511315E+0	1.479737E+0	1.493061E+0	1.490831E+0	1.449157E+0	1.411393E+0	1.438820E+0	1.445047E+0	1.478888E+0	1.437187E+0	1.490866E+0	1.455031E+0	1.430392E+0	1.535246E+0	1.467870E+0	1.467201E+0	1.514387E+0	1.462815E+0	1.490400E+0	1.454913E+0	1.466394E+0	1.452644E+0	1.414886E+0	1.518472E+0	1.479417E+0	1.435976E+0	1.480893E+0	1.439060E+0	1.476468E+0	1.477519E+0	1.474930E+0	1.406777E+0	1.438535E+0	1.516543E+0	1.530825E+0	1.432126E+0	1.435789E+0	1.416184E+0	1.470994E+0	1.469864E+0	1.448801E+0	1.442869E+0	1.416366E+0	1.469597E+0	1.464970E+0	1.474505E+0	1.431762E+0	1.505162E+0	1.468087E+0	1.471966E+0	1.520172E+0	1.460690E+0	1.423190E+0	1.443675E+0	1.475959E+0	1.455970E+0	1.421774E+0	1.446432E+0	1.468823E+0	1.463592E+0	1.461032E+0	1.419222E+0	1.464652E+0	1.451893E+0	1.457394E+0	1.478737E+0	1.470906E+0	1.478502E+0	1.470097E+0	1.481228E+0	1.503604E+0	1.480041E+0	1.479655E+0	1.467565E+0	1.474368E+0	1.424543E+0	1.463269E+0	1.491648E+0	1.426499E+0	1.459655E+0	1.446672E+0	1.487720E+0	1.435182E+0	1.447752E+0	1.432225E+0	1.446185E+0	1.505117E+0	1.450850E+0	1.420872E+0	1.398484E+0	1.433382E+0	1.474271E+0	1.498779E+0	1.473704E+0	1.444294E+0	1.458183E+0	1.436041E+0	1.450146E+0	1.446599E+0	1.501746E+0	1.452428E+0	1.441440E+0	1.470259E+0	1.492590E+0	1.478110E+0	1.449390E+0	1.488237E+0	1.470778E+0	1.436754E+0	1.446073E+0	1.455644E+0	1.459524E+0	1.413965E+0	1.434759E+0	1.486183E+0	1.473966E+0	1.458617E+0	1.437287E+0	1.423972E+0	1.413413E+0	1.403903E+0	1.478629E+0	1.416066E+0	1.453918E+0	1.396441E+0	1.514970E+0	1.475290E+0	1.433838E+0	1.475493E+0	1.442484E+0	1.480186E+0	1.459916E+0	1.472456E+0	1.491499E+0	1.416447E+0	1.494756E+0	1.460704E+0	1.387676E+0	1.510043E+0	1.399941E+0	1.464431E+0	1.510609E+0	1.428162E+0	1.351809E+0	1.474494E+0	1.476574E+0
5.445240E+2	1.474632E+0	1.468017E+0	1.531984E+0	1.477854E+0	1.437367E+0	1.483123E+0	1.490611E+0	1.443401E+0	1.433556E+0	1.474379E+0	1.481423E+0	1.461149E+0	1.462698E+0	1.467856E+0	1.480393E+0	1.477285E+0	1.436282E+0	1.396891E+0	1.443704E+0	1.478937E+0	1.428936E+0	1.426073E+0	1.494565E+0	1.444118E+0	1.376459E+0	1.371797E+0	1.450399E+0	1.401290E+0	1.489202E+0	1.445420E+0	1.467623E+0	1.467416E+0	1.433838E+0	1.524108E+0	1.469858E+0	1.408001E+0	1.451654E+0	1.439870E+0	1.528790E+0	1.483263E+0	1.457311E+0	1.490300E+0	1.437082E+0	1.440570E+0	1.445610E+0	1.469319E+0	1.475628E+0	1.441825E+0	1.417158E+0	1.479494E+0	1.420209E+0	1.467347E+0	1.443142E+0	1.421894E+0	1.532095E+0	1.463413E+0	1.456949E+0	1.453760E+0	1.452517E+0	1.515290E+0	1.435272E+0	1.439246E+0	1.370317E+0	1.478222E+0	1.489469E+0	1.454708E+0	1.452662E+0	1.413359E+0	1.427316E+0	1.415464E+0	1.477916E+0	1.426654E+0	1.475900E+0	1.429130E+0	1.439266E+0	1.499043E+0	1.442812E+0	1.443093E+0	1.464400E+0	1.412421E+0	1.461135E+0	1.399675E+0	1.448309E+0	1.444144E+0	1.468447E+0	1.466124E+0	1.480024E+0	1.435367E+0	1.453480E+0	1.374187E+0	1.446791E+0	1.415030E+0	1.427157E+0	1.447189E+0	1.427605E+0	1.440171E+0	1.495570E+0	1.410524E+0	1.481909E+0	1.434636E+0	1.442902E+0	1.443717E+0	1.497938E+0	1.466083E+0	1.457791E+0	1.414628E+0	1.449119E+0	1.405767E+0	1.413168E+0	1.442909E+0	1.454243E+0	1.463602E+0	1.394660E+0	1.374625E+0	1.442280E+0	1.459173E+0	1.379193E+0	1.462256E+0	1.456012E+0	1.436963E+0	1.440137E+0	1.463325E+0	1.449526E+0	1.431457E+0	1.382863E+0	1.482542E+0	1.385831E+0	1.408357E+0	1.477022E+0	1.470232E+0	1.489044E+0	1.486888E+0	1.452489E+0	1.455438E+0	1.433977E+0	1.431819E+0	1.477023E+0	1.424362E+0	1.476680E+0	1.487770E+0	1.444572E+0	1.458884E+0	1.396151E+0	1.398388E+0	1.410092E+0	1.444171E+0	1.431501E+0	1.467174E+0	1.487964E+0	1.462473E+0	1.412960E+0	1.508487E+0	1.406070E+0	1.443788E+0	1.419178E+0	1.443729E+0	1.400420E+0	1.479493E+0	1.408725E+0	1.399139E+0	1.439988E+0	1.424167E+0	1.441752E+0	1.385902E+0	1.402195E+0	1.418503E+0	1.523081E+0	1.420416E+0	1.436036E+0	1.500123E+0	1.493779E+0
5.447720E+2	1.480240E+0	1.417522E+0	1.439758E+0	1.447854E+0	1.423267E+0	1.464410E+0	1.466540E+0	1.461766E+0	1.395458E+0	1.432041E+0	1.492137E+0	1.454324E+0	1.404612E+0	1.440500E+0	1.481212E+0	1.456808E+0	1.449095E+0	1.411821E+0	1.455493E+0	1.413791E+0	1.424493E+0	1.405185E+0	1.485303E+0	1.419223E+0	1.400234E+0	1.386913E+0	1.483632E+0	1.432889E+0	1.398470E+0	1.425506E+0	1.381210E+0	1.437312E+0	1.465267E+0	1.452311E+0	1.439065E+0	1.387199E+0	1.449119E+0	1.387784E+0	1.443469E+0	1.458106E+0	1.416074E+0	1.421265E+0	1.440922E+0	1.441935E+0	1.417886E+0	1.377703E+0	1.440067E+0	1.379089E+0	1.423570E+0	1.455167E+0	1.365266E+0	1.491634E+0	1.383912E+0	1.480750E+0	1.417021E+0	1.418487E+0	1.438323E+0	1.422608E+0	1.498413E+0	1.548821E+0	1.372277E+0	1.407051E+0	1.399489E+0	1.387698E+0	1.469354E+0	1.426986E+0	1.415036E+0	1.414675E+0	1.398458E+0	1.430211E+0	1.417695E+0	1.367109E+0	1.395424E+0	1.452825E+0	1.464831E+0	1.487971E+0	1.456120E+0	1.464395E+0	1.425163E+0	1.418794E+0	1.403290E+0	1.470744E+0	1.423749E+0	1.446424E+0	1.450113E+0	1.441375E+0	1.424773E+0	1.443585E+0	1.431056E+0	1.444336E+0	1.391300E+0	1.382833E+0	1.394416E+0	1.421019E+0	1.379971E+0	1.416653E+0	1.452084E+0	1.437821E+0	1.452732E+0	1.444642E+0	1.437980E+0	1.385970E+0	1.458453E+0	1.453342E+0	1.391798E+0	1.430932E+0	1.417773E+0	1.435084E+0	1.398875E+0	1.433866E+0	1.415273E+0	1.450400E+0	1.402685E+0	1.375637E+0	1.403787E+0	1.369376E+0	1.379716E+0	1.430581E+0	1.415558E+0	1.436493E+0	1.463796E+0	1.372538E+0	1.377601E+0	1.377036E+0	1.423878E+0	1.377762E+0	1.393169E+0	1.411478E+0	1.452218E+0	1.408151E+0	1.486388E+0	1.411627E+0	1.482922E+0	1.363514E+0	1.458679E+0	1.426518E+0	1.389732E+0	1.448427E+0	1.454380E+0	1.453773E+0	1.398095E+0	1.411240E+0	1.374894E+0	1.393647E+0	1.381677E+0	1.376879E+0	1.386917E+0	1.459335E+0	1.384061E+0	1.419492E+0	1.508216E+0	1.430873E+0	1.402834E+0	1.464007E+0	1.375174E+0	1.407764E+0	1.420798E+0	1.411497E+0	1.380758E+0	1.432678E+0	1.373704E+0	1.377606E+0	1.444858E+0	1.395031E+0	1.373570E+0	1.405909E+0	1.412790E+0	1.372401E+0	1.371429E+0	1.391698E+0	1.419060E+0
5.450200E+2	1.371646E+0	1.377085E+0	1.327470E+0	1.416198E+0	1.296693E+0	1.331682E+0	1.369292E+0	1.412530E+0	1.327130E+0	1.393193E+0	1.331148E+0	1.390962E+0	1.371131E+0	1.346478E+0	1.377105E+0	1.360444E+0	1.355172E+0	1.306108E+0	1.365606E+0	1.415504E+0	1.370856E+0	1.332904E+0	1.410275E+0	1.339711E+0	1.354294E+0	1.364469E+0	1.345570E+0	1.364265E+0	1.337114E+0	1.304434E+0	1.295781E+0	1.344827E+0	1.342801E+0	1.418053E+0	1.335934E+0	1.400743E+0	1.326879E+0	1.344253E+0	1.398468E+0	1.367164E+0	1.368006E+0	1.367651E+0	1.328902E+0	1.338394E+0	1.342665E+0	1.376931E+0	1.341110E+0	1.345019E+0	1.368782E+0	1.387321E+0	1.376768E+0	1.391402E+0	1.295955E+0	1.377937E+0	1.396525E+0	1.385550E+0	1.362468E+0	1.373146E+0	1.365668E+0	1.400194E+0	1.351877E+0	1.335621E+0	1.300374E+0	1.323910E+0	1.369496E+0	1.342898E+0	1.373879E+0	1.373775E+0	1.307372E+0	1.342645E+0	1.321246E+0	1.316696E+0	1.331278E+0	1.387032E+0	1.424079E+0	1.400158E+0	1.342556E+0	1.337843E+0	1.337508E+0	1.308017E+0	1.372608E+0	1.309462E+0	1.355451E+0	1.370638E+0	1.346660E+0	1.352417E+0	1.389714E+0	1.392563E+0	1.383096E+0	1.356879E+0	1.324105E+0	1.376529E+0	1.374618E+0	1.383974E+0	1.313938E+0	1.353040E+0	1.406038E+0	1.388519E+0	1.379798E+0	1.414781E+0	1.313291E+0	1.353502E+0	1.389153E+0	1.400205E+0	1.356380E+0	1.372836E+0	1.311660E+0	1.361320E+0	1.358849E+0	1.360118E+0	1.347712E+0	1.387103E+0	1.374202E+0	1.333923E+0	1.330084E+0	1.388977E+0	1.279835E+0	1.406037E+0	1.350924E+0	1.366984E+0	1.384389E+0	1.344490E+0	1.330147E+0	1.339480E+0	1.299989E+0	1.343089E+0	1.331785E+0	1.317679E+0	1.405579E+0	1.347905E+0	1.418431E+0	1.383801E+0	1.377313E+0	1.325139E+0	1.325076E+0	1.267995E+0	1.312363E+0	1.369681E+0	1.391558E+0	1.354291E+0	1.370797E+0	1.337761E+0	1.328362E+0	1.310333E+0	1.347660E+0	1.327355E+0	1.371332E+0	1.413142E+0	1.312505E+0	1.336093E+0	1.404100E+0	1.325115E+0	1.315549E+0	1.362150E+0	1.400837E+0	1.390562E+0	1.311185E+0	1.374288E+0	1.336204E+0	1.353215E+0	1.394930E+0	1.312482E+0	1.324300E+0	1.333750E+0	1.343237E+0	1.325377E+0	1.376845E+0	1.357222E+0	1.270493E+0	1.403325E+0	1.387951E+0
5.452690E+2	1.329853E+0	1.344908E+0	1.271273E+0	1.242858E+0	1.303499E+0	1.294591E+0	1.298763E+0	1.317167E+0	1.285879E+0	1.335921E+0	1.291059E+0	1.302094E+0	1.285043E+0	1.296777E+0	1.341003E+0	1.329478E+0	1.329496E+0	1.266579E+0	1.329322E+0	1.272433E+0	1.286857E+0	1.278920E+0	1.326734E+0	1.310467E+0	1.285852E+0	1.291659E+0	1.287423E+0	1.273614E+0	1.292187E+0	1.278842E+0	1.299210E+0	1.330323E+0	1.290689E+0	1.355141E+0	1.314438E+0	1.313124E+0	1.292468E+0	1.241526E+0	1.365722E+0	1.320333E+0	1.249452E+0	1.289495E+0	1.326218E+0	1.276235E+0	1.247205E+0	1.275571E+0	1.300623E+0	1.219151E+0	1.339787E+0	1.331209E+0	1.263636E+0	1.315602E+0	1.258322E+0	1.285608E+0	1.360664E+0	1.314933E+0	1.285116E+0	1.318423E+0	1.326654E+0	1.292847E+0	1.241398E+0	1.286689E+0	1.275224E+0	1.255536E+0	1.303536E+0	1.296289E+0	1.235826E+0	1.276731E+0	1.293109E+0	1.294051E+0	1.332263E+0	1.266382E+0	1.263074E+0	1.308054E+0	1.283359E+0	1.318030E+0	1.288214E+0	1.275284E+0	1.299477E+0	1.336703E+0	1.303565E+0	1.334092E+0	1.348824E+0	1.285359E+0	1.294867E+0	1.307910E+0	1.261453E+0	1.259902E+0	1.325143E+0	1.267878E+0	1.303074E+0	1.311996E+0	1.229148E+0	1.259758E+0	1.262189E+0	1.289623E+0	1.255838E+0	1.345061E+0	1.258819E+0	1.308508E+0	1.247710E+0	1.310397E+0	1.339950E+0	1.321115E+0	1.247527E+0	1.316732E+0	1.315245E+0	1.261503E+0	1.235238E+0	1.235912E+0	1.269074E+0	1.300074E+0	1.317242E+0	1.294326E+0	1.268190E+0	1.282028E+0	1.254470E+0	1.289352E+0	1.288620E+0	1.318855E+0	1.268727E+0	1.289689E+0	1.294613E+0	1.299431E+0	1.302113E+0	1.249076E+0	1.282801E+0	1.245896E+0	1.383556E+0	1.373846E+0	1.312461E+0	1.333390E+0	1.288255E+0	1.334683E+0	1.266519E+0	1.249249E+0	1.255351E+0	1.295047E+0	1.311773E+0	1.330172E+0	1.297077E+0	1.324393E+0	1.250526E+0	1.284940E+0	1.238856E+0	1.273496E+0	1.262741E+0	1.314233E+0	1.287772E+0	1.331587E+0	1.336692E+0	1.295513E+0	1.292257E+0	1.323143E+0	1.283345E+0	1.272035E+0	1.281793E+0	1.314604E+0	1.320107E+0	1.280166E+0	1.280120E+0	1.285876E+0	1.278093E+0	1.260848E+0	1.320338E+0	1.291533E+0	1.277472E+0	1.293627E+0	1.230121E+0	1.285311E+0	1.174026E+0
5.455340E+2	1.196706E+0	1.223289E+0	1.210582E+0	1.239928E+0	1.174188E+0	1.213558E+0	1.166656E+0	1.210034E+0	1.185039E+0	1.216982E+0	1.252751E+0	1.201857E+0	1.207516E+0	1.248912E+0	1.179894E+0	1.241958E+0	1.258441E+0	1.170663E+0	1.199772E+0	1.203090E+0	1.216360E+0	1.205719E+0	1.271493E+0	1.211072E+0	1.182165E+0	1.194176E+0	1.214893E+0	1.181356E+0	1.205952E+0	1.157291E+0	1.208844E+0	1.253554E+0	1.228562E+0	1.218708E+0	1.262044E+0	1.264195E+0	1.228977E+0	1.219495E+0	1.266511E+0	1.192785E+0	1.202569E+0	1.282854E+0	1.226972E+0	1.156975E+0	1.190072E+0	1.242252E+0	1.240611E+0	1.238463E+0	1.266706E+0	1.256152E+0	1.164034E+0	1.188129E+0	1.237862E+0	1.257546E+0	1.251381E+0	1.219134E+0	1.178412E+0	1.202926E+0	1.263010E+0	1.233509E+0	1.195751E+0	1.195744E+0	1.214104E+0	1.237660E+0	1.227146E+0	1.172177E+0	1.234669E+0	1.215161E+0	1.192243E+0	1.263159E+0	1.222975E+0	1.180657E+0	1.183607E+0	1.237923E+0	1.214779E+0	1.255504E+0	1.220193E+0	1.180612E+0	1.220777E+0	1.196314E+0	1.249537E+0	1.270855E+0	1.243105E+0	1.175372E+0	1.202727E+0	1.265542E+0	1.216835E+0	1.212817E+0	1.219636E+0	1.229320E+0	1.246693E+0	1.220449E+0	1.207681E+0	1.223096E+0	1.254717E+0	1.224849E+0	1.188117E+0	1.258152E+0	1.220955E+0	1.243106E+0	1.228252E+0	1.255604E+0	1.225032E+0	1.209328E+0	1.207893E+0	1.200186E+0	1.184808E+0	1.205290E+0	1.212322E+0	1.222252E+0	1.215226E+0	1.242174E+0	1.183364E+0	1.185958E+0	1.220810E+0	1.204532E+0	1.214410E+0	1.231213E+0	1.228924E+0	1.183738E+0	1.181199E+0	1.234191E+0	1.207737E+0	1.197306E+0	1.217573E+0	1.233630E+0	1.184937E+0	1.240323E+0	1.270943E+0	1.255539E+0	1.267388E+0	1.264444E+0	1.224274E+0	1.251648E+0	1.222888E+0	1.247962E+0	1.202373E+0	1.176089E+0	1.186217E+0	1.221770E+0	1.219027E+0	1.215804E+0	1.178020E+0	1.188684E+0	1.231080E+0	1.263491E+0	1.205730E+0	1.242345E+0	1.262991E+0	1.202191E+0	1.229133E+0	1.246915E+0	1.202731E+0	1.199815E+0	1.188525E+0	1.241888E+0	1.206472E+0	1.242158E+0	1.191671E+0	1.166886E+0	1.189408E+0	1.202938E+0	1.206473E+0	1.157586E+0	1.208423E+0	1.242881E+0	1.258936E+0	1.236110E+0	1.130867E+0	1.166966E+0	1.097063E+0
5.457720E+2	1.150373E+0	1.219854E+0	1.195137E+0	1.226341E+0	1.140890E+0	1.167079E+0	1.123997E+0	1.202445E+0	1.134603E+0	1.193023E+0	1.172718E+0	1.170577E+0	1.199796E+0	1.139887E+0	1.181345E+0	1.169882E+0	1.181014E+0	1.152111E+0	1.179617E+0	1.219206E+0	1.126080E+0	1.158881E+0	1.205999E+0	1.196403E+0	1.153188E+0	1.170312E+0	1.209033E+0	1.206725E+0	1.154397E+0	1.160290E+0	1.149792E+0	1.202890E+0	1.150256E+0	1.245422E+0	1.186422E+0	1.209320E+0	1.141636E+0	1.137395E+0	1.186072E+0	1.168338E+0	1.139892E+0	1.201079E+0	1.198431E+0	1.174136E+0	1.160135E+0	1.150679E+0	1.197075E+0	1.165170E+0	1.208649E+0	1.159382E+0	1.185041E+0	1.168119E+0	1.181596E+0	1.197819E+0	1.227347E+0	1.235495E+0	1.185855E+0	1.161525E+0	1.194529E+0	1.211616E+0	1.137027E+0	1.145271E+0	1.130156E+0	1.176185E+0	1.194998E+0	1.157866E+0	1.126126E+0	1.190536E+0	1.165095E+0	1.213608E+0	1.183613E+0	1.171063E+0	1.166480E+0	1.234453E+0	1.168783E+0	1.146849E+0	1.165118E+0	1.182958E+0	1.190466E+0	1.223663E+0	1.192209E+0	1.139400E+0	1.167383E+0	1.158912E+0	1.145033E+0	1.165804E+0	1.152805E+0	1.194258E+0	1.142626E+0	1.214514E+0	1.172308E+0	1.149483E+0	1.144594E+0	1.183292E+0	1.152570E+0	1.150906E+0	1.209086E+0	1.204071E+0	1.203582E+0	1.151857E+0	1.149951E+0	1.193842E+0	1.195797E+0	1.212943E+0	1.145525E+0	1.198269E+0	1.163959E+0	1.178713E+0	1.176016E+0	1.139429E+0	1.200315E+0	1.226376E+0	1.162711E+0	1.165348E+0	1.166263E+0	1.156621E+0	1.172219E+0	1.156198E+0	1.188331E+0	1.222185E+0	1.170619E+0	1.169807E+0	1.190104E+0	1.182734E+0	1.178333E+0	1.174291E+0	1.154372E+0	1.179538E+0	1.235934E+0	1.169122E+0	1.192965E+0	1.175620E+0	1.190088E+0	1.171741E+0	1.144346E+0	1.146188E+0	1.175404E+0	1.179878E+0	1.157785E+0	1.139171E+0	1.206831E+0	1.109890E+0	1.151328E+0	1.164491E+0	1.111459E+0	1.131930E+0	1.105593E+0	1.160798E+0	1.185620E+0	1.200469E+0	1.268161E+0	1.186889E+0	1.127745E+0	1.180922E+0	1.160361E+0	1.156517E+0	1.139290E+0	1.225870E+0	1.200951E+0	1.185521E+0	1.177524E+0	1.185744E+0	1.134114E+0	1.165019E+0	1.170364E+0	1.170576E+0	1.198959E+0	1.139507E+0	1.083132E+0	1.157745E+0	1.135998E+0
5.460160E+2	1.112265E+0	1.127195E+0	1.120495E+0	1.123822E+0	1.112499E+0	1.139661E+0	1.152634E+0	1.153270E+0	1.078361E+0	1.161793E+0	1.111539E+0	1.163516E+0	1.167072E+0	1.135733E+0	1.119244E+0	1.126496E+0	1.162178E+0	1.134991E+0	1.181130E+0	1.127806E+0	1.148125E+0	1.129465E+0	1.180898E+0	1.106759E+0	1.168291E+0	1.143021E+0	1.176212E+0	1.149845E+0	1.119126E+0	1.115957E+0	1.127576E+0	1.135643E+0	1.186688E+0	1.146134E+0	1.102434E+0	1.195854E+0	1.130674E+0	1.083363E+0	1.179885E+0	1.121411E+0	1.194311E+0	1.174716E+0	1.154492E+0	1.106610E+0	1.182357E+0	1.161300E+0	1.142222E+0	1.111844E+0	1.157278E+0	1.171487E+0	1.135717E+0	1.123192E+0	1.147151E+0	1.156520E+0	1.197045E+0	1.136631E+0	1.068509E+0	1.127316E+0	1.169692E+0	1.167301E+0	1.166796E+0	1.131983E+0	1.085542E+0	1.193367E+0	1.135975E+0	1.124892E+0	1.169941E+0	1.139194E+0	1.125925E+0	1.152166E+0	1.175378E+0	1.162902E+0	1.117150E+0	1.174582E+0	1.134818E+0	1.149471E+0	1.185195E+0	1.107445E+0	1.135191E+0	1.121235E+0	1.143837E+0	1.195181E+0	1.082013E+0	1.110947E+0	1.153114E+0	1.134833E+0	1.102469E+0	1.159975E+0	1.099792E+0	1.136587E+0	1.152586E+0	1.095490E+0	1.139893E+0	1.098817E+0	1.152457E+0	1.150448E+0	1.146504E+0	1.180334E+0	1.110307E+0	1.129595E+0	1.137773E+0	1.138035E+0	1.192369E+0	1.131979E+0	1.119531E+0	1.147701E+0	1.112569E+0	1.120211E+0	1.128852E+0	1.108723E+0	1.173021E+0	1.132370E+0	1.137755E+0	1.149747E+0	1.154784E+0	1.137408E+0	1.094401E+0	1.135407E+0	1.115369E+0	1.156077E+0	1.144192E+0	1.157735E+0	1.158906E+0	1.138228E+0	1.142198E+0	1.138755E+0	1.160937E+0	1.103582E+0	1.173210E+0	1.155089E+0	1.214395E+0	1.153604E+0	1.143982E+0	1.118255E+0	1.223121E+0	1.140650E+0	1.128639E+0	1.108300E+0	1.149664E+0	1.156545E+0	1.115375E+0	1.146846E+0	1.158530E+0	1.095083E+0	1.138914E+0	1.131173E+0	1.094572E+0	1.129844E+0	1.194995E+0	1.141975E+0	1.116684E+0	1.126485E+0	1.101373E+0	1.167120E+0	1.173046E+0	1.123608E+0	1.122412E+0	1.106764E+0	1.133779E+0	1.148358E+0	1.131467E+0	1.099175E+0	1.155257E+0	1.164382E+0	1.155611E+0	1.183194E+0	1.160426E+0	1.125589E+0	1.055366E+0	1.081709E+0	1.111988E+0
5.467660E+2	1.186408E+0	1.212193E+0	1.174515E+0	1.173123E+0	1.184139E+0	1.174141E+0	1.156535E+0	1.181721E+0	1.136278E+0	1.187504E+0	1.234011E+0	1.201705E+0	1.197967E+0	1.148902E+0	1.198966E+0	1.228394E+0	1.217224E+0	1.181113E+0	1.139206E+0	1.200475E+0	1.136502E+0	1.181442E+0	1.233645E+0	1.196105E+0	1.175824E+0	1.193315E+0	1.223713E+0	1.156574E+0	1.155511E+0	1.171720E+0	1.166496E+0	1.220741E+0	1.224692E+0	1.230699E+0	1.191542E+0	1.202498E+0	1.132580E+0	1.176238E+0	1.219152E+0	1.157314E+0	1.174952E+0	1.200611E+0	1.188141E+0	1.179845E+0	1.183738E+0	1.221472E+0	1.180983E+0	1.175372E+0	1.170460E+0	1.246317E+0	1.153082E+0	1.189224E+0	1.169188E+0	1.195688E+0	1.202421E+0	1.211175E+0	1.164125E+0	1.170450E+0	1.224844E+0	1.208568E+0	1.185796E+0	1.180607E+0	1.149225E+0	1.189869E+0	1.177643E+0	1.205637E+0	1.177605E+0	1.206574E+0	1.204507E+0	1.181840E+0	1.182456E+0	1.210896E+0	1.185874E+0	1.209091E+0	1.220756E+0	1.181644E+0	1.273674E+0	1.149597E+0	1.155853E+0	1.220451E+0	1.179831E+0	1.168698E+0	1.199122E+0	1.167028E+0	1.210852E+0	1.176473E+0	1.132690E+0	1.232562E+0	1.227155E+0	1.261888E+0	1.185930E+0	1.199084E+0	1.180837E+0	1.200635E+0	1.179364E+0	1.210366E+0	1.197450E+0	1.181745E+0	1.204283E+0	1.184252E+0	1.185207E+0	1.168840E+0	1.173840E+0	1.184080E+0	1.191351E+0	1.179187E+0	1.229824E+0	1.228771E+0	1.142354E+0	1.229190E+0	1.188144E+0	1.186787E+0	1.173795E+0	1.155295E+0	1.193414E+0	1.150786E+0	1.165976E+0	1.211766E+0	1.201028E+0	1.205280E+0	1.167764E+0	1.159265E+0	1.168139E+0	1.182616E+0	1.205204E+0	1.188656E+0	1.176003E+0	1.247752E+0	1.238471E+0	1.196901E+0	1.199044E+0	1.209578E+0	1.179524E+0	1.221441E+0	1.171887E+0	1.240507E+0	1.178675E+0	1.156084E+0	1.133117E+0	1.175279E+0	1.190004E+0	1.177180E+0	1.217260E+0	1.168496E+0	1.144101E+0	1.203778E+0	1.172134E+0	1.183595E+0	1.174950E+0	1.181992E+0	1.201686E+0	1.200233E+0	1.180023E+0	1.192462E+0	1.175787E+0	1.172694E+0	1.166069E+0	1.209658E+0	1.181479E+0	1.162148E+0	1.172471E+0	1.141158E+0	1.175581E+0	1.192343E+0	1.185705E+0	1.210246E+0	1.237719E+0	1.206403E+0	1.147748E+0	1.196361E+0	1.126451E+0
5.475070E+2	1.324081E+0	1.310437E+0	1.307826E+0	1.237547E+0	1.306838E+0	1.316109E+0	1.315981E+0	1.345193E+0	1.300377E+0	1.335793E+0	1.269908E+0	1.281571E+0	1.322013E+0	1.304244E+0	1.323043E+0	1.309692E+0	1.378414E+0	1.268521E+0	1.334580E+0	1.262722E+0	1.271692E+0	1.278156E+0	1.322079E+0	1.320009E+0	1.342157E+0	1.332214E+0	1.323693E+0	1.326909E+0	1.262805E+0	1.267518E+0	1.324564E+0	1.305363E+0	1.313775E+0	1.307244E+0	1.305183E+0	1.285011E+0	1.285291E+0	1.276021E+0	1.322651E+0	1.290958E+0	1.295021E+0	1.355946E+0	1.269349E+0	1.307347E+0	1.305678E+0	1.268155E+0	1.257042E+0	1.291881E+0	1.400953E+0	1.349419E+0	1.271197E+0	1.362801E+0	1.282922E+0	1.350413E+0	1.305557E+0	1.296783E+0	1.260780E+0	1.297363E+0	1.333017E+0	1.280056E+0	1.300783E+0	1.313783E+0	1.227309E+0	1.332186E+0	1.329748E+0	1.325699E+0	1.283056E+0	1.332594E+0	1.274478E+0	1.251039E+0	1.306642E+0	1.285122E+0	1.349458E+0	1.308197E+0	1.339106E+0	1.292601E+0	1.320031E+0	1.319512E+0	1.328908E+0	1.301334E+0	1.331342E+0	1.260987E+0	1.275301E+0	1.317568E+0	1.280893E+0	1.252620E+0	1.287241E+0	1.322879E+0	1.272773E+0	1.217413E+0	1.360549E+0	1.304099E+0	1.302248E+0	1.320878E+0	1.252325E+0	1.355188E+0	1.356475E+0	1.338565E+0	1.310851E+0	1.337343E+0	1.275027E+0	1.288792E+0	1.338336E+0	1.319790E+0	1.302644E+0	1.293326E+0	1.322060E+0	1.285589E+0	1.291805E+0	1.311774E+0	1.307641E+0	1.322389E+0	1.314299E+0	1.337218E+0	1.289402E+0	1.322618E+0	1.284575E+0	1.310351E+0	1.325153E+0	1.293123E+0	1.327450E+0	1.289409E+0	1.313173E+0	1.284805E+0	1.245287E+0	1.262956E+0	1.280789E+0	1.233507E+0	1.294432E+0	1.230472E+0	1.296668E+0	1.286724E+0	1.331128E+0	1.288797E+0	1.316044E+0	1.331420E+0	1.266643E+0	1.331820E+0	1.270505E+0	1.340732E+0	1.280917E+0	1.275731E+0	1.319133E+0	1.274658E+0	1.257388E+0	1.324216E+0	1.305984E+0	1.243508E+0	1.309918E+0	1.304751E+0	1.333857E+0	1.312443E+0	1.269638E+0	1.324631E+0	1.313422E+0	1.278963E+0	1.250595E+0	1.312940E+0	1.309034E+0	1.283007E+0	1.276744E+0	1.313785E+0	1.314225E+0	1.289711E+0	1.308173E+0	1.329060E+0	1.341070E+0	1.323757E+0	1.211143E+0	1.265831E+0	1.238648E+0
5.482600E+2	1.355337E+0	1.404853E+0	1.347021E+0	1.426293E+0	1.353099E+0	1.354275E+0	1.361613E+0	1.364721E+0	1.366171E+0	1.422023E+0	1.411666E+0	1.381966E+0	1.370118E+0	1.404118E+0	1.408234E+0	1.392688E+0	1.444131E+0	1.406832E+0	1.453120E+0	1.351450E+0	1.392277E+0	1.303816E+0	1.437943E+0	1.373477E+0	1.378428E+0	1.354522E+0	1.409872E+0	1.377862E+0	1.364661E+0	1.427433E+0	1.362967E+0	1.382839E+0	1.363137E+0	1.354214E+0	1.381166E+0	1.433339E+0	1.300761E+0	1.386468E+0	1.438665E+0	1.383848E+0	1.406791E+0	1.447234E+0	1.399316E+0	1.389481E+0	1.380404E+0	1.422668E+0	1.350334E+0	1.388609E+0	1.347159E+0	1.396432E+0	1.361122E+0	1.389777E+0	1.362586E+0	1.388811E+0	1.372784E+0	1.376711E+0	1.379160E+0	1.338394E+0	1.422675E+0	1.344853E+0	1.351638E+0	1.398818E+0	1.357132E+0	1.362418E+0	1.389990E+0	1.411695E+0	1.361286E+0	1.364946E+0	1.416901E+0	1.338837E+0	1.390059E+0	1.373357E+0	1.353329E+0	1.379749E+0	1.392347E+0	1.402001E+0	1.389655E+0	1.354958E+0	1.336562E+0	1.342489E+0	1.367791E+0	1.372511E+0	1.379941E+0	1.366900E+0	1.379816E+0	1.323345E+0	1.377270E+0	1.424181E+0	1.378059E+0	1.333376E+0	1.439428E+0	1.377639E+0	1.352384E+0	1.400965E+0	1.369608E+0	1.356901E+0	1.363291E+0	1.409401E+0	1.364515E+0	1.378124E+0	1.376782E+0	1.429000E+0	1.373417E+0	1.340703E+0	1.352116E+0	1.387889E+0	1.375106E+0	1.369014E+0	1.350373E+0	1.368292E+0	1.384086E+0	1.408273E+0	1.373981E+0	1.360111E+0	1.371909E+0	1.339327E+0	1.376880E+0	1.370367E+0	1.396620E+0	1.369362E+0	1.339915E+0	1.422486E+0	1.347114E+0	1.387383E+0	1.383976E+0	1.370281E+0	1.383705E+0	1.355935E+0	1.318645E+0	1.357723E+0	1.382820E+0	1.435738E+0	1.387852E+0	1.319114E+0	1.395199E+0	1.394310E+0	1.394549E+0	1.345077E+0	1.430250E+0	1.427554E+0	1.405401E+0	1.374250E+0	1.372217E+0	1.379533E+0	1.362552E+0	1.400538E+0	1.399461E+0	1.393481E+0	1.362696E+0	1.355196E+0	1.413437E+0	1.371223E+0	1.344796E+0	1.392083E+0	1.368797E+0	1.375375E+0	1.424541E+0	1.358483E+0	1.355214E+0	1.314751E+0	1.335483E+0	1.375884E+0	1.344044E+0	1.344402E+0	1.349971E+0	1.402400E+0	1.383815E+0	1.389653E+0	1.340072E+0	1.352833E+0	1.398247E+0
5.490320E+2	1.336311E+0	1.451805E+0	1.356009E+0	1.379570E+0	1.320351E+0	1.381287E+0	1.343011E+0	1.312648E+0	1.325062E+0	1.346875E+0	1.371184E+0	1.369230E+0	1.346198E+0	1.396118E+0	1.396735E+0	1.382188E+0	1.379950E+0	1.322472E+0	1.392848E+0	1.381596E+0	1.388620E+0	1.345244E+0	1.339692E+0	1.328232E+0	1.331394E+0	1.321332E+0	1.378331E+0	1.362553E+0	1.341557E+0	1.363841E+0	1.381692E+0	1.332545E+0	1.323311E+0	1.357774E+0	1.359211E+0	1.345320E+0	1.355130E+0	1.276384E+0	1.353966E+0	1.329890E+0	1.371135E+0	1.394478E+0	1.322489E+0	1.364095E+0	1.379089E+0	1.405661E+0	1.332306E+0	1.339245E+0	1.410992E+0	1.350514E+0	1.324882E+0	1.369833E+0	1.298576E+0	1.414837E+0	1.411533E+0	1.330969E+0	1.320304E+0	1.371268E+0	1.430845E+0	1.368816E+0	1.353675E+0	1.371009E+0	1.316618E+0	1.383953E+0	1.432102E+0	1.332217E+0	1.326963E+0	1.377909E+0	1.304406E+0	1.327454E+0	1.396299E+0	1.339719E+0	1.368527E+0	1.328401E+0	1.397474E+0	1.364834E+0	1.393084E+0	1.338660E+0	1.344788E+0	1.360709E+0	1.350649E+0	1.356696E+0	1.390345E+0	1.356177E+0	1.387121E+0	1.306967E+0	1.387813E+0	1.325815E+0	1.328946E+0	1.329749E+0	1.344197E+0	1.360415E+0	1.330328E+0	1.341052E+0	1.337948E+0	1.347252E+0	1.366061E+0	1.352658E+0	1.375472E+0	1.362761E+0	1.388694E+0	1.347263E+0	1.418510E+0	1.347607E+0	1.342588E+0	1.435960E+0	1.396419E+0	1.384753E+0	1.357106E+0	1.333021E+0	1.353787E+0	1.327411E+0	1.344546E+0	1.324381E+0	1.341591E+0	1.295718E+0	1.285389E+0	1.321843E+0	1.365300E+0	1.390242E+0	1.366895E+0	1.347290E+0	1.313421E+0	1.364819E+0	1.326724E+0	1.367265E+0	1.255038E+0	1.287798E+0	1.384185E+0	1.349845E+0	1.345773E+0	1.364538E+0	1.403406E+0	1.324593E+0	1.393919E+0	1.345788E+0	1.349491E+0	1.295036E+0	1.396120E+0	1.336909E+0	1.385025E+0	1.326507E+0	1.391941E+0	1.333517E+0	1.289643E+0	1.368280E+0	1.342994E+0	1.358508E+0	1.360064E+0	1.286387E+0	1.368709E+0	1.368034E+0	1.321350E+0	1.334865E+0	1.332392E+0	1.374967E+0	1.338998E+0	1.319046E+0	1.395091E+0	1.305605E+0	1.351978E+0	1.371334E+0	1.344853E+0	1.326711E+0	1.291946E+0	1.372494E+0	1.360103E+0	1.311036E+0	1.330647E+0	1.351661E+0	1.309433E+0
5.497740E+2	1.337785E+0	1.298644E+0	1.280295E+0	1.418358E+0	1.323243E+0	1.350283E+0	1.292162E+0	1.322505E+0	1.294694E+0	1.318889E+0	1.372125E+0	1.313902E+0	1.310067E+0	1.344678E+0	1.327131E+0	1.385741E+0	1.373662E+0	1.318016E+0	1.334726E+0	1.319056E+0	1.293250E+0	1.275065E+0	1.364284E+0	1.314215E+0	1.304493E+0	1.372540E+0	1.362155E+0	1.330634E+0	1.334485E+0	1.271186E+0	1.291900E+0	1.312150E+0	1.344449E+0	1.389266E+0	1.355288E+0	1.335015E+0	1.332045E+0	1.329363E+0	1.321578E+0	1.339318E+0	1.349545E+0	1.380895E+0	1.350693E+0	1.360754E+0	1.300039E+0	1.282154E+0	1.387200E+0	1.324580E+0	1.297506E+0	1.323085E+0	1.339095E+0	1.355457E+0	1.305105E+0	1.359980E+0	1.358304E+0	1.374222E+0	1.296832E+0	1.359552E+0	1.367782E+0	1.362939E+0	1.380749E+0	1.328835E+0	1.316486E+0	1.361317E+0	1.353586E+0	1.278263E+0	1.334023E+0	1.314144E+0	1.295556E+0	1.341185E+0	1.359148E+0	1.331573E+0	1.302458E+0	1.371697E+0	1.405276E+0	1.360421E+0	1.345290E+0	1.290595E+0	1.349736E+0	1.332244E+0	1.329493E+0	1.347207E+0	1.287107E+0	1.341055E+0	1.391985E+0	1.286601E+0	1.360935E+0	1.308868E+0	1.307401E+0	1.346380E+0	1.357823E+0	1.317479E+0	1.359864E+0	1.309421E+0	1.293573E+0	1.335551E+0	1.354571E+0	1.335332E+0	1.345648E+0	1.392202E+0	1.347966E+0	1.364644E+0	1.333879E+0	1.348348E+0	1.263637E+0	1.291012E+0	1.362361E+0	1.271477E+0	1.289120E+0	1.370437E+0	1.336743E+0	1.420061E+0	1.332243E+0	1.318856E+0	1.310603E+0	1.339647E+0	1.281083E+0	1.339977E+0	1.335562E+0	1.318651E+0	1.308857E+0	1.293258E+0	1.344007E+0	1.305927E+0	1.312639E+0	1.303397E+0	1.332491E+0	1.360097E+0	1.348887E+0	1.327262E+0	1.464407E+0	1.384225E+0	1.376302E+0	1.274650E+0	1.340766E+0	1.329332E+0	1.307183E+0	1.313800E+0	1.333058E+0	1.328037E+0	1.364042E+0	1.295469E+0	1.313801E+0	1.320800E+0	1.303313E+0	1.328171E+0	1.342221E+0	1.337676E+0	1.338789E+0	1.347078E+0	1.397301E+0	1.306584E+0	1.321596E+0	1.353690E+0	1.329384E+0	1.307049E+0	1.325352E+0	1.355942E+0	1.339615E+0	1.274721E+0	1.336237E+0	1.300161E+0	1.325048E+0	1.249831E+0	1.346102E+0	1.332996E+0	1.345830E+0	1.321172E+0	1.268191E+0	1.300594E+0	1.315408E+0
5.505170E+2	1.322379E+0	1.288216E+0	1.304350E+0	1.348571E+0	1.368043E+0	1.319907E+0	1.345219E+0	1.313596E+0	1.287053E+0	1.318663E+0	1.352785E+0	1.304978E+0	1.322456E+0	1.323698E+0	1.299622E+0	1.346382E+0	1.309781E+0	1.305948E+0	1.323839E+0	1.295630E+0	1.270016E+0	1.289717E+0	1.367972E+0	1.342870E+0	1.321264E+0	1.399208E+0	1.326825E+0	1.330915E+0	1.286394E+0	1.299490E+0	1.289604E+0	1.284594E+0	1.299225E+0	1.347734E+0	1.333881E+0	1.347653E+0	1.329225E+0	1.264423E+0	1.379663E+0	1.339627E+0	1.308292E+0	1.317974E+0	1.300833E+0	1.324848E+0	1.321499E+0	1.318174E+0	1.332575E+0	1.311000E+0	1.312874E+0	1.278765E+0	1.313945E+0	1.349844E+0	1.272590E+0	1.329394E+0	1.319853E+0	1.319705E+0	1.305494E+0	1.341269E+0	1.348957E+0	1.361390E+0	1.264463E+0	1.300087E+0	1.308240E+0	1.324662E+0	1.308563E+0	1.311553E+0	1.270886E+0	1.288839E+0	1.299435E+0	1.322496E+0	1.323711E+0	1.278270E+0	1.296648E+0	1.297646E+0	1.318503E+0	1.318132E+0	1.357121E+0	1.257165E+0	1.326997E+0	1.307064E+0	1.318214E+0	1.315862E+0	1.246801E+0	1.289138E+0	1.266645E+0	1.293796E+0	1.311646E+0	1.278886E+0	1.312540E+0	1.319914E+0	1.327019E+0	1.301793E+0	1.319353E+0	1.335225E+0	1.303652E+0	1.266713E+0	1.320438E+0	1.377289E+0	1.305935E+0	1.308776E+0	1.294469E+0	1.298566E+0	1.288504E+0	1.316209E+0	1.290396E+0	1.333910E+0	1.342013E+0	1.331161E+0	1.307272E+0	1.288270E+0	1.344740E+0	1.305788E+0	1.285584E+0	1.259359E+0	1.270660E+0	1.276182E+0	1.286852E+0	1.268112E+0	1.270115E+0	1.299870E+0	1.285960E+0	1.276633E+0	1.281136E+0	1.326517E+0	1.290784E+0	1.307757E+0	1.269147E+0	1.286888E+0	1.355038E+0	1.319039E+0	1.333677E+0	1.320579E+0	1.357500E+0	1.268197E+0	1.315921E+0	1.291019E+0	1.272889E+0	1.311369E+0	1.320103E+0	1.301791E+0	1.314089E+0	1.314951E+0	1.294086E+0	1.338894E+0	1.216219E+0	1.291041E+0	1.319207E+0	1.328616E+0	1.328677E+0	1.310938E+0	1.351478E+0	1.295916E+0	1.270464E+0	1.335813E+0	1.311799E+0	1.286057E+0	1.257446E+0	1.319212E+0	1.239817E+0	1.261130E+0	1.284101E+0	1.299857E+0	1.306102E+0	1.298712E+0	1.279690E+0	1.289863E+0	1.337342E+0	1.296605E+0	1.253956E+0	1.364402E+0	1.242289E+0
5.512620E+2	1.300387E+0	1.289354E+0	1.317842E+0	1.306286E+0	1.279738E+0	1.304596E+0	1.292390E+0	1.295203E+0	1.294872E+0	1.259632E+0	1.287944E+0	1.324932E+0	1.335200E+0	1.284236E+0	1.291083E+0	1.297984E+0	1.297658E+0	1.264893E+0	1.362465E+0	1.327650E+0	1.311378E+0	1.260347E+0	1.367274E+0	1.365451E+0	1.247211E+0	1.306809E+0	1.345588E+0	1.322151E+0	1.313575E+0	1.302139E+0	1.273603E+0	1.346288E+0	1.333174E+0	1.371415E+0	1.300315E+0	1.307609E+0	1.294620E+0	1.266807E+0	1.285274E+0	1.286668E+0	1.304420E+0	1.325594E+0	1.265898E+0	1.293575E+0	1.287342E+0	1.287798E+0	1.300909E+0	1.309633E+0	1.299940E+0	1.322465E+0	1.317330E+0	1.297714E+0	1.316235E+0	1.308701E+0	1.363297E+0	1.299129E+0	1.290361E+0	1.285640E+0	1.349225E+0	1.274428E+0	1.285741E+0	1.295736E+0	1.328336E+0	1.287031E+0	1.313849E+0	1.270457E+0	1.277438E+0	1.318290E+0	1.293871E+0	1.296531E+0	1.341241E+0	1.283670E+0	1.293802E+0	1.333719E+0	1.359651E+0	1.317718E+0	1.293905E+0	1.310973E+0	1.321043E+0	1.298689E+0	1.328074E+0	1.244984E+0	1.308981E+0	1.258825E+0	1.277093E+0	1.332271E+0	1.335716E+0	1.337019E+0	1.324082E+0	1.282030E+0	1.292048E+0	1.310120E+0	1.308252E+0	1.320069E+0	1.300631E+0	1.321077E+0	1.272946E+0	1.260416E+0	1.323238E+0	1.293332E+0	1.314173E+0	1.325544E+0	1.325799E+0	1.330449E+0	1.270911E+0	1.299734E+0	1.251831E+0	1.313750E+0	1.275138E+0	1.257300E+0	1.302363E+0	1.324607E+0	1.296413E+0	1.281842E+0	1.297994E+0	1.309368E+0	1.280319E+0	1.292414E+0	1.301888E+0	1.288012E+0	1.285524E+0	1.318426E+0	1.305468E+0	1.297807E+0	1.296889E+0	1.303577E+0	1.295681E+0	1.265634E+0	1.352943E+0	1.345690E+0	1.350751E+0	1.275106E+0	1.307809E+0	1.254568E+0	1.318555E+0	1.340102E+0	1.262173E+0	1.306510E+0	1.296722E+0	1.312374E+0	1.316127E+0	1.294823E+0	1.288590E+0	1.282000E+0	1.291763E+0	1.264452E+0	1.312051E+0	1.331244E+0	1.366866E+0	1.284791E+0	1.318543E+0	1.321505E+0	1.219482E+0	1.296707E+0	1.244931E+0	1.309115E+0	1.294479E+0	1.322684E+0	1.317828E+0	1.253020E+0	1.279347E+0	1.326826E+0	1.346207E+0	1.298881E+0	1.271078E+0	1.323438E+0	1.333967E+0	1.289950E+0	1.308935E+0	1.256974E+0	1.301152E+0
5.520210E+2	1.326378E+0	1.293085E+0	1.252991E+0	1.297875E+0	1.267811E+0	1.294523E+0	1.284392E+0	1.258466E+0	1.252799E+0	1.309118E+0	1.285994E+0	1.288982E+0	1.350582E+0	1.258244E+0	1.314703E+0	1.289259E+0	1.343529E+0	1.275545E+0	1.327166E+0	1.332603E+0	1.251872E+0	1.273131E+0	1.284137E+0	1.319509E+0	1.253067E+0	1.289787E+0	1.282980E+0	1.280636E+0	1.274015E+0	1.271966E+0	1.268016E+0	1.259633E+0	1.298533E+0	1.325082E+0	1.276095E+0	1.245234E+0	1.238045E+0	1.327535E+0	1.312383E+0	1.309274E+0	1.309845E+0	1.315681E+0	1.302266E+0	1.328425E+0	1.299509E+0	1.275031E+0	1.264665E+0	1.292434E+0	1.271908E+0	1.297516E+0	1.285404E+0	1.283139E+0	1.300649E+0	1.334408E+0	1.311191E+0	1.333743E+0	1.256936E+0	1.283499E+0	1.265468E+0	1.277598E+0	1.328429E+0	1.297939E+0	1.250332E+0	1.306939E+0	1.306756E+0	1.267830E+0	1.303312E+0	1.267175E+0	1.328705E+0	1.283910E+0	1.266641E+0	1.337770E+0	1.298722E+0	1.281349E+0	1.343205E+0	1.267807E+0	1.301494E+0	1.254683E+0	1.299403E+0	1.251978E+0	1.305076E+0	1.293042E+0	1.290403E+0	1.308281E+0	1.326194E+0	1.254421E+0	1.299750E+0	1.309149E+0	1.288801E+0	1.296020E+0	1.337954E+0	1.284928E+0	1.284793E+0	1.300772E+0	1.254350E+0	1.308250E+0	1.290790E+0	1.322453E+0	1.352884E+0	1.322671E+0	1.254141E+0	1.305166E+0	1.316575E+0	1.316492E+0	1.314621E+0	1.306825E+0	1.339258E+0	1.221744E+0	1.305105E+0	1.314217E+0	1.323682E+0	1.316781E+0	1.320627E+0	1.241466E+0	1.291651E+0	1.289909E+0	1.268658E+0	1.310279E+0	1.281462E+0	1.317678E+0	1.304903E+0	1.288533E+0	1.275905E+0	1.310888E+0	1.337775E+0	1.251796E+0	1.249960E+0	1.276756E+0	1.286500E+0	1.286023E+0	1.264596E+0	1.292011E+0	1.309518E+0	1.262748E+0	1.315131E+0	1.270854E+0	1.267190E+0	1.267759E+0	1.318012E+0	1.274992E+0	1.307658E+0	1.278445E+0	1.281255E+0	1.269542E+0	1.304285E+0	1.290824E+0	1.254952E+0	1.305237E+0	1.266005E+0	1.264932E+0	1.334352E+0	1.331768E+0	1.240830E+0	1.267305E+0	1.267710E+0	1.263604E+0	1.279196E+0	1.278212E+0	1.343807E+0	1.249841E+0	1.256119E+0	1.297729E+0	1.276311E+0	1.256236E+0	1.228937E+0	1.286339E+0	1.281681E+0	1.290784E+0	1.144383E+0	1.223049E+0	1.173299E+0
5.527650E+2	1.254079E+0	1.264576E+0	1.251229E+0	1.315476E+0	1.236478E+0	1.226517E+0	1.204615E+0	1.227746E+0	1.243179E+0	1.241745E+0	1.242408E+0	1.276303E+0	1.224037E+0	1.250311E+0	1.221778E+0	1.266248E+0	1.274994E+0	1.211248E+0	1.304200E+0	1.222176E+0	1.214298E+0	1.250624E+0	1.202417E+0	1.228410E+0	1.191598E+0	1.256718E+0	1.208952E+0	1.233164E+0	1.237001E+0	1.273949E+0	1.236745E+0	1.209658E+0	1.304916E+0	1.267335E+0	1.254995E+0	1.209092E+0	1.232769E+0	1.230476E+0	1.231211E+0	1.274282E+0	1.274959E+0	1.319192E+0	1.239128E+0	1.279502E+0	1.287022E+0	1.276555E+0	1.267559E+0	1.247134E+0	1.252073E+0	1.228085E+0	1.240536E+0	1.252841E+0	1.217988E+0	1.199400E+0	1.268741E+0	1.249491E+0	1.265139E+0	1.253142E+0	1.241642E+0	1.253585E+0	1.213851E+0	1.224383E+0	1.218225E+0	1.227582E+0	1.260254E+0	1.272292E+0	1.255179E+0	1.231335E+0	1.182853E+0	1.217870E+0	1.234404E+0	1.231506E+0	1.229795E+0	1.220262E+0	1.264885E+0	1.270875E+0	1.305015E+0	1.231003E+0	1.267126E+0	1.217599E+0	1.212253E+0	1.206697E+0	1.238626E+0	1.213907E+0	1.237663E+0	1.258972E+0	1.246416E+0	1.234000E+0	1.249904E+0	1.238833E+0	1.260643E+0	1.259704E+0	1.287699E+0	1.211803E+0	1.235492E+0	1.215432E+0	1.255000E+0	1.268466E+0	1.227637E+0	1.211795E+0	1.245711E+0	1.268938E+0	1.236440E+0	1.262969E+0	1.251931E+0	1.233347E+0	1.238653E+0	1.217513E+0	1.230463E+0	1.249466E+0	1.199093E+0	1.280616E+0	1.314195E+0	1.223211E+0	1.235932E+0	1.263945E+0	1.255755E+0	1.259647E+0	1.240904E+0	1.263466E+0	1.200234E+0	1.277619E+0	1.247052E+0	1.186323E+0	1.234682E+0	1.191493E+0	1.242477E+0	1.240317E+0	1.267088E+0	1.251818E+0	1.280218E+0	1.247502E+0	1.218133E+0	1.222145E+0	1.347819E+0	1.233694E+0	1.242450E+0	1.226882E+0	1.299510E+0	1.263627E+0	1.259534E+0	1.228894E+0	1.268870E+0	1.233753E+0	1.201987E+0	1.180389E+0	1.231732E+0	1.225685E+0	1.220302E+0	1.210074E+0	1.266277E+0	1.274077E+0	1.167536E+0	1.241949E+0	1.270093E+0	1.234531E+0	1.240930E+0	1.227292E+0	1.230016E+0	1.202949E+0	1.230102E+0	1.253737E+0	1.216159E+0	1.200561E+0	1.244470E+0	1.242802E+0	1.282055E+0	1.211266E+0	1.139507E+0	1.165443E+0	1.278804E+0
5.535490E+2	1.138823E+0	1.192007E+0	1.160431E+0	1.209373E+0	1.189518E+0	1.174372E+0	1.160937E+0	1.176432E+0	1.172058E+0	1.166374E+0	1.149652E+0	1.186533E+0	1.180319E+0	1.173238E+0	1.141361E+0	1.176751E+0	1.174328E+0	1.161090E+0	1.165144E+0	1.188890E+0	1.159395E+0	1.153551E+0	1.163057E+0	1.165820E+0	1.177838E+0	1.153193E+0	1.189792E+0	1.179757E+0	1.098267E+0	1.152575E+0	1.153221E+0	1.133006E+0	1.181167E+0	1.227629E+0	1.174402E+0	1.154358E+0	1.190742E+0	1.155764E+0	1.217395E+0	1.146079E+0	1.168706E+0	1.192454E+0	1.136857E+0	1.180795E+0	1.121283E+0	1.184710E+0	1.195722E+0	1.166358E+0	1.140977E+0	1.132031E+0	1.180440E+0	1.207644E+0	1.093931E+0	1.211336E+0	1.120186E+0	1.173814E+0	1.136297E+0	1.126449E+0	1.200841E+0	1.163955E+0	1.140401E+0	1.130770E+0	1.167458E+0	1.182920E+0	1.209150E+0	1.209936E+0	1.207369E+0	1.183316E+0	1.192726E+0	1.189419E+0	1.158333E+0	1.158384E+0	1.174743E+0	1.192397E+0	1.231110E+0	1.192004E+0	1.187163E+0	1.107219E+0	1.176936E+0	1.178171E+0	1.196614E+0	1.167122E+0	1.172951E+0	1.214495E+0	1.168192E+0	1.145345E+0	1.142622E+0	1.180044E+0	1.175145E+0	1.182996E+0	1.167205E+0	1.165806E+0	1.200558E+0	1.171432E+0	1.151116E+0	1.162706E+0	1.178372E+0	1.205235E+0	1.135205E+0	1.201618E+0	1.105200E+0	1.220433E+0	1.202786E+0	1.140156E+0	1.137628E+0	1.159944E+0	1.213202E+0	1.122507E+0	1.117144E+0	1.205109E+0	1.130136E+0	1.199557E+0	1.170007E+0	1.138425E+0	1.158866E+0	1.161142E+0	1.143536E+0	1.137805E+0	1.187581E+0	1.208840E+0	1.145286E+0	1.129445E+0	1.163227E+0	1.182976E+0	1.184015E+0	1.166603E+0	1.157926E+0	1.155517E+0	1.246785E+0	1.156467E+0	1.196268E+0	1.192514E+0	1.139976E+0	1.149667E+0	1.168694E+0	1.183604E+0	1.166372E+0	1.131199E+0	1.162199E+0	1.248425E+0	1.149037E+0	1.176243E+0	1.182235E+0	1.147085E+0	1.133086E+0	1.174028E+0	1.126665E+0	1.211948E+0	1.196639E+0	1.164988E+0	1.184485E+0	1.195453E+0	1.127509E+0	1.177136E+0	1.127792E+0	1.173544E+0	1.167138E+0	1.149706E+0	1.187819E+0	1.169728E+0	1.180228E+0	1.113640E+0	1.183269E+0	1.142318E+0	1.160895E+0	1.193421E+0	1.191865E+0	1.140285E+0	1.136850E+0	1.119827E+0	1.159600E+0
5.542580E+2	1.111443E+0	1.105087E+0	1.111164E+0	1.071480E+0	1.103804E+0	1.095044E+0	1.098082E+0	1.092218E+0	1.087498E+0	1.060484E+0	1.101587E+0	1.080806E+0	1.108282E+0	1.116336E+0	1.121906E+0	1.108211E+0	1.125667E+0	1.103110E+0	1.131717E+0	1.129063E+0	1.071332E+0	1.078615E+0	1.133255E+0	1.117576E+0	1.036306E+0	1.094245E+0	1.087408E+0	1.111999E+0	1.107009E+0	1.114837E+0	1.093170E+0	1.089919E+0	1.121790E+0	1.155025E+0	1.132716E+0	1.106694E+0	1.053217E+0	1.062067E+0	1.131297E+0	1.058155E+0	1.036771E+0	1.114815E+0	1.108369E+0	1.087562E+0	1.103726E+0	1.111421E+0	1.097890E+0	1.035043E+0	1.117085E+0	1.083974E+0	1.086953E+0	1.148187E+0	1.066775E+0	1.090428E+0	1.110892E+0	1.102518E+0	1.076556E+0	1.072528E+0	1.113041E+0	1.107888E+0	1.077637E+0	1.071035E+0	1.097275E+0	1.069355E+0	1.092723E+0	1.072296E+0	1.081993E+0	1.098158E+0	1.075829E+0	1.082410E+0	1.071100E+0	1.107046E+0	1.109654E+0	1.171990E+0	1.115502E+0	1.103982E+0	1.126628E+0	1.060302E+0	1.077746E+0	1.097413E+0	1.087534E+0	1.030884E+0	1.111620E+0	1.131312E+0	1.105032E+0	1.089013E+0	1.070591E+0	1.081037E+0	1.093038E+0	1.016789E+0	1.152255E+0	1.102946E+0	1.037273E+0	1.109828E+0	1.107576E+0	1.079510E+0	1.055211E+0	1.136030E+0	1.059569E+0	1.154445E+0	1.067838E+0	1.090841E+0	1.149259E+0	1.100822E+0	1.032682E+0	1.079440E+0	1.073151E+0	1.091920E+0	1.113860E+0	1.112335E+0	1.089720E+0	1.121585E+0	1.089981E+0	1.097255E+0	1.072302E+0	1.049543E+0	1.047340E+0	1.107042E+0	1.001454E+0	1.104672E+0	1.098486E+0	1.117278E+0	1.138853E+0	1.162333E+0	1.075908E+0	1.080611E+0	1.108524E+0	1.126418E+0	1.131644E+0	1.099792E+0	1.127409E+0	1.100776E+0	1.103791E+0	1.062030E+0	1.090197E+0	1.132256E+0	1.119969E+0	1.104118E+0	1.128847E+0	1.136649E+0	1.084155E+0	1.081565E+0	1.108183E+0	1.032970E+0	1.081132E+0	1.111563E+0	1.045480E+0	1.112359E+0	1.103260E+0	1.117662E+0	1.120940E+0	1.137712E+0	1.098622E+0	1.123005E+0	1.081042E+0	1.085132E+0	1.102165E+0	1.104689E+0	1.122360E+0	1.078318E+0	1.072261E+0	1.087170E+0	1.090122E+0	1.087615E+0	1.105244E+0	1.085583E+0	1.064819E+0	1.113568E+0	1.089172E+0	1.160652E+0	9.893907E-1
5.550140E+2	1.037482E+0	9.997780E-1	9.654114E-1	1.002051E+0	1.008623E+0	1.021784E+0	9.844008E-1	1.001276E+0	1.007526E+0	1.018097E+0	1.026152E+0	1.054777E+0	9.950656E-1	9.951010E-1	9.957911E-1	1.030568E+0	1.054885E+0	1.030285E+0	1.004526E+0	1.024106E+0	1.000035E+0	9.909273E-1	9.890680E-1	1.001935E+0	1.020346E+0	1.038597E+0	9.902252E-1	1.024074E+0	9.619491E-1	1.005029E+0	9.574285E-1	1.040544E+0	1.035338E+0	1.049272E+0	9.989726E-1	1.071030E+0	9.799681E-1	1.010837E+0	1.019819E+0	9.672396E-1	1.023846E+0	1.014948E+0	9.862130E-1	1.008588E+0	1.004720E+0	9.833428E-1	1.011988E+0	1.010876E+0	1.022151E+0	1.031796E+0	9.402834E-1	1.016571E+0	9.657533E-1	1.029703E+0	1.047712E+0	1.040397E+0	9.902525E-1	1.002887E+0	1.007958E+0	1.047123E+0	9.889104E-1	9.973218E-1	1.004418E+0	9.875017E-1	9.813143E-1	1.013897E+0	1.043477E+0	9.942814E-1	9.983653E-1	1.014129E+0	1.007652E+0	1.013774E+0	9.306381E-1	9.738886E-1	1.035234E+0	1.041921E+0	1.019001E+0	9.640714E-1	1.017148E+0	1.017976E+0	1.048307E+0	1.024244E+0	9.712167E-1	1.000722E+0	9.360959E-1	9.834792E-1	1.034233E+0	1.057173E+0	9.880618E-1	9.797689E-1	1.005891E+0	1.013194E+0	9.920145E-1	1.005921E+0	9.864999E-1	9.951298E-1	9.958723E-1	1.055356E+0	9.642885E-1	1.022951E+0	1.012390E+0	9.793118E-1	1.013029E+0	1.010589E+0	1.004788E+0	1.013158E+0	9.701383E-1	9.664125E-1	9.906580E-1	1.013788E+0	1.024080E+0	1.074298E+0	9.946060E-1	1.005704E+0	1.021507E+0	9.809294E-1	9.899379E-1	9.985070E-1	9.358229E-1	1.002577E+0	9.479123E-1	1.004278E+0	9.702955E-1	9.754760E-1	1.023919E+0	9.925852E-1	9.791772E-1	1.033660E+0	1.095981E+0	1.006534E+0	9.780372E-1	1.018442E+0	9.836976E-1	1.028752E+0	1.009041E+0	1.035670E+0	1.037706E+0	9.747403E-1	1.004194E+0	1.023879E+0	1.044597E+0	9.797192E-1	1.028804E+0	9.857803E-1	9.960808E-1	1.042447E+0	9.626490E-1	1.024658E+0	1.017648E+0	9.855498E-1	9.893892E-1	9.979401E-1	1.016041E+0	9.487683E-1	1.027317E+0	1.043109E+0	1.010119E+0	9.722303E-1	1.005557E+0	1.028517E+0	1.018699E+0	9.998176E-1	1.041298E+0	9.793464E-1	9.901072E-1	1.018177E+0	9.786731E-1	9.779020E-1	9.512990E-1	1.019740E+0	9.714940E-1
5.557600E+2	9.367361E-1	9.904785E-1	9.440555E-1	9.559949E-1	9.753197E-1	9.332389E-1	9.435020E-1	9.680736E-1	9.479407E-1	9.333318E-1	9.560051E-1	9.528383E-1	9.519862E-1	9.688510E-1	9.685143E-1	9.983926E-1	9.832996E-1	9.384834E-1	9.608405E-1	9.819074E-1	9.856420E-1	9.786463E-1	9.448540E-1	9.578622E-1	9.478099E-1	1.032334E+0	9.911602E-1	9.669110E-1	9.592357E-1	9.335138E-1	9.329393E-1	9.666220E-1	9.845299E-1	9.667532E-1	1.022539E+0	9.869421E-1	9.488702E-1	9.442934E-1	1.042450E+0	9.788656E-1	9.783379E-1	9.739882E-1	9.486839E-1	9.489688E-1	9.832944E-1	1.000318E+0	9.724314E-1	9.463327E-1	9.549903E-1	9.681743E-1	9.313858E-1	9.454659E-1	9.602842E-1	9.943672E-1	9.354940E-1	9.804398E-1	9.333670E-1	9.475723E-1	9.769078E-1	9.443822E-1	9.890589E-1	9.895285E-1	9.406150E-1	9.602111E-1	9.452066E-1	1.016868E+0	1.017990E+0	9.635350E-1	9.602747E-1	9.896887E-1	1.003212E+0	9.216636E-1	9.648440E-1	9.499970E-1	9.932279E-1	1.001887E+0	9.838693E-1	9.766376E-1	9.760793E-1	9.600771E-1	9.942000E-1	9.447698E-1	9.567072E-1	9.868598E-1	9.521564E-1	9.697808E-1	9.666689E-1	9.596433E-1	9.481561E-1	9.852085E-1	9.822653E-1	9.746896E-1	9.657989E-1	9.399627E-1	9.894624E-1	9.613337E-1	1.017154E+0	9.790725E-1	9.470439E-1	9.789748E-1	9.268231E-1	9.691372E-1	9.711492E-1	9.930244E-1	9.772248E-1	9.303131E-1	1.002885E+0	9.611640E-1	9.215402E-1	9.463936E-1	9.815934E-1	9.820738E-1	9.875581E-1	9.271228E-1	9.419938E-1	9.975963E-1	9.888619E-1	9.391095E-1	9.213212E-1	9.725295E-1	9.666217E-1	9.642526E-1	9.824090E-1	9.473758E-1	9.741853E-1	9.249520E-1	9.607790E-1	9.603318E-1	9.986157E-1	9.197476E-1	9.533578E-1	9.985080E-1	9.746309E-1	9.407409E-1	9.755114E-1	9.684106E-1	9.685764E-1	9.689519E-1	9.775399E-1	1.003153E+0	1.009495E+0	9.882908E-1	9.628229E-1	1.002076E+0	9.817947E-1	9.623840E-1	9.617473E-1	9.484285E-1	1.013014E+0	9.632712E-1	9.834059E-1	9.791492E-1	9.668915E-1	9.975219E-1	9.575615E-1	1.038944E+0	9.786308E-1	9.658590E-1	9.644058E-1	9.393251E-1	1.021902E+0	9.823898E-1	9.826768E-1	9.778520E-1	9.388128E-1	9.722338E-1	9.932807E-1	9.992798E-1	9.228684E-1	9.407522E-1	9.609570E-1
5.560190E+2	9.664858E-1	9.719033E-1	9.128574E-1	9.418854E-1	9.783741E-1	9.319519E-1	9.638456E-1	9.643138E-1	9.379257E-1	9.350561E-1	9.698281E-1	9.906703E-1	9.647064E-1	9.750626E-1	9.793938E-1	9.882274E-1	9.679865E-1	9.644753E-1	1.044678E+0	9.687356E-1	9.601156E-1	9.384728E-1	9.916035E-1	9.479502E-1	9.799303E-1	9.611125E-1	9.481161E-1	9.563959E-1	9.731682E-1	9.579250E-1	9.446492E-1	9.852004E-1	9.610063E-1	1.001762E+0	9.854893E-1	9.716052E-1	9.946683E-1	9.509005E-1	9.507731E-1	9.286860E-1	9.610396E-1	9.918077E-1	9.348400E-1	9.938450E-1	1.020554E+0	9.483736E-1	9.716834E-1	9.577050E-1	9.863230E-1	9.665475E-1	9.490444E-1	1.007480E+0	9.165055E-1	9.548901E-1	1.000596E+0	9.913799E-1	9.635161E-1	9.634930E-1	9.604187E-1	1.000479E+0	9.657747E-1	9.594386E-1	9.412808E-1	9.421329E-1	9.611447E-1	9.967282E-1	9.545044E-1	9.559495E-1	9.689459E-1	9.716865E-1	9.935694E-1	9.329311E-1	9.945761E-1	9.709203E-1	9.873885E-1	9.604476E-1	9.568551E-1	9.950840E-1	9.657474E-1	9.495016E-1	1.002571E+0	9.912597E-1	9.575289E-1	9.509186E-1	9.834678E-1	9.193854E-1	9.702590E-1	1.000107E+0	8.989383E-1	9.374612E-1	9.714801E-1	9.792705E-1	9.961519E-1	9.525246E-1	9.791951E-1	9.783585E-1	9.835676E-1	9.978058E-1	9.165187E-1	9.543337E-1	9.247734E-1	9.872780E-1	9.622079E-1	9.818958E-1	9.374968E-1	9.378767E-1	9.692911E-1	9.770016E-1	9.866958E-1	9.802539E-1	9.528633E-1	9.731278E-1	1.006063E+0	9.688438E-1	9.641777E-1	9.232998E-1	9.710259E-1	9.624645E-1	9.426290E-1	9.937250E-1	9.343827E-1	9.287181E-1	9.219941E-1	9.678976E-1	9.923716E-1	1.002573E+0	9.294759E-1	9.583162E-1	9.864318E-1	9.745625E-1	1.014185E+0	9.764452E-1	9.879389E-1	9.307286E-1	9.830171E-1	9.470104E-1	9.570199E-1	9.514754E-1	9.700197E-1	9.481509E-1	9.257514E-1	9.717526E-1	9.635702E-1	9.729906E-1	9.770980E-1	9.483400E-1	9.450216E-1	1.005741E+0	9.805985E-1	9.831228E-1	9.861107E-1	9.873077E-1	9.096327E-1	9.779388E-1	9.454674E-1	1.009484E+0	9.143339E-1	9.357953E-1	9.954104E-1	9.171988E-1	9.799862E-1	9.928664E-1	9.550129E-1	9.813205E-1	9.913040E-1	9.348869E-1	9.754506E-1	9.613593E-1	9.794724E-1	9.796946E-1	1.031639E+0
5.565090E+2	9.599699E-1	1.000920E+0	9.860205E-1	9.459640E-1	9.668999E-1	9.251764E-1	9.745605E-1	1.003749E+0	9.765663E-1	9.444231E-1	1.020735E+0	9.937656E-1	9.693079E-1	9.436254E-1	9.672840E-1	9.649259E-1	1.058003E+0	9.430084E-1	9.611459E-1	9.443473E-1	9.422350E-1	9.443639E-1	9.717671E-1	9.680985E-1	1.004460E+0	1.014305E+0	9.761758E-1	9.746404E-1	9.475178E-1	9.636499E-1	9.701604E-1	9.749688E-1	9.517879E-1	9.796728E-1	9.801663E-1	9.584477E-1	9.527484E-1	9.410041E-1	9.950951E-1	1.024827E+0	9.836998E-1	9.463279E-1	9.099255E-1	1.005029E+0	9.640713E-1	1.000024E+0	9.334092E-1	9.366964E-1	9.662380E-1	9.858558E-1	9.853976E-1	1.009814E+0	9.781359E-1	9.996352E-1	1.044684E+0	9.534696E-1	9.545780E-1	9.994968E-1	9.724476E-1	9.760550E-1	9.716629E-1	9.757918E-1	9.448879E-1	9.994178E-1	9.364258E-1	9.524554E-1	9.500482E-1	9.589747E-1	9.643621E-1	9.340111E-1	9.757029E-1	9.635538E-1	9.734819E-1	9.864247E-1	9.801489E-1	9.680502E-1	9.635700E-1	9.345366E-1	9.987183E-1	9.347911E-1	9.996330E-1	9.616115E-1	9.779696E-1	9.397829E-1	9.810014E-1	9.911446E-1	9.937783E-1	9.824561E-1	9.735815E-1	9.254508E-1	9.079477E-1	9.558279E-1	1.006083E+0	9.845609E-1	9.379651E-1	9.675232E-1	9.489596E-1	9.757992E-1	9.944543E-1	9.390705E-1	9.651127E-1	9.713697E-1	9.279455E-1	9.849893E-1	9.860849E-1	9.723196E-1	9.368860E-1	9.468652E-1	9.760083E-1	9.425012E-1	1.002777E+0	1.023128E+0	9.580567E-1	9.795203E-1	9.542810E-1	9.073210E-1	9.552577E-1	9.720833E-1	9.764327E-1	9.299971E-1	9.670188E-1	1.003228E+0	9.692540E-1	9.845693E-1	9.387547E-1	9.292277E-1	8.964403E-1	9.848533E-1	9.865559E-1	9.752825E-1	9.815400E-1	9.915584E-1	9.793446E-1	9.520849E-1	9.673593E-1	1.026921E+0	1.003503E+0	8.914665E-1	9.600494E-1	9.527731E-1	9.616118E-1	9.565282E-1	9.828122E-1	9.287452E-1	9.652079E-1	9.700005E-1	9.074987E-1	9.461357E-1	9.712997E-1	9.589182E-1	9.644344E-1	9.840348E-1	9.680893E-1	9.568341E-1	9.612746E-1	9.595166E-1	9.674381E-1	9.869547E-1	9.860276E-1	9.713144E-1	9.541447E-1	9.815783E-1	9.290588E-1	9.519483E-1	9.590603E-1	9.416221E-1	9.810881E-1	9.341561E-1	9.343668E-1	1.001537E+0	8.655050E-1
5.570160E+2	9.774723E-1	9.577982E-1	9.782852E-1	9.519523E-1	9.717511E-1	9.612058E-1	9.416119E-1	9.485512E-1	9.451053E-1	9.493471E-1	9.797321E-1	9.472734E-1	9.842727E-1	9.392723E-1	9.492766E-1	9.576176E-1	9.917231E-1	9.739991E-1	9.631222E-1	9.973149E-1	9.259752E-1	9.414841E-1	9.750322E-1	9.599515E-1	9.664295E-1	9.537521E-1	9.705908E-1	9.830683E-1	9.855446E-1	9.294201E-1	9.432034E-1	9.534153E-1	9.600953E-1	9.512379E-1	9.596477E-1	1.022186E+0	9.406785E-1	9.489183E-1	9.696694E-1	9.991772E-1	9.744130E-1	9.740692E-1	9.781947E-1	9.832276E-1	9.780032E-1	9.546710E-1	9.719937E-1	9.336811E-1	9.876381E-1	9.752900E-1	9.533099E-1	9.798254E-1	9.933129E-1	1.006556E+0	9.706334E-1	9.351391E-1	9.300399E-1	9.507979E-1	9.495746E-1	9.500070E-1	9.813538E-1	9.778483E-1	9.281531E-1	9.709144E-1	9.268688E-1	9.467501E-1	9.680553E-1	9.702374E-1	9.521163E-1	9.416719E-1	9.462811E-1	9.464432E-1	9.696603E-1	9.772014E-1	1.025636E+0	9.782072E-1	9.719245E-1	9.336853E-1	9.358412E-1	9.471549E-1	9.761414E-1	9.350148E-1	9.345675E-1	9.594208E-1	9.488874E-1	1.013831E+0	9.496682E-1	9.775998E-1	9.615320E-1	9.143797E-1	9.983013E-1	1.006519E+0	9.916170E-1	9.357237E-1	9.919115E-1	9.697566E-1	9.714233E-1	9.956946E-1	9.557830E-1	9.623619E-1	9.501053E-1	9.707004E-1	9.934107E-1	1.002061E+0	9.670355E-1	9.850986E-1	9.871734E-1	9.331615E-1	9.356509E-1	9.571053E-1	9.490298E-1	9.585770E-1	9.582412E-1	9.748864E-1	9.571532E-1	9.637699E-1	9.670942E-1	9.287967E-1	9.350636E-1	9.704259E-1	9.861798E-1	9.539629E-1	9.575627E-1	9.879673E-1	9.942760E-1	9.653684E-1	9.916172E-1	9.249891E-1	9.611968E-1	9.935054E-1	9.807755E-1	9.784309E-1	9.631964E-1	9.631315E-1	9.726974E-1	1.001814E+0	9.653665E-1	9.876193E-1	9.528242E-1	9.642196E-1	1.004364E+0	9.731857E-1	9.648671E-1	9.897804E-1	9.827919E-1	9.294720E-1	1.010531E+0	1.001072E+0	9.652132E-1	9.926374E-1	1.038581E+0	1.021467E+0	9.360694E-1	1.026600E+0	9.690943E-1	9.898281E-1	9.934133E-1	9.567630E-1	1.003439E+0	1.009366E+0	9.675414E-1	9.759489E-1	9.584072E-1	9.900833E-1	9.392264E-1	1.007438E+0	9.285793E-1	9.278954E-1	9.593473E-1	1.016858E+0	8.876242E-1
5.575530E+2	1.012466E+0	1.034871E+0	9.663287E-1	1.009249E+0	1.012222E+0	9.902011E-1	1.020220E+0	9.922348E-1	9.710602E-1	1.028202E+0	1.001257E+0	9.830826E-1	1.009277E+0	9.654862E-1	9.791758E-1	1.058620E+0	9.980659E-1	9.696777E-1	1.027155E+0	1.004545E+0	9.800929E-1	9.947881E-1	1.031195E+0	1.001825E+0	1.030998E+0	9.520925E-1	1.036338E+0	1.008739E+0	9.868644E-1	9.976211E-1	9.982517E-1	1.014907E+0	1.025720E+0	1.015800E+0	9.926999E-1	1.031013E+0	9.622654E-1	9.994029E-1	1.013299E+0	1.009192E+0	1.007634E+0	9.739265E-1	9.857304E-1	9.717522E-1	9.861400E-1	9.521924E-1	1.008395E+0	9.778024E-1	1.010111E+0	9.827587E-1	9.694287E-1	1.014794E+0	9.418187E-1	1.011598E+0	1.008394E+0	9.617335E-1	1.003634E+0	9.929956E-1	1.007063E+0	9.835869E-1	1.038170E+0	1.017687E+0	9.650904E-1	9.950779E-1	1.015413E+0	9.665968E-1	1.008906E+0	9.703243E-1	9.809774E-1	9.717278E-1	9.930494E-1	9.927899E-1	1.033332E+0	1.021754E+0	1.031994E+0	1.012424E+0	9.895996E-1	1.013050E+0	1.002506E+0	1.004366E+0	1.041412E+0	9.925361E-1	9.867251E-1	1.031581E+0	1.030406E+0	1.012751E+0	1.003549E+0	9.649216E-1	1.004024E+0	1.007457E+0	9.947761E-1	9.504099E-1	1.019539E+0	1.020074E+0	9.734073E-1	9.653676E-1	1.024248E+0	1.025762E+0	1.001802E+0	9.644086E-1	1.027609E+0	9.899794E-1	1.012060E+0	1.002719E+0	1.025330E+0	9.933293E-1	1.009319E+0	9.558323E-1	9.970459E-1	1.035728E+0	9.889562E-1	1.019849E+0	9.881085E-1	9.655334E-1	1.001971E+0	1.021547E+0	9.606115E-1	9.749547E-1	1.017669E+0	9.852638E-1	9.831312E-1	1.037279E+0	9.965545E-1	9.551353E-1	1.010629E+0	1.029215E+0	1.007527E+0	9.616344E-1	1.037305E+0	1.013957E+0	1.007081E+0	9.879512E-1	1.030758E+0	9.890189E-1	9.941578E-1	9.715430E-1	1.043345E+0	9.919073E-1	9.490708E-1	1.019212E+0	1.019781E+0	9.916353E-1	9.925865E-1	9.833761E-1	9.808884E-1	9.927166E-1	9.724721E-1	1.004119E+0	1.011938E+0	9.701756E-1	9.955703E-1	1.065078E+0	1.004911E+0	1.013165E+0	9.863912E-1	1.026940E+0	1.005450E+0	1.012682E+0	1.040346E+0	1.022944E+0	9.793479E-1	1.013230E+0	1.015115E+0	1.043348E+0	9.922442E-1	9.933530E-1	1.002976E+0	1.023378E+0	9.726105E-1	9.499717E-1	9.769318E-1
5.580170E+2	1.015284E+0	1.008583E+0	9.920162E-1	1.011684E+0	1.009338E+0	9.903427E-1	1.003895E+0	1.009136E+0	9.750506E-1	9.527935E-1	9.877390E-1	1.013794E+0	9.701952E-1	1.019050E+0	1.018270E+0	1.017012E+0	9.656463E-1	1.029497E+0	1.016771E+0	9.754148E-1	9.559401E-1	9.575171E-1	9.837977E-1	9.684481E-1	9.641876E-1	9.937020E-1	9.908013E-1	9.894268E-1	1.009691E+0	1.020868E+0	9.786021E-1	1.008081E+0	9.658711E-1	1.001073E+0	9.988320E-1	9.517763E-1	1.007499E+0	9.962121E-1	1.002705E+0	9.866316E-1	9.767294E-1	9.957913E-1	1.015000E+0	9.822650E-1	1.005465E+0	1.000626E+0	9.828398E-1	1.011134E+0	9.935494E-1	9.455743E-1	9.888406E-1	1.005016E+0	9.841863E-1	9.890061E-1	1.020317E+0	9.918278E-1	9.971330E-1	1.038925E+0	9.909889E-1	9.904058E-1	9.722615E-1	9.805304E-1	9.790049E-1	1.022610E+0	1.002257E+0	9.935851E-1	9.899411E-1	9.824770E-1	9.437824E-1	1.013658E+0	9.866158E-1	9.796345E-1	9.904672E-1	1.002827E+0	1.035047E+0	1.021157E+0	9.965180E-1	9.745091E-1	9.979794E-1	9.942316E-1	1.011914E+0	9.953602E-1	9.522042E-1	9.966965E-1	1.006173E+0	9.861514E-1	9.984703E-1	1.009773E+0	9.946867E-1	1.026964E+0	9.861695E-1	1.021007E+0	1.040368E+0	9.748741E-1	1.012602E+0	9.730959E-1	9.836336E-1	9.896468E-1	1.037021E+0	1.026330E+0	9.987738E-1	9.581069E-1	1.013391E+0	9.850529E-1	1.009943E+0	9.812474E-1	9.784680E-1	9.849374E-1	1.003545E+0	1.041625E+0	9.954784E-1	9.461454E-1	1.036067E+0	9.735852E-1	9.869099E-1	9.752776E-1	9.702536E-1	9.687233E-1	9.837126E-1	1.004165E+0	9.807572E-1	1.030147E+0	9.702468E-1	1.026792E+0	1.009510E+0	1.048591E+0	9.910204E-1	9.983499E-1	9.959177E-1	1.010242E+0	1.002803E+0	1.039230E+0	9.980240E-1	9.740178E-1	9.958227E-1	9.949766E-1	1.003978E+0	9.748604E-1	1.029510E+0	1.012488E+0	9.812332E-1	1.016070E+0	9.942680E-1	9.775811E-1	1.004103E+0	1.003357E+0	9.774580E-1	9.535670E-1	9.821336E-1	9.970353E-1	9.801304E-1	9.768077E-1	9.926523E-1	1.023094E+0	1.044255E+0	1.054138E+0	1.019304E+0	9.823458E-1	1.012641E+0	1.013489E+0	1.020811E+0	9.630826E-1	1.004504E+0	9.911860E-1	1.015164E+0	9.643118E-1	9.950584E-1	9.910105E-1	9.592474E-1	9.638443E-1	9.994330E-1
5.585160E+2	1.008923E+0	1.008532E+0	9.619843E-1	1.030948E+0	9.802542E-1	1.033406E+0	9.686225E-1	9.756336E-1	1.010400E+0	9.920564E-1	9.652169E-1	1.001800E+0	1.004188E+0	1.006191E+0	1.007397E+0	9.779171E-1	9.967061E-1	9.569197E-1	9.803686E-1	9.845513E-1	9.974423E-1	9.888237E-1	1.003499E+0	1.026254E+0	9.563230E-1	9.731123E-1	9.743070E-1	9.460920E-1	9.658304E-1	9.713498E-1	9.811841E-1	9.735096E-1	1.029248E+0	9.823364E-1	9.875232E-1	9.974021E-1	1.021943E+0	9.710584E-1	1.010858E+0	9.704536E-1	1.003061E+0	1.002484E+0	1.021010E+0	9.835491E-1	1.009048E+0	9.788365E-1	1.013631E+0	9.794865E-1	9.845858E-1	1.007669E+0	1.001445E+0	9.930168E-1	9.613126E-1	9.766471E-1	1.004461E+0	9.655510E-1	1.007138E+0	9.928020E-1	1.026721E+0	9.777141E-1	1.027928E+0	1.007395E+0	1.009840E+0	9.708832E-1	1.002948E+0	9.995168E-1	9.785407E-1	9.837055E-1	9.459895E-1	9.865222E-1	9.805753E-1	9.623534E-1	9.952032E-1	1.000344E+0	9.996623E-1	9.754066E-1	1.027757E+0	9.814916E-1	1.000113E+0	9.939368E-1	1.013490E+0	1.012739E+0	9.829296E-1	9.792112E-1	9.517629E-1	9.933941E-1	9.790403E-1	9.966299E-1	9.889236E-1	9.875339E-1	1.019642E+0	1.006610E+0	9.552859E-1	9.949335E-1	9.954037E-1	9.906247E-1	1.003376E+0	9.814868E-1	9.694433E-1	1.025885E+0	9.910093E-1	1.032959E+0	1.024527E+0	9.921609E-1	1.000352E+0	9.754125E-1	1.008283E+0	1.005299E+0	9.393162E-1	1.030683E+0	1.012323E+0	1.011085E+0	1.019484E+0	9.891420E-1	9.681827E-1	1.016579E+0	9.709159E-1	1.019914E+0	9.789613E-1	9.987417E-1	9.780747E-1	9.984211E-1	9.856409E-1	9.914607E-1	1.006009E+0	9.947371E-1	1.053596E+0	1.001737E+0	9.875326E-1	9.656869E-1	1.011402E+0	9.670710E-1	9.939384E-1	1.059017E+0	9.719599E-1	9.307437E-1	9.939067E-1	9.735496E-1	1.027895E+0	1.021946E+0	1.005403E+0	1.000630E+0	9.703334E-1	9.932654E-1	9.859812E-1	1.020055E+0	1.031187E+0	1.015926E+0	1.025453E+0	1.002219E+0	9.796802E-1	9.659409E-1	1.024768E+0	9.780298E-1	9.782901E-1	9.518664E-1	1.016782E+0	9.898670E-1	1.034182E+0	9.611664E-1	9.942847E-1	1.017614E+0	9.964120E-1	9.539234E-1	1.004441E+0	1.001247E+0	1.005228E+0	9.650799E-1	9.868125E-1	9.925477E-1	9.590844E-1
5.590100E+2	1.013757E+0	1.016439E+0	1.020664E+0	9.791308E-1	1.014023E+0	9.781675E-1	9.869993E-1	9.923159E-1	9.875276E-1	9.907565E-1	1.001662E+0	1.011036E+0	1.025756E+0	9.842479E-1	1.009956E+0	9.775550E-1	1.018592E+0	1.027407E+0	9.854332E-1	1.023967E+0	9.783706E-1	1.009971E+0	1.005885E+0	1.015290E+0	1.006064E+0	1.034584E+0	1.013738E+0	1.044977E+0	1.032481E+0	9.933614E-1	9.774197E-1	1.017061E+0	1.016429E+0	9.918514E-1	1.003203E+0	9.566207E-1	9.810238E-1	1.013140E+0	1.002190E+0	1.035679E+0	9.962861E-1	1.032405E+0	9.971673E-1	1.010444E+0	1.002713E+0	1.022699E+0	1.009012E+0	1.020525E+0	9.969777E-1	9.807024E-1	1.045866E+0	9.905521E-1	9.930941E-1	9.963442E-1	9.908839E-1	1.005323E+0	9.965178E-1	9.946391E-1	9.667057E-1	9.681359E-1	9.976203E-1	1.007532E+0	9.679551E-1	9.827030E-1	1.001240E+0	9.828766E-1	1.003127E+0	9.955870E-1	1.049798E+0	1.012665E+0	1.006051E+0	1.044493E+0	1.007527E+0	9.985503E-1	1.028278E+0	9.948660E-1	1.019123E+0	9.878096E-1	9.852640E-1	1.006741E+0	1.033362E+0	1.032401E+0	9.652277E-1	9.772823E-1	9.996981E-1	9.841453E-1	1.014692E+0	9.519124E-1	9.919740E-1	9.856488E-1	1.006768E+0	1.017769E+0	1.031910E+0	9.936890E-1	9.911252E-1	9.830825E-1	1.011307E+0	9.955654E-1	9.745637E-1	9.955375E-1	9.882024E-1	9.846111E-1	9.999325E-1	9.915098E-1	9.987682E-1	9.853639E-1	1.013586E+0	9.915577E-1	9.959126E-1	9.446769E-1	9.747999E-1	9.884952E-1	9.735953E-1	1.007659E+0	1.017533E+0	9.888573E-1	1.001483E+0	9.867165E-1	1.033211E+0	9.713499E-1	1.009655E+0	9.773127E-1	1.004035E+0	1.026320E+0	9.842349E-1	9.982242E-1	9.944566E-1	9.632306E-1	1.002918E+0	1.004013E+0	1.030861E+0	9.956189E-1	1.017354E+0	9.970935E-1	1.001564E+0	1.012717E+0	1.003711E+0	9.650995E-1	9.821676E-1	9.510840E-1	1.012368E+0	1.011305E+0	1.033979E+0	1.011074E+0	9.945770E-1	1.005664E+0	9.724525E-1	9.928393E-1	9.901221E-1	1.002643E+0	9.824581E-1	9.918022E-1	1.019155E+0	9.851017E-1	9.874633E-1	9.997698E-1	9.851467E-1	1.012825E+0	9.669395E-1	1.001002E+0	9.939272E-1	1.033289E+0	1.004615E+0	1.017457E+0	9.994483E-1	1.016791E+0	1.022063E+0	1.032588E+0	9.920727E-1	9.924458E-1	1.005209E+0
5.595110E+2	1.001975E+0	1.001254E+0	9.926475E-1	1.000501E+0	1.013212E+0	1.012957E+0	1.016322E+0	1.016195E+0	1.029959E+0	9.952761E-1	1.003041E+0	9.744560E-1	1.028606E+0	9.811299E-1	1.009302E+0	1.006612E+0	1.011547E+0	1.009634E+0	1.009936E+0	1.015446E+0	9.979540E-1	1.002605E+0	9.985167E-1	9.717959E-1	1.016714E+0	9.731697E-1	9.972981E-1	1.036168E+0	9.776545E-1	9.947313E-1	1.033545E+0	1.014595E+0	1.011444E+0	9.781332E-1	1.007864E+0	9.836203E-1	1.022875E+0	1.007595E+0	9.959876E-1	1.010068E+0	1.019424E+0	9.877061E-1	1.006763E+0	9.795319E-1	1.013382E+0	9.981798E-1	9.906925E-1	9.760768E-1	1.002168E+0	9.871079E-1	9.709067E-1	9.884406E-1	1.010472E+0	9.794449E-1	9.710173E-1	1.013273E+0	1.026687E+0	9.854152E-1	1.053328E+0	1.053298E+0	1.030637E+0	9.906433E-1	1.008161E+0	1.004668E+0	9.999465E-1	9.853757E-1	9.882265E-1	1.013441E+0	1.027284E+0	1.023542E+0	9.989287E-1	9.844257E-1	9.986620E-1	9.826050E-1	9.652953E-1	1.012145E+0	1.006800E+0	1.013578E+0	1.032932E+0	9.897812E-1	1.003300E+0	9.830554E-1	9.938268E-1	1.037561E+0	1.038602E+0	9.685978E-1	1.011744E+0	9.940533E-1	9.916388E-1	9.697357E-1	9.952118E-1	9.757156E-1	9.648867E-1	9.849254E-1	9.884481E-1	1.017287E+0	1.045415E+0	1.049504E+0	9.894153E-1	9.444839E-1	1.005641E+0	9.836392E-1	1.014052E+0	9.716018E-1	1.004213E+0	1.015828E+0	1.026558E+0	9.980519E-1	1.009542E+0	9.882846E-1	1.041934E+0	9.848545E-1	1.013384E+0	9.793523E-1	1.035541E+0	9.470747E-1	1.013487E+0	1.023252E+0	1.009240E+0	1.013092E+0	1.001959E+0	1.001559E+0	1.021710E+0	9.914075E-1	9.915572E-1	9.711765E-1	9.763379E-1	1.012570E+0	9.975155E-1	1.040904E+0	9.653291E-1	1.000587E+0	9.986981E-1	1.021368E+0	9.854175E-1	1.028526E+0	9.734777E-1	1.022503E+0	9.837152E-1	1.021950E+0	9.925592E-1	1.002328E+0	1.017471E+0	1.065502E+0	1.013427E+0	1.018982E+0	1.012459E+0	1.022008E+0	9.838578E-1	1.016558E+0	9.992052E-1	1.036500E+0	1.005179E+0	1.029090E+0	1.005744E+0	1.016172E+0	9.930370E-1	1.030393E+0	9.684905E-1	1.006951E+0	9.643880E-1	9.866360E-1	1.020042E+0	1.007139E+0	9.855852E-1	9.877988E-1	1.002655E+0	1.022514E+0	9.958492E-1	9.679628E-1	1.046510E+0
5.600240E+2	9.691484E-1	9.976677E-1	1.021104E+0	9.727418E-1	9.791121E-1	1.003103E+0	1.019477E+0	9.950342E-1	1.010759E+0	1.040944E+0	1.007545E+0	1.030469E+0	1.000851E+0	1.004249E+0	9.946683E-1	9.642597E-1	9.896759E-1	9.912703E-1	9.896786E-1	1.013854E+0	1.017683E+0	1.013558E+0	1.012217E+0	1.000870E+0	1.038212E+0	1.030205E+0	1.015903E+0	9.529426E-1	1.020242E+0	1.010485E+0	1.015171E+0	9.947813E-1	9.879570E-1	1.001294E+0	9.944267E-1	1.027023E+0	9.833622E-1	1.013571E+0	9.818732E-1	9.919464E-1	1.005930E+0	1.037282E+0	1.011810E+0	1.022467E+0	9.784454E-1	9.870969E-1	9.655063E-1	1.017869E+0	9.834600E-1	1.002899E+0	9.740506E-1	9.963218E-1	1.003807E+0	1.016022E+0	9.778162E-1	1.002315E+0	1.025757E+0	1.017187E+0	1.014573E+0	9.871385E-1	1.014637E+0	1.005043E+0	9.993268E-1	1.002885E+0	1.001215E+0	1.023521E+0	1.027033E+0	1.032625E+0	1.034336E+0	9.979344E-1	9.830498E-1	9.701774E-1	1.015461E+0	9.664470E-1	9.552732E-1	1.021318E+0	9.783870E-1	9.840902E-1	9.876428E-1	1.007007E+0	1.004024E+0	1.000217E+0	1.017703E+0	1.023336E+0	9.901676E-1	1.030038E+0	1.019916E+0	9.956856E-1	1.003865E+0	1.032505E+0	1.021701E+0	1.022983E+0	1.017178E+0	1.029194E+0	9.540486E-1	1.028489E+0	9.757058E-1	1.033705E+0	1.024550E+0	1.033685E+0	9.832198E-1	9.928779E-1	9.879831E-1	9.820895E-1	1.021700E+0	1.023768E+0	9.573252E-1	9.944552E-1	1.018187E+0	9.837510E-1	9.981875E-1	1.006455E+0	1.019249E+0	9.972813E-1	9.760737E-1	1.003603E+0	1.030811E+0	1.010674E+0	1.034291E+0	1.005323E+0	9.966444E-1	9.923570E-1	1.009606E+0	9.825567E-1	1.006443E+0	9.978811E-1	9.694434E-1	9.766792E-1	9.952432E-1	9.703620E-1	9.748917E-1	1.022150E+0	1.004568E+0	9.891132E-1	1.025153E+0	9.981865E-1	9.943659E-1	1.001461E+0	9.860405E-1	1.018694E+0	1.015846E+0	9.816061E-1	9.668521E-1	9.575968E-1	1.036159E+0	9.882012E-1	1.005997E+0	1.008950E+0	1.006127E+0	9.796188E-1	1.049190E+0	1.003497E+0	1.004714E+0	9.676288E-1	9.576353E-1	9.708600E-1	9.889992E-1	1.028124E+0	9.977078E-1	1.013728E+0	1.006077E+0	9.863657E-1	9.934164E-1	9.907497E-1	9.993764E-1	1.048048E+0	9.680601E-1	9.942474E-1	1.089692E+0	1.032703E+0	1.007412E+0
5.605150E+2	9.992367E-1	9.683715E-1	1.003858E+0	1.003531E+0	1.003059E+0	9.974521E-1	9.953176E-1	1.011875E+0	9.669899E-1	1.018742E+0	9.780938E-1	9.966448E-1	9.512019E-1	9.895298E-1	9.870996E-1	1.052006E+0	1.012621E+0	9.918829E-1	1.019479E+0	1.002476E+0	1.000339E+0	1.041245E+0	1.004102E+0	1.012769E+0	9.904031E-1	9.964916E-1	1.013303E+0	1.012794E+0	1.006841E+0	9.946915E-1	1.005827E+0	9.932647E-1	9.945101E-1	1.021769E+0	9.940520E-1	1.073829E+0	9.946760E-1	1.002455E+0	1.010392E+0	9.789329E-1	9.907459E-1	9.662758E-1	9.507803E-1	9.980157E-1	9.739127E-1	1.011157E+0	1.017969E+0	9.996243E-1	1.001262E+0	1.042440E+0	1.030930E+0	1.014765E+0	1.061812E+0	9.927397E-1	1.000678E+0	1.028994E+0	1.002277E+0	9.818159E-1	9.439120E-1	1.015378E+0	9.575897E-1	1.008605E+0	1.025188E+0	9.999608E-1	1.005178E+0	9.875887E-1	9.852252E-1	9.679103E-1	1.004829E+0	9.833362E-1	1.019360E+0	1.022446E+0	9.899890E-1	1.045973E+0	1.001834E+0	9.711313E-1	9.730372E-1	1.012884E+0	9.856693E-1	9.877077E-1	9.669953E-1	1.000964E+0	1.027619E+0	9.922616E-1	1.005766E+0	1.027082E+0	9.906034E-1	1.038371E+0	1.031313E+0	9.992519E-1	9.930839E-1	9.641599E-1	9.776769E-1	1.030421E+0	1.033643E+0	1.004282E+0	1.017310E+0	9.903320E-1	1.001188E+0	9.512182E-1	1.031707E+0	1.013056E+0	9.874474E-1	1.038528E+0	9.547739E-1	9.953949E-1	1.051634E+0	1.008611E+0	1.000911E+0	9.847827E-1	9.903311E-1	1.027321E+0	9.715240E-1	1.007353E+0	1.012047E+0	1.019452E+0	1.016024E+0	9.837441E-1	9.729441E-1	1.006446E+0	1.034863E+0	1.015771E+0	1.005392E+0	9.865316E-1	1.019789E+0	1.003799E+0	9.718200E-1	1.026284E+0	9.841448E-1	9.942578E-1	1.006429E+0	9.840709E-1	9.742986E-1	9.862355E-1	1.010312E+0	1.034827E+0	1.032658E+0	1.036107E+0	9.736242E-1	9.761072E-1	9.980579E-1	9.821017E-1	9.659063E-1	9.853170E-1	9.744826E-1	9.621711E-1	9.981533E-1	9.729851E-1	1.008278E+0	1.018221E+0	9.862717E-1	9.982951E-1	9.672345E-1	9.949228E-1	1.043195E+0	9.862310E-1	9.903019E-1	9.519509E-1	9.991231E-1	9.912676E-1	1.017765E+0	9.693729E-1	9.928356E-1	1.015857E+0	1.000758E+0	1.024008E+0	9.747067E-1	9.671797E-1	9.954978E-1	1.025354E+0	9.730080E-1
5.610010E+2	9.916757E-1	9.991539E-1	1.007726E+0	1.001463E+0	1.001003E+0	9.845721E-1	1.009366E+0	9.998101E-1	1.019314E+0	1.009432E+0	1.056702E+0	9.718011E-1	1.019202E+0	1.015603E+0	9.733075E-1	1.004638E+0	1.005212E+0	9.933892E-1	9.983342E-1	9.842915E-1	1.052271E+0	9.862807E-1	9.919827E-1	1.004572E+0	1.028096E+0	9.987349E-1	9.946496E-1	1.017600E+0	9.872612E-1	1.014513E+0	1.008252E+0	9.987077E-1	9.945407E-1	1.023543E+0	1.014099E+0	1.009728E+0	9.886219E-1	9.959688E-1	9.959934E-1	1.026289E+0	1.007823E+0	9.780552E-1	9.974693E-1	1.023727E+0	1.017034E+0	1.001405E+0	1.020350E+0	9.952840E-1	1.037998E+0	1.033608E+0	9.879612E-1	1.011888E+0	9.853168E-1	1.049796E+0	1.034826E+0	9.927157E-1	9.444907E-1	9.892164E-1	1.003771E+0	1.007930E+0	9.993258E-1	1.000251E+0	1.010525E+0	1.016290E+0	9.872155E-1	1.027536E+0	1.027906E+0	1.024254E+0	9.939802E-1	9.823419E-1	1.025419E+0	1.036469E+0	1.002690E+0	1.003254E+0	1.014610E+0	1.003976E+0	9.983778E-1	1.045638E+0	1.010399E+0	1.020595E+0	9.669143E-1	9.752634E-1	1.060489E+0	9.936518E-1	1.007831E+0	1.010592E+0	9.855343E-1	1.013575E+0	9.975988E-1	9.983610E-1	9.774237E-1	9.917552E-1	1.012694E+0	9.919637E-1	1.024729E+0	1.003140E+0	9.632526E-1	9.597598E-1	1.003818E+0	1.022860E+0	1.001446E+0	1.034750E+0	9.726665E-1	1.039057E+0	1.010249E+0	1.022985E+0	9.641467E-1	1.017088E+0	1.032586E+0	1.026196E+0	9.869464E-1	1.035644E+0	9.666961E-1	1.045627E+0	1.003713E+0	1.049156E+0	9.970263E-1	1.006976E+0	9.876413E-1	1.000882E+0	9.980460E-1	9.844326E-1	1.003370E+0	9.949317E-1	9.824565E-1	9.855911E-1	1.043326E+0	1.021150E+0	1.036728E+0	1.014535E+0	1.008285E+0	9.912722E-1	1.013119E+0	9.731548E-1	1.009772E+0	1.000023E+0	9.979019E-1	1.026420E+0	1.017048E+0	9.977317E-1	9.945334E-1	1.005958E+0	1.051190E+0	1.009664E+0	9.912699E-1	1.001570E+0	1.002292E+0	1.033724E+0	1.004029E+0	9.837050E-1	1.023065E+0	1.027157E+0	9.862966E-1	1.022133E+0	9.834173E-1	1.020963E+0	1.006429E+0	1.004494E+0	1.020916E+0	1.012396E+0	1.002748E+0	1.043639E+0	9.881755E-1	1.023688E+0	9.952267E-1	9.577956E-1	1.032229E+0	1.027381E+0	9.808280E-1	1.025142E+0	1.009343E+0
