Photon Energy (eV)	#1	#2	#3	#4	#5	#6	#7	#8	#9	#10	#11	#12	#13	#14	#15	#16	#17	#18	#19	#20	#21	#22	#23	#24	#25	#26	#27	#28	#29	#30	#31	#32	#33	#34	#35	#36	#37	#38	#39	#40	#41	#42	#43	#44	#45	#46	#47	#48	#49	#50	#51	#52	#53	#54	#55	#56	#57	#58	#59	#60	#61	#62	#63	#64	#65	#66	#67	#68	#69	#70	#71	#72	#73	#74	#75	#76	#77	#78	#79	#80	#81	#82	#83	#84	#85	#86	#87	#88	#89	#90	#91	#92	#93	#94	#95	#96	#97	#98	#99	#100	#101	#102	#103	#104	#105	#106	#107	#108	#109	#110	#111	#112	#113	#114	#115	#116	#117	#118	#119	#120	#121	#122	#123	#124	#125	#126	#127	#128	#129	#130	#131	#132	#133	#134	#135	#136	#137	#138	#139	#140	#141	#142	#143	#144	#145	#146	#147	#148	#149	#150	#151	#152	#153	#154	#155	#156	#157	#158	#159	#160	#161	#162	#163	#164	#165	#166	#167	#168	#169	#170	#171	#172	
5.300160E+2	-9.816636E-3	-1.711084E-4	-2.834689E-3	-3.882375E-3	7.193557E-4	-3.392700E-3	-4.434009E-3	4.519891E-3	4.381661E-4	3.668389E-3	-3.109259E-4	-6.246823E-3	-5.268248E-3	-3.726132E-3	-8.685915E-3	-1.256778E-2	1.869719E-3	-2.407707E-4	-6.208519E-3	-4.963283E-3	-4.625449E-3	-7.075501E-3	2.187207E-3	-4.997125E-4	-3.542299E-3	-1.014297E-2	-5.424691E-3	-9.074213E-3	-1.122023E-2	-6.549263E-3	-3.710709E-3	-3.478411E-3	-1.291535E-2	-2.529049E-3	-1.066045E-2	-7.340148E-4	-1.183906E-2	-1.065473E-3	2.198392E-3	-5.677637E-3	-2.477725E-3	-9.357245E-3	-8.227810E-3	-1.244287E-4	-7.123219E-3	-5.115744E-3	-1.924962E-3	-8.644299E-4	-1.406083E-2	-6.813121E-3	-1.255083E-2	-2.690572E-3	6.213190E-3	-7.664740E-3	-1.043959E-3	-7.403484E-4	-3.937842E-4	3.070754E-3	-2.227969E-3	-3.073804E-3	-2.868794E-3	-8.197498E-3	-6.979900E-3	-4.802859E-3	-3.319225E-3	-9.911172E-4	-6.725550E-3	-4.891663E-3	-3.250441E-3	-1.045698E-2	-2.476009E-3	-9.460654E-4	-1.307792E-3	-4.996407E-3	-6.605365E-3	-2.068222E-3	-3.443438E-3	-5.970891E-3	-7.034261E-3	-8.318219E-3	-4.201672E-3	-3.302175E-3	-1.132246E-2	-6.832689E-3	-7.651844E-4	-6.532035E-3	-5.180000E-3	-7.872235E-3	1.121679E-3	-5.669039E-3	-8.061288E-3	-6.583670E-3	-7.636588E-3	-2.759490E-3	-3.705180E-3	4.230341E-5	-4.634083E-3	-6.695604E-3	-2.894220E-3	-5.320092E-3	-4.914042E-3	-5.928618E-4	1.423792E-3	-1.739169E-3	-2.915351E-3	-3.306805E-3	-5.012557E-3	-8.327073E-3	-3.097309E-3	-9.169789E-3	-6.601529E-4	-3.548902E-3	-7.534156E-3	-5.613692E-3	-5.795392E-3	1.698591E-3	-1.142914E-2	1.600121E-3	-3.734762E-4	-1.014697E-2	-1.737472E-3	-6.070406E-3	-1.046273E-2	1.511938E-3	-2.280476E-3	-1.324000E-2	-3.398913E-3	1.290658E-3	-2.470679E-3	-4.828861E-3	-9.223996E-3	-1.346105E-2	-4.473855E-3	-1.433496E-3	-4.836110E-3	-4.417978E-3	2.050878E-3	-6.042737E-3	-1.072686E-2	-6.712980E-3	-1.344808E-2	-2.515421E-3	-1.215287E-3	-7.602759E-3	-1.395862E-2	-2.507251E-3	6.148651E-4	-6.735275E-3	-6.583826E-3	-6.159344E-3	3.797895E-3	-1.241907E-3	-2.377454E-3	3.012833E-5	-2.195876E-3	-5.255457E-3	-8.914405E-3	-6.232496E-3	-1.465893E-3	-4.033138E-3	-7.448942E-3	-2.339813E-3	-3.460080E-3	-8.274697E-3	-8.420731E-3	-2.762786E-3	-1.291387E-2	5.247531E-4	-3.346968E-3	-7.780642E-3	-9.206431E-3	1.209946E-2
5.305130E+2	7.205289E-4	-4.116777E-3	-1.235230E-2	-1.653187E-3	-4.545101E-4	-6.304598E-3	5.689690E-3	-5.361329E-3	-3.080232E-3	-5.969385E-5	-8.537230E-3	-4.144513E-3	-7.524411E-3	-7.470710E-3	-4.596571E-3	3.704321E-3	1.268891E-3	-8.871832E-3	-7.238621E-3	-6.624476E-3	-6.042221E-3	-1.204924E-2	-5.239003E-3	-7.526484E-3	-7.768690E-3	-5.395292E-3	-1.203085E-3	-1.015380E-2	-6.587579E-4	-6.609831E-3	-1.341395E-3	-9.274919E-3	-7.691540E-3	-5.274008E-3	-6.707297E-3	-3.745353E-3	-2.190889E-3	-8.210987E-3	-4.572201E-3	8.677076E-3	-5.393434E-3	-3.485014E-3	-7.497985E-4	-6.003294E-3	-6.240497E-3	-2.503154E-3	-5.038179E-3	-6.525578E-3	1.042152E-3	-2.278172E-3	1.718363E-3	-3.264654E-3	-1.171606E-2	-6.756367E-3	-5.323069E-3	-4.376636E-3	-7.829283E-3	-8.720519E-3	-1.345428E-2	9.343289E-4	-5.236954E-3	2.006884E-3	-9.987725E-3	-6.203911E-3	-7.909432E-3	-7.239145E-3	-9.877907E-3	-6.996637E-3	-1.760537E-3	-9.726418E-4	-5.525517E-3	-1.546022E-3	-5.189581E-3	1.705403E-3	-8.683572E-3	-4.962916E-3	-1.020981E-2	-5.558848E-3	-3.451604E-3	-2.023220E-3	-5.879150E-3	-5.561733E-3	-2.270276E-3	-1.542690E-3	4.743611E-3	-3.137527E-3	-5.733253E-3	-3.493224E-3	-5.732583E-3	-7.876005E-3	1.672976E-3	-5.432420E-3	-1.124857E-2	-5.668595E-3	-6.108201E-3	-1.022639E-3	-2.968481E-3	-9.633311E-3	-1.582308E-4	-1.896507E-3	-3.598321E-4	-3.239777E-3	-1.018621E-2	-1.900337E-3	2.814082E-3	-4.498569E-3	-3.305730E-3	-2.581815E-3	5.321882E-5	-7.901460E-3	7.356304E-6	-8.870283E-4	-2.605668E-3	-6.222570E-3	-7.919159E-3	-1.147467E-2	1.305054E-3	-8.042861E-4	-1.183378E-2	4.084930E-4	-6.937372E-4	-4.521361E-3	-8.500986E-3	-9.560327E-3	-2.905888E-3	1.054080E-3	-1.369438E-4	-7.284244E-3	-4.272852E-3	-6.563801E-3	-3.834470E-3	4.124434E-3	-7.299586E-3	-6.238303E-3	-1.602929E-3	1.279998E-3	-3.394886E-3	-9.642332E-3	1.767670E-4	-6.174955E-3	2.582468E-3	6.828945E-4	-4.740884E-3	-4.530988E-3	4.665137E-5	2.809323E-4	3.838745E-3	-5.162103E-3	-7.668422E-3	-5.155582E-3	-8.488976E-3	-8.944567E-3	-1.860050E-3	-4.110428E-3	-1.217108E-2	-1.849643E-3	-4.188066E-3	-7.823018E-3	-7.126636E-4	-2.671662E-3	6.340052E-3	-7.753038E-3	-9.152138E-3	-1.365290E-3	-7.925566E-3	-1.842351E-3	-5.789680E-3	-1.310685E-3	1.698555E-4	-9.338955E-3	-2.430717E-2	1.803238E-3
5.310000E+2	-9.340222E-3	-7.764982E-4	-2.174245E-3	-4.441823E-3	-8.622095E-3	-3.241520E-3	-5.486766E-3	-3.193661E-3	-1.480162E-3	-2.475402E-3	-5.178065E-3	8.933253E-4	1.273929E-3	3.925141E-3	-5.733749E-3	-5.183733E-3	-1.359864E-2	-7.046468E-4	-5.178234E-3	-2.370701E-3	-7.263877E-3	1.824180E-3	-1.102641E-2	-2.827456E-3	1.324832E-3	-7.937246E-3	-8.782667E-3	4.887357E-3	-9.688838E-4	1.705325E-3	-4.130262E-3	-1.077846E-3	-8.622452E-3	3.457738E-3	3.052486E-4	-2.781529E-4	4.475091E-4	-4.858594E-3	-6.795912E-3	-3.126106E-3	-6.487613E-3	-4.974549E-3	-7.062272E-3	-1.174495E-3	-8.525604E-3	3.159514E-4	1.125168E-3	-1.332972E-3	-6.867328E-3	3.872579E-4	-4.065943E-3	-2.659306E-3	-7.766997E-3	9.256822E-5	-1.051799E-2	-8.334468E-3	-3.070733E-4	-3.617697E-3	2.879292E-3	-4.153547E-3	-5.850774E-4	-9.444975E-3	-5.306375E-4	-6.931183E-3	-2.099792E-3	-5.085784E-3	3.019273E-3	-3.292625E-3	-9.133159E-3	-5.854004E-3	-2.936575E-3	-8.751864E-3	-6.193122E-3	-4.889884E-3	-4.478628E-3	-1.225348E-2	-1.618041E-3	4.301744E-4	-5.783428E-4	-2.877926E-3	-2.480417E-3	-2.703034E-3	6.586837E-4	-3.672209E-4	-7.472844E-3	-4.150935E-5	-1.834038E-3	4.945742E-3	2.369196E-3	-1.626425E-4	-6.779372E-3	-5.910788E-3	-4.454682E-3	-6.007124E-3	-5.535475E-3	-6.554749E-3	-9.083048E-3	-5.421185E-3	4.432228E-4	-3.494302E-3	-6.876595E-3	-7.185269E-3	-7.899642E-3	-3.722568E-3	-6.222200E-3	8.327127E-4	-3.068228E-4	-1.338012E-3	-7.373639E-3	1.402483E-3	-1.239115E-2	1.554541E-4	-3.043527E-3	-4.993749E-3	-8.175211E-4	4.657577E-5	-7.757432E-3	-4.666403E-3	-5.475513E-3	-1.388529E-3	-4.012149E-3	6.109833E-3	4.033814E-3	-4.318952E-3	3.974463E-4	-3.747158E-3	-7.268602E-3	-1.045830E-2	-4.733347E-3	-1.314807E-3	3.386804E-3	1.438006E-3	-9.330323E-4	-8.942024E-4	-6.415126E-3	-6.949064E-3	-5.392995E-3	-1.077679E-3	-1.336781E-3	-1.176085E-2	-1.504240E-5	-5.747334E-3	6.785682E-3	7.795389E-3	6.397223E-3	-5.212274E-3	-2.190212E-3	-4.510932E-3	-6.012267E-3	-8.714639E-3	-1.100975E-2	-7.411301E-3	-5.625030E-3	-5.735633E-3	-9.746862E-3	-2.301511E-3	4.983690E-3	1.061689E-3	-1.024952E-3	-1.247959E-2	-2.254256E-3	3.022674E-3	1.175789E-3	-4.118871E-3	1.850271E-3	-1.188759E-3	-5.666296E-3	-1.301711E-2	-2.166006E-3	5.101032E-3	4.950549E-3	-1.081663E-2
5.315130E+2	6.188596E-3	-7.570698E-5	7.456443E-3	9.012194E-4	-4.955533E-3	-1.147620E-3	4.373300E-3	3.166728E-5	-1.798931E-3	-3.558022E-3	5.834472E-3	3.235264E-3	-6.345987E-3	-1.330501E-3	6.296970E-4	8.721508E-3	-2.654845E-3	-1.068518E-3	-2.121273E-3	-3.272532E-3	2.575026E-3	3.065698E-3	-9.103141E-4	-1.756701E-3	-7.652362E-3	5.545537E-3	-4.754962E-4	-1.085694E-3	-4.119590E-3	-1.355758E-3	-6.901712E-4	2.703008E-3	-8.145557E-4	-1.043361E-2	-1.051208E-3	5.626398E-3	-1.922672E-3	-1.240061E-3	3.920842E-4	-6.833521E-3	9.756351E-4	9.116884E-3	5.935853E-3	-4.727354E-3	-4.497039E-3	-7.650034E-3	3.776579E-4	-7.764936E-4	-3.290370E-3	5.115704E-3	-4.932369E-3	-3.032226E-3	-3.940884E-3	-4.606344E-3	1.755124E-3	-4.684349E-3	-1.459790E-3	-1.641435E-4	-5.429382E-3	-1.153237E-3	-5.039569E-3	-2.013762E-3	1.073912E-3	4.198851E-4	4.871747E-3	4.787925E-3	4.629224E-4	-1.636753E-3	-9.436425E-4	-4.239879E-3	-1.834348E-3	-5.232945E-3	1.707391E-3	-1.424428E-3	3.861577E-3	7.224942E-3	-6.018528E-4	7.438817E-5	1.389699E-3	1.146978E-3	3.133695E-3	-9.343375E-4	4.161887E-3	1.342920E-3	-4.778677E-3	-3.394935E-3	4.500524E-4	-8.135877E-4	-1.801749E-3	3.778288E-3	7.722524E-4	-3.404022E-3	4.963545E-3	-2.652512E-3	2.373164E-4	3.466585E-3	-5.575924E-3	4.693812E-3	6.291015E-3	-3.965434E-3	4.072462E-3	3.596019E-3	2.629345E-3	4.727253E-3	-8.418725E-3	5.037354E-3	-3.076042E-3	-6.501983E-4	-6.063328E-4	6.522600E-4	-1.458302E-3	-8.571464E-3	-1.298568E-3	1.873645E-3	-1.233089E-3	7.012078E-4	5.682638E-4	-1.193360E-2	-1.940807E-3	1.155484E-3	-7.409401E-3	-4.300355E-3	-1.020664E-2	-7.060918E-3	-8.110576E-3	1.812058E-3	6.881019E-4	1.382283E-3	-5.801367E-3	-6.300583E-4	1.129843E-3	-1.314531E-2	-4.249147E-3	-1.016788E-2	1.411591E-3	3.114939E-3	-7.452810E-3	8.122367E-3	-3.378308E-3	3.901923E-3	-1.274918E-3	1.967443E-3	-9.483047E-3	2.066162E-3	-1.777363E-3	1.962406E-3	-1.564035E-3	4.156584E-4	1.040873E-2	-3.396416E-5	1.751053E-3	-1.113883E-3	5.794223E-4	-3.282176E-3	3.819835E-3	2.424096E-3	-1.565804E-3	-4.133997E-3	-3.175645E-3	-2.906062E-3	-1.348990E-2	-1.173265E-2	1.807081E-3	-2.856161E-3	6.567017E-3	-4.156642E-3	3.992423E-3	7.075758E-4	2.632176E-3	5.236875E-3	9.969356E-3	-1.086178E-3
5.320170E+2	-2.772415E-4	3.364609E-3	1.612491E-3	6.843257E-3	-3.602439E-4	3.542695E-3	2.866620E-3	-8.874832E-4	1.371658E-3	5.812995E-3	1.029290E-3	7.772076E-3	5.670042E-3	1.965025E-3	9.541788E-3	1.949931E-3	8.928465E-3	6.661353E-3	1.030624E-2	1.036979E-2	1.039887E-2	5.026438E-3	5.760049E-4	1.140242E-3	6.520991E-3	1.428777E-3	7.390152E-3	9.043071E-3	1.082581E-2	-2.157538E-3	4.870309E-3	-1.637990E-3	1.143912E-2	4.338984E-3	7.996154E-3	-9.748235E-4	3.227338E-4	7.244561E-4	1.961464E-3	-3.691004E-3	4.563691E-3	1.877716E-3	8.764374E-3	4.894146E-3	1.124406E-2	3.781267E-3	2.235293E-3	1.481673E-3	3.694071E-3	1.219436E-3	2.635519E-3	4.022783E-3	8.100843E-3	9.881477E-3	5.105391E-3	9.254900E-3	2.604402E-3	5.217254E-3	8.767667E-3	-1.002336E-3	-4.114409E-3	6.800108E-3	5.165735E-3	9.107164E-3	-4.349950E-3	3.230612E-4	5.841901E-4	5.742761E-3	5.558588E-3	-4.728232E-4	4.308590E-3	8.159240E-3	5.073997E-4	2.174103E-3	1.938569E-3	5.162062E-4	6.738295E-3	7.412785E-4	-7.729741E-4	-1.647538E-3	3.228893E-3	5.856540E-3	3.428270E-4	-3.321091E-3	-1.404966E-3	3.803525E-3	-1.051319E-3	-6.772896E-4	2.085122E-4	2.487954E-3	3.224207E-3	1.053751E-2	1.085996E-2	5.863641E-3	2.259623E-3	-1.742999E-4	1.161981E-2	3.667503E-3	-4.550000E-3	1.836382E-3	8.164925E-5	1.675779E-4	3.874047E-3	-1.876779E-5	1.014359E-2	-1.243085E-3	1.111700E-3	2.911130E-3	5.252860E-3	6.521209E-3	6.073542E-3	1.834833E-3	2.698272E-3	7.702543E-3	-3.346888E-3	1.957088E-3	5.826254E-3	5.245272E-3	3.910022E-3	-6.604471E-4	7.356801E-3	6.918361E-3	1.131036E-2	9.332102E-3	2.952325E-3	1.950288E-3	5.282096E-3	3.873077E-3	1.068325E-2	2.909692E-3	9.575129E-3	6.779552E-3	5.575338E-3	1.432180E-3	-1.797875E-3	1.059778E-2	6.551411E-3	9.639528E-4	8.669861E-3	2.191823E-2	3.931227E-3	-1.714276E-3	5.515186E-3	-4.156713E-3	6.149008E-3	-4.835767E-3	-1.507300E-3	9.544055E-3	3.402170E-3	1.023145E-2	5.588060E-3	6.180061E-3	4.032214E-3	2.094538E-3	8.637575E-3	-3.335551E-4	4.298337E-3	5.790524E-3	-3.101899E-4	7.217802E-3	3.689848E-3	-3.495066E-4	6.553577E-3	5.928607E-3	-5.057330E-3	-4.555726E-3	1.514858E-2	7.970487E-3	-3.164478E-3	2.311228E-3	6.812926E-3	-4.251981E-3
5.325170E+2	1.252497E-2	1.775482E-3	8.292302E-3	2.232908E-3	1.367303E-2	1.054374E-2	-3.008835E-3	4.890915E-3	4.549501E-3	-3.388267E-3	7.162460E-3	-1.509330E-3	1.219468E-2	6.637176E-3	8.844750E-3	3.375752E-3	4.186406E-3	4.224415E-3	1.044041E-2	6.861203E-3	4.957656E-3	9.208425E-3	1.441252E-2	1.147011E-2	1.111753E-2	1.650119E-2	8.495787E-3	6.383276E-3	6.141653E-3	1.496707E-2	5.002228E-3	1.276616E-2	1.860477E-2	1.043994E-2	1.011756E-2	1.059459E-4	1.518238E-2	1.465066E-2	6.816173E-3	1.065119E-2	8.819446E-3	6.822208E-3	1.339654E-3	7.135426E-3	1.514230E-2	1.117171E-2	3.225022E-3	8.017800E-3	1.948231E-2	2.368895E-3	1.719526E-2	7.623975E-3	9.109905E-3	9.053406E-3	1.002450E-2	8.880901E-3	7.385529E-3	4.214351E-3	9.464667E-3	8.448595E-3	1.784480E-2	1.084924E-2	1.125862E-2	8.410904E-3	1.280665E-2	8.205060E-3	1.253707E-2	1.107492E-2	9.529191E-3	2.199633E-2	8.463860E-3	8.317657E-3	1.047571E-2	7.431213E-3	1.396742E-2	1.154347E-2	9.134842E-3	1.028390E-2	1.044748E-2	1.371993E-2	6.198651E-3	6.644739E-3	8.429336E-3	1.072077E-2	9.678061E-3	9.302481E-3	1.334856E-2	7.910595E-3	3.834946E-3	7.441445E-3	9.171223E-3	1.079339E-2	7.516342E-3	1.122408E-2	1.285192E-2	4.242799E-3	1.064172E-2	1.338879E-2	8.682131E-4	1.283995E-2	7.996358E-3	7.254312E-3	1.015867E-2	2.653589E-3	4.598604E-3	3.178392E-3	1.058945E-2	9.985969E-3	5.771203E-3	8.495298E-3	8.428705E-3	1.101711E-2	1.178365E-2	7.253824E-3	1.911205E-2	7.071205E-3	1.148700E-2	1.055889E-2	1.571355E-2	1.063197E-2	6.495958E-3	1.863927E-3	1.382618E-2	1.009616E-2	9.947169E-3	1.217073E-2	4.834260E-3	1.119652E-2	6.594998E-3	1.042784E-2	-1.033310E-3	1.426437E-2	1.138028E-2	1.730170E-2	1.324045E-2	-3.625675E-3	7.638402E-3	7.676429E-3	6.595325E-3	-1.171370E-3	8.224346E-3	7.326693E-3	3.138350E-3	6.428909E-3	3.143099E-3	1.031195E-2	8.079370E-4	6.448597E-3	6.453617E-3	9.832081E-3	8.361713E-3	1.253160E-2	5.250898E-3	1.100357E-2	1.165641E-2	7.316069E-3	5.386247E-3	1.133730E-2	6.689342E-3	1.487265E-2	1.316319E-2	1.915233E-2	3.075772E-3	1.068641E-2	1.298634E-2	1.450626E-2	5.228839E-3	5.124983E-3	5.875420E-3	4.470462E-3	1.178077E-2	2.252085E-3
5.330230E+2	1.723585E-2	2.065710E-2	1.320626E-2	2.622897E-2	1.921748E-2	4.927989E-3	2.375509E-2	1.380817E-2	1.596040E-2	2.528381E-2	3.091295E-2	1.576563E-2	2.089753E-2	1.862536E-2	1.529857E-2	1.914475E-2	2.137168E-2	3.344646E-2	1.899458E-2	6.999375E-3	1.992729E-2	2.108987E-2	3.198917E-2	1.999183E-2	2.771058E-2	1.879499E-2	1.641789E-2	2.831236E-2	2.260570E-2	1.880782E-2	2.280280E-2	3.256455E-2	1.525266E-2	1.929746E-2	1.723359E-2	1.572808E-2	2.759446E-2	2.199710E-2	1.406454E-2	1.858384E-2	2.397767E-2	1.663590E-2	1.011676E-2	1.786724E-2	1.202836E-2	2.906305E-2	1.996331E-2	1.801174E-2	1.768962E-2	2.465304E-2	1.935887E-2	3.213900E-2	2.206785E-2	2.438443E-2	2.352131E-2	2.595155E-2	2.151944E-2	1.844944E-2	2.147834E-2	3.198875E-2	2.203797E-2	1.187326E-2	2.633791E-2	2.273840E-2	2.137563E-2	1.352175E-2	2.616267E-2	2.526773E-2	1.166355E-2	2.420261E-2	2.621921E-2	2.228479E-2	1.579547E-2	2.229585E-2	1.567785E-2	2.375899E-2	2.867099E-2	3.273956E-2	3.469897E-2	2.472503E-2	1.423403E-2	1.901722E-2	2.165338E-2	1.300577E-2	1.822304E-2	2.612319E-2	2.666509E-2	1.449637E-2	1.259875E-2	1.424908E-2	1.798082E-2	2.602234E-2	1.852957E-2	1.605512E-2	2.301555E-2	2.915966E-2	2.380261E-2	1.655119E-2	2.891804E-2	3.188333E-2	2.262005E-2	2.556484E-2	2.029524E-2	1.665199E-2	2.047384E-2	1.751990E-2	2.534362E-2	1.244339E-2	2.103689E-2	2.952649E-2	2.303818E-2	3.142245E-2	3.145119E-2	2.736701E-2	2.858700E-2	2.431893E-2	2.000126E-2	1.324337E-2	2.343690E-2	2.449449E-2	1.914961E-2	2.300817E-2	3.158426E-2	2.951402E-2	1.292673E-2	1.884676E-2	2.082101E-2	2.373091E-2	2.673300E-2	1.634030E-2	2.003279E-2	7.600741E-3	3.939856E-2	1.768797E-2	2.677433E-2	2.132264E-2	1.513939E-2	1.523887E-2	2.255565E-2	1.174905E-2	1.382741E-2	1.749004E-2	2.325499E-2	1.937807E-2	1.536761E-2	1.396427E-2	9.947012E-3	2.425916E-2	2.418620E-2	2.748836E-2	1.386365E-2	1.946222E-2	2.187446E-2	1.769455E-2	2.047956E-2	1.853138E-2	1.758644E-2	2.697214E-3	1.419473E-2	2.762310E-2	1.653529E-2	1.880736E-2	2.127681E-2	2.304155E-2	2.269847E-2	3.323527E-2	2.703753E-2	2.079917E-2	8.101867E-3	2.512101E-2	1.682000E-2	3.142016E-2
5.331630E+2	2.350385E-2	2.197544E-2	2.355389E-2	2.640557E-2	1.761073E-2	9.100230E-3	2.884584E-2	1.810649E-2	2.331475E-2	4.111784E-2	2.007435E-2	2.093004E-2	3.394132E-2	1.606361E-2	3.614244E-2	2.324425E-2	3.131092E-2	2.031725E-2	3.653451E-2	3.020057E-2	1.850887E-2	2.352564E-2	1.885887E-2	2.622666E-2	2.888200E-2	2.646792E-2	2.146756E-2	2.344246E-2	2.765326E-2	2.970622E-2	2.424688E-2	2.744801E-2	2.246154E-2	2.275480E-2	2.088820E-2	2.317603E-2	3.076215E-2	1.993524E-2	2.277612E-2	1.745703E-2	3.141609E-2	1.947176E-2	3.087113E-2	1.908072E-2	2.956549E-2	3.792776E-2	4.117607E-2	2.248022E-2	4.293486E-2	2.483075E-2	1.702835E-2	2.285186E-2	2.226246E-2	2.456221E-2	2.850147E-2	1.994999E-2	2.948075E-2	3.444453E-2	3.411212E-2	2.161005E-2	3.476770E-2	2.379832E-2	2.801686E-2	2.852346E-2	2.603456E-2	2.561286E-2	3.064957E-2	2.857501E-2	2.865894E-2	1.724808E-2	3.093407E-2	2.294254E-2	3.257808E-2	3.153656E-2	2.882280E-2	3.083247E-2	2.488080E-2	2.001498E-2	2.143340E-2	2.935039E-2	2.493438E-2	2.641183E-2	2.693963E-2	2.819537E-2	1.487320E-2	2.985082E-2	3.343203E-2	1.862233E-2	1.276650E-2	3.835034E-2	2.392222E-2	3.162758E-2	3.701506E-2	2.229826E-2	2.604624E-2	2.408380E-2	2.341426E-2	2.980445E-2	2.234930E-2	3.204937E-2	4.077961E-2	3.245974E-2	3.045140E-2	2.870822E-2	3.375903E-2	2.889479E-2	2.608827E-2	2.298332E-2	3.385549E-2	3.460326E-2	2.804101E-2	2.119651E-2	3.482193E-2	1.676109E-2	3.700562E-2	2.059675E-2	2.018822E-2	2.784372E-2	3.508805E-2	2.909426E-2	3.583428E-2	3.273017E-2	3.501432E-2	4.726496E-2	2.742654E-2	3.354402E-2	3.123020E-2	3.336547E-2	2.412179E-2	2.932860E-2	3.461107E-2	2.667827E-2	2.999578E-2	2.636686E-2	2.977037E-2	3.000043E-2	2.713770E-2	3.070333E-2	2.392571E-2	4.511869E-2	3.183618E-2	2.248646E-2	3.799272E-2	3.470596E-2	2.428429E-2	2.815685E-2	2.816784E-2	3.257181E-2	4.470867E-2	4.471199E-2	1.299979E-2	3.030179E-2	2.914972E-2	2.385502E-2	3.661479E-2	1.114678E-2	3.511647E-2	3.154147E-2	1.714508E-2	2.483225E-2	3.219931E-2	1.311203E-2	2.510764E-2	2.733393E-2	3.595114E-2	2.490011E-2	2.151521E-2	2.526694E-2	1.951744E-2	2.451896E-2	1.208469E-2	5.432865E-2
5.333130E+2	3.492694E-2	2.507246E-2	4.961802E-2	3.427185E-2	2.458079E-2	2.660526E-2	3.614246E-2	2.502600E-2	3.843610E-2	2.970145E-2	4.397078E-2	3.730864E-2	3.028820E-2	3.002471E-2	3.721933E-2	3.829948E-2	4.033373E-2	3.794115E-2	4.073859E-2	3.250877E-2	2.635397E-2	2.691085E-2	3.563192E-2	3.576601E-2	3.156240E-2	2.677472E-2	2.506590E-2	3.315902E-2	3.140808E-2	4.343523E-2	2.824500E-2	2.642432E-2	4.283711E-2	3.554834E-2	2.155954E-2	3.601778E-2	3.437149E-2	2.511382E-2	2.630272E-2	2.327627E-2	3.680175E-2	4.625483E-2	3.051649E-2	3.628918E-2	4.060310E-2	4.368713E-2	4.315571E-2	3.299767E-2	3.674140E-2	3.226827E-2	2.470872E-2	5.202410E-2	2.759900E-2	4.689663E-2	3.780184E-2	3.352251E-2	3.904865E-2	2.896542E-2	3.998449E-2	3.881907E-2	2.913386E-2	3.097719E-2	3.869614E-2	3.001848E-2	3.409479E-2	3.931517E-2	3.081555E-2	3.398263E-2	2.339951E-2	2.505684E-2	3.566993E-2	4.246879E-2	4.057873E-2	2.999962E-2	4.255265E-2	3.389460E-2	4.986591E-2	2.963268E-2	4.116075E-2	2.605880E-2	3.726341E-2	3.942694E-2	2.881901E-2	4.614980E-2	2.612340E-2	3.003356E-2	3.250438E-2	3.073665E-2	3.889333E-2	4.244396E-2	3.278139E-2	2.937716E-2	3.770767E-2	3.231887E-2	4.393768E-2	3.526363E-2	3.944346E-2	3.057018E-2	4.090099E-2	3.911005E-2	3.199299E-2	3.574323E-2	4.342522E-2	2.590578E-2	4.867152E-2	3.437878E-2	3.386475E-2	3.529649E-2	3.733928E-2	4.283650E-2	2.999848E-2	4.443168E-2	5.470388E-2	2.273800E-2	3.679779E-2	3.457813E-2	2.442949E-2	3.740133E-2	3.578395E-2	5.183148E-2	2.265141E-2	3.234655E-2	3.645621E-2	3.555190E-2	2.537693E-2	3.560474E-2	5.366104E-2	5.497312E-2	3.686804E-2	4.473139E-2	3.543472E-2	3.612774E-2	4.154284E-2	3.991977E-2	4.172463E-2	3.411204E-2	2.487182E-2	4.936836E-2	2.909644E-2	3.960248E-2	3.851900E-2	4.109124E-2	4.783424E-2	3.267763E-2	4.276136E-2	3.656757E-2	3.518127E-2	3.117870E-2	3.795416E-2	3.846132E-2	4.208987E-2	3.779820E-2	2.489177E-2	3.590432E-2	3.530136E-2	2.475589E-2	2.742394E-2	2.237698E-2	3.029924E-2	4.174230E-2	3.244792E-2	3.287251E-2	3.570713E-2	3.631203E-2	4.554562E-2	2.831656E-2	3.723049E-2	2.727620E-2	2.382327E-2	3.815574E-2	1.881427E-2	3.184656E-2
5.334630E+2	4.074339E-2	3.955565E-2	5.707253E-2	4.606086E-2	4.974380E-2	3.662753E-2	4.726033E-2	3.873965E-2	2.621944E-2	4.659102E-2	4.664723E-2	3.746401E-2	4.172750E-2	4.451493E-2	5.529305E-2	4.771584E-2	5.381731E-2	3.813070E-2	3.745346E-2	4.746221E-2	4.999159E-2	4.486013E-2	4.276800E-2	4.582446E-2	4.832302E-2	4.262739E-2	4.681606E-2	4.628970E-2	3.561654E-2	3.854250E-2	4.922390E-2	4.849944E-2	6.027567E-2	5.388880E-2	4.283990E-2	4.257446E-2	4.822135E-2	3.703011E-2	3.748947E-2	5.048378E-2	3.803837E-2	6.178471E-2	3.887642E-2	4.129066E-2	3.563605E-2	4.671691E-2	5.485401E-2	5.652933E-2	5.080002E-2	5.222045E-2	6.209938E-2	5.078147E-2	4.630940E-2	4.719228E-2	4.447889E-2	5.853635E-2	5.492555E-2	5.492830E-2	4.018412E-2	4.903053E-2	5.411274E-2	4.749119E-2	4.743876E-2	4.842865E-2	4.616955E-2	3.746745E-2	4.893420E-2	4.571713E-2	3.156184E-2	5.339307E-2	5.363419E-2	5.015919E-2	4.234839E-2	5.193032E-2	4.642930E-2	5.550899E-2	3.457422E-2	4.283861E-2	4.747725E-2	4.314095E-2	4.013015E-2	5.645544E-2	4.447746E-2	4.421934E-2	5.122908E-2	5.671171E-2	4.762396E-2	4.742745E-2	3.770445E-2	5.219291E-2	6.442493E-2	4.413993E-2	4.739563E-2	3.536846E-2	4.561665E-2	5.421584E-2	5.009754E-2	6.129792E-2	4.453941E-2	4.220180E-2	5.165026E-2	2.970734E-2	4.979431E-2	3.707107E-2	3.888065E-2	6.308876E-2	3.583875E-2	4.537739E-2	3.146581E-2	3.593255E-2	4.345979E-2	4.611342E-2	4.956960E-2	4.473167E-2	7.167121E-2	4.698325E-2	4.637865E-2	4.690501E-2	5.051352E-2	3.145522E-2	3.139509E-2	3.792608E-2	5.443337E-2	3.640270E-2	5.994562E-2	5.139667E-2	3.395161E-2	4.233688E-2	5.180594E-2	5.133920E-2	4.829715E-2	3.859659E-2	3.885315E-2	4.971872E-2	5.594146E-2	4.546788E-2	4.204632E-2	5.079459E-2	4.366909E-2	4.385448E-2	4.105713E-2	4.031864E-2	3.643977E-2	5.042407E-2	4.909630E-2	4.554790E-2	4.786340E-2	5.732578E-2	4.795584E-2	5.337966E-2	3.921256E-2	5.304551E-2	6.155598E-2	4.381717E-2	4.203787E-2	4.602730E-2	3.559037E-2	3.896840E-2	4.999776E-2	4.908300E-2	3.670737E-2	5.924396E-2	4.320513E-2	4.120247E-2	5.917806E-2	3.119505E-2	4.329293E-2	6.063194E-2	3.976302E-2	4.249675E-2	3.708054E-2	7.110382E-2
5.336080E+2	5.941542E-2	6.219337E-2	6.289570E-2	6.175867E-2	6.368417E-2	5.832626E-2	6.206724E-2	7.089992E-2	7.418935E-2	7.004133E-2	6.397361E-2	6.519540E-2	6.241996E-2	5.870074E-2	7.275562E-2	6.200549E-2	7.823366E-2	5.379591E-2	7.321503E-2	6.935608E-2	5.514079E-2	5.543448E-2	5.147573E-2	5.596905E-2	6.574146E-2	5.904251E-2	6.634878E-2	7.473795E-2	6.260905E-2	5.714930E-2	5.800146E-2	6.573028E-2	6.410545E-2	6.184641E-2	7.031204E-2	6.926209E-2	6.730040E-2	6.684704E-2	5.840094E-2	5.775720E-2	5.918132E-2	7.680043E-2	6.100091E-2	6.987441E-2	6.236963E-2	6.821429E-2	6.354315E-2	5.552337E-2	5.849265E-2	5.820694E-2	5.585673E-2	7.317111E-2	5.219288E-2	5.636304E-2	5.712349E-2	5.101931E-2	6.040785E-2	6.830059E-2	5.867291E-2	6.933053E-2	6.340739E-2	6.842665E-2	5.673166E-2	5.522096E-2	6.114638E-2	6.805026E-2	6.388769E-2	7.222878E-2	6.522628E-2	6.905211E-2	6.457330E-2	5.289218E-2	6.140974E-2	6.194259E-2	6.394968E-2	6.736679E-2	6.063192E-2	7.764095E-2	6.132684E-2	6.330055E-2	5.524501E-2	6.178379E-2	5.504653E-2	6.122849E-2	5.730436E-2	6.363264E-2	5.505950E-2	6.268314E-2	5.776251E-2	5.029635E-2	5.826972E-2	7.053754E-2	5.912419E-2	5.452420E-2	7.668482E-2	5.880633E-2	6.959587E-2	5.977172E-2	5.352800E-2	6.435509E-2	6.958306E-2	5.440684E-2	5.505507E-2	7.175082E-2	5.444295E-2	6.632482E-2	5.314099E-2	5.433154E-2	6.190363E-2	6.262092E-2	5.742418E-2	7.201851E-2	6.642878E-2	7.029047E-2	7.146147E-2	5.660111E-2	5.798211E-2	5.062998E-2	5.947961E-2	7.012090E-2	5.630631E-2	6.132293E-2	4.894168E-2	6.004591E-2	7.337863E-2	5.117272E-2	5.999316E-2	5.838419E-2	7.758713E-2	6.385286E-2	5.701021E-2	7.416854E-2	6.685587E-2	5.233321E-2	7.531579E-2	7.308330E-2	4.831768E-2	6.603400E-2	5.890309E-2	5.067846E-2	6.902055E-2	6.764402E-2	6.058526E-2	6.690175E-2	5.548323E-2	6.924157E-2	5.887212E-2	5.542338E-2	6.292987E-2	6.074517E-2	6.054243E-2	7.176417E-2	4.982484E-2	5.662327E-2	6.207457E-2	5.799654E-2	4.710253E-2	6.114412E-2	6.519181E-2	5.139497E-2	5.670251E-2	4.530982E-2	5.344491E-2	5.905040E-2	6.620596E-2	7.010720E-2	5.627169E-2	6.816902E-2	3.726860E-2	7.596854E-2	4.391155E-2	2.902735E-2
5.337580E+2	7.250990E-2	8.729144E-2	8.200928E-2	7.330060E-2	9.278004E-2	6.858973E-2	7.953243E-2	8.640559E-2	6.930686E-2	8.388759E-2	8.460042E-2	6.826811E-2	8.399658E-2	8.516869E-2	7.308568E-2	7.901917E-2	8.693313E-2	8.024806E-2	8.863923E-2	7.124717E-2	6.153299E-2	8.480639E-2	8.222883E-2	8.315498E-2	8.577409E-2	6.981228E-2	7.523396E-2	8.861890E-2	8.172237E-2	8.573525E-2	7.580303E-2	7.270900E-2	7.811922E-2	8.395081E-2	8.184705E-2	8.823647E-2	9.290557E-2	7.498610E-2	7.212465E-2	8.307681E-2	7.684235E-2	7.565016E-2	6.763206E-2	7.662578E-2	7.885059E-2	7.374989E-2	8.432261E-2	7.620996E-2	8.412805E-2	9.775058E-2	7.764315E-2	8.966245E-2	8.282489E-2	8.152702E-2	8.216096E-2	9.090232E-2	8.239170E-2	7.966098E-2	9.043576E-2	8.503177E-2	7.417941E-2	8.988666E-2	7.678372E-2	8.165285E-2	7.168467E-2	6.666952E-2	7.957129E-2	8.415755E-2	7.209006E-2	7.994126E-2	7.750715E-2	9.023708E-2	8.488042E-2	8.462814E-2	9.293718E-2	8.164559E-2	7.302502E-2	7.611106E-2	6.830499E-2	6.909394E-2	8.113872E-2	7.943974E-2	7.319234E-2	9.411307E-2	7.908529E-2	8.594436E-2	8.867357E-2	1.081869E-1	6.340085E-2	8.545336E-2	9.775833E-2	9.035429E-2	8.042569E-2	8.889907E-2	8.863632E-2	8.566807E-2	7.487792E-2	8.893995E-2	8.261702E-2	9.014017E-2	7.765937E-2	7.663871E-2	9.178904E-2	7.959177E-2	9.662424E-2	7.854417E-2	1.012915E-1	7.736688E-2	7.310537E-2	9.352477E-2	7.681957E-2	8.284905E-2	7.255447E-2	8.328434E-2	8.774700E-2	7.643117E-2	7.970094E-2	8.121689E-2	8.484999E-2	6.893295E-2	8.192282E-2	8.536669E-2	7.341967E-2	9.274934E-2	7.644178E-2	8.127216E-2	1.061123E-1	7.883682E-2	9.090680E-2	8.513088E-2	8.208919E-2	1.015897E-1	9.110676E-2	8.051786E-2	8.968785E-2	8.406930E-2	7.269429E-2	7.427739E-2	9.640879E-2	6.435661E-2	8.415913E-2	8.339097E-2	8.221828E-2	6.903826E-2	7.462997E-2	7.951636E-2	7.243284E-2	7.956450E-2	8.198651E-2	7.033382E-2	8.812689E-2	1.037861E-1	8.124259E-2	9.921762E-2	9.107777E-2	8.064960E-2	8.176106E-2	8.141778E-2	7.533149E-2	8.122076E-2	7.525433E-2	7.348310E-2	8.421220E-2	7.519197E-2	7.819393E-2	9.359186E-2	8.843789E-2	7.087397E-2	7.329665E-2	8.876837E-2	8.553236E-2	1.273907E-1
5.339090E+2	1.274104E-1	1.070517E-1	1.321851E-1	1.143536E-1	1.219647E-1	1.162924E-1	1.357596E-1	1.161609E-1	1.138944E-1	1.103156E-1	1.198838E-1	1.118663E-1	1.187335E-1	1.163327E-1	1.141092E-1	1.186366E-1	1.229057E-1	1.355700E-1	1.297188E-1	9.806133E-2	1.311499E-1	1.330268E-1	1.063993E-1	1.222617E-1	1.088822E-1	9.535572E-2	1.314849E-1	1.167007E-1	1.067402E-1	1.169322E-1	1.308731E-1	1.077910E-1	1.100205E-1	1.234119E-1	1.146060E-1	1.215863E-1	1.194853E-1	1.091444E-1	1.212614E-1	1.119883E-1	1.229097E-1	1.052067E-1	1.312621E-1	1.086484E-1	1.234497E-1	1.261617E-1	1.198151E-1	1.178993E-1	1.312942E-1	1.259146E-1	1.049238E-1	1.107385E-1	1.001177E-1	1.297356E-1	1.231173E-1	1.314089E-1	1.064467E-1	1.328726E-1	1.219818E-1	1.346038E-1	1.126846E-1	1.186579E-1	1.135324E-1	1.169398E-1	1.152839E-1	1.181566E-1	9.977295E-2	1.389392E-1	1.065773E-1	1.130206E-1	1.371945E-1	1.147715E-1	1.143408E-1	1.308455E-1	1.097021E-1	1.211009E-1	1.312472E-1	1.268460E-1	1.196926E-1	1.189798E-1	1.349580E-1	1.346239E-1	1.205032E-1	1.042985E-1	1.328566E-1	1.245209E-1	1.237297E-1	1.162461E-1	1.105108E-1	1.381015E-1	1.215594E-1	1.256106E-1	1.300299E-1	1.130549E-1	1.260103E-1	1.262219E-1	1.283358E-1	1.307079E-1	1.196826E-1	1.218670E-1	1.208821E-1	1.274244E-1	1.192287E-1	1.246554E-1	1.151070E-1	1.286008E-1	1.361072E-1	1.233498E-1	1.242391E-1	1.112911E-1	1.363809E-1	1.070891E-1	1.150663E-1	1.247026E-1	1.175425E-1	1.119913E-1	1.260567E-1	1.218608E-1	1.238433E-1	1.371263E-1	1.216842E-1	1.160413E-1	1.350795E-1	1.292411E-1	1.292459E-1	1.322824E-1	1.081763E-1	1.191788E-1	1.232126E-1	1.292996E-1	1.139981E-1	1.228787E-1	1.136617E-1	1.214631E-1	1.255563E-1	1.311043E-1	1.158073E-1	1.208560E-1	1.346182E-1	1.241641E-1	1.281539E-1	1.273473E-1	1.413933E-1	1.237755E-1	1.215711E-1	1.458531E-1	1.359363E-1	1.342753E-1	1.284113E-1	1.288051E-1	1.189314E-1	1.256909E-1	1.259088E-1	1.384431E-1	1.327252E-1	1.411684E-1	1.147258E-1	1.138240E-1	1.135877E-1	1.316404E-1	1.152681E-1	1.155286E-1	1.539138E-1	1.167722E-1	1.266454E-1	1.204079E-1	1.147977E-1	1.149160E-1	1.219439E-1	1.423601E-1	1.190299E-1	1.309919E-1
5.340690E+2	1.949886E-1	1.610029E-1	2.070047E-1	1.990882E-1	1.950303E-1	1.591905E-1	1.856195E-1	1.866370E-1	1.932209E-1	2.120639E-1	1.898694E-1	1.923380E-1	1.768179E-1	1.896251E-1	1.794389E-1	1.925761E-1	1.903642E-1	1.795384E-1	2.043188E-1	1.841654E-1	2.064942E-1	1.636971E-1	1.832014E-1	1.962239E-1	1.758231E-1	1.752229E-1	1.949971E-1	1.915451E-1	1.993428E-1	1.885167E-1	1.742547E-1	1.905766E-1	1.932526E-1	1.926886E-1	1.917774E-1	2.089044E-1	1.931825E-1	1.834295E-1	2.051157E-1	1.732470E-1	1.813550E-1	1.875446E-1	1.792096E-1	2.115014E-1	1.998197E-1	1.997703E-1	1.791713E-1	1.912609E-1	1.947005E-1	1.854538E-1	1.888412E-1	1.892076E-1	1.924087E-1	2.019967E-1	1.751196E-1	1.951276E-1	1.840007E-1	1.803414E-1	1.940946E-1	1.957280E-1	1.778443E-1	1.891422E-1	1.788646E-1	2.054535E-1	2.036715E-1	1.946008E-1	1.931148E-1	1.987361E-1	1.734391E-1	1.993197E-1	2.022743E-1	2.012628E-1	2.020038E-1	2.162516E-1	1.892444E-1	1.911229E-1	1.964888E-1	1.880127E-1	1.944400E-1	1.912143E-1	1.868902E-1	1.841842E-1	2.104248E-1	1.904306E-1	1.923239E-1	1.850326E-1	2.011148E-1	1.920405E-1	1.842648E-1	2.050918E-1	1.690757E-1	2.039760E-1	1.894759E-1	1.817236E-1	2.005569E-1	1.835206E-1	1.915082E-1	2.163538E-1	1.780457E-1	2.061559E-1	1.945236E-1	1.953293E-1	1.974520E-1	1.987262E-1	2.127432E-1	1.852318E-1	1.802874E-1	1.872128E-1	1.728586E-1	1.958621E-1	1.909863E-1	1.861775E-1	1.899791E-1	1.795732E-1	1.997665E-1	2.083871E-1	1.862516E-1	1.992312E-1	2.066182E-1	1.964460E-1	1.988756E-1	1.958049E-1	1.840290E-1	2.022869E-1	1.811138E-1	2.088084E-1	1.902815E-1	1.893212E-1	2.003283E-1	1.746334E-1	1.884362E-1	1.749750E-1	1.825844E-1	1.978323E-1	2.111424E-1	1.770122E-1	1.937618E-1	1.897591E-1	2.031512E-1	1.896852E-1	1.860145E-1	1.960406E-1	1.916327E-1	1.965252E-1	1.862903E-1	1.973283E-1	1.848242E-1	2.111165E-1	1.971252E-1	1.983415E-1	2.096699E-1	2.153885E-1	2.056625E-1	1.866857E-1	1.822504E-1	2.043621E-1	2.013909E-1	1.788436E-1	2.079539E-1	1.869686E-1	1.764576E-1	1.914000E-1	1.913860E-1	1.798908E-1	1.925257E-1	2.231866E-1	1.978878E-1	1.993909E-1	1.943397E-1	2.098064E-1	2.192129E-1	1.939243E-1
5.342040E+2	3.197506E-1	3.107187E-1	3.160513E-1	2.894566E-1	3.101224E-1	2.995467E-1	3.033558E-1	3.128509E-1	3.137686E-1	2.966715E-1	3.173763E-1	3.063128E-1	3.139876E-1	3.221239E-1	2.989236E-1	2.974506E-1	3.068803E-1	3.063235E-1	3.131053E-1	3.151357E-1	3.063785E-1	3.197071E-1	3.172033E-1	3.185444E-1	3.016104E-1	3.204146E-1	3.105549E-1	3.099779E-1	3.068029E-1	3.187797E-1	3.034138E-1	3.123312E-1	3.234473E-1	3.155805E-1	3.380683E-1	2.872056E-1	3.247098E-1	3.345864E-1	3.204661E-1	3.328982E-1	3.135200E-1	3.290580E-1	3.086962E-1	2.926043E-1	3.081145E-1	3.283597E-1	3.041218E-1	3.056738E-1	3.259826E-1	3.143795E-1	3.165407E-1	3.066688E-1	2.886559E-1	3.152767E-1	3.175410E-1	3.372136E-1	3.047878E-1	3.196469E-1	3.000778E-1	3.131158E-1	2.985784E-1	3.270878E-1	3.044725E-1	3.053759E-1	3.239023E-1	3.198482E-1	3.083849E-1	3.129656E-1	2.986471E-1	3.127157E-1	3.147673E-1	3.305113E-1	3.234268E-1	3.265431E-1	3.335330E-1	2.866210E-1	2.994395E-1	2.924062E-1	3.060556E-1	3.201545E-1	3.255484E-1	2.917963E-1	3.197696E-1	3.009961E-1	2.804677E-1	3.151249E-1	3.070803E-1	3.127113E-1	2.920183E-1	2.765673E-1	2.993630E-1	2.991865E-1	3.399977E-1	3.095632E-1	3.153495E-1	3.077537E-1	3.016055E-1	3.335027E-1	2.971489E-1	3.386196E-1	3.203103E-1	3.124742E-1	3.209423E-1	3.048683E-1	3.176866E-1	3.072386E-1	3.323024E-1	3.171900E-1	3.137744E-1	3.215680E-1	3.080150E-1	3.106939E-1	3.004228E-1	2.997531E-1	3.217184E-1	2.982879E-1	3.125165E-1	2.935560E-1	3.357553E-1	3.268609E-1	3.121823E-1	3.108770E-1	3.385178E-1	2.913584E-1	3.361112E-1	3.074745E-1	3.250677E-1	3.249301E-1	3.220432E-1	3.168927E-1	3.183334E-1	3.387950E-1	3.010103E-1	2.964233E-1	3.226448E-1	3.286031E-1	2.884620E-1	3.225078E-1	3.147122E-1	3.073557E-1	3.154079E-1	2.996247E-1	3.224114E-1	3.014695E-1	2.914998E-1	3.252711E-1	3.148425E-1	3.040846E-1	3.266007E-1	3.201042E-1	3.194740E-1	3.200973E-1	3.105603E-1	3.392579E-1	3.025480E-1	3.052987E-1	3.129732E-1	2.926452E-1	3.056032E-1	3.103896E-1	3.106854E-1	3.144049E-1	3.288694E-1	3.050626E-1	3.032011E-1	3.320531E-1	3.288665E-1	3.309368E-1	3.014025E-1	3.103842E-1	2.893104E-1	2.968636E-1
5.343600E+2	5.551519E-1	5.445825E-1	5.503949E-1	5.353702E-1	5.168740E-1	5.258758E-1	5.658317E-1	5.641287E-1	5.409674E-1	5.729732E-1	5.538777E-1	5.500378E-1	5.221128E-1	5.551595E-1	5.193559E-1	5.305533E-1	5.416737E-1	5.206418E-1	5.756133E-1	5.444070E-1	5.383590E-1	5.636730E-1	5.611921E-1	5.759314E-1	5.219604E-1	5.446648E-1	5.280796E-1	5.808837E-1	5.757275E-1	5.440208E-1	5.449998E-1	5.478131E-1	5.508257E-1	5.233659E-1	5.269399E-1	5.727119E-1	5.461586E-1	5.457338E-1	5.450862E-1	5.456689E-1	5.650351E-1	5.490699E-1	5.259338E-1	5.322796E-1	5.508405E-1	5.653969E-1	5.212365E-1	5.747316E-1	5.347269E-1	5.716217E-1	5.559325E-1	5.500533E-1	5.342606E-1	5.484221E-1	5.769813E-1	5.362017E-1	5.557268E-1	5.504570E-1	5.500033E-1	5.840215E-1	5.926476E-1	5.474701E-1	5.708243E-1	5.780417E-1	5.583292E-1	5.342708E-1	5.646428E-1	5.475210E-1	5.691866E-1	5.686942E-1	5.841334E-1	5.590592E-1	5.256836E-1	5.468226E-1	5.639023E-1	5.552688E-1	5.760708E-1	5.357916E-1	5.628327E-1	5.385386E-1	5.494429E-1	5.607067E-1	5.695536E-1	5.531437E-1	5.626822E-1	5.486521E-1	5.689151E-1	5.614545E-1	5.450619E-1	5.366819E-1	5.917739E-1	5.623658E-1	5.337356E-1	5.564785E-1	5.676981E-1	5.770983E-1	5.783462E-1	5.523128E-1	5.608706E-1	5.436784E-1	5.658342E-1	5.174814E-1	5.806978E-1	5.537657E-1	5.587971E-1	5.462874E-1	5.836169E-1	5.633123E-1	5.559069E-1	5.165161E-1	5.473275E-1	5.395017E-1	5.447902E-1	5.529860E-1	5.888072E-1	5.616142E-1	5.386271E-1	5.311648E-1	5.775427E-1	5.500006E-1	5.521445E-1	5.178518E-1	5.783970E-1	5.603362E-1	5.438666E-1	5.558257E-1	5.935601E-1	5.466454E-1	5.465818E-1	5.384064E-1	5.964815E-1	5.490985E-1	5.690666E-1	5.692279E-1	5.685903E-1	5.575069E-1	5.579847E-1	5.742787E-1	5.570268E-1	5.568490E-1	5.631126E-1	5.440340E-1	5.796026E-1	5.210007E-1	5.321077E-1	5.508852E-1	5.612156E-1	5.620425E-1	5.971593E-1	5.818880E-1	6.137170E-1	5.485844E-1	5.556000E-1	5.437554E-1	5.517795E-1	5.828468E-1	5.619311E-1	5.695745E-1	5.722893E-1	5.313545E-1	5.313298E-1	5.633515E-1	5.292471E-1	5.123542E-1	5.488007E-1	5.467203E-1	5.602096E-1	5.588055E-1	5.344477E-1	5.414965E-1	5.795504E-1	5.457011E-1
5.345160E+2	9.569267E-1	8.693639E-1	9.444758E-1	9.248703E-1	9.019901E-1	8.963901E-1	9.626881E-1	8.738502E-1	8.808256E-1	9.738324E-1	9.421185E-1	9.178108E-1	9.042842E-1	9.339534E-1	9.255798E-1	9.312398E-1	9.257422E-1	8.924955E-1	9.060909E-1	9.208585E-1	9.426771E-1	9.142348E-1	9.587673E-1	9.350182E-1	8.738134E-1	9.168629E-1	8.349593E-1	9.565788E-1	9.543486E-1	9.528897E-1	9.232080E-1	9.439075E-1	9.045261E-1	9.395666E-1	9.375618E-1	8.811304E-1	9.230013E-1	9.153049E-1	9.109456E-1	9.005032E-1	9.245048E-1	8.780922E-1	9.056523E-1	9.120964E-1	9.217479E-1	9.254764E-1	9.042914E-1	9.367418E-1	8.506283E-1	9.358235E-1	9.170476E-1	9.432021E-1	9.119486E-1	9.169931E-1	9.184327E-1	9.563796E-1	9.175117E-1	9.093519E-1	9.412411E-1	9.519843E-1	9.158402E-1	8.962614E-1	9.066749E-1	9.246107E-1	8.755345E-1	8.659169E-1	9.623479E-1	9.352801E-1	8.887283E-1	9.131261E-1	9.522413E-1	9.017938E-1	8.865944E-1	9.293068E-1	9.205997E-1	9.417851E-1	9.017895E-1	8.945111E-1	9.201920E-1	8.931070E-1	9.245527E-1	9.076333E-1	9.455964E-1	9.148544E-1	9.049458E-1	9.367981E-1	9.611722E-1	9.611891E-1	8.997842E-1	8.662961E-1	9.624036E-1	9.273885E-1	9.284444E-1	8.796921E-1	9.277900E-1	9.149116E-1	9.296796E-1	9.098826E-1	9.283433E-1	9.414700E-1	9.496661E-1	9.492976E-1	9.106492E-1	9.100197E-1	8.952297E-1	9.434079E-1	9.134728E-1	9.057940E-1	9.178681E-1	9.106711E-1	8.752951E-1	9.173734E-1	9.133649E-1	8.937960E-1	9.355948E-1	9.599737E-1	8.900338E-1	8.753659E-1	9.513068E-1	9.163606E-1	8.749273E-1	8.889887E-1	9.477006E-1	9.221232E-1	8.805567E-1	9.483113E-1	9.097752E-1	9.149639E-1	8.764314E-1	9.120275E-1	9.024153E-1	9.244349E-1	9.449958E-1	9.293026E-1	9.382469E-1	8.874916E-1	8.886997E-1	9.209265E-1	9.107289E-1	9.169892E-1	9.351790E-1	9.182519E-1	9.258928E-1	9.349611E-1	9.370873E-1	9.086217E-1	9.605544E-1	8.952452E-1	9.060354E-1	9.804274E-1	9.387030E-1	9.163371E-1	9.002591E-1	9.113306E-1	9.766042E-1	9.755372E-1	9.088015E-1	9.011909E-1	8.868618E-1	9.373706E-1	9.275119E-1	9.139991E-1	9.150666E-1	9.614138E-1	9.409148E-1	9.300209E-1	9.496740E-1	9.461749E-1	8.223099E-1	9.156361E-1	9.177281E-1	9.357404E-1
5.346560E+2	1.307977E+0	1.312216E+0	1.371807E+0	1.346440E+0	1.289301E+0	1.276882E+0	1.293926E+0	1.359569E+0	1.286741E+0	1.340344E+0	1.351388E+0	1.387174E+0	1.350695E+0	1.281312E+0	1.328604E+0	1.316549E+0	1.338040E+0	1.270611E+0	1.360355E+0	1.300768E+0	1.306426E+0	1.296795E+0	1.366513E+0	1.302235E+0	1.227912E+0	1.324285E+0	1.293493E+0	1.325943E+0	1.305404E+0	1.290847E+0	1.291874E+0	1.329713E+0	1.355448E+0	1.294331E+0	1.322986E+0	1.323824E+0	1.361726E+0	1.308735E+0	1.337688E+0	1.272841E+0	1.235433E+0	1.281873E+0	1.285929E+0	1.326406E+0	1.315190E+0	1.310470E+0	1.311845E+0	1.297239E+0	1.291722E+0	1.346731E+0	1.292446E+0	1.279095E+0	1.323756E+0	1.316360E+0	1.324725E+0	1.293378E+0	1.288579E+0	1.286269E+0	1.313173E+0	1.353009E+0	1.296094E+0	1.303248E+0	1.300460E+0	1.300560E+0	1.280293E+0	1.268565E+0	1.309521E+0	1.311974E+0	1.283877E+0	1.287723E+0	1.306663E+0	1.310112E+0	1.281849E+0	1.282811E+0	1.326777E+0	1.367296E+0	1.320711E+0	1.306601E+0	1.347583E+0	1.338217E+0	1.311674E+0	1.324543E+0	1.296505E+0	1.276402E+0	1.279082E+0	1.303539E+0	1.368907E+0	1.294632E+0	1.320408E+0	1.300071E+0	1.383837E+0	1.339837E+0	1.340974E+0	1.308960E+0	1.299495E+0	1.326151E+0	1.327486E+0	1.326987E+0	1.304256E+0	1.316943E+0	1.271742E+0	1.278919E+0	1.343104E+0	1.281226E+0	1.268293E+0	1.344744E+0	1.382304E+0	1.281873E+0	1.263014E+0	1.258544E+0	1.293161E+0	1.318574E+0	1.334328E+0	1.265700E+0	1.355477E+0	1.299203E+0	1.325746E+0	1.312801E+0	1.339068E+0	1.279977E+0	1.303584E+0	1.275225E+0	1.382008E+0	1.312209E+0	1.262836E+0	1.334537E+0	1.340856E+0	1.300437E+0	1.278742E+0	1.266701E+0	1.297968E+0	1.305807E+0	1.245908E+0	1.293524E+0	1.350296E+0	1.320016E+0	1.284328E+0	1.293499E+0	1.277408E+0	1.296739E+0	1.341384E+0	1.268756E+0	1.282869E+0	1.312943E+0	1.297037E+0	1.283096E+0	1.260100E+0	1.261884E+0	1.316420E+0	1.294056E+0	1.357278E+0	1.298072E+0	1.301100E+0	1.277514E+0	1.283928E+0	1.298456E+0	1.252349E+0	1.281134E+0	1.331948E+0	1.358464E+0	1.301557E+0	1.307043E+0	1.308380E+0	1.303536E+0	1.279265E+0	1.251050E+0	1.327278E+0	1.312772E+0	1.251059E+0	1.256812E+0	1.336799E+0	1.243169E+0
5.348120E+2	1.712513E+0	1.668697E+0	1.702620E+0	1.727600E+0	1.648488E+0	1.629152E+0	1.661330E+0	1.712613E+0	1.641505E+0	1.719584E+0	1.656008E+0	1.743125E+0	1.671123E+0	1.686283E+0	1.665182E+0	1.713559E+0	1.715270E+0	1.682041E+0	1.704163E+0	1.705475E+0	1.698368E+0	1.690929E+0	1.748700E+0	1.714695E+0	1.645473E+0	1.676150E+0	1.674638E+0	1.692789E+0	1.683058E+0	1.706342E+0	1.648025E+0	1.656419E+0	1.718031E+0	1.635306E+0	1.660687E+0	1.699462E+0	1.659794E+0	1.668124E+0	1.702199E+0	1.644674E+0	1.618789E+0	1.617005E+0	1.714529E+0	1.689773E+0	1.755645E+0	1.679955E+0	1.707476E+0	1.668322E+0	1.597817E+0	1.648206E+0	1.711550E+0	1.725527E+0	1.646489E+0	1.661694E+0	1.696535E+0	1.663254E+0	1.733747E+0	1.656026E+0	1.697573E+0	1.733564E+0	1.679755E+0	1.639082E+0	1.692853E+0	1.598502E+0	1.700339E+0	1.654555E+0	1.656724E+0	1.671230E+0	1.631171E+0	1.666318E+0	1.687765E+0	1.708757E+0	1.629250E+0	1.618188E+0	1.704393E+0	1.709229E+0	1.674268E+0	1.658627E+0	1.679722E+0	1.663952E+0	1.624460E+0	1.634575E+0	1.676992E+0	1.632204E+0	1.719276E+0	1.691178E+0	1.719454E+0	1.689322E+0	1.640566E+0	1.691177E+0	1.668036E+0	1.696806E+0	1.716892E+0	1.649124E+0	1.672441E+0	1.685523E+0	1.707579E+0	1.723416E+0	1.657322E+0	1.678334E+0	1.689347E+0	1.626011E+0	1.697246E+0	1.682688E+0	1.701134E+0	1.700403E+0	1.656277E+0	1.605316E+0	1.645903E+0	1.645252E+0	1.636831E+0	1.670976E+0	1.667198E+0	1.650170E+0	1.679673E+0	1.700885E+0	1.711437E+0	1.606890E+0	1.673434E+0	1.712863E+0	1.675024E+0	1.618244E+0	1.691138E+0	1.726431E+0	1.589464E+0	1.649597E+0	1.705168E+0	1.672351E+0	1.646455E+0	1.681884E+0	1.739152E+0	1.612310E+0	1.641143E+0	1.691886E+0	1.736529E+0	1.621107E+0	1.598664E+0	1.666943E+0	1.636212E+0	1.660460E+0	1.667608E+0	1.616985E+0	1.646973E+0	1.642295E+0	1.655027E+0	1.634468E+0	1.688405E+0	1.625072E+0	1.673890E+0	1.622524E+0	1.687444E+0	1.730270E+0	1.634915E+0	1.635145E+0	1.635611E+0	1.636801E+0	1.648575E+0	1.650321E+0	1.615560E+0	1.689314E+0	1.682331E+0	1.602029E+0	1.691291E+0	1.711196E+0	1.605256E+0	1.616624E+0	1.717429E+0	1.637787E+0	1.589238E+0	1.567411E+0	1.561652E+0	1.699872E+0
5.349580E+2	2.085347E+0	1.953278E+0	1.984743E+0	1.951108E+0	1.958291E+0	1.966153E+0	1.941391E+0	2.073368E+0	1.896049E+0	2.016498E+0	1.986588E+0	2.039654E+0	1.983257E+0	2.002589E+0	1.949050E+0	1.946799E+0	1.972976E+0	1.906584E+0	1.942205E+0	2.046163E+0	1.984316E+0	1.946205E+0	2.025603E+0	1.992709E+0	1.901452E+0	1.973926E+0	1.954692E+0	1.941475E+0	1.988155E+0	1.969891E+0	1.969131E+0	1.975323E+0	1.951884E+0	1.975587E+0	1.955059E+0	2.016088E+0	2.005042E+0	2.007469E+0	1.988317E+0	1.936154E+0	1.884253E+0	1.893364E+0	1.973309E+0	1.993389E+0	1.969438E+0	1.913177E+0	1.949700E+0	1.928037E+0	1.939873E+0	1.987959E+0	1.950657E+0	1.965361E+0	1.954319E+0	1.931083E+0	1.934229E+0	2.017223E+0	1.935344E+0	1.950702E+0	1.985550E+0	2.073014E+0	1.939334E+0	1.929974E+0	1.984971E+0	1.940715E+0	2.018681E+0	1.864692E+0	1.966079E+0	1.956322E+0	1.946484E+0	1.975370E+0	1.993817E+0	2.033359E+0	1.877134E+0	1.955662E+0	1.933543E+0	2.001169E+0	1.922626E+0	1.921680E+0	1.968070E+0	1.989564E+0	1.954344E+0	1.872464E+0	1.936039E+0	1.926697E+0	1.975188E+0	1.982930E+0	1.973986E+0	1.970820E+0	1.976622E+0	1.898946E+0	1.921584E+0	1.933256E+0	1.941730E+0	1.909954E+0	1.936453E+0	1.942158E+0	1.966021E+0	1.916806E+0	1.936814E+0	1.953054E+0	1.964057E+0	1.915298E+0	1.981642E+0	1.975518E+0	1.914186E+0	1.948501E+0	1.959899E+0	1.887735E+0	1.953144E+0	1.881288E+0	1.972879E+0	1.944879E+0	1.891495E+0	1.896787E+0	1.999641E+0	1.879937E+0	1.930931E+0	1.869702E+0	2.013347E+0	1.883004E+0	1.908542E+0	1.905434E+0	1.991088E+0	1.970149E+0	1.887017E+0	1.932410E+0	1.917833E+0	1.864562E+0	1.933811E+0	1.874160E+0	1.898762E+0	1.983522E+0	1.875437E+0	1.922535E+0	1.967116E+0	1.907811E+0	1.795460E+0	1.922022E+0	1.941866E+0	1.866275E+0	1.905912E+0	1.835043E+0	1.925203E+0	1.953942E+0	1.926199E+0	1.894504E+0	2.004043E+0	1.922746E+0	1.931037E+0	1.901810E+0	1.935953E+0	1.913463E+0	1.873323E+0	1.902304E+0	1.936238E+0	1.964094E+0	1.925771E+0	1.909883E+0	1.879135E+0	1.985424E+0	1.839290E+0	1.921588E+0	1.850840E+0	1.990011E+0	1.867263E+0	1.902861E+0	1.975391E+0	1.919954E+0	1.897498E+0	1.842857E+0	1.952147E+0	1.931287E+0
5.351090E+2	2.121982E+0	2.065976E+0	2.047239E+0	2.044301E+0	2.029884E+0	2.000001E+0	2.101471E+0	2.092027E+0	2.033934E+0	2.105874E+0	2.071822E+0	2.139072E+0	2.121222E+0	2.053630E+0	2.026461E+0	2.074879E+0	2.077551E+0	2.046109E+0	2.018292E+0	2.055395E+0	2.014617E+0	1.984048E+0	2.094106E+0	2.088277E+0	2.020894E+0	2.013471E+0	2.039393E+0	2.067343E+0	2.072843E+0	2.001955E+0	2.069975E+0	2.075333E+0	2.059286E+0	2.033555E+0	2.003176E+0	2.037994E+0	2.072666E+0	2.027881E+0	2.028307E+0	2.009234E+0	2.044820E+0	1.970996E+0	1.992650E+0	1.995507E+0	2.031477E+0	2.087977E+0	2.112378E+0	2.088545E+0	1.988459E+0	2.077757E+0	2.055459E+0	2.089185E+0	1.919856E+0	1.996643E+0	2.005150E+0	2.091785E+0	2.028124E+0	2.009827E+0	1.970357E+0	2.081043E+0	1.994885E+0	1.970909E+0	2.059503E+0	2.032781E+0	2.012944E+0	1.977674E+0	1.998650E+0	2.056900E+0	2.064874E+0	1.995657E+0	1.997187E+0	2.080593E+0	2.042036E+0	1.984976E+0	1.987219E+0	2.133798E+0	2.004823E+0	2.048568E+0	2.023421E+0	2.007116E+0	2.020420E+0	1.987378E+0	2.043418E+0	2.068920E+0	2.012044E+0	2.060074E+0	2.023798E+0	2.007555E+0	2.059823E+0	2.006961E+0	2.063154E+0	2.077605E+0	2.046745E+0	1.971024E+0	2.005196E+0	1.949620E+0	2.043829E+0	2.073177E+0	1.952263E+0	2.036428E+0	1.954748E+0	2.014583E+0	2.045459E+0	2.054982E+0	2.031651E+0	2.060941E+0	2.124640E+0	2.075962E+0	2.026027E+0	2.055060E+0	2.099282E+0	2.073034E+0	2.052063E+0	2.031770E+0	2.048116E+0	2.050362E+0	2.076386E+0	2.030292E+0	2.091937E+0	2.069992E+0	1.981739E+0	2.019146E+0	2.174162E+0	2.133353E+0	2.027550E+0	2.021827E+0	2.013670E+0	1.996917E+0	2.134995E+0	2.078011E+0	2.060377E+0	2.105278E+0	2.067356E+0	2.076631E+0	2.155949E+0	2.026338E+0	1.944634E+0	2.054580E+0	2.048301E+0	2.045064E+0	2.086569E+0	1.951510E+0	2.031797E+0	2.059964E+0	1.986226E+0	2.015920E+0	1.995519E+0	2.072927E+0	2.019015E+0	2.114939E+0	2.140254E+0	2.008251E+0	1.954419E+0	2.071051E+0	2.098964E+0	2.046598E+0	1.969766E+0	2.005332E+0	1.990536E+0	2.051896E+0	2.013289E+0	2.034732E+0	2.065789E+0	2.089986E+0	1.950674E+0	2.014788E+0	2.056392E+0	2.049507E+0	1.979480E+0	1.938020E+0	2.011412E+0	1.854046E+0
5.352600E+2	2.009343E+0	1.945046E+0	2.019057E+0	2.021075E+0	1.862538E+0	1.989677E+0	1.995536E+0	2.045752E+0	1.955711E+0	1.969555E+0	1.901590E+0	2.040574E+0	1.934102E+0	1.949076E+0	1.914793E+0	1.939258E+0	1.921186E+0	1.909775E+0	1.949986E+0	1.946923E+0	1.951004E+0	1.910991E+0	1.926755E+0	1.960130E+0	1.951652E+0	1.963690E+0	1.998484E+0	1.971028E+0	1.911212E+0	1.961401E+0	1.963578E+0	1.996486E+0	1.994583E+0	1.925482E+0	1.906290E+0	1.939009E+0	1.974581E+0	1.939893E+0	1.935992E+0	1.904369E+0	1.951426E+0	1.928998E+0	1.927236E+0	1.923100E+0	1.975433E+0	1.992450E+0	2.002081E+0	1.979743E+0	1.904441E+0	1.943993E+0	1.998637E+0	2.021118E+0	1.903502E+0	1.960299E+0	1.864937E+0	2.026429E+0	1.921038E+0	1.920685E+0	1.916316E+0	1.973495E+0	1.913694E+0	1.976048E+0	1.937948E+0	1.946715E+0	1.944965E+0	1.866046E+0	1.955980E+0	1.922811E+0	1.915950E+0	1.915471E+0	1.943997E+0	1.918060E+0	1.881838E+0	1.898791E+0	1.889706E+0	1.975810E+0	1.923912E+0	1.867136E+0	1.913204E+0	1.929080E+0	1.972992E+0	1.929896E+0	1.943027E+0	1.859950E+0	1.940216E+0	1.960305E+0	1.889234E+0	1.985443E+0	1.910699E+0	1.930221E+0	1.897210E+0	1.976536E+0	1.951066E+0	1.861541E+0	1.911181E+0	1.909626E+0	1.979339E+0	1.870680E+0	1.881278E+0	1.893285E+0	1.911582E+0	1.877794E+0	1.918477E+0	1.939986E+0	1.889854E+0	1.937582E+0	1.986413E+0	1.941720E+0	1.893393E+0	1.881270E+0	1.963341E+0	1.934729E+0	1.940747E+0	1.990474E+0	1.918261E+0	1.949682E+0	1.949114E+0	1.884964E+0	1.920894E+0	1.870564E+0	1.918681E+0	1.865167E+0	1.917897E+0	1.931913E+0	1.892312E+0	1.917302E+0	2.004105E+0	1.962971E+0	1.890756E+0	1.915307E+0	1.853296E+0	1.961677E+0	1.852747E+0	1.941704E+0	1.937371E+0	1.925403E+0	1.837350E+0	1.863553E+0	1.956064E+0	1.952846E+0	1.875800E+0	1.892460E+0	1.856557E+0	1.823731E+0	1.863292E+0	1.919902E+0	1.887068E+0	1.918928E+0	1.868471E+0	1.909371E+0	1.922271E+0	1.930718E+0	1.835779E+0	1.917465E+0	1.915903E+0	1.909604E+0	1.898220E+0	1.870616E+0	1.895386E+0	1.976546E+0	1.870653E+0	1.801028E+0	1.890428E+0	1.896708E+0	1.851026E+0	1.846745E+0	1.914266E+0	1.910857E+0	1.790857E+0	1.867218E+0	1.878113E+0	1.954023E+0
5.354010E+2	1.716733E+0	1.757732E+0	1.737329E+0	1.722546E+0	1.693641E+0	1.708185E+0	1.731425E+0	1.744914E+0	1.723148E+0	1.809526E+0	1.720812E+0	1.792039E+0	1.694750E+0	1.661309E+0	1.699036E+0	1.722622E+0	1.764604E+0	1.667805E+0	1.756953E+0	1.701190E+0	1.689007E+0	1.673233E+0	1.733990E+0	1.698054E+0	1.698728E+0	1.732720E+0	1.719493E+0	1.748242E+0	1.746949E+0	1.710171E+0	1.666322E+0	1.720614E+0	1.709992E+0	1.745924E+0	1.705661E+0	1.686342E+0	1.729681E+0	1.731922E+0	1.744641E+0	1.722721E+0	1.693455E+0	1.692528E+0	1.652337E+0	1.714635E+0	1.751007E+0	1.745098E+0	1.738440E+0	1.708244E+0	1.757429E+0	1.690494E+0	1.701225E+0	1.702420E+0	1.678898E+0	1.736382E+0	1.690750E+0	1.722233E+0	1.699344E+0	1.720491E+0	1.781296E+0	1.738739E+0	1.635832E+0	1.683434E+0	1.736967E+0	1.680295E+0	1.695684E+0	1.650849E+0	1.735641E+0	1.697345E+0	1.726127E+0	1.730527E+0	1.723163E+0	1.706396E+0	1.674798E+0	1.722933E+0	1.720056E+0	1.786202E+0	1.695810E+0	1.718513E+0	1.669192E+0	1.703453E+0	1.768417E+0	1.704650E+0	1.693948E+0	1.693757E+0	1.723298E+0	1.703996E+0	1.739439E+0	1.752481E+0	1.689108E+0	1.672806E+0	1.734912E+0	1.716072E+0	1.768440E+0	1.662780E+0	1.749833E+0	1.726060E+0	1.731227E+0	1.708803E+0	1.642341E+0	1.663448E+0	1.671547E+0	1.722043E+0	1.735885E+0	1.747574E+0	1.697807E+0	1.727945E+0	1.712553E+0	1.699551E+0	1.732028E+0	1.696086E+0	1.708368E+0	1.714280E+0	1.658489E+0	1.677223E+0	1.701553E+0	1.670276E+0	1.734308E+0	1.719170E+0	1.706861E+0	1.717868E+0	1.772728E+0	1.676267E+0	1.752675E+0	1.713451E+0	1.611825E+0	1.745882E+0	1.682940E+0	1.680867E+0	1.671768E+0	1.732440E+0	1.692312E+0	1.767017E+0	1.680770E+0	1.702595E+0	1.754983E+0	1.686081E+0	1.615315E+0	1.677069E+0	1.668557E+0	1.662232E+0	1.641570E+0	1.624030E+0	1.652453E+0	1.693693E+0	1.683892E+0	1.719181E+0	1.706715E+0	1.678340E+0	1.687321E+0	1.710291E+0	1.692761E+0	1.764275E+0	1.633690E+0	1.731786E+0	1.674266E+0	1.660094E+0	1.649828E+0	1.636534E+0	1.636455E+0	1.738298E+0	1.695593E+0	1.684157E+0	1.702218E+0	1.727331E+0	1.717156E+0	1.656528E+0	1.683900E+0	1.721813E+0	1.607063E+0	1.678937E+0	1.567303E+0	1.599172E+0
5.355580E+2	1.530214E+0	1.487156E+0	1.508601E+0	1.509820E+0	1.484707E+0	1.452894E+0	1.441434E+0	1.473014E+0	1.467533E+0	1.451544E+0	1.458352E+0	1.527543E+0	1.433373E+0	1.468050E+0	1.423309E+0	1.523445E+0	1.443880E+0	1.379540E+0	1.443705E+0	1.522869E+0	1.424281E+0	1.417587E+0	1.479623E+0	1.489092E+0	1.455976E+0	1.499506E+0	1.511138E+0	1.526194E+0	1.486057E+0	1.451445E+0	1.432733E+0	1.457550E+0	1.501521E+0	1.460790E+0	1.486422E+0	1.446103E+0	1.461202E+0	1.435682E+0	1.499824E+0	1.434177E+0	1.442878E+0	1.432701E+0	1.512924E+0	1.384421E+0	1.480928E+0	1.480122E+0	1.446349E+0	1.483154E+0	1.462149E+0	1.455313E+0	1.476876E+0	1.459418E+0	1.435447E+0	1.427655E+0	1.438669E+0	1.492942E+0	1.459748E+0	1.445134E+0	1.450505E+0	1.540205E+0	1.482477E+0	1.454466E+0	1.493372E+0	1.468172E+0	1.468523E+0	1.403968E+0	1.495861E+0	1.466284E+0	1.485614E+0	1.462753E+0	1.461245E+0	1.474297E+0	1.431473E+0	1.403034E+0	1.501490E+0	1.531274E+0	1.493733E+0	1.444439E+0	1.473731E+0	1.433147E+0	1.478230E+0	1.447346E+0	1.499038E+0	1.463337E+0	1.465716E+0	1.458728E+0	1.495056E+0	1.487504E+0	1.447642E+0	1.472111E+0	1.488628E+0	1.480728E+0	1.503928E+0	1.456424E+0	1.514559E+0	1.508186E+0	1.472244E+0	1.459695E+0	1.449766E+0	1.511217E+0	1.461630E+0	1.432843E+0	1.542484E+0	1.477031E+0	1.444476E+0	1.513004E+0	1.523256E+0	1.400000E+0	1.446493E+0	1.468197E+0	1.449933E+0	1.468103E+0	1.470709E+0	1.416650E+0	1.457130E+0	1.414666E+0	1.454964E+0	1.469527E+0	1.465601E+0	1.414166E+0	1.397043E+0	1.464679E+0	1.510972E+0	1.500942E+0	1.401921E+0	1.437601E+0	1.487638E+0	1.464081E+0	1.457699E+0	1.484926E+0	1.469824E+0	1.584506E+0	1.473034E+0	1.504897E+0	1.500202E+0	1.415263E+0	1.458566E+0	1.413867E+0	1.449992E+0	1.523225E+0	1.470789E+0	1.430753E+0	1.453507E+0	1.476676E+0	1.429765E+0	1.467913E+0	1.442955E+0	1.468964E+0	1.469965E+0	1.508354E+0	1.492060E+0	1.489320E+0	1.437165E+0	1.427787E+0	1.497154E+0	1.507344E+0	1.423153E+0	1.439237E+0	1.385918E+0	1.453888E+0	1.435204E+0	1.412032E+0	1.445552E+0	1.482837E+0	1.445822E+0	1.395998E+0	1.492680E+0	1.454890E+0	1.384433E+0	1.499871E+0	1.473361E+0	1.490372E+0
5.357090E+2	1.287070E+0	1.273093E+0	1.278350E+0	1.324073E+0	1.253404E+0	1.269142E+0	1.236847E+0	1.258945E+0	1.237497E+0	1.271221E+0	1.266766E+0	1.278224E+0	1.239931E+0	1.273403E+0	1.257870E+0	1.243309E+0	1.251781E+0	1.193996E+0	1.195621E+0	1.223278E+0	1.230632E+0	1.208818E+0	1.249530E+0	1.285634E+0	1.229458E+0	1.282320E+0	1.272385E+0	1.268867E+0	1.261007E+0	1.254171E+0	1.214914E+0	1.279200E+0	1.278396E+0	1.297614E+0	1.233769E+0	1.230333E+0	1.264667E+0	1.193988E+0	1.273915E+0	1.236754E+0	1.200374E+0	1.227149E+0	1.231807E+0	1.286538E+0	1.293369E+0	1.275019E+0	1.292055E+0	1.254309E+0	1.268214E+0	1.274817E+0	1.271721E+0	1.275183E+0	1.225331E+0	1.261941E+0	1.244980E+0	1.245232E+0	1.214119E+0	1.286335E+0	1.233251E+0	1.284911E+0	1.240169E+0	1.231424E+0	1.267170E+0	1.280082E+0	1.233475E+0	1.241835E+0	1.284974E+0	1.271345E+0	1.287929E+0	1.290688E+0	1.272679E+0	1.252192E+0	1.241969E+0	1.229694E+0	1.252210E+0	1.267733E+0	1.226799E+0	1.263209E+0	1.270234E+0	1.242173E+0	1.237872E+0	1.239122E+0	1.228287E+0	1.254956E+0	1.275913E+0	1.285050E+0	1.307801E+0	1.265310E+0	1.271999E+0	1.241914E+0	1.285687E+0	1.268370E+0	1.247938E+0	1.225021E+0	1.290596E+0	1.241627E+0	1.219214E+0	1.302273E+0	1.237591E+0	1.283562E+0	1.293617E+0	1.206521E+0	1.289507E+0	1.252676E+0	1.242176E+0	1.314269E+0	1.299375E+0	1.311931E+0	1.230609E+0	1.209064E+0	1.276073E+0	1.258130E+0	1.253880E+0	1.236930E+0	1.252831E+0	1.229153E+0	1.254113E+0	1.222591E+0	1.284072E+0	1.243520E+0	1.275465E+0	1.229436E+0	1.279490E+0	1.266922E+0	1.233275E+0	1.281670E+0	1.309144E+0	1.244876E+0	1.276777E+0	1.243443E+0	1.251922E+0	1.289589E+0	1.255078E+0	1.248552E+0	1.231463E+0	1.242496E+0	1.249577E+0	1.193509E+0	1.250819E+0	1.262479E+0	1.276153E+0	1.239654E+0	1.216338E+0	1.283713E+0	1.312205E+0	1.305105E+0	1.250775E+0	1.248122E+0	1.257057E+0	1.274933E+0	1.246031E+0	1.273526E+0	1.256662E+0	1.264692E+0	1.267220E+0	1.279779E+0	1.255347E+0	1.223368E+0	1.287092E+0	1.259019E+0	1.229522E+0	1.218773E+0	1.268100E+0	1.258377E+0	1.215050E+0	1.215904E+0	1.285708E+0	1.308408E+0	1.230549E+0	1.279160E+0	1.281285E+0	1.248933E+0
5.358650E+2	1.069120E+0	1.092013E+0	1.139254E+0	1.074544E+0	1.037677E+0	1.077139E+0	1.089410E+0	1.053295E+0	1.043385E+0	1.069816E+0	1.103328E+0	1.151854E+0	1.085116E+0	1.102140E+0	1.067817E+0	1.083627E+0	1.136778E+0	1.077054E+0	1.061538E+0	1.089717E+0	1.112383E+0	1.072914E+0	1.084081E+0	1.133322E+0	1.056996E+0	1.042237E+0	1.058711E+0	1.102809E+0	1.112919E+0	1.095733E+0	1.064926E+0	1.123635E+0	1.006922E+0	1.102121E+0	1.077038E+0	1.048254E+0	1.086660E+0	1.051660E+0	1.079678E+0	1.063359E+0	1.083901E+0	1.058568E+0	1.158299E+0	1.057679E+0	1.146579E+0	1.068318E+0	1.078307E+0	1.105855E+0	1.121878E+0	1.114278E+0	1.089023E+0	1.118121E+0	1.085860E+0	1.095855E+0	9.885497E-1	1.077129E+0	1.128486E+0	1.055446E+0	1.089397E+0	1.170805E+0	1.081305E+0	1.049556E+0	1.093470E+0	1.067959E+0	1.120354E+0	1.111341E+0	1.075369E+0	1.109110E+0	1.104071E+0	1.071860E+0	1.107492E+0	1.119900E+0	1.069287E+0	1.075091E+0	1.084944E+0	1.132451E+0	1.040824E+0	1.061457E+0	1.035395E+0	1.097127E+0	1.124763E+0	1.079849E+0	1.055037E+0	1.095082E+0	1.122073E+0	1.071074E+0	1.099916E+0	1.147012E+0	1.087194E+0	1.102499E+0	1.095976E+0	1.168805E+0	1.086407E+0	1.010540E+0	1.111955E+0	1.077855E+0	1.153309E+0	1.124000E+0	1.047939E+0	1.099817E+0	1.090915E+0	1.090459E+0	1.075307E+0	1.146082E+0	1.126350E+0	1.118687E+0	1.120777E+0	1.076147E+0	1.083335E+0	1.115315E+0	1.097409E+0	1.102694E+0	1.104401E+0	1.054843E+0	1.096526E+0	1.079693E+0	1.115886E+0	1.015868E+0	1.072679E+0	1.122100E+0	1.086830E+0	1.045672E+0	1.093577E+0	1.129066E+0	1.027588E+0	1.092323E+0	1.070831E+0	1.102948E+0	1.065077E+0	1.086630E+0	1.103717E+0	1.103830E+0	1.092586E+0	1.057485E+0	1.131555E+0	1.092205E+0	1.036929E+0	1.109606E+0	1.101449E+0	1.059994E+0	1.104593E+0	1.037105E+0	1.118556E+0	1.127771E+0	1.101583E+0	1.091362E+0	1.108038E+0	1.099952E+0	1.116882E+0	1.164958E+0	1.133140E+0	1.092892E+0	1.032368E+0	1.098679E+0	1.063875E+0	1.077599E+0	1.089757E+0	1.109882E+0	1.068785E+0	1.151833E+0	1.095636E+0	1.060083E+0	1.091903E+0	1.108359E+0	1.084020E+0	1.063182E+0	1.108313E+0	1.071850E+0	1.081187E+0	1.078236E+0	1.140222E+0	1.306547E+0
5.360070E+2	9.369792E-1	9.391895E-1	9.801265E-1	9.176394E-1	9.176993E-1	9.368656E-1	9.590649E-1	9.506017E-1	8.937040E-1	9.374115E-1	9.497663E-1	9.358614E-1	9.532574E-1	9.436394E-1	9.265544E-1	9.492676E-1	9.579062E-1	9.512955E-1	9.468323E-1	9.422660E-1	9.315283E-1	9.518862E-1	9.097969E-1	9.571772E-1	9.230651E-1	8.900928E-1	9.245409E-1	9.348653E-1	9.114084E-1	9.432050E-1	9.267794E-1	9.073737E-1	9.607760E-1	9.300807E-1	9.447575E-1	9.471349E-1	9.163320E-1	9.224521E-1	9.224262E-1	8.987880E-1	9.128206E-1	8.891898E-1	9.468102E-1	9.579826E-1	9.514852E-1	9.227880E-1	9.360368E-1	9.648576E-1	9.354888E-1	9.289696E-1	9.251399E-1	9.160218E-1	9.186262E-1	9.428387E-1	9.608778E-1	9.408217E-1	9.089637E-1	9.281195E-1	9.411433E-1	9.074932E-1	9.418154E-1	9.138071E-1	9.327418E-1	9.231365E-1	9.420702E-1	9.036701E-1	9.286782E-1	9.331336E-1	9.730140E-1	9.214828E-1	9.341505E-1	9.073374E-1	9.295288E-1	9.317602E-1	9.431191E-1	9.274926E-1	9.661493E-1	9.537320E-1	9.237089E-1	9.505793E-1	9.286613E-1	9.115330E-1	9.819137E-1	9.018628E-1	9.319597E-1	9.398817E-1	9.426228E-1	9.818672E-1	9.199302E-1	9.236561E-1	9.482702E-1	9.198775E-1	9.338621E-1	9.023422E-1	9.524959E-1	9.718493E-1	9.364494E-1	9.442878E-1	8.939197E-1	9.925683E-1	9.339549E-1	9.432703E-1	9.131598E-1	9.314909E-1	9.214277E-1	9.493346E-1	9.222176E-1	9.180869E-1	9.495797E-1	9.069286E-1	9.292222E-1	9.560974E-1	9.339593E-1	9.099997E-1	9.391831E-1	9.276668E-1	9.806887E-1	9.164294E-1	9.206952E-1	9.039062E-1	9.681659E-1	9.134531E-1	9.396965E-1	9.383612E-1	9.477389E-1	9.412992E-1	9.238725E-1	9.245952E-1	9.799225E-1	9.563118E-1	9.467519E-1	9.494653E-1	9.509974E-1	9.421106E-1	9.268855E-1	9.058976E-1	8.794122E-1	9.355440E-1	9.162384E-1	9.306040E-1	9.381232E-1	9.055371E-1	8.860828E-1	9.141731E-1	9.448080E-1	8.925265E-1	9.330795E-1	9.329952E-1	9.291324E-1	9.203456E-1	9.398472E-1	9.792924E-1	9.273716E-1	9.718947E-1	9.017304E-1	9.376781E-1	9.281596E-1	9.186785E-1	8.988227E-1	9.675905E-1	9.429852E-1	9.273272E-1	9.495198E-1	9.133609E-1	9.178012E-1	9.503954E-1	9.235588E-1	9.298173E-1	9.235917E-1	9.450366E-1	9.664221E-1	9.810029E-1
5.362680E+2	7.165163E-1	7.185135E-1	7.250207E-1	6.989241E-1	7.001408E-1	7.219600E-1	7.089987E-1	7.144696E-1	7.407489E-1	7.080882E-1	7.329617E-1	7.482307E-1	7.235340E-1	7.313054E-1	7.049157E-1	7.212070E-1	7.246162E-1	6.888462E-1	7.073862E-1	7.148109E-1	7.097530E-1	6.946420E-1	7.475818E-1	7.260092E-1	6.936460E-1	7.087750E-1	7.384677E-1	7.316262E-1	7.708759E-1	6.946172E-1	7.418083E-1	7.339333E-1	6.779200E-1	7.098605E-1	7.179273E-1	7.156154E-1	7.309796E-1	7.320134E-1	7.162004E-1	7.102903E-1	7.205207E-1	7.491400E-1	7.556286E-1	6.723294E-1	7.205951E-1	7.570985E-1	7.195366E-1	7.371931E-1	6.857460E-1	6.895561E-1	7.259497E-1	7.092070E-1	7.140765E-1	7.066343E-1	7.376551E-1	7.611506E-1	7.545074E-1	7.430761E-1	7.249227E-1	7.343120E-1	7.143038E-1	7.180046E-1	6.861145E-1	7.286968E-1	7.293665E-1	7.277103E-1	7.148577E-1	7.460415E-1	6.951742E-1	7.315838E-1	7.463086E-1	7.358928E-1	7.324032E-1	7.127383E-1	7.020445E-1	7.647049E-1	7.010785E-1	7.339780E-1	7.573097E-1	7.372783E-1	7.299089E-1	7.483371E-1	7.316117E-1	7.191332E-1	7.059359E-1	7.354869E-1	7.283186E-1	7.190173E-1	7.400568E-1	6.947690E-1	7.300842E-1	7.205373E-1	7.344844E-1	7.153596E-1	7.465856E-1	7.038253E-1	7.481878E-1	7.606291E-1	6.911019E-1	7.376897E-1	7.320964E-1	7.364122E-1	7.564827E-1	7.567460E-1	7.222165E-1	7.559437E-1	7.102741E-1	7.264863E-1	7.543917E-1	7.351345E-1	7.158358E-1	7.506087E-1	7.468088E-1	7.223565E-1	7.389034E-1	7.085663E-1	7.195506E-1	7.319054E-1	6.984522E-1	7.494489E-1	7.092133E-1	7.354568E-1	7.332339E-1	6.932702E-1	7.347619E-1	7.140931E-1	7.350332E-1	7.304134E-1	7.197251E-1	7.450290E-1	7.054376E-1	7.641788E-1	7.042850E-1	7.236557E-1	7.413262E-1	7.384379E-1	7.107624E-1	7.248001E-1	7.639975E-1	7.494044E-1	7.379922E-1	6.979129E-1	7.330537E-1	7.276516E-1	7.439200E-1	7.422941E-1	7.620729E-1	7.807197E-1	7.262906E-1	7.389487E-1	6.930105E-1	7.611568E-1	7.112817E-1	7.334923E-1	7.054035E-1	7.622758E-1	7.227041E-1	7.150219E-1	6.803974E-1	7.723737E-1	7.363622E-1	7.300676E-1	7.431183E-1	7.581752E-1	7.424816E-1	7.387646E-1	7.359559E-1	7.648834E-1	7.203050E-1	7.365370E-1	7.243611E-1	7.604230E-1
5.365140E+2	6.011642E-1	5.657929E-1	5.904944E-1	5.515618E-1	5.422696E-1	6.003834E-1	5.767156E-1	5.593171E-1	5.705539E-1	5.810904E-1	6.008542E-1	5.826306E-1	5.801945E-1	5.770215E-1	5.476931E-1	5.898209E-1	5.649470E-1	5.394519E-1	5.903769E-1	5.891648E-1	5.744052E-1	5.545577E-1	5.800495E-1	5.889795E-1	5.627634E-1	5.530804E-1	5.698769E-1	5.625099E-1	5.620525E-1	5.700758E-1	5.745561E-1	5.897162E-1	5.967359E-1	5.833348E-1	5.914522E-1	5.688747E-1	5.650517E-1	5.959353E-1	5.618414E-1	5.370070E-1	6.040245E-1	5.622673E-1	5.407942E-1	5.628254E-1	5.766073E-1	5.771038E-1	5.874966E-1	5.823593E-1	5.452394E-1	5.593257E-1	5.960660E-1	5.473165E-1	5.399168E-1	5.852951E-1	5.478519E-1	5.574806E-1	5.912392E-1	5.752272E-1	5.769940E-1	5.856648E-1	5.484310E-1	5.965735E-1	5.389499E-1	5.783016E-1	5.599319E-1	5.229952E-1	5.570806E-1	5.783336E-1	5.879995E-1	5.758317E-1	5.725146E-1	5.825450E-1	5.633285E-1	5.741566E-1	5.586532E-1	5.835355E-1	6.072990E-1	5.499046E-1	5.953998E-1	6.065168E-1	5.725539E-1	5.573676E-1	5.939379E-1	5.603038E-1	5.877150E-1	5.972313E-1	6.053759E-1	5.757144E-1	5.687375E-1	5.644612E-1	5.914679E-1	5.761243E-1	6.063521E-1	5.522973E-1	5.668327E-1	5.622504E-1	5.764948E-1	6.139004E-1	5.606686E-1	5.899028E-1	5.855106E-1	5.537097E-1	5.613177E-1	5.578035E-1	5.782212E-1	5.954563E-1	5.938584E-1	5.789962E-1	6.237453E-1	5.702178E-1	5.619771E-1	5.366755E-1	5.863655E-1	5.693431E-1	5.513091E-1	5.612976E-1	5.908479E-1	5.543531E-1	5.725778E-1	5.752064E-1	5.947604E-1	5.545796E-1	5.862906E-1	5.575392E-1	5.537832E-1	5.395516E-1	5.445797E-1	5.907002E-1	5.752135E-1	5.549004E-1	5.834836E-1	5.846752E-1	5.994477E-1	5.797121E-1	5.701576E-1	5.655177E-1	5.513332E-1	5.329657E-1	5.697587E-1	5.686948E-1	5.806880E-1	5.461609E-1	5.779106E-1	5.589687E-1	5.880009E-1	6.020692E-1	5.629396E-1	5.791714E-1	5.978067E-1	5.701245E-1	5.901280E-1	5.816596E-1	5.951508E-1	5.963735E-1	5.687263E-1	5.988877E-1	5.744205E-1	5.474783E-1	5.725535E-1	5.942819E-1	5.655203E-1	5.605522E-1	5.663364E-1	5.830667E-1	5.601340E-1	5.650922E-1	5.894892E-1	6.161972E-1	5.364066E-1	5.512344E-1	5.895972E-1	6.073610E-1
5.367660E+2	5.400360E-1	4.934978E-1	5.054676E-1	5.099589E-1	4.798736E-1	4.922959E-1	5.112710E-1	4.943868E-1	4.731299E-1	5.105849E-1	5.025183E-1	5.243059E-1	4.880147E-1	4.868391E-1	4.763481E-1	4.943746E-1	5.054234E-1	5.088794E-1	5.087502E-1	4.787518E-1	4.788782E-1	4.952197E-1	5.102573E-1	4.933626E-1	5.110184E-1	5.291004E-1	4.976487E-1	4.984018E-1	4.825129E-1	5.161214E-1	5.021688E-1	5.033921E-1	5.054323E-1	5.343295E-1	5.024680E-1	4.922013E-1	4.868617E-1	5.199352E-1	4.957756E-1	5.035955E-1	4.924493E-1	4.962196E-1	4.924121E-1	5.254333E-1	5.436189E-1	5.093233E-1	5.019776E-1	5.177460E-1	4.950153E-1	5.212449E-1	5.304338E-1	5.260523E-1	5.176778E-1	5.171054E-1	4.783673E-1	5.195455E-1	5.016179E-1	5.243688E-1	4.906142E-1	4.958201E-1	5.102328E-1	4.780434E-1	4.872078E-1	5.011501E-1	4.804601E-1	4.886032E-1	5.323987E-1	5.119577E-1	5.349202E-1	5.158340E-1	5.067313E-1	5.192974E-1	5.176223E-1	5.160813E-1	5.019905E-1	5.025181E-1	5.030572E-1	5.270757E-1	5.050247E-1	4.812921E-1	5.030487E-1	5.073265E-1	4.986674E-1	5.064588E-1	4.973711E-1	4.984908E-1	5.206606E-1	5.216837E-1	5.284101E-1	4.671466E-1	5.217587E-1	4.721476E-1	4.991972E-1	4.868947E-1	5.101765E-1	5.043203E-1	5.170709E-1	5.006743E-1	5.038788E-1	5.161032E-1	4.884560E-1	5.315549E-1	4.806425E-1	4.945009E-1	4.961224E-1	5.077714E-1	4.906550E-1	4.697692E-1	5.011373E-1	5.337311E-1	4.896659E-1	4.994965E-1	5.052645E-1	4.833136E-1	5.245007E-1	5.079167E-1	5.075885E-1	4.849773E-1	5.211378E-1	5.167588E-1	4.667234E-1	4.961028E-1	4.848124E-1	5.241868E-1	4.953213E-1	4.810375E-1	5.383791E-1	4.946936E-1	5.421943E-1	4.733446E-1	4.819580E-1	5.429373E-1	5.283611E-1	5.083127E-1	5.025417E-1	5.066702E-1	5.164568E-1	5.232399E-1	5.141999E-1	4.926479E-1	4.897425E-1	5.014413E-1	5.083439E-1	5.097276E-1	5.095091E-1	5.044562E-1	5.059152E-1	5.031259E-1	4.976315E-1	5.132601E-1	5.366125E-1	5.470866E-1	5.223596E-1	4.745732E-1	4.744066E-1	5.005031E-1	5.173743E-1	5.025361E-1	5.106238E-1	5.090566E-1	5.192995E-1	5.222959E-1	5.060652E-1	5.095166E-1	5.048395E-1	5.203131E-1	5.120827E-1	5.170352E-1	4.930694E-1	5.306900E-1	5.062776E-1	5.361344E-1
5.370280E+2	5.129885E-1	4.975328E-1	4.890648E-1	4.805001E-1	4.768886E-1	4.471015E-1	4.742459E-1	4.835453E-1	4.398805E-1	5.104474E-1	4.534431E-1	4.831784E-1	4.704471E-1	4.792573E-1	4.985607E-1	4.961097E-1	4.813145E-1	4.712207E-1	4.969152E-1	4.692174E-1	4.486354E-1	4.747515E-1	4.902735E-1	4.866946E-1	4.978717E-1	4.796225E-1	5.055486E-1	4.618277E-1	5.085194E-1	4.759528E-1	5.039775E-1	4.882914E-1	4.684855E-1	4.633627E-1	4.764759E-1	4.571557E-1	5.108305E-1	4.728386E-1	4.713447E-1	4.862866E-1	4.860282E-1	4.784552E-1	4.676650E-1	4.822512E-1	4.928716E-1	4.817033E-1	4.959881E-1	4.959202E-1	4.756132E-1	4.979340E-1	4.713705E-1	4.683680E-1	4.713022E-1	4.641478E-1	4.650253E-1	5.132698E-1	4.874066E-1	5.100942E-1	4.646108E-1	4.935410E-1	4.882371E-1	4.730671E-1	4.843310E-1	4.812863E-1	5.090592E-1	4.473491E-1	4.794301E-1	4.617998E-1	4.711230E-1	5.077830E-1	4.663383E-1	4.905631E-1	4.691243E-1	4.939331E-1	5.098264E-1	4.717760E-1	4.950486E-1	4.907895E-1	5.069749E-1	4.758182E-1	5.032658E-1	5.176134E-1	4.792294E-1	4.606521E-1	4.951064E-1	4.825354E-1	5.086048E-1	5.069477E-1	4.633540E-1	4.869497E-1	5.214727E-1	4.822744E-1	5.000888E-1	4.744667E-1	4.987561E-1	4.996466E-1	4.981841E-1	4.975939E-1	4.890379E-1	4.727537E-1	5.081970E-1	4.887621E-1	4.752675E-1	4.736246E-1	4.773066E-1	4.778132E-1	5.094773E-1	4.824378E-1	5.136173E-1	4.888107E-1	4.734496E-1	5.109333E-1	4.911524E-1	5.234667E-1	5.175880E-1	4.616657E-1	4.772441E-1	5.078091E-1	4.693932E-1	4.687903E-1	5.015433E-1	4.654768E-1	5.078368E-1	4.795339E-1	4.749865E-1	4.958936E-1	4.991396E-1	4.660697E-1	4.930423E-1	5.099231E-1	5.081680E-1	4.984193E-1	4.926265E-1	4.722975E-1	5.038287E-1	4.912285E-1	4.941774E-1	4.900410E-1	4.771457E-1	4.441404E-1	4.726644E-1	4.612357E-1	4.976279E-1	4.790533E-1	5.026124E-1	4.866301E-1	4.851381E-1	4.904468E-1	5.183642E-1	5.136388E-1	5.386151E-1	5.092681E-1	5.081493E-1	4.410993E-1	5.032680E-1	4.898430E-1	4.653078E-1	4.840950E-1	4.960510E-1	5.078304E-1	4.757192E-1	4.636764E-1	4.718105E-1	5.213197E-1	4.896573E-1	4.712826E-1	5.206198E-1	4.964817E-1	4.512643E-1	4.820344E-1	4.958074E-1	4.772553E-1
5.372590E+2	4.909695E-1	4.951864E-1	4.795435E-1	5.042485E-1	4.847142E-1	4.799587E-1	5.122969E-1	4.683426E-1	5.039252E-1	5.194034E-1	5.065908E-1	5.224125E-1	4.948797E-1	4.907697E-1	4.908432E-1	4.984637E-1	5.006468E-1	4.962739E-1	4.927579E-1	5.079975E-1	5.077788E-1	4.864260E-1	4.794147E-1	5.087496E-1	4.927430E-1	4.994270E-1	4.989936E-1	4.772379E-1	5.063160E-1	5.062369E-1	4.859717E-1	4.859863E-1	4.916643E-1	4.958770E-1	4.971960E-1	5.024656E-1	4.934159E-1	4.824546E-1	5.125695E-1	4.758331E-1	4.957173E-1	4.743492E-1	4.812971E-1	4.927713E-1	4.856789E-1	5.311343E-1	5.075483E-1	4.978679E-1	5.116477E-1	4.889193E-1	4.804983E-1	4.700618E-1	4.709667E-1	4.811685E-1	5.049381E-1	4.915357E-1	5.131608E-1	5.059992E-1	4.826944E-1	4.569297E-1	5.132200E-1	5.116593E-1	5.027702E-1	5.022067E-1	5.047993E-1	4.947998E-1	4.745600E-1	4.755265E-1	5.089457E-1	4.735299E-1	4.626789E-1	4.957716E-1	4.635909E-1	4.910119E-1	4.894094E-1	5.077185E-1	5.265809E-1	4.904844E-1	5.054673E-1	5.015508E-1	5.091001E-1	4.883888E-1	4.883305E-1	4.790734E-1	5.161514E-1	4.900059E-1	4.927119E-1	4.972495E-1	4.805031E-1	4.880507E-1	5.055471E-1	5.014972E-1	5.284441E-1	5.011001E-1	5.144823E-1	4.828097E-1	5.003472E-1	5.255558E-1	5.255251E-1	5.126300E-1	5.159544E-1	4.592434E-1	4.994865E-1	4.846835E-1	5.244034E-1	5.003449E-1	5.028458E-1	4.965060E-1	4.887578E-1	5.180900E-1	5.176297E-1	4.883148E-1	5.296194E-1	4.753711E-1	5.151094E-1	5.250568E-1	5.170401E-1	5.069545E-1	5.199273E-1	4.869205E-1	5.209181E-1	4.922045E-1	4.868212E-1	4.978069E-1	4.950709E-1	5.312237E-1	5.365800E-1	5.355055E-1	4.810502E-1	5.253564E-1	5.088798E-1	4.871047E-1	5.071687E-1	5.185759E-1	5.151445E-1	5.167151E-1	4.900167E-1	5.043730E-1	5.209967E-1	4.786693E-1	4.844655E-1	4.852362E-1	5.132528E-1	4.911273E-1	5.010172E-1	4.920839E-1	5.283403E-1	5.145910E-1	5.244766E-1	5.052154E-1	5.396563E-1	5.139095E-1	5.203892E-1	4.743832E-1	5.129549E-1	4.879954E-1	5.095682E-1	5.273301E-1	5.010302E-1	4.886434E-1	5.158602E-1	4.848726E-1	5.315881E-1	5.143133E-1	5.070665E-1	5.225264E-1	5.200225E-1	4.974320E-1	4.926636E-1	5.489438E-1	5.067035E-1	4.536648E-1
5.375160E+2	5.762878E-1	5.496237E-1	6.306206E-1	5.785006E-1	5.508708E-1	5.475804E-1	5.874944E-1	5.530586E-1	6.052703E-1	5.834859E-1	5.655106E-1	5.752601E-1	5.903036E-1	5.750267E-1	5.453951E-1	5.597820E-1	6.003294E-1	5.747657E-1	5.736232E-1	5.780421E-1	5.939121E-1	5.831751E-1	5.999411E-1	5.829255E-1	5.449338E-1	5.819875E-1	5.554945E-1	5.801719E-1	5.864689E-1	5.619751E-1	5.873618E-1	5.478161E-1	5.706916E-1	6.309038E-1	5.544969E-1	5.718078E-1	5.678992E-1	6.103368E-1	5.916104E-1	5.735483E-1	5.686729E-1	5.692421E-1	5.905042E-1	5.920264E-1	5.933637E-1	5.479525E-1	6.047805E-1	5.998548E-1	5.885949E-1	5.719668E-1	5.975339E-1	6.129360E-1	5.362229E-1	5.834720E-1	5.803697E-1	5.685990E-1	5.701785E-1	5.958846E-1	5.952574E-1	6.012187E-1	5.608392E-1	5.609567E-1	5.717466E-1	5.957864E-1	5.629487E-1	5.616933E-1	5.660582E-1	5.875370E-1	5.803105E-1	5.904639E-1	5.920763E-1	5.863445E-1	5.807245E-1	6.306354E-1	5.969579E-1	5.691649E-1	5.856185E-1	5.378945E-1	5.728431E-1	5.711855E-1	5.909637E-1	5.538761E-1	5.696264E-1	5.518615E-1	5.771604E-1	5.879147E-1	5.810002E-1	5.735728E-1	5.680983E-1	5.893692E-1	5.919211E-1	5.564618E-1	5.942543E-1	5.847104E-1	5.642986E-1	5.507385E-1	6.013734E-1	5.920424E-1	5.979956E-1	5.740613E-1	6.034295E-1	5.708736E-1	5.869604E-1	5.837085E-1	5.955317E-1	5.619729E-1	5.771200E-1	5.741853E-1	5.784371E-1	5.815621E-1	5.671586E-1	5.812503E-1	5.848689E-1	5.769731E-1	6.011325E-1	5.895031E-1	5.702227E-1	5.808710E-1	6.200675E-1	6.224793E-1	5.945886E-1	6.085789E-1	6.492752E-1	5.805612E-1	5.972095E-1	6.096082E-1	5.759779E-1	5.968929E-1	6.120810E-1	5.981905E-1	5.899133E-1	6.166919E-1	5.980421E-1	5.981062E-1	6.090520E-1	5.790718E-1	5.807859E-1	5.966727E-1	5.555321E-1	5.997540E-1	6.270206E-1	5.866283E-1	6.150466E-1	5.815351E-1	5.951951E-1	5.870649E-1	5.757980E-1	5.646578E-1	6.234869E-1	5.636988E-1	6.197171E-1	5.754303E-1	5.538001E-1	6.054624E-1	5.835878E-1	5.837483E-1	5.673733E-1	5.937459E-1	5.703913E-1	5.970167E-1	5.877942E-1	5.811045E-1	5.875242E-1	5.875796E-1	5.876618E-1	5.777062E-1	5.872446E-1	6.216263E-1	5.787644E-1	5.856116E-1	6.035622E-1	6.210730E-1
5.377630E+2	6.277390E-1	6.507378E-1	6.655498E-1	6.341832E-1	6.657263E-1	6.845089E-1	6.816935E-1	6.703583E-1	6.681567E-1	6.652140E-1	6.550756E-1	6.774041E-1	6.413263E-1	6.731453E-1	6.414993E-1	6.480807E-1	6.429882E-1	6.504853E-1	6.725448E-1	6.430344E-1	6.590213E-1	6.501529E-1	6.644018E-1	6.407670E-1	6.357919E-1	6.584239E-1	6.831141E-1	6.439180E-1	6.602630E-1	6.720355E-1	6.598398E-1	6.737500E-1	6.542502E-1	6.529319E-1	6.652338E-1	7.196146E-1	7.041833E-1	6.609416E-1	6.723084E-1	6.399736E-1	6.394762E-1	6.189353E-1	6.671422E-1	6.341601E-1	6.633771E-1	6.937912E-1	6.734710E-1	6.545338E-1	6.678992E-1	6.947431E-1	6.767701E-1	6.669134E-1	7.020683E-1	6.536297E-1	6.790464E-1	7.004236E-1	6.453532E-1	6.776075E-1	6.994555E-1	6.607655E-1	6.589309E-1	6.532417E-1	6.441394E-1	6.723430E-1	6.838265E-1	6.858308E-1	7.008220E-1	6.860978E-1	6.850647E-1	6.731575E-1	7.124309E-1	6.996541E-1	6.562646E-1	6.744366E-1	6.969391E-1	6.899487E-1	7.181738E-1	6.479431E-1	6.768974E-1	6.633212E-1	7.120783E-1	6.788393E-1	6.934517E-1	6.838931E-1	7.054451E-1	6.969666E-1	6.655535E-1	7.047881E-1	7.000782E-1	6.395934E-1	6.710569E-1	7.180989E-1	7.120026E-1	6.818928E-1	7.065180E-1	6.790048E-1	7.190147E-1	6.836364E-1	6.768575E-1	6.905994E-1	7.015563E-1	6.746391E-1	6.768435E-1	7.099922E-1	6.182629E-1	6.774870E-1	6.626450E-1	6.948322E-1	6.893418E-1	6.966706E-1	6.724825E-1	6.717823E-1	6.802073E-1	6.748701E-1	6.879761E-1	6.996832E-1	6.912103E-1	6.626952E-1	6.615299E-1	7.350633E-1	6.918878E-1	7.016900E-1	7.314043E-1	7.218550E-1	6.464572E-1	6.840329E-1	7.066596E-1	6.747179E-1	6.801681E-1	6.965887E-1	6.801351E-1	6.588736E-1	7.004543E-1	6.965415E-1	7.027981E-1	6.608340E-1	7.015585E-1	6.545569E-1	6.754352E-1	6.677930E-1	6.673835E-1	6.417340E-1	6.547018E-1	7.056125E-1	6.864020E-1	7.035924E-1	6.891370E-1	6.453387E-1	7.077492E-1	7.049219E-1	7.332089E-1	6.660802E-1	6.790732E-1	6.811816E-1	6.676852E-1	6.680349E-1	6.805936E-1	6.654412E-1	6.797428E-1	6.971272E-1	6.778705E-1	6.605635E-1	7.105026E-1	6.891513E-1	6.772128E-1	7.064674E-1	6.911470E-1	6.826572E-1	6.646133E-1	6.720661E-1	6.625744E-1	6.703502E-1
5.380160E+2	8.011492E-1	8.034272E-1	7.666083E-1	7.662213E-1	7.881491E-1	7.554864E-1	7.622597E-1	7.694830E-1	8.017919E-1	7.979338E-1	7.747710E-1	7.823141E-1	7.563071E-1	8.037536E-1	8.186526E-1	7.905311E-1	7.601525E-1	7.631464E-1	7.666075E-1	7.591150E-1	8.044055E-1	8.048060E-1	7.515870E-1	7.738792E-1	7.116854E-1	7.924506E-1	7.776152E-1	7.896595E-1	7.604704E-1	7.702432E-1	8.035086E-1	7.785683E-1	8.107471E-1	7.841112E-1	7.962758E-1	7.769344E-1	7.688017E-1	7.529693E-1	7.929574E-1	7.842826E-1	7.479350E-1	8.220788E-1	7.531224E-1	7.741342E-1	7.741143E-1	7.721980E-1	8.086931E-1	8.397319E-1	7.846053E-1	8.133761E-1	7.858005E-1	7.726436E-1	7.629655E-1	7.795130E-1	7.963460E-1	7.468879E-1	7.809962E-1	7.591825E-1	7.754954E-1	8.211089E-1	7.994518E-1	8.068157E-1	8.002991E-1	7.960307E-1	7.683603E-1	7.982034E-1	7.815371E-1	8.127134E-1	8.133145E-1	7.899072E-1	7.841973E-1	7.755169E-1	7.478195E-1	8.068755E-1	7.326496E-1	8.201006E-1	7.730964E-1	8.007887E-1	7.733034E-1	7.721307E-1	7.776427E-1	7.870264E-1	7.812537E-1	7.427133E-1	7.625111E-1	8.304581E-1	8.110881E-1	8.046718E-1	7.928847E-1	7.707505E-1	7.782581E-1	8.188595E-1	7.984509E-1	7.743391E-1	7.978573E-1	7.949375E-1	8.100343E-1	7.960794E-1	8.000275E-1	7.891266E-1	7.798472E-1	7.808932E-1	8.216992E-1	7.803694E-1	7.467277E-1	8.215899E-1	8.390582E-1	8.105335E-1	7.900549E-1	7.634497E-1	7.997876E-1	7.846868E-1	7.799884E-1	8.034574E-1	7.886169E-1	7.859823E-1	7.801414E-1	7.536736E-1	7.997665E-1	8.185461E-1	7.665357E-1	7.771702E-1	8.085236E-1	8.063073E-1	7.705965E-1	8.025725E-1	7.991608E-1	7.551985E-1	8.147547E-1	7.822992E-1	8.105015E-1	7.868030E-1	8.160454E-1	7.751065E-1	7.819042E-1	8.145937E-1	7.635082E-1	7.921243E-1	8.069561E-1	7.734950E-1	8.065484E-1	7.765359E-1	7.957518E-1	7.961047E-1	7.847957E-1	7.648307E-1	7.990053E-1	8.005606E-1	8.018451E-1	8.122435E-1	8.212003E-1	7.827858E-1	7.805575E-1	8.260269E-1	7.581509E-1	7.805533E-1	7.620221E-1	7.629688E-1	8.081374E-1	7.945540E-1	8.148411E-1	8.154054E-1	7.794102E-1	8.023500E-1	8.176375E-1	7.736357E-1	7.670004E-1	8.143962E-1	7.315396E-1	7.669458E-1	7.882360E-1	8.077023E-1
5.382740E+2	1.016400E+0	9.633737E-1	9.890818E-1	9.751682E-1	9.580206E-1	9.864240E-1	9.866528E-1	9.582656E-1	9.770311E-1	9.982288E-1	9.575055E-1	9.994093E-1	9.856800E-1	1.004127E+0	9.991822E-1	1.022002E+0	9.692417E-1	9.447921E-1	9.747987E-1	9.919216E-1	9.274120E-1	9.404483E-1	9.802634E-1	9.262716E-1	9.514674E-1	9.494424E-1	9.401458E-1	1.007771E+0	1.008113E+0	1.006587E+0	9.639149E-1	9.813731E-1	1.001370E+0	9.999720E-1	9.599028E-1	9.705054E-1	9.848195E-1	9.687493E-1	9.951197E-1	9.318705E-1	9.482127E-1	9.757308E-1	9.611635E-1	9.810400E-1	9.711136E-1	1.009345E+0	9.866060E-1	9.665000E-1	9.671091E-1	1.009266E+0	9.674257E-1	1.013347E+0	9.465671E-1	1.000746E+0	9.683040E-1	9.649164E-1	9.404445E-1	9.802030E-1	9.484069E-1	9.806367E-1	9.723562E-1	9.782317E-1	9.579586E-1	9.641411E-1	9.146907E-1	1.023167E+0	9.803188E-1	9.720681E-1	9.612772E-1	9.808385E-1	9.285037E-1	9.836735E-1	9.714654E-1	9.947519E-1	9.484186E-1	9.608705E-1	9.514340E-1	9.677919E-1	9.794875E-1	9.772981E-1	9.551159E-1	9.383128E-1	9.784224E-1	9.427709E-1	9.707536E-1	9.810532E-1	1.017192E+0	1.021455E+0	1.012651E+0	9.799637E-1	1.001117E+0	9.610423E-1	1.019774E+0	9.241267E-1	9.533909E-1	1.002721E+0	9.342814E-1	9.810578E-1	9.581033E-1	9.624705E-1	9.985242E-1	9.548424E-1	9.908065E-1	9.845404E-1	8.859533E-1	1.018728E+0	9.974872E-1	9.877141E-1	9.766434E-1	9.784581E-1	9.682230E-1	9.723622E-1	9.661353E-1	9.787098E-1	9.973169E-1	9.959642E-1	9.582402E-1	9.248754E-1	9.925607E-1	9.382345E-1	9.718002E-1	9.889249E-1	9.973080E-1	1.027453E+0	9.706840E-1	9.996707E-1	1.002540E+0	9.895356E-1	9.990467E-1	9.749436E-1	1.032725E+0	1.016747E+0	9.678328E-1	1.002532E+0	9.699097E-1	9.414727E-1	9.364341E-1	9.467532E-1	9.976095E-1	9.923128E-1	9.928857E-1	9.581976E-1	9.654457E-1	9.547734E-1	9.819025E-1	1.006958E+0	9.683982E-1	9.200074E-1	9.730271E-1	9.797291E-1	1.036329E+0	9.805761E-1	9.545958E-1	9.238079E-1	9.549240E-1	9.279411E-1	9.627298E-1	9.215032E-1	9.791769E-1	9.965475E-1	9.840429E-1	9.679771E-1	9.841645E-1	1.003343E+0	9.566235E-1	9.735917E-1	1.005226E+0	9.808106E-1	9.584420E-1	9.682727E-1	9.348424E-1	1.045203E+0
5.385110E+2	1.196750E+0	1.233973E+0	1.198308E+0	1.167964E+0	1.206311E+0	1.192160E+0	1.239698E+0	1.196557E+0	1.261803E+0	1.205138E+0	1.182552E+0	1.235978E+0	1.154584E+0	1.246764E+0	1.199776E+0	1.163357E+0	1.158957E+0	1.204537E+0	1.179972E+0	1.242668E+0	1.221906E+0	1.206540E+0	1.223207E+0	1.189071E+0	1.165893E+0	1.195392E+0	1.203562E+0	1.233279E+0	1.228954E+0	1.237627E+0	1.215545E+0	1.247942E+0	1.215077E+0	1.218484E+0	1.190651E+0	1.153586E+0	1.203811E+0	1.240204E+0	1.198721E+0	1.185890E+0	1.202927E+0	1.220455E+0	1.204386E+0	1.182659E+0	1.180981E+0	1.195736E+0	1.210833E+0	1.214120E+0	1.172625E+0	1.245436E+0	1.212939E+0	1.181182E+0	1.166989E+0	1.221258E+0	1.183025E+0	1.164276E+0	1.182887E+0	1.171463E+0	1.221350E+0	1.179588E+0	1.196271E+0	1.208939E+0	1.224533E+0	1.201065E+0	1.187452E+0	1.220169E+0	1.218699E+0	1.265208E+0	1.230479E+0	1.189090E+0	1.217061E+0	1.216584E+0	1.177726E+0	1.163342E+0	1.164826E+0	1.237306E+0	1.177567E+0	1.198418E+0	1.248138E+0	1.222242E+0	1.194458E+0	1.161163E+0	1.264507E+0	1.144233E+0	1.174940E+0	1.205036E+0	1.242153E+0	1.154443E+0	1.195008E+0	1.197654E+0	1.196354E+0	1.173862E+0	1.206769E+0	1.165924E+0	1.235650E+0	1.193976E+0	1.173456E+0	1.223492E+0	1.188025E+0	1.203566E+0	1.252239E+0	1.184180E+0	1.231723E+0	1.194500E+0	1.187034E+0	1.261176E+0	1.237510E+0	1.241700E+0	1.154796E+0	1.203486E+0	1.228596E+0	1.192532E+0	1.186764E+0	1.204688E+0	1.180101E+0	1.179668E+0	1.238368E+0	1.195250E+0	1.223261E+0	1.156900E+0	1.206560E+0	1.205525E+0	1.214984E+0	1.218601E+0	1.188339E+0	1.184595E+0	1.236806E+0	1.251059E+0	1.217898E+0	1.197650E+0	1.242575E+0	1.221653E+0	1.199313E+0	1.163942E+0	1.155928E+0	1.173437E+0	1.163248E+0	1.159876E+0	1.204431E+0	1.183944E+0	1.198181E+0	1.170399E+0	1.174555E+0	1.230901E+0	1.203209E+0	1.182762E+0	1.176304E+0	1.144493E+0	1.225268E+0	1.233653E+0	1.194921E+0	1.218389E+0	1.214988E+0	1.252319E+0	1.199843E+0	1.248747E+0	1.180102E+0	1.200319E+0	1.201746E+0	1.167733E+0	1.170951E+0	1.198806E+0	1.257922E+0	1.199270E+0	1.169818E+0	1.196625E+0	1.237382E+0	1.207394E+0	1.206758E+0	1.228466E+0	1.207648E+0	1.165185E+0
5.387650E+2	1.455221E+0	1.437812E+0	1.511861E+0	1.390508E+0	1.460564E+0	1.438209E+0	1.420178E+0	1.420621E+0	1.457985E+0	1.469202E+0	1.476061E+0	1.481369E+0	1.407868E+0	1.476473E+0	1.446933E+0	1.452613E+0	1.451388E+0	1.429056E+0	1.458263E+0	1.501585E+0	1.412457E+0	1.490590E+0	1.531498E+0	1.400690E+0	1.415811E+0	1.465935E+0	1.465072E+0	1.498138E+0	1.425317E+0	1.472089E+0	1.458984E+0	1.489495E+0	1.419212E+0	1.451337E+0	1.425162E+0	1.459224E+0	1.444885E+0	1.451908E+0	1.471443E+0	1.441179E+0	1.509861E+0	1.415432E+0	1.461117E+0	1.425041E+0	1.486320E+0	1.471391E+0	1.445486E+0	1.475848E+0	1.437415E+0	1.489002E+0	1.459046E+0	1.490632E+0	1.445063E+0	1.448456E+0	1.445163E+0	1.458007E+0	1.478101E+0	1.464012E+0	1.452085E+0	1.492769E+0	1.415838E+0	1.411341E+0	1.521823E+0	1.464869E+0	1.437151E+0	1.426628E+0	1.452335E+0	1.474608E+0	1.447602E+0	1.467726E+0	1.470569E+0	1.424033E+0	1.440189E+0	1.419324E+0	1.416178E+0	1.480713E+0	1.422704E+0	1.438339E+0	1.440404E+0	1.491311E+0	1.428144E+0	1.421522E+0	1.440629E+0	1.425623E+0	1.454858E+0	1.429241E+0	1.431339E+0	1.460846E+0	1.467577E+0	1.444810E+0	1.445278E+0	1.418083E+0	1.504807E+0	1.362513E+0	1.444835E+0	1.446577E+0	1.418347E+0	1.424853E+0	1.409550E+0	1.439122E+0	1.432314E+0	1.461870E+0	1.456764E+0	1.415235E+0	1.463370E+0	1.437713E+0	1.482336E+0	1.459420E+0	1.468051E+0	1.451136E+0	1.431121E+0	1.453984E+0	1.423748E+0	1.471494E+0	1.429249E+0	1.444065E+0	1.461998E+0	1.400226E+0	1.442716E+0	1.426040E+0	1.395942E+0	1.388912E+0	1.444310E+0	1.530096E+0	1.458917E+0	1.399154E+0	1.436441E+0	1.434572E+0	1.497166E+0	1.441478E+0	1.403927E+0	1.453853E+0	1.483434E+0	1.453553E+0	1.447779E+0	1.422135E+0	1.409023E+0	1.450037E+0	1.418950E+0	1.438399E+0	1.396324E+0	1.413067E+0	1.424539E+0	1.462949E+0	1.403690E+0	1.468774E+0	1.419640E+0	1.419338E+0	1.494576E+0	1.446722E+0	1.443644E+0	1.426378E+0	1.422501E+0	1.461819E+0	1.411017E+0	1.436522E+0	1.353567E+0	1.380531E+0	1.420473E+0	1.439880E+0	1.421694E+0	1.446663E+0	1.429668E+0	1.447706E+0	1.457360E+0	1.475268E+0	1.460922E+0	1.453379E+0	1.388950E+0	1.348141E+0	1.503522E+0	1.491708E+0
5.390390E+2	1.759304E+0	1.613691E+0	1.745226E+0	1.608658E+0	1.688618E+0	1.706462E+0	1.728113E+0	1.688150E+0	1.665435E+0	1.741929E+0	1.632548E+0	1.676785E+0	1.699930E+0	1.698245E+0	1.717443E+0	1.682627E+0	1.662177E+0	1.651740E+0	1.716630E+0	1.690052E+0	1.701705E+0	1.645486E+0	1.687002E+0	1.670916E+0	1.663949E+0	1.666462E+0	1.673544E+0	1.700959E+0	1.680257E+0	1.694030E+0	1.632314E+0	1.692581E+0	1.739638E+0	1.658645E+0	1.659054E+0	1.655670E+0	1.666910E+0	1.658931E+0	1.678966E+0	1.735917E+0	1.670654E+0	1.632385E+0	1.676384E+0	1.643634E+0	1.686706E+0	1.734114E+0	1.660154E+0	1.722046E+0	1.651567E+0	1.690916E+0	1.732743E+0	1.688569E+0	1.646204E+0	1.671870E+0	1.681608E+0	1.727608E+0	1.667830E+0	1.711645E+0	1.691692E+0	1.674300E+0	1.628605E+0	1.736636E+0	1.730802E+0	1.663011E+0	1.673353E+0	1.682933E+0	1.681580E+0	1.742899E+0	1.695666E+0	1.695341E+0	1.689174E+0	1.670033E+0	1.624245E+0	1.695276E+0	1.654677E+0	1.662320E+0	1.640513E+0	1.706752E+0	1.709197E+0	1.628464E+0	1.631531E+0	1.716103E+0	1.664024E+0	1.645039E+0	1.715925E+0	1.665102E+0	1.714655E+0	1.685712E+0	1.646350E+0	1.664215E+0	1.653690E+0	1.593728E+0	1.683485E+0	1.657780E+0	1.672176E+0	1.700253E+0	1.634053E+0	1.664795E+0	1.660351E+0	1.667719E+0	1.681585E+0	1.637865E+0	1.666831E+0	1.705342E+0	1.630410E+0	1.677960E+0	1.719137E+0	1.626946E+0	1.619107E+0	1.718821E+0	1.641091E+0	1.644606E+0	1.611300E+0	1.670497E+0	1.673383E+0	1.643483E+0	1.717877E+0	1.657948E+0	1.638253E+0	1.703457E+0	1.619671E+0	1.664122E+0	1.692432E+0	1.710167E+0	1.629105E+0	1.658841E+0	1.703794E+0	1.636914E+0	1.674693E+0	1.647508E+0	1.611090E+0	1.688263E+0	1.720564E+0	1.723740E+0	1.657943E+0	1.630366E+0	1.633573E+0	1.689833E+0	1.645923E+0	1.634467E+0	1.685970E+0	1.607758E+0	1.634775E+0	1.684091E+0	1.719241E+0	1.638594E+0	1.634826E+0	1.571710E+0	1.690417E+0	1.673889E+0	1.691328E+0	1.604237E+0	1.593786E+0	1.686656E+0	1.626007E+0	1.657211E+0	1.618435E+0	1.659148E+0	1.678208E+0	1.697936E+0	1.631481E+0	1.668069E+0	1.633880E+0	1.656765E+0	1.585138E+0	1.691774E+0	1.648499E+0	1.653384E+0	1.630048E+0	1.711757E+0	1.599859E+0	1.668615E+0
5.392720E+2	1.867281E+0	1.886821E+0	1.912835E+0	1.896455E+0	1.886879E+0	1.846457E+0	1.847354E+0	1.877951E+0	1.876051E+0	1.877211E+0	1.864646E+0	1.849479E+0	1.844964E+0	1.867761E+0	1.898819E+0	1.907450E+0	1.878792E+0	1.849009E+0	1.852811E+0	1.891993E+0	1.826627E+0	1.804849E+0	1.842669E+0	1.924979E+0	1.850566E+0	1.840777E+0	1.862130E+0	1.866452E+0	1.869500E+0	1.863131E+0	1.842890E+0	1.847694E+0	1.881321E+0	1.923897E+0	1.836350E+0	1.833887E+0	1.890450E+0	1.883090E+0	1.848736E+0	1.825410E+0	1.831996E+0	1.824806E+0	1.942908E+0	1.857950E+0	1.856056E+0	1.875528E+0	1.865152E+0	1.843230E+0	1.776028E+0	1.830062E+0	1.855077E+0	1.921568E+0	1.798187E+0	1.874146E+0	1.877599E+0	1.882998E+0	1.863796E+0	1.888617E+0	1.800702E+0	1.897398E+0	1.773446E+0	1.785600E+0	1.889964E+0	1.844388E+0	1.796800E+0	1.805648E+0	1.835885E+0	1.843937E+0	1.840094E+0	1.856922E+0	1.847851E+0	1.852692E+0	1.782354E+0	1.804169E+0	1.798299E+0	1.865254E+0	1.808940E+0	1.840214E+0	1.772136E+0	1.889054E+0	1.823509E+0	1.863719E+0	1.883447E+0	1.811869E+0	1.779940E+0	1.866329E+0	1.856814E+0	1.868414E+0	1.862983E+0	1.820717E+0	1.872246E+0	1.820311E+0	1.831022E+0	1.785422E+0	1.865677E+0	1.817934E+0	1.880632E+0	1.847146E+0	1.830000E+0	1.834848E+0	1.836191E+0	1.803208E+0	1.845730E+0	1.797124E+0	1.823179E+0	1.877018E+0	1.875446E+0	1.846264E+0	1.816319E+0	1.868101E+0	1.850253E+0	1.871650E+0	1.788404E+0	1.837716E+0	1.852489E+0	1.837256E+0	1.809882E+0	1.812860E+0	1.878361E+0	1.863343E+0	1.846776E+0	1.818678E+0	1.890638E+0	1.866376E+0	1.820499E+0	1.895811E+0	1.818656E+0	1.786581E+0	1.812996E+0	1.806890E+0	1.839144E+0	1.830349E+0	1.819529E+0	1.883199E+0	1.841683E+0	1.800155E+0	1.813808E+0	1.802813E+0	1.827337E+0	1.794375E+0	1.819060E+0	1.743509E+0	1.837708E+0	1.866026E+0	1.812095E+0	1.842593E+0	1.801740E+0	1.771986E+0	1.905199E+0	1.852371E+0	1.822499E+0	1.868348E+0	1.779250E+0	1.844785E+0	1.816917E+0	1.800439E+0	1.746387E+0	1.890120E+0	1.800060E+0	1.823670E+0	1.801462E+0	1.774262E+0	1.848991E+0	1.854795E+0	1.785964E+0	1.824457E+0	1.838269E+0	1.798164E+0	1.783371E+0	1.769968E+0	1.766393E+0	1.877764E+0
5.395160E+2	1.954412E+0	2.005320E+0	1.964207E+0	1.938451E+0	1.981683E+0	1.929258E+0	1.924779E+0	1.966145E+0	1.906366E+0	1.932480E+0	1.982792E+0	1.973491E+0	1.933146E+0	2.021722E+0	1.925994E+0	1.993631E+0	1.982094E+0	1.965866E+0	1.902617E+0	2.042482E+0	1.908029E+0	1.961299E+0	1.952326E+0	1.940952E+0	1.888223E+0	1.975649E+0	1.942343E+0	1.970264E+0	1.987527E+0	1.908853E+0	1.972083E+0	1.994451E+0	1.980870E+0	1.983019E+0	1.970328E+0	2.011322E+0	1.991775E+0	1.917915E+0	1.982165E+0	1.975239E+0	1.976799E+0	1.868893E+0	2.004417E+0	1.919335E+0	1.947047E+0	1.998184E+0	1.938848E+0	2.008071E+0	1.915211E+0	1.914570E+0	1.963014E+0	2.014239E+0	1.903049E+0	1.942663E+0	1.892409E+0	1.969917E+0	1.910270E+0	1.967478E+0	1.894635E+0	1.932929E+0	1.920290E+0	1.855590E+0	1.972800E+0	2.007899E+0	1.886944E+0	1.894733E+0	1.940923E+0	1.873872E+0	1.933764E+0	1.901587E+0	1.969937E+0	1.973202E+0	1.839624E+0	1.936220E+0	1.878213E+0	1.928671E+0	1.925387E+0	1.936698E+0	1.921738E+0	1.937769E+0	1.922639E+0	1.932368E+0	2.016925E+0	1.880265E+0	1.931826E+0	1.963383E+0	2.020716E+0	1.953630E+0	1.959860E+0	1.923942E+0	1.927996E+0	1.937865E+0	1.919376E+0	1.927057E+0	1.972359E+0	1.950182E+0	1.980718E+0	1.949333E+0	1.909767E+0	1.976912E+0	1.901862E+0	1.894734E+0	2.001968E+0	1.947363E+0	1.897114E+0	1.979961E+0	1.983251E+0	1.893107E+0	1.909624E+0	1.902129E+0	1.915176E+0	1.896480E+0	1.910682E+0	1.905959E+0	1.967376E+0	1.900901E+0	1.917432E+0	1.869306E+0	1.940564E+0	1.885725E+0	1.896441E+0	1.899253E+0	1.949795E+0	1.909363E+0	1.864325E+0	1.909067E+0	1.980782E+0	1.900472E+0	1.895241E+0	1.928474E+0	1.918597E+0	1.925665E+0	1.888660E+0	1.936061E+0	1.992894E+0	1.900424E+0	1.869040E+0	1.927408E+0	1.956369E+0	1.883745E+0	1.884540E+0	1.894459E+0	1.884411E+0	1.928272E+0	1.852857E+0	1.958115E+0	1.931475E+0	1.968219E+0	1.997400E+0	1.884610E+0	1.942781E+0	1.912246E+0	1.898848E+0	1.901320E+0	1.907734E+0	1.906909E+0	1.909914E+0	1.883481E+0	1.924017E+0	1.940157E+0	1.897669E+0	1.877681E+0	1.900696E+0	1.850439E+0	1.917917E+0	1.885725E+0	1.939357E+0	1.896012E+0	1.787596E+0	1.848301E+0	1.815880E+0	1.863746E+0
5.397750E+2	1.939592E+0	1.927477E+0	2.101208E+0	1.888631E+0	1.917399E+0	1.874704E+0	1.938501E+0	1.989236E+0	1.939462E+0	1.914917E+0	1.919371E+0	2.005502E+0	1.860881E+0	1.933562E+0	1.984530E+0	1.959238E+0	1.935712E+0	1.876485E+0	1.930739E+0	1.925077E+0	1.931607E+0	1.910990E+0	1.931778E+0	1.915332E+0	1.894308E+0	1.920906E+0	1.926386E+0	1.863858E+0	1.908558E+0	1.899937E+0	2.005111E+0	1.932620E+0	1.961872E+0	1.891241E+0	1.853989E+0	2.001931E+0	1.876382E+0	1.867827E+0	1.922158E+0	1.866418E+0	1.903318E+0	1.872575E+0	1.885576E+0	1.871191E+0	1.863716E+0	1.905256E+0	1.907090E+0	1.900165E+0	1.873982E+0	1.891196E+0	1.935856E+0	1.887674E+0	1.898731E+0	1.899595E+0	1.944670E+0	1.912638E+0	1.927983E+0	1.928905E+0	1.895758E+0	1.907291E+0	1.891878E+0	1.856354E+0	1.933872E+0	1.888669E+0	1.889376E+0	1.883030E+0	1.926835E+0	1.926179E+0	1.882713E+0	1.836702E+0	1.929305E+0	1.915198E+0	1.887209E+0	1.850693E+0	1.913480E+0	2.023312E+0	1.825144E+0	1.909313E+0	1.882666E+0	1.946884E+0	1.889329E+0	1.893743E+0	1.913179E+0	1.892387E+0	1.878012E+0	1.899190E+0	1.981675E+0	1.900537E+0	1.877608E+0	1.861688E+0	1.944786E+0	1.892682E+0	1.900025E+0	1.825178E+0	1.897563E+0	1.906620E+0	1.891902E+0	1.909928E+0	1.903470E+0	1.915952E+0	1.903711E+0	1.853347E+0	1.937555E+0	1.938412E+0	1.903551E+0	1.952512E+0	1.948363E+0	1.957091E+0	1.885833E+0	1.876994E+0	1.919512E+0	1.910564E+0	1.823492E+0	1.922852E+0	1.875470E+0	1.910544E+0	1.879114E+0	1.840388E+0	1.896836E+0	1.872032E+0	1.873782E+0	1.863839E+0	1.942103E+0	1.968084E+0	1.852599E+0	1.819731E+0	1.903285E+0	1.922557E+0	1.889713E+0	1.914941E+0	1.949650E+0	1.917162E+0	1.907834E+0	1.961995E+0	1.874006E+0	1.914428E+0	1.850168E+0	1.870126E+0	1.843333E+0	1.862917E+0	1.885730E+0	1.847212E+0	1.885942E+0	1.872724E+0	1.846843E+0	1.883536E+0	1.891716E+0	1.850905E+0	1.907264E+0	1.858851E+0	1.924068E+0	1.870448E+0	1.835475E+0	1.890873E+0	1.868029E+0	1.882957E+0	1.827222E+0	1.803185E+0	1.921007E+0	1.887959E+0	1.851767E+0	1.903281E+0	1.850902E+0	1.922104E+0	1.882520E+0	1.902822E+0	1.897444E+0	1.878182E+0	1.756182E+0	1.847566E+0	1.772684E+0	1.897229E+0
5.400240E+2	1.975156E+0	2.001695E+0	2.035028E+0	1.951291E+0	1.972165E+0	2.026453E+0	2.004055E+0	2.011563E+0	1.981193E+0	2.031855E+0	1.978215E+0	2.040116E+0	1.922066E+0	2.025862E+0	1.986084E+0	1.980359E+0	1.927153E+0	1.990763E+0	1.918721E+0	2.009026E+0	1.949791E+0	1.930134E+0	1.988682E+0	1.969868E+0	2.002972E+0	1.975792E+0	1.972646E+0	1.996696E+0	2.025394E+0	1.937384E+0	2.022373E+0	1.997713E+0	1.972075E+0	1.960117E+0	1.928400E+0	1.985601E+0	1.957323E+0	1.968817E+0	1.973251E+0	1.933068E+0	1.974858E+0	1.897577E+0	1.931048E+0	1.972139E+0	1.977178E+0	1.989038E+0	1.964959E+0	2.017887E+0	1.933671E+0	1.900281E+0	2.041929E+0	1.944538E+0	1.955420E+0	1.972506E+0	1.976514E+0	1.964672E+0	1.969671E+0	1.975233E+0	1.958748E+0	1.956411E+0	1.948675E+0	1.885491E+0	1.963570E+0	1.919238E+0	1.920392E+0	1.923261E+0	1.977115E+0	1.987397E+0	1.931182E+0	1.889538E+0	1.983722E+0	1.973165E+0	1.885680E+0	1.864844E+0	1.933496E+0	1.990412E+0	1.946464E+0	1.914610E+0	1.924910E+0	1.968020E+0	1.916558E+0	1.902376E+0	1.999513E+0	1.883308E+0	1.914074E+0	1.937138E+0	1.969322E+0	1.970321E+0	1.923433E+0	1.927651E+0	1.907685E+0	1.903480E+0	1.901300E+0	1.900876E+0	1.967460E+0	1.906976E+0	1.959745E+0	1.960365E+0	1.895503E+0	1.954314E+0	1.976151E+0	1.951938E+0	1.983370E+0	1.931704E+0	1.897789E+0	1.994418E+0	1.968030E+0	1.932616E+0	1.932439E+0	1.947091E+0	1.934022E+0	1.952925E+0	1.974712E+0	1.994299E+0	1.961410E+0	1.906898E+0	1.937208E+0	1.873676E+0	1.986237E+0	1.923841E+0	1.847061E+0	1.890168E+0	1.965777E+0	1.995955E+0	1.892206E+0	1.890092E+0	2.019166E+0	1.900969E+0	1.983045E+0	1.915336E+0	1.897297E+0	1.964442E+0	1.950269E+0	1.957801E+0	1.972434E+0	1.934035E+0	1.839228E+0	1.949090E+0	1.953195E+0	1.917680E+0	1.918261E+0	1.922710E+0	1.862373E+0	1.872225E+0	1.840705E+0	1.937531E+0	1.968074E+0	1.893825E+0	1.940624E+0	1.897581E+0	1.952082E+0	1.947192E+0	1.894176E+0	1.953340E+0	1.900532E+0	1.894711E+0	1.893328E+0	1.884708E+0	1.919480E+0	1.990407E+0	1.854019E+0	1.907728E+0	1.920074E+0	1.916892E+0	1.901578E+0	1.841189E+0	1.905239E+0	1.874511E+0	1.836252E+0	1.884000E+0	1.957987E+0	2.003596E+0
5.402850E+2	2.038211E+0	1.971680E+0	1.998571E+0	1.955568E+0	1.937577E+0	1.895476E+0	1.873021E+0	1.918960E+0	1.939230E+0	1.944740E+0	1.960571E+0	1.933769E+0	1.890287E+0	1.946481E+0	1.918584E+0	1.944482E+0	1.909415E+0	1.892489E+0	1.941249E+0	1.897522E+0	1.930268E+0	1.885132E+0	1.967097E+0	1.959533E+0	1.951782E+0	1.875958E+0	1.915188E+0	1.956623E+0	1.961607E+0	1.870215E+0	1.912945E+0	1.979161E+0	1.901058E+0	1.929899E+0	1.953451E+0	1.938520E+0	1.916559E+0	1.893932E+0	1.876330E+0	1.932497E+0	1.894890E+0	1.856459E+0	1.965968E+0	1.908803E+0	1.961847E+0	1.916606E+0	1.968143E+0	1.913068E+0	1.867467E+0	1.916889E+0	1.878435E+0	1.937346E+0	1.948650E+0	1.930393E+0	1.909230E+0	1.963816E+0	1.920918E+0	1.933331E+0	1.924930E+0	1.950604E+0	1.893308E+0	1.926427E+0	1.976504E+0	1.896796E+0	1.882881E+0	1.825209E+0	1.927372E+0	1.926745E+0	1.925314E+0	1.901107E+0	1.888096E+0	1.947064E+0	1.857936E+0	1.882103E+0	1.936294E+0	1.969673E+0	1.881928E+0	1.913272E+0	1.913354E+0	1.958428E+0	1.918050E+0	1.860020E+0	1.928324E+0	1.933781E+0	1.946804E+0	1.950862E+0	1.925955E+0	1.925218E+0	1.923297E+0	1.869114E+0	1.952986E+0	1.895781E+0	1.976351E+0	1.897096E+0	1.966882E+0	1.885722E+0	2.000551E+0	1.922029E+0	1.857740E+0	1.882019E+0	1.870473E+0	1.858880E+0	1.983506E+0	1.995276E+0	1.907518E+0	1.925888E+0	1.951112E+0	1.897336E+0	1.867651E+0	1.848184E+0	1.934485E+0	1.903217E+0	1.901616E+0	1.901481E+0	1.800393E+0	1.892382E+0	1.928440E+0	1.896199E+0	1.879368E+0	1.857532E+0	1.926129E+0	1.808777E+0	1.896819E+0	1.921398E+0	1.827688E+0	1.796223E+0	1.992178E+0	1.905954E+0	1.919150E+0	1.835812E+0	1.931122E+0	1.976076E+0	1.932025E+0	1.931514E+0	1.887555E+0	1.801415E+0	1.836176E+0	1.888716E+0	1.873794E+0	1.923092E+0	1.856881E+0	1.825151E+0	1.818476E+0	1.911518E+0	1.882501E+0	1.901978E+0	1.902211E+0	1.873487E+0	1.929718E+0	1.863859E+0	1.864234E+0	1.898163E+0	1.868809E+0	1.854884E+0	1.857847E+0	1.906383E+0	1.843686E+0	1.848421E+0	1.848290E+0	1.874571E+0	1.853614E+0	1.888572E+0	1.896883E+0	1.828408E+0	1.848729E+0	1.857220E+0	1.895474E+0	1.877413E+0	1.794170E+0	1.849565E+0	1.850753E+0	1.884126E+0
5.405130E+2	2.012684E+0	1.880081E+0	1.909810E+0	1.866511E+0	1.892951E+0	1.872923E+0	1.876986E+0	1.904973E+0	1.898436E+0	1.970753E+0	1.931902E+0	1.882400E+0	1.887180E+0	1.876712E+0	1.900972E+0	1.922106E+0	1.921261E+0	1.836376E+0	1.956607E+0	1.870636E+0	1.915947E+0	1.841257E+0	1.860695E+0	1.877254E+0	1.876860E+0	1.882965E+0	1.899635E+0	1.969289E+0	1.878981E+0	1.866147E+0	1.901647E+0	1.872477E+0	1.859039E+0	1.903211E+0	1.931695E+0	1.849429E+0	1.916871E+0	1.868998E+0	1.927793E+0	1.863166E+0	1.862024E+0	1.831826E+0	1.848094E+0	1.889947E+0	1.921900E+0	1.876196E+0	1.895522E+0	1.913692E+0	1.836562E+0	1.928384E+0	1.939527E+0	1.865982E+0	1.890563E+0	1.886643E+0	1.870161E+0	1.920590E+0	1.875111E+0	1.855241E+0	1.871711E+0	1.820733E+0	1.837307E+0	1.804808E+0	1.910535E+0	1.837878E+0	1.910693E+0	1.788754E+0	1.969347E+0	1.857958E+0	1.932912E+0	1.845780E+0	1.812918E+0	1.841239E+0	1.837638E+0	1.821524E+0	1.866161E+0	1.882163E+0	1.905740E+0	1.912358E+0	1.914478E+0	1.896221E+0	1.843622E+0	1.855082E+0	1.914389E+0	1.806789E+0	1.847424E+0	1.877709E+0	1.866420E+0	1.906416E+0	1.921696E+0	1.890498E+0	1.855640E+0	1.812786E+0	1.819672E+0	1.770468E+0	1.938846E+0	1.841863E+0	1.901229E+0	1.878193E+0	1.858113E+0	1.882288E+0	1.856826E+0	1.817829E+0	1.927091E+0	1.841534E+0	1.771064E+0	1.858584E+0	1.900813E+0	1.861145E+0	1.834791E+0	1.876465E+0	1.887712E+0	1.872033E+0	1.866029E+0	1.874481E+0	1.815898E+0	1.853430E+0	1.826310E+0	1.846932E+0	1.916611E+0	1.825257E+0	1.885556E+0	1.753382E+0	1.888844E+0	1.851963E+0	1.825212E+0	1.858967E+0	1.942885E+0	1.882690E+0	1.864599E+0	1.833791E+0	1.869472E+0	1.922587E+0	1.821520E+0	1.893815E+0	1.871262E+0	1.805719E+0	1.842074E+0	1.892869E+0	1.835175E+0	1.805347E+0	1.792830E+0	1.779487E+0	1.822717E+0	1.861131E+0	1.825138E+0	1.828604E+0	1.840577E+0	1.855275E+0	1.865822E+0	1.860823E+0	1.876203E+0	1.818435E+0	1.836503E+0	1.779387E+0	1.853821E+0	1.846053E+0	1.816358E+0	1.761029E+0	1.822774E+0	1.835837E+0	1.836878E+0	1.826461E+0	1.838634E+0	1.829698E+0	1.835481E+0	1.823194E+0	1.867193E+0	1.843523E+0	1.832657E+0	1.754124E+0	1.809657E+0	1.762211E+0
5.407740E+2	1.806312E+0	1.785519E+0	1.848760E+0	1.775047E+0	1.796152E+0	1.800893E+0	1.837679E+0	1.810466E+0	1.786796E+0	1.850575E+0	1.798391E+0	1.830972E+0	1.754672E+0	1.828929E+0	1.796482E+0	1.891100E+0	1.777287E+0	1.725171E+0	1.793282E+0	1.763677E+0	1.797125E+0	1.747515E+0	1.841185E+0	1.822493E+0	1.717548E+0	1.786221E+0	1.802210E+0	1.838740E+0	1.796913E+0	1.800640E+0	1.783745E+0	1.806534E+0	1.769986E+0	1.817167E+0	1.796544E+0	1.886580E+0	1.841162E+0	1.792809E+0	1.791898E+0	1.762226E+0	1.763818E+0	1.784060E+0	1.813792E+0	1.798098E+0	1.803598E+0	1.762465E+0	1.774860E+0	1.762960E+0	1.774662E+0	1.831313E+0	1.828427E+0	1.792937E+0	1.757003E+0	1.795707E+0	1.752394E+0	1.822841E+0	1.757341E+0	1.784204E+0	1.873469E+0	1.829198E+0	1.775393E+0	1.698489E+0	1.831140E+0	1.782019E+0	1.761296E+0	1.778452E+0	1.829275E+0	1.800679E+0	1.801100E+0	1.767894E+0	1.790650E+0	1.723434E+0	1.749600E+0	1.736685E+0	1.764027E+0	1.820739E+0	1.774739E+0	1.742846E+0	1.768906E+0	1.808528E+0	1.652889E+0	1.776223E+0	1.801499E+0	1.706584E+0	1.740233E+0	1.825939E+0	1.728437E+0	1.786674E+0	1.819280E+0	1.778156E+0	1.792959E+0	1.843491E+0	1.737644E+0	1.707623E+0	1.796896E+0	1.801173E+0	1.820166E+0	1.825108E+0	1.756550E+0	1.759058E+0	1.736793E+0	1.766389E+0	1.785846E+0	1.800049E+0	1.737122E+0	1.737651E+0	1.814370E+0	1.757519E+0	1.701886E+0	1.756920E+0	1.730135E+0	1.788907E+0	1.751210E+0	1.786026E+0	1.822617E+0	1.764331E+0	1.775033E+0	1.759238E+0	1.759577E+0	1.796983E+0	1.743369E+0	1.730650E+0	1.778297E+0	1.814914E+0	1.716267E+0	1.757360E+0	1.763468E+0	1.699358E+0	1.758615E+0	1.757050E+0	1.771134E+0	1.797472E+0	1.783187E+0	1.795696E+0	1.781857E+0	1.762234E+0	1.764933E+0	1.748940E+0	1.756600E+0	1.813294E+0	1.775446E+0	1.736470E+0	1.743848E+0	1.752168E+0	1.732678E+0	1.747027E+0	1.741747E+0	1.708043E+0	1.739668E+0	1.709181E+0	1.786076E+0	1.738465E+0	1.731973E+0	1.681430E+0	1.807115E+0	1.737529E+0	1.676708E+0	1.765306E+0	1.743709E+0	1.782455E+0	1.754408E+0	1.777334E+0	1.770337E+0	1.760623E+0	1.744685E+0	1.729896E+0	1.763490E+0	1.742394E+0	1.685542E+0	1.667506E+0	1.712897E+0	1.922406E+0
5.410240E+2	1.782882E+0	1.717335E+0	1.812339E+0	1.708869E+0	1.747110E+0	1.650267E+0	1.755027E+0	1.722949E+0	1.705269E+0	1.797179E+0	1.765984E+0	1.712261E+0	1.734355E+0	1.726193E+0	1.743774E+0	1.734115E+0	1.761435E+0	1.638396E+0	1.700569E+0	1.818350E+0	1.764683E+0	1.670076E+0	1.729877E+0	1.703939E+0	1.684979E+0	1.640591E+0	1.738313E+0	1.773459E+0	1.772267E+0	1.699463E+0	1.737097E+0	1.758000E+0	1.750834E+0	1.774907E+0	1.720999E+0	1.743898E+0	1.714636E+0	1.736077E+0	1.746733E+0	1.725470E+0	1.771359E+0	1.669485E+0	1.740224E+0	1.698062E+0	1.718116E+0	1.725769E+0	1.717983E+0	1.718537E+0	1.707247E+0	1.724006E+0	1.751712E+0	1.691837E+0	1.671215E+0	1.735781E+0	1.669063E+0	1.721933E+0	1.721528E+0	1.744731E+0	1.694619E+0	1.756835E+0	1.668878E+0	1.704914E+0	1.734126E+0	1.730813E+0	1.761438E+0	1.678672E+0	1.756792E+0	1.708710E+0	1.750338E+0	1.748434E+0	1.692162E+0	1.722654E+0	1.625208E+0	1.721246E+0	1.685915E+0	1.680385E+0	1.597359E+0	1.621516E+0	1.695985E+0	1.665999E+0	1.688930E+0	1.719374E+0	1.695393E+0	1.683665E+0	1.720319E+0	1.785185E+0	1.717731E+0	1.777643E+0	1.708125E+0	1.720728E+0	1.738920E+0	1.707404E+0	1.709032E+0	1.697588E+0	1.715422E+0	1.679608E+0	1.644388E+0	1.746075E+0	1.717469E+0	1.690844E+0	1.700028E+0	1.710123E+0	1.682957E+0	1.689070E+0	1.685036E+0	1.723714E+0	1.676163E+0	1.692957E+0	1.698389E+0	1.728866E+0	1.739988E+0	1.714876E+0	1.706536E+0	1.695487E+0	1.694086E+0	1.725028E+0	1.709722E+0	1.686443E+0	1.720493E+0	1.776234E+0	1.656639E+0	1.647465E+0	1.674955E+0	1.770873E+0	1.675491E+0	1.717854E+0	1.775242E+0	1.709871E+0	1.663457E+0	1.671805E+0	1.716833E+0	1.709415E+0	1.739837E+0	1.667467E+0	1.715753E+0	1.647396E+0	1.701882E+0	1.733557E+0	1.690928E+0	1.652091E+0	1.715100E+0	1.713951E+0	1.703770E+0	1.621521E+0	1.650772E+0	1.685270E+0	1.702630E+0	1.640200E+0	1.685498E+0	1.703464E+0	1.740992E+0	1.697668E+0	1.661451E+0	1.723980E+0	1.707215E+0	1.640541E+0	1.664452E+0	1.733409E+0	1.666920E+0	1.670760E+0	1.597034E+0	1.648442E+0	1.745236E+0	1.701406E+0	1.667066E+0	1.653954E+0	1.714858E+0	1.660323E+0	1.618361E+0	1.660895E+0	1.782877E+0	1.786772E+0
5.412690E+2	1.652532E+0	1.639900E+0	1.575116E+0	1.605349E+0	1.580741E+0	1.583533E+0	1.664751E+0	1.555313E+0	1.621467E+0	1.660826E+0	1.583923E+0	1.580365E+0	1.596582E+0	1.662539E+0	1.633394E+0	1.598775E+0	1.625354E+0	1.631158E+0	1.643995E+0	1.614497E+0	1.619555E+0	1.581945E+0	1.628250E+0	1.675125E+0	1.561622E+0	1.637802E+0	1.590113E+0	1.626888E+0	1.634264E+0	1.584015E+0	1.628694E+0	1.672203E+0	1.625773E+0	1.597917E+0	1.561873E+0	1.602824E+0	1.568409E+0	1.616110E+0	1.665217E+0	1.561373E+0	1.651619E+0	1.589982E+0	1.614056E+0	1.608321E+0	1.610894E+0	1.611290E+0	1.586351E+0	1.625825E+0	1.625035E+0	1.642535E+0	1.647998E+0	1.617123E+0	1.600218E+0	1.618866E+0	1.592661E+0	1.585311E+0	1.584125E+0	1.621641E+0	1.639153E+0	1.641825E+0	1.577852E+0	1.550505E+0	1.619448E+0	1.646913E+0	1.564091E+0	1.560800E+0	1.621467E+0	1.606979E+0	1.635013E+0	1.607519E+0	1.585147E+0	1.627268E+0	1.549990E+0	1.549616E+0	1.577160E+0	1.694125E+0	1.599878E+0	1.553736E+0	1.585325E+0	1.589736E+0	1.545878E+0	1.576000E+0	1.660741E+0	1.566930E+0	1.598155E+0	1.623202E+0	1.623465E+0	1.588476E+0	1.605981E+0	1.561783E+0	1.642503E+0	1.643865E+0	1.658852E+0	1.517307E+0	1.639064E+0	1.605528E+0	1.619212E+0	1.617199E+0	1.629493E+0	1.608654E+0	1.531600E+0	1.619918E+0	1.650900E+0	1.564883E+0	1.596755E+0	1.623653E+0	1.584114E+0	1.622628E+0	1.583249E+0	1.565083E+0	1.611263E+0	1.651195E+0	1.584102E+0	1.560580E+0	1.633162E+0	1.614188E+0	1.580374E+0	1.554470E+0	1.594714E+0	1.584092E+0	1.596239E+0	1.561297E+0	1.599443E+0	1.586303E+0	1.557448E+0	1.566072E+0	1.638888E+0	1.614907E+0	1.597939E+0	1.588145E+0	1.580324E+0	1.610490E+0	1.578328E+0	1.606896E+0	1.652452E+0	1.570552E+0	1.515451E+0	1.525321E+0	1.552935E+0	1.585756E+0	1.585786E+0	1.527471E+0	1.604105E+0	1.547748E+0	1.619348E+0	1.576285E+0	1.641114E+0	1.564028E+0	1.629815E+0	1.612430E+0	1.608737E+0	1.508569E+0	1.561971E+0	1.604160E+0	1.512875E+0	1.574635E+0	1.496522E+0	1.602534E+0	1.553347E+0	1.630735E+0	1.621266E+0	1.538229E+0	1.588139E+0	1.588367E+0	1.606970E+0	1.615066E+0	1.569012E+0	1.600526E+0	1.467078E+0	1.617787E+0	1.569591E+0	1.643137E+0
5.415090E+2	1.471496E+0	1.452061E+0	1.554847E+0	1.465265E+0	1.471098E+0	1.414322E+0	1.475201E+0	1.480623E+0	1.506470E+0	1.478610E+0	1.464600E+0	1.449778E+0	1.488820E+0	1.491803E+0	1.435425E+0	1.511178E+0	1.464337E+0	1.388772E+0	1.456544E+0	1.498393E+0	1.502292E+0	1.421474E+0	1.508582E+0	1.439997E+0	1.410352E+0	1.420938E+0	1.416196E+0	1.454329E+0	1.471376E+0	1.418338E+0	1.413891E+0	1.510247E+0	1.445116E+0	1.390639E+0	1.463662E+0	1.453101E+0	1.440352E+0	1.429938E+0	1.474128E+0	1.394587E+0	1.421419E+0	1.394130E+0	1.464314E+0	1.491515E+0	1.462034E+0	1.501555E+0	1.427437E+0	1.453962E+0	1.446607E+0	1.412471E+0	1.463071E+0	1.465950E+0	1.419556E+0	1.443492E+0	1.415100E+0	1.496838E+0	1.440244E+0	1.451732E+0	1.467009E+0	1.522917E+0	1.461559E+0	1.403969E+0	1.416574E+0	1.463029E+0	1.429583E+0	1.412304E+0	1.450101E+0	1.476218E+0	1.460998E+0	1.461002E+0	1.459495E+0	1.476014E+0	1.445702E+0	1.487048E+0	1.449231E+0	1.566516E+0	1.470067E+0	1.434467E+0	1.460172E+0	1.502225E+0	1.449078E+0	1.374553E+0	1.464925E+0	1.456756E+0	1.463740E+0	1.493116E+0	1.419541E+0	1.449516E+0	1.448792E+0	1.422870E+0	1.449188E+0	1.423535E+0	1.472133E+0	1.376085E+0	1.463363E+0	1.479589E+0	1.454857E+0	1.490523E+0	1.422011E+0	1.434029E+0	1.446080E+0	1.435911E+0	1.482485E+0	1.455878E+0	1.469973E+0	1.465655E+0	1.470843E+0	1.448457E+0	1.426970E+0	1.416961E+0	1.409776E+0	1.470886E+0	1.399137E+0	1.452659E+0	1.446426E+0	1.434188E+0	1.448905E+0	1.469448E+0	1.441024E+0	1.458140E+0	1.442349E+0	1.366875E+0	1.442913E+0	1.428743E+0	1.392791E+0	1.462994E+0	1.447735E+0	1.502274E+0	1.431941E+0	1.451435E+0	1.462298E+0	1.485397E+0	1.455987E+0	1.464708E+0	1.469147E+0	1.435409E+0	1.390739E+0	1.431215E+0	1.460842E+0	1.480421E+0	1.467128E+0	1.392206E+0	1.418524E+0	1.438464E+0	1.394819E+0	1.456227E+0	1.387696E+0	1.446632E+0	1.398589E+0	1.447232E+0	1.434931E+0	1.490806E+0	1.403516E+0	1.459482E+0	1.480731E+0	1.421502E+0	1.411362E+0	1.407036E+0	1.441375E+0	1.495444E+0	1.376283E+0	1.428074E+0	1.438879E+0	1.445672E+0	1.427369E+0	1.414856E+0	1.487107E+0	1.472487E+0	1.413154E+0	1.459373E+0	1.464804E+0	1.450227E+0
5.417760E+2	1.289294E+0	1.276965E+0	1.252072E+0	1.270190E+0	1.196024E+0	1.218737E+0	1.247635E+0	1.242912E+0	1.231792E+0	1.288500E+0	1.226596E+0	1.221601E+0	1.217102E+0	1.284752E+0	1.233694E+0	1.232775E+0	1.263731E+0	1.208703E+0	1.209032E+0	1.248348E+0	1.236218E+0	1.212487E+0	1.255513E+0	1.245168E+0	1.240268E+0	1.273685E+0	1.251793E+0	1.268039E+0	1.215469E+0	1.256465E+0	1.252374E+0	1.312082E+0	1.275070E+0	1.251880E+0	1.246975E+0	1.278682E+0	1.217161E+0	1.222633E+0	1.236547E+0	1.218805E+0	1.273417E+0	1.206076E+0	1.307655E+0	1.237305E+0	1.215426E+0	1.268299E+0	1.250978E+0	1.245854E+0	1.230521E+0	1.258969E+0	1.272343E+0	1.255211E+0	1.239313E+0	1.264410E+0	1.208880E+0	1.311991E+0	1.225426E+0	1.281348E+0	1.248435E+0	1.326192E+0	1.226528E+0	1.211839E+0	1.190538E+0	1.241018E+0	1.279966E+0	1.248694E+0	1.255116E+0	1.266556E+0	1.272805E+0	1.222617E+0	1.242202E+0	1.254097E+0	1.248826E+0	1.249489E+0	1.249290E+0	1.292586E+0	1.242727E+0	1.195818E+0	1.238515E+0	1.281111E+0	1.259281E+0	1.212038E+0	1.184215E+0	1.208486E+0	1.272674E+0	1.248064E+0	1.266222E+0	1.272550E+0	1.263754E+0	1.264761E+0	1.254215E+0	1.227408E+0	1.250997E+0	1.239014E+0	1.249456E+0	1.245173E+0	1.243541E+0	1.257138E+0	1.286948E+0	1.255827E+0	1.247752E+0	1.231115E+0	1.243689E+0	1.310868E+0	1.248292E+0	1.207887E+0	1.262559E+0	1.276513E+0	1.251231E+0	1.276907E+0	1.184556E+0	1.233631E+0	1.287211E+0	1.200278E+0	1.154033E+0	1.234436E+0	1.245112E+0	1.219739E+0	1.228005E+0	1.224900E+0	1.250767E+0	1.208115E+0	1.208899E+0	1.240856E+0	1.219216E+0	1.248951E+0	1.260865E+0	1.239657E+0	1.261365E+0	1.239629E+0	1.247626E+0	1.304307E+0	1.247104E+0	1.263923E+0	1.268752E+0	1.228633E+0	1.205077E+0	1.228360E+0	1.234642E+0	1.237839E+0	1.246217E+0	1.214081E+0	1.191067E+0	1.298061E+0	1.234350E+0	1.242557E+0	1.244363E+0	1.193436E+0	1.282079E+0	1.229357E+0	1.254360E+0	1.289449E+0	1.216490E+0	1.222396E+0	1.222516E+0	1.216437E+0	1.236287E+0	1.220958E+0	1.217896E+0	1.294596E+0	1.258861E+0	1.217941E+0	1.235581E+0	1.254757E+0	1.284179E+0	1.276017E+0	1.240915E+0	1.265944E+0	1.199081E+0	1.285778E+0	1.272148E+0	1.282487E+0
5.420210E+2	1.088702E+0	1.047025E+0	1.119483E+0	1.013604E+0	1.059385E+0	1.032388E+0	1.067422E+0	1.040226E+0	1.029885E+0	1.057199E+0	1.029466E+0	1.063115E+0	1.039978E+0	1.070071E+0	1.099589E+0	1.046230E+0	1.068261E+0	1.043191E+0	1.031884E+0	1.067579E+0	1.054912E+0	1.054143E+0	1.050117E+0	1.035388E+0	1.055241E+0	1.041630E+0	1.051661E+0	1.056632E+0	1.028543E+0	1.025980E+0	1.058336E+0	1.053677E+0	1.054320E+0	1.067304E+0	1.046768E+0	1.051573E+0	1.049940E+0	1.024629E+0	1.062560E+0	1.028226E+0	1.034180E+0	1.018919E+0	1.048984E+0	1.074744E+0	1.055176E+0	1.038305E+0	1.075416E+0	1.049896E+0	1.027171E+0	1.066360E+0	1.065187E+0	1.031900E+0	1.044917E+0	1.036420E+0	1.076565E+0	1.037831E+0	1.069788E+0	1.043413E+0	1.038734E+0	1.078151E+0	1.019493E+0	1.056848E+0	1.015503E+0	1.054175E+0	1.038645E+0	9.874955E-1	1.097111E+0	1.033096E+0	1.055158E+0	1.052964E+0	1.058580E+0	1.077181E+0	1.071277E+0	9.992410E-1	1.031720E+0	1.029782E+0	1.038250E+0	1.042398E+0	1.027330E+0	1.073025E+0	1.031116E+0	1.044305E+0	1.095060E+0	1.046084E+0	1.067337E+0	1.065583E+0	1.034555E+0	1.052091E+0	1.039745E+0	1.045453E+0	1.095868E+0	1.026476E+0	1.028760E+0	1.028203E+0	1.053524E+0	1.080295E+0	1.076969E+0	1.020055E+0	1.052836E+0	1.064327E+0	1.046168E+0	1.039420E+0	1.064937E+0	1.022817E+0	1.044404E+0	1.016594E+0	1.021614E+0	1.084067E+0	1.091667E+0	1.042079E+0	9.880099E-1	1.099212E+0	1.055532E+0	1.016396E+0	1.037441E+0	1.043187E+0	1.061287E+0	1.049371E+0	1.063628E+0	1.044512E+0	1.031540E+0	1.053387E+0	1.047904E+0	1.093775E+0	1.039706E+0	1.060102E+0	1.093800E+0	1.088189E+0	1.023405E+0	1.049104E+0	1.043024E+0	1.067325E+0	1.073141E+0	1.064763E+0	1.069349E+0	1.016568E+0	1.042963E+0	1.034913E+0	1.129534E+0	1.037663E+0	1.033606E+0	1.023158E+0	9.837357E-1	1.086656E+0	1.075901E+0	1.067977E+0	1.038498E+0	1.055219E+0	1.064669E+0	1.047525E+0	1.062597E+0	1.076267E+0	1.042055E+0	1.066819E+0	1.037904E+0	1.057504E+0	1.059696E+0	1.009279E+0	1.035550E+0	1.101857E+0	1.020347E+0	1.017971E+0	1.072150E+0	1.107044E+0	1.051048E+0	1.040330E+0	1.108928E+0	1.093188E+0	9.688068E-1	1.001382E+0	1.060541E+0	1.170213E+0
5.422670E+2	1.018859E+0	9.352384E-1	9.925576E-1	9.049917E-1	9.340246E-1	9.577318E-1	9.974526E-1	9.641066E-1	9.660593E-1	1.002105E+0	9.605910E-1	1.003708E+0	9.854980E-1	9.636471E-1	9.912434E-1	1.009899E+0	9.787368E-1	9.591324E-1	9.829161E-1	9.441556E-1	9.975857E-1	9.828986E-1	1.001828E+0	9.922610E-1	9.469665E-1	9.836228E-1	9.979325E-1	9.912285E-1	9.730358E-1	9.607843E-1	9.957865E-1	1.006889E+0	1.002120E+0	9.991541E-1	9.465546E-1	9.872481E-1	9.778625E-1	9.805881E-1	1.004953E+0	9.386104E-1	9.587160E-1	9.868441E-1	9.867174E-1	1.031567E+0	9.851162E-1	9.903997E-1	9.533078E-1	9.892206E-1	9.564310E-1	9.625304E-1	9.668629E-1	9.747847E-1	9.797841E-1	9.904253E-1	9.947616E-1	9.810503E-1	9.581688E-1	9.975637E-1	9.837916E-1	9.805656E-1	9.835656E-1	9.850892E-1	9.334640E-1	9.913029E-1	9.549090E-1	9.491700E-1	9.892414E-1	1.018015E+0	9.974154E-1	9.751854E-1	9.964274E-1	9.888811E-1	9.690631E-1	1.025898E+0	9.505553E-1	1.080300E+0	9.718039E-1	9.875303E-1	9.521654E-1	9.927862E-1	9.509537E-1	9.740186E-1	1.010299E+0	1.010545E+0	9.767769E-1	9.864471E-1	1.040631E+0	9.584822E-1	1.001616E+0	9.841266E-1	9.720534E-1	9.623524E-1	9.749637E-1	9.789650E-1	9.613127E-1	9.419827E-1	1.013731E+0	1.033939E+0	9.947695E-1	9.797632E-1	9.966738E-1	9.502267E-1	9.865350E-1	1.012233E+0	9.894341E-1	9.507882E-1	1.058241E+0	9.973928E-1	9.930510E-1	9.560401E-1	9.528125E-1	1.006903E+0	9.494403E-1	9.921479E-1	1.010619E+0	1.018156E+0	1.018592E+0	9.781571E-1	9.706178E-1	9.941672E-1	9.833277E-1	9.595781E-1	9.800019E-1	9.970931E-1	9.763536E-1	9.786919E-1	9.767942E-1	1.014278E+0	9.712458E-1	1.003594E+0	1.001629E+0	1.038546E+0	9.984622E-1	9.870432E-1	9.953724E-1	1.010638E+0	9.708935E-1	1.019357E+0	1.028732E+0	1.037937E+0	1.030683E+0	9.515104E-1	1.003704E+0	1.004341E+0	9.408629E-1	9.637064E-1	1.027440E+0	9.706913E-1	1.008971E+0	1.025105E+0	1.031086E+0	1.018675E+0	9.827353E-1	9.974615E-1	1.024368E+0	1.001607E+0	9.739025E-1	9.532019E-1	9.431491E-1	1.007167E+0	9.406351E-1	9.866888E-1	9.849877E-1	1.005926E+0	9.649343E-1	9.892692E-1	1.001770E+0	1.023340E+0	9.180666E-1	9.908571E-1	9.610090E-1	1.005545E+0
5.425400E+2	9.266607E-1	9.476525E-1	9.658171E-1	9.566850E-1	8.797707E-1	9.338812E-1	9.674251E-1	9.359779E-1	9.196377E-1	9.674080E-1	8.887299E-1	9.755482E-1	8.972066E-1	9.066885E-1	9.414289E-1	9.594578E-1	9.053512E-1	9.261835E-1	9.220784E-1	9.499719E-1	9.264322E-1	9.072917E-1	9.088223E-1	9.485748E-1	9.072087E-1	9.527697E-1	9.607876E-1	9.184840E-1	9.719526E-1	9.342727E-1	9.390670E-1	9.732474E-1	9.296301E-1	9.504478E-1	9.097092E-1	8.876571E-1	9.112326E-1	9.254780E-1	9.551844E-1	9.146104E-1	9.241743E-1	9.679966E-1	9.302888E-1	9.260705E-1	9.295921E-1	9.328766E-1	9.571069E-1	9.535542E-1	8.906149E-1	9.268323E-1	9.517056E-1	9.541032E-1	9.139610E-1	9.029288E-1	9.292612E-1	9.901357E-1	9.184740E-1	9.330136E-1	9.402224E-1	9.676504E-1	9.322610E-1	9.534437E-1	9.068479E-1	9.185268E-1	9.277139E-1	8.994903E-1	9.482543E-1	8.876814E-1	9.479899E-1	9.117635E-1	9.380115E-1	9.096815E-1	8.754686E-1	9.060221E-1	9.238341E-1	9.799025E-1	9.355352E-1	9.484022E-1	9.278547E-1	9.608998E-1	9.762163E-1	9.143047E-1	9.365622E-1	9.237271E-1	9.058375E-1	9.010073E-1	9.682770E-1	9.579692E-1	9.414320E-1	9.013728E-1	9.491780E-1	9.197357E-1	9.541705E-1	9.431038E-1	9.665442E-1	9.419470E-1	9.769749E-1	9.126417E-1	9.146553E-1	9.314119E-1	9.449431E-1	9.380250E-1	9.510232E-1	9.341582E-1	9.328046E-1	9.141889E-1	9.563780E-1	8.801417E-1	9.553001E-1	8.951336E-1	9.018397E-1	9.978366E-1	9.569675E-1	9.123292E-1	9.456129E-1	9.824144E-1	9.402051E-1	8.978822E-1	9.351791E-1	9.784898E-1	9.584296E-1	8.905659E-1	9.313213E-1	9.847853E-1	9.370297E-1	9.504418E-1	9.354860E-1	9.489309E-1	9.480300E-1	9.605748E-1	9.322665E-1	1.001073E+0	9.507729E-1	9.414130E-1	9.605188E-1	9.286283E-1	9.291582E-1	9.315754E-1	9.466076E-1	9.202129E-1	9.069925E-1	9.081576E-1	9.042577E-1	9.370152E-1	9.437406E-1	9.247099E-1	9.333979E-1	9.282629E-1	9.651326E-1	9.423702E-1	9.583520E-1	9.339344E-1	9.107286E-1	9.596217E-1	9.451843E-1	9.375349E-1	8.992421E-1	9.087567E-1	9.470995E-1	9.731043E-1	9.371590E-1	9.244851E-1	9.221792E-1	9.912504E-1	9.179391E-1	9.384463E-1	9.529542E-1	9.563653E-1	9.176088E-1	9.032625E-1	9.563112E-1	9.911212E-1
5.427600E+2	1.002726E+0	9.772351E-1	1.024873E+0	9.605722E-1	9.836136E-1	9.423953E-1	1.004292E+0	9.558397E-1	9.633485E-1	9.992183E-1	9.765715E-1	9.577679E-1	9.538618E-1	9.401454E-1	9.467522E-1	9.310097E-1	9.824438E-1	9.347778E-1	9.654673E-1	9.504356E-1	9.975856E-1	9.705561E-1	9.324476E-1	9.691718E-1	9.554683E-1	9.832997E-1	9.673652E-1	9.927859E-1	9.503540E-1	9.810251E-1	9.478498E-1	9.646576E-1	9.755343E-1	9.688139E-1	9.523647E-1	9.542052E-1	9.186090E-1	9.292885E-1	9.446523E-1	9.316406E-1	9.645690E-1	9.410750E-1	9.529118E-1	9.377973E-1	9.694685E-1	9.658000E-1	9.884567E-1	9.845841E-1	9.971455E-1	9.638742E-1	9.266974E-1	9.847449E-1	9.165260E-1	9.838661E-1	9.605996E-1	1.006081E+0	9.750799E-1	9.758841E-1	9.496282E-1	9.455222E-1	9.412295E-1	9.279692E-1	9.901310E-1	1.011701E+0	1.010803E+0	9.547042E-1	9.772750E-1	1.001617E+0	9.875529E-1	9.233781E-1	9.906732E-1	9.429890E-1	9.306539E-1	9.499555E-1	9.647009E-1	9.734797E-1	9.459514E-1	9.142533E-1	9.537804E-1	9.915421E-1	9.439150E-1	9.721090E-1	1.015051E+0	9.742789E-1	9.780041E-1	9.715314E-1	1.014638E+0	9.459514E-1	9.555347E-1	9.471500E-1	9.862192E-1	9.482834E-1	9.792887E-1	9.193865E-1	9.660410E-1	9.916935E-1	9.432672E-1	9.902106E-1	9.358551E-1	9.417859E-1	9.279288E-1	9.746326E-1	9.778033E-1	9.750982E-1	9.298432E-1	9.500406E-1	9.687368E-1	1.000031E+0	9.623439E-1	1.006959E+0	9.410068E-1	9.671181E-1	9.768682E-1	9.739702E-1	9.636129E-1	9.656978E-1	1.013627E+0	9.605919E-1	9.704777E-1	9.636278E-1	9.607700E-1	9.620238E-1	9.858066E-1	1.023399E+0	9.842066E-1	9.788349E-1	9.821677E-1	9.956213E-1	9.708531E-1	9.630987E-1	9.316886E-1	1.018850E+0	9.850693E-1	9.752510E-1	9.670769E-1	9.504606E-1	8.981805E-1	9.106912E-1	9.916097E-1	9.615817E-1	9.841081E-1	9.495855E-1	9.234015E-1	9.887231E-1	9.415807E-1	9.547777E-1	1.021246E+0	9.404907E-1	9.774658E-1	9.841442E-1	9.746986E-1	9.486041E-1	9.607289E-1	9.747105E-1	9.593455E-1	9.587106E-1	9.777255E-1	9.720721E-1	9.401168E-1	9.919756E-1	9.590039E-1	1.018920E+0	9.396446E-1	9.855937E-1	9.789176E-1	9.767156E-1	9.645318E-1	1.002446E+0	9.533478E-1	9.905647E-1	9.521572E-1	1.004222E+0
5.430070E+2	1.066093E+0	1.018856E+0	1.119135E+0	1.071117E+0	1.050785E+0	1.034471E+0	1.047874E+0	1.032709E+0	1.063607E+0	1.085785E+0	1.052972E+0	1.037086E+0	1.061876E+0	1.081304E+0	1.069523E+0	1.050774E+0	1.069664E+0	1.052361E+0	1.041090E+0	1.041168E+0	1.057832E+0	1.030115E+0	1.071841E+0	1.107168E+0	1.056595E+0	1.074690E+0	1.064605E+0	1.104015E+0	1.076141E+0	1.023847E+0	1.054963E+0	1.076036E+0	1.043605E+0	1.042113E+0	1.054698E+0	1.075286E+0	1.124926E+0	1.025212E+0	1.080836E+0	1.056088E+0	1.057176E+0	1.030494E+0	1.060104E+0	1.046774E+0	1.023401E+0	1.127415E+0	1.086225E+0	1.069844E+0	1.079257E+0	1.044263E+0	1.038967E+0	1.066041E+0	1.016813E+0	1.027287E+0	1.015586E+0	1.117000E+0	1.104806E+0	1.123135E+0	1.132527E+0	1.053201E+0	1.074650E+0	1.035684E+0	1.031837E+0	1.073648E+0	1.083760E+0	9.976665E-1	1.088848E+0	1.055207E+0	1.121513E+0	1.018565E+0	1.054812E+0	1.100805E+0	1.026947E+0	1.055118E+0	1.095889E+0	1.130044E+0	1.020149E+0	1.093336E+0	1.014549E+0	1.068100E+0	1.018626E+0	1.043311E+0	1.087042E+0	1.086829E+0	1.060135E+0	1.107376E+0	1.076582E+0	1.036578E+0	1.096964E+0	1.084541E+0	1.085670E+0	1.062875E+0	1.109334E+0	1.018813E+0	1.055890E+0	1.075447E+0	1.092463E+0	1.066347E+0	1.070255E+0	1.085392E+0	1.094576E+0	1.057613E+0	1.112776E+0	1.058611E+0	1.031127E+0	1.090422E+0	1.108160E+0	1.071564E+0	1.047005E+0	1.071712E+0	1.053595E+0	1.078141E+0	1.115339E+0	1.020403E+0	1.043451E+0	1.034672E+0	1.063989E+0	1.027257E+0	1.064803E+0	1.070673E+0	1.046515E+0	1.027573E+0	1.110602E+0	1.104493E+0	1.047638E+0	1.108916E+0	1.061285E+0	1.093763E+0	1.086686E+0	1.095877E+0	1.067194E+0	1.071848E+0	1.039531E+0	1.099989E+0	1.071257E+0	1.073623E+0	1.084556E+0	1.071342E+0	1.051338E+0	1.027362E+0	1.034280E+0	1.101547E+0	1.053629E+0	1.058436E+0	1.069792E+0	1.081262E+0	1.082565E+0	1.050338E+0	1.051725E+0	1.099769E+0	1.067724E+0	1.087402E+0	1.099843E+0	1.058808E+0	1.081240E+0	1.055313E+0	1.083781E+0	1.000518E+0	1.065992E+0	1.105110E+0	1.059148E+0	1.029110E+0	1.043561E+0	1.052924E+0	1.059255E+0	1.061506E+0	1.042506E+0	1.071120E+0	1.041309E+0	1.071167E+0	1.075824E+0	1.105700E+0
5.432860E+2	1.231036E+0	1.216621E+0	1.230858E+0	1.200603E+0	1.221760E+0	1.195644E+0	1.240113E+0	1.261615E+0	1.259035E+0	1.250552E+0	1.238767E+0	1.250155E+0	1.196407E+0	1.222717E+0	1.200217E+0	1.218316E+0	1.213671E+0	1.175931E+0	1.260452E+0	1.198408E+0	1.287286E+0	1.220501E+0	1.239063E+0	1.241758E+0	1.232784E+0	1.212151E+0	1.229373E+0	1.276259E+0	1.245247E+0	1.282180E+0	1.239466E+0	1.240556E+0	1.218232E+0	1.249545E+0	1.207429E+0	1.145179E+0	1.254818E+0	1.208784E+0	1.273093E+0	1.237793E+0	1.190210E+0	1.205826E+0	1.229945E+0	1.234827E+0	1.188233E+0	1.239500E+0	1.196866E+0	1.204757E+0	1.210049E+0	1.210612E+0	1.249029E+0	1.206406E+0	1.205501E+0	1.246204E+0	1.252936E+0	1.241102E+0	1.156577E+0	1.269238E+0	1.176033E+0	1.224959E+0	1.229919E+0	1.210171E+0	1.201350E+0	1.234152E+0	1.270076E+0	1.264107E+0	1.145544E+0	1.253952E+0	1.240326E+0	1.208505E+0	1.217954E+0	1.237106E+0	1.224588E+0	1.204933E+0	1.222981E+0	1.250545E+0	1.237315E+0	1.227496E+0	1.225840E+0	1.214169E+0	1.260284E+0	1.210731E+0	1.248551E+0	1.207959E+0	1.209553E+0	1.266698E+0	1.264811E+0	1.233305E+0	1.225219E+0	1.209601E+0	1.199838E+0	1.222639E+0	1.246107E+0	1.142689E+0	1.240624E+0	1.185040E+0	1.212555E+0	1.204246E+0	1.235081E+0	1.249671E+0	1.262902E+0	1.242394E+0	1.251551E+0	1.262645E+0	1.290681E+0	1.224816E+0	1.265094E+0	1.217296E+0	1.256397E+0	1.244316E+0	1.187397E+0	1.225570E+0	1.197400E+0	1.209540E+0	1.222468E+0	1.214690E+0	1.279612E+0	1.229433E+0	1.262038E+0	1.231243E+0	1.238185E+0	1.171740E+0	1.227474E+0	1.241431E+0	1.232541E+0	1.237738E+0	1.245780E+0	1.240713E+0	1.191224E+0	1.216405E+0	1.261702E+0	1.285711E+0	1.227661E+0	1.245411E+0	1.263118E+0	1.232579E+0	1.204898E+0	1.235458E+0	1.158125E+0	1.177000E+0	1.168337E+0	1.229693E+0	1.211257E+0	1.252317E+0	1.207785E+0	1.255344E+0	1.207359E+0	1.192728E+0	1.239060E+0	1.217846E+0	1.226825E+0	1.247845E+0	1.188771E+0	1.199011E+0	1.159740E+0	1.220926E+0	1.222106E+0	1.207043E+0	1.200555E+0	1.291280E+0	1.216511E+0	1.187257E+0	1.217060E+0	1.255295E+0	1.205747E+0	1.206381E+0	1.231607E+0	1.230176E+0	1.201287E+0	1.198066E+0	1.185093E+0	1.242242E+0
5.435220E+2	1.407165E+0	1.449859E+0	1.404392E+0	1.315000E+0	1.389057E+0	1.322220E+0	1.347447E+0	1.342734E+0	1.362471E+0	1.431060E+0	1.336474E+0	1.344983E+0	1.360701E+0	1.367029E+0	1.347406E+0	1.378745E+0	1.382780E+0	1.318475E+0	1.389354E+0	1.334249E+0	1.399029E+0	1.324957E+0	1.406651E+0	1.383356E+0	1.291806E+0	1.380823E+0	1.387770E+0	1.348391E+0	1.379063E+0	1.328589E+0	1.369912E+0	1.365740E+0	1.444701E+0	1.358207E+0	1.307308E+0	1.306162E+0	1.381595E+0	1.371493E+0	1.370446E+0	1.289337E+0	1.337443E+0	1.293659E+0	1.315941E+0	1.345962E+0	1.344733E+0	1.375596E+0	1.392925E+0	1.377433E+0	1.316925E+0	1.362965E+0	1.371778E+0	1.369760E+0	1.380220E+0	1.383254E+0	1.366417E+0	1.352091E+0	1.353407E+0	1.406131E+0	1.332328E+0	1.390017E+0	1.357677E+0	1.342987E+0	1.361285E+0	1.337699E+0	1.380485E+0	1.281573E+0	1.380615E+0	1.391042E+0	1.329249E+0	1.324752E+0	1.354473E+0	1.385858E+0	1.300072E+0	1.406158E+0	1.353313E+0	1.361724E+0	1.325637E+0	1.327870E+0	1.374529E+0	1.392630E+0	1.371581E+0	1.336126E+0	1.393915E+0	1.319062E+0	1.380580E+0	1.389455E+0	1.376456E+0	1.337145E+0	1.348693E+0	1.348895E+0	1.370035E+0	1.337548E+0	1.392128E+0	1.325819E+0	1.372098E+0	1.403271E+0	1.331376E+0	1.368629E+0	1.359036E+0	1.331770E+0	1.368017E+0	1.315373E+0	1.434173E+0	1.321403E+0	1.377508E+0	1.379587E+0	1.368050E+0	1.395873E+0	1.321820E+0	1.400050E+0	1.306307E+0	1.397941E+0	1.353291E+0	1.307277E+0	1.370788E+0	1.352535E+0	1.349541E+0	1.269150E+0	1.343726E+0	1.370124E+0	1.378111E+0	1.330931E+0	1.386980E+0	1.335604E+0	1.328417E+0	1.335006E+0	1.388949E+0	1.333306E+0	1.382360E+0	1.356735E+0	1.355015E+0	1.337410E+0	1.311651E+0	1.383080E+0	1.372353E+0	1.352013E+0	1.353103E+0	1.391004E+0	1.293343E+0	1.327750E+0	1.344017E+0	1.352398E+0	1.299855E+0	1.393066E+0	1.357908E+0	1.352459E+0	1.360030E+0	1.340075E+0	1.421729E+0	1.348599E+0	1.356300E+0	1.339586E+0	1.362675E+0	1.380012E+0	1.317693E+0	1.334518E+0	1.342252E+0	1.305842E+0	1.311937E+0	1.353794E+0	1.373128E+0	1.306092E+0	1.314919E+0	1.307702E+0	1.334869E+0	1.333091E+0	1.383217E+0	1.344499E+0	1.307490E+0	1.293268E+0	1.280625E+0	1.272709E+0
5.437590E+2	1.475610E+0	1.469403E+0	1.490773E+0	1.470047E+0	1.466065E+0	1.472379E+0	1.484410E+0	1.431518E+0	1.463162E+0	1.529056E+0	1.420612E+0	1.484156E+0	1.466155E+0	1.503020E+0	1.467121E+0	1.453318E+0	1.498280E+0	1.481121E+0	1.441590E+0	1.431989E+0	1.460857E+0	1.428957E+0	1.484642E+0	1.467890E+0	1.426815E+0	1.479449E+0	1.506863E+0	1.513926E+0	1.542701E+0	1.413618E+0	1.452219E+0	1.489290E+0	1.467885E+0	1.435934E+0	1.460392E+0	1.435581E+0	1.453781E+0	1.462536E+0	1.463503E+0	1.454172E+0	1.464232E+0	1.458651E+0	1.449710E+0	1.479365E+0	1.478716E+0	1.509754E+0	1.493188E+0	1.474223E+0	1.450919E+0	1.426921E+0	1.475737E+0	1.468763E+0	1.464605E+0	1.479775E+0	1.411405E+0	1.517161E+0	1.460862E+0	1.495357E+0	1.522897E+0	1.444358E+0	1.450668E+0	1.473945E+0	1.430746E+0	1.462425E+0	1.490104E+0	1.429912E+0	1.466569E+0	1.473503E+0	1.497100E+0	1.469196E+0	1.443522E+0	1.415287E+0	1.437951E+0	1.492378E+0	1.427524E+0	1.548578E+0	1.464617E+0	1.492695E+0	1.446233E+0	1.458656E+0	1.484151E+0	1.479094E+0	1.473087E+0	1.436458E+0	1.473255E+0	1.453087E+0	1.466107E+0	1.463204E+0	1.456870E+0	1.452159E+0	1.437266E+0	1.462401E+0	1.485600E+0	1.473102E+0	1.453570E+0	1.483427E+0	1.481486E+0	1.503743E+0	1.470335E+0	1.457386E+0	1.512810E+0	1.460704E+0	1.466751E+0	1.454976E+0	1.439450E+0	1.498342E+0	1.476274E+0	1.451185E+0	1.443658E+0	1.427168E+0	1.428802E+0	1.493769E+0	1.428598E+0	1.442270E+0	1.420016E+0	1.467353E+0	1.455476E+0	1.475745E+0	1.440013E+0	1.477300E+0	1.489047E+0	1.409303E+0	1.398431E+0	1.523939E+0	1.432661E+0	1.462715E+0	1.429001E+0	1.468726E+0	1.457583E+0	1.423586E+0	1.491602E+0	1.478971E+0	1.482646E+0	1.529290E+0	1.434903E+0	1.463579E+0	1.422056E+0	1.465764E+0	1.436625E+0	1.495524E+0	1.446972E+0	1.407684E+0	1.408128E+0	1.447981E+0	1.457422E+0	1.462108E+0	1.481117E+0	1.449563E+0	1.484534E+0	1.481119E+0	1.471912E+0	1.446953E+0	1.435885E+0	1.442117E+0	1.441195E+0	1.435358E+0	1.447036E+0	1.443430E+0	1.452305E+0	1.437166E+0	1.391826E+0	1.446507E+0	1.427260E+0	1.400481E+0	1.456075E+0	1.453908E+0	1.413117E+0	1.472105E+0	1.471951E+0	1.475129E+0	1.462010E+0	1.628974E+0
5.440120E+2	1.515436E+0	1.525506E+0	1.573068E+0	1.548935E+0	1.479468E+0	1.490457E+0	1.492829E+0	1.542646E+0	1.539609E+0	1.574378E+0	1.499097E+0	1.505683E+0	1.477983E+0	1.512781E+0	1.517772E+0	1.537905E+0	1.564128E+0	1.509875E+0	1.503866E+0	1.538582E+0	1.569320E+0	1.475745E+0	1.510849E+0	1.470771E+0	1.464588E+0	1.540851E+0	1.480518E+0	1.610001E+0	1.563138E+0	1.502700E+0	1.503933E+0	1.502419E+0	1.529191E+0	1.511303E+0	1.470430E+0	1.477771E+0	1.574352E+0	1.510783E+0	1.527475E+0	1.517792E+0	1.515307E+0	1.550400E+0	1.483248E+0	1.503231E+0	1.504999E+0	1.476434E+0	1.491195E+0	1.515637E+0	1.509663E+0	1.516246E+0	1.507188E+0	1.512049E+0	1.493308E+0	1.500431E+0	1.486234E+0	1.495008E+0	1.498139E+0	1.428385E+0	1.531863E+0	1.543820E+0	1.483732E+0	1.492397E+0	1.473427E+0	1.472163E+0	1.566657E+0	1.495190E+0	1.519875E+0	1.552969E+0	1.548635E+0	1.509478E+0	1.461631E+0	1.511008E+0	1.489265E+0	1.467344E+0	1.456847E+0	1.569813E+0	1.531297E+0	1.486617E+0	1.516546E+0	1.471304E+0	1.506006E+0	1.466563E+0	1.494538E+0	1.500279E+0	1.488546E+0	1.491563E+0	1.473504E+0	1.496281E+0	1.571355E+0	1.484288E+0	1.533237E+0	1.501916E+0	1.446368E+0	1.430029E+0	1.480481E+0	1.513226E+0	1.531096E+0	1.473518E+0	1.466479E+0	1.435781E+0	1.550150E+0	1.447378E+0	1.523593E+0	1.481270E+0	1.525084E+0	1.520632E+0	1.540361E+0	1.511315E+0	1.511527E+0	1.486022E+0	1.462921E+0	1.491350E+0	1.495451E+0	1.469704E+0	1.456616E+0	1.539023E+0	1.557223E+0	1.458275E+0	1.526667E+0	1.428624E+0	1.505162E+0	1.437690E+0	1.476493E+0	1.545299E+0	1.455394E+0	1.442163E+0	1.440234E+0	1.471717E+0	1.499712E+0	1.503982E+0	1.528763E+0	1.499889E+0	1.538709E+0	1.505677E+0	1.511742E+0	1.481341E+0	1.461033E+0	1.533976E+0	1.514499E+0	1.516191E+0	1.473558E+0	1.456347E+0	1.453434E+0	1.470320E+0	1.515640E+0	1.485470E+0	1.498947E+0	1.452632E+0	1.474943E+0	1.544276E+0	1.529386E+0	1.540245E+0	1.470383E+0	1.503313E+0	1.465535E+0	1.484614E+0	1.481912E+0	1.447236E+0	1.481673E+0	1.464652E+0	1.498527E+0	1.448000E+0	1.506795E+0	1.482869E+0	1.492620E+0	1.440267E+0	1.504794E+0	1.463977E+0	1.419398E+0	1.511912E+0	1.556206E+0	1.589265E+0
5.442700E+2	1.546426E+0	1.563202E+0	1.608267E+0	1.561459E+0	1.480299E+0	1.490508E+0	1.531946E+0	1.551607E+0	1.499088E+0	1.603229E+0	1.531616E+0	1.531224E+0	1.521835E+0	1.557892E+0	1.528046E+0	1.516068E+0	1.565748E+0	1.511366E+0	1.518253E+0	1.502782E+0	1.557051E+0	1.536233E+0	1.546873E+0	1.539875E+0	1.532236E+0	1.496582E+0	1.547888E+0	1.519248E+0	1.560336E+0	1.525021E+0	1.543785E+0	1.442588E+0	1.595160E+0	1.558635E+0	1.540253E+0	1.606072E+0	1.505768E+0	1.503704E+0	1.493383E+0	1.464760E+0	1.525181E+0	1.542017E+0	1.576613E+0	1.543753E+0	1.557683E+0	1.524163E+0	1.548066E+0	1.568750E+0	1.549126E+0	1.568231E+0	1.563895E+0	1.525109E+0	1.505665E+0	1.468446E+0	1.524916E+0	1.527244E+0	1.528838E+0	1.491697E+0	1.579066E+0	1.540665E+0	1.510791E+0	1.464906E+0	1.477363E+0	1.520969E+0	1.489174E+0	1.486943E+0	1.602151E+0	1.520062E+0	1.575939E+0	1.513853E+0	1.485704E+0	1.551230E+0	1.522750E+0	1.477889E+0	1.530486E+0	1.552393E+0	1.560031E+0	1.483302E+0	1.480231E+0	1.528743E+0	1.536082E+0	1.490706E+0	1.486295E+0	1.535710E+0	1.532001E+0	1.522937E+0	1.536932E+0	1.549141E+0	1.555282E+0	1.485734E+0	1.524802E+0	1.553591E+0	1.523282E+0	1.510755E+0	1.582244E+0	1.558649E+0	1.518939E+0	1.486156E+0	1.521322E+0	1.499567E+0	1.511978E+0	1.493981E+0	1.570163E+0	1.490921E+0	1.529564E+0	1.491638E+0	1.565301E+0	1.529206E+0	1.546543E+0	1.531780E+0	1.481298E+0	1.515509E+0	1.525196E+0	1.515306E+0	1.501693E+0	1.523092E+0	1.540122E+0	1.526891E+0	1.544364E+0	1.536835E+0	1.517283E+0	1.491753E+0	1.481125E+0	1.525435E+0	1.500426E+0	1.515089E+0	1.536114E+0	1.480864E+0	1.500676E+0	1.517348E+0	1.551797E+0	1.580667E+0	1.494674E+0	1.549254E+0	1.550565E+0	1.498802E+0	1.461858E+0	1.505176E+0	1.542229E+0	1.570502E+0	1.474146E+0	1.460140E+0	1.467881E+0	1.514034E+0	1.502172E+0	1.511003E+0	1.490976E+0	1.488663E+0	1.548054E+0	1.506552E+0	1.570252E+0	1.495195E+0	1.552558E+0	1.525909E+0	1.544327E+0	1.488539E+0	1.492151E+0	1.467778E+0	1.485395E+0	1.533821E+0	1.514657E+0	1.529897E+0	1.476161E+0	1.486583E+0	1.576129E+0	1.496757E+0	1.554793E+0	1.513059E+0	1.414914E+0	1.550003E+0	1.547417E+0	1.498489E+0
5.445240E+2	1.538192E+0	1.574498E+0	1.611505E+0	1.487788E+0	1.493575E+0	1.517180E+0	1.507578E+0	1.518228E+0	1.512602E+0	1.567863E+0	1.492026E+0	1.545705E+0	1.493061E+0	1.556720E+0	1.521212E+0	1.514690E+0	1.513749E+0	1.519263E+0	1.553164E+0	1.480804E+0	1.513585E+0	1.493739E+0	1.546340E+0	1.571524E+0	1.500660E+0	1.503894E+0	1.529549E+0	1.521850E+0	1.497326E+0	1.449600E+0	1.488212E+0	1.546519E+0	1.567129E+0	1.524201E+0	1.526927E+0	1.521984E+0	1.545133E+0	1.506565E+0	1.556940E+0	1.473122E+0	1.501475E+0	1.493744E+0	1.518637E+0	1.496199E+0	1.533501E+0	1.555782E+0	1.571990E+0	1.556203E+0	1.545188E+0	1.509680E+0	1.562115E+0	1.545908E+0	1.511553E+0	1.537116E+0	1.505348E+0	1.530130E+0	1.512520E+0	1.513005E+0	1.558780E+0	1.595988E+0	1.499025E+0	1.486602E+0	1.529610E+0	1.506185E+0	1.551014E+0	1.449217E+0	1.490718E+0	1.541181E+0	1.546780E+0	1.532051E+0	1.548930E+0	1.490326E+0	1.448814E+0	1.551852E+0	1.533400E+0	1.547353E+0	1.503389E+0	1.473024E+0	1.542577E+0	1.470162E+0	1.553625E+0	1.512246E+0	1.556254E+0	1.518982E+0	1.553645E+0	1.569393E+0	1.521040E+0	1.526880E+0	1.522674E+0	1.473762E+0	1.562769E+0	1.524700E+0	1.569093E+0	1.441434E+0	1.518206E+0	1.472071E+0	1.501045E+0	1.468862E+0	1.501942E+0	1.440749E+0	1.548751E+0	1.476014E+0	1.502933E+0	1.528670E+0	1.503094E+0	1.515611E+0	1.535461E+0	1.506631E+0	1.510541E+0	1.452133E+0	1.547863E+0	1.502998E+0	1.543980E+0	1.563261E+0	1.551529E+0	1.587670E+0	1.496559E+0	1.481845E+0	1.530066E+0	1.503070E+0	1.476337E+0	1.487434E+0	1.515235E+0	1.540172E+0	1.477649E+0	1.475967E+0	1.546274E+0	1.555344E+0	1.524262E+0	1.416294E+0	1.492147E+0	1.516720E+0	1.488672E+0	1.494811E+0	1.472722E+0	1.481386E+0	1.522955E+0	1.500552E+0	1.495241E+0	1.523576E+0	1.471288E+0	1.516938E+0	1.503103E+0	1.545675E+0	1.495267E+0	1.464600E+0	1.556320E+0	1.503339E+0	1.565397E+0	1.506056E+0	1.577945E+0	1.515004E+0	1.511396E+0	1.519202E+0	1.561348E+0	1.490209E+0	1.497752E+0	1.462998E+0	1.520759E+0	1.561664E+0	1.456649E+0	1.445532E+0	1.516021E+0	1.429999E+0	1.478506E+0	1.493022E+0	1.467869E+0	1.533974E+0	1.479308E+0	1.476716E+0	1.500107E+0	1.468723E+0
5.447720E+2	1.479044E+0	1.499784E+0	1.502207E+0	1.471290E+0	1.464283E+0	1.481133E+0	1.450148E+0	1.484838E+0	1.433385E+0	1.490973E+0	1.448015E+0	1.497080E+0	1.440696E+0	1.431311E+0	1.487396E+0	1.469510E+0	1.486014E+0	1.394238E+0	1.458633E+0	1.494269E+0	1.485809E+0	1.484494E+0	1.474332E+0	1.479390E+0	1.486645E+0	1.496324E+0	1.482042E+0	1.451086E+0	1.471091E+0	1.504563E+0	1.434439E+0	1.464304E+0	1.473331E+0	1.467499E+0	1.408543E+0	1.407210E+0	1.492266E+0	1.505785E+0	1.451485E+0	1.466710E+0	1.464738E+0	1.414763E+0	1.423690E+0	1.440555E+0	1.472155E+0	1.470582E+0	1.493140E+0	1.512461E+0	1.464912E+0	1.483349E+0	1.497994E+0	1.461737E+0	1.440077E+0	1.490044E+0	1.480138E+0	1.459491E+0	1.476802E+0	1.489027E+0	1.506238E+0	1.498467E+0	1.440487E+0	1.411471E+0	1.475927E+0	1.452744E+0	1.442585E+0	1.422454E+0	1.471668E+0	1.541506E+0	1.482873E+0	1.495986E+0	1.475397E+0	1.436404E+0	1.416953E+0	1.489411E+0	1.459871E+0	1.509422E+0	1.409073E+0	1.411739E+0	1.462480E+0	1.448695E+0	1.502674E+0	1.456263E+0	1.471708E+0	1.471897E+0	1.469317E+0	1.460857E+0	1.430942E+0	1.441124E+0	1.517259E+0	1.421658E+0	1.479231E+0	1.475245E+0	1.498999E+0	1.450422E+0	1.521211E+0	1.463970E+0	1.447913E+0	1.429206E+0	1.478573E+0	1.475549E+0	1.491749E+0	1.422987E+0	1.485891E+0	1.486146E+0	1.389586E+0	1.474797E+0	1.489507E+0	1.473618E+0	1.458152E+0	1.408121E+0	1.466591E+0	1.428400E+0	1.450954E+0	1.518343E+0	1.454219E+0	1.464400E+0	1.466851E+0	1.451001E+0	1.462783E+0	1.518349E+0	1.427261E+0	1.459071E+0	1.491482E+0	1.495630E+0	1.444130E+0	1.507157E+0	1.469092E+0	1.487133E+0	1.541116E+0	1.472605E+0	1.484805E+0	1.473175E+0	1.487834E+0	1.455070E+0	1.531706E+0	1.459418E+0	1.398028E+0	1.468813E+0	1.415999E+0	1.454674E+0	1.494833E+0	1.452225E+0	1.442630E+0	1.466215E+0	1.410803E+0	1.435215E+0	1.415686E+0	1.439945E+0	1.506708E+0	1.473688E+0	1.474935E+0	1.483799E+0	1.485437E+0	1.467055E+0	1.447033E+0	1.478597E+0	1.423598E+0	1.429828E+0	1.424733E+0	1.480407E+0	1.475438E+0	1.517966E+0	1.461606E+0	1.421360E+0	1.495069E+0	1.475293E+0	1.455166E+0	1.438065E+0	1.415502E+0	1.502252E+0	1.485827E+0	1.556489E+0
5.450200E+2	1.424379E+0	1.442907E+0	1.442242E+0	1.406495E+0	1.413656E+0	1.406662E+0	1.397950E+0	1.427855E+0	1.382527E+0	1.505552E+0	1.411863E+0	1.445484E+0	1.410803E+0	1.399666E+0	1.416489E+0	1.431697E+0	1.382095E+0	1.448457E+0	1.419477E+0	1.415942E+0	1.416124E+0	1.381213E+0	1.433645E+0	1.485739E+0	1.361893E+0	1.421965E+0	1.444973E+0	1.445430E+0	1.457713E+0	1.475617E+0	1.384513E+0	1.386287E+0	1.425584E+0	1.414540E+0	1.404074E+0	1.433854E+0	1.409011E+0	1.392794E+0	1.431797E+0	1.396452E+0	1.381323E+0	1.382925E+0	1.408611E+0	1.384201E+0	1.404567E+0	1.430101E+0	1.434165E+0	1.388470E+0	1.417936E+0	1.409027E+0	1.404515E+0	1.378297E+0	1.370758E+0	1.431875E+0	1.388007E+0	1.398362E+0	1.376062E+0	1.445611E+0	1.435874E+0	1.430331E+0	1.391000E+0	1.393645E+0	1.385870E+0	1.375934E+0	1.465517E+0	1.349401E+0	1.413194E+0	1.394635E+0	1.426310E+0	1.409005E+0	1.378623E+0	1.395260E+0	1.358837E+0	1.459790E+0	1.378423E+0	1.429969E+0	1.397128E+0	1.397577E+0	1.379760E+0	1.384014E+0	1.425428E+0	1.395969E+0	1.460669E+0	1.432539E+0	1.349947E+0	1.387552E+0	1.443885E+0	1.416611E+0	1.393923E+0	1.404581E+0	1.428211E+0	1.355903E+0	1.373529E+0	1.375456E+0	1.423908E+0	1.385011E+0	1.476737E+0	1.438535E+0	1.403895E+0	1.394468E+0	1.385650E+0	1.401000E+0	1.450296E+0	1.383758E+0	1.406027E+0	1.401489E+0	1.406532E+0	1.367817E+0	1.361884E+0	1.386728E+0	1.390145E+0	1.356205E+0	1.413883E+0	1.378981E+0	1.394894E+0	1.417656E+0	1.397221E+0	1.432361E+0	1.453286E+0	1.452099E+0	1.425683E+0	1.437715E+0	1.462320E+0	1.413909E+0	1.422361E+0	1.377872E+0	1.402845E+0	1.406962E+0	1.466846E+0	1.377125E+0	1.430227E+0	1.426113E+0	1.424166E+0	1.405419E+0	1.416081E+0	1.433081E+0	1.406123E+0	1.428917E+0	1.415609E+0	1.371147E+0	1.433498E+0	1.437564E+0	1.320534E+0	1.412276E+0	1.441748E+0	1.439435E+0	1.369130E+0	1.405822E+0	1.477869E+0	1.431013E+0	1.429875E+0	1.412125E+0	1.405564E+0	1.403141E+0	1.374312E+0	1.468739E+0	1.403935E+0	1.384997E+0	1.391363E+0	1.433498E+0	1.413986E+0	1.372380E+0	1.381346E+0	1.428617E+0	1.389117E+0	1.350080E+0	1.393932E+0	1.383349E+0	1.373878E+0	1.391213E+0	1.356259E+0	1.436171E+0
5.452690E+2	1.348473E+0	1.320912E+0	1.341181E+0	1.284326E+0	1.251011E+0	1.338714E+0	1.285390E+0	1.304199E+0	1.309348E+0	1.348979E+0	1.321894E+0	1.368166E+0	1.343890E+0	1.341050E+0	1.320405E+0	1.304549E+0	1.305310E+0	1.325231E+0	1.314682E+0	1.320560E+0	1.313263E+0	1.306678E+0	1.354787E+0	1.325156E+0	1.296676E+0	1.334013E+0	1.372382E+0	1.304278E+0	1.315958E+0	1.297378E+0	1.323738E+0	1.326921E+0	1.313636E+0	1.351408E+0	1.297567E+0	1.307737E+0	1.326184E+0	1.387343E+0	1.308839E+0	1.259150E+0	1.312826E+0	1.312053E+0	1.317159E+0	1.344170E+0	1.282289E+0	1.306732E+0	1.345712E+0	1.348791E+0	1.321013E+0	1.326097E+0	1.395472E+0	1.315869E+0	1.325365E+0	1.327725E+0	1.333406E+0	1.370437E+0	1.263144E+0	1.337994E+0	1.313853E+0	1.362404E+0	1.300676E+0	1.298492E+0	1.265637E+0	1.328037E+0	1.370748E+0	1.294034E+0	1.301390E+0	1.321018E+0	1.411795E+0	1.344974E+0	1.329691E+0	1.387341E+0	1.292673E+0	1.313473E+0	1.326767E+0	1.360424E+0	1.306167E+0	1.271996E+0	1.292980E+0	1.326773E+0	1.319803E+0	1.317892E+0	1.293354E+0	1.316937E+0	1.344926E+0	1.293181E+0	1.346693E+0	1.345352E+0	1.331812E+0	1.387611E+0	1.359691E+0	1.324467E+0	1.329888E+0	1.256934E+0	1.338816E+0	1.379876E+0	1.327634E+0	1.305254E+0	1.299650E+0	1.346227E+0	1.315791E+0	1.336622E+0	1.374566E+0	1.291895E+0	1.281492E+0	1.297202E+0	1.358427E+0	1.328188E+0	1.343317E+0	1.317643E+0	1.301499E+0	1.269501E+0	1.359973E+0	1.337400E+0	1.302130E+0	1.320273E+0	1.325706E+0	1.354318E+0	1.304901E+0	1.285862E+0	1.298427E+0	1.304464E+0	1.332446E+0	1.337653E+0	1.297048E+0	1.311145E+0	1.331248E+0	1.301128E+0	1.354462E+0	1.338939E+0	1.336640E+0	1.350007E+0	1.301863E+0	1.336762E+0	1.350044E+0	1.320964E+0	1.332109E+0	1.351757E+0	1.337859E+0	1.332210E+0	1.345912E+0	1.282442E+0	1.331789E+0	1.333086E+0	1.344238E+0	1.301382E+0	1.307776E+0	1.278695E+0	1.343821E+0	1.323822E+0	1.273189E+0	1.381495E+0	1.288824E+0	1.296696E+0	1.335947E+0	1.350130E+0	1.288465E+0	1.312232E+0	1.300656E+0	1.283685E+0	1.308311E+0	1.312148E+0	1.333559E+0	1.290285E+0	1.323964E+0	1.332624E+0	1.365645E+0	1.332084E+0	1.223055E+0	1.316327E+0	1.395546E+0	1.348616E+0
5.455340E+2	1.258337E+0	1.292309E+0	1.258220E+0	1.272025E+0	1.186742E+0	1.248721E+0	1.234471E+0	1.230387E+0	1.220276E+0	1.244475E+0	1.235849E+0	1.264426E+0	1.303748E+0	1.269364E+0	1.249593E+0	1.267884E+0	1.262806E+0	1.196480E+0	1.231568E+0	1.246209E+0	1.283013E+0	1.258690E+0	1.269913E+0	1.271081E+0	1.251854E+0	1.240146E+0	1.281531E+0	1.281889E+0	1.256120E+0	1.238157E+0	1.220316E+0	1.278432E+0	1.262776E+0	1.216709E+0	1.257173E+0	1.238655E+0	1.271164E+0	1.274899E+0	1.282095E+0	1.212251E+0	1.236993E+0	1.286027E+0	1.323728E+0	1.237335E+0	1.251214E+0	1.264381E+0	1.314328E+0	1.259627E+0	1.233168E+0	1.242745E+0	1.322779E+0	1.257674E+0	1.158209E+0	1.265043E+0	1.208299E+0	1.295651E+0	1.241137E+0	1.250440E+0	1.245924E+0	1.318902E+0	1.193343E+0	1.203176E+0	1.294086E+0	1.231895E+0	1.270898E+0	1.209196E+0	1.235218E+0	1.292669E+0	1.284100E+0	1.241815E+0	1.264891E+0	1.268193E+0	1.203077E+0	1.277792E+0	1.253033E+0	1.273157E+0	1.198627E+0	1.250459E+0	1.225346E+0	1.243571E+0	1.284476E+0	1.232746E+0	1.238543E+0	1.211304E+0	1.220910E+0	1.318196E+0	1.279727E+0	1.228376E+0	1.261832E+0	1.267478E+0	1.278197E+0	1.260804E+0	1.247940E+0	1.210842E+0	1.209642E+0	1.230118E+0	1.303508E+0	1.257440E+0	1.241209E+0	1.237166E+0	1.295230E+0	1.267767E+0	1.300496E+0	1.308333E+0	1.219470E+0	1.257952E+0	1.280542E+0	1.252292E+0	1.247073E+0	1.215964E+0	1.251054E+0	1.256050E+0	1.235895E+0	1.270811E+0	1.281116E+0	1.299862E+0	1.257852E+0	1.234628E+0	1.288825E+0	1.256116E+0	1.248895E+0	1.240833E+0	1.246856E+0	1.295721E+0	1.230764E+0	1.274908E+0	1.282326E+0	1.239136E+0	1.263414E+0	1.281484E+0	1.298115E+0	1.248014E+0	1.218980E+0	1.281373E+0	1.239441E+0	1.241791E+0	1.227645E+0	1.253454E+0	1.278066E+0	1.265222E+0	1.231927E+0	1.292802E+0	1.216102E+0	1.241871E+0	1.282360E+0	1.259657E+0	1.274659E+0	1.206757E+0	1.266202E+0	1.233795E+0	1.255243E+0	1.249141E+0	1.186274E+0	1.270438E+0	1.256432E+0	1.207255E+0	1.245024E+0	1.227996E+0	1.243699E+0	1.296781E+0	1.243153E+0	1.204656E+0	1.230834E+0	1.273502E+0	1.237898E+0	1.230908E+0	1.290996E+0	1.229654E+0	1.196841E+0	1.214341E+0	1.293888E+0	1.247538E+0
5.457720E+2	1.151332E+0	1.220212E+0	1.183357E+0	1.207730E+0	1.163391E+0	1.163312E+0	1.263619E+0	1.206902E+0	1.216067E+0	1.255143E+0	1.209170E+0	1.197521E+0	1.194329E+0	1.180735E+0	1.215052E+0	1.171620E+0	1.167372E+0	1.178950E+0	1.230055E+0	1.151863E+0	1.209399E+0	1.172950E+0	1.193786E+0	1.204897E+0	1.123947E+0	1.169327E+0	1.188768E+0	1.191313E+0	1.218682E+0	1.216022E+0	1.188772E+0	1.209222E+0	1.242290E+0	1.213149E+0	1.187423E+0	1.121558E+0	1.230246E+0	1.233357E+0	1.201383E+0	1.195308E+0	1.170134E+0	1.173770E+0	1.164645E+0	1.175995E+0	1.181917E+0	1.154023E+0	1.181959E+0	1.197235E+0	1.177613E+0	1.167909E+0	1.200658E+0	1.197294E+0	1.197617E+0	1.215523E+0	1.188042E+0	1.235656E+0	1.151244E+0	1.200615E+0	1.218926E+0	1.212645E+0	1.184900E+0	1.187874E+0	1.242315E+0	1.192764E+0	1.157590E+0	1.160431E+0	1.198461E+0	1.200137E+0	1.189062E+0	1.212816E+0	1.193778E+0	1.233001E+0	1.146726E+0	1.158517E+0	1.198116E+0	1.189914E+0	1.207281E+0	1.144510E+0	1.165368E+0	1.211887E+0	1.175477E+0	1.179409E+0	1.191492E+0	1.145481E+0	1.200689E+0	1.190665E+0	1.192582E+0	1.198929E+0	1.225880E+0	1.225827E+0	1.189291E+0	1.206445E+0	1.252133E+0	1.112454E+0	1.181252E+0	1.186384E+0	1.199805E+0	1.237237E+0	1.187164E+0	1.179625E+0	1.226427E+0	1.187376E+0	1.244479E+0	1.195417E+0	1.149994E+0	1.172700E+0	1.164076E+0	1.230445E+0	1.165153E+0	1.171650E+0	1.146847E+0	1.191907E+0	1.219201E+0	1.179244E+0	1.203866E+0	1.187592E+0	1.210535E+0	1.206381E+0	1.238737E+0	1.213672E+0	1.166181E+0	1.170431E+0	1.158263E+0	1.192235E+0	1.194359E+0	1.176470E+0	1.208120E+0	1.148789E+0	1.217573E+0	1.170226E+0	1.143107E+0	1.216020E+0	1.179646E+0	1.196436E+0	1.223267E+0	1.219491E+0	1.219747E+0	1.174979E+0	1.182999E+0	1.104285E+0	1.172432E+0	1.187129E+0	1.148548E+0	1.209553E+0	1.162470E+0	1.204175E+0	1.172745E+0	1.204342E+0	1.224218E+0	1.221215E+0	1.252621E+0	1.242039E+0	1.191859E+0	1.208407E+0	1.233082E+0	1.199838E+0	1.190060E+0	1.158901E+0	1.147294E+0	1.159745E+0	1.206341E+0	1.232246E+0	1.194926E+0	1.185610E+0	1.215688E+0	1.151004E+0	1.169474E+0	1.216971E+0	1.125658E+0	1.216558E+0	1.181968E+0	1.237783E+0
5.460160E+2	1.174920E+0	1.187740E+0	1.191872E+0	1.163565E+0	1.172810E+0	1.186264E+0	1.202984E+0	1.146045E+0	1.190947E+0	1.194553E+0	1.159723E+0	1.173997E+0	1.165608E+0	1.198850E+0	1.189154E+0	1.149145E+0	1.178808E+0	1.171704E+0	1.131795E+0	1.119713E+0	1.178371E+0	1.127160E+0	1.204601E+0	1.183240E+0	1.179735E+0	1.141744E+0	1.184045E+0	1.159977E+0	1.177809E+0	1.178432E+0	1.143498E+0	1.180599E+0	1.181496E+0	1.147908E+0	1.199002E+0	1.159855E+0	1.187730E+0	1.154793E+0	1.181550E+0	1.140208E+0	1.130121E+0	1.168749E+0	1.179543E+0	1.139442E+0	1.192043E+0	1.200637E+0	1.180749E+0	1.132357E+0	1.148307E+0	1.139843E+0	1.205173E+0	1.180111E+0	1.143485E+0	1.165279E+0	1.139286E+0	1.180959E+0	1.163180E+0	1.220965E+0	1.210909E+0	1.206153E+0	1.150689E+0	1.171863E+0	1.126261E+0	1.174812E+0	1.119068E+0	1.062932E+0	1.153218E+0	1.172054E+0	1.146916E+0	1.163505E+0	1.178402E+0	1.188051E+0	1.162236E+0	1.179713E+0	1.158796E+0	1.198835E+0	1.154567E+0	1.162686E+0	1.135988E+0	1.145042E+0	1.213405E+0	1.161646E+0	1.154650E+0	1.111952E+0	1.143609E+0	1.214293E+0	1.219824E+0	1.139736E+0	1.208538E+0	1.140992E+0	1.149275E+0	1.165942E+0	1.137194E+0	1.131455E+0	1.181850E+0	1.145734E+0	1.195775E+0	1.139159E+0	1.166482E+0	1.153698E+0	1.153393E+0	1.146326E+0	1.209505E+0	1.205562E+0	1.209416E+0	1.168605E+0	1.227199E+0	1.173408E+0	1.179574E+0	1.186777E+0	1.158536E+0	1.191514E+0	1.216995E+0	1.229909E+0	1.162891E+0	1.161278E+0	1.178843E+0	1.194370E+0	1.138626E+0	1.191205E+0	1.180745E+0	1.178290E+0	1.167410E+0	1.163780E+0	1.148109E+0	1.146285E+0	1.224628E+0	1.157399E+0	1.177283E+0	1.180672E+0	1.186300E+0	1.201453E+0	1.147241E+0	1.226152E+0	1.159776E+0	1.110109E+0	1.146256E+0	1.154268E+0	1.236216E+0	1.156366E+0	1.233447E+0	1.186173E+0	1.138122E+0	1.206196E+0	1.179900E+0	1.154025E+0	1.165680E+0	1.164327E+0	1.199990E+0	1.186549E+0	1.180367E+0	1.180606E+0	1.156041E+0	1.208032E+0	1.162403E+0	1.206854E+0	1.180623E+0	1.123988E+0	1.188527E+0	1.157027E+0	1.154253E+0	1.107579E+0	1.234793E+0	1.167560E+0	1.164547E+0	1.215568E+0	1.200851E+0	1.159298E+0	1.107671E+0	1.199256E+0	1.170525E+0	1.166538E+0
5.467660E+2	1.182900E+0	1.192853E+0	1.197512E+0	1.191398E+0	1.206900E+0	1.172196E+0	1.192468E+0	1.245942E+0	1.201190E+0	1.248572E+0	1.247979E+0	1.263822E+0	1.192990E+0	1.159590E+0	1.174063E+0	1.199428E+0	1.179443E+0	1.211932E+0	1.182623E+0	1.204272E+0	1.200426E+0	1.159776E+0	1.195383E+0	1.187936E+0	1.130551E+0	1.169778E+0	1.231118E+0	1.246180E+0	1.231652E+0	1.184419E+0	1.211991E+0	1.238842E+0	1.227216E+0	1.239468E+0	1.194299E+0	1.227301E+0	1.183763E+0	1.178391E+0	1.261501E+0	1.186971E+0	1.177627E+0	1.199593E+0	1.228545E+0	1.189511E+0	1.177051E+0	1.224278E+0	1.223149E+0	1.228385E+0	1.156503E+0	1.191248E+0	1.222132E+0	1.229247E+0	1.176661E+0	1.193777E+0	1.163541E+0	1.217096E+0	1.221173E+0	1.184107E+0	1.182984E+0	1.207498E+0	1.166551E+0	1.153693E+0	1.223627E+0	1.165286E+0	1.210742E+0	1.135897E+0	1.216229E+0	1.209211E+0	1.202497E+0	1.176093E+0	1.231299E+0	1.197133E+0	1.170581E+0	1.214249E+0	1.165772E+0	1.216449E+0	1.228055E+0	1.221272E+0	1.146585E+0	1.220722E+0	1.205756E+0	1.197199E+0	1.227730E+0	1.190510E+0	1.240414E+0	1.224539E+0	1.157835E+0	1.169837E+0	1.238280E+0	1.183877E+0	1.184287E+0	1.272472E+0	1.230279E+0	1.137662E+0	1.244264E+0	1.237916E+0	1.207685E+0	1.233673E+0	1.199466E+0	1.165715E+0	1.195468E+0	1.209111E+0	1.200981E+0	1.189655E+0	1.234361E+0	1.211992E+0	1.213502E+0	1.162166E+0	1.165106E+0	1.177516E+0	1.194434E+0	1.226054E+0	1.218145E+0	1.215435E+0	1.142606E+0	1.221911E+0	1.201637E+0	1.141089E+0	1.205471E+0	1.217528E+0	1.223437E+0	1.258467E+0	1.217821E+0	1.145022E+0	1.164196E+0	1.223301E+0	1.195561E+0	1.200962E+0	1.177630E+0	1.220877E+0	1.196615E+0	1.212307E+0	1.185112E+0	1.214439E+0	1.271323E+0	1.186526E+0	1.201915E+0	1.236434E+0	1.198528E+0	1.248705E+0	1.229736E+0	1.160995E+0	1.158767E+0	1.205934E+0	1.177294E+0	1.176061E+0	1.224181E+0	1.181456E+0	1.237000E+0	1.190809E+0	1.243783E+0	1.204957E+0	1.213413E+0	1.205787E+0	1.197694E+0	1.172208E+0	1.210049E+0	1.183716E+0	1.177352E+0	1.220065E+0	1.240280E+0	1.206153E+0	1.200991E+0	1.204642E+0	1.218115E+0	1.213045E+0	1.242126E+0	1.181882E+0	1.207412E+0	1.162815E+0	1.199832E+0	1.209821E+0
5.475070E+2	1.320269E+0	1.367251E+0	1.322797E+0	1.289974E+0	1.272546E+0	1.306757E+0	1.392604E+0	1.319617E+0	1.303822E+0	1.337287E+0	1.308347E+0	1.301653E+0	1.346779E+0	1.297568E+0	1.344052E+0	1.317222E+0	1.332795E+0	1.311681E+0	1.297067E+0	1.378499E+0	1.285786E+0	1.329899E+0	1.298505E+0	1.330167E+0	1.322193E+0	1.352260E+0	1.324320E+0	1.344101E+0	1.357611E+0	1.332481E+0	1.329444E+0	1.379956E+0	1.376949E+0	1.370271E+0	1.307393E+0	1.297658E+0	1.354207E+0	1.314110E+0	1.341369E+0	1.326317E+0	1.348032E+0	1.258365E+0	1.323113E+0	1.288918E+0	1.319877E+0	1.346262E+0	1.356180E+0	1.295252E+0	1.338429E+0	1.284749E+0	1.359951E+0	1.364831E+0	1.247847E+0	1.357757E+0	1.340693E+0	1.332290E+0	1.310639E+0	1.316457E+0	1.354196E+0	1.309444E+0	1.306785E+0	1.317201E+0	1.309729E+0	1.303743E+0	1.327557E+0	1.280426E+0	1.291518E+0	1.317882E+0	1.361100E+0	1.329272E+0	1.354633E+0	1.309000E+0	1.308492E+0	1.293238E+0	1.346817E+0	1.343266E+0	1.303668E+0	1.353917E+0	1.288214E+0	1.307637E+0	1.299579E+0	1.280909E+0	1.355049E+0	1.286306E+0	1.277836E+0	1.314888E+0	1.331386E+0	1.347299E+0	1.347739E+0	1.322642E+0	1.344888E+0	1.292149E+0	1.350148E+0	1.267378E+0	1.328224E+0	1.338149E+0	1.314556E+0	1.259651E+0	1.331113E+0	1.293867E+0	1.364420E+0	1.344928E+0	1.358617E+0	1.346540E+0	1.309612E+0	1.274711E+0	1.358648E+0	1.273145E+0	1.314412E+0	1.304643E+0	1.326350E+0	1.351307E+0	1.269842E+0	1.364272E+0	1.286865E+0	1.315561E+0	1.356283E+0	1.303589E+0	1.325890E+0	1.337833E+0	1.326200E+0	1.310453E+0	1.373057E+0	1.346785E+0	1.283595E+0	1.324874E+0	1.322741E+0	1.327554E+0	1.282744E+0	1.307867E+0	1.330957E+0	1.354933E+0	1.303920E+0	1.376002E+0	1.349021E+0	1.331069E+0	1.236897E+0	1.348497E+0	1.257363E+0	1.324516E+0	1.330256E+0	1.279145E+0	1.277331E+0	1.350174E+0	1.302761E+0	1.336160E+0	1.361411E+0	1.366613E+0	1.286851E+0	1.351125E+0	1.319726E+0	1.341749E+0	1.304452E+0	1.266545E+0	1.268198E+0	1.308150E+0	1.305084E+0	1.309394E+0	1.326676E+0	1.330755E+0	1.275423E+0	1.291905E+0	1.242596E+0	1.271291E+0	1.331800E+0	1.372315E+0	1.349556E+0	1.378870E+0	1.316191E+0	1.361645E+0	1.294936E+0	1.451142E+0
5.482600E+2	1.392895E+0	1.426759E+0	1.387159E+0	1.384027E+0	1.338671E+0	1.398355E+0	1.408684E+0	1.429664E+0	1.372585E+0	1.453619E+0	1.388944E+0	1.472872E+0	1.384091E+0	1.375101E+0	1.417181E+0	1.373776E+0	1.307699E+0	1.390327E+0	1.402053E+0	1.343845E+0	1.362985E+0	1.388743E+0	1.439320E+0	1.366291E+0	1.397238E+0	1.462939E+0	1.394373E+0	1.391643E+0	1.430526E+0	1.404428E+0	1.364933E+0	1.380951E+0	1.384623E+0	1.409360E+0	1.379537E+0	1.371398E+0	1.380926E+0	1.382449E+0	1.435741E+0	1.390606E+0	1.386936E+0	1.388838E+0	1.366003E+0	1.386424E+0	1.380348E+0	1.413163E+0	1.432368E+0	1.431814E+0	1.458340E+0	1.368473E+0	1.390972E+0	1.375303E+0	1.391393E+0	1.398635E+0	1.433398E+0	1.453080E+0	1.411086E+0	1.396504E+0	1.445756E+0	1.393037E+0	1.401685E+0	1.375198E+0	1.362771E+0	1.367078E+0	1.406737E+0	1.363814E+0	1.410689E+0	1.381064E+0	1.383646E+0	1.352510E+0	1.362836E+0	1.353850E+0	1.389186E+0	1.359228E+0	1.398968E+0	1.365799E+0	1.397994E+0	1.376134E+0	1.436135E+0	1.418989E+0	1.399113E+0	1.373159E+0	1.378116E+0	1.379865E+0	1.356278E+0	1.407095E+0	1.414552E+0	1.414760E+0	1.385619E+0	1.345484E+0	1.426742E+0	1.414756E+0	1.404222E+0	1.298619E+0	1.366367E+0	1.378148E+0	1.417705E+0	1.400625E+0	1.387893E+0	1.353570E+0	1.398225E+0	1.327851E+0	1.453000E+0	1.407527E+0	1.337664E+0	1.376683E+0	1.427654E+0	1.377300E+0	1.388765E+0	1.362474E+0	1.341835E+0	1.404027E+0	1.384085E+0	1.394323E+0	1.408317E+0	1.343685E+0	1.372507E+0	1.390118E+0	1.411258E+0	1.397716E+0	1.356228E+0	1.343717E+0	1.375256E+0	1.366559E+0	1.360827E+0	1.373658E+0	1.383365E+0	1.322110E+0	1.440460E+0	1.401621E+0	1.354071E+0	1.345793E+0	1.363335E+0	1.401454E+0	1.410472E+0	1.411844E+0	1.336329E+0	1.344674E+0	1.384108E+0	1.343912E+0	1.399072E+0	1.346490E+0	1.345203E+0	1.404402E+0	1.408567E+0	1.356520E+0	1.407851E+0	1.385646E+0	1.415918E+0	1.413686E+0	1.449245E+0	1.433328E+0	1.368140E+0	1.390499E+0	1.371374E+0	1.407615E+0	1.410397E+0	1.341942E+0	1.348238E+0	1.333990E+0	1.374558E+0	1.433250E+0	1.323681E+0	1.398345E+0	1.417795E+0	1.422628E+0	1.391769E+0	1.350249E+0	1.347750E+0	1.357422E+0	1.447306E+0	1.368116E+0
5.490320E+2	1.374541E+0	1.408926E+0	1.359946E+0	1.393947E+0	1.374858E+0	1.388057E+0	1.428521E+0	1.373678E+0	1.381283E+0	1.347013E+0	1.442526E+0	1.402617E+0	1.417719E+0	1.431229E+0	1.393326E+0	1.360681E+0	1.379983E+0	1.384381E+0	1.410440E+0	1.338350E+0	1.398319E+0	1.329839E+0	1.397299E+0	1.372329E+0	1.325745E+0	1.400893E+0	1.383923E+0	1.332090E+0	1.392908E+0	1.354158E+0	1.319139E+0	1.377606E+0	1.416563E+0	1.369156E+0	1.346031E+0	1.329750E+0	1.422073E+0	1.401346E+0	1.384134E+0	1.333941E+0	1.354496E+0	1.397780E+0	1.395846E+0	1.352682E+0	1.388278E+0	1.417432E+0	1.403935E+0	1.365365E+0	1.375740E+0	1.363822E+0	1.329791E+0	1.355350E+0	1.337288E+0	1.355406E+0	1.384050E+0	1.418051E+0	1.321573E+0	1.417227E+0	1.402935E+0	1.368922E+0	1.344402E+0	1.376480E+0	1.400361E+0	1.334179E+0	1.435959E+0	1.333974E+0	1.404268E+0	1.351192E+0	1.364567E+0	1.362981E+0	1.385124E+0	1.388667E+0	1.292643E+0	1.364905E+0	1.337460E+0	1.377484E+0	1.380648E+0	1.409297E+0	1.381060E+0	1.398953E+0	1.364297E+0	1.338872E+0	1.369962E+0	1.379209E+0	1.434004E+0	1.409898E+0	1.433017E+0	1.397541E+0	1.377006E+0	1.391884E+0	1.386092E+0	1.352999E+0	1.385911E+0	1.341328E+0	1.360414E+0	1.399796E+0	1.386453E+0	1.355299E+0	1.392620E+0	1.346665E+0	1.362656E+0	1.336497E+0	1.384810E+0	1.374088E+0	1.348639E+0	1.366576E+0	1.428192E+0	1.369797E+0	1.409551E+0	1.348708E+0	1.387030E+0	1.389003E+0	1.361658E+0	1.394422E+0	1.320332E+0	1.383192E+0	1.412283E+0	1.330116E+0	1.372241E+0	1.378664E+0	1.442920E+0	1.340745E+0	1.404692E+0	1.335092E+0	1.390364E+0	1.428070E+0	1.463919E+0	1.373356E+0	1.376099E+0	1.366360E+0	1.362893E+0	1.369569E+0	1.351239E+0	1.343976E+0	1.423381E+0	1.382137E+0	1.310586E+0	1.379904E+0	1.415405E+0	1.362917E+0	1.367976E+0	1.350111E+0	1.308998E+0	1.426650E+0	1.377522E+0	1.287542E+0	1.384993E+0	1.298918E+0	1.405181E+0	1.401276E+0	1.335801E+0	1.409652E+0	1.346117E+0	1.381569E+0	1.337488E+0	1.376117E+0	1.327095E+0	1.335900E+0	1.361066E+0	1.427250E+0	1.345553E+0	1.362414E+0	1.380233E+0	1.368666E+0	1.370554E+0	1.357992E+0	1.370394E+0	1.411413E+0	1.334016E+0	1.391648E+0	1.352241E+0	1.324659E+0
5.497740E+2	1.378022E+0	1.378139E+0	1.390141E+0	1.322926E+0	1.358282E+0	1.382402E+0	1.343465E+0	1.384346E+0	1.316030E+0	1.366704E+0	1.379248E+0	1.379070E+0	1.315157E+0	1.374057E+0	1.304539E+0	1.410037E+0	1.344991E+0	1.305730E+0	1.348848E+0	1.379288E+0	1.310649E+0	1.340391E+0	1.418322E+0	1.361794E+0	1.290254E+0	1.350733E+0	1.388818E+0	1.411658E+0	1.356542E+0	1.338419E+0	1.322149E+0	1.359311E+0	1.409358E+0	1.318437E+0	1.333975E+0	1.354600E+0	1.354303E+0	1.378647E+0	1.371580E+0	1.329348E+0	1.346397E+0	1.343157E+0	1.316136E+0	1.329342E+0	1.348545E+0	1.323363E+0	1.332257E+0	1.389587E+0	1.321974E+0	1.317839E+0	1.404185E+0	1.307531E+0	1.294125E+0	1.319736E+0	1.376680E+0	1.350200E+0	1.330334E+0	1.310744E+0	1.335750E+0	1.321433E+0	1.341068E+0	1.304053E+0	1.325905E+0	1.316260E+0	1.357766E+0	1.348636E+0	1.345284E+0	1.323444E+0	1.372847E+0	1.347082E+0	1.399939E+0	1.374695E+0	1.321270E+0	1.324693E+0	1.326680E+0	1.339421E+0	1.349082E+0	1.324144E+0	1.329803E+0	1.333165E+0	1.320588E+0	1.343453E+0	1.323269E+0	1.356732E+0	1.331345E+0	1.368122E+0	1.410769E+0	1.327294E+0	1.340264E+0	1.349532E+0	1.324194E+0	1.320810E+0	1.391660E+0	1.310576E+0	1.341203E+0	1.322130E+0	1.323626E+0	1.340138E+0	1.351705E+0	1.356785E+0	1.339410E+0	1.353494E+0	1.430724E+0	1.385869E+0	1.343041E+0	1.324722E+0	1.399823E+0	1.365228E+0	1.359402E+0	1.313271E+0	1.332875E+0	1.368490E+0	1.392327E+0	1.342512E+0	1.322163E+0	1.357115E+0	1.355773E+0	1.296460E+0	1.369595E+0	1.321970E+0	1.342899E+0	1.355286E+0	1.325190E+0	1.355138E+0	1.321197E+0	1.325659E+0	1.345175E+0	1.367158E+0	1.374434E+0	1.315277E+0	1.324726E+0	1.355291E+0	1.326253E+0	1.343324E+0	1.396280E+0	1.358437E+0	1.341124E+0	1.321054E+0	1.384924E+0	1.309378E+0	1.371681E+0	1.305223E+0	1.335533E+0	1.321987E+0	1.373003E+0	1.266671E+0	1.374709E+0	1.349147E+0	1.342820E+0	1.343991E+0	1.373588E+0	1.365707E+0	1.370097E+0	1.366984E+0	1.318072E+0	1.332185E+0	1.329819E+0	1.318539E+0	1.279510E+0	1.298713E+0	1.336461E+0	1.296348E+0	1.347856E+0	1.340013E+0	1.329212E+0	1.317096E+0	1.343091E+0	1.350842E+0	1.270879E+0	1.347279E+0	1.404957E+0	1.305041E+0
5.505170E+2	1.315349E+0	1.322440E+0	1.368927E+0	1.346378E+0	1.336451E+0	1.295603E+0	1.367878E+0	1.369824E+0	1.310394E+0	1.353692E+0	1.369760E+0	1.316870E+0	1.310503E+0	1.371968E+0	1.304618E+0	1.339712E+0	1.356743E+0	1.308644E+0	1.323900E+0	1.286018E+0	1.344970E+0	1.338444E+0	1.380292E+0	1.336446E+0	1.313150E+0	1.351480E+0	1.350902E+0	1.328041E+0	1.350002E+0	1.373190E+0	1.341939E+0	1.350796E+0	1.349299E+0	1.353717E+0	1.340550E+0	1.322422E+0	1.345078E+0	1.362652E+0	1.354695E+0	1.272559E+0	1.284468E+0	1.414135E+0	1.351688E+0	1.323912E+0	1.292467E+0	1.316845E+0	1.350254E+0	1.346797E+0	1.274855E+0	1.329368E+0	1.329432E+0	1.370205E+0	1.306739E+0	1.301029E+0	1.351641E+0	1.333566E+0	1.276976E+0	1.334164E+0	1.390345E+0	1.312599E+0	1.387239E+0	1.343694E+0	1.294911E+0	1.333933E+0	1.376723E+0	1.315478E+0	1.364510E+0	1.376056E+0	1.372864E+0	1.305947E+0	1.325833E+0	1.301851E+0	1.254154E+0	1.319728E+0	1.364024E+0	1.321493E+0	1.337499E+0	1.388691E+0	1.309337E+0	1.338630E+0	1.321147E+0	1.307799E+0	1.382266E+0	1.299237E+0	1.361604E+0	1.323528E+0	1.352555E+0	1.325168E+0	1.334340E+0	1.333251E+0	1.382823E+0	1.335941E+0	1.334635E+0	1.264796E+0	1.328116E+0	1.355543E+0	1.329059E+0	1.401047E+0	1.294944E+0	1.335377E+0	1.296250E+0	1.266824E+0	1.347436E+0	1.315961E+0	1.336764E+0	1.364909E+0	1.376670E+0	1.312941E+0	1.332672E+0	1.315851E+0	1.352912E+0	1.331724E+0	1.363573E+0	1.302349E+0	1.372325E+0	1.303832E+0	1.306209E+0	1.320021E+0	1.399241E+0	1.326280E+0	1.329764E+0	1.325047E+0	1.334904E+0	1.327794E+0	1.280305E+0	1.334654E+0	1.332829E+0	1.344361E+0	1.350233E+0	1.320544E+0	1.337555E+0	1.325345E+0	1.301750E+0	1.322960E+0	1.376582E+0	1.332539E+0	1.263800E+0	1.289403E+0	1.329081E+0	1.287924E+0	1.352322E+0	1.246573E+0	1.358194E+0	1.325728E+0	1.319893E+0	1.302067E+0	1.366702E+0	1.385447E+0	1.365101E+0	1.359345E+0	1.352001E+0	1.320745E+0	1.317093E+0	1.355284E+0	1.340471E+0	1.320200E+0	1.338834E+0	1.348976E+0	1.300807E+0	1.343449E+0	1.323025E+0	1.270884E+0	1.341209E+0	1.307375E+0	1.351298E+0	1.347205E+0	1.319710E+0	1.339986E+0	1.319052E+0	1.281892E+0	1.296480E+0	1.365442E+0
5.512620E+2	1.339247E+0	1.311388E+0	1.337648E+0	1.306456E+0	1.276570E+0	1.296528E+0	1.387176E+0	1.323746E+0	1.294702E+0	1.342485E+0	1.313478E+0	1.327947E+0	1.271718E+0	1.346865E+0	1.324833E+0	1.344370E+0	1.274752E+0	1.320042E+0	1.302753E+0	1.290008E+0	1.294251E+0	1.293840E+0	1.326764E+0	1.349273E+0	1.294611E+0	1.324709E+0	1.319329E+0	1.326447E+0	1.345263E+0	1.349639E+0	1.293760E+0	1.306729E+0	1.363732E+0	1.344748E+0	1.315752E+0	1.314796E+0	1.324540E+0	1.285209E+0	1.331616E+0	1.290718E+0	1.298289E+0	1.290480E+0	1.330897E+0	1.306507E+0	1.354341E+0	1.319981E+0	1.322319E+0	1.336703E+0	1.293507E+0	1.285288E+0	1.348423E+0	1.331071E+0	1.261121E+0	1.292163E+0	1.305832E+0	1.318603E+0	1.307182E+0	1.385990E+0	1.321669E+0	1.304520E+0	1.292623E+0	1.286147E+0	1.313946E+0	1.305936E+0	1.293261E+0	1.271483E+0	1.335837E+0	1.284787E+0	1.314274E+0	1.341926E+0	1.317745E+0	1.351787E+0	1.308645E+0	1.322111E+0	1.301297E+0	1.335328E+0	1.301396E+0	1.305326E+0	1.292581E+0	1.270955E+0	1.307692E+0	1.319448E+0	1.358500E+0	1.308001E+0	1.318494E+0	1.309138E+0	1.339677E+0	1.296501E+0	1.310094E+0	1.254452E+0	1.303681E+0	1.288906E+0	1.319523E+0	1.285894E+0	1.258805E+0	1.304354E+0	1.289089E+0	1.283007E+0	1.318089E+0	1.344643E+0	1.327173E+0	1.315858E+0	1.356362E+0	1.342719E+0	1.284726E+0	1.294319E+0	1.350452E+0	1.345726E+0	1.291281E+0	1.278955E+0	1.306131E+0	1.290772E+0	1.293118E+0	1.318697E+0	1.274551E+0	1.346888E+0	1.312852E+0	1.302300E+0	1.304408E+0	1.325502E+0	1.300211E+0	1.331991E+0	1.331431E+0	1.342396E+0	1.304257E+0	1.347432E+0	1.348999E+0	1.320834E+0	1.339143E+0	1.267658E+0	1.354555E+0	1.368197E+0	1.264606E+0	1.338306E+0	1.378998E+0	1.314162E+0	1.299715E+0	1.306946E+0	1.326890E+0	1.269599E+0	1.339031E+0	1.242790E+0	1.261782E+0	1.314008E+0	1.302625E+0	1.319564E+0	1.309764E+0	1.274238E+0	1.310887E+0	1.335342E+0	1.367799E+0	1.311438E+0	1.262897E+0	1.284248E+0	1.320984E+0	1.367273E+0	1.271689E+0	1.266813E+0	1.278885E+0	1.342684E+0	1.325666E+0	1.292133E+0	1.293581E+0	1.336111E+0	1.342572E+0	1.293091E+0	1.346049E+0	1.340717E+0	1.302860E+0	1.249059E+0	1.348543E+0	1.308319E+0
5.520210E+2	1.313446E+0	1.355483E+0	1.368376E+0	1.333411E+0	1.331343E+0	1.253041E+0	1.357855E+0	1.332536E+0	1.290114E+0	1.316002E+0	1.347639E+0	1.364192E+0	1.282846E+0	1.362016E+0	1.340139E+0	1.319955E+0	1.344765E+0	1.323994E+0	1.315119E+0	1.361579E+0	1.336971E+0	1.355673E+0	1.323352E+0	1.341215E+0	1.290019E+0	1.341800E+0	1.295633E+0	1.360732E+0	1.363457E+0	1.316628E+0	1.297866E+0	1.353708E+0	1.374332E+0	1.344143E+0	1.271265E+0	1.318804E+0	1.288103E+0	1.288981E+0	1.351408E+0	1.297600E+0	1.286969E+0	1.362713E+0	1.307760E+0	1.391280E+0	1.342280E+0	1.336578E+0	1.366148E+0	1.358880E+0	1.336036E+0	1.315289E+0	1.299245E+0	1.294474E+0	1.301481E+0	1.320513E+0	1.331440E+0	1.303112E+0	1.346131E+0	1.355833E+0	1.317181E+0	1.360998E+0	1.326125E+0	1.330224E+0	1.370878E+0	1.317108E+0	1.361286E+0	1.283463E+0	1.336131E+0	1.333259E+0	1.336845E+0	1.317608E+0	1.317813E+0	1.342568E+0	1.282232E+0	1.290358E+0	1.336008E+0	1.380716E+0	1.329538E+0	1.311903E+0	1.317918E+0	1.265824E+0	1.303868E+0	1.301363E+0	1.346698E+0	1.270271E+0	1.359193E+0	1.303724E+0	1.348581E+0	1.329680E+0	1.311965E+0	1.303398E+0	1.354859E+0	1.333069E+0	1.355301E+0	1.312600E+0	1.345541E+0	1.283941E+0	1.331571E+0	1.330812E+0	1.322110E+0	1.307533E+0	1.278819E+0	1.336284E+0	1.408772E+0	1.280780E+0	1.357391E+0	1.329531E+0	1.379852E+0	1.328601E+0	1.315442E+0	1.300215E+0	1.317791E+0	1.307418E+0	1.347972E+0	1.259703E+0	1.322206E+0	1.408477E+0	1.323436E+0	1.300926E+0	1.424740E+0	1.359354E+0	1.346814E+0	1.297452E+0	1.328214E+0	1.309469E+0	1.301773E+0	1.331605E+0	1.332462E+0	1.379114E+0	1.240150E+0	1.268353E+0	1.269026E+0	1.355613E+0	1.303948E+0	1.364385E+0	1.288818E+0	1.295102E+0	1.272803E+0	1.327337E+0	1.324682E+0	1.341688E+0	1.377306E+0	1.263046E+0	1.294751E+0	1.335123E+0	1.305222E+0	1.348728E+0	1.376681E+0	1.317526E+0	1.349738E+0	1.301983E+0	1.380954E+0	1.327285E+0	1.284005E+0	1.320482E+0	1.308276E+0	1.336612E+0	1.304549E+0	1.269333E+0	1.258938E+0	1.323588E+0	1.281902E+0	1.306454E+0	1.297983E+0	1.272339E+0	1.316598E+0	1.340031E+0	1.360189E+0	1.358215E+0	1.225931E+0	1.311121E+0	1.297604E+0	1.360057E+0
5.527650E+2	1.275807E+0	1.309280E+0	1.288543E+0	1.284211E+0	1.262194E+0	1.266612E+0	1.256160E+0	1.288823E+0	1.283729E+0	1.277107E+0	1.313548E+0	1.309731E+0	1.265054E+0	1.248425E+0	1.251461E+0	1.271671E+0	1.258914E+0	1.255292E+0	1.299279E+0	1.282165E+0	1.312191E+0	1.278798E+0	1.291278E+0	1.264907E+0	1.271467E+0	1.277835E+0	1.298071E+0	1.290726E+0	1.308488E+0	1.292318E+0	1.265431E+0	1.291948E+0	1.330124E+0	1.263992E+0	1.293972E+0	1.209556E+0	1.274003E+0	1.336516E+0	1.290679E+0	1.241784E+0	1.305216E+0	1.257449E+0	1.297568E+0	1.269991E+0	1.323571E+0	1.300307E+0	1.266001E+0	1.290722E+0	1.305056E+0	1.265673E+0	1.303555E+0	1.249103E+0	1.241308E+0	1.255702E+0	1.290007E+0	1.323226E+0	1.254854E+0	1.270900E+0	1.257372E+0	1.338450E+0	1.270714E+0	1.240902E+0	1.251037E+0	1.281441E+0	1.306999E+0	1.187227E+0	1.283958E+0	1.253771E+0	1.255767E+0	1.259908E+0	1.268039E+0	1.291505E+0	1.266720E+0	1.318424E+0	1.278686E+0	1.274262E+0	1.275655E+0	1.300163E+0	1.333296E+0	1.248430E+0	1.264388E+0	1.228339E+0	1.297864E+0	1.292572E+0	1.256068E+0	1.301290E+0	1.299148E+0	1.294208E+0	1.305615E+0	1.269577E+0	1.262858E+0	1.292482E+0	1.323825E+0	1.202212E+0	1.322974E+0	1.265068E+0	1.287475E+0	1.300254E+0	1.280651E+0	1.301125E+0	1.283702E+0	1.238422E+0	1.305294E+0	1.308881E+0	1.273840E+0	1.273114E+0	1.246555E+0	1.331261E+0	1.311584E+0	1.272189E+0	1.269752E+0	1.267258E+0	1.267021E+0	1.281816E+0	1.261292E+0	1.216104E+0	1.332857E+0	1.296613E+0	1.306171E+0	1.303048E+0	1.242954E+0	1.258100E+0	1.285646E+0	1.299561E+0	1.280043E+0	1.261705E+0	1.281391E+0	1.307087E+0	1.320976E+0	1.247146E+0	1.247330E+0	1.290155E+0	1.242237E+0	1.249020E+0	1.301734E+0	1.306511E+0	1.211629E+0	1.329471E+0	1.302602E+0	1.256386E+0	1.271981E+0	1.251522E+0	1.281542E+0	1.309167E+0	1.268570E+0	1.288845E+0	1.249129E+0	1.278446E+0	1.257386E+0	1.277626E+0	1.244240E+0	1.292833E+0	1.209231E+0	1.247024E+0	1.242297E+0	1.267253E+0	1.234617E+0	1.268236E+0	1.274062E+0	1.272787E+0	1.260908E+0	1.247126E+0	1.278577E+0	1.228297E+0	1.256945E+0	1.259429E+0	1.300341E+0	1.283017E+0	1.200341E+0	1.241687E+0	1.302937E+0	1.315478E+0
5.535490E+2	1.199889E+0	1.225231E+0	1.275080E+0	1.264666E+0	1.182824E+0	1.192470E+0	1.226478E+0	1.231467E+0	1.213222E+0	1.244526E+0	1.202626E+0	1.210971E+0	1.202667E+0	1.194520E+0	1.186650E+0	1.180867E+0	1.183595E+0	1.165555E+0	1.226497E+0	1.246947E+0	1.164603E+0	1.194121E+0	1.245213E+0	1.175553E+0	1.174587E+0	1.212350E+0	1.172746E+0	1.211218E+0	1.185680E+0	1.200826E+0	1.189493E+0	1.181885E+0	1.218263E+0	1.216292E+0	1.173760E+0	1.241714E+0	1.183308E+0	1.208285E+0	1.208571E+0	1.170197E+0	1.210823E+0	1.219545E+0	1.225659E+0	1.199923E+0	1.212819E+0	1.216926E+0	1.189350E+0	1.244905E+0	1.247342E+0	1.196872E+0	1.217251E+0	1.208825E+0	1.187643E+0	1.158409E+0	1.228227E+0	1.242522E+0	1.175020E+0	1.254759E+0	1.192387E+0	1.241384E+0	1.200627E+0	1.163386E+0	1.205318E+0	1.198346E+0	1.212851E+0	1.197555E+0	1.211047E+0	1.278368E+0	1.160666E+0	1.202095E+0	1.225178E+0	1.186121E+0	1.171684E+0	1.175498E+0	1.192012E+0	1.219755E+0	1.204098E+0	1.202639E+0	1.213696E+0	1.204081E+0	1.245074E+0	1.173195E+0	1.170199E+0	1.164871E+0	1.213291E+0	1.222584E+0	1.181444E+0	1.171911E+0	1.216185E+0	1.164008E+0	1.190124E+0	1.171272E+0	1.201710E+0	1.248066E+0	1.192433E+0	1.225497E+0	1.206159E+0	1.219983E+0	1.171394E+0	1.220036E+0	1.160774E+0	1.154638E+0	1.217223E+0	1.227399E+0	1.158070E+0	1.190749E+0	1.230701E+0	1.190178E+0	1.213982E+0	1.215838E+0	1.225743E+0	1.221123E+0	1.258492E+0	1.188639E+0	1.203147E+0	1.198106E+0	1.233153E+0	1.216271E+0	1.214249E+0	1.183009E+0	1.215675E+0	1.171989E+0	1.238204E+0	1.222802E+0	1.165080E+0	1.215399E+0	1.209625E+0	1.202985E+0	1.229708E+0	1.191526E+0	1.215861E+0	1.233772E+0	1.188022E+0	1.204136E+0	1.235293E+0	1.190766E+0	1.178124E+0	1.202805E+0	1.178598E+0	1.153916E+0	1.214663E+0	1.133211E+0	1.178315E+0	1.203111E+0	1.257633E+0	1.213925E+0	1.206150E+0	1.163180E+0	1.215459E+0	1.163395E+0	1.258475E+0	1.191978E+0	1.216525E+0	1.187226E+0	1.202623E+0	1.253453E+0	1.199299E+0	1.189543E+0	1.206666E+0	1.197807E+0	1.171466E+0	1.196821E+0	1.217794E+0	1.207994E+0	1.217409E+0	1.191955E+0	1.204267E+0	1.253140E+0	1.207706E+0	1.198473E+0	1.130724E+0	1.222793E+0
5.542580E+2	1.067400E+0	1.108259E+0	1.162033E+0	1.117116E+0	1.099081E+0	1.103060E+0	1.082532E+0	1.170608E+0	1.094712E+0	1.131786E+0	1.133626E+0	1.102177E+0	1.099522E+0	1.136136E+0	1.112924E+0	1.150763E+0	1.132590E+0	1.112074E+0	1.083995E+0	1.143539E+0	1.113987E+0	1.129531E+0	1.124488E+0	1.165387E+0	1.117537E+0	1.134012E+0	1.091248E+0	1.150695E+0	1.108964E+0	1.087635E+0	1.101658E+0	1.143353E+0	1.126259E+0	1.108782E+0	1.095373E+0	1.118092E+0	1.157028E+0	1.118320E+0	1.097007E+0	1.073566E+0	1.116314E+0	1.108678E+0	1.077786E+0	1.136651E+0	1.103409E+0	1.101485E+0	1.116305E+0	1.140311E+0	1.087017E+0	1.109681E+0	1.105233E+0	1.108096E+0	1.101581E+0	1.119981E+0	1.119510E+0	1.137541E+0	1.103249E+0	1.096350E+0	1.074138E+0	1.112176E+0	1.101538E+0	1.108533E+0	1.128364E+0	1.147966E+0	1.041304E+0	1.092974E+0	1.073133E+0	1.068634E+0	1.128665E+0	1.087889E+0	1.131598E+0	1.146323E+0	1.080487E+0	1.097435E+0	1.142996E+0	1.118444E+0	1.129277E+0	1.106003E+0	1.133968E+0	1.134263E+0	1.110643E+0	1.125623E+0	1.115236E+0	1.047653E+0	1.094898E+0	1.127796E+0	1.106546E+0	1.135422E+0	1.142855E+0	1.121301E+0	1.118849E+0	1.092206E+0	1.123707E+0	1.099291E+0	1.103202E+0	1.086554E+0	1.114024E+0	1.137688E+0	1.157943E+0	1.115612E+0	1.127641E+0	1.045326E+0	1.111682E+0	1.078402E+0	1.072514E+0	1.101936E+0	1.149479E+0	1.097880E+0	1.151837E+0	1.129131E+0	1.086625E+0	1.113081E+0	1.086710E+0	1.143468E+0	1.100649E+0	1.111684E+0	1.100176E+0	1.085557E+0	1.138374E+0	1.122809E+0	1.142077E+0	1.099536E+0	1.116791E+0	1.102447E+0	1.132679E+0	1.112039E+0	1.138507E+0	1.132961E+0	1.086392E+0	1.067794E+0	1.152417E+0	1.072263E+0	1.128940E+0	1.143786E+0	1.110445E+0	1.187493E+0	1.111045E+0	1.086995E+0	1.147036E+0	1.110444E+0	1.156204E+0	1.122848E+0	1.119415E+0	1.162500E+0	1.089281E+0	1.096612E+0	1.081272E+0	1.117963E+0	1.141204E+0	1.110161E+0	1.121248E+0	1.084874E+0	1.116882E+0	1.124839E+0	1.084522E+0	1.109063E+0	1.102603E+0	1.110979E+0	1.083786E+0	1.133161E+0	1.079492E+0	1.107060E+0	1.088170E+0	1.060455E+0	1.129719E+0	1.117303E+0	1.103555E+0	1.096860E+0	1.054279E+0	1.015559E+0	1.079057E+0	1.002117E+0
5.550140E+2	1.053486E+0	1.067565E+0	1.027917E+0	1.076539E+0	1.074305E+0	1.045175E+0	1.094799E+0	1.067088E+0	1.000859E+0	1.059155E+0	1.060407E+0	1.036970E+0	1.026432E+0	9.978359E-1	1.027125E+0	1.045371E+0	1.055897E+0	1.020452E+0	9.985952E-1	1.007684E+0	1.066411E+0	1.021585E+0	1.031086E+0	1.033977E+0	1.036285E+0	1.043048E+0	1.040664E+0	1.037526E+0	1.070996E+0	1.066107E+0	1.017607E+0	1.002196E+0	1.032870E+0	1.020956E+0	1.024261E+0	1.028451E+0	1.033064E+0	1.076449E+0	1.037915E+0	1.033986E+0	1.016780E+0	1.034097E+0	1.034619E+0	1.045387E+0	1.050674E+0	1.087700E+0	1.035682E+0	1.034592E+0	1.011329E+0	1.035582E+0	1.035206E+0	1.060402E+0	1.036183E+0	1.052274E+0	9.858452E-1	1.062843E+0	1.046556E+0	1.044718E+0	1.041245E+0	1.110678E+0	1.016397E+0	1.012352E+0	1.010838E+0	1.013868E+0	9.927764E-1	1.052133E+0	1.027909E+0	1.077536E+0	1.003660E+0	1.073867E+0	1.036032E+0	1.075150E+0	1.016548E+0	1.055175E+0	1.044661E+0	1.022497E+0	9.806458E-1	1.049974E+0	1.013735E+0	1.068984E+0	1.051797E+0	1.024902E+0	1.070351E+0	1.023363E+0	1.017112E+0	1.033340E+0	1.082493E+0	1.048821E+0	1.028396E+0	1.040126E+0	1.043936E+0	1.073185E+0	1.027834E+0	9.863399E-1	1.047196E+0	1.050874E+0	1.022804E+0	1.037484E+0	1.066654E+0	1.028353E+0	1.053751E+0	1.027469E+0	1.030306E+0	1.061817E+0	1.009668E+0	1.031342E+0	1.028852E+0	1.031778E+0	1.052003E+0	1.002477E+0	1.048214E+0	1.032525E+0	1.062812E+0	1.035460E+0	9.931576E-1	9.830145E-1	1.022088E+0	1.024681E+0	1.021778E+0	1.055742E+0	1.042238E+0	1.000147E+0	1.123447E+0	1.023967E+0	1.004083E+0	1.045995E+0	1.059952E+0	1.048246E+0	1.046564E+0	1.006626E+0	1.044402E+0	1.016049E+0	1.086944E+0	1.039570E+0	1.048101E+0	1.089193E+0	1.014179E+0	1.033938E+0	1.049638E+0	1.034928E+0	1.094253E+0	1.019631E+0	1.021280E+0	1.046267E+0	1.063641E+0	9.941240E-1	1.092714E+0	1.021812E+0	1.046827E+0	1.027057E+0	1.067919E+0	1.035588E+0	1.048448E+0	1.027671E+0	1.077686E+0	1.021407E+0	9.992060E-1	1.022950E+0	9.896667E-1	1.035636E+0	1.054276E+0	9.967319E-1	1.027317E+0	1.050180E+0	1.063582E+0	1.007029E+0	1.038127E+0	1.030351E+0	1.015154E+0	1.062387E+0	1.067148E+0	1.071032E+0
5.557600E+2	9.969563E-1	9.394399E-1	9.501405E-1	9.581692E-1	9.892549E-1	9.381849E-1	9.484296E-1	9.918953E-1	9.521583E-1	1.003766E+0	9.734123E-1	9.786394E-1	9.789120E-1	9.839425E-1	9.448241E-1	9.839107E-1	9.481132E-1	1.006882E+0	9.463858E-1	9.845157E-1	9.734287E-1	9.883114E-1	9.920285E-1	1.025052E+0	9.625684E-1	1.053279E+0	9.808831E-1	1.001197E+0	9.601872E-1	9.589557E-1	9.832205E-1	1.000982E+0	9.516590E-1	9.631713E-1	9.484409E-1	9.667638E-1	9.516977E-1	9.885210E-1	9.510881E-1	9.473732E-1	9.483418E-1	9.738989E-1	1.000977E+0	9.665559E-1	1.008345E+0	1.003934E+0	1.009059E+0	9.745301E-1	9.935084E-1	9.645702E-1	9.820394E-1	9.687071E-1	9.312835E-1	9.899477E-1	1.010478E+0	1.043409E+0	9.485492E-1	9.868279E-1	9.861990E-1	1.035089E+0	9.597831E-1	9.603943E-1	9.914500E-1	9.503529E-1	9.522379E-1	9.477841E-1	9.627788E-1	9.698685E-1	1.003378E+0	1.001379E+0	9.726841E-1	1.012947E+0	9.701158E-1	9.884877E-1	9.611001E-1	9.852661E-1	9.597149E-1	9.608456E-1	9.800850E-1	9.626645E-1	9.963153E-1	9.877651E-1	1.001249E+0	9.955924E-1	1.004638E+0	9.743210E-1	9.806717E-1	9.352982E-1	1.001006E+0	9.826687E-1	9.945494E-1	9.674483E-1	9.898740E-1	9.839680E-1	1.020439E+0	9.581431E-1	9.892719E-1	9.965585E-1	9.601167E-1	9.677711E-1	9.962096E-1	1.041344E+0	9.960198E-1	1.021523E+0	1.051629E+0	1.017785E+0	1.010199E+0	9.522824E-1	1.001555E+0	9.656623E-1	9.293624E-1	9.740044E-1	9.964447E-1	9.541788E-1	1.017370E+0	1.014708E+0	9.996543E-1	9.608252E-1	1.019951E+0	1.002201E+0	9.493279E-1	9.644288E-1	1.017951E+0	1.000534E+0	9.693623E-1	1.014824E+0	9.972442E-1	9.730315E-1	1.002686E+0	9.756349E-1	9.826161E-1	1.005694E+0	9.843063E-1	9.677054E-1	9.785121E-1	1.007766E+0	9.562202E-1	1.004394E+0	9.621044E-1	9.362254E-1	9.870647E-1	9.737784E-1	9.235279E-1	9.775166E-1	9.897689E-1	9.799288E-1	9.777784E-1	1.028185E+0	9.817870E-1	9.762034E-1	9.775488E-1	1.068145E+0	9.713543E-1	9.740947E-1	9.668225E-1	9.937254E-1	9.917855E-1	9.924488E-1	9.297318E-1	9.941097E-1	1.002495E+0	9.863747E-1	9.911453E-1	9.776775E-1	9.964699E-1	9.898890E-1	9.666147E-1	1.032858E+0	9.154762E-1	9.858384E-1	9.591711E-1	1.027935E+0
5.560190E+2	9.222389E-1	9.908035E-1	9.756559E-1	9.820954E-1	9.465055E-1	9.461551E-1	9.863780E-1	9.700493E-1	1.005327E+0	9.835497E-1	9.803451E-1	9.962459E-1	9.915335E-1	1.011800E+0	1.020635E+0	9.819429E-1	9.937744E-1	9.887138E-1	1.007824E+0	1.002466E+0	1.020291E+0	1.002937E+0	9.453671E-1	1.011082E+0	9.331475E-1	9.659269E-1	9.887229E-1	1.008301E+0	9.623497E-1	1.026202E+0	9.788799E-1	9.874667E-1	9.996234E-1	1.011081E+0	9.457229E-1	1.005069E+0	1.024593E+0	9.892096E-1	9.741914E-1	9.846729E-1	9.646255E-1	1.019785E+0	9.809086E-1	9.427954E-1	9.491726E-1	1.050393E+0	9.869396E-1	9.786514E-1	1.011954E+0	9.832322E-1	9.898221E-1	9.577540E-1	9.626804E-1	9.952376E-1	9.354451E-1	9.576303E-1	9.797258E-1	9.668969E-1	9.859707E-1	9.932431E-1	9.507151E-1	9.689514E-1	9.718633E-1	9.928580E-1	9.736355E-1	1.005184E+0	1.022604E+0	1.011129E+0	9.530250E-1	9.702344E-1	9.794820E-1	9.767325E-1	9.497422E-1	9.630938E-1	9.925441E-1	1.034486E+0	9.792210E-1	9.930453E-1	1.003932E+0	9.476709E-1	1.026905E+0	9.776941E-1	9.989501E-1	9.545037E-1	9.658036E-1	9.930781E-1	1.051637E+0	9.873011E-1	9.525444E-1	9.966203E-1	1.040944E+0	9.988459E-1	1.016900E+0	9.663161E-1	1.010137E+0	9.860360E-1	9.644333E-1	9.300610E-1	9.857667E-1	9.712149E-1	9.704100E-1	9.722041E-1	1.033572E+0	1.042745E+0	9.982283E-1	9.773473E-1	9.866027E-1	9.856154E-1	9.630638E-1	9.784919E-1	9.915093E-1	1.008171E+0	9.930797E-1	9.672240E-1	1.006404E+0	9.917145E-1	9.873593E-1	9.535518E-1	9.761148E-1	1.012402E+0	9.816391E-1	9.550131E-1	9.983980E-1	9.504772E-1	9.549431E-1	1.017023E+0	9.842476E-1	9.526692E-1	1.018044E+0	1.001384E+0	1.020009E+0	9.730564E-1	1.007607E+0	9.937419E-1	9.862522E-1	9.521665E-1	9.882434E-1	9.495669E-1	9.879187E-1	9.709950E-1	1.037674E+0	9.778485E-1	9.579064E-1	9.245980E-1	9.660140E-1	9.983159E-1	1.008275E+0	9.344326E-1	1.006379E+0	1.010798E+0	1.022082E+0	9.896436E-1	9.642637E-1	9.940693E-1	9.525722E-1	9.752277E-1	9.713748E-1	9.449060E-1	9.822554E-1	1.004489E+0	1.012605E+0	9.730487E-1	9.975636E-1	1.011874E+0	9.998512E-1	9.727513E-1	9.988470E-1	9.995163E-1	9.744768E-1	9.344900E-1	9.687692E-1	1.102121E+0
5.565090E+2	9.144116E-1	9.960190E-1	9.586270E-1	9.984969E-1	9.659252E-1	1.008006E+0	9.539293E-1	9.851703E-1	1.001683E+0	9.960640E-1	9.833566E-1	9.469093E-1	9.972403E-1	9.447645E-1	9.991875E-1	9.451539E-1	1.021683E+0	9.985237E-1	9.602139E-1	9.680209E-1	9.751009E-1	9.690933E-1	9.305046E-1	9.626011E-1	9.449946E-1	9.804480E-1	9.928216E-1	9.643667E-1	9.992861E-1	9.237808E-1	9.586995E-1	9.849884E-1	9.720250E-1	1.003841E+0	9.751347E-1	9.370407E-1	9.775020E-1	1.005462E+0	9.784044E-1	9.723543E-1	9.711415E-1	9.680909E-1	9.989972E-1	1.015518E+0	1.002005E+0	1.020217E+0	9.965316E-1	9.826375E-1	1.032456E+0	9.928539E-1	9.929753E-1	9.871261E-1	1.008715E+0	9.658017E-1	9.633765E-1	9.694822E-1	9.354040E-1	9.853770E-1	9.671057E-1	1.014345E+0	9.713464E-1	9.578592E-1	9.873363E-1	9.722550E-1	9.851269E-1	9.554132E-1	1.004758E+0	1.002103E+0	9.928630E-1	1.009328E+0	9.974937E-1	1.020192E+0	9.702541E-1	9.565186E-1	9.574553E-1	9.848315E-1	9.870175E-1	9.486748E-1	9.613583E-1	9.702602E-1	1.012859E+0	9.477475E-1	1.031848E+0	9.405084E-1	9.791658E-1	9.975094E-1	9.925763E-1	1.003849E+0	9.558444E-1	9.159784E-1	9.261793E-1	9.707365E-1	9.793855E-1	9.706490E-1	9.929677E-1	9.204721E-1	9.372852E-1	9.722033E-1	9.516065E-1	9.975732E-1	9.458369E-1	9.734790E-1	1.010706E+0	9.918990E-1	9.890354E-1	9.578177E-1	1.021737E+0	1.018770E+0	9.526487E-1	9.615982E-1	9.654880E-1	9.966467E-1	1.024677E+0	9.704698E-1	9.892696E-1	9.581324E-1	9.773432E-1	9.664276E-1	1.020020E+0	9.956401E-1	9.776808E-1	9.656792E-1	9.662705E-1	9.900178E-1	9.672405E-1	9.892913E-1	9.822530E-1	9.451965E-1	9.938840E-1	1.001500E+0	1.006312E+0	9.884366E-1	9.590297E-1	1.011402E+0	9.991681E-1	9.710131E-1	9.878891E-1	9.902759E-1	9.867637E-1	9.449890E-1	9.813775E-1	9.350235E-1	9.304192E-1	1.018788E+0	9.765621E-1	9.684301E-1	1.006479E+0	9.604736E-1	9.564350E-1	9.783647E-1	9.683777E-1	9.710972E-1	9.563360E-1	9.593379E-1	9.976512E-1	9.861747E-1	9.700816E-1	9.360900E-1	9.635755E-1	9.737939E-1	9.744034E-1	9.951547E-1	9.654870E-1	9.998777E-1	9.963278E-1	9.559786E-1	1.029361E+0	9.573075E-1	9.548527E-1	9.845823E-1	9.862869E-1	1.069250E+0
5.570160E+2	9.927881E-1	9.682178E-1	9.932670E-1	9.642093E-1	9.552185E-1	9.726646E-1	1.018865E+0	1.003546E+0	1.007222E+0	1.016279E+0	9.675939E-1	9.838527E-1	9.690321E-1	9.950889E-1	9.883802E-1	9.860115E-1	9.961294E-1	9.563899E-1	9.819204E-1	9.847755E-1	9.750530E-1	1.020269E+0	9.960300E-1	9.907085E-1	9.576501E-1	9.637411E-1	9.645176E-1	9.796101E-1	9.698291E-1	9.539363E-1	9.277423E-1	9.660091E-1	9.943335E-1	9.832508E-1	9.897410E-1	1.000689E+0	9.726753E-1	9.888817E-1	9.375050E-1	9.493671E-1	9.951070E-1	9.476516E-1	9.280124E-1	9.343174E-1	9.873160E-1	9.701177E-1	1.004110E+0	9.949094E-1	9.781094E-1	9.789866E-1	1.003650E+0	9.529620E-1	9.674987E-1	9.757511E-1	9.383925E-1	1.014456E+0	1.006164E+0	9.757031E-1	9.755346E-1	9.945577E-1	9.751089E-1	9.450870E-1	9.860467E-1	9.516759E-1	9.813278E-1	9.923359E-1	9.619078E-1	9.932700E-1	1.002958E+0	9.803748E-1	9.962295E-1	9.302744E-1	9.815009E-1	9.486021E-1	1.030934E+0	9.829914E-1	9.938379E-1	9.750663E-1	9.771314E-1	9.990050E-1	9.660056E-1	9.883002E-1	9.836475E-1	9.684214E-1	1.010661E+0	9.869813E-1	9.995373E-1	9.896996E-1	9.881673E-1	9.700570E-1	1.037703E+0	9.625409E-1	1.022118E+0	9.463351E-1	1.011787E+0	1.015731E+0	9.923836E-1	1.007491E+0	9.666920E-1	9.817861E-1	1.014050E+0	9.691268E-1	9.713735E-1	9.824664E-1	9.862536E-1	9.817680E-1	1.030654E+0	9.564472E-1	9.627316E-1	9.738204E-1	9.635679E-1	1.000347E+0	1.013070E+0	9.553143E-1	1.009881E+0	9.654457E-1	9.801617E-1	9.379834E-1	1.026071E+0	9.591274E-1	9.549452E-1	9.731170E-1	9.500371E-1	1.006837E+0	9.173689E-1	9.917996E-1	9.793226E-1	9.699157E-1	9.817268E-1	9.776700E-1	9.963662E-1	1.027057E+0	1.050003E+0	9.879864E-1	1.032292E+0	1.024817E+0	1.007476E+0	9.787935E-1	9.711177E-1	9.448184E-1	1.020653E+0	9.888523E-1	9.747566E-1	9.985963E-1	9.945431E-1	9.748737E-1	9.953511E-1	1.002234E+0	1.002551E+0	9.906902E-1	9.906658E-1	1.023849E+0	9.495814E-1	9.749785E-1	1.007801E+0	9.866015E-1	1.005437E+0	9.753792E-1	9.379809E-1	9.702710E-1	9.979604E-1	9.505795E-1	9.190807E-1	9.670775E-1	9.746955E-1	1.029243E+0	9.863330E-1	1.019092E+0	9.814468E-1	1.000026E+0	9.477807E-1	9.053888E-1
5.575530E+2	9.868341E-1	1.006393E+0	9.971897E-1	1.008334E+0	1.026103E+0	1.002394E+0	9.940576E-1	1.038449E+0	1.014294E+0	1.029894E+0	1.007507E+0	1.024791E+0	1.008433E+0	1.032818E+0	1.043562E+0	1.023028E+0	1.025275E+0	1.013081E+0	1.035357E+0	9.926358E-1	1.011907E+0	1.006946E+0	1.036440E+0	1.021511E+0	9.653473E-1	9.832173E-1	1.023502E+0	1.007420E+0	9.998188E-1	9.952519E-1	1.026759E+0	1.009145E+0	1.058105E+0	1.038419E+0	9.718734E-1	1.004510E+0	9.966392E-1	9.759310E-1	1.002606E+0	9.467970E-1	1.068529E+0	1.004972E+0	1.020563E+0	9.864802E-1	1.016025E+0	1.065241E+0	1.003796E+0	1.046142E+0	1.053675E+0	1.056702E+0	1.019162E+0	1.037656E+0	1.023865E+0	1.019061E+0	9.850582E-1	1.042908E+0	1.040986E+0	1.022882E+0	1.023870E+0	1.024029E+0	9.971771E-1	9.745891E-1	1.011942E+0	9.943162E-1	1.010452E+0	1.020671E+0	1.049191E+0	9.953176E-1	1.037298E+0	1.006678E+0	9.917552E-1	1.001493E+0	1.052541E+0	9.727764E-1	1.001375E+0	9.806823E-1	9.915650E-1	1.007558E+0	9.911767E-1	1.019457E+0	9.895757E-1	1.000875E+0	1.036841E+0	9.650162E-1	1.053813E+0	1.017832E+0	1.031403E+0	1.011958E+0	1.015443E+0	9.857287E-1	9.804562E-1	1.021008E+0	1.029080E+0	9.845577E-1	1.010954E+0	1.073351E+0	1.026976E+0	1.048106E+0	9.922442E-1	1.042287E+0	1.019994E+0	1.015883E+0	1.012632E+0	9.813961E-1	9.908734E-1	9.744822E-1	1.074218E+0	1.052969E+0	1.022814E+0	1.034906E+0	9.859670E-1	1.002001E+0	1.027979E+0	1.023031E+0	1.032926E+0	9.906415E-1	1.018820E+0	1.009398E+0	1.044306E+0	9.847299E-1	1.006974E+0	9.739532E-1	1.015876E+0	1.015251E+0	1.036571E+0	1.040900E+0	1.030446E+0	1.008874E+0	1.016439E+0	1.016062E+0	1.062781E+0	1.001197E+0	1.036922E+0	1.013239E+0	1.020392E+0	1.036100E+0	9.693221E-1	1.029686E+0	1.004925E+0	9.942705E-1	1.048063E+0	9.946920E-1	9.871903E-1	1.010687E+0	1.000975E+0	1.022132E+0	1.026201E+0	1.017274E+0	1.019583E+0	1.031526E+0	1.030284E+0	1.043054E+0	1.049477E+0	1.017989E+0	1.005071E+0	1.023795E+0	1.031010E+0	1.037068E+0	1.019085E+0	1.045081E+0	1.027800E+0	9.736822E-1	1.005830E+0	9.842161E-1	1.020386E+0	1.007044E+0	1.004235E+0	1.044268E+0	9.401169E-1	9.826692E-1	1.015931E+0	1.053268E+0
5.580170E+2	9.672534E-1	1.015570E+0	9.822269E-1	1.037435E+0	9.839017E-1	1.006277E+0	1.027554E+0	1.027725E+0	9.890825E-1	1.003464E+0	1.006511E+0	1.031065E+0	9.909584E-1	9.825326E-1	1.005853E+0	9.970560E-1	9.914510E-1	9.904892E-1	1.012856E+0	1.014512E+0	1.022523E+0	9.833974E-1	9.726482E-1	1.004044E+0	1.011642E+0	1.015539E+0	1.017443E+0	1.016180E+0	9.930675E-1	9.973938E-1	9.993474E-1	9.896974E-1	9.669802E-1	9.696659E-1	1.005932E+0	1.000038E+0	9.770916E-1	9.946664E-1	1.014013E+0	9.662147E-1	1.023225E+0	1.000698E+0	9.934085E-1	1.008761E+0	1.042335E+0	9.929333E-1	1.008322E+0	9.769659E-1	9.974918E-1	9.998310E-1	9.826601E-1	9.905704E-1	9.915048E-1	1.005794E+0	1.025202E+0	1.010626E+0	9.923881E-1	1.000482E+0	9.842156E-1	1.013555E+0	1.020711E+0	1.004148E+0	9.951927E-1	1.006406E+0	9.925350E-1	1.015163E+0	1.020845E+0	1.002471E+0	9.814815E-1	9.940978E-1	1.042753E+0	1.026621E+0	1.053568E+0	9.792279E-1	9.754540E-1	1.010402E+0	9.969240E-1	9.984759E-1	1.013237E+0	1.014862E+0	1.010705E+0	1.019360E+0	1.006442E+0	9.905078E-1	1.005416E+0	1.033011E+0	9.969862E-1	9.923813E-1	9.765786E-1	1.041544E+0	1.006817E+0	1.040310E+0	9.991732E-1	9.808615E-1	1.035096E+0	1.031968E+0	1.039098E+0	1.003195E+0	9.656048E-1	9.869671E-1	1.007321E+0	1.056402E+0	9.980479E-1	1.010339E+0	9.889448E-1	9.733969E-1	1.028468E+0	1.008273E+0	1.009390E+0	1.009739E+0	9.675234E-1	9.945033E-1	1.049483E+0	1.018885E+0	1.070028E+0	1.005519E+0	9.934053E-1	1.011832E+0	1.021497E+0	9.646344E-1	1.003097E+0	9.950644E-1	1.019479E+0	9.907502E-1	1.007317E+0	1.000102E+0	9.419003E-1	9.690036E-1	1.032907E+0	1.023316E+0	1.024651E+0	1.028605E+0	9.979029E-1	9.940915E-1	1.014277E+0	9.730753E-1	9.864711E-1	1.019377E+0	1.026623E+0	1.011758E+0	9.659332E-1	9.799616E-1	1.022063E+0	1.001084E+0	9.698966E-1	9.880217E-1	1.044548E+0	1.000116E+0	9.772304E-1	9.721717E-1	1.039263E+0	1.002885E+0	9.840553E-1	1.013325E+0	1.014971E+0	9.721847E-1	9.934014E-1	1.022481E+0	9.964277E-1	9.907209E-1	9.697908E-1	9.834428E-1	1.013668E+0	1.027365E+0	1.006060E+0	9.626026E-1	1.014975E+0	9.831185E-1	9.751369E-1	9.981264E-1	9.891046E-1	9.810393E-1
5.585160E+2	9.661562E-1	1.035467E+0	1.012216E+0	1.019837E+0	1.006068E+0	1.019667E+0	1.001604E+0	1.020555E+0	9.648258E-1	1.018988E+0	1.001602E+0	9.909763E-1	9.806948E-1	1.008716E+0	9.845474E-1	1.010516E+0	1.027413E+0	9.913470E-1	1.018121E+0	9.975265E-1	1.006962E+0	9.861609E-1	9.897463E-1	9.767976E-1	1.004853E+0	9.834131E-1	9.962944E-1	9.846831E-1	9.983382E-1	1.003992E+0	1.003613E+0	1.017416E+0	1.005521E+0	1.025090E+0	9.924951E-1	1.001208E+0	1.000894E+0	9.956075E-1	9.964881E-1	9.995345E-1	1.010469E+0	9.478643E-1	9.798892E-1	9.976947E-1	9.780996E-1	1.010844E+0	1.001822E+0	1.067109E+0	1.022494E+0	1.020350E+0	9.964863E-1	1.016493E+0	9.677256E-1	9.824680E-1	9.998790E-1	9.782536E-1	9.916124E-1	1.016642E+0	1.004370E+0	1.023501E+0	1.003611E+0	1.002484E+0	1.013165E+0	1.005365E+0	9.967900E-1	1.009234E+0	1.025602E+0	9.960763E-1	9.882884E-1	9.809910E-1	1.007115E+0	9.680352E-1	1.017023E+0	9.659340E-1	9.938672E-1	9.990149E-1	1.028147E+0	1.003072E+0	9.869843E-1	9.744356E-1	1.000202E+0	9.667987E-1	9.624466E-1	1.017989E+0	1.013003E+0	9.952391E-1	9.981103E-1	1.042241E+0	1.018127E+0	9.991530E-1	1.016419E+0	1.016686E+0	9.535220E-1	9.667487E-1	1.006012E+0	1.001107E+0	1.004720E+0	1.011997E+0	1.059315E+0	1.003458E+0	1.036618E+0	1.021533E+0	1.006341E+0	1.012407E+0	9.817933E-1	1.039262E+0	9.860907E-1	1.027084E+0	9.676320E-1	1.001158E+0	9.960061E-1	9.641829E-1	9.952589E-1	9.480447E-1	9.615690E-1	1.001616E+0	1.003456E+0	1.005147E+0	9.798603E-1	1.009858E+0	9.940795E-1	1.001363E+0	9.663987E-1	9.921331E-1	9.508683E-1	9.740071E-1	1.007147E+0	1.011701E+0	9.772560E-1	9.734612E-1	1.042068E+0	9.956490E-1	9.916959E-1	9.702078E-1	9.925999E-1	9.991991E-1	1.002117E+0	9.926098E-1	9.957097E-1	1.015609E+0	1.014640E+0	9.547354E-1	9.929151E-1	1.021964E+0	1.022223E+0	1.008350E+0	1.040281E+0	1.010667E+0	9.976839E-1	9.882620E-1	1.029541E+0	1.013842E+0	9.980341E-1	1.009725E+0	1.010093E+0	9.883894E-1	1.035511E+0	1.017195E+0	9.805131E-1	1.004939E+0	9.509121E-1	1.013586E+0	1.001231E+0	1.002189E+0	9.889324E-1	9.989155E-1	9.974754E-1	9.718967E-1	1.046157E+0	9.930316E-1	9.634905E-1	1.060409E+0
5.590100E+2	1.007595E+0	1.008960E+0	9.803140E-1	1.012423E+0	9.815270E-1	1.003559E+0	1.056834E+0	9.833424E-1	9.850348E-1	1.017552E+0	1.017862E+0	1.006063E+0	1.027836E+0	1.035309E+0	1.028110E+0	1.014349E+0	9.845016E-1	1.041190E+0	1.002735E+0	1.059907E+0	9.951664E-1	9.899677E-1	1.005772E+0	1.015819E+0	9.914591E-1	9.975898E-1	1.011964E+0	1.001712E+0	1.005405E+0	1.000592E+0	1.057662E+0	9.898954E-1	1.006449E+0	1.051264E+0	1.045424E+0	9.894013E-1	1.013011E+0	9.974898E-1	1.032068E+0	1.033704E+0	9.657062E-1	1.011643E+0	1.003335E+0	9.943653E-1	9.614676E-1	9.894295E-1	9.768268E-1	1.008273E+0	1.038610E+0	1.000482E+0	1.041393E+0	1.004179E+0	1.017583E+0	9.997255E-1	9.896808E-1	9.788847E-1	9.586475E-1	1.009528E+0	9.515916E-1	1.002756E+0	1.041521E+0	9.932770E-1	9.928718E-1	9.976088E-1	1.009706E+0	9.947742E-1	9.896078E-1	9.900818E-1	9.912760E-1	1.013432E+0	9.658274E-1	9.969776E-1	9.968894E-1	1.018468E+0	1.013803E+0	1.005282E+0	9.885949E-1	1.020467E+0	9.911901E-1	1.017546E+0	1.034062E+0	1.015898E+0	1.002363E+0	1.030295E+0	9.826557E-1	1.004392E+0	9.848643E-1	9.692236E-1	1.007900E+0	1.026523E+0	9.546065E-1	1.012094E+0	9.846687E-1	1.017505E+0	9.661131E-1	9.742981E-1	1.012785E+0	9.624235E-1	1.028427E+0	1.020220E+0	1.003396E+0	9.735053E-1	1.005869E+0	9.559544E-1	1.042750E+0	1.018990E+0	9.865841E-1	9.651638E-1	1.017017E+0	1.010911E+0	1.019970E+0	1.045698E+0	1.014794E+0	1.007775E+0	1.005899E+0	9.815541E-1	9.830377E-1	1.008793E+0	9.796392E-1	1.003081E+0	1.042045E+0	1.022661E+0	1.014619E+0	1.033482E+0	1.028970E+0	1.010838E+0	9.768589E-1	1.024638E+0	9.964034E-1	1.029770E+0	9.750582E-1	9.639599E-1	9.994839E-1	9.817346E-1	1.019377E+0	1.004377E+0	1.011192E+0	9.370248E-1	9.895799E-1	9.902824E-1	1.000640E+0	9.815993E-1	1.010190E+0	9.773807E-1	1.068604E+0	9.819921E-1	9.931442E-1	1.018722E+0	9.920661E-1	9.873653E-1	9.576297E-1	1.009475E+0	1.032013E+0	9.655629E-1	9.453917E-1	9.898233E-1	1.002321E+0	9.931551E-1	1.015981E+0	1.027786E+0	1.063123E+0	1.010805E+0	1.000611E+0	1.014043E+0	9.945608E-1	9.977601E-1	1.016315E+0	1.010388E+0	1.054203E+0	9.921610E-1	9.734314E-1	1.021311E+0
5.595110E+2	1.028475E+0	9.958647E-1	1.005106E+0	9.386688E-1	1.023091E+0	9.963831E-1	1.001225E+0	1.012710E+0	9.993261E-1	1.036918E+0	1.017750E+0	9.890003E-1	1.019841E+0	1.026212E+0	9.714871E-1	9.937764E-1	1.030091E+0	1.018551E+0	1.009333E+0	9.691181E-1	1.006820E+0	9.947155E-1	9.857563E-1	1.010842E+0	1.040778E+0	9.885906E-1	9.873953E-1	1.018285E+0	1.023363E+0	9.801795E-1	9.990974E-1	9.812012E-1	1.006982E+0	1.004879E+0	9.857235E-1	9.783352E-1	1.030719E+0	1.017472E+0	9.653246E-1	1.024260E+0	1.024443E+0	1.009170E+0	1.007771E+0	9.626016E-1	1.028662E+0	1.030716E+0	1.008989E+0	1.001925E+0	9.935376E-1	9.892308E-1	9.878417E-1	1.002781E+0	9.950099E-1	9.991052E-1	9.888655E-1	1.019720E+0	1.055617E+0	1.020957E+0	1.005650E+0	1.013187E+0	9.943313E-1	9.999025E-1	9.925264E-1	9.943844E-1	9.945524E-1	9.739253E-1	9.740243E-1	1.019684E+0	1.045391E+0	9.820501E-1	1.013186E+0	1.014071E+0	1.008498E+0	1.015587E+0	1.035502E+0	9.831989E-1	1.030637E+0	1.019753E+0	1.003153E+0	1.015508E+0	1.020218E+0	9.947237E-1	1.033390E+0	9.992181E-1	9.943307E-1	9.498588E-1	9.965486E-1	9.969166E-1	9.755765E-1	9.748984E-1	1.007160E+0	9.596254E-1	1.024779E+0	1.055054E+0	1.011051E+0	9.717396E-1	9.892386E-1	1.036465E+0	1.008602E+0	1.020915E+0	9.978902E-1	9.911625E-1	1.002731E+0	1.004362E+0	1.006208E+0	9.969828E-1	1.010149E+0	1.014421E+0	1.020975E+0	1.035823E+0	9.822844E-1	9.707059E-1	1.002593E+0	1.017234E+0	1.017248E+0	1.021816E+0	1.031816E+0	9.998611E-1	9.763650E-1	1.020502E+0	9.840783E-1	1.008106E+0	9.980692E-1	9.821016E-1	9.490269E-1	1.028089E+0	1.021343E+0	1.028078E+0	1.015235E+0	1.014811E+0	9.921375E-1	1.015281E+0	1.034844E+0	1.041804E+0	9.971438E-1	1.006875E+0	1.016709E+0	1.003435E+0	1.009421E+0	9.743437E-1	1.011005E+0	1.023648E+0	1.013270E+0	1.020436E+0	1.026208E+0	9.914118E-1	9.861092E-1	1.016681E+0	1.025555E+0	9.804527E-1	9.929796E-1	1.019291E+0	9.943714E-1	1.006964E+0	1.009852E+0	1.016773E+0	9.706775E-1	9.999948E-1	1.022311E+0	1.011488E+0	1.026703E+0	1.026695E+0	9.995381E-1	1.003325E+0	9.939783E-1	9.998118E-1	9.792150E-1	1.019842E+0	9.539269E-1	1.037131E+0	9.804974E-1	9.919804E-1
5.600240E+2	1.006408E+0	9.775583E-1	1.016293E+0	9.777793E-1	1.039235E+0	9.822272E-1	9.613841E-1	9.920741E-1	1.016983E+0	9.893777E-1	9.995195E-1	9.790492E-1	1.023980E+0	9.998203E-1	9.865092E-1	9.866460E-1	9.729934E-1	9.948018E-1	9.943886E-1	1.018481E+0	9.864250E-1	1.049899E+0	1.009618E+0	1.025956E+0	9.761854E-1	9.708641E-1	1.022292E+0	1.002064E+0	1.026270E+0	1.025823E+0	9.751748E-1	9.980899E-1	9.792520E-1	9.913487E-1	1.004104E+0	1.001840E+0	1.012010E+0	1.045563E+0	9.954861E-1	1.002170E+0	1.006455E+0	1.005402E+0	1.009190E+0	1.020246E+0	1.016753E+0	9.932478E-1	9.843925E-1	9.778384E-1	9.813394E-1	1.006492E+0	9.988307E-1	1.003423E+0	1.011704E+0	1.028321E+0	9.958260E-1	1.041927E+0	9.688965E-1	1.002087E+0	1.036599E+0	9.986465E-1	9.897734E-1	1.036520E+0	1.011665E+0	1.013207E+0	1.017383E+0	1.018592E+0	1.008895E+0	9.840088E-1	1.003291E+0	1.021726E+0	9.718840E-1	1.006236E+0	9.762655E-1	1.033922E+0	9.611587E-1	1.032179E+0	9.775001E-1	9.812497E-1	1.002067E+0	1.031845E+0	9.822984E-1	1.017422E+0	9.692670E-1	9.989768E-1	1.010210E+0	1.019600E+0	1.003861E+0	9.941678E-1	9.943826E-1	9.815578E-1	9.980741E-1	9.827557E-1	1.043395E+0	9.818155E-1	1.014345E+0	1.016389E+0	9.650707E-1	1.016028E+0	9.815426E-1	9.881314E-1	9.808428E-1	9.833865E-1	9.753797E-1	1.030487E+0	1.031366E+0	1.015198E+0	9.810490E-1	9.770136E-1	9.971070E-1	9.641623E-1	1.018061E+0	9.744552E-1	9.830879E-1	1.043606E+0	9.481852E-1	9.692056E-1	9.885473E-1	1.007939E+0	9.782654E-1	9.714179E-1	1.004379E+0	1.003114E+0	9.933590E-1	1.006839E+0	1.026941E+0	9.861466E-1	1.026085E+0	9.939192E-1	1.001031E+0	1.004981E+0	1.005306E+0	9.930774E-1	1.002420E+0	9.998105E-1	9.812300E-1	9.917328E-1	1.027109E+0	9.957259E-1	1.016947E+0	1.001758E+0	1.034183E+0	9.998946E-1	1.033873E+0	1.002438E+0	9.873805E-1	1.003629E+0	9.659692E-1	9.852083E-1	1.000964E+0	1.047154E+0	1.009387E+0	9.805271E-1	1.005267E+0	1.029218E+0	1.030681E+0	1.048770E+0	1.006402E+0	1.009634E+0	1.024135E+0	9.611389E-1	1.003160E+0	1.012556E+0	9.832263E-1	9.948831E-1	1.018424E+0	1.013064E+0	9.686151E-1	1.007825E+0	9.928242E-1	9.805306E-1	1.071301E+0	1.075246E+0
5.605150E+2	1.010299E+0	9.837194E-1	9.744045E-1	9.642707E-1	1.014057E+0	1.023385E+0	9.707092E-1	9.738315E-1	1.002065E+0	9.614992E-1	9.823271E-1	1.016287E+0	9.734648E-1	9.509471E-1	1.027201E+0	1.013152E+0	9.785632E-1	9.826240E-1	1.004910E+0	9.972886E-1	9.957880E-1	1.012306E+0	1.016076E+0	9.811479E-1	9.823619E-1	1.021863E+0	9.589587E-1	9.813237E-1	9.536045E-1	9.990277E-1	9.553484E-1	9.997677E-1	1.014492E+0	9.886345E-1	9.968212E-1	1.003950E+0	9.898646E-1	9.702726E-1	1.002046E+0	9.696857E-1	9.789500E-1	1.005985E+0	9.993663E-1	9.867965E-1	9.805844E-1	1.000141E+0	1.023897E+0	1.000634E+0	9.961419E-1	9.915498E-1	9.802605E-1	1.013556E+0	9.754259E-1	1.030090E+0	1.010806E+0	9.866081E-1	9.953834E-1	9.965243E-1	9.962206E-1	9.502726E-1	9.551477E-1	9.883600E-1	1.030783E+0	9.911978E-1	9.966180E-1	1.015243E+0	1.011491E+0	9.800424E-1	9.890633E-1	1.001697E+0	1.006277E+0	1.023258E+0	9.399031E-1	1.000680E+0	1.020818E+0	9.905058E-1	9.818586E-1	1.010347E+0	1.014056E+0	9.585625E-1	9.854515E-1	9.907774E-1	1.022808E+0	9.812592E-1	9.771651E-1	1.005014E+0	9.898902E-1	1.007560E+0	9.790403E-1	9.950892E-1	1.000577E+0	9.907974E-1	9.860044E-1	1.011059E+0	9.758755E-1	1.006030E+0	9.974725E-1	9.720718E-1	1.014027E+0	1.007336E+0	9.739332E-1	9.812969E-1	9.985506E-1	9.915441E-1	9.396340E-1	9.937461E-1	9.838061E-1	9.936338E-1	1.004826E+0	9.875306E-1	9.985182E-1	1.010888E+0	9.918902E-1	9.641215E-1	9.985258E-1	1.035092E+0	9.994891E-1	9.777946E-1	1.027090E+0	1.017308E+0	9.882549E-1	9.805544E-1	1.002773E+0	9.656215E-1	1.014904E+0	9.773226E-1	9.814713E-1	9.924224E-1	9.831632E-1	9.812003E-1	9.831351E-1	9.917217E-1	9.863410E-1	1.011445E+0	9.616534E-1	1.024325E+0	9.651427E-1	1.032439E+0	9.693589E-1	9.804067E-1	9.825274E-1	1.030208E+0	9.700369E-1	9.793259E-1	9.919870E-1	1.010250E+0	9.737418E-1	9.531056E-1	9.993255E-1	1.037725E+0	9.869779E-1	9.754800E-1	9.864619E-1	9.983914E-1	9.822891E-1	9.925209E-1	1.024710E+0	9.934712E-1	9.809859E-1	1.005537E+0	1.008095E+0	9.565962E-1	1.005211E+0	9.610125E-1	9.935713E-1	1.009836E+0	1.003658E+0	1.009863E+0	9.592675E-1	1.004930E+0	9.908846E-1	8.688996E-1
5.610010E+2	1.013814E+0	9.828606E-1	1.029439E+0	1.049587E+0	9.521211E-1	9.685019E-1	9.806894E-1	9.897630E-1	1.042682E+0	9.722006E-1	9.744281E-1	9.875591E-1	9.832254E-1	9.964635E-1	9.962917E-1	9.845052E-1	1.014987E+0	9.809977E-1	9.576554E-1	9.431671E-1	9.863164E-1	9.835541E-1	1.020383E+0	9.853942E-1	9.927210E-1	1.022141E+0	1.005652E+0	9.957526E-1	9.999511E-1	9.929917E-1	1.009756E+0	1.023933E+0	1.020323E+0	9.691181E-1	9.694999E-1	1.025228E+0	9.764102E-1	9.789287E-1	9.945744E-1	1.004431E+0	9.907513E-1	1.019238E+0	1.007040E+0	1.029535E+0	9.920981E-1	9.826878E-1	9.957509E-1	9.672549E-1	9.703860E-1	9.920640E-1	1.012527E+0	9.689978E-1	1.041046E+0	9.544963E-1	9.897405E-1	9.839806E-1	1.037455E+0	9.537801E-1	1.021352E+0	9.980822E-1	9.949051E-1	9.753086E-1	9.637956E-1	9.918309E-1	9.924161E-1	9.730678E-1	9.695349E-1	1.027636E+0	1.001209E+0	1.006006E+0	9.929571E-1	9.648023E-1	1.007854E+0	9.861802E-1	9.993977E-1	9.794183E-1	9.963380E-1	9.666351E-1	9.893133E-1	9.872411E-1	9.670634E-1	9.950196E-1	1.003284E+0	9.817542E-1	1.017219E+0	9.928851E-1	1.029740E+0	9.975099E-1	1.048395E+0	9.812343E-1	1.016346E+0	9.977316E-1	1.008458E+0	9.869560E-1	9.915078E-1	9.984675E-1	9.916153E-1	9.978191E-1	9.424818E-1	9.729723E-1	9.999987E-1	9.927143E-1	1.013082E+0	9.949060E-1	1.009303E+0	9.624255E-1	1.023854E+0	1.014411E+0	9.830532E-1	9.906766E-1	1.017637E+0	1.039566E+0	9.628925E-1	1.000334E+0	9.985453E-1	9.851973E-1	1.000248E+0	9.886328E-1	1.037283E+0	1.013200E+0	9.840663E-1	9.891367E-1	1.005302E+0	1.029072E+0	1.021972E+0	1.023495E+0	1.045195E+0	9.802374E-1	9.940047E-1	9.724609E-1	9.776438E-1	1.011707E+0	9.873122E-1	1.000907E+0	1.033720E+0	1.000416E+0	9.912589E-1	1.019389E+0	9.923606E-1	1.025842E+0	9.910719E-1	1.029953E+0	9.576515E-1	9.973718E-1	9.337017E-1	1.016346E+0	9.962070E-1	1.015499E+0	1.007176E+0	9.868698E-1	9.842222E-1	9.984999E-1	9.997973E-1	9.768145E-1	1.006722E+0	9.915384E-1	9.669763E-1	9.640690E-1	9.796469E-1	9.983900E-1	9.782156E-1	9.963188E-1	9.965139E-1	9.971812E-1	1.004473E+0	1.018010E+0	1.019747E+0	9.970667E-1	1.018485E+0	9.940893E-1	1.031290E+0	1.001115E+0
