Photon Energy (eV)	#1	#2	#3	#4	#5	#6	#7	#8	#9	#10	#11	#12	#13	#14	#15	#16	#17	#18	#19	#20	#21	#22	#23	#24	#25	#26	#27	#28	#29	#30	#31	#32	#33	#34	#35	#36	#37	#38	#39	#40	#41	#42	#43	#44	#45	#46	#47	#48	#49	#50	#51	#52	#53	#54	#55	#56	#57	#58	#59	#60	#61	#62	#63	#64	#65	#66	#67	#68	#69	#70	#71	#72	#73	#74	#75	#76	#77	#78	#79	#80	#81	#82	#83	#84	#85	#86	#87	#88	#89	#90	#91	#92	#93	#94	#95	#96	#97	#98	#99	#100	#101	#102	#103	#104	#105	#106	#107	#108	#109	#110	#111	#112	#113	#114	#115	#116	#117	#118	#119	#120	#121	#122	#123	#124	#125	#126	#127	#128	#129	#130	#131	#132	#133	#134	#135	#136	#137	#138	#139	#140	#141	#142	#143	#144	#145	#146	#147	#148	#149	#150	#151	#152	#153	#154	#155	#156	#157	#158	#159	#160	#161	#162	#163	#164	#165	#166	#167	#168	#169	#170	#171	#172	
5.300160E+2	-1.040245E-2	6.139174E-5	-2.292815E-3	-3.807480E-3	-3.610365E-3	-2.664913E-3	-3.906239E-3	4.220800E-3	-2.660427E-3	3.262138E-3	-3.039691E-5	-5.497926E-3	-5.890794E-3	-3.542532E-3	-9.326778E-3	-1.248511E-2	1.467469E-3	5.508410E-5	-6.255540E-3	-4.823014E-3	-6.926383E-3	-7.465734E-3	2.389406E-3	-1.709014E-4	-4.786258E-3	-1.068752E-2	-5.035468E-3	-8.405992E-3	-1.161757E-2	-6.638131E-3	-3.560057E-3	-3.341827E-3	-1.399351E-2	-2.358489E-3	-1.110466E-2	-4.726000E-4	-1.397524E-2	-5.658718E-4	2.460406E-3	-5.979102E-3	-4.738543E-3	-9.550205E-3	-8.063626E-3	2.170619E-4	-7.273137E-3	-5.260612E-3	-1.781799E-3	-5.611369E-4	-1.509888E-2	-6.567284E-3	-1.340840E-2	-2.589633E-3	3.978621E-3	-6.535561E-3	-7.266622E-4	-4.155080E-4	-1.914706E-3	3.366148E-3	-1.968552E-3	-2.429185E-3	-3.176656E-3	-8.465349E-3	-6.944551E-3	-4.669771E-3	-3.146711E-3	-6.906274E-4	-6.704312E-3	-4.802932E-3	-4.343008E-3	-9.010627E-3	-2.016665E-3	-5.983226E-4	-2.177288E-3	-4.462494E-3	-6.281221E-3	-1.566946E-3	-3.616917E-3	-5.857699E-3	-7.045119E-3	-8.029528E-3	-4.395181E-3	-3.095652E-3	-1.135260E-2	-6.574016E-3	-2.314791E-3	-5.948708E-3	-4.651632E-3	-6.655948E-3	-1.874265E-3	-5.202340E-3	-8.232038E-3	-5.530788E-3	-7.988388E-3	-2.496894E-3	-3.793155E-3	3.743867E-4	-4.735100E-3	-5.623729E-3	-2.894155E-3	-4.795784E-3	-5.304625E-3	-2.346693E-4	1.642795E-3	-1.287699E-3	-3.164246E-3	-2.769353E-3	-4.601116E-3	-8.041973E-3	-2.878753E-3	-1.022940E-2	-3.231876E-4	-3.362987E-3	-7.538535E-3	-5.768909E-3	-5.935676E-3	2.171618E-3	-1.116717E-2	1.752846E-3	-3.003687E-5	-9.860393E-3	-1.815202E-3	-5.923190E-3	-8.985866E-3	1.706893E-3	-2.225684E-3	-1.400999E-2	-3.112722E-3	1.724452E-3	-1.996196E-3	-4.720471E-3	-8.859990E-3	-1.322107E-2	-3.790697E-3	-9.851071E-4	-4.009067E-3	-4.040175E-3	2.386354E-3	-5.478120E-3	-1.028224E-2	-5.965272E-3	-1.422445E-2	-2.517053E-3	-9.728397E-4	-8.466155E-3	-1.524371E-2	-1.997761E-3	8.852643E-4	-7.167756E-3	-6.523950E-3	-5.425191E-3	3.761835E-3	-8.603153E-4	-2.216496E-3	3.457912E-4	-1.781681E-3	-4.684591E-3	-8.956700E-3	-6.035606E-3	-1.187143E-3	-3.616968E-3	-7.752037E-3	-2.113591E-3	-3.249480E-3	-7.362035E-3	-8.614803E-3	-2.409247E-3	-1.144489E-2	7.679434E-4	-7.271612E-3	-7.578598E-3	-8.441664E-3	1.247952E-2
5.305130E+2	-5.176815E-4	-3.988169E-3	-1.090088E-2	-1.508054E-3	-4.740593E-3	-5.476398E-3	5.493793E-3	-4.492705E-3	-6.130513E-3	6.553434E-5	-8.420203E-3	-3.604569E-3	-8.276620E-3	-7.589266E-3	-4.882263E-3	3.979251E-3	7.273668E-4	-9.758086E-3	-7.446243E-3	-6.656839E-3	-8.418186E-3	-1.316687E-2	-4.768069E-3	-6.996792E-3	-9.067770E-3	-5.592112E-3	-9.808020E-4	-9.524819E-3	-8.604249E-4	-6.807627E-3	-1.196329E-3	-9.625183E-3	-8.743209E-3	-5.419710E-3	-6.955833E-3	-3.946149E-3	-5.652422E-3	-8.035314E-3	-4.178900E-3	9.958117E-3	-7.401287E-3	-3.383639E-3	-5.597081E-4	-6.410500E-3	-6.545796E-3	-2.498784E-3	-5.303515E-3	-6.788215E-3	6.074448E-4	-2.078703E-3	2.142097E-3	-3.328681E-3	-1.371455E-2	-5.805518E-3	-4.983986E-3	-4.105153E-3	-9.368060E-3	-8.264074E-3	-1.355141E-2	9.913104E-4	-5.816942E-3	2.431834E-3	-1.018918E-2	-6.261341E-3	-7.503724E-3	-7.347496E-3	-1.007574E-2	-7.119140E-3	-3.040128E-3	-6.089797E-4	-4.943721E-3	-1.285134E-3	-6.242668E-3	1.851611E-3	-8.453043E-3	-4.239838E-3	-1.076847E-2	-5.535891E-3	-3.389945E-3	-1.809224E-3	-6.153189E-3	-5.568998E-3	-2.122795E-3	-1.347331E-3	2.641013E-3	-2.752070E-3	-5.271856E-3	-2.884637E-3	-7.979044E-3	-7.499481E-3	2.009671E-3	-4.597722E-3	-1.171101E-2	-5.686485E-3	-6.594249E-3	-8.590217E-4	-3.157810E-3	-8.311038E-3	4.586501E-5	-1.622484E-3	-1.143477E-3	-3.025125E-3	-9.263060E-3	-1.551480E-3	2.295825E-3	-3.972885E-3	-3.030278E-3	-2.380923E-3	1.099602E-4	-8.880474E-3	2.508170E-4	-6.915424E-4	-2.607587E-3	-6.553965E-3	-8.322877E-3	-1.201630E-2	9.618251E-4	-5.557778E-4	-1.102247E-2	6.252940E-4	-8.143999E-4	-4.436745E-3	-7.335433E-3	-8.640943E-3	-3.060331E-3	1.415105E-3	6.363966E-5	-7.383865E-3	-3.737522E-3	-6.621847E-3	-3.612244E-3	4.342042E-3	-6.424310E-3	-5.329646E-3	-1.235756E-3	1.419383E-3	-3.313600E-3	-8.994346E-3	3.484324E-4	-5.512877E-3	3.043300E-3	1.049257E-3	-4.823535E-3	-5.021415E-3	2.818425E-4	6.225416E-4	4.110783E-3	-5.510241E-3	-7.762884E-3	-4.580388E-3	-7.523691E-3	-8.266506E-3	-1.778021E-3	-3.803700E-3	-1.131570E-2	-1.561511E-3	-4.138592E-3	-7.804581E-3	-5.266033E-4	-2.397767E-3	7.143034E-3	-8.076344E-3	-9.256761E-3	-1.071915E-3	-8.192687E-3	-1.608088E-3	-5.053027E-3	-1.012520E-3	-3.936417E-3	-9.232108E-3	-2.286929E-2	1.996724E-3
5.310000E+2	-9.511466E-3	-6.749083E-4	-1.877042E-3	-4.494355E-3	-9.920690E-3	-2.840697E-3	-5.034248E-3	-2.712931E-3	-2.799189E-3	-1.985784E-3	-5.137231E-3	8.994093E-4	1.001454E-3	4.197362E-3	-6.268761E-3	-5.175710E-3	-1.458546E-2	-6.910523E-4	-5.375447E-3	-2.363022E-3	-9.696886E-3	2.290974E-3	-1.034537E-2	-2.602448E-3	-1.914712E-4	-8.476287E-3	-8.553748E-3	4.746984E-3	-1.315260E-3	1.908712E-3	-4.232325E-3	-1.047203E-3	-9.802079E-3	3.821708E-3	4.278094E-4	-2.244537E-4	-3.452558E-3	-4.686616E-3	-6.426970E-3	-3.375811E-3	-8.432022E-3	-5.073090E-3	-7.077018E-3	-1.201053E-3	-8.818649E-3	4.603172E-4	1.299676E-3	-1.340532E-3	-7.783236E-3	4.911250E-4	-4.333542E-3	-2.794448E-3	-9.969980E-3	2.662298E-4	-1.011334E-2	-8.093919E-3	-2.082850E-3	-3.384213E-3	3.022737E-3	-3.558139E-3	-1.001864E-3	-1.003528E-2	-4.553673E-4	-7.149650E-3	-2.222503E-3	-5.208730E-3	3.225134E-3	-3.348600E-3	-1.024035E-2	-5.073977E-3	-2.638970E-3	-8.309099E-3	-7.374498E-3	-4.542408E-3	-4.364905E-3	-1.081672E-2	-1.964252E-3	5.617653E-4	-5.105438E-4	-2.784913E-3	-2.907568E-3	-2.704123E-3	7.675288E-4	-2.825104E-4	-8.722595E-3	1.322010E-4	-1.653952E-3	4.428508E-3	-1.017456E-3	6.756255E-5	-7.071628E-3	-5.125903E-3	-5.005079E-3	-6.169748E-3	-6.069013E-3	-6.740306E-3	-9.429057E-3	-4.681921E-3	5.788297E-4	-3.236063E-3	-7.373203E-3	-7.121191E-3	-7.232433E-3	-3.360510E-3	-6.573394E-3	8.772191E-4	-2.085022E-4	-1.241148E-3	-7.342433E-3	1.742357E-3	-1.324584E-2	2.828352E-4	-3.163720E-3	-5.330546E-3	-7.844415E-4	1.447637E-4	-7.841477E-3	-4.146999E-3	-5.075714E-3	-1.298716E-3	-4.346653E-3	6.373588E-3	3.667711E-3	-3.852736E-3	4.451740E-4	-3.919247E-3	-7.201931E-3	-1.080558E-2	-4.267890E-3	-1.302060E-3	3.410690E-3	1.512335E-3	-7.809735E-4	-7.240974E-4	-5.601848E-3	-6.731718E-3	-5.495385E-3	-9.682123E-4	-1.252846E-3	-1.083511E-2	6.747747E-5	-6.592946E-3	7.199063E-3	9.142279E-3	7.199114E-3	-4.952518E-3	-2.263006E-3	-4.921836E-3	-6.181319E-3	-8.059126E-3	-9.907955E-3	-6.919882E-3	-5.870011E-3	-5.501253E-3	-9.113419E-3	-2.104718E-3	5.250465E-3	1.207124E-3	-1.004074E-3	-1.215147E-2	-2.364414E-3	3.408873E-3	1.282240E-3	-3.722236E-3	2.046306E-3	-1.085615E-3	-5.053033E-3	-1.174887E-2	-6.693802E-4	5.236098E-3	4.758044E-3	-1.083934E-2
5.315130E+2	6.977068E-3	-1.227111E-4	6.616025E-3	8.809164E-4	-1.915059E-3	-1.259290E-3	3.989824E-3	-4.326141E-5	5.320712E-4	-3.011412E-3	5.805986E-3	2.901174E-3	-6.067563E-3	-1.460257E-3	6.637176E-4	8.774715E-3	-2.335191E-3	-1.257701E-3	-2.269274E-3	-3.436514E-3	4.368912E-3	3.288228E-3	-9.069225E-4	-1.723545E-3	-6.979223E-3	5.944609E-3	-5.075203E-4	-1.067427E-3	-4.044352E-3	-1.480971E-3	-7.625980E-4	2.812874E-3	-8.015472E-4	-1.119564E-2	-1.154439E-3	6.155540E-3	-1.252711E-3	-1.337897E-3	3.172095E-4	-7.661681E-3	1.360019E-3	9.568955E-3	5.957591E-3	-5.252846E-3	-4.272940E-3	-8.416997E-3	3.563586E-4	-8.865158E-4	-4.112329E-3	5.116770E-3	-5.412828E-3	-3.328691E-3	-6.225398E-3	-4.070734E-3	1.684134E-3	-4.603701E-3	-3.203666E-3	-1.310334E-4	-5.550123E-3	-1.030640E-3	-5.816977E-3	-2.185574E-3	1.081520E-3	4.009857E-4	4.114928E-3	4.950311E-3	4.541268E-4	-1.732648E-3	-2.525785E-3	-3.734504E-3	-1.717046E-3	-5.031247E-3	5.486469E-4	-1.345412E-3	3.811310E-3	6.384350E-3	-1.037468E-3	5.361157E-5	1.409022E-3	1.118036E-3	2.501877E-3	-9.851680E-4	4.235965E-3	1.314809E-3	-6.355225E-3	-3.232748E-3	4.134941E-4	-7.336906E-4	-4.766025E-3	3.851094E-3	7.988354E-4	-3.013348E-3	4.280071E-3	-2.786843E-3	2.334229E-4	3.551894E-3	-6.008411E-3	4.131767E-3	6.974163E-3	-3.773898E-3	2.690230E-3	3.631000E-3	2.412671E-3	4.327829E-3	-8.790641E-3	4.649527E-3	-3.030309E-3	-6.711789E-4	-8.215940E-4	7.306826E-4	-1.610816E-3	-8.973789E-3	-1.495336E-3	2.010184E-3	-1.364313E-3	7.238891E-4	-1.632589E-5	-1.081639E-2	-1.832094E-3	1.106278E-3	-7.878970E-3	-4.436725E-3	-8.985863E-3	-6.512893E-3	-9.069690E-3	1.948484E-3	6.225499E-4	1.414841E-3	-5.328617E-3	-7.109306E-4	1.069693E-3	-1.320221E-2	-3.859142E-3	-9.014112E-3	1.189900E-3	2.947680E-3	-7.677190E-3	7.631170E-3	-3.387916E-3	3.534818E-3	-1.420390E-3	2.141037E-3	-1.005081E-2	2.322752E-3	-2.023962E-3	1.737604E-3	-1.683619E-3	3.743487E-4	1.068877E-2	-1.076881E-4	1.536534E-3	-1.084764E-3	5.601984E-4	-3.237880E-3	3.549625E-3	2.240470E-3	-1.667788E-3	-4.299999E-3	-3.391695E-3	-2.885472E-3	-1.466832E-2	-1.267046E-2	1.809203E-3	-2.662148E-3	6.896334E-3	-4.220546E-3	3.584627E-3	5.979823E-4	5.048202E-3	5.236154E-3	9.362569E-3	-1.212283E-3
5.320170E+2	4.815957E-4	3.190492E-3	1.307880E-3	6.853476E-3	2.794105E-3	2.957830E-3	2.485782E-3	-9.331550E-4	3.863389E-3	4.680935E-3	8.815436E-4	6.904734E-3	6.303167E-3	1.840015E-3	1.036922E-2	1.799525E-3	9.915051E-3	7.242583E-3	1.067325E-2	1.051822E-2	1.331993E-2	5.282829E-3	3.801622E-4	9.130609E-4	8.162753E-3	1.329941E-3	7.065480E-3	8.447074E-3	1.142045E-2	-2.449460E-3	4.875677E-3	-1.905039E-3	1.296404E-2	4.399308E-3	8.338762E-3	-1.287854E-3	4.466948E-3	3.363959E-4	1.666056E-3	-4.328247E-3	7.544441E-3	1.684765E-3	8.673143E-3	5.166003E-3	1.163700E-2	3.912567E-3	2.243002E-3	1.383360E-3	4.802785E-3	1.005070E-3	2.681672E-3	4.150852E-3	1.249759E-2	8.506489E-3	4.761747E-3	8.858416E-3	5.762814E-3	4.748788E-3	8.737902E-3	-1.030661E-3	-3.890882E-3	7.049341E-3	5.179977E-3	9.284062E-3	-3.806878E-3	1.381372E-4	4.541538E-4	5.808403E-3	7.245974E-3	-6.089743E-4	3.814397E-3	7.611898E-3	1.680525E-3	1.851607E-3	1.767268E-3	3.134127E-4	7.303399E-3	5.617932E-4	-9.904397E-4	-1.809224E-3	3.042772E-3	5.890474E-3	1.894795E-4	-3.477052E-3	-1.620369E-3	3.497109E-3	-1.137082E-3	-7.336984E-4	1.660050E-3	2.229560E-3	3.220491E-3	9.133871E-3	1.098597E-2	5.912007E-3	2.334246E-3	-3.689415E-4	1.109508E-2	3.094867E-3	-5.283539E-3	1.604550E-3	-1.143444E-3	4.692637E-5	3.427981E-3	-1.947066E-4	8.947720E-3	-1.278423E-3	9.202025E-4	2.748192E-3	4.767757E-3	7.306732E-3	6.301024E-3	1.744421E-3	2.397494E-3	8.127481E-3	-3.683860E-3	1.882080E-3	4.874453E-3	4.574531E-3	3.574009E-3	-8.176758E-4	6.838883E-3	6.914128E-3	9.719428E-3	8.383810E-3	2.949004E-3	1.948523E-3	5.093696E-3	3.858957E-3	9.521354E-3	2.835599E-3	9.263144E-3	6.605807E-3	4.862379E-3	1.118144E-3	-1.720866E-3	1.007990E-2	6.504463E-3	7.516741E-4	8.354811E-3	2.003359E-2	4.035203E-3	-2.225953E-3	5.630865E-3	-5.021392E-3	6.622676E-3	-4.952579E-3	-1.683569E-3	1.037812E-2	3.308140E-3	9.334685E-3	4.874526E-3	5.648113E-3	4.067607E-3	1.854674E-3	7.954165E-3	-4.752807E-4	4.262170E-3	5.712985E-3	-5.265683E-4	6.868238E-3	3.787451E-3	-6.109762E-4	6.551742E-3	5.288875E-3	-5.498167E-3	-4.743004E-3	1.351792E-2	7.039758E-3	-1.486066E-3	2.135754E-3	6.292873E-3	-4.421309E-3
5.325170E+2	1.297293E-2	1.533904E-3	7.146830E-3	2.075496E-3	1.739260E-2	9.283468E-3	-3.028912E-3	3.961253E-3	7.194669E-3	-3.011412E-3	6.900301E-3	-1.602823E-3	1.293036E-2	6.554678E-3	9.444863E-3	3.107326E-3	4.810769E-3	4.409172E-3	1.067325E-2	6.761171E-3	7.352609E-3	9.770572E-3	1.325079E-2	1.058062E-2	1.286197E-2	1.748136E-2	8.012058E-3	5.804180E-3	6.417150E-3	1.546748E-2	4.875632E-3	1.310638E-2	2.037630E-2	1.075282E-2	1.044836E-2	-2.244829E-4	1.986599E-2	1.428930E-2	6.162199E-3	1.138672E-2	1.166739E-2	6.753214E-3	1.069618E-3	7.481334E-3	1.527352E-2	1.180351E-2	3.186277E-3	8.193039E-3	2.158421E-2	2.033022E-3	1.833100E-2	7.890602E-3	1.343372E-2	7.639094E-3	9.378102E-3	8.359865E-3	1.080647E-2	3.664383E-3	9.309446E-3	7.057315E-3	1.970332E-2	1.120503E-2	1.132760E-2	8.395714E-3	1.256489E-2	8.158406E-3	1.264663E-2	1.119492E-2	1.290330E-2	1.903706E-2	7.502005E-3	7.611904E-3	1.356528E-2	6.647096E-3	1.352059E-2	9.925744E-3	1.008371E-2	1.021642E-2	1.052703E-2	1.331485E-2	7.911289E-3	6.463467E-3	8.282426E-3	1.036610E-2	1.637197E-2	8.304216E-3	1.230103E-2	6.579466E-3	1.397674E-2	6.553604E-3	9.274668E-3	9.133890E-3	9.438431E-3	1.122796E-2	1.388875E-2	4.041989E-3	1.223530E-2	1.139005E-2	5.788363E-4	1.182368E-2	1.227452E-2	6.703058E-3	9.012046E-3	2.066567E-3	7.284735E-3	2.493915E-3	9.950002E-3	9.587031E-3	6.165064E-3	9.330100E-3	8.628001E-3	1.100106E-2	1.240768E-2	7.515755E-3	2.009117E-2	7.093951E-3	1.318869E-2	9.191789E-3	1.438631E-2	1.024521E-2	8.016341E-3	1.508943E-3	1.192002E-2	8.915868E-3	1.096153E-2	1.261712E-2	4.534768E-3	1.119120E-2	5.808872E-3	1.051971E-2	-1.271293E-3	1.396310E-2	9.992744E-3	1.493482E-2	1.137764E-2	-3.675066E-3	7.595357E-3	7.057834E-3	6.219760E-3	-1.255156E-3	8.498857E-3	8.145657E-3	3.017259E-3	7.043930E-3	3.164040E-3	9.542712E-3	6.341469E-4	6.847364E-3	6.471241E-3	8.837708E-3	7.258750E-3	1.148335E-2	5.236724E-3	1.034237E-2	1.070701E-2	6.585631E-3	5.250444E-3	1.122008E-2	6.636084E-3	1.418343E-2	1.385428E-2	2.006250E-2	2.863055E-3	9.529459E-3	1.336302E-2	1.406650E-2	4.448401E-3	4.355710E-3	8.315273E-3	4.202700E-3	1.089746E-2	1.996685E-3
5.330230E+2	1.746980E-2	2.030887E-2	1.139337E-2	2.656281E-2	2.304367E-2	4.012076E-3	2.153652E-2	1.152526E-2	1.940939E-2	2.057851E-2	3.042829E-2	1.391095E-2	2.176656E-2	1.881278E-2	1.637739E-2	1.880153E-2	2.267577E-2	3.671037E-2	1.947417E-2	6.761168E-3	2.312339E-2	2.273525E-2	2.955361E-2	1.849043E-2	3.009253E-2	1.978873E-2	1.558500E-2	2.641901E-2	2.324652E-2	1.934146E-2	2.309162E-2	3.369360E-2	1.667011E-2	1.999427E-2	1.783197E-2	1.678898E-2	3.262523E-2	2.154480E-2	1.290641E-2	1.995852E-2	2.661311E-2	1.689000E-2	9.759333E-3	1.905781E-2	1.209155E-2	3.103757E-2	2.110928E-2	1.863444E-2	1.948655E-2	2.413335E-2	2.048954E-2	3.406904E-2	2.747592E-2	2.108370E-2	2.220145E-2	2.481358E-2	2.593739E-2	1.721941E-2	2.131137E-2	2.727725E-2	2.403699E-2	1.212856E-2	2.669668E-2	2.305282E-2	2.048666E-2	1.350529E-2	2.650170E-2	2.573840E-2	1.496052E-2	2.082306E-2	2.363538E-2	2.072331E-2	1.922470E-2	2.050072E-2	1.505367E-2	2.054994E-2	3.047247E-2	3.308270E-2	3.548150E-2	2.404803E-2	1.602536E-2	1.906885E-2	2.157807E-2	1.249582E-2	2.536817E-2	2.416749E-2	2.470539E-2	1.217182E-2	2.361591E-2	1.303965E-2	1.835594E-2	2.233740E-2	2.078693E-2	1.606069E-2	2.491810E-2	2.952728E-2	2.648818E-2	1.398229E-2	3.148950E-2	2.957256E-2	2.952617E-2	2.462335E-2	1.814957E-2	1.472967E-2	2.502310E-2	1.542755E-2	2.405902E-2	1.186666E-2	2.153570E-2	3.310503E-2	2.398629E-2	3.195027E-2	3.465255E-2	2.892621E-2	2.994898E-2	2.504600E-2	2.786088E-2	1.124391E-2	2.141421E-2	2.371315E-2	2.567776E-2	2.258916E-2	2.732443E-2	2.647257E-2	1.496772E-2	1.955180E-2	2.018372E-2	2.390049E-2	2.702312E-2	1.643059E-2	1.921232E-2	7.171767E-3	4.693111E-2	1.493481E-2	2.302067E-2	2.026874E-2	2.014068E-2	1.393736E-2	2.169873E-2	1.045364E-2	1.544236E-2	1.960897E-2	2.392621E-2	2.173227E-2	1.815156E-2	1.288775E-2	9.905167E-3	2.626658E-2	3.230361E-2	2.474058E-2	1.202734E-2	1.776733E-2	2.803475E-2	1.656657E-2	1.896552E-2	1.690544E-2	1.908705E-2	2.208409E-3	1.427634E-2	2.637552E-2	1.776915E-2	1.948825E-2	2.130626E-2	2.066090E-2	2.521871E-2	3.235356E-2	2.388312E-2	1.831293E-2	1.158241E-2	2.487152E-2	1.550193E-2	3.087784E-2
5.331630E+2	2.346559E-2	2.141325E-2	2.041726E-2	2.656284E-2	2.116000E-2	7.702077E-3	2.604854E-2	1.508480E-2	2.718243E-2	3.339914E-2	1.948507E-2	1.841493E-2	3.502090E-2	1.598397E-2	3.902358E-2	2.272512E-2	3.288432E-2	2.197648E-2	3.759372E-2	3.037686E-2	2.141845E-2	2.522844E-2	1.711199E-2	2.420310E-2	3.113681E-2	2.786442E-2	2.031809E-2	2.166176E-2	2.824980E-2	3.047898E-2	2.439276E-2	2.811783E-2	2.408232E-2	2.345980E-2	2.152376E-2	2.476405E-2	3.570500E-2	1.931238E-2	2.099944E-2	1.852987E-2	3.382833E-2	1.970583E-2	3.039745E-2	2.021550E-2	2.891060E-2	4.040806E-2	4.374881E-2	2.317420E-2	4.623188E-2	2.413340E-2	1.779136E-2	2.391827E-2	2.747594E-2	2.108370E-2	2.681790E-2	1.883035E-2	3.434343E-2	3.240111E-2	3.388483E-2	1.817826E-2	3.751940E-2	2.459570E-2	2.823360E-2	2.882675E-2	2.471165E-2	2.580306E-2	3.093536E-2	2.897032E-2	3.244685E-2	1.457206E-2	2.778395E-2	2.119158E-2	3.733478E-2	2.902608E-2	2.782908E-2	2.662090E-2	2.630207E-2	1.987103E-2	2.156458E-2	2.843882E-2	2.684427E-2	2.651751E-2	2.678062E-2	2.740383E-2	2.158034E-2	2.753244E-2	3.090756E-2	1.561335E-2	2.361591E-2	3.628134E-2	2.441015E-2	2.709067E-2	3.987305E-2	2.234324E-2	2.806933E-2	2.413616E-2	2.591811E-2	2.538818E-2	2.402833E-2	2.957256E-2	4.869468E-2	3.127946E-2	2.728711E-2	2.558379E-2	3.888124E-2	2.566664E-2	2.462340E-2	2.212494E-2	3.411167E-2	3.866938E-2	2.910573E-2	2.123207E-2	3.798924E-2	1.730340E-2	3.864719E-2	2.099232E-2	2.786089E-2	2.406967E-2	3.222651E-2	2.804214E-2	4.392791E-2	3.231841E-2	3.007517E-2	4.243329E-2	3.099266E-2	3.502130E-2	3.024378E-2	3.367680E-2	2.437136E-2	2.943451E-2	3.325820E-2	2.584789E-2	3.718349E-2	2.230373E-2	2.544633E-2	2.841982E-2	3.323148E-2	2.826968E-2	2.276625E-2	4.079007E-2	3.478495E-2	2.506780E-2	3.908518E-2	3.904342E-2	2.910402E-2	2.626798E-2	2.844722E-2	3.509349E-2	6.129910E-2	4.014654E-2	1.107361E-2	2.764226E-2	3.972606E-2	2.222500E-2	3.383091E-2	9.844536E-3	3.835939E-2	3.124596E-2	1.714138E-2	2.344941E-2	3.734345E-2	1.317138E-2	2.499490E-2	2.437135E-2	5.108562E-2	2.347128E-2	1.870053E-2	2.207068E-2	3.036820E-2	2.383818E-2	1.089745E-2	5.334105E-2
5.333130E+2	3.445796E-2	2.417432E-2	4.324234E-2	3.432714E-2	2.822378E-2	2.351616E-2	3.256588E-2	2.086913E-2	4.328371E-2	2.365549E-2	4.301306E-2	3.292780E-2	3.104463E-2	3.012799E-2	3.994789E-2	3.754741E-2	4.207204E-2	4.124389E-2	4.173535E-2	3.252374E-2	2.951699E-2	2.871897E-2	3.255675E-2	3.299181E-2	3.374748E-2	2.786446E-2	2.363124E-2	3.064778E-2	3.188864E-2	4.452197E-2	2.829621E-2	2.683111E-2	4.526015E-2	3.674436E-2	2.205114E-2	3.858751E-2	3.922480E-2	2.433536E-2	2.414672E-2	2.472061E-2	3.898204E-2	4.730046E-2	2.985433E-2	3.873785E-2	3.936570E-2	4.632620E-2	4.563544E-2	3.406960E-2	3.941445E-2	3.132885E-2	2.588583E-2	5.490499E-2	3.309282E-2	4.060006E-2	3.553773E-2	3.179391E-2	4.443072E-2	2.697907E-2	3.960002E-2	3.283772E-2	3.125975E-2	3.198359E-2	3.899194E-2	3.015920E-2	3.210532E-2	3.970490E-2	3.093534E-2	3.435684E-2	2.678954E-2	2.126959E-2	3.193254E-2	3.945400E-2	4.582394E-2	2.742756E-2	4.111548E-2	2.915048E-2	5.225147E-2	2.952570E-2	4.172013E-2	2.502374E-2	3.928594E-2	3.969589E-2	2.851483E-2	4.497403E-2	3.341741E-2	2.753241E-2	2.987391E-2	2.593775E-2	5.253334E-2	4.006487E-2	3.349142E-2	2.497810E-2	4.038890E-2	3.249191E-2	4.750196E-2	3.540852E-2	4.245136E-2	2.590664E-2	4.428019E-2	3.602671E-2	3.911041E-2	3.435155E-2	3.896291E-2	2.287030E-2	5.440230E-2	3.051679E-2	3.196003E-2	3.409301E-2	3.737212E-2	4.777457E-2	3.096731E-2	4.510444E-2	5.856574E-2	2.342067E-2	3.806731E-2	3.546980E-2	3.226259E-2	3.227817E-2	3.276711E-2	5.016802E-2	2.921003E-2	3.177791E-2	3.117549E-2	3.179284E-2	2.848873E-2	3.715506E-2	5.204054E-2	5.567367E-2	3.603920E-2	4.480277E-2	3.384342E-2	3.490303E-2	4.898328E-2	3.381767E-2	3.563402E-2	3.198594E-2	3.050422E-2	4.546845E-2	2.757003E-2	3.546789E-2	4.172842E-2	4.581099E-2	4.901705E-2	3.642047E-2	4.985600E-2	3.407320E-2	3.540046E-2	3.332810E-2	5.286409E-2	3.418297E-2	3.682368E-2	3.437512E-2	3.446500E-2	3.354182E-2	3.217920E-2	2.233686E-2	2.995863E-2	2.173367E-2	3.051179E-2	3.954294E-2	3.734341E-2	3.384480E-2	3.553388E-2	3.232240E-2	6.240229E-2	2.660616E-2	3.252081E-2	2.368115E-2	3.526897E-2	3.727286E-2	1.703684E-2	3.087784E-2
5.334630E+2	3.995413E-2	3.853170E-2	4.961209E-2	4.627217E-2	5.412434E-2	3.247748E-2	4.259264E-2	3.243765E-2	2.995849E-2	4.314280E-2	4.520167E-2	3.292777E-2	4.253167E-2	4.568630E-2	5.935892E-2	4.670236E-2	5.585370E-2	4.124391E-2	3.811143E-2	4.755189E-2	5.423883E-2	4.816595E-2	3.899212E-2	4.221994E-2	5.097804E-2	4.459271E-2	4.445683E-2	4.280521E-2	3.598225E-2	3.919531E-2	4.954804E-2	4.956262E-2	6.326124E-2	5.580483E-2	4.420191E-2	4.549919E-2	5.330396E-2	3.605575E-2	3.448781E-2	5.424570E-2	4.001276E-2	6.306885E-2	3.800093E-2	4.394726E-2	3.436541E-2	4.928541E-2	5.789851E-2	5.858435E-2	5.409820E-2	5.085940E-2	6.581867E-2	5.330220E-2	5.322009E-2	4.060008E-2	4.169300E-2	5.572665E-2	6.124290E-2	5.137821E-2	3.960004E-2	4.143115E-2	5.774309E-2	4.906805E-2	4.770112E-2	4.881372E-2	4.319591E-2	3.756611E-2	4.922411E-2	4.620701E-2	3.501838E-2	4.582718E-2	4.806588E-2	4.647796E-2	4.752173E-2	4.767523E-2	4.469258E-2	4.786934E-2	3.603305E-2	4.273737E-2	4.795876E-2	4.161136E-2	4.199067E-2	5.688519E-2	4.412269E-2	4.284432E-2	5.993248E-2	5.252913E-2	4.382885E-2	4.013389E-2	5.092681E-2	4.925346E-2	6.618407E-2	3.765345E-2	5.018987E-2	3.539156E-2	4.907756E-2	5.452254E-2	5.328354E-2	5.234759E-2	4.801082E-2	3.871593E-2	5.971656E-2	2.820740E-2	4.454693E-2	3.281990E-2	4.387015E-2	5.638404E-2	3.365319E-2	4.378135E-2	3.131702E-2	3.968110E-2	4.492942E-2	4.656602E-2	5.300454E-2	4.666631E-2	7.459948E-2	4.820995E-2	5.573817E-2	4.048662E-2	4.628243E-2	2.996613E-2	3.862947E-2	3.718311E-2	4.657982E-2	3.232492E-2	6.654792E-2	5.369140E-2	3.247932E-2	4.247557E-2	4.982848E-2	5.130471E-2	4.613358E-2	3.716686E-2	4.590507E-2	4.210766E-2	4.776224E-2	4.268421E-2	4.904942E-2	4.661502E-2	4.144777E-2	3.919342E-2	4.420828E-2	4.471928E-2	3.699431E-2	5.635464E-2	5.677332E-2	4.243577E-2	4.814809E-2	6.157420E-2	6.446225E-2	4.760104E-2	3.396253E-2	4.828979E-2	7.713837E-2	4.089781E-2	3.823545E-2	4.189013E-2	3.835939E-2	3.825508E-2	5.056742E-2	4.637050E-2	4.181759E-2	6.140942E-2	4.291116E-2	3.656294E-2	7.856912E-2	2.921864E-2	3.770336E-2	5.320615E-2	5.405477E-2	4.140666E-2	3.392029E-2	6.938595E-2
5.336080E+2	5.794161E-2	6.393314E-2	5.438949E-2	6.180075E-2	6.825186E-2	6.357858E-2	5.562731E-2	5.957910E-2	8.103824E-2	8.468160E-2	6.106946E-2	5.744956E-2	6.329681E-2	6.407342E-2	7.784554E-2	6.065285E-2	8.086457E-2	5.937793E-2	7.486822E-2	6.955744E-2	5.935369E-2	6.312516E-2	4.671449E-2	5.144809E-2	6.873066E-2	6.535881E-2	6.291579E-2	6.923457E-2	6.327303E-2	5.904928E-2	5.822243E-2	6.714751E-2	6.696739E-2	6.446871E-2	7.268153E-2	7.420944E-2	7.266263E-2	6.786836E-2	5.382116E-2	6.186493E-2	6.062756E-2	7.996355E-2	5.972528E-2	7.462496E-2	5.982119E-2	7.246496E-2	6.686010E-2	5.722242E-2	6.196448E-2	5.651308E-2	5.880357E-2	7.680925E-2	5.930492E-2	4.840659E-2	5.349043E-2	4.824768E-2	6.684692E-2	6.384887E-2	5.788869E-2	5.861809E-2	6.737345E-2	7.077026E-2	5.692260E-2	5.547596E-2	5.692701E-2	6.857800E-2	6.418759E-2	7.313957E-2	6.947685E-2	5.922225E-2	5.774592E-2	4.881928E-2	6.789557E-2	5.673341E-2	6.155607E-2	5.798775E-2	6.290930E-2	7.779890E-2	6.187549E-2	6.112610E-2	5.713706E-2	6.204192E-2	5.452791E-2	5.934962E-2	6.608773E-2	5.877821E-2	5.054786E-2	5.303932E-2	7.288265E-2	4.709143E-2	5.952446E-2	6.036339E-2	6.205420E-2	5.472237E-2	8.269063E-2	5.893334E-2	7.323751E-2	5.079223E-2	5.760365E-2	5.915408E-2	7.840581E-2	5.227183E-2	4.911566E-2	6.402542E-2	5.994556E-2	5.907851E-2	5.001964E-2	5.232991E-2	6.112681E-2	6.952618E-2	5.935692E-2	7.287432E-2	7.024434E-2	7.358231E-2	7.401955E-2	5.805465E-2	6.796503E-2	4.356480E-2	5.439153E-2	6.748378E-2	6.571024E-2	6.042536E-2	4.162847E-2	5.360583E-2	8.107063E-2	5.315798E-2	5.762949E-2	5.860661E-2	7.369437E-2	6.371759E-2	5.432707E-2	7.168943E-2	7.463487E-2	4.394989E-2	6.425665E-2	6.866581E-2	5.559482E-2	6.037403E-2	5.585920E-2	4.504789E-2	7.396612E-2	7.528824E-2	6.156234E-2	7.471470E-2	6.369063E-2	6.473623E-2	5.857799E-2	5.922039E-2	8.185943E-2	5.406161E-2	5.208301E-2	6.534652E-2	6.310866E-2	5.278044E-2	5.640420E-2	5.275305E-2	5.021930E-2	6.028357E-2	6.584784E-2	4.832130E-2	6.362895E-2	4.647856E-2	5.292313E-2	5.246498E-2	8.665241E-2	6.683763E-2	4.893235E-2	5.964794E-2	5.078772E-2	7.447684E-2	4.005975E-2	2.766886E-2
5.337580E+2	7.043285E-2	9.043895E-2	7.084474E-2	7.314854E-2	9.791961E-2	7.781128E-2	7.116875E-2	7.248247E-2	7.548624E-2	1.016050E-1	8.076727E-2	5.995181E-2	8.494559E-2	9.283267E-2	7.784555E-2	7.721873E-2	8.954195E-2	9.054590E-2	9.039926E-2	7.116766E-2	6.574716E-2	1.030163E-1	7.460082E-2	7.649577E-2	8.909418E-2	8.266381E-2	7.096221E-2	8.192055E-2	8.237675E-2	9.004066E-2	7.600462E-2	7.400985E-2	8.126244E-2	9.103791E-2	8.428421E-2	9.441264E-2	9.862120E-2	8.907662E-2	6.596062E-2	8.900921E-2	7.763481E-2	8.728461E-2	6.569943E-2	8.157084E-2	7.527669E-2	8.035588E-2	8.855608E-2	7.855931E-2	8.870978E-2	1.032834E-1	8.146800E-2	9.390550E-2	9.207021E-2	8.787305E-2	7.605954E-2	8.614116E-2	8.982349E-2	8.607899E-2	8.875083E-2	7.176097E-2	7.844807E-2	9.616615E-2	7.690230E-2	8.212512E-2	6.643318E-2	6.911257E-2	7.970541E-2	8.498971E-2	7.616254E-2	7.663571E-2	6.880863E-2	8.347089E-2	9.279674E-2	8.497342E-2	8.915105E-2	7.012954E-2	7.542053E-2	7.830701E-2	6.859409E-2	6.649289E-2	8.310235E-2	7.980401E-2	7.244800E-2	9.129546E-2	8.881501E-2	7.944851E-2	8.155885E-2	9.175621E-2	7.877322E-2	8.060244E-2	1.000874E-1	7.726385E-2	8.371936E-2	8.951791E-2	9.529547E-2	8.588911E-2	7.836862E-2	7.567771E-2	8.904752E-2	8.281940E-2	8.655254E-2	7.377630E-2	8.211221E-2	7.080922E-2	1.037373E-1	6.985656E-2	9.573283E-2	7.455623E-2	7.183959E-2	1.039238E-1	7.936906E-2	8.359255E-2	7.636178E-2	8.704041E-2	9.083599E-2	7.832319E-2	9.095133E-2	7.024243E-2	7.763786E-2	6.604100E-2	9.337992E-2	8.420829E-2	6.253441E-2	8.286704E-2	8.407519E-2	8.463042E-2	1.023407E-1	7.913687E-2	8.589277E-2	8.499670E-2	7.832212E-2	9.828872E-2	9.926055E-2	6.789893E-2	7.638467E-2	7.885455E-2	8.177636E-2	6.782679E-2	9.162090E-2	5.728889E-2	8.983684E-2	9.275625E-2	8.351672E-2	7.681317E-2	8.501900E-2	7.421389E-2	7.190508E-2	8.511261E-2	1.040017E-1	6.250999E-2	7.592579E-2	9.452227E-2	9.935159E-2	9.295535E-2	8.283151E-2	7.339249E-2	8.629292E-2	8.030947E-2	7.587534E-2	7.660670E-2	8.376245E-2	7.576590E-2	8.348613E-2	6.677666E-2	1.006639E-1	8.930450E-2	7.700459E-2	6.179522E-2	9.326013E-2	8.687816E-2	7.843086E-2	1.239393E-1
5.339090E+2	1.233958E-1	1.103183E-1	1.143715E-1	1.143589E-1	1.275877E-1	1.273619E-1	1.218036E-1	9.739942E-2	1.226797E-1	1.298102E-1	1.146911E-1	9.848604E-2	1.198488E-1	1.258353E-1	1.217514E-1	1.160184E-1	1.262926E-1	1.523147E-1	1.323331E-1	9.800342E-2	1.382079E-1	1.593627E-1	9.648081E-2	1.125294E-1	1.125900E-1	1.115059E-1	1.244457E-1	1.078212E-1	1.073933E-1	1.224847E-1	1.315199E-1	1.096084E-1	1.140880E-1	1.332021E-1	1.180378E-1	1.300350E-1	1.254595E-1	1.270285E-1	1.113716E-1	1.199627E-1	1.224718E-1	1.199476E-1	1.281565E-1	1.157214E-1	1.175516E-1	1.370720E-1	1.258171E-1	1.216872E-1	1.380054E-1	1.336073E-1	1.100686E-1	1.158101E-1	1.103251E-1	1.399169E-1	1.140168E-1	1.245331E-1	1.150415E-1	1.435525E-1	1.196128E-1	1.137176E-1	1.188956E-1	1.271032E-1	1.137881E-1	1.176575E-1	1.065701E-1	1.268588E-1	9.965642E-2	1.404704E-1	1.111352E-1	1.226253E-1	1.213573E-1	1.059477E-1	1.239235E-1	1.451837E-1	1.044813E-1	1.040259E-1	1.351970E-1	1.352188E-1	1.204229E-1	1.147921E-1	1.371965E-1	1.416852E-1	1.192714E-1	1.008791E-1	1.451592E-1	1.294422E-1	1.130865E-1	9.820887E-2	1.301818E-1	1.438415E-1	1.236988E-1	1.073676E-1	1.342715E-1	1.180307E-1	1.352112E-1	1.265677E-1	1.330995E-1	1.114507E-1	1.290182E-1	1.118629E-1	1.315984E-1	1.244651E-1	1.064793E-1	1.110600E-1	1.225842E-1	1.156629E-1	1.284657E-1	1.190088E-1	1.216778E-1	1.236522E-1	1.412676E-1	1.079521E-1	1.202952E-1	1.304732E-1	1.215696E-1	1.148061E-1	1.403479E-1	1.056417E-1	1.133181E-1	1.319374E-1	1.363562E-1	1.144770E-1	1.153491E-1	1.153205E-1	1.416649E-1	1.379735E-1	1.040174E-1	1.197086E-1	1.155927E-1	1.293281E-1	1.087548E-1	1.186629E-1	1.218341E-1	1.029010E-1	1.069478E-1	1.231764E-1	1.281392E-1	1.108238E-1	1.279167E-1	1.110431E-1	1.364575E-1	1.418849E-1	1.441526E-1	1.381888E-1	1.374752E-1	1.366550E-1	1.356433E-1	1.439588E-1	1.583023E-1	1.151882E-1	1.026290E-1	1.142719E-1	1.507936E-1	1.297352E-1	1.208207E-1	1.287935E-1	1.203906E-1	1.123510E-1	1.145541E-1	1.243999E-1	1.273854E-1	1.194096E-1	1.530435E-1	1.038815E-1	1.583253E-1	1.149065E-1	9.989458E-2	1.004459E-1	1.504346E-1	1.395839E-1	1.091279E-1	1.271482E-1
5.340690E+2	1.883506E-1	1.649867E-1	1.791309E-1	1.991690E-1	2.019931E-1	1.716418E-1	1.664222E-1	1.565771E-1	2.065171E-1	2.390420E-1	1.819925E-1	1.695489E-1	1.781677E-1	2.036271E-1	1.915383E-1	1.883859E-1	1.952005E-1	2.010499E-1	2.084351E-1	1.844155E-1	2.162093E-1	1.947667E-1	1.664117E-1	1.806422E-1	1.809904E-1	2.020693E-1	1.845562E-1	1.770661E-1	2.006375E-1	1.970582E-1	1.748912E-1	1.941011E-1	1.998579E-1	2.071332E-1	1.976748E-1	2.236089E-1	2.002548E-1	2.096297E-1	1.887052E-1	1.856797E-1	1.791628E-1	2.111790E-1	1.748640E-1	2.256983E-1	1.898279E-1	2.164742E-1	1.880761E-1	1.975007E-1	2.040819E-1	1.952826E-1	1.985684E-1	1.980851E-1	2.090884E-1	2.136454E-1	1.622326E-1	1.848638E-1	1.968606E-1	1.928932E-1	1.904816E-1	1.652781E-1	1.872709E-1	2.019060E-1	1.793629E-1	2.069323E-1	1.879012E-1	2.075962E-1	1.933172E-1	2.007992E-1	1.790235E-1	2.105862E-1	1.789766E-1	1.860211E-1	2.173039E-1	2.357650E-1	1.806229E-1	1.642297E-1	2.019237E-1	1.992442E-1	1.957660E-1	1.845577E-1	1.891270E-1	1.978368E-1	2.082941E-1	1.844709E-1	2.071858E-1	2.025095E-1	1.833782E-1	1.623066E-1	2.105079E-1	2.232957E-1	1.715271E-1	1.744416E-1	1.946255E-1	1.929379E-1	2.150425E-1	1.839096E-1	1.975225E-1	1.850706E-1	1.919056E-1	1.893127E-1	2.082726E-1	2.012661E-1	1.760258E-1	1.770893E-1	2.234708E-1	1.733255E-1	1.696642E-1	1.805585E-1	1.687210E-1	2.197633E-1	1.975814E-1	1.878518E-1	1.970402E-1	2.044919E-1	2.062317E-1	2.138324E-1	2.039275E-1	2.164561E-1	1.873822E-1	1.886950E-1	2.193649E-1	2.198785E-1	1.560609E-1	1.802273E-1	1.977522E-1	2.281238E-1	1.828211E-1	1.900987E-1	1.866604E-1	1.819351E-1	1.795698E-1	1.690319E-1	1.916061E-1	1.945517E-1	1.787471E-1	1.664789E-1	2.115930E-1	1.973908E-1	1.925009E-1	1.695869E-1	1.974607E-1	2.270414E-1	1.948569E-1	2.194991E-1	2.095311E-1	1.851585E-1	1.843162E-1	2.263431E-1	2.384353E-1	1.783029E-1	1.817870E-1	1.959644E-1	2.425704E-1	1.755684E-1	1.659676E-1	1.863668E-1	2.103279E-1	1.769344E-1	2.100569E-1	1.765818E-1	1.939381E-1	1.980837E-1	1.899297E-1	1.600687E-1	2.364649E-1	2.136566E-1	1.724508E-1	1.745273E-1	2.353797E-1	2.057240E-1	2.012192E-1	1.881198E-1
5.342040E+2	3.082672E-1	3.168434E-1	2.730856E-1	2.893541E-1	3.187813E-1	3.171313E-1	2.717025E-1	2.624737E-1	3.336613E-1	3.292992E-1	3.045564E-1	2.696380E-1	3.160131E-1	3.441241E-1	3.190967E-1	2.908344E-1	3.141300E-1	3.421554E-1	3.192231E-1	3.153750E-1	3.193590E-1	3.767701E-1	2.882533E-1	2.931370E-1	3.094360E-1	3.664680E-1	2.938905E-1	2.864838E-1	3.084362E-1	3.326457E-1	3.045716E-1	3.180526E-1	3.338071E-1	3.382466E-1	3.485116E-1	3.070813E-1	3.335665E-1	3.776220E-1	2.948136E-1	3.571156E-1	3.074899E-1	3.677367E-1	3.014086E-1	3.119427E-1	2.921059E-1	3.550581E-1	3.191964E-1	3.155348E-1	3.409553E-1	3.289128E-1	3.329366E-1	3.209632E-1	3.115967E-1	3.290086E-1	2.945698E-1	3.194852E-1	3.240729E-1	3.382032E-1	2.944982E-1	2.643557E-1	3.139092E-1	3.482788E-1	3.053899E-1	3.073112E-1	2.982782E-1	3.396637E-1	3.085913E-1	3.160701E-1	3.060568E-1	3.257835E-1	2.785425E-1	3.054287E-1	3.463384E-1	3.524559E-1	3.185972E-1	2.461876E-1	3.071114E-1	3.084942E-1	3.080616E-1	3.089648E-1	3.281497E-1	3.118589E-1	3.163931E-1	2.914885E-1	2.990416E-1	3.404720E-1	2.800291E-1	2.642603E-1	3.277843E-1	2.989663E-1	3.041139E-1	2.557752E-1	3.478298E-1	3.272872E-1	3.379410E-1	3.083955E-1	3.098353E-1	2.851314E-1	3.203449E-1	3.108660E-1	3.390977E-1	3.205646E-1	2.861841E-1	2.716106E-1	3.315643E-1	2.864948E-1	3.130116E-1	3.059376E-1	3.056597E-1	3.603896E-1	3.185855E-1	3.135468E-1	3.099326E-1	3.390723E-1	3.314847E-1	3.059090E-1	3.374447E-1	3.154707E-1	3.041547E-1	3.137546E-1	3.412287E-1	3.468998E-1	2.869982E-1	2.594990E-1	3.660137E-1	3.348099E-1	3.119248E-1	3.259900E-1	2.985658E-1	3.362094E-1	3.030563E-1	3.269303E-1	3.111431E-1	3.133754E-1	2.718918E-1	3.086132E-1	3.125009E-1	3.561929E-1	2.971175E-1	2.744341E-1	3.338504E-1	3.531388E-1	3.271057E-1	3.364805E-1	3.265488E-1	3.172885E-1	3.135311E-1	3.252042E-1	3.892118E-1	3.358411E-1	2.752507E-1	2.906738E-1	3.624061E-1	3.594667E-1	2.744298E-1	2.781590E-1	3.254680E-1	3.020966E-1	3.079471E-1	2.931382E-1	3.399064E-1	3.387776E-1	3.258823E-1	2.713826E-1	3.674161E-1	3.594307E-1	2.851723E-1	2.894061E-1	3.603463E-1	3.318044E-1	2.641479E-1	2.875992E-1
5.343600E+2	5.341098E-1	5.531869E-1	4.742645E-1	5.348251E-1	5.278696E-1	5.511806E-1	5.053249E-1	4.729321E-1	5.729594E-1	6.246855E-1	5.305344E-1	4.843284E-1	5.245477E-1	5.907004E-1	5.534147E-1	5.184007E-1	5.535211E-1	5.801646E-1	5.863567E-1	5.434813E-1	5.589048E-1	6.604969E-1	5.096286E-1	5.295537E-1	5.339551E-1	6.196999E-1	4.993066E-1	5.365052E-1	5.781611E-1	5.665347E-1	5.465834E-1	5.573777E-1	5.672924E-1	5.594638E-1	5.425941E-1	6.122599E-1	5.575128E-1	6.114725E-1	5.011860E-1	5.847441E-1	5.512601E-1	6.104566E-1	5.132198E-1	5.672049E-1	5.212088E-1	6.100337E-1	5.465356E-1	5.929138E-1	5.580648E-1	5.951449E-1	5.844058E-1	5.752683E-1	5.732499E-1	5.662408E-1	5.351355E-1	5.074566E-1	5.880234E-1	5.783992E-1	5.396808E-1	4.928412E-1	6.220792E-1	5.814608E-1	5.722998E-1	5.813537E-1	5.132235E-1	5.653005E-1	5.646335E-1	5.525368E-1	5.801808E-1	5.856467E-1	5.168556E-1	5.161481E-1	5.608295E-1	5.853034E-1	5.383340E-1	4.768847E-1	5.897746E-1	5.630723E-1	5.662446E-1	5.192374E-1	5.520996E-1	5.966265E-1	5.632283E-1	5.353414E-1	5.935481E-1	5.875549E-1	5.188132E-1	4.741905E-1	6.030352E-1	5.751634E-1	6.013748E-1	4.807630E-1	5.443652E-1	5.863204E-1	6.078964E-1	5.779520E-1	5.920422E-1	4.717732E-1	6.044038E-1	4.985743E-1	5.940387E-1	5.289521E-1	5.176684E-1	4.932157E-1	5.799015E-1	5.079828E-1	5.494791E-1	5.430180E-1	5.404117E-1	5.779048E-1	5.657136E-1	5.439888E-1	5.596312E-1	6.216903E-1	6.051867E-1	5.757693E-1	5.761129E-1	5.632644E-1	5.231027E-1	5.268362E-1	5.990861E-1	5.739178E-1	4.894555E-1	4.994415E-1	5.908633E-1	6.031265E-1	5.678968E-1	5.474245E-1	5.043439E-1	5.685064E-1	5.675874E-1	5.284065E-1	5.809984E-1	5.933941E-1	4.790419E-1	5.220701E-1	6.004979E-1	6.273599E-1	5.244981E-1	4.969013E-1	5.947274E-1	6.375394E-1	5.863766E-1	5.809353E-1	5.940187E-1	5.358326E-1	5.580537E-1	5.994269E-1	7.039444E-1	6.046993E-1	5.289367E-1	4.975983E-1	6.429974E-1	5.710924E-1	5.001625E-1	5.307214E-1	5.824323E-1	5.859640E-1	5.763094E-1	5.013789E-1	5.792720E-1	6.161468E-1	5.234880E-1	4.553166E-1	6.578800E-1	6.201518E-1	4.842705E-1	4.880289E-1	6.323331E-1	5.984328E-1	5.281420E-1	5.282750E-1
5.345160E+2	9.188426E-1	8.806452E-1	8.139872E-1	9.230397E-1	9.177910E-1	9.333547E-1	8.587666E-1	7.314445E-1	9.299637E-1	1.051869E+0	9.009642E-1	8.076149E-1	9.067151E-1	9.905025E-1	9.846159E-1	9.085761E-1	9.439987E-1	9.921473E-1	9.213092E-1	9.186489E-1	9.753392E-1	1.066889E+0	8.691477E-1	8.582506E-1	8.916191E-1	1.039060E+0	7.875520E-1	8.822008E-1	9.565945E-1	9.902459E-1	9.239141E-1	9.588262E-1	9.294325E-1	1.001898E+0	9.639867E-1	9.403016E-1	9.376502E-1	1.020012E+0	8.361476E-1	9.633317E-1	8.986195E-1	9.725662E-1	8.809041E-1	9.706455E-1	8.703178E-1	9.961947E-1	9.455572E-1	9.647204E-1	8.858267E-1	9.708512E-1	9.621490E-1	9.850403E-1	9.743893E-1	9.400876E-1	8.505892E-1	9.038423E-1	9.674166E-1	9.508920E-1	9.220283E-1	8.022059E-1	9.591403E-1	9.494724E-1	9.073464E-1	9.282385E-1	8.031616E-1	9.133806E-1	9.608888E-1	9.425184E-1	9.026499E-1	9.339186E-1	8.413665E-1	8.312906E-1	9.428403E-1	9.886588E-1	8.776482E-1	8.077523E-1	9.210922E-1	9.370629E-1	9.242453E-1	8.597722E-1	9.264321E-1	9.627565E-1	9.337698E-1	8.840825E-1	9.491340E-1	9.971145E-1	8.754396E-1	8.105958E-1	9.875302E-1	9.237885E-1	9.767346E-1	7.918373E-1	9.441417E-1	9.241268E-1	9.918218E-1	9.146517E-1	9.489343E-1	7.761037E-1	9.987812E-1	8.621580E-1	9.913062E-1	9.672317E-1	8.105773E-1	8.093422E-1	9.252454E-1	8.749747E-1	8.587486E-1	8.718534E-1	8.902097E-1	1.016981E+0	9.031303E-1	9.235107E-1	9.355697E-1	1.001573E+0	9.600714E-1	9.828751E-1	9.463417E-1	9.208466E-1	8.604450E-1	8.765208E-1	9.452500E-1	9.798464E-1	8.013938E-1	8.207838E-1	9.539285E-1	1.025071E+0	8.696986E-1	9.145268E-1	8.061167E-1	9.598060E-1	8.572837E-1	8.883471E-1	9.596174E-1	9.618391E-1	7.895237E-1	8.297734E-1	9.523121E-1	9.994268E-1	8.564955E-1	8.162321E-1	9.850502E-1	1.072601E+0	9.355552E-1	1.040992E+0	1.043069E+0	8.814888E-1	9.532308E-1	9.536797E-1	1.061380E+0	1.012708E+0	8.078956E-1	8.297540E-1	1.036410E+0	9.524690E-1	8.833578E-1	8.870258E-1	9.392182E-1	9.244020E-1	8.914678E-1	8.832347E-1	1.008229E+0	9.963082E-1	9.039447E-1	8.533984E-1	1.120250E+0	1.047546E+0	8.198435E-1	8.251506E-1	9.672122E-1	1.006643E+0	8.351123E-1	9.037296E-1
5.346560E+2	1.253109E+0	1.327378E+0	1.181312E+0	1.341117E+0	1.309596E+0	1.323962E+0	1.152549E+0	1.135900E+0	1.354705E+0	1.440075E+0	1.289997E+0	1.218479E+0	1.351179E+0	1.354948E+0	1.410271E+0	1.281748E+0	1.361528E+0	1.409231E+0	1.380510E+0	1.295961E+0	1.347443E+0	1.508188E+0	1.235962E+0	1.192659E+0	1.249805E+0	1.495915E+0	1.217790E+0	1.220497E+0	1.305463E+0	1.338414E+0	1.289967E+0	1.347835E+0	1.389522E+0	1.376754E+0	1.357424E+0	1.409765E+0	1.378060E+0	1.452552E+0	1.225063E+0	1.358588E+0	1.197018E+0	1.415207E+0	1.248046E+0	1.408815E+0	1.238972E+0	1.407019E+0	1.368634E+0	1.332894E+0	1.342069E+0	1.392813E+0	1.352843E+0	1.332841E+0	1.409228E+0	1.342994E+0	1.224005E+0	1.219453E+0	1.354657E+0	1.340194E+0	1.282658E+0	1.137857E+0	1.353982E+0	1.377047E+0	1.298235E+0	1.302659E+0	1.171791E+0	1.334180E+0	1.304496E+0	1.319033E+0	1.299692E+0	1.310765E+0	1.151587E+0	1.204969E+0	1.359371E+0	1.359508E+0	1.260397E+0	1.170492E+0	1.345552E+0	1.364916E+0	1.349432E+0	1.283734E+0	1.311041E+0	1.401081E+0	1.277142E+0	1.230694E+0	1.335972E+0	1.381679E+0	1.244469E+0	1.089355E+0	1.441640E+0	1.381055E+0	1.401134E+0	1.141994E+0	1.359909E+0	1.371153E+0	1.385725E+0	1.322908E+0	1.351434E+0	1.129687E+0	1.400086E+0	1.203689E+0	1.322443E+0	1.299525E+0	1.193340E+0	1.137227E+0	1.306619E+0	1.244121E+0	1.297257E+0	1.231463E+0	1.221841E+0	1.401935E+0	1.331300E+0	1.324469E+0	1.362670E+0	1.413877E+0	1.388601E+0	1.327438E+0	1.403135E+0	1.373339E+0	1.209140E+0	1.221877E+0	1.403268E+0	1.400368E+0	1.166147E+0	1.166067E+0	1.363566E+0	1.437947E+0	1.279367E+0	1.296294E+0	1.173123E+0	1.329234E+0	1.230670E+0	1.252249E+0	1.259741E+0	1.332126E+0	1.133964E+0	1.231216E+0	1.370125E+0	1.397291E+0	1.198635E+0	1.150464E+0	1.408107E+0	1.477641E+0	1.293098E+0	1.458033E+0	1.439660E+0	1.241641E+0	1.247006E+0	1.340300E+0	1.533742E+0	1.331262E+0	1.165536E+0	1.172680E+0	1.491784E+0	1.329887E+0	1.157540E+0	1.178152E+0	1.290569E+0	1.310402E+0	1.336032E+0	1.277282E+0	1.410900E+0	1.418393E+0	1.289669E+0	1.154478E+0	1.516336E+0	1.402837E+0	1.143324E+0	1.142410E+0	1.464630E+0	1.376616E+0	1.214221E+0	1.195750E+0
5.348120E+2	1.637340E+0	1.683550E+0	1.552352E+0	1.717984E+0	1.668907E+0	1.682940E+0	1.697000E+0	1.419329E+0	1.722258E+0	1.838029E+0	1.741404E+0	1.521249E+0	1.667073E+0	1.777377E+0	1.806349E+0	1.662768E+0	1.741287E+0	1.860881E+0	1.753773E+0	1.696359E+0	1.746402E+0	1.959952E+0	1.651253E+0	1.563545E+0	1.670125E+0	1.887012E+0	1.625309E+0	1.552449E+0	1.678893E+0	1.764549E+0	1.661662E+0	1.673799E+0	1.756955E+0	1.734859E+0	1.700761E+0	1.805329E+0	1.674163E+0	1.845464E+0	1.555079E+0	1.750985E+0	1.563963E+0	1.780134E+0	1.660805E+0	1.790840E+0	1.649904E+0	1.799098E+0	1.777088E+0	1.709693E+0	1.655674E+0	1.699648E+0	1.787249E+0	1.793368E+0	1.747180E+0	1.688648E+0	1.564082E+0	1.564486E+0	1.817550E+0	1.720276E+0	1.654718E+0	1.454805E+0	1.750268E+0	1.727053E+0	1.686048E+0	1.596688E+0	1.552566E+0	1.735195E+0	1.646436E+0	1.676158E+0	1.646332E+0	1.689397E+0	1.483937E+0	1.567873E+0	1.723272E+0	1.709050E+0	1.615555E+0	1.459876E+0	1.700961E+0	1.727729E+0	1.677680E+0	1.591580E+0	1.619378E+0	1.724239E+0	1.648262E+0	1.569851E+0	1.789093E+0	1.785954E+0	1.559230E+0	1.418018E+0	1.784366E+0	1.790758E+0	1.682653E+0	1.443034E+0	1.736470E+0	1.722493E+0	1.777529E+0	1.677254E+0	1.733979E+0	1.464084E+0	1.774215E+0	1.530698E+0	1.750382E+0	1.647692E+0	1.504523E+0	1.489985E+0	1.747309E+0	1.569080E+0	1.550656E+0	1.538641E+0	1.587941E+0	1.827857E+0	1.680817E+0	1.674272E+0	1.698570E+0	1.838415E+0	1.717389E+0	1.734547E+0	1.805158E+0	1.676029E+0	1.507558E+0	1.629763E+0	1.795939E+0	1.771166E+0	1.423623E+0	1.529971E+0	1.712109E+0	1.772942E+0	1.624203E+0	1.662909E+0	1.505655E+0	1.760728E+0	1.645609E+0	1.542581E+0	1.653752E+0	1.735575E+0	1.455120E+0	1.508861E+0	1.699578E+0	1.794011E+0	1.532233E+0	1.470859E+0	1.745860E+0	1.878311E+0	1.657436E+0	1.815800E+0	1.832225E+0	1.577819E+0	1.666519E+0	1.718086E+0	1.944420E+0	1.663237E+0	1.444019E+0	1.556906E+0	1.868832E+0	1.697118E+0	1.472468E+0	1.481225E+0	1.694298E+0	1.683386E+0	1.616335E+0	1.584037E+0	1.818604E+0	1.733662E+0	1.663277E+0	1.508561E+0	1.895720E+0	1.805677E+0	1.475873E+0	1.421020E+0	1.854231E+0	1.711451E+0	1.415288E+0	1.632175E+0
5.349580E+2	1.989598E+0	1.964625E+0	1.834216E+0	1.934186E+0	1.976421E+0	2.024529E+0	2.048934E+0	1.711656E+0	1.983761E+0	2.147261E+0	2.139194E+0	1.773972E+0	1.973244E+0	2.104575E+0	2.122932E+0	1.883793E+0	1.998034E+0	2.103988E+0	2.061805E+0	2.029124E+0	2.034113E+0	2.248670E+0	2.094863E+0	1.804355E+0	1.923887E+0	2.214077E+0	2.025729E+0	1.770226E+0	1.977729E+0	2.030882E+0	2.032919E+0	1.988610E+0	1.990969E+0	2.090077E+0	2.019313E+0	2.135496E+0	2.016024E+0	2.213818E+0	1.983559E+0	2.048141E+0	1.814434E+0	2.076918E+0	2.023604E+0	2.102248E+0	1.845825E+0	2.042729E+0	2.056308E+0	1.969370E+0	2.004937E+0	2.044007E+0	2.050050E+0	2.036452E+0	2.067338E+0	1.955375E+0	1.896977E+0	1.887576E+0	2.022657E+0	2.019576E+0	2.013635E+0	1.732321E+0	2.015102E+0	2.027650E+0	1.993428E+0	1.932468E+0	1.838808E+0	1.950135E+0	1.998916E+0	1.954638E+0	1.958517E+0	1.995251E+0	1.897871E+0	1.853981E+0	1.979075E+0	2.057524E+0	1.933920E+0	1.700184E+0	1.947486E+0	1.995518E+0	1.999208E+0	1.896499E+0	1.942861E+0	1.969471E+0	1.899143E+0	1.848312E+0	2.048561E+0	2.086874E+0	1.785609E+0	1.649887E+0	2.142088E+0	2.004793E+0	1.933904E+0	1.640028E+0	1.958287E+0	1.989257E+0	2.052735E+0	1.927202E+0	1.991104E+0	1.624287E+0	2.067865E+0	1.776497E+0	2.028322E+0	1.935439E+0	1.752253E+0	1.744607E+0	1.960723E+0	1.793262E+0	1.830573E+0	1.804789E+0	1.879053E+0	2.084326E+0	2.020093E+0	1.943204E+0	1.921573E+0	2.107574E+0	2.039801E+0	1.912909E+0	2.030129E+0	1.942801E+0	1.809762E+0	1.787527E+0	2.041436E+0	2.079261E+0	1.739962E+0	1.739058E+0	2.027597E+0	2.071665E+0	1.829318E+0	1.849636E+0	1.765530E+0	1.956970E+0	1.792508E+0	1.893467E+0	1.884615E+0	1.965395E+0	1.644320E+0	1.771223E+0	1.904664E+0	2.061737E+0	1.814058E+0	1.649688E+0	1.990366E+0	2.126141E+0	1.932386E+0	2.154678E+0	2.127359E+0	1.824237E+0	1.974201E+0	2.026440E+0	2.235435E+0	1.943028E+0	1.653833E+0	1.716251E+0	2.134806E+0	1.968156E+0	1.738392E+0	1.772896E+0	1.973502E+0	1.942721E+0	1.875144E+0	1.855676E+0	1.983029E+0	2.074199E+0	1.815567E+0	1.742854E+0	2.198038E+0	2.118124E+0	1.693112E+0	1.659366E+0	2.207080E+0	2.005984E+0	1.765233E+0	1.847179E+0
5.351090E+2	2.020072E+0	2.072854E+0	1.887296E+0	2.018401E+0	2.040935E+0	2.054046E+0	2.211367E+0	1.722780E+0	2.122567E+0	2.235983E+0	2.225096E+0	1.856045E+0	2.104907E+0	2.152191E+0	2.201037E+0	2.002374E+0	2.098587E+0	2.252461E+0	2.136871E+0	2.032342E+0	2.059263E+0	2.286063E+0	2.159217E+0	1.886089E+0	2.039797E+0	2.252725E+0	2.107613E+0	1.880700E+0	2.056416E+0	2.058481E+0	2.130939E+0	2.083396E+0	2.095269E+0	2.146104E+0	2.065725E+0	2.153042E+0	2.078060E+0	2.230564E+0	2.034814E+0	2.119095E+0	1.963891E+0	2.156322E+0	2.049671E+0	2.098773E+0	1.899008E+0	2.223231E+0	2.225163E+0	2.127352E+0	2.050034E+0	2.130861E+0	2.163906E+0	2.158798E+0	2.025217E+0	2.015655E+0	2.022643E+0	1.949899E+0	2.114001E+0	2.074879E+0	2.034205E+0	1.733334E+0	2.067105E+0	2.064589E+0	2.073862E+0	2.018188E+0	1.829300E+0	2.062956E+0	2.089802E+0	2.047286E+0	2.071661E+0	2.009538E+0	2.082253E+0	1.883483E+0	2.146030E+0	2.080965E+0	2.117885E+0	1.802381E+0	2.024865E+0	2.120520E+0	2.099505E+0	1.906255E+0	2.003449E+0	2.084639E+0	2.079503E+0	1.976629E+0	2.080286E+0	2.160904E+0	2.079698E+0	1.667095E+0	2.224017E+0	2.110734E+0	2.232371E+0	1.752000E+0	2.058357E+0	2.046283E+0	2.165133E+0	1.927695E+0	2.064649E+0	1.752346E+0	2.113697E+0	1.845875E+0	2.012509E+0	2.029650E+0	1.903525E+0	1.805663E+0	2.027795E+0	1.848229E+0	1.990289E+0	1.932446E+0	1.899549E+0	2.218880E+0	2.110383E+0	2.018229E+0	2.032240E+0	2.199942E+0	2.050242E+0	2.032204E+0	2.127454E+0	2.055156E+0	1.878956E+0	1.914993E+0	2.066161E+0	2.147365E+0	2.127269E+0	1.825780E+0	2.123249E+0	2.109541E+0	1.909795E+0	1.928335E+0	1.901835E+0	2.113610E+0	1.896679E+0	1.959113E+0	2.025183E+0	2.069016E+0	1.756870E+0	1.833885E+0	2.008848E+0	2.147732E+0	1.865298E+0	1.760391E+0	2.124773E+0	2.202016E+0	1.988320E+0	2.212906E+0	2.137159E+0	1.892256E+0	1.915097E+0	2.129422E+0	2.277610E+0	2.105037E+0	1.782107E+0	1.755300E+0	2.170469E+0	2.088116E+0	1.836942E+0	1.800598E+0	1.967076E+0	1.987778E+0	1.935790E+0	1.868844E+0	2.115578E+0	2.139090E+0	1.975231E+0	1.784728E+0	2.237375E+0	2.185003E+0	1.717729E+0	1.726472E+0	2.243833E+0	2.055590E+0	1.772907E+0	1.728448E+0
5.352600E+2	1.908654E+0	1.946955E+0	1.857040E+0	1.989734E+0	1.867639E+0	2.038230E+0	2.094559E+0	1.680512E+0	2.035952E+0	2.086234E+0	2.037421E+0	1.766466E+0	1.914044E+0	2.037158E+0	2.073941E+0	1.866358E+0	1.935760E+0	2.097191E+0	2.059214E+0	1.918561E+0	1.988506E+0	2.195812E+0	1.981171E+0	1.765683E+0	1.965134E+0	2.191584E+0	2.059804E+0	1.788727E+0	1.890853E+0	2.011514E+0	2.015572E+0	1.998473E+0	2.024322E+0	2.027119E+0	1.960771E+0	2.042986E+0	1.974223E+0	2.128429E+0	1.936801E+0	2.002897E+0	1.869577E+0	2.105072E+0	1.977436E+0	2.017739E+0	1.841731E+0	2.115723E+0	2.103004E+0	2.010680E+0	1.958263E+0	1.988496E+0	2.098613E+0	2.082931E+0	2.002278E+0	1.973155E+0	1.876457E+0	1.884086E+0	1.997438E+0	1.977823E+0	1.973628E+0	1.639817E+0	1.977544E+0	2.064125E+0	1.946300E+0	1.927138E+0	1.763285E+0	1.941583E+0	2.039924E+0	1.908853E+0	1.917371E+0	1.923367E+0	2.020947E+0	1.731765E+0	1.972851E+0	1.985590E+0	2.008528E+0	1.664770E+0	1.937752E+0	1.927428E+0	1.979535E+0	1.827218E+0	1.951518E+0	2.019320E+0	1.991058E+0	1.771645E+0	2.000265E+0	2.050341E+0	1.995450E+0	1.642146E+0	2.057475E+0	2.024255E+0	2.084651E+0	1.661154E+0	1.956737E+0	1.926913E+0	2.068492E+0	1.882604E+0	1.994529E+0	1.577107E+0	2.075862E+0	1.709801E+0	1.962191E+0	1.886288E+0	1.908099E+0	1.694855E+0	1.924138E+0	1.772246E+0	1.975618E+0	1.841258E+0	1.811050E+0	2.071678E+0	2.034522E+0	1.920792E+0	1.961612E+0	2.199943E+0	2.062416E+0	1.966765E+0	2.036487E+0	1.945883E+0	2.095742E+0	1.756266E+0	2.039082E+0	2.021426E+0	2.112968E+0	1.681596E+0	2.022089E+0	2.041259E+0	2.007598E+0	1.933221E+0	1.718329E+0	1.988295E+0	1.831718E+0	1.858941E+0	1.849730E+0	1.970922E+0	1.827697E+0	1.772244E+0	1.939030E+0	1.986639E+0	1.985393E+0	1.713024E+0	1.950196E+0	2.179088E+0	1.910960E+0	1.998354E+0	2.046082E+0	1.838733E+0	1.878595E+0	2.009966E+0	2.150554E+0	1.939053E+0	1.704382E+0	1.719394E+0	2.080447E+0	1.973814E+0	1.769773E+0	1.713691E+0	1.934463E+0	1.892155E+0	1.899497E+0	1.836169E+0	2.005960E+0	1.934078E+0	1.845074E+0	1.652742E+0	2.166241E+0	2.043931E+0	1.631786E+0	1.642726E+0	2.072313E+0	2.021485E+0	1.690027E+0	1.860017E+0
5.354010E+2	1.626850E+0	1.755338E+0	1.594286E+0	1.691704E+0	1.693868E+0	1.746201E+0	1.813311E+0	1.429562E+0	1.789437E+0	1.912390E+0	1.839348E+0	1.547272E+0	1.672372E+0	1.731646E+0	1.835001E+0	1.653179E+0	1.773443E+0	1.826880E+0	1.850583E+0	1.672205E+0	1.716567E+0	1.917571E+0	1.778245E+0	1.525314E+0	1.706155E+0	1.929118E+0	1.767774E+0	1.582579E+0	1.723469E+0	1.749052E+0	1.705465E+0	1.717117E+0	1.731014E+0	1.833628E+0	1.749811E+0	1.771836E+0	1.724761E+0	1.895696E+0	1.740770E+0	1.806700E+0	1.618592E+0	1.842644E+0	1.691221E+0	1.794312E+0	1.628083E+0	1.847919E+0	1.820953E+0	1.729671E+0	1.802509E+0	1.724833E+0	1.781312E+0	1.749562E+0	1.761221E+0	1.743293E+0	1.696930E+0	1.596896E+0	1.762627E+0	1.767447E+0	1.830172E+0	1.441155E+0	1.685746E+0	1.753372E+0	1.739840E+0	1.658424E+0	1.533555E+0	1.713268E+0	1.805496E+0	1.680468E+0	1.722966E+0	1.733156E+0	1.786782E+0	1.536496E+0	1.751568E+0	1.797498E+0	1.823537E+0	1.501361E+0	1.703282E+0	1.769395E+0	1.722310E+0	1.609144E+0	1.744877E+0	1.779243E+0	1.731504E+0	1.609251E+0	1.772049E+0	1.777783E+0	1.832647E+0	1.445549E+0	1.814893E+0	1.750220E+0	1.901815E+0	1.487927E+0	1.766908E+0	1.716208E+0	1.888345E+0	1.709107E+0	1.739685E+0	1.437128E+0	1.807257E+0	1.498428E+0	1.711560E+0	1.725514E+0	1.722301E+0	1.522549E+0	1.724581E+0	1.576624E+0	1.699081E+0	1.607599E+0	1.652220E+0	1.862254E+0	1.765057E+0	1.697169E+0	1.672428E+0	1.851875E+0	1.825826E+0	1.681848E+0	1.808087E+0	1.771449E+0	1.857335E+0	1.608118E+0	1.879540E+0	1.811707E+0	1.925915E+0	1.487940E+0	1.717115E+0	1.852961E+0	1.682325E+0	1.650197E+0	1.515733E+0	1.793242E+0	1.705306E+0	1.668220E+0	1.674785E+0	1.724981E+0	1.740377E+0	1.545030E+0	1.699576E+0	1.782546E+0	1.753207E+0	1.451703E+0	1.701220E+0	1.863028E+0	1.720163E+0	1.849370E+0	1.843749E+0	1.641935E+0	1.788203E+0	1.748690E+0	1.935990E+0	1.731320E+0	1.741573E+0	1.556455E+0	1.844863E+0	1.775772E+0	1.737291E+0	1.480141E+0	1.676017E+0	1.649340E+0	1.698464E+0	1.607444E+0	1.813014E+0	1.804296E+0	1.721240E+0	1.501139E+0	2.003494E+0	1.827621E+0	1.622283E+0	1.466650E+0	1.853413E+0	1.810663E+0	1.581051E+0	1.513444E+0
5.355580E+2	1.446475E+0	1.481445E+0	1.380368E+0	1.477890E+0	1.481011E+0	1.482107E+0	1.506490E+0	1.203086E+0	1.520156E+0	1.531875E+0	1.555370E+0	1.312561E+0	1.410380E+0	1.526087E+0	1.532746E+0	1.456565E+0	1.447279E+0	1.507266E+0	1.516665E+0	1.490794E+0	1.443350E+0	1.620380E+0	1.513538E+0	1.333720E+0	1.458662E+0	1.665507E+0	1.549580E+0	1.377486E+0	1.461930E+0	1.480297E+0	1.462152E+0	1.449913E+0	1.516055E+0	1.530391E+0	1.520920E+0	1.515039E+0	1.453299E+0	1.568084E+0	1.492583E+0	1.499546E+0	1.375853E+0	1.555996E+0	1.544581E+0	1.444703E+0	1.373071E+0	1.562863E+0	1.510604E+0	1.497234E+0	1.495726E+0	1.481217E+0	1.542253E+0	1.495788E+0	1.501909E+0	1.430164E+0	1.440462E+0	1.380504E+0	1.510447E+0	1.481168E+0	1.486690E+0	1.273329E+0	1.523479E+0	1.510492E+0	1.491885E+0	1.444787E+0	1.324944E+0	1.453414E+0	1.552225E+0	1.447773E+0	1.479184E+0	1.461680E+0	1.511593E+0	1.323905E+0	1.493500E+0	1.460750E+0	1.587962E+0	1.283818E+0	1.496151E+0	1.483314E+0	1.516435E+0	1.350082E+0	1.454933E+0	1.507080E+0	1.528602E+0	1.386695E+0	1.503583E+0	1.518199E+0	1.571636E+0	1.223573E+0	1.552492E+0	1.536722E+0	1.628168E+0	1.344801E+0	1.496089E+0	1.498738E+0	1.629421E+0	1.505224E+0	1.475152E+0	1.224563E+0	1.590881E+0	1.358053E+0	1.493039E+0	1.432136E+0	1.526858E+0	1.283305E+0	1.464049E+0	1.377231E+0	1.507763E+0	1.320936E+0	1.376016E+0	1.607310E+0	1.491864E+0	1.448703E+0	1.478343E+0	1.561306E+0	1.560247E+0	1.422991E+0	1.512201E+0	1.510832E+0	1.592432E+0	1.320481E+0	1.477448E+0	1.581441E+0	1.656886E+0	1.299074E+0	1.490262E+0	1.520628E+0	1.482802E+0	1.432673E+0	1.318443E+0	1.533751E+0	1.479985E+0	1.492774E+0	1.464956E+0	1.520958E+0	1.486169E+0	1.292857E+0	1.529942E+0	1.499337E+0	1.519421E+0	1.326629E+0	1.519202E+0	1.638128E+0	1.510551E+0	1.607015E+0	1.562445E+0	1.398304E+0	1.506015E+0	1.526253E+0	1.681882E+0	1.522596E+0	1.530807E+0	1.309585E+0	1.618634E+0	1.460030E+0	1.549549E+0	1.338379E+0	1.441288E+0	1.446078E+0	1.433923E+0	1.340192E+0	1.530023E+0	1.506827E+0	1.484113E+0	1.282753E+0	1.682317E+0	1.536075E+0	1.518631E+0	1.231524E+0	1.592046E+0	1.612242E+0	1.564167E+0	1.404336E+0
5.357090E+2	1.213638E+0	1.264981E+0	1.166449E+0	1.292740E+0	1.246963E+0	1.291808E+0	1.289915E+0	1.025109E+0	1.278640E+0	1.339051E+0	1.347994E+0	1.093868E+0	1.216424E+0	1.320057E+0	1.350652E+0	1.184533E+0	1.251276E+0	1.300993E+0	1.252639E+0	1.192913E+0	1.243443E+0	1.378043E+0	1.275006E+0	1.147397E+0	1.228397E+0	1.420925E+0	1.301565E+0	1.140151E+0	1.236782E+0	1.275463E+0	1.236187E+0	1.267633E+0	1.287337E+0	1.355962E+0	1.258805E+0	1.284825E+0	1.254430E+0	1.301301E+0	1.264630E+0	1.288584E+0	1.141875E+0	1.329608E+0	1.254562E+0	1.337619E+0	1.195790E+0	1.342408E+0	1.345524E+0	1.261621E+0	1.293826E+0	1.294133E+0	1.324241E+0	1.302922E+0	1.278636E+0	1.261024E+0	1.243496E+0	1.148156E+0	1.253223E+0	1.315252E+0	1.260940E+0	1.058999E+0	1.270681E+0	1.275003E+0	1.262373E+0	1.255578E+0	1.110002E+0	1.282314E+0	1.329988E+0	1.251703E+0	1.279120E+0	1.286654E+0	1.313381E+0	1.121146E+0	1.292590E+0	1.277453E+0	1.321211E+0	1.059697E+0	1.225072E+0	1.293776E+0	1.303363E+0	1.166643E+0	1.215295E+0	1.287061E+0	1.249395E+0	1.185969E+0	1.305666E+0	1.334090E+0	1.371615E+0	1.037733E+0	1.361314E+0	1.293496E+0	1.402949E+0	1.149388E+0	1.238172E+0	1.257102E+0	1.384677E+0	1.235670E+0	1.218598E+0	1.089766E+0	1.354254E+0	1.150443E+0	1.318130E+0	1.202755E+0	1.273545E+0	1.085219E+0	1.256175E+0	1.193465E+0	1.283148E+0	1.234882E+0	1.167348E+0	1.319478E+0	1.307564E+0	1.236287E+0	1.254782E+0	1.360045E+0	1.338152E+0	1.233626E+0	1.298474E+0	1.254829E+0	1.391866E+0	1.158867E+0	1.343809E+0	1.325777E+0	1.400512E+0	1.092116E+0	1.306478E+0	1.351531E+0	1.301162E+0	1.214172E+0	1.151378E+0	1.280766E+0	1.258764E+0	1.212633E+0	1.245376E+0	1.258436E+0	1.217892E+0	1.131363E+0	1.306308E+0	1.262568E+0	1.306987E+0	1.096179E+0	1.313873E+0	1.417049E+0	1.260691E+0	1.392460E+0	1.432169E+0	1.240526E+0	1.299736E+0	1.292633E+0	1.434104E+0	1.283553E+0	1.275212E+0	1.116124E+0	1.411700E+0	1.289711E+0	1.308397E+0	1.131442E+0	1.267342E+0	1.225291E+0	1.327438E+0	1.156824E+0	1.306879E+0	1.295500E+0	1.298101E+0	1.083978E+0	1.410175E+0	1.334394E+0	1.304417E+0	1.104296E+0	1.411539E+0	1.371450E+0	1.356962E+0	1.173287E+0
5.358650E+2	1.005781E+0	1.082752E+0	1.038522E+0	1.192998E+0	1.028457E+0	1.093604E+0	1.132996E+0	9.401232E-1	1.070989E+0	1.125204E+0	1.170715E+0	1.043825E+0	1.059581E+0	1.139485E+0	1.143139E+0	1.045465E+0	1.132857E+0	1.170654E+0	1.109235E+0	1.060879E+0	1.120686E+0	1.219971E+0	1.103396E+0	1.008537E+0	1.053482E+0	1.152120E+0	1.080531E+0	9.884467E-1	1.088500E+0	1.111307E+0	1.080486E+0	1.110227E+0	1.010967E+0	1.148606E+0	1.095837E+0	1.091296E+0	1.074921E+0	1.143356E+0	1.069049E+0	1.104289E+0	1.028494E+0	1.144329E+0	1.176897E+0	1.096250E+0	1.057145E+0	1.121464E+0	1.119597E+0	1.108630E+0	1.141219E+0	1.128125E+0	1.130515E+0	1.138907E+0	1.129789E+0	1.092315E+0	9.849783E-1	9.900999E-1	1.161877E+0	1.076683E+0	1.111201E+0	9.619437E-1	1.104557E+0	1.083379E+0	1.086140E+0	1.043719E+0	1.005432E+0	1.144365E+0	1.109970E+0	1.088493E+0	1.093456E+0	1.066084E+0	1.140065E+0	9.993988E-1	1.109793E+0	1.114407E+0	1.141844E+0	9.428318E-1	1.036010E+0	1.083915E+0	1.059095E+0	1.026624E+0	1.101156E+0	1.118606E+0	1.070194E+0	1.031565E+0	1.145156E+0	1.109119E+0	1.150919E+0	9.375015E-1	1.161036E+0	1.145396E+0	1.192870E+0	1.054851E+0	1.074649E+0	1.033830E+0	1.189299E+0	1.068545E+0	1.149615E+0	9.378599E-1	1.143208E+0	9.826351E-1	1.108714E+0	1.083970E+0	1.059321E+0	9.897919E-1	1.135889E+0	1.012933E+0	1.103681E+0	1.009770E+0	1.024353E+0	1.213253E+0	1.121869E+0	1.080873E+0	1.104075E+0	1.156340E+0	1.167667E+0	1.079585E+0	1.154197E+0	1.040383E+0	1.159944E+0	1.040542E+0	1.143647E+0	1.122543E+0	1.193655E+0	9.718789E-1	1.083630E+0	1.148293E+0	1.061398E+0	1.071925E+0	9.577985E-1	1.115853E+0	1.106013E+0	1.033795E+0	1.081719E+0	1.064083E+0	1.115529E+0	9.917765E-1	1.081583E+0	1.171414E+0	1.148462E+0	9.178863E-1	1.133839E+0	1.181230E+0	1.155623E+0	1.219351E+0	1.193520E+0	1.034247E+0	1.149081E+0	1.136102E+0	1.267512E+0	1.170247E+0	1.156952E+0	9.549860E-1	1.156246E+0	1.118826E+0	1.096428E+0	9.505738E-1	1.096856E+0	1.108640E+0	1.099186E+0	1.055385E+0	1.161468E+0	1.123794E+0	1.114724E+0	9.519909E-1	1.254972E+0	1.164062E+0	1.121729E+0	9.019155E-1	1.237565E+0	1.153393E+0	1.205012E+0	1.224634E+0
5.360070E+2	8.793694E-1	9.286869E-1	8.914860E-1	1.046073E+0	9.069598E-1	9.491692E-1	9.951302E-1	9.556974E-1	9.094204E-1	9.836634E-1	1.004378E+0	9.427351E-1	9.243871E-1	9.725869E-1	9.883135E-1	9.412712E-1	9.506346E-1	1.031249E+0	9.865398E-1	9.320668E-1	9.352721E-1	1.079356E+0	9.236332E-1	9.377885E-1	9.130268E-1	9.807994E-1	9.404305E-1	9.318880E-1	8.851832E-1	9.534435E-1	9.369256E-1	9.206533E-1	9.606702E-1	9.666647E-1	9.581847E-1	9.876196E-1	9.037715E-1	1.000479E+0	9.107833E-1	9.695230E-1	8.620282E-1	9.584876E-1	9.591116E-1	1.033737E+0	8.730452E-1	9.656181E-1	9.686681E-1	9.742535E-1	9.482325E-1	9.379577E-1	9.572919E-1	9.310815E-1	9.528581E-1	9.374857E-1	9.547152E-1	8.749234E-1	9.326715E-1	9.443853E-1	9.574628E-1	7.526673E-1	9.586570E-1	9.402372E-1	9.237402E-1	9.015877E-1	8.427712E-1	9.278179E-1	9.559016E-1	9.128928E-1	9.607655E-1	9.142721E-1	9.593703E-1	8.069406E-1	9.620820E-1	9.636151E-1	9.900722E-1	7.698090E-1	9.586268E-1	9.711078E-1	9.420015E-1	8.866047E-1	9.064168E-1	9.415567E-1	9.933110E-1	8.468130E-1	9.486611E-1	9.706772E-1	9.839778E-1	7.998412E-1	9.805687E-1	9.573001E-1	1.029406E+0	8.277513E-1	9.209291E-1	9.202608E-1	1.015456E+0	9.602314E-1	9.306897E-1	7.854356E-1	9.721346E-1	8.842092E-1	9.467396E-1	9.349754E-1	8.973835E-1	8.016540E-1	9.269085E-1	8.571912E-1	9.055903E-1	8.587454E-1	8.948672E-1	9.830904E-1	9.473442E-1	9.347160E-1	9.311209E-1	9.948438E-1	9.977638E-1	9.243863E-1	1.011388E+0	9.367509E-1	9.939763E-1	8.356365E-1	1.016485E+0	9.782247E-1	1.025307E+0	8.048231E-1	9.974961E-1	9.871973E-1	9.138510E-1	8.964406E-1	8.793061E-1	9.804940E-1	9.462410E-1	8.866495E-1	9.390958E-1	9.457195E-1	9.117760E-1	8.200940E-1	9.152216E-1	9.856678E-1	9.531056E-1	8.034593E-1	9.602518E-1	1.027840E+0	9.130786E-1	9.853868E-1	1.020587E+0	8.435786E-1	9.659785E-1	9.607410E-1	1.049255E+0	9.227575E-1	9.576277E-1	8.530947E-1	1.034072E+0	9.881168E-1	9.274034E-1	8.256505E-1	9.308173E-1	9.148897E-1	9.215515E-1	8.837225E-1	9.964846E-1	9.808030E-1	9.666515E-1	7.823688E-1	1.058277E+0	1.038141E+0	9.325648E-1	7.800581E-1	1.052974E+0	1.008711E+0	1.019295E+0	9.165673E-1
5.362680E+2	6.705150E-1	7.089091E-1	6.579274E-1	7.958251E-1	6.898662E-1	7.304069E-1	7.349371E-1	7.176511E-1	7.517389E-1	7.431483E-1	7.734746E-1	7.525662E-1	6.990637E-1	7.514702E-1	7.493734E-1	7.128338E-1	7.168582E-1	7.445044E-1	7.349369E-1	7.066441E-1	7.102191E-1	7.856557E-1	7.571742E-1	7.242231E-1	6.832865E-1	7.789068E-1	7.492136E-1	7.442396E-1	7.455445E-1	6.997011E-1	7.473929E-1	7.469507E-1	6.752990E-1	7.356285E-1	7.256019E-1	7.467731E-1	7.189829E-1	7.923020E-1	7.053106E-1	7.995151E-1	6.770104E-1	8.053091E-1	7.630501E-1	7.587955E-1	6.575796E-1	7.895519E-1	7.418013E-1	7.504435E-1	6.923153E-1	6.943396E-1	7.484539E-1	7.211192E-1	7.384797E-1	7.015547E-1	7.310759E-1	7.472823E-1	7.701547E-1	7.540726E-1	7.351409E-1	6.379185E-1	7.231978E-1	7.361457E-1	6.768096E-1	7.168203E-1	6.500067E-1	7.449553E-1	7.336659E-1	7.362161E-1	6.840702E-1	7.245086E-1	7.648481E-1	7.006443E-1	7.532497E-1	7.355627E-1	7.350750E-1	6.554724E-1	6.921818E-1	7.449859E-1	7.697194E-1	6.904802E-1	7.100549E-1	7.708103E-1	7.378043E-1	6.945382E-1	7.161803E-1	7.577246E-1	7.586315E-1	6.664833E-1	7.829661E-1	7.178568E-1	7.896602E-1	7.094482E-1	7.192356E-1	7.269527E-1	7.927688E-1	7.142001E-1	7.402721E-1	6.304190E-1	7.488311E-1	6.583145E-1	7.401989E-1	7.276116E-1	7.415381E-1	6.610026E-1	7.240261E-1	6.804315E-1	6.945196E-1	6.849240E-1	7.080910E-1	7.939026E-1	7.272081E-1	7.335059E-1	7.425947E-1	7.874680E-1	7.826290E-1	7.031706E-1	7.409306E-1	7.469295E-1	7.534038E-1	6.903750E-1	7.433210E-1	7.852600E-1	7.997432E-1	5.930777E-1	7.701424E-1	7.466197E-1	7.249462E-1	7.053126E-1	6.443585E-1	7.617916E-1	7.027790E-1	7.106406E-1	6.943785E-1	7.255739E-1	7.279125E-1	6.662422E-1	7.379507E-1	7.626568E-1	7.929785E-1	6.448580E-1	7.524435E-1	7.892926E-1	7.526025E-1	7.813251E-1	8.003854E-1	6.991833E-1	7.875116E-1	8.012684E-1	8.183452E-1	7.393770E-1	7.053721E-1	6.605339E-1	7.914771E-1	7.442396E-1	7.242438E-1	6.692242E-1	7.222809E-1	7.096242E-1	6.952101E-1	7.027920E-1	7.755744E-1	7.700489E-1	7.542918E-1	6.472013E-1	8.540370E-1	8.056351E-1	7.416727E-1	6.394115E-1	8.193749E-1	7.844530E-1	7.629757E-1	7.079802E-1
5.365140E+2	5.610914E-1	5.565006E-1	5.347774E-1	6.273993E-1	5.325786E-1	6.065292E-1	5.970696E-1	5.614759E-1	5.774011E-1	6.098138E-1	6.328539E-1	5.854177E-1	5.585675E-1	5.911718E-1	5.802205E-1	5.811772E-1	5.570941E-1	5.812986E-1	6.117242E-1	5.799783E-1	5.729703E-1	6.255918E-1	5.864236E-1	5.862405E-1	5.527520E-1	6.064323E-1	5.769292E-1	5.713918E-1	5.413186E-1	5.723456E-1	5.769437E-1	5.981232E-1	5.927055E-1	6.027830E-1	5.958616E-1	5.915253E-1	5.544332E-1	6.438427E-1	5.519923E-1	6.028404E-1	5.662053E-1	6.031355E-1	5.447200E-1	6.337694E-1	5.243907E-1	5.996767E-1	6.036055E-1	5.906441E-1	5.486258E-1	5.617377E-1	6.124664E-1	5.544322E-1	5.568677E-1	5.801191E-1	5.418034E-1	5.458485E-1	6.020332E-1	5.827365E-1	5.836876E-1	5.075003E-1	5.532226E-1	6.096274E-1	5.297784E-1	5.666968E-1	4.973796E-1	5.337545E-1	5.701758E-1	5.686963E-1	5.770949E-1	5.695730E-1	5.859984E-1	5.531411E-1	5.778084E-1	5.916977E-1	5.838140E-1	4.986391E-1	5.976516E-1	5.564662E-1	6.031963E-1	5.660734E-1	5.553450E-1	5.725618E-1	5.973337E-1	5.518465E-1	5.944952E-1	6.139934E-1	6.294191E-1	5.817373E-1	5.987513E-1	5.816502E-1	6.376998E-1	6.038196E-1	5.902752E-1	5.592569E-1	5.994933E-1	5.813825E-1	5.680968E-1	5.070281E-1	6.054695E-1	5.405262E-1	5.902054E-1	5.453360E-1	5.491423E-1	5.452249E-1	5.749129E-1	5.338506E-1	5.782612E-1	5.840512E-1	5.818654E-1	6.133143E-1	5.685064E-1	5.327831E-1	5.807643E-1	6.192431E-1	5.819915E-1	5.572376E-1	6.069240E-1	5.653166E-1	6.166284E-1	5.552147E-1	6.202796E-1	5.906736E-1	6.396481E-1	4.946536E-1	5.773424E-1	5.625858E-1	5.354816E-1	5.703989E-1	5.128298E-1	5.649595E-1	5.792924E-1	5.493468E-1	5.897201E-1	5.804981E-1	5.586025E-1	5.480517E-1	5.694075E-1	5.602851E-1	5.901507E-1	5.155290E-1	5.887758E-1	6.151582E-1	5.905585E-1	6.045415E-1	6.303345E-1	5.653803E-1	5.800726E-1	6.094300E-1	6.717859E-1	5.694149E-1	5.995107E-1	5.397908E-1	6.587805E-1	6.044763E-1	5.827476E-1	5.551634E-1	5.710664E-1	5.414062E-1	5.829946E-1	5.477084E-1	5.932535E-1	5.897303E-1	5.730216E-1	4.961317E-1	6.433298E-1	6.154496E-1	5.931052E-1	5.132594E-1	6.094632E-1	5.860316E-1	6.202339E-1	5.635741E-1
5.367660E+2	5.026318E-1	4.841612E-1	4.556859E-1	5.778273E-1	4.694755E-1	4.968855E-1	5.273842E-1	4.956241E-1	4.774626E-1	5.354543E-1	5.283463E-1	5.258656E-1	4.679961E-1	4.973501E-1	5.030385E-1	4.857037E-1	4.968640E-1	5.461635E-1	5.257860E-1	4.688773E-1	4.762145E-1	5.572781E-1	5.147770E-1	4.900045E-1	5.005380E-1	5.787440E-1	5.026197E-1	5.053184E-1	4.630846E-1	5.166575E-1	5.027784E-1	5.089122E-1	5.005822E-1	5.507997E-1	5.046218E-1	5.101794E-1	4.765578E-1	5.606839E-1	4.858991E-1	5.637913E-1	4.605550E-1	5.310517E-1	4.947546E-1	5.903575E-1	4.930255E-1	5.276721E-1	5.139909E-1	5.234557E-1	4.967076E-1	5.221622E-1	5.433941E-1	5.314597E-1	5.325277E-1	5.115950E-1	4.720441E-1	5.074568E-1	5.095663E-1	5.301429E-1	4.951023E-1	4.286423E-1	5.132564E-1	4.868028E-1	4.775239E-1	4.894140E-1	4.255556E-1	4.973958E-1	5.435739E-1	5.019033E-1	5.236073E-1	5.092950E-1	5.177775E-1	4.917983E-1	5.297032E-1	5.309549E-1	5.235141E-1	4.283172E-1	4.933911E-1	5.320755E-1	5.100966E-1	4.475202E-1	4.866455E-1	5.198482E-1	5.002190E-1	4.975387E-1	5.021657E-1	5.116031E-1	5.405212E-1	5.262432E-1	5.553749E-1	4.805757E-1	5.614170E-1	4.950232E-1	4.845274E-1	4.915992E-1	5.380439E-1	5.201197E-1	5.082357E-1	4.121517E-1	5.425827E-1	4.716818E-1	4.914873E-1	5.222957E-1	4.694424E-1	4.823613E-1	4.923186E-1	4.540930E-1	4.766762E-1	4.729196E-1	4.658869E-1	5.723408E-1	4.926460E-1	4.933205E-1	4.979017E-1	5.244253E-1	5.524185E-1	5.033816E-1	5.193805E-1	4.929794E-1	5.598641E-1	5.008627E-1	4.836978E-1	5.274326E-1	5.279666E-1	4.659242E-1	5.132431E-1	4.991072E-1	5.270983E-1	4.760573E-1	4.815389E-1	4.804343E-1	4.780448E-1	5.131260E-1	5.173822E-1	5.072699E-1	4.921400E-1	5.113717E-1	5.301350E-1	5.470987E-1	5.298360E-1	4.601778E-1	4.930550E-1	5.633003E-1	5.178995E-1	5.526076E-1	5.432921E-1	4.722763E-1	5.186524E-1	5.505847E-1	5.563309E-1	5.112698E-1	5.437188E-1	5.586429E-1	5.740189E-1	4.788595E-1	4.847469E-1	5.008489E-1	5.112732E-1	4.953465E-1	5.180525E-1	4.794330E-1	5.412422E-1	5.472348E-1	5.097873E-1	4.399450E-1	5.781233E-1	5.652906E-1	5.140700E-1	4.960811E-1	5.555562E-1	5.622623E-1	5.312115E-1	5.443205E-1
5.370280E+2	4.761505E-1	4.869224E-1	4.397616E-1	5.443814E-1	4.657081E-1	4.504970E-1	4.892828E-1	4.836107E-1	4.424846E-1	5.339157E-1	4.758184E-1	4.838276E-1	4.489983E-1	4.883925E-1	5.252229E-1	4.861398E-1	4.713421E-1	5.053621E-1	5.123258E-1	4.586792E-1	4.446726E-1	5.328451E-1	4.933256E-1	4.820942E-1	4.864405E-1	5.233676E-1	5.092459E-1	4.672600E-1	4.867365E-1	4.750127E-1	5.032122E-1	4.921851E-1	4.624627E-1	4.762907E-1	4.771969E-1	4.724308E-1	4.985565E-1	5.087795E-1	4.607208E-1	5.428379E-1	4.533396E-1	5.107778E-1	4.686853E-1	5.405786E-1	4.452959E-1	4.975881E-1	5.064444E-1	4.998488E-1	4.757306E-1	4.974921E-1	4.813362E-1	4.716234E-1	4.833798E-1	4.582500E-1	4.576822E-1	4.999778E-1	4.938748E-1	5.144188E-1	4.676692E-1	4.256099E-1	4.896624E-1	4.803387E-1	4.734258E-1	4.685384E-1	4.498488E-1	4.540861E-1	4.881532E-1	4.512711E-1	4.598333E-1	4.999184E-1	4.753693E-1	4.632341E-1	4.787686E-1	5.069772E-1	5.301576E-1	4.009971E-1	4.841233E-1	4.939650E-1	5.105765E-1	4.411781E-1	4.855635E-1	5.290153E-1	4.794084E-1	4.512175E-1	4.983780E-1	4.938172E-1	5.265663E-1	5.098961E-1	4.862948E-1	4.994935E-1	5.596004E-1	5.040009E-1	4.840120E-1	4.775844E-1	5.243889E-1	5.137482E-1	4.882810E-1	4.085224E-1	5.249949E-1	4.308053E-1	5.096973E-1	4.787750E-1	4.628431E-1	4.606531E-1	4.723624E-1	4.260706E-1	4.936072E-1	4.843175E-1	4.761338E-1	5.222617E-1	4.744953E-1	5.030646E-1	4.823306E-1	5.654107E-1	5.425604E-1	4.553158E-1	4.866121E-1	5.145269E-1	5.025592E-1	4.527625E-1	5.178429E-1	4.933799E-1	5.505229E-1	4.244265E-1	4.902068E-1	5.129767E-1	4.868581E-1	4.467281E-1	4.359278E-1	5.153081E-1	5.020398E-1	4.695480E-1	4.804442E-1	4.695043E-1	4.911698E-1	4.945600E-1	5.066805E-1	5.121287E-1	4.908718E-1	4.138751E-1	4.752007E-1	5.163548E-1	5.048317E-1	5.169364E-1	5.340687E-1	4.544360E-1	4.960540E-1	5.352846E-1	5.779458E-1	5.102761E-1	5.441960E-1	5.186947E-1	5.570664E-1	4.437771E-1	5.128253E-1	4.889001E-1	4.583976E-1	4.758212E-1	5.018170E-1	4.769951E-1	4.948225E-1	4.840666E-1	4.744818E-1	4.494864E-1	5.592624E-1	5.109515E-1	5.209806E-1	4.751448E-1	5.073661E-1	5.095568E-1	5.189329E-1	4.833489E-1
5.372590E+2	4.541656E-1	4.830570E-1	4.296761E-1	5.688687E-1	4.713593E-1	4.815985E-1	5.258800E-1	4.667029E-1	5.052233E-1	5.410953E-1	5.294406E-1	5.208604E-1	4.706471E-1	4.982932E-1	5.150548E-1	4.865758E-1	4.886968E-1	5.302957E-1	5.061134E-1	4.946394E-1	5.013624E-1	5.438147E-1	4.804550E-1	5.018692E-1	4.796529E-1	5.429802E-1	5.007267E-1	4.810037E-1	4.826430E-1	5.035827E-1	4.832614E-1	4.878962E-1	4.836400E-1	5.080580E-1	4.961831E-1	5.176230E-1	4.796377E-1	5.171508E-1	4.989379E-1	5.290277E-1	4.605552E-1	5.045836E-1	4.806338E-1	5.504187E-1	4.366589E-1	5.469063E-1	5.163492E-1	4.998489E-1	5.098182E-1	4.866986E-1	4.888907E-1	4.716233E-1	4.810397E-1	4.729958E-1	4.951265E-1	4.770422E-1	5.179723E-1	5.084547E-1	4.842430E-1	3.927525E-1	5.122939E-1	5.177403E-1	4.898190E-1	4.871928E-1	4.440394E-1	5.006037E-1	4.815027E-1	4.631213E-1	4.948067E-1	4.646454E-1	4.698381E-1	4.665117E-1	4.714114E-1	5.021822E-1	5.071621E-1	4.303407E-1	5.123896E-1	4.919326E-1	5.072175E-1	4.636201E-1	4.888094E-1	4.975024E-1	4.869230E-1	4.677234E-1	5.173172E-1	4.995853E-1	5.084767E-1	4.982813E-1	5.023601E-1	4.989529E-1	5.408329E-1	5.219582E-1	5.098036E-1	5.027149E-1	5.390945E-1	4.946345E-1	4.888516E-1	5.122129E-1	5.585705E-1	4.652278E-1	5.149690E-1	4.577829E-1	4.841641E-1	4.696984E-1	5.172626E-1	4.449319E-1	4.857065E-1	4.968558E-1	4.514474E-1	5.516007E-1	5.168470E-1	4.787047E-1	5.184788E-1	5.128029E-1	5.390810E-1	5.172796E-1	5.252489E-1	5.119614E-1	5.549986E-1	4.686351E-1	5.360929E-1	5.204062E-1	5.263163E-1	4.393231E-1	5.092366E-1	5.476497E-1	5.215092E-1	5.117406E-1	4.247906E-1	5.300853E-1	5.020402E-1	4.576634E-1	4.932697E-1	5.132571E-1	5.008722E-1	5.179944E-1	4.995893E-1	5.241673E-1	5.330384E-1	4.436795E-1	4.846237E-1	5.420112E-1	5.194680E-1	5.284769E-1	5.306102E-1	4.583385E-1	5.383530E-1	5.599994E-1	5.821633E-1	4.998395E-1	5.427655E-1	5.209384E-1	5.681735E-1	4.748988E-1	5.194325E-1	4.845538E-1	4.999072E-1	5.163737E-1	5.046823E-1	4.569997E-1	5.339714E-1	5.035912E-1	5.313918E-1	4.410048E-1	5.765068E-1	5.637232E-1	5.179574E-1	4.740713E-1	5.514718E-1	5.777644E-1	5.281427E-1	4.576769E-1
5.375160E+2	5.321114E-1	5.349642E-1	5.634418E-1	6.489005E-1	5.335204E-1	5.474906E-1	5.995763E-1	5.485729E-1	6.173769E-1	6.046857E-1	5.890808E-1	5.714052E-1	6.155612E-1	5.798567E-1	5.705150E-1	5.445573E-1	6.275330E-1	6.107659E-1	5.873924E-1	5.606561E-1	5.968398E-1	6.495267E-1	5.988652E-1	5.730573E-1	5.370883E-1	6.306590E-1	5.556302E-1	5.824923E-1	5.781606E-1	5.568501E-1	5.825820E-1	5.483708E-1	5.747048E-1	6.443693E-1	5.520873E-1	5.878036E-1	5.539929E-1	6.516566E-1	5.740231E-1	6.356988E-1	5.270376E-1	6.036988E-1	5.881692E-1	6.592374E-1	5.325733E-1	5.626884E-1	6.139823E-1	6.010855E-1	5.853349E-1	5.679052E-1	6.070700E-1	6.142688E-1	5.461019E-1	5.710118E-1	5.674500E-1	5.503361E-1	5.740130E-1	5.968338E-1	5.956897E-1	5.155886E-1	5.585190E-1	5.662234E-1	5.559060E-1	5.769122E-1	4.942110E-1	5.669049E-1	5.729463E-1	5.713894E-1	5.626942E-1	5.767171E-1	5.984438E-1	5.503316E-1	5.891267E-1	6.423172E-1	6.165191E-1	4.814378E-1	5.684589E-1	5.381733E-1	5.734427E-1	5.270436E-1	5.661642E-1	5.628207E-1	5.666961E-1	5.374710E-1	5.765025E-1	5.971684E-1	5.973745E-1	5.722731E-1	5.912542E-1	6.005671E-1	6.316454E-1	5.768844E-1	5.711893E-1	5.853541E-1	5.900396E-1	5.627588E-1	5.857709E-1	6.205687E-1	6.321168E-1	5.195498E-1	5.997894E-1	5.734968E-1	5.669096E-1	5.637672E-1	5.859991E-1	4.988218E-1	5.562511E-1	5.732233E-1	5.334247E-1	6.178668E-1	5.647832E-1	5.683482E-1	5.713100E-1	6.210786E-1	6.278021E-1	5.804014E-1	5.775795E-1	5.837855E-1	6.598778E-1	5.980236E-1	6.096826E-1	6.425633E-1	6.974139E-1	5.116784E-1	6.128974E-1	6.265975E-1	5.578366E-1	5.689323E-1	5.398779E-1	6.027898E-1	5.810479E-1	5.799074E-1	5.799725E-1	5.892492E-1	5.896508E-1	5.786182E-1	5.912250E-1	6.181873E-1	5.666649E-1	5.527846E-1	6.269650E-1	6.544614E-1	6.203537E-1	6.244755E-1	6.286053E-1	5.469829E-1	5.858672E-1	6.141381E-1	6.902377E-1	5.559971E-1	6.204927E-1	5.810861E-1	6.026618E-1	6.010813E-1	5.882537E-1	5.763459E-1	5.537707E-1	5.789550E-1	5.729667E-1	5.569751E-1	6.066757E-1	6.012157E-1	5.851408E-1	5.024928E-1	6.654246E-1	6.206743E-1	5.823082E-1	5.900248E-1	6.454019E-1	6.139348E-1	6.263724E-1	6.245459E-1
5.377630E+2	5.785790E-1	6.321523E-1	5.931676E-1	7.104175E-1	6.437155E-1	6.819106E-1	6.943287E-1	6.620334E-1	6.878892E-1	6.862252E-1	6.804574E-1	6.704932E-1	7.030400E-1	6.755642E-1	6.694188E-1	6.286956E-1	6.979724E-1	6.889687E-1	6.873085E-1	6.229155E-1	6.684478E-1	7.218297E-1	6.610732E-1	6.279868E-1	6.561352E-1	7.102628E-1	6.810573E-1	6.443367E-1	7.282607E-1	6.609615E-1	6.524097E-1	6.723222E-1	7.144782E-1	6.628517E-1	6.612593E-1	7.382661E-1	7.005039E-1	7.030033E-1	6.504577E-1	7.071306E-1	6.234119E-1	6.532567E-1	6.625748E-1	7.038075E-1	6.712166E-1	6.899291E-1	6.653928E-1	6.378577E-1	7.080482E-1	6.691554E-1	6.696675E-1	6.505979E-1	7.113321E-1	6.217539E-1	6.464422E-1	6.600272E-1	6.519092E-1	6.597293E-1	6.814178E-1	5.514787E-1	6.760089E-1	6.405647E-1	6.096984E-1	6.337636E-1	6.061727E-1	6.733072E-1	6.909922E-1	6.500322E-1	6.526975E-1	6.392271E-1	7.003146E-1	6.393019E-1	6.485509E-1	6.684257E-1	7.003263E-1	5.684550E-1	6.792072E-1	6.311629E-1	6.598241E-1	5.963213E-1	6.646156E-1	6.716859E-1	6.719052E-1	6.487487E-1	6.854041E-1	6.885027E-1	6.655983E-1	6.832609E-1	7.079952E-1	6.340790E-1	6.970309E-1	7.226511E-1	6.666201E-1	6.646105E-1	7.197649E-1	6.754821E-1	6.821203E-1	6.962623E-1	6.966025E-1	6.088325E-1	6.783806E-1	6.595144E-1	6.359486E-1	6.668817E-1	5.920964E-1	5.855848E-1	6.217174E-1	6.752357E-1	6.191273E-1	7.210600E-1	6.527442E-1	6.399655E-1	6.469419E-1	7.067205E-1	6.991268E-1	6.701624E-1	6.807741E-1	6.484277E-1	6.842049E-1	6.879699E-1	6.915142E-1	7.203974E-1	7.639830E-1	6.196793E-1	6.459494E-1	6.847416E-1	6.668209E-1	6.261242E-1	5.838977E-1	6.831769E-1	6.518626E-1	6.025451E-1	6.610319E-1	6.680040E-1	6.624201E-1	6.433176E-1	6.943150E-1	6.588914E-1	6.702141E-1	6.001520E-1	6.487875E-1	6.964933E-1	6.433532E-1	7.388340E-1	7.064256E-1	6.372995E-1	6.820539E-1	6.824000E-1	7.619354E-1	6.757657E-1	7.139557E-1	6.542500E-1	7.195753E-1	6.576655E-1	6.565240E-1	6.426098E-1	6.486504E-1	6.315231E-1	6.651268E-1	6.335410E-1	6.816177E-1	6.655336E-1	6.900037E-1	5.745821E-1	7.462579E-1	7.377113E-1	6.665253E-1	6.308228E-1	7.213623E-1	6.842087E-1	6.693490E-1	6.566356E-1
5.380160E+2	7.369686E-1	7.784873E-1	6.818143E-1	8.549529E-1	7.595618E-1	7.499107E-1	7.725370E-1	7.563618E-1	8.228069E-1	8.185340E-1	8.019273E-1	7.710833E-1	8.254218E-1	8.042737E-1	8.519741E-1	7.647122E-1	8.220061E-1	8.062736E-1	7.810127E-1	7.334799E-1	8.129424E-1	8.903700E-1	7.447327E-1	7.554227E-1	7.318448E-1	8.521648E-1	7.724061E-1	7.870554E-1	8.351500E-1	7.553891E-1	7.920653E-1	7.743999E-1	8.817828E-1	7.939653E-1	7.894170E-1	7.946232E-1	7.616602E-1	7.978825E-1	7.642096E-1	8.633277E-1	7.331857E-1	8.644398E-1	7.456704E-1	8.560379E-1	8.189521E-1	7.831404E-1	8.158513E-1	8.357907E-1	8.622279E-1	7.991879E-1	7.943233E-1	7.697361E-1	7.918405E-1	7.557660E-1	7.736496E-1	7.183632E-1	8.418861E-1	7.529880E-1	7.711467E-1	6.995896E-1	9.085807E-1	8.049459E-1	7.736348E-1	7.656773E-1	7.334500E-1	7.984236E-1	7.863146E-1	7.863102E-1	8.023603E-1	7.642476E-1	7.860522E-1	7.231212E-1	7.804149E-1	8.144218E-1	7.509163E-1	6.898743E-1	8.404641E-1	7.917354E-1	7.687601E-1	7.080439E-1	8.274395E-1	7.908647E-1	7.724889E-1	7.184973E-1	7.772596E-1	8.355992E-1	8.268557E-1	7.946790E-1	8.311622E-1	7.789337E-1	8.247745E-1	8.393704E-1	8.296251E-1	7.675473E-1	8.290080E-1	8.063394E-1	8.360510E-1	8.238007E-1	8.404974E-1	7.099476E-1	7.818906E-1	7.783003E-1	7.872256E-1	7.473830E-1	7.545135E-1	7.224656E-1	8.034412E-1	8.034642E-1	8.040406E-1	8.030082E-1	7.923647E-1	7.627372E-1	8.076617E-1	8.553703E-1	8.174220E-1	7.680299E-1	7.947285E-1	7.520600E-1	8.420641E-1	7.812833E-1	7.851194E-1	8.122859E-1	8.597104E-1	7.063990E-1	7.951811E-1	8.202331E-1	7.713336E-1	7.165555E-1	7.175466E-1	7.818890E-1	7.917361E-1	7.338441E-1	7.867248E-1	7.573521E-1	7.511985E-1	8.083767E-1	7.712230E-1	8.131063E-1	8.169974E-1	7.113855E-1	8.010481E-1	8.591645E-1	7.996477E-1	8.505696E-1	8.251724E-1	7.064306E-1	8.072125E-1	8.630563E-1	8.789721E-1	7.940431E-1	8.155258E-1	7.839705E-1	8.440885E-1	8.138381E-1	7.611318E-1	7.675333E-1	7.420472E-1	7.396630E-1	8.074253E-1	7.374175E-1	8.370936E-1	8.395347E-1	7.732618E-1	6.837763E-1	9.187039E-1	8.239218E-1	7.541972E-1	7.677107E-1	8.103908E-1	7.968541E-1	8.120889E-1	8.074599E-1
5.382740E+2	9.333322E-1	9.314478E-1	8.766231E-1	1.082506E+0	9.196747E-1	9.755256E-1	9.951297E-1	9.378986E-1	9.999206E-1	1.019048E+0	9.879625E-1	9.812693E-1	1.071510E+0	1.002290E+0	1.037302E+0	9.861750E-1	1.044553E+0	9.961139E-1	9.901640E-1	9.551454E-1	9.344191E-1	1.037470E+0	9.678244E-1	9.013154E-1	9.756832E-1	1.018294E+0	9.309643E-1	1.001132E+0	1.102600E+0	9.854035E-1	9.477693E-1	9.738382E-1	1.085619E+0	1.010562E+0	9.497465E-1	9.908098E-1	9.724077E-1	1.023361E+0	9.561953E-1	1.022856E+0	9.264489E-1	1.023251E+0	9.493356E-1	1.081780E+0	1.023053E+0	1.021841E+0	9.931942E-1	9.597264E-1	1.059409E+0	9.893538E-1	9.761796E-1	1.008013E+0	9.795386E-1	9.665438E-1	9.383013E-1	9.257801E-1	1.010568E+0	9.693272E-1	9.408879E-1	8.335470E-1	1.101188E+0	9.739459E-1	9.242526E-1	9.255715E-1	8.707612E-1	1.021388E+0	9.841657E-1	9.387471E-1	9.458513E-1	9.455269E-1	9.275646E-1	9.151103E-1	1.011318E+0	1.000913E+0	9.691199E-1	8.067405E-1	1.030914E+0	9.548483E-1	9.717553E-1	8.948984E-1	1.012983E+0	9.409837E-1	9.655633E-1	9.101715E-1	9.860661E-1	9.841373E-1	1.033595E+0	1.004609E+0	1.060895E+0	9.875686E-1	1.058466E+0	9.814398E-1	1.074650E+0	9.134950E-1	9.886705E-1	1.014633E+0	9.745891E-1	1.010443E+0	1.004644E+0	8.643088E-1	1.001370E+0	9.493112E-1	9.466252E-1	9.400441E-1	9.158224E-1	8.932972E-1	9.529969E-1	9.767153E-1	1.068604E+0	1.024064E+0	9.566515E-1	9.425112E-1	1.044569E+0	1.038888E+0	1.032556E+0	9.736098E-1	9.839999E-1	9.172556E-1	1.043172E+0	8.933555E-1	1.030614E+0	1.031736E+0	1.056116E+0	8.984596E-1	1.107166E+0	1.014936E+0	9.635921E-1	9.360344E-1	9.291593E-1	9.716278E-1	1.008277E+0	9.489034E-1	9.457654E-1	9.747350E-1	9.287555E-1	9.311527E-1	9.583121E-1	9.673220E-1	1.005948E+0	9.072418E-1	1.091188E+0	1.054041E+0	9.663963E-1	1.017911E+0	1.103019E+0	9.260899E-1	9.758288E-1	9.907533E-1	1.084576E+0	9.535693E-1	1.023909E+0	9.778779E-1	1.062715E+0	9.060699E-1	9.543813E-1	9.071218E-1	1.038051E+0	8.868536E-1	9.750328E-1	9.217619E-1	1.089882E+0	9.917146E-1	9.735021E-1	8.523383E-1	1.094383E+0	1.031872E+0	9.839603E-1	9.212408E-1	1.061141E+0	1.002509E+0	9.594366E-1	1.041718E+0
5.385110E+2	1.096718E+0	1.189880E+0	1.059224E+0	1.292142E+0	1.155134E+0	1.174784E+0	1.246299E+0	1.166601E+0	1.288079E+0	1.225204E+0	1.216677E+0	1.209473E+0	1.250884E+0	1.241323E+0	1.242507E+0	1.119575E+0	1.245151E+0	1.266424E+0	1.194655E+0	1.194523E+0	1.227672E+0	1.327182E+0	1.203786E+0	1.153550E+0	1.191327E+0	1.279025E+0	1.188445E+0	1.221551E+0	1.339119E+0	1.209123E+0	1.192383E+0	1.235464E+0	1.313279E+0	1.228891E+0	1.175474E+0	1.175299E+0	1.184914E+0	1.306327E+0	1.148628E+0	1.298109E+0	1.171765E+0	1.276672E+0	1.186674E+0	1.300575E+0	1.239429E+0	1.207772E+0	1.216289E+0	1.203058E+0	1.280714E+0	1.218066E+0	1.221714E+0	1.172564E+0	1.204214E+0	1.175584E+0	1.143474E+0	1.114251E+0	1.267234E+0	1.155303E+0	1.208932E+0	1.000361E+0	1.350131E+0	1.201125E+0	1.179378E+0	1.150757E+0	1.127428E+0	1.215477E+0	1.220809E+0	1.219924E+0	1.207629E+0	1.142433E+0	1.211512E+0	1.129106E+0	1.222980E+0	1.167158E+0	1.186814E+0	1.036932E+0	1.271872E+0	1.179953E+0	1.235697E+0	1.117369E+0	1.262900E+0	1.162152E+0	1.245347E+0	1.102378E+0	1.189665E+0	1.205260E+0	1.258424E+0	1.131514E+0	1.247786E+0	1.203770E+0	1.261887E+0	1.194280E+0	1.268091E+0	1.150297E+0	1.279106E+0	1.205284E+0	1.220880E+0	1.255152E+0	1.243403E+0	1.078910E+0	1.251996E+0	1.174594E+0	1.173540E+0	1.137228E+0	1.223472E+0	1.104008E+0	1.179870E+0	1.225194E+0	1.259103E+0	1.257262E+0	1.211226E+0	1.152490E+0	1.278695E+0	1.276239E+0	1.219276E+0	1.151393E+0	1.267662E+0	1.180953E+0	1.281582E+0	1.099222E+0	1.275518E+0	1.254970E+0	1.280579E+0	1.064451E+0	1.351046E+0	1.202169E+0	1.184913E+0	1.181911E+0	1.130165E+0	1.191512E+0	1.210772E+0	1.138495E+0	1.168421E+0	1.126258E+0	1.102433E+0	1.157346E+0	1.191766E+0	1.183453E+0	1.211979E+0	1.078617E+0	1.335698E+0	1.283858E+0	1.171303E+0	1.307481E+0	1.363571E+0	1.087210E+0	1.185006E+0	1.230844E+0	1.365568E+0	1.199069E+0	1.176980E+0	1.212184E+0	1.383056E+0	1.222940E+0	1.192227E+0	1.215087E+0	1.368151E+0	1.148192E+0	1.192778E+0	1.076358E+0	1.369513E+0	1.223142E+0	1.239610E+0	1.016129E+0	1.355747E+0	1.262813E+0	1.206378E+0	1.130063E+0	1.405822E+0	1.265005E+0	1.234174E+0	1.157241E+0
5.387650E+2	1.331556E+0	1.382602E+0	1.335778E+0	1.536420E+0	1.396247E+0	1.413051E+0	1.424776E+0	1.380617E+0	1.485181E+0	1.488283E+0	1.514880E+0	1.445684E+0	1.520832E+0	1.466212E+0	1.495311E+0	1.395096E+0	1.555493E+0	1.495365E+0	1.475769E+0	1.441952E+0	1.415643E+0	1.634344E+0	1.502813E+0	1.355253E+0	1.442996E+0	1.564556E+0	1.443083E+0	1.480030E+0	1.548353E+0	1.435264E+0	1.427888E+0	1.471360E+0	1.529822E+0	1.460501E+0	1.404893E+0	1.484203E+0	1.418100E+0	1.525106E+0	1.406257E+0	1.573356E+0	1.466557E+0	1.477158E+0	1.436503E+0	1.563360E+0	1.554447E+0	1.482966E+0	1.448811E+0	1.459100E+0	1.565473E+0	1.451919E+0	1.466704E+0	1.477089E+0	1.486931E+0	1.389399E+0	1.393274E+0	1.391970E+0	1.578819E+0	1.439957E+0	1.434111E+0	1.263220E+0	1.592814E+0	1.398750E+0	1.462684E+0	1.400374E+0	1.360860E+0	1.417056E+0	1.451360E+0	1.418686E+0	1.416954E+0	1.404976E+0	1.459042E+0	1.318286E+0	1.491802E+0	1.419719E+0	1.438744E+0	1.238285E+0	1.531830E+0	1.412683E+0	1.422374E+0	1.360328E+0	1.505240E+0	1.419419E+0	1.415299E+0	1.370193E+0	1.468071E+0	1.424945E+0	1.445524E+0	1.426194E+0	1.526787E+0	1.448080E+0	1.520402E+0	1.437225E+0	1.576046E+0	1.340706E+0	1.491817E+0	1.456218E+0	1.471158E+0	1.456308E+0	1.471503E+0	1.287056E+0	1.427388E+0	1.445959E+0	1.383705E+0	1.343003E+0	1.503404E+0	1.255440E+0	1.409566E+0	1.436059E+0	1.593998E+0	1.512209E+0	1.408090E+0	1.403393E+0	1.529505E+0	1.554572E+0	1.472685E+0	1.406195E+0	1.491169E+0	1.378983E+0	1.505934E+0	1.351264E+0	1.472151E+0	1.440909E+0	1.518795E+0	1.332060E+0	1.653516E+0	1.413945E+0	1.374378E+0	1.352018E+0	1.384735E+0	1.430311E+0	1.364107E+0	1.351291E+0	1.439816E+0	1.403514E+0	1.377016E+0	1.398821E+0	1.438855E+0	1.472393E+0	1.422814E+0	1.308534E+0	1.551935E+0	1.545876E+0	1.420118E+0	1.552982E+0	1.586655E+0	1.345894E+0	1.423733E+0	1.521545E+0	1.659741E+0	1.399347E+0	1.416359E+0	1.412821E+0	1.612793E+0	1.424382E+0	1.400892E+0	1.395410E+0	1.563346E+0	1.317909E+0	1.406705E+0	1.324586E+0	1.657539E+0	1.473521E+0	1.408763E+0	1.224447E+0	1.683395E+0	1.552268E+0	1.419728E+0	1.356597E+0	1.613282E+0	1.384884E+0	1.531935E+0	1.478143E+0
5.390390E+2	1.605861E+0	1.547156E+0	1.541205E+0	1.775319E+0	1.612866E+0	1.671346E+0	1.731590E+0	1.634237E+0	1.691723E+0	1.757514E+0	1.670276E+0	1.630844E+0	1.829217E+0	1.681200E+0	1.769376E+0	1.610891E+0	1.775488E+0	1.726575E+0	1.732548E+0	1.622287E+0	1.699944E+0	1.798395E+0	1.649538E+0	1.611005E+0	1.690487E+0	1.772798E+0	1.642824E+0	1.674553E+0	1.818074E+0	1.646392E+0	1.592266E+0	1.666505E+0	1.868666E+0	1.664395E+0	1.631146E+0	1.679321E+0	1.630168E+0	1.736634E+0	1.599144E+0	1.888134E+0	1.617047E+0	1.697910E+0	1.642884E+0	1.797205E+0	1.756729E+0	1.741888E+0	1.658706E+0	1.696983E+0	1.792549E+0	1.642598E+0	1.737062E+0	1.668352E+0	1.687737E+0	1.596704E+0	1.615888E+0	1.643761E+0	1.774959E+0	1.677443E+0	1.665577E+0	1.412342E+0	1.824905E+0	1.715047E+0	1.658386E+0	1.584698E+0	1.579501E+0	1.664081E+0	1.675256E+0	1.671848E+0	1.654047E+0	1.615278E+0	1.669238E+0	1.540713E+0	1.676864E+0	1.689331E+0	1.674833E+0	1.386015E+0	1.759350E+0	1.670307E+0	1.682000E+0	1.480831E+0	1.713503E+0	1.704184E+0	1.629765E+0	1.576241E+0	1.724702E+0	1.651836E+0	1.725141E+0	1.638701E+0	1.706184E+0	1.661576E+0	1.734115E+0	1.608869E+0	1.756588E+0	1.625835E+0	1.720808E+0	1.705677E+0	1.688941E+0	1.693244E+0	1.727848E+0	1.487135E+0	1.669392E+0	1.613898E+0	1.577624E+0	1.612094E+0	1.669149E+0	1.460762E+0	1.629664E+0	1.595633E+0	1.750500E+0	1.785365E+0	1.609143E+0	1.582194E+0	1.725820E+0	1.758893E+0	1.718547E+0	1.595561E+0	1.744998E+0	1.627804E+0	1.703259E+0	1.610044E+0	1.702927E+0	1.720357E+0	1.770768E+0	1.484218E+0	1.838804E+0	1.671060E+0	1.626438E+0	1.537767E+0	1.543312E+0	1.629507E+0	1.560163E+0	1.564648E+0	1.663500E+0	1.657281E+0	1.570580E+0	1.598012E+0	1.660849E+0	1.709737E+0	1.644323E+0	1.482569E+0	1.866375E+0	1.752761E+0	1.624503E+0	1.781703E+0	1.935978E+0	1.495309E+0	1.634073E+0	1.678072E+0	1.870092E+0	1.613044E+0	1.653356E+0	1.582491E+0	1.800436E+0	1.638269E+0	1.608457E+0	1.605608E+0	1.860834E+0	1.579247E+0	1.656444E+0	1.557213E+0	1.894666E+0	1.694037E+0	1.604786E+0	1.585426E+0	1.816500E+0	1.772237E+0	1.594210E+0	1.580454E+0	1.883635E+0	1.752791E+0	1.624026E+0	1.648221E+0
5.392720E+2	1.700797E+0	1.805036E+0	1.684526E+0	2.086487E+0	1.796054E+0	1.803657E+0	1.844394E+0	1.812659E+0	1.901040E+0	1.949824E+0	1.900085E+0	1.793491E+0	1.978991E+0	2.086661E+0	1.940839E+0	1.820149E+0	1.999056E+0	2.109660E+0	1.858351E+0	1.811749E+0	1.818864E+0	2.010319E+0	1.795406E+0	1.850936E+0	1.875324E+0	2.031798E+0	1.820313E+0	1.832070E+0	2.015936E+0	2.021681E+0	1.784836E+0	1.813191E+0	2.013207E+0	2.095856E+0	1.795168E+0	1.855308E+0	1.842672E+0	2.026854E+0	1.754259E+0	1.980040E+0	1.768046E+0	1.905718E+0	1.898689E+0	2.025843E+0	1.926737E+0	1.910554E+0	1.857268E+0	1.811386E+0	1.922076E+0	1.797303E+0	1.854161E+0	1.894341E+0	1.838457E+0	1.791869E+0	1.799005E+0	1.786858E+0	1.977826E+0	1.846068E+0	1.767879E+0	1.596343E+0	1.980918E+0	1.758450E+0	1.806440E+0	1.753031E+0	1.691989E+0	1.781176E+0	1.824338E+0	1.764495E+0	1.790340E+0	1.763964E+0	1.820431E+0	1.704608E+0	1.835328E+0	1.792703E+0	1.814854E+0	1.551444E+0	1.934047E+0	1.796326E+0	1.739106E+0	1.714035E+0	1.909866E+0	1.846281E+0	1.840179E+0	1.731711E+0	1.783883E+0	1.846043E+0	1.862621E+0	1.810346E+0	1.924671E+0	1.812916E+0	1.958122E+0	1.831746E+0	1.905153E+0	1.746170E+0	1.915135E+0	1.818891E+0	1.938655E+0	1.871069E+0	1.899457E+0	1.632353E+0	1.817467E+0	1.771086E+0	1.742098E+0	1.693950E+0	1.861497E+0	1.629978E+0	1.773575E+0	1.806498E+0	1.957305E+0	1.935604E+0	1.809732E+0	1.796069E+0	1.908226E+0	1.930179E+0	1.897733E+0	1.779716E+0	1.833032E+0	1.773504E+0	1.947077E+0	1.755305E+0	1.936057E+0	1.875486E+0	1.972673E+0	1.616162E+0	2.048131E+0	1.904702E+0	1.728716E+0	1.673172E+0	1.666356E+0	1.783191E+0	1.776706E+0	1.692552E+0	1.754306E+0	1.805118E+0	1.739407E+0	1.759508E+0	1.840849E+0	1.819806E+0	1.820461E+0	1.621478E+0	2.007728E+0	1.896325E+0	1.818959E+0	1.969501E+0	2.035130E+0	1.679287E+0	1.797473E+0	1.888155E+0	2.101529E+0	1.781017E+0	1.773045E+0	1.837444E+0	2.003865E+0	1.787088E+0	1.782436E+0	1.740849E+0	2.001174E+0	1.794529E+0	1.769135E+0	1.668404E+0	2.085373E+0	1.797402E+0	1.807662E+0	1.795858E+0	2.039064E+0	1.905472E+0	1.770848E+0	1.719490E+0	2.054345E+0	1.807563E+0	1.783652E+0	1.850388E+0
5.395160E+2	1.775746E+0	1.913267E+0	1.725928E+0	2.127101E+0	1.880351E+0	1.879040E+0	1.915585E+0	1.891412E+0	1.926021E+0	2.002130E+0	2.014439E+0	1.907594E+0	2.066471E+0	2.256390E+0	1.962097E+0	1.896437E+0	2.102159E+0	2.240561E+0	1.902350E+0	1.950761E+0	1.893454E+0	2.178361E+0	1.895797E+0	1.860162E+0	1.907697E+0	2.223880E+0	1.890835E+0	1.927744E+0	2.135106E+0	2.197461E+0	1.898466E+0	1.950009E+0	2.111684E+0	2.259311E+0	1.916471E+0	2.028631E+0	1.934188E+0	2.094941E+0	1.873405E+0	2.135286E+0	1.901528E+0	2.034116E+0	1.949202E+0	2.085464E+0	2.013107E+0	2.296717E+0	1.913396E+0	1.965282E+0	2.063145E+0	2.072272E+0	1.946977E+0	1.978753E+0	1.937687E+0	1.909835E+0	1.804646E+0	1.863147E+0	2.019855E+0	1.998967E+0	1.850750E+0	1.620606E+0	2.135963E+0	2.095984E+0	1.865352E+0	1.900045E+0	1.768041E+0	2.085412E+0	1.912458E+0	1.786581E+0	1.873653E+0	1.864872E+0	1.930600E+0	1.809027E+0	1.887394E+0	1.946161E+0	1.887413E+0	1.598494E+0	2.049891E+0	2.042268E+0	1.872518E+0	1.751114E+0	2.005071E+0	2.017028E+0	1.959262E+0	1.790810E+0	1.928297E+0	1.969582E+0	2.017677E+0	1.885199E+0	2.016774E+0	1.915076E+0	2.008368E+0	1.942128E+0	1.989235E+0	1.891636E+0	2.016502E+0	1.943867E+0	2.034431E+0	1.974244E+0	1.974601E+0	1.752831E+0	1.875456E+0	1.856079E+0	1.882206E+0	1.828275E+0	1.929679E+0	1.713507E+0	1.868388E+0	1.844681E+0	2.049062E+0	1.963935E+0	1.867441E+0	1.814582E+0	2.033908E+0	1.992569E+0	2.006749E+0	1.832412E+0	1.935250E+0	1.823780E+0	2.001137E+0	1.771653E+0	1.984331E+0	1.948994E+0	2.026589E+0	1.647548E+0	2.090196E+0	1.912702E+0	1.879058E+0	1.774357E+0	1.735831E+0	1.894313E+0	1.844007E+0	1.771787E+0	1.816896E+0	1.848871E+0	1.874755E+0	1.851713E+0	1.891573E+0	1.939054E+0	1.943225E+0	1.701313E+0	2.069722E+0	2.050810E+0	1.860255E+0	2.027206E+0	2.073173E+0	1.776850E+0	1.919155E+0	2.088228E+0	2.194313E+0	1.804873E+0	1.884630E+0	1.873802E+0	2.131887E+0	1.838577E+0	1.866674E+0	1.839702E+0	2.180063E+0	1.782511E+0	1.884698E+0	1.769356E+0	2.188838E+0	1.897326E+0	1.855617E+0	1.786847E+0	2.181869E+0	1.962944E+0	1.860682E+0	1.806993E+0	2.052710E+0	1.881971E+0	1.825094E+0	1.831135E+0
5.397750E+2	1.758758E+0	1.834859E+0	1.842707E+0	2.067972E+0	1.817248E+0	1.822109E+0	1.926610E+0	1.908765E+0	1.954893E+0	1.979055E+0	1.945496E+0	1.933615E+0	1.983852E+0	2.152196E+0	2.016634E+0	1.858948E+0	2.048053E+0	2.134027E+0	1.926168E+0	1.834292E+0	1.911783E+0	2.117026E+0	1.870915E+0	1.830720E+0	1.909264E+0	2.156973E+0	1.870484E+0	1.819383E+0	2.044591E+0	2.180994E+0	1.925360E+0	1.884387E+0	2.086266E+0	2.149570E+0	1.798858E+0	2.014277E+0	1.817156E+0	2.035225E+0	1.811809E+0	2.011948E+0	1.826284E+0	2.032991E+0	1.829172E+0	2.028159E+0	1.921735E+0	2.183780E+0	1.877081E+0	1.854512E+0	2.013326E+0	2.041430E+0	1.915138E+0	1.849464E+0	1.927855E+0	1.862125E+0	1.849786E+0	1.804310E+0	2.033308E+0	1.955050E+0	1.847319E+0	1.595333E+0	2.098403E+0	2.090445E+0	1.823857E+0	1.781899E+0	1.765927E+0	2.066696E+0	1.893614E+0	1.831827E+0	1.819139E+0	1.796113E+0	1.885423E+0	1.750964E+0	1.931540E+0	1.874226E+0	1.917056E+0	1.672866E+0	1.937290E+0	2.121537E+0	1.824527E+0	1.754039E+0	1.963959E+0	2.049114E+0	1.850010E+0	1.797201E+0	1.868638E+0	1.923918E+0	1.972195E+0	1.828417E+0	1.926813E+0	1.954532E+0	2.015028E+0	1.890896E+0	1.962413E+0	2.068512E+0	1.920386E+0	1.892897E+0	1.934662E+0	2.077930E+0	1.955415E+0	1.693669E+0	1.870662E+0	1.847887E+0	1.815199E+0	1.814255E+0	1.930233E+0	1.694106E+0	1.830015E+0	1.899391E+0	2.016461E+0	2.017554E+0	1.866047E+0	1.826275E+0	1.936590E+0	2.089836E+0	1.902372E+0	1.833572E+0	1.892208E+0	1.813519E+0	1.946533E+0	1.752417E+0	1.957248E+0	1.935483E+0	2.009538E+0	1.691174E+0	2.069663E+0	1.926037E+0	1.796342E+0	1.790978E+0	1.725226E+0	1.956379E+0	1.863321E+0	1.757641E+0	1.829719E+0	1.886176E+0	1.753960E+0	1.860373E+0	1.869213E+0	1.881149E+0	1.828469E+0	1.680555E+0	2.063276E+0	2.008777E+0	1.853979E+0	1.960579E+0	2.061066E+0	1.706048E+0	1.875115E+0	1.957006E+0	2.089932E+0	1.776542E+0	1.862696E+0	1.828016E+0	2.055895E+0	1.827829E+0	1.827033E+0	1.812547E+0	2.080241E+0	1.702408E+0	1.877053E+0	1.717660E+0	2.130678E+0	1.922594E+0	1.802919E+0	1.855226E+0	2.136063E+0	1.975484E+0	1.815335E+0	1.785520E+0	2.011869E+0	1.876803E+0	1.777511E+0	1.860016E+0
5.400240E+2	1.785738E+0	1.900017E+0	1.776357E+0	2.130090E+0	1.862925E+0	1.963380E+0	1.983262E+0	1.923449E+0	1.990980E+0	2.092388E+0	1.998573E+0	1.960640E+0	2.041285E+0	2.246487E+0	2.011086E+0	1.872460E+0	2.032234E+0	2.256432E+0	1.908048E+0	1.908359E+0	1.922868E+0	2.130989E+0	1.918965E+0	1.876423E+0	2.012129E+0	2.211193E+0	1.908821E+0	1.942546E+0	2.161485E+0	2.215379E+0	1.934902E+0	1.941003E+0	2.089976E+0	2.220613E+0	1.865314E+0	1.991415E+0	1.888872E+0	2.137916E+0	1.853623E+0	2.076238E+0	1.888646E+0	2.053261E+0	1.867189E+0	2.130612E+0	2.030835E+0	2.271072E+0	1.927546E+0	1.962559E+0	2.070492E+0	2.044003E+0	2.013893E+0	1.899148E+0	1.978407E+0	1.926313E+0	1.873890E+0	1.847190E+0	2.070293E+0	1.995170E+0	1.902757E+0	1.631222E+0	2.153296E+0	2.114919E+0	1.845886E+0	1.804551E+0	1.789160E+0	2.103590E+0	1.936842E+0	1.884076E+0	1.859769E+0	1.840762E+0	1.931523E+0	1.797790E+0	1.923618E+0	1.882219E+0	1.930342E+0	1.640488E+0	2.058231E+0	2.119505E+0	1.859077E+0	1.767214E+0	1.985597E+0	2.051408E+0	1.927470E+0	1.782824E+0	1.897523E+0	1.955163E+0	1.953072E+0	1.888210E+0	1.966971E+0	2.016689E+0	1.970231E+0	1.895125E+0	1.956739E+0	2.145839E+0	1.984464E+0	1.886525E+0	1.997377E+0	2.124593E+0	1.940491E+0	1.722175E+0	1.934875E+0	1.939537E+0	1.851748E+0	1.801591E+0	1.918042E+0	1.728595E+0	1.842429E+0	1.869754E+0	2.056981E+0	2.125300E+0	1.871167E+0	1.857944E+0	2.088965E+0	2.203007E+0	1.983555E+0	1.824883E+0	1.942096E+0	1.850457E+0	2.031954E+0	1.794748E+0	1.921931E+0	1.991155E+0	2.025491E+0	1.710857E+0	2.105219E+0	2.115940E+0	1.896939E+0	1.764091E+0	1.803716E+0	2.039132E+0	1.804212E+0	1.795554E+0	1.863069E+0	1.898151E+0	1.839340E+0	1.872605E+0	1.850123E+0	1.955107E+0	1.929351E+0	1.723132E+0	2.091049E+0	2.134331E+0	1.823138E+0	1.953763E+0	2.046657E+0	1.758452E+0	1.944069E+0	1.995842E+0	2.118400E+0	1.809347E+0	1.881769E+0	1.895346E+0	2.113765E+0	2.004368E+0	1.847952E+0	1.816892E+0	2.145472E+0	2.112943E+0	1.854610E+0	1.802518E+0	2.122286E+0	2.186757E+0	1.854032E+0	1.843035E+0	2.147917E+0	1.988022E+0	1.812741E+0	1.775318E+0	2.095180E+0	2.064890E+0	1.949415E+0	1.956286E+0
5.402850E+2	1.838703E+0	1.867439E+0	1.733357E+0	2.129488E+0	1.824781E+0	1.832125E+0	1.843890E+0	1.830011E+0	1.943786E+0	1.997520E+0	1.975045E+0	1.853543E+0	2.001524E+0	2.152196E+0	1.936679E+0	1.833227E+0	2.008242E+0	2.139692E+0	1.923062E+0	1.798334E+0	1.898142E+0	2.075641E+0	1.891509E+0	1.861482E+0	1.955734E+0	2.094096E+0	1.847763E+0	1.898673E+0	2.087344E+0	2.132570E+0	1.824736E+0	1.917412E+0	2.009501E+0	2.180761E+0	1.883243E+0	1.939310E+0	1.844435E+0	2.051408E+0	1.756956E+0	2.070047E+0	1.807732E+0	2.003706E+0	1.895971E+0	2.057096E+0	2.009468E+0	2.182298E+0	1.925660E+0	1.855422E+0	1.994449E+0	2.056338E+0	1.847687E+0	1.887393E+0	1.966237E+0	1.879912E+0	1.805673E+0	1.841704E+0	2.014249E+0	1.948004E+0	1.865607E+0	1.622631E+0	2.086367E+0	2.154629E+0	1.853569E+0	1.778792E+0	1.750080E+0	1.991308E+0	1.883638E+0	1.822132E+0	1.849483E+0	1.847015E+0	1.833798E+0	1.769697E+0	1.890788E+0	1.895007E+0	1.928296E+0	1.619743E+0	1.984555E+0	2.112390E+0	1.843241E+0	1.754527E+0	1.982354E+0	2.000982E+0	1.854635E+0	1.826483E+0	1.924983E+0	1.963816E+0	1.905521E+0	1.840028E+0	1.962157E+0	1.950748E+0	2.012605E+0	1.882972E+0	2.028954E+0	2.135688E+0	1.979209E+0	1.861036E+0	2.034432E+0	2.077930E+0	1.897326E+0	1.654945E+0	1.827055E+0	1.842765E+0	1.847690E+0	1.856314E+0	1.923581E+0	1.665544E+0	1.822679E+0	1.831572E+0	1.982454E+0	2.011991E+0	1.866047E+0	1.803865E+0	2.007216E+0	2.099011E+0	1.817133E+0	1.810410E+0	1.926932E+0	1.870463E+0	1.921127E+0	1.729328E+0	1.996104E+0	1.903050E+0	1.950122E+0	1.644357E+0	2.029100E+0	2.005517E+0	1.867317E+0	1.763606E+0	1.741665E+0	1.952243E+0	1.835817E+0	1.804046E+0	1.841004E+0	1.867752E+0	1.758811E+0	1.739638E+0	1.839211E+0	1.886884E+0	1.843413E+0	1.722602E+0	2.019628E+0	2.020240E+0	1.778707E+0	1.991532E+0	2.087584E+0	1.723331E+0	1.873383E+0	1.971127E+0	2.100472E+0	1.772071E+0	1.790691E+0	1.841483E+0	2.079275E+0	1.897427E+0	1.800603E+0	1.822326E+0	2.082216E+0	2.065381E+0	1.780121E+0	1.692301E+0	2.115017E+0	2.158041E+0	1.826104E+0	1.751865E+0	2.081639E+0	1.998995E+0	1.797625E+0	1.772635E+0	2.041275E+0	2.024587E+0	1.837371E+0	1.834346E+0
5.405130E+2	1.810223E+0	1.775219E+0	1.650022E+0	2.026169E+0	1.775335E+0	1.804713E+0	1.840378E+0	1.810432E+0	1.896593E+0	2.017006E+0	1.939476E+0	1.797998E+0	1.990479E+0	2.067330E+0	1.911721E+0	1.805758E+0	2.013855E+0	2.069426E+0	1.931343E+0	1.765594E+0	1.877259E+0	2.020290E+0	1.782532E+0	1.777109E+0	1.874282E+0	2.094673E+0	1.825990E+0	1.904488E+0	1.991829E+0	2.119984E+0	1.806954E+0	1.807186E+0	1.958670E+0	2.143794E+0	1.853182E+0	1.844143E+0	1.838273E+0	2.017923E+0	1.797868E+0	1.988614E+0	1.770624E+0	1.970480E+0	1.775949E+0	2.029897E+0	1.961283E+0	2.128541E+0	1.847365E+0	1.849521E+0	1.955118E+0	2.061995E+0	1.898412E+0	1.812066E+0	1.901176E+0	1.830903E+0	1.761048E+0	1.795332E+0	1.959895E+0	1.863417E+0	1.807885E+0	1.509903E+0	2.017511E+0	2.011487E+0	1.785436E+0	1.717498E+0	1.770679E+0	1.945326E+0	1.916338E+0	1.751569E+0	1.851025E+0	1.787184E+0	1.753592E+0	1.668079E+0	1.864756E+0	1.828404E+0	1.852153E+0	1.543350E+0	2.002627E+0	2.104258E+0	1.838446E+0	1.693545E+0	1.899588E+0	1.989525E+0	1.834980E+0	1.701362E+0	1.820819E+0	1.884021E+0	1.840398E+0	1.815937E+0	1.954657E+0	1.966964E+0	1.906656E+0	1.795304E+0	1.862340E+0	1.986355E+0	1.945071E+0	1.812031E+0	1.927824E+0	2.024010E+0	1.891992E+0	1.650640E+0	1.807884E+0	1.796688E+0	1.789819E+0	1.707973E+0	1.781122E+0	1.603031E+0	1.770755E+0	1.791678E+0	1.941002E+0	2.035763E+0	1.811594E+0	1.766839E+0	1.958831E+0	2.063534E+0	1.828144E+0	1.769871E+0	1.819339E+0	1.811982E+0	1.954643E+0	1.692773E+0	1.946064E+0	1.840890E+0	1.936367E+0	1.580514E+0	2.017082E+0	2.068999E+0	1.811988E+0	1.738677E+0	1.687039E+0	1.939828E+0	1.773191E+0	1.752542E+0	1.729169E+0	1.824000E+0	1.736011E+0	1.736071E+0	1.840849E+0	1.887457E+0	1.800177E+0	1.606576E+0	1.942259E+0	1.963470E+0	1.774527E+0	1.931203E+0	2.015527E+0	1.655316E+0	1.810804E+0	1.949352E+0	2.024032E+0	1.765117E+0	1.794982E+0	1.759789E+0	2.038353E+0	1.808587E+0	1.784642E+0	1.754432E+0	2.045155E+0	1.959741E+0	1.748602E+0	1.650850E+0	2.086494E+0	2.077070E+0	1.762344E+0	1.741793E+0	2.058463E+0	1.954588E+0	1.763510E+0	1.733985E+0	2.077211E+0	1.912974E+0	1.789792E+0	1.709193E+0
5.407740E+2	1.620852E+0	1.681895E+0	1.590569E+0	1.922841E+0	1.677856E+0	1.731442E+0	1.795762E+0	1.716550E+0	1.781109E+0	1.889824E+0	1.835519E+0	1.743446E+0	1.845561E+0	2.009337E+0	1.904788E+0	1.767835E+0	1.857664E+0	1.938516E+0	1.845921E+0	1.657177E+0	1.755782E+0	1.912086E+0	1.782534E+0	1.719982E+0	1.710855E+0	1.982192E+0	1.751207E+0	1.772872E+0	1.899497E+0	2.039598E+0	1.752738E+0	1.735989E+0	1.859668E+0	2.040982E+0	1.766162E+0	1.874980E+0	1.760841E+0	1.930857E+0	1.678721E+0	1.875275E+0	1.673219E+0	1.914163E+0	1.739015E+0	1.926284E+0	1.835369E+0	1.993902E+0	1.724734E+0	1.698798E+0	1.884320E+0	1.953031E+0	1.785089E+0	1.736735E+0	1.762156E+0	1.738089E+0	1.646150E+0	1.699605E+0	1.832120E+0	1.787507E+0	1.805030E+0	1.512937E+0	1.943837E+0	1.887280E+0	1.706539E+0	1.660645E+0	1.628087E+0	1.929284E+0	1.775016E+0	1.693393E+0	1.720394E+0	1.707259E+0	1.727318E+0	1.557104E+0	1.770811E+0	1.738887E+0	1.745863E+0	1.489219E+0	1.859441E+0	1.912691E+0	1.693516E+0	1.610605E+0	1.698896E+0	1.900144E+0	1.721098E+0	1.602864E+0	1.710496E+0	1.827294E+0	1.699296E+0	1.697209E+0	1.845949E+0	1.845350E+0	1.837641E+0	1.820655E+0	1.773614E+0	1.910482E+0	1.796962E+0	1.766942E+0	1.841163E+0	1.961799E+0	1.780610E+0	1.538769E+0	1.686645E+0	1.741391E+0	1.652757E+0	1.665013E+0	1.742873E+0	1.495249E+0	1.685537E+0	1.687957E+0	1.795679E+0	1.900699E+0	1.655220E+0	1.681094E+0	1.833704E+0	1.961372E+0	1.830466E+0	1.680690E+0	1.763586E+0	1.721685E+0	1.790299E+0	1.662468E+0	1.789466E+0	1.812784E+0	1.816982E+0	1.545400E+0	1.889885E+0	1.949509E+0	1.637058E+0	1.562209E+0	1.587334E+0	1.854122E+0	1.676039E+0	1.634262E+0	1.688121E+0	1.721760E+0	1.645776E+0	1.687168E+0	1.755758E+0	1.736680E+0	1.716914E+0	1.607108E+0	1.915478E+0	1.911063E+0	1.691416E+0	1.809503E+0	1.904279E+0	1.578379E+0	1.710557E+0	1.790468E+0	1.882218E+0	1.616524E+0	1.701996E+0	1.678550E+0	1.914427E+0	1.705040E+0	1.731784E+0	1.644170E+0	1.884057E+0	1.958739E+0	1.667906E+0	1.597200E+0	1.983030E+0	2.011605E+0	1.688044E+0	1.667584E+0	1.951223E+0	1.849566E+0	1.660720E+0	1.634135E+0	1.905688E+0	1.813763E+0	1.688491E+0	1.856807E+0
5.410240E+2	1.596370E+0	1.613976E+0	1.554477E+0	1.843406E+0	1.627935E+0	1.582789E+0	1.708531E+0	1.629341E+0	1.695605E+0	1.829825E+0	1.827307E+0	1.625342E+0	1.819055E+0	1.891000E+0	1.931135E+0	1.613072E+0	1.835715E+0	1.835377E+0	1.812274E+0	1.702260E+0	1.719123E+0	1.821831E+0	1.689436E+0	1.603092E+0	1.674306E+0	1.816058E+0	1.762095E+0	1.702040E+0	1.867656E+0	1.919023E+0	1.914516E+0	1.675515E+0	1.833198E+0	1.985535E+0	1.842633E+0	1.721857E+0	1.635006E+0	1.863882E+0	1.672426E+0	1.829558E+0	1.676313E+0	1.786324E+0	1.723262E+0	1.811679E+0	1.743093E+0	1.946064E+0	1.835102E+0	1.644323E+0	1.806707E+0	1.832249E+0	1.841211E+0	1.628818E+0	1.671352E+0	1.674771E+0	1.611269E+0	1.599386E+0	1.790090E+0	1.743048E+0	1.675294E+0	1.447223E+0	1.821536E+0	1.888205E+0	1.730103E+0	1.603794E+0	1.623332E+0	1.815395E+0	1.775567E+0	1.599671E+0	1.667417E+0	1.683595E+0	1.646188E+0	1.551482E+0	1.640644E+0	1.718639E+0	1.664611E+0	1.370329E+0	1.668529E+0	1.774476E+0	1.619130E+0	1.479371E+0	1.731357E+0	1.834825E+0	1.615892E+0	1.577304E+0	1.686348E+0	1.781630E+0	1.684311E+0	1.683441E+0	1.728673E+0	1.781029E+0	1.777705E+0	1.681752E+0	1.739571E+0	1.893569E+0	1.710826E+0	1.642944E+0	1.659297E+0	1.872104E+0	1.736376E+0	1.475305E+0	1.646391E+0	1.681481E+0	1.553258E+0	1.557826E+0	1.686333E+0	1.479622E+0	1.552912E+0	1.621849E+0	1.786828E+0	1.865291E+0	1.659873E+0	1.606550E+0	1.782543E+0	1.857380E+0	1.697094E+0	1.638995E+0	1.694134E+0	1.646270E+0	1.745968E+0	1.638903E+0	1.695860E+0	1.721441E+0	1.707500E+0	1.504966E+0	1.839808E+0	1.900431E+0	1.643206E+0	1.568564E+0	1.497700E+0	1.759551E+0	1.620445E+0	1.549935E+0	1.643490E+0	1.595104E+0	1.580769E+0	1.572541E+0	1.688669E+0	1.717188E+0	1.648590E+0	1.460747E+0	1.845053E+0	1.881046E+0	1.648028E+0	1.669438E+0	1.809161E+0	1.518168E+0	1.667677E+0	1.714560E+0	1.818425E+0	1.606085E+0	1.653834E+0	1.634112E+0	1.832001E+0	1.744648E+0	1.632681E+0	1.548576E+0	1.865276E+0	1.919186E+0	1.589591E+0	1.490398E+0	1.800149E+0	1.860572E+0	1.659588E+0	1.606095E+0	1.859075E+0	1.763356E+0	1.610190E+0	1.551465E+0	1.824826E+0	1.801362E+0	1.749885E+0	1.712402E+0
5.412690E+2	1.476454E+0	1.537772E+0	1.347985E+0	1.726945E+0	1.469237E+0	1.515315E+0	1.616787E+0	1.467384E+0	1.608439E+0	1.686747E+0	1.635256E+0	1.496728E+0	1.670166E+0	1.816508E+0	1.804039E+0	1.483158E+0	1.689734E+0	1.822911E+0	1.747559E+0	1.507431E+0	1.573350E+0	1.721106E+0	1.586042E+0	1.571892E+0	1.547948E+0	1.808558E+0	1.607799E+0	1.557734E+0	1.717557E+0	1.783916E+0	1.790038E+0	1.589305E+0	1.698187E+0	1.783375E+0	1.668063E+0	1.578306E+0	1.491577E+0	1.731052E+0	1.590147E+0	1.650978E+0	1.559325E+0	1.697350E+0	1.609753E+0	1.710960E+0	1.629906E+0	1.811915E+0	1.734639E+0	1.549438E+0	1.714934E+0	1.740768E+0	1.764041E+0	1.551351E+0	1.595993E+0	1.557672E+0	1.546640E+0	1.468257E+0	1.643264E+0	1.616173E+0	1.683294E+0	1.346626E+0	1.717045E+0	1.711814E+0	1.777237E+0	1.515408E+0	1.436909E+0	1.682259E+0	1.738435E+0	1.496248E+0	1.553244E+0	1.543393E+0	1.563678E+0	1.460639E+0	1.560846E+0	1.543339E+0	1.636506E+0	1.374379E+0	1.665749E+0	1.694700E+0	1.758301E+0	1.396431E+0	1.578810E+0	1.674963E+0	1.784686E+0	1.455911E+0	1.561821E+0	1.614340E+0	1.641408E+0	1.498461E+0	1.621038E+0	1.611852E+0	1.692338E+0	1.614150E+0	1.683341E+0	1.687215E+0	1.684569E+0	1.563547E+0	1.629078E+0	1.729014E+0	1.674553E+0	1.398390E+0	1.479148E+0	1.588297E+0	1.530415E+0	1.438430E+0	1.593758E+0	1.628898E+0	1.456405E+0	1.547759E+0	1.658739E+0	1.727701E+0	1.536542E+0	1.546141E+0	1.649629E+0	1.705060E+0	1.636208E+0	1.528965E+0	1.561598E+0	1.513396E+0	1.615141E+0	1.456603E+0	1.628746E+0	1.626845E+0	1.624427E+0	1.343233E+0	1.706599E+0	1.726001E+0	1.516895E+0	1.474713E+0	1.435121E+0	1.667340E+0	1.487595E+0	1.455990E+0	1.486503E+0	1.532008E+0	1.518188E+0	1.497655E+0	1.501576E+0	1.505641E+0	1.507681E+0	1.400077E+0	1.701221E+0	1.671425E+0	1.547142E+0	1.588653E+0	1.769965E+0	1.415583E+0	1.601046E+0	1.629817E+0	1.753055E+0	1.516631E+0	1.526517E+0	1.446487E+0	1.718014E+0	1.618464E+0	1.444386E+0	1.480684E+0	1.671073E+0	1.767493E+0	1.477378E+0	1.451874E+0	1.823638E+0	1.731941E+0	1.506244E+0	1.497964E+0	1.787398E+0	1.717376E+0	1.469395E+0	1.491876E+0	1.650854E+0	1.750723E+0	1.539611E+0	1.571204E+0
5.415090E+2	1.310570E+0	1.357198E+0	1.326756E+0	1.572850E+0	1.362811E+0	1.349265E+0	1.428286E+0	1.392187E+0	1.489622E+0	1.498026E+0	1.507221E+0	1.368613E+0	1.551759E+0	1.624153E+0	1.579425E+0	1.396841E+0	1.517211E+0	1.546936E+0	1.543070E+0	1.394181E+0	1.454006E+0	1.541097E+0	1.464201E+0	1.346464E+0	1.393394E+0	1.563982E+0	1.426991E+0	1.388058E+0	1.540620E+0	1.591675E+0	1.548027E+0	1.429757E+0	1.504410E+0	1.547143E+0	1.557838E+0	1.425715E+0	1.364864E+0	1.526779E+0	1.402661E+0	1.469068E+0	1.337713E+0	1.483349E+0	1.455510E+0	1.581305E+0	1.473985E+0	1.682214E+0	1.554939E+0	1.380107E+0	1.521421E+0	1.492010E+0	1.560600E+0	1.401224E+0	1.410635E+0	1.384193E+0	1.369679E+0	1.381501E+0	1.489154E+0	1.442129E+0	1.501551E+0	1.245022E+0	1.584628E+0	1.544202E+0	1.549263E+0	1.340856E+0	1.309100E+0	1.517041E+0	1.549456E+0	1.369665E+0	1.383008E+0	1.397833E+0	1.434614E+0	1.320161E+0	1.451054E+0	1.476203E+0	1.498532E+0	1.266617E+0	1.524879E+0	1.559025E+0	1.613374E+0	1.314956E+0	1.474950E+0	1.456088E+0	1.569066E+0	1.348894E+0	1.425458E+0	1.479746E+0	1.430535E+0	1.362523E+0	1.457708E+0	1.463751E+0	1.522825E+0	1.392334E+0	1.488355E+0	1.524348E+0	1.618394E+0	1.430731E+0	1.458047E+0	1.587478E+0	1.523731E+0	1.239187E+0	1.391451E+0	1.402438E+0	1.393350E+0	1.332601E+0	1.462384E+0	1.527043E+0	1.475597E+0	1.370521E+0	1.488266E+0	1.568358E+0	1.557485E+0	1.364422E+0	1.450536E+0	1.579044E+0	1.610694E+0	1.345972E+0	1.426124E+0	1.424643E+0	1.505936E+0	1.333948E+0	1.466263E+0	1.418746E+0	1.531450E+0	1.202246E+0	1.519808E+0	1.605447E+0	1.575578E+0	1.359350E+0	1.280256E+0	1.516609E+0	1.529732E+0	1.330916E+0	1.365937E+0	1.391079E+0	1.389143E+0	1.362139E+0	1.372308E+0	1.407036E+0	1.428684E+0	1.302148E+0	1.567809E+0	1.516942E+0	1.438416E+0	1.469049E+0	1.520363E+0	1.301294E+0	1.395921E+0	1.498595E+0	1.498419E+0	1.356112E+0	1.372489E+0	1.422248E+0	1.538554E+0	1.467386E+0	1.421262E+0	1.331318E+0	1.568288E+0	1.546205E+0	1.391900E+0	1.325562E+0	1.545127E+0	1.603877E+0	1.380308E+0	1.358554E+0	1.582084E+0	1.499497E+0	1.392521E+0	1.367338E+0	1.584695E+0	1.574005E+0	1.433705E+0	1.381873E+0
5.417760E+2	1.145184E+0	1.190431E+0	1.065594E+0	1.357243E+0	1.104747E+0	1.160024E+0	1.205191E+0	1.165710E+0	1.214791E+0	1.301616E+0	1.259356E+0	1.150420E+0	1.265025E+0	1.395020E+0	1.353425E+0	1.135704E+0	1.305892E+0	1.342927E+0	1.277488E+0	1.158027E+0	1.192720E+0	1.310724E+0	1.215372E+0	1.161022E+0	1.222134E+0	1.398427E+0	1.258020E+0	1.207281E+0	1.269076E+0	1.406208E+0	1.367169E+0	1.238041E+0	1.323869E+0	1.389461E+0	1.323675E+0	1.250797E+0	1.150155E+0	1.302417E+0	1.173359E+0	1.280011E+0	1.195472E+0	1.280050E+0	1.296382E+0	1.308100E+0	1.222153E+0	1.416881E+0	1.358730E+0	1.178541E+0	1.290675E+0	1.326516E+0	1.353383E+0	1.196071E+0	1.228086E+0	1.209413E+0	1.167071E+0	1.207489E+0	1.263872E+0	1.269709E+0	1.274655E+0	1.081241E+0	1.326055E+0	1.329027E+0	1.298746E+0	1.133437E+0	1.169150E+0	1.337923E+0	1.337748E+0	1.171443E+0	1.201461E+0	1.166992E+0	1.217964E+0	1.118338E+0	1.250147E+0	1.237490E+0	1.288506E+0	1.041991E+0	1.285310E+0	1.296319E+0	1.364789E+0	1.117856E+0	1.278583E+0	1.280758E+0	1.265583E+0	1.115689E+0	1.236065E+0	1.233624E+0	1.272895E+0	1.193032E+0	1.268671E+0	1.297817E+0	1.314561E+0	1.197978E+0	1.261383E+0	1.368736E+0	1.377847E+0	1.200383E+0	1.243115E+0	1.336550E+0	1.375039E+0	1.146140E+0	1.194971E+0	1.198661E+0	1.165418E+0	1.213206E+0	1.237883E+0	1.255980E+0	1.263394E+0	1.204678E+0	1.301492E+0	1.409016E+0	1.304305E+0	1.138850E+0	1.330974E+0	1.301319E+0	1.281904E+0	1.154868E+0	1.222178E+0	1.179928E+0	1.280499E+0	1.117020E+0	1.268453E+0	1.250645E+0	1.288833E+0	1.040510E+0	1.326508E+0	1.367535E+0	1.400086E+0	1.117387E+0	1.124331E+0	1.291406E+0	1.322554E+0	1.164528E+0	1.166881E+0	1.196724E+0	1.201396E+0	1.162948E+0	1.186309E+0	1.205239E+0	1.221585E+0	1.085003E+0	1.327266E+0	1.318790E+0	1.291006E+0	1.319546E+0	1.342244E+0	1.106723E+0	1.308427E+0	1.229668E+0	1.369787E+0	1.148877E+0	1.216560E+0	1.225650E+0	1.330446E+0	1.225771E+0	1.241779E+0	1.133072E+0	1.369634E+0	1.337436E+0	1.348924E+0	1.135856E+0	1.409222E+0	1.363261E+0	1.301791E+0	1.174090E+0	1.419335E+0	1.347976E+0	1.192560E+0	1.170862E+0	1.341295E+0	1.382817E+0	1.244919E+0	1.218214E+0
5.420210E+2	9.643108E-1	9.734151E-1	9.514684E-1	1.078922E+0	9.775977E-1	9.807970E-1	1.029722E+0	9.730499E-1	1.013246E+0	1.068279E+0	1.054716E+0	9.987849E-1	1.078137E+0	1.159288E+0	1.203222E+0	9.604539E-1	1.101211E+0	1.156487E+0	1.088009E+0	9.819811E-1	1.014978E+0	1.136698E+0	1.014157E+0	9.619577E-1	1.037295E+0	1.141160E+0	1.054497E+0	1.003247E+0	1.071215E+0	1.145685E+0	1.152481E+0	9.905653E-1	1.091972E+0	1.182106E+0	1.108495E+0	1.024305E+0	9.895666E-1	1.089219E+0	1.005652E+0	1.076195E+0	9.687097E-1	1.079003E+0	1.037319E+0	1.133295E+0	1.058510E+0	1.156974E+0	1.164877E+0	9.896891E-1	1.074617E+0	1.120928E+0	1.129975E+0	9.796981E-1	1.032430E+0	9.890956E-1	1.036785E+0	9.522059E-1	1.100793E+0	1.031680E+0	1.058050E+0	8.765141E-1	1.099261E+0	1.155872E+0	1.105095E+0	9.593280E-1	9.462826E-1	1.055607E+0	1.166497E+0	9.522135E-1	9.931670E-1	1.002680E+0	1.035428E+0	9.577222E-1	1.069610E+0	9.875924E-1	1.061614E+0	8.274830E-1	1.070765E+0	1.127107E+0	1.129160E+0	9.329523E-1	1.044357E+0	1.100844E+0	1.167309E+0	9.628820E-1	1.033888E+0	1.050475E+0	1.037730E+0	9.839593E-1	1.041617E+0	1.070266E+0	1.145647E+0	9.999245E-1	1.034414E+0	1.132900E+0	1.158312E+0	1.038159E+0	1.073790E+0	1.083025E+0	1.121359E+0	1.025663E+0	9.970578E-1	1.008704E+0	9.948506E-1	9.576819E-1	1.032230E+0	1.054968E+0	1.019591E+0	1.020028E+0	1.132415E+0	1.145973E+0	1.085101E+0	1.012667E+0	1.089059E+0	1.098838E+0	1.149111E+0	9.724517E-1	1.038778E+0	1.012679E+0	1.106423E+0	9.481895E-1	1.043565E+0	1.087409E+0	1.116633E+0	9.144202E-1	1.127698E+0	1.155763E+0	1.212300E+0	9.770952E-1	9.095362E-1	1.089846E+0	1.103087E+0	9.477716E-1	1.001686E+0	1.006975E+0	1.011712E+0	9.591713E-1	1.023220E+0	1.012612E+0	1.114834E+0	9.072422E-1	1.097635E+0	1.107537E+0	1.063623E+0	1.100270E+0	1.167004E+0	9.467177E-1	1.087082E+0	1.082552E+0	1.134132E+0	9.749391E-1	1.027248E+0	1.019622E+0	1.136955E+0	1.067335E+0	1.052383E+0	9.826189E-1	1.170979E+0	1.103134E+0	1.144073E+0	9.637023E-1	1.139657E+0	1.138151E+0	1.126843E+0	1.034682E+0	1.159049E+0	1.096660E+0	1.062994E+0	1.008743E+0	1.081561E+0	1.074851E+0	1.036178E+0	1.109106E+0
5.422670E+2	8.993557E-1	8.662874E-1	8.399969E-1	9.600692E-1	8.575134E-1	9.069981E-1	9.585322E-1	8.987432E-1	9.471752E-1	1.007766E+0	9.808494E-1	9.392317E-1	1.017608E+0	1.040007E+0	1.080284E+0	9.233979E-1	1.005250E+0	1.059583E+0	1.032616E+0	8.649763E-1	9.561591E-1	1.055919E+0	9.639620E-1	9.184537E-1	9.276468E-1	1.073670E+0	9.967544E-1	9.377022E-1	1.009356E+0	1.068694E+0	1.080050E+0	9.425284E-1	1.034263E+0	1.102975E+0	9.987943E-1	9.573145E-1	9.182910E-1	1.038989E+0	9.476515E-1	9.780939E-1	8.950121E-1	1.041271E+0	9.721466E-1	1.083516E+0	9.844142E-1	1.099271E+0	1.028569E+0	9.284024E-1	9.970031E-1	1.008370E+0	1.022048E+0	9.209305E-1	9.645602E-1	9.418235E-1	9.547149E-1	8.963632E-1	9.825473E-1	9.828820E-1	9.986117E-1	7.941180E-1	1.056405E+0	1.073221E+0	1.012368E+0	8.980348E-1	8.670648E-1	1.011228E+0	1.048454E+0	9.333608E-1	9.355651E-1	9.254343E-1	9.713554E-1	8.753072E-1	9.643450E-1	1.010505E+0	9.747412E-1	8.654266E-1	9.984781E-1	1.064097E+0	1.042779E+0	8.597717E-1	9.599706E-1	1.023492E+0	1.073662E+0	9.256126E-1	9.429788E-1	9.692350E-1	1.040314E+0	8.927609E-1	1.000382E+0	1.004324E+0	1.013059E+0	9.344354E-1	9.771557E-1	1.074908E+0	1.053270E+0	9.019096E-1	1.007656E+0	1.093913E+0	1.055806E+0	9.412208E-1	9.467395E-1	9.191029E-1	9.187045E-1	9.445662E-1	9.751345E-1	9.838328E-1	1.052889E+0	9.356823E-1	1.026681E+0	1.047333E+0	1.040424E+0	9.225365E-1	9.761665E-1	1.069475E+0	1.116058E+0	9.463921E-1	9.937807E-1	9.413681E-1	1.006951E+0	9.005705E-1	9.923474E-1	9.874135E-1	1.039611E+0	8.314249E-1	1.053583E+0	1.065079E+0	1.079842E+0	9.091498E-1	8.607437E-1	1.039603E+0	1.056852E+0	9.211719E-1	9.298609E-1	9.296007E-1	9.365180E-1	9.494926E-1	9.484937E-1	9.954140E-1	1.012887E+0	9.035166E-1	1.090195E+0	1.026748E+0	1.079827E+0	1.012665E+0	1.014823E+0	9.461604E-1	1.070278E+0	9.936950E-1	1.070869E+0	9.664898E-1	9.938686E-1	9.635139E-1	1.067977E+0	9.949075E-1	1.034765E+0	9.277613E-1	1.074124E+0	1.038049E+0	1.037587E+0	8.768944E-1	1.045700E+0	1.096230E+0	1.030939E+0	9.344989E-1	1.059894E+0	1.038664E+0	9.563179E-1	9.405669E-1	1.021119E+0	1.059349E+0	9.333433E-1	9.486542E-1
5.425400E+2	8.159139E-1	8.756749E-1	8.155794E-1	1.012628E+0	8.071247E-1	8.822222E-1	9.274494E-1	8.702668E-1	8.994263E-1	9.723808E-1	9.053409E-1	9.222169E-1	9.235027E-1	9.758878E-1	1.022975E+0	9.539148E-1	9.235814E-1	1.019915E+0	9.653142E-1	9.444109E-1	8.828444E-1	9.716490E-1	8.717229E-1	9.013154E-1	8.853532E-1	1.037330E+0	9.569964E-1	8.689860E-1	1.005264E+0	1.036249E+0	1.015429E+0	9.146503E-1	9.564344E-1	1.046372E+0	9.571300E-1	8.632090E-1	8.531744E-1	9.781540E-1	8.981942E-1	9.523792E-1	8.604816E-1	1.018745E+0	9.140341E-1	9.700665E-1	9.262298E-1	1.032198E+0	1.029511E+0	8.920840E-1	9.256826E-1	9.682813E-1	1.003161E+0	8.990259E-1	8.971570E-1	8.563844E-1	8.895728E-1	9.023463E-1	9.393963E-1	9.167332E-1	9.517471E-1	7.814806E-1	9.981426E-1	1.035358E+0	9.806053E-1	8.291910E-1	8.401305E-1	9.556211E-1	1.002454E+0	8.110883E-1	8.867061E-1	8.629241E-1	9.118920E-1	8.027264E-1	8.687019E-1	8.900846E-1	9.445913E-1	7.824572E-1	9.581634E-1	1.018873E+0	1.013026E+0	8.295241E-1	9.826900E-1	9.581728E-1	9.927329E-1	8.430855E-1	8.719564E-1	8.827078E-1	9.653714E-1	8.893208E-1	9.377280E-1	9.173026E-1	9.864217E-1	8.905997E-1	9.534270E-1	1.032379E+0	1.055897E+0	8.989689E-1	9.683180E-1	9.637825E-1	9.678712E-1	8.906633E-1	8.949844E-1	9.047667E-1	8.831697E-1	8.681352E-1	9.169306E-1	9.434152E-1	9.490456E-1	8.228412E-1	9.847620E-1	9.775256E-1	9.817831E-1	9.118182E-1	9.811714E-1	9.807741E-1	1.041254E+0	9.104882E-1	9.145518E-1	8.618483E-1	9.674857E-1	8.837359E-1	9.646775E-1	9.139034E-1	9.856961E-1	8.186562E-1	1.009014E+0	1.031472E+0	1.031218E+0	8.480477E-1	8.379383E-1	9.923159E-1	9.807707E-1	8.855177E-1	8.826620E-1	8.840049E-1	9.011033E-1	8.705289E-1	9.054034E-1	9.077000E-1	9.296199E-1	7.986692E-1	9.562843E-1	9.770733E-1	9.700555E-1	9.418464E-1	1.014823E+0	9.829554E-1	9.665585E-1	9.472067E-1	1.020787E+0	8.984059E-1	9.209096E-1	8.809240E-1	9.867221E-1	9.541668E-1	9.527301E-1	8.658428E-1	9.866578E-1	9.864824E-1	1.038542E+0	8.447071E-1	1.036192E+0	1.025596E+0	9.624365E-1	9.185963E-1	1.004927E+0	9.827579E-1	9.070841E-1	8.766856E-1	1.017852E+0	9.632387E-1	9.256693E-1	9.326100E-1
5.427600E+2	8.813682E-1	9.010765E-1	8.633529E-1	1.013225E+0	8.989542E-1	8.880203E-1	9.600364E-1	8.862851E-1	9.399575E-1	1.001099E+0	9.923398E-1	9.127084E-1	9.787304E-1	1.008892E+0	1.025749E+0	9.900975E-1	9.960622E-1	1.026149E+0	1.007248E+0	1.008818E+0	9.459292E-1	1.036472E+0	8.914576E-1	9.413039E-1	9.292126E-1	1.067902E+0	9.607821E-1	9.736462E-1	9.788820E-1	1.084672E+0	1.021501E+0	1.042032E+0	9.934953E-1	1.062545E+0	9.977400E-1	1.047698E+0	8.536143E-1	9.792705E-1	8.851556E-1	1.009999E+0	8.939811E-1	9.877717E-1	9.335857E-1	1.008848E+0	9.621411E-1	1.065241E+0	1.059698E+0	1.029185E+0	1.027944E+0	1.003231E+0	9.729409E-1	1.006945E+0	8.943489E-1	9.301124E-1	9.167578E-1	9.367495E-1	9.937557E-1	9.563138E-1	9.586055E-1	7.658105E-1	1.004402E+0	1.004419E+0	1.067185E+0	9.304584E-1	9.119550E-1	1.011229E+0	1.030165E+0	9.317455E-1	9.206496E-1	8.714076E-1	9.602926E-1	8.355051E-1	9.207682E-1	9.305793E-1	9.834286E-1	7.753739E-1	9.655782E-1	9.792385E-1	1.037980E+0	8.539174E-1	9.475283E-1	1.016044E+0	1.073084E+0	8.872771E-1	9.387179E-1	9.490455E-1	1.008787E+0	8.755538E-1	9.489739E-1	9.610838E-1	1.022141E+0	9.154225E-1	9.756082E-1	1.003382E+0	1.052220E+0	9.440581E-1	9.324009E-1	1.042068E+0	9.875900E-1	8.981936E-1	8.762953E-1	9.375346E-1	9.055060E-1	9.034106E-1	9.113875E-1	9.773660E-1	9.586403E-1	9.328323E-1	9.889530E-1	1.096906E+0	1.021808E+0	8.811251E-1	9.989671E-1	1.044393E+0	1.058071E+0	8.925359E-1	9.830216E-1	9.193077E-1	1.001004E+0	8.678629E-1	9.640887E-1	9.847108E-1	1.040161E+0	8.489810E-1	1.057089E+0	1.059210E+0	1.079283E+0	8.876420E-1	8.559703E-1	9.923160E-1	9.772587E-1	8.991004E-1	9.119048E-1	9.130204E-1	9.049840E-1	8.888687E-1	8.732216E-1	8.853413E-1	9.712536E-1	8.327311E-1	1.034647E+0	1.019106E+0	9.878279E-1	9.911572E-1	1.009635E+0	1.011947E+0	1.054633E+0	9.572108E-1	1.030803E+0	9.356783E-1	9.337852E-1	8.921458E-1	1.037579E+0	9.671811E-1	9.648422E-1	8.837670E-1	1.066712E+0	1.052568E+0	1.027559E+0	8.588507E-1	1.054648E+0	1.127240E+0	9.777178E-1	9.111757E-1	1.067978E+0	1.019854E+0	9.152896E-1	9.164103E-1	1.053791E+0	1.053149E+0	9.195302E-1	9.422377E-1
5.430070E+2	9.353309E-1	9.375217E-1	9.408518E-1	1.125509E+0	9.578194E-1	9.723628E-1	9.991402E-1	9.548072E-1	1.035455E+0	1.083151E+0	1.067301E+0	9.847724E-1	1.086533E+0	1.156930E+0	1.155618E+0	1.113907E+0	1.081815E+0	1.152520E+0	1.083352E+0	1.101670E+0	1.000486E+0	1.097306E+0	1.021880E+0	1.072256E+0	1.025287E+0	1.164234E+0	1.054499E+0	1.079891E+0	1.105331E+0	1.128740E+0	1.133399E+0	1.158692E+0	1.060205E+0	1.139942E+0	1.102165E+0	1.177426E+0	1.042802E+0	1.077498E+0	1.010150E+0	1.141911E+0	9.774708E-1	1.079003E+0	1.036233E+0	1.141977E+0	1.012144E+0	1.239829E+0	1.161105E+0	1.187622E+0	1.106083E+0	1.083409E+0	1.087343E+0	1.140509E+0	9.879639E-1	9.682779E-1	9.665124E-1	1.052425E+0	1.122648E+0	1.097829E+0	1.140349E+0	8.765141E-1	1.142598E+0	1.117547E+0	1.108680E+0	1.117004E+0	9.684639E-1	1.052934E+0	1.143222E+0	1.102498E+0	1.037912E+0	9.580300E-1	1.018833E+0	1.014383E+0	1.011885E+0	1.030752E+0	1.113737E+0	9.266426E-1	1.037403E+0	1.167251E+0	1.100367E+0	1.052969E+0	1.013523E+0	1.086519E+0	1.144765E+0	1.097587E+0	1.010688E+0	1.078355E+0	1.066674E+0	9.861105E-1	1.084457E+0	1.097291E+0	1.122035E+0	1.025276E+0	1.101989E+0	1.108254E+0	1.146757E+0	1.029826E+0	1.076640E+0	1.118282E+0	1.126688E+0	1.038571E+0	1.030602E+0	1.014848E+0	1.027848E+0	9.793901E-1	1.007840E+0	1.118020E+0	1.093522E+0	9.972318E-1	1.072329E+0	1.164185E+0	1.140950E+0	9.805122E-1	1.137442E+0	1.091497E+0	1.142733E+0	9.544994E-1	1.028995E+0	9.803581E-1	1.095071E+0	9.621382E-1	1.047097E+0	1.049032E+0	1.167799E+0	9.825196E-1	1.119685E+0	1.196304E+0	1.161439E+0	9.858941E-1	9.551471E-1	1.126493E+0	1.116548E+0	9.438097E-1	9.601298E-1	1.026777E+0	1.000069E+0	1.000437E+0	1.052129E+0	1.038410E+0	1.026764E+0	8.880820E-1	1.084245E+0	1.179593E+0	1.124259E+0	1.057779E+0	1.144523E+0	1.142404E+0	1.114894E+0	1.066664E+0	1.105664E+0	1.042526E+0	1.019619E+0	1.019621E+0	1.184305E+0	1.048097E+0	1.083765E+0	9.706701E-1	1.178888E+0	1.080604E+0	1.161741E+0	9.549242E-1	1.161468E+0	1.135854E+0	1.082581E+0	9.705434E-1	1.152046E+0	1.105020E+0	9.861183E-1	9.765334E-1	1.147720E+0	1.135824E+0	1.036179E+0	1.035300E+0
5.432860E+2	1.077731E+0	1.116989E+0	1.032153E+0	1.259294E+0	1.110868E+0	1.120488E+0	1.178620E+0	1.162150E+0	1.222562E+0	1.243666E+0	1.251694E+0	1.183950E+0	1.219961E+0	1.303555E+0	1.292419E+0	1.286544E+0	1.223713E+0	1.283992E+0	1.307514E+0	1.263759E+0	1.214033E+0	1.296263E+0	1.177187E+0	1.198374E+0	1.192893E+0	1.309018E+0	1.213530E+0	1.244284E+0	1.274531E+0	1.408146E+0	1.326400E+0	1.330681E+0	1.233862E+0	1.362316E+0	1.257749E+0	1.249734E+0	1.159395E+0	1.266143E+0	1.185947E+0	1.333823E+0	1.097037E+0	1.258648E+0	1.198622E+0	1.342832E+0	1.170788E+0	1.358193E+0	1.274775E+0	1.331984E+0	1.236140E+0	1.251474E+0	1.303196E+0	1.286359E+0	1.167704E+0	1.169948E+0	1.188612E+0	1.165607E+0	1.171405E+0	1.236634E+0	1.180355E+0	1.016537E+0	1.302940E+0	1.300858E+0	1.285939E+0	1.279120E+0	1.131653E+0	1.329365E+0	1.198643E+0	1.305567E+0	1.144371E+0	1.132164E+0	1.171870E+0	1.136131E+0	1.203173E+0	1.173020E+0	1.238426E+0	1.034402E+0	1.253339E+0	1.305464E+0	1.323997E+0	1.254460E+0	1.246668E+0	1.256120E+0	1.309513E+0	1.264770E+0	1.147051E+0	1.228815E+0	1.248088E+0	1.182274E+0	1.206016E+0	1.219444E+0	1.235855E+0	1.199561E+0	1.232497E+0	1.237770E+0	1.342134E+0	1.262625E+0	1.183821E+0	1.256188E+0	1.294565E+0	1.288669E+0	1.181076E+0	1.187908E+0	1.151205E+0	1.185616E+0	1.256177E+0	1.250588E+0	1.243644E+0	1.201258E+0	1.278667E+0	1.346291E+0	1.281036E+0	1.330805E+0	1.209737E+0	1.287250E+0	1.331192E+0	1.263160E+0	1.227068E+0	1.168128E+0	1.291313E+0	1.137702E+0	1.235486E+0	1.191728E+0	1.286080E+0	1.206500E+0	1.309982E+0	1.327524E+0	1.357051E+0	1.263054E+0	1.038413E+0	1.246485E+0	1.312605E+0	1.239797E+0	1.126866E+0	1.158960E+0	1.175685E+0	1.178233E+0	1.163402E+0	1.192626E+0	1.124976E+0	1.015814E+0	1.219640E+0	1.311693E+0	1.288392E+0	1.262368E+0	1.289786E+0	1.320249E+0	1.239473E+0	1.213191E+0	1.297561E+0	1.148381E+0	1.165058E+0	1.164603E+0	1.275497E+0	1.181636E+0	1.157541E+0	1.118406E+0	1.323678E+0	1.296884E+0	1.303085E+0	1.113420E+0	1.332044E+0	1.307559E+0	1.258582E+0	1.156599E+0	1.306709E+0	1.251315E+0	1.160600E+0	1.117717E+0	1.319243E+0	1.266038E+0	1.140548E+0	1.160454E+0
5.435220E+2	1.230127E+0	1.329035E+0	1.176533E+0	1.376356E+0	1.261091E+0	1.236460E+0	1.278383E+0	1.233784E+0	1.320280E+0	1.418027E+0	1.347450E+0	1.269524E+0	1.383870E+0	1.453483E+0	1.447248E+0	1.451770E+0	1.391132E+0	1.436431E+0	1.437978E+0	1.403841E+0	1.316330E+0	1.403972E+0	1.332922E+0	1.331522E+0	1.247195E+0	1.487842E+0	1.366407E+0	1.311412E+0	1.407803E+0	1.455118E+0	1.461716E+0	1.460635E+0	1.459934E+0	1.477254E+0	1.358479E+0	1.421995E+0	1.273347E+0	1.433016E+0	1.273621E+0	1.385729E+0	1.230002E+0	1.347065E+0	1.279545E+0	1.460331E+0	1.321252E+0	1.503187E+0	1.479474E+0	1.518116E+0	1.342071E+0	1.405148E+0	1.427852E+0	1.456785E+0	1.333871E+0	1.294853E+0	1.293251E+0	1.266821E+0	1.367544E+0	1.366761E+0	1.334094E+0	1.151000E+0	1.434396E+0	1.439384E+0	1.452951E+0	1.382162E+0	1.227241E+0	1.344336E+0	1.440829E+0	1.444540E+0	1.223576E+0	1.237539E+0	1.299554E+0	1.269587E+0	1.274481E+0	1.365370E+0	1.366690E+0	1.123950E+0	1.339063E+0	1.408109E+0	1.479964E+0	1.434483E+0	1.353235E+0	1.382746E+0	1.458078E+0	1.377113E+0	1.305667E+0	1.344185E+0	1.354558E+0	1.277778E+0	1.323830E+0	1.356193E+0	1.407792E+0	1.308357E+0	1.373322E+0	1.431562E+0	1.480265E+0	1.490522E+0	1.296705E+0	1.422611E+0	1.420873E+0	1.369344E+0	1.275957E+0	1.254470E+0	1.315679E+0	1.237176E+0	1.337108E+0	1.404175E+0	1.341277E+0	1.373939E+0	1.341083E+0	1.510692E+0	1.403901E+0	1.513010E+0	1.363783E+0	1.387575E+0	1.488342E+0	1.402722E+0	1.290651E+0	1.203014E+0	1.370782E+0	1.261801E+0	1.370304E+0	1.349561E+0	1.446173E+0	1.310775E+0	1.405631E+0	1.426746E+0	1.506832E+0	1.430228E+0	1.199640E+0	1.385980E+0	1.404487E+0	1.349591E+0	1.197665E+0	1.282388E+0	1.271743E+0	1.308141E+0	1.300855E+0	1.338244E+0	1.253077E+0	1.145676E+0	1.398187E+0	1.438338E+0	1.377257E+0	1.456986E+0	1.444273E+0	1.416701E+0	1.390707E+0	1.392084E+0	1.482075E+0	1.267155E+0	1.283795E+0	1.252132E+0	1.457298E+0	1.357047E+0	1.310598E+0	1.286782E+0	1.446721E+0	1.398516E+0	1.419121E+0	1.440166E+0	1.487519E+0	1.432749E+0	1.353960E+0	1.362794E+0	1.436043E+0	1.378804E+0	1.298802E+0	1.262120E+0	1.430324E+0	1.363182E+0	1.228034E+0	1.224632E+0
5.437590E+2	1.287086E+0	1.343945E+0	1.245539E+0	1.532837E+0	1.325138E+0	1.374040E+0	1.404220E+0	1.312097E+0	1.413002E+0	1.508797E+0	1.428976E+0	1.395137E+0	1.486817E+0	1.593977E+0	1.572028E+0	1.526316E+0	1.503428E+0	1.610406E+0	1.488709E+0	1.502600E+0	1.370034E+0	1.510682E+0	1.403282E+0	1.409303E+0	1.373550E+0	1.590518E+0	1.480003E+0	1.468932E+0	1.570639E+0	1.544219E+0	1.545422E+0	1.588449E+0	1.480052E+0	1.558117E+0	1.514063E+0	1.559163E+0	1.336266E+0	1.524548E+0	1.356800E+0	1.559073E+0	1.343384E+0	1.515448E+0	1.406635E+0	1.601563E+0	1.448982E+0	1.645718E+0	1.581819E+0	1.620263E+0	1.475273E+0	1.467338E+0	1.532540E+0	1.558293E+0	1.412038E+0	1.381592E+0	1.332745E+0	1.418395E+0	1.472903E+0	1.450262E+0	1.521553E+0	1.193462E+0	1.528776E+0	1.575600E+0	1.523138E+0	1.506969E+0	1.321780E+0	1.496190E+0	1.526732E+0	1.526415E+0	1.375295E+0	1.368807E+0	1.381601E+0	1.293468E+0	1.406913E+0	1.445827E+0	1.438230E+0	1.275722E+0	1.475757E+0	1.578845E+0	1.552907E+0	1.498395E+0	1.460882E+0	1.527138E+0	1.537274E+0	1.495843E+0	1.389946E+0	1.402353E+0	1.439321E+0	1.394358E+0	1.426648E+0	1.456727E+0	1.473784E+0	1.426660E+0	1.462044E+0	1.586207E+0	1.564296E+0	1.571391E+0	1.439803E+0	1.558443E+0	1.533855E+0	1.494666E+0	1.407743E+0	1.390151E+0	1.342585E+0	1.358830E+0	1.394205E+0	1.521116E+0	1.443992E+0	1.425232E+0	1.460786E+0	1.535983E+0	1.529096E+0	1.611912E+0	1.436078E+0	1.527656E+0	1.538208E+0	1.518540E+0	1.388463E+0	1.394373E+0	1.465390E+0	1.358001E+0	1.473917E+0	1.426314E+0	1.453879E+0	1.490070E+0	1.510795E+0	1.558503E+0	1.543160E+0	1.572476E+0	1.259569E+0	1.448634E+0	1.542607E+0	1.486549E+0	1.348496E+0	1.411801E+0	1.324134E+0	1.411556E+0	1.361399E+0	1.404172E+0	1.387049E+0	1.284584E+0	1.501351E+0	1.494019E+0	1.485460E+0	1.509967E+0	1.546304E+0	1.528202E+0	1.507173E+0	1.503300E+0	1.542177E+0	1.387916E+0	1.388701E+0	1.348635E+0	1.528615E+0	1.414198E+0	1.426217E+0	1.379117E+0	1.552970E+0	1.541201E+0	1.566194E+0	1.524051E+0	1.503740E+0	1.582057E+0	1.465672E+0	1.455026E+0	1.562144E+0	1.499499E+0	1.322989E+0	1.378072E+0	1.605932E+0	1.550235E+0	1.395334E+0	1.590461E+0
5.440120E+2	1.334053E+0	1.390331E+0	1.310300E+0	1.609882E+0	1.334554E+0	1.386692E+0	1.407727E+0	1.409096E+0	1.481849E+0	1.548284E+0	1.502844E+0	1.410148E+0	1.492998E+0	1.598222E+0	1.620094E+0	1.608711E+0	1.563659E+0	1.635905E+0	1.547728E+0	1.608869E+0	1.465940E+0	1.555058E+0	1.423014E+0	1.407104E+0	1.404882E+0	1.651085E+0	1.448762E+0	1.556679E+0	1.585193E+0	1.635254E+0	1.594000E+0	1.596168E+0	1.536178E+0	1.634358E+0	1.519338E+0	1.599574E+0	1.440538E+0	1.569754E+0	1.411200E+0	1.621454E+0	1.384613E+0	1.603865E+0	1.434331E+0	1.621821E+0	1.468985E+0	1.603300E+0	1.573805E+0	1.659302E+0	1.529289E+0	1.553684E+0	1.560061E+0	1.598901E+0	1.432167E+0	1.395903E+0	1.398915E+0	1.392965E+0	1.503724E+0	1.380857E+0	1.525554E+0	1.271816E+0	1.557661E+0	1.589451E+0	1.563095E+0	1.511409E+0	1.385152E+0	1.559281E+0	1.577163E+0	1.603441E+0	1.416438E+0	1.401406E+0	1.394049E+0	1.376353E+0	1.451620E+0	1.417057E+0	1.462762E+0	1.289384E+0	1.537391E+0	1.567156E+0	1.622491E+0	1.506201E+0	1.477651E+0	1.509376E+0	1.554615E+0	1.557072E+0	1.398944E+0	1.434559E+0	1.441905E+0	1.420600E+0	1.533213E+0	1.484291E+0	1.567623E+0	1.460463E+0	1.418716E+0	1.534496E+0	1.587928E+0	1.597365E+0	1.483700E+0	1.522156E+0	1.524796E+0	1.467773E+0	1.437934E+0	1.373254E+0	1.390303E+0	1.378732E+0	1.472918E+0	1.538900E+0	1.502119E+0	1.479942E+0	1.524132E+0	1.593650E+0	1.559344E+0	1.600218E+0	1.495027E+0	1.552129E+0	1.573001E+0	1.588035E+0	1.480900E+0	1.373852E+0	1.548645E+0	1.309899E+0	1.486281E+0	1.450638E+0	1.530351E+0	1.510288E+0	1.527822E+0	1.532367E+0	1.551546E+0	1.568079E+0	1.290332E+0	1.526070E+0	1.575964E+0	1.502963E+0	1.395183E+0	1.385550E+0	1.390112E+0	1.420727E+0	1.397398E+0	1.468381E+0	1.460176E+0	1.297891E+0	1.520693E+0	1.540416E+0	1.527801E+0	1.524655E+0	1.598183E+0	1.547714E+0	1.523396E+0	1.504479E+0	1.528471E+0	1.441589E+0	1.436866E+0	1.432569E+0	1.561349E+0	1.469082E+0	1.445489E+0	1.421481E+0	1.585087E+0	1.539197E+0	1.591027E+0	1.546484E+0	1.612792E+0	1.574016E+0	1.541025E+0	1.532946E+0	1.595017E+0	1.479645E+0	1.402886E+0	1.365190E+0	1.543041E+0	1.579171E+0	1.479751E+0	1.542324E+0
5.442700E+2	1.556897E+0	1.412421E+0	1.335249E+0	1.617644E+0	1.408488E+0	1.379839E+0	1.440815E+0	1.413099E+0	1.476850E+0	1.572898E+0	1.531844E+0	1.431669E+0	1.542482E+0	1.641125E+0	1.626566E+0	1.581247E+0	1.561616E+0	1.633640E+0	1.558601E+0	1.567544E+0	1.450594E+0	1.614896E+0	1.453048E+0	1.469505E+0	1.466492E+0	1.599746E+0	1.510766E+0	1.465233E+0	1.577916E+0	1.654623E+0	1.631301E+0	1.527972E+0	1.598121E+0	1.681144E+0	1.587373E+0	1.734085E+0	1.374102E+0	1.558595E+0	1.376134E+0	1.560499E+0	1.390282E+0	1.593165E+0	1.520684E+0	1.661186E+0	1.515807E+0	1.650154E+0	1.628989E+0	1.711966E+0	1.564950E+0	1.602510E+0	1.614565E+0	1.608513E+0	1.440123E+0	1.362508E+0	1.431743E+0	1.419392E+0	1.530621E+0	1.438331E+0	1.568417E+0	1.265747E+0	1.581260E+0	1.555282E+0	1.562582E+0	1.556713E+0	1.312799E+0	1.546447E+0	1.658081E+0	1.565197E+0	1.437011E+0	1.401406E+0	1.412947E+0	1.409133E+0	1.479918E+0	1.423449E+0	1.532259E+0	1.271678E+0	1.561486E+0	1.559026E+0	1.578820E+0	1.560355E+0	1.502534E+0	1.530001E+0	1.541899E+0	1.589551E+0	1.433982E+0	1.460517E+0	1.499796E+0	1.466201E+0	1.512329E+0	1.481590E+0	1.554911E+0	1.506413E+0	1.489902E+0	1.616170E+0	1.692448E+0	1.640493E+0	1.467737E+0	1.530447E+0	1.577558E+0	1.528547E+0	1.396721E+0	1.413702E+0	1.428884E+0	1.383705E+0	1.471808E+0	1.505489E+0	1.522437E+0	1.493618E+0	1.554409E+0	1.638166E+0	1.574242E+0	1.621658E+0	1.520611E+0	1.596173E+0	1.617073E+0	1.567188E+0	1.460357E+0	1.434390E+0	1.562160E+0	1.405136E+0	1.494520E+0	1.500908E+0	1.530900E+0	1.486347E+0	1.571387E+0	1.604914E+0	1.649911E+0	1.573454E+0	1.288210E+0	1.535526E+0	1.595277E+0	1.579366E+0	1.351575E+0	1.421477E+0	1.421645E+0	1.433972E+0	1.394671E+0	1.436850E+0	1.482593E+0	1.340999E+0	1.516724E+0	1.537687E+0	1.539302E+0	1.565051E+0	1.579735E+0	1.568900E+0	1.511231E+0	1.538022E+0	1.600168E+0	1.401833E+0	1.471674E+0	1.386789E+0	1.645529E+0	1.487191E+0	1.519816E+0	1.421481E+0	1.591017E+0	1.556218E+0	1.590070E+0	1.614270E+0	1.625656E+0	1.658431E+0	1.505721E+0	1.533477E+0	1.679622E+0	1.533460E+0	1.445213E+0	1.407063E+0	1.534055E+0	1.614308E+0	1.467472E+0	1.449263E+0
5.445240E+2	1.641839E+0	1.414077E+0	1.334717E+0	1.537014E+0	1.620403E+0	1.390383E+0	1.413245E+0	1.376614E+0	1.611767E+0	1.531359E+0	1.487519E+0	1.440677E+0	1.538948E+0	1.633110E+0	1.613622E+0	1.573834E+0	1.588160E+0	1.633073E+0	1.588626E+0	1.538558E+0	1.636010E+0	1.553063E+0	1.446181E+0	1.492357E+0	1.599638E+0	1.595131E+0	1.487576E+0	1.462060E+0	1.553352E+0	1.565525E+0	1.566675E+0	1.631339E+0	1.614534E+0	1.636088E+0	1.567859E+0	1.636790E+0	1.570770E+0	1.547430E+0	1.428737E+0	1.562402E+0	1.496961E+0	1.532345E+0	1.459856E+0	1.603877E+0	1.527624E+0	1.676294E+0	1.647857E+0	1.691083E+0	1.560231E+0	1.536725E+0	1.607008E+0	1.624542E+0	1.461187E+0	1.420189E+0	1.408662E+0	1.417400E+0	1.523339E+0	1.453514E+0	1.543272E+0	1.307198E+0	1.567295E+0	1.571906E+0	1.611763E+0	1.535394E+0	1.362970E+0	1.501534E+0	1.537261E+0	1.581356E+0	1.405639E+0	1.413013E+0	1.467802E+0	1.349192E+0	1.403516E+0	1.489520E+0	1.529703E+0	1.263580E+0	1.498928E+0	1.542255E+0	1.638809E+0	1.494980E+0	1.514436E+0	1.546616E+0	1.608954E+0	1.566659E+0	1.449133E+0	1.499455E+0	1.479122E+0	1.439525E+0	1.475378E+0	1.464295E+0	1.588210E+0	1.473138E+0	1.529102E+0	1.535949E+0	1.617866E+0	1.543453E+0	1.445505E+0	1.507115E+0	1.551979E+0	1.463468E+0	1.424994E+0	1.391688E+0	1.362889E+0	1.413105E+0	1.440764E+0	1.523811E+0	1.488011E+0	1.466266E+0	1.512021E+0	1.547112E+0	1.638930E+0	1.603629E+0	1.537292E+0	1.641442E+0	1.665201E+0	1.627990E+0	1.413896E+0	1.387190E+0	1.542158E+0	1.369063E+0	1.448601E+0	1.491177E+0	1.560060E+0	1.493792E+0	1.542344E+0	1.559569E+0	1.653820E+0	1.645797E+0	1.304653E+0	1.428537E+0	1.529145E+0	1.510320E+0	1.341827E+0	1.366669E+0	1.345967E+0	1.413598E+0	1.448126E+0	1.427676E+0	1.431888E+0	1.296826E+0	1.509778E+0	1.590637E+0	1.572757E+0	1.593901E+0	1.567634E+0	1.512033E+0	1.574968E+0	1.548026E+0	1.612295E+0	1.394377E+0	1.476447E+0	1.400254E+0	1.595841E+0	1.475306E+0	1.530275E+0	1.418223E+0	1.591515E+0	1.543704E+0	1.621586E+0	1.637193E+0	1.557990E+0	1.554493E+0	1.541553E+0	1.470398E+0	1.570225E+0	1.521443E+0	1.359698E+0	1.421558E+0	1.598581E+0	1.531634E+0	1.418357E+0	1.417173E+0
5.447720E+2	1.575384E+0	1.343946E+0	1.466357E+0	1.510735E+0	1.583202E+0	1.352430E+0	1.389180E+0	1.341908E+0	1.524047E+0	1.452896E+0	1.440467E+0	1.391132E+0	1.481070E+0	1.497801E+0	1.573418E+0	1.522827E+0	1.554981E+0	1.494798E+0	1.488190E+0	1.548757E+0	1.601483E+0	1.539603E+0	1.375393E+0	1.401392E+0	1.580837E+0	1.583594E+0	1.437880E+0	1.390701E+0	1.521968E+0	1.620246E+0	1.505959E+0	1.539986E+0	1.539882E+0	1.570246E+0	1.442338E+0	1.509188E+0	1.604208E+0	1.537945E+0	1.328026E+0	1.550498E+0	1.530465E+0	1.444492E+0	1.364812E+0	1.539629E+0	1.484441E+0	1.579139E+0	1.560598E+0	1.638419E+0	1.502020E+0	1.504858E+0	1.536858E+0	1.531584E+0	1.540759E+0	1.366847E+0	1.380451E+0	1.347093E+0	1.587787E+0	1.422608E+0	1.487265E+0	1.223285E+0	1.532145E+0	1.486945E+0	1.550798E+0	1.476322E+0	1.288505E+0	1.468918E+0	1.513431E+0	1.577046E+0	1.517759E+0	1.369257E+0	1.393126E+0	1.295341E+0	1.479351E+0	1.421318E+0	1.452030E+0	1.228672E+0	1.428032E+0	1.472643E+0	1.549067E+0	1.468635E+0	1.481441E+0	1.484161E+0	1.517041E+0	1.513415E+0	1.416936E+0	1.389370E+0	1.387120E+0	1.354349E+0	1.503759E+0	1.407000E+0	1.499212E+0	1.421381E+0	1.470300E+0	1.540299E+0	1.616291E+0	1.530221E+0	1.390772E+0	1.462014E+0	1.523196E+0	1.494126E+0	1.368445E+0	1.337414E+0	1.343600E+0	1.369686E+0	1.328239E+0	1.478545E+0	1.439477E+0	1.430359E+0	1.455197E+0	1.495517E+0	1.548640E+0	1.520809E+0	1.441087E+0	1.589441E+0	1.556183E+0	1.497116E+0	1.381618E+0	1.354358E+0	1.470255E+0	1.377240E+0	1.396205E+0	1.458204E+0	1.529799E+0	1.444316E+0	1.502781E+0	1.585174E+0	1.566637E+0	1.570522E+0	1.316848E+0	1.481146E+0	1.517443E+0	1.462780E+0	1.337209E+0	1.326139E+0	1.395932E+0	1.390669E+0	1.322673E+0	1.390986E+0	1.350222E+0	1.235088E+0	1.531107E+0	1.518036E+0	1.506893E+0	1.503674E+0	1.478861E+0	1.477467E+0	1.428370E+0	1.476820E+0	1.547451E+0	1.358595E+0	1.374874E+0	1.365243E+0	1.562519E+0	1.420987E+0	1.414654E+0	1.403559E+0	1.506022E+0	1.504655E+0	1.515100E+0	1.547947E+0	1.574204E+0	1.629146E+0	1.482537E+0	1.457677E+0	1.583696E+0	1.499498E+0	1.344149E+0	1.329223E+0	1.525888E+0	1.554369E+0	1.401474E+0	1.500607E+0
5.450200E+2	1.513428E+0	1.289828E+0	1.523687E+0	1.437275E+0	1.523394E+0	1.280211E+0	1.352080E+0	1.286290E+0	1.466302E+0	1.463154E+0	1.401070E+0	1.339087E+0	1.446167E+0	1.460554E+0	1.493921E+0	1.479232E+0	1.442177E+0	1.548636E+0	1.444187E+0	1.463418E+0	1.521776E+0	1.428406E+0	1.333781E+0	1.403589E+0	1.444565E+0	1.501107E+0	1.398120E+0	1.381714E+0	1.503778E+0	1.584410E+0	1.449141E+0	1.453342E+0	1.485879E+0	1.509603E+0	1.433899E+0	1.533646E+0	1.510494E+0	1.419064E+0	1.306443E+0	1.471927E+0	1.439760E+0	1.408448E+0	1.346890E+0	1.475380E+0	1.412163E+0	1.531299E+0	1.494566E+0	1.499504E+0	1.450099E+0	1.425709E+0	1.437026E+0	1.440226E+0	1.462594E+0	1.310032E+0	1.291201E+0	1.287266E+0	1.475704E+0	1.377605E+0	1.414108E+0	1.164648E+0	1.475326E+0	1.463858E+0	1.452440E+0	1.394153E+0	1.309632E+0	1.389784E+0	1.449697E+0	1.422992E+0	1.481755E+0	1.285317E+0	1.298170E+0	1.254601E+0	1.431246E+0	1.388815E+0	1.367201E+0	1.160882E+0	1.415986E+0	1.453841E+0	1.457408E+0	1.399358E+0	1.459259E+0	1.416551E+0	1.501435E+0	1.468689E+0	1.442029E+0	1.309575E+0	1.394872E+0	1.326387E+0	1.485017E+0	1.381595E+0	1.443513E+0	1.302548E+0	1.382092E+0	1.455243E+0	1.508625E+0	1.443473E+0	1.494534E+0	1.464602E+0	1.441660E+0	1.407533E+0	1.451351E+0	1.304132E+0	1.306542E+0	1.270190E+0	1.479012E+0	1.395553E+0	1.355386E+0	1.323218E+0	1.390920E+0	1.467189E+0	1.463472E+0	1.437984E+0	1.428294E+0	1.438346E+0	1.488339E+0	1.444994E+0	1.391886E+0	1.329731E+0	1.456199E+0	1.313745E+0	1.456843E+0	1.431180E+0	1.497341E+0	1.361853E+0	1.492766E+0	1.444881E+0	1.491747E+0	1.480577E+0	1.252676E+0	1.381252E+0	1.457747E+0	1.412413E+0	1.286935E+0	1.276861E+0	1.287264E+0	1.361630E+0	1.335217E+0	1.350280E+0	1.347019E+0	1.161111E+0	1.464646E+0	1.498383E+0	1.374120E+0	1.440723E+0	1.508837E+0	1.477467E+0	1.378539E+0	1.438571E+0	1.513711E+0	1.317348E+0	1.330527E+0	1.296568E+0	1.475418E+0	1.355348E+0	1.340331E+0	1.390524E+0	1.481806E+0	1.453087E+0	1.474990E+0	1.494303E+0	1.504297E+0	1.468923E+0	1.397169E+0	1.460854E+0	1.467299E+0	1.368353E+0	1.283686E+0	1.275006E+0	1.476881E+0	1.435522E+0	1.275616E+0	1.378665E+0
5.452690E+2	1.429486E+0	1.177731E+0	1.413807E+0	1.308865E+0	1.344917E+0	1.215374E+0	1.238780E+0	1.171938E+0	1.385242E+0	1.308281E+0	1.308600E+0	1.264520E+0	1.373708E+0	1.395491E+0	1.388551E+0	1.344090E+0	1.358468E+0	1.413198E+0	1.333917E+0	1.361443E+0	1.407119E+0	1.347623E+0	1.256985E+0	1.248469E+0	1.371984E+0	1.404775E+0	1.324284E+0	1.243755E+0	1.353677E+0	1.389262E+0	1.381482E+0	1.386865E+0	1.365694E+0	1.438557E+0	1.321564E+0	1.394880E+0	1.417659E+0	1.410133E+0	1.190892E+0	1.323347E+0	1.365030E+0	1.332987E+0	1.256191E+0	1.429076E+0	1.285793E+0	1.395178E+0	1.398349E+0	1.452291E+0	1.347316E+0	1.338332E+0	1.424076E+0	1.371305E+0	1.410167E+0	1.211581E+0	1.237341E+0	1.258344E+0	1.351294E+0	1.271874E+0	1.290661E+0	1.106516E+0	1.375651E+0	1.359965E+0	1.322825E+0	1.341742E+0	1.221959E+0	1.329367E+0	1.331650E+0	1.344349E+0	1.462725E+0	1.223697E+0	1.248848E+0	1.244299E+0	1.358241E+0	1.246551E+0	1.312521E+0	1.101689E+0	1.320063E+0	1.319693E+0	1.361909E+0	1.337887E+0	1.347826E+0	1.334042E+0	1.326278E+0	1.346767E+0	1.432559E+0	1.217280E+0	1.297707E+0	1.256267E+0	1.415402E+0	1.361596E+0	1.370861E+0	1.269275E+0	1.334633E+0	1.326208E+0	1.414610E+0	1.434161E+0	1.351436E+0	1.325659E+0	1.330807E+0	1.355361E+0	1.401991E+0	1.239621E+0	1.234966E+0	1.182453E+0	1.364823E+0	1.287774E+0	1.305721E+0	1.281613E+0	1.373686E+0	1.389793E+0	1.365741E+0	1.341034E+0	1.404380E+0	1.390019E+0	1.385699E+0	1.341917E+0	1.416341E+0	1.249701E+0	1.303746E+0	1.159829E+0	1.402681E+0	1.292264E+0	1.361452E+0	1.286836E+0	1.377087E+0	1.372869E+0	1.412380E+0	1.364727E+0	1.215553E+0	1.336328E+0	1.358254E+0	1.332614E+0	1.370042E+0	1.206855E+0	1.223228E+0	1.251083E+0	1.407760E+0	1.268873E+0	1.269622E+0	1.165901E+0	1.413066E+0	1.330256E+0	1.382482E+0	1.364133E+0	1.406805E+0	1.331956E+0	1.313061E+0	1.304404E+0	1.417761E+0	1.214974E+0	1.181271E+0	1.264249E+0	1.370195E+0	1.248404E+0	1.299039E+0	1.274831E+0	1.358269E+0	1.372484E+0	1.374713E+0	1.334342E+0	1.388529E+0	1.400588E+0	1.345001E+0	1.316149E+0	1.405326E+0	1.346407E+0	1.253887E+0	1.224543E+0	1.313525E+0	1.354915E+0	1.309383E+0	1.292020E+0
5.455340E+2	1.331055E+0	1.149017E+0	1.323572E+0	1.294532E+0	1.272865E+0	1.131031E+0	1.189146E+0	1.102972E+0	1.288077E+0	1.203665E+0	1.220507E+0	1.165934E+0	1.329086E+0	1.317227E+0	1.310441E+0	1.302675E+0	1.310996E+0	1.272657E+0	1.246424E+0	1.281471E+0	1.370888E+0	1.294271E+0	1.175041E+0	1.194417E+0	1.321337E+0	1.300944E+0	1.233409E+0	1.219439E+0	1.288633E+0	1.321467E+0	1.270016E+0	1.332395E+0	1.309575E+0	1.291848E+0	1.277261E+0	1.317787E+0	1.355182E+0	1.292373E+0	1.163464E+0	1.270490E+0	1.283085E+0	1.302577E+0	1.259451E+0	1.312150E+0	1.251245E+0	1.345861E+0	1.362029E+0	1.352416E+0	1.254494E+0	1.250961E+0	1.346370E+0	1.307196E+0	1.229022E+0	1.151298E+0	1.118342E+0	1.186548E+0	1.324392E+0	1.185667E+0	1.220933E+0	1.068603E+0	1.258643E+0	1.256533E+0	1.348953E+0	1.240923E+0	1.130068E+0	1.239004E+0	1.260713E+0	1.312032E+0	1.326952E+0	1.126808E+0	1.184775E+0	1.134258E+0	1.260900E+0	1.209785E+0	1.236382E+0	1.028331E+0	1.207926E+0	1.293776E+0	1.287047E+0	1.250557E+0	1.308339E+0	1.244659E+0	1.266738E+0	1.235487E+0	1.297144E+0	1.237471E+0	1.229998E+0	1.143988E+0	1.337754E+0	1.240523E+0	1.285498E+0	1.205370E+0	1.249003E+0	1.274015E+0	1.274384E+0	1.274875E+0	1.323498E+0	1.273814E+0	1.267386E+0	1.242415E+0	1.376112E+0	1.172547E+0	1.165418E+0	1.194211E+0	1.295533E+0	1.245739E+0	1.227840E+0	1.205248E+0	1.271682E+0	1.278509E+0	1.308960E+0	1.323008E+0	1.272022E+0	1.317225E+0	1.359608E+0	1.317594E+0	1.340045E+0	1.136833E+0	1.284284E+0	1.129527E+0	1.345577E+0	1.225781E+0	1.270677E+0	1.242678E+0	1.302970E+0	1.330193E+0	1.357051E+0	1.295806E+0	1.131225E+0	1.275447E+0	1.315532E+0	1.228480E+0	1.279751E+0	1.153431E+0	1.119894E+0	1.172118E+0	1.293218E+0	1.173708E+0	1.209309E+0	1.243074E+0	1.284117E+0	1.336257E+0	1.257553E+0	1.295412E+0	1.338207E+0	1.285685E+0	1.274818E+0	1.227314E+0	1.353446E+0	1.128501E+0	1.160768E+0	1.139018E+0	1.267314E+0	1.219547E+0	1.219204E+0	1.136872E+0	1.309348E+0	1.280864E+0	1.310725E+0	1.344096E+0	1.316385E+0	1.282291E+0	1.238031E+0	1.295473E+0	1.322875E+0	1.239823E+0	1.181762E+0	1.127379E+0	1.284121E+0	1.246403E+0	1.211152E+0	1.192543E+0
5.457720E+2	1.214138E+0	1.081095E+0	1.239702E+0	1.223458E+0	1.242727E+0	1.049852E+0	1.210703E+0	1.078055E+0	1.279192E+0	1.208794E+0	1.190412E+0	1.100376E+0	1.212890E+0	1.220576E+0	1.269311E+0	1.198918E+0	1.207378E+0	1.249424E+0	1.240214E+0	1.178956E+0	1.286919E+0	1.201023E+0	1.100392E+0	1.128065E+0	1.182450E+0	1.221340E+0	1.140166E+0	1.129580E+0	1.245422E+0	1.292412E+0	1.232287E+0	1.255194E+0	1.283631E+0	1.283184E+0	1.201843E+0	1.188592E+0	1.306345E+0	1.245492E+0	1.086132E+0	1.248106E+0	1.209904E+0	1.183188E+0	1.104123E+0	1.242693E+0	1.177607E+0	1.223059E+0	1.220061E+0	1.280231E+0	1.193659E+0	1.171298E+0	1.217397E+0	1.239881E+0	1.266000E+0	1.101857E+0	1.095772E+0	1.127713E+0	1.224642E+0	1.131989E+0	1.190643E+0	9.786248E-1	1.245159E+0	1.234370E+0	1.290551E+0	1.196950E+0	1.026029E+0	1.184465E+0	1.219148E+0	1.213997E+0	1.224604E+0	1.096443E+0	1.114249E+0	1.099140E+0	1.198081E+0	1.091495E+0	1.178125E+0	1.055145E+0	1.208388E+0	1.178430E+0	1.218898E+0	1.235921E+0	1.192575E+0	1.186789E+0	1.214711E+0	1.164672E+0	1.271101E+0	1.113927E+0	1.142650E+0	1.112587E+0	1.295448E+0	1.195664E+0	1.192264E+0	1.149915E+0	1.249003E+0	1.166245E+0	1.240243E+0	1.225375E+0	1.214607E+0	1.249447E+0	1.208229E+0	1.181102E+0	1.298484E+0	1.094722E+0	1.111608E+0	1.087479E+0	1.217930E+0	1.157898E+0	1.112711E+0	1.180742E+0	1.184117E+0	1.227415E+0	1.194935E+0	1.249929E+0	1.248109E+0	1.218736E+0	1.273784E+0	1.200037E+0	1.285271E+0	1.106563E+0	1.230764E+0	1.088159E+0	1.250204E+0	1.152813E+0	1.177699E+0	1.141595E+0	1.258902E+0	1.221375E+0	1.274896E+0	1.196085E+0	1.087206E+0	1.161958E+0	1.156344E+0	1.193957E+0	1.235627E+0	1.073295E+0	1.101946E+0	1.145120E+0	1.278490E+0	1.098033E+0	1.118037E+0	1.081278E+0	1.217161E+0	1.223809E+0	1.182803E+0	1.258693E+0	1.207931E+0	1.226029E+0	1.168782E+0	1.222018E+0	1.304418E+0	1.112596E+0	1.154570E+0	1.130490E+0	1.271405E+0	1.157870E+0	1.194979E+0	1.128726E+0	1.248562E+0	1.206268E+0	1.205193E+0	1.198279E+0	1.271082E+0	1.302963E+0	1.196928E+0	1.199531E+0	1.293774E+0	1.154657E+0	1.066019E+0	1.111275E+0	1.203261E+0	1.243302E+0	1.100642E+0	1.176495E+0
5.460160E+2	1.236122E+0	1.084409E+0	1.245010E+0	1.176872E+0	1.249318E+0	1.193761E+0	1.149041E+0	1.020658E+0	1.248658E+0	1.234435E+0	1.135149E+0	1.078355E+0	1.180198E+0	1.265368E+0	1.237883E+0	1.172760E+0	1.216057E+0	1.240356E+0	1.138227E+0	1.144070E+0	1.250262E+0	1.166617E+0	1.106827E+0	1.104773E+0	1.237796E+0	1.195960E+0	1.132595E+0	1.097336E+0	1.200394E+0	1.250285E+0	1.181973E+0	1.221741E+0	1.217451E+0	1.211563E+0	1.210282E+0	1.225809E+0	1.257508E+0	1.170704E+0	1.065002E+0	1.187153E+0	1.165582E+0	1.178119E+0	1.115527E+0	1.201017E+0	1.184425E+0	1.269418E+0	1.215344E+0	1.207145E+0	1.160623E+0	1.139945E+0	1.218475E+0	1.218509E+0	1.205150E+0	1.053284E+0	1.048069E+0	1.074861E+0	1.234170E+0	1.148254E+0	1.179784E+0	9.715476E-1	1.205675E+0	1.214052E+0	1.166570E+0	1.175185E+0	9.890606E-1	1.081806E+0	1.169825E+0	1.182216E+0	1.177803E+0	1.048669E+0	1.096734E+0	1.056057E+0	1.211097E+0	1.108013E+0	1.136222E+0	1.138114E+0	1.149078E+0	1.192657E+0	1.183867E+0	1.180303E+0	1.226655E+0	1.165590E+0	1.173668E+0	1.127403E+0	1.207183E+0	1.132193E+0	1.165393E+0	1.054512E+0	1.273491E+0	1.108101E+0	1.148674E+0	1.108194E+0	1.130877E+0	1.181709E+0	1.237092E+0	1.179799E+0	1.207195E+0	1.147314E+0	1.183713E+0	1.152057E+0	1.217494E+0	1.053761E+0	1.077089E+0	1.093357E+0	1.276689E+0	1.150353E+0	1.169711E+0	1.122611E+0	1.194828E+0	1.239557E+0	1.203779E+0	1.246518E+0	1.244218E+0	1.267676E+0	1.226815E+0	1.169924E+0	1.247609E+0	1.092198E+0	1.128048E+0	1.064590E+0	1.263746E+0	1.157137E+0	1.183202E+0	1.110205E+0	1.207322E+0	1.188301E+0	1.287750E+0	1.201464E+0	1.047429E+0	1.168460E+0	1.195556E+0	1.175846E+0	1.197153E+0	1.096784E+0	1.041305E+0	1.041192E+0	1.199400E+0	1.075674E+0	1.165007E+0	1.130240E+0	1.277172E+0	1.218896E+0	1.167122E+0	1.250825E+0	1.222921E+0	1.171394E+0	1.156613E+0	1.177883E+0	1.274892E+0	1.079303E+0	1.083994E+0	1.071690E+0	1.229901E+0	1.153909E+0	1.121204E+0	1.130899E+0	1.235222E+0	1.165213E+0	1.244347E+0	1.191450E+0	1.213479E+0	1.169735E+0	1.233286E+0	1.179390E+0	1.236112E+0	1.216309E+0	1.091499E+0	1.055982E+0	1.181208E+0	1.222634E+0	1.088364E+0	1.105896E+0
5.467660E+2	1.241617E+0	1.099318E+0	1.247133E+0	1.201957E+0	1.281809E+0	1.221699E+0	1.135002E+0	1.106533E+0	1.255875E+0	1.319050E+0	1.217223E+0	1.157424E+0	1.204494E+0	1.230951E+0	1.218472E+0	1.220715E+0	1.213505E+0	1.281725E+0	1.186371E+0	1.227261E+0	1.269869E+0	1.226456E+0	1.094384E+0	1.106091E+0	1.182972E+0	1.234031E+0	1.174245E+0	1.176095E+0	1.251791E+0	1.255125E+0	1.249200E+0	1.278353E+0	1.261395E+0	1.308019E+0	1.202370E+0	1.293862E+0	1.249588E+0	1.242142E+0	1.132443E+0	1.232388E+0	1.210933E+0	1.222609E+0	1.158431E+0	1.250797E+0	1.166244E+0	1.294078E+0	1.255435E+0	1.305656E+0	1.165866E+0	1.256613E+0	1.229267E+0	1.265525E+0	1.236043E+0	1.257120E+0	1.058328E+0	1.103779E+0	1.290208E+0	1.242056E+0	1.143778E+0	1.051416E+0	1.214825E+0	1.224211E+0	1.261860E+0	1.180517E+0	1.066166E+0	1.192486E+0	1.228569E+0	1.216152E+0	1.230777E+0	1.195569E+0	1.136377E+0	1.060272E+0	1.215056E+0	1.242820E+0	1.135713E+0	1.151269E+0	1.218121E+0	1.283106E+0	1.190107E+0	1.254460E+0	1.215296E+0	1.205124E+0	1.244193E+0	1.203540E+0	1.304719E+0	1.152867E+0	1.102335E+0	1.079030E+0	1.300801E+0	1.156204E+0	1.180156E+0	1.205899E+0	1.220116E+0	1.187027E+0	1.298542E+0	1.270958E+0	1.215747E+0	1.238561E+0	1.213559E+0	1.160662E+0	1.257749E+0	1.108547E+0	1.066428E+0	1.075720E+0	1.299414E+0	1.189692E+0	1.153345E+0	1.108933E+0	1.176663E+0	1.226402E+0	1.237287E+0	1.279160E+0	1.243105E+0	1.249322E+0	1.201880E+0	1.227834E+0	1.267662E+0	1.040896E+0	1.190759E+0	1.085273E+0	1.306721E+0	1.232808E+0	1.230515E+0	1.089456E+0	1.220843E+0	1.265115E+0	1.254217E+0	1.243500E+0	1.045838E+0	1.205107E+0	1.202579E+0	1.183206E+0	1.232552E+0	1.083426E+0	1.138332E+0	1.110476E+0	1.255036E+0	1.149056E+0	1.125510E+0	1.216994E+0	1.269732E+0	1.189418E+0	1.184895E+0	1.246627E+0	1.217731E+0	1.190349E+0	1.210502E+0	1.192595E+0	1.310213E+0	1.080296E+0	1.137880E+0	1.090091E+0	1.286603E+0	1.147685E+0	1.150934E+0	1.094507E+0	1.261412E+0	1.222789E+0	1.228115E+0	1.251924E+0	1.301286E+0	1.271953E+0	1.195873E+0	1.214374E+0	1.289462E+0	1.210564E+0	1.125618E+0	1.073698E+0	1.284121E+0	1.182329E+0	1.112921E+0	1.144406E+0
5.475070E+2	1.382019E+0	1.257801E+0	1.372937E+0	1.294531E+0	1.347271E+0	1.357699E+0	1.318993E+0	1.168824E+0	1.359701E+0	1.408284E+0	1.273034E+0	1.186952E+0	1.356036E+0	1.373332E+0	1.391323E+0	1.336680E+0	1.367654E+0	1.383731E+0	1.297678E+0	1.400084E+0	1.355969E+0	1.402974E+0	1.185767E+0	1.235286E+0	1.379817E+0	1.423234E+0	1.259914E+0	1.265426E+0	1.375966E+0	1.408147E+0	1.366303E+0	1.419892E+0	1.411756E+0	1.442599E+0	1.313124E+0	1.364577E+0	1.424698E+0	1.381671E+0	1.201234E+0	1.373827E+0	1.382034E+0	1.279486E+0	1.244788E+0	1.352091E+0	1.303978E+0	1.419347E+0	1.388444E+0	1.372845E+0	1.346268E+0	1.356837E+0	1.364714E+0	1.401756E+0	1.307190E+0	1.439273E+0	1.216312E+0	1.205494E+0	1.380995E+0	1.387364E+0	1.306089E+0	1.229354E+0	1.353503E+0	1.395979E+0	1.346389E+0	1.338635E+0	1.165453E+0	1.358239E+0	1.300617E+0	1.322265E+0	1.389181E+0	1.409890E+0	1.244241E+0	1.156267E+0	1.354277E+0	1.365371E+0	1.306902E+0	1.267630E+0	1.289482E+0	1.434022E+0	1.333115E+0	1.340325E+0	1.306716E+0	1.350658E+0	1.367320E+0	1.296716E+0	1.339756E+0	1.392257E+0	1.256875E+0	1.238200E+0	1.410046E+0	1.396188E+0	1.332116E+0	1.221215E+0	1.335149E+0	1.344574E+0	1.382051E+0	1.370449E+0	1.320078E+0	1.313216E+0	1.341464E+0	1.284368E+0	1.430266E+0	1.374788E+0	1.197399E+0	1.213659E+0	1.373695E+0	1.322800E+0	1.284840E+0	1.212087E+0	1.323383E+0	1.377653E+0	1.369462E+0	1.404858E+0	1.289819E+0	1.415100E+0	1.349748E+0	1.318753E+0	1.426122E+0	1.263553E+0	1.302665E+0	1.189650E+0	1.411514E+0	1.321995E+0	1.382358E+0	1.278857E+0	1.342534E+0	1.380336E+0	1.384436E+0	1.370105E+0	1.135468E+0	1.294953E+0	1.333675E+0	1.319032E+0	1.352603E+0	1.240478E+0	1.204308E+0	1.241914E+0	1.287762E+0	1.263142E+0	1.178885E+0	1.288311E+0	1.369422E+0	1.310603E+0	1.302509E+0	1.392460E+0	1.343972E+0	1.348683E+0	1.343192E+0	1.376784E+0	1.359243E+0	1.222425E+0	1.203208E+0	1.211732E+0	1.381302E+0	1.203137E+0	1.217553E+0	1.219972E+0	1.357773E+0	1.349953E+0	1.379964E+0	1.361652E+0	1.334281E+0	1.358093E+0	1.233815E+0	1.276922E+0	1.405864E+0	1.365743E+0	1.219334E+0	1.249240E+0	1.396020E+0	1.380750E+0	1.197338E+0	1.369038E+0
5.482600E+2	1.454471E+0	1.309708E+0	1.436101E+0	1.388898E+0	1.413670E+0	1.448895E+0	1.332028E+0	1.263152E+0	1.427994E+0	1.526230E+0	1.348543E+0	1.341089E+0	1.390057E+0	1.451596E+0	1.463421E+0	1.390301E+0	1.338557E+0	1.463633E+0	1.399664E+0	1.362514E+0	1.433119E+0	1.461314E+0	1.311039E+0	1.265608E+0	1.454484E+0	1.536297E+0	1.323335E+0	1.307184E+0	1.446010E+0	1.480300E+0	1.398829E+0	1.416890E+0	1.415994E+0	1.480145E+0	1.382214E+0	1.438477E+0	1.448458E+0	1.449759E+0	1.282611E+0	1.436684E+0	1.418112E+0	1.409012E+0	1.282261E+0	1.451073E+0	1.359888E+0	1.485928E+0	1.462491E+0	1.513125E+0	1.463213E+0	1.441127E+0	1.392234E+0	1.408705E+0	1.453229E+0	1.477870E+0	1.297355E+0	1.311695E+0	1.482987E+0	1.467609E+0	1.391248E+0	1.304166E+0	1.447876E+0	1.453233E+0	1.397108E+0	1.399482E+0	1.231997E+0	1.442721E+0	1.417000E+0	1.382056E+0	1.408211E+0	1.429981E+0	1.248387E+0	1.192791E+0	1.434075E+0	1.430910E+0	1.353916E+0	1.285335E+0	1.378916E+0	1.453334E+0	1.481884E+0	1.450096E+0	1.403002E+0	1.444055E+0	1.386976E+0	1.387229E+0	1.417410E+0	1.485032E+0	1.331818E+0	1.296277E+0	1.445390E+0	1.416186E+0	1.409610E+0	1.333179E+0	1.384670E+0	1.373570E+0	1.417764E+0	1.407206E+0	1.419850E+0	1.473419E+0	1.394225E+0	1.339764E+0	1.460936E+0	1.399369E+0	1.275068E+0	1.264764E+0	1.398637E+0	1.449985E+0	1.345228E+0	1.307830E+0	1.393714E+0	1.441895E+0	1.381100E+0	1.455525E+0	1.402155E+0	1.465261E+0	1.472104E+0	1.343075E+0	1.438351E+0	1.467224E+0	1.376727E+0	1.238712E+0	1.438593E+0	1.414423E+0	1.379606E+0	1.293221E+0	1.419151E+0	1.451818E+0	1.441446E+0	1.360818E+0	1.271239E+0	1.481147E+0	1.348890E+0	1.305447E+0	1.408009E+0	1.486414E+0	1.248456E+0	1.313746E+0	1.385943E+0	1.419076E+0	1.287770E+0	1.302679E+0	1.435881E+0	1.420871E+0	1.366804E+0	1.443869E+0	1.449461E+0	1.402763E+0	1.382015E+0	1.390904E+0	1.489986E+0	1.406801E+0	1.316222E+0	1.287591E+0	1.442099E+0	1.405711E+0	1.309497E+0	1.307420E+0	1.460561E+0	1.402021E+0	1.397156E+0	1.360677E+0	1.434388E+0	1.506830E+0	1.310749E+0	1.401490E+0	1.492627E+0	1.432096E+0	1.253454E+0	1.220247E+0	1.426241E+0	1.387985E+0	1.335475E+0	1.288810E+0
5.490320E+2	1.431983E+0	1.290381E+0	1.404255E+0	1.396065E+0	1.448046E+0	1.434661E+0	1.346569E+0	1.210650E+0	1.433542E+0	1.411359E+0	1.396145E+0	1.275028E+0	1.420100E+0	1.506755E+0	1.434304E+0	1.373297E+0	1.408999E+0	1.453998E+0	1.404325E+0	1.353930E+0	1.465937E+0	1.395496E+0	1.269425E+0	1.267805E+0	1.376688E+0	1.467650E+0	1.310085E+0	1.247983E+0	1.404164E+0	1.423643E+0	1.345919E+0	1.409598E+0	1.445111E+0	1.434512E+0	1.344767E+0	1.391158E+0	1.487176E+0	1.465944E+0	1.233156E+0	1.374301E+0	1.381522E+0	1.414644E+0	1.307244E+0	1.412289E+0	1.363982E+0	1.486418E+0	1.429477E+0	1.438674E+0	1.376681E+0	1.432388E+0	1.327479E+0	1.384663E+0	1.392847E+0	1.427999E+0	1.249652E+0	1.276791E+0	1.385479E+0	1.485502E+0	1.346669E+0	1.278382E+0	1.384800E+0	1.450468E+0	1.431945E+0	1.361730E+0	1.254703E+0	1.407430E+0	1.407025E+0	1.348660E+0	1.385068E+0	1.436677E+0	1.265443E+0	1.220419E+0	1.331075E+0	1.433039E+0	1.291062E+0	1.292926E+0	1.358062E+0	1.484331E+0	1.420936E+0	1.425703E+0	1.364595E+0	1.404519E+0	1.375414E+0	1.382969E+0	1.494114E+0	1.483590E+0	1.345774E+0	1.276917E+0	1.432539E+0	1.461051E+0	1.366019E+0	1.271917E+0	1.363003E+0	1.414647E+0	1.407782E+0	1.425339E+0	1.385072E+0	1.422094E+0	1.395290E+0	1.329545E+0	1.419724E+0	1.404486E+0	1.212123E+0	1.231294E+0	1.406397E+0	1.435433E+0	1.342404E+0	1.297573E+0	1.410483E+0	1.423181E+0	1.423449E+0	1.436038E+0	1.377132E+0	1.461592E+0	1.376421E+0	1.378979E+0	1.475520E+0	1.400014E+0	1.335102E+0	1.218508E+0	1.526901E+0	1.407394E+0	1.406015E+0	1.259704E+0	1.445691E+0	1.505158E+0	1.521366E+0	1.409212E+0	1.211308E+0	1.440359E+0	1.354156E+0	1.325255E+0	1.391592E+0	1.421474E+0	1.256702E+0	1.282669E+0	1.355397E+0	1.451755E+0	1.314458E+0	1.317583E+0	1.400170E+0	1.420869E+0	1.327600E+0	1.462756E+0	1.413721E+0	1.350912E+0	1.355360E+0	1.299695E+0	1.474170E+0	1.475382E+0	1.207022E+0	1.262454E+0	1.414039E+0	1.451541E+0	1.273159E+0	1.274831E+0	1.370128E+0	1.407525E+0	1.405749E+0	1.451384E+0	1.400273E+0	1.433896E+0	1.362918E+0	1.368096E+0	1.438735E+0	1.428963E+0	1.228404E+0	1.271782E+0	1.407455E+0	1.467560E+0	1.243383E+0	1.247096E+0
5.497740E+2	1.431985E+0	1.258904E+0	1.431326E+0	1.322603E+0	1.426382E+0	1.425177E+0	1.262342E+0	1.216879E+0	1.362475E+0	1.428284E+0	1.329940E+0	1.252509E+0	1.313624E+0	1.442640E+0	1.338175E+0	1.419075E+0	1.369697E+0	1.367861E+0	1.339094E+0	1.391501E+0	1.370036E+0	1.402974E+0	1.284443E+0	1.254621E+0	1.336481E+0	1.411696E+0	1.309138E+0	1.319341E+0	1.363685E+0	1.403303E+0	1.344182E+0	1.386865E+0	1.433994E+0	1.377910E+0	1.328947E+0	1.413487E+0	1.412381E+0	1.438601E+0	1.218318E+0	1.365728E+0	1.369669E+0	1.356074E+0	1.227407E+0	1.384506E+0	1.321251E+0	1.383839E+0	1.351654E+0	1.460007E+0	1.319522E+0	1.380477E+0	1.398174E+0	1.332305E+0	1.344168E+0	1.386363E+0	1.239909E+0	1.212473E+0	1.391081E+0	1.370558E+0	1.278657E+0	1.230870E+0	1.377577E+0	1.370119E+0	1.352027E+0	1.339522E+0	1.183409E+0	1.419195E+0	1.344400E+0	1.317418E+0	1.389694E+0	1.415693E+0	1.275583E+0	1.204966E+0	1.357108E+0	1.387217E+0	1.277262E+0	1.253968E+0	1.323307E+0	1.390832E+0	1.364309E+0	1.354960E+0	1.317533E+0	1.405667E+0	1.325122E+0	1.356879E+0	1.383319E+0	1.435520E+0	1.321480E+0	1.209378E+0	1.390768E+0	1.412944E+0	1.301846E+0	1.238645E+0	1.365068E+0	1.378404E+0	1.384152E+0	1.342509E+0	1.318937E+0	1.402394E+0	1.350524E+0	1.336000E+0	1.391450E+0	1.418309E+0	1.249178E+0	1.238531E+0	1.396976E+0	1.388009E+0	1.312495E+0	1.290163E+0	1.356453E+0	1.381700E+0	1.363413E+0	1.410211E+0	1.402713E+0	1.403478E+0	1.374682E+0	1.349446E+0	1.412428E+0	1.360515E+0	1.329155E+0	1.165118E+0	1.417399E+0	1.418747E+0	1.322391E+0	1.276197E+0	1.369575E+0	1.393140E+0	1.395055E+0	1.398458E+0	1.207067E+0	1.383025E+0	1.313190E+0	1.308278E+0	1.361835E+0	1.416410E+0	1.229536E+0	1.257195E+0	1.383215E+0	1.386400E+0	1.282435E+0	1.262230E+0	1.399180E+0	1.370102E+0	1.349031E+0	1.351546E+0	1.405075E+0	1.325825E+0	1.340874E+0	1.347360E+0	1.405108E+0	1.411275E+0	1.237541E+0	1.219815E+0	1.435084E+0	1.432301E+0	1.251139E+0	1.230838E+0	1.369140E+0	1.384999E+0	1.317410E+0	1.316785E+0	1.386854E+0	1.360392E+0	1.327083E+0	1.335758E+0	1.391313E+0	1.381938E+0	1.200333E+0	1.213808E+0	1.337213E+0	1.415888E+0	1.287895E+0	1.224631E+0
5.505170E+2	1.364032E+0	1.205342E+0	1.406379E+0	1.343507E+0	1.400013E+0	1.332925E+0	1.282396E+0	1.201303E+0	1.353593E+0	1.411359E+0	1.317902E+0	1.193457E+0	1.305670E+0	1.436982E+0	1.334939E+0	1.344964E+0	1.378372E+0	1.367860E+0	1.311137E+0	1.294354E+0	1.402002E+0	1.397487E+0	1.246686E+0	1.228257E+0	1.356846E+0	1.409392E+0	1.270326E+0	1.238467E+0	1.353676E+0	1.436232E+0	1.360664E+0	1.374426E+0	1.369401E+0	1.411410E+0	1.332109E+0	1.376271E+0	1.398741E+0	1.418507E+0	1.199885E+0	1.303821E+0	1.303701E+0	1.424781E+0	1.256734E+0	1.375825E+0	1.263065E+0	1.373481E+0	1.365805E+0	1.410980E+0	1.269176E+0	1.388701E+0	1.319926E+0	1.392676E+0	1.353529E+0	1.362942E+0	1.213748E+0	1.194523E+0	1.332239E+0	1.391702E+0	1.326091E+0	1.219749E+0	1.421394E+0	1.407984E+0	1.316163E+0	1.353733E+0	1.197139E+0	1.380694E+0	1.359915E+0	1.366435E+0	1.386094E+0	1.368810E+0	1.204598E+0	1.138005E+0	1.285233E+0	1.378692E+0	1.308436E+0	1.234238E+0	1.308478E+0	1.454857E+0	1.338876E+0	1.356912E+0	1.314829E+0	1.364984E+0	1.380616E+0	1.296182E+0	1.410780E+0	1.385047E+0	1.263593E+0	1.204216E+0	1.381129E+0	1.392408E+0	1.355726E+0	1.249736E+0	1.305747E+0	1.326691E+0	1.366817E+0	1.372898E+0	1.321218E+0	1.462014E+0	1.290302E+0	1.311797E+0	1.343047E+0	1.324101E+0	1.173541E+0	1.172955E+0	1.386998E+0	1.426270E+0	1.287661E+0	1.237733E+0	1.326178E+0	1.380690E+0	1.380167E+0	1.368316E+0	1.370457E+0	1.358210E+0	1.423392E+0	1.293273E+0	1.357163E+0	1.381549E+0	1.354563E+0	1.166081E+0	1.397384E+0	1.383615E+0	1.327340E+0	1.246937E+0	1.323505E+0	1.396872E+0	1.375494E+0	1.371083E+0	1.183199E+0	1.385387E+0	1.322552E+0	1.276020E+0	1.333617E+0	1.390156E+0	1.209159E+0	1.230195E+0	1.300309E+0	1.349707E+0	1.225323E+0	1.238814E+0	1.375373E+0	1.305143E+0	1.368370E+0	1.352069E+0	1.345703E+0	1.359276E+0	1.330446E+0	1.380903E+0	1.424612E+0	1.423698E+0	1.213699E+0	1.176722E+0	1.376043E+0	1.416459E+0	1.267655E+0	1.216716E+0	1.374574E+0	1.413037E+0	1.335557E+0	1.358240E+0	1.367837E+0	1.327657E+0	1.317074E+0	1.298125E+0	1.410714E+0	1.409628E+0	1.176146E+0	1.200925E+0	1.384586E+0	1.341480E+0	1.185059E+0	1.275974E+0
5.512620E+2	1.385517E+0	1.192641E+0	1.391514E+0	1.296920E+0	1.332670E+0	1.330289E+0	1.426280E+0	1.153251E+0	1.333050E+0	1.394951E+0	1.351824E+0	1.196961E+0	1.263258E+0	1.406337E+0	1.377458E+0	1.344963E+0	1.291600E+0	1.374660E+0	1.330811E+0	1.292742E+0	1.344889E+0	1.346628E+0	1.312328E+0	1.231331E+0	1.333344E+0	1.376508E+0	1.322392E+0	1.230012E+0	1.345035E+0	1.407179E+0	1.334207E+0	1.324677E+0	1.380517E+0	1.398126E+0	1.315760E+0	1.364044E+0	1.373219E+0	1.334230E+0	1.213821E+0	1.317155E+0	1.314008E+0	1.296380E+0	1.261078E+0	1.353250E+0	1.319886E+0	1.372987E+0	1.341748E+0	1.395998E+0	1.284382E+0	1.338847E+0	1.335574E+0	1.348869E+0	1.302509E+0	1.349497E+0	1.169635E+0	1.178071E+0	1.360259E+0	1.442128E+0	1.257510E+0	1.209132E+0	1.320756E+0	1.343802E+0	1.332047E+0	1.321312E+0	1.121618E+0	1.330968E+0	1.327771E+0	1.272172E+0	1.323350E+0	1.402296E+0	1.193995E+0	1.178743E+0	1.337867E+0	1.377627E+0	1.244557E+0	1.243852E+0	1.269554E+0	1.363900E+0	1.317759E+0	1.284707E+0	1.298059E+0	1.373577E+0	1.353448E+0	1.301506E+0	1.362484E+0	1.366299E+0	1.248088E+0	1.174963E+0	1.352747E+0	1.307006E+0	1.273390E+0	1.202729E+0	1.287693E+0	1.345056E+0	1.291190E+0	1.317517E+0	1.278460E+0	1.336028E+0	1.310020E+0	1.317713E+0	1.371323E+0	1.371719E+0	1.178616E+0	1.193759E+0	1.329901E+0	1.349207E+0	1.260010E+0	1.265658E+0	1.281461E+0	1.338197E+0	1.328041E+0	1.322520E+0	1.296491E+0	1.372281E+0	1.319015E+0	1.333229E+0	1.360588E+0	1.356920E+0	1.259958E+0	1.162716E+0	1.360882E+0	1.387397E+0	1.319640E+0	1.258106E+0	1.342533E+0	1.405410E+0	1.389467E+0	1.343219E+0	1.171002E+0	1.326872E+0	1.336601E+0	1.314502E+0	1.291038E+0	1.401672E+0	1.208190E+0	1.207270E+0	1.330854E+0	1.364041E+0	1.221052E+0	1.217525E+0	1.357520E+0	1.298049E+0	1.268532E+0	1.336331E+0	1.322646E+0	1.374327E+0	1.273083E+0	1.264387E+0	1.364515E+0	1.394377E+0	1.224190E+0	1.165500E+0	1.317588E+0	1.340638E+0	1.245632E+0	1.258538E+0	1.302428E+0	1.324920E+0	1.310249E+0	1.353847E+0	1.363922E+0	1.344886E+0	1.264903E+0	1.316147E+0	1.397779E+0	1.349021E+0	1.196015E+0	1.196629E+0	1.364165E+0	1.303242E+0	1.228036E+0	1.218212E+0
5.520210E+2	1.356037E+0	1.230191E+0	1.423361E+0	1.322602E+0	1.387297E+0	1.282319E+0	1.410735E+0	1.157698E+0	1.325279E+0	1.364178E+0	1.395599E+0	1.226488E+0	1.271209E+0	1.418592E+0	1.393170E+0	1.317062E+0	1.359488E+0	1.377497E+0	1.367567E+0	1.360906E+0	1.385380E+0	1.407460E+0	1.376252E+0	1.217710E+0	1.324993E+0	1.390354E+0	1.346056E+0	1.256441E+0	1.359589E+0	1.368925E+0	1.350690E+0	1.367994E+0	1.387931E+0	1.394081E+0	1.323145E+0	1.362448E+0	1.331424E+0	1.334232E+0	1.404908E+0	1.312871E+0	1.298032E+0	1.363961E+0	1.356666E+0	1.431967E+0	1.304433E+0	1.385809E+0	1.420515E+0	1.413702E+0	1.323192E+0	1.366088E+0	1.335035E+0	1.306128E+0	1.339953E+0	1.374218E+0	1.341980E+0	1.155136E+0	1.396125E+0	1.405801E+0	1.342093E+0	1.254627E+0	1.351093E+0	1.385364E+0	1.415551E+0	1.327530E+0	1.177601E+0	1.339526E+0	1.352156E+0	1.315264E+0	1.341864E+0	1.372381E+0	1.270054E+0	1.163760E+0	1.306739E+0	1.340329E+0	1.324788E+0	1.280277E+0	1.293188E+0	1.366441E+0	1.353751E+0	1.274950E+0	1.290487E+0	1.350660E+0	1.338419E+0	1.259979E+0	1.399889E+0	1.356203E+0	1.252738E+0	1.201202E+0	1.350607E+0	1.354031E+0	1.320009E+0	1.240227E+0	1.318644E+0	1.368738E+0	1.376272E+0	1.292522E+0	1.316658E+0	1.381134E+0	1.310020E+0	1.277374E+0	1.317169E+0	1.388615E+0	1.220752E+0	1.134964E+0	1.400856E+0	1.381540E+0	1.283711E+0	1.245710E+0	1.301026E+0	1.356407E+0	1.336418E+0	1.335674E+0	1.348211E+0	1.306825E+0	1.364245E+0	1.389980E+0	1.366943E+0	1.353332E+0	1.370782E+0	1.186764E+0	1.406214E+0	1.346859E+0	1.311388E+0	1.220334E+0	1.337526E+0	1.384607E+0	1.368228E+0	1.397479E+0	1.080841E+0	1.323325E+0	1.248227E+0	1.298091E+0	1.327463E+0	1.424698E+0	1.125717E+0	1.188421E+0	1.301399E+0	1.380094E+0	1.214646E+0	1.281393E+0	1.392731E+0	1.314970E+0	1.296757E+0	1.353118E+0	1.324372E+0	1.399973E+0	1.331603E+0	1.302638E+0	1.400363E+0	1.355117E+0	1.230388E+0	1.174032E+0	1.334538E+0	1.372890E+0	1.231867E+0	1.225407E+0	1.331088E+0	1.322417E+0	1.285417E+0	1.329466E+0	1.319180E+0	1.357517E+0	1.267542E+0	1.250420E+0	1.367603E+0	1.394478E+0	1.205515E+0	1.208441E+0	1.280854E+0	1.365249E+0	1.180454E+0	1.263139E+0
5.527650E+2	1.314067E+0	1.185462E+0	1.335779E+0	1.268252E+0	1.311008E+0	1.290754E+0	1.301947E+0	1.116766E+0	1.315284E+0	1.320075E+0	1.356752E+0	1.174439E+0	1.250003E+0	1.296486E+0	1.297042E+0	1.265183E+0	1.269144E+0	1.300992E+0	1.346342E+0	1.277712E+0	1.355541E+0	1.323689E+0	1.338929E+0	1.145201E+0	1.302541E+0	1.320556E+0	1.344635E+0	1.188780E+0	1.300913E+0	1.339871E+0	1.312956E+0	1.301518E+0	1.339753E+0	1.307441E+0	1.343184E+0	1.246013E+0	1.312947E+0	1.379996E+0	1.337914E+0	1.252869E+0	1.312975E+0	1.255269E+0	1.342548E+0	1.303469E+0	1.282611E+0	1.344382E+0	1.312505E+0	1.338799E+0	1.289103E+0	1.311094E+0	1.348526E+0	1.256441E+0	1.274425E+0	1.303092E+0	1.333772E+0	1.168598E+0	1.298056E+0	1.314167E+0	1.299805E+0	1.229857E+0	1.290904E+0	1.288395E+0	1.295162E+0	1.287558E+0	1.127956E+0	1.235798E+0	1.328326E+0	1.232312E+0	1.257005E+0	1.308534E+0	1.314305E+0	1.112249E+0	1.286930E+0	1.364839E+0	1.324788E+0	1.176058E+0	1.237119E+0	1.350181E+0	1.383502E+0	1.253485E+0	1.248293E+0	1.271589E+0	1.333793E+0	1.277017E+0	1.290043E+0	1.349471E+0	1.325614E+0	1.161626E+0	1.339895E+0	1.314576E+0	1.295185E+0	1.196921E+0	1.284595E+0	1.249851E+0	1.368393E+0	1.269486E+0	1.269908E+0	1.345879E+0	1.303625E+0	1.266081E+0	1.318128E+0	1.283141E+0	1.267455E+0	1.151249E+0	1.310499E+0	1.318491E+0	1.240257E+0	1.241151E+0	1.293573E+0	1.323023E+0	1.308029E+0	1.289879E+0	1.263125E+0	1.326401E+0	1.299881E+0	1.196563E+0	1.372814E+0	1.345124E+0	1.274012E+0	1.135779E+0	1.293767E+0	1.303075E+0	1.280579E+0	1.208630E+0	1.311983E+0	1.309923E+0	1.315134E+0	1.321223E+0	1.148727E+0	1.297908E+0	1.224232E+0	1.232441E+0	1.261792E+0	1.300348E+0	1.134450E+0	1.196063E+0	1.235944E+0	1.380093E+0	1.191162E+0	1.198366E+0	1.282133E+0	1.299685E+0	1.280030E+0	1.323215E+0	1.283446E+0	1.334744E+0	1.207025E+0	1.261444E+0	1.301250E+0	1.326295E+0	1.107361E+0	1.141712E+0	1.254453E+0	1.293106E+0	1.165247E+0	1.158599E+0	1.257458E+0	1.317410E+0	1.296877E+0	1.274358E+0	1.293453E+0	1.291480E+0	1.245408E+0	1.203775E+0	1.301856E+0	1.306699E+0	1.148937E+0	1.138116E+0	1.250634E+0	1.288774E+0	1.181989E+0	1.218212E+0
5.535490E+2	1.233123E+0	1.106497E+0	1.317202E+0	1.244959E+0	1.224361E+0	1.212210E+0	1.266854E+0	1.064263E+0	1.239775E+0	1.283154E+0	1.239110E+0	1.082859E+0	1.185055E+0	1.237078E+0	1.226329E+0	1.171454E+0	1.190026E+0	1.202954E+0	1.266099E+0	1.238532E+0	1.199539E+0	1.232438E+0	1.287443E+0	1.061268E+0	1.200202E+0	1.249606E+0	1.211638E+0	1.112663E+0	1.175376E+0	1.241567E+0	1.230550E+0	1.186999E+0	1.223805E+0	1.254883E+0	1.214504E+0	1.275786E+0	1.216153E+0	1.244374E+0	1.249343E+0	1.177150E+0	1.215058E+0	1.214159E+0	1.264881E+0	1.228221E+0	1.172151E+0	1.254622E+0	1.229494E+0	1.287499E+0	1.228797E+0	1.236569E+0	1.255710E+0	1.212634E+0	1.215916E+0	1.199004E+0	1.266577E+0	1.094306E+0	1.212313E+0	1.294105E+0	1.229506E+0	1.137856E+0	1.216269E+0	1.204355E+0	1.244440E+0	1.200503E+0	1.043985E+0	1.243283E+0	1.249629E+0	1.253319E+0	1.158773E+0	1.245129E+0	1.266365E+0	1.018596E+0	1.187325E+0	1.214046E+0	1.231780E+0	1.122938E+0	1.164367E+0	1.245502E+0	1.255852E+0	1.205670E+0	1.226115E+0	1.211427E+0	1.206039E+0	1.147636E+0	1.242694E+0	1.264388E+0	1.219661E+0	1.048487E+0	1.245110E+0	1.202147E+0	1.227378E+0	1.081786E+0	1.162859E+0	1.293831E+0	1.232365E+0	1.226359E+0	1.186672E+0	1.259817E+0	1.209828E+0	1.183253E+0	1.188740E+0	1.193027E+0	1.257810E+0	1.073461E+0	1.187995E+0	1.229571E+0	1.271296E+0	1.104374E+0	1.193895E+0	1.260296E+0	1.273126E+0	1.238723E+0	1.251446E+0	1.226689E+0	1.240150E+0	1.175715E+0	1.266685E+0	1.257396E+0	1.252932E+0	1.025148E+0	1.261390E+0	1.210106E+0	1.278931E+0	1.133080E+0	1.190297E+0	1.257114E+0	1.248628E+0	1.212218E+0	1.066522E+0	1.237026E+0	1.253497E+0	1.172451E+0	1.202795E+0	1.249228E+0	1.276592E+0	1.080420E+0	1.197765E+0	1.244224E+0	1.221586E+0	1.091922E+0	1.220632E+0	1.171949E+0	1.218346E+0	1.209908E+0	1.268459E+0	1.253348E+0	1.213979E+0	1.141987E+0	1.253806E+0	1.204038E+0	1.234204E+0	1.044308E+0	1.257376E+0	1.226903E+0	1.198834E+0	1.139587E+0	1.217430E+0	1.231801E+0	1.240533E+0	1.195351E+0	1.198379E+0	1.235775E+0	1.200617E+0	1.179922E+0	1.257128E+0	1.233028E+0	1.102726E+0	1.106443E+0	1.254717E+0	1.240202E+0	1.056130E+0	1.128359E+0
5.542580E+2	1.094720E+0	9.982645E-1	1.197235E+0	1.096841E+0	1.133942E+0	1.118907E+0	1.115450E+0	1.009091E+0	1.115961E+0	1.164691E+0	1.165243E+0	9.827704E-1	1.080346E+0	1.173432E+0	1.146837E+0	1.138321E+0	1.135921E+0	1.144587E+0	1.115448E+0	1.131726E+0	1.144127E+0	1.162628E+0	1.159596E+0	1.049405E+0	1.139112E+0	1.165964E+0	1.124548E+0	1.054520E+0	1.096232E+0	1.121476E+0	1.136432E+0	1.144968E+0	1.128504E+0	1.141097E+0	1.130117E+0	1.145526E+0	1.185795E+0	1.148937E+0	1.131092E+0	1.076669E+0	1.117651E+0	1.100966E+0	1.109553E+0	1.160500E+0	1.063510E+0	1.132313E+0	1.150729E+0	1.175820E+0	1.067801E+0	1.143543E+0	1.136990E+0	1.108453E+0	1.124642E+0	1.156069E+0	1.151680E+0	9.990747E-1	1.135538E+0	1.128192E+0	1.104914E+0	1.017043E+0	1.112743E+0	1.144328E+0	1.161960E+0	1.146762E+0	1.054019E+0	1.124581E+0	1.103320E+0	1.043245E+0	1.159289E+0	1.122788E+0	1.166801E+0	9.816042E-1	1.092248E+0	1.130925E+0	1.178127E+0	1.027319E+0	1.088836E+0	1.142350E+0	1.169951E+0	1.132493E+0	1.090878E+0	1.159286E+0	1.146499E+0	1.029436E+0	1.118641E+0	1.163440E+0	1.139549E+0	1.013214E+0	1.167461E+0	1.155125E+0	1.151096E+0	1.006263E+0	1.084451E+0	1.136283E+0	1.136778E+0	1.084226E+0	1.093173E+0	1.172200E+0	1.192774E+0	1.079448E+0	1.151841E+0	1.077313E+0	1.146128E+0	9.404951E-1	1.097640E+0	1.135265E+0	1.184384E+0	1.016039E+0	1.129618E+0	1.166714E+0	1.125126E+0	1.125695E+0	1.077937E+0	1.177139E+0	1.131715E+0	1.088271E+0	1.127298E+0	1.118876E+0	1.171838E+0	9.703154E-1	1.181913E+0	1.132271E+0	1.150193E+0	1.019761E+0	1.154241E+0	1.146162E+0	1.172616E+0	1.138405E+0	9.397662E-1	1.105805E+0	1.185021E+0	1.016251E+0	1.140204E+0	1.183828E+0	1.145122E+0	1.072778E+0	1.126310E+0	1.121538E+0	1.185289E+0	1.049344E+0	1.158638E+0	1.158302E+0	1.154054E+0	1.165842E+0	1.093795E+0	1.129581E+0	1.112576E+0	1.093144E+0	1.173672E+0	1.145399E+0	1.160291E+0	9.455597E-1	1.151570E+0	1.158436E+0	1.118451E+0	1.003802E+0	1.116622E+0	1.147191E+0	1.119244E+0	1.127077E+0	1.099389E+0	1.139874E+0	1.124736E+0	1.030971E+0	1.162821E+0	1.152045E+0	1.141596E+0	9.593552E-1	1.091363E+0	1.046948E+0	1.115991E+0	9.197761E-1
5.550140E+2	1.077732E+0	9.590583E-1	1.059224E+0	1.054435E+0	1.107573E+0	1.057759E+0	1.126480E+0	9.169859E-1	1.017688E+0	1.087767E+0	1.087546E+0	9.182135E-1	1.005681E+0	1.027749E+0	1.055328E+0	1.030204E+0	1.056293E+0	1.049383E+0	1.026920E+0	9.948631E-1	1.092126E+0	1.048439E+0	1.060491E+0	9.281210E-1	1.053482E+0	1.069632E+0	1.069643E+0	9.466880E-1	1.055750E+0	1.096295E+0	1.046654E+0	9.995708E-1	1.032144E+0	1.048105E+0	1.054699E+0	1.050357E+0	1.056001E+0	1.103172E+0	1.067249E+0	1.033811E+0	1.015609E+0	1.024377E+0	1.062301E+0	1.063837E+0	1.009871E+0	1.115052E+0	1.064415E+0	1.063233E+0	9.907103E-1	1.064392E+0	1.061981E+0	1.057699E+0	1.054898E+0	1.083207E+0	1.011651E+0	9.307666E-1	1.074453E+0	1.072345E+0	1.068338E+0	1.012999E+0	1.023663E+0	1.041821E+0	1.037984E+0	1.009517E+0	1.002264E+0	1.079668E+0	1.053995E+0	1.049171E+0	1.028140E+0	1.104927E+0	1.065390E+0	9.179198E-1	1.024901E+0	1.084568E+0	1.073879E+0	9.367605E-1	9.424078E-1	1.081373E+0	1.042779E+0	1.064190E+0	1.030293E+0	1.052714E+0	1.097363E+0	1.002814E+0	1.036255E+0	1.062974E+0	1.111641E+0	9.331983E-1	1.048043E+0	1.068644E+0	1.071180E+0	9.861933E-1	9.890199E-1	1.016433E+0	1.075854E+0	1.045509E+0	1.000815E+0	1.066435E+0	1.095245E+0	9.923166E-1	1.073250E+0	1.055810E+0	1.059322E+0	9.233101E-1	1.030567E+0	1.059818E+0	1.057404E+0	9.522094E-1	1.028545E+0	1.032158E+0	1.081844E+0	1.040924E+0	1.051242E+0	1.062746E+0	1.018059E+0	9.591321E-1	1.044157E+0	1.054747E+0	1.049119E+0	9.092288E-1	1.075944E+0	1.026871E+0	1.154044E+0	9.442140E-1	1.019531E+0	1.075214E+0	1.088225E+0	1.049930E+0	9.031721E-1	1.039603E+0	1.071483E+0	9.602220E-1	1.093518E+0	1.071911E+0	1.077690E+0	9.826063E-1	1.025402E+0	1.064209E+0	1.081741E+0	9.758982E-1	1.093172E+0	1.048583E+0	1.049509E+0	1.045714E+0	1.065550E+0	1.021424E+0	1.121268E+0	9.960489E-1	1.073505E+0	1.056937E+0	1.102116E+0	8.993270E-1	1.079084E+0	1.056018E+0	1.107990E+0	9.217870E-1	1.008895E+0	1.053068E+0	1.018964E+0	1.027101E+0	1.071985E+0	1.023299E+0	1.058868E+0	1.018249E+0	1.091689E+0	1.035529E+0	1.070769E+0	8.986947E-1	1.048073E+0	1.093453E+0	1.100642E+0	9.807460E-1
5.557600E+2	1.017773E+0	8.414383E-1	9.774784E-1	9.379713E-1	1.017626E+0	9.475872E-1	9.740740E-1	8.502445E-1	9.660524E-1	1.028792E+0	9.961702E-1	8.651660E-1	9.566398E-1	1.010776E+0	9.679789E-1	9.669924E-1	9.460404E-1	1.034082E+0	9.710091E-1	9.701738E-1	9.940945E-1	1.011540E+0	1.017590E+0	9.175744E-1	9.762052E-1	1.077708E+0	1.005747E+0	9.107442E-1	9.438589E-1	9.834665E-1	1.008489E+0	9.952829E-1	9.484918E-1	9.863028E-1	9.740065E-1	9.844295E-1	9.702083E-1	1.010525E+0	9.755278E-1	9.438069E-1	9.450025E-1	9.624297E-1	1.025371E+0	9.793275E-1	9.666868E-1	1.026279E+0	1.034230E+0	9.978602E-1	9.707831E-1	9.888396E-1	1.004780E+0	9.631358E-1	9.453688E-1	1.016418E+0	1.034220E+0	9.108222E-1	9.713394E-1	1.010534E+0	1.009471E+0	9.407125E-1	9.639551E-1	9.854897E-1	1.015442E+0	9.428947E-1	9.589578E-1	9.700579E-1	9.847204E-1	9.414415E-1	1.025054E+0	1.027684E+0	9.976291E-1	8.621958E-1	9.756638E-1	1.013701E+0	9.854724E-1	8.998293E-1	9.197027E-1	9.868609E-1	1.005347E+0	9.553947E-1	9.734936E-1	1.012032E+0	1.023948E+0	9.729985E-1	1.020630E+0	9.995195E-1	1.004652E+0	8.299538E-1	1.017518E+0	1.007026E+0	1.017903E+0	8.869028E-1	9.498164E-1	1.011116E+0	1.045393E+0	9.504298E-1	9.654677E-1	1.021849E+0	9.827934E-1	9.315404E-1	1.011914E+0	1.067075E+0	1.021248E+0	8.857733E-1	1.070478E+0	1.043112E+0	1.035393E+0	8.764120E-1	9.763784E-1	9.911840E-1	9.561859E-1	9.790496E-1	9.828399E-1	9.764915E-1	1.040094E+0	9.875078E-1	1.018235E+0	9.870276E-1	1.044253E+0	8.601668E-1	9.793953E-1	9.874133E-1	1.045113E+0	9.192086E-1	9.814709E-1	1.041608E+0	1.021717E+0	9.717188E-1	8.628648E-1	1.004728E+0	1.005351E+0	9.477712E-1	9.893732E-1	9.963813E-1	1.003466E+0	9.072087E-1	9.643119E-1	1.030958E+0	9.888675E-1	8.800987E-1	9.830666E-1	9.983629E-1	9.475786E-1	9.738460E-1	9.900354E-1	1.004141E+0	1.000166E+0	9.995798E-1	1.003916E+0	1.001775E+0	1.006267E+0	9.249136E-1	9.972437E-1	9.983023E-1	9.918201E-1	8.946297E-1	9.975293E-1	1.018524E+0	9.544998E-1	9.832100E-1	1.017177E+0	1.010090E+0	1.018820E+0	9.456300E-1	1.020016E+0	1.015152E+0	9.943238E-1	8.986947E-1	9.427091E-1	1.012843E+0	9.870630E-1	9.390293E-1
5.560190E+2	9.388284E-1	8.850623E-1	1.000303E+0	9.833628E-1	9.695921E-1	9.523318E-1	1.009167E+0	9.183207E-1	1.011580E+0	1.004176E+0	9.989057E-1	9.552460E-1	9.628256E-1	1.034349E+0	1.041924E+0	9.844297E-1	9.873848E-1	1.010848E+0	1.030545E+0	9.878853E-1	1.037996E+0	1.023009E+0	9.661086E-1	9.105434E-1	9.427886E-1	9.848371E-1	1.010008E+0	9.218444E-1	9.424940E-1	1.048839E+0	1.000249E+0	9.802697E-1	9.929657E-1	1.031933E+0	9.676784E-1	1.020052E+0	1.040163E+0	1.007734E+0	9.953105E-1	9.776184E-1	9.578870E-1	1.004666E+0	1.001474E+0	9.521231E-1	9.066833E-1	1.070173E+0	1.007816E+0	9.983131E-1	9.854664E-1	1.004259E+0	1.009096E+0	9.487114E-1	9.734535E-1	1.017718E+0	9.542023E-1	8.325423E-1	9.999199E-1	9.866773E-1	1.006041E+0	8.992615E-1	9.514360E-1	9.905690E-1	9.918764E-1	9.810925E-1	9.769134E-1	1.025130E+0	1.042357E+0	9.780694E-1	9.700236E-1	9.919631E-1	1.000855E+0	8.280125E-1	9.518948E-1	9.843957E-1	1.014089E+0	9.403020E-1	9.349941E-1	1.016332E+0	1.025983E+0	9.363678E-1	1.000000E+0	9.982810E-1	1.018168E+0	9.293391E-1	9.775430E-1	1.014902E+0	1.073393E+0	8.725424E-1	9.650389E-1	1.017837E+0	1.062099E+0	9.111963E-1	9.725129E-1	9.893685E-1	1.031212E+0	9.739543E-1	9.381017E-1	9.508209E-1	1.005710E+0	9.315403E-1	9.822012E-1	9.928320E-1	1.055768E+0	9.011496E-1	1.012829E+0	9.983833E-1	1.007740E+0	9.043374E-1	9.353898E-1	1.000795E+0	1.016223E+0	1.009743E+0	9.767226E-1	9.868911E-1	1.025598E+0	9.620272E-1	1.002096E+0	9.752278E-1	9.961384E-1	8.664202E-1	1.008243E+0	9.744407E-1	1.020906E+0	8.713259E-1	9.629426E-1	1.038941E+0	1.004951E+0	9.477664E-1	8.734720E-1	1.028372E+0	1.040465E+0	9.143805E-1	1.007842E+0	1.018027E+0	1.007832E+0	8.526986E-1	9.926755E-1	9.719090E-1	1.011819E+0	9.099029E-1	1.029687E+0	9.994539E-1	9.789411E-1	9.177162E-1	9.606367E-1	1.019751E+0	1.028558E+0	9.054257E-1	1.023949E+0	1.033581E+0	1.047754E+0	8.548903E-1	9.849683E-1	1.016409E+0	9.747522E-1	8.756193E-1	9.743033E-1	9.674584E-1	1.004639E+0	9.895499E-1	1.021092E+0	9.928626E-1	1.021454E+0	9.747840E-1	1.019478E+0	9.937301E-1	1.022828E+0	8.664860E-1	9.998827E-1	9.549719E-1	9.932020E-1	1.003211E+0
5.565090E+2	9.288354E-1	8.878237E-1	9.806633E-1	1.018600E+0	9.860745E-1	1.011898E+0	9.735725E-1	1.002860E+0	1.001587E+0	1.013920E+0	9.989058E-1	9.652547E-1	9.637099E-1	9.631581E-1	1.016968E+0	9.626319E-1	1.011885E+0	1.019348E+0	9.792919E-1	9.868121E-1	9.881248E-1	9.856107E-1	9.480874E-1	9.804124E-1	9.464434E-1	9.963740E-1	1.010482E+0	9.805181E-1	9.725129E-1	9.413373E-1	9.763940E-1	1.003860E+0	9.617285E-1	1.022113E+0	9.951025E-1	9.514661E-1	9.895668E-1	1.021687E+0	9.966592E-1	9.809517E-1	9.609790E-1	9.511666E-1	1.017224E+0	1.030843E+0	9.544129E-1	1.036636E+0	1.014890E+0	1.000583E+0	1.002772E+0	1.011454E+0	1.009636E+0	9.887805E-1	1.016517E+0	9.847592E-1	9.798490E-1	9.088280E-1	9.489238E-1	1.002401E+0	9.837526E-1	9.700315E-1	9.673258E-1	9.762533E-1	1.004684E+0	9.730980E-1	9.848354E-1	9.716617E-1	1.021297E+0	9.796849E-1	1.007053E+0	1.028576E+0	1.016068E+0	9.057449E-1	9.677408E-1	9.748049E-1	9.752527E-1	9.195596E-1	9.387006E-1	9.680594E-1	9.794333E-1	9.636884E-1	9.832305E-1	9.650479E-1	1.048805E+0	9.133665E-1	9.879599E-1	1.016345E+0	1.010337E+0	8.845873E-1	9.655742E-1	9.329772E-1	9.422257E-1	8.832059E-1	9.338248E-1	9.908182E-1	1.010729E+0	9.063209E-1	9.090262E-1	9.907417E-1	9.678711E-1	9.541296E-1	9.544068E-1	9.912961E-1	1.029371E+0	8.545676E-1	1.000633E+0	9.757495E-1	1.040473E+0	9.322626E-1	9.223480E-1	9.805610E-1	9.864372E-1	9.951289E-1	1.005641E+0	9.875034E-1	1.005302E+0	9.267027E-1	9.888907E-1	9.865144E-1	1.037766E+0	8.486229E-1	1.001766E+0	9.825488E-1	9.862457E-1	9.032479E-1	9.724574E-1	1.009068E+0	9.999199E-1	9.375010E-1	8.501364E-1	1.025417E+0	1.023493E+0	9.262652E-1	9.570521E-1	1.032306E+0	1.017534E+0	8.690006E-1	9.899482E-1	1.010319E+0	1.007549E+0	8.827596E-1	9.706678E-1	9.525086E-1	9.486237E-1	1.008993E+0	9.681309E-1	9.863011E-1	1.023923E+0	9.283761E-1	9.691215E-1	9.977991E-1	9.900535E-1	8.351403E-1	9.715232E-1	9.773665E-1	1.016045E+0	8.826803E-1	9.688678E-1	9.544409E-1	9.826732E-1	9.568747E-1	9.797066E-1	1.012962E+0	9.861487E-1	9.610020E-1	1.010855E+0	9.743982E-1	1.050900E+0	8.278347E-1	9.753801E-1	1.006643E+0	1.008551E+0	9.711198E-1
5.570160E+2	1.006281E+0	8.613174E-1	1.010919E+0	9.785840E-1	9.710055E-1	9.744711E-1	1.034234E+0	1.018880E+0	1.004918E+0	1.031869E+0	9.808494E-1	1.000286E+0	9.341072E-1	1.012189E+0	1.003566E+0	1.001867E+0	9.843230E-1	9.711796E-1	9.963760E-1	9.986198E-1	9.855703E-1	1.035475E+0	1.012012E+0	1.006339E+0	9.568864E-1	9.773380E-1	9.792419E-1	9.937325E-1	9.415846E-1	9.699075E-1	9.425626E-1	9.819872E-1	9.818480E-1	9.990101E-1	1.004597E+0	1.015267E+0	9.820856E-1	1.002711E+0	9.525966E-1	9.633326E-1	9.821092E-1	9.286400E-1	9.428186E-1	9.492285E-1	9.380487E-1	9.833727E-1	1.020079E+0	1.011027E+0	9.477078E-1	9.950072E-1	1.018271E+0	9.668763E-1	9.720482E-1	9.921324E-1	9.521510E-1	1.029987E+0	1.014491E+0	9.899305E-1	9.894677E-1	1.009460E+0	9.663629E-1	9.605527E-1	1.000585E+0	9.668793E-1	9.779698E-1	1.006951E+0	9.752983E-1	1.007695E+0	1.013225E+0	9.964276E-1	1.011919E+0	9.450793E-1	9.700047E-1	9.636151E-1	1.046283E+0	9.979764E-1	9.396273E-1	9.924500E-1	9.923908E-1	1.014427E+0	9.345460E-1	1.004010E+0	9.973576E-1	9.671419E-1	1.015896E+0	1.002886E+0	1.014472E+0	9.577200E-1	9.907431E-1	9.848661E-1	1.052412E+0	9.402450E-1	9.694182E-1	9.632716E-1	1.027011E+0	1.019534E+0	9.591961E-1	1.023923E+0	9.806616E-1	9.503646E-1	1.019580E+0	9.841276E-1	9.867285E-1	8.785372E-1	9.934275E-1	9.973056E-1	1.046681E+0	8.946491E-1	9.288689E-1	9.906778E-1	9.808522E-1	1.000975E+0	9.906252E-1	9.697632E-1	1.023858E+0	9.319150E-1	9.888907E-1	9.526547E-1	1.041009E+0	8.144724E-1	9.735079E-1	9.879538E-1	9.642405E-1	9.160162E-1	9.173713E-1	1.005868E+0	9.920953E-1	9.575426E-1	8.374080E-1	9.982263E-1	1.010618E+0	9.596560E-1	1.042729E+0	1.005131E+0	1.048097E+0	9.117937E-1	1.003039E+0	9.931204E-1	9.856652E-1	8.779696E-1	1.005384E+0	1.004913E+0	9.899190E-1	9.859116E-1	9.831183E-1	9.902034E-1	1.008278E+0	9.654490E-1	1.012879E+0	1.007241E+0	1.007221E+0	8.782306E-1	9.586628E-1	9.909463E-1	1.022652E+0	8.810509E-1	9.980232E-1	9.919898E-1	9.540224E-1	9.510221E-1	1.000399E+0	9.652978E-1	9.339808E-1	9.249569E-1	9.866043E-1	1.046502E+0	1.004257E+0	8.793695E-1	9.974326E-1	1.016978E+0	9.640399E-1	8.170871E-1
5.575530E+2	9.977872E-1	8.933453E-1	1.011981E+0	1.019795E+0	1.039288E+0	1.001356E+0	1.006159E+0	1.050915E+0	1.009359E+0	1.042638E+0	1.018603E+0	1.036818E+0	9.694532E-1	1.047550E+0	1.056712E+0	1.036308E+0	1.010355E+0	1.025015E+0	1.047629E+0	1.003987E+0	1.019668E+0	1.019020E+0	1.049766E+0	1.034465E+0	9.621074E-1	9.946433E-1	1.036040E+0	1.019104E+0	9.679663E-1	1.009132E+0	1.040149E+0	1.022731E+0	1.042204E+0	1.049260E+0	9.835002E-1	1.016330E+0	1.003205E+0	9.870839E-1	1.015542E+0	9.580936E-1	1.051685E+0	9.798878E-1	1.034061E+0	9.990075E-1	9.625957E-1	1.077078E+0	1.016778E+0	1.060055E+0	1.018504E+0	1.071074E+0	1.031222E+0	1.050219E+0	1.025877E+0	1.032897E+0	9.967759E-1	1.055915E+0	1.046994E+0	1.034933E+0	1.035761E+0	1.036252E+0	9.856233E-1	9.877962E-1	1.024151E+0	1.007296E+0	1.004376E+0	1.033150E+0	1.061200E+0	1.007156E+0	1.045112E+0	1.020092E+0	1.004544E+0	1.014383E+0	1.037918E+0	9.854612E-1	1.013578E+0	9.929175E-1	9.349939E-1	1.022939E+0	1.003908E+0	1.032478E+0	9.551018E-1	1.014325E+0	1.048805E+0	9.767249E-1	1.055667E+0	1.031246E+0	1.043932E+0	1.025687E+0	1.012699E+0	9.978386E-1	9.912642E-1	1.033197E+0	9.719973E-1	9.995169E-1	1.023335E+0	1.087167E+0	9.899821E-1	1.062290E+0	1.004111E+0	1.054707E+0	1.021016E+0	1.028672E+0	1.025309E+0	9.947669E-1	9.889927E-1	9.865276E-1	1.086750E+0	1.065051E+0	9.815026E-1	1.050368E+0	9.990031E-1	1.015590E+0	1.002304E+0	1.036442E+0	1.044734E+0	9.938780E-1	1.023616E+0	1.021914E+0	1.056687E+0	9.688728E-1	1.016484E+0	9.857919E-1	1.028058E+0	1.009120E+0	1.033051E+0	1.054410E+0	1.041837E+0	1.017179E+0	8.639254E-1	1.034874E+0	1.074995E+0	9.658815E-1	1.025798E+0	1.027240E+0	1.032573E+0	9.724170E-1	9.621300E-1	1.042997E+0	1.017690E+0	9.562054E-1	1.028695E+0	1.008188E+0	9.998509E-1	1.006370E+0	9.865771E-1	1.035362E+0	1.038409E+0	9.813372E-1	1.027112E+0	1.046005E+0	1.044415E+0	9.002247E-1	1.058039E+0	1.031687E+0	1.016045E+0	9.174416E-1	1.021743E+0	1.051566E+0	1.033289E+0	1.022711E+0	1.026125E+0	9.859719E-1	1.018819E+0	9.382088E-1	1.029716E+0	1.020900E+0	1.018940E+0	8.986950E-1	9.525103E-1	9.963091E-1	1.030039E+0	9.486558E-1
5.580170E+2	9.748030E-1	8.988672E-1	9.934029E-1	1.044879E+0	9.931379E-1	1.001883E+0	1.036239E+0	1.036232E+0	9.810435E-1	1.010842E+0	1.014226E+0	1.038320E+0	9.491304E-1	9.928606E-1	1.014657E+0	1.006227E+0	9.730929E-1	9.978139E-1	1.021226E+0	1.022772E+0	1.026488E+0	9.915945E-1	9.815527E-1	1.012932E+0	1.004923E+0	1.024062E+0	1.026098E+0	1.024391E+0	9.579582E-1	1.007679E+0	1.008488E+0	9.991438E-1	9.490223E-1	9.759065E-1	1.013034E+0	1.008355E+0	9.798855E-1	1.002711E+0	1.023188E+0	9.742850E-1	1.003755E+0	9.720031E-1	1.003103E+0	1.016951E+0	9.839593E-1	1.000141E+0	1.017721E+0	9.860573E-1	9.608186E-1	1.009912E+0	9.907490E-1	9.989312E-1	9.898363E-1	1.015552E+0	1.033707E+0	1.019517E+0	9.948761E-1	1.008907E+0	9.923254E-1	1.022098E+0	1.005365E+0	1.014116E+0	1.003659E+0	1.015735E+0	9.832511E-1	1.024061E+0	1.029056E+0	1.010927E+0	9.854528E-1	1.003572E+0	1.052021E+0	1.035924E+0	1.035655E+0	9.886580E-1	9.839395E-1	1.019224E+0	9.368477E-1	1.010235E+0	1.022624E+0	1.024184E+0	9.724118E-1	1.029795E+0	1.014699E+0	9.990874E-1	1.003585E+0	1.042783E+0	1.005685E+0	1.002029E+0	9.709295E-1	1.050807E+0	1.014876E+0	1.049042E+0	9.405306E-1	9.922679E-1	1.044342E+0	1.041589E+0	9.985340E-1	1.013555E+0	9.737334E-1	9.955438E-1	1.004724E+0	1.066050E+0	1.007034E+0	1.020092E+0	9.840043E-1	9.822162E-1	1.037087E+0	1.016609E+0	9.651999E-1	1.021029E+0	9.766639E-1	1.003897E+0	1.020099E+0	1.029101E+0	1.078946E+0	1.014147E+0	9.942713E-1	1.020887E+0	1.030197E+0	9.736826E-1	1.007065E+0	1.003629E+0	1.028058E+0	9.995441E-1	9.984977E-1	1.009602E+0	9.501790E-1	9.780730E-1	9.885596E-1	1.033692E+0	1.032857E+0	1.037191E+0	9.991206E-1	1.004671E+0	1.022870E+0	9.815874E-1	9.746758E-1	1.028665E+0	1.035838E+0	1.020604E+0	9.423979E-1	9.896281E-1	1.032260E+0	1.009517E+0	9.519908E-1	9.974514E-1	1.053474E+0	1.008406E+0	9.791385E-1	9.818963E-1	1.048707E+0	1.012439E+0	9.832144E-1	1.022634E+0	1.022652E+0	9.804470E-1	9.787504E-1	1.033043E+0	1.005594E+0	9.997913E-1	9.640471E-1	9.922887E-1	1.022508E+0	1.031501E+0	1.009238E+0	9.717860E-1	1.024987E+0	9.808276E-1	9.802811E-1	1.007677E+0	9.978071E-1	9.807469E-1
5.585160E+2	9.708064E-1	9.143289E-1	1.018882E+0	1.023378E+0	1.012446E+0	1.012425E+0	1.006660E+0	1.025998E+0	9.543933E-1	1.022638E+0	1.006566E+0	9.952816E-1	9.363172E-1	1.016435E+0	9.901624E-1	1.016690E+0	1.003719E+0	9.949812E-1	1.022779E+0	1.002914E+0	1.007732E+0	9.915941E-1	9.957101E-1	9.826100E-1	9.950022E-1	9.888750E-1	1.001961E+0	9.900327E-1	9.588697E-1	1.011553E+0	1.009789E+0	1.024018E+0	9.834359E-1	1.029044E+0	9.956298E-1	1.006760E+0	1.000566E+0	1.001037E+0	1.002505E+0	1.005238E+0	9.882942E-1	9.179399E-1	9.868101E-1	1.001902E+0	9.194114E-1	1.015429E+0	1.008287E+0	1.074128E+0	9.817952E-1	1.027901E+0	1.002082E+0	1.022439E+0	9.631555E-1	9.890947E-1	1.005496E+0	9.841158E-1	9.915140E-1	1.022463E+0	1.010042E+0	1.029175E+0	9.856238E-1	1.009498E+0	1.019028E+0	1.011740E+0	9.848349E-1	1.015506E+0	1.031273E+0	1.001769E+0	9.895669E-1	9.874991E-1	1.013303E+0	9.741113E-1	9.971705E-1	9.726734E-1	9.997813E-1	1.005060E+0	9.637234E-1	1.012268E+0	9.933503E-1	9.807634E-1	9.599698E-1	9.742162E-1	9.678759E-1	1.024111E+0	1.008320E+0	1.001923E+0	1.004135E+0	1.048918E+0	1.009486E+0	1.005405E+0	1.022141E+0	1.022635E+0	8.951371E-1	9.753536E-1	1.012305E+0	1.007772E+0	9.631871E-1	1.019775E+0	1.065933E+0	1.009528E+0	1.031080E+0	1.028160E+0	1.012618E+0	1.019188E+0	9.745800E-1	1.045807E+0	9.919374E-1	1.033136E+0	9.228139E-1	1.009395E+0	1.002726E+0	9.702813E-1	9.650433E-1	9.550819E-1	9.670305E-1	1.007776E+0	1.001607E+0	1.011654E+0	9.858672E-1	1.016491E+0	9.952905E-1	1.007413E+0	9.724919E-1	9.984801E-1	9.389048E-1	9.807961E-1	1.013892E+0	1.018155E+0	9.816651E-1	9.810852E-1	1.049830E+0	1.003234E+0	9.980942E-1	9.765771E-1	1.000069E+0	1.005531E+0	9.855845E-1	9.982796E-1	1.001678E+0	1.021669E+0	9.860425E-1	9.623348E-1	1.001942E+0	1.029976E+0	1.001564E+0	1.015849E+0	1.046521E+0	1.016645E+0	9.970626E-1	9.933270E-1	1.035832E+0	1.020519E+0	9.960753E-1	1.018107E+0	1.014944E+0	9.956546E-1	1.017295E+0	1.024531E+0	9.860157E-1	1.012471E+0	9.399989E-1	1.019853E+0	1.006700E+0	1.007648E+0	9.887602E-1	1.005225E+0	1.003826E+0	9.797544E-1	1.048073E+0	9.994088E-1	9.686454E-1	1.067389E+0
5.590100E+2	1.010278E+0	9.723109E-1	9.843790E-1	1.016211E+0	9.846615E-1	1.002410E+0	1.059802E+0	9.863968E-1	9.721601E-1	1.021612E+0	1.020792E+0	1.010295E+0	9.791712E-1	1.040950E+0	1.031757E+0	1.018000E+0	9.618638E-1	1.045416E+0	1.005695E+0	1.063026E+0	9.932420E-1	9.930902E-1	1.009009E+0	1.019085E+0	9.793381E-1	1.000989E+0	1.015214E+0	1.004833E+0	9.629621E-1	1.005742E+0	1.061401E+0	9.935655E-1	9.818472E-1	1.055614E+0	1.048898E+0	9.924046E-1	1.009805E+0	1.000479E+0	1.035325E+0	1.037144E+0	9.419106E-1	9.793240E-1	1.007992E+0	9.984288E-1	9.007750E-1	9.912639E-1	9.804597E-1	1.011933E+0	9.943814E-1	1.005286E+0	1.044712E+0	1.007480E+0	1.009965E+0	1.003407E+0	9.926723E-1	9.821215E-1	9.556479E-1	1.012703E+0	9.546048E-1	1.005922E+0	1.018848E+0	9.974930E-1	9.959746E-1	1.001078E+0	9.938133E-1	9.983957E-1	9.924788E-1	9.931514E-1	9.895667E-1	1.016968E+0	9.690487E-1	1.000333E+0	9.745325E-1	1.022759E+0	1.017155E+0	1.008601E+0	9.229463E-1	1.027004E+0	9.947895E-1	1.021258E+0	9.891811E-1	1.021200E+0	1.005450E+0	1.033695E+0	9.751760E-1	1.008171E+0	9.881124E-1	9.727752E-1	9.966340E-1	1.030268E+0	9.573612E-1	1.015241E+0	9.219609E-1	1.023680E+0	9.692379E-1	9.778754E-1	9.683177E-1	9.674120E-1	1.031825E+0	1.023512E+0	9.951401E-1	9.769596E-1	1.009065E+0	9.594914E-1	1.032230E+0	1.022634E+0	9.896805E-1	9.681674E-1	9.670625E-1	1.016476E+0	1.023668E+0	1.049205E+0	9.811710E-1	1.012584E+0	1.008781E+0	9.846127E-1	9.781313E-1	1.012166E+0	9.826233E-1	1.006390E+0	1.040621E+0	1.025791E+0	1.017605E+0	1.036786E+0	1.014022E+0	1.014936E+0	9.803591E-1	1.027932E+0	9.975756E-1	1.032509E+0	9.772589E-1	9.664478E-1	1.001686E+0	9.848677E-1	1.021900E+0	1.007569E+0	9.937660E-1	9.398041E-1	9.926040E-1	9.934617E-1	9.706674E-1	9.863528E-1	1.013964E+0	9.801407E-1	1.044221E+0	9.863011E-1	9.961094E-1	1.021941E+0	9.886281E-1	9.918358E-1	9.609667E-1	1.012888E+0	1.026473E+0	9.694444E-1	9.466735E-1	9.929391E-1	9.822102E-1	9.979976E-1	1.019441E+0	1.031003E+0	1.050174E+0	1.014685E+0	1.003538E+0	1.017189E+0	9.919934E-1	1.001567E+0	1.019803E+0	1.015721E+0	1.053790E+0	9.963088E-1	9.763200E-1	1.025673E+0
5.595110E+2	1.028766E+0	1.070052E+0	1.004019E+0	9.391653E-1	1.022806E+0	1.003991E+0	1.001647E+0	1.013094E+0	1.004917E+0	1.037510E+0	1.018056E+0	9.912779E-1	1.038374E+0	1.025863E+0	9.716755E-1	9.940205E-1	1.040469E+0	1.019349E+0	1.009836E+0	9.691002E-1	1.009011E+0	9.950851E-1	9.862723E-1	1.011174E+0	1.040950E+0	9.888751E-1	9.877629E-1	1.018576E+0	1.023003E+0	9.805615E-1	9.993805E-1	9.815574E-1	1.006732E+0	1.006518E+0	9.866639E-1	9.785809E-1	1.030925E+0	1.017780E+0	9.656377E-1	1.024763E+0	1.011485E+0	9.753822E-1	1.009621E+0	9.648574E-1	9.971429E-1	1.028252E+0	1.009703E+0	1.002399E+0	9.728799E-1	9.903814E-1	9.880506E-1	1.003206E+0	9.903030E-1	9.995055E-1	9.890815E-1	1.020015E+0	1.049796E+0	1.021378E+0	1.006042E+0	1.013504E+0	9.697333E-1	1.001188E+0	9.929011E-1	9.948598E-1	9.763853E-1	9.748697E-1	9.741896E-1	1.020085E+0	1.040483E+0	9.825860E-1	1.013303E+0	1.014383E+0	9.830218E-1	1.016898E+0	1.036063E+0	9.838106E-1	9.590899E-1	1.023448E+0	1.003908E+0	1.016379E+0	9.729529E-1	9.971354E-1	1.033776E+0	9.996198E-1	9.836992E-1	9.504873E-1	9.968988E-1	9.972950E-1	9.618260E-1	9.756776E-1	1.007611E+0	9.603138E-1	9.560061E-1	1.058475E+0	1.011780E+0	9.724842E-1	9.426628E-1	1.038439E+0	1.008908E+0	1.021360E+0	9.865146E-1	9.918080E-1	1.002973E+0	1.004717E+0	9.934273E-1	9.978445E-1	1.010562E+0	1.014899E+0	9.679944E-1	1.038734E+0	9.827141E-1	9.712560E-1	9.667128E-1	1.019313E+0	1.017479E+0	1.022254E+0	1.023615E+0	1.000366E+0	9.766762E-1	1.020821E+0	9.811614E-1	1.008494E+0	9.983501E-1	9.825192E-1	9.328959E-1	1.029339E+0	1.021717E+0	1.028421E+0	1.012955E+0	1.014778E+0	9.918903E-1	1.015119E+0	1.033494E+0	1.041977E+0	9.971584E-1	1.007060E+0	9.964937E-1	1.004014E+0	1.009684E+0	9.748332E-1	9.786027E-1	1.026202E+0	1.012396E+0	1.021058E+0	9.998354E-1	9.929910E-1	9.862591E-1	1.017234E+0	1.019205E+0	9.813987E-1	9.933917E-1	1.019622E+0	9.867216E-1	1.007356E+0	1.010540E+0	1.017381E+0	9.486069E-1	1.001002E+0	1.022784E+0	1.011983E+0	1.012144E+0	1.027893E+0	9.998493E-1	1.004468E+0	9.887603E-1	1.000522E+0	9.796404E-1	1.022163E+0	9.508765E-1	1.037647E+0	9.809235E-1	9.935804E-1
5.600240E+2	1.003783E+0	1.046859E+0	1.011981E+0	9.755982E-1	1.035521E+0	9.865959E-1	9.585328E-1	9.890681E-1	1.028237E+0	9.867399E-1	9.967173E-1	9.767649E-1	1.067092E+0	9.947468E-1	9.832310E-1	9.831234E-1	9.935100E-1	9.921471E-1	9.917170E-1	1.015259E+0	9.877010E-1	1.046944E+0	1.006434E+0	1.022599E+0	9.882143E-1	9.675322E-1	1.019000E+0	9.990182E-1	1.069852E+0	1.020753E+0	9.716237E-1	9.944256E-1	1.003026E+0	9.886130E-1	1.001959E+0	9.987850E-1	1.015085E+0	1.042337E+0	9.921624E-1	9.990473E-1	1.035708E+0	9.669348E-1	1.007448E+0	1.018109E+0	1.091692E+0	9.823861E-1	9.809316E-1	9.737986E-1	1.031615E+0	1.001175E+0	9.956063E-1	9.999997E-1	1.020729E+0	1.024226E+0	9.926723E-1	1.038463E+0	9.735808E-1	9.986060E-1	1.033475E+0	9.953059E-1	1.019811E+0	1.031663E+0	1.008270E+0	1.009517E+0	1.038704E+0	1.014437E+0	1.005780E+0	9.807623E-1	1.006539E+0	1.017859E+0	9.685894E-1	1.002677E+0	1.005659E+0	1.029154E+0	9.578776E-1	1.028331E+0	1.062424E+0	9.736491E-1	9.981492E-1	1.027599E+0	1.038948E+0	1.011459E+0	9.661417E-1	9.953601E-1	1.020630E+0	1.015383E+0	1.000516E+0	9.904125E-1	9.993113E-1	9.778390E-1	9.948967E-1	9.793272E-1	1.079292E+0	9.768022E-1	1.010729E+0	1.012673E+0	9.888421E-1	1.011480E+0	9.779972E-1	9.847864E-1	9.841181E-1	9.795201E-1	9.720073E-1	1.026424E+0	1.021143E+0	1.011856E+0	9.778285E-1	9.738661E-1	9.647337E-1	9.618442E-1	1.015292E+0	9.722298E-1	9.605955E-1	1.041335E+0	9.449941E-1	9.660812E-1	9.805771E-1	1.004471E+0	9.750546E-1	9.679106E-1	9.994111E-1	9.998454E-1	9.900969E-1	1.003268E+0	1.007511E+0	9.834635E-1	1.022276E+0	9.907827E-1	9.943931E-1	1.001182E+0	1.001254E+0	9.890851E-1	9.970686E-1	9.954597E-1	9.772683E-1	9.887197E-1	1.003584E+0	9.942672E-1	1.013954E+0	9.987836E-1	9.979456E-1	9.983626E-1	1.028600E+0	9.990257E-1	9.583315E-1	1.001354E+0	9.625020E-1	9.819256E-1	9.907363E-1	1.044017E+0	1.005790E+0	9.769805E-1	9.937367E-1	1.024331E+0	1.027607E+0	1.043995E+0	9.797409E-1	1.006007E+0	1.020874E+0	9.573626E-1	9.858585E-1	1.010090E+0	9.803525E-1	9.938662E-1	1.009777E+0	1.009927E+0	9.653885E-1	1.006595E+0	9.868145E-1	9.766743E-1	1.068411E+0	1.073808E+0
5.605150E+2	1.005282E+0	1.050724E+0	9.679239E-1	9.594723E-1	1.007737E+0	1.025076E+0	9.650501E-1	9.681537E-1	1.010470E+0	9.564832E-1	9.770191E-1	1.009794E+0	1.011423E+0	9.433563E-1	1.021127E+0	1.006663E+0	9.965727E-1	9.774132E-1	9.994823E-1	9.916426E-1	9.940931E-1	1.006553E+0	1.009866E+0	9.751412E-1	9.918699E-1	1.015987E+0	9.532102E-1	9.757605E-1	9.911636E-1	9.912143E-1	9.490703E-1	9.931370E-1	1.036380E+0	9.834152E-1	9.919383E-1	9.982531E-1	9.900075E-1	9.647585E-1	9.957616E-1	9.638087E-1	1.004785E+0	1.019871E+0	9.927846E-1	9.804853E-1	1.049418E+0	9.932364E-1	1.017249E+0	9.937734E-1	1.044201E+0	9.837003E-1	9.745602E-1	1.007479E+0	9.814106E-1	1.022923E+0	1.004983E+0	9.806265E-1	9.976781E-1	9.904725E-1	9.906112E-1	9.447564E-1	9.812895E-1	9.808693E-1	1.024664E+0	9.846453E-1	1.014938E+0	1.008555E+0	1.005780E+0	9.742984E-1	9.895670E-1	9.950886E-1	9.999343E-1	1.016723E+0	9.683071E-1	9.934538E-1	1.014600E+0	9.843164E-1	1.071229E+0	9.995641E-1	1.007266E+0	9.519797E-1	1.044357E+0	9.822377E-1	1.017012E+0	9.751279E-1	9.855925E-1	9.980767E-1	9.839781E-1	1.000737E+0	9.971696E-1	9.881089E-1	9.948969E-1	9.846084E-1	1.092704E+0	1.000001E+0	9.692379E-1	9.989497E-1	1.073789E+0	9.632637E-1	1.007842E+0	1.000922E+0	9.874714E-1	9.743992E-1	9.923137E-1	9.848173E-1	9.629396E-1	9.865276E-1	9.778287E-1	9.875433E-1	1.119837E+0	9.760083E-1	9.915560E-1	1.003898E+0	1.070151E+0	9.544699E-1	9.925445E-1	1.028624E+0	1.011877E+0	9.711239E-1	1.021007E+0	1.010719E+0	9.899918E-1	9.744412E-1	9.966992E-1	9.596420E-1	1.043067E+0	9.695942E-1	9.753286E-1	9.858943E-1	1.002879E+0	9.734011E-1	9.766737E-1	9.851233E-1	9.847558E-1	1.004671E+0	9.554380E-1	1.017758E+0	9.877663E-1	1.025798E+0	9.632471E-1	9.743018E-1	1.022247E+0	1.021835E+0	9.627369E-1	9.722724E-1	1.024622E+0	1.002469E+0	9.677171E-1	9.472063E-1	1.002334E+0	1.030599E+0	9.805179E-1	9.689003E-1	9.732772E-1	9.915121E-1	9.780558E-1	9.864215E-1	9.950585E-1	9.874839E-1	9.750330E-1	9.993032E-1	9.880956E-1	9.515157E-1	9.993229E-1	9.562315E-1	9.822935E-1	1.003658E+0	9.969151E-1	1.005522E+0	9.508766E-1	9.983770E-1	9.855286E-1	8.652217E-1
5.610010E+2	1.006281E+0	1.046859E+0	1.019413E+0	1.041296E+0	9.436915E-1	9.676186E-1	9.720684E-1	9.810575E-1	1.048779E+0	9.641756E-1	9.666233E-1	9.782663E-1	1.018492E+0	9.857885E-1	9.873900E-1	9.752760E-1	1.030772E+0	9.728797E-1	9.492653E-1	9.352865E-1	9.817320E-1	9.751393E-1	1.011155E+0	9.764590E-1	9.997017E-1	1.013680E+0	9.967542E-1	9.873893E-1	1.036192E+0	9.824982E-1	1.000248E+0	1.014153E+0	1.039557E+0	9.608888E-1	9.618768E-1	1.016862E+0	9.737267E-1	9.708984E-1	9.854208E-1	9.957140E-1	1.014062E+0	1.168545E+0	9.922414E-1	1.019266E+0	1.057601E+0	9.892909E-1	9.856481E-1	9.579107E-1	1.014309E+0	9.816443E-1	1.004240E+0	9.604653E-1	1.044601E+0	9.452919E-1	9.813880E-1	9.751412E-1	1.036907E+0	9.454705E-1	1.012900E+0	9.892403E-1	1.019329E+0	9.651714E-1	9.555031E-1	9.824256E-1	1.008073E+0	9.641762E-1	9.614432E-1	1.019007E+0	9.988246E-1	9.964271E-1	9.838011E-1	9.558491E-1	1.035654E+0	9.764031E-1	9.905828E-1	9.706567E-1	1.083739E+0	9.538319E-1	9.799133E-1	9.778368E-1	1.022179E+0	9.839566E-1	9.950452E-1	9.729983E-1	1.022998E+0	9.831755E-1	1.020674E+0	9.878330E-1	1.064644E+0	9.718940E-1	1.008216E+0	9.888335E-1	1.114369E+0	9.734203E-1	9.823683E-1	9.886577E-1	1.064667E+0	9.860756E-1	9.337628E-1	9.643484E-1	1.010952E+0	9.831035E-1	1.003988E+0	9.852702E-1	1.031675E+0	9.531155E-1	1.015077E+0	1.005780E+0	1.092359E+0	9.765142E-1	1.007380E+0	1.029232E+0	1.036227E+0	9.881149E-1	9.902248E-1	9.765049E-1	1.009922E+0	9.793320E-1	1.028575E+0	1.003985E+0	9.864592E-1	9.803869E-1	9.966991E-1	1.019761E+0	1.065101E+0	1.012269E+0	1.036248E+0	9.707408E-1	1.021972E+0	9.633525E-1	9.702361E-1	1.003800E+0	9.857816E-1	9.917758E-1	1.025296E+0	9.917758E-1	1.058129E+0	1.009173E+0	9.829959E-1	1.016347E+0	1.102096E+0	1.015285E+0	9.481010E-1	9.880095E-1	1.019434E+0	1.003584E+0	9.874181E-1	1.006641E+0	1.022895E+0	9.769262E-1	9.747944E-1	9.886513E-1	1.040502E+0	9.666154E-1	9.995280E-1	9.831620E-1	1.098338E+0	9.499352E-1	9.702577E-1	9.880862E-1	1.059682E+0	9.836749E-1	9.877297E-1	9.890958E-1	1.029177E+0	1.007315E+0	1.009439E+0	9.894174E-1	1.029287E+0	9.839078E-1	1.022365E+0	9.935820E-1
