Photon Energy (eV)	#1	#2	#3	#4	#5	#6	#7	#8	#9	#10	#11	#12	#13	#14	#15	#16	#17	#18	#19	#20	#21	#22	#23	#24	#25	#26	#27	#28	#29	#30	#31	#32	#33	#34	#35	#36	#37	#38	#39	#40	#41	#42	#43	#44	#45	#46	#47	#48	#49	#50	#51	#52	#53	#54	#55	#56	#57	#58	#59	#60	#61	#62	#63	#64	#65	#66	#67	#68	#69	#70	#71	#72	#73	#74	#75	#76	#77	#78	#79	#80	#81	#82	#83	#84	#85	#86	#87	#88	#89	#90	#91	#92	#93	#94	#95	#96	#97	#98	#99	#100	#101	#102	#103	#104	#105	#106	#107	#108	#109	#110	#111	#112	#113	#114	#115	#116	#117	#118	#119	#120	#121	#122	#123	#124	#125	#126	#127	#128	#129	#130	#131	#132	#133	#134	#135	#136	#137	#138	#139	#140	#141	#142	#143	#144	#145	#146	#147	#148	#149	#150	#151	#152	#153	#154	#155	#156	#157	#158	#159	#160	#161	#162	#163	#164	#165	#166	#167	#168	#169	#170	#171	#172	
5.300160E+2	-9.789537E-3	-4.085514E-4	-3.001375E-3	-4.007160E-3	4.615256E-4	-3.552820E-3	-4.558631E-3	4.143676E-3	1.889302E-4	3.327329E-3	-5.411367E-4	-6.318392E-3	-5.332409E-3	-3.868921E-3	-8.657809E-3	-1.244549E-2	1.591066E-3	-4.490418E-4	-6.257902E-3	-5.076709E-3	-4.727426E-3	-7.107753E-3	1.890863E-3	-7.136095E-4	-3.655609E-3	-1.009336E-2	-5.515343E-3	-9.051819E-3	-1.114037E-2	-6.587943E-3	-3.831925E-3	-3.609331E-3	-1.277043E-2	-2.690137E-3	-1.057945E-2	-9.649301E-4	-1.172770E-2	-1.278917E-3	1.874625E-3	-5.757298E-3	-2.640389E-3	-9.315731E-3	-8.238575E-3	-3.662682E-4	-7.157233E-3	-5.192128E-3	-2.087528E-3	-1.079261E-3	-1.388506E-2	-6.865672E-3	-1.243059E-2	-2.845501E-3	5.789387E-3	-7.678545E-3	-1.238553E-3	-9.466452E-4	-6.243319E-4	2.734538E-3	-2.395807E-3	-3.235280E-3	-3.013469E-3	-8.191283E-3	-7.019403E-3	-4.900067E-3	-3.472026E-3	-1.210267E-3	-6.747887E-3	-4.985336E-3	-3.425867E-3	-1.038745E-2	-2.632222E-3	-1.151064E-3	-1.489407E-3	-5.086554E-3	-6.649929E-3	-2.255859E-3	-3.562866E-3	-6.043821E-3	-7.071196E-3	-8.315074E-3	-4.324824E-3	-3.455958E-3	-1.124088E-2	-6.875150E-3	-1.006714E-3	-6.589518E-3	-5.264323E-3	-7.881108E-3	8.101930E-4	-5.754064E-3	-8.068335E-3	-6.655383E-3	-7.649962E-3	-2.926725E-3	-3.815676E-3	-1.966551E-4	-4.740604E-3	-6.755130E-3	-3.066864E-3	-5.390683E-3	-5.019278E-3	-8.208299E-4	1.128538E-3	-1.956344E-3	-3.056542E-3	-3.467817E-3	-5.118639E-3	-8.322901E-3	-3.267213E-3	-9.135209E-3	-8.903365E-4	-3.688961E-3	-7.552610E-3	-5.710454E-3	-5.846312E-3	1.392321E-3	-1.134953E-2	1.289630E-3	-6.023802E-4	-1.009143E-2	-1.940106E-3	-6.138723E-3	-1.039919E-2	1.212253E-3	-2.467484E-3	-1.309304E-2	-3.558996E-3	1.015036E-3	-2.648720E-3	-4.935383E-3	-9.204184E-3	-1.330536E-2	-4.569400E-3	-1.632575E-3	-4.948584E-3	-4.535107E-3	1.754179E-3	-6.121091E-3	-1.065739E-2	-6.760985E-3	-1.330082E-2	-2.683605E-3	-1.404749E-3	-7.636265E-3	-1.380554E-2	-2.692633E-3	3.291625E-4	-6.773501E-3	-6.650181E-3	-6.227173E-3	3.423397E-3	-1.435966E-3	-2.546832E-3	-2.200137E-4	-2.385256E-3	-5.366292E-3	-8.893595E-3	-6.318487E-3	-1.672479E-3	-4.169673E-3	-7.492580E-3	-2.513014E-3	-3.609532E-3	-8.283279E-3	-8.420451E-3	-2.944337E-3	-1.278181E-2	2.593730E-4	-3.523409E-3	-7.793173E-3	-9.185005E-3	1.152496E-2
5.305130E+2	8.850626E-4	-3.856281E-3	-1.190508E-2	-1.449041E-3	-2.629478E-4	-5.975404E-3	5.731166E-3	-5.067600E-3	-2.843026E-3	1.089347E-4	-8.180585E-3	-3.882454E-3	-7.193617E-3	-7.129313E-3	-4.330123E-3	3.778759E-3	1.412803E-3	-8.519563E-3	-6.905124E-3	-6.287076E-3	-5.737217E-3	-1.161378E-2	-4.943452E-3	-7.190362E-3	-7.431739E-3	-5.098384E-3	-9.934862E-4	-9.757986E-3	-4.664088E-4	-6.298660E-3	-1.148076E-3	-8.903859E-3	-7.340582E-3	-4.979465E-3	-6.394000E-3	-3.495540E-3	-1.976303E-3	-7.845626E-3	-4.281806E-3	8.660806E-3	-5.102494E-3	-3.253944E-3	-5.620896E-4	-5.687810E-3	-5.912505E-3	-2.279080E-3	-4.775400E-3	-6.208749E-3	1.194055E-3	-2.062562E-3	1.862350E-3	-3.021934E-3	-1.126441E-2	-6.430432E-3	-5.036696E-3	-4.102780E-3	-7.480369E-3	-8.347597E-3	-1.297869E-2	1.091839E-3	-4.950183E-3	2.135158E-3	-9.591043E-3	-5.890918E-3	-7.559919E-3	-6.903775E-3	-9.505501E-3	-6.666362E-3	-1.521933E-3	-7.718483E-4	-5.235875E-3	-1.332718E-3	-4.915521E-3	1.835993E-3	-8.320368E-3	-4.674850E-3	-9.822637E-3	-5.261711E-3	-3.206732E-3	-1.809786E-3	-5.578190E-3	-5.257379E-3	-2.053575E-3	-1.342597E-3	4.831418E-3	-2.888990E-3	-5.436920E-3	-3.253715E-3	-5.409403E-3	-7.528768E-3	1.807872E-3	-5.112862E-3	-1.082920E-2	-5.356249E-3	-5.811719E-3	-8.344039E-4	-2.714808E-3	-9.236231E-3	1.024516E-5	-1.687198E-3	-1.793653E-4	-2.994593E-3	-9.771865E-3	-1.676561E-3	2.924273E-3	-4.228177E-3	-3.050491E-3	-2.355635E-3	2.397277E-4	-7.563365E-3	1.949198E-4	-6.853957E-4	-2.376530E-3	-5.896838E-3	-7.582084E-3	-1.103538E-2	1.458539E-3	-5.808364E-4	-1.138467E-2	5.649158E-4	-4.881995E-4	-4.250579E-3	-8.125630E-3	-9.147965E-3	-2.651833E-3	1.196852E-3	5.119304E-5	-6.943257E-3	-3.988669E-3	-6.240207E-3	-3.582959E-3	4.212425E-3	-6.968919E-3	-5.910615E-3	-1.385529E-3	1.420622E-3	-3.136841E-3	-9.255284E-3	3.463513E-4	-5.859110E-3	2.693700E-3	8.366745E-4	-4.472379E-3	-4.263965E-3	2.139180E-4	4.554944E-4	3.937910E-3	-4.878518E-3	-7.322990E-3	-4.855210E-3	-8.102760E-3	-8.570410E-3	-1.648343E-3	-3.832631E-3	-1.171009E-2	-1.626371E-3	-3.931424E-3	-7.452697E-3	-5.193135E-4	-2.415299E-3	6.397503E-3	-7.392495E-3	-8.774511E-3	-1.152615E-3	-7.585448E-3	-1.610508E-3	-5.487405E-3	-1.095611E-3	3.522604E-4	-8.974724E-3	-2.359243E-2	1.929413E-3
5.310000E+2	-9.017111E-3	-6.519216E-4	-2.011626E-3	-4.236807E-3	-8.309224E-3	-3.045995E-3	-5.265999E-3	-3.007540E-3	-1.339638E-3	-2.314602E-3	-4.951097E-3	9.767251E-4	1.352345E-3	3.947352E-3	-5.498956E-3	-4.977714E-3	-1.317983E-2	-5.852006E-4	-4.947439E-3	-2.194239E-3	-6.988553E-3	1.891171E-3	-1.065536E-2	-2.651707E-3	1.403829E-3	-7.644239E-3	-8.467416E-3	4.884617E-3	-8.387539E-4	1.770981E-3	-3.934731E-3	-9.459678E-4	-8.308279E-3	3.493998E-3	4.022185E-4	-1.694468E-4	5.384776E-4	-4.626938E-3	-6.518641E-3	-2.952248E-3	-6.229395E-3	-4.768014E-3	-6.797545E-3	-1.029669E-3	-8.206853E-3	4.153645E-4	1.195099E-3	-1.191314E-3	-6.604384E-3	4.772551E-4	-3.862518E-3	-2.490646E-3	-7.457288E-3	2.031437E-4	-1.016829E-2	-8.028440E-3	-1.862974E-4	-3.416361E-3	2.932386E-3	-3.949863E-3	-4.612473E-4	-9.123871E-3	-4.053469E-4	-6.659712E-3	-1.940802E-3	-4.857186E-3	3.050485E-3	-3.104192E-3	-8.797582E-3	-5.608148E-3	-2.761862E-3	-8.436996E-3	-5.949690E-3	-4.675855E-3	-4.266303E-3	-1.185956E-2	-1.473998E-3	5.296079E-4	-4.614664E-4	-2.708923E-3	-2.316109E-3	-2.525922E-3	7.425063E-4	-2.581446E-4	-7.183248E-3	7.080196E-5	-1.684794E-3	4.931584E-3	2.438229E-3	-4.977608E-5	-6.520660E-3	-5.647861E-3	-4.242328E-3	-5.748803E-3	-5.304874E-3	-6.302439E-3	-8.754483E-3	-5.178793E-3	5.306351E-4	-3.309534E-3	-6.614649E-3	-6.912099E-3	-7.593576E-3	-3.526020E-3	-5.973378E-3	9.186099E-4	-1.860766E-4	-1.203468E-3	-7.088333E-3	1.473966E-3	-1.198763E-2	2.658782E-4	-2.867595E-3	-4.760285E-3	-6.936036E-4	1.673587E-4	-7.469698E-3	-4.427028E-3	-5.224322E-3	-1.258386E-3	-3.800229E-3	6.076036E-3	4.061608E-3	-4.086010E-3	5.083217E-4	-3.563396E-3	-6.987187E-3	-1.010069E-2	-4.503053E-3	-1.171099E-3	3.410422E-3	1.512532E-3	-8.015789E-4	-7.493646E-4	-6.155300E-3	-6.688310E-3	-5.150647E-3	-9.440578E-4	-1.201543E-3	-1.137700E-2	8.325173E-5	-5.512264E-3	6.736428E-3	7.717682E-3	6.349302E-3	-4.981996E-3	-2.029838E-3	-4.300878E-3	-5.764872E-3	-8.395436E-3	-1.062622E-2	-7.124749E-3	-5.390062E-3	-5.484039E-3	-9.395925E-3	-2.137452E-3	4.970125E-3	1.163248E-3	-8.915059E-4	-1.206664E-2	-2.082300E-3	3.078228E-3	1.260759E-3	-3.911877E-3	1.909821E-3	-1.042026E-3	-5.428651E-3	-1.260011E-2	-2.003974E-3	5.082939E-3	4.953203E-3	-1.046606E-2
5.315130E+2	6.229496E-3	9.406136E-5	7.472389E-3	1.046020E-3	-4.671750E-3	-9.341370E-4	4.437749E-3	2.057188E-4	-1.593563E-3	-3.319067E-3	5.879246E-3	3.333882E-3	-6.044031E-3	-1.125159E-3	7.795773E-4	8.683184E-3	-2.431317E-3	-8.863325E-4	-1.901390E-3	-3.011807E-3	2.690929E-3	3.171363E-3	-7.122742E-4	-1.548179E-3	-7.321418E-3	5.601291E-3	-2.863019E-4	-8.889067E-4	-3.857501E-3	-1.161455E-3	-5.150459E-4	2.812444E-3	-6.163623E-4	-1.003240E-2	-8.632744E-4	5.669629E-3	-1.718229E-3	-1.028764E-3	5.707467E-4	-6.521738E-3	1.125907E-3	9.072273E-3	5.974483E-3	-4.443588E-3	-4.210928E-3	-7.319753E-3	5.207589E-4	-5.867854E-4	-3.050245E-3	5.167764E-3	-4.649781E-3	-2.798665E-3	-3.661098E-3	-4.330794E-3	1.885641E-3	-4.407917E-3	-1.252097E-3	2.130099E-5	-5.130439E-3	-9.557598E-4	-4.760963E-3	-1.803864E-3	1.228305E-3	5.862453E-4	4.941590E-3	4.860171E-3	6.106154E-4	-1.425922E-3	-7.277845E-4	-3.973113E-3	-1.627742E-3	-4.944711E-3	1.830636E-3	-1.231125E-3	3.950707E-3	7.246158E-3	-4.235675E-4	2.461776E-4	1.525965E-3	1.287870E-3	3.237209E-3	-7.341792E-4	4.235204E-3	1.476645E-3	-4.490489E-3	-3.145342E-3	6.090436E-4	-6.358670E-4	-1.568613E-3	3.870714E-3	9.217176E-4	-3.133051E-3	5.029257E-3	-2.409555E-3	3.943182E-4	3.553947E-3	-5.270610E-3	4.777810E-3	6.316692E-3	-3.715982E-3	4.153076E-3	3.690212E-3	2.762909E-3	4.803087E-3	-8.072190E-3	5.098457E-3	-2.830303E-3	-4.699345E-4	-4.105490E-4	8.031555E-4	-1.243823E-3	-8.207987E-3	-1.101828E-3	2.019719E-3	-1.042858E-3	8.737865E-4	7.325431E-4	-1.147463E-2	-1.709731E-3	1.291138E-3	-7.063791E-3	-4.038568E-3	-9.798453E-3	-6.706773E-3	-7.748020E-3	1.933723E-3	8.534248E-4	1.533133E-3	-5.488668E-3	-4.382784E-4	1.270435E-3	-1.269022E-2	-3.987676E-3	-9.759424E-3	1.559211E-3	3.211241E-3	-7.111783E-3	8.120770E-3	-3.137032E-3	3.996019E-3	-1.085626E-3	2.088819E-3	-9.117006E-3	2.186935E-3	-1.575864E-3	2.095700E-3	-1.354034E-3	5.754483E-4	1.035928E-2	1.509275E-4	1.912078E-3	-9.114514E-4	7.342954E-4	-3.026624E-3	3.931249E-3	2.550063E-3	-1.369718E-3	-3.847858E-3	-2.933928E-3	-2.649402E-3	-1.300857E-2	-1.129047E-2	1.944557E-3	-2.616152E-3	6.590679E-3	-3.879427E-3	4.079055E-3	8.743839E-4	2.756253E-3	5.284259E-3	9.936463E-3	-9.028140E-4
5.320170E+2	-3.607302E-4	3.200180E-3	1.491791E-3	6.582191E-3	-4.167196E-4	3.368401E-3	2.700964E-3	-9.319228E-4	1.263952E-3	5.589292E-3	9.300438E-4	7.475838E-3	5.452668E-3	1.832985E-3	9.210475E-3	1.803151E-3	8.626579E-3	6.420992E-3	9.959313E-3	1.001083E-2	1.004535E-2	4.813569E-3	4.987274E-4	1.044532E-3	6.283860E-3	1.306895E-3	7.112210E-3	8.718951E-3	1.044852E-2	-2.173081E-3	4.666841E-3	-1.665222E-3	1.105413E-2	4.154322E-3	7.703571E-3	-1.030308E-3	2.323662E-4	6.355559E-4	1.834347E-3	-3.673702E-3	4.370510E-3	1.744067E-3	8.440078E-3	4.691386E-3	1.086858E-2	3.610306E-3	2.106685E-3	1.370658E-3	3.513314E-3	1.098676E-3	2.479271E-3	3.843653E-3	7.824506E-3	9.539801E-3	4.903420E-3	8.942647E-3	2.463356E-3	5.008939E-3	8.465682E-3	-1.055260E-3	-4.070939E-3	6.540616E-3	4.949160E-3	8.789173E-3	-4.310964E-3	2.391965E-4	4.985481E-4	5.515871E-3	5.325540E-3	-5.372716E-4	4.124543E-3	7.873458E-3	4.287500E-4	2.038486E-3	1.810907E-3	4.267718E-4	6.492775E-3	6.413200E-4	-8.332543E-4	-1.683970E-3	3.063563E-3	5.621441E-3	2.429711E-4	-3.313656E-3	-1.447335E-3	3.620443E-3	-1.097407E-3	-7.410520E-4	1.193464E-4	2.339324E-3	3.054953E-3	1.017101E-2	1.049068E-2	5.632688E-3	2.133461E-3	-2.432200E-4	1.123558E-2	3.487835E-3	-4.515981E-3	1.716714E-3	-2.522402E-6	8.831826E-5	3.699260E-3	-1.048273E-4	9.802886E-3	-1.294865E-3	1.001652E-3	2.752531E-3	5.029351E-3	6.268135E-3	5.836438E-3	1.710889E-3	2.547985E-3	7.411356E-3	-3.324462E-3	1.831572E-3	5.580512E-3	5.031962E-3	3.739843E-3	-7.280766E-4	7.083303E-3	6.651168E-3	1.092799E-2	9.012585E-3	2.796712E-3	1.810105E-3	5.056542E-3	3.703796E-3	1.032183E-2	2.754108E-3	9.229949E-3	6.514493E-3	5.357981E-3	1.327506E-3	-1.830314E-3	1.022946E-2	6.311423E-3	8.531937E-4	8.352025E-3	2.124871E-2	3.734531E-3	-1.745458E-3	5.300716E-3	-4.134369E-3	5.888740E-3	-4.787581E-3	-1.551560E-3	9.212109E-3	3.223378E-3	9.877204E-3	5.366906E-3	5.950211E-3	3.849308E-3	1.966966E-3	8.331873E-3	-4.122328E-4	4.100015E-3	5.550718E-3	-3.789956E-4	6.948283E-3	3.506057E-3	-4.067441E-4	6.298161E-3	5.686960E-3	-5.005584E-3	-4.512694E-3	1.465294E-2	7.682742E-3	-3.169442E-3	2.166360E-3	6.547808E-3	-4.193811E-3
5.325170E+2	1.205282E-2	1.622513E-3	7.953904E-3	2.064798E-3	1.319912E-2	1.013996E-2	-3.045248E-3	4.657668E-3	4.323345E-3	-3.391887E-3	6.863529E-3	-1.585598E-3	1.176504E-2	6.343056E-3	8.496836E-3	3.158113E-3	3.980703E-3	4.019145E-3	1.005254E-2	6.559000E-3	4.716919E-3	8.845429E-3	1.392149E-2	1.105933E-2	1.072108E-2	1.592779E-2	8.150337E-3	6.095144E-3	5.854508E-3	1.445016E-2	4.762937E-3	1.231194E-2	1.798152E-2	1.005368E-2	9.730934E-3	-9.404251E-6	1.465138E-2	1.414469E-2	6.520729E-3	1.024418E-2	8.475861E-3	6.521349E-3	1.183650E-3	6.835949E-3	1.461894E-2	1.076529E-2	3.040385E-3	7.695451E-3	1.883231E-2	2.184538E-3	1.660127E-2	7.313093E-3	8.768905E-3	8.696826E-3	9.654479E-3	8.543136E-3	7.079740E-3	3.999181E-3	9.106867E-3	8.104324E-3	1.725680E-2	1.044324E-2	1.083833E-2	8.075279E-3	1.234212E-2	7.871861E-3	1.209374E-2	1.066594E-2	9.147627E-3	2.127784E-2	8.133159E-3	7.992031E-3	1.009523E-2	7.119055E-3	1.347499E-2	1.111734E-2	8.790293E-3	9.888426E-3	1.004668E-2	1.322988E-2	5.918350E-3	6.351998E-3	8.073772E-3	1.031290E-2	9.296368E-3	8.932606E-3	1.287440E-2	7.580158E-3	3.610249E-3	7.122570E-3	8.804452E-3	1.037815E-2	7.201558E-3	1.080864E-2	1.240449E-2	4.022771E-3	1.024493E-2	1.290451E-2	7.252718E-4	1.238668E-2	7.662738E-3	6.948991E-3	9.774735E-3	2.460665E-3	4.374951E-3	2.973792E-3	1.018386E-2	9.599407E-3	5.497016E-3	8.153317E-3	8.090428E-3	1.060558E-2	1.135058E-2	6.936501E-3	1.848932E-2	6.770345E-3	1.104764E-2	1.016090E-2	1.518126E-2	1.022184E-2	6.209022E-3	1.700667E-3	1.333368E-2	9.715909E-3	9.562304E-3	1.171576E-2	4.585023E-3	1.079199E-2	6.307277E-3	1.003086E-2	-1.123663E-3	1.375613E-2	1.096959E-2	1.672447E-2	1.276052E-2	-3.637906E-3	7.333670E-3	7.346470E-3	6.297587E-3	-1.247631E-3	7.874966E-3	7.015834E-3	2.956990E-3	6.129983E-3	2.929443E-3	9.911016E-3	6.683589E-4	6.165340E-3	6.155380E-3	9.449687E-3	8.026601E-3	1.209237E-2	5.001635E-3	1.059634E-2	1.122814E-2	6.992285E-3	5.124597E-3	1.090508E-2	6.396221E-3	1.435273E-2	1.267989E-2	1.852450E-2	2.880567E-3	1.027696E-2	1.251098E-2	1.398899E-2	4.965871E-3	4.879218E-3	5.588311E-3	4.234339E-3	1.133996E-2	2.108309E-3
5.330230E+2	1.669458E-2	2.004496E-2	1.278770E-2	2.546346E-2	1.865027E-2	4.730298E-3	2.304630E-2	1.338382E-2	1.547349E-2	2.455619E-2	3.002982E-2	1.526986E-2	2.028728E-2	1.806157E-2	1.482725E-2	1.855156E-2	2.075203E-2	3.250694E-2	1.843063E-2	6.746113E-3	1.933411E-2	2.046015E-2	3.108203E-2	1.940509E-2	2.692287E-2	1.821997E-2	1.591277E-2	2.748790E-2	2.192885E-2	1.824340E-2	2.213475E-2	3.163420E-2	1.478063E-2	1.872710E-2	1.670841E-2	1.523699E-2	2.678882E-2	2.135218E-2	1.362615E-2	1.801751E-2	2.328003E-2	1.611941E-2	9.770668E-3	1.733002E-2	1.164728E-2	2.823113E-2	1.937403E-2	1.747292E-2	1.714871E-2	2.391896E-2	1.876784E-2	3.122295E-2	2.143089E-2	2.366951E-2	2.284084E-2	2.520755E-2	2.088492E-2	1.790182E-2	2.084994E-2	3.106846E-2	2.139593E-2	1.149184E-2	2.556863E-2	2.207052E-2	2.073738E-2	1.309716E-2	2.540778E-2	2.453224E-2	1.128132E-2	2.348892E-2	2.546405E-2	2.163561E-2	1.532236E-2	2.163471E-2	1.519532E-2	2.306053E-2	2.785523E-2	3.179796E-2	3.370230E-2	2.399667E-2	1.378832E-2	1.844351E-2	2.099534E-2	1.258905E-2	1.766697E-2	2.535560E-2	2.588901E-2	1.403929E-2	1.218950E-2	1.379924E-2	1.742978E-2	2.525649E-2	1.796962E-2	1.556521E-2	2.234903E-2	2.831911E-2	2.310815E-2	1.604050E-2	2.807249E-2	3.097538E-2	2.194705E-2	2.482079E-2	1.969400E-2	1.613210E-2	1.987175E-2	1.697947E-2	2.459743E-2	1.204292E-2	2.040459E-2	2.867413E-2	2.235978E-2	3.051670E-2	3.054792E-2	2.656321E-2	2.776971E-2	2.360753E-2	1.939016E-2	1.283012E-2	2.275535E-2	2.376599E-2	1.857492E-2	2.232530E-2	3.067360E-2	2.866786E-2	1.251592E-2	1.826742E-2	2.019196E-2	2.304470E-2	2.595739E-2	1.583909E-2	1.942349E-2	7.327605E-3	3.829282E-2	1.716031E-2	2.598905E-2	2.068196E-2	1.468367E-2	1.475761E-2	2.188154E-2	1.136966E-2	1.337940E-2	1.695501E-2	2.258178E-2	1.878330E-2	1.487591E-2	1.351945E-2	9.609263E-3	2.354922E-2	2.346392E-2	2.668549E-2	1.343532E-2	1.889162E-2	2.122787E-2	1.716268E-2	1.987137E-2	1.795935E-2	1.704641E-2	2.555152E-3	1.375049E-2	2.682148E-2	1.602063E-2	1.825068E-2	2.064155E-2	2.235685E-2	2.201846E-2	3.227412E-2	2.623971E-2	2.018194E-2	7.807257E-3	2.437996E-2	1.629987E-2	3.054426E-2
5.331630E+2	2.267621E-2	2.121988E-2	2.274379E-2	2.552021E-2	1.698476E-2	8.695975E-3	2.788069E-2	1.746539E-2	2.252179E-2	3.983401E-2	1.937477E-2	2.018578E-2	3.285936E-2	1.546534E-2	3.498417E-2	2.243096E-2	3.030733E-2	1.962714E-2	3.537080E-2	2.919693E-2	1.785003E-2	2.271784E-2	1.820081E-2	2.536032E-2	2.794740E-2	2.556636E-2	2.071535E-2	2.263395E-2	2.671902E-2	2.873089E-2	2.343111E-2	2.653806E-2	2.168300E-2	2.198179E-2	2.015886E-2	2.237395E-2	2.974859E-2	1.923686E-2	2.198898E-2	1.681835E-2	3.039672E-2	1.877738E-2	2.984291E-2	1.840444E-2	2.858893E-2	3.672745E-2	3.988937E-2	2.171269E-2	4.157589E-2	2.397658E-2	1.639382E-2	2.207442E-2	2.150872E-2	2.372730E-2	2.757208E-2	1.926217E-2	2.851128E-2	3.333972E-2	3.301590E-2	2.085546E-2	3.365912E-2	2.298729E-2	2.708075E-2	2.758036E-2	2.515333E-2	2.474832E-2	2.965723E-2	2.763043E-2	2.769054E-2	1.661703E-2	2.993241E-2	2.216607E-2	3.153961E-2	3.050541E-2	2.786778E-2	2.981911E-2	2.405633E-2	1.930445E-2	2.068224E-2	2.837706E-2	2.408838E-2	2.552018E-2	2.602020E-2	2.725481E-2	1.430322E-2	2.885793E-2	3.234763E-2	1.795230E-2	1.224881E-2	3.711800E-2	2.309900E-2	3.057646E-2	3.582535E-2	2.152757E-2	2.518852E-2	2.326891E-2	2.261533E-2	2.881101E-2	2.156759E-2	3.101445E-2	3.948119E-2	3.140538E-2	2.945048E-2	2.773945E-2	3.267801E-2	2.792759E-2	2.520195E-2	2.219028E-2	3.274556E-2	3.348666E-2	2.710619E-2	2.045528E-2	3.369830E-2	1.613383E-2	3.583468E-2	1.987349E-2	1.945992E-2	2.691230E-2	3.396056E-2	2.812170E-2	3.467675E-2	3.165960E-2	3.387572E-2	4.578502E-2	2.650241E-2	3.244291E-2	3.019202E-2	3.229436E-2	2.329875E-2	2.835634E-2	3.348130E-2	2.577555E-2	2.902050E-2	2.548745E-2	2.877878E-2	2.900521E-2	2.624450E-2	2.967943E-2	2.310032E-2	4.369592E-2	3.077952E-2	2.170847E-2	3.679731E-2	3.356914E-2	2.343828E-2	2.720817E-2	2.721984E-2	3.151424E-2	4.328509E-2	4.329532E-2	1.249283E-2	2.932047E-2	2.818907E-2	2.304295E-2	3.543475E-2	1.067494E-2	3.397814E-2	3.049144E-2	1.651908E-2	2.398464E-2	3.112993E-2	1.260931E-2	2.425268E-2	2.641209E-2	3.478314E-2	2.404227E-2	2.075274E-2	2.441269E-2	1.880392E-2	2.368136E-2	1.159332E-2	5.269384E-2
5.333130E+2	3.421457E-2	2.459527E-2	4.857394E-2	3.357639E-2	2.412200E-2	2.610201E-2	3.539982E-2	2.455580E-2	3.764451E-2	2.911846E-2	4.306050E-2	3.654214E-2	2.969177E-2	2.943629E-2	3.645553E-2	3.749667E-2	3.950849E-2	3.716729E-2	3.990622E-2	3.187052E-2	2.584826E-2	2.638885E-2	3.491653E-2	3.504570E-2	3.093972E-2	2.625543E-2	2.459208E-2	3.249443E-2	3.078241E-2	4.253014E-2	2.769003E-2	2.591337E-2	4.195162E-2	3.483747E-2	2.115907E-2	3.527858E-2	3.367312E-2	2.464606E-2	2.580601E-2	2.283383E-2	3.605710E-2	4.527088E-2	2.990437E-2	3.555766E-2	3.977878E-2	4.278135E-2	4.225235E-2	3.234268E-2	3.599313E-2	3.161467E-2	2.423805E-2	5.092634E-2	2.708136E-2	4.591733E-2	3.703302E-2	3.285718E-2	3.825154E-2	2.840927E-2	3.916979E-2	3.802604E-2	2.856722E-2	3.036067E-2	3.790651E-2	2.943026E-2	3.340895E-2	3.851088E-2	3.020044E-2	3.330246E-2	2.297231E-2	2.457942E-2	3.494950E-2	4.159595E-2	3.974564E-2	2.940127E-2	4.167134E-2	3.321649E-2	4.882111E-2	2.905044E-2	4.030563E-2	2.555366E-2	3.650570E-2	3.862094E-2	2.824291E-2	4.518050E-2	2.562726E-2	2.944121E-2	3.185217E-2	3.011944E-2	3.810263E-2	4.156547E-2	3.211921E-2	2.881350E-2	3.693670E-2	3.168298E-2	4.302608E-2	3.454516E-2	3.864493E-2	2.997261E-2	4.005085E-2	3.830809E-2	3.135293E-2	3.502179E-2	4.253550E-2	2.540841E-2	4.765073E-2	3.368316E-2	3.318614E-2	3.457846E-2	3.658188E-2	4.194692E-2	2.941255E-2	4.350586E-2	5.354450E-2	2.232035E-2	3.604972E-2	3.389100E-2	2.396501E-2	3.665810E-2	3.506934E-2	5.072426E-2	2.223888E-2	3.169853E-2	3.572269E-2	3.485106E-2	2.489753E-2	3.487228E-2	5.251954E-2	5.381673E-2	3.612861E-2	4.380473E-2	3.471185E-2	3.539208E-2	4.068912E-2	3.911109E-2	4.086333E-2	3.341681E-2	2.440962E-2	4.832286E-2	2.852187E-2	3.879135E-2	3.771939E-2	4.023347E-2	4.683506E-2	3.201638E-2	4.186798E-2	3.582167E-2	3.447215E-2	3.056008E-2	3.717554E-2	3.767698E-2	4.123817E-2	3.703757E-2	2.441601E-2	3.518645E-2	3.460122E-2	2.428417E-2	2.688426E-2	2.197558E-2	2.970196E-2	4.089249E-2	3.180565E-2	3.223034E-2	3.498547E-2	3.557823E-2	4.458651E-2	2.776877E-2	3.646724E-2	2.675390E-2	2.337498E-2	3.736719E-2	1.848458E-2	3.121873E-2
5.334630E+2	3.865764E-2	3.758435E-2	5.442256E-2	4.384591E-2	4.739984E-2	3.470795E-2	4.498285E-2	3.680188E-2	2.474679E-2	4.439112E-2	4.441795E-2	3.552959E-2	3.970551E-2	4.232805E-2	5.274562E-2	4.541913E-2	5.135818E-2	3.626454E-2	3.555933E-2	4.513961E-2	4.762939E-2	4.267129E-2	4.068713E-2	4.364081E-2	4.606592E-2	4.049408E-2	4.453951E-2	4.403876E-2	3.374518E-2	3.661152E-2	4.691548E-2	4.620161E-2	5.750367E-2	5.138886E-2	4.074139E-2	4.046957E-2	4.591630E-2	3.513100E-2	3.555270E-2	4.808956E-2	3.612635E-2	5.899226E-2	3.688854E-2	3.923358E-2	3.377212E-2	4.449817E-2	5.236613E-2	5.393247E-2	4.838956E-2	4.975052E-2	5.924250E-2	4.840327E-2	4.407987E-2	4.491672E-2	4.235094E-2	5.587997E-2	5.237583E-2	5.238139E-2	3.818396E-2	4.668378E-2	5.162113E-2	4.522122E-2	4.514532E-2	4.611748E-2	4.392331E-2	3.555218E-2	4.664921E-2	4.350615E-2	2.980395E-2	5.088102E-2	5.116187E-2	4.780291E-2	4.031917E-2	4.950006E-2	4.418831E-2	5.292408E-2	3.281866E-2	4.071684E-2	4.519247E-2	4.102093E-2	3.811936E-2	5.382366E-2	4.228049E-2	4.206300E-2	4.877018E-2	5.406716E-2	4.534700E-2	4.515547E-2	3.571623E-2	4.972038E-2	6.151127E-2	4.191741E-2	4.511468E-2	3.351804E-2	4.345853E-2	5.171347E-2	4.771104E-2	5.846815E-2	4.235919E-2	4.014984E-2	4.920922E-2	2.808958E-2	4.740826E-2	3.513161E-2	3.695460E-2	6.021354E-2	3.396110E-2	4.317444E-2	2.973923E-2	3.408940E-2	4.131263E-2	4.387195E-2	4.721732E-2	4.250257E-2	6.854417E-2	4.469907E-2	4.409329E-2	4.460212E-2	4.811638E-2	2.975971E-2	2.968537E-2	3.599067E-2	5.186249E-2	3.449975E-2	5.716904E-2	4.895927E-2	3.213261E-2	4.026352E-2	4.934449E-2	4.890260E-2	4.597025E-2	3.662657E-2	3.692132E-2	4.734984E-2	5.332069E-2	4.325856E-2	3.998713E-2	4.835699E-2	4.151342E-2	4.169083E-2	3.899079E-2	3.830871E-2	3.461483E-2	4.800980E-2	4.672300E-2	4.330844E-2	4.553754E-2	5.469427E-2	4.561725E-2	5.084921E-2	3.720294E-2	5.058652E-2	5.877096E-2	4.166170E-2	3.992579E-2	4.375085E-2	3.374892E-2	3.693364E-2	4.761924E-2	4.670459E-2	3.476660E-2	5.652417E-2	4.106625E-2	3.912580E-2	5.645133E-2	2.947005E-2	4.113425E-2	5.785409E-2	3.770707E-2	4.040535E-2	3.514359E-2	6.805048E-2
5.336080E+2	5.724774E-2	5.998986E-2	6.064748E-2	5.956138E-2	6.143677E-2	5.620972E-2	5.984987E-2	6.842892E-2	7.160585E-2	6.761396E-2	6.171656E-2	6.286778E-2	6.022666E-2	5.658611E-2	7.021887E-2	5.978305E-2	7.555345E-2	5.188570E-2	7.066919E-2	6.689372E-2	5.315257E-2	5.342443E-2	4.961110E-2	5.397071E-2	6.345137E-2	5.690200E-2	6.399084E-2	7.212036E-2	6.036165E-2	5.510093E-2	5.593783E-2	6.341389E-2	6.181747E-2	5.965534E-2	6.784831E-2	6.681600E-2	6.492461E-2	6.448673E-2	5.628997E-2	5.567551E-2	5.707392E-2	7.412898E-2	5.880172E-2	6.741391E-2	6.013925E-2	6.583191E-2	6.132068E-2	5.352890E-2	5.638758E-2	5.610262E-2	5.381513E-2	7.062768E-2	5.029948E-2	5.432601E-2	5.509212E-2	4.917419E-2	5.825121E-2	6.590423E-2	5.657457E-2	6.688778E-2	6.117678E-2	6.602177E-2	5.467790E-2	5.322645E-2	5.895342E-2	6.564846E-2	6.164786E-2	6.970179E-2	6.287640E-2	6.661084E-2	6.230543E-2	5.098281E-2	5.925931E-2	5.973954E-2	6.167829E-2	6.498459E-2	5.849775E-2	7.493522E-2	5.913205E-2	6.104886E-2	5.324661E-2	5.956854E-2	5.303148E-2	5.904343E-2	5.521784E-2	6.135587E-2	5.306952E-2	6.045243E-2	5.564257E-2	4.844110E-2	5.616829E-2	6.802318E-2	5.699977E-2	5.254000E-2	7.405152E-2	5.670949E-2	6.714657E-2	5.760989E-2	5.157577E-2	6.209288E-2	6.713183E-2	5.244048E-2	5.305386E-2	6.920703E-2	5.249223E-2	6.396720E-2	5.119132E-2	5.235929E-2	5.967357E-2	6.039891E-2	5.534787E-2	6.948390E-2	6.408517E-2	6.778974E-2	6.898385E-2	5.454942E-2	5.586831E-2	4.875624E-2	5.734708E-2	6.764729E-2	5.426283E-2	5.912877E-2	4.712201E-2	5.788238E-2	7.078747E-2	4.928856E-2	5.781879E-2	5.630211E-2	7.487952E-2	6.157843E-2	5.494452E-2	7.156518E-2	6.451500E-2	5.042575E-2	7.267124E-2	7.051970E-2	4.655216E-2	6.367187E-2	5.677887E-2	4.881217E-2	6.657213E-2	6.525381E-2	5.845208E-2	6.452023E-2	5.345465E-2	6.678273E-2	5.674222E-2	5.342631E-2	6.066321E-2	5.855357E-2	5.836387E-2	6.927029E-2	4.800291E-2	5.457850E-2	5.984594E-2	5.587902E-2	4.535533E-2	5.892338E-2	6.287907E-2	4.949777E-2	5.462278E-2	4.362436E-2	5.149254E-2	5.691709E-2	6.385121E-2	6.761157E-2	5.421773E-2	6.575929E-2	3.579560E-2	7.332215E-2	4.224126E-2	2.790189E-2
5.337580E+2	7.113503E-2	8.561314E-2	8.043880E-2	7.190841E-2	9.098800E-2	6.731920E-2	7.800973E-2	8.475126E-2	6.799601E-2	8.228324E-2	8.297960E-2	6.698594E-2	8.238466E-2	8.353853E-2	7.169616E-2	7.749295E-2	8.526117E-2	7.871378E-2	8.693678E-2	6.992275E-2	6.040181E-2	8.317102E-2	8.065352E-2	8.156271E-2	8.412917E-2	6.849830E-2	7.381336E-2	8.690849E-2	8.015925E-2	8.407929E-2	7.436154E-2	7.133139E-2	7.663307E-2	8.234987E-2	8.027755E-2	8.652060E-2	9.109840E-2	7.357799E-2	7.077498E-2	8.147833E-2	7.538674E-2	7.419318E-2	6.635926E-2	7.517259E-2	7.736183E-2	7.235581E-2	8.268957E-2	7.477209E-2	8.251449E-2	9.583585E-2	7.616464E-2	8.793000E-2	8.124977E-2	7.996894E-2	8.058737E-2	8.914786E-2	8.081421E-2	7.815585E-2	8.868826E-2	8.340306E-2	7.278232E-2	8.814627E-2	7.532815E-2	8.009353E-2	7.033483E-2	6.542897E-2	7.804708E-2	8.254319E-2	7.074601E-2	7.841153E-2	7.603401E-2	8.849610E-2	8.325255E-2	8.299194E-2	9.113233E-2	8.008665E-2	7.164882E-2	7.466999E-2	6.702034E-2	6.779580E-2	7.959192E-2	7.792725E-2	7.179747E-2	9.228130E-2	7.758381E-2	8.428841E-2	8.695421E-2	1.060500E-1	6.223812E-2	8.381221E-2	9.584374E-2	8.862168E-2	7.888467E-2	8.719050E-2	8.692499E-2	8.401112E-2	7.347287E-2	8.723173E-2	8.103128E-2	8.839605E-2	7.618224E-2	7.518769E-2	9.002150E-2	7.807389E-2	9.474229E-2	7.704825E-2	9.931061E-2	7.589157E-2	7.173083E-2	9.170912E-2	7.536232E-2	8.125535E-2	7.118925E-2	8.169263E-2	8.605389E-2	7.499076E-2	7.817994E-2	7.968641E-2	8.322344E-2	6.762872E-2	8.036464E-2	8.372391E-2	7.204017E-2	9.096663E-2	7.498928E-2	7.970524E-2	1.040200E-1	7.734563E-2	8.915843E-2	8.350138E-2	8.051537E-2	9.959842E-2	8.934621E-2	7.898972E-2	8.795508E-2	8.244340E-2	7.133392E-2	7.286521E-2	9.452983E-2	6.316570E-2	8.253231E-2	8.177418E-2	8.064669E-2	6.773948E-2	7.321594E-2	7.799507E-2	7.107412E-2	7.804793E-2	8.041372E-2	6.901383E-2	8.644887E-2	1.017639E-1	7.968511E-2	9.729056E-2	8.932766E-2	7.910636E-2	8.018882E-2	7.987952E-2	7.390577E-2	7.968273E-2	7.383572E-2	7.211300E-2	8.259686E-2	7.377441E-2	7.669548E-2	9.177407E-2	8.672470E-2	6.954585E-2	7.191638E-2	8.704498E-2	8.388121E-2	1.248731E-1
5.339090E+2	1.230049E-1	1.033628E-1	1.276629E-1	1.104207E-1	1.178009E-1	1.122648E-1	1.311417E-1	1.121858E-1	1.099754E-1	1.065483E-1	1.157886E-1	1.079868E-1	1.146916E-1	1.123238E-1	1.101881E-1	1.145518E-1	1.187385E-1	1.310136E-1	1.253102E-1	9.461537E-2	1.266872E-1	1.284830E-1	1.027264E-1	1.180984E-1	1.051618E-1	9.199322E-2	1.269856E-1	1.126767E-1	1.030238E-1	1.129227E-1	1.264390E-1	1.040714E-1	1.062020E-1	1.192029E-1	1.106679E-1	1.174050E-1	1.153857E-1	1.053715E-1	1.170823E-1	1.081215E-1	1.187178E-1	1.015609E-1	1.267590E-1	1.048826E-1	1.192082E-1	1.218747E-1	1.157464E-1	1.138670E-1	1.268145E-1	1.215952E-1	1.012563E-1	1.069334E-1	9.663589E-2	1.253010E-1	1.189303E-1	1.269514E-1	1.027613E-1	1.283583E-1	1.178028E-1	1.300199E-1	1.088283E-1	1.145904E-1	1.096084E-1	1.129219E-1	1.113027E-1	1.140927E-1	9.633358E-2	1.342188E-1	1.028381E-1	1.091090E-1	1.325578E-1	1.108367E-1	1.104561E-1	1.263871E-1	1.059100E-1	1.169411E-1	1.268143E-1	1.225030E-1	1.155769E-1	1.148949E-1	1.303691E-1	1.300216E-1	1.163416E-1	1.006837E-1	1.282965E-1	1.202371E-1	1.194930E-1	1.122500E-1	1.066381E-1	1.333950E-1	1.173814E-1	1.212661E-1	1.255826E-1	1.091448E-1	1.217441E-1	1.219211E-1	1.239485E-1	1.262217E-1	1.155739E-1	1.177165E-1	1.167335E-1	1.230806E-1	1.151198E-1	1.203539E-1	1.111728E-1	1.241972E-1	1.314522E-1	1.191239E-1	1.199559E-1	1.074615E-1	1.317212E-1	1.033648E-1	1.111138E-1	1.203941E-1	1.135363E-1	1.081119E-1	1.217095E-1	1.176549E-1	1.195907E-1	1.324511E-1	1.174958E-1	1.120441E-1	1.304513E-1	1.248017E-1	1.247944E-1	1.277587E-1	1.043980E-1	1.151034E-1	1.189778E-1	1.248781E-1	1.100618E-1	1.186533E-1	1.097698E-1	1.172916E-1	1.212383E-1	1.266230E-1	1.118412E-1	1.166757E-1	1.300238E-1	1.198971E-1	1.237556E-1	1.229852E-1	1.366399E-1	1.195184E-1	1.173849E-1	1.408796E-1	1.312933E-1	1.297145E-1	1.239900E-1	1.243727E-1	1.148272E-1	1.214163E-1	1.216111E-1	1.337312E-1	1.281762E-1	1.363317E-1	1.107743E-1	1.098568E-1	1.096702E-1	1.271231E-1	1.112539E-1	1.115542E-1	1.487014E-1	1.127395E-1	1.222992E-1	1.162334E-1	1.108158E-1	1.109477E-1	1.177180E-1	1.375327E-1	1.148988E-1	1.266072E-1
5.340690E+2	1.898281E-1	1.567873E-1	2.015589E-1	1.938613E-1	1.899258E-1	1.549962E-1	1.807520E-1	1.817583E-1	1.881355E-1	2.065443E-1	1.849032E-1	1.872739E-1	1.721966E-1	1.846500E-1	1.747239E-1	1.875091E-1	1.853972E-1	1.748589E-1	1.989786E-1	1.793223E-1	2.010869E-1	1.593831E-1	1.783885E-1	1.910914E-1	1.712375E-1	1.705934E-1	1.898715E-1	1.865114E-1	1.941012E-1	1.835696E-1	1.696967E-1	1.855727E-1	1.881618E-1	1.876501E-1	1.867497E-1	2.034041E-1	1.881141E-1	1.786183E-1	1.997200E-1	1.686924E-1	1.766087E-1	1.826060E-1	1.744801E-1	2.059378E-1	1.945726E-1	1.945479E-1	1.744853E-1	1.862626E-1	1.895944E-1	1.805746E-1	1.838615E-1	1.842537E-1	1.873536E-1	1.966907E-1	1.705367E-1	1.900215E-1	1.791663E-1	1.756241E-1	1.889951E-1	1.905987E-1	1.731982E-1	1.841821E-1	1.741601E-1	2.000653E-1	1.983160E-1	1.894897E-1	1.880695E-1	1.935194E-1	1.688569E-1	1.940704E-1	1.969873E-1	1.959927E-1	1.967490E-1	2.105751E-1	1.842726E-1	1.861027E-1	1.913646E-1	1.830769E-1	1.893271E-1	1.861969E-1	1.819942E-1	1.793354E-1	2.048779E-1	1.854371E-1	1.872558E-1	1.801572E-1	1.958294E-1	1.869988E-1	1.793863E-1	1.997067E-1	1.646224E-1	1.985991E-1	1.844883E-1	1.769451E-1	1.953248E-1	1.787052E-1	1.864853E-1	2.106669E-1	1.733759E-1	2.007670E-1	1.894215E-1	1.902160E-1	1.922613E-1	1.934878E-1	2.071824E-1	1.803657E-1	1.755378E-1	1.822962E-1	1.683009E-1	1.907340E-1	1.859543E-1	1.812654E-1	1.850055E-1	1.748327E-1	1.945479E-1	2.029098E-1	1.813392E-1	1.939934E-1	2.011778E-1	1.912749E-1	1.936493E-1	1.906644E-1	1.791775E-1	1.969623E-1	1.763223E-1	2.033149E-1	1.852525E-1	1.843677E-1	1.950664E-1	1.700472E-1	1.834892E-1	1.703678E-1	1.778078E-1	1.926342E-1	2.055873E-1	1.723491E-1	1.886931E-1	1.847453E-1	1.978161E-1	1.846929E-1	1.811143E-1	1.908712E-1	1.866367E-1	1.913570E-1	1.813982E-1	1.921228E-1	1.799695E-1	2.055904E-1	1.919255E-1	1.931043E-1	2.041665E-1	2.097629E-1	2.002694E-1	1.817848E-1	1.774530E-1	1.989674E-1	1.961040E-1	1.741296E-1	2.024978E-1	1.820477E-1	1.717939E-1	1.863861E-1	1.863536E-1	1.751624E-1	1.874552E-1	2.172933E-1	1.926697E-1	1.941458E-1	1.892120E-1	2.043017E-1	2.134151E-1	1.889003E-1
5.342040E+2	3.086800E-1	3.000717E-1	3.051590E-1	2.794854E-1	2.994809E-1	2.891892E-1	2.929352E-1	3.021328E-1	3.029726E-1	2.865337E-1	3.065068E-1	2.957465E-1	3.032508E-1	3.110559E-1	2.886402E-1	2.872044E-1	2.963903E-1	2.958735E-1	3.023749E-1	3.042634E-1	2.958566E-1	3.087003E-1	3.063002E-1	3.076384E-1	2.913007E-1	3.093488E-1	2.998516E-1	2.993033E-1	2.962226E-1	3.078420E-1	2.930241E-1	3.016007E-1	3.122976E-1	3.047645E-1	3.264946E-1	2.772792E-1	3.135724E-1	3.231042E-1	3.094162E-1	3.214768E-1	3.027750E-1	3.177621E-1	2.980384E-1	2.824928E-1	2.974908E-1	3.171349E-1	2.937244E-1	2.951944E-1	3.147972E-1	3.035615E-1	3.056131E-1	2.961491E-1	2.786833E-1	3.044270E-1	3.066730E-1	3.256790E-1	2.942932E-1	3.086896E-1	2.897351E-1	3.023594E-1	2.883470E-1	3.158756E-1	2.939746E-1	2.948707E-1	3.127553E-1	3.088504E-1	2.978404E-1	3.022027E-1	2.882805E-1	3.019301E-1	3.039934E-1	3.191901E-1	3.124190E-1	3.153380E-1	3.220836E-1	2.767257E-1	2.891983E-1	2.823246E-1	2.955149E-1	3.091652E-1	3.143894E-1	2.817084E-1	3.087433E-1	2.906512E-1	2.707374E-1	3.042555E-1	2.965103E-1	3.019709E-1	2.818542E-1	2.670038E-1	2.890404E-1	2.888088E-1	3.283151E-1	2.988888E-1	3.045819E-1	2.971893E-1	2.912158E-1	3.220197E-1	2.869327E-1	3.270557E-1	3.093137E-1	3.017542E-1	3.098827E-1	2.943250E-1	3.068155E-1	2.966617E-1	3.208599E-1	3.062927E-1	3.029388E-1	3.105517E-1	2.973777E-1	2.999633E-1	2.901044E-1	2.893661E-1	3.107245E-1	2.879831E-1	3.017189E-1	2.833915E-1	3.241928E-1	3.156235E-1	3.014194E-1	3.001846E-1	3.268516E-1	2.812618E-1	3.244972E-1	2.968799E-1	3.138322E-1	3.137970E-1	3.109550E-1	3.059949E-1	3.073971E-1	3.271533E-1	2.906865E-1	2.861901E-1	3.115263E-1	3.173072E-1	2.785411E-1	3.113670E-1	3.038855E-1	2.967523E-1	3.045434E-1	2.892817E-1	3.114148E-1	2.910737E-1	2.814478E-1	3.140486E-1	3.040048E-1	2.936429E-1	3.153317E-1	3.090386E-1	3.084616E-1	3.091386E-1	2.998932E-1	3.276105E-1	2.920874E-1	2.947260E-1	3.022179E-1	2.824922E-1	2.950848E-1	2.996659E-1	2.999212E-1	3.035969E-1	3.175589E-1	2.945452E-1	2.927418E-1	3.205746E-1	3.175290E-1	3.195482E-1	2.909608E-1	2.997203E-1	2.792529E-1	2.867741E-1
5.343600E+2	5.367016E-1	5.266540E-1	5.321729E-1	5.176869E-1	4.998135E-1	5.084394E-1	5.472010E-1	5.455635E-1	5.230654E-1	5.541920E-1	5.356425E-1	5.318387E-1	5.049252E-1	5.368314E-1	5.021908E-1	5.130262E-1	5.238688E-1	5.035460E-1	5.566718E-1	5.263776E-1	5.206011E-1	5.450267E-1	5.426416E-1	5.569752E-1	5.048035E-1	5.265898E-1	5.105973E-1	5.617018E-1	5.567020E-1	5.260664E-1	5.270743E-1	5.297221E-1	5.325712E-1	5.061089E-1	5.095520E-1	5.537704E-1	5.281415E-1	5.277027E-1	5.270234E-1	5.276497E-1	5.464322E-1	5.309265E-1	5.084965E-1	5.146386E-1	5.326146E-1	5.467966E-1	5.040903E-1	5.558288E-1	5.170755E-1	5.527481E-1	5.375101E-1	5.319297E-1	5.165568E-1	5.302887E-1	5.579959E-1	5.185188E-1	5.373597E-1	5.323164E-1	5.318078E-1	5.647785E-1	5.731785E-1	5.294121E-1	5.519556E-1	5.589694E-1	5.398611E-1	5.166034E-1	5.460920E-1	5.294285E-1	5.502842E-1	5.498676E-1	5.649265E-1	5.406248E-1	5.084433E-1	5.287645E-1	5.452763E-1	5.369179E-1	5.571622E-1	5.180889E-1	5.442368E-1	5.207639E-1	5.313318E-1	5.421463E-1	5.507007E-1	5.349106E-1	5.440330E-1	5.304775E-1	5.501203E-1	5.429374E-1	5.269112E-1	5.189388E-1	5.722326E-1	5.436981E-1	5.160607E-1	5.380628E-1	5.490585E-1	5.580808E-1	5.592538E-1	5.340254E-1	5.423998E-1	5.257824E-1	5.471762E-1	5.004086E-1	5.614836E-1	5.354108E-1	5.404074E-1	5.282449E-1	5.643064E-1	5.447235E-1	5.374856E-1	4.994819E-1	5.291809E-1	5.216005E-1	5.268399E-1	5.346323E-1	5.694631E-1	5.430233E-1	5.207665E-1	5.135445E-1	5.584035E-1	5.318144E-1	5.338714E-1	5.007323E-1	5.592288E-1	5.417468E-1	5.257751E-1	5.374514E-1	5.738700E-1	5.286213E-1	5.284927E-1	5.206135E-1	5.768286E-1	5.309340E-1	5.503379E-1	5.503949E-1	5.497732E-1	5.390735E-1	5.395936E-1	5.552315E-1	5.386306E-1	5.384175E-1	5.444976E-1	5.260098E-1	5.605904E-1	5.037631E-1	5.145415E-1	5.326159E-1	5.426811E-1	5.435252E-1	5.773877E-1	5.625796E-1	5.934364E-1	5.305171E-1	5.372692E-1	5.257751E-1	5.334884E-1	5.635206E-1	5.433908E-1	5.506891E-1	5.534004E-1	5.137287E-1	5.136638E-1	5.447552E-1	5.117278E-1	4.953926E-1	5.306417E-1	5.285440E-1	5.416478E-1	5.403055E-1	5.167065E-1	5.236256E-1	5.602850E-1	5.278722E-1
5.345160E+2	9.335276E-1	8.483340E-1	9.214716E-1	9.024019E-1	8.801170E-1	8.745699E-1	9.393912E-1	8.527030E-1	8.593566E-1	9.503535E-1	9.193115E-1	8.954842E-1	8.824008E-1	9.112939E-1	9.030821E-1	9.086359E-1	9.033583E-1	8.709502E-1	8.841575E-1	8.984612E-1	9.198216E-1	8.919692E-1	9.354105E-1	9.123549E-1	8.527071E-1	8.944809E-1	8.146582E-1	9.333315E-1	9.311518E-1	9.297498E-1	9.008802E-1	9.209612E-1	8.824690E-1	9.168109E-1	9.148290E-1	8.596684E-1	9.006185E-1	8.930735E-1	8.887505E-1	8.786420E-1	9.021135E-1	8.567283E-1	8.835852E-1	8.898588E-1	8.993271E-1	9.030714E-1	8.824084E-1	9.140826E-1	8.300085E-1	9.130919E-1	8.946987E-1	9.203424E-1	8.897068E-1	8.946929E-1	8.961733E-1	9.331778E-1	8.951926E-1	8.873286E-1	9.183138E-1	9.289137E-1	8.936922E-1	8.745234E-1	8.846219E-1	9.021529E-1	8.542309E-1	8.448709E-1	9.390745E-1	9.125439E-1	8.670269E-1	8.908675E-1	9.291855E-1	8.799101E-1	8.652336E-1	9.067225E-1	8.982209E-1	9.188920E-1	8.800036E-1	8.728017E-1	8.978185E-1	8.714456E-1	9.021607E-1	8.855282E-1	9.225595E-1	8.926859E-1	8.828867E-1	9.139729E-1	9.377843E-1	9.378653E-1	8.777553E-1	8.452592E-1	9.389947E-1	9.047621E-1	9.058277E-1	8.582810E-1	9.053672E-1	8.927036E-1	9.070982E-1	8.877450E-1	9.058813E-1	9.186787E-1	9.266410E-1	9.263019E-1	8.884679E-1	8.878463E-1	8.735488E-1	9.205169E-1	8.912240E-1	8.838054E-1	8.955042E-1	8.886202E-1	8.539402E-1	8.949667E-1	8.912553E-1	8.719866E-1	9.129564E-1	9.365946E-1	8.683534E-1	8.540452E-1	9.280674E-1	8.940692E-1	8.536414E-1	8.674097E-1	9.245772E-1	8.996133E-1	8.589939E-1	9.252495E-1	8.875372E-1	8.927811E-1	8.551128E-1	8.898853E-1	8.805419E-1	9.019484E-1	9.221044E-1	9.066644E-1	9.154018E-1	8.658948E-1	8.671524E-1	8.984328E-1	8.886181E-1	8.946589E-1	9.124414E-1	8.958451E-1	9.035411E-1	9.122536E-1	9.143960E-1	8.864534E-1	9.372467E-1	8.735535E-1	8.839456E-1	9.564533E-1	9.158655E-1	8.941455E-1	8.784041E-1	8.891787E-1	9.527957E-1	9.517250E-1	8.867442E-1	8.792367E-1	8.653262E-1	9.145290E-1	9.048568E-1	8.918132E-1	8.928095E-1	9.380605E-1	9.180136E-1	9.072752E-1	9.265240E-1	9.231182E-1	8.022719E-1	8.934196E-1	8.952456E-1	9.132640E-1
5.346560E+2	1.273923E+0	1.278394E+0	1.336222E+0	1.311603E+0	1.255990E+0	1.243767E+0	1.260571E+0	1.324511E+0	1.253341E+0	1.305915E+0	1.316537E+0	1.351236E+0	1.315873E+0	1.248193E+0	1.294211E+0	1.282518E+0	1.303573E+0	1.237930E+0	1.325270E+0	1.267062E+0	1.272685E+0	1.263158E+0	1.331061E+0	1.268611E+0	1.196307E+0	1.289858E+0	1.259984E+0	1.291621E+0	1.271608E+0	1.257462E+0	1.258590E+0	1.295287E+0	1.320244E+0	1.260933E+0	1.288818E+0	1.289484E+0	1.326553E+0	1.274870E+0	1.302969E+0	1.239926E+0	1.203554E+0	1.248662E+0	1.252561E+0	1.291963E+0	1.281108E+0	1.276673E+0	1.278031E+0	1.263806E+0	1.258360E+0	1.311892E+0	1.258899E+0	1.246073E+0	1.289364E+0	1.282261E+0	1.290524E+0	1.259954E+0	1.255191E+0	1.253076E+0	1.279105E+0	1.318080E+0	1.262698E+0	1.269576E+0	1.266766E+0	1.266910E+0	1.247108E+0	1.235718E+0	1.275788E+0	1.278003E+0	1.250480E+0	1.254292E+0	1.272962E+0	1.276242E+0	1.248939E+0	1.249609E+0	1.292424E+0	1.331895E+0	1.286716E+0	1.272818E+0	1.312687E+0	1.303642E+0	1.277830E+0	1.290183E+0	1.262870E+0	1.243454E+0	1.245870E+0	1.269713E+0	1.333436E+0	1.261174E+0	1.285978E+0	1.266437E+0	1.347993E+0	1.305015E+0	1.306186E+0	1.275019E+0	1.266037E+0	1.291866E+0	1.293135E+0	1.292592E+0	1.270638E+0	1.282983E+0	1.238896E+0	1.245915E+0	1.308254E+0	1.247974E+0	1.235570E+0	1.309988E+0	1.346445E+0	1.248726E+0	1.230234E+0	1.226079E+0	1.259555E+0	1.284278E+0	1.299917E+0	1.232802E+0	1.320539E+0	1.265501E+0	1.291349E+0	1.278729E+0	1.304232E+0	1.246817E+0	1.269795E+0	1.242250E+0	1.346095E+0	1.278086E+0	1.229903E+0	1.299976E+0	1.305954E+0	1.266846E+0	1.245601E+0	1.233938E+0	1.264453E+0	1.271976E+0	1.213756E+0	1.259958E+0	1.315278E+0	1.285806E+0	1.251148E+0	1.259855E+0	1.244372E+0	1.263104E+0	1.306652E+0	1.235790E+0	1.249873E+0	1.278980E+0	1.263579E+0	1.249756E+0	1.227527E+0	1.229309E+0	1.282238E+0	1.260362E+0	1.322097E+0	1.264577E+0	1.267454E+0	1.244431E+0	1.250588E+0	1.264705E+0	1.219973E+0	1.247882E+0	1.297493E+0	1.323201E+0	1.267696E+0	1.273239E+0	1.274482E+0	1.269807E+0	1.246105E+0	1.218464E+0	1.292823E+0	1.278700E+0	1.218579E+0	1.224331E+0	1.301928E+0	1.211346E+0
5.348120E+2	1.660234E+0	1.618198E+0	1.650809E+0	1.675158E+0	1.598495E+0	1.579567E+0	1.611049E+0	1.660768E+0	1.591532E+0	1.667710E+0	1.605867E+0	1.690145E+0	1.620548E+0	1.635123E+0	1.614608E+0	1.661588E+0	1.663402E+0	1.631246E+0	1.652564E+0	1.653612E+0	1.646884E+0	1.639481E+0	1.695494E+0	1.662736E+0	1.595742E+0	1.625044E+0	1.623732E+0	1.641371E+0	1.631924E+0	1.654562E+0	1.598174E+0	1.606102E+0	1.665696E+0	1.585763E+0	1.610344E+0	1.647755E+0	1.609472E+0	1.617463E+0	1.650370E+0	1.594760E+0	1.569748E+0	1.567859E+0	1.662347E+0	1.638306E+0	1.702266E+0	1.629096E+0	1.655825E+0	1.617836E+0	1.549365E+0	1.598165E+0	1.659439E+0	1.673245E+0	1.596310E+0	1.611185E+0	1.645130E+0	1.612808E+0	1.681049E+0	1.605849E+0	1.645913E+0	1.681031E+0	1.628940E+0	1.589374E+0	1.641390E+0	1.549957E+0	1.648634E+0	1.604281E+0	1.606622E+0	1.620453E+0	1.581389E+0	1.615574E+0	1.636667E+0	1.656918E+0	1.580117E+0	1.569042E+0	1.652615E+0	1.657301E+0	1.623667E+0	1.608291E+0	1.628687E+0	1.613492E+0	1.575244E+0	1.584821E+0	1.625959E+0	1.582744E+0	1.666909E+0	1.639697E+0	1.667189E+0	1.638089E+0	1.590397E+0	1.639830E+0	1.617341E+0	1.645068E+0	1.664649E+0	1.598946E+0	1.621886E+0	1.634391E+0	1.655723E+0	1.671002E+0	1.607163E+0	1.627529E+0	1.638135E+0	1.576746E+0	1.645578E+0	1.631455E+0	1.649620E+0	1.648821E+0	1.605862E+0	1.556593E+0	1.595783E+0	1.595427E+0	1.586934E+0	1.620009E+0	1.616718E+0	1.599853E+0	1.628849E+0	1.649120E+0	1.659343E+0	1.557942E+0	1.622379E+0	1.660811E+0	1.624077E+0	1.569127E+0	1.639589E+0	1.673774E+0	1.540856E+0	1.599470E+0	1.653121E+0	1.621643E+0	1.596379E+0	1.630828E+0	1.686446E+0	1.563289E+0	1.591428E+0	1.640382E+0	1.683699E+0	1.571812E+0	1.550177E+0	1.616096E+0	1.586545E+0	1.609930E+0	1.616941E+0	1.567712E+0	1.597227E+0	1.592432E+0	1.604898E+0	1.584650E+0	1.637176E+0	1.575824E+0	1.622902E+0	1.572978E+0	1.636112E+0	1.677863E+0	1.585298E+0	1.585448E+0	1.585777E+0	1.586891E+0	1.598557E+0	1.600049E+0	1.566505E+0	1.637864E+0	1.630995E+0	1.553384E+0	1.639877E+0	1.659234E+0	1.556433E+0	1.567239E+0	1.665135E+0	1.587918E+0	1.540819E+0	1.519859E+0	1.513878E+0	1.648751E+0
5.349580E+2	2.030259E+0	1.902181E+0	1.932495E+0	1.899876E+0	1.906940E+0	1.914405E+0	1.890606E+0	2.019103E+0	1.846102E+0	1.963924E+0	1.934590E+0	1.986031E+0	1.931361E+0	1.950060E+0	1.897846E+0	1.895738E+0	1.921390E+0	1.856809E+0	1.891362E+0	1.992355E+0	1.932303E+0	1.894975E+0	1.972267E+0	1.940488E+0	1.851776E+0	1.921854E+0	1.903303E+0	1.890474E+0	1.935922E+0	1.918186E+0	1.917642E+0	1.923421E+0	1.900435E+0	1.923847E+0	1.903815E+0	1.963020E+0	1.952484E+0	1.954747E+0	1.935944E+0	1.885346E+0	1.834907E+0	1.843587E+0	1.921350E+0	1.940856E+0	1.917641E+0	1.863098E+0	1.898696E+0	1.877604E+0	1.889027E+0	1.935771E+0	1.899278E+0	1.913865E+0	1.902783E+0	1.880316E+0	1.883543E+0	1.964314E+0	1.884451E+0	1.899607E+0	1.933269E+0	2.018702E+0	1.888615E+0	1.879367E+0	1.932779E+0	1.889754E+0	1.965584E+0	1.815690E+0	1.914677E+0	1.904912E+0	1.895100E+0	1.923328E+0	1.941625E+0	1.980007E+0	1.828216E+0	1.904295E+0	1.882734E+0	1.948584E+0	1.872394E+0	1.871255E+0	1.916351E+0	1.937399E+0	1.903166E+0	1.823165E+0	1.885075E+0	1.876226E+0	1.923142E+0	1.930712E+0	1.922076E+0	1.919133E+0	1.924320E+0	1.849088E+0	1.871072E+0	1.882263E+0	1.890608E+0	1.859689E+0	1.885848E+0	1.891201E+0	1.914386E+0	1.866384E+0	1.886151E+0	1.901937E+0	1.912579E+0	1.865134E+0	1.929455E+0	1.923491E+0	1.864060E+0	1.897393E+0	1.908299E+0	1.838197E+0	1.901703E+0	1.832036E+0	1.920848E+0	1.893543E+0	1.841986E+0	1.846756E+0	1.947328E+0	1.830442E+0	1.880091E+0	1.820450E+0	1.960188E+0	1.833501E+0	1.858334E+0	1.855431E+0	1.938578E+0	1.918150E+0	1.837076E+0	1.881627E+0	1.867172E+0	1.815675E+0	1.882946E+0	1.824963E+0	1.849007E+0	1.931373E+0	1.826316E+0	1.871902E+0	1.915345E+0	1.857635E+0	1.748377E+0	1.871293E+0	1.890903E+0	1.817147E+0	1.855833E+0	1.786658E+0	1.874943E+0	1.902652E+0	1.875778E+0	1.844550E+0	1.951474E+0	1.872373E+0	1.880154E+0	1.851557E+0	1.885020E+0	1.863347E+0	1.824158E+0	1.852306E+0	1.885211E+0	1.912289E+0	1.875249E+0	1.859574E+0	1.829800E+0	1.933118E+0	1.790729E+0	1.871143E+0	1.802173E+0	1.937756E+0	1.818147E+0	1.852566E+0	1.923354E+0	1.869381E+0	1.847509E+0	1.794524E+0	1.900472E+0	1.881102E+0
5.351090E+2	2.048813E+0	1.995290E+0	1.976837E+0	1.974155E+0	1.960297E+0	1.931207E+0	2.029573E+0	2.020424E+0	1.963978E+0	2.034028E+0	2.000906E+0	2.065602E+0	2.048655E+0	1.983198E+0	1.956903E+0	2.003748E+0	2.006517E+0	1.976237E+0	1.949190E+0	1.984747E+0	1.945569E+0	1.915819E+0	2.022108E+0	2.016743E+0	1.951830E+0	1.944106E+0	1.969326E+0	1.996369E+0	2.001668E+0	1.933278E+0	1.999190E+0	2.004094E+0	1.988402E+0	1.963907E+0	1.934524E+0	1.967924E+0	2.001639E+0	1.958264E+0	1.958510E+0	1.940309E+0	1.974796E+0	1.903299E+0	1.924103E+0	1.926820E+0	1.961654E+0	2.016520E+0	2.040146E+0	2.017091E+0	1.920297E+0	2.006468E+0	1.984738E+0	2.017625E+0	1.853728E+0	1.928046E+0	1.936459E+0	2.020080E+0	1.958443E+0	1.940973E+0	1.902584E+0	2.009744E+0	1.926639E+0	1.903337E+0	1.988744E+0	1.963016E+0	1.943759E+0	1.909748E+0	1.930306E+0	1.986272E+0	1.993686E+0	1.926980E+0	1.928815E+0	2.009246E+0	1.972393E+0	1.916841E+0	1.918973E+0	2.060540E+0	1.936301E+0	1.978297E+0	1.953936E+0	1.938306E+0	1.951220E+0	1.919016E+0	1.973151E+0	1.998058E+0	1.942779E+0	1.989213E+0	1.954269E+0	1.938725E+0	1.988680E+0	1.938074E+0	1.992296E+0	2.006025E+0	1.976363E+0	1.903239E+0	1.936653E+0	1.882752E+0	1.973665E+0	2.001914E+0	1.885442E+0	1.966732E+0	1.887737E+0	1.945578E+0	1.975088E+0	1.984279E+0	1.962092E+0	1.990267E+0	2.051579E+0	2.004762E+0	1.956311E+0	1.984705E+0	2.026998E+0	2.001608E+0	1.981815E+0	1.961773E+0	1.978049E+0	1.979840E+0	2.004964E+0	1.960410E+0	2.019844E+0	1.998900E+0	1.913605E+0	1.949878E+0	2.099305E+0	2.059842E+0	1.957530E+0	1.952395E+0	1.944225E+0	1.928460E+0	2.061631E+0	2.006712E+0	1.989778E+0	2.032962E+0	1.996565E+0	2.005200E+0	2.081839E+0	1.956715E+0	1.877954E+0	1.983782E+0	1.978030E+0	1.974740E+0	2.014930E+0	1.884320E+0	1.962399E+0	1.989280E+0	1.918197E+0	1.946499E+0	1.927059E+0	2.001923E+0	1.949517E+0	2.042008E+0	2.066686E+0	1.939467E+0	1.887366E+0	1.999920E+0	2.026716E+0	1.976097E+0	1.902204E+0	1.936294E+0	1.922219E+0	1.981274E+0	1.943872E+0	1.964903E+0	1.994818E+0	2.018251E+0	1.883623E+0	1.945265E+0	1.985635E+0	1.978997E+0	1.911333E+0	1.871560E+0	1.941930E+0	1.790932E+0
5.352600E+2	1.946728E+0	1.884947E+0	1.956337E+0	1.958440E+0	1.804860E+0	1.927868E+0	1.933882E+0	1.982526E+0	1.894934E+0	1.908883E+0	1.842800E+0	1.977259E+0	1.874335E+0	1.888703E+0	1.855417E+0	1.879204E+0	1.861858E+0	1.850881E+0	1.889699E+0	1.886476E+0	1.890618E+0	1.851624E+0	1.866892E+0	1.899481E+0	1.891429E+0	1.902571E+0	1.936469E+0	1.909905E+0	1.851925E+0	1.900630E+0	1.902939E+0	1.934577E+0	1.932554E+0	1.865924E+0	1.847286E+0	1.878777E+0	1.913466E+0	1.879743E+0	1.875807E+0	1.845362E+0	1.891076E+0	1.869150E+0	1.867346E+0	1.863296E+0	1.914107E+0	1.930867E+0	1.940247E+0	1.918578E+0	1.845487E+0	1.883741E+0	1.936516E+0	1.958595E+0	1.844275E+0	1.899470E+0	1.807229E+0	1.963688E+0	1.861413E+0	1.861265E+0	1.856771E+0	1.912431E+0	1.854578E+0	1.914873E+0	1.877797E+0	1.886368E+0	1.884580E+0	1.808151E+0	1.895587E+0	1.863164E+0	1.856261E+0	1.855919E+0	1.883901E+0	1.858641E+0	1.823888E+0	1.839917E+0	1.831084E+0	1.914524E+0	1.864538E+0	1.809277E+0	1.853854E+0	1.869353E+0	1.911974E+0	1.869930E+0	1.882663E+0	1.802402E+0	1.879878E+0	1.899385E+0	1.830593E+0	1.923970E+0	1.851055E+0	1.870384E+0	1.838339E+0	1.915011E+0	1.890450E+0	1.803708E+0	1.852189E+0	1.850475E+0	1.917968E+0	1.812580E+0	1.823140E+0	1.834761E+0	1.852410E+0	1.819703E+0	1.858845E+0	1.879684E+0	1.831412E+0	1.877569E+0	1.924695E+0	1.881562E+0	1.834529E+0	1.823097E+0	1.902250E+0	1.874485E+0	1.880749E+0	1.928526E+0	1.858992E+0	1.889100E+0	1.888542E+0	1.826348E+0	1.861062E+0	1.812514E+0	1.859098E+0	1.807368E+0	1.858209E+0	1.871748E+0	1.833246E+0	1.857824E+0	1.941663E+0	1.902203E+0	1.832043E+0	1.855941E+0	1.795931E+0	1.900799E+0	1.795435E+0	1.881356E+0	1.877188E+0	1.865638E+0	1.780451E+0	1.805515E+0	1.895452E+0	1.892179E+0	1.817607E+0	1.833592E+0	1.799291E+0	1.767189E+0	1.805663E+0	1.860167E+0	1.828601E+0	1.859558E+0	1.810358E+0	1.849854E+0	1.862566E+0	1.871001E+0	1.778890E+0	1.857970E+0	1.856311E+0	1.850164E+0	1.839418E+0	1.812438E+0	1.836631E+0	1.915092E+0	1.812369E+0	1.745186E+0	1.831748E+0	1.837894E+0	1.793550E+0	1.789151E+0	1.854751E+0	1.851457E+0	1.735149E+0	1.809391E+0	1.819474E+0	1.894010E+0
5.354010E+2	1.643213E+0	1.682996E+0	1.663133E+0	1.649128E+0	1.621495E+0	1.635192E+0	1.657781E+0	1.670691E+0	1.649574E+0	1.732798E+0	1.647606E+0	1.715589E+0	1.622686E+0	1.590473E+0	1.626598E+0	1.649241E+0	1.689641E+0	1.597005E+0	1.682213E+0	1.628522E+0	1.617068E+0	1.601765E+0	1.659968E+0	1.625771E+0	1.626572E+0	1.658610E+0	1.646101E+0	1.673683E+0	1.672423E+0	1.637298E+0	1.595478E+0	1.647253E+0	1.636891E+0	1.671624E+0	1.633028E+0	1.614326E+0	1.656025E+0	1.658061E+0	1.670089E+0	1.649305E+0	1.621379E+0	1.620340E+0	1.581721E+0	1.641357E+0	1.676257E+0	1.670886E+0	1.664582E+0	1.635587E+0	1.682592E+0	1.618409E+0	1.628510E+0	1.629949E+0	1.607107E+0	1.662296E+0	1.618788E+0	1.648885E+0	1.626823E+0	1.647244E+0	1.705256E+0	1.664701E+0	1.566253E+0	1.611721E+0	1.662839E+0	1.608638E+0	1.623285E+0	1.580395E+0	1.661904E+0	1.624936E+0	1.652211E+0	1.656588E+0	1.649872E+0	1.633690E+0	1.603770E+0	1.649488E+0	1.646690E+0	1.710030E+0	1.623773E+0	1.645259E+0	1.597970E+0	1.630887E+0	1.693163E+0	1.631825E+0	1.621587E+0	1.621647E+0	1.649619E+0	1.631187E+0	1.665234E+0	1.677850E+0	1.616656E+0	1.601449E+0	1.660901E+0	1.642617E+0	1.692942E+0	1.591738E+0	1.675519E+0	1.652544E+0	1.657389E+0	1.635813E+0	1.572444E+0	1.592681E+0	1.600331E+0	1.648745E+0	1.661715E+0	1.672895E+0	1.625575E+0	1.654307E+0	1.639385E+0	1.627114E+0	1.658006E+0	1.623910E+0	1.635311E+0	1.640946E+0	1.587893E+0	1.605438E+0	1.629211E+0	1.598893E+0	1.660201E+0	1.645662E+0	1.633825E+0	1.644580E+0	1.697051E+0	1.604800E+0	1.677722E+0	1.640112E+0	1.542690E+0	1.671419E+0	1.610869E+0	1.609261E+0	1.600362E+0	1.658577E+0	1.620225E+0	1.691626E+0	1.609236E+0	1.629848E+0	1.680039E+0	1.614117E+0	1.546470E+0	1.605293E+0	1.597403E+0	1.591210E+0	1.571504E+0	1.554593E+0	1.582272E+0	1.621463E+0	1.612186E+0	1.645668E+0	1.633948E+0	1.606876E+0	1.615172E+0	1.637054E+0	1.620434E+0	1.689211E+0	1.564041E+0	1.657893E+0	1.602655E+0	1.589041E+0	1.579503E+0	1.566495E+0	1.566648E+0	1.663987E+0	1.622981E+0	1.612325E+0	1.629557E+0	1.653652E+0	1.643861E+0	1.585535E+0	1.611918E+0	1.648248E+0	1.538289E+0	1.607406E+0	1.500039E+0	1.531465E+0
5.355580E+2	1.477621E+0	1.436449E+0	1.456903E+0	1.458200E+0	1.433990E+0	1.403081E+0	1.392265E+0	1.422766E+0	1.417232E+0	1.402185E+0	1.408599E+0	1.475250E+0	1.384493E+0	1.417865E+0	1.374612E+0	1.471400E+0	1.394678E+0	1.332580E+0	1.394441E+0	1.470706E+0	1.375624E+0	1.368995E+0	1.428925E+0	1.438261E+0	1.406395E+0	1.448028E+0	1.459402E+0	1.473983E+0	1.435195E+0	1.401825E+0	1.383897E+0	1.407683E+0	1.450012E+0	1.410929E+0	1.435663E+0	1.396542E+0	1.411289E+0	1.386554E+0	1.448392E+0	1.385137E+0	1.393630E+0	1.383660E+0	1.461068E+0	1.336911E+0	1.430200E+0	1.429641E+0	1.397056E+0	1.432583E+0	1.412201E+0	1.405535E+0	1.426225E+0	1.409593E+0	1.386182E+0	1.378766E+0	1.389554E+0	1.441943E+0	1.409764E+0	1.395792E+0	1.400788E+0	1.487624E+0	1.431947E+0	1.404775E+0	1.442237E+0	1.417956E+0	1.418220E+0	1.355899E+0	1.444903E+0	1.416103E+0	1.434556E+0	1.412586E+0	1.411400E+0	1.423912E+0	1.382820E+0	1.355028E+0	1.450115E+0	1.478880E+0	1.442871E+0	1.395046E+0	1.423295E+0	1.384174E+0	1.427775E+0	1.397725E+0	1.447665E+0	1.413379E+0	1.415423E+0	1.408710E+0	1.443876E+0	1.436685E+0	1.397788E+0	1.421754E+0	1.437674E+0	1.429869E+0	1.452393E+0	1.406509E+0	1.462988E+0	1.456660E+0	1.421872E+0	1.409673E+0	1.400315E+0	1.459688E+0	1.411701E+0	1.383924E+0	1.489612E+0	1.426374E+0	1.395188E+0	1.461298E+0	1.471048E+0	1.352121E+0	1.396875E+0	1.418102E+0	1.400160E+0	1.417684E+0	1.420531E+0	1.367985E+0	1.407452E+0	1.366152E+0	1.405066E+0	1.419110E+0	1.415255E+0	1.365741E+0	1.349157E+0	1.414601E+0	1.459110E+0	1.449387E+0	1.353647E+0	1.388388E+0	1.436508E+0	1.414067E+0	1.407758E+0	1.434144E+0	1.419623E+0	1.530280E+0	1.422767E+0	1.453310E+0	1.448793E+0	1.366786E+0	1.408737E+0	1.365287E+0	1.400403E+0	1.471033E+0	1.420450E+0	1.381662E+0	1.404035E+0	1.426170E+0	1.380949E+0	1.417530E+0	1.393611E+0	1.418814E+0	1.419532E+0	1.456510E+0	1.440931E+0	1.438497E+0	1.388031E+0	1.378897E+0	1.445788E+0	1.455594E+0	1.374500E+0	1.389838E+0	1.338496E+0	1.404003E+0	1.385867E+0	1.363721E+0	1.396043E+0	1.432103E+0	1.396295E+0	1.347963E+0	1.441489E+0	1.404998E+0	1.336904E+0	1.448634E+0	1.422634E+0	1.439856E+0
5.357090E+2	1.237369E+0	1.224306E+0	1.229129E+0	1.273229E+0	1.205285E+0	1.220251E+0	1.189419E+0	1.210677E+0	1.189848E+0	1.222640E+0	1.218202E+0	1.229045E+0	1.192419E+0	1.224484E+0	1.209532E+0	1.195556E+0	1.203851E+0	1.148318E+0	1.149745E+0	1.176152E+0	1.183384E+0	1.162256E+0	1.201432E+0	1.236330E+0	1.182398E+0	1.232865E+0	1.223428E+0	1.220077E+0	1.212499E+0	1.205999E+0	1.168365E+0	1.230043E+0	1.229129E+0	1.247856E+0	1.186407E+0	1.182955E+0	1.216124E+0	1.148052E+0	1.224829E+0	1.189231E+0	1.154310E+0	1.179957E+0	1.184345E+0	1.236975E+0	1.243596E+0	1.226155E+0	1.242600E+0	1.206232E+0	1.219527E+0	1.225827E+0	1.222716E+0	1.226271E+0	1.178085E+0	1.213395E+0	1.197226E+0	1.197426E+0	1.167394E+0	1.236990E+0	1.185759E+0	1.235600E+0	1.192650E+0	1.184139E+0	1.218411E+0	1.230894E+0	1.185988E+0	1.194069E+0	1.235788E+0	1.222464E+0	1.238199E+0	1.240975E+0	1.223902E+0	1.204103E+0	1.194525E+0	1.182427E+0	1.204057E+0	1.218980E+0	1.179835E+0	1.214671E+0	1.221392E+0	1.194472E+0	1.190370E+0	1.191385E+0	1.180968E+0	1.206804E+0	1.226728E+0	1.235557E+0	1.257519E+0	1.216732E+0	1.222798E+0	1.194161E+0	1.236246E+0	1.219411E+0	1.199883E+0	1.177832E+0	1.241215E+0	1.193951E+0	1.172315E+0	1.252143E+0	1.190133E+0	1.234379E+0	1.243969E+0	1.160210E+0	1.239838E+0	1.204393E+0	1.194548E+0	1.263803E+0	1.249338E+0	1.261556E+0	1.183167E+0	1.162677E+0	1.226876E+0	1.209596E+0	1.205793E+0	1.189188E+0	1.204835E+0	1.181790E+0	1.205782E+0	1.175435E+0	1.234539E+0	1.195683E+0	1.226365E+0	1.182184E+0	1.230146E+0	1.218026E+0	1.185584E+0	1.232389E+0	1.258616E+0	1.197082E+0	1.227632E+0	1.195641E+0	1.203857E+0	1.239982E+0	1.206947E+0	1.200453E+0	1.184022E+0	1.194686E+0	1.201604E+0	1.147422E+0	1.202745E+0	1.213862E+0	1.227077E+0	1.191882E+0	1.169794E+0	1.234377E+0	1.261873E+0	1.254801E+0	1.202700E+0	1.200229E+0	1.208595E+0	1.225705E+0	1.198031E+0	1.224687E+0	1.208394E+0	1.216042E+0	1.218363E+0	1.230410E+0	1.207131E+0	1.176162E+0	1.237637E+0	1.210480E+0	1.182025E+0	1.171907E+0	1.219306E+0	1.209983E+0	1.168269E+0	1.168902E+0	1.236171E+0	1.258025E+0	1.183082E+0	1.230056E+0	1.231746E+0	1.201340E+0
5.358650E+2	1.033504E+0	1.055958E+0	1.101451E+0	1.038956E+0	1.003336E+0	1.041369E+0	1.053429E+0	1.018493E+0	1.008739E+0	1.034595E+0	1.066887E+0	1.113671E+0	1.049295E+0	1.065658E+0	1.032440E+0	1.047762E+0	1.099293E+0	1.041574E+0	1.026461E+0	1.053554E+0	1.075600E+0	1.037301E+0	1.048108E+0	1.095874E+0	1.022142E+0	1.007557E+0	1.023589E+0	1.066265E+0	1.076031E+0	1.059464E+0	1.029779E+0	1.086421E+0	9.734353E-1	1.065701E+0	1.041416E+0	1.013451E+0	1.050715E+0	1.016805E+0	1.043810E+0	1.028145E+0	1.048082E+0	1.023474E+0	1.119859E+0	1.022533E+0	1.108558E+0	1.033031E+0	1.042729E+0	1.069347E+0	1.084776E+0	1.077377E+0	1.052844E+0	1.081169E+0	1.049776E+0	1.059522E+0	9.558505E-1	1.041495E+0	1.091080E+0	1.020545E+0	1.053241E+0	1.132110E+0	1.045617E+0	1.014823E+0	1.057205E+0	1.032580E+0	1.083196E+0	1.074513E+0	1.039893E+0	1.072359E+0	1.067315E+0	1.036252E+0	1.070921E+0	1.082848E+0	1.034106E+0	1.039478E+0	1.048987E+0	1.094928E+0	1.006496E+0	1.026302E+0	1.001060E+0	1.060831E+0	1.087597E+0	1.043994E+0	1.019999E+0	1.058881E+0	1.084793E+0	1.035500E+0	1.063450E+0	1.109078E+0	1.050927E+0	1.065978E+0	1.059643E+0	1.129942E+0	1.050345E+0	9.769747E-1	1.075297E+0	1.042187E+0	1.115115E+0	1.086707E+0	1.013314E+0	1.063503E+0	1.054829E+0	1.054417E+0	1.039591E+0	1.108026E+0	1.089154E+0	1.081663E+0	1.083572E+0	1.040515E+0	1.047344E+0	1.078473E+0	1.060930E+0	1.066019E+0	1.067918E+0	1.019741E+0	1.060336E+0	1.043841E+0	1.078830E+0	9.820865E-1	1.036988E+0	1.084908E+0	1.050765E+0	1.011035E+0	1.057214E+0	1.091510E+0	9.933060E-1	1.056115E+0	1.035170E+0	1.066471E+0	1.029732E+0	1.050638E+0	1.067213E+0	1.067227E+0	1.056486E+0	1.022362E+0	1.094005E+0	1.055984E+0	1.002614E+0	1.072694E+0	1.064975E+0	1.024798E+0	1.067980E+0	1.002632E+0	1.081709E+0	1.090424E+0	1.065168E+0	1.055080E+0	1.071352E+0	1.063593E+0	1.079774E+0	1.126190E+0	1.095543E+0	1.056779E+0	9.981779E-1	1.062258E+0	1.028508E+0	1.041750E+0	1.053688E+0	1.072995E+0	1.033379E+0	1.113579E+0	1.059161E+0	1.024963E+0	1.055690E+0	1.071635E+0	1.048059E+0	1.027752E+0	1.071499E+0	1.036249E+0	1.045247E+0	1.042557E+0	1.102210E+0	1.263738E+0
5.360070E+2	9.001585E-1	9.025844E-1	9.417632E-1	8.817734E-1	8.818625E-1	9.001450E-1	9.216805E-1	9.135470E-1	8.586952E-1	9.009826E-1	9.127438E-1	8.992282E-1	9.161347E-1	9.067643E-1	8.903426E-1	9.121985E-1	9.206309E-1	9.143283E-1	9.099150E-1	9.053528E-1	8.951630E-1	9.146248E-1	8.741758E-1	9.198563E-1	8.871442E-1	8.551350E-1	8.883431E-1	8.982968E-1	8.757253E-1	9.063711E-1	8.906811E-1	8.718930E-1	9.231239E-1	8.937936E-1	9.078880E-1	9.100584E-1	8.805449E-1	8.863710E-1	8.862576E-1	8.636446E-1	8.772040E-1	8.543991E-1	9.097195E-1	9.204534E-1	9.142366E-1	8.868144E-1	8.996042E-1	9.272665E-1	8.989557E-1	8.926470E-1	8.888625E-1	8.802744E-1	8.826077E-1	9.059529E-1	9.234238E-1	9.041028E-1	8.733865E-1	8.918947E-1	9.042993E-1	8.720408E-1	9.051297E-1	8.781168E-1	8.962312E-1	8.870452E-1	9.051936E-1	8.683028E-1	8.925237E-1	8.966404E-1	9.348005E-1	8.853633E-1	8.977397E-1	8.718884E-1	8.934290E-1	8.953464E-1	9.062409E-1	8.912051E-1	9.285730E-1	9.164665E-1	8.875737E-1	9.134679E-1	8.924174E-1	8.758048E-1	9.434773E-1	8.666481E-1	8.954027E-1	9.030539E-1	9.057552E-1	9.435566E-1	8.837084E-1	8.875273E-1	9.111805E-1	8.837336E-1	8.972913E-1	8.669764E-1	9.154419E-1	9.339314E-1	8.998246E-1	9.072972E-1	8.590310E-1	9.539211E-1	8.974827E-1	9.064707E-1	8.773571E-1	8.949636E-1	8.855012E-1	9.122422E-1	8.860700E-1	8.822044E-1	9.123576E-1	8.715402E-1	8.927747E-1	9.185994E-1	8.975300E-1	8.742560E-1	9.026033E-1	8.913114E-1	9.422713E-1	8.804683E-1	8.845586E-1	8.685250E-1	9.302690E-1	8.777403E-1	9.028269E-1	9.015198E-1	9.104774E-1	9.044815E-1	8.875731E-1	8.884937E-1	9.415776E-1	9.189349E-1	9.097867E-1	9.123128E-1	9.139233E-1	9.052057E-1	8.905667E-1	8.704322E-1	8.450468E-1	8.988209E-1	8.804083E-1	8.941479E-1	9.014209E-1	8.700376E-1	8.515920E-1	8.784097E-1	9.079255E-1	8.574878E-1	8.965947E-1	8.965878E-1	8.926880E-1	8.841821E-1	9.030223E-1	9.411245E-1	8.911439E-1	9.338891E-1	8.663384E-1	9.008709E-1	8.918984E-1	8.826083E-1	8.636626E-1	9.296626E-1	9.059388E-1	8.910663E-1	9.123633E-1	8.776131E-1	8.818637E-1	9.130472E-1	8.873435E-1	8.933808E-1	8.873443E-1	9.081402E-1	9.284254E-1	9.430304E-1
5.362680E+2	6.881164E-1	6.902828E-1	6.963930E-1	6.713807E-1	6.725755E-1	6.934254E-1	6.811150E-1	6.863865E-1	7.115426E-1	6.803475E-1	7.041671E-1	7.187243E-1	6.951350E-1	7.024977E-1	6.771412E-1	6.928083E-1	6.961969E-1	6.618470E-1	6.795694E-1	6.865631E-1	6.818169E-1	6.672013E-1	7.181183E-1	6.974761E-1	6.664314E-1	6.807218E-1	7.093383E-1	7.027832E-1	7.405022E-1	6.672528E-1	7.127105E-1	7.050338E-1	6.510871E-1	6.819387E-1	6.896794E-1	6.873660E-1	7.022198E-1	7.031655E-1	6.878891E-1	6.823026E-1	6.921958E-1	7.196454E-1	7.258078E-1	6.457275E-1	6.921447E-1	7.273891E-1	6.913190E-1	7.082422E-1	6.587176E-1	6.623502E-1	6.972560E-1	6.813126E-1	6.858587E-1	6.787500E-1	7.086820E-1	7.312419E-1	7.247818E-1	7.138629E-1	6.963192E-1	7.054171E-1	6.862543E-1	6.897466E-1	6.590099E-1	6.999917E-1	7.005871E-1	6.990218E-1	6.868126E-1	7.166537E-1	6.675944E-1	7.026914E-1	7.170138E-1	7.069423E-1	7.037545E-1	6.846588E-1	6.743529E-1	7.345850E-1	6.735739E-1	7.050665E-1	7.274817E-1	7.082684E-1	7.012022E-1	7.188020E-1	7.027229E-1	6.908434E-1	6.780017E-1	7.064416E-1	6.996091E-1	6.907147E-1	7.106944E-1	6.673529E-1	7.012984E-1	6.919910E-1	7.055023E-1	6.871055E-1	7.173320E-1	6.761203E-1	7.187105E-1	7.306138E-1	6.639040E-1	7.087303E-1	7.032846E-1	7.074613E-1	7.266228E-1	7.268563E-1	6.938467E-1	7.261871E-1	6.822014E-1	6.978771E-1	7.245958E-1	7.062469E-1	6.875287E-1	7.209468E-1	7.174670E-1	6.937590E-1	7.099146E-1	6.805624E-1	6.911011E-1	7.029637E-1	6.708072E-1	7.199177E-1	6.811973E-1	7.064933E-1	7.042351E-1	6.657999E-1	7.056416E-1	6.859261E-1	7.059320E-1	7.016810E-1	6.913071E-1	7.156815E-1	6.776485E-1	7.340615E-1	6.765940E-1	6.950786E-1	7.120606E-1	7.093261E-1	6.827883E-1	6.961172E-1	7.339237E-1	7.198339E-1	7.088952E-1	6.703316E-1	7.043338E-1	6.989667E-1	7.146512E-1	7.129554E-1	7.320637E-1	7.500620E-1	6.975724E-1	7.096976E-1	6.656030E-1	7.312688E-1	6.832713E-1	7.045685E-1	6.774914E-1	7.321378E-1	6.942474E-1	6.867091E-1	6.535497E-1	7.418730E-1	7.071970E-1	7.013002E-1	7.138126E-1	7.283000E-1	7.132000E-1	7.094974E-1	7.068774E-1	7.347075E-1	6.918000E-1	7.075587E-1	6.956319E-1	7.307806E-1
5.365140E+2	5.772979E-1	5.435005E-1	5.671298E-1	5.297632E-1	5.208488E-1	5.766122E-1	5.539843E-1	5.372678E-1	5.479895E-1	5.582894E-1	5.772108E-1	5.595807E-1	5.573759E-1	5.542245E-1	5.260455E-1	5.665500E-1	5.427319E-1	5.182528E-1	5.671296E-1	5.658338E-1	5.517473E-1	5.325907E-1	5.571250E-1	5.657903E-1	5.406427E-1	5.311124E-1	5.473186E-1	5.402538E-1	5.397976E-1	5.475770E-1	5.519546E-1	5.664470E-1	5.731088E-1	5.603497E-1	5.681420E-1	5.463572E-1	5.427466E-1	5.724033E-1	5.395592E-1	5.157592E-1	5.802520E-1	5.400474E-1	5.193340E-1	5.405206E-1	5.537813E-1	5.543861E-1	5.644238E-1	5.594298E-1	5.236842E-1	5.372035E-1	5.724582E-1	5.257184E-1	5.184975E-1	5.621597E-1	5.262508E-1	5.354845E-1	5.678828E-1	5.525416E-1	5.541715E-1	5.625595E-1	5.268233E-1	5.730606E-1	5.175867E-1	5.554618E-1	5.377572E-1	5.022649E-1	5.351651E-1	5.554821E-1	5.646340E-1	5.530241E-1	5.499728E-1	5.595714E-1	5.412305E-1	5.514867E-1	5.365570E-1	5.604714E-1	5.834668E-1	5.281502E-1	5.718854E-1	5.826123E-1	5.499685E-1	5.352731E-1	5.704330E-1	5.381917E-1	5.644167E-1	5.735949E-1	5.814800E-1	5.529978E-1	5.460804E-1	5.421332E-1	5.680975E-1	5.532293E-1	5.823880E-1	5.304038E-1	5.445530E-1	5.400653E-1	5.537052E-1	5.896191E-1	5.385501E-1	5.666965E-1	5.624101E-1	5.318549E-1	5.390634E-1	5.356635E-1	5.554594E-1	5.719504E-1	5.703498E-1	5.561371E-1	5.990676E-1	5.477410E-1	5.396847E-1	5.153539E-1	5.632634E-1	5.467285E-1	5.295994E-1	5.390468E-1	5.674367E-1	5.323370E-1	5.498704E-1	5.524636E-1	5.712306E-1	5.326508E-1	5.630414E-1	5.353854E-1	5.317420E-1	5.181792E-1	5.229141E-1	5.674172E-1	5.524402E-1	5.329462E-1	5.604559E-1	5.615516E-1	5.758600E-1	5.567633E-1	5.475671E-1	5.431446E-1	5.295648E-1	5.117661E-1	5.472365E-1	5.461689E-1	5.577241E-1	5.245093E-1	5.552156E-1	5.368497E-1	5.647971E-1	5.782205E-1	5.406676E-1	5.563393E-1	5.741217E-1	5.474759E-1	5.667603E-1	5.587482E-1	5.716839E-1	5.728082E-1	5.461627E-1	5.751364E-1	5.517428E-1	5.257026E-1	5.499285E-1	5.707319E-1	5.430312E-1	5.383851E-1	5.439180E-1	5.600099E-1	5.379549E-1	5.426160E-1	5.661369E-1	5.918367E-1	5.150690E-1	5.294576E-1	5.661597E-1	5.836487E-1
5.367660E+2	5.224309E-1	4.775433E-1	4.890364E-1	4.934315E-1	4.643261E-1	4.762747E-1	4.947376E-1	4.784008E-1	4.577434E-1	4.941471E-1	4.862722E-1	5.072841E-1	4.722477E-1	4.710447E-1	4.608898E-1	4.783423E-1	4.891183E-1	4.924923E-1	4.923037E-1	4.631707E-1	4.633605E-1	4.791218E-1	4.936947E-1	4.774020E-1	4.945461E-1	5.118773E-1	4.814805E-1	4.822222E-1	4.668291E-1	4.994069E-1	4.859542E-1	4.870703E-1	4.889853E-1	5.170645E-1	4.862001E-1	4.761979E-1	4.710835E-1	5.030802E-1	4.796418E-1	4.872688E-1	4.765173E-1	4.801147E-1	4.763870E-1	5.083571E-1	5.259816E-1	4.928681E-1	4.857789E-1	5.010229E-1	4.789740E-1	5.043441E-1	5.131866E-1	5.090472E-1	5.008513E-1	5.003259E-1	4.628877E-1	5.027396E-1	4.853354E-1	5.074142E-1	4.746705E-1	4.797574E-1	4.937601E-1	4.625476E-1	4.713739E-1	4.848992E-1	4.648367E-1	4.727379E-1	5.152339E-1	4.953532E-1	5.174847E-1	4.990631E-1	4.903582E-1	5.024896E-1	5.009766E-1	4.993558E-1	4.857015E-1	4.862078E-1	4.868341E-1	5.099989E-1	4.886343E-1	4.656871E-1	4.867676E-1	4.908330E-1	4.824443E-1	4.900669E-1	4.811731E-1	4.822735E-1	5.037713E-1	5.047941E-1	5.111495E-1	4.519663E-1	5.048297E-1	4.567300E-1	4.829711E-1	4.710600E-1	4.937261E-1	4.879897E-1	5.003042E-1	4.843930E-1	4.875794E-1	4.994341E-1	4.726237E-1	5.143718E-1	4.649981E-1	4.783977E-1	4.800840E-1	4.913088E-1	4.746884E-1	4.545210E-1	4.848257E-1	5.164860E-1	4.737175E-1	4.832250E-1	4.889224E-1	4.675466E-1	5.075760E-1	4.914041E-1	4.910695E-1	4.691794E-1	5.041764E-1	4.999880E-1	4.515332E-1	4.800127E-1	4.690095E-1	5.071182E-1	4.791396E-1	4.654053E-1	5.208384E-1	4.786759E-1	5.246009E-1	4.579729E-1	4.663292E-1	5.253256E-1	5.112926E-1	4.917929E-1	4.862000E-1	4.902179E-1	4.997474E-1	5.061965E-1	4.975276E-1	4.766259E-1	4.738289E-1	4.851298E-1	4.919621E-1	4.931887E-1	4.930072E-1	4.880281E-1	4.895042E-1	4.868441E-1	4.814235E-1	4.965248E-1	5.191879E-1	5.294218E-1	5.054457E-1	4.591510E-1	4.589460E-1	4.841859E-1	5.006146E-1	4.861621E-1	4.940679E-1	4.924902E-1	5.023661E-1	5.053720E-1	4.896295E-1	4.929807E-1	4.884378E-1	5.033387E-1	4.954208E-1	5.002310E-1	4.769986E-1	5.135135E-1	4.897362E-1	5.189579E-1
5.370280E+2	4.921703E-1	4.775150E-1	4.692680E-1	4.611013E-1	4.576494E-1	4.289201E-1	4.551151E-1	4.640689E-1	4.220462E-1	4.899995E-1	4.351414E-1	4.636198E-1	4.515146E-1	4.598837E-1	4.784592E-1	4.760960E-1	4.619750E-1	4.523110E-1	4.769114E-1	4.501753E-1	4.304958E-1	4.555285E-1	4.704698E-1	4.670982E-1	4.778958E-1	4.601538E-1	4.851155E-1	4.431220E-1	4.879710E-1	4.567431E-1	4.837358E-1	4.685871E-1	4.494767E-1	4.446615E-1	4.572516E-1	4.386230E-1	4.902553E-1	4.537124E-1	4.522210E-1	4.666510E-1	4.664493E-1	4.591299E-1	4.486957E-1	4.627178E-1	4.729265E-1	4.623141E-1	4.760855E-1	4.759635E-1	4.564013E-1	4.778269E-1	4.522386E-1	4.494768E-1	4.522017E-1	4.453518E-1	4.462834E-1	4.926193E-1	4.677097E-1	4.895568E-1	4.457957E-1	4.736308E-1	4.686007E-1	4.539711E-1	4.647333E-1	4.618436E-1	4.884907E-1	4.292165E-1	4.601616E-1	4.431109E-1	4.519373E-1	4.872467E-1	4.475486E-1	4.707863E-1	4.503073E-1	4.740076E-1	4.892565E-1	4.526836E-1	4.751784E-1	4.709663E-1	4.865123E-1	4.566044E-1	4.829918E-1	4.966921E-1	4.598091E-1	4.420453E-1	4.750331E-1	4.629825E-1	4.880834E-1	4.865234E-1	4.444445E-1	4.672636E-1	5.004362E-1	4.626613E-1	4.798726E-1	4.552400E-1	4.787433E-1	4.795233E-1	4.780609E-1	4.774442E-1	4.693274E-1	4.537159E-1	4.877144E-1	4.690619E-1	4.559975E-1	4.543968E-1	4.580889E-1	4.584950E-1	4.888661E-1	4.629555E-1	4.928268E-1	4.691199E-1	4.542420E-1	4.902516E-1	4.713637E-1	5.022582E-1	4.968164E-1	4.429305E-1	4.578758E-1	4.872329E-1	4.503424E-1	4.498167E-1	4.812546E-1	4.466486E-1	4.872609E-1	4.600555E-1	4.556600E-1	4.758572E-1	4.788811E-1	4.472514E-1	4.730898E-1	4.893448E-1	4.876804E-1	4.782698E-1	4.728002E-1	4.531594E-1	4.834431E-1	4.713750E-1	4.742632E-1	4.701566E-1	4.578514E-1	4.261013E-1	4.535267E-1	4.425384E-1	4.776662E-1	4.596729E-1	4.823359E-1	4.668944E-1	4.655177E-1	4.706821E-1	4.973819E-1	4.928154E-1	5.168580E-1	4.887850E-1	4.876766E-1	4.232005E-1	4.828779E-1	4.699559E-1	4.464998E-1	4.644222E-1	4.760238E-1	4.872594E-1	4.563626E-1	4.449108E-1	4.527017E-1	5.002764E-1	4.698515E-1	4.520999E-1	4.995611E-1	4.763908E-1	4.328900E-1	4.625823E-1	4.756512E-1	4.581848E-1
5.372590E+2	4.736418E-1	4.778863E-1	4.626798E-1	4.865899E-1	4.677453E-1	4.630647E-1	4.943959E-1	4.519555E-1	4.862451E-1	5.013412E-1	4.888964E-1	5.040884E-1	4.776085E-1	4.735628E-1	4.736439E-1	4.810010E-1	4.831940E-1	4.790010E-1	4.755323E-1	4.901498E-1	4.900191E-1	4.693349E-1	4.625834E-1	4.909782E-1	4.755697E-1	4.818428E-1	4.814749E-1	4.604783E-1	4.885484E-1	4.885201E-1	4.690050E-1	4.689505E-1	4.743677E-1	4.785388E-1	4.797988E-1	4.848237E-1	4.761405E-1	4.655267E-1	4.945578E-1	4.591421E-1	4.783884E-1	4.577024E-1	4.643628E-1	4.754480E-1	4.686115E-1	5.126113E-1	4.898610E-1	4.804763E-1	4.937425E-1	4.717670E-1	4.635798E-1	4.536057E-1	4.543952E-1	4.642721E-1	4.873027E-1	4.743394E-1	4.951734E-1	4.883071E-1	4.657396E-1	4.408979E-1	4.953193E-1	4.937628E-1	4.851247E-1	4.846111E-1	4.870801E-1	4.774425E-1	4.579941E-1	4.588356E-1	4.910004E-1	4.568651E-1	4.464938E-1	4.784194E-1	4.474461E-1	4.738039E-1	4.722408E-1	4.899161E-1	5.082499E-1	4.732862E-1	4.877441E-1	4.839926E-1	4.912985E-1	4.712176E-1	4.711566E-1	4.622972E-1	4.980016E-1	4.727737E-1	4.754272E-1	4.798401E-1	4.635052E-1	4.709244E-1	4.878152E-1	4.838189E-1	5.099106E-1	4.834993E-1	4.965636E-1	4.659041E-1	4.828027E-1	5.071063E-1	5.071714E-1	4.947407E-1	4.979029E-1	4.431500E-1	4.819306E-1	4.676171E-1	5.061083E-1	4.828088E-1	4.851725E-1	4.791101E-1	4.715552E-1	4.999947E-1	4.994364E-1	4.711213E-1	5.111276E-1	4.586018E-1	4.971478E-1	5.066260E-1	4.988655E-1	4.891217E-1	5.016489E-1	4.698266E-1	5.026383E-1	4.749503E-1	4.696731E-1	4.802726E-1	4.775973E-1	5.126122E-1	5.176971E-1	5.167999E-1	4.641403E-1	5.069592E-1	4.910662E-1	4.699947E-1	4.894549E-1	5.003751E-1	4.970538E-1	4.985977E-1	4.728678E-1	4.866116E-1	5.027498E-1	4.618352E-1	4.674493E-1	4.681747E-1	4.953856E-1	4.738925E-1	4.834719E-1	4.747595E-1	5.098364E-1	4.966057E-1	5.060408E-1	4.874137E-1	5.207245E-1	4.959623E-1	5.021860E-1	4.577190E-1	4.949184E-1	4.707928E-1	4.917293E-1	5.087793E-1	4.834702E-1	4.714412E-1	4.976821E-1	4.678667E-1	5.129543E-1	4.962790E-1	4.892701E-1	5.041128E-1	5.017486E-1	4.799511E-1	4.753071E-1	5.297660E-1	4.888198E-1	4.379112E-1
5.375160E+2	5.616647E-1	5.358247E-1	6.146839E-1	5.639172E-1	5.370116E-1	5.337492E-1	5.727357E-1	5.391701E-1	5.899642E-1	5.688884E-1	5.513054E-1	5.607363E-1	5.754815E-1	5.605487E-1	5.316402E-1	5.456753E-1	5.852692E-1	5.603685E-1	5.592147E-1	5.634533E-1	5.789705E-1	5.684382E-1	5.847831E-1	5.682672E-1	5.312764E-1	5.672453E-1	5.414767E-1	5.655410E-1	5.716751E-1	5.478156E-1	5.726199E-1	5.339999E-1	5.562530E-1	6.150493E-1	5.405447E-1	5.573536E-1	5.536059E-1	5.949560E-1	5.766550E-1	5.590969E-1	5.543816E-1	5.548679E-1	5.755713E-1	5.770524E-1	5.783893E-1	5.341883E-1	5.895938E-1	5.847978E-1	5.737843E-1	5.575461E-1	5.824218E-1	5.975222E-1	5.226623E-1	5.687491E-1	5.657766E-1	5.542905E-1	5.557888E-1	5.809101E-1	5.802178E-1	5.860979E-1	5.467663E-1	5.468370E-1	5.573163E-1	5.807716E-1	5.487338E-1	5.475263E-1	5.518537E-1	5.727186E-1	5.656063E-1	5.755297E-1	5.772026E-1	5.715822E-1	5.662042E-1	6.147322E-1	5.819004E-1	5.548098E-1	5.709381E-1	5.243460E-1	5.583891E-1	5.568068E-1	5.761094E-1	5.398797E-1	5.552230E-1	5.379815E-1	5.625617E-1	5.730512E-1	5.663330E-1	5.591285E-1	5.536675E-1	5.745143E-1	5.769807E-1	5.423755E-1	5.792351E-1	5.699439E-1	5.501482E-1	5.368669E-1	5.862182E-1	5.770944E-1	5.829752E-1	5.596415E-1	5.882455E-1	5.565238E-1	5.721284E-1	5.689479E-1	5.805659E-1	5.478201E-1	5.625341E-1	5.597193E-1	5.638125E-1	5.669471E-1	5.528025E-1	5.665222E-1	5.701751E-1	5.623637E-1	5.860401E-1	5.746098E-1	5.558059E-1	5.661919E-1	6.043575E-1	6.067639E-1	5.795777E-1	5.932469E-1	6.328395E-1	5.658619E-1	5.820377E-1	5.942221E-1	5.613697E-1	5.818789E-1	5.966317E-1	5.831196E-1	5.750702E-1	6.011247E-1	5.830117E-1	5.829927E-1	5.936639E-1	5.644474E-1	5.661761E-1	5.815500E-1	5.415334E-1	5.845997E-1	6.111970E-1	5.717762E-1	5.996392E-1	5.668746E-1	5.802317E-1	5.722021E-1	5.612976E-1	5.504591E-1	6.077111E-1	5.494012E-1	6.040754E-1	5.609726E-1	5.398492E-1	5.901925E-1	5.688305E-1	5.689629E-1	5.530808E-1	5.787353E-1	5.560173E-1	5.819239E-1	5.728969E-1	5.664707E-1	5.726954E-1	5.727686E-1	5.728181E-1	5.630477E-1	5.723894E-1	6.059114E-1	5.641235E-1	5.708642E-1	5.882225E-1	6.055935E-1
5.377630E+2	6.054253E-1	6.278368E-1	6.420082E-1	6.117928E-1	6.422691E-1	6.602932E-1	6.577070E-1	6.467727E-1	6.445427E-1	6.418905E-1	6.320174E-1	6.534668E-1	6.187681E-1	6.493989E-1	6.188539E-1	6.252121E-1	6.203909E-1	6.276663E-1	6.488782E-1	6.202688E-1	6.357961E-1	6.271554E-1	6.409267E-1	6.181960E-1	6.134560E-1	6.350826E-1	6.589811E-1	6.211620E-1	6.369276E-1	6.483450E-1	6.366459E-1	6.499827E-1	6.310781E-1	6.299351E-1	6.417951E-1	6.942057E-1	6.793892E-1	6.376058E-1	6.485136E-1	6.173799E-1	6.169494E-1	5.970580E-1	6.435347E-1	6.116980E-1	6.399210E-1	6.694045E-1	6.498208E-1	6.315015E-1	6.443540E-1	6.702374E-1	6.528143E-1	6.434316E-1	6.772446E-1	6.305311E-1	6.551571E-1	6.757698E-1	6.225460E-1	6.537484E-1	6.747520E-1	6.374718E-1	6.357627E-1	6.302116E-1	6.213603E-1	6.486223E-1	6.596651E-1	6.616239E-1	6.762248E-1	6.618875E-1	6.607581E-1	6.493406E-1	6.873991E-1	6.750140E-1	6.332694E-1	6.506476E-1	6.723515E-1	6.655963E-1	6.929900E-1	6.250672E-1	6.530003E-1	6.399351E-1	6.870256E-1	6.548316E-1	6.689343E-1	6.598138E-1	6.804826E-1	6.723230E-1	6.420479E-1	6.799677E-1	6.752057E-1	6.169929E-1	6.473551E-1	6.926586E-1	6.868556E-1	6.577869E-1	6.817353E-1	6.550847E-1	6.936622E-1	6.594617E-1	6.530369E-1	6.663254E-1	6.768477E-1	6.508853E-1	6.528986E-1	6.848791E-1	5.964843E-1	6.535895E-1	6.391933E-1	6.703412E-1	6.649485E-1	6.721659E-1	6.486689E-1	6.479825E-1	6.562695E-1	6.509453E-1	6.638071E-1	6.749492E-1	6.667524E-1	6.392192E-1	6.380863E-1	7.091422E-1	6.674372E-1	6.769556E-1	7.055292E-1	6.962969E-1	6.234794E-1	6.598825E-1	6.816124E-1	6.509502E-1	6.561280E-1	6.720201E-1	6.561653E-1	6.355830E-1	6.758246E-1	6.719226E-1	6.779586E-1	6.374821E-1	6.768619E-1	6.313409E-1	6.516020E-1	6.441734E-1	6.438050E-1	6.190115E-1	6.317215E-1	6.807235E-1	6.622200E-1	6.786909E-1	6.648248E-1	6.225964E-1	6.827073E-1	6.799359E-1	7.073132E-1	6.426356E-1	6.551372E-1	6.571278E-1	6.440368E-1	6.443487E-1	6.566010E-1	6.418513E-1	6.557622E-1	6.724573E-1	6.538193E-1	6.372473E-1	6.854211E-1	6.648236E-1	6.532824E-1	6.814095E-1	6.666923E-1	6.585149E-1	6.410579E-1	6.483779E-1	6.390245E-1	6.469386E-1
5.380160E+2	7.768354E-1	7.792763E-1	7.434191E-1	7.431035E-1	7.644078E-1	7.326266E-1	7.393246E-1	7.463362E-1	7.775490E-1	7.740260E-1	7.514641E-1	7.586749E-1	7.335670E-1	7.795243E-1	7.939600E-1	7.666977E-1	7.373165E-1	7.402564E-1	7.435416E-1	7.361610E-1	7.801818E-1	7.804775E-1	7.288613E-1	7.505820E-1	6.903085E-1	7.684370E-1	7.541209E-1	7.658223E-1	7.374977E-1	7.470158E-1	7.793704E-1	7.550718E-1	7.862086E-1	7.605141E-1	7.722949E-1	7.534391E-1	7.456353E-1	7.302401E-1	7.689641E-1	7.606303E-1	7.254192E-1	7.972646E-1	7.303270E-1	7.507027E-1	7.507186E-1	7.489725E-1	7.844018E-1	8.145006E-1	7.609658E-1	7.888407E-1	7.620164E-1	7.493809E-1	7.398652E-1	7.559683E-1	7.723819E-1	7.243792E-1	7.574065E-1	7.363241E-1	7.520476E-1	7.963875E-1	7.754319E-1	7.825124E-1	7.761248E-1	7.720191E-1	7.451348E-1	7.741084E-1	7.580614E-1	7.881871E-1	7.886493E-1	7.660046E-1	7.606130E-1	7.521417E-1	7.254166E-1	7.825363E-1	7.105182E-1	7.953494E-1	7.498879E-1	7.766426E-1	7.499510E-1	7.488594E-1	7.542325E-1	7.632228E-1	7.576191E-1	7.203392E-1	7.394172E-1	8.053452E-1	7.865965E-1	7.804257E-1	7.687836E-1	7.474879E-1	7.547505E-1	7.940460E-1	7.743096E-1	7.509254E-1	7.739075E-1	7.709821E-1	7.855960E-1	7.720147E-1	7.759676E-1	7.653982E-1	7.563504E-1	7.573869E-1	7.968512E-1	7.567478E-1	7.242558E-1	7.968267E-1	8.136912E-1	7.860986E-1	7.661450E-1	7.404728E-1	7.755676E-1	7.609038E-1	7.565201E-1	7.791110E-1	7.649161E-1	7.622101E-1	7.565307E-1	7.308528E-1	7.755293E-1	7.938309E-1	7.433611E-1	7.537296E-1	7.840352E-1	7.818721E-1	7.471776E-1	7.783396E-1	7.749167E-1	7.324444E-1	7.901398E-1	7.586983E-1	7.860905E-1	7.630322E-1	7.914994E-1	7.516604E-1	7.582571E-1	7.899896E-1	7.405049E-1	7.681097E-1	7.826196E-1	7.501008E-1	7.821958E-1	7.530251E-1	7.718838E-1	7.720834E-1	7.611647E-1	7.416570E-1	7.749107E-1	7.764626E-1	7.775699E-1	7.876042E-1	7.963840E-1	7.592321E-1	7.570229E-1	8.010948E-1	7.351899E-1	7.568931E-1	7.390416E-1	7.398578E-1	7.837637E-1	7.705053E-1	7.901308E-1	7.908189E-1	7.558612E-1	7.781363E-1	7.929356E-1	7.501446E-1	7.437781E-1	7.897659E-1	7.093694E-1	7.438263E-1	7.642770E-1	7.835913E-1
5.382740E+2	9.843761E-1	9.332813E-1	9.580185E-1	9.446150E-1	9.280367E-1	9.554382E-1	9.558289E-1	9.283204E-1	9.463442E-1	9.671554E-1	9.275819E-1	9.680534E-1	9.549028E-1	9.726868E-1	9.678741E-1	9.900137E-1	9.389970E-1	9.153488E-1	9.443355E-1	9.607836E-1	8.983827E-1	9.109063E-1	9.494881E-1	8.972949E-1	9.217932E-1	9.195542E-1	9.106359E-1	9.761818E-1	9.765025E-1	9.750703E-1	9.338246E-1	9.506139E-1	9.698909E-1	9.687163E-1	9.298667E-1	9.400265E-1	9.540041E-1	9.383828E-1	9.638490E-1	9.026693E-1	9.185651E-1	9.451309E-1	9.309590E-1	9.502042E-1	9.406311E-1	9.778209E-1	9.558152E-1	9.363121E-1	9.368409E-1	9.776459E-1	9.370136E-1	9.816674E-1	9.167979E-1	9.693594E-1	9.380283E-1	9.347177E-1	9.109319E-1	9.495533E-1	9.186174E-1	9.499578E-1	9.419998E-1	9.476173E-1	9.278937E-1	9.339259E-1	8.859632E-1	9.910951E-1	9.497301E-1	9.415876E-1	9.309878E-1	9.500133E-1	8.994831E-1	9.528792E-1	9.412383E-1	9.635833E-1	9.186730E-1	9.307337E-1	9.217575E-1	9.374736E-1	9.487720E-1	9.467088E-1	9.252455E-1	9.088269E-1	9.476863E-1	9.132771E-1	9.402262E-1	9.502283E-1	9.852923E-1	9.894926E-1	9.806951E-1	9.492499E-1	9.697199E-1	9.307814E-1	9.877576E-1	8.950931E-1	9.236495E-1	9.713378E-1	9.049835E-1	9.502536E-1	9.281637E-1	9.324014E-1	9.672827E-1	9.249810E-1	9.596781E-1	9.535951E-1	8.582455E-1	9.868346E-1	9.661545E-1	9.567809E-1	9.459453E-1	9.478772E-1	9.377639E-1	9.417547E-1	9.359381E-1	9.479049E-1	9.661833E-1	9.646820E-1	9.281192E-1	8.957845E-1	9.613188E-1	9.087916E-1	9.412897E-1	9.579506E-1	9.659346E-1	9.951198E-1	9.400539E-1	9.683234E-1	9.709592E-1	9.585769E-1	9.676928E-1	9.443933E-1	1.000425E+0	9.848543E-1	9.375791E-1	9.710441E-1	9.394445E-1	9.119204E-1	9.071218E-1	9.169363E-1	9.663590E-1	9.611506E-1	9.617486E-1	9.280676E-1	9.353543E-1	9.248430E-1	9.511960E-1	9.752899E-1	9.380591E-1	8.912207E-1	9.424286E-1	9.488570E-1	1.003804E+0	9.499258E-1	9.246957E-1	8.948184E-1	9.248902E-1	8.987191E-1	9.325791E-1	8.925053E-1	9.484951E-1	9.652224E-1	9.530448E-1	9.376460E-1	9.532847E-1	9.718944E-1	9.265920E-1	9.428959E-1	9.736348E-1	9.499931E-1	9.282942E-1	9.379602E-1	9.053232E-1	1.012789E+0
5.385110E+2	1.164686E+0	1.201239E+0	1.166319E+0	1.136863E+0	1.174237E+0	1.160342E+0	1.206809E+0	1.164801E+0	1.228104E+0	1.173276E+0	1.151163E+0	1.203024E+0	1.123948E+0	1.213601E+0	1.167815E+0	1.132406E+0	1.128231E+0	1.172652E+0	1.148649E+0	1.209530E+0	1.189428E+0	1.174335E+0	1.190553E+0	1.157475E+0	1.135008E+0	1.163413E+0	1.171475E+0	1.200427E+0	1.196211E+0	1.204688E+0	1.183314E+0	1.214696E+0	1.182603E+0	1.186126E+0	1.159002E+0	1.122790E+0	1.171809E+0	1.207179E+0	1.166704E+0	1.154330E+0	1.170983E+0	1.187918E+0	1.172225E+0	1.151056E+0	1.149485E+0	1.163999E+0	1.178715E+0	1.181915E+0	1.141453E+0	1.212279E+0	1.180540E+0	1.149797E+0	1.135791E+0	1.188703E+0	1.151592E+0	1.133312E+0	1.151346E+0	1.140348E+0	1.188745E+0	1.148243E+0	1.164548E+0	1.176793E+0	1.191884E+0	1.169085E+0	1.155778E+0	1.187656E+0	1.186390E+0	1.231497E+0	1.197541E+0	1.157323E+0	1.184756E+0	1.184218E+0	1.146604E+0	1.132355E+0	1.133786E+0	1.204338E+0	1.146371E+0	1.166529E+0	1.214878E+0	1.189743E+0	1.162737E+0	1.130162E+0	1.230751E+0	1.113832E+0	1.143543E+0	1.172857E+0	1.209032E+0	1.123736E+0	1.162943E+0	1.165766E+0	1.164462E+0	1.142463E+0	1.174552E+0	1.134811E+0	1.202909E+0	1.162209E+0	1.142204E+0	1.190856E+0	1.156506E+0	1.171623E+0	1.218956E+0	1.152728E+0	1.198834E+0	1.162596E+0	1.155515E+0	1.227631E+0	1.204473E+0	1.208659E+0	1.123951E+0	1.171535E+0	1.195742E+0	1.160614E+0	1.155263E+0	1.172466E+0	1.148794E+0	1.148176E+0	1.205303E+0	1.163325E+0	1.190516E+0	1.126055E+0	1.174375E+0	1.173444E+0	1.182493E+0	1.185993E+0	1.156451E+0	1.153022E+0	1.203679E+0	1.217803E+0	1.185417E+0	1.165770E+0	1.209555E+0	1.189082E+0	1.167463E+0	1.132861E+0	1.125075E+0	1.142140E+0	1.132320E+0	1.128830E+0	1.172374E+0	1.152341E+0	1.166251E+0	1.139107E+0	1.143461E+0	1.198132E+0	1.171262E+0	1.151136E+0	1.145008E+0	1.114084E+0	1.192528E+0	1.200603E+0	1.163045E+0	1.186034E+0	1.182655E+0	1.218947E+0	1.167782E+0	1.215347E+0	1.148703E+0	1.168256E+0	1.169752E+0	1.136537E+0	1.139601E+0	1.166897E+0	1.224385E+0	1.167333E+0	1.138612E+0	1.164553E+0	1.204328E+0	1.175148E+0	1.174517E+0	1.195794E+0	1.175234E+0	1.134485E+0
5.387650E+2	1.385923E+0	1.369789E+0	1.440092E+0	1.324562E+0	1.391386E+0	1.369847E+0	1.352956E+0	1.353379E+0	1.388780E+0	1.399882E+0	1.406234E+0	1.411072E+0	1.341275E+0	1.406490E+0	1.378344E+0	1.383792E+0	1.382803E+0	1.361598E+0	1.389254E+0	1.430282E+0	1.345534E+0	1.419841E+0	1.458857E+0	1.334360E+0	1.348913E+0	1.396218E+0	1.395532E+0	1.427096E+0	1.357654E+0	1.402352E+0	1.390023E+0	1.418904E+0	1.351729E+0	1.382630E+0	1.357654E+0	1.389950E+0	1.376443E+0	1.383036E+0	1.401519E+0	1.372862E+0	1.438437E+0	1.348297E+0	1.391713E+0	1.357307E+0	1.415760E+0	1.401804E+0	1.377190E+0	1.406045E+0	1.369304E+0	1.418423E+0	1.389702E+0	1.420093E+0	1.376374E+0	1.379719E+0	1.376771E+0	1.388958E+0	1.407983E+0	1.394691E+0	1.383139E+0	1.422081E+0	1.348868E+0	1.344464E+0	1.449633E+0	1.395420E+0	1.368912E+0	1.358929E+0	1.383710E+0	1.404677E+0	1.378648E+0	1.398000E+0	1.401018E+0	1.356546E+0	1.372264E+0	1.352025E+0	1.348979E+0	1.410478E+0	1.355480E+0	1.370136E+0	1.372070E+0	1.420686E+0	1.360506E+0	1.353970E+0	1.372194E+0	1.358107E+0	1.385680E+0	1.361318E+0	1.363420E+0	1.391651E+0	1.397599E+0	1.376274E+0	1.376702E+0	1.350541E+0	1.433386E+0	1.297734E+0	1.376579E+0	1.378059E+0	1.351037E+0	1.357142E+0	1.342819E+0	1.371047E+0	1.364444E+0	1.392664E+0	1.387539E+0	1.347933E+0	1.394149E+0	1.369546E+0	1.411926E+0	1.390255E+0	1.398278E+0	1.382460E+0	1.363060E+0	1.384834E+0	1.356343E+0	1.401484E+0	1.361664E+0	1.375446E+0	1.392516E+0	1.333594E+0	1.374081E+0	1.358368E+0	1.329603E+0	1.323027E+0	1.375602E+0	1.457325E+0	1.389400E+0	1.332743E+0	1.368044E+0	1.366607E+0	1.426097E+0	1.373106E+0	1.337382E+0	1.384848E+0	1.413255E+0	1.384499E+0	1.379001E+0	1.354633E+0	1.342252E+0	1.381047E+0	1.351646E+0	1.370068E+0	1.330034E+0	1.345914E+0	1.357257E+0	1.393572E+0	1.337168E+0	1.398944E+0	1.352289E+0	1.352116E+0	1.423548E+0	1.377840E+0	1.375039E+0	1.358847E+0	1.355077E+0	1.392450E+0	1.343887E+0	1.368161E+0	1.289361E+0	1.314791E+0	1.353096E+0	1.371402E+0	1.353970E+0	1.378046E+0	1.361789E+0	1.379010E+0	1.388188E+0	1.405009E+0	1.391493E+0	1.384329E+0	1.322841E+0	1.284209E+0	1.431892E+0	1.421529E+0
5.390390E+2	1.694827E+0	1.554965E+0	1.681445E+0	1.549960E+0	1.627081E+0	1.644072E+0	1.665249E+0	1.626713E+0	1.604551E+0	1.678746E+0	1.573119E+0	1.615539E+0	1.638101E+0	1.636322E+0	1.654792E+0	1.621294E+0	1.601749E+0	1.591768E+0	1.654156E+0	1.628289E+0	1.639710E+0	1.585335E+0	1.625349E+0	1.610060E+0	1.603492E+0	1.605436E+0	1.612414E+0	1.638878E+0	1.618910E+0	1.632263E+0	1.572951E+0	1.630820E+0	1.676000E+0	1.598243E+0	1.598605E+0	1.595152E+0	1.606169E+0	1.598382E+0	1.617550E+0	1.672630E+0	1.609827E+0	1.572787E+0	1.615088E+0	1.583494E+0	1.625076E+0	1.671027E+0	1.599793E+0	1.659409E+0	1.591374E+0	1.629232E+0	1.669376E+0	1.627075E+0	1.585947E+0	1.610814E+0	1.620375E+0	1.664660E+0	1.606917E+0	1.649314E+0	1.629858E+0	1.613298E+0	1.569363E+0	1.673366E+0	1.667596E+0	1.602332E+0	1.612215E+0	1.621496E+0	1.620456E+0	1.679295E+0	1.633515E+0	1.633337E+0	1.627707E+0	1.609145E+0	1.565334E+0	1.633432E+0	1.594270E+0	1.601627E+0	1.580897E+0	1.644512E+0	1.646813E+0	1.569099E+0	1.572105E+0	1.653370E+0	1.603188E+0	1.585118E+0	1.653143E+0	1.604207E+0	1.652050E+0	1.624274E+0	1.585889E+0	1.603484E+0	1.593301E+0	1.535315E+0	1.621949E+0	1.597177E+0	1.611412E+0	1.638285E+0	1.574400E+0	1.603943E+0	1.599931E+0	1.607036E+0	1.620310E+0	1.578210E+0	1.605865E+0	1.642969E+0	1.571054E+0	1.616775E+0	1.656288E+0	1.567602E+0	1.559860E+0	1.656267E+0	1.581005E+0	1.584362E+0	1.552629E+0	1.609313E+0	1.612520E+0	1.583377E+0	1.655060E+0	1.597272E+0	1.578227E+0	1.641266E+0	1.560462E+0	1.603426E+0	1.630469E+0	1.647519E+0	1.569296E+0	1.598276E+0	1.641348E+0	1.577251E+0	1.613495E+0	1.587391E+0	1.552368E+0	1.626603E+0	1.657937E+0	1.660719E+0	1.597329E+0	1.570806E+0	1.574027E+0	1.627937E+0	1.585876E+0	1.574703E+0	1.624422E+0	1.548919E+0	1.575398E+0	1.622649E+0	1.656646E+0	1.578602E+0	1.575184E+0	1.514436E+0	1.628565E+0	1.612521E+0	1.629503E+0	1.545806E+0	1.535647E+0	1.625067E+0	1.566481E+0	1.596514E+0	1.559412E+0	1.598414E+0	1.616982E+0	1.635812E+0	1.571668E+0	1.607206E+0	1.574186E+0	1.596288E+0	1.527202E+0	1.629729E+0	1.588186E+0	1.592909E+0	1.570379E+0	1.649379E+0	1.541100E+0	1.608246E+0
5.392720E+2	1.796872E+0	1.816213E+0	1.840923E+0	1.825307E+0	1.816148E+0	1.777005E+0	1.778202E+0	1.807645E+0	1.805515E+0	1.807144E+0	1.794834E+0	1.779990E+0	1.775919E+0	1.797700E+0	1.827566E+0	1.835943E+0	1.808533E+0	1.779945E+0	1.783428E+0	1.820878E+0	1.758153E+0	1.736981E+0	1.773392E+0	1.852877E+0	1.781394E+0	1.771442E+0	1.792167E+0	1.796374E+0	1.799293E+0	1.793247E+0	1.773952E+0	1.778334E+0	1.810519E+0	1.851847E+0	1.767522E+0	1.764938E+0	1.819600E+0	1.812403E+0	1.779173E+0	1.756923E+0	1.763373E+0	1.756281E+0	1.869863E+0	1.788037E+0	1.786293E+0	1.805323E+0	1.795394E+0	1.774240E+0	1.709426E+0	1.761377E+0	1.785278E+0	1.849594E+0	1.730478E+0	1.803750E+0	1.807269E+0	1.812410E+0	1.793781E+0	1.817864E+0	1.732979E+0	1.826298E+0	1.707071E+0	1.718640E+0	1.818962E+0	1.775163E+0	1.729256E+0	1.737827E+0	1.767225E+0	1.774693E+0	1.770714E+0	1.787061E+0	1.778671E+0	1.783208E+0	1.715838E+0	1.736446E+0	1.730758E+0	1.795208E+0	1.741308E+0	1.771168E+0	1.705567E+0	1.818241E+0	1.755189E+0	1.793630E+0	1.812634E+0	1.743975E+0	1.712919E+0	1.796131E+0	1.787065E+0	1.798365E+0	1.792634E+0	1.752365E+0	1.801931E+0	1.751709E+0	1.762169E+0	1.718270E+0	1.795933E+0	1.749757E+0	1.810032E+0	1.777698E+0	1.761492E+0	1.766161E+0	1.767355E+0	1.735641E+0	1.776291E+0	1.729487E+0	1.754904E+0	1.806618E+0	1.804913E+0	1.777004E+0	1.747965E+0	1.798150E+0	1.780585E+0	1.801148E+0	1.721416E+0	1.768482E+0	1.783174E+0	1.768148E+0	1.741780E+0	1.744612E+0	1.807591E+0	1.793361E+0	1.777350E+0	1.750437E+0	1.819446E+0	1.796045E+0	1.751766E+0	1.824631E+0	1.750078E+0	1.719586E+0	1.744836E+0	1.739063E+0	1.770205E+0	1.761575E+0	1.751372E+0	1.812370E+0	1.772427E+0	1.732509E+0	1.745796E+0	1.734874E+0	1.758762E+0	1.726883E+0	1.750738E+0	1.677868E+0	1.769046E+0	1.795996E+0	1.744197E+0	1.773215E+0	1.734122E+0	1.705571E+0	1.833508E+0	1.782522E+0	1.753957E+0	1.798368E+0	1.712490E+0	1.775486E+0	1.748508E+0	1.732603E+0	1.680859E+0	1.818973E+0	1.732490E+0	1.755021E+0	1.733533E+0	1.707646E+0	1.779517E+0	1.785157E+0	1.718832E+0	1.755624E+0	1.769096E+0	1.730503E+0	1.716219E+0	1.703582E+0	1.699669E+0	1.807870E+0
5.395160E+2	1.894720E+0	1.944614E+0	1.904408E+0	1.879574E+0	1.921565E+0	1.870521E+0	1.866500E+0	1.906593E+0	1.848303E+0	1.874147E+0	1.922736E+0	1.913477E+0	1.874610E+0	1.960367E+0	1.867471E+0	1.933140E+0	1.922124E+0	1.906470E+0	1.844974E+0	1.980353E+0	1.850155E+0	1.901597E+0	1.892885E+0	1.882102E+0	1.831124E+0	1.915390E+0	1.883273E+0	1.910392E+0	1.927122E+0	1.850892E+0	1.912408E+0	1.933845E+0	1.920500E+0	1.922924E+0	1.910576E+0	1.950104E+0	1.931369E+0	1.859638E+0	1.921786E+0	1.915275E+0	1.916898E+0	1.812065E+0	1.943388E+0	1.860843E+0	1.887811E+0	1.937667E+0	1.880163E+0	1.947283E+0	1.857119E+0	1.856418E+0	1.903218E+0	1.953180E+0	1.845022E+0	1.883590E+0	1.835032E+0	1.910145E+0	1.852167E+0	1.907842E+0	1.836942E+0	1.874320E+0	1.862166E+0	1.799286E+0	1.912801E+0	1.946913E+0	1.829529E+0	1.837133E+0	1.882199E+0	1.816905E+0	1.874730E+0	1.843649E+0	1.910268E+0	1.913309E+0	1.784113E+0	1.877396E+0	1.821117E+0	1.870043E+0	1.867165E+0	1.877900E+0	1.863321E+0	1.878980E+0	1.864370E+0	1.873529E+0	1.955531E+0	1.823262E+0	1.872953E+0	1.903591E+0	1.959267E+0	1.894354E+0	1.899911E+0	1.865498E+0	1.869375E+0	1.878748E+0	1.860936E+0	1.868398E+0	1.912710E+0	1.890992E+0	1.920539E+0	1.890017E+0	1.851942E+0	1.917043E+0	1.844175E+0	1.837302E+0	1.940999E+0	1.888046E+0	1.839628E+0	1.919874E+0	1.922866E+0	1.835628E+0	1.851450E+0	1.844498E+0	1.856771E+0	1.838604E+0	1.852800E+0	1.847819E+0	1.907818E+0	1.843014E+0	1.859036E+0	1.812342E+0	1.881330E+0	1.828382E+0	1.838729E+0	1.841585E+0	1.890334E+0	1.851088E+0	1.807291E+0	1.851032E+0	1.920297E+0	1.842815E+0	1.837572E+0	1.869904E+0	1.860416E+0	1.867100E+0	1.831417E+0	1.877094E+0	1.932236E+0	1.842614E+0	1.812327E+0	1.868591E+0	1.896967E+0	1.826390E+0	1.827252E+0	1.836708E+0	1.827462E+0	1.869707E+0	1.796705E+0	1.898416E+0	1.872843E+0	1.908555E+0	1.936540E+0	1.827037E+0	1.883654E+0	1.854288E+0	1.841195E+0	1.843508E+0	1.849585E+0	1.848742E+0	1.851942E+0	1.826081E+0	1.865577E+0	1.881039E+0	1.839733E+0	1.820644E+0	1.842883E+0	1.794208E+0	1.859568E+0	1.828098E+0	1.880274E+0	1.838253E+0	1.733106E+0	1.792208E+0	1.760308E+0	1.807654E+0
5.397750E+2	1.872108E+0	1.860942E+0	2.028349E+0	1.823247E+0	1.851089E+0	1.809646E+0	1.871582E+0	1.920554E+0	1.872174E+0	1.848996E+0	1.853087E+0	1.936010E+0	1.796635E+0	1.866661E+0	1.915826E+0	1.891479E+0	1.868940E+0	1.811831E+0	1.864055E+0	1.858320E+0	1.864826E+0	1.844703E+0	1.864770E+0	1.849135E+0	1.828997E+0	1.854151E+0	1.859617E+0	1.799287E+0	1.842434E+0	1.834186E+0	1.935949E+0	1.865692E+0	1.893750E+0	1.825888E+0	1.789881E+0	1.932510E+0	1.811496E+0	1.803129E+0	1.855432E+0	1.801819E+0	1.837560E+0	1.807694E+0	1.820140E+0	1.806212E+0	1.799080E+0	1.839464E+0	1.841289E+0	1.834568E+0	1.809174E+0	1.825721E+0	1.868660E+0	1.822430E+0	1.832772E+0	1.833760E+0	1.877474E+0	1.846486E+0	1.861163E+0	1.862246E+0	1.829983E+0	1.841355E+0	1.826586E+0	1.792145E+0	1.866842E+0	1.823271E+0	1.823862E+0	1.817787E+0	1.860373E+0	1.859453E+0	1.817215E+0	1.772927E+0	1.862684E+0	1.848936E+0	1.822270E+0	1.786602E+0	1.847194E+0	1.953238E+0	1.762199E+0	1.843234E+0	1.817439E+0	1.879561E+0	1.824042E+0	1.828030E+0	1.846806E+0	1.826986E+0	1.812785E+0	1.833276E+0	1.913009E+0	1.834801E+0	1.812171E+0	1.797215E+0	1.877404E+0	1.826880E+0	1.834106E+0	1.761845E+0	1.832128E+0	1.840663E+0	1.826372E+0	1.843686E+0	1.837754E+0	1.849799E+0	1.837885E+0	1.789293E+0	1.870309E+0	1.871130E+0	1.837800E+0	1.884965E+0	1.880761E+0	1.889375E+0	1.820362E+0	1.812155E+0	1.852823E+0	1.844148E+0	1.760492E+0	1.856022E+0	1.810733E+0	1.844246E+0	1.813888E+0	1.776465E+0	1.830877E+0	1.807155E+0	1.808790E+0	1.799325E+0	1.874624E+0	1.899662E+0	1.788044E+0	1.756667E+0	1.837068E+0	1.856075E+0	1.824179E+0	1.848647E+0	1.882255E+0	1.850712E+0	1.841921E+0	1.893913E+0	1.808986E+0	1.848071E+0	1.786169E+0	1.805100E+0	1.779514E+0	1.798276E+0	1.820396E+0	1.783055E+0	1.820951E+0	1.807880E+0	1.783019E+0	1.818097E+0	1.826243E+0	1.786925E+0	1.841033E+0	1.794158E+0	1.857327E+0	1.805813E+0	1.771945E+0	1.825344E+0	1.803138E+0	1.817508E+0	1.763987E+0	1.740533E+0	1.854503E+0	1.822395E+0	1.787342E+0	1.837383E+0	1.786731E+0	1.855537E+0	1.817249E+0	1.836583E+0	1.831570E+0	1.812985E+0	1.695159E+0	1.783652E+0	1.710880E+0	1.832102E+0
5.400240E+2	1.923459E+0	1.949821E+0	1.981954E+0	1.900530E+0	1.920932E+0	1.973615E+0	1.952122E+0	1.959405E+0	1.929489E+0	1.979376E+0	1.926919E+0	1.986979E+0	1.872239E+0	1.973217E+0	1.934393E+0	1.928902E+0	1.877234E+0	1.939277E+0	1.868962E+0	1.956685E+0	1.899158E+0	1.879800E+0	1.936803E+0	1.918725E+0	1.951133E+0	1.924153E+0	1.921268E+0	1.944733E+0	1.972678E+0	1.887005E+0	1.969986E+0	1.945711E+0	1.920577E+0	1.909260E+0	1.878326E+0	1.933820E+0	1.906493E+0	1.917590E+0	1.921757E+0	1.882813E+0	1.923623E+0	1.848152E+0	1.880673E+0	1.920646E+0	1.925661E+0	1.937460E+0	1.914035E+0	1.965598E+0	1.883460E+0	1.850857E+0	1.988647E+0	1.894061E+0	1.904332E+0	1.921133E+0	1.925203E+0	1.913620E+0	1.918357E+0	1.923978E+0	1.907651E+0	1.905629E+0	1.898188E+0	1.836510E+0	1.912420E+0	1.869309E+0	1.870347E+0	1.873191E+0	1.925906E+0	1.935656E+0	1.880675E+0	1.840217E+0	1.932277E+0	1.921873E+0	1.837000E+0	1.816316E+0	1.883161E+0	1.938596E+0	1.896085E+0	1.864839E+0	1.874796E+0	1.916899E+0	1.866838E+0	1.852756E+0	1.947368E+0	1.834433E+0	1.864105E+0	1.886599E+0	1.918015E+0	1.919128E+0	1.873008E+0	1.877512E+0	1.858004E+0	1.853739E+0	1.851707E+0	1.851316E+0	1.916525E+0	1.857407E+0	1.908754E+0	1.909279E+0	1.846384E+0	1.903641E+0	1.924839E+0	1.901292E+0	1.931623E+0	1.881303E+0	1.848556E+0	1.942594E+0	1.916698E+0	1.882374E+0	1.882016E+0	1.896593E+0	1.883487E+0	1.901853E+0	1.923509E+0	1.942186E+0	1.910575E+0	1.857160E+0	1.886676E+0	1.824779E+0	1.934278E+0	1.873736E+0	1.798922E+0	1.841028E+0	1.914415E+0	1.943764E+0	1.842591E+0	1.840882E+0	1.966325E+0	1.851592E+0	1.931371E+0	1.865527E+0	1.848045E+0	1.913274E+0	1.899666E+0	1.906718E+0	1.921006E+0	1.883643E+0	1.791448E+0	1.898124E+0	1.902412E+0	1.867670E+0	1.868327E+0	1.872485E+0	1.814207E+0	1.823535E+0	1.792969E+0	1.886918E+0	1.916929E+0	1.844672E+0	1.889963E+0	1.847905E+0	1.901203E+0	1.896669E+0	1.844927E+0	1.902479E+0	1.850910E+0	1.845198E+0	1.844118E+0	1.835523E+0	1.869556E+0	1.938458E+0	1.805525E+0	1.858114E+0	1.870058E+0	1.867024E+0	1.852026E+0	1.792974E+0	1.855515E+0	1.825593E+0	1.788325E+0	1.835049E+0	1.906636E+0	1.952021E+0
5.402850E+2	1.958779E+0	1.895377E+0	1.920881E+0	1.879697E+0	1.862461E+0	1.821744E+0	1.800497E+0	1.844654E+0	1.863836E+0	1.869664E+0	1.884666E+0	1.858642E+0	1.817122E+0	1.870978E+0	1.844120E+0	1.869089E+0	1.835558E+0	1.819375E+0	1.866076E+0	1.823747E+0	1.855449E+0	1.811835E+0	1.890641E+0	1.883621E+0	1.876339E+0	1.802883E+0	1.840773E+0	1.880661E+0	1.885435E+0	1.797653E+0	1.838940E+0	1.902351E+0	1.827063E+0	1.855136E+0	1.877748E+0	1.863167E+0	1.842265E+0	1.820394E+0	1.803310E+0	1.857531E+0	1.821484E+0	1.784359E+0	1.889524E+0	1.834527E+0	1.885607E+0	1.842403E+0	1.892027E+0	1.839015E+0	1.795052E+0	1.842496E+0	1.805337E+0	1.862286E+0	1.872805E+0	1.855409E+0	1.835263E+0	1.887688E+0	1.846294E+0	1.858419E+0	1.850087E+0	1.875008E+0	1.820039E+0	1.851743E+0	1.899725E+0	1.823171E+0	1.809695E+0	1.754299E+0	1.852833E+0	1.851928E+0	1.850258E+0	1.827142E+0	1.814985E+0	1.871556E+0	1.786225E+0	1.809049E+0	1.861113E+0	1.893195E+0	1.809161E+0	1.839036E+0	1.839054E+0	1.882508E+0	1.843740E+0	1.787665E+0	1.853347E+0	1.858861E+0	1.871038E+0	1.874991E+0	1.851143E+0	1.850573E+0	1.848201E+0	1.796544E+0	1.877143E+0	1.821905E+0	1.899527E+0	1.823327E+0	1.890848E+0	1.812590E+0	1.922903E+0	1.847305E+0	1.785802E+0	1.809152E+0	1.797946E+0	1.786843E+0	1.906364E+0	1.917670E+0	1.833649E+0	1.851184E+0	1.875237E+0	1.823725E+0	1.794966E+0	1.776587E+0	1.859172E+0	1.829077E+0	1.827967E+0	1.827406E+0	1.730689E+0	1.818771E+0	1.853424E+0	1.822386E+0	1.806133E+0	1.785368E+0	1.851255E+0	1.738565E+0	1.822944E+0	1.846526E+0	1.756321E+0	1.726431E+0	1.914540E+0	1.832058E+0	1.844552E+0	1.764535E+0	1.856270E+0	1.899320E+0	1.857196E+0	1.856388E+0	1.814149E+0	1.731394E+0	1.764960E+0	1.815126E+0	1.801069E+0	1.848316E+0	1.784751E+0	1.754104E+0	1.748180E+0	1.837326E+0	1.809555E+0	1.827925E+0	1.828397E+0	1.800880E+0	1.854619E+0	1.791171E+0	1.791723E+0	1.824626E+0	1.796303E+0	1.782811E+0	1.785506E+0	1.832126E+0	1.772155E+0	1.776435E+0	1.776535E+0	1.801596E+0	1.781336E+0	1.815258E+0	1.823173E+0	1.757386E+0	1.776868E+0	1.784758E+0	1.821717E+0	1.804369E+0	1.724290E+0	1.777830E+0	1.778476E+0	1.811571E+0
5.405130E+2	1.935671E+0	1.808634E+0	1.836903E+0	1.795397E+0	1.820898E+0	1.801397E+0	1.805646E+0	1.832559E+0	1.825966E+0	1.896079E+0	1.858472E+0	1.810593E+0	1.815475E+0	1.805230E+0	1.828538E+0	1.848940E+0	1.848315E+0	1.766718E+0	1.882235E+0	1.799231E+0	1.843042E+0	1.770963E+0	1.789668E+0	1.805840E+0	1.805626E+0	1.810962E+0	1.827173E+0	1.894240E+0	1.807329E+0	1.795069E+0	1.829427E+0	1.801108E+0	1.787991E+0	1.830828E+0	1.858202E+0	1.778828E+0	1.843928E+0	1.797751E+0	1.854161E+0	1.792195E+0	1.791206E+0	1.761978E+0	1.777513E+0	1.817743E+0	1.848569E+0	1.804880E+0	1.823540E+0	1.840976E+0	1.766644E+0	1.854921E+0	1.865453E+0	1.794994E+0	1.818308E+0	1.814687E+0	1.799026E+0	1.847490E+0	1.803587E+0	1.784653E+0	1.800254E+0	1.751426E+0	1.767496E+0	1.736087E+0	1.837659E+0	1.767830E+0	1.837795E+0	1.720523E+0	1.894594E+0	1.787114E+0	1.858940E+0	1.775265E+0	1.743985E+0	1.771114E+0	1.768011E+0	1.752099E+0	1.795010E+0	1.810396E+0	1.833414E+0	1.839519E+0	1.841497E+0	1.824042E+0	1.773485E+0	1.784240E+0	1.841312E+0	1.738036E+0	1.776810E+0	1.805997E+0	1.795231E+0	1.833850E+0	1.848033E+0	1.818451E+0	1.784869E+0	1.743410E+0	1.750186E+0	1.702845E+0	1.865265E+0	1.771729E+0	1.828759E+0	1.806498E+0	1.787484E+0	1.810749E+0	1.786146E+0	1.748665E+0	1.853498E+0	1.771171E+0	1.703700E+0	1.787792E+0	1.828231E+0	1.790252E+0	1.764681E+0	1.805117E+0	1.815550E+0	1.800431E+0	1.795075E+0	1.802785E+0	1.746890E+0	1.782642E+0	1.756535E+0	1.776338E+0	1.843300E+0	1.755637E+0	1.813590E+0	1.686552E+0	1.816623E+0	1.781095E+0	1.755243E+0	1.788082E+0	1.868536E+0	1.811028E+0	1.793433E+0	1.763899E+0	1.798322E+0	1.849261E+0	1.752234E+0	1.821493E+0	1.799818E+0	1.736817E+0	1.771943E+0	1.820467E+0	1.765244E+0	1.736398E+0	1.724444E+0	1.711471E+0	1.753556E+0	1.790204E+0	1.755696E+0	1.758687E+0	1.770446E+0	1.784688E+0	1.794518E+0	1.789578E+0	1.804569E+0	1.749257E+0	1.766547E+0	1.711492E+0	1.782958E+0	1.775442E+0	1.747173E+0	1.693674E+0	1.753300E+0	1.765667E+0	1.766558E+0	1.756840E+0	1.768479E+0	1.759931E+0	1.765439E+0	1.753349E+0	1.795857E+0	1.773100E+0	1.762602E+0	1.687310E+0	1.740262E+0	1.695570E+0
5.407740E+2	1.739546E+0	1.720019E+0	1.780632E+0	1.709758E+0	1.730151E+0	1.734502E+0	1.770272E+0	1.744033E+0	1.720937E+0	1.782888E+0	1.732396E+0	1.763555E+0	1.690304E+0	1.761693E+0	1.730395E+0	1.821625E+0	1.712136E+0	1.662000E+0	1.727465E+0	1.698680E+0	1.731104E+0	1.683104E+0	1.773350E+0	1.755575E+0	1.654607E+0	1.720273E+0	1.735841E+0	1.771081E+0	1.730766E+0	1.734439E+0	1.718347E+0	1.740068E+0	1.704678E+0	1.750455E+0	1.730550E+0	1.817087E+0	1.773533E+0	1.726838E+0	1.725809E+0	1.697421E+0	1.699060E+0	1.718397E+0	1.746931E+0	1.731776E+0	1.737153E+0	1.697790E+0	1.709791E+0	1.698281E+0	1.709451E+0	1.763963E+0	1.761004E+0	1.727097E+0	1.692160E+0	1.729589E+0	1.688042E+0	1.755864E+0	1.692621E+0	1.718679E+0	1.804442E+0	1.762013E+0	1.710284E+0	1.636052E+0	1.763712E+0	1.716461E+0	1.696406E+0	1.712985E+0	1.762237E+0	1.734405E+0	1.734540E+0	1.702690E+0	1.724945E+0	1.660061E+0	1.685615E+0	1.672785E+0	1.699094E+0	1.753725E+0	1.709713E+0	1.678741E+0	1.703792E+0	1.742074E+0	1.592160E+0	1.710740E+0	1.735102E+0	1.643892E+0	1.676010E+0	1.758625E+0	1.664777E+0	1.721014E+0	1.751942E+0	1.712731E+0	1.726951E+0	1.775417E+0	1.673586E+0	1.644664E+0	1.731058E+0	1.734977E+0	1.753191E+0	1.757860E+0	1.692095E+0	1.694513E+0	1.672965E+0	1.701524E+0	1.719990E+0	1.733663E+0	1.673356E+0	1.673750E+0	1.747486E+0	1.692888E+0	1.639089E+0	1.692426E+0	1.666261E+0	1.722847E+0	1.686926E+0	1.720074E+0	1.755784E+0	1.699276E+0	1.709573E+0	1.694322E+0	1.694577E+0	1.730829E+0	1.679116E+0	1.666991E+0	1.712646E+0	1.747878E+0	1.652734E+0	1.692664E+0	1.698286E+0	1.636891E+0	1.693812E+0	1.692405E+0	1.706061E+0	1.731280E+0	1.717726E+0	1.729489E+0	1.716179E+0	1.697331E+0	1.700072E+0	1.684335E+0	1.691985E+0	1.746465E+0	1.710090E+0	1.672402E+0	1.679982E+0	1.687700E+0	1.669041E+0	1.682538E+0	1.677679E+0	1.645295E+0	1.675470E+0	1.645980E+0	1.720243E+0	1.674626E+0	1.668280E+0	1.619490E+0	1.740437E+0	1.673357E+0	1.615039E+0	1.700153E+0	1.679554E+0	1.716692E+0	1.689565E+0	1.711945E+0	1.705132E+0	1.695821E+0	1.680409E+0	1.665908E+0	1.698440E+0	1.678131E+0	1.623318E+0	1.606191E+0	1.649472E+0	1.852306E+0
5.410240E+2	1.718423E+0	1.655710E+0	1.747012E+0	1.647381E+0	1.684314E+0	1.590726E+0	1.692051E+0	1.661100E+0	1.643775E+0	1.732886E+0	1.702601E+0	1.650570E+0	1.672131E+0	1.664106E+0	1.681023E+0	1.671770E+0	1.698287E+0	1.579707E+0	1.639508E+0	1.752831E+0	1.701275E+0	1.609853E+0	1.667516E+0	1.642724E+0	1.624588E+0	1.581310E+0	1.675689E+0	1.709623E+0	1.708458E+0	1.638332E+0	1.674804E+0	1.694731E+0	1.687648E+0	1.711174E+0	1.659155E+0	1.681036E+0	1.653010E+0	1.673586E+0	1.683715E+0	1.663406E+0	1.707762E+0	1.609361E+0	1.677467E+0	1.636780E+0	1.656191E+0	1.663828E+0	1.656375E+0	1.656869E+0	1.645879E+0	1.661970E+0	1.688517E+0	1.631054E+0	1.610871E+0	1.673261E+0	1.609101E+0	1.660033E+0	1.659513E+0	1.682060E+0	1.633509E+0	1.693713E+0	1.608999E+0	1.643626E+0	1.671651E+0	1.668529E+0	1.697971E+0	1.618213E+0	1.693814E+0	1.647182E+0	1.687062E+0	1.685361E+0	1.631416E+0	1.660706E+0	1.567057E+0	1.659305E+0	1.625203E+0	1.619862E+0	1.540082E+0	1.563155E+0	1.634910E+0	1.606095E+0	1.628259E+0	1.657366E+0	1.634252E+0	1.623175E+0	1.658222E+0	1.720811E+0	1.655855E+0	1.713753E+0	1.646257E+0	1.658796E+0	1.676297E+0	1.645702E+0	1.647407E+0	1.636375E+0	1.653937E+0	1.619209E+0	1.585168E+0	1.683135E+0	1.655830E+0	1.630154E+0	1.638920E+0	1.648696E+0	1.622233E+0	1.628116E+0	1.624533E+0	1.661721E+0	1.615695E+0	1.632055E+0	1.637101E+0	1.666796E+0	1.677165E+0	1.652920E+0	1.645264E+0	1.634229E+0	1.633305E+0	1.662812E+0	1.648040E+0	1.625563E+0	1.658322E+0	1.712278E+0	1.596904E+0	1.588180E+0	1.614449E+0	1.706888E+0	1.614817E+0	1.655994E+0	1.711070E+0	1.648408E+0	1.603484E+0	1.611630E+0	1.655133E+0	1.647827E+0	1.677366E+0	1.607306E+0	1.653885E+0	1.588026E+0	1.640701E+0	1.670924E+0	1.630082E+0	1.592499E+0	1.653339E+0	1.652097E+0	1.642740E+0	1.563139E+0	1.591459E+0	1.624411E+0	1.641372E+0	1.581257E+0	1.624653E+0	1.641857E+0	1.678222E+0	1.636693E+0	1.601679E+0	1.661886E+0	1.645582E+0	1.581256E+0	1.604581E+0	1.670834E+0	1.606921E+0	1.610443E+0	1.539258E+0	1.589098E+0	1.682364E+0	1.640149E+0	1.606980E+0	1.594097E+0	1.652981E+0	1.600411E+0	1.559913E+0	1.601169E+0	1.718330E+0	1.723031E+0
5.412690E+2	1.605661E+0	1.593819E+0	1.530586E+0	1.560079E+0	1.536220E+0	1.538771E+0	1.617972E+0	1.511583E+0	1.575611E+0	1.614308E+0	1.539388E+0	1.535739E+0	1.551708E+0	1.615700E+0	1.587316E+0	1.553733E+0	1.579709E+0	1.585419E+0	1.597770E+0	1.568896E+0	1.573958E+0	1.537229E+0	1.582220E+0	1.627983E+0	1.517796E+0	1.591413E+0	1.545216E+0	1.580990E+0	1.588150E+0	1.539362E+0	1.582949E+0	1.625026E+0	1.579761E+0	1.552965E+0	1.517899E+0	1.557518E+0	1.524246E+0	1.570526E+0	1.618120E+0	1.517362E+0	1.605164E+0	1.545095E+0	1.568418E+0	1.562810E+0	1.565394E+0	1.565989E+0	1.541780E+0	1.580141E+0	1.579284E+0	1.596224E+0	1.601387E+0	1.571613E+0	1.554913E+0	1.573162E+0	1.547839E+0	1.540653E+0	1.539391E+0	1.576017E+0	1.592813E+0	1.595619E+0	1.533525E+0	1.506834E+0	1.573719E+0	1.600471E+0	1.519905E+0	1.516749E+0	1.575933E+0	1.561628E+0	1.588667E+0	1.562043E+0	1.540576E+0	1.581414E+0	1.506592E+0	1.505902E+0	1.532651E+0	1.646323E+0	1.554978E+0	1.509942E+0	1.540582E+0	1.544963E+0	1.502388E+0	1.531442E+0	1.613799E+0	1.522837E+0	1.552932E+0	1.577302E+0	1.577621E+0	1.543730E+0	1.560356E+0	1.517738E+0	1.596139E+0	1.597305E+0	1.611960E+0	1.474420E+0	1.593057E+0	1.560289E+0	1.573540E+0	1.571513E+0	1.583704E+0	1.563432E+0	1.488473E+0	1.574346E+0	1.604217E+0	1.520620E+0	1.551846E+0	1.577909E+0	1.539325E+0	1.576897E+0	1.538467E+0	1.521068E+0	1.565637E+0	1.604406E+0	1.539561E+0	1.516375E+0	1.587272E+0	1.568553E+0	1.535685E+0	1.510492E+0	1.549509E+0	1.539369E+0	1.551143E+0	1.517288E+0	1.554149E+0	1.541348E+0	1.513198E+0	1.521869E+0	1.592411E+0	1.569433E+0	1.552801E+0	1.543368E+0	1.535838E+0	1.565017E+0	1.533926E+0	1.561455E+0	1.605752E+0	1.526193E+0	1.472766E+0	1.482089E+0	1.509155E+0	1.540930E+0	1.541033E+0	1.484226E+0	1.559119E+0	1.504103E+0	1.573808E+0	1.531654E+0	1.594873E+0	1.520013E+0	1.583700E+0	1.566689E+0	1.563283E+0	1.466124E+0	1.517944E+0	1.558881E+0	1.470054E+0	1.530033E+0	1.454345E+0	1.557197E+0	1.509543E+0	1.584602E+0	1.575307E+0	1.494854E+0	1.543293E+0	1.543566E+0	1.561579E+0	1.569235E+0	1.524623E+0	1.555257E+0	1.425558E+0	1.572218E+0	1.524985E+0	1.597264E+0
5.415090E+2	1.417149E+0	1.398845E+0	1.497622E+0	1.411429E+0	1.417098E+0	1.362206E+0	1.421134E+0	1.426350E+0	1.451017E+0	1.424580E+0	1.410909E+0	1.396429E+0	1.434281E+0	1.437012E+0	1.382664E+0	1.455706E+0	1.410722E+0	1.337969E+0	1.403136E+0	1.443238E+0	1.447169E+0	1.369126E+0	1.453064E+0	1.387166E+0	1.358726E+0	1.368508E+0	1.364071E+0	1.400851E+0	1.417261E+0	1.366229E+0	1.362094E+0	1.454752E+0	1.391843E+0	1.339608E+0	1.409949E+0	1.399602E+0	1.387478E+0	1.377358E+0	1.419812E+0	1.343334E+0	1.369277E+0	1.342849E+0	1.410379E+0	1.436563E+0	1.408218E+0	1.446532E+0	1.375158E+0	1.400676E+0	1.393498E+0	1.360545E+0	1.409158E+0	1.412174E+0	1.367212E+0	1.390386E+0	1.363184E+0	1.441903E+0	1.387254E+0	1.398468E+0	1.412996E+0	1.467046E+0	1.408019E+0	1.352411E+0	1.364434E+0	1.409262E+0	1.376958E+0	1.360351E+0	1.397005E+0	1.421942E+0	1.407045E+0	1.407172E+0	1.405997E+0	1.421816E+0	1.392895E+0	1.432410E+0	1.395938E+0	1.508942E+0	1.416270E+0	1.381754E+0	1.406478E+0	1.447088E+0	1.395917E+0	1.323896E+0	1.410979E+0	1.403311E+0	1.409780E+0	1.438124E+0	1.367310E+0	1.396294E+0	1.395196E+0	1.370553E+0	1.395881E+0	1.370981E+0	1.417932E+0	1.325385E+0	1.409804E+0	1.425272E+0	1.401365E+0	1.435652E+0	1.369874E+0	1.381464E+0	1.392992E+0	1.383230E+0	1.427874E+0	1.402226E+0	1.416085E+0	1.411819E+0	1.416668E+0	1.395246E+0	1.374372E+0	1.364991E+0	1.357773E+0	1.416624E+0	1.347814E+0	1.399059E+0	1.393433E+0	1.381350E+0	1.395515E+0	1.415281E+0	1.387843E+0	1.404508E+0	1.389243E+0	1.316625E+0	1.389685E+0	1.375998E+0	1.341270E+0	1.409193E+0	1.394270E+0	1.447144E+0	1.379220E+0	1.398088E+0	1.408625E+0	1.430754E+0	1.402593E+0	1.410755E+0	1.415047E+0	1.382590E+0	1.339663E+0	1.378391E+0	1.407163E+0	1.425911E+0	1.413174E+0	1.340879E+0	1.366626E+0	1.385585E+0	1.343623E+0	1.402528E+0	1.336679E+0	1.393555E+0	1.347011E+0	1.393780E+0	1.382077E+0	1.436141E+0	1.351947E+0	1.405795E+0	1.426147E+0	1.369043E+0	1.359512E+0	1.355131E+0	1.388397E+0	1.440331E+0	1.325432E+0	1.375576E+0	1.385927E+0	1.392510E+0	1.374831E+0	1.362563E+0	1.432316E+0	1.418245E+0	1.361035E+0	1.405794E+0	1.410633E+0	1.397382E+0
5.417760E+2	1.258298E+0	1.246592E+0	1.222088E+0	1.239851E+0	1.167508E+0	1.189566E+0	1.217958E+0	1.213335E+0	1.202269E+0	1.257960E+0	1.197404E+0	1.192387E+0	1.188143E+0	1.254106E+0	1.204212E+0	1.203363E+0	1.233687E+0	1.180015E+0	1.180258E+0	1.218494E+0	1.206751E+0	1.183454E+0	1.225438E+0	1.215494E+0	1.210810E+0	1.243113E+0	1.221862E+0	1.237742E+0	1.186427E+0	1.226468E+0	1.222597E+0	1.280718E+0	1.244493E+0	1.222070E+0	1.217251E+0	1.248057E+0	1.188145E+0	1.193434E+0	1.206921E+0	1.189717E+0	1.243093E+0	1.177228E+0	1.276326E+0	1.207641E+0	1.186357E+0	1.238110E+0	1.221215E+0	1.216226E+0	1.201192E+0	1.228906E+0	1.241855E+0	1.225302E+0	1.209586E+0	1.234175E+0	1.180074E+0	1.280693E+0	1.196117E+0	1.250833E+0	1.218532E+0	1.294593E+0	1.197366E+0	1.182942E+0	1.162069E+0	1.211381E+0	1.249340E+0	1.218850E+0	1.225276E+0	1.236282E+0	1.242240E+0	1.193314E+0	1.212634E+0	1.224171E+0	1.219243E+0	1.219635E+0	1.219431E+0	1.261691E+0	1.213209E+0	1.167286E+0	1.208910E+0	1.250561E+0	1.229297E+0	1.183014E+0	1.155856E+0	1.179700E+0	1.242168E+0	1.218166E+0	1.235930E+0	1.242194E+0	1.233327E+0	1.234561E+0	1.224225E+0	1.197964E+0	1.221034E+0	1.209358E+0	1.219768E+0	1.215457E+0	1.213842E+0	1.227064E+0	1.256337E+0	1.225939E+0	1.218012E+0	1.201797E+0	1.213900E+0	1.279461E+0	1.218566E+0	1.179077E+0	1.232322E+0	1.246045E+0	1.221255E+0	1.246509E+0	1.156137E+0	1.204002E+0	1.256576E+0	1.171481E+0	1.126585E+0	1.204877E+0	1.215292E+0	1.190522E+0	1.198506E+0	1.195607E+0	1.220842E+0	1.179285E+0	1.179899E+0	1.211067E+0	1.189855E+0	1.219094E+0	1.230559E+0	1.210104E+0	1.231192E+0	1.210038E+0	1.217897E+0	1.273112E+0	1.217403E+0	1.233644E+0	1.238378E+0	1.199238E+0	1.176347E+0	1.198862E+0	1.205174E+0	1.208201E+0	1.216431E+0	1.184954E+0	1.162801E+0	1.267067E+0	1.204971E+0	1.212750E+0	1.214681E+0	1.165008E+0	1.251344E+0	1.199802E+0	1.224352E+0	1.258741E+0	1.187455E+0	1.193180E+0	1.193214E+0	1.187248E+0	1.206789E+0	1.191712E+0	1.188818E+0	1.263574E+0	1.228626E+0	1.188872E+0	1.206033E+0	1.224794E+0	1.253449E+0	1.245329E+0	1.211176E+0	1.235611E+0	1.170350E+0	1.255106E+0	1.241500E+0	1.252200E+0
5.420210E+2	1.047815E+0	1.008002E+0	1.077587E+0	9.757128E-1	1.019843E+0	9.936908E-1	1.027634E+0	1.001440E+0	9.913180E-1	1.017917E+0	9.910756E-1	1.023332E+0	1.001232E+0	1.030097E+0	1.058521E+0	1.007154E+0	1.028502E+0	1.004410E+0	9.933978E-1	1.027601E+0	1.015539E+0	1.014675E+0	1.010812E+0	9.967613E-1	1.015983E+0	1.002542E+0	1.012302E+0	1.017117E+0	9.900482E-1	9.876482E-1	1.018927E+0	1.014296E+0	1.014795E+0	1.027500E+0	1.007699E+0	1.012200E+0	1.010746E+0	9.863047E-1	1.022740E+0	9.897978E-1	9.956035E-1	9.808085E-1	1.009683E+0	1.034478E+0	1.015672E+0	9.996017E-1	1.035394E+0	1.010766E+0	9.888070E-1	1.026507E+0	1.025266E+0	9.933969E-1	1.005744E+0	9.976367E-1	1.036431E+0	9.990866E-1	1.029776E+0	1.004477E+0	9.998359E-1	1.037917E+0	9.815023E-1	1.017397E+0	9.774789E-1	1.014776E+0	9.997587E-1	9.505302E-1	1.056292E+0	9.944548E-1	1.015516E+0	1.013508E+0	1.019128E+0	1.036970E+0	1.031505E+0	9.618742E-1	9.931290E-1	9.912537E-1	9.996118E-1	1.003439E+0	9.888976E-1	1.032971E+0	9.926357E-1	1.005180E+0	1.054064E+0	1.007051E+0	1.027319E+0	1.025665E+0	9.958480E-1	1.012809E+0	1.000609E+0	1.006361E+0	1.054896E+0	9.879165E-1	9.902246E-1	9.896833E-1	1.014321E+0	1.039978E+0	1.036709E+0	9.818302E-1	1.013583E+0	1.024670E+0	1.007106E+0	1.000637E+0	1.025038E+0	9.844577E-1	1.005469E+0	9.785916E-1	9.833209E-1	1.043583E+0	1.050766E+0	1.003215E+0	9.509240E-1	1.057995E+0	1.016172E+0	9.782265E-1	9.987926E-1	1.004099E+0	1.021512E+0	1.010017E+0	1.023721E+0	1.005437E+0	9.929019E-1	1.014027E+0	1.008587E+0	1.052735E+0	1.000601E+0	1.020455E+0	1.052738E+0	1.047587E+0	9.850724E-1	1.009885E+0	1.004078E+0	1.027391E+0	1.033136E+0	1.024882E+0	1.029303E+0	9.785144E-1	1.004027E+0	9.960604E-1	1.087358E+0	9.987911E-1	9.949315E-1	9.848038E-1	9.471196E-1	1.046047E+0	1.035758E+0	1.027929E+0	9.996734E-1	1.015851E+0	1.024753E+0	1.008175E+0	1.022796E+0	1.036141E+0	1.003129E+0	1.026914E+0	9.989735E-1	1.017818E+0	1.020119E+0	9.713877E-1	9.968358E-1	1.060566E+0	9.819996E-1	9.799015E-1	1.032035E+0	1.065667E+0	1.011709E+0	1.001223E+0	1.067391E+0	1.052250E+0	9.324206E-1	9.639679E-1	1.020651E+0	1.126919E+0
5.422670E+2	9.919403E-1	9.107737E-1	9.664307E-1	8.812265E-1	9.095368E-1	9.325264E-1	9.713570E-1	9.388777E-1	9.406149E-1	9.759833E-1	9.354506E-1	9.773182E-1	9.597167E-1	9.383698E-1	9.652055E-1	9.834050E-1	9.531538E-1	9.340995E-1	9.571909E-1	9.193266E-1	9.714405E-1	9.570281E-1	9.754576E-1	9.662646E-1	9.222335E-1	9.576739E-1	9.716993E-1	9.651909E-1	9.474696E-1	9.355677E-1	9.697517E-1	9.804378E-1	9.757100E-1	9.729930E-1	9.217441E-1	9.612600E-1	9.522284E-1	9.548403E-1	9.784874E-1	9.139766E-1	9.336126E-1	9.608985E-1	9.607335E-1	1.004388E+0	9.592124E-1	9.644806E-1	9.283725E-1	9.633493E-1	9.313608E-1	9.372574E-1	9.413943E-1	9.492470E-1	9.539587E-1	9.643911E-1	9.687020E-1	9.553260E-1	9.329762E-1	9.714414E-1	9.578952E-1	9.548745E-1	9.578491E-1	9.592609E-1	9.089193E-1	9.652768E-1	9.297915E-1	9.242293E-1	9.633822E-1	9.912681E-1	9.710872E-1	9.494949E-1	9.703492E-1	9.629409E-1	9.438157E-1	9.989554E-1	9.255784E-1	1.051919E+0	9.464204E-1	9.616192E-1	9.271419E-1	9.667556E-1	9.260512E-1	9.483779E-1	9.837010E-1	9.840740E-1	9.510396E-1	9.604712E-1	1.013270E+0	9.333427E-1	9.751140E-1	9.582886E-1	9.465004E-1	9.369700E-1	9.492972E-1	9.532066E-1	9.361962E-1	9.172682E-1	9.871134E-1	1.006745E+0	9.687460E-1	9.541242E-1	9.705512E-1	9.253410E-1	9.605606E-1	9.855742E-1	9.635303E-1	9.258465E-1	1.030385E+0	9.712207E-1	9.668978E-1	9.310116E-1	9.276866E-1	9.803298E-1	9.245897E-1	9.659797E-1	9.841860E-1	9.913571E-1	9.917727E-1	9.523972E-1	9.449977E-1	9.680306E-1	9.574640E-1	9.343962E-1	9.541597E-1	9.707855E-1	9.505181E-1	9.529689E-1	9.509922E-1	9.876946E-1	9.457037E-1	9.772535E-1	9.753811E-1	1.011243E+0	9.723180E-1	9.610558E-1	9.691773E-1	9.840587E-1	9.454428E-1	9.924539E-1	1.001735E+0	1.010620E+0	1.003600E+0	9.264227E-1	9.775076E-1	9.779742E-1	9.162259E-1	9.382949E-1	1.000489E+0	9.452629E-1	9.823837E-1	9.980240E-1	1.003969E+0	9.920045E-1	9.569474E-1	9.712518E-1	9.973790E-1	9.751868E-1	9.483512E-1	9.280932E-1	9.183883E-1	9.806389E-1	9.158005E-1	9.607947E-1	9.590910E-1	9.795126E-1	9.395513E-1	9.631238E-1	9.753796E-1	9.963913E-1	8.938748E-1	9.648703E-1	9.355707E-1	9.794269E-1
5.425400E+2	8.925358E-1	9.130600E-1	9.303897E-1	9.216754E-1	8.475688E-1	8.995909E-1	9.321060E-1	9.017943E-1	8.858982E-1	9.322102E-1	8.562474E-1	9.397962E-1	8.644476E-1	8.734797E-1	9.069652E-1	9.243626E-1	8.723228E-1	8.924558E-1	8.883888E-1	9.151162E-1	8.925508E-1	8.739924E-1	8.754832E-1	9.139208E-1	8.741319E-1	9.177506E-1	9.255695E-1	8.848187E-1	9.363423E-1	9.000862E-1	9.048106E-1	9.376286E-1	8.954789E-1	9.157239E-1	8.764335E-1	8.550685E-1	8.778937E-1	8.915703E-1	9.201163E-1	8.811201E-1	8.904036E-1	9.325554E-1	8.961356E-1	8.920616E-1	8.954887E-1	8.988154E-1	9.222160E-1	9.187486E-1	8.580115E-1	8.928832E-1	9.167593E-1	9.192447E-1	8.803837E-1	8.698142E-1	8.953111E-1	9.539574E-1	8.848008E-1	8.989068E-1	9.057351E-1	9.322773E-1	8.982407E-1	9.185820E-1	8.735801E-1	8.848836E-1	8.936847E-1	8.665110E-1	9.136818E-1	8.551347E-1	9.130948E-1	8.782752E-1	9.037641E-1	8.763897E-1	8.435968E-1	8.728359E-1	8.899810E-1	9.440161E-1	9.014356E-1	9.136853E-1	8.938526E-1	9.257622E-1	9.405550E-1	8.807343E-1	9.021878E-1	8.899550E-1	8.725355E-1	8.679101E-1	9.328079E-1	9.229380E-1	9.067164E-1	8.683343E-1	9.143965E-1	8.858839E-1	9.191724E-1	9.085013E-1	9.313272E-1	9.074990E-1	9.412037E-1	8.791339E-1	8.812339E-1	8.974068E-1	9.103831E-1	9.037429E-1	9.161142E-1	8.998429E-1	8.987400E-1	8.807103E-1	9.212794E-1	8.478973E-1	9.202219E-1	8.624114E-1	8.686828E-1	9.611871E-1	9.220165E-1	8.787609E-1	9.111141E-1	9.463766E-1	9.056759E-1	8.648684E-1	9.007955E-1	9.426504E-1	9.232777E-1	8.579386E-1	8.970821E-1	9.485876E-1	9.025021E-1	9.156186E-1	9.010551E-1	9.142361E-1	9.132585E-1	9.254071E-1	8.981626E-1	9.644024E-1	9.160499E-1	9.068626E-1	9.252793E-1	8.945816E-1	8.951761E-1	8.973116E-1	9.119495E-1	8.864349E-1	8.737331E-1	8.748006E-1	8.713005E-1	9.026913E-1	9.092340E-1	8.907201E-1	8.992126E-1	8.943294E-1	9.296875E-1	9.076886E-1	9.231883E-1	8.998125E-1	8.773903E-1	9.244594E-1	9.104585E-1	9.030565E-1	8.663162E-1	8.753304E-1	9.124227E-1	9.373718E-1	9.026626E-1	8.906220E-1	8.883573E-1	9.549554E-1	8.842666E-1	9.038855E-1	9.179629E-1	9.212684E-1	8.838706E-1	8.702035E-1	9.210715E-1	9.551909E-1
5.427600E+2	9.746370E-1	9.501229E-1	9.962710E-1	9.338252E-1	9.562667E-1	9.160882E-1	9.764247E-1	9.293083E-1	9.364473E-1	9.715907E-1	9.494639E-1	9.310588E-1	9.273949E-1	9.139853E-1	9.203782E-1	9.051001E-1	9.552091E-1	9.088991E-1	9.386646E-1	9.239243E-1	9.698582E-1	9.434676E-1	9.064199E-1	9.422428E-1	9.289993E-1	9.557949E-1	9.403944E-1	9.651300E-1	9.238682E-1	9.537226E-1	9.215628E-1	9.377833E-1	9.482721E-1	9.419074E-1	9.258891E-1	9.275686E-1	8.930628E-1	9.034047E-1	9.182657E-1	9.057067E-1	9.377811E-1	9.148367E-1	9.262993E-1	9.115925E-1	9.424317E-1	9.389922E-1	9.610418E-1	9.572714E-1	9.694267E-1	9.370334E-1	9.008057E-1	9.573853E-1	8.909057E-1	9.564409E-1	9.339110E-1	9.781075E-1	9.478947E-1	9.487780E-1	9.231202E-1	9.192421E-1	9.151236E-1	9.021599E-1	9.625252E-1	9.835360E-1	9.826130E-1	9.280996E-1	9.501813E-1	9.737113E-1	9.599085E-1	8.975785E-1	9.631762E-1	9.167527E-1	9.049305E-1	9.234955E-1	9.378198E-1	9.463537E-1	9.197424E-1	8.888032E-1	9.271980E-1	9.639705E-1	9.176943E-1	9.449716E-1	9.867172E-1	9.472092E-1	9.506764E-1	9.444017E-1	9.863522E-1	9.196366E-1	9.287228E-1	9.207725E-1	9.587286E-1	9.217548E-1	9.519531E-1	8.937262E-1	9.392714E-1	9.641062E-1	9.169944E-1	9.625885E-1	9.098798E-1	9.156444E-1	9.021266E-1	9.475609E-1	9.505020E-1	9.478625E-1	9.040209E-1	9.236055E-1	9.416904E-1	9.722031E-1	9.354639E-1	9.790035E-1	9.146926E-1	9.400552E-1	9.497494E-1	9.467276E-1	9.368807E-1	9.387397E-1	9.853257E-1	9.337603E-1	9.433181E-1	9.367614E-1	9.339680E-1	9.352481E-1	9.582422E-1	9.947707E-1	9.565973E-1	9.515534E-1	9.546604E-1	9.679464E-1	9.437753E-1	9.362865E-1	9.057853E-1	9.904473E-1	9.577139E-1	9.480226E-1	9.400853E-1	9.239506E-1	8.732024E-1	8.851965E-1	9.640091E-1	9.347411E-1	9.566822E-1	9.230401E-1	8.978327E-1	9.611938E-1	9.154238E-1	9.280803E-1	9.928348E-1	9.143567E-1	9.501510E-1	9.565774E-1	9.475078E-1	9.222589E-1	9.339921E-1	9.475472E-1	9.325377E-1	9.318909E-1	9.505219E-1	9.449140E-1	9.139389E-1	9.642670E-1	9.321539E-1	9.905628E-1	9.134410E-1	9.581450E-1	9.516121E-1	9.493447E-1	9.375847E-1	9.744552E-1	9.267059E-1	9.630145E-1	9.254345E-1	9.765541E-1
5.430070E+2	1.035670E+0	9.900526E-1	1.087319E+0	1.040736E+0	1.021020E+0	1.005053E+0	1.018246E+0	1.003504E+0	1.033353E+0	1.055198E+0	1.023193E+0	1.007623E+0	1.031860E+0	1.050658E+0	1.039176E+0	1.020990E+0	1.039454E+0	1.022683E+0	1.011643E+0	1.011582E+0	1.027875E+0	1.000823E+0	1.041368E+0	1.075833E+0	1.026775E+0	1.044069E+0	1.034368E+0	1.072687E+0	1.045594E+0	9.948140E-1	1.025158E+0	1.045501E+0	1.013893E+0	1.012625E+0	1.024830E+0	1.044714E+0	1.093072E+0	9.961218E-1	1.050087E+0	1.026145E+0	1.027265E+0	1.001227E+0	1.029948E+0	1.016980E+0	9.943209E-1	1.095543E+0	1.055535E+0	1.039607E+0	1.048693E+0	1.014639E+0	1.009400E+0	1.035866E+0	9.878582E-1	9.981094E-1	9.868364E-1	1.085362E+0	1.073432E+0	1.091359E+0	1.100333E+0	1.023381E+0	1.044288E+0	1.006341E+0	1.002524E+0	1.043195E+0	1.052968E+0	9.693382E-1	1.058097E+0	1.025253E+0	1.089538E+0	9.895748E-1	1.024982E+0	1.069611E+0	9.980275E-1	1.025182E+0	1.064787E+0	1.097974E+0	9.913508E-1	1.062343E+0	9.857406E-1	1.037841E+0	9.897966E-1	1.013639E+0	1.056130E+0	1.056070E+0	1.029957E+0	1.075881E+0	1.046005E+0	1.007203E+0	1.065618E+0	1.053778E+0	1.054843E+0	1.032588E+0	1.077795E+0	9.898467E-1	1.026080E+0	1.044970E+0	1.061471E+0	1.036043E+0	1.039998E+0	1.054705E+0	1.063581E+0	1.027684E+0	1.081130E+0	1.028489E+0	1.001956E+0	1.059520E+0	1.076649E+0	1.041185E+0	1.017213E+0	1.041398E+0	1.023585E+0	1.047412E+0	1.083801E+0	9.913222E-1	1.013960E+0	1.005245E+0	1.033722E+0	9.980225E-1	1.034447E+0	1.040268E+0	1.016774E+0	9.984340E-1	1.078973E+0	1.073017E+0	1.017699E+0	1.077438E+0	1.031007E+0	1.062790E+0	1.055813E+0	1.064802E+0	1.036974E+0	1.041404E+0	1.010117E+0	1.068707E+0	1.040801E+0	1.043123E+0	1.053840E+0	1.040801E+0	1.021523E+0	9.981457E-1	1.004912E+0	1.070188E+0	1.023910E+0	1.028411E+0	1.039522E+0	1.050469E+0	1.051879E+0	1.020607E+0	1.021784E+0	1.068393E+0	1.037379E+0	1.056640E+0	1.068668E+0	1.028748E+0	1.050465E+0	1.025241E+0	1.053064E+0	9.720327E-1	1.035758E+0	1.073666E+0	1.028942E+0	9.999222E-1	1.013917E+0	1.023048E+0	1.029156E+0	1.031204E+0	1.012835E+0	1.040650E+0	1.011665E+0	1.040817E+0	1.045074E+0	1.074661E+0
5.432860E+2	1.191714E+0	1.178097E+0	1.191671E+0	1.162466E+0	1.183000E+0	1.157565E+0	1.200842E+0	1.221661E+0	1.218955E+0	1.211082E+0	1.199529E+0	1.210397E+0	1.158523E+0	1.183899E+0	1.162080E+0	1.179647E+0	1.175272E+0	1.138773E+0	1.220528E+0	1.160265E+0	1.246470E+0	1.181650E+0	1.199628E+0	1.202395E+0	1.193811E+0	1.173482E+0	1.190273E+0	1.235708E+0	1.205664E+0	1.241485E+0	1.200246E+0	1.201140E+0	1.179404E+0	1.209947E+0	1.169130E+0	1.108707E+0	1.215021E+0	1.170372E+0	1.232547E+0	1.198495E+0	1.152484E+0	1.167489E+0	1.190776E+0	1.195484E+0	1.150419E+0	1.200245E+0	1.158986E+0	1.166608E+0	1.171660E+0	1.172153E+0	1.209242E+0	1.168156E+0	1.167072E+0	1.206580E+0	1.213227E+0	1.201730E+0	1.119780E+0	1.229013E+0	1.138584E+0	1.186111E+0	1.190993E+0	1.171774E+0	1.163132E+0	1.194950E+0	1.229678E+0	1.223933E+0	1.109287E+0	1.214102E+0	1.200727E+0	1.170002E+0	1.179375E+0	1.197844E+0	1.185955E+0	1.166651E+0	1.184108E+0	1.210798E+0	1.198196E+0	1.188520E+0	1.186873E+0	1.175643E+0	1.220345E+0	1.172177E+0	1.208803E+0	1.169660E+0	1.170998E+0	1.226365E+0	1.224597E+0	1.194172E+0	1.186022E+0	1.171168E+0	1.161682E+0	1.183626E+0	1.206442E+0	1.106296E+0	1.201396E+0	1.147424E+0	1.174022E+0	1.165913E+0	1.195969E+0	1.210100E+0	1.222849E+0	1.203018E+0	1.211695E+0	1.222428E+0	1.249805E+0	1.185934E+0	1.224817E+0	1.178646E+0	1.216377E+0	1.204896E+0	1.149527E+0	1.186468E+0	1.159458E+0	1.170950E+0	1.183770E+0	1.176008E+0	1.238866E+0	1.190257E+0	1.221773E+0	1.192094E+0	1.198785E+0	1.134521E+0	1.188328E+0	1.201818E+0	1.193125E+0	1.198392E+0	1.206001E+0	1.201360E+0	1.153313E+0	1.177766E+0	1.221692E+0	1.244833E+0	1.188759E+0	1.205755E+0	1.222916E+0	1.193375E+0	1.166670E+0	1.196035E+0	1.121329E+0	1.139517E+0	1.131181E+0	1.190506E+0	1.172980E+0	1.212541E+0	1.169496E+0	1.215326E+0	1.169017E+0	1.154908E+0	1.199573E+0	1.178947E+0	1.187775E+0	1.208305E+0	1.151023E+0	1.160883E+0	1.122759E+0	1.181977E+0	1.183313E+0	1.168564E+0	1.162415E+0	1.250147E+0	1.177667E+0	1.149538E+0	1.178347E+0	1.215412E+0	1.167383E+0	1.167828E+0	1.192368E+0	1.190995E+0	1.162992E+0	1.160043E+0	1.147171E+0	1.203160E+0
5.435220E+2	1.358025E+0	1.399653E+0	1.355498E+0	1.269300E+0	1.340853E+0	1.276151E+0	1.300749E+0	1.296190E+0	1.315029E+0	1.381641E+0	1.290144E+0	1.298181E+0	1.313567E+0	1.319549E+0	1.300578E+0	1.330880E+0	1.334919E+0	1.272886E+0	1.341200E+0	1.287790E+0	1.350492E+0	1.278817E+0	1.357696E+0	1.335382E+0	1.247096E+0	1.332658E+0	1.339493E+0	1.301506E+0	1.331107E+0	1.282438E+0	1.322481E+0	1.318272E+0	1.394367E+0	1.311106E+0	1.261930E+0	1.260671E+0	1.333654E+0	1.323822E+0	1.322694E+0	1.244530E+0	1.291063E+0	1.248659E+0	1.270089E+0	1.299052E+0	1.297923E+0	1.327930E+0	1.344709E+0	1.329715E+0	1.271204E+0	1.315603E+0	1.323979E+0	1.322253E+0	1.332109E+0	1.335145E+0	1.319033E+0	1.305159E+0	1.306325E+0	1.357371E+0	1.285929E+0	1.341793E+0	1.310656E+0	1.296368E+0	1.313921E+0	1.291206E+0	1.332447E+0	1.236985E+0	1.332831E+0	1.342685E+0	1.282817E+0	1.278582E+0	1.307531E+0	1.337745E+0	1.255170E+0	1.357308E+0	1.306257E+0	1.314371E+0	1.279763E+0	1.281731E+0	1.326738E+0	1.344298E+0	1.324015E+0	1.289583E+0	1.345382E+0	1.273296E+0	1.332457E+0	1.341061E+0	1.328582E+0	1.290720E+0	1.301505E+0	1.302008E+0	1.322388E+0	1.290857E+0	1.343663E+0	1.279645E+0	1.324624E+0	1.354567E+0	1.285084E+0	1.320980E+0	1.311939E+0	1.285615E+0	1.320540E+0	1.269740E+0	1.384231E+0	1.275342E+0	1.329766E+0	1.331678E+0	1.320400E+0	1.347400E+0	1.275745E+0	1.351527E+0	1.260736E+0	1.349177E+0	1.306375E+0	1.261646E+0	1.323313E+0	1.305421E+0	1.302516E+0	1.224879E+0	1.296827E+0	1.322473E+0	1.330142E+0	1.284689E+0	1.338609E+0	1.288978E+0	1.281952E+0	1.288573E+0	1.340451E+0	1.287024E+0	1.334250E+0	1.309586E+0	1.307989E+0	1.290872E+0	1.266161E+0	1.334909E+0	1.324567E+0	1.304972E+0	1.306137E+0	1.342470E+0	1.248385E+0	1.281503E+0	1.297272E+0	1.305263E+0	1.254891E+0	1.344663E+0	1.310808E+0	1.305294E+0	1.312780E+0	1.293586E+0	1.372188E+0	1.301491E+0	1.309069E+0	1.293130E+0	1.315351E+0	1.332018E+0	1.271739E+0	1.287948E+0	1.295636E+0	1.260289E+0	1.266334E+0	1.306601E+0	1.325182E+0	1.260687E+0	1.269154E+0	1.262222E+0	1.288408E+0	1.286498E+0	1.335021E+0	1.297655E+0	1.261887E+0	1.248353E+0	1.235803E+0	1.228854E+0
5.437590E+2	1.422307E+0	1.416743E+0	1.437087E+0	1.417222E+0	1.413431E+0	1.419337E+0	1.431206E+0	1.380184E+0	1.410468E+0	1.474429E+0	1.369665E+0	1.430753E+0	1.413620E+0	1.449034E+0	1.414388E+0	1.401123E+0	1.444639E+0	1.428161E+0	1.389889E+0	1.380415E+0	1.408419E+0	1.377491E+0	1.431194E+0	1.415228E+0	1.375741E+0	1.426078E+0	1.452650E+0	1.459499E+0	1.487234E+0	1.362822E+0	1.400201E+0	1.435758E+0	1.414967E+0	1.384416E+0	1.407976E+0	1.383880E+0	1.401591E+0	1.409950E+0	1.410758E+0	1.401925E+0	1.411716E+0	1.406194E+0	1.397479E+0	1.426050E+0	1.425488E+0	1.455649E+0	1.439722E+0	1.421391E+0	1.398825E+0	1.375622E+0	1.422554E+0	1.416069E+0	1.411798E+0	1.426541E+0	1.360761E+0	1.462708E+0	1.408300E+0	1.441713E+0	1.468073E+0	1.392509E+0	1.398693E+0	1.421032E+0	1.379247E+0	1.409860E+0	1.436475E+0	1.378472E+0	1.414057E+0	1.420515E+0	1.443039E+0	1.416254E+0	1.391769E+0	1.364442E+0	1.386583E+0	1.438749E+0	1.376175E+0	1.492906E+0	1.412198E+0	1.439069E+0	1.394214E+0	1.406281E+0	1.430914E+0	1.425819E+0	1.420033E+0	1.384911E+0	1.420139E+0	1.400729E+0	1.413361E+0	1.410665E+0	1.404158E+0	1.399950E+0	1.385555E+0	1.409612E+0	1.432106E+0	1.420054E+0	1.401538E+0	1.430165E+0	1.428221E+0	1.449606E+0	1.417630E+0	1.405147E+0	1.458517E+0	1.408301E+0	1.413900E+0	1.402533E+0	1.387832E+0	1.444526E+0	1.423094E+0	1.399045E+0	1.391618E+0	1.375979E+0	1.377259E+0	1.439877E+0	1.377359E+0	1.390216E+0	1.369128E+0	1.414492E+0	1.403024E+0	1.422543E+0	1.388032E+0	1.424162E+0	1.435441E+0	1.358648E+0	1.347961E+0	1.468947E+0	1.380840E+0	1.410105E+0	1.377378E+0	1.416001E+0	1.405106E+0	1.372403E+0	1.438068E+0	1.425755E+0	1.429478E+0	1.474214E+0	1.383212E+0	1.410914E+0	1.370990E+0	1.412863E+0	1.384988E+0	1.441671E+0	1.394921E+0	1.356929E+0	1.357742E+0	1.395926E+0	1.405130E+0	1.409376E+0	1.427899E+0	1.397549E+0	1.431019E+0	1.427624E+0	1.418901E+0	1.395049E+0	1.384297E+0	1.390228E+0	1.389220E+0	1.383555E+0	1.395056E+0	1.391366E+0	1.400102E+0	1.385343E+0	1.341535E+0	1.394506E+0	1.375886E+0	1.350098E+0	1.403666E+0	1.401363E+0	1.362169E+0	1.419065E+0	1.418878E+0	1.422166E+0	1.409123E+0	1.570975E+0
5.440120E+2	1.467705E+0	1.477877E+0	1.523692E+0	1.500428E+0	1.433176E+0	1.443657E+0	1.446209E+0	1.494464E+0	1.491268E+0	1.525379E+0	1.452266E+0	1.458458E+0	1.431830E+0	1.465426E+0	1.470220E+0	1.489781E+0	1.515334E+0	1.462833E+0	1.456881E+0	1.490311E+0	1.520246E+0	1.429416E+0	1.463421E+0	1.424781E+0	1.418915E+0	1.492390E+0	1.434079E+0	1.559562E+0	1.514148E+0	1.455650E+0	1.456999E+0	1.455337E+0	1.481133E+0	1.464068E+0	1.424435E+0	1.431378E+0	1.525118E+0	1.463446E+0	1.479493E+0	1.470272E+0	1.467953E+0	1.501802E+0	1.436665E+0	1.455995E+0	1.457780E+0	1.430313E+0	1.444652E+0	1.468316E+0	1.462440E+0	1.468755E+0	1.459839E+0	1.464777E+0	1.446361E+0	1.453379E+0	1.439769E+0	1.448228E+0	1.451152E+0	1.383719E+0	1.483774E+0	1.495548E+0	1.437417E+0	1.445704E+0	1.427206E+0	1.426041E+0	1.517515E+0	1.448319E+0	1.472457E+0	1.504299E+0	1.499887E+0	1.462057E+0	1.415966E+0	1.463713E+0	1.442928E+0	1.421368E+0	1.411174E+0	1.520615E+0	1.483552E+0	1.440067E+0	1.469010E+0	1.425264E+0	1.458935E+0	1.420507E+0	1.447613E+0	1.453376E+0	1.441761E+0	1.444716E+0	1.427287E+0	1.449458E+0	1.521799E+0	1.437785E+0	1.485168E+0	1.454662E+0	1.400948E+0	1.385128E+0	1.434305E+0	1.465867E+0	1.483124E+0	1.427268E+0	1.420678E+0	1.390927E+0	1.501670E+0	1.402127E+0	1.475742E+0	1.434732E+0	1.477436E+0	1.473035E+0	1.491997E+0	1.463998E+0	1.464043E+0	1.439588E+0	1.416913E+0	1.444422E+0	1.448730E+0	1.423466E+0	1.411135E+0	1.490702E+0	1.508324E+0	1.412445E+0	1.478623E+0	1.383815E+0	1.457929E+0	1.392662E+0	1.430053E+0	1.496675E+0	1.409484E+0	1.396941E+0	1.394867E+0	1.425672E+0	1.452655E+0	1.456875E+0	1.480954E+0	1.452846E+0	1.490628E+0	1.458390E+0	1.464286E+0	1.434872E+0	1.415316E+0	1.485711E+0	1.467072E+0	1.468593E+0	1.427360E+0	1.410566E+0	1.408133E+0	1.424258E+0	1.468273E+0	1.438761E+0	1.452015E+0	1.407209E+0	1.428585E+0	1.495643E+0	1.481388E+0	1.492113E+0	1.424343E+0	1.456178E+0	1.419465E+0	1.437910E+0	1.435522E+0	1.401741E+0	1.435259E+0	1.418620E+0	1.451348E+0	1.402636E+0	1.459535E+0	1.436400E+0	1.445791E+0	1.394872E+0	1.457517E+0	1.417986E+0	1.374774E+0	1.464604E+0	1.507121E+0	1.539959E+0
5.442700E+2	1.489635E+0	1.506248E+0	1.549399E+0	1.504418E+0	1.426247E+0	1.435898E+0	1.476111E+0	1.495050E+0	1.444189E+0	1.544989E+0	1.475781E+0	1.475200E+0	1.466386E+0	1.500993E+0	1.472203E+0	1.460707E+0	1.508749E+0	1.456405E+0	1.462893E+0	1.447755E+0	1.500233E+0	1.479992E+0	1.490252E+0	1.483706E+0	1.476479E+0	1.441675E+0	1.491258E+0	1.463695E+0	1.503279E+0	1.469319E+0	1.487566E+0	1.389832E+0	1.536713E+0	1.501795E+0	1.484048E+0	1.547300E+0	1.450802E+0	1.448724E+0	1.438649E+0	1.411232E+0	1.469559E+0	1.485641E+0	1.518883E+0	1.487187E+0	1.500678E+0	1.468608E+0	1.491701E+0	1.511595E+0	1.492585E+0	1.510935E+0	1.506602E+0	1.469473E+0	1.450462E+0	1.414710E+0	1.469297E+0	1.471492E+0	1.472910E+0	1.437264E+0	1.521265E+0	1.484442E+0	1.455750E+0	1.411411E+0	1.423290E+0	1.465381E+0	1.434660E+0	1.432554E+0	1.543841E+0	1.464477E+0	1.518086E+0	1.458384E+0	1.431536E+0	1.494589E+0	1.467442E+0	1.423866E+0	1.474525E+0	1.495629E+0	1.503267E+0	1.429096E+0	1.426088E+0	1.472933E+0	1.480053E+0	1.436097E+0	1.431853E+0	1.479689E+0	1.475841E+0	1.467148E+0	1.480716E+0	1.492591E+0	1.498085E+0	1.431412E+0	1.469031E+0	1.496584E+0	1.467504E+0	1.455433E+0	1.524673E+0	1.501751E+0	1.463403E+0	1.431727E+0	1.465870E+0	1.444906E+0	1.456783E+0	1.439474E+0	1.512652E+0	1.436275E+0	1.473801E+0	1.437142E+0	1.507978E+0	1.473347E+0	1.489877E+0	1.475930E+0	1.426966E+0	1.459906E+0	1.469585E+0	1.459707E+0	1.446979E+0	1.467301E+0	1.483699E+0	1.470920E+0	1.487699E+0	1.480628E+0	1.461734E+0	1.437243E+0	1.426784E+0	1.469448E+0	1.445252E+0	1.459679E+0	1.479711E+0	1.426795E+0	1.445736E+0	1.461891E+0	1.495167E+0	1.522853E+0	1.440158E+0	1.492512E+0	1.493792E+0	1.443959E+0	1.408474E+0	1.449937E+0	1.485882E+0	1.513006E+0	1.420218E+0	1.406611E+0	1.414472E+0	1.458694E+0	1.447363E+0	1.455592E+0	1.436487E+0	1.434341E+0	1.491317E+0	1.451218E+0	1.512764E+0	1.440654E+0	1.495860E+0	1.470093E+0	1.487715E+0	1.433917E+0	1.437647E+0	1.413937E+0	1.431098E+0	1.477600E+0	1.459039E+0	1.473984E+0	1.422132E+0	1.432215E+0	1.518468E+0	1.441754E+0	1.497828E+0	1.457625E+0	1.363001E+0	1.493422E+0	1.490516E+0	1.444184E+0
5.445240E+2	1.477488E+0	1.512837E+0	1.548117E+0	1.429347E+0	1.434957E+0	1.457443E+0	1.448498E+0	1.458727E+0	1.453081E+0	1.506620E+0	1.433543E+0	1.484927E+0	1.434574E+0	1.495605E+0	1.461461E+0	1.455238E+0	1.454497E+0	1.459874E+0	1.492299E+0	1.422511E+0	1.454201E+0	1.434953E+0	1.485516E+0	1.509922E+0	1.441945E+0	1.444601E+0	1.469398E+0	1.462038E+0	1.438450E+0	1.392664E+0	1.429934E+0	1.485773E+0	1.505415E+0	1.464439E+0	1.467031E+0	1.462102E+0	1.484520E+0	1.447357E+0	1.495638E+0	1.415259E+0	1.442605E+0	1.435037E+0	1.458854E+0	1.437265E+0	1.473174E+0	1.494839E+0	1.510478E+0	1.495250E+0	1.484564E+0	1.450373E+0	1.500611E+0	1.485298E+0	1.452001E+0	1.476687E+0	1.446326E+0	1.470094E+0	1.453048E+0	1.453662E+0	1.497457E+0	1.533403E+0	1.440313E+0	1.428256E+0	1.469457E+0	1.447013E+0	1.490016E+0	1.392225E+0	1.432362E+0	1.480618E+0	1.485746E+0	1.471730E+0	1.488249E+0	1.431815E+0	1.392213E+0	1.490912E+0	1.473142E+0	1.486541E+0	1.444565E+0	1.415155E+0	1.481959E+0	1.412448E+0	1.492714E+0	1.452715E+0	1.495018E+0	1.459413E+0	1.492445E+0	1.507626E+0	1.461242E+0	1.466963E+0	1.462487E+0	1.415837E+0	1.501352E+0	1.464559E+0	1.507366E+0	1.384673E+0	1.458803E+0	1.414284E+0	1.442047E+0	1.411031E+0	1.443080E+0	1.384273E+0	1.487991E+0	1.418117E+0	1.443746E+0	1.468465E+0	1.444184E+0	1.456098E+0	1.475018E+0	1.447469E+0	1.451042E+0	1.395187E+0	1.486877E+0	1.443737E+0	1.483470E+0	1.501637E+0	1.490782E+0	1.525194E+0	1.437614E+0	1.423442E+0	1.469736E+0	1.443976E+0	1.418226E+0	1.429009E+0	1.455504E+0	1.479430E+0	1.419253E+0	1.417935E+0	1.485269E+0	1.494329E+0	1.464292E+0	1.360611E+0	1.433588E+0	1.457073E+0	1.430304E+0	1.435952E+0	1.414736E+0	1.423121E+0	1.463197E+0	1.441371E+0	1.436501E+0	1.463613E+0	1.413433E+0	1.457200E+0	1.444320E+0	1.484961E+0	1.436611E+0	1.406861E+0	1.495206E+0	1.444375E+0	1.503745E+0	1.446615E+0	1.515857E+0	1.455605E+0	1.452058E+0	1.459470E+0	1.499843E+0	1.431439E+0	1.438948E+0	1.405310E+0	1.461021E+0	1.500155E+0	1.399139E+0	1.388711E+0	1.456398E+0	1.373757E+0	1.420338E+0	1.434060E+0	1.410036E+0	1.473584E+0	1.420998E+0	1.418747E+0	1.440818E+0	1.411483E+0
5.447720E+2	1.439107E+0	1.459682E+0	1.461790E+0	1.431804E+0	1.425038E+0	1.441290E+0	1.411367E+0	1.445115E+0	1.394795E+0	1.451238E+0	1.409273E+0	1.456849E+0	1.402163E+0	1.392932E+0	1.447459E+0	1.430110E+0	1.446303E+0	1.357032E+0	1.419604E+0	1.454104E+0	1.446002E+0	1.444557E+0	1.434659E+0	1.439765E+0	1.446949E+0	1.455981E+0	1.442218E+0	1.412123E+0	1.431585E+0	1.464201E+0	1.396098E+0	1.424980E+0	1.433642E+0	1.428216E+0	1.370804E+0	1.369346E+0	1.452282E+0	1.465366E+0	1.412408E+0	1.427368E+0	1.425531E+0	1.376744E+0	1.385371E+0	1.401754E+0	1.432582E+0	1.431238E+0	1.453218E+0	1.472024E+0	1.425663E+0	1.443544E+0	1.457666E+0	1.422589E+0	1.401269E+0	1.450008E+0	1.440497E+0	1.420366E+0	1.437112E+0	1.449163E+0	1.465708E+0	1.458336E+0	1.401980E+0	1.373639E+0	1.436262E+0	1.413754E+0	1.403800E+0	1.384247E+0	1.432340E+0	1.500106E+0	1.442864E+0	1.455705E+0	1.435921E+0	1.397882E+0	1.379207E+0	1.449427E+0	1.420662E+0	1.468884E+0	1.371443E+0	1.373872E+0	1.423197E+0	1.409868E+0	1.462452E+0	1.417077E+0	1.432109E+0	1.432484E+0	1.429745E+0	1.421537E+0	1.392480E+0	1.402490E+0	1.476229E+0	1.383503E+0	1.439488E+0	1.435474E+0	1.458665E+0	1.411409E+0	1.480581E+0	1.424711E+0	1.409045E+0	1.390778E+0	1.439036E+0	1.436076E+0	1.451784E+0	1.384891E+0	1.445899E+0	1.446141E+0	1.352391E+0	1.435256E+0	1.449427E+0	1.434093E+0	1.418899E+0	1.370437E+0	1.427061E+0	1.389866E+0	1.412133E+0	1.477413E+0	1.415333E+0	1.424996E+0	1.427374E+0	1.411936E+0	1.423313E+0	1.477554E+0	1.388884E+0	1.419933E+0	1.451282E+0	1.455290E+0	1.405072E+0	1.466674E+0	1.429431E+0	1.447284E+0	1.499689E+0	1.433094E+0	1.445034E+0	1.433586E+0	1.448006E+0	1.415905E+0	1.490506E+0	1.420187E+0	1.360558E+0	1.429192E+0	1.378010E+0	1.415537E+0	1.454686E+0	1.413092E+0	1.404133E+0	1.426872E+0	1.373045E+0	1.396536E+0	1.377722E+0	1.401384E+0	1.466130E+0	1.433893E+0	1.435276E+0	1.444080E+0	1.445593E+0	1.427647E+0	1.408057E+0	1.438735E+0	1.385421E+0	1.391329E+0	1.386499E+0	1.440546E+0	1.435626E+0	1.477241E+0	1.422326E+0	1.383207E+0	1.454877E+0	1.435442E+0	1.415984E+0	1.399351E+0	1.377383E+0	1.461983E+0	1.445632E+0	1.515150E+0
5.450200E+2	1.376785E+0	1.395104E+0	1.394207E+0	1.359753E+0	1.366727E+0	1.359797E+0	1.351617E+0	1.380528E+0	1.336467E+0	1.455833E+0	1.365061E+0	1.397388E+0	1.364060E+0	1.353167E+0	1.369404E+0	1.384157E+0	1.336329E+0	1.400576E+0	1.372418E+0	1.368797E+0	1.369125E+0	1.335206E+0	1.385908E+0	1.436468E+0	1.316820E+0	1.374516E+0	1.396895E+0	1.397371E+0	1.409237E+0	1.426612E+0	1.338657E+0	1.340191E+0	1.378052E+0	1.367625E+0	1.357475E+0	1.386108E+0	1.362242E+0	1.346482E+0	1.384078E+0	1.350055E+0	1.335508E+0	1.336922E+0	1.361678E+0	1.338050E+0	1.357806E+0	1.382706E+0	1.386678E+0	1.342458E+0	1.370869E+0	1.362195E+0	1.357697E+0	1.332564E+0	1.325035E+0	1.384239E+0	1.341962E+0	1.351934E+0	1.330266E+0	1.397662E+0	1.388055E+0	1.382869E+0	1.344921E+0	1.347376E+0	1.339742E+0	1.330192E+0	1.416745E+0	1.304504E+0	1.366408E+0	1.348248E+0	1.378669E+0	1.362043E+0	1.332920E+0	1.348917E+0	1.313958E+0	1.411279E+0	1.332572E+0	1.382411E+0	1.350894E+0	1.351139E+0	1.333862E+0	1.338058E+0	1.378151E+0	1.349460E+0	1.412025E+0	1.385021E+0	1.304916E+0	1.341310E+0	1.395851E+0	1.369576E+0	1.347269E+0	1.357887E+0	1.380701E+0	1.310624E+0	1.327770E+0	1.329638E+0	1.376787E+0	1.339013E+0	1.427653E+0	1.390638E+0	1.357366E+0	1.348250E+0	1.339649E+0	1.354527E+0	1.401976E+0	1.337627E+0	1.359411E+0	1.354933E+0	1.359668E+0	1.322365E+0	1.316476E+0	1.340744E+0	1.343766E+0	1.310924E+0	1.367008E+0	1.332949E+0	1.348682E+0	1.370426E+0	1.350653E+0	1.384610E+0	1.404778E+0	1.403801E+0	1.378217E+0	1.389954E+0	1.413542E+0	1.366703E+0	1.374779E+0	1.332033E+0	1.355977E+0	1.360257E+0	1.418025E+0	1.331346E+0	1.382762E+0	1.378658E+0	1.376942E+0	1.358589E+0	1.368915E+0	1.385395E+0	1.359444E+0	1.381219E+0	1.368569E+0	1.325465E+0	1.385823E+0	1.389642E+0	1.276843E+0	1.365334E+0	1.393934E+0	1.391427E+0	1.323629E+0	1.359183E+0	1.428609E+0	1.383203E+0	1.382258E+0	1.365293E+0	1.358872E+0	1.356459E+0	1.328471E+0	1.419737E+0	1.357303E+0	1.338801E+0	1.345114E+0	1.385709E+0	1.366757E+0	1.326757E+0	1.335368E+0	1.381119E+0	1.342873E+0	1.304934E+0	1.347463E+0	1.337243E+0	1.328054E+0	1.345015E+0	1.310859E+0	1.388875E+0
5.452690E+2	1.323730E+0	1.296996E+0	1.316685E+0	1.260950E+0	1.228302E+0	1.314292E+0	1.262128E+0	1.280575E+0	1.285397E+0	1.324652E+0	1.297939E+0	1.343217E+0	1.319528E+0	1.316687E+0	1.296343E+0	1.280838E+0	1.281681E+0	1.301280E+0	1.290861E+0	1.296504E+0	1.289421E+0	1.282817E+0	1.330016E+0	1.301093E+0	1.273235E+0	1.309581E+0	1.347362E+0	1.280538E+0	1.292003E+0	1.273773E+0	1.299772E+0	1.302736E+0	1.289610E+0	1.326898E+0	1.274011E+0	1.283851E+0	1.302101E+0	1.362082E+0	1.284933E+0	1.236266E+0	1.289021E+0	1.288114E+0	1.293098E+0	1.319578E+0	1.258927E+0	1.283047E+0	1.321310E+0	1.324370E+0	1.297037E+0	1.301969E+0	1.369960E+0	1.291985E+0	1.301105E+0	1.303523E+0	1.309190E+0	1.345515E+0	1.240121E+0	1.313733E+0	1.289849E+0	1.337684E+0	1.277136E+0	1.274907E+0	1.242580E+0	1.303866E+0	1.345734E+0	1.270468E+0	1.277831E+0	1.296949E+0	1.385923E+0	1.320378E+0	1.305582E+0	1.362097E+0	1.269383E+0	1.289548E+0	1.302593E+0	1.335636E+0	1.282550E+0	1.248889E+0	1.269426E+0	1.302672E+0	1.295880E+0	1.293829E+0	1.269741E+0	1.293048E+0	1.320343E+0	1.269566E+0	1.322118E+0	1.320895E+0	1.307341E+0	1.362356E+0	1.334897E+0	1.300247E+0	1.305590E+0	1.234017E+0	1.314589E+0	1.354760E+0	1.303476E+0	1.281467E+0	1.276132E+0	1.321819E+0	1.291911E+0	1.312382E+0	1.349450E+0	1.268310E+0	1.258254E+0	1.273644E+0	1.333616E+0	1.304033E+0	1.318779E+0	1.293760E+0	1.277678E+0	1.246240E+0	1.335327E+0	1.312927E+0	1.278542E+0	1.296173E+0	1.301504E+0	1.329587E+0	1.280976E+0	1.262424E+0	1.274758E+0	1.280751E+0	1.308062E+0	1.313155E+0	1.273199E+0	1.287254E+0	1.306827E+0	1.277506E+0	1.329762E+0	1.314589E+0	1.312388E+0	1.325393E+0	1.278250E+0	1.312337E+0	1.325401E+0	1.296864E+0	1.307911E+0	1.326978E+0	1.313531E+0	1.307886E+0	1.321391E+0	1.258962E+0	1.307729E+0	1.308839E+0	1.319889E+0	1.277573E+0	1.284030E+0	1.255506E+0	1.319252E+0	1.299528E+0	1.249997E+0	1.356428E+0	1.265386E+0	1.273084E+0	1.311529E+0	1.325415E+0	1.265048E+0	1.288288E+0	1.276999E+0	1.260250E+0	1.284351E+0	1.288295E+0	1.309249E+0	1.266825E+0	1.299809E+0	1.308164E+0	1.340678E+0	1.307739E+0	1.200744E+0	1.292405E+0	1.369853E+0	1.324396E+0
5.455340E+2	1.227812E+0	1.261290E+0	1.227815E+0	1.241366E+0	1.158188E+0	1.218558E+0	1.204839E+0	1.200841E+0	1.190764E+0	1.214711E+0	1.206168E+0	1.233911E+0	1.272441E+0	1.238809E+0	1.219459E+0	1.237357E+0	1.232510E+0	1.167824E+0	1.201989E+0	1.216134E+0	1.252150E+0	1.228274E+0	1.239216E+0	1.240512E+0	1.221849E+0	1.210110E+0	1.250607E+0	1.250982E+0	1.225831E+0	1.208328E+0	1.191037E+0	1.247597E+0	1.232220E+0	1.187474E+0	1.226932E+0	1.208721E+0	1.240583E+0	1.244172E+0	1.251097E+0	1.183055E+0	1.207269E+0	1.254985E+0	1.291726E+0	1.207401E+0	1.221014E+0	1.234011E+0	1.282771E+0	1.229397E+0	1.203508E+0	1.212800E+0	1.290792E+0	1.227433E+0	1.130180E+0	1.234518E+0	1.179244E+0	1.264462E+0	1.211180E+0	1.220390E+0	1.215811E+0	1.287191E+0	1.164712E+0	1.174224E+0	1.262853E+0	1.202208E+0	1.240213E+0	1.180034E+0	1.205585E+0	1.261489E+0	1.252982E+0	1.211780E+0	1.234507E+0	1.237654E+0	1.174319E+0	1.246983E+0	1.222812E+0	1.242451E+0	1.169898E+0	1.220349E+0	1.195790E+0	1.213648E+0	1.253611E+0	1.202957E+0	1.208612E+0	1.182187E+0	1.191381E+0	1.286328E+0	1.248833E+0	1.198809E+0	1.231176E+0	1.236937E+0	1.247354E+0	1.230281E+0	1.217779E+0	1.181598E+0	1.180640E+0	1.200495E+0	1.272090E+0	1.227084E+0	1.211418E+0	1.207454E+0	1.264075E+0	1.237299E+0	1.269060E+0	1.276703E+0	1.190168E+0	1.227672E+0	1.249595E+0	1.222132E+0	1.216925E+0	1.186755E+0	1.220764E+0	1.225609E+0	1.206214E+0	1.240041E+0	1.250360E+0	1.268450E+0	1.227452E+0	1.204784E+0	1.257581E+0	1.225803E+0	1.218743E+0	1.210950E+0	1.216671E+0	1.264330E+0	1.200856E+0	1.244151E+0	1.251224E+0	1.209326E+0	1.232916E+0	1.250614E+0	1.266899E+0	1.217896E+0	1.189685E+0	1.250397E+0	1.209500E+0	1.211810E+0	1.198109E+0	1.223079E+0	1.247281E+0	1.234651E+0	1.202215E+0	1.261502E+0	1.186977E+0	1.211951E+0	1.251558E+0	1.229164E+0	1.243975E+0	1.177747E+0	1.235573E+0	1.203864E+0	1.224940E+0	1.219124E+0	1.157703E+0	1.239794E+0	1.226042E+0	1.178023E+0	1.215046E+0	1.198313E+0	1.213733E+0	1.265424E+0	1.213025E+0	1.175642E+0	1.201132E+0	1.242813E+0	1.208009E+0	1.201039E+0	1.259774E+0	1.199924E+0	1.167903E+0	1.185112E+0	1.262433E+0	1.217808E+0
5.457720E+2	1.136233E+0	1.204444E+0	1.167909E+0	1.192004E+0	1.148313E+0	1.148174E+0	1.247278E+0	1.191299E+0	1.200118E+0	1.238995E+0	1.193529E+0	1.181922E+0	1.178874E+0	1.165439E+0	1.199204E+0	1.156414E+0	1.152297E+0	1.163750E+0	1.214139E+0	1.136909E+0	1.193717E+0	1.157634E+0	1.178162E+0	1.189264E+0	1.109478E+0	1.154013E+0	1.173297E+0	1.175824E+0	1.202830E+0	1.200194E+0	1.173416E+0	1.193453E+0	1.226010E+0	1.197447E+0	1.172031E+0	1.106929E+0	1.214280E+0	1.217313E+0	1.185691E+0	1.179781E+0	1.155001E+0	1.158447E+0	1.149441E+0	1.160610E+0	1.166537E+0	1.139106E+0	1.166650E+0	1.181782E+0	1.162370E+0	1.152743E+0	1.184974E+0	1.181775E+0	1.181923E+0	1.199679E+0	1.172631E+0	1.219590E+0	1.136250E+0	1.185088E+0	1.202978E+0	1.196950E+0	1.169604E+0	1.172465E+0	1.226111E+0	1.177257E+0	1.142514E+0	1.145342E+0	1.182968E+0	1.184505E+0	1.173505E+0	1.196941E+0	1.178327E+0	1.216964E+0	1.132017E+0	1.143441E+0	1.182513E+0	1.174432E+0	1.191701E+0	1.129685E+0	1.150201E+0	1.196164E+0	1.160289E+0	1.164020E+0	1.175931E+0	1.130672E+0	1.185003E+0	1.175114E+0	1.177019E+0	1.183361E+0	1.209744E+0	1.209894E+0	1.173795E+0	1.190680E+0	1.235740E+0	1.097987E+0	1.166005E+0	1.170958E+0	1.184217E+0	1.221115E+0	1.171850E+0	1.164366E+0	1.210529E+0	1.172018E+0	1.228210E+0	1.179815E+0	1.135115E+0	1.157509E+0	1.148898E+0	1.214446E+0	1.149961E+0	1.156507E+0	1.131843E+0	1.176255E+0	1.203438E+0	1.163825E+0	1.188290E+0	1.172102E+0	1.194737E+0	1.190649E+0	1.222444E+0	1.197839E+0	1.151005E+0	1.155246E+0	1.143122E+0	1.176623E+0	1.178614E+0	1.161153E+0	1.192247E+0	1.133918E+0	1.201707E+0	1.155049E+0	1.128338E+0	1.200170E+0	1.164374E+0	1.180804E+0	1.207300E+0	1.203564E+0	1.203917E+0	1.159574E+0	1.167648E+0	1.089913E+0	1.157183E+0	1.171552E+0	1.133773E+0	1.193841E+0	1.147484E+0	1.188404E+0	1.157566E+0	1.188743E+0	1.208204E+0	1.205152E+0	1.236296E+0	1.225944E+0	1.176366E+0	1.192680E+0	1.216957E+0	1.184131E+0	1.174608E+0	1.143826E+0	1.132409E+0	1.144629E+0	1.190534E+0	1.216240E+0	1.179363E+0	1.170225E+0	1.199819E+0	1.135902E+0	1.154202E+0	1.201054E+0	1.111006E+0	1.200755E+0	1.166388E+0	1.221942E+0
5.460160E+2	1.145215E+0	1.158018E+0	1.161851E+0	1.134333E+0	1.143391E+0	1.156395E+0	1.172878E+0	1.117354E+0	1.160928E+0	1.164764E+0	1.130686E+0	1.144463E+0	1.136432E+0	1.168766E+0	1.159263E+0	1.120303E+0	1.149327E+0	1.142446E+0	1.103456E+0	1.091544E+0	1.148823E+0	1.098772E+0	1.174255E+0	1.153578E+0	1.150257E+0	1.112922E+0	1.154264E+0	1.130824E+0	1.148203E+0	1.148839E+0	1.114895E+0	1.150920E+0	1.151699E+0	1.119152E+0	1.168936E+0	1.130640E+0	1.157943E+0	1.125781E+0	1.151775E+0	1.111581E+0	1.101810E+0	1.139346E+0	1.149822E+0	1.110711E+0	1.162052E+0	1.170574E+0	1.151199E+0	1.104026E+0	1.119513E+0	1.111211E+0	1.174799E+0	1.150530E+0	1.114639E+0	1.135970E+0	1.110728E+0	1.151329E+0	1.133917E+0	1.190376E+0	1.180405E+0	1.175922E+0	1.121905E+0	1.142466E+0	1.097928E+0	1.145300E+0	1.090905E+0	1.036211E+0	1.124376E+0	1.142588E+0	1.117949E+0	1.134175E+0	1.148894E+0	1.158231E+0	1.133269E+0	1.150066E+0	1.129663E+0	1.168696E+0	1.125715E+0	1.133499E+0	1.107425E+0	1.116318E+0	1.183008E+0	1.132386E+0	1.125563E+0	1.084085E+0	1.114777E+0	1.183696E+0	1.189131E+0	1.111137E+0	1.177938E+0	1.112332E+0	1.120369E+0	1.136520E+0	1.108547E+0	1.102970E+0	1.152308E+0	1.116973E+0	1.165733E+0	1.110492E+0	1.137292E+0	1.124813E+0	1.124472E+0	1.117606E+0	1.179033E+0	1.175183E+0	1.179120E+0	1.139280E+0	1.196285E+0	1.143948E+0	1.149850E+0	1.157055E+0	1.129301E+0	1.161419E+0	1.186524E+0	1.198869E+0	1.133789E+0	1.132030E+0	1.149144E+0	1.164274E+0	1.109863E+0	1.161240E+0	1.151030E+0	1.148708E+0	1.137953E+0	1.134396E+0	1.119034E+0	1.117460E+0	1.193672E+0	1.128373E+0	1.147660E+0	1.151024E+0	1.156560E+0	1.171229E+0	1.118499E+0	1.195258E+0	1.130572E+0	1.082173E+0	1.117507E+0	1.125115E+0	1.205175E+0	1.127243E+0	1.202436E+0	1.156245E+0	1.109704E+0	1.175901E+0	1.150351E+0	1.124908E+0	1.136426E+0	1.135147E+0	1.169733E+0	1.156549E+0	1.150663E+0	1.151031E+0	1.127016E+0	1.177659E+0	1.133097E+0	1.176393E+0	1.150989E+0	1.095664E+0	1.158675E+0	1.127866E+0	1.125096E+0	1.079770E+0	1.203731E+0	1.138230E+0	1.135238E+0	1.184824E+0	1.170581E+0	1.130083E+0	1.079751E+0	1.169164E+0	1.140873E+0	1.137552E+0
5.467660E+2	1.165142E+0	1.175210E+0	1.179621E+0	1.173655E+0	1.188973E+0	1.154728E+0	1.174836E+0	1.227481E+0	1.183190E+0	1.230173E+0	1.229481E+0	1.244956E+0	1.175316E+0	1.142394E+0	1.156564E+0	1.181598E+0	1.161996E+0	1.194026E+0	1.165120E+0	1.186341E+0	1.182610E+0	1.142457E+0	1.177495E+0	1.170302E+0	1.113871E+0	1.152255E+0	1.212763E+0	1.227613E+0	1.213310E+0	1.166792E+0	1.194054E+0	1.220352E+0	1.208834E+0	1.221089E+0	1.176572E+0	1.208939E+0	1.166197E+0	1.160870E+0	1.242626E+0	1.169326E+0	1.160181E+0	1.181672E+0	1.210169E+0	1.171706E+0	1.159520E+0	1.206127E+0	1.205003E+0	1.210211E+0	1.139367E+0	1.173529E+0	1.203858E+0	1.210994E+0	1.159039E+0	1.175982E+0	1.146275E+0	1.198997E+0	1.202943E+0	1.166575E+0	1.165299E+0	1.189602E+0	1.149310E+0	1.136574E+0	1.205376E+0	1.147957E+0	1.192673E+0	1.118999E+0	1.198222E+0	1.191186E+0	1.184488E+0	1.158502E+0	1.213040E+0	1.179331E+0	1.153362E+0	1.196145E+0	1.148413E+0	1.198324E+0	1.209899E+0	1.203121E+0	1.129513E+0	1.202588E+0	1.187897E+0	1.179317E+0	1.209373E+0	1.172862E+0	1.221856E+0	1.206227E+0	1.140564E+0	1.152462E+0	1.219641E+0	1.166280E+0	1.166632E+0	1.253415E+0	1.211872E+0	1.120710E+0	1.225849E+0	1.219479E+0	1.189720E+0	1.215277E+0	1.181734E+0	1.148455E+0	1.177739E+0	1.191192E+0	1.183041E+0	1.171890E+0	1.216040E+0	1.193996E+0	1.195373E+0	1.144899E+0	1.147718E+0	1.160082E+0	1.176537E+0	1.207636E+0	1.200110E+0	1.197237E+0	1.125703E+0	1.203659E+0	1.183697E+0	1.124086E+0	1.187365E+0	1.199357E+0	1.205187E+0	1.239739E+0	1.199580E+0	1.127890E+0	1.146669E+0	1.205056E+0	1.177608E+0	1.183136E+0	1.160086E+0	1.202725E+0	1.178879E+0	1.194229E+0	1.167542E+0	1.196281E+0	1.252319E+0	1.168816E+0	1.184068E+0	1.217870E+0	1.180715E+0	1.230036E+0	1.211406E+0	1.143591E+0	1.141681E+0	1.188003E+0	1.159893E+0	1.158456E+0	1.206009E+0	1.163944E+0	1.218487E+0	1.172918E+0	1.225238E+0	1.187096E+0	1.195354E+0	1.187828E+0	1.179792E+0	1.154666E+0	1.192057E+0	1.166070E+0	1.159849E+0	1.201834E+0	1.221676E+0	1.188229E+0	1.183088E+0	1.186735E+0	1.199926E+0	1.194814E+0	1.223536E+0	1.164216E+0	1.189379E+0	1.145548E+0	1.181748E+0	1.192087E+0
5.475070E+2	1.308555E+0	1.355383E+0	1.311151E+0	1.278682E+0	1.261474E+0	1.295311E+0	1.380514E+0	1.308173E+0	1.292281E+0	1.325780E+0	1.296999E+0	1.290250E+0	1.335056E+0	1.286288E+0	1.332230E+0	1.305720E+0	1.321222E+0	1.300332E+0	1.285828E+0	1.366416E+0	1.274607E+0	1.318175E+0	1.287040E+0	1.318559E+0	1.310749E+0	1.340276E+0	1.312718E+0	1.332330E+0	1.345725E+0	1.320803E+0	1.317911E+0	1.367800E+0	1.364756E+0	1.358344E+0	1.296008E+0	1.286226E+0	1.342391E+0	1.302630E+0	1.329552E+0	1.314727E+0	1.336301E+0	1.247306E+0	1.311454E+0	1.277547E+0	1.308315E+0	1.334546E+0	1.344344E+0	1.284057E+0	1.326781E+0	1.273539E+0	1.347958E+0	1.352918E+0	1.236845E+0	1.345825E+0	1.328981E+0	1.320641E+0	1.299126E+0	1.305038E+0	1.342228E+0	1.298084E+0	1.295471E+0	1.305713E+0	1.298249E+0	1.292346E+0	1.315894E+0	1.269228E+0	1.280321E+0	1.306325E+0	1.349068E+0	1.317533E+0	1.342837E+0	1.297562E+0	1.297246E+0	1.281902E+0	1.334993E+0	1.331489E+0	1.292393E+0	1.342095E+0	1.276931E+0	1.296248E+0	1.288319E+0	1.269663E+0	1.343098E+0	1.275141E+0	1.266614E+0	1.303311E+0	1.319664E+0	1.335521E+0	1.335746E+0	1.311095E+0	1.333069E+0	1.280799E+0	1.338226E+0	1.256277E+0	1.316709E+0	1.326422E+0	1.303079E+0	1.248660E+0	1.319597E+0	1.282635E+0	1.352530E+0	1.333235E+0	1.346644E+0	1.334688E+0	1.298214E+0	1.263640E+0	1.346679E+0	1.262048E+0	1.302859E+0	1.293325E+0	1.314612E+0	1.339292E+0	1.258865E+0	1.352213E+0	1.275702E+0	1.304002E+0	1.344349E+0	1.292162E+0	1.314111E+0	1.326070E+0	1.314570E+0	1.299021E+0	1.360904E+0	1.334868E+0	1.272160E+0	1.313250E+0	1.311001E+0	1.315986E+0	1.271524E+0	1.296466E+0	1.319392E+0	1.343031E+0	1.292581E+0	1.363847E+0	1.337155E+0	1.319353E+0	1.226161E+0	1.336531E+0	1.246428E+0	1.312862E+0	1.318600E+0	1.267816E+0	1.266323E+0	1.338375E+0	1.291508E+0	1.324345E+0	1.349553E+0	1.354703E+0	1.275533E+0	1.339102E+0	1.308181E+0	1.330076E+0	1.293048E+0	1.255489E+0	1.257066E+0	1.296608E+0	1.293695E+0	1.297933E+0	1.315080E+0	1.319054E+0	1.264182E+0	1.280657E+0	1.231745E+0	1.260232E+0	1.320086E+0	1.360100E+0	1.337648E+0	1.366681E+0	1.304634E+0	1.349736E+0	1.283390E+0	1.438681E+0
5.482600E+2	1.381977E+0	1.415856E+0	1.376384E+0	1.373329E+0	1.328408E+0	1.387539E+0	1.397941E+0	1.418721E+0	1.361853E+0	1.442590E+0	1.378327E+0	1.461434E+0	1.373490E+0	1.364564E+0	1.406180E+0	1.363208E+0	1.297745E+0	1.379730E+0	1.391334E+0	1.333518E+0	1.352538E+0	1.377942E+0	1.428059E+0	1.355798E+0	1.386586E+0	1.451465E+0	1.383599E+0	1.380909E+0	1.419479E+0	1.393570E+0	1.354521E+0	1.370250E+0	1.373830E+0	1.398567E+0	1.368948E+0	1.360731E+0	1.370328E+0	1.371802E+0	1.424563E+0	1.379896E+0	1.376317E+0	1.378035E+0	1.355395E+0	1.375609E+0	1.369689E+0	1.402327E+0	1.421346E+0	1.420879E+0	1.447130E+0	1.357939E+0	1.380167E+0	1.364752E+0	1.380516E+0	1.387806E+0	1.422346E+0	1.441849E+0	1.400131E+0	1.385828E+0	1.434462E+0	1.382384E+0	1.390984E+0	1.364632E+0	1.352245E+0	1.356543E+0	1.395827E+0	1.353289E+0	1.399891E+0	1.370384E+0	1.372875E+0	1.341990E+0	1.352410E+0	1.343434E+0	1.378676E+0	1.348720E+0	1.388142E+0	1.355263E+0	1.387335E+0	1.365569E+0	1.424996E+0	1.408075E+0	1.388420E+0	1.362508E+0	1.367414E+0	1.369300E+0	1.345763E+0	1.396149E+0	1.403553E+0	1.403857E+0	1.374743E+0	1.335156E+0	1.415674E+0	1.403757E+0	1.393284E+0	1.288610E+0	1.355949E+0	1.367511E+0	1.406773E+0	1.389806E+0	1.377329E+0	1.343223E+0	1.387508E+0	1.317727E+0	1.441684E+0	1.396600E+0	1.327427E+0	1.366130E+0	1.416556E+0	1.366699E+0	1.377992E+0	1.352069E+0	1.331378E+0	1.393005E+0	1.373525E+0	1.383465E+0	1.397527E+0	1.333293E+0	1.361882E+0	1.379359E+0	1.400170E+0	1.386878E+0	1.345760E+0	1.333405E+0	1.364545E+0	1.355910E+0	1.350105E+0	1.363038E+0	1.372522E+0	1.311998E+0	1.429296E+0	1.390838E+0	1.343732E+0	1.335407E+0	1.352894E+0	1.390549E+0	1.399529E+0	1.400871E+0	1.326091E+0	1.334175E+0	1.373467E+0	1.333506E+0	1.388261E+0	1.335958E+0	1.335001E+0	1.393591E+0	1.397837E+0	1.345956E+0	1.397059E+0	1.375030E+0	1.404893E+0	1.402572E+0	1.438028E+0	1.422328E+0	1.357597E+0	1.379765E+0	1.360732E+0	1.396634E+0	1.399527E+0	1.331608E+0	1.337875E+0	1.323680E+0	1.363845E+0	1.422209E+0	1.313481E+0	1.387592E+0	1.406783E+0	1.411449E+0	1.380945E+0	1.339765E+0	1.337333E+0	1.346993E+0	1.435847E+0	1.357852E+0
5.490320E+2	1.356973E+0	1.391219E+0	1.342672E+0	1.376290E+0	1.357509E+0	1.370456E+0	1.410568E+0	1.356412E+0	1.363667E+0	1.330201E+0	1.424359E+0	1.384831E+0	1.399861E+0	1.413161E+0	1.375651E+0	1.343501E+0	1.362639E+0	1.367017E+0	1.392693E+0	1.321433E+0	1.380681E+0	1.312952E+0	1.379497E+0	1.355017E+0	1.309133E+0	1.383015E+0	1.366392E+0	1.315257E+0	1.375286E+0	1.337030E+0	1.302588E+0	1.360136E+0	1.398505E+0	1.351931E+0	1.329069E+0	1.312856E+0	1.404122E+0	1.383620E+0	1.366540E+0	1.317103E+0	1.337454E+0	1.380013E+0	1.378091E+0	1.335461E+0	1.370686E+0	1.399577E+0	1.386238E+0	1.348230E+0	1.358410E+0	1.346586E+0	1.312910E+0	1.338272E+0	1.320250E+0	1.338235E+0	1.366581E+0	1.400119E+0	1.304826E+0	1.399384E+0	1.385074E+0	1.351699E+0	1.327531E+0	1.359108E+0	1.382603E+0	1.317319E+0	1.417718E+0	1.317098E+0	1.386607E+0	1.334083E+0	1.347190E+0	1.345636E+0	1.367684E+0	1.371111E+0	1.276533E+0	1.347614E+0	1.320532E+0	1.360043E+0	1.363326E+0	1.391497E+0	1.363557E+0	1.381298E+0	1.347146E+0	1.321880E+0	1.352555E+0	1.361840E+0	1.415750E+0	1.391962E+0	1.414800E+0	1.379885E+0	1.359376E+0	1.374293E+0	1.368515E+0	1.335806E+0	1.368281E+0	1.324323E+0	1.343339E+0	1.382080E+0	1.368926E+0	1.338144E+0	1.375139E+0	1.329729E+0	1.345495E+0	1.319695E+0	1.367214E+0	1.356637E+0	1.331657E+0	1.349348E+0	1.410033E+0	1.352492E+0	1.391633E+0	1.331754E+0	1.369338E+0	1.371245E+0	1.344553E+0	1.376660E+0	1.303745E+0	1.365628E+0	1.394341E+0	1.313260E+0	1.354699E+0	1.361175E+0	1.424603E+0	1.323827E+0	1.386787E+0	1.318090E+0	1.372515E+0	1.409952E+0	1.445168E+0	1.356039E+0	1.358662E+0	1.349111E+0	1.345743E+0	1.352214E+0	1.334226E+0	1.326902E+0	1.405298E+0	1.364587E+0	1.294078E+0	1.362285E+0	1.397515E+0	1.345612E+0	1.350659E+0	1.332881E+0	1.292628E+0	1.408610E+0	1.360232E+0	1.271173E+0	1.367538E+0	1.282588E+0	1.387297E+0	1.383339E+0	1.318907E+0	1.391893E+0	1.329107E+0	1.364078E+0	1.320502E+0	1.358587E+0	1.310352E+0	1.318984E+0	1.343869E+0	1.409101E+0	1.328411E+0	1.345220E+0	1.362740E+0	1.351385E+0	1.353162E+0	1.340632E+0	1.352968E+0	1.393445E+0	1.317097E+0	1.374070E+0	1.334893E+0	1.308219E+0
5.497740E+2	1.368608E+0	1.369009E+0	1.380730E+0	1.314055E+0	1.349214E+0	1.373103E+0	1.334597E+0	1.375156E+0	1.307086E+0	1.357739E+0	1.370086E+0	1.369788E+0	1.306433E+0	1.364902E+0	1.295774E+0	1.400576E+0	1.336074E+0	1.297121E+0	1.339912E+0	1.370048E+0	1.301943E+0	1.331333E+0	1.408650E+0	1.352696E+0	1.281761E+0	1.341552E+0	1.379479E+0	1.402167E+0	1.347465E+0	1.329443E+0	1.313406E+0	1.350145E+0	1.399765E+0	1.309709E+0	1.325094E+0	1.345426E+0	1.345277E+0	1.369410E+0	1.362311E+0	1.320472E+0	1.337455E+0	1.334072E+0	1.307261E+0	1.320334E+0	1.339500E+0	1.314584E+0	1.323380E+0	1.380384E+0	1.313207E+0	1.309042E+0	1.394673E+0	1.298844E+0	1.285360E+0	1.310883E+0	1.367467E+0	1.341165E+0	1.321380E+0	1.302083E+0	1.326710E+0	1.312691E+0	1.332201E+0	1.295376E+0	1.317012E+0	1.307462E+0	1.348621E+0	1.339585E+0	1.336361E+0	1.314566E+0	1.363544E+0	1.337954E+0	1.390604E+0	1.365478E+0	1.312626E+0	1.315795E+0	1.317780E+0	1.330444E+0	1.340167E+0	1.315332E+0	1.320875E+0	1.324289E+0	1.311859E+0	1.334393E+0	1.314348E+0	1.347712E+0	1.322373E+0	1.358869E+0	1.401208E+0	1.318438E+0	1.331116E+0	1.340520E+0	1.315301E+0	1.311926E+0	1.382215E+0	1.301780E+0	1.332327E+0	1.313274E+0	1.314798E+0	1.331165E+0	1.342786E+0	1.347765E+0	1.330515E+0	1.344512E+0	1.421023E+0	1.376509E+0	1.334100E+0	1.315923E+0	1.390356E+0	1.356090E+0	1.350235E+0	1.304582E+0	1.323827E+0	1.359134E+0	1.383089E+0	1.333434E+0	1.313397E+0	1.347969E+0	1.346645E+0	1.287785E+0	1.360226E+0	1.313081E+0	1.333886E+0	1.346233E+0	1.316226E+0	1.345942E+0	1.312134E+0	1.316762E+0	1.336001E+0	1.358039E+0	1.365193E+0	1.306525E+0	1.315953E+0	1.346181E+0	1.317440E+0	1.334249E+0	1.386851E+0	1.349264E+0	1.332186E+0	1.312076E+0	1.375660E+0	1.300571E+0	1.362468E+0	1.296340E+0	1.326742E+0	1.313180E+0	1.363937E+0	1.258131E+0	1.365566E+0	1.340178E+0	1.333751E+0	1.334811E+0	1.364377E+0	1.356625E+0	1.360905E+0	1.357811E+0	1.309198E+0	1.323171E+0	1.320942E+0	1.309724E+0	1.270997E+0	1.290000E+0	1.327408E+0	1.287738E+0	1.338804E+0	1.331083E+0	1.320265E+0	1.308129E+0	1.334017E+0	1.341703E+0	1.262381E+0	1.338279E+0	1.395262E+0	1.296582E+0
5.505170E+2	1.292583E+0	1.299859E+0	1.345330E+0	1.323246E+0	1.313548E+0	1.273320E+0	1.344514E+0	1.346406E+0	1.287774E+0	1.330672E+0	1.346338E+0	1.294229E+0	1.288103E+0	1.348451E+0	1.282192E+0	1.316736E+0	1.333567E+0	1.286342E+0	1.301275E+0	1.263932E+0	1.321932E+0	1.315377E+0	1.356469E+0	1.313551E+0	1.290759E+0	1.328120E+0	1.327675E+0	1.305234E+0	1.326814E+0	1.349602E+0	1.319021E+0	1.327562E+0	1.326005E+0	1.330560E+0	1.317586E+0	1.299628E+0	1.322034E+0	1.339252E+0	1.331339E+0	1.250744E+0	1.262509E+0	1.389765E+0	1.328382E+0	1.301064E+0	1.270254E+0	1.294331E+0	1.327156E+0	1.323801E+0	1.253046E+0	1.306552E+0	1.306518E+0	1.346734E+0	1.284174E+0	1.278664E+0	1.328481E+0	1.310697E+0	1.255017E+0	1.311350E+0	1.366357E+0	1.290150E+0	1.363540E+0	1.320662E+0	1.272652E+0	1.311030E+0	1.353019E+0	1.292875E+0	1.341198E+0	1.352389E+0	1.349135E+0	1.283423E+0	1.303160E+0	1.279525E+0	1.232859E+0	1.297049E+0	1.340569E+0	1.298789E+0	1.314685E+0	1.364867E+0	1.286833E+0	1.315693E+0	1.298564E+0	1.285275E+0	1.358434E+0	1.277013E+0	1.338119E+0	1.300718E+0	1.329266E+0	1.302449E+0	1.311204E+0	1.310374E+0	1.359027E+0	1.312892E+0	1.311627E+0	1.243042E+0	1.305452E+0	1.332272E+0	1.306248E+0	1.376936E+0	1.272850E+0	1.312543E+0	1.274068E+0	1.245174E+0	1.324215E+0	1.293292E+0	1.313888E+0	1.341514E+0	1.352943E+0	1.290422E+0	1.309709E+0	1.293358E+0	1.329534E+0	1.308682E+0	1.340267E+0	1.279875E+0	1.348861E+0	1.281385E+0	1.283720E+0	1.297291E+0	1.375005E+0	1.303464E+0	1.306890E+0	1.302323E+0	1.311855E+0	1.304852E+0	1.258093E+0	1.311707E+0	1.309756E+0	1.321330E+0	1.327007E+0	1.297898E+0	1.314667E+0	1.302555E+0	1.279482E+0	1.300158E+0	1.352869E+0	1.309599E+0	1.242165E+0	1.267116E+0	1.306287E+0	1.265751E+0	1.329078E+0	1.225047E+0	1.335049E+0	1.302986E+0	1.297355E+0	1.279591E+0	1.343283E+0	1.361723E+0	1.341549E+0	1.335794E+0	1.328750E+0	1.298156E+0	1.294493E+0	1.331989E+0	1.317356E+0	1.297405E+0	1.315870E+0	1.325748E+0	1.278492E+0	1.320296E+0	1.300161E+0	1.249106E+0	1.318143E+0	1.284952E+0	1.328032E+0	1.323867E+0	1.296957E+0	1.316878E+0	1.296329E+0	1.259927E+0	1.273976E+0	1.342318E+0
5.512620E+2	1.328415E+0	1.301070E+0	1.326921E+0	1.296044E+0	1.266471E+0	1.286206E+0	1.376231E+0	1.313311E+0	1.284269E+0	1.331989E+0	1.303121E+0	1.317349E+0	1.261691E+0	1.336193E+0	1.314236E+0	1.333678E+0	1.264720E+0	1.309657E+0	1.292492E+0	1.279776E+0	1.284018E+0	1.283477E+0	1.316082E+0	1.338553E+0	1.284442E+0	1.314034E+0	1.308818E+0	1.315891E+0	1.334556E+0	1.338867E+0	1.283576E+0	1.296287E+0	1.352742E+0	1.334120E+0	1.305329E+0	1.304243E+0	1.314046E+0	1.275017E+0	1.320945E+0	1.280480E+0	1.288044E+0	1.280142E+0	1.320218E+0	1.296004E+0	1.343529E+0	1.309549E+0	1.311838E+0	1.326182E+0	1.283299E+0	1.275091E+0	1.337605E+0	1.320522E+0	1.250994E+0	1.281866E+0	1.295474E+0	1.308123E+0	1.296735E+0	1.375023E+0	1.311051E+0	1.294238E+0	1.282461E+0	1.275964E+0	1.303468E+0	1.295551E+0	1.282942E+0	1.261377E+0	1.325287E+0	1.274556E+0	1.303727E+0	1.331129E+0	1.307329E+0	1.341020E+0	1.298430E+0	1.311551E+0	1.290926E+0	1.324682E+0	1.291170E+0	1.294989E+0	1.282280E+0	1.260912E+0	1.297391E+0	1.308885E+0	1.347591E+0	1.297669E+0	1.307935E+0	1.298653E+0	1.328936E+0	1.286219E+0	1.299500E+0	1.244534E+0	1.293278E+0	1.278611E+0	1.308931E+0	1.275640E+0	1.248921E+0	1.293971E+0	1.278870E+0	1.272816E+0	1.307735E+0	1.334004E+0	1.316678E+0	1.305474E+0	1.345483E+0	1.331967E+0	1.274573E+0	1.284092E+0	1.339629E+0	1.335019E+0	1.280970E+0	1.268886E+0	1.295618E+0	1.280351E+0	1.282950E+0	1.308114E+0	1.264508E+0	1.336101E+0	1.302366E+0	1.291918E+0	1.293865E+0	1.314901E+0	1.289854E+0	1.321412E+0	1.320725E+0	1.331584E+0	1.293659E+0	1.336662E+0	1.338078E+0	1.310372E+0	1.328457E+0	1.257636E+0	1.343843E+0	1.357252E+0	1.254630E+0	1.327564E+0	1.367941E+0	1.303643E+0	1.289425E+0	1.296407E+0	1.316360E+0	1.259466E+0	1.328352E+0	1.232787E+0	1.251914E+0	1.303584E+0	1.292406E+0	1.308950E+0	1.299423E+0	1.264189E+0	1.300383E+0	1.324525E+0	1.356888E+0	1.301082E+0	1.252878E+0	1.274045E+0	1.310403E+0	1.356257E+0	1.261616E+0	1.256759E+0	1.268747E+0	1.331935E+0	1.315002E+0	1.281906E+0	1.283279E+0	1.325507E+0	1.331819E+0	1.282653E+0	1.335239E+0	1.329946E+0	1.292462E+0	1.239182E+0	1.337554E+0	1.298179E+0
5.520210E+2	1.281130E+0	1.322480E+0	1.334835E+0	1.300814E+0	1.298847E+0	1.222343E+0	1.324792E+0	1.300076E+0	1.258468E+0	1.284074E+0	1.314807E+0	1.330798E+0	1.251602E+0	1.328759E+0	1.307359E+0	1.287722E+0	1.312039E+0	1.291825E+0	1.283078E+0	1.328246E+0	1.304350E+0	1.322446E+0	1.290907E+0	1.308497E+0	1.258656E+0	1.308837E+0	1.263924E+0	1.327454E+0	1.330108E+0	1.284454E+0	1.266279E+0	1.320591E+0	1.340601E+0	1.311378E+0	1.240248E+0	1.286478E+0	1.256671E+0	1.257471E+0	1.318266E+0	1.265900E+0	1.255600E+0	1.329352E+0	1.275696E+0	1.357137E+0	1.309417E+0	1.304014E+0	1.332878E+0	1.325798E+0	1.303439E+0	1.283142E+0	1.267382E+0	1.262903E+0	1.269528E+0	1.288194E+0	1.298963E+0	1.271297E+0	1.313174E+0	1.322781E+0	1.284890E+0	1.327806E+0	1.293848E+0	1.297754E+0	1.337319E+0	1.284913E+0	1.327948E+0	1.252066E+0	1.303616E+0	1.300641E+0	1.303987E+0	1.285285E+0	1.285704E+0	1.309776E+0	1.251140E+0	1.258803E+0	1.303324E+0	1.346939E+0	1.297210E+0	1.279860E+0	1.285673E+0	1.234929E+0	1.272089E+0	1.269466E+0	1.313687E+0	1.239298E+0	1.325846E+0	1.271758E+0	1.315560E+0	1.297215E+0	1.279637E+0	1.271542E+0	1.321699E+0	1.300334E+0	1.322076E+0	1.280442E+0	1.312814E+0	1.252579E+0	1.299019E+0	1.298224E+0	1.289921E+0	1.275680E+0	1.247620E+0	1.303709E+0	1.374230E+0	1.249376E+0	1.324304E+0	1.297069E+0	1.346027E+0	1.296144E+0	1.283186E+0	1.268532E+0	1.285430E+0	1.275280E+0	1.315134E+0	1.228768E+0	1.290010E+0	1.373953E+0	1.290993E+0	1.269028E+0	1.389707E+0	1.326080E+0	1.313831E+0	1.265758E+0	1.295599E+0	1.277293E+0	1.269688E+0	1.299022E+0	1.299684E+0	1.345458E+0	1.209788E+0	1.237364E+0	1.238074E+0	1.322429E+0	1.272161E+0	1.330930E+0	1.257239E+0	1.263388E+0	1.241741E+0	1.294713E+0	1.292318E+0	1.308806E+0	1.343611E+0	1.232033E+0	1.263296E+0	1.302495E+0	1.273422E+0	1.315612E+0	1.343065E+0	1.285397E+0	1.316621E+0	1.269947E+0	1.347135E+0	1.294931E+0	1.252636E+0	1.288176E+0	1.276178E+0	1.303783E+0	1.272688E+0	1.238210E+0	1.228172E+0	1.291126E+0	1.250391E+0	1.274534E+0	1.266211E+0	1.241240E+0	1.284354E+0	1.307048E+0	1.326824E+0	1.324905E+0	1.195865E+0	1.279110E+0	1.265613E+0	1.327176E+0
5.527650E+2	1.241982E+0	1.274912E+0	1.254505E+0	1.250374E+0	1.228984E+0	1.233160E+0	1.223180E+0	1.254975E+0	1.249798E+0	1.243695E+0	1.279049E+0	1.275175E+0	1.231839E+0	1.215562E+0	1.218469E+0	1.238194E+0	1.225887E+0	1.222410E+0	1.265152E+0	1.248329E+0	1.277678E+0	1.245020E+0	1.257165E+0	1.231646E+0	1.238139E+0	1.244007E+0	1.263827E+0	1.256702E+0	1.273990E+0	1.258281E+0	1.232227E+0	1.257886E+0	1.294946E+0	1.230776E+0	1.259938E+0	1.177602E+0	1.240489E+0	1.301298E+0	1.256565E+0	1.209081E+0	1.270919E+0	1.224273E+0	1.263281E+0	1.236407E+0	1.288644E+0	1.266155E+0	1.232769E+0	1.256844E+0	1.270730E+0	1.232327E+0	1.269100E+0	1.216260E+0	1.208467E+0	1.222576E+0	1.256090E+0	1.288404E+0	1.221743E+0	1.237498E+0	1.224153E+0	1.303261E+0	1.237369E+0	1.208250E+0	1.218027E+0	1.247677E+0	1.272502E+0	1.155919E+0	1.250274E+0	1.220710E+0	1.222501E+0	1.226600E+0	1.234732E+0	1.257504E+0	1.233598E+0	1.283676E+0	1.244969E+0	1.240662E+0	1.242214E+0	1.265929E+0	1.298137E+0	1.215580E+0	1.231161E+0	1.195887E+0	1.263577E+0	1.258593E+0	1.222854E+0	1.266904E+0	1.264866E+0	1.260147E+0	1.270949E+0	1.236127E+0	1.229545E+0	1.258273E+0	1.288853E+0	1.170464E+0	1.288285E+0	1.231761E+0	1.253546E+0	1.265933E+0	1.247032E+0	1.266955E+0	1.249938E+0	1.205874E+0	1.270804E+0	1.274290E+0	1.240369E+0	1.239602E+0	1.213621E+0	1.296206E+0	1.276921E+0	1.238768E+0	1.236150E+0	1.233693E+0	1.233742E+0	1.247889E+0	1.228181E+0	1.183977E+0	1.297641E+0	1.262343E+0	1.271569E+0	1.268673E+0	1.210143E+0	1.224969E+0	1.251624E+0	1.265147E+0	1.246051E+0	1.228429E+0	1.247425E+0	1.272703E+0	1.286113E+0	1.214294E+0	1.214528E+0	1.256116E+0	1.209590E+0	1.216014E+0	1.267356E+0	1.272031E+0	1.179750E+0	1.294261E+0	1.268296E+0	1.223199E+0	1.238439E+0	1.218409E+0	1.247972E+0	1.274679E+0	1.235241E+0	1.254743E+0	1.216245E+0	1.244837E+0	1.224136E+0	1.243752E+0	1.211394E+0	1.258859E+0	1.177385E+0	1.214137E+0	1.209445E+0	1.233708E+0	1.202111E+0	1.234712E+0	1.240498E+0	1.239141E+0	1.227503E+0	1.214277E+0	1.244842E+0	1.195928E+0	1.223766E+0	1.226026E+0	1.265966E+0	1.249107E+0	1.168603E+0	1.209006E+0	1.268328E+0	1.281183E+0
5.535490E+2	1.166971E+0	1.191946E+0	1.240229E+0	1.230187E+0	1.150616E+0	1.159877E+0	1.193154E+0	1.197997E+0	1.180043E+0	1.210829E+0	1.169936E+0	1.177907E+0	1.169989E+0	1.161977E+0	1.154279E+0	1.148695E+0	1.151459E+0	1.133956E+0	1.193156E+0	1.212895E+0	1.132899E+0	1.161482E+0	1.211177E+0	1.143563E+0	1.142721E+0	1.179141E+0	1.140727E+0	1.178176E+0	1.153326E+0	1.168097E+0	1.157191E+0	1.149639E+0	1.184922E+0	1.183214E+0	1.141807E+0	1.207775E+0	1.151091E+0	1.175333E+0	1.175516E+0	1.138303E+0	1.177894E+0	1.186252E+0	1.192146E+0	1.167090E+0	1.179698E+0	1.183849E+0	1.157042E+0	1.211089E+0	1.213390E+0	1.164238E+0	1.183957E+0	1.175934E+0	1.155132E+0	1.126782E+0	1.194811E+0	1.208686E+0	1.142935E+0	1.220633E+0	1.159791E+0	1.207606E+0	1.168021E+0	1.131704E+0	1.172407E+0	1.165671E+0	1.179723E+0	1.164877E+0	1.178167E+0	1.243491E+0	1.128845E+0	1.169211E+0	1.191875E+0	1.153805E+0	1.139973E+0	1.143435E+0	1.159485E+0	1.186472E+0	1.171431E+0	1.169866E+0	1.180575E+0	1.171293E+0	1.211215E+0	1.141121E+0	1.138205E+0	1.133176E+0	1.180093E+0	1.189154E+0	1.149182E+0	1.139990E+0	1.182771E+0	1.132266E+0	1.157635E+0	1.139188E+0	1.168859E+0	1.213965E+0	1.160073E+0	1.192110E+0	1.173265E+0	1.186658E+0	1.139564E+0	1.186878E+0	1.129172E+0	1.123229E+0	1.183940E+0	1.193831E+0	1.126578E+0	1.158309E+0	1.197057E+0	1.157742E+0	1.180780E+0	1.182782E+0	1.192180E+0	1.187659E+0	1.224286E+0	1.156081E+0	1.170461E+0	1.165354E+0	1.199436E+0	1.183004E+0	1.180967E+0	1.150711E+0	1.182468E+0	1.140047E+0	1.204300E+0	1.189297E+0	1.133067E+0	1.182229E+0	1.176449E+0	1.170235E+0	1.196124E+0	1.159044E+0	1.182770E+0	1.200088E+0	1.155711E+0	1.171211E+0	1.201535E+0	1.158245E+0	1.146046E+0	1.169841E+0	1.146471E+0	1.122372E+0	1.181517E+0	1.102184E+0	1.146368E+0	1.170309E+0	1.223439E+0	1.180689E+0	1.173288E+0	1.131531E+0	1.182200E+0	1.131476E+0	1.224099E+0	1.159561E+0	1.183374E+0	1.154825E+0	1.169714E+0	1.219123E+0	1.166623E+0	1.157001E+0	1.173768E+0	1.165040E+0	1.139349E+0	1.164197E+0	1.184544E+0	1.175050E+0	1.184157E+0	1.159243E+0	1.171323E+0	1.218872E+0	1.174663E+0	1.165830E+0	1.099643E+0	1.189798E+0
5.542580E+2	1.052025E+0	1.092522E+0	1.145339E+0	1.101133E+0	1.083413E+0	1.087273E+0	1.067175E+0	1.153946E+0	1.078961E+0	1.115783E+0	1.117499E+0	1.086404E+0	1.083883E+0	1.119936E+0	1.096982E+0	1.134318E+0	1.116487E+0	1.096300E+0	1.068599E+0	1.127182E+0	1.098112E+0	1.113309E+0	1.108318E+0	1.148749E+0	1.101680E+0	1.117677E+0	1.075646E+0	1.134232E+0	1.093120E+0	1.072095E+0	1.086010E+0	1.126962E+0	1.110062E+0	1.093012E+0	1.079767E+0	1.102031E+0	1.140516E+0	1.102345E+0	1.081274E+0	1.058254E+0	1.100427E+0	1.092768E+0	1.062328E+0	1.120297E+0	1.087626E+0	1.085816E+0	1.100403E+0	1.124113E+0	1.071550E+0	1.093830E+0	1.089375E+0	1.092308E+0	1.085733E+0	1.103944E+0	1.103540E+0	1.121292E+0	1.087443E+0	1.080769E+0	1.058726E+0	1.096355E+0	1.085900E+0	1.092723E+0	1.112205E+0	1.131545E+0	1.026417E+0	1.077347E+0	1.057895E+0	1.053359E+0	1.112431E+0	1.072265E+0	1.115486E+0	1.129939E+0	1.065232E+0	1.081731E+0	1.126626E+0	1.102446E+0	1.113247E+0	1.090231E+0	1.117726E+0	1.118082E+0	1.094854E+0	1.109471E+0	1.099230E+0	1.032765E+0	1.079192E+0	1.111602E+0	1.090682E+0	1.119208E+0	1.126336E+0	1.105290E+0	1.102823E+0	1.076539E+0	1.107566E+0	1.083546E+0	1.087541E+0	1.071034E+0	1.098116E+0	1.121402E+0	1.141490E+0	1.099737E+0	1.111576E+0	1.030485E+0	1.095738E+0	1.062951E+0	1.057255E+0	1.086236E+0	1.132979E+0	1.082210E+0	1.135300E+0	1.113065E+0	1.070999E+0	1.097028E+0	1.071281E+0	1.127020E+0	1.085000E+0	1.095748E+0	1.084411E+0	1.070019E+0	1.121943E+0	1.106717E+0	1.125715E+0	1.083849E+0	1.100733E+0	1.086593E+0	1.116277E+0	1.096119E+0	1.122074E+0	1.116806E+0	1.070857E+0	1.052578E+0	1.135999E+0	1.056930E+0	1.112857E+0	1.127355E+0	1.094532E+0	1.170433E+0	1.095206E+0	1.071343E+0	1.130652E+0	1.094518E+0	1.139646E+0	1.106660E+0	1.103551E+0	1.145884E+0	1.073829E+0	1.080846E+0	1.065886E+0	1.102043E+0	1.124804E+0	1.094139E+0	1.105212E+0	1.069449E+0	1.100922E+0	1.108750E+0	1.068971E+0	1.093117E+0	1.086867E+0	1.095076E+0	1.068320E+0	1.116903E+0	1.063975E+0	1.091271E+0	1.072605E+0	1.045346E+0	1.113517E+0	1.101180E+0	1.087713E+0	1.081117E+0	1.039191E+0	1.001106E+0	1.063451E+0	9.880597E-1
5.550140E+2	1.027765E+0	1.041774E+0	1.002919E+0	1.050424E+0	1.048288E+0	1.019768E+0	1.068346E+0	1.041298E+0	9.764990E-1	1.033658E+0	1.034774E+0	1.011783E+0	1.001628E+0	9.736646E-1	1.002197E+0	1.020037E+0	1.030403E+0	9.958529E-1	9.744588E-1	9.832119E-1	1.040594E+0	9.967415E-1	1.006005E+0	1.008952E+0	1.011288E+0	1.017622E+0	1.015393E+0	1.012351E+0	1.045003E+0	1.040257E+0	9.930333E-1	9.778709E-1	1.007719E+0	9.962662E-1	9.994646E-1	1.003437E+0	1.008050E+0	1.050339E+0	1.012662E+0	1.008921E+0	9.921912E-1	1.008975E+0	1.009447E+0	1.019935E+0	1.025153E+0	1.061405E+0	1.010656E+0	1.009604E+0	9.868475E-1	1.010466E+0	1.010015E+0	1.034740E+0	1.010945E+0	1.026720E+0	9.619891E-1	1.037096E+0	1.021134E+0	1.019451E+0	1.015919E+0	1.083800E+0	9.918542E-1	9.878345E-1	9.862882E-1	9.892792E-1	9.686551E-1	1.026595E+0	1.003089E+0	1.051378E+0	9.791870E-1	1.047726E+0	1.010986E+0	1.049094E+0	9.920918E-1	1.029570E+0	1.019303E+0	9.976799E-1	9.569911E-1	1.024527E+0	9.891246E-1	1.043093E+0	1.026360E+0	9.999769E-1	1.044314E+0	9.986026E-1	9.923552E-1	1.008201E+0	1.056192E+0	1.023410E+0	1.003254E+0	1.014902E+0	1.018583E+0	1.047037E+0	1.002834E+0	9.623675E-1	1.021924E+0	1.025403E+0	9.979973E-1	1.012278E+0	1.040885E+0	1.003497E+0	1.028242E+0	1.002618E+0	1.005246E+0	1.035981E+0	9.852510E-1	1.006357E+0	1.003829E+0	1.006768E+0	1.026407E+0	9.782404E-1	1.022674E+0	1.007342E+0	1.037122E+0	1.010229E+0	9.691644E-1	9.591135E-1	9.972275E-1	9.997552E-1	9.968547E-1	1.030098E+0	1.016914E+0	9.759065E-1	1.096072E+0	9.990067E-1	9.795297E-1	1.020598E+0	1.034080E+0	1.022867E+0	1.021140E+0	9.822234E-1	1.019125E+0	9.913719E-1	1.060652E+0	1.014282E+0	1.022619E+0	1.062725E+0	9.896235E-1	1.008721E+0	1.024192E+0	1.009762E+0	1.067688E+0	9.947877E-1	9.966633E-1	1.020895E+0	1.037925E+0	9.699067E-1	1.066238E+0	9.970892E-1	1.021342E+0	1.001983E+0	1.041973E+0	1.010544E+0	1.023032E+0	1.002727E+0	1.051452E+0	9.965153E-1	9.749921E-1	9.980651E-1	9.656704E-1	1.010437E+0	1.028562E+0	9.725737E-1	1.002367E+0	1.024709E+0	1.037734E+0	9.824372E-1	1.012860E+0	1.005281E+0	9.904491E-1	1.036648E+0	1.041041E+0	1.045343E+0
5.557600E+2	9.836222E-1	9.271055E-1	9.375265E-1	9.454785E-1	9.761826E-1	9.257729E-1	9.359762E-1	9.788344E-1	9.394637E-1	9.906174E-1	9.605976E-1	9.656620E-1	9.660078E-1	9.709577E-1	9.322981E-1	9.708925E-1	9.356469E-1	9.936353E-1	9.339460E-1	9.714875E-1	9.605837E-1	9.751597E-1	9.788032E-1	1.011487E+0	9.499270E-1	1.039187E+0	9.678859E-1	9.879305E-1	9.474922E-1	9.462610E-1	9.702774E-1	9.876826E-1	9.389978E-1	9.504929E-1	9.359335E-1	9.539018E-1	9.391461E-1	9.754412E-1	9.384647E-1	9.348586E-1	9.358586E-1	9.609433E-1	9.876487E-1	9.536846E-1	9.949698E-1	9.906881E-1	9.957224E-1	9.617238E-1	9.803997E-1	9.518131E-1	9.689824E-1	9.559253E-1	9.188922E-1	9.768131E-1	9.971086E-1	1.029576E+0	9.359716E-1	9.738330E-1	9.730686E-1	1.021425E+0	9.471705E-1	9.477141E-1	9.782970E-1	9.377876E-1	9.396137E-1	9.352412E-1	9.501073E-1	9.570141E-1	9.900066E-1	9.880307E-1	9.598643E-1	9.995285E-1	9.574239E-1	9.753688E-1	9.483672E-1	9.722106E-1	9.471116E-1	9.481642E-1	9.670850E-1	9.499599E-1	9.831903E-1	9.746353E-1	9.879225E-1	9.824556E-1	9.912695E-1	9.613682E-1	9.676385E-1	9.229534E-1	9.876031E-1	9.696754E-1	9.813442E-1	9.546001E-1	9.766954E-1	9.709065E-1	1.006994E+0	9.454619E-1	9.761858E-1	9.833493E-1	9.475098E-1	9.550205E-1	9.830626E-1	1.027592E+0	9.827790E-1	1.007930E+0	1.037715E+0	1.004332E+0	9.967623E-1	9.397004E-1	9.882391E-1	9.529493E-1	9.169965E-1	9.609872E-1	9.833250E-1	9.414928E-1	1.003945E+0	1.001215E+0	9.863710E-1	9.480940E-1	1.006293E+0	9.888816E-1	9.367601E-1	9.516877E-1	1.004372E+0	9.871908E-1	9.563645E-1	1.001344E+0	9.839052E-1	9.601922E-1	9.893851E-1	9.627462E-1	9.696653E-1	9.923418E-1	9.713195E-1	9.548443E-1	9.655227E-1	9.943582E-1	9.436065E-1	9.909682E-1	9.493975E-1	9.238098E-1	9.739798E-1	9.607677E-1	9.114360E-1	9.645943E-1	9.767574E-1	9.668687E-1	9.648874E-1	1.014600E+0	9.687254E-1	9.631486E-1	9.646108E-1	1.054022E+0	9.584990E-1	9.611988E-1	9.539804E-1	9.804802E-1	9.786624E-1	9.792917E-1	9.174599E-1	9.809019E-1	9.891212E-1	9.733437E-1	9.779975E-1	9.647606E-1	9.832248E-1	9.766495E-1	9.537626E-1	1.019087E+0	9.033593E-1	9.728001E-1	9.463123E-1	1.014518E+0
5.560190E+2	9.050514E-1	9.725477E-1	9.575360E-1	9.639020E-1	9.290244E-1	9.286164E-1	9.682050E-1	9.521725E-1	9.866089E-1	9.655030E-1	9.622700E-1	9.777680E-1	9.732444E-1	9.930956E-1	1.001699E+0	9.637767E-1	9.754625E-1	9.705259E-1	9.892360E-1	9.838883E-1	1.001433E+0	9.842974E-1	9.278013E-1	9.923944E-1	9.159912E-1	9.479412E-1	9.703957E-1	9.896197E-1	9.445348E-1	1.007187E+0	9.608459E-1	9.691550E-1	9.810215E-1	9.924220E-1	9.282609E-1	9.863830E-1	1.005649E+0	9.708991E-1	9.560959E-1	9.664531E-1	9.468328E-1	1.000838E+0	9.626792E-1	9.252689E-1	9.315891E-1	1.030998E+0	9.687268E-1	9.606291E-1	9.932590E-1	9.650307E-1	9.714268E-1	9.400731E-1	9.447682E-1	9.767811E-1	9.181748E-1	9.399285E-1	9.615506E-1	9.490699E-1	9.676457E-1	9.749124E-1	9.332137E-1	9.510445E-1	9.538465E-1	9.744732E-1	9.555735E-1	9.865511E-1	1.003750E+0	9.923794E-1	9.352938E-1	9.521943E-1	9.614136E-1	9.586650E-1	9.323306E-1	9.452485E-1	9.741452E-1	1.015303E+0	9.612020E-1	9.746809E-1	9.853134E-1	9.301671E-1	1.007954E+0	9.595382E-1	9.803851E-1	9.368922E-1	9.478599E-1	9.746228E-1	1.032098E+0	9.690408E-1	9.347616E-1	9.781749E-1	1.021621E+0	9.802696E-1	9.979912E-1	9.483894E-1	9.915297E-1	9.677827E-1	9.465913E-1	9.128369E-1	9.676097E-1	9.533041E-1	9.524939E-1	9.542713E-1	1.014361E+0	1.023358E+0	9.797979E-1	9.592872E-1	9.682801E-1	9.673785E-1	9.451822E-1	9.604460E-1	9.730462E-1	9.893644E-1	9.747717E-1	9.492328E-1	9.878419E-1	9.733008E-1	9.690245E-1	9.358631E-1	9.579141E-1	9.936109E-1	9.634357E-1	9.373561E-1	9.798148E-1	9.327927E-1	9.370923E-1	9.981561E-1	9.658863E-1	9.350802E-1	9.991580E-1	9.828572E-1	1.001170E+0	9.550156E-1	9.890018E-1	9.752755E-1	9.679450E-1	9.345003E-1	9.699820E-1	9.318782E-1	9.696427E-1	9.529677E-1	1.018427E+0	9.596293E-1	9.403041E-1	9.075072E-1	9.482186E-1	9.797297E-1	9.896402E-1	9.171974E-1	9.876612E-1	9.919250E-1	1.003128E+0	9.713834E-1	9.464219E-1	9.756503E-1	9.348806E-1	9.570779E-1	9.534091E-1	9.273859E-1	9.640772E-1	9.858267E-1	9.937353E-1	9.550592E-1	9.790631E-1	9.931445E-1	9.812882E-1	9.546007E-1	9.802743E-1	9.809339E-1	9.563796E-1	9.172221E-1	9.506498E-1	1.081946E+0
5.565090E+2	9.032604E-1	9.840269E-1	9.469737E-1	9.863691E-1	9.542575E-1	9.957611E-1	9.424726E-1	9.733061E-1	9.894233E-1	9.841336E-1	9.715080E-1	9.354356E-1	9.852003E-1	9.333819E-1	9.870303E-1	9.337297E-1	1.009352E+0	9.865057E-1	9.486627E-1	9.563117E-1	9.633270E-1	9.572960E-1	9.191769E-1	9.509725E-1	9.336519E-1	9.684709E-1	9.807751E-1	9.526924E-1	9.871748E-1	9.126081E-1	9.471658E-1	9.730130E-1	9.601740E-1	9.917303E-1	9.633546E-1	9.256435E-1	9.656929E-1	9.932772E-1	9.665031E-1	9.605876E-1	9.594351E-1	9.563000E-1	9.868181E-1	1.003105E+0	9.898428E-1	1.007888E+0	9.844784E-1	9.708225E-1	1.019969E+0	9.808217E-1	9.808832E-1	9.751975E-1	9.963786E-1	9.540858E-1	9.517328E-1	9.577523E-1	9.240598E-1	9.735080E-1	9.553255E-1	1.002103E+0	9.596644E-1	9.462891E-1	9.753491E-1	9.604796E-1	9.731547E-1	9.438391E-1	9.926357E-1	9.899272E-1	9.807572E-1	9.970015E-1	9.854504E-1	1.007815E+0	9.586454E-1	9.449134E-1	9.458483E-1	9.728880E-1	9.751456E-1	9.372283E-1	9.496964E-1	9.585404E-1	1.000643E+0	9.362388E-1	1.019254E+0	9.291836E-1	9.672526E-1	9.853558E-1	9.804911E-1	9.916864E-1	9.441523E-1	9.049361E-1	9.149599E-1	9.589385E-1	9.674515E-1	9.588637E-1	9.810080E-1	9.093427E-1	9.259714E-1	9.604258E-1	9.401856E-1	9.855309E-1	9.344449E-1	9.617499E-1	9.983969E-1	9.798324E-1	9.770862E-1	9.462657E-1	1.009288E+0	1.006415E+0	9.410837E-1	9.500200E-1	9.537060E-1	9.844329E-1	1.012318E+0	9.586513E-1	9.773359E-1	9.465020E-1	9.654691E-1	9.547087E-1	1.007506E+0	9.835274E-1	9.658209E-1	9.540059E-1	9.544974E-1	9.779355E-1	9.553610E-1	9.772727E-1	9.702279E-1	9.338019E-1	9.818215E-1	9.893802E-1	9.941652E-1	9.764331E-1	9.474649E-1	9.990698E-1	9.870156E-1	9.592030E-1	9.759479E-1	9.781595E-1	9.748256E-1	9.335159E-1	9.694732E-1	9.236011E-1	9.192767E-1	1.006440E+0	9.648297E-1	9.566191E-1	9.943247E-1	9.488956E-1	9.448023E-1	9.663803E-1	9.566580E-1	9.593934E-1	9.447607E-1	9.477250E-1	9.855037E-1	9.741445E-1	9.583456E-1	9.247729E-1	9.519204E-1	9.619649E-1	9.625195E-1	9.831206E-1	9.537793E-1	9.877787E-1	9.842025E-1	9.442899E-1	1.016795E+0	9.456599E-1	9.432678E-1	9.726651E-1	9.741584E-1	1.056465E+0
5.570160E+2	9.818132E-1	9.577276E-1	9.823536E-1	9.536634E-1	9.448234E-1	9.620328E-1	1.007800E+0	9.926421E-1	9.960851E-1	1.005299E+0	9.570949E-1	9.730804E-1	9.584980E-1	9.842534E-1	9.775337E-1	9.752418E-1	9.853007E-1	9.460347E-1	9.712626E-1	9.740286E-1	9.644396E-1	1.009030E+0	9.850472E-1	9.798999E-1	9.472851E-1	9.531280E-1	9.539819E-1	9.689088E-1	9.592489E-1	9.435154E-1	9.177020E-1	9.554234E-1	9.833806E-1	9.725692E-1	9.789521E-1	9.896681E-1	9.620843E-1	9.780849E-1	9.272471E-1	9.390229E-1	9.842797E-1	9.372473E-1	9.178480E-1	9.240598E-1	9.765181E-1	9.595740E-1	9.931491E-1	9.841219E-1	9.674751E-1	9.682956E-1	9.926170E-1	9.425990E-1	9.568435E-1	9.650703E-1	9.281805E-1	1.003359E+0	9.951139E-1	9.651180E-1	9.648072E-1	9.837497E-1	9.645379E-1	9.348040E-1	9.752502E-1	9.412957E-1	9.705725E-1	9.814726E-1	9.514661E-1	9.823876E-1	9.919203E-1	9.695863E-1	9.853841E-1	9.201466E-1	9.709146E-1	9.382260E-1	1.019616E+0	9.722416E-1	9.830585E-1	9.644466E-1	9.664315E-1	9.881087E-1	9.555315E-1	9.774507E-1	9.728403E-1	9.578961E-1	9.995492E-1	9.761378E-1	9.885506E-1	9.788924E-1	9.772392E-1	9.594843E-1	1.026296E+0	9.520004E-1	1.010852E+0	9.359899E-1	1.000789E+0	1.004597E+0	9.815512E-1	9.964642E-1	9.562323E-1	9.711084E-1	1.003000E+0	9.586060E-1	9.607260E-1	9.716925E-1	9.755098E-1	9.710820E-1	1.019317E+0	9.460212E-1	9.521873E-1	9.632459E-1	9.529593E-1	9.892755E-1	1.002061E+0	9.448323E-1	9.988844E-1	9.548739E-1	9.694212E-1	9.277516E-1	1.014698E+0	9.486212E-1	9.445152E-1	9.625080E-1	9.396072E-1	9.957392E-1	9.072309E-1	9.809286E-1	9.685034E-1	9.593620E-1	9.709898E-1	9.670171E-1	9.855307E-1	1.015782E+0	1.038532E+0	9.771303E-1	1.020944E+0	1.013538E+0	9.964829E-1	9.679912E-1	9.605350E-1	9.344749E-1	1.009463E+0	9.779149E-1	9.642139E-1	9.876938E-1	9.837688E-1	9.641424E-1	9.845238E-1	9.913186E-1	9.915230E-1	9.797278E-1	9.798442E-1	1.012694E+0	9.392220E-1	9.643284E-1	9.967244E-1	9.757430E-1	9.944476E-1	9.647271E-1	9.277695E-1	9.596461E-1	9.869654E-1	9.402458E-1	9.090622E-1	9.565490E-1	9.640062E-1	1.017837E+0	9.754918E-1	1.007866E+0	9.706943E-1	9.891007E-1	9.372820E-1	8.957160E-1
5.575530E+2	9.672703E-1	9.866772E-1	9.775031E-1	9.884771E-1	1.005936E+0	9.826256E-1	9.745857E-1	1.018087E+0	9.942311E-1	1.009792E+0	9.877540E-1	1.004584E+0	9.886596E-1	1.012518E+0	1.022986E+0	1.002904E+0	1.005187E+0	9.932671E-1	1.015052E+0	9.730850E-1	9.920321E-1	9.870611E-1	1.015953E+0	1.001444E+0	9.464694E-1	9.637587E-1	1.003330E+0	9.875843E-1	9.801346E-1	9.756649E-1	1.006641E+0	9.892551E-1	1.037169E+0	1.018043E+0	9.527909E-1	9.846675E-1	9.770625E-1	9.567339E-1	9.828055E-1	9.281865E-1	1.047552E+0	9.851395E-1	1.000399E+0	9.669798E-1	9.959984E-1	1.044335E+0	9.841067E-1	1.025644E+0	1.032975E+0	1.035894E+0	9.990265E-1	1.017274E+0	1.003605E+0	9.989714E-1	9.657145E-1	1.022396E+0	1.020449E+0	1.002817E+0	1.003641E+0	1.003931E+0	9.776494E-1	9.554436E-1	9.919927E-1	9.747484E-1	9.905211E-1	1.000560E+0	1.028627E+0	9.757095E-1	1.016760E+0	9.867793E-1	9.723065E-1	9.817975E-1	1.031999E+0	9.536189E-1	9.816466E-1	9.613719E-1	9.721663E-1	9.877491E-1	9.716467E-1	9.994226E-1	9.701732E-1	9.811165E-1	1.016356E+0	9.460851E-1	1.032980E+0	9.977253E-1	1.011049E+0	9.920603E-1	9.952795E-1	9.663406E-1	9.611334E-1	1.000820E+0	1.008747E+0	9.651397E-1	9.911620E-1	1.052215E+0	1.006763E+0	1.027437E+0	9.728124E-1	1.021839E+0	9.999631E-1	9.959523E-1	9.926381E-1	9.620232E-1	9.714318E-1	9.553409E-1	1.052994E+0	1.032246E+0	1.002613E+0	1.014603E+0	9.664611E-1	9.821460E-1	1.007824E+0	1.002792E+0	1.012672E+0	9.710940E-1	9.987053E-1	9.894763E-1	1.023600E+0	9.653157E-1	9.871207E-1	9.548067E-1	9.957792E-1	9.951562E-1	1.015962E+0	1.020376E+0	1.010010E+0	9.890579E-1	9.964002E-1	9.960771E-1	1.041907E+0	9.814616E-1	1.016566E+0	9.932264E-1	1.000253E+0	1.015650E+0	9.502889E-1	1.009282E+0	9.851609E-1	9.746467E-1	1.027405E+0	9.749994E-1	9.678971E-1	9.908020E-1	9.813595E-1	1.001906E+0	1.006036E+0	9.973042E-1	9.994289E-1	1.011061E+0	1.009975E+0	1.022584E+0	1.028817E+0	9.979361E-1	9.852153E-1	1.003534E+0	1.010728E+0	1.016597E+0	9.990306E-1	1.024435E+0	1.007444E+0	9.545464E-1	9.860042E-1	9.648602E-1	1.000251E+0	9.870690E-1	9.843912E-1	1.023628E+0	9.215687E-1	9.633549E-1	9.957311E-1	1.032784E+0
5.580170E+2	9.623376E-1	1.010547E+0	9.772745E-1	1.032174E+0	9.790074E-1	1.001237E+0	1.022473E+0	1.022623E+0	9.840112E-1	9.985613E-1	1.001523E+0	1.025856E+0	9.860314E-1	9.776787E-1	1.000754E+0	9.920653E-1	9.865355E-1	9.855908E-1	1.007840E+0	1.009452E+0	1.017414E+0	9.784213E-1	9.677014E-1	9.990199E-1	1.006634E+0	1.010346E+0	1.012330E+0	1.011081E+0	9.881175E-1	9.923739E-1	9.943956E-1	9.846970E-1	9.620945E-1	9.648935E-1	1.000913E+0	9.949505E-1	9.722443E-1	9.897060E-1	1.008884E+0	9.614109E-1	1.018127E+0	9.955961E-1	9.883794E-1	1.003616E+0	1.037079E+0	9.880024E-1	1.003258E+0	9.721777E-1	9.925507E-1	9.948279E-1	9.777137E-1	9.856398E-1	9.864510E-1	1.000728E+0	1.020045E+0	1.005551E+0	9.873805E-1	9.955441E-1	9.792231E-1	1.008538E+0	1.015652E+0	9.991298E-1	9.901970E-1	1.001356E+0	9.875402E-1	1.010051E+0	1.015753E+0	9.974224E-1	9.765483E-1	9.890474E-1	1.037531E+0	1.021452E+0	1.048371E+0	9.742984E-1	9.705666E-1	1.005325E+0	9.920014E-1	9.935105E-1	1.008120E+0	1.009793E+0	1.005707E+0	1.014195E+0	1.001339E+0	9.855989E-1	1.000340E+0	1.027755E+0	9.919342E-1	9.874217E-1	9.716112E-1	1.036316E+0	1.001734E+0	1.035048E+0	9.940971E-1	9.759441E-1	1.029936E+0	1.026743E+0	1.033882E+0	9.981827E-1	9.608913E-1	9.820701E-1	1.002320E+0	1.051123E+0	9.930185E-1	1.005243E+0	9.840204E-1	9.685912E-1	1.023256E+0	1.003221E+0	1.004300E+0	1.004730E+0	9.626190E-1	9.893998E-1	1.044264E+0	1.013716E+0	1.064648E+0	1.000452E+0	9.884179E-1	1.006759E+0	1.016232E+0	9.597891E-1	9.980652E-1	9.901037E-1	1.014291E+0	9.857353E-1	1.002101E+0	9.950629E-1	9.371322E-1	9.642097E-1	1.027702E+0	1.018203E+0	1.019563E+0	1.023407E+0	9.929362E-1	9.890646E-1	1.009158E+0	9.681687E-1	9.815676E-1	1.014148E+0	1.021482E+0	1.006637E+0	9.611152E-1	9.749346E-1	1.017015E+0	9.960932E-1	9.651732E-1	9.830068E-1	1.039347E+0	9.951491E-1	9.723101E-1	9.672087E-1	1.034048E+0	9.979085E-1	9.791280E-1	1.008241E+0	1.009841E+0	9.672825E-1	9.884375E-1	1.017368E+0	9.914506E-1	9.857529E-1	9.649068E-1	9.785713E-1	1.008564E+0	1.022235E+0	1.000970E+0	9.577137E-1	1.009823E+0	9.781494E-1	9.702685E-1	9.931346E-1	9.840000E-1	9.762996E-1
5.585160E+2	9.588358E-1	1.027763E+0	1.004570E+0	1.012152E+0	9.985475E-1	1.012008E+0	9.941855E-1	1.012963E+0	9.575040E-1	1.011474E+0	9.941576E-1	9.835391E-1	9.733965E-1	1.001200E+0	9.771312E-1	1.002939E+0	1.019749E+0	9.839916E-1	1.010549E+0	9.900794E-1	9.994453E-1	9.787169E-1	9.822412E-1	9.695089E-1	9.973961E-1	9.759650E-1	9.888268E-1	9.773193E-1	9.908723E-1	9.964434E-1	9.961505E-1	1.009730E+0	9.979033E-1	1.017452E+0	9.850901E-1	9.936278E-1	9.934221E-1	9.881653E-1	9.889825E-1	9.920524E-1	1.002939E+0	9.407212E-1	9.725019E-1	9.901354E-1	9.707876E-1	1.003304E+0	9.943193E-1	1.059156E+0	1.014868E+0	1.012693E+0	9.889761E-1	1.008892E+0	9.604064E-1	9.750967E-1	9.923928E-1	9.709406E-1	9.841457E-1	1.009086E+0	9.967637E-1	1.015883E+0	9.961622E-1	9.949883E-1	1.005545E+0	9.978242E-1	9.892912E-1	1.001651E+0	1.017947E+0	9.885915E-1	9.808452E-1	9.735784E-1	9.996038E-1	9.608055E-1	1.009519E+0	9.586834E-1	9.864015E-1	9.915221E-1	1.020501E+0	9.955858E-1	9.795702E-1	9.671806E-1	9.927798E-1	9.595384E-1	9.552089E-1	1.010395E+0	1.005361E+0	9.877321E-1	9.905742E-1	1.034407E+0	1.010367E+0	9.916890E-1	1.008756E+0	1.009029E+0	9.463446E-1	9.595059E-1	9.985304E-1	9.935818E-1	9.972081E-1	1.004412E+0	1.051434E+0	9.959787E-1	1.028874E+0	1.013923E+0	9.987576E-1	1.004779E+0	9.744757E-1	1.031489E+0	9.786760E-1	1.019374E+0	9.603769E-1	9.937137E-1	9.884528E-1	9.568621E-1	9.878820E-1	9.409324E-1	9.544332E-1	9.940790E-1	9.959097E-1	9.976076E-1	9.724083E-1	1.002238E+0	9.866262E-1	9.938768E-1	9.591192E-1	9.846363E-1	9.436250E-1	9.667000E-1	9.994767E-1	1.004146E+0	9.699467E-1	9.662174E-1	1.034292E+0	9.881711E-1	9.843055E-1	9.629078E-1	9.851393E-1	9.916564E-1	9.946342E-1	9.850711E-1	9.882752E-1	1.007942E+0	1.007014E+0	9.474863E-1	9.855747E-1	1.014311E+0	1.014654E+0	1.000705E+0	1.032520E+0	1.003131E+0	9.901566E-1	9.807400E-1	1.021821E+0	1.006287E+0	9.905479E-1	1.002152E+0	1.002477E+0	9.809257E-1	1.027733E+0	1.009575E+0	9.731908E-1	9.973816E-1	9.437642E-1	1.006017E+0	9.937113E-1	9.947125E-1	9.814860E-1	9.913165E-1	9.899457E-1	9.645749E-1	1.038260E+0	9.856043E-1	9.561387E-1	1.052609E+0
5.590100E+2	1.005122E+0	1.006655E+0	9.779854E-1	1.009997E+0	9.792574E-1	1.001213E+0	1.054388E+0	9.811136E-1	9.826040E-1	1.015265E+0	1.015510E+0	1.003680E+0	1.025417E+0	1.032898E+0	1.025605E+0	1.011951E+0	9.822378E-1	1.038752E+0	1.000443E+0	1.057398E+0	9.928642E-1	9.875869E-1	1.003297E+0	1.013420E+0	9.891973E-1	9.951640E-1	1.009577E+0	9.993642E-1	1.003060E+0	9.982103E-1	1.055173E+0	9.875236E-1	1.004006E+0	1.048804E+0	1.042947E+0	9.870094E-1	1.010646E+0	9.951688E-1	1.029578E+0	1.031249E+0	9.635134E-1	1.009159E+0	1.000918E+0	9.919530E-1	9.592596E-1	9.871462E-1	9.745336E-1	1.005983E+0	1.036187E+0	9.981373E-1	1.038867E+0	1.001835E+0	1.015078E+0	9.973560E-1	9.873580E-1	9.765981E-1	9.563941E-1	1.007222E+0	9.493297E-1	1.000471E+0	1.039102E+0	9.909631E-1	9.905344E-1	9.952644E-1	1.007296E+0	9.924305E-1	9.873209E-1	9.877412E-1	9.889347E-1	1.010961E+0	9.636194E-1	9.946320E-1	9.946563E-1	1.016010E+0	1.011383E+0	1.002911E+0	9.863430E-1	1.018087E+0	9.888410E-1	1.015165E+0	1.031675E+0	1.013458E+0	9.999534E-1	1.027889E+0	9.803404E-1	1.001981E+0	9.825032E-1	9.669785E-1	1.005434E+0	1.024114E+0	9.523772E-1	1.009705E+0	9.823000E-1	1.015078E+0	9.639164E-1	9.720004E-1	1.010421E+0	9.602255E-1	1.026083E+0	1.017835E+0	1.001088E+0	9.713016E-1	1.003473E+0	9.537389E-1	1.040274E+0	1.016628E+0	9.842529E-1	9.629360E-1	1.014591E+0	1.008579E+0	1.017463E+0	1.043063E+0	1.012473E+0	1.005362E+0	1.003559E+0	9.792485E-1	9.807364E-1	1.006432E+0	9.772366E-1	1.000675E+0	1.039554E+0	1.020257E+0	1.012164E+0	1.030963E+0	1.026362E+0	1.008423E+0	9.744864E-1	1.022239E+0	9.940719E-1	1.027358E+0	9.728573E-1	9.617167E-1	9.971618E-1	9.793978E-1	1.016942E+0	1.001954E+0	1.008830E+0	9.347966E-1	9.872930E-1	9.879281E-1	9.982801E-1	9.791720E-1	1.007888E+0	9.751351E-1	1.066147E+0	9.796319E-1	9.908935E-1	1.016352E+0	9.897030E-1	9.849433E-1	9.554624E-1	1.007141E+0	1.029542E+0	9.633379E-1	9.432085E-1	9.874571E-1	9.999695E-1	9.908745E-1	1.013590E+0	1.025336E+0	1.060507E+0	1.008464E+0	9.982492E-1	1.011693E+0	9.921864E-1	9.953205E-1	1.013861E+0	1.007944E+0	1.051670E+0	9.898414E-1	9.710216E-1	1.019044E+0
5.595110E+2	1.023025E+0	9.907980E-1	9.998571E-1	9.338413E-1	1.017804E+0	9.912435E-1	9.961377E-1	1.007534E+0	9.940350E-1	1.031660E+0	1.012535E+0	9.838831E-1	1.014585E+0	1.020939E+0	9.664367E-1	9.886471E-1	1.024789E+0	1.013330E+0	1.004177E+0	9.641723E-1	1.001644E+0	9.895140E-1	9.805747E-1	1.005618E+0	1.035438E+0	9.834032E-1	9.823027E-1	1.013011E+0	1.018072E+0	9.751054E-1	9.939888E-1	9.760953E-1	1.001697E+0	9.997416E-1	9.806657E-1	9.732219E-1	1.025395E+0	1.012216E+0	9.603328E-1	1.018952E+0	1.019176E+0	1.003859E+0	1.002496E+0	9.575797E-1	1.023323E+0	1.025403E+0	1.003762E+0	9.968329E-1	9.884618E-1	9.841329E-1	9.827071E-1	9.976204E-1	9.897770E-1	9.939203E-1	9.837643E-1	1.014431E+0	1.050066E+0	1.015738E+0	1.000370E+0	1.008011E+0	9.892675E-1	9.947509E-1	9.873887E-1	9.892476E-1	9.893875E-1	9.689026E-1	9.690491E-1	1.014372E+0	1.039905E+0	9.769156E-1	1.007975E+0	1.008815E+0	1.003398E+0	1.010282E+0	1.030095E+0	9.781270E-1	1.025357E+0	1.014501E+0	9.979366E-1	1.010274E+0	1.015003E+0	9.895474E-1	1.027963E+0	9.940998E-1	9.891636E-1	9.449478E-1	9.913410E-1	9.917723E-1	9.704594E-1	9.699074E-1	1.001915E+0	9.546950E-1	1.019388E+0	1.049527E+0	1.005871E+0	9.667142E-1	9.841600E-1	1.031090E+0	1.003479E+0	1.015659E+0	9.927860E-1	9.861068E-1	9.975139E-1	9.991420E-1	1.001024E+0	9.918803E-1	1.004885E+0	1.009172E+0	1.015653E+0	1.030498E+0	9.771350E-1	9.655917E-1	9.974871E-1	1.011914E+0	1.012014E+0	1.016489E+0	1.026436E+0	9.947003E-1	9.712169E-1	1.015164E+0	9.790032E-1	1.002908E+0	9.928510E-1	9.769825E-1	9.440163E-1	1.022721E+0	1.015931E+0	1.022775E+0	1.009974E+0	1.009586E+0	9.870808E-1	1.010001E+0	1.029498E+0	1.036326E+0	9.919687E-1	1.001608E+0	1.011467E+0	9.981424E-1	1.004222E+0	9.692911E-1	1.005760E+0	1.018196E+0	1.008112E+0	1.015170E+0	1.020995E+0	9.862188E-1	9.810942E-1	1.011457E+0	1.020182E+0	9.752833E-1	9.878820E-1	1.014057E+0	9.892257E-1	1.001758E+0	1.004593E+0	1.011441E+0	9.656927E-1	9.948567E-1	1.017019E+0	1.006234E+0	1.021312E+0	1.021405E+0	9.943592E-1	9.981772E-1	9.888026E-1	9.945378E-1	9.741212E-1	1.014492E+0	9.490329E-1	1.031746E+0	9.752892E-1	9.870224E-1
5.600240E+2	1.009045E+0	9.803023E-1	1.018985E+0	9.804161E-1	1.042019E+0	9.849446E-1	9.641196E-1	9.948341E-1	1.019575E+0	9.921743E-1	1.002280E+0	9.817219E-1	1.026735E+0	1.002594E+0	9.891294E-1	9.893310E-1	9.756794E-1	9.975243E-1	9.971532E-1	1.021281E+0	9.891431E-1	1.052615E+0	1.012230E+0	1.028698E+0	9.789014E-1	9.734591E-1	1.025046E+0	1.004790E+0	1.029052E+0	1.028534E+0	9.778795E-1	1.000733E+0	9.818690E-1	9.941021E-1	1.006838E+0	1.004472E+0	1.014762E+0	1.048366E+0	9.981712E-1	1.004890E+0	1.009214E+0	1.008013E+0	1.011862E+0	1.022905E+0	1.019509E+0	9.959684E-1	9.870342E-1	9.805967E-1	9.840785E-1	1.009220E+0	1.001516E+0	1.006150E+0	1.014338E+0	1.031054E+0	9.985092E-1	1.044685E+0	9.715164E-1	1.004878E+0	1.039281E+0	1.001433E+0	9.925244E-1	1.039295E+0	1.014386E+0	1.015934E+0	1.020095E+0	1.021320E+0	1.011631E+0	9.866704E-1	1.006009E+0	1.024395E+0	9.745691E-1	1.008943E+0	9.790226E-1	1.036628E+0	9.637880E-1	1.034936E+0	9.802195E-1	9.839740E-1	1.004751E+0	1.034629E+0	9.850569E-1	1.020128E+0	9.718858E-1	1.001726E+0	1.012924E+0	1.022299E+0	1.006509E+0	9.968666E-1	9.970231E-1	9.842759E-1	1.000748E+0	9.854722E-1	1.046095E+0	9.844908E-1	1.017105E+0	1.019079E+0	9.677645E-1	1.018801E+0	9.843216E-1	9.908421E-1	9.835779E-1	9.861283E-1	9.780397E-1	1.033238E+0	1.034127E+0	1.017988E+0	9.837145E-1	9.796935E-1	9.998093E-1	9.668661E-1	1.020715E+0	9.770080E-1	9.858476E-1	1.046358E+0	9.508277E-1	9.718636E-1	9.912461E-1	1.010700E+0	9.808261E-1	9.740381E-1	1.007109E+0	1.005852E+0	9.960184E-1	1.009522E+0	1.029541E+0	9.888076E-1	1.028738E+0	9.966508E-1	1.003759E+0	1.007743E+0	1.008095E+0	9.957668E-1	1.005151E+0	1.002476E+0	9.839040E-1	9.943703E-1	1.029882E+0	9.983412E-1	1.019715E+0	1.004439E+0	1.036939E+0	1.002457E+0	1.036703E+0	1.005187E+0	9.901967E-1	1.006280E+0	9.687158E-1	9.879334E-1	1.003647E+0	1.049819E+0	1.012167E+0	9.832490E-1	1.007965E+0	1.031986E+0	1.033426E+0	1.051511E+0	1.009125E+0	1.012431E+0	1.026896E+0	9.638072E-1	1.005850E+0	1.015336E+0	9.859077E-1	9.976427E-1	1.021119E+0	1.015710E+0	9.712424E-1	1.010494E+0	9.955479E-1	9.832104E-1	1.073960E+0	1.078210E+0
5.605150E+2	1.018011E+0	9.913953E-1	9.819244E-1	9.717147E-1	1.021871E+0	1.031294E+0	9.783236E-1	9.814384E-1	1.009640E+0	9.690556E-1	9.899755E-1	1.024102E+0	9.810035E-1	9.584238E-1	1.035007E+0	1.020941E+0	9.861439E-1	9.902252E-1	1.012716E+0	1.005068E+0	1.003502E+0	1.020032E+0	1.023771E+0	9.887257E-1	9.899924E-1	1.029646E+0	9.664372E-1	9.889392E-1	9.610709E-1	1.006690E+0	9.627998E-1	1.007409E+0	1.022239E+0	9.963319E-1	1.004529E+0	1.011608E+0	9.975370E-1	9.778319E-1	1.009766E+0	9.772149E-1	9.865649E-1	1.013620E+0	1.007031E+0	9.943535E-1	9.882114E-1	1.007867E+0	1.031696E+0	1.008434E+0	1.003893E+0	9.992215E-1	9.878407E-1	1.021361E+0	9.829002E-1	1.037977E+0	1.018555E+0	9.942149E-1	1.003023E+0	1.004297E+0	1.003830E+0	9.577549E-1	9.626251E-1	9.960065E-1	1.038690E+0	9.988544E-1	1.004294E+0	1.023046E+0	1.019273E+0	9.876069E-1	9.967404E-1	1.009355E+0	1.014041E+0	1.031101E+0	9.472964E-1	1.008338E+0	1.028639E+0	9.981653E-1	9.894878E-1	1.018175E+0	1.021828E+0	9.660400E-1	9.931516E-1	9.984136E-1	1.030622E+0	9.888933E-1	9.847430E-1	1.012728E+0	9.974703E-1	1.015315E+0	9.865906E-1	1.002815E+0	1.008263E+0	9.985118E-1	9.935613E-1	1.018843E+0	9.834446E-1	1.013728E+0	1.005214E+0	9.796679E-1	1.021931E+0	1.015105E+0	9.815397E-1	9.889494E-1	1.006252E+0	9.992182E-1	9.469554E-1	1.001485E+0	9.914124E-1	1.001312E+0	1.012580E+0	9.952118E-1	1.006149E+0	1.018549E+0	9.996290E-1	9.716158E-1	1.006232E+0	1.043026E+0	1.007220E+0	9.854330E-1	1.034853E+0	1.025080E+0	9.959203E-1	9.881714E-1	1.010477E+0	9.731067E-1	1.022576E+0	9.848670E-1	9.889930E-1	1.000118E+0	9.908006E-1	9.888473E-1	9.908183E-1	9.993792E-1	9.939774E-1	1.019192E+0	9.691302E-1	1.032129E+0	9.726565E-1	1.040273E+0	9.769177E-1	9.879746E-1	9.901329E-1	1.037956E+0	9.776086E-1	9.869517E-1	9.997865E-1	1.017972E+0	9.813911E-1	9.605580E-1	1.007020E+0	1.045574E+0	9.946864E-1	9.830766E-1	9.940657E-1	1.006118E+0	9.899033E-1	1.000169E+0	1.032581E+0	1.001247E+0	9.885984E-1	1.013316E+0	1.015857E+0	9.640976E-1	1.012960E+0	9.685508E-1	1.001206E+0	1.017546E+0	1.011366E+0	1.017591E+0	9.667742E-1	1.012671E+0	9.984151E-1	8.758502E-1
5.610010E+2	1.023624E+0	9.925394E-1	1.039404E+0	1.059704E+0	9.614935E-1	9.780594E-1	9.903732E-1	9.994933E-1	1.052631E+0	9.818097E-1	9.840177E-1	9.972172E-1	9.928312E-1	1.006267E+0	1.005937E+0	9.941255E-1	1.024866E+0	9.905856E-1	9.671213E-1	9.525495E-1	9.959869E-1	9.931140E-1	1.030184E+0	9.950097E-1	1.002441E+0	1.032016E+0	1.015480E+0	1.005496E+0	1.009755E+0	1.002643E+0	1.019613E+0	1.033813E+0	1.030191E+0	9.786743E-1	9.790175E-1	1.035110E+0	9.859941E-1	9.885469E-1	1.004286E+0	1.014231E+0	1.000465E+0	1.029032E+0	1.016812E+0	1.039458E+0	1.001830E+0	9.923086E-1	1.005396E+0	9.768202E-1	9.799610E-1	1.001768E+0	1.022380E+0	9.785015E-1	1.051049E+0	9.638676E-1	9.993751E-1	9.935800E-1	1.047474E+0	9.632358E-1	1.031202E+0	1.007909E+0	1.004666E+0	9.848665E-1	9.732596E-1	1.001519E+0	1.002096E+0	9.825990E-1	9.790262E-1	1.037595E+0	1.011017E+0	1.015748E+0	1.002661E+0	9.742512E-1	1.017738E+0	9.957605E-1	1.009127E+0	9.890135E-1	1.006090E+0	9.761677E-1	9.989534E-1	9.969180E-1	9.766267E-1	1.004719E+0	1.013028E+0	9.913983E-1	1.027128E+0	1.002557E+0	1.039668E+0	1.007239E+0	1.058515E+0	9.908830E-1	1.026206E+0	1.007539E+0	1.018214E+0	9.966114E-1	1.001197E+0	1.008153E+0	1.001350E+0	1.007621E+0	9.518608E-1	9.825096E-1	1.009815E+0	1.002468E+0	1.022946E+0	1.004640E+0	1.019124E+0	9.719391E-1	1.033803E+0	1.024291E+0	9.926894E-1	1.000402E+0	1.027466E+0	1.049526E+0	9.724176E-1	1.010103E+0	1.008286E+0	9.948414E-1	1.010034E+0	9.983683E-1	1.047227E+0	1.023016E+0	9.937225E-1	9.988310E-1	1.015080E+0	1.039054E+0	1.031778E+0	1.033418E+0	1.055243E+0	9.898606E-1	1.003746E+0	9.820456E-1	9.872938E-1	1.021558E+0	9.969701E-1	1.010636E+0	1.043758E+0	1.010114E+0	1.000963E+0	1.029228E+0	1.002095E+0	1.035789E+0	1.000759E+0	1.039799E+0	9.670983E-1	1.007152E+0	9.430483E-1	1.026185E+0	1.006039E+0	1.025420E+0	1.016981E+0	9.964310E-1	9.939338E-1	1.008281E+0	1.009526E+0	9.864076E-1	1.016551E+0	1.001214E+0	9.764615E-1	9.736478E-1	9.892558E-1	1.008172E+0	9.878035E-1	1.006109E+0	1.006248E+0	1.006989E+0	1.014229E+0	1.027855E+0	1.029641E+0	1.006756E+0	1.028446E+0	1.003792E+0	1.041176E+0	1.010965E+0
